创建为新数据集,样品 080 用户 Administrator 日期 星期日, 十一月 05 2017
cm-1,%T
10000.00,1.41
9999.00,1.41
9998.00,1.41
9997.00,1.41
9996.00,1.41
9995.00,1.41
9994.00,1.40
9993.00,1.40
9992.00,1.40
9991.00,1.40
9990.00,1.40
9989.00,1.41
9988.00,1.41
9987.00,1.41
9986.00,1.41
9985.00,1.41
9984.00,1.41
9983.00,1.41
9982.00,1.41
9981.00,1.41
9980.00,1.41
9979.00,1.41
9978.00,1.41
9977.00,1.41
9976.00,1.41
9975.00,1.41
9974.00,1.41
9973.00,1.41
9972.00,1.41
9971.00,1.41
9970.00,1.41
9969.00,1.41
9968.00,1.41
9967.00,1.41
9966.00,1.41
9965.00,1.41
9964.00,1.41
9963.00,1.41
9962.00,1.41
9961.00,1.41
9960.00,1.41
9959.00,1.41
9958.00,1.41
9957.00,1.41
9956.00,1.41
9955.00,1.41
9954.00,1.41
9953.00,1.41
9952.00,1.41
9951.00,1.41
9950.00,1.41
9949.00,1.41
9948.00,1.40
9947.00,1.40
9946.00,1.40
9945.00,1.39
9944.00,1.39
9943.00,1.39
9942.00,1.38
9941.00,1.38
9940.00,1.38
9939.00,1.37
9938.00,1.37
9937.00,1.37
9936.00,1.36
9935.00,1.36
9934.00,1.36
9933.00,1.36
9932.00,1.35
9931.00,1.35
9930.00,1.35
9929.00,1.35
9928.00,1.35
9927.00,1.35
9926.00,1.35
9925.00,1.35
9924.00,1.35
9923.00,1.35
9922.00,1.35
9921.00,1.35
9920.00,1.35
9919.00,1.36
9918.00,1.36
9917.00,1.36
9916.00,1.36
9915.00,1.36
9914.00,1.36
9913.00,1.37
9912.00,1.37
9911.00,1.37
9910.00,1.37
9909.00,1.37
9908.00,1.37
9907.00,1.37
9906.00,1.37
9905.00,1.37
9904.00,1.37
9903.00,1.37
9902.00,1.37
9901.00,1.37
9900.00,1.37
9899.00,1.37
9898.00,1.37
9897.00,1.37
9896.00,1.37
9895.00,1.37
9894.00,1.37
9893.00,1.37
9892.00,1.36
9891.00,1.36
9890.00,1.36
9889.00,1.36
9888.00,1.36
9887.00,1.35
9886.00,1.35
9885.00,1.35
9884.00,1.35
9883.00,1.34
9882.00,1.34
9881.00,1.34
9880.00,1.34
9879.00,1.34
9878.00,1.34
9877.00,1.34
9876.00,1.34
9875.00,1.34
9874.00,1.34
9873.00,1.34
9872.00,1.34
9871.00,1.34
9870.00,1.34
9869.00,1.35
9868.00,1.35
9867.00,1.35
9866.00,1.35
9865.00,1.35
9864.00,1.35
9863.00,1.35
9862.00,1.35
9861.00,1.35
9860.00,1.35
9859.00,1.35
9858.00,1.35
9857.00,1.35
9856.00,1.35
9855.00,1.35
9854.00,1.35
9853.00,1.36
9852.00,1.36
9851.00,1.36
9850.00,1.36
9849.00,1.36
9848.00,1.36
9847.00,1.36
9846.00,1.36
9845.00,1.36
9844.00,1.36
9843.00,1.36
9842.00,1.36
9841.00,1.36
9840.00,1.36
9839.00,1.36
9838.00,1.36
9837.00,1.36
9836.00,1.36
9835.00,1.36
9834.00,1.36
9833.00,1.36
9832.00,1.36
9831.00,1.36
9830.00,1.36
9829.00,1.36
9828.00,1.36
9827.00,1.36
9826.00,1.36
9825.00,1.36
9824.00,1.36
9823.00,1.36
9822.00,1.36
9821.00,1.36
9820.00,1.36
9819.00,1.36
9818.00,1.36
9817.00,1.37
9816.00,1.37
9815.00,1.37
9814.00,1.37
9813.00,1.37
9812.00,1.38
9811.00,1.38
9810.00,1.38
9809.00,1.38
9808.00,1.38
9807.00,1.38
9806.00,1.38
9805.00,1.38
9804.00,1.38
9803.00,1.38
9802.00,1.38
9801.00,1.38
9800.00,1.38
9799.00,1.38
9798.00,1.38
9797.00,1.38
9796.00,1.37
9795.00,1.37
9794.00,1.37
9793.00,1.37
9792.00,1.36
9791.00,1.36
9790.00,1.36
9789.00,1.36
9788.00,1.35
9787.00,1.35
9786.00,1.35
9785.00,1.35
9784.00,1.35
9783.00,1.34
9782.00,1.34
9781.00,1.34
9780.00,1.34
9779.00,1.34
9778.00,1.34
9777.00,1.34
9776.00,1.34
9775.00,1.34
9774.00,1.35
9773.00,1.35
9772.00,1.35
9771.00,1.35
9770.00,1.35
9769.00,1.35
9768.00,1.35
9767.00,1.35
9766.00,1.35
9765.00,1.35
9764.00,1.35
9763.00,1.35
9762.00,1.35
9761.00,1.36
9760.00,1.36
9759.00,1.36
9758.00,1.36
9757.00,1.36
9756.00,1.37
9755.00,1.37
9754.00,1.37
9753.00,1.37
9752.00,1.37
9751.00,1.37
9750.00,1.37
9749.00,1.37
9748.00,1.37
9747.00,1.37
9746.00,1.37
9745.00,1.37
9744.00,1.37
9743.00,1.37
9742.00,1.37
9741.00,1.37
9740.00,1.37
9739.00,1.37
9738.00,1.37
9737.00,1.37
9736.00,1.37
9735.00,1.36
9734.00,1.36
9733.00,1.36
9732.00,1.36
9731.00,1.36
9730.00,1.36
9729.00,1.35
9728.00,1.35
9727.00,1.35
9726.00,1.34
9725.00,1.34
9724.00,1.33
9723.00,1.33
9722.00,1.33
9721.00,1.32
9720.00,1.32
9719.00,1.32
9718.00,1.31
9717.00,1.31
9716.00,1.31
9715.00,1.31
9714.00,1.31
9713.00,1.32
9712.00,1.32
9711.00,1.32
9710.00,1.32
9709.00,1.33
9708.00,1.33
9707.00,1.33
9706.00,1.34
9705.00,1.34
9704.00,1.34
9703.00,1.35
9702.00,1.35
9701.00,1.35
9700.00,1.35
9699.00,1.35
9698.00,1.35
9697.00,1.35
9696.00,1.36
9695.00,1.36
9694.00,1.36
9693.00,1.36
9692.00,1.36
9691.00,1.36
9690.00,1.36
9689.00,1.37
9688.00,1.37
9687.00,1.37
9686.00,1.37
9685.00,1.37
9684.00,1.38
9683.00,1.38
9682.00,1.38
9681.00,1.38
9680.00,1.38
9679.00,1.38
9678.00,1.38
9677.00,1.38
9676.00,1.38
9675.00,1.38
9674.00,1.38
9673.00,1.38
9672.00,1.38
9671.00,1.38
9670.00,1.38
9669.00,1.37
9668.00,1.37
9667.00,1.37
9666.00,1.37
9665.00,1.37
9664.00,1.36
9663.00,1.36
9662.00,1.36
9661.00,1.36
9660.00,1.36
9659.00,1.36
9658.00,1.36
9657.00,1.36
9656.00,1.36
9655.00,1.36
9654.00,1.36
9653.00,1.36
9652.00,1.36
9651.00,1.37
9650.00,1.37
9649.00,1.37
9648.00,1.37
9647.00,1.37
9646.00,1.37
9645.00,1.37
9644.00,1.38
9643.00,1.38
9642.00,1.38
9641.00,1.38
9640.00,1.38
9639.00,1.38
9638.00,1.38
9637.00,1.38
9636.00,1.38
9635.00,1.38
9634.00,1.38
9633.00,1.38
9632.00,1.38
9631.00,1.38
9630.00,1.37
9629.00,1.37
9628.00,1.37
9627.00,1.37
9626.00,1.37
9625.00,1.37
9624.00,1.37
9623.00,1.37
9622.00,1.37
9621.00,1.37
9620.00,1.37
9619.00,1.37
9618.00,1.37
9617.00,1.37
9616.00,1.36
9615.00,1.36
9614.00,1.36
9613.00,1.36
9612.00,1.36
9611.00,1.36
9610.00,1.36
9609.00,1.35
9608.00,1.35
9607.00,1.35
9606.00,1.35
9605.00,1.35
9604.00,1.35
9603.00,1.34
9602.00,1.34
9601.00,1.34
9600.00,1.34
9599.00,1.35
9598.00,1.35
9597.00,1.35
9596.00,1.35
9595.00,1.35
9594.00,1.36
9593.00,1.36
9592.00,1.36
9591.00,1.37
9590.00,1.37
9589.00,1.37
9588.00,1.37
9587.00,1.38
9586.00,1.38
9585.00,1.38
9584.00,1.38
9583.00,1.38
9582.00,1.38
9581.00,1.38
9580.00,1.38
9579.00,1.38
9578.00,1.38
9577.00,1.38
9576.00,1.38
9575.00,1.39
9574.00,1.39
9573.00,1.39
9572.00,1.39
9571.00,1.39
9570.00,1.39
9569.00,1.39
9568.00,1.39
9567.00,1.39
9566.00,1.39
9565.00,1.39
9564.00,1.39
9563.00,1.39
9562.00,1.38
9561.00,1.38
9560.00,1.38
9559.00,1.38
9558.00,1.38
9557.00,1.37
9556.00,1.37
9555.00,1.37
9554.00,1.37
9553.00,1.37
9552.00,1.37
9551.00,1.36
9550.00,1.36
9549.00,1.36
9548.00,1.36
9547.00,1.36
9546.00,1.36
9545.00,1.36
9544.00,1.36
9543.00,1.36
9542.00,1.36
9541.00,1.37
9540.00,1.37
9539.00,1.37
9538.00,1.37
9537.00,1.37
9536.00,1.37
9535.00,1.38
9534.00,1.38
9533.00,1.38
9532.00,1.38
9531.00,1.38
9530.00,1.38
9529.00,1.39
9528.00,1.39
9527.00,1.39
9526.00,1.39
9525.00,1.39
9524.00,1.39
9523.00,1.39
9522.00,1.39
9521.00,1.39
9520.00,1.39
9519.00,1.39
9518.00,1.39
9517.00,1.39
9516.00,1.39
9515.00,1.38
9514.00,1.38
9513.00,1.38
9512.00,1.38
9511.00,1.38
9510.00,1.38
9509.00,1.38
9508.00,1.38
9507.00,1.38
9506.00,1.38
9505.00,1.38
9504.00,1.38
9503.00,1.38
9502.00,1.38
9501.00,1.38
9500.00,1.38
9499.00,1.38
9498.00,1.38
9497.00,1.38
9496.00,1.37
9495.00,1.37
9494.00,1.37
9493.00,1.37
9492.00,1.37
9491.00,1.37
9490.00,1.37
9489.00,1.38
9488.00,1.38
9487.00,1.38
9486.00,1.38
9485.00,1.38
9484.00,1.38
9483.00,1.38
9482.00,1.38
9481.00,1.38
9480.00,1.38
9479.00,1.38
9478.00,1.38
9477.00,1.38
9476.00,1.38
9475.00,1.38
9474.00,1.38
9473.00,1.38
9472.00,1.38
9471.00,1.38
9470.00,1.38
9469.00,1.38
9468.00,1.38
9467.00,1.38
9466.00,1.38
9465.00,1.38
9464.00,1.38
9463.00,1.38
9462.00,1.38
9461.00,1.38
9460.00,1.38
9459.00,1.39
9458.00,1.39
9457.00,1.39
9456.00,1.39
9455.00,1.39
9454.00,1.39
9453.00,1.39
9452.00,1.39
9451.00,1.39
9450.00,1.39
9449.00,1.39
9448.00,1.39
9447.00,1.39
9446.00,1.39
9445.00,1.39
9444.00,1.39
9443.00,1.39
9442.00,1.39
9441.00,1.40
9440.00,1.40
9439.00,1.40
9438.00,1.40
9437.00,1.40
9436.00,1.40
9435.00,1.40
9434.00,1.41
9433.00,1.41
9432.00,1.41
9431.00,1.40
9430.00,1.40
9429.00,1.40
9428.00,1.40
9427.00,1.40
9426.00,1.39
9425.00,1.39
9424.00,1.39
9423.00,1.39
9422.00,1.38
9421.00,1.38
9420.00,1.38
9419.00,1.38
9418.00,1.37
9417.00,1.37
9416.00,1.37
9415.00,1.37
9414.00,1.37
9413.00,1.37
9412.00,1.37
9411.00,1.37
9410.00,1.37
9409.00,1.38
9408.00,1.38
9407.00,1.38
9406.00,1.38
9405.00,1.38
9404.00,1.38
9403.00,1.38
9402.00,1.37
9401.00,1.37
9400.00,1.37
9399.00,1.37
9398.00,1.37
9397.00,1.36
9396.00,1.36
9395.00,1.36
9394.00,1.36
9393.00,1.35
9392.00,1.35
9391.00,1.35
9390.00,1.35
9389.00,1.35
9388.00,1.34
9387.00,1.34
9386.00,1.34
9385.00,1.34
9384.00,1.34
9383.00,1.35
9382.00,1.35
9381.00,1.35
9380.00,1.35
9379.00,1.35
9378.00,1.36
9377.00,1.36
9376.00,1.36
9375.00,1.36
9374.00,1.37
9373.00,1.37
9372.00,1.37
9371.00,1.38
9370.00,1.38
9369.00,1.38
9368.00,1.39
9367.00,1.39
9366.00,1.39
9365.00,1.39
9364.00,1.39
9363.00,1.39
9362.00,1.39
9361.00,1.39
9360.00,1.39
9359.00,1.39
9358.00,1.40
9357.00,1.39
9356.00,1.39
9355.00,1.39
9354.00,1.39
9353.00,1.39
9352.00,1.39
9351.00,1.39
9350.00,1.39
9349.00,1.39
9348.00,1.39
9347.00,1.39
9346.00,1.39
9345.00,1.39
9344.00,1.39
9343.00,1.39
9342.00,1.39
9341.00,1.39
9340.00,1.39
9339.00,1.39
9338.00,1.39
9337.00,1.39
9336.00,1.39
9335.00,1.39
9334.00,1.39
9333.00,1.39
9332.00,1.39
9331.00,1.39
9330.00,1.39
9329.00,1.39
9328.00,1.39
9327.00,1.39
9326.00,1.39
9325.00,1.39
9324.00,1.39
9323.00,1.39
9322.00,1.38
9321.00,1.38
9320.00,1.38
9319.00,1.38
9318.00,1.37
9317.00,1.37
9316.00,1.37
9315.00,1.36
9314.00,1.36
9313.00,1.36
9312.00,1.36
9311.00,1.36
9310.00,1.36
9309.00,1.36
9308.00,1.36
9307.00,1.36
9306.00,1.36
9305.00,1.36
9304.00,1.36
9303.00,1.36
9302.00,1.37
9301.00,1.37
9300.00,1.37
9299.00,1.37
9298.00,1.38
9297.00,1.38
9296.00,1.38
9295.00,1.38
9294.00,1.39
9293.00,1.39
9292.00,1.39
9291.00,1.39
9290.00,1.39
9289.00,1.39
9288.00,1.39
9287.00,1.39
9286.00,1.39
9285.00,1.39
9284.00,1.39
9283.00,1.39
9282.00,1.39
9281.00,1.39
9280.00,1.39
9279.00,1.39
9278.00,1.39
9277.00,1.39
9276.00,1.39
9275.00,1.39
9274.00,1.39
9273.00,1.39
9272.00,1.39
9271.00,1.39
9270.00,1.39
9269.00,1.39
9268.00,1.39
9267.00,1.39
9266.00,1.39
9265.00,1.39
9264.00,1.39
9263.00,1.39
9262.00,1.39
9261.00,1.39
9260.00,1.39
9259.00,1.39
9258.00,1.39
9257.00,1.39
9256.00,1.39
9255.00,1.39
9254.00,1.39
9253.00,1.39
9252.00,1.39
9251.00,1.39
9250.00,1.39
9249.00,1.39
9248.00,1.38
9247.00,1.38
9246.00,1.38
9245.00,1.38
9244.00,1.38
9243.00,1.38
9242.00,1.38
9241.00,1.38
9240.00,1.38
9239.00,1.38
9238.00,1.38
9237.00,1.38
9236.00,1.37
9235.00,1.37
9234.00,1.37
9233.00,1.37
9232.00,1.37
9231.00,1.37
9230.00,1.37
9229.00,1.37
9228.00,1.37
9227.00,1.37
9226.00,1.37
9225.00,1.37
9224.00,1.37
9223.00,1.37
9222.00,1.37
9221.00,1.37
9220.00,1.37
9219.00,1.37
9218.00,1.38
9217.00,1.38
9216.00,1.38
9215.00,1.38
9214.00,1.38
9213.00,1.39
9212.00,1.39
9211.00,1.39
9210.00,1.39
9209.00,1.40
9208.00,1.40
9207.00,1.40
9206.00,1.40
9205.00,1.40
9204.00,1.40
9203.00,1.40
9202.00,1.40
9201.00,1.40
9200.00,1.40
9199.00,1.39
9198.00,1.39
9197.00,1.39
9196.00,1.39
9195.00,1.39
9194.00,1.38
9193.00,1.38
9192.00,1.38
9191.00,1.38
9190.00,1.38
9189.00,1.38
9188.00,1.38
9187.00,1.38
9186.00,1.38
9185.00,1.38
9184.00,1.38
9183.00,1.38
9182.00,1.38
9181.00,1.38
9180.00,1.38
9179.00,1.38
9178.00,1.38
9177.00,1.39
9176.00,1.39
9175.00,1.39
9174.00,1.39
9173.00,1.39
9172.00,1.39
9171.00,1.39
9170.00,1.39
9169.00,1.39
9168.00,1.39
9167.00,1.39
9166.00,1.39
9165.00,1.39
9164.00,1.39
9163.00,1.40
9162.00,1.40
9161.00,1.40
9160.00,1.40
9159.00,1.40
9158.00,1.40
9157.00,1.40
9156.00,1.40
9155.00,1.39
9154.00,1.39
9153.00,1.39
9152.00,1.39
9151.00,1.39
9150.00,1.39
9149.00,1.38
9148.00,1.38
9147.00,1.38
9146.00,1.38
9145.00,1.37
9144.00,1.37
9143.00,1.37
9142.00,1.37
9141.00,1.37
9140.00,1.37
9139.00,1.37
9138.00,1.37
9137.00,1.37
9136.00,1.38
9135.00,1.38
9134.00,1.38
9133.00,1.38
9132.00,1.38
9131.00,1.39
9130.00,1.39
9129.00,1.39
9128.00,1.39
9127.00,1.39
9126.00,1.39
9125.00,1.39
9124.00,1.39
9123.00,1.39
9122.00,1.39
9121.00,1.39
9120.00,1.39
9119.00,1.39
9118.00,1.38
9117.00,1.38
9116.00,1.38
9115.00,1.38
9114.00,1.38
9113.00,1.38
9112.00,1.38
9111.00,1.38
9110.00,1.38
9109.00,1.38
9108.00,1.38
9107.00,1.38
9106.00,1.38
9105.00,1.38
9104.00,1.38
9103.00,1.39
9102.00,1.39
9101.00,1.39
9100.00,1.39
9099.00,1.39
9098.00,1.39
9097.00,1.39
9096.00,1.39
9095.00,1.39
9094.00,1.39
9093.00,1.39
9092.00,1.39
9091.00,1.39
9090.00,1.39
9089.00,1.39
9088.00,1.39
9087.00,1.39
9086.00,1.39
9085.00,1.39
9084.00,1.38
9083.00,1.38
9082.00,1.38
9081.00,1.38
9080.00,1.38
9079.00,1.38
9078.00,1.38
9077.00,1.38
9076.00,1.38
9075.00,1.38
9074.00,1.37
9073.00,1.37
9072.00,1.37
9071.00,1.37
9070.00,1.37
9069.00,1.37
9068.00,1.37
9067.00,1.37
9066.00,1.37
9065.00,1.37
9064.00,1.37
9063.00,1.37
9062.00,1.37
9061.00,1.37
9060.00,1.37
9059.00,1.38
9058.00,1.38
9057.00,1.38
9056.00,1.38
9055.00,1.38
9054.00,1.38
9053.00,1.38
9052.00,1.39
9051.00,1.39
9050.00,1.39
9049.00,1.39
9048.00,1.39
9047.00,1.39
9046.00,1.39
9045.00,1.40
9044.00,1.40
9043.00,1.40
9042.00,1.40
9041.00,1.40
9040.00,1.40
9039.00,1.40
9038.00,1.40
9037.00,1.40
9036.00,1.40
9035.00,1.40
9034.00,1.40
9033.00,1.40
9032.00,1.40
9031.00,1.40
9030.00,1.40
9029.00,1.40
9028.00,1.40
9027.00,1.40
9026.00,1.39
9025.00,1.39
9024.00,1.39
9023.00,1.39
9022.00,1.39
9021.00,1.39
9020.00,1.39
9019.00,1.38
9018.00,1.38
9017.00,1.38
9016.00,1.38
9015.00,1.38
9014.00,1.38
9013.00,1.38
9012.00,1.39
9011.00,1.39
9010.00,1.39
9009.00,1.39
9008.00,1.39
9007.00,1.39
9006.00,1.39
9005.00,1.40
9004.00,1.40
9003.00,1.40
9002.00,1.40
9001.00,1.40
9000.00,1.40
8999.00,1.40
8998.00,1.40
8997.00,1.40
8996.00,1.40
8995.00,1.40
8994.00,1.40
8993.00,1.40
8992.00,1.40
8991.00,1.40
8990.00,1.40
8989.00,1.40
8988.00,1.40
8987.00,1.40
8986.00,1.40
8985.00,1.40
8984.00,1.40
8983.00,1.40
8982.00,1.40
8981.00,1.40
8980.00,1.40
8979.00,1.40
8978.00,1.40
8977.00,1.40
8976.00,1.40
8975.00,1.40
8974.00,1.40
8973.00,1.40
8972.00,1.40
8971.00,1.40
8970.00,1.40
8969.00,1.40
8968.00,1.40
8967.00,1.40
8966.00,1.40
8965.00,1.39
8964.00,1.39
8963.00,1.39
8962.00,1.39
8961.00,1.39
8960.00,1.39
8959.00,1.39
8958.00,1.39
8957.00,1.39
8956.00,1.39
8955.00,1.39
8954.00,1.40
8953.00,1.40
8952.00,1.40
8951.00,1.40
8950.00,1.40
8949.00,1.40
8948.00,1.40
8947.00,1.40
8946.00,1.40
8945.00,1.40
8944.00,1.40
8943.00,1.40
8942.00,1.40
8941.00,1.40
8940.00,1.39
8939.00,1.39
8938.00,1.39
8937.00,1.39
8936.00,1.38
8935.00,1.38
8934.00,1.38
8933.00,1.38
8932.00,1.38
8931.00,1.37
8930.00,1.37
8929.00,1.37
8928.00,1.37
8927.00,1.37
8926.00,1.37
8925.00,1.37
8924.00,1.37
8923.00,1.38
8922.00,1.38
8921.00,1.38
8920.00,1.38
8919.00,1.38
8918.00,1.39
8917.00,1.39
8916.00,1.39
8915.00,1.40
8914.00,1.40
8913.00,1.40
8912.00,1.40
8911.00,1.40
8910.00,1.40
8909.00,1.41
8908.00,1.41
8907.00,1.40
8906.00,1.40
8905.00,1.40
8904.00,1.40
8903.00,1.40
8902.00,1.40
8901.00,1.39
8900.00,1.39
8899.00,1.39
8898.00,1.39
8897.00,1.39
8896.00,1.38
8895.00,1.38
8894.00,1.38
8893.00,1.38
8892.00,1.38
8891.00,1.38
8890.00,1.38
8889.00,1.37
8888.00,1.37
8887.00,1.37
8886.00,1.37
8885.00,1.37
8884.00,1.37
8883.00,1.37
8882.00,1.37
8881.00,1.37
8880.00,1.37
8879.00,1.37
8878.00,1.37
8877.00,1.38
8876.00,1.38
8875.00,1.38
8874.00,1.38
8873.00,1.38
8872.00,1.38
8871.00,1.38
8870.00,1.39
8869.00,1.39
8868.00,1.39
8867.00,1.39
8866.00,1.39
8865.00,1.39
8864.00,1.39
8863.00,1.39
8862.00,1.39
8861.00,1.39
8860.00,1.39
8859.00,1.39
8858.00,1.39
8857.00,1.39
8856.00,1.39
8855.00,1.39
8854.00,1.39
8853.00,1.39
8852.00,1.39
8851.00,1.39
8850.00,1.38
8849.00,1.38
8848.00,1.38
8847.00,1.38
8846.00,1.38
8845.00,1.38
8844.00,1.38
8843.00,1.38
8842.00,1.38
8841.00,1.38
8840.00,1.38
8839.00,1.38
8838.00,1.38
8837.00,1.38
8836.00,1.38
8835.00,1.38
8834.00,1.38
8833.00,1.38
8832.00,1.38
8831.00,1.38
8830.00,1.38
8829.00,1.38
8828.00,1.38
8827.00,1.38
8826.00,1.38
8825.00,1.38
8824.00,1.38
8823.00,1.38
8822.00,1.38
8821.00,1.38
8820.00,1.38
8819.00,1.38
8818.00,1.38
8817.00,1.38
8816.00,1.38
8815.00,1.38
8814.00,1.38
8813.00,1.38
8812.00,1.38
8811.00,1.38
8810.00,1.38
8809.00,1.38
8808.00,1.38
8807.00,1.38
8806.00,1.38
8805.00,1.38
8804.00,1.38
8803.00,1.38
8802.00,1.38
8801.00,1.38
8800.00,1.37
8799.00,1.37
8798.00,1.37
8797.00,1.37
8796.00,1.37
8795.00,1.37
8794.00,1.37
8793.00,1.37
8792.00,1.37
8791.00,1.37
8790.00,1.37
8789.00,1.37
8788.00,1.37
8787.00,1.37
8786.00,1.37
8785.00,1.37
8784.00,1.37
8783.00,1.37
8782.00,1.37
8781.00,1.37
8780.00,1.37
8779.00,1.37
8778.00,1.37
8777.00,1.37
8776.00,1.36
8775.00,1.36
8774.00,1.36
8773.00,1.36
8772.00,1.36
8771.00,1.35
8770.00,1.35
8769.00,1.35
8768.00,1.35
8767.00,1.34
8766.00,1.34
8765.00,1.34
8764.00,1.34
8763.00,1.34
8762.00,1.33
8761.00,1.33
8760.00,1.33
8759.00,1.33
8758.00,1.33
8757.00,1.33
8756.00,1.33
8755.00,1.34
8754.00,1.34
8753.00,1.34
8752.00,1.34
8751.00,1.34
8750.00,1.34
8749.00,1.34
8748.00,1.34
8747.00,1.34
8746.00,1.33
8745.00,1.33
8744.00,1.33
8743.00,1.33
8742.00,1.33
8741.00,1.33
8740.00,1.33
8739.00,1.33
8738.00,1.32
8737.00,1.32
8736.00,1.32
8735.00,1.32
8734.00,1.32
8733.00,1.32
8732.00,1.32
8731.00,1.32
8730.00,1.32
8729.00,1.32
8728.00,1.32
8727.00,1.32
8726.00,1.32
8725.00,1.32
8724.00,1.32
8723.00,1.32
8722.00,1.32
8721.00,1.32
8720.00,1.33
8719.00,1.33
8718.00,1.33
8717.00,1.33
8716.00,1.33
8715.00,1.33
8714.00,1.33
8713.00,1.33
8712.00,1.33
8711.00,1.34
8710.00,1.34
8709.00,1.34
8708.00,1.34
8707.00,1.34
8706.00,1.34
8705.00,1.34
8704.00,1.34
8703.00,1.34
8702.00,1.34
8701.00,1.34
8700.00,1.34
8699.00,1.34
8698.00,1.35
8697.00,1.35
8696.00,1.35
8695.00,1.35
8694.00,1.35
8693.00,1.36
8692.00,1.36
8691.00,1.36
8690.00,1.36
8689.00,1.36
8688.00,1.37
8687.00,1.37
8686.00,1.37
8685.00,1.37
8684.00,1.37
8683.00,1.37
8682.00,1.37
8681.00,1.37
8680.00,1.37
8679.00,1.37
8678.00,1.37
8677.00,1.36
8676.00,1.36
8675.00,1.36
8674.00,1.36
8673.00,1.36
8672.00,1.35
8671.00,1.35
8670.00,1.35
8669.00,1.35
8668.00,1.34
8667.00,1.34
8666.00,1.34
8665.00,1.34
8664.00,1.33
8663.00,1.33
8662.00,1.33
8661.00,1.33
8660.00,1.33
8659.00,1.33
8658.00,1.32
8657.00,1.32
8656.00,1.32
8655.00,1.32
8654.00,1.32
8653.00,1.32
8652.00,1.32
8651.00,1.32
8650.00,1.32
8649.00,1.32
8648.00,1.33
8647.00,1.33
8646.00,1.33
8645.00,1.33
8644.00,1.33
8643.00,1.33
8642.00,1.33
8641.00,1.34
8640.00,1.34
8639.00,1.34
8638.00,1.34
8637.00,1.34
8636.00,1.34
8635.00,1.34
8634.00,1.34
8633.00,1.34
8632.00,1.34
8631.00,1.34
8630.00,1.34
8629.00,1.34
8628.00,1.34
8627.00,1.34
8626.00,1.34
8625.00,1.34
8624.00,1.34
8623.00,1.34
8622.00,1.33
8621.00,1.33
8620.00,1.33
8619.00,1.33
8618.00,1.33
8617.00,1.33
8616.00,1.33
8615.00,1.32
8614.00,1.32
8613.00,1.32
8612.00,1.32
8611.00,1.32
8610.00,1.32
8609.00,1.32
8608.00,1.32
8607.00,1.32
8606.00,1.32
8605.00,1.32
8604.00,1.32
8603.00,1.31
8602.00,1.31
8601.00,1.31
8600.00,1.31
8599.00,1.31
8598.00,1.31
8597.00,1.31
8596.00,1.31
8595.00,1.31
8594.00,1.31
8593.00,1.31
8592.00,1.31
8591.00,1.31
8590.00,1.31
8589.00,1.31
8588.00,1.31
8587.00,1.31
8586.00,1.31
8585.00,1.31
8584.00,1.31
8583.00,1.31
8582.00,1.31
8581.00,1.31
8580.00,1.30
8579.00,1.30
8578.00,1.30
8577.00,1.30
8576.00,1.30
8575.00,1.30
8574.00,1.30
8573.00,1.30
8572.00,1.30
8571.00,1.30
8570.00,1.30
8569.00,1.30
8568.00,1.30
8567.00,1.30
8566.00,1.30
8565.00,1.31
8564.00,1.31
8563.00,1.31
8562.00,1.31
8561.00,1.31
8560.00,1.31
8559.00,1.31
8558.00,1.31
8557.00,1.31
8556.00,1.30
8555.00,1.30
8554.00,1.30
8553.00,1.30
8552.00,1.30
8551.00,1.30
8550.00,1.29
8549.00,1.29
8548.00,1.29
8547.00,1.29
8546.00,1.29
8545.00,1.29
8544.00,1.28
8543.00,1.28
8542.00,1.28
8541.00,1.28
8540.00,1.28
8539.00,1.28
8538.00,1.28
8537.00,1.28
8536.00,1.28
8535.00,1.27
8534.00,1.27
8533.00,1.27
8532.00,1.27
8531.00,1.27
8530.00,1.27
8529.00,1.27
8528.00,1.27
8527.00,1.27
8526.00,1.26
8525.00,1.27
8524.00,1.27
8523.00,1.27
8522.00,1.27
8521.00,1.27
8520.00,1.27
8519.00,1.27
8518.00,1.27
8517.00,1.27
8516.00,1.27
8515.00,1.27
8514.00,1.28
8513.00,1.28
8512.00,1.28
8511.00,1.28
8510.00,1.28
8509.00,1.28
8508.00,1.28
8507.00,1.28
8506.00,1.28
8505.00,1.28
8504.00,1.28
8503.00,1.28
8502.00,1.28
8501.00,1.28
8500.00,1.28
8499.00,1.27
8498.00,1.27
8497.00,1.27
8496.00,1.27
8495.00,1.27
8494.00,1.26
8493.00,1.26
8492.00,1.26
8491.00,1.26
8490.00,1.26
8489.00,1.25
8488.00,1.25
8487.00,1.25
8486.00,1.25
8485.00,1.25
8484.00,1.25
8483.00,1.25
8482.00,1.25
8481.00,1.25
8480.00,1.25
8479.00,1.25
8478.00,1.24
8477.00,1.24
8476.00,1.24
8475.00,1.24
8474.00,1.24
8473.00,1.24
8472.00,1.23
8471.00,1.23
8470.00,1.23
8469.00,1.23
8468.00,1.23
8467.00,1.22
8466.00,1.22
8465.00,1.22
8464.00,1.22
8463.00,1.22
8462.00,1.22
8461.00,1.22
8460.00,1.22
8459.00,1.22
8458.00,1.22
8457.00,1.22
8456.00,1.22
8455.00,1.22
8454.00,1.22
8453.00,1.22
8452.00,1.22
8451.00,1.22
8450.00,1.22
8449.00,1.22
8448.00,1.22
8447.00,1.22
8446.00,1.22
8445.00,1.22
8444.00,1.22
8443.00,1.22
8442.00,1.22
8441.00,1.22
8440.00,1.21
8439.00,1.21
8438.00,1.21
8437.00,1.21
8436.00,1.21
8435.00,1.22
8434.00,1.22
8433.00,1.22
8432.00,1.22
8431.00,1.22
8430.00,1.22
8429.00,1.22
8428.00,1.23
8427.00,1.23
8426.00,1.23
8425.00,1.23
8424.00,1.23
8423.00,1.24
8422.00,1.24
8421.00,1.24
8420.00,1.24
8419.00,1.24
8418.00,1.24
8417.00,1.24
8416.00,1.24
8415.00,1.24
8414.00,1.24
8413.00,1.24
8412.00,1.24
8411.00,1.24
8410.00,1.24
8409.00,1.24
8408.00,1.24
8407.00,1.24
8406.00,1.24
8405.00,1.24
8404.00,1.24
8403.00,1.24
8402.00,1.24
8401.00,1.24
8400.00,1.24
8399.00,1.24
8398.00,1.24
8397.00,1.24
8396.00,1.24
8395.00,1.24
8394.00,1.25
8393.00,1.25
8392.00,1.25
8391.00,1.25
8390.00,1.25
8389.00,1.25
8388.00,1.25
8387.00,1.26
8386.00,1.26
8385.00,1.26
8384.00,1.26
8383.00,1.26
8382.00,1.26
8381.00,1.26
8380.00,1.26
8379.00,1.26
8378.00,1.26
8377.00,1.26
8376.00,1.26
8375.00,1.26
8374.00,1.26
8373.00,1.26
8372.00,1.26
8371.00,1.26
8370.00,1.26
8369.00,1.26
8368.00,1.26
8367.00,1.26
8366.00,1.26
8365.00,1.26
8364.00,1.26
8363.00,1.26
8362.00,1.26
8361.00,1.27
8360.00,1.27
8359.00,1.27
8358.00,1.27
8357.00,1.27
8356.00,1.27
8355.00,1.27
8354.00,1.27
8353.00,1.27
8352.00,1.27
8351.00,1.26
8350.00,1.26
8349.00,1.26
8348.00,1.26
8347.00,1.26
8346.00,1.26
8345.00,1.26
8344.00,1.25
8343.00,1.25
8342.00,1.25
8341.00,1.25
8340.00,1.25
8339.00,1.25
8338.00,1.25
8337.00,1.26
8336.00,1.26
8335.00,1.26
8334.00,1.26
8333.00,1.26
8332.00,1.26
8331.00,1.26
8330.00,1.27
8329.00,1.27
8328.00,1.27
8327.00,1.27
8326.00,1.27
8325.00,1.27
8324.00,1.27
8323.00,1.27
8322.00,1.28
8321.00,1.28
8320.00,1.28
8319.00,1.28
8318.00,1.27
8317.00,1.27
8316.00,1.27
8315.00,1.27
8314.00,1.27
8313.00,1.27
8312.00,1.27
8311.00,1.27
8310.00,1.27
8309.00,1.27
8308.00,1.27
8307.00,1.27
8306.00,1.27
8305.00,1.27
8304.00,1.27
8303.00,1.27
8302.00,1.27
8301.00,1.27
8300.00,1.27
8299.00,1.27
8298.00,1.28
8297.00,1.28
8296.00,1.28
8295.00,1.28
8294.00,1.28
8293.00,1.28
8292.00,1.28
8291.00,1.28
8290.00,1.28
8289.00,1.28
8288.00,1.28
8287.00,1.28
8286.00,1.28
8285.00,1.28
8284.00,1.28
8283.00,1.28
8282.00,1.28
8281.00,1.28
8280.00,1.28
8279.00,1.28
8278.00,1.28
8277.00,1.28
8276.00,1.28
8275.00,1.28
8274.00,1.28
8273.00,1.28
8272.00,1.28
8271.00,1.28
8270.00,1.28
8269.00,1.28
8268.00,1.28
8267.00,1.29
8266.00,1.29
8265.00,1.29
8264.00,1.29
8263.00,1.29
8262.00,1.29
8261.00,1.29
8260.00,1.29
8259.00,1.30
8258.00,1.30
8257.00,1.30
8256.00,1.30
8255.00,1.30
8254.00,1.30
8253.00,1.30
8252.00,1.30
8251.00,1.31
8250.00,1.31
8249.00,1.31
8248.00,1.31
8247.00,1.31
8246.00,1.31
8245.00,1.31
8244.00,1.31
8243.00,1.31
8242.00,1.31
8241.00,1.31
8240.00,1.30
8239.00,1.30
8238.00,1.30
8237.00,1.30
8236.00,1.30
8235.00,1.30
8234.00,1.30
8233.00,1.30
8232.00,1.30
8231.00,1.30
8230.00,1.30
8229.00,1.30
8228.00,1.30
8227.00,1.30
8226.00,1.30
8225.00,1.30
8224.00,1.30
8223.00,1.30
8222.00,1.30
8221.00,1.30
8220.00,1.30
8219.00,1.30
8218.00,1.30
8217.00,1.30
8216.00,1.30
8215.00,1.30
8214.00,1.30
8213.00,1.30
8212.00,1.29
8211.00,1.29
8210.00,1.29
8209.00,1.29
8208.00,1.29
8207.00,1.29
8206.00,1.29
8205.00,1.29
8204.00,1.29
8203.00,1.29
8202.00,1.29
8201.00,1.29
8200.00,1.30
8199.00,1.30
8198.00,1.30
8197.00,1.30
8196.00,1.30
8195.00,1.30
8194.00,1.30
8193.00,1.30
8192.00,1.30
8191.00,1.30
8190.00,1.30
8189.00,1.31
8188.00,1.31
8187.00,1.31
8186.00,1.31
8185.00,1.31
8184.00,1.31
8183.00,1.31
8182.00,1.31
8181.00,1.31
8180.00,1.31
8179.00,1.31
8178.00,1.31
8177.00,1.31
8176.00,1.31
8175.00,1.31
8174.00,1.31
8173.00,1.31
8172.00,1.31
8171.00,1.31
8170.00,1.31
8169.00,1.31
8168.00,1.31
8167.00,1.32
8166.00,1.32
8165.00,1.32
8164.00,1.32
8163.00,1.32
8162.00,1.33
8161.00,1.33
8160.00,1.33
8159.00,1.33
8158.00,1.33
8157.00,1.33
8156.00,1.34
8155.00,1.34
8154.00,1.34
8153.00,1.34
8152.00,1.34
8151.00,1.34
8150.00,1.34
8149.00,1.34
8148.00,1.34
8147.00,1.34
8146.00,1.34
8145.00,1.33
8144.00,1.33
8143.00,1.33
8142.00,1.33
8141.00,1.33
8140.00,1.33
8139.00,1.33
8138.00,1.33
8137.00,1.33
8136.00,1.33
8135.00,1.33
8134.00,1.33
8133.00,1.33
8132.00,1.33
8131.00,1.33
8130.00,1.33
8129.00,1.33
8128.00,1.33
8127.00,1.33
8126.00,1.33
8125.00,1.33
8124.00,1.33
8123.00,1.33
8122.00,1.34
8121.00,1.34
8120.00,1.34
8119.00,1.34
8118.00,1.34
8117.00,1.34
8116.00,1.34
8115.00,1.34
8114.00,1.34
8113.00,1.34
8112.00,1.34
8111.00,1.34
8110.00,1.34
8109.00,1.34
8108.00,1.34
8107.00,1.34
8106.00,1.34
8105.00,1.34
8104.00,1.34
8103.00,1.34
8102.00,1.33
8101.00,1.33
8100.00,1.33
8099.00,1.33
8098.00,1.33
8097.00,1.33
8096.00,1.33
8095.00,1.33
8094.00,1.33
8093.00,1.33
8092.00,1.34
8091.00,1.34
8090.00,1.34
8089.00,1.34
8088.00,1.34
8087.00,1.34
8086.00,1.34
8085.00,1.34
8084.00,1.34
8083.00,1.34
8082.00,1.34
8081.00,1.34
8080.00,1.34
8079.00,1.34
8078.00,1.34
8077.00,1.34
8076.00,1.34
8075.00,1.34
8074.00,1.34
8073.00,1.34
8072.00,1.34
8071.00,1.34
8070.00,1.34
8069.00,1.34
8068.00,1.34
8067.00,1.34
8066.00,1.34
8065.00,1.34
8064.00,1.34
8063.00,1.34
8062.00,1.34
8061.00,1.34
8060.00,1.34
8059.00,1.34
8058.00,1.34
8057.00,1.34
8056.00,1.34
8055.00,1.34
8054.00,1.34
8053.00,1.34
8052.00,1.34
8051.00,1.34
8050.00,1.35
8049.00,1.35
8048.00,1.35
8047.00,1.35
8046.00,1.35
8045.00,1.35
8044.00,1.35
8043.00,1.35
8042.00,1.36
8041.00,1.36
8040.00,1.36
8039.00,1.36
8038.00,1.36
8037.00,1.36
8036.00,1.36
8035.00,1.36
8034.00,1.36
8033.00,1.36
8032.00,1.36
8031.00,1.36
8030.00,1.35
8029.00,1.35
8028.00,1.35
8027.00,1.35
8026.00,1.35
8025.00,1.35
8024.00,1.35
8023.00,1.35
8022.00,1.35
8021.00,1.35
8020.00,1.35
8019.00,1.35
8018.00,1.35
8017.00,1.36
8016.00,1.36
8015.00,1.36
8014.00,1.36
8013.00,1.36
8012.00,1.36
8011.00,1.36
8010.00,1.36
8009.00,1.36
8008.00,1.36
8007.00,1.36
8006.00,1.36
8005.00,1.36
8004.00,1.36
8003.00,1.36
8002.00,1.36
8001.00,1.36
8000.00,1.36
7999.00,1.36
7998.00,1.36
7997.00,1.36
7996.00,1.37
7995.00,1.37
7994.00,1.37
7993.00,1.37
7992.00,1.37
7991.00,1.37
7990.00,1.37
7989.00,1.37
7988.00,1.37
7987.00,1.37
7986.00,1.37
7985.00,1.38
7984.00,1.38
7983.00,1.38
7982.00,1.38
7981.00,1.38
7980.00,1.38
7979.00,1.38
7978.00,1.38
7977.00,1.38
7976.00,1.39
7975.00,1.39
7974.00,1.39
7973.00,1.39
7972.00,1.39
7971.00,1.39
7970.00,1.39
7969.00,1.39
7968.00,1.39
7967.00,1.39
7966.00,1.39
7965.00,1.39
7964.00,1.39
7963.00,1.39
7962.00,1.38
7961.00,1.38
7960.00,1.38
7959.00,1.38
7958.00,1.38
7957.00,1.38
7956.00,1.38
7955.00,1.38
7954.00,1.38
7953.00,1.38
7952.00,1.38
7951.00,1.38
7950.00,1.38
7949.00,1.38
7948.00,1.38
7947.00,1.38
7946.00,1.37
7945.00,1.37
7944.00,1.37
7943.00,1.37
7942.00,1.37
7941.00,1.37
7940.00,1.37
7939.00,1.37
7938.00,1.37
7937.00,1.37
7936.00,1.37
7935.00,1.38
7934.00,1.38
7933.00,1.38
7932.00,1.38
7931.00,1.38
7930.00,1.38
7929.00,1.38
7928.00,1.38
7927.00,1.38
7926.00,1.38
7925.00,1.38
7924.00,1.38
7923.00,1.38
7922.00,1.38
7921.00,1.38
7920.00,1.38
7919.00,1.38
7918.00,1.38
7917.00,1.38
7916.00,1.38
7915.00,1.38
7914.00,1.38
7913.00,1.37
7912.00,1.37
7911.00,1.37
7910.00,1.37
7909.00,1.37
7908.00,1.37
7907.00,1.37
7906.00,1.37
7905.00,1.37
7904.00,1.37
7903.00,1.37
7902.00,1.37
7901.00,1.37
7900.00,1.37
7899.00,1.37
7898.00,1.37
7897.00,1.37
7896.00,1.37
7895.00,1.37
7894.00,1.37
7893.00,1.37
7892.00,1.37
7891.00,1.37
7890.00,1.38
7889.00,1.38
7888.00,1.38
7887.00,1.38
7886.00,1.38
7885.00,1.38
7884.00,1.38
7883.00,1.39
7882.00,1.39
7881.00,1.39
7880.00,1.39
7879.00,1.39
7878.00,1.39
7877.00,1.40
7876.00,1.40
7875.00,1.40
7874.00,1.40
7873.00,1.40
7872.00,1.40
7871.00,1.40
7870.00,1.40
7869.00,1.40
7868.00,1.40
7867.00,1.40
7866.00,1.40
7865.00,1.40
7864.00,1.40
7863.00,1.40
7862.00,1.40
7861.00,1.40
7860.00,1.39
7859.00,1.39
7858.00,1.39
7857.00,1.39
7856.00,1.39
7855.00,1.39
7854.00,1.39
7853.00,1.39
7852.00,1.39
7851.00,1.39
7850.00,1.39
7849.00,1.39
7848.00,1.39
7847.00,1.39
7846.00,1.39
7845.00,1.39
7844.00,1.39
7843.00,1.39
7842.00,1.39
7841.00,1.39
7840.00,1.39
7839.00,1.39
7838.00,1.39
7837.00,1.39
7836.00,1.39
7835.00,1.39
7834.00,1.39
7833.00,1.39
7832.00,1.39
7831.00,1.39
7830.00,1.39
7829.00,1.39
7828.00,1.39
7827.00,1.39
7826.00,1.39
7825.00,1.39
7824.00,1.39
7823.00,1.39
7822.00,1.39
7821.00,1.39
7820.00,1.39
7819.00,1.39
7818.00,1.39
7817.00,1.39
7816.00,1.39
7815.00,1.39
7814.00,1.39
7813.00,1.39
7812.00,1.39
7811.00,1.39
7810.00,1.39
7809.00,1.39
7808.00,1.39
7807.00,1.39
7806.00,1.39
7805.00,1.39
7804.00,1.39
7803.00,1.39
7802.00,1.40
7801.00,1.40
7800.00,1.40
7799.00,1.40
7798.00,1.40
7797.00,1.40
7796.00,1.40
7795.00,1.40
7794.00,1.40
7793.00,1.40
7792.00,1.40
7791.00,1.39
7790.00,1.39
7789.00,1.39
7788.00,1.39
7787.00,1.39
7786.00,1.39
7785.00,1.40
7784.00,1.40
7783.00,1.40
7782.00,1.40
7781.00,1.40
7780.00,1.40
7779.00,1.40
7778.00,1.41
7777.00,1.41
7776.00,1.41
7775.00,1.41
7774.00,1.41
7773.00,1.41
7772.00,1.41
7771.00,1.41
7770.00,1.41
7769.00,1.41
7768.00,1.41
7767.00,1.41
7766.00,1.41
7765.00,1.41
7764.00,1.41
7763.00,1.41
7762.00,1.40
7761.00,1.40
7760.00,1.40
7759.00,1.40
7758.00,1.40
7757.00,1.40
7756.00,1.40
7755.00,1.40
7754.00,1.40
7753.00,1.40
7752.00,1.40
7751.00,1.39
7750.00,1.39
7749.00,1.39
7748.00,1.39
7747.00,1.39
7746.00,1.39
7745.00,1.39
7744.00,1.39
7743.00,1.40
7742.00,1.40
7741.00,1.40
7740.00,1.40
7739.00,1.40
7738.00,1.40
7737.00,1.40
7736.00,1.40
7735.00,1.40
7734.00,1.40
7733.00,1.40
7732.00,1.40
7731.00,1.40
7730.00,1.40
7729.00,1.40
7728.00,1.40
7727.00,1.40
7726.00,1.40
7725.00,1.40
7724.00,1.40
7723.00,1.40
7722.00,1.40
7721.00,1.40
7720.00,1.40
7719.00,1.40
7718.00,1.40
7717.00,1.40
7716.00,1.39
7715.00,1.39
7714.00,1.39
7713.00,1.40
7712.00,1.40
7711.00,1.40
7710.00,1.40
7709.00,1.40
7708.00,1.40
7707.00,1.40
7706.00,1.40
7705.00,1.40
7704.00,1.40
7703.00,1.40
7702.00,1.40
7701.00,1.40
7700.00,1.40
7699.00,1.40
7698.00,1.40
7697.00,1.40
7696.00,1.40
7695.00,1.40
7694.00,1.40
7693.00,1.40
7692.00,1.40
7691.00,1.40
7690.00,1.40
7689.00,1.40
7688.00,1.40
7687.00,1.40
7686.00,1.40
7685.00,1.40
7684.00,1.40
7683.00,1.40
7682.00,1.40
7681.00,1.40
7680.00,1.40
7679.00,1.40
7678.00,1.40
7677.00,1.41
7676.00,1.41
7675.00,1.41
7674.00,1.41
7673.00,1.41
7672.00,1.41
7671.00,1.41
7670.00,1.41
7669.00,1.41
7668.00,1.41
7667.00,1.41
7666.00,1.41
7665.00,1.41
7664.00,1.41
7663.00,1.41
7662.00,1.41
7661.00,1.41
7660.00,1.41
7659.00,1.41
7658.00,1.41
7657.00,1.41
7656.00,1.40
7655.00,1.40
7654.00,1.40
7653.00,1.40
7652.00,1.40
7651.00,1.40
7650.00,1.40
7649.00,1.40
7648.00,1.40
7647.00,1.40
7646.00,1.40
7645.00,1.40
7644.00,1.40
7643.00,1.40
7642.00,1.40
7641.00,1.40
7640.00,1.40
7639.00,1.40
7638.00,1.40
7637.00,1.40
7636.00,1.40
7635.00,1.40
7634.00,1.40
7633.00,1.40
7632.00,1.40
7631.00,1.40
7630.00,1.40
7629.00,1.40
7628.00,1.40
7627.00,1.40
7626.00,1.40
7625.00,1.40
7624.00,1.40
7623.00,1.41
7622.00,1.41
7621.00,1.41
7620.00,1.41
7619.00,1.41
7618.00,1.41
7617.00,1.41
7616.00,1.41
7615.00,1.41
7614.00,1.41
7613.00,1.41
7612.00,1.41
7611.00,1.41
7610.00,1.41
7609.00,1.41
7608.00,1.41
7607.00,1.41
7606.00,1.41
7605.00,1.41
7604.00,1.41
7603.00,1.41
7602.00,1.41
7601.00,1.41
7600.00,1.41
7599.00,1.41
7598.00,1.41
7597.00,1.41
7596.00,1.41
7595.00,1.41
7594.00,1.41
7593.00,1.41
7592.00,1.41
7591.00,1.41
7590.00,1.41
7589.00,1.41
7588.00,1.41
7587.00,1.41
7586.00,1.41
7585.00,1.41
7584.00,1.41
7583.00,1.41
7582.00,1.41
7581.00,1.41
7580.00,1.41
7579.00,1.41
7578.00,1.41
7577.00,1.41
7576.00,1.40
7575.00,1.40
7574.00,1.40
7573.00,1.40
7572.00,1.40
7571.00,1.40
7570.00,1.40
7569.00,1.40
7568.00,1.40
7567.00,1.41
7566.00,1.41
7565.00,1.41
7564.00,1.41
7563.00,1.41
7562.00,1.41
7561.00,1.41
7560.00,1.41
7559.00,1.41
7558.00,1.40
7557.00,1.40
7556.00,1.40
7555.00,1.40
7554.00,1.40
7553.00,1.40
7552.00,1.40
7551.00,1.40
7550.00,1.40
7549.00,1.40
7548.00,1.40
7547.00,1.40
7546.00,1.40
7545.00,1.40
7544.00,1.40
7543.00,1.40
7542.00,1.40
7541.00,1.40
7540.00,1.40
7539.00,1.40
7538.00,1.40
7537.00,1.40
7536.00,1.40
7535.00,1.40
7534.00,1.40
7533.00,1.40
7532.00,1.40
7531.00,1.40
7530.00,1.40
7529.00,1.40
7528.00,1.40
7527.00,1.40
7526.00,1.40
7525.00,1.40
7524.00,1.40
7523.00,1.40
7522.00,1.40
7521.00,1.40
7520.00,1.40
7519.00,1.40
7518.00,1.40
7517.00,1.40
7516.00,1.40
7515.00,1.40
7514.00,1.40
7513.00,1.40
7512.00,1.40
7511.00,1.40
7510.00,1.40
7509.00,1.40
7508.00,1.40
7507.00,1.40
7506.00,1.40
7505.00,1.39
7504.00,1.39
7503.00,1.39
7502.00,1.39
7501.00,1.39
7500.00,1.39
7499.00,1.39
7498.00,1.39
7497.00,1.39
7496.00,1.39
7495.00,1.39
7494.00,1.39
7493.00,1.39
7492.00,1.39
7491.00,1.39
7490.00,1.39
7489.00,1.39
7488.00,1.39
7487.00,1.39
7486.00,1.39
7485.00,1.39
7484.00,1.39
7483.00,1.39
7482.00,1.39
7481.00,1.39
7480.00,1.38
7479.00,1.38
7478.00,1.38
7477.00,1.38
7476.00,1.38
7475.00,1.38
7474.00,1.38
7473.00,1.38
7472.00,1.38
7471.00,1.38
7470.00,1.38
7469.00,1.38
7468.00,1.38
7467.00,1.37
7466.00,1.37
7465.00,1.37
7464.00,1.37
7463.00,1.37
7462.00,1.37
7461.00,1.37
7460.00,1.38
7459.00,1.38
7458.00,1.38
7457.00,1.38
7456.00,1.38
7455.00,1.38
7454.00,1.38
7453.00,1.38
7452.00,1.38
7451.00,1.38
7450.00,1.38
7449.00,1.38
7448.00,1.38
7447.00,1.38
7446.00,1.38
7445.00,1.37
7444.00,1.37
7443.00,1.37
7442.00,1.37
7441.00,1.37
7440.00,1.37
7439.00,1.37
7438.00,1.36
7437.00,1.36
7436.00,1.36
7435.00,1.36
7434.00,1.36
7433.00,1.36
7432.00,1.36
7431.00,1.36
7430.00,1.36
7429.00,1.36
7428.00,1.36
7427.00,1.36
7426.00,1.36
7425.00,1.36
7424.00,1.36
7423.00,1.36
7422.00,1.36
7421.00,1.36
7420.00,1.36
7419.00,1.36
7418.00,1.36
7417.00,1.36
7416.00,1.36
7415.00,1.36
7414.00,1.36
7413.00,1.36
7412.00,1.36
7411.00,1.36
7410.00,1.36
7409.00,1.36
7408.00,1.36
7407.00,1.36
7406.00,1.35
7405.00,1.35
7404.00,1.35
7403.00,1.35
7402.00,1.35
7401.00,1.35
7400.00,1.34
7399.00,1.34
7398.00,1.34
7397.00,1.34
7396.00,1.34
7395.00,1.34
7394.00,1.33
7393.00,1.33
7392.00,1.33
7391.00,1.33
7390.00,1.33
7389.00,1.33
7388.00,1.33
7387.00,1.32
7386.00,1.32
7385.00,1.32
7384.00,1.32
7383.00,1.32
7382.00,1.32
7381.00,1.32
7380.00,1.32
7379.00,1.32
7378.00,1.32
7377.00,1.32
7376.00,1.32
7375.00,1.31
7374.00,1.31
7373.00,1.31
7372.00,1.31
7371.00,1.31
7370.00,1.31
7369.00,1.31
7368.00,1.31
7367.00,1.31
7366.00,1.31
7365.00,1.31
7364.00,1.31
7363.00,1.31
7362.00,1.31
7361.00,1.31
7360.00,1.31
7359.00,1.31
7358.00,1.31
7357.00,1.31
7356.00,1.30
7355.00,1.30
7354.00,1.30
7353.00,1.30
7352.00,1.30
7351.00,1.30
7350.00,1.30
7349.00,1.30
7348.00,1.30
7347.00,1.30
7346.00,1.30
7345.00,1.30
7344.00,1.30
7343.00,1.30
7342.00,1.30
7341.00,1.30
7340.00,1.30
7339.00,1.30
7338.00,1.30
7337.00,1.30
7336.00,1.30
7335.00,1.31
7334.00,1.31
7333.00,1.31
7332.00,1.31
7331.00,1.31
7330.00,1.31
7329.00,1.31
7328.00,1.31
7327.00,1.31
7326.00,1.32
7325.00,1.32
7324.00,1.32
7323.00,1.32
7322.00,1.31
7321.00,1.31
7320.00,1.31
7319.00,1.31
7318.00,1.31
7317.00,1.31
7316.00,1.31
7315.00,1.30
7314.00,1.30
7313.00,1.30
7312.00,1.30
7311.00,1.29
7310.00,1.29
7309.00,1.29
7308.00,1.29
7307.00,1.29
7306.00,1.28
7305.00,1.28
7304.00,1.28
7303.00,1.28
7302.00,1.28
7301.00,1.28
7300.00,1.28
7299.00,1.28
7298.00,1.28
7297.00,1.28
7296.00,1.28
7295.00,1.28
7294.00,1.28
7293.00,1.27
7292.00,1.27
7291.00,1.27
7290.00,1.27
7289.00,1.27
7288.00,1.27
7287.00,1.27
7286.00,1.27
7285.00,1.27
7284.00,1.27
7283.00,1.27
7282.00,1.27
7281.00,1.27
7280.00,1.27
7279.00,1.27
7278.00,1.27
7277.00,1.26
7276.00,1.26
7275.00,1.26
7274.00,1.26
7273.00,1.26
7272.00,1.26
7271.00,1.26
7270.00,1.26
7269.00,1.25
7268.00,1.25
7267.00,1.25
7266.00,1.25
7265.00,1.25
7264.00,1.24
7263.00,1.24
7262.00,1.24
7261.00,1.24
7260.00,1.23
7259.00,1.23
7258.00,1.23
7257.00,1.23
7256.00,1.23
7255.00,1.22
7254.00,1.22
7253.00,1.22
7252.00,1.22
7251.00,1.22
7250.00,1.22
7249.00,1.22
7248.00,1.22
7247.00,1.22
7246.00,1.22
7245.00,1.21
7244.00,1.21
7243.00,1.21
7242.00,1.21
7241.00,1.21
7240.00,1.21
7239.00,1.21
7238.00,1.20
7237.00,1.20
7236.00,1.20
7235.00,1.20
7234.00,1.19
7233.00,1.19
7232.00,1.19
7231.00,1.18
7230.00,1.18
7229.00,1.18
7228.00,1.17
7227.00,1.17
7226.00,1.17
7225.00,1.16
7224.00,1.16
7223.00,1.16
7222.00,1.15
7221.00,1.15
7220.00,1.15
7219.00,1.14
7218.00,1.14
7217.00,1.14
7216.00,1.13
7215.00,1.13
7214.00,1.13
7213.00,1.12
7212.00,1.12
7211.00,1.12
7210.00,1.12
7209.00,1.11
7208.00,1.11
7207.00,1.11
7206.00,1.10
7205.00,1.10
7204.00,1.10
7203.00,1.10
7202.00,1.09
7201.00,1.09
7200.00,1.09
7199.00,1.09
7198.00,1.09
7197.00,1.08
7196.00,1.08
7195.00,1.08
7194.00,1.08
7193.00,1.08
7192.00,1.07
7191.00,1.07
7190.00,1.07
7189.00,1.07
7188.00,1.07
7187.00,1.07
7186.00,1.06
7185.00,1.06
7184.00,1.06
7183.00,1.06
7182.00,1.06
7181.00,1.05
7180.00,1.05
7179.00,1.05
7178.00,1.05
7177.00,1.05
7176.00,1.04
7175.00,1.04
7174.00,1.04
7173.00,1.04
7172.00,1.04
7171.00,1.03
7170.00,1.03
7169.00,1.03
7168.00,1.03
7167.00,1.02
7166.00,1.02
7165.00,1.02
7164.00,1.02
7163.00,1.02
7162.00,1.01
7161.00,1.01
7160.00,1.01
7159.00,1.01
7158.00,1.00
7157.00,1.00
7156.00,1.00
7155.00,1.00
7154.00,0.99
7153.00,0.99
7152.00,0.99
7151.00,0.99
7150.00,0.98
7149.00,0.98
7148.00,0.98
7147.00,0.98
7146.00,0.97
7145.00,0.97
7144.00,0.97
7143.00,0.96
7142.00,0.96
7141.00,0.96
7140.00,0.96
7139.00,0.96
7138.00,0.95
7137.00,0.95
7136.00,0.95
7135.00,0.95
7134.00,0.95
7133.00,0.94
7132.00,0.94
7131.00,0.94
7130.00,0.94
7129.00,0.94
7128.00,0.93
7127.00,0.93
7126.00,0.93
7125.00,0.93
7124.00,0.93
7123.00,0.93
7122.00,0.92
7121.00,0.92
7120.00,0.92
7119.00,0.92
7118.00,0.92
7117.00,0.91
7116.00,0.91
7115.00,0.91
7114.00,0.91
7113.00,0.90
7112.00,0.90
7111.00,0.90
7110.00,0.89
7109.00,0.89
7108.00,0.89
7107.00,0.89
7106.00,0.88
7105.00,0.88
7104.00,0.88
7103.00,0.87
7102.00,0.87
7101.00,0.87
7100.00,0.87
7099.00,0.86
7098.00,0.86
7097.00,0.86
7096.00,0.86
7095.00,0.85
7094.00,0.85
7093.00,0.85
7092.00,0.85
7091.00,0.84
7090.00,0.84
7089.00,0.84
7088.00,0.84
7087.00,0.84
7086.00,0.84
7085.00,0.83
7084.00,0.83
7083.00,0.83
7082.00,0.83
7081.00,0.83
7080.00,0.83
7079.00,0.82
7078.00,0.82
7077.00,0.82
7076.00,0.82
7075.00,0.82
7074.00,0.82
7073.00,0.81
7072.00,0.81
7071.00,0.81
7070.00,0.81
7069.00,0.81
7068.00,0.81
7067.00,0.80
7066.00,0.80
7065.00,0.80
7064.00,0.80
7063.00,0.80
7062.00,0.80
7061.00,0.80
7060.00,0.79
7059.00,0.79
7058.00,0.79
7057.00,0.79
7056.00,0.79
7055.00,0.79
7054.00,0.79
7053.00,0.78
7052.00,0.78
7051.00,0.78
7050.00,0.78
7049.00,0.78
7048.00,0.78
7047.00,0.77
7046.00,0.77
7045.00,0.77
7044.00,0.77
7043.00,0.77
7042.00,0.76
7041.00,0.76
7040.00,0.76
7039.00,0.76
7038.00,0.76
7037.00,0.76
7036.00,0.75
7035.00,0.75
7034.00,0.75
7033.00,0.75
7032.00,0.75
7031.00,0.75
7030.00,0.75
7029.00,0.75
7028.00,0.75
7027.00,0.75
7026.00,0.75
7025.00,0.75
7024.00,0.75
7023.00,0.75
7022.00,0.74
7021.00,0.74
7020.00,0.74
7019.00,0.74
7018.00,0.74
7017.00,0.74
7016.00,0.74
7015.00,0.74
7014.00,0.74
7013.00,0.74
7012.00,0.73
7011.00,0.73
7010.00,0.73
7009.00,0.73
7008.00,0.73
7007.00,0.73
7006.00,0.73
7005.00,0.73
7004.00,0.73
7003.00,0.73
7002.00,0.72
7001.00,0.72
7000.00,0.72
6999.00,0.72
6998.00,0.72
6997.00,0.72
6996.00,0.72
6995.00,0.72
6994.00,0.72
6993.00,0.72
6992.00,0.72
6991.00,0.71
6990.00,0.71
6989.00,0.71
6988.00,0.71
6987.00,0.71
6986.00,0.71
6985.00,0.71
6984.00,0.70
6983.00,0.70
6982.00,0.70
6981.00,0.70
6980.00,0.70
6979.00,0.70
6978.00,0.70
6977.00,0.70
6976.00,0.70
6975.00,0.70
6974.00,0.70
6973.00,0.70
6972.00,0.70
6971.00,0.70
6970.00,0.70
6969.00,0.70
6968.00,0.70
6967.00,0.70
6966.00,0.70
6965.00,0.70
6964.00,0.70
6963.00,0.70
6962.00,0.70
6961.00,0.70
6960.00,0.70
6959.00,0.70
6958.00,0.70
6957.00,0.70
6956.00,0.70
6955.00,0.69
6954.00,0.69
6953.00,0.69
6952.00,0.69
6951.00,0.69
6950.00,0.69
6949.00,0.69
6948.00,0.69
6947.00,0.69
6946.00,0.68
6945.00,0.68
6944.00,0.68
6943.00,0.68
6942.00,0.68
6941.00,0.68
6940.00,0.68
6939.00,0.68
6938.00,0.68
6937.00,0.68
6936.00,0.68
6935.00,0.68
6934.00,0.68
6933.00,0.68
6932.00,0.68
6931.00,0.68
6930.00,0.68
6929.00,0.67
6928.00,0.67
6927.00,0.67
6926.00,0.67
6925.00,0.67
6924.00,0.67
6923.00,0.67
6922.00,0.67
6921.00,0.67
6920.00,0.67
6919.00,0.67
6918.00,0.67
6917.00,0.67
6916.00,0.67
6915.00,0.67
6914.00,0.67
6913.00,0.67
6912.00,0.67
6911.00,0.67
6910.00,0.67
6909.00,0.66
6908.00,0.66
6907.00,0.66
6906.00,0.66
6905.00,0.66
6904.00,0.66
6903.00,0.66
6902.00,0.66
6901.00,0.66
6900.00,0.66
6899.00,0.66
6898.00,0.66
6897.00,0.66
6896.00,0.66
6895.00,0.66
6894.00,0.66
6893.00,0.66
6892.00,0.66
6891.00,0.66
6890.00,0.66
6889.00,0.66
6888.00,0.66
6887.00,0.66
6886.00,0.66
6885.00,0.66
6884.00,0.66
6883.00,0.66
6882.00,0.66
6881.00,0.66
6880.00,0.66
6879.00,0.65
6878.00,0.65
6877.00,0.65
6876.00,0.65
6875.00,0.65
6874.00,0.65
6873.00,0.65
6872.00,0.65
6871.00,0.65
6870.00,0.65
6869.00,0.65
6868.00,0.65
6867.00,0.65
6866.00,0.65
6865.00,0.65
6864.00,0.65
6863.00,0.65
6862.00,0.65
6861.00,0.65
6860.00,0.65
6859.00,0.65
6858.00,0.65
6857.00,0.65
6856.00,0.65
6855.00,0.65
6854.00,0.65
6853.00,0.65
6852.00,0.65
6851.00,0.65
6850.00,0.65
6849.00,0.65
6848.00,0.65
6847.00,0.65
6846.00,0.65
6845.00,0.65
6844.00,0.65
6843.00,0.65
6842.00,0.65
6841.00,0.65
6840.00,0.65
6839.00,0.65
6838.00,0.65
6837.00,0.65
6836.00,0.65
6835.00,0.65
6834.00,0.65
6833.00,0.65
6832.00,0.65
6831.00,0.65
6830.00,0.65
6829.00,0.65
6828.00,0.65
6827.00,0.65
6826.00,0.65
6825.00,0.65
6824.00,0.65
6823.00,0.65
6822.00,0.65
6821.00,0.65
6820.00,0.66
6819.00,0.66
6818.00,0.66
6817.00,0.66
6816.00,0.66
6815.00,0.66
6814.00,0.66
6813.00,0.66
6812.00,0.67
6811.00,0.67
6810.00,0.67
6809.00,0.67
6808.00,0.67
6807.00,0.67
6806.00,0.67
6805.00,0.67
6804.00,0.67
6803.00,0.67
6802.00,0.67
6801.00,0.67
6800.00,0.67
6799.00,0.67
6798.00,0.67
6797.00,0.67
6796.00,0.67
6795.00,0.67
6794.00,0.67
6793.00,0.67
6792.00,0.67
6791.00,0.67
6790.00,0.67
6789.00,0.67
6788.00,0.67
6787.00,0.67
6786.00,0.67
6785.00,0.67
6784.00,0.68
6783.00,0.68
6782.00,0.68
6781.00,0.68
6780.00,0.68
6779.00,0.68
6778.00,0.68
6777.00,0.69
6776.00,0.69
6775.00,0.69
6774.00,0.69
6773.00,0.69
6772.00,0.69
6771.00,0.69
6770.00,0.69
6769.00,0.69
6768.00,0.69
6767.00,0.69
6766.00,0.70
6765.00,0.70
6764.00,0.70
6763.00,0.70
6762.00,0.70
6761.00,0.70
6760.00,0.70
6759.00,0.70
6758.00,0.70
6757.00,0.70
6756.00,0.70
6755.00,0.70
6754.00,0.70
6753.00,0.70
6752.00,0.70
6751.00,0.70
6750.00,0.70
6749.00,0.70
6748.00,0.70
6747.00,0.70
6746.00,0.70
6745.00,0.70
6744.00,0.70
6743.00,0.70
6742.00,0.70
6741.00,0.70
6740.00,0.70
6739.00,0.70
6738.00,0.70
6737.00,0.70
6736.00,0.70
6735.00,0.70
6734.00,0.70
6733.00,0.71
6732.00,0.71
6731.00,0.71
6730.00,0.71
6729.00,0.71
6728.00,0.71
6727.00,0.71
6726.00,0.71
6725.00,0.71
6724.00,0.71
6723.00,0.71
6722.00,0.72
6721.00,0.72
6720.00,0.72
6719.00,0.72
6718.00,0.72
6717.00,0.72
6716.00,0.72
6715.00,0.72
6714.00,0.72
6713.00,0.72
6712.00,0.72
6711.00,0.72
6710.00,0.72
6709.00,0.72
6708.00,0.72
6707.00,0.72
6706.00,0.72
6705.00,0.72
6704.00,0.72
6703.00,0.72
6702.00,0.73
6701.00,0.73
6700.00,0.73
6699.00,0.73
6698.00,0.73
6697.00,0.73
6696.00,0.73
6695.00,0.73
6694.00,0.73
6693.00,0.73
6692.00,0.73
6691.00,0.73
6690.00,0.73
6689.00,0.74
6688.00,0.74
6687.00,0.74
6686.00,0.74
6685.00,0.74
6684.00,0.74
6683.00,0.74
6682.00,0.74
6681.00,0.74
6680.00,0.74
6679.00,0.75
6678.00,0.75
6677.00,0.75
6676.00,0.75
6675.00,0.75
6674.00,0.75
6673.00,0.75
6672.00,0.75
6671.00,0.75
6670.00,0.76
6669.00,0.76
6668.00,0.76
6667.00,0.76
6666.00,0.76
6665.00,0.76
6664.00,0.76
6663.00,0.76
6662.00,0.76
6661.00,0.76
6660.00,0.76
6659.00,0.76
6658.00,0.76
6657.00,0.77
6656.00,0.77
6655.00,0.77
6654.00,0.77
6653.00,0.77
6652.00,0.77
6651.00,0.77
6650.00,0.77
6649.00,0.77
6648.00,0.78
6647.00,0.78
6646.00,0.78
6645.00,0.78
6644.00,0.78
6643.00,0.78
6642.00,0.78
6641.00,0.78
6640.00,0.78
6639.00,0.78
6638.00,0.79
6637.00,0.79
6636.00,0.79
6635.00,0.79
6634.00,0.79
6633.00,0.79
6632.00,0.79
6631.00,0.79
6630.00,0.79
6629.00,0.80
6628.00,0.80
6627.00,0.80
6626.00,0.80
6625.00,0.80
6624.00,0.80
6623.00,0.80
6622.00,0.80
6621.00,0.80
6620.00,0.80
6619.00,0.80
6618.00,0.80
6617.00,0.81
6616.00,0.81
6615.00,0.81
6614.00,0.81
6613.00,0.81
6612.00,0.81
6611.00,0.81
6610.00,0.81
6609.00,0.81
6608.00,0.81
6607.00,0.81
6606.00,0.81
6605.00,0.81
6604.00,0.81
6603.00,0.81
6602.00,0.81
6601.00,0.82
6600.00,0.82
6599.00,0.82
6598.00,0.82
6597.00,0.82
6596.00,0.82
6595.00,0.82
6594.00,0.82
6593.00,0.82
6592.00,0.83
6591.00,0.83
6590.00,0.83
6589.00,0.83
6588.00,0.83
6587.00,0.83
6586.00,0.83
6585.00,0.83
6584.00,0.84
6583.00,0.84
6582.00,0.84
6581.00,0.84
6580.00,0.84
6579.00,0.84
6578.00,0.84
6577.00,0.85
6576.00,0.85
6575.00,0.85
6574.00,0.85
6573.00,0.85
6572.00,0.85
6571.00,0.85
6570.00,0.85
6569.00,0.86
6568.00,0.86
6567.00,0.86
6566.00,0.86
6565.00,0.86
6564.00,0.86
6563.00,0.86
6562.00,0.86
6561.00,0.86
6560.00,0.86
6559.00,0.86
6558.00,0.86
6557.00,0.87
6556.00,0.87
6555.00,0.87
6554.00,0.87
6553.00,0.87
6552.00,0.87
6551.00,0.87
6550.00,0.87
6549.00,0.87
6548.00,0.87
6547.00,0.87
6546.00,0.87
6545.00,0.87
6544.00,0.87
6543.00,0.87
6542.00,0.87
6541.00,0.87
6540.00,0.87
6539.00,0.87
6538.00,0.87
6537.00,0.87
6536.00,0.87
6535.00,0.87
6534.00,0.87
6533.00,0.87
6532.00,0.87
6531.00,0.87
6530.00,0.87
6529.00,0.87
6528.00,0.87
6527.00,0.87
6526.00,0.87
6525.00,0.87
6524.00,0.88
6523.00,0.88
6522.00,0.88
6521.00,0.88
6520.00,0.88
6519.00,0.88
6518.00,0.88
6517.00,0.88
6516.00,0.88
6515.00,0.88
6514.00,0.88
6513.00,0.88
6512.00,0.89
6511.00,0.89
6510.00,0.89
6509.00,0.89
6508.00,0.89
6507.00,0.89
6506.00,0.89
6505.00,0.89
6504.00,0.89
6503.00,0.89
6502.00,0.90
6501.00,0.90
6500.00,0.90
6499.00,0.90
6498.00,0.90
6497.00,0.90
6496.00,0.90
6495.00,0.90
6494.00,0.90
6493.00,0.90
6492.00,0.90
6491.00,0.90
6490.00,0.90
6489.00,0.90
6488.00,0.90
6487.00,0.90
6486.00,0.90
6485.00,0.90
6484.00,0.91
6483.00,0.91
6482.00,0.91
6481.00,0.91
6480.00,0.91
6479.00,0.91
6478.00,0.91
6477.00,0.91
6476.00,0.91
6475.00,0.91
6474.00,0.91
6473.00,0.91
6472.00,0.91
6471.00,0.91
6470.00,0.91
6469.00,0.91
6468.00,0.91
6467.00,0.91
6466.00,0.91
6465.00,0.91
6464.00,0.91
6463.00,0.91
6462.00,0.91
6461.00,0.91
6460.00,0.91
6459.00,0.92
6458.00,0.92
6457.00,0.92
6456.00,0.92
6455.00,0.92
6454.00,0.92
6453.00,0.92
6452.00,0.92
6451.00,0.92
6450.00,0.92
6449.00,0.92
6448.00,0.92
6447.00,0.92
6446.00,0.92
6445.00,0.92
6444.00,0.92
6443.00,0.92
6442.00,0.92
6441.00,0.92
6440.00,0.92
6439.00,0.92
6438.00,0.92
6437.00,0.92
6436.00,0.92
6435.00,0.92
6434.00,0.92
6433.00,0.92
6432.00,0.92
6431.00,0.92
6430.00,0.92
6429.00,0.92
6428.00,0.92
6427.00,0.92
6426.00,0.92
6425.00,0.92
6424.00,0.92
6423.00,0.92
6422.00,0.92
6421.00,0.92
6420.00,0.92
6419.00,0.92
6418.00,0.92
6417.00,0.92
6416.00,0.92
6415.00,0.92
6414.00,0.92
6413.00,0.92
6412.00,0.92
6411.00,0.92
6410.00,0.92
6409.00,0.92
6408.00,0.92
6407.00,0.92
6406.00,0.92
6405.00,0.92
6404.00,0.92
6403.00,0.92
6402.00,0.92
6401.00,0.92
6400.00,0.92
6399.00,0.92
6398.00,0.92
6397.00,0.92
6396.00,0.92
6395.00,0.93
6394.00,0.93
6393.00,0.93
6392.00,0.93
6391.00,0.93
6390.00,0.93
6389.00,0.93
6388.00,0.94
6387.00,0.94
6386.00,0.94
6385.00,0.94
6384.00,0.94
6383.00,0.94
6382.00,0.94
6381.00,0.94
6380.00,0.94
6379.00,0.94
6378.00,0.94
6377.00,0.94
6376.00,0.94
6375.00,0.94
6374.00,0.94
6373.00,0.94
6372.00,0.94
6371.00,0.94
6370.00,0.94
6369.00,0.94
6368.00,0.94
6367.00,0.94
6366.00,0.94
6365.00,0.94
6364.00,0.94
6363.00,0.94
6362.00,0.94
6361.00,0.95
6360.00,0.95
6359.00,0.95
6358.00,0.95
6357.00,0.95
6356.00,0.95
6355.00,0.95
6354.00,0.95
6353.00,0.95
6352.00,0.95
6351.00,0.95
6350.00,0.95
6349.00,0.95
6348.00,0.95
6347.00,0.95
6346.00,0.95
6345.00,0.95
6344.00,0.95
6343.00,0.95
6342.00,0.95
6341.00,0.95
6340.00,0.95
6339.00,0.96
6338.00,0.96
6337.00,0.96
6336.00,0.96
6335.00,0.96
6334.00,0.96
6333.00,0.96
6332.00,0.96
6331.00,0.97
6330.00,0.97
6329.00,0.97
6328.00,0.97
6327.00,0.97
6326.00,0.97
6325.00,0.97
6324.00,0.97
6323.00,0.98
6322.00,0.98
6321.00,0.98
6320.00,0.98
6319.00,0.98
6318.00,0.98
6317.00,0.98
6316.00,0.98
6315.00,0.98
6314.00,0.98
6313.00,0.98
6312.00,0.98
6311.00,0.98
6310.00,0.98
6309.00,0.98
6308.00,0.99
6307.00,0.99
6306.00,0.99
6305.00,0.99
6304.00,0.99
6303.00,0.99
6302.00,0.99
6301.00,1.00
6300.00,1.00
6299.00,1.00
6298.00,1.00
6297.00,1.00
6296.00,1.00
6295.00,1.00
6294.00,1.00
6293.00,1.00
6292.00,1.00
6291.00,1.00
6290.00,1.01
6289.00,1.01
6288.00,1.01
6287.00,1.01
6286.00,1.01
6285.00,1.01
6284.00,1.01
6283.00,1.01
6282.00,1.01
6281.00,1.01
6280.00,1.01
6279.00,1.01
6278.00,1.01
6277.00,1.01
6276.00,1.01
6275.00,1.01
6274.00,1.02
6273.00,1.02
6272.00,1.02
6271.00,1.02
6270.00,1.02
6269.00,1.02
6268.00,1.02
6267.00,1.02
6266.00,1.02
6265.00,1.02
6264.00,1.03
6263.00,1.03
6262.00,1.03
6261.00,1.03
6260.00,1.03
6259.00,1.03
6258.00,1.03
6257.00,1.03
6256.00,1.03
6255.00,1.04
6254.00,1.04
6253.00,1.04
6252.00,1.04
6251.00,1.04
6250.00,1.04
6249.00,1.04
6248.00,1.04
6247.00,1.04
6246.00,1.05
6245.00,1.05
6244.00,1.05
6243.00,1.05
6242.00,1.05
6241.00,1.05
6240.00,1.05
6239.00,1.06
6238.00,1.06
6237.00,1.06
6236.00,1.06
6235.00,1.06
6234.00,1.06
6233.00,1.06
6232.00,1.06
6231.00,1.07
6230.00,1.07
6229.00,1.07
6228.00,1.07
6227.00,1.07
6226.00,1.07
6225.00,1.07
6224.00,1.07
6223.00,1.07
6222.00,1.07
6221.00,1.07
6220.00,1.08
6219.00,1.08
6218.00,1.08
6217.00,1.08
6216.00,1.08
6215.00,1.08
6214.00,1.08
6213.00,1.08
6212.00,1.08
6211.00,1.08
6210.00,1.08
6209.00,1.08
6208.00,1.09
6207.00,1.09
6206.00,1.09
6205.00,1.09
6204.00,1.09
6203.00,1.09
6202.00,1.09
6201.00,1.09
6200.00,1.09
6199.00,1.10
6198.00,1.10
6197.00,1.10
6196.00,1.10
6195.00,1.10
6194.00,1.10
6193.00,1.11
6192.00,1.11
6191.00,1.11
6190.00,1.11
6189.00,1.11
6188.00,1.12
6187.00,1.12
6186.00,1.12
6185.00,1.12
6184.00,1.12
6183.00,1.13
6182.00,1.13
6181.00,1.13
6180.00,1.13
6179.00,1.14
6178.00,1.14
6177.00,1.14
6176.00,1.14
6175.00,1.14
6174.00,1.14
6173.00,1.15
6172.00,1.15
6171.00,1.15
6170.00,1.15
6169.00,1.15
6168.00,1.15
6167.00,1.15
6166.00,1.15
6165.00,1.16
6164.00,1.16
6163.00,1.16
6162.00,1.16
6161.00,1.16
6160.00,1.16
6159.00,1.16
6158.00,1.16
6157.00,1.16
6156.00,1.16
6155.00,1.16
6154.00,1.17
6153.00,1.17
6152.00,1.17
6151.00,1.17
6150.00,1.17
6149.00,1.17
6148.00,1.17
6147.00,1.17
6146.00,1.17
6145.00,1.18
6144.00,1.18
6143.00,1.18
6142.00,1.18
6141.00,1.18
6140.00,1.18
6139.00,1.19
6138.00,1.19
6137.00,1.19
6136.00,1.19
6135.00,1.19
6134.00,1.19
6133.00,1.19
6132.00,1.20
6131.00,1.20
6130.00,1.20
6129.00,1.20
6128.00,1.20
6127.00,1.20
6126.00,1.20
6125.00,1.20
6124.00,1.20
6123.00,1.21
6122.00,1.21
6121.00,1.21
6120.00,1.21
6119.00,1.21
6118.00,1.21
6117.00,1.21
6116.00,1.21
6115.00,1.22
6114.00,1.22
6113.00,1.22
6112.00,1.22
6111.00,1.22
6110.00,1.22
6109.00,1.23
6108.00,1.23
6107.00,1.23
6106.00,1.23
6105.00,1.23
6104.00,1.23
6103.00,1.23
6102.00,1.24
6101.00,1.24
6100.00,1.24
6099.00,1.24
6098.00,1.24
6097.00,1.24
6096.00,1.24
6095.00,1.24
6094.00,1.25
6093.00,1.25
6092.00,1.25
6091.00,1.25
6090.00,1.25
6089.00,1.25
6088.00,1.25
6087.00,1.26
6086.00,1.26
6085.00,1.26
6084.00,1.26
6083.00,1.26
6082.00,1.26
6081.00,1.26
6080.00,1.26
6079.00,1.27
6078.00,1.27
6077.00,1.27
6076.00,1.27
6075.00,1.27
6074.00,1.27
6073.00,1.27
6072.00,1.27
6071.00,1.27
6070.00,1.28
6069.00,1.28
6068.00,1.28
6067.00,1.28
6066.00,1.28
6065.00,1.28
6064.00,1.28
6063.00,1.28
6062.00,1.28
6061.00,1.28
6060.00,1.29
6059.00,1.29
6058.00,1.29
6057.00,1.29
6056.00,1.29
6055.00,1.29
6054.00,1.29
6053.00,1.29
6052.00,1.29
6051.00,1.29
6050.00,1.30
6049.00,1.30
6048.00,1.30
6047.00,1.30
6046.00,1.30
6045.00,1.30
6044.00,1.30
6043.00,1.30
6042.00,1.30
6041.00,1.30
6040.00,1.30
6039.00,1.30
6038.00,1.30
6037.00,1.30
6036.00,1.30
6035.00,1.30
6034.00,1.30
6033.00,1.30
6032.00,1.30
6031.00,1.30
6030.00,1.30
6029.00,1.30
6028.00,1.30
6027.00,1.30
6026.00,1.30
6025.00,1.30
6024.00,1.30
6023.00,1.30
6022.00,1.31
6021.00,1.31
6020.00,1.31
6019.00,1.31
6018.00,1.31
6017.00,1.31
6016.00,1.31
6015.00,1.31
6014.00,1.31
6013.00,1.31
6012.00,1.31
6011.00,1.31
6010.00,1.30
6009.00,1.30
6008.00,1.30
6007.00,1.30
6006.00,1.30
6005.00,1.30
6004.00,1.30
6003.00,1.30
6002.00,1.30
6001.00,1.30
6000.00,1.30
5999.00,1.30
5998.00,1.30
5997.00,1.30
5996.00,1.30
5995.00,1.29
5994.00,1.29
5993.00,1.29
5992.00,1.29
5991.00,1.29
5990.00,1.29
5989.00,1.28
5988.00,1.28
5987.00,1.28
5986.00,1.28
5985.00,1.27
5984.00,1.27
5983.00,1.27
5982.00,1.26
5981.00,1.26
5980.00,1.25
5979.00,1.25
5978.00,1.25
5977.00,1.24
5976.00,1.24
5975.00,1.23
5974.00,1.23
5973.00,1.22
5972.00,1.22
5971.00,1.21
5970.00,1.21
5969.00,1.20
5968.00,1.19
5967.00,1.19
5966.00,1.18
5965.00,1.17
5964.00,1.16
5963.00,1.16
5962.00,1.15
5961.00,1.14
5960.00,1.13
5959.00,1.13
5958.00,1.12
5957.00,1.11
5956.00,1.10
5955.00,1.09
5954.00,1.09
5953.00,1.08
5952.00,1.07
5951.00,1.07
5950.00,1.06
5949.00,1.05
5948.00,1.05
5947.00,1.04
5946.00,1.04
5945.00,1.03
5944.00,1.03
5943.00,1.02
5942.00,1.02
5941.00,1.02
5940.00,1.02
5939.00,1.01
5938.00,1.01
5937.00,1.01
5936.00,1.01
5935.00,1.01
5934.00,1.00
5933.00,1.00
5932.00,1.00
5931.00,1.00
5930.00,1.00
5929.00,1.00
5928.00,1.00
5927.00,1.00
5926.00,0.99
5925.00,0.99
5924.00,0.99
5923.00,0.99
5922.00,0.99
5921.00,0.98
5920.00,0.98
5919.00,0.98
5918.00,0.98
5917.00,0.97
5916.00,0.97
5915.00,0.97
5914.00,0.97
5913.00,0.96
5912.00,0.96
5911.00,0.96
5910.00,0.96
5909.00,0.95
5908.00,0.95
5907.00,0.95
5906.00,0.95
5905.00,0.95
5904.00,0.94
5903.00,0.94
5902.00,0.94
5901.00,0.94
5900.00,0.94
5899.00,0.94
5898.00,0.94
5897.00,0.94
5896.00,0.94
5895.00,0.94
5894.00,0.94
5893.00,0.94
5892.00,0.95
5891.00,0.95
5890.00,0.95
5889.00,0.95
5888.00,0.96
5887.00,0.96
5886.00,0.96
5885.00,0.96
5884.00,0.97
5883.00,0.97
5882.00,0.97
5881.00,0.98
5880.00,0.98
5879.00,0.98
5878.00,0.98
5877.00,0.99
5876.00,0.99
5875.00,0.99
5874.00,0.99
5873.00,1.00
5872.00,1.00
5871.00,1.00
5870.00,1.00
5869.00,1.00
5868.00,1.01
5867.00,1.01
5866.00,1.01
5865.00,1.01
5864.00,1.01
5863.00,1.02
5862.00,1.02
5861.00,1.02
5860.00,1.02
5859.00,1.02
5858.00,1.02
5857.00,1.02
5856.00,1.03
5855.00,1.03
5854.00,1.03
5853.00,1.03
5852.00,1.03
5851.00,1.03
5850.00,1.03
5849.00,1.03
5848.00,1.03
5847.00,1.03
5846.00,1.03
5845.00,1.03
5844.00,1.03
5843.00,1.03
5842.00,1.03
5841.00,1.03
5840.00,1.04
5839.00,1.04
5838.00,1.04
5837.00,1.04
5836.00,1.04
5835.00,1.04
5834.00,1.04
5833.00,1.04
5832.00,1.04
5831.00,1.04
5830.00,1.04
5829.00,1.04
5828.00,1.04
5827.00,1.04
5826.00,1.04
5825.00,1.03
5824.00,1.03
5823.00,1.03
5822.00,1.03
5821.00,1.03
5820.00,1.03
5819.00,1.03
5818.00,1.03
5817.00,1.03
5816.00,1.03
5815.00,1.03
5814.00,1.03
5813.00,1.03
5812.00,1.03
5811.00,1.03
5810.00,1.03
5809.00,1.03
5808.00,1.03
5807.00,1.03
5806.00,1.03
5805.00,1.03
5804.00,1.03
5803.00,1.03
5802.00,1.03
5801.00,1.03
5800.00,1.03
5799.00,1.03
5798.00,1.03
5797.00,1.03
5796.00,1.03
5795.00,1.03
5794.00,1.03
5793.00,1.02
5792.00,1.02
5791.00,1.02
5790.00,1.02
5789.00,1.01
5788.00,1.01
5787.00,1.01
5786.00,1.01
5785.00,1.01
5784.00,1.00
5783.00,1.00
5782.00,1.00
5781.00,1.00
5780.00,0.99
5779.00,0.99
5778.00,0.99
5777.00,0.99
5776.00,0.99
5775.00,0.99
5774.00,0.99
5773.00,0.99
5772.00,0.99
5771.00,0.99
5770.00,0.99
5769.00,0.99
5768.00,0.99
5767.00,0.99
5766.00,0.99
5765.00,0.99
5764.00,0.99
5763.00,0.99
5762.00,1.00
5761.00,1.00
5760.00,1.00
5759.00,1.00
5758.00,1.00
5757.00,1.01
5756.00,1.01
5755.00,1.01
5754.00,1.02
5753.00,1.02
5752.00,1.02
5751.00,1.03
5750.00,1.03
5749.00,1.04
5748.00,1.04
5747.00,1.04
5746.00,1.05
5745.00,1.05
5744.00,1.06
5743.00,1.06
5742.00,1.06
5741.00,1.07
5740.00,1.07
5739.00,1.08
5738.00,1.08
5737.00,1.08
5736.00,1.09
5735.00,1.09
5734.00,1.09
5733.00,1.10
5732.00,1.10
5731.00,1.10
5730.00,1.10
5729.00,1.10
5728.00,1.11
5727.00,1.11
5726.00,1.11
5725.00,1.11
5724.00,1.11
5723.00,1.11
5722.00,1.11
5721.00,1.12
5720.00,1.12
5719.00,1.12
5718.00,1.12
5717.00,1.12
5716.00,1.12
5715.00,1.12
5714.00,1.12
5713.00,1.12
5712.00,1.12
5711.00,1.12
5710.00,1.12
5709.00,1.12
5708.00,1.12
5707.00,1.12
5706.00,1.12
5705.00,1.12
5704.00,1.12
5703.00,1.12
5702.00,1.12
5701.00,1.12
5700.00,1.12
5699.00,1.12
5698.00,1.12
5697.00,1.11
5696.00,1.11
5695.00,1.11
5694.00,1.11
5693.00,1.11
5692.00,1.11
5691.00,1.11
5690.00,1.10
5689.00,1.10
5688.00,1.10
5687.00,1.10
5686.00,1.10
5685.00,1.10
5684.00,1.09
5683.00,1.09
5682.00,1.09
5681.00,1.09
5680.00,1.09
5679.00,1.09
5678.00,1.09
5677.00,1.09
5676.00,1.09
5675.00,1.09
5674.00,1.09
5673.00,1.09
5672.00,1.09
5671.00,1.09
5670.00,1.09
5669.00,1.09
5668.00,1.09
5667.00,1.09
5666.00,1.09
5665.00,1.09
5664.00,1.09
5663.00,1.09
5662.00,1.10
5661.00,1.10
5660.00,1.10
5659.00,1.10
5658.00,1.10
5657.00,1.10
5656.00,1.11
5655.00,1.11
5654.00,1.11
5653.00,1.11
5652.00,1.12
5651.00,1.12
5650.00,1.12
5649.00,1.12
5648.00,1.13
5647.00,1.13
5646.00,1.13
5645.00,1.13
5644.00,1.13
5643.00,1.14
5642.00,1.14
5641.00,1.14
5640.00,1.14
5639.00,1.15
5638.00,1.15
5637.00,1.15
5636.00,1.15
5635.00,1.15
5634.00,1.16
5633.00,1.16
5632.00,1.16
5631.00,1.16
5630.00,1.16
5629.00,1.17
5628.00,1.17
5627.00,1.17
5626.00,1.17
5625.00,1.17
5624.00,1.18
5623.00,1.18
5622.00,1.18
5621.00,1.18
5620.00,1.18
5619.00,1.19
5618.00,1.19
5617.00,1.19
5616.00,1.19
5615.00,1.19
5614.00,1.20
5613.00,1.20
5612.00,1.20
5611.00,1.20
5610.00,1.20
5609.00,1.21
5608.00,1.21
5607.00,1.21
5606.00,1.21
5605.00,1.21
5604.00,1.22
5603.00,1.22
5602.00,1.22
5601.00,1.22
5600.00,1.22
5599.00,1.22
5598.00,1.22
5597.00,1.23
5596.00,1.23
5595.00,1.23
5594.00,1.23
5593.00,1.23
5592.00,1.23
5591.00,1.24
5590.00,1.24
5589.00,1.24
5588.00,1.24
5587.00,1.24
5586.00,1.25
5585.00,1.25
5584.00,1.25
5583.00,1.25
5582.00,1.25
5581.00,1.25
5580.00,1.26
5579.00,1.26
5578.00,1.26
5577.00,1.26
5576.00,1.26
5575.00,1.26
5574.00,1.26
5573.00,1.26
5572.00,1.26
5571.00,1.27
5570.00,1.27
5569.00,1.27
5568.00,1.27
5567.00,1.27
5566.00,1.27
5565.00,1.27
5564.00,1.27
5563.00,1.28
5562.00,1.28
5561.00,1.28
5560.00,1.28
5559.00,1.28
5558.00,1.28
5557.00,1.28
5556.00,1.29
5555.00,1.29
5554.00,1.29
5553.00,1.29
5552.00,1.29
5551.00,1.29
5550.00,1.29
5549.00,1.30
5548.00,1.30
5547.00,1.30
5546.00,1.30
5545.00,1.30
5544.00,1.30
5543.00,1.30
5542.00,1.31
5541.00,1.31
5540.00,1.31
5539.00,1.31
5538.00,1.31
5537.00,1.31
5536.00,1.31
5535.00,1.31
5534.00,1.32
5533.00,1.32
5532.00,1.32
5531.00,1.32
5530.00,1.32
5529.00,1.32
5528.00,1.32
5527.00,1.33
5526.00,1.33
5525.00,1.33
5524.00,1.33
5523.00,1.33
5522.00,1.33
5521.00,1.33
5520.00,1.33
5519.00,1.33
5518.00,1.33
5517.00,1.33
5516.00,1.33
5515.00,1.33
5514.00,1.33
5513.00,1.33
5512.00,1.33
5511.00,1.33
5510.00,1.33
5509.00,1.33
5508.00,1.33
5507.00,1.33
5506.00,1.33
5505.00,1.33
5504.00,1.33
5503.00,1.33
5502.00,1.33
5501.00,1.33
5500.00,1.34
5499.00,1.34
5498.00,1.34
5497.00,1.34
5496.00,1.34
5495.00,1.34
5494.00,1.34
5493.00,1.34
5492.00,1.34
5491.00,1.34
5490.00,1.34
5489.00,1.34
5488.00,1.35
5487.00,1.35
5486.00,1.35
5485.00,1.35
5484.00,1.35
5483.00,1.35
5482.00,1.35
5481.00,1.35
5480.00,1.36
5479.00,1.36
5478.00,1.36
5477.00,1.36
5476.00,1.36
5475.00,1.36
5474.00,1.36
5473.00,1.36
5472.00,1.36
5471.00,1.37
5470.00,1.37
5469.00,1.37
5468.00,1.37
5467.00,1.37
5466.00,1.37
5465.00,1.37
5464.00,1.37
5463.00,1.38
5462.00,1.38
5461.00,1.38
5460.00,1.38
5459.00,1.38
5458.00,1.38
5457.00,1.38
5456.00,1.38
5455.00,1.39
5454.00,1.39
5453.00,1.39
5452.00,1.39
5451.00,1.39
5450.00,1.39
5449.00,1.39
5448.00,1.39
5447.00,1.40
5446.00,1.40
5445.00,1.40
5444.00,1.40
5443.00,1.40
5442.00,1.40
5441.00,1.40
5440.00,1.40
5439.00,1.40
5438.00,1.40
5437.00,1.41
5436.00,1.41
5435.00,1.41
5434.00,1.41
5433.00,1.41
5432.00,1.41
5431.00,1.41
5430.00,1.41
5429.00,1.41
5428.00,1.41
5427.00,1.41
5426.00,1.41
5425.00,1.41
5424.00,1.41
5423.00,1.41
5422.00,1.41
5421.00,1.41
5420.00,1.41
5419.00,1.41
5418.00,1.41
5417.00,1.41
5416.00,1.41
5415.00,1.41
5414.00,1.41
5413.00,1.41
5412.00,1.41
5411.00,1.41
5410.00,1.41
5409.00,1.41
5408.00,1.41
5407.00,1.41
5406.00,1.41
5405.00,1.41
5404.00,1.41
5403.00,1.41
5402.00,1.41
5401.00,1.41
5400.00,1.41
5399.00,1.41
5398.00,1.41
5397.00,1.41
5396.00,1.41
5395.00,1.41
5394.00,1.41
5393.00,1.41
5392.00,1.41
5391.00,1.41
5390.00,1.41
5389.00,1.41
5388.00,1.41
5387.00,1.41
5386.00,1.41
5385.00,1.41
5384.00,1.41
5383.00,1.41
5382.00,1.41
5381.00,1.40
5380.00,1.40
5379.00,1.40
5378.00,1.40
5377.00,1.40
5376.00,1.40
5375.00,1.40
5374.00,1.39
5373.00,1.39
5372.00,1.39
5371.00,1.39
5370.00,1.38
5369.00,1.38
5368.00,1.38
5367.00,1.37
5366.00,1.37
5365.00,1.37
5364.00,1.36
5363.00,1.36
5362.00,1.35
5361.00,1.35
5360.00,1.34
5359.00,1.34
5358.00,1.33
5357.00,1.33
5356.00,1.32
5355.00,1.31
5354.00,1.31
5353.00,1.30
5352.00,1.29
5351.00,1.29
5350.00,1.28
5349.00,1.27
5348.00,1.26
5347.00,1.26
5346.00,1.25
5345.00,1.24
5344.00,1.23
5343.00,1.22
5342.00,1.21
5341.00,1.21
5340.00,1.20
5339.00,1.19
5338.00,1.18
5337.00,1.17
5336.00,1.16
5335.00,1.15
5334.00,1.14
5333.00,1.13
5332.00,1.12
5331.00,1.11
5330.00,1.10
5329.00,1.09
5328.00,1.07
5327.00,1.06
5326.00,1.05
5325.00,1.04
5324.00,1.03
5323.00,1.01
5322.00,1.00
5321.00,0.99
5320.00,0.98
5319.00,0.96
5318.00,0.95
5317.00,0.94
5316.00,0.93
5315.00,0.91
5314.00,0.90
5313.00,0.89
5312.00,0.88
5311.00,0.87
5310.00,0.85
5309.00,0.84
5308.00,0.83
5307.00,0.82
5306.00,0.81
5305.00,0.80
5304.00,0.79
5303.00,0.78
5302.00,0.78
5301.00,0.77
5300.00,0.76
5299.00,0.75
5298.00,0.74
5297.00,0.74
5296.00,0.73
5295.00,0.72
5294.00,0.72
5293.00,0.71
5292.00,0.71
5291.00,0.70
5290.00,0.70
5289.00,0.69
5288.00,0.69
5287.00,0.68
5286.00,0.68
5285.00,0.68
5284.00,0.67
5283.00,0.67
5282.00,0.67
5281.00,0.66
5280.00,0.66
5279.00,0.66
5278.00,0.65
5277.00,0.65
5276.00,0.65
5275.00,0.65
5274.00,0.64
5273.00,0.64
5272.00,0.64
5271.00,0.64
5270.00,0.63
5269.00,0.63
5268.00,0.63
5267.00,0.63
5266.00,0.62
5265.00,0.62
5264.00,0.62
5263.00,0.62
5262.00,0.61
5261.00,0.61
5260.00,0.61
5259.00,0.61
5258.00,0.61
5257.00,0.60
5256.00,0.60
5255.00,0.60
5254.00,0.60
5253.00,0.60
5252.00,0.60
5251.00,0.60
5250.00,0.60
5249.00,0.60
5248.00,0.60
5247.00,0.60
5246.00,0.60
5245.00,0.59
5244.00,0.59
5243.00,0.59
5242.00,0.59
5241.00,0.59
5240.00,0.59
5239.00,0.59
5238.00,0.59
5237.00,0.59
5236.00,0.59
5235.00,0.59
5234.00,0.59
5233.00,0.58
5232.00,0.58
5231.00,0.58
5230.00,0.58
5229.00,0.58
5228.00,0.58
5227.00,0.58
5226.00,0.58
5225.00,0.58
5224.00,0.58
5223.00,0.58
5222.00,0.58
5221.00,0.58
5220.00,0.58
5219.00,0.58
5218.00,0.58
5217.00,0.58
5216.00,0.58
5215.00,0.58
5214.00,0.58
5213.00,0.58
5212.00,0.58
5211.00,0.58
5210.00,0.58
5209.00,0.58
5208.00,0.58
5207.00,0.58
5206.00,0.58
5205.00,0.58
5204.00,0.58
5203.00,0.58
5202.00,0.58
5201.00,0.58
5200.00,0.58
5199.00,0.58
5198.00,0.58
5197.00,0.58
5196.00,0.58
5195.00,0.58
5194.00,0.58
5193.00,0.58
5192.00,0.58
5191.00,0.58
5190.00,0.58
5189.00,0.58
5188.00,0.58
5187.00,0.58
5186.00,0.58
5185.00,0.58
5184.00,0.58
5183.00,0.58
5182.00,0.58
5181.00,0.58
5180.00,0.58
5179.00,0.58
5178.00,0.58
5177.00,0.58
5176.00,0.58
5175.00,0.59
5174.00,0.59
5173.00,0.59
5172.00,0.59
5171.00,0.59
5170.00,0.59
5169.00,0.59
5168.00,0.59
5167.00,0.59
5166.00,0.59
5165.00,0.59
5164.00,0.59
5163.00,0.59
5162.00,0.59
5161.00,0.59
5160.00,0.59
5159.00,0.59
5158.00,0.59
5157.00,0.59
5156.00,0.59
5155.00,0.59
5154.00,0.59
5153.00,0.59
5152.00,0.59
5151.00,0.59
5150.00,0.59
5149.00,0.59
5148.00,0.59
5147.00,0.59
5146.00,0.59
5145.00,0.60
5144.00,0.60
5143.00,0.60
5142.00,0.60
5141.00,0.60
5140.00,0.60
5139.00,0.60
5138.00,0.60
5137.00,0.60
5136.00,0.60
5135.00,0.60
5134.00,0.60
5133.00,0.61
5132.00,0.61
5131.00,0.61
5130.00,0.61
5129.00,0.61
5128.00,0.61
5127.00,0.61
5126.00,0.61
5125.00,0.61
5124.00,0.61
5123.00,0.61
5122.00,0.61
5121.00,0.62
5120.00,0.62
5119.00,0.62
5118.00,0.62
5117.00,0.62
5116.00,0.62
5115.00,0.62
5114.00,0.62
5113.00,0.62
5112.00,0.62
5111.00,0.63
5110.00,0.63
5109.00,0.63
5108.00,0.63
5107.00,0.63
5106.00,0.63
5105.00,0.63
5104.00,0.64
5103.00,0.64
5102.00,0.64
5101.00,0.64
5100.00,0.64
5099.00,0.64
5098.00,0.64
5097.00,0.64
5096.00,0.64
5095.00,0.65
5094.00,0.65
5093.00,0.65
5092.00,0.65
5091.00,0.65
5090.00,0.65
5089.00,0.65
5088.00,0.65
5087.00,0.65
5086.00,0.65
5085.00,0.65
5084.00,0.65
5083.00,0.66
5082.00,0.66
5081.00,0.66
5080.00,0.66
5079.00,0.66
5078.00,0.66
5077.00,0.66
5076.00,0.66
5075.00,0.66
5074.00,0.66
5073.00,0.66
5072.00,0.66
5071.00,0.66
5070.00,0.67
5069.00,0.67
5068.00,0.67
5067.00,0.67
5066.00,0.67
5065.00,0.67
5064.00,0.67
5063.00,0.67
5062.00,0.67
5061.00,0.67
5060.00,0.68
5059.00,0.68
5058.00,0.68
5057.00,0.68
5056.00,0.68
5055.00,0.68
5054.00,0.68
5053.00,0.69
5052.00,0.69
5051.00,0.69
5050.00,0.69
5049.00,0.69
5048.00,0.69
5047.00,0.69
5046.00,0.70
5045.00,0.70
5044.00,0.70
5043.00,0.70
5042.00,0.70
5041.00,0.70
5040.00,0.71
5039.00,0.71
5038.00,0.71
5037.00,0.71
5036.00,0.71
5035.00,0.71
5034.00,0.71
5033.00,0.71
5032.00,0.72
5031.00,0.72
5030.00,0.72
5029.00,0.72
5028.00,0.72
5027.00,0.72
5026.00,0.72
5025.00,0.72
5024.00,0.72
5023.00,0.72
5022.00,0.73
5021.00,0.73
5020.00,0.73
5019.00,0.73
5018.00,0.73
5017.00,0.73
5016.00,0.74
5015.00,0.74
5014.00,0.74
5013.00,0.74
5012.00,0.74
5011.00,0.74
5010.00,0.75
5009.00,0.75
5008.00,0.75
5007.00,0.75
5006.00,0.76
5005.00,0.76
5004.00,0.76
5003.00,0.76
5002.00,0.76
5001.00,0.76
5000.00,0.77
4999.00,0.77
4998.00,0.77
4997.00,0.77
4996.00,0.77
4995.00,0.77
4994.00,0.78
4993.00,0.78
4992.00,0.78
4991.00,0.78
4990.00,0.78
4989.00,0.78
4988.00,0.78
4987.00,0.79
4986.00,0.79
4985.00,0.79
4984.00,0.79
4983.00,0.79
4982.00,0.80
4981.00,0.80
4980.00,0.80
4979.00,0.80
4978.00,0.80
4977.00,0.80
4976.00,0.81
4975.00,0.81
4974.00,0.81
4973.00,0.81
4972.00,0.81
4971.00,0.81
4970.00,0.82
4969.00,0.82
4968.00,0.82
4967.00,0.82
4966.00,0.82
4965.00,0.82
4964.00,0.82
4963.00,0.82
4962.00,0.82
4961.00,0.83
4960.00,0.83
4959.00,0.83
4958.00,0.83
4957.00,0.83
4956.00,0.83
4955.00,0.83
4954.00,0.83
4953.00,0.83
4952.00,0.83
4951.00,0.83
4950.00,0.83
4949.00,0.83
4948.00,0.83
4947.00,0.83
4946.00,0.83
4945.00,0.83
4944.00,0.83
4943.00,0.83
4942.00,0.83
4941.00,0.84
4940.00,0.84
4939.00,0.84
4938.00,0.84
4937.00,0.84
4936.00,0.84
4935.00,0.84
4934.00,0.84
4933.00,0.84
4932.00,0.84
4931.00,0.84
4930.00,0.84
4929.00,0.84
4928.00,0.84
4927.00,0.85
4926.00,0.85
4925.00,0.85
4924.00,0.85
4923.00,0.85
4922.00,0.85
4921.00,0.85
4920.00,0.85
4919.00,0.86
4918.00,0.86
4917.00,0.86
4916.00,0.86
4915.00,0.86
4914.00,0.86
4913.00,0.86
4912.00,0.86
4911.00,0.86
4910.00,0.86
4909.00,0.86
4908.00,0.86
4907.00,0.87
4906.00,0.87
4905.00,0.87
4904.00,0.87
4903.00,0.87
4902.00,0.87
4901.00,0.87
4900.00,0.87
4899.00,0.87
4898.00,0.87
4897.00,0.87
4896.00,0.87
4895.00,0.87
4894.00,0.87
4893.00,0.87
4892.00,0.87
4891.00,0.87
4890.00,0.87
4889.00,0.87
4888.00,0.87
4887.00,0.87
4886.00,0.87
4885.00,0.87
4884.00,0.87
4883.00,0.87
4882.00,0.87
4881.00,0.87
4880.00,0.87
4879.00,0.87
4878.00,0.87
4877.00,0.87
4876.00,0.87
4875.00,0.87
4874.00,0.87
4873.00,0.87
4872.00,0.87
4871.00,0.87
4870.00,0.87
4869.00,0.87
4868.00,0.87
4867.00,0.87
4866.00,0.87
4865.00,0.87
4864.00,0.87
4863.00,0.87
4862.00,0.87
4861.00,0.87
4860.00,0.87
4859.00,0.87
4858.00,0.87
4857.00,0.87
4856.00,0.87
4855.00,0.87
4854.00,0.88
4853.00,0.88
4852.00,0.88
4851.00,0.88
4850.00,0.88
4849.00,0.88
4848.00,0.88
4847.00,0.88
4846.00,0.88
4845.00,0.88
4844.00,0.88
4843.00,0.88
4842.00,0.88
4841.00,0.88
4840.00,0.88
4839.00,0.88
4838.00,0.88
4837.00,0.88
4836.00,0.89
4835.00,0.89
4834.00,0.89
4833.00,0.89
4832.00,0.89
4831.00,0.89
4830.00,0.89
4829.00,0.90
4828.00,0.90
4827.00,0.90
4826.00,0.90
4825.00,0.90
4824.00,0.90
4823.00,0.91
4822.00,0.91
4821.00,0.91
4820.00,0.91
4819.00,0.91
4818.00,0.91
4817.00,0.91
4816.00,0.91
4815.00,0.91
4814.00,0.91
4813.00,0.92
4812.00,0.92
4811.00,0.92
4810.00,0.92
4809.00,0.92
4808.00,0.92
4807.00,0.92
4806.00,0.92
4805.00,0.92
4804.00,0.92
4803.00,0.92
4802.00,0.92
4801.00,0.93
4800.00,0.93
4799.00,0.93
4798.00,0.93
4797.00,0.93
4796.00,0.93
4795.00,0.93
4794.00,0.94
4793.00,0.94
4792.00,0.94
4791.00,0.94
4790.00,0.94
4789.00,0.94
4788.00,0.95
4787.00,0.95
4786.00,0.95
4785.00,0.95
4784.00,0.95
4783.00,0.96
4782.00,0.96
4781.00,0.96
4780.00,0.96
4779.00,0.96
4778.00,0.96
4777.00,0.97
4776.00,0.97
4775.00,0.97
4774.00,0.97
4773.00,0.97
4772.00,0.97
4771.00,0.98
4770.00,0.98
4769.00,0.98
4768.00,0.98
4767.00,0.98
4766.00,0.99
4765.00,0.99
4764.00,0.99
4763.00,0.99
4762.00,1.00
4761.00,1.00
4760.00,1.00
4759.00,1.01
4758.00,1.01
4757.00,1.01
4756.00,1.01
4755.00,1.02
4754.00,1.02
4753.00,1.02
4752.00,1.02
4751.00,1.02
4750.00,1.03
4749.00,1.03
4748.00,1.03
4747.00,1.03
4746.00,1.03
4745.00,1.03
4744.00,1.03
4743.00,1.04
4742.00,1.04
4741.00,1.04
4740.00,1.04
4739.00,1.04
4738.00,1.04
4737.00,1.04
4736.00,1.05
4735.00,1.05
4734.00,1.05
4733.00,1.05
4732.00,1.05
4731.00,1.06
4730.00,1.06
4729.00,1.06
4728.00,1.06
4727.00,1.07
4726.00,1.07
4725.00,1.07
4724.00,1.07
4723.00,1.08
4722.00,1.08
4721.00,1.08
4720.00,1.08
4719.00,1.08
4718.00,1.09
4717.00,1.09
4716.00,1.09
4715.00,1.09
4714.00,1.10
4713.00,1.10
4712.00,1.10
4711.00,1.10
4710.00,1.11
4709.00,1.11
4708.00,1.11
4707.00,1.11
4706.00,1.11
4705.00,1.12
4704.00,1.12
4703.00,1.12
4702.00,1.12
4701.00,1.12
4700.00,1.12
4699.00,1.12
4698.00,1.12
4697.00,1.12
4696.00,1.13
4695.00,1.13
4694.00,1.13
4693.00,1.13
4692.00,1.13
4691.00,1.13
4690.00,1.13
4689.00,1.14
4688.00,1.14
4687.00,1.14
4686.00,1.14
4685.00,1.15
4684.00,1.15
4683.00,1.15
4682.00,1.15
4681.00,1.16
4680.00,1.16
4679.00,1.16
4678.00,1.17
4677.00,1.17
4676.00,1.17
4675.00,1.17
4674.00,1.18
4673.00,1.18
4672.00,1.18
4671.00,1.18
4670.00,1.18
4669.00,1.19
4668.00,1.19
4667.00,1.19
4666.00,1.19
4665.00,1.19
4664.00,1.20
4663.00,1.20
4662.00,1.20
4661.00,1.20
4660.00,1.20
4659.00,1.20
4658.00,1.21
4657.00,1.21
4656.00,1.21
4655.00,1.21
4654.00,1.21
4653.00,1.21
4652.00,1.22
4651.00,1.22
4650.00,1.22
4649.00,1.22
4648.00,1.22
4647.00,1.23
4646.00,1.23
4645.00,1.23
4644.00,1.23
4643.00,1.24
4642.00,1.24
4641.00,1.24
4640.00,1.24
4639.00,1.24
4638.00,1.25
4637.00,1.25
4636.00,1.25
4635.00,1.25
4634.00,1.26
4633.00,1.26
4632.00,1.26
4631.00,1.26
4630.00,1.26
4629.00,1.26
4628.00,1.27
4627.00,1.27
4626.00,1.27
4625.00,1.27
4624.00,1.27
4623.00,1.27
4622.00,1.28
4621.00,1.28
4620.00,1.28
4619.00,1.28
4618.00,1.28
4617.00,1.28
4616.00,1.28
4615.00,1.28
4614.00,1.29
4613.00,1.29
4612.00,1.29
4611.00,1.29
4610.00,1.29
4609.00,1.29
4608.00,1.29
4607.00,1.30
4606.00,1.30
4605.00,1.30
4604.00,1.30
4603.00,1.30
4602.00,1.30
4601.00,1.30
4600.00,1.30
4599.00,1.30
4598.00,1.31
4597.00,1.31
4596.00,1.31
4595.00,1.31
4594.00,1.31
4593.00,1.31
4592.00,1.31
4591.00,1.31
4590.00,1.31
4589.00,1.31
4588.00,1.31
4587.00,1.31
4586.00,1.32
4585.00,1.32
4584.00,1.32
4583.00,1.32
4582.00,1.32
4581.00,1.32
4580.00,1.32
4579.00,1.33
4578.00,1.33
4577.00,1.33
4576.00,1.33
4575.00,1.33
4574.00,1.34
4573.00,1.34
4572.00,1.34
4571.00,1.34
4570.00,1.34
4569.00,1.34
4568.00,1.34
4567.00,1.35
4566.00,1.35
4565.00,1.35
4564.00,1.35
4563.00,1.35
4562.00,1.35
4561.00,1.35
4560.00,1.35
4559.00,1.35
4558.00,1.35
4557.00,1.35
4556.00,1.35
4555.00,1.35
4554.00,1.35
4553.00,1.35
4552.00,1.35
4551.00,1.35
4550.00,1.35
4549.00,1.35
4548.00,1.35
4547.00,1.35
4546.00,1.35
4545.00,1.35
4544.00,1.35
4543.00,1.36
4542.00,1.36
4541.00,1.36
4540.00,1.36
4539.00,1.36
4538.00,1.36
4537.00,1.36
4536.00,1.37
4535.00,1.37
4534.00,1.37
4533.00,1.37
4532.00,1.37
4531.00,1.37
4530.00,1.37
4529.00,1.38
4528.00,1.38
4527.00,1.38
4526.00,1.38
4525.00,1.38
4524.00,1.38
4523.00,1.38
4522.00,1.38
4521.00,1.38
4520.00,1.38
4519.00,1.39
4518.00,1.39
4517.00,1.39
4516.00,1.39
4515.00,1.39
4514.00,1.39
4513.00,1.39
4512.00,1.39
4511.00,1.38
4510.00,1.38
4509.00,1.38
4508.00,1.38
4507.00,1.38
4506.00,1.38
4505.00,1.38
4504.00,1.38
4503.00,1.38
4502.00,1.38
4501.00,1.38
4500.00,1.38
4499.00,1.37
4498.00,1.37
4497.00,1.37
4496.00,1.37
4495.00,1.37
4494.00,1.37
4493.00,1.37
4492.00,1.36
4491.00,1.36
4490.00,1.36
4489.00,1.36
4488.00,1.36
4487.00,1.35
4486.00,1.35
4485.00,1.35
4484.00,1.34
4483.00,1.34
4482.00,1.34
4481.00,1.34
4480.00,1.33
4479.00,1.33
4478.00,1.33
4477.00,1.32
4476.00,1.32
4475.00,1.32
4474.00,1.31
4473.00,1.31
4472.00,1.31
4471.00,1.30
4470.00,1.30
4469.00,1.29
4468.00,1.29
4467.00,1.29
4466.00,1.28
4465.00,1.28
4464.00,1.28
4463.00,1.27
4462.00,1.27
4461.00,1.26
4460.00,1.26
4459.00,1.25
4458.00,1.25
4457.00,1.24
4456.00,1.24
4455.00,1.23
4454.00,1.23
4453.00,1.22
4452.00,1.21
4451.00,1.21
4450.00,1.20
4449.00,1.19
4448.00,1.18
4447.00,1.18
4446.00,1.17
4445.00,1.16
4444.00,1.15
4443.00,1.15
4442.00,1.14
4441.00,1.13
4440.00,1.13
4439.00,1.12
4438.00,1.11
4437.00,1.10
4436.00,1.10
4435.00,1.09
4434.00,1.09
4433.00,1.08
4432.00,1.08
4431.00,1.07
4430.00,1.07
4429.00,1.06
4428.00,1.06
4427.00,1.06
4426.00,1.06
4425.00,1.05
4424.00,1.05
4423.00,1.05
4422.00,1.05
4421.00,1.05
4420.00,1.05
4419.00,1.05
4418.00,1.05
4417.00,1.05
4416.00,1.05
4415.00,1.04
4414.00,1.04
4413.00,1.04
4412.00,1.04
4411.00,1.04
4410.00,1.04
4409.00,1.04
4408.00,1.04
4407.00,1.04
4406.00,1.03
4405.00,1.03
4404.00,1.03
4403.00,1.03
4402.00,1.03
4401.00,1.03
4400.00,1.03
4399.00,1.03
4398.00,1.03
4397.00,1.03
4396.00,1.03
4395.00,1.03
4394.00,1.03
4393.00,1.04
4392.00,1.04
4391.00,1.04
4390.00,1.04
4389.00,1.05
4388.00,1.05
4387.00,1.05
4386.00,1.06
4385.00,1.06
4384.00,1.06
4383.00,1.07
4382.00,1.07
4381.00,1.07
4380.00,1.08
4379.00,1.08
4378.00,1.08
4377.00,1.08
4376.00,1.08
4375.00,1.08
4374.00,1.08
4373.00,1.09
4372.00,1.09
4371.00,1.09
4370.00,1.09
4369.00,1.09
4368.00,1.09
4367.00,1.09
4366.00,1.09
4365.00,1.09
4364.00,1.09
4363.00,1.09
4362.00,1.09
4361.00,1.09
4360.00,1.09
4359.00,1.09
4358.00,1.08
4357.00,1.08
4356.00,1.08
4355.00,1.08
4354.00,1.08
4353.00,1.08
4352.00,1.08
4351.00,1.08
4350.00,1.08
4349.00,1.08
4348.00,1.08
4347.00,1.08
4346.00,1.08
4345.00,1.08
4344.00,1.09
4343.00,1.09
4342.00,1.09
4341.00,1.09
4340.00,1.09
4339.00,1.09
4338.00,1.10
4337.00,1.10
4336.00,1.10
4335.00,1.10
4334.00,1.10
4333.00,1.10
4332.00,1.10
4331.00,1.10
4330.00,1.11
4329.00,1.11
4328.00,1.11
4327.00,1.11
4326.00,1.11
4325.00,1.11
4324.00,1.11
4323.00,1.11
4322.00,1.11
4321.00,1.11
4320.00,1.11
4319.00,1.12
4318.00,1.12
4317.00,1.12
4316.00,1.12
4315.00,1.12
4314.00,1.13
4313.00,1.13
4312.00,1.13
4311.00,1.14
4310.00,1.14
4309.00,1.14
4308.00,1.14
4307.00,1.15
4306.00,1.15
4305.00,1.15
4304.00,1.16
4303.00,1.16
4302.00,1.16
4301.00,1.16
4300.00,1.17
4299.00,1.17
4298.00,1.17
4297.00,1.17
4296.00,1.18
4295.00,1.18
4294.00,1.18
4293.00,1.18
4292.00,1.18
4291.00,1.19
4290.00,1.19
4289.00,1.19
4288.00,1.19
4287.00,1.19
4286.00,1.20
4285.00,1.20
4284.00,1.20
4283.00,1.20
4282.00,1.20
4281.00,1.20
4280.00,1.20
4279.00,1.21
4278.00,1.21
4277.00,1.21
4276.00,1.21
4275.00,1.21
4274.00,1.21
4273.00,1.21
4272.00,1.21
4271.00,1.21
4270.00,1.21
4269.00,1.21
4268.00,1.20
4267.00,1.20
4266.00,1.20
4265.00,1.20
4264.00,1.20
4263.00,1.20
4262.00,1.19
4261.00,1.19
4260.00,1.19
4259.00,1.19
4258.00,1.19
4257.00,1.19
4256.00,1.19
4255.00,1.19
4254.00,1.19
4253.00,1.19
4252.00,1.19
4251.00,1.19
4250.00,1.19
4249.00,1.19
4248.00,1.19
4247.00,1.20
4246.00,1.20
4245.00,1.20
4244.00,1.20
4243.00,1.21
4242.00,1.21
4241.00,1.21
4240.00,1.22
4239.00,1.22
4238.00,1.22
4237.00,1.23
4236.00,1.23
4235.00,1.23
4234.00,1.24
4233.00,1.24
4232.00,1.24
4231.00,1.24
4230.00,1.24
4229.00,1.25
4228.00,1.25
4227.00,1.25
4226.00,1.25
4225.00,1.25
4224.00,1.25
4223.00,1.25
4222.00,1.25
4221.00,1.25
4220.00,1.25
4219.00,1.25
4218.00,1.26
4217.00,1.26
4216.00,1.26
4215.00,1.26
4214.00,1.26
4213.00,1.26
4212.00,1.26
4211.00,1.27
4210.00,1.27
4209.00,1.27
4208.00,1.27
4207.00,1.27
4206.00,1.27
4205.00,1.27
4204.00,1.27
4203.00,1.27
4202.00,1.28
4201.00,1.28
4200.00,1.28
4199.00,1.28
4198.00,1.28
4197.00,1.28
4196.00,1.28
4195.00,1.28
4194.00,1.28
4193.00,1.28
4192.00,1.28
4191.00,1.28
4190.00,1.28
4189.00,1.28
4188.00,1.28
4187.00,1.28
4186.00,1.28
4185.00,1.28
4184.00,1.28
4183.00,1.28
4182.00,1.28
4181.00,1.28
4180.00,1.28
4179.00,1.28
4178.00,1.28
4177.00,1.27
4176.00,1.27
4175.00,1.27
4174.00,1.27
4173.00,1.27
4172.00,1.27
4171.00,1.27
4170.00,1.27
4169.00,1.28
4168.00,1.28
4167.00,1.28
4166.00,1.28
4165.00,1.28
4164.00,1.28
4163.00,1.28
4162.00,1.28
4161.00,1.29
4160.00,1.29
4159.00,1.29
4158.00,1.29
4157.00,1.29
4156.00,1.29
4155.00,1.29
4154.00,1.29
4153.00,1.29
4152.00,1.29
4151.00,1.29
4150.00,1.29
4149.00,1.29
4148.00,1.29
4147.00,1.29
4146.00,1.29
4145.00,1.29
4144.00,1.29
4143.00,1.29
4142.00,1.30
4141.00,1.30
4140.00,1.30
4139.00,1.30
4138.00,1.30
4137.00,1.30
4136.00,1.30
4135.00,1.30
4134.00,1.31
4133.00,1.31
4132.00,1.30
4131.00,1.30
4130.00,1.30
4129.00,1.30
4128.00,1.30
4127.00,1.30
4126.00,1.30
4125.00,1.30
4124.00,1.30
4123.00,1.30
4122.00,1.30
4121.00,1.30
4120.00,1.30
4119.00,1.30
4118.00,1.30
4117.00,1.30
4116.00,1.30
4115.00,1.30
4114.00,1.30
4113.00,1.30
4112.00,1.31
4111.00,1.31
4110.00,1.31
4109.00,1.31
4108.00,1.31
4107.00,1.31
4106.00,1.31
4105.00,1.31
4104.00,1.31
4103.00,1.31
4102.00,1.31
4101.00,1.31
4100.00,1.31
4099.00,1.31
4098.00,1.31
4097.00,1.31
4096.00,1.31
4095.00,1.31
4094.00,1.31
4093.00,1.31
4092.00,1.31
4091.00,1.31
4090.00,1.31
4089.00,1.31
4088.00,1.31
4087.00,1.31
4086.00,1.31
4085.00,1.31
4084.00,1.31
4083.00,1.31
4082.00,1.32
4081.00,1.32
4080.00,1.32
4079.00,1.32
4078.00,1.32
4077.00,1.32
4076.00,1.32
4075.00,1.32
4074.00,1.32
4073.00,1.32
4072.00,1.32
4071.00,1.32
4070.00,1.32
4069.00,1.32
4068.00,1.32
4067.00,1.32
4066.00,1.32
4065.00,1.32
4064.00,1.32
4063.00,1.32
4062.00,1.33
4061.00,1.33
4060.00,1.33
4059.00,1.33
4058.00,1.33
4057.00,1.33
4056.00,1.33
4055.00,1.34
4054.00,1.34
4053.00,1.34
4052.00,1.34
4051.00,1.34
4050.00,1.35
4049.00,1.35
4048.00,1.35
4047.00,1.35
4046.00,1.35
4045.00,1.35
4044.00,1.35
4043.00,1.36
4042.00,1.36
4041.00,1.36
4040.00,1.36
4039.00,1.36
4038.00,1.36
4037.00,1.36
4036.00,1.37
4035.00,1.37
4034.00,1.37
4033.00,1.37
4032.00,1.37
4031.00,1.38
4030.00,1.38
4029.00,1.38
4028.00,1.38
4027.00,1.39
4026.00,1.39
4025.00,1.39
4024.00,1.40
4023.00,1.40
4022.00,1.40
4021.00,1.40
4020.00,1.41
4019.00,1.41
4018.00,1.41
4017.00,1.41
4016.00,1.41
4015.00,1.41
4014.00,1.41
4013.00,1.41
4012.00,1.41
4011.00,1.41
4010.00,1.41
4009.00,1.41
4008.00,1.41
4007.00,1.41
4006.00,1.41
4005.00,1.41
4004.00,1.41
4003.00,1.41
4002.00,1.41
4001.00,1.41
4000.00,1.41
