创建为新数据集,样品 085 用户 Administrator 日期 星期日, 十一月 05 2017
cm-1,%T
10000.00,1.69
9999.00,1.69
9998.00,1.69
9997.00,1.69
9996.00,1.69
9995.00,1.69
9994.00,1.69
9993.00,1.69
9992.00,1.68
9991.00,1.68
9990.00,1.68
9989.00,1.68
9988.00,1.68
9987.00,1.68
9986.00,1.67
9985.00,1.67
9984.00,1.67
9983.00,1.67
9982.00,1.66
9981.00,1.66
9980.00,1.66
9979.00,1.66
9978.00,1.66
9977.00,1.65
9976.00,1.65
9975.00,1.65
9974.00,1.66
9973.00,1.66
9972.00,1.66
9971.00,1.66
9970.00,1.66
9969.00,1.67
9968.00,1.67
9967.00,1.67
9966.00,1.68
9965.00,1.68
9964.00,1.68
9963.00,1.68
9962.00,1.69
9961.00,1.69
9960.00,1.69
9959.00,1.69
9958.00,1.69
9957.00,1.69
9956.00,1.69
9955.00,1.69
9954.00,1.69
9953.00,1.69
9952.00,1.69
9951.00,1.69
9950.00,1.69
9949.00,1.68
9948.00,1.68
9947.00,1.68
9946.00,1.68
9945.00,1.68
9944.00,1.67
9943.00,1.67
9942.00,1.67
9941.00,1.67
9940.00,1.67
9939.00,1.66
9938.00,1.66
9937.00,1.66
9936.00,1.66
9935.00,1.65
9934.00,1.65
9933.00,1.65
9932.00,1.65
9931.00,1.65
9930.00,1.64
9929.00,1.64
9928.00,1.64
9927.00,1.64
9926.00,1.63
9925.00,1.63
9924.00,1.63
9923.00,1.63
9922.00,1.63
9921.00,1.63
9920.00,1.63
9919.00,1.63
9918.00,1.62
9917.00,1.62
9916.00,1.63
9915.00,1.63
9914.00,1.63
9913.00,1.63
9912.00,1.63
9911.00,1.63
9910.00,1.63
9909.00,1.64
9908.00,1.64
9907.00,1.64
9906.00,1.65
9905.00,1.65
9904.00,1.65
9903.00,1.66
9902.00,1.66
9901.00,1.66
9900.00,1.66
9899.00,1.67
9898.00,1.67
9897.00,1.67
9896.00,1.67
9895.00,1.67
9894.00,1.67
9893.00,1.67
9892.00,1.67
9891.00,1.67
9890.00,1.67
9889.00,1.67
9888.00,1.66
9887.00,1.66
9886.00,1.66
9885.00,1.65
9884.00,1.65
9883.00,1.65
9882.00,1.64
9881.00,1.64
9880.00,1.64
9879.00,1.63
9878.00,1.63
9877.00,1.63
9876.00,1.63
9875.00,1.63
9874.00,1.62
9873.00,1.62
9872.00,1.62
9871.00,1.62
9870.00,1.62
9869.00,1.63
9868.00,1.63
9867.00,1.63
9866.00,1.63
9865.00,1.64
9864.00,1.64
9863.00,1.64
9862.00,1.65
9861.00,1.65
9860.00,1.65
9859.00,1.66
9858.00,1.66
9857.00,1.66
9856.00,1.67
9855.00,1.67
9854.00,1.67
9853.00,1.67
9852.00,1.67
9851.00,1.67
9850.00,1.67
9849.00,1.67
9848.00,1.67
9847.00,1.67
9846.00,1.67
9845.00,1.67
9844.00,1.67
9843.00,1.66
9842.00,1.66
9841.00,1.66
9840.00,1.66
9839.00,1.65
9838.00,1.65
9837.00,1.65
9836.00,1.64
9835.00,1.64
9834.00,1.64
9833.00,1.64
9832.00,1.64
9831.00,1.63
9830.00,1.63
9829.00,1.63
9828.00,1.63
9827.00,1.63
9826.00,1.64
9825.00,1.64
9824.00,1.64
9823.00,1.64
9822.00,1.64
9821.00,1.64
9820.00,1.65
9819.00,1.65
9818.00,1.65
9817.00,1.65
9816.00,1.65
9815.00,1.66
9814.00,1.66
9813.00,1.66
9812.00,1.66
9811.00,1.66
9810.00,1.66
9809.00,1.66
9808.00,1.66
9807.00,1.66
9806.00,1.66
9805.00,1.66
9804.00,1.66
9803.00,1.65
9802.00,1.65
9801.00,1.65
9800.00,1.65
9799.00,1.64
9798.00,1.64
9797.00,1.64
9796.00,1.63
9795.00,1.63
9794.00,1.63
9793.00,1.63
9792.00,1.63
9791.00,1.63
9790.00,1.63
9789.00,1.62
9788.00,1.62
9787.00,1.62
9786.00,1.62
9785.00,1.62
9784.00,1.62
9783.00,1.62
9782.00,1.62
9781.00,1.62
9780.00,1.62
9779.00,1.62
9778.00,1.62
9777.00,1.62
9776.00,1.62
9775.00,1.62
9774.00,1.62
9773.00,1.62
9772.00,1.62
9771.00,1.62
9770.00,1.62
9769.00,1.62
9768.00,1.62
9767.00,1.63
9766.00,1.63
9765.00,1.63
9764.00,1.64
9763.00,1.64
9762.00,1.65
9761.00,1.65
9760.00,1.65
9759.00,1.66
9758.00,1.66
9757.00,1.67
9756.00,1.67
9755.00,1.67
9754.00,1.68
9753.00,1.68
9752.00,1.68
9751.00,1.68
9750.00,1.68
9749.00,1.68
9748.00,1.68
9747.00,1.68
9746.00,1.68
9745.00,1.68
9744.00,1.67
9743.00,1.67
9742.00,1.67
9741.00,1.67
9740.00,1.66
9739.00,1.66
9738.00,1.66
9737.00,1.66
9736.00,1.66
9735.00,1.66
9734.00,1.66
9733.00,1.66
9732.00,1.66
9731.00,1.66
9730.00,1.66
9729.00,1.66
9728.00,1.67
9727.00,1.67
9726.00,1.67
9725.00,1.68
9724.00,1.68
9723.00,1.68
9722.00,1.68
9721.00,1.69
9720.00,1.69
9719.00,1.69
9718.00,1.69
9717.00,1.69
9716.00,1.69
9715.00,1.69
9714.00,1.69
9713.00,1.69
9712.00,1.68
9711.00,1.68
9710.00,1.68
9709.00,1.67
9708.00,1.67
9707.00,1.67
9706.00,1.66
9705.00,1.66
9704.00,1.66
9703.00,1.65
9702.00,1.65
9701.00,1.65
9700.00,1.64
9699.00,1.64
9698.00,1.64
9697.00,1.64
9696.00,1.64
9695.00,1.64
9694.00,1.64
9693.00,1.64
9692.00,1.64
9691.00,1.64
9690.00,1.64
9689.00,1.64
9688.00,1.64
9687.00,1.64
9686.00,1.64
9685.00,1.64
9684.00,1.64
9683.00,1.65
9682.00,1.65
9681.00,1.65
9680.00,1.66
9679.00,1.66
9678.00,1.66
9677.00,1.67
9676.00,1.67
9675.00,1.67
9674.00,1.67
9673.00,1.68
9672.00,1.68
9671.00,1.68
9670.00,1.68
9669.00,1.68
9668.00,1.68
9667.00,1.67
9666.00,1.67
9665.00,1.67
9664.00,1.67
9663.00,1.67
9662.00,1.67
9661.00,1.67
9660.00,1.67
9659.00,1.67
9658.00,1.67
9657.00,1.67
9656.00,1.67
9655.00,1.67
9654.00,1.67
9653.00,1.67
9652.00,1.67
9651.00,1.67
9650.00,1.67
9649.00,1.67
9648.00,1.67
9647.00,1.67
9646.00,1.66
9645.00,1.66
9644.00,1.66
9643.00,1.66
9642.00,1.66
9641.00,1.65
9640.00,1.65
9639.00,1.65
9638.00,1.65
9637.00,1.65
9636.00,1.65
9635.00,1.65
9634.00,1.65
9633.00,1.65
9632.00,1.65
9631.00,1.65
9630.00,1.66
9629.00,1.66
9628.00,1.66
9627.00,1.66
9626.00,1.66
9625.00,1.66
9624.00,1.66
9623.00,1.67
9622.00,1.67
9621.00,1.67
9620.00,1.67
9619.00,1.67
9618.00,1.67
9617.00,1.66
9616.00,1.66
9615.00,1.66
9614.00,1.66
9613.00,1.66
9612.00,1.65
9611.00,1.65
9610.00,1.65
9609.00,1.65
9608.00,1.65
9607.00,1.64
9606.00,1.64
9605.00,1.64
9604.00,1.64
9603.00,1.64
9602.00,1.64
9601.00,1.64
9600.00,1.64
9599.00,1.64
9598.00,1.64
9597.00,1.64
9596.00,1.65
9595.00,1.65
9594.00,1.65
9593.00,1.65
9592.00,1.65
9591.00,1.65
9590.00,1.65
9589.00,1.65
9588.00,1.65
9587.00,1.65
9586.00,1.65
9585.00,1.65
9584.00,1.65
9583.00,1.65
9582.00,1.65
9581.00,1.64
9580.00,1.64
9579.00,1.64
9578.00,1.64
9577.00,1.64
9576.00,1.64
9575.00,1.64
9574.00,1.64
9573.00,1.64
9572.00,1.64
9571.00,1.64
9570.00,1.64
9569.00,1.64
9568.00,1.64
9567.00,1.64
9566.00,1.64
9565.00,1.65
9564.00,1.65
9563.00,1.65
9562.00,1.65
9561.00,1.65
9560.00,1.65
9559.00,1.65
9558.00,1.65
9557.00,1.65
9556.00,1.66
9555.00,1.66
9554.00,1.66
9553.00,1.66
9552.00,1.66
9551.00,1.66
9550.00,1.66
9549.00,1.66
9548.00,1.66
9547.00,1.66
9546.00,1.66
9545.00,1.65
9544.00,1.65
9543.00,1.65
9542.00,1.65
9541.00,1.65
9540.00,1.65
9539.00,1.65
9538.00,1.65
9537.00,1.64
9536.00,1.64
9535.00,1.64
9534.00,1.64
9533.00,1.64
9532.00,1.64
9531.00,1.65
9530.00,1.65
9529.00,1.65
9528.00,1.65
9527.00,1.65
9526.00,1.65
9525.00,1.65
9524.00,1.65
9523.00,1.65
9522.00,1.65
9521.00,1.65
9520.00,1.65
9519.00,1.65
9518.00,1.65
9517.00,1.65
9516.00,1.65
9515.00,1.65
9514.00,1.64
9513.00,1.64
9512.00,1.64
9511.00,1.64
9510.00,1.64
9509.00,1.64
9508.00,1.64
9507.00,1.64
9506.00,1.65
9505.00,1.65
9504.00,1.65
9503.00,1.65
9502.00,1.66
9501.00,1.66
9500.00,1.66
9499.00,1.66
9498.00,1.67
9497.00,1.67
9496.00,1.67
9495.00,1.67
9494.00,1.67
9493.00,1.67
9492.00,1.67
9491.00,1.67
9490.00,1.67
9489.00,1.67
9488.00,1.67
9487.00,1.67
9486.00,1.67
9485.00,1.67
9484.00,1.67
9483.00,1.67
9482.00,1.67
9481.00,1.67
9480.00,1.67
9479.00,1.67
9478.00,1.67
9477.00,1.67
9476.00,1.67
9475.00,1.67
9474.00,1.67
9473.00,1.67
9472.00,1.67
9471.00,1.67
9470.00,1.67
9469.00,1.67
9468.00,1.66
9467.00,1.66
9466.00,1.66
9465.00,1.66
9464.00,1.66
9463.00,1.66
9462.00,1.66
9461.00,1.67
9460.00,1.67
9459.00,1.67
9458.00,1.67
9457.00,1.67
9456.00,1.67
9455.00,1.67
9454.00,1.68
9453.00,1.68
9452.00,1.68
9451.00,1.68
9450.00,1.68
9449.00,1.68
9448.00,1.68
9447.00,1.68
9446.00,1.68
9445.00,1.68
9444.00,1.68
9443.00,1.68
9442.00,1.68
9441.00,1.68
9440.00,1.68
9439.00,1.68
9438.00,1.68
9437.00,1.68
9436.00,1.68
9435.00,1.68
9434.00,1.68
9433.00,1.68
9432.00,1.68
9431.00,1.68
9430.00,1.68
9429.00,1.68
9428.00,1.68
9427.00,1.68
9426.00,1.68
9425.00,1.68
9424.00,1.68
9423.00,1.67
9422.00,1.67
9421.00,1.67
9420.00,1.67
9419.00,1.67
9418.00,1.67
9417.00,1.67
9416.00,1.67
9415.00,1.67
9414.00,1.67
9413.00,1.66
9412.00,1.66
9411.00,1.66
9410.00,1.66
9409.00,1.66
9408.00,1.66
9407.00,1.66
9406.00,1.66
9405.00,1.66
9404.00,1.66
9403.00,1.66
9402.00,1.66
9401.00,1.66
9400.00,1.66
9399.00,1.67
9398.00,1.67
9397.00,1.67
9396.00,1.67
9395.00,1.68
9394.00,1.68
9393.00,1.68
9392.00,1.68
9391.00,1.68
9390.00,1.69
9389.00,1.69
9388.00,1.69
9387.00,1.69
9386.00,1.69
9385.00,1.69
9384.00,1.69
9383.00,1.69
9382.00,1.69
9381.00,1.69
9380.00,1.68
9379.00,1.68
9378.00,1.68
9377.00,1.68
9376.00,1.67
9375.00,1.67
9374.00,1.67
9373.00,1.67
9372.00,1.66
9371.00,1.66
9370.00,1.66
9369.00,1.66
9368.00,1.65
9367.00,1.65
9366.00,1.65
9365.00,1.65
9364.00,1.65
9363.00,1.65
9362.00,1.65
9361.00,1.65
9360.00,1.65
9359.00,1.65
9358.00,1.65
9357.00,1.65
9356.00,1.65
9355.00,1.65
9354.00,1.65
9353.00,1.65
9352.00,1.65
9351.00,1.65
9350.00,1.65
9349.00,1.65
9348.00,1.65
9347.00,1.65
9346.00,1.65
9345.00,1.65
9344.00,1.65
9343.00,1.65
9342.00,1.65
9341.00,1.65
9340.00,1.65
9339.00,1.64
9338.00,1.64
9337.00,1.64
9336.00,1.64
9335.00,1.64
9334.00,1.64
9333.00,1.64
9332.00,1.64
9331.00,1.64
9330.00,1.64
9329.00,1.64
9328.00,1.64
9327.00,1.64
9326.00,1.64
9325.00,1.64
9324.00,1.64
9323.00,1.64
9322.00,1.64
9321.00,1.64
9320.00,1.64
9319.00,1.65
9318.00,1.65
9317.00,1.65
9316.00,1.65
9315.00,1.66
9314.00,1.66
9313.00,1.66
9312.00,1.66
9311.00,1.67
9310.00,1.67
9309.00,1.67
9308.00,1.67
9307.00,1.67
9306.00,1.68
9305.00,1.68
9304.00,1.68
9303.00,1.68
9302.00,1.68
9301.00,1.68
9300.00,1.68
9299.00,1.68
9298.00,1.67
9297.00,1.67
9296.00,1.67
9295.00,1.67
9294.00,1.67
9293.00,1.67
9292.00,1.67
9291.00,1.67
9290.00,1.67
9289.00,1.66
9288.00,1.66
9287.00,1.66
9286.00,1.66
9285.00,1.67
9284.00,1.67
9283.00,1.67
9282.00,1.67
9281.00,1.67
9280.00,1.67
9279.00,1.67
9278.00,1.67
9277.00,1.68
9276.00,1.68
9275.00,1.68
9274.00,1.68
9273.00,1.68
9272.00,1.68
9271.00,1.68
9270.00,1.68
9269.00,1.68
9268.00,1.67
9267.00,1.67
9266.00,1.67
9265.00,1.67
9264.00,1.66
9263.00,1.66
9262.00,1.66
9261.00,1.66
9260.00,1.65
9259.00,1.65
9258.00,1.65
9257.00,1.65
9256.00,1.65
9255.00,1.65
9254.00,1.65
9253.00,1.65
9252.00,1.65
9251.00,1.65
9250.00,1.65
9249.00,1.65
9248.00,1.65
9247.00,1.65
9246.00,1.65
9245.00,1.66
9244.00,1.66
9243.00,1.66
9242.00,1.66
9241.00,1.66
9240.00,1.66
9239.00,1.66
9238.00,1.66
9237.00,1.66
9236.00,1.66
9235.00,1.66
9234.00,1.66
9233.00,1.66
9232.00,1.66
9231.00,1.66
9230.00,1.66
9229.00,1.66
9228.00,1.66
9227.00,1.66
9226.00,1.66
9225.00,1.66
9224.00,1.66
9223.00,1.66
9222.00,1.66
9221.00,1.66
9220.00,1.66
9219.00,1.66
9218.00,1.66
9217.00,1.66
9216.00,1.66
9215.00,1.66
9214.00,1.66
9213.00,1.66
9212.00,1.66
9211.00,1.66
9210.00,1.66
9209.00,1.65
9208.00,1.66
9207.00,1.66
9206.00,1.66
9205.00,1.66
9204.00,1.66
9203.00,1.66
9202.00,1.66
9201.00,1.66
9200.00,1.66
9199.00,1.66
9198.00,1.66
9197.00,1.65
9196.00,1.65
9195.00,1.65
9194.00,1.65
9193.00,1.65
9192.00,1.65
9191.00,1.65
9190.00,1.64
9189.00,1.64
9188.00,1.64
9187.00,1.64
9186.00,1.63
9185.00,1.63
9184.00,1.63
9183.00,1.63
9182.00,1.63
9181.00,1.63
9180.00,1.63
9179.00,1.62
9178.00,1.62
9177.00,1.62
9176.00,1.63
9175.00,1.63
9174.00,1.63
9173.00,1.63
9172.00,1.63
9171.00,1.63
9170.00,1.63
9169.00,1.63
9168.00,1.63
9167.00,1.64
9166.00,1.64
9165.00,1.64
9164.00,1.64
9163.00,1.64
9162.00,1.64
9161.00,1.65
9160.00,1.65
9159.00,1.65
9158.00,1.65
9157.00,1.65
9156.00,1.65
9155.00,1.65
9154.00,1.65
9153.00,1.65
9152.00,1.65
9151.00,1.65
9150.00,1.65
9149.00,1.65
9148.00,1.65
9147.00,1.66
9146.00,1.66
9145.00,1.66
9144.00,1.66
9143.00,1.66
9142.00,1.66
9141.00,1.66
9140.00,1.66
9139.00,1.66
9138.00,1.66
9137.00,1.66
9136.00,1.66
9135.00,1.66
9134.00,1.66
9133.00,1.66
9132.00,1.66
9131.00,1.66
9130.00,1.66
9129.00,1.66
9128.00,1.66
9127.00,1.66
9126.00,1.66
9125.00,1.66
9124.00,1.66
9123.00,1.66
9122.00,1.67
9121.00,1.67
9120.00,1.67
9119.00,1.67
9118.00,1.67
9117.00,1.67
9116.00,1.67
9115.00,1.67
9114.00,1.67
9113.00,1.67
9112.00,1.67
9111.00,1.67
9110.00,1.67
9109.00,1.67
9108.00,1.66
9107.00,1.66
9106.00,1.66
9105.00,1.66
9104.00,1.66
9103.00,1.66
9102.00,1.65
9101.00,1.65
9100.00,1.65
9099.00,1.65
9098.00,1.65
9097.00,1.65
9096.00,1.65
9095.00,1.65
9094.00,1.65
9093.00,1.65
9092.00,1.65
9091.00,1.65
9090.00,1.64
9089.00,1.64
9088.00,1.64
9087.00,1.64
9086.00,1.64
9085.00,1.64
9084.00,1.64
9083.00,1.64
9082.00,1.64
9081.00,1.65
9080.00,1.65
9079.00,1.65
9078.00,1.65
9077.00,1.65
9076.00,1.65
9075.00,1.65
9074.00,1.65
9073.00,1.66
9072.00,1.66
9071.00,1.66
9070.00,1.66
9069.00,1.66
9068.00,1.66
9067.00,1.66
9066.00,1.65
9065.00,1.65
9064.00,1.65
9063.00,1.65
9062.00,1.65
9061.00,1.65
9060.00,1.65
9059.00,1.65
9058.00,1.65
9057.00,1.65
9056.00,1.65
9055.00,1.65
9054.00,1.65
9053.00,1.65
9052.00,1.65
9051.00,1.65
9050.00,1.65
9049.00,1.65
9048.00,1.66
9047.00,1.66
9046.00,1.66
9045.00,1.66
9044.00,1.66
9043.00,1.67
9042.00,1.67
9041.00,1.67
9040.00,1.67
9039.00,1.67
9038.00,1.67
9037.00,1.67
9036.00,1.67
9035.00,1.67
9034.00,1.67
9033.00,1.67
9032.00,1.67
9031.00,1.67
9030.00,1.67
9029.00,1.66
9028.00,1.66
9027.00,1.66
9026.00,1.66
9025.00,1.66
9024.00,1.65
9023.00,1.65
9022.00,1.65
9021.00,1.65
9020.00,1.65
9019.00,1.65
9018.00,1.65
9017.00,1.65
9016.00,1.65
9015.00,1.65
9014.00,1.65
9013.00,1.65
9012.00,1.65
9011.00,1.66
9010.00,1.66
9009.00,1.66
9008.00,1.66
9007.00,1.66
9006.00,1.66
9005.00,1.66
9004.00,1.67
9003.00,1.67
9002.00,1.67
9001.00,1.67
9000.00,1.66
8999.00,1.66
8998.00,1.66
8997.00,1.66
8996.00,1.66
8995.00,1.66
8994.00,1.65
8993.00,1.65
8992.00,1.65
8991.00,1.65
8990.00,1.65
8989.00,1.65
8988.00,1.65
8987.00,1.64
8986.00,1.64
8985.00,1.64
8984.00,1.64
8983.00,1.64
8982.00,1.65
8981.00,1.65
8980.00,1.65
8979.00,1.65
8978.00,1.65
8977.00,1.65
8976.00,1.65
8975.00,1.65
8974.00,1.65
8973.00,1.65
8972.00,1.65
8971.00,1.65
8970.00,1.65
8969.00,1.65
8968.00,1.65
8967.00,1.65
8966.00,1.65
8965.00,1.64
8964.00,1.64
8963.00,1.64
8962.00,1.64
8961.00,1.65
8960.00,1.65
8959.00,1.65
8958.00,1.65
8957.00,1.65
8956.00,1.65
8955.00,1.65
8954.00,1.65
8953.00,1.66
8952.00,1.66
8951.00,1.66
8950.00,1.66
8949.00,1.66
8948.00,1.66
8947.00,1.67
8946.00,1.67
8945.00,1.67
8944.00,1.67
8943.00,1.67
8942.00,1.67
8941.00,1.67
8940.00,1.67
8939.00,1.67
8938.00,1.67
8937.00,1.67
8936.00,1.67
8935.00,1.68
8934.00,1.68
8933.00,1.68
8932.00,1.68
8931.00,1.68
8930.00,1.68
8929.00,1.68
8928.00,1.68
8927.00,1.69
8926.00,1.69
8925.00,1.69
8924.00,1.69
8923.00,1.69
8922.00,1.69
8921.00,1.69
8920.00,1.69
8919.00,1.69
8918.00,1.69
8917.00,1.69
8916.00,1.69
8915.00,1.69
8914.00,1.69
8913.00,1.68
8912.00,1.68
8911.00,1.68
8910.00,1.68
8909.00,1.68
8908.00,1.67
8907.00,1.67
8906.00,1.67
8905.00,1.67
8904.00,1.67
8903.00,1.67
8902.00,1.66
8901.00,1.66
8900.00,1.66
8899.00,1.66
8898.00,1.66
8897.00,1.66
8896.00,1.66
8895.00,1.66
8894.00,1.66
8893.00,1.66
8892.00,1.66
8891.00,1.66
8890.00,1.66
8889.00,1.67
8888.00,1.67
8887.00,1.67
8886.00,1.67
8885.00,1.67
8884.00,1.67
8883.00,1.67
8882.00,1.68
8881.00,1.68
8880.00,1.68
8879.00,1.68
8878.00,1.68
8877.00,1.68
8876.00,1.68
8875.00,1.68
8874.00,1.68
8873.00,1.68
8872.00,1.68
8871.00,1.68
8870.00,1.68
8869.00,1.67
8868.00,1.67
8867.00,1.67
8866.00,1.67
8865.00,1.67
8864.00,1.67
8863.00,1.67
8862.00,1.67
8861.00,1.67
8860.00,1.67
8859.00,1.67
8858.00,1.67
8857.00,1.67
8856.00,1.67
8855.00,1.67
8854.00,1.67
8853.00,1.67
8852.00,1.67
8851.00,1.67
8850.00,1.67
8849.00,1.67
8848.00,1.66
8847.00,1.66
8846.00,1.66
8845.00,1.66
8844.00,1.66
8843.00,1.66
8842.00,1.65
8841.00,1.65
8840.00,1.65
8839.00,1.65
8838.00,1.65
8837.00,1.64
8836.00,1.64
8835.00,1.64
8834.00,1.64
8833.00,1.64
8832.00,1.64
8831.00,1.64
8830.00,1.63
8829.00,1.63
8828.00,1.63
8827.00,1.63
8826.00,1.63
8825.00,1.63
8824.00,1.63
8823.00,1.63
8822.00,1.63
8821.00,1.63
8820.00,1.63
8819.00,1.63
8818.00,1.63
8817.00,1.63
8816.00,1.63
8815.00,1.63
8814.00,1.63
8813.00,1.63
8812.00,1.63
8811.00,1.63
8810.00,1.63
8809.00,1.63
8808.00,1.63
8807.00,1.63
8806.00,1.63
8805.00,1.63
8804.00,1.63
8803.00,1.63
8802.00,1.63
8801.00,1.63
8800.00,1.63
8799.00,1.63
8798.00,1.63
8797.00,1.63
8796.00,1.63
8795.00,1.63
8794.00,1.63
8793.00,1.63
8792.00,1.63
8791.00,1.63
8790.00,1.62
8789.00,1.62
8788.00,1.62
8787.00,1.62
8786.00,1.62
8785.00,1.62
8784.00,1.62
8783.00,1.62
8782.00,1.62
8781.00,1.62
8780.00,1.62
8779.00,1.62
8778.00,1.61
8777.00,1.61
8776.00,1.61
8775.00,1.61
8774.00,1.61
8773.00,1.61
8772.00,1.61
8771.00,1.61
8770.00,1.61
8769.00,1.61
8768.00,1.61
8767.00,1.61
8766.00,1.61
8765.00,1.61
8764.00,1.61
8763.00,1.61
8762.00,1.61
8761.00,1.61
8760.00,1.60
8759.00,1.60
8758.00,1.60
8757.00,1.60
8756.00,1.60
8755.00,1.60
8754.00,1.60
8753.00,1.60
8752.00,1.60
8751.00,1.60
8750.00,1.60
8749.00,1.60
8748.00,1.60
8747.00,1.60
8746.00,1.60
8745.00,1.60
8744.00,1.59
8743.00,1.59
8742.00,1.59
8741.00,1.59
8740.00,1.59
8739.00,1.59
8738.00,1.59
8737.00,1.58
8736.00,1.58
8735.00,1.58
8734.00,1.58
8733.00,1.58
8732.00,1.58
8731.00,1.58
8730.00,1.58
8729.00,1.58
8728.00,1.58
8727.00,1.59
8726.00,1.59
8725.00,1.59
8724.00,1.59
8723.00,1.59
8722.00,1.59
8721.00,1.59
8720.00,1.59
8719.00,1.59
8718.00,1.60
8717.00,1.60
8716.00,1.60
8715.00,1.60
8714.00,1.60
8713.00,1.60
8712.00,1.60
8711.00,1.60
8710.00,1.60
8709.00,1.60
8708.00,1.60
8707.00,1.60
8706.00,1.60
8705.00,1.60
8704.00,1.60
8703.00,1.60
8702.00,1.60
8701.00,1.60
8700.00,1.60
8699.00,1.60
8698.00,1.60
8697.00,1.60
8696.00,1.60
8695.00,1.60
8694.00,1.60
8693.00,1.60
8692.00,1.60
8691.00,1.60
8690.00,1.60
8689.00,1.60
8688.00,1.59
8687.00,1.59
8686.00,1.59
8685.00,1.59
8684.00,1.58
8683.00,1.58
8682.00,1.58
8681.00,1.58
8680.00,1.57
8679.00,1.57
8678.00,1.57
8677.00,1.57
8676.00,1.57
8675.00,1.57
8674.00,1.57
8673.00,1.57
8672.00,1.57
8671.00,1.57
8670.00,1.57
8669.00,1.58
8668.00,1.58
8667.00,1.58
8666.00,1.58
8665.00,1.58
8664.00,1.58
8663.00,1.59
8662.00,1.59
8661.00,1.59
8660.00,1.59
8659.00,1.59
8658.00,1.59
8657.00,1.59
8656.00,1.59
8655.00,1.59
8654.00,1.59
8653.00,1.59
8652.00,1.59
8651.00,1.59
8650.00,1.59
8649.00,1.59
8648.00,1.58
8647.00,1.58
8646.00,1.58
8645.00,1.58
8644.00,1.58
8643.00,1.58
8642.00,1.58
8641.00,1.58
8640.00,1.58
8639.00,1.58
8638.00,1.57
8637.00,1.57
8636.00,1.57
8635.00,1.57
8634.00,1.57
8633.00,1.57
8632.00,1.57
8631.00,1.57
8630.00,1.57
8629.00,1.57
8628.00,1.57
8627.00,1.57
8626.00,1.57
8625.00,1.57
8624.00,1.57
8623.00,1.56
8622.00,1.56
8621.00,1.56
8620.00,1.56
8619.00,1.56
8618.00,1.56
8617.00,1.56
8616.00,1.56
8615.00,1.56
8614.00,1.56
8613.00,1.56
8612.00,1.56
8611.00,1.55
8610.00,1.55
8609.00,1.55
8608.00,1.55
8607.00,1.55
8606.00,1.55
8605.00,1.55
8604.00,1.55
8603.00,1.55
8602.00,1.55
8601.00,1.55
8600.00,1.55
8599.00,1.55
8598.00,1.55
8597.00,1.55
8596.00,1.55
8595.00,1.55
8594.00,1.55
8593.00,1.55
8592.00,1.55
8591.00,1.55
8590.00,1.55
8589.00,1.55
8588.00,1.56
8587.00,1.56
8586.00,1.56
8585.00,1.56
8584.00,1.56
8583.00,1.55
8582.00,1.55
8581.00,1.55
8580.00,1.55
8579.00,1.55
8578.00,1.55
8577.00,1.55
8576.00,1.54
8575.00,1.54
8574.00,1.54
8573.00,1.54
8572.00,1.53
8571.00,1.53
8570.00,1.53
8569.00,1.53
8568.00,1.53
8567.00,1.53
8566.00,1.53
8565.00,1.53
8564.00,1.53
8563.00,1.53
8562.00,1.53
8561.00,1.53
8560.00,1.53
8559.00,1.53
8558.00,1.53
8557.00,1.54
8556.00,1.54
8555.00,1.54
8554.00,1.54
8553.00,1.54
8552.00,1.54
8551.00,1.54
8550.00,1.54
8549.00,1.54
8548.00,1.54
8547.00,1.54
8546.00,1.54
8545.00,1.54
8544.00,1.54
8543.00,1.54
8542.00,1.54
8541.00,1.54
8540.00,1.54
8539.00,1.54
8538.00,1.54
8537.00,1.54
8536.00,1.54
8535.00,1.54
8534.00,1.54
8533.00,1.53
8532.00,1.53
8531.00,1.53
8530.00,1.53
8529.00,1.53
8528.00,1.53
8527.00,1.53
8526.00,1.52
8525.00,1.52
8524.00,1.52
8523.00,1.52
8522.00,1.52
8521.00,1.52
8520.00,1.52
8519.00,1.52
8518.00,1.52
8517.00,1.52
8516.00,1.52
8515.00,1.52
8514.00,1.52
8513.00,1.52
8512.00,1.52
8511.00,1.52
8510.00,1.52
8509.00,1.52
8508.00,1.52
8507.00,1.52
8506.00,1.52
8505.00,1.52
8504.00,1.52
8503.00,1.52
8502.00,1.52
8501.00,1.51
8500.00,1.51
8499.00,1.51
8498.00,1.51
8497.00,1.51
8496.00,1.51
8495.00,1.51
8494.00,1.50
8493.00,1.50
8492.00,1.50
8491.00,1.50
8490.00,1.50
8489.00,1.50
8488.00,1.50
8487.00,1.49
8486.00,1.49
8485.00,1.49
8484.00,1.49
8483.00,1.49
8482.00,1.49
8481.00,1.49
8480.00,1.49
8479.00,1.49
8478.00,1.49
8477.00,1.49
8476.00,1.49
8475.00,1.49
8474.00,1.49
8473.00,1.49
8472.00,1.49
8471.00,1.49
8470.00,1.49
8469.00,1.48
8468.00,1.48
8467.00,1.48
8466.00,1.48
8465.00,1.48
8464.00,1.48
8463.00,1.48
8462.00,1.47
8461.00,1.47
8460.00,1.47
8459.00,1.47
8458.00,1.47
8457.00,1.47
8456.00,1.46
8455.00,1.46
8454.00,1.46
8453.00,1.46
8452.00,1.46
8451.00,1.46
8450.00,1.46
8449.00,1.46
8448.00,1.46
8447.00,1.46
8446.00,1.46
8445.00,1.46
8444.00,1.46
8443.00,1.45
8442.00,1.45
8441.00,1.45
8440.00,1.45
8439.00,1.45
8438.00,1.45
8437.00,1.45
8436.00,1.44
8435.00,1.44
8434.00,1.44
8433.00,1.44
8432.00,1.44
8431.00,1.44
8430.00,1.44
8429.00,1.44
8428.00,1.44
8427.00,1.44
8426.00,1.44
8425.00,1.44
8424.00,1.44
8423.00,1.44
8422.00,1.44
8421.00,1.45
8420.00,1.45
8419.00,1.45
8418.00,1.45
8417.00,1.45
8416.00,1.46
8415.00,1.46
8414.00,1.46
8413.00,1.46
8412.00,1.46
8411.00,1.47
8410.00,1.47
8409.00,1.47
8408.00,1.47
8407.00,1.47
8406.00,1.47
8405.00,1.47
8404.00,1.47
8403.00,1.47
8402.00,1.47
8401.00,1.47
8400.00,1.47
8399.00,1.47
8398.00,1.47
8397.00,1.47
8396.00,1.48
8395.00,1.48
8394.00,1.48
8393.00,1.48
8392.00,1.48
8391.00,1.48
8390.00,1.48
8389.00,1.49
8388.00,1.49
8387.00,1.49
8386.00,1.49
8385.00,1.49
8384.00,1.49
8383.00,1.49
8382.00,1.50
8381.00,1.50
8380.00,1.50
8379.00,1.50
8378.00,1.50
8377.00,1.50
8376.00,1.50
8375.00,1.50
8374.00,1.50
8373.00,1.50
8372.00,1.50
8371.00,1.50
8370.00,1.50
8369.00,1.51
8368.00,1.51
8367.00,1.51
8366.00,1.51
8365.00,1.51
8364.00,1.51
8363.00,1.51
8362.00,1.51
8361.00,1.51
8360.00,1.51
8359.00,1.51
8358.00,1.51
8357.00,1.51
8356.00,1.51
8355.00,1.51
8354.00,1.50
8353.00,1.50
8352.00,1.50
8351.00,1.50
8350.00,1.50
8349.00,1.50
8348.00,1.50
8347.00,1.50
8346.00,1.50
8345.00,1.50
8344.00,1.51
8343.00,1.51
8342.00,1.51
8341.00,1.51
8340.00,1.51
8339.00,1.51
8338.00,1.51
8337.00,1.51
8336.00,1.51
8335.00,1.52
8334.00,1.52
8333.00,1.52
8332.00,1.52
8331.00,1.52
8330.00,1.52
8329.00,1.52
8328.00,1.52
8327.00,1.52
8326.00,1.52
8325.00,1.52
8324.00,1.52
8323.00,1.52
8322.00,1.52
8321.00,1.52
8320.00,1.52
8319.00,1.52
8318.00,1.52
8317.00,1.52
8316.00,1.52
8315.00,1.52
8314.00,1.52
8313.00,1.52
8312.00,1.52
8311.00,1.52
8310.00,1.53
8309.00,1.53
8308.00,1.53
8307.00,1.53
8306.00,1.53
8305.00,1.53
8304.00,1.53
8303.00,1.52
8302.00,1.52
8301.00,1.52
8300.00,1.52
8299.00,1.52
8298.00,1.52
8297.00,1.52
8296.00,1.52
8295.00,1.53
8294.00,1.53
8293.00,1.53
8292.00,1.53
8291.00,1.53
8290.00,1.53
8289.00,1.53
8288.00,1.53
8287.00,1.53
8286.00,1.53
8285.00,1.53
8284.00,1.53
8283.00,1.53
8282.00,1.53
8281.00,1.53
8280.00,1.53
8279.00,1.53
8278.00,1.53
8277.00,1.53
8276.00,1.53
8275.00,1.53
8274.00,1.53
8273.00,1.53
8272.00,1.53
8271.00,1.53
8270.00,1.53
8269.00,1.53
8268.00,1.53
8267.00,1.53
8266.00,1.53
8265.00,1.53
8264.00,1.53
8263.00,1.53
8262.00,1.53
8261.00,1.53
8260.00,1.54
8259.00,1.54
8258.00,1.54
8257.00,1.54
8256.00,1.54
8255.00,1.54
8254.00,1.54
8253.00,1.55
8252.00,1.55
8251.00,1.55
8250.00,1.55
8249.00,1.55
8248.00,1.55
8247.00,1.55
8246.00,1.56
8245.00,1.56
8244.00,1.56
8243.00,1.56
8242.00,1.56
8241.00,1.56
8240.00,1.56
8239.00,1.56
8238.00,1.56
8237.00,1.56
8236.00,1.56
8235.00,1.55
8234.00,1.55
8233.00,1.55
8232.00,1.55
8231.00,1.55
8230.00,1.55
8229.00,1.55
8228.00,1.55
8227.00,1.54
8226.00,1.54
8225.00,1.54
8224.00,1.54
8223.00,1.54
8222.00,1.54
8221.00,1.54
8220.00,1.54
8219.00,1.54
8218.00,1.54
8217.00,1.54
8216.00,1.54
8215.00,1.54
8214.00,1.54
8213.00,1.54
8212.00,1.55
8211.00,1.55
8210.00,1.55
8209.00,1.55
8208.00,1.56
8207.00,1.56
8206.00,1.56
8205.00,1.57
8204.00,1.57
8203.00,1.57
8202.00,1.57
8201.00,1.58
8200.00,1.58
8199.00,1.58
8198.00,1.58
8197.00,1.58
8196.00,1.58
8195.00,1.58
8194.00,1.58
8193.00,1.58
8192.00,1.58
8191.00,1.58
8190.00,1.57
8189.00,1.57
8188.00,1.57
8187.00,1.57
8186.00,1.57
8185.00,1.57
8184.00,1.57
8183.00,1.57
8182.00,1.57
8181.00,1.57
8180.00,1.57
8179.00,1.57
8178.00,1.57
8177.00,1.57
8176.00,1.57
8175.00,1.57
8174.00,1.57
8173.00,1.57
8172.00,1.57
8171.00,1.57
8170.00,1.57
8169.00,1.57
8168.00,1.57
8167.00,1.57
8166.00,1.57
8165.00,1.57
8164.00,1.57
8163.00,1.57
8162.00,1.57
8161.00,1.57
8160.00,1.57
8159.00,1.57
8158.00,1.57
8157.00,1.57
8156.00,1.57
8155.00,1.57
8154.00,1.57
8153.00,1.57
8152.00,1.57
8151.00,1.57
8150.00,1.57
8149.00,1.57
8148.00,1.57
8147.00,1.57
8146.00,1.57
8145.00,1.57
8144.00,1.57
8143.00,1.57
8142.00,1.57
8141.00,1.57
8140.00,1.57
8139.00,1.57
8138.00,1.57
8137.00,1.57
8136.00,1.57
8135.00,1.57
8134.00,1.57
8133.00,1.57
8132.00,1.57
8131.00,1.58
8130.00,1.58
8129.00,1.58
8128.00,1.58
8127.00,1.58
8126.00,1.58
8125.00,1.58
8124.00,1.59
8123.00,1.59
8122.00,1.59
8121.00,1.59
8120.00,1.59
8119.00,1.59
8118.00,1.59
8117.00,1.59
8116.00,1.59
8115.00,1.59
8114.00,1.60
8113.00,1.60
8112.00,1.60
8111.00,1.60
8110.00,1.60
8109.00,1.60
8108.00,1.60
8107.00,1.60
8106.00,1.60
8105.00,1.60
8104.00,1.60
8103.00,1.60
8102.00,1.60
8101.00,1.60
8100.00,1.60
8099.00,1.60
8098.00,1.60
8097.00,1.60
8096.00,1.60
8095.00,1.60
8094.00,1.60
8093.00,1.60
8092.00,1.60
8091.00,1.60
8090.00,1.60
8089.00,1.60
8088.00,1.60
8087.00,1.60
8086.00,1.60
8085.00,1.61
8084.00,1.61
8083.00,1.61
8082.00,1.61
8081.00,1.61
8080.00,1.61
8079.00,1.61
8078.00,1.61
8077.00,1.61
8076.00,1.61
8075.00,1.61
8074.00,1.61
8073.00,1.61
8072.00,1.62
8071.00,1.62
8070.00,1.62
8069.00,1.62
8068.00,1.62
8067.00,1.62
8066.00,1.62
8065.00,1.62
8064.00,1.62
8063.00,1.62
8062.00,1.62
8061.00,1.62
8060.00,1.62
8059.00,1.62
8058.00,1.62
8057.00,1.62
8056.00,1.62
8055.00,1.62
8054.00,1.62
8053.00,1.62
8052.00,1.62
8051.00,1.62
8050.00,1.62
8049.00,1.62
8048.00,1.62
8047.00,1.62
8046.00,1.62
8045.00,1.62
8044.00,1.62
8043.00,1.62
8042.00,1.62
8041.00,1.62
8040.00,1.62
8039.00,1.62
8038.00,1.62
8037.00,1.62
8036.00,1.62
8035.00,1.62
8034.00,1.62
8033.00,1.63
8032.00,1.63
8031.00,1.63
8030.00,1.63
8029.00,1.63
8028.00,1.63
8027.00,1.63
8026.00,1.63
8025.00,1.63
8024.00,1.64
8023.00,1.64
8022.00,1.64
8021.00,1.64
8020.00,1.64
8019.00,1.64
8018.00,1.64
8017.00,1.64
8016.00,1.64
8015.00,1.64
8014.00,1.64
8013.00,1.64
8012.00,1.64
8011.00,1.63
8010.00,1.63
8009.00,1.63
8008.00,1.63
8007.00,1.63
8006.00,1.63
8005.00,1.63
8004.00,1.63
8003.00,1.63
8002.00,1.63
8001.00,1.63
8000.00,1.63
7999.00,1.63
7998.00,1.63
7997.00,1.63
7996.00,1.64
7995.00,1.64
7994.00,1.64
7993.00,1.64
7992.00,1.64
7991.00,1.64
7990.00,1.64
7989.00,1.64
7988.00,1.64
7987.00,1.64
7986.00,1.64
7985.00,1.64
7984.00,1.65
7983.00,1.65
7982.00,1.65
7981.00,1.65
7980.00,1.65
7979.00,1.65
7978.00,1.65
7977.00,1.65
7976.00,1.65
7975.00,1.65
7974.00,1.65
7973.00,1.65
7972.00,1.65
7971.00,1.65
7970.00,1.64
7969.00,1.64
7968.00,1.64
7967.00,1.64
7966.00,1.64
7965.00,1.64
7964.00,1.64
7963.00,1.64
7962.00,1.64
7961.00,1.64
7960.00,1.64
7959.00,1.64
7958.00,1.64
7957.00,1.64
7956.00,1.64
7955.00,1.65
7954.00,1.65
7953.00,1.65
7952.00,1.65
7951.00,1.65
7950.00,1.65
7949.00,1.65
7948.00,1.65
7947.00,1.65
7946.00,1.65
7945.00,1.65
7944.00,1.65
7943.00,1.65
7942.00,1.65
7941.00,1.65
7940.00,1.65
7939.00,1.65
7938.00,1.65
7937.00,1.64
7936.00,1.64
7935.00,1.64
7934.00,1.65
7933.00,1.65
7932.00,1.65
7931.00,1.65
7930.00,1.65
7929.00,1.65
7928.00,1.65
7927.00,1.65
7926.00,1.65
7925.00,1.65
7924.00,1.65
7923.00,1.65
7922.00,1.65
7921.00,1.65
7920.00,1.65
7919.00,1.65
7918.00,1.65
7917.00,1.65
7916.00,1.65
7915.00,1.65
7914.00,1.65
7913.00,1.65
7912.00,1.65
7911.00,1.65
7910.00,1.65
7909.00,1.65
7908.00,1.65
7907.00,1.65
7906.00,1.66
7905.00,1.66
7904.00,1.66
7903.00,1.66
7902.00,1.66
7901.00,1.66
7900.00,1.66
7899.00,1.66
7898.00,1.66
7897.00,1.67
7896.00,1.67
7895.00,1.67
7894.00,1.67
7893.00,1.67
7892.00,1.67
7891.00,1.67
7890.00,1.67
7889.00,1.67
7888.00,1.67
7887.00,1.67
7886.00,1.67
7885.00,1.67
7884.00,1.67
7883.00,1.67
7882.00,1.67
7881.00,1.67
7880.00,1.67
7879.00,1.67
7878.00,1.67
7877.00,1.67
7876.00,1.67
7875.00,1.67
7874.00,1.67
7873.00,1.67
7872.00,1.67
7871.00,1.67
7870.00,1.67
7869.00,1.67
7868.00,1.68
7867.00,1.68
7866.00,1.68
7865.00,1.68
7864.00,1.68
7863.00,1.68
7862.00,1.68
7861.00,1.68
7860.00,1.68
7859.00,1.68
7858.00,1.68
7857.00,1.68
7856.00,1.68
7855.00,1.68
7854.00,1.68
7853.00,1.68
7852.00,1.67
7851.00,1.67
7850.00,1.67
7849.00,1.67
7848.00,1.67
7847.00,1.67
7846.00,1.67
7845.00,1.67
7844.00,1.67
7843.00,1.67
7842.00,1.67
7841.00,1.67
7840.00,1.67
7839.00,1.67
7838.00,1.67
7837.00,1.67
7836.00,1.67
7835.00,1.67
7834.00,1.67
7833.00,1.67
7832.00,1.67
7831.00,1.67
7830.00,1.67
7829.00,1.67
7828.00,1.67
7827.00,1.68
7826.00,1.68
7825.00,1.68
7824.00,1.68
7823.00,1.68
7822.00,1.68
7821.00,1.68
7820.00,1.68
7819.00,1.68
7818.00,1.68
7817.00,1.68
7816.00,1.68
7815.00,1.68
7814.00,1.68
7813.00,1.67
7812.00,1.67
7811.00,1.67
7810.00,1.67
7809.00,1.67
7808.00,1.67
7807.00,1.67
7806.00,1.67
7805.00,1.67
7804.00,1.67
7803.00,1.67
7802.00,1.67
7801.00,1.67
7800.00,1.67
7799.00,1.67
7798.00,1.67
7797.00,1.67
7796.00,1.67
7795.00,1.68
7794.00,1.68
7793.00,1.68
7792.00,1.68
7791.00,1.68
7790.00,1.68
7789.00,1.68
7788.00,1.69
7787.00,1.69
7786.00,1.69
7785.00,1.69
7784.00,1.69
7783.00,1.69
7782.00,1.69
7781.00,1.69
7780.00,1.69
7779.00,1.69
7778.00,1.69
7777.00,1.69
7776.00,1.69
7775.00,1.69
7774.00,1.69
7773.00,1.69
7772.00,1.69
7771.00,1.69
7770.00,1.69
7769.00,1.69
7768.00,1.69
7767.00,1.69
7766.00,1.69
7765.00,1.69
7764.00,1.69
7763.00,1.69
7762.00,1.69
7761.00,1.69
7760.00,1.69
7759.00,1.69
7758.00,1.69
7757.00,1.69
7756.00,1.69
7755.00,1.69
7754.00,1.68
7753.00,1.68
7752.00,1.68
7751.00,1.68
7750.00,1.68
7749.00,1.68
7748.00,1.68
7747.00,1.68
7746.00,1.68
7745.00,1.68
7744.00,1.68
7743.00,1.68
7742.00,1.68
7741.00,1.68
7740.00,1.68
7739.00,1.68
7738.00,1.68
7737.00,1.68
7736.00,1.68
7735.00,1.68
7734.00,1.68
7733.00,1.68
7732.00,1.68
7731.00,1.68
7730.00,1.68
7729.00,1.68
7728.00,1.68
7727.00,1.68
7726.00,1.68
7725.00,1.68
7724.00,1.68
7723.00,1.68
7722.00,1.68
7721.00,1.68
7720.00,1.68
7719.00,1.68
7718.00,1.68
7717.00,1.68
7716.00,1.69
7715.00,1.69
7714.00,1.69
7713.00,1.69
7712.00,1.69
7711.00,1.69
7710.00,1.69
7709.00,1.69
7708.00,1.69
7707.00,1.69
7706.00,1.69
7705.00,1.69
7704.00,1.69
7703.00,1.69
7702.00,1.69
7701.00,1.69
7700.00,1.69
7699.00,1.69
7698.00,1.69
7697.00,1.69
7696.00,1.68
7695.00,1.68
7694.00,1.68
7693.00,1.68
7692.00,1.68
7691.00,1.68
7690.00,1.68
7689.00,1.68
7688.00,1.68
7687.00,1.68
7686.00,1.67
7685.00,1.67
7684.00,1.67
7683.00,1.67
7682.00,1.67
7681.00,1.67
7680.00,1.67
7679.00,1.68
7678.00,1.68
7677.00,1.68
7676.00,1.68
7675.00,1.68
7674.00,1.68
7673.00,1.68
7672.00,1.68
7671.00,1.68
7670.00,1.68
7669.00,1.68
7668.00,1.68
7667.00,1.68
7666.00,1.68
7665.00,1.68
7664.00,1.68
7663.00,1.68
7662.00,1.69
7661.00,1.69
7660.00,1.69
7659.00,1.69
7658.00,1.69
7657.00,1.69
7656.00,1.69
7655.00,1.69
7654.00,1.69
7653.00,1.69
7652.00,1.69
7651.00,1.69
7650.00,1.69
7649.00,1.69
7648.00,1.69
7647.00,1.69
7646.00,1.69
7645.00,1.69
7644.00,1.69
7643.00,1.69
7642.00,1.69
7641.00,1.69
7640.00,1.69
7639.00,1.69
7638.00,1.69
7637.00,1.69
7636.00,1.69
7635.00,1.69
7634.00,1.69
7633.00,1.69
7632.00,1.69
7631.00,1.69
7630.00,1.69
7629.00,1.69
7628.00,1.69
7627.00,1.69
7626.00,1.69
7625.00,1.69
7624.00,1.69
7623.00,1.69
7622.00,1.69
7621.00,1.69
7620.00,1.69
7619.00,1.69
7618.00,1.69
7617.00,1.69
7616.00,1.69
7615.00,1.69
7614.00,1.69
7613.00,1.69
7612.00,1.69
7611.00,1.69
7610.00,1.69
7609.00,1.69
7608.00,1.69
7607.00,1.68
7606.00,1.68
7605.00,1.68
7604.00,1.68
7603.00,1.68
7602.00,1.68
7601.00,1.68
7600.00,1.68
7599.00,1.68
7598.00,1.68
7597.00,1.68
7596.00,1.68
7595.00,1.68
7594.00,1.68
7593.00,1.68
7592.00,1.68
7591.00,1.68
7590.00,1.68
7589.00,1.68
7588.00,1.68
7587.00,1.68
7586.00,1.68
7585.00,1.68
7584.00,1.68
7583.00,1.68
7582.00,1.67
7581.00,1.67
7580.00,1.67
7579.00,1.67
7578.00,1.67
7577.00,1.67
7576.00,1.67
7575.00,1.67
7574.00,1.67
7573.00,1.67
7572.00,1.67
7571.00,1.67
7570.00,1.67
7569.00,1.67
7568.00,1.68
7567.00,1.68
7566.00,1.68
7565.00,1.68
7564.00,1.68
7563.00,1.68
7562.00,1.68
7561.00,1.68
7560.00,1.68
7559.00,1.68
7558.00,1.68
7557.00,1.69
7556.00,1.69
7555.00,1.69
7554.00,1.69
7553.00,1.68
7552.00,1.68
7551.00,1.68
7550.00,1.68
7549.00,1.68
7548.00,1.68
7547.00,1.68
7546.00,1.68
7545.00,1.68
7544.00,1.68
7543.00,1.68
7542.00,1.68
7541.00,1.68
7540.00,1.68
7539.00,1.67
7538.00,1.67
7537.00,1.67
7536.00,1.67
7535.00,1.67
7534.00,1.67
7533.00,1.67
7532.00,1.67
7531.00,1.67
7530.00,1.67
7529.00,1.66
7528.00,1.66
7527.00,1.66
7526.00,1.66
7525.00,1.66
7524.00,1.66
7523.00,1.66
7522.00,1.66
7521.00,1.66
7520.00,1.66
7519.00,1.66
7518.00,1.66
7517.00,1.66
7516.00,1.66
7515.00,1.66
7514.00,1.66
7513.00,1.66
7512.00,1.66
7511.00,1.66
7510.00,1.66
7509.00,1.66
7508.00,1.66
7507.00,1.66
7506.00,1.66
7505.00,1.66
7504.00,1.66
7503.00,1.66
7502.00,1.66
7501.00,1.66
7500.00,1.66
7499.00,1.66
7498.00,1.66
7497.00,1.66
7496.00,1.66
7495.00,1.66
7494.00,1.66
7493.00,1.65
7492.00,1.65
7491.00,1.65
7490.00,1.65
7489.00,1.65
7488.00,1.65
7487.00,1.65
7486.00,1.65
7485.00,1.65
7484.00,1.65
7483.00,1.65
7482.00,1.65
7481.00,1.65
7480.00,1.65
7479.00,1.65
7478.00,1.65
7477.00,1.65
7476.00,1.65
7475.00,1.65
7474.00,1.65
7473.00,1.65
7472.00,1.65
7471.00,1.65
7470.00,1.64
7469.00,1.64
7468.00,1.64
7467.00,1.64
7466.00,1.64
7465.00,1.64
7464.00,1.64
7463.00,1.64
7462.00,1.64
7461.00,1.64
7460.00,1.64
7459.00,1.63
7458.00,1.63
7457.00,1.63
7456.00,1.63
7455.00,1.63
7454.00,1.62
7453.00,1.62
7452.00,1.62
7451.00,1.62
7450.00,1.62
7449.00,1.62
7448.00,1.62
7447.00,1.61
7446.00,1.61
7445.00,1.61
7444.00,1.61
7443.00,1.61
7442.00,1.61
7441.00,1.61
7440.00,1.61
7439.00,1.61
7438.00,1.61
7437.00,1.61
7436.00,1.61
7435.00,1.61
7434.00,1.61
7433.00,1.61
7432.00,1.61
7431.00,1.61
7430.00,1.61
7429.00,1.61
7428.00,1.61
7427.00,1.61
7426.00,1.61
7425.00,1.61
7424.00,1.61
7423.00,1.61
7422.00,1.61
7421.00,1.61
7420.00,1.61
7419.00,1.61
7418.00,1.61
7417.00,1.61
7416.00,1.61
7415.00,1.61
7414.00,1.60
7413.00,1.60
7412.00,1.60
7411.00,1.60
7410.00,1.60
7409.00,1.60
7408.00,1.60
7407.00,1.60
7406.00,1.60
7405.00,1.60
7404.00,1.60
7403.00,1.60
7402.00,1.59
7401.00,1.59
7400.00,1.59
7399.00,1.59
7398.00,1.59
7397.00,1.59
7396.00,1.58
7395.00,1.58
7394.00,1.58
7393.00,1.58
7392.00,1.58
7391.00,1.58
7390.00,1.58
7389.00,1.58
7388.00,1.58
7387.00,1.58
7386.00,1.58
7385.00,1.58
7384.00,1.58
7383.00,1.58
7382.00,1.58
7381.00,1.58
7380.00,1.58
7379.00,1.58
7378.00,1.58
7377.00,1.58
7376.00,1.58
7375.00,1.57
7374.00,1.57
7373.00,1.57
7372.00,1.57
7371.00,1.57
7370.00,1.57
7369.00,1.57
7368.00,1.57
7367.00,1.57
7366.00,1.57
7365.00,1.57
7364.00,1.57
7363.00,1.57
7362.00,1.57
7361.00,1.57
7360.00,1.56
7359.00,1.56
7358.00,1.56
7357.00,1.56
7356.00,1.56
7355.00,1.56
7354.00,1.56
7353.00,1.56
7352.00,1.56
7351.00,1.56
7350.00,1.56
7349.00,1.56
7348.00,1.56
7347.00,1.56
7346.00,1.56
7345.00,1.56
7344.00,1.56
7343.00,1.56
7342.00,1.56
7341.00,1.56
7340.00,1.56
7339.00,1.56
7338.00,1.56
7337.00,1.56
7336.00,1.56
7335.00,1.56
7334.00,1.56
7333.00,1.56
7332.00,1.56
7331.00,1.56
7330.00,1.55
7329.00,1.55
7328.00,1.55
7327.00,1.55
7326.00,1.55
7325.00,1.55
7324.00,1.55
7323.00,1.55
7322.00,1.55
7321.00,1.55
7320.00,1.55
7319.00,1.55
7318.00,1.55
7317.00,1.55
7316.00,1.55
7315.00,1.55
7314.00,1.55
7313.00,1.54
7312.00,1.54
7311.00,1.54
7310.00,1.54
7309.00,1.54
7308.00,1.54
7307.00,1.53
7306.00,1.53
7305.00,1.53
7304.00,1.53
7303.00,1.53
7302.00,1.52
7301.00,1.52
7300.00,1.52
7299.00,1.52
7298.00,1.52
7297.00,1.51
7296.00,1.51
7295.00,1.51
7294.00,1.51
7293.00,1.51
7292.00,1.50
7291.00,1.50
7290.00,1.50
7289.00,1.50
7288.00,1.50
7287.00,1.49
7286.00,1.49
7285.00,1.49
7284.00,1.49
7283.00,1.49
7282.00,1.48
7281.00,1.48
7280.00,1.48
7279.00,1.48
7278.00,1.47
7277.00,1.47
7276.00,1.47
7275.00,1.47
7274.00,1.46
7273.00,1.46
7272.00,1.46
7271.00,1.46
7270.00,1.46
7269.00,1.45
7268.00,1.45
7267.00,1.45
7266.00,1.45
7265.00,1.45
7264.00,1.45
7263.00,1.45
7262.00,1.45
7261.00,1.44
7260.00,1.44
7259.00,1.44
7258.00,1.44
7257.00,1.44
7256.00,1.44
7255.00,1.44
7254.00,1.44
7253.00,1.43
7252.00,1.43
7251.00,1.43
7250.00,1.43
7249.00,1.43
7248.00,1.43
7247.00,1.43
7246.00,1.42
7245.00,1.42
7244.00,1.42
7243.00,1.42
7242.00,1.42
7241.00,1.41
7240.00,1.41
7239.00,1.41
7238.00,1.41
7237.00,1.40
7236.00,1.40
7235.00,1.40
7234.00,1.39
7233.00,1.39
7232.00,1.38
7231.00,1.38
7230.00,1.37
7229.00,1.37
7228.00,1.36
7227.00,1.36
7226.00,1.35
7225.00,1.35
7224.00,1.34
7223.00,1.33
7222.00,1.33
7221.00,1.32
7220.00,1.32
7219.00,1.31
7218.00,1.31
7217.00,1.30
7216.00,1.30
7215.00,1.29
7214.00,1.29
7213.00,1.28
7212.00,1.28
7211.00,1.27
7210.00,1.27
7209.00,1.26
7208.00,1.26
7207.00,1.25
7206.00,1.25
7205.00,1.24
7204.00,1.24
7203.00,1.23
7202.00,1.23
7201.00,1.22
7200.00,1.22
7199.00,1.22
7198.00,1.21
7197.00,1.21
7196.00,1.20
7195.00,1.20
7194.00,1.20
7193.00,1.20
7192.00,1.19
7191.00,1.19
7190.00,1.19
7189.00,1.18
7188.00,1.18
7187.00,1.18
7186.00,1.18
7185.00,1.17
7184.00,1.17
7183.00,1.17
7182.00,1.16
7181.00,1.16
7180.00,1.16
7179.00,1.16
7178.00,1.15
7177.00,1.15
7176.00,1.15
7175.00,1.14
7174.00,1.14
7173.00,1.14
7172.00,1.13
7171.00,1.13
7170.00,1.12
7169.00,1.12
7168.00,1.12
7167.00,1.11
7166.00,1.11
7165.00,1.10
7164.00,1.10
7163.00,1.10
7162.00,1.09
7161.00,1.09
7160.00,1.08
7159.00,1.08
7158.00,1.08
7157.00,1.07
7156.00,1.07
7155.00,1.07
7154.00,1.06
7153.00,1.06
7152.00,1.05
7151.00,1.05
7150.00,1.05
7149.00,1.04
7148.00,1.04
7147.00,1.04
7146.00,1.03
7145.00,1.03
7144.00,1.03
7143.00,1.02
7142.00,1.02
7141.00,1.02
7140.00,1.01
7139.00,1.01
7138.00,1.01
7137.00,1.00
7136.00,1.00
7135.00,0.99
7134.00,0.99
7133.00,0.98
7132.00,0.98
7131.00,0.98
7130.00,0.97
7129.00,0.97
7128.00,0.96
7127.00,0.96
7126.00,0.95
7125.00,0.95
7124.00,0.95
7123.00,0.94
7122.00,0.94
7121.00,0.94
7120.00,0.93
7119.00,0.93
7118.00,0.93
7117.00,0.92
7116.00,0.92
7115.00,0.92
7114.00,0.91
7113.00,0.91
7112.00,0.91
7111.00,0.91
7110.00,0.90
7109.00,0.90
7108.00,0.90
7107.00,0.89
7106.00,0.89
7105.00,0.89
7104.00,0.89
7103.00,0.88
7102.00,0.88
7101.00,0.88
7100.00,0.88
7099.00,0.87
7098.00,0.87
7097.00,0.87
7096.00,0.86
7095.00,0.86
7094.00,0.86
7093.00,0.86
7092.00,0.85
7091.00,0.85
7090.00,0.85
7089.00,0.85
7088.00,0.84
7087.00,0.84
7086.00,0.84
7085.00,0.83
7084.00,0.83
7083.00,0.83
7082.00,0.83
7081.00,0.82
7080.00,0.82
7079.00,0.82
7078.00,0.82
7077.00,0.81
7076.00,0.81
7075.00,0.81
7074.00,0.81
7073.00,0.80
7072.00,0.80
7071.00,0.80
7070.00,0.80
7069.00,0.80
7068.00,0.79
7067.00,0.79
7066.00,0.79
7065.00,0.79
7064.00,0.79
7063.00,0.79
7062.00,0.79
7061.00,0.79
7060.00,0.79
7059.00,0.79
7058.00,0.79
7057.00,0.79
7056.00,0.78
7055.00,0.78
7054.00,0.78
7053.00,0.78
7052.00,0.78
7051.00,0.77
7050.00,0.77
7049.00,0.77
7048.00,0.77
7047.00,0.77
7046.00,0.76
7045.00,0.76
7044.00,0.76
7043.00,0.76
7042.00,0.76
7041.00,0.75
7040.00,0.75
7039.00,0.75
7038.00,0.75
7037.00,0.75
7036.00,0.74
7035.00,0.74
7034.00,0.74
7033.00,0.74
7032.00,0.74
7031.00,0.73
7030.00,0.73
7029.00,0.73
7028.00,0.73
7027.00,0.73
7026.00,0.73
7025.00,0.73
7024.00,0.73
7023.00,0.72
7022.00,0.72
7021.00,0.72
7020.00,0.72
7019.00,0.72
7018.00,0.72
7017.00,0.72
7016.00,0.72
7015.00,0.72
7014.00,0.72
7013.00,0.72
7012.00,0.72
7011.00,0.72
7010.00,0.72
7009.00,0.72
7008.00,0.72
7007.00,0.72
7006.00,0.72
7005.00,0.72
7004.00,0.71
7003.00,0.71
7002.00,0.71
7001.00,0.71
7000.00,0.71
6999.00,0.71
6998.00,0.71
6997.00,0.70
6996.00,0.70
6995.00,0.70
6994.00,0.70
6993.00,0.70
6992.00,0.70
6991.00,0.70
6990.00,0.70
6989.00,0.70
6988.00,0.70
6987.00,0.69
6986.00,0.69
6985.00,0.69
6984.00,0.69
6983.00,0.69
6982.00,0.69
6981.00,0.69
6980.00,0.69
6979.00,0.69
6978.00,0.69
6977.00,0.69
6976.00,0.69
6975.00,0.68
6974.00,0.68
6973.00,0.68
6972.00,0.68
6971.00,0.68
6970.00,0.68
6969.00,0.68
6968.00,0.68
6967.00,0.68
6966.00,0.68
6965.00,0.68
6964.00,0.68
6963.00,0.68
6962.00,0.67
6961.00,0.67
6960.00,0.67
6959.00,0.67
6958.00,0.67
6957.00,0.67
6956.00,0.67
6955.00,0.67
6954.00,0.67
6953.00,0.67
6952.00,0.67
6951.00,0.67
6950.00,0.67
6949.00,0.67
6948.00,0.67
6947.00,0.67
6946.00,0.67
6945.00,0.67
6944.00,0.67
6943.00,0.66
6942.00,0.66
6941.00,0.66
6940.00,0.66
6939.00,0.66
6938.00,0.66
6937.00,0.66
6936.00,0.66
6935.00,0.66
6934.00,0.66
6933.00,0.66
6932.00,0.66
6931.00,0.66
6930.00,0.66
6929.00,0.66
6928.00,0.66
6927.00,0.66
6926.00,0.66
6925.00,0.66
6924.00,0.66
6923.00,0.66
6922.00,0.66
6921.00,0.66
6920.00,0.66
6919.00,0.66
6918.00,0.66
6917.00,0.66
6916.00,0.66
6915.00,0.66
6914.00,0.66
6913.00,0.66
6912.00,0.66
6911.00,0.66
6910.00,0.66
6909.00,0.65
6908.00,0.65
6907.00,0.65
6906.00,0.65
6905.00,0.65
6904.00,0.65
6903.00,0.65
6902.00,0.65
6901.00,0.65
6900.00,0.65
6899.00,0.65
6898.00,0.66
6897.00,0.66
6896.00,0.66
6895.00,0.66
6894.00,0.66
6893.00,0.66
6892.00,0.66
6891.00,0.66
6890.00,0.66
6889.00,0.66
6888.00,0.66
6887.00,0.66
6886.00,0.66
6885.00,0.66
6884.00,0.65
6883.00,0.65
6882.00,0.65
6881.00,0.65
6880.00,0.65
6879.00,0.65
6878.00,0.65
6877.00,0.65
6876.00,0.65
6875.00,0.65
6874.00,0.65
6873.00,0.65
6872.00,0.65
6871.00,0.65
6870.00,0.65
6869.00,0.65
6868.00,0.65
6867.00,0.65
6866.00,0.65
6865.00,0.65
6864.00,0.65
6863.00,0.65
6862.00,0.65
6861.00,0.65
6860.00,0.65
6859.00,0.65
6858.00,0.65
6857.00,0.65
6856.00,0.65
6855.00,0.65
6854.00,0.65
6853.00,0.64
6852.00,0.64
6851.00,0.64
6850.00,0.64
6849.00,0.64
6848.00,0.64
6847.00,0.64
6846.00,0.64
6845.00,0.64
6844.00,0.64
6843.00,0.64
6842.00,0.64
6841.00,0.64
6840.00,0.64
6839.00,0.64
6838.00,0.64
6837.00,0.64
6836.00,0.64
6835.00,0.64
6834.00,0.64
6833.00,0.64
6832.00,0.64
6831.00,0.64
6830.00,0.65
6829.00,0.65
6828.00,0.65
6827.00,0.65
6826.00,0.65
6825.00,0.65
6824.00,0.65
6823.00,0.65
6822.00,0.65
6821.00,0.65
6820.00,0.66
6819.00,0.66
6818.00,0.66
6817.00,0.66
6816.00,0.66
6815.00,0.66
6814.00,0.66
6813.00,0.66
6812.00,0.66
6811.00,0.66
6810.00,0.66
6809.00,0.66
6808.00,0.67
6807.00,0.67
6806.00,0.67
6805.00,0.67
6804.00,0.67
6803.00,0.67
6802.00,0.67
6801.00,0.67
6800.00,0.67
6799.00,0.67
6798.00,0.67
6797.00,0.67
6796.00,0.67
6795.00,0.67
6794.00,0.67
6793.00,0.67
6792.00,0.67
6791.00,0.67
6790.00,0.67
6789.00,0.67
6788.00,0.67
6787.00,0.68
6786.00,0.68
6785.00,0.68
6784.00,0.68
6783.00,0.68
6782.00,0.68
6781.00,0.68
6780.00,0.68
6779.00,0.68
6778.00,0.68
6777.00,0.68
6776.00,0.68
6775.00,0.69
6774.00,0.69
6773.00,0.69
6772.00,0.69
6771.00,0.69
6770.00,0.69
6769.00,0.69
6768.00,0.69
6767.00,0.69
6766.00,0.69
6765.00,0.69
6764.00,0.69
6763.00,0.69
6762.00,0.69
6761.00,0.69
6760.00,0.69
6759.00,0.69
6758.00,0.70
6757.00,0.70
6756.00,0.70
6755.00,0.70
6754.00,0.70
6753.00,0.70
6752.00,0.70
6751.00,0.70
6750.00,0.70
6749.00,0.70
6748.00,0.70
6747.00,0.70
6746.00,0.70
6745.00,0.71
6744.00,0.71
6743.00,0.71
6742.00,0.71
6741.00,0.71
6740.00,0.71
6739.00,0.71
6738.00,0.71
6737.00,0.72
6736.00,0.72
6735.00,0.72
6734.00,0.72
6733.00,0.72
6732.00,0.72
6731.00,0.73
6730.00,0.73
6729.00,0.73
6728.00,0.73
6727.00,0.73
6726.00,0.73
6725.00,0.74
6724.00,0.74
6723.00,0.74
6722.00,0.74
6721.00,0.74
6720.00,0.74
6719.00,0.74
6718.00,0.74
6717.00,0.74
6716.00,0.74
6715.00,0.74
6714.00,0.74
6713.00,0.74
6712.00,0.74
6711.00,0.74
6710.00,0.74
6709.00,0.74
6708.00,0.74
6707.00,0.74
6706.00,0.74
6705.00,0.75
6704.00,0.75
6703.00,0.75
6702.00,0.75
6701.00,0.75
6700.00,0.75
6699.00,0.75
6698.00,0.75
6697.00,0.75
6696.00,0.76
6695.00,0.76
6694.00,0.76
6693.00,0.76
6692.00,0.76
6691.00,0.76
6690.00,0.77
6689.00,0.77
6688.00,0.77
6687.00,0.77
6686.00,0.77
6685.00,0.77
6684.00,0.77
6683.00,0.77
6682.00,0.77
6681.00,0.78
6680.00,0.78
6679.00,0.78
6678.00,0.78
6677.00,0.78
6676.00,0.78
6675.00,0.78
6674.00,0.78
6673.00,0.78
6672.00,0.78
6671.00,0.79
6670.00,0.79
6669.00,0.79
6668.00,0.79
6667.00,0.79
6666.00,0.79
6665.00,0.79
6664.00,0.80
6663.00,0.80
6662.00,0.80
6661.00,0.80
6660.00,0.80
6659.00,0.80
6658.00,0.81
6657.00,0.81
6656.00,0.81
6655.00,0.81
6654.00,0.81
6653.00,0.81
6652.00,0.81
6651.00,0.82
6650.00,0.82
6649.00,0.82
6648.00,0.82
6647.00,0.82
6646.00,0.83
6645.00,0.83
6644.00,0.83
6643.00,0.83
6642.00,0.83
6641.00,0.83
6640.00,0.83
6639.00,0.84
6638.00,0.84
6637.00,0.84
6636.00,0.84
6635.00,0.84
6634.00,0.84
6633.00,0.84
6632.00,0.84
6631.00,0.84
6630.00,0.84
6629.00,0.84
6628.00,0.84
6627.00,0.84
6626.00,0.85
6625.00,0.85
6624.00,0.85
6623.00,0.85
6622.00,0.85
6621.00,0.85
6620.00,0.85
6619.00,0.85
6618.00,0.85
6617.00,0.85
6616.00,0.85
6615.00,0.85
6614.00,0.86
6613.00,0.86
6612.00,0.86
6611.00,0.86
6610.00,0.86
6609.00,0.86
6608.00,0.86
6607.00,0.87
6606.00,0.87
6605.00,0.87
6604.00,0.87
6603.00,0.87
6602.00,0.87
6601.00,0.88
6600.00,0.88
6599.00,0.88
6598.00,0.88
6597.00,0.88
6596.00,0.89
6595.00,0.89
6594.00,0.89
6593.00,0.89
6592.00,0.89
6591.00,0.90
6590.00,0.90
6589.00,0.90
6588.00,0.90
6587.00,0.90
6586.00,0.90
6585.00,0.90
6584.00,0.90
6583.00,0.91
6582.00,0.91
6581.00,0.91
6580.00,0.91
6579.00,0.91
6578.00,0.91
6577.00,0.91
6576.00,0.91
6575.00,0.91
6574.00,0.91
6573.00,0.91
6572.00,0.91
6571.00,0.91
6570.00,0.91
6569.00,0.91
6568.00,0.91
6567.00,0.91
6566.00,0.91
6565.00,0.91
6564.00,0.92
6563.00,0.92
6562.00,0.92
6561.00,0.92
6560.00,0.92
6559.00,0.92
6558.00,0.93
6557.00,0.93
6556.00,0.93
6555.00,0.93
6554.00,0.93
6553.00,0.94
6552.00,0.94
6551.00,0.94
6550.00,0.94
6549.00,0.94
6548.00,0.94
6547.00,0.94
6546.00,0.95
6545.00,0.95
6544.00,0.95
6543.00,0.95
6542.00,0.95
6541.00,0.95
6540.00,0.95
6539.00,0.95
6538.00,0.95
6537.00,0.95
6536.00,0.95
6535.00,0.95
6534.00,0.95
6533.00,0.95
6532.00,0.95
6531.00,0.96
6530.00,0.96
6529.00,0.96
6528.00,0.96
6527.00,0.96
6526.00,0.96
6525.00,0.96
6524.00,0.96
6523.00,0.97
6522.00,0.97
6521.00,0.97
6520.00,0.97
6519.00,0.97
6518.00,0.97
6517.00,0.97
6516.00,0.97
6515.00,0.98
6514.00,0.98
6513.00,0.98
6512.00,0.98
6511.00,0.98
6510.00,0.98
6509.00,0.98
6508.00,0.98
6507.00,0.98
6506.00,0.98
6505.00,0.98
6504.00,0.98
6503.00,0.98
6502.00,0.98
6501.00,0.98
6500.00,0.98
6499.00,0.98
6498.00,0.98
6497.00,0.98
6496.00,0.98
6495.00,0.99
6494.00,0.99
6493.00,0.99
6492.00,0.99
6491.00,0.99
6490.00,0.99
6489.00,0.99
6488.00,1.00
6487.00,1.00
6486.00,1.00
6485.00,1.00
6484.00,1.00
6483.00,1.00
6482.00,1.00
6481.00,1.00
6480.00,1.00
6479.00,1.00
6478.00,1.00
6477.00,1.00
6476.00,1.00
6475.00,1.00
6474.00,1.00
6473.00,1.00
6472.00,1.01
6471.00,1.01
6470.00,1.01
6469.00,1.01
6468.00,1.01
6467.00,1.01
6466.00,1.01
6465.00,1.01
6464.00,1.01
6463.00,1.01
6462.00,1.01
6461.00,1.01
6460.00,1.01
6459.00,1.01
6458.00,1.01
6457.00,1.02
6456.00,1.02
6455.00,1.02
6454.00,1.02
6453.00,1.02
6452.00,1.02
6451.00,1.02
6450.00,1.02
6449.00,1.02
6448.00,1.02
6447.00,1.03
6446.00,1.03
6445.00,1.03
6444.00,1.03
6443.00,1.03
6442.00,1.03
6441.00,1.03
6440.00,1.03
6439.00,1.03
6438.00,1.03
6437.00,1.03
6436.00,1.03
6435.00,1.03
6434.00,1.03
6433.00,1.03
6432.00,1.03
6431.00,1.04
6430.00,1.04
6429.00,1.04
6428.00,1.04
6427.00,1.04
6426.00,1.04
6425.00,1.04
6424.00,1.04
6423.00,1.04
6422.00,1.04
6421.00,1.04
6420.00,1.04
6419.00,1.04
6418.00,1.04
6417.00,1.05
6416.00,1.05
6415.00,1.05
6414.00,1.05
6413.00,1.05
6412.00,1.05
6411.00,1.05
6410.00,1.05
6409.00,1.05
6408.00,1.05
6407.00,1.05
6406.00,1.05
6405.00,1.05
6404.00,1.05
6403.00,1.05
6402.00,1.06
6401.00,1.06
6400.00,1.06
6399.00,1.06
6398.00,1.06
6397.00,1.06
6396.00,1.06
6395.00,1.06
6394.00,1.06
6393.00,1.06
6392.00,1.06
6391.00,1.06
6390.00,1.06
6389.00,1.07
6388.00,1.07
6387.00,1.07
6386.00,1.07
6385.00,1.07
6384.00,1.07
6383.00,1.07
6382.00,1.07
6381.00,1.07
6380.00,1.07
6379.00,1.07
6378.00,1.08
6377.00,1.08
6376.00,1.08
6375.00,1.08
6374.00,1.08
6373.00,1.08
6372.00,1.08
6371.00,1.08
6370.00,1.08
6369.00,1.08
6368.00,1.09
6367.00,1.09
6366.00,1.09
6365.00,1.09
6364.00,1.09
6363.00,1.09
6362.00,1.09
6361.00,1.09
6360.00,1.09
6359.00,1.09
6358.00,1.09
6357.00,1.09
6356.00,1.09
6355.00,1.09
6354.00,1.09
6353.00,1.09
6352.00,1.10
6351.00,1.10
6350.00,1.10
6349.00,1.10
6348.00,1.10
6347.00,1.10
6346.00,1.11
6345.00,1.11
6344.00,1.11
6343.00,1.11
6342.00,1.11
6341.00,1.11
6340.00,1.12
6339.00,1.12
6338.00,1.12
6337.00,1.12
6336.00,1.12
6335.00,1.12
6334.00,1.12
6333.00,1.12
6332.00,1.13
6331.00,1.13
6330.00,1.13
6329.00,1.13
6328.00,1.13
6327.00,1.13
6326.00,1.13
6325.00,1.13
6324.00,1.14
6323.00,1.14
6322.00,1.14
6321.00,1.14
6320.00,1.14
6319.00,1.14
6318.00,1.14
6317.00,1.15
6316.00,1.15
6315.00,1.15
6314.00,1.15
6313.00,1.15
6312.00,1.15
6311.00,1.15
6310.00,1.16
6309.00,1.16
6308.00,1.16
6307.00,1.16
6306.00,1.16
6305.00,1.16
6304.00,1.16
6303.00,1.16
6302.00,1.17
6301.00,1.17
6300.00,1.17
6299.00,1.17
6298.00,1.17
6297.00,1.17
6296.00,1.17
6295.00,1.18
6294.00,1.18
6293.00,1.18
6292.00,1.18
6291.00,1.18
6290.00,1.19
6289.00,1.19
6288.00,1.19
6287.00,1.19
6286.00,1.19
6285.00,1.19
6284.00,1.19
6283.00,1.20
6282.00,1.20
6281.00,1.20
6280.00,1.20
6279.00,1.20
6278.00,1.20
6277.00,1.20
6276.00,1.20
6275.00,1.21
6274.00,1.21
6273.00,1.21
6272.00,1.21
6271.00,1.21
6270.00,1.21
6269.00,1.21
6268.00,1.22
6267.00,1.22
6266.00,1.22
6265.00,1.22
6264.00,1.22
6263.00,1.22
6262.00,1.22
6261.00,1.22
6260.00,1.22
6259.00,1.23
6258.00,1.23
6257.00,1.23
6256.00,1.23
6255.00,1.23
6254.00,1.23
6253.00,1.23
6252.00,1.23
6251.00,1.23
6250.00,1.23
6249.00,1.24
6248.00,1.24
6247.00,1.24
6246.00,1.24
6245.00,1.24
6244.00,1.24
6243.00,1.24
6242.00,1.25
6241.00,1.25
6240.00,1.25
6239.00,1.25
6238.00,1.25
6237.00,1.26
6236.00,1.26
6235.00,1.26
6234.00,1.26
6233.00,1.26
6232.00,1.27
6231.00,1.27
6230.00,1.27
6229.00,1.27
6228.00,1.27
6227.00,1.27
6226.00,1.28
6225.00,1.28
6224.00,1.28
6223.00,1.28
6222.00,1.28
6221.00,1.28
6220.00,1.28
6219.00,1.28
6218.00,1.28
6217.00,1.29
6216.00,1.29
6215.00,1.29
6214.00,1.29
6213.00,1.29
6212.00,1.29
6211.00,1.29
6210.00,1.30
6209.00,1.30
6208.00,1.30
6207.00,1.30
6206.00,1.30
6205.00,1.30
6204.00,1.30
6203.00,1.31
6202.00,1.31
6201.00,1.31
6200.00,1.31
6199.00,1.31
6198.00,1.31
6197.00,1.31
6196.00,1.32
6195.00,1.32
6194.00,1.32
6193.00,1.32
6192.00,1.32
6191.00,1.33
6190.00,1.33
6189.00,1.33
6188.00,1.33
6187.00,1.34
6186.00,1.34
6185.00,1.34
6184.00,1.34
6183.00,1.34
6182.00,1.35
6181.00,1.35
6180.00,1.35
6179.00,1.35
6178.00,1.35
6177.00,1.36
6176.00,1.36
6175.00,1.36
6174.00,1.36
6173.00,1.36
6172.00,1.37
6171.00,1.37
6170.00,1.37
6169.00,1.37
6168.00,1.37
6167.00,1.37
6166.00,1.37
6165.00,1.38
6164.00,1.38
6163.00,1.38
6162.00,1.38
6161.00,1.38
6160.00,1.38
6159.00,1.39
6158.00,1.39
6157.00,1.39
6156.00,1.39
6155.00,1.40
6154.00,1.40
6153.00,1.40
6152.00,1.40
6151.00,1.41
6150.00,1.41
6149.00,1.41
6148.00,1.41
6147.00,1.42
6146.00,1.42
6145.00,1.42
6144.00,1.42
6143.00,1.42
6142.00,1.42
6141.00,1.43
6140.00,1.43
6139.00,1.43
6138.00,1.43
6137.00,1.43
6136.00,1.43
6135.00,1.44
6134.00,1.44
6133.00,1.44
6132.00,1.44
6131.00,1.44
6130.00,1.44
6129.00,1.45
6128.00,1.45
6127.00,1.45
6126.00,1.45
6125.00,1.45
6124.00,1.45
6123.00,1.45
6122.00,1.46
6121.00,1.46
6120.00,1.46
6119.00,1.46
6118.00,1.46
6117.00,1.47
6116.00,1.47
6115.00,1.47
6114.00,1.47
6113.00,1.48
6112.00,1.48
6111.00,1.48
6110.00,1.48
6109.00,1.49
6108.00,1.49
6107.00,1.49
6106.00,1.49
6105.00,1.49
6104.00,1.50
6103.00,1.50
6102.00,1.50
6101.00,1.50
6100.00,1.50
6099.00,1.50
6098.00,1.50
6097.00,1.50
6096.00,1.50
6095.00,1.51
6094.00,1.51
6093.00,1.51
6092.00,1.51
6091.00,1.51
6090.00,1.51
6089.00,1.52
6088.00,1.52
6087.00,1.52
6086.00,1.52
6085.00,1.52
6084.00,1.53
6083.00,1.53
6082.00,1.53
6081.00,1.53
6080.00,1.53
6079.00,1.53
6078.00,1.54
6077.00,1.54
6076.00,1.54
6075.00,1.54
6074.00,1.54
6073.00,1.54
6072.00,1.54
6071.00,1.54
6070.00,1.54
6069.00,1.55
6068.00,1.55
6067.00,1.55
6066.00,1.55
6065.00,1.55
6064.00,1.55
6063.00,1.55
6062.00,1.55
6061.00,1.55
6060.00,1.55
6059.00,1.56
6058.00,1.56
6057.00,1.56
6056.00,1.56
6055.00,1.56
6054.00,1.56
6053.00,1.56
6052.00,1.56
6051.00,1.56
6050.00,1.56
6049.00,1.57
6048.00,1.57
6047.00,1.57
6046.00,1.57
6045.00,1.57
6044.00,1.57
6043.00,1.57
6042.00,1.58
6041.00,1.58
6040.00,1.58
6039.00,1.58
6038.00,1.58
6037.00,1.58
6036.00,1.58
6035.00,1.58
6034.00,1.58
6033.00,1.58
6032.00,1.58
6031.00,1.58
6030.00,1.58
6029.00,1.58
6028.00,1.58
6027.00,1.58
6026.00,1.58
6025.00,1.58
6024.00,1.58
6023.00,1.58
6022.00,1.58
6021.00,1.58
6020.00,1.59
6019.00,1.59
6018.00,1.59
6017.00,1.59
6016.00,1.59
6015.00,1.59
6014.00,1.59
6013.00,1.59
6012.00,1.59
6011.00,1.59
6010.00,1.59
6009.00,1.59
6008.00,1.59
6007.00,1.59
6006.00,1.58
6005.00,1.58
6004.00,1.58
6003.00,1.58
6002.00,1.58
6001.00,1.58
6000.00,1.58
5999.00,1.58
5998.00,1.58
5997.00,1.57
5996.00,1.57
5995.00,1.57
5994.00,1.57
5993.00,1.57
5992.00,1.57
5991.00,1.56
5990.00,1.56
5989.00,1.56
5988.00,1.56
5987.00,1.55
5986.00,1.55
5985.00,1.55
5984.00,1.54
5983.00,1.54
5982.00,1.54
5981.00,1.53
5980.00,1.53
5979.00,1.52
5978.00,1.52
5977.00,1.51
5976.00,1.51
5975.00,1.50
5974.00,1.50
5973.00,1.49
5972.00,1.48
5971.00,1.48
5970.00,1.47
5969.00,1.46
5968.00,1.46
5967.00,1.45
5966.00,1.44
5965.00,1.43
5964.00,1.42
5963.00,1.42
5962.00,1.41
5961.00,1.40
5960.00,1.39
5959.00,1.38
5958.00,1.37
5957.00,1.36
5956.00,1.35
5955.00,1.34
5954.00,1.33
5953.00,1.32
5952.00,1.31
5951.00,1.31
5950.00,1.30
5949.00,1.29
5948.00,1.29
5947.00,1.28
5946.00,1.27
5945.00,1.27
5944.00,1.26
5943.00,1.26
5942.00,1.26
5941.00,1.25
5940.00,1.25
5939.00,1.25
5938.00,1.25
5937.00,1.25
5936.00,1.24
5935.00,1.24
5934.00,1.24
5933.00,1.24
5932.00,1.24
5931.00,1.24
5930.00,1.24
5929.00,1.24
5928.00,1.24
5927.00,1.23
5926.00,1.23
5925.00,1.23
5924.00,1.23
5923.00,1.23
5922.00,1.22
5921.00,1.22
5920.00,1.22
5919.00,1.21
5918.00,1.21
5917.00,1.21
5916.00,1.20
5915.00,1.20
5914.00,1.20
5913.00,1.19
5912.00,1.19
5911.00,1.19
5910.00,1.18
5909.00,1.18
5908.00,1.18
5907.00,1.17
5906.00,1.17
5905.00,1.17
5904.00,1.17
5903.00,1.17
5902.00,1.16
5901.00,1.16
5900.00,1.16
5899.00,1.16
5898.00,1.17
5897.00,1.17
5896.00,1.17
5895.00,1.17
5894.00,1.17
5893.00,1.17
5892.00,1.18
5891.00,1.18
5890.00,1.18
5889.00,1.19
5888.00,1.19
5887.00,1.19
5886.00,1.20
5885.00,1.20
5884.00,1.20
5883.00,1.21
5882.00,1.21
5881.00,1.22
5880.00,1.22
5879.00,1.22
5878.00,1.23
5877.00,1.23
5876.00,1.24
5875.00,1.24
5874.00,1.24
5873.00,1.25
5872.00,1.25
5871.00,1.25
5870.00,1.26
5869.00,1.26
5868.00,1.26
5867.00,1.27
5866.00,1.27
5865.00,1.27
5864.00,1.27
5863.00,1.28
5862.00,1.28
5861.00,1.28
5860.00,1.28
5859.00,1.28
5858.00,1.28
5857.00,1.29
5856.00,1.29
5855.00,1.29
5854.00,1.29
5853.00,1.29
5852.00,1.29
5851.00,1.29
5850.00,1.29
5849.00,1.29
5848.00,1.29
5847.00,1.29
5846.00,1.30
5845.00,1.30
5844.00,1.30
5843.00,1.30
5842.00,1.30
5841.00,1.30
5840.00,1.30
5839.00,1.30
5838.00,1.30
5837.00,1.30
5836.00,1.30
5835.00,1.30
5834.00,1.30
5833.00,1.30
5832.00,1.30
5831.00,1.29
5830.00,1.29
5829.00,1.29
5828.00,1.29
5827.00,1.29
5826.00,1.29
5825.00,1.29
5824.00,1.29
5823.00,1.29
5822.00,1.29
5821.00,1.29
5820.00,1.29
5819.00,1.29
5818.00,1.29
5817.00,1.29
5816.00,1.29
5815.00,1.29
5814.00,1.29
5813.00,1.29
5812.00,1.29
5811.00,1.29
5810.00,1.29
5809.00,1.29
5808.00,1.29
5807.00,1.29
5806.00,1.29
5805.00,1.29
5804.00,1.28
5803.00,1.28
5802.00,1.28
5801.00,1.28
5800.00,1.28
5799.00,1.28
5798.00,1.28
5797.00,1.27
5796.00,1.27
5795.00,1.27
5794.00,1.27
5793.00,1.27
5792.00,1.27
5791.00,1.26
5790.00,1.26
5789.00,1.26
5788.00,1.26
5787.00,1.25
5786.00,1.25
5785.00,1.25
5784.00,1.25
5783.00,1.24
5782.00,1.24
5781.00,1.24
5780.00,1.24
5779.00,1.24
5778.00,1.23
5777.00,1.23
5776.00,1.23
5775.00,1.23
5774.00,1.23
5773.00,1.23
5772.00,1.22
5771.00,1.22
5770.00,1.22
5769.00,1.22
5768.00,1.22
5767.00,1.23
5766.00,1.23
5765.00,1.23
5764.00,1.23
5763.00,1.23
5762.00,1.24
5761.00,1.24
5760.00,1.24
5759.00,1.25
5758.00,1.25
5757.00,1.25
5756.00,1.26
5755.00,1.26
5754.00,1.27
5753.00,1.27
5752.00,1.28
5751.00,1.28
5750.00,1.29
5749.00,1.30
5748.00,1.30
5747.00,1.31
5746.00,1.31
5745.00,1.32
5744.00,1.32
5743.00,1.33
5742.00,1.33
5741.00,1.33
5740.00,1.34
5739.00,1.34
5738.00,1.34
5737.00,1.35
5736.00,1.35
5735.00,1.35
5734.00,1.36
5733.00,1.36
5732.00,1.36
5731.00,1.36
5730.00,1.36
5729.00,1.37
5728.00,1.37
5727.00,1.37
5726.00,1.37
5725.00,1.37
5724.00,1.37
5723.00,1.37
5722.00,1.37
5721.00,1.37
5720.00,1.37
5719.00,1.38
5718.00,1.38
5717.00,1.38
5716.00,1.38
5715.00,1.38
5714.00,1.38
5713.00,1.38
5712.00,1.38
5711.00,1.38
5710.00,1.37
5709.00,1.37
5708.00,1.37
5707.00,1.37
5706.00,1.37
5705.00,1.37
5704.00,1.37
5703.00,1.36
5702.00,1.36
5701.00,1.36
5700.00,1.36
5699.00,1.36
5698.00,1.36
5697.00,1.35
5696.00,1.35
5695.00,1.35
5694.00,1.35
5693.00,1.34
5692.00,1.34
5691.00,1.34
5690.00,1.34
5689.00,1.34
5688.00,1.33
5687.00,1.33
5686.00,1.33
5685.00,1.33
5684.00,1.33
5683.00,1.32
5682.00,1.32
5681.00,1.32
5680.00,1.32
5679.00,1.32
5678.00,1.32
5677.00,1.31
5676.00,1.31
5675.00,1.31
5674.00,1.31
5673.00,1.31
5672.00,1.31
5671.00,1.31
5670.00,1.31
5669.00,1.31
5668.00,1.31
5667.00,1.31
5666.00,1.31
5665.00,1.31
5664.00,1.32
5663.00,1.32
5662.00,1.32
5661.00,1.32
5660.00,1.32
5659.00,1.32
5658.00,1.33
5657.00,1.33
5656.00,1.33
5655.00,1.33
5654.00,1.34
5653.00,1.34
5652.00,1.34
5651.00,1.34
5650.00,1.35
5649.00,1.35
5648.00,1.35
5647.00,1.35
5646.00,1.36
5645.00,1.36
5644.00,1.36
5643.00,1.36
5642.00,1.37
5641.00,1.37
5640.00,1.37
5639.00,1.37
5638.00,1.37
5637.00,1.38
5636.00,1.38
5635.00,1.38
5634.00,1.38
5633.00,1.39
5632.00,1.39
5631.00,1.39
5630.00,1.39
5629.00,1.40
5628.00,1.40
5627.00,1.40
5626.00,1.40
5625.00,1.41
5624.00,1.41
5623.00,1.41
5622.00,1.41
5621.00,1.42
5620.00,1.42
5619.00,1.42
5618.00,1.42
5617.00,1.42
5616.00,1.43
5615.00,1.43
5614.00,1.43
5613.00,1.43
5612.00,1.44
5611.00,1.44
5610.00,1.44
5609.00,1.44
5608.00,1.45
5607.00,1.45
5606.00,1.45
5605.00,1.45
5604.00,1.45
5603.00,1.46
5602.00,1.46
5601.00,1.46
5600.00,1.46
5599.00,1.47
5598.00,1.47
5597.00,1.47
5596.00,1.47
5595.00,1.48
5594.00,1.48
5593.00,1.48
5592.00,1.48
5591.00,1.48
5590.00,1.49
5589.00,1.49
5588.00,1.49
5587.00,1.49
5586.00,1.49
5585.00,1.50
5584.00,1.50
5583.00,1.50
5582.00,1.50
5581.00,1.50
5580.00,1.50
5579.00,1.51
5578.00,1.51
5577.00,1.51
5576.00,1.51
5575.00,1.51
5574.00,1.51
5573.00,1.52
5572.00,1.52
5571.00,1.52
5570.00,1.52
5569.00,1.52
5568.00,1.52
5567.00,1.53
5566.00,1.53
5565.00,1.53
5564.00,1.53
5563.00,1.53
5562.00,1.53
5561.00,1.53
5560.00,1.54
5559.00,1.54
5558.00,1.54
5557.00,1.54
5556.00,1.54
5555.00,1.54
5554.00,1.55
5553.00,1.55
5552.00,1.55
5551.00,1.55
5550.00,1.55
5549.00,1.55
5548.00,1.56
5547.00,1.56
5546.00,1.56
5545.00,1.56
5544.00,1.56
5543.00,1.56
5542.00,1.57
5541.00,1.57
5540.00,1.57
5539.00,1.57
5538.00,1.57
5537.00,1.57
5536.00,1.57
5535.00,1.58
5534.00,1.58
5533.00,1.58
5532.00,1.58
5531.00,1.58
5530.00,1.58
5529.00,1.58
5528.00,1.59
5527.00,1.59
5526.00,1.59
5525.00,1.59
5524.00,1.59
5523.00,1.59
5522.00,1.59
5521.00,1.60
5520.00,1.60
5519.00,1.60
5518.00,1.60
5517.00,1.60
5516.00,1.60
5515.00,1.60
5514.00,1.60
5513.00,1.60
5512.00,1.61
5511.00,1.61
5510.00,1.61
5509.00,1.61
5508.00,1.61
5507.00,1.61
5506.00,1.61
5505.00,1.61
5504.00,1.61
5503.00,1.61
5502.00,1.61
5501.00,1.61
5500.00,1.62
5499.00,1.62
5498.00,1.62
5497.00,1.62
5496.00,1.62
5495.00,1.62
5494.00,1.62
5493.00,1.62
5492.00,1.62
5491.00,1.63
5490.00,1.63
5489.00,1.63
5488.00,1.63
5487.00,1.63
5486.00,1.63
5485.00,1.63
5484.00,1.63
5483.00,1.64
5482.00,1.64
5481.00,1.64
5480.00,1.64
5479.00,1.64
5478.00,1.64
5477.00,1.64
5476.00,1.64
5475.00,1.65
5474.00,1.65
5473.00,1.65
5472.00,1.65
5471.00,1.65
5470.00,1.65
5469.00,1.65
5468.00,1.66
5467.00,1.66
5466.00,1.66
5465.00,1.66
5464.00,1.66
5463.00,1.67
5462.00,1.67
5461.00,1.67
5460.00,1.67
5459.00,1.67
5458.00,1.67
5457.00,1.68
5456.00,1.68
5455.00,1.68
5454.00,1.68
5453.00,1.68
5452.00,1.68
5451.00,1.68
5450.00,1.68
5449.00,1.68
5448.00,1.69
5447.00,1.69
5446.00,1.69
5445.00,1.69
5444.00,1.69
5443.00,1.69
5442.00,1.69
5441.00,1.69
5440.00,1.69
5439.00,1.69
5438.00,1.69
5437.00,1.69
5436.00,1.69
5435.00,1.69
5434.00,1.69
5433.00,1.69
5432.00,1.69
5431.00,1.69
5430.00,1.69
5429.00,1.69
5428.00,1.69
5427.00,1.69
5426.00,1.69
5425.00,1.69
5424.00,1.69
5423.00,1.69
5422.00,1.69
5421.00,1.69
5420.00,1.69
5419.00,1.69
5418.00,1.69
5417.00,1.69
5416.00,1.69
5415.00,1.69
5414.00,1.69
5413.00,1.69
5412.00,1.69
5411.00,1.69
5410.00,1.69
5409.00,1.69
5408.00,1.69
5407.00,1.69
5406.00,1.69
5405.00,1.69
5404.00,1.69
5403.00,1.69
5402.00,1.69
5401.00,1.69
5400.00,1.69
5399.00,1.69
5398.00,1.68
5397.00,1.68
5396.00,1.68
5395.00,1.68
5394.00,1.68
5393.00,1.68
5392.00,1.68
5391.00,1.67
5390.00,1.67
5389.00,1.67
5388.00,1.67
5387.00,1.67
5386.00,1.66
5385.00,1.66
5384.00,1.66
5383.00,1.66
5382.00,1.65
5381.00,1.65
5380.00,1.65
5379.00,1.64
5378.00,1.64
5377.00,1.63
5376.00,1.63
5375.00,1.62
5374.00,1.62
5373.00,1.61
5372.00,1.61
5371.00,1.60
5370.00,1.60
5369.00,1.59
5368.00,1.58
5367.00,1.58
5366.00,1.57
5365.00,1.56
5364.00,1.56
5363.00,1.55
5362.00,1.54
5361.00,1.53
5360.00,1.52
5359.00,1.51
5358.00,1.51
5357.00,1.50
5356.00,1.49
5355.00,1.48
5354.00,1.47
5353.00,1.46
5352.00,1.45
5351.00,1.44
5350.00,1.43
5349.00,1.41
5348.00,1.40
5347.00,1.39
5346.00,1.38
5345.00,1.37
5344.00,1.35
5343.00,1.34
5342.00,1.33
5341.00,1.31
5340.00,1.30
5339.00,1.29
5338.00,1.27
5337.00,1.26
5336.00,1.24
5335.00,1.23
5334.00,1.21
5333.00,1.20
5332.00,1.19
5331.00,1.17
5330.00,1.16
5329.00,1.14
5328.00,1.13
5327.00,1.11
5326.00,1.10
5325.00,1.09
5324.00,1.07
5323.00,1.06
5322.00,1.04
5321.00,1.03
5320.00,1.02
5319.00,1.00
5318.00,0.99
5317.00,0.98
5316.00,0.96
5315.00,0.95
5314.00,0.94
5313.00,0.92
5312.00,0.91
5311.00,0.90
5310.00,0.89
5309.00,0.88
5308.00,0.87
5307.00,0.86
5306.00,0.85
5305.00,0.84
5304.00,0.83
5303.00,0.82
5302.00,0.81
5301.00,0.80
5300.00,0.80
5299.00,0.79
5298.00,0.78
5297.00,0.78
5296.00,0.77
5295.00,0.76
5294.00,0.76
5293.00,0.75
5292.00,0.75
5291.00,0.75
5290.00,0.74
5289.00,0.74
5288.00,0.73
5287.00,0.73
5286.00,0.73
5285.00,0.73
5284.00,0.72
5283.00,0.72
5282.00,0.72
5281.00,0.71
5280.00,0.71
5279.00,0.71
5278.00,0.71
5277.00,0.71
5276.00,0.70
5275.00,0.70
5274.00,0.70
5273.00,0.70
5272.00,0.70
5271.00,0.70
5270.00,0.70
5269.00,0.69
5268.00,0.69
5267.00,0.69
5266.00,0.69
5265.00,0.69
5264.00,0.69
5263.00,0.69
5262.00,0.69
5261.00,0.68
5260.00,0.68
5259.00,0.68
5258.00,0.68
5257.00,0.68
5256.00,0.68
5255.00,0.68
5254.00,0.68
5253.00,0.68
5252.00,0.68
5251.00,0.67
5250.00,0.67
5249.00,0.67
5248.00,0.67
5247.00,0.67
5246.00,0.67
5245.00,0.67
5244.00,0.67
5243.00,0.68
5242.00,0.68
5241.00,0.68
5240.00,0.68
5239.00,0.68
5238.00,0.68
5237.00,0.68
5236.00,0.68
5235.00,0.68
5234.00,0.68
5233.00,0.68
5232.00,0.68
5231.00,0.68
5230.00,0.68
5229.00,0.68
5228.00,0.68
5227.00,0.68
5226.00,0.68
5225.00,0.68
5224.00,0.68
5223.00,0.68
5222.00,0.68
5221.00,0.68
5220.00,0.68
5219.00,0.68
5218.00,0.68
5217.00,0.68
5216.00,0.68
5215.00,0.68
5214.00,0.68
5213.00,0.68
5212.00,0.68
5211.00,0.69
5210.00,0.69
5209.00,0.69
5208.00,0.69
5207.00,0.69
5206.00,0.69
5205.00,0.69
5204.00,0.69
5203.00,0.69
5202.00,0.69
5201.00,0.69
5200.00,0.69
5199.00,0.69
5198.00,0.69
5197.00,0.69
5196.00,0.69
5195.00,0.69
5194.00,0.69
5193.00,0.69
5192.00,0.69
5191.00,0.69
5190.00,0.70
5189.00,0.70
5188.00,0.70
5187.00,0.70
5186.00,0.70
5185.00,0.70
5184.00,0.70
5183.00,0.70
5182.00,0.70
5181.00,0.70
5180.00,0.70
5179.00,0.70
5178.00,0.70
5177.00,0.70
5176.00,0.70
5175.00,0.70
5174.00,0.70
5173.00,0.70
5172.00,0.70
5171.00,0.70
5170.00,0.70
5169.00,0.70
5168.00,0.70
5167.00,0.70
5166.00,0.70
5165.00,0.70
5164.00,0.70
5163.00,0.70
5162.00,0.70
5161.00,0.70
5160.00,0.70
5159.00,0.70
5158.00,0.70
5157.00,0.70
5156.00,0.71
5155.00,0.71
5154.00,0.71
5153.00,0.71
5152.00,0.71
5151.00,0.71
5150.00,0.71
5149.00,0.71
5148.00,0.71
5147.00,0.72
5146.00,0.72
5145.00,0.72
5144.00,0.72
5143.00,0.72
5142.00,0.72
5141.00,0.72
5140.00,0.72
5139.00,0.73
5138.00,0.73
5137.00,0.73
5136.00,0.73
5135.00,0.73
5134.00,0.73
5133.00,0.73
5132.00,0.73
5131.00,0.73
5130.00,0.73
5129.00,0.73
5128.00,0.73
5127.00,0.73
5126.00,0.73
5125.00,0.73
5124.00,0.73
5123.00,0.73
5122.00,0.73
5121.00,0.73
5120.00,0.73
5119.00,0.73
5118.00,0.73
5117.00,0.73
5116.00,0.73
5115.00,0.73
5114.00,0.73
5113.00,0.73
5112.00,0.73
5111.00,0.73
5110.00,0.73
5109.00,0.74
5108.00,0.74
5107.00,0.74
5106.00,0.74
5105.00,0.74
5104.00,0.74
5103.00,0.74
5102.00,0.75
5101.00,0.75
5100.00,0.75
5099.00,0.75
5098.00,0.75
5097.00,0.75
5096.00,0.75
5095.00,0.75
5094.00,0.75
5093.00,0.75
5092.00,0.75
5091.00,0.75
5090.00,0.76
5089.00,0.76
5088.00,0.76
5087.00,0.76
5086.00,0.76
5085.00,0.76
5084.00,0.76
5083.00,0.76
5082.00,0.76
5081.00,0.76
5080.00,0.76
5079.00,0.76
5078.00,0.76
5077.00,0.76
5076.00,0.76
5075.00,0.76
5074.00,0.76
5073.00,0.77
5072.00,0.77
5071.00,0.77
5070.00,0.77
5069.00,0.77
5068.00,0.77
5067.00,0.77
5066.00,0.77
5065.00,0.77
5064.00,0.77
5063.00,0.77
5062.00,0.78
5061.00,0.78
5060.00,0.78
5059.00,0.78
5058.00,0.78
5057.00,0.78
5056.00,0.78
5055.00,0.78
5054.00,0.78
5053.00,0.78
5052.00,0.78
5051.00,0.79
5050.00,0.79
5049.00,0.79
5048.00,0.79
5047.00,0.79
5046.00,0.79
5045.00,0.79
5044.00,0.79
5043.00,0.79
5042.00,0.79
5041.00,0.79
5040.00,0.80
5039.00,0.80
5038.00,0.80
5037.00,0.80
5036.00,0.80
5035.00,0.80
5034.00,0.80
5033.00,0.80
5032.00,0.80
5031.00,0.81
5030.00,0.81
5029.00,0.81
5028.00,0.81
5027.00,0.81
5026.00,0.81
5025.00,0.81
5024.00,0.81
5023.00,0.81
5022.00,0.81
5021.00,0.82
5020.00,0.82
5019.00,0.82
5018.00,0.82
5017.00,0.82
5016.00,0.82
5015.00,0.82
5014.00,0.82
5013.00,0.82
5012.00,0.82
5011.00,0.83
5010.00,0.83
5009.00,0.83
5008.00,0.83
5007.00,0.83
5006.00,0.83
5005.00,0.83
5004.00,0.83
5003.00,0.83
5002.00,0.84
5001.00,0.84
5000.00,0.84
4999.00,0.84
4998.00,0.84
4997.00,0.84
4996.00,0.84
4995.00,0.85
4994.00,0.85
4993.00,0.85
4992.00,0.85
4991.00,0.85
4990.00,0.86
4989.00,0.86
4988.00,0.86
4987.00,0.86
4986.00,0.86
4985.00,0.86
4984.00,0.87
4983.00,0.87
4982.00,0.87
4981.00,0.87
4980.00,0.87
4979.00,0.87
4978.00,0.88
4977.00,0.88
4976.00,0.88
4975.00,0.88
4974.00,0.88
4973.00,0.88
4972.00,0.89
4971.00,0.89
4970.00,0.89
4969.00,0.89
4968.00,0.89
4967.00,0.89
4966.00,0.90
4965.00,0.90
4964.00,0.90
4963.00,0.90
4962.00,0.90
4961.00,0.90
4960.00,0.90
4959.00,0.90
4958.00,0.90
4957.00,0.90
4956.00,0.90
4955.00,0.90
4954.00,0.91
4953.00,0.91
4952.00,0.91
4951.00,0.91
4950.00,0.91
4949.00,0.91
4948.00,0.91
4947.00,0.91
4946.00,0.91
4945.00,0.91
4944.00,0.92
4943.00,0.92
4942.00,0.92
4941.00,0.92
4940.00,0.92
4939.00,0.92
4938.00,0.93
4937.00,0.93
4936.00,0.93
4935.00,0.93
4934.00,0.93
4933.00,0.93
4932.00,0.94
4931.00,0.94
4930.00,0.94
4929.00,0.94
4928.00,0.94
4927.00,0.94
4926.00,0.94
4925.00,0.94
4924.00,0.94
4923.00,0.95
4922.00,0.95
4921.00,0.95
4920.00,0.95
4919.00,0.95
4918.00,0.95
4917.00,0.95
4916.00,0.95
4915.00,0.95
4914.00,0.95
4913.00,0.95
4912.00,0.95
4911.00,0.96
4910.00,0.96
4909.00,0.96
4908.00,0.96
4907.00,0.96
4906.00,0.96
4905.00,0.96
4904.00,0.96
4903.00,0.96
4902.00,0.96
4901.00,0.97
4900.00,0.97
4899.00,0.97
4898.00,0.97
4897.00,0.97
4896.00,0.97
4895.00,0.97
4894.00,0.97
4893.00,0.97
4892.00,0.97
4891.00,0.98
4890.00,0.98
4889.00,0.98
4888.00,0.98
4887.00,0.98
4886.00,0.98
4885.00,0.98
4884.00,0.98
4883.00,0.98
4882.00,0.98
4881.00,0.98
4880.00,0.98
4879.00,0.98
4878.00,0.98
4877.00,0.98
4876.00,0.98
4875.00,0.98
4874.00,0.98
4873.00,0.98
4872.00,0.98
4871.00,0.99
4870.00,0.99
4869.00,0.99
4868.00,0.99
4867.00,0.99
4866.00,0.99
4865.00,0.99
4864.00,0.99
4863.00,0.99
4862.00,0.99
4861.00,0.99
4860.00,0.99
4859.00,0.99
4858.00,0.99
4857.00,1.00
4856.00,1.00
4855.00,1.00
4854.00,1.00
4853.00,1.00
4852.00,1.00
4851.00,1.00
4850.00,1.01
4849.00,1.01
4848.00,1.01
4847.00,1.01
4846.00,1.01
4845.00,1.01
4844.00,1.01
4843.00,1.01
4842.00,1.01
4841.00,1.01
4840.00,1.02
4839.00,1.02
4838.00,1.02
4837.00,1.02
4836.00,1.02
4835.00,1.02
4834.00,1.02
4833.00,1.02
4832.00,1.02
4831.00,1.02
4830.00,1.02
4829.00,1.02
4828.00,1.02
4827.00,1.02
4826.00,1.02
4825.00,1.03
4824.00,1.03
4823.00,1.03
4822.00,1.03
4821.00,1.03
4820.00,1.03
4819.00,1.04
4818.00,1.04
4817.00,1.04
4816.00,1.04
4815.00,1.04
4814.00,1.05
4813.00,1.05
4812.00,1.05
4811.00,1.05
4810.00,1.05
4809.00,1.06
4808.00,1.06
4807.00,1.06
4806.00,1.06
4805.00,1.06
4804.00,1.06
4803.00,1.07
4802.00,1.07
4801.00,1.07
4800.00,1.07
4799.00,1.07
4798.00,1.07
4797.00,1.08
4796.00,1.08
4795.00,1.08
4794.00,1.08
4793.00,1.08
4792.00,1.08
4791.00,1.08
4790.00,1.08
4789.00,1.08
4788.00,1.09
4787.00,1.09
4786.00,1.09
4785.00,1.09
4784.00,1.09
4783.00,1.09
4782.00,1.09
4781.00,1.09
4780.00,1.09
4779.00,1.09
4778.00,1.10
4777.00,1.10
4776.00,1.10
4775.00,1.10
4774.00,1.11
4773.00,1.11
4772.00,1.11
4771.00,1.11
4770.00,1.12
4769.00,1.12
4768.00,1.12
4767.00,1.13
4766.00,1.13
4765.00,1.13
4764.00,1.14
4763.00,1.14
4762.00,1.14
4761.00,1.15
4760.00,1.15
4759.00,1.15
4758.00,1.15
4757.00,1.16
4756.00,1.16
4755.00,1.16
4754.00,1.16
4753.00,1.16
4752.00,1.17
4751.00,1.17
4750.00,1.17
4749.00,1.17
4748.00,1.17
4747.00,1.17
4746.00,1.17
4745.00,1.17
4744.00,1.18
4743.00,1.18
4742.00,1.18
4741.00,1.18
4740.00,1.18
4739.00,1.18
4738.00,1.18
4737.00,1.19
4736.00,1.19
4735.00,1.19
4734.00,1.19
4733.00,1.19
4732.00,1.20
4731.00,1.20
4730.00,1.20
4729.00,1.20
4728.00,1.21
4727.00,1.21
4726.00,1.21
4725.00,1.22
4724.00,1.22
4723.00,1.22
4722.00,1.22
4721.00,1.23
4720.00,1.23
4719.00,1.23
4718.00,1.24
4717.00,1.24
4716.00,1.24
4715.00,1.25
4714.00,1.25
4713.00,1.25
4712.00,1.26
4711.00,1.26
4710.00,1.26
4709.00,1.27
4708.00,1.27
4707.00,1.27
4706.00,1.27
4705.00,1.28
4704.00,1.28
4703.00,1.28
4702.00,1.29
4701.00,1.29
4700.00,1.29
4699.00,1.30
4698.00,1.30
4697.00,1.30
4696.00,1.31
4695.00,1.31
4694.00,1.31
4693.00,1.32
4692.00,1.32
4691.00,1.32
4690.00,1.32
4689.00,1.33
4688.00,1.33
4687.00,1.33
4686.00,1.33
4685.00,1.34
4684.00,1.34
4683.00,1.34
4682.00,1.34
4681.00,1.35
4680.00,1.35
4679.00,1.35
4678.00,1.35
4677.00,1.36
4676.00,1.36
4675.00,1.36
4674.00,1.37
4673.00,1.37
4672.00,1.37
4671.00,1.37
4670.00,1.37
4669.00,1.38
4668.00,1.38
4667.00,1.38
4666.00,1.38
4665.00,1.38
4664.00,1.38
4663.00,1.38
4662.00,1.38
4661.00,1.39
4660.00,1.39
4659.00,1.39
4658.00,1.39
4657.00,1.39
4656.00,1.39
4655.00,1.40
4654.00,1.40
4653.00,1.40
4652.00,1.40
4651.00,1.41
4650.00,1.41
4649.00,1.41
4648.00,1.41
4647.00,1.41
4646.00,1.42
4645.00,1.42
4644.00,1.42
4643.00,1.42
4642.00,1.42
4641.00,1.42
4640.00,1.43
4639.00,1.43
4638.00,1.43
4637.00,1.43
4636.00,1.43
4635.00,1.44
4634.00,1.44
4633.00,1.44
4632.00,1.44
4631.00,1.44
4630.00,1.44
4629.00,1.45
4628.00,1.45
4627.00,1.45
4626.00,1.45
4625.00,1.45
4624.00,1.45
4623.00,1.45
4622.00,1.46
4621.00,1.46
4620.00,1.46
4619.00,1.46
4618.00,1.46
4617.00,1.46
4616.00,1.46
4615.00,1.46
4614.00,1.46
4613.00,1.46
4612.00,1.46
4611.00,1.46
4610.00,1.47
4609.00,1.47
4608.00,1.47
4607.00,1.47
4606.00,1.47
4605.00,1.47
4604.00,1.48
4603.00,1.48
4602.00,1.48
4601.00,1.48
4600.00,1.49
4599.00,1.49
4598.00,1.49
4597.00,1.49
4596.00,1.49
4595.00,1.49
4594.00,1.49
4593.00,1.49
4592.00,1.49
4591.00,1.50
4590.00,1.50
4589.00,1.50
4588.00,1.50
4587.00,1.50
4586.00,1.50
4585.00,1.50
4584.00,1.50
4583.00,1.50
4582.00,1.50
4581.00,1.51
4580.00,1.51
4579.00,1.51
4578.00,1.51
4577.00,1.52
4576.00,1.52
4575.00,1.52
4574.00,1.52
4573.00,1.53
4572.00,1.53
4571.00,1.53
4570.00,1.53
4569.00,1.54
4568.00,1.54
4567.00,1.54
4566.00,1.54
4565.00,1.54
4564.00,1.54
4563.00,1.55
4562.00,1.55
4561.00,1.55
4560.00,1.55
4559.00,1.55
4558.00,1.55
4557.00,1.55
4556.00,1.55
4555.00,1.55
4554.00,1.55
4553.00,1.55
4552.00,1.55
4551.00,1.55
4550.00,1.55
4549.00,1.55
4548.00,1.55
4547.00,1.55
4546.00,1.55
4545.00,1.55
4544.00,1.55
4543.00,1.55
4542.00,1.55
4541.00,1.55
4540.00,1.55
4539.00,1.55
4538.00,1.55
4537.00,1.56
4536.00,1.56
4535.00,1.56
4534.00,1.56
4533.00,1.56
4532.00,1.56
4531.00,1.56
4530.00,1.57
4529.00,1.57
4528.00,1.57
4527.00,1.57
4526.00,1.57
4525.00,1.57
4524.00,1.57
4523.00,1.57
4522.00,1.57
4521.00,1.58
4520.00,1.58
4519.00,1.58
4518.00,1.58
4517.00,1.58
4516.00,1.58
4515.00,1.58
4514.00,1.58
4513.00,1.58
4512.00,1.58
4511.00,1.58
4510.00,1.58
4509.00,1.59
4508.00,1.59
4507.00,1.59
4506.00,1.59
4505.00,1.59
4504.00,1.59
4503.00,1.59
4502.00,1.58
4501.00,1.58
4500.00,1.58
4499.00,1.58
4498.00,1.58
4497.00,1.58
4496.00,1.58
4495.00,1.58
4494.00,1.58
4493.00,1.57
4492.00,1.57
4491.00,1.57
4490.00,1.57
4489.00,1.57
4488.00,1.56
4487.00,1.56
4486.00,1.56
4485.00,1.56
4484.00,1.56
4483.00,1.55
4482.00,1.55
4481.00,1.55
4480.00,1.55
4479.00,1.54
4478.00,1.54
4477.00,1.54
4476.00,1.53
4475.00,1.53
4474.00,1.52
4473.00,1.52
4472.00,1.52
4471.00,1.51
4470.00,1.51
4469.00,1.50
4468.00,1.50
4467.00,1.49
4466.00,1.49
4465.00,1.48
4464.00,1.48
4463.00,1.47
4462.00,1.47
4461.00,1.46
4460.00,1.46
4459.00,1.45
4458.00,1.45
4457.00,1.44
4456.00,1.43
4455.00,1.43
4454.00,1.42
4453.00,1.42
4452.00,1.41
4451.00,1.40
4450.00,1.40
4449.00,1.39
4448.00,1.39
4447.00,1.38
4446.00,1.37
4445.00,1.37
4444.00,1.36
4443.00,1.35
4442.00,1.35
4441.00,1.34
4440.00,1.33
4439.00,1.33
4438.00,1.32
4437.00,1.32
4436.00,1.31
4435.00,1.30
4434.00,1.30
4433.00,1.29
4432.00,1.29
4431.00,1.28
4430.00,1.28
4429.00,1.27
4428.00,1.27
4427.00,1.26
4426.00,1.26
4425.00,1.26
4424.00,1.25
4423.00,1.25
4422.00,1.25
4421.00,1.25
4420.00,1.24
4419.00,1.24
4418.00,1.24
4417.00,1.24
4416.00,1.24
4415.00,1.23
4414.00,1.23
4413.00,1.23
4412.00,1.23
4411.00,1.23
4410.00,1.23
4409.00,1.23
4408.00,1.23
4407.00,1.22
4406.00,1.22
4405.00,1.22
4404.00,1.22
4403.00,1.23
4402.00,1.23
4401.00,1.23
4400.00,1.23
4399.00,1.23
4398.00,1.23
4397.00,1.24
4396.00,1.24
4395.00,1.24
4394.00,1.24
4393.00,1.25
4392.00,1.25
4391.00,1.26
4390.00,1.26
4389.00,1.26
4388.00,1.27
4387.00,1.27
4386.00,1.27
4385.00,1.28
4384.00,1.28
4383.00,1.28
4382.00,1.29
4381.00,1.29
4380.00,1.29
4379.00,1.29
4378.00,1.29
4377.00,1.29
4376.00,1.29
4375.00,1.29
4374.00,1.29
4373.00,1.29
4372.00,1.29
4371.00,1.29
4370.00,1.29
4369.00,1.29
4368.00,1.29
4367.00,1.29
4366.00,1.29
4365.00,1.29
4364.00,1.29
4363.00,1.29
4362.00,1.29
4361.00,1.29
4360.00,1.29
4359.00,1.28
4358.00,1.28
4357.00,1.28
4356.00,1.28
4355.00,1.28
4354.00,1.28
4353.00,1.28
4352.00,1.28
4351.00,1.28
4350.00,1.28
4349.00,1.28
4348.00,1.28
4347.00,1.28
4346.00,1.29
4345.00,1.29
4344.00,1.29
4343.00,1.29
4342.00,1.29
4341.00,1.29
4340.00,1.29
4339.00,1.29
4338.00,1.29
4337.00,1.30
4336.00,1.30
4335.00,1.30
4334.00,1.30
4333.00,1.30
4332.00,1.30
4331.00,1.30
4330.00,1.31
4329.00,1.31
4328.00,1.31
4327.00,1.31
4326.00,1.31
4325.00,1.32
4324.00,1.32
4323.00,1.32
4322.00,1.32
4321.00,1.33
4320.00,1.33
4319.00,1.33
4318.00,1.33
4317.00,1.34
4316.00,1.34
4315.00,1.35
4314.00,1.35
4313.00,1.35
4312.00,1.36
4311.00,1.36
4310.00,1.37
4309.00,1.37
4308.00,1.37
4307.00,1.38
4306.00,1.38
4305.00,1.39
4304.00,1.39
4303.00,1.40
4302.00,1.40
4301.00,1.40
4300.00,1.41
4299.00,1.41
4298.00,1.41
4297.00,1.42
4296.00,1.42
4295.00,1.42
4294.00,1.42
4293.00,1.42
4292.00,1.42
4291.00,1.43
4290.00,1.43
4289.00,1.43
4288.00,1.43
4287.00,1.43
4286.00,1.43
4285.00,1.42
4284.00,1.42
4283.00,1.42
4282.00,1.42
4281.00,1.42
4280.00,1.42
4279.00,1.42
4278.00,1.42
4277.00,1.42
4276.00,1.42
4275.00,1.42
4274.00,1.42
4273.00,1.42
4272.00,1.41
4271.00,1.41
4270.00,1.41
4269.00,1.41
4268.00,1.41
4267.00,1.41
4266.00,1.41
4265.00,1.41
4264.00,1.41
4263.00,1.41
4262.00,1.40
4261.00,1.40
4260.00,1.40
4259.00,1.40
4258.00,1.40
4257.00,1.40
4256.00,1.40
4255.00,1.41
4254.00,1.41
4253.00,1.41
4252.00,1.41
4251.00,1.41
4250.00,1.41
4249.00,1.41
4248.00,1.42
4247.00,1.42
4246.00,1.42
4245.00,1.42
4244.00,1.42
4243.00,1.43
4242.00,1.43
4241.00,1.43
4240.00,1.43
4239.00,1.44
4238.00,1.44
4237.00,1.44
4236.00,1.44
4235.00,1.44
4234.00,1.44
4233.00,1.45
4232.00,1.45
4231.00,1.45
4230.00,1.45
4229.00,1.45
4228.00,1.45
4227.00,1.45
4226.00,1.46
4225.00,1.46
4224.00,1.46
4223.00,1.46
4222.00,1.47
4221.00,1.47
4220.00,1.47
4219.00,1.48
4218.00,1.48
4217.00,1.48
4216.00,1.48
4215.00,1.49
4214.00,1.49
4213.00,1.49
4212.00,1.49
4211.00,1.49
4210.00,1.49
4209.00,1.49
4208.00,1.49
4207.00,1.49
4206.00,1.49
4205.00,1.49
4204.00,1.49
4203.00,1.49
4202.00,1.49
4201.00,1.49
4200.00,1.49
4199.00,1.49
4198.00,1.49
4197.00,1.49
4196.00,1.49
4195.00,1.49
4194.00,1.49
4193.00,1.50
4192.00,1.50
4191.00,1.50
4190.00,1.50
4189.00,1.50
4188.00,1.50
4187.00,1.50
4186.00,1.50
4185.00,1.50
4184.00,1.50
4183.00,1.50
4182.00,1.50
4181.00,1.50
4180.00,1.50
4179.00,1.50
4178.00,1.50
4177.00,1.50
4176.00,1.50
4175.00,1.50
4174.00,1.50
4173.00,1.50
4172.00,1.50
4171.00,1.50
4170.00,1.50
4169.00,1.50
4168.00,1.50
4167.00,1.50
4166.00,1.51
4165.00,1.51
4164.00,1.51
4163.00,1.51
4162.00,1.51
4161.00,1.51
4160.00,1.51
4159.00,1.51
4158.00,1.51
4157.00,1.51
4156.00,1.51
4155.00,1.51
4154.00,1.51
4153.00,1.51
4152.00,1.51
4151.00,1.51
4150.00,1.51
4149.00,1.51
4148.00,1.51
4147.00,1.51
4146.00,1.51
4145.00,1.51
4144.00,1.51
4143.00,1.51
4142.00,1.51
4141.00,1.51
4140.00,1.51
4139.00,1.52
4138.00,1.52
4137.00,1.52
4136.00,1.52
4135.00,1.52
4134.00,1.52
4133.00,1.52
4132.00,1.53
4131.00,1.53
4130.00,1.53
4129.00,1.53
4128.00,1.53
4127.00,1.53
4126.00,1.53
4125.00,1.54
4124.00,1.54
4123.00,1.54
4122.00,1.54
4121.00,1.54
4120.00,1.54
4119.00,1.54
4118.00,1.55
4117.00,1.55
4116.00,1.55
4115.00,1.55
4114.00,1.55
4113.00,1.55
4112.00,1.55
4111.00,1.55
4110.00,1.55
4109.00,1.55
4108.00,1.55
4107.00,1.55
4106.00,1.55
4105.00,1.55
4104.00,1.55
4103.00,1.55
4102.00,1.55
4101.00,1.55
4100.00,1.56
4099.00,1.56
4098.00,1.56
4097.00,1.56
4096.00,1.56
4095.00,1.56
4094.00,1.56
4093.00,1.56
4092.00,1.56
4091.00,1.57
4090.00,1.57
4089.00,1.57
4088.00,1.57
4087.00,1.57
4086.00,1.57
4085.00,1.57
4084.00,1.57
4083.00,1.57
4082.00,1.58
4081.00,1.58
4080.00,1.58
4079.00,1.58
4078.00,1.58
4077.00,1.58
4076.00,1.58
4075.00,1.58
4074.00,1.58
4073.00,1.58
4072.00,1.59
4071.00,1.59
4070.00,1.59
4069.00,1.59
4068.00,1.59
4067.00,1.60
4066.00,1.60
4065.00,1.60
4064.00,1.60
4063.00,1.61
4062.00,1.61
4061.00,1.61
4060.00,1.61
4059.00,1.62
4058.00,1.62
4057.00,1.62
4056.00,1.62
4055.00,1.62
4054.00,1.63
4053.00,1.63
4052.00,1.63
4051.00,1.63
4050.00,1.63
4049.00,1.64
4048.00,1.64
4047.00,1.64
4046.00,1.64
4045.00,1.64
4044.00,1.64
4043.00,1.64
4042.00,1.65
4041.00,1.65
4040.00,1.65
4039.00,1.65
4038.00,1.65
4037.00,1.65
4036.00,1.65
4035.00,1.65
4034.00,1.64
4033.00,1.64
4032.00,1.64
4031.00,1.64
4030.00,1.64
4029.00,1.64
4028.00,1.64
4027.00,1.64
4026.00,1.64
4025.00,1.64
4024.00,1.64
4023.00,1.64
4022.00,1.64
4021.00,1.64
4020.00,1.64
4019.00,1.64
4018.00,1.64
4017.00,1.64
4016.00,1.65
4015.00,1.65
4014.00,1.65
4013.00,1.65
4012.00,1.66
4011.00,1.66
4010.00,1.66
4009.00,1.67
4008.00,1.67
4007.00,1.67
4006.00,1.68
4005.00,1.68
4004.00,1.68
4003.00,1.69
4002.00,1.69
4001.00,1.69
4000.00,1.69
