创建为新数据集,样品 090 用户 Administrator 日期 星期日, 十一月 05 2017
cm-1,%T
10000.00,1.26
9999.00,1.26
9998.00,1.26
9997.00,1.26
9996.00,1.26
9995.00,1.25
9994.00,1.25
9993.00,1.25
9992.00,1.25
9991.00,1.25
9990.00,1.24
9989.00,1.24
9988.00,1.24
9987.00,1.24
9986.00,1.24
9985.00,1.24
9984.00,1.24
9983.00,1.24
9982.00,1.24
9981.00,1.24
9980.00,1.24
9979.00,1.24
9978.00,1.25
9977.00,1.25
9976.00,1.25
9975.00,1.25
9974.00,1.26
9973.00,1.26
9972.00,1.26
9971.00,1.26
9970.00,1.26
9969.00,1.26
9968.00,1.26
9967.00,1.26
9966.00,1.26
9965.00,1.26
9964.00,1.26
9963.00,1.26
9962.00,1.26
9961.00,1.26
9960.00,1.26
9959.00,1.26
9958.00,1.26
9957.00,1.26
9956.00,1.26
9955.00,1.26
9954.00,1.25
9953.00,1.25
9952.00,1.25
9951.00,1.25
9950.00,1.25
9949.00,1.25
9948.00,1.24
9947.00,1.24
9946.00,1.24
9945.00,1.23
9944.00,1.23
9943.00,1.23
9942.00,1.22
9941.00,1.22
9940.00,1.21
9939.00,1.21
9938.00,1.20
9937.00,1.20
9936.00,1.20
9935.00,1.19
9934.00,1.19
9933.00,1.19
9932.00,1.19
9931.00,1.18
9930.00,1.18
9929.00,1.18
9928.00,1.18
9927.00,1.18
9926.00,1.18
9925.00,1.18
9924.00,1.18
9923.00,1.18
9922.00,1.18
9921.00,1.19
9920.00,1.19
9919.00,1.19
9918.00,1.19
9917.00,1.19
9916.00,1.20
9915.00,1.20
9914.00,1.20
9913.00,1.20
9912.00,1.21
9911.00,1.21
9910.00,1.22
9909.00,1.22
9908.00,1.22
9907.00,1.23
9906.00,1.23
9905.00,1.23
9904.00,1.23
9903.00,1.24
9902.00,1.24
9901.00,1.24
9900.00,1.24
9899.00,1.24
9898.00,1.24
9897.00,1.24
9896.00,1.24
9895.00,1.24
9894.00,1.24
9893.00,1.24
9892.00,1.24
9891.00,1.24
9890.00,1.23
9889.00,1.23
9888.00,1.23
9887.00,1.23
9886.00,1.23
9885.00,1.23
9884.00,1.22
9883.00,1.22
9882.00,1.22
9881.00,1.22
9880.00,1.22
9879.00,1.22
9878.00,1.22
9877.00,1.22
9876.00,1.22
9875.00,1.22
9874.00,1.22
9873.00,1.22
9872.00,1.22
9871.00,1.22
9870.00,1.22
9869.00,1.22
9868.00,1.22
9867.00,1.22
9866.00,1.22
9865.00,1.22
9864.00,1.23
9863.00,1.23
9862.00,1.23
9861.00,1.23
9860.00,1.23
9859.00,1.24
9858.00,1.24
9857.00,1.24
9856.00,1.24
9855.00,1.25
9854.00,1.25
9853.00,1.25
9852.00,1.25
9851.00,1.26
9850.00,1.26
9849.00,1.26
9848.00,1.26
9847.00,1.26
9846.00,1.26
9845.00,1.26
9844.00,1.25
9843.00,1.25
9842.00,1.25
9841.00,1.25
9840.00,1.24
9839.00,1.24
9838.00,1.24
9837.00,1.23
9836.00,1.23
9835.00,1.23
9834.00,1.22
9833.00,1.22
9832.00,1.22
9831.00,1.22
9830.00,1.21
9829.00,1.21
9828.00,1.21
9827.00,1.21
9826.00,1.21
9825.00,1.21
9824.00,1.21
9823.00,1.21
9822.00,1.21
9821.00,1.21
9820.00,1.20
9819.00,1.20
9818.00,1.20
9817.00,1.20
9816.00,1.20
9815.00,1.20
9814.00,1.20
9813.00,1.19
9812.00,1.19
9811.00,1.19
9810.00,1.19
9809.00,1.19
9808.00,1.19
9807.00,1.19
9806.00,1.19
9805.00,1.19
9804.00,1.20
9803.00,1.20
9802.00,1.20
9801.00,1.20
9800.00,1.20
9799.00,1.20
9798.00,1.20
9797.00,1.20
9796.00,1.20
9795.00,1.20
9794.00,1.20
9793.00,1.20
9792.00,1.20
9791.00,1.20
9790.00,1.20
9789.00,1.20
9788.00,1.20
9787.00,1.20
9786.00,1.20
9785.00,1.20
9784.00,1.20
9783.00,1.20
9782.00,1.20
9781.00,1.20
9780.00,1.20
9779.00,1.20
9778.00,1.20
9777.00,1.20
9776.00,1.20
9775.00,1.21
9774.00,1.21
9773.00,1.21
9772.00,1.21
9771.00,1.21
9770.00,1.22
9769.00,1.22
9768.00,1.22
9767.00,1.22
9766.00,1.22
9765.00,1.22
9764.00,1.22
9763.00,1.22
9762.00,1.22
9761.00,1.22
9760.00,1.22
9759.00,1.22
9758.00,1.22
9757.00,1.22
9756.00,1.22
9755.00,1.22
9754.00,1.22
9753.00,1.22
9752.00,1.22
9751.00,1.22
9750.00,1.22
9749.00,1.22
9748.00,1.22
9747.00,1.22
9746.00,1.22
9745.00,1.22
9744.00,1.22
9743.00,1.22
9742.00,1.22
9741.00,1.21
9740.00,1.21
9739.00,1.21
9738.00,1.21
9737.00,1.21
9736.00,1.21
9735.00,1.21
9734.00,1.21
9733.00,1.21
9732.00,1.22
9731.00,1.22
9730.00,1.22
9729.00,1.22
9728.00,1.22
9727.00,1.22
9726.00,1.23
9725.00,1.23
9724.00,1.23
9723.00,1.23
9722.00,1.23
9721.00,1.24
9720.00,1.24
9719.00,1.24
9718.00,1.24
9717.00,1.24
9716.00,1.24
9715.00,1.24
9714.00,1.24
9713.00,1.24
9712.00,1.23
9711.00,1.23
9710.00,1.23
9709.00,1.23
9708.00,1.23
9707.00,1.22
9706.00,1.22
9705.00,1.22
9704.00,1.22
9703.00,1.22
9702.00,1.21
9701.00,1.21
9700.00,1.21
9699.00,1.21
9698.00,1.21
9697.00,1.21
9696.00,1.21
9695.00,1.21
9694.00,1.21
9693.00,1.21
9692.00,1.21
9691.00,1.21
9690.00,1.21
9689.00,1.21
9688.00,1.22
9687.00,1.22
9686.00,1.22
9685.00,1.22
9684.00,1.22
9683.00,1.22
9682.00,1.22
9681.00,1.22
9680.00,1.22
9679.00,1.22
9678.00,1.23
9677.00,1.23
9676.00,1.23
9675.00,1.23
9674.00,1.23
9673.00,1.23
9672.00,1.23
9671.00,1.23
9670.00,1.24
9669.00,1.24
9668.00,1.24
9667.00,1.24
9666.00,1.24
9665.00,1.24
9664.00,1.24
9663.00,1.24
9662.00,1.24
9661.00,1.24
9660.00,1.24
9659.00,1.23
9658.00,1.23
9657.00,1.23
9656.00,1.23
9655.00,1.22
9654.00,1.22
9653.00,1.22
9652.00,1.22
9651.00,1.21
9650.00,1.21
9649.00,1.21
9648.00,1.21
9647.00,1.20
9646.00,1.20
9645.00,1.20
9644.00,1.20
9643.00,1.20
9642.00,1.20
9641.00,1.20
9640.00,1.20
9639.00,1.21
9638.00,1.21
9637.00,1.21
9636.00,1.21
9635.00,1.21
9634.00,1.21
9633.00,1.21
9632.00,1.21
9631.00,1.21
9630.00,1.21
9629.00,1.21
9628.00,1.21
9627.00,1.21
9626.00,1.21
9625.00,1.21
9624.00,1.21
9623.00,1.21
9622.00,1.20
9621.00,1.20
9620.00,1.21
9619.00,1.21
9618.00,1.21
9617.00,1.21
9616.00,1.21
9615.00,1.21
9614.00,1.21
9613.00,1.21
9612.00,1.21
9611.00,1.21
9610.00,1.21
9609.00,1.21
9608.00,1.22
9607.00,1.22
9606.00,1.22
9605.00,1.22
9604.00,1.22
9603.00,1.22
9602.00,1.22
9601.00,1.22
9600.00,1.22
9599.00,1.22
9598.00,1.22
9597.00,1.22
9596.00,1.22
9595.00,1.22
9594.00,1.22
9593.00,1.22
9592.00,1.22
9591.00,1.22
9590.00,1.22
9589.00,1.22
9588.00,1.22
9587.00,1.22
9586.00,1.22
9585.00,1.22
9584.00,1.22
9583.00,1.22
9582.00,1.22
9581.00,1.22
9580.00,1.22
9579.00,1.22
9578.00,1.22
9577.00,1.22
9576.00,1.22
9575.00,1.22
9574.00,1.22
9573.00,1.22
9572.00,1.22
9571.00,1.23
9570.00,1.23
9569.00,1.23
9568.00,1.23
9567.00,1.23
9566.00,1.23
9565.00,1.23
9564.00,1.23
9563.00,1.23
9562.00,1.23
9561.00,1.23
9560.00,1.23
9559.00,1.23
9558.00,1.23
9557.00,1.23
9556.00,1.23
9555.00,1.23
9554.00,1.23
9553.00,1.23
9552.00,1.23
9551.00,1.23
9550.00,1.23
9549.00,1.23
9548.00,1.23
9547.00,1.23
9546.00,1.23
9545.00,1.23
9544.00,1.23
9543.00,1.23
9542.00,1.23
9541.00,1.23
9540.00,1.23
9539.00,1.23
9538.00,1.23
9537.00,1.23
9536.00,1.23
9535.00,1.23
9534.00,1.23
9533.00,1.23
9532.00,1.23
9531.00,1.23
9530.00,1.23
9529.00,1.23
9528.00,1.22
9527.00,1.22
9526.00,1.22
9525.00,1.22
9524.00,1.22
9523.00,1.22
9522.00,1.22
9521.00,1.22
9520.00,1.22
9519.00,1.22
9518.00,1.22
9517.00,1.22
9516.00,1.22
9515.00,1.22
9514.00,1.22
9513.00,1.23
9512.00,1.23
9511.00,1.23
9510.00,1.23
9509.00,1.23
9508.00,1.23
9507.00,1.23
9506.00,1.24
9505.00,1.24
9504.00,1.24
9503.00,1.24
9502.00,1.24
9501.00,1.24
9500.00,1.24
9499.00,1.24
9498.00,1.24
9497.00,1.24
9496.00,1.23
9495.00,1.23
9494.00,1.23
9493.00,1.23
9492.00,1.23
9491.00,1.23
9490.00,1.23
9489.00,1.22
9488.00,1.22
9487.00,1.22
9486.00,1.22
9485.00,1.21
9484.00,1.21
9483.00,1.21
9482.00,1.21
9481.00,1.20
9480.00,1.20
9479.00,1.20
9478.00,1.20
9477.00,1.20
9476.00,1.20
9475.00,1.20
9474.00,1.20
9473.00,1.20
9472.00,1.20
9471.00,1.21
9470.00,1.21
9469.00,1.22
9468.00,1.22
9467.00,1.23
9466.00,1.23
9465.00,1.23
9464.00,1.24
9463.00,1.24
9462.00,1.25
9461.00,1.25
9460.00,1.25
9459.00,1.25
9458.00,1.26
9457.00,1.26
9456.00,1.26
9455.00,1.26
9454.00,1.26
9453.00,1.26
9452.00,1.26
9451.00,1.26
9450.00,1.26
9449.00,1.26
9448.00,1.25
9447.00,1.25
9446.00,1.25
9445.00,1.25
9444.00,1.25
9443.00,1.25
9442.00,1.25
9441.00,1.25
9440.00,1.25
9439.00,1.25
9438.00,1.25
9437.00,1.25
9436.00,1.25
9435.00,1.25
9434.00,1.25
9433.00,1.25
9432.00,1.25
9431.00,1.25
9430.00,1.24
9429.00,1.24
9428.00,1.24
9427.00,1.23
9426.00,1.23
9425.00,1.23
9424.00,1.23
9423.00,1.22
9422.00,1.22
9421.00,1.22
9420.00,1.22
9419.00,1.22
9418.00,1.22
9417.00,1.22
9416.00,1.22
9415.00,1.22
9414.00,1.22
9413.00,1.22
9412.00,1.22
9411.00,1.22
9410.00,1.22
9409.00,1.23
9408.00,1.23
9407.00,1.23
9406.00,1.23
9405.00,1.23
9404.00,1.23
9403.00,1.23
9402.00,1.23
9401.00,1.23
9400.00,1.23
9399.00,1.23
9398.00,1.23
9397.00,1.22
9396.00,1.22
9395.00,1.22
9394.00,1.22
9393.00,1.22
9392.00,1.22
9391.00,1.22
9390.00,1.22
9389.00,1.22
9388.00,1.23
9387.00,1.23
9386.00,1.23
9385.00,1.23
9384.00,1.23
9383.00,1.23
9382.00,1.24
9381.00,1.24
9380.00,1.24
9379.00,1.24
9378.00,1.24
9377.00,1.25
9376.00,1.25
9375.00,1.25
9374.00,1.25
9373.00,1.25
9372.00,1.24
9371.00,1.24
9370.00,1.24
9369.00,1.24
9368.00,1.24
9367.00,1.24
9366.00,1.23
9365.00,1.23
9364.00,1.23
9363.00,1.23
9362.00,1.23
9361.00,1.22
9360.00,1.22
9359.00,1.22
9358.00,1.22
9357.00,1.23
9356.00,1.23
9355.00,1.23
9354.00,1.23
9353.00,1.23
9352.00,1.23
9351.00,1.24
9350.00,1.24
9349.00,1.24
9348.00,1.24
9347.00,1.24
9346.00,1.24
9345.00,1.24
9344.00,1.24
9343.00,1.24
9342.00,1.24
9341.00,1.24
9340.00,1.24
9339.00,1.24
9338.00,1.24
9337.00,1.24
9336.00,1.24
9335.00,1.23
9334.00,1.23
9333.00,1.23
9332.00,1.23
9331.00,1.23
9330.00,1.23
9329.00,1.23
9328.00,1.23
9327.00,1.23
9326.00,1.23
9325.00,1.23
9324.00,1.23
9323.00,1.23
9322.00,1.23
9321.00,1.23
9320.00,1.23
9319.00,1.23
9318.00,1.23
9317.00,1.23
9316.00,1.22
9315.00,1.22
9314.00,1.22
9313.00,1.22
9312.00,1.22
9311.00,1.22
9310.00,1.22
9309.00,1.22
9308.00,1.21
9307.00,1.21
9306.00,1.21
9305.00,1.21
9304.00,1.21
9303.00,1.21
9302.00,1.21
9301.00,1.21
9300.00,1.21
9299.00,1.21
9298.00,1.21
9297.00,1.21
9296.00,1.21
9295.00,1.21
9294.00,1.21
9293.00,1.21
9292.00,1.21
9291.00,1.21
9290.00,1.21
9289.00,1.21
9288.00,1.21
9287.00,1.21
9286.00,1.21
9285.00,1.21
9284.00,1.21
9283.00,1.21
9282.00,1.21
9281.00,1.21
9280.00,1.21
9279.00,1.21
9278.00,1.21
9277.00,1.21
9276.00,1.21
9275.00,1.21
9274.00,1.21
9273.00,1.21
9272.00,1.21
9271.00,1.21
9270.00,1.21
9269.00,1.21
9268.00,1.21
9267.00,1.21
9266.00,1.22
9265.00,1.22
9264.00,1.22
9263.00,1.22
9262.00,1.22
9261.00,1.22
9260.00,1.22
9259.00,1.23
9258.00,1.23
9257.00,1.23
9256.00,1.23
9255.00,1.23
9254.00,1.23
9253.00,1.23
9252.00,1.23
9251.00,1.22
9250.00,1.22
9249.00,1.22
9248.00,1.22
9247.00,1.22
9246.00,1.22
9245.00,1.22
9244.00,1.21
9243.00,1.21
9242.00,1.21
9241.00,1.21
9240.00,1.21
9239.00,1.21
9238.00,1.21
9237.00,1.21
9236.00,1.21
9235.00,1.21
9234.00,1.21
9233.00,1.21
9232.00,1.21
9231.00,1.21
9230.00,1.21
9229.00,1.21
9228.00,1.21
9227.00,1.22
9226.00,1.22
9225.00,1.22
9224.00,1.22
9223.00,1.23
9222.00,1.23
9221.00,1.23
9220.00,1.24
9219.00,1.24
9218.00,1.24
9217.00,1.25
9216.00,1.25
9215.00,1.25
9214.00,1.25
9213.00,1.26
9212.00,1.26
9211.00,1.26
9210.00,1.26
9209.00,1.26
9208.00,1.26
9207.00,1.26
9206.00,1.26
9205.00,1.25
9204.00,1.25
9203.00,1.25
9202.00,1.25
9201.00,1.24
9200.00,1.24
9199.00,1.24
9198.00,1.24
9197.00,1.24
9196.00,1.24
9195.00,1.24
9194.00,1.24
9193.00,1.24
9192.00,1.24
9191.00,1.24
9190.00,1.24
9189.00,1.24
9188.00,1.24
9187.00,1.24
9186.00,1.24
9185.00,1.24
9184.00,1.24
9183.00,1.24
9182.00,1.24
9181.00,1.24
9180.00,1.24
9179.00,1.24
9178.00,1.24
9177.00,1.24
9176.00,1.24
9175.00,1.24
9174.00,1.24
9173.00,1.24
9172.00,1.24
9171.00,1.24
9170.00,1.24
9169.00,1.24
9168.00,1.24
9167.00,1.23
9166.00,1.23
9165.00,1.23
9164.00,1.23
9163.00,1.23
9162.00,1.23
9161.00,1.23
9160.00,1.23
9159.00,1.22
9158.00,1.22
9157.00,1.22
9156.00,1.22
9155.00,1.21
9154.00,1.21
9153.00,1.21
9152.00,1.21
9151.00,1.21
9150.00,1.21
9149.00,1.21
9148.00,1.21
9147.00,1.21
9146.00,1.21
9145.00,1.21
9144.00,1.21
9143.00,1.21
9142.00,1.21
9141.00,1.22
9140.00,1.22
9139.00,1.22
9138.00,1.22
9137.00,1.22
9136.00,1.22
9135.00,1.22
9134.00,1.22
9133.00,1.22
9132.00,1.22
9131.00,1.21
9130.00,1.21
9129.00,1.21
9128.00,1.21
9127.00,1.21
9126.00,1.21
9125.00,1.21
9124.00,1.22
9123.00,1.22
9122.00,1.22
9121.00,1.22
9120.00,1.22
9119.00,1.22
9118.00,1.22
9117.00,1.23
9116.00,1.23
9115.00,1.23
9114.00,1.23
9113.00,1.23
9112.00,1.23
9111.00,1.23
9110.00,1.23
9109.00,1.23
9108.00,1.23
9107.00,1.23
9106.00,1.23
9105.00,1.23
9104.00,1.23
9103.00,1.22
9102.00,1.22
9101.00,1.22
9100.00,1.22
9099.00,1.22
9098.00,1.22
9097.00,1.22
9096.00,1.22
9095.00,1.22
9094.00,1.22
9093.00,1.22
9092.00,1.22
9091.00,1.22
9090.00,1.22
9089.00,1.22
9088.00,1.22
9087.00,1.22
9086.00,1.22
9085.00,1.22
9084.00,1.23
9083.00,1.23
9082.00,1.23
9081.00,1.23
9080.00,1.23
9079.00,1.23
9078.00,1.23
9077.00,1.23
9076.00,1.22
9075.00,1.22
9074.00,1.22
9073.00,1.22
9072.00,1.22
9071.00,1.22
9070.00,1.22
9069.00,1.22
9068.00,1.22
9067.00,1.22
9066.00,1.22
9065.00,1.22
9064.00,1.22
9063.00,1.22
9062.00,1.22
9061.00,1.22
9060.00,1.22
9059.00,1.22
9058.00,1.22
9057.00,1.22
9056.00,1.22
9055.00,1.22
9054.00,1.22
9053.00,1.22
9052.00,1.22
9051.00,1.22
9050.00,1.21
9049.00,1.22
9048.00,1.22
9047.00,1.22
9046.00,1.22
9045.00,1.22
9044.00,1.22
9043.00,1.22
9042.00,1.22
9041.00,1.22
9040.00,1.23
9039.00,1.23
9038.00,1.23
9037.00,1.23
9036.00,1.23
9035.00,1.24
9034.00,1.24
9033.00,1.24
9032.00,1.24
9031.00,1.24
9030.00,1.25
9029.00,1.25
9028.00,1.25
9027.00,1.25
9026.00,1.25
9025.00,1.25
9024.00,1.25
9023.00,1.25
9022.00,1.25
9021.00,1.26
9020.00,1.26
9019.00,1.26
9018.00,1.25
9017.00,1.25
9016.00,1.25
9015.00,1.25
9014.00,1.25
9013.00,1.25
9012.00,1.25
9011.00,1.25
9010.00,1.25
9009.00,1.25
9008.00,1.25
9007.00,1.25
9006.00,1.25
9005.00,1.25
9004.00,1.25
9003.00,1.24
9002.00,1.24
9001.00,1.24
9000.00,1.24
8999.00,1.24
8998.00,1.24
8997.00,1.24
8996.00,1.24
8995.00,1.24
8994.00,1.24
8993.00,1.24
8992.00,1.24
8991.00,1.24
8990.00,1.23
8989.00,1.23
8988.00,1.23
8987.00,1.23
8986.00,1.23
8985.00,1.23
8984.00,1.24
8983.00,1.24
8982.00,1.24
8981.00,1.24
8980.00,1.24
8979.00,1.24
8978.00,1.24
8977.00,1.24
8976.00,1.24
8975.00,1.24
8974.00,1.24
8973.00,1.24
8972.00,1.24
8971.00,1.24
8970.00,1.24
8969.00,1.24
8968.00,1.24
8967.00,1.24
8966.00,1.24
8965.00,1.24
8964.00,1.24
8963.00,1.24
8962.00,1.24
8961.00,1.24
8960.00,1.24
8959.00,1.24
8958.00,1.24
8957.00,1.24
8956.00,1.24
8955.00,1.24
8954.00,1.24
8953.00,1.23
8952.00,1.23
8951.00,1.23
8950.00,1.23
8949.00,1.23
8948.00,1.23
8947.00,1.23
8946.00,1.23
8945.00,1.23
8944.00,1.23
8943.00,1.23
8942.00,1.23
8941.00,1.23
8940.00,1.23
8939.00,1.23
8938.00,1.23
8937.00,1.23
8936.00,1.23
8935.00,1.23
8934.00,1.23
8933.00,1.23
8932.00,1.23
8931.00,1.23
8930.00,1.23
8929.00,1.23
8928.00,1.23
8927.00,1.22
8926.00,1.22
8925.00,1.22
8924.00,1.22
8923.00,1.22
8922.00,1.22
8921.00,1.22
8920.00,1.22
8919.00,1.22
8918.00,1.22
8917.00,1.22
8916.00,1.22
8915.00,1.22
8914.00,1.22
8913.00,1.22
8912.00,1.22
8911.00,1.22
8910.00,1.22
8909.00,1.22
8908.00,1.22
8907.00,1.23
8906.00,1.23
8905.00,1.23
8904.00,1.23
8903.00,1.23
8902.00,1.23
8901.00,1.24
8900.00,1.24
8899.00,1.24
8898.00,1.24
8897.00,1.24
8896.00,1.24
8895.00,1.25
8894.00,1.25
8893.00,1.25
8892.00,1.25
8891.00,1.25
8890.00,1.25
8889.00,1.25
8888.00,1.25
8887.00,1.25
8886.00,1.25
8885.00,1.25
8884.00,1.25
8883.00,1.25
8882.00,1.25
8881.00,1.25
8880.00,1.25
8879.00,1.25
8878.00,1.24
8877.00,1.24
8876.00,1.24
8875.00,1.24
8874.00,1.24
8873.00,1.24
8872.00,1.24
8871.00,1.23
8870.00,1.23
8869.00,1.23
8868.00,1.23
8867.00,1.23
8866.00,1.23
8865.00,1.23
8864.00,1.23
8863.00,1.22
8862.00,1.22
8861.00,1.22
8860.00,1.22
8859.00,1.22
8858.00,1.22
8857.00,1.22
8856.00,1.22
8855.00,1.22
8854.00,1.23
8853.00,1.23
8852.00,1.23
8851.00,1.23
8850.00,1.23
8849.00,1.23
8848.00,1.23
8847.00,1.24
8846.00,1.24
8845.00,1.24
8844.00,1.24
8843.00,1.24
8842.00,1.24
8841.00,1.24
8840.00,1.24
8839.00,1.24
8838.00,1.24
8837.00,1.24
8836.00,1.24
8835.00,1.24
8834.00,1.23
8833.00,1.23
8832.00,1.23
8831.00,1.23
8830.00,1.23
8829.00,1.22
8828.00,1.22
8827.00,1.22
8826.00,1.22
8825.00,1.22
8824.00,1.21
8823.00,1.21
8822.00,1.21
8821.00,1.21
8820.00,1.21
8819.00,1.21
8818.00,1.21
8817.00,1.21
8816.00,1.20
8815.00,1.20
8814.00,1.20
8813.00,1.20
8812.00,1.20
8811.00,1.20
8810.00,1.20
8809.00,1.20
8808.00,1.20
8807.00,1.21
8806.00,1.21
8805.00,1.21
8804.00,1.21
8803.00,1.21
8802.00,1.21
8801.00,1.21
8800.00,1.21
8799.00,1.21
8798.00,1.21
8797.00,1.21
8796.00,1.21
8795.00,1.21
8794.00,1.21
8793.00,1.21
8792.00,1.22
8791.00,1.22
8790.00,1.22
8789.00,1.22
8788.00,1.22
8787.00,1.21
8786.00,1.21
8785.00,1.21
8784.00,1.21
8783.00,1.21
8782.00,1.21
8781.00,1.21
8780.00,1.20
8779.00,1.20
8778.00,1.20
8777.00,1.20
8776.00,1.20
8775.00,1.20
8774.00,1.19
8773.00,1.19
8772.00,1.19
8771.00,1.19
8770.00,1.19
8769.00,1.19
8768.00,1.19
8767.00,1.19
8766.00,1.19
8765.00,1.19
8764.00,1.19
8763.00,1.19
8762.00,1.19
8761.00,1.19
8760.00,1.19
8759.00,1.19
8758.00,1.19
8757.00,1.19
8756.00,1.19
8755.00,1.19
8754.00,1.19
8753.00,1.19
8752.00,1.19
8751.00,1.19
8750.00,1.19
8749.00,1.19
8748.00,1.19
8747.00,1.19
8746.00,1.19
8745.00,1.19
8744.00,1.19
8743.00,1.20
8742.00,1.20
8741.00,1.20
8740.00,1.20
8739.00,1.20
8738.00,1.20
8737.00,1.20
8736.00,1.20
8735.00,1.20
8734.00,1.20
8733.00,1.19
8732.00,1.19
8731.00,1.19
8730.00,1.19
8729.00,1.19
8728.00,1.19
8727.00,1.18
8726.00,1.18
8725.00,1.18
8724.00,1.18
8723.00,1.18
8722.00,1.18
8721.00,1.17
8720.00,1.17
8719.00,1.17
8718.00,1.17
8717.00,1.17
8716.00,1.17
8715.00,1.17
8714.00,1.18
8713.00,1.18
8712.00,1.18
8711.00,1.18
8710.00,1.18
8709.00,1.18
8708.00,1.18
8707.00,1.18
8706.00,1.18
8705.00,1.18
8704.00,1.18
8703.00,1.18
8702.00,1.18
8701.00,1.18
8700.00,1.18
8699.00,1.18
8698.00,1.18
8697.00,1.18
8696.00,1.18
8695.00,1.18
8694.00,1.18
8693.00,1.18
8692.00,1.18
8691.00,1.18
8690.00,1.17
8689.00,1.17
8688.00,1.17
8687.00,1.17
8686.00,1.17
8685.00,1.16
8684.00,1.16
8683.00,1.16
8682.00,1.16
8681.00,1.16
8680.00,1.16
8679.00,1.16
8678.00,1.16
8677.00,1.16
8676.00,1.16
8675.00,1.16
8674.00,1.16
8673.00,1.16
8672.00,1.17
8671.00,1.17
8670.00,1.17
8669.00,1.17
8668.00,1.17
8667.00,1.18
8666.00,1.18
8665.00,1.18
8664.00,1.18
8663.00,1.18
8662.00,1.19
8661.00,1.19
8660.00,1.19
8659.00,1.19
8658.00,1.19
8657.00,1.19
8656.00,1.19
8655.00,1.19
8654.00,1.18
8653.00,1.18
8652.00,1.18
8651.00,1.18
8650.00,1.18
8649.00,1.18
8648.00,1.17
8647.00,1.17
8646.00,1.17
8645.00,1.17
8644.00,1.17
8643.00,1.16
8642.00,1.16
8641.00,1.16
8640.00,1.16
8639.00,1.16
8638.00,1.16
8637.00,1.16
8636.00,1.16
8635.00,1.16
8634.00,1.16
8633.00,1.16
8632.00,1.16
8631.00,1.16
8630.00,1.16
8629.00,1.16
8628.00,1.16
8627.00,1.16
8626.00,1.16
8625.00,1.16
8624.00,1.16
8623.00,1.17
8622.00,1.17
8621.00,1.17
8620.00,1.17
8619.00,1.17
8618.00,1.17
8617.00,1.17
8616.00,1.17
8615.00,1.17
8614.00,1.17
8613.00,1.17
8612.00,1.16
8611.00,1.16
8610.00,1.16
8609.00,1.16
8608.00,1.16
8607.00,1.16
8606.00,1.16
8605.00,1.16
8604.00,1.16
8603.00,1.15
8602.00,1.15
8601.00,1.15
8600.00,1.15
8599.00,1.15
8598.00,1.15
8597.00,1.15
8596.00,1.15
8595.00,1.16
8594.00,1.16
8593.00,1.16
8592.00,1.16
8591.00,1.16
8590.00,1.16
8589.00,1.16
8588.00,1.16
8587.00,1.16
8586.00,1.16
8585.00,1.16
8584.00,1.16
8583.00,1.16
8582.00,1.16
8581.00,1.16
8580.00,1.16
8579.00,1.15
8578.00,1.15
8577.00,1.15
8576.00,1.15
8575.00,1.15
8574.00,1.15
8573.00,1.15
8572.00,1.15
8571.00,1.14
8570.00,1.14
8569.00,1.14
8568.00,1.15
8567.00,1.15
8566.00,1.15
8565.00,1.15
8564.00,1.15
8563.00,1.15
8562.00,1.15
8561.00,1.15
8560.00,1.15
8559.00,1.15
8558.00,1.16
8557.00,1.16
8556.00,1.16
8555.00,1.16
8554.00,1.16
8553.00,1.16
8552.00,1.16
8551.00,1.16
8550.00,1.16
8549.00,1.16
8548.00,1.16
8547.00,1.16
8546.00,1.16
8545.00,1.16
8544.00,1.16
8543.00,1.16
8542.00,1.16
8541.00,1.16
8540.00,1.16
8539.00,1.16
8538.00,1.16
8537.00,1.16
8536.00,1.15
8535.00,1.15
8534.00,1.15
8533.00,1.15
8532.00,1.15
8531.00,1.15
8530.00,1.15
8529.00,1.15
8528.00,1.15
8527.00,1.15
8526.00,1.15
8525.00,1.15
8524.00,1.15
8523.00,1.15
8522.00,1.15
8521.00,1.15
8520.00,1.15
8519.00,1.15
8518.00,1.15
8517.00,1.15
8516.00,1.15
8515.00,1.15
8514.00,1.15
8513.00,1.15
8512.00,1.15
8511.00,1.15
8510.00,1.15
8509.00,1.15
8508.00,1.15
8507.00,1.15
8506.00,1.15
8505.00,1.15
8504.00,1.15
8503.00,1.15
8502.00,1.15
8501.00,1.15
8500.00,1.15
8499.00,1.14
8498.00,1.14
8497.00,1.14
8496.00,1.14
8495.00,1.14
8494.00,1.14
8493.00,1.14
8492.00,1.14
8491.00,1.14
8490.00,1.14
8489.00,1.14
8488.00,1.14
8487.00,1.14
8486.00,1.14
8485.00,1.14
8484.00,1.13
8483.00,1.13
8482.00,1.13
8481.00,1.13
8480.00,1.13
8479.00,1.13
8478.00,1.13
8477.00,1.13
8476.00,1.13
8475.00,1.13
8474.00,1.13
8473.00,1.13
8472.00,1.13
8471.00,1.13
8470.00,1.13
8469.00,1.12
8468.00,1.12
8467.00,1.12
8466.00,1.12
8465.00,1.12
8464.00,1.12
8463.00,1.12
8462.00,1.12
8461.00,1.12
8460.00,1.12
8459.00,1.12
8458.00,1.12
8457.00,1.12
8456.00,1.12
8455.00,1.12
8454.00,1.12
8453.00,1.13
8452.00,1.13
8451.00,1.13
8450.00,1.13
8449.00,1.13
8448.00,1.13
8447.00,1.13
8446.00,1.13
8445.00,1.13
8444.00,1.13
8443.00,1.13
8442.00,1.13
8441.00,1.13
8440.00,1.13
8439.00,1.13
8438.00,1.13
8437.00,1.13
8436.00,1.13
8435.00,1.13
8434.00,1.13
8433.00,1.13
8432.00,1.13
8431.00,1.13
8430.00,1.13
8429.00,1.13
8428.00,1.13
8427.00,1.13
8426.00,1.13
8425.00,1.13
8424.00,1.13
8423.00,1.13
8422.00,1.13
8421.00,1.13
8420.00,1.13
8419.00,1.13
8418.00,1.13
8417.00,1.13
8416.00,1.13
8415.00,1.13
8414.00,1.13
8413.00,1.13
8412.00,1.12
8411.00,1.12
8410.00,1.12
8409.00,1.12
8408.00,1.12
8407.00,1.12
8406.00,1.12
8405.00,1.12
8404.00,1.12
8403.00,1.12
8402.00,1.12
8401.00,1.12
8400.00,1.12
8399.00,1.12
8398.00,1.12
8397.00,1.13
8396.00,1.13
8395.00,1.13
8394.00,1.13
8393.00,1.13
8392.00,1.13
8391.00,1.14
8390.00,1.14
8389.00,1.14
8388.00,1.14
8387.00,1.14
8386.00,1.14
8385.00,1.14
8384.00,1.14
8383.00,1.14
8382.00,1.14
8381.00,1.14
8380.00,1.14
8379.00,1.14
8378.00,1.14
8377.00,1.14
8376.00,1.14
8375.00,1.14
8374.00,1.14
8373.00,1.14
8372.00,1.14
8371.00,1.14
8370.00,1.14
8369.00,1.14
8368.00,1.14
8367.00,1.14
8366.00,1.14
8365.00,1.14
8364.00,1.14
8363.00,1.14
8362.00,1.14
8361.00,1.14
8360.00,1.14
8359.00,1.14
8358.00,1.15
8357.00,1.15
8356.00,1.15
8355.00,1.15
8354.00,1.15
8353.00,1.15
8352.00,1.15
8351.00,1.16
8350.00,1.16
8349.00,1.16
8348.00,1.16
8347.00,1.16
8346.00,1.16
8345.00,1.16
8344.00,1.16
8343.00,1.16
8342.00,1.16
8341.00,1.16
8340.00,1.16
8339.00,1.16
8338.00,1.16
8337.00,1.16
8336.00,1.16
8335.00,1.17
8334.00,1.17
8333.00,1.17
8332.00,1.17
8331.00,1.17
8330.00,1.17
8329.00,1.17
8328.00,1.17
8327.00,1.17
8326.00,1.17
8325.00,1.17
8324.00,1.16
8323.00,1.16
8322.00,1.16
8321.00,1.16
8320.00,1.16
8319.00,1.16
8318.00,1.15
8317.00,1.15
8316.00,1.15
8315.00,1.15
8314.00,1.15
8313.00,1.15
8312.00,1.14
8311.00,1.14
8310.00,1.14
8309.00,1.14
8308.00,1.14
8307.00,1.14
8306.00,1.14
8305.00,1.15
8304.00,1.15
8303.00,1.15
8302.00,1.15
8301.00,1.15
8300.00,1.15
8299.00,1.15
8298.00,1.15
8297.00,1.15
8296.00,1.15
8295.00,1.15
8294.00,1.15
8293.00,1.15
8292.00,1.15
8291.00,1.15
8290.00,1.15
8289.00,1.15
8288.00,1.15
8287.00,1.15
8286.00,1.15
8285.00,1.16
8284.00,1.16
8283.00,1.16
8282.00,1.16
8281.00,1.16
8280.00,1.16
8279.00,1.16
8278.00,1.16
8277.00,1.16
8276.00,1.16
8275.00,1.16
8274.00,1.16
8273.00,1.16
8272.00,1.17
8271.00,1.17
8270.00,1.17
8269.00,1.17
8268.00,1.17
8267.00,1.17
8266.00,1.17
8265.00,1.17
8264.00,1.17
8263.00,1.17
8262.00,1.17
8261.00,1.17
8260.00,1.17
8259.00,1.17
8258.00,1.16
8257.00,1.16
8256.00,1.16
8255.00,1.16
8254.00,1.16
8253.00,1.16
8252.00,1.16
8251.00,1.16
8250.00,1.16
8249.00,1.16
8248.00,1.16
8247.00,1.16
8246.00,1.16
8245.00,1.16
8244.00,1.16
8243.00,1.16
8242.00,1.16
8241.00,1.16
8240.00,1.16
8239.00,1.16
8238.00,1.16
8237.00,1.16
8236.00,1.16
8235.00,1.16
8234.00,1.16
8233.00,1.16
8232.00,1.16
8231.00,1.16
8230.00,1.16
8229.00,1.16
8228.00,1.16
8227.00,1.16
8226.00,1.16
8225.00,1.16
8224.00,1.16
8223.00,1.16
8222.00,1.16
8221.00,1.16
8220.00,1.16
8219.00,1.16
8218.00,1.16
8217.00,1.16
8216.00,1.16
8215.00,1.16
8214.00,1.16
8213.00,1.17
8212.00,1.17
8211.00,1.17
8210.00,1.17
8209.00,1.17
8208.00,1.17
8207.00,1.17
8206.00,1.17
8205.00,1.17
8204.00,1.17
8203.00,1.17
8202.00,1.17
8201.00,1.17
8200.00,1.17
8199.00,1.17
8198.00,1.17
8197.00,1.17
8196.00,1.17
8195.00,1.17
8194.00,1.17
8193.00,1.17
8192.00,1.18
8191.00,1.18
8190.00,1.18
8189.00,1.18
8188.00,1.18
8187.00,1.18
8186.00,1.18
8185.00,1.18
8184.00,1.18
8183.00,1.18
8182.00,1.18
8181.00,1.18
8180.00,1.18
8179.00,1.18
8178.00,1.18
8177.00,1.18
8176.00,1.18
8175.00,1.18
8174.00,1.18
8173.00,1.18
8172.00,1.18
8171.00,1.18
8170.00,1.18
8169.00,1.18
8168.00,1.18
8167.00,1.19
8166.00,1.19
8165.00,1.19
8164.00,1.19
8163.00,1.19
8162.00,1.19
8161.00,1.20
8160.00,1.20
8159.00,1.20
8158.00,1.20
8157.00,1.20
8156.00,1.20
8155.00,1.20
8154.00,1.20
8153.00,1.20
8152.00,1.20
8151.00,1.20
8150.00,1.20
8149.00,1.20
8148.00,1.20
8147.00,1.20
8146.00,1.20
8145.00,1.20
8144.00,1.20
8143.00,1.20
8142.00,1.20
8141.00,1.19
8140.00,1.19
8139.00,1.19
8138.00,1.19
8137.00,1.19
8136.00,1.19
8135.00,1.19
8134.00,1.19
8133.00,1.19
8132.00,1.19
8131.00,1.19
8130.00,1.19
8129.00,1.19
8128.00,1.19
8127.00,1.19
8126.00,1.19
8125.00,1.19
8124.00,1.19
8123.00,1.19
8122.00,1.19
8121.00,1.19
8120.00,1.19
8119.00,1.19
8118.00,1.19
8117.00,1.19
8116.00,1.19
8115.00,1.19
8114.00,1.19
8113.00,1.19
8112.00,1.19
8111.00,1.19
8110.00,1.19
8109.00,1.19
8108.00,1.19
8107.00,1.19
8106.00,1.19
8105.00,1.19
8104.00,1.19
8103.00,1.19
8102.00,1.20
8101.00,1.20
8100.00,1.20
8099.00,1.20
8098.00,1.20
8097.00,1.20
8096.00,1.20
8095.00,1.21
8094.00,1.21
8093.00,1.21
8092.00,1.21
8091.00,1.21
8090.00,1.21
8089.00,1.21
8088.00,1.21
8087.00,1.21
8086.00,1.21
8085.00,1.21
8084.00,1.21
8083.00,1.21
8082.00,1.21
8081.00,1.21
8080.00,1.21
8079.00,1.21
8078.00,1.21
8077.00,1.21
8076.00,1.21
8075.00,1.21
8074.00,1.21
8073.00,1.21
8072.00,1.21
8071.00,1.21
8070.00,1.21
8069.00,1.21
8068.00,1.21
8067.00,1.21
8066.00,1.21
8065.00,1.21
8064.00,1.21
8063.00,1.21
8062.00,1.21
8061.00,1.21
8060.00,1.21
8059.00,1.22
8058.00,1.22
8057.00,1.22
8056.00,1.22
8055.00,1.22
8054.00,1.22
8053.00,1.22
8052.00,1.22
8051.00,1.22
8050.00,1.22
8049.00,1.22
8048.00,1.22
8047.00,1.22
8046.00,1.22
8045.00,1.22
8044.00,1.21
8043.00,1.21
8042.00,1.22
8041.00,1.22
8040.00,1.22
8039.00,1.22
8038.00,1.22
8037.00,1.22
8036.00,1.22
8035.00,1.22
8034.00,1.22
8033.00,1.22
8032.00,1.22
8031.00,1.23
8030.00,1.23
8029.00,1.23
8028.00,1.23
8027.00,1.23
8026.00,1.23
8025.00,1.23
8024.00,1.23
8023.00,1.23
8022.00,1.22
8021.00,1.22
8020.00,1.22
8019.00,1.22
8018.00,1.22
8017.00,1.22
8016.00,1.22
8015.00,1.22
8014.00,1.22
8013.00,1.22
8012.00,1.22
8011.00,1.22
8010.00,1.22
8009.00,1.22
8008.00,1.22
8007.00,1.22
8006.00,1.22
8005.00,1.22
8004.00,1.22
8003.00,1.22
8002.00,1.22
8001.00,1.22
8000.00,1.22
7999.00,1.22
7998.00,1.22
7997.00,1.22
7996.00,1.22
7995.00,1.22
7994.00,1.22
7993.00,1.22
7992.00,1.22
7991.00,1.22
7990.00,1.22
7989.00,1.22
7988.00,1.22
7987.00,1.22
7986.00,1.22
7985.00,1.22
7984.00,1.22
7983.00,1.22
7982.00,1.22
7981.00,1.22
7980.00,1.22
7979.00,1.22
7978.00,1.22
7977.00,1.22
7976.00,1.22
7975.00,1.22
7974.00,1.22
7973.00,1.22
7972.00,1.22
7971.00,1.22
7970.00,1.22
7969.00,1.22
7968.00,1.22
7967.00,1.22
7966.00,1.22
7965.00,1.22
7964.00,1.22
7963.00,1.22
7962.00,1.22
7961.00,1.22
7960.00,1.22
7959.00,1.22
7958.00,1.22
7957.00,1.22
7956.00,1.22
7955.00,1.22
7954.00,1.22
7953.00,1.22
7952.00,1.22
7951.00,1.23
7950.00,1.23
7949.00,1.23
7948.00,1.23
7947.00,1.23
7946.00,1.23
7945.00,1.24
7944.00,1.24
7943.00,1.24
7942.00,1.24
7941.00,1.24
7940.00,1.24
7939.00,1.24
7938.00,1.24
7937.00,1.24
7936.00,1.24
7935.00,1.24
7934.00,1.24
7933.00,1.24
7932.00,1.24
7931.00,1.24
7930.00,1.24
7929.00,1.24
7928.00,1.24
7927.00,1.24
7926.00,1.24
7925.00,1.24
7924.00,1.24
7923.00,1.24
7922.00,1.24
7921.00,1.23
7920.00,1.23
7919.00,1.24
7918.00,1.24
7917.00,1.24
7916.00,1.24
7915.00,1.24
7914.00,1.24
7913.00,1.24
7912.00,1.24
7911.00,1.24
7910.00,1.23
7909.00,1.23
7908.00,1.23
7907.00,1.23
7906.00,1.23
7905.00,1.23
7904.00,1.23
7903.00,1.23
7902.00,1.23
7901.00,1.23
7900.00,1.23
7899.00,1.23
7898.00,1.23
7897.00,1.23
7896.00,1.23
7895.00,1.23
7894.00,1.23
7893.00,1.23
7892.00,1.23
7891.00,1.23
7890.00,1.23
7889.00,1.23
7888.00,1.23
7887.00,1.23
7886.00,1.23
7885.00,1.23
7884.00,1.23
7883.00,1.23
7882.00,1.23
7881.00,1.23
7880.00,1.23
7879.00,1.23
7878.00,1.23
7877.00,1.23
7876.00,1.23
7875.00,1.23
7874.00,1.23
7873.00,1.24
7872.00,1.24
7871.00,1.24
7870.00,1.24
7869.00,1.24
7868.00,1.24
7867.00,1.24
7866.00,1.24
7865.00,1.24
7864.00,1.24
7863.00,1.25
7862.00,1.25
7861.00,1.25
7860.00,1.25
7859.00,1.25
7858.00,1.25
7857.00,1.25
7856.00,1.25
7855.00,1.25
7854.00,1.25
7853.00,1.25
7852.00,1.25
7851.00,1.25
7850.00,1.25
7849.00,1.25
7848.00,1.25
7847.00,1.25
7846.00,1.25
7845.00,1.25
7844.00,1.25
7843.00,1.25
7842.00,1.24
7841.00,1.24
7840.00,1.24
7839.00,1.24
7838.00,1.24
7837.00,1.24
7836.00,1.24
7835.00,1.24
7834.00,1.24
7833.00,1.24
7832.00,1.24
7831.00,1.24
7830.00,1.24
7829.00,1.24
7828.00,1.24
7827.00,1.24
7826.00,1.24
7825.00,1.24
7824.00,1.24
7823.00,1.24
7822.00,1.24
7821.00,1.24
7820.00,1.24
7819.00,1.24
7818.00,1.24
7817.00,1.24
7816.00,1.24
7815.00,1.24
7814.00,1.24
7813.00,1.24
7812.00,1.24
7811.00,1.24
7810.00,1.24
7809.00,1.24
7808.00,1.24
7807.00,1.24
7806.00,1.24
7805.00,1.24
7804.00,1.24
7803.00,1.24
7802.00,1.24
7801.00,1.24
7800.00,1.24
7799.00,1.24
7798.00,1.24
7797.00,1.24
7796.00,1.24
7795.00,1.24
7794.00,1.24
7793.00,1.24
7792.00,1.24
7791.00,1.24
7790.00,1.24
7789.00,1.24
7788.00,1.24
7787.00,1.24
7786.00,1.24
7785.00,1.24
7784.00,1.24
7783.00,1.24
7782.00,1.24
7781.00,1.24
7780.00,1.24
7779.00,1.24
7778.00,1.24
7777.00,1.24
7776.00,1.24
7775.00,1.25
7774.00,1.25
7773.00,1.25
7772.00,1.25
7771.00,1.25
7770.00,1.25
7769.00,1.25
7768.00,1.25
7767.00,1.25
7766.00,1.25
7765.00,1.25
7764.00,1.25
7763.00,1.25
7762.00,1.25
7761.00,1.25
7760.00,1.25
7759.00,1.25
7758.00,1.25
7757.00,1.25
7756.00,1.25
7755.00,1.25
7754.00,1.25
7753.00,1.25
7752.00,1.25
7751.00,1.25
7750.00,1.25
7749.00,1.25
7748.00,1.25
7747.00,1.25
7746.00,1.25
7745.00,1.25
7744.00,1.25
7743.00,1.25
7742.00,1.25
7741.00,1.25
7740.00,1.25
7739.00,1.25
7738.00,1.25
7737.00,1.25
7736.00,1.25
7735.00,1.25
7734.00,1.25
7733.00,1.26
7732.00,1.26
7731.00,1.26
7730.00,1.26
7729.00,1.26
7728.00,1.26
7727.00,1.26
7726.00,1.26
7725.00,1.26
7724.00,1.26
7723.00,1.26
7722.00,1.26
7721.00,1.26
7720.00,1.26
7719.00,1.26
7718.00,1.26
7717.00,1.26
7716.00,1.26
7715.00,1.26
7714.00,1.26
7713.00,1.25
7712.00,1.25
7711.00,1.25
7710.00,1.25
7709.00,1.25
7708.00,1.25
7707.00,1.25
7706.00,1.25
7705.00,1.25
7704.00,1.24
7703.00,1.24
7702.00,1.24
7701.00,1.24
7700.00,1.24
7699.00,1.24
7698.00,1.24
7697.00,1.24
7696.00,1.24
7695.00,1.24
7694.00,1.24
7693.00,1.24
7692.00,1.24
7691.00,1.25
7690.00,1.25
7689.00,1.25
7688.00,1.25
7687.00,1.25
7686.00,1.25
7685.00,1.26
7684.00,1.26
7683.00,1.26
7682.00,1.26
7681.00,1.26
7680.00,1.26
7679.00,1.26
7678.00,1.26
7677.00,1.26
7676.00,1.26
7675.00,1.26
7674.00,1.26
7673.00,1.26
7672.00,1.26
7671.00,1.26
7670.00,1.26
7669.00,1.26
7668.00,1.26
7667.00,1.26
7666.00,1.26
7665.00,1.26
7664.00,1.25
7663.00,1.25
7662.00,1.25
7661.00,1.25
7660.00,1.25
7659.00,1.25
7658.00,1.25
7657.00,1.25
7656.00,1.25
7655.00,1.25
7654.00,1.25
7653.00,1.25
7652.00,1.25
7651.00,1.25
7650.00,1.25
7649.00,1.25
7648.00,1.25
7647.00,1.25
7646.00,1.25
7645.00,1.25
7644.00,1.25
7643.00,1.25
7642.00,1.25
7641.00,1.25
7640.00,1.25
7639.00,1.25
7638.00,1.24
7637.00,1.24
7636.00,1.24
7635.00,1.24
7634.00,1.24
7633.00,1.24
7632.00,1.25
7631.00,1.25
7630.00,1.25
7629.00,1.25
7628.00,1.25
7627.00,1.25
7626.00,1.25
7625.00,1.25
7624.00,1.26
7623.00,1.26
7622.00,1.26
7621.00,1.26
7620.00,1.26
7619.00,1.26
7618.00,1.26
7617.00,1.26
7616.00,1.26
7615.00,1.26
7614.00,1.26
7613.00,1.26
7612.00,1.25
7611.00,1.25
7610.00,1.25
7609.00,1.25
7608.00,1.25
7607.00,1.25
7606.00,1.25
7605.00,1.25
7604.00,1.25
7603.00,1.25
7602.00,1.25
7601.00,1.25
7600.00,1.25
7599.00,1.25
7598.00,1.26
7597.00,1.26
7596.00,1.26
7595.00,1.26
7594.00,1.26
7593.00,1.26
7592.00,1.26
7591.00,1.26
7590.00,1.26
7589.00,1.26
7588.00,1.26
7587.00,1.26
7586.00,1.26
7585.00,1.26
7584.00,1.26
7583.00,1.26
7582.00,1.26
7581.00,1.26
7580.00,1.26
7579.00,1.26
7578.00,1.26
7577.00,1.26
7576.00,1.26
7575.00,1.26
7574.00,1.26
7573.00,1.26
7572.00,1.26
7571.00,1.26
7570.00,1.26
7569.00,1.26
7568.00,1.25
7567.00,1.25
7566.00,1.25
7565.00,1.25
7564.00,1.25
7563.00,1.25
7562.00,1.25
7561.00,1.25
7560.00,1.25
7559.00,1.25
7558.00,1.25
7557.00,1.25
7556.00,1.25
7555.00,1.25
7554.00,1.25
7553.00,1.25
7552.00,1.25
7551.00,1.25
7550.00,1.25
7549.00,1.25
7548.00,1.25
7547.00,1.25
7546.00,1.25
7545.00,1.25
7544.00,1.24
7543.00,1.24
7542.00,1.24
7541.00,1.24
7540.00,1.24
7539.00,1.24
7538.00,1.24
7537.00,1.24
7536.00,1.24
7535.00,1.24
7534.00,1.24
7533.00,1.24
7532.00,1.24
7531.00,1.24
7530.00,1.24
7529.00,1.24
7528.00,1.24
7527.00,1.24
7526.00,1.24
7525.00,1.25
7524.00,1.25
7523.00,1.25
7522.00,1.25
7521.00,1.25
7520.00,1.25
7519.00,1.25
7518.00,1.25
7517.00,1.25
7516.00,1.25
7515.00,1.25
7514.00,1.25
7513.00,1.25
7512.00,1.24
7511.00,1.24
7510.00,1.24
7509.00,1.24
7508.00,1.24
7507.00,1.24
7506.00,1.24
7505.00,1.24
7504.00,1.24
7503.00,1.24
7502.00,1.23
7501.00,1.23
7500.00,1.23
7499.00,1.23
7498.00,1.23
7497.00,1.23
7496.00,1.23
7495.00,1.23
7494.00,1.23
7493.00,1.23
7492.00,1.23
7491.00,1.23
7490.00,1.23
7489.00,1.23
7488.00,1.23
7487.00,1.23
7486.00,1.23
7485.00,1.24
7484.00,1.24
7483.00,1.24
7482.00,1.24
7481.00,1.24
7480.00,1.24
7479.00,1.24
7478.00,1.24
7477.00,1.24
7476.00,1.24
7475.00,1.23
7474.00,1.23
7473.00,1.23
7472.00,1.23
7471.00,1.23
7470.00,1.23
7469.00,1.22
7468.00,1.22
7467.00,1.22
7466.00,1.22
7465.00,1.22
7464.00,1.22
7463.00,1.22
7462.00,1.22
7461.00,1.22
7460.00,1.22
7459.00,1.21
7458.00,1.21
7457.00,1.21
7456.00,1.21
7455.00,1.21
7454.00,1.21
7453.00,1.21
7452.00,1.21
7451.00,1.21
7450.00,1.21
7449.00,1.20
7448.00,1.20
7447.00,1.20
7446.00,1.20
7445.00,1.20
7444.00,1.20
7443.00,1.20
7442.00,1.20
7441.00,1.20
7440.00,1.20
7439.00,1.19
7438.00,1.19
7437.00,1.19
7436.00,1.19
7435.00,1.19
7434.00,1.19
7433.00,1.19
7432.00,1.19
7431.00,1.19
7430.00,1.19
7429.00,1.19
7428.00,1.19
7427.00,1.19
7426.00,1.19
7425.00,1.19
7424.00,1.19
7423.00,1.19
7422.00,1.19
7421.00,1.19
7420.00,1.19
7419.00,1.19
7418.00,1.19
7417.00,1.19
7416.00,1.19
7415.00,1.19
7414.00,1.19
7413.00,1.19
7412.00,1.19
7411.00,1.19
7410.00,1.19
7409.00,1.19
7408.00,1.19
7407.00,1.19
7406.00,1.19
7405.00,1.19
7404.00,1.19
7403.00,1.18
7402.00,1.18
7401.00,1.18
7400.00,1.18
7399.00,1.18
7398.00,1.18
7397.00,1.18
7396.00,1.18
7395.00,1.18
7394.00,1.18
7393.00,1.18
7392.00,1.18
7391.00,1.18
7390.00,1.18
7389.00,1.18
7388.00,1.18
7387.00,1.18
7386.00,1.18
7385.00,1.18
7384.00,1.18
7383.00,1.18
7382.00,1.17
7381.00,1.17
7380.00,1.17
7379.00,1.17
7378.00,1.17
7377.00,1.17
7376.00,1.17
7375.00,1.17
7374.00,1.17
7373.00,1.17
7372.00,1.17
7371.00,1.17
7370.00,1.17
7369.00,1.17
7368.00,1.17
7367.00,1.17
7366.00,1.17
7365.00,1.17
7364.00,1.17
7363.00,1.17
7362.00,1.17
7361.00,1.17
7360.00,1.17
7359.00,1.17
7358.00,1.17
7357.00,1.17
7356.00,1.17
7355.00,1.17
7354.00,1.17
7353.00,1.17
7352.00,1.16
7351.00,1.16
7350.00,1.16
7349.00,1.16
7348.00,1.16
7347.00,1.16
7346.00,1.16
7345.00,1.16
7344.00,1.16
7343.00,1.16
7342.00,1.16
7341.00,1.16
7340.00,1.16
7339.00,1.16
7338.00,1.16
7337.00,1.16
7336.00,1.16
7335.00,1.16
7334.00,1.16
7333.00,1.16
7332.00,1.16
7331.00,1.16
7330.00,1.16
7329.00,1.16
7328.00,1.16
7327.00,1.16
7326.00,1.16
7325.00,1.15
7324.00,1.15
7323.00,1.15
7322.00,1.15
7321.00,1.15
7320.00,1.15
7319.00,1.15
7318.00,1.15
7317.00,1.15
7316.00,1.15
7315.00,1.14
7314.00,1.14
7313.00,1.14
7312.00,1.14
7311.00,1.14
7310.00,1.14
7309.00,1.14
7308.00,1.14
7307.00,1.14
7306.00,1.14
7305.00,1.14
7304.00,1.14
7303.00,1.14
7302.00,1.14
7301.00,1.14
7300.00,1.14
7299.00,1.14
7298.00,1.14
7297.00,1.14
7296.00,1.14
7295.00,1.14
7294.00,1.14
7293.00,1.14
7292.00,1.14
7291.00,1.14
7290.00,1.14
7289.00,1.14
7288.00,1.14
7287.00,1.14
7286.00,1.14
7285.00,1.14
7284.00,1.14
7283.00,1.13
7282.00,1.13
7281.00,1.13
7280.00,1.13
7279.00,1.13
7278.00,1.12
7277.00,1.12
7276.00,1.12
7275.00,1.12
7274.00,1.12
7273.00,1.11
7272.00,1.11
7271.00,1.11
7270.00,1.11
7269.00,1.10
7268.00,1.10
7267.00,1.10
7266.00,1.10
7265.00,1.09
7264.00,1.09
7263.00,1.09
7262.00,1.09
7261.00,1.09
7260.00,1.09
7259.00,1.09
7258.00,1.08
7257.00,1.08
7256.00,1.08
7255.00,1.08
7254.00,1.08
7253.00,1.08
7252.00,1.08
7251.00,1.08
7250.00,1.08
7249.00,1.08
7248.00,1.08
7247.00,1.07
7246.00,1.07
7245.00,1.07
7244.00,1.07
7243.00,1.07
7242.00,1.07
7241.00,1.07
7240.00,1.07
7239.00,1.06
7238.00,1.06
7237.00,1.06
7236.00,1.06
7235.00,1.06
7234.00,1.05
7233.00,1.05
7232.00,1.05
7231.00,1.05
7230.00,1.04
7229.00,1.04
7228.00,1.04
7227.00,1.03
7226.00,1.03
7225.00,1.03
7224.00,1.02
7223.00,1.02
7222.00,1.01
7221.00,1.01
7220.00,1.01
7219.00,1.00
7218.00,1.00
7217.00,1.00
7216.00,0.99
7215.00,0.99
7214.00,0.99
7213.00,0.98
7212.00,0.98
7211.00,0.98
7210.00,0.97
7209.00,0.97
7208.00,0.97
7207.00,0.96
7206.00,0.96
7205.00,0.96
7204.00,0.96
7203.00,0.95
7202.00,0.95
7201.00,0.95
7200.00,0.94
7199.00,0.94
7198.00,0.94
7197.00,0.93
7196.00,0.93
7195.00,0.93
7194.00,0.92
7193.00,0.92
7192.00,0.92
7191.00,0.92
7190.00,0.91
7189.00,0.91
7188.00,0.91
7187.00,0.90
7186.00,0.90
7185.00,0.90
7184.00,0.90
7183.00,0.89
7182.00,0.89
7181.00,0.89
7180.00,0.89
7179.00,0.88
7178.00,0.88
7177.00,0.88
7176.00,0.87
7175.00,0.87
7174.00,0.87
7173.00,0.86
7172.00,0.86
7171.00,0.86
7170.00,0.85
7169.00,0.85
7168.00,0.85
7167.00,0.84
7166.00,0.84
7165.00,0.84
7164.00,0.83
7163.00,0.83
7162.00,0.83
7161.00,0.83
7160.00,0.82
7159.00,0.82
7158.00,0.82
7157.00,0.82
7156.00,0.81
7155.00,0.81
7154.00,0.81
7153.00,0.81
7152.00,0.81
7151.00,0.81
7150.00,0.80
7149.00,0.80
7148.00,0.80
7147.00,0.80
7146.00,0.80
7145.00,0.80
7144.00,0.79
7143.00,0.79
7142.00,0.79
7141.00,0.79
7140.00,0.79
7139.00,0.79
7138.00,0.78
7137.00,0.78
7136.00,0.78
7135.00,0.77
7134.00,0.77
7133.00,0.77
7132.00,0.77
7131.00,0.76
7130.00,0.76
7129.00,0.76
7128.00,0.75
7127.00,0.75
7126.00,0.75
7125.00,0.74
7124.00,0.74
7123.00,0.74
7122.00,0.73
7121.00,0.73
7120.00,0.73
7119.00,0.73
7118.00,0.72
7117.00,0.72
7116.00,0.72
7115.00,0.72
7114.00,0.72
7113.00,0.72
7112.00,0.72
7111.00,0.71
7110.00,0.71
7109.00,0.71
7108.00,0.71
7107.00,0.71
7106.00,0.71
7105.00,0.71
7104.00,0.70
7103.00,0.70
7102.00,0.70
7101.00,0.70
7100.00,0.70
7099.00,0.69
7098.00,0.69
7097.00,0.69
7096.00,0.69
7095.00,0.68
7094.00,0.68
7093.00,0.68
7092.00,0.68
7091.00,0.67
7090.00,0.67
7089.00,0.67
7088.00,0.67
7087.00,0.67
7086.00,0.67
7085.00,0.66
7084.00,0.66
7083.00,0.66
7082.00,0.66
7081.00,0.66
7080.00,0.66
7079.00,0.66
7078.00,0.66
7077.00,0.66
7076.00,0.66
7075.00,0.66
7074.00,0.65
7073.00,0.65
7072.00,0.65
7071.00,0.65
7070.00,0.64
7069.00,0.64
7068.00,0.64
7067.00,0.64
7066.00,0.63
7065.00,0.63
7064.00,0.63
7063.00,0.63
7062.00,0.63
7061.00,0.62
7060.00,0.62
7059.00,0.62
7058.00,0.62
7057.00,0.62
7056.00,0.62
7055.00,0.62
7054.00,0.62
7053.00,0.62
7052.00,0.62
7051.00,0.62
7050.00,0.62
7049.00,0.62
7048.00,0.62
7047.00,0.62
7046.00,0.62
7045.00,0.62
7044.00,0.62
7043.00,0.62
7042.00,0.62
7041.00,0.61
7040.00,0.61
7039.00,0.61
7038.00,0.61
7037.00,0.60
7036.00,0.60
7035.00,0.60
7034.00,0.60
7033.00,0.59
7032.00,0.59
7031.00,0.59
7030.00,0.59
7029.00,0.58
7028.00,0.58
7027.00,0.58
7026.00,0.58
7025.00,0.58
7024.00,0.58
7023.00,0.58
7022.00,0.58
7021.00,0.58
7020.00,0.58
7019.00,0.58
7018.00,0.58
7017.00,0.58
7016.00,0.58
7015.00,0.58
7014.00,0.58
7013.00,0.58
7012.00,0.58
7011.00,0.58
7010.00,0.58
7009.00,0.58
7008.00,0.58
7007.00,0.58
7006.00,0.58
7005.00,0.58
7004.00,0.58
7003.00,0.58
7002.00,0.58
7001.00,0.58
7000.00,0.58
6999.00,0.58
6998.00,0.57
6997.00,0.57
6996.00,0.57
6995.00,0.57
6994.00,0.57
6993.00,0.57
6992.00,0.57
6991.00,0.57
6990.00,0.57
6989.00,0.57
6988.00,0.56
6987.00,0.56
6986.00,0.56
6985.00,0.56
6984.00,0.56
6983.00,0.56
6982.00,0.56
6981.00,0.56
6980.00,0.56
6979.00,0.56
6978.00,0.56
6977.00,0.56
6976.00,0.56
6975.00,0.56
6974.00,0.56
6973.00,0.56
6972.00,0.56
6971.00,0.56
6970.00,0.56
6969.00,0.56
6968.00,0.56
6967.00,0.56
6966.00,0.56
6965.00,0.55
6964.00,0.55
6963.00,0.55
6962.00,0.55
6961.00,0.55
6960.00,0.55
6959.00,0.55
6958.00,0.55
6957.00,0.55
6956.00,0.55
6955.00,0.55
6954.00,0.55
6953.00,0.55
6952.00,0.55
6951.00,0.55
6950.00,0.55
6949.00,0.55
6948.00,0.55
6947.00,0.55
6946.00,0.55
6945.00,0.55
6944.00,0.55
6943.00,0.55
6942.00,0.55
6941.00,0.55
6940.00,0.54
6939.00,0.54
6938.00,0.54
6937.00,0.54
6936.00,0.54
6935.00,0.54
6934.00,0.54
6933.00,0.54
6932.00,0.54
6931.00,0.54
6930.00,0.54
6929.00,0.54
6928.00,0.54
6927.00,0.54
6926.00,0.54
6925.00,0.54
6924.00,0.54
6923.00,0.54
6922.00,0.54
6921.00,0.54
6920.00,0.54
6919.00,0.54
6918.00,0.54
6917.00,0.54
6916.00,0.54
6915.00,0.54
6914.00,0.54
6913.00,0.54
6912.00,0.54
6911.00,0.54
6910.00,0.55
6909.00,0.55
6908.00,0.55
6907.00,0.55
6906.00,0.55
6905.00,0.55
6904.00,0.55
6903.00,0.55
6902.00,0.55
6901.00,0.55
6900.00,0.55
6899.00,0.55
6898.00,0.55
6897.00,0.55
6896.00,0.55
6895.00,0.55
6894.00,0.55
6893.00,0.55
6892.00,0.54
6891.00,0.54
6890.00,0.54
6889.00,0.54
6888.00,0.54
6887.00,0.54
6886.00,0.54
6885.00,0.54
6884.00,0.54
6883.00,0.54
6882.00,0.54
6881.00,0.54
6880.00,0.54
6879.00,0.54
6878.00,0.54
6877.00,0.54
6876.00,0.54
6875.00,0.54
6874.00,0.54
6873.00,0.54
6872.00,0.54
6871.00,0.54
6870.00,0.55
6869.00,0.55
6868.00,0.55
6867.00,0.55
6866.00,0.55
6865.00,0.55
6864.00,0.55
6863.00,0.55
6862.00,0.55
6861.00,0.55
6860.00,0.55
6859.00,0.55
6858.00,0.55
6857.00,0.55
6856.00,0.55
6855.00,0.55
6854.00,0.55
6853.00,0.55
6852.00,0.55
6851.00,0.55
6850.00,0.55
6849.00,0.55
6848.00,0.55
6847.00,0.55
6846.00,0.55
6845.00,0.55
6844.00,0.55
6843.00,0.55
6842.00,0.55
6841.00,0.55
6840.00,0.54
6839.00,0.54
6838.00,0.54
6837.00,0.54
6836.00,0.54
6835.00,0.54
6834.00,0.54
6833.00,0.54
6832.00,0.54
6831.00,0.54
6830.00,0.54
6829.00,0.54
6828.00,0.54
6827.00,0.54
6826.00,0.54
6825.00,0.54
6824.00,0.55
6823.00,0.55
6822.00,0.55
6821.00,0.55
6820.00,0.55
6819.00,0.55
6818.00,0.55
6817.00,0.55
6816.00,0.55
6815.00,0.55
6814.00,0.55
6813.00,0.55
6812.00,0.55
6811.00,0.55
6810.00,0.55
6809.00,0.55
6808.00,0.55
6807.00,0.55
6806.00,0.55
6805.00,0.55
6804.00,0.55
6803.00,0.55
6802.00,0.55
6801.00,0.55
6800.00,0.55
6799.00,0.56
6798.00,0.56
6797.00,0.56
6796.00,0.56
6795.00,0.56
6794.00,0.56
6793.00,0.56
6792.00,0.56
6791.00,0.56
6790.00,0.56
6789.00,0.56
6788.00,0.56
6787.00,0.56
6786.00,0.56
6785.00,0.56
6784.00,0.57
6783.00,0.57
6782.00,0.57
6781.00,0.57
6780.00,0.57
6779.00,0.57
6778.00,0.56
6777.00,0.56
6776.00,0.56
6775.00,0.56
6774.00,0.56
6773.00,0.56
6772.00,0.56
6771.00,0.57
6770.00,0.57
6769.00,0.57
6768.00,0.57
6767.00,0.57
6766.00,0.57
6765.00,0.57
6764.00,0.57
6763.00,0.57
6762.00,0.57
6761.00,0.57
6760.00,0.57
6759.00,0.57
6758.00,0.57
6757.00,0.57
6756.00,0.57
6755.00,0.57
6754.00,0.57
6753.00,0.57
6752.00,0.57
6751.00,0.57
6750.00,0.57
6749.00,0.57
6748.00,0.57
6747.00,0.57
6746.00,0.57
6745.00,0.57
6744.00,0.57
6743.00,0.57
6742.00,0.57
6741.00,0.57
6740.00,0.57
6739.00,0.57
6738.00,0.57
6737.00,0.57
6736.00,0.57
6735.00,0.57
6734.00,0.57
6733.00,0.57
6732.00,0.58
6731.00,0.58
6730.00,0.58
6729.00,0.58
6728.00,0.58
6727.00,0.58
6726.00,0.58
6725.00,0.59
6724.00,0.59
6723.00,0.59
6722.00,0.59
6721.00,0.59
6720.00,0.59
6719.00,0.59
6718.00,0.59
6717.00,0.60
6716.00,0.60
6715.00,0.60
6714.00,0.60
6713.00,0.60
6712.00,0.60
6711.00,0.60
6710.00,0.60
6709.00,0.60
6708.00,0.60
6707.00,0.60
6706.00,0.60
6705.00,0.60
6704.00,0.60
6703.00,0.60
6702.00,0.60
6701.00,0.60
6700.00,0.60
6699.00,0.61
6698.00,0.61
6697.00,0.61
6696.00,0.61
6695.00,0.61
6694.00,0.61
6693.00,0.61
6692.00,0.61
6691.00,0.61
6690.00,0.62
6689.00,0.62
6688.00,0.62
6687.00,0.62
6686.00,0.62
6685.00,0.62
6684.00,0.62
6683.00,0.62
6682.00,0.62
6681.00,0.62
6680.00,0.63
6679.00,0.63
6678.00,0.63
6677.00,0.63
6676.00,0.63
6675.00,0.63
6674.00,0.64
6673.00,0.64
6672.00,0.64
6671.00,0.64
6670.00,0.64
6669.00,0.64
6668.00,0.64
6667.00,0.64
6666.00,0.65
6665.00,0.65
6664.00,0.65
6663.00,0.65
6662.00,0.65
6661.00,0.65
6660.00,0.65
6659.00,0.65
6658.00,0.65
6657.00,0.65
6656.00,0.65
6655.00,0.65
6654.00,0.65
6653.00,0.65
6652.00,0.65
6651.00,0.66
6650.00,0.66
6649.00,0.66
6648.00,0.66
6647.00,0.66
6646.00,0.66
6645.00,0.66
6644.00,0.66
6643.00,0.67
6642.00,0.67
6641.00,0.67
6640.00,0.67
6639.00,0.67
6638.00,0.67
6637.00,0.67
6636.00,0.67
6635.00,0.67
6634.00,0.67
6633.00,0.67
6632.00,0.68
6631.00,0.68
6630.00,0.68
6629.00,0.68
6628.00,0.68
6627.00,0.68
6626.00,0.68
6625.00,0.68
6624.00,0.68
6623.00,0.68
6622.00,0.68
6621.00,0.68
6620.00,0.68
6619.00,0.69
6618.00,0.69
6617.00,0.69
6616.00,0.69
6615.00,0.69
6614.00,0.69
6613.00,0.69
6612.00,0.69
6611.00,0.70
6610.00,0.70
6609.00,0.70
6608.00,0.70
6607.00,0.70
6606.00,0.70
6605.00,0.70
6604.00,0.70
6603.00,0.70
6602.00,0.70
6601.00,0.70
6600.00,0.71
6599.00,0.71
6598.00,0.71
6597.00,0.71
6596.00,0.71
6595.00,0.71
6594.00,0.71
6593.00,0.71
6592.00,0.71
6591.00,0.71
6590.00,0.71
6589.00,0.71
6588.00,0.72
6587.00,0.72
6586.00,0.72
6585.00,0.72
6584.00,0.72
6583.00,0.72
6582.00,0.72
6581.00,0.72
6580.00,0.72
6579.00,0.72
6578.00,0.72
6577.00,0.72
6576.00,0.72
6575.00,0.72
6574.00,0.72
6573.00,0.72
6572.00,0.72
6571.00,0.72
6570.00,0.72
6569.00,0.72
6568.00,0.72
6567.00,0.72
6566.00,0.72
6565.00,0.72
6564.00,0.72
6563.00,0.73
6562.00,0.73
6561.00,0.73
6560.00,0.73
6559.00,0.73
6558.00,0.73
6557.00,0.73
6556.00,0.73
6555.00,0.73
6554.00,0.74
6553.00,0.74
6552.00,0.74
6551.00,0.74
6550.00,0.74
6549.00,0.74
6548.00,0.74
6547.00,0.74
6546.00,0.74
6545.00,0.74
6544.00,0.74
6543.00,0.74
6542.00,0.75
6541.00,0.75
6540.00,0.75
6539.00,0.75
6538.00,0.75
6537.00,0.75
6536.00,0.75
6535.00,0.75
6534.00,0.75
6533.00,0.75
6532.00,0.75
6531.00,0.75
6530.00,0.75
6529.00,0.75
6528.00,0.76
6527.00,0.76
6526.00,0.76
6525.00,0.76
6524.00,0.76
6523.00,0.76
6522.00,0.76
6521.00,0.76
6520.00,0.76
6519.00,0.77
6518.00,0.77
6517.00,0.77
6516.00,0.77
6515.00,0.77
6514.00,0.77
6513.00,0.77
6512.00,0.77
6511.00,0.77
6510.00,0.78
6509.00,0.78
6508.00,0.78
6507.00,0.78
6506.00,0.78
6505.00,0.78
6504.00,0.78
6503.00,0.78
6502.00,0.78
6501.00,0.78
6500.00,0.78
6499.00,0.78
6498.00,0.78
6497.00,0.78
6496.00,0.78
6495.00,0.79
6494.00,0.79
6493.00,0.79
6492.00,0.79
6491.00,0.79
6490.00,0.79
6489.00,0.79
6488.00,0.79
6487.00,0.79
6486.00,0.79
6485.00,0.79
6484.00,0.79
6483.00,0.79
6482.00,0.79
6481.00,0.80
6480.00,0.80
6479.00,0.80
6478.00,0.80
6477.00,0.80
6476.00,0.80
6475.00,0.80
6474.00,0.80
6473.00,0.80
6472.00,0.80
6471.00,0.80
6470.00,0.80
6469.00,0.80
6468.00,0.81
6467.00,0.81
6466.00,0.81
6465.00,0.81
6464.00,0.81
6463.00,0.81
6462.00,0.81
6461.00,0.81
6460.00,0.81
6459.00,0.81
6458.00,0.82
6457.00,0.82
6456.00,0.82
6455.00,0.82
6454.00,0.82
6453.00,0.82
6452.00,0.82
6451.00,0.82
6450.00,0.82
6449.00,0.82
6448.00,0.82
6447.00,0.82
6446.00,0.82
6445.00,0.82
6444.00,0.82
6443.00,0.82
6442.00,0.82
6441.00,0.82
6440.00,0.82
6439.00,0.82
6438.00,0.82
6437.00,0.82
6436.00,0.82
6435.00,0.82
6434.00,0.82
6433.00,0.82
6432.00,0.82
6431.00,0.83
6430.00,0.83
6429.00,0.83
6428.00,0.83
6427.00,0.83
6426.00,0.83
6425.00,0.83
6424.00,0.84
6423.00,0.84
6422.00,0.84
6421.00,0.84
6420.00,0.84
6419.00,0.84
6418.00,0.84
6417.00,0.85
6416.00,0.85
6415.00,0.85
6414.00,0.85
6413.00,0.85
6412.00,0.85
6411.00,0.85
6410.00,0.85
6409.00,0.85
6408.00,0.85
6407.00,0.85
6406.00,0.85
6405.00,0.85
6404.00,0.85
6403.00,0.85
6402.00,0.85
6401.00,0.85
6400.00,0.85
6399.00,0.85
6398.00,0.85
6397.00,0.85
6396.00,0.85
6395.00,0.85
6394.00,0.85
6393.00,0.85
6392.00,0.86
6391.00,0.86
6390.00,0.86
6389.00,0.86
6388.00,0.86
6387.00,0.86
6386.00,0.86
6385.00,0.86
6384.00,0.86
6383.00,0.86
6382.00,0.87
6381.00,0.87
6380.00,0.87
6379.00,0.87
6378.00,0.87
6377.00,0.87
6376.00,0.87
6375.00,0.87
6374.00,0.87
6373.00,0.87
6372.00,0.87
6371.00,0.87
6370.00,0.87
6369.00,0.87
6368.00,0.87
6367.00,0.87
6366.00,0.87
6365.00,0.87
6364.00,0.87
6363.00,0.87
6362.00,0.87
6361.00,0.87
6360.00,0.87
6359.00,0.87
6358.00,0.87
6357.00,0.87
6356.00,0.87
6355.00,0.88
6354.00,0.88
6353.00,0.88
6352.00,0.88
6351.00,0.88
6350.00,0.88
6349.00,0.88
6348.00,0.89
6347.00,0.89
6346.00,0.89
6345.00,0.89
6344.00,0.89
6343.00,0.89
6342.00,0.90
6341.00,0.90
6340.00,0.90
6339.00,0.90
6338.00,0.90
6337.00,0.90
6336.00,0.90
6335.00,0.90
6334.00,0.90
6333.00,0.90
6332.00,0.91
6331.00,0.91
6330.00,0.91
6329.00,0.91
6328.00,0.91
6327.00,0.91
6326.00,0.91
6325.00,0.91
6324.00,0.91
6323.00,0.91
6322.00,0.91
6321.00,0.91
6320.00,0.91
6319.00,0.91
6318.00,0.91
6317.00,0.92
6316.00,0.92
6315.00,0.92
6314.00,0.92
6313.00,0.92
6312.00,0.92
6311.00,0.92
6310.00,0.92
6309.00,0.92
6308.00,0.92
6307.00,0.92
6306.00,0.92
6305.00,0.93
6304.00,0.93
6303.00,0.93
6302.00,0.93
6301.00,0.93
6300.00,0.93
6299.00,0.93
6298.00,0.93
6297.00,0.93
6296.00,0.94
6295.00,0.94
6294.00,0.94
6293.00,0.94
6292.00,0.94
6291.00,0.94
6290.00,0.94
6289.00,0.94
6288.00,0.95
6287.00,0.95
6286.00,0.95
6285.00,0.95
6284.00,0.95
6283.00,0.95
6282.00,0.95
6281.00,0.95
6280.00,0.95
6279.00,0.96
6278.00,0.96
6277.00,0.96
6276.00,0.96
6275.00,0.96
6274.00,0.96
6273.00,0.96
6272.00,0.96
6271.00,0.96
6270.00,0.96
6269.00,0.96
6268.00,0.96
6267.00,0.96
6266.00,0.96
6265.00,0.96
6264.00,0.96
6263.00,0.97
6262.00,0.97
6261.00,0.97
6260.00,0.97
6259.00,0.97
6258.00,0.97
6257.00,0.97
6256.00,0.97
6255.00,0.97
6254.00,0.98
6253.00,0.98
6252.00,0.98
6251.00,0.98
6250.00,0.98
6249.00,0.98
6248.00,0.98
6247.00,0.98
6246.00,0.98
6245.00,0.98
6244.00,0.98
6243.00,0.98
6242.00,0.98
6241.00,0.98
6240.00,0.98
6239.00,0.99
6238.00,0.99
6237.00,0.99
6236.00,0.99
6235.00,0.99
6234.00,0.99
6233.00,0.99
6232.00,0.99
6231.00,0.99
6230.00,0.99
6229.00,0.99
6228.00,0.99
6227.00,0.99
6226.00,0.99
6225.00,0.99
6224.00,1.00
6223.00,1.00
6222.00,1.00
6221.00,1.00
6220.00,1.00
6219.00,1.00
6218.00,1.00
6217.00,1.01
6216.00,1.01
6215.00,1.01
6214.00,1.01
6213.00,1.01
6212.00,1.01
6211.00,1.01
6210.00,1.01
6209.00,1.01
6208.00,1.01
6207.00,1.01
6206.00,1.02
6205.00,1.02
6204.00,1.02
6203.00,1.02
6202.00,1.02
6201.00,1.02
6200.00,1.02
6199.00,1.02
6198.00,1.02
6197.00,1.03
6196.00,1.03
6195.00,1.03
6194.00,1.03
6193.00,1.03
6192.00,1.03
6191.00,1.04
6190.00,1.04
6189.00,1.04
6188.00,1.04
6187.00,1.04
6186.00,1.04
6185.00,1.04
6184.00,1.05
6183.00,1.05
6182.00,1.05
6181.00,1.05
6180.00,1.05
6179.00,1.05
6178.00,1.05
6177.00,1.06
6176.00,1.06
6175.00,1.06
6174.00,1.06
6173.00,1.06
6172.00,1.06
6171.00,1.06
6170.00,1.07
6169.00,1.07
6168.00,1.07
6167.00,1.07
6166.00,1.07
6165.00,1.07
6164.00,1.07
6163.00,1.07
6162.00,1.08
6161.00,1.08
6160.00,1.08
6159.00,1.08
6158.00,1.08
6157.00,1.08
6156.00,1.08
6155.00,1.08
6154.00,1.09
6153.00,1.09
6152.00,1.09
6151.00,1.09
6150.00,1.09
6149.00,1.09
6148.00,1.09
6147.00,1.09
6146.00,1.10
6145.00,1.10
6144.00,1.10
6143.00,1.10
6142.00,1.10
6141.00,1.10
6140.00,1.10
6139.00,1.10
6138.00,1.10
6137.00,1.10
6136.00,1.10
6135.00,1.11
6134.00,1.11
6133.00,1.11
6132.00,1.11
6131.00,1.11
6130.00,1.11
6129.00,1.11
6128.00,1.12
6127.00,1.12
6126.00,1.12
6125.00,1.12
6124.00,1.12
6123.00,1.13
6122.00,1.13
6121.00,1.13
6120.00,1.13
6119.00,1.13
6118.00,1.14
6117.00,1.14
6116.00,1.14
6115.00,1.14
6114.00,1.14
6113.00,1.15
6112.00,1.15
6111.00,1.15
6110.00,1.15
6109.00,1.15
6108.00,1.15
6107.00,1.15
6106.00,1.15
6105.00,1.15
6104.00,1.15
6103.00,1.15
6102.00,1.15
6101.00,1.15
6100.00,1.15
6099.00,1.15
6098.00,1.15
6097.00,1.15
6096.00,1.15
6095.00,1.15
6094.00,1.15
6093.00,1.15
6092.00,1.15
6091.00,1.15
6090.00,1.15
6089.00,1.15
6088.00,1.16
6087.00,1.16
6086.00,1.16
6085.00,1.16
6084.00,1.16
6083.00,1.16
6082.00,1.16
6081.00,1.16
6080.00,1.16
6079.00,1.16
6078.00,1.16
6077.00,1.16
6076.00,1.16
6075.00,1.17
6074.00,1.17
6073.00,1.17
6072.00,1.17
6071.00,1.17
6070.00,1.17
6069.00,1.17
6068.00,1.17
6067.00,1.17
6066.00,1.18
6065.00,1.18
6064.00,1.18
6063.00,1.18
6062.00,1.18
6061.00,1.18
6060.00,1.18
6059.00,1.19
6058.00,1.19
6057.00,1.19
6056.00,1.19
6055.00,1.19
6054.00,1.19
6053.00,1.19
6052.00,1.19
6051.00,1.19
6050.00,1.19
6049.00,1.19
6048.00,1.19
6047.00,1.19
6046.00,1.19
6045.00,1.19
6044.00,1.20
6043.00,1.20
6042.00,1.20
6041.00,1.20
6040.00,1.20
6039.00,1.20
6038.00,1.20
6037.00,1.20
6036.00,1.20
6035.00,1.20
6034.00,1.20
6033.00,1.20
6032.00,1.20
6031.00,1.20
6030.00,1.20
6029.00,1.20
6028.00,1.20
6027.00,1.20
6026.00,1.20
6025.00,1.20
6024.00,1.20
6023.00,1.21
6022.00,1.21
6021.00,1.21
6020.00,1.21
6019.00,1.21
6018.00,1.21
6017.00,1.21
6016.00,1.21
6015.00,1.21
6014.00,1.21
6013.00,1.21
6012.00,1.21
6011.00,1.21
6010.00,1.21
6009.00,1.21
6008.00,1.21
6007.00,1.21
6006.00,1.21
6005.00,1.21
6004.00,1.21
6003.00,1.21
6002.00,1.21
6001.00,1.21
6000.00,1.21
5999.00,1.21
5998.00,1.20
5997.00,1.20
5996.00,1.20
5995.00,1.20
5994.00,1.20
5993.00,1.20
5992.00,1.20
5991.00,1.19
5990.00,1.19
5989.00,1.19
5988.00,1.19
5987.00,1.19
5986.00,1.19
5985.00,1.18
5984.00,1.18
5983.00,1.18
5982.00,1.18
5981.00,1.18
5980.00,1.17
5979.00,1.17
5978.00,1.17
5977.00,1.17
5976.00,1.16
5975.00,1.16
5974.00,1.16
5973.00,1.15
5972.00,1.15
5971.00,1.15
5970.00,1.14
5969.00,1.14
5968.00,1.13
5967.00,1.13
5966.00,1.12
5965.00,1.12
5964.00,1.11
5963.00,1.11
5962.00,1.10
5961.00,1.10
5960.00,1.09
5959.00,1.09
5958.00,1.08
5957.00,1.08
5956.00,1.07
5955.00,1.07
5954.00,1.06
5953.00,1.06
5952.00,1.05
5951.00,1.05
5950.00,1.04
5949.00,1.04
5948.00,1.04
5947.00,1.03
5946.00,1.03
5945.00,1.03
5944.00,1.03
5943.00,1.02
5942.00,1.02
5941.00,1.02
5940.00,1.02
5939.00,1.02
5938.00,1.02
5937.00,1.02
5936.00,1.02
5935.00,1.02
5934.00,1.02
5933.00,1.02
5932.00,1.02
5931.00,1.02
5930.00,1.02
5929.00,1.02
5928.00,1.02
5927.00,1.01
5926.00,1.01
5925.00,1.01
5924.00,1.01
5923.00,1.01
5922.00,1.01
5921.00,1.01
5920.00,1.01
5919.00,1.00
5918.00,1.00
5917.00,1.00
5916.00,1.00
5915.00,1.00
5914.00,0.99
5913.00,0.99
5912.00,0.99
5911.00,0.99
5910.00,0.99
5909.00,0.98
5908.00,0.98
5907.00,0.98
5906.00,0.98
5905.00,0.98
5904.00,0.98
5903.00,0.98
5902.00,0.98
5901.00,0.98
5900.00,0.98
5899.00,0.98
5898.00,0.98
5897.00,0.99
5896.00,0.99
5895.00,0.99
5894.00,0.99
5893.00,0.99
5892.00,0.99
5891.00,1.00
5890.00,1.00
5889.00,1.00
5888.00,1.00
5887.00,1.00
5886.00,1.01
5885.00,1.01
5884.00,1.01
5883.00,1.01
5882.00,1.01
5881.00,1.01
5880.00,1.01
5879.00,1.02
5878.00,1.02
5877.00,1.02
5876.00,1.02
5875.00,1.02
5874.00,1.02
5873.00,1.02
5872.00,1.03
5871.00,1.03
5870.00,1.03
5869.00,1.03
5868.00,1.04
5867.00,1.04
5866.00,1.04
5865.00,1.04
5864.00,1.04
5863.00,1.05
5862.00,1.05
5861.00,1.05
5860.00,1.05
5859.00,1.05
5858.00,1.06
5857.00,1.06
5856.00,1.06
5855.00,1.06
5854.00,1.06
5853.00,1.06
5852.00,1.06
5851.00,1.07
5850.00,1.07
5849.00,1.07
5848.00,1.07
5847.00,1.07
5846.00,1.07
5845.00,1.07
5844.00,1.07
5843.00,1.07
5842.00,1.07
5841.00,1.07
5840.00,1.07
5839.00,1.07
5838.00,1.07
5837.00,1.07
5836.00,1.07
5835.00,1.07
5834.00,1.07
5833.00,1.07
5832.00,1.07
5831.00,1.06
5830.00,1.06
5829.00,1.06
5828.00,1.06
5827.00,1.06
5826.00,1.06
5825.00,1.06
5824.00,1.06
5823.00,1.06
5822.00,1.06
5821.00,1.06
5820.00,1.06
5819.00,1.06
5818.00,1.06
5817.00,1.06
5816.00,1.06
5815.00,1.06
5814.00,1.06
5813.00,1.06
5812.00,1.06
5811.00,1.06
5810.00,1.06
5809.00,1.06
5808.00,1.06
5807.00,1.06
5806.00,1.06
5805.00,1.06
5804.00,1.05
5803.00,1.05
5802.00,1.05
5801.00,1.05
5800.00,1.05
5799.00,1.05
5798.00,1.05
5797.00,1.05
5796.00,1.05
5795.00,1.04
5794.00,1.04
5793.00,1.04
5792.00,1.04
5791.00,1.04
5790.00,1.04
5789.00,1.04
5788.00,1.03
5787.00,1.03
5786.00,1.03
5785.00,1.03
5784.00,1.03
5783.00,1.03
5782.00,1.03
5781.00,1.02
5780.00,1.02
5779.00,1.02
5778.00,1.02
5777.00,1.02
5776.00,1.02
5775.00,1.02
5774.00,1.02
5773.00,1.02
5772.00,1.02
5771.00,1.01
5770.00,1.01
5769.00,1.01
5768.00,1.02
5767.00,1.02
5766.00,1.02
5765.00,1.02
5764.00,1.02
5763.00,1.02
5762.00,1.02
5761.00,1.02
5760.00,1.03
5759.00,1.03
5758.00,1.03
5757.00,1.03
5756.00,1.04
5755.00,1.04
5754.00,1.04
5753.00,1.05
5752.00,1.05
5751.00,1.05
5750.00,1.05
5749.00,1.06
5748.00,1.06
5747.00,1.06
5746.00,1.06
5745.00,1.07
5744.00,1.07
5743.00,1.07
5742.00,1.07
5741.00,1.08
5740.00,1.08
5739.00,1.08
5738.00,1.08
5737.00,1.08
5736.00,1.08
5735.00,1.09
5734.00,1.09
5733.00,1.09
5732.00,1.09
5731.00,1.09
5730.00,1.09
5729.00,1.09
5728.00,1.09
5727.00,1.09
5726.00,1.09
5725.00,1.09
5724.00,1.09
5723.00,1.09
5722.00,1.09
5721.00,1.09
5720.00,1.09
5719.00,1.09
5718.00,1.09
5717.00,1.09
5716.00,1.09
5715.00,1.09
5714.00,1.09
5713.00,1.09
5712.00,1.09
5711.00,1.09
5710.00,1.09
5709.00,1.09
5708.00,1.09
5707.00,1.09
5706.00,1.09
5705.00,1.09
5704.00,1.09
5703.00,1.09
5702.00,1.09
5701.00,1.09
5700.00,1.09
5699.00,1.08
5698.00,1.08
5697.00,1.08
5696.00,1.08
5695.00,1.08
5694.00,1.08
5693.00,1.08
5692.00,1.08
5691.00,1.08
5690.00,1.08
5689.00,1.07
5688.00,1.07
5687.00,1.07
5686.00,1.07
5685.00,1.07
5684.00,1.07
5683.00,1.07
5682.00,1.07
5681.00,1.06
5680.00,1.06
5679.00,1.06
5678.00,1.06
5677.00,1.06
5676.00,1.06
5675.00,1.06
5674.00,1.06
5673.00,1.06
5672.00,1.06
5671.00,1.06
5670.00,1.06
5669.00,1.06
5668.00,1.06
5667.00,1.06
5666.00,1.06
5665.00,1.06
5664.00,1.06
5663.00,1.06
5662.00,1.06
5661.00,1.06
5660.00,1.06
5659.00,1.06
5658.00,1.07
5657.00,1.07
5656.00,1.07
5655.00,1.07
5654.00,1.07
5653.00,1.07
5652.00,1.07
5651.00,1.07
5650.00,1.07
5649.00,1.07
5648.00,1.07
5647.00,1.08
5646.00,1.08
5645.00,1.08
5644.00,1.08
5643.00,1.08
5642.00,1.08
5641.00,1.08
5640.00,1.09
5639.00,1.09
5638.00,1.09
5637.00,1.09
5636.00,1.09
5635.00,1.10
5634.00,1.10
5633.00,1.10
5632.00,1.10
5631.00,1.10
5630.00,1.10
5629.00,1.11
5628.00,1.11
5627.00,1.11
5626.00,1.11
5625.00,1.11
5624.00,1.11
5623.00,1.11
5622.00,1.11
5621.00,1.11
5620.00,1.11
5619.00,1.11
5618.00,1.12
5617.00,1.12
5616.00,1.12
5615.00,1.12
5614.00,1.12
5613.00,1.12
5612.00,1.12
5611.00,1.12
5610.00,1.12
5609.00,1.12
5608.00,1.13
5607.00,1.13
5606.00,1.13
5605.00,1.13
5604.00,1.13
5603.00,1.13
5602.00,1.13
5601.00,1.13
5600.00,1.14
5599.00,1.14
5598.00,1.14
5597.00,1.14
5596.00,1.14
5595.00,1.14
5594.00,1.14
5593.00,1.15
5592.00,1.15
5591.00,1.15
5590.00,1.15
5589.00,1.15
5588.00,1.15
5587.00,1.15
5586.00,1.16
5585.00,1.16
5584.00,1.16
5583.00,1.16
5582.00,1.16
5581.00,1.16
5580.00,1.16
5579.00,1.16
5578.00,1.16
5577.00,1.16
5576.00,1.16
5575.00,1.16
5574.00,1.17
5573.00,1.17
5572.00,1.17
5571.00,1.17
5570.00,1.17
5569.00,1.17
5568.00,1.17
5567.00,1.17
5566.00,1.17
5565.00,1.17
5564.00,1.17
5563.00,1.18
5562.00,1.18
5561.00,1.18
5560.00,1.18
5559.00,1.18
5558.00,1.18
5557.00,1.18
5556.00,1.18
5555.00,1.18
5554.00,1.18
5553.00,1.18
5552.00,1.18
5551.00,1.18
5550.00,1.19
5549.00,1.19
5548.00,1.19
5547.00,1.19
5546.00,1.19
5545.00,1.19
5544.00,1.19
5543.00,1.19
5542.00,1.19
5541.00,1.19
5540.00,1.19
5539.00,1.19
5538.00,1.20
5537.00,1.20
5536.00,1.20
5535.00,1.20
5534.00,1.20
5533.00,1.20
5532.00,1.20
5531.00,1.20
5530.00,1.21
5529.00,1.21
5528.00,1.21
5527.00,1.21
5526.00,1.21
5525.00,1.21
5524.00,1.21
5523.00,1.21
5522.00,1.21
5521.00,1.21
5520.00,1.21
5519.00,1.21
5518.00,1.22
5517.00,1.22
5516.00,1.22
5515.00,1.22
5514.00,1.22
5513.00,1.22
5512.00,1.22
5511.00,1.22
5510.00,1.22
5509.00,1.22
5508.00,1.22
5507.00,1.22
5506.00,1.22
5505.00,1.22
5504.00,1.22
5503.00,1.22
5502.00,1.22
5501.00,1.23
5500.00,1.23
5499.00,1.23
5498.00,1.23
5497.00,1.23
5496.00,1.23
5495.00,1.23
5494.00,1.23
5493.00,1.23
5492.00,1.23
5491.00,1.23
5490.00,1.23
5489.00,1.23
5488.00,1.23
5487.00,1.23
5486.00,1.23
5485.00,1.23
5484.00,1.23
5483.00,1.24
5482.00,1.24
5481.00,1.24
5480.00,1.24
5479.00,1.24
5478.00,1.24
5477.00,1.24
5476.00,1.24
5475.00,1.24
5474.00,1.24
5473.00,1.24
5472.00,1.24
5471.00,1.24
5470.00,1.24
5469.00,1.24
5468.00,1.24
5467.00,1.24
5466.00,1.24
5465.00,1.25
5464.00,1.25
5463.00,1.25
5462.00,1.25
5461.00,1.25
5460.00,1.25
5459.00,1.25
5458.00,1.25
5457.00,1.25
5456.00,1.25
5455.00,1.25
5454.00,1.25
5453.00,1.25
5452.00,1.25
5451.00,1.25
5450.00,1.25
5449.00,1.25
5448.00,1.25
5447.00,1.25
5446.00,1.25
5445.00,1.25
5444.00,1.25
5443.00,1.25
5442.00,1.25
5441.00,1.25
5440.00,1.25
5439.00,1.25
5438.00,1.25
5437.00,1.25
5436.00,1.25
5435.00,1.25
5434.00,1.25
5433.00,1.25
5432.00,1.25
5431.00,1.26
5430.00,1.26
5429.00,1.26
5428.00,1.26
5427.00,1.26
5426.00,1.26
5425.00,1.26
5424.00,1.26
5423.00,1.26
5422.00,1.26
5421.00,1.26
5420.00,1.26
5419.00,1.26
5418.00,1.26
5417.00,1.26
5416.00,1.26
5415.00,1.26
5414.00,1.26
5413.00,1.26
5412.00,1.26
5411.00,1.26
5410.00,1.26
5409.00,1.26
5408.00,1.26
5407.00,1.26
5406.00,1.26
5405.00,1.26
5404.00,1.25
5403.00,1.25
5402.00,1.25
5401.00,1.25
5400.00,1.25
5399.00,1.25
5398.00,1.25
5397.00,1.24
5396.00,1.24
5395.00,1.24
5394.00,1.24
5393.00,1.23
5392.00,1.23
5391.00,1.23
5390.00,1.23
5389.00,1.23
5388.00,1.22
5387.00,1.22
5386.00,1.22
5385.00,1.22
5384.00,1.21
5383.00,1.21
5382.00,1.21
5381.00,1.20
5380.00,1.20
5379.00,1.20
5378.00,1.20
5377.00,1.19
5376.00,1.19
5375.00,1.19
5374.00,1.18
5373.00,1.18
5372.00,1.17
5371.00,1.17
5370.00,1.17
5369.00,1.16
5368.00,1.16
5367.00,1.16
5366.00,1.15
5365.00,1.15
5364.00,1.14
5363.00,1.14
5362.00,1.13
5361.00,1.13
5360.00,1.12
5359.00,1.11
5358.00,1.11
5357.00,1.10
5356.00,1.10
5355.00,1.09
5354.00,1.08
5353.00,1.07
5352.00,1.07
5351.00,1.06
5350.00,1.05
5349.00,1.04
5348.00,1.04
5347.00,1.03
5346.00,1.02
5345.00,1.01
5344.00,1.00
5343.00,1.00
5342.00,0.99
5341.00,0.98
5340.00,0.97
5339.00,0.96
5338.00,0.95
5337.00,0.94
5336.00,0.93
5335.00,0.93
5334.00,0.92
5333.00,0.91
5332.00,0.90
5331.00,0.89
5330.00,0.88
5329.00,0.87
5328.00,0.86
5327.00,0.86
5326.00,0.85
5325.00,0.84
5324.00,0.83
5323.00,0.82
5322.00,0.81
5321.00,0.81
5320.00,0.80
5319.00,0.79
5318.00,0.78
5317.00,0.77
5316.00,0.77
5315.00,0.76
5314.00,0.75
5313.00,0.75
5312.00,0.74
5311.00,0.73
5310.00,0.73
5309.00,0.72
5308.00,0.71
5307.00,0.71
5306.00,0.70
5305.00,0.70
5304.00,0.69
5303.00,0.69
5302.00,0.68
5301.00,0.68
5300.00,0.67
5299.00,0.67
5298.00,0.66
5297.00,0.66
5296.00,0.65
5295.00,0.65
5294.00,0.65
5293.00,0.64
5292.00,0.64
5291.00,0.64
5290.00,0.64
5289.00,0.63
5288.00,0.63
5287.00,0.63
5286.00,0.63
5285.00,0.62
5284.00,0.62
5283.00,0.62
5282.00,0.62
5281.00,0.62
5280.00,0.62
5279.00,0.62
5278.00,0.61
5277.00,0.61
5276.00,0.61
5275.00,0.61
5274.00,0.61
5273.00,0.61
5272.00,0.61
5271.00,0.61
5270.00,0.61
5269.00,0.61
5268.00,0.61
5267.00,0.61
5266.00,0.61
5265.00,0.61
5264.00,0.61
5263.00,0.61
5262.00,0.61
5261.00,0.61
5260.00,0.61
5259.00,0.61
5258.00,0.61
5257.00,0.61
5256.00,0.61
5255.00,0.61
5254.00,0.61
5253.00,0.61
5252.00,0.61
5251.00,0.61
5250.00,0.61
5249.00,0.61
5248.00,0.61
5247.00,0.61
5246.00,0.61
5245.00,0.61
5244.00,0.61
5243.00,0.61
5242.00,0.61
5241.00,0.61
5240.00,0.61
5239.00,0.61
5238.00,0.61
5237.00,0.61
5236.00,0.61
5235.00,0.61
5234.00,0.61
5233.00,0.61
5232.00,0.61
5231.00,0.61
5230.00,0.61
5229.00,0.61
5228.00,0.61
5227.00,0.61
5226.00,0.61
5225.00,0.61
5224.00,0.61
5223.00,0.61
5222.00,0.61
5221.00,0.62
5220.00,0.62
5219.00,0.62
5218.00,0.62
5217.00,0.62
5216.00,0.62
5215.00,0.62
5214.00,0.62
5213.00,0.62
5212.00,0.62
5211.00,0.62
5210.00,0.62
5209.00,0.62
5208.00,0.62
5207.00,0.62
5206.00,0.62
5205.00,0.62
5204.00,0.62
5203.00,0.62
5202.00,0.62
5201.00,0.62
5200.00,0.63
5199.00,0.63
5198.00,0.63
5197.00,0.63
5196.00,0.63
5195.00,0.63
5194.00,0.63
5193.00,0.63
5192.00,0.63
5191.00,0.63
5190.00,0.63
5189.00,0.63
5188.00,0.63
5187.00,0.63
5186.00,0.63
5185.00,0.63
5184.00,0.63
5183.00,0.63
5182.00,0.63
5181.00,0.63
5180.00,0.63
5179.00,0.63
5178.00,0.64
5177.00,0.64
5176.00,0.64
5175.00,0.64
5174.00,0.64
5173.00,0.64
5172.00,0.64
5171.00,0.64
5170.00,0.64
5169.00,0.64
5168.00,0.64
5167.00,0.64
5166.00,0.64
5165.00,0.64
5164.00,0.64
5163.00,0.64
5162.00,0.64
5161.00,0.64
5160.00,0.64
5159.00,0.64
5158.00,0.64
5157.00,0.64
5156.00,0.64
5155.00,0.64
5154.00,0.64
5153.00,0.64
5152.00,0.64
5151.00,0.64
5150.00,0.64
5149.00,0.64
5148.00,0.64
5147.00,0.64
5146.00,0.64
5145.00,0.64
5144.00,0.65
5143.00,0.65
5142.00,0.65
5141.00,0.65
5140.00,0.65
5139.00,0.65
5138.00,0.65
5137.00,0.65
5136.00,0.65
5135.00,0.65
5134.00,0.65
5133.00,0.65
5132.00,0.65
5131.00,0.65
5130.00,0.65
5129.00,0.65
5128.00,0.65
5127.00,0.65
5126.00,0.65
5125.00,0.65
5124.00,0.65
5123.00,0.65
5122.00,0.65
5121.00,0.65
5120.00,0.65
5119.00,0.65
5118.00,0.65
5117.00,0.65
5116.00,0.65
5115.00,0.65
5114.00,0.65
5113.00,0.66
5112.00,0.66
5111.00,0.66
5110.00,0.66
5109.00,0.66
5108.00,0.66
5107.00,0.66
5106.00,0.66
5105.00,0.66
5104.00,0.66
5103.00,0.66
5102.00,0.66
5101.00,0.66
5100.00,0.66
5099.00,0.67
5098.00,0.67
5097.00,0.67
5096.00,0.67
5095.00,0.67
5094.00,0.67
5093.00,0.67
5092.00,0.67
5091.00,0.67
5090.00,0.67
5089.00,0.67
5088.00,0.67
5087.00,0.67
5086.00,0.67
5085.00,0.67
5084.00,0.67
5083.00,0.67
5082.00,0.67
5081.00,0.67
5080.00,0.67
5079.00,0.67
5078.00,0.67
5077.00,0.67
5076.00,0.67
5075.00,0.67
5074.00,0.67
5073.00,0.67
5072.00,0.67
5071.00,0.68
5070.00,0.68
5069.00,0.68
5068.00,0.68
5067.00,0.68
5066.00,0.68
5065.00,0.68
5064.00,0.69
5063.00,0.69
5062.00,0.69
5061.00,0.69
5060.00,0.69
5059.00,0.69
5058.00,0.69
5057.00,0.69
5056.00,0.69
5055.00,0.69
5054.00,0.69
5053.00,0.69
5052.00,0.69
5051.00,0.69
5050.00,0.69
5049.00,0.69
5048.00,0.69
5047.00,0.69
5046.00,0.69
5045.00,0.69
5044.00,0.69
5043.00,0.69
5042.00,0.69
5041.00,0.69
5040.00,0.69
5039.00,0.70
5038.00,0.70
5037.00,0.70
5036.00,0.70
5035.00,0.70
5034.00,0.70
5033.00,0.70
5032.00,0.70
5031.00,0.70
5030.00,0.70
5029.00,0.70
5028.00,0.70
5027.00,0.70
5026.00,0.70
5025.00,0.70
5024.00,0.71
5023.00,0.71
5022.00,0.71
5021.00,0.71
5020.00,0.71
5019.00,0.71
5018.00,0.71
5017.00,0.71
5016.00,0.71
5015.00,0.71
5014.00,0.71
5013.00,0.71
5012.00,0.71
5011.00,0.71
5010.00,0.71
5009.00,0.71
5008.00,0.71
5007.00,0.71
5006.00,0.71
5005.00,0.71
5004.00,0.71
5003.00,0.71
5002.00,0.71
5001.00,0.71
5000.00,0.71
4999.00,0.71
4998.00,0.71
4997.00,0.71
4996.00,0.71
4995.00,0.71
4994.00,0.71
4993.00,0.71
4992.00,0.71
4991.00,0.71
4990.00,0.71
4989.00,0.71
4988.00,0.71
4987.00,0.71
4986.00,0.71
4985.00,0.72
4984.00,0.72
4983.00,0.72
4982.00,0.72
4981.00,0.72
4980.00,0.72
4979.00,0.73
4978.00,0.73
4977.00,0.73
4976.00,0.73
4975.00,0.73
4974.00,0.73
4973.00,0.73
4972.00,0.74
4971.00,0.74
4970.00,0.74
4969.00,0.74
4968.00,0.74
4967.00,0.74
4966.00,0.74
4965.00,0.74
4964.00,0.74
4963.00,0.74
4962.00,0.74
4961.00,0.75
4960.00,0.75
4959.00,0.75
4958.00,0.75
4957.00,0.75
4956.00,0.75
4955.00,0.75
4954.00,0.75
4953.00,0.75
4952.00,0.75
4951.00,0.75
4950.00,0.75
4949.00,0.75
4948.00,0.75
4947.00,0.75
4946.00,0.75
4945.00,0.75
4944.00,0.75
4943.00,0.75
4942.00,0.76
4941.00,0.76
4940.00,0.76
4939.00,0.76
4938.00,0.76
4937.00,0.76
4936.00,0.76
4935.00,0.77
4934.00,0.77
4933.00,0.77
4932.00,0.77
4931.00,0.77
4930.00,0.77
4929.00,0.77
4928.00,0.77
4927.00,0.77
4926.00,0.77
4925.00,0.77
4924.00,0.77
4923.00,0.77
4922.00,0.77
4921.00,0.77
4920.00,0.77
4919.00,0.77
4918.00,0.77
4917.00,0.77
4916.00,0.78
4915.00,0.78
4914.00,0.78
4913.00,0.78
4912.00,0.78
4911.00,0.78
4910.00,0.78
4909.00,0.78
4908.00,0.78
4907.00,0.78
4906.00,0.78
4905.00,0.78
4904.00,0.78
4903.00,0.78
4902.00,0.78
4901.00,0.78
4900.00,0.78
4899.00,0.78
4898.00,0.78
4897.00,0.78
4896.00,0.78
4895.00,0.78
4894.00,0.79
4893.00,0.79
4892.00,0.79
4891.00,0.79
4890.00,0.79
4889.00,0.79
4888.00,0.79
4887.00,0.79
4886.00,0.79
4885.00,0.79
4884.00,0.79
4883.00,0.79
4882.00,0.79
4881.00,0.80
4880.00,0.80
4879.00,0.80
4878.00,0.80
4877.00,0.80
4876.00,0.80
4875.00,0.80
4874.00,0.80
4873.00,0.80
4872.00,0.80
4871.00,0.80
4870.00,0.80
4869.00,0.80
4868.00,0.80
4867.00,0.80
4866.00,0.80
4865.00,0.81
4864.00,0.81
4863.00,0.81
4862.00,0.81
4861.00,0.81
4860.00,0.81
4859.00,0.81
4858.00,0.81
4857.00,0.81
4856.00,0.81
4855.00,0.81
4854.00,0.82
4853.00,0.82
4852.00,0.82
4851.00,0.82
4850.00,0.82
4849.00,0.82
4848.00,0.82
4847.00,0.82
4846.00,0.82
4845.00,0.82
4844.00,0.82
4843.00,0.82
4842.00,0.83
4841.00,0.83
4840.00,0.83
4839.00,0.83
4838.00,0.83
4837.00,0.83
4836.00,0.83
4835.00,0.83
4834.00,0.83
4833.00,0.83
4832.00,0.84
4831.00,0.84
4830.00,0.84
4829.00,0.84
4828.00,0.84
4827.00,0.84
4826.00,0.84
4825.00,0.84
4824.00,0.85
4823.00,0.85
4822.00,0.85
4821.00,0.85
4820.00,0.85
4819.00,0.85
4818.00,0.85
4817.00,0.85
4816.00,0.85
4815.00,0.85
4814.00,0.85
4813.00,0.85
4812.00,0.86
4811.00,0.86
4810.00,0.86
4809.00,0.86
4808.00,0.86
4807.00,0.86
4806.00,0.86
4805.00,0.86
4804.00,0.86
4803.00,0.86
4802.00,0.87
4801.00,0.87
4800.00,0.87
4799.00,0.87
4798.00,0.87
4797.00,0.87
4796.00,0.87
4795.00,0.88
4794.00,0.88
4793.00,0.88
4792.00,0.88
4791.00,0.88
4790.00,0.88
4789.00,0.89
4788.00,0.89
4787.00,0.89
4786.00,0.89
4785.00,0.89
4784.00,0.89
4783.00,0.89
4782.00,0.89
4781.00,0.90
4780.00,0.90
4779.00,0.90
4778.00,0.90
4777.00,0.90
4776.00,0.90
4775.00,0.90
4774.00,0.90
4773.00,0.90
4772.00,0.90
4771.00,0.91
4770.00,0.91
4769.00,0.91
4768.00,0.91
4767.00,0.91
4766.00,0.91
4765.00,0.91
4764.00,0.91
4763.00,0.91
4762.00,0.91
4761.00,0.91
4760.00,0.92
4759.00,0.92
4758.00,0.92
4757.00,0.92
4756.00,0.92
4755.00,0.92
4754.00,0.92
4753.00,0.92
4752.00,0.92
4751.00,0.93
4750.00,0.93
4749.00,0.93
4748.00,0.93
4747.00,0.93
4746.00,0.93
4745.00,0.93
4744.00,0.93
4743.00,0.93
4742.00,0.93
4741.00,0.93
4740.00,0.94
4739.00,0.94
4738.00,0.94
4737.00,0.94
4736.00,0.94
4735.00,0.94
4734.00,0.94
4733.00,0.95
4732.00,0.95
4731.00,0.95
4730.00,0.95
4729.00,0.95
4728.00,0.95
4727.00,0.96
4726.00,0.96
4725.00,0.96
4724.00,0.96
4723.00,0.96
4722.00,0.96
4721.00,0.96
4720.00,0.97
4719.00,0.97
4718.00,0.97
4717.00,0.97
4716.00,0.97
4715.00,0.97
4714.00,0.97
4713.00,0.97
4712.00,0.98
4711.00,0.98
4710.00,0.98
4709.00,0.98
4708.00,0.98
4707.00,0.98
4706.00,0.99
4705.00,0.99
4704.00,0.99
4703.00,0.99
4702.00,0.99
4701.00,0.99
4700.00,0.99
4699.00,1.00
4698.00,1.00
4697.00,1.00
4696.00,1.00
4695.00,1.00
4694.00,1.00
4693.00,1.00
4692.00,1.01
4691.00,1.01
4690.00,1.01
4689.00,1.01
4688.00,1.01
4687.00,1.01
4686.00,1.02
4685.00,1.02
4684.00,1.02
4683.00,1.02
4682.00,1.02
4681.00,1.02
4680.00,1.03
4679.00,1.03
4678.00,1.03
4677.00,1.03
4676.00,1.03
4675.00,1.04
4674.00,1.04
4673.00,1.04
4672.00,1.04
4671.00,1.04
4670.00,1.05
4669.00,1.05
4668.00,1.05
4667.00,1.05
4666.00,1.05
4665.00,1.05
4664.00,1.06
4663.00,1.06
4662.00,1.06
4661.00,1.06
4660.00,1.06
4659.00,1.06
4658.00,1.06
4657.00,1.06
4656.00,1.06
4655.00,1.06
4654.00,1.06
4653.00,1.06
4652.00,1.06
4651.00,1.06
4650.00,1.07
4649.00,1.07
4648.00,1.07
4647.00,1.07
4646.00,1.07
4645.00,1.07
4644.00,1.07
4643.00,1.07
4642.00,1.07
4641.00,1.07
4640.00,1.07
4639.00,1.07
4638.00,1.07
4637.00,1.07
4636.00,1.07
4635.00,1.07
4634.00,1.08
4633.00,1.08
4632.00,1.08
4631.00,1.08
4630.00,1.08
4629.00,1.08
4628.00,1.08
4627.00,1.08
4626.00,1.09
4625.00,1.09
4624.00,1.09
4623.00,1.09
4622.00,1.09
4621.00,1.09
4620.00,1.10
4619.00,1.10
4618.00,1.10
4617.00,1.10
4616.00,1.10
4615.00,1.10
4614.00,1.10
4613.00,1.10
4612.00,1.11
4611.00,1.11
4610.00,1.11
4609.00,1.11
4608.00,1.11
4607.00,1.11
4606.00,1.11
4605.00,1.11
4604.00,1.11
4603.00,1.11
4602.00,1.11
4601.00,1.11
4600.00,1.11
4599.00,1.11
4598.00,1.11
4597.00,1.11
4596.00,1.11
4595.00,1.12
4594.00,1.12
4593.00,1.12
4592.00,1.12
4591.00,1.12
4590.00,1.12
4589.00,1.12
4588.00,1.12
4587.00,1.12
4586.00,1.12
4585.00,1.12
4584.00,1.13
4583.00,1.13
4582.00,1.13
4581.00,1.13
4580.00,1.13
4579.00,1.13
4578.00,1.14
4577.00,1.14
4576.00,1.14
4575.00,1.14
4574.00,1.14
4573.00,1.15
4572.00,1.15
4571.00,1.15
4570.00,1.15
4569.00,1.15
4568.00,1.15
4567.00,1.16
4566.00,1.16
4565.00,1.16
4564.00,1.16
4563.00,1.16
4562.00,1.16
4561.00,1.16
4560.00,1.16
4559.00,1.16
4558.00,1.16
4557.00,1.16
4556.00,1.17
4555.00,1.17
4554.00,1.17
4553.00,1.17
4552.00,1.17
4551.00,1.17
4550.00,1.17
4549.00,1.17
4548.00,1.17
4547.00,1.17
4546.00,1.17
4545.00,1.17
4544.00,1.17
4543.00,1.17
4542.00,1.17
4541.00,1.17
4540.00,1.17
4539.00,1.17
4538.00,1.17
4537.00,1.17
4536.00,1.17
4535.00,1.17
4534.00,1.17
4533.00,1.17
4532.00,1.17
4531.00,1.17
4530.00,1.17
4529.00,1.17
4528.00,1.17
4527.00,1.17
4526.00,1.17
4525.00,1.17
4524.00,1.18
4523.00,1.18
4522.00,1.18
4521.00,1.18
4520.00,1.18
4519.00,1.18
4518.00,1.18
4517.00,1.18
4516.00,1.18
4515.00,1.18
4514.00,1.18
4513.00,1.18
4512.00,1.18
4511.00,1.18
4510.00,1.18
4509.00,1.18
4508.00,1.18
4507.00,1.18
4506.00,1.18
4505.00,1.18
4504.00,1.18
4503.00,1.18
4502.00,1.19
4501.00,1.19
4500.00,1.19
4499.00,1.19
4498.00,1.19
4497.00,1.19
4496.00,1.19
4495.00,1.19
4494.00,1.19
4493.00,1.19
4492.00,1.19
4491.00,1.19
4490.00,1.18
4489.00,1.18
4488.00,1.18
4487.00,1.18
4486.00,1.18
4485.00,1.18
4484.00,1.18
4483.00,1.18
4482.00,1.17
4481.00,1.17
4480.00,1.17
4479.00,1.17
4478.00,1.17
4477.00,1.16
4476.00,1.16
4475.00,1.16
4474.00,1.16
4473.00,1.15
4472.00,1.15
4471.00,1.15
4470.00,1.15
4469.00,1.15
4468.00,1.14
4467.00,1.14
4466.00,1.14
4465.00,1.14
4464.00,1.13
4463.00,1.13
4462.00,1.13
4461.00,1.13
4460.00,1.13
4459.00,1.12
4458.00,1.12
4457.00,1.12
4456.00,1.11
4455.00,1.11
4454.00,1.11
4453.00,1.10
4452.00,1.10
4451.00,1.10
4450.00,1.09
4449.00,1.09
4448.00,1.09
4447.00,1.08
4446.00,1.08
4445.00,1.08
4444.00,1.07
4443.00,1.07
4442.00,1.07
4441.00,1.06
4440.00,1.06
4439.00,1.06
4438.00,1.05
4437.00,1.05
4436.00,1.05
4435.00,1.04
4434.00,1.04
4433.00,1.04
4432.00,1.03
4431.00,1.03
4430.00,1.03
4429.00,1.02
4428.00,1.02
4427.00,1.02
4426.00,1.01
4425.00,1.01
4424.00,1.01
4423.00,1.01
4422.00,1.00
4421.00,1.00
4420.00,1.00
4419.00,1.00
4418.00,1.00
4417.00,0.99
4416.00,0.99
4415.00,0.99
4414.00,0.99
4413.00,0.99
4412.00,0.99
4411.00,0.99
4410.00,0.99
4409.00,0.99
4408.00,0.99
4407.00,0.99
4406.00,0.99
4405.00,0.99
4404.00,0.99
4403.00,0.99
4402.00,0.99
4401.00,0.99
4400.00,0.99
4399.00,0.99
4398.00,0.99
4397.00,0.99
4396.00,1.00
4395.00,1.00
4394.00,1.00
4393.00,1.00
4392.00,1.00
4391.00,1.00
4390.00,1.01
4389.00,1.01
4388.00,1.01
4387.00,1.01
4386.00,1.01
4385.00,1.02
4384.00,1.02
4383.00,1.02
4382.00,1.02
4381.00,1.02
4380.00,1.02
4379.00,1.03
4378.00,1.03
4377.00,1.03
4376.00,1.03
4375.00,1.03
4374.00,1.03
4373.00,1.03
4372.00,1.03
4371.00,1.03
4370.00,1.03
4369.00,1.03
4368.00,1.03
4367.00,1.03
4366.00,1.03
4365.00,1.03
4364.00,1.03
4363.00,1.03
4362.00,1.03
4361.00,1.03
4360.00,1.03
4359.00,1.03
4358.00,1.03
4357.00,1.03
4356.00,1.03
4355.00,1.03
4354.00,1.03
4353.00,1.03
4352.00,1.03
4351.00,1.03
4350.00,1.03
4349.00,1.03
4348.00,1.03
4347.00,1.03
4346.00,1.03
4345.00,1.03
4344.00,1.03
4343.00,1.03
4342.00,1.03
4341.00,1.03
4340.00,1.03
4339.00,1.03
4338.00,1.03
4337.00,1.04
4336.00,1.04
4335.00,1.04
4334.00,1.04
4333.00,1.04
4332.00,1.04
4331.00,1.04
4330.00,1.04
4329.00,1.04
4328.00,1.04
4327.00,1.05
4326.00,1.05
4325.00,1.05
4324.00,1.05
4323.00,1.05
4322.00,1.05
4321.00,1.05
4320.00,1.05
4319.00,1.05
4318.00,1.06
4317.00,1.06
4316.00,1.06
4315.00,1.06
4314.00,1.06
4313.00,1.06
4312.00,1.06
4311.00,1.07
4310.00,1.07
4309.00,1.07
4308.00,1.07
4307.00,1.07
4306.00,1.07
4305.00,1.08
4304.00,1.08
4303.00,1.08
4302.00,1.08
4301.00,1.08
4300.00,1.09
4299.00,1.09
4298.00,1.09
4297.00,1.09
4296.00,1.09
4295.00,1.10
4294.00,1.10
4293.00,1.10
4292.00,1.10
4291.00,1.10
4290.00,1.11
4289.00,1.11
4288.00,1.11
4287.00,1.11
4286.00,1.11
4285.00,1.11
4284.00,1.11
4283.00,1.11
4282.00,1.11
4281.00,1.11
4280.00,1.11
4279.00,1.11
4278.00,1.11
4277.00,1.11
4276.00,1.11
4275.00,1.11
4274.00,1.11
4273.00,1.11
4272.00,1.11
4271.00,1.11
4270.00,1.11
4269.00,1.11
4268.00,1.11
4267.00,1.11
4266.00,1.11
4265.00,1.11
4264.00,1.10
4263.00,1.10
4262.00,1.10
4261.00,1.10
4260.00,1.10
4259.00,1.10
4258.00,1.10
4257.00,1.10
4256.00,1.10
4255.00,1.10
4254.00,1.10
4253.00,1.10
4252.00,1.10
4251.00,1.10
4250.00,1.10
4249.00,1.10
4248.00,1.10
4247.00,1.11
4246.00,1.11
4245.00,1.11
4244.00,1.11
4243.00,1.11
4242.00,1.11
4241.00,1.12
4240.00,1.12
4239.00,1.12
4238.00,1.12
4237.00,1.12
4236.00,1.12
4235.00,1.12
4234.00,1.12
4233.00,1.12
4232.00,1.12
4231.00,1.12
4230.00,1.12
4229.00,1.12
4228.00,1.12
4227.00,1.12
4226.00,1.12
4225.00,1.13
4224.00,1.13
4223.00,1.13
4222.00,1.13
4221.00,1.13
4220.00,1.13
4219.00,1.13
4218.00,1.13
4217.00,1.13
4216.00,1.13
4215.00,1.13
4214.00,1.13
4213.00,1.13
4212.00,1.13
4211.00,1.13
4210.00,1.14
4209.00,1.14
4208.00,1.14
4207.00,1.14
4206.00,1.14
4205.00,1.14
4204.00,1.14
4203.00,1.14
4202.00,1.14
4201.00,1.14
4200.00,1.14
4199.00,1.14
4198.00,1.14
4197.00,1.14
4196.00,1.14
4195.00,1.14
4194.00,1.14
4193.00,1.14
4192.00,1.14
4191.00,1.14
4190.00,1.14
4189.00,1.14
4188.00,1.14
4187.00,1.14
4186.00,1.14
4185.00,1.14
4184.00,1.14
4183.00,1.14
4182.00,1.14
4181.00,1.14
4180.00,1.14
4179.00,1.14
4178.00,1.14
4177.00,1.14
4176.00,1.14
4175.00,1.14
4174.00,1.14
4173.00,1.14
4172.00,1.14
4171.00,1.14
4170.00,1.14
4169.00,1.14
4168.00,1.14
4167.00,1.14
4166.00,1.14
4165.00,1.14
4164.00,1.14
4163.00,1.14
4162.00,1.14
4161.00,1.14
4160.00,1.14
4159.00,1.14
4158.00,1.14
4157.00,1.14
4156.00,1.14
4155.00,1.14
4154.00,1.14
4153.00,1.14
4152.00,1.14
4151.00,1.14
4150.00,1.15
4149.00,1.15
4148.00,1.15
4147.00,1.15
4146.00,1.15
4145.00,1.15
4144.00,1.15
4143.00,1.15
4142.00,1.15
4141.00,1.15
4140.00,1.16
4139.00,1.16
4138.00,1.16
4137.00,1.16
4136.00,1.16
4135.00,1.16
4134.00,1.17
4133.00,1.17
4132.00,1.17
4131.00,1.17
4130.00,1.17
4129.00,1.17
4128.00,1.17
4127.00,1.18
4126.00,1.18
4125.00,1.18
4124.00,1.18
4123.00,1.18
4122.00,1.18
4121.00,1.17
4120.00,1.17
4119.00,1.17
4118.00,1.17
4117.00,1.17
4116.00,1.16
4115.00,1.16
4114.00,1.16
4113.00,1.16
4112.00,1.16
4111.00,1.16
4110.00,1.15
4109.00,1.15
4108.00,1.15
4107.00,1.15
4106.00,1.15
4105.00,1.15
4104.00,1.16
4103.00,1.16
4102.00,1.16
4101.00,1.16
4100.00,1.16
4099.00,1.16
4098.00,1.16
4097.00,1.17
4096.00,1.17
4095.00,1.17
4094.00,1.17
4093.00,1.17
4092.00,1.17
4091.00,1.17
4090.00,1.17
4089.00,1.18
4088.00,1.18
4087.00,1.18
4086.00,1.18
4085.00,1.18
4084.00,1.18
4083.00,1.18
4082.00,1.18
4081.00,1.18
4080.00,1.18
4079.00,1.18
4078.00,1.18
4077.00,1.18
4076.00,1.18
4075.00,1.18
4074.00,1.18
4073.00,1.17
4072.00,1.17
4071.00,1.17
4070.00,1.17
4069.00,1.17
4068.00,1.17
4067.00,1.17
4066.00,1.17
4065.00,1.17
4064.00,1.17
4063.00,1.17
4062.00,1.17
4061.00,1.17
4060.00,1.17
4059.00,1.17
4058.00,1.17
4057.00,1.17
4056.00,1.17
4055.00,1.18
4054.00,1.18
4053.00,1.18
4052.00,1.18
4051.00,1.18
4050.00,1.18
4049.00,1.19
4048.00,1.19
4047.00,1.19
4046.00,1.19
4045.00,1.19
4044.00,1.19
4043.00,1.20
4042.00,1.20
4041.00,1.20
4040.00,1.20
4039.00,1.20
4038.00,1.20
4037.00,1.21
4036.00,1.21
4035.00,1.21
4034.00,1.21
4033.00,1.21
4032.00,1.21
4031.00,1.22
4030.00,1.22
4029.00,1.22
4028.00,1.22
4027.00,1.23
4026.00,1.23
4025.00,1.23
4024.00,1.24
4023.00,1.24
4022.00,1.24
4021.00,1.25
4020.00,1.25
4019.00,1.25
4018.00,1.25
4017.00,1.26
4016.00,1.26
4015.00,1.26
4014.00,1.26
4013.00,1.26
4012.00,1.26
4011.00,1.26
4010.00,1.26
4009.00,1.26
4008.00,1.26
4007.00,1.26
4006.00,1.26
4005.00,1.26
4004.00,1.26
4003.00,1.26
4002.00,1.26
4001.00,1.26
4000.00,1.26
