创建为新数据集,样品 144 用户 Administrator 日期 星期三, 十一月 08 2017
cm-1,%T
10000.00,1.32
9999.00,1.33
9998.00,1.33
9997.00,1.33
9996.00,1.33
9995.00,1.33
9994.00,1.34
9993.00,1.34
9992.00,1.34
9991.00,1.34
9990.00,1.35
9989.00,1.35
9988.00,1.35
9987.00,1.35
9986.00,1.35
9985.00,1.35
9984.00,1.36
9983.00,1.36
9982.00,1.36
9981.00,1.36
9980.00,1.36
9979.00,1.36
9978.00,1.36
9977.00,1.36
9976.00,1.36
9975.00,1.36
9974.00,1.36
9973.00,1.35
9972.00,1.35
9971.00,1.35
9970.00,1.35
9969.00,1.35
9968.00,1.35
9967.00,1.36
9966.00,1.36
9965.00,1.36
9964.00,1.36
9963.00,1.36
9962.00,1.36
9961.00,1.36
9960.00,1.36
9959.00,1.36
9958.00,1.36
9957.00,1.36
9956.00,1.36
9955.00,1.35
9954.00,1.35
9953.00,1.35
9952.00,1.35
9951.00,1.34
9950.00,1.34
9949.00,1.34
9948.00,1.34
9947.00,1.33
9946.00,1.33
9945.00,1.33
9944.00,1.33
9943.00,1.32
9942.00,1.32
9941.00,1.32
9940.00,1.32
9939.00,1.32
9938.00,1.32
9937.00,1.32
9936.00,1.32
9935.00,1.32
9934.00,1.32
9933.00,1.32
9932.00,1.32
9931.00,1.32
9930.00,1.32
9929.00,1.33
9928.00,1.33
9927.00,1.33
9926.00,1.33
9925.00,1.33
9924.00,1.33
9923.00,1.33
9922.00,1.33
9921.00,1.33
9920.00,1.33
9919.00,1.33
9918.00,1.32
9917.00,1.32
9916.00,1.32
9915.00,1.32
9914.00,1.32
9913.00,1.32
9912.00,1.32
9911.00,1.32
9910.00,1.32
9909.00,1.32
9908.00,1.32
9907.00,1.32
9906.00,1.32
9905.00,1.32
9904.00,1.32
9903.00,1.32
9902.00,1.32
9901.00,1.32
9900.00,1.32
9899.00,1.32
9898.00,1.32
9897.00,1.32
9896.00,1.32
9895.00,1.32
9894.00,1.32
9893.00,1.32
9892.00,1.32
9891.00,1.32
9890.00,1.32
9889.00,1.32
9888.00,1.33
9887.00,1.33
9886.00,1.33
9885.00,1.33
9884.00,1.33
9883.00,1.33
9882.00,1.33
9881.00,1.33
9880.00,1.33
9879.00,1.33
9878.00,1.33
9877.00,1.33
9876.00,1.33
9875.00,1.33
9874.00,1.33
9873.00,1.33
9872.00,1.33
9871.00,1.33
9870.00,1.33
9869.00,1.33
9868.00,1.33
9867.00,1.33
9866.00,1.33
9865.00,1.33
9864.00,1.33
9863.00,1.33
9862.00,1.33
9861.00,1.33
9860.00,1.33
9859.00,1.33
9858.00,1.33
9857.00,1.33
9856.00,1.33
9855.00,1.33
9854.00,1.33
9853.00,1.33
9852.00,1.34
9851.00,1.34
9850.00,1.34
9849.00,1.34
9848.00,1.34
9847.00,1.34
9846.00,1.34
9845.00,1.34
9844.00,1.34
9843.00,1.34
9842.00,1.34
9841.00,1.34
9840.00,1.34
9839.00,1.34
9838.00,1.34
9837.00,1.34
9836.00,1.34
9835.00,1.34
9834.00,1.34
9833.00,1.34
9832.00,1.34
9831.00,1.34
9830.00,1.34
9829.00,1.34
9828.00,1.34
9827.00,1.34
9826.00,1.34
9825.00,1.34
9824.00,1.34
9823.00,1.34
9822.00,1.34
9821.00,1.34
9820.00,1.33
9819.00,1.33
9818.00,1.33
9817.00,1.33
9816.00,1.33
9815.00,1.33
9814.00,1.33
9813.00,1.32
9812.00,1.32
9811.00,1.32
9810.00,1.32
9809.00,1.32
9808.00,1.32
9807.00,1.32
9806.00,1.32
9805.00,1.32
9804.00,1.32
9803.00,1.33
9802.00,1.33
9801.00,1.33
9800.00,1.33
9799.00,1.33
9798.00,1.34
9797.00,1.34
9796.00,1.34
9795.00,1.34
9794.00,1.34
9793.00,1.35
9792.00,1.35
9791.00,1.35
9790.00,1.35
9789.00,1.35
9788.00,1.35
9787.00,1.35
9786.00,1.35
9785.00,1.34
9784.00,1.34
9783.00,1.34
9782.00,1.34
9781.00,1.34
9780.00,1.34
9779.00,1.33
9778.00,1.33
9777.00,1.33
9776.00,1.33
9775.00,1.33
9774.00,1.33
9773.00,1.33
9772.00,1.33
9771.00,1.33
9770.00,1.33
9769.00,1.33
9768.00,1.33
9767.00,1.33
9766.00,1.33
9765.00,1.33
9764.00,1.33
9763.00,1.33
9762.00,1.33
9761.00,1.34
9760.00,1.34
9759.00,1.34
9758.00,1.34
9757.00,1.34
9756.00,1.34
9755.00,1.34
9754.00,1.34
9753.00,1.34
9752.00,1.34
9751.00,1.34
9750.00,1.34
9749.00,1.34
9748.00,1.34
9747.00,1.34
9746.00,1.34
9745.00,1.34
9744.00,1.34
9743.00,1.34
9742.00,1.34
9741.00,1.34
9740.00,1.34
9739.00,1.34
9738.00,1.34
9737.00,1.34
9736.00,1.34
9735.00,1.34
9734.00,1.35
9733.00,1.35
9732.00,1.35
9731.00,1.35
9730.00,1.35
9729.00,1.35
9728.00,1.35
9727.00,1.35
9726.00,1.35
9725.00,1.35
9724.00,1.34
9723.00,1.34
9722.00,1.34
9721.00,1.34
9720.00,1.34
9719.00,1.34
9718.00,1.34
9717.00,1.33
9716.00,1.33
9715.00,1.33
9714.00,1.33
9713.00,1.33
9712.00,1.32
9711.00,1.32
9710.00,1.32
9709.00,1.32
9708.00,1.32
9707.00,1.32
9706.00,1.32
9705.00,1.32
9704.00,1.32
9703.00,1.32
9702.00,1.32
9701.00,1.32
9700.00,1.32
9699.00,1.32
9698.00,1.33
9697.00,1.33
9696.00,1.33
9695.00,1.34
9694.00,1.34
9693.00,1.34
9692.00,1.34
9691.00,1.34
9690.00,1.34
9689.00,1.35
9688.00,1.35
9687.00,1.34
9686.00,1.34
9685.00,1.34
9684.00,1.34
9683.00,1.34
9682.00,1.33
9681.00,1.33
9680.00,1.33
9679.00,1.33
9678.00,1.32
9677.00,1.32
9676.00,1.32
9675.00,1.32
9674.00,1.31
9673.00,1.31
9672.00,1.31
9671.00,1.31
9670.00,1.31
9669.00,1.31
9668.00,1.31
9667.00,1.31
9666.00,1.31
9665.00,1.31
9664.00,1.31
9663.00,1.31
9662.00,1.31
9661.00,1.32
9660.00,1.32
9659.00,1.32
9658.00,1.32
9657.00,1.32
9656.00,1.32
9655.00,1.32
9654.00,1.33
9653.00,1.33
9652.00,1.33
9651.00,1.33
9650.00,1.33
9649.00,1.33
9648.00,1.33
9647.00,1.33
9646.00,1.33
9645.00,1.33
9644.00,1.33
9643.00,1.33
9642.00,1.33
9641.00,1.33
9640.00,1.33
9639.00,1.33
9638.00,1.33
9637.00,1.33
9636.00,1.33
9635.00,1.33
9634.00,1.33
9633.00,1.33
9632.00,1.33
9631.00,1.33
9630.00,1.33
9629.00,1.33
9628.00,1.33
9627.00,1.33
9626.00,1.33
9625.00,1.33
9624.00,1.33
9623.00,1.33
9622.00,1.34
9621.00,1.34
9620.00,1.34
9619.00,1.34
9618.00,1.34
9617.00,1.34
9616.00,1.34
9615.00,1.34
9614.00,1.34
9613.00,1.34
9612.00,1.34
9611.00,1.34
9610.00,1.34
9609.00,1.34
9608.00,1.33
9607.00,1.33
9606.00,1.33
9605.00,1.33
9604.00,1.33
9603.00,1.32
9602.00,1.32
9601.00,1.32
9600.00,1.32
9599.00,1.32
9598.00,1.32
9597.00,1.32
9596.00,1.32
9595.00,1.32
9594.00,1.32
9593.00,1.32
9592.00,1.32
9591.00,1.32
9590.00,1.33
9589.00,1.33
9588.00,1.33
9587.00,1.33
9586.00,1.34
9585.00,1.34
9584.00,1.34
9583.00,1.34
9582.00,1.34
9581.00,1.34
9580.00,1.35
9579.00,1.35
9578.00,1.35
9577.00,1.35
9576.00,1.35
9575.00,1.35
9574.00,1.35
9573.00,1.35
9572.00,1.35
9571.00,1.35
9570.00,1.35
9569.00,1.34
9568.00,1.34
9567.00,1.34
9566.00,1.34
9565.00,1.34
9564.00,1.34
9563.00,1.34
9562.00,1.34
9561.00,1.34
9560.00,1.34
9559.00,1.34
9558.00,1.34
9557.00,1.34
9556.00,1.34
9555.00,1.34
9554.00,1.34
9553.00,1.34
9552.00,1.34
9551.00,1.34
9550.00,1.33
9549.00,1.33
9548.00,1.33
9547.00,1.33
9546.00,1.33
9545.00,1.33
9544.00,1.33
9543.00,1.33
9542.00,1.33
9541.00,1.33
9540.00,1.33
9539.00,1.34
9538.00,1.34
9537.00,1.34
9536.00,1.34
9535.00,1.34
9534.00,1.34
9533.00,1.34
9532.00,1.35
9531.00,1.35
9530.00,1.35
9529.00,1.35
9528.00,1.35
9527.00,1.35
9526.00,1.34
9525.00,1.34
9524.00,1.34
9523.00,1.34
9522.00,1.34
9521.00,1.34
9520.00,1.34
9519.00,1.34
9518.00,1.33
9517.00,1.33
9516.00,1.33
9515.00,1.33
9514.00,1.33
9513.00,1.33
9512.00,1.33
9511.00,1.33
9510.00,1.33
9509.00,1.33
9508.00,1.33
9507.00,1.34
9506.00,1.34
9505.00,1.34
9504.00,1.34
9503.00,1.34
9502.00,1.34
9501.00,1.34
9500.00,1.35
9499.00,1.35
9498.00,1.35
9497.00,1.35
9496.00,1.35
9495.00,1.35
9494.00,1.35
9493.00,1.35
9492.00,1.36
9491.00,1.36
9490.00,1.36
9489.00,1.36
9488.00,1.36
9487.00,1.36
9486.00,1.36
9485.00,1.36
9484.00,1.36
9483.00,1.36
9482.00,1.36
9481.00,1.36
9480.00,1.35
9479.00,1.35
9478.00,1.35
9477.00,1.35
9476.00,1.35
9475.00,1.35
9474.00,1.35
9473.00,1.35
9472.00,1.34
9471.00,1.34
9470.00,1.34
9469.00,1.34
9468.00,1.34
9467.00,1.34
9466.00,1.33
9465.00,1.33
9464.00,1.33
9463.00,1.33
9462.00,1.33
9461.00,1.33
9460.00,1.33
9459.00,1.33
9458.00,1.33
9457.00,1.33
9456.00,1.33
9455.00,1.33
9454.00,1.34
9453.00,1.34
9452.00,1.34
9451.00,1.34
9450.00,1.34
9449.00,1.34
9448.00,1.35
9447.00,1.35
9446.00,1.35
9445.00,1.35
9444.00,1.35
9443.00,1.35
9442.00,1.35
9441.00,1.35
9440.00,1.35
9439.00,1.35
9438.00,1.36
9437.00,1.35
9436.00,1.35
9435.00,1.35
9434.00,1.35
9433.00,1.35
9432.00,1.35
9431.00,1.35
9430.00,1.35
9429.00,1.35
9428.00,1.35
9427.00,1.35
9426.00,1.34
9425.00,1.34
9424.00,1.34
9423.00,1.34
9422.00,1.34
9421.00,1.34
9420.00,1.34
9419.00,1.34
9418.00,1.34
9417.00,1.33
9416.00,1.33
9415.00,1.33
9414.00,1.33
9413.00,1.33
9412.00,1.33
9411.00,1.33
9410.00,1.33
9409.00,1.33
9408.00,1.33
9407.00,1.33
9406.00,1.33
9405.00,1.33
9404.00,1.33
9403.00,1.33
9402.00,1.33
9401.00,1.34
9400.00,1.34
9399.00,1.34
9398.00,1.34
9397.00,1.34
9396.00,1.34
9395.00,1.34
9394.00,1.34
9393.00,1.34
9392.00,1.34
9391.00,1.34
9390.00,1.34
9389.00,1.34
9388.00,1.35
9387.00,1.35
9386.00,1.35
9385.00,1.35
9384.00,1.35
9383.00,1.35
9382.00,1.35
9381.00,1.35
9380.00,1.35
9379.00,1.35
9378.00,1.35
9377.00,1.35
9376.00,1.35
9375.00,1.35
9374.00,1.35
9373.00,1.35
9372.00,1.35
9371.00,1.35
9370.00,1.35
9369.00,1.35
9368.00,1.35
9367.00,1.35
9366.00,1.35
9365.00,1.35
9364.00,1.35
9363.00,1.34
9362.00,1.34
9361.00,1.34
9360.00,1.34
9359.00,1.34
9358.00,1.34
9357.00,1.34
9356.00,1.34
9355.00,1.35
9354.00,1.35
9353.00,1.35
9352.00,1.35
9351.00,1.35
9350.00,1.35
9349.00,1.35
9348.00,1.35
9347.00,1.35
9346.00,1.35
9345.00,1.35
9344.00,1.35
9343.00,1.35
9342.00,1.35
9341.00,1.35
9340.00,1.35
9339.00,1.35
9338.00,1.35
9337.00,1.35
9336.00,1.35
9335.00,1.36
9334.00,1.36
9333.00,1.36
9332.00,1.36
9331.00,1.36
9330.00,1.36
9329.00,1.36
9328.00,1.36
9327.00,1.36
9326.00,1.36
9325.00,1.36
9324.00,1.36
9323.00,1.36
9322.00,1.35
9321.00,1.35
9320.00,1.35
9319.00,1.35
9318.00,1.35
9317.00,1.35
9316.00,1.35
9315.00,1.35
9314.00,1.35
9313.00,1.35
9312.00,1.35
9311.00,1.35
9310.00,1.35
9309.00,1.35
9308.00,1.35
9307.00,1.35
9306.00,1.35
9305.00,1.35
9304.00,1.35
9303.00,1.35
9302.00,1.35
9301.00,1.35
9300.00,1.35
9299.00,1.35
9298.00,1.35
9297.00,1.35
9296.00,1.35
9295.00,1.36
9294.00,1.36
9293.00,1.36
9292.00,1.36
9291.00,1.36
9290.00,1.36
9289.00,1.36
9288.00,1.36
9287.00,1.36
9286.00,1.36
9285.00,1.36
9284.00,1.36
9283.00,1.36
9282.00,1.36
9281.00,1.36
9280.00,1.36
9279.00,1.36
9278.00,1.36
9277.00,1.35
9276.00,1.35
9275.00,1.35
9274.00,1.35
9273.00,1.35
9272.00,1.35
9271.00,1.35
9270.00,1.35
9269.00,1.35
9268.00,1.35
9267.00,1.35
9266.00,1.35
9265.00,1.35
9264.00,1.35
9263.00,1.35
9262.00,1.35
9261.00,1.35
9260.00,1.34
9259.00,1.34
9258.00,1.34
9257.00,1.34
9256.00,1.34
9255.00,1.34
9254.00,1.34
9253.00,1.34
9252.00,1.34
9251.00,1.34
9250.00,1.33
9249.00,1.33
9248.00,1.33
9247.00,1.33
9246.00,1.33
9245.00,1.33
9244.00,1.33
9243.00,1.33
9242.00,1.33
9241.00,1.33
9240.00,1.33
9239.00,1.33
9238.00,1.33
9237.00,1.34
9236.00,1.34
9235.00,1.34
9234.00,1.34
9233.00,1.34
9232.00,1.34
9231.00,1.34
9230.00,1.34
9229.00,1.34
9228.00,1.34
9227.00,1.34
9226.00,1.34
9225.00,1.34
9224.00,1.34
9223.00,1.34
9222.00,1.34
9221.00,1.34
9220.00,1.34
9219.00,1.34
9218.00,1.34
9217.00,1.33
9216.00,1.33
9215.00,1.33
9214.00,1.33
9213.00,1.33
9212.00,1.33
9211.00,1.33
9210.00,1.33
9209.00,1.33
9208.00,1.33
9207.00,1.33
9206.00,1.33
9205.00,1.33
9204.00,1.33
9203.00,1.33
9202.00,1.33
9201.00,1.33
9200.00,1.33
9199.00,1.33
9198.00,1.33
9197.00,1.34
9196.00,1.34
9195.00,1.34
9194.00,1.34
9193.00,1.34
9192.00,1.34
9191.00,1.34
9190.00,1.34
9189.00,1.34
9188.00,1.34
9187.00,1.34
9186.00,1.34
9185.00,1.34
9184.00,1.34
9183.00,1.34
9182.00,1.34
9181.00,1.34
9180.00,1.34
9179.00,1.34
9178.00,1.34
9177.00,1.34
9176.00,1.34
9175.00,1.34
9174.00,1.35
9173.00,1.35
9172.00,1.35
9171.00,1.35
9170.00,1.35
9169.00,1.35
9168.00,1.35
9167.00,1.35
9166.00,1.35
9165.00,1.35
9164.00,1.35
9163.00,1.35
9162.00,1.35
9161.00,1.35
9160.00,1.35
9159.00,1.35
9158.00,1.35
9157.00,1.35
9156.00,1.35
9155.00,1.35
9154.00,1.35
9153.00,1.35
9152.00,1.35
9151.00,1.35
9150.00,1.35
9149.00,1.35
9148.00,1.35
9147.00,1.34
9146.00,1.34
9145.00,1.34
9144.00,1.34
9143.00,1.34
9142.00,1.34
9141.00,1.34
9140.00,1.34
9139.00,1.34
9138.00,1.34
9137.00,1.34
9136.00,1.34
9135.00,1.34
9134.00,1.34
9133.00,1.35
9132.00,1.35
9131.00,1.35
9130.00,1.35
9129.00,1.35
9128.00,1.35
9127.00,1.35
9126.00,1.35
9125.00,1.35
9124.00,1.35
9123.00,1.35
9122.00,1.35
9121.00,1.35
9120.00,1.35
9119.00,1.35
9118.00,1.35
9117.00,1.35
9116.00,1.35
9115.00,1.35
9114.00,1.35
9113.00,1.35
9112.00,1.35
9111.00,1.35
9110.00,1.35
9109.00,1.35
9108.00,1.35
9107.00,1.35
9106.00,1.35
9105.00,1.35
9104.00,1.35
9103.00,1.35
9102.00,1.35
9101.00,1.35
9100.00,1.35
9099.00,1.35
9098.00,1.35
9097.00,1.36
9096.00,1.36
9095.00,1.36
9094.00,1.36
9093.00,1.36
9092.00,1.36
9091.00,1.36
9090.00,1.36
9089.00,1.36
9088.00,1.36
9087.00,1.36
9086.00,1.36
9085.00,1.36
9084.00,1.36
9083.00,1.36
9082.00,1.36
9081.00,1.36
9080.00,1.36
9079.00,1.36
9078.00,1.35
9077.00,1.35
9076.00,1.35
9075.00,1.35
9074.00,1.35
9073.00,1.35
9072.00,1.35
9071.00,1.35
9070.00,1.35
9069.00,1.35
9068.00,1.35
9067.00,1.35
9066.00,1.35
9065.00,1.35
9064.00,1.35
9063.00,1.35
9062.00,1.35
9061.00,1.35
9060.00,1.35
9059.00,1.35
9058.00,1.35
9057.00,1.35
9056.00,1.35
9055.00,1.35
9054.00,1.35
9053.00,1.35
9052.00,1.35
9051.00,1.35
9050.00,1.35
9049.00,1.35
9048.00,1.35
9047.00,1.35
9046.00,1.35
9045.00,1.35
9044.00,1.35
9043.00,1.35
9042.00,1.35
9041.00,1.35
9040.00,1.35
9039.00,1.35
9038.00,1.35
9037.00,1.35
9036.00,1.35
9035.00,1.35
9034.00,1.35
9033.00,1.35
9032.00,1.35
9031.00,1.35
9030.00,1.36
9029.00,1.36
9028.00,1.36
9027.00,1.36
9026.00,1.36
9025.00,1.35
9024.00,1.35
9023.00,1.35
9022.00,1.35
9021.00,1.35
9020.00,1.35
9019.00,1.35
9018.00,1.35
9017.00,1.35
9016.00,1.35
9015.00,1.35
9014.00,1.35
9013.00,1.34
9012.00,1.34
9011.00,1.34
9010.00,1.34
9009.00,1.34
9008.00,1.34
9007.00,1.34
9006.00,1.34
9005.00,1.34
9004.00,1.34
9003.00,1.34
9002.00,1.34
9001.00,1.34
9000.00,1.34
8999.00,1.34
8998.00,1.34
8997.00,1.35
8996.00,1.35
8995.00,1.35
8994.00,1.35
8993.00,1.35
8992.00,1.35
8991.00,1.35
8990.00,1.35
8989.00,1.35
8988.00,1.35
8987.00,1.35
8986.00,1.36
8985.00,1.36
8984.00,1.36
8983.00,1.36
8982.00,1.36
8981.00,1.36
8980.00,1.36
8979.00,1.36
8978.00,1.36
8977.00,1.36
8976.00,1.36
8975.00,1.36
8974.00,1.36
8973.00,1.36
8972.00,1.36
8971.00,1.36
8970.00,1.36
8969.00,1.36
8968.00,1.36
8967.00,1.36
8966.00,1.36
8965.00,1.36
8964.00,1.35
8963.00,1.35
8962.00,1.35
8961.00,1.35
8960.00,1.35
8959.00,1.35
8958.00,1.35
8957.00,1.34
8956.00,1.34
8955.00,1.34
8954.00,1.34
8953.00,1.34
8952.00,1.34
8951.00,1.34
8950.00,1.33
8949.00,1.33
8948.00,1.33
8947.00,1.33
8946.00,1.33
8945.00,1.33
8944.00,1.33
8943.00,1.33
8942.00,1.33
8941.00,1.33
8940.00,1.33
8939.00,1.34
8938.00,1.34
8937.00,1.34
8936.00,1.34
8935.00,1.34
8934.00,1.34
8933.00,1.34
8932.00,1.34
8931.00,1.34
8930.00,1.34
8929.00,1.34
8928.00,1.34
8927.00,1.34
8926.00,1.34
8925.00,1.34
8924.00,1.34
8923.00,1.34
8922.00,1.34
8921.00,1.34
8920.00,1.33
8919.00,1.33
8918.00,1.33
8917.00,1.33
8916.00,1.33
8915.00,1.33
8914.00,1.33
8913.00,1.33
8912.00,1.33
8911.00,1.33
8910.00,1.33
8909.00,1.33
8908.00,1.33
8907.00,1.33
8906.00,1.33
8905.00,1.33
8904.00,1.34
8903.00,1.34
8902.00,1.34
8901.00,1.34
8900.00,1.34
8899.00,1.34
8898.00,1.34
8897.00,1.34
8896.00,1.34
8895.00,1.34
8894.00,1.34
8893.00,1.34
8892.00,1.35
8891.00,1.35
8890.00,1.35
8889.00,1.35
8888.00,1.35
8887.00,1.35
8886.00,1.35
8885.00,1.35
8884.00,1.35
8883.00,1.35
8882.00,1.35
8881.00,1.35
8880.00,1.35
8879.00,1.35
8878.00,1.35
8877.00,1.35
8876.00,1.35
8875.00,1.34
8874.00,1.34
8873.00,1.34
8872.00,1.34
8871.00,1.34
8870.00,1.34
8869.00,1.34
8868.00,1.34
8867.00,1.34
8866.00,1.34
8865.00,1.34
8864.00,1.34
8863.00,1.33
8862.00,1.33
8861.00,1.33
8860.00,1.33
8859.00,1.33
8858.00,1.33
8857.00,1.33
8856.00,1.33
8855.00,1.33
8854.00,1.33
8853.00,1.33
8852.00,1.33
8851.00,1.33
8850.00,1.33
8849.00,1.33
8848.00,1.33
8847.00,1.33
8846.00,1.33
8845.00,1.33
8844.00,1.32
8843.00,1.32
8842.00,1.32
8841.00,1.32
8840.00,1.32
8839.00,1.32
8838.00,1.32
8837.00,1.32
8836.00,1.32
8835.00,1.32
8834.00,1.32
8833.00,1.32
8832.00,1.32
8831.00,1.32
8830.00,1.32
8829.00,1.32
8828.00,1.32
8827.00,1.32
8826.00,1.32
8825.00,1.32
8824.00,1.32
8823.00,1.32
8822.00,1.32
8821.00,1.32
8820.00,1.33
8819.00,1.33
8818.00,1.33
8817.00,1.33
8816.00,1.33
8815.00,1.33
8814.00,1.33
8813.00,1.33
8812.00,1.33
8811.00,1.33
8810.00,1.33
8809.00,1.33
8808.00,1.33
8807.00,1.33
8806.00,1.33
8805.00,1.33
8804.00,1.33
8803.00,1.32
8802.00,1.32
8801.00,1.32
8800.00,1.32
8799.00,1.32
8798.00,1.32
8797.00,1.32
8796.00,1.32
8795.00,1.32
8794.00,1.32
8793.00,1.32
8792.00,1.32
8791.00,1.33
8790.00,1.33
8789.00,1.33
8788.00,1.33
8787.00,1.33
8786.00,1.33
8785.00,1.33
8784.00,1.33
8783.00,1.33
8782.00,1.33
8781.00,1.33
8780.00,1.33
8779.00,1.33
8778.00,1.33
8777.00,1.33
8776.00,1.33
8775.00,1.32
8774.00,1.32
8773.00,1.32
8772.00,1.32
8771.00,1.32
8770.00,1.31
8769.00,1.31
8768.00,1.31
8767.00,1.31
8766.00,1.31
8765.00,1.31
8764.00,1.31
8763.00,1.30
8762.00,1.30
8761.00,1.30
8760.00,1.30
8759.00,1.31
8758.00,1.31
8757.00,1.31
8756.00,1.31
8755.00,1.31
8754.00,1.31
8753.00,1.31
8752.00,1.31
8751.00,1.31
8750.00,1.31
8749.00,1.31
8748.00,1.31
8747.00,1.31
8746.00,1.31
8745.00,1.31
8744.00,1.31
8743.00,1.31
8742.00,1.30
8741.00,1.30
8740.00,1.30
8739.00,1.30
8738.00,1.30
8737.00,1.30
8736.00,1.30
8735.00,1.30
8734.00,1.30
8733.00,1.30
8732.00,1.30
8731.00,1.30
8730.00,1.30
8729.00,1.30
8728.00,1.30
8727.00,1.30
8726.00,1.30
8725.00,1.30
8724.00,1.30
8723.00,1.30
8722.00,1.30
8721.00,1.30
8720.00,1.30
8719.00,1.29
8718.00,1.29
8717.00,1.29
8716.00,1.29
8715.00,1.29
8714.00,1.29
8713.00,1.29
8712.00,1.28
8711.00,1.28
8710.00,1.28
8709.00,1.28
8708.00,1.28
8707.00,1.28
8706.00,1.28
8705.00,1.28
8704.00,1.27
8703.00,1.27
8702.00,1.27
8701.00,1.27
8700.00,1.27
8699.00,1.27
8698.00,1.27
8697.00,1.27
8696.00,1.27
8695.00,1.27
8694.00,1.27
8693.00,1.27
8692.00,1.28
8691.00,1.28
8690.00,1.28
8689.00,1.28
8688.00,1.28
8687.00,1.28
8686.00,1.28
8685.00,1.28
8684.00,1.28
8683.00,1.28
8682.00,1.28
8681.00,1.28
8680.00,1.28
8679.00,1.28
8678.00,1.28
8677.00,1.28
8676.00,1.28
8675.00,1.28
8674.00,1.28
8673.00,1.28
8672.00,1.28
8671.00,1.27
8670.00,1.27
8669.00,1.27
8668.00,1.27
8667.00,1.27
8666.00,1.27
8665.00,1.27
8664.00,1.27
8663.00,1.27
8662.00,1.27
8661.00,1.27
8660.00,1.27
8659.00,1.28
8658.00,1.28
8657.00,1.28
8656.00,1.28
8655.00,1.28
8654.00,1.28
8653.00,1.28
8652.00,1.28
8651.00,1.28
8650.00,1.28
8649.00,1.28
8648.00,1.28
8647.00,1.28
8646.00,1.28
8645.00,1.28
8644.00,1.28
8643.00,1.28
8642.00,1.28
8641.00,1.28
8640.00,1.28
8639.00,1.28
8638.00,1.28
8637.00,1.27
8636.00,1.27
8635.00,1.27
8634.00,1.27
8633.00,1.27
8632.00,1.27
8631.00,1.28
8630.00,1.28
8629.00,1.28
8628.00,1.28
8627.00,1.28
8626.00,1.28
8625.00,1.28
8624.00,1.28
8623.00,1.28
8622.00,1.28
8621.00,1.28
8620.00,1.28
8619.00,1.28
8618.00,1.28
8617.00,1.28
8616.00,1.28
8615.00,1.28
8614.00,1.28
8613.00,1.28
8612.00,1.28
8611.00,1.28
8610.00,1.28
8609.00,1.28
8608.00,1.28
8607.00,1.27
8606.00,1.27
8605.00,1.27
8604.00,1.27
8603.00,1.27
8602.00,1.27
8601.00,1.27
8600.00,1.27
8599.00,1.27
8598.00,1.27
8597.00,1.27
8596.00,1.27
8595.00,1.27
8594.00,1.26
8593.00,1.26
8592.00,1.26
8591.00,1.26
8590.00,1.26
8589.00,1.26
8588.00,1.26
8587.00,1.26
8586.00,1.25
8585.00,1.25
8584.00,1.25
8583.00,1.25
8582.00,1.25
8581.00,1.25
8580.00,1.25
8579.00,1.25
8578.00,1.25
8577.00,1.25
8576.00,1.25
8575.00,1.25
8574.00,1.25
8573.00,1.25
8572.00,1.25
8571.00,1.25
8570.00,1.25
8569.00,1.25
8568.00,1.25
8567.00,1.25
8566.00,1.25
8565.00,1.25
8564.00,1.25
8563.00,1.25
8562.00,1.25
8561.00,1.25
8560.00,1.25
8559.00,1.25
8558.00,1.25
8557.00,1.25
8556.00,1.25
8555.00,1.25
8554.00,1.24
8553.00,1.24
8552.00,1.24
8551.00,1.24
8550.00,1.24
8549.00,1.24
8548.00,1.24
8547.00,1.24
8546.00,1.24
8545.00,1.23
8544.00,1.23
8543.00,1.23
8542.00,1.23
8541.00,1.23
8540.00,1.23
8539.00,1.23
8538.00,1.23
8537.00,1.23
8536.00,1.23
8535.00,1.23
8534.00,1.24
8533.00,1.24
8532.00,1.24
8531.00,1.24
8530.00,1.24
8529.00,1.24
8528.00,1.24
8527.00,1.24
8526.00,1.24
8525.00,1.24
8524.00,1.24
8523.00,1.24
8522.00,1.24
8521.00,1.24
8520.00,1.24
8519.00,1.24
8518.00,1.24
8517.00,1.24
8516.00,1.24
8515.00,1.24
8514.00,1.24
8513.00,1.24
8512.00,1.24
8511.00,1.24
8510.00,1.24
8509.00,1.24
8508.00,1.24
8507.00,1.23
8506.00,1.23
8505.00,1.23
8504.00,1.23
8503.00,1.23
8502.00,1.23
8501.00,1.23
8500.00,1.23
8499.00,1.23
8498.00,1.23
8497.00,1.22
8496.00,1.22
8495.00,1.22
8494.00,1.22
8493.00,1.22
8492.00,1.22
8491.00,1.21
8490.00,1.21
8489.00,1.21
8488.00,1.21
8487.00,1.21
8486.00,1.21
8485.00,1.21
8484.00,1.21
8483.00,1.21
8482.00,1.20
8481.00,1.20
8480.00,1.20
8479.00,1.20
8478.00,1.20
8477.00,1.20
8476.00,1.20
8475.00,1.20
8474.00,1.20
8473.00,1.20
8472.00,1.20
8471.00,1.20
8470.00,1.21
8469.00,1.21
8468.00,1.21
8467.00,1.21
8466.00,1.21
8465.00,1.21
8464.00,1.21
8463.00,1.21
8462.00,1.21
8461.00,1.21
8460.00,1.21
8459.00,1.21
8458.00,1.21
8457.00,1.21
8456.00,1.21
8455.00,1.21
8454.00,1.21
8453.00,1.21
8452.00,1.21
8451.00,1.21
8450.00,1.21
8449.00,1.20
8448.00,1.20
8447.00,1.20
8446.00,1.20
8445.00,1.20
8444.00,1.20
8443.00,1.20
8442.00,1.20
8441.00,1.20
8440.00,1.20
8439.00,1.20
8438.00,1.20
8437.00,1.21
8436.00,1.21
8435.00,1.21
8434.00,1.21
8433.00,1.21
8432.00,1.21
8431.00,1.21
8430.00,1.21
8429.00,1.21
8428.00,1.21
8427.00,1.21
8426.00,1.21
8425.00,1.21
8424.00,1.21
8423.00,1.21
8422.00,1.20
8421.00,1.20
8420.00,1.20
8419.00,1.20
8418.00,1.20
8417.00,1.20
8416.00,1.20
8415.00,1.20
8414.00,1.20
8413.00,1.20
8412.00,1.20
8411.00,1.20
8410.00,1.20
8409.00,1.20
8408.00,1.20
8407.00,1.20
8406.00,1.20
8405.00,1.20
8404.00,1.20
8403.00,1.20
8402.00,1.20
8401.00,1.20
8400.00,1.20
8399.00,1.21
8398.00,1.21
8397.00,1.21
8396.00,1.21
8395.00,1.21
8394.00,1.21
8393.00,1.21
8392.00,1.21
8391.00,1.21
8390.00,1.21
8389.00,1.21
8388.00,1.21
8387.00,1.21
8386.00,1.21
8385.00,1.21
8384.00,1.22
8383.00,1.22
8382.00,1.22
8381.00,1.22
8380.00,1.22
8379.00,1.22
8378.00,1.22
8377.00,1.22
8376.00,1.22
8375.00,1.22
8374.00,1.23
8373.00,1.23
8372.00,1.23
8371.00,1.23
8370.00,1.23
8369.00,1.23
8368.00,1.23
8367.00,1.23
8366.00,1.23
8365.00,1.23
8364.00,1.23
8363.00,1.23
8362.00,1.23
8361.00,1.23
8360.00,1.23
8359.00,1.23
8358.00,1.23
8357.00,1.23
8356.00,1.23
8355.00,1.23
8354.00,1.23
8353.00,1.23
8352.00,1.23
8351.00,1.23
8350.00,1.23
8349.00,1.23
8348.00,1.24
8347.00,1.24
8346.00,1.24
8345.00,1.24
8344.00,1.24
8343.00,1.24
8342.00,1.24
8341.00,1.24
8340.00,1.24
8339.00,1.24
8338.00,1.24
8337.00,1.24
8336.00,1.24
8335.00,1.24
8334.00,1.23
8333.00,1.23
8332.00,1.23
8331.00,1.23
8330.00,1.23
8329.00,1.23
8328.00,1.23
8327.00,1.23
8326.00,1.23
8325.00,1.23
8324.00,1.23
8323.00,1.23
8322.00,1.23
8321.00,1.23
8320.00,1.23
8319.00,1.23
8318.00,1.23
8317.00,1.23
8316.00,1.24
8315.00,1.24
8314.00,1.24
8313.00,1.24
8312.00,1.24
8311.00,1.24
8310.00,1.24
8309.00,1.24
8308.00,1.24
8307.00,1.24
8306.00,1.24
8305.00,1.24
8304.00,1.24
8303.00,1.24
8302.00,1.24
8301.00,1.24
8300.00,1.24
8299.00,1.24
8298.00,1.24
8297.00,1.24
8296.00,1.24
8295.00,1.24
8294.00,1.24
8293.00,1.24
8292.00,1.24
8291.00,1.25
8290.00,1.25
8289.00,1.25
8288.00,1.25
8287.00,1.25
8286.00,1.25
8285.00,1.25
8284.00,1.25
8283.00,1.25
8282.00,1.25
8281.00,1.25
8280.00,1.25
8279.00,1.25
8278.00,1.25
8277.00,1.25
8276.00,1.25
8275.00,1.25
8274.00,1.25
8273.00,1.25
8272.00,1.25
8271.00,1.25
8270.00,1.25
8269.00,1.25
8268.00,1.25
8267.00,1.25
8266.00,1.25
8265.00,1.25
8264.00,1.25
8263.00,1.25
8262.00,1.25
8261.00,1.26
8260.00,1.26
8259.00,1.26
8258.00,1.26
8257.00,1.26
8256.00,1.26
8255.00,1.26
8254.00,1.26
8253.00,1.26
8252.00,1.26
8251.00,1.26
8250.00,1.26
8249.00,1.26
8248.00,1.25
8247.00,1.25
8246.00,1.25
8245.00,1.25
8244.00,1.25
8243.00,1.25
8242.00,1.25
8241.00,1.25
8240.00,1.25
8239.00,1.25
8238.00,1.25
8237.00,1.25
8236.00,1.25
8235.00,1.25
8234.00,1.25
8233.00,1.25
8232.00,1.25
8231.00,1.25
8230.00,1.26
8229.00,1.26
8228.00,1.26
8227.00,1.26
8226.00,1.26
8225.00,1.26
8224.00,1.26
8223.00,1.25
8222.00,1.25
8221.00,1.25
8220.00,1.25
8219.00,1.25
8218.00,1.25
8217.00,1.25
8216.00,1.25
8215.00,1.25
8214.00,1.25
8213.00,1.25
8212.00,1.25
8211.00,1.25
8210.00,1.25
8209.00,1.25
8208.00,1.25
8207.00,1.25
8206.00,1.25
8205.00,1.25
8204.00,1.26
8203.00,1.26
8202.00,1.26
8201.00,1.26
8200.00,1.26
8199.00,1.26
8198.00,1.27
8197.00,1.27
8196.00,1.27
8195.00,1.27
8194.00,1.27
8193.00,1.28
8192.00,1.28
8191.00,1.28
8190.00,1.28
8189.00,1.28
8188.00,1.28
8187.00,1.28
8186.00,1.28
8185.00,1.28
8184.00,1.28
8183.00,1.28
8182.00,1.28
8181.00,1.28
8180.00,1.28
8179.00,1.28
8178.00,1.28
8177.00,1.28
8176.00,1.28
8175.00,1.28
8174.00,1.28
8173.00,1.28
8172.00,1.28
8171.00,1.28
8170.00,1.28
8169.00,1.28
8168.00,1.28
8167.00,1.28
8166.00,1.28
8165.00,1.29
8164.00,1.29
8163.00,1.29
8162.00,1.29
8161.00,1.29
8160.00,1.29
8159.00,1.29
8158.00,1.29
8157.00,1.29
8156.00,1.29
8155.00,1.29
8154.00,1.29
8153.00,1.29
8152.00,1.29
8151.00,1.29
8150.00,1.29
8149.00,1.29
8148.00,1.29
8147.00,1.29
8146.00,1.29
8145.00,1.29
8144.00,1.29
8143.00,1.29
8142.00,1.29
8141.00,1.29
8140.00,1.29
8139.00,1.29
8138.00,1.29
8137.00,1.29
8136.00,1.29
8135.00,1.29
8134.00,1.29
8133.00,1.29
8132.00,1.29
8131.00,1.29
8130.00,1.29
8129.00,1.29
8128.00,1.29
8127.00,1.29
8126.00,1.29
8125.00,1.29
8124.00,1.29
8123.00,1.29
8122.00,1.29
8121.00,1.29
8120.00,1.29
8119.00,1.29
8118.00,1.29
8117.00,1.29
8116.00,1.29
8115.00,1.29
8114.00,1.29
8113.00,1.29
8112.00,1.29
8111.00,1.29
8110.00,1.29
8109.00,1.29
8108.00,1.29
8107.00,1.29
8106.00,1.30
8105.00,1.30
8104.00,1.30
8103.00,1.30
8102.00,1.30
8101.00,1.30
8100.00,1.30
8099.00,1.30
8098.00,1.30
8097.00,1.30
8096.00,1.30
8095.00,1.30
8094.00,1.30
8093.00,1.30
8092.00,1.30
8091.00,1.30
8090.00,1.30
8089.00,1.30
8088.00,1.30
8087.00,1.30
8086.00,1.30
8085.00,1.30
8084.00,1.30
8083.00,1.30
8082.00,1.30
8081.00,1.30
8080.00,1.30
8079.00,1.30
8078.00,1.30
8077.00,1.29
8076.00,1.29
8075.00,1.29
8074.00,1.29
8073.00,1.29
8072.00,1.29
8071.00,1.29
8070.00,1.30
8069.00,1.30
8068.00,1.30
8067.00,1.30
8066.00,1.30
8065.00,1.30
8064.00,1.30
8063.00,1.30
8062.00,1.30
8061.00,1.30
8060.00,1.30
8059.00,1.31
8058.00,1.31
8057.00,1.31
8056.00,1.31
8055.00,1.31
8054.00,1.31
8053.00,1.31
8052.00,1.31
8051.00,1.31
8050.00,1.31
8049.00,1.31
8048.00,1.31
8047.00,1.31
8046.00,1.31
8045.00,1.32
8044.00,1.31
8043.00,1.31
8042.00,1.31
8041.00,1.31
8040.00,1.31
8039.00,1.31
8038.00,1.31
8037.00,1.31
8036.00,1.31
8035.00,1.31
8034.00,1.31
8033.00,1.31
8032.00,1.31
8031.00,1.31
8030.00,1.31
8029.00,1.32
8028.00,1.32
8027.00,1.32
8026.00,1.32
8025.00,1.32
8024.00,1.32
8023.00,1.32
8022.00,1.32
8021.00,1.32
8020.00,1.32
8019.00,1.32
8018.00,1.33
8017.00,1.33
8016.00,1.33
8015.00,1.33
8014.00,1.33
8013.00,1.33
8012.00,1.33
8011.00,1.33
8010.00,1.33
8009.00,1.33
8008.00,1.33
8007.00,1.33
8006.00,1.33
8005.00,1.33
8004.00,1.33
8003.00,1.33
8002.00,1.33
8001.00,1.33
8000.00,1.33
7999.00,1.33
7998.00,1.33
7997.00,1.33
7996.00,1.33
7995.00,1.33
7994.00,1.33
7993.00,1.33
7992.00,1.33
7991.00,1.33
7990.00,1.33
7989.00,1.33
7988.00,1.33
7987.00,1.33
7986.00,1.33
7985.00,1.33
7984.00,1.33
7983.00,1.33
7982.00,1.33
7981.00,1.33
7980.00,1.33
7979.00,1.33
7978.00,1.33
7977.00,1.33
7976.00,1.33
7975.00,1.33
7974.00,1.33
7973.00,1.33
7972.00,1.33
7971.00,1.33
7970.00,1.33
7969.00,1.33
7968.00,1.33
7967.00,1.33
7966.00,1.33
7965.00,1.33
7964.00,1.33
7963.00,1.33
7962.00,1.33
7961.00,1.33
7960.00,1.33
7959.00,1.33
7958.00,1.33
7957.00,1.33
7956.00,1.33
7955.00,1.33
7954.00,1.33
7953.00,1.33
7952.00,1.33
7951.00,1.33
7950.00,1.33
7949.00,1.33
7948.00,1.33
7947.00,1.33
7946.00,1.33
7945.00,1.33
7944.00,1.33
7943.00,1.33
7942.00,1.33
7941.00,1.33
7940.00,1.33
7939.00,1.33
7938.00,1.33
7937.00,1.33
7936.00,1.33
7935.00,1.33
7934.00,1.33
7933.00,1.33
7932.00,1.33
7931.00,1.33
7930.00,1.33
7929.00,1.33
7928.00,1.33
7927.00,1.33
7926.00,1.33
7925.00,1.33
7924.00,1.33
7923.00,1.33
7922.00,1.33
7921.00,1.33
7920.00,1.33
7919.00,1.33
7918.00,1.33
7917.00,1.33
7916.00,1.33
7915.00,1.33
7914.00,1.34
7913.00,1.34
7912.00,1.34
7911.00,1.34
7910.00,1.34
7909.00,1.34
7908.00,1.34
7907.00,1.34
7906.00,1.34
7905.00,1.34
7904.00,1.34
7903.00,1.34
7902.00,1.34
7901.00,1.34
7900.00,1.34
7899.00,1.34
7898.00,1.34
7897.00,1.34
7896.00,1.34
7895.00,1.34
7894.00,1.34
7893.00,1.34
7892.00,1.34
7891.00,1.34
7890.00,1.34
7889.00,1.34
7888.00,1.34
7887.00,1.34
7886.00,1.34
7885.00,1.34
7884.00,1.34
7883.00,1.34
7882.00,1.34
7881.00,1.34
7880.00,1.34
7879.00,1.34
7878.00,1.34
7877.00,1.34
7876.00,1.34
7875.00,1.34
7874.00,1.33
7873.00,1.33
7872.00,1.33
7871.00,1.33
7870.00,1.33
7869.00,1.34
7868.00,1.34
7867.00,1.34
7866.00,1.34
7865.00,1.34
7864.00,1.34
7863.00,1.34
7862.00,1.34
7861.00,1.34
7860.00,1.34
7859.00,1.34
7858.00,1.35
7857.00,1.35
7856.00,1.35
7855.00,1.35
7854.00,1.35
7853.00,1.35
7852.00,1.35
7851.00,1.35
7850.00,1.35
7849.00,1.35
7848.00,1.35
7847.00,1.34
7846.00,1.34
7845.00,1.34
7844.00,1.34
7843.00,1.34
7842.00,1.34
7841.00,1.34
7840.00,1.34
7839.00,1.34
7838.00,1.34
7837.00,1.34
7836.00,1.34
7835.00,1.34
7834.00,1.34
7833.00,1.34
7832.00,1.34
7831.00,1.34
7830.00,1.34
7829.00,1.34
7828.00,1.34
7827.00,1.34
7826.00,1.34
7825.00,1.34
7824.00,1.34
7823.00,1.34
7822.00,1.34
7821.00,1.34
7820.00,1.34
7819.00,1.35
7818.00,1.35
7817.00,1.35
7816.00,1.35
7815.00,1.35
7814.00,1.35
7813.00,1.35
7812.00,1.35
7811.00,1.35
7810.00,1.35
7809.00,1.35
7808.00,1.35
7807.00,1.35
7806.00,1.35
7805.00,1.35
7804.00,1.35
7803.00,1.35
7802.00,1.35
7801.00,1.35
7800.00,1.35
7799.00,1.35
7798.00,1.35
7797.00,1.35
7796.00,1.35
7795.00,1.35
7794.00,1.35
7793.00,1.35
7792.00,1.35
7791.00,1.35
7790.00,1.35
7789.00,1.35
7788.00,1.35
7787.00,1.35
7786.00,1.35
7785.00,1.35
7784.00,1.35
7783.00,1.35
7782.00,1.35
7781.00,1.35
7780.00,1.35
7779.00,1.35
7778.00,1.35
7777.00,1.35
7776.00,1.35
7775.00,1.35
7774.00,1.36
7773.00,1.36
7772.00,1.36
7771.00,1.35
7770.00,1.35
7769.00,1.35
7768.00,1.35
7767.00,1.35
7766.00,1.35
7765.00,1.35
7764.00,1.35
7763.00,1.35
7762.00,1.35
7761.00,1.35
7760.00,1.35
7759.00,1.35
7758.00,1.35
7757.00,1.35
7756.00,1.35
7755.00,1.35
7754.00,1.35
7753.00,1.35
7752.00,1.35
7751.00,1.35
7750.00,1.35
7749.00,1.35
7748.00,1.35
7747.00,1.35
7746.00,1.35
7745.00,1.36
7744.00,1.36
7743.00,1.36
7742.00,1.36
7741.00,1.36
7740.00,1.36
7739.00,1.36
7738.00,1.36
7737.00,1.36
7736.00,1.36
7735.00,1.36
7734.00,1.36
7733.00,1.36
7732.00,1.36
7731.00,1.36
7730.00,1.36
7729.00,1.36
7728.00,1.36
7727.00,1.36
7726.00,1.36
7725.00,1.36
7724.00,1.36
7723.00,1.36
7722.00,1.36
7721.00,1.36
7720.00,1.36
7719.00,1.36
7718.00,1.36
7717.00,1.36
7716.00,1.36
7715.00,1.36
7714.00,1.36
7713.00,1.36
7712.00,1.36
7711.00,1.36
7710.00,1.36
7709.00,1.36
7708.00,1.36
7707.00,1.36
7706.00,1.36
7705.00,1.36
7704.00,1.36
7703.00,1.36
7702.00,1.36
7701.00,1.36
7700.00,1.36
7699.00,1.36
7698.00,1.36
7697.00,1.36
7696.00,1.36
7695.00,1.36
7694.00,1.36
7693.00,1.36
7692.00,1.36
7691.00,1.36
7690.00,1.36
7689.00,1.36
7688.00,1.36
7687.00,1.36
7686.00,1.35
7685.00,1.35
7684.00,1.35
7683.00,1.35
7682.00,1.35
7681.00,1.35
7680.00,1.35
7679.00,1.35
7678.00,1.35
7677.00,1.35
7676.00,1.35
7675.00,1.36
7674.00,1.36
7673.00,1.36
7672.00,1.36
7671.00,1.36
7670.00,1.36
7669.00,1.36
7668.00,1.36
7667.00,1.36
7666.00,1.36
7665.00,1.36
7664.00,1.36
7663.00,1.36
7662.00,1.36
7661.00,1.36
7660.00,1.36
7659.00,1.36
7658.00,1.36
7657.00,1.36
7656.00,1.36
7655.00,1.35
7654.00,1.35
7653.00,1.35
7652.00,1.35
7651.00,1.35
7650.00,1.35
7649.00,1.36
7648.00,1.36
7647.00,1.36
7646.00,1.36
7645.00,1.36
7644.00,1.36
7643.00,1.36
7642.00,1.36
7641.00,1.36
7640.00,1.36
7639.00,1.36
7638.00,1.36
7637.00,1.36
7636.00,1.36
7635.00,1.36
7634.00,1.36
7633.00,1.36
7632.00,1.36
7631.00,1.36
7630.00,1.36
7629.00,1.36
7628.00,1.36
7627.00,1.36
7626.00,1.36
7625.00,1.36
7624.00,1.36
7623.00,1.36
7622.00,1.36
7621.00,1.36
7620.00,1.36
7619.00,1.36
7618.00,1.36
7617.00,1.36
7616.00,1.36
7615.00,1.36
7614.00,1.36
7613.00,1.36
7612.00,1.36
7611.00,1.36
7610.00,1.36
7609.00,1.36
7608.00,1.36
7607.00,1.36
7606.00,1.36
7605.00,1.36
7604.00,1.36
7603.00,1.36
7602.00,1.36
7601.00,1.36
7600.00,1.36
7599.00,1.36
7598.00,1.36
7597.00,1.36
7596.00,1.36
7595.00,1.36
7594.00,1.35
7593.00,1.35
7592.00,1.35
7591.00,1.35
7590.00,1.35
7589.00,1.35
7588.00,1.35
7587.00,1.35
7586.00,1.35
7585.00,1.35
7584.00,1.35
7583.00,1.35
7582.00,1.34
7581.00,1.34
7580.00,1.34
7579.00,1.34
7578.00,1.34
7577.00,1.34
7576.00,1.34
7575.00,1.34
7574.00,1.34
7573.00,1.35
7572.00,1.35
7571.00,1.35
7570.00,1.35
7569.00,1.35
7568.00,1.35
7567.00,1.35
7566.00,1.35
7565.00,1.35
7564.00,1.35
7563.00,1.35
7562.00,1.35
7561.00,1.35
7560.00,1.35
7559.00,1.35
7558.00,1.35
7557.00,1.35
7556.00,1.35
7555.00,1.35
7554.00,1.35
7553.00,1.35
7552.00,1.35
7551.00,1.34
7550.00,1.34
7549.00,1.34
7548.00,1.34
7547.00,1.34
7546.00,1.34
7545.00,1.34
7544.00,1.34
7543.00,1.34
7542.00,1.34
7541.00,1.34
7540.00,1.34
7539.00,1.34
7538.00,1.34
7537.00,1.34
7536.00,1.34
7535.00,1.34
7534.00,1.34
7533.00,1.34
7532.00,1.34
7531.00,1.34
7530.00,1.34
7529.00,1.34
7528.00,1.34
7527.00,1.34
7526.00,1.34
7525.00,1.34
7524.00,1.34
7523.00,1.34
7522.00,1.34
7521.00,1.34
7520.00,1.34
7519.00,1.34
7518.00,1.33
7517.00,1.33
7516.00,1.33
7515.00,1.33
7514.00,1.33
7513.00,1.33
7512.00,1.33
7511.00,1.33
7510.00,1.33
7509.00,1.33
7508.00,1.33
7507.00,1.33
7506.00,1.33
7505.00,1.33
7504.00,1.33
7503.00,1.33
7502.00,1.33
7501.00,1.33
7500.00,1.33
7499.00,1.33
7498.00,1.33
7497.00,1.33
7496.00,1.33
7495.00,1.33
7494.00,1.33
7493.00,1.33
7492.00,1.33
7491.00,1.33
7490.00,1.33
7489.00,1.32
7488.00,1.32
7487.00,1.32
7486.00,1.32
7485.00,1.32
7484.00,1.32
7483.00,1.32
7482.00,1.32
7481.00,1.31
7480.00,1.31
7479.00,1.31
7478.00,1.31
7477.00,1.31
7476.00,1.31
7475.00,1.31
7474.00,1.31
7473.00,1.31
7472.00,1.31
7471.00,1.31
7470.00,1.30
7469.00,1.30
7468.00,1.30
7467.00,1.30
7466.00,1.30
7465.00,1.30
7464.00,1.30
7463.00,1.31
7462.00,1.31
7461.00,1.31
7460.00,1.31
7459.00,1.31
7458.00,1.31
7457.00,1.31
7456.00,1.31
7455.00,1.31
7454.00,1.31
7453.00,1.31
7452.00,1.31
7451.00,1.31
7450.00,1.31
7449.00,1.31
7448.00,1.30
7447.00,1.30
7446.00,1.30
7445.00,1.30
7444.00,1.30
7443.00,1.30
7442.00,1.30
7441.00,1.29
7440.00,1.29
7439.00,1.29
7438.00,1.29
7437.00,1.29
7436.00,1.29
7435.00,1.29
7434.00,1.29
7433.00,1.29
7432.00,1.29
7431.00,1.29
7430.00,1.29
7429.00,1.29
7428.00,1.29
7427.00,1.29
7426.00,1.29
7425.00,1.29
7424.00,1.29
7423.00,1.29
7422.00,1.29
7421.00,1.29
7420.00,1.28
7419.00,1.28
7418.00,1.28
7417.00,1.28
7416.00,1.28
7415.00,1.28
7414.00,1.28
7413.00,1.28
7412.00,1.27
7411.00,1.27
7410.00,1.27
7409.00,1.27
7408.00,1.27
7407.00,1.27
7406.00,1.27
7405.00,1.27
7404.00,1.27
7403.00,1.27
7402.00,1.27
7401.00,1.27
7400.00,1.27
7399.00,1.27
7398.00,1.27
7397.00,1.27
7396.00,1.26
7395.00,1.26
7394.00,1.26
7393.00,1.26
7392.00,1.26
7391.00,1.26
7390.00,1.26
7389.00,1.26
7388.00,1.25
7387.00,1.25
7386.00,1.25
7385.00,1.25
7384.00,1.25
7383.00,1.24
7382.00,1.24
7381.00,1.24
7380.00,1.24
7379.00,1.24
7378.00,1.24
7377.00,1.24
7376.00,1.24
7375.00,1.24
7374.00,1.24
7373.00,1.24
7372.00,1.24
7371.00,1.24
7370.00,1.24
7369.00,1.24
7368.00,1.24
7367.00,1.24
7366.00,1.24
7365.00,1.24
7364.00,1.24
7363.00,1.24
7362.00,1.24
7361.00,1.24
7360.00,1.24
7359.00,1.24
7358.00,1.24
7357.00,1.24
7356.00,1.24
7355.00,1.24
7354.00,1.24
7353.00,1.24
7352.00,1.24
7351.00,1.24
7350.00,1.24
7349.00,1.24
7348.00,1.24
7347.00,1.24
7346.00,1.24
7345.00,1.24
7344.00,1.23
7343.00,1.23
7342.00,1.23
7341.00,1.23
7340.00,1.23
7339.00,1.23
7338.00,1.23
7337.00,1.23
7336.00,1.23
7335.00,1.23
7334.00,1.23
7333.00,1.23
7332.00,1.23
7331.00,1.23
7330.00,1.23
7329.00,1.23
7328.00,1.23
7327.00,1.23
7326.00,1.23
7325.00,1.22
7324.00,1.22
7323.00,1.22
7322.00,1.22
7321.00,1.22
7320.00,1.22
7319.00,1.22
7318.00,1.22
7317.00,1.22
7316.00,1.22
7315.00,1.22
7314.00,1.22
7313.00,1.22
7312.00,1.22
7311.00,1.21
7310.00,1.21
7309.00,1.21
7308.00,1.21
7307.00,1.21
7306.00,1.21
7305.00,1.21
7304.00,1.21
7303.00,1.21
7302.00,1.21
7301.00,1.21
7300.00,1.21
7299.00,1.20
7298.00,1.20
7297.00,1.20
7296.00,1.20
7295.00,1.20
7294.00,1.20
7293.00,1.20
7292.00,1.20
7291.00,1.20
7290.00,1.19
7289.00,1.19
7288.00,1.19
7287.00,1.19
7286.00,1.19
7285.00,1.19
7284.00,1.19
7283.00,1.19
7282.00,1.19
7281.00,1.19
7280.00,1.18
7279.00,1.18
7278.00,1.18
7277.00,1.18
7276.00,1.18
7275.00,1.18
7274.00,1.18
7273.00,1.18
7272.00,1.18
7271.00,1.18
7270.00,1.17
7269.00,1.17
7268.00,1.17
7267.00,1.17
7266.00,1.17
7265.00,1.17
7264.00,1.16
7263.00,1.16
7262.00,1.16
7261.00,1.16
7260.00,1.16
7259.00,1.15
7258.00,1.15
7257.00,1.15
7256.00,1.15
7255.00,1.15
7254.00,1.14
7253.00,1.14
7252.00,1.14
7251.00,1.14
7250.00,1.14
7249.00,1.13
7248.00,1.13
7247.00,1.13
7246.00,1.13
7245.00,1.12
7244.00,1.12
7243.00,1.12
7242.00,1.11
7241.00,1.11
7240.00,1.11
7239.00,1.10
7238.00,1.10
7237.00,1.10
7236.00,1.09
7235.00,1.09
7234.00,1.09
7233.00,1.08
7232.00,1.08
7231.00,1.08
7230.00,1.07
7229.00,1.07
7228.00,1.07
7227.00,1.06
7226.00,1.06
7225.00,1.06
7224.00,1.05
7223.00,1.05
7222.00,1.05
7221.00,1.05
7220.00,1.04
7219.00,1.04
7218.00,1.04
7217.00,1.03
7216.00,1.03
7215.00,1.03
7214.00,1.02
7213.00,1.02
7212.00,1.01
7211.00,1.01
7210.00,1.01
7209.00,1.00
7208.00,1.00
7207.00,0.99
7206.00,0.99
7205.00,0.99
7204.00,0.98
7203.00,0.98
7202.00,0.97
7201.00,0.97
7200.00,0.97
7199.00,0.96
7198.00,0.96
7197.00,0.96
7196.00,0.95
7195.00,0.95
7194.00,0.94
7193.00,0.94
7192.00,0.94
7191.00,0.93
7190.00,0.93
7189.00,0.93
7188.00,0.92
7187.00,0.92
7186.00,0.91
7185.00,0.91
7184.00,0.91
7183.00,0.90
7182.00,0.90
7181.00,0.90
7180.00,0.89
7179.00,0.89
7178.00,0.89
7177.00,0.88
7176.00,0.88
7175.00,0.88
7174.00,0.87
7173.00,0.87
7172.00,0.87
7171.00,0.86
7170.00,0.86
7169.00,0.86
7168.00,0.86
7167.00,0.85
7166.00,0.85
7165.00,0.85
7164.00,0.84
7163.00,0.84
7162.00,0.84
7161.00,0.84
7160.00,0.83
7159.00,0.83
7158.00,0.83
7157.00,0.83
7156.00,0.82
7155.00,0.82
7154.00,0.82
7153.00,0.82
7152.00,0.81
7151.00,0.81
7150.00,0.81
7149.00,0.81
7148.00,0.80
7147.00,0.80
7146.00,0.80
7145.00,0.79
7144.00,0.79
7143.00,0.79
7142.00,0.79
7141.00,0.78
7140.00,0.78
7139.00,0.78
7138.00,0.77
7137.00,0.77
7136.00,0.77
7135.00,0.77
7134.00,0.76
7133.00,0.76
7132.00,0.76
7131.00,0.75
7130.00,0.75
7129.00,0.75
7128.00,0.75
7127.00,0.74
7126.00,0.74
7125.00,0.74
7124.00,0.73
7123.00,0.73
7122.00,0.73
7121.00,0.72
7120.00,0.72
7119.00,0.72
7118.00,0.71
7117.00,0.71
7116.00,0.71
7115.00,0.71
7114.00,0.70
7113.00,0.70
7112.00,0.70
7111.00,0.70
7110.00,0.69
7109.00,0.69
7108.00,0.69
7107.00,0.69
7106.00,0.68
7105.00,0.68
7104.00,0.68
7103.00,0.68
7102.00,0.68
7101.00,0.67
7100.00,0.67
7099.00,0.67
7098.00,0.67
7097.00,0.67
7096.00,0.66
7095.00,0.66
7094.00,0.66
7093.00,0.66
7092.00,0.66
7091.00,0.66
7090.00,0.65
7089.00,0.65
7088.00,0.65
7087.00,0.65
7086.00,0.65
7085.00,0.65
7084.00,0.65
7083.00,0.64
7082.00,0.64
7081.00,0.64
7080.00,0.64
7079.00,0.64
7078.00,0.64
7077.00,0.64
7076.00,0.64
7075.00,0.63
7074.00,0.63
7073.00,0.63
7072.00,0.63
7071.00,0.63
7070.00,0.63
7069.00,0.63
7068.00,0.63
7067.00,0.63
7066.00,0.62
7065.00,0.62
7064.00,0.62
7063.00,0.62
7062.00,0.62
7061.00,0.62
7060.00,0.62
7059.00,0.62
7058.00,0.61
7057.00,0.61
7056.00,0.61
7055.00,0.61
7054.00,0.61
7053.00,0.61
7052.00,0.60
7051.00,0.60
7050.00,0.60
7049.00,0.60
7048.00,0.60
7047.00,0.60
7046.00,0.59
7045.00,0.59
7044.00,0.59
7043.00,0.59
7042.00,0.59
7041.00,0.59
7040.00,0.59
7039.00,0.59
7038.00,0.59
7037.00,0.59
7036.00,0.58
7035.00,0.58
7034.00,0.58
7033.00,0.58
7032.00,0.58
7031.00,0.58
7030.00,0.58
7029.00,0.58
7028.00,0.58
7027.00,0.58
7026.00,0.58
7025.00,0.58
7024.00,0.57
7023.00,0.57
7022.00,0.57
7021.00,0.57
7020.00,0.57
7019.00,0.57
7018.00,0.57
7017.00,0.57
7016.00,0.57
7015.00,0.56
7014.00,0.56
7013.00,0.56
7012.00,0.56
7011.00,0.56
7010.00,0.56
7009.00,0.56
7008.00,0.56
7007.00,0.56
7006.00,0.56
7005.00,0.56
7004.00,0.56
7003.00,0.56
7002.00,0.56
7001.00,0.56
7000.00,0.56
6999.00,0.56
6998.00,0.56
6997.00,0.55
6996.00,0.55
6995.00,0.55
6994.00,0.55
6993.00,0.55
6992.00,0.55
6991.00,0.55
6990.00,0.55
6989.00,0.55
6988.00,0.55
6987.00,0.55
6986.00,0.55
6985.00,0.55
6984.00,0.55
6983.00,0.55
6982.00,0.55
6981.00,0.55
6980.00,0.55
6979.00,0.55
6978.00,0.55
6977.00,0.55
6976.00,0.55
6975.00,0.55
6974.00,0.55
6973.00,0.55
6972.00,0.55
6971.00,0.55
6970.00,0.55
6969.00,0.55
6968.00,0.55
6967.00,0.55
6966.00,0.55
6965.00,0.55
6964.00,0.55
6963.00,0.55
6962.00,0.55
6961.00,0.55
6960.00,0.55
6959.00,0.55
6958.00,0.55
6957.00,0.55
6956.00,0.55
6955.00,0.55
6954.00,0.55
6953.00,0.54
6952.00,0.54
6951.00,0.54
6950.00,0.54
6949.00,0.54
6948.00,0.54
6947.00,0.54
6946.00,0.54
6945.00,0.54
6944.00,0.54
6943.00,0.54
6942.00,0.54
6941.00,0.53
6940.00,0.53
6939.00,0.53
6938.00,0.53
6937.00,0.53
6936.00,0.53
6935.00,0.53
6934.00,0.53
6933.00,0.53
6932.00,0.53
6931.00,0.53
6930.00,0.53
6929.00,0.53
6928.00,0.53
6927.00,0.53
6926.00,0.53
6925.00,0.53
6924.00,0.53
6923.00,0.53
6922.00,0.53
6921.00,0.53
6920.00,0.53
6919.00,0.53
6918.00,0.53
6917.00,0.53
6916.00,0.53
6915.00,0.53
6914.00,0.53
6913.00,0.53
6912.00,0.53
6911.00,0.53
6910.00,0.53
6909.00,0.53
6908.00,0.53
6907.00,0.53
6906.00,0.53
6905.00,0.53
6904.00,0.53
6903.00,0.53
6902.00,0.53
6901.00,0.53
6900.00,0.53
6899.00,0.53
6898.00,0.53
6897.00,0.53
6896.00,0.53
6895.00,0.53
6894.00,0.53
6893.00,0.53
6892.00,0.53
6891.00,0.53
6890.00,0.53
6889.00,0.53
6888.00,0.53
6887.00,0.53
6886.00,0.53
6885.00,0.53
6884.00,0.53
6883.00,0.53
6882.00,0.53
6881.00,0.53
6880.00,0.53
6879.00,0.54
6878.00,0.54
6877.00,0.54
6876.00,0.53
6875.00,0.53
6874.00,0.53
6873.00,0.53
6872.00,0.53
6871.00,0.53
6870.00,0.53
6869.00,0.53
6868.00,0.53
6867.00,0.53
6866.00,0.53
6865.00,0.53
6864.00,0.53
6863.00,0.53
6862.00,0.53
6861.00,0.53
6860.00,0.53
6859.00,0.52
6858.00,0.52
6857.00,0.52
6856.00,0.52
6855.00,0.52
6854.00,0.52
6853.00,0.52
6852.00,0.52
6851.00,0.52
6850.00,0.52
6849.00,0.52
6848.00,0.53
6847.00,0.53
6846.00,0.53
6845.00,0.53
6844.00,0.53
6843.00,0.53
6842.00,0.53
6841.00,0.53
6840.00,0.53
6839.00,0.53
6838.00,0.53
6837.00,0.53
6836.00,0.53
6835.00,0.53
6834.00,0.54
6833.00,0.54
6832.00,0.54
6831.00,0.54
6830.00,0.54
6829.00,0.54
6828.00,0.54
6827.00,0.54
6826.00,0.54
6825.00,0.54
6824.00,0.54
6823.00,0.54
6822.00,0.54
6821.00,0.54
6820.00,0.54
6819.00,0.54
6818.00,0.54
6817.00,0.54
6816.00,0.54
6815.00,0.54
6814.00,0.54
6813.00,0.54
6812.00,0.54
6811.00,0.54
6810.00,0.54
6809.00,0.54
6808.00,0.54
6807.00,0.54
6806.00,0.54
6805.00,0.54
6804.00,0.54
6803.00,0.54
6802.00,0.54
6801.00,0.54
6800.00,0.54
6799.00,0.54
6798.00,0.54
6797.00,0.54
6796.00,0.54
6795.00,0.54
6794.00,0.55
6793.00,0.55
6792.00,0.55
6791.00,0.55
6790.00,0.55
6789.00,0.55
6788.00,0.55
6787.00,0.55
6786.00,0.55
6785.00,0.55
6784.00,0.55
6783.00,0.56
6782.00,0.56
6781.00,0.56
6780.00,0.56
6779.00,0.56
6778.00,0.56
6777.00,0.56
6776.00,0.56
6775.00,0.56
6774.00,0.56
6773.00,0.56
6772.00,0.57
6771.00,0.57
6770.00,0.57
6769.00,0.57
6768.00,0.57
6767.00,0.57
6766.00,0.57
6765.00,0.57
6764.00,0.57
6763.00,0.57
6762.00,0.57
6761.00,0.57
6760.00,0.57
6759.00,0.57
6758.00,0.57
6757.00,0.57
6756.00,0.57
6755.00,0.57
6754.00,0.57
6753.00,0.57
6752.00,0.57
6751.00,0.57
6750.00,0.57
6749.00,0.57
6748.00,0.58
6747.00,0.58
6746.00,0.58
6745.00,0.58
6744.00,0.58
6743.00,0.58
6742.00,0.58
6741.00,0.58
6740.00,0.58
6739.00,0.58
6738.00,0.58
6737.00,0.59
6736.00,0.59
6735.00,0.59
6734.00,0.59
6733.00,0.59
6732.00,0.59
6731.00,0.59
6730.00,0.59
6729.00,0.59
6728.00,0.59
6727.00,0.59
6726.00,0.59
6725.00,0.59
6724.00,0.59
6723.00,0.59
6722.00,0.59
6721.00,0.59
6720.00,0.59
6719.00,0.59
6718.00,0.59
6717.00,0.59
6716.00,0.60
6715.00,0.60
6714.00,0.60
6713.00,0.60
6712.00,0.60
6711.00,0.60
6710.00,0.60
6709.00,0.60
6708.00,0.61
6707.00,0.61
6706.00,0.61
6705.00,0.61
6704.00,0.61
6703.00,0.61
6702.00,0.61
6701.00,0.61
6700.00,0.61
6699.00,0.61
6698.00,0.61
6697.00,0.61
6696.00,0.61
6695.00,0.62
6694.00,0.62
6693.00,0.62
6692.00,0.62
6691.00,0.62
6690.00,0.62
6689.00,0.62
6688.00,0.62
6687.00,0.62
6686.00,0.62
6685.00,0.62
6684.00,0.62
6683.00,0.62
6682.00,0.63
6681.00,0.63
6680.00,0.63
6679.00,0.63
6678.00,0.63
6677.00,0.63
6676.00,0.63
6675.00,0.63
6674.00,0.63
6673.00,0.63
6672.00,0.63
6671.00,0.63
6670.00,0.63
6669.00,0.64
6668.00,0.64
6667.00,0.64
6666.00,0.64
6665.00,0.64
6664.00,0.64
6663.00,0.64
6662.00,0.64
6661.00,0.64
6660.00,0.65
6659.00,0.65
6658.00,0.65
6657.00,0.65
6656.00,0.65
6655.00,0.65
6654.00,0.66
6653.00,0.66
6652.00,0.66
6651.00,0.66
6650.00,0.66
6649.00,0.66
6648.00,0.66
6647.00,0.66
6646.00,0.67
6645.00,0.67
6644.00,0.67
6643.00,0.67
6642.00,0.67
6641.00,0.67
6640.00,0.67
6639.00,0.67
6638.00,0.67
6637.00,0.67
6636.00,0.67
6635.00,0.67
6634.00,0.68
6633.00,0.68
6632.00,0.68
6631.00,0.68
6630.00,0.68
6629.00,0.68
6628.00,0.68
6627.00,0.68
6626.00,0.68
6625.00,0.68
6624.00,0.68
6623.00,0.68
6622.00,0.69
6621.00,0.69
6620.00,0.69
6619.00,0.69
6618.00,0.69
6617.00,0.69
6616.00,0.69
6615.00,0.69
6614.00,0.69
6613.00,0.69
6612.00,0.70
6611.00,0.70
6610.00,0.70
6609.00,0.70
6608.00,0.70
6607.00,0.70
6606.00,0.70
6605.00,0.70
6604.00,0.70
6603.00,0.70
6602.00,0.70
6601.00,0.71
6600.00,0.71
6599.00,0.71
6598.00,0.71
6597.00,0.71
6596.00,0.71
6595.00,0.71
6594.00,0.71
6593.00,0.72
6592.00,0.72
6591.00,0.72
6590.00,0.72
6589.00,0.72
6588.00,0.72
6587.00,0.72
6586.00,0.72
6585.00,0.72
6584.00,0.72
6583.00,0.73
6582.00,0.73
6581.00,0.73
6580.00,0.73
6579.00,0.73
6578.00,0.73
6577.00,0.73
6576.00,0.73
6575.00,0.74
6574.00,0.74
6573.00,0.74
6572.00,0.74
6571.00,0.74
6570.00,0.74
6569.00,0.74
6568.00,0.74
6567.00,0.74
6566.00,0.74
6565.00,0.74
6564.00,0.74
6563.00,0.74
6562.00,0.74
6561.00,0.74
6560.00,0.74
6559.00,0.74
6558.00,0.74
6557.00,0.74
6556.00,0.74
6555.00,0.75
6554.00,0.75
6553.00,0.75
6552.00,0.75
6551.00,0.75
6550.00,0.75
6549.00,0.75
6548.00,0.75
6547.00,0.76
6546.00,0.76
6545.00,0.76
6544.00,0.76
6543.00,0.76
6542.00,0.76
6541.00,0.77
6540.00,0.77
6539.00,0.77
6538.00,0.77
6537.00,0.77
6536.00,0.77
6535.00,0.77
6534.00,0.78
6533.00,0.78
6532.00,0.78
6531.00,0.78
6530.00,0.78
6529.00,0.78
6528.00,0.78
6527.00,0.78
6526.00,0.78
6525.00,0.78
6524.00,0.78
6523.00,0.79
6522.00,0.79
6521.00,0.79
6520.00,0.79
6519.00,0.79
6518.00,0.79
6517.00,0.79
6516.00,0.79
6515.00,0.79
6514.00,0.79
6513.00,0.79
6512.00,0.79
6511.00,0.79
6510.00,0.79
6509.00,0.79
6508.00,0.79
6507.00,0.79
6506.00,0.79
6505.00,0.79
6504.00,0.80
6503.00,0.80
6502.00,0.80
6501.00,0.80
6500.00,0.80
6499.00,0.80
6498.00,0.80
6497.00,0.80
6496.00,0.80
6495.00,0.80
6494.00,0.80
6493.00,0.80
6492.00,0.80
6491.00,0.81
6490.00,0.81
6489.00,0.81
6488.00,0.81
6487.00,0.81
6486.00,0.81
6485.00,0.81
6484.00,0.81
6483.00,0.81
6482.00,0.81
6481.00,0.82
6480.00,0.82
6479.00,0.82
6478.00,0.82
6477.00,0.82
6476.00,0.82
6475.00,0.82
6474.00,0.82
6473.00,0.82
6472.00,0.83
6471.00,0.83
6470.00,0.83
6469.00,0.83
6468.00,0.83
6467.00,0.83
6466.00,0.83
6465.00,0.83
6464.00,0.83
6463.00,0.83
6462.00,0.83
6461.00,0.83
6460.00,0.83
6459.00,0.84
6458.00,0.84
6457.00,0.84
6456.00,0.84
6455.00,0.84
6454.00,0.84
6453.00,0.84
6452.00,0.84
6451.00,0.84
6450.00,0.84
6449.00,0.84
6448.00,0.84
6447.00,0.84
6446.00,0.84
6445.00,0.85
6444.00,0.85
6443.00,0.85
6442.00,0.85
6441.00,0.85
6440.00,0.85
6439.00,0.85
6438.00,0.85
6437.00,0.85
6436.00,0.85
6435.00,0.85
6434.00,0.86
6433.00,0.86
6432.00,0.86
6431.00,0.86
6430.00,0.86
6429.00,0.86
6428.00,0.86
6427.00,0.86
6426.00,0.86
6425.00,0.86
6424.00,0.86
6423.00,0.87
6422.00,0.87
6421.00,0.87
6420.00,0.87
6419.00,0.87
6418.00,0.87
6417.00,0.87
6416.00,0.87
6415.00,0.87
6414.00,0.87
6413.00,0.87
6412.00,0.87
6411.00,0.87
6410.00,0.87
6409.00,0.87
6408.00,0.87
6407.00,0.87
6406.00,0.87
6405.00,0.87
6404.00,0.87
6403.00,0.87
6402.00,0.87
6401.00,0.87
6400.00,0.87
6399.00,0.87
6398.00,0.87
6397.00,0.87
6396.00,0.88
6395.00,0.88
6394.00,0.88
6393.00,0.88
6392.00,0.88
6391.00,0.88
6390.00,0.88
6389.00,0.89
6388.00,0.89
6387.00,0.89
6386.00,0.89
6385.00,0.89
6384.00,0.89
6383.00,0.89
6382.00,0.89
6381.00,0.90
6380.00,0.90
6379.00,0.90
6378.00,0.90
6377.00,0.90
6376.00,0.90
6375.00,0.90
6374.00,0.90
6373.00,0.90
6372.00,0.90
6371.00,0.90
6370.00,0.90
6369.00,0.90
6368.00,0.90
6367.00,0.90
6366.00,0.90
6365.00,0.90
6364.00,0.90
6363.00,0.91
6362.00,0.91
6361.00,0.91
6360.00,0.91
6359.00,0.91
6358.00,0.91
6357.00,0.91
6356.00,0.91
6355.00,0.91
6354.00,0.91
6353.00,0.91
6352.00,0.91
6351.00,0.91
6350.00,0.91
6349.00,0.92
6348.00,0.92
6347.00,0.92
6346.00,0.92
6345.00,0.92
6344.00,0.92
6343.00,0.92
6342.00,0.92
6341.00,0.93
6340.00,0.93
6339.00,0.93
6338.00,0.93
6337.00,0.93
6336.00,0.93
6335.00,0.93
6334.00,0.94
6333.00,0.94
6332.00,0.94
6331.00,0.94
6330.00,0.94
6329.00,0.94
6328.00,0.94
6327.00,0.94
6326.00,0.95
6325.00,0.95
6324.00,0.95
6323.00,0.95
6322.00,0.95
6321.00,0.95
6320.00,0.95
6319.00,0.95
6318.00,0.95
6317.00,0.95
6316.00,0.95
6315.00,0.95
6314.00,0.95
6313.00,0.96
6312.00,0.96
6311.00,0.96
6310.00,0.96
6309.00,0.96
6308.00,0.96
6307.00,0.96
6306.00,0.96
6305.00,0.96
6304.00,0.96
6303.00,0.97
6302.00,0.97
6301.00,0.97
6300.00,0.97
6299.00,0.97
6298.00,0.97
6297.00,0.98
6296.00,0.98
6295.00,0.98
6294.00,0.98
6293.00,0.98
6292.00,0.98
6291.00,0.98
6290.00,0.99
6289.00,0.99
6288.00,0.99
6287.00,0.99
6286.00,0.99
6285.00,0.99
6284.00,0.99
6283.00,0.99
6282.00,1.00
6281.00,1.00
6280.00,1.00
6279.00,1.00
6278.00,1.00
6277.00,1.00
6276.00,1.00
6275.00,1.00
6274.00,1.00
6273.00,1.00
6272.00,1.01
6271.00,1.01
6270.00,1.01
6269.00,1.01
6268.00,1.01
6267.00,1.01
6266.00,1.01
6265.00,1.01
6264.00,1.01
6263.00,1.01
6262.00,1.01
6261.00,1.01
6260.00,1.02
6259.00,1.02
6258.00,1.02
6257.00,1.02
6256.00,1.02
6255.00,1.02
6254.00,1.02
6253.00,1.02
6252.00,1.03
6251.00,1.03
6250.00,1.03
6249.00,1.03
6248.00,1.03
6247.00,1.03
6246.00,1.04
6245.00,1.04
6244.00,1.04
6243.00,1.04
6242.00,1.04
6241.00,1.04
6240.00,1.04
6239.00,1.04
6238.00,1.05
6237.00,1.05
6236.00,1.05
6235.00,1.05
6234.00,1.05
6233.00,1.05
6232.00,1.05
6231.00,1.06
6230.00,1.06
6229.00,1.06
6228.00,1.06
6227.00,1.06
6226.00,1.06
6225.00,1.06
6224.00,1.07
6223.00,1.07
6222.00,1.07
6221.00,1.07
6220.00,1.07
6219.00,1.07
6218.00,1.07
6217.00,1.08
6216.00,1.08
6215.00,1.08
6214.00,1.08
6213.00,1.08
6212.00,1.08
6211.00,1.09
6210.00,1.09
6209.00,1.09
6208.00,1.09
6207.00,1.09
6206.00,1.09
6205.00,1.10
6204.00,1.10
6203.00,1.10
6202.00,1.10
6201.00,1.10
6200.00,1.10
6199.00,1.10
6198.00,1.10
6197.00,1.10
6196.00,1.11
6195.00,1.11
6194.00,1.11
6193.00,1.11
6192.00,1.11
6191.00,1.11
6190.00,1.11
6189.00,1.11
6188.00,1.11
6187.00,1.11
6186.00,1.11
6185.00,1.11
6184.00,1.12
6183.00,1.12
6182.00,1.12
6181.00,1.12
6180.00,1.12
6179.00,1.12
6178.00,1.12
6177.00,1.12
6176.00,1.12
6175.00,1.13
6174.00,1.13
6173.00,1.13
6172.00,1.13
6171.00,1.13
6170.00,1.13
6169.00,1.13
6168.00,1.14
6167.00,1.14
6166.00,1.14
6165.00,1.14
6164.00,1.14
6163.00,1.14
6162.00,1.15
6161.00,1.15
6160.00,1.15
6159.00,1.15
6158.00,1.15
6157.00,1.15
6156.00,1.16
6155.00,1.16
6154.00,1.16
6153.00,1.16
6152.00,1.16
6151.00,1.16
6150.00,1.17
6149.00,1.17
6148.00,1.17
6147.00,1.17
6146.00,1.17
6145.00,1.17
6144.00,1.17
6143.00,1.17
6142.00,1.17
6141.00,1.18
6140.00,1.18
6139.00,1.18
6138.00,1.18
6137.00,1.18
6136.00,1.18
6135.00,1.18
6134.00,1.18
6133.00,1.18
6132.00,1.19
6131.00,1.19
6130.00,1.19
6129.00,1.19
6128.00,1.19
6127.00,1.19
6126.00,1.20
6125.00,1.20
6124.00,1.20
6123.00,1.20
6122.00,1.20
6121.00,1.20
6120.00,1.21
6119.00,1.21
6118.00,1.21
6117.00,1.21
6116.00,1.21
6115.00,1.21
6114.00,1.21
6113.00,1.21
6112.00,1.22
6111.00,1.22
6110.00,1.22
6109.00,1.22
6108.00,1.22
6107.00,1.22
6106.00,1.22
6105.00,1.22
6104.00,1.22
6103.00,1.23
6102.00,1.23
6101.00,1.23
6100.00,1.23
6099.00,1.23
6098.00,1.23
6097.00,1.23
6096.00,1.23
6095.00,1.24
6094.00,1.24
6093.00,1.24
6092.00,1.24
6091.00,1.24
6090.00,1.24
6089.00,1.24
6088.00,1.25
6087.00,1.25
6086.00,1.25
6085.00,1.25
6084.00,1.25
6083.00,1.25
6082.00,1.25
6081.00,1.25
6080.00,1.26
6079.00,1.26
6078.00,1.26
6077.00,1.26
6076.00,1.26
6075.00,1.26
6074.00,1.26
6073.00,1.26
6072.00,1.26
6071.00,1.26
6070.00,1.26
6069.00,1.26
6068.00,1.26
6067.00,1.27
6066.00,1.27
6065.00,1.27
6064.00,1.27
6063.00,1.27
6062.00,1.27
6061.00,1.27
6060.00,1.27
6059.00,1.27
6058.00,1.28
6057.00,1.28
6056.00,1.28
6055.00,1.28
6054.00,1.28
6053.00,1.28
6052.00,1.28
6051.00,1.28
6050.00,1.29
6049.00,1.29
6048.00,1.29
6047.00,1.29
6046.00,1.29
6045.00,1.29
6044.00,1.29
6043.00,1.29
6042.00,1.29
6041.00,1.29
6040.00,1.29
6039.00,1.29
6038.00,1.29
6037.00,1.29
6036.00,1.29
6035.00,1.29
6034.00,1.29
6033.00,1.29
6032.00,1.29
6031.00,1.29
6030.00,1.29
6029.00,1.29
6028.00,1.29
6027.00,1.29
6026.00,1.30
6025.00,1.30
6024.00,1.30
6023.00,1.30
6022.00,1.30
6021.00,1.30
6020.00,1.30
6019.00,1.30
6018.00,1.30
6017.00,1.30
6016.00,1.30
6015.00,1.30
6014.00,1.30
6013.00,1.30
6012.00,1.30
6011.00,1.30
6010.00,1.30
6009.00,1.30
6008.00,1.30
6007.00,1.30
6006.00,1.30
6005.00,1.30
6004.00,1.30
6003.00,1.30
6002.00,1.30
6001.00,1.30
6000.00,1.30
5999.00,1.30
5998.00,1.30
5997.00,1.30
5996.00,1.30
5995.00,1.30
5994.00,1.30
5993.00,1.30
5992.00,1.29
5991.00,1.29
5990.00,1.29
5989.00,1.29
5988.00,1.29
5987.00,1.29
5986.00,1.28
5985.00,1.28
5984.00,1.28
5983.00,1.28
5982.00,1.27
5981.00,1.27
5980.00,1.27
5979.00,1.26
5978.00,1.26
5977.00,1.26
5976.00,1.25
5975.00,1.25
5974.00,1.24
5973.00,1.24
5972.00,1.23
5971.00,1.23
5970.00,1.22
5969.00,1.22
5968.00,1.21
5967.00,1.21
5966.00,1.20
5965.00,1.20
5964.00,1.19
5963.00,1.18
5962.00,1.18
5961.00,1.17
5960.00,1.17
5959.00,1.16
5958.00,1.16
5957.00,1.15
5956.00,1.14
5955.00,1.14
5954.00,1.13
5953.00,1.13
5952.00,1.12
5951.00,1.12
5950.00,1.11
5949.00,1.11
5948.00,1.11
5947.00,1.10
5946.00,1.10
5945.00,1.10
5944.00,1.09
5943.00,1.09
5942.00,1.09
5941.00,1.09
5940.00,1.09
5939.00,1.08
5938.00,1.08
5937.00,1.08
5936.00,1.08
5935.00,1.08
5934.00,1.08
5933.00,1.08
5932.00,1.08
5931.00,1.08
5930.00,1.07
5929.00,1.07
5928.00,1.07
5927.00,1.07
5926.00,1.07
5925.00,1.07
5924.00,1.07
5923.00,1.07
5922.00,1.06
5921.00,1.06
5920.00,1.06
5919.00,1.06
5918.00,1.06
5917.00,1.05
5916.00,1.05
5915.00,1.05
5914.00,1.05
5913.00,1.04
5912.00,1.04
5911.00,1.04
5910.00,1.04
5909.00,1.04
5908.00,1.03
5907.00,1.03
5906.00,1.03
5905.00,1.03
5904.00,1.03
5903.00,1.03
5902.00,1.03
5901.00,1.03
5900.00,1.03
5899.00,1.03
5898.00,1.03
5897.00,1.03
5896.00,1.03
5895.00,1.03
5894.00,1.04
5893.00,1.04
5892.00,1.04
5891.00,1.05
5890.00,1.05
5889.00,1.05
5888.00,1.05
5887.00,1.06
5886.00,1.06
5885.00,1.06
5884.00,1.07
5883.00,1.07
5882.00,1.07
5881.00,1.08
5880.00,1.08
5879.00,1.08
5878.00,1.08
5877.00,1.08
5876.00,1.09
5875.00,1.09
5874.00,1.09
5873.00,1.09
5872.00,1.09
5871.00,1.10
5870.00,1.10
5869.00,1.10
5868.00,1.10
5867.00,1.10
5866.00,1.11
5865.00,1.11
5864.00,1.11
5863.00,1.11
5862.00,1.11
5861.00,1.11
5860.00,1.12
5859.00,1.12
5858.00,1.12
5857.00,1.12
5856.00,1.12
5855.00,1.12
5854.00,1.12
5853.00,1.12
5852.00,1.12
5851.00,1.12
5850.00,1.13
5849.00,1.13
5848.00,1.13
5847.00,1.13
5846.00,1.13
5845.00,1.13
5844.00,1.13
5843.00,1.12
5842.00,1.12
5841.00,1.12
5840.00,1.12
5839.00,1.12
5838.00,1.12
5837.00,1.12
5836.00,1.12
5835.00,1.12
5834.00,1.12
5833.00,1.12
5832.00,1.12
5831.00,1.12
5830.00,1.12
5829.00,1.12
5828.00,1.12
5827.00,1.12
5826.00,1.12
5825.00,1.12
5824.00,1.12
5823.00,1.12
5822.00,1.12
5821.00,1.12
5820.00,1.12
5819.00,1.12
5818.00,1.12
5817.00,1.12
5816.00,1.12
5815.00,1.12
5814.00,1.12
5813.00,1.12
5812.00,1.12
5811.00,1.12
5810.00,1.12
5809.00,1.12
5808.00,1.12
5807.00,1.12
5806.00,1.12
5805.00,1.12
5804.00,1.12
5803.00,1.12
5802.00,1.12
5801.00,1.11
5800.00,1.11
5799.00,1.11
5798.00,1.11
5797.00,1.11
5796.00,1.11
5795.00,1.10
5794.00,1.10
5793.00,1.10
5792.00,1.10
5791.00,1.10
5790.00,1.09
5789.00,1.09
5788.00,1.09
5787.00,1.09
5786.00,1.09
5785.00,1.08
5784.00,1.08
5783.00,1.08
5782.00,1.08
5781.00,1.08
5780.00,1.08
5779.00,1.08
5778.00,1.08
5777.00,1.08
5776.00,1.08
5775.00,1.08
5774.00,1.08
5773.00,1.08
5772.00,1.08
5771.00,1.08
5770.00,1.08
5769.00,1.08
5768.00,1.08
5767.00,1.08
5766.00,1.08
5765.00,1.08
5764.00,1.09
5763.00,1.09
5762.00,1.09
5761.00,1.09
5760.00,1.10
5759.00,1.10
5758.00,1.10
5757.00,1.10
5756.00,1.10
5755.00,1.11
5754.00,1.11
5753.00,1.11
5752.00,1.11
5751.00,1.12
5750.00,1.12
5749.00,1.12
5748.00,1.12
5747.00,1.13
5746.00,1.13
5745.00,1.13
5744.00,1.13
5743.00,1.14
5742.00,1.14
5741.00,1.14
5740.00,1.14
5739.00,1.14
5738.00,1.15
5737.00,1.15
5736.00,1.15
5735.00,1.15
5734.00,1.15
5733.00,1.15
5732.00,1.15
5731.00,1.15
5730.00,1.16
5729.00,1.16
5728.00,1.16
5727.00,1.16
5726.00,1.16
5725.00,1.16
5724.00,1.16
5723.00,1.16
5722.00,1.16
5721.00,1.16
5720.00,1.16
5719.00,1.16
5718.00,1.15
5717.00,1.15
5716.00,1.15
5715.00,1.15
5714.00,1.15
5713.00,1.15
5712.00,1.15
5711.00,1.15
5710.00,1.15
5709.00,1.15
5708.00,1.15
5707.00,1.15
5706.00,1.15
5705.00,1.14
5704.00,1.14
5703.00,1.14
5702.00,1.14
5701.00,1.14
5700.00,1.14
5699.00,1.14
5698.00,1.14
5697.00,1.14
5696.00,1.14
5695.00,1.14
5694.00,1.14
5693.00,1.13
5692.00,1.13
5691.00,1.13
5690.00,1.13
5689.00,1.13
5688.00,1.13
5687.00,1.13
5686.00,1.13
5685.00,1.13
5684.00,1.13
5683.00,1.12
5682.00,1.12
5681.00,1.12
5680.00,1.12
5679.00,1.12
5678.00,1.12
5677.00,1.12
5676.00,1.12
5675.00,1.12
5674.00,1.12
5673.00,1.12
5672.00,1.12
5671.00,1.12
5670.00,1.12
5669.00,1.12
5668.00,1.12
5667.00,1.12
5666.00,1.12
5665.00,1.13
5664.00,1.13
5663.00,1.13
5662.00,1.13
5661.00,1.13
5660.00,1.13
5659.00,1.13
5658.00,1.13
5657.00,1.13
5656.00,1.14
5655.00,1.14
5654.00,1.14
5653.00,1.14
5652.00,1.14
5651.00,1.14
5650.00,1.14
5649.00,1.14
5648.00,1.15
5647.00,1.15
5646.00,1.15
5645.00,1.15
5644.00,1.15
5643.00,1.15
5642.00,1.15
5641.00,1.15
5640.00,1.15
5639.00,1.16
5638.00,1.16
5637.00,1.16
5636.00,1.16
5635.00,1.16
5634.00,1.16
5633.00,1.16
5632.00,1.16
5631.00,1.17
5630.00,1.17
5629.00,1.17
5628.00,1.17
5627.00,1.17
5626.00,1.17
5625.00,1.17
5624.00,1.18
5623.00,1.18
5622.00,1.18
5621.00,1.18
5620.00,1.18
5619.00,1.18
5618.00,1.18
5617.00,1.18
5616.00,1.19
5615.00,1.19
5614.00,1.19
5613.00,1.19
5612.00,1.19
5611.00,1.19
5610.00,1.20
5609.00,1.20
5608.00,1.20
5607.00,1.20
5606.00,1.20
5605.00,1.20
5604.00,1.20
5603.00,1.21
5602.00,1.21
5601.00,1.21
5600.00,1.21
5599.00,1.21
5598.00,1.21
5597.00,1.22
5596.00,1.22
5595.00,1.22
5594.00,1.22
5593.00,1.22
5592.00,1.22
5591.00,1.22
5590.00,1.23
5589.00,1.23
5588.00,1.23
5587.00,1.23
5586.00,1.23
5585.00,1.23
5584.00,1.23
5583.00,1.24
5582.00,1.24
5581.00,1.24
5580.00,1.24
5579.00,1.24
5578.00,1.24
5577.00,1.24
5576.00,1.24
5575.00,1.25
5574.00,1.25
5573.00,1.25
5572.00,1.25
5571.00,1.25
5570.00,1.25
5569.00,1.25
5568.00,1.25
5567.00,1.25
5566.00,1.25
5565.00,1.26
5564.00,1.26
5563.00,1.26
5562.00,1.26
5561.00,1.26
5560.00,1.26
5559.00,1.26
5558.00,1.26
5557.00,1.27
5556.00,1.27
5555.00,1.27
5554.00,1.27
5553.00,1.27
5552.00,1.27
5551.00,1.27
5550.00,1.27
5549.00,1.27
5548.00,1.28
5547.00,1.28
5546.00,1.28
5545.00,1.28
5544.00,1.28
5543.00,1.28
5542.00,1.28
5541.00,1.28
5540.00,1.28
5539.00,1.29
5538.00,1.29
5537.00,1.29
5536.00,1.29
5535.00,1.29
5534.00,1.29
5533.00,1.29
5532.00,1.29
5531.00,1.29
5530.00,1.29
5529.00,1.29
5528.00,1.29
5527.00,1.30
5526.00,1.30
5525.00,1.30
5524.00,1.30
5523.00,1.30
5522.00,1.30
5521.00,1.30
5520.00,1.30
5519.00,1.30
5518.00,1.30
5517.00,1.30
5516.00,1.30
5515.00,1.31
5514.00,1.31
5513.00,1.31
5512.00,1.31
5511.00,1.31
5510.00,1.31
5509.00,1.31
5508.00,1.31
5507.00,1.31
5506.00,1.31
5505.00,1.31
5504.00,1.31
5503.00,1.31
5502.00,1.31
5501.00,1.31
5500.00,1.31
5499.00,1.31
5498.00,1.31
5497.00,1.31
5496.00,1.32
5495.00,1.32
5494.00,1.32
5493.00,1.32
5492.00,1.32
5491.00,1.32
5490.00,1.32
5489.00,1.32
5488.00,1.33
5487.00,1.33
5486.00,1.33
5485.00,1.33
5484.00,1.33
5483.00,1.33
5482.00,1.33
5481.00,1.34
5480.00,1.34
5479.00,1.34
5478.00,1.34
5477.00,1.34
5476.00,1.34
5475.00,1.34
5474.00,1.35
5473.00,1.35
5472.00,1.35
5471.00,1.35
5470.00,1.35
5469.00,1.35
5468.00,1.35
5467.00,1.35
5466.00,1.35
5465.00,1.35
5464.00,1.35
5463.00,1.35
5462.00,1.35
5461.00,1.35
5460.00,1.35
5459.00,1.35
5458.00,1.35
5457.00,1.35
5456.00,1.35
5455.00,1.35
5454.00,1.35
5453.00,1.35
5452.00,1.35
5451.00,1.35
5450.00,1.35
5449.00,1.35
5448.00,1.35
5447.00,1.35
5446.00,1.35
5445.00,1.35
5444.00,1.36
5443.00,1.36
5442.00,1.36
5441.00,1.36
5440.00,1.36
5439.00,1.36
5438.00,1.36
5437.00,1.36
5436.00,1.36
5435.00,1.36
5434.00,1.36
5433.00,1.36
5432.00,1.36
5431.00,1.36
5430.00,1.36
5429.00,1.36
5428.00,1.36
5427.00,1.36
5426.00,1.36
5425.00,1.36
5424.00,1.36
5423.00,1.36
5422.00,1.36
5421.00,1.36
5420.00,1.36
5419.00,1.36
5418.00,1.36
5417.00,1.36
5416.00,1.36
5415.00,1.36
5414.00,1.36
5413.00,1.36
5412.00,1.35
5411.00,1.35
5410.00,1.35
5409.00,1.35
5408.00,1.35
5407.00,1.35
5406.00,1.35
5405.00,1.35
5404.00,1.35
5403.00,1.35
5402.00,1.35
5401.00,1.35
5400.00,1.34
5399.00,1.34
5398.00,1.34
5397.00,1.34
5396.00,1.34
5395.00,1.34
5394.00,1.33
5393.00,1.33
5392.00,1.33
5391.00,1.33
5390.00,1.33
5389.00,1.32
5388.00,1.32
5387.00,1.32
5386.00,1.31
5385.00,1.31
5384.00,1.31
5383.00,1.30
5382.00,1.30
5381.00,1.30
5380.00,1.29
5379.00,1.29
5378.00,1.29
5377.00,1.28
5376.00,1.28
5375.00,1.27
5374.00,1.27
5373.00,1.26
5372.00,1.26
5371.00,1.25
5370.00,1.25
5369.00,1.24
5368.00,1.24
5367.00,1.23
5366.00,1.23
5365.00,1.22
5364.00,1.21
5363.00,1.21
5362.00,1.20
5361.00,1.19
5360.00,1.19
5359.00,1.18
5358.00,1.17
5357.00,1.16
5356.00,1.16
5355.00,1.15
5354.00,1.14
5353.00,1.13
5352.00,1.12
5351.00,1.11
5350.00,1.10
5349.00,1.09
5348.00,1.08
5347.00,1.07
5346.00,1.07
5345.00,1.06
5344.00,1.05
5343.00,1.04
5342.00,1.03
5341.00,1.02
5340.00,1.01
5339.00,1.00
5338.00,0.99
5337.00,0.98
5336.00,0.97
5335.00,0.96
5334.00,0.95
5333.00,0.94
5332.00,0.93
5331.00,0.92
5330.00,0.91
5329.00,0.90
5328.00,0.89
5327.00,0.89
5326.00,0.88
5325.00,0.87
5324.00,0.86
5323.00,0.85
5322.00,0.84
5321.00,0.83
5320.00,0.82
5319.00,0.81
5318.00,0.81
5317.00,0.80
5316.00,0.79
5315.00,0.78
5314.00,0.77
5313.00,0.77
5312.00,0.76
5311.00,0.75
5310.00,0.75
5309.00,0.74
5308.00,0.73
5307.00,0.73
5306.00,0.72
5305.00,0.72
5304.00,0.71
5303.00,0.71
5302.00,0.70
5301.00,0.70
5300.00,0.69
5299.00,0.69
5298.00,0.69
5297.00,0.68
5296.00,0.68
5295.00,0.68
5294.00,0.68
5293.00,0.67
5292.00,0.67
5291.00,0.67
5290.00,0.67
5289.00,0.67
5288.00,0.67
5287.00,0.67
5286.00,0.66
5285.00,0.66
5284.00,0.66
5283.00,0.66
5282.00,0.66
5281.00,0.66
5280.00,0.66
5279.00,0.65
5278.00,0.65
5277.00,0.65
5276.00,0.65
5275.00,0.65
5274.00,0.65
5273.00,0.65
5272.00,0.65
5271.00,0.65
5270.00,0.65
5269.00,0.65
5268.00,0.65
5267.00,0.65
5266.00,0.65
5265.00,0.65
5264.00,0.65
5263.00,0.65
5262.00,0.65
5261.00,0.65
5260.00,0.65
5259.00,0.65
5258.00,0.65
5257.00,0.65
5256.00,0.65
5255.00,0.65
5254.00,0.65
5253.00,0.65
5252.00,0.65
5251.00,0.65
5250.00,0.65
5249.00,0.65
5248.00,0.65
5247.00,0.65
5246.00,0.65
5245.00,0.65
5244.00,0.65
5243.00,0.65
5242.00,0.64
5241.00,0.64
5240.00,0.64
5239.00,0.64
5238.00,0.65
5237.00,0.65
5236.00,0.65
5235.00,0.65
5234.00,0.65
5233.00,0.65
5232.00,0.65
5231.00,0.65
5230.00,0.65
5229.00,0.65
5228.00,0.65
5227.00,0.65
5226.00,0.65
5225.00,0.65
5224.00,0.65
5223.00,0.65
5222.00,0.65
5221.00,0.65
5220.00,0.65
5219.00,0.65
5218.00,0.66
5217.00,0.66
5216.00,0.66
5215.00,0.66
5214.00,0.66
5213.00,0.66
5212.00,0.66
5211.00,0.66
5210.00,0.66
5209.00,0.66
5208.00,0.66
5207.00,0.66
5206.00,0.66
5205.00,0.66
5204.00,0.66
5203.00,0.66
5202.00,0.66
5201.00,0.66
5200.00,0.66
5199.00,0.66
5198.00,0.66
5197.00,0.66
5196.00,0.66
5195.00,0.66
5194.00,0.66
5193.00,0.66
5192.00,0.66
5191.00,0.66
5190.00,0.66
5189.00,0.66
5188.00,0.66
5187.00,0.67
5186.00,0.67
5185.00,0.67
5184.00,0.67
5183.00,0.67
5182.00,0.67
5181.00,0.67
5180.00,0.67
5179.00,0.67
5178.00,0.67
5177.00,0.67
5176.00,0.67
5175.00,0.67
5174.00,0.67
5173.00,0.68
5172.00,0.68
5171.00,0.68
5170.00,0.68
5169.00,0.68
5168.00,0.68
5167.00,0.68
5166.00,0.68
5165.00,0.68
5164.00,0.68
5163.00,0.68
5162.00,0.68
5161.00,0.68
5160.00,0.68
5159.00,0.68
5158.00,0.68
5157.00,0.68
5156.00,0.68
5155.00,0.68
5154.00,0.68
5153.00,0.68
5152.00,0.68
5151.00,0.68
5150.00,0.68
5149.00,0.68
5148.00,0.68
5147.00,0.68
5146.00,0.68
5145.00,0.69
5144.00,0.69
5143.00,0.69
5142.00,0.69
5141.00,0.69
5140.00,0.69
5139.00,0.69
5138.00,0.69
5137.00,0.69
5136.00,0.69
5135.00,0.69
5134.00,0.69
5133.00,0.69
5132.00,0.69
5131.00,0.69
5130.00,0.69
5129.00,0.69
5128.00,0.69
5127.00,0.69
5126.00,0.69
5125.00,0.69
5124.00,0.69
5123.00,0.69
5122.00,0.69
5121.00,0.69
5120.00,0.70
5119.00,0.70
5118.00,0.70
5117.00,0.70
5116.00,0.70
5115.00,0.70
5114.00,0.70
5113.00,0.70
5112.00,0.70
5111.00,0.70
5110.00,0.70
5109.00,0.70
5108.00,0.70
5107.00,0.70
5106.00,0.70
5105.00,0.70
5104.00,0.70
5103.00,0.71
5102.00,0.71
5101.00,0.71
5100.00,0.71
5099.00,0.71
5098.00,0.71
5097.00,0.71
5096.00,0.71
5095.00,0.71
5094.00,0.71
5093.00,0.71
5092.00,0.71
5091.00,0.71
5090.00,0.71
5089.00,0.71
5088.00,0.71
5087.00,0.71
5086.00,0.71
5085.00,0.71
5084.00,0.71
5083.00,0.71
5082.00,0.71
5081.00,0.72
5080.00,0.72
5079.00,0.72
5078.00,0.72
5077.00,0.72
5076.00,0.72
5075.00,0.72
5074.00,0.72
5073.00,0.72
5072.00,0.72
5071.00,0.72
5070.00,0.72
5069.00,0.72
5068.00,0.72
5067.00,0.72
5066.00,0.72
5065.00,0.73
5064.00,0.73
5063.00,0.73
5062.00,0.73
5061.00,0.73
5060.00,0.73
5059.00,0.73
5058.00,0.73
5057.00,0.73
5056.00,0.73
5055.00,0.73
5054.00,0.73
5053.00,0.73
5052.00,0.73
5051.00,0.73
5050.00,0.73
5049.00,0.73
5048.00,0.73
5047.00,0.73
5046.00,0.73
5045.00,0.73
5044.00,0.73
5043.00,0.74
5042.00,0.74
5041.00,0.74
5040.00,0.74
5039.00,0.74
5038.00,0.74
5037.00,0.74
5036.00,0.74
5035.00,0.74
5034.00,0.74
5033.00,0.74
5032.00,0.74
5031.00,0.74
5030.00,0.74
5029.00,0.74
5028.00,0.74
5027.00,0.74
5026.00,0.75
5025.00,0.75
5024.00,0.75
5023.00,0.75
5022.00,0.75
5021.00,0.75
5020.00,0.75
5019.00,0.75
5018.00,0.75
5017.00,0.75
5016.00,0.76
5015.00,0.76
5014.00,0.76
5013.00,0.76
5012.00,0.76
5011.00,0.76
5010.00,0.76
5009.00,0.76
5008.00,0.76
5007.00,0.76
5006.00,0.76
5005.00,0.76
5004.00,0.76
5003.00,0.76
5002.00,0.76
5001.00,0.76
5000.00,0.76
4999.00,0.76
4998.00,0.76
4997.00,0.76
4996.00,0.76
4995.00,0.76
4994.00,0.77
4993.00,0.77
4992.00,0.77
4991.00,0.77
4990.00,0.77
4989.00,0.77
4988.00,0.77
4987.00,0.77
4986.00,0.77
4985.00,0.77
4984.00,0.77
4983.00,0.78
4982.00,0.78
4981.00,0.78
4980.00,0.78
4979.00,0.78
4978.00,0.78
4977.00,0.78
4976.00,0.78
4975.00,0.78
4974.00,0.78
4973.00,0.78
4972.00,0.79
4971.00,0.79
4970.00,0.79
4969.00,0.79
4968.00,0.79
4967.00,0.79
4966.00,0.79
4965.00,0.79
4964.00,0.79
4963.00,0.79
4962.00,0.79
4961.00,0.79
4960.00,0.79
4959.00,0.79
4958.00,0.79
4957.00,0.79
4956.00,0.79
4955.00,0.79
4954.00,0.79
4953.00,0.79
4952.00,0.79
4951.00,0.79
4950.00,0.80
4949.00,0.80
4948.00,0.80
4947.00,0.80
4946.00,0.80
4945.00,0.80
4944.00,0.80
4943.00,0.80
4942.00,0.81
4941.00,0.81
4940.00,0.81
4939.00,0.81
4938.00,0.81
4937.00,0.81
4936.00,0.81
4935.00,0.81
4934.00,0.82
4933.00,0.82
4932.00,0.82
4931.00,0.82
4930.00,0.82
4929.00,0.82
4928.00,0.82
4927.00,0.82
4926.00,0.82
4925.00,0.82
4924.00,0.83
4923.00,0.83
4922.00,0.83
4921.00,0.83
4920.00,0.83
4919.00,0.83
4918.00,0.83
4917.00,0.83
4916.00,0.83
4915.00,0.83
4914.00,0.83
4913.00,0.83
4912.00,0.84
4911.00,0.84
4910.00,0.84
4909.00,0.84
4908.00,0.84
4907.00,0.84
4906.00,0.84
4905.00,0.84
4904.00,0.84
4903.00,0.85
4902.00,0.85
4901.00,0.85
4900.00,0.85
4899.00,0.85
4898.00,0.85
4897.00,0.85
4896.00,0.85
4895.00,0.85
4894.00,0.85
4893.00,0.85
4892.00,0.85
4891.00,0.85
4890.00,0.85
4889.00,0.85
4888.00,0.85
4887.00,0.85
4886.00,0.85
4885.00,0.85
4884.00,0.85
4883.00,0.85
4882.00,0.85
4881.00,0.85
4880.00,0.85
4879.00,0.85
4878.00,0.86
4877.00,0.86
4876.00,0.86
4875.00,0.86
4874.00,0.86
4873.00,0.86
4872.00,0.86
4871.00,0.86
4870.00,0.86
4869.00,0.86
4868.00,0.86
4867.00,0.86
4866.00,0.86
4865.00,0.86
4864.00,0.86
4863.00,0.86
4862.00,0.87
4861.00,0.87
4860.00,0.87
4859.00,0.87
4858.00,0.87
4857.00,0.87
4856.00,0.87
4855.00,0.87
4854.00,0.87
4853.00,0.87
4852.00,0.87
4851.00,0.87
4850.00,0.87
4849.00,0.87
4848.00,0.87
4847.00,0.88
4846.00,0.88
4845.00,0.88
4844.00,0.88
4843.00,0.88
4842.00,0.88
4841.00,0.88
4840.00,0.88
4839.00,0.88
4838.00,0.89
4837.00,0.89
4836.00,0.89
4835.00,0.89
4834.00,0.89
4833.00,0.89
4832.00,0.89
4831.00,0.89
4830.00,0.89
4829.00,0.89
4828.00,0.89
4827.00,0.89
4826.00,0.90
4825.00,0.90
4824.00,0.90
4823.00,0.90
4822.00,0.90
4821.00,0.90
4820.00,0.90
4819.00,0.90
4818.00,0.90
4817.00,0.90
4816.00,0.90
4815.00,0.90
4814.00,0.90
4813.00,0.90
4812.00,0.90
4811.00,0.90
4810.00,0.90
4809.00,0.91
4808.00,0.91
4807.00,0.91
4806.00,0.91
4805.00,0.91
4804.00,0.91
4803.00,0.91
4802.00,0.92
4801.00,0.92
4800.00,0.92
4799.00,0.92
4798.00,0.92
4797.00,0.92
4796.00,0.93
4795.00,0.93
4794.00,0.93
4793.00,0.93
4792.00,0.93
4791.00,0.93
4790.00,0.93
4789.00,0.93
4788.00,0.93
4787.00,0.93
4786.00,0.94
4785.00,0.94
4784.00,0.94
4783.00,0.94
4782.00,0.94
4781.00,0.94
4780.00,0.94
4779.00,0.94
4778.00,0.94
4777.00,0.95
4776.00,0.95
4775.00,0.95
4774.00,0.95
4773.00,0.95
4772.00,0.95
4771.00,0.95
4770.00,0.96
4769.00,0.96
4768.00,0.96
4767.00,0.96
4766.00,0.96
4765.00,0.96
4764.00,0.97
4763.00,0.97
4762.00,0.97
4761.00,0.97
4760.00,0.97
4759.00,0.97
4758.00,0.97
4757.00,0.97
4756.00,0.98
4755.00,0.98
4754.00,0.98
4753.00,0.98
4752.00,0.98
4751.00,0.98
4750.00,0.98
4749.00,0.99
4748.00,0.99
4747.00,0.99
4746.00,0.99
4745.00,0.99
4744.00,0.99
4743.00,0.99
4742.00,1.00
4741.00,1.00
4740.00,1.00
4739.00,1.00
4738.00,1.00
4737.00,1.00
4736.00,1.01
4735.00,1.01
4734.00,1.01
4733.00,1.01
4732.00,1.01
4731.00,1.01
4730.00,1.02
4729.00,1.02
4728.00,1.02
4727.00,1.02
4726.00,1.02
4725.00,1.02
4724.00,1.03
4723.00,1.03
4722.00,1.03
4721.00,1.03
4720.00,1.03
4719.00,1.04
4718.00,1.04
4717.00,1.04
4716.00,1.04
4715.00,1.04
4714.00,1.04
4713.00,1.05
4712.00,1.05
4711.00,1.05
4710.00,1.05
4709.00,1.05
4708.00,1.05
4707.00,1.05
4706.00,1.06
4705.00,1.06
4704.00,1.06
4703.00,1.06
4702.00,1.06
4701.00,1.06
4700.00,1.06
4699.00,1.06
4698.00,1.06
4697.00,1.06
4696.00,1.07
4695.00,1.07
4694.00,1.07
4693.00,1.07
4692.00,1.07
4691.00,1.08
4690.00,1.08
4689.00,1.08
4688.00,1.08
4687.00,1.09
4686.00,1.09
4685.00,1.09
4684.00,1.09
4683.00,1.10
4682.00,1.10
4681.00,1.10
4680.00,1.10
4679.00,1.11
4678.00,1.11
4677.00,1.11
4676.00,1.11
4675.00,1.11
4674.00,1.11
4673.00,1.11
4672.00,1.11
4671.00,1.11
4670.00,1.11
4669.00,1.11
4668.00,1.11
4667.00,1.11
4666.00,1.11
4665.00,1.12
4664.00,1.12
4663.00,1.12
4662.00,1.12
4661.00,1.12
4660.00,1.12
4659.00,1.12
4658.00,1.12
4657.00,1.13
4656.00,1.13
4655.00,1.13
4654.00,1.13
4653.00,1.13
4652.00,1.13
4651.00,1.14
4650.00,1.14
4649.00,1.14
4648.00,1.14
4647.00,1.14
4646.00,1.15
4645.00,1.15
4644.00,1.15
4643.00,1.15
4642.00,1.15
4641.00,1.15
4640.00,1.15
4639.00,1.15
4638.00,1.16
4637.00,1.16
4636.00,1.16
4635.00,1.16
4634.00,1.16
4633.00,1.16
4632.00,1.16
4631.00,1.16
4630.00,1.16
4629.00,1.16
4628.00,1.16
4627.00,1.17
4626.00,1.17
4625.00,1.17
4624.00,1.17
4623.00,1.17
4622.00,1.17
4621.00,1.17
4620.00,1.17
4619.00,1.17
4618.00,1.17
4617.00,1.17
4616.00,1.17
4615.00,1.18
4614.00,1.18
4613.00,1.18
4612.00,1.18
4611.00,1.18
4610.00,1.18
4609.00,1.18
4608.00,1.18
4607.00,1.18
4606.00,1.18
4605.00,1.19
4604.00,1.19
4603.00,1.19
4602.00,1.19
4601.00,1.19
4600.00,1.19
4599.00,1.19
4598.00,1.19
4597.00,1.19
4596.00,1.19
4595.00,1.19
4594.00,1.19
4593.00,1.19
4592.00,1.20
4591.00,1.20
4590.00,1.20
4589.00,1.20
4588.00,1.20
4587.00,1.20
4586.00,1.20
4585.00,1.21
4584.00,1.21
4583.00,1.21
4582.00,1.21
4581.00,1.21
4580.00,1.21
4579.00,1.22
4578.00,1.22
4577.00,1.22
4576.00,1.22
4575.00,1.22
4574.00,1.22
4573.00,1.22
4572.00,1.23
4571.00,1.23
4570.00,1.23
4569.00,1.23
4568.00,1.23
4567.00,1.23
4566.00,1.23
4565.00,1.23
4564.00,1.23
4563.00,1.24
4562.00,1.24
4561.00,1.24
4560.00,1.24
4559.00,1.24
4558.00,1.24
4557.00,1.24
4556.00,1.25
4555.00,1.25
4554.00,1.25
4553.00,1.25
4552.00,1.25
4551.00,1.25
4550.00,1.26
4549.00,1.26
4548.00,1.26
4547.00,1.26
4546.00,1.26
4545.00,1.26
4544.00,1.26
4543.00,1.26
4542.00,1.26
4541.00,1.26
4540.00,1.26
4539.00,1.26
4538.00,1.26
4537.00,1.26
4536.00,1.26
4535.00,1.26
4534.00,1.26
4533.00,1.26
4532.00,1.26
4531.00,1.26
4530.00,1.26
4529.00,1.26
4528.00,1.26
4527.00,1.26
4526.00,1.26
4525.00,1.26
4524.00,1.26
4523.00,1.26
4522.00,1.26
4521.00,1.26
4520.00,1.27
4519.00,1.27
4518.00,1.27
4517.00,1.27
4516.00,1.27
4515.00,1.27
4514.00,1.27
4513.00,1.27
4512.00,1.27
4511.00,1.27
4510.00,1.27
4509.00,1.27
4508.00,1.27
4507.00,1.27
4506.00,1.27
4505.00,1.27
4504.00,1.27
4503.00,1.27
4502.00,1.27
4501.00,1.27
4500.00,1.27
4499.00,1.27
4498.00,1.27
4497.00,1.27
4496.00,1.27
4495.00,1.27
4494.00,1.27
4493.00,1.26
4492.00,1.26
4491.00,1.26
4490.00,1.26
4489.00,1.26
4488.00,1.26
4487.00,1.26
4486.00,1.26
4485.00,1.26
4484.00,1.26
4483.00,1.26
4482.00,1.26
4481.00,1.26
4480.00,1.25
4479.00,1.25
4478.00,1.25
4477.00,1.25
4476.00,1.25
4475.00,1.25
4474.00,1.24
4473.00,1.24
4472.00,1.24
4471.00,1.24
4470.00,1.24
4469.00,1.24
4468.00,1.23
4467.00,1.23
4466.00,1.23
4465.00,1.23
4464.00,1.22
4463.00,1.22
4462.00,1.22
4461.00,1.22
4460.00,1.21
4459.00,1.21
4458.00,1.21
4457.00,1.21
4456.00,1.20
4455.00,1.20
4454.00,1.19
4453.00,1.19
4452.00,1.19
4451.00,1.18
4450.00,1.18
4449.00,1.17
4448.00,1.17
4447.00,1.16
4446.00,1.16
4445.00,1.16
4444.00,1.15
4443.00,1.15
4442.00,1.14
4441.00,1.14
4440.00,1.13
4439.00,1.13
4438.00,1.13
4437.00,1.12
4436.00,1.12
4435.00,1.12
4434.00,1.11
4433.00,1.11
4432.00,1.11
4431.00,1.10
4430.00,1.10
4429.00,1.10
4428.00,1.09
4427.00,1.09
4426.00,1.09
4425.00,1.09
4424.00,1.08
4423.00,1.08
4422.00,1.08
4421.00,1.08
4420.00,1.08
4419.00,1.08
4418.00,1.07
4417.00,1.07
4416.00,1.07
4415.00,1.07
4414.00,1.07
4413.00,1.07
4412.00,1.07
4411.00,1.07
4410.00,1.08
4409.00,1.08
4408.00,1.08
4407.00,1.08
4406.00,1.08
4405.00,1.08
4404.00,1.08
4403.00,1.08
4402.00,1.08
4401.00,1.09
4400.00,1.09
4399.00,1.09
4398.00,1.09
4397.00,1.09
4396.00,1.09
4395.00,1.09
4394.00,1.09
4393.00,1.10
4392.00,1.10
4391.00,1.10
4390.00,1.10
4389.00,1.10
4388.00,1.10
4387.00,1.10
4386.00,1.11
4385.00,1.11
4384.00,1.11
4383.00,1.11
4382.00,1.11
4381.00,1.11
4380.00,1.12
4379.00,1.12
4378.00,1.12
4377.00,1.12
4376.00,1.12
4375.00,1.13
4374.00,1.13
4373.00,1.13
4372.00,1.13
4371.00,1.13
4370.00,1.13
4369.00,1.13
4368.00,1.13
4367.00,1.13
4366.00,1.13
4365.00,1.13
4364.00,1.13
4363.00,1.13
4362.00,1.13
4361.00,1.13
4360.00,1.13
4359.00,1.13
4358.00,1.13
4357.00,1.13
4356.00,1.12
4355.00,1.12
4354.00,1.12
4353.00,1.12
4352.00,1.12
4351.00,1.12
4350.00,1.12
4349.00,1.12
4348.00,1.12
4347.00,1.12
4346.00,1.12
4345.00,1.12
4344.00,1.12
4343.00,1.12
4342.00,1.13
4341.00,1.13
4340.00,1.13
4339.00,1.13
4338.00,1.13
4337.00,1.13
4336.00,1.13
4335.00,1.13
4334.00,1.13
4333.00,1.13
4332.00,1.13
4331.00,1.13
4330.00,1.14
4329.00,1.14
4328.00,1.14
4327.00,1.14
4326.00,1.14
4325.00,1.14
4324.00,1.14
4323.00,1.15
4322.00,1.15
4321.00,1.15
4320.00,1.15
4319.00,1.16
4318.00,1.16
4317.00,1.16
4316.00,1.16
4315.00,1.16
4314.00,1.17
4313.00,1.17
4312.00,1.17
4311.00,1.17
4310.00,1.18
4309.00,1.18
4308.00,1.18
4307.00,1.18
4306.00,1.18
4305.00,1.18
4304.00,1.18
4303.00,1.18
4302.00,1.18
4301.00,1.19
4300.00,1.19
4299.00,1.19
4298.00,1.19
4297.00,1.19
4296.00,1.19
4295.00,1.19
4294.00,1.19
4293.00,1.19
4292.00,1.19
4291.00,1.20
4290.00,1.20
4289.00,1.20
4288.00,1.20
4287.00,1.20
4286.00,1.20
4285.00,1.20
4284.00,1.20
4283.00,1.21
4282.00,1.21
4281.00,1.21
4280.00,1.21
4279.00,1.21
4278.00,1.21
4277.00,1.20
4276.00,1.20
4275.00,1.20
4274.00,1.20
4273.00,1.20
4272.00,1.20
4271.00,1.20
4270.00,1.20
4269.00,1.20
4268.00,1.20
4267.00,1.20
4266.00,1.19
4265.00,1.19
4264.00,1.19
4263.00,1.19
4262.00,1.19
4261.00,1.19
4260.00,1.19
4259.00,1.19
4258.00,1.20
4257.00,1.20
4256.00,1.20
4255.00,1.20
4254.00,1.20
4253.00,1.20
4252.00,1.20
4251.00,1.20
4250.00,1.20
4249.00,1.21
4248.00,1.21
4247.00,1.21
4246.00,1.21
4245.00,1.21
4244.00,1.21
4243.00,1.21
4242.00,1.22
4241.00,1.22
4240.00,1.22
4239.00,1.22
4238.00,1.22
4237.00,1.22
4236.00,1.23
4235.00,1.23
4234.00,1.23
4233.00,1.23
4232.00,1.23
4231.00,1.23
4230.00,1.23
4229.00,1.24
4228.00,1.24
4227.00,1.24
4226.00,1.24
4225.00,1.24
4224.00,1.24
4223.00,1.24
4222.00,1.24
4221.00,1.24
4220.00,1.24
4219.00,1.24
4218.00,1.24
4217.00,1.24
4216.00,1.24
4215.00,1.24
4214.00,1.25
4213.00,1.25
4212.00,1.25
4211.00,1.25
4210.00,1.25
4209.00,1.25
4208.00,1.25
4207.00,1.25
4206.00,1.25
4205.00,1.25
4204.00,1.25
4203.00,1.25
4202.00,1.25
4201.00,1.25
4200.00,1.25
4199.00,1.25
4198.00,1.25
4197.00,1.25
4196.00,1.25
4195.00,1.25
4194.00,1.25
4193.00,1.25
4192.00,1.25
4191.00,1.25
4190.00,1.25
4189.00,1.25
4188.00,1.25
4187.00,1.25
4186.00,1.25
4185.00,1.25
4184.00,1.25
4183.00,1.25
4182.00,1.25
4181.00,1.25
4180.00,1.25
4179.00,1.25
4178.00,1.24
4177.00,1.24
4176.00,1.24
4175.00,1.24
4174.00,1.25
4173.00,1.25
4172.00,1.25
4171.00,1.25
4170.00,1.25
4169.00,1.25
4168.00,1.25
4167.00,1.25
4166.00,1.25
4165.00,1.26
4164.00,1.26
4163.00,1.26
4162.00,1.26
4161.00,1.26
4160.00,1.26
4159.00,1.27
4158.00,1.27
4157.00,1.27
4156.00,1.27
4155.00,1.27
4154.00,1.27
4153.00,1.27
4152.00,1.27
4151.00,1.27
4150.00,1.28
4149.00,1.28
4148.00,1.28
4147.00,1.28
4146.00,1.28
4145.00,1.28
4144.00,1.28
4143.00,1.28
4142.00,1.28
4141.00,1.28
4140.00,1.28
4139.00,1.28
4138.00,1.28
4137.00,1.29
4136.00,1.29
4135.00,1.29
4134.00,1.29
4133.00,1.29
4132.00,1.30
4131.00,1.30
4130.00,1.30
4129.00,1.30
4128.00,1.30
4127.00,1.30
4126.00,1.31
4125.00,1.31
4124.00,1.31
4123.00,1.31
4122.00,1.31
4121.00,1.31
4120.00,1.31
4119.00,1.31
4118.00,1.30
4117.00,1.30
4116.00,1.30
4115.00,1.30
4114.00,1.30
4113.00,1.30
4112.00,1.30
4111.00,1.30
4110.00,1.30
4109.00,1.29
4108.00,1.29
4107.00,1.29
4106.00,1.29
4105.00,1.29
4104.00,1.29
4103.00,1.29
4102.00,1.29
4101.00,1.29
4100.00,1.29
4099.00,1.29
4098.00,1.29
4097.00,1.29
4096.00,1.29
4095.00,1.29
4094.00,1.29
4093.00,1.30
4092.00,1.30
4091.00,1.30
4090.00,1.30
4089.00,1.30
4088.00,1.31
4087.00,1.31
4086.00,1.31
4085.00,1.31
4084.00,1.31
4083.00,1.32
4082.00,1.32
4081.00,1.32
4080.00,1.32
4079.00,1.32
4078.00,1.32
4077.00,1.32
4076.00,1.32
4075.00,1.32
4074.00,1.32
4073.00,1.32
4072.00,1.33
4071.00,1.33
4070.00,1.33
4069.00,1.33
4068.00,1.33
4067.00,1.33
4066.00,1.33
4065.00,1.33
4064.00,1.33
4063.00,1.34
4062.00,1.34
4061.00,1.34
4060.00,1.34
4059.00,1.34
4058.00,1.34
4057.00,1.34
4056.00,1.34
4055.00,1.34
4054.00,1.35
4053.00,1.35
4052.00,1.35
4051.00,1.35
4050.00,1.35
4049.00,1.35
4048.00,1.35
4047.00,1.35
4046.00,1.35
4045.00,1.35
4044.00,1.35
4043.00,1.35
4042.00,1.35
4041.00,1.35
4040.00,1.35
4039.00,1.35
4038.00,1.35
4037.00,1.35
4036.00,1.35
4035.00,1.35
4034.00,1.35
4033.00,1.35
4032.00,1.35
4031.00,1.35
4030.00,1.35
4029.00,1.35
4028.00,1.35
4027.00,1.35
4026.00,1.35
4025.00,1.35
4024.00,1.35
4023.00,1.35
4022.00,1.35
4021.00,1.35
4020.00,1.35
4019.00,1.35
4018.00,1.35
4017.00,1.35
4016.00,1.35
4015.00,1.36
4014.00,1.36
4013.00,1.36
4012.00,1.36
4011.00,1.36
4010.00,1.36
4009.00,1.36
4008.00,1.36
4007.00,1.36
4006.00,1.36
4005.00,1.36
4004.00,1.36
4003.00,1.36
4002.00,1.36
4001.00,1.36
4000.00,1.36
