创建为新数据集,样品 083 用户 Administrator 日期 星期日, 十一月 05 2017
cm-1,%T
10000.00,1.79
9999.00,1.79
9998.00,1.79
9997.00,1.78
9996.00,1.78
9995.00,1.78
9994.00,1.78
9993.00,1.77
9992.00,1.77
9991.00,1.77
9990.00,1.76
9989.00,1.76
9988.00,1.76
9987.00,1.76
9986.00,1.75
9985.00,1.75
9984.00,1.75
9983.00,1.75
9982.00,1.74
9981.00,1.74
9980.00,1.74
9979.00,1.74
9978.00,1.74
9977.00,1.74
9976.00,1.74
9975.00,1.74
9974.00,1.74
9973.00,1.74
9972.00,1.74
9971.00,1.74
9970.00,1.75
9969.00,1.75
9968.00,1.75
9967.00,1.75
9966.00,1.75
9965.00,1.76
9964.00,1.76
9963.00,1.76
9962.00,1.76
9961.00,1.76
9960.00,1.76
9959.00,1.76
9958.00,1.76
9957.00,1.77
9956.00,1.77
9955.00,1.77
9954.00,1.77
9953.00,1.77
9952.00,1.77
9951.00,1.78
9950.00,1.78
9949.00,1.78
9948.00,1.78
9947.00,1.78
9946.00,1.78
9945.00,1.79
9944.00,1.79
9943.00,1.79
9942.00,1.79
9941.00,1.79
9940.00,1.79
9939.00,1.79
9938.00,1.79
9937.00,1.79
9936.00,1.79
9935.00,1.79
9934.00,1.79
9933.00,1.79
9932.00,1.79
9931.00,1.79
9930.00,1.79
9929.00,1.79
9928.00,1.79
9927.00,1.79
9926.00,1.79
9925.00,1.79
9924.00,1.79
9923.00,1.79
9922.00,1.79
9921.00,1.78
9920.00,1.78
9919.00,1.78
9918.00,1.78
9917.00,1.78
9916.00,1.78
9915.00,1.77
9914.00,1.77
9913.00,1.77
9912.00,1.77
9911.00,1.77
9910.00,1.77
9909.00,1.77
9908.00,1.77
9907.00,1.77
9906.00,1.77
9905.00,1.77
9904.00,1.77
9903.00,1.77
9902.00,1.77
9901.00,1.77
9900.00,1.77
9899.00,1.77
9898.00,1.77
9897.00,1.77
9896.00,1.76
9895.00,1.76
9894.00,1.76
9893.00,1.76
9892.00,1.76
9891.00,1.76
9890.00,1.76
9889.00,1.76
9888.00,1.76
9887.00,1.76
9886.00,1.76
9885.00,1.76
9884.00,1.76
9883.00,1.76
9882.00,1.76
9881.00,1.76
9880.00,1.76
9879.00,1.76
9878.00,1.76
9877.00,1.76
9876.00,1.76
9875.00,1.76
9874.00,1.76
9873.00,1.76
9872.00,1.75
9871.00,1.75
9870.00,1.75
9869.00,1.75
9868.00,1.75
9867.00,1.74
9866.00,1.74
9865.00,1.74
9864.00,1.74
9863.00,1.74
9862.00,1.74
9861.00,1.74
9860.00,1.74
9859.00,1.74
9858.00,1.74
9857.00,1.74
9856.00,1.74
9855.00,1.74
9854.00,1.74
9853.00,1.74
9852.00,1.74
9851.00,1.74
9850.00,1.75
9849.00,1.75
9848.00,1.75
9847.00,1.75
9846.00,1.74
9845.00,1.74
9844.00,1.74
9843.00,1.74
9842.00,1.74
9841.00,1.74
9840.00,1.74
9839.00,1.74
9838.00,1.74
9837.00,1.74
9836.00,1.74
9835.00,1.74
9834.00,1.74
9833.00,1.74
9832.00,1.75
9831.00,1.75
9830.00,1.75
9829.00,1.76
9828.00,1.76
9827.00,1.76
9826.00,1.77
9825.00,1.77
9824.00,1.78
9823.00,1.78
9822.00,1.78
9821.00,1.78
9820.00,1.78
9819.00,1.78
9818.00,1.78
9817.00,1.78
9816.00,1.78
9815.00,1.78
9814.00,1.78
9813.00,1.77
9812.00,1.77
9811.00,1.77
9810.00,1.77
9809.00,1.76
9808.00,1.76
9807.00,1.76
9806.00,1.76
9805.00,1.76
9804.00,1.76
9803.00,1.76
9802.00,1.76
9801.00,1.76
9800.00,1.76
9799.00,1.76
9798.00,1.76
9797.00,1.76
9796.00,1.76
9795.00,1.76
9794.00,1.76
9793.00,1.76
9792.00,1.76
9791.00,1.76
9790.00,1.76
9789.00,1.76
9788.00,1.76
9787.00,1.76
9786.00,1.76
9785.00,1.76
9784.00,1.76
9783.00,1.75
9782.00,1.75
9781.00,1.75
9780.00,1.75
9779.00,1.75
9778.00,1.75
9777.00,1.75
9776.00,1.75
9775.00,1.75
9774.00,1.75
9773.00,1.75
9772.00,1.75
9771.00,1.75
9770.00,1.75
9769.00,1.75
9768.00,1.75
9767.00,1.75
9766.00,1.76
9765.00,1.76
9764.00,1.76
9763.00,1.76
9762.00,1.76
9761.00,1.76
9760.00,1.76
9759.00,1.76
9758.00,1.76
9757.00,1.76
9756.00,1.76
9755.00,1.76
9754.00,1.76
9753.00,1.76
9752.00,1.76
9751.00,1.76
9750.00,1.75
9749.00,1.75
9748.00,1.75
9747.00,1.75
9746.00,1.75
9745.00,1.74
9744.00,1.74
9743.00,1.74
9742.00,1.74
9741.00,1.74
9740.00,1.73
9739.00,1.73
9738.00,1.73
9737.00,1.73
9736.00,1.73
9735.00,1.73
9734.00,1.73
9733.00,1.73
9732.00,1.73
9731.00,1.73
9730.00,1.73
9729.00,1.73
9728.00,1.73
9727.00,1.73
9726.00,1.73
9725.00,1.73
9724.00,1.73
9723.00,1.73
9722.00,1.73
9721.00,1.73
9720.00,1.73
9719.00,1.73
9718.00,1.73
9717.00,1.73
9716.00,1.73
9715.00,1.73
9714.00,1.73
9713.00,1.73
9712.00,1.73
9711.00,1.73
9710.00,1.74
9709.00,1.74
9708.00,1.74
9707.00,1.74
9706.00,1.74
9705.00,1.74
9704.00,1.74
9703.00,1.74
9702.00,1.74
9701.00,1.74
9700.00,1.75
9699.00,1.75
9698.00,1.75
9697.00,1.75
9696.00,1.75
9695.00,1.75
9694.00,1.75
9693.00,1.75
9692.00,1.75
9691.00,1.76
9690.00,1.76
9689.00,1.76
9688.00,1.76
9687.00,1.76
9686.00,1.76
9685.00,1.76
9684.00,1.76
9683.00,1.76
9682.00,1.76
9681.00,1.76
9680.00,1.77
9679.00,1.77
9678.00,1.77
9677.00,1.77
9676.00,1.77
9675.00,1.77
9674.00,1.77
9673.00,1.78
9672.00,1.78
9671.00,1.78
9670.00,1.78
9669.00,1.78
9668.00,1.79
9667.00,1.79
9666.00,1.79
9665.00,1.79
9664.00,1.79
9663.00,1.79
9662.00,1.79
9661.00,1.79
9660.00,1.78
9659.00,1.78
9658.00,1.78
9657.00,1.78
9656.00,1.77
9655.00,1.77
9654.00,1.77
9653.00,1.76
9652.00,1.76
9651.00,1.76
9650.00,1.75
9649.00,1.75
9648.00,1.75
9647.00,1.75
9646.00,1.74
9645.00,1.74
9644.00,1.74
9643.00,1.74
9642.00,1.74
9641.00,1.74
9640.00,1.74
9639.00,1.74
9638.00,1.74
9637.00,1.74
9636.00,1.74
9635.00,1.75
9634.00,1.75
9633.00,1.75
9632.00,1.75
9631.00,1.75
9630.00,1.75
9629.00,1.75
9628.00,1.76
9627.00,1.76
9626.00,1.76
9625.00,1.76
9624.00,1.76
9623.00,1.77
9622.00,1.77
9621.00,1.77
9620.00,1.77
9619.00,1.77
9618.00,1.77
9617.00,1.77
9616.00,1.77
9615.00,1.78
9614.00,1.78
9613.00,1.78
9612.00,1.78
9611.00,1.78
9610.00,1.78
9609.00,1.78
9608.00,1.77
9607.00,1.77
9606.00,1.77
9605.00,1.77
9604.00,1.77
9603.00,1.77
9602.00,1.77
9601.00,1.77
9600.00,1.77
9599.00,1.77
9598.00,1.76
9597.00,1.76
9596.00,1.76
9595.00,1.76
9594.00,1.76
9593.00,1.76
9592.00,1.76
9591.00,1.76
9590.00,1.76
9589.00,1.76
9588.00,1.76
9587.00,1.76
9586.00,1.76
9585.00,1.76
9584.00,1.76
9583.00,1.76
9582.00,1.76
9581.00,1.75
9580.00,1.75
9579.00,1.75
9578.00,1.75
9577.00,1.75
9576.00,1.75
9575.00,1.75
9574.00,1.75
9573.00,1.75
9572.00,1.75
9571.00,1.75
9570.00,1.75
9569.00,1.74
9568.00,1.74
9567.00,1.74
9566.00,1.74
9565.00,1.74
9564.00,1.74
9563.00,1.74
9562.00,1.74
9561.00,1.74
9560.00,1.74
9559.00,1.74
9558.00,1.74
9557.00,1.75
9556.00,1.75
9555.00,1.75
9554.00,1.75
9553.00,1.76
9552.00,1.76
9551.00,1.76
9550.00,1.76
9549.00,1.76
9548.00,1.77
9547.00,1.77
9546.00,1.77
9545.00,1.77
9544.00,1.77
9543.00,1.77
9542.00,1.77
9541.00,1.77
9540.00,1.77
9539.00,1.77
9538.00,1.77
9537.00,1.77
9536.00,1.77
9535.00,1.77
9534.00,1.76
9533.00,1.76
9532.00,1.76
9531.00,1.76
9530.00,1.76
9529.00,1.76
9528.00,1.76
9527.00,1.76
9526.00,1.76
9525.00,1.76
9524.00,1.76
9523.00,1.76
9522.00,1.76
9521.00,1.76
9520.00,1.76
9519.00,1.76
9518.00,1.76
9517.00,1.76
9516.00,1.76
9515.00,1.77
9514.00,1.77
9513.00,1.77
9512.00,1.77
9511.00,1.77
9510.00,1.77
9509.00,1.77
9508.00,1.77
9507.00,1.77
9506.00,1.77
9505.00,1.77
9504.00,1.76
9503.00,1.76
9502.00,1.76
9501.00,1.76
9500.00,1.76
9499.00,1.76
9498.00,1.76
9497.00,1.76
9496.00,1.75
9495.00,1.75
9494.00,1.75
9493.00,1.75
9492.00,1.75
9491.00,1.74
9490.00,1.74
9489.00,1.74
9488.00,1.74
9487.00,1.74
9486.00,1.74
9485.00,1.74
9484.00,1.74
9483.00,1.74
9482.00,1.74
9481.00,1.74
9480.00,1.74
9479.00,1.74
9478.00,1.74
9477.00,1.74
9476.00,1.75
9475.00,1.75
9474.00,1.75
9473.00,1.75
9472.00,1.76
9471.00,1.76
9470.00,1.76
9469.00,1.77
9468.00,1.77
9467.00,1.77
9466.00,1.77
9465.00,1.78
9464.00,1.78
9463.00,1.78
9462.00,1.78
9461.00,1.78
9460.00,1.78
9459.00,1.78
9458.00,1.78
9457.00,1.78
9456.00,1.78
9455.00,1.78
9454.00,1.77
9453.00,1.77
9452.00,1.77
9451.00,1.76
9450.00,1.76
9449.00,1.75
9448.00,1.75
9447.00,1.75
9446.00,1.74
9445.00,1.74
9444.00,1.74
9443.00,1.74
9442.00,1.74
9441.00,1.74
9440.00,1.74
9439.00,1.74
9438.00,1.74
9437.00,1.74
9436.00,1.75
9435.00,1.75
9434.00,1.75
9433.00,1.75
9432.00,1.76
9431.00,1.76
9430.00,1.76
9429.00,1.76
9428.00,1.76
9427.00,1.77
9426.00,1.77
9425.00,1.77
9424.00,1.77
9423.00,1.77
9422.00,1.77
9421.00,1.77
9420.00,1.77
9419.00,1.77
9418.00,1.77
9417.00,1.77
9416.00,1.77
9415.00,1.76
9414.00,1.76
9413.00,1.76
9412.00,1.76
9411.00,1.76
9410.00,1.76
9409.00,1.76
9408.00,1.76
9407.00,1.76
9406.00,1.76
9405.00,1.76
9404.00,1.76
9403.00,1.76
9402.00,1.76
9401.00,1.76
9400.00,1.77
9399.00,1.77
9398.00,1.77
9397.00,1.77
9396.00,1.78
9395.00,1.78
9394.00,1.78
9393.00,1.78
9392.00,1.78
9391.00,1.78
9390.00,1.78
9389.00,1.78
9388.00,1.78
9387.00,1.78
9386.00,1.77
9385.00,1.77
9384.00,1.77
9383.00,1.77
9382.00,1.77
9381.00,1.76
9380.00,1.76
9379.00,1.76
9378.00,1.76
9377.00,1.76
9376.00,1.76
9375.00,1.75
9374.00,1.75
9373.00,1.75
9372.00,1.75
9371.00,1.75
9370.00,1.75
9369.00,1.75
9368.00,1.75
9367.00,1.75
9366.00,1.75
9365.00,1.75
9364.00,1.75
9363.00,1.75
9362.00,1.75
9361.00,1.75
9360.00,1.75
9359.00,1.75
9358.00,1.75
9357.00,1.75
9356.00,1.75
9355.00,1.75
9354.00,1.75
9353.00,1.75
9352.00,1.75
9351.00,1.76
9350.00,1.76
9349.00,1.76
9348.00,1.76
9347.00,1.76
9346.00,1.77
9345.00,1.77
9344.00,1.77
9343.00,1.77
9342.00,1.77
9341.00,1.77
9340.00,1.78
9339.00,1.78
9338.00,1.78
9337.00,1.78
9336.00,1.78
9335.00,1.78
9334.00,1.78
9333.00,1.78
9332.00,1.78
9331.00,1.78
9330.00,1.78
9329.00,1.78
9328.00,1.78
9327.00,1.78
9326.00,1.78
9325.00,1.78
9324.00,1.78
9323.00,1.78
9322.00,1.78
9321.00,1.78
9320.00,1.78
9319.00,1.78
9318.00,1.78
9317.00,1.78
9316.00,1.78
9315.00,1.78
9314.00,1.78
9313.00,1.77
9312.00,1.77
9311.00,1.77
9310.00,1.77
9309.00,1.77
9308.00,1.77
9307.00,1.77
9306.00,1.77
9305.00,1.77
9304.00,1.77
9303.00,1.77
9302.00,1.77
9301.00,1.77
9300.00,1.77
9299.00,1.77
9298.00,1.77
9297.00,1.77
9296.00,1.78
9295.00,1.78
9294.00,1.78
9293.00,1.78
9292.00,1.78
9291.00,1.78
9290.00,1.79
9289.00,1.79
9288.00,1.79
9287.00,1.79
9286.00,1.78
9285.00,1.78
9284.00,1.78
9283.00,1.78
9282.00,1.78
9281.00,1.78
9280.00,1.77
9279.00,1.77
9278.00,1.77
9277.00,1.77
9276.00,1.76
9275.00,1.76
9274.00,1.76
9273.00,1.76
9272.00,1.75
9271.00,1.75
9270.00,1.75
9269.00,1.75
9268.00,1.75
9267.00,1.75
9266.00,1.74
9265.00,1.74
9264.00,1.74
9263.00,1.74
9262.00,1.74
9261.00,1.74
9260.00,1.74
9259.00,1.74
9258.00,1.74
9257.00,1.75
9256.00,1.75
9255.00,1.75
9254.00,1.75
9253.00,1.75
9252.00,1.75
9251.00,1.75
9250.00,1.75
9249.00,1.75
9248.00,1.76
9247.00,1.76
9246.00,1.76
9245.00,1.76
9244.00,1.76
9243.00,1.76
9242.00,1.76
9241.00,1.76
9240.00,1.76
9239.00,1.77
9238.00,1.77
9237.00,1.77
9236.00,1.77
9235.00,1.77
9234.00,1.77
9233.00,1.77
9232.00,1.77
9231.00,1.77
9230.00,1.77
9229.00,1.77
9228.00,1.77
9227.00,1.77
9226.00,1.77
9225.00,1.77
9224.00,1.77
9223.00,1.77
9222.00,1.77
9221.00,1.77
9220.00,1.77
9219.00,1.77
9218.00,1.77
9217.00,1.77
9216.00,1.77
9215.00,1.77
9214.00,1.77
9213.00,1.77
9212.00,1.77
9211.00,1.77
9210.00,1.77
9209.00,1.77
9208.00,1.77
9207.00,1.77
9206.00,1.77
9205.00,1.77
9204.00,1.78
9203.00,1.78
9202.00,1.78
9201.00,1.78
9200.00,1.78
9199.00,1.78
9198.00,1.78
9197.00,1.78
9196.00,1.78
9195.00,1.78
9194.00,1.78
9193.00,1.78
9192.00,1.78
9191.00,1.78
9190.00,1.78
9189.00,1.77
9188.00,1.77
9187.00,1.77
9186.00,1.77
9185.00,1.77
9184.00,1.76
9183.00,1.76
9182.00,1.76
9181.00,1.76
9180.00,1.76
9179.00,1.76
9178.00,1.76
9177.00,1.76
9176.00,1.77
9175.00,1.77
9174.00,1.77
9173.00,1.77
9172.00,1.78
9171.00,1.78
9170.00,1.78
9169.00,1.78
9168.00,1.78
9167.00,1.78
9166.00,1.79
9165.00,1.79
9164.00,1.79
9163.00,1.78
9162.00,1.78
9161.00,1.78
9160.00,1.78
9159.00,1.78
9158.00,1.78
9157.00,1.77
9156.00,1.77
9155.00,1.77
9154.00,1.77
9153.00,1.77
9152.00,1.77
9151.00,1.76
9150.00,1.76
9149.00,1.76
9148.00,1.76
9147.00,1.76
9146.00,1.76
9145.00,1.76
9144.00,1.76
9143.00,1.76
9142.00,1.76
9141.00,1.76
9140.00,1.76
9139.00,1.76
9138.00,1.77
9137.00,1.77
9136.00,1.77
9135.00,1.77
9134.00,1.77
9133.00,1.77
9132.00,1.77
9131.00,1.77
9130.00,1.77
9129.00,1.77
9128.00,1.78
9127.00,1.78
9126.00,1.78
9125.00,1.78
9124.00,1.78
9123.00,1.78
9122.00,1.78
9121.00,1.78
9120.00,1.78
9119.00,1.78
9118.00,1.78
9117.00,1.78
9116.00,1.78
9115.00,1.78
9114.00,1.79
9113.00,1.79
9112.00,1.79
9111.00,1.79
9110.00,1.79
9109.00,1.79
9108.00,1.78
9107.00,1.78
9106.00,1.78
9105.00,1.78
9104.00,1.78
9103.00,1.78
9102.00,1.78
9101.00,1.77
9100.00,1.77
9099.00,1.77
9098.00,1.76
9097.00,1.76
9096.00,1.76
9095.00,1.76
9094.00,1.76
9093.00,1.75
9092.00,1.75
9091.00,1.75
9090.00,1.75
9089.00,1.75
9088.00,1.75
9087.00,1.75
9086.00,1.75
9085.00,1.75
9084.00,1.75
9083.00,1.76
9082.00,1.76
9081.00,1.76
9080.00,1.76
9079.00,1.76
9078.00,1.77
9077.00,1.77
9076.00,1.77
9075.00,1.77
9074.00,1.77
9073.00,1.77
9072.00,1.77
9071.00,1.77
9070.00,1.77
9069.00,1.77
9068.00,1.77
9067.00,1.77
9066.00,1.77
9065.00,1.77
9064.00,1.77
9063.00,1.77
9062.00,1.77
9061.00,1.77
9060.00,1.77
9059.00,1.77
9058.00,1.77
9057.00,1.77
9056.00,1.76
9055.00,1.76
9054.00,1.76
9053.00,1.77
9052.00,1.77
9051.00,1.77
9050.00,1.77
9049.00,1.77
9048.00,1.77
9047.00,1.77
9046.00,1.77
9045.00,1.77
9044.00,1.77
9043.00,1.77
9042.00,1.77
9041.00,1.77
9040.00,1.76
9039.00,1.76
9038.00,1.76
9037.00,1.76
9036.00,1.76
9035.00,1.76
9034.00,1.76
9033.00,1.76
9032.00,1.76
9031.00,1.76
9030.00,1.76
9029.00,1.76
9028.00,1.76
9027.00,1.76
9026.00,1.76
9025.00,1.76
9024.00,1.76
9023.00,1.76
9022.00,1.76
9021.00,1.76
9020.00,1.76
9019.00,1.77
9018.00,1.77
9017.00,1.77
9016.00,1.77
9015.00,1.78
9014.00,1.78
9013.00,1.78
9012.00,1.78
9011.00,1.78
9010.00,1.78
9009.00,1.79
9008.00,1.79
9007.00,1.79
9006.00,1.79
9005.00,1.79
9004.00,1.79
9003.00,1.79
9002.00,1.79
9001.00,1.79
9000.00,1.79
8999.00,1.78
8998.00,1.78
8997.00,1.78
8996.00,1.78
8995.00,1.78
8994.00,1.78
8993.00,1.78
8992.00,1.78
8991.00,1.78
8990.00,1.78
8989.00,1.78
8988.00,1.77
8987.00,1.77
8986.00,1.77
8985.00,1.77
8984.00,1.77
8983.00,1.76
8982.00,1.76
8981.00,1.76
8980.00,1.76
8979.00,1.75
8978.00,1.75
8977.00,1.75
8976.00,1.75
8975.00,1.75
8974.00,1.74
8973.00,1.74
8972.00,1.74
8971.00,1.74
8970.00,1.74
8969.00,1.74
8968.00,1.74
8967.00,1.75
8966.00,1.75
8965.00,1.75
8964.00,1.75
8963.00,1.75
8962.00,1.75
8961.00,1.75
8960.00,1.76
8959.00,1.76
8958.00,1.76
8957.00,1.76
8956.00,1.76
8955.00,1.76
8954.00,1.76
8953.00,1.76
8952.00,1.76
8951.00,1.76
8950.00,1.76
8949.00,1.76
8948.00,1.75
8947.00,1.75
8946.00,1.75
8945.00,1.75
8944.00,1.75
8943.00,1.75
8942.00,1.75
8941.00,1.75
8940.00,1.74
8939.00,1.74
8938.00,1.74
8937.00,1.74
8936.00,1.74
8935.00,1.74
8934.00,1.74
8933.00,1.74
8932.00,1.75
8931.00,1.75
8930.00,1.75
8929.00,1.75
8928.00,1.75
8927.00,1.75
8926.00,1.75
8925.00,1.75
8924.00,1.76
8923.00,1.76
8922.00,1.76
8921.00,1.76
8920.00,1.76
8919.00,1.76
8918.00,1.76
8917.00,1.76
8916.00,1.76
8915.00,1.77
8914.00,1.77
8913.00,1.76
8912.00,1.76
8911.00,1.76
8910.00,1.76
8909.00,1.76
8908.00,1.76
8907.00,1.76
8906.00,1.76
8905.00,1.76
8904.00,1.76
8903.00,1.76
8902.00,1.76
8901.00,1.76
8900.00,1.76
8899.00,1.76
8898.00,1.76
8897.00,1.76
8896.00,1.76
8895.00,1.76
8894.00,1.76
8893.00,1.76
8892.00,1.76
8891.00,1.76
8890.00,1.76
8889.00,1.76
8888.00,1.76
8887.00,1.76
8886.00,1.76
8885.00,1.76
8884.00,1.76
8883.00,1.76
8882.00,1.76
8881.00,1.76
8880.00,1.76
8879.00,1.76
8878.00,1.76
8877.00,1.76
8876.00,1.76
8875.00,1.76
8874.00,1.76
8873.00,1.76
8872.00,1.76
8871.00,1.76
8870.00,1.76
8869.00,1.76
8868.00,1.76
8867.00,1.76
8866.00,1.76
8865.00,1.76
8864.00,1.76
8863.00,1.77
8862.00,1.77
8861.00,1.77
8860.00,1.76
8859.00,1.76
8858.00,1.76
8857.00,1.76
8856.00,1.76
8855.00,1.76
8854.00,1.76
8853.00,1.76
8852.00,1.76
8851.00,1.76
8850.00,1.75
8849.00,1.75
8848.00,1.75
8847.00,1.75
8846.00,1.75
8845.00,1.75
8844.00,1.75
8843.00,1.75
8842.00,1.75
8841.00,1.75
8840.00,1.75
8839.00,1.75
8838.00,1.75
8837.00,1.75
8836.00,1.75
8835.00,1.75
8834.00,1.75
8833.00,1.75
8832.00,1.76
8831.00,1.76
8830.00,1.76
8829.00,1.76
8828.00,1.76
8827.00,1.76
8826.00,1.76
8825.00,1.76
8824.00,1.76
8823.00,1.76
8822.00,1.76
8821.00,1.76
8820.00,1.76
8819.00,1.75
8818.00,1.75
8817.00,1.75
8816.00,1.75
8815.00,1.75
8814.00,1.75
8813.00,1.75
8812.00,1.75
8811.00,1.75
8810.00,1.75
8809.00,1.75
8808.00,1.75
8807.00,1.75
8806.00,1.75
8805.00,1.75
8804.00,1.75
8803.00,1.75
8802.00,1.75
8801.00,1.75
8800.00,1.75
8799.00,1.75
8798.00,1.75
8797.00,1.75
8796.00,1.75
8795.00,1.75
8794.00,1.74
8793.00,1.74
8792.00,1.74
8791.00,1.74
8790.00,1.74
8789.00,1.74
8788.00,1.73
8787.00,1.73
8786.00,1.73
8785.00,1.73
8784.00,1.73
8783.00,1.73
8782.00,1.73
8781.00,1.73
8780.00,1.73
8779.00,1.73
8778.00,1.72
8777.00,1.72
8776.00,1.72
8775.00,1.72
8774.00,1.73
8773.00,1.73
8772.00,1.73
8771.00,1.73
8770.00,1.73
8769.00,1.73
8768.00,1.73
8767.00,1.73
8766.00,1.73
8765.00,1.73
8764.00,1.73
8763.00,1.73
8762.00,1.73
8761.00,1.73
8760.00,1.73
8759.00,1.73
8758.00,1.73
8757.00,1.73
8756.00,1.73
8755.00,1.73
8754.00,1.73
8753.00,1.72
8752.00,1.72
8751.00,1.72
8750.00,1.72
8749.00,1.72
8748.00,1.72
8747.00,1.71
8746.00,1.71
8745.00,1.71
8744.00,1.71
8743.00,1.71
8742.00,1.71
8741.00,1.71
8740.00,1.70
8739.00,1.70
8738.00,1.70
8737.00,1.70
8736.00,1.70
8735.00,1.70
8734.00,1.70
8733.00,1.70
8732.00,1.70
8731.00,1.70
8730.00,1.70
8729.00,1.70
8728.00,1.70
8727.00,1.70
8726.00,1.70
8725.00,1.71
8724.00,1.71
8723.00,1.71
8722.00,1.71
8721.00,1.71
8720.00,1.71
8719.00,1.71
8718.00,1.71
8717.00,1.71
8716.00,1.71
8715.00,1.71
8714.00,1.71
8713.00,1.71
8712.00,1.71
8711.00,1.71
8710.00,1.71
8709.00,1.71
8708.00,1.71
8707.00,1.71
8706.00,1.71
8705.00,1.71
8704.00,1.71
8703.00,1.71
8702.00,1.71
8701.00,1.71
8700.00,1.71
8699.00,1.71
8698.00,1.71
8697.00,1.71
8696.00,1.71
8695.00,1.71
8694.00,1.72
8693.00,1.72
8692.00,1.72
8691.00,1.72
8690.00,1.72
8689.00,1.72
8688.00,1.72
8687.00,1.72
8686.00,1.72
8685.00,1.72
8684.00,1.72
8683.00,1.72
8682.00,1.72
8681.00,1.72
8680.00,1.72
8679.00,1.71
8678.00,1.71
8677.00,1.71
8676.00,1.71
8675.00,1.71
8674.00,1.71
8673.00,1.70
8672.00,1.70
8671.00,1.70
8670.00,1.70
8669.00,1.70
8668.00,1.70
8667.00,1.70
8666.00,1.70
8665.00,1.70
8664.00,1.70
8663.00,1.70
8662.00,1.70
8661.00,1.70
8660.00,1.70
8659.00,1.70
8658.00,1.70
8657.00,1.70
8656.00,1.70
8655.00,1.70
8654.00,1.70
8653.00,1.70
8652.00,1.70
8651.00,1.69
8650.00,1.69
8649.00,1.69
8648.00,1.69
8647.00,1.69
8646.00,1.69
8645.00,1.69
8644.00,1.69
8643.00,1.69
8642.00,1.69
8641.00,1.69
8640.00,1.69
8639.00,1.69
8638.00,1.70
8637.00,1.70
8636.00,1.70
8635.00,1.70
8634.00,1.70
8633.00,1.71
8632.00,1.71
8631.00,1.71
8630.00,1.71
8629.00,1.71
8628.00,1.71
8627.00,1.71
8626.00,1.71
8625.00,1.71
8624.00,1.71
8623.00,1.71
8622.00,1.71
8621.00,1.71
8620.00,1.71
8619.00,1.71
8618.00,1.71
8617.00,1.71
8616.00,1.71
8615.00,1.70
8614.00,1.70
8613.00,1.70
8612.00,1.70
8611.00,1.70
8610.00,1.69
8609.00,1.69
8608.00,1.69
8607.00,1.69
8606.00,1.69
8605.00,1.69
8604.00,1.68
8603.00,1.68
8602.00,1.68
8601.00,1.68
8600.00,1.68
8599.00,1.68
8598.00,1.68
8597.00,1.68
8596.00,1.68
8595.00,1.68
8594.00,1.68
8593.00,1.68
8592.00,1.68
8591.00,1.68
8590.00,1.68
8589.00,1.69
8588.00,1.69
8587.00,1.69
8586.00,1.69
8585.00,1.69
8584.00,1.69
8583.00,1.69
8582.00,1.69
8581.00,1.69
8580.00,1.69
8579.00,1.69
8578.00,1.69
8577.00,1.69
8576.00,1.69
8575.00,1.69
8574.00,1.69
8573.00,1.69
8572.00,1.69
8571.00,1.69
8570.00,1.69
8569.00,1.69
8568.00,1.69
8567.00,1.68
8566.00,1.68
8565.00,1.68
8564.00,1.68
8563.00,1.68
8562.00,1.68
8561.00,1.68
8560.00,1.67
8559.00,1.67
8558.00,1.67
8557.00,1.67
8556.00,1.67
8555.00,1.67
8554.00,1.67
8553.00,1.67
8552.00,1.67
8551.00,1.67
8550.00,1.67
8549.00,1.67
8548.00,1.67
8547.00,1.66
8546.00,1.66
8545.00,1.66
8544.00,1.66
8543.00,1.66
8542.00,1.66
8541.00,1.66
8540.00,1.66
8539.00,1.66
8538.00,1.66
8537.00,1.66
8536.00,1.66
8535.00,1.66
8534.00,1.66
8533.00,1.66
8532.00,1.66
8531.00,1.66
8530.00,1.66
8529.00,1.66
8528.00,1.66
8527.00,1.66
8526.00,1.66
8525.00,1.66
8524.00,1.66
8523.00,1.66
8522.00,1.66
8521.00,1.65
8520.00,1.65
8519.00,1.65
8518.00,1.65
8517.00,1.65
8516.00,1.64
8515.00,1.64
8514.00,1.64
8513.00,1.64
8512.00,1.64
8511.00,1.64
8510.00,1.64
8509.00,1.64
8508.00,1.64
8507.00,1.64
8506.00,1.64
8505.00,1.64
8504.00,1.64
8503.00,1.64
8502.00,1.64
8501.00,1.64
8500.00,1.64
8499.00,1.64
8498.00,1.64
8497.00,1.64
8496.00,1.64
8495.00,1.64
8494.00,1.64
8493.00,1.64
8492.00,1.63
8491.00,1.63
8490.00,1.63
8489.00,1.63
8488.00,1.63
8487.00,1.63
8486.00,1.63
8485.00,1.63
8484.00,1.63
8483.00,1.62
8482.00,1.62
8481.00,1.62
8480.00,1.62
8479.00,1.62
8478.00,1.62
8477.00,1.62
8476.00,1.62
8475.00,1.62
8474.00,1.62
8473.00,1.62
8472.00,1.62
8471.00,1.62
8470.00,1.62
8469.00,1.62
8468.00,1.62
8467.00,1.62
8466.00,1.62
8465.00,1.62
8464.00,1.62
8463.00,1.62
8462.00,1.62
8461.00,1.61
8460.00,1.61
8459.00,1.61
8458.00,1.61
8457.00,1.61
8456.00,1.61
8455.00,1.61
8454.00,1.61
8453.00,1.61
8452.00,1.61
8451.00,1.61
8450.00,1.61
8449.00,1.61
8448.00,1.61
8447.00,1.61
8446.00,1.61
8445.00,1.61
8444.00,1.61
8443.00,1.61
8442.00,1.61
8441.00,1.61
8440.00,1.61
8439.00,1.61
8438.00,1.61
8437.00,1.61
8436.00,1.61
8435.00,1.61
8434.00,1.61
8433.00,1.61
8432.00,1.61
8431.00,1.61
8430.00,1.61
8429.00,1.61
8428.00,1.61
8427.00,1.61
8426.00,1.61
8425.00,1.61
8424.00,1.61
8423.00,1.61
8422.00,1.61
8421.00,1.61
8420.00,1.61
8419.00,1.61
8418.00,1.61
8417.00,1.61
8416.00,1.61
8415.00,1.61
8414.00,1.61
8413.00,1.61
8412.00,1.61
8411.00,1.61
8410.00,1.61
8409.00,1.61
8408.00,1.61
8407.00,1.61
8406.00,1.61
8405.00,1.61
8404.00,1.61
8403.00,1.61
8402.00,1.61
8401.00,1.61
8400.00,1.62
8399.00,1.62
8398.00,1.62
8397.00,1.62
8396.00,1.62
8395.00,1.62
8394.00,1.62
8393.00,1.62
8392.00,1.62
8391.00,1.62
8390.00,1.62
8389.00,1.62
8388.00,1.63
8387.00,1.63
8386.00,1.63
8385.00,1.63
8384.00,1.63
8383.00,1.63
8382.00,1.63
8381.00,1.63
8380.00,1.63
8379.00,1.63
8378.00,1.63
8377.00,1.63
8376.00,1.63
8375.00,1.63
8374.00,1.63
8373.00,1.63
8372.00,1.63
8371.00,1.63
8370.00,1.63
8369.00,1.63
8368.00,1.64
8367.00,1.64
8366.00,1.64
8365.00,1.64
8364.00,1.64
8363.00,1.64
8362.00,1.65
8361.00,1.65
8360.00,1.65
8359.00,1.65
8358.00,1.65
8357.00,1.65
8356.00,1.65
8355.00,1.66
8354.00,1.66
8353.00,1.66
8352.00,1.66
8351.00,1.66
8350.00,1.66
8349.00,1.66
8348.00,1.66
8347.00,1.66
8346.00,1.66
8345.00,1.66
8344.00,1.66
8343.00,1.66
8342.00,1.66
8341.00,1.66
8340.00,1.66
8339.00,1.66
8338.00,1.66
8337.00,1.67
8336.00,1.67
8335.00,1.67
8334.00,1.67
8333.00,1.67
8332.00,1.67
8331.00,1.67
8330.00,1.67
8329.00,1.67
8328.00,1.67
8327.00,1.67
8326.00,1.67
8325.00,1.67
8324.00,1.67
8323.00,1.67
8322.00,1.67
8321.00,1.67
8320.00,1.67
8319.00,1.67
8318.00,1.67
8317.00,1.67
8316.00,1.67
8315.00,1.67
8314.00,1.67
8313.00,1.67
8312.00,1.67
8311.00,1.67
8310.00,1.67
8309.00,1.67
8308.00,1.67
8307.00,1.67
8306.00,1.67
8305.00,1.67
8304.00,1.67
8303.00,1.67
8302.00,1.67
8301.00,1.67
8300.00,1.67
8299.00,1.66
8298.00,1.66
8297.00,1.66
8296.00,1.66
8295.00,1.66
8294.00,1.66
8293.00,1.66
8292.00,1.66
8291.00,1.66
8290.00,1.66
8289.00,1.66
8288.00,1.66
8287.00,1.66
8286.00,1.66
8285.00,1.67
8284.00,1.67
8283.00,1.67
8282.00,1.67
8281.00,1.67
8280.00,1.67
8279.00,1.67
8278.00,1.67
8277.00,1.67
8276.00,1.67
8275.00,1.67
8274.00,1.67
8273.00,1.67
8272.00,1.67
8271.00,1.67
8270.00,1.67
8269.00,1.67
8268.00,1.67
8267.00,1.67
8266.00,1.67
8265.00,1.67
8264.00,1.67
8263.00,1.67
8262.00,1.67
8261.00,1.66
8260.00,1.66
8259.00,1.66
8258.00,1.66
8257.00,1.66
8256.00,1.66
8255.00,1.66
8254.00,1.66
8253.00,1.66
8252.00,1.66
8251.00,1.66
8250.00,1.66
8249.00,1.66
8248.00,1.66
8247.00,1.66
8246.00,1.66
8245.00,1.66
8244.00,1.66
8243.00,1.66
8242.00,1.67
8241.00,1.67
8240.00,1.67
8239.00,1.67
8238.00,1.67
8237.00,1.67
8236.00,1.67
8235.00,1.67
8234.00,1.67
8233.00,1.67
8232.00,1.67
8231.00,1.67
8230.00,1.67
8229.00,1.67
8228.00,1.67
8227.00,1.67
8226.00,1.67
8225.00,1.67
8224.00,1.67
8223.00,1.67
8222.00,1.67
8221.00,1.67
8220.00,1.67
8219.00,1.67
8218.00,1.67
8217.00,1.67
8216.00,1.68
8215.00,1.68
8214.00,1.68
8213.00,1.68
8212.00,1.68
8211.00,1.68
8210.00,1.68
8209.00,1.69
8208.00,1.69
8207.00,1.69
8206.00,1.69
8205.00,1.69
8204.00,1.69
8203.00,1.69
8202.00,1.68
8201.00,1.68
8200.00,1.68
8199.00,1.68
8198.00,1.68
8197.00,1.68
8196.00,1.68
8195.00,1.68
8194.00,1.68
8193.00,1.68
8192.00,1.68
8191.00,1.68
8190.00,1.68
8189.00,1.68
8188.00,1.68
8187.00,1.68
8186.00,1.68
8185.00,1.68
8184.00,1.68
8183.00,1.69
8182.00,1.69
8181.00,1.69
8180.00,1.69
8179.00,1.69
8178.00,1.69
8177.00,1.69
8176.00,1.69
8175.00,1.69
8174.00,1.70
8173.00,1.70
8172.00,1.70
8171.00,1.70
8170.00,1.70
8169.00,1.70
8168.00,1.70
8167.00,1.70
8166.00,1.70
8165.00,1.70
8164.00,1.70
8163.00,1.71
8162.00,1.71
8161.00,1.71
8160.00,1.71
8159.00,1.71
8158.00,1.71
8157.00,1.71
8156.00,1.71
8155.00,1.71
8154.00,1.71
8153.00,1.71
8152.00,1.71
8151.00,1.71
8150.00,1.71
8149.00,1.71
8148.00,1.71
8147.00,1.71
8146.00,1.71
8145.00,1.71
8144.00,1.71
8143.00,1.71
8142.00,1.71
8141.00,1.71
8140.00,1.71
8139.00,1.71
8138.00,1.71
8137.00,1.71
8136.00,1.71
8135.00,1.71
8134.00,1.71
8133.00,1.71
8132.00,1.71
8131.00,1.71
8130.00,1.71
8129.00,1.71
8128.00,1.71
8127.00,1.71
8126.00,1.71
8125.00,1.71
8124.00,1.70
8123.00,1.70
8122.00,1.70
8121.00,1.70
8120.00,1.70
8119.00,1.70
8118.00,1.70
8117.00,1.70
8116.00,1.70
8115.00,1.70
8114.00,1.70
8113.00,1.70
8112.00,1.70
8111.00,1.70
8110.00,1.70
8109.00,1.70
8108.00,1.70
8107.00,1.70
8106.00,1.71
8105.00,1.71
8104.00,1.71
8103.00,1.71
8102.00,1.71
8101.00,1.71
8100.00,1.71
8099.00,1.72
8098.00,1.72
8097.00,1.72
8096.00,1.72
8095.00,1.72
8094.00,1.72
8093.00,1.72
8092.00,1.72
8091.00,1.72
8090.00,1.72
8089.00,1.72
8088.00,1.72
8087.00,1.72
8086.00,1.72
8085.00,1.72
8084.00,1.72
8083.00,1.72
8082.00,1.72
8081.00,1.72
8080.00,1.72
8079.00,1.72
8078.00,1.73
8077.00,1.73
8076.00,1.73
8075.00,1.73
8074.00,1.73
8073.00,1.73
8072.00,1.73
8071.00,1.73
8070.00,1.72
8069.00,1.72
8068.00,1.72
8067.00,1.72
8066.00,1.72
8065.00,1.72
8064.00,1.72
8063.00,1.72
8062.00,1.72
8061.00,1.72
8060.00,1.72
8059.00,1.72
8058.00,1.72
8057.00,1.72
8056.00,1.72
8055.00,1.72
8054.00,1.72
8053.00,1.72
8052.00,1.72
8051.00,1.72
8050.00,1.73
8049.00,1.73
8048.00,1.73
8047.00,1.73
8046.00,1.73
8045.00,1.73
8044.00,1.73
8043.00,1.73
8042.00,1.73
8041.00,1.73
8040.00,1.73
8039.00,1.73
8038.00,1.73
8037.00,1.74
8036.00,1.74
8035.00,1.74
8034.00,1.74
8033.00,1.74
8032.00,1.74
8031.00,1.74
8030.00,1.74
8029.00,1.74
8028.00,1.74
8027.00,1.74
8026.00,1.74
8025.00,1.74
8024.00,1.74
8023.00,1.74
8022.00,1.74
8021.00,1.74
8020.00,1.74
8019.00,1.74
8018.00,1.74
8017.00,1.74
8016.00,1.74
8015.00,1.74
8014.00,1.74
8013.00,1.74
8012.00,1.74
8011.00,1.74
8010.00,1.74
8009.00,1.74
8008.00,1.74
8007.00,1.74
8006.00,1.74
8005.00,1.74
8004.00,1.74
8003.00,1.74
8002.00,1.74
8001.00,1.74
8000.00,1.75
7999.00,1.75
7998.00,1.75
7997.00,1.75
7996.00,1.75
7995.00,1.75
7994.00,1.75
7993.00,1.75
7992.00,1.75
7991.00,1.75
7990.00,1.75
7989.00,1.74
7988.00,1.74
7987.00,1.74
7986.00,1.74
7985.00,1.74
7984.00,1.74
7983.00,1.74
7982.00,1.74
7981.00,1.75
7980.00,1.75
7979.00,1.75
7978.00,1.75
7977.00,1.75
7976.00,1.75
7975.00,1.75
7974.00,1.75
7973.00,1.75
7972.00,1.75
7971.00,1.75
7970.00,1.75
7969.00,1.76
7968.00,1.76
7967.00,1.76
7966.00,1.76
7965.00,1.76
7964.00,1.75
7963.00,1.75
7962.00,1.75
7961.00,1.75
7960.00,1.75
7959.00,1.75
7958.00,1.75
7957.00,1.75
7956.00,1.75
7955.00,1.75
7954.00,1.74
7953.00,1.74
7952.00,1.74
7951.00,1.74
7950.00,1.74
7949.00,1.74
7948.00,1.74
7947.00,1.74
7946.00,1.74
7945.00,1.74
7944.00,1.74
7943.00,1.74
7942.00,1.74
7941.00,1.74
7940.00,1.74
7939.00,1.74
7938.00,1.74
7937.00,1.74
7936.00,1.74
7935.00,1.74
7934.00,1.74
7933.00,1.74
7932.00,1.74
7931.00,1.74
7930.00,1.74
7929.00,1.74
7928.00,1.74
7927.00,1.75
7926.00,1.75
7925.00,1.75
7924.00,1.75
7923.00,1.75
7922.00,1.75
7921.00,1.75
7920.00,1.75
7919.00,1.75
7918.00,1.76
7917.00,1.76
7916.00,1.76
7915.00,1.76
7914.00,1.76
7913.00,1.76
7912.00,1.76
7911.00,1.76
7910.00,1.76
7909.00,1.76
7908.00,1.76
7907.00,1.76
7906.00,1.76
7905.00,1.76
7904.00,1.76
7903.00,1.76
7902.00,1.76
7901.00,1.76
7900.00,1.76
7899.00,1.76
7898.00,1.76
7897.00,1.76
7896.00,1.76
7895.00,1.76
7894.00,1.76
7893.00,1.76
7892.00,1.76
7891.00,1.76
7890.00,1.76
7889.00,1.77
7888.00,1.77
7887.00,1.77
7886.00,1.77
7885.00,1.77
7884.00,1.77
7883.00,1.77
7882.00,1.76
7881.00,1.76
7880.00,1.76
7879.00,1.76
7878.00,1.76
7877.00,1.76
7876.00,1.76
7875.00,1.76
7874.00,1.76
7873.00,1.76
7872.00,1.76
7871.00,1.76
7870.00,1.76
7869.00,1.76
7868.00,1.76
7867.00,1.76
7866.00,1.76
7865.00,1.76
7864.00,1.76
7863.00,1.76
7862.00,1.76
7861.00,1.76
7860.00,1.77
7859.00,1.77
7858.00,1.77
7857.00,1.77
7856.00,1.77
7855.00,1.77
7854.00,1.77
7853.00,1.77
7852.00,1.77
7851.00,1.77
7850.00,1.77
7849.00,1.77
7848.00,1.77
7847.00,1.77
7846.00,1.77
7845.00,1.77
7844.00,1.77
7843.00,1.77
7842.00,1.77
7841.00,1.77
7840.00,1.77
7839.00,1.77
7838.00,1.77
7837.00,1.77
7836.00,1.77
7835.00,1.77
7834.00,1.77
7833.00,1.77
7832.00,1.76
7831.00,1.76
7830.00,1.76
7829.00,1.76
7828.00,1.76
7827.00,1.76
7826.00,1.76
7825.00,1.76
7824.00,1.76
7823.00,1.76
7822.00,1.75
7821.00,1.75
7820.00,1.75
7819.00,1.75
7818.00,1.75
7817.00,1.75
7816.00,1.75
7815.00,1.75
7814.00,1.75
7813.00,1.75
7812.00,1.76
7811.00,1.76
7810.00,1.76
7809.00,1.76
7808.00,1.76
7807.00,1.76
7806.00,1.76
7805.00,1.76
7804.00,1.76
7803.00,1.76
7802.00,1.76
7801.00,1.76
7800.00,1.76
7799.00,1.76
7798.00,1.76
7797.00,1.76
7796.00,1.76
7795.00,1.76
7794.00,1.76
7793.00,1.76
7792.00,1.76
7791.00,1.76
7790.00,1.76
7789.00,1.77
7788.00,1.77
7787.00,1.77
7786.00,1.77
7785.00,1.77
7784.00,1.77
7783.00,1.77
7782.00,1.77
7781.00,1.78
7780.00,1.78
7779.00,1.78
7778.00,1.78
7777.00,1.78
7776.00,1.78
7775.00,1.78
7774.00,1.79
7773.00,1.79
7772.00,1.79
7771.00,1.79
7770.00,1.79
7769.00,1.79
7768.00,1.79
7767.00,1.79
7766.00,1.79
7765.00,1.79
7764.00,1.79
7763.00,1.79
7762.00,1.79
7761.00,1.79
7760.00,1.79
7759.00,1.79
7758.00,1.78
7757.00,1.78
7756.00,1.78
7755.00,1.78
7754.00,1.78
7753.00,1.78
7752.00,1.78
7751.00,1.77
7750.00,1.77
7749.00,1.77
7748.00,1.77
7747.00,1.77
7746.00,1.77
7745.00,1.77
7744.00,1.77
7743.00,1.77
7742.00,1.77
7741.00,1.77
7740.00,1.77
7739.00,1.77
7738.00,1.77
7737.00,1.77
7736.00,1.77
7735.00,1.77
7734.00,1.77
7733.00,1.77
7732.00,1.77
7731.00,1.77
7730.00,1.77
7729.00,1.77
7728.00,1.77
7727.00,1.77
7726.00,1.77
7725.00,1.77
7724.00,1.77
7723.00,1.77
7722.00,1.77
7721.00,1.77
7720.00,1.77
7719.00,1.77
7718.00,1.77
7717.00,1.77
7716.00,1.77
7715.00,1.77
7714.00,1.77
7713.00,1.77
7712.00,1.77
7711.00,1.77
7710.00,1.77
7709.00,1.77
7708.00,1.77
7707.00,1.77
7706.00,1.77
7705.00,1.77
7704.00,1.78
7703.00,1.78
7702.00,1.78
7701.00,1.78
7700.00,1.78
7699.00,1.78
7698.00,1.78
7697.00,1.78
7696.00,1.78
7695.00,1.78
7694.00,1.78
7693.00,1.78
7692.00,1.78
7691.00,1.78
7690.00,1.78
7689.00,1.78
7688.00,1.78
7687.00,1.78
7686.00,1.78
7685.00,1.78
7684.00,1.78
7683.00,1.78
7682.00,1.78
7681.00,1.78
7680.00,1.78
7679.00,1.78
7678.00,1.78
7677.00,1.78
7676.00,1.78
7675.00,1.78
7674.00,1.78
7673.00,1.78
7672.00,1.78
7671.00,1.78
7670.00,1.78
7669.00,1.78
7668.00,1.78
7667.00,1.78
7666.00,1.78
7665.00,1.78
7664.00,1.78
7663.00,1.78
7662.00,1.78
7661.00,1.78
7660.00,1.78
7659.00,1.78
7658.00,1.78
7657.00,1.78
7656.00,1.78
7655.00,1.78
7654.00,1.78
7653.00,1.78
7652.00,1.78
7651.00,1.78
7650.00,1.78
7649.00,1.78
7648.00,1.78
7647.00,1.78
7646.00,1.78
7645.00,1.78
7644.00,1.78
7643.00,1.78
7642.00,1.78
7641.00,1.78
7640.00,1.78
7639.00,1.79
7638.00,1.79
7637.00,1.79
7636.00,1.79
7635.00,1.79
7634.00,1.79
7633.00,1.79
7632.00,1.79
7631.00,1.78
7630.00,1.78
7629.00,1.78
7628.00,1.78
7627.00,1.78
7626.00,1.78
7625.00,1.78
7624.00,1.78
7623.00,1.78
7622.00,1.78
7621.00,1.78
7620.00,1.78
7619.00,1.79
7618.00,1.79
7617.00,1.79
7616.00,1.79
7615.00,1.79
7614.00,1.79
7613.00,1.79
7612.00,1.79
7611.00,1.79
7610.00,1.79
7609.00,1.79
7608.00,1.79
7607.00,1.79
7606.00,1.79
7605.00,1.79
7604.00,1.79
7603.00,1.79
7602.00,1.79
7601.00,1.79
7600.00,1.79
7599.00,1.79
7598.00,1.79
7597.00,1.79
7596.00,1.79
7595.00,1.79
7594.00,1.79
7593.00,1.79
7592.00,1.79
7591.00,1.79
7590.00,1.79
7589.00,1.79
7588.00,1.79
7587.00,1.79
7586.00,1.79
7585.00,1.79
7584.00,1.79
7583.00,1.79
7582.00,1.79
7581.00,1.79
7580.00,1.79
7579.00,1.78
7578.00,1.78
7577.00,1.78
7576.00,1.78
7575.00,1.78
7574.00,1.78
7573.00,1.78
7572.00,1.78
7571.00,1.78
7570.00,1.78
7569.00,1.78
7568.00,1.78
7567.00,1.78
7566.00,1.78
7565.00,1.78
7564.00,1.78
7563.00,1.78
7562.00,1.78
7561.00,1.78
7560.00,1.78
7559.00,1.78
7558.00,1.78
7557.00,1.78
7556.00,1.77
7555.00,1.77
7554.00,1.77
7553.00,1.77
7552.00,1.77
7551.00,1.77
7550.00,1.77
7549.00,1.77
7548.00,1.77
7547.00,1.77
7546.00,1.76
7545.00,1.76
7544.00,1.77
7543.00,1.77
7542.00,1.77
7541.00,1.77
7540.00,1.77
7539.00,1.77
7538.00,1.77
7537.00,1.77
7536.00,1.78
7535.00,1.78
7534.00,1.78
7533.00,1.78
7532.00,1.78
7531.00,1.78
7530.00,1.78
7529.00,1.79
7528.00,1.79
7527.00,1.79
7526.00,1.79
7525.00,1.79
7524.00,1.79
7523.00,1.79
7522.00,1.79
7521.00,1.78
7520.00,1.78
7519.00,1.78
7518.00,1.78
7517.00,1.78
7516.00,1.78
7515.00,1.78
7514.00,1.78
7513.00,1.78
7512.00,1.78
7511.00,1.78
7510.00,1.78
7509.00,1.78
7508.00,1.78
7507.00,1.78
7506.00,1.78
7505.00,1.78
7504.00,1.78
7503.00,1.77
7502.00,1.77
7501.00,1.77
7500.00,1.77
7499.00,1.77
7498.00,1.77
7497.00,1.77
7496.00,1.77
7495.00,1.77
7494.00,1.77
7493.00,1.77
7492.00,1.77
7491.00,1.77
7490.00,1.77
7489.00,1.77
7488.00,1.77
7487.00,1.77
7486.00,1.77
7485.00,1.77
7484.00,1.77
7483.00,1.77
7482.00,1.77
7481.00,1.77
7480.00,1.77
7479.00,1.77
7478.00,1.77
7477.00,1.77
7476.00,1.77
7475.00,1.77
7474.00,1.77
7473.00,1.77
7472.00,1.77
7471.00,1.77
7470.00,1.77
7469.00,1.76
7468.00,1.76
7467.00,1.76
7466.00,1.76
7465.00,1.76
7464.00,1.76
7463.00,1.76
7462.00,1.76
7461.00,1.76
7460.00,1.75
7459.00,1.75
7458.00,1.75
7457.00,1.75
7456.00,1.75
7455.00,1.75
7454.00,1.75
7453.00,1.75
7452.00,1.75
7451.00,1.75
7450.00,1.75
7449.00,1.75
7448.00,1.75
7447.00,1.75
7446.00,1.75
7445.00,1.75
7444.00,1.75
7443.00,1.75
7442.00,1.75
7441.00,1.75
7440.00,1.75
7439.00,1.74
7438.00,1.74
7437.00,1.74
7436.00,1.74
7435.00,1.74
7434.00,1.74
7433.00,1.74
7432.00,1.74
7431.00,1.74
7430.00,1.74
7429.00,1.74
7428.00,1.74
7427.00,1.74
7426.00,1.74
7425.00,1.74
7424.00,1.74
7423.00,1.74
7422.00,1.74
7421.00,1.74
7420.00,1.74
7419.00,1.74
7418.00,1.74
7417.00,1.74
7416.00,1.74
7415.00,1.74
7414.00,1.74
7413.00,1.73
7412.00,1.73
7411.00,1.73
7410.00,1.73
7409.00,1.73
7408.00,1.73
7407.00,1.73
7406.00,1.73
7405.00,1.73
7404.00,1.73
7403.00,1.72
7402.00,1.72
7401.00,1.72
7400.00,1.72
7399.00,1.72
7398.00,1.72
7397.00,1.72
7396.00,1.71
7395.00,1.71
7394.00,1.71
7393.00,1.71
7392.00,1.71
7391.00,1.71
7390.00,1.71
7389.00,1.70
7388.00,1.70
7387.00,1.70
7386.00,1.70
7385.00,1.70
7384.00,1.70
7383.00,1.70
7382.00,1.70
7381.00,1.70
7380.00,1.70
7379.00,1.70
7378.00,1.70
7377.00,1.70
7376.00,1.70
7375.00,1.70
7374.00,1.70
7373.00,1.70
7372.00,1.70
7371.00,1.70
7370.00,1.70
7369.00,1.70
7368.00,1.70
7367.00,1.70
7366.00,1.70
7365.00,1.70
7364.00,1.70
7363.00,1.70
7362.00,1.70
7361.00,1.70
7360.00,1.70
7359.00,1.70
7358.00,1.70
7357.00,1.69
7356.00,1.69
7355.00,1.69
7354.00,1.69
7353.00,1.69
7352.00,1.69
7351.00,1.69
7350.00,1.69
7349.00,1.69
7348.00,1.69
7347.00,1.69
7346.00,1.69
7345.00,1.69
7344.00,1.69
7343.00,1.68
7342.00,1.68
7341.00,1.68
7340.00,1.68
7339.00,1.68
7338.00,1.68
7337.00,1.68
7336.00,1.68
7335.00,1.68
7334.00,1.68
7333.00,1.68
7332.00,1.68
7331.00,1.68
7330.00,1.68
7329.00,1.68
7328.00,1.68
7327.00,1.68
7326.00,1.68
7325.00,1.68
7324.00,1.68
7323.00,1.68
7322.00,1.68
7321.00,1.68
7320.00,1.68
7319.00,1.68
7318.00,1.68
7317.00,1.68
7316.00,1.68
7315.00,1.68
7314.00,1.68
7313.00,1.68
7312.00,1.68
7311.00,1.68
7310.00,1.67
7309.00,1.67
7308.00,1.67
7307.00,1.67
7306.00,1.67
7305.00,1.67
7304.00,1.67
7303.00,1.67
7302.00,1.67
7301.00,1.66
7300.00,1.66
7299.00,1.66
7298.00,1.66
7297.00,1.66
7296.00,1.66
7295.00,1.65
7294.00,1.65
7293.00,1.65
7292.00,1.65
7291.00,1.65
7290.00,1.64
7289.00,1.64
7288.00,1.64
7287.00,1.64
7286.00,1.64
7285.00,1.64
7284.00,1.63
7283.00,1.63
7282.00,1.63
7281.00,1.63
7280.00,1.63
7279.00,1.63
7278.00,1.63
7277.00,1.63
7276.00,1.63
7275.00,1.63
7274.00,1.63
7273.00,1.63
7272.00,1.63
7271.00,1.62
7270.00,1.62
7269.00,1.62
7268.00,1.62
7267.00,1.62
7266.00,1.62
7265.00,1.62
7264.00,1.62
7263.00,1.62
7262.00,1.62
7261.00,1.62
7260.00,1.62
7259.00,1.61
7258.00,1.61
7257.00,1.61
7256.00,1.61
7255.00,1.61
7254.00,1.61
7253.00,1.61
7252.00,1.61
7251.00,1.60
7250.00,1.60
7249.00,1.60
7248.00,1.60
7247.00,1.60
7246.00,1.60
7245.00,1.60
7244.00,1.60
7243.00,1.60
7242.00,1.60
7241.00,1.60
7240.00,1.60
7239.00,1.60
7238.00,1.59
7237.00,1.59
7236.00,1.59
7235.00,1.59
7234.00,1.59
7233.00,1.58
7232.00,1.58
7231.00,1.58
7230.00,1.57
7229.00,1.57
7228.00,1.57
7227.00,1.56
7226.00,1.56
7225.00,1.55
7224.00,1.55
7223.00,1.54
7222.00,1.54
7221.00,1.54
7220.00,1.53
7219.00,1.53
7218.00,1.52
7217.00,1.52
7216.00,1.52
7215.00,1.51
7214.00,1.51
7213.00,1.51
7212.00,1.50
7211.00,1.50
7210.00,1.50
7209.00,1.49
7208.00,1.49
7207.00,1.49
7206.00,1.48
7205.00,1.48
7204.00,1.48
7203.00,1.47
7202.00,1.47
7201.00,1.47
7200.00,1.46
7199.00,1.46
7198.00,1.46
7197.00,1.45
7196.00,1.45
7195.00,1.45
7194.00,1.44
7193.00,1.44
7192.00,1.44
7191.00,1.43
7190.00,1.43
7189.00,1.43
7188.00,1.42
7187.00,1.42
7186.00,1.42
7185.00,1.41
7184.00,1.41
7183.00,1.41
7182.00,1.41
7181.00,1.40
7180.00,1.40
7179.00,1.40
7178.00,1.39
7177.00,1.39
7176.00,1.39
7175.00,1.39
7174.00,1.38
7173.00,1.38
7172.00,1.38
7171.00,1.37
7170.00,1.37
7169.00,1.37
7168.00,1.37
7167.00,1.36
7166.00,1.36
7165.00,1.36
7164.00,1.35
7163.00,1.35
7162.00,1.35
7161.00,1.35
7160.00,1.34
7159.00,1.34
7158.00,1.34
7157.00,1.34
7156.00,1.33
7155.00,1.33
7154.00,1.33
7153.00,1.32
7152.00,1.32
7151.00,1.32
7150.00,1.32
7149.00,1.31
7148.00,1.31
7147.00,1.31
7146.00,1.30
7145.00,1.30
7144.00,1.30
7143.00,1.29
7142.00,1.29
7141.00,1.29
7140.00,1.28
7139.00,1.28
7138.00,1.28
7137.00,1.27
7136.00,1.27
7135.00,1.27
7134.00,1.27
7133.00,1.26
7132.00,1.26
7131.00,1.26
7130.00,1.26
7129.00,1.26
7128.00,1.25
7127.00,1.25
7126.00,1.25
7125.00,1.25
7124.00,1.24
7123.00,1.24
7122.00,1.24
7121.00,1.24
7120.00,1.24
7119.00,1.23
7118.00,1.23
7117.00,1.23
7116.00,1.23
7115.00,1.22
7114.00,1.22
7113.00,1.22
7112.00,1.22
7111.00,1.21
7110.00,1.21
7109.00,1.21
7108.00,1.20
7107.00,1.20
7106.00,1.20
7105.00,1.19
7104.00,1.19
7103.00,1.19
7102.00,1.18
7101.00,1.18
7100.00,1.17
7099.00,1.17
7098.00,1.17
7097.00,1.16
7096.00,1.16
7095.00,1.16
7094.00,1.15
7093.00,1.15
7092.00,1.15
7091.00,1.14
7090.00,1.14
7089.00,1.14
7088.00,1.13
7087.00,1.13
7086.00,1.13
7085.00,1.12
7084.00,1.12
7083.00,1.12
7082.00,1.11
7081.00,1.11
7080.00,1.11
7079.00,1.10
7078.00,1.10
7077.00,1.09
7076.00,1.09
7075.00,1.09
7074.00,1.08
7073.00,1.08
7072.00,1.08
7071.00,1.08
7070.00,1.07
7069.00,1.07
7068.00,1.07
7067.00,1.07
7066.00,1.07
7065.00,1.07
7064.00,1.06
7063.00,1.06
7062.00,1.06
7061.00,1.06
7060.00,1.06
7059.00,1.06
7058.00,1.06
7057.00,1.06
7056.00,1.05
7055.00,1.05
7054.00,1.05
7053.00,1.05
7052.00,1.05
7051.00,1.05
7050.00,1.05
7049.00,1.04
7048.00,1.04
7047.00,1.04
7046.00,1.04
7045.00,1.04
7044.00,1.03
7043.00,1.03
7042.00,1.03
7041.00,1.03
7040.00,1.03
7039.00,1.03
7038.00,1.02
7037.00,1.02
7036.00,1.02
7035.00,1.02
7034.00,1.01
7033.00,1.01
7032.00,1.01
7031.00,1.01
7030.00,1.00
7029.00,1.00
7028.00,1.00
7027.00,1.00
7026.00,0.99
7025.00,0.99
7024.00,0.99
7023.00,0.99
7022.00,0.99
7021.00,0.98
7020.00,0.98
7019.00,0.98
7018.00,0.98
7017.00,0.98
7016.00,0.98
7015.00,0.98
7014.00,0.98
7013.00,0.98
7012.00,0.98
7011.00,0.97
7010.00,0.97
7009.00,0.97
7008.00,0.97
7007.00,0.97
7006.00,0.97
7005.00,0.97
7004.00,0.97
7003.00,0.97
7002.00,0.97
7001.00,0.97
7000.00,0.96
6999.00,0.96
6998.00,0.96
6997.00,0.96
6996.00,0.96
6995.00,0.96
6994.00,0.96
6993.00,0.96
6992.00,0.96
6991.00,0.95
6990.00,0.95
6989.00,0.95
6988.00,0.95
6987.00,0.95
6986.00,0.94
6985.00,0.94
6984.00,0.94
6983.00,0.94
6982.00,0.94
6981.00,0.94
6980.00,0.93
6979.00,0.93
6978.00,0.93
6977.00,0.93
6976.00,0.93
6975.00,0.93
6974.00,0.93
6973.00,0.93
6972.00,0.93
6971.00,0.93
6970.00,0.93
6969.00,0.93
6968.00,0.93
6967.00,0.92
6966.00,0.92
6965.00,0.92
6964.00,0.92
6963.00,0.92
6962.00,0.92
6961.00,0.92
6960.00,0.92
6959.00,0.92
6958.00,0.91
6957.00,0.91
6956.00,0.91
6955.00,0.91
6954.00,0.91
6953.00,0.91
6952.00,0.90
6951.00,0.90
6950.00,0.90
6949.00,0.90
6948.00,0.90
6947.00,0.90
6946.00,0.90
6945.00,0.90
6944.00,0.89
6943.00,0.89
6942.00,0.89
6941.00,0.89
6940.00,0.89
6939.00,0.89
6938.00,0.89
6937.00,0.89
6936.00,0.89
6935.00,0.89
6934.00,0.89
6933.00,0.89
6932.00,0.89
6931.00,0.89
6930.00,0.89
6929.00,0.89
6928.00,0.89
6927.00,0.89
6926.00,0.88
6925.00,0.88
6924.00,0.88
6923.00,0.88
6922.00,0.88
6921.00,0.88
6920.00,0.88
6919.00,0.88
6918.00,0.88
6917.00,0.88
6916.00,0.88
6915.00,0.88
6914.00,0.88
6913.00,0.88
6912.00,0.88
6911.00,0.88
6910.00,0.88
6909.00,0.88
6908.00,0.88
6907.00,0.88
6906.00,0.87
6905.00,0.87
6904.00,0.87
6903.00,0.87
6902.00,0.87
6901.00,0.87
6900.00,0.87
6899.00,0.87
6898.00,0.87
6897.00,0.87
6896.00,0.87
6895.00,0.87
6894.00,0.87
6893.00,0.87
6892.00,0.87
6891.00,0.87
6890.00,0.87
6889.00,0.87
6888.00,0.87
6887.00,0.87
6886.00,0.87
6885.00,0.87
6884.00,0.87
6883.00,0.87
6882.00,0.87
6881.00,0.87
6880.00,0.87
6879.00,0.87
6878.00,0.87
6877.00,0.87
6876.00,0.87
6875.00,0.87
6874.00,0.87
6873.00,0.87
6872.00,0.87
6871.00,0.87
6870.00,0.87
6869.00,0.87
6868.00,0.87
6867.00,0.87
6866.00,0.87
6865.00,0.87
6864.00,0.87
6863.00,0.87
6862.00,0.87
6861.00,0.87
6860.00,0.87
6859.00,0.87
6858.00,0.87
6857.00,0.87
6856.00,0.87
6855.00,0.87
6854.00,0.87
6853.00,0.87
6852.00,0.86
6851.00,0.86
6850.00,0.86
6849.00,0.86
6848.00,0.86
6847.00,0.86
6846.00,0.86
6845.00,0.86
6844.00,0.86
6843.00,0.86
6842.00,0.86
6841.00,0.86
6840.00,0.86
6839.00,0.86
6838.00,0.86
6837.00,0.86
6836.00,0.86
6835.00,0.86
6834.00,0.86
6833.00,0.86
6832.00,0.86
6831.00,0.86
6830.00,0.86
6829.00,0.86
6828.00,0.86
6827.00,0.86
6826.00,0.86
6825.00,0.87
6824.00,0.87
6823.00,0.87
6822.00,0.87
6821.00,0.87
6820.00,0.87
6819.00,0.87
6818.00,0.87
6817.00,0.87
6816.00,0.87
6815.00,0.87
6814.00,0.88
6813.00,0.88
6812.00,0.88
6811.00,0.88
6810.00,0.88
6809.00,0.88
6808.00,0.88
6807.00,0.88
6806.00,0.88
6805.00,0.89
6804.00,0.89
6803.00,0.89
6802.00,0.89
6801.00,0.89
6800.00,0.89
6799.00,0.89
6798.00,0.89
6797.00,0.89
6796.00,0.89
6795.00,0.89
6794.00,0.89
6793.00,0.89
6792.00,0.89
6791.00,0.90
6790.00,0.90
6789.00,0.90
6788.00,0.90
6787.00,0.90
6786.00,0.90
6785.00,0.90
6784.00,0.90
6783.00,0.90
6782.00,0.90
6781.00,0.90
6780.00,0.90
6779.00,0.90
6778.00,0.91
6777.00,0.91
6776.00,0.91
6775.00,0.91
6774.00,0.91
6773.00,0.91
6772.00,0.91
6771.00,0.91
6770.00,0.91
6769.00,0.91
6768.00,0.91
6767.00,0.91
6766.00,0.91
6765.00,0.91
6764.00,0.91
6763.00,0.91
6762.00,0.91
6761.00,0.92
6760.00,0.92
6759.00,0.92
6758.00,0.92
6757.00,0.92
6756.00,0.92
6755.00,0.92
6754.00,0.92
6753.00,0.92
6752.00,0.92
6751.00,0.92
6750.00,0.92
6749.00,0.92
6748.00,0.93
6747.00,0.93
6746.00,0.93
6745.00,0.93
6744.00,0.93
6743.00,0.93
6742.00,0.93
6741.00,0.93
6740.00,0.94
6739.00,0.94
6738.00,0.94
6737.00,0.94
6736.00,0.94
6735.00,0.94
6734.00,0.94
6733.00,0.94
6732.00,0.95
6731.00,0.95
6730.00,0.95
6729.00,0.95
6728.00,0.95
6727.00,0.95
6726.00,0.95
6725.00,0.95
6724.00,0.96
6723.00,0.96
6722.00,0.96
6721.00,0.96
6720.00,0.96
6719.00,0.96
6718.00,0.96
6717.00,0.96
6716.00,0.96
6715.00,0.96
6714.00,0.97
6713.00,0.97
6712.00,0.97
6711.00,0.97
6710.00,0.97
6709.00,0.97
6708.00,0.98
6707.00,0.98
6706.00,0.98
6705.00,0.98
6704.00,0.98
6703.00,0.99
6702.00,0.99
6701.00,0.99
6700.00,0.99
6699.00,0.99
6698.00,0.99
6697.00,0.99
6696.00,0.99
6695.00,0.99
6694.00,0.99
6693.00,1.00
6692.00,1.00
6691.00,1.00
6690.00,1.00
6689.00,1.00
6688.00,1.00
6687.00,1.00
6686.00,1.00
6685.00,1.00
6684.00,1.00
6683.00,1.00
6682.00,1.00
6681.00,1.00
6680.00,1.00
6679.00,1.01
6678.00,1.01
6677.00,1.01
6676.00,1.01
6675.00,1.01
6674.00,1.01
6673.00,1.01
6672.00,1.02
6671.00,1.02
6670.00,1.02
6669.00,1.02
6668.00,1.02
6667.00,1.02
6666.00,1.03
6665.00,1.03
6664.00,1.03
6663.00,1.03
6662.00,1.03
6661.00,1.03
6660.00,1.03
6659.00,1.04
6658.00,1.04
6657.00,1.04
6656.00,1.04
6655.00,1.04
6654.00,1.04
6653.00,1.04
6652.00,1.04
6651.00,1.04
6650.00,1.04
6649.00,1.05
6648.00,1.05
6647.00,1.05
6646.00,1.05
6645.00,1.05
6644.00,1.05
6643.00,1.05
6642.00,1.05
6641.00,1.06
6640.00,1.06
6639.00,1.06
6638.00,1.06
6637.00,1.06
6636.00,1.06
6635.00,1.06
6634.00,1.07
6633.00,1.07
6632.00,1.07
6631.00,1.07
6630.00,1.07
6629.00,1.07
6628.00,1.07
6627.00,1.07
6626.00,1.08
6625.00,1.08
6624.00,1.08
6623.00,1.08
6622.00,1.08
6621.00,1.08
6620.00,1.08
6619.00,1.08
6618.00,1.09
6617.00,1.09
6616.00,1.09
6615.00,1.09
6614.00,1.09
6613.00,1.09
6612.00,1.10
6611.00,1.10
6610.00,1.10
6609.00,1.10
6608.00,1.10
6607.00,1.10
6606.00,1.11
6605.00,1.11
6604.00,1.11
6603.00,1.11
6602.00,1.11
6601.00,1.11
6600.00,1.11
6599.00,1.11
6598.00,1.12
6597.00,1.12
6596.00,1.12
6595.00,1.12
6594.00,1.12
6593.00,1.12
6592.00,1.12
6591.00,1.12
6590.00,1.12
6589.00,1.12
6588.00,1.12
6587.00,1.12
6586.00,1.13
6585.00,1.13
6584.00,1.13
6583.00,1.13
6582.00,1.13
6581.00,1.13
6580.00,1.13
6579.00,1.13
6578.00,1.13
6577.00,1.13
6576.00,1.13
6575.00,1.13
6574.00,1.13
6573.00,1.13
6572.00,1.13
6571.00,1.13
6570.00,1.14
6569.00,1.14
6568.00,1.14
6567.00,1.14
6566.00,1.14
6565.00,1.14
6564.00,1.14
6563.00,1.15
6562.00,1.15
6561.00,1.15
6560.00,1.15
6559.00,1.15
6558.00,1.15
6557.00,1.16
6556.00,1.16
6555.00,1.16
6554.00,1.16
6553.00,1.16
6552.00,1.16
6551.00,1.16
6550.00,1.16
6549.00,1.17
6548.00,1.17
6547.00,1.17
6546.00,1.17
6545.00,1.17
6544.00,1.17
6543.00,1.17
6542.00,1.17
6541.00,1.17
6540.00,1.17
6539.00,1.17
6538.00,1.17
6537.00,1.17
6536.00,1.17
6535.00,1.18
6534.00,1.18
6533.00,1.18
6532.00,1.18
6531.00,1.18
6530.00,1.18
6529.00,1.18
6528.00,1.18
6527.00,1.19
6526.00,1.19
6525.00,1.19
6524.00,1.19
6523.00,1.19
6522.00,1.19
6521.00,1.19
6520.00,1.19
6519.00,1.19
6518.00,1.19
6517.00,1.20
6516.00,1.20
6515.00,1.20
6514.00,1.20
6513.00,1.20
6512.00,1.20
6511.00,1.20
6510.00,1.20
6509.00,1.20
6508.00,1.20
6507.00,1.20
6506.00,1.20
6505.00,1.21
6504.00,1.21
6503.00,1.21
6502.00,1.21
6501.00,1.21
6500.00,1.21
6499.00,1.21
6498.00,1.21
6497.00,1.21
6496.00,1.21
6495.00,1.21
6494.00,1.21
6493.00,1.21
6492.00,1.21
6491.00,1.21
6490.00,1.21
6489.00,1.21
6488.00,1.21
6487.00,1.21
6486.00,1.21
6485.00,1.21
6484.00,1.21
6483.00,1.22
6482.00,1.22
6481.00,1.22
6480.00,1.22
6479.00,1.22
6478.00,1.22
6477.00,1.22
6476.00,1.22
6475.00,1.22
6474.00,1.22
6473.00,1.22
6472.00,1.23
6471.00,1.23
6470.00,1.23
6469.00,1.23
6468.00,1.23
6467.00,1.23
6466.00,1.23
6465.00,1.23
6464.00,1.23
6463.00,1.23
6462.00,1.23
6461.00,1.23
6460.00,1.23
6459.00,1.23
6458.00,1.23
6457.00,1.23
6456.00,1.23
6455.00,1.24
6454.00,1.24
6453.00,1.24
6452.00,1.24
6451.00,1.24
6450.00,1.24
6449.00,1.24
6448.00,1.24
6447.00,1.24
6446.00,1.24
6445.00,1.24
6444.00,1.24
6443.00,1.24
6442.00,1.24
6441.00,1.24
6440.00,1.24
6439.00,1.24
6438.00,1.24
6437.00,1.24
6436.00,1.24
6435.00,1.24
6434.00,1.24
6433.00,1.25
6432.00,1.25
6431.00,1.25
6430.00,1.25
6429.00,1.25
6428.00,1.25
6427.00,1.25
6426.00,1.25
6425.00,1.25
6424.00,1.25
6423.00,1.25
6422.00,1.26
6421.00,1.26
6420.00,1.26
6419.00,1.26
6418.00,1.26
6417.00,1.26
6416.00,1.26
6415.00,1.26
6414.00,1.26
6413.00,1.26
6412.00,1.26
6411.00,1.26
6410.00,1.26
6409.00,1.26
6408.00,1.26
6407.00,1.26
6406.00,1.26
6405.00,1.26
6404.00,1.26
6403.00,1.26
6402.00,1.26
6401.00,1.26
6400.00,1.27
6399.00,1.27
6398.00,1.27
6397.00,1.27
6396.00,1.27
6395.00,1.27
6394.00,1.27
6393.00,1.27
6392.00,1.27
6391.00,1.27
6390.00,1.27
6389.00,1.27
6388.00,1.27
6387.00,1.27
6386.00,1.27
6385.00,1.27
6384.00,1.27
6383.00,1.27
6382.00,1.27
6381.00,1.28
6380.00,1.28
6379.00,1.28
6378.00,1.28
6377.00,1.28
6376.00,1.28
6375.00,1.28
6374.00,1.28
6373.00,1.28
6372.00,1.28
6371.00,1.28
6370.00,1.28
6369.00,1.28
6368.00,1.28
6367.00,1.28
6366.00,1.28
6365.00,1.28
6364.00,1.28
6363.00,1.28
6362.00,1.29
6361.00,1.29
6360.00,1.29
6359.00,1.29
6358.00,1.29
6357.00,1.29
6356.00,1.29
6355.00,1.29
6354.00,1.29
6353.00,1.29
6352.00,1.29
6351.00,1.30
6350.00,1.30
6349.00,1.30
6348.00,1.30
6347.00,1.30
6346.00,1.30
6345.00,1.30
6344.00,1.30
6343.00,1.30
6342.00,1.30
6341.00,1.30
6340.00,1.30
6339.00,1.30
6338.00,1.31
6337.00,1.31
6336.00,1.31
6335.00,1.31
6334.00,1.31
6333.00,1.31
6332.00,1.31
6331.00,1.31
6330.00,1.31
6329.00,1.31
6328.00,1.31
6327.00,1.32
6326.00,1.32
6325.00,1.32
6324.00,1.32
6323.00,1.32
6322.00,1.32
6321.00,1.32
6320.00,1.32
6319.00,1.33
6318.00,1.33
6317.00,1.33
6316.00,1.33
6315.00,1.33
6314.00,1.33
6313.00,1.33
6312.00,1.33
6311.00,1.33
6310.00,1.34
6309.00,1.34
6308.00,1.34
6307.00,1.34
6306.00,1.34
6305.00,1.34
6304.00,1.34
6303.00,1.34
6302.00,1.34
6301.00,1.35
6300.00,1.35
6299.00,1.35
6298.00,1.35
6297.00,1.35
6296.00,1.35
6295.00,1.35
6294.00,1.35
6293.00,1.35
6292.00,1.35
6291.00,1.36
6290.00,1.36
6289.00,1.36
6288.00,1.36
6287.00,1.36
6286.00,1.36
6285.00,1.36
6284.00,1.37
6283.00,1.37
6282.00,1.37
6281.00,1.37
6280.00,1.37
6279.00,1.37
6278.00,1.37
6277.00,1.38
6276.00,1.38
6275.00,1.38
6274.00,1.38
6273.00,1.38
6272.00,1.38
6271.00,1.38
6270.00,1.38
6269.00,1.38
6268.00,1.38
6267.00,1.38
6266.00,1.38
6265.00,1.39
6264.00,1.39
6263.00,1.39
6262.00,1.39
6261.00,1.39
6260.00,1.39
6259.00,1.39
6258.00,1.39
6257.00,1.40
6256.00,1.40
6255.00,1.40
6254.00,1.40
6253.00,1.40
6252.00,1.40
6251.00,1.41
6250.00,1.41
6249.00,1.41
6248.00,1.41
6247.00,1.41
6246.00,1.41
6245.00,1.41
6244.00,1.42
6243.00,1.42
6242.00,1.42
6241.00,1.42
6240.00,1.42
6239.00,1.42
6238.00,1.42
6237.00,1.42
6236.00,1.42
6235.00,1.43
6234.00,1.43
6233.00,1.43
6232.00,1.43
6231.00,1.43
6230.00,1.43
6229.00,1.43
6228.00,1.43
6227.00,1.44
6226.00,1.44
6225.00,1.44
6224.00,1.44
6223.00,1.44
6222.00,1.44
6221.00,1.44
6220.00,1.44
6219.00,1.44
6218.00,1.45
6217.00,1.45
6216.00,1.45
6215.00,1.45
6214.00,1.45
6213.00,1.45
6212.00,1.45
6211.00,1.45
6210.00,1.45
6209.00,1.45
6208.00,1.46
6207.00,1.46
6206.00,1.46
6205.00,1.46
6204.00,1.46
6203.00,1.46
6202.00,1.46
6201.00,1.46
6200.00,1.47
6199.00,1.47
6198.00,1.47
6197.00,1.47
6196.00,1.47
6195.00,1.47
6194.00,1.47
6193.00,1.48
6192.00,1.48
6191.00,1.48
6190.00,1.48
6189.00,1.48
6188.00,1.49
6187.00,1.49
6186.00,1.49
6185.00,1.49
6184.00,1.49
6183.00,1.50
6182.00,1.50
6181.00,1.50
6180.00,1.50
6179.00,1.51
6178.00,1.51
6177.00,1.51
6176.00,1.51
6175.00,1.51
6174.00,1.51
6173.00,1.52
6172.00,1.52
6171.00,1.52
6170.00,1.52
6169.00,1.52
6168.00,1.52
6167.00,1.52
6166.00,1.53
6165.00,1.53
6164.00,1.53
6163.00,1.53
6162.00,1.53
6161.00,1.53
6160.00,1.53
6159.00,1.54
6158.00,1.54
6157.00,1.54
6156.00,1.54
6155.00,1.54
6154.00,1.54
6153.00,1.54
6152.00,1.54
6151.00,1.55
6150.00,1.55
6149.00,1.55
6148.00,1.55
6147.00,1.55
6146.00,1.55
6145.00,1.55
6144.00,1.56
6143.00,1.56
6142.00,1.56
6141.00,1.56
6140.00,1.56
6139.00,1.56
6138.00,1.56
6137.00,1.57
6136.00,1.57
6135.00,1.57
6134.00,1.57
6133.00,1.57
6132.00,1.57
6131.00,1.58
6130.00,1.58
6129.00,1.58
6128.00,1.58
6127.00,1.58
6126.00,1.58
6125.00,1.59
6124.00,1.59
6123.00,1.59
6122.00,1.59
6121.00,1.59
6120.00,1.59
6119.00,1.60
6118.00,1.60
6117.00,1.60
6116.00,1.60
6115.00,1.60
6114.00,1.60
6113.00,1.60
6112.00,1.60
6111.00,1.60
6110.00,1.60
6109.00,1.61
6108.00,1.61
6107.00,1.61
6106.00,1.61
6105.00,1.61
6104.00,1.61
6103.00,1.61
6102.00,1.61
6101.00,1.61
6100.00,1.62
6099.00,1.62
6098.00,1.62
6097.00,1.62
6096.00,1.62
6095.00,1.62
6094.00,1.62
6093.00,1.62
6092.00,1.62
6091.00,1.63
6090.00,1.63
6089.00,1.63
6088.00,1.63
6087.00,1.63
6086.00,1.63
6085.00,1.63
6084.00,1.63
6083.00,1.64
6082.00,1.64
6081.00,1.64
6080.00,1.64
6079.00,1.64
6078.00,1.64
6077.00,1.64
6076.00,1.64
6075.00,1.65
6074.00,1.65
6073.00,1.65
6072.00,1.65
6071.00,1.65
6070.00,1.65
6069.00,1.65
6068.00,1.66
6067.00,1.66
6066.00,1.66
6065.00,1.66
6064.00,1.66
6063.00,1.66
6062.00,1.66
6061.00,1.66
6060.00,1.67
6059.00,1.67
6058.00,1.67
6057.00,1.67
6056.00,1.67
6055.00,1.67
6054.00,1.67
6053.00,1.67
6052.00,1.67
6051.00,1.67
6050.00,1.67
6049.00,1.67
6048.00,1.67
6047.00,1.67
6046.00,1.67
6045.00,1.67
6044.00,1.67
6043.00,1.67
6042.00,1.67
6041.00,1.67
6040.00,1.67
6039.00,1.67
6038.00,1.67
6037.00,1.67
6036.00,1.67
6035.00,1.67
6034.00,1.67
6033.00,1.67
6032.00,1.68
6031.00,1.68
6030.00,1.68
6029.00,1.68
6028.00,1.68
6027.00,1.68
6026.00,1.68
6025.00,1.68
6024.00,1.68
6023.00,1.68
6022.00,1.68
6021.00,1.68
6020.00,1.68
6019.00,1.68
6018.00,1.68
6017.00,1.68
6016.00,1.69
6015.00,1.69
6014.00,1.69
6013.00,1.69
6012.00,1.69
6011.00,1.69
6010.00,1.69
6009.00,1.69
6008.00,1.69
6007.00,1.69
6006.00,1.69
6005.00,1.69
6004.00,1.69
6003.00,1.69
6002.00,1.69
6001.00,1.69
6000.00,1.69
5999.00,1.69
5998.00,1.69
5997.00,1.69
5996.00,1.69
5995.00,1.69
5994.00,1.69
5993.00,1.69
5992.00,1.68
5991.00,1.68
5990.00,1.68
5989.00,1.68
5988.00,1.68
5987.00,1.67
5986.00,1.67
5985.00,1.67
5984.00,1.67
5983.00,1.66
5982.00,1.66
5981.00,1.65
5980.00,1.65
5979.00,1.64
5978.00,1.64
5977.00,1.63
5976.00,1.63
5975.00,1.62
5974.00,1.62
5973.00,1.61
5972.00,1.60
5971.00,1.60
5970.00,1.59
5969.00,1.58
5968.00,1.58
5967.00,1.57
5966.00,1.56
5965.00,1.55
5964.00,1.55
5963.00,1.54
5962.00,1.53
5961.00,1.52
5960.00,1.51
5959.00,1.50
5958.00,1.50
5957.00,1.49
5956.00,1.48
5955.00,1.47
5954.00,1.46
5953.00,1.45
5952.00,1.45
5951.00,1.44
5950.00,1.43
5949.00,1.42
5948.00,1.42
5947.00,1.41
5946.00,1.41
5945.00,1.40
5944.00,1.40
5943.00,1.39
5942.00,1.39
5941.00,1.39
5940.00,1.38
5939.00,1.38
5938.00,1.38
5937.00,1.38
5936.00,1.37
5935.00,1.37
5934.00,1.37
5933.00,1.37
5932.00,1.37
5931.00,1.37
5930.00,1.37
5929.00,1.37
5928.00,1.37
5927.00,1.37
5926.00,1.37
5925.00,1.36
5924.00,1.36
5923.00,1.36
5922.00,1.36
5921.00,1.36
5920.00,1.36
5919.00,1.35
5918.00,1.35
5917.00,1.35
5916.00,1.35
5915.00,1.34
5914.00,1.34
5913.00,1.34
5912.00,1.33
5911.00,1.33
5910.00,1.33
5909.00,1.32
5908.00,1.32
5907.00,1.32
5906.00,1.32
5905.00,1.31
5904.00,1.31
5903.00,1.31
5902.00,1.31
5901.00,1.31
5900.00,1.31
5899.00,1.31
5898.00,1.31
5897.00,1.31
5896.00,1.31
5895.00,1.31
5894.00,1.32
5893.00,1.32
5892.00,1.32
5891.00,1.32
5890.00,1.33
5889.00,1.33
5888.00,1.33
5887.00,1.34
5886.00,1.34
5885.00,1.34
5884.00,1.35
5883.00,1.35
5882.00,1.36
5881.00,1.36
5880.00,1.36
5879.00,1.37
5878.00,1.37
5877.00,1.37
5876.00,1.38
5875.00,1.38
5874.00,1.38
5873.00,1.39
5872.00,1.39
5871.00,1.39
5870.00,1.39
5869.00,1.40
5868.00,1.40
5867.00,1.40
5866.00,1.40
5865.00,1.41
5864.00,1.41
5863.00,1.41
5862.00,1.41
5861.00,1.41
5860.00,1.41
5859.00,1.42
5858.00,1.42
5857.00,1.42
5856.00,1.42
5855.00,1.42
5854.00,1.42
5853.00,1.43
5852.00,1.43
5851.00,1.43
5850.00,1.43
5849.00,1.43
5848.00,1.43
5847.00,1.43
5846.00,1.43
5845.00,1.43
5844.00,1.43
5843.00,1.43
5842.00,1.43
5841.00,1.43
5840.00,1.43
5839.00,1.43
5838.00,1.43
5837.00,1.43
5836.00,1.43
5835.00,1.43
5834.00,1.43
5833.00,1.43
5832.00,1.43
5831.00,1.43
5830.00,1.43
5829.00,1.43
5828.00,1.43
5827.00,1.43
5826.00,1.43
5825.00,1.43
5824.00,1.43
5823.00,1.43
5822.00,1.43
5821.00,1.43
5820.00,1.43
5819.00,1.43
5818.00,1.43
5817.00,1.43
5816.00,1.43
5815.00,1.43
5814.00,1.43
5813.00,1.43
5812.00,1.43
5811.00,1.43
5810.00,1.43
5809.00,1.43
5808.00,1.43
5807.00,1.43
5806.00,1.43
5805.00,1.43
5804.00,1.43
5803.00,1.42
5802.00,1.42
5801.00,1.42
5800.00,1.42
5799.00,1.42
5798.00,1.42
5797.00,1.42
5796.00,1.41
5795.00,1.41
5794.00,1.41
5793.00,1.41
5792.00,1.41
5791.00,1.40
5790.00,1.40
5789.00,1.40
5788.00,1.39
5787.00,1.39
5786.00,1.39
5785.00,1.39
5784.00,1.38
5783.00,1.38
5782.00,1.38
5781.00,1.38
5780.00,1.38
5779.00,1.37
5778.00,1.37
5777.00,1.37
5776.00,1.37
5775.00,1.37
5774.00,1.37
5773.00,1.37
5772.00,1.37
5771.00,1.37
5770.00,1.37
5769.00,1.37
5768.00,1.37
5767.00,1.37
5766.00,1.37
5765.00,1.37
5764.00,1.37
5763.00,1.37
5762.00,1.38
5761.00,1.38
5760.00,1.38
5759.00,1.39
5758.00,1.39
5757.00,1.39
5756.00,1.40
5755.00,1.40
5754.00,1.41
5753.00,1.41
5752.00,1.42
5751.00,1.42
5750.00,1.43
5749.00,1.43
5748.00,1.44
5747.00,1.44
5746.00,1.44
5745.00,1.45
5744.00,1.45
5743.00,1.46
5742.00,1.46
5741.00,1.46
5740.00,1.47
5739.00,1.47
5738.00,1.47
5737.00,1.48
5736.00,1.48
5735.00,1.48
5734.00,1.48
5733.00,1.49
5732.00,1.49
5731.00,1.49
5730.00,1.49
5729.00,1.49
5728.00,1.49
5727.00,1.50
5726.00,1.50
5725.00,1.50
5724.00,1.50
5723.00,1.50
5722.00,1.50
5721.00,1.50
5720.00,1.50
5719.00,1.50
5718.00,1.50
5717.00,1.50
5716.00,1.50
5715.00,1.51
5714.00,1.51
5713.00,1.51
5712.00,1.51
5711.00,1.51
5710.00,1.51
5709.00,1.50
5708.00,1.50
5707.00,1.50
5706.00,1.50
5705.00,1.50
5704.00,1.50
5703.00,1.50
5702.00,1.50
5701.00,1.50
5700.00,1.50
5699.00,1.49
5698.00,1.49
5697.00,1.49
5696.00,1.49
5695.00,1.49
5694.00,1.49
5693.00,1.48
5692.00,1.48
5691.00,1.48
5690.00,1.48
5689.00,1.48
5688.00,1.47
5687.00,1.47
5686.00,1.47
5685.00,1.47
5684.00,1.47
5683.00,1.47
5682.00,1.46
5681.00,1.46
5680.00,1.46
5679.00,1.46
5678.00,1.46
5677.00,1.46
5676.00,1.46
5675.00,1.46
5674.00,1.46
5673.00,1.46
5672.00,1.46
5671.00,1.46
5670.00,1.46
5669.00,1.46
5668.00,1.46
5667.00,1.46
5666.00,1.46
5665.00,1.46
5664.00,1.47
5663.00,1.47
5662.00,1.47
5661.00,1.47
5660.00,1.47
5659.00,1.47
5658.00,1.47
5657.00,1.48
5656.00,1.48
5655.00,1.48
5654.00,1.48
5653.00,1.48
5652.00,1.49
5651.00,1.49
5650.00,1.49
5649.00,1.49
5648.00,1.49
5647.00,1.50
5646.00,1.50
5645.00,1.50
5644.00,1.50
5643.00,1.51
5642.00,1.51
5641.00,1.51
5640.00,1.51
5639.00,1.52
5638.00,1.52
5637.00,1.52
5636.00,1.52
5635.00,1.53
5634.00,1.53
5633.00,1.53
5632.00,1.53
5631.00,1.53
5630.00,1.54
5629.00,1.54
5628.00,1.54
5627.00,1.54
5626.00,1.54
5625.00,1.55
5624.00,1.55
5623.00,1.55
5622.00,1.55
5621.00,1.55
5620.00,1.56
5619.00,1.56
5618.00,1.56
5617.00,1.56
5616.00,1.56
5615.00,1.57
5614.00,1.57
5613.00,1.57
5612.00,1.57
5611.00,1.57
5610.00,1.57
5609.00,1.58
5608.00,1.58
5607.00,1.58
5606.00,1.58
5605.00,1.58
5604.00,1.58
5603.00,1.59
5602.00,1.59
5601.00,1.59
5600.00,1.59
5599.00,1.59
5598.00,1.59
5597.00,1.60
5596.00,1.60
5595.00,1.60
5594.00,1.60
5593.00,1.60
5592.00,1.60
5591.00,1.61
5590.00,1.61
5589.00,1.61
5588.00,1.61
5587.00,1.61
5586.00,1.62
5585.00,1.62
5584.00,1.62
5583.00,1.62
5582.00,1.62
5581.00,1.62
5580.00,1.63
5579.00,1.63
5578.00,1.63
5577.00,1.63
5576.00,1.63
5575.00,1.64
5574.00,1.64
5573.00,1.64
5572.00,1.64
5571.00,1.64
5570.00,1.64
5569.00,1.65
5568.00,1.65
5567.00,1.65
5566.00,1.65
5565.00,1.65
5564.00,1.65
5563.00,1.65
5562.00,1.65
5561.00,1.66
5560.00,1.66
5559.00,1.66
5558.00,1.66
5557.00,1.66
5556.00,1.66
5555.00,1.66
5554.00,1.67
5553.00,1.67
5552.00,1.67
5551.00,1.67
5550.00,1.67
5549.00,1.67
5548.00,1.67
5547.00,1.68
5546.00,1.68
5545.00,1.68
5544.00,1.68
5543.00,1.68
5542.00,1.68
5541.00,1.68
5540.00,1.68
5539.00,1.68
5538.00,1.68
5537.00,1.69
5536.00,1.69
5535.00,1.69
5534.00,1.69
5533.00,1.69
5532.00,1.69
5531.00,1.69
5530.00,1.70
5529.00,1.70
5528.00,1.70
5527.00,1.70
5526.00,1.70
5525.00,1.70
5524.00,1.70
5523.00,1.71
5522.00,1.71
5521.00,1.71
5520.00,1.71
5519.00,1.71
5518.00,1.71
5517.00,1.71
5516.00,1.71
5515.00,1.71
5514.00,1.71
5513.00,1.71
5512.00,1.71
5511.00,1.71
5510.00,1.71
5509.00,1.71
5508.00,1.71
5507.00,1.71
5506.00,1.71
5505.00,1.71
5504.00,1.71
5503.00,1.71
5502.00,1.71
5501.00,1.71
5500.00,1.71
5499.00,1.71
5498.00,1.71
5497.00,1.72
5496.00,1.72
5495.00,1.72
5494.00,1.72
5493.00,1.72
5492.00,1.72
5491.00,1.72
5490.00,1.72
5489.00,1.72
5488.00,1.73
5487.00,1.73
5486.00,1.73
5485.00,1.73
5484.00,1.73
5483.00,1.73
5482.00,1.73
5481.00,1.74
5480.00,1.74
5479.00,1.74
5478.00,1.74
5477.00,1.74
5476.00,1.74
5475.00,1.74
5474.00,1.75
5473.00,1.75
5472.00,1.75
5471.00,1.75
5470.00,1.75
5469.00,1.75
5468.00,1.75
5467.00,1.76
5466.00,1.76
5465.00,1.76
5464.00,1.76
5463.00,1.76
5462.00,1.76
5461.00,1.76
5460.00,1.77
5459.00,1.77
5458.00,1.77
5457.00,1.77
5456.00,1.77
5455.00,1.77
5454.00,1.77
5453.00,1.77
5452.00,1.77
5451.00,1.78
5450.00,1.78
5449.00,1.78
5448.00,1.78
5447.00,1.78
5446.00,1.78
5445.00,1.78
5444.00,1.78
5443.00,1.78
5442.00,1.78
5441.00,1.78
5440.00,1.79
5439.00,1.79
5438.00,1.79
5437.00,1.79
5436.00,1.79
5435.00,1.79
5434.00,1.79
5433.00,1.79
5432.00,1.79
5431.00,1.79
5430.00,1.79
5429.00,1.79
5428.00,1.79
5427.00,1.79
5426.00,1.79
5425.00,1.79
5424.00,1.79
5423.00,1.79
5422.00,1.79
5421.00,1.79
5420.00,1.79
5419.00,1.79
5418.00,1.79
5417.00,1.79
5416.00,1.79
5415.00,1.79
5414.00,1.79
5413.00,1.79
5412.00,1.79
5411.00,1.79
5410.00,1.79
5409.00,1.79
5408.00,1.79
5407.00,1.79
5406.00,1.79
5405.00,1.79
5404.00,1.79
5403.00,1.79
5402.00,1.79
5401.00,1.79
5400.00,1.79
5399.00,1.79
5398.00,1.79
5397.00,1.79
5396.00,1.79
5395.00,1.79
5394.00,1.79
5393.00,1.79
5392.00,1.79
5391.00,1.79
5390.00,1.79
5389.00,1.79
5388.00,1.79
5387.00,1.79
5386.00,1.79
5385.00,1.79
5384.00,1.78
5383.00,1.78
5382.00,1.78
5381.00,1.78
5380.00,1.78
5379.00,1.78
5378.00,1.77
5377.00,1.77
5376.00,1.77
5375.00,1.76
5374.00,1.76
5373.00,1.76
5372.00,1.75
5371.00,1.75
5370.00,1.74
5369.00,1.74
5368.00,1.73
5367.00,1.73
5366.00,1.72
5365.00,1.72
5364.00,1.71
5363.00,1.71
5362.00,1.70
5361.00,1.69
5360.00,1.69
5359.00,1.68
5358.00,1.68
5357.00,1.67
5356.00,1.66
5355.00,1.65
5354.00,1.65
5353.00,1.64
5352.00,1.63
5351.00,1.62
5350.00,1.62
5349.00,1.61
5348.00,1.60
5347.00,1.59
5346.00,1.58
5345.00,1.57
5344.00,1.56
5343.00,1.55
5342.00,1.54
5341.00,1.53
5340.00,1.52
5339.00,1.50
5338.00,1.49
5337.00,1.48
5336.00,1.47
5335.00,1.45
5334.00,1.44
5333.00,1.43
5332.00,1.41
5331.00,1.40
5330.00,1.39
5329.00,1.37
5328.00,1.36
5327.00,1.34
5326.00,1.33
5325.00,1.31
5324.00,1.29
5323.00,1.28
5322.00,1.26
5321.00,1.25
5320.00,1.23
5319.00,1.21
5318.00,1.20
5317.00,1.18
5316.00,1.16
5315.00,1.14
5314.00,1.13
5313.00,1.11
5312.00,1.09
5311.00,1.08
5310.00,1.06
5309.00,1.05
5308.00,1.03
5307.00,1.02
5306.00,1.00
5305.00,0.99
5304.00,0.98
5303.00,0.96
5302.00,0.95
5301.00,0.94
5300.00,0.93
5299.00,0.91
5298.00,0.90
5297.00,0.89
5296.00,0.88
5295.00,0.87
5294.00,0.86
5293.00,0.85
5292.00,0.84
5291.00,0.83
5290.00,0.82
5289.00,0.82
5288.00,0.81
5287.00,0.80
5286.00,0.79
5285.00,0.78
5284.00,0.78
5283.00,0.77
5282.00,0.76
5281.00,0.76
5280.00,0.75
5279.00,0.74
5278.00,0.74
5277.00,0.73
5276.00,0.73
5275.00,0.72
5274.00,0.72
5273.00,0.71
5272.00,0.71
5271.00,0.70
5270.00,0.70
5269.00,0.69
5268.00,0.69
5267.00,0.69
5266.00,0.68
5265.00,0.68
5264.00,0.67
5263.00,0.67
5262.00,0.67
5261.00,0.66
5260.00,0.66
5259.00,0.66
5258.00,0.65
5257.00,0.65
5256.00,0.65
5255.00,0.64
5254.00,0.64
5253.00,0.64
5252.00,0.64
5251.00,0.63
5250.00,0.63
5249.00,0.63
5248.00,0.63
5247.00,0.62
5246.00,0.62
5245.00,0.62
5244.00,0.62
5243.00,0.62
5242.00,0.61
5241.00,0.61
5240.00,0.61
5239.00,0.61
5238.00,0.61
5237.00,0.61
5236.00,0.61
5235.00,0.61
5234.00,0.60
5233.00,0.60
5232.00,0.60
5231.00,0.60
5230.00,0.60
5229.00,0.60
5228.00,0.60
5227.00,0.60
5226.00,0.60
5225.00,0.60
5224.00,0.60
5223.00,0.60
5222.00,0.60
5221.00,0.60
5220.00,0.59
5219.00,0.59
5218.00,0.59
5217.00,0.59
5216.00,0.59
5215.00,0.59
5214.00,0.59
5213.00,0.59
5212.00,0.59
5211.00,0.58
5210.00,0.58
5209.00,0.58
5208.00,0.58
5207.00,0.58
5206.00,0.58
5205.00,0.58
5204.00,0.58
5203.00,0.58
5202.00,0.58
5201.00,0.58
5200.00,0.58
5199.00,0.58
5198.00,0.58
5197.00,0.58
5196.00,0.58
5195.00,0.58
5194.00,0.58
5193.00,0.58
5192.00,0.58
5191.00,0.58
5190.00,0.58
5189.00,0.58
5188.00,0.58
5187.00,0.58
5186.00,0.58
5185.00,0.58
5184.00,0.58
5183.00,0.58
5182.00,0.58
5181.00,0.58
5180.00,0.58
5179.00,0.58
5178.00,0.58
5177.00,0.58
5176.00,0.58
5175.00,0.58
5174.00,0.58
5173.00,0.58
5172.00,0.58
5171.00,0.59
5170.00,0.59
5169.00,0.59
5168.00,0.59
5167.00,0.59
5166.00,0.59
5165.00,0.59
5164.00,0.59
5163.00,0.59
5162.00,0.59
5161.00,0.59
5160.00,0.59
5159.00,0.59
5158.00,0.59
5157.00,0.59
5156.00,0.59
5155.00,0.59
5154.00,0.59
5153.00,0.59
5152.00,0.59
5151.00,0.59
5150.00,0.59
5149.00,0.60
5148.00,0.60
5147.00,0.60
5146.00,0.60
5145.00,0.60
5144.00,0.60
5143.00,0.60
5142.00,0.60
5141.00,0.60
5140.00,0.60
5139.00,0.60
5138.00,0.60
5137.00,0.61
5136.00,0.61
5135.00,0.61
5134.00,0.61
5133.00,0.61
5132.00,0.61
5131.00,0.61
5130.00,0.61
5129.00,0.61
5128.00,0.62
5127.00,0.62
5126.00,0.62
5125.00,0.62
5124.00,0.62
5123.00,0.62
5122.00,0.62
5121.00,0.62
5120.00,0.62
5119.00,0.62
5118.00,0.62
5117.00,0.62
5116.00,0.63
5115.00,0.63
5114.00,0.63
5113.00,0.63
5112.00,0.63
5111.00,0.63
5110.00,0.63
5109.00,0.63
5108.00,0.63
5107.00,0.64
5106.00,0.64
5105.00,0.64
5104.00,0.64
5103.00,0.64
5102.00,0.64
5101.00,0.64
5100.00,0.65
5099.00,0.65
5098.00,0.65
5097.00,0.65
5096.00,0.65
5095.00,0.65
5094.00,0.65
5093.00,0.65
5092.00,0.65
5091.00,0.65
5090.00,0.66
5089.00,0.66
5088.00,0.66
5087.00,0.66
5086.00,0.66
5085.00,0.66
5084.00,0.67
5083.00,0.67
5082.00,0.67
5081.00,0.67
5080.00,0.67
5079.00,0.68
5078.00,0.68
5077.00,0.68
5076.00,0.68
5075.00,0.68
5074.00,0.69
5073.00,0.69
5072.00,0.69
5071.00,0.69
5070.00,0.69
5069.00,0.69
5068.00,0.70
5067.00,0.70
5066.00,0.70
5065.00,0.70
5064.00,0.71
5063.00,0.71
5062.00,0.71
5061.00,0.71
5060.00,0.72
5059.00,0.72
5058.00,0.72
5057.00,0.72
5056.00,0.72
5055.00,0.73
5054.00,0.73
5053.00,0.73
5052.00,0.73
5051.00,0.73
5050.00,0.73
5049.00,0.74
5048.00,0.74
5047.00,0.74
5046.00,0.74
5045.00,0.74
5044.00,0.74
5043.00,0.75
5042.00,0.75
5041.00,0.75
5040.00,0.75
5039.00,0.75
5038.00,0.75
5037.00,0.76
5036.00,0.76
5035.00,0.76
5034.00,0.76
5033.00,0.76
5032.00,0.77
5031.00,0.77
5030.00,0.77
5029.00,0.77
5028.00,0.77
5027.00,0.78
5026.00,0.78
5025.00,0.78
5024.00,0.78
5023.00,0.78
5022.00,0.79
5021.00,0.79
5020.00,0.79
5019.00,0.79
5018.00,0.79
5017.00,0.80
5016.00,0.80
5015.00,0.80
5014.00,0.80
5013.00,0.81
5012.00,0.81
5011.00,0.81
5010.00,0.81
5009.00,0.82
5008.00,0.82
5007.00,0.82
5006.00,0.83
5005.00,0.83
5004.00,0.83
5003.00,0.83
5002.00,0.84
5001.00,0.84
5000.00,0.84
4999.00,0.84
4998.00,0.85
4997.00,0.85
4996.00,0.85
4995.00,0.86
4994.00,0.86
4993.00,0.86
4992.00,0.86
4991.00,0.87
4990.00,0.87
4989.00,0.87
4988.00,0.87
4987.00,0.88
4986.00,0.88
4985.00,0.88
4984.00,0.88
4983.00,0.88
4982.00,0.89
4981.00,0.89
4980.00,0.89
4979.00,0.89
4978.00,0.89
4977.00,0.90
4976.00,0.90
4975.00,0.90
4974.00,0.90
4973.00,0.90
4972.00,0.91
4971.00,0.91
4970.00,0.91
4969.00,0.91
4968.00,0.91
4967.00,0.91
4966.00,0.92
4965.00,0.92
4964.00,0.92
4963.00,0.92
4962.00,0.92
4961.00,0.93
4960.00,0.93
4959.00,0.93
4958.00,0.93
4957.00,0.93
4956.00,0.93
4955.00,0.94
4954.00,0.94
4953.00,0.94
4952.00,0.94
4951.00,0.94
4950.00,0.94
4949.00,0.95
4948.00,0.95
4947.00,0.95
4946.00,0.95
4945.00,0.95
4944.00,0.96
4943.00,0.96
4942.00,0.96
4941.00,0.96
4940.00,0.97
4939.00,0.97
4938.00,0.97
4937.00,0.97
4936.00,0.97
4935.00,0.98
4934.00,0.98
4933.00,0.98
4932.00,0.98
4931.00,0.98
4930.00,0.98
4929.00,0.99
4928.00,0.99
4927.00,0.99
4926.00,0.99
4925.00,0.99
4924.00,0.99
4923.00,0.99
4922.00,0.99
4921.00,0.99
4920.00,0.99
4919.00,0.99
4918.00,0.99
4917.00,0.99
4916.00,0.99
4915.00,1.00
4914.00,1.00
4913.00,1.00
4912.00,1.00
4911.00,1.00
4910.00,1.00
4909.00,1.00
4908.00,1.00
4907.00,1.00
4906.00,1.00
4905.00,1.00
4904.00,1.00
4903.00,1.01
4902.00,1.01
4901.00,1.01
4900.00,1.01
4899.00,1.01
4898.00,1.01
4897.00,1.01
4896.00,1.01
4895.00,1.01
4894.00,1.01
4893.00,1.01
4892.00,1.01
4891.00,1.01
4890.00,1.01
4889.00,1.02
4888.00,1.02
4887.00,1.02
4886.00,1.02
4885.00,1.02
4884.00,1.02
4883.00,1.02
4882.00,1.02
4881.00,1.02
4880.00,1.02
4879.00,1.02
4878.00,1.02
4877.00,1.02
4876.00,1.03
4875.00,1.03
4874.00,1.03
4873.00,1.03
4872.00,1.03
4871.00,1.03
4870.00,1.03
4869.00,1.03
4868.00,1.03
4867.00,1.03
4866.00,1.03
4865.00,1.03
4864.00,1.03
4863.00,1.03
4862.00,1.03
4861.00,1.03
4860.00,1.03
4859.00,1.03
4858.00,1.03
4857.00,1.03
4856.00,1.03
4855.00,1.03
4854.00,1.03
4853.00,1.03
4852.00,1.03
4851.00,1.03
4850.00,1.04
4849.00,1.04
4848.00,1.04
4847.00,1.04
4846.00,1.04
4845.00,1.04
4844.00,1.04
4843.00,1.04
4842.00,1.04
4841.00,1.04
4840.00,1.05
4839.00,1.05
4838.00,1.05
4837.00,1.05
4836.00,1.05
4835.00,1.05
4834.00,1.05
4833.00,1.05
4832.00,1.06
4831.00,1.06
4830.00,1.06
4829.00,1.06
4828.00,1.06
4827.00,1.06
4826.00,1.06
4825.00,1.07
4824.00,1.07
4823.00,1.07
4822.00,1.07
4821.00,1.07
4820.00,1.07
4819.00,1.08
4818.00,1.08
4817.00,1.08
4816.00,1.08
4815.00,1.09
4814.00,1.09
4813.00,1.09
4812.00,1.09
4811.00,1.09
4810.00,1.10
4809.00,1.10
4808.00,1.10
4807.00,1.10
4806.00,1.11
4805.00,1.11
4804.00,1.11
4803.00,1.11
4802.00,1.11
4801.00,1.12
4800.00,1.12
4799.00,1.12
4798.00,1.12
4797.00,1.13
4796.00,1.13
4795.00,1.13
4794.00,1.13
4793.00,1.14
4792.00,1.14
4791.00,1.14
4790.00,1.15
4789.00,1.15
4788.00,1.15
4787.00,1.16
4786.00,1.16
4785.00,1.16
4784.00,1.17
4783.00,1.17
4782.00,1.17
4781.00,1.18
4780.00,1.18
4779.00,1.18
4778.00,1.18
4777.00,1.19
4776.00,1.19
4775.00,1.19
4774.00,1.19
4773.00,1.20
4772.00,1.20
4771.00,1.20
4770.00,1.20
4769.00,1.20
4768.00,1.21
4767.00,1.21
4766.00,1.21
4765.00,1.21
4764.00,1.22
4763.00,1.22
4762.00,1.22
4761.00,1.23
4760.00,1.23
4759.00,1.23
4758.00,1.23
4757.00,1.24
4756.00,1.24
4755.00,1.25
4754.00,1.25
4753.00,1.25
4752.00,1.26
4751.00,1.26
4750.00,1.26
4749.00,1.27
4748.00,1.27
4747.00,1.27
4746.00,1.28
4745.00,1.28
4744.00,1.29
4743.00,1.29
4742.00,1.29
4741.00,1.30
4740.00,1.30
4739.00,1.30
4738.00,1.31
4737.00,1.31
4736.00,1.32
4735.00,1.32
4734.00,1.32
4733.00,1.33
4732.00,1.33
4731.00,1.33
4730.00,1.34
4729.00,1.34
4728.00,1.34
4727.00,1.35
4726.00,1.35
4725.00,1.36
4724.00,1.36
4723.00,1.36
4722.00,1.37
4721.00,1.37
4720.00,1.37
4719.00,1.38
4718.00,1.38
4717.00,1.39
4716.00,1.39
4715.00,1.39
4714.00,1.40
4713.00,1.40
4712.00,1.41
4711.00,1.41
4710.00,1.41
4709.00,1.42
4708.00,1.42
4707.00,1.43
4706.00,1.43
4705.00,1.43
4704.00,1.44
4703.00,1.44
4702.00,1.44
4701.00,1.45
4700.00,1.45
4699.00,1.45
4698.00,1.45
4697.00,1.46
4696.00,1.46
4695.00,1.46
4694.00,1.47
4693.00,1.47
4692.00,1.48
4691.00,1.48
4690.00,1.48
4689.00,1.49
4688.00,1.49
4687.00,1.50
4686.00,1.50
4685.00,1.51
4684.00,1.51
4683.00,1.52
4682.00,1.52
4681.00,1.52
4680.00,1.53
4679.00,1.53
4678.00,1.54
4677.00,1.54
4676.00,1.54
4675.00,1.55
4674.00,1.55
4673.00,1.55
4672.00,1.56
4671.00,1.56
4670.00,1.56
4669.00,1.56
4668.00,1.57
4667.00,1.57
4666.00,1.57
4665.00,1.57
4664.00,1.58
4663.00,1.58
4662.00,1.58
4661.00,1.58
4660.00,1.59
4659.00,1.59
4658.00,1.59
4657.00,1.59
4656.00,1.60
4655.00,1.60
4654.00,1.60
4653.00,1.60
4652.00,1.61
4651.00,1.61
4650.00,1.61
4649.00,1.61
4648.00,1.61
4647.00,1.62
4646.00,1.62
4645.00,1.62
4644.00,1.62
4643.00,1.62
4642.00,1.62
4641.00,1.63
4640.00,1.63
4639.00,1.63
4638.00,1.63
4637.00,1.63
4636.00,1.64
4635.00,1.64
4634.00,1.64
4633.00,1.64
4632.00,1.65
4631.00,1.65
4630.00,1.65
4629.00,1.65
4628.00,1.66
4627.00,1.66
4626.00,1.66
4625.00,1.66
4624.00,1.67
4623.00,1.67
4622.00,1.67
4621.00,1.67
4620.00,1.67
4619.00,1.68
4618.00,1.68
4617.00,1.68
4616.00,1.68
4615.00,1.68
4614.00,1.68
4613.00,1.68
4612.00,1.68
4611.00,1.69
4610.00,1.69
4609.00,1.69
4608.00,1.69
4607.00,1.69
4606.00,1.69
4605.00,1.69
4604.00,1.69
4603.00,1.69
4602.00,1.69
4601.00,1.69
4600.00,1.69
4599.00,1.69
4598.00,1.69
4597.00,1.69
4596.00,1.70
4595.00,1.70
4594.00,1.70
4593.00,1.70
4592.00,1.70
4591.00,1.70
4590.00,1.70
4589.00,1.70
4588.00,1.71
4587.00,1.71
4586.00,1.71
4585.00,1.71
4584.00,1.71
4583.00,1.71
4582.00,1.71
4581.00,1.71
4580.00,1.72
4579.00,1.72
4578.00,1.72
4577.00,1.72
4576.00,1.72
4575.00,1.73
4574.00,1.73
4573.00,1.73
4572.00,1.73
4571.00,1.73
4570.00,1.74
4569.00,1.74
4568.00,1.74
4567.00,1.74
4566.00,1.74
4565.00,1.75
4564.00,1.75
4563.00,1.75
4562.00,1.75
4561.00,1.75
4560.00,1.76
4559.00,1.76
4558.00,1.76
4557.00,1.76
4556.00,1.76
4555.00,1.76
4554.00,1.76
4553.00,1.76
4552.00,1.76
4551.00,1.76
4550.00,1.76
4549.00,1.77
4548.00,1.77
4547.00,1.77
4546.00,1.77
4545.00,1.77
4544.00,1.77
4543.00,1.77
4542.00,1.77
4541.00,1.77
4540.00,1.77
4539.00,1.77
4538.00,1.78
4537.00,1.78
4536.00,1.78
4535.00,1.78
4534.00,1.78
4533.00,1.78
4532.00,1.78
4531.00,1.78
4530.00,1.79
4529.00,1.79
4528.00,1.79
4527.00,1.79
4526.00,1.79
4525.00,1.79
4524.00,1.79
4523.00,1.79
4522.00,1.79
4521.00,1.79
4520.00,1.79
4519.00,1.79
4518.00,1.79
4517.00,1.79
4516.00,1.79
4515.00,1.79
4514.00,1.79
4513.00,1.79
4512.00,1.79
4511.00,1.79
4510.00,1.79
4509.00,1.79
4508.00,1.79
4507.00,1.79
4506.00,1.79
4505.00,1.79
4504.00,1.79
4503.00,1.79
4502.00,1.79
4501.00,1.79
4500.00,1.78
4499.00,1.78
4498.00,1.78
4497.00,1.78
4496.00,1.78
4495.00,1.78
4494.00,1.78
4493.00,1.78
4492.00,1.78
4491.00,1.78
4490.00,1.78
4489.00,1.78
4488.00,1.77
4487.00,1.77
4486.00,1.77
4485.00,1.77
4484.00,1.77
4483.00,1.77
4482.00,1.76
4481.00,1.76
4480.00,1.76
4479.00,1.75
4478.00,1.75
4477.00,1.74
4476.00,1.74
4475.00,1.73
4474.00,1.73
4473.00,1.72
4472.00,1.72
4471.00,1.71
4470.00,1.70
4469.00,1.70
4468.00,1.69
4467.00,1.68
4466.00,1.68
4465.00,1.67
4464.00,1.66
4463.00,1.65
4462.00,1.65
4461.00,1.64
4460.00,1.63
4459.00,1.62
4458.00,1.61
4457.00,1.60
4456.00,1.60
4455.00,1.59
4454.00,1.58
4453.00,1.57
4452.00,1.56
4451.00,1.54
4450.00,1.53
4449.00,1.52
4448.00,1.51
4447.00,1.50
4446.00,1.48
4445.00,1.47
4444.00,1.45
4443.00,1.44
4442.00,1.43
4441.00,1.41
4440.00,1.40
4439.00,1.38
4438.00,1.37
4437.00,1.35
4436.00,1.33
4435.00,1.32
4434.00,1.30
4433.00,1.29
4432.00,1.27
4431.00,1.26
4430.00,1.25
4429.00,1.23
4428.00,1.22
4427.00,1.21
4426.00,1.20
4425.00,1.19
4424.00,1.18
4423.00,1.17
4422.00,1.16
4421.00,1.15
4420.00,1.14
4419.00,1.14
4418.00,1.13
4417.00,1.13
4416.00,1.12
4415.00,1.12
4414.00,1.11
4413.00,1.11
4412.00,1.11
4411.00,1.11
4410.00,1.11
4409.00,1.11
4408.00,1.10
4407.00,1.10
4406.00,1.10
4405.00,1.10
4404.00,1.10
4403.00,1.11
4402.00,1.11
4401.00,1.11
4400.00,1.11
4399.00,1.11
4398.00,1.12
4397.00,1.12
4396.00,1.12
4395.00,1.13
4394.00,1.13
4393.00,1.14
4392.00,1.15
4391.00,1.15
4390.00,1.16
4389.00,1.16
4388.00,1.17
4387.00,1.18
4386.00,1.18
4385.00,1.19
4384.00,1.20
4383.00,1.20
4382.00,1.21
4381.00,1.21
4380.00,1.22
4379.00,1.23
4378.00,1.23
4377.00,1.24
4376.00,1.24
4375.00,1.25
4374.00,1.25
4373.00,1.25
4372.00,1.25
4371.00,1.26
4370.00,1.26
4369.00,1.26
4368.00,1.26
4367.00,1.26
4366.00,1.26
4365.00,1.25
4364.00,1.25
4363.00,1.25
4362.00,1.25
4361.00,1.24
4360.00,1.24
4359.00,1.24
4358.00,1.23
4357.00,1.23
4356.00,1.22
4355.00,1.22
4354.00,1.22
4353.00,1.21
4352.00,1.21
4351.00,1.21
4350.00,1.20
4349.00,1.20
4348.00,1.20
4347.00,1.20
4346.00,1.20
4345.00,1.19
4344.00,1.19
4343.00,1.19
4342.00,1.19
4341.00,1.19
4340.00,1.19
4339.00,1.19
4338.00,1.19
4337.00,1.19
4336.00,1.19
4335.00,1.20
4334.00,1.20
4333.00,1.20
4332.00,1.20
4331.00,1.21
4330.00,1.21
4329.00,1.21
4328.00,1.22
4327.00,1.23
4326.00,1.23
4325.00,1.24
4324.00,1.25
4323.00,1.25
4322.00,1.26
4321.00,1.27
4320.00,1.28
4319.00,1.29
4318.00,1.30
4317.00,1.30
4316.00,1.31
4315.00,1.32
4314.00,1.33
4313.00,1.34
4312.00,1.35
4311.00,1.36
4310.00,1.36
4309.00,1.37
4308.00,1.38
4307.00,1.39
4306.00,1.39
4305.00,1.40
4304.00,1.41
4303.00,1.41
4302.00,1.42
4301.00,1.43
4300.00,1.44
4299.00,1.44
4298.00,1.45
4297.00,1.46
4296.00,1.47
4295.00,1.48
4294.00,1.49
4293.00,1.49
4292.00,1.50
4291.00,1.51
4290.00,1.52
4289.00,1.52
4288.00,1.53
4287.00,1.54
4286.00,1.54
4285.00,1.55
4284.00,1.55
4283.00,1.55
4282.00,1.56
4281.00,1.56
4280.00,1.56
4279.00,1.56
4278.00,1.56
4277.00,1.56
4276.00,1.55
4275.00,1.55
4274.00,1.55
4273.00,1.54
4272.00,1.54
4271.00,1.53
4270.00,1.53
4269.00,1.52
4268.00,1.51
4267.00,1.51
4266.00,1.50
4265.00,1.49
4264.00,1.49
4263.00,1.48
4262.00,1.48
4261.00,1.47
4260.00,1.47
4259.00,1.47
4258.00,1.46
4257.00,1.46
4256.00,1.46
4255.00,1.46
4254.00,1.46
4253.00,1.46
4252.00,1.47
4251.00,1.47
4250.00,1.47
4249.00,1.48
4248.00,1.48
4247.00,1.49
4246.00,1.49
4245.00,1.50
4244.00,1.50
4243.00,1.51
4242.00,1.52
4241.00,1.52
4240.00,1.53
4239.00,1.54
4238.00,1.54
4237.00,1.55
4236.00,1.56
4235.00,1.57
4234.00,1.57
4233.00,1.58
4232.00,1.59
4231.00,1.59
4230.00,1.60
4229.00,1.60
4228.00,1.61
4227.00,1.61
4226.00,1.62
4225.00,1.62
4224.00,1.63
4223.00,1.63
4222.00,1.63
4221.00,1.64
4220.00,1.64
4219.00,1.64
4218.00,1.64
4217.00,1.65
4216.00,1.65
4215.00,1.65
4214.00,1.65
4213.00,1.65
4212.00,1.65
4211.00,1.66
4210.00,1.66
4209.00,1.66
4208.00,1.66
4207.00,1.66
4206.00,1.67
4205.00,1.67
4204.00,1.67
4203.00,1.67
4202.00,1.68
4201.00,1.68
4200.00,1.68
4199.00,1.68
4198.00,1.68
4197.00,1.69
4196.00,1.69
4195.00,1.69
4194.00,1.69
4193.00,1.69
4192.00,1.69
4191.00,1.69
4190.00,1.69
4189.00,1.69
4188.00,1.69
4187.00,1.69
4186.00,1.69
4185.00,1.69
4184.00,1.69
4183.00,1.69
4182.00,1.69
4181.00,1.69
4180.00,1.68
4179.00,1.68
4178.00,1.68
4177.00,1.68
4176.00,1.68
4175.00,1.68
4174.00,1.68
4173.00,1.68
4172.00,1.67
4171.00,1.67
4170.00,1.67
4169.00,1.67
4168.00,1.67
4167.00,1.67
4166.00,1.67
4165.00,1.67
4164.00,1.67
4163.00,1.66
4162.00,1.66
4161.00,1.66
4160.00,1.66
4159.00,1.66
4158.00,1.66
4157.00,1.66
4156.00,1.66
4155.00,1.66
4154.00,1.66
4153.00,1.66
4152.00,1.66
4151.00,1.66
4150.00,1.66
4149.00,1.66
4148.00,1.66
4147.00,1.66
4146.00,1.66
4145.00,1.66
4144.00,1.66
4143.00,1.66
4142.00,1.66
4141.00,1.66
4140.00,1.66
4139.00,1.66
4138.00,1.66
4137.00,1.66
4136.00,1.66
4135.00,1.67
4134.00,1.67
4133.00,1.67
4132.00,1.67
4131.00,1.67
4130.00,1.67
4129.00,1.67
4128.00,1.67
4127.00,1.67
4126.00,1.67
4125.00,1.68
4124.00,1.68
4123.00,1.68
4122.00,1.68
4121.00,1.68
4120.00,1.68
4119.00,1.68
4118.00,1.67
4117.00,1.67
4116.00,1.67
4115.00,1.67
4114.00,1.67
4113.00,1.67
4112.00,1.67
4111.00,1.67
4110.00,1.67
4109.00,1.67
4108.00,1.67
4107.00,1.67
4106.00,1.67
4105.00,1.67
4104.00,1.67
4103.00,1.67
4102.00,1.67
4101.00,1.67
4100.00,1.67
4099.00,1.67
4098.00,1.67
4097.00,1.66
4096.00,1.66
4095.00,1.66
4094.00,1.66
4093.00,1.65
4092.00,1.65
4091.00,1.65
4090.00,1.64
4089.00,1.64
4088.00,1.64
4087.00,1.63
4086.00,1.63
4085.00,1.63
4084.00,1.63
4083.00,1.63
4082.00,1.62
4081.00,1.63
4080.00,1.63
4079.00,1.63
4078.00,1.63
4077.00,1.63
4076.00,1.64
4075.00,1.64
4074.00,1.64
4073.00,1.65
4072.00,1.65
4071.00,1.65
4070.00,1.65
4069.00,1.66
4068.00,1.66
4067.00,1.66
4066.00,1.66
4065.00,1.66
4064.00,1.66
4063.00,1.66
4062.00,1.66
4061.00,1.66
4060.00,1.66
4059.00,1.66
4058.00,1.66
4057.00,1.66
4056.00,1.67
4055.00,1.67
4054.00,1.67
4053.00,1.67
4052.00,1.67
4051.00,1.68
4050.00,1.68
4049.00,1.68
4048.00,1.69
4047.00,1.69
4046.00,1.70
4045.00,1.70
4044.00,1.70
4043.00,1.71
4042.00,1.71
4041.00,1.71
4040.00,1.72
4039.00,1.72
4038.00,1.72
4037.00,1.73
4036.00,1.73
4035.00,1.73
4034.00,1.73
4033.00,1.73
4032.00,1.73
4031.00,1.73
4030.00,1.73
4029.00,1.73
4028.00,1.73
4027.00,1.73
4026.00,1.73
4025.00,1.73
4024.00,1.73
4023.00,1.73
4022.00,1.73
4021.00,1.73
4020.00,1.73
4019.00,1.73
4018.00,1.73
4017.00,1.73
4016.00,1.73
4015.00,1.74
4014.00,1.74
4013.00,1.74
4012.00,1.74
4011.00,1.75
4010.00,1.75
4009.00,1.75
4008.00,1.76
4007.00,1.76
4006.00,1.77
4005.00,1.77
4004.00,1.77
4003.00,1.78
4002.00,1.78
4001.00,1.79
4000.00,1.79
