创建为新数据集,样品 084 用户 Administrator 日期 星期日, 十一月 05 2017
cm-1,%T
10000.00,1.37
9999.00,1.36
9998.00,1.36
9997.00,1.36
9996.00,1.36
9995.00,1.36
9994.00,1.35
9993.00,1.35
9992.00,1.35
9991.00,1.35
9990.00,1.35
9989.00,1.35
9988.00,1.35
9987.00,1.36
9986.00,1.36
9985.00,1.36
9984.00,1.36
9983.00,1.36
9982.00,1.36
9981.00,1.36
9980.00,1.36
9979.00,1.36
9978.00,1.36
9977.00,1.36
9976.00,1.36
9975.00,1.36
9974.00,1.36
9973.00,1.36
9972.00,1.36
9971.00,1.36
9970.00,1.36
9969.00,1.36
9968.00,1.35
9967.00,1.35
9966.00,1.35
9965.00,1.34
9964.00,1.34
9963.00,1.34
9962.00,1.33
9961.00,1.33
9960.00,1.33
9959.00,1.32
9958.00,1.32
9957.00,1.32
9956.00,1.31
9955.00,1.31
9954.00,1.31
9953.00,1.31
9952.00,1.31
9951.00,1.31
9950.00,1.31
9949.00,1.31
9948.00,1.31
9947.00,1.31
9946.00,1.31
9945.00,1.31
9944.00,1.31
9943.00,1.31
9942.00,1.31
9941.00,1.31
9940.00,1.31
9939.00,1.31
9938.00,1.32
9937.00,1.32
9936.00,1.32
9935.00,1.32
9934.00,1.32
9933.00,1.32
9932.00,1.32
9931.00,1.33
9930.00,1.33
9929.00,1.33
9928.00,1.33
9927.00,1.33
9926.00,1.33
9925.00,1.33
9924.00,1.33
9923.00,1.33
9922.00,1.33
9921.00,1.33
9920.00,1.33
9919.00,1.33
9918.00,1.34
9917.00,1.34
9916.00,1.34
9915.00,1.34
9914.00,1.34
9913.00,1.34
9912.00,1.34
9911.00,1.34
9910.00,1.35
9909.00,1.35
9908.00,1.35
9907.00,1.35
9906.00,1.35
9905.00,1.35
9904.00,1.36
9903.00,1.36
9902.00,1.36
9901.00,1.36
9900.00,1.36
9899.00,1.36
9898.00,1.36
9897.00,1.36
9896.00,1.36
9895.00,1.36
9894.00,1.36
9893.00,1.36
9892.00,1.35
9891.00,1.35
9890.00,1.35
9889.00,1.35
9888.00,1.35
9887.00,1.34
9886.00,1.34
9885.00,1.34
9884.00,1.34
9883.00,1.34
9882.00,1.34
9881.00,1.34
9880.00,1.34
9879.00,1.34
9878.00,1.34
9877.00,1.34
9876.00,1.34
9875.00,1.34
9874.00,1.34
9873.00,1.34
9872.00,1.34
9871.00,1.34
9870.00,1.33
9869.00,1.33
9868.00,1.33
9867.00,1.33
9866.00,1.32
9865.00,1.32
9864.00,1.32
9863.00,1.31
9862.00,1.31
9861.00,1.31
9860.00,1.30
9859.00,1.30
9858.00,1.30
9857.00,1.30
9856.00,1.29
9855.00,1.29
9854.00,1.29
9853.00,1.29
9852.00,1.29
9851.00,1.29
9850.00,1.29
9849.00,1.29
9848.00,1.29
9847.00,1.29
9846.00,1.29
9845.00,1.29
9844.00,1.29
9843.00,1.29
9842.00,1.29
9841.00,1.29
9840.00,1.29
9839.00,1.29
9838.00,1.29
9837.00,1.29
9836.00,1.29
9835.00,1.29
9834.00,1.29
9833.00,1.29
9832.00,1.29
9831.00,1.29
9830.00,1.29
9829.00,1.29
9828.00,1.29
9827.00,1.29
9826.00,1.29
9825.00,1.29
9824.00,1.30
9823.00,1.30
9822.00,1.30
9821.00,1.30
9820.00,1.31
9819.00,1.31
9818.00,1.31
9817.00,1.32
9816.00,1.32
9815.00,1.32
9814.00,1.32
9813.00,1.33
9812.00,1.33
9811.00,1.33
9810.00,1.33
9809.00,1.33
9808.00,1.33
9807.00,1.33
9806.00,1.33
9805.00,1.33
9804.00,1.33
9803.00,1.33
9802.00,1.33
9801.00,1.33
9800.00,1.32
9799.00,1.32
9798.00,1.32
9797.00,1.32
9796.00,1.32
9795.00,1.32
9794.00,1.32
9793.00,1.32
9792.00,1.32
9791.00,1.32
9790.00,1.32
9789.00,1.32
9788.00,1.32
9787.00,1.33
9786.00,1.33
9785.00,1.33
9784.00,1.34
9783.00,1.34
9782.00,1.34
9781.00,1.34
9780.00,1.35
9779.00,1.35
9778.00,1.35
9777.00,1.35
9776.00,1.35
9775.00,1.35
9774.00,1.35
9773.00,1.35
9772.00,1.35
9771.00,1.35
9770.00,1.34
9769.00,1.34
9768.00,1.34
9767.00,1.33
9766.00,1.33
9765.00,1.32
9764.00,1.32
9763.00,1.32
9762.00,1.31
9761.00,1.31
9760.00,1.31
9759.00,1.30
9758.00,1.30
9757.00,1.30
9756.00,1.30
9755.00,1.30
9754.00,1.30
9753.00,1.30
9752.00,1.30
9751.00,1.30
9750.00,1.30
9749.00,1.30
9748.00,1.31
9747.00,1.31
9746.00,1.31
9745.00,1.31
9744.00,1.31
9743.00,1.31
9742.00,1.32
9741.00,1.32
9740.00,1.32
9739.00,1.32
9738.00,1.32
9737.00,1.32
9736.00,1.32
9735.00,1.32
9734.00,1.32
9733.00,1.32
9732.00,1.32
9731.00,1.32
9730.00,1.32
9729.00,1.32
9728.00,1.32
9727.00,1.32
9726.00,1.32
9725.00,1.32
9724.00,1.32
9723.00,1.32
9722.00,1.33
9721.00,1.33
9720.00,1.33
9719.00,1.33
9718.00,1.34
9717.00,1.34
9716.00,1.34
9715.00,1.34
9714.00,1.34
9713.00,1.35
9712.00,1.35
9711.00,1.35
9710.00,1.35
9709.00,1.35
9708.00,1.35
9707.00,1.35
9706.00,1.35
9705.00,1.35
9704.00,1.35
9703.00,1.35
9702.00,1.35
9701.00,1.34
9700.00,1.34
9699.00,1.34
9698.00,1.34
9697.00,1.34
9696.00,1.34
9695.00,1.34
9694.00,1.34
9693.00,1.33
9692.00,1.33
9691.00,1.33
9690.00,1.33
9689.00,1.33
9688.00,1.33
9687.00,1.33
9686.00,1.32
9685.00,1.32
9684.00,1.32
9683.00,1.32
9682.00,1.32
9681.00,1.32
9680.00,1.32
9679.00,1.32
9678.00,1.32
9677.00,1.32
9676.00,1.31
9675.00,1.31
9674.00,1.31
9673.00,1.32
9672.00,1.32
9671.00,1.32
9670.00,1.32
9669.00,1.32
9668.00,1.32
9667.00,1.32
9666.00,1.32
9665.00,1.32
9664.00,1.32
9663.00,1.32
9662.00,1.32
9661.00,1.32
9660.00,1.31
9659.00,1.31
9658.00,1.31
9657.00,1.31
9656.00,1.31
9655.00,1.31
9654.00,1.31
9653.00,1.31
9652.00,1.31
9651.00,1.31
9650.00,1.31
9649.00,1.31
9648.00,1.31
9647.00,1.31
9646.00,1.31
9645.00,1.31
9644.00,1.31
9643.00,1.32
9642.00,1.32
9641.00,1.32
9640.00,1.32
9639.00,1.32
9638.00,1.33
9637.00,1.33
9636.00,1.33
9635.00,1.33
9634.00,1.33
9633.00,1.33
9632.00,1.34
9631.00,1.34
9630.00,1.34
9629.00,1.34
9628.00,1.34
9627.00,1.33
9626.00,1.33
9625.00,1.33
9624.00,1.33
9623.00,1.33
9622.00,1.33
9621.00,1.33
9620.00,1.33
9619.00,1.33
9618.00,1.33
9617.00,1.33
9616.00,1.33
9615.00,1.33
9614.00,1.33
9613.00,1.33
9612.00,1.33
9611.00,1.34
9610.00,1.34
9609.00,1.34
9608.00,1.34
9607.00,1.34
9606.00,1.35
9605.00,1.35
9604.00,1.35
9603.00,1.35
9602.00,1.35
9601.00,1.35
9600.00,1.35
9599.00,1.35
9598.00,1.35
9597.00,1.35
9596.00,1.35
9595.00,1.34
9594.00,1.34
9593.00,1.34
9592.00,1.34
9591.00,1.34
9590.00,1.33
9589.00,1.33
9588.00,1.33
9587.00,1.33
9586.00,1.32
9585.00,1.32
9584.00,1.32
9583.00,1.32
9582.00,1.32
9581.00,1.32
9580.00,1.32
9579.00,1.32
9578.00,1.32
9577.00,1.32
9576.00,1.32
9575.00,1.32
9574.00,1.33
9573.00,1.33
9572.00,1.33
9571.00,1.33
9570.00,1.34
9569.00,1.34
9568.00,1.34
9567.00,1.34
9566.00,1.35
9565.00,1.35
9564.00,1.35
9563.00,1.35
9562.00,1.35
9561.00,1.35
9560.00,1.35
9559.00,1.35
9558.00,1.35
9557.00,1.35
9556.00,1.35
9555.00,1.35
9554.00,1.34
9553.00,1.34
9552.00,1.34
9551.00,1.34
9550.00,1.34
9549.00,1.34
9548.00,1.34
9547.00,1.34
9546.00,1.34
9545.00,1.33
9544.00,1.34
9543.00,1.34
9542.00,1.34
9541.00,1.34
9540.00,1.34
9539.00,1.34
9538.00,1.34
9537.00,1.34
9536.00,1.34
9535.00,1.35
9534.00,1.35
9533.00,1.35
9532.00,1.35
9531.00,1.35
9530.00,1.35
9529.00,1.35
9528.00,1.35
9527.00,1.35
9526.00,1.35
9525.00,1.35
9524.00,1.35
9523.00,1.35
9522.00,1.35
9521.00,1.35
9520.00,1.34
9519.00,1.34
9518.00,1.34
9517.00,1.35
9516.00,1.35
9515.00,1.35
9514.00,1.35
9513.00,1.35
9512.00,1.35
9511.00,1.35
9510.00,1.35
9509.00,1.35
9508.00,1.35
9507.00,1.35
9506.00,1.35
9505.00,1.34
9504.00,1.34
9503.00,1.34
9502.00,1.34
9501.00,1.34
9500.00,1.34
9499.00,1.33
9498.00,1.33
9497.00,1.33
9496.00,1.32
9495.00,1.32
9494.00,1.32
9493.00,1.32
9492.00,1.31
9491.00,1.31
9490.00,1.31
9489.00,1.31
9488.00,1.31
9487.00,1.31
9486.00,1.31
9485.00,1.31
9484.00,1.31
9483.00,1.31
9482.00,1.31
9481.00,1.31
9480.00,1.31
9479.00,1.31
9478.00,1.31
9477.00,1.31
9476.00,1.32
9475.00,1.32
9474.00,1.32
9473.00,1.32
9472.00,1.32
9471.00,1.32
9470.00,1.33
9469.00,1.33
9468.00,1.33
9467.00,1.33
9466.00,1.33
9465.00,1.34
9464.00,1.34
9463.00,1.34
9462.00,1.34
9461.00,1.34
9460.00,1.35
9459.00,1.35
9458.00,1.35
9457.00,1.35
9456.00,1.35
9455.00,1.36
9454.00,1.36
9453.00,1.36
9452.00,1.36
9451.00,1.36
9450.00,1.36
9449.00,1.36
9448.00,1.36
9447.00,1.36
9446.00,1.36
9445.00,1.36
9444.00,1.35
9443.00,1.35
9442.00,1.35
9441.00,1.35
9440.00,1.34
9439.00,1.34
9438.00,1.33
9437.00,1.33
9436.00,1.33
9435.00,1.32
9434.00,1.32
9433.00,1.32
9432.00,1.32
9431.00,1.31
9430.00,1.31
9429.00,1.31
9428.00,1.31
9427.00,1.31
9426.00,1.31
9425.00,1.31
9424.00,1.32
9423.00,1.32
9422.00,1.32
9421.00,1.32
9420.00,1.32
9419.00,1.33
9418.00,1.33
9417.00,1.33
9416.00,1.33
9415.00,1.33
9414.00,1.33
9413.00,1.33
9412.00,1.33
9411.00,1.33
9410.00,1.33
9409.00,1.33
9408.00,1.33
9407.00,1.33
9406.00,1.33
9405.00,1.33
9404.00,1.33
9403.00,1.33
9402.00,1.33
9401.00,1.33
9400.00,1.33
9399.00,1.33
9398.00,1.33
9397.00,1.33
9396.00,1.33
9395.00,1.34
9394.00,1.34
9393.00,1.34
9392.00,1.34
9391.00,1.34
9390.00,1.34
9389.00,1.35
9388.00,1.35
9387.00,1.35
9386.00,1.35
9385.00,1.35
9384.00,1.35
9383.00,1.36
9382.00,1.36
9381.00,1.36
9380.00,1.36
9379.00,1.36
9378.00,1.36
9377.00,1.36
9376.00,1.36
9375.00,1.36
9374.00,1.35
9373.00,1.35
9372.00,1.35
9371.00,1.35
9370.00,1.35
9369.00,1.34
9368.00,1.34
9367.00,1.34
9366.00,1.34
9365.00,1.34
9364.00,1.33
9363.00,1.33
9362.00,1.33
9361.00,1.33
9360.00,1.34
9359.00,1.34
9358.00,1.34
9357.00,1.34
9356.00,1.34
9355.00,1.34
9354.00,1.35
9353.00,1.35
9352.00,1.35
9351.00,1.35
9350.00,1.35
9349.00,1.35
9348.00,1.35
9347.00,1.35
9346.00,1.35
9345.00,1.35
9344.00,1.35
9343.00,1.35
9342.00,1.35
9341.00,1.35
9340.00,1.35
9339.00,1.35
9338.00,1.35
9337.00,1.35
9336.00,1.34
9335.00,1.34
9334.00,1.34
9333.00,1.34
9332.00,1.34
9331.00,1.34
9330.00,1.34
9329.00,1.34
9328.00,1.34
9327.00,1.34
9326.00,1.34
9325.00,1.34
9324.00,1.34
9323.00,1.34
9322.00,1.34
9321.00,1.34
9320.00,1.34
9319.00,1.34
9318.00,1.34
9317.00,1.34
9316.00,1.33
9315.00,1.33
9314.00,1.33
9313.00,1.33
9312.00,1.33
9311.00,1.33
9310.00,1.33
9309.00,1.33
9308.00,1.33
9307.00,1.32
9306.00,1.32
9305.00,1.32
9304.00,1.32
9303.00,1.32
9302.00,1.32
9301.00,1.32
9300.00,1.32
9299.00,1.32
9298.00,1.32
9297.00,1.32
9296.00,1.32
9295.00,1.32
9294.00,1.32
9293.00,1.32
9292.00,1.32
9291.00,1.32
9290.00,1.33
9289.00,1.33
9288.00,1.33
9287.00,1.33
9286.00,1.33
9285.00,1.33
9284.00,1.33
9283.00,1.33
9282.00,1.33
9281.00,1.33
9280.00,1.34
9279.00,1.34
9278.00,1.34
9277.00,1.34
9276.00,1.34
9275.00,1.34
9274.00,1.34
9273.00,1.34
9272.00,1.34
9271.00,1.34
9270.00,1.34
9269.00,1.34
9268.00,1.34
9267.00,1.34
9266.00,1.34
9265.00,1.35
9264.00,1.35
9263.00,1.35
9262.00,1.35
9261.00,1.35
9260.00,1.35
9259.00,1.35
9258.00,1.35
9257.00,1.35
9256.00,1.35
9255.00,1.36
9254.00,1.36
9253.00,1.36
9252.00,1.36
9251.00,1.36
9250.00,1.36
9249.00,1.36
9248.00,1.36
9247.00,1.36
9246.00,1.36
9245.00,1.36
9244.00,1.36
9243.00,1.36
9242.00,1.36
9241.00,1.36
9240.00,1.36
9239.00,1.36
9238.00,1.36
9237.00,1.35
9236.00,1.35
9235.00,1.35
9234.00,1.35
9233.00,1.35
9232.00,1.34
9231.00,1.34
9230.00,1.34
9229.00,1.34
9228.00,1.34
9227.00,1.34
9226.00,1.33
9225.00,1.33
9224.00,1.33
9223.00,1.33
9222.00,1.33
9221.00,1.33
9220.00,1.33
9219.00,1.33
9218.00,1.33
9217.00,1.34
9216.00,1.34
9215.00,1.34
9214.00,1.34
9213.00,1.34
9212.00,1.34
9211.00,1.34
9210.00,1.34
9209.00,1.34
9208.00,1.34
9207.00,1.34
9206.00,1.34
9205.00,1.34
9204.00,1.34
9203.00,1.34
9202.00,1.34
9201.00,1.34
9200.00,1.34
9199.00,1.34
9198.00,1.34
9197.00,1.34
9196.00,1.34
9195.00,1.34
9194.00,1.34
9193.00,1.34
9192.00,1.35
9191.00,1.35
9190.00,1.35
9189.00,1.35
9188.00,1.35
9187.00,1.35
9186.00,1.35
9185.00,1.35
9184.00,1.35
9183.00,1.35
9182.00,1.35
9181.00,1.35
9180.00,1.35
9179.00,1.35
9178.00,1.35
9177.00,1.35
9176.00,1.35
9175.00,1.34
9174.00,1.34
9173.00,1.34
9172.00,1.34
9171.00,1.34
9170.00,1.34
9169.00,1.34
9168.00,1.34
9167.00,1.34
9166.00,1.34
9165.00,1.34
9164.00,1.34
9163.00,1.34
9162.00,1.34
9161.00,1.34
9160.00,1.34
9159.00,1.34
9158.00,1.34
9157.00,1.34
9156.00,1.34
9155.00,1.34
9154.00,1.34
9153.00,1.34
9152.00,1.34
9151.00,1.34
9150.00,1.34
9149.00,1.34
9148.00,1.34
9147.00,1.34
9146.00,1.34
9145.00,1.34
9144.00,1.34
9143.00,1.34
9142.00,1.34
9141.00,1.33
9140.00,1.33
9139.00,1.33
9138.00,1.33
9137.00,1.33
9136.00,1.33
9135.00,1.33
9134.00,1.33
9133.00,1.33
9132.00,1.33
9131.00,1.33
9130.00,1.33
9129.00,1.33
9128.00,1.33
9127.00,1.33
9126.00,1.33
9125.00,1.33
9124.00,1.33
9123.00,1.33
9122.00,1.33
9121.00,1.33
9120.00,1.33
9119.00,1.33
9118.00,1.33
9117.00,1.33
9116.00,1.33
9115.00,1.33
9114.00,1.33
9113.00,1.33
9112.00,1.33
9111.00,1.33
9110.00,1.33
9109.00,1.33
9108.00,1.34
9107.00,1.34
9106.00,1.34
9105.00,1.34
9104.00,1.34
9103.00,1.34
9102.00,1.34
9101.00,1.34
9100.00,1.34
9099.00,1.34
9098.00,1.34
9097.00,1.34
9096.00,1.34
9095.00,1.34
9094.00,1.34
9093.00,1.34
9092.00,1.34
9091.00,1.34
9090.00,1.34
9089.00,1.35
9088.00,1.35
9087.00,1.35
9086.00,1.35
9085.00,1.35
9084.00,1.35
9083.00,1.35
9082.00,1.35
9081.00,1.36
9080.00,1.36
9079.00,1.36
9078.00,1.36
9077.00,1.36
9076.00,1.36
9075.00,1.36
9074.00,1.36
9073.00,1.36
9072.00,1.36
9071.00,1.36
9070.00,1.36
9069.00,1.36
9068.00,1.36
9067.00,1.36
9066.00,1.36
9065.00,1.36
9064.00,1.36
9063.00,1.36
9062.00,1.36
9061.00,1.36
9060.00,1.36
9059.00,1.36
9058.00,1.36
9057.00,1.36
9056.00,1.35
9055.00,1.35
9054.00,1.35
9053.00,1.35
9052.00,1.35
9051.00,1.34
9050.00,1.34
9049.00,1.34
9048.00,1.34
9047.00,1.34
9046.00,1.33
9045.00,1.33
9044.00,1.33
9043.00,1.33
9042.00,1.32
9041.00,1.32
9040.00,1.32
9039.00,1.32
9038.00,1.32
9037.00,1.32
9036.00,1.32
9035.00,1.31
9034.00,1.31
9033.00,1.31
9032.00,1.31
9031.00,1.31
9030.00,1.32
9029.00,1.32
9028.00,1.32
9027.00,1.32
9026.00,1.32
9025.00,1.32
9024.00,1.33
9023.00,1.33
9022.00,1.33
9021.00,1.33
9020.00,1.33
9019.00,1.33
9018.00,1.33
9017.00,1.33
9016.00,1.34
9015.00,1.34
9014.00,1.34
9013.00,1.33
9012.00,1.33
9011.00,1.33
9010.00,1.33
9009.00,1.33
9008.00,1.33
9007.00,1.33
9006.00,1.33
9005.00,1.33
9004.00,1.32
9003.00,1.32
9002.00,1.32
9001.00,1.32
9000.00,1.32
8999.00,1.32
8998.00,1.32
8997.00,1.33
8996.00,1.33
8995.00,1.33
8994.00,1.33
8993.00,1.33
8992.00,1.33
8991.00,1.34
8990.00,1.34
8989.00,1.34
8988.00,1.34
8987.00,1.34
8986.00,1.34
8985.00,1.34
8984.00,1.35
8983.00,1.35
8982.00,1.35
8981.00,1.35
8980.00,1.34
8979.00,1.34
8978.00,1.34
8977.00,1.34
8976.00,1.34
8975.00,1.34
8974.00,1.34
8973.00,1.34
8972.00,1.34
8971.00,1.33
8970.00,1.33
8969.00,1.33
8968.00,1.33
8967.00,1.33
8966.00,1.33
8965.00,1.33
8964.00,1.33
8963.00,1.32
8962.00,1.32
8961.00,1.32
8960.00,1.32
8959.00,1.32
8958.00,1.32
8957.00,1.32
8956.00,1.32
8955.00,1.32
8954.00,1.32
8953.00,1.32
8952.00,1.33
8951.00,1.33
8950.00,1.33
8949.00,1.33
8948.00,1.33
8947.00,1.34
8946.00,1.34
8945.00,1.34
8944.00,1.34
8943.00,1.34
8942.00,1.34
8941.00,1.35
8940.00,1.35
8939.00,1.35
8938.00,1.35
8937.00,1.35
8936.00,1.35
8935.00,1.35
8934.00,1.35
8933.00,1.35
8932.00,1.36
8931.00,1.36
8930.00,1.36
8929.00,1.36
8928.00,1.36
8927.00,1.36
8926.00,1.36
8925.00,1.36
8924.00,1.36
8923.00,1.36
8922.00,1.36
8921.00,1.36
8920.00,1.36
8919.00,1.36
8918.00,1.35
8917.00,1.35
8916.00,1.35
8915.00,1.35
8914.00,1.35
8913.00,1.35
8912.00,1.35
8911.00,1.34
8910.00,1.34
8909.00,1.34
8908.00,1.34
8907.00,1.34
8906.00,1.33
8905.00,1.33
8904.00,1.33
8903.00,1.33
8902.00,1.33
8901.00,1.33
8900.00,1.33
8899.00,1.32
8898.00,1.32
8897.00,1.32
8896.00,1.32
8895.00,1.33
8894.00,1.33
8893.00,1.33
8892.00,1.33
8891.00,1.33
8890.00,1.33
8889.00,1.33
8888.00,1.33
8887.00,1.34
8886.00,1.34
8885.00,1.34
8884.00,1.34
8883.00,1.34
8882.00,1.34
8881.00,1.34
8880.00,1.35
8879.00,1.35
8878.00,1.35
8877.00,1.35
8876.00,1.35
8875.00,1.35
8874.00,1.35
8873.00,1.35
8872.00,1.35
8871.00,1.35
8870.00,1.35
8869.00,1.35
8868.00,1.35
8867.00,1.35
8866.00,1.35
8865.00,1.35
8864.00,1.35
8863.00,1.34
8862.00,1.34
8861.00,1.34
8860.00,1.33
8859.00,1.33
8858.00,1.33
8857.00,1.32
8856.00,1.32
8855.00,1.32
8854.00,1.32
8853.00,1.31
8852.00,1.31
8851.00,1.31
8850.00,1.31
8849.00,1.31
8848.00,1.31
8847.00,1.31
8846.00,1.31
8845.00,1.31
8844.00,1.31
8843.00,1.31
8842.00,1.31
8841.00,1.31
8840.00,1.32
8839.00,1.32
8838.00,1.32
8837.00,1.32
8836.00,1.32
8835.00,1.33
8834.00,1.33
8833.00,1.33
8832.00,1.33
8831.00,1.33
8830.00,1.33
8829.00,1.33
8828.00,1.34
8827.00,1.34
8826.00,1.34
8825.00,1.34
8824.00,1.34
8823.00,1.34
8822.00,1.34
8821.00,1.34
8820.00,1.34
8819.00,1.34
8818.00,1.34
8817.00,1.34
8816.00,1.34
8815.00,1.34
8814.00,1.34
8813.00,1.34
8812.00,1.34
8811.00,1.34
8810.00,1.33
8809.00,1.33
8808.00,1.33
8807.00,1.33
8806.00,1.33
8805.00,1.33
8804.00,1.32
8803.00,1.32
8802.00,1.32
8801.00,1.32
8800.00,1.32
8799.00,1.32
8798.00,1.32
8797.00,1.32
8796.00,1.32
8795.00,1.32
8794.00,1.32
8793.00,1.32
8792.00,1.32
8791.00,1.32
8790.00,1.32
8789.00,1.32
8788.00,1.32
8787.00,1.32
8786.00,1.32
8785.00,1.32
8784.00,1.32
8783.00,1.32
8782.00,1.32
8781.00,1.32
8780.00,1.32
8779.00,1.32
8778.00,1.32
8777.00,1.31
8776.00,1.31
8775.00,1.31
8774.00,1.31
8773.00,1.30
8772.00,1.30
8771.00,1.30
8770.00,1.30
8769.00,1.30
8768.00,1.30
8767.00,1.29
8766.00,1.29
8765.00,1.29
8764.00,1.29
8763.00,1.29
8762.00,1.29
8761.00,1.29
8760.00,1.29
8759.00,1.29
8758.00,1.29
8757.00,1.30
8756.00,1.30
8755.00,1.30
8754.00,1.30
8753.00,1.30
8752.00,1.30
8751.00,1.30
8750.00,1.30
8749.00,1.30
8748.00,1.31
8747.00,1.31
8746.00,1.31
8745.00,1.31
8744.00,1.30
8743.00,1.30
8742.00,1.30
8741.00,1.30
8740.00,1.30
8739.00,1.30
8738.00,1.30
8737.00,1.30
8736.00,1.30
8735.00,1.30
8734.00,1.30
8733.00,1.30
8732.00,1.29
8731.00,1.29
8730.00,1.29
8729.00,1.29
8728.00,1.29
8727.00,1.29
8726.00,1.29
8725.00,1.29
8724.00,1.28
8723.00,1.28
8722.00,1.28
8721.00,1.28
8720.00,1.28
8719.00,1.28
8718.00,1.28
8717.00,1.28
8716.00,1.28
8715.00,1.28
8714.00,1.28
8713.00,1.28
8712.00,1.28
8711.00,1.28
8710.00,1.28
8709.00,1.28
8708.00,1.28
8707.00,1.28
8706.00,1.28
8705.00,1.28
8704.00,1.28
8703.00,1.28
8702.00,1.28
8701.00,1.28
8700.00,1.28
8699.00,1.28
8698.00,1.28
8697.00,1.28
8696.00,1.28
8695.00,1.28
8694.00,1.28
8693.00,1.28
8692.00,1.28
8691.00,1.28
8690.00,1.28
8689.00,1.28
8688.00,1.28
8687.00,1.28
8686.00,1.28
8685.00,1.28
8684.00,1.28
8683.00,1.28
8682.00,1.28
8681.00,1.28
8680.00,1.28
8679.00,1.28
8678.00,1.28
8677.00,1.28
8676.00,1.28
8675.00,1.28
8674.00,1.28
8673.00,1.28
8672.00,1.28
8671.00,1.28
8670.00,1.28
8669.00,1.28
8668.00,1.28
8667.00,1.28
8666.00,1.28
8665.00,1.28
8664.00,1.28
8663.00,1.28
8662.00,1.28
8661.00,1.28
8660.00,1.28
8659.00,1.28
8658.00,1.28
8657.00,1.28
8656.00,1.28
8655.00,1.28
8654.00,1.28
8653.00,1.28
8652.00,1.28
8651.00,1.28
8650.00,1.28
8649.00,1.28
8648.00,1.28
8647.00,1.28
8646.00,1.28
8645.00,1.28
8644.00,1.28
8643.00,1.28
8642.00,1.28
8641.00,1.28
8640.00,1.28
8639.00,1.28
8638.00,1.28
8637.00,1.28
8636.00,1.28
8635.00,1.28
8634.00,1.28
8633.00,1.28
8632.00,1.28
8631.00,1.28
8630.00,1.28
8629.00,1.28
8628.00,1.28
8627.00,1.28
8626.00,1.28
8625.00,1.27
8624.00,1.27
8623.00,1.27
8622.00,1.27
8621.00,1.27
8620.00,1.27
8619.00,1.27
8618.00,1.27
8617.00,1.27
8616.00,1.27
8615.00,1.28
8614.00,1.28
8613.00,1.28
8612.00,1.28
8611.00,1.28
8610.00,1.28
8609.00,1.28
8608.00,1.28
8607.00,1.28
8606.00,1.28
8605.00,1.28
8604.00,1.28
8603.00,1.28
8602.00,1.28
8601.00,1.28
8600.00,1.28
8599.00,1.28
8598.00,1.27
8597.00,1.27
8596.00,1.27
8595.00,1.27
8594.00,1.27
8593.00,1.27
8592.00,1.26
8591.00,1.26
8590.00,1.26
8589.00,1.26
8588.00,1.26
8587.00,1.26
8586.00,1.26
8585.00,1.26
8584.00,1.26
8583.00,1.26
8582.00,1.26
8581.00,1.26
8580.00,1.26
8579.00,1.26
8578.00,1.26
8577.00,1.26
8576.00,1.27
8575.00,1.27
8574.00,1.27
8573.00,1.26
8572.00,1.26
8571.00,1.26
8570.00,1.26
8569.00,1.26
8568.00,1.26
8567.00,1.26
8566.00,1.26
8565.00,1.26
8564.00,1.26
8563.00,1.26
8562.00,1.26
8561.00,1.25
8560.00,1.25
8559.00,1.25
8558.00,1.25
8557.00,1.25
8556.00,1.25
8555.00,1.25
8554.00,1.25
8553.00,1.26
8552.00,1.26
8551.00,1.26
8550.00,1.26
8549.00,1.26
8548.00,1.26
8547.00,1.26
8546.00,1.26
8545.00,1.26
8544.00,1.26
8543.00,1.26
8542.00,1.25
8541.00,1.25
8540.00,1.25
8539.00,1.25
8538.00,1.25
8537.00,1.25
8536.00,1.25
8535.00,1.25
8534.00,1.24
8533.00,1.24
8532.00,1.24
8531.00,1.24
8530.00,1.24
8529.00,1.24
8528.00,1.24
8527.00,1.24
8526.00,1.24
8525.00,1.24
8524.00,1.24
8523.00,1.24
8522.00,1.24
8521.00,1.24
8520.00,1.24
8519.00,1.24
8518.00,1.24
8517.00,1.24
8516.00,1.24
8515.00,1.23
8514.00,1.23
8513.00,1.23
8512.00,1.23
8511.00,1.23
8510.00,1.23
8509.00,1.23
8508.00,1.22
8507.00,1.22
8506.00,1.22
8505.00,1.22
8504.00,1.22
8503.00,1.22
8502.00,1.22
8501.00,1.22
8500.00,1.22
8499.00,1.22
8498.00,1.22
8497.00,1.22
8496.00,1.22
8495.00,1.22
8494.00,1.22
8493.00,1.22
8492.00,1.23
8491.00,1.23
8490.00,1.23
8489.00,1.23
8488.00,1.23
8487.00,1.23
8486.00,1.23
8485.00,1.23
8484.00,1.23
8483.00,1.23
8482.00,1.23
8481.00,1.23
8480.00,1.23
8479.00,1.22
8478.00,1.22
8477.00,1.22
8476.00,1.22
8475.00,1.22
8474.00,1.22
8473.00,1.22
8472.00,1.21
8471.00,1.21
8470.00,1.21
8469.00,1.21
8468.00,1.21
8467.00,1.21
8466.00,1.21
8465.00,1.21
8464.00,1.21
8463.00,1.21
8462.00,1.21
8461.00,1.21
8460.00,1.21
8459.00,1.21
8458.00,1.21
8457.00,1.21
8456.00,1.21
8455.00,1.21
8454.00,1.21
8453.00,1.21
8452.00,1.21
8451.00,1.21
8450.00,1.21
8449.00,1.21
8448.00,1.21
8447.00,1.21
8446.00,1.21
8445.00,1.21
8444.00,1.21
8443.00,1.21
8442.00,1.21
8441.00,1.21
8440.00,1.21
8439.00,1.21
8438.00,1.21
8437.00,1.21
8436.00,1.21
8435.00,1.21
8434.00,1.21
8433.00,1.21
8432.00,1.21
8431.00,1.21
8430.00,1.21
8429.00,1.21
8428.00,1.21
8427.00,1.21
8426.00,1.21
8425.00,1.21
8424.00,1.21
8423.00,1.21
8422.00,1.21
8421.00,1.21
8420.00,1.21
8419.00,1.21
8418.00,1.21
8417.00,1.21
8416.00,1.21
8415.00,1.21
8414.00,1.21
8413.00,1.20
8412.00,1.20
8411.00,1.20
8410.00,1.20
8409.00,1.20
8408.00,1.20
8407.00,1.20
8406.00,1.20
8405.00,1.21
8404.00,1.21
8403.00,1.21
8402.00,1.21
8401.00,1.21
8400.00,1.21
8399.00,1.21
8398.00,1.22
8397.00,1.22
8396.00,1.22
8395.00,1.22
8394.00,1.23
8393.00,1.23
8392.00,1.23
8391.00,1.23
8390.00,1.23
8389.00,1.24
8388.00,1.24
8387.00,1.24
8386.00,1.24
8385.00,1.24
8384.00,1.24
8383.00,1.24
8382.00,1.24
8381.00,1.24
8380.00,1.24
8379.00,1.24
8378.00,1.24
8377.00,1.24
8376.00,1.24
8375.00,1.24
8374.00,1.24
8373.00,1.24
8372.00,1.24
8371.00,1.24
8370.00,1.24
8369.00,1.24
8368.00,1.25
8367.00,1.25
8366.00,1.25
8365.00,1.25
8364.00,1.25
8363.00,1.25
8362.00,1.25
8361.00,1.25
8360.00,1.25
8359.00,1.25
8358.00,1.25
8357.00,1.25
8356.00,1.24
8355.00,1.24
8354.00,1.24
8353.00,1.24
8352.00,1.24
8351.00,1.24
8350.00,1.24
8349.00,1.24
8348.00,1.24
8347.00,1.24
8346.00,1.24
8345.00,1.24
8344.00,1.24
8343.00,1.24
8342.00,1.24
8341.00,1.24
8340.00,1.24
8339.00,1.24
8338.00,1.24
8337.00,1.24
8336.00,1.24
8335.00,1.24
8334.00,1.24
8333.00,1.25
8332.00,1.25
8331.00,1.25
8330.00,1.25
8329.00,1.25
8328.00,1.25
8327.00,1.25
8326.00,1.25
8325.00,1.25
8324.00,1.25
8323.00,1.24
8322.00,1.25
8321.00,1.25
8320.00,1.25
8319.00,1.25
8318.00,1.25
8317.00,1.25
8316.00,1.25
8315.00,1.25
8314.00,1.25
8313.00,1.25
8312.00,1.25
8311.00,1.25
8310.00,1.25
8309.00,1.25
8308.00,1.25
8307.00,1.25
8306.00,1.26
8305.00,1.26
8304.00,1.26
8303.00,1.26
8302.00,1.26
8301.00,1.26
8300.00,1.26
8299.00,1.26
8298.00,1.25
8297.00,1.25
8296.00,1.25
8295.00,1.25
8294.00,1.25
8293.00,1.25
8292.00,1.25
8291.00,1.25
8290.00,1.24
8289.00,1.24
8288.00,1.24
8287.00,1.24
8286.00,1.24
8285.00,1.24
8284.00,1.24
8283.00,1.24
8282.00,1.24
8281.00,1.24
8280.00,1.24
8279.00,1.24
8278.00,1.24
8277.00,1.24
8276.00,1.24
8275.00,1.24
8274.00,1.24
8273.00,1.24
8272.00,1.24
8271.00,1.24
8270.00,1.24
8269.00,1.24
8268.00,1.24
8267.00,1.24
8266.00,1.24
8265.00,1.24
8264.00,1.25
8263.00,1.25
8262.00,1.25
8261.00,1.25
8260.00,1.25
8259.00,1.26
8258.00,1.26
8257.00,1.26
8256.00,1.26
8255.00,1.26
8254.00,1.26
8253.00,1.26
8252.00,1.26
8251.00,1.26
8250.00,1.26
8249.00,1.26
8248.00,1.26
8247.00,1.26
8246.00,1.26
8245.00,1.26
8244.00,1.26
8243.00,1.26
8242.00,1.26
8241.00,1.25
8240.00,1.25
8239.00,1.25
8238.00,1.25
8237.00,1.25
8236.00,1.25
8235.00,1.25
8234.00,1.24
8233.00,1.24
8232.00,1.24
8231.00,1.24
8230.00,1.24
8229.00,1.24
8228.00,1.24
8227.00,1.24
8226.00,1.24
8225.00,1.25
8224.00,1.25
8223.00,1.25
8222.00,1.25
8221.00,1.25
8220.00,1.25
8219.00,1.26
8218.00,1.26
8217.00,1.26
8216.00,1.26
8215.00,1.26
8214.00,1.26
8213.00,1.26
8212.00,1.26
8211.00,1.26
8210.00,1.26
8209.00,1.27
8208.00,1.27
8207.00,1.27
8206.00,1.27
8205.00,1.27
8204.00,1.27
8203.00,1.27
8202.00,1.27
8201.00,1.27
8200.00,1.27
8199.00,1.27
8198.00,1.27
8197.00,1.27
8196.00,1.27
8195.00,1.27
8194.00,1.27
8193.00,1.27
8192.00,1.27
8191.00,1.27
8190.00,1.28
8189.00,1.28
8188.00,1.28
8187.00,1.28
8186.00,1.28
8185.00,1.28
8184.00,1.28
8183.00,1.28
8182.00,1.28
8181.00,1.28
8180.00,1.28
8179.00,1.28
8178.00,1.28
8177.00,1.28
8176.00,1.28
8175.00,1.28
8174.00,1.28
8173.00,1.28
8172.00,1.28
8171.00,1.28
8170.00,1.28
8169.00,1.28
8168.00,1.28
8167.00,1.28
8166.00,1.28
8165.00,1.28
8164.00,1.28
8163.00,1.28
8162.00,1.28
8161.00,1.28
8160.00,1.29
8159.00,1.29
8158.00,1.29
8157.00,1.29
8156.00,1.29
8155.00,1.29
8154.00,1.29
8153.00,1.29
8152.00,1.29
8151.00,1.29
8150.00,1.29
8149.00,1.29
8148.00,1.29
8147.00,1.29
8146.00,1.29
8145.00,1.29
8144.00,1.29
8143.00,1.29
8142.00,1.29
8141.00,1.29
8140.00,1.29
8139.00,1.29
8138.00,1.29
8137.00,1.29
8136.00,1.29
8135.00,1.29
8134.00,1.29
8133.00,1.29
8132.00,1.29
8131.00,1.29
8130.00,1.29
8129.00,1.29
8128.00,1.29
8127.00,1.29
8126.00,1.29
8125.00,1.29
8124.00,1.29
8123.00,1.29
8122.00,1.29
8121.00,1.29
8120.00,1.29
8119.00,1.30
8118.00,1.30
8117.00,1.30
8116.00,1.30
8115.00,1.30
8114.00,1.30
8113.00,1.30
8112.00,1.30
8111.00,1.30
8110.00,1.30
8109.00,1.30
8108.00,1.31
8107.00,1.31
8106.00,1.31
8105.00,1.31
8104.00,1.31
8103.00,1.30
8102.00,1.30
8101.00,1.30
8100.00,1.30
8099.00,1.30
8098.00,1.30
8097.00,1.30
8096.00,1.30
8095.00,1.30
8094.00,1.30
8093.00,1.30
8092.00,1.30
8091.00,1.30
8090.00,1.30
8089.00,1.30
8088.00,1.30
8087.00,1.30
8086.00,1.30
8085.00,1.30
8084.00,1.30
8083.00,1.30
8082.00,1.31
8081.00,1.31
8080.00,1.31
8079.00,1.31
8078.00,1.31
8077.00,1.32
8076.00,1.32
8075.00,1.32
8074.00,1.32
8073.00,1.32
8072.00,1.32
8071.00,1.32
8070.00,1.32
8069.00,1.32
8068.00,1.32
8067.00,1.32
8066.00,1.32
8065.00,1.32
8064.00,1.32
8063.00,1.32
8062.00,1.32
8061.00,1.32
8060.00,1.32
8059.00,1.32
8058.00,1.32
8057.00,1.31
8056.00,1.31
8055.00,1.31
8054.00,1.31
8053.00,1.31
8052.00,1.31
8051.00,1.31
8050.00,1.31
8049.00,1.31
8048.00,1.31
8047.00,1.31
8046.00,1.31
8045.00,1.31
8044.00,1.31
8043.00,1.31
8042.00,1.31
8041.00,1.31
8040.00,1.31
8039.00,1.31
8038.00,1.31
8037.00,1.31
8036.00,1.31
8035.00,1.31
8034.00,1.31
8033.00,1.31
8032.00,1.31
8031.00,1.31
8030.00,1.31
8029.00,1.31
8028.00,1.31
8027.00,1.31
8026.00,1.31
8025.00,1.31
8024.00,1.31
8023.00,1.31
8022.00,1.31
8021.00,1.31
8020.00,1.31
8019.00,1.31
8018.00,1.31
8017.00,1.31
8016.00,1.31
8015.00,1.31
8014.00,1.31
8013.00,1.32
8012.00,1.32
8011.00,1.32
8010.00,1.32
8009.00,1.32
8008.00,1.32
8007.00,1.32
8006.00,1.32
8005.00,1.32
8004.00,1.32
8003.00,1.32
8002.00,1.32
8001.00,1.32
8000.00,1.32
7999.00,1.32
7998.00,1.32
7997.00,1.32
7996.00,1.32
7995.00,1.32
7994.00,1.32
7993.00,1.32
7992.00,1.32
7991.00,1.32
7990.00,1.32
7989.00,1.32
7988.00,1.32
7987.00,1.32
7986.00,1.32
7985.00,1.32
7984.00,1.32
7983.00,1.32
7982.00,1.32
7981.00,1.32
7980.00,1.32
7979.00,1.32
7978.00,1.32
7977.00,1.32
7976.00,1.33
7975.00,1.33
7974.00,1.33
7973.00,1.33
7972.00,1.33
7971.00,1.33
7970.00,1.33
7969.00,1.33
7968.00,1.33
7967.00,1.33
7966.00,1.33
7965.00,1.33
7964.00,1.33
7963.00,1.34
7962.00,1.34
7961.00,1.34
7960.00,1.34
7959.00,1.34
7958.00,1.34
7957.00,1.34
7956.00,1.34
7955.00,1.34
7954.00,1.34
7953.00,1.34
7952.00,1.34
7951.00,1.34
7950.00,1.34
7949.00,1.34
7948.00,1.34
7947.00,1.34
7946.00,1.34
7945.00,1.34
7944.00,1.33
7943.00,1.33
7942.00,1.33
7941.00,1.33
7940.00,1.33
7939.00,1.33
7938.00,1.33
7937.00,1.33
7936.00,1.33
7935.00,1.32
7934.00,1.32
7933.00,1.32
7932.00,1.32
7931.00,1.32
7930.00,1.32
7929.00,1.32
7928.00,1.32
7927.00,1.32
7926.00,1.32
7925.00,1.32
7924.00,1.32
7923.00,1.32
7922.00,1.32
7921.00,1.32
7920.00,1.32
7919.00,1.32
7918.00,1.32
7917.00,1.32
7916.00,1.32
7915.00,1.32
7914.00,1.32
7913.00,1.32
7912.00,1.32
7911.00,1.32
7910.00,1.32
7909.00,1.32
7908.00,1.32
7907.00,1.32
7906.00,1.32
7905.00,1.32
7904.00,1.32
7903.00,1.32
7902.00,1.32
7901.00,1.32
7900.00,1.32
7899.00,1.32
7898.00,1.32
7897.00,1.32
7896.00,1.32
7895.00,1.32
7894.00,1.32
7893.00,1.32
7892.00,1.32
7891.00,1.32
7890.00,1.32
7889.00,1.32
7888.00,1.32
7887.00,1.32
7886.00,1.32
7885.00,1.32
7884.00,1.33
7883.00,1.33
7882.00,1.33
7881.00,1.33
7880.00,1.33
7879.00,1.33
7878.00,1.33
7877.00,1.33
7876.00,1.33
7875.00,1.33
7874.00,1.33
7873.00,1.33
7872.00,1.34
7871.00,1.34
7870.00,1.34
7869.00,1.34
7868.00,1.34
7867.00,1.34
7866.00,1.35
7865.00,1.35
7864.00,1.35
7863.00,1.35
7862.00,1.35
7861.00,1.35
7860.00,1.35
7859.00,1.36
7858.00,1.36
7857.00,1.36
7856.00,1.36
7855.00,1.36
7854.00,1.36
7853.00,1.36
7852.00,1.36
7851.00,1.35
7850.00,1.35
7849.00,1.35
7848.00,1.35
7847.00,1.35
7846.00,1.35
7845.00,1.35
7844.00,1.35
7843.00,1.35
7842.00,1.35
7841.00,1.35
7840.00,1.35
7839.00,1.35
7838.00,1.35
7837.00,1.35
7836.00,1.35
7835.00,1.35
7834.00,1.35
7833.00,1.35
7832.00,1.35
7831.00,1.35
7830.00,1.35
7829.00,1.35
7828.00,1.35
7827.00,1.35
7826.00,1.35
7825.00,1.35
7824.00,1.35
7823.00,1.35
7822.00,1.35
7821.00,1.35
7820.00,1.35
7819.00,1.35
7818.00,1.35
7817.00,1.35
7816.00,1.35
7815.00,1.35
7814.00,1.34
7813.00,1.34
7812.00,1.34
7811.00,1.34
7810.00,1.34
7809.00,1.34
7808.00,1.34
7807.00,1.34
7806.00,1.34
7805.00,1.34
7804.00,1.34
7803.00,1.34
7802.00,1.34
7801.00,1.34
7800.00,1.34
7799.00,1.34
7798.00,1.34
7797.00,1.34
7796.00,1.34
7795.00,1.34
7794.00,1.34
7793.00,1.34
7792.00,1.34
7791.00,1.34
7790.00,1.34
7789.00,1.34
7788.00,1.34
7787.00,1.34
7786.00,1.34
7785.00,1.34
7784.00,1.34
7783.00,1.34
7782.00,1.34
7781.00,1.34
7780.00,1.34
7779.00,1.34
7778.00,1.35
7777.00,1.35
7776.00,1.35
7775.00,1.35
7774.00,1.35
7773.00,1.35
7772.00,1.35
7771.00,1.35
7770.00,1.35
7769.00,1.35
7768.00,1.35
7767.00,1.35
7766.00,1.35
7765.00,1.35
7764.00,1.35
7763.00,1.35
7762.00,1.35
7761.00,1.35
7760.00,1.35
7759.00,1.35
7758.00,1.35
7757.00,1.35
7756.00,1.35
7755.00,1.35
7754.00,1.35
7753.00,1.35
7752.00,1.35
7751.00,1.35
7750.00,1.35
7749.00,1.35
7748.00,1.35
7747.00,1.35
7746.00,1.35
7745.00,1.35
7744.00,1.34
7743.00,1.34
7742.00,1.34
7741.00,1.34
7740.00,1.34
7739.00,1.34
7738.00,1.34
7737.00,1.34
7736.00,1.34
7735.00,1.34
7734.00,1.34
7733.00,1.34
7732.00,1.34
7731.00,1.34
7730.00,1.34
7729.00,1.34
7728.00,1.34
7727.00,1.34
7726.00,1.34
7725.00,1.34
7724.00,1.34
7723.00,1.34
7722.00,1.34
7721.00,1.34
7720.00,1.34
7719.00,1.34
7718.00,1.34
7717.00,1.34
7716.00,1.35
7715.00,1.35
7714.00,1.35
7713.00,1.35
7712.00,1.35
7711.00,1.35
7710.00,1.36
7709.00,1.36
7708.00,1.36
7707.00,1.36
7706.00,1.36
7705.00,1.36
7704.00,1.36
7703.00,1.36
7702.00,1.36
7701.00,1.36
7700.00,1.36
7699.00,1.36
7698.00,1.36
7697.00,1.36
7696.00,1.36
7695.00,1.36
7694.00,1.36
7693.00,1.36
7692.00,1.35
7691.00,1.35
7690.00,1.35
7689.00,1.35
7688.00,1.35
7687.00,1.35
7686.00,1.35
7685.00,1.35
7684.00,1.35
7683.00,1.35
7682.00,1.35
7681.00,1.35
7680.00,1.35
7679.00,1.35
7678.00,1.35
7677.00,1.35
7676.00,1.35
7675.00,1.35
7674.00,1.35
7673.00,1.35
7672.00,1.35
7671.00,1.35
7670.00,1.35
7669.00,1.35
7668.00,1.35
7667.00,1.35
7666.00,1.35
7665.00,1.36
7664.00,1.36
7663.00,1.36
7662.00,1.36
7661.00,1.36
7660.00,1.36
7659.00,1.36
7658.00,1.36
7657.00,1.36
7656.00,1.36
7655.00,1.36
7654.00,1.36
7653.00,1.36
7652.00,1.36
7651.00,1.36
7650.00,1.36
7649.00,1.36
7648.00,1.36
7647.00,1.36
7646.00,1.36
7645.00,1.36
7644.00,1.36
7643.00,1.36
7642.00,1.36
7641.00,1.36
7640.00,1.36
7639.00,1.36
7638.00,1.36
7637.00,1.36
7636.00,1.35
7635.00,1.35
7634.00,1.35
7633.00,1.35
7632.00,1.35
7631.00,1.35
7630.00,1.35
7629.00,1.35
7628.00,1.35
7627.00,1.34
7626.00,1.34
7625.00,1.34
7624.00,1.34
7623.00,1.34
7622.00,1.34
7621.00,1.34
7620.00,1.34
7619.00,1.34
7618.00,1.34
7617.00,1.34
7616.00,1.34
7615.00,1.34
7614.00,1.34
7613.00,1.34
7612.00,1.34
7611.00,1.34
7610.00,1.34
7609.00,1.34
7608.00,1.35
7607.00,1.35
7606.00,1.35
7605.00,1.35
7604.00,1.35
7603.00,1.35
7602.00,1.35
7601.00,1.35
7600.00,1.35
7599.00,1.35
7598.00,1.35
7597.00,1.35
7596.00,1.35
7595.00,1.36
7594.00,1.36
7593.00,1.36
7592.00,1.36
7591.00,1.36
7590.00,1.36
7589.00,1.36
7588.00,1.36
7587.00,1.36
7586.00,1.36
7585.00,1.36
7584.00,1.36
7583.00,1.36
7582.00,1.36
7581.00,1.36
7580.00,1.36
7579.00,1.36
7578.00,1.36
7577.00,1.36
7576.00,1.36
7575.00,1.36
7574.00,1.36
7573.00,1.36
7572.00,1.36
7571.00,1.36
7570.00,1.36
7569.00,1.36
7568.00,1.36
7567.00,1.36
7566.00,1.36
7565.00,1.36
7564.00,1.36
7563.00,1.36
7562.00,1.36
7561.00,1.36
7560.00,1.36
7559.00,1.36
7558.00,1.36
7557.00,1.36
7556.00,1.36
7555.00,1.36
7554.00,1.36
7553.00,1.36
7552.00,1.36
7551.00,1.36
7550.00,1.36
7549.00,1.36
7548.00,1.36
7547.00,1.36
7546.00,1.36
7545.00,1.36
7544.00,1.36
7543.00,1.36
7542.00,1.36
7541.00,1.36
7540.00,1.36
7539.00,1.36
7538.00,1.36
7537.00,1.36
7536.00,1.36
7535.00,1.36
7534.00,1.36
7533.00,1.36
7532.00,1.36
7531.00,1.35
7530.00,1.35
7529.00,1.35
7528.00,1.35
7527.00,1.35
7526.00,1.35
7525.00,1.35
7524.00,1.35
7523.00,1.35
7522.00,1.35
7521.00,1.35
7520.00,1.35
7519.00,1.35
7518.00,1.35
7517.00,1.35
7516.00,1.35
7515.00,1.35
7514.00,1.35
7513.00,1.35
7512.00,1.35
7511.00,1.34
7510.00,1.34
7509.00,1.34
7508.00,1.34
7507.00,1.34
7506.00,1.34
7505.00,1.34
7504.00,1.34
7503.00,1.34
7502.00,1.34
7501.00,1.33
7500.00,1.33
7499.00,1.33
7498.00,1.33
7497.00,1.33
7496.00,1.33
7495.00,1.33
7494.00,1.33
7493.00,1.33
7492.00,1.33
7491.00,1.33
7490.00,1.33
7489.00,1.33
7488.00,1.33
7487.00,1.33
7486.00,1.33
7485.00,1.33
7484.00,1.33
7483.00,1.33
7482.00,1.33
7481.00,1.33
7480.00,1.33
7479.00,1.33
7478.00,1.33
7477.00,1.33
7476.00,1.33
7475.00,1.33
7474.00,1.33
7473.00,1.33
7472.00,1.33
7471.00,1.33
7470.00,1.33
7469.00,1.33
7468.00,1.33
7467.00,1.33
7466.00,1.33
7465.00,1.33
7464.00,1.33
7463.00,1.33
7462.00,1.33
7461.00,1.33
7460.00,1.33
7459.00,1.33
7458.00,1.33
7457.00,1.33
7456.00,1.33
7455.00,1.33
7454.00,1.33
7453.00,1.33
7452.00,1.33
7451.00,1.32
7450.00,1.32
7449.00,1.32
7448.00,1.32
7447.00,1.32
7446.00,1.32
7445.00,1.32
7444.00,1.32
7443.00,1.31
7442.00,1.31
7441.00,1.31
7440.00,1.31
7439.00,1.31
7438.00,1.31
7437.00,1.31
7436.00,1.31
7435.00,1.31
7434.00,1.31
7433.00,1.31
7432.00,1.31
7431.00,1.31
7430.00,1.31
7429.00,1.31
7428.00,1.31
7427.00,1.31
7426.00,1.31
7425.00,1.31
7424.00,1.31
7423.00,1.31
7422.00,1.31
7421.00,1.31
7420.00,1.31
7419.00,1.31
7418.00,1.31
7417.00,1.31
7416.00,1.31
7415.00,1.31
7414.00,1.31
7413.00,1.31
7412.00,1.31
7411.00,1.31
7410.00,1.31
7409.00,1.31
7408.00,1.31
7407.00,1.31
7406.00,1.31
7405.00,1.30
7404.00,1.30
7403.00,1.30
7402.00,1.30
7401.00,1.30
7400.00,1.30
7399.00,1.30
7398.00,1.30
7397.00,1.30
7396.00,1.29
7395.00,1.29
7394.00,1.29
7393.00,1.29
7392.00,1.29
7391.00,1.29
7390.00,1.29
7389.00,1.29
7388.00,1.29
7387.00,1.28
7386.00,1.28
7385.00,1.28
7384.00,1.28
7383.00,1.28
7382.00,1.28
7381.00,1.28
7380.00,1.28
7379.00,1.28
7378.00,1.28
7377.00,1.28
7376.00,1.28
7375.00,1.28
7374.00,1.28
7373.00,1.28
7372.00,1.28
7371.00,1.28
7370.00,1.28
7369.00,1.28
7368.00,1.28
7367.00,1.28
7366.00,1.28
7365.00,1.28
7364.00,1.28
7363.00,1.28
7362.00,1.28
7361.00,1.28
7360.00,1.29
7359.00,1.29
7358.00,1.29
7357.00,1.29
7356.00,1.29
7355.00,1.29
7354.00,1.29
7353.00,1.29
7352.00,1.29
7351.00,1.29
7350.00,1.28
7349.00,1.28
7348.00,1.28
7347.00,1.28
7346.00,1.28
7345.00,1.28
7344.00,1.27
7343.00,1.27
7342.00,1.27
7341.00,1.27
7340.00,1.27
7339.00,1.27
7338.00,1.26
7337.00,1.26
7336.00,1.26
7335.00,1.26
7334.00,1.26
7333.00,1.26
7332.00,1.26
7331.00,1.26
7330.00,1.26
7329.00,1.26
7328.00,1.26
7327.00,1.26
7326.00,1.26
7325.00,1.26
7324.00,1.26
7323.00,1.26
7322.00,1.26
7321.00,1.26
7320.00,1.26
7319.00,1.26
7318.00,1.26
7317.00,1.26
7316.00,1.26
7315.00,1.26
7314.00,1.26
7313.00,1.26
7312.00,1.26
7311.00,1.26
7310.00,1.26
7309.00,1.26
7308.00,1.26
7307.00,1.26
7306.00,1.26
7305.00,1.25
7304.00,1.25
7303.00,1.25
7302.00,1.25
7301.00,1.25
7300.00,1.25
7299.00,1.25
7298.00,1.25
7297.00,1.25
7296.00,1.25
7295.00,1.25
7294.00,1.25
7293.00,1.25
7292.00,1.25
7291.00,1.25
7290.00,1.25
7289.00,1.24
7288.00,1.24
7287.00,1.24
7286.00,1.24
7285.00,1.24
7284.00,1.24
7283.00,1.24
7282.00,1.24
7281.00,1.24
7280.00,1.23
7279.00,1.23
7278.00,1.23
7277.00,1.23
7276.00,1.23
7275.00,1.23
7274.00,1.23
7273.00,1.23
7272.00,1.22
7271.00,1.22
7270.00,1.22
7269.00,1.22
7268.00,1.22
7267.00,1.22
7266.00,1.22
7265.00,1.22
7264.00,1.22
7263.00,1.22
7262.00,1.22
7261.00,1.22
7260.00,1.22
7259.00,1.22
7258.00,1.22
7257.00,1.21
7256.00,1.21
7255.00,1.21
7254.00,1.21
7253.00,1.21
7252.00,1.21
7251.00,1.20
7250.00,1.20
7249.00,1.20
7248.00,1.20
7247.00,1.20
7246.00,1.19
7245.00,1.19
7244.00,1.19
7243.00,1.18
7242.00,1.18
7241.00,1.18
7240.00,1.18
7239.00,1.17
7238.00,1.17
7237.00,1.17
7236.00,1.17
7235.00,1.16
7234.00,1.16
7233.00,1.16
7232.00,1.16
7231.00,1.15
7230.00,1.15
7229.00,1.15
7228.00,1.15
7227.00,1.14
7226.00,1.14
7225.00,1.14
7224.00,1.14
7223.00,1.14
7222.00,1.13
7221.00,1.13
7220.00,1.13
7219.00,1.13
7218.00,1.12
7217.00,1.12
7216.00,1.12
7215.00,1.12
7214.00,1.12
7213.00,1.11
7212.00,1.11
7211.00,1.11
7210.00,1.11
7209.00,1.11
7208.00,1.10
7207.00,1.10
7206.00,1.10
7205.00,1.10
7204.00,1.09
7203.00,1.09
7202.00,1.09
7201.00,1.09
7200.00,1.08
7199.00,1.08
7198.00,1.08
7197.00,1.08
7196.00,1.08
7195.00,1.07
7194.00,1.07
7193.00,1.07
7192.00,1.07
7191.00,1.06
7190.00,1.06
7189.00,1.06
7188.00,1.06
7187.00,1.06
7186.00,1.05
7185.00,1.05
7184.00,1.05
7183.00,1.05
7182.00,1.04
7181.00,1.04
7180.00,1.04
7179.00,1.04
7178.00,1.04
7177.00,1.03
7176.00,1.03
7175.00,1.03
7174.00,1.03
7173.00,1.03
7172.00,1.02
7171.00,1.02
7170.00,1.02
7169.00,1.02
7168.00,1.02
7167.00,1.01
7166.00,1.01
7165.00,1.01
7164.00,1.01
7163.00,1.01
7162.00,1.00
7161.00,1.00
7160.00,1.00
7159.00,1.00
7158.00,1.00
7157.00,0.99
7156.00,0.99
7155.00,0.99
7154.00,0.99
7153.00,0.99
7152.00,0.98
7151.00,0.98
7150.00,0.98
7149.00,0.98
7148.00,0.98
7147.00,0.98
7146.00,0.97
7145.00,0.97
7144.00,0.97
7143.00,0.97
7142.00,0.97
7141.00,0.97
7140.00,0.96
7139.00,0.96
7138.00,0.96
7137.00,0.96
7136.00,0.96
7135.00,0.95
7134.00,0.95
7133.00,0.95
7132.00,0.95
7131.00,0.94
7130.00,0.94
7129.00,0.94
7128.00,0.94
7127.00,0.93
7126.00,0.93
7125.00,0.93
7124.00,0.93
7123.00,0.93
7122.00,0.92
7121.00,0.92
7120.00,0.92
7119.00,0.91
7118.00,0.91
7117.00,0.91
7116.00,0.91
7115.00,0.90
7114.00,0.90
7113.00,0.90
7112.00,0.89
7111.00,0.89
7110.00,0.89
7109.00,0.89
7108.00,0.88
7107.00,0.88
7106.00,0.88
7105.00,0.88
7104.00,0.87
7103.00,0.87
7102.00,0.87
7101.00,0.87
7100.00,0.87
7099.00,0.86
7098.00,0.86
7097.00,0.86
7096.00,0.86
7095.00,0.86
7094.00,0.85
7093.00,0.85
7092.00,0.85
7091.00,0.85
7090.00,0.85
7089.00,0.84
7088.00,0.84
7087.00,0.84
7086.00,0.84
7085.00,0.84
7084.00,0.83
7083.00,0.83
7082.00,0.83
7081.00,0.83
7080.00,0.83
7079.00,0.83
7078.00,0.82
7077.00,0.82
7076.00,0.82
7075.00,0.82
7074.00,0.82
7073.00,0.82
7072.00,0.82
7071.00,0.81
7070.00,0.81
7069.00,0.81
7068.00,0.81
7067.00,0.81
7066.00,0.81
7065.00,0.81
7064.00,0.80
7063.00,0.80
7062.00,0.80
7061.00,0.80
7060.00,0.80
7059.00,0.80
7058.00,0.79
7057.00,0.79
7056.00,0.79
7055.00,0.79
7054.00,0.79
7053.00,0.79
7052.00,0.79
7051.00,0.78
7050.00,0.78
7049.00,0.78
7048.00,0.78
7047.00,0.78
7046.00,0.78
7045.00,0.78
7044.00,0.78
7043.00,0.77
7042.00,0.77
7041.00,0.77
7040.00,0.77
7039.00,0.77
7038.00,0.77
7037.00,0.77
7036.00,0.77
7035.00,0.77
7034.00,0.77
7033.00,0.77
7032.00,0.76
7031.00,0.76
7030.00,0.76
7029.00,0.76
7028.00,0.76
7027.00,0.76
7026.00,0.76
7025.00,0.76
7024.00,0.75
7023.00,0.75
7022.00,0.75
7021.00,0.75
7020.00,0.75
7019.00,0.75
7018.00,0.75
7017.00,0.75
7016.00,0.74
7015.00,0.74
7014.00,0.74
7013.00,0.74
7012.00,0.74
7011.00,0.74
7010.00,0.74
7009.00,0.74
7008.00,0.74
7007.00,0.74
7006.00,0.73
7005.00,0.73
7004.00,0.73
7003.00,0.73
7002.00,0.73
7001.00,0.73
7000.00,0.73
6999.00,0.73
6998.00,0.73
6997.00,0.73
6996.00,0.72
6995.00,0.72
6994.00,0.72
6993.00,0.72
6992.00,0.72
6991.00,0.72
6990.00,0.72
6989.00,0.72
6988.00,0.72
6987.00,0.72
6986.00,0.71
6985.00,0.71
6984.00,0.71
6983.00,0.71
6982.00,0.71
6981.00,0.71
6980.00,0.71
6979.00,0.71
6978.00,0.71
6977.00,0.71
6976.00,0.71
6975.00,0.71
6974.00,0.71
6973.00,0.71
6972.00,0.71
6971.00,0.71
6970.00,0.71
6969.00,0.71
6968.00,0.71
6967.00,0.71
6966.00,0.71
6965.00,0.71
6964.00,0.71
6963.00,0.71
6962.00,0.71
6961.00,0.71
6960.00,0.71
6959.00,0.71
6958.00,0.71
6957.00,0.71
6956.00,0.71
6955.00,0.71
6954.00,0.71
6953.00,0.71
6952.00,0.71
6951.00,0.71
6950.00,0.71
6949.00,0.71
6948.00,0.70
6947.00,0.70
6946.00,0.70
6945.00,0.70
6944.00,0.70
6943.00,0.70
6942.00,0.70
6941.00,0.70
6940.00,0.70
6939.00,0.70
6938.00,0.70
6937.00,0.70
6936.00,0.70
6935.00,0.70
6934.00,0.70
6933.00,0.70
6932.00,0.70
6931.00,0.69
6930.00,0.69
6929.00,0.69
6928.00,0.69
6927.00,0.69
6926.00,0.69
6925.00,0.69
6924.00,0.69
6923.00,0.69
6922.00,0.69
6921.00,0.69
6920.00,0.69
6919.00,0.69
6918.00,0.69
6917.00,0.70
6916.00,0.70
6915.00,0.70
6914.00,0.70
6913.00,0.70
6912.00,0.70
6911.00,0.69
6910.00,0.69
6909.00,0.69
6908.00,0.69
6907.00,0.69
6906.00,0.69
6905.00,0.69
6904.00,0.69
6903.00,0.69
6902.00,0.69
6901.00,0.69
6900.00,0.69
6899.00,0.69
6898.00,0.69
6897.00,0.69
6896.00,0.69
6895.00,0.69
6894.00,0.69
6893.00,0.69
6892.00,0.69
6891.00,0.69
6890.00,0.69
6889.00,0.69
6888.00,0.69
6887.00,0.69
6886.00,0.69
6885.00,0.68
6884.00,0.68
6883.00,0.68
6882.00,0.68
6881.00,0.68
6880.00,0.68
6879.00,0.68
6878.00,0.68
6877.00,0.68
6876.00,0.68
6875.00,0.68
6874.00,0.68
6873.00,0.68
6872.00,0.68
6871.00,0.68
6870.00,0.68
6869.00,0.68
6868.00,0.68
6867.00,0.68
6866.00,0.68
6865.00,0.68
6864.00,0.68
6863.00,0.68
6862.00,0.68
6861.00,0.68
6860.00,0.68
6859.00,0.68
6858.00,0.68
6857.00,0.68
6856.00,0.68
6855.00,0.68
6854.00,0.68
6853.00,0.68
6852.00,0.68
6851.00,0.68
6850.00,0.68
6849.00,0.68
6848.00,0.68
6847.00,0.68
6846.00,0.68
6845.00,0.68
6844.00,0.68
6843.00,0.69
6842.00,0.69
6841.00,0.69
6840.00,0.69
6839.00,0.69
6838.00,0.69
6837.00,0.69
6836.00,0.69
6835.00,0.68
6834.00,0.68
6833.00,0.68
6832.00,0.68
6831.00,0.68
6830.00,0.68
6829.00,0.68
6828.00,0.68
6827.00,0.68
6826.00,0.68
6825.00,0.68
6824.00,0.68
6823.00,0.68
6822.00,0.69
6821.00,0.69
6820.00,0.69
6819.00,0.69
6818.00,0.69
6817.00,0.69
6816.00,0.69
6815.00,0.69
6814.00,0.69
6813.00,0.69
6812.00,0.69
6811.00,0.69
6810.00,0.69
6809.00,0.69
6808.00,0.69
6807.00,0.69
6806.00,0.69
6805.00,0.70
6804.00,0.70
6803.00,0.70
6802.00,0.70
6801.00,0.70
6800.00,0.70
6799.00,0.70
6798.00,0.70
6797.00,0.70
6796.00,0.70
6795.00,0.70
6794.00,0.70
6793.00,0.70
6792.00,0.70
6791.00,0.70
6790.00,0.70
6789.00,0.70
6788.00,0.71
6787.00,0.71
6786.00,0.71
6785.00,0.71
6784.00,0.71
6783.00,0.71
6782.00,0.71
6781.00,0.71
6780.00,0.71
6779.00,0.71
6778.00,0.71
6777.00,0.71
6776.00,0.71
6775.00,0.71
6774.00,0.71
6773.00,0.71
6772.00,0.71
6771.00,0.71
6770.00,0.71
6769.00,0.71
6768.00,0.71
6767.00,0.71
6766.00,0.71
6765.00,0.71
6764.00,0.71
6763.00,0.72
6762.00,0.72
6761.00,0.72
6760.00,0.72
6759.00,0.72
6758.00,0.72
6757.00,0.72
6756.00,0.72
6755.00,0.72
6754.00,0.72
6753.00,0.72
6752.00,0.72
6751.00,0.72
6750.00,0.72
6749.00,0.72
6748.00,0.72
6747.00,0.72
6746.00,0.72
6745.00,0.72
6744.00,0.72
6743.00,0.72
6742.00,0.73
6741.00,0.73
6740.00,0.73
6739.00,0.73
6738.00,0.73
6737.00,0.73
6736.00,0.73
6735.00,0.73
6734.00,0.73
6733.00,0.73
6732.00,0.74
6731.00,0.74
6730.00,0.74
6729.00,0.74
6728.00,0.74
6727.00,0.74
6726.00,0.74
6725.00,0.74
6724.00,0.74
6723.00,0.74
6722.00,0.74
6721.00,0.74
6720.00,0.74
6719.00,0.74
6718.00,0.74
6717.00,0.74
6716.00,0.74
6715.00,0.74
6714.00,0.74
6713.00,0.74
6712.00,0.74
6711.00,0.74
6710.00,0.74
6709.00,0.74
6708.00,0.74
6707.00,0.74
6706.00,0.74
6705.00,0.74
6704.00,0.74
6703.00,0.75
6702.00,0.75
6701.00,0.75
6700.00,0.75
6699.00,0.75
6698.00,0.75
6697.00,0.75
6696.00,0.75
6695.00,0.75
6694.00,0.75
6693.00,0.75
6692.00,0.75
6691.00,0.75
6690.00,0.76
6689.00,0.76
6688.00,0.76
6687.00,0.76
6686.00,0.76
6685.00,0.76
6684.00,0.76
6683.00,0.76
6682.00,0.76
6681.00,0.76
6680.00,0.77
6679.00,0.77
6678.00,0.77
6677.00,0.77
6676.00,0.77
6675.00,0.77
6674.00,0.77
6673.00,0.78
6672.00,0.78
6671.00,0.78
6670.00,0.78
6669.00,0.78
6668.00,0.79
6667.00,0.79
6666.00,0.79
6665.00,0.79
6664.00,0.79
6663.00,0.79
6662.00,0.79
6661.00,0.79
6660.00,0.79
6659.00,0.80
6658.00,0.80
6657.00,0.80
6656.00,0.80
6655.00,0.80
6654.00,0.80
6653.00,0.80
6652.00,0.80
6651.00,0.80
6650.00,0.80
6649.00,0.80
6648.00,0.80
6647.00,0.80
6646.00,0.80
6645.00,0.80
6644.00,0.80
6643.00,0.80
6642.00,0.80
6641.00,0.80
6640.00,0.80
6639.00,0.80
6638.00,0.80
6637.00,0.80
6636.00,0.80
6635.00,0.80
6634.00,0.80
6633.00,0.80
6632.00,0.81
6631.00,0.81
6630.00,0.81
6629.00,0.81
6628.00,0.81
6627.00,0.81
6626.00,0.81
6625.00,0.81
6624.00,0.81
6623.00,0.82
6622.00,0.82
6621.00,0.82
6620.00,0.82
6619.00,0.82
6618.00,0.82
6617.00,0.83
6616.00,0.83
6615.00,0.83
6614.00,0.83
6613.00,0.83
6612.00,0.83
6611.00,0.83
6610.00,0.83
6609.00,0.84
6608.00,0.84
6607.00,0.84
6606.00,0.84
6605.00,0.84
6604.00,0.84
6603.00,0.84
6602.00,0.84
6601.00,0.84
6600.00,0.84
6599.00,0.84
6598.00,0.84
6597.00,0.85
6596.00,0.85
6595.00,0.85
6594.00,0.85
6593.00,0.85
6592.00,0.85
6591.00,0.85
6590.00,0.85
6589.00,0.85
6588.00,0.85
6587.00,0.85
6586.00,0.86
6585.00,0.86
6584.00,0.86
6583.00,0.86
6582.00,0.86
6581.00,0.86
6580.00,0.86
6579.00,0.86
6578.00,0.86
6577.00,0.86
6576.00,0.86
6575.00,0.86
6574.00,0.86
6573.00,0.86
6572.00,0.86
6571.00,0.86
6570.00,0.86
6569.00,0.86
6568.00,0.86
6567.00,0.86
6566.00,0.86
6565.00,0.86
6564.00,0.86
6563.00,0.86
6562.00,0.86
6561.00,0.87
6560.00,0.87
6559.00,0.87
6558.00,0.87
6557.00,0.87
6556.00,0.87
6555.00,0.87
6554.00,0.87
6553.00,0.87
6552.00,0.87
6551.00,0.87
6550.00,0.88
6549.00,0.88
6548.00,0.88
6547.00,0.88
6546.00,0.88
6545.00,0.88
6544.00,0.88
6543.00,0.88
6542.00,0.88
6541.00,0.88
6540.00,0.88
6539.00,0.88
6538.00,0.88
6537.00,0.88
6536.00,0.88
6535.00,0.89
6534.00,0.89
6533.00,0.89
6532.00,0.89
6531.00,0.89
6530.00,0.89
6529.00,0.89
6528.00,0.89
6527.00,0.89
6526.00,0.89
6525.00,0.89
6524.00,0.89
6523.00,0.89
6522.00,0.89
6521.00,0.89
6520.00,0.89
6519.00,0.89
6518.00,0.89
6517.00,0.90
6516.00,0.90
6515.00,0.90
6514.00,0.90
6513.00,0.90
6512.00,0.90
6511.00,0.90
6510.00,0.90
6509.00,0.90
6508.00,0.90
6507.00,0.90
6506.00,0.90
6505.00,0.90
6504.00,0.91
6503.00,0.91
6502.00,0.91
6501.00,0.91
6500.00,0.91
6499.00,0.91
6498.00,0.91
6497.00,0.91
6496.00,0.91
6495.00,0.91
6494.00,0.91
6493.00,0.91
6492.00,0.91
6491.00,0.91
6490.00,0.91
6489.00,0.91
6488.00,0.91
6487.00,0.91
6486.00,0.91
6485.00,0.91
6484.00,0.91
6483.00,0.91
6482.00,0.91
6481.00,0.91
6480.00,0.91
6479.00,0.91
6478.00,0.91
6477.00,0.91
6476.00,0.91
6475.00,0.91
6474.00,0.91
6473.00,0.92
6472.00,0.92
6471.00,0.92
6470.00,0.92
6469.00,0.92
6468.00,0.92
6467.00,0.92
6466.00,0.93
6465.00,0.93
6464.00,0.93
6463.00,0.93
6462.00,0.93
6461.00,0.93
6460.00,0.93
6459.00,0.93
6458.00,0.93
6457.00,0.93
6456.00,0.93
6455.00,0.93
6454.00,0.93
6453.00,0.93
6452.00,0.93
6451.00,0.93
6450.00,0.93
6449.00,0.93
6448.00,0.93
6447.00,0.93
6446.00,0.93
6445.00,0.93
6444.00,0.93
6443.00,0.93
6442.00,0.93
6441.00,0.93
6440.00,0.93
6439.00,0.93
6438.00,0.93
6437.00,0.93
6436.00,0.93
6435.00,0.93
6434.00,0.93
6433.00,0.94
6432.00,0.94
6431.00,0.94
6430.00,0.94
6429.00,0.94
6428.00,0.94
6427.00,0.94
6426.00,0.94
6425.00,0.94
6424.00,0.94
6423.00,0.94
6422.00,0.94
6421.00,0.94
6420.00,0.94
6419.00,0.94
6418.00,0.94
6417.00,0.94
6416.00,0.94
6415.00,0.94
6414.00,0.95
6413.00,0.95
6412.00,0.95
6411.00,0.95
6410.00,0.95
6409.00,0.95
6408.00,0.95
6407.00,0.95
6406.00,0.95
6405.00,0.95
6404.00,0.95
6403.00,0.95
6402.00,0.95
6401.00,0.95
6400.00,0.95
6399.00,0.95
6398.00,0.95
6397.00,0.95
6396.00,0.95
6395.00,0.95
6394.00,0.95
6393.00,0.95
6392.00,0.95
6391.00,0.95
6390.00,0.95
6389.00,0.95
6388.00,0.95
6387.00,0.95
6386.00,0.95
6385.00,0.95
6384.00,0.95
6383.00,0.95
6382.00,0.95
6381.00,0.96
6380.00,0.96
6379.00,0.96
6378.00,0.96
6377.00,0.96
6376.00,0.96
6375.00,0.96
6374.00,0.96
6373.00,0.96
6372.00,0.96
6371.00,0.96
6370.00,0.96
6369.00,0.97
6368.00,0.97
6367.00,0.97
6366.00,0.97
6365.00,0.97
6364.00,0.97
6363.00,0.97
6362.00,0.97
6361.00,0.97
6360.00,0.97
6359.00,0.97
6358.00,0.97
6357.00,0.97
6356.00,0.97
6355.00,0.97
6354.00,0.97
6353.00,0.97
6352.00,0.97
6351.00,0.97
6350.00,0.97
6349.00,0.97
6348.00,0.97
6347.00,0.97
6346.00,0.97
6345.00,0.97
6344.00,0.97
6343.00,0.97
6342.00,0.97
6341.00,0.97
6340.00,0.97
6339.00,0.97
6338.00,0.97
6337.00,0.97
6336.00,0.98
6335.00,0.98
6334.00,0.98
6333.00,0.98
6332.00,0.98
6331.00,0.98
6330.00,0.98
6329.00,0.98
6328.00,0.98
6327.00,0.98
6326.00,0.98
6325.00,0.98
6324.00,0.98
6323.00,0.98
6322.00,0.98
6321.00,0.98
6320.00,0.99
6319.00,0.99
6318.00,0.99
6317.00,0.99
6316.00,0.99
6315.00,0.99
6314.00,0.99
6313.00,0.99
6312.00,0.99
6311.00,0.99
6310.00,0.99
6309.00,1.00
6308.00,1.00
6307.00,1.00
6306.00,1.00
6305.00,1.00
6304.00,1.00
6303.00,1.01
6302.00,1.01
6301.00,1.01
6300.00,1.01
6299.00,1.01
6298.00,1.02
6297.00,1.02
6296.00,1.02
6295.00,1.02
6294.00,1.02
6293.00,1.02
6292.00,1.02
6291.00,1.02
6290.00,1.02
6289.00,1.02
6288.00,1.02
6287.00,1.02
6286.00,1.02
6285.00,1.02
6284.00,1.02
6283.00,1.03
6282.00,1.03
6281.00,1.03
6280.00,1.03
6279.00,1.03
6278.00,1.03
6277.00,1.03
6276.00,1.03
6275.00,1.03
6274.00,1.03
6273.00,1.03
6272.00,1.03
6271.00,1.03
6270.00,1.03
6269.00,1.04
6268.00,1.04
6267.00,1.04
6266.00,1.04
6265.00,1.04
6264.00,1.04
6263.00,1.04
6262.00,1.04
6261.00,1.04
6260.00,1.04
6259.00,1.04
6258.00,1.05
6257.00,1.05
6256.00,1.05
6255.00,1.05
6254.00,1.05
6253.00,1.05
6252.00,1.05
6251.00,1.05
6250.00,1.05
6249.00,1.05
6248.00,1.06
6247.00,1.06
6246.00,1.06
6245.00,1.06
6244.00,1.06
6243.00,1.06
6242.00,1.06
6241.00,1.07
6240.00,1.07
6239.00,1.07
6238.00,1.07
6237.00,1.07
6236.00,1.07
6235.00,1.07
6234.00,1.07
6233.00,1.07
6232.00,1.08
6231.00,1.08
6230.00,1.08
6229.00,1.08
6228.00,1.08
6227.00,1.08
6226.00,1.08
6225.00,1.08
6224.00,1.08
6223.00,1.08
6222.00,1.08
6221.00,1.08
6220.00,1.08
6219.00,1.08
6218.00,1.08
6217.00,1.08
6216.00,1.09
6215.00,1.09
6214.00,1.09
6213.00,1.09
6212.00,1.09
6211.00,1.09
6210.00,1.09
6209.00,1.09
6208.00,1.09
6207.00,1.09
6206.00,1.10
6205.00,1.10
6204.00,1.10
6203.00,1.10
6202.00,1.10
6201.00,1.10
6200.00,1.10
6199.00,1.10
6198.00,1.10
6197.00,1.10
6196.00,1.10
6195.00,1.10
6194.00,1.10
6193.00,1.11
6192.00,1.11
6191.00,1.11
6190.00,1.11
6189.00,1.11
6188.00,1.11
6187.00,1.11
6186.00,1.11
6185.00,1.12
6184.00,1.12
6183.00,1.12
6182.00,1.12
6181.00,1.12
6180.00,1.12
6179.00,1.12
6178.00,1.13
6177.00,1.13
6176.00,1.13
6175.00,1.13
6174.00,1.13
6173.00,1.13
6172.00,1.13
6171.00,1.13
6170.00,1.13
6169.00,1.14
6168.00,1.14
6167.00,1.14
6166.00,1.14
6165.00,1.14
6164.00,1.14
6163.00,1.14
6162.00,1.15
6161.00,1.15
6160.00,1.15
6159.00,1.15
6158.00,1.15
6157.00,1.15
6156.00,1.16
6155.00,1.16
6154.00,1.16
6153.00,1.16
6152.00,1.16
6151.00,1.16
6150.00,1.17
6149.00,1.17
6148.00,1.17
6147.00,1.17
6146.00,1.17
6145.00,1.17
6144.00,1.17
6143.00,1.17
6142.00,1.18
6141.00,1.18
6140.00,1.18
6139.00,1.18
6138.00,1.18
6137.00,1.18
6136.00,1.18
6135.00,1.18
6134.00,1.18
6133.00,1.19
6132.00,1.19
6131.00,1.19
6130.00,1.19
6129.00,1.19
6128.00,1.19
6127.00,1.19
6126.00,1.20
6125.00,1.20
6124.00,1.20
6123.00,1.20
6122.00,1.20
6121.00,1.20
6120.00,1.20
6119.00,1.20
6118.00,1.20
6117.00,1.20
6116.00,1.20
6115.00,1.20
6114.00,1.20
6113.00,1.20
6112.00,1.20
6111.00,1.21
6110.00,1.21
6109.00,1.21
6108.00,1.21
6107.00,1.21
6106.00,1.21
6105.00,1.21
6104.00,1.21
6103.00,1.21
6102.00,1.21
6101.00,1.21
6100.00,1.21
6099.00,1.22
6098.00,1.22
6097.00,1.22
6096.00,1.22
6095.00,1.22
6094.00,1.22
6093.00,1.22
6092.00,1.22
6091.00,1.23
6090.00,1.23
6089.00,1.23
6088.00,1.23
6087.00,1.23
6086.00,1.23
6085.00,1.23
6084.00,1.23
6083.00,1.23
6082.00,1.23
6081.00,1.23
6080.00,1.23
6079.00,1.23
6078.00,1.23
6077.00,1.23
6076.00,1.23
6075.00,1.24
6074.00,1.24
6073.00,1.24
6072.00,1.24
6071.00,1.24
6070.00,1.24
6069.00,1.24
6068.00,1.24
6067.00,1.25
6066.00,1.25
6065.00,1.25
6064.00,1.25
6063.00,1.25
6062.00,1.25
6061.00,1.26
6060.00,1.26
6059.00,1.26
6058.00,1.26
6057.00,1.26
6056.00,1.26
6055.00,1.26
6054.00,1.26
6053.00,1.26
6052.00,1.26
6051.00,1.26
6050.00,1.26
6049.00,1.26
6048.00,1.26
6047.00,1.26
6046.00,1.26
6045.00,1.27
6044.00,1.27
6043.00,1.27
6042.00,1.27
6041.00,1.27
6040.00,1.27
6039.00,1.27
6038.00,1.27
6037.00,1.27
6036.00,1.27
6035.00,1.27
6034.00,1.27
6033.00,1.27
6032.00,1.27
6031.00,1.27
6030.00,1.27
6029.00,1.27
6028.00,1.27
6027.00,1.27
6026.00,1.27
6025.00,1.27
6024.00,1.27
6023.00,1.27
6022.00,1.27
6021.00,1.27
6020.00,1.27
6019.00,1.27
6018.00,1.27
6017.00,1.27
6016.00,1.27
6015.00,1.27
6014.00,1.27
6013.00,1.27
6012.00,1.27
6011.00,1.27
6010.00,1.27
6009.00,1.27
6008.00,1.27
6007.00,1.27
6006.00,1.27
6005.00,1.27
6004.00,1.27
6003.00,1.27
6002.00,1.27
6001.00,1.27
6000.00,1.27
5999.00,1.27
5998.00,1.27
5997.00,1.27
5996.00,1.27
5995.00,1.27
5994.00,1.27
5993.00,1.27
5992.00,1.27
5991.00,1.26
5990.00,1.26
5989.00,1.26
5988.00,1.26
5987.00,1.26
5986.00,1.25
5985.00,1.25
5984.00,1.25
5983.00,1.24
5982.00,1.24
5981.00,1.24
5980.00,1.24
5979.00,1.23
5978.00,1.23
5977.00,1.22
5976.00,1.22
5975.00,1.22
5974.00,1.21
5973.00,1.21
5972.00,1.20
5971.00,1.20
5970.00,1.19
5969.00,1.19
5968.00,1.18
5967.00,1.18
5966.00,1.17
5965.00,1.17
5964.00,1.16
5963.00,1.16
5962.00,1.15
5961.00,1.14
5960.00,1.14
5959.00,1.13
5958.00,1.13
5957.00,1.12
5956.00,1.11
5955.00,1.11
5954.00,1.10
5953.00,1.10
5952.00,1.09
5951.00,1.08
5950.00,1.08
5949.00,1.07
5948.00,1.07
5947.00,1.06
5946.00,1.06
5945.00,1.05
5944.00,1.05
5943.00,1.05
5942.00,1.04
5941.00,1.04
5940.00,1.04
5939.00,1.03
5938.00,1.03
5937.00,1.03
5936.00,1.03
5935.00,1.03
5934.00,1.03
5933.00,1.03
5932.00,1.03
5931.00,1.02
5930.00,1.02
5929.00,1.02
5928.00,1.02
5927.00,1.02
5926.00,1.02
5925.00,1.02
5924.00,1.02
5923.00,1.02
5922.00,1.01
5921.00,1.01
5920.00,1.01
5919.00,1.01
5918.00,1.01
5917.00,1.00
5916.00,1.00
5915.00,1.00
5914.00,1.00
5913.00,1.00
5912.00,0.99
5911.00,0.99
5910.00,0.99
5909.00,0.99
5908.00,0.98
5907.00,0.98
5906.00,0.98
5905.00,0.98
5904.00,0.98
5903.00,0.98
5902.00,0.98
5901.00,0.98
5900.00,0.98
5899.00,0.98
5898.00,0.98
5897.00,0.98
5896.00,0.98
5895.00,0.98
5894.00,0.98
5893.00,0.98
5892.00,0.99
5891.00,0.99
5890.00,0.99
5889.00,0.99
5888.00,0.99
5887.00,0.99
5886.00,1.00
5885.00,1.00
5884.00,1.00
5883.00,1.00
5882.00,1.01
5881.00,1.01
5880.00,1.01
5879.00,1.01
5878.00,1.02
5877.00,1.02
5876.00,1.02
5875.00,1.02
5874.00,1.03
5873.00,1.03
5872.00,1.03
5871.00,1.03
5870.00,1.03
5869.00,1.04
5868.00,1.04
5867.00,1.04
5866.00,1.04
5865.00,1.05
5864.00,1.05
5863.00,1.05
5862.00,1.05
5861.00,1.05
5860.00,1.05
5859.00,1.06
5858.00,1.06
5857.00,1.06
5856.00,1.06
5855.00,1.06
5854.00,1.06
5853.00,1.06
5852.00,1.07
5851.00,1.07
5850.00,1.07
5849.00,1.07
5848.00,1.07
5847.00,1.07
5846.00,1.07
5845.00,1.07
5844.00,1.07
5843.00,1.07
5842.00,1.07
5841.00,1.07
5840.00,1.07
5839.00,1.07
5838.00,1.07
5837.00,1.06
5836.00,1.06
5835.00,1.06
5834.00,1.06
5833.00,1.06
5832.00,1.06
5831.00,1.06
5830.00,1.06
5829.00,1.06
5828.00,1.06
5827.00,1.06
5826.00,1.06
5825.00,1.07
5824.00,1.07
5823.00,1.07
5822.00,1.07
5821.00,1.07
5820.00,1.07
5819.00,1.07
5818.00,1.07
5817.00,1.07
5816.00,1.07
5815.00,1.07
5814.00,1.07
5813.00,1.07
5812.00,1.07
5811.00,1.07
5810.00,1.07
5809.00,1.07
5808.00,1.07
5807.00,1.07
5806.00,1.07
5805.00,1.07
5804.00,1.07
5803.00,1.07
5802.00,1.07
5801.00,1.06
5800.00,1.06
5799.00,1.06
5798.00,1.06
5797.00,1.06
5796.00,1.06
5795.00,1.06
5794.00,1.05
5793.00,1.05
5792.00,1.05
5791.00,1.05
5790.00,1.05
5789.00,1.04
5788.00,1.04
5787.00,1.04
5786.00,1.04
5785.00,1.04
5784.00,1.03
5783.00,1.03
5782.00,1.03
5781.00,1.03
5780.00,1.03
5779.00,1.02
5778.00,1.02
5777.00,1.02
5776.00,1.02
5775.00,1.02
5774.00,1.02
5773.00,1.02
5772.00,1.02
5771.00,1.02
5770.00,1.02
5769.00,1.02
5768.00,1.02
5767.00,1.03
5766.00,1.03
5765.00,1.03
5764.00,1.03
5763.00,1.03
5762.00,1.03
5761.00,1.04
5760.00,1.04
5759.00,1.04
5758.00,1.04
5757.00,1.05
5756.00,1.05
5755.00,1.05
5754.00,1.06
5753.00,1.06
5752.00,1.06
5751.00,1.07
5750.00,1.07
5749.00,1.07
5748.00,1.07
5747.00,1.08
5746.00,1.08
5745.00,1.08
5744.00,1.09
5743.00,1.09
5742.00,1.09
5741.00,1.10
5740.00,1.10
5739.00,1.10
5738.00,1.10
5737.00,1.11
5736.00,1.11
5735.00,1.11
5734.00,1.11
5733.00,1.11
5732.00,1.12
5731.00,1.12
5730.00,1.12
5729.00,1.12
5728.00,1.12
5727.00,1.12
5726.00,1.13
5725.00,1.13
5724.00,1.13
5723.00,1.13
5722.00,1.13
5721.00,1.13
5720.00,1.13
5719.00,1.13
5718.00,1.13
5717.00,1.13
5716.00,1.13
5715.00,1.13
5714.00,1.13
5713.00,1.13
5712.00,1.13
5711.00,1.13
5710.00,1.13
5709.00,1.13
5708.00,1.13
5707.00,1.13
5706.00,1.13
5705.00,1.13
5704.00,1.13
5703.00,1.13
5702.00,1.13
5701.00,1.13
5700.00,1.12
5699.00,1.12
5698.00,1.12
5697.00,1.12
5696.00,1.12
5695.00,1.12
5694.00,1.12
5693.00,1.12
5692.00,1.12
5691.00,1.12
5690.00,1.11
5689.00,1.11
5688.00,1.11
5687.00,1.11
5686.00,1.11
5685.00,1.11
5684.00,1.11
5683.00,1.11
5682.00,1.11
5681.00,1.10
5680.00,1.10
5679.00,1.10
5678.00,1.10
5677.00,1.10
5676.00,1.10
5675.00,1.10
5674.00,1.10
5673.00,1.10
5672.00,1.10
5671.00,1.10
5670.00,1.10
5669.00,1.10
5668.00,1.10
5667.00,1.10
5666.00,1.10
5665.00,1.10
5664.00,1.11
5663.00,1.11
5662.00,1.11
5661.00,1.11
5660.00,1.11
5659.00,1.11
5658.00,1.12
5657.00,1.12
5656.00,1.12
5655.00,1.12
5654.00,1.12
5653.00,1.13
5652.00,1.13
5651.00,1.13
5650.00,1.13
5649.00,1.13
5648.00,1.14
5647.00,1.14
5646.00,1.14
5645.00,1.14
5644.00,1.14
5643.00,1.15
5642.00,1.15
5641.00,1.15
5640.00,1.15
5639.00,1.15
5638.00,1.16
5637.00,1.16
5636.00,1.16
5635.00,1.16
5634.00,1.16
5633.00,1.16
5632.00,1.16
5631.00,1.17
5630.00,1.17
5629.00,1.17
5628.00,1.17
5627.00,1.17
5626.00,1.17
5625.00,1.17
5624.00,1.17
5623.00,1.17
5622.00,1.18
5621.00,1.18
5620.00,1.18
5619.00,1.18
5618.00,1.18
5617.00,1.19
5616.00,1.19
5615.00,1.19
5614.00,1.19
5613.00,1.19
5612.00,1.20
5611.00,1.20
5610.00,1.20
5609.00,1.20
5608.00,1.20
5607.00,1.21
5606.00,1.21
5605.00,1.21
5604.00,1.21
5603.00,1.21
5602.00,1.21
5601.00,1.22
5600.00,1.22
5599.00,1.22
5598.00,1.22
5597.00,1.22
5596.00,1.22
5595.00,1.23
5594.00,1.23
5593.00,1.23
5592.00,1.23
5591.00,1.23
5590.00,1.23
5589.00,1.23
5588.00,1.24
5587.00,1.24
5586.00,1.24
5585.00,1.24
5584.00,1.24
5583.00,1.24
5582.00,1.24
5581.00,1.24
5580.00,1.24
5579.00,1.24
5578.00,1.24
5577.00,1.24
5576.00,1.25
5575.00,1.25
5574.00,1.25
5573.00,1.25
5572.00,1.25
5571.00,1.25
5570.00,1.25
5569.00,1.25
5568.00,1.25
5567.00,1.26
5566.00,1.26
5565.00,1.26
5564.00,1.26
5563.00,1.26
5562.00,1.26
5561.00,1.26
5560.00,1.26
5559.00,1.26
5558.00,1.27
5557.00,1.27
5556.00,1.27
5555.00,1.27
5554.00,1.27
5553.00,1.27
5552.00,1.27
5551.00,1.27
5550.00,1.27
5549.00,1.28
5548.00,1.28
5547.00,1.28
5546.00,1.28
5545.00,1.28
5544.00,1.28
5543.00,1.28
5542.00,1.28
5541.00,1.28
5540.00,1.29
5539.00,1.29
5538.00,1.29
5537.00,1.29
5536.00,1.29
5535.00,1.29
5534.00,1.29
5533.00,1.29
5532.00,1.29
5531.00,1.29
5530.00,1.29
5529.00,1.29
5528.00,1.29
5527.00,1.29
5526.00,1.29
5525.00,1.30
5524.00,1.30
5523.00,1.30
5522.00,1.30
5521.00,1.30
5520.00,1.30
5519.00,1.30
5518.00,1.30
5517.00,1.30
5516.00,1.30
5515.00,1.30
5514.00,1.30
5513.00,1.30
5512.00,1.30
5511.00,1.30
5510.00,1.30
5509.00,1.30
5508.00,1.30
5507.00,1.30
5506.00,1.30
5505.00,1.30
5504.00,1.30
5503.00,1.30
5502.00,1.30
5501.00,1.30
5500.00,1.30
5499.00,1.30
5498.00,1.30
5497.00,1.31
5496.00,1.31
5495.00,1.31
5494.00,1.31
5493.00,1.31
5492.00,1.31
5491.00,1.31
5490.00,1.31
5489.00,1.31
5488.00,1.31
5487.00,1.31
5486.00,1.31
5485.00,1.32
5484.00,1.32
5483.00,1.32
5482.00,1.32
5481.00,1.32
5480.00,1.32
5479.00,1.32
5478.00,1.32
5477.00,1.32
5476.00,1.32
5475.00,1.33
5474.00,1.33
5473.00,1.33
5472.00,1.33
5471.00,1.33
5470.00,1.33
5469.00,1.33
5468.00,1.33
5467.00,1.33
5466.00,1.34
5465.00,1.34
5464.00,1.34
5463.00,1.34
5462.00,1.34
5461.00,1.34
5460.00,1.34
5459.00,1.34
5458.00,1.34
5457.00,1.34
5456.00,1.35
5455.00,1.35
5454.00,1.35
5453.00,1.35
5452.00,1.35
5451.00,1.35
5450.00,1.35
5449.00,1.35
5448.00,1.35
5447.00,1.35
5446.00,1.35
5445.00,1.35
5444.00,1.35
5443.00,1.35
5442.00,1.35
5441.00,1.35
5440.00,1.35
5439.00,1.35
5438.00,1.35
5437.00,1.35
5436.00,1.35
5435.00,1.35
5434.00,1.35
5433.00,1.35
5432.00,1.35
5431.00,1.35
5430.00,1.36
5429.00,1.36
5428.00,1.36
5427.00,1.36
5426.00,1.36
5425.00,1.36
5424.00,1.36
5423.00,1.36
5422.00,1.36
5421.00,1.36
5420.00,1.36
5419.00,1.36
5418.00,1.36
5417.00,1.36
5416.00,1.36
5415.00,1.36
5414.00,1.36
5413.00,1.36
5412.00,1.36
5411.00,1.36
5410.00,1.36
5409.00,1.36
5408.00,1.36
5407.00,1.36
5406.00,1.36
5405.00,1.36
5404.00,1.36
5403.00,1.36
5402.00,1.36
5401.00,1.36
5400.00,1.36
5399.00,1.36
5398.00,1.36
5397.00,1.36
5396.00,1.36
5395.00,1.36
5394.00,1.36
5393.00,1.36
5392.00,1.36
5391.00,1.36
5390.00,1.36
5389.00,1.36
5388.00,1.36
5387.00,1.36
5386.00,1.36
5385.00,1.35
5384.00,1.35
5383.00,1.35
5382.00,1.35
5381.00,1.35
5380.00,1.35
5379.00,1.35
5378.00,1.34
5377.00,1.34
5376.00,1.34
5375.00,1.34
5374.00,1.33
5373.00,1.33
5372.00,1.33
5371.00,1.33
5370.00,1.32
5369.00,1.32
5368.00,1.32
5367.00,1.31
5366.00,1.31
5365.00,1.31
5364.00,1.30
5363.00,1.30
5362.00,1.30
5361.00,1.29
5360.00,1.29
5359.00,1.28
5358.00,1.28
5357.00,1.27
5356.00,1.27
5355.00,1.26
5354.00,1.26
5353.00,1.25
5352.00,1.25
5351.00,1.24
5350.00,1.23
5349.00,1.23
5348.00,1.22
5347.00,1.21
5346.00,1.21
5345.00,1.20
5344.00,1.19
5343.00,1.18
5342.00,1.17
5341.00,1.17
5340.00,1.16
5339.00,1.15
5338.00,1.14
5337.00,1.13
5336.00,1.12
5335.00,1.12
5334.00,1.11
5333.00,1.10
5332.00,1.09
5331.00,1.08
5330.00,1.07
5329.00,1.06
5328.00,1.05
5327.00,1.04
5326.00,1.03
5325.00,1.02
5324.00,1.00
5323.00,0.99
5322.00,0.98
5321.00,0.97
5320.00,0.96
5319.00,0.95
5318.00,0.94
5317.00,0.93
5316.00,0.92
5315.00,0.91
5314.00,0.90
5313.00,0.89
5312.00,0.88
5311.00,0.87
5310.00,0.86
5309.00,0.85
5308.00,0.84
5307.00,0.83
5306.00,0.82
5305.00,0.81
5304.00,0.80
5303.00,0.80
5302.00,0.79
5301.00,0.78
5300.00,0.77
5299.00,0.77
5298.00,0.76
5297.00,0.75
5296.00,0.75
5295.00,0.74
5294.00,0.74
5293.00,0.73
5292.00,0.73
5291.00,0.72
5290.00,0.72
5289.00,0.71
5288.00,0.71
5287.00,0.70
5286.00,0.70
5285.00,0.69
5284.00,0.69
5283.00,0.69
5282.00,0.68
5281.00,0.68
5280.00,0.68
5279.00,0.68
5278.00,0.67
5277.00,0.67
5276.00,0.67
5275.00,0.67
5274.00,0.66
5273.00,0.66
5272.00,0.66
5271.00,0.66
5270.00,0.65
5269.00,0.65
5268.00,0.65
5267.00,0.65
5266.00,0.65
5265.00,0.65
5264.00,0.64
5263.00,0.64
5262.00,0.64
5261.00,0.64
5260.00,0.64
5259.00,0.64
5258.00,0.64
5257.00,0.64
5256.00,0.64
5255.00,0.63
5254.00,0.63
5253.00,0.63
5252.00,0.63
5251.00,0.63
5250.00,0.63
5249.00,0.63
5248.00,0.63
5247.00,0.63
5246.00,0.63
5245.00,0.63
5244.00,0.63
5243.00,0.63
5242.00,0.63
5241.00,0.63
5240.00,0.63
5239.00,0.63
5238.00,0.63
5237.00,0.63
5236.00,0.63
5235.00,0.63
5234.00,0.63
5233.00,0.63
5232.00,0.63
5231.00,0.63
5230.00,0.63
5229.00,0.63
5228.00,0.63
5227.00,0.63
5226.00,0.63
5225.00,0.62
5224.00,0.62
5223.00,0.62
5222.00,0.62
5221.00,0.62
5220.00,0.62
5219.00,0.62
5218.00,0.62
5217.00,0.62
5216.00,0.62
5215.00,0.62
5214.00,0.62
5213.00,0.62
5212.00,0.62
5211.00,0.62
5210.00,0.62
5209.00,0.62
5208.00,0.62
5207.00,0.62
5206.00,0.62
5205.00,0.62
5204.00,0.62
5203.00,0.62
5202.00,0.62
5201.00,0.62
5200.00,0.62
5199.00,0.62
5198.00,0.62
5197.00,0.62
5196.00,0.62
5195.00,0.62
5194.00,0.62
5193.00,0.62
5192.00,0.62
5191.00,0.62
5190.00,0.62
5189.00,0.62
5188.00,0.62
5187.00,0.62
5186.00,0.62
5185.00,0.62
5184.00,0.62
5183.00,0.62
5182.00,0.62
5181.00,0.62
5180.00,0.62
5179.00,0.62
5178.00,0.62
5177.00,0.62
5176.00,0.62
5175.00,0.62
5174.00,0.62
5173.00,0.62
5172.00,0.62
5171.00,0.63
5170.00,0.63
5169.00,0.63
5168.00,0.63
5167.00,0.63
5166.00,0.63
5165.00,0.63
5164.00,0.63
5163.00,0.63
5162.00,0.63
5161.00,0.63
5160.00,0.63
5159.00,0.63
5158.00,0.64
5157.00,0.64
5156.00,0.64
5155.00,0.64
5154.00,0.64
5153.00,0.64
5152.00,0.64
5151.00,0.64
5150.00,0.64
5149.00,0.64
5148.00,0.64
5147.00,0.64
5146.00,0.64
5145.00,0.64
5144.00,0.64
5143.00,0.65
5142.00,0.65
5141.00,0.65
5140.00,0.65
5139.00,0.65
5138.00,0.65
5137.00,0.65
5136.00,0.65
5135.00,0.65
5134.00,0.65
5133.00,0.65
5132.00,0.65
5131.00,0.65
5130.00,0.65
5129.00,0.65
5128.00,0.66
5127.00,0.66
5126.00,0.66
5125.00,0.66
5124.00,0.66
5123.00,0.66
5122.00,0.66
5121.00,0.66
5120.00,0.66
5119.00,0.66
5118.00,0.66
5117.00,0.66
5116.00,0.66
5115.00,0.66
5114.00,0.66
5113.00,0.66
5112.00,0.66
5111.00,0.67
5110.00,0.67
5109.00,0.67
5108.00,0.67
5107.00,0.67
5106.00,0.67
5105.00,0.67
5104.00,0.67
5103.00,0.67
5102.00,0.67
5101.00,0.68
5100.00,0.68
5099.00,0.68
5098.00,0.68
5097.00,0.68
5096.00,0.68
5095.00,0.68
5094.00,0.68
5093.00,0.68
5092.00,0.69
5091.00,0.69
5090.00,0.69
5089.00,0.69
5088.00,0.69
5087.00,0.69
5086.00,0.69
5085.00,0.69
5084.00,0.69
5083.00,0.69
5082.00,0.69
5081.00,0.69
5080.00,0.69
5079.00,0.69
5078.00,0.69
5077.00,0.69
5076.00,0.69
5075.00,0.69
5074.00,0.70
5073.00,0.70
5072.00,0.70
5071.00,0.70
5070.00,0.70
5069.00,0.70
5068.00,0.70
5067.00,0.70
5066.00,0.70
5065.00,0.71
5064.00,0.71
5063.00,0.71
5062.00,0.71
5061.00,0.71
5060.00,0.71
5059.00,0.71
5058.00,0.71
5057.00,0.71
5056.00,0.71
5055.00,0.71
5054.00,0.72
5053.00,0.72
5052.00,0.72
5051.00,0.72
5050.00,0.72
5049.00,0.72
5048.00,0.72
5047.00,0.72
5046.00,0.72
5045.00,0.72
5044.00,0.73
5043.00,0.73
5042.00,0.73
5041.00,0.73
5040.00,0.73
5039.00,0.73
5038.00,0.73
5037.00,0.73
5036.00,0.74
5035.00,0.74
5034.00,0.74
5033.00,0.74
5032.00,0.74
5031.00,0.74
5030.00,0.74
5029.00,0.75
5028.00,0.75
5027.00,0.75
5026.00,0.75
5025.00,0.75
5024.00,0.75
5023.00,0.75
5022.00,0.76
5021.00,0.76
5020.00,0.76
5019.00,0.76
5018.00,0.76
5017.00,0.76
5016.00,0.77
5015.00,0.77
5014.00,0.77
5013.00,0.77
5012.00,0.77
5011.00,0.77
5010.00,0.77
5009.00,0.78
5008.00,0.78
5007.00,0.78
5006.00,0.78
5005.00,0.78
5004.00,0.78
5003.00,0.78
5002.00,0.78
5001.00,0.78
5000.00,0.78
4999.00,0.78
4998.00,0.78
4997.00,0.78
4996.00,0.78
4995.00,0.79
4994.00,0.79
4993.00,0.79
4992.00,0.79
4991.00,0.79
4990.00,0.79
4989.00,0.80
4988.00,0.80
4987.00,0.80
4986.00,0.80
4985.00,0.80
4984.00,0.81
4983.00,0.81
4982.00,0.81
4981.00,0.81
4980.00,0.81
4979.00,0.81
4978.00,0.82
4977.00,0.82
4976.00,0.82
4975.00,0.82
4974.00,0.82
4973.00,0.82
4972.00,0.82
4971.00,0.82
4970.00,0.82
4969.00,0.82
4968.00,0.83
4967.00,0.83
4966.00,0.83
4965.00,0.83
4964.00,0.83
4963.00,0.83
4962.00,0.83
4961.00,0.83
4960.00,0.83
4959.00,0.83
4958.00,0.83
4957.00,0.83
4956.00,0.83
4955.00,0.83
4954.00,0.83
4953.00,0.83
4952.00,0.84
4951.00,0.84
4950.00,0.84
4949.00,0.84
4948.00,0.84
4947.00,0.84
4946.00,0.84
4945.00,0.84
4944.00,0.84
4943.00,0.84
4942.00,0.84
4941.00,0.85
4940.00,0.85
4939.00,0.85
4938.00,0.85
4937.00,0.85
4936.00,0.85
4935.00,0.85
4934.00,0.85
4933.00,0.85
4932.00,0.86
4931.00,0.86
4930.00,0.86
4929.00,0.86
4928.00,0.86
4927.00,0.86
4926.00,0.86
4925.00,0.86
4924.00,0.86
4923.00,0.86
4922.00,0.86
4921.00,0.87
4920.00,0.87
4919.00,0.87
4918.00,0.87
4917.00,0.87
4916.00,0.87
4915.00,0.87
4914.00,0.87
4913.00,0.87
4912.00,0.87
4911.00,0.87
4910.00,0.87
4909.00,0.87
4908.00,0.87
4907.00,0.87
4906.00,0.87
4905.00,0.87
4904.00,0.87
4903.00,0.87
4902.00,0.88
4901.00,0.88
4900.00,0.88
4899.00,0.88
4898.00,0.88
4897.00,0.88
4896.00,0.88
4895.00,0.88
4894.00,0.88
4893.00,0.88
4892.00,0.88
4891.00,0.88
4890.00,0.88
4889.00,0.88
4888.00,0.88
4887.00,0.88
4886.00,0.88
4885.00,0.88
4884.00,0.88
4883.00,0.88
4882.00,0.88
4881.00,0.88
4880.00,0.89
4879.00,0.89
4878.00,0.89
4877.00,0.89
4876.00,0.89
4875.00,0.89
4874.00,0.89
4873.00,0.89
4872.00,0.89
4871.00,0.89
4870.00,0.89
4869.00,0.90
4868.00,0.90
4867.00,0.90
4866.00,0.90
4865.00,0.90
4864.00,0.90
4863.00,0.90
4862.00,0.90
4861.00,0.90
4860.00,0.90
4859.00,0.90
4858.00,0.90
4857.00,0.90
4856.00,0.90
4855.00,0.90
4854.00,0.90
4853.00,0.90
4852.00,0.91
4851.00,0.91
4850.00,0.91
4849.00,0.91
4848.00,0.91
4847.00,0.91
4846.00,0.91
4845.00,0.91
4844.00,0.91
4843.00,0.91
4842.00,0.91
4841.00,0.91
4840.00,0.91
4839.00,0.91
4838.00,0.91
4837.00,0.91
4836.00,0.91
4835.00,0.91
4834.00,0.91
4833.00,0.91
4832.00,0.92
4831.00,0.92
4830.00,0.92
4829.00,0.92
4828.00,0.92
4827.00,0.92
4826.00,0.92
4825.00,0.92
4824.00,0.92
4823.00,0.92
4822.00,0.92
4821.00,0.92
4820.00,0.93
4819.00,0.93
4818.00,0.93
4817.00,0.93
4816.00,0.93
4815.00,0.93
4814.00,0.93
4813.00,0.93
4812.00,0.93
4811.00,0.93
4810.00,0.94
4809.00,0.94
4808.00,0.94
4807.00,0.94
4806.00,0.94
4805.00,0.94
4804.00,0.94
4803.00,0.94
4802.00,0.95
4801.00,0.95
4800.00,0.95
4799.00,0.95
4798.00,0.95
4797.00,0.95
4796.00,0.95
4795.00,0.96
4794.00,0.96
4793.00,0.96
4792.00,0.96
4791.00,0.96
4790.00,0.96
4789.00,0.96
4788.00,0.96
4787.00,0.96
4786.00,0.96
4785.00,0.97
4784.00,0.97
4783.00,0.97
4782.00,0.97
4781.00,0.97
4780.00,0.97
4779.00,0.97
4778.00,0.98
4777.00,0.98
4776.00,0.98
4775.00,0.98
4774.00,0.98
4773.00,0.98
4772.00,0.98
4771.00,0.99
4770.00,0.99
4769.00,0.99
4768.00,0.99
4767.00,0.99
4766.00,1.00
4765.00,1.00
4764.00,1.00
4763.00,1.00
4762.00,1.00
4761.00,1.01
4760.00,1.01
4759.00,1.01
4758.00,1.01
4757.00,1.02
4756.00,1.02
4755.00,1.02
4754.00,1.02
4753.00,1.02
4752.00,1.03
4751.00,1.03
4750.00,1.03
4749.00,1.03
4748.00,1.03
4747.00,1.04
4746.00,1.04
4745.00,1.04
4744.00,1.04
4743.00,1.04
4742.00,1.04
4741.00,1.05
4740.00,1.05
4739.00,1.05
4738.00,1.05
4737.00,1.05
4736.00,1.05
4735.00,1.05
4734.00,1.05
4733.00,1.05
4732.00,1.06
4731.00,1.06
4730.00,1.06
4729.00,1.06
4728.00,1.06
4727.00,1.06
4726.00,1.06
4725.00,1.07
4724.00,1.07
4723.00,1.07
4722.00,1.07
4721.00,1.07
4720.00,1.08
4719.00,1.08
4718.00,1.08
4717.00,1.08
4716.00,1.09
4715.00,1.09
4714.00,1.09
4713.00,1.10
4712.00,1.10
4711.00,1.10
4710.00,1.10
4709.00,1.11
4708.00,1.11
4707.00,1.11
4706.00,1.11
4705.00,1.12
4704.00,1.12
4703.00,1.12
4702.00,1.12
4701.00,1.12
4700.00,1.13
4699.00,1.13
4698.00,1.13
4697.00,1.13
4696.00,1.13
4695.00,1.14
4694.00,1.14
4693.00,1.14
4692.00,1.14
4691.00,1.14
4690.00,1.14
4689.00,1.14
4688.00,1.14
4687.00,1.15
4686.00,1.15
4685.00,1.15
4684.00,1.15
4683.00,1.15
4682.00,1.15
4681.00,1.16
4680.00,1.16
4679.00,1.16
4678.00,1.16
4677.00,1.16
4676.00,1.17
4675.00,1.17
4674.00,1.17
4673.00,1.17
4672.00,1.18
4671.00,1.18
4670.00,1.18
4669.00,1.18
4668.00,1.18
4667.00,1.19
4666.00,1.19
4665.00,1.19
4664.00,1.19
4663.00,1.19
4662.00,1.19
4661.00,1.20
4660.00,1.20
4659.00,1.20
4658.00,1.20
4657.00,1.20
4656.00,1.20
4655.00,1.21
4654.00,1.21
4653.00,1.21
4652.00,1.21
4651.00,1.21
4650.00,1.21
4649.00,1.22
4648.00,1.22
4647.00,1.22
4646.00,1.22
4645.00,1.22
4644.00,1.23
4643.00,1.23
4642.00,1.23
4641.00,1.23
4640.00,1.23
4639.00,1.24
4638.00,1.24
4637.00,1.24
4636.00,1.24
4635.00,1.24
4634.00,1.25
4633.00,1.25
4632.00,1.25
4631.00,1.25
4630.00,1.25
4629.00,1.26
4628.00,1.26
4627.00,1.26
4626.00,1.26
4625.00,1.26
4624.00,1.26
4623.00,1.26
4622.00,1.26
4621.00,1.26
4620.00,1.26
4619.00,1.26
4618.00,1.26
4617.00,1.26
4616.00,1.26
4615.00,1.26
4614.00,1.26
4613.00,1.26
4612.00,1.27
4611.00,1.27
4610.00,1.27
4609.00,1.27
4608.00,1.27
4607.00,1.27
4606.00,1.27
4605.00,1.27
4604.00,1.27
4603.00,1.28
4602.00,1.28
4601.00,1.28
4600.00,1.28
4599.00,1.28
4598.00,1.28
4597.00,1.28
4596.00,1.29
4595.00,1.29
4594.00,1.29
4593.00,1.29
4592.00,1.29
4591.00,1.29
4590.00,1.29
4589.00,1.29
4588.00,1.29
4587.00,1.29
4586.00,1.30
4585.00,1.30
4584.00,1.30
4583.00,1.30
4582.00,1.30
4581.00,1.31
4580.00,1.31
4579.00,1.31
4578.00,1.31
4577.00,1.32
4576.00,1.32
4575.00,1.32
4574.00,1.32
4573.00,1.33
4572.00,1.33
4571.00,1.33
4570.00,1.33
4569.00,1.33
4568.00,1.33
4567.00,1.33
4566.00,1.33
4565.00,1.33
4564.00,1.33
4563.00,1.33
4562.00,1.33
4561.00,1.33
4560.00,1.33
4559.00,1.33
4558.00,1.33
4557.00,1.33
4556.00,1.33
4555.00,1.33
4554.00,1.34
4553.00,1.34
4552.00,1.34
4551.00,1.34
4550.00,1.34
4549.00,1.34
4548.00,1.34
4547.00,1.34
4546.00,1.34
4545.00,1.34
4544.00,1.34
4543.00,1.35
4542.00,1.35
4541.00,1.35
4540.00,1.35
4539.00,1.35
4538.00,1.35
4537.00,1.35
4536.00,1.35
4535.00,1.35
4534.00,1.35
4533.00,1.35
4532.00,1.35
4531.00,1.35
4530.00,1.35
4529.00,1.35
4528.00,1.35
4527.00,1.36
4526.00,1.36
4525.00,1.36
4524.00,1.36
4523.00,1.36
4522.00,1.36
4521.00,1.36
4520.00,1.36
4519.00,1.36
4518.00,1.36
4517.00,1.36
4516.00,1.36
4515.00,1.36
4514.00,1.36
4513.00,1.36
4512.00,1.36
4511.00,1.36
4510.00,1.36
4509.00,1.36
4508.00,1.36
4507.00,1.36
4506.00,1.36
4505.00,1.36
4504.00,1.36
4503.00,1.36
4502.00,1.36
4501.00,1.36
4500.00,1.36
4499.00,1.36
4498.00,1.36
4497.00,1.36
4496.00,1.36
4495.00,1.36
4494.00,1.36
4493.00,1.36
4492.00,1.36
4491.00,1.35
4490.00,1.35
4489.00,1.35
4488.00,1.35
4487.00,1.35
4486.00,1.35
4485.00,1.34
4484.00,1.34
4483.00,1.34
4482.00,1.34
4481.00,1.33
4480.00,1.33
4479.00,1.33
4478.00,1.32
4477.00,1.32
4476.00,1.31
4475.00,1.31
4474.00,1.31
4473.00,1.30
4472.00,1.30
4471.00,1.29
4470.00,1.29
4469.00,1.29
4468.00,1.28
4467.00,1.28
4466.00,1.28
4465.00,1.27
4464.00,1.27
4463.00,1.27
4462.00,1.26
4461.00,1.26
4460.00,1.26
4459.00,1.25
4458.00,1.25
4457.00,1.24
4456.00,1.24
4455.00,1.24
4454.00,1.23
4453.00,1.23
4452.00,1.22
4451.00,1.22
4450.00,1.21
4449.00,1.21
4448.00,1.20
4447.00,1.19
4446.00,1.19
4445.00,1.18
4444.00,1.17
4443.00,1.17
4442.00,1.16
4441.00,1.16
4440.00,1.15
4439.00,1.14
4438.00,1.14
4437.00,1.13
4436.00,1.12
4435.00,1.12
4434.00,1.11
4433.00,1.11
4432.00,1.10
4431.00,1.10
4430.00,1.09
4429.00,1.09
4428.00,1.08
4427.00,1.08
4426.00,1.08
4425.00,1.07
4424.00,1.07
4423.00,1.07
4422.00,1.07
4421.00,1.06
4420.00,1.06
4419.00,1.06
4418.00,1.06
4417.00,1.06
4416.00,1.05
4415.00,1.05
4414.00,1.05
4413.00,1.05
4412.00,1.05
4411.00,1.05
4410.00,1.05
4409.00,1.05
4408.00,1.05
4407.00,1.05
4406.00,1.05
4405.00,1.05
4404.00,1.05
4403.00,1.05
4402.00,1.05
4401.00,1.05
4400.00,1.05
4399.00,1.05
4398.00,1.06
4397.00,1.06
4396.00,1.06
4395.00,1.06
4394.00,1.06
4393.00,1.06
4392.00,1.06
4391.00,1.06
4390.00,1.06
4389.00,1.07
4388.00,1.07
4387.00,1.07
4386.00,1.07
4385.00,1.07
4384.00,1.08
4383.00,1.08
4382.00,1.08
4381.00,1.08
4380.00,1.09
4379.00,1.09
4378.00,1.09
4377.00,1.09
4376.00,1.09
4375.00,1.09
4374.00,1.09
4373.00,1.10
4372.00,1.10
4371.00,1.10
4370.00,1.10
4369.00,1.10
4368.00,1.10
4367.00,1.10
4366.00,1.10
4365.00,1.10
4364.00,1.10
4363.00,1.10
4362.00,1.10
4361.00,1.09
4360.00,1.09
4359.00,1.09
4358.00,1.09
4357.00,1.09
4356.00,1.09
4355.00,1.09
4354.00,1.09
4353.00,1.09
4352.00,1.09
4351.00,1.09
4350.00,1.08
4349.00,1.08
4348.00,1.08
4347.00,1.08
4346.00,1.08
4345.00,1.08
4344.00,1.08
4343.00,1.08
4342.00,1.08
4341.00,1.08
4340.00,1.08
4339.00,1.08
4338.00,1.08
4337.00,1.09
4336.00,1.09
4335.00,1.09
4334.00,1.09
4333.00,1.09
4332.00,1.09
4331.00,1.10
4330.00,1.10
4329.00,1.10
4328.00,1.10
4327.00,1.10
4326.00,1.11
4325.00,1.11
4324.00,1.11
4323.00,1.11
4322.00,1.12
4321.00,1.12
4320.00,1.12
4319.00,1.13
4318.00,1.13
4317.00,1.13
4316.00,1.13
4315.00,1.14
4314.00,1.14
4313.00,1.14
4312.00,1.14
4311.00,1.15
4310.00,1.15
4309.00,1.15
4308.00,1.15
4307.00,1.16
4306.00,1.16
4305.00,1.16
4304.00,1.16
4303.00,1.17
4302.00,1.17
4301.00,1.17
4300.00,1.17
4299.00,1.18
4298.00,1.18
4297.00,1.18
4296.00,1.18
4295.00,1.18
4294.00,1.19
4293.00,1.19
4292.00,1.19
4291.00,1.19
4290.00,1.19
4289.00,1.19
4288.00,1.19
4287.00,1.19
4286.00,1.19
4285.00,1.20
4284.00,1.20
4283.00,1.20
4282.00,1.20
4281.00,1.20
4280.00,1.20
4279.00,1.20
4278.00,1.20
4277.00,1.20
4276.00,1.20
4275.00,1.20
4274.00,1.20
4273.00,1.20
4272.00,1.20
4271.00,1.20
4270.00,1.20
4269.00,1.20
4268.00,1.20
4267.00,1.19
4266.00,1.19
4265.00,1.19
4264.00,1.19
4263.00,1.19
4262.00,1.19
4261.00,1.19
4260.00,1.19
4259.00,1.19
4258.00,1.19
4257.00,1.19
4256.00,1.19
4255.00,1.19
4254.00,1.19
4253.00,1.19
4252.00,1.19
4251.00,1.20
4250.00,1.20
4249.00,1.20
4248.00,1.20
4247.00,1.20
4246.00,1.21
4245.00,1.21
4244.00,1.21
4243.00,1.21
4242.00,1.21
4241.00,1.22
4240.00,1.22
4239.00,1.22
4238.00,1.22
4237.00,1.22
4236.00,1.22
4235.00,1.22
4234.00,1.22
4233.00,1.23
4232.00,1.23
4231.00,1.23
4230.00,1.23
4229.00,1.23
4228.00,1.23
4227.00,1.23
4226.00,1.23
4225.00,1.23
4224.00,1.23
4223.00,1.23
4222.00,1.24
4221.00,1.24
4220.00,1.24
4219.00,1.24
4218.00,1.24
4217.00,1.24
4216.00,1.24
4215.00,1.24
4214.00,1.24
4213.00,1.24
4212.00,1.24
4211.00,1.25
4210.00,1.25
4209.00,1.25
4208.00,1.25
4207.00,1.25
4206.00,1.25
4205.00,1.25
4204.00,1.25
4203.00,1.25
4202.00,1.25
4201.00,1.26
4200.00,1.26
4199.00,1.26
4198.00,1.26
4197.00,1.26
4196.00,1.26
4195.00,1.27
4194.00,1.27
4193.00,1.27
4192.00,1.27
4191.00,1.27
4190.00,1.27
4189.00,1.27
4188.00,1.27
4187.00,1.27
4186.00,1.27
4185.00,1.27
4184.00,1.27
4183.00,1.27
4182.00,1.27
4181.00,1.27
4180.00,1.28
4179.00,1.28
4178.00,1.28
4177.00,1.28
4176.00,1.28
4175.00,1.28
4174.00,1.28
4173.00,1.28
4172.00,1.28
4171.00,1.28
4170.00,1.28
4169.00,1.28
4168.00,1.28
4167.00,1.28
4166.00,1.28
4165.00,1.28
4164.00,1.28
4163.00,1.28
4162.00,1.28
4161.00,1.28
4160.00,1.28
4159.00,1.27
4158.00,1.27
4157.00,1.27
4156.00,1.27
4155.00,1.27
4154.00,1.26
4153.00,1.26
4152.00,1.26
4151.00,1.26
4150.00,1.26
4149.00,1.26
4148.00,1.26
4147.00,1.26
4146.00,1.26
4145.00,1.26
4144.00,1.26
4143.00,1.26
4142.00,1.26
4141.00,1.26
4140.00,1.26
4139.00,1.27
4138.00,1.27
4137.00,1.27
4136.00,1.27
4135.00,1.27
4134.00,1.27
4133.00,1.27
4132.00,1.28
4131.00,1.28
4130.00,1.28
4129.00,1.28
4128.00,1.28
4127.00,1.28
4126.00,1.28
4125.00,1.28
4124.00,1.29
4123.00,1.29
4122.00,1.29
4121.00,1.29
4120.00,1.29
4119.00,1.29
4118.00,1.30
4117.00,1.30
4116.00,1.30
4115.00,1.30
4114.00,1.30
4113.00,1.30
4112.00,1.30
4111.00,1.30
4110.00,1.30
4109.00,1.30
4108.00,1.30
4107.00,1.30
4106.00,1.30
4105.00,1.30
4104.00,1.30
4103.00,1.30
4102.00,1.30
4101.00,1.30
4100.00,1.30
4099.00,1.30
4098.00,1.30
4097.00,1.30
4096.00,1.30
4095.00,1.30
4094.00,1.30
4093.00,1.30
4092.00,1.30
4091.00,1.30
4090.00,1.30
4089.00,1.30
4088.00,1.30
4087.00,1.30
4086.00,1.30
4085.00,1.30
4084.00,1.30
4083.00,1.30
4082.00,1.30
4081.00,1.30
4080.00,1.30
4079.00,1.30
4078.00,1.29
4077.00,1.29
4076.00,1.29
4075.00,1.29
4074.00,1.29
4073.00,1.29
4072.00,1.29
4071.00,1.29
4070.00,1.29
4069.00,1.29
4068.00,1.29
4067.00,1.29
4066.00,1.29
4065.00,1.29
4064.00,1.29
4063.00,1.30
4062.00,1.30
4061.00,1.30
4060.00,1.30
4059.00,1.30
4058.00,1.30
4057.00,1.30
4056.00,1.31
4055.00,1.31
4054.00,1.31
4053.00,1.31
4052.00,1.31
4051.00,1.31
4050.00,1.31
4049.00,1.31
4048.00,1.31
4047.00,1.31
4046.00,1.31
4045.00,1.31
4044.00,1.31
4043.00,1.31
4042.00,1.31
4041.00,1.31
4040.00,1.31
4039.00,1.31
4038.00,1.31
4037.00,1.31
4036.00,1.32
4035.00,1.32
4034.00,1.32
4033.00,1.32
4032.00,1.32
4031.00,1.32
4030.00,1.32
4029.00,1.32
4028.00,1.32
4027.00,1.32
4026.00,1.32
4025.00,1.32
4024.00,1.33
4023.00,1.33
4022.00,1.33
4021.00,1.33
4020.00,1.33
4019.00,1.33
4018.00,1.33
4017.00,1.34
4016.00,1.34
4015.00,1.34
4014.00,1.34
4013.00,1.34
4012.00,1.35
4011.00,1.35
4010.00,1.35
4009.00,1.35
4008.00,1.35
4007.00,1.35
4006.00,1.36
4005.00,1.36
4004.00,1.36
4003.00,1.36
4002.00,1.36
4001.00,1.36
4000.00,1.36
