创建为新数据集,样品 102 用户 Administrator 日期 星期日, 十一月 05 2017
cm-1,%T
10000.00,1.38
9999.00,1.38
9998.00,1.38
9997.00,1.38
9996.00,1.37
9995.00,1.37
9994.00,1.37
9993.00,1.37
9992.00,1.37
9991.00,1.37
9990.00,1.37
9989.00,1.37
9988.00,1.37
9987.00,1.37
9986.00,1.37
9985.00,1.38
9984.00,1.38
9983.00,1.38
9982.00,1.38
9981.00,1.38
9980.00,1.38
9979.00,1.38
9978.00,1.38
9977.00,1.38
9976.00,1.38
9975.00,1.38
9974.00,1.38
9973.00,1.38
9972.00,1.38
9971.00,1.37
9970.00,1.37
9969.00,1.37
9968.00,1.37
9967.00,1.36
9966.00,1.36
9965.00,1.35
9964.00,1.35
9963.00,1.35
9962.00,1.34
9961.00,1.34
9960.00,1.33
9959.00,1.33
9958.00,1.33
9957.00,1.32
9956.00,1.32
9955.00,1.32
9954.00,1.32
9953.00,1.32
9952.00,1.32
9951.00,1.32
9950.00,1.32
9949.00,1.32
9948.00,1.32
9947.00,1.33
9946.00,1.33
9945.00,1.33
9944.00,1.34
9943.00,1.34
9942.00,1.34
9941.00,1.34
9940.00,1.35
9939.00,1.35
9938.00,1.35
9937.00,1.35
9936.00,1.36
9935.00,1.36
9934.00,1.36
9933.00,1.36
9932.00,1.36
9931.00,1.37
9930.00,1.37
9929.00,1.37
9928.00,1.37
9927.00,1.37
9926.00,1.37
9925.00,1.37
9924.00,1.37
9923.00,1.37
9922.00,1.37
9921.00,1.37
9920.00,1.37
9919.00,1.37
9918.00,1.37
9917.00,1.37
9916.00,1.37
9915.00,1.37
9914.00,1.37
9913.00,1.36
9912.00,1.36
9911.00,1.36
9910.00,1.36
9909.00,1.36
9908.00,1.36
9907.00,1.36
9906.00,1.36
9905.00,1.36
9904.00,1.36
9903.00,1.36
9902.00,1.36
9901.00,1.35
9900.00,1.35
9899.00,1.35
9898.00,1.35
9897.00,1.35
9896.00,1.35
9895.00,1.35
9894.00,1.35
9893.00,1.35
9892.00,1.35
9891.00,1.35
9890.00,1.35
9889.00,1.35
9888.00,1.35
9887.00,1.36
9886.00,1.36
9885.00,1.36
9884.00,1.36
9883.00,1.36
9882.00,1.36
9881.00,1.36
9880.00,1.36
9879.00,1.36
9878.00,1.36
9877.00,1.36
9876.00,1.36
9875.00,1.36
9874.00,1.35
9873.00,1.35
9872.00,1.35
9871.00,1.35
9870.00,1.34
9869.00,1.34
9868.00,1.34
9867.00,1.34
9866.00,1.34
9865.00,1.34
9864.00,1.34
9863.00,1.34
9862.00,1.35
9861.00,1.35
9860.00,1.35
9859.00,1.35
9858.00,1.36
9857.00,1.36
9856.00,1.36
9855.00,1.36
9854.00,1.36
9853.00,1.36
9852.00,1.36
9851.00,1.36
9850.00,1.36
9849.00,1.36
9848.00,1.36
9847.00,1.36
9846.00,1.36
9845.00,1.36
9844.00,1.36
9843.00,1.36
9842.00,1.35
9841.00,1.35
9840.00,1.35
9839.00,1.35
9838.00,1.35
9837.00,1.36
9836.00,1.36
9835.00,1.36
9834.00,1.36
9833.00,1.36
9832.00,1.36
9831.00,1.37
9830.00,1.37
9829.00,1.37
9828.00,1.37
9827.00,1.37
9826.00,1.37
9825.00,1.37
9824.00,1.37
9823.00,1.37
9822.00,1.37
9821.00,1.37
9820.00,1.37
9819.00,1.37
9818.00,1.37
9817.00,1.36
9816.00,1.36
9815.00,1.36
9814.00,1.36
9813.00,1.36
9812.00,1.36
9811.00,1.36
9810.00,1.36
9809.00,1.36
9808.00,1.36
9807.00,1.36
9806.00,1.36
9805.00,1.36
9804.00,1.36
9803.00,1.36
9802.00,1.36
9801.00,1.36
9800.00,1.37
9799.00,1.37
9798.00,1.37
9797.00,1.37
9796.00,1.37
9795.00,1.37
9794.00,1.37
9793.00,1.37
9792.00,1.37
9791.00,1.37
9790.00,1.37
9789.00,1.37
9788.00,1.37
9787.00,1.37
9786.00,1.37
9785.00,1.37
9784.00,1.37
9783.00,1.37
9782.00,1.37
9781.00,1.37
9780.00,1.37
9779.00,1.36
9778.00,1.36
9777.00,1.36
9776.00,1.36
9775.00,1.36
9774.00,1.36
9773.00,1.36
9772.00,1.36
9771.00,1.36
9770.00,1.36
9769.00,1.36
9768.00,1.36
9767.00,1.36
9766.00,1.36
9765.00,1.36
9764.00,1.36
9763.00,1.36
9762.00,1.36
9761.00,1.36
9760.00,1.36
9759.00,1.36
9758.00,1.36
9757.00,1.35
9756.00,1.35
9755.00,1.35
9754.00,1.35
9753.00,1.35
9752.00,1.35
9751.00,1.35
9750.00,1.35
9749.00,1.34
9748.00,1.34
9747.00,1.34
9746.00,1.34
9745.00,1.34
9744.00,1.34
9743.00,1.34
9742.00,1.35
9741.00,1.35
9740.00,1.35
9739.00,1.35
9738.00,1.35
9737.00,1.35
9736.00,1.35
9735.00,1.35
9734.00,1.35
9733.00,1.35
9732.00,1.35
9731.00,1.35
9730.00,1.36
9729.00,1.36
9728.00,1.36
9727.00,1.36
9726.00,1.36
9725.00,1.36
9724.00,1.36
9723.00,1.36
9722.00,1.36
9721.00,1.36
9720.00,1.36
9719.00,1.36
9718.00,1.36
9717.00,1.36
9716.00,1.36
9715.00,1.36
9714.00,1.36
9713.00,1.36
9712.00,1.36
9711.00,1.36
9710.00,1.36
9709.00,1.36
9708.00,1.36
9707.00,1.36
9706.00,1.36
9705.00,1.36
9704.00,1.36
9703.00,1.36
9702.00,1.36
9701.00,1.36
9700.00,1.36
9699.00,1.35
9698.00,1.35
9697.00,1.35
9696.00,1.35
9695.00,1.35
9694.00,1.34
9693.00,1.34
9692.00,1.34
9691.00,1.34
9690.00,1.34
9689.00,1.34
9688.00,1.33
9687.00,1.33
9686.00,1.33
9685.00,1.33
9684.00,1.33
9683.00,1.33
9682.00,1.33
9681.00,1.33
9680.00,1.33
9679.00,1.33
9678.00,1.33
9677.00,1.33
9676.00,1.33
9675.00,1.34
9674.00,1.34
9673.00,1.34
9672.00,1.34
9671.00,1.34
9670.00,1.35
9669.00,1.35
9668.00,1.35
9667.00,1.36
9666.00,1.36
9665.00,1.36
9664.00,1.36
9663.00,1.36
9662.00,1.37
9661.00,1.37
9660.00,1.37
9659.00,1.37
9658.00,1.37
9657.00,1.37
9656.00,1.37
9655.00,1.37
9654.00,1.37
9653.00,1.37
9652.00,1.37
9651.00,1.37
9650.00,1.37
9649.00,1.37
9648.00,1.36
9647.00,1.36
9646.00,1.36
9645.00,1.36
9644.00,1.36
9643.00,1.36
9642.00,1.36
9641.00,1.36
9640.00,1.36
9639.00,1.36
9638.00,1.36
9637.00,1.36
9636.00,1.35
9635.00,1.35
9634.00,1.35
9633.00,1.35
9632.00,1.35
9631.00,1.35
9630.00,1.35
9629.00,1.35
9628.00,1.35
9627.00,1.35
9626.00,1.35
9625.00,1.35
9624.00,1.35
9623.00,1.35
9622.00,1.35
9621.00,1.35
9620.00,1.35
9619.00,1.35
9618.00,1.35
9617.00,1.36
9616.00,1.36
9615.00,1.36
9614.00,1.36
9613.00,1.36
9612.00,1.36
9611.00,1.36
9610.00,1.36
9609.00,1.37
9608.00,1.37
9607.00,1.37
9606.00,1.37
9605.00,1.37
9604.00,1.37
9603.00,1.37
9602.00,1.37
9601.00,1.37
9600.00,1.37
9599.00,1.37
9598.00,1.37
9597.00,1.37
9596.00,1.37
9595.00,1.37
9594.00,1.37
9593.00,1.37
9592.00,1.37
9591.00,1.37
9590.00,1.37
9589.00,1.37
9588.00,1.37
9587.00,1.37
9586.00,1.37
9585.00,1.37
9584.00,1.37
9583.00,1.37
9582.00,1.37
9581.00,1.37
9580.00,1.37
9579.00,1.37
9578.00,1.37
9577.00,1.36
9576.00,1.36
9575.00,1.36
9574.00,1.36
9573.00,1.37
9572.00,1.37
9571.00,1.37
9570.00,1.37
9569.00,1.37
9568.00,1.37
9567.00,1.37
9566.00,1.37
9565.00,1.37
9564.00,1.37
9563.00,1.37
9562.00,1.37
9561.00,1.37
9560.00,1.37
9559.00,1.37
9558.00,1.37
9557.00,1.37
9556.00,1.37
9555.00,1.37
9554.00,1.37
9553.00,1.36
9552.00,1.36
9551.00,1.36
9550.00,1.36
9549.00,1.36
9548.00,1.36
9547.00,1.36
9546.00,1.35
9545.00,1.35
9544.00,1.35
9543.00,1.35
9542.00,1.35
9541.00,1.35
9540.00,1.35
9539.00,1.35
9538.00,1.35
9537.00,1.35
9536.00,1.35
9535.00,1.35
9534.00,1.35
9533.00,1.35
9532.00,1.35
9531.00,1.35
9530.00,1.35
9529.00,1.35
9528.00,1.35
9527.00,1.35
9526.00,1.35
9525.00,1.36
9524.00,1.36
9523.00,1.36
9522.00,1.36
9521.00,1.36
9520.00,1.37
9519.00,1.37
9518.00,1.37
9517.00,1.37
9516.00,1.37
9515.00,1.38
9514.00,1.38
9513.00,1.38
9512.00,1.38
9511.00,1.37
9510.00,1.37
9509.00,1.37
9508.00,1.37
9507.00,1.37
9506.00,1.36
9505.00,1.36
9504.00,1.36
9503.00,1.35
9502.00,1.35
9501.00,1.35
9500.00,1.34
9499.00,1.34
9498.00,1.34
9497.00,1.34
9496.00,1.34
9495.00,1.33
9494.00,1.33
9493.00,1.33
9492.00,1.33
9491.00,1.33
9490.00,1.33
9489.00,1.32
9488.00,1.32
9487.00,1.32
9486.00,1.32
9485.00,1.32
9484.00,1.32
9483.00,1.31
9482.00,1.31
9481.00,1.31
9480.00,1.31
9479.00,1.31
9478.00,1.31
9477.00,1.31
9476.00,1.31
9475.00,1.31
9474.00,1.31
9473.00,1.31
9472.00,1.31
9471.00,1.31
9470.00,1.32
9469.00,1.32
9468.00,1.32
9467.00,1.32
9466.00,1.32
9465.00,1.32
9464.00,1.32
9463.00,1.32
9462.00,1.32
9461.00,1.32
9460.00,1.32
9459.00,1.32
9458.00,1.32
9457.00,1.33
9456.00,1.33
9455.00,1.33
9454.00,1.33
9453.00,1.33
9452.00,1.33
9451.00,1.33
9450.00,1.34
9449.00,1.34
9448.00,1.34
9447.00,1.35
9446.00,1.35
9445.00,1.35
9444.00,1.36
9443.00,1.36
9442.00,1.36
9441.00,1.36
9440.00,1.37
9439.00,1.37
9438.00,1.37
9437.00,1.37
9436.00,1.37
9435.00,1.36
9434.00,1.36
9433.00,1.36
9432.00,1.36
9431.00,1.36
9430.00,1.35
9429.00,1.35
9428.00,1.35
9427.00,1.35
9426.00,1.35
9425.00,1.34
9424.00,1.34
9423.00,1.34
9422.00,1.34
9421.00,1.34
9420.00,1.34
9419.00,1.34
9418.00,1.34
9417.00,1.34
9416.00,1.35
9415.00,1.35
9414.00,1.35
9413.00,1.35
9412.00,1.35
9411.00,1.35
9410.00,1.35
9409.00,1.35
9408.00,1.35
9407.00,1.35
9406.00,1.35
9405.00,1.35
9404.00,1.35
9403.00,1.35
9402.00,1.35
9401.00,1.35
9400.00,1.35
9399.00,1.35
9398.00,1.36
9397.00,1.36
9396.00,1.36
9395.00,1.36
9394.00,1.36
9393.00,1.36
9392.00,1.36
9391.00,1.36
9390.00,1.36
9389.00,1.36
9388.00,1.36
9387.00,1.36
9386.00,1.36
9385.00,1.36
9384.00,1.36
9383.00,1.35
9382.00,1.35
9381.00,1.35
9380.00,1.35
9379.00,1.35
9378.00,1.35
9377.00,1.35
9376.00,1.34
9375.00,1.34
9374.00,1.34
9373.00,1.34
9372.00,1.34
9371.00,1.34
9370.00,1.34
9369.00,1.34
9368.00,1.34
9367.00,1.34
9366.00,1.34
9365.00,1.34
9364.00,1.34
9363.00,1.34
9362.00,1.34
9361.00,1.34
9360.00,1.34
9359.00,1.34
9358.00,1.35
9357.00,1.35
9356.00,1.35
9355.00,1.35
9354.00,1.36
9353.00,1.36
9352.00,1.36
9351.00,1.37
9350.00,1.37
9349.00,1.37
9348.00,1.37
9347.00,1.38
9346.00,1.38
9345.00,1.38
9344.00,1.37
9343.00,1.37
9342.00,1.37
9341.00,1.37
9340.00,1.37
9339.00,1.36
9338.00,1.36
9337.00,1.36
9336.00,1.36
9335.00,1.35
9334.00,1.35
9333.00,1.35
9332.00,1.35
9331.00,1.35
9330.00,1.35
9329.00,1.34
9328.00,1.34
9327.00,1.34
9326.00,1.35
9325.00,1.35
9324.00,1.35
9323.00,1.35
9322.00,1.35
9321.00,1.35
9320.00,1.36
9319.00,1.36
9318.00,1.36
9317.00,1.36
9316.00,1.36
9315.00,1.37
9314.00,1.37
9313.00,1.37
9312.00,1.37
9311.00,1.37
9310.00,1.37
9309.00,1.38
9308.00,1.38
9307.00,1.38
9306.00,1.38
9305.00,1.37
9304.00,1.37
9303.00,1.37
9302.00,1.37
9301.00,1.37
9300.00,1.37
9299.00,1.37
9298.00,1.37
9297.00,1.37
9296.00,1.37
9295.00,1.37
9294.00,1.37
9293.00,1.37
9292.00,1.37
9291.00,1.37
9290.00,1.37
9289.00,1.37
9288.00,1.37
9287.00,1.37
9286.00,1.37
9285.00,1.37
9284.00,1.37
9283.00,1.37
9282.00,1.37
9281.00,1.37
9280.00,1.37
9279.00,1.37
9278.00,1.37
9277.00,1.37
9276.00,1.37
9275.00,1.36
9274.00,1.36
9273.00,1.36
9272.00,1.36
9271.00,1.36
9270.00,1.36
9269.00,1.36
9268.00,1.36
9267.00,1.36
9266.00,1.36
9265.00,1.36
9264.00,1.36
9263.00,1.36
9262.00,1.36
9261.00,1.36
9260.00,1.36
9259.00,1.36
9258.00,1.36
9257.00,1.36
9256.00,1.36
9255.00,1.36
9254.00,1.36
9253.00,1.36
9252.00,1.37
9251.00,1.37
9250.00,1.37
9249.00,1.36
9248.00,1.36
9247.00,1.36
9246.00,1.36
9245.00,1.36
9244.00,1.36
9243.00,1.36
9242.00,1.36
9241.00,1.36
9240.00,1.36
9239.00,1.36
9238.00,1.36
9237.00,1.35
9236.00,1.35
9235.00,1.35
9234.00,1.35
9233.00,1.35
9232.00,1.35
9231.00,1.35
9230.00,1.35
9229.00,1.35
9228.00,1.35
9227.00,1.35
9226.00,1.35
9225.00,1.35
9224.00,1.35
9223.00,1.35
9222.00,1.35
9221.00,1.35
9220.00,1.35
9219.00,1.35
9218.00,1.35
9217.00,1.36
9216.00,1.36
9215.00,1.36
9214.00,1.36
9213.00,1.36
9212.00,1.36
9211.00,1.36
9210.00,1.36
9209.00,1.36
9208.00,1.36
9207.00,1.36
9206.00,1.36
9205.00,1.36
9204.00,1.36
9203.00,1.36
9202.00,1.36
9201.00,1.36
9200.00,1.36
9199.00,1.36
9198.00,1.36
9197.00,1.36
9196.00,1.35
9195.00,1.35
9194.00,1.35
9193.00,1.35
9192.00,1.35
9191.00,1.35
9190.00,1.35
9189.00,1.34
9188.00,1.34
9187.00,1.34
9186.00,1.34
9185.00,1.34
9184.00,1.34
9183.00,1.34
9182.00,1.34
9181.00,1.34
9180.00,1.34
9179.00,1.35
9178.00,1.35
9177.00,1.35
9176.00,1.35
9175.00,1.35
9174.00,1.35
9173.00,1.36
9172.00,1.36
9171.00,1.36
9170.00,1.36
9169.00,1.36
9168.00,1.36
9167.00,1.36
9166.00,1.36
9165.00,1.36
9164.00,1.36
9163.00,1.37
9162.00,1.37
9161.00,1.37
9160.00,1.37
9159.00,1.37
9158.00,1.37
9157.00,1.37
9156.00,1.37
9155.00,1.37
9154.00,1.37
9153.00,1.37
9152.00,1.37
9151.00,1.37
9150.00,1.37
9149.00,1.38
9148.00,1.38
9147.00,1.38
9146.00,1.38
9145.00,1.38
9144.00,1.38
9143.00,1.38
9142.00,1.38
9141.00,1.38
9140.00,1.38
9139.00,1.38
9138.00,1.37
9137.00,1.37
9136.00,1.37
9135.00,1.37
9134.00,1.37
9133.00,1.37
9132.00,1.37
9131.00,1.37
9130.00,1.37
9129.00,1.37
9128.00,1.37
9127.00,1.37
9126.00,1.36
9125.00,1.36
9124.00,1.36
9123.00,1.36
9122.00,1.36
9121.00,1.36
9120.00,1.36
9119.00,1.37
9118.00,1.37
9117.00,1.37
9116.00,1.37
9115.00,1.37
9114.00,1.37
9113.00,1.37
9112.00,1.37
9111.00,1.37
9110.00,1.37
9109.00,1.37
9108.00,1.37
9107.00,1.37
9106.00,1.37
9105.00,1.37
9104.00,1.37
9103.00,1.37
9102.00,1.37
9101.00,1.37
9100.00,1.37
9099.00,1.37
9098.00,1.37
9097.00,1.37
9096.00,1.37
9095.00,1.37
9094.00,1.37
9093.00,1.37
9092.00,1.37
9091.00,1.37
9090.00,1.37
9089.00,1.37
9088.00,1.37
9087.00,1.36
9086.00,1.36
9085.00,1.36
9084.00,1.36
9083.00,1.36
9082.00,1.36
9081.00,1.36
9080.00,1.36
9079.00,1.36
9078.00,1.37
9077.00,1.37
9076.00,1.37
9075.00,1.37
9074.00,1.37
9073.00,1.37
9072.00,1.37
9071.00,1.37
9070.00,1.37
9069.00,1.36
9068.00,1.36
9067.00,1.36
9066.00,1.36
9065.00,1.36
9064.00,1.35
9063.00,1.35
9062.00,1.35
9061.00,1.35
9060.00,1.35
9059.00,1.35
9058.00,1.35
9057.00,1.34
9056.00,1.34
9055.00,1.34
9054.00,1.35
9053.00,1.35
9052.00,1.35
9051.00,1.35
9050.00,1.35
9049.00,1.35
9048.00,1.35
9047.00,1.35
9046.00,1.36
9045.00,1.36
9044.00,1.36
9043.00,1.36
9042.00,1.36
9041.00,1.36
9040.00,1.35
9039.00,1.35
9038.00,1.35
9037.00,1.35
9036.00,1.35
9035.00,1.35
9034.00,1.35
9033.00,1.35
9032.00,1.34
9031.00,1.34
9030.00,1.34
9029.00,1.34
9028.00,1.34
9027.00,1.34
9026.00,1.35
9025.00,1.35
9024.00,1.35
9023.00,1.35
9022.00,1.35
9021.00,1.36
9020.00,1.36
9019.00,1.36
9018.00,1.36
9017.00,1.36
9016.00,1.37
9015.00,1.37
9014.00,1.37
9013.00,1.37
9012.00,1.37
9011.00,1.37
9010.00,1.37
9009.00,1.37
9008.00,1.37
9007.00,1.37
9006.00,1.37
9005.00,1.37
9004.00,1.37
9003.00,1.37
9002.00,1.37
9001.00,1.37
9000.00,1.37
8999.00,1.37
8998.00,1.37
8997.00,1.37
8996.00,1.37
8995.00,1.37
8994.00,1.38
8993.00,1.38
8992.00,1.38
8991.00,1.38
8990.00,1.38
8989.00,1.38
8988.00,1.38
8987.00,1.38
8986.00,1.38
8985.00,1.38
8984.00,1.38
8983.00,1.37
8982.00,1.37
8981.00,1.37
8980.00,1.37
8979.00,1.37
8978.00,1.37
8977.00,1.37
8976.00,1.37
8975.00,1.37
8974.00,1.36
8973.00,1.36
8972.00,1.36
8971.00,1.36
8970.00,1.36
8969.00,1.36
8968.00,1.36
8967.00,1.36
8966.00,1.37
8965.00,1.37
8964.00,1.37
8963.00,1.37
8962.00,1.37
8961.00,1.37
8960.00,1.37
8959.00,1.37
8958.00,1.37
8957.00,1.38
8956.00,1.38
8955.00,1.38
8954.00,1.38
8953.00,1.38
8952.00,1.37
8951.00,1.37
8950.00,1.37
8949.00,1.37
8948.00,1.37
8947.00,1.37
8946.00,1.37
8945.00,1.37
8944.00,1.37
8943.00,1.36
8942.00,1.36
8941.00,1.36
8940.00,1.36
8939.00,1.36
8938.00,1.36
8937.00,1.36
8936.00,1.36
8935.00,1.36
8934.00,1.36
8933.00,1.36
8932.00,1.36
8931.00,1.36
8930.00,1.36
8929.00,1.37
8928.00,1.37
8927.00,1.37
8926.00,1.37
8925.00,1.37
8924.00,1.37
8923.00,1.37
8922.00,1.37
8921.00,1.37
8920.00,1.37
8919.00,1.37
8918.00,1.37
8917.00,1.37
8916.00,1.37
8915.00,1.37
8914.00,1.37
8913.00,1.37
8912.00,1.37
8911.00,1.37
8910.00,1.37
8909.00,1.37
8908.00,1.37
8907.00,1.37
8906.00,1.37
8905.00,1.37
8904.00,1.37
8903.00,1.37
8902.00,1.37
8901.00,1.37
8900.00,1.37
8899.00,1.37
8898.00,1.37
8897.00,1.37
8896.00,1.37
8895.00,1.37
8894.00,1.37
8893.00,1.37
8892.00,1.37
8891.00,1.37
8890.00,1.37
8889.00,1.37
8888.00,1.37
8887.00,1.37
8886.00,1.37
8885.00,1.37
8884.00,1.38
8883.00,1.38
8882.00,1.38
8881.00,1.38
8880.00,1.38
8879.00,1.38
8878.00,1.38
8877.00,1.38
8876.00,1.38
8875.00,1.38
8874.00,1.38
8873.00,1.38
8872.00,1.38
8871.00,1.37
8870.00,1.37
8869.00,1.37
8868.00,1.37
8867.00,1.37
8866.00,1.37
8865.00,1.37
8864.00,1.37
8863.00,1.36
8862.00,1.36
8861.00,1.36
8860.00,1.36
8859.00,1.36
8858.00,1.36
8857.00,1.36
8856.00,1.35
8855.00,1.35
8854.00,1.35
8853.00,1.35
8852.00,1.35
8851.00,1.35
8850.00,1.35
8849.00,1.35
8848.00,1.35
8847.00,1.35
8846.00,1.35
8845.00,1.36
8844.00,1.36
8843.00,1.36
8842.00,1.36
8841.00,1.36
8840.00,1.36
8839.00,1.37
8838.00,1.37
8837.00,1.37
8836.00,1.37
8835.00,1.37
8834.00,1.37
8833.00,1.37
8832.00,1.38
8831.00,1.38
8830.00,1.38
8829.00,1.37
8828.00,1.37
8827.00,1.37
8826.00,1.37
8825.00,1.37
8824.00,1.36
8823.00,1.36
8822.00,1.36
8821.00,1.35
8820.00,1.35
8819.00,1.35
8818.00,1.34
8817.00,1.34
8816.00,1.34
8815.00,1.33
8814.00,1.33
8813.00,1.33
8812.00,1.33
8811.00,1.33
8810.00,1.33
8809.00,1.33
8808.00,1.33
8807.00,1.33
8806.00,1.33
8805.00,1.33
8804.00,1.33
8803.00,1.33
8802.00,1.34
8801.00,1.34
8800.00,1.34
8799.00,1.34
8798.00,1.34
8797.00,1.34
8796.00,1.34
8795.00,1.35
8794.00,1.35
8793.00,1.35
8792.00,1.35
8791.00,1.34
8790.00,1.34
8789.00,1.34
8788.00,1.34
8787.00,1.34
8786.00,1.34
8785.00,1.34
8784.00,1.33
8783.00,1.33
8782.00,1.33
8781.00,1.33
8780.00,1.33
8779.00,1.32
8778.00,1.32
8777.00,1.32
8776.00,1.32
8775.00,1.32
8774.00,1.32
8773.00,1.32
8772.00,1.32
8771.00,1.32
8770.00,1.32
8769.00,1.32
8768.00,1.32
8767.00,1.32
8766.00,1.32
8765.00,1.32
8764.00,1.32
8763.00,1.32
8762.00,1.32
8761.00,1.32
8760.00,1.32
8759.00,1.32
8758.00,1.32
8757.00,1.32
8756.00,1.32
8755.00,1.32
8754.00,1.32
8753.00,1.32
8752.00,1.32
8751.00,1.32
8750.00,1.32
8749.00,1.31
8748.00,1.31
8747.00,1.31
8746.00,1.31
8745.00,1.32
8744.00,1.32
8743.00,1.32
8742.00,1.32
8741.00,1.32
8740.00,1.32
8739.00,1.32
8738.00,1.32
8737.00,1.32
8736.00,1.32
8735.00,1.31
8734.00,1.31
8733.00,1.31
8732.00,1.31
8731.00,1.31
8730.00,1.31
8729.00,1.31
8728.00,1.31
8727.00,1.31
8726.00,1.31
8725.00,1.31
8724.00,1.31
8723.00,1.31
8722.00,1.31
8721.00,1.31
8720.00,1.31
8719.00,1.31
8718.00,1.31
8717.00,1.32
8716.00,1.32
8715.00,1.32
8714.00,1.32
8713.00,1.33
8712.00,1.33
8711.00,1.33
8710.00,1.33
8709.00,1.33
8708.00,1.33
8707.00,1.33
8706.00,1.33
8705.00,1.33
8704.00,1.33
8703.00,1.33
8702.00,1.33
8701.00,1.33
8700.00,1.33
8699.00,1.33
8698.00,1.33
8697.00,1.33
8696.00,1.32
8695.00,1.32
8694.00,1.32
8693.00,1.32
8692.00,1.32
8691.00,1.32
8690.00,1.31
8689.00,1.31
8688.00,1.31
8687.00,1.31
8686.00,1.31
8685.00,1.31
8684.00,1.30
8683.00,1.30
8682.00,1.30
8681.00,1.30
8680.00,1.30
8679.00,1.30
8678.00,1.30
8677.00,1.30
8676.00,1.30
8675.00,1.29
8674.00,1.29
8673.00,1.29
8672.00,1.29
8671.00,1.29
8670.00,1.29
8669.00,1.29
8668.00,1.29
8667.00,1.29
8666.00,1.29
8665.00,1.28
8664.00,1.28
8663.00,1.28
8662.00,1.28
8661.00,1.28
8660.00,1.28
8659.00,1.28
8658.00,1.28
8657.00,1.28
8656.00,1.28
8655.00,1.28
8654.00,1.28
8653.00,1.28
8652.00,1.28
8651.00,1.29
8650.00,1.29
8649.00,1.29
8648.00,1.29
8647.00,1.29
8646.00,1.29
8645.00,1.29
8644.00,1.29
8643.00,1.29
8642.00,1.29
8641.00,1.29
8640.00,1.29
8639.00,1.29
8638.00,1.29
8637.00,1.29
8636.00,1.29
8635.00,1.29
8634.00,1.29
8633.00,1.29
8632.00,1.29
8631.00,1.29
8630.00,1.29
8629.00,1.29
8628.00,1.29
8627.00,1.29
8626.00,1.29
8625.00,1.29
8624.00,1.29
8623.00,1.29
8622.00,1.29
8621.00,1.29
8620.00,1.29
8619.00,1.29
8618.00,1.28
8617.00,1.28
8616.00,1.28
8615.00,1.28
8614.00,1.28
8613.00,1.28
8612.00,1.27
8611.00,1.27
8610.00,1.27
8609.00,1.27
8608.00,1.27
8607.00,1.26
8606.00,1.26
8605.00,1.26
8604.00,1.26
8603.00,1.26
8602.00,1.26
8601.00,1.26
8600.00,1.26
8599.00,1.26
8598.00,1.26
8597.00,1.26
8596.00,1.26
8595.00,1.26
8594.00,1.26
8593.00,1.26
8592.00,1.26
8591.00,1.26
8590.00,1.26
8589.00,1.26
8588.00,1.27
8587.00,1.27
8586.00,1.27
8585.00,1.27
8584.00,1.27
8583.00,1.28
8582.00,1.28
8581.00,1.28
8580.00,1.28
8579.00,1.28
8578.00,1.28
8577.00,1.28
8576.00,1.28
8575.00,1.28
8574.00,1.28
8573.00,1.28
8572.00,1.28
8571.00,1.28
8570.00,1.28
8569.00,1.28
8568.00,1.28
8567.00,1.28
8566.00,1.28
8565.00,1.28
8564.00,1.27
8563.00,1.27
8562.00,1.27
8561.00,1.27
8560.00,1.27
8559.00,1.27
8558.00,1.27
8557.00,1.27
8556.00,1.27
8555.00,1.26
8554.00,1.26
8553.00,1.26
8552.00,1.26
8551.00,1.26
8550.00,1.26
8549.00,1.26
8548.00,1.26
8547.00,1.26
8546.00,1.26
8545.00,1.26
8544.00,1.26
8543.00,1.26
8542.00,1.26
8541.00,1.26
8540.00,1.26
8539.00,1.26
8538.00,1.26
8537.00,1.26
8536.00,1.27
8535.00,1.27
8534.00,1.27
8533.00,1.27
8532.00,1.27
8531.00,1.27
8530.00,1.27
8529.00,1.27
8528.00,1.28
8527.00,1.28
8526.00,1.28
8525.00,1.28
8524.00,1.28
8523.00,1.28
8522.00,1.28
8521.00,1.28
8520.00,1.28
8519.00,1.28
8518.00,1.28
8517.00,1.28
8516.00,1.28
8515.00,1.28
8514.00,1.28
8513.00,1.28
8512.00,1.28
8511.00,1.28
8510.00,1.28
8509.00,1.28
8508.00,1.28
8507.00,1.28
8506.00,1.28
8505.00,1.28
8504.00,1.27
8503.00,1.27
8502.00,1.27
8501.00,1.27
8500.00,1.27
8499.00,1.27
8498.00,1.27
8497.00,1.27
8496.00,1.27
8495.00,1.26
8494.00,1.26
8493.00,1.26
8492.00,1.26
8491.00,1.26
8490.00,1.26
8489.00,1.26
8488.00,1.26
8487.00,1.26
8486.00,1.26
8485.00,1.25
8484.00,1.25
8483.00,1.25
8482.00,1.25
8481.00,1.25
8480.00,1.25
8479.00,1.25
8478.00,1.25
8477.00,1.25
8476.00,1.25
8475.00,1.24
8474.00,1.24
8473.00,1.24
8472.00,1.25
8471.00,1.25
8470.00,1.25
8469.00,1.25
8468.00,1.25
8467.00,1.25
8466.00,1.25
8465.00,1.25
8464.00,1.25
8463.00,1.25
8462.00,1.25
8461.00,1.25
8460.00,1.25
8459.00,1.25
8458.00,1.25
8457.00,1.25
8456.00,1.25
8455.00,1.25
8454.00,1.25
8453.00,1.25
8452.00,1.25
8451.00,1.25
8450.00,1.25
8449.00,1.25
8448.00,1.25
8447.00,1.24
8446.00,1.24
8445.00,1.24
8444.00,1.24
8443.00,1.24
8442.00,1.24
8441.00,1.24
8440.00,1.24
8439.00,1.24
8438.00,1.24
8437.00,1.24
8436.00,1.24
8435.00,1.25
8434.00,1.25
8433.00,1.25
8432.00,1.25
8431.00,1.25
8430.00,1.25
8429.00,1.25
8428.00,1.25
8427.00,1.25
8426.00,1.25
8425.00,1.25
8424.00,1.25
8423.00,1.25
8422.00,1.25
8421.00,1.25
8420.00,1.25
8419.00,1.25
8418.00,1.25
8417.00,1.25
8416.00,1.25
8415.00,1.25
8414.00,1.25
8413.00,1.25
8412.00,1.26
8411.00,1.26
8410.00,1.26
8409.00,1.26
8408.00,1.26
8407.00,1.26
8406.00,1.26
8405.00,1.26
8404.00,1.26
8403.00,1.26
8402.00,1.26
8401.00,1.27
8400.00,1.27
8399.00,1.27
8398.00,1.27
8397.00,1.27
8396.00,1.27
8395.00,1.27
8394.00,1.27
8393.00,1.27
8392.00,1.27
8391.00,1.27
8390.00,1.28
8389.00,1.28
8388.00,1.28
8387.00,1.28
8386.00,1.28
8385.00,1.28
8384.00,1.28
8383.00,1.28
8382.00,1.28
8381.00,1.28
8380.00,1.29
8379.00,1.29
8378.00,1.29
8377.00,1.29
8376.00,1.29
8375.00,1.29
8374.00,1.28
8373.00,1.28
8372.00,1.28
8371.00,1.28
8370.00,1.28
8369.00,1.28
8368.00,1.27
8367.00,1.27
8366.00,1.27
8365.00,1.27
8364.00,1.26
8363.00,1.26
8362.00,1.26
8361.00,1.26
8360.00,1.25
8359.00,1.25
8358.00,1.25
8357.00,1.25
8356.00,1.25
8355.00,1.25
8354.00,1.25
8353.00,1.25
8352.00,1.25
8351.00,1.25
8350.00,1.25
8349.00,1.25
8348.00,1.26
8347.00,1.26
8346.00,1.26
8345.00,1.26
8344.00,1.26
8343.00,1.26
8342.00,1.27
8341.00,1.27
8340.00,1.27
8339.00,1.27
8338.00,1.27
8337.00,1.27
8336.00,1.27
8335.00,1.27
8334.00,1.27
8333.00,1.27
8332.00,1.27
8331.00,1.27
8330.00,1.27
8329.00,1.27
8328.00,1.27
8327.00,1.27
8326.00,1.27
8325.00,1.27
8324.00,1.27
8323.00,1.27
8322.00,1.27
8321.00,1.27
8320.00,1.27
8319.00,1.27
8318.00,1.27
8317.00,1.27
8316.00,1.28
8315.00,1.28
8314.00,1.28
8313.00,1.28
8312.00,1.28
8311.00,1.28
8310.00,1.28
8309.00,1.28
8308.00,1.28
8307.00,1.28
8306.00,1.28
8305.00,1.28
8304.00,1.28
8303.00,1.28
8302.00,1.28
8301.00,1.28
8300.00,1.28
8299.00,1.28
8298.00,1.28
8297.00,1.29
8296.00,1.29
8295.00,1.29
8294.00,1.29
8293.00,1.29
8292.00,1.29
8291.00,1.28
8290.00,1.28
8289.00,1.28
8288.00,1.28
8287.00,1.28
8286.00,1.28
8285.00,1.28
8284.00,1.27
8283.00,1.27
8282.00,1.27
8281.00,1.27
8280.00,1.27
8279.00,1.27
8278.00,1.26
8277.00,1.26
8276.00,1.26
8275.00,1.26
8274.00,1.26
8273.00,1.26
8272.00,1.26
8271.00,1.26
8270.00,1.27
8269.00,1.27
8268.00,1.27
8267.00,1.27
8266.00,1.27
8265.00,1.27
8264.00,1.27
8263.00,1.27
8262.00,1.27
8261.00,1.27
8260.00,1.27
8259.00,1.27
8258.00,1.27
8257.00,1.27
8256.00,1.27
8255.00,1.27
8254.00,1.27
8253.00,1.27
8252.00,1.27
8251.00,1.27
8250.00,1.27
8249.00,1.27
8248.00,1.28
8247.00,1.28
8246.00,1.28
8245.00,1.28
8244.00,1.28
8243.00,1.28
8242.00,1.28
8241.00,1.28
8240.00,1.28
8239.00,1.28
8238.00,1.29
8237.00,1.29
8236.00,1.29
8235.00,1.29
8234.00,1.29
8233.00,1.29
8232.00,1.29
8231.00,1.29
8230.00,1.29
8229.00,1.29
8228.00,1.29
8227.00,1.29
8226.00,1.29
8225.00,1.29
8224.00,1.29
8223.00,1.29
8222.00,1.28
8221.00,1.28
8220.00,1.28
8219.00,1.28
8218.00,1.28
8217.00,1.28
8216.00,1.28
8215.00,1.28
8214.00,1.28
8213.00,1.28
8212.00,1.28
8211.00,1.28
8210.00,1.28
8209.00,1.28
8208.00,1.28
8207.00,1.29
8206.00,1.29
8205.00,1.29
8204.00,1.29
8203.00,1.29
8202.00,1.30
8201.00,1.30
8200.00,1.30
8199.00,1.30
8198.00,1.30
8197.00,1.30
8196.00,1.30
8195.00,1.30
8194.00,1.30
8193.00,1.30
8192.00,1.30
8191.00,1.30
8190.00,1.30
8189.00,1.30
8188.00,1.30
8187.00,1.30
8186.00,1.30
8185.00,1.30
8184.00,1.30
8183.00,1.30
8182.00,1.30
8181.00,1.30
8180.00,1.30
8179.00,1.30
8178.00,1.30
8177.00,1.30
8176.00,1.30
8175.00,1.30
8174.00,1.30
8173.00,1.30
8172.00,1.30
8171.00,1.30
8170.00,1.30
8169.00,1.30
8168.00,1.30
8167.00,1.30
8166.00,1.30
8165.00,1.30
8164.00,1.31
8163.00,1.31
8162.00,1.31
8161.00,1.31
8160.00,1.31
8159.00,1.31
8158.00,1.31
8157.00,1.31
8156.00,1.31
8155.00,1.31
8154.00,1.31
8153.00,1.31
8152.00,1.31
8151.00,1.31
8150.00,1.31
8149.00,1.31
8148.00,1.31
8147.00,1.31
8146.00,1.31
8145.00,1.31
8144.00,1.31
8143.00,1.31
8142.00,1.31
8141.00,1.31
8140.00,1.31
8139.00,1.31
8138.00,1.31
8137.00,1.31
8136.00,1.31
8135.00,1.31
8134.00,1.31
8133.00,1.31
8132.00,1.31
8131.00,1.31
8130.00,1.31
8129.00,1.31
8128.00,1.31
8127.00,1.31
8126.00,1.31
8125.00,1.31
8124.00,1.31
8123.00,1.31
8122.00,1.31
8121.00,1.31
8120.00,1.31
8119.00,1.31
8118.00,1.31
8117.00,1.31
8116.00,1.31
8115.00,1.31
8114.00,1.31
8113.00,1.31
8112.00,1.32
8111.00,1.32
8110.00,1.32
8109.00,1.32
8108.00,1.32
8107.00,1.32
8106.00,1.32
8105.00,1.31
8104.00,1.31
8103.00,1.31
8102.00,1.31
8101.00,1.31
8100.00,1.31
8099.00,1.31
8098.00,1.31
8097.00,1.31
8096.00,1.32
8095.00,1.32
8094.00,1.32
8093.00,1.32
8092.00,1.32
8091.00,1.32
8090.00,1.32
8089.00,1.33
8088.00,1.33
8087.00,1.33
8086.00,1.33
8085.00,1.33
8084.00,1.33
8083.00,1.33
8082.00,1.33
8081.00,1.33
8080.00,1.33
8079.00,1.33
8078.00,1.33
8077.00,1.33
8076.00,1.33
8075.00,1.33
8074.00,1.33
8073.00,1.33
8072.00,1.33
8071.00,1.33
8070.00,1.33
8069.00,1.33
8068.00,1.33
8067.00,1.32
8066.00,1.32
8065.00,1.32
8064.00,1.32
8063.00,1.32
8062.00,1.32
8061.00,1.32
8060.00,1.32
8059.00,1.33
8058.00,1.33
8057.00,1.33
8056.00,1.33
8055.00,1.33
8054.00,1.33
8053.00,1.33
8052.00,1.33
8051.00,1.33
8050.00,1.33
8049.00,1.33
8048.00,1.33
8047.00,1.33
8046.00,1.33
8045.00,1.33
8044.00,1.33
8043.00,1.33
8042.00,1.33
8041.00,1.33
8040.00,1.33
8039.00,1.33
8038.00,1.33
8037.00,1.33
8036.00,1.33
8035.00,1.33
8034.00,1.33
8033.00,1.34
8032.00,1.34
8031.00,1.34
8030.00,1.34
8029.00,1.34
8028.00,1.34
8027.00,1.34
8026.00,1.35
8025.00,1.35
8024.00,1.35
8023.00,1.35
8022.00,1.35
8021.00,1.35
8020.00,1.35
8019.00,1.35
8018.00,1.35
8017.00,1.35
8016.00,1.35
8015.00,1.35
8014.00,1.34
8013.00,1.34
8012.00,1.34
8011.00,1.34
8010.00,1.34
8009.00,1.34
8008.00,1.34
8007.00,1.34
8006.00,1.34
8005.00,1.34
8004.00,1.34
8003.00,1.34
8002.00,1.34
8001.00,1.35
8000.00,1.35
7999.00,1.35
7998.00,1.35
7997.00,1.35
7996.00,1.35
7995.00,1.35
7994.00,1.35
7993.00,1.35
7992.00,1.35
7991.00,1.34
7990.00,1.34
7989.00,1.34
7988.00,1.34
7987.00,1.34
7986.00,1.34
7985.00,1.34
7984.00,1.34
7983.00,1.34
7982.00,1.34
7981.00,1.34
7980.00,1.34
7979.00,1.34
7978.00,1.34
7977.00,1.34
7976.00,1.34
7975.00,1.34
7974.00,1.34
7973.00,1.34
7972.00,1.34
7971.00,1.34
7970.00,1.34
7969.00,1.35
7968.00,1.35
7967.00,1.35
7966.00,1.35
7965.00,1.35
7964.00,1.36
7963.00,1.36
7962.00,1.36
7961.00,1.36
7960.00,1.36
7959.00,1.36
7958.00,1.36
7957.00,1.36
7956.00,1.36
7955.00,1.36
7954.00,1.36
7953.00,1.36
7952.00,1.36
7951.00,1.36
7950.00,1.36
7949.00,1.36
7948.00,1.36
7947.00,1.36
7946.00,1.36
7945.00,1.36
7944.00,1.36
7943.00,1.36
7942.00,1.36
7941.00,1.36
7940.00,1.36
7939.00,1.35
7938.00,1.35
7937.00,1.35
7936.00,1.35
7935.00,1.35
7934.00,1.35
7933.00,1.35
7932.00,1.35
7931.00,1.35
7930.00,1.35
7929.00,1.35
7928.00,1.35
7927.00,1.35
7926.00,1.36
7925.00,1.36
7924.00,1.36
7923.00,1.36
7922.00,1.36
7921.00,1.36
7920.00,1.36
7919.00,1.36
7918.00,1.35
7917.00,1.35
7916.00,1.35
7915.00,1.35
7914.00,1.35
7913.00,1.35
7912.00,1.35
7911.00,1.35
7910.00,1.35
7909.00,1.35
7908.00,1.35
7907.00,1.35
7906.00,1.35
7905.00,1.35
7904.00,1.35
7903.00,1.35
7902.00,1.36
7901.00,1.36
7900.00,1.36
7899.00,1.36
7898.00,1.36
7897.00,1.36
7896.00,1.36
7895.00,1.35
7894.00,1.35
7893.00,1.35
7892.00,1.35
7891.00,1.35
7890.00,1.35
7889.00,1.35
7888.00,1.35
7887.00,1.35
7886.00,1.35
7885.00,1.35
7884.00,1.35
7883.00,1.35
7882.00,1.35
7881.00,1.35
7880.00,1.35
7879.00,1.35
7878.00,1.35
7877.00,1.35
7876.00,1.35
7875.00,1.36
7874.00,1.36
7873.00,1.36
7872.00,1.36
7871.00,1.36
7870.00,1.36
7869.00,1.37
7868.00,1.37
7867.00,1.37
7866.00,1.37
7865.00,1.37
7864.00,1.37
7863.00,1.37
7862.00,1.37
7861.00,1.37
7860.00,1.37
7859.00,1.37
7858.00,1.37
7857.00,1.37
7856.00,1.37
7855.00,1.37
7854.00,1.37
7853.00,1.36
7852.00,1.36
7851.00,1.36
7850.00,1.36
7849.00,1.36
7848.00,1.36
7847.00,1.36
7846.00,1.36
7845.00,1.36
7844.00,1.36
7843.00,1.36
7842.00,1.36
7841.00,1.36
7840.00,1.36
7839.00,1.36
7838.00,1.36
7837.00,1.36
7836.00,1.36
7835.00,1.36
7834.00,1.36
7833.00,1.36
7832.00,1.36
7831.00,1.36
7830.00,1.36
7829.00,1.36
7828.00,1.36
7827.00,1.36
7826.00,1.36
7825.00,1.36
7824.00,1.36
7823.00,1.36
7822.00,1.36
7821.00,1.36
7820.00,1.36
7819.00,1.36
7818.00,1.35
7817.00,1.35
7816.00,1.35
7815.00,1.35
7814.00,1.35
7813.00,1.36
7812.00,1.36
7811.00,1.36
7810.00,1.36
7809.00,1.36
7808.00,1.36
7807.00,1.36
7806.00,1.36
7805.00,1.36
7804.00,1.36
7803.00,1.36
7802.00,1.36
7801.00,1.36
7800.00,1.36
7799.00,1.36
7798.00,1.36
7797.00,1.36
7796.00,1.36
7795.00,1.36
7794.00,1.36
7793.00,1.36
7792.00,1.36
7791.00,1.36
7790.00,1.36
7789.00,1.36
7788.00,1.36
7787.00,1.36
7786.00,1.36
7785.00,1.36
7784.00,1.36
7783.00,1.36
7782.00,1.36
7781.00,1.36
7780.00,1.36
7779.00,1.37
7778.00,1.37
7777.00,1.37
7776.00,1.37
7775.00,1.37
7774.00,1.37
7773.00,1.37
7772.00,1.37
7771.00,1.37
7770.00,1.37
7769.00,1.36
7768.00,1.36
7767.00,1.36
7766.00,1.36
7765.00,1.36
7764.00,1.36
7763.00,1.36
7762.00,1.36
7761.00,1.36
7760.00,1.36
7759.00,1.36
7758.00,1.36
7757.00,1.36
7756.00,1.36
7755.00,1.36
7754.00,1.36
7753.00,1.36
7752.00,1.36
7751.00,1.36
7750.00,1.36
7749.00,1.36
7748.00,1.37
7747.00,1.37
7746.00,1.37
7745.00,1.37
7744.00,1.37
7743.00,1.37
7742.00,1.37
7741.00,1.37
7740.00,1.37
7739.00,1.37
7738.00,1.37
7737.00,1.37
7736.00,1.37
7735.00,1.37
7734.00,1.37
7733.00,1.37
7732.00,1.36
7731.00,1.36
7730.00,1.36
7729.00,1.36
7728.00,1.36
7727.00,1.36
7726.00,1.36
7725.00,1.36
7724.00,1.36
7723.00,1.36
7722.00,1.36
7721.00,1.36
7720.00,1.36
7719.00,1.36
7718.00,1.36
7717.00,1.36
7716.00,1.36
7715.00,1.36
7714.00,1.36
7713.00,1.36
7712.00,1.36
7711.00,1.36
7710.00,1.36
7709.00,1.36
7708.00,1.36
7707.00,1.36
7706.00,1.37
7705.00,1.37
7704.00,1.37
7703.00,1.37
7702.00,1.37
7701.00,1.37
7700.00,1.37
7699.00,1.38
7698.00,1.38
7697.00,1.38
7696.00,1.38
7695.00,1.38
7694.00,1.38
7693.00,1.38
7692.00,1.38
7691.00,1.38
7690.00,1.38
7689.00,1.38
7688.00,1.38
7687.00,1.38
7686.00,1.38
7685.00,1.37
7684.00,1.37
7683.00,1.37
7682.00,1.37
7681.00,1.37
7680.00,1.37
7679.00,1.37
7678.00,1.37
7677.00,1.37
7676.00,1.36
7675.00,1.36
7674.00,1.36
7673.00,1.36
7672.00,1.36
7671.00,1.36
7670.00,1.36
7669.00,1.36
7668.00,1.36
7667.00,1.36
7666.00,1.36
7665.00,1.36
7664.00,1.36
7663.00,1.36
7662.00,1.36
7661.00,1.36
7660.00,1.36
7659.00,1.36
7658.00,1.36
7657.00,1.36
7656.00,1.36
7655.00,1.36
7654.00,1.36
7653.00,1.37
7652.00,1.37
7651.00,1.37
7650.00,1.37
7649.00,1.37
7648.00,1.37
7647.00,1.37
7646.00,1.37
7645.00,1.37
7644.00,1.37
7643.00,1.37
7642.00,1.37
7641.00,1.37
7640.00,1.37
7639.00,1.37
7638.00,1.37
7637.00,1.37
7636.00,1.37
7635.00,1.37
7634.00,1.37
7633.00,1.37
7632.00,1.37
7631.00,1.37
7630.00,1.37
7629.00,1.37
7628.00,1.37
7627.00,1.37
7626.00,1.37
7625.00,1.37
7624.00,1.38
7623.00,1.38
7622.00,1.38
7621.00,1.38
7620.00,1.38
7619.00,1.38
7618.00,1.38
7617.00,1.38
7616.00,1.38
7615.00,1.38
7614.00,1.38
7613.00,1.37
7612.00,1.37
7611.00,1.37
7610.00,1.37
7609.00,1.37
7608.00,1.37
7607.00,1.37
7606.00,1.37
7605.00,1.37
7604.00,1.37
7603.00,1.37
7602.00,1.37
7601.00,1.37
7600.00,1.37
7599.00,1.37
7598.00,1.37
7597.00,1.37
7596.00,1.37
7595.00,1.37
7594.00,1.37
7593.00,1.37
7592.00,1.37
7591.00,1.37
7590.00,1.37
7589.00,1.37
7588.00,1.37
7587.00,1.37
7586.00,1.37
7585.00,1.37
7584.00,1.37
7583.00,1.37
7582.00,1.37
7581.00,1.37
7580.00,1.37
7579.00,1.37
7578.00,1.37
7577.00,1.37
7576.00,1.37
7575.00,1.37
7574.00,1.37
7573.00,1.37
7572.00,1.37
7571.00,1.37
7570.00,1.37
7569.00,1.37
7568.00,1.37
7567.00,1.37
7566.00,1.37
7565.00,1.37
7564.00,1.37
7563.00,1.37
7562.00,1.37
7561.00,1.37
7560.00,1.37
7559.00,1.37
7558.00,1.37
7557.00,1.36
7556.00,1.36
7555.00,1.36
7554.00,1.36
7553.00,1.36
7552.00,1.36
7551.00,1.36
7550.00,1.36
7549.00,1.36
7548.00,1.36
7547.00,1.36
7546.00,1.36
7545.00,1.36
7544.00,1.36
7543.00,1.36
7542.00,1.36
7541.00,1.36
7540.00,1.36
7539.00,1.36
7538.00,1.36
7537.00,1.36
7536.00,1.36
7535.00,1.36
7534.00,1.36
7533.00,1.36
7532.00,1.36
7531.00,1.36
7530.00,1.36
7529.00,1.36
7528.00,1.36
7527.00,1.36
7526.00,1.36
7525.00,1.36
7524.00,1.36
7523.00,1.36
7522.00,1.36
7521.00,1.36
7520.00,1.36
7519.00,1.35
7518.00,1.35
7517.00,1.35
7516.00,1.35
7515.00,1.35
7514.00,1.35
7513.00,1.35
7512.00,1.35
7511.00,1.35
7510.00,1.35
7509.00,1.35
7508.00,1.35
7507.00,1.35
7506.00,1.35
7505.00,1.35
7504.00,1.35
7503.00,1.35
7502.00,1.35
7501.00,1.35
7500.00,1.35
7499.00,1.35
7498.00,1.35
7497.00,1.34
7496.00,1.34
7495.00,1.34
7494.00,1.34
7493.00,1.34
7492.00,1.34
7491.00,1.34
7490.00,1.34
7489.00,1.33
7488.00,1.33
7487.00,1.33
7486.00,1.33
7485.00,1.33
7484.00,1.33
7483.00,1.33
7482.00,1.33
7481.00,1.33
7480.00,1.33
7479.00,1.33
7478.00,1.33
7477.00,1.33
7476.00,1.33
7475.00,1.33
7474.00,1.33
7473.00,1.33
7472.00,1.33
7471.00,1.33
7470.00,1.33
7469.00,1.33
7468.00,1.33
7467.00,1.33
7466.00,1.33
7465.00,1.33
7464.00,1.33
7463.00,1.33
7462.00,1.33
7461.00,1.33
7460.00,1.32
7459.00,1.32
7458.00,1.32
7457.00,1.32
7456.00,1.32
7455.00,1.32
7454.00,1.32
7453.00,1.32
7452.00,1.32
7451.00,1.32
7450.00,1.32
7449.00,1.32
7448.00,1.32
7447.00,1.32
7446.00,1.32
7445.00,1.32
7444.00,1.32
7443.00,1.32
7442.00,1.32
7441.00,1.32
7440.00,1.32
7439.00,1.32
7438.00,1.32
7437.00,1.32
7436.00,1.32
7435.00,1.32
7434.00,1.32
7433.00,1.32
7432.00,1.31
7431.00,1.31
7430.00,1.31
7429.00,1.31
7428.00,1.31
7427.00,1.31
7426.00,1.31
7425.00,1.31
7424.00,1.31
7423.00,1.31
7422.00,1.31
7421.00,1.31
7420.00,1.30
7419.00,1.30
7418.00,1.30
7417.00,1.30
7416.00,1.30
7415.00,1.30
7414.00,1.30
7413.00,1.30
7412.00,1.30
7411.00,1.30
7410.00,1.30
7409.00,1.30
7408.00,1.30
7407.00,1.30
7406.00,1.30
7405.00,1.30
7404.00,1.30
7403.00,1.30
7402.00,1.30
7401.00,1.30
7400.00,1.30
7399.00,1.30
7398.00,1.30
7397.00,1.30
7396.00,1.30
7395.00,1.30
7394.00,1.30
7393.00,1.29
7392.00,1.29
7391.00,1.29
7390.00,1.29
7389.00,1.29
7388.00,1.29
7387.00,1.28
7386.00,1.28
7385.00,1.28
7384.00,1.28
7383.00,1.28
7382.00,1.28
7381.00,1.28
7380.00,1.27
7379.00,1.27
7378.00,1.27
7377.00,1.27
7376.00,1.27
7375.00,1.27
7374.00,1.27
7373.00,1.27
7372.00,1.27
7371.00,1.27
7370.00,1.27
7369.00,1.27
7368.00,1.27
7367.00,1.27
7366.00,1.27
7365.00,1.27
7364.00,1.27
7363.00,1.27
7362.00,1.27
7361.00,1.27
7360.00,1.27
7359.00,1.27
7358.00,1.27
7357.00,1.27
7356.00,1.27
7355.00,1.27
7354.00,1.28
7353.00,1.28
7352.00,1.28
7351.00,1.28
7350.00,1.28
7349.00,1.28
7348.00,1.28
7347.00,1.28
7346.00,1.28
7345.00,1.28
7344.00,1.28
7343.00,1.28
7342.00,1.28
7341.00,1.28
7340.00,1.28
7339.00,1.28
7338.00,1.28
7337.00,1.28
7336.00,1.28
7335.00,1.28
7334.00,1.28
7333.00,1.28
7332.00,1.28
7331.00,1.28
7330.00,1.28
7329.00,1.28
7328.00,1.28
7327.00,1.28
7326.00,1.27
7325.00,1.27
7324.00,1.27
7323.00,1.27
7322.00,1.27
7321.00,1.27
7320.00,1.27
7319.00,1.27
7318.00,1.27
7317.00,1.26
7316.00,1.26
7315.00,1.26
7314.00,1.26
7313.00,1.26
7312.00,1.26
7311.00,1.26
7310.00,1.26
7309.00,1.25
7308.00,1.25
7307.00,1.25
7306.00,1.25
7305.00,1.25
7304.00,1.25
7303.00,1.25
7302.00,1.25
7301.00,1.25
7300.00,1.25
7299.00,1.25
7298.00,1.25
7297.00,1.25
7296.00,1.25
7295.00,1.25
7294.00,1.25
7293.00,1.25
7292.00,1.25
7291.00,1.25
7290.00,1.25
7289.00,1.25
7288.00,1.25
7287.00,1.25
7286.00,1.24
7285.00,1.24
7284.00,1.24
7283.00,1.24
7282.00,1.24
7281.00,1.24
7280.00,1.24
7279.00,1.24
7278.00,1.24
7277.00,1.23
7276.00,1.23
7275.00,1.23
7274.00,1.23
7273.00,1.23
7272.00,1.23
7271.00,1.23
7270.00,1.22
7269.00,1.22
7268.00,1.22
7267.00,1.22
7266.00,1.22
7265.00,1.22
7264.00,1.22
7263.00,1.21
7262.00,1.21
7261.00,1.21
7260.00,1.21
7259.00,1.21
7258.00,1.21
7257.00,1.21
7256.00,1.21
7255.00,1.21
7254.00,1.20
7253.00,1.20
7252.00,1.20
7251.00,1.20
7250.00,1.19
7249.00,1.19
7248.00,1.19
7247.00,1.19
7246.00,1.18
7245.00,1.18
7244.00,1.18
7243.00,1.17
7242.00,1.17
7241.00,1.17
7240.00,1.16
7239.00,1.16
7238.00,1.16
7237.00,1.15
7236.00,1.15
7235.00,1.15
7234.00,1.15
7233.00,1.14
7232.00,1.14
7231.00,1.14
7230.00,1.14
7229.00,1.13
7228.00,1.13
7227.00,1.13
7226.00,1.13
7225.00,1.13
7224.00,1.12
7223.00,1.12
7222.00,1.12
7221.00,1.12
7220.00,1.11
7219.00,1.11
7218.00,1.11
7217.00,1.10
7216.00,1.10
7215.00,1.10
7214.00,1.09
7213.00,1.09
7212.00,1.08
7211.00,1.08
7210.00,1.08
7209.00,1.07
7208.00,1.07
7207.00,1.06
7206.00,1.06
7205.00,1.05
7204.00,1.05
7203.00,1.05
7202.00,1.04
7201.00,1.04
7200.00,1.03
7199.00,1.03
7198.00,1.03
7197.00,1.02
7196.00,1.02
7195.00,1.01
7194.00,1.01
7193.00,1.01
7192.00,1.00
7191.00,1.00
7190.00,0.99
7189.00,0.99
7188.00,0.99
7187.00,0.98
7186.00,0.98
7185.00,0.97
7184.00,0.97
7183.00,0.96
7182.00,0.96
7181.00,0.96
7180.00,0.95
7179.00,0.95
7178.00,0.94
7177.00,0.94
7176.00,0.94
7175.00,0.93
7174.00,0.93
7173.00,0.92
7172.00,0.92
7171.00,0.92
7170.00,0.92
7169.00,0.91
7168.00,0.91
7167.00,0.91
7166.00,0.90
7165.00,0.90
7164.00,0.90
7163.00,0.90
7162.00,0.89
7161.00,0.89
7160.00,0.89
7159.00,0.89
7158.00,0.88
7157.00,0.88
7156.00,0.88
7155.00,0.87
7154.00,0.87
7153.00,0.87
7152.00,0.86
7151.00,0.86
7150.00,0.86
7149.00,0.86
7148.00,0.85
7147.00,0.85
7146.00,0.85
7145.00,0.85
7144.00,0.84
7143.00,0.84
7142.00,0.84
7141.00,0.84
7140.00,0.83
7139.00,0.83
7138.00,0.83
7137.00,0.82
7136.00,0.82
7135.00,0.82
7134.00,0.81
7133.00,0.81
7132.00,0.81
7131.00,0.80
7130.00,0.80
7129.00,0.80
7128.00,0.80
7127.00,0.79
7126.00,0.79
7125.00,0.79
7124.00,0.78
7123.00,0.78
7122.00,0.78
7121.00,0.78
7120.00,0.77
7119.00,0.77
7118.00,0.77
7117.00,0.76
7116.00,0.76
7115.00,0.76
7114.00,0.76
7113.00,0.75
7112.00,0.75
7111.00,0.75
7110.00,0.74
7109.00,0.74
7108.00,0.74
7107.00,0.73
7106.00,0.73
7105.00,0.73
7104.00,0.72
7103.00,0.72
7102.00,0.72
7101.00,0.72
7100.00,0.71
7099.00,0.71
7098.00,0.71
7097.00,0.71
7096.00,0.70
7095.00,0.70
7094.00,0.70
7093.00,0.70
7092.00,0.69
7091.00,0.69
7090.00,0.69
7089.00,0.69
7088.00,0.69
7087.00,0.69
7086.00,0.69
7085.00,0.68
7084.00,0.68
7083.00,0.68
7082.00,0.68
7081.00,0.68
7080.00,0.68
7079.00,0.68
7078.00,0.67
7077.00,0.67
7076.00,0.67
7075.00,0.67
7074.00,0.67
7073.00,0.67
7072.00,0.67
7071.00,0.66
7070.00,0.66
7069.00,0.66
7068.00,0.66
7067.00,0.66
7066.00,0.66
7065.00,0.65
7064.00,0.65
7063.00,0.65
7062.00,0.65
7061.00,0.65
7060.00,0.65
7059.00,0.65
7058.00,0.65
7057.00,0.64
7056.00,0.64
7055.00,0.64
7054.00,0.64
7053.00,0.64
7052.00,0.64
7051.00,0.64
7050.00,0.64
7049.00,0.64
7048.00,0.64
7047.00,0.63
7046.00,0.63
7045.00,0.63
7044.00,0.63
7043.00,0.63
7042.00,0.63
7041.00,0.63
7040.00,0.63
7039.00,0.63
7038.00,0.63
7037.00,0.62
7036.00,0.62
7035.00,0.62
7034.00,0.62
7033.00,0.62
7032.00,0.62
7031.00,0.62
7030.00,0.62
7029.00,0.61
7028.00,0.61
7027.00,0.61
7026.00,0.61
7025.00,0.61
7024.00,0.61
7023.00,0.61
7022.00,0.61
7021.00,0.60
7020.00,0.60
7019.00,0.60
7018.00,0.60
7017.00,0.60
7016.00,0.60
7015.00,0.60
7014.00,0.60
7013.00,0.60
7012.00,0.60
7011.00,0.60
7010.00,0.60
7009.00,0.60
7008.00,0.60
7007.00,0.60
7006.00,0.60
7005.00,0.60
7004.00,0.60
7003.00,0.60
7002.00,0.60
7001.00,0.60
7000.00,0.59
6999.00,0.59
6998.00,0.59
6997.00,0.59
6996.00,0.59
6995.00,0.59
6994.00,0.58
6993.00,0.58
6992.00,0.58
6991.00,0.58
6990.00,0.58
6989.00,0.57
6988.00,0.57
6987.00,0.57
6986.00,0.57
6985.00,0.57
6984.00,0.57
6983.00,0.56
6982.00,0.56
6981.00,0.56
6980.00,0.56
6979.00,0.56
6978.00,0.56
6977.00,0.56
6976.00,0.56
6975.00,0.56
6974.00,0.56
6973.00,0.56
6972.00,0.56
6971.00,0.56
6970.00,0.56
6969.00,0.56
6968.00,0.56
6967.00,0.56
6966.00,0.56
6965.00,0.56
6964.00,0.56
6963.00,0.56
6962.00,0.56
6961.00,0.56
6960.00,0.56
6959.00,0.56
6958.00,0.56
6957.00,0.56
6956.00,0.56
6955.00,0.56
6954.00,0.55
6953.00,0.55
6952.00,0.55
6951.00,0.55
6950.00,0.55
6949.00,0.55
6948.00,0.55
6947.00,0.55
6946.00,0.55
6945.00,0.55
6944.00,0.55
6943.00,0.55
6942.00,0.55
6941.00,0.55
6940.00,0.55
6939.00,0.55
6938.00,0.55
6937.00,0.55
6936.00,0.55
6935.00,0.55
6934.00,0.55
6933.00,0.55
6932.00,0.55
6931.00,0.55
6930.00,0.55
6929.00,0.55
6928.00,0.55
6927.00,0.55
6926.00,0.55
6925.00,0.54
6924.00,0.54
6923.00,0.54
6922.00,0.54
6921.00,0.54
6920.00,0.54
6919.00,0.54
6918.00,0.54
6917.00,0.54
6916.00,0.54
6915.00,0.54
6914.00,0.54
6913.00,0.54
6912.00,0.54
6911.00,0.54
6910.00,0.54
6909.00,0.54
6908.00,0.54
6907.00,0.54
6906.00,0.54
6905.00,0.54
6904.00,0.55
6903.00,0.55
6902.00,0.55
6901.00,0.55
6900.00,0.55
6899.00,0.55
6898.00,0.55
6897.00,0.55
6896.00,0.55
6895.00,0.55
6894.00,0.55
6893.00,0.55
6892.00,0.55
6891.00,0.55
6890.00,0.55
6889.00,0.55
6888.00,0.55
6887.00,0.55
6886.00,0.55
6885.00,0.55
6884.00,0.55
6883.00,0.55
6882.00,0.55
6881.00,0.55
6880.00,0.55
6879.00,0.55
6878.00,0.55
6877.00,0.55
6876.00,0.55
6875.00,0.55
6874.00,0.55
6873.00,0.55
6872.00,0.55
6871.00,0.55
6870.00,0.55
6869.00,0.55
6868.00,0.55
6867.00,0.55
6866.00,0.55
6865.00,0.55
6864.00,0.55
6863.00,0.55
6862.00,0.55
6861.00,0.55
6860.00,0.55
6859.00,0.55
6858.00,0.55
6857.00,0.55
6856.00,0.55
6855.00,0.55
6854.00,0.55
6853.00,0.55
6852.00,0.55
6851.00,0.55
6850.00,0.55
6849.00,0.55
6848.00,0.55
6847.00,0.55
6846.00,0.55
6845.00,0.55
6844.00,0.55
6843.00,0.55
6842.00,0.55
6841.00,0.55
6840.00,0.55
6839.00,0.55
6838.00,0.55
6837.00,0.55
6836.00,0.55
6835.00,0.55
6834.00,0.55
6833.00,0.55
6832.00,0.55
6831.00,0.55
6830.00,0.55
6829.00,0.55
6828.00,0.55
6827.00,0.55
6826.00,0.55
6825.00,0.55
6824.00,0.55
6823.00,0.55
6822.00,0.55
6821.00,0.55
6820.00,0.55
6819.00,0.55
6818.00,0.55
6817.00,0.55
6816.00,0.55
6815.00,0.55
6814.00,0.55
6813.00,0.56
6812.00,0.56
6811.00,0.56
6810.00,0.56
6809.00,0.56
6808.00,0.56
6807.00,0.56
6806.00,0.57
6805.00,0.57
6804.00,0.57
6803.00,0.57
6802.00,0.57
6801.00,0.57
6800.00,0.57
6799.00,0.57
6798.00,0.57
6797.00,0.57
6796.00,0.57
6795.00,0.57
6794.00,0.58
6793.00,0.57
6792.00,0.57
6791.00,0.57
6790.00,0.57
6789.00,0.57
6788.00,0.57
6787.00,0.57
6786.00,0.57
6785.00,0.57
6784.00,0.57
6783.00,0.57
6782.00,0.57
6781.00,0.57
6780.00,0.57
6779.00,0.57
6778.00,0.57
6777.00,0.57
6776.00,0.57
6775.00,0.57
6774.00,0.57
6773.00,0.57
6772.00,0.57
6771.00,0.57
6770.00,0.57
6769.00,0.57
6768.00,0.58
6767.00,0.58
6766.00,0.58
6765.00,0.58
6764.00,0.58
6763.00,0.58
6762.00,0.58
6761.00,0.58
6760.00,0.58
6759.00,0.58
6758.00,0.59
6757.00,0.59
6756.00,0.59
6755.00,0.59
6754.00,0.59
6753.00,0.59
6752.00,0.59
6751.00,0.59
6750.00,0.59
6749.00,0.59
6748.00,0.59
6747.00,0.59
6746.00,0.59
6745.00,0.59
6744.00,0.59
6743.00,0.60
6742.00,0.60
6741.00,0.60
6740.00,0.60
6739.00,0.60
6738.00,0.60
6737.00,0.60
6736.00,0.60
6735.00,0.60
6734.00,0.61
6733.00,0.61
6732.00,0.61
6731.00,0.61
6730.00,0.61
6729.00,0.61
6728.00,0.61
6727.00,0.61
6726.00,0.61
6725.00,0.61
6724.00,0.62
6723.00,0.62
6722.00,0.62
6721.00,0.62
6720.00,0.62
6719.00,0.62
6718.00,0.62
6717.00,0.62
6716.00,0.62
6715.00,0.62
6714.00,0.63
6713.00,0.63
6712.00,0.63
6711.00,0.63
6710.00,0.63
6709.00,0.63
6708.00,0.63
6707.00,0.63
6706.00,0.63
6705.00,0.63
6704.00,0.63
6703.00,0.63
6702.00,0.63
6701.00,0.63
6700.00,0.63
6699.00,0.63
6698.00,0.63
6697.00,0.63
6696.00,0.63
6695.00,0.63
6694.00,0.63
6693.00,0.64
6692.00,0.64
6691.00,0.64
6690.00,0.64
6689.00,0.64
6688.00,0.65
6687.00,0.65
6686.00,0.65
6685.00,0.65
6684.00,0.65
6683.00,0.66
6682.00,0.66
6681.00,0.66
6680.00,0.66
6679.00,0.66
6678.00,0.66
6677.00,0.66
6676.00,0.66
6675.00,0.66
6674.00,0.67
6673.00,0.67
6672.00,0.67
6671.00,0.67
6670.00,0.67
6669.00,0.67
6668.00,0.67
6667.00,0.67
6666.00,0.67
6665.00,0.67
6664.00,0.67
6663.00,0.67
6662.00,0.67
6661.00,0.67
6660.00,0.67
6659.00,0.67
6658.00,0.67
6657.00,0.68
6656.00,0.68
6655.00,0.68
6654.00,0.68
6653.00,0.68
6652.00,0.68
6651.00,0.68
6650.00,0.68
6649.00,0.69
6648.00,0.69
6647.00,0.69
6646.00,0.69
6645.00,0.69
6644.00,0.69
6643.00,0.69
6642.00,0.70
6641.00,0.70
6640.00,0.70
6639.00,0.70
6638.00,0.70
6637.00,0.70
6636.00,0.70
6635.00,0.71
6634.00,0.71
6633.00,0.71
6632.00,0.71
6631.00,0.71
6630.00,0.71
6629.00,0.72
6628.00,0.72
6627.00,0.72
6626.00,0.72
6625.00,0.72
6624.00,0.72
6623.00,0.73
6622.00,0.73
6621.00,0.73
6620.00,0.73
6619.00,0.73
6618.00,0.73
6617.00,0.73
6616.00,0.73
6615.00,0.73
6614.00,0.74
6613.00,0.74
6612.00,0.74
6611.00,0.74
6610.00,0.74
6609.00,0.74
6608.00,0.74
6607.00,0.74
6606.00,0.74
6605.00,0.74
6604.00,0.74
6603.00,0.74
6602.00,0.75
6601.00,0.75
6600.00,0.75
6599.00,0.75
6598.00,0.75
6597.00,0.75
6596.00,0.75
6595.00,0.76
6594.00,0.76
6593.00,0.76
6592.00,0.76
6591.00,0.76
6590.00,0.76
6589.00,0.76
6588.00,0.77
6587.00,0.77
6586.00,0.77
6585.00,0.77
6584.00,0.77
6583.00,0.77
6582.00,0.77
6581.00,0.77
6580.00,0.77
6579.00,0.77
6578.00,0.77
6577.00,0.78
6576.00,0.78
6575.00,0.78
6574.00,0.78
6573.00,0.78
6572.00,0.78
6571.00,0.78
6570.00,0.78
6569.00,0.78
6568.00,0.78
6567.00,0.79
6566.00,0.79
6565.00,0.79
6564.00,0.79
6563.00,0.79
6562.00,0.79
6561.00,0.79
6560.00,0.79
6559.00,0.79
6558.00,0.79
6557.00,0.79
6556.00,0.80
6555.00,0.80
6554.00,0.80
6553.00,0.80
6552.00,0.80
6551.00,0.80
6550.00,0.80
6549.00,0.80
6548.00,0.80
6547.00,0.80
6546.00,0.80
6545.00,0.80
6544.00,0.81
6543.00,0.81
6542.00,0.81
6541.00,0.81
6540.00,0.81
6539.00,0.81
6538.00,0.81
6537.00,0.81
6536.00,0.81
6535.00,0.82
6534.00,0.82
6533.00,0.82
6532.00,0.82
6531.00,0.82
6530.00,0.82
6529.00,0.82
6528.00,0.82
6527.00,0.82
6526.00,0.82
6525.00,0.82
6524.00,0.82
6523.00,0.82
6522.00,0.83
6521.00,0.83
6520.00,0.83
6519.00,0.83
6518.00,0.83
6517.00,0.83
6516.00,0.83
6515.00,0.83
6514.00,0.84
6513.00,0.84
6512.00,0.84
6511.00,0.84
6510.00,0.84
6509.00,0.84
6508.00,0.85
6507.00,0.85
6506.00,0.85
6505.00,0.85
6504.00,0.85
6503.00,0.85
6502.00,0.85
6501.00,0.86
6500.00,0.86
6499.00,0.86
6498.00,0.86
6497.00,0.86
6496.00,0.86
6495.00,0.86
6494.00,0.86
6493.00,0.86
6492.00,0.86
6491.00,0.86
6490.00,0.86
6489.00,0.86
6488.00,0.86
6487.00,0.87
6486.00,0.87
6485.00,0.87
6484.00,0.87
6483.00,0.87
6482.00,0.87
6481.00,0.87
6480.00,0.87
6479.00,0.87
6478.00,0.87
6477.00,0.87
6476.00,0.87
6475.00,0.87
6474.00,0.87
6473.00,0.87
6472.00,0.88
6471.00,0.88
6470.00,0.88
6469.00,0.88
6468.00,0.88
6467.00,0.88
6466.00,0.88
6465.00,0.88
6464.00,0.88
6463.00,0.88
6462.00,0.88
6461.00,0.89
6460.00,0.89
6459.00,0.89
6458.00,0.89
6457.00,0.89
6456.00,0.89
6455.00,0.89
6454.00,0.89
6453.00,0.89
6452.00,0.89
6451.00,0.89
6450.00,0.89
6449.00,0.89
6448.00,0.89
6447.00,0.89
6446.00,0.89
6445.00,0.89
6444.00,0.89
6443.00,0.89
6442.00,0.89
6441.00,0.90
6440.00,0.90
6439.00,0.90
6438.00,0.90
6437.00,0.90
6436.00,0.90
6435.00,0.90
6434.00,0.90
6433.00,0.90
6432.00,0.90
6431.00,0.90
6430.00,0.90
6429.00,0.91
6428.00,0.91
6427.00,0.91
6426.00,0.91
6425.00,0.91
6424.00,0.91
6423.00,0.91
6422.00,0.92
6421.00,0.92
6420.00,0.92
6419.00,0.92
6418.00,0.92
6417.00,0.92
6416.00,0.93
6415.00,0.93
6414.00,0.93
6413.00,0.93
6412.00,0.93
6411.00,0.93
6410.00,0.94
6409.00,0.94
6408.00,0.94
6407.00,0.94
6406.00,0.94
6405.00,0.94
6404.00,0.94
6403.00,0.94
6402.00,0.95
6401.00,0.95
6400.00,0.95
6399.00,0.95
6398.00,0.95
6397.00,0.95
6396.00,0.95
6395.00,0.95
6394.00,0.95
6393.00,0.95
6392.00,0.95
6391.00,0.95
6390.00,0.95
6389.00,0.95
6388.00,0.95
6387.00,0.95
6386.00,0.95
6385.00,0.95
6384.00,0.96
6383.00,0.96
6382.00,0.96
6381.00,0.96
6380.00,0.96
6379.00,0.96
6378.00,0.96
6377.00,0.96
6376.00,0.96
6375.00,0.96
6374.00,0.96
6373.00,0.96
6372.00,0.96
6371.00,0.96
6370.00,0.97
6369.00,0.97
6368.00,0.97
6367.00,0.97
6366.00,0.97
6365.00,0.97
6364.00,0.97
6363.00,0.97
6362.00,0.97
6361.00,0.97
6360.00,0.97
6359.00,0.97
6358.00,0.97
6357.00,0.97
6356.00,0.97
6355.00,0.98
6354.00,0.98
6353.00,0.98
6352.00,0.98
6351.00,0.98
6350.00,0.98
6349.00,0.98
6348.00,0.98
6347.00,0.98
6346.00,0.98
6345.00,0.99
6344.00,0.99
6343.00,0.99
6342.00,0.99
6341.00,0.99
6340.00,0.99
6339.00,0.99
6338.00,0.99
6337.00,1.00
6336.00,1.00
6335.00,1.00
6334.00,1.00
6333.00,1.00
6332.00,1.00
6331.00,1.00
6330.00,1.01
6329.00,1.01
6328.00,1.01
6327.00,1.01
6326.00,1.01
6325.00,1.01
6324.00,1.02
6323.00,1.02
6322.00,1.02
6321.00,1.02
6320.00,1.02
6319.00,1.02
6318.00,1.02
6317.00,1.03
6316.00,1.03
6315.00,1.03
6314.00,1.03
6313.00,1.03
6312.00,1.04
6311.00,1.04
6310.00,1.04
6309.00,1.04
6308.00,1.04
6307.00,1.04
6306.00,1.05
6305.00,1.05
6304.00,1.05
6303.00,1.05
6302.00,1.05
6301.00,1.05
6300.00,1.05
6299.00,1.05
6298.00,1.05
6297.00,1.05
6296.00,1.05
6295.00,1.06
6294.00,1.06
6293.00,1.06
6292.00,1.06
6291.00,1.06
6290.00,1.06
6289.00,1.06
6288.00,1.06
6287.00,1.06
6286.00,1.06
6285.00,1.06
6284.00,1.06
6283.00,1.06
6282.00,1.06
6281.00,1.06
6280.00,1.06
6279.00,1.06
6278.00,1.06
6277.00,1.06
6276.00,1.06
6275.00,1.06
6274.00,1.06
6273.00,1.07
6272.00,1.07
6271.00,1.07
6270.00,1.07
6269.00,1.07
6268.00,1.07
6267.00,1.07
6266.00,1.08
6265.00,1.08
6264.00,1.08
6263.00,1.08
6262.00,1.08
6261.00,1.09
6260.00,1.09
6259.00,1.09
6258.00,1.09
6257.00,1.09
6256.00,1.10
6255.00,1.10
6254.00,1.10
6253.00,1.10
6252.00,1.10
6251.00,1.10
6250.00,1.10
6249.00,1.10
6248.00,1.10
6247.00,1.10
6246.00,1.10
6245.00,1.10
6244.00,1.10
6243.00,1.11
6242.00,1.11
6241.00,1.11
6240.00,1.11
6239.00,1.11
6238.00,1.11
6237.00,1.11
6236.00,1.11
6235.00,1.11
6234.00,1.11
6233.00,1.12
6232.00,1.12
6231.00,1.12
6230.00,1.12
6229.00,1.12
6228.00,1.12
6227.00,1.13
6226.00,1.13
6225.00,1.13
6224.00,1.13
6223.00,1.13
6222.00,1.13
6221.00,1.13
6220.00,1.14
6219.00,1.14
6218.00,1.14
6217.00,1.14
6216.00,1.14
6215.00,1.14
6214.00,1.14
6213.00,1.15
6212.00,1.15
6211.00,1.15
6210.00,1.15
6209.00,1.15
6208.00,1.15
6207.00,1.15
6206.00,1.16
6205.00,1.16
6204.00,1.16
6203.00,1.16
6202.00,1.16
6201.00,1.16
6200.00,1.16
6199.00,1.17
6198.00,1.17
6197.00,1.17
6196.00,1.17
6195.00,1.17
6194.00,1.17
6193.00,1.17
6192.00,1.17
6191.00,1.18
6190.00,1.18
6189.00,1.18
6188.00,1.18
6187.00,1.18
6186.00,1.18
6185.00,1.18
6184.00,1.18
6183.00,1.18
6182.00,1.18
6181.00,1.19
6180.00,1.19
6179.00,1.19
6178.00,1.19
6177.00,1.19
6176.00,1.19
6175.00,1.19
6174.00,1.19
6173.00,1.19
6172.00,1.19
6171.00,1.20
6170.00,1.20
6169.00,1.20
6168.00,1.20
6167.00,1.20
6166.00,1.20
6165.00,1.20
6164.00,1.20
6163.00,1.20
6162.00,1.20
6161.00,1.21
6160.00,1.21
6159.00,1.21
6158.00,1.21
6157.00,1.21
6156.00,1.21
6155.00,1.21
6154.00,1.22
6153.00,1.22
6152.00,1.22
6151.00,1.22
6150.00,1.22
6149.00,1.22
6148.00,1.22
6147.00,1.23
6146.00,1.23
6145.00,1.23
6144.00,1.23
6143.00,1.23
6142.00,1.23
6141.00,1.24
6140.00,1.24
6139.00,1.24
6138.00,1.24
6137.00,1.24
6136.00,1.24
6135.00,1.24
6134.00,1.24
6133.00,1.24
6132.00,1.25
6131.00,1.25
6130.00,1.25
6129.00,1.25
6128.00,1.25
6127.00,1.25
6126.00,1.25
6125.00,1.25
6124.00,1.25
6123.00,1.25
6122.00,1.26
6121.00,1.26
6120.00,1.26
6119.00,1.26
6118.00,1.26
6117.00,1.26
6116.00,1.26
6115.00,1.26
6114.00,1.27
6113.00,1.27
6112.00,1.27
6111.00,1.27
6110.00,1.27
6109.00,1.27
6108.00,1.27
6107.00,1.27
6106.00,1.28
6105.00,1.28
6104.00,1.28
6103.00,1.28
6102.00,1.28
6101.00,1.28
6100.00,1.28
6099.00,1.28
6098.00,1.28
6097.00,1.28
6096.00,1.28
6095.00,1.28
6094.00,1.28
6093.00,1.28
6092.00,1.28
6091.00,1.28
6090.00,1.28
6089.00,1.29
6088.00,1.29
6087.00,1.29
6086.00,1.29
6085.00,1.29
6084.00,1.29
6083.00,1.29
6082.00,1.29
6081.00,1.30
6080.00,1.30
6079.00,1.30
6078.00,1.30
6077.00,1.30
6076.00,1.30
6075.00,1.31
6074.00,1.31
6073.00,1.31
6072.00,1.31
6071.00,1.31
6070.00,1.31
6069.00,1.31
6068.00,1.31
6067.00,1.32
6066.00,1.32
6065.00,1.32
6064.00,1.32
6063.00,1.32
6062.00,1.32
6061.00,1.32
6060.00,1.32
6059.00,1.33
6058.00,1.33
6057.00,1.33
6056.00,1.33
6055.00,1.33
6054.00,1.33
6053.00,1.33
6052.00,1.33
6051.00,1.33
6050.00,1.33
6049.00,1.33
6048.00,1.33
6047.00,1.33
6046.00,1.33
6045.00,1.33
6044.00,1.33
6043.00,1.33
6042.00,1.33
6041.00,1.33
6040.00,1.33
6039.00,1.33
6038.00,1.33
6037.00,1.33
6036.00,1.33
6035.00,1.33
6034.00,1.33
6033.00,1.33
6032.00,1.34
6031.00,1.34
6030.00,1.34
6029.00,1.34
6028.00,1.34
6027.00,1.34
6026.00,1.34
6025.00,1.34
6024.00,1.34
6023.00,1.34
6022.00,1.35
6021.00,1.35
6020.00,1.35
6019.00,1.35
6018.00,1.35
6017.00,1.35
6016.00,1.35
6015.00,1.35
6014.00,1.35
6013.00,1.35
6012.00,1.35
6011.00,1.35
6010.00,1.35
6009.00,1.35
6008.00,1.35
6007.00,1.35
6006.00,1.35
6005.00,1.35
6004.00,1.35
6003.00,1.35
6002.00,1.35
6001.00,1.34
6000.00,1.34
5999.00,1.34
5998.00,1.34
5997.00,1.34
5996.00,1.34
5995.00,1.34
5994.00,1.34
5993.00,1.34
5992.00,1.33
5991.00,1.33
5990.00,1.33
5989.00,1.33
5988.00,1.33
5987.00,1.33
5986.00,1.32
5985.00,1.32
5984.00,1.32
5983.00,1.32
5982.00,1.32
5981.00,1.32
5980.00,1.31
5979.00,1.31
5978.00,1.31
5977.00,1.31
5976.00,1.31
5975.00,1.30
5974.00,1.30
5973.00,1.30
5972.00,1.29
5971.00,1.29
5970.00,1.28
5969.00,1.28
5968.00,1.27
5967.00,1.27
5966.00,1.26
5965.00,1.26
5964.00,1.25
5963.00,1.25
5962.00,1.24
5961.00,1.24
5960.00,1.23
5959.00,1.22
5958.00,1.22
5957.00,1.21
5956.00,1.21
5955.00,1.20
5954.00,1.20
5953.00,1.20
5952.00,1.19
5951.00,1.19
5950.00,1.19
5949.00,1.18
5948.00,1.18
5947.00,1.18
5946.00,1.18
5945.00,1.17
5944.00,1.17
5943.00,1.17
5942.00,1.17
5941.00,1.17
5940.00,1.17
5939.00,1.17
5938.00,1.17
5937.00,1.17
5936.00,1.17
5935.00,1.17
5934.00,1.17
5933.00,1.17
5932.00,1.17
5931.00,1.17
5930.00,1.17
5929.00,1.17
5928.00,1.17
5927.00,1.17
5926.00,1.17
5925.00,1.17
5924.00,1.17
5923.00,1.16
5922.00,1.16
5921.00,1.16
5920.00,1.16
5919.00,1.16
5918.00,1.16
5917.00,1.15
5916.00,1.15
5915.00,1.15
5914.00,1.15
5913.00,1.14
5912.00,1.14
5911.00,1.14
5910.00,1.14
5909.00,1.14
5908.00,1.14
5907.00,1.14
5906.00,1.13
5905.00,1.13
5904.00,1.13
5903.00,1.13
5902.00,1.13
5901.00,1.13
5900.00,1.13
5899.00,1.13
5898.00,1.14
5897.00,1.14
5896.00,1.14
5895.00,1.14
5894.00,1.14
5893.00,1.14
5892.00,1.15
5891.00,1.15
5890.00,1.15
5889.00,1.15
5888.00,1.15
5887.00,1.16
5886.00,1.16
5885.00,1.16
5884.00,1.16
5883.00,1.17
5882.00,1.17
5881.00,1.17
5880.00,1.17
5879.00,1.17
5878.00,1.18
5877.00,1.18
5876.00,1.18
5875.00,1.18
5874.00,1.18
5873.00,1.19
5872.00,1.19
5871.00,1.19
5870.00,1.19
5869.00,1.19
5868.00,1.19
5867.00,1.19
5866.00,1.20
5865.00,1.20
5864.00,1.20
5863.00,1.20
5862.00,1.20
5861.00,1.20
5860.00,1.20
5859.00,1.21
5858.00,1.21
5857.00,1.21
5856.00,1.21
5855.00,1.21
5854.00,1.21
5853.00,1.21
5852.00,1.22
5851.00,1.22
5850.00,1.22
5849.00,1.22
5848.00,1.22
5847.00,1.22
5846.00,1.22
5845.00,1.22
5844.00,1.22
5843.00,1.22
5842.00,1.22
5841.00,1.22
5840.00,1.22
5839.00,1.22
5838.00,1.22
5837.00,1.22
5836.00,1.22
5835.00,1.22
5834.00,1.22
5833.00,1.22
5832.00,1.22
5831.00,1.22
5830.00,1.22
5829.00,1.22
5828.00,1.22
5827.00,1.22
5826.00,1.22
5825.00,1.22
5824.00,1.22
5823.00,1.22
5822.00,1.22
5821.00,1.22
5820.00,1.22
5819.00,1.22
5818.00,1.22
5817.00,1.22
5816.00,1.22
5815.00,1.22
5814.00,1.22
5813.00,1.22
5812.00,1.22
5811.00,1.22
5810.00,1.21
5809.00,1.21
5808.00,1.21
5807.00,1.21
5806.00,1.21
5805.00,1.21
5804.00,1.21
5803.00,1.21
5802.00,1.20
5801.00,1.20
5800.00,1.20
5799.00,1.20
5798.00,1.20
5797.00,1.19
5796.00,1.19
5795.00,1.19
5794.00,1.19
5793.00,1.19
5792.00,1.18
5791.00,1.18
5790.00,1.18
5789.00,1.18
5788.00,1.18
5787.00,1.17
5786.00,1.17
5785.00,1.17
5784.00,1.17
5783.00,1.17
5782.00,1.17
5781.00,1.17
5780.00,1.17
5779.00,1.17
5778.00,1.17
5777.00,1.17
5776.00,1.17
5775.00,1.17
5774.00,1.17
5773.00,1.17
5772.00,1.17
5771.00,1.17
5770.00,1.17
5769.00,1.17
5768.00,1.17
5767.00,1.17
5766.00,1.17
5765.00,1.18
5764.00,1.18
5763.00,1.18
5762.00,1.18
5761.00,1.18
5760.00,1.18
5759.00,1.19
5758.00,1.19
5757.00,1.19
5756.00,1.19
5755.00,1.20
5754.00,1.20
5753.00,1.20
5752.00,1.20
5751.00,1.21
5750.00,1.21
5749.00,1.21
5748.00,1.21
5747.00,1.21
5746.00,1.21
5745.00,1.22
5744.00,1.22
5743.00,1.22
5742.00,1.22
5741.00,1.22
5740.00,1.22
5739.00,1.22
5738.00,1.22
5737.00,1.22
5736.00,1.22
5735.00,1.23
5734.00,1.23
5733.00,1.23
5732.00,1.23
5731.00,1.23
5730.00,1.23
5729.00,1.23
5728.00,1.23
5727.00,1.23
5726.00,1.23
5725.00,1.23
5724.00,1.23
5723.00,1.23
5722.00,1.23
5721.00,1.23
5720.00,1.23
5719.00,1.23
5718.00,1.23
5717.00,1.23
5716.00,1.23
5715.00,1.23
5714.00,1.23
5713.00,1.23
5712.00,1.23
5711.00,1.23
5710.00,1.23
5709.00,1.23
5708.00,1.22
5707.00,1.22
5706.00,1.22
5705.00,1.22
5704.00,1.22
5703.00,1.22
5702.00,1.22
5701.00,1.22
5700.00,1.22
5699.00,1.22
5698.00,1.22
5697.00,1.22
5696.00,1.21
5695.00,1.21
5694.00,1.21
5693.00,1.21
5692.00,1.21
5691.00,1.21
5690.00,1.21
5689.00,1.20
5688.00,1.20
5687.00,1.20
5686.00,1.20
5685.00,1.20
5684.00,1.19
5683.00,1.19
5682.00,1.19
5681.00,1.19
5680.00,1.19
5679.00,1.19
5678.00,1.19
5677.00,1.19
5676.00,1.19
5675.00,1.19
5674.00,1.19
5673.00,1.19
5672.00,1.19
5671.00,1.19
5670.00,1.19
5669.00,1.19
5668.00,1.19
5667.00,1.19
5666.00,1.19
5665.00,1.19
5664.00,1.19
5663.00,1.19
5662.00,1.19
5661.00,1.19
5660.00,1.20
5659.00,1.20
5658.00,1.20
5657.00,1.20
5656.00,1.20
5655.00,1.20
5654.00,1.20
5653.00,1.21
5652.00,1.21
5651.00,1.21
5650.00,1.21
5649.00,1.21
5648.00,1.21
5647.00,1.21
5646.00,1.22
5645.00,1.22
5644.00,1.22
5643.00,1.22
5642.00,1.22
5641.00,1.22
5640.00,1.22
5639.00,1.22
5638.00,1.22
5637.00,1.23
5636.00,1.23
5635.00,1.23
5634.00,1.23
5633.00,1.23
5632.00,1.23
5631.00,1.23
5630.00,1.23
5629.00,1.23
5628.00,1.23
5627.00,1.24
5626.00,1.24
5625.00,1.24
5624.00,1.24
5623.00,1.24
5622.00,1.24
5621.00,1.24
5620.00,1.24
5619.00,1.25
5618.00,1.25
5617.00,1.25
5616.00,1.25
5615.00,1.25
5614.00,1.25
5613.00,1.25
5612.00,1.25
5611.00,1.25
5610.00,1.25
5609.00,1.25
5608.00,1.26
5607.00,1.26
5606.00,1.26
5605.00,1.26
5604.00,1.26
5603.00,1.26
5602.00,1.26
5601.00,1.26
5600.00,1.26
5599.00,1.26
5598.00,1.26
5597.00,1.26
5596.00,1.26
5595.00,1.26
5594.00,1.26
5593.00,1.27
5592.00,1.27
5591.00,1.27
5590.00,1.27
5589.00,1.27
5588.00,1.27
5587.00,1.28
5586.00,1.28
5585.00,1.28
5584.00,1.28
5583.00,1.28
5582.00,1.28
5581.00,1.29
5580.00,1.29
5579.00,1.29
5578.00,1.29
5577.00,1.29
5576.00,1.29
5575.00,1.29
5574.00,1.29
5573.00,1.29
5572.00,1.29
5571.00,1.29
5570.00,1.29
5569.00,1.30
5568.00,1.30
5567.00,1.30
5566.00,1.30
5565.00,1.30
5564.00,1.30
5563.00,1.30
5562.00,1.30
5561.00,1.30
5560.00,1.30
5559.00,1.30
5558.00,1.30
5557.00,1.30
5556.00,1.30
5555.00,1.31
5554.00,1.31
5553.00,1.31
5552.00,1.31
5551.00,1.31
5550.00,1.31
5549.00,1.31
5548.00,1.31
5547.00,1.31
5546.00,1.31
5545.00,1.31
5544.00,1.31
5543.00,1.31
5542.00,1.31
5541.00,1.32
5540.00,1.32
5539.00,1.32
5538.00,1.32
5537.00,1.32
5536.00,1.32
5535.00,1.32
5534.00,1.33
5533.00,1.33
5532.00,1.33
5531.00,1.33
5530.00,1.33
5529.00,1.33
5528.00,1.33
5527.00,1.33
5526.00,1.33
5525.00,1.33
5524.00,1.33
5523.00,1.33
5522.00,1.33
5521.00,1.33
5520.00,1.33
5519.00,1.34
5518.00,1.34
5517.00,1.34
5516.00,1.34
5515.00,1.34
5514.00,1.34
5513.00,1.34
5512.00,1.34
5511.00,1.34
5510.00,1.34
5509.00,1.34
5508.00,1.34
5507.00,1.34
5506.00,1.34
5505.00,1.34
5504.00,1.34
5503.00,1.34
5502.00,1.34
5501.00,1.34
5500.00,1.34
5499.00,1.34
5498.00,1.35
5497.00,1.35
5496.00,1.35
5495.00,1.35
5494.00,1.35
5493.00,1.35
5492.00,1.35
5491.00,1.35
5490.00,1.35
5489.00,1.35
5488.00,1.36
5487.00,1.36
5486.00,1.36
5485.00,1.36
5484.00,1.36
5483.00,1.36
5482.00,1.36
5481.00,1.37
5480.00,1.37
5479.00,1.37
5478.00,1.37
5477.00,1.37
5476.00,1.37
5475.00,1.37
5474.00,1.37
5473.00,1.37
5472.00,1.37
5471.00,1.37
5470.00,1.37
5469.00,1.37
5468.00,1.37
5467.00,1.37
5466.00,1.37
5465.00,1.37
5464.00,1.37
5463.00,1.37
5462.00,1.37
5461.00,1.37
5460.00,1.37
5459.00,1.37
5458.00,1.37
5457.00,1.37
5456.00,1.37
5455.00,1.37
5454.00,1.38
5453.00,1.38
5452.00,1.38
5451.00,1.38
5450.00,1.38
5449.00,1.38
5448.00,1.38
5447.00,1.38
5446.00,1.38
5445.00,1.38
5444.00,1.38
5443.00,1.38
5442.00,1.38
5441.00,1.38
5440.00,1.38
5439.00,1.38
5438.00,1.38
5437.00,1.38
5436.00,1.38
5435.00,1.38
5434.00,1.38
5433.00,1.38
5432.00,1.38
5431.00,1.38
5430.00,1.38
5429.00,1.38
5428.00,1.38
5427.00,1.38
5426.00,1.38
5425.00,1.38
5424.00,1.38
5423.00,1.38
5422.00,1.38
5421.00,1.38
5420.00,1.38
5419.00,1.38
5418.00,1.38
5417.00,1.38
5416.00,1.38
5415.00,1.38
5414.00,1.38
5413.00,1.37
5412.00,1.37
5411.00,1.37
5410.00,1.37
5409.00,1.37
5408.00,1.37
5407.00,1.37
5406.00,1.37
5405.00,1.37
5404.00,1.37
5403.00,1.37
5402.00,1.37
5401.00,1.36
5400.00,1.36
5399.00,1.36
5398.00,1.36
5397.00,1.36
5396.00,1.36
5395.00,1.35
5394.00,1.35
5393.00,1.35
5392.00,1.35
5391.00,1.34
5390.00,1.34
5389.00,1.34
5388.00,1.34
5387.00,1.33
5386.00,1.33
5385.00,1.33
5384.00,1.33
5383.00,1.32
5382.00,1.32
5381.00,1.32
5380.00,1.31
5379.00,1.31
5378.00,1.30
5377.00,1.30
5376.00,1.30
5375.00,1.29
5374.00,1.29
5373.00,1.28
5372.00,1.28
5371.00,1.27
5370.00,1.27
5369.00,1.26
5368.00,1.26
5367.00,1.25
5366.00,1.25
5365.00,1.24
5364.00,1.24
5363.00,1.23
5362.00,1.22
5361.00,1.22
5360.00,1.21
5359.00,1.20
5358.00,1.19
5357.00,1.19
5356.00,1.18
5355.00,1.17
5354.00,1.16
5353.00,1.15
5352.00,1.15
5351.00,1.14
5350.00,1.13
5349.00,1.12
5348.00,1.11
5347.00,1.10
5346.00,1.09
5345.00,1.08
5344.00,1.07
5343.00,1.06
5342.00,1.05
5341.00,1.04
5340.00,1.03
5339.00,1.02
5338.00,1.01
5337.00,1.00
5336.00,0.99
5335.00,0.99
5334.00,0.98
5333.00,0.97
5332.00,0.96
5331.00,0.95
5330.00,0.94
5329.00,0.93
5328.00,0.92
5327.00,0.91
5326.00,0.90
5325.00,0.89
5324.00,0.88
5323.00,0.87
5322.00,0.86
5321.00,0.85
5320.00,0.84
5319.00,0.83
5318.00,0.82
5317.00,0.81
5316.00,0.80
5315.00,0.79
5314.00,0.78
5313.00,0.77
5312.00,0.76
5311.00,0.75
5310.00,0.74
5309.00,0.74
5308.00,0.73
5307.00,0.72
5306.00,0.71
5305.00,0.71
5304.00,0.70
5303.00,0.69
5302.00,0.69
5301.00,0.68
5300.00,0.68
5299.00,0.67
5298.00,0.67
5297.00,0.66
5296.00,0.66
5295.00,0.66
5294.00,0.65
5293.00,0.65
5292.00,0.64
5291.00,0.64
5290.00,0.64
5289.00,0.64
5288.00,0.63
5287.00,0.63
5286.00,0.63
5285.00,0.63
5284.00,0.63
5283.00,0.63
5282.00,0.62
5281.00,0.62
5280.00,0.62
5279.00,0.62
5278.00,0.62
5277.00,0.62
5276.00,0.62
5275.00,0.62
5274.00,0.62
5273.00,0.62
5272.00,0.62
5271.00,0.62
5270.00,0.62
5269.00,0.62
5268.00,0.62
5267.00,0.61
5266.00,0.61
5265.00,0.61
5264.00,0.61
5263.00,0.61
5262.00,0.61
5261.00,0.61
5260.00,0.61
5259.00,0.61
5258.00,0.61
5257.00,0.61
5256.00,0.61
5255.00,0.61
5254.00,0.61
5253.00,0.61
5252.00,0.61
5251.00,0.61
5250.00,0.61
5249.00,0.61
5248.00,0.60
5247.00,0.60
5246.00,0.60
5245.00,0.60
5244.00,0.60
5243.00,0.60
5242.00,0.61
5241.00,0.61
5240.00,0.61
5239.00,0.61
5238.00,0.61
5237.00,0.61
5236.00,0.61
5235.00,0.61
5234.00,0.61
5233.00,0.61
5232.00,0.61
5231.00,0.62
5230.00,0.62
5229.00,0.62
5228.00,0.62
5227.00,0.62
5226.00,0.62
5225.00,0.62
5224.00,0.62
5223.00,0.62
5222.00,0.62
5221.00,0.62
5220.00,0.62
5219.00,0.62
5218.00,0.62
5217.00,0.62
5216.00,0.62
5215.00,0.62
5214.00,0.62
5213.00,0.62
5212.00,0.62
5211.00,0.62
5210.00,0.62
5209.00,0.62
5208.00,0.62
5207.00,0.62
5206.00,0.62
5205.00,0.62
5204.00,0.62
5203.00,0.62
5202.00,0.62
5201.00,0.63
5200.00,0.63
5199.00,0.63
5198.00,0.63
5197.00,0.63
5196.00,0.63
5195.00,0.63
5194.00,0.63
5193.00,0.63
5192.00,0.63
5191.00,0.63
5190.00,0.63
5189.00,0.63
5188.00,0.63
5187.00,0.63
5186.00,0.63
5185.00,0.63
5184.00,0.63
5183.00,0.63
5182.00,0.63
5181.00,0.63
5180.00,0.63
5179.00,0.63
5178.00,0.63
5177.00,0.63
5176.00,0.63
5175.00,0.63
5174.00,0.63
5173.00,0.63
5172.00,0.63
5171.00,0.63
5170.00,0.64
5169.00,0.64
5168.00,0.64
5167.00,0.64
5166.00,0.64
5165.00,0.64
5164.00,0.64
5163.00,0.64
5162.00,0.64
5161.00,0.65
5160.00,0.65
5159.00,0.65
5158.00,0.65
5157.00,0.65
5156.00,0.65
5155.00,0.65
5154.00,0.65
5153.00,0.65
5152.00,0.65
5151.00,0.65
5150.00,0.65
5149.00,0.65
5148.00,0.65
5147.00,0.65
5146.00,0.65
5145.00,0.65
5144.00,0.65
5143.00,0.65
5142.00,0.65
5141.00,0.65
5140.00,0.65
5139.00,0.65
5138.00,0.66
5137.00,0.66
5136.00,0.66
5135.00,0.66
5134.00,0.66
5133.00,0.66
5132.00,0.66
5131.00,0.66
5130.00,0.66
5129.00,0.66
5128.00,0.65
5127.00,0.65
5126.00,0.65
5125.00,0.65
5124.00,0.65
5123.00,0.65
5122.00,0.65
5121.00,0.66
5120.00,0.66
5119.00,0.66
5118.00,0.66
5117.00,0.66
5116.00,0.66
5115.00,0.66
5114.00,0.66
5113.00,0.66
5112.00,0.66
5111.00,0.66
5110.00,0.66
5109.00,0.66
5108.00,0.67
5107.00,0.67
5106.00,0.67
5105.00,0.67
5104.00,0.67
5103.00,0.67
5102.00,0.67
5101.00,0.67
5100.00,0.67
5099.00,0.67
5098.00,0.67
5097.00,0.67
5096.00,0.67
5095.00,0.68
5094.00,0.68
5093.00,0.68
5092.00,0.68
5091.00,0.68
5090.00,0.68
5089.00,0.68
5088.00,0.68
5087.00,0.68
5086.00,0.68
5085.00,0.68
5084.00,0.68
5083.00,0.68
5082.00,0.68
5081.00,0.68
5080.00,0.68
5079.00,0.69
5078.00,0.69
5077.00,0.69
5076.00,0.69
5075.00,0.69
5074.00,0.69
5073.00,0.69
5072.00,0.69
5071.00,0.69
5070.00,0.69
5069.00,0.69
5068.00,0.69
5067.00,0.69
5066.00,0.69
5065.00,0.69
5064.00,0.69
5063.00,0.69
5062.00,0.69
5061.00,0.70
5060.00,0.70
5059.00,0.70
5058.00,0.70
5057.00,0.70
5056.00,0.70
5055.00,0.70
5054.00,0.70
5053.00,0.70
5052.00,0.70
5051.00,0.70
5050.00,0.70
5049.00,0.71
5048.00,0.71
5047.00,0.71
5046.00,0.71
5045.00,0.71
5044.00,0.71
5043.00,0.71
5042.00,0.71
5041.00,0.71
5040.00,0.71
5039.00,0.71
5038.00,0.71
5037.00,0.71
5036.00,0.71
5035.00,0.71
5034.00,0.71
5033.00,0.71
5032.00,0.71
5031.00,0.71
5030.00,0.71
5029.00,0.71
5028.00,0.71
5027.00,0.71
5026.00,0.71
5025.00,0.71
5024.00,0.71
5023.00,0.72
5022.00,0.72
5021.00,0.72
5020.00,0.72
5019.00,0.72
5018.00,0.72
5017.00,0.72
5016.00,0.72
5015.00,0.72
5014.00,0.73
5013.00,0.73
5012.00,0.73
5011.00,0.73
5010.00,0.73
5009.00,0.73
5008.00,0.73
5007.00,0.73
5006.00,0.73
5005.00,0.74
5004.00,0.74
5003.00,0.74
5002.00,0.74
5001.00,0.74
5000.00,0.74
4999.00,0.74
4998.00,0.74
4997.00,0.74
4996.00,0.74
4995.00,0.74
4994.00,0.74
4993.00,0.74
4992.00,0.74
4991.00,0.74
4990.00,0.74
4989.00,0.74
4988.00,0.74
4987.00,0.74
4986.00,0.74
4985.00,0.74
4984.00,0.75
4983.00,0.75
4982.00,0.75
4981.00,0.75
4980.00,0.75
4979.00,0.75
4978.00,0.75
4977.00,0.75
4976.00,0.75
4975.00,0.75
4974.00,0.75
4973.00,0.76
4972.00,0.76
4971.00,0.76
4970.00,0.76
4969.00,0.76
4968.00,0.76
4967.00,0.76
4966.00,0.76
4965.00,0.77
4964.00,0.77
4963.00,0.77
4962.00,0.77
4961.00,0.77
4960.00,0.77
4959.00,0.77
4958.00,0.77
4957.00,0.78
4956.00,0.78
4955.00,0.78
4954.00,0.78
4953.00,0.78
4952.00,0.78
4951.00,0.78
4950.00,0.78
4949.00,0.78
4948.00,0.78
4947.00,0.78
4946.00,0.78
4945.00,0.78
4944.00,0.78
4943.00,0.79
4942.00,0.79
4941.00,0.79
4940.00,0.79
4939.00,0.79
4938.00,0.79
4937.00,0.79
4936.00,0.79
4935.00,0.79
4934.00,0.79
4933.00,0.80
4932.00,0.80
4931.00,0.80
4930.00,0.80
4929.00,0.80
4928.00,0.80
4927.00,0.80
4926.00,0.80
4925.00,0.80
4924.00,0.81
4923.00,0.81
4922.00,0.81
4921.00,0.81
4920.00,0.81
4919.00,0.81
4918.00,0.81
4917.00,0.82
4916.00,0.82
4915.00,0.82
4914.00,0.82
4913.00,0.82
4912.00,0.82
4911.00,0.82
4910.00,0.82
4909.00,0.82
4908.00,0.82
4907.00,0.82
4906.00,0.83
4905.00,0.83
4904.00,0.83
4903.00,0.83
4902.00,0.83
4901.00,0.83
4900.00,0.83
4899.00,0.83
4898.00,0.83
4897.00,0.83
4896.00,0.83
4895.00,0.83
4894.00,0.83
4893.00,0.83
4892.00,0.83
4891.00,0.83
4890.00,0.83
4889.00,0.83
4888.00,0.83
4887.00,0.83
4886.00,0.83
4885.00,0.83
4884.00,0.84
4883.00,0.84
4882.00,0.84
4881.00,0.84
4880.00,0.84
4879.00,0.84
4878.00,0.84
4877.00,0.85
4876.00,0.85
4875.00,0.85
4874.00,0.85
4873.00,0.85
4872.00,0.86
4871.00,0.86
4870.00,0.86
4869.00,0.86
4868.00,0.86
4867.00,0.86
4866.00,0.86
4865.00,0.86
4864.00,0.86
4863.00,0.86
4862.00,0.87
4861.00,0.87
4860.00,0.87
4859.00,0.87
4858.00,0.87
4857.00,0.87
4856.00,0.87
4855.00,0.87
4854.00,0.87
4853.00,0.87
4852.00,0.87
4851.00,0.87
4850.00,0.87
4849.00,0.87
4848.00,0.88
4847.00,0.88
4846.00,0.88
4845.00,0.88
4844.00,0.88
4843.00,0.88
4842.00,0.88
4841.00,0.88
4840.00,0.88
4839.00,0.89
4838.00,0.89
4837.00,0.89
4836.00,0.89
4835.00,0.89
4834.00,0.89
4833.00,0.90
4832.00,0.90
4831.00,0.90
4830.00,0.90
4829.00,0.90
4828.00,0.91
4827.00,0.91
4826.00,0.91
4825.00,0.91
4824.00,0.91
4823.00,0.91
4822.00,0.91
4821.00,0.92
4820.00,0.92
4819.00,0.92
4818.00,0.92
4817.00,0.92
4816.00,0.92
4815.00,0.92
4814.00,0.92
4813.00,0.92
4812.00,0.92
4811.00,0.92
4810.00,0.92
4809.00,0.92
4808.00,0.92
4807.00,0.92
4806.00,0.92
4805.00,0.93
4804.00,0.93
4803.00,0.93
4802.00,0.93
4801.00,0.93
4800.00,0.94
4799.00,0.94
4798.00,0.94
4797.00,0.94
4796.00,0.94
4795.00,0.95
4794.00,0.95
4793.00,0.95
4792.00,0.95
4791.00,0.95
4790.00,0.95
4789.00,0.96
4788.00,0.96
4787.00,0.96
4786.00,0.96
4785.00,0.96
4784.00,0.96
4783.00,0.96
4782.00,0.96
4781.00,0.96
4780.00,0.97
4779.00,0.97
4778.00,0.97
4777.00,0.97
4776.00,0.97
4775.00,0.97
4774.00,0.97
4773.00,0.98
4772.00,0.98
4771.00,0.98
4770.00,0.98
4769.00,0.98
4768.00,0.98
4767.00,0.99
4766.00,0.99
4765.00,0.99
4764.00,0.99
4763.00,0.99
4762.00,0.99
4761.00,1.00
4760.00,1.00
4759.00,1.00
4758.00,1.00
4757.00,1.01
4756.00,1.01
4755.00,1.01
4754.00,1.01
4753.00,1.02
4752.00,1.02
4751.00,1.02
4750.00,1.02
4749.00,1.03
4748.00,1.03
4747.00,1.03
4746.00,1.03
4745.00,1.03
4744.00,1.04
4743.00,1.04
4742.00,1.04
4741.00,1.04
4740.00,1.04
4739.00,1.04
4738.00,1.04
4737.00,1.04
4736.00,1.05
4735.00,1.05
4734.00,1.05
4733.00,1.05
4732.00,1.05
4731.00,1.05
4730.00,1.06
4729.00,1.06
4728.00,1.06
4727.00,1.06
4726.00,1.06
4725.00,1.07
4724.00,1.07
4723.00,1.07
4722.00,1.07
4721.00,1.07
4720.00,1.08
4719.00,1.08
4718.00,1.08
4717.00,1.08
4716.00,1.08
4715.00,1.09
4714.00,1.09
4713.00,1.09
4712.00,1.09
4711.00,1.10
4710.00,1.10
4709.00,1.10
4708.00,1.10
4707.00,1.11
4706.00,1.11
4705.00,1.11
4704.00,1.11
4703.00,1.11
4702.00,1.12
4701.00,1.12
4700.00,1.12
4699.00,1.12
4698.00,1.12
4697.00,1.13
4696.00,1.13
4695.00,1.13
4694.00,1.13
4693.00,1.13
4692.00,1.13
4691.00,1.14
4690.00,1.14
4689.00,1.14
4688.00,1.14
4687.00,1.14
4686.00,1.14
4685.00,1.15
4684.00,1.15
4683.00,1.15
4682.00,1.15
4681.00,1.15
4680.00,1.15
4679.00,1.15
4678.00,1.16
4677.00,1.16
4676.00,1.16
4675.00,1.16
4674.00,1.16
4673.00,1.16
4672.00,1.16
4671.00,1.17
4670.00,1.17
4669.00,1.17
4668.00,1.17
4667.00,1.17
4666.00,1.17
4665.00,1.18
4664.00,1.18
4663.00,1.18
4662.00,1.18
4661.00,1.18
4660.00,1.18
4659.00,1.19
4658.00,1.19
4657.00,1.19
4656.00,1.19
4655.00,1.19
4654.00,1.19
4653.00,1.20
4652.00,1.20
4651.00,1.20
4650.00,1.20
4649.00,1.20
4648.00,1.20
4647.00,1.21
4646.00,1.21
4645.00,1.21
4644.00,1.21
4643.00,1.21
4642.00,1.21
4641.00,1.21
4640.00,1.21
4639.00,1.21
4638.00,1.22
4637.00,1.22
4636.00,1.22
4635.00,1.22
4634.00,1.22
4633.00,1.22
4632.00,1.23
4631.00,1.23
4630.00,1.23
4629.00,1.23
4628.00,1.23
4627.00,1.24
4626.00,1.24
4625.00,1.24
4624.00,1.24
4623.00,1.24
4622.00,1.25
4621.00,1.25
4620.00,1.25
4619.00,1.25
4618.00,1.25
4617.00,1.25
4616.00,1.25
4615.00,1.26
4614.00,1.26
4613.00,1.26
4612.00,1.26
4611.00,1.26
4610.00,1.26
4609.00,1.26
4608.00,1.26
4607.00,1.27
4606.00,1.27
4605.00,1.27
4604.00,1.27
4603.00,1.27
4602.00,1.28
4601.00,1.28
4600.00,1.28
4599.00,1.28
4598.00,1.28
4597.00,1.28
4596.00,1.29
4595.00,1.29
4594.00,1.29
4593.00,1.29
4592.00,1.29
4591.00,1.29
4590.00,1.29
4589.00,1.30
4588.00,1.30
4587.00,1.30
4586.00,1.30
4585.00,1.30
4584.00,1.30
4583.00,1.30
4582.00,1.30
4581.00,1.30
4580.00,1.31
4579.00,1.31
4578.00,1.31
4577.00,1.31
4576.00,1.31
4575.00,1.31
4574.00,1.31
4573.00,1.31
4572.00,1.31
4571.00,1.32
4570.00,1.32
4569.00,1.32
4568.00,1.32
4567.00,1.32
4566.00,1.32
4565.00,1.32
4564.00,1.32
4563.00,1.32
4562.00,1.32
4561.00,1.32
4560.00,1.33
4559.00,1.33
4558.00,1.33
4557.00,1.33
4556.00,1.33
4555.00,1.33
4554.00,1.34
4553.00,1.34
4552.00,1.34
4551.00,1.34
4550.00,1.34
4549.00,1.34
4548.00,1.34
4547.00,1.35
4546.00,1.35
4545.00,1.35
4544.00,1.35
4543.00,1.35
4542.00,1.35
4541.00,1.35
4540.00,1.35
4539.00,1.35
4538.00,1.35
4537.00,1.35
4536.00,1.35
4535.00,1.35
4534.00,1.35
4533.00,1.35
4532.00,1.35
4531.00,1.35
4530.00,1.35
4529.00,1.35
4528.00,1.35
4527.00,1.35
4526.00,1.35
4525.00,1.35
4524.00,1.35
4523.00,1.35
4522.00,1.35
4521.00,1.35
4520.00,1.35
4519.00,1.35
4518.00,1.35
4517.00,1.35
4516.00,1.36
4515.00,1.36
4514.00,1.36
4513.00,1.36
4512.00,1.36
4511.00,1.36
4510.00,1.36
4509.00,1.36
4508.00,1.36
4507.00,1.37
4506.00,1.37
4505.00,1.37
4504.00,1.37
4503.00,1.37
4502.00,1.37
4501.00,1.37
4500.00,1.37
4499.00,1.37
4498.00,1.36
4497.00,1.36
4496.00,1.36
4495.00,1.36
4494.00,1.36
4493.00,1.36
4492.00,1.36
4491.00,1.36
4490.00,1.36
4489.00,1.36
4488.00,1.36
4487.00,1.36
4486.00,1.36
4485.00,1.35
4484.00,1.35
4483.00,1.35
4482.00,1.35
4481.00,1.35
4480.00,1.35
4479.00,1.34
4478.00,1.34
4477.00,1.34
4476.00,1.34
4475.00,1.33
4474.00,1.33
4473.00,1.33
4472.00,1.33
4471.00,1.33
4470.00,1.32
4469.00,1.32
4468.00,1.32
4467.00,1.31
4466.00,1.31
4465.00,1.31
4464.00,1.30
4463.00,1.30
4462.00,1.29
4461.00,1.29
4460.00,1.29
4459.00,1.28
4458.00,1.28
4457.00,1.27
4456.00,1.27
4455.00,1.27
4454.00,1.26
4453.00,1.26
4452.00,1.25
4451.00,1.25
4450.00,1.24
4449.00,1.24
4448.00,1.24
4447.00,1.23
4446.00,1.23
4445.00,1.22
4444.00,1.22
4443.00,1.21
4442.00,1.21
4441.00,1.20
4440.00,1.20
4439.00,1.19
4438.00,1.19
4437.00,1.18
4436.00,1.18
4435.00,1.17
4434.00,1.17
4433.00,1.16
4432.00,1.16
4431.00,1.15
4430.00,1.15
4429.00,1.14
4428.00,1.14
4427.00,1.13
4426.00,1.13
4425.00,1.12
4424.00,1.12
4423.00,1.11
4422.00,1.11
4421.00,1.11
4420.00,1.10
4419.00,1.10
4418.00,1.10
4417.00,1.10
4416.00,1.10
4415.00,1.09
4414.00,1.09
4413.00,1.09
4412.00,1.09
4411.00,1.09
4410.00,1.09
4409.00,1.10
4408.00,1.10
4407.00,1.10
4406.00,1.10
4405.00,1.10
4404.00,1.10
4403.00,1.10
4402.00,1.11
4401.00,1.11
4400.00,1.11
4399.00,1.12
4398.00,1.12
4397.00,1.12
4396.00,1.12
4395.00,1.13
4394.00,1.13
4393.00,1.13
4392.00,1.14
4391.00,1.14
4390.00,1.14
4389.00,1.15
4388.00,1.15
4387.00,1.15
4386.00,1.16
4385.00,1.16
4384.00,1.16
4383.00,1.16
4382.00,1.16
4381.00,1.16
4380.00,1.17
4379.00,1.17
4378.00,1.17
4377.00,1.17
4376.00,1.17
4375.00,1.17
4374.00,1.17
4373.00,1.17
4372.00,1.17
4371.00,1.17
4370.00,1.17
4369.00,1.17
4368.00,1.17
4367.00,1.16
4366.00,1.16
4365.00,1.16
4364.00,1.16
4363.00,1.16
4362.00,1.16
4361.00,1.16
4360.00,1.15
4359.00,1.15
4358.00,1.15
4357.00,1.15
4356.00,1.15
4355.00,1.15
4354.00,1.15
4353.00,1.15
4352.00,1.15
4351.00,1.14
4350.00,1.14
4349.00,1.14
4348.00,1.14
4347.00,1.14
4346.00,1.14
4345.00,1.14
4344.00,1.14
4343.00,1.14
4342.00,1.14
4341.00,1.14
4340.00,1.14
4339.00,1.14
4338.00,1.14
4337.00,1.15
4336.00,1.15
4335.00,1.15
4334.00,1.15
4333.00,1.15
4332.00,1.15
4331.00,1.16
4330.00,1.16
4329.00,1.16
4328.00,1.17
4327.00,1.17
4326.00,1.17
4325.00,1.18
4324.00,1.18
4323.00,1.18
4322.00,1.19
4321.00,1.19
4320.00,1.19
4319.00,1.19
4318.00,1.20
4317.00,1.20
4316.00,1.20
4315.00,1.20
4314.00,1.20
4313.00,1.21
4312.00,1.21
4311.00,1.21
4310.00,1.21
4309.00,1.21
4308.00,1.21
4307.00,1.21
4306.00,1.21
4305.00,1.21
4304.00,1.21
4303.00,1.21
4302.00,1.22
4301.00,1.22
4300.00,1.22
4299.00,1.22
4298.00,1.22
4297.00,1.22
4296.00,1.22
4295.00,1.22
4294.00,1.23
4293.00,1.23
4292.00,1.23
4291.00,1.23
4290.00,1.23
4289.00,1.24
4288.00,1.24
4287.00,1.24
4286.00,1.24
4285.00,1.24
4284.00,1.25
4283.00,1.25
4282.00,1.25
4281.00,1.25
4280.00,1.25
4279.00,1.25
4278.00,1.25
4277.00,1.25
4276.00,1.25
4275.00,1.24
4274.00,1.24
4273.00,1.24
4272.00,1.24
4271.00,1.24
4270.00,1.24
4269.00,1.24
4268.00,1.24
4267.00,1.23
4266.00,1.23
4265.00,1.23
4264.00,1.23
4263.00,1.23
4262.00,1.23
4261.00,1.23
4260.00,1.23
4259.00,1.23
4258.00,1.23
4257.00,1.23
4256.00,1.23
4255.00,1.23
4254.00,1.23
4253.00,1.24
4252.00,1.24
4251.00,1.24
4250.00,1.24
4249.00,1.24
4248.00,1.24
4247.00,1.24
4246.00,1.25
4245.00,1.25
4244.00,1.25
4243.00,1.25
4242.00,1.25
4241.00,1.25
4240.00,1.26
4239.00,1.26
4238.00,1.26
4237.00,1.26
4236.00,1.26
4235.00,1.26
4234.00,1.26
4233.00,1.26
4232.00,1.26
4231.00,1.26
4230.00,1.26
4229.00,1.26
4228.00,1.26
4227.00,1.26
4226.00,1.26
4225.00,1.26
4224.00,1.26
4223.00,1.26
4222.00,1.26
4221.00,1.26
4220.00,1.26
4219.00,1.26
4218.00,1.25
4217.00,1.25
4216.00,1.25
4215.00,1.25
4214.00,1.25
4213.00,1.26
4212.00,1.26
4211.00,1.26
4210.00,1.26
4209.00,1.26
4208.00,1.27
4207.00,1.27
4206.00,1.27
4205.00,1.27
4204.00,1.27
4203.00,1.28
4202.00,1.28
4201.00,1.28
4200.00,1.28
4199.00,1.28
4198.00,1.28
4197.00,1.28
4196.00,1.28
4195.00,1.28
4194.00,1.28
4193.00,1.28
4192.00,1.28
4191.00,1.28
4190.00,1.28
4189.00,1.28
4188.00,1.28
4187.00,1.28
4186.00,1.28
4185.00,1.28
4184.00,1.28
4183.00,1.28
4182.00,1.28
4181.00,1.28
4180.00,1.28
4179.00,1.28
4178.00,1.28
4177.00,1.28
4176.00,1.28
4175.00,1.28
4174.00,1.28
4173.00,1.28
4172.00,1.28
4171.00,1.28
4170.00,1.28
4169.00,1.28
4168.00,1.28
4167.00,1.28
4166.00,1.28
4165.00,1.29
4164.00,1.29
4163.00,1.29
4162.00,1.29
4161.00,1.29
4160.00,1.29
4159.00,1.29
4158.00,1.29
4157.00,1.30
4156.00,1.30
4155.00,1.30
4154.00,1.30
4153.00,1.30
4152.00,1.30
4151.00,1.30
4150.00,1.30
4149.00,1.30
4148.00,1.30
4147.00,1.30
4146.00,1.30
4145.00,1.30
4144.00,1.30
4143.00,1.30
4142.00,1.30
4141.00,1.30
4140.00,1.30
4139.00,1.30
4138.00,1.30
4137.00,1.30
4136.00,1.30
4135.00,1.30
4134.00,1.30
4133.00,1.30
4132.00,1.30
4131.00,1.30
4130.00,1.30
4129.00,1.30
4128.00,1.30
4127.00,1.30
4126.00,1.30
4125.00,1.30
4124.00,1.31
4123.00,1.31
4122.00,1.31
4121.00,1.31
4120.00,1.31
4119.00,1.32
4118.00,1.32
4117.00,1.32
4116.00,1.32
4115.00,1.32
4114.00,1.32
4113.00,1.33
4112.00,1.33
4111.00,1.33
4110.00,1.33
4109.00,1.33
4108.00,1.33
4107.00,1.32
4106.00,1.32
4105.00,1.32
4104.00,1.32
4103.00,1.32
4102.00,1.32
4101.00,1.32
4100.00,1.32
4099.00,1.32
4098.00,1.32
4097.00,1.32
4096.00,1.32
4095.00,1.32
4094.00,1.32
4093.00,1.32
4092.00,1.32
4091.00,1.32
4090.00,1.32
4089.00,1.32
4088.00,1.32
4087.00,1.31
4086.00,1.31
4085.00,1.31
4084.00,1.31
4083.00,1.31
4082.00,1.31
4081.00,1.31
4080.00,1.31
4079.00,1.32
4078.00,1.32
4077.00,1.32
4076.00,1.32
4075.00,1.32
4074.00,1.32
4073.00,1.32
4072.00,1.32
4071.00,1.32
4070.00,1.32
4069.00,1.33
4068.00,1.33
4067.00,1.33
4066.00,1.33
4065.00,1.33
4064.00,1.33
4063.00,1.33
4062.00,1.33
4061.00,1.34
4060.00,1.34
4059.00,1.34
4058.00,1.34
4057.00,1.35
4056.00,1.35
4055.00,1.35
4054.00,1.35
4053.00,1.36
4052.00,1.36
4051.00,1.36
4050.00,1.36
4049.00,1.37
4048.00,1.37
4047.00,1.37
4046.00,1.37
4045.00,1.37
4044.00,1.37
4043.00,1.37
4042.00,1.37
4041.00,1.37
4040.00,1.37
4039.00,1.37
4038.00,1.37
4037.00,1.36
4036.00,1.36
4035.00,1.36
4034.00,1.35
4033.00,1.35
4032.00,1.35
4031.00,1.35
4030.00,1.34
4029.00,1.34
4028.00,1.34
4027.00,1.34
4026.00,1.34
4025.00,1.34
4024.00,1.34
4023.00,1.34
4022.00,1.34
4021.00,1.34
4020.00,1.34
4019.00,1.35
4018.00,1.35
4017.00,1.35
4016.00,1.36
4015.00,1.36
4014.00,1.36
4013.00,1.37
4012.00,1.37
4011.00,1.37
4010.00,1.37
4009.00,1.37
4008.00,1.38
4007.00,1.38
4006.00,1.38
4005.00,1.38
4004.00,1.38
4003.00,1.38
4002.00,1.38
4001.00,1.38
4000.00,1.38
