创建为新数据集,样品 113 用户 Administrator 日期 星期日, 十一月 05 2017
cm-1,%T
10000.00,1.33
9999.00,1.33
9998.00,1.33
9997.00,1.33
9996.00,1.33
9995.00,1.33
9994.00,1.33
9993.00,1.33
9992.00,1.33
9991.00,1.33
9990.00,1.33
9989.00,1.33
9988.00,1.33
9987.00,1.33
9986.00,1.33
9985.00,1.33
9984.00,1.33
9983.00,1.33
9982.00,1.33
9981.00,1.33
9980.00,1.33
9979.00,1.33
9978.00,1.32
9977.00,1.32
9976.00,1.32
9975.00,1.32
9974.00,1.32
9973.00,1.32
9972.00,1.32
9971.00,1.32
9970.00,1.33
9969.00,1.33
9968.00,1.33
9967.00,1.33
9966.00,1.33
9965.00,1.33
9964.00,1.33
9963.00,1.33
9962.00,1.33
9961.00,1.33
9960.00,1.33
9959.00,1.33
9958.00,1.33
9957.00,1.33
9956.00,1.33
9955.00,1.32
9954.00,1.32
9953.00,1.32
9952.00,1.32
9951.00,1.31
9950.00,1.31
9949.00,1.31
9948.00,1.31
9947.00,1.31
9946.00,1.31
9945.00,1.30
9944.00,1.30
9943.00,1.31
9942.00,1.31
9941.00,1.31
9940.00,1.31
9939.00,1.31
9938.00,1.31
9937.00,1.31
9936.00,1.31
9935.00,1.31
9934.00,1.31
9933.00,1.31
9932.00,1.31
9931.00,1.31
9930.00,1.31
9929.00,1.31
9928.00,1.31
9927.00,1.31
9926.00,1.31
9925.00,1.31
9924.00,1.31
9923.00,1.31
9922.00,1.31
9921.00,1.31
9920.00,1.31
9919.00,1.31
9918.00,1.31
9917.00,1.31
9916.00,1.31
9915.00,1.31
9914.00,1.31
9913.00,1.31
9912.00,1.31
9911.00,1.30
9910.00,1.30
9909.00,1.30
9908.00,1.30
9907.00,1.30
9906.00,1.31
9905.00,1.31
9904.00,1.31
9903.00,1.31
9902.00,1.31
9901.00,1.31
9900.00,1.31
9899.00,1.32
9898.00,1.32
9897.00,1.32
9896.00,1.32
9895.00,1.33
9894.00,1.33
9893.00,1.33
9892.00,1.33
9891.00,1.33
9890.00,1.33
9889.00,1.33
9888.00,1.33
9887.00,1.33
9886.00,1.33
9885.00,1.32
9884.00,1.32
9883.00,1.32
9882.00,1.31
9881.00,1.31
9880.00,1.31
9879.00,1.30
9878.00,1.30
9877.00,1.30
9876.00,1.29
9875.00,1.29
9874.00,1.29
9873.00,1.29
9872.00,1.29
9871.00,1.29
9870.00,1.28
9869.00,1.28
9868.00,1.28
9867.00,1.28
9866.00,1.28
9865.00,1.28
9864.00,1.28
9863.00,1.27
9862.00,1.27
9861.00,1.27
9860.00,1.27
9859.00,1.27
9858.00,1.27
9857.00,1.27
9856.00,1.27
9855.00,1.26
9854.00,1.27
9853.00,1.27
9852.00,1.27
9851.00,1.27
9850.00,1.27
9849.00,1.27
9848.00,1.28
9847.00,1.28
9846.00,1.28
9845.00,1.28
9844.00,1.29
9843.00,1.29
9842.00,1.29
9841.00,1.30
9840.00,1.30
9839.00,1.30
9838.00,1.31
9837.00,1.31
9836.00,1.31
9835.00,1.31
9834.00,1.31
9833.00,1.31
9832.00,1.31
9831.00,1.31
9830.00,1.31
9829.00,1.31
9828.00,1.31
9827.00,1.31
9826.00,1.31
9825.00,1.31
9824.00,1.31
9823.00,1.31
9822.00,1.31
9821.00,1.31
9820.00,1.31
9819.00,1.31
9818.00,1.31
9817.00,1.31
9816.00,1.31
9815.00,1.31
9814.00,1.31
9813.00,1.31
9812.00,1.32
9811.00,1.32
9810.00,1.32
9809.00,1.32
9808.00,1.33
9807.00,1.33
9806.00,1.33
9805.00,1.33
9804.00,1.33
9803.00,1.33
9802.00,1.33
9801.00,1.33
9800.00,1.33
9799.00,1.32
9798.00,1.32
9797.00,1.32
9796.00,1.31
9795.00,1.31
9794.00,1.31
9793.00,1.30
9792.00,1.30
9791.00,1.30
9790.00,1.29
9789.00,1.29
9788.00,1.29
9787.00,1.29
9786.00,1.28
9785.00,1.28
9784.00,1.28
9783.00,1.28
9782.00,1.29
9781.00,1.29
9780.00,1.29
9779.00,1.29
9778.00,1.29
9777.00,1.30
9776.00,1.30
9775.00,1.30
9774.00,1.30
9773.00,1.30
9772.00,1.31
9771.00,1.31
9770.00,1.31
9769.00,1.31
9768.00,1.31
9767.00,1.31
9766.00,1.31
9765.00,1.31
9764.00,1.31
9763.00,1.31
9762.00,1.32
9761.00,1.32
9760.00,1.32
9759.00,1.32
9758.00,1.32
9757.00,1.32
9756.00,1.32
9755.00,1.32
9754.00,1.32
9753.00,1.32
9752.00,1.32
9751.00,1.32
9750.00,1.32
9749.00,1.32
9748.00,1.32
9747.00,1.31
9746.00,1.31
9745.00,1.31
9744.00,1.31
9743.00,1.31
9742.00,1.31
9741.00,1.31
9740.00,1.31
9739.00,1.30
9738.00,1.30
9737.00,1.30
9736.00,1.30
9735.00,1.30
9734.00,1.29
9733.00,1.29
9732.00,1.29
9731.00,1.29
9730.00,1.29
9729.00,1.29
9728.00,1.29
9727.00,1.29
9726.00,1.29
9725.00,1.29
9724.00,1.29
9723.00,1.29
9722.00,1.29
9721.00,1.29
9720.00,1.29
9719.00,1.29
9718.00,1.29
9717.00,1.28
9716.00,1.28
9715.00,1.28
9714.00,1.28
9713.00,1.28
9712.00,1.28
9711.00,1.28
9710.00,1.27
9709.00,1.27
9708.00,1.27
9707.00,1.27
9706.00,1.27
9705.00,1.27
9704.00,1.27
9703.00,1.27
9702.00,1.27
9701.00,1.27
9700.00,1.27
9699.00,1.27
9698.00,1.27
9697.00,1.27
9696.00,1.27
9695.00,1.27
9694.00,1.27
9693.00,1.27
9692.00,1.28
9691.00,1.28
9690.00,1.28
9689.00,1.29
9688.00,1.29
9687.00,1.29
9686.00,1.29
9685.00,1.30
9684.00,1.30
9683.00,1.30
9682.00,1.30
9681.00,1.30
9680.00,1.30
9679.00,1.30
9678.00,1.30
9677.00,1.30
9676.00,1.30
9675.00,1.30
9674.00,1.30
9673.00,1.30
9672.00,1.30
9671.00,1.30
9670.00,1.30
9669.00,1.30
9668.00,1.30
9667.00,1.30
9666.00,1.30
9665.00,1.30
9664.00,1.30
9663.00,1.30
9662.00,1.30
9661.00,1.31
9660.00,1.31
9659.00,1.31
9658.00,1.31
9657.00,1.31
9656.00,1.31
9655.00,1.31
9654.00,1.31
9653.00,1.31
9652.00,1.31
9651.00,1.30
9650.00,1.30
9649.00,1.30
9648.00,1.30
9647.00,1.29
9646.00,1.29
9645.00,1.29
9644.00,1.29
9643.00,1.28
9642.00,1.28
9641.00,1.28
9640.00,1.28
9639.00,1.28
9638.00,1.28
9637.00,1.28
9636.00,1.28
9635.00,1.28
9634.00,1.28
9633.00,1.28
9632.00,1.28
9631.00,1.27
9630.00,1.27
9629.00,1.27
9628.00,1.27
9627.00,1.27
9626.00,1.27
9625.00,1.27
9624.00,1.27
9623.00,1.27
9622.00,1.27
9621.00,1.27
9620.00,1.27
9619.00,1.27
9618.00,1.27
9617.00,1.27
9616.00,1.28
9615.00,1.28
9614.00,1.28
9613.00,1.28
9612.00,1.29
9611.00,1.29
9610.00,1.29
9609.00,1.30
9608.00,1.30
9607.00,1.30
9606.00,1.30
9605.00,1.30
9604.00,1.30
9603.00,1.30
9602.00,1.30
9601.00,1.30
9600.00,1.30
9599.00,1.30
9598.00,1.30
9597.00,1.29
9596.00,1.29
9595.00,1.29
9594.00,1.29
9593.00,1.29
9592.00,1.29
9591.00,1.29
9590.00,1.29
9589.00,1.29
9588.00,1.29
9587.00,1.29
9586.00,1.29
9585.00,1.29
9584.00,1.29
9583.00,1.29
9582.00,1.29
9581.00,1.29
9580.00,1.30
9579.00,1.30
9578.00,1.30
9577.00,1.30
9576.00,1.30
9575.00,1.30
9574.00,1.30
9573.00,1.30
9572.00,1.29
9571.00,1.29
9570.00,1.29
9569.00,1.29
9568.00,1.29
9567.00,1.29
9566.00,1.29
9565.00,1.29
9564.00,1.29
9563.00,1.29
9562.00,1.29
9561.00,1.29
9560.00,1.29
9559.00,1.29
9558.00,1.30
9557.00,1.30
9556.00,1.30
9555.00,1.30
9554.00,1.30
9553.00,1.30
9552.00,1.30
9551.00,1.30
9550.00,1.30
9549.00,1.30
9548.00,1.30
9547.00,1.30
9546.00,1.30
9545.00,1.29
9544.00,1.29
9543.00,1.29
9542.00,1.29
9541.00,1.29
9540.00,1.29
9539.00,1.29
9538.00,1.30
9537.00,1.30
9536.00,1.30
9535.00,1.30
9534.00,1.30
9533.00,1.30
9532.00,1.30
9531.00,1.31
9530.00,1.31
9529.00,1.31
9528.00,1.31
9527.00,1.31
9526.00,1.31
9525.00,1.31
9524.00,1.32
9523.00,1.32
9522.00,1.32
9521.00,1.32
9520.00,1.32
9519.00,1.32
9518.00,1.32
9517.00,1.32
9516.00,1.32
9515.00,1.32
9514.00,1.32
9513.00,1.32
9512.00,1.32
9511.00,1.32
9510.00,1.32
9509.00,1.32
9508.00,1.32
9507.00,1.31
9506.00,1.31
9505.00,1.31
9504.00,1.31
9503.00,1.31
9502.00,1.31
9501.00,1.30
9500.00,1.30
9499.00,1.30
9498.00,1.30
9497.00,1.30
9496.00,1.30
9495.00,1.30
9494.00,1.30
9493.00,1.30
9492.00,1.30
9491.00,1.30
9490.00,1.30
9489.00,1.30
9488.00,1.30
9487.00,1.30
9486.00,1.30
9485.00,1.30
9484.00,1.30
9483.00,1.30
9482.00,1.30
9481.00,1.30
9480.00,1.30
9479.00,1.30
9478.00,1.30
9477.00,1.30
9476.00,1.29
9475.00,1.29
9474.00,1.29
9473.00,1.29
9472.00,1.29
9471.00,1.29
9470.00,1.29
9469.00,1.29
9468.00,1.29
9467.00,1.28
9466.00,1.28
9465.00,1.28
9464.00,1.28
9463.00,1.28
9462.00,1.28
9461.00,1.28
9460.00,1.28
9459.00,1.28
9458.00,1.28
9457.00,1.28
9456.00,1.28
9455.00,1.28
9454.00,1.28
9453.00,1.29
9452.00,1.29
9451.00,1.29
9450.00,1.29
9449.00,1.29
9448.00,1.29
9447.00,1.29
9446.00,1.29
9445.00,1.30
9444.00,1.30
9443.00,1.30
9442.00,1.30
9441.00,1.30
9440.00,1.30
9439.00,1.30
9438.00,1.30
9437.00,1.31
9436.00,1.31
9435.00,1.31
9434.00,1.31
9433.00,1.31
9432.00,1.31
9431.00,1.31
9430.00,1.31
9429.00,1.31
9428.00,1.31
9427.00,1.31
9426.00,1.31
9425.00,1.31
9424.00,1.31
9423.00,1.31
9422.00,1.31
9421.00,1.30
9420.00,1.30
9419.00,1.30
9418.00,1.30
9417.00,1.30
9416.00,1.30
9415.00,1.30
9414.00,1.30
9413.00,1.30
9412.00,1.30
9411.00,1.30
9410.00,1.30
9409.00,1.30
9408.00,1.30
9407.00,1.30
9406.00,1.30
9405.00,1.30
9404.00,1.30
9403.00,1.30
9402.00,1.30
9401.00,1.30
9400.00,1.30
9399.00,1.30
9398.00,1.30
9397.00,1.30
9396.00,1.30
9395.00,1.30
9394.00,1.30
9393.00,1.30
9392.00,1.29
9391.00,1.29
9390.00,1.29
9389.00,1.29
9388.00,1.28
9387.00,1.28
9386.00,1.28
9385.00,1.28
9384.00,1.28
9383.00,1.27
9382.00,1.27
9381.00,1.27
9380.00,1.27
9379.00,1.27
9378.00,1.27
9377.00,1.27
9376.00,1.28
9375.00,1.28
9374.00,1.28
9373.00,1.28
9372.00,1.28
9371.00,1.28
9370.00,1.29
9369.00,1.29
9368.00,1.29
9367.00,1.30
9366.00,1.30
9365.00,1.30
9364.00,1.30
9363.00,1.30
9362.00,1.31
9361.00,1.31
9360.00,1.31
9359.00,1.31
9358.00,1.31
9357.00,1.31
9356.00,1.31
9355.00,1.31
9354.00,1.31
9353.00,1.31
9352.00,1.31
9351.00,1.31
9350.00,1.31
9349.00,1.31
9348.00,1.31
9347.00,1.30
9346.00,1.30
9345.00,1.30
9344.00,1.30
9343.00,1.30
9342.00,1.30
9341.00,1.30
9340.00,1.29
9339.00,1.29
9338.00,1.29
9337.00,1.29
9336.00,1.29
9335.00,1.29
9334.00,1.29
9333.00,1.29
9332.00,1.29
9331.00,1.29
9330.00,1.29
9329.00,1.28
9328.00,1.28
9327.00,1.28
9326.00,1.28
9325.00,1.28
9324.00,1.28
9323.00,1.28
9322.00,1.28
9321.00,1.28
9320.00,1.28
9319.00,1.28
9318.00,1.28
9317.00,1.28
9316.00,1.28
9315.00,1.29
9314.00,1.29
9313.00,1.29
9312.00,1.29
9311.00,1.29
9310.00,1.29
9309.00,1.30
9308.00,1.30
9307.00,1.30
9306.00,1.30
9305.00,1.30
9304.00,1.30
9303.00,1.30
9302.00,1.30
9301.00,1.30
9300.00,1.30
9299.00,1.30
9298.00,1.30
9297.00,1.30
9296.00,1.30
9295.00,1.30
9294.00,1.30
9293.00,1.30
9292.00,1.30
9291.00,1.30
9290.00,1.30
9289.00,1.30
9288.00,1.29
9287.00,1.29
9286.00,1.29
9285.00,1.29
9284.00,1.28
9283.00,1.28
9282.00,1.28
9281.00,1.28
9280.00,1.27
9279.00,1.27
9278.00,1.27
9277.00,1.27
9276.00,1.27
9275.00,1.26
9274.00,1.26
9273.00,1.26
9272.00,1.26
9271.00,1.26
9270.00,1.26
9269.00,1.26
9268.00,1.26
9267.00,1.26
9266.00,1.27
9265.00,1.27
9264.00,1.27
9263.00,1.27
9262.00,1.28
9261.00,1.28
9260.00,1.28
9259.00,1.28
9258.00,1.29
9257.00,1.29
9256.00,1.29
9255.00,1.29
9254.00,1.30
9253.00,1.30
9252.00,1.30
9251.00,1.30
9250.00,1.31
9249.00,1.31
9248.00,1.31
9247.00,1.31
9246.00,1.31
9245.00,1.31
9244.00,1.31
9243.00,1.31
9242.00,1.31
9241.00,1.31
9240.00,1.31
9239.00,1.31
9238.00,1.31
9237.00,1.31
9236.00,1.31
9235.00,1.31
9234.00,1.31
9233.00,1.30
9232.00,1.30
9231.00,1.30
9230.00,1.30
9229.00,1.30
9228.00,1.30
9227.00,1.30
9226.00,1.30
9225.00,1.30
9224.00,1.30
9223.00,1.29
9222.00,1.29
9221.00,1.29
9220.00,1.29
9219.00,1.29
9218.00,1.29
9217.00,1.29
9216.00,1.29
9215.00,1.29
9214.00,1.29
9213.00,1.29
9212.00,1.29
9211.00,1.29
9210.00,1.29
9209.00,1.29
9208.00,1.29
9207.00,1.29
9206.00,1.30
9205.00,1.30
9204.00,1.30
9203.00,1.30
9202.00,1.30
9201.00,1.30
9200.00,1.31
9199.00,1.31
9198.00,1.31
9197.00,1.31
9196.00,1.31
9195.00,1.31
9194.00,1.32
9193.00,1.32
9192.00,1.32
9191.00,1.32
9190.00,1.32
9189.00,1.32
9188.00,1.32
9187.00,1.32
9186.00,1.32
9185.00,1.32
9184.00,1.32
9183.00,1.32
9182.00,1.32
9181.00,1.32
9180.00,1.31
9179.00,1.31
9178.00,1.31
9177.00,1.31
9176.00,1.31
9175.00,1.30
9174.00,1.30
9173.00,1.30
9172.00,1.30
9171.00,1.30
9170.00,1.29
9169.00,1.29
9168.00,1.29
9167.00,1.29
9166.00,1.28
9165.00,1.28
9164.00,1.28
9163.00,1.28
9162.00,1.28
9161.00,1.28
9160.00,1.28
9159.00,1.27
9158.00,1.27
9157.00,1.27
9156.00,1.27
9155.00,1.27
9154.00,1.27
9153.00,1.27
9152.00,1.27
9151.00,1.27
9150.00,1.27
9149.00,1.27
9148.00,1.28
9147.00,1.28
9146.00,1.28
9145.00,1.28
9144.00,1.28
9143.00,1.28
9142.00,1.29
9141.00,1.29
9140.00,1.29
9139.00,1.29
9138.00,1.29
9137.00,1.30
9136.00,1.30
9135.00,1.30
9134.00,1.30
9133.00,1.31
9132.00,1.31
9131.00,1.31
9130.00,1.31
9129.00,1.31
9128.00,1.31
9127.00,1.31
9126.00,1.31
9125.00,1.31
9124.00,1.31
9123.00,1.31
9122.00,1.31
9121.00,1.31
9120.00,1.31
9119.00,1.31
9118.00,1.31
9117.00,1.31
9116.00,1.31
9115.00,1.31
9114.00,1.30
9113.00,1.30
9112.00,1.30
9111.00,1.30
9110.00,1.30
9109.00,1.30
9108.00,1.30
9107.00,1.30
9106.00,1.30
9105.00,1.30
9104.00,1.29
9103.00,1.29
9102.00,1.29
9101.00,1.29
9100.00,1.29
9099.00,1.29
9098.00,1.29
9097.00,1.29
9096.00,1.29
9095.00,1.30
9094.00,1.30
9093.00,1.30
9092.00,1.30
9091.00,1.30
9090.00,1.30
9089.00,1.30
9088.00,1.30
9087.00,1.31
9086.00,1.31
9085.00,1.31
9084.00,1.31
9083.00,1.31
9082.00,1.31
9081.00,1.31
9080.00,1.31
9079.00,1.31
9078.00,1.31
9077.00,1.30
9076.00,1.30
9075.00,1.30
9074.00,1.30
9073.00,1.30
9072.00,1.30
9071.00,1.30
9070.00,1.30
9069.00,1.29
9068.00,1.29
9067.00,1.29
9066.00,1.29
9065.00,1.29
9064.00,1.29
9063.00,1.29
9062.00,1.29
9061.00,1.29
9060.00,1.29
9059.00,1.29
9058.00,1.29
9057.00,1.30
9056.00,1.30
9055.00,1.30
9054.00,1.30
9053.00,1.30
9052.00,1.30
9051.00,1.31
9050.00,1.31
9049.00,1.31
9048.00,1.31
9047.00,1.31
9046.00,1.31
9045.00,1.31
9044.00,1.31
9043.00,1.32
9042.00,1.32
9041.00,1.32
9040.00,1.32
9039.00,1.32
9038.00,1.32
9037.00,1.31
9036.00,1.31
9035.00,1.31
9034.00,1.31
9033.00,1.31
9032.00,1.31
9031.00,1.31
9030.00,1.31
9029.00,1.31
9028.00,1.31
9027.00,1.31
9026.00,1.31
9025.00,1.31
9024.00,1.30
9023.00,1.30
9022.00,1.30
9021.00,1.30
9020.00,1.30
9019.00,1.30
9018.00,1.31
9017.00,1.31
9016.00,1.31
9015.00,1.31
9014.00,1.31
9013.00,1.31
9012.00,1.31
9011.00,1.32
9010.00,1.32
9009.00,1.32
9008.00,1.32
9007.00,1.32
9006.00,1.33
9005.00,1.33
9004.00,1.33
9003.00,1.33
9002.00,1.33
9001.00,1.33
9000.00,1.33
8999.00,1.33
8998.00,1.33
8997.00,1.33
8996.00,1.33
8995.00,1.33
8994.00,1.33
8993.00,1.33
8992.00,1.33
8991.00,1.33
8990.00,1.32
8989.00,1.32
8988.00,1.32
8987.00,1.32
8986.00,1.32
8985.00,1.31
8984.00,1.31
8983.00,1.31
8982.00,1.31
8981.00,1.31
8980.00,1.30
8979.00,1.30
8978.00,1.30
8977.00,1.30
8976.00,1.30
8975.00,1.30
8974.00,1.30
8973.00,1.30
8972.00,1.30
8971.00,1.30
8970.00,1.30
8969.00,1.30
8968.00,1.30
8967.00,1.30
8966.00,1.30
8965.00,1.30
8964.00,1.30
8963.00,1.31
8962.00,1.31
8961.00,1.31
8960.00,1.31
8959.00,1.31
8958.00,1.31
8957.00,1.31
8956.00,1.31
8955.00,1.31
8954.00,1.31
8953.00,1.31
8952.00,1.31
8951.00,1.30
8950.00,1.30
8949.00,1.30
8948.00,1.30
8947.00,1.30
8946.00,1.30
8945.00,1.30
8944.00,1.30
8943.00,1.29
8942.00,1.29
8941.00,1.29
8940.00,1.29
8939.00,1.29
8938.00,1.29
8937.00,1.29
8936.00,1.29
8935.00,1.29
8934.00,1.29
8933.00,1.29
8932.00,1.29
8931.00,1.29
8930.00,1.29
8929.00,1.29
8928.00,1.29
8927.00,1.29
8926.00,1.29
8925.00,1.30
8924.00,1.30
8923.00,1.30
8922.00,1.30
8921.00,1.30
8920.00,1.30
8919.00,1.30
8918.00,1.31
8917.00,1.31
8916.00,1.31
8915.00,1.31
8914.00,1.31
8913.00,1.31
8912.00,1.31
8911.00,1.30
8910.00,1.30
8909.00,1.30
8908.00,1.30
8907.00,1.30
8906.00,1.30
8905.00,1.30
8904.00,1.30
8903.00,1.29
8902.00,1.29
8901.00,1.29
8900.00,1.29
8899.00,1.29
8898.00,1.29
8897.00,1.29
8896.00,1.30
8895.00,1.30
8894.00,1.30
8893.00,1.30
8892.00,1.30
8891.00,1.30
8890.00,1.30
8889.00,1.31
8888.00,1.31
8887.00,1.31
8886.00,1.31
8885.00,1.31
8884.00,1.31
8883.00,1.31
8882.00,1.31
8881.00,1.31
8880.00,1.30
8879.00,1.30
8878.00,1.30
8877.00,1.30
8876.00,1.30
8875.00,1.30
8874.00,1.30
8873.00,1.30
8872.00,1.30
8871.00,1.30
8870.00,1.29
8869.00,1.29
8868.00,1.29
8867.00,1.29
8866.00,1.29
8865.00,1.29
8864.00,1.29
8863.00,1.29
8862.00,1.29
8861.00,1.29
8860.00,1.29
8859.00,1.29
8858.00,1.29
8857.00,1.29
8856.00,1.30
8855.00,1.30
8854.00,1.30
8853.00,1.30
8852.00,1.30
8851.00,1.30
8850.00,1.30
8849.00,1.30
8848.00,1.31
8847.00,1.31
8846.00,1.31
8845.00,1.31
8844.00,1.31
8843.00,1.31
8842.00,1.32
8841.00,1.32
8840.00,1.32
8839.00,1.32
8838.00,1.31
8837.00,1.31
8836.00,1.31
8835.00,1.31
8834.00,1.31
8833.00,1.30
8832.00,1.30
8831.00,1.30
8830.00,1.29
8829.00,1.29
8828.00,1.29
8827.00,1.29
8826.00,1.28
8825.00,1.28
8824.00,1.28
8823.00,1.28
8822.00,1.28
8821.00,1.28
8820.00,1.28
8819.00,1.28
8818.00,1.28
8817.00,1.28
8816.00,1.28
8815.00,1.29
8814.00,1.29
8813.00,1.29
8812.00,1.29
8811.00,1.29
8810.00,1.29
8809.00,1.29
8808.00,1.29
8807.00,1.30
8806.00,1.30
8805.00,1.30
8804.00,1.30
8803.00,1.30
8802.00,1.30
8801.00,1.30
8800.00,1.29
8799.00,1.29
8798.00,1.29
8797.00,1.29
8796.00,1.29
8795.00,1.29
8794.00,1.29
8793.00,1.29
8792.00,1.29
8791.00,1.29
8790.00,1.28
8789.00,1.28
8788.00,1.28
8787.00,1.28
8786.00,1.28
8785.00,1.28
8784.00,1.28
8783.00,1.28
8782.00,1.28
8781.00,1.28
8780.00,1.28
8779.00,1.28
8778.00,1.28
8777.00,1.28
8776.00,1.28
8775.00,1.28
8774.00,1.27
8773.00,1.27
8772.00,1.27
8771.00,1.27
8770.00,1.27
8769.00,1.27
8768.00,1.26
8767.00,1.26
8766.00,1.26
8765.00,1.26
8764.00,1.26
8763.00,1.26
8762.00,1.26
8761.00,1.26
8760.00,1.26
8759.00,1.26
8758.00,1.26
8757.00,1.26
8756.00,1.26
8755.00,1.26
8754.00,1.26
8753.00,1.26
8752.00,1.27
8751.00,1.27
8750.00,1.27
8749.00,1.27
8748.00,1.27
8747.00,1.28
8746.00,1.28
8745.00,1.28
8744.00,1.28
8743.00,1.28
8742.00,1.28
8741.00,1.29
8740.00,1.29
8739.00,1.29
8738.00,1.29
8737.00,1.29
8736.00,1.29
8735.00,1.29
8734.00,1.29
8733.00,1.29
8732.00,1.29
8731.00,1.29
8730.00,1.29
8729.00,1.29
8728.00,1.29
8727.00,1.29
8726.00,1.29
8725.00,1.29
8724.00,1.29
8723.00,1.29
8722.00,1.29
8721.00,1.28
8720.00,1.28
8719.00,1.28
8718.00,1.28
8717.00,1.28
8716.00,1.28
8715.00,1.28
8714.00,1.28
8713.00,1.28
8712.00,1.28
8711.00,1.28
8710.00,1.28
8709.00,1.27
8708.00,1.27
8707.00,1.27
8706.00,1.27
8705.00,1.27
8704.00,1.27
8703.00,1.27
8702.00,1.27
8701.00,1.26
8700.00,1.26
8699.00,1.26
8698.00,1.26
8697.00,1.26
8696.00,1.26
8695.00,1.26
8694.00,1.26
8693.00,1.26
8692.00,1.26
8691.00,1.26
8690.00,1.26
8689.00,1.26
8688.00,1.26
8687.00,1.26
8686.00,1.26
8685.00,1.26
8684.00,1.26
8683.00,1.26
8682.00,1.26
8681.00,1.26
8680.00,1.26
8679.00,1.26
8678.00,1.26
8677.00,1.26
8676.00,1.26
8675.00,1.26
8674.00,1.26
8673.00,1.26
8672.00,1.26
8671.00,1.26
8670.00,1.26
8669.00,1.26
8668.00,1.26
8667.00,1.26
8666.00,1.26
8665.00,1.27
8664.00,1.27
8663.00,1.27
8662.00,1.27
8661.00,1.27
8660.00,1.27
8659.00,1.27
8658.00,1.27
8657.00,1.27
8656.00,1.27
8655.00,1.26
8654.00,1.26
8653.00,1.26
8652.00,1.26
8651.00,1.26
8650.00,1.26
8649.00,1.26
8648.00,1.26
8647.00,1.26
8646.00,1.26
8645.00,1.26
8644.00,1.26
8643.00,1.26
8642.00,1.26
8641.00,1.26
8640.00,1.26
8639.00,1.26
8638.00,1.27
8637.00,1.27
8636.00,1.27
8635.00,1.27
8634.00,1.27
8633.00,1.27
8632.00,1.27
8631.00,1.27
8630.00,1.27
8629.00,1.27
8628.00,1.27
8627.00,1.27
8626.00,1.27
8625.00,1.27
8624.00,1.27
8623.00,1.27
8622.00,1.27
8621.00,1.27
8620.00,1.27
8619.00,1.27
8618.00,1.27
8617.00,1.27
8616.00,1.26
8615.00,1.26
8614.00,1.26
8613.00,1.26
8612.00,1.26
8611.00,1.26
8610.00,1.26
8609.00,1.26
8608.00,1.26
8607.00,1.26
8606.00,1.26
8605.00,1.25
8604.00,1.25
8603.00,1.25
8602.00,1.25
8601.00,1.24
8600.00,1.24
8599.00,1.24
8598.00,1.24
8597.00,1.24
8596.00,1.23
8595.00,1.23
8594.00,1.23
8593.00,1.23
8592.00,1.23
8591.00,1.23
8590.00,1.22
8589.00,1.22
8588.00,1.22
8587.00,1.22
8586.00,1.22
8585.00,1.22
8584.00,1.22
8583.00,1.22
8582.00,1.22
8581.00,1.22
8580.00,1.22
8579.00,1.22
8578.00,1.23
8577.00,1.23
8576.00,1.23
8575.00,1.23
8574.00,1.23
8573.00,1.23
8572.00,1.23
8571.00,1.23
8570.00,1.24
8569.00,1.24
8568.00,1.24
8567.00,1.24
8566.00,1.24
8565.00,1.24
8564.00,1.23
8563.00,1.23
8562.00,1.23
8561.00,1.23
8560.00,1.23
8559.00,1.22
8558.00,1.22
8557.00,1.22
8556.00,1.21
8555.00,1.21
8554.00,1.21
8553.00,1.21
8552.00,1.21
8551.00,1.20
8550.00,1.20
8549.00,1.20
8548.00,1.20
8547.00,1.20
8546.00,1.20
8545.00,1.20
8544.00,1.20
8543.00,1.20
8542.00,1.20
8541.00,1.21
8540.00,1.21
8539.00,1.21
8538.00,1.21
8537.00,1.21
8536.00,1.21
8535.00,1.21
8534.00,1.22
8533.00,1.22
8532.00,1.22
8531.00,1.22
8530.00,1.22
8529.00,1.23
8528.00,1.23
8527.00,1.23
8526.00,1.23
8525.00,1.23
8524.00,1.24
8523.00,1.24
8522.00,1.24
8521.00,1.24
8520.00,1.24
8519.00,1.24
8518.00,1.24
8517.00,1.24
8516.00,1.24
8515.00,1.23
8514.00,1.23
8513.00,1.23
8512.00,1.23
8511.00,1.23
8510.00,1.23
8509.00,1.22
8508.00,1.22
8507.00,1.22
8506.00,1.22
8505.00,1.22
8504.00,1.22
8503.00,1.22
8502.00,1.22
8501.00,1.22
8500.00,1.22
8499.00,1.22
8498.00,1.22
8497.00,1.22
8496.00,1.22
8495.00,1.22
8494.00,1.22
8493.00,1.22
8492.00,1.22
8491.00,1.22
8490.00,1.22
8489.00,1.22
8488.00,1.22
8487.00,1.22
8486.00,1.22
8485.00,1.21
8484.00,1.21
8483.00,1.21
8482.00,1.21
8481.00,1.21
8480.00,1.20
8479.00,1.20
8478.00,1.20
8477.00,1.20
8476.00,1.20
8475.00,1.20
8474.00,1.20
8473.00,1.20
8472.00,1.20
8471.00,1.20
8470.00,1.20
8469.00,1.20
8468.00,1.20
8467.00,1.20
8466.00,1.20
8465.00,1.21
8464.00,1.21
8463.00,1.21
8462.00,1.21
8461.00,1.21
8460.00,1.21
8459.00,1.21
8458.00,1.21
8457.00,1.21
8456.00,1.21
8455.00,1.21
8454.00,1.21
8453.00,1.21
8452.00,1.21
8451.00,1.21
8450.00,1.21
8449.00,1.21
8448.00,1.21
8447.00,1.21
8446.00,1.20
8445.00,1.20
8444.00,1.20
8443.00,1.20
8442.00,1.20
8441.00,1.20
8440.00,1.20
8439.00,1.20
8438.00,1.20
8437.00,1.20
8436.00,1.19
8435.00,1.19
8434.00,1.19
8433.00,1.19
8432.00,1.19
8431.00,1.19
8430.00,1.19
8429.00,1.18
8428.00,1.18
8427.00,1.18
8426.00,1.18
8425.00,1.18
8424.00,1.19
8423.00,1.19
8422.00,1.19
8421.00,1.19
8420.00,1.19
8419.00,1.19
8418.00,1.20
8417.00,1.20
8416.00,1.20
8415.00,1.20
8414.00,1.20
8413.00,1.20
8412.00,1.20
8411.00,1.20
8410.00,1.20
8409.00,1.20
8408.00,1.20
8407.00,1.20
8406.00,1.20
8405.00,1.20
8404.00,1.20
8403.00,1.20
8402.00,1.21
8401.00,1.21
8400.00,1.21
8399.00,1.21
8398.00,1.21
8397.00,1.21
8396.00,1.21
8395.00,1.21
8394.00,1.21
8393.00,1.21
8392.00,1.21
8391.00,1.21
8390.00,1.21
8389.00,1.21
8388.00,1.21
8387.00,1.21
8386.00,1.21
8385.00,1.21
8384.00,1.21
8383.00,1.21
8382.00,1.21
8381.00,1.21
8380.00,1.21
8379.00,1.21
8378.00,1.21
8377.00,1.21
8376.00,1.21
8375.00,1.21
8374.00,1.21
8373.00,1.21
8372.00,1.21
8371.00,1.21
8370.00,1.21
8369.00,1.21
8368.00,1.22
8367.00,1.22
8366.00,1.22
8365.00,1.22
8364.00,1.22
8363.00,1.22
8362.00,1.22
8361.00,1.22
8360.00,1.21
8359.00,1.21
8358.00,1.21
8357.00,1.21
8356.00,1.21
8355.00,1.21
8354.00,1.21
8353.00,1.21
8352.00,1.21
8351.00,1.21
8350.00,1.21
8349.00,1.21
8348.00,1.21
8347.00,1.21
8346.00,1.21
8345.00,1.21
8344.00,1.21
8343.00,1.21
8342.00,1.21
8341.00,1.21
8340.00,1.21
8339.00,1.21
8338.00,1.21
8337.00,1.22
8336.00,1.22
8335.00,1.22
8334.00,1.22
8333.00,1.22
8332.00,1.23
8331.00,1.23
8330.00,1.23
8329.00,1.24
8328.00,1.24
8327.00,1.24
8326.00,1.24
8325.00,1.24
8324.00,1.25
8323.00,1.25
8322.00,1.25
8321.00,1.25
8320.00,1.25
8319.00,1.25
8318.00,1.25
8317.00,1.24
8316.00,1.24
8315.00,1.24
8314.00,1.24
8313.00,1.24
8312.00,1.23
8311.00,1.23
8310.00,1.23
8309.00,1.23
8308.00,1.22
8307.00,1.22
8306.00,1.22
8305.00,1.22
8304.00,1.22
8303.00,1.22
8302.00,1.22
8301.00,1.22
8300.00,1.22
8299.00,1.22
8298.00,1.23
8297.00,1.23
8296.00,1.23
8295.00,1.23
8294.00,1.23
8293.00,1.24
8292.00,1.24
8291.00,1.24
8290.00,1.24
8289.00,1.24
8288.00,1.24
8287.00,1.24
8286.00,1.24
8285.00,1.24
8284.00,1.24
8283.00,1.24
8282.00,1.23
8281.00,1.23
8280.00,1.23
8279.00,1.23
8278.00,1.23
8277.00,1.22
8276.00,1.22
8275.00,1.22
8274.00,1.22
8273.00,1.22
8272.00,1.22
8271.00,1.22
8270.00,1.22
8269.00,1.22
8268.00,1.22
8267.00,1.22
8266.00,1.22
8265.00,1.23
8264.00,1.23
8263.00,1.23
8262.00,1.23
8261.00,1.23
8260.00,1.23
8259.00,1.23
8258.00,1.23
8257.00,1.23
8256.00,1.24
8255.00,1.24
8254.00,1.24
8253.00,1.24
8252.00,1.24
8251.00,1.24
8250.00,1.24
8249.00,1.24
8248.00,1.24
8247.00,1.24
8246.00,1.24
8245.00,1.24
8244.00,1.24
8243.00,1.24
8242.00,1.24
8241.00,1.24
8240.00,1.24
8239.00,1.24
8238.00,1.23
8237.00,1.23
8236.00,1.23
8235.00,1.23
8234.00,1.23
8233.00,1.23
8232.00,1.23
8231.00,1.23
8230.00,1.23
8229.00,1.23
8228.00,1.23
8227.00,1.23
8226.00,1.23
8225.00,1.23
8224.00,1.23
8223.00,1.24
8222.00,1.24
8221.00,1.24
8220.00,1.24
8219.00,1.24
8218.00,1.24
8217.00,1.24
8216.00,1.25
8215.00,1.25
8214.00,1.25
8213.00,1.25
8212.00,1.25
8211.00,1.25
8210.00,1.25
8209.00,1.25
8208.00,1.25
8207.00,1.25
8206.00,1.25
8205.00,1.25
8204.00,1.25
8203.00,1.25
8202.00,1.25
8201.00,1.25
8200.00,1.25
8199.00,1.25
8198.00,1.25
8197.00,1.25
8196.00,1.25
8195.00,1.25
8194.00,1.25
8193.00,1.25
8192.00,1.25
8191.00,1.25
8190.00,1.25
8189.00,1.25
8188.00,1.25
8187.00,1.25
8186.00,1.26
8185.00,1.26
8184.00,1.26
8183.00,1.26
8182.00,1.26
8181.00,1.26
8180.00,1.26
8179.00,1.26
8178.00,1.26
8177.00,1.26
8176.00,1.26
8175.00,1.26
8174.00,1.26
8173.00,1.27
8172.00,1.27
8171.00,1.27
8170.00,1.27
8169.00,1.27
8168.00,1.27
8167.00,1.27
8166.00,1.27
8165.00,1.28
8164.00,1.28
8163.00,1.28
8162.00,1.28
8161.00,1.28
8160.00,1.28
8159.00,1.28
8158.00,1.28
8157.00,1.28
8156.00,1.28
8155.00,1.28
8154.00,1.28
8153.00,1.28
8152.00,1.28
8151.00,1.28
8150.00,1.28
8149.00,1.28
8148.00,1.28
8147.00,1.28
8146.00,1.28
8145.00,1.28
8144.00,1.28
8143.00,1.28
8142.00,1.28
8141.00,1.28
8140.00,1.28
8139.00,1.28
8138.00,1.28
8137.00,1.28
8136.00,1.28
8135.00,1.28
8134.00,1.28
8133.00,1.28
8132.00,1.28
8131.00,1.28
8130.00,1.28
8129.00,1.28
8128.00,1.28
8127.00,1.28
8126.00,1.27
8125.00,1.27
8124.00,1.27
8123.00,1.27
8122.00,1.27
8121.00,1.27
8120.00,1.27
8119.00,1.27
8118.00,1.26
8117.00,1.26
8116.00,1.26
8115.00,1.26
8114.00,1.26
8113.00,1.26
8112.00,1.26
8111.00,1.26
8110.00,1.26
8109.00,1.26
8108.00,1.26
8107.00,1.27
8106.00,1.27
8105.00,1.27
8104.00,1.27
8103.00,1.27
8102.00,1.27
8101.00,1.27
8100.00,1.27
8099.00,1.27
8098.00,1.27
8097.00,1.27
8096.00,1.27
8095.00,1.28
8094.00,1.28
8093.00,1.28
8092.00,1.28
8091.00,1.28
8090.00,1.28
8089.00,1.28
8088.00,1.28
8087.00,1.28
8086.00,1.28
8085.00,1.28
8084.00,1.28
8083.00,1.28
8082.00,1.28
8081.00,1.28
8080.00,1.28
8079.00,1.28
8078.00,1.28
8077.00,1.28
8076.00,1.28
8075.00,1.28
8074.00,1.28
8073.00,1.28
8072.00,1.28
8071.00,1.28
8070.00,1.28
8069.00,1.28
8068.00,1.28
8067.00,1.28
8066.00,1.28
8065.00,1.29
8064.00,1.29
8063.00,1.29
8062.00,1.29
8061.00,1.29
8060.00,1.29
8059.00,1.29
8058.00,1.29
8057.00,1.29
8056.00,1.29
8055.00,1.29
8054.00,1.29
8053.00,1.29
8052.00,1.29
8051.00,1.29
8050.00,1.29
8049.00,1.29
8048.00,1.29
8047.00,1.29
8046.00,1.29
8045.00,1.29
8044.00,1.30
8043.00,1.30
8042.00,1.30
8041.00,1.30
8040.00,1.30
8039.00,1.30
8038.00,1.30
8037.00,1.30
8036.00,1.30
8035.00,1.30
8034.00,1.30
8033.00,1.30
8032.00,1.30
8031.00,1.30
8030.00,1.30
8029.00,1.30
8028.00,1.30
8027.00,1.30
8026.00,1.30
8025.00,1.30
8024.00,1.30
8023.00,1.30
8022.00,1.30
8021.00,1.30
8020.00,1.29
8019.00,1.29
8018.00,1.29
8017.00,1.29
8016.00,1.29
8015.00,1.29
8014.00,1.29
8013.00,1.28
8012.00,1.28
8011.00,1.28
8010.00,1.28
8009.00,1.28
8008.00,1.29
8007.00,1.29
8006.00,1.29
8005.00,1.29
8004.00,1.29
8003.00,1.29
8002.00,1.30
8001.00,1.30
8000.00,1.30
7999.00,1.30
7998.00,1.30
7997.00,1.30
7996.00,1.31
7995.00,1.31
7994.00,1.31
7993.00,1.31
7992.00,1.31
7991.00,1.31
7990.00,1.31
7989.00,1.31
7988.00,1.31
7987.00,1.31
7986.00,1.31
7985.00,1.31
7984.00,1.31
7983.00,1.31
7982.00,1.31
7981.00,1.31
7980.00,1.31
7979.00,1.31
7978.00,1.31
7977.00,1.31
7976.00,1.31
7975.00,1.31
7974.00,1.30
7973.00,1.30
7972.00,1.30
7971.00,1.30
7970.00,1.30
7969.00,1.30
7968.00,1.30
7967.00,1.30
7966.00,1.30
7965.00,1.30
7964.00,1.30
7963.00,1.30
7962.00,1.30
7961.00,1.30
7960.00,1.30
7959.00,1.29
7958.00,1.29
7957.00,1.29
7956.00,1.29
7955.00,1.30
7954.00,1.30
7953.00,1.30
7952.00,1.30
7951.00,1.30
7950.00,1.30
7949.00,1.30
7948.00,1.30
7947.00,1.30
7946.00,1.30
7945.00,1.30
7944.00,1.30
7943.00,1.30
7942.00,1.30
7941.00,1.30
7940.00,1.30
7939.00,1.30
7938.00,1.30
7937.00,1.30
7936.00,1.30
7935.00,1.30
7934.00,1.30
7933.00,1.30
7932.00,1.30
7931.00,1.30
7930.00,1.30
7929.00,1.30
7928.00,1.30
7927.00,1.30
7926.00,1.30
7925.00,1.30
7924.00,1.30
7923.00,1.30
7922.00,1.30
7921.00,1.30
7920.00,1.30
7919.00,1.30
7918.00,1.30
7917.00,1.30
7916.00,1.30
7915.00,1.30
7914.00,1.30
7913.00,1.30
7912.00,1.31
7911.00,1.31
7910.00,1.31
7909.00,1.31
7908.00,1.31
7907.00,1.31
7906.00,1.31
7905.00,1.31
7904.00,1.31
7903.00,1.31
7902.00,1.31
7901.00,1.31
7900.00,1.31
7899.00,1.31
7898.00,1.31
7897.00,1.31
7896.00,1.31
7895.00,1.31
7894.00,1.31
7893.00,1.31
7892.00,1.31
7891.00,1.31
7890.00,1.31
7889.00,1.31
7888.00,1.30
7887.00,1.30
7886.00,1.30
7885.00,1.30
7884.00,1.30
7883.00,1.30
7882.00,1.30
7881.00,1.30
7880.00,1.30
7879.00,1.30
7878.00,1.30
7877.00,1.30
7876.00,1.30
7875.00,1.30
7874.00,1.30
7873.00,1.30
7872.00,1.30
7871.00,1.30
7870.00,1.30
7869.00,1.30
7868.00,1.30
7867.00,1.30
7866.00,1.30
7865.00,1.31
7864.00,1.31
7863.00,1.31
7862.00,1.31
7861.00,1.31
7860.00,1.31
7859.00,1.31
7858.00,1.31
7857.00,1.31
7856.00,1.31
7855.00,1.31
7854.00,1.31
7853.00,1.31
7852.00,1.31
7851.00,1.31
7850.00,1.31
7849.00,1.31
7848.00,1.31
7847.00,1.31
7846.00,1.31
7845.00,1.31
7844.00,1.31
7843.00,1.31
7842.00,1.31
7841.00,1.32
7840.00,1.32
7839.00,1.32
7838.00,1.32
7837.00,1.32
7836.00,1.32
7835.00,1.32
7834.00,1.32
7833.00,1.32
7832.00,1.31
7831.00,1.31
7830.00,1.31
7829.00,1.31
7828.00,1.31
7827.00,1.31
7826.00,1.31
7825.00,1.31
7824.00,1.31
7823.00,1.31
7822.00,1.32
7821.00,1.32
7820.00,1.32
7819.00,1.32
7818.00,1.32
7817.00,1.32
7816.00,1.32
7815.00,1.32
7814.00,1.32
7813.00,1.32
7812.00,1.32
7811.00,1.32
7810.00,1.32
7809.00,1.32
7808.00,1.32
7807.00,1.32
7806.00,1.33
7805.00,1.33
7804.00,1.33
7803.00,1.33
7802.00,1.33
7801.00,1.33
7800.00,1.33
7799.00,1.33
7798.00,1.33
7797.00,1.33
7796.00,1.33
7795.00,1.33
7794.00,1.33
7793.00,1.33
7792.00,1.33
7791.00,1.33
7790.00,1.33
7789.00,1.33
7788.00,1.33
7787.00,1.33
7786.00,1.33
7785.00,1.33
7784.00,1.33
7783.00,1.33
7782.00,1.33
7781.00,1.33
7780.00,1.33
7779.00,1.33
7778.00,1.33
7777.00,1.33
7776.00,1.33
7775.00,1.33
7774.00,1.33
7773.00,1.33
7772.00,1.32
7771.00,1.32
7770.00,1.32
7769.00,1.32
7768.00,1.32
7767.00,1.32
7766.00,1.33
7765.00,1.33
7764.00,1.33
7763.00,1.33
7762.00,1.33
7761.00,1.33
7760.00,1.33
7759.00,1.33
7758.00,1.33
7757.00,1.33
7756.00,1.33
7755.00,1.33
7754.00,1.33
7753.00,1.32
7752.00,1.32
7751.00,1.32
7750.00,1.32
7749.00,1.32
7748.00,1.32
7747.00,1.32
7746.00,1.32
7745.00,1.32
7744.00,1.32
7743.00,1.32
7742.00,1.32
7741.00,1.32
7740.00,1.32
7739.00,1.32
7738.00,1.31
7737.00,1.31
7736.00,1.31
7735.00,1.31
7734.00,1.31
7733.00,1.31
7732.00,1.31
7731.00,1.31
7730.00,1.31
7729.00,1.31
7728.00,1.31
7727.00,1.31
7726.00,1.31
7725.00,1.31
7724.00,1.31
7723.00,1.31
7722.00,1.31
7721.00,1.31
7720.00,1.31
7719.00,1.31
7718.00,1.31
7717.00,1.31
7716.00,1.31
7715.00,1.31
7714.00,1.31
7713.00,1.31
7712.00,1.31
7711.00,1.31
7710.00,1.31
7709.00,1.31
7708.00,1.32
7707.00,1.32
7706.00,1.32
7705.00,1.32
7704.00,1.32
7703.00,1.32
7702.00,1.32
7701.00,1.32
7700.00,1.32
7699.00,1.32
7698.00,1.32
7697.00,1.32
7696.00,1.32
7695.00,1.32
7694.00,1.32
7693.00,1.32
7692.00,1.32
7691.00,1.32
7690.00,1.32
7689.00,1.32
7688.00,1.32
7687.00,1.32
7686.00,1.32
7685.00,1.32
7684.00,1.32
7683.00,1.32
7682.00,1.32
7681.00,1.33
7680.00,1.33
7679.00,1.33
7678.00,1.32
7677.00,1.32
7676.00,1.32
7675.00,1.32
7674.00,1.32
7673.00,1.32
7672.00,1.32
7671.00,1.32
7670.00,1.32
7669.00,1.32
7668.00,1.32
7667.00,1.32
7666.00,1.32
7665.00,1.32
7664.00,1.32
7663.00,1.32
7662.00,1.32
7661.00,1.32
7660.00,1.32
7659.00,1.33
7658.00,1.33
7657.00,1.33
7656.00,1.33
7655.00,1.33
7654.00,1.33
7653.00,1.33
7652.00,1.33
7651.00,1.33
7650.00,1.33
7649.00,1.33
7648.00,1.33
7647.00,1.33
7646.00,1.33
7645.00,1.33
7644.00,1.33
7643.00,1.33
7642.00,1.33
7641.00,1.33
7640.00,1.33
7639.00,1.33
7638.00,1.33
7637.00,1.33
7636.00,1.32
7635.00,1.32
7634.00,1.32
7633.00,1.32
7632.00,1.32
7631.00,1.32
7630.00,1.32
7629.00,1.32
7628.00,1.32
7627.00,1.32
7626.00,1.32
7625.00,1.32
7624.00,1.32
7623.00,1.32
7622.00,1.32
7621.00,1.32
7620.00,1.32
7619.00,1.32
7618.00,1.32
7617.00,1.33
7616.00,1.33
7615.00,1.33
7614.00,1.33
7613.00,1.33
7612.00,1.33
7611.00,1.33
7610.00,1.33
7609.00,1.33
7608.00,1.33
7607.00,1.33
7606.00,1.33
7605.00,1.33
7604.00,1.33
7603.00,1.33
7602.00,1.33
7601.00,1.33
7600.00,1.33
7599.00,1.33
7598.00,1.33
7597.00,1.33
7596.00,1.33
7595.00,1.33
7594.00,1.33
7593.00,1.33
7592.00,1.33
7591.00,1.33
7590.00,1.33
7589.00,1.33
7588.00,1.33
7587.00,1.33
7586.00,1.33
7585.00,1.33
7584.00,1.33
7583.00,1.33
7582.00,1.33
7581.00,1.33
7580.00,1.33
7579.00,1.33
7578.00,1.33
7577.00,1.33
7576.00,1.33
7575.00,1.33
7574.00,1.33
7573.00,1.33
7572.00,1.33
7571.00,1.33
7570.00,1.33
7569.00,1.33
7568.00,1.33
7567.00,1.33
7566.00,1.33
7565.00,1.33
7564.00,1.33
7563.00,1.33
7562.00,1.33
7561.00,1.33
7560.00,1.33
7559.00,1.33
7558.00,1.33
7557.00,1.33
7556.00,1.33
7555.00,1.33
7554.00,1.33
7553.00,1.33
7552.00,1.33
7551.00,1.33
7550.00,1.33
7549.00,1.33
7548.00,1.33
7547.00,1.33
7546.00,1.33
7545.00,1.33
7544.00,1.33
7543.00,1.33
7542.00,1.33
7541.00,1.32
7540.00,1.32
7539.00,1.32
7538.00,1.32
7537.00,1.32
7536.00,1.32
7535.00,1.32
7534.00,1.32
7533.00,1.32
7532.00,1.32
7531.00,1.32
7530.00,1.32
7529.00,1.32
7528.00,1.32
7527.00,1.32
7526.00,1.32
7525.00,1.32
7524.00,1.32
7523.00,1.32
7522.00,1.32
7521.00,1.32
7520.00,1.32
7519.00,1.32
7518.00,1.32
7517.00,1.32
7516.00,1.32
7515.00,1.31
7514.00,1.31
7513.00,1.31
7512.00,1.31
7511.00,1.31
7510.00,1.31
7509.00,1.31
7508.00,1.31
7507.00,1.31
7506.00,1.31
7505.00,1.31
7504.00,1.31
7503.00,1.31
7502.00,1.32
7501.00,1.32
7500.00,1.32
7499.00,1.32
7498.00,1.32
7497.00,1.32
7496.00,1.32
7495.00,1.32
7494.00,1.32
7493.00,1.32
7492.00,1.32
7491.00,1.32
7490.00,1.32
7489.00,1.31
7488.00,1.31
7487.00,1.31
7486.00,1.31
7485.00,1.31
7484.00,1.31
7483.00,1.31
7482.00,1.31
7481.00,1.30
7480.00,1.30
7479.00,1.30
7478.00,1.30
7477.00,1.30
7476.00,1.30
7475.00,1.30
7474.00,1.30
7473.00,1.30
7472.00,1.30
7471.00,1.30
7470.00,1.30
7469.00,1.30
7468.00,1.30
7467.00,1.30
7466.00,1.30
7465.00,1.30
7464.00,1.30
7463.00,1.30
7462.00,1.30
7461.00,1.30
7460.00,1.30
7459.00,1.30
7458.00,1.30
7457.00,1.30
7456.00,1.30
7455.00,1.30
7454.00,1.30
7453.00,1.30
7452.00,1.30
7451.00,1.30
7450.00,1.30
7449.00,1.30
7448.00,1.30
7447.00,1.30
7446.00,1.30
7445.00,1.30
7444.00,1.30
7443.00,1.29
7442.00,1.29
7441.00,1.29
7440.00,1.29
7439.00,1.29
7438.00,1.29
7437.00,1.29
7436.00,1.29
7435.00,1.29
7434.00,1.29
7433.00,1.29
7432.00,1.29
7431.00,1.29
7430.00,1.28
7429.00,1.28
7428.00,1.28
7427.00,1.28
7426.00,1.28
7425.00,1.28
7424.00,1.28
7423.00,1.28
7422.00,1.28
7421.00,1.28
7420.00,1.27
7419.00,1.27
7418.00,1.27
7417.00,1.27
7416.00,1.27
7415.00,1.27
7414.00,1.27
7413.00,1.27
7412.00,1.27
7411.00,1.27
7410.00,1.27
7409.00,1.27
7408.00,1.27
7407.00,1.27
7406.00,1.27
7405.00,1.28
7404.00,1.28
7403.00,1.28
7402.00,1.28
7401.00,1.28
7400.00,1.28
7399.00,1.28
7398.00,1.28
7397.00,1.28
7396.00,1.28
7395.00,1.28
7394.00,1.28
7393.00,1.28
7392.00,1.28
7391.00,1.27
7390.00,1.27
7389.00,1.27
7388.00,1.27
7387.00,1.27
7386.00,1.27
7385.00,1.27
7384.00,1.27
7383.00,1.27
7382.00,1.26
7381.00,1.26
7380.00,1.26
7379.00,1.26
7378.00,1.26
7377.00,1.26
7376.00,1.26
7375.00,1.26
7374.00,1.26
7373.00,1.26
7372.00,1.26
7371.00,1.26
7370.00,1.26
7369.00,1.26
7368.00,1.26
7367.00,1.26
7366.00,1.26
7365.00,1.25
7364.00,1.25
7363.00,1.25
7362.00,1.25
7361.00,1.25
7360.00,1.25
7359.00,1.25
7358.00,1.25
7357.00,1.24
7356.00,1.24
7355.00,1.24
7354.00,1.24
7353.00,1.24
7352.00,1.24
7351.00,1.24
7350.00,1.23
7349.00,1.23
7348.00,1.23
7347.00,1.23
7346.00,1.23
7345.00,1.23
7344.00,1.23
7343.00,1.23
7342.00,1.23
7341.00,1.23
7340.00,1.24
7339.00,1.24
7338.00,1.24
7337.00,1.24
7336.00,1.24
7335.00,1.24
7334.00,1.24
7333.00,1.24
7332.00,1.24
7331.00,1.24
7330.00,1.24
7329.00,1.24
7328.00,1.24
7327.00,1.24
7326.00,1.23
7325.00,1.23
7324.00,1.23
7323.00,1.23
7322.00,1.23
7321.00,1.23
7320.00,1.23
7319.00,1.23
7318.00,1.23
7317.00,1.23
7316.00,1.23
7315.00,1.23
7314.00,1.23
7313.00,1.23
7312.00,1.23
7311.00,1.23
7310.00,1.23
7309.00,1.23
7308.00,1.23
7307.00,1.23
7306.00,1.23
7305.00,1.22
7304.00,1.22
7303.00,1.22
7302.00,1.22
7301.00,1.22
7300.00,1.22
7299.00,1.22
7298.00,1.22
7297.00,1.22
7296.00,1.22
7295.00,1.22
7294.00,1.22
7293.00,1.22
7292.00,1.22
7291.00,1.22
7290.00,1.22
7289.00,1.22
7288.00,1.22
7287.00,1.22
7286.00,1.22
7285.00,1.22
7284.00,1.22
7283.00,1.22
7282.00,1.22
7281.00,1.22
7280.00,1.22
7279.00,1.22
7278.00,1.22
7277.00,1.21
7276.00,1.21
7275.00,1.21
7274.00,1.21
7273.00,1.21
7272.00,1.21
7271.00,1.21
7270.00,1.20
7269.00,1.20
7268.00,1.20
7267.00,1.20
7266.00,1.20
7265.00,1.19
7264.00,1.19
7263.00,1.19
7262.00,1.19
7261.00,1.19
7260.00,1.19
7259.00,1.18
7258.00,1.18
7257.00,1.18
7256.00,1.18
7255.00,1.18
7254.00,1.18
7253.00,1.18
7252.00,1.17
7251.00,1.17
7250.00,1.17
7249.00,1.17
7248.00,1.17
7247.00,1.16
7246.00,1.16
7245.00,1.16
7244.00,1.16
7243.00,1.15
7242.00,1.15
7241.00,1.15
7240.00,1.15
7239.00,1.14
7238.00,1.14
7237.00,1.14
7236.00,1.14
7235.00,1.13
7234.00,1.13
7233.00,1.13
7232.00,1.13
7231.00,1.12
7230.00,1.12
7229.00,1.12
7228.00,1.12
7227.00,1.11
7226.00,1.11
7225.00,1.11
7224.00,1.11
7223.00,1.11
7222.00,1.11
7221.00,1.10
7220.00,1.10
7219.00,1.10
7218.00,1.10
7217.00,1.10
7216.00,1.09
7215.00,1.09
7214.00,1.09
7213.00,1.09
7212.00,1.09
7211.00,1.08
7210.00,1.08
7209.00,1.08
7208.00,1.08
7207.00,1.07
7206.00,1.07
7205.00,1.07
7204.00,1.07
7203.00,1.06
7202.00,1.06
7201.00,1.06
7200.00,1.06
7199.00,1.06
7198.00,1.05
7197.00,1.05
7196.00,1.05
7195.00,1.05
7194.00,1.04
7193.00,1.04
7192.00,1.04
7191.00,1.04
7190.00,1.03
7189.00,1.03
7188.00,1.03
7187.00,1.03
7186.00,1.02
7185.00,1.02
7184.00,1.02
7183.00,1.02
7182.00,1.02
7181.00,1.01
7180.00,1.01
7179.00,1.01
7178.00,1.01
7177.00,1.00
7176.00,1.00
7175.00,1.00
7174.00,0.99
7173.00,0.99
7172.00,0.99
7171.00,0.99
7170.00,0.98
7169.00,0.98
7168.00,0.98
7167.00,0.97
7166.00,0.97
7165.00,0.97
7164.00,0.97
7163.00,0.96
7162.00,0.96
7161.00,0.96
7160.00,0.96
7159.00,0.96
7158.00,0.95
7157.00,0.95
7156.00,0.95
7155.00,0.95
7154.00,0.95
7153.00,0.94
7152.00,0.94
7151.00,0.94
7150.00,0.94
7149.00,0.94
7148.00,0.94
7147.00,0.93
7146.00,0.93
7145.00,0.93
7144.00,0.93
7143.00,0.93
7142.00,0.92
7141.00,0.92
7140.00,0.92
7139.00,0.92
7138.00,0.92
7137.00,0.91
7136.00,0.91
7135.00,0.91
7134.00,0.91
7133.00,0.91
7132.00,0.90
7131.00,0.90
7130.00,0.90
7129.00,0.90
7128.00,0.89
7127.00,0.89
7126.00,0.89
7125.00,0.89
7124.00,0.89
7123.00,0.88
7122.00,0.88
7121.00,0.88
7120.00,0.88
7119.00,0.88
7118.00,0.87
7117.00,0.87
7116.00,0.87
7115.00,0.87
7114.00,0.87
7113.00,0.86
7112.00,0.86
7111.00,0.86
7110.00,0.85
7109.00,0.85
7108.00,0.85
7107.00,0.85
7106.00,0.84
7105.00,0.84
7104.00,0.84
7103.00,0.83
7102.00,0.83
7101.00,0.83
7100.00,0.82
7099.00,0.82
7098.00,0.82
7097.00,0.81
7096.00,0.81
7095.00,0.81
7094.00,0.80
7093.00,0.80
7092.00,0.80
7091.00,0.80
7090.00,0.80
7089.00,0.79
7088.00,0.79
7087.00,0.79
7086.00,0.79
7085.00,0.79
7084.00,0.79
7083.00,0.79
7082.00,0.79
7081.00,0.79
7080.00,0.79
7079.00,0.79
7078.00,0.79
7077.00,0.79
7076.00,0.79
7075.00,0.79
7074.00,0.78
7073.00,0.78
7072.00,0.78
7071.00,0.78
7070.00,0.78
7069.00,0.78
7068.00,0.78
7067.00,0.78
7066.00,0.77
7065.00,0.77
7064.00,0.77
7063.00,0.77
7062.00,0.77
7061.00,0.76
7060.00,0.76
7059.00,0.76
7058.00,0.76
7057.00,0.76
7056.00,0.76
7055.00,0.75
7054.00,0.75
7053.00,0.75
7052.00,0.75
7051.00,0.75
7050.00,0.75
7049.00,0.75
7048.00,0.75
7047.00,0.75
7046.00,0.74
7045.00,0.74
7044.00,0.74
7043.00,0.74
7042.00,0.74
7041.00,0.74
7040.00,0.74
7039.00,0.74
7038.00,0.73
7037.00,0.73
7036.00,0.73
7035.00,0.73
7034.00,0.73
7033.00,0.73
7032.00,0.73
7031.00,0.73
7030.00,0.73
7029.00,0.73
7028.00,0.73
7027.00,0.73
7026.00,0.72
7025.00,0.72
7024.00,0.72
7023.00,0.72
7022.00,0.72
7021.00,0.72
7020.00,0.72
7019.00,0.72
7018.00,0.72
7017.00,0.71
7016.00,0.71
7015.00,0.71
7014.00,0.71
7013.00,0.71
7012.00,0.71
7011.00,0.70
7010.00,0.70
7009.00,0.70
7008.00,0.70
7007.00,0.70
7006.00,0.70
7005.00,0.70
7004.00,0.69
7003.00,0.69
7002.00,0.69
7001.00,0.69
7000.00,0.69
6999.00,0.69
6998.00,0.68
6997.00,0.68
6996.00,0.68
6995.00,0.68
6994.00,0.68
6993.00,0.68
6992.00,0.68
6991.00,0.67
6990.00,0.67
6989.00,0.67
6988.00,0.67
6987.00,0.67
6986.00,0.67
6985.00,0.67
6984.00,0.67
6983.00,0.67
6982.00,0.67
6981.00,0.67
6980.00,0.67
6979.00,0.67
6978.00,0.67
6977.00,0.67
6976.00,0.67
6975.00,0.67
6974.00,0.67
6973.00,0.67
6972.00,0.67
6971.00,0.67
6970.00,0.67
6969.00,0.67
6968.00,0.67
6967.00,0.67
6966.00,0.67
6965.00,0.66
6964.00,0.66
6963.00,0.66
6962.00,0.66
6961.00,0.66
6960.00,0.66
6959.00,0.66
6958.00,0.66
6957.00,0.66
6956.00,0.66
6955.00,0.66
6954.00,0.66
6953.00,0.66
6952.00,0.66
6951.00,0.66
6950.00,0.66
6949.00,0.66
6948.00,0.66
6947.00,0.66
6946.00,0.66
6945.00,0.66
6944.00,0.66
6943.00,0.66
6942.00,0.66
6941.00,0.66
6940.00,0.66
6939.00,0.66
6938.00,0.66
6937.00,0.66
6936.00,0.66
6935.00,0.66
6934.00,0.66
6933.00,0.66
6932.00,0.66
6931.00,0.66
6930.00,0.66
6929.00,0.66
6928.00,0.66
6927.00,0.65
6926.00,0.65
6925.00,0.65
6924.00,0.65
6923.00,0.65
6922.00,0.65
6921.00,0.65
6920.00,0.65
6919.00,0.65
6918.00,0.65
6917.00,0.65
6916.00,0.65
6915.00,0.65
6914.00,0.65
6913.00,0.65
6912.00,0.65
6911.00,0.65
6910.00,0.65
6909.00,0.65
6908.00,0.65
6907.00,0.65
6906.00,0.65
6905.00,0.65
6904.00,0.65
6903.00,0.65
6902.00,0.65
6901.00,0.65
6900.00,0.65
6899.00,0.65
6898.00,0.65
6897.00,0.65
6896.00,0.65
6895.00,0.65
6894.00,0.65
6893.00,0.65
6892.00,0.65
6891.00,0.64
6890.00,0.64
6889.00,0.64
6888.00,0.64
6887.00,0.64
6886.00,0.64
6885.00,0.64
6884.00,0.64
6883.00,0.64
6882.00,0.64
6881.00,0.63
6880.00,0.63
6879.00,0.63
6878.00,0.63
6877.00,0.63
6876.00,0.63
6875.00,0.63
6874.00,0.63
6873.00,0.63
6872.00,0.63
6871.00,0.63
6870.00,0.63
6869.00,0.63
6868.00,0.63
6867.00,0.63
6866.00,0.63
6865.00,0.63
6864.00,0.63
6863.00,0.63
6862.00,0.64
6861.00,0.64
6860.00,0.64
6859.00,0.64
6858.00,0.64
6857.00,0.64
6856.00,0.64
6855.00,0.64
6854.00,0.64
6853.00,0.64
6852.00,0.64
6851.00,0.64
6850.00,0.64
6849.00,0.64
6848.00,0.65
6847.00,0.65
6846.00,0.65
6845.00,0.65
6844.00,0.65
6843.00,0.64
6842.00,0.64
6841.00,0.64
6840.00,0.64
6839.00,0.64
6838.00,0.64
6837.00,0.64
6836.00,0.64
6835.00,0.64
6834.00,0.64
6833.00,0.64
6832.00,0.64
6831.00,0.64
6830.00,0.64
6829.00,0.64
6828.00,0.64
6827.00,0.65
6826.00,0.65
6825.00,0.65
6824.00,0.65
6823.00,0.65
6822.00,0.65
6821.00,0.65
6820.00,0.66
6819.00,0.66
6818.00,0.66
6817.00,0.66
6816.00,0.66
6815.00,0.66
6814.00,0.66
6813.00,0.66
6812.00,0.66
6811.00,0.66
6810.00,0.66
6809.00,0.66
6808.00,0.66
6807.00,0.66
6806.00,0.66
6805.00,0.66
6804.00,0.66
6803.00,0.66
6802.00,0.66
6801.00,0.66
6800.00,0.66
6799.00,0.66
6798.00,0.66
6797.00,0.66
6796.00,0.66
6795.00,0.66
6794.00,0.66
6793.00,0.66
6792.00,0.66
6791.00,0.66
6790.00,0.66
6789.00,0.66
6788.00,0.67
6787.00,0.67
6786.00,0.67
6785.00,0.67
6784.00,0.67
6783.00,0.67
6782.00,0.67
6781.00,0.67
6780.00,0.67
6779.00,0.67
6778.00,0.66
6777.00,0.66
6776.00,0.66
6775.00,0.66
6774.00,0.66
6773.00,0.66
6772.00,0.67
6771.00,0.67
6770.00,0.67
6769.00,0.67
6768.00,0.67
6767.00,0.67
6766.00,0.67
6765.00,0.67
6764.00,0.67
6763.00,0.67
6762.00,0.68
6761.00,0.68
6760.00,0.68
6759.00,0.68
6758.00,0.68
6757.00,0.68
6756.00,0.68
6755.00,0.68
6754.00,0.68
6753.00,0.68
6752.00,0.68
6751.00,0.68
6750.00,0.68
6749.00,0.68
6748.00,0.68
6747.00,0.69
6746.00,0.69
6745.00,0.69
6744.00,0.69
6743.00,0.69
6742.00,0.69
6741.00,0.69
6740.00,0.69
6739.00,0.69
6738.00,0.69
6737.00,0.69
6736.00,0.69
6735.00,0.70
6734.00,0.70
6733.00,0.70
6732.00,0.70
6731.00,0.70
6730.00,0.70
6729.00,0.70
6728.00,0.70
6727.00,0.70
6726.00,0.70
6725.00,0.70
6724.00,0.70
6723.00,0.70
6722.00,0.70
6721.00,0.70
6720.00,0.70
6719.00,0.70
6718.00,0.70
6717.00,0.70
6716.00,0.70
6715.00,0.70
6714.00,0.71
6713.00,0.71
6712.00,0.71
6711.00,0.71
6710.00,0.71
6709.00,0.71
6708.00,0.71
6707.00,0.71
6706.00,0.71
6705.00,0.71
6704.00,0.71
6703.00,0.71
6702.00,0.71
6701.00,0.71
6700.00,0.72
6699.00,0.72
6698.00,0.72
6697.00,0.72
6696.00,0.72
6695.00,0.72
6694.00,0.72
6693.00,0.72
6692.00,0.72
6691.00,0.72
6690.00,0.72
6689.00,0.73
6688.00,0.73
6687.00,0.73
6686.00,0.73
6685.00,0.73
6684.00,0.73
6683.00,0.73
6682.00,0.74
6681.00,0.74
6680.00,0.74
6679.00,0.74
6678.00,0.74
6677.00,0.74
6676.00,0.74
6675.00,0.74
6674.00,0.74
6673.00,0.74
6672.00,0.74
6671.00,0.74
6670.00,0.74
6669.00,0.74
6668.00,0.74
6667.00,0.74
6666.00,0.74
6665.00,0.74
6664.00,0.74
6663.00,0.74
6662.00,0.74
6661.00,0.74
6660.00,0.74
6659.00,0.75
6658.00,0.75
6657.00,0.75
6656.00,0.75
6655.00,0.75
6654.00,0.75
6653.00,0.75
6652.00,0.76
6651.00,0.76
6650.00,0.76
6649.00,0.76
6648.00,0.76
6647.00,0.76
6646.00,0.77
6645.00,0.77
6644.00,0.77
6643.00,0.77
6642.00,0.77
6641.00,0.77
6640.00,0.78
6639.00,0.78
6638.00,0.78
6637.00,0.78
6636.00,0.78
6635.00,0.78
6634.00,0.78
6633.00,0.78
6632.00,0.78
6631.00,0.78
6630.00,0.78
6629.00,0.79
6628.00,0.79
6627.00,0.79
6626.00,0.79
6625.00,0.79
6624.00,0.79
6623.00,0.79
6622.00,0.79
6621.00,0.79
6620.00,0.79
6619.00,0.80
6618.00,0.80
6617.00,0.80
6616.00,0.80
6615.00,0.80
6614.00,0.80
6613.00,0.80
6612.00,0.80
6611.00,0.80
6610.00,0.80
6609.00,0.81
6608.00,0.81
6607.00,0.81
6606.00,0.81
6605.00,0.81
6604.00,0.81
6603.00,0.81
6602.00,0.81
6601.00,0.81
6600.00,0.81
6599.00,0.81
6598.00,0.81
6597.00,0.81
6596.00,0.81
6595.00,0.81
6594.00,0.81
6593.00,0.81
6592.00,0.81
6591.00,0.81
6590.00,0.81
6589.00,0.81
6588.00,0.81
6587.00,0.81
6586.00,0.81
6585.00,0.82
6584.00,0.82
6583.00,0.82
6582.00,0.82
6581.00,0.82
6580.00,0.82
6579.00,0.82
6578.00,0.83
6577.00,0.83
6576.00,0.83
6575.00,0.83
6574.00,0.83
6573.00,0.83
6572.00,0.84
6571.00,0.84
6570.00,0.84
6569.00,0.84
6568.00,0.84
6567.00,0.84
6566.00,0.84
6565.00,0.84
6564.00,0.84
6563.00,0.84
6562.00,0.85
6561.00,0.85
6560.00,0.85
6559.00,0.85
6558.00,0.85
6557.00,0.85
6556.00,0.85
6555.00,0.84
6554.00,0.84
6553.00,0.84
6552.00,0.84
6551.00,0.84
6550.00,0.84
6549.00,0.85
6548.00,0.85
6547.00,0.85
6546.00,0.85
6545.00,0.85
6544.00,0.85
6543.00,0.85
6542.00,0.85
6541.00,0.85
6540.00,0.85
6539.00,0.85
6538.00,0.85
6537.00,0.85
6536.00,0.85
6535.00,0.86
6534.00,0.86
6533.00,0.86
6532.00,0.86
6531.00,0.86
6530.00,0.86
6529.00,0.86
6528.00,0.86
6527.00,0.86
6526.00,0.86
6525.00,0.86
6524.00,0.86
6523.00,0.86
6522.00,0.86
6521.00,0.86
6520.00,0.86
6519.00,0.86
6518.00,0.86
6517.00,0.86
6516.00,0.86
6515.00,0.86
6514.00,0.86
6513.00,0.87
6512.00,0.87
6511.00,0.87
6510.00,0.87
6509.00,0.87
6508.00,0.87
6507.00,0.87
6506.00,0.87
6505.00,0.87
6504.00,0.87
6503.00,0.88
6502.00,0.88
6501.00,0.88
6500.00,0.88
6499.00,0.88
6498.00,0.88
6497.00,0.88
6496.00,0.88
6495.00,0.88
6494.00,0.89
6493.00,0.89
6492.00,0.89
6491.00,0.89
6490.00,0.89
6489.00,0.89
6488.00,0.89
6487.00,0.89
6486.00,0.89
6485.00,0.89
6484.00,0.90
6483.00,0.90
6482.00,0.90
6481.00,0.90
6480.00,0.90
6479.00,0.90
6478.00,0.90
6477.00,0.90
6476.00,0.90
6475.00,0.90
6474.00,0.90
6473.00,0.90
6472.00,0.90
6471.00,0.90
6470.00,0.90
6469.00,0.90
6468.00,0.90
6467.00,0.90
6466.00,0.90
6465.00,0.90
6464.00,0.90
6463.00,0.90
6462.00,0.90
6461.00,0.90
6460.00,0.90
6459.00,0.90
6458.00,0.90
6457.00,0.90
6456.00,0.90
6455.00,0.90
6454.00,0.90
6453.00,0.90
6452.00,0.90
6451.00,0.90
6450.00,0.90
6449.00,0.90
6448.00,0.90
6447.00,0.91
6446.00,0.91
6445.00,0.91
6444.00,0.91
6443.00,0.91
6442.00,0.91
6441.00,0.91
6440.00,0.91
6439.00,0.91
6438.00,0.91
6437.00,0.91
6436.00,0.91
6435.00,0.91
6434.00,0.92
6433.00,0.92
6432.00,0.92
6431.00,0.92
6430.00,0.92
6429.00,0.92
6428.00,0.92
6427.00,0.92
6426.00,0.92
6425.00,0.93
6424.00,0.93
6423.00,0.93
6422.00,0.93
6421.00,0.93
6420.00,0.93
6419.00,0.93
6418.00,0.93
6417.00,0.93
6416.00,0.93
6415.00,0.93
6414.00,0.93
6413.00,0.93
6412.00,0.93
6411.00,0.93
6410.00,0.93
6409.00,0.93
6408.00,0.93
6407.00,0.93
6406.00,0.93
6405.00,0.93
6404.00,0.93
6403.00,0.93
6402.00,0.93
6401.00,0.93
6400.00,0.93
6399.00,0.93
6398.00,0.93
6397.00,0.93
6396.00,0.93
6395.00,0.93
6394.00,0.93
6393.00,0.93
6392.00,0.93
6391.00,0.93
6390.00,0.93
6389.00,0.93
6388.00,0.93
6387.00,0.93
6386.00,0.93
6385.00,0.93
6384.00,0.93
6383.00,0.94
6382.00,0.94
6381.00,0.94
6380.00,0.94
6379.00,0.94
6378.00,0.94
6377.00,0.94
6376.00,0.94
6375.00,0.94
6374.00,0.94
6373.00,0.94
6372.00,0.95
6371.00,0.95
6370.00,0.95
6369.00,0.95
6368.00,0.95
6367.00,0.95
6366.00,0.95
6365.00,0.95
6364.00,0.95
6363.00,0.95
6362.00,0.95
6361.00,0.95
6360.00,0.95
6359.00,0.95
6358.00,0.95
6357.00,0.95
6356.00,0.95
6355.00,0.95
6354.00,0.95
6353.00,0.95
6352.00,0.95
6351.00,0.95
6350.00,0.95
6349.00,0.95
6348.00,0.95
6347.00,0.95
6346.00,0.96
6345.00,0.96
6344.00,0.96
6343.00,0.96
6342.00,0.96
6341.00,0.96
6340.00,0.96
6339.00,0.96
6338.00,0.97
6337.00,0.97
6336.00,0.97
6335.00,0.97
6334.00,0.97
6333.00,0.97
6332.00,0.97
6331.00,0.97
6330.00,0.97
6329.00,0.97
6328.00,0.97
6327.00,0.97
6326.00,0.97
6325.00,0.97
6324.00,0.97
6323.00,0.97
6322.00,0.97
6321.00,0.97
6320.00,0.97
6319.00,0.97
6318.00,0.98
6317.00,0.98
6316.00,0.98
6315.00,0.98
6314.00,0.98
6313.00,0.98
6312.00,0.98
6311.00,0.98
6310.00,0.98
6309.00,0.98
6308.00,0.98
6307.00,0.98
6306.00,0.99
6305.00,0.99
6304.00,0.99
6303.00,0.99
6302.00,0.99
6301.00,0.99
6300.00,0.99
6299.00,0.99
6298.00,0.99
6297.00,0.99
6296.00,0.99
6295.00,0.99
6294.00,0.99
6293.00,0.99
6292.00,0.99
6291.00,1.00
6290.00,1.00
6289.00,1.00
6288.00,1.00
6287.00,1.00
6286.00,1.00
6285.00,1.00
6284.00,1.00
6283.00,1.01
6282.00,1.01
6281.00,1.01
6280.00,1.01
6279.00,1.01
6278.00,1.01
6277.00,1.01
6276.00,1.02
6275.00,1.02
6274.00,1.02
6273.00,1.02
6272.00,1.02
6271.00,1.02
6270.00,1.02
6269.00,1.02
6268.00,1.02
6267.00,1.02
6266.00,1.02
6265.00,1.02
6264.00,1.02
6263.00,1.02
6262.00,1.02
6261.00,1.02
6260.00,1.02
6259.00,1.02
6258.00,1.02
6257.00,1.02
6256.00,1.02
6255.00,1.02
6254.00,1.02
6253.00,1.02
6252.00,1.03
6251.00,1.03
6250.00,1.03
6249.00,1.03
6248.00,1.03
6247.00,1.03
6246.00,1.03
6245.00,1.03
6244.00,1.04
6243.00,1.04
6242.00,1.04
6241.00,1.04
6240.00,1.04
6239.00,1.04
6238.00,1.05
6237.00,1.05
6236.00,1.05
6235.00,1.05
6234.00,1.05
6233.00,1.05
6232.00,1.05
6231.00,1.06
6230.00,1.06
6229.00,1.06
6228.00,1.06
6227.00,1.06
6226.00,1.06
6225.00,1.06
6224.00,1.07
6223.00,1.07
6222.00,1.07
6221.00,1.07
6220.00,1.07
6219.00,1.07
6218.00,1.07
6217.00,1.07
6216.00,1.07
6215.00,1.07
6214.00,1.07
6213.00,1.08
6212.00,1.08
6211.00,1.08
6210.00,1.08
6209.00,1.08
6208.00,1.08
6207.00,1.08
6206.00,1.08
6205.00,1.08
6204.00,1.09
6203.00,1.09
6202.00,1.09
6201.00,1.09
6200.00,1.09
6199.00,1.09
6198.00,1.09
6197.00,1.09
6196.00,1.09
6195.00,1.09
6194.00,1.10
6193.00,1.10
6192.00,1.10
6191.00,1.10
6190.00,1.10
6189.00,1.10
6188.00,1.10
6187.00,1.10
6186.00,1.10
6185.00,1.10
6184.00,1.10
6183.00,1.10
6182.00,1.10
6181.00,1.11
6180.00,1.11
6179.00,1.11
6178.00,1.11
6177.00,1.11
6176.00,1.11
6175.00,1.11
6174.00,1.11
6173.00,1.11
6172.00,1.11
6171.00,1.12
6170.00,1.12
6169.00,1.12
6168.00,1.12
6167.00,1.12
6166.00,1.12
6165.00,1.13
6164.00,1.13
6163.00,1.13
6162.00,1.13
6161.00,1.13
6160.00,1.14
6159.00,1.14
6158.00,1.14
6157.00,1.14
6156.00,1.14
6155.00,1.14
6154.00,1.15
6153.00,1.15
6152.00,1.15
6151.00,1.15
6150.00,1.15
6149.00,1.15
6148.00,1.15
6147.00,1.15
6146.00,1.15
6145.00,1.15
6144.00,1.15
6143.00,1.16
6142.00,1.16
6141.00,1.16
6140.00,1.16
6139.00,1.16
6138.00,1.16
6137.00,1.16
6136.00,1.16
6135.00,1.16
6134.00,1.16
6133.00,1.16
6132.00,1.17
6131.00,1.17
6130.00,1.17
6129.00,1.17
6128.00,1.17
6127.00,1.17
6126.00,1.17
6125.00,1.17
6124.00,1.17
6123.00,1.18
6122.00,1.18
6121.00,1.18
6120.00,1.18
6119.00,1.18
6118.00,1.18
6117.00,1.18
6116.00,1.18
6115.00,1.19
6114.00,1.19
6113.00,1.19
6112.00,1.19
6111.00,1.19
6110.00,1.19
6109.00,1.19
6108.00,1.19
6107.00,1.19
6106.00,1.19
6105.00,1.19
6104.00,1.20
6103.00,1.20
6102.00,1.20
6101.00,1.20
6100.00,1.20
6099.00,1.20
6098.00,1.20
6097.00,1.20
6096.00,1.20
6095.00,1.20
6094.00,1.20
6093.00,1.20
6092.00,1.21
6091.00,1.21
6090.00,1.21
6089.00,1.21
6088.00,1.21
6087.00,1.21
6086.00,1.21
6085.00,1.21
6084.00,1.22
6083.00,1.22
6082.00,1.22
6081.00,1.22
6080.00,1.22
6079.00,1.22
6078.00,1.22
6077.00,1.22
6076.00,1.23
6075.00,1.23
6074.00,1.23
6073.00,1.23
6072.00,1.23
6071.00,1.23
6070.00,1.23
6069.00,1.23
6068.00,1.23
6067.00,1.23
6066.00,1.24
6065.00,1.24
6064.00,1.24
6063.00,1.24
6062.00,1.24
6061.00,1.24
6060.00,1.24
6059.00,1.24
6058.00,1.24
6057.00,1.24
6056.00,1.24
6055.00,1.24
6054.00,1.25
6053.00,1.25
6052.00,1.25
6051.00,1.25
6050.00,1.25
6049.00,1.25
6048.00,1.25
6047.00,1.25
6046.00,1.25
6045.00,1.25
6044.00,1.25
6043.00,1.25
6042.00,1.25
6041.00,1.25
6040.00,1.25
6039.00,1.25
6038.00,1.25
6037.00,1.25
6036.00,1.25
6035.00,1.25
6034.00,1.25
6033.00,1.25
6032.00,1.25
6031.00,1.25
6030.00,1.25
6029.00,1.25
6028.00,1.25
6027.00,1.25
6026.00,1.25
6025.00,1.25
6024.00,1.25
6023.00,1.25
6022.00,1.25
6021.00,1.25
6020.00,1.25
6019.00,1.25
6018.00,1.25
6017.00,1.25
6016.00,1.25
6015.00,1.26
6014.00,1.26
6013.00,1.26
6012.00,1.26
6011.00,1.26
6010.00,1.26
6009.00,1.26
6008.00,1.26
6007.00,1.26
6006.00,1.26
6005.00,1.26
6004.00,1.25
6003.00,1.25
6002.00,1.25
6001.00,1.25
6000.00,1.25
5999.00,1.25
5998.00,1.25
5997.00,1.25
5996.00,1.25
5995.00,1.25
5994.00,1.25
5993.00,1.24
5992.00,1.24
5991.00,1.24
5990.00,1.24
5989.00,1.24
5988.00,1.24
5987.00,1.24
5986.00,1.23
5985.00,1.23
5984.00,1.23
5983.00,1.23
5982.00,1.23
5981.00,1.22
5980.00,1.22
5979.00,1.22
5978.00,1.21
5977.00,1.21
5976.00,1.21
5975.00,1.20
5974.00,1.20
5973.00,1.20
5972.00,1.19
5971.00,1.19
5970.00,1.18
5969.00,1.18
5968.00,1.17
5967.00,1.17
5966.00,1.16
5965.00,1.16
5964.00,1.15
5963.00,1.15
5962.00,1.14
5961.00,1.13
5960.00,1.13
5959.00,1.12
5958.00,1.12
5957.00,1.11
5956.00,1.10
5955.00,1.10
5954.00,1.09
5953.00,1.09
5952.00,1.08
5951.00,1.07
5950.00,1.07
5949.00,1.06
5948.00,1.06
5947.00,1.06
5946.00,1.05
5945.00,1.05
5944.00,1.04
5943.00,1.04
5942.00,1.04
5941.00,1.04
5940.00,1.04
5939.00,1.03
5938.00,1.03
5937.00,1.03
5936.00,1.03
5935.00,1.03
5934.00,1.03
5933.00,1.03
5932.00,1.03
5931.00,1.02
5930.00,1.02
5929.00,1.02
5928.00,1.02
5927.00,1.02
5926.00,1.02
5925.00,1.02
5924.00,1.01
5923.00,1.01
5922.00,1.01
5921.00,1.01
5920.00,1.01
5919.00,1.00
5918.00,1.00
5917.00,1.00
5916.00,1.00
5915.00,1.00
5914.00,0.99
5913.00,0.99
5912.00,0.99
5911.00,0.99
5910.00,0.99
5909.00,0.98
5908.00,0.98
5907.00,0.98
5906.00,0.98
5905.00,0.98
5904.00,0.98
5903.00,0.98
5902.00,0.98
5901.00,0.98
5900.00,0.98
5899.00,0.98
5898.00,0.98
5897.00,0.98
5896.00,0.98
5895.00,0.98
5894.00,0.98
5893.00,0.99
5892.00,0.99
5891.00,0.99
5890.00,0.99
5889.00,0.99
5888.00,0.99
5887.00,0.99
5886.00,1.00
5885.00,1.00
5884.00,1.00
5883.00,1.00
5882.00,1.00
5881.00,1.01
5880.00,1.01
5879.00,1.01
5878.00,1.01
5877.00,1.01
5876.00,1.02
5875.00,1.02
5874.00,1.02
5873.00,1.02
5872.00,1.03
5871.00,1.03
5870.00,1.03
5869.00,1.04
5868.00,1.04
5867.00,1.04
5866.00,1.04
5865.00,1.04
5864.00,1.05
5863.00,1.05
5862.00,1.05
5861.00,1.05
5860.00,1.05
5859.00,1.05
5858.00,1.06
5857.00,1.06
5856.00,1.06
5855.00,1.06
5854.00,1.06
5853.00,1.06
5852.00,1.06
5851.00,1.06
5850.00,1.06
5849.00,1.06
5848.00,1.06
5847.00,1.06
5846.00,1.06
5845.00,1.06
5844.00,1.06
5843.00,1.06
5842.00,1.06
5841.00,1.06
5840.00,1.06
5839.00,1.06
5838.00,1.06
5837.00,1.06
5836.00,1.06
5835.00,1.06
5834.00,1.06
5833.00,1.06
5832.00,1.06
5831.00,1.06
5830.00,1.06
5829.00,1.06
5828.00,1.06
5827.00,1.06
5826.00,1.05
5825.00,1.05
5824.00,1.05
5823.00,1.05
5822.00,1.06
5821.00,1.06
5820.00,1.06
5819.00,1.06
5818.00,1.06
5817.00,1.06
5816.00,1.06
5815.00,1.06
5814.00,1.06
5813.00,1.06
5812.00,1.07
5811.00,1.07
5810.00,1.07
5809.00,1.07
5808.00,1.07
5807.00,1.07
5806.00,1.07
5805.00,1.07
5804.00,1.07
5803.00,1.07
5802.00,1.07
5801.00,1.07
5800.00,1.07
5799.00,1.07
5798.00,1.07
5797.00,1.06
5796.00,1.06
5795.00,1.06
5794.00,1.06
5793.00,1.06
5792.00,1.06
5791.00,1.05
5790.00,1.05
5789.00,1.05
5788.00,1.05
5787.00,1.05
5786.00,1.04
5785.00,1.04
5784.00,1.04
5783.00,1.04
5782.00,1.03
5781.00,1.03
5780.00,1.03
5779.00,1.03
5778.00,1.03
5777.00,1.02
5776.00,1.02
5775.00,1.02
5774.00,1.02
5773.00,1.02
5772.00,1.02
5771.00,1.02
5770.00,1.02
5769.00,1.02
5768.00,1.02
5767.00,1.02
5766.00,1.02
5765.00,1.02
5764.00,1.02
5763.00,1.03
5762.00,1.03
5761.00,1.03
5760.00,1.03
5759.00,1.03
5758.00,1.04
5757.00,1.04
5756.00,1.04
5755.00,1.05
5754.00,1.05
5753.00,1.05
5752.00,1.06
5751.00,1.06
5750.00,1.06
5749.00,1.06
5748.00,1.07
5747.00,1.07
5746.00,1.07
5745.00,1.08
5744.00,1.08
5743.00,1.08
5742.00,1.09
5741.00,1.09
5740.00,1.09
5739.00,1.09
5738.00,1.10
5737.00,1.10
5736.00,1.10
5735.00,1.10
5734.00,1.10
5733.00,1.11
5732.00,1.11
5731.00,1.11
5730.00,1.11
5729.00,1.11
5728.00,1.11
5727.00,1.12
5726.00,1.12
5725.00,1.12
5724.00,1.12
5723.00,1.12
5722.00,1.12
5721.00,1.12
5720.00,1.12
5719.00,1.12
5718.00,1.12
5717.00,1.12
5716.00,1.12
5715.00,1.12
5714.00,1.12
5713.00,1.12
5712.00,1.12
5711.00,1.12
5710.00,1.12
5709.00,1.12
5708.00,1.12
5707.00,1.12
5706.00,1.12
5705.00,1.12
5704.00,1.12
5703.00,1.12
5702.00,1.12
5701.00,1.12
5700.00,1.12
5699.00,1.11
5698.00,1.11
5697.00,1.11
5696.00,1.11
5695.00,1.11
5694.00,1.11
5693.00,1.11
5692.00,1.11
5691.00,1.11
5690.00,1.11
5689.00,1.11
5688.00,1.10
5687.00,1.10
5686.00,1.10
5685.00,1.10
5684.00,1.10
5683.00,1.10
5682.00,1.10
5681.00,1.10
5680.00,1.10
5679.00,1.10
5678.00,1.10
5677.00,1.10
5676.00,1.10
5675.00,1.10
5674.00,1.09
5673.00,1.09
5672.00,1.10
5671.00,1.10
5670.00,1.10
5669.00,1.10
5668.00,1.10
5667.00,1.10
5666.00,1.10
5665.00,1.10
5664.00,1.10
5663.00,1.10
5662.00,1.10
5661.00,1.10
5660.00,1.10
5659.00,1.10
5658.00,1.11
5657.00,1.11
5656.00,1.11
5655.00,1.11
5654.00,1.11
5653.00,1.11
5652.00,1.12
5651.00,1.12
5650.00,1.12
5649.00,1.12
5648.00,1.12
5647.00,1.12
5646.00,1.13
5645.00,1.13
5644.00,1.13
5643.00,1.13
5642.00,1.13
5641.00,1.13
5640.00,1.13
5639.00,1.13
5638.00,1.14
5637.00,1.14
5636.00,1.14
5635.00,1.14
5634.00,1.14
5633.00,1.14
5632.00,1.14
5631.00,1.14
5630.00,1.14
5629.00,1.15
5628.00,1.15
5627.00,1.15
5626.00,1.15
5625.00,1.15
5624.00,1.15
5623.00,1.15
5622.00,1.16
5621.00,1.16
5620.00,1.16
5619.00,1.16
5618.00,1.16
5617.00,1.16
5616.00,1.16
5615.00,1.17
5614.00,1.17
5613.00,1.17
5612.00,1.17
5611.00,1.17
5610.00,1.17
5609.00,1.17
5608.00,1.18
5607.00,1.18
5606.00,1.18
5605.00,1.18
5604.00,1.18
5603.00,1.18
5602.00,1.19
5601.00,1.19
5600.00,1.19
5599.00,1.19
5598.00,1.19
5597.00,1.20
5596.00,1.20
5595.00,1.20
5594.00,1.20
5593.00,1.20
5592.00,1.20
5591.00,1.20
5590.00,1.21
5589.00,1.21
5588.00,1.21
5587.00,1.21
5586.00,1.21
5585.00,1.21
5584.00,1.21
5583.00,1.21
5582.00,1.21
5581.00,1.22
5580.00,1.22
5579.00,1.22
5578.00,1.22
5577.00,1.22
5576.00,1.22
5575.00,1.22
5574.00,1.22
5573.00,1.23
5572.00,1.23
5571.00,1.23
5570.00,1.23
5569.00,1.23
5568.00,1.23
5567.00,1.23
5566.00,1.23
5565.00,1.24
5564.00,1.24
5563.00,1.24
5562.00,1.24
5561.00,1.24
5560.00,1.24
5559.00,1.24
5558.00,1.24
5557.00,1.24
5556.00,1.24
5555.00,1.24
5554.00,1.24
5553.00,1.25
5552.00,1.25
5551.00,1.25
5550.00,1.25
5549.00,1.25
5548.00,1.25
5547.00,1.25
5546.00,1.25
5545.00,1.25
5544.00,1.25
5543.00,1.25
5542.00,1.25
5541.00,1.26
5540.00,1.26
5539.00,1.26
5538.00,1.26
5537.00,1.26
5536.00,1.26
5535.00,1.26
5534.00,1.26
5533.00,1.26
5532.00,1.27
5531.00,1.27
5530.00,1.27
5529.00,1.27
5528.00,1.27
5527.00,1.27
5526.00,1.27
5525.00,1.27
5524.00,1.27
5523.00,1.27
5522.00,1.27
5521.00,1.27
5520.00,1.27
5519.00,1.27
5518.00,1.27
5517.00,1.27
5516.00,1.27
5515.00,1.27
5514.00,1.27
5513.00,1.27
5512.00,1.27
5511.00,1.27
5510.00,1.27
5509.00,1.27
5508.00,1.28
5507.00,1.28
5506.00,1.28
5505.00,1.28
5504.00,1.28
5503.00,1.28
5502.00,1.28
5501.00,1.28
5500.00,1.28
5499.00,1.28
5498.00,1.28
5497.00,1.28
5496.00,1.28
5495.00,1.28
5494.00,1.28
5493.00,1.28
5492.00,1.29
5491.00,1.29
5490.00,1.29
5489.00,1.29
5488.00,1.29
5487.00,1.29
5486.00,1.29
5485.00,1.29
5484.00,1.29
5483.00,1.30
5482.00,1.30
5481.00,1.30
5480.00,1.30
5479.00,1.30
5478.00,1.30
5477.00,1.30
5476.00,1.30
5475.00,1.30
5474.00,1.31
5473.00,1.31
5472.00,1.31
5471.00,1.31
5470.00,1.31
5469.00,1.31
5468.00,1.31
5467.00,1.31
5466.00,1.31
5465.00,1.31
5464.00,1.32
5463.00,1.32
5462.00,1.32
5461.00,1.32
5460.00,1.32
5459.00,1.32
5458.00,1.32
5457.00,1.32
5456.00,1.32
5455.00,1.32
5454.00,1.32
5453.00,1.32
5452.00,1.32
5451.00,1.32
5450.00,1.32
5449.00,1.32
5448.00,1.32
5447.00,1.32
5446.00,1.32
5445.00,1.32
5444.00,1.33
5443.00,1.33
5442.00,1.33
5441.00,1.33
5440.00,1.33
5439.00,1.33
5438.00,1.33
5437.00,1.33
5436.00,1.33
5435.00,1.33
5434.00,1.33
5433.00,1.33
5432.00,1.33
5431.00,1.33
5430.00,1.33
5429.00,1.33
5428.00,1.33
5427.00,1.33
5426.00,1.33
5425.00,1.33
5424.00,1.33
5423.00,1.33
5422.00,1.33
5421.00,1.33
5420.00,1.33
5419.00,1.33
5418.00,1.33
5417.00,1.33
5416.00,1.33
5415.00,1.33
5414.00,1.33
5413.00,1.33
5412.00,1.33
5411.00,1.33
5410.00,1.33
5409.00,1.33
5408.00,1.33
5407.00,1.33
5406.00,1.33
5405.00,1.33
5404.00,1.33
5403.00,1.33
5402.00,1.33
5401.00,1.33
5400.00,1.33
5399.00,1.33
5398.00,1.33
5397.00,1.33
5396.00,1.33
5395.00,1.33
5394.00,1.33
5393.00,1.33
5392.00,1.33
5391.00,1.33
5390.00,1.33
5389.00,1.33
5388.00,1.33
5387.00,1.33
5386.00,1.32
5385.00,1.32
5384.00,1.32
5383.00,1.32
5382.00,1.32
5381.00,1.32
5380.00,1.31
5379.00,1.31
5378.00,1.31
5377.00,1.31
5376.00,1.31
5375.00,1.30
5374.00,1.30
5373.00,1.30
5372.00,1.30
5371.00,1.29
5370.00,1.29
5369.00,1.29
5368.00,1.28
5367.00,1.28
5366.00,1.28
5365.00,1.27
5364.00,1.27
5363.00,1.26
5362.00,1.26
5361.00,1.25
5360.00,1.25
5359.00,1.24
5358.00,1.24
5357.00,1.23
5356.00,1.22
5355.00,1.22
5354.00,1.21
5353.00,1.20
5352.00,1.20
5351.00,1.19
5350.00,1.18
5349.00,1.18
5348.00,1.17
5347.00,1.16
5346.00,1.15
5345.00,1.15
5344.00,1.14
5343.00,1.13
5342.00,1.12
5341.00,1.11
5340.00,1.10
5339.00,1.09
5338.00,1.08
5337.00,1.08
5336.00,1.07
5335.00,1.06
5334.00,1.05
5333.00,1.04
5332.00,1.03
5331.00,1.02
5330.00,1.01
5329.00,1.00
5328.00,0.99
5327.00,0.98
5326.00,0.97
5325.00,0.96
5324.00,0.95
5323.00,0.93
5322.00,0.92
5321.00,0.91
5320.00,0.90
5319.00,0.89
5318.00,0.88
5317.00,0.87
5316.00,0.86
5315.00,0.86
5314.00,0.85
5313.00,0.84
5312.00,0.83
5311.00,0.82
5310.00,0.81
5309.00,0.80
5308.00,0.79
5307.00,0.78
5306.00,0.77
5305.00,0.77
5304.00,0.76
5303.00,0.75
5302.00,0.74
5301.00,0.73
5300.00,0.73
5299.00,0.72
5298.00,0.71
5297.00,0.71
5296.00,0.70
5295.00,0.70
5294.00,0.69
5293.00,0.69
5292.00,0.68
5291.00,0.68
5290.00,0.67
5289.00,0.67
5288.00,0.67
5287.00,0.66
5286.00,0.66
5285.00,0.66
5284.00,0.65
5283.00,0.65
5282.00,0.65
5281.00,0.64
5280.00,0.64
5279.00,0.64
5278.00,0.64
5277.00,0.64
5276.00,0.63
5275.00,0.63
5274.00,0.63
5273.00,0.63
5272.00,0.63
5271.00,0.63
5270.00,0.62
5269.00,0.62
5268.00,0.62
5267.00,0.62
5266.00,0.62
5265.00,0.62
5264.00,0.62
5263.00,0.62
5262.00,0.62
5261.00,0.62
5260.00,0.62
5259.00,0.62
5258.00,0.61
5257.00,0.61
5256.00,0.61
5255.00,0.61
5254.00,0.61
5253.00,0.61
5252.00,0.61
5251.00,0.61
5250.00,0.61
5249.00,0.61
5248.00,0.61
5247.00,0.61
5246.00,0.61
5245.00,0.61
5244.00,0.61
5243.00,0.61
5242.00,0.61
5241.00,0.61
5240.00,0.61
5239.00,0.61
5238.00,0.60
5237.00,0.60
5236.00,0.60
5235.00,0.60
5234.00,0.60
5233.00,0.60
5232.00,0.60
5231.00,0.60
5230.00,0.60
5229.00,0.60
5228.00,0.60
5227.00,0.60
5226.00,0.60
5225.00,0.60
5224.00,0.60
5223.00,0.60
5222.00,0.60
5221.00,0.60
5220.00,0.60
5219.00,0.60
5218.00,0.60
5217.00,0.60
5216.00,0.60
5215.00,0.60
5214.00,0.60
5213.00,0.60
5212.00,0.60
5211.00,0.60
5210.00,0.60
5209.00,0.60
5208.00,0.60
5207.00,0.60
5206.00,0.60
5205.00,0.60
5204.00,0.60
5203.00,0.60
5202.00,0.60
5201.00,0.60
5200.00,0.60
5199.00,0.60
5198.00,0.60
5197.00,0.60
5196.00,0.60
5195.00,0.60
5194.00,0.60
5193.00,0.60
5192.00,0.60
5191.00,0.60
5190.00,0.61
5189.00,0.61
5188.00,0.61
5187.00,0.61
5186.00,0.61
5185.00,0.61
5184.00,0.61
5183.00,0.61
5182.00,0.61
5181.00,0.61
5180.00,0.61
5179.00,0.61
5178.00,0.61
5177.00,0.61
5176.00,0.61
5175.00,0.61
5174.00,0.61
5173.00,0.62
5172.00,0.62
5171.00,0.62
5170.00,0.62
5169.00,0.62
5168.00,0.62
5167.00,0.62
5166.00,0.62
5165.00,0.62
5164.00,0.62
5163.00,0.62
5162.00,0.62
5161.00,0.62
5160.00,0.62
5159.00,0.62
5158.00,0.62
5157.00,0.62
5156.00,0.63
5155.00,0.63
5154.00,0.63
5153.00,0.63
5152.00,0.63
5151.00,0.63
5150.00,0.63
5149.00,0.63
5148.00,0.63
5147.00,0.63
5146.00,0.63
5145.00,0.63
5144.00,0.63
5143.00,0.63
5142.00,0.63
5141.00,0.63
5140.00,0.63
5139.00,0.63
5138.00,0.63
5137.00,0.63
5136.00,0.63
5135.00,0.63
5134.00,0.63
5133.00,0.63
5132.00,0.63
5131.00,0.63
5130.00,0.63
5129.00,0.63
5128.00,0.63
5127.00,0.63
5126.00,0.63
5125.00,0.64
5124.00,0.64
5123.00,0.64
5122.00,0.64
5121.00,0.64
5120.00,0.64
5119.00,0.64
5118.00,0.64
5117.00,0.64
5116.00,0.64
5115.00,0.64
5114.00,0.64
5113.00,0.64
5112.00,0.64
5111.00,0.64
5110.00,0.64
5109.00,0.64
5108.00,0.65
5107.00,0.65
5106.00,0.65
5105.00,0.65
5104.00,0.65
5103.00,0.65
5102.00,0.65
5101.00,0.65
5100.00,0.65
5099.00,0.65
5098.00,0.65
5097.00,0.65
5096.00,0.65
5095.00,0.66
5094.00,0.66
5093.00,0.66
5092.00,0.66
5091.00,0.66
5090.00,0.66
5089.00,0.66
5088.00,0.66
5087.00,0.66
5086.00,0.66
5085.00,0.66
5084.00,0.66
5083.00,0.66
5082.00,0.66
5081.00,0.66
5080.00,0.67
5079.00,0.67
5078.00,0.67
5077.00,0.67
5076.00,0.67
5075.00,0.67
5074.00,0.67
5073.00,0.67
5072.00,0.67
5071.00,0.67
5070.00,0.67
5069.00,0.67
5068.00,0.67
5067.00,0.67
5066.00,0.67
5065.00,0.68
5064.00,0.68
5063.00,0.68
5062.00,0.68
5061.00,0.68
5060.00,0.68
5059.00,0.68
5058.00,0.68
5057.00,0.68
5056.00,0.69
5055.00,0.69
5054.00,0.69
5053.00,0.69
5052.00,0.69
5051.00,0.69
5050.00,0.69
5049.00,0.69
5048.00,0.69
5047.00,0.70
5046.00,0.70
5045.00,0.70
5044.00,0.70
5043.00,0.70
5042.00,0.70
5041.00,0.70
5040.00,0.70
5039.00,0.70
5038.00,0.70
5037.00,0.71
5036.00,0.71
5035.00,0.71
5034.00,0.71
5033.00,0.71
5032.00,0.71
5031.00,0.71
5030.00,0.71
5029.00,0.71
5028.00,0.71
5027.00,0.71
5026.00,0.71
5025.00,0.71
5024.00,0.72
5023.00,0.72
5022.00,0.72
5021.00,0.72
5020.00,0.72
5019.00,0.72
5018.00,0.72
5017.00,0.72
5016.00,0.72
5015.00,0.73
5014.00,0.73
5013.00,0.73
5012.00,0.73
5011.00,0.73
5010.00,0.73
5009.00,0.73
5008.00,0.74
5007.00,0.74
5006.00,0.74
5005.00,0.74
5004.00,0.74
5003.00,0.74
5002.00,0.74
5001.00,0.74
5000.00,0.74
4999.00,0.74
4998.00,0.74
4997.00,0.74
4996.00,0.75
4995.00,0.75
4994.00,0.75
4993.00,0.75
4992.00,0.75
4991.00,0.75
4990.00,0.75
4989.00,0.75
4988.00,0.75
4987.00,0.75
4986.00,0.76
4985.00,0.76
4984.00,0.76
4983.00,0.76
4982.00,0.76
4981.00,0.76
4980.00,0.76
4979.00,0.77
4978.00,0.77
4977.00,0.77
4976.00,0.77
4975.00,0.77
4974.00,0.77
4973.00,0.77
4972.00,0.78
4971.00,0.78
4970.00,0.78
4969.00,0.78
4968.00,0.78
4967.00,0.78
4966.00,0.78
4965.00,0.78
4964.00,0.79
4963.00,0.79
4962.00,0.79
4961.00,0.79
4960.00,0.79
4959.00,0.79
4958.00,0.79
4957.00,0.79
4956.00,0.79
4955.00,0.79
4954.00,0.79
4953.00,0.79
4952.00,0.80
4951.00,0.80
4950.00,0.80
4949.00,0.80
4948.00,0.80
4947.00,0.80
4946.00,0.80
4945.00,0.80
4944.00,0.81
4943.00,0.81
4942.00,0.81
4941.00,0.81
4940.00,0.81
4939.00,0.81
4938.00,0.81
4937.00,0.81
4936.00,0.82
4935.00,0.82
4934.00,0.82
4933.00,0.82
4932.00,0.82
4931.00,0.82
4930.00,0.82
4929.00,0.82
4928.00,0.82
4927.00,0.82
4926.00,0.82
4925.00,0.83
4924.00,0.83
4923.00,0.83
4922.00,0.83
4921.00,0.83
4920.00,0.83
4919.00,0.83
4918.00,0.83
4917.00,0.83
4916.00,0.83
4915.00,0.83
4914.00,0.83
4913.00,0.83
4912.00,0.83
4911.00,0.83
4910.00,0.83
4909.00,0.83
4908.00,0.84
4907.00,0.84
4906.00,0.84
4905.00,0.84
4904.00,0.84
4903.00,0.84
4902.00,0.84
4901.00,0.84
4900.00,0.84
4899.00,0.84
4898.00,0.84
4897.00,0.84
4896.00,0.84
4895.00,0.84
4894.00,0.84
4893.00,0.84
4892.00,0.85
4891.00,0.85
4890.00,0.85
4889.00,0.85
4888.00,0.85
4887.00,0.85
4886.00,0.85
4885.00,0.85
4884.00,0.85
4883.00,0.85
4882.00,0.86
4881.00,0.86
4880.00,0.86
4879.00,0.86
4878.00,0.86
4877.00,0.86
4876.00,0.86
4875.00,0.86
4874.00,0.86
4873.00,0.86
4872.00,0.86
4871.00,0.86
4870.00,0.86
4869.00,0.86
4868.00,0.86
4867.00,0.86
4866.00,0.86
4865.00,0.86
4864.00,0.86
4863.00,0.86
4862.00,0.86
4861.00,0.86
4860.00,0.86
4859.00,0.86
4858.00,0.86
4857.00,0.86
4856.00,0.86
4855.00,0.86
4854.00,0.87
4853.00,0.87
4852.00,0.87
4851.00,0.87
4850.00,0.87
4849.00,0.87
4848.00,0.87
4847.00,0.87
4846.00,0.87
4845.00,0.87
4844.00,0.87
4843.00,0.87
4842.00,0.87
4841.00,0.87
4840.00,0.87
4839.00,0.88
4838.00,0.88
4837.00,0.88
4836.00,0.88
4835.00,0.88
4834.00,0.88
4833.00,0.88
4832.00,0.88
4831.00,0.88
4830.00,0.88
4829.00,0.88
4828.00,0.88
4827.00,0.88
4826.00,0.88
4825.00,0.89
4824.00,0.89
4823.00,0.89
4822.00,0.89
4821.00,0.89
4820.00,0.89
4819.00,0.89
4818.00,0.89
4817.00,0.89
4816.00,0.89
4815.00,0.90
4814.00,0.90
4813.00,0.90
4812.00,0.90
4811.00,0.90
4810.00,0.90
4809.00,0.90
4808.00,0.90
4807.00,0.90
4806.00,0.91
4805.00,0.91
4804.00,0.91
4803.00,0.91
4802.00,0.91
4801.00,0.91
4800.00,0.91
4799.00,0.91
4798.00,0.91
4797.00,0.91
4796.00,0.91
4795.00,0.91
4794.00,0.92
4793.00,0.92
4792.00,0.92
4791.00,0.92
4790.00,0.92
4789.00,0.93
4788.00,0.93
4787.00,0.93
4786.00,0.93
4785.00,0.93
4784.00,0.94
4783.00,0.94
4782.00,0.94
4781.00,0.95
4780.00,0.95
4779.00,0.95
4778.00,0.95
4777.00,0.96
4776.00,0.96
4775.00,0.96
4774.00,0.96
4773.00,0.96
4772.00,0.96
4771.00,0.97
4770.00,0.97
4769.00,0.97
4768.00,0.97
4767.00,0.97
4766.00,0.97
4765.00,0.97
4764.00,0.97
4763.00,0.97
4762.00,0.97
4761.00,0.98
4760.00,0.98
4759.00,0.98
4758.00,0.98
4757.00,0.98
4756.00,0.98
4755.00,0.98
4754.00,0.98
4753.00,0.99
4752.00,0.99
4751.00,0.99
4750.00,0.99
4749.00,0.99
4748.00,0.99
4747.00,1.00
4746.00,1.00
4745.00,1.00
4744.00,1.00
4743.00,1.00
4742.00,1.00
4741.00,1.01
4740.00,1.01
4739.00,1.01
4738.00,1.01
4737.00,1.01
4736.00,1.02
4735.00,1.02
4734.00,1.02
4733.00,1.02
4732.00,1.02
4731.00,1.03
4730.00,1.03
4729.00,1.03
4728.00,1.03
4727.00,1.03
4726.00,1.03
4725.00,1.04
4724.00,1.04
4723.00,1.04
4722.00,1.04
4721.00,1.04
4720.00,1.05
4719.00,1.05
4718.00,1.05
4717.00,1.05
4716.00,1.06
4715.00,1.06
4714.00,1.06
4713.00,1.07
4712.00,1.07
4711.00,1.07
4710.00,1.08
4709.00,1.08
4708.00,1.08
4707.00,1.08
4706.00,1.09
4705.00,1.09
4704.00,1.09
4703.00,1.09
4702.00,1.09
4701.00,1.10
4700.00,1.10
4699.00,1.10
4698.00,1.10
4697.00,1.10
4696.00,1.10
4695.00,1.10
4694.00,1.10
4693.00,1.10
4692.00,1.11
4691.00,1.11
4690.00,1.11
4689.00,1.11
4688.00,1.11
4687.00,1.11
4686.00,1.12
4685.00,1.12
4684.00,1.12
4683.00,1.12
4682.00,1.12
4681.00,1.13
4680.00,1.13
4679.00,1.13
4678.00,1.13
4677.00,1.13
4676.00,1.14
4675.00,1.14
4674.00,1.14
4673.00,1.14
4672.00,1.14
4671.00,1.15
4670.00,1.15
4669.00,1.15
4668.00,1.15
4667.00,1.15
4666.00,1.15
4665.00,1.15
4664.00,1.16
4663.00,1.16
4662.00,1.16
4661.00,1.16
4660.00,1.16
4659.00,1.16
4658.00,1.16
4657.00,1.16
4656.00,1.16
4655.00,1.17
4654.00,1.17
4653.00,1.17
4652.00,1.17
4651.00,1.17
4650.00,1.17
4649.00,1.18
4648.00,1.18
4647.00,1.18
4646.00,1.18
4645.00,1.19
4644.00,1.19
4643.00,1.19
4642.00,1.19
4641.00,1.20
4640.00,1.20
4639.00,1.20
4638.00,1.20
4637.00,1.21
4636.00,1.21
4635.00,1.21
4634.00,1.21
4633.00,1.22
4632.00,1.22
4631.00,1.22
4630.00,1.22
4629.00,1.23
4628.00,1.23
4627.00,1.23
4626.00,1.23
4625.00,1.23
4624.00,1.23
4623.00,1.23
4622.00,1.24
4621.00,1.24
4620.00,1.24
4619.00,1.24
4618.00,1.24
4617.00,1.24
4616.00,1.24
4615.00,1.24
4614.00,1.24
4613.00,1.24
4612.00,1.24
4611.00,1.24
4610.00,1.24
4609.00,1.24
4608.00,1.24
4607.00,1.24
4606.00,1.24
4605.00,1.24
4604.00,1.24
4603.00,1.25
4602.00,1.25
4601.00,1.25
4600.00,1.25
4599.00,1.25
4598.00,1.25
4597.00,1.25
4596.00,1.25
4595.00,1.25
4594.00,1.26
4593.00,1.26
4592.00,1.26
4591.00,1.26
4590.00,1.26
4589.00,1.26
4588.00,1.26
4587.00,1.26
4586.00,1.26
4585.00,1.27
4584.00,1.27
4583.00,1.27
4582.00,1.27
4581.00,1.27
4580.00,1.27
4579.00,1.27
4578.00,1.27
4577.00,1.27
4576.00,1.27
4575.00,1.27
4574.00,1.28
4573.00,1.28
4572.00,1.28
4571.00,1.28
4570.00,1.28
4569.00,1.28
4568.00,1.29
4567.00,1.29
4566.00,1.29
4565.00,1.29
4564.00,1.29
4563.00,1.30
4562.00,1.30
4561.00,1.30
4560.00,1.30
4559.00,1.30
4558.00,1.31
4557.00,1.31
4556.00,1.31
4555.00,1.31
4554.00,1.31
4553.00,1.31
4552.00,1.31
4551.00,1.32
4550.00,1.32
4549.00,1.32
4548.00,1.32
4547.00,1.32
4546.00,1.32
4545.00,1.32
4544.00,1.32
4543.00,1.32
4542.00,1.32
4541.00,1.32
4540.00,1.33
4539.00,1.33
4538.00,1.33
4537.00,1.33
4536.00,1.33
4535.00,1.33
4534.00,1.33
4533.00,1.33
4532.00,1.33
4531.00,1.33
4530.00,1.33
4529.00,1.33
4528.00,1.33
4527.00,1.33
4526.00,1.33
4525.00,1.33
4524.00,1.33
4523.00,1.33
4522.00,1.33
4521.00,1.33
4520.00,1.33
4519.00,1.33
4518.00,1.33
4517.00,1.33
4516.00,1.33
4515.00,1.33
4514.00,1.33
4513.00,1.33
4512.00,1.33
4511.00,1.33
4510.00,1.33
4509.00,1.33
4508.00,1.33
4507.00,1.33
4506.00,1.33
4505.00,1.33
4504.00,1.33
4503.00,1.33
4502.00,1.33
4501.00,1.33
4500.00,1.33
4499.00,1.33
4498.00,1.33
4497.00,1.33
4496.00,1.33
4495.00,1.33
4494.00,1.32
4493.00,1.32
4492.00,1.32
4491.00,1.32
4490.00,1.32
4489.00,1.32
4488.00,1.32
4487.00,1.32
4486.00,1.32
4485.00,1.31
4484.00,1.31
4483.00,1.31
4482.00,1.31
4481.00,1.31
4480.00,1.30
4479.00,1.30
4478.00,1.30
4477.00,1.30
4476.00,1.29
4475.00,1.29
4474.00,1.29
4473.00,1.29
4472.00,1.28
4471.00,1.28
4470.00,1.28
4469.00,1.27
4468.00,1.27
4467.00,1.27
4466.00,1.26
4465.00,1.26
4464.00,1.26
4463.00,1.25
4462.00,1.25
4461.00,1.24
4460.00,1.24
4459.00,1.23
4458.00,1.23
4457.00,1.22
4456.00,1.22
4455.00,1.21
4454.00,1.21
4453.00,1.20
4452.00,1.20
4451.00,1.19
4450.00,1.18
4449.00,1.18
4448.00,1.17
4447.00,1.17
4446.00,1.16
4445.00,1.16
4444.00,1.15
4443.00,1.14
4442.00,1.14
4441.00,1.13
4440.00,1.12
4439.00,1.12
4438.00,1.11
4437.00,1.10
4436.00,1.10
4435.00,1.09
4434.00,1.09
4433.00,1.08
4432.00,1.07
4431.00,1.07
4430.00,1.06
4429.00,1.06
4428.00,1.05
4427.00,1.05
4426.00,1.05
4425.00,1.04
4424.00,1.04
4423.00,1.04
4422.00,1.04
4421.00,1.04
4420.00,1.03
4419.00,1.03
4418.00,1.03
4417.00,1.03
4416.00,1.03
4415.00,1.03
4414.00,1.03
4413.00,1.02
4412.00,1.02
4411.00,1.02
4410.00,1.02
4409.00,1.02
4408.00,1.02
4407.00,1.02
4406.00,1.02
4405.00,1.02
4404.00,1.02
4403.00,1.02
4402.00,1.02
4401.00,1.02
4400.00,1.02
4399.00,1.02
4398.00,1.02
4397.00,1.02
4396.00,1.02
4395.00,1.02
4394.00,1.02
4393.00,1.02
4392.00,1.03
4391.00,1.03
4390.00,1.03
4389.00,1.03
4388.00,1.03
4387.00,1.04
4386.00,1.04
4385.00,1.04
4384.00,1.05
4383.00,1.05
4382.00,1.05
4381.00,1.05
4380.00,1.06
4379.00,1.06
4378.00,1.06
4377.00,1.07
4376.00,1.07
4375.00,1.07
4374.00,1.07
4373.00,1.07
4372.00,1.08
4371.00,1.08
4370.00,1.08
4369.00,1.08
4368.00,1.08
4367.00,1.08
4366.00,1.08
4365.00,1.08
4364.00,1.07
4363.00,1.07
4362.00,1.07
4361.00,1.07
4360.00,1.07
4359.00,1.07
4358.00,1.06
4357.00,1.06
4356.00,1.06
4355.00,1.06
4354.00,1.06
4353.00,1.05
4352.00,1.05
4351.00,1.05
4350.00,1.05
4349.00,1.05
4348.00,1.05
4347.00,1.05
4346.00,1.05
4345.00,1.05
4344.00,1.05
4343.00,1.05
4342.00,1.06
4341.00,1.06
4340.00,1.06
4339.00,1.06
4338.00,1.06
4337.00,1.07
4336.00,1.07
4335.00,1.07
4334.00,1.07
4333.00,1.07
4332.00,1.08
4331.00,1.08
4330.00,1.08
4329.00,1.08
4328.00,1.09
4327.00,1.09
4326.00,1.09
4325.00,1.09
4324.00,1.09
4323.00,1.09
4322.00,1.10
4321.00,1.10
4320.00,1.10
4319.00,1.10
4318.00,1.10
4317.00,1.10
4316.00,1.10
4315.00,1.11
4314.00,1.11
4313.00,1.11
4312.00,1.11
4311.00,1.11
4310.00,1.11
4309.00,1.12
4308.00,1.12
4307.00,1.12
4306.00,1.12
4305.00,1.13
4304.00,1.13
4303.00,1.13
4302.00,1.14
4301.00,1.14
4300.00,1.14
4299.00,1.15
4298.00,1.15
4297.00,1.15
4296.00,1.16
4295.00,1.16
4294.00,1.16
4293.00,1.16
4292.00,1.17
4291.00,1.17
4290.00,1.17
4289.00,1.17
4288.00,1.18
4287.00,1.18
4286.00,1.18
4285.00,1.18
4284.00,1.18
4283.00,1.18
4282.00,1.18
4281.00,1.18
4280.00,1.18
4279.00,1.18
4278.00,1.18
4277.00,1.18
4276.00,1.18
4275.00,1.18
4274.00,1.18
4273.00,1.18
4272.00,1.18
4271.00,1.18
4270.00,1.18
4269.00,1.18
4268.00,1.17
4267.00,1.17
4266.00,1.17
4265.00,1.17
4264.00,1.17
4263.00,1.17
4262.00,1.16
4261.00,1.16
4260.00,1.16
4259.00,1.16
4258.00,1.16
4257.00,1.16
4256.00,1.16
4255.00,1.16
4254.00,1.16
4253.00,1.16
4252.00,1.16
4251.00,1.16
4250.00,1.16
4249.00,1.16
4248.00,1.16
4247.00,1.17
4246.00,1.17
4245.00,1.17
4244.00,1.17
4243.00,1.17
4242.00,1.17
4241.00,1.18
4240.00,1.18
4239.00,1.18
4238.00,1.18
4237.00,1.19
4236.00,1.19
4235.00,1.19
4234.00,1.19
4233.00,1.20
4232.00,1.20
4231.00,1.20
4230.00,1.20
4229.00,1.21
4228.00,1.21
4227.00,1.21
4226.00,1.21
4225.00,1.21
4224.00,1.21
4223.00,1.22
4222.00,1.22
4221.00,1.22
4220.00,1.22
4219.00,1.22
4218.00,1.22
4217.00,1.22
4216.00,1.22
4215.00,1.22
4214.00,1.23
4213.00,1.23
4212.00,1.23
4211.00,1.23
4210.00,1.23
4209.00,1.23
4208.00,1.23
4207.00,1.23
4206.00,1.23
4205.00,1.23
4204.00,1.23
4203.00,1.23
4202.00,1.23
4201.00,1.23
4200.00,1.23
4199.00,1.23
4198.00,1.23
4197.00,1.24
4196.00,1.24
4195.00,1.24
4194.00,1.24
4193.00,1.24
4192.00,1.24
4191.00,1.24
4190.00,1.24
4189.00,1.24
4188.00,1.24
4187.00,1.24
4186.00,1.25
4185.00,1.25
4184.00,1.25
4183.00,1.25
4182.00,1.25
4181.00,1.25
4180.00,1.25
4179.00,1.25
4178.00,1.25
4177.00,1.25
4176.00,1.25
4175.00,1.25
4174.00,1.25
4173.00,1.25
4172.00,1.25
4171.00,1.25
4170.00,1.25
4169.00,1.25
4168.00,1.25
4167.00,1.25
4166.00,1.25
4165.00,1.25
4164.00,1.25
4163.00,1.25
4162.00,1.25
4161.00,1.25
4160.00,1.25
4159.00,1.25
4158.00,1.25
4157.00,1.25
4156.00,1.25
4155.00,1.25
4154.00,1.26
4153.00,1.26
4152.00,1.26
4151.00,1.26
4150.00,1.26
4149.00,1.26
4148.00,1.26
4147.00,1.27
4146.00,1.27
4145.00,1.27
4144.00,1.27
4143.00,1.27
4142.00,1.27
4141.00,1.27
4140.00,1.27
4139.00,1.26
4138.00,1.26
4137.00,1.26
4136.00,1.26
4135.00,1.26
4134.00,1.26
4133.00,1.26
4132.00,1.26
4131.00,1.26
4130.00,1.26
4129.00,1.26
4128.00,1.26
4127.00,1.26
4126.00,1.26
4125.00,1.26
4124.00,1.26
4123.00,1.26
4122.00,1.26
4121.00,1.27
4120.00,1.27
4119.00,1.27
4118.00,1.27
4117.00,1.27
4116.00,1.27
4115.00,1.27
4114.00,1.27
4113.00,1.27
4112.00,1.27
4111.00,1.27
4110.00,1.27
4109.00,1.27
4108.00,1.27
4107.00,1.27
4106.00,1.28
4105.00,1.28
4104.00,1.28
4103.00,1.28
4102.00,1.28
4101.00,1.28
4100.00,1.28
4099.00,1.28
4098.00,1.28
4097.00,1.28
4096.00,1.28
4095.00,1.28
4094.00,1.27
4093.00,1.27
4092.00,1.27
4091.00,1.27
4090.00,1.27
4089.00,1.27
4088.00,1.27
4087.00,1.27
4086.00,1.27
4085.00,1.27
4084.00,1.27
4083.00,1.27
4082.00,1.27
4081.00,1.27
4080.00,1.27
4079.00,1.27
4078.00,1.27
4077.00,1.27
4076.00,1.27
4075.00,1.26
4074.00,1.26
4073.00,1.26
4072.00,1.26
4071.00,1.26
4070.00,1.27
4069.00,1.27
4068.00,1.27
4067.00,1.27
4066.00,1.27
4065.00,1.27
4064.00,1.27
4063.00,1.27
4062.00,1.28
4061.00,1.28
4060.00,1.28
4059.00,1.28
4058.00,1.29
4057.00,1.29
4056.00,1.30
4055.00,1.30
4054.00,1.30
4053.00,1.31
4052.00,1.31
4051.00,1.31
4050.00,1.31
4049.00,1.32
4048.00,1.32
4047.00,1.32
4046.00,1.32
4045.00,1.32
4044.00,1.32
4043.00,1.32
4042.00,1.32
4041.00,1.32
4040.00,1.32
4039.00,1.32
4038.00,1.32
4037.00,1.32
4036.00,1.32
4035.00,1.32
4034.00,1.32
4033.00,1.32
4032.00,1.33
4031.00,1.33
4030.00,1.33
4029.00,1.33
4028.00,1.33
4027.00,1.33
4026.00,1.33
4025.00,1.33
4024.00,1.33
4023.00,1.33
4022.00,1.33
4021.00,1.33
4020.00,1.33
4019.00,1.33
4018.00,1.33
4017.00,1.32
4016.00,1.32
4015.00,1.32
4014.00,1.32
4013.00,1.32
4012.00,1.32
4011.00,1.32
4010.00,1.32
4009.00,1.32
4008.00,1.32
4007.00,1.32
4006.00,1.32
4005.00,1.32
4004.00,1.33
4003.00,1.33
4002.00,1.33
4001.00,1.33
4000.00,1.34
