创建为新数据集,样品 096 用户 Administrator 日期 星期日, 十一月 05 2017
cm-1,%T
10000.00,1.33
9999.00,1.33
9998.00,1.33
9997.00,1.33
9996.00,1.33
9995.00,1.32
9994.00,1.32
9993.00,1.32
9992.00,1.32
9991.00,1.32
9990.00,1.32
9989.00,1.32
9988.00,1.32
9987.00,1.32
9986.00,1.32
9985.00,1.32
9984.00,1.32
9983.00,1.32
9982.00,1.33
9981.00,1.33
9980.00,1.33
9979.00,1.33
9978.00,1.33
9977.00,1.33
9976.00,1.33
9975.00,1.33
9974.00,1.33
9973.00,1.33
9972.00,1.33
9971.00,1.32
9970.00,1.32
9969.00,1.32
9968.00,1.32
9967.00,1.32
9966.00,1.32
9965.00,1.32
9964.00,1.32
9963.00,1.32
9962.00,1.32
9961.00,1.32
9960.00,1.32
9959.00,1.32
9958.00,1.32
9957.00,1.32
9956.00,1.32
9955.00,1.32
9954.00,1.32
9953.00,1.32
9952.00,1.32
9951.00,1.32
9950.00,1.32
9949.00,1.32
9948.00,1.32
9947.00,1.32
9946.00,1.32
9945.00,1.32
9944.00,1.32
9943.00,1.32
9942.00,1.32
9941.00,1.32
9940.00,1.32
9939.00,1.32
9938.00,1.32
9937.00,1.32
9936.00,1.32
9935.00,1.32
9934.00,1.32
9933.00,1.32
9932.00,1.32
9931.00,1.32
9930.00,1.32
9929.00,1.32
9928.00,1.32
9927.00,1.32
9926.00,1.32
9925.00,1.31
9924.00,1.31
9923.00,1.31
9922.00,1.30
9921.00,1.30
9920.00,1.30
9919.00,1.30
9918.00,1.29
9917.00,1.29
9916.00,1.29
9915.00,1.29
9914.00,1.29
9913.00,1.29
9912.00,1.29
9911.00,1.29
9910.00,1.29
9909.00,1.29
9908.00,1.29
9907.00,1.29
9906.00,1.29
9905.00,1.29
9904.00,1.29
9903.00,1.29
9902.00,1.29
9901.00,1.29
9900.00,1.29
9899.00,1.29
9898.00,1.29
9897.00,1.29
9896.00,1.29
9895.00,1.29
9894.00,1.28
9893.00,1.28
9892.00,1.28
9891.00,1.28
9890.00,1.28
9889.00,1.28
9888.00,1.28
9887.00,1.28
9886.00,1.27
9885.00,1.27
9884.00,1.27
9883.00,1.27
9882.00,1.27
9881.00,1.27
9880.00,1.27
9879.00,1.28
9878.00,1.28
9877.00,1.28
9876.00,1.28
9875.00,1.28
9874.00,1.28
9873.00,1.28
9872.00,1.28
9871.00,1.28
9870.00,1.28
9869.00,1.28
9868.00,1.29
9867.00,1.29
9866.00,1.29
9865.00,1.29
9864.00,1.30
9863.00,1.30
9862.00,1.30
9861.00,1.31
9860.00,1.31
9859.00,1.31
9858.00,1.32
9857.00,1.32
9856.00,1.32
9855.00,1.32
9854.00,1.33
9853.00,1.33
9852.00,1.33
9851.00,1.33
9850.00,1.33
9849.00,1.32
9848.00,1.32
9847.00,1.32
9846.00,1.31
9845.00,1.31
9844.00,1.31
9843.00,1.30
9842.00,1.30
9841.00,1.30
9840.00,1.29
9839.00,1.29
9838.00,1.29
9837.00,1.28
9836.00,1.28
9835.00,1.28
9834.00,1.28
9833.00,1.28
9832.00,1.28
9831.00,1.28
9830.00,1.28
9829.00,1.28
9828.00,1.28
9827.00,1.28
9826.00,1.28
9825.00,1.28
9824.00,1.29
9823.00,1.29
9822.00,1.29
9821.00,1.29
9820.00,1.29
9819.00,1.28
9818.00,1.28
9817.00,1.28
9816.00,1.28
9815.00,1.28
9814.00,1.28
9813.00,1.28
9812.00,1.28
9811.00,1.28
9810.00,1.28
9809.00,1.28
9808.00,1.27
9807.00,1.27
9806.00,1.27
9805.00,1.27
9804.00,1.27
9803.00,1.27
9802.00,1.27
9801.00,1.27
9800.00,1.27
9799.00,1.27
9798.00,1.27
9797.00,1.27
9796.00,1.27
9795.00,1.27
9794.00,1.27
9793.00,1.27
9792.00,1.27
9791.00,1.27
9790.00,1.27
9789.00,1.27
9788.00,1.27
9787.00,1.27
9786.00,1.27
9785.00,1.27
9784.00,1.27
9783.00,1.27
9782.00,1.26
9781.00,1.26
9780.00,1.26
9779.00,1.26
9778.00,1.26
9777.00,1.26
9776.00,1.26
9775.00,1.26
9774.00,1.27
9773.00,1.27
9772.00,1.27
9771.00,1.27
9770.00,1.27
9769.00,1.27
9768.00,1.27
9767.00,1.27
9766.00,1.28
9765.00,1.28
9764.00,1.28
9763.00,1.28
9762.00,1.28
9761.00,1.28
9760.00,1.28
9759.00,1.28
9758.00,1.28
9757.00,1.28
9756.00,1.28
9755.00,1.28
9754.00,1.27
9753.00,1.27
9752.00,1.27
9751.00,1.27
9750.00,1.27
9749.00,1.26
9748.00,1.26
9747.00,1.26
9746.00,1.26
9745.00,1.26
9744.00,1.26
9743.00,1.26
9742.00,1.26
9741.00,1.27
9740.00,1.27
9739.00,1.27
9738.00,1.27
9737.00,1.27
9736.00,1.28
9735.00,1.28
9734.00,1.28
9733.00,1.29
9732.00,1.29
9731.00,1.29
9730.00,1.29
9729.00,1.29
9728.00,1.30
9727.00,1.30
9726.00,1.30
9725.00,1.30
9724.00,1.30
9723.00,1.30
9722.00,1.30
9721.00,1.30
9720.00,1.30
9719.00,1.30
9718.00,1.30
9717.00,1.30
9716.00,1.30
9715.00,1.30
9714.00,1.30
9713.00,1.30
9712.00,1.29
9711.00,1.29
9710.00,1.29
9709.00,1.29
9708.00,1.28
9707.00,1.28
9706.00,1.28
9705.00,1.28
9704.00,1.28
9703.00,1.28
9702.00,1.28
9701.00,1.28
9700.00,1.28
9699.00,1.28
9698.00,1.28
9697.00,1.28
9696.00,1.28
9695.00,1.29
9694.00,1.29
9693.00,1.29
9692.00,1.30
9691.00,1.30
9690.00,1.30
9689.00,1.30
9688.00,1.31
9687.00,1.31
9686.00,1.31
9685.00,1.31
9684.00,1.31
9683.00,1.31
9682.00,1.31
9681.00,1.31
9680.00,1.30
9679.00,1.30
9678.00,1.30
9677.00,1.30
9676.00,1.30
9675.00,1.29
9674.00,1.29
9673.00,1.29
9672.00,1.29
9671.00,1.29
9670.00,1.28
9669.00,1.28
9668.00,1.28
9667.00,1.28
9666.00,1.28
9665.00,1.28
9664.00,1.28
9663.00,1.28
9662.00,1.28
9661.00,1.28
9660.00,1.28
9659.00,1.28
9658.00,1.28
9657.00,1.28
9656.00,1.28
9655.00,1.28
9654.00,1.28
9653.00,1.28
9652.00,1.28
9651.00,1.28
9650.00,1.28
9649.00,1.28
9648.00,1.28
9647.00,1.28
9646.00,1.28
9645.00,1.28
9644.00,1.28
9643.00,1.28
9642.00,1.28
9641.00,1.28
9640.00,1.29
9639.00,1.29
9638.00,1.29
9637.00,1.29
9636.00,1.29
9635.00,1.30
9634.00,1.30
9633.00,1.30
9632.00,1.30
9631.00,1.30
9630.00,1.30
9629.00,1.30
9628.00,1.30
9627.00,1.30
9626.00,1.29
9625.00,1.29
9624.00,1.29
9623.00,1.29
9622.00,1.29
9621.00,1.28
9620.00,1.28
9619.00,1.28
9618.00,1.28
9617.00,1.27
9616.00,1.27
9615.00,1.27
9614.00,1.27
9613.00,1.27
9612.00,1.27
9611.00,1.26
9610.00,1.26
9609.00,1.26
9608.00,1.26
9607.00,1.27
9606.00,1.27
9605.00,1.27
9604.00,1.27
9603.00,1.27
9602.00,1.27
9601.00,1.27
9600.00,1.28
9599.00,1.28
9598.00,1.28
9597.00,1.28
9596.00,1.28
9595.00,1.28
9594.00,1.28
9593.00,1.28
9592.00,1.29
9591.00,1.29
9590.00,1.29
9589.00,1.29
9588.00,1.29
9587.00,1.29
9586.00,1.29
9585.00,1.29
9584.00,1.29
9583.00,1.29
9582.00,1.29
9581.00,1.29
9580.00,1.29
9579.00,1.29
9578.00,1.29
9577.00,1.29
9576.00,1.29
9575.00,1.30
9574.00,1.30
9573.00,1.30
9572.00,1.30
9571.00,1.30
9570.00,1.30
9569.00,1.30
9568.00,1.31
9567.00,1.31
9566.00,1.31
9565.00,1.31
9564.00,1.31
9563.00,1.31
9562.00,1.31
9561.00,1.31
9560.00,1.31
9559.00,1.32
9558.00,1.32
9557.00,1.32
9556.00,1.31
9555.00,1.31
9554.00,1.31
9553.00,1.31
9552.00,1.31
9551.00,1.31
9550.00,1.31
9549.00,1.31
9548.00,1.31
9547.00,1.30
9546.00,1.30
9545.00,1.30
9544.00,1.30
9543.00,1.30
9542.00,1.29
9541.00,1.29
9540.00,1.29
9539.00,1.29
9538.00,1.29
9537.00,1.29
9536.00,1.28
9535.00,1.28
9534.00,1.28
9533.00,1.28
9532.00,1.28
9531.00,1.28
9530.00,1.28
9529.00,1.28
9528.00,1.28
9527.00,1.28
9526.00,1.28
9525.00,1.28
9524.00,1.28
9523.00,1.28
9522.00,1.29
9521.00,1.29
9520.00,1.29
9519.00,1.29
9518.00,1.30
9517.00,1.30
9516.00,1.30
9515.00,1.30
9514.00,1.30
9513.00,1.31
9512.00,1.31
9511.00,1.31
9510.00,1.31
9509.00,1.31
9508.00,1.31
9507.00,1.31
9506.00,1.31
9505.00,1.30
9504.00,1.30
9503.00,1.30
9502.00,1.30
9501.00,1.30
9500.00,1.29
9499.00,1.29
9498.00,1.29
9497.00,1.29
9496.00,1.29
9495.00,1.29
9494.00,1.29
9493.00,1.29
9492.00,1.29
9491.00,1.29
9490.00,1.29
9489.00,1.29
9488.00,1.29
9487.00,1.30
9486.00,1.30
9485.00,1.30
9484.00,1.30
9483.00,1.30
9482.00,1.31
9481.00,1.31
9480.00,1.31
9479.00,1.31
9478.00,1.30
9477.00,1.30
9476.00,1.30
9475.00,1.30
9474.00,1.30
9473.00,1.29
9472.00,1.29
9471.00,1.29
9470.00,1.29
9469.00,1.28
9468.00,1.28
9467.00,1.28
9466.00,1.28
9465.00,1.28
9464.00,1.28
9463.00,1.28
9462.00,1.28
9461.00,1.28
9460.00,1.28
9459.00,1.29
9458.00,1.29
9457.00,1.29
9456.00,1.29
9455.00,1.29
9454.00,1.30
9453.00,1.30
9452.00,1.30
9451.00,1.30
9450.00,1.30
9449.00,1.31
9448.00,1.31
9447.00,1.31
9446.00,1.31
9445.00,1.31
9444.00,1.31
9443.00,1.31
9442.00,1.31
9441.00,1.31
9440.00,1.31
9439.00,1.31
9438.00,1.31
9437.00,1.31
9436.00,1.30
9435.00,1.30
9434.00,1.30
9433.00,1.30
9432.00,1.30
9431.00,1.29
9430.00,1.29
9429.00,1.29
9428.00,1.29
9427.00,1.29
9426.00,1.28
9425.00,1.28
9424.00,1.28
9423.00,1.28
9422.00,1.28
9421.00,1.28
9420.00,1.28
9419.00,1.28
9418.00,1.28
9417.00,1.28
9416.00,1.28
9415.00,1.28
9414.00,1.28
9413.00,1.28
9412.00,1.28
9411.00,1.28
9410.00,1.28
9409.00,1.28
9408.00,1.28
9407.00,1.28
9406.00,1.28
9405.00,1.28
9404.00,1.28
9403.00,1.28
9402.00,1.28
9401.00,1.28
9400.00,1.28
9399.00,1.28
9398.00,1.28
9397.00,1.29
9396.00,1.29
9395.00,1.29
9394.00,1.29
9393.00,1.29
9392.00,1.29
9391.00,1.30
9390.00,1.30
9389.00,1.30
9388.00,1.30
9387.00,1.30
9386.00,1.30
9385.00,1.30
9384.00,1.30
9383.00,1.30
9382.00,1.30
9381.00,1.29
9380.00,1.29
9379.00,1.29
9378.00,1.29
9377.00,1.28
9376.00,1.28
9375.00,1.28
9374.00,1.28
9373.00,1.27
9372.00,1.27
9371.00,1.27
9370.00,1.27
9369.00,1.27
9368.00,1.27
9367.00,1.27
9366.00,1.27
9365.00,1.27
9364.00,1.27
9363.00,1.27
9362.00,1.27
9361.00,1.27
9360.00,1.27
9359.00,1.27
9358.00,1.27
9357.00,1.27
9356.00,1.28
9355.00,1.28
9354.00,1.28
9353.00,1.28
9352.00,1.28
9351.00,1.28
9350.00,1.28
9349.00,1.28
9348.00,1.28
9347.00,1.28
9346.00,1.28
9345.00,1.28
9344.00,1.28
9343.00,1.28
9342.00,1.28
9341.00,1.28
9340.00,1.28
9339.00,1.28
9338.00,1.29
9337.00,1.29
9336.00,1.29
9335.00,1.29
9334.00,1.29
9333.00,1.29
9332.00,1.29
9331.00,1.29
9330.00,1.29
9329.00,1.29
9328.00,1.30
9327.00,1.30
9326.00,1.30
9325.00,1.30
9324.00,1.31
9323.00,1.31
9322.00,1.31
9321.00,1.31
9320.00,1.31
9319.00,1.31
9318.00,1.31
9317.00,1.32
9316.00,1.32
9315.00,1.32
9314.00,1.32
9313.00,1.32
9312.00,1.32
9311.00,1.32
9310.00,1.32
9309.00,1.32
9308.00,1.32
9307.00,1.32
9306.00,1.32
9305.00,1.33
9304.00,1.33
9303.00,1.33
9302.00,1.32
9301.00,1.32
9300.00,1.32
9299.00,1.32
9298.00,1.32
9297.00,1.32
9296.00,1.31
9295.00,1.31
9294.00,1.31
9293.00,1.31
9292.00,1.31
9291.00,1.30
9290.00,1.30
9289.00,1.30
9288.00,1.30
9287.00,1.30
9286.00,1.30
9285.00,1.29
9284.00,1.29
9283.00,1.29
9282.00,1.29
9281.00,1.29
9280.00,1.29
9279.00,1.29
9278.00,1.29
9277.00,1.29
9276.00,1.30
9275.00,1.30
9274.00,1.30
9273.00,1.30
9272.00,1.30
9271.00,1.30
9270.00,1.30
9269.00,1.30
9268.00,1.30
9267.00,1.30
9266.00,1.30
9265.00,1.30
9264.00,1.30
9263.00,1.30
9262.00,1.30
9261.00,1.30
9260.00,1.30
9259.00,1.29
9258.00,1.29
9257.00,1.29
9256.00,1.29
9255.00,1.29
9254.00,1.29
9253.00,1.29
9252.00,1.29
9251.00,1.29
9250.00,1.30
9249.00,1.30
9248.00,1.30
9247.00,1.30
9246.00,1.30
9245.00,1.30
9244.00,1.31
9243.00,1.31
9242.00,1.31
9241.00,1.31
9240.00,1.32
9239.00,1.32
9238.00,1.32
9237.00,1.32
9236.00,1.32
9235.00,1.32
9234.00,1.32
9233.00,1.32
9232.00,1.31
9231.00,1.31
9230.00,1.31
9229.00,1.31
9228.00,1.31
9227.00,1.31
9226.00,1.30
9225.00,1.30
9224.00,1.30
9223.00,1.30
9222.00,1.30
9221.00,1.29
9220.00,1.29
9219.00,1.29
9218.00,1.29
9217.00,1.29
9216.00,1.29
9215.00,1.28
9214.00,1.28
9213.00,1.28
9212.00,1.28
9211.00,1.28
9210.00,1.28
9209.00,1.28
9208.00,1.28
9207.00,1.28
9206.00,1.28
9205.00,1.28
9204.00,1.28
9203.00,1.28
9202.00,1.28
9201.00,1.28
9200.00,1.29
9199.00,1.29
9198.00,1.29
9197.00,1.29
9196.00,1.29
9195.00,1.30
9194.00,1.30
9193.00,1.30
9192.00,1.30
9191.00,1.30
9190.00,1.30
9189.00,1.30
9188.00,1.30
9187.00,1.30
9186.00,1.30
9185.00,1.30
9184.00,1.30
9183.00,1.30
9182.00,1.30
9181.00,1.30
9180.00,1.30
9179.00,1.30
9178.00,1.30
9177.00,1.30
9176.00,1.30
9175.00,1.30
9174.00,1.30
9173.00,1.30
9172.00,1.30
9171.00,1.30
9170.00,1.30
9169.00,1.30
9168.00,1.30
9167.00,1.30
9166.00,1.30
9165.00,1.30
9164.00,1.30
9163.00,1.30
9162.00,1.30
9161.00,1.30
9160.00,1.29
9159.00,1.29
9158.00,1.29
9157.00,1.29
9156.00,1.29
9155.00,1.29
9154.00,1.29
9153.00,1.29
9152.00,1.29
9151.00,1.29
9150.00,1.28
9149.00,1.28
9148.00,1.28
9147.00,1.28
9146.00,1.28
9145.00,1.28
9144.00,1.28
9143.00,1.28
9142.00,1.28
9141.00,1.28
9140.00,1.28
9139.00,1.28
9138.00,1.28
9137.00,1.28
9136.00,1.29
9135.00,1.29
9134.00,1.29
9133.00,1.29
9132.00,1.29
9131.00,1.30
9130.00,1.30
9129.00,1.30
9128.00,1.30
9127.00,1.30
9126.00,1.31
9125.00,1.31
9124.00,1.31
9123.00,1.31
9122.00,1.31
9121.00,1.31
9120.00,1.32
9119.00,1.32
9118.00,1.32
9117.00,1.32
9116.00,1.32
9115.00,1.32
9114.00,1.32
9113.00,1.32
9112.00,1.32
9111.00,1.32
9110.00,1.32
9109.00,1.32
9108.00,1.32
9107.00,1.32
9106.00,1.32
9105.00,1.32
9104.00,1.32
9103.00,1.32
9102.00,1.32
9101.00,1.32
9100.00,1.32
9099.00,1.32
9098.00,1.32
9097.00,1.32
9096.00,1.32
9095.00,1.32
9094.00,1.32
9093.00,1.32
9092.00,1.32
9091.00,1.33
9090.00,1.33
9089.00,1.33
9088.00,1.33
9087.00,1.33
9086.00,1.33
9085.00,1.33
9084.00,1.33
9083.00,1.33
9082.00,1.33
9081.00,1.33
9080.00,1.32
9079.00,1.32
9078.00,1.32
9077.00,1.32
9076.00,1.32
9075.00,1.32
9074.00,1.32
9073.00,1.31
9072.00,1.31
9071.00,1.31
9070.00,1.31
9069.00,1.31
9068.00,1.31
9067.00,1.31
9066.00,1.30
9065.00,1.30
9064.00,1.30
9063.00,1.30
9062.00,1.30
9061.00,1.30
9060.00,1.29
9059.00,1.29
9058.00,1.29
9057.00,1.29
9056.00,1.29
9055.00,1.29
9054.00,1.29
9053.00,1.29
9052.00,1.29
9051.00,1.29
9050.00,1.29
9049.00,1.29
9048.00,1.29
9047.00,1.29
9046.00,1.29
9045.00,1.29
9044.00,1.29
9043.00,1.30
9042.00,1.30
9041.00,1.30
9040.00,1.30
9039.00,1.30
9038.00,1.30
9037.00,1.30
9036.00,1.30
9035.00,1.30
9034.00,1.30
9033.00,1.30
9032.00,1.30
9031.00,1.30
9030.00,1.30
9029.00,1.30
9028.00,1.30
9027.00,1.30
9026.00,1.30
9025.00,1.30
9024.00,1.30
9023.00,1.30
9022.00,1.30
9021.00,1.30
9020.00,1.30
9019.00,1.30
9018.00,1.29
9017.00,1.29
9016.00,1.29
9015.00,1.29
9014.00,1.29
9013.00,1.29
9012.00,1.29
9011.00,1.29
9010.00,1.29
9009.00,1.29
9008.00,1.29
9007.00,1.29
9006.00,1.29
9005.00,1.29
9004.00,1.29
9003.00,1.29
9002.00,1.29
9001.00,1.29
9000.00,1.29
8999.00,1.29
8998.00,1.29
8997.00,1.30
8996.00,1.30
8995.00,1.30
8994.00,1.30
8993.00,1.30
8992.00,1.30
8991.00,1.31
8990.00,1.31
8989.00,1.31
8988.00,1.31
8987.00,1.31
8986.00,1.31
8985.00,1.32
8984.00,1.32
8983.00,1.32
8982.00,1.32
8981.00,1.32
8980.00,1.32
8979.00,1.32
8978.00,1.32
8977.00,1.32
8976.00,1.32
8975.00,1.31
8974.00,1.31
8973.00,1.31
8972.00,1.31
8971.00,1.31
8970.00,1.31
8969.00,1.30
8968.00,1.30
8967.00,1.30
8966.00,1.30
8965.00,1.30
8964.00,1.30
8963.00,1.30
8962.00,1.30
8961.00,1.30
8960.00,1.30
8959.00,1.30
8958.00,1.30
8957.00,1.30
8956.00,1.30
8955.00,1.31
8954.00,1.31
8953.00,1.31
8952.00,1.31
8951.00,1.32
8950.00,1.32
8949.00,1.32
8948.00,1.32
8947.00,1.32
8946.00,1.32
8945.00,1.32
8944.00,1.32
8943.00,1.32
8942.00,1.32
8941.00,1.32
8940.00,1.32
8939.00,1.32
8938.00,1.32
8937.00,1.31
8936.00,1.31
8935.00,1.31
8934.00,1.31
8933.00,1.31
8932.00,1.31
8931.00,1.30
8930.00,1.30
8929.00,1.30
8928.00,1.30
8927.00,1.30
8926.00,1.30
8925.00,1.30
8924.00,1.30
8923.00,1.31
8922.00,1.31
8921.00,1.31
8920.00,1.31
8919.00,1.31
8918.00,1.31
8917.00,1.31
8916.00,1.31
8915.00,1.31
8914.00,1.31
8913.00,1.31
8912.00,1.31
8911.00,1.31
8910.00,1.31
8909.00,1.30
8908.00,1.30
8907.00,1.30
8906.00,1.30
8905.00,1.30
8904.00,1.30
8903.00,1.30
8902.00,1.30
8901.00,1.30
8900.00,1.30
8899.00,1.30
8898.00,1.30
8897.00,1.30
8896.00,1.30
8895.00,1.30
8894.00,1.30
8893.00,1.31
8892.00,1.31
8891.00,1.31
8890.00,1.31
8889.00,1.31
8888.00,1.31
8887.00,1.31
8886.00,1.31
8885.00,1.31
8884.00,1.31
8883.00,1.31
8882.00,1.31
8881.00,1.31
8880.00,1.31
8879.00,1.31
8878.00,1.31
8877.00,1.31
8876.00,1.31
8875.00,1.31
8874.00,1.31
8873.00,1.31
8872.00,1.32
8871.00,1.32
8870.00,1.32
8869.00,1.32
8868.00,1.32
8867.00,1.32
8866.00,1.32
8865.00,1.32
8864.00,1.32
8863.00,1.32
8862.00,1.32
8861.00,1.32
8860.00,1.32
8859.00,1.32
8858.00,1.32
8857.00,1.32
8856.00,1.32
8855.00,1.32
8854.00,1.32
8853.00,1.32
8852.00,1.32
8851.00,1.32
8850.00,1.31
8849.00,1.31
8848.00,1.31
8847.00,1.31
8846.00,1.31
8845.00,1.31
8844.00,1.31
8843.00,1.31
8842.00,1.31
8841.00,1.31
8840.00,1.31
8839.00,1.31
8838.00,1.31
8837.00,1.31
8836.00,1.31
8835.00,1.31
8834.00,1.31
8833.00,1.31
8832.00,1.31
8831.00,1.31
8830.00,1.31
8829.00,1.31
8828.00,1.31
8827.00,1.31
8826.00,1.31
8825.00,1.31
8824.00,1.31
8823.00,1.31
8822.00,1.31
8821.00,1.31
8820.00,1.31
8819.00,1.31
8818.00,1.30
8817.00,1.30
8816.00,1.30
8815.00,1.30
8814.00,1.30
8813.00,1.30
8812.00,1.29
8811.00,1.29
8810.00,1.29
8809.00,1.29
8808.00,1.29
8807.00,1.29
8806.00,1.30
8805.00,1.30
8804.00,1.30
8803.00,1.30
8802.00,1.30
8801.00,1.30
8800.00,1.30
8799.00,1.30
8798.00,1.30
8797.00,1.30
8796.00,1.30
8795.00,1.30
8794.00,1.29
8793.00,1.29
8792.00,1.29
8791.00,1.29
8790.00,1.29
8789.00,1.29
8788.00,1.28
8787.00,1.28
8786.00,1.28
8785.00,1.28
8784.00,1.28
8783.00,1.28
8782.00,1.28
8781.00,1.28
8780.00,1.28
8779.00,1.28
8778.00,1.28
8777.00,1.28
8776.00,1.28
8775.00,1.28
8774.00,1.29
8773.00,1.29
8772.00,1.29
8771.00,1.29
8770.00,1.29
8769.00,1.29
8768.00,1.28
8767.00,1.28
8766.00,1.28
8765.00,1.28
8764.00,1.28
8763.00,1.28
8762.00,1.27
8761.00,1.27
8760.00,1.27
8759.00,1.27
8758.00,1.26
8757.00,1.26
8756.00,1.26
8755.00,1.26
8754.00,1.26
8753.00,1.26
8752.00,1.26
8751.00,1.26
8750.00,1.26
8749.00,1.26
8748.00,1.26
8747.00,1.26
8746.00,1.26
8745.00,1.26
8744.00,1.26
8743.00,1.26
8742.00,1.26
8741.00,1.26
8740.00,1.26
8739.00,1.26
8738.00,1.26
8737.00,1.27
8736.00,1.27
8735.00,1.27
8734.00,1.27
8733.00,1.27
8732.00,1.27
8731.00,1.27
8730.00,1.27
8729.00,1.27
8728.00,1.27
8727.00,1.27
8726.00,1.27
8725.00,1.27
8724.00,1.27
8723.00,1.27
8722.00,1.27
8721.00,1.27
8720.00,1.27
8719.00,1.27
8718.00,1.27
8717.00,1.27
8716.00,1.27
8715.00,1.27
8714.00,1.27
8713.00,1.27
8712.00,1.27
8711.00,1.27
8710.00,1.27
8709.00,1.27
8708.00,1.27
8707.00,1.27
8706.00,1.27
8705.00,1.27
8704.00,1.27
8703.00,1.27
8702.00,1.27
8701.00,1.27
8700.00,1.27
8699.00,1.28
8698.00,1.28
8697.00,1.28
8696.00,1.28
8695.00,1.28
8694.00,1.28
8693.00,1.28
8692.00,1.27
8691.00,1.27
8690.00,1.27
8689.00,1.27
8688.00,1.27
8687.00,1.27
8686.00,1.27
8685.00,1.27
8684.00,1.27
8683.00,1.27
8682.00,1.27
8681.00,1.27
8680.00,1.27
8679.00,1.27
8678.00,1.27
8677.00,1.27
8676.00,1.27
8675.00,1.27
8674.00,1.27
8673.00,1.27
8672.00,1.27
8671.00,1.27
8670.00,1.27
8669.00,1.27
8668.00,1.27
8667.00,1.26
8666.00,1.26
8665.00,1.26
8664.00,1.26
8663.00,1.26
8662.00,1.26
8661.00,1.26
8660.00,1.26
8659.00,1.25
8658.00,1.25
8657.00,1.25
8656.00,1.25
8655.00,1.25
8654.00,1.25
8653.00,1.25
8652.00,1.25
8651.00,1.25
8650.00,1.25
8649.00,1.26
8648.00,1.26
8647.00,1.26
8646.00,1.26
8645.00,1.26
8644.00,1.26
8643.00,1.27
8642.00,1.27
8641.00,1.27
8640.00,1.27
8639.00,1.27
8638.00,1.28
8637.00,1.28
8636.00,1.28
8635.00,1.28
8634.00,1.28
8633.00,1.28
8632.00,1.28
8631.00,1.28
8630.00,1.28
8629.00,1.28
8628.00,1.28
8627.00,1.28
8626.00,1.28
8625.00,1.28
8624.00,1.28
8623.00,1.28
8622.00,1.28
8621.00,1.28
8620.00,1.27
8619.00,1.27
8618.00,1.27
8617.00,1.27
8616.00,1.27
8615.00,1.26
8614.00,1.26
8613.00,1.26
8612.00,1.26
8611.00,1.26
8610.00,1.25
8609.00,1.25
8608.00,1.25
8607.00,1.25
8606.00,1.25
8605.00,1.25
8604.00,1.25
8603.00,1.25
8602.00,1.25
8601.00,1.25
8600.00,1.25
8599.00,1.25
8598.00,1.25
8597.00,1.25
8596.00,1.25
8595.00,1.25
8594.00,1.25
8593.00,1.25
8592.00,1.25
8591.00,1.25
8590.00,1.25
8589.00,1.25
8588.00,1.25
8587.00,1.25
8586.00,1.25
8585.00,1.25
8584.00,1.25
8583.00,1.25
8582.00,1.25
8581.00,1.25
8580.00,1.25
8579.00,1.25
8578.00,1.25
8577.00,1.25
8576.00,1.25
8575.00,1.25
8574.00,1.25
8573.00,1.25
8572.00,1.25
8571.00,1.25
8570.00,1.25
8569.00,1.25
8568.00,1.25
8567.00,1.25
8566.00,1.25
8565.00,1.25
8564.00,1.25
8563.00,1.25
8562.00,1.25
8561.00,1.25
8560.00,1.25
8559.00,1.25
8558.00,1.25
8557.00,1.25
8556.00,1.25
8555.00,1.25
8554.00,1.25
8553.00,1.25
8552.00,1.25
8551.00,1.25
8550.00,1.25
8549.00,1.25
8548.00,1.25
8547.00,1.25
8546.00,1.25
8545.00,1.25
8544.00,1.25
8543.00,1.25
8542.00,1.25
8541.00,1.25
8540.00,1.25
8539.00,1.24
8538.00,1.24
8537.00,1.24
8536.00,1.24
8535.00,1.24
8534.00,1.24
8533.00,1.23
8532.00,1.23
8531.00,1.23
8530.00,1.23
8529.00,1.23
8528.00,1.23
8527.00,1.23
8526.00,1.23
8525.00,1.23
8524.00,1.22
8523.00,1.22
8522.00,1.22
8521.00,1.22
8520.00,1.22
8519.00,1.22
8518.00,1.22
8517.00,1.22
8516.00,1.22
8515.00,1.22
8514.00,1.22
8513.00,1.22
8512.00,1.22
8511.00,1.22
8510.00,1.22
8509.00,1.22
8508.00,1.21
8507.00,1.21
8506.00,1.21
8505.00,1.21
8504.00,1.21
8503.00,1.21
8502.00,1.21
8501.00,1.21
8500.00,1.21
8499.00,1.21
8498.00,1.21
8497.00,1.21
8496.00,1.21
8495.00,1.21
8494.00,1.21
8493.00,1.21
8492.00,1.21
8491.00,1.21
8490.00,1.21
8489.00,1.21
8488.00,1.21
8487.00,1.21
8486.00,1.21
8485.00,1.21
8484.00,1.21
8483.00,1.21
8482.00,1.21
8481.00,1.21
8480.00,1.21
8479.00,1.21
8478.00,1.21
8477.00,1.21
8476.00,1.21
8475.00,1.21
8474.00,1.21
8473.00,1.21
8472.00,1.21
8471.00,1.21
8470.00,1.21
8469.00,1.21
8468.00,1.21
8467.00,1.21
8466.00,1.21
8465.00,1.21
8464.00,1.21
8463.00,1.21
8462.00,1.22
8461.00,1.22
8460.00,1.22
8459.00,1.22
8458.00,1.22
8457.00,1.22
8456.00,1.22
8455.00,1.22
8454.00,1.22
8453.00,1.22
8452.00,1.22
8451.00,1.22
8450.00,1.22
8449.00,1.22
8448.00,1.22
8447.00,1.22
8446.00,1.22
8445.00,1.22
8444.00,1.21
8443.00,1.21
8442.00,1.21
8441.00,1.21
8440.00,1.21
8439.00,1.21
8438.00,1.21
8437.00,1.21
8436.00,1.20
8435.00,1.20
8434.00,1.20
8433.00,1.20
8432.00,1.20
8431.00,1.20
8430.00,1.20
8429.00,1.20
8428.00,1.20
8427.00,1.20
8426.00,1.20
8425.00,1.20
8424.00,1.20
8423.00,1.20
8422.00,1.20
8421.00,1.20
8420.00,1.20
8419.00,1.20
8418.00,1.20
8417.00,1.20
8416.00,1.20
8415.00,1.20
8414.00,1.20
8413.00,1.20
8412.00,1.21
8411.00,1.21
8410.00,1.21
8409.00,1.21
8408.00,1.21
8407.00,1.21
8406.00,1.21
8405.00,1.22
8404.00,1.22
8403.00,1.22
8402.00,1.22
8401.00,1.22
8400.00,1.23
8399.00,1.23
8398.00,1.23
8397.00,1.23
8396.00,1.23
8395.00,1.23
8394.00,1.23
8393.00,1.23
8392.00,1.23
8391.00,1.23
8390.00,1.23
8389.00,1.23
8388.00,1.23
8387.00,1.23
8386.00,1.22
8385.00,1.22
8384.00,1.22
8383.00,1.22
8382.00,1.22
8381.00,1.22
8380.00,1.22
8379.00,1.22
8378.00,1.22
8377.00,1.22
8376.00,1.22
8375.00,1.22
8374.00,1.22
8373.00,1.22
8372.00,1.22
8371.00,1.22
8370.00,1.22
8369.00,1.22
8368.00,1.22
8367.00,1.22
8366.00,1.22
8365.00,1.22
8364.00,1.22
8363.00,1.22
8362.00,1.22
8361.00,1.22
8360.00,1.22
8359.00,1.23
8358.00,1.23
8357.00,1.23
8356.00,1.23
8355.00,1.23
8354.00,1.23
8353.00,1.23
8352.00,1.23
8351.00,1.23
8350.00,1.23
8349.00,1.23
8348.00,1.23
8347.00,1.23
8346.00,1.23
8345.00,1.23
8344.00,1.23
8343.00,1.23
8342.00,1.23
8341.00,1.23
8340.00,1.23
8339.00,1.23
8338.00,1.23
8337.00,1.23
8336.00,1.22
8335.00,1.22
8334.00,1.22
8333.00,1.22
8332.00,1.22
8331.00,1.22
8330.00,1.22
8329.00,1.22
8328.00,1.22
8327.00,1.22
8326.00,1.22
8325.00,1.22
8324.00,1.22
8323.00,1.22
8322.00,1.22
8321.00,1.22
8320.00,1.22
8319.00,1.22
8318.00,1.22
8317.00,1.23
8316.00,1.23
8315.00,1.23
8314.00,1.23
8313.00,1.23
8312.00,1.23
8311.00,1.24
8310.00,1.24
8309.00,1.24
8308.00,1.24
8307.00,1.24
8306.00,1.24
8305.00,1.24
8304.00,1.24
8303.00,1.24
8302.00,1.23
8301.00,1.23
8300.00,1.23
8299.00,1.23
8298.00,1.23
8297.00,1.23
8296.00,1.23
8295.00,1.23
8294.00,1.23
8293.00,1.23
8292.00,1.23
8291.00,1.23
8290.00,1.23
8289.00,1.23
8288.00,1.24
8287.00,1.24
8286.00,1.24
8285.00,1.24
8284.00,1.24
8283.00,1.24
8282.00,1.24
8281.00,1.24
8280.00,1.24
8279.00,1.24
8278.00,1.24
8277.00,1.24
8276.00,1.24
8275.00,1.24
8274.00,1.24
8273.00,1.24
8272.00,1.24
8271.00,1.24
8270.00,1.24
8269.00,1.24
8268.00,1.24
8267.00,1.24
8266.00,1.24
8265.00,1.24
8264.00,1.24
8263.00,1.24
8262.00,1.24
8261.00,1.24
8260.00,1.24
8259.00,1.24
8258.00,1.24
8257.00,1.25
8256.00,1.25
8255.00,1.25
8254.00,1.25
8253.00,1.25
8252.00,1.25
8251.00,1.25
8250.00,1.25
8249.00,1.25
8248.00,1.25
8247.00,1.25
8246.00,1.25
8245.00,1.26
8244.00,1.26
8243.00,1.26
8242.00,1.26
8241.00,1.26
8240.00,1.26
8239.00,1.26
8238.00,1.26
8237.00,1.26
8236.00,1.25
8235.00,1.25
8234.00,1.25
8233.00,1.25
8232.00,1.25
8231.00,1.25
8230.00,1.25
8229.00,1.25
8228.00,1.25
8227.00,1.25
8226.00,1.25
8225.00,1.25
8224.00,1.25
8223.00,1.25
8222.00,1.25
8221.00,1.25
8220.00,1.25
8219.00,1.25
8218.00,1.25
8217.00,1.25
8216.00,1.25
8215.00,1.25
8214.00,1.25
8213.00,1.25
8212.00,1.25
8211.00,1.25
8210.00,1.25
8209.00,1.25
8208.00,1.25
8207.00,1.25
8206.00,1.25
8205.00,1.25
8204.00,1.25
8203.00,1.25
8202.00,1.25
8201.00,1.26
8200.00,1.26
8199.00,1.25
8198.00,1.25
8197.00,1.25
8196.00,1.25
8195.00,1.25
8194.00,1.25
8193.00,1.25
8192.00,1.25
8191.00,1.25
8190.00,1.25
8189.00,1.25
8188.00,1.25
8187.00,1.25
8186.00,1.25
8185.00,1.25
8184.00,1.25
8183.00,1.24
8182.00,1.24
8181.00,1.24
8180.00,1.24
8179.00,1.24
8178.00,1.24
8177.00,1.24
8176.00,1.24
8175.00,1.25
8174.00,1.25
8173.00,1.25
8172.00,1.25
8171.00,1.25
8170.00,1.25
8169.00,1.25
8168.00,1.25
8167.00,1.25
8166.00,1.25
8165.00,1.25
8164.00,1.25
8163.00,1.25
8162.00,1.25
8161.00,1.25
8160.00,1.25
8159.00,1.25
8158.00,1.25
8157.00,1.25
8156.00,1.26
8155.00,1.26
8154.00,1.26
8153.00,1.26
8152.00,1.26
8151.00,1.27
8150.00,1.27
8149.00,1.27
8148.00,1.27
8147.00,1.27
8146.00,1.28
8145.00,1.28
8144.00,1.28
8143.00,1.28
8142.00,1.28
8141.00,1.28
8140.00,1.28
8139.00,1.28
8138.00,1.28
8137.00,1.29
8136.00,1.29
8135.00,1.29
8134.00,1.29
8133.00,1.29
8132.00,1.29
8131.00,1.29
8130.00,1.29
8129.00,1.29
8128.00,1.29
8127.00,1.29
8126.00,1.29
8125.00,1.29
8124.00,1.29
8123.00,1.29
8122.00,1.29
8121.00,1.29
8120.00,1.29
8119.00,1.29
8118.00,1.29
8117.00,1.29
8116.00,1.29
8115.00,1.28
8114.00,1.28
8113.00,1.28
8112.00,1.28
8111.00,1.28
8110.00,1.28
8109.00,1.28
8108.00,1.28
8107.00,1.28
8106.00,1.28
8105.00,1.28
8104.00,1.28
8103.00,1.28
8102.00,1.28
8101.00,1.28
8100.00,1.28
8099.00,1.28
8098.00,1.28
8097.00,1.28
8096.00,1.28
8095.00,1.27
8094.00,1.27
8093.00,1.27
8092.00,1.27
8091.00,1.27
8090.00,1.27
8089.00,1.27
8088.00,1.27
8087.00,1.27
8086.00,1.27
8085.00,1.28
8084.00,1.28
8083.00,1.28
8082.00,1.28
8081.00,1.28
8080.00,1.28
8079.00,1.28
8078.00,1.28
8077.00,1.28
8076.00,1.28
8075.00,1.28
8074.00,1.28
8073.00,1.28
8072.00,1.28
8071.00,1.28
8070.00,1.28
8069.00,1.28
8068.00,1.28
8067.00,1.28
8066.00,1.28
8065.00,1.28
8064.00,1.28
8063.00,1.28
8062.00,1.28
8061.00,1.28
8060.00,1.28
8059.00,1.28
8058.00,1.28
8057.00,1.28
8056.00,1.28
8055.00,1.28
8054.00,1.29
8053.00,1.29
8052.00,1.29
8051.00,1.29
8050.00,1.29
8049.00,1.29
8048.00,1.29
8047.00,1.29
8046.00,1.29
8045.00,1.28
8044.00,1.28
8043.00,1.28
8042.00,1.28
8041.00,1.28
8040.00,1.28
8039.00,1.28
8038.00,1.28
8037.00,1.28
8036.00,1.28
8035.00,1.28
8034.00,1.28
8033.00,1.28
8032.00,1.27
8031.00,1.27
8030.00,1.27
8029.00,1.27
8028.00,1.27
8027.00,1.27
8026.00,1.27
8025.00,1.27
8024.00,1.27
8023.00,1.27
8022.00,1.27
8021.00,1.27
8020.00,1.27
8019.00,1.27
8018.00,1.27
8017.00,1.27
8016.00,1.27
8015.00,1.27
8014.00,1.27
8013.00,1.27
8012.00,1.27
8011.00,1.27
8010.00,1.27
8009.00,1.27
8008.00,1.28
8007.00,1.28
8006.00,1.28
8005.00,1.28
8004.00,1.28
8003.00,1.28
8002.00,1.28
8001.00,1.29
8000.00,1.29
7999.00,1.29
7998.00,1.29
7997.00,1.29
7996.00,1.30
7995.00,1.30
7994.00,1.30
7993.00,1.30
7992.00,1.30
7991.00,1.31
7990.00,1.31
7989.00,1.31
7988.00,1.31
7987.00,1.31
7986.00,1.31
7985.00,1.31
7984.00,1.31
7983.00,1.31
7982.00,1.31
7981.00,1.31
7980.00,1.31
7979.00,1.31
7978.00,1.31
7977.00,1.31
7976.00,1.31
7975.00,1.31
7974.00,1.30
7973.00,1.30
7972.00,1.30
7971.00,1.30
7970.00,1.30
7969.00,1.30
7968.00,1.30
7967.00,1.30
7966.00,1.30
7965.00,1.30
7964.00,1.30
7963.00,1.30
7962.00,1.30
7961.00,1.29
7960.00,1.29
7959.00,1.29
7958.00,1.29
7957.00,1.29
7956.00,1.29
7955.00,1.29
7954.00,1.29
7953.00,1.29
7952.00,1.29
7951.00,1.29
7950.00,1.29
7949.00,1.30
7948.00,1.30
7947.00,1.30
7946.00,1.30
7945.00,1.30
7944.00,1.30
7943.00,1.30
7942.00,1.30
7941.00,1.30
7940.00,1.30
7939.00,1.30
7938.00,1.30
7937.00,1.30
7936.00,1.30
7935.00,1.30
7934.00,1.30
7933.00,1.30
7932.00,1.30
7931.00,1.30
7930.00,1.30
7929.00,1.30
7928.00,1.30
7927.00,1.30
7926.00,1.30
7925.00,1.30
7924.00,1.30
7923.00,1.30
7922.00,1.30
7921.00,1.30
7920.00,1.30
7919.00,1.30
7918.00,1.30
7917.00,1.30
7916.00,1.29
7915.00,1.29
7914.00,1.29
7913.00,1.29
7912.00,1.29
7911.00,1.29
7910.00,1.29
7909.00,1.29
7908.00,1.29
7907.00,1.29
7906.00,1.29
7905.00,1.29
7904.00,1.29
7903.00,1.30
7902.00,1.30
7901.00,1.30
7900.00,1.30
7899.00,1.30
7898.00,1.30
7897.00,1.31
7896.00,1.31
7895.00,1.31
7894.00,1.31
7893.00,1.31
7892.00,1.31
7891.00,1.31
7890.00,1.31
7889.00,1.31
7888.00,1.31
7887.00,1.31
7886.00,1.31
7885.00,1.31
7884.00,1.30
7883.00,1.30
7882.00,1.30
7881.00,1.30
7880.00,1.30
7879.00,1.30
7878.00,1.30
7877.00,1.30
7876.00,1.30
7875.00,1.30
7874.00,1.30
7873.00,1.30
7872.00,1.30
7871.00,1.30
7870.00,1.30
7869.00,1.30
7868.00,1.30
7867.00,1.30
7866.00,1.30
7865.00,1.30
7864.00,1.30
7863.00,1.30
7862.00,1.30
7861.00,1.30
7860.00,1.30
7859.00,1.30
7858.00,1.30
7857.00,1.30
7856.00,1.30
7855.00,1.30
7854.00,1.30
7853.00,1.30
7852.00,1.30
7851.00,1.30
7850.00,1.30
7849.00,1.30
7848.00,1.30
7847.00,1.30
7846.00,1.30
7845.00,1.30
7844.00,1.30
7843.00,1.30
7842.00,1.30
7841.00,1.31
7840.00,1.31
7839.00,1.31
7838.00,1.31
7837.00,1.31
7836.00,1.31
7835.00,1.31
7834.00,1.31
7833.00,1.31
7832.00,1.32
7831.00,1.32
7830.00,1.32
7829.00,1.32
7828.00,1.32
7827.00,1.32
7826.00,1.32
7825.00,1.32
7824.00,1.32
7823.00,1.32
7822.00,1.32
7821.00,1.32
7820.00,1.32
7819.00,1.32
7818.00,1.32
7817.00,1.32
7816.00,1.32
7815.00,1.31
7814.00,1.31
7813.00,1.31
7812.00,1.31
7811.00,1.31
7810.00,1.31
7809.00,1.31
7808.00,1.31
7807.00,1.31
7806.00,1.31
7805.00,1.31
7804.00,1.31
7803.00,1.31
7802.00,1.31
7801.00,1.31
7800.00,1.31
7799.00,1.31
7798.00,1.31
7797.00,1.31
7796.00,1.31
7795.00,1.31
7794.00,1.31
7793.00,1.31
7792.00,1.31
7791.00,1.31
7790.00,1.31
7789.00,1.31
7788.00,1.31
7787.00,1.32
7786.00,1.32
7785.00,1.32
7784.00,1.32
7783.00,1.32
7782.00,1.32
7781.00,1.32
7780.00,1.32
7779.00,1.32
7778.00,1.32
7777.00,1.32
7776.00,1.32
7775.00,1.32
7774.00,1.32
7773.00,1.32
7772.00,1.32
7771.00,1.32
7770.00,1.32
7769.00,1.32
7768.00,1.32
7767.00,1.32
7766.00,1.32
7765.00,1.32
7764.00,1.31
7763.00,1.31
7762.00,1.31
7761.00,1.31
7760.00,1.31
7759.00,1.31
7758.00,1.30
7757.00,1.30
7756.00,1.30
7755.00,1.30
7754.00,1.30
7753.00,1.30
7752.00,1.30
7751.00,1.30
7750.00,1.30
7749.00,1.30
7748.00,1.30
7747.00,1.30
7746.00,1.30
7745.00,1.30
7744.00,1.30
7743.00,1.31
7742.00,1.31
7741.00,1.31
7740.00,1.31
7739.00,1.31
7738.00,1.32
7737.00,1.32
7736.00,1.32
7735.00,1.32
7734.00,1.32
7733.00,1.33
7732.00,1.33
7731.00,1.33
7730.00,1.33
7729.00,1.33
7728.00,1.33
7727.00,1.33
7726.00,1.33
7725.00,1.33
7724.00,1.33
7723.00,1.33
7722.00,1.33
7721.00,1.33
7720.00,1.33
7719.00,1.32
7718.00,1.32
7717.00,1.32
7716.00,1.32
7715.00,1.32
7714.00,1.32
7713.00,1.32
7712.00,1.32
7711.00,1.32
7710.00,1.32
7709.00,1.32
7708.00,1.32
7707.00,1.32
7706.00,1.32
7705.00,1.32
7704.00,1.32
7703.00,1.32
7702.00,1.32
7701.00,1.32
7700.00,1.32
7699.00,1.32
7698.00,1.32
7697.00,1.32
7696.00,1.32
7695.00,1.32
7694.00,1.32
7693.00,1.32
7692.00,1.32
7691.00,1.32
7690.00,1.31
7689.00,1.31
7688.00,1.31
7687.00,1.31
7686.00,1.31
7685.00,1.31
7684.00,1.31
7683.00,1.31
7682.00,1.31
7681.00,1.31
7680.00,1.31
7679.00,1.31
7678.00,1.32
7677.00,1.32
7676.00,1.32
7675.00,1.32
7674.00,1.32
7673.00,1.32
7672.00,1.32
7671.00,1.32
7670.00,1.32
7669.00,1.32
7668.00,1.32
7667.00,1.32
7666.00,1.32
7665.00,1.32
7664.00,1.32
7663.00,1.32
7662.00,1.32
7661.00,1.32
7660.00,1.32
7659.00,1.32
7658.00,1.32
7657.00,1.32
7656.00,1.32
7655.00,1.32
7654.00,1.32
7653.00,1.32
7652.00,1.32
7651.00,1.32
7650.00,1.32
7649.00,1.32
7648.00,1.32
7647.00,1.32
7646.00,1.32
7645.00,1.32
7644.00,1.32
7643.00,1.32
7642.00,1.32
7641.00,1.32
7640.00,1.32
7639.00,1.32
7638.00,1.32
7637.00,1.32
7636.00,1.32
7635.00,1.32
7634.00,1.32
7633.00,1.32
7632.00,1.33
7631.00,1.32
7630.00,1.32
7629.00,1.32
7628.00,1.32
7627.00,1.32
7626.00,1.32
7625.00,1.32
7624.00,1.32
7623.00,1.32
7622.00,1.32
7621.00,1.32
7620.00,1.32
7619.00,1.32
7618.00,1.32
7617.00,1.32
7616.00,1.32
7615.00,1.32
7614.00,1.32
7613.00,1.32
7612.00,1.32
7611.00,1.32
7610.00,1.32
7609.00,1.32
7608.00,1.32
7607.00,1.32
7606.00,1.32
7605.00,1.32
7604.00,1.32
7603.00,1.32
7602.00,1.32
7601.00,1.32
7600.00,1.32
7599.00,1.32
7598.00,1.32
7597.00,1.32
7596.00,1.32
7595.00,1.32
7594.00,1.32
7593.00,1.32
7592.00,1.32
7591.00,1.32
7590.00,1.32
7589.00,1.32
7588.00,1.32
7587.00,1.32
7586.00,1.32
7585.00,1.32
7584.00,1.32
7583.00,1.32
7582.00,1.32
7581.00,1.32
7580.00,1.32
7579.00,1.32
7578.00,1.32
7577.00,1.32
7576.00,1.32
7575.00,1.33
7574.00,1.33
7573.00,1.33
7572.00,1.33
7571.00,1.33
7570.00,1.33
7569.00,1.33
7568.00,1.33
7567.00,1.33
7566.00,1.33
7565.00,1.33
7564.00,1.33
7563.00,1.33
7562.00,1.33
7561.00,1.32
7560.00,1.32
7559.00,1.32
7558.00,1.32
7557.00,1.32
7556.00,1.32
7555.00,1.32
7554.00,1.32
7553.00,1.33
7552.00,1.33
7551.00,1.33
7550.00,1.33
7549.00,1.33
7548.00,1.33
7547.00,1.33
7546.00,1.33
7545.00,1.33
7544.00,1.33
7543.00,1.33
7542.00,1.32
7541.00,1.32
7540.00,1.32
7539.00,1.32
7538.00,1.32
7537.00,1.32
7536.00,1.32
7535.00,1.32
7534.00,1.32
7533.00,1.32
7532.00,1.32
7531.00,1.32
7530.00,1.32
7529.00,1.32
7528.00,1.32
7527.00,1.32
7526.00,1.32
7525.00,1.32
7524.00,1.32
7523.00,1.32
7522.00,1.32
7521.00,1.32
7520.00,1.33
7519.00,1.33
7518.00,1.33
7517.00,1.33
7516.00,1.33
7515.00,1.33
7514.00,1.33
7513.00,1.33
7512.00,1.33
7511.00,1.33
7510.00,1.32
7509.00,1.32
7508.00,1.32
7507.00,1.32
7506.00,1.32
7505.00,1.32
7504.00,1.32
7503.00,1.32
7502.00,1.31
7501.00,1.31
7500.00,1.31
7499.00,1.31
7498.00,1.31
7497.00,1.31
7496.00,1.31
7495.00,1.31
7494.00,1.30
7493.00,1.30
7492.00,1.30
7491.00,1.30
7490.00,1.30
7489.00,1.30
7488.00,1.30
7487.00,1.30
7486.00,1.30
7485.00,1.30
7484.00,1.30
7483.00,1.29
7482.00,1.29
7481.00,1.29
7480.00,1.29
7479.00,1.29
7478.00,1.29
7477.00,1.30
7476.00,1.30
7475.00,1.30
7474.00,1.30
7473.00,1.30
7472.00,1.30
7471.00,1.30
7470.00,1.30
7469.00,1.30
7468.00,1.30
7467.00,1.30
7466.00,1.30
7465.00,1.30
7464.00,1.30
7463.00,1.30
7462.00,1.30
7461.00,1.30
7460.00,1.30
7459.00,1.30
7458.00,1.30
7457.00,1.30
7456.00,1.30
7455.00,1.30
7454.00,1.30
7453.00,1.30
7452.00,1.30
7451.00,1.30
7450.00,1.30
7449.00,1.30
7448.00,1.30
7447.00,1.30
7446.00,1.30
7445.00,1.30
7444.00,1.30
7443.00,1.30
7442.00,1.30
7441.00,1.30
7440.00,1.30
7439.00,1.30
7438.00,1.30
7437.00,1.30
7436.00,1.29
7435.00,1.29
7434.00,1.29
7433.00,1.29
7432.00,1.29
7431.00,1.29
7430.00,1.29
7429.00,1.29
7428.00,1.29
7427.00,1.29
7426.00,1.29
7425.00,1.29
7424.00,1.29
7423.00,1.29
7422.00,1.29
7421.00,1.28
7420.00,1.28
7419.00,1.28
7418.00,1.28
7417.00,1.28
7416.00,1.28
7415.00,1.28
7414.00,1.28
7413.00,1.28
7412.00,1.28
7411.00,1.28
7410.00,1.28
7409.00,1.28
7408.00,1.28
7407.00,1.28
7406.00,1.28
7405.00,1.28
7404.00,1.27
7403.00,1.27
7402.00,1.27
7401.00,1.27
7400.00,1.27
7399.00,1.27
7398.00,1.27
7397.00,1.27
7396.00,1.27
7395.00,1.27
7394.00,1.27
7393.00,1.27
7392.00,1.27
7391.00,1.27
7390.00,1.27
7389.00,1.27
7388.00,1.27
7387.00,1.27
7386.00,1.27
7385.00,1.27
7384.00,1.27
7383.00,1.27
7382.00,1.27
7381.00,1.27
7380.00,1.27
7379.00,1.27
7378.00,1.27
7377.00,1.27
7376.00,1.27
7375.00,1.26
7374.00,1.26
7373.00,1.26
7372.00,1.26
7371.00,1.26
7370.00,1.26
7369.00,1.26
7368.00,1.26
7367.00,1.26
7366.00,1.26
7365.00,1.26
7364.00,1.25
7363.00,1.25
7362.00,1.25
7361.00,1.25
7360.00,1.25
7359.00,1.25
7358.00,1.25
7357.00,1.25
7356.00,1.25
7355.00,1.25
7354.00,1.25
7353.00,1.25
7352.00,1.25
7351.00,1.25
7350.00,1.25
7349.00,1.25
7348.00,1.25
7347.00,1.25
7346.00,1.25
7345.00,1.25
7344.00,1.25
7343.00,1.25
7342.00,1.25
7341.00,1.25
7340.00,1.25
7339.00,1.25
7338.00,1.25
7337.00,1.25
7336.00,1.25
7335.00,1.25
7334.00,1.25
7333.00,1.25
7332.00,1.25
7331.00,1.25
7330.00,1.25
7329.00,1.25
7328.00,1.25
7327.00,1.25
7326.00,1.25
7325.00,1.25
7324.00,1.25
7323.00,1.25
7322.00,1.25
7321.00,1.25
7320.00,1.25
7319.00,1.25
7318.00,1.25
7317.00,1.25
7316.00,1.25
7315.00,1.25
7314.00,1.25
7313.00,1.25
7312.00,1.25
7311.00,1.25
7310.00,1.25
7309.00,1.25
7308.00,1.25
7307.00,1.25
7306.00,1.25
7305.00,1.25
7304.00,1.25
7303.00,1.25
7302.00,1.25
7301.00,1.25
7300.00,1.25
7299.00,1.25
7298.00,1.25
7297.00,1.25
7296.00,1.25
7295.00,1.25
7294.00,1.25
7293.00,1.25
7292.00,1.25
7291.00,1.25
7290.00,1.24
7289.00,1.24
7288.00,1.24
7287.00,1.24
7286.00,1.24
7285.00,1.24
7284.00,1.24
7283.00,1.24
7282.00,1.24
7281.00,1.24
7280.00,1.23
7279.00,1.23
7278.00,1.23
7277.00,1.23
7276.00,1.23
7275.00,1.23
7274.00,1.23
7273.00,1.23
7272.00,1.23
7271.00,1.22
7270.00,1.22
7269.00,1.22
7268.00,1.22
7267.00,1.22
7266.00,1.22
7265.00,1.22
7264.00,1.22
7263.00,1.22
7262.00,1.22
7261.00,1.22
7260.00,1.22
7259.00,1.22
7258.00,1.22
7257.00,1.22
7256.00,1.22
7255.00,1.22
7254.00,1.22
7253.00,1.21
7252.00,1.21
7251.00,1.21
7250.00,1.21
7249.00,1.21
7248.00,1.21
7247.00,1.21
7246.00,1.21
7245.00,1.20
7244.00,1.20
7243.00,1.20
7242.00,1.20
7241.00,1.20
7240.00,1.19
7239.00,1.19
7238.00,1.19
7237.00,1.19
7236.00,1.18
7235.00,1.18
7234.00,1.18
7233.00,1.18
7232.00,1.18
7231.00,1.17
7230.00,1.17
7229.00,1.17
7228.00,1.17
7227.00,1.17
7226.00,1.16
7225.00,1.16
7224.00,1.16
7223.00,1.16
7222.00,1.16
7221.00,1.15
7220.00,1.15
7219.00,1.15
7218.00,1.15
7217.00,1.14
7216.00,1.14
7215.00,1.14
7214.00,1.14
7213.00,1.14
7212.00,1.13
7211.00,1.13
7210.00,1.13
7209.00,1.13
7208.00,1.13
7207.00,1.12
7206.00,1.12
7205.00,1.12
7204.00,1.12
7203.00,1.12
7202.00,1.12
7201.00,1.11
7200.00,1.11
7199.00,1.11
7198.00,1.11
7197.00,1.11
7196.00,1.10
7195.00,1.10
7194.00,1.10
7193.00,1.10
7192.00,1.09
7191.00,1.09
7190.00,1.09
7189.00,1.09
7188.00,1.08
7187.00,1.08
7186.00,1.08
7185.00,1.08
7184.00,1.07
7183.00,1.07
7182.00,1.07
7181.00,1.07
7180.00,1.07
7179.00,1.07
7178.00,1.06
7177.00,1.06
7176.00,1.06
7175.00,1.06
7174.00,1.06
7173.00,1.06
7172.00,1.05
7171.00,1.05
7170.00,1.05
7169.00,1.05
7168.00,1.05
7167.00,1.05
7166.00,1.04
7165.00,1.04
7164.00,1.04
7163.00,1.04
7162.00,1.04
7161.00,1.04
7160.00,1.03
7159.00,1.03
7158.00,1.03
7157.00,1.03
7156.00,1.03
7155.00,1.03
7154.00,1.03
7153.00,1.02
7152.00,1.02
7151.00,1.02
7150.00,1.02
7149.00,1.02
7148.00,1.02
7147.00,1.01
7146.00,1.01
7145.00,1.01
7144.00,1.01
7143.00,1.01
7142.00,1.01
7141.00,1.00
7140.00,1.00
7139.00,1.00
7138.00,1.00
7137.00,1.00
7136.00,1.00
7135.00,0.99
7134.00,0.99
7133.00,0.99
7132.00,0.99
7131.00,0.99
7130.00,0.99
7129.00,0.98
7128.00,0.98
7127.00,0.98
7126.00,0.98
7125.00,0.98
7124.00,0.97
7123.00,0.97
7122.00,0.97
7121.00,0.97
7120.00,0.96
7119.00,0.96
7118.00,0.96
7117.00,0.96
7116.00,0.96
7115.00,0.95
7114.00,0.95
7113.00,0.95
7112.00,0.95
7111.00,0.95
7110.00,0.94
7109.00,0.94
7108.00,0.94
7107.00,0.94
7106.00,0.94
7105.00,0.93
7104.00,0.93
7103.00,0.93
7102.00,0.93
7101.00,0.93
7100.00,0.92
7099.00,0.92
7098.00,0.92
7097.00,0.92
7096.00,0.92
7095.00,0.91
7094.00,0.91
7093.00,0.91
7092.00,0.91
7091.00,0.91
7090.00,0.90
7089.00,0.90
7088.00,0.90
7087.00,0.90
7086.00,0.90
7085.00,0.89
7084.00,0.89
7083.00,0.89
7082.00,0.89
7081.00,0.89
7080.00,0.89
7079.00,0.89
7078.00,0.89
7077.00,0.89
7076.00,0.89
7075.00,0.88
7074.00,0.88
7073.00,0.88
7072.00,0.88
7071.00,0.88
7070.00,0.88
7069.00,0.88
7068.00,0.87
7067.00,0.87
7066.00,0.87
7065.00,0.87
7064.00,0.87
7063.00,0.86
7062.00,0.86
7061.00,0.86
7060.00,0.86
7059.00,0.86
7058.00,0.86
7057.00,0.85
7056.00,0.85
7055.00,0.85
7054.00,0.85
7053.00,0.85
7052.00,0.85
7051.00,0.85
7050.00,0.85
7049.00,0.85
7048.00,0.85
7047.00,0.85
7046.00,0.84
7045.00,0.84
7044.00,0.84
7043.00,0.84
7042.00,0.84
7041.00,0.84
7040.00,0.83
7039.00,0.83
7038.00,0.83
7037.00,0.83
7036.00,0.83
7035.00,0.83
7034.00,0.82
7033.00,0.82
7032.00,0.82
7031.00,0.82
7030.00,0.82
7029.00,0.82
7028.00,0.82
7027.00,0.82
7026.00,0.82
7025.00,0.82
7024.00,0.82
7023.00,0.82
7022.00,0.82
7021.00,0.82
7020.00,0.82
7019.00,0.82
7018.00,0.81
7017.00,0.81
7016.00,0.81
7015.00,0.81
7014.00,0.81
7013.00,0.81
7012.00,0.81
7011.00,0.81
7010.00,0.81
7009.00,0.81
7008.00,0.81
7007.00,0.81
7006.00,0.80
7005.00,0.80
7004.00,0.80
7003.00,0.80
7002.00,0.80
7001.00,0.80
7000.00,0.80
6999.00,0.80
6998.00,0.80
6997.00,0.80
6996.00,0.80
6995.00,0.79
6994.00,0.79
6993.00,0.79
6992.00,0.79
6991.00,0.79
6990.00,0.79
6989.00,0.79
6988.00,0.79
6987.00,0.79
6986.00,0.79
6985.00,0.78
6984.00,0.78
6983.00,0.78
6982.00,0.78
6981.00,0.78
6980.00,0.78
6979.00,0.78
6978.00,0.78
6977.00,0.78
6976.00,0.78
6975.00,0.78
6974.00,0.78
6973.00,0.78
6972.00,0.78
6971.00,0.78
6970.00,0.78
6969.00,0.78
6968.00,0.78
6967.00,0.78
6966.00,0.78
6965.00,0.78
6964.00,0.78
6963.00,0.78
6962.00,0.77
6961.00,0.77
6960.00,0.77
6959.00,0.77
6958.00,0.77
6957.00,0.77
6956.00,0.77
6955.00,0.76
6954.00,0.76
6953.00,0.76
6952.00,0.76
6951.00,0.76
6950.00,0.76
6949.00,0.76
6948.00,0.76
6947.00,0.75
6946.00,0.75
6945.00,0.75
6944.00,0.75
6943.00,0.75
6942.00,0.75
6941.00,0.75
6940.00,0.75
6939.00,0.75
6938.00,0.75
6937.00,0.75
6936.00,0.75
6935.00,0.75
6934.00,0.75
6933.00,0.75
6932.00,0.75
6931.00,0.75
6930.00,0.75
6929.00,0.75
6928.00,0.75
6927.00,0.75
6926.00,0.75
6925.00,0.75
6924.00,0.75
6923.00,0.75
6922.00,0.75
6921.00,0.75
6920.00,0.75
6919.00,0.75
6918.00,0.75
6917.00,0.75
6916.00,0.75
6915.00,0.75
6914.00,0.75
6913.00,0.75
6912.00,0.74
6911.00,0.74
6910.00,0.74
6909.00,0.74
6908.00,0.74
6907.00,0.74
6906.00,0.74
6905.00,0.74
6904.00,0.74
6903.00,0.74
6902.00,0.74
6901.00,0.74
6900.00,0.74
6899.00,0.74
6898.00,0.74
6897.00,0.74
6896.00,0.74
6895.00,0.74
6894.00,0.74
6893.00,0.74
6892.00,0.74
6891.00,0.74
6890.00,0.74
6889.00,0.74
6888.00,0.74
6887.00,0.73
6886.00,0.73
6885.00,0.73
6884.00,0.73
6883.00,0.73
6882.00,0.73
6881.00,0.73
6880.00,0.74
6879.00,0.74
6878.00,0.74
6877.00,0.74
6876.00,0.74
6875.00,0.74
6874.00,0.74
6873.00,0.74
6872.00,0.74
6871.00,0.74
6870.00,0.74
6869.00,0.74
6868.00,0.74
6867.00,0.74
6866.00,0.74
6865.00,0.74
6864.00,0.74
6863.00,0.74
6862.00,0.74
6861.00,0.74
6860.00,0.74
6859.00,0.74
6858.00,0.74
6857.00,0.74
6856.00,0.74
6855.00,0.74
6854.00,0.74
6853.00,0.74
6852.00,0.74
6851.00,0.74
6850.00,0.74
6849.00,0.74
6848.00,0.74
6847.00,0.74
6846.00,0.74
6845.00,0.74
6844.00,0.74
6843.00,0.74
6842.00,0.74
6841.00,0.74
6840.00,0.74
6839.00,0.74
6838.00,0.74
6837.00,0.74
6836.00,0.74
6835.00,0.74
6834.00,0.74
6833.00,0.74
6832.00,0.74
6831.00,0.74
6830.00,0.74
6829.00,0.75
6828.00,0.75
6827.00,0.75
6826.00,0.75
6825.00,0.75
6824.00,0.75
6823.00,0.75
6822.00,0.75
6821.00,0.75
6820.00,0.75
6819.00,0.75
6818.00,0.75
6817.00,0.75
6816.00,0.75
6815.00,0.75
6814.00,0.75
6813.00,0.75
6812.00,0.75
6811.00,0.75
6810.00,0.75
6809.00,0.75
6808.00,0.75
6807.00,0.75
6806.00,0.75
6805.00,0.75
6804.00,0.75
6803.00,0.75
6802.00,0.75
6801.00,0.75
6800.00,0.75
6799.00,0.75
6798.00,0.75
6797.00,0.75
6796.00,0.75
6795.00,0.75
6794.00,0.76
6793.00,0.76
6792.00,0.76
6791.00,0.76
6790.00,0.76
6789.00,0.76
6788.00,0.76
6787.00,0.76
6786.00,0.76
6785.00,0.76
6784.00,0.76
6783.00,0.76
6782.00,0.76
6781.00,0.76
6780.00,0.76
6779.00,0.76
6778.00,0.76
6777.00,0.77
6776.00,0.77
6775.00,0.77
6774.00,0.77
6773.00,0.77
6772.00,0.77
6771.00,0.77
6770.00,0.77
6769.00,0.77
6768.00,0.77
6767.00,0.77
6766.00,0.77
6765.00,0.77
6764.00,0.78
6763.00,0.78
6762.00,0.78
6761.00,0.78
6760.00,0.78
6759.00,0.78
6758.00,0.78
6757.00,0.78
6756.00,0.78
6755.00,0.78
6754.00,0.78
6753.00,0.78
6752.00,0.78
6751.00,0.78
6750.00,0.78
6749.00,0.78
6748.00,0.78
6747.00,0.78
6746.00,0.78
6745.00,0.78
6744.00,0.78
6743.00,0.78
6742.00,0.78
6741.00,0.78
6740.00,0.78
6739.00,0.78
6738.00,0.78
6737.00,0.78
6736.00,0.78
6735.00,0.78
6734.00,0.78
6733.00,0.78
6732.00,0.78
6731.00,0.78
6730.00,0.79
6729.00,0.79
6728.00,0.79
6727.00,0.79
6726.00,0.79
6725.00,0.79
6724.00,0.79
6723.00,0.79
6722.00,0.79
6721.00,0.80
6720.00,0.80
6719.00,0.80
6718.00,0.80
6717.00,0.80
6716.00,0.80
6715.00,0.80
6714.00,0.81
6713.00,0.81
6712.00,0.81
6711.00,0.81
6710.00,0.81
6709.00,0.81
6708.00,0.81
6707.00,0.81
6706.00,0.81
6705.00,0.81
6704.00,0.81
6703.00,0.81
6702.00,0.82
6701.00,0.82
6700.00,0.82
6699.00,0.82
6698.00,0.82
6697.00,0.82
6696.00,0.82
6695.00,0.82
6694.00,0.82
6693.00,0.82
6692.00,0.82
6691.00,0.82
6690.00,0.82
6689.00,0.82
6688.00,0.82
6687.00,0.82
6686.00,0.82
6685.00,0.82
6684.00,0.82
6683.00,0.82
6682.00,0.82
6681.00,0.83
6680.00,0.83
6679.00,0.83
6678.00,0.83
6677.00,0.83
6676.00,0.83
6675.00,0.83
6674.00,0.83
6673.00,0.83
6672.00,0.84
6671.00,0.84
6670.00,0.84
6669.00,0.84
6668.00,0.84
6667.00,0.84
6666.00,0.84
6665.00,0.84
6664.00,0.84
6663.00,0.84
6662.00,0.84
6661.00,0.84
6660.00,0.84
6659.00,0.84
6658.00,0.84
6657.00,0.84
6656.00,0.85
6655.00,0.85
6654.00,0.85
6653.00,0.85
6652.00,0.85
6651.00,0.85
6650.00,0.85
6649.00,0.85
6648.00,0.85
6647.00,0.85
6646.00,0.85
6645.00,0.86
6644.00,0.86
6643.00,0.86
6642.00,0.86
6641.00,0.86
6640.00,0.86
6639.00,0.87
6638.00,0.87
6637.00,0.87
6636.00,0.87
6635.00,0.87
6634.00,0.87
6633.00,0.87
6632.00,0.87
6631.00,0.87
6630.00,0.87
6629.00,0.87
6628.00,0.87
6627.00,0.88
6626.00,0.88
6625.00,0.88
6624.00,0.88
6623.00,0.88
6622.00,0.88
6621.00,0.88
6620.00,0.88
6619.00,0.88
6618.00,0.88
6617.00,0.88
6616.00,0.88
6615.00,0.88
6614.00,0.88
6613.00,0.88
6612.00,0.88
6611.00,0.89
6610.00,0.89
6609.00,0.89
6608.00,0.89
6607.00,0.89
6606.00,0.89
6605.00,0.89
6604.00,0.89
6603.00,0.89
6602.00,0.89
6601.00,0.89
6600.00,0.89
6599.00,0.89
6598.00,0.90
6597.00,0.90
6596.00,0.90
6595.00,0.90
6594.00,0.90
6593.00,0.90
6592.00,0.90
6591.00,0.90
6590.00,0.90
6589.00,0.90
6588.00,0.90
6587.00,0.91
6586.00,0.91
6585.00,0.91
6584.00,0.91
6583.00,0.91
6582.00,0.91
6581.00,0.91
6580.00,0.91
6579.00,0.91
6578.00,0.91
6577.00,0.91
6576.00,0.91
6575.00,0.91
6574.00,0.92
6573.00,0.92
6572.00,0.92
6571.00,0.92
6570.00,0.92
6569.00,0.92
6568.00,0.92
6567.00,0.92
6566.00,0.92
6565.00,0.92
6564.00,0.92
6563.00,0.92
6562.00,0.93
6561.00,0.93
6560.00,0.93
6559.00,0.93
6558.00,0.93
6557.00,0.93
6556.00,0.93
6555.00,0.93
6554.00,0.93
6553.00,0.93
6552.00,0.93
6551.00,0.93
6550.00,0.93
6549.00,0.93
6548.00,0.93
6547.00,0.94
6546.00,0.94
6545.00,0.94
6544.00,0.94
6543.00,0.94
6542.00,0.94
6541.00,0.94
6540.00,0.94
6539.00,0.94
6538.00,0.94
6537.00,0.94
6536.00,0.94
6535.00,0.94
6534.00,0.94
6533.00,0.94
6532.00,0.94
6531.00,0.94
6530.00,0.94
6529.00,0.94
6528.00,0.94
6527.00,0.95
6526.00,0.95
6525.00,0.95
6524.00,0.95
6523.00,0.95
6522.00,0.95
6521.00,0.95
6520.00,0.95
6519.00,0.95
6518.00,0.95
6517.00,0.95
6516.00,0.95
6515.00,0.95
6514.00,0.95
6513.00,0.95
6512.00,0.95
6511.00,0.95
6510.00,0.95
6509.00,0.95
6508.00,0.95
6507.00,0.96
6506.00,0.96
6505.00,0.96
6504.00,0.96
6503.00,0.96
6502.00,0.96
6501.00,0.96
6500.00,0.96
6499.00,0.96
6498.00,0.96
6497.00,0.96
6496.00,0.96
6495.00,0.96
6494.00,0.96
6493.00,0.96
6492.00,0.96
6491.00,0.96
6490.00,0.96
6489.00,0.97
6488.00,0.97
6487.00,0.97
6486.00,0.97
6485.00,0.97
6484.00,0.97
6483.00,0.97
6482.00,0.97
6481.00,0.97
6480.00,0.97
6479.00,0.97
6478.00,0.97
6477.00,0.97
6476.00,0.97
6475.00,0.97
6474.00,0.97
6473.00,0.97
6472.00,0.97
6471.00,0.97
6470.00,0.97
6469.00,0.97
6468.00,0.97
6467.00,0.97
6466.00,0.97
6465.00,0.97
6464.00,0.97
6463.00,0.97
6462.00,0.98
6461.00,0.98
6460.00,0.98
6459.00,0.98
6458.00,0.98
6457.00,0.98
6456.00,0.98
6455.00,0.98
6454.00,0.98
6453.00,0.98
6452.00,0.98
6451.00,0.98
6450.00,0.98
6449.00,0.98
6448.00,0.98
6447.00,0.98
6446.00,0.98
6445.00,0.98
6444.00,0.98
6443.00,0.98
6442.00,0.98
6441.00,0.98
6440.00,0.98
6439.00,0.98
6438.00,0.98
6437.00,0.98
6436.00,0.98
6435.00,0.98
6434.00,0.98
6433.00,0.98
6432.00,0.98
6431.00,0.98
6430.00,0.98
6429.00,0.98
6428.00,0.98
6427.00,0.98
6426.00,0.98
6425.00,0.98
6424.00,0.98
6423.00,0.98
6422.00,0.98
6421.00,0.98
6420.00,0.98
6419.00,0.98
6418.00,0.98
6417.00,0.98
6416.00,0.99
6415.00,0.99
6414.00,0.99
6413.00,0.99
6412.00,0.99
6411.00,0.99
6410.00,0.99
6409.00,0.99
6408.00,0.99
6407.00,0.99
6406.00,0.99
6405.00,0.99
6404.00,0.99
6403.00,0.99
6402.00,0.99
6401.00,0.99
6400.00,1.00
6399.00,1.00
6398.00,1.00
6397.00,1.00
6396.00,1.00
6395.00,1.00
6394.00,1.00
6393.00,1.00
6392.00,1.00
6391.00,1.00
6390.00,1.00
6389.00,1.00
6388.00,1.00
6387.00,1.00
6386.00,1.00
6385.00,1.00
6384.00,1.00
6383.00,1.00
6382.00,1.00
6381.00,1.00
6380.00,1.00
6379.00,1.00
6378.00,1.00
6377.00,1.00
6376.00,1.00
6375.00,1.00
6374.00,1.00
6373.00,1.00
6372.00,1.00
6371.00,1.00
6370.00,1.00
6369.00,1.01
6368.00,1.01
6367.00,1.01
6366.00,1.01
6365.00,1.01
6364.00,1.01
6363.00,1.01
6362.00,1.01
6361.00,1.01
6360.00,1.01
6359.00,1.01
6358.00,1.01
6357.00,1.01
6356.00,1.01
6355.00,1.01
6354.00,1.01
6353.00,1.01
6352.00,1.01
6351.00,1.01
6350.00,1.02
6349.00,1.02
6348.00,1.02
6347.00,1.02
6346.00,1.02
6345.00,1.02
6344.00,1.02
6343.00,1.02
6342.00,1.02
6341.00,1.02
6340.00,1.02
6339.00,1.02
6338.00,1.02
6337.00,1.02
6336.00,1.02
6335.00,1.02
6334.00,1.02
6333.00,1.02
6332.00,1.03
6331.00,1.03
6330.00,1.03
6329.00,1.03
6328.00,1.03
6327.00,1.03
6326.00,1.03
6325.00,1.03
6324.00,1.03
6323.00,1.03
6322.00,1.03
6321.00,1.03
6320.00,1.03
6319.00,1.03
6318.00,1.03
6317.00,1.03
6316.00,1.03
6315.00,1.03
6314.00,1.03
6313.00,1.03
6312.00,1.04
6311.00,1.04
6310.00,1.04
6309.00,1.04
6308.00,1.04
6307.00,1.04
6306.00,1.04
6305.00,1.04
6304.00,1.04
6303.00,1.04
6302.00,1.05
6301.00,1.05
6300.00,1.05
6299.00,1.05
6298.00,1.05
6297.00,1.05
6296.00,1.05
6295.00,1.05
6294.00,1.05
6293.00,1.05
6292.00,1.05
6291.00,1.06
6290.00,1.06
6289.00,1.06
6288.00,1.06
6287.00,1.06
6286.00,1.06
6285.00,1.06
6284.00,1.06
6283.00,1.06
6282.00,1.06
6281.00,1.06
6280.00,1.06
6279.00,1.06
6278.00,1.06
6277.00,1.06
6276.00,1.06
6275.00,1.06
6274.00,1.06
6273.00,1.06
6272.00,1.06
6271.00,1.06
6270.00,1.07
6269.00,1.07
6268.00,1.07
6267.00,1.07
6266.00,1.07
6265.00,1.07
6264.00,1.07
6263.00,1.07
6262.00,1.07
6261.00,1.07
6260.00,1.07
6259.00,1.07
6258.00,1.08
6257.00,1.08
6256.00,1.08
6255.00,1.08
6254.00,1.08
6253.00,1.08
6252.00,1.09
6251.00,1.09
6250.00,1.09
6249.00,1.09
6248.00,1.09
6247.00,1.09
6246.00,1.09
6245.00,1.09
6244.00,1.09
6243.00,1.09
6242.00,1.09
6241.00,1.09
6240.00,1.09
6239.00,1.09
6238.00,1.10
6237.00,1.10
6236.00,1.10
6235.00,1.10
6234.00,1.10
6233.00,1.10
6232.00,1.10
6231.00,1.10
6230.00,1.10
6229.00,1.11
6228.00,1.11
6227.00,1.11
6226.00,1.11
6225.00,1.11
6224.00,1.11
6223.00,1.11
6222.00,1.12
6221.00,1.12
6220.00,1.12
6219.00,1.12
6218.00,1.12
6217.00,1.12
6216.00,1.12
6215.00,1.12
6214.00,1.12
6213.00,1.12
6212.00,1.12
6211.00,1.13
6210.00,1.13
6209.00,1.13
6208.00,1.13
6207.00,1.13
6206.00,1.13
6205.00,1.13
6204.00,1.13
6203.00,1.13
6202.00,1.13
6201.00,1.13
6200.00,1.13
6199.00,1.13
6198.00,1.13
6197.00,1.13
6196.00,1.13
6195.00,1.14
6194.00,1.14
6193.00,1.14
6192.00,1.14
6191.00,1.14
6190.00,1.14
6189.00,1.14
6188.00,1.14
6187.00,1.14
6186.00,1.14
6185.00,1.14
6184.00,1.14
6183.00,1.14
6182.00,1.14
6181.00,1.15
6180.00,1.15
6179.00,1.15
6178.00,1.15
6177.00,1.15
6176.00,1.15
6175.00,1.15
6174.00,1.15
6173.00,1.15
6172.00,1.16
6171.00,1.16
6170.00,1.16
6169.00,1.16
6168.00,1.16
6167.00,1.16
6166.00,1.16
6165.00,1.16
6164.00,1.16
6163.00,1.16
6162.00,1.16
6161.00,1.16
6160.00,1.16
6159.00,1.17
6158.00,1.17
6157.00,1.17
6156.00,1.17
6155.00,1.17
6154.00,1.17
6153.00,1.17
6152.00,1.17
6151.00,1.18
6150.00,1.18
6149.00,1.18
6148.00,1.18
6147.00,1.18
6146.00,1.18
6145.00,1.18
6144.00,1.19
6143.00,1.19
6142.00,1.19
6141.00,1.19
6140.00,1.19
6139.00,1.19
6138.00,1.19
6137.00,1.19
6136.00,1.19
6135.00,1.20
6134.00,1.20
6133.00,1.20
6132.00,1.20
6131.00,1.20
6130.00,1.20
6129.00,1.20
6128.00,1.20
6127.00,1.20
6126.00,1.20
6125.00,1.20
6124.00,1.21
6123.00,1.21
6122.00,1.21
6121.00,1.21
6120.00,1.21
6119.00,1.21
6118.00,1.21
6117.00,1.21
6116.00,1.21
6115.00,1.22
6114.00,1.22
6113.00,1.22
6112.00,1.22
6111.00,1.22
6110.00,1.22
6109.00,1.22
6108.00,1.22
6107.00,1.22
6106.00,1.22
6105.00,1.22
6104.00,1.22
6103.00,1.22
6102.00,1.22
6101.00,1.22
6100.00,1.22
6099.00,1.23
6098.00,1.23
6097.00,1.23
6096.00,1.23
6095.00,1.23
6094.00,1.23
6093.00,1.23
6092.00,1.23
6091.00,1.23
6090.00,1.23
6089.00,1.23
6088.00,1.23
6087.00,1.24
6086.00,1.24
6085.00,1.24
6084.00,1.24
6083.00,1.24
6082.00,1.24
6081.00,1.24
6080.00,1.24
6079.00,1.24
6078.00,1.24
6077.00,1.24
6076.00,1.24
6075.00,1.24
6074.00,1.24
6073.00,1.24
6072.00,1.24
6071.00,1.24
6070.00,1.24
6069.00,1.24
6068.00,1.24
6067.00,1.24
6066.00,1.25
6065.00,1.25
6064.00,1.25
6063.00,1.25
6062.00,1.25
6061.00,1.25
6060.00,1.25
6059.00,1.25
6058.00,1.25
6057.00,1.25
6056.00,1.25
6055.00,1.25
6054.00,1.26
6053.00,1.26
6052.00,1.26
6051.00,1.26
6050.00,1.26
6049.00,1.26
6048.00,1.26
6047.00,1.26
6046.00,1.26
6045.00,1.26
6044.00,1.26
6043.00,1.26
6042.00,1.26
6041.00,1.26
6040.00,1.26
6039.00,1.26
6038.00,1.26
6037.00,1.26
6036.00,1.26
6035.00,1.26
6034.00,1.26
6033.00,1.26
6032.00,1.26
6031.00,1.26
6030.00,1.26
6029.00,1.26
6028.00,1.27
6027.00,1.27
6026.00,1.27
6025.00,1.27
6024.00,1.27
6023.00,1.27
6022.00,1.27
6021.00,1.27
6020.00,1.27
6019.00,1.27
6018.00,1.27
6017.00,1.27
6016.00,1.27
6015.00,1.27
6014.00,1.27
6013.00,1.27
6012.00,1.27
6011.00,1.27
6010.00,1.27
6009.00,1.27
6008.00,1.27
6007.00,1.27
6006.00,1.27
6005.00,1.27
6004.00,1.27
6003.00,1.27
6002.00,1.27
6001.00,1.27
6000.00,1.27
5999.00,1.27
5998.00,1.27
5997.00,1.26
5996.00,1.26
5995.00,1.26
5994.00,1.26
5993.00,1.26
5992.00,1.26
5991.00,1.26
5990.00,1.26
5989.00,1.26
5988.00,1.26
5987.00,1.26
5986.00,1.26
5985.00,1.26
5984.00,1.25
5983.00,1.25
5982.00,1.25
5981.00,1.25
5980.00,1.24
5979.00,1.24
5978.00,1.24
5977.00,1.23
5976.00,1.23
5975.00,1.23
5974.00,1.22
5973.00,1.22
5972.00,1.21
5971.00,1.21
5970.00,1.21
5969.00,1.20
5968.00,1.20
5967.00,1.19
5966.00,1.19
5965.00,1.18
5964.00,1.18
5963.00,1.17
5962.00,1.16
5961.00,1.16
5960.00,1.15
5959.00,1.15
5958.00,1.14
5957.00,1.14
5956.00,1.13
5955.00,1.13
5954.00,1.12
5953.00,1.11
5952.00,1.11
5951.00,1.10
5950.00,1.10
5949.00,1.09
5948.00,1.09
5947.00,1.09
5946.00,1.08
5945.00,1.08
5944.00,1.07
5943.00,1.07
5942.00,1.07
5941.00,1.07
5940.00,1.06
5939.00,1.06
5938.00,1.06
5937.00,1.06
5936.00,1.06
5935.00,1.06
5934.00,1.05
5933.00,1.05
5932.00,1.05
5931.00,1.05
5930.00,1.05
5929.00,1.05
5928.00,1.05
5927.00,1.05
5926.00,1.05
5925.00,1.05
5924.00,1.05
5923.00,1.05
5922.00,1.05
5921.00,1.04
5920.00,1.04
5919.00,1.04
5918.00,1.04
5917.00,1.04
5916.00,1.04
5915.00,1.03
5914.00,1.03
5913.00,1.03
5912.00,1.03
5911.00,1.03
5910.00,1.02
5909.00,1.02
5908.00,1.02
5907.00,1.02
5906.00,1.02
5905.00,1.02
5904.00,1.01
5903.00,1.01
5902.00,1.01
5901.00,1.01
5900.00,1.01
5899.00,1.01
5898.00,1.01
5897.00,1.01
5896.00,1.02
5895.00,1.02
5894.00,1.02
5893.00,1.02
5892.00,1.02
5891.00,1.02
5890.00,1.02
5889.00,1.03
5888.00,1.03
5887.00,1.03
5886.00,1.03
5885.00,1.04
5884.00,1.04
5883.00,1.04
5882.00,1.04
5881.00,1.04
5880.00,1.05
5879.00,1.05
5878.00,1.05
5877.00,1.05
5876.00,1.06
5875.00,1.06
5874.00,1.06
5873.00,1.06
5872.00,1.06
5871.00,1.06
5870.00,1.07
5869.00,1.07
5868.00,1.07
5867.00,1.07
5866.00,1.07
5865.00,1.07
5864.00,1.08
5863.00,1.08
5862.00,1.08
5861.00,1.08
5860.00,1.08
5859.00,1.08
5858.00,1.08
5857.00,1.08
5856.00,1.09
5855.00,1.09
5854.00,1.09
5853.00,1.09
5852.00,1.09
5851.00,1.09
5850.00,1.09
5849.00,1.09
5848.00,1.09
5847.00,1.09
5846.00,1.09
5845.00,1.09
5844.00,1.09
5843.00,1.09
5842.00,1.09
5841.00,1.09
5840.00,1.09
5839.00,1.09
5838.00,1.09
5837.00,1.09
5836.00,1.09
5835.00,1.09
5834.00,1.09
5833.00,1.09
5832.00,1.09
5831.00,1.09
5830.00,1.09
5829.00,1.09
5828.00,1.09
5827.00,1.09
5826.00,1.09
5825.00,1.09
5824.00,1.09
5823.00,1.09
5822.00,1.09
5821.00,1.09
5820.00,1.09
5819.00,1.09
5818.00,1.09
5817.00,1.09
5816.00,1.09
5815.00,1.09
5814.00,1.09
5813.00,1.09
5812.00,1.09
5811.00,1.09
5810.00,1.09
5809.00,1.09
5808.00,1.09
5807.00,1.09
5806.00,1.09
5805.00,1.09
5804.00,1.09
5803.00,1.09
5802.00,1.09
5801.00,1.09
5800.00,1.09
5799.00,1.09
5798.00,1.09
5797.00,1.09
5796.00,1.09
5795.00,1.09
5794.00,1.08
5793.00,1.08
5792.00,1.08
5791.00,1.08
5790.00,1.08
5789.00,1.07
5788.00,1.07
5787.00,1.07
5786.00,1.07
5785.00,1.07
5784.00,1.06
5783.00,1.06
5782.00,1.06
5781.00,1.06
5780.00,1.06
5779.00,1.06
5778.00,1.05
5777.00,1.05
5776.00,1.05
5775.00,1.05
5774.00,1.05
5773.00,1.05
5772.00,1.05
5771.00,1.05
5770.00,1.05
5769.00,1.05
5768.00,1.05
5767.00,1.06
5766.00,1.06
5765.00,1.06
5764.00,1.06
5763.00,1.06
5762.00,1.06
5761.00,1.06
5760.00,1.07
5759.00,1.07
5758.00,1.07
5757.00,1.07
5756.00,1.08
5755.00,1.08
5754.00,1.08
5753.00,1.08
5752.00,1.09
5751.00,1.09
5750.00,1.09
5749.00,1.09
5748.00,1.10
5747.00,1.10
5746.00,1.10
5745.00,1.10
5744.00,1.11
5743.00,1.11
5742.00,1.11
5741.00,1.11
5740.00,1.11
5739.00,1.12
5738.00,1.12
5737.00,1.12
5736.00,1.12
5735.00,1.12
5734.00,1.13
5733.00,1.13
5732.00,1.13
5731.00,1.13
5730.00,1.13
5729.00,1.13
5728.00,1.14
5727.00,1.14
5726.00,1.14
5725.00,1.14
5724.00,1.14
5723.00,1.14
5722.00,1.15
5721.00,1.15
5720.00,1.15
5719.00,1.15
5718.00,1.15
5717.00,1.15
5716.00,1.15
5715.00,1.15
5714.00,1.15
5713.00,1.15
5712.00,1.15
5711.00,1.15
5710.00,1.15
5709.00,1.15
5708.00,1.15
5707.00,1.15
5706.00,1.15
5705.00,1.15
5704.00,1.14
5703.00,1.14
5702.00,1.14
5701.00,1.14
5700.00,1.14
5699.00,1.14
5698.00,1.14
5697.00,1.14
5696.00,1.14
5695.00,1.14
5694.00,1.14
5693.00,1.13
5692.00,1.13
5691.00,1.13
5690.00,1.13
5689.00,1.13
5688.00,1.13
5687.00,1.13
5686.00,1.12
5685.00,1.12
5684.00,1.12
5683.00,1.12
5682.00,1.12
5681.00,1.12
5680.00,1.12
5679.00,1.12
5678.00,1.12
5677.00,1.12
5676.00,1.12
5675.00,1.12
5674.00,1.12
5673.00,1.12
5672.00,1.12
5671.00,1.12
5670.00,1.12
5669.00,1.12
5668.00,1.12
5667.00,1.12
5666.00,1.12
5665.00,1.12
5664.00,1.12
5663.00,1.12
5662.00,1.13
5661.00,1.13
5660.00,1.13
5659.00,1.13
5658.00,1.13
5657.00,1.13
5656.00,1.13
5655.00,1.13
5654.00,1.13
5653.00,1.14
5652.00,1.14
5651.00,1.14
5650.00,1.14
5649.00,1.14
5648.00,1.14
5647.00,1.15
5646.00,1.15
5645.00,1.15
5644.00,1.15
5643.00,1.15
5642.00,1.16
5641.00,1.16
5640.00,1.16
5639.00,1.16
5638.00,1.16
5637.00,1.16
5636.00,1.17
5635.00,1.17
5634.00,1.17
5633.00,1.17
5632.00,1.17
5631.00,1.17
5630.00,1.17
5629.00,1.18
5628.00,1.18
5627.00,1.18
5626.00,1.18
5625.00,1.18
5624.00,1.18
5623.00,1.18
5622.00,1.18
5621.00,1.19
5620.00,1.19
5619.00,1.19
5618.00,1.19
5617.00,1.19
5616.00,1.19
5615.00,1.19
5614.00,1.20
5613.00,1.20
5612.00,1.20
5611.00,1.20
5610.00,1.20
5609.00,1.20
5608.00,1.20
5607.00,1.20
5606.00,1.21
5605.00,1.21
5604.00,1.21
5603.00,1.21
5602.00,1.21
5601.00,1.21
5600.00,1.21
5599.00,1.21
5598.00,1.21
5597.00,1.22
5596.00,1.22
5595.00,1.22
5594.00,1.22
5593.00,1.22
5592.00,1.22
5591.00,1.22
5590.00,1.22
5589.00,1.22
5588.00,1.23
5587.00,1.23
5586.00,1.23
5585.00,1.23
5584.00,1.23
5583.00,1.23
5582.00,1.23
5581.00,1.23
5580.00,1.23
5579.00,1.23
5578.00,1.24
5577.00,1.24
5576.00,1.24
5575.00,1.24
5574.00,1.24
5573.00,1.24
5572.00,1.24
5571.00,1.24
5570.00,1.24
5569.00,1.24
5568.00,1.25
5567.00,1.25
5566.00,1.25
5565.00,1.25
5564.00,1.25
5563.00,1.25
5562.00,1.25
5561.00,1.25
5560.00,1.25
5559.00,1.25
5558.00,1.25
5557.00,1.25
5556.00,1.25
5555.00,1.26
5554.00,1.26
5553.00,1.26
5552.00,1.26
5551.00,1.26
5550.00,1.26
5549.00,1.26
5548.00,1.26
5547.00,1.26
5546.00,1.26
5545.00,1.26
5544.00,1.26
5543.00,1.26
5542.00,1.27
5541.00,1.27
5540.00,1.27
5539.00,1.27
5538.00,1.27
5537.00,1.27
5536.00,1.27
5535.00,1.27
5534.00,1.27
5533.00,1.28
5532.00,1.28
5531.00,1.28
5530.00,1.28
5529.00,1.28
5528.00,1.28
5527.00,1.28
5526.00,1.28
5525.00,1.28
5524.00,1.28
5523.00,1.28
5522.00,1.28
5521.00,1.29
5520.00,1.29
5519.00,1.29
5518.00,1.29
5517.00,1.29
5516.00,1.29
5515.00,1.29
5514.00,1.29
5513.00,1.29
5512.00,1.29
5511.00,1.29
5510.00,1.29
5509.00,1.29
5508.00,1.29
5507.00,1.29
5506.00,1.29
5505.00,1.29
5504.00,1.29
5503.00,1.29
5502.00,1.29
5501.00,1.29
5500.00,1.29
5499.00,1.29
5498.00,1.29
5497.00,1.29
5496.00,1.29
5495.00,1.29
5494.00,1.29
5493.00,1.29
5492.00,1.29
5491.00,1.29
5490.00,1.29
5489.00,1.29
5488.00,1.29
5487.00,1.30
5486.00,1.30
5485.00,1.30
5484.00,1.30
5483.00,1.30
5482.00,1.30
5481.00,1.30
5480.00,1.30
5479.00,1.31
5478.00,1.31
5477.00,1.31
5476.00,1.31
5475.00,1.31
5474.00,1.31
5473.00,1.31
5472.00,1.31
5471.00,1.31
5470.00,1.31
5469.00,1.31
5468.00,1.31
5467.00,1.31
5466.00,1.31
5465.00,1.31
5464.00,1.31
5463.00,1.31
5462.00,1.31
5461.00,1.32
5460.00,1.32
5459.00,1.32
5458.00,1.32
5457.00,1.32
5456.00,1.32
5455.00,1.32
5454.00,1.32
5453.00,1.32
5452.00,1.32
5451.00,1.32
5450.00,1.32
5449.00,1.32
5448.00,1.32
5447.00,1.32
5446.00,1.32
5445.00,1.32
5444.00,1.32
5443.00,1.32
5442.00,1.32
5441.00,1.32
5440.00,1.32
5439.00,1.32
5438.00,1.32
5437.00,1.32
5436.00,1.32
5435.00,1.32
5434.00,1.32
5433.00,1.33
5432.00,1.33
5431.00,1.33
5430.00,1.33
5429.00,1.33
5428.00,1.33
5427.00,1.33
5426.00,1.33
5425.00,1.33
5424.00,1.33
5423.00,1.33
5422.00,1.33
5421.00,1.33
5420.00,1.33
5419.00,1.33
5418.00,1.33
5417.00,1.33
5416.00,1.33
5415.00,1.33
5414.00,1.33
5413.00,1.33
5412.00,1.33
5411.00,1.33
5410.00,1.33
5409.00,1.33
5408.00,1.33
5407.00,1.33
5406.00,1.33
5405.00,1.33
5404.00,1.33
5403.00,1.33
5402.00,1.33
5401.00,1.33
5400.00,1.33
5399.00,1.33
5398.00,1.33
5397.00,1.33
5396.00,1.33
5395.00,1.33
5394.00,1.33
5393.00,1.33
5392.00,1.33
5391.00,1.33
5390.00,1.33
5389.00,1.33
5388.00,1.33
5387.00,1.33
5386.00,1.32
5385.00,1.32
5384.00,1.32
5383.00,1.32
5382.00,1.32
5381.00,1.32
5380.00,1.32
5379.00,1.32
5378.00,1.32
5377.00,1.31
5376.00,1.31
5375.00,1.31
5374.00,1.31
5373.00,1.31
5372.00,1.30
5371.00,1.30
5370.00,1.30
5369.00,1.30
5368.00,1.30
5367.00,1.29
5366.00,1.29
5365.00,1.29
5364.00,1.28
5363.00,1.28
5362.00,1.28
5361.00,1.27
5360.00,1.27
5359.00,1.27
5358.00,1.26
5357.00,1.26
5356.00,1.25
5355.00,1.25
5354.00,1.24
5353.00,1.24
5352.00,1.23
5351.00,1.23
5350.00,1.22
5349.00,1.22
5348.00,1.21
5347.00,1.21
5346.00,1.20
5345.00,1.19
5344.00,1.19
5343.00,1.18
5342.00,1.18
5341.00,1.17
5340.00,1.16
5339.00,1.15
5338.00,1.15
5337.00,1.14
5336.00,1.13
5335.00,1.12
5334.00,1.11
5333.00,1.11
5332.00,1.10
5331.00,1.09
5330.00,1.08
5329.00,1.07
5328.00,1.06
5327.00,1.05
5326.00,1.04
5325.00,1.03
5324.00,1.02
5323.00,1.01
5322.00,1.00
5321.00,0.99
5320.00,0.98
5319.00,0.97
5318.00,0.96
5317.00,0.95
5316.00,0.94
5315.00,0.93
5314.00,0.92
5313.00,0.91
5312.00,0.90
5311.00,0.89
5310.00,0.88
5309.00,0.87
5308.00,0.86
5307.00,0.85
5306.00,0.84
5305.00,0.83
5304.00,0.82
5303.00,0.81
5302.00,0.80
5301.00,0.79
5300.00,0.78
5299.00,0.78
5298.00,0.77
5297.00,0.76
5296.00,0.76
5295.00,0.75
5294.00,0.74
5293.00,0.74
5292.00,0.73
5291.00,0.73
5290.00,0.72
5289.00,0.71
5288.00,0.71
5287.00,0.70
5286.00,0.70
5285.00,0.69
5284.00,0.69
5283.00,0.69
5282.00,0.68
5281.00,0.68
5280.00,0.67
5279.00,0.67
5278.00,0.66
5277.00,0.66
5276.00,0.66
5275.00,0.65
5274.00,0.65
5273.00,0.65
5272.00,0.64
5271.00,0.64
5270.00,0.64
5269.00,0.63
5268.00,0.63
5267.00,0.63
5266.00,0.62
5265.00,0.62
5264.00,0.62
5263.00,0.61
5262.00,0.61
5261.00,0.61
5260.00,0.61
5259.00,0.60
5258.00,0.60
5257.00,0.60
5256.00,0.60
5255.00,0.59
5254.00,0.59
5253.00,0.59
5252.00,0.59
5251.00,0.58
5250.00,0.58
5249.00,0.58
5248.00,0.58
5247.00,0.58
5246.00,0.57
5245.00,0.57
5244.00,0.57
5243.00,0.57
5242.00,0.57
5241.00,0.57
5240.00,0.57
5239.00,0.57
5238.00,0.56
5237.00,0.56
5236.00,0.56
5235.00,0.56
5234.00,0.56
5233.00,0.56
5232.00,0.56
5231.00,0.56
5230.00,0.56
5229.00,0.56
5228.00,0.56
5227.00,0.56
5226.00,0.56
5225.00,0.56
5224.00,0.55
5223.00,0.55
5222.00,0.55
5221.00,0.55
5220.00,0.55
5219.00,0.55
5218.00,0.55
5217.00,0.55
5216.00,0.55
5215.00,0.55
5214.00,0.55
5213.00,0.55
5212.00,0.55
5211.00,0.55
5210.00,0.55
5209.00,0.55
5208.00,0.55
5207.00,0.55
5206.00,0.55
5205.00,0.55
5204.00,0.55
5203.00,0.55
5202.00,0.55
5201.00,0.55
5200.00,0.55
5199.00,0.55
5198.00,0.55
5197.00,0.55
5196.00,0.55
5195.00,0.55
5194.00,0.55
5193.00,0.55
5192.00,0.55
5191.00,0.55
5190.00,0.55
5189.00,0.55
5188.00,0.55
5187.00,0.55
5186.00,0.55
5185.00,0.55
5184.00,0.55
5183.00,0.55
5182.00,0.55
5181.00,0.55
5180.00,0.55
5179.00,0.55
5178.00,0.55
5177.00,0.55
5176.00,0.55
5175.00,0.55
5174.00,0.55
5173.00,0.55
5172.00,0.55
5171.00,0.55
5170.00,0.55
5169.00,0.55
5168.00,0.55
5167.00,0.55
5166.00,0.55
5165.00,0.55
5164.00,0.55
5163.00,0.55
5162.00,0.55
5161.00,0.55
5160.00,0.55
5159.00,0.56
5158.00,0.56
5157.00,0.56
5156.00,0.56
5155.00,0.56
5154.00,0.56
5153.00,0.56
5152.00,0.56
5151.00,0.56
5150.00,0.56
5149.00,0.56
5148.00,0.56
5147.00,0.56
5146.00,0.56
5145.00,0.57
5144.00,0.57
5143.00,0.57
5142.00,0.57
5141.00,0.57
5140.00,0.57
5139.00,0.57
5138.00,0.57
5137.00,0.57
5136.00,0.57
5135.00,0.57
5134.00,0.57
5133.00,0.57
5132.00,0.57
5131.00,0.57
5130.00,0.57
5129.00,0.57
5128.00,0.57
5127.00,0.57
5126.00,0.57
5125.00,0.57
5124.00,0.57
5123.00,0.57
5122.00,0.57
5121.00,0.57
5120.00,0.57
5119.00,0.58
5118.00,0.58
5117.00,0.58
5116.00,0.58
5115.00,0.58
5114.00,0.58
5113.00,0.58
5112.00,0.58
5111.00,0.59
5110.00,0.59
5109.00,0.59
5108.00,0.59
5107.00,0.59
5106.00,0.59
5105.00,0.60
5104.00,0.60
5103.00,0.60
5102.00,0.60
5101.00,0.60
5100.00,0.60
5099.00,0.60
5098.00,0.60
5097.00,0.61
5096.00,0.61
5095.00,0.61
5094.00,0.61
5093.00,0.61
5092.00,0.61
5091.00,0.61
5090.00,0.61
5089.00,0.62
5088.00,0.62
5087.00,0.62
5086.00,0.62
5085.00,0.62
5084.00,0.62
5083.00,0.62
5082.00,0.62
5081.00,0.62
5080.00,0.62
5079.00,0.62
5078.00,0.62
5077.00,0.63
5076.00,0.63
5075.00,0.63
5074.00,0.63
5073.00,0.63
5072.00,0.63
5071.00,0.63
5070.00,0.63
5069.00,0.63
5068.00,0.64
5067.00,0.64
5066.00,0.64
5065.00,0.64
5064.00,0.64
5063.00,0.65
5062.00,0.65
5061.00,0.65
5060.00,0.65
5059.00,0.65
5058.00,0.66
5057.00,0.66
5056.00,0.66
5055.00,0.66
5054.00,0.66
5053.00,0.67
5052.00,0.67
5051.00,0.67
5050.00,0.67
5049.00,0.67
5048.00,0.67
5047.00,0.68
5046.00,0.68
5045.00,0.68
5044.00,0.68
5043.00,0.68
5042.00,0.68
5041.00,0.68
5040.00,0.68
5039.00,0.68
5038.00,0.68
5037.00,0.69
5036.00,0.69
5035.00,0.69
5034.00,0.69
5033.00,0.69
5032.00,0.69
5031.00,0.69
5030.00,0.69
5029.00,0.70
5028.00,0.70
5027.00,0.70
5026.00,0.70
5025.00,0.70
5024.00,0.71
5023.00,0.71
5022.00,0.71
5021.00,0.71
5020.00,0.71
5019.00,0.72
5018.00,0.72
5017.00,0.72
5016.00,0.72
5015.00,0.72
5014.00,0.72
5013.00,0.72
5012.00,0.73
5011.00,0.73
5010.00,0.73
5009.00,0.73
5008.00,0.73
5007.00,0.73
5006.00,0.73
5005.00,0.74
5004.00,0.74
5003.00,0.74
5002.00,0.74
5001.00,0.74
5000.00,0.75
4999.00,0.75
4998.00,0.75
4997.00,0.75
4996.00,0.75
4995.00,0.76
4994.00,0.76
4993.00,0.76
4992.00,0.76
4991.00,0.77
4990.00,0.77
4989.00,0.77
4988.00,0.77
4987.00,0.78
4986.00,0.78
4985.00,0.78
4984.00,0.78
4983.00,0.79
4982.00,0.79
4981.00,0.79
4980.00,0.79
4979.00,0.79
4978.00,0.79
4977.00,0.79
4976.00,0.80
4975.00,0.80
4974.00,0.80
4973.00,0.80
4972.00,0.80
4971.00,0.80
4970.00,0.80
4969.00,0.80
4968.00,0.80
4967.00,0.80
4966.00,0.80
4965.00,0.80
4964.00,0.80
4963.00,0.81
4962.00,0.81
4961.00,0.81
4960.00,0.81
4959.00,0.81
4958.00,0.81
4957.00,0.81
4956.00,0.81
4955.00,0.81
4954.00,0.81
4953.00,0.81
4952.00,0.81
4951.00,0.81
4950.00,0.82
4949.00,0.82
4948.00,0.82
4947.00,0.82
4946.00,0.82
4945.00,0.82
4944.00,0.82
4943.00,0.82
4942.00,0.82
4941.00,0.82
4940.00,0.83
4939.00,0.83
4938.00,0.83
4937.00,0.83
4936.00,0.83
4935.00,0.83
4934.00,0.83
4933.00,0.83
4932.00,0.84
4931.00,0.84
4930.00,0.84
4929.00,0.84
4928.00,0.84
4927.00,0.84
4926.00,0.84
4925.00,0.84
4924.00,0.84
4923.00,0.84
4922.00,0.84
4921.00,0.84
4920.00,0.84
4919.00,0.84
4918.00,0.84
4917.00,0.85
4916.00,0.85
4915.00,0.85
4914.00,0.85
4913.00,0.85
4912.00,0.85
4911.00,0.85
4910.00,0.85
4909.00,0.85
4908.00,0.85
4907.00,0.85
4906.00,0.85
4905.00,0.85
4904.00,0.85
4903.00,0.85
4902.00,0.85
4901.00,0.85
4900.00,0.85
4899.00,0.85
4898.00,0.85
4897.00,0.85
4896.00,0.85
4895.00,0.85
4894.00,0.85
4893.00,0.85
4892.00,0.85
4891.00,0.85
4890.00,0.85
4889.00,0.85
4888.00,0.85
4887.00,0.85
4886.00,0.85
4885.00,0.86
4884.00,0.86
4883.00,0.86
4882.00,0.86
4881.00,0.86
4880.00,0.86
4879.00,0.86
4878.00,0.86
4877.00,0.86
4876.00,0.86
4875.00,0.87
4874.00,0.87
4873.00,0.87
4872.00,0.87
4871.00,0.87
4870.00,0.87
4869.00,0.87
4868.00,0.87
4867.00,0.87
4866.00,0.87
4865.00,0.87
4864.00,0.87
4863.00,0.87
4862.00,0.87
4861.00,0.87
4860.00,0.87
4859.00,0.87
4858.00,0.87
4857.00,0.86
4856.00,0.86
4855.00,0.86
4854.00,0.86
4853.00,0.86
4852.00,0.86
4851.00,0.86
4850.00,0.86
4849.00,0.86
4848.00,0.86
4847.00,0.87
4846.00,0.87
4845.00,0.87
4844.00,0.87
4843.00,0.87
4842.00,0.87
4841.00,0.87
4840.00,0.87
4839.00,0.87
4838.00,0.87
4837.00,0.87
4836.00,0.87
4835.00,0.88
4834.00,0.88
4833.00,0.88
4832.00,0.88
4831.00,0.88
4830.00,0.88
4829.00,0.88
4828.00,0.88
4827.00,0.89
4826.00,0.89
4825.00,0.89
4824.00,0.89
4823.00,0.89
4822.00,0.89
4821.00,0.89
4820.00,0.89
4819.00,0.90
4818.00,0.90
4817.00,0.90
4816.00,0.90
4815.00,0.90
4814.00,0.90
4813.00,0.90
4812.00,0.90
4811.00,0.91
4810.00,0.91
4809.00,0.91
4808.00,0.91
4807.00,0.91
4806.00,0.91
4805.00,0.91
4804.00,0.91
4803.00,0.92
4802.00,0.92
4801.00,0.92
4800.00,0.92
4799.00,0.92
4798.00,0.92
4797.00,0.92
4796.00,0.93
4795.00,0.93
4794.00,0.93
4793.00,0.93
4792.00,0.93
4791.00,0.93
4790.00,0.94
4789.00,0.94
4788.00,0.94
4787.00,0.94
4786.00,0.94
4785.00,0.94
4784.00,0.95
4783.00,0.95
4782.00,0.95
4781.00,0.95
4780.00,0.95
4779.00,0.96
4778.00,0.96
4777.00,0.96
4776.00,0.96
4775.00,0.96
4774.00,0.97
4773.00,0.97
4772.00,0.97
4771.00,0.97
4770.00,0.97
4769.00,0.97
4768.00,0.98
4767.00,0.98
4766.00,0.98
4765.00,0.98
4764.00,0.98
4763.00,0.98
4762.00,0.98
4761.00,0.98
4760.00,0.98
4759.00,0.99
4758.00,0.99
4757.00,0.99
4756.00,0.99
4755.00,0.99
4754.00,0.99
4753.00,1.00
4752.00,1.00
4751.00,1.00
4750.00,1.00
4749.00,1.00
4748.00,1.01
4747.00,1.01
4746.00,1.01
4745.00,1.01
4744.00,1.01
4743.00,1.02
4742.00,1.02
4741.00,1.02
4740.00,1.02
4739.00,1.02
4738.00,1.03
4737.00,1.03
4736.00,1.03
4735.00,1.03
4734.00,1.03
4733.00,1.04
4732.00,1.04
4731.00,1.04
4730.00,1.04
4729.00,1.04
4728.00,1.05
4727.00,1.05
4726.00,1.05
4725.00,1.05
4724.00,1.05
4723.00,1.05
4722.00,1.06
4721.00,1.06
4720.00,1.06
4719.00,1.06
4718.00,1.07
4717.00,1.07
4716.00,1.07
4715.00,1.07
4714.00,1.08
4713.00,1.08
4712.00,1.08
4711.00,1.08
4710.00,1.09
4709.00,1.09
4708.00,1.09
4707.00,1.09
4706.00,1.10
4705.00,1.10
4704.00,1.10
4703.00,1.11
4702.00,1.11
4701.00,1.11
4700.00,1.11
4699.00,1.12
4698.00,1.12
4697.00,1.12
4696.00,1.12
4695.00,1.13
4694.00,1.13
4693.00,1.13
4692.00,1.13
4691.00,1.13
4690.00,1.14
4689.00,1.14
4688.00,1.14
4687.00,1.14
4686.00,1.14
4685.00,1.15
4684.00,1.15
4683.00,1.15
4682.00,1.15
4681.00,1.15
4680.00,1.16
4679.00,1.16
4678.00,1.16
4677.00,1.16
4676.00,1.16
4675.00,1.16
4674.00,1.17
4673.00,1.17
4672.00,1.17
4671.00,1.17
4670.00,1.17
4669.00,1.18
4668.00,1.18
4667.00,1.18
4666.00,1.18
4665.00,1.18
4664.00,1.18
4663.00,1.18
4662.00,1.19
4661.00,1.19
4660.00,1.19
4659.00,1.19
4658.00,1.19
4657.00,1.19
4656.00,1.19
4655.00,1.20
4654.00,1.20
4653.00,1.20
4652.00,1.20
4651.00,1.20
4650.00,1.20
4649.00,1.20
4648.00,1.21
4647.00,1.21
4646.00,1.21
4645.00,1.21
4644.00,1.21
4643.00,1.22
4642.00,1.22
4641.00,1.22
4640.00,1.22
4639.00,1.22
4638.00,1.22
4637.00,1.23
4636.00,1.23
4635.00,1.23
4634.00,1.23
4633.00,1.23
4632.00,1.23
4631.00,1.23
4630.00,1.24
4629.00,1.24
4628.00,1.24
4627.00,1.24
4626.00,1.24
4625.00,1.24
4624.00,1.24
4623.00,1.24
4622.00,1.24
4621.00,1.24
4620.00,1.25
4619.00,1.25
4618.00,1.25
4617.00,1.25
4616.00,1.25
4615.00,1.25
4614.00,1.25
4613.00,1.25
4612.00,1.25
4611.00,1.25
4610.00,1.26
4609.00,1.26
4608.00,1.26
4607.00,1.26
4606.00,1.26
4605.00,1.26
4604.00,1.26
4603.00,1.26
4602.00,1.26
4601.00,1.26
4600.00,1.26
4599.00,1.26
4598.00,1.27
4597.00,1.27
4596.00,1.27
4595.00,1.27
4594.00,1.27
4593.00,1.27
4592.00,1.27
4591.00,1.27
4590.00,1.27
4589.00,1.27
4588.00,1.28
4587.00,1.28
4586.00,1.28
4585.00,1.28
4584.00,1.28
4583.00,1.28
4582.00,1.28
4581.00,1.28
4580.00,1.28
4579.00,1.29
4578.00,1.29
4577.00,1.29
4576.00,1.29
4575.00,1.29
4574.00,1.29
4573.00,1.29
4572.00,1.29
4571.00,1.30
4570.00,1.30
4569.00,1.30
4568.00,1.30
4567.00,1.30
4566.00,1.30
4565.00,1.30
4564.00,1.30
4563.00,1.30
4562.00,1.30
4561.00,1.30
4560.00,1.30
4559.00,1.30
4558.00,1.30
4557.00,1.30
4556.00,1.30
4555.00,1.30
4554.00,1.30
4553.00,1.30
4552.00,1.30
4551.00,1.30
4550.00,1.30
4549.00,1.30
4548.00,1.30
4547.00,1.30
4546.00,1.31
4545.00,1.31
4544.00,1.31
4543.00,1.31
4542.00,1.31
4541.00,1.31
4540.00,1.31
4539.00,1.31
4538.00,1.31
4537.00,1.32
4536.00,1.32
4535.00,1.32
4534.00,1.32
4533.00,1.32
4532.00,1.32
4531.00,1.32
4530.00,1.32
4529.00,1.32
4528.00,1.33
4527.00,1.33
4526.00,1.33
4525.00,1.33
4524.00,1.33
4523.00,1.33
4522.00,1.33
4521.00,1.33
4520.00,1.33
4519.00,1.33
4518.00,1.33
4517.00,1.33
4516.00,1.33
4515.00,1.33
4514.00,1.33
4513.00,1.33
4512.00,1.33
4511.00,1.33
4510.00,1.33
4509.00,1.33
4508.00,1.33
4507.00,1.33
4506.00,1.33
4505.00,1.33
4504.00,1.33
4503.00,1.33
4502.00,1.33
4501.00,1.33
4500.00,1.33
4499.00,1.33
4498.00,1.33
4497.00,1.33
4496.00,1.33
4495.00,1.33
4494.00,1.33
4493.00,1.33
4492.00,1.33
4491.00,1.32
4490.00,1.32
4489.00,1.32
4488.00,1.32
4487.00,1.32
4486.00,1.32
4485.00,1.32
4484.00,1.31
4483.00,1.31
4482.00,1.31
4481.00,1.31
4480.00,1.30
4479.00,1.30
4478.00,1.30
4477.00,1.30
4476.00,1.29
4475.00,1.29
4474.00,1.29
4473.00,1.29
4472.00,1.28
4471.00,1.28
4470.00,1.28
4469.00,1.27
4468.00,1.27
4467.00,1.27
4466.00,1.26
4465.00,1.26
4464.00,1.26
4463.00,1.25
4462.00,1.25
4461.00,1.25
4460.00,1.24
4459.00,1.24
4458.00,1.23
4457.00,1.23
4456.00,1.22
4455.00,1.22
4454.00,1.21
4453.00,1.21
4452.00,1.20
4451.00,1.19
4450.00,1.19
4449.00,1.18
4448.00,1.17
4447.00,1.17
4446.00,1.16
4445.00,1.15
4444.00,1.15
4443.00,1.14
4442.00,1.13
4441.00,1.12
4440.00,1.11
4439.00,1.10
4438.00,1.09
4437.00,1.09
4436.00,1.08
4435.00,1.07
4434.00,1.06
4433.00,1.05
4432.00,1.04
4431.00,1.03
4430.00,1.02
4429.00,1.01
4428.00,1.00
4427.00,0.99
4426.00,0.99
4425.00,0.98
4424.00,0.97
4423.00,0.97
4422.00,0.96
4421.00,0.96
4420.00,0.95
4419.00,0.95
4418.00,0.94
4417.00,0.94
4416.00,0.94
4415.00,0.94
4414.00,0.94
4413.00,0.94
4412.00,0.93
4411.00,0.93
4410.00,0.93
4409.00,0.93
4408.00,0.94
4407.00,0.94
4406.00,0.94
4405.00,0.94
4404.00,0.94
4403.00,0.94
4402.00,0.94
4401.00,0.94
4400.00,0.94
4399.00,0.94
4398.00,0.95
4397.00,0.95
4396.00,0.95
4395.00,0.95
4394.00,0.95
4393.00,0.95
4392.00,0.96
4391.00,0.96
4390.00,0.96
4389.00,0.96
4388.00,0.96
4387.00,0.97
4386.00,0.97
4385.00,0.97
4384.00,0.98
4383.00,0.98
4382.00,0.98
4381.00,0.99
4380.00,0.99
4379.00,0.99
4378.00,1.00
4377.00,1.00
4376.00,1.00
4375.00,1.01
4374.00,1.01
4373.00,1.01
4372.00,1.01
4371.00,1.02
4370.00,1.02
4369.00,1.02
4368.00,1.02
4367.00,1.02
4366.00,1.02
4365.00,1.02
4364.00,1.02
4363.00,1.02
4362.00,1.02
4361.00,1.02
4360.00,1.01
4359.00,1.01
4358.00,1.01
4357.00,1.01
4356.00,1.00
4355.00,1.00
4354.00,1.00
4353.00,1.00
4352.00,0.99
4351.00,0.99
4350.00,0.99
4349.00,0.99
4348.00,0.98
4347.00,0.98
4346.00,0.98
4345.00,0.98
4344.00,0.98
4343.00,0.98
4342.00,0.98
4341.00,0.98
4340.00,0.98
4339.00,0.98
4338.00,0.98
4337.00,0.98
4336.00,0.98
4335.00,0.98
4334.00,0.98
4333.00,0.98
4332.00,0.99
4331.00,0.99
4330.00,0.99
4329.00,0.99
4328.00,1.00
4327.00,1.00
4326.00,1.00
4325.00,1.01
4324.00,1.01
4323.00,1.02
4322.00,1.02
4321.00,1.02
4320.00,1.03
4319.00,1.03
4318.00,1.04
4317.00,1.05
4316.00,1.05
4315.00,1.06
4314.00,1.06
4313.00,1.07
4312.00,1.07
4311.00,1.08
4310.00,1.08
4309.00,1.09
4308.00,1.10
4307.00,1.10
4306.00,1.11
4305.00,1.11
4304.00,1.12
4303.00,1.12
4302.00,1.13
4301.00,1.13
4300.00,1.14
4299.00,1.14
4298.00,1.15
4297.00,1.15
4296.00,1.16
4295.00,1.16
4294.00,1.16
4293.00,1.17
4292.00,1.17
4291.00,1.18
4290.00,1.18
4289.00,1.18
4288.00,1.18
4287.00,1.19
4286.00,1.19
4285.00,1.19
4284.00,1.19
4283.00,1.19
4282.00,1.19
4281.00,1.20
4280.00,1.20
4279.00,1.20
4278.00,1.20
4277.00,1.20
4276.00,1.19
4275.00,1.19
4274.00,1.19
4273.00,1.19
4272.00,1.19
4271.00,1.19
4270.00,1.19
4269.00,1.18
4268.00,1.18
4267.00,1.18
4266.00,1.17
4265.00,1.17
4264.00,1.17
4263.00,1.17
4262.00,1.16
4261.00,1.16
4260.00,1.16
4259.00,1.16
4258.00,1.15
4257.00,1.15
4256.00,1.15
4255.00,1.15
4254.00,1.15
4253.00,1.15
4252.00,1.15
4251.00,1.15
4250.00,1.15
4249.00,1.16
4248.00,1.16
4247.00,1.16
4246.00,1.16
4245.00,1.17
4244.00,1.17
4243.00,1.18
4242.00,1.18
4241.00,1.19
4240.00,1.19
4239.00,1.20
4238.00,1.20
4237.00,1.21
4236.00,1.21
4235.00,1.22
4234.00,1.22
4233.00,1.23
4232.00,1.23
4231.00,1.24
4230.00,1.24
4229.00,1.25
4228.00,1.25
4227.00,1.25
4226.00,1.26
4225.00,1.26
4224.00,1.26
4223.00,1.26
4222.00,1.27
4221.00,1.27
4220.00,1.27
4219.00,1.27
4218.00,1.27
4217.00,1.27
4216.00,1.27
4215.00,1.27
4214.00,1.27
4213.00,1.27
4212.00,1.27
4211.00,1.27
4210.00,1.27
4209.00,1.27
4208.00,1.27
4207.00,1.27
4206.00,1.27
4205.00,1.28
4204.00,1.28
4203.00,1.28
4202.00,1.28
4201.00,1.28
4200.00,1.28
4199.00,1.28
4198.00,1.28
4197.00,1.28
4196.00,1.28
4195.00,1.28
4194.00,1.28
4193.00,1.28
4192.00,1.28
4191.00,1.28
4190.00,1.28
4189.00,1.28
4188.00,1.28
4187.00,1.28
4186.00,1.28
4185.00,1.28
4184.00,1.28
4183.00,1.28
4182.00,1.28
4181.00,1.28
4180.00,1.28
4179.00,1.28
4178.00,1.28
4177.00,1.28
4176.00,1.28
4175.00,1.28
4174.00,1.28
4173.00,1.28
4172.00,1.28
4171.00,1.28
4170.00,1.28
4169.00,1.28
4168.00,1.28
4167.00,1.28
4166.00,1.28
4165.00,1.28
4164.00,1.28
4163.00,1.28
4162.00,1.28
4161.00,1.28
4160.00,1.28
4159.00,1.28
4158.00,1.28
4157.00,1.28
4156.00,1.28
4155.00,1.28
4154.00,1.28
4153.00,1.28
4152.00,1.28
4151.00,1.28
4150.00,1.28
4149.00,1.28
4148.00,1.28
4147.00,1.28
4146.00,1.28
4145.00,1.28
4144.00,1.28
4143.00,1.28
4142.00,1.28
4141.00,1.28
4140.00,1.28
4139.00,1.28
4138.00,1.28
4137.00,1.28
4136.00,1.28
4135.00,1.28
4134.00,1.28
4133.00,1.28
4132.00,1.28
4131.00,1.28
4130.00,1.28
4129.00,1.28
4128.00,1.28
4127.00,1.28
4126.00,1.28
4125.00,1.28
4124.00,1.28
4123.00,1.28
4122.00,1.28
4121.00,1.28
4120.00,1.28
4119.00,1.28
4118.00,1.28
4117.00,1.28
4116.00,1.28
4115.00,1.28
4114.00,1.28
4113.00,1.29
4112.00,1.29
4111.00,1.29
4110.00,1.29
4109.00,1.29
4108.00,1.29
4107.00,1.29
4106.00,1.28
4105.00,1.28
4104.00,1.28
4103.00,1.28
4102.00,1.28
4101.00,1.28
4100.00,1.28
4099.00,1.28
4098.00,1.27
4097.00,1.27
4096.00,1.27
4095.00,1.27
4094.00,1.27
4093.00,1.27
4092.00,1.27
4091.00,1.27
4090.00,1.27
4089.00,1.27
4088.00,1.27
4087.00,1.27
4086.00,1.27
4085.00,1.28
4084.00,1.28
4083.00,1.28
4082.00,1.28
4081.00,1.28
4080.00,1.28
4079.00,1.28
4078.00,1.28
4077.00,1.28
4076.00,1.29
4075.00,1.29
4074.00,1.29
4073.00,1.29
4072.00,1.29
4071.00,1.29
4070.00,1.29
4069.00,1.29
4068.00,1.29
4067.00,1.29
4066.00,1.30
4065.00,1.30
4064.00,1.30
4063.00,1.30
4062.00,1.30
4061.00,1.30
4060.00,1.31
4059.00,1.31
4058.00,1.31
4057.00,1.31
4056.00,1.31
4055.00,1.31
4054.00,1.32
4053.00,1.32
4052.00,1.32
4051.00,1.32
4050.00,1.32
4049.00,1.32
4048.00,1.33
4047.00,1.33
4046.00,1.33
4045.00,1.33
4044.00,1.33
4043.00,1.33
4042.00,1.33
4041.00,1.33
4040.00,1.33
4039.00,1.33
4038.00,1.33
4037.00,1.32
4036.00,1.32
4035.00,1.32
4034.00,1.32
4033.00,1.32
4032.00,1.32
4031.00,1.32
4030.00,1.32
4029.00,1.32
4028.00,1.32
4027.00,1.32
4026.00,1.32
4025.00,1.32
4024.00,1.32
4023.00,1.32
4022.00,1.32
4021.00,1.31
4020.00,1.31
4019.00,1.31
4018.00,1.31
4017.00,1.31
4016.00,1.31
4015.00,1.31
4014.00,1.31
4013.00,1.31
4012.00,1.31
4011.00,1.31
4010.00,1.31
4009.00,1.31
4008.00,1.31
4007.00,1.31
4006.00,1.32
4005.00,1.32
4004.00,1.32
4003.00,1.32
4002.00,1.33
4001.00,1.33
4000.00,1.33
