创建为新数据集,样品 097 用户 Administrator 日期 星期日, 十一月 05 2017
cm-1,%T
10000.00,1.31
9999.00,1.31
9998.00,1.31
9997.00,1.30
9996.00,1.30
9995.00,1.29
9994.00,1.29
9993.00,1.29
9992.00,1.28
9991.00,1.28
9990.00,1.28
9989.00,1.28
9988.00,1.28
9987.00,1.28
9986.00,1.28
9985.00,1.28
9984.00,1.28
9983.00,1.28
9982.00,1.28
9981.00,1.28
9980.00,1.29
9979.00,1.29
9978.00,1.29
9977.00,1.29
9976.00,1.30
9975.00,1.30
9974.00,1.30
9973.00,1.30
9972.00,1.31
9971.00,1.31
9970.00,1.31
9969.00,1.31
9968.00,1.31
9967.00,1.31
9966.00,1.31
9965.00,1.31
9964.00,1.31
9963.00,1.30
9962.00,1.30
9961.00,1.30
9960.00,1.30
9959.00,1.29
9958.00,1.29
9957.00,1.29
9956.00,1.28
9955.00,1.28
9954.00,1.27
9953.00,1.27
9952.00,1.27
9951.00,1.26
9950.00,1.26
9949.00,1.26
9948.00,1.26
9947.00,1.26
9946.00,1.26
9945.00,1.26
9944.00,1.26
9943.00,1.26
9942.00,1.26
9941.00,1.27
9940.00,1.27
9939.00,1.27
9938.00,1.27
9937.00,1.27
9936.00,1.27
9935.00,1.27
9934.00,1.27
9933.00,1.27
9932.00,1.27
9931.00,1.27
9930.00,1.27
9929.00,1.27
9928.00,1.27
9927.00,1.27
9926.00,1.27
9925.00,1.26
9924.00,1.26
9923.00,1.26
9922.00,1.26
9921.00,1.26
9920.00,1.26
9919.00,1.27
9918.00,1.27
9917.00,1.27
9916.00,1.27
9915.00,1.27
9914.00,1.27
9913.00,1.28
9912.00,1.28
9911.00,1.28
9910.00,1.28
9909.00,1.28
9908.00,1.28
9907.00,1.28
9906.00,1.28
9905.00,1.27
9904.00,1.27
9903.00,1.27
9902.00,1.27
9901.00,1.27
9900.00,1.26
9899.00,1.26
9898.00,1.26
9897.00,1.26
9896.00,1.26
9895.00,1.26
9894.00,1.26
9893.00,1.26
9892.00,1.26
9891.00,1.26
9890.00,1.27
9889.00,1.27
9888.00,1.27
9887.00,1.28
9886.00,1.28
9885.00,1.29
9884.00,1.29
9883.00,1.30
9882.00,1.30
9881.00,1.31
9880.00,1.31
9879.00,1.31
9878.00,1.32
9877.00,1.32
9876.00,1.32
9875.00,1.32
9874.00,1.31
9873.00,1.31
9872.00,1.31
9871.00,1.31
9870.00,1.30
9869.00,1.30
9868.00,1.30
9867.00,1.29
9866.00,1.29
9865.00,1.29
9864.00,1.28
9863.00,1.28
9862.00,1.28
9861.00,1.27
9860.00,1.27
9859.00,1.27
9858.00,1.27
9857.00,1.27
9856.00,1.26
9855.00,1.26
9854.00,1.26
9853.00,1.26
9852.00,1.26
9851.00,1.25
9850.00,1.25
9849.00,1.25
9848.00,1.25
9847.00,1.25
9846.00,1.25
9845.00,1.25
9844.00,1.25
9843.00,1.25
9842.00,1.25
9841.00,1.25
9840.00,1.25
9839.00,1.25
9838.00,1.26
9837.00,1.26
9836.00,1.26
9835.00,1.26
9834.00,1.27
9833.00,1.27
9832.00,1.27
9831.00,1.27
9830.00,1.27
9829.00,1.27
9828.00,1.27
9827.00,1.27
9826.00,1.27
9825.00,1.27
9824.00,1.26
9823.00,1.26
9822.00,1.26
9821.00,1.26
9820.00,1.26
9819.00,1.25
9818.00,1.25
9817.00,1.25
9816.00,1.25
9815.00,1.25
9814.00,1.25
9813.00,1.25
9812.00,1.25
9811.00,1.25
9810.00,1.26
9809.00,1.26
9808.00,1.26
9807.00,1.26
9806.00,1.26
9805.00,1.27
9804.00,1.27
9803.00,1.27
9802.00,1.27
9801.00,1.27
9800.00,1.27
9799.00,1.28
9798.00,1.28
9797.00,1.28
9796.00,1.28
9795.00,1.28
9794.00,1.28
9793.00,1.28
9792.00,1.28
9791.00,1.28
9790.00,1.27
9789.00,1.27
9788.00,1.27
9787.00,1.27
9786.00,1.27
9785.00,1.27
9784.00,1.26
9783.00,1.26
9782.00,1.26
9781.00,1.26
9780.00,1.26
9779.00,1.25
9778.00,1.25
9777.00,1.25
9776.00,1.25
9775.00,1.24
9774.00,1.24
9773.00,1.24
9772.00,1.24
9771.00,1.24
9770.00,1.23
9769.00,1.23
9768.00,1.23
9767.00,1.23
9766.00,1.23
9765.00,1.23
9764.00,1.23
9763.00,1.23
9762.00,1.23
9761.00,1.23
9760.00,1.24
9759.00,1.24
9758.00,1.24
9757.00,1.25
9756.00,1.25
9755.00,1.26
9754.00,1.26
9753.00,1.27
9752.00,1.27
9751.00,1.28
9750.00,1.28
9749.00,1.28
9748.00,1.29
9747.00,1.29
9746.00,1.29
9745.00,1.30
9744.00,1.30
9743.00,1.30
9742.00,1.30
9741.00,1.31
9740.00,1.31
9739.00,1.31
9738.00,1.31
9737.00,1.31
9736.00,1.31
9735.00,1.31
9734.00,1.31
9733.00,1.31
9732.00,1.31
9731.00,1.30
9730.00,1.30
9729.00,1.30
9728.00,1.30
9727.00,1.30
9726.00,1.29
9725.00,1.29
9724.00,1.29
9723.00,1.29
9722.00,1.28
9721.00,1.28
9720.00,1.28
9719.00,1.27
9718.00,1.27
9717.00,1.27
9716.00,1.27
9715.00,1.26
9714.00,1.26
9713.00,1.26
9712.00,1.25
9711.00,1.25
9710.00,1.25
9709.00,1.25
9708.00,1.24
9707.00,1.24
9706.00,1.24
9705.00,1.24
9704.00,1.24
9703.00,1.24
9702.00,1.24
9701.00,1.24
9700.00,1.24
9699.00,1.24
9698.00,1.24
9697.00,1.24
9696.00,1.24
9695.00,1.24
9694.00,1.24
9693.00,1.24
9692.00,1.24
9691.00,1.24
9690.00,1.24
9689.00,1.24
9688.00,1.24
9687.00,1.24
9686.00,1.24
9685.00,1.24
9684.00,1.24
9683.00,1.23
9682.00,1.23
9681.00,1.23
9680.00,1.23
9679.00,1.23
9678.00,1.23
9677.00,1.23
9676.00,1.23
9675.00,1.23
9674.00,1.23
9673.00,1.23
9672.00,1.23
9671.00,1.23
9670.00,1.24
9669.00,1.24
9668.00,1.24
9667.00,1.24
9666.00,1.25
9665.00,1.25
9664.00,1.25
9663.00,1.25
9662.00,1.25
9661.00,1.25
9660.00,1.26
9659.00,1.26
9658.00,1.26
9657.00,1.26
9656.00,1.25
9655.00,1.25
9654.00,1.25
9653.00,1.25
9652.00,1.25
9651.00,1.25
9650.00,1.25
9649.00,1.25
9648.00,1.25
9647.00,1.25
9646.00,1.25
9645.00,1.25
9644.00,1.25
9643.00,1.25
9642.00,1.25
9641.00,1.25
9640.00,1.25
9639.00,1.25
9638.00,1.25
9637.00,1.25
9636.00,1.25
9635.00,1.25
9634.00,1.25
9633.00,1.25
9632.00,1.25
9631.00,1.25
9630.00,1.25
9629.00,1.25
9628.00,1.25
9627.00,1.25
9626.00,1.25
9625.00,1.25
9624.00,1.25
9623.00,1.25
9622.00,1.25
9621.00,1.25
9620.00,1.26
9619.00,1.26
9618.00,1.26
9617.00,1.26
9616.00,1.26
9615.00,1.26
9614.00,1.26
9613.00,1.26
9612.00,1.26
9611.00,1.27
9610.00,1.27
9609.00,1.27
9608.00,1.27
9607.00,1.27
9606.00,1.27
9605.00,1.27
9604.00,1.27
9603.00,1.27
9602.00,1.27
9601.00,1.27
9600.00,1.27
9599.00,1.27
9598.00,1.26
9597.00,1.26
9596.00,1.26
9595.00,1.26
9594.00,1.26
9593.00,1.26
9592.00,1.25
9591.00,1.25
9590.00,1.25
9589.00,1.26
9588.00,1.26
9587.00,1.26
9586.00,1.26
9585.00,1.26
9584.00,1.26
9583.00,1.26
9582.00,1.27
9581.00,1.27
9580.00,1.27
9579.00,1.27
9578.00,1.27
9577.00,1.28
9576.00,1.28
9575.00,1.28
9574.00,1.28
9573.00,1.28
9572.00,1.28
9571.00,1.28
9570.00,1.28
9569.00,1.28
9568.00,1.28
9567.00,1.28
9566.00,1.28
9565.00,1.28
9564.00,1.28
9563.00,1.28
9562.00,1.28
9561.00,1.28
9560.00,1.28
9559.00,1.27
9558.00,1.27
9557.00,1.27
9556.00,1.27
9555.00,1.27
9554.00,1.27
9553.00,1.26
9552.00,1.26
9551.00,1.26
9550.00,1.26
9549.00,1.26
9548.00,1.26
9547.00,1.26
9546.00,1.26
9545.00,1.26
9544.00,1.26
9543.00,1.27
9542.00,1.27
9541.00,1.27
9540.00,1.27
9539.00,1.27
9538.00,1.27
9537.00,1.27
9536.00,1.27
9535.00,1.27
9534.00,1.27
9533.00,1.27
9532.00,1.27
9531.00,1.27
9530.00,1.27
9529.00,1.27
9528.00,1.27
9527.00,1.27
9526.00,1.28
9525.00,1.28
9524.00,1.28
9523.00,1.28
9522.00,1.28
9521.00,1.28
9520.00,1.28
9519.00,1.29
9518.00,1.29
9517.00,1.29
9516.00,1.29
9515.00,1.29
9514.00,1.29
9513.00,1.29
9512.00,1.29
9511.00,1.29
9510.00,1.29
9509.00,1.29
9508.00,1.29
9507.00,1.29
9506.00,1.29
9505.00,1.29
9504.00,1.29
9503.00,1.28
9502.00,1.28
9501.00,1.28
9500.00,1.28
9499.00,1.28
9498.00,1.28
9497.00,1.28
9496.00,1.28
9495.00,1.28
9494.00,1.27
9493.00,1.27
9492.00,1.27
9491.00,1.27
9490.00,1.27
9489.00,1.26
9488.00,1.26
9487.00,1.26
9486.00,1.26
9485.00,1.26
9484.00,1.26
9483.00,1.26
9482.00,1.26
9481.00,1.26
9480.00,1.26
9479.00,1.26
9478.00,1.26
9477.00,1.26
9476.00,1.27
9475.00,1.27
9474.00,1.27
9473.00,1.28
9472.00,1.28
9471.00,1.28
9470.00,1.28
9469.00,1.28
9468.00,1.29
9467.00,1.29
9466.00,1.29
9465.00,1.29
9464.00,1.29
9463.00,1.29
9462.00,1.30
9461.00,1.30
9460.00,1.30
9459.00,1.30
9458.00,1.30
9457.00,1.30
9456.00,1.30
9455.00,1.30
9454.00,1.30
9453.00,1.30
9452.00,1.30
9451.00,1.30
9450.00,1.30
9449.00,1.30
9448.00,1.30
9447.00,1.30
9446.00,1.30
9445.00,1.30
9444.00,1.30
9443.00,1.30
9442.00,1.30
9441.00,1.30
9440.00,1.30
9439.00,1.30
9438.00,1.30
9437.00,1.30
9436.00,1.30
9435.00,1.30
9434.00,1.30
9433.00,1.30
9432.00,1.30
9431.00,1.30
9430.00,1.30
9429.00,1.30
9428.00,1.30
9427.00,1.30
9426.00,1.30
9425.00,1.30
9424.00,1.30
9423.00,1.30
9422.00,1.30
9421.00,1.30
9420.00,1.30
9419.00,1.30
9418.00,1.30
9417.00,1.30
9416.00,1.29
9415.00,1.29
9414.00,1.29
9413.00,1.29
9412.00,1.29
9411.00,1.29
9410.00,1.28
9409.00,1.28
9408.00,1.28
9407.00,1.28
9406.00,1.28
9405.00,1.28
9404.00,1.28
9403.00,1.27
9402.00,1.27
9401.00,1.27
9400.00,1.27
9399.00,1.28
9398.00,1.28
9397.00,1.28
9396.00,1.28
9395.00,1.28
9394.00,1.28
9393.00,1.28
9392.00,1.28
9391.00,1.28
9390.00,1.28
9389.00,1.28
9388.00,1.28
9387.00,1.28
9386.00,1.28
9385.00,1.28
9384.00,1.28
9383.00,1.27
9382.00,1.27
9381.00,1.27
9380.00,1.26
9379.00,1.26
9378.00,1.26
9377.00,1.25
9376.00,1.25
9375.00,1.25
9374.00,1.24
9373.00,1.24
9372.00,1.24
9371.00,1.24
9370.00,1.24
9369.00,1.23
9368.00,1.23
9367.00,1.23
9366.00,1.23
9365.00,1.23
9364.00,1.23
9363.00,1.23
9362.00,1.24
9361.00,1.24
9360.00,1.24
9359.00,1.24
9358.00,1.24
9357.00,1.25
9356.00,1.25
9355.00,1.25
9354.00,1.26
9353.00,1.26
9352.00,1.26
9351.00,1.27
9350.00,1.27
9349.00,1.27
9348.00,1.27
9347.00,1.28
9346.00,1.28
9345.00,1.28
9344.00,1.28
9343.00,1.28
9342.00,1.28
9341.00,1.28
9340.00,1.28
9339.00,1.28
9338.00,1.28
9337.00,1.28
9336.00,1.28
9335.00,1.28
9334.00,1.28
9333.00,1.28
9332.00,1.28
9331.00,1.28
9330.00,1.28
9329.00,1.28
9328.00,1.28
9327.00,1.28
9326.00,1.28
9325.00,1.27
9324.00,1.27
9323.00,1.27
9322.00,1.27
9321.00,1.27
9320.00,1.27
9319.00,1.27
9318.00,1.27
9317.00,1.27
9316.00,1.27
9315.00,1.27
9314.00,1.27
9313.00,1.27
9312.00,1.27
9311.00,1.27
9310.00,1.27
9309.00,1.27
9308.00,1.27
9307.00,1.27
9306.00,1.28
9305.00,1.28
9304.00,1.28
9303.00,1.28
9302.00,1.27
9301.00,1.27
9300.00,1.27
9299.00,1.27
9298.00,1.27
9297.00,1.27
9296.00,1.26
9295.00,1.26
9294.00,1.26
9293.00,1.26
9292.00,1.25
9291.00,1.25
9290.00,1.25
9289.00,1.25
9288.00,1.25
9287.00,1.25
9286.00,1.25
9285.00,1.25
9284.00,1.25
9283.00,1.25
9282.00,1.25
9281.00,1.25
9280.00,1.26
9279.00,1.26
9278.00,1.26
9277.00,1.26
9276.00,1.26
9275.00,1.26
9274.00,1.26
9273.00,1.26
9272.00,1.26
9271.00,1.26
9270.00,1.26
9269.00,1.26
9268.00,1.27
9267.00,1.27
9266.00,1.27
9265.00,1.27
9264.00,1.27
9263.00,1.27
9262.00,1.28
9261.00,1.28
9260.00,1.28
9259.00,1.28
9258.00,1.28
9257.00,1.28
9256.00,1.29
9255.00,1.29
9254.00,1.29
9253.00,1.29
9252.00,1.29
9251.00,1.29
9250.00,1.28
9249.00,1.28
9248.00,1.28
9247.00,1.28
9246.00,1.28
9245.00,1.28
9244.00,1.28
9243.00,1.27
9242.00,1.27
9241.00,1.27
9240.00,1.27
9239.00,1.28
9238.00,1.28
9237.00,1.28
9236.00,1.28
9235.00,1.28
9234.00,1.29
9233.00,1.29
9232.00,1.29
9231.00,1.29
9230.00,1.29
9229.00,1.29
9228.00,1.29
9227.00,1.29
9226.00,1.29
9225.00,1.29
9224.00,1.29
9223.00,1.29
9222.00,1.29
9221.00,1.29
9220.00,1.29
9219.00,1.28
9218.00,1.28
9217.00,1.28
9216.00,1.28
9215.00,1.28
9214.00,1.28
9213.00,1.28
9212.00,1.28
9211.00,1.28
9210.00,1.28
9209.00,1.28
9208.00,1.29
9207.00,1.29
9206.00,1.29
9205.00,1.29
9204.00,1.29
9203.00,1.29
9202.00,1.29
9201.00,1.29
9200.00,1.29
9199.00,1.29
9198.00,1.30
9197.00,1.30
9196.00,1.30
9195.00,1.30
9194.00,1.30
9193.00,1.29
9192.00,1.29
9191.00,1.29
9190.00,1.29
9189.00,1.29
9188.00,1.29
9187.00,1.29
9186.00,1.29
9185.00,1.29
9184.00,1.29
9183.00,1.29
9182.00,1.29
9181.00,1.29
9180.00,1.29
9179.00,1.29
9178.00,1.29
9177.00,1.29
9176.00,1.29
9175.00,1.29
9174.00,1.29
9173.00,1.29
9172.00,1.29
9171.00,1.29
9170.00,1.29
9169.00,1.29
9168.00,1.29
9167.00,1.29
9166.00,1.29
9165.00,1.29
9164.00,1.29
9163.00,1.29
9162.00,1.28
9161.00,1.28
9160.00,1.28
9159.00,1.28
9158.00,1.28
9157.00,1.28
9156.00,1.28
9155.00,1.28
9154.00,1.27
9153.00,1.27
9152.00,1.27
9151.00,1.27
9150.00,1.27
9149.00,1.27
9148.00,1.27
9147.00,1.27
9146.00,1.26
9145.00,1.26
9144.00,1.26
9143.00,1.26
9142.00,1.26
9141.00,1.26
9140.00,1.27
9139.00,1.27
9138.00,1.27
9137.00,1.27
9136.00,1.27
9135.00,1.27
9134.00,1.27
9133.00,1.28
9132.00,1.28
9131.00,1.28
9130.00,1.28
9129.00,1.28
9128.00,1.28
9127.00,1.28
9126.00,1.28
9125.00,1.28
9124.00,1.28
9123.00,1.27
9122.00,1.27
9121.00,1.27
9120.00,1.27
9119.00,1.27
9118.00,1.27
9117.00,1.27
9116.00,1.26
9115.00,1.26
9114.00,1.26
9113.00,1.26
9112.00,1.26
9111.00,1.26
9110.00,1.26
9109.00,1.26
9108.00,1.26
9107.00,1.25
9106.00,1.25
9105.00,1.25
9104.00,1.25
9103.00,1.25
9102.00,1.25
9101.00,1.25
9100.00,1.25
9099.00,1.25
9098.00,1.25
9097.00,1.25
9096.00,1.25
9095.00,1.25
9094.00,1.25
9093.00,1.25
9092.00,1.25
9091.00,1.25
9090.00,1.26
9089.00,1.26
9088.00,1.26
9087.00,1.26
9086.00,1.26
9085.00,1.26
9084.00,1.26
9083.00,1.27
9082.00,1.27
9081.00,1.27
9080.00,1.27
9079.00,1.27
9078.00,1.28
9077.00,1.28
9076.00,1.28
9075.00,1.28
9074.00,1.28
9073.00,1.29
9072.00,1.29
9071.00,1.29
9070.00,1.29
9069.00,1.29
9068.00,1.29
9067.00,1.30
9066.00,1.30
9065.00,1.30
9064.00,1.30
9063.00,1.30
9062.00,1.30
9061.00,1.30
9060.00,1.30
9059.00,1.31
9058.00,1.31
9057.00,1.31
9056.00,1.31
9055.00,1.31
9054.00,1.31
9053.00,1.31
9052.00,1.31
9051.00,1.31
9050.00,1.31
9049.00,1.31
9048.00,1.31
9047.00,1.31
9046.00,1.31
9045.00,1.31
9044.00,1.31
9043.00,1.31
9042.00,1.31
9041.00,1.30
9040.00,1.30
9039.00,1.30
9038.00,1.30
9037.00,1.30
9036.00,1.30
9035.00,1.30
9034.00,1.29
9033.00,1.29
9032.00,1.29
9031.00,1.29
9030.00,1.28
9029.00,1.28
9028.00,1.28
9027.00,1.28
9026.00,1.28
9025.00,1.28
9024.00,1.28
9023.00,1.28
9022.00,1.28
9021.00,1.28
9020.00,1.28
9019.00,1.28
9018.00,1.28
9017.00,1.28
9016.00,1.28
9015.00,1.28
9014.00,1.28
9013.00,1.28
9012.00,1.28
9011.00,1.28
9010.00,1.28
9009.00,1.28
9008.00,1.28
9007.00,1.28
9006.00,1.28
9005.00,1.28
9004.00,1.28
9003.00,1.28
9002.00,1.28
9001.00,1.28
9000.00,1.28
8999.00,1.28
8998.00,1.28
8997.00,1.28
8996.00,1.28
8995.00,1.28
8994.00,1.28
8993.00,1.28
8992.00,1.28
8991.00,1.28
8990.00,1.27
8989.00,1.27
8988.00,1.27
8987.00,1.27
8986.00,1.27
8985.00,1.27
8984.00,1.27
8983.00,1.27
8982.00,1.27
8981.00,1.27
8980.00,1.27
8979.00,1.27
8978.00,1.27
8977.00,1.27
8976.00,1.27
8975.00,1.28
8974.00,1.28
8973.00,1.28
8972.00,1.28
8971.00,1.28
8970.00,1.28
8969.00,1.28
8968.00,1.28
8967.00,1.28
8966.00,1.28
8965.00,1.28
8964.00,1.28
8963.00,1.28
8962.00,1.28
8961.00,1.28
8960.00,1.28
8959.00,1.28
8958.00,1.28
8957.00,1.28
8956.00,1.28
8955.00,1.28
8954.00,1.28
8953.00,1.28
8952.00,1.28
8951.00,1.28
8950.00,1.28
8949.00,1.28
8948.00,1.28
8947.00,1.28
8946.00,1.28
8945.00,1.28
8944.00,1.28
8943.00,1.28
8942.00,1.28
8941.00,1.28
8940.00,1.28
8939.00,1.28
8938.00,1.28
8937.00,1.28
8936.00,1.28
8935.00,1.28
8934.00,1.28
8933.00,1.28
8932.00,1.27
8931.00,1.27
8930.00,1.27
8929.00,1.27
8928.00,1.27
8927.00,1.28
8926.00,1.28
8925.00,1.28
8924.00,1.28
8923.00,1.28
8922.00,1.28
8921.00,1.28
8920.00,1.28
8919.00,1.28
8918.00,1.28
8917.00,1.28
8916.00,1.28
8915.00,1.28
8914.00,1.28
8913.00,1.28
8912.00,1.28
8911.00,1.27
8910.00,1.27
8909.00,1.27
8908.00,1.27
8907.00,1.27
8906.00,1.27
8905.00,1.27
8904.00,1.27
8903.00,1.27
8902.00,1.27
8901.00,1.27
8900.00,1.27
8899.00,1.27
8898.00,1.27
8897.00,1.27
8896.00,1.27
8895.00,1.27
8894.00,1.27
8893.00,1.27
8892.00,1.27
8891.00,1.27
8890.00,1.27
8889.00,1.27
8888.00,1.27
8887.00,1.26
8886.00,1.26
8885.00,1.26
8884.00,1.26
8883.00,1.26
8882.00,1.26
8881.00,1.26
8880.00,1.26
8879.00,1.26
8878.00,1.26
8877.00,1.26
8876.00,1.27
8875.00,1.27
8874.00,1.27
8873.00,1.27
8872.00,1.27
8871.00,1.27
8870.00,1.27
8869.00,1.27
8868.00,1.27
8867.00,1.27
8866.00,1.26
8865.00,1.26
8864.00,1.26
8863.00,1.26
8862.00,1.26
8861.00,1.26
8860.00,1.26
8859.00,1.26
8858.00,1.26
8857.00,1.26
8856.00,1.26
8855.00,1.26
8854.00,1.26
8853.00,1.26
8852.00,1.26
8851.00,1.26
8850.00,1.26
8849.00,1.26
8848.00,1.26
8847.00,1.26
8846.00,1.26
8845.00,1.26
8844.00,1.26
8843.00,1.26
8842.00,1.26
8841.00,1.27
8840.00,1.27
8839.00,1.27
8838.00,1.27
8837.00,1.27
8836.00,1.27
8835.00,1.27
8834.00,1.27
8833.00,1.27
8832.00,1.28
8831.00,1.28
8830.00,1.28
8829.00,1.28
8828.00,1.28
8827.00,1.28
8826.00,1.28
8825.00,1.28
8824.00,1.28
8823.00,1.28
8822.00,1.28
8821.00,1.27
8820.00,1.27
8819.00,1.27
8818.00,1.27
8817.00,1.27
8816.00,1.27
8815.00,1.26
8814.00,1.26
8813.00,1.26
8812.00,1.26
8811.00,1.26
8810.00,1.26
8809.00,1.26
8808.00,1.26
8807.00,1.26
8806.00,1.26
8805.00,1.26
8804.00,1.26
8803.00,1.26
8802.00,1.26
8801.00,1.26
8800.00,1.27
8799.00,1.27
8798.00,1.27
8797.00,1.27
8796.00,1.27
8795.00,1.27
8794.00,1.27
8793.00,1.27
8792.00,1.27
8791.00,1.27
8790.00,1.26
8789.00,1.26
8788.00,1.26
8787.00,1.26
8786.00,1.26
8785.00,1.26
8784.00,1.26
8783.00,1.26
8782.00,1.26
8781.00,1.26
8780.00,1.26
8779.00,1.26
8778.00,1.26
8777.00,1.26
8776.00,1.26
8775.00,1.26
8774.00,1.26
8773.00,1.26
8772.00,1.26
8771.00,1.26
8770.00,1.26
8769.00,1.26
8768.00,1.26
8767.00,1.26
8766.00,1.26
8765.00,1.26
8764.00,1.26
8763.00,1.26
8762.00,1.26
8761.00,1.26
8760.00,1.26
8759.00,1.26
8758.00,1.26
8757.00,1.26
8756.00,1.26
8755.00,1.26
8754.00,1.26
8753.00,1.26
8752.00,1.26
8751.00,1.26
8750.00,1.26
8749.00,1.26
8748.00,1.26
8747.00,1.26
8746.00,1.26
8745.00,1.26
8744.00,1.26
8743.00,1.26
8742.00,1.25
8741.00,1.25
8740.00,1.25
8739.00,1.25
8738.00,1.25
8737.00,1.25
8736.00,1.24
8735.00,1.24
8734.00,1.24
8733.00,1.24
8732.00,1.24
8731.00,1.24
8730.00,1.24
8729.00,1.23
8728.00,1.23
8727.00,1.23
8726.00,1.23
8725.00,1.24
8724.00,1.24
8723.00,1.24
8722.00,1.24
8721.00,1.24
8720.00,1.24
8719.00,1.24
8718.00,1.24
8717.00,1.24
8716.00,1.24
8715.00,1.24
8714.00,1.25
8713.00,1.25
8712.00,1.25
8711.00,1.25
8710.00,1.25
8709.00,1.24
8708.00,1.24
8707.00,1.24
8706.00,1.24
8705.00,1.24
8704.00,1.24
8703.00,1.24
8702.00,1.24
8701.00,1.24
8700.00,1.24
8699.00,1.24
8698.00,1.24
8697.00,1.24
8696.00,1.24
8695.00,1.24
8694.00,1.24
8693.00,1.24
8692.00,1.25
8691.00,1.25
8690.00,1.25
8689.00,1.25
8688.00,1.25
8687.00,1.25
8686.00,1.25
8685.00,1.25
8684.00,1.25
8683.00,1.25
8682.00,1.25
8681.00,1.25
8680.00,1.25
8679.00,1.25
8678.00,1.25
8677.00,1.25
8676.00,1.25
8675.00,1.25
8674.00,1.24
8673.00,1.24
8672.00,1.24
8671.00,1.24
8670.00,1.24
8669.00,1.24
8668.00,1.24
8667.00,1.24
8666.00,1.24
8665.00,1.24
8664.00,1.24
8663.00,1.23
8662.00,1.23
8661.00,1.23
8660.00,1.23
8659.00,1.23
8658.00,1.23
8657.00,1.23
8656.00,1.23
8655.00,1.23
8654.00,1.23
8653.00,1.23
8652.00,1.22
8651.00,1.22
8650.00,1.22
8649.00,1.22
8648.00,1.22
8647.00,1.22
8646.00,1.22
8645.00,1.22
8644.00,1.22
8643.00,1.21
8642.00,1.21
8641.00,1.21
8640.00,1.21
8639.00,1.21
8638.00,1.21
8637.00,1.21
8636.00,1.21
8635.00,1.21
8634.00,1.22
8633.00,1.22
8632.00,1.22
8631.00,1.22
8630.00,1.22
8629.00,1.23
8628.00,1.23
8627.00,1.23
8626.00,1.23
8625.00,1.23
8624.00,1.23
8623.00,1.24
8622.00,1.24
8621.00,1.24
8620.00,1.24
8619.00,1.24
8618.00,1.24
8617.00,1.24
8616.00,1.24
8615.00,1.24
8614.00,1.24
8613.00,1.23
8612.00,1.23
8611.00,1.23
8610.00,1.23
8609.00,1.23
8608.00,1.23
8607.00,1.23
8606.00,1.22
8605.00,1.22
8604.00,1.22
8603.00,1.22
8602.00,1.22
8601.00,1.22
8600.00,1.22
8599.00,1.22
8598.00,1.22
8597.00,1.21
8596.00,1.21
8595.00,1.21
8594.00,1.21
8593.00,1.21
8592.00,1.21
8591.00,1.21
8590.00,1.20
8589.00,1.20
8588.00,1.20
8587.00,1.20
8586.00,1.20
8585.00,1.20
8584.00,1.20
8583.00,1.19
8582.00,1.19
8581.00,1.19
8580.00,1.19
8579.00,1.19
8578.00,1.19
8577.00,1.19
8576.00,1.20
8575.00,1.20
8574.00,1.20
8573.00,1.20
8572.00,1.20
8571.00,1.20
8570.00,1.20
8569.00,1.20
8568.00,1.20
8567.00,1.20
8566.00,1.21
8565.00,1.21
8564.00,1.21
8563.00,1.21
8562.00,1.21
8561.00,1.21
8560.00,1.21
8559.00,1.21
8558.00,1.21
8557.00,1.21
8556.00,1.21
8555.00,1.21
8554.00,1.21
8553.00,1.21
8552.00,1.21
8551.00,1.21
8550.00,1.21
8549.00,1.21
8548.00,1.21
8547.00,1.21
8546.00,1.21
8545.00,1.21
8544.00,1.21
8543.00,1.21
8542.00,1.21
8541.00,1.21
8540.00,1.21
8539.00,1.21
8538.00,1.21
8537.00,1.21
8536.00,1.21
8535.00,1.21
8534.00,1.21
8533.00,1.20
8532.00,1.20
8531.00,1.20
8530.00,1.20
8529.00,1.20
8528.00,1.20
8527.00,1.20
8526.00,1.20
8525.00,1.19
8524.00,1.19
8523.00,1.19
8522.00,1.19
8521.00,1.19
8520.00,1.19
8519.00,1.19
8518.00,1.19
8517.00,1.19
8516.00,1.19
8515.00,1.19
8514.00,1.19
8513.00,1.19
8512.00,1.19
8511.00,1.19
8510.00,1.19
8509.00,1.19
8508.00,1.19
8507.00,1.19
8506.00,1.19
8505.00,1.19
8504.00,1.19
8503.00,1.19
8502.00,1.19
8501.00,1.19
8500.00,1.19
8499.00,1.19
8498.00,1.19
8497.00,1.19
8496.00,1.19
8495.00,1.19
8494.00,1.19
8493.00,1.19
8492.00,1.19
8491.00,1.19
8490.00,1.19
8489.00,1.19
8488.00,1.18
8487.00,1.18
8486.00,1.18
8485.00,1.18
8484.00,1.18
8483.00,1.17
8482.00,1.17
8481.00,1.17
8480.00,1.17
8479.00,1.16
8478.00,1.16
8477.00,1.16
8476.00,1.16
8475.00,1.15
8474.00,1.15
8473.00,1.15
8472.00,1.15
8471.00,1.15
8470.00,1.15
8469.00,1.15
8468.00,1.15
8467.00,1.15
8466.00,1.15
8465.00,1.15
8464.00,1.15
8463.00,1.15
8462.00,1.15
8461.00,1.15
8460.00,1.15
8459.00,1.15
8458.00,1.16
8457.00,1.16
8456.00,1.16
8455.00,1.16
8454.00,1.16
8453.00,1.16
8452.00,1.16
8451.00,1.16
8450.00,1.16
8449.00,1.16
8448.00,1.16
8447.00,1.16
8446.00,1.16
8445.00,1.16
8444.00,1.16
8443.00,1.16
8442.00,1.16
8441.00,1.16
8440.00,1.16
8439.00,1.16
8438.00,1.16
8437.00,1.16
8436.00,1.16
8435.00,1.16
8434.00,1.16
8433.00,1.16
8432.00,1.16
8431.00,1.16
8430.00,1.16
8429.00,1.16
8428.00,1.17
8427.00,1.17
8426.00,1.17
8425.00,1.17
8424.00,1.17
8423.00,1.18
8422.00,1.18
8421.00,1.18
8420.00,1.18
8419.00,1.18
8418.00,1.18
8417.00,1.18
8416.00,1.18
8415.00,1.18
8414.00,1.18
8413.00,1.18
8412.00,1.18
8411.00,1.18
8410.00,1.18
8409.00,1.18
8408.00,1.18
8407.00,1.18
8406.00,1.18
8405.00,1.18
8404.00,1.18
8403.00,1.18
8402.00,1.18
8401.00,1.18
8400.00,1.18
8399.00,1.18
8398.00,1.18
8397.00,1.18
8396.00,1.18
8395.00,1.18
8394.00,1.18
8393.00,1.18
8392.00,1.18
8391.00,1.18
8390.00,1.18
8389.00,1.18
8388.00,1.18
8387.00,1.17
8386.00,1.17
8385.00,1.17
8384.00,1.17
8383.00,1.17
8382.00,1.17
8381.00,1.17
8380.00,1.17
8379.00,1.17
8378.00,1.18
8377.00,1.18
8376.00,1.18
8375.00,1.18
8374.00,1.18
8373.00,1.18
8372.00,1.19
8371.00,1.19
8370.00,1.19
8369.00,1.19
8368.00,1.19
8367.00,1.20
8366.00,1.20
8365.00,1.20
8364.00,1.20
8363.00,1.20
8362.00,1.20
8361.00,1.21
8360.00,1.21
8359.00,1.21
8358.00,1.21
8357.00,1.21
8356.00,1.21
8355.00,1.21
8354.00,1.21
8353.00,1.21
8352.00,1.21
8351.00,1.21
8350.00,1.21
8349.00,1.20
8348.00,1.20
8347.00,1.20
8346.00,1.20
8345.00,1.20
8344.00,1.20
8343.00,1.20
8342.00,1.20
8341.00,1.19
8340.00,1.19
8339.00,1.19
8338.00,1.19
8337.00,1.19
8336.00,1.19
8335.00,1.19
8334.00,1.18
8333.00,1.18
8332.00,1.18
8331.00,1.18
8330.00,1.18
8329.00,1.18
8328.00,1.18
8327.00,1.18
8326.00,1.18
8325.00,1.18
8324.00,1.19
8323.00,1.19
8322.00,1.19
8321.00,1.19
8320.00,1.19
8319.00,1.19
8318.00,1.20
8317.00,1.20
8316.00,1.20
8315.00,1.20
8314.00,1.20
8313.00,1.20
8312.00,1.20
8311.00,1.20
8310.00,1.21
8309.00,1.21
8308.00,1.21
8307.00,1.21
8306.00,1.21
8305.00,1.21
8304.00,1.20
8303.00,1.20
8302.00,1.20
8301.00,1.20
8300.00,1.20
8299.00,1.20
8298.00,1.20
8297.00,1.20
8296.00,1.20
8295.00,1.19
8294.00,1.19
8293.00,1.19
8292.00,1.19
8291.00,1.19
8290.00,1.19
8289.00,1.19
8288.00,1.19
8287.00,1.19
8286.00,1.19
8285.00,1.19
8284.00,1.19
8283.00,1.19
8282.00,1.19
8281.00,1.19
8280.00,1.19
8279.00,1.19
8278.00,1.19
8277.00,1.19
8276.00,1.19
8275.00,1.19
8274.00,1.19
8273.00,1.19
8272.00,1.19
8271.00,1.19
8270.00,1.19
8269.00,1.19
8268.00,1.19
8267.00,1.19
8266.00,1.19
8265.00,1.19
8264.00,1.19
8263.00,1.19
8262.00,1.19
8261.00,1.19
8260.00,1.19
8259.00,1.19
8258.00,1.19
8257.00,1.19
8256.00,1.19
8255.00,1.19
8254.00,1.19
8253.00,1.19
8252.00,1.19
8251.00,1.19
8250.00,1.19
8249.00,1.19
8248.00,1.19
8247.00,1.19
8246.00,1.19
8245.00,1.19
8244.00,1.19
8243.00,1.20
8242.00,1.20
8241.00,1.20
8240.00,1.20
8239.00,1.20
8238.00,1.20
8237.00,1.20
8236.00,1.21
8235.00,1.21
8234.00,1.21
8233.00,1.21
8232.00,1.21
8231.00,1.22
8230.00,1.22
8229.00,1.22
8228.00,1.22
8227.00,1.22
8226.00,1.22
8225.00,1.22
8224.00,1.22
8223.00,1.22
8222.00,1.22
8221.00,1.22
8220.00,1.22
8219.00,1.22
8218.00,1.22
8217.00,1.22
8216.00,1.22
8215.00,1.22
8214.00,1.22
8213.00,1.22
8212.00,1.22
8211.00,1.21
8210.00,1.21
8209.00,1.21
8208.00,1.21
8207.00,1.21
8206.00,1.21
8205.00,1.21
8204.00,1.21
8203.00,1.21
8202.00,1.21
8201.00,1.21
8200.00,1.21
8199.00,1.21
8198.00,1.21
8197.00,1.21
8196.00,1.22
8195.00,1.22
8194.00,1.22
8193.00,1.22
8192.00,1.22
8191.00,1.22
8190.00,1.23
8189.00,1.23
8188.00,1.23
8187.00,1.23
8186.00,1.23
8185.00,1.23
8184.00,1.24
8183.00,1.24
8182.00,1.24
8181.00,1.24
8180.00,1.24
8179.00,1.24
8178.00,1.24
8177.00,1.24
8176.00,1.24
8175.00,1.24
8174.00,1.24
8173.00,1.24
8172.00,1.24
8171.00,1.24
8170.00,1.24
8169.00,1.24
8168.00,1.24
8167.00,1.24
8166.00,1.24
8165.00,1.24
8164.00,1.24
8163.00,1.24
8162.00,1.24
8161.00,1.24
8160.00,1.24
8159.00,1.24
8158.00,1.24
8157.00,1.24
8156.00,1.24
8155.00,1.24
8154.00,1.24
8153.00,1.24
8152.00,1.24
8151.00,1.24
8150.00,1.24
8149.00,1.24
8148.00,1.24
8147.00,1.24
8146.00,1.24
8145.00,1.24
8144.00,1.23
8143.00,1.23
8142.00,1.24
8141.00,1.24
8140.00,1.24
8139.00,1.24
8138.00,1.24
8137.00,1.24
8136.00,1.24
8135.00,1.24
8134.00,1.24
8133.00,1.24
8132.00,1.24
8131.00,1.24
8130.00,1.24
8129.00,1.24
8128.00,1.24
8127.00,1.25
8126.00,1.25
8125.00,1.25
8124.00,1.25
8123.00,1.25
8122.00,1.25
8121.00,1.25
8120.00,1.25
8119.00,1.25
8118.00,1.25
8117.00,1.25
8116.00,1.25
8115.00,1.25
8114.00,1.25
8113.00,1.25
8112.00,1.25
8111.00,1.25
8110.00,1.25
8109.00,1.25
8108.00,1.25
8107.00,1.25
8106.00,1.25
8105.00,1.25
8104.00,1.25
8103.00,1.25
8102.00,1.25
8101.00,1.25
8100.00,1.25
8099.00,1.25
8098.00,1.25
8097.00,1.25
8096.00,1.25
8095.00,1.25
8094.00,1.25
8093.00,1.25
8092.00,1.25
8091.00,1.25
8090.00,1.25
8089.00,1.25
8088.00,1.25
8087.00,1.25
8086.00,1.25
8085.00,1.25
8084.00,1.25
8083.00,1.25
8082.00,1.25
8081.00,1.25
8080.00,1.25
8079.00,1.25
8078.00,1.25
8077.00,1.25
8076.00,1.25
8075.00,1.25
8074.00,1.26
8073.00,1.26
8072.00,1.26
8071.00,1.26
8070.00,1.26
8069.00,1.26
8068.00,1.26
8067.00,1.26
8066.00,1.25
8065.00,1.25
8064.00,1.25
8063.00,1.25
8062.00,1.25
8061.00,1.25
8060.00,1.25
8059.00,1.25
8058.00,1.25
8057.00,1.25
8056.00,1.25
8055.00,1.25
8054.00,1.25
8053.00,1.25
8052.00,1.25
8051.00,1.26
8050.00,1.26
8049.00,1.26
8048.00,1.26
8047.00,1.26
8046.00,1.26
8045.00,1.26
8044.00,1.26
8043.00,1.26
8042.00,1.26
8041.00,1.26
8040.00,1.26
8039.00,1.26
8038.00,1.26
8037.00,1.26
8036.00,1.26
8035.00,1.26
8034.00,1.26
8033.00,1.26
8032.00,1.25
8031.00,1.25
8030.00,1.25
8029.00,1.25
8028.00,1.25
8027.00,1.25
8026.00,1.25
8025.00,1.25
8024.00,1.25
8023.00,1.25
8022.00,1.25
8021.00,1.25
8020.00,1.25
8019.00,1.25
8018.00,1.25
8017.00,1.25
8016.00,1.25
8015.00,1.25
8014.00,1.25
8013.00,1.25
8012.00,1.25
8011.00,1.26
8010.00,1.26
8009.00,1.26
8008.00,1.26
8007.00,1.26
8006.00,1.26
8005.00,1.26
8004.00,1.26
8003.00,1.26
8002.00,1.26
8001.00,1.26
8000.00,1.26
7999.00,1.26
7998.00,1.26
7997.00,1.26
7996.00,1.26
7995.00,1.26
7994.00,1.26
7993.00,1.26
7992.00,1.26
7991.00,1.26
7990.00,1.26
7989.00,1.26
7988.00,1.26
7987.00,1.26
7986.00,1.26
7985.00,1.26
7984.00,1.26
7983.00,1.26
7982.00,1.26
7981.00,1.26
7980.00,1.26
7979.00,1.26
7978.00,1.26
7977.00,1.26
7976.00,1.26
7975.00,1.26
7974.00,1.26
7973.00,1.26
7972.00,1.26
7971.00,1.26
7970.00,1.26
7969.00,1.26
7968.00,1.26
7967.00,1.26
7966.00,1.26
7965.00,1.27
7964.00,1.27
7963.00,1.27
7962.00,1.27
7961.00,1.27
7960.00,1.27
7959.00,1.27
7958.00,1.28
7957.00,1.28
7956.00,1.28
7955.00,1.28
7954.00,1.28
7953.00,1.28
7952.00,1.28
7951.00,1.29
7950.00,1.29
7949.00,1.29
7948.00,1.29
7947.00,1.29
7946.00,1.29
7945.00,1.29
7944.00,1.28
7943.00,1.28
7942.00,1.28
7941.00,1.28
7940.00,1.28
7939.00,1.28
7938.00,1.28
7937.00,1.28
7936.00,1.28
7935.00,1.27
7934.00,1.27
7933.00,1.27
7932.00,1.27
7931.00,1.27
7930.00,1.27
7929.00,1.27
7928.00,1.26
7927.00,1.26
7926.00,1.26
7925.00,1.26
7924.00,1.26
7923.00,1.26
7922.00,1.26
7921.00,1.26
7920.00,1.26
7919.00,1.26
7918.00,1.26
7917.00,1.26
7916.00,1.26
7915.00,1.26
7914.00,1.26
7913.00,1.26
7912.00,1.26
7911.00,1.26
7910.00,1.26
7909.00,1.26
7908.00,1.27
7907.00,1.27
7906.00,1.27
7905.00,1.27
7904.00,1.27
7903.00,1.27
7902.00,1.27
7901.00,1.27
7900.00,1.27
7899.00,1.27
7898.00,1.27
7897.00,1.27
7896.00,1.27
7895.00,1.27
7894.00,1.27
7893.00,1.27
7892.00,1.27
7891.00,1.27
7890.00,1.27
7889.00,1.27
7888.00,1.27
7887.00,1.27
7886.00,1.28
7885.00,1.28
7884.00,1.28
7883.00,1.28
7882.00,1.28
7881.00,1.28
7880.00,1.28
7879.00,1.27
7878.00,1.27
7877.00,1.27
7876.00,1.27
7875.00,1.27
7874.00,1.27
7873.00,1.27
7872.00,1.27
7871.00,1.27
7870.00,1.27
7869.00,1.27
7868.00,1.27
7867.00,1.27
7866.00,1.27
7865.00,1.27
7864.00,1.27
7863.00,1.27
7862.00,1.27
7861.00,1.27
7860.00,1.27
7859.00,1.27
7858.00,1.27
7857.00,1.27
7856.00,1.27
7855.00,1.27
7854.00,1.28
7853.00,1.28
7852.00,1.28
7851.00,1.28
7850.00,1.28
7849.00,1.28
7848.00,1.28
7847.00,1.28
7846.00,1.28
7845.00,1.29
7844.00,1.29
7843.00,1.29
7842.00,1.29
7841.00,1.29
7840.00,1.29
7839.00,1.29
7838.00,1.29
7837.00,1.29
7836.00,1.29
7835.00,1.29
7834.00,1.29
7833.00,1.29
7832.00,1.29
7831.00,1.29
7830.00,1.29
7829.00,1.29
7828.00,1.29
7827.00,1.29
7826.00,1.29
7825.00,1.29
7824.00,1.28
7823.00,1.28
7822.00,1.28
7821.00,1.28
7820.00,1.28
7819.00,1.28
7818.00,1.28
7817.00,1.28
7816.00,1.28
7815.00,1.27
7814.00,1.27
7813.00,1.27
7812.00,1.27
7811.00,1.27
7810.00,1.27
7809.00,1.27
7808.00,1.27
7807.00,1.27
7806.00,1.27
7805.00,1.27
7804.00,1.27
7803.00,1.27
7802.00,1.27
7801.00,1.27
7800.00,1.27
7799.00,1.27
7798.00,1.27
7797.00,1.27
7796.00,1.27
7795.00,1.27
7794.00,1.27
7793.00,1.27
7792.00,1.27
7791.00,1.28
7790.00,1.28
7789.00,1.28
7788.00,1.28
7787.00,1.28
7786.00,1.28
7785.00,1.28
7784.00,1.28
7783.00,1.28
7782.00,1.28
7781.00,1.28
7780.00,1.28
7779.00,1.28
7778.00,1.28
7777.00,1.27
7776.00,1.27
7775.00,1.27
7774.00,1.27
7773.00,1.27
7772.00,1.27
7771.00,1.27
7770.00,1.27
7769.00,1.27
7768.00,1.28
7767.00,1.28
7766.00,1.28
7765.00,1.28
7764.00,1.28
7763.00,1.28
7762.00,1.28
7761.00,1.28
7760.00,1.28
7759.00,1.28
7758.00,1.29
7757.00,1.29
7756.00,1.29
7755.00,1.29
7754.00,1.29
7753.00,1.29
7752.00,1.29
7751.00,1.29
7750.00,1.29
7749.00,1.29
7748.00,1.29
7747.00,1.29
7746.00,1.29
7745.00,1.29
7744.00,1.29
7743.00,1.29
7742.00,1.29
7741.00,1.29
7740.00,1.29
7739.00,1.29
7738.00,1.29
7737.00,1.29
7736.00,1.29
7735.00,1.29
7734.00,1.29
7733.00,1.29
7732.00,1.29
7731.00,1.29
7730.00,1.29
7729.00,1.29
7728.00,1.29
7727.00,1.29
7726.00,1.29
7725.00,1.29
7724.00,1.29
7723.00,1.29
7722.00,1.29
7721.00,1.29
7720.00,1.29
7719.00,1.30
7718.00,1.30
7717.00,1.30
7716.00,1.30
7715.00,1.30
7714.00,1.30
7713.00,1.30
7712.00,1.30
7711.00,1.30
7710.00,1.30
7709.00,1.30
7708.00,1.31
7707.00,1.31
7706.00,1.31
7705.00,1.31
7704.00,1.31
7703.00,1.31
7702.00,1.31
7701.00,1.31
7700.00,1.31
7699.00,1.31
7698.00,1.31
7697.00,1.31
7696.00,1.31
7695.00,1.31
7694.00,1.31
7693.00,1.31
7692.00,1.31
7691.00,1.31
7690.00,1.31
7689.00,1.31
7688.00,1.31
7687.00,1.30
7686.00,1.30
7685.00,1.30
7684.00,1.30
7683.00,1.30
7682.00,1.30
7681.00,1.30
7680.00,1.29
7679.00,1.29
7678.00,1.29
7677.00,1.29
7676.00,1.29
7675.00,1.29
7674.00,1.29
7673.00,1.29
7672.00,1.29
7671.00,1.29
7670.00,1.29
7669.00,1.29
7668.00,1.29
7667.00,1.29
7666.00,1.29
7665.00,1.29
7664.00,1.30
7663.00,1.30
7662.00,1.30
7661.00,1.30
7660.00,1.30
7659.00,1.30
7658.00,1.30
7657.00,1.30
7656.00,1.30
7655.00,1.30
7654.00,1.30
7653.00,1.30
7652.00,1.30
7651.00,1.30
7650.00,1.30
7649.00,1.30
7648.00,1.30
7647.00,1.30
7646.00,1.30
7645.00,1.30
7644.00,1.30
7643.00,1.30
7642.00,1.30
7641.00,1.30
7640.00,1.30
7639.00,1.30
7638.00,1.30
7637.00,1.30
7636.00,1.30
7635.00,1.30
7634.00,1.30
7633.00,1.30
7632.00,1.30
7631.00,1.30
7630.00,1.30
7629.00,1.30
7628.00,1.30
7627.00,1.30
7626.00,1.30
7625.00,1.30
7624.00,1.30
7623.00,1.30
7622.00,1.30
7621.00,1.30
7620.00,1.30
7619.00,1.30
7618.00,1.30
7617.00,1.30
7616.00,1.30
7615.00,1.30
7614.00,1.30
7613.00,1.30
7612.00,1.30
7611.00,1.30
7610.00,1.30
7609.00,1.30
7608.00,1.30
7607.00,1.30
7606.00,1.30
7605.00,1.30
7604.00,1.30
7603.00,1.30
7602.00,1.30
7601.00,1.30
7600.00,1.30
7599.00,1.30
7598.00,1.30
7597.00,1.30
7596.00,1.30
7595.00,1.30
7594.00,1.30
7593.00,1.30
7592.00,1.30
7591.00,1.30
7590.00,1.30
7589.00,1.30
7588.00,1.30
7587.00,1.30
7586.00,1.30
7585.00,1.30
7584.00,1.30
7583.00,1.30
7582.00,1.30
7581.00,1.30
7580.00,1.30
7579.00,1.30
7578.00,1.30
7577.00,1.30
7576.00,1.30
7575.00,1.30
7574.00,1.30
7573.00,1.30
7572.00,1.30
7571.00,1.30
7570.00,1.30
7569.00,1.30
7568.00,1.30
7567.00,1.30
7566.00,1.30
7565.00,1.30
7564.00,1.30
7563.00,1.30
7562.00,1.30
7561.00,1.30
7560.00,1.30
7559.00,1.30
7558.00,1.30
7557.00,1.30
7556.00,1.30
7555.00,1.30
7554.00,1.30
7553.00,1.30
7552.00,1.30
7551.00,1.30
7550.00,1.30
7549.00,1.30
7548.00,1.30
7547.00,1.30
7546.00,1.30
7545.00,1.30
7544.00,1.30
7543.00,1.30
7542.00,1.30
7541.00,1.30
7540.00,1.30
7539.00,1.30
7538.00,1.30
7537.00,1.30
7536.00,1.30
7535.00,1.30
7534.00,1.30
7533.00,1.30
7532.00,1.30
7531.00,1.30
7530.00,1.30
7529.00,1.30
7528.00,1.30
7527.00,1.30
7526.00,1.30
7525.00,1.30
7524.00,1.30
7523.00,1.30
7522.00,1.30
7521.00,1.29
7520.00,1.29
7519.00,1.29
7518.00,1.29
7517.00,1.29
7516.00,1.29
7515.00,1.29
7514.00,1.29
7513.00,1.28
7512.00,1.28
7511.00,1.28
7510.00,1.28
7509.00,1.28
7508.00,1.28
7507.00,1.28
7506.00,1.28
7505.00,1.28
7504.00,1.28
7503.00,1.28
7502.00,1.28
7501.00,1.28
7500.00,1.28
7499.00,1.28
7498.00,1.29
7497.00,1.29
7496.00,1.29
7495.00,1.29
7494.00,1.29
7493.00,1.29
7492.00,1.29
7491.00,1.29
7490.00,1.29
7489.00,1.29
7488.00,1.29
7487.00,1.29
7486.00,1.29
7485.00,1.29
7484.00,1.29
7483.00,1.29
7482.00,1.29
7481.00,1.29
7480.00,1.29
7479.00,1.29
7478.00,1.29
7477.00,1.29
7476.00,1.29
7475.00,1.29
7474.00,1.29
7473.00,1.28
7472.00,1.28
7471.00,1.28
7470.00,1.28
7469.00,1.28
7468.00,1.28
7467.00,1.28
7466.00,1.28
7465.00,1.28
7464.00,1.28
7463.00,1.28
7462.00,1.28
7461.00,1.28
7460.00,1.28
7459.00,1.28
7458.00,1.28
7457.00,1.28
7456.00,1.28
7455.00,1.28
7454.00,1.28
7453.00,1.28
7452.00,1.28
7451.00,1.28
7450.00,1.28
7449.00,1.28
7448.00,1.28
7447.00,1.27
7446.00,1.27
7445.00,1.27
7444.00,1.27
7443.00,1.27
7442.00,1.27
7441.00,1.27
7440.00,1.27
7439.00,1.27
7438.00,1.27
7437.00,1.27
7436.00,1.27
7435.00,1.27
7434.00,1.27
7433.00,1.27
7432.00,1.27
7431.00,1.28
7430.00,1.28
7429.00,1.28
7428.00,1.28
7427.00,1.27
7426.00,1.27
7425.00,1.27
7424.00,1.27
7423.00,1.27
7422.00,1.27
7421.00,1.27
7420.00,1.27
7419.00,1.27
7418.00,1.27
7417.00,1.27
7416.00,1.26
7415.00,1.26
7414.00,1.26
7413.00,1.26
7412.00,1.26
7411.00,1.26
7410.00,1.26
7409.00,1.26
7408.00,1.26
7407.00,1.26
7406.00,1.26
7405.00,1.26
7404.00,1.26
7403.00,1.26
7402.00,1.26
7401.00,1.25
7400.00,1.25
7399.00,1.25
7398.00,1.25
7397.00,1.25
7396.00,1.25
7395.00,1.25
7394.00,1.25
7393.00,1.25
7392.00,1.25
7391.00,1.25
7390.00,1.25
7389.00,1.24
7388.00,1.24
7387.00,1.24
7386.00,1.24
7385.00,1.24
7384.00,1.23
7383.00,1.23
7382.00,1.23
7381.00,1.23
7380.00,1.23
7379.00,1.23
7378.00,1.22
7377.00,1.22
7376.00,1.22
7375.00,1.22
7374.00,1.22
7373.00,1.22
7372.00,1.22
7371.00,1.22
7370.00,1.22
7369.00,1.22
7368.00,1.21
7367.00,1.21
7366.00,1.21
7365.00,1.21
7364.00,1.21
7363.00,1.21
7362.00,1.21
7361.00,1.21
7360.00,1.21
7359.00,1.21
7358.00,1.21
7357.00,1.21
7356.00,1.21
7355.00,1.21
7354.00,1.21
7353.00,1.21
7352.00,1.21
7351.00,1.21
7350.00,1.21
7349.00,1.21
7348.00,1.21
7347.00,1.21
7346.00,1.21
7345.00,1.21
7344.00,1.21
7343.00,1.21
7342.00,1.21
7341.00,1.21
7340.00,1.21
7339.00,1.21
7338.00,1.21
7337.00,1.21
7336.00,1.21
7335.00,1.21
7334.00,1.21
7333.00,1.21
7332.00,1.21
7331.00,1.21
7330.00,1.21
7329.00,1.21
7328.00,1.21
7327.00,1.21
7326.00,1.21
7325.00,1.21
7324.00,1.21
7323.00,1.21
7322.00,1.21
7321.00,1.21
7320.00,1.21
7319.00,1.21
7318.00,1.21
7317.00,1.21
7316.00,1.21
7315.00,1.21
7314.00,1.21
7313.00,1.21
7312.00,1.21
7311.00,1.21
7310.00,1.21
7309.00,1.21
7308.00,1.20
7307.00,1.20
7306.00,1.20
7305.00,1.20
7304.00,1.20
7303.00,1.20
7302.00,1.20
7301.00,1.20
7300.00,1.20
7299.00,1.20
7298.00,1.20
7297.00,1.20
7296.00,1.20
7295.00,1.20
7294.00,1.20
7293.00,1.20
7292.00,1.20
7291.00,1.20
7290.00,1.20
7289.00,1.20
7288.00,1.20
7287.00,1.20
7286.00,1.19
7285.00,1.19
7284.00,1.19
7283.00,1.19
7282.00,1.19
7281.00,1.19
7280.00,1.18
7279.00,1.18
7278.00,1.18
7277.00,1.18
7276.00,1.18
7275.00,1.18
7274.00,1.18
7273.00,1.18
7272.00,1.18
7271.00,1.18
7270.00,1.18
7269.00,1.18
7268.00,1.18
7267.00,1.18
7266.00,1.18
7265.00,1.18
7264.00,1.18
7263.00,1.18
7262.00,1.18
7261.00,1.18
7260.00,1.18
7259.00,1.17
7258.00,1.17
7257.00,1.17
7256.00,1.17
7255.00,1.17
7254.00,1.17
7253.00,1.17
7252.00,1.17
7251.00,1.16
7250.00,1.16
7249.00,1.16
7248.00,1.16
7247.00,1.16
7246.00,1.15
7245.00,1.15
7244.00,1.15
7243.00,1.15
7242.00,1.15
7241.00,1.14
7240.00,1.14
7239.00,1.14
7238.00,1.14
7237.00,1.14
7236.00,1.14
7235.00,1.13
7234.00,1.13
7233.00,1.13
7232.00,1.13
7231.00,1.13
7230.00,1.12
7229.00,1.12
7228.00,1.12
7227.00,1.11
7226.00,1.11
7225.00,1.11
7224.00,1.10
7223.00,1.10
7222.00,1.09
7221.00,1.09
7220.00,1.09
7219.00,1.08
7218.00,1.08
7217.00,1.08
7216.00,1.07
7215.00,1.07
7214.00,1.07
7213.00,1.07
7212.00,1.06
7211.00,1.06
7210.00,1.06
7209.00,1.06
7208.00,1.06
7207.00,1.05
7206.00,1.05
7205.00,1.05
7204.00,1.05
7203.00,1.05
7202.00,1.05
7201.00,1.05
7200.00,1.05
7199.00,1.04
7198.00,1.04
7197.00,1.04
7196.00,1.04
7195.00,1.04
7194.00,1.04
7193.00,1.04
7192.00,1.03
7191.00,1.03
7190.00,1.03
7189.00,1.03
7188.00,1.03
7187.00,1.02
7186.00,1.02
7185.00,1.02
7184.00,1.02
7183.00,1.01
7182.00,1.01
7181.00,1.01
7180.00,1.01
7179.00,1.00
7178.00,1.00
7177.00,1.00
7176.00,1.00
7175.00,1.00
7174.00,1.00
7173.00,0.99
7172.00,0.99
7171.00,0.99
7170.00,0.99
7169.00,0.99
7168.00,0.98
7167.00,0.98
7166.00,0.98
7165.00,0.98
7164.00,0.98
7163.00,0.97
7162.00,0.97
7161.00,0.97
7160.00,0.97
7159.00,0.97
7158.00,0.96
7157.00,0.96
7156.00,0.96
7155.00,0.96
7154.00,0.95
7153.00,0.95
7152.00,0.95
7151.00,0.95
7150.00,0.95
7149.00,0.94
7148.00,0.94
7147.00,0.94
7146.00,0.94
7145.00,0.94
7144.00,0.93
7143.00,0.93
7142.00,0.93
7141.00,0.93
7140.00,0.93
7139.00,0.92
7138.00,0.92
7137.00,0.92
7136.00,0.92
7135.00,0.92
7134.00,0.91
7133.00,0.91
7132.00,0.91
7131.00,0.91
7130.00,0.91
7129.00,0.91
7128.00,0.90
7127.00,0.90
7126.00,0.90
7125.00,0.90
7124.00,0.90
7123.00,0.89
7122.00,0.89
7121.00,0.89
7120.00,0.89
7119.00,0.89
7118.00,0.88
7117.00,0.88
7116.00,0.88
7115.00,0.88
7114.00,0.87
7113.00,0.87
7112.00,0.87
7111.00,0.87
7110.00,0.86
7109.00,0.86
7108.00,0.86
7107.00,0.86
7106.00,0.86
7105.00,0.85
7104.00,0.85
7103.00,0.85
7102.00,0.85
7101.00,0.84
7100.00,0.84
7099.00,0.84
7098.00,0.84
7097.00,0.84
7096.00,0.83
7095.00,0.83
7094.00,0.83
7093.00,0.83
7092.00,0.83
7091.00,0.82
7090.00,0.82
7089.00,0.82
7088.00,0.82
7087.00,0.82
7086.00,0.81
7085.00,0.81
7084.00,0.81
7083.00,0.81
7082.00,0.81
7081.00,0.81
7080.00,0.80
7079.00,0.80
7078.00,0.80
7077.00,0.80
7076.00,0.80
7075.00,0.80
7074.00,0.79
7073.00,0.79
7072.00,0.79
7071.00,0.79
7070.00,0.79
7069.00,0.79
7068.00,0.79
7067.00,0.79
7066.00,0.79
7065.00,0.79
7064.00,0.79
7063.00,0.78
7062.00,0.78
7061.00,0.78
7060.00,0.78
7059.00,0.78
7058.00,0.78
7057.00,0.78
7056.00,0.78
7055.00,0.78
7054.00,0.78
7053.00,0.77
7052.00,0.77
7051.00,0.77
7050.00,0.77
7049.00,0.77
7048.00,0.76
7047.00,0.76
7046.00,0.76
7045.00,0.76
7044.00,0.76
7043.00,0.75
7042.00,0.75
7041.00,0.75
7040.00,0.75
7039.00,0.75
7038.00,0.75
7037.00,0.75
7036.00,0.75
7035.00,0.75
7034.00,0.75
7033.00,0.75
7032.00,0.75
7031.00,0.75
7030.00,0.74
7029.00,0.74
7028.00,0.74
7027.00,0.74
7026.00,0.74
7025.00,0.74
7024.00,0.74
7023.00,0.74
7022.00,0.73
7021.00,0.73
7020.00,0.73
7019.00,0.73
7018.00,0.73
7017.00,0.73
7016.00,0.73
7015.00,0.73
7014.00,0.72
7013.00,0.72
7012.00,0.72
7011.00,0.72
7010.00,0.72
7009.00,0.72
7008.00,0.72
7007.00,0.72
7006.00,0.72
7005.00,0.72
7004.00,0.72
7003.00,0.72
7002.00,0.72
7001.00,0.72
7000.00,0.72
6999.00,0.72
6998.00,0.72
6997.00,0.72
6996.00,0.72
6995.00,0.72
6994.00,0.71
6993.00,0.71
6992.00,0.71
6991.00,0.71
6990.00,0.71
6989.00,0.71
6988.00,0.71
6987.00,0.71
6986.00,0.71
6985.00,0.70
6984.00,0.70
6983.00,0.70
6982.00,0.70
6981.00,0.70
6980.00,0.70
6979.00,0.70
6978.00,0.70
6977.00,0.70
6976.00,0.70
6975.00,0.69
6974.00,0.69
6973.00,0.69
6972.00,0.69
6971.00,0.69
6970.00,0.69
6969.00,0.69
6968.00,0.69
6967.00,0.69
6966.00,0.69
6965.00,0.68
6964.00,0.68
6963.00,0.68
6962.00,0.68
6961.00,0.68
6960.00,0.68
6959.00,0.68
6958.00,0.68
6957.00,0.68
6956.00,0.68
6955.00,0.68
6954.00,0.68
6953.00,0.68
6952.00,0.68
6951.00,0.68
6950.00,0.68
6949.00,0.68
6948.00,0.68
6947.00,0.68
6946.00,0.68
6945.00,0.68
6944.00,0.68
6943.00,0.68
6942.00,0.68
6941.00,0.68
6940.00,0.68
6939.00,0.67
6938.00,0.67
6937.00,0.67
6936.00,0.67
6935.00,0.67
6934.00,0.67
6933.00,0.67
6932.00,0.67
6931.00,0.67
6930.00,0.67
6929.00,0.67
6928.00,0.67
6927.00,0.67
6926.00,0.67
6925.00,0.67
6924.00,0.67
6923.00,0.67
6922.00,0.67
6921.00,0.67
6920.00,0.67
6919.00,0.67
6918.00,0.67
6917.00,0.67
6916.00,0.67
6915.00,0.67
6914.00,0.67
6913.00,0.67
6912.00,0.67
6911.00,0.67
6910.00,0.67
6909.00,0.67
6908.00,0.67
6907.00,0.67
6906.00,0.66
6905.00,0.66
6904.00,0.66
6903.00,0.66
6902.00,0.66
6901.00,0.66
6900.00,0.66
6899.00,0.66
6898.00,0.66
6897.00,0.66
6896.00,0.66
6895.00,0.66
6894.00,0.66
6893.00,0.66
6892.00,0.66
6891.00,0.66
6890.00,0.66
6889.00,0.66
6888.00,0.66
6887.00,0.66
6886.00,0.66
6885.00,0.66
6884.00,0.66
6883.00,0.66
6882.00,0.66
6881.00,0.66
6880.00,0.66
6879.00,0.66
6878.00,0.66
6877.00,0.66
6876.00,0.66
6875.00,0.66
6874.00,0.66
6873.00,0.66
6872.00,0.66
6871.00,0.66
6870.00,0.66
6869.00,0.66
6868.00,0.66
6867.00,0.66
6866.00,0.66
6865.00,0.66
6864.00,0.66
6863.00,0.66
6862.00,0.66
6861.00,0.66
6860.00,0.66
6859.00,0.66
6858.00,0.66
6857.00,0.66
6856.00,0.66
6855.00,0.66
6854.00,0.66
6853.00,0.66
6852.00,0.66
6851.00,0.66
6850.00,0.66
6849.00,0.66
6848.00,0.66
6847.00,0.66
6846.00,0.66
6845.00,0.66
6844.00,0.66
6843.00,0.66
6842.00,0.67
6841.00,0.67
6840.00,0.67
6839.00,0.67
6838.00,0.67
6837.00,0.67
6836.00,0.67
6835.00,0.67
6834.00,0.67
6833.00,0.67
6832.00,0.67
6831.00,0.67
6830.00,0.67
6829.00,0.67
6828.00,0.67
6827.00,0.67
6826.00,0.67
6825.00,0.66
6824.00,0.66
6823.00,0.66
6822.00,0.66
6821.00,0.66
6820.00,0.66
6819.00,0.66
6818.00,0.66
6817.00,0.67
6816.00,0.67
6815.00,0.67
6814.00,0.67
6813.00,0.67
6812.00,0.67
6811.00,0.67
6810.00,0.67
6809.00,0.67
6808.00,0.67
6807.00,0.67
6806.00,0.67
6805.00,0.68
6804.00,0.68
6803.00,0.68
6802.00,0.68
6801.00,0.68
6800.00,0.68
6799.00,0.68
6798.00,0.68
6797.00,0.68
6796.00,0.68
6795.00,0.68
6794.00,0.68
6793.00,0.68
6792.00,0.68
6791.00,0.68
6790.00,0.68
6789.00,0.68
6788.00,0.68
6787.00,0.68
6786.00,0.68
6785.00,0.68
6784.00,0.68
6783.00,0.68
6782.00,0.68
6781.00,0.68
6780.00,0.69
6779.00,0.69
6778.00,0.69
6777.00,0.69
6776.00,0.69
6775.00,0.68
6774.00,0.68
6773.00,0.68
6772.00,0.68
6771.00,0.68
6770.00,0.68
6769.00,0.68
6768.00,0.68
6767.00,0.68
6766.00,0.68
6765.00,0.68
6764.00,0.68
6763.00,0.68
6762.00,0.68
6761.00,0.68
6760.00,0.68
6759.00,0.68
6758.00,0.68
6757.00,0.68
6756.00,0.68
6755.00,0.68
6754.00,0.68
6753.00,0.68
6752.00,0.68
6751.00,0.69
6750.00,0.69
6749.00,0.69
6748.00,0.69
6747.00,0.69
6746.00,0.69
6745.00,0.69
6744.00,0.69
6743.00,0.69
6742.00,0.69
6741.00,0.70
6740.00,0.70
6739.00,0.70
6738.00,0.70
6737.00,0.70
6736.00,0.70
6735.00,0.70
6734.00,0.70
6733.00,0.70
6732.00,0.70
6731.00,0.70
6730.00,0.70
6729.00,0.71
6728.00,0.71
6727.00,0.71
6726.00,0.71
6725.00,0.71
6724.00,0.71
6723.00,0.71
6722.00,0.71
6721.00,0.71
6720.00,0.71
6719.00,0.71
6718.00,0.71
6717.00,0.72
6716.00,0.72
6715.00,0.72
6714.00,0.72
6713.00,0.72
6712.00,0.72
6711.00,0.72
6710.00,0.72
6709.00,0.72
6708.00,0.72
6707.00,0.73
6706.00,0.73
6705.00,0.73
6704.00,0.73
6703.00,0.73
6702.00,0.73
6701.00,0.73
6700.00,0.73
6699.00,0.73
6698.00,0.73
6697.00,0.73
6696.00,0.73
6695.00,0.73
6694.00,0.73
6693.00,0.73
6692.00,0.73
6691.00,0.73
6690.00,0.73
6689.00,0.74
6688.00,0.74
6687.00,0.74
6686.00,0.74
6685.00,0.74
6684.00,0.74
6683.00,0.75
6682.00,0.75
6681.00,0.75
6680.00,0.75
6679.00,0.75
6678.00,0.75
6677.00,0.76
6676.00,0.76
6675.00,0.76
6674.00,0.76
6673.00,0.76
6672.00,0.76
6671.00,0.76
6670.00,0.76
6669.00,0.76
6668.00,0.76
6667.00,0.76
6666.00,0.76
6665.00,0.76
6664.00,0.76
6663.00,0.76
6662.00,0.76
6661.00,0.76
6660.00,0.76
6659.00,0.76
6658.00,0.76
6657.00,0.76
6656.00,0.76
6655.00,0.76
6654.00,0.76
6653.00,0.76
6652.00,0.76
6651.00,0.76
6650.00,0.77
6649.00,0.77
6648.00,0.77
6647.00,0.77
6646.00,0.77
6645.00,0.77
6644.00,0.77
6643.00,0.77
6642.00,0.77
6641.00,0.78
6640.00,0.78
6639.00,0.78
6638.00,0.78
6637.00,0.78
6636.00,0.78
6635.00,0.78
6634.00,0.78
6633.00,0.79
6632.00,0.79
6631.00,0.79
6630.00,0.79
6629.00,0.79
6628.00,0.79
6627.00,0.79
6626.00,0.80
6625.00,0.80
6624.00,0.80
6623.00,0.80
6622.00,0.80
6621.00,0.80
6620.00,0.80
6619.00,0.80
6618.00,0.80
6617.00,0.80
6616.00,0.80
6615.00,0.80
6614.00,0.80
6613.00,0.80
6612.00,0.80
6611.00,0.80
6610.00,0.80
6609.00,0.80
6608.00,0.80
6607.00,0.80
6606.00,0.81
6605.00,0.81
6604.00,0.81
6603.00,0.81
6602.00,0.81
6601.00,0.81
6600.00,0.81
6599.00,0.81
6598.00,0.82
6597.00,0.82
6596.00,0.82
6595.00,0.82
6594.00,0.82
6593.00,0.82
6592.00,0.82
6591.00,0.82
6590.00,0.82
6589.00,0.82
6588.00,0.82
6587.00,0.82
6586.00,0.83
6585.00,0.83
6584.00,0.83
6583.00,0.83
6582.00,0.83
6581.00,0.83
6580.00,0.83
6579.00,0.83
6578.00,0.83
6577.00,0.83
6576.00,0.83
6575.00,0.83
6574.00,0.83
6573.00,0.83
6572.00,0.83
6571.00,0.83
6570.00,0.84
6569.00,0.84
6568.00,0.84
6567.00,0.84
6566.00,0.84
6565.00,0.84
6564.00,0.84
6563.00,0.84
6562.00,0.84
6561.00,0.84
6560.00,0.84
6559.00,0.84
6558.00,0.84
6557.00,0.84
6556.00,0.84
6555.00,0.84
6554.00,0.84
6553.00,0.84
6552.00,0.85
6551.00,0.85
6550.00,0.85
6549.00,0.85
6548.00,0.85
6547.00,0.85
6546.00,0.85
6545.00,0.85
6544.00,0.85
6543.00,0.85
6542.00,0.85
6541.00,0.85
6540.00,0.85
6539.00,0.85
6538.00,0.86
6537.00,0.86
6536.00,0.86
6535.00,0.86
6534.00,0.86
6533.00,0.86
6532.00,0.86
6531.00,0.86
6530.00,0.86
6529.00,0.86
6528.00,0.86
6527.00,0.86
6526.00,0.86
6525.00,0.86
6524.00,0.86
6523.00,0.87
6522.00,0.87
6521.00,0.87
6520.00,0.87
6519.00,0.87
6518.00,0.87
6517.00,0.87
6516.00,0.87
6515.00,0.87
6514.00,0.87
6513.00,0.87
6512.00,0.87
6511.00,0.88
6510.00,0.88
6509.00,0.88
6508.00,0.88
6507.00,0.88
6506.00,0.88
6505.00,0.88
6504.00,0.88
6503.00,0.88
6502.00,0.88
6501.00,0.88
6500.00,0.88
6499.00,0.88
6498.00,0.88
6497.00,0.88
6496.00,0.88
6495.00,0.88
6494.00,0.89
6493.00,0.89
6492.00,0.89
6491.00,0.89
6490.00,0.89
6489.00,0.89
6488.00,0.89
6487.00,0.89
6486.00,0.89
6485.00,0.89
6484.00,0.89
6483.00,0.90
6482.00,0.90
6481.00,0.90
6480.00,0.90
6479.00,0.89
6478.00,0.89
6477.00,0.89
6476.00,0.89
6475.00,0.89
6474.00,0.89
6473.00,0.89
6472.00,0.89
6471.00,0.89
6470.00,0.89
6469.00,0.89
6468.00,0.89
6467.00,0.89
6466.00,0.89
6465.00,0.89
6464.00,0.89
6463.00,0.89
6462.00,0.89
6461.00,0.89
6460.00,0.89
6459.00,0.89
6458.00,0.89
6457.00,0.89
6456.00,0.89
6455.00,0.89
6454.00,0.89
6453.00,0.89
6452.00,0.89
6451.00,0.89
6450.00,0.89
6449.00,0.89
6448.00,0.89
6447.00,0.90
6446.00,0.90
6445.00,0.90
6444.00,0.90
6443.00,0.90
6442.00,0.90
6441.00,0.90
6440.00,0.90
6439.00,0.91
6438.00,0.91
6437.00,0.91
6436.00,0.91
6435.00,0.91
6434.00,0.91
6433.00,0.91
6432.00,0.91
6431.00,0.92
6430.00,0.92
6429.00,0.92
6428.00,0.92
6427.00,0.92
6426.00,0.92
6425.00,0.92
6424.00,0.92
6423.00,0.92
6422.00,0.92
6421.00,0.92
6420.00,0.92
6419.00,0.92
6418.00,0.92
6417.00,0.92
6416.00,0.92
6415.00,0.92
6414.00,0.91
6413.00,0.91
6412.00,0.91
6411.00,0.91
6410.00,0.91
6409.00,0.91
6408.00,0.91
6407.00,0.91
6406.00,0.91
6405.00,0.91
6404.00,0.91
6403.00,0.91
6402.00,0.91
6401.00,0.91
6400.00,0.91
6399.00,0.91
6398.00,0.91
6397.00,0.91
6396.00,0.91
6395.00,0.91
6394.00,0.91
6393.00,0.92
6392.00,0.92
6391.00,0.92
6390.00,0.92
6389.00,0.92
6388.00,0.92
6387.00,0.92
6386.00,0.93
6385.00,0.93
6384.00,0.93
6383.00,0.93
6382.00,0.93
6381.00,0.93
6380.00,0.93
6379.00,0.93
6378.00,0.93
6377.00,0.93
6376.00,0.93
6375.00,0.93
6374.00,0.93
6373.00,0.93
6372.00,0.93
6371.00,0.93
6370.00,0.93
6369.00,0.93
6368.00,0.93
6367.00,0.93
6366.00,0.93
6365.00,0.93
6364.00,0.93
6363.00,0.93
6362.00,0.93
6361.00,0.93
6360.00,0.93
6359.00,0.93
6358.00,0.93
6357.00,0.93
6356.00,0.93
6355.00,0.93
6354.00,0.93
6353.00,0.93
6352.00,0.94
6351.00,0.94
6350.00,0.94
6349.00,0.94
6348.00,0.94
6347.00,0.94
6346.00,0.94
6345.00,0.94
6344.00,0.94
6343.00,0.94
6342.00,0.94
6341.00,0.94
6340.00,0.94
6339.00,0.94
6338.00,0.94
6337.00,0.94
6336.00,0.95
6335.00,0.95
6334.00,0.95
6333.00,0.95
6332.00,0.95
6331.00,0.95
6330.00,0.95
6329.00,0.95
6328.00,0.95
6327.00,0.95
6326.00,0.95
6325.00,0.95
6324.00,0.95
6323.00,0.95
6322.00,0.95
6321.00,0.95
6320.00,0.95
6319.00,0.96
6318.00,0.96
6317.00,0.96
6316.00,0.96
6315.00,0.96
6314.00,0.96
6313.00,0.96
6312.00,0.96
6311.00,0.96
6310.00,0.96
6309.00,0.96
6308.00,0.96
6307.00,0.96
6306.00,0.96
6305.00,0.96
6304.00,0.96
6303.00,0.96
6302.00,0.96
6301.00,0.96
6300.00,0.96
6299.00,0.97
6298.00,0.97
6297.00,0.97
6296.00,0.97
6295.00,0.97
6294.00,0.97
6293.00,0.97
6292.00,0.98
6291.00,0.98
6290.00,0.98
6289.00,0.98
6288.00,0.98
6287.00,0.98
6286.00,0.98
6285.00,0.98
6284.00,0.98
6283.00,0.99
6282.00,0.99
6281.00,0.99
6280.00,0.99
6279.00,0.99
6278.00,0.99
6277.00,0.99
6276.00,0.99
6275.00,0.99
6274.00,0.99
6273.00,0.99
6272.00,0.99
6271.00,0.99
6270.00,0.99
6269.00,0.99
6268.00,0.99
6267.00,0.99
6266.00,1.00
6265.00,1.00
6264.00,1.00
6263.00,1.00
6262.00,1.00
6261.00,1.00
6260.00,1.00
6259.00,1.00
6258.00,1.00
6257.00,1.00
6256.00,1.00
6255.00,1.00
6254.00,1.01
6253.00,1.01
6252.00,1.01
6251.00,1.01
6250.00,1.01
6249.00,1.01
6248.00,1.01
6247.00,1.01
6246.00,1.01
6245.00,1.02
6244.00,1.02
6243.00,1.02
6242.00,1.02
6241.00,1.02
6240.00,1.02
6239.00,1.02
6238.00,1.03
6237.00,1.03
6236.00,1.03
6235.00,1.03
6234.00,1.03
6233.00,1.03
6232.00,1.03
6231.00,1.03
6230.00,1.03
6229.00,1.04
6228.00,1.04
6227.00,1.04
6226.00,1.04
6225.00,1.04
6224.00,1.04
6223.00,1.04
6222.00,1.04
6221.00,1.04
6220.00,1.04
6219.00,1.04
6218.00,1.04
6217.00,1.05
6216.00,1.05
6215.00,1.05
6214.00,1.05
6213.00,1.05
6212.00,1.05
6211.00,1.05
6210.00,1.05
6209.00,1.05
6208.00,1.06
6207.00,1.06
6206.00,1.06
6205.00,1.06
6204.00,1.06
6203.00,1.06
6202.00,1.06
6201.00,1.06
6200.00,1.07
6199.00,1.07
6198.00,1.07
6197.00,1.07
6196.00,1.07
6195.00,1.07
6194.00,1.07
6193.00,1.07
6192.00,1.07
6191.00,1.08
6190.00,1.08
6189.00,1.08
6188.00,1.08
6187.00,1.08
6186.00,1.08
6185.00,1.08
6184.00,1.08
6183.00,1.08
6182.00,1.08
6181.00,1.08
6180.00,1.09
6179.00,1.09
6178.00,1.09
6177.00,1.09
6176.00,1.09
6175.00,1.09
6174.00,1.09
6173.00,1.09
6172.00,1.10
6171.00,1.10
6170.00,1.10
6169.00,1.10
6168.00,1.10
6167.00,1.10
6166.00,1.10
6165.00,1.10
6164.00,1.11
6163.00,1.11
6162.00,1.11
6161.00,1.11
6160.00,1.11
6159.00,1.11
6158.00,1.11
6157.00,1.11
6156.00,1.11
6155.00,1.11
6154.00,1.12
6153.00,1.12
6152.00,1.12
6151.00,1.12
6150.00,1.12
6149.00,1.12
6148.00,1.12
6147.00,1.12
6146.00,1.12
6145.00,1.13
6144.00,1.13
6143.00,1.13
6142.00,1.13
6141.00,1.13
6140.00,1.13
6139.00,1.13
6138.00,1.13
6137.00,1.13
6136.00,1.13
6135.00,1.13
6134.00,1.14
6133.00,1.14
6132.00,1.14
6131.00,1.14
6130.00,1.14
6129.00,1.14
6128.00,1.14
6127.00,1.14
6126.00,1.14
6125.00,1.15
6124.00,1.15
6123.00,1.15
6122.00,1.15
6121.00,1.15
6120.00,1.15
6119.00,1.15
6118.00,1.15
6117.00,1.15
6116.00,1.16
6115.00,1.16
6114.00,1.16
6113.00,1.16
6112.00,1.16
6111.00,1.16
6110.00,1.16
6109.00,1.16
6108.00,1.17
6107.00,1.17
6106.00,1.17
6105.00,1.17
6104.00,1.17
6103.00,1.17
6102.00,1.17
6101.00,1.18
6100.00,1.18
6099.00,1.18
6098.00,1.18
6097.00,1.18
6096.00,1.18
6095.00,1.18
6094.00,1.18
6093.00,1.18
6092.00,1.19
6091.00,1.19
6090.00,1.19
6089.00,1.19
6088.00,1.19
6087.00,1.19
6086.00,1.19
6085.00,1.19
6084.00,1.19
6083.00,1.19
6082.00,1.19
6081.00,1.19
6080.00,1.19
6079.00,1.19
6078.00,1.19
6077.00,1.20
6076.00,1.20
6075.00,1.20
6074.00,1.20
6073.00,1.20
6072.00,1.20
6071.00,1.20
6070.00,1.20
6069.00,1.20
6068.00,1.20
6067.00,1.20
6066.00,1.20
6065.00,1.21
6064.00,1.21
6063.00,1.21
6062.00,1.21
6061.00,1.21
6060.00,1.21
6059.00,1.21
6058.00,1.21
6057.00,1.21
6056.00,1.21
6055.00,1.21
6054.00,1.21
6053.00,1.22
6052.00,1.22
6051.00,1.22
6050.00,1.22
6049.00,1.22
6048.00,1.22
6047.00,1.22
6046.00,1.22
6045.00,1.22
6044.00,1.22
6043.00,1.22
6042.00,1.22
6041.00,1.22
6040.00,1.22
6039.00,1.22
6038.00,1.22
6037.00,1.22
6036.00,1.22
6035.00,1.22
6034.00,1.22
6033.00,1.22
6032.00,1.22
6031.00,1.22
6030.00,1.22
6029.00,1.22
6028.00,1.22
6027.00,1.22
6026.00,1.22
6025.00,1.22
6024.00,1.22
6023.00,1.22
6022.00,1.22
6021.00,1.22
6020.00,1.22
6019.00,1.22
6018.00,1.22
6017.00,1.22
6016.00,1.22
6015.00,1.22
6014.00,1.22
6013.00,1.22
6012.00,1.22
6011.00,1.22
6010.00,1.22
6009.00,1.22
6008.00,1.22
6007.00,1.22
6006.00,1.22
6005.00,1.22
6004.00,1.22
6003.00,1.22
6002.00,1.22
6001.00,1.22
6000.00,1.22
5999.00,1.22
5998.00,1.22
5997.00,1.22
5996.00,1.22
5995.00,1.21
5994.00,1.21
5993.00,1.21
5992.00,1.21
5991.00,1.21
5990.00,1.21
5989.00,1.21
5988.00,1.21
5987.00,1.21
5986.00,1.20
5985.00,1.20
5984.00,1.20
5983.00,1.20
5982.00,1.19
5981.00,1.19
5980.00,1.19
5979.00,1.18
5978.00,1.18
5977.00,1.18
5976.00,1.17
5975.00,1.17
5974.00,1.16
5973.00,1.16
5972.00,1.16
5971.00,1.15
5970.00,1.15
5969.00,1.14
5968.00,1.14
5967.00,1.13
5966.00,1.12
5965.00,1.12
5964.00,1.11
5963.00,1.11
5962.00,1.10
5961.00,1.09
5960.00,1.09
5959.00,1.08
5958.00,1.07
5957.00,1.07
5956.00,1.06
5955.00,1.05
5954.00,1.05
5953.00,1.04
5952.00,1.04
5951.00,1.03
5950.00,1.03
5949.00,1.02
5948.00,1.02
5947.00,1.01
5946.00,1.01
5945.00,1.01
5944.00,1.00
5943.00,1.00
5942.00,1.00
5941.00,1.00
5940.00,1.00
5939.00,1.00
5938.00,1.00
5937.00,1.00
5936.00,1.00
5935.00,1.00
5934.00,1.00
5933.00,1.00
5932.00,1.00
5931.00,0.99
5930.00,0.99
5929.00,0.99
5928.00,0.99
5927.00,0.99
5926.00,0.99
5925.00,0.99
5924.00,0.99
5923.00,0.99
5922.00,0.99
5921.00,0.98
5920.00,0.98
5919.00,0.98
5918.00,0.98
5917.00,0.97
5916.00,0.97
5915.00,0.97
5914.00,0.96
5913.00,0.96
5912.00,0.96
5911.00,0.96
5910.00,0.95
5909.00,0.95
5908.00,0.95
5907.00,0.95
5906.00,0.95
5905.00,0.95
5904.00,0.94
5903.00,0.94
5902.00,0.94
5901.00,0.94
5900.00,0.94
5899.00,0.94
5898.00,0.94
5897.00,0.94
5896.00,0.94
5895.00,0.94
5894.00,0.95
5893.00,0.95
5892.00,0.95
5891.00,0.95
5890.00,0.95
5889.00,0.95
5888.00,0.96
5887.00,0.96
5886.00,0.96
5885.00,0.96
5884.00,0.97
5883.00,0.97
5882.00,0.97
5881.00,0.98
5880.00,0.98
5879.00,0.98
5878.00,0.98
5877.00,0.99
5876.00,0.99
5875.00,0.99
5874.00,0.99
5873.00,1.00
5872.00,1.00
5871.00,1.00
5870.00,1.00
5869.00,1.00
5868.00,1.00
5867.00,1.01
5866.00,1.01
5865.00,1.01
5864.00,1.01
5863.00,1.01
5862.00,1.01
5861.00,1.01
5860.00,1.01
5859.00,1.01
5858.00,1.02
5857.00,1.02
5856.00,1.02
5855.00,1.02
5854.00,1.02
5853.00,1.02
5852.00,1.02
5851.00,1.02
5850.00,1.02
5849.00,1.02
5848.00,1.03
5847.00,1.03
5846.00,1.03
5845.00,1.03
5844.00,1.03
5843.00,1.03
5842.00,1.03
5841.00,1.03
5840.00,1.03
5839.00,1.03
5838.00,1.03
5837.00,1.03
5836.00,1.03
5835.00,1.03
5834.00,1.03
5833.00,1.03
5832.00,1.03
5831.00,1.03
5830.00,1.03
5829.00,1.02
5828.00,1.02
5827.00,1.02
5826.00,1.02
5825.00,1.02
5824.00,1.02
5823.00,1.02
5822.00,1.02
5821.00,1.02
5820.00,1.02
5819.00,1.02
5818.00,1.02
5817.00,1.02
5816.00,1.02
5815.00,1.02
5814.00,1.02
5813.00,1.02
5812.00,1.02
5811.00,1.02
5810.00,1.02
5809.00,1.02
5808.00,1.02
5807.00,1.03
5806.00,1.02
5805.00,1.02
5804.00,1.02
5803.00,1.02
5802.00,1.02
5801.00,1.02
5800.00,1.02
5799.00,1.02
5798.00,1.02
5797.00,1.02
5796.00,1.02
5795.00,1.02
5794.00,1.01
5793.00,1.01
5792.00,1.01
5791.00,1.01
5790.00,1.01
5789.00,1.01
5788.00,1.01
5787.00,1.00
5786.00,1.00
5785.00,1.00
5784.00,1.00
5783.00,1.00
5782.00,1.00
5781.00,0.99
5780.00,0.99
5779.00,0.99
5778.00,0.99
5777.00,0.99
5776.00,0.99
5775.00,0.99
5774.00,0.99
5773.00,0.99
5772.00,0.98
5771.00,0.98
5770.00,0.98
5769.00,0.98
5768.00,0.99
5767.00,0.99
5766.00,0.99
5765.00,0.99
5764.00,0.99
5763.00,0.99
5762.00,0.99
5761.00,1.00
5760.00,1.00
5759.00,1.00
5758.00,1.00
5757.00,1.00
5756.00,1.01
5755.00,1.01
5754.00,1.01
5753.00,1.02
5752.00,1.02
5751.00,1.02
5750.00,1.03
5749.00,1.03
5748.00,1.03
5747.00,1.04
5746.00,1.04
5745.00,1.04
5744.00,1.04
5743.00,1.05
5742.00,1.05
5741.00,1.05
5740.00,1.06
5739.00,1.06
5738.00,1.06
5737.00,1.06
5736.00,1.07
5735.00,1.07
5734.00,1.07
5733.00,1.07
5732.00,1.08
5731.00,1.08
5730.00,1.08
5729.00,1.08
5728.00,1.08
5727.00,1.08
5726.00,1.08
5725.00,1.09
5724.00,1.09
5723.00,1.09
5722.00,1.09
5721.00,1.09
5720.00,1.09
5719.00,1.09
5718.00,1.09
5717.00,1.09
5716.00,1.09
5715.00,1.09
5714.00,1.09
5713.00,1.09
5712.00,1.09
5711.00,1.09
5710.00,1.09
5709.00,1.09
5708.00,1.09
5707.00,1.09
5706.00,1.09
5705.00,1.09
5704.00,1.08
5703.00,1.08
5702.00,1.08
5701.00,1.08
5700.00,1.08
5699.00,1.08
5698.00,1.08
5697.00,1.08
5696.00,1.08
5695.00,1.08
5694.00,1.08
5693.00,1.07
5692.00,1.07
5691.00,1.07
5690.00,1.07
5689.00,1.07
5688.00,1.07
5687.00,1.07
5686.00,1.07
5685.00,1.06
5684.00,1.06
5683.00,1.06
5682.00,1.06
5681.00,1.06
5680.00,1.06
5679.00,1.06
5678.00,1.06
5677.00,1.06
5676.00,1.06
5675.00,1.06
5674.00,1.06
5673.00,1.06
5672.00,1.06
5671.00,1.06
5670.00,1.06
5669.00,1.06
5668.00,1.06
5667.00,1.06
5666.00,1.06
5665.00,1.06
5664.00,1.06
5663.00,1.07
5662.00,1.07
5661.00,1.07
5660.00,1.07
5659.00,1.07
5658.00,1.07
5657.00,1.07
5656.00,1.08
5655.00,1.08
5654.00,1.08
5653.00,1.08
5652.00,1.08
5651.00,1.09
5650.00,1.09
5649.00,1.09
5648.00,1.09
5647.00,1.09
5646.00,1.10
5645.00,1.10
5644.00,1.10
5643.00,1.10
5642.00,1.10
5641.00,1.11
5640.00,1.11
5639.00,1.11
5638.00,1.11
5637.00,1.11
5636.00,1.11
5635.00,1.11
5634.00,1.11
5633.00,1.12
5632.00,1.12
5631.00,1.12
5630.00,1.12
5629.00,1.12
5628.00,1.12
5627.00,1.13
5626.00,1.13
5625.00,1.13
5624.00,1.13
5623.00,1.13
5622.00,1.14
5621.00,1.14
5620.00,1.14
5619.00,1.14
5618.00,1.14
5617.00,1.14
5616.00,1.15
5615.00,1.15
5614.00,1.15
5613.00,1.15
5612.00,1.15
5611.00,1.15
5610.00,1.16
5609.00,1.16
5608.00,1.16
5607.00,1.16
5606.00,1.16
5605.00,1.16
5604.00,1.16
5603.00,1.16
5602.00,1.17
5601.00,1.17
5600.00,1.17
5599.00,1.17
5598.00,1.17
5597.00,1.17
5596.00,1.17
5595.00,1.17
5594.00,1.17
5593.00,1.17
5592.00,1.18
5591.00,1.18
5590.00,1.18
5589.00,1.18
5588.00,1.18
5587.00,1.18
5586.00,1.18
5585.00,1.18
5584.00,1.18
5583.00,1.18
5582.00,1.19
5581.00,1.19
5580.00,1.19
5579.00,1.19
5578.00,1.19
5577.00,1.19
5576.00,1.19
5575.00,1.19
5574.00,1.20
5573.00,1.20
5572.00,1.20
5571.00,1.20
5570.00,1.20
5569.00,1.20
5568.00,1.20
5567.00,1.20
5566.00,1.21
5565.00,1.21
5564.00,1.21
5563.00,1.21
5562.00,1.21
5561.00,1.21
5560.00,1.21
5559.00,1.21
5558.00,1.21
5557.00,1.21
5556.00,1.22
5555.00,1.22
5554.00,1.22
5553.00,1.22
5552.00,1.22
5551.00,1.22
5550.00,1.22
5549.00,1.22
5548.00,1.23
5547.00,1.23
5546.00,1.23
5545.00,1.23
5544.00,1.23
5543.00,1.23
5542.00,1.23
5541.00,1.23
5540.00,1.23
5539.00,1.24
5538.00,1.24
5537.00,1.24
5536.00,1.24
5535.00,1.24
5534.00,1.24
5533.00,1.24
5532.00,1.24
5531.00,1.24
5530.00,1.24
5529.00,1.24
5528.00,1.24
5527.00,1.25
5526.00,1.25
5525.00,1.25
5524.00,1.25
5523.00,1.25
5522.00,1.25
5521.00,1.25
5520.00,1.25
5519.00,1.25
5518.00,1.25
5517.00,1.25
5516.00,1.25
5515.00,1.25
5514.00,1.25
5513.00,1.25
5512.00,1.25
5511.00,1.25
5510.00,1.26
5509.00,1.26
5508.00,1.26
5507.00,1.26
5506.00,1.26
5505.00,1.26
5504.00,1.26
5503.00,1.26
5502.00,1.26
5501.00,1.26
5500.00,1.26
5499.00,1.26
5498.00,1.26
5497.00,1.26
5496.00,1.26
5495.00,1.26
5494.00,1.26
5493.00,1.26
5492.00,1.26
5491.00,1.26
5490.00,1.26
5489.00,1.26
5488.00,1.26
5487.00,1.27
5486.00,1.27
5485.00,1.27
5484.00,1.27
5483.00,1.27
5482.00,1.27
5481.00,1.27
5480.00,1.27
5479.00,1.27
5478.00,1.27
5477.00,1.27
5476.00,1.27
5475.00,1.28
5474.00,1.28
5473.00,1.28
5472.00,1.28
5471.00,1.28
5470.00,1.28
5469.00,1.28
5468.00,1.28
5467.00,1.28
5466.00,1.28
5465.00,1.28
5464.00,1.28
5463.00,1.28
5462.00,1.28
5461.00,1.29
5460.00,1.29
5459.00,1.29
5458.00,1.29
5457.00,1.29
5456.00,1.29
5455.00,1.29
5454.00,1.29
5453.00,1.29
5452.00,1.29
5451.00,1.29
5450.00,1.29
5449.00,1.30
5448.00,1.30
5447.00,1.30
5446.00,1.30
5445.00,1.30
5444.00,1.30
5443.00,1.30
5442.00,1.30
5441.00,1.30
5440.00,1.30
5439.00,1.30
5438.00,1.30
5437.00,1.30
5436.00,1.30
5435.00,1.30
5434.00,1.30
5433.00,1.30
5432.00,1.30
5431.00,1.30
5430.00,1.30
5429.00,1.30
5428.00,1.30
5427.00,1.30
5426.00,1.30
5425.00,1.31
5424.00,1.31
5423.00,1.31
5422.00,1.31
5421.00,1.31
5420.00,1.31
5419.00,1.31
5418.00,1.31
5417.00,1.31
5416.00,1.31
5415.00,1.31
5414.00,1.31
5413.00,1.31
5412.00,1.31
5411.00,1.31
5410.00,1.31
5409.00,1.31
5408.00,1.31
5407.00,1.31
5406.00,1.31
5405.00,1.31
5404.00,1.31
5403.00,1.31
5402.00,1.31
5401.00,1.31
5400.00,1.31
5399.00,1.31
5398.00,1.31
5397.00,1.31
5396.00,1.31
5395.00,1.31
5394.00,1.31
5393.00,1.31
5392.00,1.31
5391.00,1.31
5390.00,1.31
5389.00,1.31
5388.00,1.31
5387.00,1.30
5386.00,1.30
5385.00,1.30
5384.00,1.30
5383.00,1.30
5382.00,1.30
5381.00,1.30
5380.00,1.30
5379.00,1.30
5378.00,1.29
5377.00,1.29
5376.00,1.29
5375.00,1.29
5374.00,1.29
5373.00,1.29
5372.00,1.28
5371.00,1.28
5370.00,1.28
5369.00,1.28
5368.00,1.27
5367.00,1.27
5366.00,1.27
5365.00,1.27
5364.00,1.26
5363.00,1.26
5362.00,1.25
5361.00,1.25
5360.00,1.25
5359.00,1.24
5358.00,1.24
5357.00,1.23
5356.00,1.23
5355.00,1.22
5354.00,1.21
5353.00,1.21
5352.00,1.20
5351.00,1.20
5350.00,1.19
5349.00,1.18
5348.00,1.18
5347.00,1.17
5346.00,1.16
5345.00,1.15
5344.00,1.15
5343.00,1.14
5342.00,1.13
5341.00,1.12
5340.00,1.11
5339.00,1.11
5338.00,1.10
5337.00,1.09
5336.00,1.08
5335.00,1.07
5334.00,1.06
5333.00,1.05
5332.00,1.04
5331.00,1.03
5330.00,1.02
5329.00,1.01
5328.00,1.00
5327.00,0.99
5326.00,0.98
5325.00,0.97
5324.00,0.96
5323.00,0.95
5322.00,0.94
5321.00,0.93
5320.00,0.92
5319.00,0.91
5318.00,0.90
5317.00,0.89
5316.00,0.88
5315.00,0.87
5314.00,0.86
5313.00,0.85
5312.00,0.84
5311.00,0.83
5310.00,0.82
5309.00,0.81
5308.00,0.81
5307.00,0.80
5306.00,0.79
5305.00,0.78
5304.00,0.77
5303.00,0.77
5302.00,0.76
5301.00,0.75
5300.00,0.74
5299.00,0.74
5298.00,0.73
5297.00,0.73
5296.00,0.72
5295.00,0.71
5294.00,0.71
5293.00,0.70
5292.00,0.70
5291.00,0.70
5290.00,0.69
5289.00,0.69
5288.00,0.68
5287.00,0.68
5286.00,0.67
5285.00,0.67
5284.00,0.67
5283.00,0.66
5282.00,0.66
5281.00,0.66
5280.00,0.65
5279.00,0.65
5278.00,0.65
5277.00,0.65
5276.00,0.64
5275.00,0.64
5274.00,0.64
5273.00,0.64
5272.00,0.63
5271.00,0.63
5270.00,0.63
5269.00,0.63
5268.00,0.63
5267.00,0.62
5266.00,0.62
5265.00,0.62
5264.00,0.62
5263.00,0.62
5262.00,0.62
5261.00,0.62
5260.00,0.62
5259.00,0.62
5258.00,0.62
5257.00,0.61
5256.00,0.61
5255.00,0.61
5254.00,0.61
5253.00,0.61
5252.00,0.61
5251.00,0.61
5250.00,0.61
5249.00,0.61
5248.00,0.61
5247.00,0.61
5246.00,0.61
5245.00,0.61
5244.00,0.61
5243.00,0.61
5242.00,0.61
5241.00,0.61
5240.00,0.60
5239.00,0.60
5238.00,0.60
5237.00,0.60
5236.00,0.60
5235.00,0.60
5234.00,0.60
5233.00,0.60
5232.00,0.60
5231.00,0.60
5230.00,0.60
5229.00,0.60
5228.00,0.60
5227.00,0.60
5226.00,0.60
5225.00,0.60
5224.00,0.60
5223.00,0.60
5222.00,0.60
5221.00,0.60
5220.00,0.60
5219.00,0.60
5218.00,0.60
5217.00,0.60
5216.00,0.60
5215.00,0.59
5214.00,0.59
5213.00,0.59
5212.00,0.59
5211.00,0.59
5210.00,0.59
5209.00,0.59
5208.00,0.59
5207.00,0.59
5206.00,0.59
5205.00,0.59
5204.00,0.59
5203.00,0.59
5202.00,0.59
5201.00,0.59
5200.00,0.59
5199.00,0.59
5198.00,0.59
5197.00,0.60
5196.00,0.60
5195.00,0.60
5194.00,0.60
5193.00,0.60
5192.00,0.60
5191.00,0.60
5190.00,0.60
5189.00,0.60
5188.00,0.60
5187.00,0.60
5186.00,0.60
5185.00,0.60
5184.00,0.60
5183.00,0.60
5182.00,0.60
5181.00,0.61
5180.00,0.61
5179.00,0.61
5178.00,0.61
5177.00,0.61
5176.00,0.61
5175.00,0.61
5174.00,0.61
5173.00,0.61
5172.00,0.61
5171.00,0.61
5170.00,0.61
5169.00,0.61
5168.00,0.61
5167.00,0.61
5166.00,0.61
5165.00,0.61
5164.00,0.61
5163.00,0.61
5162.00,0.61
5161.00,0.61
5160.00,0.61
5159.00,0.61
5158.00,0.61
5157.00,0.61
5156.00,0.61
5155.00,0.61
5154.00,0.61
5153.00,0.61
5152.00,0.61
5151.00,0.61
5150.00,0.62
5149.00,0.62
5148.00,0.62
5147.00,0.62
5146.00,0.62
5145.00,0.62
5144.00,0.62
5143.00,0.62
5142.00,0.62
5141.00,0.62
5140.00,0.62
5139.00,0.62
5138.00,0.62
5137.00,0.62
5136.00,0.62
5135.00,0.63
5134.00,0.63
5133.00,0.63
5132.00,0.63
5131.00,0.63
5130.00,0.63
5129.00,0.63
5128.00,0.63
5127.00,0.63
5126.00,0.63
5125.00,0.63
5124.00,0.63
5123.00,0.63
5122.00,0.64
5121.00,0.64
5120.00,0.64
5119.00,0.64
5118.00,0.64
5117.00,0.64
5116.00,0.64
5115.00,0.64
5114.00,0.64
5113.00,0.64
5112.00,0.64
5111.00,0.64
5110.00,0.64
5109.00,0.64
5108.00,0.65
5107.00,0.65
5106.00,0.65
5105.00,0.65
5104.00,0.65
5103.00,0.65
5102.00,0.65
5101.00,0.65
5100.00,0.65
5099.00,0.65
5098.00,0.65
5097.00,0.65
5096.00,0.65
5095.00,0.65
5094.00,0.65
5093.00,0.65
5092.00,0.65
5091.00,0.65
5090.00,0.66
5089.00,0.66
5088.00,0.66
5087.00,0.66
5086.00,0.66
5085.00,0.66
5084.00,0.66
5083.00,0.66
5082.00,0.66
5081.00,0.66
5080.00,0.66
5079.00,0.66
5078.00,0.66
5077.00,0.66
5076.00,0.66
5075.00,0.66
5074.00,0.66
5073.00,0.66
5072.00,0.67
5071.00,0.67
5070.00,0.67
5069.00,0.67
5068.00,0.67
5067.00,0.67
5066.00,0.67
5065.00,0.67
5064.00,0.67
5063.00,0.67
5062.00,0.67
5061.00,0.68
5060.00,0.68
5059.00,0.68
5058.00,0.68
5057.00,0.68
5056.00,0.68
5055.00,0.68
5054.00,0.69
5053.00,0.69
5052.00,0.69
5051.00,0.69
5050.00,0.69
5049.00,0.69
5048.00,0.69
5047.00,0.69
5046.00,0.69
5045.00,0.69
5044.00,0.70
5043.00,0.70
5042.00,0.70
5041.00,0.70
5040.00,0.70
5039.00,0.70
5038.00,0.70
5037.00,0.70
5036.00,0.71
5035.00,0.71
5034.00,0.71
5033.00,0.71
5032.00,0.71
5031.00,0.71
5030.00,0.71
5029.00,0.71
5028.00,0.71
5027.00,0.72
5026.00,0.72
5025.00,0.72
5024.00,0.72
5023.00,0.72
5022.00,0.72
5021.00,0.72
5020.00,0.72
5019.00,0.73
5018.00,0.73
5017.00,0.73
5016.00,0.73
5015.00,0.73
5014.00,0.74
5013.00,0.74
5012.00,0.74
5011.00,0.74
5010.00,0.74
5009.00,0.75
5008.00,0.75
5007.00,0.75
5006.00,0.75
5005.00,0.75
5004.00,0.76
5003.00,0.76
5002.00,0.76
5001.00,0.76
5000.00,0.76
4999.00,0.76
4998.00,0.76
4997.00,0.76
4996.00,0.76
4995.00,0.77
4994.00,0.77
4993.00,0.77
4992.00,0.77
4991.00,0.77
4990.00,0.77
4989.00,0.77
4988.00,0.77
4987.00,0.77
4986.00,0.77
4985.00,0.77
4984.00,0.77
4983.00,0.77
4982.00,0.77
4981.00,0.77
4980.00,0.78
4979.00,0.78
4978.00,0.78
4977.00,0.78
4976.00,0.78
4975.00,0.78
4974.00,0.78
4973.00,0.79
4972.00,0.79
4971.00,0.79
4970.00,0.79
4969.00,0.79
4968.00,0.80
4967.00,0.80
4966.00,0.80
4965.00,0.80
4964.00,0.80
4963.00,0.80
4962.00,0.81
4961.00,0.81
4960.00,0.81
4959.00,0.81
4958.00,0.81
4957.00,0.81
4956.00,0.81
4955.00,0.81
4954.00,0.81
4953.00,0.82
4952.00,0.82
4951.00,0.82
4950.00,0.82
4949.00,0.82
4948.00,0.82
4947.00,0.82
4946.00,0.82
4945.00,0.82
4944.00,0.82
4943.00,0.82
4942.00,0.82
4941.00,0.82
4940.00,0.82
4939.00,0.82
4938.00,0.82
4937.00,0.82
4936.00,0.82
4935.00,0.82
4934.00,0.82
4933.00,0.82
4932.00,0.82
4931.00,0.82
4930.00,0.82
4929.00,0.83
4928.00,0.83
4927.00,0.83
4926.00,0.83
4925.00,0.83
4924.00,0.83
4923.00,0.83
4922.00,0.83
4921.00,0.83
4920.00,0.84
4919.00,0.84
4918.00,0.84
4917.00,0.84
4916.00,0.84
4915.00,0.84
4914.00,0.84
4913.00,0.84
4912.00,0.84
4911.00,0.84
4910.00,0.84
4909.00,0.84
4908.00,0.84
4907.00,0.84
4906.00,0.84
4905.00,0.84
4904.00,0.84
4903.00,0.84
4902.00,0.84
4901.00,0.84
4900.00,0.84
4899.00,0.84
4898.00,0.84
4897.00,0.84
4896.00,0.84
4895.00,0.84
4894.00,0.84
4893.00,0.84
4892.00,0.84
4891.00,0.84
4890.00,0.84
4889.00,0.84
4888.00,0.84
4887.00,0.84
4886.00,0.84
4885.00,0.84
4884.00,0.84
4883.00,0.84
4882.00,0.84
4881.00,0.85
4880.00,0.85
4879.00,0.85
4878.00,0.85
4877.00,0.85
4876.00,0.85
4875.00,0.85
4874.00,0.85
4873.00,0.85
4872.00,0.85
4871.00,0.86
4870.00,0.86
4869.00,0.86
4868.00,0.86
4867.00,0.86
4866.00,0.86
4865.00,0.86
4864.00,0.86
4863.00,0.86
4862.00,0.86
4861.00,0.86
4860.00,0.86
4859.00,0.87
4858.00,0.87
4857.00,0.87
4856.00,0.87
4855.00,0.87
4854.00,0.87
4853.00,0.87
4852.00,0.87
4851.00,0.87
4850.00,0.87
4849.00,0.87
4848.00,0.87
4847.00,0.87
4846.00,0.87
4845.00,0.87
4844.00,0.87
4843.00,0.87
4842.00,0.87
4841.00,0.87
4840.00,0.87
4839.00,0.87
4838.00,0.87
4837.00,0.87
4836.00,0.87
4835.00,0.87
4834.00,0.87
4833.00,0.87
4832.00,0.87
4831.00,0.87
4830.00,0.87
4829.00,0.87
4828.00,0.87
4827.00,0.88
4826.00,0.88
4825.00,0.88
4824.00,0.88
4823.00,0.88
4822.00,0.88
4821.00,0.88
4820.00,0.88
4819.00,0.88
4818.00,0.88
4817.00,0.88
4816.00,0.88
4815.00,0.89
4814.00,0.89
4813.00,0.89
4812.00,0.89
4811.00,0.89
4810.00,0.89
4809.00,0.89
4808.00,0.89
4807.00,0.89
4806.00,0.89
4805.00,0.89
4804.00,0.90
4803.00,0.90
4802.00,0.90
4801.00,0.90
4800.00,0.90
4799.00,0.90
4798.00,0.90
4797.00,0.90
4796.00,0.90
4795.00,0.90
4794.00,0.90
4793.00,0.90
4792.00,0.91
4791.00,0.91
4790.00,0.91
4789.00,0.91
4788.00,0.91
4787.00,0.91
4786.00,0.91
4785.00,0.92
4784.00,0.92
4783.00,0.92
4782.00,0.92
4781.00,0.92
4780.00,0.93
4779.00,0.93
4778.00,0.93
4777.00,0.93
4776.00,0.93
4775.00,0.94
4774.00,0.94
4773.00,0.94
4772.00,0.94
4771.00,0.95
4770.00,0.95
4769.00,0.95
4768.00,0.95
4767.00,0.95
4766.00,0.96
4765.00,0.96
4764.00,0.96
4763.00,0.96
4762.00,0.96
4761.00,0.97
4760.00,0.97
4759.00,0.97
4758.00,0.97
4757.00,0.97
4756.00,0.98
4755.00,0.98
4754.00,0.98
4753.00,0.98
4752.00,0.99
4751.00,0.99
4750.00,0.99
4749.00,0.99
4748.00,1.00
4747.00,1.00
4746.00,1.00
4745.00,1.00
4744.00,1.01
4743.00,1.01
4742.00,1.01
4741.00,1.01
4740.00,1.01
4739.00,1.01
4738.00,1.02
4737.00,1.02
4736.00,1.02
4735.00,1.02
4734.00,1.02
4733.00,1.02
4732.00,1.02
4731.00,1.02
4730.00,1.03
4729.00,1.03
4728.00,1.03
4727.00,1.03
4726.00,1.03
4725.00,1.03
4724.00,1.03
4723.00,1.03
4722.00,1.04
4721.00,1.04
4720.00,1.04
4719.00,1.04
4718.00,1.05
4717.00,1.05
4716.00,1.05
4715.00,1.05
4714.00,1.06
4713.00,1.06
4712.00,1.06
4711.00,1.06
4710.00,1.07
4709.00,1.07
4708.00,1.07
4707.00,1.07
4706.00,1.07
4705.00,1.08
4704.00,1.08
4703.00,1.08
4702.00,1.08
4701.00,1.08
4700.00,1.08
4699.00,1.09
4698.00,1.09
4697.00,1.09
4696.00,1.09
4695.00,1.09
4694.00,1.09
4693.00,1.09
4692.00,1.09
4691.00,1.10
4690.00,1.10
4689.00,1.10
4688.00,1.10
4687.00,1.10
4686.00,1.11
4685.00,1.11
4684.00,1.11
4683.00,1.11
4682.00,1.11
4681.00,1.12
4680.00,1.12
4679.00,1.12
4678.00,1.12
4677.00,1.13
4676.00,1.13
4675.00,1.13
4674.00,1.13
4673.00,1.14
4672.00,1.14
4671.00,1.14
4670.00,1.14
4669.00,1.14
4668.00,1.14
4667.00,1.15
4666.00,1.15
4665.00,1.15
4664.00,1.15
4663.00,1.15
4662.00,1.16
4661.00,1.16
4660.00,1.16
4659.00,1.16
4658.00,1.16
4657.00,1.17
4656.00,1.17
4655.00,1.17
4654.00,1.17
4653.00,1.17
4652.00,1.18
4651.00,1.18
4650.00,1.18
4649.00,1.18
4648.00,1.18
4647.00,1.18
4646.00,1.19
4645.00,1.19
4644.00,1.19
4643.00,1.19
4642.00,1.19
4641.00,1.19
4640.00,1.20
4639.00,1.20
4638.00,1.20
4637.00,1.20
4636.00,1.20
4635.00,1.20
4634.00,1.20
4633.00,1.21
4632.00,1.21
4631.00,1.21
4630.00,1.21
4629.00,1.21
4628.00,1.21
4627.00,1.21
4626.00,1.21
4625.00,1.21
4624.00,1.21
4623.00,1.21
4622.00,1.22
4621.00,1.22
4620.00,1.22
4619.00,1.22
4618.00,1.22
4617.00,1.22
4616.00,1.22
4615.00,1.22
4614.00,1.22
4613.00,1.22
4612.00,1.22
4611.00,1.22
4610.00,1.22
4609.00,1.22
4608.00,1.22
4607.00,1.22
4606.00,1.23
4605.00,1.23
4604.00,1.23
4603.00,1.23
4602.00,1.23
4601.00,1.23
4600.00,1.23
4599.00,1.24
4598.00,1.24
4597.00,1.24
4596.00,1.24
4595.00,1.24
4594.00,1.24
4593.00,1.25
4592.00,1.25
4591.00,1.25
4590.00,1.25
4589.00,1.25
4588.00,1.25
4587.00,1.25
4586.00,1.26
4585.00,1.26
4584.00,1.26
4583.00,1.26
4582.00,1.26
4581.00,1.26
4580.00,1.26
4579.00,1.26
4578.00,1.26
4577.00,1.26
4576.00,1.26
4575.00,1.26
4574.00,1.26
4573.00,1.26
4572.00,1.26
4571.00,1.26
4570.00,1.27
4569.00,1.27
4568.00,1.27
4567.00,1.27
4566.00,1.27
4565.00,1.27
4564.00,1.28
4563.00,1.28
4562.00,1.28
4561.00,1.28
4560.00,1.28
4559.00,1.29
4558.00,1.29
4557.00,1.29
4556.00,1.29
4555.00,1.29
4554.00,1.29
4553.00,1.29
4552.00,1.30
4551.00,1.30
4550.00,1.30
4549.00,1.30
4548.00,1.30
4547.00,1.30
4546.00,1.30
4545.00,1.30
4544.00,1.30
4543.00,1.30
4542.00,1.30
4541.00,1.30
4540.00,1.30
4539.00,1.30
4538.00,1.31
4537.00,1.31
4536.00,1.31
4535.00,1.31
4534.00,1.31
4533.00,1.31
4532.00,1.31
4531.00,1.31
4530.00,1.31
4529.00,1.31
4528.00,1.31
4527.00,1.31
4526.00,1.31
4525.00,1.31
4524.00,1.31
4523.00,1.31
4522.00,1.31
4521.00,1.31
4520.00,1.31
4519.00,1.31
4518.00,1.31
4517.00,1.31
4516.00,1.31
4515.00,1.31
4514.00,1.31
4513.00,1.31
4512.00,1.31
4511.00,1.31
4510.00,1.31
4509.00,1.31
4508.00,1.31
4507.00,1.31
4506.00,1.31
4505.00,1.31
4504.00,1.31
4503.00,1.31
4502.00,1.30
4501.00,1.30
4500.00,1.30
4499.00,1.30
4498.00,1.30
4497.00,1.30
4496.00,1.30
4495.00,1.30
4494.00,1.30
4493.00,1.30
4492.00,1.30
4491.00,1.30
4490.00,1.30
4489.00,1.29
4488.00,1.29
4487.00,1.29
4486.00,1.29
4485.00,1.29
4484.00,1.29
4483.00,1.28
4482.00,1.28
4481.00,1.28
4480.00,1.28
4479.00,1.27
4478.00,1.27
4477.00,1.27
4476.00,1.27
4475.00,1.26
4474.00,1.26
4473.00,1.26
4472.00,1.26
4471.00,1.25
4470.00,1.25
4469.00,1.25
4468.00,1.25
4467.00,1.24
4466.00,1.24
4465.00,1.24
4464.00,1.23
4463.00,1.23
4462.00,1.23
4461.00,1.22
4460.00,1.22
4459.00,1.21
4458.00,1.21
4457.00,1.21
4456.00,1.20
4455.00,1.20
4454.00,1.19
4453.00,1.18
4452.00,1.18
4451.00,1.17
4450.00,1.17
4449.00,1.16
4448.00,1.15
4447.00,1.15
4446.00,1.14
4445.00,1.13
4444.00,1.13
4443.00,1.12
4442.00,1.11
4441.00,1.11
4440.00,1.10
4439.00,1.09
4438.00,1.09
4437.00,1.08
4436.00,1.08
4435.00,1.07
4434.00,1.07
4433.00,1.06
4432.00,1.06
4431.00,1.05
4430.00,1.05
4429.00,1.04
4428.00,1.04
4427.00,1.04
4426.00,1.03
4425.00,1.03
4424.00,1.03
4423.00,1.02
4422.00,1.02
4421.00,1.02
4420.00,1.02
4419.00,1.01
4418.00,1.01
4417.00,1.01
4416.00,1.01
4415.00,1.01
4414.00,1.01
4413.00,1.01
4412.00,1.01
4411.00,1.00
4410.00,1.00
4409.00,1.00
4408.00,1.00
4407.00,1.01
4406.00,1.01
4405.00,1.01
4404.00,1.01
4403.00,1.01
4402.00,1.01
4401.00,1.01
4400.00,1.01
4399.00,1.01
4398.00,1.02
4397.00,1.02
4396.00,1.02
4395.00,1.02
4394.00,1.02
4393.00,1.02
4392.00,1.02
4391.00,1.02
4390.00,1.02
4389.00,1.03
4388.00,1.03
4387.00,1.03
4386.00,1.03
4385.00,1.03
4384.00,1.03
4383.00,1.03
4382.00,1.03
4381.00,1.03
4380.00,1.03
4379.00,1.03
4378.00,1.03
4377.00,1.03
4376.00,1.03
4375.00,1.03
4374.00,1.04
4373.00,1.04
4372.00,1.04
4371.00,1.04
4370.00,1.04
4369.00,1.04
4368.00,1.04
4367.00,1.04
4366.00,1.04
4365.00,1.04
4364.00,1.04
4363.00,1.04
4362.00,1.04
4361.00,1.04
4360.00,1.04
4359.00,1.04
4358.00,1.04
4357.00,1.04
4356.00,1.04
4355.00,1.04
4354.00,1.04
4353.00,1.04
4352.00,1.04
4351.00,1.04
4350.00,1.04
4349.00,1.04
4348.00,1.04
4347.00,1.04
4346.00,1.04
4345.00,1.04
4344.00,1.04
4343.00,1.04
4342.00,1.04
4341.00,1.04
4340.00,1.04
4339.00,1.04
4338.00,1.04
4337.00,1.04
4336.00,1.04
4335.00,1.04
4334.00,1.04
4333.00,1.04
4332.00,1.04
4331.00,1.04
4330.00,1.04
4329.00,1.05
4328.00,1.05
4327.00,1.05
4326.00,1.05
4325.00,1.05
4324.00,1.06
4323.00,1.06
4322.00,1.06
4321.00,1.07
4320.00,1.07
4319.00,1.07
4318.00,1.08
4317.00,1.08
4316.00,1.08
4315.00,1.09
4314.00,1.09
4313.00,1.10
4312.00,1.10
4311.00,1.10
4310.00,1.11
4309.00,1.11
4308.00,1.12
4307.00,1.12
4306.00,1.12
4305.00,1.13
4304.00,1.13
4303.00,1.13
4302.00,1.14
4301.00,1.14
4300.00,1.14
4299.00,1.15
4298.00,1.15
4297.00,1.15
4296.00,1.15
4295.00,1.16
4294.00,1.16
4293.00,1.16
4292.00,1.16
4291.00,1.17
4290.00,1.17
4289.00,1.17
4288.00,1.17
4287.00,1.17
4286.00,1.17
4285.00,1.17
4284.00,1.17
4283.00,1.17
4282.00,1.17
4281.00,1.17
4280.00,1.17
4279.00,1.16
4278.00,1.16
4277.00,1.16
4276.00,1.16
4275.00,1.15
4274.00,1.15
4273.00,1.15
4272.00,1.14
4271.00,1.14
4270.00,1.14
4269.00,1.14
4268.00,1.13
4267.00,1.13
4266.00,1.13
4265.00,1.13
4264.00,1.13
4263.00,1.13
4262.00,1.12
4261.00,1.12
4260.00,1.12
4259.00,1.12
4258.00,1.12
4257.00,1.12
4256.00,1.12
4255.00,1.13
4254.00,1.13
4253.00,1.13
4252.00,1.13
4251.00,1.13
4250.00,1.13
4249.00,1.13
4248.00,1.14
4247.00,1.14
4246.00,1.14
4245.00,1.14
4244.00,1.15
4243.00,1.15
4242.00,1.15
4241.00,1.16
4240.00,1.16
4239.00,1.16
4238.00,1.17
4237.00,1.17
4236.00,1.18
4235.00,1.18
4234.00,1.19
4233.00,1.19
4232.00,1.19
4231.00,1.20
4230.00,1.20
4229.00,1.20
4228.00,1.21
4227.00,1.21
4226.00,1.21
4225.00,1.21
4224.00,1.21
4223.00,1.21
4222.00,1.21
4221.00,1.21
4220.00,1.21
4219.00,1.21
4218.00,1.21
4217.00,1.21
4216.00,1.21
4215.00,1.21
4214.00,1.21
4213.00,1.21
4212.00,1.21
4211.00,1.22
4210.00,1.22
4209.00,1.22
4208.00,1.22
4207.00,1.22
4206.00,1.22
4205.00,1.22
4204.00,1.23
4203.00,1.23
4202.00,1.23
4201.00,1.23
4200.00,1.23
4199.00,1.23
4198.00,1.23
4197.00,1.22
4196.00,1.22
4195.00,1.22
4194.00,1.22
4193.00,1.22
4192.00,1.22
4191.00,1.21
4190.00,1.21
4189.00,1.21
4188.00,1.21
4187.00,1.21
4186.00,1.21
4185.00,1.21
4184.00,1.21
4183.00,1.21
4182.00,1.21
4181.00,1.22
4180.00,1.22
4179.00,1.22
4178.00,1.22
4177.00,1.23
4176.00,1.23
4175.00,1.23
4174.00,1.23
4173.00,1.24
4172.00,1.24
4171.00,1.24
4170.00,1.24
4169.00,1.24
4168.00,1.24
4167.00,1.24
4166.00,1.24
4165.00,1.24
4164.00,1.24
4163.00,1.24
4162.00,1.24
4161.00,1.24
4160.00,1.24
4159.00,1.24
4158.00,1.24
4157.00,1.24
4156.00,1.23
4155.00,1.23
4154.00,1.23
4153.00,1.23
4152.00,1.23
4151.00,1.23
4150.00,1.23
4149.00,1.23
4148.00,1.23
4147.00,1.23
4146.00,1.23
4145.00,1.23
4144.00,1.23
4143.00,1.23
4142.00,1.23
4141.00,1.23
4140.00,1.23
4139.00,1.23
4138.00,1.23
4137.00,1.23
4136.00,1.23
4135.00,1.23
4134.00,1.23
4133.00,1.23
4132.00,1.23
4131.00,1.23
4130.00,1.23
4129.00,1.24
4128.00,1.24
4127.00,1.24
4126.00,1.24
4125.00,1.24
4124.00,1.24
4123.00,1.24
4122.00,1.24
4121.00,1.24
4120.00,1.24
4119.00,1.24
4118.00,1.24
4117.00,1.25
4116.00,1.25
4115.00,1.25
4114.00,1.25
4113.00,1.25
4112.00,1.25
4111.00,1.25
4110.00,1.25
4109.00,1.25
4108.00,1.25
4107.00,1.25
4106.00,1.25
4105.00,1.25
4104.00,1.25
4103.00,1.25
4102.00,1.25
4101.00,1.25
4100.00,1.25
4099.00,1.25
4098.00,1.25
4097.00,1.25
4096.00,1.26
4095.00,1.26
4094.00,1.26
4093.00,1.26
4092.00,1.26
4091.00,1.26
4090.00,1.26
4089.00,1.26
4088.00,1.26
4087.00,1.26
4086.00,1.26
4085.00,1.26
4084.00,1.26
4083.00,1.25
4082.00,1.25
4081.00,1.25
4080.00,1.25
4079.00,1.25
4078.00,1.25
4077.00,1.25
4076.00,1.25
4075.00,1.25
4074.00,1.25
4073.00,1.25
4072.00,1.25
4071.00,1.25
4070.00,1.25
4069.00,1.25
4068.00,1.25
4067.00,1.25
4066.00,1.25
4065.00,1.25
4064.00,1.25
4063.00,1.25
4062.00,1.25
4061.00,1.26
4060.00,1.26
4059.00,1.26
4058.00,1.26
4057.00,1.26
4056.00,1.26
4055.00,1.26
4054.00,1.26
4053.00,1.26
4052.00,1.26
4051.00,1.26
4050.00,1.26
4049.00,1.27
4048.00,1.27
4047.00,1.27
4046.00,1.27
4045.00,1.27
4044.00,1.28
4043.00,1.28
4042.00,1.28
4041.00,1.28
4040.00,1.29
4039.00,1.29
4038.00,1.29
4037.00,1.29
4036.00,1.29
4035.00,1.30
4034.00,1.30
4033.00,1.30
4032.00,1.30
4031.00,1.30
4030.00,1.30
4029.00,1.30
4028.00,1.30
4027.00,1.30
4026.00,1.30
4025.00,1.30
4024.00,1.30
4023.00,1.30
4022.00,1.30
4021.00,1.30
4020.00,1.30
4019.00,1.30
4018.00,1.30
4017.00,1.30
4016.00,1.30
4015.00,1.30
4014.00,1.30
4013.00,1.30
4012.00,1.30
4011.00,1.30
4010.00,1.30
4009.00,1.30
4008.00,1.31
4007.00,1.31
4006.00,1.31
4005.00,1.31
4004.00,1.31
4003.00,1.31
4002.00,1.31
4001.00,1.31
4000.00,1.31
