创建为新数据集,样品 098 用户 Administrator 日期 星期日, 十一月 05 2017
cm-1,%T
10000.00,1.49
9999.00,1.48
9998.00,1.48
9997.00,1.48
9996.00,1.48
9995.00,1.48
9994.00,1.48
9993.00,1.48
9992.00,1.48
9991.00,1.48
9990.00,1.48
9989.00,1.48
9988.00,1.48
9987.00,1.48
9986.00,1.48
9985.00,1.48
9984.00,1.48
9983.00,1.48
9982.00,1.49
9981.00,1.49
9980.00,1.49
9979.00,1.49
9978.00,1.49
9977.00,1.49
9976.00,1.49
9975.00,1.48
9974.00,1.48
9973.00,1.48
9972.00,1.48
9971.00,1.48
9970.00,1.47
9969.00,1.47
9968.00,1.47
9967.00,1.46
9966.00,1.46
9965.00,1.46
9964.00,1.45
9963.00,1.45
9962.00,1.45
9961.00,1.45
9960.00,1.44
9959.00,1.44
9958.00,1.44
9957.00,1.44
9956.00,1.44
9955.00,1.45
9954.00,1.45
9953.00,1.45
9952.00,1.45
9951.00,1.46
9950.00,1.46
9949.00,1.46
9948.00,1.47
9947.00,1.47
9946.00,1.47
9945.00,1.47
9944.00,1.47
9943.00,1.48
9942.00,1.48
9941.00,1.48
9940.00,1.48
9939.00,1.48
9938.00,1.48
9937.00,1.48
9936.00,1.48
9935.00,1.48
9934.00,1.48
9933.00,1.48
9932.00,1.48
9931.00,1.48
9930.00,1.48
9929.00,1.48
9928.00,1.48
9927.00,1.48
9926.00,1.48
9925.00,1.48
9924.00,1.48
9923.00,1.48
9922.00,1.48
9921.00,1.48
9920.00,1.48
9919.00,1.48
9918.00,1.47
9917.00,1.47
9916.00,1.47
9915.00,1.46
9914.00,1.46
9913.00,1.45
9912.00,1.45
9911.00,1.45
9910.00,1.44
9909.00,1.44
9908.00,1.44
9907.00,1.44
9906.00,1.43
9905.00,1.43
9904.00,1.43
9903.00,1.43
9902.00,1.43
9901.00,1.43
9900.00,1.43
9899.00,1.43
9898.00,1.43
9897.00,1.43
9896.00,1.43
9895.00,1.43
9894.00,1.43
9893.00,1.43
9892.00,1.43
9891.00,1.43
9890.00,1.43
9889.00,1.43
9888.00,1.43
9887.00,1.43
9886.00,1.43
9885.00,1.43
9884.00,1.43
9883.00,1.43
9882.00,1.43
9881.00,1.44
9880.00,1.44
9879.00,1.44
9878.00,1.44
9877.00,1.44
9876.00,1.45
9875.00,1.45
9874.00,1.45
9873.00,1.45
9872.00,1.45
9871.00,1.45
9870.00,1.45
9869.00,1.45
9868.00,1.45
9867.00,1.45
9866.00,1.45
9865.00,1.45
9864.00,1.45
9863.00,1.45
9862.00,1.45
9861.00,1.45
9860.00,1.45
9859.00,1.45
9858.00,1.45
9857.00,1.45
9856.00,1.46
9855.00,1.46
9854.00,1.46
9853.00,1.46
9852.00,1.46
9851.00,1.46
9850.00,1.46
9849.00,1.47
9848.00,1.47
9847.00,1.47
9846.00,1.47
9845.00,1.47
9844.00,1.47
9843.00,1.47
9842.00,1.46
9841.00,1.46
9840.00,1.46
9839.00,1.46
9838.00,1.46
9837.00,1.46
9836.00,1.45
9835.00,1.45
9834.00,1.45
9833.00,1.45
9832.00,1.44
9831.00,1.44
9830.00,1.44
9829.00,1.44
9828.00,1.44
9827.00,1.44
9826.00,1.44
9825.00,1.44
9824.00,1.44
9823.00,1.44
9822.00,1.44
9821.00,1.44
9820.00,1.44
9819.00,1.44
9818.00,1.44
9817.00,1.44
9816.00,1.44
9815.00,1.44
9814.00,1.44
9813.00,1.44
9812.00,1.44
9811.00,1.44
9810.00,1.44
9809.00,1.44
9808.00,1.44
9807.00,1.44
9806.00,1.44
9805.00,1.44
9804.00,1.44
9803.00,1.43
9802.00,1.43
9801.00,1.43
9800.00,1.43
9799.00,1.43
9798.00,1.43
9797.00,1.43
9796.00,1.43
9795.00,1.44
9794.00,1.44
9793.00,1.44
9792.00,1.44
9791.00,1.44
9790.00,1.44
9789.00,1.44
9788.00,1.44
9787.00,1.44
9786.00,1.44
9785.00,1.44
9784.00,1.44
9783.00,1.44
9782.00,1.44
9781.00,1.44
9780.00,1.43
9779.00,1.43
9778.00,1.43
9777.00,1.43
9776.00,1.43
9775.00,1.43
9774.00,1.43
9773.00,1.42
9772.00,1.42
9771.00,1.43
9770.00,1.43
9769.00,1.43
9768.00,1.43
9767.00,1.43
9766.00,1.43
9765.00,1.43
9764.00,1.43
9763.00,1.44
9762.00,1.44
9761.00,1.44
9760.00,1.44
9759.00,1.44
9758.00,1.44
9757.00,1.44
9756.00,1.44
9755.00,1.44
9754.00,1.44
9753.00,1.44
9752.00,1.44
9751.00,1.44
9750.00,1.44
9749.00,1.44
9748.00,1.44
9747.00,1.44
9746.00,1.44
9745.00,1.44
9744.00,1.44
9743.00,1.44
9742.00,1.44
9741.00,1.45
9740.00,1.45
9739.00,1.45
9738.00,1.45
9737.00,1.46
9736.00,1.46
9735.00,1.46
9734.00,1.47
9733.00,1.47
9732.00,1.47
9731.00,1.47
9730.00,1.48
9729.00,1.48
9728.00,1.48
9727.00,1.48
9726.00,1.48
9725.00,1.48
9724.00,1.48
9723.00,1.48
9722.00,1.48
9721.00,1.48
9720.00,1.48
9719.00,1.48
9718.00,1.48
9717.00,1.48
9716.00,1.47
9715.00,1.47
9714.00,1.47
9713.00,1.46
9712.00,1.46
9711.00,1.46
9710.00,1.45
9709.00,1.45
9708.00,1.45
9707.00,1.45
9706.00,1.45
9705.00,1.45
9704.00,1.44
9703.00,1.44
9702.00,1.44
9701.00,1.44
9700.00,1.45
9699.00,1.45
9698.00,1.45
9697.00,1.45
9696.00,1.45
9695.00,1.45
9694.00,1.45
9693.00,1.46
9692.00,1.46
9691.00,1.46
9690.00,1.46
9689.00,1.46
9688.00,1.46
9687.00,1.46
9686.00,1.46
9685.00,1.46
9684.00,1.46
9683.00,1.46
9682.00,1.46
9681.00,1.46
9680.00,1.46
9679.00,1.46
9678.00,1.46
9677.00,1.46
9676.00,1.46
9675.00,1.46
9674.00,1.46
9673.00,1.46
9672.00,1.46
9671.00,1.46
9670.00,1.46
9669.00,1.46
9668.00,1.45
9667.00,1.45
9666.00,1.45
9665.00,1.45
9664.00,1.45
9663.00,1.45
9662.00,1.45
9661.00,1.45
9660.00,1.45
9659.00,1.45
9658.00,1.44
9657.00,1.44
9656.00,1.44
9655.00,1.44
9654.00,1.44
9653.00,1.44
9652.00,1.44
9651.00,1.44
9650.00,1.44
9649.00,1.44
9648.00,1.44
9647.00,1.44
9646.00,1.44
9645.00,1.44
9644.00,1.45
9643.00,1.45
9642.00,1.45
9641.00,1.45
9640.00,1.45
9639.00,1.46
9638.00,1.46
9637.00,1.46
9636.00,1.46
9635.00,1.47
9634.00,1.47
9633.00,1.47
9632.00,1.47
9631.00,1.47
9630.00,1.47
9629.00,1.47
9628.00,1.47
9627.00,1.47
9626.00,1.47
9625.00,1.47
9624.00,1.46
9623.00,1.46
9622.00,1.46
9621.00,1.46
9620.00,1.45
9619.00,1.45
9618.00,1.45
9617.00,1.45
9616.00,1.44
9615.00,1.44
9614.00,1.44
9613.00,1.44
9612.00,1.44
9611.00,1.44
9610.00,1.44
9609.00,1.44
9608.00,1.44
9607.00,1.44
9606.00,1.44
9605.00,1.44
9604.00,1.44
9603.00,1.45
9602.00,1.45
9601.00,1.45
9600.00,1.45
9599.00,1.45
9598.00,1.46
9597.00,1.46
9596.00,1.46
9595.00,1.46
9594.00,1.46
9593.00,1.47
9592.00,1.47
9591.00,1.47
9590.00,1.47
9589.00,1.47
9588.00,1.47
9587.00,1.47
9586.00,1.47
9585.00,1.47
9584.00,1.47
9583.00,1.47
9582.00,1.47
9581.00,1.47
9580.00,1.47
9579.00,1.46
9578.00,1.46
9577.00,1.46
9576.00,1.46
9575.00,1.46
9574.00,1.45
9573.00,1.45
9572.00,1.45
9571.00,1.45
9570.00,1.45
9569.00,1.45
9568.00,1.45
9567.00,1.45
9566.00,1.45
9565.00,1.46
9564.00,1.46
9563.00,1.46
9562.00,1.46
9561.00,1.46
9560.00,1.46
9559.00,1.47
9558.00,1.47
9557.00,1.47
9556.00,1.47
9555.00,1.47
9554.00,1.47
9553.00,1.47
9552.00,1.47
9551.00,1.47
9550.00,1.47
9549.00,1.46
9548.00,1.46
9547.00,1.46
9546.00,1.46
9545.00,1.46
9544.00,1.45
9543.00,1.45
9542.00,1.45
9541.00,1.45
9540.00,1.45
9539.00,1.44
9538.00,1.44
9537.00,1.44
9536.00,1.44
9535.00,1.44
9534.00,1.44
9533.00,1.44
9532.00,1.44
9531.00,1.44
9530.00,1.44
9529.00,1.44
9528.00,1.44
9527.00,1.44
9526.00,1.44
9525.00,1.44
9524.00,1.44
9523.00,1.44
9522.00,1.44
9521.00,1.44
9520.00,1.44
9519.00,1.44
9518.00,1.44
9517.00,1.44
9516.00,1.44
9515.00,1.44
9514.00,1.44
9513.00,1.45
9512.00,1.45
9511.00,1.45
9510.00,1.45
9509.00,1.45
9508.00,1.45
9507.00,1.46
9506.00,1.46
9505.00,1.46
9504.00,1.46
9503.00,1.47
9502.00,1.47
9501.00,1.47
9500.00,1.47
9499.00,1.47
9498.00,1.47
9497.00,1.47
9496.00,1.47
9495.00,1.47
9494.00,1.47
9493.00,1.47
9492.00,1.47
9491.00,1.47
9490.00,1.47
9489.00,1.47
9488.00,1.47
9487.00,1.46
9486.00,1.46
9485.00,1.46
9484.00,1.46
9483.00,1.46
9482.00,1.46
9481.00,1.46
9480.00,1.47
9479.00,1.47
9478.00,1.47
9477.00,1.47
9476.00,1.47
9475.00,1.47
9474.00,1.47
9473.00,1.47
9472.00,1.47
9471.00,1.46
9470.00,1.46
9469.00,1.46
9468.00,1.46
9467.00,1.46
9466.00,1.45
9465.00,1.45
9464.00,1.45
9463.00,1.45
9462.00,1.45
9461.00,1.44
9460.00,1.44
9459.00,1.44
9458.00,1.44
9457.00,1.44
9456.00,1.44
9455.00,1.44
9454.00,1.43
9453.00,1.43
9452.00,1.43
9451.00,1.44
9450.00,1.44
9449.00,1.44
9448.00,1.44
9447.00,1.44
9446.00,1.44
9445.00,1.44
9444.00,1.44
9443.00,1.44
9442.00,1.45
9441.00,1.45
9440.00,1.45
9439.00,1.45
9438.00,1.45
9437.00,1.46
9436.00,1.46
9435.00,1.46
9434.00,1.46
9433.00,1.46
9432.00,1.46
9431.00,1.47
9430.00,1.47
9429.00,1.47
9428.00,1.47
9427.00,1.47
9426.00,1.47
9425.00,1.47
9424.00,1.47
9423.00,1.47
9422.00,1.47
9421.00,1.47
9420.00,1.47
9419.00,1.47
9418.00,1.47
9417.00,1.47
9416.00,1.47
9415.00,1.46
9414.00,1.46
9413.00,1.46
9412.00,1.46
9411.00,1.46
9410.00,1.46
9409.00,1.46
9408.00,1.46
9407.00,1.46
9406.00,1.46
9405.00,1.46
9404.00,1.47
9403.00,1.47
9402.00,1.47
9401.00,1.47
9400.00,1.47
9399.00,1.47
9398.00,1.47
9397.00,1.47
9396.00,1.47
9395.00,1.47
9394.00,1.47
9393.00,1.47
9392.00,1.47
9391.00,1.47
9390.00,1.47
9389.00,1.47
9388.00,1.47
9387.00,1.47
9386.00,1.47
9385.00,1.47
9384.00,1.46
9383.00,1.46
9382.00,1.46
9381.00,1.46
9380.00,1.46
9379.00,1.46
9378.00,1.46
9377.00,1.46
9376.00,1.46
9375.00,1.46
9374.00,1.46
9373.00,1.46
9372.00,1.46
9371.00,1.46
9370.00,1.46
9369.00,1.46
9368.00,1.46
9367.00,1.46
9366.00,1.46
9365.00,1.46
9364.00,1.47
9363.00,1.47
9362.00,1.47
9361.00,1.47
9360.00,1.47
9359.00,1.47
9358.00,1.48
9357.00,1.48
9356.00,1.48
9355.00,1.48
9354.00,1.48
9353.00,1.48
9352.00,1.48
9351.00,1.48
9350.00,1.48
9349.00,1.48
9348.00,1.48
9347.00,1.48
9346.00,1.47
9345.00,1.47
9344.00,1.47
9343.00,1.47
9342.00,1.47
9341.00,1.47
9340.00,1.47
9339.00,1.47
9338.00,1.47
9337.00,1.47
9336.00,1.47
9335.00,1.46
9334.00,1.46
9333.00,1.46
9332.00,1.46
9331.00,1.46
9330.00,1.46
9329.00,1.47
9328.00,1.47
9327.00,1.47
9326.00,1.47
9325.00,1.47
9324.00,1.47
9323.00,1.47
9322.00,1.47
9321.00,1.47
9320.00,1.47
9319.00,1.47
9318.00,1.47
9317.00,1.47
9316.00,1.47
9315.00,1.47
9314.00,1.47
9313.00,1.47
9312.00,1.47
9311.00,1.47
9310.00,1.46
9309.00,1.46
9308.00,1.46
9307.00,1.46
9306.00,1.46
9305.00,1.46
9304.00,1.46
9303.00,1.46
9302.00,1.46
9301.00,1.46
9300.00,1.46
9299.00,1.46
9298.00,1.46
9297.00,1.46
9296.00,1.46
9295.00,1.46
9294.00,1.46
9293.00,1.46
9292.00,1.47
9291.00,1.47
9290.00,1.47
9289.00,1.47
9288.00,1.47
9287.00,1.47
9286.00,1.47
9285.00,1.47
9284.00,1.47
9283.00,1.47
9282.00,1.47
9281.00,1.47
9280.00,1.47
9279.00,1.46
9278.00,1.46
9277.00,1.46
9276.00,1.46
9275.00,1.46
9274.00,1.46
9273.00,1.46
9272.00,1.45
9271.00,1.45
9270.00,1.45
9269.00,1.45
9268.00,1.45
9267.00,1.45
9266.00,1.45
9265.00,1.45
9264.00,1.45
9263.00,1.45
9262.00,1.46
9261.00,1.46
9260.00,1.46
9259.00,1.46
9258.00,1.46
9257.00,1.46
9256.00,1.46
9255.00,1.46
9254.00,1.46
9253.00,1.46
9252.00,1.46
9251.00,1.46
9250.00,1.46
9249.00,1.46
9248.00,1.46
9247.00,1.46
9246.00,1.46
9245.00,1.46
9244.00,1.46
9243.00,1.46
9242.00,1.45
9241.00,1.45
9240.00,1.45
9239.00,1.45
9238.00,1.45
9237.00,1.45
9236.00,1.45
9235.00,1.45
9234.00,1.45
9233.00,1.45
9232.00,1.45
9231.00,1.45
9230.00,1.45
9229.00,1.46
9228.00,1.46
9227.00,1.46
9226.00,1.46
9225.00,1.47
9224.00,1.47
9223.00,1.47
9222.00,1.47
9221.00,1.48
9220.00,1.48
9219.00,1.48
9218.00,1.48
9217.00,1.48
9216.00,1.48
9215.00,1.48
9214.00,1.48
9213.00,1.48
9212.00,1.48
9211.00,1.48
9210.00,1.48
9209.00,1.48
9208.00,1.47
9207.00,1.47
9206.00,1.47
9205.00,1.47
9204.00,1.46
9203.00,1.46
9202.00,1.46
9201.00,1.46
9200.00,1.46
9199.00,1.45
9198.00,1.45
9197.00,1.45
9196.00,1.45
9195.00,1.45
9194.00,1.45
9193.00,1.45
9192.00,1.45
9191.00,1.45
9190.00,1.45
9189.00,1.45
9188.00,1.45
9187.00,1.45
9186.00,1.45
9185.00,1.45
9184.00,1.45
9183.00,1.45
9182.00,1.45
9181.00,1.45
9180.00,1.45
9179.00,1.45
9178.00,1.45
9177.00,1.45
9176.00,1.45
9175.00,1.45
9174.00,1.45
9173.00,1.45
9172.00,1.45
9171.00,1.45
9170.00,1.45
9169.00,1.45
9168.00,1.45
9167.00,1.45
9166.00,1.45
9165.00,1.45
9164.00,1.45
9163.00,1.45
9162.00,1.45
9161.00,1.45
9160.00,1.45
9159.00,1.45
9158.00,1.46
9157.00,1.46
9156.00,1.46
9155.00,1.46
9154.00,1.46
9153.00,1.46
9152.00,1.46
9151.00,1.46
9150.00,1.46
9149.00,1.46
9148.00,1.46
9147.00,1.46
9146.00,1.46
9145.00,1.46
9144.00,1.45
9143.00,1.45
9142.00,1.45
9141.00,1.45
9140.00,1.45
9139.00,1.45
9138.00,1.45
9137.00,1.45
9136.00,1.45
9135.00,1.45
9134.00,1.44
9133.00,1.44
9132.00,1.44
9131.00,1.45
9130.00,1.45
9129.00,1.45
9128.00,1.45
9127.00,1.45
9126.00,1.45
9125.00,1.45
9124.00,1.45
9123.00,1.45
9122.00,1.45
9121.00,1.45
9120.00,1.45
9119.00,1.46
9118.00,1.46
9117.00,1.46
9116.00,1.46
9115.00,1.46
9114.00,1.46
9113.00,1.46
9112.00,1.46
9111.00,1.46
9110.00,1.46
9109.00,1.46
9108.00,1.46
9107.00,1.46
9106.00,1.46
9105.00,1.46
9104.00,1.46
9103.00,1.46
9102.00,1.47
9101.00,1.47
9100.00,1.47
9099.00,1.47
9098.00,1.47
9097.00,1.47
9096.00,1.47
9095.00,1.47
9094.00,1.47
9093.00,1.47
9092.00,1.47
9091.00,1.47
9090.00,1.47
9089.00,1.47
9088.00,1.47
9087.00,1.47
9086.00,1.47
9085.00,1.47
9084.00,1.47
9083.00,1.47
9082.00,1.47
9081.00,1.47
9080.00,1.46
9079.00,1.46
9078.00,1.46
9077.00,1.46
9076.00,1.46
9075.00,1.46
9074.00,1.46
9073.00,1.46
9072.00,1.47
9071.00,1.47
9070.00,1.47
9069.00,1.47
9068.00,1.47
9067.00,1.47
9066.00,1.47
9065.00,1.47
9064.00,1.47
9063.00,1.47
9062.00,1.47
9061.00,1.47
9060.00,1.46
9059.00,1.46
9058.00,1.46
9057.00,1.46
9056.00,1.46
9055.00,1.46
9054.00,1.46
9053.00,1.46
9052.00,1.46
9051.00,1.46
9050.00,1.46
9049.00,1.46
9048.00,1.46
9047.00,1.46
9046.00,1.46
9045.00,1.46
9044.00,1.46
9043.00,1.46
9042.00,1.46
9041.00,1.46
9040.00,1.46
9039.00,1.45
9038.00,1.45
9037.00,1.45
9036.00,1.45
9035.00,1.45
9034.00,1.45
9033.00,1.45
9032.00,1.45
9031.00,1.45
9030.00,1.45
9029.00,1.45
9028.00,1.45
9027.00,1.45
9026.00,1.44
9025.00,1.44
9024.00,1.44
9023.00,1.44
9022.00,1.44
9021.00,1.44
9020.00,1.44
9019.00,1.44
9018.00,1.44
9017.00,1.44
9016.00,1.45
9015.00,1.45
9014.00,1.45
9013.00,1.45
9012.00,1.45
9011.00,1.45
9010.00,1.46
9009.00,1.46
9008.00,1.46
9007.00,1.46
9006.00,1.46
9005.00,1.46
9004.00,1.47
9003.00,1.47
9002.00,1.47
9001.00,1.47
9000.00,1.47
8999.00,1.46
8998.00,1.46
8997.00,1.46
8996.00,1.46
8995.00,1.45
8994.00,1.45
8993.00,1.45
8992.00,1.45
8991.00,1.44
8990.00,1.44
8989.00,1.44
8988.00,1.44
8987.00,1.44
8986.00,1.44
8985.00,1.44
8984.00,1.44
8983.00,1.44
8982.00,1.44
8981.00,1.44
8980.00,1.45
8979.00,1.45
8978.00,1.45
8977.00,1.45
8976.00,1.46
8975.00,1.46
8974.00,1.46
8973.00,1.46
8972.00,1.47
8971.00,1.47
8970.00,1.47
8969.00,1.47
8968.00,1.47
8967.00,1.47
8966.00,1.47
8965.00,1.48
8964.00,1.48
8963.00,1.48
8962.00,1.48
8961.00,1.48
8960.00,1.48
8959.00,1.48
8958.00,1.48
8957.00,1.47
8956.00,1.47
8955.00,1.47
8954.00,1.47
8953.00,1.47
8952.00,1.47
8951.00,1.46
8950.00,1.46
8949.00,1.46
8948.00,1.46
8947.00,1.46
8946.00,1.45
8945.00,1.45
8944.00,1.45
8943.00,1.45
8942.00,1.45
8941.00,1.45
8940.00,1.45
8939.00,1.45
8938.00,1.45
8937.00,1.45
8936.00,1.45
8935.00,1.45
8934.00,1.45
8933.00,1.45
8932.00,1.45
8931.00,1.45
8930.00,1.45
8929.00,1.45
8928.00,1.45
8927.00,1.45
8926.00,1.45
8925.00,1.45
8924.00,1.45
8923.00,1.45
8922.00,1.45
8921.00,1.45
8920.00,1.45
8919.00,1.45
8918.00,1.45
8917.00,1.45
8916.00,1.45
8915.00,1.45
8914.00,1.45
8913.00,1.45
8912.00,1.45
8911.00,1.45
8910.00,1.45
8909.00,1.45
8908.00,1.45
8907.00,1.45
8906.00,1.45
8905.00,1.45
8904.00,1.45
8903.00,1.45
8902.00,1.45
8901.00,1.45
8900.00,1.45
8899.00,1.45
8898.00,1.45
8897.00,1.45
8896.00,1.45
8895.00,1.45
8894.00,1.45
8893.00,1.45
8892.00,1.45
8891.00,1.45
8890.00,1.45
8889.00,1.45
8888.00,1.45
8887.00,1.45
8886.00,1.45
8885.00,1.45
8884.00,1.45
8883.00,1.46
8882.00,1.46
8881.00,1.46
8880.00,1.46
8879.00,1.46
8878.00,1.46
8877.00,1.47
8876.00,1.47
8875.00,1.47
8874.00,1.47
8873.00,1.47
8872.00,1.47
8871.00,1.48
8870.00,1.48
8869.00,1.48
8868.00,1.48
8867.00,1.48
8866.00,1.48
8865.00,1.48
8864.00,1.48
8863.00,1.48
8862.00,1.48
8861.00,1.48
8860.00,1.48
8859.00,1.48
8858.00,1.48
8857.00,1.48
8856.00,1.47
8855.00,1.47
8854.00,1.46
8853.00,1.46
8852.00,1.46
8851.00,1.45
8850.00,1.45
8849.00,1.45
8848.00,1.44
8847.00,1.44
8846.00,1.44
8845.00,1.43
8844.00,1.43
8843.00,1.43
8842.00,1.43
8841.00,1.43
8840.00,1.43
8839.00,1.43
8838.00,1.43
8837.00,1.43
8836.00,1.43
8835.00,1.43
8834.00,1.43
8833.00,1.43
8832.00,1.42
8831.00,1.42
8830.00,1.42
8829.00,1.42
8828.00,1.42
8827.00,1.42
8826.00,1.42
8825.00,1.42
8824.00,1.42
8823.00,1.42
8822.00,1.42
8821.00,1.42
8820.00,1.42
8819.00,1.42
8818.00,1.42
8817.00,1.42
8816.00,1.42
8815.00,1.42
8814.00,1.42
8813.00,1.42
8812.00,1.42
8811.00,1.42
8810.00,1.42
8809.00,1.42
8808.00,1.42
8807.00,1.42
8806.00,1.42
8805.00,1.42
8804.00,1.42
8803.00,1.42
8802.00,1.42
8801.00,1.42
8800.00,1.42
8799.00,1.42
8798.00,1.41
8797.00,1.41
8796.00,1.41
8795.00,1.41
8794.00,1.41
8793.00,1.41
8792.00,1.41
8791.00,1.41
8790.00,1.41
8789.00,1.41
8788.00,1.41
8787.00,1.41
8786.00,1.41
8785.00,1.41
8784.00,1.41
8783.00,1.41
8782.00,1.41
8781.00,1.41
8780.00,1.41
8779.00,1.41
8778.00,1.41
8777.00,1.41
8776.00,1.41
8775.00,1.41
8774.00,1.41
8773.00,1.41
8772.00,1.41
8771.00,1.40
8770.00,1.40
8769.00,1.40
8768.00,1.40
8767.00,1.40
8766.00,1.39
8765.00,1.39
8764.00,1.39
8763.00,1.39
8762.00,1.39
8761.00,1.39
8760.00,1.39
8759.00,1.39
8758.00,1.39
8757.00,1.39
8756.00,1.39
8755.00,1.39
8754.00,1.39
8753.00,1.39
8752.00,1.39
8751.00,1.39
8750.00,1.39
8749.00,1.40
8748.00,1.40
8747.00,1.40
8746.00,1.40
8745.00,1.40
8744.00,1.40
8743.00,1.40
8742.00,1.40
8741.00,1.40
8740.00,1.40
8739.00,1.40
8738.00,1.40
8737.00,1.40
8736.00,1.40
8735.00,1.40
8734.00,1.39
8733.00,1.39
8732.00,1.39
8731.00,1.39
8730.00,1.39
8729.00,1.39
8728.00,1.39
8727.00,1.39
8726.00,1.39
8725.00,1.39
8724.00,1.39
8723.00,1.39
8722.00,1.39
8721.00,1.39
8720.00,1.39
8719.00,1.39
8718.00,1.39
8717.00,1.39
8716.00,1.39
8715.00,1.40
8714.00,1.40
8713.00,1.40
8712.00,1.40
8711.00,1.40
8710.00,1.40
8709.00,1.40
8708.00,1.40
8707.00,1.40
8706.00,1.40
8705.00,1.40
8704.00,1.40
8703.00,1.40
8702.00,1.40
8701.00,1.40
8700.00,1.40
8699.00,1.40
8698.00,1.39
8697.00,1.39
8696.00,1.39
8695.00,1.39
8694.00,1.39
8693.00,1.39
8692.00,1.39
8691.00,1.39
8690.00,1.38
8689.00,1.38
8688.00,1.38
8687.00,1.38
8686.00,1.38
8685.00,1.38
8684.00,1.38
8683.00,1.38
8682.00,1.38
8681.00,1.38
8680.00,1.38
8679.00,1.38
8678.00,1.39
8677.00,1.39
8676.00,1.39
8675.00,1.39
8674.00,1.39
8673.00,1.39
8672.00,1.39
8671.00,1.39
8670.00,1.39
8669.00,1.39
8668.00,1.39
8667.00,1.38
8666.00,1.38
8665.00,1.38
8664.00,1.38
8663.00,1.38
8662.00,1.38
8661.00,1.38
8660.00,1.38
8659.00,1.38
8658.00,1.38
8657.00,1.38
8656.00,1.38
8655.00,1.38
8654.00,1.38
8653.00,1.38
8652.00,1.38
8651.00,1.38
8650.00,1.38
8649.00,1.38
8648.00,1.38
8647.00,1.38
8646.00,1.38
8645.00,1.38
8644.00,1.37
8643.00,1.37
8642.00,1.37
8641.00,1.37
8640.00,1.37
8639.00,1.36
8638.00,1.36
8637.00,1.36
8636.00,1.36
8635.00,1.36
8634.00,1.35
8633.00,1.35
8632.00,1.35
8631.00,1.35
8630.00,1.35
8629.00,1.35
8628.00,1.34
8627.00,1.34
8626.00,1.34
8625.00,1.34
8624.00,1.34
8623.00,1.34
8622.00,1.34
8621.00,1.34
8620.00,1.34
8619.00,1.34
8618.00,1.34
8617.00,1.34
8616.00,1.34
8615.00,1.34
8614.00,1.34
8613.00,1.34
8612.00,1.34
8611.00,1.34
8610.00,1.34
8609.00,1.35
8608.00,1.35
8607.00,1.35
8606.00,1.35
8605.00,1.35
8604.00,1.35
8603.00,1.35
8602.00,1.36
8601.00,1.36
8600.00,1.36
8599.00,1.36
8598.00,1.36
8597.00,1.36
8596.00,1.36
8595.00,1.36
8594.00,1.37
8593.00,1.37
8592.00,1.37
8591.00,1.37
8590.00,1.37
8589.00,1.37
8588.00,1.37
8587.00,1.37
8586.00,1.37
8585.00,1.37
8584.00,1.37
8583.00,1.37
8582.00,1.37
8581.00,1.37
8580.00,1.37
8579.00,1.37
8578.00,1.37
8577.00,1.37
8576.00,1.36
8575.00,1.36
8574.00,1.36
8573.00,1.36
8572.00,1.36
8571.00,1.36
8570.00,1.35
8569.00,1.35
8568.00,1.35
8567.00,1.35
8566.00,1.35
8565.00,1.35
8564.00,1.34
8563.00,1.34
8562.00,1.34
8561.00,1.34
8560.00,1.34
8559.00,1.34
8558.00,1.33
8557.00,1.33
8556.00,1.33
8555.00,1.33
8554.00,1.33
8553.00,1.33
8552.00,1.33
8551.00,1.33
8550.00,1.33
8549.00,1.33
8548.00,1.33
8547.00,1.33
8546.00,1.33
8545.00,1.33
8544.00,1.33
8543.00,1.33
8542.00,1.34
8541.00,1.34
8540.00,1.34
8539.00,1.34
8538.00,1.34
8537.00,1.34
8536.00,1.34
8535.00,1.34
8534.00,1.34
8533.00,1.34
8532.00,1.34
8531.00,1.34
8530.00,1.33
8529.00,1.33
8528.00,1.33
8527.00,1.33
8526.00,1.33
8525.00,1.33
8524.00,1.32
8523.00,1.32
8522.00,1.32
8521.00,1.32
8520.00,1.32
8519.00,1.32
8518.00,1.32
8517.00,1.32
8516.00,1.32
8515.00,1.32
8514.00,1.32
8513.00,1.31
8512.00,1.31
8511.00,1.32
8510.00,1.32
8509.00,1.32
8508.00,1.32
8507.00,1.32
8506.00,1.32
8505.00,1.32
8504.00,1.32
8503.00,1.32
8502.00,1.32
8501.00,1.32
8500.00,1.32
8499.00,1.31
8498.00,1.31
8497.00,1.31
8496.00,1.31
8495.00,1.31
8494.00,1.31
8493.00,1.31
8492.00,1.30
8491.00,1.30
8490.00,1.30
8489.00,1.30
8488.00,1.30
8487.00,1.30
8486.00,1.30
8485.00,1.30
8484.00,1.30
8483.00,1.29
8482.00,1.29
8481.00,1.29
8480.00,1.29
8479.00,1.29
8478.00,1.29
8477.00,1.29
8476.00,1.29
8475.00,1.29
8474.00,1.29
8473.00,1.29
8472.00,1.28
8471.00,1.28
8470.00,1.28
8469.00,1.28
8468.00,1.28
8467.00,1.28
8466.00,1.28
8465.00,1.28
8464.00,1.28
8463.00,1.27
8462.00,1.27
8461.00,1.27
8460.00,1.27
8459.00,1.27
8458.00,1.27
8457.00,1.27
8456.00,1.27
8455.00,1.27
8454.00,1.27
8453.00,1.27
8452.00,1.27
8451.00,1.27
8450.00,1.27
8449.00,1.27
8448.00,1.27
8447.00,1.27
8446.00,1.26
8445.00,1.26
8444.00,1.26
8443.00,1.26
8442.00,1.26
8441.00,1.26
8440.00,1.26
8439.00,1.25
8438.00,1.25
8437.00,1.25
8436.00,1.25
8435.00,1.26
8434.00,1.26
8433.00,1.26
8432.00,1.26
8431.00,1.26
8430.00,1.26
8429.00,1.26
8428.00,1.26
8427.00,1.26
8426.00,1.26
8425.00,1.26
8424.00,1.26
8423.00,1.26
8422.00,1.26
8421.00,1.26
8420.00,1.25
8419.00,1.25
8418.00,1.25
8417.00,1.25
8416.00,1.25
8415.00,1.25
8414.00,1.25
8413.00,1.25
8412.00,1.26
8411.00,1.26
8410.00,1.26
8409.00,1.26
8408.00,1.26
8407.00,1.26
8406.00,1.27
8405.00,1.27
8404.00,1.27
8403.00,1.27
8402.00,1.27
8401.00,1.27
8400.00,1.28
8399.00,1.28
8398.00,1.28
8397.00,1.28
8396.00,1.28
8395.00,1.28
8394.00,1.28
8393.00,1.28
8392.00,1.28
8391.00,1.29
8390.00,1.29
8389.00,1.29
8388.00,1.29
8387.00,1.29
8386.00,1.29
8385.00,1.29
8384.00,1.29
8383.00,1.30
8382.00,1.30
8381.00,1.30
8380.00,1.30
8379.00,1.30
8378.00,1.30
8377.00,1.30
8376.00,1.30
8375.00,1.31
8374.00,1.31
8373.00,1.31
8372.00,1.31
8371.00,1.31
8370.00,1.31
8369.00,1.31
8368.00,1.31
8367.00,1.31
8366.00,1.32
8365.00,1.32
8364.00,1.32
8363.00,1.32
8362.00,1.32
8361.00,1.32
8360.00,1.32
8359.00,1.33
8358.00,1.33
8357.00,1.33
8356.00,1.33
8355.00,1.33
8354.00,1.33
8353.00,1.33
8352.00,1.33
8351.00,1.33
8350.00,1.33
8349.00,1.33
8348.00,1.33
8347.00,1.33
8346.00,1.33
8345.00,1.33
8344.00,1.32
8343.00,1.32
8342.00,1.32
8341.00,1.32
8340.00,1.32
8339.00,1.32
8338.00,1.32
8337.00,1.32
8336.00,1.32
8335.00,1.32
8334.00,1.32
8333.00,1.32
8332.00,1.32
8331.00,1.32
8330.00,1.32
8329.00,1.32
8328.00,1.32
8327.00,1.32
8326.00,1.32
8325.00,1.32
8324.00,1.32
8323.00,1.32
8322.00,1.32
8321.00,1.32
8320.00,1.32
8319.00,1.32
8318.00,1.33
8317.00,1.33
8316.00,1.33
8315.00,1.33
8314.00,1.33
8313.00,1.33
8312.00,1.33
8311.00,1.33
8310.00,1.33
8309.00,1.34
8308.00,1.34
8307.00,1.34
8306.00,1.34
8305.00,1.34
8304.00,1.34
8303.00,1.34
8302.00,1.34
8301.00,1.34
8300.00,1.35
8299.00,1.35
8298.00,1.35
8297.00,1.35
8296.00,1.35
8295.00,1.35
8294.00,1.34
8293.00,1.34
8292.00,1.34
8291.00,1.34
8290.00,1.34
8289.00,1.34
8288.00,1.34
8287.00,1.34
8286.00,1.34
8285.00,1.34
8284.00,1.34
8283.00,1.34
8282.00,1.34
8281.00,1.34
8280.00,1.34
8279.00,1.35
8278.00,1.35
8277.00,1.35
8276.00,1.35
8275.00,1.35
8274.00,1.35
8273.00,1.35
8272.00,1.35
8271.00,1.35
8270.00,1.35
8269.00,1.34
8268.00,1.34
8267.00,1.34
8266.00,1.34
8265.00,1.34
8264.00,1.34
8263.00,1.34
8262.00,1.34
8261.00,1.34
8260.00,1.34
8259.00,1.34
8258.00,1.34
8257.00,1.34
8256.00,1.34
8255.00,1.34
8254.00,1.34
8253.00,1.34
8252.00,1.34
8251.00,1.34
8250.00,1.34
8249.00,1.34
8248.00,1.34
8247.00,1.34
8246.00,1.34
8245.00,1.34
8244.00,1.34
8243.00,1.34
8242.00,1.34
8241.00,1.34
8240.00,1.34
8239.00,1.34
8238.00,1.34
8237.00,1.34
8236.00,1.34
8235.00,1.34
8234.00,1.34
8233.00,1.34
8232.00,1.34
8231.00,1.34
8230.00,1.34
8229.00,1.34
8228.00,1.35
8227.00,1.35
8226.00,1.35
8225.00,1.35
8224.00,1.35
8223.00,1.35
8222.00,1.36
8221.00,1.36
8220.00,1.36
8219.00,1.36
8218.00,1.36
8217.00,1.36
8216.00,1.37
8215.00,1.37
8214.00,1.37
8213.00,1.37
8212.00,1.37
8211.00,1.37
8210.00,1.37
8209.00,1.37
8208.00,1.38
8207.00,1.38
8206.00,1.38
8205.00,1.38
8204.00,1.38
8203.00,1.37
8202.00,1.37
8201.00,1.37
8200.00,1.37
8199.00,1.37
8198.00,1.37
8197.00,1.37
8196.00,1.37
8195.00,1.37
8194.00,1.37
8193.00,1.37
8192.00,1.37
8191.00,1.37
8190.00,1.37
8189.00,1.37
8188.00,1.37
8187.00,1.37
8186.00,1.37
8185.00,1.37
8184.00,1.37
8183.00,1.37
8182.00,1.37
8181.00,1.37
8180.00,1.37
8179.00,1.37
8178.00,1.37
8177.00,1.37
8176.00,1.37
8175.00,1.37
8174.00,1.37
8173.00,1.37
8172.00,1.37
8171.00,1.37
8170.00,1.37
8169.00,1.37
8168.00,1.37
8167.00,1.37
8166.00,1.37
8165.00,1.37
8164.00,1.37
8163.00,1.37
8162.00,1.37
8161.00,1.37
8160.00,1.37
8159.00,1.37
8158.00,1.36
8157.00,1.36
8156.00,1.36
8155.00,1.36
8154.00,1.36
8153.00,1.36
8152.00,1.36
8151.00,1.36
8150.00,1.36
8149.00,1.36
8148.00,1.36
8147.00,1.36
8146.00,1.36
8145.00,1.36
8144.00,1.36
8143.00,1.37
8142.00,1.37
8141.00,1.37
8140.00,1.37
8139.00,1.38
8138.00,1.38
8137.00,1.38
8136.00,1.38
8135.00,1.39
8134.00,1.39
8133.00,1.39
8132.00,1.39
8131.00,1.39
8130.00,1.39
8129.00,1.40
8128.00,1.40
8127.00,1.40
8126.00,1.40
8125.00,1.40
8124.00,1.40
8123.00,1.40
8122.00,1.39
8121.00,1.39
8120.00,1.39
8119.00,1.39
8118.00,1.39
8117.00,1.39
8116.00,1.39
8115.00,1.39
8114.00,1.39
8113.00,1.39
8112.00,1.39
8111.00,1.39
8110.00,1.39
8109.00,1.39
8108.00,1.39
8107.00,1.39
8106.00,1.39
8105.00,1.39
8104.00,1.39
8103.00,1.39
8102.00,1.39
8101.00,1.39
8100.00,1.39
8099.00,1.39
8098.00,1.39
8097.00,1.39
8096.00,1.39
8095.00,1.39
8094.00,1.39
8093.00,1.39
8092.00,1.39
8091.00,1.39
8090.00,1.39
8089.00,1.39
8088.00,1.39
8087.00,1.39
8086.00,1.40
8085.00,1.40
8084.00,1.40
8083.00,1.40
8082.00,1.40
8081.00,1.40
8080.00,1.40
8079.00,1.40
8078.00,1.40
8077.00,1.41
8076.00,1.41
8075.00,1.41
8074.00,1.41
8073.00,1.41
8072.00,1.41
8071.00,1.41
8070.00,1.42
8069.00,1.42
8068.00,1.42
8067.00,1.42
8066.00,1.42
8065.00,1.42
8064.00,1.42
8063.00,1.42
8062.00,1.42
8061.00,1.43
8060.00,1.43
8059.00,1.43
8058.00,1.43
8057.00,1.43
8056.00,1.42
8055.00,1.42
8054.00,1.42
8053.00,1.42
8052.00,1.42
8051.00,1.42
8050.00,1.42
8049.00,1.42
8048.00,1.42
8047.00,1.42
8046.00,1.41
8045.00,1.41
8044.00,1.41
8043.00,1.41
8042.00,1.41
8041.00,1.41
8040.00,1.41
8039.00,1.41
8038.00,1.41
8037.00,1.41
8036.00,1.41
8035.00,1.42
8034.00,1.42
8033.00,1.42
8032.00,1.42
8031.00,1.42
8030.00,1.42
8029.00,1.42
8028.00,1.42
8027.00,1.42
8026.00,1.42
8025.00,1.42
8024.00,1.42
8023.00,1.42
8022.00,1.42
8021.00,1.42
8020.00,1.42
8019.00,1.42
8018.00,1.42
8017.00,1.42
8016.00,1.42
8015.00,1.42
8014.00,1.43
8013.00,1.43
8012.00,1.43
8011.00,1.43
8010.00,1.43
8009.00,1.43
8008.00,1.43
8007.00,1.44
8006.00,1.44
8005.00,1.44
8004.00,1.44
8003.00,1.44
8002.00,1.45
8001.00,1.45
8000.00,1.45
7999.00,1.45
7998.00,1.45
7997.00,1.45
7996.00,1.46
7995.00,1.46
7994.00,1.46
7993.00,1.46
7992.00,1.46
7991.00,1.46
7990.00,1.46
7989.00,1.46
7988.00,1.45
7987.00,1.45
7986.00,1.45
7985.00,1.45
7984.00,1.45
7983.00,1.44
7982.00,1.44
7981.00,1.44
7980.00,1.43
7979.00,1.43
7978.00,1.43
7977.00,1.43
7976.00,1.43
7975.00,1.42
7974.00,1.42
7973.00,1.42
7972.00,1.42
7971.00,1.42
7970.00,1.42
7969.00,1.42
7968.00,1.42
7967.00,1.42
7966.00,1.42
7965.00,1.42
7964.00,1.42
7963.00,1.42
7962.00,1.42
7961.00,1.42
7960.00,1.42
7959.00,1.42
7958.00,1.42
7957.00,1.42
7956.00,1.42
7955.00,1.43
7954.00,1.43
7953.00,1.43
7952.00,1.43
7951.00,1.43
7950.00,1.43
7949.00,1.44
7948.00,1.44
7947.00,1.44
7946.00,1.44
7945.00,1.44
7944.00,1.44
7943.00,1.44
7942.00,1.44
7941.00,1.44
7940.00,1.44
7939.00,1.44
7938.00,1.44
7937.00,1.44
7936.00,1.44
7935.00,1.44
7934.00,1.44
7933.00,1.44
7932.00,1.44
7931.00,1.44
7930.00,1.44
7929.00,1.45
7928.00,1.45
7927.00,1.45
7926.00,1.45
7925.00,1.45
7924.00,1.45
7923.00,1.45
7922.00,1.45
7921.00,1.45
7920.00,1.45
7919.00,1.45
7918.00,1.45
7917.00,1.45
7916.00,1.45
7915.00,1.45
7914.00,1.45
7913.00,1.45
7912.00,1.45
7911.00,1.45
7910.00,1.45
7909.00,1.45
7908.00,1.45
7907.00,1.45
7906.00,1.45
7905.00,1.45
7904.00,1.45
7903.00,1.46
7902.00,1.46
7901.00,1.46
7900.00,1.46
7899.00,1.46
7898.00,1.46
7897.00,1.46
7896.00,1.46
7895.00,1.46
7894.00,1.46
7893.00,1.46
7892.00,1.46
7891.00,1.46
7890.00,1.46
7889.00,1.46
7888.00,1.46
7887.00,1.46
7886.00,1.46
7885.00,1.46
7884.00,1.46
7883.00,1.46
7882.00,1.46
7881.00,1.46
7880.00,1.46
7879.00,1.46
7878.00,1.46
7877.00,1.46
7876.00,1.46
7875.00,1.46
7874.00,1.46
7873.00,1.46
7872.00,1.45
7871.00,1.45
7870.00,1.45
7869.00,1.45
7868.00,1.45
7867.00,1.45
7866.00,1.45
7865.00,1.45
7864.00,1.45
7863.00,1.45
7862.00,1.45
7861.00,1.45
7860.00,1.45
7859.00,1.45
7858.00,1.45
7857.00,1.45
7856.00,1.46
7855.00,1.46
7854.00,1.46
7853.00,1.46
7852.00,1.46
7851.00,1.46
7850.00,1.46
7849.00,1.46
7848.00,1.47
7847.00,1.47
7846.00,1.47
7845.00,1.47
7844.00,1.47
7843.00,1.47
7842.00,1.47
7841.00,1.46
7840.00,1.46
7839.00,1.46
7838.00,1.46
7837.00,1.46
7836.00,1.46
7835.00,1.46
7834.00,1.46
7833.00,1.46
7832.00,1.46
7831.00,1.46
7830.00,1.46
7829.00,1.46
7828.00,1.46
7827.00,1.46
7826.00,1.47
7825.00,1.47
7824.00,1.47
7823.00,1.47
7822.00,1.47
7821.00,1.47
7820.00,1.47
7819.00,1.47
7818.00,1.47
7817.00,1.47
7816.00,1.47
7815.00,1.47
7814.00,1.46
7813.00,1.46
7812.00,1.46
7811.00,1.46
7810.00,1.46
7809.00,1.46
7808.00,1.46
7807.00,1.47
7806.00,1.47
7805.00,1.47
7804.00,1.47
7803.00,1.47
7802.00,1.47
7801.00,1.47
7800.00,1.47
7799.00,1.47
7798.00,1.47
7797.00,1.47
7796.00,1.47
7795.00,1.47
7794.00,1.47
7793.00,1.47
7792.00,1.47
7791.00,1.47
7790.00,1.47
7789.00,1.47
7788.00,1.47
7787.00,1.47
7786.00,1.46
7785.00,1.46
7784.00,1.46
7783.00,1.46
7782.00,1.46
7781.00,1.46
7780.00,1.46
7779.00,1.46
7778.00,1.47
7777.00,1.47
7776.00,1.47
7775.00,1.47
7774.00,1.47
7773.00,1.47
7772.00,1.47
7771.00,1.47
7770.00,1.47
7769.00,1.47
7768.00,1.47
7767.00,1.47
7766.00,1.47
7765.00,1.47
7764.00,1.47
7763.00,1.47
7762.00,1.47
7761.00,1.47
7760.00,1.47
7759.00,1.47
7758.00,1.47
7757.00,1.46
7756.00,1.46
7755.00,1.46
7754.00,1.46
7753.00,1.46
7752.00,1.46
7751.00,1.46
7750.00,1.46
7749.00,1.46
7748.00,1.46
7747.00,1.46
7746.00,1.46
7745.00,1.46
7744.00,1.46
7743.00,1.47
7742.00,1.47
7741.00,1.47
7740.00,1.47
7739.00,1.47
7738.00,1.47
7737.00,1.47
7736.00,1.47
7735.00,1.47
7734.00,1.48
7733.00,1.48
7732.00,1.48
7731.00,1.48
7730.00,1.48
7729.00,1.48
7728.00,1.48
7727.00,1.48
7726.00,1.48
7725.00,1.48
7724.00,1.48
7723.00,1.48
7722.00,1.48
7721.00,1.48
7720.00,1.48
7719.00,1.48
7718.00,1.48
7717.00,1.48
7716.00,1.48
7715.00,1.48
7714.00,1.48
7713.00,1.48
7712.00,1.48
7711.00,1.47
7710.00,1.47
7709.00,1.47
7708.00,1.47
7707.00,1.47
7706.00,1.47
7705.00,1.47
7704.00,1.47
7703.00,1.47
7702.00,1.47
7701.00,1.47
7700.00,1.48
7699.00,1.48
7698.00,1.48
7697.00,1.48
7696.00,1.48
7695.00,1.48
7694.00,1.48
7693.00,1.48
7692.00,1.48
7691.00,1.48
7690.00,1.48
7689.00,1.48
7688.00,1.48
7687.00,1.48
7686.00,1.49
7685.00,1.49
7684.00,1.49
7683.00,1.49
7682.00,1.49
7681.00,1.49
7680.00,1.49
7679.00,1.49
7678.00,1.49
7677.00,1.49
7676.00,1.49
7675.00,1.49
7674.00,1.49
7673.00,1.49
7672.00,1.49
7671.00,1.49
7670.00,1.49
7669.00,1.48
7668.00,1.48
7667.00,1.48
7666.00,1.48
7665.00,1.48
7664.00,1.48
7663.00,1.48
7662.00,1.48
7661.00,1.48
7660.00,1.48
7659.00,1.48
7658.00,1.48
7657.00,1.48
7656.00,1.48
7655.00,1.48
7654.00,1.48
7653.00,1.48
7652.00,1.48
7651.00,1.48
7650.00,1.48
7649.00,1.48
7648.00,1.48
7647.00,1.48
7646.00,1.48
7645.00,1.48
7644.00,1.48
7643.00,1.48
7642.00,1.48
7641.00,1.48
7640.00,1.48
7639.00,1.48
7638.00,1.48
7637.00,1.49
7636.00,1.49
7635.00,1.49
7634.00,1.49
7633.00,1.48
7632.00,1.48
7631.00,1.48
7630.00,1.48
7629.00,1.48
7628.00,1.48
7627.00,1.48
7626.00,1.48
7625.00,1.48
7624.00,1.48
7623.00,1.48
7622.00,1.48
7621.00,1.48
7620.00,1.48
7619.00,1.48
7618.00,1.48
7617.00,1.48
7616.00,1.48
7615.00,1.48
7614.00,1.48
7613.00,1.48
7612.00,1.48
7611.00,1.48
7610.00,1.48
7609.00,1.48
7608.00,1.48
7607.00,1.48
7606.00,1.48
7605.00,1.48
7604.00,1.48
7603.00,1.48
7602.00,1.48
7601.00,1.48
7600.00,1.48
7599.00,1.48
7598.00,1.48
7597.00,1.48
7596.00,1.48
7595.00,1.48
7594.00,1.48
7593.00,1.48
7592.00,1.48
7591.00,1.48
7590.00,1.48
7589.00,1.48
7588.00,1.48
7587.00,1.48
7586.00,1.48
7585.00,1.48
7584.00,1.48
7583.00,1.48
7582.00,1.48
7581.00,1.48
7580.00,1.48
7579.00,1.48
7578.00,1.48
7577.00,1.48
7576.00,1.48
7575.00,1.48
7574.00,1.47
7573.00,1.47
7572.00,1.47
7571.00,1.47
7570.00,1.47
7569.00,1.47
7568.00,1.47
7567.00,1.47
7566.00,1.47
7565.00,1.47
7564.00,1.47
7563.00,1.47
7562.00,1.47
7561.00,1.47
7560.00,1.47
7559.00,1.47
7558.00,1.47
7557.00,1.47
7556.00,1.47
7555.00,1.47
7554.00,1.47
7553.00,1.47
7552.00,1.47
7551.00,1.47
7550.00,1.47
7549.00,1.47
7548.00,1.47
7547.00,1.47
7546.00,1.47
7545.00,1.48
7544.00,1.48
7543.00,1.48
7542.00,1.48
7541.00,1.48
7540.00,1.48
7539.00,1.48
7538.00,1.48
7537.00,1.48
7536.00,1.48
7535.00,1.48
7534.00,1.47
7533.00,1.47
7532.00,1.47
7531.00,1.47
7530.00,1.47
7529.00,1.47
7528.00,1.47
7527.00,1.47
7526.00,1.47
7525.00,1.47
7524.00,1.46
7523.00,1.46
7522.00,1.46
7521.00,1.46
7520.00,1.46
7519.00,1.46
7518.00,1.46
7517.00,1.46
7516.00,1.46
7515.00,1.46
7514.00,1.46
7513.00,1.46
7512.00,1.46
7511.00,1.46
7510.00,1.46
7509.00,1.46
7508.00,1.46
7507.00,1.46
7506.00,1.46
7505.00,1.46
7504.00,1.46
7503.00,1.46
7502.00,1.46
7501.00,1.46
7500.00,1.46
7499.00,1.46
7498.00,1.46
7497.00,1.46
7496.00,1.46
7495.00,1.46
7494.00,1.46
7493.00,1.46
7492.00,1.46
7491.00,1.46
7490.00,1.46
7489.00,1.46
7488.00,1.46
7487.00,1.46
7486.00,1.46
7485.00,1.46
7484.00,1.46
7483.00,1.46
7482.00,1.46
7481.00,1.46
7480.00,1.46
7479.00,1.45
7478.00,1.45
7477.00,1.45
7476.00,1.45
7475.00,1.45
7474.00,1.45
7473.00,1.45
7472.00,1.45
7471.00,1.44
7470.00,1.44
7469.00,1.44
7468.00,1.44
7467.00,1.44
7466.00,1.44
7465.00,1.44
7464.00,1.44
7463.00,1.44
7462.00,1.44
7461.00,1.44
7460.00,1.44
7459.00,1.44
7458.00,1.44
7457.00,1.44
7456.00,1.44
7455.00,1.44
7454.00,1.44
7453.00,1.44
7452.00,1.44
7451.00,1.44
7450.00,1.44
7449.00,1.44
7448.00,1.44
7447.00,1.43
7446.00,1.43
7445.00,1.43
7444.00,1.43
7443.00,1.43
7442.00,1.43
7441.00,1.43
7440.00,1.43
7439.00,1.43
7438.00,1.43
7437.00,1.43
7436.00,1.43
7435.00,1.43
7434.00,1.43
7433.00,1.43
7432.00,1.43
7431.00,1.43
7430.00,1.43
7429.00,1.43
7428.00,1.43
7427.00,1.43
7426.00,1.43
7425.00,1.43
7424.00,1.43
7423.00,1.43
7422.00,1.43
7421.00,1.43
7420.00,1.42
7419.00,1.42
7418.00,1.42
7417.00,1.42
7416.00,1.42
7415.00,1.42
7414.00,1.42
7413.00,1.42
7412.00,1.42
7411.00,1.42
7410.00,1.42
7409.00,1.42
7408.00,1.41
7407.00,1.41
7406.00,1.41
7405.00,1.41
7404.00,1.41
7403.00,1.41
7402.00,1.40
7401.00,1.40
7400.00,1.40
7399.00,1.40
7398.00,1.39
7397.00,1.39
7396.00,1.39
7395.00,1.39
7394.00,1.39
7393.00,1.38
7392.00,1.38
7391.00,1.38
7390.00,1.38
7389.00,1.38
7388.00,1.38
7387.00,1.38
7386.00,1.37
7385.00,1.37
7384.00,1.37
7383.00,1.37
7382.00,1.37
7381.00,1.37
7380.00,1.37
7379.00,1.37
7378.00,1.37
7377.00,1.37
7376.00,1.37
7375.00,1.37
7374.00,1.37
7373.00,1.37
7372.00,1.37
7371.00,1.37
7370.00,1.37
7369.00,1.37
7368.00,1.36
7367.00,1.36
7366.00,1.36
7365.00,1.36
7364.00,1.36
7363.00,1.36
7362.00,1.36
7361.00,1.36
7360.00,1.36
7359.00,1.36
7358.00,1.36
7357.00,1.36
7356.00,1.36
7355.00,1.36
7354.00,1.36
7353.00,1.36
7352.00,1.36
7351.00,1.36
7350.00,1.36
7349.00,1.36
7348.00,1.36
7347.00,1.36
7346.00,1.36
7345.00,1.36
7344.00,1.36
7343.00,1.36
7342.00,1.36
7341.00,1.36
7340.00,1.36
7339.00,1.36
7338.00,1.36
7337.00,1.36
7336.00,1.36
7335.00,1.36
7334.00,1.36
7333.00,1.36
7332.00,1.36
7331.00,1.36
7330.00,1.36
7329.00,1.36
7328.00,1.36
7327.00,1.36
7326.00,1.36
7325.00,1.36
7324.00,1.36
7323.00,1.36
7322.00,1.36
7321.00,1.36
7320.00,1.35
7319.00,1.35
7318.00,1.35
7317.00,1.35
7316.00,1.35
7315.00,1.35
7314.00,1.35
7313.00,1.35
7312.00,1.35
7311.00,1.35
7310.00,1.35
7309.00,1.35
7308.00,1.35
7307.00,1.35
7306.00,1.35
7305.00,1.35
7304.00,1.34
7303.00,1.34
7302.00,1.34
7301.00,1.34
7300.00,1.34
7299.00,1.34
7298.00,1.33
7297.00,1.33
7296.00,1.33
7295.00,1.33
7294.00,1.32
7293.00,1.32
7292.00,1.32
7291.00,1.32
7290.00,1.31
7289.00,1.31
7288.00,1.31
7287.00,1.31
7286.00,1.31
7285.00,1.31
7284.00,1.31
7283.00,1.31
7282.00,1.31
7281.00,1.31
7280.00,1.31
7279.00,1.31
7278.00,1.31
7277.00,1.31
7276.00,1.30
7275.00,1.30
7274.00,1.30
7273.00,1.30
7272.00,1.30
7271.00,1.30
7270.00,1.30
7269.00,1.30
7268.00,1.30
7267.00,1.30
7266.00,1.29
7265.00,1.29
7264.00,1.29
7263.00,1.29
7262.00,1.29
7261.00,1.29
7260.00,1.28
7259.00,1.28
7258.00,1.28
7257.00,1.28
7256.00,1.28
7255.00,1.28
7254.00,1.27
7253.00,1.27
7252.00,1.27
7251.00,1.27
7250.00,1.27
7249.00,1.26
7248.00,1.26
7247.00,1.26
7246.00,1.26
7245.00,1.26
7244.00,1.25
7243.00,1.25
7242.00,1.25
7241.00,1.25
7240.00,1.24
7239.00,1.24
7238.00,1.24
7237.00,1.24
7236.00,1.23
7235.00,1.23
7234.00,1.23
7233.00,1.23
7232.00,1.22
7231.00,1.22
7230.00,1.22
7229.00,1.21
7228.00,1.21
7227.00,1.21
7226.00,1.20
7225.00,1.20
7224.00,1.19
7223.00,1.19
7222.00,1.19
7221.00,1.18
7220.00,1.18
7219.00,1.18
7218.00,1.17
7217.00,1.17
7216.00,1.16
7215.00,1.16
7214.00,1.16
7213.00,1.15
7212.00,1.15
7211.00,1.15
7210.00,1.14
7209.00,1.14
7208.00,1.14
7207.00,1.13
7206.00,1.13
7205.00,1.12
7204.00,1.12
7203.00,1.12
7202.00,1.11
7201.00,1.11
7200.00,1.10
7199.00,1.10
7198.00,1.10
7197.00,1.09
7196.00,1.09
7195.00,1.09
7194.00,1.08
7193.00,1.08
7192.00,1.08
7191.00,1.07
7190.00,1.07
7189.00,1.07
7188.00,1.07
7187.00,1.06
7186.00,1.06
7185.00,1.06
7184.00,1.06
7183.00,1.05
7182.00,1.05
7181.00,1.05
7180.00,1.05
7179.00,1.05
7178.00,1.04
7177.00,1.04
7176.00,1.04
7175.00,1.04
7174.00,1.03
7173.00,1.03
7172.00,1.03
7171.00,1.03
7170.00,1.02
7169.00,1.02
7168.00,1.02
7167.00,1.01
7166.00,1.01
7165.00,1.01
7164.00,1.00
7163.00,1.00
7162.00,1.00
7161.00,1.00
7160.00,0.99
7159.00,0.99
7158.00,0.99
7157.00,0.99
7156.00,0.99
7155.00,0.98
7154.00,0.98
7153.00,0.98
7152.00,0.98
7151.00,0.98
7150.00,0.98
7149.00,0.98
7148.00,0.97
7147.00,0.97
7146.00,0.97
7145.00,0.97
7144.00,0.96
7143.00,0.96
7142.00,0.96
7141.00,0.96
7140.00,0.95
7139.00,0.95
7138.00,0.95
7137.00,0.95
7136.00,0.94
7135.00,0.94
7134.00,0.94
7133.00,0.93
7132.00,0.93
7131.00,0.93
7130.00,0.92
7129.00,0.92
7128.00,0.92
7127.00,0.91
7126.00,0.91
7125.00,0.91
7124.00,0.90
7123.00,0.90
7122.00,0.90
7121.00,0.89
7120.00,0.89
7119.00,0.89
7118.00,0.89
7117.00,0.88
7116.00,0.88
7115.00,0.88
7114.00,0.88
7113.00,0.87
7112.00,0.87
7111.00,0.87
7110.00,0.87
7109.00,0.86
7108.00,0.86
7107.00,0.86
7106.00,0.85
7105.00,0.85
7104.00,0.85
7103.00,0.84
7102.00,0.84
7101.00,0.84
7100.00,0.84
7099.00,0.83
7098.00,0.83
7097.00,0.83
7096.00,0.82
7095.00,0.82
7094.00,0.82
7093.00,0.82
7092.00,0.81
7091.00,0.81
7090.00,0.81
7089.00,0.81
7088.00,0.80
7087.00,0.80
7086.00,0.80
7085.00,0.80
7084.00,0.80
7083.00,0.79
7082.00,0.79
7081.00,0.79
7080.00,0.79
7079.00,0.79
7078.00,0.78
7077.00,0.78
7076.00,0.78
7075.00,0.77
7074.00,0.77
7073.00,0.77
7072.00,0.77
7071.00,0.76
7070.00,0.76
7069.00,0.76
7068.00,0.75
7067.00,0.75
7066.00,0.75
7065.00,0.74
7064.00,0.74
7063.00,0.74
7062.00,0.74
7061.00,0.73
7060.00,0.73
7059.00,0.73
7058.00,0.73
7057.00,0.73
7056.00,0.73
7055.00,0.73
7054.00,0.73
7053.00,0.72
7052.00,0.72
7051.00,0.72
7050.00,0.72
7049.00,0.72
7048.00,0.72
7047.00,0.72
7046.00,0.72
7045.00,0.72
7044.00,0.72
7043.00,0.71
7042.00,0.71
7041.00,0.71
7040.00,0.71
7039.00,0.71
7038.00,0.71
7037.00,0.71
7036.00,0.70
7035.00,0.70
7034.00,0.70
7033.00,0.70
7032.00,0.70
7031.00,0.70
7030.00,0.70
7029.00,0.70
7028.00,0.70
7027.00,0.70
7026.00,0.69
7025.00,0.69
7024.00,0.69
7023.00,0.69
7022.00,0.69
7021.00,0.69
7020.00,0.69
7019.00,0.69
7018.00,0.68
7017.00,0.68
7016.00,0.68
7015.00,0.68
7014.00,0.68
7013.00,0.68
7012.00,0.67
7011.00,0.67
7010.00,0.67
7009.00,0.67
7008.00,0.67
7007.00,0.67
7006.00,0.67
7005.00,0.67
7004.00,0.66
7003.00,0.66
7002.00,0.66
7001.00,0.66
7000.00,0.66
6999.00,0.66
6998.00,0.66
6997.00,0.66
6996.00,0.66
6995.00,0.66
6994.00,0.66
6993.00,0.66
6992.00,0.66
6991.00,0.66
6990.00,0.66
6989.00,0.66
6988.00,0.66
6987.00,0.66
6986.00,0.66
6985.00,0.66
6984.00,0.65
6983.00,0.65
6982.00,0.65
6981.00,0.65
6980.00,0.65
6979.00,0.65
6978.00,0.65
6977.00,0.65
6976.00,0.65
6975.00,0.64
6974.00,0.64
6973.00,0.64
6972.00,0.64
6971.00,0.64
6970.00,0.64
6969.00,0.64
6968.00,0.64
6967.00,0.64
6966.00,0.64
6965.00,0.64
6964.00,0.64
6963.00,0.64
6962.00,0.63
6961.00,0.63
6960.00,0.63
6959.00,0.63
6958.00,0.63
6957.00,0.63
6956.00,0.63
6955.00,0.63
6954.00,0.63
6953.00,0.63
6952.00,0.63
6951.00,0.63
6950.00,0.63
6949.00,0.63
6948.00,0.63
6947.00,0.62
6946.00,0.62
6945.00,0.62
6944.00,0.62
6943.00,0.62
6942.00,0.62
6941.00,0.62
6940.00,0.62
6939.00,0.61
6938.00,0.61
6937.00,0.61
6936.00,0.61
6935.00,0.61
6934.00,0.61
6933.00,0.61
6932.00,0.61
6931.00,0.60
6930.00,0.60
6929.00,0.60
6928.00,0.60
6927.00,0.60
6926.00,0.60
6925.00,0.60
6924.00,0.60
6923.00,0.60
6922.00,0.60
6921.00,0.60
6920.00,0.60
6919.00,0.60
6918.00,0.60
6917.00,0.60
6916.00,0.60
6915.00,0.60
6914.00,0.60
6913.00,0.60
6912.00,0.60
6911.00,0.60
6910.00,0.60
6909.00,0.60
6908.00,0.61
6907.00,0.61
6906.00,0.61
6905.00,0.61
6904.00,0.61
6903.00,0.61
6902.00,0.61
6901.00,0.61
6900.00,0.61
6899.00,0.61
6898.00,0.61
6897.00,0.61
6896.00,0.61
6895.00,0.61
6894.00,0.61
6893.00,0.61
6892.00,0.61
6891.00,0.61
6890.00,0.61
6889.00,0.61
6888.00,0.61
6887.00,0.61
6886.00,0.61
6885.00,0.61
6884.00,0.61
6883.00,0.61
6882.00,0.60
6881.00,0.60
6880.00,0.60
6879.00,0.60
6878.00,0.60
6877.00,0.60
6876.00,0.60
6875.00,0.60
6874.00,0.60
6873.00,0.60
6872.00,0.59
6871.00,0.59
6870.00,0.59
6869.00,0.59
6868.00,0.59
6867.00,0.59
6866.00,0.59
6865.00,0.59
6864.00,0.59
6863.00,0.59
6862.00,0.59
6861.00,0.59
6860.00,0.59
6859.00,0.59
6858.00,0.59
6857.00,0.59
6856.00,0.59
6855.00,0.59
6854.00,0.59
6853.00,0.59
6852.00,0.60
6851.00,0.60
6850.00,0.60
6849.00,0.60
6848.00,0.60
6847.00,0.60
6846.00,0.60
6845.00,0.60
6844.00,0.60
6843.00,0.60
6842.00,0.60
6841.00,0.60
6840.00,0.61
6839.00,0.61
6838.00,0.61
6837.00,0.61
6836.00,0.61
6835.00,0.61
6834.00,0.61
6833.00,0.61
6832.00,0.61
6831.00,0.61
6830.00,0.61
6829.00,0.61
6828.00,0.61
6827.00,0.61
6826.00,0.61
6825.00,0.61
6824.00,0.61
6823.00,0.61
6822.00,0.61
6821.00,0.61
6820.00,0.61
6819.00,0.61
6818.00,0.61
6817.00,0.61
6816.00,0.60
6815.00,0.60
6814.00,0.60
6813.00,0.60
6812.00,0.60
6811.00,0.61
6810.00,0.61
6809.00,0.61
6808.00,0.61
6807.00,0.61
6806.00,0.61
6805.00,0.61
6804.00,0.61
6803.00,0.61
6802.00,0.61
6801.00,0.61
6800.00,0.62
6799.00,0.62
6798.00,0.62
6797.00,0.62
6796.00,0.62
6795.00,0.62
6794.00,0.62
6793.00,0.62
6792.00,0.62
6791.00,0.62
6790.00,0.62
6789.00,0.62
6788.00,0.63
6787.00,0.63
6786.00,0.63
6785.00,0.63
6784.00,0.63
6783.00,0.63
6782.00,0.63
6781.00,0.63
6780.00,0.63
6779.00,0.63
6778.00,0.63
6777.00,0.63
6776.00,0.63
6775.00,0.63
6774.00,0.63
6773.00,0.63
6772.00,0.63
6771.00,0.63
6770.00,0.63
6769.00,0.63
6768.00,0.63
6767.00,0.63
6766.00,0.63
6765.00,0.63
6764.00,0.63
6763.00,0.63
6762.00,0.63
6761.00,0.63
6760.00,0.63
6759.00,0.63
6758.00,0.63
6757.00,0.63
6756.00,0.63
6755.00,0.63
6754.00,0.63
6753.00,0.63
6752.00,0.63
6751.00,0.63
6750.00,0.63
6749.00,0.64
6748.00,0.64
6747.00,0.64
6746.00,0.64
6745.00,0.64
6744.00,0.64
6743.00,0.64
6742.00,0.64
6741.00,0.64
6740.00,0.64
6739.00,0.65
6738.00,0.65
6737.00,0.65
6736.00,0.65
6735.00,0.65
6734.00,0.65
6733.00,0.65
6732.00,0.65
6731.00,0.65
6730.00,0.66
6729.00,0.66
6728.00,0.66
6727.00,0.66
6726.00,0.66
6725.00,0.66
6724.00,0.66
6723.00,0.67
6722.00,0.67
6721.00,0.67
6720.00,0.67
6719.00,0.67
6718.00,0.67
6717.00,0.68
6716.00,0.68
6715.00,0.68
6714.00,0.68
6713.00,0.68
6712.00,0.68
6711.00,0.69
6710.00,0.69
6709.00,0.69
6708.00,0.69
6707.00,0.69
6706.00,0.69
6705.00,0.69
6704.00,0.69
6703.00,0.69
6702.00,0.69
6701.00,0.69
6700.00,0.69
6699.00,0.69
6698.00,0.69
6697.00,0.69
6696.00,0.69
6695.00,0.70
6694.00,0.70
6693.00,0.70
6692.00,0.70
6691.00,0.70
6690.00,0.70
6689.00,0.70
6688.00,0.70
6687.00,0.70
6686.00,0.70
6685.00,0.70
6684.00,0.70
6683.00,0.70
6682.00,0.70
6681.00,0.70
6680.00,0.71
6679.00,0.71
6678.00,0.71
6677.00,0.71
6676.00,0.71
6675.00,0.71
6674.00,0.71
6673.00,0.71
6672.00,0.71
6671.00,0.71
6670.00,0.72
6669.00,0.72
6668.00,0.72
6667.00,0.72
6666.00,0.72
6665.00,0.72
6664.00,0.72
6663.00,0.72
6662.00,0.73
6661.00,0.73
6660.00,0.73
6659.00,0.73
6658.00,0.73
6657.00,0.73
6656.00,0.73
6655.00,0.73
6654.00,0.73
6653.00,0.73
6652.00,0.73
6651.00,0.73
6650.00,0.73
6649.00,0.73
6648.00,0.73
6647.00,0.73
6646.00,0.73
6645.00,0.73
6644.00,0.74
6643.00,0.74
6642.00,0.74
6641.00,0.74
6640.00,0.74
6639.00,0.74
6638.00,0.74
6637.00,0.74
6636.00,0.74
6635.00,0.74
6634.00,0.74
6633.00,0.75
6632.00,0.75
6631.00,0.75
6630.00,0.75
6629.00,0.75
6628.00,0.75
6627.00,0.76
6626.00,0.76
6625.00,0.76
6624.00,0.76
6623.00,0.76
6622.00,0.76
6621.00,0.76
6620.00,0.76
6619.00,0.76
6618.00,0.77
6617.00,0.77
6616.00,0.77
6615.00,0.77
6614.00,0.77
6613.00,0.77
6612.00,0.77
6611.00,0.77
6610.00,0.77
6609.00,0.77
6608.00,0.77
6607.00,0.78
6606.00,0.78
6605.00,0.78
6604.00,0.78
6603.00,0.78
6602.00,0.78
6601.00,0.78
6600.00,0.78
6599.00,0.78
6598.00,0.78
6597.00,0.78
6596.00,0.78
6595.00,0.79
6594.00,0.79
6593.00,0.79
6592.00,0.79
6591.00,0.79
6590.00,0.79
6589.00,0.79
6588.00,0.80
6587.00,0.80
6586.00,0.80
6585.00,0.80
6584.00,0.80
6583.00,0.80
6582.00,0.80
6581.00,0.81
6580.00,0.81
6579.00,0.81
6578.00,0.81
6577.00,0.81
6576.00,0.81
6575.00,0.81
6574.00,0.81
6573.00,0.81
6572.00,0.81
6571.00,0.81
6570.00,0.81
6569.00,0.81
6568.00,0.81
6567.00,0.81
6566.00,0.81
6565.00,0.81
6564.00,0.81
6563.00,0.81
6562.00,0.81
6561.00,0.81
6560.00,0.81
6559.00,0.82
6558.00,0.82
6557.00,0.82
6556.00,0.82
6555.00,0.82
6554.00,0.82
6553.00,0.82
6552.00,0.83
6551.00,0.83
6550.00,0.83
6549.00,0.83
6548.00,0.83
6547.00,0.83
6546.00,0.84
6545.00,0.84
6544.00,0.84
6543.00,0.84
6542.00,0.84
6541.00,0.84
6540.00,0.84
6539.00,0.84
6538.00,0.84
6537.00,0.84
6536.00,0.84
6535.00,0.84
6534.00,0.84
6533.00,0.84
6532.00,0.84
6531.00,0.84
6530.00,0.84
6529.00,0.84
6528.00,0.84
6527.00,0.85
6526.00,0.85
6525.00,0.85
6524.00,0.85
6523.00,0.85
6522.00,0.85
6521.00,0.85
6520.00,0.85
6519.00,0.85
6518.00,0.85
6517.00,0.85
6516.00,0.86
6515.00,0.86
6514.00,0.86
6513.00,0.86
6512.00,0.86
6511.00,0.86
6510.00,0.86
6509.00,0.86
6508.00,0.86
6507.00,0.86
6506.00,0.86
6505.00,0.86
6504.00,0.86
6503.00,0.86
6502.00,0.86
6501.00,0.86
6500.00,0.86
6499.00,0.86
6498.00,0.87
6497.00,0.87
6496.00,0.87
6495.00,0.87
6494.00,0.87
6493.00,0.87
6492.00,0.87
6491.00,0.87
6490.00,0.87
6489.00,0.87
6488.00,0.87
6487.00,0.87
6486.00,0.87
6485.00,0.87
6484.00,0.88
6483.00,0.88
6482.00,0.88
6481.00,0.88
6480.00,0.88
6479.00,0.88
6478.00,0.88
6477.00,0.88
6476.00,0.88
6475.00,0.88
6474.00,0.88
6473.00,0.88
6472.00,0.88
6471.00,0.88
6470.00,0.88
6469.00,0.89
6468.00,0.89
6467.00,0.89
6466.00,0.89
6465.00,0.89
6464.00,0.89
6463.00,0.89
6462.00,0.89
6461.00,0.89
6460.00,0.89
6459.00,0.89
6458.00,0.89
6457.00,0.89
6456.00,0.89
6455.00,0.89
6454.00,0.89
6453.00,0.89
6452.00,0.89
6451.00,0.89
6450.00,0.89
6449.00,0.89
6448.00,0.89
6447.00,0.89
6446.00,0.89
6445.00,0.89
6444.00,0.89
6443.00,0.89
6442.00,0.89
6441.00,0.89
6440.00,0.89
6439.00,0.89
6438.00,0.89
6437.00,0.89
6436.00,0.89
6435.00,0.89
6434.00,0.89
6433.00,0.89
6432.00,0.89
6431.00,0.89
6430.00,0.89
6429.00,0.90
6428.00,0.90
6427.00,0.90
6426.00,0.90
6425.00,0.90
6424.00,0.90
6423.00,0.90
6422.00,0.90
6421.00,0.90
6420.00,0.90
6419.00,0.90
6418.00,0.90
6417.00,0.91
6416.00,0.91
6415.00,0.91
6414.00,0.91
6413.00,0.91
6412.00,0.91
6411.00,0.91
6410.00,0.91
6409.00,0.91
6408.00,0.91
6407.00,0.91
6406.00,0.92
6405.00,0.92
6404.00,0.92
6403.00,0.92
6402.00,0.92
6401.00,0.92
6400.00,0.92
6399.00,0.92
6398.00,0.92
6397.00,0.92
6396.00,0.92
6395.00,0.92
6394.00,0.92
6393.00,0.92
6392.00,0.92
6391.00,0.92
6390.00,0.92
6389.00,0.92
6388.00,0.92
6387.00,0.92
6386.00,0.92
6385.00,0.93
6384.00,0.93
6383.00,0.93
6382.00,0.93
6381.00,0.93
6380.00,0.93
6379.00,0.93
6378.00,0.93
6377.00,0.93
6376.00,0.94
6375.00,0.94
6374.00,0.94
6373.00,0.94
6372.00,0.94
6371.00,0.94
6370.00,0.94
6369.00,0.94
6368.00,0.94
6367.00,0.94
6366.00,0.94
6365.00,0.94
6364.00,0.94
6363.00,0.94
6362.00,0.94
6361.00,0.94
6360.00,0.94
6359.00,0.94
6358.00,0.94
6357.00,0.94
6356.00,0.94
6355.00,0.94
6354.00,0.94
6353.00,0.94
6352.00,0.94
6351.00,0.95
6350.00,0.95
6349.00,0.95
6348.00,0.95
6347.00,0.95
6346.00,0.95
6345.00,0.95
6344.00,0.95
6343.00,0.95
6342.00,0.96
6341.00,0.96
6340.00,0.96
6339.00,0.96
6338.00,0.96
6337.00,0.96
6336.00,0.96
6335.00,0.96
6334.00,0.96
6333.00,0.97
6332.00,0.97
6331.00,0.97
6330.00,0.97
6329.00,0.97
6328.00,0.97
6327.00,0.97
6326.00,0.97
6325.00,0.97
6324.00,0.97
6323.00,0.98
6322.00,0.98
6321.00,0.98
6320.00,0.98
6319.00,0.98
6318.00,0.98
6317.00,0.98
6316.00,0.98
6315.00,0.98
6314.00,0.98
6313.00,0.99
6312.00,0.99
6311.00,0.99
6310.00,0.99
6309.00,0.99
6308.00,0.99
6307.00,0.99
6306.00,0.99
6305.00,0.99
6304.00,0.99
6303.00,0.99
6302.00,0.99
6301.00,0.99
6300.00,0.99
6299.00,0.99
6298.00,0.99
6297.00,0.99
6296.00,0.99
6295.00,0.99
6294.00,1.00
6293.00,1.00
6292.00,1.00
6291.00,1.00
6290.00,1.00
6289.00,1.00
6288.00,1.00
6287.00,1.00
6286.00,1.00
6285.00,1.00
6284.00,1.00
6283.00,1.00
6282.00,1.00
6281.00,1.00
6280.00,1.00
6279.00,1.01
6278.00,1.01
6277.00,1.01
6276.00,1.01
6275.00,1.01
6274.00,1.01
6273.00,1.01
6272.00,1.02
6271.00,1.02
6270.00,1.02
6269.00,1.02
6268.00,1.02
6267.00,1.02
6266.00,1.02
6265.00,1.03
6264.00,1.03
6263.00,1.03
6262.00,1.03
6261.00,1.03
6260.00,1.03
6259.00,1.03
6258.00,1.03
6257.00,1.03
6256.00,1.04
6255.00,1.04
6254.00,1.04
6253.00,1.04
6252.00,1.04
6251.00,1.04
6250.00,1.04
6249.00,1.04
6248.00,1.04
6247.00,1.05
6246.00,1.05
6245.00,1.05
6244.00,1.05
6243.00,1.05
6242.00,1.05
6241.00,1.05
6240.00,1.05
6239.00,1.06
6238.00,1.06
6237.00,1.06
6236.00,1.06
6235.00,1.06
6234.00,1.06
6233.00,1.06
6232.00,1.06
6231.00,1.07
6230.00,1.07
6229.00,1.07
6228.00,1.07
6227.00,1.07
6226.00,1.07
6225.00,1.08
6224.00,1.08
6223.00,1.08
6222.00,1.08
6221.00,1.08
6220.00,1.09
6219.00,1.09
6218.00,1.09
6217.00,1.09
6216.00,1.10
6215.00,1.10
6214.00,1.10
6213.00,1.10
6212.00,1.10
6211.00,1.11
6210.00,1.11
6209.00,1.11
6208.00,1.11
6207.00,1.11
6206.00,1.11
6205.00,1.11
6204.00,1.11
6203.00,1.12
6202.00,1.12
6201.00,1.12
6200.00,1.12
6199.00,1.12
6198.00,1.12
6197.00,1.12
6196.00,1.12
6195.00,1.12
6194.00,1.12
6193.00,1.13
6192.00,1.13
6191.00,1.13
6190.00,1.13
6189.00,1.13
6188.00,1.13
6187.00,1.14
6186.00,1.14
6185.00,1.14
6184.00,1.14
6183.00,1.14
6182.00,1.15
6181.00,1.15
6180.00,1.15
6179.00,1.15
6178.00,1.15
6177.00,1.15
6176.00,1.16
6175.00,1.16
6174.00,1.16
6173.00,1.16
6172.00,1.16
6171.00,1.16
6170.00,1.16
6169.00,1.17
6168.00,1.17
6167.00,1.17
6166.00,1.17
6165.00,1.17
6164.00,1.17
6163.00,1.18
6162.00,1.18
6161.00,1.18
6160.00,1.18
6159.00,1.18
6158.00,1.19
6157.00,1.19
6156.00,1.19
6155.00,1.19
6154.00,1.19
6153.00,1.19
6152.00,1.20
6151.00,1.20
6150.00,1.20
6149.00,1.20
6148.00,1.20
6147.00,1.20
6146.00,1.20
6145.00,1.21
6144.00,1.21
6143.00,1.21
6142.00,1.21
6141.00,1.21
6140.00,1.21
6139.00,1.22
6138.00,1.22
6137.00,1.22
6136.00,1.22
6135.00,1.22
6134.00,1.22
6133.00,1.23
6132.00,1.23
6131.00,1.23
6130.00,1.23
6129.00,1.23
6128.00,1.23
6127.00,1.24
6126.00,1.24
6125.00,1.24
6124.00,1.24
6123.00,1.24
6122.00,1.25
6121.00,1.25
6120.00,1.25
6119.00,1.25
6118.00,1.25
6117.00,1.25
6116.00,1.25
6115.00,1.26
6114.00,1.26
6113.00,1.26
6112.00,1.26
6111.00,1.26
6110.00,1.26
6109.00,1.26
6108.00,1.26
6107.00,1.26
6106.00,1.27
6105.00,1.27
6104.00,1.27
6103.00,1.27
6102.00,1.27
6101.00,1.27
6100.00,1.28
6099.00,1.28
6098.00,1.28
6097.00,1.28
6096.00,1.28
6095.00,1.29
6094.00,1.29
6093.00,1.29
6092.00,1.29
6091.00,1.29
6090.00,1.29
6089.00,1.30
6088.00,1.30
6087.00,1.30
6086.00,1.30
6085.00,1.30
6084.00,1.30
6083.00,1.30
6082.00,1.30
6081.00,1.30
6080.00,1.30
6079.00,1.30
6078.00,1.30
6077.00,1.30
6076.00,1.31
6075.00,1.31
6074.00,1.31
6073.00,1.31
6072.00,1.31
6071.00,1.31
6070.00,1.31
6069.00,1.31
6068.00,1.32
6067.00,1.32
6066.00,1.32
6065.00,1.32
6064.00,1.32
6063.00,1.32
6062.00,1.32
6061.00,1.33
6060.00,1.33
6059.00,1.33
6058.00,1.33
6057.00,1.33
6056.00,1.33
6055.00,1.33
6054.00,1.33
6053.00,1.34
6052.00,1.34
6051.00,1.34
6050.00,1.34
6049.00,1.34
6048.00,1.34
6047.00,1.34
6046.00,1.34
6045.00,1.34
6044.00,1.34
6043.00,1.34
6042.00,1.34
6041.00,1.34
6040.00,1.34
6039.00,1.34
6038.00,1.34
6037.00,1.34
6036.00,1.34
6035.00,1.34
6034.00,1.34
6033.00,1.34
6032.00,1.34
6031.00,1.35
6030.00,1.35
6029.00,1.35
6028.00,1.35
6027.00,1.35
6026.00,1.35
6025.00,1.35
6024.00,1.35
6023.00,1.35
6022.00,1.35
6021.00,1.36
6020.00,1.36
6019.00,1.36
6018.00,1.36
6017.00,1.36
6016.00,1.36
6015.00,1.36
6014.00,1.36
6013.00,1.36
6012.00,1.36
6011.00,1.36
6010.00,1.35
6009.00,1.35
6008.00,1.35
6007.00,1.35
6006.00,1.35
6005.00,1.35
6004.00,1.35
6003.00,1.35
6002.00,1.35
6001.00,1.35
6000.00,1.35
5999.00,1.35
5998.00,1.34
5997.00,1.34
5996.00,1.34
5995.00,1.34
5994.00,1.34
5993.00,1.33
5992.00,1.33
5991.00,1.33
5990.00,1.33
5989.00,1.32
5988.00,1.32
5987.00,1.32
5986.00,1.32
5985.00,1.31
5984.00,1.31
5983.00,1.31
5982.00,1.30
5981.00,1.30
5980.00,1.29
5979.00,1.29
5978.00,1.29
5977.00,1.28
5976.00,1.28
5975.00,1.27
5974.00,1.27
5973.00,1.26
5972.00,1.25
5971.00,1.25
5970.00,1.24
5969.00,1.23
5968.00,1.23
5967.00,1.22
5966.00,1.21
5965.00,1.20
5964.00,1.20
5963.00,1.19
5962.00,1.18
5961.00,1.17
5960.00,1.16
5959.00,1.15
5958.00,1.14
5957.00,1.13
5956.00,1.12
5955.00,1.11
5954.00,1.11
5953.00,1.10
5952.00,1.09
5951.00,1.08
5950.00,1.08
5949.00,1.07
5948.00,1.06
5947.00,1.06
5946.00,1.05
5945.00,1.05
5944.00,1.05
5943.00,1.04
5942.00,1.04
5941.00,1.04
5940.00,1.03
5939.00,1.03
5938.00,1.03
5937.00,1.03
5936.00,1.03
5935.00,1.02
5934.00,1.02
5933.00,1.02
5932.00,1.02
5931.00,1.02
5930.00,1.02
5929.00,1.02
5928.00,1.01
5927.00,1.01
5926.00,1.01
5925.00,1.01
5924.00,1.00
5923.00,1.00
5922.00,1.00
5921.00,1.00
5920.00,0.99
5919.00,0.99
5918.00,0.99
5917.00,0.98
5916.00,0.98
5915.00,0.97
5914.00,0.97
5913.00,0.97
5912.00,0.96
5911.00,0.96
5910.00,0.96
5909.00,0.96
5908.00,0.95
5907.00,0.95
5906.00,0.95
5905.00,0.95
5904.00,0.95
5903.00,0.95
5902.00,0.95
5901.00,0.95
5900.00,0.95
5899.00,0.95
5898.00,0.95
5897.00,0.95
5896.00,0.95
5895.00,0.95
5894.00,0.96
5893.00,0.96
5892.00,0.96
5891.00,0.97
5890.00,0.97
5889.00,0.97
5888.00,0.98
5887.00,0.98
5886.00,0.98
5885.00,0.99
5884.00,0.99
5883.00,0.99
5882.00,1.00
5881.00,1.00
5880.00,1.00
5879.00,1.01
5878.00,1.01
5877.00,1.01
5876.00,1.01
5875.00,1.02
5874.00,1.02
5873.00,1.02
5872.00,1.02
5871.00,1.03
5870.00,1.03
5869.00,1.03
5868.00,1.03
5867.00,1.04
5866.00,1.04
5865.00,1.04
5864.00,1.04
5863.00,1.04
5862.00,1.05
5861.00,1.05
5860.00,1.05
5859.00,1.05
5858.00,1.05
5857.00,1.05
5856.00,1.06
5855.00,1.06
5854.00,1.06
5853.00,1.06
5852.00,1.06
5851.00,1.06
5850.00,1.06
5849.00,1.06
5848.00,1.06
5847.00,1.06
5846.00,1.06
5845.00,1.06
5844.00,1.06
5843.00,1.06
5842.00,1.06
5841.00,1.06
5840.00,1.06
5839.00,1.06
5838.00,1.06
5837.00,1.06
5836.00,1.06
5835.00,1.06
5834.00,1.06
5833.00,1.06
5832.00,1.06
5831.00,1.06
5830.00,1.06
5829.00,1.06
5828.00,1.06
5827.00,1.06
5826.00,1.06
5825.00,1.06
5824.00,1.06
5823.00,1.06
5822.00,1.06
5821.00,1.06
5820.00,1.06
5819.00,1.06
5818.00,1.06
5817.00,1.06
5816.00,1.06
5815.00,1.06
5814.00,1.06
5813.00,1.06
5812.00,1.06
5811.00,1.06
5810.00,1.06
5809.00,1.06
5808.00,1.06
5807.00,1.06
5806.00,1.06
5805.00,1.06
5804.00,1.06
5803.00,1.06
5802.00,1.06
5801.00,1.06
5800.00,1.06
5799.00,1.06
5798.00,1.06
5797.00,1.05
5796.00,1.05
5795.00,1.05
5794.00,1.05
5793.00,1.05
5792.00,1.04
5791.00,1.04
5790.00,1.04
5789.00,1.04
5788.00,1.03
5787.00,1.03
5786.00,1.03
5785.00,1.02
5784.00,1.02
5783.00,1.02
5782.00,1.02
5781.00,1.01
5780.00,1.01
5779.00,1.01
5778.00,1.01
5777.00,1.00
5776.00,1.00
5775.00,1.00
5774.00,1.00
5773.00,1.00
5772.00,1.00
5771.00,1.00
5770.00,1.00
5769.00,1.00
5768.00,1.00
5767.00,1.00
5766.00,1.00
5765.00,1.01
5764.00,1.01
5763.00,1.01
5762.00,1.01
5761.00,1.02
5760.00,1.02
5759.00,1.02
5758.00,1.03
5757.00,1.03
5756.00,1.04
5755.00,1.04
5754.00,1.04
5753.00,1.05
5752.00,1.05
5751.00,1.06
5750.00,1.06
5749.00,1.07
5748.00,1.07
5747.00,1.08
5746.00,1.08
5745.00,1.08
5744.00,1.09
5743.00,1.09
5742.00,1.10
5741.00,1.10
5740.00,1.10
5739.00,1.11
5738.00,1.11
5737.00,1.11
5736.00,1.12
5735.00,1.12
5734.00,1.12
5733.00,1.12
5732.00,1.13
5731.00,1.13
5730.00,1.13
5729.00,1.13
5728.00,1.14
5727.00,1.14
5726.00,1.14
5725.00,1.14
5724.00,1.14
5723.00,1.14
5722.00,1.14
5721.00,1.15
5720.00,1.15
5719.00,1.15
5718.00,1.15
5717.00,1.15
5716.00,1.15
5715.00,1.15
5714.00,1.15
5713.00,1.15
5712.00,1.15
5711.00,1.15
5710.00,1.15
5709.00,1.16
5708.00,1.16
5707.00,1.16
5706.00,1.16
5705.00,1.16
5704.00,1.16
5703.00,1.16
5702.00,1.16
5701.00,1.15
5700.00,1.15
5699.00,1.15
5698.00,1.15
5697.00,1.15
5696.00,1.15
5695.00,1.15
5694.00,1.14
5693.00,1.14
5692.00,1.14
5691.00,1.14
5690.00,1.13
5689.00,1.13
5688.00,1.13
5687.00,1.13
5686.00,1.12
5685.00,1.12
5684.00,1.12
5683.00,1.12
5682.00,1.12
5681.00,1.11
5680.00,1.11
5679.00,1.11
5678.00,1.11
5677.00,1.11
5676.00,1.11
5675.00,1.11
5674.00,1.11
5673.00,1.11
5672.00,1.11
5671.00,1.11
5670.00,1.11
5669.00,1.11
5668.00,1.11
5667.00,1.11
5666.00,1.11
5665.00,1.12
5664.00,1.12
5663.00,1.12
5662.00,1.12
5661.00,1.12
5660.00,1.12
5659.00,1.13
5658.00,1.13
5657.00,1.13
5656.00,1.13
5655.00,1.13
5654.00,1.14
5653.00,1.14
5652.00,1.14
5651.00,1.14
5650.00,1.15
5649.00,1.15
5648.00,1.15
5647.00,1.15
5646.00,1.16
5645.00,1.16
5644.00,1.16
5643.00,1.16
5642.00,1.17
5641.00,1.17
5640.00,1.17
5639.00,1.18
5638.00,1.18
5637.00,1.18
5636.00,1.19
5635.00,1.19
5634.00,1.19
5633.00,1.19
5632.00,1.20
5631.00,1.20
5630.00,1.20
5629.00,1.20
5628.00,1.21
5627.00,1.21
5626.00,1.21
5625.00,1.21
5624.00,1.21
5623.00,1.22
5622.00,1.22
5621.00,1.22
5620.00,1.22
5619.00,1.22
5618.00,1.23
5617.00,1.23
5616.00,1.23
5615.00,1.23
5614.00,1.24
5613.00,1.24
5612.00,1.24
5611.00,1.25
5610.00,1.25
5609.00,1.25
5608.00,1.25
5607.00,1.26
5606.00,1.26
5605.00,1.26
5604.00,1.26
5603.00,1.27
5602.00,1.27
5601.00,1.27
5600.00,1.27
5599.00,1.27
5598.00,1.27
5597.00,1.28
5596.00,1.28
5595.00,1.28
5594.00,1.28
5593.00,1.28
5592.00,1.28
5591.00,1.28
5590.00,1.28
5589.00,1.28
5588.00,1.29
5587.00,1.29
5586.00,1.29
5585.00,1.29
5584.00,1.29
5583.00,1.29
5582.00,1.29
5581.00,1.29
5580.00,1.30
5579.00,1.30
5578.00,1.30
5577.00,1.30
5576.00,1.30
5575.00,1.30
5574.00,1.31
5573.00,1.31
5572.00,1.31
5571.00,1.31
5570.00,1.31
5569.00,1.32
5568.00,1.32
5567.00,1.32
5566.00,1.32
5565.00,1.33
5564.00,1.33
5563.00,1.33
5562.00,1.33
5561.00,1.33
5560.00,1.33
5559.00,1.34
5558.00,1.34
5557.00,1.34
5556.00,1.34
5555.00,1.34
5554.00,1.34
5553.00,1.34
5552.00,1.34
5551.00,1.35
5550.00,1.35
5549.00,1.35
5548.00,1.35
5547.00,1.35
5546.00,1.35
5545.00,1.35
5544.00,1.36
5543.00,1.36
5542.00,1.36
5541.00,1.36
5540.00,1.36
5539.00,1.37
5538.00,1.37
5537.00,1.37
5536.00,1.37
5535.00,1.37
5534.00,1.37
5533.00,1.37
5532.00,1.38
5531.00,1.38
5530.00,1.38
5529.00,1.38
5528.00,1.38
5527.00,1.38
5526.00,1.38
5525.00,1.38
5524.00,1.38
5523.00,1.38
5522.00,1.38
5521.00,1.38
5520.00,1.38
5519.00,1.38
5518.00,1.38
5517.00,1.38
5516.00,1.38
5515.00,1.38
5514.00,1.38
5513.00,1.38
5512.00,1.39
5511.00,1.39
5510.00,1.39
5509.00,1.39
5508.00,1.39
5507.00,1.39
5506.00,1.39
5505.00,1.39
5504.00,1.39
5503.00,1.39
5502.00,1.39
5501.00,1.39
5500.00,1.39
5499.00,1.39
5498.00,1.39
5497.00,1.39
5496.00,1.40
5495.00,1.40
5494.00,1.40
5493.00,1.40
5492.00,1.40
5491.00,1.40
5490.00,1.41
5489.00,1.41
5488.00,1.41
5487.00,1.41
5486.00,1.41
5485.00,1.42
5484.00,1.42
5483.00,1.42
5482.00,1.42
5481.00,1.42
5480.00,1.43
5479.00,1.43
5478.00,1.43
5477.00,1.43
5476.00,1.43
5475.00,1.43
5474.00,1.44
5473.00,1.44
5472.00,1.44
5471.00,1.44
5470.00,1.44
5469.00,1.44
5468.00,1.45
5467.00,1.45
5466.00,1.45
5465.00,1.45
5464.00,1.45
5463.00,1.45
5462.00,1.45
5461.00,1.45
5460.00,1.45
5459.00,1.46
5458.00,1.46
5457.00,1.46
5456.00,1.46
5455.00,1.46
5454.00,1.46
5453.00,1.46
5452.00,1.46
5451.00,1.46
5450.00,1.47
5449.00,1.47
5448.00,1.47
5447.00,1.47
5446.00,1.47
5445.00,1.47
5444.00,1.47
5443.00,1.48
5442.00,1.48
5441.00,1.48
5440.00,1.48
5439.00,1.48
5438.00,1.48
5437.00,1.48
5436.00,1.48
5435.00,1.48
5434.00,1.48
5433.00,1.48
5432.00,1.48
5431.00,1.48
5430.00,1.48
5429.00,1.48
5428.00,1.48
5427.00,1.48
5426.00,1.48
5425.00,1.48
5424.00,1.48
5423.00,1.48
5422.00,1.48
5421.00,1.48
5420.00,1.48
5419.00,1.48
5418.00,1.48
5417.00,1.48
5416.00,1.48
5415.00,1.48
5414.00,1.48
5413.00,1.48
5412.00,1.48
5411.00,1.48
5410.00,1.48
5409.00,1.49
5408.00,1.49
5407.00,1.49
5406.00,1.49
5405.00,1.49
5404.00,1.49
5403.00,1.49
5402.00,1.49
5401.00,1.49
5400.00,1.49
5399.00,1.49
5398.00,1.49
5397.00,1.49
5396.00,1.49
5395.00,1.49
5394.00,1.49
5393.00,1.48
5392.00,1.48
5391.00,1.48
5390.00,1.48
5389.00,1.48
5388.00,1.48
5387.00,1.48
5386.00,1.48
5385.00,1.47
5384.00,1.47
5383.00,1.47
5382.00,1.47
5381.00,1.47
5380.00,1.46
5379.00,1.46
5378.00,1.46
5377.00,1.46
5376.00,1.45
5375.00,1.45
5374.00,1.45
5373.00,1.45
5372.00,1.44
5371.00,1.44
5370.00,1.43
5369.00,1.43
5368.00,1.43
5367.00,1.42
5366.00,1.42
5365.00,1.41
5364.00,1.40
5363.00,1.40
5362.00,1.39
5361.00,1.39
5360.00,1.38
5359.00,1.37
5358.00,1.36
5357.00,1.36
5356.00,1.35
5355.00,1.34
5354.00,1.33
5353.00,1.32
5352.00,1.31
5351.00,1.31
5350.00,1.30
5349.00,1.29
5348.00,1.28
5347.00,1.27
5346.00,1.26
5345.00,1.25
5344.00,1.24
5343.00,1.23
5342.00,1.22
5341.00,1.21
5340.00,1.20
5339.00,1.19
5338.00,1.18
5337.00,1.16
5336.00,1.15
5335.00,1.14
5334.00,1.13
5333.00,1.12
5332.00,1.10
5331.00,1.09
5330.00,1.08
5329.00,1.07
5328.00,1.05
5327.00,1.04
5326.00,1.03
5325.00,1.01
5324.00,1.00
5323.00,0.99
5322.00,0.97
5321.00,0.96
5320.00,0.95
5319.00,0.93
5318.00,0.92
5317.00,0.91
5316.00,0.89
5315.00,0.88
5314.00,0.87
5313.00,0.86
5312.00,0.85
5311.00,0.83
5310.00,0.82
5309.00,0.81
5308.00,0.80
5307.00,0.79
5306.00,0.78
5305.00,0.77
5304.00,0.76
5303.00,0.75
5302.00,0.74
5301.00,0.73
5300.00,0.73
5299.00,0.72
5298.00,0.71
5297.00,0.71
5296.00,0.70
5295.00,0.69
5294.00,0.69
5293.00,0.68
5292.00,0.68
5291.00,0.67
5290.00,0.67
5289.00,0.66
5288.00,0.66
5287.00,0.66
5286.00,0.65
5285.00,0.65
5284.00,0.64
5283.00,0.64
5282.00,0.64
5281.00,0.64
5280.00,0.63
5279.00,0.63
5278.00,0.63
5277.00,0.62
5276.00,0.62
5275.00,0.62
5274.00,0.62
5273.00,0.62
5272.00,0.61
5271.00,0.61
5270.00,0.61
5269.00,0.61
5268.00,0.61
5267.00,0.61
5266.00,0.61
5265.00,0.60
5264.00,0.60
5263.00,0.60
5262.00,0.60
5261.00,0.60
5260.00,0.60
5259.00,0.60
5258.00,0.60
5257.00,0.60
5256.00,0.59
5255.00,0.59
5254.00,0.59
5253.00,0.59
5252.00,0.59
5251.00,0.59
5250.00,0.59
5249.00,0.59
5248.00,0.59
5247.00,0.59
5246.00,0.59
5245.00,0.58
5244.00,0.58
5243.00,0.58
5242.00,0.58
5241.00,0.58
5240.00,0.58
5239.00,0.58
5238.00,0.58
5237.00,0.58
5236.00,0.58
5235.00,0.58
5234.00,0.58
5233.00,0.58
5232.00,0.58
5231.00,0.58
5230.00,0.58
5229.00,0.58
5228.00,0.58
5227.00,0.58
5226.00,0.58
5225.00,0.58
5224.00,0.58
5223.00,0.58
5222.00,0.58
5221.00,0.58
5220.00,0.58
5219.00,0.58
5218.00,0.58
5217.00,0.59
5216.00,0.59
5215.00,0.59
5214.00,0.59
5213.00,0.59
5212.00,0.59
5211.00,0.59
5210.00,0.59
5209.00,0.59
5208.00,0.59
5207.00,0.59
5206.00,0.59
5205.00,0.59
5204.00,0.59
5203.00,0.59
5202.00,0.59
5201.00,0.59
5200.00,0.59
5199.00,0.59
5198.00,0.59
5197.00,0.59
5196.00,0.59
5195.00,0.60
5194.00,0.60
5193.00,0.60
5192.00,0.60
5191.00,0.60
5190.00,0.60
5189.00,0.60
5188.00,0.60
5187.00,0.60
5186.00,0.60
5185.00,0.60
5184.00,0.60
5183.00,0.60
5182.00,0.60
5181.00,0.60
5180.00,0.60
5179.00,0.60
5178.00,0.60
5177.00,0.60
5176.00,0.60
5175.00,0.60
5174.00,0.60
5173.00,0.60
5172.00,0.60
5171.00,0.60
5170.00,0.60
5169.00,0.60
5168.00,0.60
5167.00,0.61
5166.00,0.61
5165.00,0.61
5164.00,0.61
5163.00,0.61
5162.00,0.61
5161.00,0.61
5160.00,0.61
5159.00,0.61
5158.00,0.61
5157.00,0.61
5156.00,0.61
5155.00,0.61
5154.00,0.61
5153.00,0.61
5152.00,0.61
5151.00,0.61
5150.00,0.61
5149.00,0.61
5148.00,0.61
5147.00,0.61
5146.00,0.62
5145.00,0.62
5144.00,0.62
5143.00,0.62
5142.00,0.62
5141.00,0.62
5140.00,0.62
5139.00,0.62
5138.00,0.62
5137.00,0.62
5136.00,0.63
5135.00,0.63
5134.00,0.63
5133.00,0.63
5132.00,0.63
5131.00,0.63
5130.00,0.63
5129.00,0.63
5128.00,0.63
5127.00,0.63
5126.00,0.63
5125.00,0.63
5124.00,0.63
5123.00,0.63
5122.00,0.63
5121.00,0.63
5120.00,0.64
5119.00,0.64
5118.00,0.64
5117.00,0.64
5116.00,0.64
5115.00,0.64
5114.00,0.64
5113.00,0.64
5112.00,0.64
5111.00,0.64
5110.00,0.64
5109.00,0.64
5108.00,0.64
5107.00,0.64
5106.00,0.64
5105.00,0.64
5104.00,0.65
5103.00,0.65
5102.00,0.65
5101.00,0.65
5100.00,0.65
5099.00,0.65
5098.00,0.65
5097.00,0.65
5096.00,0.65
5095.00,0.65
5094.00,0.65
5093.00,0.65
5092.00,0.65
5091.00,0.66
5090.00,0.66
5089.00,0.66
5088.00,0.66
5087.00,0.66
5086.00,0.66
5085.00,0.66
5084.00,0.66
5083.00,0.66
5082.00,0.66
5081.00,0.67
5080.00,0.67
5079.00,0.67
5078.00,0.67
5077.00,0.67
5076.00,0.67
5075.00,0.67
5074.00,0.67
5073.00,0.67
5072.00,0.67
5071.00,0.67
5070.00,0.67
5069.00,0.67
5068.00,0.67
5067.00,0.67
5066.00,0.67
5065.00,0.67
5064.00,0.68
5063.00,0.68
5062.00,0.68
5061.00,0.68
5060.00,0.68
5059.00,0.68
5058.00,0.68
5057.00,0.68
5056.00,0.68
5055.00,0.68
5054.00,0.68
5053.00,0.69
5052.00,0.69
5051.00,0.69
5050.00,0.69
5049.00,0.69
5048.00,0.69
5047.00,0.69
5046.00,0.69
5045.00,0.69
5044.00,0.69
5043.00,0.70
5042.00,0.70
5041.00,0.70
5040.00,0.70
5039.00,0.70
5038.00,0.70
5037.00,0.70
5036.00,0.70
5035.00,0.71
5034.00,0.71
5033.00,0.71
5032.00,0.71
5031.00,0.71
5030.00,0.72
5029.00,0.72
5028.00,0.72
5027.00,0.72
5026.00,0.72
5025.00,0.72
5024.00,0.73
5023.00,0.73
5022.00,0.73
5021.00,0.73
5020.00,0.73
5019.00,0.73
5018.00,0.73
5017.00,0.73
5016.00,0.74
5015.00,0.74
5014.00,0.74
5013.00,0.74
5012.00,0.74
5011.00,0.74
5010.00,0.74
5009.00,0.74
5008.00,0.74
5007.00,0.74
5006.00,0.74
5005.00,0.75
5004.00,0.75
5003.00,0.75
5002.00,0.75
5001.00,0.75
5000.00,0.75
4999.00,0.75
4998.00,0.75
4997.00,0.76
4996.00,0.76
4995.00,0.76
4994.00,0.76
4993.00,0.76
4992.00,0.76
4991.00,0.77
4990.00,0.77
4989.00,0.77
4988.00,0.77
4987.00,0.77
4986.00,0.77
4985.00,0.77
4984.00,0.78
4983.00,0.78
4982.00,0.78
4981.00,0.78
4980.00,0.78
4979.00,0.78
4978.00,0.78
4977.00,0.79
4976.00,0.79
4975.00,0.79
4974.00,0.79
4973.00,0.79
4972.00,0.79
4971.00,0.79
4970.00,0.79
4969.00,0.79
4968.00,0.79
4967.00,0.79
4966.00,0.79
4965.00,0.79
4964.00,0.79
4963.00,0.80
4962.00,0.80
4961.00,0.80
4960.00,0.80
4959.00,0.80
4958.00,0.80
4957.00,0.81
4956.00,0.81
4955.00,0.81
4954.00,0.81
4953.00,0.81
4952.00,0.81
4951.00,0.82
4950.00,0.82
4949.00,0.82
4948.00,0.82
4947.00,0.82
4946.00,0.82
4945.00,0.82
4944.00,0.82
4943.00,0.82
4942.00,0.82
4941.00,0.82
4940.00,0.82
4939.00,0.82
4938.00,0.83
4937.00,0.83
4936.00,0.83
4935.00,0.83
4934.00,0.83
4933.00,0.83
4932.00,0.83
4931.00,0.83
4930.00,0.83
4929.00,0.83
4928.00,0.83
4927.00,0.83
4926.00,0.83
4925.00,0.83
4924.00,0.83
4923.00,0.83
4922.00,0.83
4921.00,0.83
4920.00,0.83
4919.00,0.83
4918.00,0.83
4917.00,0.83
4916.00,0.83
4915.00,0.83
4914.00,0.83
4913.00,0.83
4912.00,0.83
4911.00,0.84
4910.00,0.84
4909.00,0.84
4908.00,0.84
4907.00,0.84
4906.00,0.84
4905.00,0.84
4904.00,0.84
4903.00,0.84
4902.00,0.85
4901.00,0.85
4900.00,0.85
4899.00,0.85
4898.00,0.85
4897.00,0.85
4896.00,0.85
4895.00,0.85
4894.00,0.85
4893.00,0.85
4892.00,0.86
4891.00,0.86
4890.00,0.86
4889.00,0.86
4888.00,0.86
4887.00,0.86
4886.00,0.86
4885.00,0.86
4884.00,0.86
4883.00,0.87
4882.00,0.87
4881.00,0.87
4880.00,0.87
4879.00,0.87
4878.00,0.87
4877.00,0.87
4876.00,0.87
4875.00,0.87
4874.00,0.87
4873.00,0.87
4872.00,0.87
4871.00,0.87
4870.00,0.87
4869.00,0.87
4868.00,0.87
4867.00,0.87
4866.00,0.87
4865.00,0.87
4864.00,0.87
4863.00,0.87
4862.00,0.87
4861.00,0.87
4860.00,0.87
4859.00,0.87
4858.00,0.87
4857.00,0.87
4856.00,0.87
4855.00,0.87
4854.00,0.87
4853.00,0.87
4852.00,0.87
4851.00,0.87
4850.00,0.88
4849.00,0.88
4848.00,0.88
4847.00,0.88
4846.00,0.88
4845.00,0.88
4844.00,0.88
4843.00,0.88
4842.00,0.88
4841.00,0.88
4840.00,0.88
4839.00,0.88
4838.00,0.88
4837.00,0.88
4836.00,0.89
4835.00,0.89
4834.00,0.89
4833.00,0.89
4832.00,0.89
4831.00,0.89
4830.00,0.89
4829.00,0.89
4828.00,0.89
4827.00,0.89
4826.00,0.89
4825.00,0.89
4824.00,0.89
4823.00,0.89
4822.00,0.89
4821.00,0.90
4820.00,0.90
4819.00,0.90
4818.00,0.90
4817.00,0.90
4816.00,0.90
4815.00,0.90
4814.00,0.90
4813.00,0.91
4812.00,0.91
4811.00,0.91
4810.00,0.91
4809.00,0.91
4808.00,0.91
4807.00,0.91
4806.00,0.92
4805.00,0.92
4804.00,0.92
4803.00,0.92
4802.00,0.92
4801.00,0.93
4800.00,0.93
4799.00,0.93
4798.00,0.93
4797.00,0.93
4796.00,0.94
4795.00,0.94
4794.00,0.94
4793.00,0.94
4792.00,0.94
4791.00,0.94
4790.00,0.94
4789.00,0.95
4788.00,0.95
4787.00,0.95
4786.00,0.95
4785.00,0.95
4784.00,0.95
4783.00,0.95
4782.00,0.96
4781.00,0.96
4780.00,0.96
4779.00,0.96
4778.00,0.96
4777.00,0.96
4776.00,0.97
4775.00,0.97
4774.00,0.97
4773.00,0.97
4772.00,0.97
4771.00,0.98
4770.00,0.98
4769.00,0.98
4768.00,0.98
4767.00,0.98
4766.00,0.98
4765.00,0.99
4764.00,0.99
4763.00,0.99
4762.00,0.99
4761.00,0.99
4760.00,0.99
4759.00,1.00
4758.00,1.00
4757.00,1.00
4756.00,1.00
4755.00,1.01
4754.00,1.01
4753.00,1.01
4752.00,1.01
4751.00,1.02
4750.00,1.02
4749.00,1.02
4748.00,1.03
4747.00,1.03
4746.00,1.03
4745.00,1.04
4744.00,1.04
4743.00,1.04
4742.00,1.04
4741.00,1.05
4740.00,1.05
4739.00,1.05
4738.00,1.05
4737.00,1.05
4736.00,1.05
4735.00,1.06
4734.00,1.06
4733.00,1.06
4732.00,1.06
4731.00,1.06
4730.00,1.06
4729.00,1.06
4728.00,1.07
4727.00,1.07
4726.00,1.07
4725.00,1.07
4724.00,1.08
4723.00,1.08
4722.00,1.08
4721.00,1.08
4720.00,1.09
4719.00,1.09
4718.00,1.09
4717.00,1.10
4716.00,1.10
4715.00,1.10
4714.00,1.10
4713.00,1.11
4712.00,1.11
4711.00,1.11
4710.00,1.12
4709.00,1.12
4708.00,1.12
4707.00,1.12
4706.00,1.13
4705.00,1.13
4704.00,1.13
4703.00,1.13
4702.00,1.14
4701.00,1.14
4700.00,1.14
4699.00,1.14
4698.00,1.14
4697.00,1.15
4696.00,1.15
4695.00,1.15
4694.00,1.15
4693.00,1.15
4692.00,1.16
4691.00,1.16
4690.00,1.16
4689.00,1.16
4688.00,1.16
4687.00,1.17
4686.00,1.17
4685.00,1.17
4684.00,1.17
4683.00,1.17
4682.00,1.17
4681.00,1.18
4680.00,1.18
4679.00,1.18
4678.00,1.18
4677.00,1.18
4676.00,1.18
4675.00,1.19
4674.00,1.19
4673.00,1.19
4672.00,1.19
4671.00,1.20
4670.00,1.20
4669.00,1.20
4668.00,1.21
4667.00,1.21
4666.00,1.21
4665.00,1.21
4664.00,1.22
4663.00,1.22
4662.00,1.22
4661.00,1.23
4660.00,1.23
4659.00,1.23
4658.00,1.23
4657.00,1.24
4656.00,1.24
4655.00,1.24
4654.00,1.24
4653.00,1.24
4652.00,1.25
4651.00,1.25
4650.00,1.25
4649.00,1.25
4648.00,1.25
4647.00,1.26
4646.00,1.26
4645.00,1.26
4644.00,1.26
4643.00,1.26
4642.00,1.26
4641.00,1.26
4640.00,1.27
4639.00,1.27
4638.00,1.27
4637.00,1.27
4636.00,1.27
4635.00,1.27
4634.00,1.27
4633.00,1.27
4632.00,1.27
4631.00,1.27
4630.00,1.27
4629.00,1.28
4628.00,1.28
4627.00,1.28
4626.00,1.28
4625.00,1.28
4624.00,1.28
4623.00,1.29
4622.00,1.29
4621.00,1.29
4620.00,1.29
4619.00,1.29
4618.00,1.29
4617.00,1.30
4616.00,1.30
4615.00,1.30
4614.00,1.30
4613.00,1.30
4612.00,1.30
4611.00,1.30
4610.00,1.30
4609.00,1.30
4608.00,1.30
4607.00,1.30
4606.00,1.30
4605.00,1.30
4604.00,1.30
4603.00,1.31
4602.00,1.31
4601.00,1.31
4600.00,1.31
4599.00,1.31
4598.00,1.31
4597.00,1.31
4596.00,1.32
4595.00,1.32
4594.00,1.32
4593.00,1.32
4592.00,1.32
4591.00,1.33
4590.00,1.33
4589.00,1.33
4588.00,1.33
4587.00,1.33
4586.00,1.33
4585.00,1.34
4584.00,1.34
4583.00,1.34
4582.00,1.34
4581.00,1.34
4580.00,1.35
4579.00,1.35
4578.00,1.35
4577.00,1.35
4576.00,1.36
4575.00,1.36
4574.00,1.36
4573.00,1.36
4572.00,1.36
4571.00,1.36
4570.00,1.37
4569.00,1.37
4568.00,1.37
4567.00,1.37
4566.00,1.37
4565.00,1.37
4564.00,1.37
4563.00,1.37
4562.00,1.37
4561.00,1.38
4560.00,1.38
4559.00,1.38
4558.00,1.38
4557.00,1.38
4556.00,1.38
4555.00,1.38
4554.00,1.38
4553.00,1.38
4552.00,1.38
4551.00,1.38
4550.00,1.39
4549.00,1.39
4548.00,1.39
4547.00,1.39
4546.00,1.39
4545.00,1.39
4544.00,1.39
4543.00,1.40
4542.00,1.40
4541.00,1.40
4540.00,1.40
4539.00,1.40
4538.00,1.40
4537.00,1.41
4536.00,1.41
4535.00,1.41
4534.00,1.41
4533.00,1.41
4532.00,1.42
4531.00,1.42
4530.00,1.42
4529.00,1.42
4528.00,1.42
4527.00,1.42
4526.00,1.42
4525.00,1.42
4524.00,1.42
4523.00,1.42
4522.00,1.42
4521.00,1.42
4520.00,1.42
4519.00,1.42
4518.00,1.42
4517.00,1.42
4516.00,1.42
4515.00,1.42
4514.00,1.42
4513.00,1.41
4512.00,1.41
4511.00,1.41
4510.00,1.41
4509.00,1.41
4508.00,1.41
4507.00,1.41
4506.00,1.41
4505.00,1.41
4504.00,1.41
4503.00,1.41
4502.00,1.41
4501.00,1.40
4500.00,1.40
4499.00,1.40
4498.00,1.40
4497.00,1.40
4496.00,1.40
4495.00,1.39
4494.00,1.39
4493.00,1.39
4492.00,1.39
4491.00,1.39
4490.00,1.39
4489.00,1.38
4488.00,1.38
4487.00,1.38
4486.00,1.38
4485.00,1.38
4484.00,1.37
4483.00,1.37
4482.00,1.37
4481.00,1.37
4480.00,1.37
4479.00,1.36
4478.00,1.36
4477.00,1.36
4476.00,1.35
4475.00,1.35
4474.00,1.35
4473.00,1.35
4472.00,1.34
4471.00,1.34
4470.00,1.33
4469.00,1.33
4468.00,1.33
4467.00,1.32
4466.00,1.32
4465.00,1.31
4464.00,1.31
4463.00,1.30
4462.00,1.30
4461.00,1.30
4460.00,1.29
4459.00,1.29
4458.00,1.28
4457.00,1.28
4456.00,1.27
4455.00,1.27
4454.00,1.26
4453.00,1.26
4452.00,1.25
4451.00,1.25
4450.00,1.24
4449.00,1.23
4448.00,1.23
4447.00,1.22
4446.00,1.21
4445.00,1.21
4444.00,1.20
4443.00,1.19
4442.00,1.19
4441.00,1.18
4440.00,1.17
4439.00,1.17
4438.00,1.16
4437.00,1.15
4436.00,1.15
4435.00,1.14
4434.00,1.13
4433.00,1.13
4432.00,1.13
4431.00,1.12
4430.00,1.12
4429.00,1.11
4428.00,1.11
4427.00,1.11
4426.00,1.11
4425.00,1.11
4424.00,1.10
4423.00,1.10
4422.00,1.10
4421.00,1.10
4420.00,1.10
4419.00,1.10
4418.00,1.10
4417.00,1.10
4416.00,1.10
4415.00,1.10
4414.00,1.10
4413.00,1.10
4412.00,1.10
4411.00,1.10
4410.00,1.10
4409.00,1.10
4408.00,1.10
4407.00,1.10
4406.00,1.10
4405.00,1.10
4404.00,1.10
4403.00,1.10
4402.00,1.10
4401.00,1.10
4400.00,1.10
4399.00,1.10
4398.00,1.10
4397.00,1.10
4396.00,1.10
4395.00,1.10
4394.00,1.10
4393.00,1.10
4392.00,1.11
4391.00,1.11
4390.00,1.11
4389.00,1.11
4388.00,1.11
4387.00,1.12
4386.00,1.12
4385.00,1.12
4384.00,1.12
4383.00,1.13
4382.00,1.13
4381.00,1.13
4380.00,1.13
4379.00,1.13
4378.00,1.14
4377.00,1.14
4376.00,1.14
4375.00,1.14
4374.00,1.14
4373.00,1.14
4372.00,1.14
4371.00,1.14
4370.00,1.15
4369.00,1.15
4368.00,1.15
4367.00,1.15
4366.00,1.15
4365.00,1.15
4364.00,1.15
4363.00,1.15
4362.00,1.15
4361.00,1.15
4360.00,1.15
4359.00,1.15
4358.00,1.15
4357.00,1.15
4356.00,1.15
4355.00,1.15
4354.00,1.15
4353.00,1.15
4352.00,1.15
4351.00,1.15
4350.00,1.15
4349.00,1.15
4348.00,1.15
4347.00,1.15
4346.00,1.15
4345.00,1.15
4344.00,1.15
4343.00,1.15
4342.00,1.15
4341.00,1.15
4340.00,1.15
4339.00,1.15
4338.00,1.15
4337.00,1.15
4336.00,1.15
4335.00,1.15
4334.00,1.15
4333.00,1.15
4332.00,1.15
4331.00,1.15
4330.00,1.15
4329.00,1.15
4328.00,1.15
4327.00,1.16
4326.00,1.16
4325.00,1.16
4324.00,1.16
4323.00,1.16
4322.00,1.16
4321.00,1.16
4320.00,1.16
4319.00,1.16
4318.00,1.16
4317.00,1.17
4316.00,1.17
4315.00,1.17
4314.00,1.18
4313.00,1.18
4312.00,1.18
4311.00,1.19
4310.00,1.19
4309.00,1.20
4308.00,1.20
4307.00,1.20
4306.00,1.21
4305.00,1.21
4304.00,1.21
4303.00,1.22
4302.00,1.22
4301.00,1.22
4300.00,1.22
4299.00,1.23
4298.00,1.23
4297.00,1.23
4296.00,1.23
4295.00,1.23
4294.00,1.24
4293.00,1.24
4292.00,1.24
4291.00,1.24
4290.00,1.25
4289.00,1.25
4288.00,1.25
4287.00,1.25
4286.00,1.25
4285.00,1.25
4284.00,1.26
4283.00,1.26
4282.00,1.26
4281.00,1.26
4280.00,1.26
4279.00,1.26
4278.00,1.26
4277.00,1.26
4276.00,1.26
4275.00,1.26
4274.00,1.26
4273.00,1.27
4272.00,1.27
4271.00,1.27
4270.00,1.27
4269.00,1.27
4268.00,1.27
4267.00,1.27
4266.00,1.27
4265.00,1.27
4264.00,1.27
4263.00,1.27
4262.00,1.27
4261.00,1.27
4260.00,1.27
4259.00,1.27
4258.00,1.27
4257.00,1.27
4256.00,1.27
4255.00,1.27
4254.00,1.26
4253.00,1.26
4252.00,1.26
4251.00,1.26
4250.00,1.26
4249.00,1.26
4248.00,1.26
4247.00,1.26
4246.00,1.27
4245.00,1.27
4244.00,1.27
4243.00,1.27
4242.00,1.27
4241.00,1.28
4240.00,1.28
4239.00,1.28
4238.00,1.29
4237.00,1.29
4236.00,1.29
4235.00,1.29
4234.00,1.30
4233.00,1.30
4232.00,1.30
4231.00,1.31
4230.00,1.31
4229.00,1.31
4228.00,1.32
4227.00,1.32
4226.00,1.32
4225.00,1.33
4224.00,1.33
4223.00,1.33
4222.00,1.34
4221.00,1.34
4220.00,1.34
4219.00,1.34
4218.00,1.34
4217.00,1.34
4216.00,1.34
4215.00,1.34
4214.00,1.34
4213.00,1.34
4212.00,1.34
4211.00,1.34
4210.00,1.34
4209.00,1.34
4208.00,1.34
4207.00,1.33
4206.00,1.33
4205.00,1.33
4204.00,1.33
4203.00,1.33
4202.00,1.33
4201.00,1.32
4200.00,1.32
4199.00,1.32
4198.00,1.33
4197.00,1.33
4196.00,1.33
4195.00,1.33
4194.00,1.33
4193.00,1.33
4192.00,1.33
4191.00,1.34
4190.00,1.34
4189.00,1.34
4188.00,1.34
4187.00,1.34
4186.00,1.34
4185.00,1.34
4184.00,1.34
4183.00,1.34
4182.00,1.34
4181.00,1.34
4180.00,1.34
4179.00,1.34
4178.00,1.34
4177.00,1.34
4176.00,1.34
4175.00,1.34
4174.00,1.34
4173.00,1.34
4172.00,1.34
4171.00,1.34
4170.00,1.34
4169.00,1.34
4168.00,1.34
4167.00,1.34
4166.00,1.34
4165.00,1.35
4164.00,1.35
4163.00,1.35
4162.00,1.35
4161.00,1.35
4160.00,1.35
4159.00,1.36
4158.00,1.36
4157.00,1.36
4156.00,1.36
4155.00,1.36
4154.00,1.36
4153.00,1.37
4152.00,1.37
4151.00,1.37
4150.00,1.37
4149.00,1.37
4148.00,1.37
4147.00,1.38
4146.00,1.38
4145.00,1.38
4144.00,1.38
4143.00,1.38
4142.00,1.38
4141.00,1.38
4140.00,1.38
4139.00,1.38
4138.00,1.38
4137.00,1.38
4136.00,1.38
4135.00,1.38
4134.00,1.38
4133.00,1.38
4132.00,1.38
4131.00,1.38
4130.00,1.38
4129.00,1.38
4128.00,1.38
4127.00,1.38
4126.00,1.38
4125.00,1.38
4124.00,1.38
4123.00,1.38
4122.00,1.38
4121.00,1.38
4120.00,1.39
4119.00,1.39
4118.00,1.39
4117.00,1.39
4116.00,1.40
4115.00,1.40
4114.00,1.40
4113.00,1.40
4112.00,1.40
4111.00,1.40
4110.00,1.40
4109.00,1.40
4108.00,1.40
4107.00,1.40
4106.00,1.40
4105.00,1.40
4104.00,1.40
4103.00,1.40
4102.00,1.40
4101.00,1.40
4100.00,1.40
4099.00,1.40
4098.00,1.40
4097.00,1.40
4096.00,1.40
4095.00,1.40
4094.00,1.40
4093.00,1.41
4092.00,1.41
4091.00,1.41
4090.00,1.41
4089.00,1.41
4088.00,1.41
4087.00,1.41
4086.00,1.41
4085.00,1.40
4084.00,1.40
4083.00,1.40
4082.00,1.40
4081.00,1.40
4080.00,1.40
4079.00,1.40
4078.00,1.39
4077.00,1.39
4076.00,1.39
4075.00,1.39
4074.00,1.39
4073.00,1.39
4072.00,1.39
4071.00,1.39
4070.00,1.39
4069.00,1.40
4068.00,1.40
4067.00,1.40
4066.00,1.40
4065.00,1.41
4064.00,1.41
4063.00,1.42
4062.00,1.42
4061.00,1.42
4060.00,1.43
4059.00,1.43
4058.00,1.44
4057.00,1.44
4056.00,1.44
4055.00,1.45
4054.00,1.45
4053.00,1.45
4052.00,1.46
4051.00,1.46
4050.00,1.46
4049.00,1.46
4048.00,1.46
4047.00,1.46
4046.00,1.46
4045.00,1.46
4044.00,1.46
4043.00,1.46
4042.00,1.46
4041.00,1.46
4040.00,1.46
4039.00,1.46
4038.00,1.46
4037.00,1.46
4036.00,1.46
4035.00,1.46
4034.00,1.46
4033.00,1.46
4032.00,1.46
4031.00,1.46
4030.00,1.47
4029.00,1.47
4028.00,1.47
4027.00,1.47
4026.00,1.47
4025.00,1.47
4024.00,1.47
4023.00,1.47
4022.00,1.47
4021.00,1.47
4020.00,1.47
4019.00,1.47
4018.00,1.47
4017.00,1.47
4016.00,1.48
4015.00,1.48
4014.00,1.48
4013.00,1.48
4012.00,1.48
4011.00,1.48
4010.00,1.48
4009.00,1.48
4008.00,1.48
4007.00,1.48
4006.00,1.48
4005.00,1.48
4004.00,1.48
4003.00,1.48
4002.00,1.48
4001.00,1.48
4000.00,1.48
