创建为新数据集,样品 101 用户 Administrator 日期 星期日, 十一月 05 2017
cm-1,%T
10000.00,1.30
9999.00,1.30
9998.00,1.30
9997.00,1.30
9996.00,1.30
9995.00,1.30
9994.00,1.30
9993.00,1.29
9992.00,1.29
9991.00,1.29
9990.00,1.29
9989.00,1.28
9988.00,1.28
9987.00,1.28
9986.00,1.27
9985.00,1.27
9984.00,1.26
9983.00,1.26
9982.00,1.26
9981.00,1.25
9980.00,1.25
9979.00,1.25
9978.00,1.25
9977.00,1.25
9976.00,1.25
9975.00,1.24
9974.00,1.24
9973.00,1.24
9972.00,1.24
9971.00,1.24
9970.00,1.24
9969.00,1.24
9968.00,1.24
9967.00,1.24
9966.00,1.24
9965.00,1.23
9964.00,1.23
9963.00,1.23
9962.00,1.23
9961.00,1.23
9960.00,1.24
9959.00,1.24
9958.00,1.24
9957.00,1.24
9956.00,1.24
9955.00,1.25
9954.00,1.25
9953.00,1.25
9952.00,1.26
9951.00,1.26
9950.00,1.26
9949.00,1.27
9948.00,1.27
9947.00,1.27
9946.00,1.28
9945.00,1.28
9944.00,1.28
9943.00,1.29
9942.00,1.29
9941.00,1.29
9940.00,1.29
9939.00,1.30
9938.00,1.30
9937.00,1.30
9936.00,1.30
9935.00,1.30
9934.00,1.30
9933.00,1.29
9932.00,1.29
9931.00,1.29
9930.00,1.29
9929.00,1.29
9928.00,1.28
9927.00,1.28
9926.00,1.28
9925.00,1.28
9924.00,1.27
9923.00,1.27
9922.00,1.27
9921.00,1.26
9920.00,1.26
9919.00,1.26
9918.00,1.26
9917.00,1.25
9916.00,1.25
9915.00,1.25
9914.00,1.24
9913.00,1.24
9912.00,1.24
9911.00,1.24
9910.00,1.24
9909.00,1.23
9908.00,1.23
9907.00,1.23
9906.00,1.23
9905.00,1.24
9904.00,1.24
9903.00,1.24
9902.00,1.24
9901.00,1.25
9900.00,1.25
9899.00,1.25
9898.00,1.25
9897.00,1.25
9896.00,1.26
9895.00,1.26
9894.00,1.26
9893.00,1.26
9892.00,1.26
9891.00,1.26
9890.00,1.26
9889.00,1.25
9888.00,1.25
9887.00,1.25
9886.00,1.25
9885.00,1.25
9884.00,1.24
9883.00,1.24
9882.00,1.24
9881.00,1.24
9880.00,1.24
9879.00,1.24
9878.00,1.24
9877.00,1.24
9876.00,1.24
9875.00,1.24
9874.00,1.24
9873.00,1.24
9872.00,1.24
9871.00,1.25
9870.00,1.25
9869.00,1.25
9868.00,1.25
9867.00,1.25
9866.00,1.25
9865.00,1.25
9864.00,1.25
9863.00,1.25
9862.00,1.25
9861.00,1.25
9860.00,1.25
9859.00,1.25
9858.00,1.25
9857.00,1.24
9856.00,1.24
9855.00,1.24
9854.00,1.24
9853.00,1.24
9852.00,1.24
9851.00,1.24
9850.00,1.24
9849.00,1.24
9848.00,1.24
9847.00,1.24
9846.00,1.24
9845.00,1.24
9844.00,1.24
9843.00,1.24
9842.00,1.24
9841.00,1.24
9840.00,1.24
9839.00,1.25
9838.00,1.25
9837.00,1.25
9836.00,1.25
9835.00,1.25
9834.00,1.25
9833.00,1.25
9832.00,1.25
9831.00,1.25
9830.00,1.26
9829.00,1.26
9828.00,1.26
9827.00,1.26
9826.00,1.26
9825.00,1.26
9824.00,1.26
9823.00,1.26
9822.00,1.26
9821.00,1.27
9820.00,1.27
9819.00,1.27
9818.00,1.27
9817.00,1.27
9816.00,1.27
9815.00,1.27
9814.00,1.27
9813.00,1.27
9812.00,1.27
9811.00,1.27
9810.00,1.27
9809.00,1.26
9808.00,1.26
9807.00,1.26
9806.00,1.26
9805.00,1.25
9804.00,1.25
9803.00,1.25
9802.00,1.25
9801.00,1.24
9800.00,1.24
9799.00,1.24
9798.00,1.24
9797.00,1.24
9796.00,1.24
9795.00,1.24
9794.00,1.24
9793.00,1.24
9792.00,1.24
9791.00,1.24
9790.00,1.24
9789.00,1.24
9788.00,1.24
9787.00,1.24
9786.00,1.24
9785.00,1.25
9784.00,1.25
9783.00,1.25
9782.00,1.25
9781.00,1.25
9780.00,1.25
9779.00,1.25
9778.00,1.25
9777.00,1.25
9776.00,1.25
9775.00,1.24
9774.00,1.24
9773.00,1.24
9772.00,1.24
9771.00,1.24
9770.00,1.24
9769.00,1.24
9768.00,1.23
9767.00,1.23
9766.00,1.23
9765.00,1.23
9764.00,1.23
9763.00,1.23
9762.00,1.23
9761.00,1.23
9760.00,1.23
9759.00,1.23
9758.00,1.23
9757.00,1.24
9756.00,1.24
9755.00,1.24
9754.00,1.24
9753.00,1.24
9752.00,1.23
9751.00,1.23
9750.00,1.23
9749.00,1.23
9748.00,1.23
9747.00,1.23
9746.00,1.23
9745.00,1.23
9744.00,1.23
9743.00,1.23
9742.00,1.23
9741.00,1.23
9740.00,1.23
9739.00,1.23
9738.00,1.24
9737.00,1.24
9736.00,1.24
9735.00,1.24
9734.00,1.25
9733.00,1.25
9732.00,1.25
9731.00,1.26
9730.00,1.26
9729.00,1.26
9728.00,1.27
9727.00,1.27
9726.00,1.27
9725.00,1.28
9724.00,1.28
9723.00,1.28
9722.00,1.28
9721.00,1.29
9720.00,1.29
9719.00,1.29
9718.00,1.29
9717.00,1.29
9716.00,1.29
9715.00,1.29
9714.00,1.29
9713.00,1.29
9712.00,1.28
9711.00,1.28
9710.00,1.28
9709.00,1.27
9708.00,1.27
9707.00,1.27
9706.00,1.26
9705.00,1.26
9704.00,1.26
9703.00,1.25
9702.00,1.25
9701.00,1.25
9700.00,1.24
9699.00,1.24
9698.00,1.24
9697.00,1.24
9696.00,1.24
9695.00,1.23
9694.00,1.23
9693.00,1.23
9692.00,1.24
9691.00,1.24
9690.00,1.24
9689.00,1.24
9688.00,1.24
9687.00,1.24
9686.00,1.24
9685.00,1.25
9684.00,1.25
9683.00,1.25
9682.00,1.25
9681.00,1.25
9680.00,1.25
9679.00,1.25
9678.00,1.25
9677.00,1.25
9676.00,1.25
9675.00,1.25
9674.00,1.25
9673.00,1.25
9672.00,1.25
9671.00,1.25
9670.00,1.25
9669.00,1.25
9668.00,1.25
9667.00,1.25
9666.00,1.25
9665.00,1.25
9664.00,1.25
9663.00,1.24
9662.00,1.24
9661.00,1.24
9660.00,1.24
9659.00,1.24
9658.00,1.24
9657.00,1.24
9656.00,1.24
9655.00,1.24
9654.00,1.25
9653.00,1.25
9652.00,1.25
9651.00,1.25
9650.00,1.25
9649.00,1.26
9648.00,1.26
9647.00,1.26
9646.00,1.26
9645.00,1.26
9644.00,1.27
9643.00,1.27
9642.00,1.27
9641.00,1.27
9640.00,1.27
9639.00,1.27
9638.00,1.27
9637.00,1.28
9636.00,1.28
9635.00,1.28
9634.00,1.28
9633.00,1.28
9632.00,1.28
9631.00,1.28
9630.00,1.28
9629.00,1.27
9628.00,1.27
9627.00,1.27
9626.00,1.27
9625.00,1.27
9624.00,1.27
9623.00,1.27
9622.00,1.27
9621.00,1.27
9620.00,1.27
9619.00,1.26
9618.00,1.26
9617.00,1.26
9616.00,1.26
9615.00,1.26
9614.00,1.26
9613.00,1.25
9612.00,1.25
9611.00,1.25
9610.00,1.25
9609.00,1.25
9608.00,1.25
9607.00,1.25
9606.00,1.25
9605.00,1.25
9604.00,1.25
9603.00,1.25
9602.00,1.25
9601.00,1.25
9600.00,1.25
9599.00,1.26
9598.00,1.26
9597.00,1.26
9596.00,1.26
9595.00,1.26
9594.00,1.26
9593.00,1.27
9592.00,1.27
9591.00,1.27
9590.00,1.27
9589.00,1.27
9588.00,1.27
9587.00,1.27
9586.00,1.27
9585.00,1.27
9584.00,1.26
9583.00,1.26
9582.00,1.26
9581.00,1.26
9580.00,1.26
9579.00,1.26
9578.00,1.26
9577.00,1.25
9576.00,1.25
9575.00,1.25
9574.00,1.25
9573.00,1.25
9572.00,1.25
9571.00,1.25
9570.00,1.25
9569.00,1.25
9568.00,1.25
9567.00,1.25
9566.00,1.25
9565.00,1.25
9564.00,1.26
9563.00,1.26
9562.00,1.26
9561.00,1.26
9560.00,1.25
9559.00,1.25
9558.00,1.25
9557.00,1.26
9556.00,1.26
9555.00,1.26
9554.00,1.26
9553.00,1.26
9552.00,1.26
9551.00,1.26
9550.00,1.26
9549.00,1.26
9548.00,1.26
9547.00,1.26
9546.00,1.26
9545.00,1.27
9544.00,1.27
9543.00,1.27
9542.00,1.27
9541.00,1.27
9540.00,1.27
9539.00,1.27
9538.00,1.27
9537.00,1.27
9536.00,1.27
9535.00,1.27
9534.00,1.27
9533.00,1.26
9532.00,1.26
9531.00,1.26
9530.00,1.26
9529.00,1.26
9528.00,1.26
9527.00,1.26
9526.00,1.26
9525.00,1.26
9524.00,1.26
9523.00,1.26
9522.00,1.26
9521.00,1.26
9520.00,1.26
9519.00,1.26
9518.00,1.27
9517.00,1.27
9516.00,1.27
9515.00,1.28
9514.00,1.28
9513.00,1.28
9512.00,1.28
9511.00,1.28
9510.00,1.29
9509.00,1.29
9508.00,1.29
9507.00,1.29
9506.00,1.29
9505.00,1.28
9504.00,1.28
9503.00,1.28
9502.00,1.28
9501.00,1.28
9500.00,1.27
9499.00,1.27
9498.00,1.27
9497.00,1.26
9496.00,1.26
9495.00,1.26
9494.00,1.26
9493.00,1.26
9492.00,1.26
9491.00,1.26
9490.00,1.26
9489.00,1.26
9488.00,1.26
9487.00,1.26
9486.00,1.26
9485.00,1.26
9484.00,1.26
9483.00,1.26
9482.00,1.27
9481.00,1.27
9480.00,1.27
9479.00,1.27
9478.00,1.27
9477.00,1.27
9476.00,1.27
9475.00,1.27
9474.00,1.27
9473.00,1.27
9472.00,1.27
9471.00,1.27
9470.00,1.27
9469.00,1.27
9468.00,1.27
9467.00,1.27
9466.00,1.27
9465.00,1.27
9464.00,1.27
9463.00,1.27
9462.00,1.27
9461.00,1.27
9460.00,1.27
9459.00,1.26
9458.00,1.26
9457.00,1.26
9456.00,1.26
9455.00,1.26
9454.00,1.26
9453.00,1.26
9452.00,1.26
9451.00,1.26
9450.00,1.27
9449.00,1.27
9448.00,1.27
9447.00,1.27
9446.00,1.27
9445.00,1.27
9444.00,1.27
9443.00,1.27
9442.00,1.27
9441.00,1.27
9440.00,1.27
9439.00,1.27
9438.00,1.28
9437.00,1.28
9436.00,1.28
9435.00,1.28
9434.00,1.28
9433.00,1.28
9432.00,1.28
9431.00,1.28
9430.00,1.28
9429.00,1.29
9428.00,1.29
9427.00,1.29
9426.00,1.29
9425.00,1.29
9424.00,1.29
9423.00,1.29
9422.00,1.29
9421.00,1.30
9420.00,1.30
9419.00,1.29
9418.00,1.29
9417.00,1.29
9416.00,1.29
9415.00,1.29
9414.00,1.29
9413.00,1.28
9412.00,1.28
9411.00,1.28
9410.00,1.28
9409.00,1.27
9408.00,1.27
9407.00,1.27
9406.00,1.27
9405.00,1.27
9404.00,1.27
9403.00,1.27
9402.00,1.27
9401.00,1.27
9400.00,1.27
9399.00,1.27
9398.00,1.27
9397.00,1.27
9396.00,1.27
9395.00,1.28
9394.00,1.28
9393.00,1.28
9392.00,1.28
9391.00,1.28
9390.00,1.28
9389.00,1.29
9388.00,1.29
9387.00,1.29
9386.00,1.29
9385.00,1.29
9384.00,1.29
9383.00,1.29
9382.00,1.29
9381.00,1.29
9380.00,1.30
9379.00,1.30
9378.00,1.30
9377.00,1.30
9376.00,1.30
9375.00,1.30
9374.00,1.30
9373.00,1.29
9372.00,1.29
9371.00,1.29
9370.00,1.29
9369.00,1.29
9368.00,1.28
9367.00,1.28
9366.00,1.28
9365.00,1.27
9364.00,1.27
9363.00,1.26
9362.00,1.26
9361.00,1.26
9360.00,1.25
9359.00,1.25
9358.00,1.25
9357.00,1.24
9356.00,1.24
9355.00,1.24
9354.00,1.24
9353.00,1.24
9352.00,1.24
9351.00,1.24
9350.00,1.24
9349.00,1.24
9348.00,1.24
9347.00,1.25
9346.00,1.25
9345.00,1.25
9344.00,1.25
9343.00,1.26
9342.00,1.26
9341.00,1.26
9340.00,1.26
9339.00,1.27
9338.00,1.27
9337.00,1.27
9336.00,1.27
9335.00,1.27
9334.00,1.27
9333.00,1.27
9332.00,1.27
9331.00,1.27
9330.00,1.27
9329.00,1.27
9328.00,1.27
9327.00,1.26
9326.00,1.26
9325.00,1.26
9324.00,1.26
9323.00,1.26
9322.00,1.26
9321.00,1.26
9320.00,1.26
9319.00,1.26
9318.00,1.26
9317.00,1.26
9316.00,1.26
9315.00,1.26
9314.00,1.26
9313.00,1.26
9312.00,1.26
9311.00,1.27
9310.00,1.27
9309.00,1.27
9308.00,1.27
9307.00,1.27
9306.00,1.27
9305.00,1.27
9304.00,1.27
9303.00,1.27
9302.00,1.27
9301.00,1.27
9300.00,1.27
9299.00,1.27
9298.00,1.27
9297.00,1.27
9296.00,1.27
9295.00,1.28
9294.00,1.28
9293.00,1.28
9292.00,1.28
9291.00,1.28
9290.00,1.28
9289.00,1.28
9288.00,1.28
9287.00,1.28
9286.00,1.28
9285.00,1.28
9284.00,1.28
9283.00,1.28
9282.00,1.28
9281.00,1.28
9280.00,1.28
9279.00,1.28
9278.00,1.27
9277.00,1.27
9276.00,1.27
9275.00,1.27
9274.00,1.26
9273.00,1.26
9272.00,1.26
9271.00,1.25
9270.00,1.25
9269.00,1.25
9268.00,1.25
9267.00,1.24
9266.00,1.24
9265.00,1.24
9264.00,1.24
9263.00,1.24
9262.00,1.24
9261.00,1.24
9260.00,1.24
9259.00,1.25
9258.00,1.25
9257.00,1.25
9256.00,1.25
9255.00,1.26
9254.00,1.26
9253.00,1.27
9252.00,1.27
9251.00,1.27
9250.00,1.28
9249.00,1.28
9248.00,1.28
9247.00,1.29
9246.00,1.29
9245.00,1.29
9244.00,1.29
9243.00,1.29
9242.00,1.29
9241.00,1.29
9240.00,1.29
9239.00,1.29
9238.00,1.29
9237.00,1.29
9236.00,1.29
9235.00,1.29
9234.00,1.29
9233.00,1.29
9232.00,1.28
9231.00,1.28
9230.00,1.28
9229.00,1.28
9228.00,1.28
9227.00,1.28
9226.00,1.28
9225.00,1.28
9224.00,1.27
9223.00,1.27
9222.00,1.27
9221.00,1.27
9220.00,1.27
9219.00,1.27
9218.00,1.27
9217.00,1.27
9216.00,1.27
9215.00,1.27
9214.00,1.27
9213.00,1.27
9212.00,1.27
9211.00,1.27
9210.00,1.27
9209.00,1.27
9208.00,1.27
9207.00,1.27
9206.00,1.27
9205.00,1.27
9204.00,1.27
9203.00,1.27
9202.00,1.27
9201.00,1.27
9200.00,1.27
9199.00,1.27
9198.00,1.27
9197.00,1.26
9196.00,1.26
9195.00,1.26
9194.00,1.26
9193.00,1.26
9192.00,1.26
9191.00,1.25
9190.00,1.25
9189.00,1.25
9188.00,1.25
9187.00,1.25
9186.00,1.25
9185.00,1.25
9184.00,1.25
9183.00,1.25
9182.00,1.25
9181.00,1.25
9180.00,1.25
9179.00,1.25
9178.00,1.25
9177.00,1.25
9176.00,1.25
9175.00,1.25
9174.00,1.26
9173.00,1.26
9172.00,1.26
9171.00,1.26
9170.00,1.26
9169.00,1.26
9168.00,1.26
9167.00,1.26
9166.00,1.26
9165.00,1.26
9164.00,1.26
9163.00,1.25
9162.00,1.25
9161.00,1.25
9160.00,1.25
9159.00,1.25
9158.00,1.25
9157.00,1.25
9156.00,1.25
9155.00,1.25
9154.00,1.25
9153.00,1.25
9152.00,1.25
9151.00,1.25
9150.00,1.25
9149.00,1.25
9148.00,1.25
9147.00,1.25
9146.00,1.25
9145.00,1.25
9144.00,1.25
9143.00,1.26
9142.00,1.26
9141.00,1.26
9140.00,1.26
9139.00,1.26
9138.00,1.26
9137.00,1.26
9136.00,1.26
9135.00,1.26
9134.00,1.26
9133.00,1.26
9132.00,1.26
9131.00,1.26
9130.00,1.26
9129.00,1.26
9128.00,1.26
9127.00,1.26
9126.00,1.26
9125.00,1.25
9124.00,1.25
9123.00,1.25
9122.00,1.25
9121.00,1.25
9120.00,1.25
9119.00,1.26
9118.00,1.26
9117.00,1.26
9116.00,1.26
9115.00,1.27
9114.00,1.27
9113.00,1.27
9112.00,1.28
9111.00,1.28
9110.00,1.28
9109.00,1.29
9108.00,1.29
9107.00,1.29
9106.00,1.29
9105.00,1.29
9104.00,1.30
9103.00,1.30
9102.00,1.29
9101.00,1.29
9100.00,1.29
9099.00,1.29
9098.00,1.29
9097.00,1.28
9096.00,1.28
9095.00,1.28
9094.00,1.28
9093.00,1.27
9092.00,1.27
9091.00,1.27
9090.00,1.27
9089.00,1.27
9088.00,1.26
9087.00,1.26
9086.00,1.26
9085.00,1.26
9084.00,1.26
9083.00,1.26
9082.00,1.26
9081.00,1.26
9080.00,1.26
9079.00,1.26
9078.00,1.26
9077.00,1.26
9076.00,1.26
9075.00,1.26
9074.00,1.26
9073.00,1.26
9072.00,1.26
9071.00,1.26
9070.00,1.26
9069.00,1.26
9068.00,1.26
9067.00,1.26
9066.00,1.26
9065.00,1.26
9064.00,1.26
9063.00,1.26
9062.00,1.26
9061.00,1.27
9060.00,1.27
9059.00,1.27
9058.00,1.27
9057.00,1.27
9056.00,1.27
9055.00,1.27
9054.00,1.27
9053.00,1.27
9052.00,1.26
9051.00,1.26
9050.00,1.26
9049.00,1.26
9048.00,1.26
9047.00,1.26
9046.00,1.26
9045.00,1.26
9044.00,1.26
9043.00,1.26
9042.00,1.26
9041.00,1.26
9040.00,1.26
9039.00,1.26
9038.00,1.26
9037.00,1.26
9036.00,1.26
9035.00,1.26
9034.00,1.26
9033.00,1.26
9032.00,1.26
9031.00,1.26
9030.00,1.26
9029.00,1.26
9028.00,1.26
9027.00,1.26
9026.00,1.26
9025.00,1.26
9024.00,1.26
9023.00,1.26
9022.00,1.26
9021.00,1.26
9020.00,1.26
9019.00,1.26
9018.00,1.26
9017.00,1.26
9016.00,1.26
9015.00,1.26
9014.00,1.26
9013.00,1.26
9012.00,1.26
9011.00,1.26
9010.00,1.27
9009.00,1.27
9008.00,1.27
9007.00,1.27
9006.00,1.27
9005.00,1.27
9004.00,1.27
9003.00,1.27
9002.00,1.27
9001.00,1.27
9000.00,1.27
8999.00,1.27
8998.00,1.27
8997.00,1.27
8996.00,1.27
8995.00,1.27
8994.00,1.27
8993.00,1.27
8992.00,1.27
8991.00,1.27
8990.00,1.27
8989.00,1.27
8988.00,1.27
8987.00,1.27
8986.00,1.27
8985.00,1.26
8984.00,1.26
8983.00,1.26
8982.00,1.26
8981.00,1.26
8980.00,1.26
8979.00,1.26
8978.00,1.26
8977.00,1.26
8976.00,1.26
8975.00,1.26
8974.00,1.26
8973.00,1.26
8972.00,1.26
8971.00,1.27
8970.00,1.27
8969.00,1.27
8968.00,1.27
8967.00,1.27
8966.00,1.27
8965.00,1.27
8964.00,1.27
8963.00,1.27
8962.00,1.26
8961.00,1.26
8960.00,1.26
8959.00,1.26
8958.00,1.26
8957.00,1.26
8956.00,1.26
8955.00,1.26
8954.00,1.26
8953.00,1.26
8952.00,1.26
8951.00,1.26
8950.00,1.26
8949.00,1.26
8948.00,1.26
8947.00,1.26
8946.00,1.25
8945.00,1.25
8944.00,1.25
8943.00,1.25
8942.00,1.25
8941.00,1.25
8940.00,1.25
8939.00,1.25
8938.00,1.25
8937.00,1.25
8936.00,1.25
8935.00,1.25
8934.00,1.25
8933.00,1.25
8932.00,1.25
8931.00,1.25
8930.00,1.25
8929.00,1.25
8928.00,1.25
8927.00,1.25
8926.00,1.25
8925.00,1.25
8924.00,1.25
8923.00,1.25
8922.00,1.25
8921.00,1.25
8920.00,1.25
8919.00,1.25
8918.00,1.25
8917.00,1.25
8916.00,1.25
8915.00,1.25
8914.00,1.26
8913.00,1.26
8912.00,1.26
8911.00,1.26
8910.00,1.26
8909.00,1.26
8908.00,1.26
8907.00,1.26
8906.00,1.26
8905.00,1.26
8904.00,1.26
8903.00,1.26
8902.00,1.26
8901.00,1.26
8900.00,1.26
8899.00,1.26
8898.00,1.26
8897.00,1.26
8896.00,1.26
8895.00,1.26
8894.00,1.26
8893.00,1.26
8892.00,1.26
8891.00,1.26
8890.00,1.26
8889.00,1.26
8888.00,1.26
8887.00,1.26
8886.00,1.26
8885.00,1.26
8884.00,1.27
8883.00,1.27
8882.00,1.27
8881.00,1.27
8880.00,1.27
8879.00,1.27
8878.00,1.27
8877.00,1.27
8876.00,1.27
8875.00,1.27
8874.00,1.27
8873.00,1.27
8872.00,1.27
8871.00,1.27
8870.00,1.27
8869.00,1.27
8868.00,1.27
8867.00,1.27
8866.00,1.27
8865.00,1.27
8864.00,1.27
8863.00,1.27
8862.00,1.27
8861.00,1.27
8860.00,1.27
8859.00,1.27
8858.00,1.26
8857.00,1.26
8856.00,1.26
8855.00,1.26
8854.00,1.26
8853.00,1.26
8852.00,1.26
8851.00,1.26
8850.00,1.26
8849.00,1.26
8848.00,1.26
8847.00,1.26
8846.00,1.27
8845.00,1.27
8844.00,1.27
8843.00,1.27
8842.00,1.27
8841.00,1.27
8840.00,1.27
8839.00,1.27
8838.00,1.27
8837.00,1.27
8836.00,1.27
8835.00,1.27
8834.00,1.27
8833.00,1.27
8832.00,1.27
8831.00,1.27
8830.00,1.27
8829.00,1.27
8828.00,1.27
8827.00,1.27
8826.00,1.27
8825.00,1.26
8824.00,1.26
8823.00,1.26
8822.00,1.26
8821.00,1.25
8820.00,1.25
8819.00,1.25
8818.00,1.25
8817.00,1.25
8816.00,1.24
8815.00,1.24
8814.00,1.24
8813.00,1.24
8812.00,1.24
8811.00,1.24
8810.00,1.24
8809.00,1.24
8808.00,1.24
8807.00,1.24
8806.00,1.24
8805.00,1.24
8804.00,1.24
8803.00,1.24
8802.00,1.24
8801.00,1.24
8800.00,1.25
8799.00,1.25
8798.00,1.25
8797.00,1.25
8796.00,1.25
8795.00,1.26
8794.00,1.26
8793.00,1.26
8792.00,1.26
8791.00,1.27
8790.00,1.27
8789.00,1.27
8788.00,1.27
8787.00,1.27
8786.00,1.27
8785.00,1.28
8784.00,1.28
8783.00,1.28
8782.00,1.28
8781.00,1.28
8780.00,1.28
8779.00,1.28
8778.00,1.27
8777.00,1.27
8776.00,1.27
8775.00,1.27
8774.00,1.27
8773.00,1.27
8772.00,1.27
8771.00,1.26
8770.00,1.26
8769.00,1.26
8768.00,1.26
8767.00,1.26
8766.00,1.26
8765.00,1.25
8764.00,1.25
8763.00,1.25
8762.00,1.25
8761.00,1.25
8760.00,1.25
8759.00,1.24
8758.00,1.24
8757.00,1.24
8756.00,1.24
8755.00,1.24
8754.00,1.25
8753.00,1.25
8752.00,1.25
8751.00,1.25
8750.00,1.25
8749.00,1.25
8748.00,1.26
8747.00,1.26
8746.00,1.26
8745.00,1.26
8744.00,1.26
8743.00,1.26
8742.00,1.26
8741.00,1.26
8740.00,1.26
8739.00,1.26
8738.00,1.26
8737.00,1.25
8736.00,1.25
8735.00,1.25
8734.00,1.25
8733.00,1.24
8732.00,1.24
8731.00,1.24
8730.00,1.24
8729.00,1.24
8728.00,1.23
8727.00,1.23
8726.00,1.23
8725.00,1.23
8724.00,1.23
8723.00,1.23
8722.00,1.23
8721.00,1.23
8720.00,1.23
8719.00,1.24
8718.00,1.24
8717.00,1.24
8716.00,1.24
8715.00,1.24
8714.00,1.24
8713.00,1.24
8712.00,1.24
8711.00,1.24
8710.00,1.24
8709.00,1.24
8708.00,1.24
8707.00,1.24
8706.00,1.24
8705.00,1.24
8704.00,1.24
8703.00,1.24
8702.00,1.24
8701.00,1.24
8700.00,1.24
8699.00,1.23
8698.00,1.23
8697.00,1.23
8696.00,1.23
8695.00,1.23
8694.00,1.23
8693.00,1.23
8692.00,1.23
8691.00,1.23
8690.00,1.23
8689.00,1.23
8688.00,1.23
8687.00,1.23
8686.00,1.23
8685.00,1.23
8684.00,1.23
8683.00,1.23
8682.00,1.23
8681.00,1.23
8680.00,1.24
8679.00,1.24
8678.00,1.24
8677.00,1.24
8676.00,1.24
8675.00,1.24
8674.00,1.24
8673.00,1.24
8672.00,1.24
8671.00,1.24
8670.00,1.24
8669.00,1.24
8668.00,1.23
8667.00,1.23
8666.00,1.23
8665.00,1.23
8664.00,1.23
8663.00,1.23
8662.00,1.22
8661.00,1.22
8660.00,1.22
8659.00,1.22
8658.00,1.22
8657.00,1.22
8656.00,1.22
8655.00,1.22
8654.00,1.22
8653.00,1.22
8652.00,1.22
8651.00,1.22
8650.00,1.22
8649.00,1.22
8648.00,1.22
8647.00,1.22
8646.00,1.22
8645.00,1.22
8644.00,1.22
8643.00,1.22
8642.00,1.22
8641.00,1.22
8640.00,1.22
8639.00,1.22
8638.00,1.22
8637.00,1.22
8636.00,1.22
8635.00,1.22
8634.00,1.22
8633.00,1.22
8632.00,1.22
8631.00,1.22
8630.00,1.22
8629.00,1.22
8628.00,1.22
8627.00,1.22
8626.00,1.22
8625.00,1.22
8624.00,1.22
8623.00,1.22
8622.00,1.22
8621.00,1.22
8620.00,1.22
8619.00,1.22
8618.00,1.22
8617.00,1.22
8616.00,1.21
8615.00,1.21
8614.00,1.21
8613.00,1.21
8612.00,1.21
8611.00,1.21
8610.00,1.21
8609.00,1.20
8608.00,1.20
8607.00,1.20
8606.00,1.20
8605.00,1.20
8604.00,1.20
8603.00,1.20
8602.00,1.20
8601.00,1.20
8600.00,1.20
8599.00,1.20
8598.00,1.20
8597.00,1.20
8596.00,1.20
8595.00,1.20
8594.00,1.20
8593.00,1.19
8592.00,1.19
8591.00,1.19
8590.00,1.19
8589.00,1.19
8588.00,1.19
8587.00,1.19
8586.00,1.19
8585.00,1.19
8584.00,1.19
8583.00,1.20
8582.00,1.20
8581.00,1.20
8580.00,1.20
8579.00,1.20
8578.00,1.20
8577.00,1.20
8576.00,1.20
8575.00,1.20
8574.00,1.20
8573.00,1.20
8572.00,1.20
8571.00,1.20
8570.00,1.20
8569.00,1.20
8568.00,1.20
8567.00,1.20
8566.00,1.20
8565.00,1.20
8564.00,1.20
8563.00,1.20
8562.00,1.20
8561.00,1.20
8560.00,1.20
8559.00,1.20
8558.00,1.20
8557.00,1.20
8556.00,1.20
8555.00,1.20
8554.00,1.20
8553.00,1.20
8552.00,1.20
8551.00,1.20
8550.00,1.20
8549.00,1.19
8548.00,1.19
8547.00,1.19
8546.00,1.19
8545.00,1.19
8544.00,1.19
8543.00,1.19
8542.00,1.19
8541.00,1.18
8540.00,1.18
8539.00,1.18
8538.00,1.18
8537.00,1.18
8536.00,1.18
8535.00,1.18
8534.00,1.18
8533.00,1.17
8532.00,1.17
8531.00,1.17
8530.00,1.17
8529.00,1.17
8528.00,1.17
8527.00,1.17
8526.00,1.17
8525.00,1.17
8524.00,1.17
8523.00,1.17
8522.00,1.17
8521.00,1.17
8520.00,1.17
8519.00,1.17
8518.00,1.18
8517.00,1.18
8516.00,1.18
8515.00,1.18
8514.00,1.18
8513.00,1.18
8512.00,1.18
8511.00,1.18
8510.00,1.18
8509.00,1.18
8508.00,1.18
8507.00,1.18
8506.00,1.18
8505.00,1.18
8504.00,1.18
8503.00,1.18
8502.00,1.18
8501.00,1.18
8500.00,1.18
8499.00,1.18
8498.00,1.18
8497.00,1.18
8496.00,1.18
8495.00,1.18
8494.00,1.17
8493.00,1.17
8492.00,1.17
8491.00,1.17
8490.00,1.17
8489.00,1.17
8488.00,1.17
8487.00,1.16
8486.00,1.16
8485.00,1.16
8484.00,1.16
8483.00,1.16
8482.00,1.16
8481.00,1.16
8480.00,1.16
8479.00,1.16
8478.00,1.16
8477.00,1.16
8476.00,1.16
8475.00,1.15
8474.00,1.15
8473.00,1.15
8472.00,1.15
8471.00,1.15
8470.00,1.15
8469.00,1.15
8468.00,1.14
8467.00,1.14
8466.00,1.14
8465.00,1.14
8464.00,1.14
8463.00,1.13
8462.00,1.13
8461.00,1.13
8460.00,1.13
8459.00,1.13
8458.00,1.13
8457.00,1.13
8456.00,1.13
8455.00,1.13
8454.00,1.13
8453.00,1.13
8452.00,1.13
8451.00,1.13
8450.00,1.13
8449.00,1.13
8448.00,1.14
8447.00,1.14
8446.00,1.14
8445.00,1.14
8444.00,1.14
8443.00,1.14
8442.00,1.14
8441.00,1.14
8440.00,1.15
8439.00,1.15
8438.00,1.15
8437.00,1.15
8436.00,1.15
8435.00,1.15
8434.00,1.15
8433.00,1.15
8432.00,1.15
8431.00,1.15
8430.00,1.15
8429.00,1.16
8428.00,1.16
8427.00,1.16
8426.00,1.16
8425.00,1.16
8424.00,1.16
8423.00,1.16
8422.00,1.16
8421.00,1.16
8420.00,1.16
8419.00,1.16
8418.00,1.16
8417.00,1.16
8416.00,1.16
8415.00,1.16
8414.00,1.16
8413.00,1.15
8412.00,1.15
8411.00,1.15
8410.00,1.15
8409.00,1.15
8408.00,1.15
8407.00,1.15
8406.00,1.15
8405.00,1.15
8404.00,1.15
8403.00,1.15
8402.00,1.15
8401.00,1.15
8400.00,1.15
8399.00,1.15
8398.00,1.15
8397.00,1.15
8396.00,1.15
8395.00,1.15
8394.00,1.15
8393.00,1.15
8392.00,1.15
8391.00,1.15
8390.00,1.15
8389.00,1.15
8388.00,1.15
8387.00,1.15
8386.00,1.15
8385.00,1.15
8384.00,1.16
8383.00,1.16
8382.00,1.16
8381.00,1.16
8380.00,1.16
8379.00,1.16
8378.00,1.16
8377.00,1.16
8376.00,1.16
8375.00,1.16
8374.00,1.16
8373.00,1.16
8372.00,1.17
8371.00,1.17
8370.00,1.17
8369.00,1.17
8368.00,1.17
8367.00,1.17
8366.00,1.17
8365.00,1.18
8364.00,1.18
8363.00,1.18
8362.00,1.18
8361.00,1.18
8360.00,1.18
8359.00,1.18
8358.00,1.18
8357.00,1.18
8356.00,1.18
8355.00,1.18
8354.00,1.18
8353.00,1.18
8352.00,1.18
8351.00,1.18
8350.00,1.18
8349.00,1.18
8348.00,1.18
8347.00,1.17
8346.00,1.17
8345.00,1.17
8344.00,1.17
8343.00,1.17
8342.00,1.17
8341.00,1.17
8340.00,1.17
8339.00,1.16
8338.00,1.16
8337.00,1.16
8336.00,1.16
8335.00,1.16
8334.00,1.16
8333.00,1.16
8332.00,1.16
8331.00,1.16
8330.00,1.16
8329.00,1.16
8328.00,1.16
8327.00,1.16
8326.00,1.16
8325.00,1.16
8324.00,1.16
8323.00,1.17
8322.00,1.17
8321.00,1.17
8320.00,1.17
8319.00,1.17
8318.00,1.17
8317.00,1.18
8316.00,1.18
8315.00,1.18
8314.00,1.18
8313.00,1.18
8312.00,1.18
8311.00,1.18
8310.00,1.18
8309.00,1.18
8308.00,1.18
8307.00,1.18
8306.00,1.18
8305.00,1.18
8304.00,1.18
8303.00,1.18
8302.00,1.18
8301.00,1.18
8300.00,1.17
8299.00,1.17
8298.00,1.17
8297.00,1.17
8296.00,1.17
8295.00,1.17
8294.00,1.17
8293.00,1.17
8292.00,1.18
8291.00,1.18
8290.00,1.18
8289.00,1.18
8288.00,1.18
8287.00,1.18
8286.00,1.18
8285.00,1.18
8284.00,1.18
8283.00,1.18
8282.00,1.18
8281.00,1.18
8280.00,1.18
8279.00,1.18
8278.00,1.18
8277.00,1.18
8276.00,1.18
8275.00,1.18
8274.00,1.18
8273.00,1.18
8272.00,1.18
8271.00,1.18
8270.00,1.18
8269.00,1.19
8268.00,1.19
8267.00,1.19
8266.00,1.19
8265.00,1.19
8264.00,1.20
8263.00,1.20
8262.00,1.20
8261.00,1.20
8260.00,1.20
8259.00,1.20
8258.00,1.20
8257.00,1.20
8256.00,1.20
8255.00,1.20
8254.00,1.20
8253.00,1.20
8252.00,1.20
8251.00,1.20
8250.00,1.20
8249.00,1.20
8248.00,1.20
8247.00,1.20
8246.00,1.19
8245.00,1.19
8244.00,1.19
8243.00,1.19
8242.00,1.19
8241.00,1.20
8240.00,1.20
8239.00,1.20
8238.00,1.20
8237.00,1.20
8236.00,1.20
8235.00,1.20
8234.00,1.20
8233.00,1.20
8232.00,1.20
8231.00,1.21
8230.00,1.21
8229.00,1.21
8228.00,1.21
8227.00,1.21
8226.00,1.21
8225.00,1.21
8224.00,1.21
8223.00,1.22
8222.00,1.22
8221.00,1.22
8220.00,1.22
8219.00,1.22
8218.00,1.22
8217.00,1.22
8216.00,1.22
8215.00,1.22
8214.00,1.22
8213.00,1.22
8212.00,1.22
8211.00,1.22
8210.00,1.22
8209.00,1.22
8208.00,1.22
8207.00,1.22
8206.00,1.22
8205.00,1.22
8204.00,1.22
8203.00,1.22
8202.00,1.22
8201.00,1.22
8200.00,1.22
8199.00,1.22
8198.00,1.22
8197.00,1.22
8196.00,1.22
8195.00,1.22
8194.00,1.22
8193.00,1.22
8192.00,1.22
8191.00,1.22
8190.00,1.21
8189.00,1.21
8188.00,1.21
8187.00,1.21
8186.00,1.21
8185.00,1.21
8184.00,1.21
8183.00,1.20
8182.00,1.20
8181.00,1.20
8180.00,1.20
8179.00,1.20
8178.00,1.20
8177.00,1.21
8176.00,1.21
8175.00,1.21
8174.00,1.21
8173.00,1.21
8172.00,1.21
8171.00,1.21
8170.00,1.21
8169.00,1.22
8168.00,1.22
8167.00,1.22
8166.00,1.22
8165.00,1.22
8164.00,1.22
8163.00,1.22
8162.00,1.22
8161.00,1.22
8160.00,1.22
8159.00,1.22
8158.00,1.22
8157.00,1.21
8156.00,1.21
8155.00,1.21
8154.00,1.21
8153.00,1.21
8152.00,1.21
8151.00,1.21
8150.00,1.21
8149.00,1.21
8148.00,1.21
8147.00,1.21
8146.00,1.21
8145.00,1.21
8144.00,1.21
8143.00,1.21
8142.00,1.21
8141.00,1.22
8140.00,1.22
8139.00,1.22
8138.00,1.22
8137.00,1.22
8136.00,1.22
8135.00,1.22
8134.00,1.22
8133.00,1.22
8132.00,1.22
8131.00,1.22
8130.00,1.22
8129.00,1.22
8128.00,1.22
8127.00,1.22
8126.00,1.22
8125.00,1.22
8124.00,1.22
8123.00,1.22
8122.00,1.22
8121.00,1.22
8120.00,1.22
8119.00,1.22
8118.00,1.22
8117.00,1.22
8116.00,1.22
8115.00,1.22
8114.00,1.22
8113.00,1.22
8112.00,1.22
8111.00,1.22
8110.00,1.23
8109.00,1.23
8108.00,1.23
8107.00,1.23
8106.00,1.23
8105.00,1.23
8104.00,1.24
8103.00,1.24
8102.00,1.24
8101.00,1.24
8100.00,1.24
8099.00,1.24
8098.00,1.24
8097.00,1.24
8096.00,1.24
8095.00,1.24
8094.00,1.24
8093.00,1.24
8092.00,1.24
8091.00,1.24
8090.00,1.24
8089.00,1.24
8088.00,1.24
8087.00,1.24
8086.00,1.24
8085.00,1.24
8084.00,1.24
8083.00,1.24
8082.00,1.24
8081.00,1.24
8080.00,1.24
8079.00,1.24
8078.00,1.24
8077.00,1.24
8076.00,1.24
8075.00,1.24
8074.00,1.24
8073.00,1.24
8072.00,1.24
8071.00,1.24
8070.00,1.24
8069.00,1.24
8068.00,1.24
8067.00,1.24
8066.00,1.24
8065.00,1.24
8064.00,1.24
8063.00,1.24
8062.00,1.24
8061.00,1.24
8060.00,1.24
8059.00,1.24
8058.00,1.24
8057.00,1.24
8056.00,1.24
8055.00,1.24
8054.00,1.24
8053.00,1.24
8052.00,1.25
8051.00,1.25
8050.00,1.25
8049.00,1.25
8048.00,1.25
8047.00,1.25
8046.00,1.25
8045.00,1.25
8044.00,1.25
8043.00,1.25
8042.00,1.25
8041.00,1.25
8040.00,1.25
8039.00,1.25
8038.00,1.26
8037.00,1.26
8036.00,1.26
8035.00,1.26
8034.00,1.26
8033.00,1.26
8032.00,1.26
8031.00,1.26
8030.00,1.26
8029.00,1.26
8028.00,1.26
8027.00,1.26
8026.00,1.26
8025.00,1.26
8024.00,1.26
8023.00,1.26
8022.00,1.26
8021.00,1.26
8020.00,1.26
8019.00,1.26
8018.00,1.26
8017.00,1.26
8016.00,1.26
8015.00,1.26
8014.00,1.26
8013.00,1.26
8012.00,1.26
8011.00,1.26
8010.00,1.26
8009.00,1.26
8008.00,1.26
8007.00,1.26
8006.00,1.26
8005.00,1.26
8004.00,1.26
8003.00,1.26
8002.00,1.26
8001.00,1.26
8000.00,1.26
7999.00,1.26
7998.00,1.26
7997.00,1.26
7996.00,1.26
7995.00,1.26
7994.00,1.26
7993.00,1.26
7992.00,1.26
7991.00,1.26
7990.00,1.26
7989.00,1.26
7988.00,1.26
7987.00,1.26
7986.00,1.26
7985.00,1.26
7984.00,1.27
7983.00,1.27
7982.00,1.27
7981.00,1.27
7980.00,1.27
7979.00,1.27
7978.00,1.27
7977.00,1.27
7976.00,1.27
7975.00,1.27
7974.00,1.27
7973.00,1.27
7972.00,1.27
7971.00,1.27
7970.00,1.27
7969.00,1.27
7968.00,1.27
7967.00,1.27
7966.00,1.27
7965.00,1.27
7964.00,1.27
7963.00,1.26
7962.00,1.26
7961.00,1.26
7960.00,1.26
7959.00,1.26
7958.00,1.26
7957.00,1.26
7956.00,1.26
7955.00,1.26
7954.00,1.26
7953.00,1.26
7952.00,1.25
7951.00,1.25
7950.00,1.25
7949.00,1.25
7948.00,1.25
7947.00,1.25
7946.00,1.25
7945.00,1.25
7944.00,1.25
7943.00,1.25
7942.00,1.25
7941.00,1.25
7940.00,1.25
7939.00,1.25
7938.00,1.25
7937.00,1.26
7936.00,1.26
7935.00,1.26
7934.00,1.26
7933.00,1.26
7932.00,1.26
7931.00,1.26
7930.00,1.26
7929.00,1.26
7928.00,1.26
7927.00,1.26
7926.00,1.27
7925.00,1.27
7924.00,1.27
7923.00,1.27
7922.00,1.27
7921.00,1.27
7920.00,1.27
7919.00,1.27
7918.00,1.27
7917.00,1.27
7916.00,1.27
7915.00,1.27
7914.00,1.27
7913.00,1.27
7912.00,1.27
7911.00,1.27
7910.00,1.27
7909.00,1.27
7908.00,1.27
7907.00,1.27
7906.00,1.27
7905.00,1.27
7904.00,1.27
7903.00,1.27
7902.00,1.27
7901.00,1.27
7900.00,1.27
7899.00,1.27
7898.00,1.27
7897.00,1.27
7896.00,1.27
7895.00,1.27
7894.00,1.27
7893.00,1.27
7892.00,1.27
7891.00,1.27
7890.00,1.27
7889.00,1.27
7888.00,1.27
7887.00,1.27
7886.00,1.27
7885.00,1.27
7884.00,1.27
7883.00,1.27
7882.00,1.27
7881.00,1.27
7880.00,1.27
7879.00,1.27
7878.00,1.27
7877.00,1.27
7876.00,1.27
7875.00,1.27
7874.00,1.27
7873.00,1.27
7872.00,1.27
7871.00,1.27
7870.00,1.27
7869.00,1.27
7868.00,1.27
7867.00,1.27
7866.00,1.27
7865.00,1.27
7864.00,1.27
7863.00,1.27
7862.00,1.27
7861.00,1.27
7860.00,1.27
7859.00,1.27
7858.00,1.27
7857.00,1.27
7856.00,1.27
7855.00,1.27
7854.00,1.27
7853.00,1.27
7852.00,1.28
7851.00,1.28
7850.00,1.28
7849.00,1.28
7848.00,1.28
7847.00,1.28
7846.00,1.28
7845.00,1.28
7844.00,1.28
7843.00,1.28
7842.00,1.28
7841.00,1.28
7840.00,1.28
7839.00,1.28
7838.00,1.28
7837.00,1.28
7836.00,1.28
7835.00,1.28
7834.00,1.28
7833.00,1.28
7832.00,1.28
7831.00,1.28
7830.00,1.28
7829.00,1.28
7828.00,1.28
7827.00,1.28
7826.00,1.28
7825.00,1.28
7824.00,1.28
7823.00,1.28
7822.00,1.28
7821.00,1.28
7820.00,1.28
7819.00,1.28
7818.00,1.28
7817.00,1.28
7816.00,1.28
7815.00,1.28
7814.00,1.28
7813.00,1.28
7812.00,1.28
7811.00,1.27
7810.00,1.27
7809.00,1.27
7808.00,1.28
7807.00,1.28
7806.00,1.28
7805.00,1.28
7804.00,1.28
7803.00,1.28
7802.00,1.28
7801.00,1.28
7800.00,1.28
7799.00,1.28
7798.00,1.28
7797.00,1.28
7796.00,1.28
7795.00,1.28
7794.00,1.28
7793.00,1.28
7792.00,1.28
7791.00,1.28
7790.00,1.28
7789.00,1.28
7788.00,1.28
7787.00,1.28
7786.00,1.28
7785.00,1.28
7784.00,1.28
7783.00,1.28
7782.00,1.28
7781.00,1.28
7780.00,1.28
7779.00,1.28
7778.00,1.28
7777.00,1.28
7776.00,1.28
7775.00,1.29
7774.00,1.29
7773.00,1.29
7772.00,1.29
7771.00,1.29
7770.00,1.29
7769.00,1.29
7768.00,1.29
7767.00,1.29
7766.00,1.29
7765.00,1.29
7764.00,1.29
7763.00,1.29
7762.00,1.29
7761.00,1.29
7760.00,1.29
7759.00,1.28
7758.00,1.28
7757.00,1.28
7756.00,1.28
7755.00,1.28
7754.00,1.28
7753.00,1.28
7752.00,1.28
7751.00,1.28
7750.00,1.28
7749.00,1.28
7748.00,1.27
7747.00,1.27
7746.00,1.27
7745.00,1.27
7744.00,1.27
7743.00,1.27
7742.00,1.27
7741.00,1.28
7740.00,1.28
7739.00,1.28
7738.00,1.28
7737.00,1.28
7736.00,1.28
7735.00,1.28
7734.00,1.28
7733.00,1.28
7732.00,1.28
7731.00,1.28
7730.00,1.28
7729.00,1.28
7728.00,1.28
7727.00,1.28
7726.00,1.28
7725.00,1.28
7724.00,1.28
7723.00,1.28
7722.00,1.28
7721.00,1.28
7720.00,1.28
7719.00,1.28
7718.00,1.28
7717.00,1.28
7716.00,1.28
7715.00,1.28
7714.00,1.28
7713.00,1.28
7712.00,1.28
7711.00,1.28
7710.00,1.28
7709.00,1.28
7708.00,1.28
7707.00,1.28
7706.00,1.28
7705.00,1.28
7704.00,1.28
7703.00,1.28
7702.00,1.28
7701.00,1.28
7700.00,1.28
7699.00,1.28
7698.00,1.28
7697.00,1.28
7696.00,1.28
7695.00,1.28
7694.00,1.28
7693.00,1.28
7692.00,1.28
7691.00,1.28
7690.00,1.28
7689.00,1.28
7688.00,1.28
7687.00,1.28
7686.00,1.28
7685.00,1.28
7684.00,1.28
7683.00,1.28
7682.00,1.28
7681.00,1.28
7680.00,1.28
7679.00,1.28
7678.00,1.28
7677.00,1.28
7676.00,1.28
7675.00,1.28
7674.00,1.28
7673.00,1.29
7672.00,1.29
7671.00,1.29
7670.00,1.29
7669.00,1.29
7668.00,1.29
7667.00,1.29
7666.00,1.29
7665.00,1.29
7664.00,1.29
7663.00,1.29
7662.00,1.30
7661.00,1.30
7660.00,1.30
7659.00,1.30
7658.00,1.30
7657.00,1.30
7656.00,1.30
7655.00,1.30
7654.00,1.30
7653.00,1.30
7652.00,1.30
7651.00,1.30
7650.00,1.30
7649.00,1.30
7648.00,1.30
7647.00,1.29
7646.00,1.29
7645.00,1.29
7644.00,1.29
7643.00,1.29
7642.00,1.29
7641.00,1.29
7640.00,1.29
7639.00,1.29
7638.00,1.29
7637.00,1.28
7636.00,1.28
7635.00,1.28
7634.00,1.28
7633.00,1.28
7632.00,1.28
7631.00,1.28
7630.00,1.28
7629.00,1.28
7628.00,1.28
7627.00,1.28
7626.00,1.28
7625.00,1.28
7624.00,1.28
7623.00,1.28
7622.00,1.28
7621.00,1.28
7620.00,1.28
7619.00,1.28
7618.00,1.28
7617.00,1.28
7616.00,1.28
7615.00,1.28
7614.00,1.28
7613.00,1.28
7612.00,1.28
7611.00,1.28
7610.00,1.28
7609.00,1.28
7608.00,1.28
7607.00,1.28
7606.00,1.28
7605.00,1.28
7604.00,1.28
7603.00,1.28
7602.00,1.28
7601.00,1.28
7600.00,1.28
7599.00,1.28
7598.00,1.28
7597.00,1.28
7596.00,1.28
7595.00,1.28
7594.00,1.28
7593.00,1.28
7592.00,1.28
7591.00,1.28
7590.00,1.28
7589.00,1.27
7588.00,1.27
7587.00,1.27
7586.00,1.27
7585.00,1.27
7584.00,1.27
7583.00,1.27
7582.00,1.27
7581.00,1.27
7580.00,1.27
7579.00,1.27
7578.00,1.27
7577.00,1.27
7576.00,1.27
7575.00,1.27
7574.00,1.27
7573.00,1.27
7572.00,1.27
7571.00,1.27
7570.00,1.27
7569.00,1.27
7568.00,1.28
7567.00,1.28
7566.00,1.28
7565.00,1.28
7564.00,1.28
7563.00,1.28
7562.00,1.28
7561.00,1.28
7560.00,1.28
7559.00,1.28
7558.00,1.28
7557.00,1.27
7556.00,1.27
7555.00,1.27
7554.00,1.27
7553.00,1.27
7552.00,1.27
7551.00,1.27
7550.00,1.27
7549.00,1.27
7548.00,1.27
7547.00,1.27
7546.00,1.27
7545.00,1.27
7544.00,1.27
7543.00,1.27
7542.00,1.27
7541.00,1.27
7540.00,1.27
7539.00,1.28
7538.00,1.28
7537.00,1.28
7536.00,1.28
7535.00,1.28
7534.00,1.28
7533.00,1.28
7532.00,1.28
7531.00,1.28
7530.00,1.28
7529.00,1.28
7528.00,1.28
7527.00,1.28
7526.00,1.28
7525.00,1.28
7524.00,1.28
7523.00,1.28
7522.00,1.28
7521.00,1.27
7520.00,1.27
7519.00,1.27
7518.00,1.27
7517.00,1.27
7516.00,1.27
7515.00,1.27
7514.00,1.27
7513.00,1.27
7512.00,1.27
7511.00,1.27
7510.00,1.27
7509.00,1.26
7508.00,1.26
7507.00,1.26
7506.00,1.26
7505.00,1.26
7504.00,1.26
7503.00,1.26
7502.00,1.26
7501.00,1.26
7500.00,1.26
7499.00,1.27
7498.00,1.27
7497.00,1.27
7496.00,1.27
7495.00,1.27
7494.00,1.27
7493.00,1.27
7492.00,1.27
7491.00,1.27
7490.00,1.27
7489.00,1.27
7488.00,1.27
7487.00,1.27
7486.00,1.27
7485.00,1.27
7484.00,1.26
7483.00,1.26
7482.00,1.26
7481.00,1.26
7480.00,1.26
7479.00,1.26
7478.00,1.26
7477.00,1.26
7476.00,1.26
7475.00,1.26
7474.00,1.26
7473.00,1.26
7472.00,1.26
7471.00,1.25
7470.00,1.25
7469.00,1.25
7468.00,1.25
7467.00,1.25
7466.00,1.25
7465.00,1.25
7464.00,1.25
7463.00,1.25
7462.00,1.25
7461.00,1.25
7460.00,1.25
7459.00,1.25
7458.00,1.25
7457.00,1.25
7456.00,1.25
7455.00,1.25
7454.00,1.25
7453.00,1.25
7452.00,1.25
7451.00,1.25
7450.00,1.25
7449.00,1.25
7448.00,1.24
7447.00,1.24
7446.00,1.24
7445.00,1.24
7444.00,1.24
7443.00,1.24
7442.00,1.24
7441.00,1.23
7440.00,1.23
7439.00,1.23
7438.00,1.23
7437.00,1.23
7436.00,1.23
7435.00,1.23
7434.00,1.23
7433.00,1.23
7432.00,1.23
7431.00,1.23
7430.00,1.23
7429.00,1.23
7428.00,1.23
7427.00,1.23
7426.00,1.23
7425.00,1.23
7424.00,1.23
7423.00,1.23
7422.00,1.23
7421.00,1.23
7420.00,1.23
7419.00,1.23
7418.00,1.23
7417.00,1.23
7416.00,1.23
7415.00,1.23
7414.00,1.23
7413.00,1.23
7412.00,1.23
7411.00,1.23
7410.00,1.23
7409.00,1.23
7408.00,1.22
7407.00,1.22
7406.00,1.22
7405.00,1.22
7404.00,1.22
7403.00,1.22
7402.00,1.22
7401.00,1.22
7400.00,1.22
7399.00,1.22
7398.00,1.22
7397.00,1.22
7396.00,1.22
7395.00,1.22
7394.00,1.22
7393.00,1.22
7392.00,1.22
7391.00,1.22
7390.00,1.21
7389.00,1.21
7388.00,1.21
7387.00,1.21
7386.00,1.21
7385.00,1.21
7384.00,1.21
7383.00,1.20
7382.00,1.20
7381.00,1.20
7380.00,1.20
7379.00,1.20
7378.00,1.19
7377.00,1.19
7376.00,1.19
7375.00,1.19
7374.00,1.19
7373.00,1.19
7372.00,1.19
7371.00,1.19
7370.00,1.19
7369.00,1.19
7368.00,1.19
7367.00,1.19
7366.00,1.19
7365.00,1.19
7364.00,1.19
7363.00,1.19
7362.00,1.19
7361.00,1.19
7360.00,1.19
7359.00,1.20
7358.00,1.20
7357.00,1.20
7356.00,1.20
7355.00,1.20
7354.00,1.20
7353.00,1.21
7352.00,1.21
7351.00,1.21
7350.00,1.21
7349.00,1.21
7348.00,1.21
7347.00,1.21
7346.00,1.21
7345.00,1.21
7344.00,1.21
7343.00,1.21
7342.00,1.20
7341.00,1.20
7340.00,1.20
7339.00,1.20
7338.00,1.20
7337.00,1.19
7336.00,1.19
7335.00,1.19
7334.00,1.19
7333.00,1.19
7332.00,1.19
7331.00,1.18
7330.00,1.18
7329.00,1.18
7328.00,1.18
7327.00,1.18
7326.00,1.18
7325.00,1.18
7324.00,1.18
7323.00,1.18
7322.00,1.18
7321.00,1.18
7320.00,1.18
7319.00,1.18
7318.00,1.18
7317.00,1.18
7316.00,1.18
7315.00,1.18
7314.00,1.18
7313.00,1.18
7312.00,1.18
7311.00,1.18
7310.00,1.18
7309.00,1.18
7308.00,1.18
7307.00,1.17
7306.00,1.17
7305.00,1.17
7304.00,1.17
7303.00,1.17
7302.00,1.17
7301.00,1.17
7300.00,1.17
7299.00,1.17
7298.00,1.17
7297.00,1.16
7296.00,1.16
7295.00,1.16
7294.00,1.16
7293.00,1.16
7292.00,1.16
7291.00,1.16
7290.00,1.16
7289.00,1.16
7288.00,1.16
7287.00,1.15
7286.00,1.15
7285.00,1.15
7284.00,1.15
7283.00,1.15
7282.00,1.15
7281.00,1.15
7280.00,1.15
7279.00,1.15
7278.00,1.15
7277.00,1.15
7276.00,1.14
7275.00,1.14
7274.00,1.14
7273.00,1.14
7272.00,1.14
7271.00,1.14
7270.00,1.14
7269.00,1.14
7268.00,1.14
7267.00,1.14
7266.00,1.14
7265.00,1.14
7264.00,1.14
7263.00,1.14
7262.00,1.14
7261.00,1.14
7260.00,1.14
7259.00,1.14
7258.00,1.13
7257.00,1.13
7256.00,1.13
7255.00,1.13
7254.00,1.13
7253.00,1.13
7252.00,1.12
7251.00,1.12
7250.00,1.12
7249.00,1.12
7248.00,1.11
7247.00,1.11
7246.00,1.11
7245.00,1.11
7244.00,1.10
7243.00,1.10
7242.00,1.10
7241.00,1.10
7240.00,1.09
7239.00,1.09
7238.00,1.09
7237.00,1.09
7236.00,1.08
7235.00,1.08
7234.00,1.08
7233.00,1.08
7232.00,1.08
7231.00,1.07
7230.00,1.07
7229.00,1.07
7228.00,1.07
7227.00,1.07
7226.00,1.07
7225.00,1.07
7224.00,1.06
7223.00,1.06
7222.00,1.06
7221.00,1.06
7220.00,1.06
7219.00,1.05
7218.00,1.05
7217.00,1.05
7216.00,1.04
7215.00,1.04
7214.00,1.04
7213.00,1.04
7212.00,1.03
7211.00,1.03
7210.00,1.03
7209.00,1.02
7208.00,1.02
7207.00,1.02
7206.00,1.01
7205.00,1.01
7204.00,1.01
7203.00,1.01
7202.00,1.00
7201.00,1.00
7200.00,1.00
7199.00,1.00
7198.00,0.99
7197.00,0.99
7196.00,0.99
7195.00,0.99
7194.00,0.99
7193.00,0.98
7192.00,0.98
7191.00,0.98
7190.00,0.98
7189.00,0.97
7188.00,0.97
7187.00,0.97
7186.00,0.97
7185.00,0.96
7184.00,0.96
7183.00,0.96
7182.00,0.95
7181.00,0.95
7180.00,0.95
7179.00,0.95
7178.00,0.94
7177.00,0.94
7176.00,0.94
7175.00,0.93
7174.00,0.93
7173.00,0.93
7172.00,0.93
7171.00,0.93
7170.00,0.92
7169.00,0.92
7168.00,0.92
7167.00,0.92
7166.00,0.92
7165.00,0.91
7164.00,0.91
7163.00,0.91
7162.00,0.91
7161.00,0.91
7160.00,0.91
7159.00,0.90
7158.00,0.90
7157.00,0.90
7156.00,0.90
7155.00,0.90
7154.00,0.89
7153.00,0.89
7152.00,0.89
7151.00,0.88
7150.00,0.88
7149.00,0.88
7148.00,0.88
7147.00,0.87
7146.00,0.87
7145.00,0.87
7144.00,0.86
7143.00,0.86
7142.00,0.86
7141.00,0.86
7140.00,0.85
7139.00,0.85
7138.00,0.85
7137.00,0.85
7136.00,0.85
7135.00,0.85
7134.00,0.84
7133.00,0.84
7132.00,0.84
7131.00,0.84
7130.00,0.84
7129.00,0.84
7128.00,0.83
7127.00,0.83
7126.00,0.83
7125.00,0.83
7124.00,0.83
7123.00,0.82
7122.00,0.82
7121.00,0.82
7120.00,0.82
7119.00,0.81
7118.00,0.81
7117.00,0.81
7116.00,0.81
7115.00,0.80
7114.00,0.80
7113.00,0.80
7112.00,0.80
7111.00,0.79
7110.00,0.79
7109.00,0.79
7108.00,0.79
7107.00,0.79
7106.00,0.78
7105.00,0.78
7104.00,0.78
7103.00,0.78
7102.00,0.78
7101.00,0.77
7100.00,0.77
7099.00,0.77
7098.00,0.77
7097.00,0.77
7096.00,0.77
7095.00,0.76
7094.00,0.76
7093.00,0.76
7092.00,0.76
7091.00,0.75
7090.00,0.75
7089.00,0.75
7088.00,0.75
7087.00,0.75
7086.00,0.74
7085.00,0.74
7084.00,0.74
7083.00,0.74
7082.00,0.74
7081.00,0.73
7080.00,0.73
7079.00,0.73
7078.00,0.73
7077.00,0.73
7076.00,0.73
7075.00,0.72
7074.00,0.72
7073.00,0.72
7072.00,0.72
7071.00,0.72
7070.00,0.71
7069.00,0.71
7068.00,0.71
7067.00,0.71
7066.00,0.71
7065.00,0.71
7064.00,0.70
7063.00,0.70
7062.00,0.70
7061.00,0.70
7060.00,0.70
7059.00,0.70
7058.00,0.70
7057.00,0.70
7056.00,0.70
7055.00,0.70
7054.00,0.70
7053.00,0.70
7052.00,0.70
7051.00,0.69
7050.00,0.69
7049.00,0.69
7048.00,0.69
7047.00,0.69
7046.00,0.69
7045.00,0.69
7044.00,0.69
7043.00,0.68
7042.00,0.68
7041.00,0.68
7040.00,0.68
7039.00,0.68
7038.00,0.67
7037.00,0.67
7036.00,0.67
7035.00,0.67
7034.00,0.67
7033.00,0.67
7032.00,0.66
7031.00,0.66
7030.00,0.66
7029.00,0.66
7028.00,0.66
7027.00,0.66
7026.00,0.65
7025.00,0.65
7024.00,0.65
7023.00,0.65
7022.00,0.65
7021.00,0.65
7020.00,0.65
7019.00,0.65
7018.00,0.65
7017.00,0.65
7016.00,0.65
7015.00,0.65
7014.00,0.65
7013.00,0.65
7012.00,0.65
7011.00,0.65
7010.00,0.65
7009.00,0.65
7008.00,0.65
7007.00,0.65
7006.00,0.65
7005.00,0.65
7004.00,0.64
7003.00,0.64
7002.00,0.64
7001.00,0.64
7000.00,0.64
6999.00,0.64
6998.00,0.64
6997.00,0.63
6996.00,0.63
6995.00,0.63
6994.00,0.63
6993.00,0.63
6992.00,0.63
6991.00,0.63
6990.00,0.63
6989.00,0.63
6988.00,0.63
6987.00,0.62
6986.00,0.62
6985.00,0.62
6984.00,0.62
6983.00,0.62
6982.00,0.62
6981.00,0.62
6980.00,0.62
6979.00,0.62
6978.00,0.61
6977.00,0.61
6976.00,0.61
6975.00,0.61
6974.00,0.61
6973.00,0.61
6972.00,0.61
6971.00,0.61
6970.00,0.61
6969.00,0.61
6968.00,0.61
6967.00,0.61
6966.00,0.61
6965.00,0.61
6964.00,0.61
6963.00,0.61
6962.00,0.61
6961.00,0.61
6960.00,0.61
6959.00,0.61
6958.00,0.61
6957.00,0.61
6956.00,0.61
6955.00,0.61
6954.00,0.61
6953.00,0.61
6952.00,0.61
6951.00,0.61
6950.00,0.61
6949.00,0.61
6948.00,0.61
6947.00,0.61
6946.00,0.61
6945.00,0.61
6944.00,0.61
6943.00,0.61
6942.00,0.61
6941.00,0.61
6940.00,0.61
6939.00,0.61
6938.00,0.60
6937.00,0.60
6936.00,0.60
6935.00,0.60
6934.00,0.60
6933.00,0.60
6932.00,0.60
6931.00,0.60
6930.00,0.61
6929.00,0.61
6928.00,0.61
6927.00,0.61
6926.00,0.61
6925.00,0.61
6924.00,0.61
6923.00,0.61
6922.00,0.61
6921.00,0.61
6920.00,0.61
6919.00,0.61
6918.00,0.61
6917.00,0.61
6916.00,0.61
6915.00,0.61
6914.00,0.61
6913.00,0.61
6912.00,0.60
6911.00,0.60
6910.00,0.60
6909.00,0.60
6908.00,0.60
6907.00,0.60
6906.00,0.60
6905.00,0.60
6904.00,0.60
6903.00,0.60
6902.00,0.60
6901.00,0.59
6900.00,0.59
6899.00,0.59
6898.00,0.59
6897.00,0.59
6896.00,0.59
6895.00,0.59
6894.00,0.59
6893.00,0.59
6892.00,0.59
6891.00,0.59
6890.00,0.59
6889.00,0.59
6888.00,0.59
6887.00,0.59
6886.00,0.59
6885.00,0.59
6884.00,0.59
6883.00,0.59
6882.00,0.59
6881.00,0.59
6880.00,0.59
6879.00,0.59
6878.00,0.58
6877.00,0.58
6876.00,0.58
6875.00,0.58
6874.00,0.58
6873.00,0.58
6872.00,0.58
6871.00,0.58
6870.00,0.58
6869.00,0.58
6868.00,0.58
6867.00,0.58
6866.00,0.58
6865.00,0.58
6864.00,0.58
6863.00,0.58
6862.00,0.58
6861.00,0.58
6860.00,0.58
6859.00,0.58
6858.00,0.58
6857.00,0.58
6856.00,0.58
6855.00,0.58
6854.00,0.58
6853.00,0.58
6852.00,0.58
6851.00,0.58
6850.00,0.58
6849.00,0.58
6848.00,0.58
6847.00,0.58
6846.00,0.58
6845.00,0.58
6844.00,0.58
6843.00,0.58
6842.00,0.58
6841.00,0.58
6840.00,0.59
6839.00,0.59
6838.00,0.59
6837.00,0.59
6836.00,0.59
6835.00,0.59
6834.00,0.59
6833.00,0.59
6832.00,0.59
6831.00,0.59
6830.00,0.59
6829.00,0.59
6828.00,0.59
6827.00,0.59
6826.00,0.59
6825.00,0.59
6824.00,0.59
6823.00,0.60
6822.00,0.60
6821.00,0.60
6820.00,0.60
6819.00,0.60
6818.00,0.60
6817.00,0.60
6816.00,0.60
6815.00,0.60
6814.00,0.60
6813.00,0.60
6812.00,0.60
6811.00,0.60
6810.00,0.60
6809.00,0.60
6808.00,0.60
6807.00,0.60
6806.00,0.60
6805.00,0.60
6804.00,0.60
6803.00,0.60
6802.00,0.60
6801.00,0.60
6800.00,0.60
6799.00,0.60
6798.00,0.60
6797.00,0.60
6796.00,0.60
6795.00,0.60
6794.00,0.60
6793.00,0.60
6792.00,0.60
6791.00,0.60
6790.00,0.60
6789.00,0.60
6788.00,0.60
6787.00,0.60
6786.00,0.60
6785.00,0.60
6784.00,0.60
6783.00,0.60
6782.00,0.60
6781.00,0.60
6780.00,0.60
6779.00,0.61
6778.00,0.61
6777.00,0.61
6776.00,0.61
6775.00,0.61
6774.00,0.61
6773.00,0.61
6772.00,0.61
6771.00,0.61
6770.00,0.61
6769.00,0.61
6768.00,0.61
6767.00,0.61
6766.00,0.61
6765.00,0.61
6764.00,0.61
6763.00,0.62
6762.00,0.62
6761.00,0.62
6760.00,0.62
6759.00,0.62
6758.00,0.62
6757.00,0.62
6756.00,0.62
6755.00,0.62
6754.00,0.62
6753.00,0.63
6752.00,0.63
6751.00,0.63
6750.00,0.63
6749.00,0.63
6748.00,0.63
6747.00,0.63
6746.00,0.63
6745.00,0.63
6744.00,0.63
6743.00,0.63
6742.00,0.63
6741.00,0.63
6740.00,0.63
6739.00,0.63
6738.00,0.63
6737.00,0.63
6736.00,0.63
6735.00,0.63
6734.00,0.63
6733.00,0.64
6732.00,0.64
6731.00,0.64
6730.00,0.64
6729.00,0.64
6728.00,0.64
6727.00,0.64
6726.00,0.64
6725.00,0.65
6724.00,0.65
6723.00,0.65
6722.00,0.65
6721.00,0.65
6720.00,0.65
6719.00,0.65
6718.00,0.65
6717.00,0.65
6716.00,0.65
6715.00,0.65
6714.00,0.65
6713.00,0.65
6712.00,0.66
6711.00,0.66
6710.00,0.66
6709.00,0.66
6708.00,0.66
6707.00,0.66
6706.00,0.66
6705.00,0.66
6704.00,0.66
6703.00,0.66
6702.00,0.66
6701.00,0.66
6700.00,0.66
6699.00,0.66
6698.00,0.66
6697.00,0.67
6696.00,0.67
6695.00,0.67
6694.00,0.67
6693.00,0.67
6692.00,0.67
6691.00,0.67
6690.00,0.67
6689.00,0.67
6688.00,0.67
6687.00,0.67
6686.00,0.68
6685.00,0.68
6684.00,0.68
6683.00,0.68
6682.00,0.68
6681.00,0.68
6680.00,0.68
6679.00,0.68
6678.00,0.68
6677.00,0.68
6676.00,0.68
6675.00,0.68
6674.00,0.68
6673.00,0.68
6672.00,0.68
6671.00,0.68
6670.00,0.68
6669.00,0.68
6668.00,0.68
6667.00,0.68
6666.00,0.68
6665.00,0.69
6664.00,0.69
6663.00,0.69
6662.00,0.69
6661.00,0.69
6660.00,0.69
6659.00,0.69
6658.00,0.69
6657.00,0.69
6656.00,0.70
6655.00,0.70
6654.00,0.70
6653.00,0.70
6652.00,0.70
6651.00,0.70
6650.00,0.70
6649.00,0.70
6648.00,0.70
6647.00,0.70
6646.00,0.70
6645.00,0.70
6644.00,0.71
6643.00,0.71
6642.00,0.71
6641.00,0.71
6640.00,0.71
6639.00,0.71
6638.00,0.71
6637.00,0.71
6636.00,0.71
6635.00,0.71
6634.00,0.71
6633.00,0.72
6632.00,0.72
6631.00,0.72
6630.00,0.72
6629.00,0.72
6628.00,0.72
6627.00,0.72
6626.00,0.72
6625.00,0.72
6624.00,0.73
6623.00,0.73
6622.00,0.73
6621.00,0.73
6620.00,0.73
6619.00,0.73
6618.00,0.73
6617.00,0.73
6616.00,0.73
6615.00,0.73
6614.00,0.74
6613.00,0.74
6612.00,0.74
6611.00,0.74
6610.00,0.74
6609.00,0.74
6608.00,0.74
6607.00,0.74
6606.00,0.75
6605.00,0.75
6604.00,0.75
6603.00,0.75
6602.00,0.75
6601.00,0.75
6600.00,0.75
6599.00,0.75
6598.00,0.75
6597.00,0.75
6596.00,0.75
6595.00,0.75
6594.00,0.75
6593.00,0.75
6592.00,0.75
6591.00,0.76
6590.00,0.76
6589.00,0.76
6588.00,0.76
6587.00,0.76
6586.00,0.76
6585.00,0.76
6584.00,0.76
6583.00,0.76
6582.00,0.76
6581.00,0.76
6580.00,0.76
6579.00,0.76
6578.00,0.76
6577.00,0.76
6576.00,0.76
6575.00,0.76
6574.00,0.77
6573.00,0.77
6572.00,0.77
6571.00,0.77
6570.00,0.77
6569.00,0.77
6568.00,0.77
6567.00,0.77
6566.00,0.77
6565.00,0.77
6564.00,0.77
6563.00,0.78
6562.00,0.78
6561.00,0.78
6560.00,0.78
6559.00,0.78
6558.00,0.78
6557.00,0.78
6556.00,0.78
6555.00,0.78
6554.00,0.78
6553.00,0.78
6552.00,0.78
6551.00,0.78
6550.00,0.79
6549.00,0.79
6548.00,0.79
6547.00,0.79
6546.00,0.79
6545.00,0.79
6544.00,0.79
6543.00,0.79
6542.00,0.80
6541.00,0.80
6540.00,0.80
6539.00,0.80
6538.00,0.80
6537.00,0.80
6536.00,0.81
6535.00,0.81
6534.00,0.81
6533.00,0.81
6532.00,0.81
6531.00,0.81
6530.00,0.81
6529.00,0.81
6528.00,0.81
6527.00,0.81
6526.00,0.81
6525.00,0.81
6524.00,0.81
6523.00,0.81
6522.00,0.81
6521.00,0.81
6520.00,0.81
6519.00,0.81
6518.00,0.81
6517.00,0.81
6516.00,0.81
6515.00,0.81
6514.00,0.81
6513.00,0.81
6512.00,0.81
6511.00,0.81
6510.00,0.81
6509.00,0.81
6508.00,0.82
6507.00,0.82
6506.00,0.82
6505.00,0.82
6504.00,0.82
6503.00,0.82
6502.00,0.82
6501.00,0.82
6500.00,0.82
6499.00,0.82
6498.00,0.82
6497.00,0.82
6496.00,0.82
6495.00,0.82
6494.00,0.82
6493.00,0.82
6492.00,0.82
6491.00,0.82
6490.00,0.82
6489.00,0.82
6488.00,0.82
6487.00,0.82
6486.00,0.83
6485.00,0.83
6484.00,0.83
6483.00,0.83
6482.00,0.83
6481.00,0.83
6480.00,0.83
6479.00,0.83
6478.00,0.83
6477.00,0.83
6476.00,0.83
6475.00,0.83
6474.00,0.83
6473.00,0.83
6472.00,0.83
6471.00,0.83
6470.00,0.83
6469.00,0.83
6468.00,0.83
6467.00,0.83
6466.00,0.83
6465.00,0.83
6464.00,0.83
6463.00,0.83
6462.00,0.83
6461.00,0.84
6460.00,0.84
6459.00,0.84
6458.00,0.84
6457.00,0.84
6456.00,0.84
6455.00,0.84
6454.00,0.84
6453.00,0.84
6452.00,0.85
6451.00,0.85
6450.00,0.85
6449.00,0.85
6448.00,0.85
6447.00,0.85
6446.00,0.85
6445.00,0.86
6444.00,0.86
6443.00,0.86
6442.00,0.86
6441.00,0.86
6440.00,0.86
6439.00,0.86
6438.00,0.86
6437.00,0.86
6436.00,0.86
6435.00,0.86
6434.00,0.86
6433.00,0.86
6432.00,0.86
6431.00,0.86
6430.00,0.86
6429.00,0.86
6428.00,0.86
6427.00,0.86
6426.00,0.85
6425.00,0.85
6424.00,0.85
6423.00,0.85
6422.00,0.85
6421.00,0.85
6420.00,0.85
6419.00,0.85
6418.00,0.85
6417.00,0.85
6416.00,0.85
6415.00,0.85
6414.00,0.85
6413.00,0.86
6412.00,0.86
6411.00,0.86
6410.00,0.86
6409.00,0.86
6408.00,0.86
6407.00,0.86
6406.00,0.86
6405.00,0.86
6404.00,0.86
6403.00,0.86
6402.00,0.86
6401.00,0.86
6400.00,0.86
6399.00,0.86
6398.00,0.86
6397.00,0.86
6396.00,0.86
6395.00,0.86
6394.00,0.86
6393.00,0.86
6392.00,0.86
6391.00,0.86
6390.00,0.86
6389.00,0.87
6388.00,0.87
6387.00,0.87
6386.00,0.87
6385.00,0.87
6384.00,0.87
6383.00,0.87
6382.00,0.87
6381.00,0.87
6380.00,0.87
6379.00,0.88
6378.00,0.88
6377.00,0.88
6376.00,0.88
6375.00,0.88
6374.00,0.88
6373.00,0.88
6372.00,0.88
6371.00,0.88
6370.00,0.89
6369.00,0.89
6368.00,0.89
6367.00,0.89
6366.00,0.89
6365.00,0.89
6364.00,0.89
6363.00,0.89
6362.00,0.89
6361.00,0.89
6360.00,0.89
6359.00,0.89
6358.00,0.89
6357.00,0.89
6356.00,0.89
6355.00,0.89
6354.00,0.89
6353.00,0.89
6352.00,0.89
6351.00,0.89
6350.00,0.89
6349.00,0.89
6348.00,0.89
6347.00,0.89
6346.00,0.89
6345.00,0.89
6344.00,0.89
6343.00,0.90
6342.00,0.90
6341.00,0.90
6340.00,0.90
6339.00,0.90
6338.00,0.90
6337.00,0.90
6336.00,0.90
6335.00,0.90
6334.00,0.90
6333.00,0.90
6332.00,0.90
6331.00,0.90
6330.00,0.90
6329.00,0.90
6328.00,0.90
6327.00,0.91
6326.00,0.91
6325.00,0.91
6324.00,0.91
6323.00,0.91
6322.00,0.91
6321.00,0.91
6320.00,0.91
6319.00,0.92
6318.00,0.92
6317.00,0.92
6316.00,0.92
6315.00,0.92
6314.00,0.92
6313.00,0.92
6312.00,0.92
6311.00,0.92
6310.00,0.93
6309.00,0.93
6308.00,0.93
6307.00,0.93
6306.00,0.93
6305.00,0.93
6304.00,0.93
6303.00,0.93
6302.00,0.93
6301.00,0.93
6300.00,0.93
6299.00,0.93
6298.00,0.94
6297.00,0.94
6296.00,0.94
6295.00,0.94
6294.00,0.94
6293.00,0.94
6292.00,0.94
6291.00,0.94
6290.00,0.94
6289.00,0.94
6288.00,0.94
6287.00,0.94
6286.00,0.94
6285.00,0.94
6284.00,0.94
6283.00,0.94
6282.00,0.94
6281.00,0.95
6280.00,0.95
6279.00,0.95
6278.00,0.95
6277.00,0.95
6276.00,0.95
6275.00,0.95
6274.00,0.95
6273.00,0.96
6272.00,0.96
6271.00,0.96
6270.00,0.96
6269.00,0.96
6268.00,0.96
6267.00,0.97
6266.00,0.97
6265.00,0.97
6264.00,0.97
6263.00,0.97
6262.00,0.98
6261.00,0.98
6260.00,0.98
6259.00,0.98
6258.00,0.98
6257.00,0.98
6256.00,0.98
6255.00,0.99
6254.00,0.99
6253.00,0.99
6252.00,0.99
6251.00,0.99
6250.00,0.99
6249.00,0.99
6248.00,0.99
6247.00,0.99
6246.00,0.99
6245.00,0.99
6244.00,0.99
6243.00,0.99
6242.00,0.99
6241.00,0.99
6240.00,0.99
6239.00,0.99
6238.00,0.99
6237.00,0.99
6236.00,0.99
6235.00,1.00
6234.00,1.00
6233.00,1.00
6232.00,1.00
6231.00,1.00
6230.00,1.00
6229.00,1.00
6228.00,1.01
6227.00,1.01
6226.00,1.01
6225.00,1.01
6224.00,1.01
6223.00,1.01
6222.00,1.01
6221.00,1.01
6220.00,1.02
6219.00,1.02
6218.00,1.02
6217.00,1.02
6216.00,1.02
6215.00,1.02
6214.00,1.02
6213.00,1.02
6212.00,1.02
6211.00,1.02
6210.00,1.02
6209.00,1.02
6208.00,1.02
6207.00,1.02
6206.00,1.03
6205.00,1.03
6204.00,1.03
6203.00,1.03
6202.00,1.03
6201.00,1.03
6200.00,1.03
6199.00,1.04
6198.00,1.04
6197.00,1.04
6196.00,1.04
6195.00,1.04
6194.00,1.04
6193.00,1.04
6192.00,1.05
6191.00,1.05
6190.00,1.05
6189.00,1.05
6188.00,1.05
6187.00,1.05
6186.00,1.05
6185.00,1.05
6184.00,1.05
6183.00,1.05
6182.00,1.05
6181.00,1.06
6180.00,1.06
6179.00,1.06
6178.00,1.06
6177.00,1.06
6176.00,1.06
6175.00,1.06
6174.00,1.06
6173.00,1.06
6172.00,1.07
6171.00,1.07
6170.00,1.07
6169.00,1.07
6168.00,1.07
6167.00,1.07
6166.00,1.07
6165.00,1.07
6164.00,1.07
6163.00,1.08
6162.00,1.08
6161.00,1.08
6160.00,1.08
6159.00,1.08
6158.00,1.08
6157.00,1.08
6156.00,1.08
6155.00,1.09
6154.00,1.09
6153.00,1.09
6152.00,1.09
6151.00,1.09
6150.00,1.09
6149.00,1.09
6148.00,1.09
6147.00,1.10
6146.00,1.10
6145.00,1.10
6144.00,1.10
6143.00,1.10
6142.00,1.10
6141.00,1.10
6140.00,1.11
6139.00,1.11
6138.00,1.11
6137.00,1.11
6136.00,1.11
6135.00,1.11
6134.00,1.11
6133.00,1.11
6132.00,1.11
6131.00,1.12
6130.00,1.12
6129.00,1.12
6128.00,1.12
6127.00,1.12
6126.00,1.12
6125.00,1.12
6124.00,1.13
6123.00,1.13
6122.00,1.13
6121.00,1.13
6120.00,1.13
6119.00,1.13
6118.00,1.13
6117.00,1.13
6116.00,1.13
6115.00,1.13
6114.00,1.14
6113.00,1.14
6112.00,1.14
6111.00,1.14
6110.00,1.14
6109.00,1.14
6108.00,1.14
6107.00,1.14
6106.00,1.14
6105.00,1.14
6104.00,1.15
6103.00,1.15
6102.00,1.15
6101.00,1.15
6100.00,1.15
6099.00,1.15
6098.00,1.15
6097.00,1.16
6096.00,1.16
6095.00,1.16
6094.00,1.16
6093.00,1.16
6092.00,1.16
6091.00,1.16
6090.00,1.16
6089.00,1.16
6088.00,1.16
6087.00,1.16
6086.00,1.17
6085.00,1.17
6084.00,1.17
6083.00,1.17
6082.00,1.17
6081.00,1.17
6080.00,1.17
6079.00,1.17
6078.00,1.18
6077.00,1.18
6076.00,1.18
6075.00,1.18
6074.00,1.18
6073.00,1.18
6072.00,1.18
6071.00,1.18
6070.00,1.18
6069.00,1.18
6068.00,1.19
6067.00,1.19
6066.00,1.19
6065.00,1.19
6064.00,1.19
6063.00,1.19
6062.00,1.19
6061.00,1.19
6060.00,1.19
6059.00,1.19
6058.00,1.19
6057.00,1.19
6056.00,1.19
6055.00,1.19
6054.00,1.19
6053.00,1.19
6052.00,1.19
6051.00,1.19
6050.00,1.19
6049.00,1.20
6048.00,1.20
6047.00,1.20
6046.00,1.20
6045.00,1.20
6044.00,1.20
6043.00,1.20
6042.00,1.20
6041.00,1.20
6040.00,1.20
6039.00,1.20
6038.00,1.20
6037.00,1.20
6036.00,1.20
6035.00,1.20
6034.00,1.21
6033.00,1.21
6032.00,1.21
6031.00,1.21
6030.00,1.21
6029.00,1.21
6028.00,1.21
6027.00,1.21
6026.00,1.21
6025.00,1.21
6024.00,1.21
6023.00,1.21
6022.00,1.21
6021.00,1.21
6020.00,1.21
6019.00,1.21
6018.00,1.21
6017.00,1.21
6016.00,1.21
6015.00,1.21
6014.00,1.21
6013.00,1.21
6012.00,1.21
6011.00,1.21
6010.00,1.21
6009.00,1.21
6008.00,1.21
6007.00,1.21
6006.00,1.21
6005.00,1.21
6004.00,1.21
6003.00,1.21
6002.00,1.21
6001.00,1.21
6000.00,1.21
5999.00,1.21
5998.00,1.21
5997.00,1.21
5996.00,1.20
5995.00,1.20
5994.00,1.20
5993.00,1.20
5992.00,1.20
5991.00,1.20
5990.00,1.20
5989.00,1.20
5988.00,1.20
5987.00,1.19
5986.00,1.19
5985.00,1.19
5984.00,1.19
5983.00,1.18
5982.00,1.18
5981.00,1.18
5980.00,1.18
5979.00,1.17
5978.00,1.17
5977.00,1.17
5976.00,1.16
5975.00,1.16
5974.00,1.15
5973.00,1.15
5972.00,1.14
5971.00,1.14
5970.00,1.13
5969.00,1.13
5968.00,1.12
5967.00,1.12
5966.00,1.11
5965.00,1.11
5964.00,1.10
5963.00,1.09
5962.00,1.09
5961.00,1.08
5960.00,1.07
5959.00,1.07
5958.00,1.06
5957.00,1.05
5956.00,1.05
5955.00,1.04
5954.00,1.03
5953.00,1.03
5952.00,1.02
5951.00,1.02
5950.00,1.01
5949.00,1.01
5948.00,1.00
5947.00,1.00
5946.00,1.00
5945.00,0.99
5944.00,0.99
5943.00,0.99
5942.00,0.99
5941.00,0.98
5940.00,0.98
5939.00,0.98
5938.00,0.98
5937.00,0.98
5936.00,0.98
5935.00,0.98
5934.00,0.98
5933.00,0.97
5932.00,0.97
5931.00,0.97
5930.00,0.97
5929.00,0.97
5928.00,0.97
5927.00,0.97
5926.00,0.97
5925.00,0.97
5924.00,0.96
5923.00,0.96
5922.00,0.96
5921.00,0.96
5920.00,0.96
5919.00,0.96
5918.00,0.95
5917.00,0.95
5916.00,0.95
5915.00,0.95
5914.00,0.95
5913.00,0.94
5912.00,0.94
5911.00,0.94
5910.00,0.94
5909.00,0.94
5908.00,0.93
5907.00,0.93
5906.00,0.93
5905.00,0.93
5904.00,0.93
5903.00,0.93
5902.00,0.93
5901.00,0.92
5900.00,0.92
5899.00,0.92
5898.00,0.92
5897.00,0.93
5896.00,0.93
5895.00,0.93
5894.00,0.93
5893.00,0.93
5892.00,0.93
5891.00,0.94
5890.00,0.94
5889.00,0.94
5888.00,0.94
5887.00,0.95
5886.00,0.95
5885.00,0.95
5884.00,0.95
5883.00,0.96
5882.00,0.96
5881.00,0.96
5880.00,0.96
5879.00,0.97
5878.00,0.97
5877.00,0.97
5876.00,0.97
5875.00,0.97
5874.00,0.98
5873.00,0.98
5872.00,0.98
5871.00,0.98
5870.00,0.98
5869.00,0.99
5868.00,0.99
5867.00,0.99
5866.00,0.99
5865.00,0.99
5864.00,0.99
5863.00,0.99
5862.00,1.00
5861.00,1.00
5860.00,1.00
5859.00,1.00
5858.00,1.00
5857.00,1.00
5856.00,1.00
5855.00,1.00
5854.00,1.00
5853.00,1.01
5852.00,1.01
5851.00,1.01
5850.00,1.01
5849.00,1.01
5848.00,1.01
5847.00,1.01
5846.00,1.01
5845.00,1.01
5844.00,1.01
5843.00,1.02
5842.00,1.02
5841.00,1.02
5840.00,1.02
5839.00,1.02
5838.00,1.02
5837.00,1.02
5836.00,1.02
5835.00,1.02
5834.00,1.02
5833.00,1.02
5832.00,1.02
5831.00,1.02
5830.00,1.02
5829.00,1.02
5828.00,1.02
5827.00,1.02
5826.00,1.02
5825.00,1.02
5824.00,1.02
5823.00,1.02
5822.00,1.02
5821.00,1.02
5820.00,1.02
5819.00,1.02
5818.00,1.02
5817.00,1.02
5816.00,1.02
5815.00,1.03
5814.00,1.03
5813.00,1.03
5812.00,1.03
5811.00,1.03
5810.00,1.03
5809.00,1.03
5808.00,1.03
5807.00,1.03
5806.00,1.03
5805.00,1.03
5804.00,1.02
5803.00,1.02
5802.00,1.02
5801.00,1.02
5800.00,1.02
5799.00,1.02
5798.00,1.02
5797.00,1.01
5796.00,1.01
5795.00,1.01
5794.00,1.01
5793.00,1.01
5792.00,1.00
5791.00,1.00
5790.00,1.00
5789.00,1.00
5788.00,0.99
5787.00,0.99
5786.00,0.99
5785.00,0.99
5784.00,0.98
5783.00,0.98
5782.00,0.98
5781.00,0.98
5780.00,0.98
5779.00,0.98
5778.00,0.97
5777.00,0.97
5776.00,0.97
5775.00,0.97
5774.00,0.97
5773.00,0.97
5772.00,0.97
5771.00,0.97
5770.00,0.97
5769.00,0.97
5768.00,0.97
5767.00,0.97
5766.00,0.97
5765.00,0.98
5764.00,0.98
5763.00,0.98
5762.00,0.98
5761.00,0.98
5760.00,0.99
5759.00,0.99
5758.00,0.99
5757.00,0.99
5756.00,1.00
5755.00,1.00
5754.00,1.00
5753.00,1.01
5752.00,1.01
5751.00,1.01
5750.00,1.02
5749.00,1.02
5748.00,1.02
5747.00,1.03
5746.00,1.03
5745.00,1.03
5744.00,1.04
5743.00,1.04
5742.00,1.04
5741.00,1.05
5740.00,1.05
5739.00,1.05
5738.00,1.05
5737.00,1.06
5736.00,1.06
5735.00,1.06
5734.00,1.06
5733.00,1.06
5732.00,1.06
5731.00,1.07
5730.00,1.07
5729.00,1.07
5728.00,1.07
5727.00,1.07
5726.00,1.07
5725.00,1.07
5724.00,1.07
5723.00,1.08
5722.00,1.08
5721.00,1.08
5720.00,1.08
5719.00,1.08
5718.00,1.08
5717.00,1.08
5716.00,1.08
5715.00,1.08
5714.00,1.08
5713.00,1.08
5712.00,1.08
5711.00,1.08
5710.00,1.08
5709.00,1.08
5708.00,1.08
5707.00,1.08
5706.00,1.08
5705.00,1.08
5704.00,1.07
5703.00,1.07
5702.00,1.07
5701.00,1.07
5700.00,1.07
5699.00,1.07
5698.00,1.07
5697.00,1.07
5696.00,1.06
5695.00,1.06
5694.00,1.06
5693.00,1.06
5692.00,1.06
5691.00,1.06
5690.00,1.06
5689.00,1.06
5688.00,1.05
5687.00,1.05
5686.00,1.05
5685.00,1.05
5684.00,1.05
5683.00,1.05
5682.00,1.05
5681.00,1.05
5680.00,1.05
5679.00,1.05
5678.00,1.05
5677.00,1.05
5676.00,1.05
5675.00,1.05
5674.00,1.04
5673.00,1.04
5672.00,1.04
5671.00,1.04
5670.00,1.04
5669.00,1.04
5668.00,1.04
5667.00,1.04
5666.00,1.05
5665.00,1.05
5664.00,1.05
5663.00,1.05
5662.00,1.05
5661.00,1.05
5660.00,1.05
5659.00,1.05
5658.00,1.06
5657.00,1.06
5656.00,1.06
5655.00,1.06
5654.00,1.07
5653.00,1.07
5652.00,1.07
5651.00,1.07
5650.00,1.08
5649.00,1.08
5648.00,1.08
5647.00,1.08
5646.00,1.08
5645.00,1.08
5644.00,1.09
5643.00,1.09
5642.00,1.09
5641.00,1.09
5640.00,1.09
5639.00,1.09
5638.00,1.09
5637.00,1.09
5636.00,1.10
5635.00,1.10
5634.00,1.10
5633.00,1.10
5632.00,1.10
5631.00,1.10
5630.00,1.10
5629.00,1.10
5628.00,1.10
5627.00,1.10
5626.00,1.11
5625.00,1.11
5624.00,1.11
5623.00,1.11
5622.00,1.11
5621.00,1.11
5620.00,1.11
5619.00,1.11
5618.00,1.12
5617.00,1.12
5616.00,1.12
5615.00,1.12
5614.00,1.12
5613.00,1.12
5612.00,1.12
5611.00,1.13
5610.00,1.13
5609.00,1.13
5608.00,1.13
5607.00,1.13
5606.00,1.14
5605.00,1.14
5604.00,1.14
5603.00,1.14
5602.00,1.14
5601.00,1.15
5600.00,1.15
5599.00,1.15
5598.00,1.15
5597.00,1.15
5596.00,1.15
5595.00,1.15
5594.00,1.16
5593.00,1.16
5592.00,1.16
5591.00,1.16
5590.00,1.16
5589.00,1.16
5588.00,1.16
5587.00,1.16
5586.00,1.16
5585.00,1.17
5584.00,1.17
5583.00,1.17
5582.00,1.17
5581.00,1.17
5580.00,1.17
5579.00,1.17
5578.00,1.17
5577.00,1.18
5576.00,1.18
5575.00,1.18
5574.00,1.18
5573.00,1.18
5572.00,1.18
5571.00,1.18
5570.00,1.18
5569.00,1.19
5568.00,1.19
5567.00,1.19
5566.00,1.19
5565.00,1.19
5564.00,1.19
5563.00,1.19
5562.00,1.19
5561.00,1.20
5560.00,1.20
5559.00,1.20
5558.00,1.20
5557.00,1.20
5556.00,1.20
5555.00,1.20
5554.00,1.21
5553.00,1.21
5552.00,1.21
5551.00,1.21
5550.00,1.21
5549.00,1.21
5548.00,1.21
5547.00,1.21
5546.00,1.22
5545.00,1.22
5544.00,1.22
5543.00,1.22
5542.00,1.22
5541.00,1.22
5540.00,1.22
5539.00,1.22
5538.00,1.22
5537.00,1.22
5536.00,1.23
5535.00,1.23
5534.00,1.23
5533.00,1.23
5532.00,1.23
5531.00,1.23
5530.00,1.23
5529.00,1.23
5528.00,1.23
5527.00,1.23
5526.00,1.23
5525.00,1.23
5524.00,1.23
5523.00,1.23
5522.00,1.23
5521.00,1.23
5520.00,1.23
5519.00,1.23
5518.00,1.24
5517.00,1.24
5516.00,1.24
5515.00,1.24
5514.00,1.24
5513.00,1.24
5512.00,1.24
5511.00,1.24
5510.00,1.24
5509.00,1.24
5508.00,1.24
5507.00,1.24
5506.00,1.24
5505.00,1.24
5504.00,1.24
5503.00,1.24
5502.00,1.24
5501.00,1.24
5500.00,1.24
5499.00,1.25
5498.00,1.25
5497.00,1.25
5496.00,1.25
5495.00,1.25
5494.00,1.25
5493.00,1.25
5492.00,1.25
5491.00,1.25
5490.00,1.25
5489.00,1.25
5488.00,1.26
5487.00,1.26
5486.00,1.26
5485.00,1.26
5484.00,1.26
5483.00,1.26
5482.00,1.26
5481.00,1.26
5480.00,1.26
5479.00,1.26
5478.00,1.27
5477.00,1.27
5476.00,1.27
5475.00,1.27
5474.00,1.27
5473.00,1.27
5472.00,1.27
5471.00,1.27
5470.00,1.27
5469.00,1.27
5468.00,1.28
5467.00,1.28
5466.00,1.28
5465.00,1.28
5464.00,1.28
5463.00,1.28
5462.00,1.28
5461.00,1.28
5460.00,1.28
5459.00,1.28
5458.00,1.28
5457.00,1.28
5456.00,1.29
5455.00,1.29
5454.00,1.29
5453.00,1.29
5452.00,1.29
5451.00,1.29
5450.00,1.29
5449.00,1.29
5448.00,1.29
5447.00,1.29
5446.00,1.29
5445.00,1.29
5444.00,1.29
5443.00,1.29
5442.00,1.29
5441.00,1.29
5440.00,1.30
5439.00,1.30
5438.00,1.30
5437.00,1.30
5436.00,1.30
5435.00,1.30
5434.00,1.30
5433.00,1.30
5432.00,1.30
5431.00,1.30
5430.00,1.30
5429.00,1.30
5428.00,1.30
5427.00,1.30
5426.00,1.30
5425.00,1.30
5424.00,1.30
5423.00,1.30
5422.00,1.30
5421.00,1.30
5420.00,1.30
5419.00,1.30
5418.00,1.30
5417.00,1.30
5416.00,1.30
5415.00,1.30
5414.00,1.30
5413.00,1.30
5412.00,1.30
5411.00,1.30
5410.00,1.30
5409.00,1.30
5408.00,1.30
5407.00,1.30
5406.00,1.30
5405.00,1.30
5404.00,1.30
5403.00,1.30
5402.00,1.30
5401.00,1.30
5400.00,1.30
5399.00,1.30
5398.00,1.30
5397.00,1.30
5396.00,1.30
5395.00,1.30
5394.00,1.29
5393.00,1.29
5392.00,1.29
5391.00,1.29
5390.00,1.29
5389.00,1.29
5388.00,1.29
5387.00,1.29
5386.00,1.28
5385.00,1.28
5384.00,1.28
5383.00,1.28
5382.00,1.28
5381.00,1.27
5380.00,1.27
5379.00,1.27
5378.00,1.26
5377.00,1.26
5376.00,1.26
5375.00,1.26
5374.00,1.25
5373.00,1.25
5372.00,1.25
5371.00,1.25
5370.00,1.24
5369.00,1.24
5368.00,1.24
5367.00,1.23
5366.00,1.23
5365.00,1.23
5364.00,1.22
5363.00,1.22
5362.00,1.21
5361.00,1.21
5360.00,1.20
5359.00,1.20
5358.00,1.19
5357.00,1.19
5356.00,1.18
5355.00,1.18
5354.00,1.17
5353.00,1.16
5352.00,1.16
5351.00,1.15
5350.00,1.14
5349.00,1.14
5348.00,1.13
5347.00,1.12
5346.00,1.11
5345.00,1.10
5344.00,1.09
5343.00,1.08
5342.00,1.07
5341.00,1.06
5340.00,1.06
5339.00,1.05
5338.00,1.04
5337.00,1.03
5336.00,1.02
5335.00,1.01
5334.00,1.00
5333.00,0.99
5332.00,0.98
5331.00,0.97
5330.00,0.96
5329.00,0.95
5328.00,0.94
5327.00,0.93
5326.00,0.92
5325.00,0.91
5324.00,0.90
5323.00,0.89
5322.00,0.88
5321.00,0.87
5320.00,0.86
5319.00,0.85
5318.00,0.84
5317.00,0.83
5316.00,0.82
5315.00,0.81
5314.00,0.80
5313.00,0.79
5312.00,0.79
5311.00,0.78
5310.00,0.77
5309.00,0.76
5308.00,0.75
5307.00,0.74
5306.00,0.73
5305.00,0.73
5304.00,0.72
5303.00,0.71
5302.00,0.71
5301.00,0.70
5300.00,0.69
5299.00,0.69
5298.00,0.68
5297.00,0.68
5296.00,0.67
5295.00,0.67
5294.00,0.66
5293.00,0.66
5292.00,0.66
5291.00,0.65
5290.00,0.65
5289.00,0.65
5288.00,0.64
5287.00,0.64
5286.00,0.64
5285.00,0.63
5284.00,0.63
5283.00,0.63
5282.00,0.63
5281.00,0.62
5280.00,0.62
5279.00,0.62
5278.00,0.62
5277.00,0.62
5276.00,0.61
5275.00,0.61
5274.00,0.61
5273.00,0.61
5272.00,0.61
5271.00,0.61
5270.00,0.61
5269.00,0.60
5268.00,0.60
5267.00,0.60
5266.00,0.60
5265.00,0.60
5264.00,0.60
5263.00,0.60
5262.00,0.60
5261.00,0.60
5260.00,0.60
5259.00,0.59
5258.00,0.59
5257.00,0.59
5256.00,0.59
5255.00,0.59
5254.00,0.59
5253.00,0.59
5252.00,0.59
5251.00,0.59
5250.00,0.59
5249.00,0.59
5248.00,0.59
5247.00,0.59
5246.00,0.59
5245.00,0.59
5244.00,0.59
5243.00,0.59
5242.00,0.59
5241.00,0.59
5240.00,0.59
5239.00,0.59
5238.00,0.59
5237.00,0.59
5236.00,0.59
5235.00,0.59
5234.00,0.59
5233.00,0.59
5232.00,0.59
5231.00,0.59
5230.00,0.59
5229.00,0.59
5228.00,0.59
5227.00,0.59
5226.00,0.59
5225.00,0.59
5224.00,0.59
5223.00,0.59
5222.00,0.59
5221.00,0.59
5220.00,0.59
5219.00,0.59
5218.00,0.59
5217.00,0.59
5216.00,0.59
5215.00,0.59
5214.00,0.59
5213.00,0.59
5212.00,0.59
5211.00,0.59
5210.00,0.59
5209.00,0.59
5208.00,0.59
5207.00,0.59
5206.00,0.59
5205.00,0.59
5204.00,0.59
5203.00,0.59
5202.00,0.59
5201.00,0.59
5200.00,0.59
5199.00,0.58
5198.00,0.58
5197.00,0.58
5196.00,0.58
5195.00,0.59
5194.00,0.59
5193.00,0.59
5192.00,0.59
5191.00,0.59
5190.00,0.59
5189.00,0.59
5188.00,0.59
5187.00,0.59
5186.00,0.59
5185.00,0.59
5184.00,0.59
5183.00,0.59
5182.00,0.59
5181.00,0.59
5180.00,0.60
5179.00,0.60
5178.00,0.60
5177.00,0.60
5176.00,0.60
5175.00,0.60
5174.00,0.60
5173.00,0.60
5172.00,0.60
5171.00,0.60
5170.00,0.60
5169.00,0.61
5168.00,0.61
5167.00,0.61
5166.00,0.61
5165.00,0.61
5164.00,0.61
5163.00,0.61
5162.00,0.61
5161.00,0.61
5160.00,0.61
5159.00,0.61
5158.00,0.61
5157.00,0.62
5156.00,0.62
5155.00,0.62
5154.00,0.62
5153.00,0.62
5152.00,0.62
5151.00,0.62
5150.00,0.62
5149.00,0.62
5148.00,0.62
5147.00,0.62
5146.00,0.62
5145.00,0.62
5144.00,0.62
5143.00,0.62
5142.00,0.62
5141.00,0.62
5140.00,0.62
5139.00,0.62
5138.00,0.62
5137.00,0.62
5136.00,0.62
5135.00,0.62
5134.00,0.62
5133.00,0.62
5132.00,0.63
5131.00,0.63
5130.00,0.63
5129.00,0.63
5128.00,0.63
5127.00,0.63
5126.00,0.63
5125.00,0.63
5124.00,0.63
5123.00,0.63
5122.00,0.63
5121.00,0.63
5120.00,0.63
5119.00,0.63
5118.00,0.63
5117.00,0.63
5116.00,0.63
5115.00,0.63
5114.00,0.63
5113.00,0.63
5112.00,0.63
5111.00,0.63
5110.00,0.63
5109.00,0.63
5108.00,0.64
5107.00,0.64
5106.00,0.64
5105.00,0.64
5104.00,0.64
5103.00,0.64
5102.00,0.64
5101.00,0.64
5100.00,0.64
5099.00,0.64
5098.00,0.64
5097.00,0.64
5096.00,0.64
5095.00,0.64
5094.00,0.64
5093.00,0.64
5092.00,0.64
5091.00,0.64
5090.00,0.64
5089.00,0.64
5088.00,0.64
5087.00,0.64
5086.00,0.64
5085.00,0.64
5084.00,0.64
5083.00,0.65
5082.00,0.65
5081.00,0.65
5080.00,0.65
5079.00,0.65
5078.00,0.65
5077.00,0.65
5076.00,0.65
5075.00,0.65
5074.00,0.65
5073.00,0.65
5072.00,0.65
5071.00,0.66
5070.00,0.66
5069.00,0.66
5068.00,0.66
5067.00,0.66
5066.00,0.66
5065.00,0.66
5064.00,0.66
5063.00,0.66
5062.00,0.66
5061.00,0.66
5060.00,0.66
5059.00,0.66
5058.00,0.67
5057.00,0.67
5056.00,0.67
5055.00,0.67
5054.00,0.67
5053.00,0.67
5052.00,0.67
5051.00,0.67
5050.00,0.67
5049.00,0.67
5048.00,0.67
5047.00,0.67
5046.00,0.67
5045.00,0.67
5044.00,0.68
5043.00,0.68
5042.00,0.68
5041.00,0.68
5040.00,0.68
5039.00,0.68
5038.00,0.68
5037.00,0.68
5036.00,0.68
5035.00,0.68
5034.00,0.68
5033.00,0.68
5032.00,0.69
5031.00,0.69
5030.00,0.69
5029.00,0.69
5028.00,0.69
5027.00,0.69
5026.00,0.69
5025.00,0.69
5024.00,0.69
5023.00,0.69
5022.00,0.69
5021.00,0.70
5020.00,0.70
5019.00,0.70
5018.00,0.70
5017.00,0.70
5016.00,0.70
5015.00,0.70
5014.00,0.70
5013.00,0.70
5012.00,0.70
5011.00,0.71
5010.00,0.71
5009.00,0.71
5008.00,0.71
5007.00,0.71
5006.00,0.71
5005.00,0.71
5004.00,0.71
5003.00,0.71
5002.00,0.71
5001.00,0.72
5000.00,0.72
4999.00,0.72
4998.00,0.72
4997.00,0.72
4996.00,0.72
4995.00,0.72
4994.00,0.72
4993.00,0.73
4992.00,0.73
4991.00,0.73
4990.00,0.73
4989.00,0.73
4988.00,0.73
4987.00,0.73
4986.00,0.73
4985.00,0.74
4984.00,0.74
4983.00,0.74
4982.00,0.74
4981.00,0.74
4980.00,0.74
4979.00,0.74
4978.00,0.74
4977.00,0.74
4976.00,0.75
4975.00,0.75
4974.00,0.75
4973.00,0.75
4972.00,0.75
4971.00,0.75
4970.00,0.75
4969.00,0.75
4968.00,0.75
4967.00,0.75
4966.00,0.76
4965.00,0.76
4964.00,0.76
4963.00,0.76
4962.00,0.76
4961.00,0.76
4960.00,0.76
4959.00,0.76
4958.00,0.76
4957.00,0.76
4956.00,0.76
4955.00,0.76
4954.00,0.77
4953.00,0.77
4952.00,0.77
4951.00,0.77
4950.00,0.77
4949.00,0.77
4948.00,0.77
4947.00,0.77
4946.00,0.77
4945.00,0.78
4944.00,0.78
4943.00,0.78
4942.00,0.78
4941.00,0.78
4940.00,0.78
4939.00,0.78
4938.00,0.78
4937.00,0.78
4936.00,0.78
4935.00,0.78
4934.00,0.78
4933.00,0.79
4932.00,0.79
4931.00,0.79
4930.00,0.79
4929.00,0.79
4928.00,0.79
4927.00,0.79
4926.00,0.79
4925.00,0.79
4924.00,0.80
4923.00,0.80
4922.00,0.80
4921.00,0.80
4920.00,0.80
4919.00,0.80
4918.00,0.80
4917.00,0.80
4916.00,0.80
4915.00,0.80
4914.00,0.81
4913.00,0.81
4912.00,0.81
4911.00,0.81
4910.00,0.81
4909.00,0.81
4908.00,0.81
4907.00,0.81
4906.00,0.81
4905.00,0.81
4904.00,0.81
4903.00,0.81
4902.00,0.81
4901.00,0.81
4900.00,0.81
4899.00,0.81
4898.00,0.81
4897.00,0.81
4896.00,0.81
4895.00,0.81
4894.00,0.81
4893.00,0.81
4892.00,0.81
4891.00,0.82
4890.00,0.82
4889.00,0.82
4888.00,0.82
4887.00,0.82
4886.00,0.82
4885.00,0.82
4884.00,0.82
4883.00,0.82
4882.00,0.82
4881.00,0.83
4880.00,0.83
4879.00,0.83
4878.00,0.83
4877.00,0.83
4876.00,0.83
4875.00,0.83
4874.00,0.83
4873.00,0.83
4872.00,0.83
4871.00,0.83
4870.00,0.83
4869.00,0.84
4868.00,0.84
4867.00,0.84
4866.00,0.84
4865.00,0.84
4864.00,0.84
4863.00,0.84
4862.00,0.84
4861.00,0.83
4860.00,0.83
4859.00,0.83
4858.00,0.83
4857.00,0.83
4856.00,0.83
4855.00,0.83
4854.00,0.83
4853.00,0.83
4852.00,0.83
4851.00,0.83
4850.00,0.83
4849.00,0.83
4848.00,0.83
4847.00,0.83
4846.00,0.83
4845.00,0.84
4844.00,0.84
4843.00,0.84
4842.00,0.84
4841.00,0.84
4840.00,0.84
4839.00,0.84
4838.00,0.84
4837.00,0.84
4836.00,0.84
4835.00,0.84
4834.00,0.84
4833.00,0.85
4832.00,0.85
4831.00,0.85
4830.00,0.85
4829.00,0.85
4828.00,0.85
4827.00,0.85
4826.00,0.85
4825.00,0.86
4824.00,0.86
4823.00,0.86
4822.00,0.86
4821.00,0.86
4820.00,0.86
4819.00,0.86
4818.00,0.87
4817.00,0.87
4816.00,0.87
4815.00,0.87
4814.00,0.87
4813.00,0.87
4812.00,0.87
4811.00,0.87
4810.00,0.88
4809.00,0.88
4808.00,0.88
4807.00,0.88
4806.00,0.88
4805.00,0.88
4804.00,0.88
4803.00,0.88
4802.00,0.89
4801.00,0.89
4800.00,0.89
4799.00,0.89
4798.00,0.89
4797.00,0.89
4796.00,0.89
4795.00,0.89
4794.00,0.89
4793.00,0.89
4792.00,0.89
4791.00,0.89
4790.00,0.89
4789.00,0.89
4788.00,0.90
4787.00,0.90
4786.00,0.90
4785.00,0.90
4784.00,0.90
4783.00,0.90
4782.00,0.90
4781.00,0.90
4780.00,0.90
4779.00,0.90
4778.00,0.91
4777.00,0.91
4776.00,0.91
4775.00,0.91
4774.00,0.91
4773.00,0.91
4772.00,0.91
4771.00,0.92
4770.00,0.92
4769.00,0.92
4768.00,0.92
4767.00,0.92
4766.00,0.93
4765.00,0.93
4764.00,0.93
4763.00,0.93
4762.00,0.93
4761.00,0.94
4760.00,0.94
4759.00,0.94
4758.00,0.94
4757.00,0.95
4756.00,0.95
4755.00,0.95
4754.00,0.95
4753.00,0.95
4752.00,0.96
4751.00,0.96
4750.00,0.96
4749.00,0.96
4748.00,0.97
4747.00,0.97
4746.00,0.97
4745.00,0.97
4744.00,0.97
4743.00,0.97
4742.00,0.98
4741.00,0.98
4740.00,0.98
4739.00,0.98
4738.00,0.98
4737.00,0.99
4736.00,0.99
4735.00,0.99
4734.00,0.99
4733.00,0.99
4732.00,1.00
4731.00,1.00
4730.00,1.00
4729.00,1.00
4728.00,1.00
4727.00,1.00
4726.00,1.01
4725.00,1.01
4724.00,1.01
4723.00,1.01
4722.00,1.01
4721.00,1.01
4720.00,1.02
4719.00,1.02
4718.00,1.02
4717.00,1.02
4716.00,1.02
4715.00,1.02
4714.00,1.03
4713.00,1.03
4712.00,1.03
4711.00,1.03
4710.00,1.03
4709.00,1.03
4708.00,1.04
4707.00,1.04
4706.00,1.04
4705.00,1.04
4704.00,1.04
4703.00,1.05
4702.00,1.05
4701.00,1.05
4700.00,1.05
4699.00,1.06
4698.00,1.06
4697.00,1.06
4696.00,1.06
4695.00,1.07
4694.00,1.07
4693.00,1.07
4692.00,1.07
4691.00,1.08
4690.00,1.08
4689.00,1.08
4688.00,1.08
4687.00,1.08
4686.00,1.09
4685.00,1.09
4684.00,1.09
4683.00,1.09
4682.00,1.09
4681.00,1.09
4680.00,1.09
4679.00,1.09
4678.00,1.09
4677.00,1.09
4676.00,1.09
4675.00,1.09
4674.00,1.09
4673.00,1.09
4672.00,1.09
4671.00,1.09
4670.00,1.09
4669.00,1.09
4668.00,1.10
4667.00,1.10
4666.00,1.10
4665.00,1.10
4664.00,1.10
4663.00,1.10
4662.00,1.10
4661.00,1.11
4660.00,1.11
4659.00,1.11
4658.00,1.11
4657.00,1.11
4656.00,1.12
4655.00,1.12
4654.00,1.12
4653.00,1.12
4652.00,1.13
4651.00,1.13
4650.00,1.13
4649.00,1.13
4648.00,1.14
4647.00,1.14
4646.00,1.14
4645.00,1.14
4644.00,1.15
4643.00,1.15
4642.00,1.15
4641.00,1.15
4640.00,1.15
4639.00,1.16
4638.00,1.16
4637.00,1.16
4636.00,1.16
4635.00,1.16
4634.00,1.16
4633.00,1.16
4632.00,1.17
4631.00,1.17
4630.00,1.17
4629.00,1.17
4628.00,1.17
4627.00,1.17
4626.00,1.17
4625.00,1.17
4624.00,1.18
4623.00,1.18
4622.00,1.18
4621.00,1.18
4620.00,1.18
4619.00,1.18
4618.00,1.18
4617.00,1.18
4616.00,1.18
4615.00,1.18
4614.00,1.18
4613.00,1.18
4612.00,1.18
4611.00,1.19
4610.00,1.19
4609.00,1.19
4608.00,1.19
4607.00,1.19
4606.00,1.19
4605.00,1.19
4604.00,1.19
4603.00,1.19
4602.00,1.19
4601.00,1.19
4600.00,1.19
4599.00,1.19
4598.00,1.19
4597.00,1.20
4596.00,1.20
4595.00,1.20
4594.00,1.20
4593.00,1.20
4592.00,1.20
4591.00,1.20
4590.00,1.21
4589.00,1.21
4588.00,1.21
4587.00,1.21
4586.00,1.21
4585.00,1.21
4584.00,1.21
4583.00,1.21
4582.00,1.22
4581.00,1.22
4580.00,1.22
4579.00,1.22
4578.00,1.22
4577.00,1.22
4576.00,1.22
4575.00,1.22
4574.00,1.22
4573.00,1.22
4572.00,1.22
4571.00,1.23
4570.00,1.23
4569.00,1.23
4568.00,1.23
4567.00,1.23
4566.00,1.23
4565.00,1.23
4564.00,1.23
4563.00,1.23
4562.00,1.24
4561.00,1.24
4560.00,1.24
4559.00,1.24
4558.00,1.24
4557.00,1.24
4556.00,1.24
4555.00,1.24
4554.00,1.24
4553.00,1.25
4552.00,1.25
4551.00,1.25
4550.00,1.25
4549.00,1.25
4548.00,1.25
4547.00,1.25
4546.00,1.26
4545.00,1.26
4544.00,1.26
4543.00,1.26
4542.00,1.26
4541.00,1.27
4540.00,1.27
4539.00,1.27
4538.00,1.27
4537.00,1.27
4536.00,1.27
4535.00,1.28
4534.00,1.28
4533.00,1.28
4532.00,1.28
4531.00,1.28
4530.00,1.28
4529.00,1.28
4528.00,1.28
4527.00,1.28
4526.00,1.28
4525.00,1.28
4524.00,1.28
4523.00,1.28
4522.00,1.28
4521.00,1.28
4520.00,1.28
4519.00,1.28
4518.00,1.27
4517.00,1.27
4516.00,1.27
4515.00,1.27
4514.00,1.27
4513.00,1.27
4512.00,1.27
4511.00,1.27
4510.00,1.27
4509.00,1.27
4508.00,1.27
4507.00,1.27
4506.00,1.26
4505.00,1.26
4504.00,1.26
4503.00,1.26
4502.00,1.26
4501.00,1.26
4500.00,1.26
4499.00,1.26
4498.00,1.26
4497.00,1.26
4496.00,1.26
4495.00,1.26
4494.00,1.26
4493.00,1.26
4492.00,1.26
4491.00,1.26
4490.00,1.26
4489.00,1.26
4488.00,1.26
4487.00,1.26
4486.00,1.26
4485.00,1.26
4484.00,1.25
4483.00,1.25
4482.00,1.25
4481.00,1.25
4480.00,1.25
4479.00,1.24
4478.00,1.24
4477.00,1.24
4476.00,1.24
4475.00,1.23
4474.00,1.23
4473.00,1.23
4472.00,1.23
4471.00,1.22
4470.00,1.22
4469.00,1.22
4468.00,1.21
4467.00,1.21
4466.00,1.21
4465.00,1.20
4464.00,1.20
4463.00,1.20
4462.00,1.19
4461.00,1.19
4460.00,1.19
4459.00,1.18
4458.00,1.18
4457.00,1.17
4456.00,1.17
4455.00,1.16
4454.00,1.16
4453.00,1.15
4452.00,1.15
4451.00,1.14
4450.00,1.13
4449.00,1.13
4448.00,1.12
4447.00,1.12
4446.00,1.11
4445.00,1.10
4444.00,1.10
4443.00,1.09
4442.00,1.08
4441.00,1.08
4440.00,1.07
4439.00,1.07
4438.00,1.06
4437.00,1.05
4436.00,1.05
4435.00,1.04
4434.00,1.04
4433.00,1.04
4432.00,1.03
4431.00,1.03
4430.00,1.02
4429.00,1.02
4428.00,1.02
4427.00,1.02
4426.00,1.01
4425.00,1.01
4424.00,1.01
4423.00,1.01
4422.00,1.01
4421.00,1.01
4420.00,1.01
4419.00,1.01
4418.00,1.00
4417.00,1.00
4416.00,1.01
4415.00,1.01
4414.00,1.01
4413.00,1.01
4412.00,1.01
4411.00,1.01
4410.00,1.01
4409.00,1.01
4408.00,1.01
4407.00,1.01
4406.00,1.01
4405.00,1.02
4404.00,1.02
4403.00,1.02
4402.00,1.02
4401.00,1.02
4400.00,1.02
4399.00,1.02
4398.00,1.02
4397.00,1.02
4396.00,1.02
4395.00,1.02
4394.00,1.02
4393.00,1.02
4392.00,1.02
4391.00,1.02
4390.00,1.02
4389.00,1.02
4388.00,1.02
4387.00,1.02
4386.00,1.03
4385.00,1.03
4384.00,1.03
4383.00,1.03
4382.00,1.03
4381.00,1.03
4380.00,1.04
4379.00,1.04
4378.00,1.04
4377.00,1.04
4376.00,1.04
4375.00,1.05
4374.00,1.05
4373.00,1.05
4372.00,1.05
4371.00,1.05
4370.00,1.06
4369.00,1.06
4368.00,1.06
4367.00,1.06
4366.00,1.06
4365.00,1.06
4364.00,1.06
4363.00,1.06
4362.00,1.06
4361.00,1.06
4360.00,1.06
4359.00,1.06
4358.00,1.05
4357.00,1.05
4356.00,1.05
4355.00,1.05
4354.00,1.05
4353.00,1.05
4352.00,1.05
4351.00,1.05
4350.00,1.05
4349.00,1.05
4348.00,1.05
4347.00,1.05
4346.00,1.05
4345.00,1.05
4344.00,1.05
4343.00,1.05
4342.00,1.05
4341.00,1.05
4340.00,1.05
4339.00,1.05
4338.00,1.05
4337.00,1.05
4336.00,1.05
4335.00,1.05
4334.00,1.05
4333.00,1.05
4332.00,1.05
4331.00,1.05
4330.00,1.05
4329.00,1.05
4328.00,1.05
4327.00,1.05
4326.00,1.06
4325.00,1.06
4324.00,1.06
4323.00,1.06
4322.00,1.06
4321.00,1.06
4320.00,1.06
4319.00,1.06
4318.00,1.07
4317.00,1.07
4316.00,1.07
4315.00,1.07
4314.00,1.08
4313.00,1.08
4312.00,1.08
4311.00,1.08
4310.00,1.09
4309.00,1.09
4308.00,1.09
4307.00,1.10
4306.00,1.10
4305.00,1.10
4304.00,1.10
4303.00,1.11
4302.00,1.11
4301.00,1.11
4300.00,1.12
4299.00,1.12
4298.00,1.12
4297.00,1.13
4296.00,1.13
4295.00,1.13
4294.00,1.13
4293.00,1.14
4292.00,1.14
4291.00,1.14
4290.00,1.15
4289.00,1.15
4288.00,1.15
4287.00,1.15
4286.00,1.15
4285.00,1.16
4284.00,1.16
4283.00,1.16
4282.00,1.16
4281.00,1.16
4280.00,1.16
4279.00,1.16
4278.00,1.16
4277.00,1.16
4276.00,1.16
4275.00,1.16
4274.00,1.16
4273.00,1.15
4272.00,1.15
4271.00,1.15
4270.00,1.15
4269.00,1.15
4268.00,1.15
4267.00,1.15
4266.00,1.15
4265.00,1.15
4264.00,1.15
4263.00,1.14
4262.00,1.14
4261.00,1.14
4260.00,1.14
4259.00,1.14
4258.00,1.14
4257.00,1.14
4256.00,1.14
4255.00,1.14
4254.00,1.15
4253.00,1.15
4252.00,1.15
4251.00,1.15
4250.00,1.15
4249.00,1.15
4248.00,1.15
4247.00,1.15
4246.00,1.15
4245.00,1.15
4244.00,1.15
4243.00,1.15
4242.00,1.15
4241.00,1.15
4240.00,1.15
4239.00,1.16
4238.00,1.16
4237.00,1.16
4236.00,1.16
4235.00,1.16
4234.00,1.16
4233.00,1.17
4232.00,1.17
4231.00,1.17
4230.00,1.17
4229.00,1.17
4228.00,1.17
4227.00,1.18
4226.00,1.18
4225.00,1.18
4224.00,1.18
4223.00,1.18
4222.00,1.18
4221.00,1.19
4220.00,1.19
4219.00,1.19
4218.00,1.19
4217.00,1.19
4216.00,1.19
4215.00,1.19
4214.00,1.20
4213.00,1.20
4212.00,1.20
4211.00,1.20
4210.00,1.20
4209.00,1.20
4208.00,1.20
4207.00,1.20
4206.00,1.20
4205.00,1.20
4204.00,1.20
4203.00,1.20
4202.00,1.20
4201.00,1.20
4200.00,1.20
4199.00,1.20
4198.00,1.20
4197.00,1.20
4196.00,1.20
4195.00,1.20
4194.00,1.20
4193.00,1.20
4192.00,1.20
4191.00,1.19
4190.00,1.19
4189.00,1.19
4188.00,1.19
4187.00,1.19
4186.00,1.19
4185.00,1.19
4184.00,1.19
4183.00,1.19
4182.00,1.19
4181.00,1.19
4180.00,1.19
4179.00,1.19
4178.00,1.19
4177.00,1.20
4176.00,1.20
4175.00,1.20
4174.00,1.20
4173.00,1.20
4172.00,1.20
4171.00,1.20
4170.00,1.20
4169.00,1.20
4168.00,1.21
4167.00,1.21
4166.00,1.21
4165.00,1.21
4164.00,1.21
4163.00,1.21
4162.00,1.21
4161.00,1.21
4160.00,1.21
4159.00,1.21
4158.00,1.21
4157.00,1.21
4156.00,1.21
4155.00,1.21
4154.00,1.21
4153.00,1.21
4152.00,1.22
4151.00,1.22
4150.00,1.22
4149.00,1.22
4148.00,1.22
4147.00,1.22
4146.00,1.22
4145.00,1.22
4144.00,1.22
4143.00,1.22
4142.00,1.22
4141.00,1.22
4140.00,1.22
4139.00,1.23
4138.00,1.23
4137.00,1.23
4136.00,1.23
4135.00,1.23
4134.00,1.23
4133.00,1.23
4132.00,1.23
4131.00,1.23
4130.00,1.24
4129.00,1.24
4128.00,1.24
4127.00,1.24
4126.00,1.24
4125.00,1.24
4124.00,1.23
4123.00,1.23
4122.00,1.23
4121.00,1.23
4120.00,1.23
4119.00,1.23
4118.00,1.23
4117.00,1.23
4116.00,1.23
4115.00,1.23
4114.00,1.23
4113.00,1.23
4112.00,1.23
4111.00,1.23
4110.00,1.23
4109.00,1.23
4108.00,1.23
4107.00,1.23
4106.00,1.23
4105.00,1.23
4104.00,1.23
4103.00,1.23
4102.00,1.23
4101.00,1.23
4100.00,1.23
4099.00,1.23
4098.00,1.23
4097.00,1.23
4096.00,1.23
4095.00,1.23
4094.00,1.23
4093.00,1.23
4092.00,1.23
4091.00,1.23
4090.00,1.23
4089.00,1.23
4088.00,1.23
4087.00,1.23
4086.00,1.23
4085.00,1.23
4084.00,1.23
4083.00,1.23
4082.00,1.24
4081.00,1.24
4080.00,1.24
4079.00,1.24
4078.00,1.24
4077.00,1.25
4076.00,1.25
4075.00,1.25
4074.00,1.26
4073.00,1.26
4072.00,1.26
4071.00,1.26
4070.00,1.27
4069.00,1.27
4068.00,1.27
4067.00,1.27
4066.00,1.27
4065.00,1.27
4064.00,1.27
4063.00,1.27
4062.00,1.27
4061.00,1.27
4060.00,1.27
4059.00,1.27
4058.00,1.27
4057.00,1.27
4056.00,1.27
4055.00,1.27
4054.00,1.27
4053.00,1.27
4052.00,1.27
4051.00,1.27
4050.00,1.27
4049.00,1.27
4048.00,1.27
4047.00,1.27
4046.00,1.27
4045.00,1.27
4044.00,1.27
4043.00,1.27
4042.00,1.27
4041.00,1.27
4040.00,1.27
4039.00,1.27
4038.00,1.28
4037.00,1.28
4036.00,1.28
4035.00,1.28
4034.00,1.28
4033.00,1.28
4032.00,1.28
4031.00,1.28
4030.00,1.28
4029.00,1.28
4028.00,1.28
4027.00,1.28
4026.00,1.28
4025.00,1.28
4024.00,1.28
4023.00,1.28
4022.00,1.28
4021.00,1.28
4020.00,1.28
4019.00,1.28
4018.00,1.29
4017.00,1.29
4016.00,1.29
4015.00,1.29
4014.00,1.29
4013.00,1.29
4012.00,1.29
4011.00,1.29
4010.00,1.29
4009.00,1.29
4008.00,1.30
4007.00,1.30
4006.00,1.30
4005.00,1.30
4004.00,1.30
4003.00,1.30
4002.00,1.30
4001.00,1.30
4000.00,1.30
