创建为新数据集,样品 075 用户 Administrator 日期 星期日, 十一月 05 2017
cm-1,%T
10000.00,1.24
9999.00,1.24
9998.00,1.24
9997.00,1.25
9996.00,1.25
9995.00,1.25
9994.00,1.25
9993.00,1.25
9992.00,1.25
9991.00,1.25
9990.00,1.25
9989.00,1.25
9988.00,1.25
9987.00,1.25
9986.00,1.25
9985.00,1.25
9984.00,1.25
9983.00,1.25
9982.00,1.25
9981.00,1.25
9980.00,1.25
9979.00,1.25
9978.00,1.25
9977.00,1.25
9976.00,1.25
9975.00,1.25
9974.00,1.25
9973.00,1.25
9972.00,1.25
9971.00,1.25
9970.00,1.25
9969.00,1.24
9968.00,1.24
9967.00,1.24
9966.00,1.24
9965.00,1.24
9964.00,1.23
9963.00,1.23
9962.00,1.23
9961.00,1.23
9960.00,1.22
9959.00,1.22
9958.00,1.22
9957.00,1.22
9956.00,1.22
9955.00,1.22
9954.00,1.21
9953.00,1.21
9952.00,1.21
9951.00,1.21
9950.00,1.21
9949.00,1.21
9948.00,1.21
9947.00,1.21
9946.00,1.21
9945.00,1.21
9944.00,1.21
9943.00,1.21
9942.00,1.21
9941.00,1.21
9940.00,1.22
9939.00,1.22
9938.00,1.22
9937.00,1.22
9936.00,1.22
9935.00,1.22
9934.00,1.22
9933.00,1.23
9932.00,1.23
9931.00,1.23
9930.00,1.23
9929.00,1.23
9928.00,1.23
9927.00,1.23
9926.00,1.23
9925.00,1.23
9924.00,1.22
9923.00,1.22
9922.00,1.22
9921.00,1.22
9920.00,1.21
9919.00,1.21
9918.00,1.21
9917.00,1.21
9916.00,1.21
9915.00,1.21
9914.00,1.20
9913.00,1.20
9912.00,1.20
9911.00,1.21
9910.00,1.21
9909.00,1.21
9908.00,1.21
9907.00,1.21
9906.00,1.21
9905.00,1.21
9904.00,1.21
9903.00,1.21
9902.00,1.21
9901.00,1.21
9900.00,1.21
9899.00,1.21
9898.00,1.21
9897.00,1.21
9896.00,1.21
9895.00,1.21
9894.00,1.21
9893.00,1.21
9892.00,1.21
9891.00,1.21
9890.00,1.21
9889.00,1.21
9888.00,1.21
9887.00,1.21
9886.00,1.22
9885.00,1.22
9884.00,1.22
9883.00,1.22
9882.00,1.22
9881.00,1.22
9880.00,1.22
9879.00,1.22
9878.00,1.22
9877.00,1.22
9876.00,1.22
9875.00,1.22
9874.00,1.22
9873.00,1.22
9872.00,1.22
9871.00,1.22
9870.00,1.22
9869.00,1.22
9868.00,1.22
9867.00,1.22
9866.00,1.22
9865.00,1.22
9864.00,1.22
9863.00,1.22
9862.00,1.22
9861.00,1.22
9860.00,1.22
9859.00,1.22
9858.00,1.22
9857.00,1.22
9856.00,1.22
9855.00,1.21
9854.00,1.21
9853.00,1.21
9852.00,1.21
9851.00,1.21
9850.00,1.21
9849.00,1.20
9848.00,1.20
9847.00,1.20
9846.00,1.20
9845.00,1.20
9844.00,1.20
9843.00,1.20
9842.00,1.20
9841.00,1.20
9840.00,1.21
9839.00,1.21
9838.00,1.21
9837.00,1.21
9836.00,1.22
9835.00,1.22
9834.00,1.22
9833.00,1.22
9832.00,1.23
9831.00,1.23
9830.00,1.23
9829.00,1.23
9828.00,1.23
9827.00,1.23
9826.00,1.22
9825.00,1.22
9824.00,1.22
9823.00,1.22
9822.00,1.22
9821.00,1.21
9820.00,1.21
9819.00,1.21
9818.00,1.21
9817.00,1.20
9816.00,1.20
9815.00,1.20
9814.00,1.20
9813.00,1.20
9812.00,1.20
9811.00,1.19
9810.00,1.19
9809.00,1.19
9808.00,1.19
9807.00,1.19
9806.00,1.19
9805.00,1.19
9804.00,1.19
9803.00,1.19
9802.00,1.19
9801.00,1.19
9800.00,1.19
9799.00,1.19
9798.00,1.19
9797.00,1.19
9796.00,1.19
9795.00,1.19
9794.00,1.19
9793.00,1.19
9792.00,1.19
9791.00,1.19
9790.00,1.19
9789.00,1.19
9788.00,1.19
9787.00,1.19
9786.00,1.19
9785.00,1.20
9784.00,1.20
9783.00,1.20
9782.00,1.20
9781.00,1.20
9780.00,1.20
9779.00,1.21
9778.00,1.21
9777.00,1.21
9776.00,1.21
9775.00,1.21
9774.00,1.21
9773.00,1.21
9772.00,1.21
9771.00,1.21
9770.00,1.21
9769.00,1.21
9768.00,1.21
9767.00,1.20
9766.00,1.20
9765.00,1.20
9764.00,1.20
9763.00,1.20
9762.00,1.20
9761.00,1.20
9760.00,1.20
9759.00,1.20
9758.00,1.20
9757.00,1.20
9756.00,1.20
9755.00,1.20
9754.00,1.20
9753.00,1.20
9752.00,1.21
9751.00,1.21
9750.00,1.21
9749.00,1.21
9748.00,1.21
9747.00,1.21
9746.00,1.22
9745.00,1.22
9744.00,1.22
9743.00,1.22
9742.00,1.22
9741.00,1.22
9740.00,1.22
9739.00,1.22
9738.00,1.22
9737.00,1.22
9736.00,1.22
9735.00,1.22
9734.00,1.22
9733.00,1.22
9732.00,1.22
9731.00,1.22
9730.00,1.22
9729.00,1.22
9728.00,1.22
9727.00,1.22
9726.00,1.22
9725.00,1.22
9724.00,1.22
9723.00,1.22
9722.00,1.22
9721.00,1.22
9720.00,1.22
9719.00,1.22
9718.00,1.22
9717.00,1.22
9716.00,1.22
9715.00,1.22
9714.00,1.22
9713.00,1.22
9712.00,1.22
9711.00,1.22
9710.00,1.22
9709.00,1.22
9708.00,1.22
9707.00,1.22
9706.00,1.22
9705.00,1.22
9704.00,1.21
9703.00,1.21
9702.00,1.21
9701.00,1.21
9700.00,1.21
9699.00,1.21
9698.00,1.21
9697.00,1.20
9696.00,1.20
9695.00,1.20
9694.00,1.20
9693.00,1.20
9692.00,1.20
9691.00,1.20
9690.00,1.20
9689.00,1.20
9688.00,1.20
9687.00,1.19
9686.00,1.19
9685.00,1.19
9684.00,1.19
9683.00,1.19
9682.00,1.19
9681.00,1.19
9680.00,1.19
9679.00,1.19
9678.00,1.19
9677.00,1.19
9676.00,1.18
9675.00,1.18
9674.00,1.18
9673.00,1.18
9672.00,1.18
9671.00,1.18
9670.00,1.17
9669.00,1.17
9668.00,1.17
9667.00,1.17
9666.00,1.17
9665.00,1.17
9664.00,1.16
9663.00,1.16
9662.00,1.16
9661.00,1.16
9660.00,1.16
9659.00,1.17
9658.00,1.17
9657.00,1.17
9656.00,1.17
9655.00,1.17
9654.00,1.18
9653.00,1.18
9652.00,1.18
9651.00,1.19
9650.00,1.19
9649.00,1.19
9648.00,1.20
9647.00,1.20
9646.00,1.21
9645.00,1.21
9644.00,1.21
9643.00,1.22
9642.00,1.22
9641.00,1.22
9640.00,1.22
9639.00,1.23
9638.00,1.23
9637.00,1.23
9636.00,1.23
9635.00,1.22
9634.00,1.22
9633.00,1.22
9632.00,1.22
9631.00,1.21
9630.00,1.21
9629.00,1.21
9628.00,1.21
9627.00,1.20
9626.00,1.20
9625.00,1.20
9624.00,1.20
9623.00,1.20
9622.00,1.20
9621.00,1.20
9620.00,1.20
9619.00,1.20
9618.00,1.20
9617.00,1.20
9616.00,1.20
9615.00,1.21
9614.00,1.21
9613.00,1.21
9612.00,1.21
9611.00,1.21
9610.00,1.21
9609.00,1.21
9608.00,1.20
9607.00,1.20
9606.00,1.20
9605.00,1.20
9604.00,1.20
9603.00,1.19
9602.00,1.19
9601.00,1.19
9600.00,1.19
9599.00,1.19
9598.00,1.18
9597.00,1.18
9596.00,1.18
9595.00,1.18
9594.00,1.18
9593.00,1.19
9592.00,1.19
9591.00,1.19
9590.00,1.19
9589.00,1.19
9588.00,1.19
9587.00,1.19
9586.00,1.20
9585.00,1.20
9584.00,1.20
9583.00,1.20
9582.00,1.20
9581.00,1.20
9580.00,1.20
9579.00,1.20
9578.00,1.20
9577.00,1.20
9576.00,1.20
9575.00,1.20
9574.00,1.20
9573.00,1.21
9572.00,1.21
9571.00,1.21
9570.00,1.21
9569.00,1.21
9568.00,1.21
9567.00,1.22
9566.00,1.22
9565.00,1.22
9564.00,1.22
9563.00,1.23
9562.00,1.23
9561.00,1.23
9560.00,1.23
9559.00,1.24
9558.00,1.24
9557.00,1.24
9556.00,1.24
9555.00,1.24
9554.00,1.24
9553.00,1.24
9552.00,1.24
9551.00,1.24
9550.00,1.24
9549.00,1.24
9548.00,1.24
9547.00,1.24
9546.00,1.24
9545.00,1.23
9544.00,1.23
9543.00,1.23
9542.00,1.23
9541.00,1.22
9540.00,1.22
9539.00,1.22
9538.00,1.22
9537.00,1.22
9536.00,1.22
9535.00,1.21
9534.00,1.21
9533.00,1.21
9532.00,1.21
9531.00,1.21
9530.00,1.21
9529.00,1.21
9528.00,1.22
9527.00,1.22
9526.00,1.22
9525.00,1.22
9524.00,1.22
9523.00,1.22
9522.00,1.22
9521.00,1.22
9520.00,1.21
9519.00,1.21
9518.00,1.21
9517.00,1.21
9516.00,1.21
9515.00,1.21
9514.00,1.20
9513.00,1.20
9512.00,1.20
9511.00,1.20
9510.00,1.20
9509.00,1.20
9508.00,1.20
9507.00,1.20
9506.00,1.20
9505.00,1.20
9504.00,1.19
9503.00,1.19
9502.00,1.19
9501.00,1.19
9500.00,1.19
9499.00,1.19
9498.00,1.18
9497.00,1.18
9496.00,1.18
9495.00,1.18
9494.00,1.17
9493.00,1.17
9492.00,1.17
9491.00,1.17
9490.00,1.16
9489.00,1.16
9488.00,1.16
9487.00,1.16
9486.00,1.16
9485.00,1.16
9484.00,1.16
9483.00,1.16
9482.00,1.16
9481.00,1.17
9480.00,1.17
9479.00,1.17
9478.00,1.17
9477.00,1.18
9476.00,1.18
9475.00,1.18
9474.00,1.19
9473.00,1.19
9472.00,1.19
9471.00,1.20
9470.00,1.20
9469.00,1.20
9468.00,1.21
9467.00,1.21
9466.00,1.21
9465.00,1.21
9464.00,1.21
9463.00,1.21
9462.00,1.21
9461.00,1.20
9460.00,1.20
9459.00,1.20
9458.00,1.20
9457.00,1.19
9456.00,1.19
9455.00,1.19
9454.00,1.19
9453.00,1.19
9452.00,1.19
9451.00,1.19
9450.00,1.19
9449.00,1.19
9448.00,1.19
9447.00,1.19
9446.00,1.20
9445.00,1.20
9444.00,1.20
9443.00,1.21
9442.00,1.21
9441.00,1.21
9440.00,1.22
9439.00,1.22
9438.00,1.22
9437.00,1.23
9436.00,1.23
9435.00,1.23
9434.00,1.23
9433.00,1.23
9432.00,1.24
9431.00,1.24
9430.00,1.24
9429.00,1.24
9428.00,1.24
9427.00,1.24
9426.00,1.23
9425.00,1.23
9424.00,1.23
9423.00,1.23
9422.00,1.23
9421.00,1.23
9420.00,1.23
9419.00,1.22
9418.00,1.22
9417.00,1.22
9416.00,1.22
9415.00,1.22
9414.00,1.22
9413.00,1.22
9412.00,1.22
9411.00,1.21
9410.00,1.21
9409.00,1.21
9408.00,1.21
9407.00,1.21
9406.00,1.21
9405.00,1.21
9404.00,1.21
9403.00,1.21
9402.00,1.21
9401.00,1.21
9400.00,1.21
9399.00,1.21
9398.00,1.21
9397.00,1.21
9396.00,1.21
9395.00,1.20
9394.00,1.20
9393.00,1.20
9392.00,1.20
9391.00,1.19
9390.00,1.19
9389.00,1.19
9388.00,1.19
9387.00,1.19
9386.00,1.18
9385.00,1.18
9384.00,1.18
9383.00,1.18
9382.00,1.18
9381.00,1.18
9380.00,1.18
9379.00,1.18
9378.00,1.19
9377.00,1.19
9376.00,1.19
9375.00,1.20
9374.00,1.20
9373.00,1.20
9372.00,1.21
9371.00,1.21
9370.00,1.21
9369.00,1.21
9368.00,1.22
9367.00,1.22
9366.00,1.22
9365.00,1.22
9364.00,1.22
9363.00,1.22
9362.00,1.22
9361.00,1.22
9360.00,1.22
9359.00,1.22
9358.00,1.22
9357.00,1.22
9356.00,1.22
9355.00,1.22
9354.00,1.22
9353.00,1.22
9352.00,1.22
9351.00,1.22
9350.00,1.22
9349.00,1.22
9348.00,1.22
9347.00,1.22
9346.00,1.22
9345.00,1.22
9344.00,1.23
9343.00,1.23
9342.00,1.23
9341.00,1.23
9340.00,1.23
9339.00,1.23
9338.00,1.23
9337.00,1.23
9336.00,1.23
9335.00,1.23
9334.00,1.23
9333.00,1.23
9332.00,1.23
9331.00,1.22
9330.00,1.22
9329.00,1.22
9328.00,1.22
9327.00,1.22
9326.00,1.22
9325.00,1.21
9324.00,1.21
9323.00,1.21
9322.00,1.21
9321.00,1.21
9320.00,1.21
9319.00,1.21
9318.00,1.21
9317.00,1.20
9316.00,1.20
9315.00,1.20
9314.00,1.20
9313.00,1.21
9312.00,1.21
9311.00,1.21
9310.00,1.21
9309.00,1.21
9308.00,1.21
9307.00,1.21
9306.00,1.21
9305.00,1.21
9304.00,1.21
9303.00,1.21
9302.00,1.21
9301.00,1.21
9300.00,1.21
9299.00,1.21
9298.00,1.21
9297.00,1.21
9296.00,1.21
9295.00,1.21
9294.00,1.21
9293.00,1.21
9292.00,1.21
9291.00,1.21
9290.00,1.20
9289.00,1.20
9288.00,1.20
9287.00,1.20
9286.00,1.20
9285.00,1.20
9284.00,1.20
9283.00,1.20
9282.00,1.20
9281.00,1.20
9280.00,1.20
9279.00,1.20
9278.00,1.20
9277.00,1.20
9276.00,1.20
9275.00,1.20
9274.00,1.20
9273.00,1.20
9272.00,1.20
9271.00,1.20
9270.00,1.20
9269.00,1.20
9268.00,1.20
9267.00,1.20
9266.00,1.20
9265.00,1.20
9264.00,1.20
9263.00,1.20
9262.00,1.20
9261.00,1.20
9260.00,1.20
9259.00,1.20
9258.00,1.20
9257.00,1.20
9256.00,1.20
9255.00,1.20
9254.00,1.20
9253.00,1.20
9252.00,1.20
9251.00,1.20
9250.00,1.20
9249.00,1.20
9248.00,1.20
9247.00,1.20
9246.00,1.20
9245.00,1.20
9244.00,1.20
9243.00,1.20
9242.00,1.20
9241.00,1.20
9240.00,1.20
9239.00,1.20
9238.00,1.20
9237.00,1.20
9236.00,1.20
9235.00,1.20
9234.00,1.20
9233.00,1.20
9232.00,1.21
9231.00,1.21
9230.00,1.21
9229.00,1.21
9228.00,1.22
9227.00,1.22
9226.00,1.22
9225.00,1.22
9224.00,1.23
9223.00,1.23
9222.00,1.23
9221.00,1.24
9220.00,1.24
9219.00,1.24
9218.00,1.24
9217.00,1.24
9216.00,1.24
9215.00,1.24
9214.00,1.24
9213.00,1.24
9212.00,1.24
9211.00,1.24
9210.00,1.24
9209.00,1.23
9208.00,1.23
9207.00,1.23
9206.00,1.22
9205.00,1.22
9204.00,1.22
9203.00,1.21
9202.00,1.21
9201.00,1.21
9200.00,1.21
9199.00,1.20
9198.00,1.20
9197.00,1.20
9196.00,1.20
9195.00,1.20
9194.00,1.21
9193.00,1.21
9192.00,1.21
9191.00,1.21
9190.00,1.21
9189.00,1.21
9188.00,1.22
9187.00,1.22
9186.00,1.22
9185.00,1.22
9184.00,1.22
9183.00,1.22
9182.00,1.22
9181.00,1.22
9180.00,1.22
9179.00,1.22
9178.00,1.22
9177.00,1.22
9176.00,1.22
9175.00,1.22
9174.00,1.21
9173.00,1.21
9172.00,1.21
9171.00,1.21
9170.00,1.21
9169.00,1.21
9168.00,1.20
9167.00,1.20
9166.00,1.20
9165.00,1.20
9164.00,1.20
9163.00,1.20
9162.00,1.20
9161.00,1.20
9160.00,1.20
9159.00,1.20
9158.00,1.20
9157.00,1.20
9156.00,1.20
9155.00,1.20
9154.00,1.20
9153.00,1.20
9152.00,1.20
9151.00,1.20
9150.00,1.20
9149.00,1.20
9148.00,1.20
9147.00,1.20
9146.00,1.20
9145.00,1.20
9144.00,1.21
9143.00,1.21
9142.00,1.21
9141.00,1.21
9140.00,1.21
9139.00,1.21
9138.00,1.21
9137.00,1.21
9136.00,1.21
9135.00,1.21
9134.00,1.21
9133.00,1.21
9132.00,1.21
9131.00,1.21
9130.00,1.21
9129.00,1.21
9128.00,1.21
9127.00,1.22
9126.00,1.22
9125.00,1.22
9124.00,1.22
9123.00,1.23
9122.00,1.23
9121.00,1.23
9120.00,1.23
9119.00,1.23
9118.00,1.23
9117.00,1.24
9116.00,1.24
9115.00,1.24
9114.00,1.24
9113.00,1.23
9112.00,1.23
9111.00,1.23
9110.00,1.23
9109.00,1.23
9108.00,1.23
9107.00,1.22
9106.00,1.22
9105.00,1.22
9104.00,1.22
9103.00,1.21
9102.00,1.21
9101.00,1.21
9100.00,1.21
9099.00,1.21
9098.00,1.20
9097.00,1.20
9096.00,1.20
9095.00,1.20
9094.00,1.20
9093.00,1.20
9092.00,1.20
9091.00,1.20
9090.00,1.20
9089.00,1.20
9088.00,1.20
9087.00,1.20
9086.00,1.20
9085.00,1.20
9084.00,1.20
9083.00,1.20
9082.00,1.20
9081.00,1.20
9080.00,1.20
9079.00,1.20
9078.00,1.20
9077.00,1.20
9076.00,1.20
9075.00,1.20
9074.00,1.20
9073.00,1.20
9072.00,1.20
9071.00,1.20
9070.00,1.20
9069.00,1.20
9068.00,1.20
9067.00,1.20
9066.00,1.20
9065.00,1.20
9064.00,1.20
9063.00,1.20
9062.00,1.20
9061.00,1.20
9060.00,1.20
9059.00,1.20
9058.00,1.20
9057.00,1.20
9056.00,1.20
9055.00,1.20
9054.00,1.20
9053.00,1.20
9052.00,1.20
9051.00,1.20
9050.00,1.20
9049.00,1.20
9048.00,1.20
9047.00,1.20
9046.00,1.20
9045.00,1.20
9044.00,1.20
9043.00,1.20
9042.00,1.21
9041.00,1.21
9040.00,1.21
9039.00,1.21
9038.00,1.21
9037.00,1.21
9036.00,1.21
9035.00,1.21
9034.00,1.21
9033.00,1.21
9032.00,1.21
9031.00,1.21
9030.00,1.21
9029.00,1.21
9028.00,1.22
9027.00,1.22
9026.00,1.22
9025.00,1.22
9024.00,1.22
9023.00,1.21
9022.00,1.21
9021.00,1.21
9020.00,1.21
9019.00,1.21
9018.00,1.21
9017.00,1.21
9016.00,1.21
9015.00,1.21
9014.00,1.21
9013.00,1.21
9012.00,1.21
9011.00,1.21
9010.00,1.21
9009.00,1.22
9008.00,1.22
9007.00,1.22
9006.00,1.22
9005.00,1.22
9004.00,1.22
9003.00,1.22
9002.00,1.22
9001.00,1.22
9000.00,1.22
8999.00,1.22
8998.00,1.22
8997.00,1.22
8996.00,1.22
8995.00,1.22
8994.00,1.22
8993.00,1.22
8992.00,1.22
8991.00,1.22
8990.00,1.22
8989.00,1.22
8988.00,1.22
8987.00,1.22
8986.00,1.22
8985.00,1.22
8984.00,1.22
8983.00,1.22
8982.00,1.22
8981.00,1.22
8980.00,1.22
8979.00,1.22
8978.00,1.22
8977.00,1.22
8976.00,1.22
8975.00,1.22
8974.00,1.21
8973.00,1.21
8972.00,1.21
8971.00,1.21
8970.00,1.20
8969.00,1.20
8968.00,1.20
8967.00,1.20
8966.00,1.20
8965.00,1.19
8964.00,1.19
8963.00,1.19
8962.00,1.19
8961.00,1.19
8960.00,1.20
8959.00,1.20
8958.00,1.20
8957.00,1.20
8956.00,1.20
8955.00,1.21
8954.00,1.21
8953.00,1.21
8952.00,1.21
8951.00,1.21
8950.00,1.21
8949.00,1.22
8948.00,1.22
8947.00,1.22
8946.00,1.22
8945.00,1.22
8944.00,1.22
8943.00,1.22
8942.00,1.22
8941.00,1.22
8940.00,1.22
8939.00,1.22
8938.00,1.22
8937.00,1.22
8936.00,1.22
8935.00,1.22
8934.00,1.22
8933.00,1.22
8932.00,1.22
8931.00,1.22
8930.00,1.23
8929.00,1.23
8928.00,1.23
8927.00,1.23
8926.00,1.22
8925.00,1.22
8924.00,1.22
8923.00,1.22
8922.00,1.22
8921.00,1.22
8920.00,1.22
8919.00,1.22
8918.00,1.22
8917.00,1.22
8916.00,1.22
8915.00,1.22
8914.00,1.22
8913.00,1.22
8912.00,1.22
8911.00,1.22
8910.00,1.22
8909.00,1.22
8908.00,1.22
8907.00,1.22
8906.00,1.22
8905.00,1.22
8904.00,1.22
8903.00,1.22
8902.00,1.22
8901.00,1.22
8900.00,1.22
8899.00,1.21
8898.00,1.21
8897.00,1.21
8896.00,1.21
8895.00,1.21
8894.00,1.21
8893.00,1.21
8892.00,1.21
8891.00,1.21
8890.00,1.21
8889.00,1.21
8888.00,1.21
8887.00,1.21
8886.00,1.21
8885.00,1.21
8884.00,1.21
8883.00,1.21
8882.00,1.21
8881.00,1.22
8880.00,1.22
8879.00,1.22
8878.00,1.22
8877.00,1.22
8876.00,1.22
8875.00,1.22
8874.00,1.22
8873.00,1.22
8872.00,1.22
8871.00,1.22
8870.00,1.22
8869.00,1.22
8868.00,1.22
8867.00,1.22
8866.00,1.21
8865.00,1.21
8864.00,1.21
8863.00,1.21
8862.00,1.21
8861.00,1.21
8860.00,1.21
8859.00,1.21
8858.00,1.21
8857.00,1.21
8856.00,1.21
8855.00,1.21
8854.00,1.21
8853.00,1.21
8852.00,1.21
8851.00,1.21
8850.00,1.21
8849.00,1.21
8848.00,1.21
8847.00,1.21
8846.00,1.21
8845.00,1.21
8844.00,1.21
8843.00,1.21
8842.00,1.21
8841.00,1.21
8840.00,1.20
8839.00,1.20
8838.00,1.20
8837.00,1.20
8836.00,1.20
8835.00,1.20
8834.00,1.20
8833.00,1.20
8832.00,1.20
8831.00,1.20
8830.00,1.20
8829.00,1.20
8828.00,1.20
8827.00,1.20
8826.00,1.20
8825.00,1.20
8824.00,1.20
8823.00,1.20
8822.00,1.20
8821.00,1.20
8820.00,1.20
8819.00,1.20
8818.00,1.20
8817.00,1.20
8816.00,1.20
8815.00,1.20
8814.00,1.20
8813.00,1.20
8812.00,1.20
8811.00,1.20
8810.00,1.19
8809.00,1.19
8808.00,1.19
8807.00,1.19
8806.00,1.19
8805.00,1.19
8804.00,1.19
8803.00,1.19
8802.00,1.19
8801.00,1.19
8800.00,1.19
8799.00,1.19
8798.00,1.19
8797.00,1.19
8796.00,1.20
8795.00,1.20
8794.00,1.20
8793.00,1.20
8792.00,1.20
8791.00,1.20
8790.00,1.20
8789.00,1.20
8788.00,1.20
8787.00,1.20
8786.00,1.20
8785.00,1.20
8784.00,1.20
8783.00,1.20
8782.00,1.20
8781.00,1.20
8780.00,1.20
8779.00,1.20
8778.00,1.20
8777.00,1.20
8776.00,1.20
8775.00,1.20
8774.00,1.20
8773.00,1.20
8772.00,1.20
8771.00,1.19
8770.00,1.19
8769.00,1.19
8768.00,1.19
8767.00,1.19
8766.00,1.19
8765.00,1.19
8764.00,1.19
8763.00,1.19
8762.00,1.19
8761.00,1.19
8760.00,1.19
8759.00,1.19
8758.00,1.19
8757.00,1.19
8756.00,1.19
8755.00,1.20
8754.00,1.20
8753.00,1.20
8752.00,1.20
8751.00,1.20
8750.00,1.20
8749.00,1.20
8748.00,1.20
8747.00,1.20
8746.00,1.20
8745.00,1.20
8744.00,1.20
8743.00,1.20
8742.00,1.20
8741.00,1.20
8740.00,1.20
8739.00,1.20
8738.00,1.19
8737.00,1.19
8736.00,1.19
8735.00,1.19
8734.00,1.19
8733.00,1.18
8732.00,1.18
8731.00,1.18
8730.00,1.18
8729.00,1.18
8728.00,1.17
8727.00,1.17
8726.00,1.17
8725.00,1.17
8724.00,1.17
8723.00,1.17
8722.00,1.17
8721.00,1.17
8720.00,1.17
8719.00,1.17
8718.00,1.17
8717.00,1.17
8716.00,1.17
8715.00,1.17
8714.00,1.17
8713.00,1.18
8712.00,1.18
8711.00,1.18
8710.00,1.18
8709.00,1.18
8708.00,1.18
8707.00,1.17
8706.00,1.17
8705.00,1.17
8704.00,1.17
8703.00,1.17
8702.00,1.17
8701.00,1.17
8700.00,1.17
8699.00,1.17
8698.00,1.17
8697.00,1.16
8696.00,1.16
8695.00,1.16
8694.00,1.16
8693.00,1.16
8692.00,1.16
8691.00,1.16
8690.00,1.16
8689.00,1.16
8688.00,1.16
8687.00,1.16
8686.00,1.16
8685.00,1.16
8684.00,1.16
8683.00,1.16
8682.00,1.17
8681.00,1.17
8680.00,1.17
8679.00,1.17
8678.00,1.17
8677.00,1.17
8676.00,1.17
8675.00,1.17
8674.00,1.17
8673.00,1.17
8672.00,1.17
8671.00,1.17
8670.00,1.17
8669.00,1.17
8668.00,1.17
8667.00,1.17
8666.00,1.17
8665.00,1.17
8664.00,1.17
8663.00,1.17
8662.00,1.17
8661.00,1.17
8660.00,1.17
8659.00,1.17
8658.00,1.17
8657.00,1.17
8656.00,1.17
8655.00,1.17
8654.00,1.17
8653.00,1.17
8652.00,1.17
8651.00,1.17
8650.00,1.17
8649.00,1.17
8648.00,1.17
8647.00,1.17
8646.00,1.17
8645.00,1.17
8644.00,1.17
8643.00,1.17
8642.00,1.17
8641.00,1.17
8640.00,1.17
8639.00,1.17
8638.00,1.17
8637.00,1.16
8636.00,1.16
8635.00,1.16
8634.00,1.16
8633.00,1.16
8632.00,1.16
8631.00,1.17
8630.00,1.17
8629.00,1.17
8628.00,1.17
8627.00,1.17
8626.00,1.17
8625.00,1.17
8624.00,1.17
8623.00,1.17
8622.00,1.17
8621.00,1.17
8620.00,1.17
8619.00,1.17
8618.00,1.17
8617.00,1.17
8616.00,1.17
8615.00,1.17
8614.00,1.17
8613.00,1.17
8612.00,1.17
8611.00,1.17
8610.00,1.17
8609.00,1.16
8608.00,1.16
8607.00,1.16
8606.00,1.16
8605.00,1.16
8604.00,1.15
8603.00,1.15
8602.00,1.15
8601.00,1.15
8600.00,1.15
8599.00,1.14
8598.00,1.14
8597.00,1.14
8596.00,1.14
8595.00,1.14
8594.00,1.14
8593.00,1.14
8592.00,1.14
8591.00,1.14
8590.00,1.14
8589.00,1.14
8588.00,1.14
8587.00,1.14
8586.00,1.14
8585.00,1.14
8584.00,1.14
8583.00,1.14
8582.00,1.14
8581.00,1.14
8580.00,1.14
8579.00,1.14
8578.00,1.14
8577.00,1.14
8576.00,1.14
8575.00,1.14
8574.00,1.14
8573.00,1.14
8572.00,1.14
8571.00,1.14
8570.00,1.14
8569.00,1.14
8568.00,1.14
8567.00,1.14
8566.00,1.14
8565.00,1.14
8564.00,1.14
8563.00,1.14
8562.00,1.14
8561.00,1.14
8560.00,1.14
8559.00,1.14
8558.00,1.14
8557.00,1.13
8556.00,1.13
8555.00,1.13
8554.00,1.13
8553.00,1.13
8552.00,1.13
8551.00,1.13
8550.00,1.13
8549.00,1.13
8548.00,1.13
8547.00,1.13
8546.00,1.13
8545.00,1.13
8544.00,1.13
8543.00,1.13
8542.00,1.13
8541.00,1.13
8540.00,1.13
8539.00,1.13
8538.00,1.13
8537.00,1.13
8536.00,1.12
8535.00,1.12
8534.00,1.12
8533.00,1.12
8532.00,1.12
8531.00,1.12
8530.00,1.12
8529.00,1.12
8528.00,1.12
8527.00,1.12
8526.00,1.12
8525.00,1.12
8524.00,1.13
8523.00,1.13
8522.00,1.13
8521.00,1.13
8520.00,1.13
8519.00,1.13
8518.00,1.13
8517.00,1.13
8516.00,1.13
8515.00,1.13
8514.00,1.13
8513.00,1.13
8512.00,1.13
8511.00,1.13
8510.00,1.13
8509.00,1.13
8508.00,1.13
8507.00,1.13
8506.00,1.13
8505.00,1.13
8504.00,1.13
8503.00,1.13
8502.00,1.13
8501.00,1.12
8500.00,1.12
8499.00,1.12
8498.00,1.12
8497.00,1.12
8496.00,1.12
8495.00,1.12
8494.00,1.12
8493.00,1.12
8492.00,1.12
8491.00,1.12
8490.00,1.12
8489.00,1.12
8488.00,1.12
8487.00,1.12
8486.00,1.12
8485.00,1.12
8484.00,1.12
8483.00,1.12
8482.00,1.12
8481.00,1.12
8480.00,1.12
8479.00,1.12
8478.00,1.11
8477.00,1.11
8476.00,1.11
8475.00,1.11
8474.00,1.11
8473.00,1.10
8472.00,1.10
8471.00,1.10
8470.00,1.10
8469.00,1.10
8468.00,1.10
8467.00,1.10
8466.00,1.10
8465.00,1.10
8464.00,1.10
8463.00,1.10
8462.00,1.10
8461.00,1.10
8460.00,1.10
8459.00,1.10
8458.00,1.10
8457.00,1.10
8456.00,1.10
8455.00,1.10
8454.00,1.10
8453.00,1.10
8452.00,1.10
8451.00,1.10
8450.00,1.10
8449.00,1.10
8448.00,1.10
8447.00,1.10
8446.00,1.10
8445.00,1.10
8444.00,1.09
8443.00,1.09
8442.00,1.09
8441.00,1.09
8440.00,1.09
8439.00,1.09
8438.00,1.09
8437.00,1.09
8436.00,1.08
8435.00,1.08
8434.00,1.08
8433.00,1.08
8432.00,1.08
8431.00,1.08
8430.00,1.08
8429.00,1.08
8428.00,1.08
8427.00,1.08
8426.00,1.08
8425.00,1.08
8424.00,1.08
8423.00,1.08
8422.00,1.09
8421.00,1.09
8420.00,1.09
8419.00,1.09
8418.00,1.09
8417.00,1.09
8416.00,1.10
8415.00,1.10
8414.00,1.10
8413.00,1.10
8412.00,1.10
8411.00,1.10
8410.00,1.11
8409.00,1.11
8408.00,1.11
8407.00,1.11
8406.00,1.11
8405.00,1.11
8404.00,1.11
8403.00,1.11
8402.00,1.12
8401.00,1.12
8400.00,1.12
8399.00,1.12
8398.00,1.12
8397.00,1.12
8396.00,1.12
8395.00,1.12
8394.00,1.12
8393.00,1.12
8392.00,1.12
8391.00,1.12
8390.00,1.13
8389.00,1.13
8388.00,1.13
8387.00,1.13
8386.00,1.13
8385.00,1.13
8384.00,1.13
8383.00,1.13
8382.00,1.13
8381.00,1.13
8380.00,1.12
8379.00,1.12
8378.00,1.12
8377.00,1.12
8376.00,1.12
8375.00,1.12
8374.00,1.12
8373.00,1.12
8372.00,1.12
8371.00,1.12
8370.00,1.12
8369.00,1.12
8368.00,1.12
8367.00,1.13
8366.00,1.13
8365.00,1.13
8364.00,1.13
8363.00,1.13
8362.00,1.13
8361.00,1.13
8360.00,1.14
8359.00,1.14
8358.00,1.14
8357.00,1.14
8356.00,1.14
8355.00,1.14
8354.00,1.14
8353.00,1.14
8352.00,1.14
8351.00,1.14
8350.00,1.14
8349.00,1.14
8348.00,1.14
8347.00,1.14
8346.00,1.14
8345.00,1.14
8344.00,1.14
8343.00,1.14
8342.00,1.14
8341.00,1.14
8340.00,1.13
8339.00,1.13
8338.00,1.13
8337.00,1.13
8336.00,1.13
8335.00,1.13
8334.00,1.13
8333.00,1.13
8332.00,1.13
8331.00,1.13
8330.00,1.12
8329.00,1.12
8328.00,1.12
8327.00,1.12
8326.00,1.12
8325.00,1.12
8324.00,1.13
8323.00,1.13
8322.00,1.13
8321.00,1.13
8320.00,1.13
8319.00,1.13
8318.00,1.13
8317.00,1.13
8316.00,1.13
8315.00,1.13
8314.00,1.13
8313.00,1.13
8312.00,1.13
8311.00,1.13
8310.00,1.14
8309.00,1.14
8308.00,1.14
8307.00,1.14
8306.00,1.14
8305.00,1.14
8304.00,1.14
8303.00,1.14
8302.00,1.14
8301.00,1.14
8300.00,1.14
8299.00,1.14
8298.00,1.14
8297.00,1.14
8296.00,1.14
8295.00,1.14
8294.00,1.14
8293.00,1.14
8292.00,1.14
8291.00,1.14
8290.00,1.14
8289.00,1.14
8288.00,1.14
8287.00,1.14
8286.00,1.14
8285.00,1.14
8284.00,1.13
8283.00,1.13
8282.00,1.13
8281.00,1.13
8280.00,1.13
8279.00,1.13
8278.00,1.13
8277.00,1.14
8276.00,1.14
8275.00,1.14
8274.00,1.14
8273.00,1.14
8272.00,1.14
8271.00,1.14
8270.00,1.14
8269.00,1.14
8268.00,1.14
8267.00,1.14
8266.00,1.15
8265.00,1.15
8264.00,1.15
8263.00,1.15
8262.00,1.15
8261.00,1.15
8260.00,1.15
8259.00,1.15
8258.00,1.15
8257.00,1.15
8256.00,1.15
8255.00,1.15
8254.00,1.15
8253.00,1.15
8252.00,1.15
8251.00,1.15
8250.00,1.15
8249.00,1.15
8248.00,1.15
8247.00,1.15
8246.00,1.16
8245.00,1.16
8244.00,1.16
8243.00,1.16
8242.00,1.16
8241.00,1.16
8240.00,1.16
8239.00,1.16
8238.00,1.16
8237.00,1.16
8236.00,1.16
8235.00,1.16
8234.00,1.16
8233.00,1.16
8232.00,1.16
8231.00,1.16
8230.00,1.16
8229.00,1.16
8228.00,1.16
8227.00,1.16
8226.00,1.16
8225.00,1.16
8224.00,1.16
8223.00,1.15
8222.00,1.15
8221.00,1.15
8220.00,1.15
8219.00,1.15
8218.00,1.15
8217.00,1.15
8216.00,1.15
8215.00,1.15
8214.00,1.15
8213.00,1.15
8212.00,1.15
8211.00,1.15
8210.00,1.15
8209.00,1.16
8208.00,1.16
8207.00,1.16
8206.00,1.16
8205.00,1.16
8204.00,1.16
8203.00,1.16
8202.00,1.16
8201.00,1.16
8200.00,1.16
8199.00,1.16
8198.00,1.16
8197.00,1.16
8196.00,1.16
8195.00,1.16
8194.00,1.16
8193.00,1.16
8192.00,1.16
8191.00,1.16
8190.00,1.16
8189.00,1.16
8188.00,1.16
8187.00,1.16
8186.00,1.16
8185.00,1.15
8184.00,1.15
8183.00,1.15
8182.00,1.15
8181.00,1.15
8180.00,1.15
8179.00,1.15
8178.00,1.15
8177.00,1.15
8176.00,1.15
8175.00,1.15
8174.00,1.15
8173.00,1.15
8172.00,1.15
8171.00,1.15
8170.00,1.15
8169.00,1.15
8168.00,1.15
8167.00,1.15
8166.00,1.15
8165.00,1.15
8164.00,1.16
8163.00,1.16
8162.00,1.16
8161.00,1.16
8160.00,1.16
8159.00,1.16
8158.00,1.16
8157.00,1.17
8156.00,1.17
8155.00,1.17
8154.00,1.17
8153.00,1.17
8152.00,1.17
8151.00,1.17
8150.00,1.17
8149.00,1.17
8148.00,1.17
8147.00,1.17
8146.00,1.17
8145.00,1.17
8144.00,1.17
8143.00,1.17
8142.00,1.17
8141.00,1.17
8140.00,1.17
8139.00,1.17
8138.00,1.17
8137.00,1.17
8136.00,1.17
8135.00,1.17
8134.00,1.18
8133.00,1.18
8132.00,1.18
8131.00,1.18
8130.00,1.18
8129.00,1.18
8128.00,1.18
8127.00,1.18
8126.00,1.18
8125.00,1.18
8124.00,1.19
8123.00,1.19
8122.00,1.19
8121.00,1.19
8120.00,1.19
8119.00,1.18
8118.00,1.18
8117.00,1.18
8116.00,1.18
8115.00,1.18
8114.00,1.18
8113.00,1.18
8112.00,1.18
8111.00,1.18
8110.00,1.18
8109.00,1.18
8108.00,1.18
8107.00,1.18
8106.00,1.18
8105.00,1.19
8104.00,1.19
8103.00,1.19
8102.00,1.19
8101.00,1.19
8100.00,1.19
8099.00,1.19
8098.00,1.19
8097.00,1.19
8096.00,1.19
8095.00,1.19
8094.00,1.19
8093.00,1.18
8092.00,1.18
8091.00,1.18
8090.00,1.18
8089.00,1.18
8088.00,1.18
8087.00,1.18
8086.00,1.18
8085.00,1.18
8084.00,1.18
8083.00,1.18
8082.00,1.18
8081.00,1.18
8080.00,1.18
8079.00,1.18
8078.00,1.18
8077.00,1.18
8076.00,1.18
8075.00,1.19
8074.00,1.19
8073.00,1.19
8072.00,1.19
8071.00,1.19
8070.00,1.19
8069.00,1.19
8068.00,1.19
8067.00,1.19
8066.00,1.19
8065.00,1.19
8064.00,1.19
8063.00,1.19
8062.00,1.19
8061.00,1.19
8060.00,1.19
8059.00,1.19
8058.00,1.19
8057.00,1.19
8056.00,1.19
8055.00,1.19
8054.00,1.20
8053.00,1.20
8052.00,1.20
8051.00,1.20
8050.00,1.20
8049.00,1.20
8048.00,1.20
8047.00,1.20
8046.00,1.20
8045.00,1.20
8044.00,1.20
8043.00,1.20
8042.00,1.20
8041.00,1.20
8040.00,1.21
8039.00,1.21
8038.00,1.21
8037.00,1.21
8036.00,1.21
8035.00,1.21
8034.00,1.21
8033.00,1.21
8032.00,1.21
8031.00,1.21
8030.00,1.21
8029.00,1.21
8028.00,1.21
8027.00,1.21
8026.00,1.20
8025.00,1.20
8024.00,1.20
8023.00,1.20
8022.00,1.20
8021.00,1.20
8020.00,1.20
8019.00,1.20
8018.00,1.20
8017.00,1.20
8016.00,1.20
8015.00,1.20
8014.00,1.20
8013.00,1.20
8012.00,1.20
8011.00,1.20
8010.00,1.20
8009.00,1.20
8008.00,1.21
8007.00,1.21
8006.00,1.21
8005.00,1.21
8004.00,1.21
8003.00,1.21
8002.00,1.21
8001.00,1.21
8000.00,1.21
7999.00,1.21
7998.00,1.21
7997.00,1.21
7996.00,1.21
7995.00,1.21
7994.00,1.21
7993.00,1.21
7992.00,1.21
7991.00,1.21
7990.00,1.21
7989.00,1.21
7988.00,1.21
7987.00,1.21
7986.00,1.21
7985.00,1.21
7984.00,1.21
7983.00,1.21
7982.00,1.21
7981.00,1.21
7980.00,1.21
7979.00,1.21
7978.00,1.21
7977.00,1.21
7976.00,1.21
7975.00,1.21
7974.00,1.21
7973.00,1.21
7972.00,1.21
7971.00,1.21
7970.00,1.21
7969.00,1.20
7968.00,1.20
7967.00,1.20
7966.00,1.20
7965.00,1.20
7964.00,1.20
7963.00,1.20
7962.00,1.20
7961.00,1.20
7960.00,1.20
7959.00,1.20
7958.00,1.20
7957.00,1.20
7956.00,1.20
7955.00,1.20
7954.00,1.20
7953.00,1.21
7952.00,1.21
7951.00,1.21
7950.00,1.21
7949.00,1.21
7948.00,1.21
7947.00,1.21
7946.00,1.21
7945.00,1.21
7944.00,1.21
7943.00,1.21
7942.00,1.21
7941.00,1.21
7940.00,1.21
7939.00,1.21
7938.00,1.21
7937.00,1.21
7936.00,1.21
7935.00,1.21
7934.00,1.21
7933.00,1.21
7932.00,1.21
7931.00,1.21
7930.00,1.21
7929.00,1.22
7928.00,1.22
7927.00,1.22
7926.00,1.22
7925.00,1.22
7924.00,1.22
7923.00,1.23
7922.00,1.23
7921.00,1.23
7920.00,1.23
7919.00,1.23
7918.00,1.23
7917.00,1.23
7916.00,1.23
7915.00,1.23
7914.00,1.23
7913.00,1.23
7912.00,1.23
7911.00,1.23
7910.00,1.23
7909.00,1.23
7908.00,1.23
7907.00,1.23
7906.00,1.23
7905.00,1.23
7904.00,1.23
7903.00,1.22
7902.00,1.22
7901.00,1.22
7900.00,1.22
7899.00,1.22
7898.00,1.22
7897.00,1.22
7896.00,1.22
7895.00,1.22
7894.00,1.22
7893.00,1.22
7892.00,1.22
7891.00,1.22
7890.00,1.22
7889.00,1.22
7888.00,1.22
7887.00,1.23
7886.00,1.23
7885.00,1.23
7884.00,1.23
7883.00,1.23
7882.00,1.22
7881.00,1.22
7880.00,1.22
7879.00,1.22
7878.00,1.22
7877.00,1.22
7876.00,1.22
7875.00,1.22
7874.00,1.22
7873.00,1.22
7872.00,1.22
7871.00,1.22
7870.00,1.22
7869.00,1.22
7868.00,1.22
7867.00,1.22
7866.00,1.22
7865.00,1.22
7864.00,1.22
7863.00,1.22
7862.00,1.22
7861.00,1.22
7860.00,1.23
7859.00,1.23
7858.00,1.23
7857.00,1.23
7856.00,1.23
7855.00,1.23
7854.00,1.24
7853.00,1.24
7852.00,1.24
7851.00,1.24
7850.00,1.24
7849.00,1.24
7848.00,1.24
7847.00,1.24
7846.00,1.24
7845.00,1.24
7844.00,1.24
7843.00,1.24
7842.00,1.24
7841.00,1.24
7840.00,1.24
7839.00,1.24
7838.00,1.24
7837.00,1.24
7836.00,1.24
7835.00,1.24
7834.00,1.23
7833.00,1.23
7832.00,1.23
7831.00,1.23
7830.00,1.23
7829.00,1.23
7828.00,1.23
7827.00,1.23
7826.00,1.23
7825.00,1.23
7824.00,1.23
7823.00,1.23
7822.00,1.23
7821.00,1.23
7820.00,1.23
7819.00,1.23
7818.00,1.23
7817.00,1.23
7816.00,1.23
7815.00,1.23
7814.00,1.23
7813.00,1.23
7812.00,1.23
7811.00,1.23
7810.00,1.23
7809.00,1.24
7808.00,1.24
7807.00,1.24
7806.00,1.24
7805.00,1.24
7804.00,1.24
7803.00,1.24
7802.00,1.24
7801.00,1.24
7800.00,1.24
7799.00,1.24
7798.00,1.24
7797.00,1.24
7796.00,1.24
7795.00,1.24
7794.00,1.24
7793.00,1.24
7792.00,1.24
7791.00,1.24
7790.00,1.24
7789.00,1.24
7788.00,1.24
7787.00,1.24
7786.00,1.24
7785.00,1.24
7784.00,1.23
7783.00,1.23
7782.00,1.23
7781.00,1.23
7780.00,1.23
7779.00,1.23
7778.00,1.23
7777.00,1.23
7776.00,1.23
7775.00,1.23
7774.00,1.23
7773.00,1.23
7772.00,1.23
7771.00,1.23
7770.00,1.23
7769.00,1.23
7768.00,1.23
7767.00,1.23
7766.00,1.23
7765.00,1.23
7764.00,1.23
7763.00,1.23
7762.00,1.23
7761.00,1.23
7760.00,1.23
7759.00,1.23
7758.00,1.23
7757.00,1.23
7756.00,1.23
7755.00,1.23
7754.00,1.23
7753.00,1.23
7752.00,1.23
7751.00,1.23
7750.00,1.24
7749.00,1.24
7748.00,1.24
7747.00,1.24
7746.00,1.24
7745.00,1.24
7744.00,1.24
7743.00,1.24
7742.00,1.24
7741.00,1.25
7740.00,1.25
7739.00,1.25
7738.00,1.25
7737.00,1.25
7736.00,1.25
7735.00,1.24
7734.00,1.24
7733.00,1.24
7732.00,1.24
7731.00,1.24
7730.00,1.24
7729.00,1.24
7728.00,1.24
7727.00,1.24
7726.00,1.24
7725.00,1.24
7724.00,1.24
7723.00,1.24
7722.00,1.24
7721.00,1.24
7720.00,1.24
7719.00,1.24
7718.00,1.24
7717.00,1.24
7716.00,1.24
7715.00,1.24
7714.00,1.24
7713.00,1.24
7712.00,1.24
7711.00,1.24
7710.00,1.24
7709.00,1.24
7708.00,1.24
7707.00,1.24
7706.00,1.24
7705.00,1.24
7704.00,1.24
7703.00,1.25
7702.00,1.25
7701.00,1.25
7700.00,1.25
7699.00,1.24
7698.00,1.24
7697.00,1.24
7696.00,1.24
7695.00,1.24
7694.00,1.24
7693.00,1.24
7692.00,1.24
7691.00,1.24
7690.00,1.24
7689.00,1.24
7688.00,1.23
7687.00,1.23
7686.00,1.23
7685.00,1.23
7684.00,1.23
7683.00,1.23
7682.00,1.23
7681.00,1.23
7680.00,1.23
7679.00,1.23
7678.00,1.23
7677.00,1.23
7676.00,1.23
7675.00,1.23
7674.00,1.23
7673.00,1.23
7672.00,1.23
7671.00,1.24
7670.00,1.24
7669.00,1.23
7668.00,1.23
7667.00,1.23
7666.00,1.23
7665.00,1.23
7664.00,1.23
7663.00,1.23
7662.00,1.23
7661.00,1.23
7660.00,1.23
7659.00,1.23
7658.00,1.23
7657.00,1.22
7656.00,1.22
7655.00,1.22
7654.00,1.22
7653.00,1.22
7652.00,1.22
7651.00,1.22
7650.00,1.23
7649.00,1.23
7648.00,1.23
7647.00,1.23
7646.00,1.23
7645.00,1.23
7644.00,1.23
7643.00,1.23
7642.00,1.23
7641.00,1.24
7640.00,1.24
7639.00,1.24
7638.00,1.24
7637.00,1.24
7636.00,1.24
7635.00,1.24
7634.00,1.24
7633.00,1.24
7632.00,1.24
7631.00,1.24
7630.00,1.24
7629.00,1.24
7628.00,1.24
7627.00,1.24
7626.00,1.24
7625.00,1.24
7624.00,1.24
7623.00,1.24
7622.00,1.24
7621.00,1.24
7620.00,1.24
7619.00,1.24
7618.00,1.24
7617.00,1.24
7616.00,1.24
7615.00,1.24
7614.00,1.24
7613.00,1.25
7612.00,1.25
7611.00,1.25
7610.00,1.25
7609.00,1.25
7608.00,1.25
7607.00,1.25
7606.00,1.25
7605.00,1.25
7604.00,1.25
7603.00,1.25
7602.00,1.24
7601.00,1.24
7600.00,1.24
7599.00,1.24
7598.00,1.24
7597.00,1.24
7596.00,1.24
7595.00,1.24
7594.00,1.24
7593.00,1.24
7592.00,1.24
7591.00,1.24
7590.00,1.24
7589.00,1.24
7588.00,1.24
7587.00,1.24
7586.00,1.24
7585.00,1.24
7584.00,1.24
7583.00,1.24
7582.00,1.24
7581.00,1.24
7580.00,1.24
7579.00,1.24
7578.00,1.24
7577.00,1.24
7576.00,1.24
7575.00,1.24
7574.00,1.24
7573.00,1.24
7572.00,1.24
7571.00,1.24
7570.00,1.24
7569.00,1.24
7568.00,1.24
7567.00,1.24
7566.00,1.24
7565.00,1.24
7564.00,1.24
7563.00,1.24
7562.00,1.24
7561.00,1.24
7560.00,1.24
7559.00,1.24
7558.00,1.24
7557.00,1.24
7556.00,1.24
7555.00,1.24
7554.00,1.24
7553.00,1.24
7552.00,1.24
7551.00,1.24
7550.00,1.24
7549.00,1.24
7548.00,1.24
7547.00,1.24
7546.00,1.24
7545.00,1.24
7544.00,1.24
7543.00,1.24
7542.00,1.24
7541.00,1.24
7540.00,1.24
7539.00,1.24
7538.00,1.24
7537.00,1.24
7536.00,1.24
7535.00,1.24
7534.00,1.24
7533.00,1.23
7532.00,1.23
7531.00,1.23
7530.00,1.23
7529.00,1.23
7528.00,1.23
7527.00,1.23
7526.00,1.23
7525.00,1.22
7524.00,1.22
7523.00,1.22
7522.00,1.22
7521.00,1.22
7520.00,1.22
7519.00,1.22
7518.00,1.22
7517.00,1.22
7516.00,1.22
7515.00,1.22
7514.00,1.22
7513.00,1.22
7512.00,1.22
7511.00,1.22
7510.00,1.22
7509.00,1.22
7508.00,1.22
7507.00,1.22
7506.00,1.22
7505.00,1.22
7504.00,1.22
7503.00,1.22
7502.00,1.22
7501.00,1.22
7500.00,1.22
7499.00,1.22
7498.00,1.22
7497.00,1.22
7496.00,1.22
7495.00,1.22
7494.00,1.22
7493.00,1.22
7492.00,1.22
7491.00,1.22
7490.00,1.22
7489.00,1.22
7488.00,1.22
7487.00,1.22
7486.00,1.22
7485.00,1.22
7484.00,1.22
7483.00,1.22
7482.00,1.22
7481.00,1.22
7480.00,1.22
7479.00,1.22
7478.00,1.22
7477.00,1.22
7476.00,1.22
7475.00,1.22
7474.00,1.22
7473.00,1.22
7472.00,1.22
7471.00,1.22
7470.00,1.22
7469.00,1.22
7468.00,1.22
7467.00,1.22
7466.00,1.22
7465.00,1.22
7464.00,1.22
7463.00,1.22
7462.00,1.22
7461.00,1.22
7460.00,1.22
7459.00,1.22
7458.00,1.22
7457.00,1.22
7456.00,1.21
7455.00,1.21
7454.00,1.21
7453.00,1.21
7452.00,1.21
7451.00,1.21
7450.00,1.21
7449.00,1.21
7448.00,1.21
7447.00,1.21
7446.00,1.21
7445.00,1.21
7444.00,1.21
7443.00,1.21
7442.00,1.21
7441.00,1.21
7440.00,1.20
7439.00,1.20
7438.00,1.20
7437.00,1.20
7436.00,1.20
7435.00,1.20
7434.00,1.20
7433.00,1.20
7432.00,1.19
7431.00,1.19
7430.00,1.19
7429.00,1.19
7428.00,1.19
7427.00,1.19
7426.00,1.19
7425.00,1.19
7424.00,1.19
7423.00,1.19
7422.00,1.18
7421.00,1.18
7420.00,1.18
7419.00,1.18
7418.00,1.18
7417.00,1.18
7416.00,1.18
7415.00,1.18
7414.00,1.18
7413.00,1.18
7412.00,1.17
7411.00,1.17
7410.00,1.17
7409.00,1.17
7408.00,1.17
7407.00,1.17
7406.00,1.17
7405.00,1.17
7404.00,1.17
7403.00,1.17
7402.00,1.17
7401.00,1.17
7400.00,1.17
7399.00,1.17
7398.00,1.17
7397.00,1.17
7396.00,1.17
7395.00,1.17
7394.00,1.17
7393.00,1.17
7392.00,1.16
7391.00,1.16
7390.00,1.16
7389.00,1.16
7388.00,1.16
7387.00,1.16
7386.00,1.16
7385.00,1.16
7384.00,1.16
7383.00,1.16
7382.00,1.16
7381.00,1.16
7380.00,1.15
7379.00,1.15
7378.00,1.15
7377.00,1.15
7376.00,1.15
7375.00,1.15
7374.00,1.15
7373.00,1.15
7372.00,1.15
7371.00,1.15
7370.00,1.15
7369.00,1.15
7368.00,1.15
7367.00,1.15
7366.00,1.14
7365.00,1.14
7364.00,1.14
7363.00,1.14
7362.00,1.14
7361.00,1.14
7360.00,1.14
7359.00,1.14
7358.00,1.14
7357.00,1.14
7356.00,1.14
7355.00,1.14
7354.00,1.14
7353.00,1.14
7352.00,1.15
7351.00,1.15
7350.00,1.15
7349.00,1.15
7348.00,1.15
7347.00,1.15
7346.00,1.15
7345.00,1.15
7344.00,1.15
7343.00,1.15
7342.00,1.15
7341.00,1.15
7340.00,1.15
7339.00,1.15
7338.00,1.15
7337.00,1.14
7336.00,1.14
7335.00,1.14
7334.00,1.14
7333.00,1.14
7332.00,1.14
7331.00,1.14
7330.00,1.14
7329.00,1.14
7328.00,1.14
7327.00,1.14
7326.00,1.14
7325.00,1.13
7324.00,1.13
7323.00,1.13
7322.00,1.13
7321.00,1.13
7320.00,1.13
7319.00,1.13
7318.00,1.13
7317.00,1.13
7316.00,1.13
7315.00,1.13
7314.00,1.13
7313.00,1.13
7312.00,1.13
7311.00,1.13
7310.00,1.13
7309.00,1.13
7308.00,1.13
7307.00,1.13
7306.00,1.13
7305.00,1.13
7304.00,1.13
7303.00,1.13
7302.00,1.13
7301.00,1.13
7300.00,1.13
7299.00,1.13
7298.00,1.13
7297.00,1.13
7296.00,1.13
7295.00,1.12
7294.00,1.12
7293.00,1.12
7292.00,1.12
7291.00,1.12
7290.00,1.12
7289.00,1.12
7288.00,1.12
7287.00,1.12
7286.00,1.12
7285.00,1.11
7284.00,1.11
7283.00,1.11
7282.00,1.11
7281.00,1.11
7280.00,1.11
7279.00,1.11
7278.00,1.11
7277.00,1.10
7276.00,1.10
7275.00,1.10
7274.00,1.10
7273.00,1.10
7272.00,1.10
7271.00,1.10
7270.00,1.10
7269.00,1.10
7268.00,1.10
7267.00,1.10
7266.00,1.10
7265.00,1.10
7264.00,1.10
7263.00,1.10
7262.00,1.10
7261.00,1.10
7260.00,1.10
7259.00,1.10
7258.00,1.10
7257.00,1.10
7256.00,1.10
7255.00,1.09
7254.00,1.09
7253.00,1.09
7252.00,1.09
7251.00,1.09
7250.00,1.08
7249.00,1.08
7248.00,1.08
7247.00,1.08
7246.00,1.07
7245.00,1.07
7244.00,1.06
7243.00,1.06
7242.00,1.06
7241.00,1.05
7240.00,1.05
7239.00,1.04
7238.00,1.04
7237.00,1.04
7236.00,1.03
7235.00,1.03
7234.00,1.03
7233.00,1.02
7232.00,1.02
7231.00,1.02
7230.00,1.02
7229.00,1.01
7228.00,1.01
7227.00,1.01
7226.00,1.01
7225.00,1.01
7224.00,1.01
7223.00,1.00
7222.00,1.00
7221.00,1.00
7220.00,1.00
7219.00,1.00
7218.00,0.99
7217.00,0.99
7216.00,0.99
7215.00,0.99
7214.00,0.99
7213.00,0.98
7212.00,0.98
7211.00,0.98
7210.00,0.98
7209.00,0.97
7208.00,0.97
7207.00,0.97
7206.00,0.97
7205.00,0.96
7204.00,0.96
7203.00,0.96
7202.00,0.96
7201.00,0.95
7200.00,0.95
7199.00,0.95
7198.00,0.95
7197.00,0.94
7196.00,0.94
7195.00,0.94
7194.00,0.94
7193.00,0.93
7192.00,0.93
7191.00,0.93
7190.00,0.93
7189.00,0.92
7188.00,0.92
7187.00,0.92
7186.00,0.92
7185.00,0.92
7184.00,0.91
7183.00,0.91
7182.00,0.91
7181.00,0.91
7180.00,0.90
7179.00,0.90
7178.00,0.90
7177.00,0.90
7176.00,0.89
7175.00,0.89
7174.00,0.89
7173.00,0.89
7172.00,0.88
7171.00,0.88
7170.00,0.88
7169.00,0.88
7168.00,0.87
7167.00,0.87
7166.00,0.87
7165.00,0.87
7164.00,0.87
7163.00,0.86
7162.00,0.86
7161.00,0.86
7160.00,0.86
7159.00,0.86
7158.00,0.86
7157.00,0.85
7156.00,0.85
7155.00,0.85
7154.00,0.85
7153.00,0.85
7152.00,0.85
7151.00,0.84
7150.00,0.84
7149.00,0.84
7148.00,0.84
7147.00,0.84
7146.00,0.84
7145.00,0.83
7144.00,0.83
7143.00,0.83
7142.00,0.83
7141.00,0.83
7140.00,0.83
7139.00,0.82
7138.00,0.82
7137.00,0.82
7136.00,0.82
7135.00,0.82
7134.00,0.81
7133.00,0.81
7132.00,0.81
7131.00,0.81
7130.00,0.80
7129.00,0.80
7128.00,0.80
7127.00,0.80
7126.00,0.79
7125.00,0.79
7124.00,0.79
7123.00,0.78
7122.00,0.78
7121.00,0.78
7120.00,0.77
7119.00,0.77
7118.00,0.77
7117.00,0.76
7116.00,0.76
7115.00,0.76
7114.00,0.76
7113.00,0.75
7112.00,0.75
7111.00,0.75
7110.00,0.75
7109.00,0.74
7108.00,0.74
7107.00,0.74
7106.00,0.74
7105.00,0.73
7104.00,0.73
7103.00,0.73
7102.00,0.73
7101.00,0.73
7100.00,0.72
7099.00,0.72
7098.00,0.72
7097.00,0.72
7096.00,0.72
7095.00,0.72
7094.00,0.71
7093.00,0.71
7092.00,0.71
7091.00,0.71
7090.00,0.71
7089.00,0.71
7088.00,0.71
7087.00,0.70
7086.00,0.70
7085.00,0.70
7084.00,0.70
7083.00,0.70
7082.00,0.69
7081.00,0.69
7080.00,0.69
7079.00,0.69
7078.00,0.69
7077.00,0.68
7076.00,0.68
7075.00,0.68
7074.00,0.68
7073.00,0.67
7072.00,0.67
7071.00,0.67
7070.00,0.67
7069.00,0.67
7068.00,0.67
7067.00,0.67
7066.00,0.67
7065.00,0.66
7064.00,0.66
7063.00,0.66
7062.00,0.66
7061.00,0.66
7060.00,0.66
7059.00,0.66
7058.00,0.66
7057.00,0.66
7056.00,0.66
7055.00,0.66
7054.00,0.66
7053.00,0.66
7052.00,0.66
7051.00,0.66
7050.00,0.65
7049.00,0.65
7048.00,0.65
7047.00,0.65
7046.00,0.65
7045.00,0.64
7044.00,0.64
7043.00,0.64
7042.00,0.64
7041.00,0.64
7040.00,0.63
7039.00,0.63
7038.00,0.63
7037.00,0.63
7036.00,0.63
7035.00,0.63
7034.00,0.63
7033.00,0.63
7032.00,0.63
7031.00,0.63
7030.00,0.63
7029.00,0.63
7028.00,0.63
7027.00,0.63
7026.00,0.63
7025.00,0.63
7024.00,0.63
7023.00,0.63
7022.00,0.63
7021.00,0.63
7020.00,0.63
7019.00,0.63
7018.00,0.62
7017.00,0.62
7016.00,0.62
7015.00,0.62
7014.00,0.62
7013.00,0.62
7012.00,0.62
7011.00,0.62
7010.00,0.62
7009.00,0.61
7008.00,0.61
7007.00,0.61
7006.00,0.61
7005.00,0.61
7004.00,0.61
7003.00,0.61
7002.00,0.61
7001.00,0.61
7000.00,0.61
6999.00,0.61
6998.00,0.61
6997.00,0.60
6996.00,0.60
6995.00,0.60
6994.00,0.60
6993.00,0.60
6992.00,0.60
6991.00,0.60
6990.00,0.60
6989.00,0.60
6988.00,0.60
6987.00,0.60
6986.00,0.60
6985.00,0.60
6984.00,0.60
6983.00,0.60
6982.00,0.60
6981.00,0.60
6980.00,0.59
6979.00,0.59
6978.00,0.59
6977.00,0.59
6976.00,0.59
6975.00,0.59
6974.00,0.59
6973.00,0.59
6972.00,0.59
6971.00,0.59
6970.00,0.59
6969.00,0.59
6968.00,0.59
6967.00,0.59
6966.00,0.59
6965.00,0.59
6964.00,0.59
6963.00,0.58
6962.00,0.58
6961.00,0.58
6960.00,0.58
6959.00,0.58
6958.00,0.58
6957.00,0.58
6956.00,0.58
6955.00,0.58
6954.00,0.58
6953.00,0.58
6952.00,0.58
6951.00,0.58
6950.00,0.58
6949.00,0.58
6948.00,0.58
6947.00,0.58
6946.00,0.57
6945.00,0.57
6944.00,0.57
6943.00,0.57
6942.00,0.57
6941.00,0.57
6940.00,0.57
6939.00,0.57
6938.00,0.57
6937.00,0.57
6936.00,0.57
6935.00,0.57
6934.00,0.57
6933.00,0.57
6932.00,0.57
6931.00,0.57
6930.00,0.57
6929.00,0.57
6928.00,0.57
6927.00,0.57
6926.00,0.57
6925.00,0.57
6924.00,0.56
6923.00,0.56
6922.00,0.56
6921.00,0.56
6920.00,0.56
6919.00,0.56
6918.00,0.56
6917.00,0.56
6916.00,0.56
6915.00,0.56
6914.00,0.56
6913.00,0.56
6912.00,0.56
6911.00,0.56
6910.00,0.56
6909.00,0.56
6908.00,0.56
6907.00,0.56
6906.00,0.56
6905.00,0.56
6904.00,0.56
6903.00,0.56
6902.00,0.56
6901.00,0.56
6900.00,0.56
6899.00,0.56
6898.00,0.56
6897.00,0.56
6896.00,0.56
6895.00,0.56
6894.00,0.56
6893.00,0.56
6892.00,0.56
6891.00,0.56
6890.00,0.56
6889.00,0.56
6888.00,0.56
6887.00,0.56
6886.00,0.56
6885.00,0.56
6884.00,0.56
6883.00,0.56
6882.00,0.56
6881.00,0.56
6880.00,0.56
6879.00,0.56
6878.00,0.56
6877.00,0.56
6876.00,0.56
6875.00,0.56
6874.00,0.56
6873.00,0.56
6872.00,0.56
6871.00,0.55
6870.00,0.55
6869.00,0.55
6868.00,0.55
6867.00,0.55
6866.00,0.55
6865.00,0.55
6864.00,0.55
6863.00,0.55
6862.00,0.55
6861.00,0.55
6860.00,0.56
6859.00,0.56
6858.00,0.56
6857.00,0.56
6856.00,0.56
6855.00,0.56
6854.00,0.56
6853.00,0.56
6852.00,0.56
6851.00,0.56
6850.00,0.56
6849.00,0.56
6848.00,0.56
6847.00,0.56
6846.00,0.56
6845.00,0.56
6844.00,0.56
6843.00,0.56
6842.00,0.56
6841.00,0.56
6840.00,0.56
6839.00,0.56
6838.00,0.56
6837.00,0.56
6836.00,0.56
6835.00,0.56
6834.00,0.56
6833.00,0.56
6832.00,0.56
6831.00,0.56
6830.00,0.56
6829.00,0.56
6828.00,0.56
6827.00,0.56
6826.00,0.56
6825.00,0.56
6824.00,0.57
6823.00,0.57
6822.00,0.57
6821.00,0.57
6820.00,0.57
6819.00,0.57
6818.00,0.57
6817.00,0.57
6816.00,0.57
6815.00,0.57
6814.00,0.57
6813.00,0.57
6812.00,0.57
6811.00,0.58
6810.00,0.58
6809.00,0.58
6808.00,0.58
6807.00,0.58
6806.00,0.58
6805.00,0.58
6804.00,0.58
6803.00,0.58
6802.00,0.58
6801.00,0.58
6800.00,0.58
6799.00,0.58
6798.00,0.58
6797.00,0.58
6796.00,0.58
6795.00,0.57
6794.00,0.57
6793.00,0.57
6792.00,0.57
6791.00,0.57
6790.00,0.57
6789.00,0.57
6788.00,0.57
6787.00,0.58
6786.00,0.58
6785.00,0.58
6784.00,0.58
6783.00,0.58
6782.00,0.58
6781.00,0.58
6780.00,0.58
6779.00,0.58
6778.00,0.58
6777.00,0.59
6776.00,0.59
6775.00,0.59
6774.00,0.59
6773.00,0.59
6772.00,0.59
6771.00,0.59
6770.00,0.59
6769.00,0.59
6768.00,0.59
6767.00,0.59
6766.00,0.59
6765.00,0.59
6764.00,0.59
6763.00,0.59
6762.00,0.59
6761.00,0.59
6760.00,0.59
6759.00,0.59
6758.00,0.59
6757.00,0.59
6756.00,0.59
6755.00,0.59
6754.00,0.59
6753.00,0.59
6752.00,0.59
6751.00,0.59
6750.00,0.59
6749.00,0.59
6748.00,0.59
6747.00,0.59
6746.00,0.59
6745.00,0.59
6744.00,0.59
6743.00,0.59
6742.00,0.59
6741.00,0.59
6740.00,0.59
6739.00,0.60
6738.00,0.60
6737.00,0.60
6736.00,0.60
6735.00,0.60
6734.00,0.60
6733.00,0.60
6732.00,0.60
6731.00,0.60
6730.00,0.61
6729.00,0.61
6728.00,0.61
6727.00,0.61
6726.00,0.61
6725.00,0.61
6724.00,0.61
6723.00,0.61
6722.00,0.62
6721.00,0.62
6720.00,0.62
6719.00,0.62
6718.00,0.62
6717.00,0.62
6716.00,0.62
6715.00,0.62
6714.00,0.62
6713.00,0.63
6712.00,0.63
6711.00,0.63
6710.00,0.63
6709.00,0.63
6708.00,0.63
6707.00,0.63
6706.00,0.63
6705.00,0.63
6704.00,0.63
6703.00,0.63
6702.00,0.63
6701.00,0.63
6700.00,0.63
6699.00,0.63
6698.00,0.63
6697.00,0.63
6696.00,0.63
6695.00,0.63
6694.00,0.63
6693.00,0.63
6692.00,0.63
6691.00,0.63
6690.00,0.64
6689.00,0.64
6688.00,0.64
6687.00,0.64
6686.00,0.64
6685.00,0.64
6684.00,0.64
6683.00,0.64
6682.00,0.64
6681.00,0.64
6680.00,0.64
6679.00,0.64
6678.00,0.64
6677.00,0.64
6676.00,0.64
6675.00,0.64
6674.00,0.64
6673.00,0.64
6672.00,0.64
6671.00,0.64
6670.00,0.64
6669.00,0.65
6668.00,0.65
6667.00,0.65
6666.00,0.65
6665.00,0.65
6664.00,0.65
6663.00,0.65
6662.00,0.65
6661.00,0.65
6660.00,0.65
6659.00,0.65
6658.00,0.66
6657.00,0.66
6656.00,0.66
6655.00,0.66
6654.00,0.66
6653.00,0.66
6652.00,0.66
6651.00,0.67
6650.00,0.67
6649.00,0.67
6648.00,0.67
6647.00,0.67
6646.00,0.67
6645.00,0.67
6644.00,0.67
6643.00,0.68
6642.00,0.68
6641.00,0.68
6640.00,0.68
6639.00,0.68
6638.00,0.68
6637.00,0.68
6636.00,0.68
6635.00,0.68
6634.00,0.68
6633.00,0.68
6632.00,0.68
6631.00,0.68
6630.00,0.68
6629.00,0.68
6628.00,0.68
6627.00,0.68
6626.00,0.68
6625.00,0.68
6624.00,0.68
6623.00,0.69
6622.00,0.69
6621.00,0.69
6620.00,0.69
6619.00,0.69
6618.00,0.69
6617.00,0.69
6616.00,0.70
6615.00,0.70
6614.00,0.70
6613.00,0.70
6612.00,0.70
6611.00,0.70
6610.00,0.70
6609.00,0.70
6608.00,0.70
6607.00,0.71
6606.00,0.71
6605.00,0.71
6604.00,0.71
6603.00,0.71
6602.00,0.71
6601.00,0.71
6600.00,0.71
6599.00,0.71
6598.00,0.71
6597.00,0.71
6596.00,0.71
6595.00,0.71
6594.00,0.72
6593.00,0.72
6592.00,0.72
6591.00,0.72
6590.00,0.72
6589.00,0.72
6588.00,0.72
6587.00,0.72
6586.00,0.72
6585.00,0.72
6584.00,0.73
6583.00,0.73
6582.00,0.73
6581.00,0.73
6580.00,0.73
6579.00,0.73
6578.00,0.73
6577.00,0.73
6576.00,0.73
6575.00,0.74
6574.00,0.74
6573.00,0.74
6572.00,0.74
6571.00,0.74
6570.00,0.74
6569.00,0.74
6568.00,0.74
6567.00,0.74
6566.00,0.74
6565.00,0.74
6564.00,0.74
6563.00,0.74
6562.00,0.75
6561.00,0.75
6560.00,0.75
6559.00,0.75
6558.00,0.75
6557.00,0.75
6556.00,0.75
6555.00,0.75
6554.00,0.75
6553.00,0.75
6552.00,0.75
6551.00,0.75
6550.00,0.75
6549.00,0.75
6548.00,0.75
6547.00,0.75
6546.00,0.75
6545.00,0.75
6544.00,0.75
6543.00,0.75
6542.00,0.75
6541.00,0.75
6540.00,0.75
6539.00,0.75
6538.00,0.75
6537.00,0.76
6536.00,0.76
6535.00,0.76
6534.00,0.76
6533.00,0.76
6532.00,0.76
6531.00,0.76
6530.00,0.76
6529.00,0.77
6528.00,0.77
6527.00,0.77
6526.00,0.77
6525.00,0.77
6524.00,0.77
6523.00,0.77
6522.00,0.77
6521.00,0.77
6520.00,0.77
6519.00,0.77
6518.00,0.77
6517.00,0.77
6516.00,0.77
6515.00,0.77
6514.00,0.77
6513.00,0.77
6512.00,0.77
6511.00,0.77
6510.00,0.77
6509.00,0.77
6508.00,0.77
6507.00,0.77
6506.00,0.77
6505.00,0.77
6504.00,0.78
6503.00,0.78
6502.00,0.78
6501.00,0.78
6500.00,0.78
6499.00,0.78
6498.00,0.78
6497.00,0.78
6496.00,0.78
6495.00,0.78
6494.00,0.78
6493.00,0.78
6492.00,0.78
6491.00,0.78
6490.00,0.78
6489.00,0.78
6488.00,0.79
6487.00,0.79
6486.00,0.79
6485.00,0.79
6484.00,0.79
6483.00,0.79
6482.00,0.79
6481.00,0.79
6480.00,0.79
6479.00,0.79
6478.00,0.79
6477.00,0.79
6476.00,0.79
6475.00,0.79
6474.00,0.79
6473.00,0.79
6472.00,0.80
6471.00,0.80
6470.00,0.80
6469.00,0.80
6468.00,0.80
6467.00,0.80
6466.00,0.80
6465.00,0.80
6464.00,0.80
6463.00,0.80
6462.00,0.80
6461.00,0.80
6460.00,0.80
6459.00,0.80
6458.00,0.80
6457.00,0.80
6456.00,0.80
6455.00,0.80
6454.00,0.80
6453.00,0.80
6452.00,0.80
6451.00,0.80
6450.00,0.80
6449.00,0.80
6448.00,0.80
6447.00,0.80
6446.00,0.80
6445.00,0.80
6444.00,0.80
6443.00,0.80
6442.00,0.80
6441.00,0.81
6440.00,0.81
6439.00,0.81
6438.00,0.81
6437.00,0.81
6436.00,0.81
6435.00,0.81
6434.00,0.81
6433.00,0.81
6432.00,0.81
6431.00,0.81
6430.00,0.81
6429.00,0.81
6428.00,0.81
6427.00,0.82
6426.00,0.82
6425.00,0.82
6424.00,0.82
6423.00,0.82
6422.00,0.82
6421.00,0.82
6420.00,0.82
6419.00,0.82
6418.00,0.82
6417.00,0.82
6416.00,0.82
6415.00,0.82
6414.00,0.82
6413.00,0.82
6412.00,0.82
6411.00,0.82
6410.00,0.82
6409.00,0.82
6408.00,0.82
6407.00,0.82
6406.00,0.82
6405.00,0.81
6404.00,0.81
6403.00,0.81
6402.00,0.81
6401.00,0.81
6400.00,0.81
6399.00,0.81
6398.00,0.82
6397.00,0.82
6396.00,0.82
6395.00,0.82
6394.00,0.82
6393.00,0.82
6392.00,0.82
6391.00,0.82
6390.00,0.82
6389.00,0.82
6388.00,0.82
6387.00,0.82
6386.00,0.82
6385.00,0.82
6384.00,0.82
6383.00,0.83
6382.00,0.83
6381.00,0.83
6380.00,0.83
6379.00,0.83
6378.00,0.83
6377.00,0.83
6376.00,0.83
6375.00,0.83
6374.00,0.83
6373.00,0.83
6372.00,0.83
6371.00,0.83
6370.00,0.83
6369.00,0.83
6368.00,0.83
6367.00,0.84
6366.00,0.84
6365.00,0.84
6364.00,0.84
6363.00,0.84
6362.00,0.84
6361.00,0.84
6360.00,0.84
6359.00,0.84
6358.00,0.85
6357.00,0.85
6356.00,0.85
6355.00,0.85
6354.00,0.85
6353.00,0.85
6352.00,0.85
6351.00,0.85
6350.00,0.85
6349.00,0.85
6348.00,0.85
6347.00,0.85
6346.00,0.85
6345.00,0.85
6344.00,0.86
6343.00,0.86
6342.00,0.86
6341.00,0.86
6340.00,0.86
6339.00,0.86
6338.00,0.86
6337.00,0.86
6336.00,0.86
6335.00,0.86
6334.00,0.86
6333.00,0.86
6332.00,0.86
6331.00,0.86
6330.00,0.86
6329.00,0.86
6328.00,0.86
6327.00,0.86
6326.00,0.86
6325.00,0.86
6324.00,0.86
6323.00,0.86
6322.00,0.86
6321.00,0.86
6320.00,0.86
6319.00,0.86
6318.00,0.87
6317.00,0.87
6316.00,0.87
6315.00,0.87
6314.00,0.87
6313.00,0.87
6312.00,0.87
6311.00,0.87
6310.00,0.87
6309.00,0.88
6308.00,0.88
6307.00,0.88
6306.00,0.88
6305.00,0.88
6304.00,0.88
6303.00,0.88
6302.00,0.89
6301.00,0.89
6300.00,0.89
6299.00,0.89
6298.00,0.89
6297.00,0.89
6296.00,0.89
6295.00,0.89
6294.00,0.89
6293.00,0.89
6292.00,0.90
6291.00,0.90
6290.00,0.90
6289.00,0.90
6288.00,0.90
6287.00,0.90
6286.00,0.90
6285.00,0.90
6284.00,0.90
6283.00,0.90
6282.00,0.90
6281.00,0.90
6280.00,0.91
6279.00,0.91
6278.00,0.91
6277.00,0.91
6276.00,0.91
6275.00,0.91
6274.00,0.91
6273.00,0.91
6272.00,0.91
6271.00,0.91
6270.00,0.91
6269.00,0.91
6268.00,0.91
6267.00,0.91
6266.00,0.92
6265.00,0.92
6264.00,0.92
6263.00,0.92
6262.00,0.92
6261.00,0.92
6260.00,0.92
6259.00,0.92
6258.00,0.92
6257.00,0.92
6256.00,0.92
6255.00,0.92
6254.00,0.92
6253.00,0.92
6252.00,0.92
6251.00,0.92
6250.00,0.92
6249.00,0.93
6248.00,0.93
6247.00,0.93
6246.00,0.93
6245.00,0.93
6244.00,0.93
6243.00,0.93
6242.00,0.93
6241.00,0.93
6240.00,0.94
6239.00,0.94
6238.00,0.94
6237.00,0.94
6236.00,0.94
6235.00,0.94
6234.00,0.95
6233.00,0.95
6232.00,0.95
6231.00,0.95
6230.00,0.95
6229.00,0.95
6228.00,0.95
6227.00,0.95
6226.00,0.96
6225.00,0.96
6224.00,0.96
6223.00,0.96
6222.00,0.96
6221.00,0.96
6220.00,0.96
6219.00,0.96
6218.00,0.96
6217.00,0.97
6216.00,0.97
6215.00,0.97
6214.00,0.97
6213.00,0.97
6212.00,0.97
6211.00,0.97
6210.00,0.97
6209.00,0.97
6208.00,0.98
6207.00,0.98
6206.00,0.98
6205.00,0.98
6204.00,0.98
6203.00,0.98
6202.00,0.98
6201.00,0.98
6200.00,0.98
6199.00,0.98
6198.00,0.98
6197.00,0.98
6196.00,0.98
6195.00,0.99
6194.00,0.99
6193.00,0.99
6192.00,0.99
6191.00,0.99
6190.00,0.99
6189.00,0.99
6188.00,0.99
6187.00,0.99
6186.00,1.00
6185.00,1.00
6184.00,1.00
6183.00,1.00
6182.00,1.00
6181.00,1.00
6180.00,1.00
6179.00,1.00
6178.00,1.00
6177.00,1.01
6176.00,1.01
6175.00,1.01
6174.00,1.01
6173.00,1.01
6172.00,1.01
6171.00,1.01
6170.00,1.02
6169.00,1.02
6168.00,1.02
6167.00,1.02
6166.00,1.02
6165.00,1.02
6164.00,1.02
6163.00,1.02
6162.00,1.03
6161.00,1.03
6160.00,1.03
6159.00,1.03
6158.00,1.03
6157.00,1.03
6156.00,1.03
6155.00,1.03
6154.00,1.03
6153.00,1.04
6152.00,1.04
6151.00,1.04
6150.00,1.04
6149.00,1.04
6148.00,1.04
6147.00,1.04
6146.00,1.04
6145.00,1.04
6144.00,1.05
6143.00,1.05
6142.00,1.05
6141.00,1.05
6140.00,1.05
6139.00,1.05
6138.00,1.06
6137.00,1.06
6136.00,1.06
6135.00,1.06
6134.00,1.06
6133.00,1.06
6132.00,1.07
6131.00,1.07
6130.00,1.07
6129.00,1.07
6128.00,1.07
6127.00,1.07
6126.00,1.08
6125.00,1.08
6124.00,1.08
6123.00,1.08
6122.00,1.08
6121.00,1.08
6120.00,1.08
6119.00,1.08
6118.00,1.09
6117.00,1.09
6116.00,1.09
6115.00,1.09
6114.00,1.09
6113.00,1.09
6112.00,1.09
6111.00,1.09
6110.00,1.09
6109.00,1.09
6108.00,1.09
6107.00,1.09
6106.00,1.09
6105.00,1.09
6104.00,1.09
6103.00,1.09
6102.00,1.09
6101.00,1.10
6100.00,1.10
6099.00,1.10
6098.00,1.10
6097.00,1.10
6096.00,1.10
6095.00,1.10
6094.00,1.10
6093.00,1.10
6092.00,1.10
6091.00,1.10
6090.00,1.10
6089.00,1.11
6088.00,1.11
6087.00,1.11
6086.00,1.11
6085.00,1.11
6084.00,1.11
6083.00,1.11
6082.00,1.11
6081.00,1.12
6080.00,1.12
6079.00,1.12
6078.00,1.12
6077.00,1.12
6076.00,1.12
6075.00,1.12
6074.00,1.12
6073.00,1.13
6072.00,1.13
6071.00,1.13
6070.00,1.13
6069.00,1.13
6068.00,1.13
6067.00,1.13
6066.00,1.13
6065.00,1.13
6064.00,1.13
6063.00,1.13
6062.00,1.13
6061.00,1.14
6060.00,1.14
6059.00,1.14
6058.00,1.14
6057.00,1.14
6056.00,1.14
6055.00,1.14
6054.00,1.14
6053.00,1.14
6052.00,1.14
6051.00,1.14
6050.00,1.14
6049.00,1.14
6048.00,1.14
6047.00,1.14
6046.00,1.14
6045.00,1.15
6044.00,1.15
6043.00,1.15
6042.00,1.15
6041.00,1.15
6040.00,1.15
6039.00,1.15
6038.00,1.15
6037.00,1.15
6036.00,1.15
6035.00,1.15
6034.00,1.16
6033.00,1.16
6032.00,1.16
6031.00,1.16
6030.00,1.16
6029.00,1.16
6028.00,1.16
6027.00,1.16
6026.00,1.16
6025.00,1.16
6024.00,1.16
6023.00,1.16
6022.00,1.16
6021.00,1.16
6020.00,1.16
6019.00,1.16
6018.00,1.16
6017.00,1.16
6016.00,1.16
6015.00,1.16
6014.00,1.16
6013.00,1.16
6012.00,1.16
6011.00,1.16
6010.00,1.16
6009.00,1.16
6008.00,1.16
6007.00,1.16
6006.00,1.16
6005.00,1.16
6004.00,1.16
6003.00,1.15
6002.00,1.15
6001.00,1.15
6000.00,1.15
5999.00,1.15
5998.00,1.15
5997.00,1.15
5996.00,1.15
5995.00,1.15
5994.00,1.15
5993.00,1.15
5992.00,1.15
5991.00,1.15
5990.00,1.15
5989.00,1.14
5988.00,1.14
5987.00,1.14
5986.00,1.14
5985.00,1.14
5984.00,1.14
5983.00,1.13
5982.00,1.13
5981.00,1.13
5980.00,1.13
5979.00,1.12
5978.00,1.12
5977.00,1.12
5976.00,1.11
5975.00,1.11
5974.00,1.11
5973.00,1.10
5972.00,1.10
5971.00,1.09
5970.00,1.09
5969.00,1.08
5968.00,1.08
5967.00,1.07
5966.00,1.07
5965.00,1.06
5964.00,1.06
5963.00,1.05
5962.00,1.04
5961.00,1.04
5960.00,1.03
5959.00,1.02
5958.00,1.01
5957.00,1.01
5956.00,1.00
5955.00,0.99
5954.00,0.99
5953.00,0.98
5952.00,0.97
5951.00,0.97
5950.00,0.96
5949.00,0.95
5948.00,0.95
5947.00,0.94
5946.00,0.94
5945.00,0.94
5944.00,0.93
5943.00,0.93
5942.00,0.93
5941.00,0.93
5940.00,0.92
5939.00,0.92
5938.00,0.92
5937.00,0.92
5936.00,0.92
5935.00,0.92
5934.00,0.92
5933.00,0.92
5932.00,0.92
5931.00,0.91
5930.00,0.91
5929.00,0.91
5928.00,0.91
5927.00,0.91
5926.00,0.91
5925.00,0.91
5924.00,0.91
5923.00,0.91
5922.00,0.90
5921.00,0.90
5920.00,0.90
5919.00,0.90
5918.00,0.90
5917.00,0.89
5916.00,0.89
5915.00,0.89
5914.00,0.89
5913.00,0.89
5912.00,0.88
5911.00,0.88
5910.00,0.88
5909.00,0.88
5908.00,0.88
5907.00,0.88
5906.00,0.87
5905.00,0.87
5904.00,0.87
5903.00,0.87
5902.00,0.87
5901.00,0.87
5900.00,0.87
5899.00,0.87
5898.00,0.87
5897.00,0.87
5896.00,0.87
5895.00,0.87
5894.00,0.87
5893.00,0.87
5892.00,0.88
5891.00,0.88
5890.00,0.88
5889.00,0.88
5888.00,0.88
5887.00,0.89
5886.00,0.89
5885.00,0.89
5884.00,0.89
5883.00,0.90
5882.00,0.90
5881.00,0.90
5880.00,0.90
5879.00,0.91
5878.00,0.91
5877.00,0.91
5876.00,0.92
5875.00,0.92
5874.00,0.92
5873.00,0.92
5872.00,0.93
5871.00,0.93
5870.00,0.93
5869.00,0.93
5868.00,0.93
5867.00,0.94
5866.00,0.94
5865.00,0.94
5864.00,0.94
5863.00,0.94
5862.00,0.94
5861.00,0.94
5860.00,0.94
5859.00,0.95
5858.00,0.95
5857.00,0.95
5856.00,0.95
5855.00,0.95
5854.00,0.95
5853.00,0.95
5852.00,0.95
5851.00,0.95
5850.00,0.95
5849.00,0.95
5848.00,0.96
5847.00,0.96
5846.00,0.96
5845.00,0.96
5844.00,0.96
5843.00,0.96
5842.00,0.96
5841.00,0.96
5840.00,0.96
5839.00,0.96
5838.00,0.96
5837.00,0.96
5836.00,0.96
5835.00,0.96
5834.00,0.96
5833.00,0.96
5832.00,0.96
5831.00,0.96
5830.00,0.96
5829.00,0.96
5828.00,0.96
5827.00,0.96
5826.00,0.96
5825.00,0.96
5824.00,0.96
5823.00,0.96
5822.00,0.96
5821.00,0.96
5820.00,0.96
5819.00,0.96
5818.00,0.96
5817.00,0.96
5816.00,0.96
5815.00,0.96
5814.00,0.96
5813.00,0.96
5812.00,0.96
5811.00,0.96
5810.00,0.96
5809.00,0.96
5808.00,0.96
5807.00,0.96
5806.00,0.96
5805.00,0.96
5804.00,0.96
5803.00,0.96
5802.00,0.96
5801.00,0.96
5800.00,0.96
5799.00,0.96
5798.00,0.96
5797.00,0.96
5796.00,0.95
5795.00,0.95
5794.00,0.95
5793.00,0.95
5792.00,0.95
5791.00,0.94
5790.00,0.94
5789.00,0.94
5788.00,0.93
5787.00,0.93
5786.00,0.93
5785.00,0.93
5784.00,0.92
5783.00,0.92
5782.00,0.92
5781.00,0.92
5780.00,0.92
5779.00,0.91
5778.00,0.91
5777.00,0.91
5776.00,0.91
5775.00,0.91
5774.00,0.91
5773.00,0.91
5772.00,0.91
5771.00,0.91
5770.00,0.91
5769.00,0.91
5768.00,0.91
5767.00,0.92
5766.00,0.92
5765.00,0.92
5764.00,0.92
5763.00,0.92
5762.00,0.92
5761.00,0.93
5760.00,0.93
5759.00,0.93
5758.00,0.93
5757.00,0.94
5756.00,0.94
5755.00,0.94
5754.00,0.94
5753.00,0.95
5752.00,0.95
5751.00,0.95
5750.00,0.96
5749.00,0.96
5748.00,0.96
5747.00,0.96
5746.00,0.96
5745.00,0.97
5744.00,0.97
5743.00,0.97
5742.00,0.97
5741.00,0.98
5740.00,0.98
5739.00,0.98
5738.00,0.98
5737.00,0.99
5736.00,0.99
5735.00,0.99
5734.00,0.99
5733.00,1.00
5732.00,1.00
5731.00,1.00
5730.00,1.00
5729.00,1.00
5728.00,1.01
5727.00,1.01
5726.00,1.01
5725.00,1.01
5724.00,1.01
5723.00,1.01
5722.00,1.01
5721.00,1.02
5720.00,1.02
5719.00,1.02
5718.00,1.02
5717.00,1.02
5716.00,1.02
5715.00,1.02
5714.00,1.02
5713.00,1.02
5712.00,1.02
5711.00,1.02
5710.00,1.02
5709.00,1.02
5708.00,1.02
5707.00,1.02
5706.00,1.02
5705.00,1.02
5704.00,1.02
5703.00,1.02
5702.00,1.02
5701.00,1.01
5700.00,1.01
5699.00,1.01
5698.00,1.01
5697.00,1.01
5696.00,1.01
5695.00,1.01
5694.00,1.01
5693.00,1.01
5692.00,1.01
5691.00,1.00
5690.00,1.00
5689.00,1.00
5688.00,1.00
5687.00,1.00
5686.00,1.00
5685.00,1.00
5684.00,1.00
5683.00,1.00
5682.00,1.00
5681.00,0.99
5680.00,0.99
5679.00,0.99
5678.00,0.99
5677.00,0.99
5676.00,0.99
5675.00,0.99
5674.00,0.99
5673.00,0.99
5672.00,0.99
5671.00,0.99
5670.00,0.99
5669.00,0.99
5668.00,0.99
5667.00,0.99
5666.00,0.99
5665.00,1.00
5664.00,1.00
5663.00,1.00
5662.00,1.00
5661.00,1.00
5660.00,1.00
5659.00,1.00
5658.00,1.00
5657.00,1.01
5656.00,1.01
5655.00,1.01
5654.00,1.01
5653.00,1.01
5652.00,1.01
5651.00,1.02
5650.00,1.02
5649.00,1.02
5648.00,1.02
5647.00,1.02
5646.00,1.02
5645.00,1.03
5644.00,1.03
5643.00,1.03
5642.00,1.03
5641.00,1.03
5640.00,1.03
5639.00,1.04
5638.00,1.04
5637.00,1.04
5636.00,1.04
5635.00,1.04
5634.00,1.04
5633.00,1.04
5632.00,1.04
5631.00,1.05
5630.00,1.05
5629.00,1.05
5628.00,1.05
5627.00,1.05
5626.00,1.05
5625.00,1.06
5624.00,1.06
5623.00,1.06
5622.00,1.06
5621.00,1.06
5620.00,1.06
5619.00,1.07
5618.00,1.07
5617.00,1.07
5616.00,1.07
5615.00,1.07
5614.00,1.07
5613.00,1.08
5612.00,1.08
5611.00,1.08
5610.00,1.08
5609.00,1.08
5608.00,1.08
5607.00,1.08
5606.00,1.08
5605.00,1.09
5604.00,1.09
5603.00,1.09
5602.00,1.09
5601.00,1.09
5600.00,1.09
5599.00,1.09
5598.00,1.09
5597.00,1.09
5596.00,1.10
5595.00,1.10
5594.00,1.10
5593.00,1.10
5592.00,1.10
5591.00,1.10
5590.00,1.10
5589.00,1.10
5588.00,1.11
5587.00,1.11
5586.00,1.11
5585.00,1.11
5584.00,1.11
5583.00,1.11
5582.00,1.11
5581.00,1.12
5580.00,1.12
5579.00,1.12
5578.00,1.12
5577.00,1.12
5576.00,1.12
5575.00,1.13
5574.00,1.13
5573.00,1.13
5572.00,1.13
5571.00,1.13
5570.00,1.13
5569.00,1.14
5568.00,1.14
5567.00,1.14
5566.00,1.14
5565.00,1.14
5564.00,1.14
5563.00,1.14
5562.00,1.14
5561.00,1.14
5560.00,1.15
5559.00,1.15
5558.00,1.15
5557.00,1.15
5556.00,1.15
5555.00,1.15
5554.00,1.15
5553.00,1.15
5552.00,1.15
5551.00,1.15
5550.00,1.16
5549.00,1.16
5548.00,1.16
5547.00,1.16
5546.00,1.16
5545.00,1.16
5544.00,1.16
5543.00,1.17
5542.00,1.17
5541.00,1.17
5540.00,1.17
5539.00,1.17
5538.00,1.17
5537.00,1.17
5536.00,1.17
5535.00,1.17
5534.00,1.17
5533.00,1.18
5532.00,1.18
5531.00,1.18
5530.00,1.18
5529.00,1.18
5528.00,1.18
5527.00,1.18
5526.00,1.18
5525.00,1.18
5524.00,1.18
5523.00,1.18
5522.00,1.18
5521.00,1.18
5520.00,1.18
5519.00,1.18
5518.00,1.18
5517.00,1.18
5516.00,1.18
5515.00,1.18
5514.00,1.18
5513.00,1.18
5512.00,1.18
5511.00,1.18
5510.00,1.18
5509.00,1.18
5508.00,1.18
5507.00,1.18
5506.00,1.18
5505.00,1.18
5504.00,1.18
5503.00,1.18
5502.00,1.19
5501.00,1.19
5500.00,1.19
5499.00,1.19
5498.00,1.19
5497.00,1.19
5496.00,1.19
5495.00,1.20
5494.00,1.20
5493.00,1.20
5492.00,1.20
5491.00,1.20
5490.00,1.20
5489.00,1.20
5488.00,1.20
5487.00,1.21
5486.00,1.21
5485.00,1.21
5484.00,1.21
5483.00,1.21
5482.00,1.21
5481.00,1.21
5480.00,1.21
5479.00,1.21
5478.00,1.21
5477.00,1.21
5476.00,1.21
5475.00,1.21
5474.00,1.21
5473.00,1.21
5472.00,1.22
5471.00,1.22
5470.00,1.22
5469.00,1.22
5468.00,1.22
5467.00,1.22
5466.00,1.22
5465.00,1.22
5464.00,1.22
5463.00,1.23
5462.00,1.23
5461.00,1.23
5460.00,1.23
5459.00,1.23
5458.00,1.23
5457.00,1.23
5456.00,1.23
5455.00,1.24
5454.00,1.24
5453.00,1.24
5452.00,1.24
5451.00,1.24
5450.00,1.24
5449.00,1.24
5448.00,1.24
5447.00,1.24
5446.00,1.24
5445.00,1.24
5444.00,1.24
5443.00,1.24
5442.00,1.24
5441.00,1.24
5440.00,1.24
5439.00,1.24
5438.00,1.24
5437.00,1.24
5436.00,1.24
5435.00,1.24
5434.00,1.24
5433.00,1.24
5432.00,1.24
5431.00,1.24
5430.00,1.24
5429.00,1.24
5428.00,1.24
5427.00,1.24
5426.00,1.24
5425.00,1.24
5424.00,1.24
5423.00,1.24
5422.00,1.24
5421.00,1.24
5420.00,1.24
5419.00,1.24
5418.00,1.24
5417.00,1.24
5416.00,1.24
5415.00,1.24
5414.00,1.24
5413.00,1.24
5412.00,1.24
5411.00,1.24
5410.00,1.25
5409.00,1.25
5408.00,1.25
5407.00,1.25
5406.00,1.25
5405.00,1.25
5404.00,1.25
5403.00,1.25
5402.00,1.25
5401.00,1.25
5400.00,1.25
5399.00,1.25
5398.00,1.25
5397.00,1.25
5396.00,1.25
5395.00,1.24
5394.00,1.24
5393.00,1.24
5392.00,1.24
5391.00,1.24
5390.00,1.24
5389.00,1.24
5388.00,1.24
5387.00,1.24
5386.00,1.23
5385.00,1.23
5384.00,1.23
5383.00,1.23
5382.00,1.23
5381.00,1.22
5380.00,1.22
5379.00,1.22
5378.00,1.22
5377.00,1.21
5376.00,1.21
5375.00,1.21
5374.00,1.20
5373.00,1.20
5372.00,1.20
5371.00,1.20
5370.00,1.19
5369.00,1.19
5368.00,1.18
5367.00,1.18
5366.00,1.18
5365.00,1.17
5364.00,1.17
5363.00,1.16
5362.00,1.16
5361.00,1.16
5360.00,1.15
5359.00,1.15
5358.00,1.14
5357.00,1.14
5356.00,1.13
5355.00,1.12
5354.00,1.12
5353.00,1.11
5352.00,1.11
5351.00,1.10
5350.00,1.09
5349.00,1.09
5348.00,1.08
5347.00,1.07
5346.00,1.07
5345.00,1.06
5344.00,1.05
5343.00,1.04
5342.00,1.04
5341.00,1.03
5340.00,1.02
5339.00,1.01
5338.00,1.00
5337.00,0.99
5336.00,0.98
5335.00,0.97
5334.00,0.96
5333.00,0.95
5332.00,0.94
5331.00,0.93
5330.00,0.93
5329.00,0.92
5328.00,0.91
5327.00,0.90
5326.00,0.88
5325.00,0.87
5324.00,0.86
5323.00,0.85
5322.00,0.84
5321.00,0.83
5320.00,0.82
5319.00,0.81
5318.00,0.80
5317.00,0.80
5316.00,0.79
5315.00,0.78
5314.00,0.77
5313.00,0.76
5312.00,0.75
5311.00,0.74
5310.00,0.73
5309.00,0.72
5308.00,0.72
5307.00,0.71
5306.00,0.70
5305.00,0.69
5304.00,0.69
5303.00,0.68
5302.00,0.68
5301.00,0.67
5300.00,0.66
5299.00,0.66
5298.00,0.65
5297.00,0.65
5296.00,0.65
5295.00,0.64
5294.00,0.64
5293.00,0.63
5292.00,0.63
5291.00,0.63
5290.00,0.62
5289.00,0.62
5288.00,0.62
5287.00,0.62
5286.00,0.61
5285.00,0.61
5284.00,0.61
5283.00,0.61
5282.00,0.60
5281.00,0.60
5280.00,0.60
5279.00,0.60
5278.00,0.60
5277.00,0.60
5276.00,0.60
5275.00,0.59
5274.00,0.59
5273.00,0.59
5272.00,0.59
5271.00,0.59
5270.00,0.59
5269.00,0.59
5268.00,0.59
5267.00,0.59
5266.00,0.59
5265.00,0.59
5264.00,0.59
5263.00,0.58
5262.00,0.58
5261.00,0.58
5260.00,0.58
5259.00,0.58
5258.00,0.58
5257.00,0.58
5256.00,0.58
5255.00,0.58
5254.00,0.58
5253.00,0.58
5252.00,0.58
5251.00,0.58
5250.00,0.58
5249.00,0.58
5248.00,0.58
5247.00,0.58
5246.00,0.57
5245.00,0.57
5244.00,0.57
5243.00,0.57
5242.00,0.57
5241.00,0.57
5240.00,0.57
5239.00,0.57
5238.00,0.57
5237.00,0.57
5236.00,0.57
5235.00,0.57
5234.00,0.57
5233.00,0.57
5232.00,0.57
5231.00,0.57
5230.00,0.57
5229.00,0.57
5228.00,0.57
5227.00,0.57
5226.00,0.57
5225.00,0.57
5224.00,0.57
5223.00,0.57
5222.00,0.57
5221.00,0.57
5220.00,0.57
5219.00,0.57
5218.00,0.57
5217.00,0.57
5216.00,0.57
5215.00,0.57
5214.00,0.56
5213.00,0.56
5212.00,0.56
5211.00,0.56
5210.00,0.56
5209.00,0.57
5208.00,0.57
5207.00,0.57
5206.00,0.57
5205.00,0.57
5204.00,0.57
5203.00,0.57
5202.00,0.57
5201.00,0.57
5200.00,0.57
5199.00,0.57
5198.00,0.57
5197.00,0.57
5196.00,0.57
5195.00,0.57
5194.00,0.57
5193.00,0.57
5192.00,0.58
5191.00,0.58
5190.00,0.58
5189.00,0.58
5188.00,0.58
5187.00,0.58
5186.00,0.58
5185.00,0.58
5184.00,0.58
5183.00,0.58
5182.00,0.58
5181.00,0.58
5180.00,0.58
5179.00,0.59
5178.00,0.59
5177.00,0.59
5176.00,0.59
5175.00,0.59
5174.00,0.59
5173.00,0.59
5172.00,0.59
5171.00,0.59
5170.00,0.59
5169.00,0.59
5168.00,0.59
5167.00,0.59
5166.00,0.59
5165.00,0.59
5164.00,0.59
5163.00,0.59
5162.00,0.59
5161.00,0.59
5160.00,0.59
5159.00,0.59
5158.00,0.59
5157.00,0.59
5156.00,0.59
5155.00,0.59
5154.00,0.59
5153.00,0.59
5152.00,0.59
5151.00,0.59
5150.00,0.59
5149.00,0.59
5148.00,0.59
5147.00,0.59
5146.00,0.59
5145.00,0.60
5144.00,0.60
5143.00,0.60
5142.00,0.60
5141.00,0.60
5140.00,0.60
5139.00,0.60
5138.00,0.60
5137.00,0.60
5136.00,0.60
5135.00,0.60
5134.00,0.60
5133.00,0.61
5132.00,0.61
5131.00,0.61
5130.00,0.61
5129.00,0.61
5128.00,0.61
5127.00,0.61
5126.00,0.61
5125.00,0.61
5124.00,0.61
5123.00,0.61
5122.00,0.61
5121.00,0.61
5120.00,0.61
5119.00,0.61
5118.00,0.61
5117.00,0.61
5116.00,0.61
5115.00,0.61
5114.00,0.61
5113.00,0.61
5112.00,0.61
5111.00,0.61
5110.00,0.61
5109.00,0.62
5108.00,0.62
5107.00,0.62
5106.00,0.62
5105.00,0.62
5104.00,0.62
5103.00,0.62
5102.00,0.62
5101.00,0.62
5100.00,0.62
5099.00,0.62
5098.00,0.62
5097.00,0.63
5096.00,0.63
5095.00,0.63
5094.00,0.63
5093.00,0.63
5092.00,0.63
5091.00,0.63
5090.00,0.63
5089.00,0.63
5088.00,0.63
5087.00,0.63
5086.00,0.63
5085.00,0.63
5084.00,0.63
5083.00,0.63
5082.00,0.63
5081.00,0.63
5080.00,0.63
5079.00,0.63
5078.00,0.64
5077.00,0.64
5076.00,0.64
5075.00,0.64
5074.00,0.64
5073.00,0.64
5072.00,0.64
5071.00,0.64
5070.00,0.64
5069.00,0.64
5068.00,0.64
5067.00,0.64
5066.00,0.64
5065.00,0.64
5064.00,0.64
5063.00,0.64
5062.00,0.64
5061.00,0.64
5060.00,0.64
5059.00,0.64
5058.00,0.65
5057.00,0.65
5056.00,0.65
5055.00,0.65
5054.00,0.65
5053.00,0.65
5052.00,0.65
5051.00,0.65
5050.00,0.65
5049.00,0.65
5048.00,0.65
5047.00,0.65
5046.00,0.65
5045.00,0.65
5044.00,0.65
5043.00,0.65
5042.00,0.65
5041.00,0.66
5040.00,0.66
5039.00,0.66
5038.00,0.66
5037.00,0.66
5036.00,0.66
5035.00,0.66
5034.00,0.66
5033.00,0.66
5032.00,0.66
5031.00,0.66
5030.00,0.67
5029.00,0.67
5028.00,0.67
5027.00,0.67
5026.00,0.67
5025.00,0.67
5024.00,0.67
5023.00,0.67
5022.00,0.67
5021.00,0.67
5020.00,0.67
5019.00,0.67
5018.00,0.67
5017.00,0.67
5016.00,0.67
5015.00,0.67
5014.00,0.67
5013.00,0.67
5012.00,0.67
5011.00,0.68
5010.00,0.68
5009.00,0.68
5008.00,0.68
5007.00,0.68
5006.00,0.68
5005.00,0.68
5004.00,0.68
5003.00,0.68
5002.00,0.69
5001.00,0.69
5000.00,0.69
4999.00,0.69
4998.00,0.69
4997.00,0.69
4996.00,0.69
4995.00,0.69
4994.00,0.69
4993.00,0.69
4992.00,0.70
4991.00,0.70
4990.00,0.70
4989.00,0.70
4988.00,0.70
4987.00,0.70
4986.00,0.70
4985.00,0.70
4984.00,0.70
4983.00,0.71
4982.00,0.71
4981.00,0.71
4980.00,0.71
4979.00,0.71
4978.00,0.71
4977.00,0.71
4976.00,0.71
4975.00,0.71
4974.00,0.72
4973.00,0.72
4972.00,0.72
4971.00,0.72
4970.00,0.72
4969.00,0.72
4968.00,0.72
4967.00,0.72
4966.00,0.72
4965.00,0.73
4964.00,0.73
4963.00,0.73
4962.00,0.73
4961.00,0.73
4960.00,0.73
4959.00,0.73
4958.00,0.73
4957.00,0.73
4956.00,0.73
4955.00,0.73
4954.00,0.73
4953.00,0.73
4952.00,0.73
4951.00,0.73
4950.00,0.74
4949.00,0.74
4948.00,0.74
4947.00,0.74
4946.00,0.74
4945.00,0.74
4944.00,0.74
4943.00,0.74
4942.00,0.74
4941.00,0.74
4940.00,0.74
4939.00,0.75
4938.00,0.75
4937.00,0.75
4936.00,0.75
4935.00,0.75
4934.00,0.75
4933.00,0.75
4932.00,0.75
4931.00,0.75
4930.00,0.76
4929.00,0.76
4928.00,0.76
4927.00,0.76
4926.00,0.76
4925.00,0.76
4924.00,0.76
4923.00,0.76
4922.00,0.76
4921.00,0.76
4920.00,0.76
4919.00,0.76
4918.00,0.76
4917.00,0.76
4916.00,0.76
4915.00,0.76
4914.00,0.76
4913.00,0.77
4912.00,0.77
4911.00,0.77
4910.00,0.77
4909.00,0.77
4908.00,0.77
4907.00,0.77
4906.00,0.77
4905.00,0.77
4904.00,0.77
4903.00,0.77
4902.00,0.77
4901.00,0.77
4900.00,0.77
4899.00,0.77
4898.00,0.77
4897.00,0.77
4896.00,0.77
4895.00,0.77
4894.00,0.77
4893.00,0.77
4892.00,0.77
4891.00,0.77
4890.00,0.77
4889.00,0.77
4888.00,0.77
4887.00,0.77
4886.00,0.77
4885.00,0.77
4884.00,0.77
4883.00,0.77
4882.00,0.77
4881.00,0.78
4880.00,0.78
4879.00,0.78
4878.00,0.78
4877.00,0.78
4876.00,0.78
4875.00,0.78
4874.00,0.78
4873.00,0.78
4872.00,0.78
4871.00,0.78
4870.00,0.79
4869.00,0.79
4868.00,0.79
4867.00,0.79
4866.00,0.79
4865.00,0.79
4864.00,0.79
4863.00,0.79
4862.00,0.79
4861.00,0.79
4860.00,0.79
4859.00,0.79
4858.00,0.79
4857.00,0.79
4856.00,0.79
4855.00,0.79
4854.00,0.79
4853.00,0.79
4852.00,0.79
4851.00,0.79
4850.00,0.79
4849.00,0.79
4848.00,0.79
4847.00,0.79
4846.00,0.79
4845.00,0.79
4844.00,0.80
4843.00,0.80
4842.00,0.80
4841.00,0.80
4840.00,0.80
4839.00,0.80
4838.00,0.80
4837.00,0.80
4836.00,0.80
4835.00,0.80
4834.00,0.80
4833.00,0.81
4832.00,0.81
4831.00,0.81
4830.00,0.81
4829.00,0.81
4828.00,0.81
4827.00,0.81
4826.00,0.81
4825.00,0.81
4824.00,0.81
4823.00,0.81
4822.00,0.81
4821.00,0.82
4820.00,0.82
4819.00,0.82
4818.00,0.82
4817.00,0.82
4816.00,0.82
4815.00,0.82
4814.00,0.82
4813.00,0.82
4812.00,0.82
4811.00,0.82
4810.00,0.83
4809.00,0.83
4808.00,0.83
4807.00,0.83
4806.00,0.83
4805.00,0.83
4804.00,0.83
4803.00,0.83
4802.00,0.84
4801.00,0.84
4800.00,0.84
4799.00,0.84
4798.00,0.84
4797.00,0.84
4796.00,0.84
4795.00,0.85
4794.00,0.85
4793.00,0.85
4792.00,0.85
4791.00,0.85
4790.00,0.85
4789.00,0.85
4788.00,0.85
4787.00,0.86
4786.00,0.86
4785.00,0.86
4784.00,0.86
4783.00,0.86
4782.00,0.86
4781.00,0.86
4780.00,0.86
4779.00,0.86
4778.00,0.86
4777.00,0.86
4776.00,0.86
4775.00,0.86
4774.00,0.86
4773.00,0.87
4772.00,0.87
4771.00,0.87
4770.00,0.87
4769.00,0.87
4768.00,0.87
4767.00,0.87
4766.00,0.87
4765.00,0.87
4764.00,0.87
4763.00,0.87
4762.00,0.87
4761.00,0.87
4760.00,0.88
4759.00,0.88
4758.00,0.88
4757.00,0.88
4756.00,0.88
4755.00,0.88
4754.00,0.89
4753.00,0.89
4752.00,0.89
4751.00,0.89
4750.00,0.89
4749.00,0.90
4748.00,0.90
4747.00,0.90
4746.00,0.90
4745.00,0.90
4744.00,0.91
4743.00,0.91
4742.00,0.91
4741.00,0.91
4740.00,0.91
4739.00,0.91
4738.00,0.92
4737.00,0.92
4736.00,0.92
4735.00,0.92
4734.00,0.92
4733.00,0.92
4732.00,0.92
4731.00,0.93
4730.00,0.93
4729.00,0.93
4728.00,0.93
4727.00,0.93
4726.00,0.94
4725.00,0.94
4724.00,0.94
4723.00,0.94
4722.00,0.95
4721.00,0.95
4720.00,0.95
4719.00,0.95
4718.00,0.95
4717.00,0.96
4716.00,0.96
4715.00,0.96
4714.00,0.96
4713.00,0.96
4712.00,0.96
4711.00,0.96
4710.00,0.97
4709.00,0.97
4708.00,0.97
4707.00,0.97
4706.00,0.97
4705.00,0.97
4704.00,0.97
4703.00,0.97
4702.00,0.97
4701.00,0.98
4700.00,0.98
4699.00,0.98
4698.00,0.98
4697.00,0.98
4696.00,0.98
4695.00,0.98
4694.00,0.98
4693.00,0.99
4692.00,0.99
4691.00,0.99
4690.00,0.99
4689.00,0.99
4688.00,0.99
4687.00,0.99
4686.00,0.99
4685.00,0.99
4684.00,1.00
4683.00,1.00
4682.00,1.00
4681.00,1.00
4680.00,1.00
4679.00,1.01
4678.00,1.01
4677.00,1.01
4676.00,1.01
4675.00,1.02
4674.00,1.02
4673.00,1.02
4672.00,1.02
4671.00,1.03
4670.00,1.03
4669.00,1.03
4668.00,1.03
4667.00,1.04
4666.00,1.04
4665.00,1.04
4664.00,1.04
4663.00,1.04
4662.00,1.05
4661.00,1.05
4660.00,1.05
4659.00,1.05
4658.00,1.05
4657.00,1.05
4656.00,1.05
4655.00,1.05
4654.00,1.06
4653.00,1.06
4652.00,1.06
4651.00,1.06
4650.00,1.06
4649.00,1.06
4648.00,1.07
4647.00,1.07
4646.00,1.07
4645.00,1.07
4644.00,1.07
4643.00,1.07
4642.00,1.08
4641.00,1.08
4640.00,1.08
4639.00,1.08
4638.00,1.08
4637.00,1.08
4636.00,1.08
4635.00,1.08
4634.00,1.08
4633.00,1.08
4632.00,1.08
4631.00,1.09
4630.00,1.09
4629.00,1.09
4628.00,1.09
4627.00,1.09
4626.00,1.09
4625.00,1.09
4624.00,1.09
4623.00,1.09
4622.00,1.09
4621.00,1.09
4620.00,1.09
4619.00,1.09
4618.00,1.09
4617.00,1.09
4616.00,1.09
4615.00,1.10
4614.00,1.10
4613.00,1.10
4612.00,1.10
4611.00,1.10
4610.00,1.10
4609.00,1.10
4608.00,1.11
4607.00,1.11
4606.00,1.11
4605.00,1.11
4604.00,1.11
4603.00,1.11
4602.00,1.12
4601.00,1.12
4600.00,1.12
4599.00,1.12
4598.00,1.12
4597.00,1.12
4596.00,1.12
4595.00,1.12
4594.00,1.13
4593.00,1.13
4592.00,1.13
4591.00,1.13
4590.00,1.13
4589.00,1.13
4588.00,1.13
4587.00,1.13
4586.00,1.13
4585.00,1.13
4584.00,1.13
4583.00,1.14
4582.00,1.14
4581.00,1.14
4580.00,1.14
4579.00,1.14
4578.00,1.14
4577.00,1.14
4576.00,1.14
4575.00,1.14
4574.00,1.14
4573.00,1.14
4572.00,1.14
4571.00,1.14
4570.00,1.14
4569.00,1.14
4568.00,1.14
4567.00,1.15
4566.00,1.15
4565.00,1.15
4564.00,1.15
4563.00,1.15
4562.00,1.15
4561.00,1.15
4560.00,1.15
4559.00,1.15
4558.00,1.16
4557.00,1.16
4556.00,1.16
4555.00,1.16
4554.00,1.16
4553.00,1.16
4552.00,1.16
4551.00,1.16
4550.00,1.17
4549.00,1.17
4548.00,1.17
4547.00,1.17
4546.00,1.17
4545.00,1.17
4544.00,1.17
4543.00,1.17
4542.00,1.17
4541.00,1.17
4540.00,1.17
4539.00,1.18
4538.00,1.18
4537.00,1.18
4536.00,1.18
4535.00,1.18
4534.00,1.18
4533.00,1.18
4532.00,1.18
4531.00,1.18
4530.00,1.18
4529.00,1.18
4528.00,1.18
4527.00,1.18
4526.00,1.18
4525.00,1.18
4524.00,1.18
4523.00,1.18
4522.00,1.18
4521.00,1.18
4520.00,1.18
4519.00,1.18
4518.00,1.18
4517.00,1.18
4516.00,1.18
4515.00,1.18
4514.00,1.18
4513.00,1.19
4512.00,1.19
4511.00,1.19
4510.00,1.19
4509.00,1.19
4508.00,1.19
4507.00,1.19
4506.00,1.19
4505.00,1.19
4504.00,1.19
4503.00,1.19
4502.00,1.18
4501.00,1.18
4500.00,1.18
4499.00,1.18
4498.00,1.18
4497.00,1.18
4496.00,1.17
4495.00,1.17
4494.00,1.17
4493.00,1.17
4492.00,1.17
4491.00,1.17
4490.00,1.17
4489.00,1.16
4488.00,1.16
4487.00,1.16
4486.00,1.16
4485.00,1.16
4484.00,1.16
4483.00,1.16
4482.00,1.16
4481.00,1.15
4480.00,1.15
4479.00,1.15
4478.00,1.15
4477.00,1.15
4476.00,1.15
4475.00,1.14
4474.00,1.14
4473.00,1.14
4472.00,1.14
4471.00,1.14
4470.00,1.13
4469.00,1.13
4468.00,1.13
4467.00,1.12
4466.00,1.12
4465.00,1.12
4464.00,1.11
4463.00,1.11
4462.00,1.11
4461.00,1.10
4460.00,1.10
4459.00,1.10
4458.00,1.09
4457.00,1.09
4456.00,1.08
4455.00,1.08
4454.00,1.08
4453.00,1.07
4452.00,1.07
4451.00,1.07
4450.00,1.06
4449.00,1.06
4448.00,1.05
4447.00,1.05
4446.00,1.04
4445.00,1.04
4444.00,1.03
4443.00,1.03
4442.00,1.02
4441.00,1.02
4440.00,1.01
4439.00,1.01
4438.00,1.00
4437.00,1.00
4436.00,0.99
4435.00,0.99
4434.00,0.98
4433.00,0.98
4432.00,0.97
4431.00,0.97
4430.00,0.96
4429.00,0.96
4428.00,0.96
4427.00,0.95
4426.00,0.95
4425.00,0.95
4424.00,0.95
4423.00,0.95
4422.00,0.95
4421.00,0.95
4420.00,0.95
4419.00,0.95
4418.00,0.95
4417.00,0.95
4416.00,0.95
4415.00,0.95
4414.00,0.95
4413.00,0.95
4412.00,0.95
4411.00,0.95
4410.00,0.95
4409.00,0.95
4408.00,0.95
4407.00,0.95
4406.00,0.95
4405.00,0.95
4404.00,0.95
4403.00,0.96
4402.00,0.96
4401.00,0.96
4400.00,0.96
4399.00,0.96
4398.00,0.96
4397.00,0.96
4396.00,0.96
4395.00,0.96
4394.00,0.96
4393.00,0.96
4392.00,0.96
4391.00,0.96
4390.00,0.96
4389.00,0.97
4388.00,0.97
4387.00,0.97
4386.00,0.97
4385.00,0.97
4384.00,0.97
4383.00,0.97
4382.00,0.97
4381.00,0.98
4380.00,0.98
4379.00,0.98
4378.00,0.98
4377.00,0.98
4376.00,0.98
4375.00,0.99
4374.00,0.99
4373.00,0.99
4372.00,0.99
4371.00,0.99
4370.00,0.99
4369.00,0.99
4368.00,0.99
4367.00,0.99
4366.00,0.99
4365.00,0.99
4364.00,0.99
4363.00,0.99
4362.00,0.99
4361.00,0.99
4360.00,0.99
4359.00,0.99
4358.00,0.99
4357.00,0.99
4356.00,0.99
4355.00,0.98
4354.00,0.98
4353.00,0.98
4352.00,0.98
4351.00,0.98
4350.00,0.98
4349.00,0.98
4348.00,0.98
4347.00,0.98
4346.00,0.98
4345.00,0.98
4344.00,0.98
4343.00,0.98
4342.00,0.98
4341.00,0.99
4340.00,0.99
4339.00,0.99
4338.00,0.99
4337.00,0.99
4336.00,0.99
4335.00,0.99
4334.00,0.99
4333.00,0.99
4332.00,0.99
4331.00,1.00
4330.00,1.00
4329.00,1.00
4328.00,1.00
4327.00,1.01
4326.00,1.01
4325.00,1.01
4324.00,1.01
4323.00,1.02
4322.00,1.02
4321.00,1.02
4320.00,1.03
4319.00,1.03
4318.00,1.03
4317.00,1.04
4316.00,1.04
4315.00,1.04
4314.00,1.04
4313.00,1.04
4312.00,1.05
4311.00,1.05
4310.00,1.05
4309.00,1.05
4308.00,1.05
4307.00,1.05
4306.00,1.05
4305.00,1.05
4304.00,1.05
4303.00,1.05
4302.00,1.06
4301.00,1.06
4300.00,1.06
4299.00,1.06
4298.00,1.06
4297.00,1.06
4296.00,1.06
4295.00,1.06
4294.00,1.06
4293.00,1.06
4292.00,1.06
4291.00,1.07
4290.00,1.07
4289.00,1.07
4288.00,1.07
4287.00,1.07
4286.00,1.07
4285.00,1.07
4284.00,1.07
4283.00,1.07
4282.00,1.07
4281.00,1.07
4280.00,1.07
4279.00,1.07
4278.00,1.07
4277.00,1.07
4276.00,1.07
4275.00,1.07
4274.00,1.07
4273.00,1.07
4272.00,1.07
4271.00,1.07
4270.00,1.07
4269.00,1.07
4268.00,1.07
4267.00,1.07
4266.00,1.07
4265.00,1.07
4264.00,1.07
4263.00,1.07
4262.00,1.07
4261.00,1.07
4260.00,1.07
4259.00,1.07
4258.00,1.07
4257.00,1.07
4256.00,1.07
4255.00,1.07
4254.00,1.07
4253.00,1.07
4252.00,1.07
4251.00,1.07
4250.00,1.07
4249.00,1.07
4248.00,1.08
4247.00,1.08
4246.00,1.08
4245.00,1.08
4244.00,1.08
4243.00,1.08
4242.00,1.08
4241.00,1.09
4240.00,1.09
4239.00,1.09
4238.00,1.09
4237.00,1.09
4236.00,1.09
4235.00,1.09
4234.00,1.10
4233.00,1.10
4232.00,1.10
4231.00,1.10
4230.00,1.10
4229.00,1.10
4228.00,1.10
4227.00,1.10
4226.00,1.10
4225.00,1.10
4224.00,1.10
4223.00,1.10
4222.00,1.10
4221.00,1.10
4220.00,1.10
4219.00,1.10
4218.00,1.10
4217.00,1.10
4216.00,1.10
4215.00,1.10
4214.00,1.10
4213.00,1.10
4212.00,1.10
4211.00,1.10
4210.00,1.10
4209.00,1.10
4208.00,1.10
4207.00,1.10
4206.00,1.10
4205.00,1.10
4204.00,1.11
4203.00,1.11
4202.00,1.11
4201.00,1.11
4200.00,1.11
4199.00,1.11
4198.00,1.11
4197.00,1.11
4196.00,1.11
4195.00,1.11
4194.00,1.11
4193.00,1.11
4192.00,1.11
4191.00,1.11
4190.00,1.11
4189.00,1.11
4188.00,1.11
4187.00,1.11
4186.00,1.12
4185.00,1.12
4184.00,1.12
4183.00,1.12
4182.00,1.12
4181.00,1.12
4180.00,1.12
4179.00,1.12
4178.00,1.13
4177.00,1.13
4176.00,1.13
4175.00,1.13
4174.00,1.13
4173.00,1.13
4172.00,1.13
4171.00,1.13
4170.00,1.13
4169.00,1.13
4168.00,1.14
4167.00,1.14
4166.00,1.14
4165.00,1.14
4164.00,1.14
4163.00,1.14
4162.00,1.14
4161.00,1.14
4160.00,1.14
4159.00,1.14
4158.00,1.14
4157.00,1.14
4156.00,1.14
4155.00,1.14
4154.00,1.14
4153.00,1.14
4152.00,1.14
4151.00,1.14
4150.00,1.14
4149.00,1.14
4148.00,1.14
4147.00,1.14
4146.00,1.14
4145.00,1.14
4144.00,1.14
4143.00,1.14
4142.00,1.14
4141.00,1.14
4140.00,1.14
4139.00,1.14
4138.00,1.14
4137.00,1.14
4136.00,1.14
4135.00,1.14
4134.00,1.14
4133.00,1.14
4132.00,1.14
4131.00,1.14
4130.00,1.14
4129.00,1.14
4128.00,1.14
4127.00,1.14
4126.00,1.14
4125.00,1.14
4124.00,1.14
4123.00,1.14
4122.00,1.14
4121.00,1.14
4120.00,1.14
4119.00,1.14
4118.00,1.14
4117.00,1.14
4116.00,1.14
4115.00,1.14
4114.00,1.14
4113.00,1.14
4112.00,1.14
4111.00,1.14
4110.00,1.14
4109.00,1.14
4108.00,1.14
4107.00,1.15
4106.00,1.15
4105.00,1.15
4104.00,1.15
4103.00,1.15
4102.00,1.15
4101.00,1.15
4100.00,1.15
4099.00,1.16
4098.00,1.16
4097.00,1.16
4096.00,1.16
4095.00,1.16
4094.00,1.17
4093.00,1.17
4092.00,1.17
4091.00,1.17
4090.00,1.17
4089.00,1.17
4088.00,1.18
4087.00,1.18
4086.00,1.18
4085.00,1.18
4084.00,1.18
4083.00,1.18
4082.00,1.18
4081.00,1.18
4080.00,1.18
4079.00,1.18
4078.00,1.18
4077.00,1.18
4076.00,1.18
4075.00,1.18
4074.00,1.18
4073.00,1.18
4072.00,1.18
4071.00,1.18
4070.00,1.18
4069.00,1.18
4068.00,1.17
4067.00,1.17
4066.00,1.17
4065.00,1.18
4064.00,1.18
4063.00,1.18
4062.00,1.18
4061.00,1.18
4060.00,1.18
4059.00,1.18
4058.00,1.18
4057.00,1.18
4056.00,1.18
4055.00,1.18
4054.00,1.18
4053.00,1.18
4052.00,1.18
4051.00,1.18
4050.00,1.18
4049.00,1.18
4048.00,1.18
4047.00,1.18
4046.00,1.18
4045.00,1.18
4044.00,1.18
4043.00,1.18
4042.00,1.18
4041.00,1.18
4040.00,1.19
4039.00,1.19
4038.00,1.19
4037.00,1.19
4036.00,1.20
4035.00,1.20
4034.00,1.20
4033.00,1.21
4032.00,1.21
4031.00,1.21
4030.00,1.21
4029.00,1.21
4028.00,1.21
4027.00,1.22
4026.00,1.22
4025.00,1.22
4024.00,1.22
4023.00,1.22
4022.00,1.22
4021.00,1.22
4020.00,1.22
4019.00,1.22
4018.00,1.22
4017.00,1.22
4016.00,1.22
4015.00,1.22
4014.00,1.22
4013.00,1.22
4012.00,1.22
4011.00,1.22
4010.00,1.22
4009.00,1.23
4008.00,1.23
4007.00,1.23
4006.00,1.23
4005.00,1.24
4004.00,1.24
4003.00,1.24
4002.00,1.24
4001.00,1.25
4000.00,1.25
