创建为新数据集,样品 145 用户 Administrator 日期 星期三, 十一月 08 2017
cm-1,%T
10000.00,1.66
9999.00,1.66
9998.00,1.66
9997.00,1.66
9996.00,1.66
9995.00,1.66
9994.00,1.66
9993.00,1.66
9992.00,1.66
9991.00,1.66
9990.00,1.66
9989.00,1.66
9988.00,1.66
9987.00,1.66
9986.00,1.66
9985.00,1.66
9984.00,1.66
9983.00,1.66
9982.00,1.66
9981.00,1.66
9980.00,1.66
9979.00,1.66
9978.00,1.66
9977.00,1.66
9976.00,1.66
9975.00,1.66
9974.00,1.66
9973.00,1.66
9972.00,1.66
9971.00,1.66
9970.00,1.65
9969.00,1.65
9968.00,1.65
9967.00,1.65
9966.00,1.65
9965.00,1.64
9964.00,1.64
9963.00,1.64
9962.00,1.64
9961.00,1.63
9960.00,1.63
9959.00,1.63
9958.00,1.63
9957.00,1.63
9956.00,1.62
9955.00,1.62
9954.00,1.62
9953.00,1.62
9952.00,1.62
9951.00,1.61
9950.00,1.61
9949.00,1.61
9948.00,1.61
9947.00,1.61
9946.00,1.61
9945.00,1.61
9944.00,1.61
9943.00,1.61
9942.00,1.61
9941.00,1.61
9940.00,1.61
9939.00,1.61
9938.00,1.61
9937.00,1.61
9936.00,1.61
9935.00,1.61
9934.00,1.62
9933.00,1.62
9932.00,1.62
9931.00,1.62
9930.00,1.62
9929.00,1.62
9928.00,1.62
9927.00,1.62
9926.00,1.62
9925.00,1.62
9924.00,1.62
9923.00,1.61
9922.00,1.61
9921.00,1.61
9920.00,1.61
9919.00,1.61
9918.00,1.61
9917.00,1.61
9916.00,1.61
9915.00,1.61
9914.00,1.61
9913.00,1.61
9912.00,1.61
9911.00,1.61
9910.00,1.61
9909.00,1.61
9908.00,1.61
9907.00,1.61
9906.00,1.61
9905.00,1.61
9904.00,1.61
9903.00,1.61
9902.00,1.61
9901.00,1.61
9900.00,1.61
9899.00,1.61
9898.00,1.61
9897.00,1.61
9896.00,1.61
9895.00,1.61
9894.00,1.61
9893.00,1.61
9892.00,1.61
9891.00,1.61
9890.00,1.61
9889.00,1.61
9888.00,1.61
9887.00,1.61
9886.00,1.61
9885.00,1.62
9884.00,1.62
9883.00,1.62
9882.00,1.62
9881.00,1.62
9880.00,1.62
9879.00,1.62
9878.00,1.62
9877.00,1.62
9876.00,1.62
9875.00,1.62
9874.00,1.63
9873.00,1.63
9872.00,1.63
9871.00,1.63
9870.00,1.63
9869.00,1.62
9868.00,1.62
9867.00,1.62
9866.00,1.62
9865.00,1.62
9864.00,1.62
9863.00,1.62
9862.00,1.62
9861.00,1.62
9860.00,1.62
9859.00,1.62
9858.00,1.61
9857.00,1.61
9856.00,1.61
9855.00,1.62
9854.00,1.62
9853.00,1.62
9852.00,1.62
9851.00,1.62
9850.00,1.62
9849.00,1.62
9848.00,1.62
9847.00,1.62
9846.00,1.62
9845.00,1.63
9844.00,1.63
9843.00,1.63
9842.00,1.63
9841.00,1.63
9840.00,1.63
9839.00,1.63
9838.00,1.63
9837.00,1.63
9836.00,1.63
9835.00,1.63
9834.00,1.63
9833.00,1.63
9832.00,1.63
9831.00,1.63
9830.00,1.63
9829.00,1.62
9828.00,1.62
9827.00,1.62
9826.00,1.62
9825.00,1.62
9824.00,1.62
9823.00,1.62
9822.00,1.62
9821.00,1.62
9820.00,1.62
9819.00,1.62
9818.00,1.62
9817.00,1.62
9816.00,1.63
9815.00,1.63
9814.00,1.63
9813.00,1.63
9812.00,1.63
9811.00,1.64
9810.00,1.64
9809.00,1.64
9808.00,1.64
9807.00,1.64
9806.00,1.64
9805.00,1.64
9804.00,1.64
9803.00,1.64
9802.00,1.64
9801.00,1.64
9800.00,1.64
9799.00,1.64
9798.00,1.64
9797.00,1.64
9796.00,1.64
9795.00,1.64
9794.00,1.64
9793.00,1.64
9792.00,1.64
9791.00,1.64
9790.00,1.64
9789.00,1.64
9788.00,1.64
9787.00,1.64
9786.00,1.64
9785.00,1.63
9784.00,1.63
9783.00,1.63
9782.00,1.63
9781.00,1.63
9780.00,1.63
9779.00,1.63
9778.00,1.63
9777.00,1.63
9776.00,1.63
9775.00,1.63
9774.00,1.63
9773.00,1.63
9772.00,1.62
9771.00,1.62
9770.00,1.62
9769.00,1.62
9768.00,1.61
9767.00,1.61
9766.00,1.61
9765.00,1.61
9764.00,1.60
9763.00,1.60
9762.00,1.60
9761.00,1.60
9760.00,1.60
9759.00,1.60
9758.00,1.60
9757.00,1.60
9756.00,1.60
9755.00,1.60
9754.00,1.60
9753.00,1.60
9752.00,1.61
9751.00,1.61
9750.00,1.61
9749.00,1.61
9748.00,1.61
9747.00,1.62
9746.00,1.62
9745.00,1.62
9744.00,1.62
9743.00,1.62
9742.00,1.62
9741.00,1.62
9740.00,1.63
9739.00,1.63
9738.00,1.63
9737.00,1.63
9736.00,1.63
9735.00,1.63
9734.00,1.63
9733.00,1.63
9732.00,1.63
9731.00,1.63
9730.00,1.64
9729.00,1.64
9728.00,1.64
9727.00,1.64
9726.00,1.64
9725.00,1.65
9724.00,1.65
9723.00,1.65
9722.00,1.65
9721.00,1.65
9720.00,1.65
9719.00,1.65
9718.00,1.66
9717.00,1.66
9716.00,1.66
9715.00,1.66
9714.00,1.65
9713.00,1.65
9712.00,1.65
9711.00,1.65
9710.00,1.65
9709.00,1.65
9708.00,1.65
9707.00,1.65
9706.00,1.65
9705.00,1.64
9704.00,1.64
9703.00,1.64
9702.00,1.64
9701.00,1.64
9700.00,1.64
9699.00,1.64
9698.00,1.64
9697.00,1.64
9696.00,1.64
9695.00,1.64
9694.00,1.64
9693.00,1.64
9692.00,1.64
9691.00,1.64
9690.00,1.64
9689.00,1.64
9688.00,1.64
9687.00,1.64
9686.00,1.65
9685.00,1.65
9684.00,1.65
9683.00,1.64
9682.00,1.64
9681.00,1.64
9680.00,1.64
9679.00,1.64
9678.00,1.64
9677.00,1.64
9676.00,1.64
9675.00,1.64
9674.00,1.64
9673.00,1.64
9672.00,1.63
9671.00,1.63
9670.00,1.63
9669.00,1.63
9668.00,1.63
9667.00,1.63
9666.00,1.63
9665.00,1.63
9664.00,1.63
9663.00,1.63
9662.00,1.62
9661.00,1.62
9660.00,1.62
9659.00,1.62
9658.00,1.62
9657.00,1.62
9656.00,1.62
9655.00,1.62
9654.00,1.62
9653.00,1.62
9652.00,1.62
9651.00,1.62
9650.00,1.62
9649.00,1.62
9648.00,1.62
9647.00,1.63
9646.00,1.63
9645.00,1.63
9644.00,1.63
9643.00,1.63
9642.00,1.63
9641.00,1.64
9640.00,1.64
9639.00,1.64
9638.00,1.64
9637.00,1.64
9636.00,1.64
9635.00,1.64
9634.00,1.64
9633.00,1.64
9632.00,1.64
9631.00,1.64
9630.00,1.64
9629.00,1.64
9628.00,1.63
9627.00,1.63
9626.00,1.63
9625.00,1.63
9624.00,1.63
9623.00,1.63
9622.00,1.63
9621.00,1.63
9620.00,1.62
9619.00,1.62
9618.00,1.62
9617.00,1.62
9616.00,1.62
9615.00,1.62
9614.00,1.62
9613.00,1.62
9612.00,1.62
9611.00,1.62
9610.00,1.62
9609.00,1.62
9608.00,1.62
9607.00,1.63
9606.00,1.63
9605.00,1.63
9604.00,1.63
9603.00,1.63
9602.00,1.63
9601.00,1.63
9600.00,1.63
9599.00,1.64
9598.00,1.64
9597.00,1.64
9596.00,1.64
9595.00,1.64
9594.00,1.64
9593.00,1.64
9592.00,1.64
9591.00,1.64
9590.00,1.64
9589.00,1.64
9588.00,1.64
9587.00,1.64
9586.00,1.64
9585.00,1.64
9584.00,1.64
9583.00,1.64
9582.00,1.64
9581.00,1.64
9580.00,1.64
9579.00,1.64
9578.00,1.64
9577.00,1.64
9576.00,1.64
9575.00,1.64
9574.00,1.64
9573.00,1.64
9572.00,1.63
9571.00,1.63
9570.00,1.63
9569.00,1.63
9568.00,1.63
9567.00,1.63
9566.00,1.63
9565.00,1.64
9564.00,1.64
9563.00,1.64
9562.00,1.64
9561.00,1.64
9560.00,1.64
9559.00,1.64
9558.00,1.64
9557.00,1.65
9556.00,1.65
9555.00,1.65
9554.00,1.65
9553.00,1.65
9552.00,1.66
9551.00,1.66
9550.00,1.66
9549.00,1.66
9548.00,1.66
9547.00,1.66
9546.00,1.66
9545.00,1.66
9544.00,1.66
9543.00,1.66
9542.00,1.66
9541.00,1.66
9540.00,1.66
9539.00,1.66
9538.00,1.66
9537.00,1.66
9536.00,1.66
9535.00,1.66
9534.00,1.66
9533.00,1.66
9532.00,1.66
9531.00,1.66
9530.00,1.66
9529.00,1.66
9528.00,1.66
9527.00,1.66
9526.00,1.66
9525.00,1.66
9524.00,1.66
9523.00,1.66
9522.00,1.66
9521.00,1.66
9520.00,1.66
9519.00,1.66
9518.00,1.66
9517.00,1.66
9516.00,1.66
9515.00,1.66
9514.00,1.66
9513.00,1.66
9512.00,1.65
9511.00,1.65
9510.00,1.65
9509.00,1.65
9508.00,1.65
9507.00,1.65
9506.00,1.65
9505.00,1.65
9504.00,1.65
9503.00,1.65
9502.00,1.64
9501.00,1.64
9500.00,1.64
9499.00,1.64
9498.00,1.64
9497.00,1.64
9496.00,1.64
9495.00,1.64
9494.00,1.64
9493.00,1.64
9492.00,1.64
9491.00,1.64
9490.00,1.64
9489.00,1.64
9488.00,1.64
9487.00,1.64
9486.00,1.64
9485.00,1.64
9484.00,1.64
9483.00,1.64
9482.00,1.64
9481.00,1.64
9480.00,1.64
9479.00,1.63
9478.00,1.63
9477.00,1.63
9476.00,1.63
9475.00,1.63
9474.00,1.63
9473.00,1.63
9472.00,1.63
9471.00,1.63
9470.00,1.64
9469.00,1.64
9468.00,1.64
9467.00,1.64
9466.00,1.64
9465.00,1.64
9464.00,1.64
9463.00,1.64
9462.00,1.64
9461.00,1.64
9460.00,1.64
9459.00,1.65
9458.00,1.65
9457.00,1.65
9456.00,1.65
9455.00,1.65
9454.00,1.65
9453.00,1.65
9452.00,1.65
9451.00,1.65
9450.00,1.65
9449.00,1.64
9448.00,1.64
9447.00,1.64
9446.00,1.64
9445.00,1.64
9444.00,1.64
9443.00,1.63
9442.00,1.63
9441.00,1.63
9440.00,1.63
9439.00,1.63
9438.00,1.63
9437.00,1.63
9436.00,1.63
9435.00,1.63
9434.00,1.63
9433.00,1.63
9432.00,1.63
9431.00,1.63
9430.00,1.64
9429.00,1.64
9428.00,1.64
9427.00,1.64
9426.00,1.64
9425.00,1.64
9424.00,1.64
9423.00,1.64
9422.00,1.64
9421.00,1.64
9420.00,1.64
9419.00,1.64
9418.00,1.64
9417.00,1.64
9416.00,1.64
9415.00,1.64
9414.00,1.64
9413.00,1.63
9412.00,1.63
9411.00,1.63
9410.00,1.63
9409.00,1.63
9408.00,1.63
9407.00,1.63
9406.00,1.62
9405.00,1.62
9404.00,1.62
9403.00,1.62
9402.00,1.62
9401.00,1.62
9400.00,1.62
9399.00,1.62
9398.00,1.62
9397.00,1.62
9396.00,1.62
9395.00,1.62
9394.00,1.62
9393.00,1.62
9392.00,1.62
9391.00,1.62
9390.00,1.62
9389.00,1.62
9388.00,1.63
9387.00,1.63
9386.00,1.63
9385.00,1.63
9384.00,1.63
9383.00,1.64
9382.00,1.64
9381.00,1.64
9380.00,1.64
9379.00,1.65
9378.00,1.65
9377.00,1.65
9376.00,1.65
9375.00,1.66
9374.00,1.66
9373.00,1.66
9372.00,1.66
9371.00,1.66
9370.00,1.66
9369.00,1.66
9368.00,1.66
9367.00,1.66
9366.00,1.65
9365.00,1.65
9364.00,1.65
9363.00,1.65
9362.00,1.65
9361.00,1.64
9360.00,1.64
9359.00,1.64
9358.00,1.64
9357.00,1.63
9356.00,1.63
9355.00,1.63
9354.00,1.63
9353.00,1.63
9352.00,1.63
9351.00,1.62
9350.00,1.62
9349.00,1.62
9348.00,1.62
9347.00,1.62
9346.00,1.62
9345.00,1.62
9344.00,1.62
9343.00,1.62
9342.00,1.62
9341.00,1.63
9340.00,1.63
9339.00,1.63
9338.00,1.63
9337.00,1.63
9336.00,1.63
9335.00,1.63
9334.00,1.63
9333.00,1.63
9332.00,1.63
9331.00,1.63
9330.00,1.63
9329.00,1.63
9328.00,1.63
9327.00,1.63
9326.00,1.63
9325.00,1.63
9324.00,1.63
9323.00,1.63
9322.00,1.63
9321.00,1.62
9320.00,1.62
9319.00,1.62
9318.00,1.62
9317.00,1.62
9316.00,1.62
9315.00,1.62
9314.00,1.62
9313.00,1.62
9312.00,1.62
9311.00,1.62
9310.00,1.62
9309.00,1.62
9308.00,1.62
9307.00,1.62
9306.00,1.62
9305.00,1.62
9304.00,1.62
9303.00,1.62
9302.00,1.62
9301.00,1.62
9300.00,1.62
9299.00,1.62
9298.00,1.62
9297.00,1.62
9296.00,1.63
9295.00,1.63
9294.00,1.63
9293.00,1.63
9292.00,1.63
9291.00,1.63
9290.00,1.63
9289.00,1.63
9288.00,1.63
9287.00,1.63
9286.00,1.63
9285.00,1.63
9284.00,1.63
9283.00,1.63
9282.00,1.63
9281.00,1.63
9280.00,1.63
9279.00,1.63
9278.00,1.63
9277.00,1.63
9276.00,1.63
9275.00,1.63
9274.00,1.63
9273.00,1.63
9272.00,1.63
9271.00,1.64
9270.00,1.64
9269.00,1.64
9268.00,1.64
9267.00,1.64
9266.00,1.65
9265.00,1.65
9264.00,1.65
9263.00,1.65
9262.00,1.65
9261.00,1.65
9260.00,1.65
9259.00,1.65
9258.00,1.65
9257.00,1.65
9256.00,1.65
9255.00,1.65
9254.00,1.65
9253.00,1.65
9252.00,1.65
9251.00,1.65
9250.00,1.64
9249.00,1.64
9248.00,1.64
9247.00,1.64
9246.00,1.64
9245.00,1.64
9244.00,1.64
9243.00,1.64
9242.00,1.64
9241.00,1.64
9240.00,1.64
9239.00,1.64
9238.00,1.65
9237.00,1.65
9236.00,1.65
9235.00,1.65
9234.00,1.65
9233.00,1.65
9232.00,1.66
9231.00,1.66
9230.00,1.66
9229.00,1.66
9228.00,1.66
9227.00,1.66
9226.00,1.66
9225.00,1.66
9224.00,1.66
9223.00,1.66
9222.00,1.65
9221.00,1.65
9220.00,1.65
9219.00,1.65
9218.00,1.65
9217.00,1.65
9216.00,1.65
9215.00,1.64
9214.00,1.64
9213.00,1.64
9212.00,1.64
9211.00,1.64
9210.00,1.64
9209.00,1.63
9208.00,1.63
9207.00,1.63
9206.00,1.63
9205.00,1.63
9204.00,1.63
9203.00,1.63
9202.00,1.63
9201.00,1.63
9200.00,1.63
9199.00,1.63
9198.00,1.63
9197.00,1.63
9196.00,1.63
9195.00,1.63
9194.00,1.63
9193.00,1.63
9192.00,1.63
9191.00,1.63
9190.00,1.63
9189.00,1.63
9188.00,1.63
9187.00,1.63
9186.00,1.64
9185.00,1.64
9184.00,1.64
9183.00,1.64
9182.00,1.64
9181.00,1.64
9180.00,1.64
9179.00,1.64
9178.00,1.64
9177.00,1.64
9176.00,1.64
9175.00,1.64
9174.00,1.64
9173.00,1.64
9172.00,1.64
9171.00,1.64
9170.00,1.65
9169.00,1.65
9168.00,1.65
9167.00,1.65
9166.00,1.65
9165.00,1.65
9164.00,1.65
9163.00,1.66
9162.00,1.66
9161.00,1.66
9160.00,1.66
9159.00,1.66
9158.00,1.65
9157.00,1.65
9156.00,1.65
9155.00,1.65
9154.00,1.65
9153.00,1.65
9152.00,1.65
9151.00,1.65
9150.00,1.64
9149.00,1.64
9148.00,1.64
9147.00,1.64
9146.00,1.64
9145.00,1.64
9144.00,1.64
9143.00,1.64
9142.00,1.64
9141.00,1.64
9140.00,1.64
9139.00,1.65
9138.00,1.65
9137.00,1.65
9136.00,1.65
9135.00,1.65
9134.00,1.65
9133.00,1.64
9132.00,1.64
9131.00,1.64
9130.00,1.64
9129.00,1.64
9128.00,1.64
9127.00,1.64
9126.00,1.64
9125.00,1.64
9124.00,1.64
9123.00,1.63
9122.00,1.63
9121.00,1.63
9120.00,1.63
9119.00,1.63
9118.00,1.63
9117.00,1.63
9116.00,1.63
9115.00,1.63
9114.00,1.63
9113.00,1.63
9112.00,1.63
9111.00,1.63
9110.00,1.63
9109.00,1.63
9108.00,1.63
9107.00,1.63
9106.00,1.63
9105.00,1.63
9104.00,1.64
9103.00,1.64
9102.00,1.64
9101.00,1.64
9100.00,1.64
9099.00,1.64
9098.00,1.64
9097.00,1.64
9096.00,1.65
9095.00,1.65
9094.00,1.65
9093.00,1.65
9092.00,1.65
9091.00,1.65
9090.00,1.65
9089.00,1.65
9088.00,1.65
9087.00,1.65
9086.00,1.65
9085.00,1.65
9084.00,1.65
9083.00,1.65
9082.00,1.65
9081.00,1.65
9080.00,1.65
9079.00,1.65
9078.00,1.65
9077.00,1.65
9076.00,1.65
9075.00,1.65
9074.00,1.65
9073.00,1.65
9072.00,1.65
9071.00,1.65
9070.00,1.65
9069.00,1.65
9068.00,1.66
9067.00,1.66
9066.00,1.66
9065.00,1.66
9064.00,1.66
9063.00,1.66
9062.00,1.66
9061.00,1.66
9060.00,1.66
9059.00,1.66
9058.00,1.66
9057.00,1.66
9056.00,1.66
9055.00,1.66
9054.00,1.66
9053.00,1.66
9052.00,1.65
9051.00,1.65
9050.00,1.65
9049.00,1.65
9048.00,1.65
9047.00,1.64
9046.00,1.64
9045.00,1.64
9044.00,1.64
9043.00,1.64
9042.00,1.63
9041.00,1.63
9040.00,1.63
9039.00,1.63
9038.00,1.63
9037.00,1.63
9036.00,1.63
9035.00,1.63
9034.00,1.63
9033.00,1.63
9032.00,1.63
9031.00,1.63
9030.00,1.63
9029.00,1.64
9028.00,1.64
9027.00,1.64
9026.00,1.64
9025.00,1.64
9024.00,1.64
9023.00,1.64
9022.00,1.65
9021.00,1.65
9020.00,1.65
9019.00,1.65
9018.00,1.65
9017.00,1.65
9016.00,1.65
9015.00,1.65
9014.00,1.65
9013.00,1.65
9012.00,1.65
9011.00,1.65
9010.00,1.64
9009.00,1.64
9008.00,1.64
9007.00,1.64
9006.00,1.64
9005.00,1.64
9004.00,1.64
9003.00,1.64
9002.00,1.65
9001.00,1.65
9000.00,1.65
8999.00,1.65
8998.00,1.65
8997.00,1.65
8996.00,1.65
8995.00,1.65
8994.00,1.65
8993.00,1.65
8992.00,1.65
8991.00,1.65
8990.00,1.65
8989.00,1.65
8988.00,1.65
8987.00,1.65
8986.00,1.65
8985.00,1.64
8984.00,1.64
8983.00,1.64
8982.00,1.64
8981.00,1.64
8980.00,1.64
8979.00,1.64
8978.00,1.64
8977.00,1.64
8976.00,1.64
8975.00,1.63
8974.00,1.63
8973.00,1.63
8972.00,1.63
8971.00,1.63
8970.00,1.63
8969.00,1.63
8968.00,1.63
8967.00,1.63
8966.00,1.63
8965.00,1.64
8964.00,1.64
8963.00,1.64
8962.00,1.64
8961.00,1.64
8960.00,1.64
8959.00,1.64
8958.00,1.64
8957.00,1.65
8956.00,1.65
8955.00,1.65
8954.00,1.65
8953.00,1.65
8952.00,1.65
8951.00,1.65
8950.00,1.65
8949.00,1.65
8948.00,1.65
8947.00,1.65
8946.00,1.65
8945.00,1.65
8944.00,1.65
8943.00,1.65
8942.00,1.65
8941.00,1.65
8940.00,1.65
8939.00,1.65
8938.00,1.65
8937.00,1.65
8936.00,1.65
8935.00,1.65
8934.00,1.65
8933.00,1.65
8932.00,1.65
8931.00,1.65
8930.00,1.65
8929.00,1.65
8928.00,1.65
8927.00,1.65
8926.00,1.64
8925.00,1.64
8924.00,1.64
8923.00,1.64
8922.00,1.64
8921.00,1.64
8920.00,1.64
8919.00,1.64
8918.00,1.64
8917.00,1.63
8916.00,1.63
8915.00,1.63
8914.00,1.63
8913.00,1.63
8912.00,1.63
8911.00,1.63
8910.00,1.64
8909.00,1.64
8908.00,1.64
8907.00,1.64
8906.00,1.64
8905.00,1.64
8904.00,1.64
8903.00,1.64
8902.00,1.64
8901.00,1.64
8900.00,1.64
8899.00,1.64
8898.00,1.64
8897.00,1.64
8896.00,1.64
8895.00,1.64
8894.00,1.64
8893.00,1.64
8892.00,1.63
8891.00,1.63
8890.00,1.63
8889.00,1.63
8888.00,1.63
8887.00,1.63
8886.00,1.63
8885.00,1.63
8884.00,1.63
8883.00,1.63
8882.00,1.63
8881.00,1.63
8880.00,1.63
8879.00,1.63
8878.00,1.63
8877.00,1.63
8876.00,1.63
8875.00,1.63
8874.00,1.63
8873.00,1.63
8872.00,1.63
8871.00,1.63
8870.00,1.63
8869.00,1.63
8868.00,1.63
8867.00,1.63
8866.00,1.63
8865.00,1.63
8864.00,1.63
8863.00,1.63
8862.00,1.63
8861.00,1.63
8860.00,1.63
8859.00,1.63
8858.00,1.63
8857.00,1.63
8856.00,1.63
8855.00,1.63
8854.00,1.63
8853.00,1.63
8852.00,1.63
8851.00,1.63
8850.00,1.63
8849.00,1.63
8848.00,1.63
8847.00,1.63
8846.00,1.63
8845.00,1.63
8844.00,1.63
8843.00,1.63
8842.00,1.63
8841.00,1.63
8840.00,1.63
8839.00,1.63
8838.00,1.63
8837.00,1.63
8836.00,1.63
8835.00,1.63
8834.00,1.63
8833.00,1.62
8832.00,1.62
8831.00,1.62
8830.00,1.62
8829.00,1.62
8828.00,1.62
8827.00,1.62
8826.00,1.62
8825.00,1.62
8824.00,1.61
8823.00,1.61
8822.00,1.61
8821.00,1.61
8820.00,1.61
8819.00,1.61
8818.00,1.61
8817.00,1.61
8816.00,1.60
8815.00,1.60
8814.00,1.60
8813.00,1.60
8812.00,1.60
8811.00,1.60
8810.00,1.60
8809.00,1.60
8808.00,1.60
8807.00,1.60
8806.00,1.61
8805.00,1.61
8804.00,1.61
8803.00,1.61
8802.00,1.61
8801.00,1.61
8800.00,1.61
8799.00,1.61
8798.00,1.61
8797.00,1.61
8796.00,1.61
8795.00,1.60
8794.00,1.60
8793.00,1.60
8792.00,1.60
8791.00,1.60
8790.00,1.60
8789.00,1.60
8788.00,1.60
8787.00,1.60
8786.00,1.60
8785.00,1.60
8784.00,1.59
8783.00,1.59
8782.00,1.59
8781.00,1.59
8780.00,1.59
8779.00,1.59
8778.00,1.59
8777.00,1.59
8776.00,1.59
8775.00,1.59
8774.00,1.59
8773.00,1.59
8772.00,1.58
8771.00,1.58
8770.00,1.58
8769.00,1.58
8768.00,1.58
8767.00,1.58
8766.00,1.58
8765.00,1.58
8764.00,1.58
8763.00,1.57
8762.00,1.57
8761.00,1.57
8760.00,1.57
8759.00,1.57
8758.00,1.57
8757.00,1.57
8756.00,1.57
8755.00,1.56
8754.00,1.56
8753.00,1.56
8752.00,1.56
8751.00,1.56
8750.00,1.56
8749.00,1.56
8748.00,1.56
8747.00,1.56
8746.00,1.56
8745.00,1.56
8744.00,1.56
8743.00,1.56
8742.00,1.55
8741.00,1.55
8740.00,1.55
8739.00,1.55
8738.00,1.55
8737.00,1.55
8736.00,1.55
8735.00,1.55
8734.00,1.55
8733.00,1.56
8732.00,1.56
8731.00,1.56
8730.00,1.56
8729.00,1.56
8728.00,1.56
8727.00,1.56
8726.00,1.56
8725.00,1.56
8724.00,1.56
8723.00,1.56
8722.00,1.56
8721.00,1.56
8720.00,1.56
8719.00,1.56
8718.00,1.56
8717.00,1.56
8716.00,1.56
8715.00,1.56
8714.00,1.56
8713.00,1.56
8712.00,1.56
8711.00,1.56
8710.00,1.56
8709.00,1.56
8708.00,1.56
8707.00,1.56
8706.00,1.56
8705.00,1.56
8704.00,1.56
8703.00,1.56
8702.00,1.56
8701.00,1.56
8700.00,1.56
8699.00,1.56
8698.00,1.56
8697.00,1.56
8696.00,1.56
8695.00,1.56
8694.00,1.56
8693.00,1.56
8692.00,1.56
8691.00,1.56
8690.00,1.56
8689.00,1.56
8688.00,1.56
8687.00,1.56
8686.00,1.56
8685.00,1.56
8684.00,1.56
8683.00,1.56
8682.00,1.56
8681.00,1.56
8680.00,1.56
8679.00,1.56
8678.00,1.56
8677.00,1.56
8676.00,1.56
8675.00,1.56
8674.00,1.56
8673.00,1.56
8672.00,1.56
8671.00,1.56
8670.00,1.56
8669.00,1.56
8668.00,1.56
8667.00,1.56
8666.00,1.56
8665.00,1.56
8664.00,1.56
8663.00,1.56
8662.00,1.56
8661.00,1.56
8660.00,1.56
8659.00,1.56
8658.00,1.56
8657.00,1.56
8656.00,1.56
8655.00,1.56
8654.00,1.56
8653.00,1.56
8652.00,1.56
8651.00,1.56
8650.00,1.56
8649.00,1.56
8648.00,1.56
8647.00,1.56
8646.00,1.56
8645.00,1.56
8644.00,1.56
8643.00,1.55
8642.00,1.55
8641.00,1.55
8640.00,1.55
8639.00,1.55
8638.00,1.54
8637.00,1.54
8636.00,1.54
8635.00,1.54
8634.00,1.54
8633.00,1.54
8632.00,1.54
8631.00,1.54
8630.00,1.54
8629.00,1.54
8628.00,1.54
8627.00,1.54
8626.00,1.54
8625.00,1.54
8624.00,1.54
8623.00,1.54
8622.00,1.54
8621.00,1.54
8620.00,1.54
8619.00,1.54
8618.00,1.54
8617.00,1.54
8616.00,1.54
8615.00,1.54
8614.00,1.54
8613.00,1.54
8612.00,1.54
8611.00,1.53
8610.00,1.53
8609.00,1.53
8608.00,1.53
8607.00,1.53
8606.00,1.53
8605.00,1.53
8604.00,1.52
8603.00,1.52
8602.00,1.52
8601.00,1.52
8600.00,1.52
8599.00,1.52
8598.00,1.52
8597.00,1.52
8596.00,1.52
8595.00,1.52
8594.00,1.52
8593.00,1.52
8592.00,1.52
8591.00,1.52
8590.00,1.52
8589.00,1.52
8588.00,1.52
8587.00,1.52
8586.00,1.52
8585.00,1.52
8584.00,1.52
8583.00,1.52
8582.00,1.52
8581.00,1.52
8580.00,1.52
8579.00,1.52
8578.00,1.52
8577.00,1.51
8576.00,1.51
8575.00,1.51
8574.00,1.51
8573.00,1.51
8572.00,1.51
8571.00,1.51
8570.00,1.51
8569.00,1.51
8568.00,1.51
8567.00,1.51
8566.00,1.51
8565.00,1.51
8564.00,1.50
8563.00,1.50
8562.00,1.50
8561.00,1.50
8560.00,1.50
8559.00,1.50
8558.00,1.50
8557.00,1.50
8556.00,1.49
8555.00,1.49
8554.00,1.49
8553.00,1.49
8552.00,1.49
8551.00,1.49
8550.00,1.49
8549.00,1.49
8548.00,1.49
8547.00,1.49
8546.00,1.49
8545.00,1.48
8544.00,1.48
8543.00,1.48
8542.00,1.48
8541.00,1.48
8540.00,1.48
8539.00,1.48
8538.00,1.48
8537.00,1.48
8536.00,1.48
8535.00,1.48
8534.00,1.48
8533.00,1.48
8532.00,1.48
8531.00,1.48
8530.00,1.48
8529.00,1.48
8528.00,1.48
8527.00,1.48
8526.00,1.48
8525.00,1.47
8524.00,1.47
8523.00,1.47
8522.00,1.47
8521.00,1.47
8520.00,1.47
8519.00,1.47
8518.00,1.47
8517.00,1.47
8516.00,1.47
8515.00,1.47
8514.00,1.47
8513.00,1.47
8512.00,1.47
8511.00,1.47
8510.00,1.47
8509.00,1.47
8508.00,1.47
8507.00,1.47
8506.00,1.47
8505.00,1.47
8504.00,1.47
8503.00,1.47
8502.00,1.47
8501.00,1.47
8500.00,1.47
8499.00,1.47
8498.00,1.46
8497.00,1.46
8496.00,1.46
8495.00,1.46
8494.00,1.46
8493.00,1.46
8492.00,1.46
8491.00,1.46
8490.00,1.46
8489.00,1.46
8488.00,1.46
8487.00,1.46
8486.00,1.46
8485.00,1.45
8484.00,1.45
8483.00,1.45
8482.00,1.45
8481.00,1.45
8480.00,1.45
8479.00,1.45
8478.00,1.45
8477.00,1.44
8476.00,1.44
8475.00,1.44
8474.00,1.44
8473.00,1.44
8472.00,1.44
8471.00,1.44
8470.00,1.44
8469.00,1.44
8468.00,1.44
8467.00,1.44
8466.00,1.43
8465.00,1.43
8464.00,1.43
8463.00,1.43
8462.00,1.43
8461.00,1.43
8460.00,1.43
8459.00,1.43
8458.00,1.43
8457.00,1.42
8456.00,1.42
8455.00,1.42
8454.00,1.42
8453.00,1.42
8452.00,1.42
8451.00,1.42
8450.00,1.42
8449.00,1.41
8448.00,1.41
8447.00,1.41
8446.00,1.41
8445.00,1.41
8444.00,1.41
8443.00,1.41
8442.00,1.41
8441.00,1.41
8440.00,1.41
8439.00,1.41
8438.00,1.41
8437.00,1.41
8436.00,1.41
8435.00,1.41
8434.00,1.41
8433.00,1.41
8432.00,1.41
8431.00,1.41
8430.00,1.41
8429.00,1.41
8428.00,1.41
8427.00,1.41
8426.00,1.41
8425.00,1.41
8424.00,1.41
8423.00,1.41
8422.00,1.41
8421.00,1.41
8420.00,1.41
8419.00,1.41
8418.00,1.42
8417.00,1.42
8416.00,1.42
8415.00,1.42
8414.00,1.42
8413.00,1.42
8412.00,1.42
8411.00,1.43
8410.00,1.43
8409.00,1.43
8408.00,1.43
8407.00,1.43
8406.00,1.44
8405.00,1.44
8404.00,1.44
8403.00,1.44
8402.00,1.45
8401.00,1.45
8400.00,1.45
8399.00,1.45
8398.00,1.45
8397.00,1.45
8396.00,1.45
8395.00,1.45
8394.00,1.45
8393.00,1.45
8392.00,1.45
8391.00,1.45
8390.00,1.45
8389.00,1.45
8388.00,1.45
8387.00,1.45
8386.00,1.44
8385.00,1.44
8384.00,1.44
8383.00,1.44
8382.00,1.44
8381.00,1.44
8380.00,1.44
8379.00,1.44
8378.00,1.44
8377.00,1.44
8376.00,1.44
8375.00,1.44
8374.00,1.44
8373.00,1.44
8372.00,1.44
8371.00,1.45
8370.00,1.45
8369.00,1.45
8368.00,1.45
8367.00,1.45
8366.00,1.45
8365.00,1.46
8364.00,1.46
8363.00,1.46
8362.00,1.46
8361.00,1.46
8360.00,1.46
8359.00,1.47
8358.00,1.47
8357.00,1.47
8356.00,1.47
8355.00,1.47
8354.00,1.47
8353.00,1.47
8352.00,1.47
8351.00,1.47
8350.00,1.47
8349.00,1.47
8348.00,1.47
8347.00,1.47
8346.00,1.47
8345.00,1.47
8344.00,1.47
8343.00,1.47
8342.00,1.47
8341.00,1.47
8340.00,1.47
8339.00,1.47
8338.00,1.47
8337.00,1.47
8336.00,1.47
8335.00,1.47
8334.00,1.48
8333.00,1.48
8332.00,1.48
8331.00,1.48
8330.00,1.48
8329.00,1.48
8328.00,1.48
8327.00,1.48
8326.00,1.48
8325.00,1.48
8324.00,1.48
8323.00,1.48
8322.00,1.48
8321.00,1.48
8320.00,1.48
8319.00,1.47
8318.00,1.47
8317.00,1.47
8316.00,1.47
8315.00,1.47
8314.00,1.47
8313.00,1.47
8312.00,1.47
8311.00,1.47
8310.00,1.47
8309.00,1.47
8308.00,1.48
8307.00,1.48
8306.00,1.48
8305.00,1.48
8304.00,1.48
8303.00,1.48
8302.00,1.48
8301.00,1.48
8300.00,1.48
8299.00,1.48
8298.00,1.48
8297.00,1.48
8296.00,1.48
8295.00,1.48
8294.00,1.48
8293.00,1.48
8292.00,1.48
8291.00,1.48
8290.00,1.48
8289.00,1.48
8288.00,1.48
8287.00,1.48
8286.00,1.48
8285.00,1.48
8284.00,1.48
8283.00,1.49
8282.00,1.49
8281.00,1.49
8280.00,1.49
8279.00,1.49
8278.00,1.49
8277.00,1.50
8276.00,1.50
8275.00,1.50
8274.00,1.50
8273.00,1.50
8272.00,1.50
8271.00,1.50
8270.00,1.50
8269.00,1.50
8268.00,1.50
8267.00,1.50
8266.00,1.50
8265.00,1.50
8264.00,1.49
8263.00,1.49
8262.00,1.49
8261.00,1.49
8260.00,1.49
8259.00,1.49
8258.00,1.49
8257.00,1.49
8256.00,1.49
8255.00,1.49
8254.00,1.49
8253.00,1.49
8252.00,1.49
8251.00,1.49
8250.00,1.49
8249.00,1.49
8248.00,1.49
8247.00,1.49
8246.00,1.49
8245.00,1.50
8244.00,1.50
8243.00,1.50
8242.00,1.50
8241.00,1.50
8240.00,1.50
8239.00,1.50
8238.00,1.50
8237.00,1.50
8236.00,1.50
8235.00,1.50
8234.00,1.51
8233.00,1.51
8232.00,1.51
8231.00,1.51
8230.00,1.51
8229.00,1.51
8228.00,1.51
8227.00,1.51
8226.00,1.51
8225.00,1.51
8224.00,1.51
8223.00,1.51
8222.00,1.51
8221.00,1.51
8220.00,1.51
8219.00,1.51
8218.00,1.51
8217.00,1.51
8216.00,1.51
8215.00,1.51
8214.00,1.51
8213.00,1.51
8212.00,1.52
8211.00,1.52
8210.00,1.52
8209.00,1.52
8208.00,1.52
8207.00,1.52
8206.00,1.52
8205.00,1.52
8204.00,1.52
8203.00,1.52
8202.00,1.52
8201.00,1.52
8200.00,1.52
8199.00,1.52
8198.00,1.52
8197.00,1.52
8196.00,1.52
8195.00,1.52
8194.00,1.53
8193.00,1.53
8192.00,1.53
8191.00,1.53
8190.00,1.53
8189.00,1.53
8188.00,1.53
8187.00,1.53
8186.00,1.53
8185.00,1.53
8184.00,1.53
8183.00,1.54
8182.00,1.54
8181.00,1.54
8180.00,1.54
8179.00,1.54
8178.00,1.54
8177.00,1.54
8176.00,1.54
8175.00,1.54
8174.00,1.54
8173.00,1.54
8172.00,1.55
8171.00,1.55
8170.00,1.55
8169.00,1.55
8168.00,1.55
8167.00,1.55
8166.00,1.55
8165.00,1.55
8164.00,1.55
8163.00,1.55
8162.00,1.55
8161.00,1.55
8160.00,1.55
8159.00,1.55
8158.00,1.55
8157.00,1.55
8156.00,1.55
8155.00,1.55
8154.00,1.55
8153.00,1.55
8152.00,1.55
8151.00,1.55
8150.00,1.55
8149.00,1.55
8148.00,1.55
8147.00,1.55
8146.00,1.55
8145.00,1.55
8144.00,1.55
8143.00,1.55
8142.00,1.55
8141.00,1.55
8140.00,1.55
8139.00,1.55
8138.00,1.56
8137.00,1.56
8136.00,1.56
8135.00,1.56
8134.00,1.56
8133.00,1.56
8132.00,1.56
8131.00,1.56
8130.00,1.56
8129.00,1.57
8128.00,1.57
8127.00,1.57
8126.00,1.57
8125.00,1.57
8124.00,1.57
8123.00,1.57
8122.00,1.57
8121.00,1.57
8120.00,1.57
8119.00,1.57
8118.00,1.57
8117.00,1.57
8116.00,1.57
8115.00,1.57
8114.00,1.57
8113.00,1.57
8112.00,1.57
8111.00,1.57
8110.00,1.57
8109.00,1.57
8108.00,1.57
8107.00,1.57
8106.00,1.57
8105.00,1.57
8104.00,1.57
8103.00,1.57
8102.00,1.57
8101.00,1.57
8100.00,1.57
8099.00,1.57
8098.00,1.57
8097.00,1.57
8096.00,1.57
8095.00,1.57
8094.00,1.57
8093.00,1.57
8092.00,1.57
8091.00,1.57
8090.00,1.57
8089.00,1.57
8088.00,1.57
8087.00,1.57
8086.00,1.57
8085.00,1.57
8084.00,1.58
8083.00,1.58
8082.00,1.58
8081.00,1.58
8080.00,1.58
8079.00,1.58
8078.00,1.58
8077.00,1.58
8076.00,1.59
8075.00,1.59
8074.00,1.59
8073.00,1.59
8072.00,1.59
8071.00,1.59
8070.00,1.59
8069.00,1.60
8068.00,1.60
8067.00,1.60
8066.00,1.60
8065.00,1.60
8064.00,1.60
8063.00,1.60
8062.00,1.60
8061.00,1.60
8060.00,1.60
8059.00,1.60
8058.00,1.60
8057.00,1.60
8056.00,1.59
8055.00,1.59
8054.00,1.59
8053.00,1.59
8052.00,1.59
8051.00,1.59
8050.00,1.59
8049.00,1.59
8048.00,1.59
8047.00,1.59
8046.00,1.59
8045.00,1.59
8044.00,1.59
8043.00,1.59
8042.00,1.59
8041.00,1.59
8040.00,1.59
8039.00,1.60
8038.00,1.60
8037.00,1.60
8036.00,1.60
8035.00,1.60
8034.00,1.60
8033.00,1.60
8032.00,1.60
8031.00,1.60
8030.00,1.60
8029.00,1.60
8028.00,1.60
8027.00,1.60
8026.00,1.60
8025.00,1.60
8024.00,1.60
8023.00,1.60
8022.00,1.60
8021.00,1.60
8020.00,1.60
8019.00,1.60
8018.00,1.60
8017.00,1.60
8016.00,1.60
8015.00,1.60
8014.00,1.60
8013.00,1.60
8012.00,1.60
8011.00,1.60
8010.00,1.60
8009.00,1.60
8008.00,1.60
8007.00,1.60
8006.00,1.60
8005.00,1.60
8004.00,1.60
8003.00,1.60
8002.00,1.60
8001.00,1.60
8000.00,1.60
7999.00,1.60
7998.00,1.60
7997.00,1.60
7996.00,1.60
7995.00,1.60
7994.00,1.60
7993.00,1.60
7992.00,1.61
7991.00,1.61
7990.00,1.61
7989.00,1.61
7988.00,1.61
7987.00,1.61
7986.00,1.61
7985.00,1.61
7984.00,1.61
7983.00,1.61
7982.00,1.61
7981.00,1.61
7980.00,1.61
7979.00,1.61
7978.00,1.62
7977.00,1.62
7976.00,1.62
7975.00,1.62
7974.00,1.62
7973.00,1.62
7972.00,1.62
7971.00,1.62
7970.00,1.62
7969.00,1.62
7968.00,1.62
7967.00,1.62
7966.00,1.62
7965.00,1.62
7964.00,1.62
7963.00,1.62
7962.00,1.62
7961.00,1.62
7960.00,1.62
7959.00,1.62
7958.00,1.62
7957.00,1.62
7956.00,1.62
7955.00,1.62
7954.00,1.62
7953.00,1.62
7952.00,1.62
7951.00,1.62
7950.00,1.62
7949.00,1.62
7948.00,1.62
7947.00,1.62
7946.00,1.62
7945.00,1.62
7944.00,1.62
7943.00,1.62
7942.00,1.62
7941.00,1.62
7940.00,1.62
7939.00,1.62
7938.00,1.62
7937.00,1.62
7936.00,1.62
7935.00,1.62
7934.00,1.62
7933.00,1.62
7932.00,1.62
7931.00,1.62
7930.00,1.62
7929.00,1.62
7928.00,1.62
7927.00,1.62
7926.00,1.62
7925.00,1.62
7924.00,1.62
7923.00,1.62
7922.00,1.62
7921.00,1.62
7920.00,1.62
7919.00,1.62
7918.00,1.62
7917.00,1.62
7916.00,1.62
7915.00,1.62
7914.00,1.62
7913.00,1.62
7912.00,1.62
7911.00,1.62
7910.00,1.62
7909.00,1.62
7908.00,1.62
7907.00,1.62
7906.00,1.62
7905.00,1.62
7904.00,1.62
7903.00,1.62
7902.00,1.62
7901.00,1.62
7900.00,1.62
7899.00,1.62
7898.00,1.62
7897.00,1.62
7896.00,1.62
7895.00,1.62
7894.00,1.62
7893.00,1.62
7892.00,1.63
7891.00,1.63
7890.00,1.63
7889.00,1.63
7888.00,1.63
7887.00,1.63
7886.00,1.63
7885.00,1.63
7884.00,1.63
7883.00,1.63
7882.00,1.63
7881.00,1.63
7880.00,1.63
7879.00,1.63
7878.00,1.63
7877.00,1.63
7876.00,1.63
7875.00,1.63
7874.00,1.63
7873.00,1.63
7872.00,1.63
7871.00,1.63
7870.00,1.64
7869.00,1.64
7868.00,1.64
7867.00,1.64
7866.00,1.64
7865.00,1.64
7864.00,1.64
7863.00,1.64
7862.00,1.64
7861.00,1.64
7860.00,1.64
7859.00,1.64
7858.00,1.64
7857.00,1.64
7856.00,1.64
7855.00,1.64
7854.00,1.63
7853.00,1.63
7852.00,1.63
7851.00,1.63
7850.00,1.63
7849.00,1.63
7848.00,1.63
7847.00,1.63
7846.00,1.63
7845.00,1.63
7844.00,1.64
7843.00,1.64
7842.00,1.64
7841.00,1.64
7840.00,1.64
7839.00,1.64
7838.00,1.64
7837.00,1.64
7836.00,1.64
7835.00,1.64
7834.00,1.64
7833.00,1.64
7832.00,1.64
7831.00,1.65
7830.00,1.65
7829.00,1.65
7828.00,1.65
7827.00,1.65
7826.00,1.65
7825.00,1.65
7824.00,1.65
7823.00,1.65
7822.00,1.65
7821.00,1.65
7820.00,1.65
7819.00,1.65
7818.00,1.65
7817.00,1.65
7816.00,1.65
7815.00,1.65
7814.00,1.65
7813.00,1.65
7812.00,1.65
7811.00,1.65
7810.00,1.65
7809.00,1.65
7808.00,1.65
7807.00,1.65
7806.00,1.65
7805.00,1.65
7804.00,1.65
7803.00,1.65
7802.00,1.65
7801.00,1.65
7800.00,1.65
7799.00,1.65
7798.00,1.65
7797.00,1.65
7796.00,1.65
7795.00,1.65
7794.00,1.65
7793.00,1.65
7792.00,1.65
7791.00,1.65
7790.00,1.65
7789.00,1.65
7788.00,1.65
7787.00,1.65
7786.00,1.65
7785.00,1.65
7784.00,1.65
7783.00,1.65
7782.00,1.65
7781.00,1.65
7780.00,1.65
7779.00,1.65
7778.00,1.65
7777.00,1.65
7776.00,1.65
7775.00,1.65
7774.00,1.65
7773.00,1.65
7772.00,1.65
7771.00,1.65
7770.00,1.65
7769.00,1.65
7768.00,1.65
7767.00,1.65
7766.00,1.65
7765.00,1.65
7764.00,1.65
7763.00,1.65
7762.00,1.65
7761.00,1.65
7760.00,1.65
7759.00,1.65
7758.00,1.65
7757.00,1.65
7756.00,1.65
7755.00,1.65
7754.00,1.65
7753.00,1.65
7752.00,1.65
7751.00,1.65
7750.00,1.65
7749.00,1.65
7748.00,1.65
7747.00,1.65
7746.00,1.65
7745.00,1.65
7744.00,1.65
7743.00,1.65
7742.00,1.65
7741.00,1.65
7740.00,1.65
7739.00,1.65
7738.00,1.65
7737.00,1.65
7736.00,1.65
7735.00,1.65
7734.00,1.66
7733.00,1.66
7732.00,1.66
7731.00,1.66
7730.00,1.66
7729.00,1.66
7728.00,1.66
7727.00,1.66
7726.00,1.66
7725.00,1.66
7724.00,1.66
7723.00,1.66
7722.00,1.66
7721.00,1.66
7720.00,1.66
7719.00,1.66
7718.00,1.66
7717.00,1.66
7716.00,1.66
7715.00,1.66
7714.00,1.66
7713.00,1.66
7712.00,1.66
7711.00,1.66
7710.00,1.66
7709.00,1.66
7708.00,1.66
7707.00,1.66
7706.00,1.66
7705.00,1.66
7704.00,1.66
7703.00,1.66
7702.00,1.66
7701.00,1.66
7700.00,1.66
7699.00,1.66
7698.00,1.66
7697.00,1.66
7696.00,1.66
7695.00,1.66
7694.00,1.66
7693.00,1.66
7692.00,1.66
7691.00,1.66
7690.00,1.66
7689.00,1.66
7688.00,1.66
7687.00,1.66
7686.00,1.66
7685.00,1.66
7684.00,1.66
7683.00,1.66
7682.00,1.66
7681.00,1.66
7680.00,1.66
7679.00,1.66
7678.00,1.66
7677.00,1.66
7676.00,1.66
7675.00,1.66
7674.00,1.66
7673.00,1.66
7672.00,1.66
7671.00,1.66
7670.00,1.66
7669.00,1.66
7668.00,1.66
7667.00,1.66
7666.00,1.66
7665.00,1.66
7664.00,1.66
7663.00,1.66
7662.00,1.66
7661.00,1.66
7660.00,1.66
7659.00,1.66
7658.00,1.66
7657.00,1.66
7656.00,1.66
7655.00,1.66
7654.00,1.66
7653.00,1.66
7652.00,1.66
7651.00,1.66
7650.00,1.66
7649.00,1.66
7648.00,1.66
7647.00,1.66
7646.00,1.66
7645.00,1.66
7644.00,1.66
7643.00,1.66
7642.00,1.66
7641.00,1.66
7640.00,1.66
7639.00,1.66
7638.00,1.66
7637.00,1.66
7636.00,1.65
7635.00,1.65
7634.00,1.65
7633.00,1.65
7632.00,1.65
7631.00,1.65
7630.00,1.65
7629.00,1.65
7628.00,1.65
7627.00,1.65
7626.00,1.65
7625.00,1.65
7624.00,1.65
7623.00,1.66
7622.00,1.66
7621.00,1.66
7620.00,1.66
7619.00,1.66
7618.00,1.66
7617.00,1.66
7616.00,1.66
7615.00,1.66
7614.00,1.66
7613.00,1.66
7612.00,1.66
7611.00,1.66
7610.00,1.66
7609.00,1.66
7608.00,1.66
7607.00,1.66
7606.00,1.66
7605.00,1.66
7604.00,1.66
7603.00,1.66
7602.00,1.66
7601.00,1.66
7600.00,1.66
7599.00,1.66
7598.00,1.66
7597.00,1.66
7596.00,1.66
7595.00,1.66
7594.00,1.66
7593.00,1.66
7592.00,1.66
7591.00,1.66
7590.00,1.66
7589.00,1.66
7588.00,1.66
7587.00,1.66
7586.00,1.66
7585.00,1.65
7584.00,1.65
7583.00,1.65
7582.00,1.65
7581.00,1.65
7580.00,1.65
7579.00,1.65
7578.00,1.65
7577.00,1.64
7576.00,1.64
7575.00,1.64
7574.00,1.64
7573.00,1.64
7572.00,1.64
7571.00,1.64
7570.00,1.64
7569.00,1.64
7568.00,1.64
7567.00,1.64
7566.00,1.64
7565.00,1.64
7564.00,1.64
7563.00,1.64
7562.00,1.64
7561.00,1.64
7560.00,1.64
7559.00,1.64
7558.00,1.64
7557.00,1.64
7556.00,1.64
7555.00,1.64
7554.00,1.64
7553.00,1.64
7552.00,1.64
7551.00,1.64
7550.00,1.64
7549.00,1.64
7548.00,1.64
7547.00,1.64
7546.00,1.64
7545.00,1.64
7544.00,1.64
7543.00,1.64
7542.00,1.64
7541.00,1.64
7540.00,1.64
7539.00,1.64
7538.00,1.64
7537.00,1.64
7536.00,1.64
7535.00,1.64
7534.00,1.64
7533.00,1.64
7532.00,1.64
7531.00,1.64
7530.00,1.64
7529.00,1.64
7528.00,1.64
7527.00,1.64
7526.00,1.64
7525.00,1.64
7524.00,1.64
7523.00,1.64
7522.00,1.64
7521.00,1.64
7520.00,1.64
7519.00,1.63
7518.00,1.63
7517.00,1.63
7516.00,1.63
7515.00,1.63
7514.00,1.63
7513.00,1.63
7512.00,1.63
7511.00,1.63
7510.00,1.63
7509.00,1.62
7508.00,1.62
7507.00,1.62
7506.00,1.62
7505.00,1.62
7504.00,1.62
7503.00,1.62
7502.00,1.62
7501.00,1.62
7500.00,1.62
7499.00,1.62
7498.00,1.62
7497.00,1.62
7496.00,1.62
7495.00,1.62
7494.00,1.62
7493.00,1.62
7492.00,1.62
7491.00,1.62
7490.00,1.62
7489.00,1.62
7488.00,1.62
7487.00,1.62
7486.00,1.62
7485.00,1.62
7484.00,1.62
7483.00,1.62
7482.00,1.61
7481.00,1.61
7480.00,1.61
7479.00,1.61
7478.00,1.61
7477.00,1.61
7476.00,1.61
7475.00,1.61
7474.00,1.61
7473.00,1.60
7472.00,1.60
7471.00,1.60
7470.00,1.60
7469.00,1.60
7468.00,1.60
7467.00,1.60
7466.00,1.60
7465.00,1.60
7464.00,1.60
7463.00,1.60
7462.00,1.60
7461.00,1.60
7460.00,1.60
7459.00,1.60
7458.00,1.60
7457.00,1.59
7456.00,1.59
7455.00,1.59
7454.00,1.59
7453.00,1.59
7452.00,1.59
7451.00,1.59
7450.00,1.59
7449.00,1.59
7448.00,1.59
7447.00,1.59
7446.00,1.59
7445.00,1.59
7444.00,1.59
7443.00,1.59
7442.00,1.59
7441.00,1.58
7440.00,1.58
7439.00,1.58
7438.00,1.58
7437.00,1.58
7436.00,1.58
7435.00,1.58
7434.00,1.57
7433.00,1.57
7432.00,1.57
7431.00,1.57
7430.00,1.57
7429.00,1.57
7428.00,1.57
7427.00,1.57
7426.00,1.57
7425.00,1.57
7424.00,1.57
7423.00,1.57
7422.00,1.56
7421.00,1.56
7420.00,1.56
7419.00,1.56
7418.00,1.56
7417.00,1.56
7416.00,1.56
7415.00,1.56
7414.00,1.56
7413.00,1.56
7412.00,1.56
7411.00,1.56
7410.00,1.55
7409.00,1.55
7408.00,1.55
7407.00,1.55
7406.00,1.55
7405.00,1.55
7404.00,1.54
7403.00,1.54
7402.00,1.54
7401.00,1.54
7400.00,1.54
7399.00,1.54
7398.00,1.54
7397.00,1.53
7396.00,1.53
7395.00,1.53
7394.00,1.53
7393.00,1.53
7392.00,1.53
7391.00,1.53
7390.00,1.53
7389.00,1.53
7388.00,1.53
7387.00,1.53
7386.00,1.53
7385.00,1.52
7384.00,1.52
7383.00,1.52
7382.00,1.52
7381.00,1.52
7380.00,1.52
7379.00,1.52
7378.00,1.52
7377.00,1.52
7376.00,1.52
7375.00,1.51
7374.00,1.51
7373.00,1.51
7372.00,1.51
7371.00,1.51
7370.00,1.51
7369.00,1.51
7368.00,1.51
7367.00,1.51
7366.00,1.51
7365.00,1.51
7364.00,1.51
7363.00,1.51
7362.00,1.51
7361.00,1.50
7360.00,1.50
7359.00,1.50
7358.00,1.50
7357.00,1.50
7356.00,1.50
7355.00,1.50
7354.00,1.50
7353.00,1.50
7352.00,1.50
7351.00,1.50
7350.00,1.50
7349.00,1.50
7348.00,1.50
7347.00,1.50
7346.00,1.50
7345.00,1.50
7344.00,1.50
7343.00,1.50
7342.00,1.50
7341.00,1.50
7340.00,1.50
7339.00,1.50
7338.00,1.50
7337.00,1.50
7336.00,1.50
7335.00,1.49
7334.00,1.49
7333.00,1.49
7332.00,1.49
7331.00,1.49
7330.00,1.49
7329.00,1.49
7328.00,1.49
7327.00,1.49
7326.00,1.49
7325.00,1.49
7324.00,1.49
7323.00,1.49
7322.00,1.48
7321.00,1.48
7320.00,1.48
7319.00,1.48
7318.00,1.48
7317.00,1.48
7316.00,1.48
7315.00,1.48
7314.00,1.48
7313.00,1.48
7312.00,1.48
7311.00,1.48
7310.00,1.48
7309.00,1.48
7308.00,1.48
7307.00,1.48
7306.00,1.47
7305.00,1.47
7304.00,1.47
7303.00,1.47
7302.00,1.47
7301.00,1.46
7300.00,1.46
7299.00,1.46
7298.00,1.46
7297.00,1.46
7296.00,1.46
7295.00,1.45
7294.00,1.45
7293.00,1.45
7292.00,1.45
7291.00,1.45
7290.00,1.45
7289.00,1.44
7288.00,1.44
7287.00,1.44
7286.00,1.44
7285.00,1.44
7284.00,1.43
7283.00,1.43
7282.00,1.43
7281.00,1.43
7280.00,1.43
7279.00,1.42
7278.00,1.42
7277.00,1.42
7276.00,1.42
7275.00,1.42
7274.00,1.42
7273.00,1.41
7272.00,1.41
7271.00,1.41
7270.00,1.41
7269.00,1.41
7268.00,1.41
7267.00,1.40
7266.00,1.40
7265.00,1.40
7264.00,1.40
7263.00,1.40
7262.00,1.40
7261.00,1.40
7260.00,1.39
7259.00,1.39
7258.00,1.39
7257.00,1.39
7256.00,1.39
7255.00,1.39
7254.00,1.39
7253.00,1.38
7252.00,1.38
7251.00,1.38
7250.00,1.38
7249.00,1.37
7248.00,1.37
7247.00,1.37
7246.00,1.37
7245.00,1.36
7244.00,1.36
7243.00,1.36
7242.00,1.35
7241.00,1.35
7240.00,1.34
7239.00,1.34
7238.00,1.33
7237.00,1.33
7236.00,1.32
7235.00,1.32
7234.00,1.31
7233.00,1.31
7232.00,1.30
7231.00,1.30
7230.00,1.30
7229.00,1.29
7228.00,1.29
7227.00,1.28
7226.00,1.28
7225.00,1.27
7224.00,1.27
7223.00,1.26
7222.00,1.26
7221.00,1.25
7220.00,1.25
7219.00,1.24
7218.00,1.24
7217.00,1.24
7216.00,1.23
7215.00,1.23
7214.00,1.22
7213.00,1.22
7212.00,1.21
7211.00,1.21
7210.00,1.20
7209.00,1.20
7208.00,1.20
7207.00,1.19
7206.00,1.19
7205.00,1.18
7204.00,1.18
7203.00,1.17
7202.00,1.17
7201.00,1.16
7200.00,1.16
7199.00,1.16
7198.00,1.15
7197.00,1.15
7196.00,1.14
7195.00,1.14
7194.00,1.13
7193.00,1.13
7192.00,1.12
7191.00,1.12
7190.00,1.11
7189.00,1.11
7188.00,1.11
7187.00,1.10
7186.00,1.10
7185.00,1.09
7184.00,1.09
7183.00,1.08
7182.00,1.08
7181.00,1.07
7180.00,1.07
7179.00,1.07
7178.00,1.06
7177.00,1.06
7176.00,1.06
7175.00,1.05
7174.00,1.05
7173.00,1.05
7172.00,1.04
7171.00,1.04
7170.00,1.04
7169.00,1.03
7168.00,1.03
7167.00,1.03
7166.00,1.03
7165.00,1.02
7164.00,1.02
7163.00,1.02
7162.00,1.01
7161.00,1.01
7160.00,1.01
7159.00,1.00
7158.00,1.00
7157.00,1.00
7156.00,0.99
7155.00,0.99
7154.00,0.99
7153.00,0.98
7152.00,0.98
7151.00,0.97
7150.00,0.97
7149.00,0.97
7148.00,0.96
7147.00,0.96
7146.00,0.95
7145.00,0.95
7144.00,0.95
7143.00,0.94
7142.00,0.94
7141.00,0.93
7140.00,0.93
7139.00,0.93
7138.00,0.92
7137.00,0.92
7136.00,0.92
7135.00,0.91
7134.00,0.91
7133.00,0.91
7132.00,0.90
7131.00,0.90
7130.00,0.90
7129.00,0.89
7128.00,0.89
7127.00,0.89
7126.00,0.88
7125.00,0.88
7124.00,0.88
7123.00,0.87
7122.00,0.87
7121.00,0.87
7120.00,0.86
7119.00,0.86
7118.00,0.86
7117.00,0.85
7116.00,0.85
7115.00,0.85
7114.00,0.84
7113.00,0.84
7112.00,0.84
7111.00,0.83
7110.00,0.83
7109.00,0.83
7108.00,0.82
7107.00,0.82
7106.00,0.82
7105.00,0.81
7104.00,0.81
7103.00,0.81
7102.00,0.80
7101.00,0.80
7100.00,0.80
7099.00,0.80
7098.00,0.79
7097.00,0.79
7096.00,0.79
7095.00,0.79
7094.00,0.79
7093.00,0.78
7092.00,0.78
7091.00,0.78
7090.00,0.78
7089.00,0.78
7088.00,0.77
7087.00,0.77
7086.00,0.77
7085.00,0.77
7084.00,0.77
7083.00,0.76
7082.00,0.76
7081.00,0.76
7080.00,0.76
7079.00,0.76
7078.00,0.75
7077.00,0.75
7076.00,0.75
7075.00,0.75
7074.00,0.75
7073.00,0.75
7072.00,0.74
7071.00,0.74
7070.00,0.74
7069.00,0.74
7068.00,0.74
7067.00,0.74
7066.00,0.73
7065.00,0.73
7064.00,0.73
7063.00,0.73
7062.00,0.73
7061.00,0.72
7060.00,0.72
7059.00,0.72
7058.00,0.72
7057.00,0.72
7056.00,0.71
7055.00,0.71
7054.00,0.71
7053.00,0.71
7052.00,0.71
7051.00,0.71
7050.00,0.70
7049.00,0.70
7048.00,0.70
7047.00,0.70
7046.00,0.70
7045.00,0.70
7044.00,0.70
7043.00,0.69
7042.00,0.69
7041.00,0.69
7040.00,0.69
7039.00,0.69
7038.00,0.69
7037.00,0.69
7036.00,0.68
7035.00,0.68
7034.00,0.68
7033.00,0.68
7032.00,0.68
7031.00,0.68
7030.00,0.68
7029.00,0.68
7028.00,0.68
7027.00,0.67
7026.00,0.67
7025.00,0.67
7024.00,0.67
7023.00,0.67
7022.00,0.67
7021.00,0.67
7020.00,0.66
7019.00,0.66
7018.00,0.66
7017.00,0.66
7016.00,0.66
7015.00,0.66
7014.00,0.65
7013.00,0.65
7012.00,0.65
7011.00,0.65
7010.00,0.65
7009.00,0.65
7008.00,0.65
7007.00,0.65
7006.00,0.64
7005.00,0.64
7004.00,0.64
7003.00,0.64
7002.00,0.64
7001.00,0.64
7000.00,0.64
6999.00,0.64
6998.00,0.64
6997.00,0.64
6996.00,0.64
6995.00,0.64
6994.00,0.64
6993.00,0.64
6992.00,0.64
6991.00,0.64
6990.00,0.64
6989.00,0.64
6988.00,0.64
6987.00,0.64
6986.00,0.64
6985.00,0.64
6984.00,0.64
6983.00,0.63
6982.00,0.63
6981.00,0.63
6980.00,0.63
6979.00,0.63
6978.00,0.63
6977.00,0.63
6976.00,0.63
6975.00,0.63
6974.00,0.63
6973.00,0.63
6972.00,0.63
6971.00,0.63
6970.00,0.63
6969.00,0.63
6968.00,0.63
6967.00,0.63
6966.00,0.63
6965.00,0.63
6964.00,0.62
6963.00,0.62
6962.00,0.62
6961.00,0.62
6960.00,0.62
6959.00,0.62
6958.00,0.62
6957.00,0.62
6956.00,0.62
6955.00,0.62
6954.00,0.62
6953.00,0.62
6952.00,0.62
6951.00,0.62
6950.00,0.62
6949.00,0.62
6948.00,0.62
6947.00,0.62
6946.00,0.62
6945.00,0.62
6944.00,0.62
6943.00,0.62
6942.00,0.62
6941.00,0.62
6940.00,0.62
6939.00,0.62
6938.00,0.61
6937.00,0.61
6936.00,0.61
6935.00,0.61
6934.00,0.61
6933.00,0.61
6932.00,0.61
6931.00,0.61
6930.00,0.61
6929.00,0.61
6928.00,0.61
6927.00,0.61
6926.00,0.60
6925.00,0.60
6924.00,0.60
6923.00,0.60
6922.00,0.60
6921.00,0.60
6920.00,0.60
6919.00,0.60
6918.00,0.60
6917.00,0.60
6916.00,0.60
6915.00,0.60
6914.00,0.60
6913.00,0.60
6912.00,0.60
6911.00,0.60
6910.00,0.61
6909.00,0.61
6908.00,0.61
6907.00,0.61
6906.00,0.61
6905.00,0.61
6904.00,0.61
6903.00,0.60
6902.00,0.60
6901.00,0.60
6900.00,0.60
6899.00,0.60
6898.00,0.60
6897.00,0.60
6896.00,0.60
6895.00,0.60
6894.00,0.60
6893.00,0.60
6892.00,0.60
6891.00,0.60
6890.00,0.60
6889.00,0.60
6888.00,0.60
6887.00,0.60
6886.00,0.60
6885.00,0.60
6884.00,0.60
6883.00,0.60
6882.00,0.60
6881.00,0.60
6880.00,0.60
6879.00,0.60
6878.00,0.60
6877.00,0.60
6876.00,0.60
6875.00,0.60
6874.00,0.60
6873.00,0.60
6872.00,0.60
6871.00,0.60
6870.00,0.60
6869.00,0.60
6868.00,0.60
6867.00,0.60
6866.00,0.60
6865.00,0.60
6864.00,0.60
6863.00,0.60
6862.00,0.60
6861.00,0.60
6860.00,0.60
6859.00,0.60
6858.00,0.60
6857.00,0.60
6856.00,0.60
6855.00,0.60
6854.00,0.60
6853.00,0.60
6852.00,0.60
6851.00,0.60
6850.00,0.60
6849.00,0.60
6848.00,0.60
6847.00,0.60
6846.00,0.60
6845.00,0.60
6844.00,0.60
6843.00,0.60
6842.00,0.60
6841.00,0.60
6840.00,0.60
6839.00,0.60
6838.00,0.61
6837.00,0.61
6836.00,0.61
6835.00,0.61
6834.00,0.61
6833.00,0.61
6832.00,0.61
6831.00,0.61
6830.00,0.61
6829.00,0.61
6828.00,0.61
6827.00,0.61
6826.00,0.61
6825.00,0.61
6824.00,0.61
6823.00,0.61
6822.00,0.61
6821.00,0.61
6820.00,0.61
6819.00,0.61
6818.00,0.61
6817.00,0.61
6816.00,0.61
6815.00,0.61
6814.00,0.61
6813.00,0.61
6812.00,0.61
6811.00,0.61
6810.00,0.62
6809.00,0.62
6808.00,0.62
6807.00,0.62
6806.00,0.62
6805.00,0.62
6804.00,0.62
6803.00,0.62
6802.00,0.62
6801.00,0.62
6800.00,0.62
6799.00,0.62
6798.00,0.63
6797.00,0.63
6796.00,0.63
6795.00,0.63
6794.00,0.63
6793.00,0.63
6792.00,0.63
6791.00,0.63
6790.00,0.63
6789.00,0.63
6788.00,0.63
6787.00,0.63
6786.00,0.63
6785.00,0.63
6784.00,0.63
6783.00,0.63
6782.00,0.63
6781.00,0.63
6780.00,0.63
6779.00,0.63
6778.00,0.63
6777.00,0.63
6776.00,0.63
6775.00,0.63
6774.00,0.63
6773.00,0.63
6772.00,0.63
6771.00,0.63
6770.00,0.64
6769.00,0.64
6768.00,0.64
6767.00,0.64
6766.00,0.64
6765.00,0.64
6764.00,0.64
6763.00,0.64
6762.00,0.64
6761.00,0.64
6760.00,0.65
6759.00,0.65
6758.00,0.65
6757.00,0.65
6756.00,0.65
6755.00,0.65
6754.00,0.65
6753.00,0.65
6752.00,0.65
6751.00,0.65
6750.00,0.66
6749.00,0.66
6748.00,0.66
6747.00,0.66
6746.00,0.66
6745.00,0.66
6744.00,0.66
6743.00,0.66
6742.00,0.66
6741.00,0.66
6740.00,0.66
6739.00,0.66
6738.00,0.66
6737.00,0.66
6736.00,0.66
6735.00,0.66
6734.00,0.66
6733.00,0.66
6732.00,0.66
6731.00,0.66
6730.00,0.66
6729.00,0.67
6728.00,0.67
6727.00,0.67
6726.00,0.67
6725.00,0.67
6724.00,0.67
6723.00,0.67
6722.00,0.67
6721.00,0.67
6720.00,0.67
6719.00,0.68
6718.00,0.68
6717.00,0.68
6716.00,0.68
6715.00,0.68
6714.00,0.68
6713.00,0.68
6712.00,0.68
6711.00,0.69
6710.00,0.69
6709.00,0.69
6708.00,0.69
6707.00,0.69
6706.00,0.69
6705.00,0.69
6704.00,0.69
6703.00,0.69
6702.00,0.69
6701.00,0.70
6700.00,0.70
6699.00,0.70
6698.00,0.70
6697.00,0.70
6696.00,0.70
6695.00,0.70
6694.00,0.70
6693.00,0.70
6692.00,0.71
6691.00,0.71
6690.00,0.71
6689.00,0.71
6688.00,0.71
6687.00,0.71
6686.00,0.72
6685.00,0.72
6684.00,0.72
6683.00,0.72
6682.00,0.72
6681.00,0.72
6680.00,0.72
6679.00,0.73
6678.00,0.73
6677.00,0.73
6676.00,0.73
6675.00,0.73
6674.00,0.73
6673.00,0.73
6672.00,0.73
6671.00,0.73
6670.00,0.73
6669.00,0.73
6668.00,0.73
6667.00,0.73
6666.00,0.73
6665.00,0.73
6664.00,0.73
6663.00,0.73
6662.00,0.73
6661.00,0.73
6660.00,0.73
6659.00,0.73
6658.00,0.74
6657.00,0.74
6656.00,0.74
6655.00,0.74
6654.00,0.74
6653.00,0.74
6652.00,0.74
6651.00,0.74
6650.00,0.75
6649.00,0.75
6648.00,0.75
6647.00,0.75
6646.00,0.75
6645.00,0.75
6644.00,0.75
6643.00,0.76
6642.00,0.76
6641.00,0.76
6640.00,0.76
6639.00,0.76
6638.00,0.76
6637.00,0.76
6636.00,0.76
6635.00,0.76
6634.00,0.76
6633.00,0.76
6632.00,0.77
6631.00,0.77
6630.00,0.77
6629.00,0.77
6628.00,0.77
6627.00,0.77
6626.00,0.77
6625.00,0.77
6624.00,0.77
6623.00,0.78
6622.00,0.78
6621.00,0.78
6620.00,0.78
6619.00,0.78
6618.00,0.78
6617.00,0.78
6616.00,0.79
6615.00,0.79
6614.00,0.79
6613.00,0.79
6612.00,0.79
6611.00,0.79
6610.00,0.79
6609.00,0.80
6608.00,0.80
6607.00,0.80
6606.00,0.80
6605.00,0.80
6604.00,0.80
6603.00,0.80
6602.00,0.81
6601.00,0.81
6600.00,0.81
6599.00,0.81
6598.00,0.81
6597.00,0.81
6596.00,0.82
6595.00,0.82
6594.00,0.82
6593.00,0.82
6592.00,0.82
6591.00,0.82
6590.00,0.82
6589.00,0.83
6588.00,0.83
6587.00,0.83
6586.00,0.83
6585.00,0.83
6584.00,0.83
6583.00,0.83
6582.00,0.83
6581.00,0.84
6580.00,0.84
6579.00,0.84
6578.00,0.84
6577.00,0.84
6576.00,0.84
6575.00,0.84
6574.00,0.84
6573.00,0.84
6572.00,0.84
6571.00,0.85
6570.00,0.85
6569.00,0.85
6568.00,0.85
6567.00,0.85
6566.00,0.85
6565.00,0.85
6564.00,0.85
6563.00,0.85
6562.00,0.85
6561.00,0.86
6560.00,0.86
6559.00,0.86
6558.00,0.86
6557.00,0.86
6556.00,0.86
6555.00,0.86
6554.00,0.86
6553.00,0.86
6552.00,0.87
6551.00,0.87
6550.00,0.87
6549.00,0.87
6548.00,0.87
6547.00,0.87
6546.00,0.87
6545.00,0.87
6544.00,0.87
6543.00,0.87
6542.00,0.87
6541.00,0.87
6540.00,0.88
6539.00,0.88
6538.00,0.88
6537.00,0.88
6536.00,0.88
6535.00,0.88
6534.00,0.88
6533.00,0.88
6532.00,0.88
6531.00,0.89
6530.00,0.89
6529.00,0.89
6528.00,0.89
6527.00,0.89
6526.00,0.89
6525.00,0.89
6524.00,0.89
6523.00,0.89
6522.00,0.89
6521.00,0.89
6520.00,0.90
6519.00,0.90
6518.00,0.90
6517.00,0.90
6516.00,0.90
6515.00,0.90
6514.00,0.90
6513.00,0.90
6512.00,0.90
6511.00,0.90
6510.00,0.90
6509.00,0.90
6508.00,0.91
6507.00,0.91
6506.00,0.91
6505.00,0.91
6504.00,0.91
6503.00,0.91
6502.00,0.91
6501.00,0.91
6500.00,0.92
6499.00,0.92
6498.00,0.92
6497.00,0.92
6496.00,0.92
6495.00,0.92
6494.00,0.92
6493.00,0.92
6492.00,0.92
6491.00,0.92
6490.00,0.92
6489.00,0.92
6488.00,0.92
6487.00,0.92
6486.00,0.92
6485.00,0.93
6484.00,0.93
6483.00,0.93
6482.00,0.93
6481.00,0.93
6480.00,0.93
6479.00,0.93
6478.00,0.93
6477.00,0.93
6476.00,0.93
6475.00,0.94
6474.00,0.94
6473.00,0.94
6472.00,0.94
6471.00,0.94
6470.00,0.94
6469.00,0.94
6468.00,0.94
6467.00,0.94
6466.00,0.94
6465.00,0.95
6464.00,0.95
6463.00,0.95
6462.00,0.95
6461.00,0.95
6460.00,0.95
6459.00,0.95
6458.00,0.95
6457.00,0.95
6456.00,0.95
6455.00,0.96
6454.00,0.96
6453.00,0.96
6452.00,0.96
6451.00,0.96
6450.00,0.96
6449.00,0.96
6448.00,0.96
6447.00,0.96
6446.00,0.96
6445.00,0.96
6444.00,0.96
6443.00,0.96
6442.00,0.96
6441.00,0.96
6440.00,0.96
6439.00,0.97
6438.00,0.97
6437.00,0.97
6436.00,0.97
6435.00,0.97
6434.00,0.97
6433.00,0.97
6432.00,0.97
6431.00,0.97
6430.00,0.97
6429.00,0.97
6428.00,0.97
6427.00,0.97
6426.00,0.97
6425.00,0.97
6424.00,0.97
6423.00,0.98
6422.00,0.98
6421.00,0.98
6420.00,0.98
6419.00,0.98
6418.00,0.98
6417.00,0.98
6416.00,0.98
6415.00,0.98
6414.00,0.98
6413.00,0.98
6412.00,0.98
6411.00,0.98
6410.00,0.99
6409.00,0.99
6408.00,0.99
6407.00,0.99
6406.00,0.99
6405.00,0.99
6404.00,0.99
6403.00,0.99
6402.00,0.99
6401.00,0.99
6400.00,0.99
6399.00,0.99
6398.00,0.99
6397.00,0.99
6396.00,1.00
6395.00,1.00
6394.00,1.00
6393.00,1.00
6392.00,1.00
6391.00,1.00
6390.00,1.00
6389.00,1.00
6388.00,1.00
6387.00,1.00
6386.00,1.00
6385.00,1.00
6384.00,1.00
6383.00,1.00
6382.00,1.00
6381.00,1.01
6380.00,1.01
6379.00,1.01
6378.00,1.01
6377.00,1.01
6376.00,1.01
6375.00,1.01
6374.00,1.01
6373.00,1.01
6372.00,1.01
6371.00,1.01
6370.00,1.01
6369.00,1.01
6368.00,1.02
6367.00,1.02
6366.00,1.02
6365.00,1.02
6364.00,1.02
6363.00,1.02
6362.00,1.02
6361.00,1.03
6360.00,1.03
6359.00,1.03
6358.00,1.03
6357.00,1.03
6356.00,1.03
6355.00,1.03
6354.00,1.04
6353.00,1.04
6352.00,1.04
6351.00,1.04
6350.00,1.04
6349.00,1.04
6348.00,1.04
6347.00,1.04
6346.00,1.04
6345.00,1.05
6344.00,1.05
6343.00,1.05
6342.00,1.05
6341.00,1.05
6340.00,1.05
6339.00,1.05
6338.00,1.06
6337.00,1.06
6336.00,1.06
6335.00,1.06
6334.00,1.06
6333.00,1.06
6332.00,1.06
6331.00,1.07
6330.00,1.07
6329.00,1.07
6328.00,1.07
6327.00,1.07
6326.00,1.07
6325.00,1.07
6324.00,1.07
6323.00,1.07
6322.00,1.07
6321.00,1.07
6320.00,1.07
6319.00,1.07
6318.00,1.07
6317.00,1.07
6316.00,1.07
6315.00,1.08
6314.00,1.08
6313.00,1.08
6312.00,1.08
6311.00,1.08
6310.00,1.08
6309.00,1.08
6308.00,1.08
6307.00,1.09
6306.00,1.09
6305.00,1.09
6304.00,1.09
6303.00,1.09
6302.00,1.09
6301.00,1.10
6300.00,1.10
6299.00,1.10
6298.00,1.10
6297.00,1.10
6296.00,1.11
6295.00,1.11
6294.00,1.11
6293.00,1.11
6292.00,1.11
6291.00,1.11
6290.00,1.12
6289.00,1.12
6288.00,1.12
6287.00,1.12
6286.00,1.12
6285.00,1.12
6284.00,1.13
6283.00,1.13
6282.00,1.13
6281.00,1.13
6280.00,1.13
6279.00,1.13
6278.00,1.13
6277.00,1.13
6276.00,1.13
6275.00,1.14
6274.00,1.14
6273.00,1.14
6272.00,1.14
6271.00,1.14
6270.00,1.14
6269.00,1.14
6268.00,1.15
6267.00,1.15
6266.00,1.15
6265.00,1.15
6264.00,1.15
6263.00,1.15
6262.00,1.15
6261.00,1.16
6260.00,1.16
6259.00,1.16
6258.00,1.16
6257.00,1.16
6256.00,1.16
6255.00,1.17
6254.00,1.17
6253.00,1.17
6252.00,1.17
6251.00,1.17
6250.00,1.17
6249.00,1.18
6248.00,1.18
6247.00,1.18
6246.00,1.18
6245.00,1.18
6244.00,1.18
6243.00,1.18
6242.00,1.18
6241.00,1.19
6240.00,1.19
6239.00,1.19
6238.00,1.19
6237.00,1.19
6236.00,1.20
6235.00,1.20
6234.00,1.20
6233.00,1.20
6232.00,1.20
6231.00,1.20
6230.00,1.21
6229.00,1.21
6228.00,1.21
6227.00,1.21
6226.00,1.21
6225.00,1.22
6224.00,1.22
6223.00,1.22
6222.00,1.22
6221.00,1.22
6220.00,1.22
6219.00,1.23
6218.00,1.23
6217.00,1.23
6216.00,1.23
6215.00,1.23
6214.00,1.23
6213.00,1.23
6212.00,1.24
6211.00,1.24
6210.00,1.24
6209.00,1.24
6208.00,1.24
6207.00,1.24
6206.00,1.24
6205.00,1.24
6204.00,1.24
6203.00,1.25
6202.00,1.25
6201.00,1.25
6200.00,1.25
6199.00,1.25
6198.00,1.25
6197.00,1.25
6196.00,1.26
6195.00,1.26
6194.00,1.26
6193.00,1.26
6192.00,1.26
6191.00,1.27
6190.00,1.27
6189.00,1.27
6188.00,1.27
6187.00,1.28
6186.00,1.28
6185.00,1.28
6184.00,1.28
6183.00,1.28
6182.00,1.29
6181.00,1.29
6180.00,1.29
6179.00,1.29
6178.00,1.30
6177.00,1.30
6176.00,1.30
6175.00,1.30
6174.00,1.30
6173.00,1.31
6172.00,1.31
6171.00,1.31
6170.00,1.31
6169.00,1.31
6168.00,1.32
6167.00,1.32
6166.00,1.32
6165.00,1.32
6164.00,1.33
6163.00,1.33
6162.00,1.33
6161.00,1.33
6160.00,1.33
6159.00,1.34
6158.00,1.34
6157.00,1.34
6156.00,1.34
6155.00,1.34
6154.00,1.35
6153.00,1.35
6152.00,1.35
6151.00,1.35
6150.00,1.35
6149.00,1.35
6148.00,1.36
6147.00,1.36
6146.00,1.36
6145.00,1.36
6144.00,1.36
6143.00,1.36
6142.00,1.36
6141.00,1.37
6140.00,1.37
6139.00,1.37
6138.00,1.37
6137.00,1.37
6136.00,1.37
6135.00,1.38
6134.00,1.38
6133.00,1.38
6132.00,1.38
6131.00,1.38
6130.00,1.38
6129.00,1.39
6128.00,1.39
6127.00,1.39
6126.00,1.39
6125.00,1.39
6124.00,1.40
6123.00,1.40
6122.00,1.40
6121.00,1.40
6120.00,1.40
6119.00,1.41
6118.00,1.41
6117.00,1.41
6116.00,1.41
6115.00,1.41
6114.00,1.41
6113.00,1.42
6112.00,1.42
6111.00,1.42
6110.00,1.42
6109.00,1.42
6108.00,1.43
6107.00,1.43
6106.00,1.43
6105.00,1.43
6104.00,1.43
6103.00,1.43
6102.00,1.44
6101.00,1.44
6100.00,1.44
6099.00,1.44
6098.00,1.44
6097.00,1.44
6096.00,1.45
6095.00,1.45
6094.00,1.45
6093.00,1.45
6092.00,1.45
6091.00,1.45
6090.00,1.46
6089.00,1.46
6088.00,1.46
6087.00,1.46
6086.00,1.46
6085.00,1.46
6084.00,1.47
6083.00,1.47
6082.00,1.47
6081.00,1.47
6080.00,1.47
6079.00,1.47
6078.00,1.48
6077.00,1.48
6076.00,1.48
6075.00,1.48
6074.00,1.48
6073.00,1.49
6072.00,1.49
6071.00,1.49
6070.00,1.49
6069.00,1.49
6068.00,1.49
6067.00,1.50
6066.00,1.50
6065.00,1.50
6064.00,1.50
6063.00,1.50
6062.00,1.50
6061.00,1.51
6060.00,1.51
6059.00,1.51
6058.00,1.51
6057.00,1.51
6056.00,1.51
6055.00,1.51
6054.00,1.51
6053.00,1.51
6052.00,1.51
6051.00,1.51
6050.00,1.51
6049.00,1.52
6048.00,1.52
6047.00,1.52
6046.00,1.52
6045.00,1.52
6044.00,1.52
6043.00,1.52
6042.00,1.52
6041.00,1.52
6040.00,1.52
6039.00,1.52
6038.00,1.52
6037.00,1.52
6036.00,1.52
6035.00,1.53
6034.00,1.53
6033.00,1.53
6032.00,1.53
6031.00,1.53
6030.00,1.53
6029.00,1.53
6028.00,1.53
6027.00,1.53
6026.00,1.53
6025.00,1.53
6024.00,1.53
6023.00,1.54
6022.00,1.54
6021.00,1.54
6020.00,1.54
6019.00,1.54
6018.00,1.54
6017.00,1.54
6016.00,1.54
6015.00,1.54
6014.00,1.54
6013.00,1.54
6012.00,1.54
6011.00,1.54
6010.00,1.54
6009.00,1.54
6008.00,1.54
6007.00,1.54
6006.00,1.54
6005.00,1.54
6004.00,1.54
6003.00,1.54
6002.00,1.53
6001.00,1.53
6000.00,1.53
5999.00,1.53
5998.00,1.53
5997.00,1.53
5996.00,1.53
5995.00,1.53
5994.00,1.53
5993.00,1.52
5992.00,1.52
5991.00,1.52
5990.00,1.52
5989.00,1.52
5988.00,1.51
5987.00,1.51
5986.00,1.51
5985.00,1.50
5984.00,1.50
5983.00,1.50
5982.00,1.49
5981.00,1.49
5980.00,1.48
5979.00,1.48
5978.00,1.47
5977.00,1.47
5976.00,1.46
5975.00,1.45
5974.00,1.44
5973.00,1.44
5972.00,1.43
5971.00,1.42
5970.00,1.41
5969.00,1.40
5968.00,1.40
5967.00,1.39
5966.00,1.38
5965.00,1.37
5964.00,1.36
5963.00,1.35
5962.00,1.34
5961.00,1.33
5960.00,1.32
5959.00,1.31
5958.00,1.30
5957.00,1.29
5956.00,1.28
5955.00,1.28
5954.00,1.27
5953.00,1.26
5952.00,1.25
5951.00,1.24
5950.00,1.24
5949.00,1.23
5948.00,1.22
5947.00,1.22
5946.00,1.21
5945.00,1.21
5944.00,1.21
5943.00,1.20
5942.00,1.20
5941.00,1.20
5940.00,1.19
5939.00,1.19
5938.00,1.19
5937.00,1.19
5936.00,1.19
5935.00,1.19
5934.00,1.19
5933.00,1.18
5932.00,1.18
5931.00,1.18
5930.00,1.18
5929.00,1.18
5928.00,1.18
5927.00,1.17
5926.00,1.17
5925.00,1.17
5924.00,1.17
5923.00,1.16
5922.00,1.16
5921.00,1.16
5920.00,1.16
5919.00,1.15
5918.00,1.15
5917.00,1.14
5916.00,1.14
5915.00,1.14
5914.00,1.13
5913.00,1.13
5912.00,1.13
5911.00,1.12
5910.00,1.12
5909.00,1.12
5908.00,1.11
5907.00,1.11
5906.00,1.11
5905.00,1.11
5904.00,1.10
5903.00,1.10
5902.00,1.10
5901.00,1.10
5900.00,1.10
5899.00,1.10
5898.00,1.10
5897.00,1.11
5896.00,1.11
5895.00,1.11
5894.00,1.11
5893.00,1.12
5892.00,1.12
5891.00,1.12
5890.00,1.13
5889.00,1.13
5888.00,1.13
5887.00,1.14
5886.00,1.14
5885.00,1.14
5884.00,1.15
5883.00,1.15
5882.00,1.16
5881.00,1.16
5880.00,1.16
5879.00,1.17
5878.00,1.17
5877.00,1.17
5876.00,1.18
5875.00,1.18
5874.00,1.18
5873.00,1.19
5872.00,1.19
5871.00,1.19
5870.00,1.20
5869.00,1.20
5868.00,1.20
5867.00,1.21
5866.00,1.21
5865.00,1.21
5864.00,1.21
5863.00,1.22
5862.00,1.22
5861.00,1.22
5860.00,1.22
5859.00,1.23
5858.00,1.23
5857.00,1.23
5856.00,1.23
5855.00,1.23
5854.00,1.23
5853.00,1.24
5852.00,1.24
5851.00,1.24
5850.00,1.24
5849.00,1.24
5848.00,1.24
5847.00,1.24
5846.00,1.24
5845.00,1.24
5844.00,1.24
5843.00,1.24
5842.00,1.24
5841.00,1.24
5840.00,1.24
5839.00,1.24
5838.00,1.24
5837.00,1.24
5836.00,1.24
5835.00,1.24
5834.00,1.24
5833.00,1.24
5832.00,1.24
5831.00,1.24
5830.00,1.24
5829.00,1.24
5828.00,1.24
5827.00,1.24
5826.00,1.24
5825.00,1.24
5824.00,1.24
5823.00,1.24
5822.00,1.24
5821.00,1.24
5820.00,1.24
5819.00,1.24
5818.00,1.24
5817.00,1.24
5816.00,1.24
5815.00,1.24
5814.00,1.24
5813.00,1.24
5812.00,1.24
5811.00,1.24
5810.00,1.24
5809.00,1.24
5808.00,1.24
5807.00,1.24
5806.00,1.24
5805.00,1.24
5804.00,1.24
5803.00,1.24
5802.00,1.24
5801.00,1.23
5800.00,1.23
5799.00,1.23
5798.00,1.23
5797.00,1.23
5796.00,1.22
5795.00,1.22
5794.00,1.22
5793.00,1.21
5792.00,1.21
5791.00,1.21
5790.00,1.21
5789.00,1.20
5788.00,1.20
5787.00,1.20
5786.00,1.19
5785.00,1.19
5784.00,1.19
5783.00,1.18
5782.00,1.18
5781.00,1.18
5780.00,1.18
5779.00,1.17
5778.00,1.17
5777.00,1.17
5776.00,1.17
5775.00,1.17
5774.00,1.17
5773.00,1.17
5772.00,1.17
5771.00,1.17
5770.00,1.17
5769.00,1.17
5768.00,1.17
5767.00,1.17
5766.00,1.18
5765.00,1.18
5764.00,1.18
5763.00,1.18
5762.00,1.19
5761.00,1.19
5760.00,1.19
5759.00,1.20
5758.00,1.20
5757.00,1.21
5756.00,1.21
5755.00,1.22
5754.00,1.22
5753.00,1.22
5752.00,1.23
5751.00,1.23
5750.00,1.24
5749.00,1.24
5748.00,1.25
5747.00,1.25
5746.00,1.26
5745.00,1.26
5744.00,1.27
5743.00,1.27
5742.00,1.27
5741.00,1.28
5740.00,1.28
5739.00,1.28
5738.00,1.29
5737.00,1.29
5736.00,1.29
5735.00,1.30
5734.00,1.30
5733.00,1.30
5732.00,1.30
5731.00,1.30
5730.00,1.31
5729.00,1.31
5728.00,1.31
5727.00,1.31
5726.00,1.31
5725.00,1.31
5724.00,1.31
5723.00,1.31
5722.00,1.32
5721.00,1.32
5720.00,1.32
5719.00,1.32
5718.00,1.32
5717.00,1.32
5716.00,1.32
5715.00,1.32
5714.00,1.32
5713.00,1.32
5712.00,1.32
5711.00,1.32
5710.00,1.32
5709.00,1.32
5708.00,1.32
5707.00,1.31
5706.00,1.31
5705.00,1.31
5704.00,1.31
5703.00,1.31
5702.00,1.31
5701.00,1.31
5700.00,1.30
5699.00,1.30
5698.00,1.30
5697.00,1.30
5696.00,1.30
5695.00,1.29
5694.00,1.29
5693.00,1.29
5692.00,1.29
5691.00,1.28
5690.00,1.28
5689.00,1.28
5688.00,1.28
5687.00,1.28
5686.00,1.27
5685.00,1.27
5684.00,1.27
5683.00,1.27
5682.00,1.27
5681.00,1.27
5680.00,1.27
5679.00,1.26
5678.00,1.26
5677.00,1.26
5676.00,1.26
5675.00,1.26
5674.00,1.26
5673.00,1.26
5672.00,1.26
5671.00,1.26
5670.00,1.26
5669.00,1.27
5668.00,1.27
5667.00,1.27
5666.00,1.27
5665.00,1.27
5664.00,1.27
5663.00,1.27
5662.00,1.27
5661.00,1.28
5660.00,1.28
5659.00,1.28
5658.00,1.28
5657.00,1.28
5656.00,1.28
5655.00,1.29
5654.00,1.29
5653.00,1.29
5652.00,1.29
5651.00,1.29
5650.00,1.30
5649.00,1.30
5648.00,1.30
5647.00,1.30
5646.00,1.31
5645.00,1.31
5644.00,1.31
5643.00,1.31
5642.00,1.32
5641.00,1.32
5640.00,1.32
5639.00,1.33
5638.00,1.33
5637.00,1.33
5636.00,1.33
5635.00,1.34
5634.00,1.34
5633.00,1.34
5632.00,1.34
5631.00,1.35
5630.00,1.35
5629.00,1.35
5628.00,1.35
5627.00,1.36
5626.00,1.36
5625.00,1.36
5624.00,1.36
5623.00,1.36
5622.00,1.37
5621.00,1.37
5620.00,1.37
5619.00,1.37
5618.00,1.38
5617.00,1.38
5616.00,1.38
5615.00,1.38
5614.00,1.38
5613.00,1.39
5612.00,1.39
5611.00,1.39
5610.00,1.39
5609.00,1.40
5608.00,1.40
5607.00,1.40
5606.00,1.40
5605.00,1.41
5604.00,1.41
5603.00,1.41
5602.00,1.41
5601.00,1.41
5600.00,1.42
5599.00,1.42
5598.00,1.42
5597.00,1.42
5596.00,1.43
5595.00,1.43
5594.00,1.43
5593.00,1.43
5592.00,1.43
5591.00,1.44
5590.00,1.44
5589.00,1.44
5588.00,1.44
5587.00,1.44
5586.00,1.45
5585.00,1.45
5584.00,1.45
5583.00,1.45
5582.00,1.45
5581.00,1.46
5580.00,1.46
5579.00,1.46
5578.00,1.46
5577.00,1.46
5576.00,1.47
5575.00,1.47
5574.00,1.47
5573.00,1.47
5572.00,1.47
5571.00,1.48
5570.00,1.48
5569.00,1.48
5568.00,1.48
5567.00,1.48
5566.00,1.49
5565.00,1.49
5564.00,1.49
5563.00,1.49
5562.00,1.49
5561.00,1.49
5560.00,1.50
5559.00,1.50
5558.00,1.50
5557.00,1.50
5556.00,1.50
5555.00,1.50
5554.00,1.51
5553.00,1.51
5552.00,1.51
5551.00,1.51
5550.00,1.51
5549.00,1.51
5548.00,1.51
5547.00,1.52
5546.00,1.52
5545.00,1.52
5544.00,1.52
5543.00,1.52
5542.00,1.52
5541.00,1.53
5540.00,1.53
5539.00,1.53
5538.00,1.53
5537.00,1.53
5536.00,1.53
5535.00,1.53
5534.00,1.54
5533.00,1.54
5532.00,1.54
5531.00,1.54
5530.00,1.54
5529.00,1.54
5528.00,1.54
5527.00,1.55
5526.00,1.55
5525.00,1.55
5524.00,1.55
5523.00,1.55
5522.00,1.56
5521.00,1.56
5520.00,1.56
5519.00,1.56
5518.00,1.56
5517.00,1.56
5516.00,1.57
5515.00,1.57
5514.00,1.57
5513.00,1.57
5512.00,1.57
5511.00,1.57
5510.00,1.57
5509.00,1.57
5508.00,1.58
5507.00,1.58
5506.00,1.58
5505.00,1.58
5504.00,1.58
5503.00,1.58
5502.00,1.58
5501.00,1.58
5500.00,1.58
5499.00,1.58
5498.00,1.59
5497.00,1.59
5496.00,1.59
5495.00,1.59
5494.00,1.59
5493.00,1.59
5492.00,1.59
5491.00,1.59
5490.00,1.59
5489.00,1.59
5488.00,1.60
5487.00,1.60
5486.00,1.60
5485.00,1.60
5484.00,1.60
5483.00,1.60
5482.00,1.60
5481.00,1.61
5480.00,1.61
5479.00,1.61
5478.00,1.61
5477.00,1.61
5476.00,1.62
5475.00,1.62
5474.00,1.62
5473.00,1.62
5472.00,1.62
5471.00,1.62
5470.00,1.63
5469.00,1.63
5468.00,1.63
5467.00,1.63
5466.00,1.63
5465.00,1.63
5464.00,1.64
5463.00,1.64
5462.00,1.64
5461.00,1.64
5460.00,1.64
5459.00,1.64
5458.00,1.65
5457.00,1.65
5456.00,1.65
5455.00,1.65
5454.00,1.65
5453.00,1.65
5452.00,1.65
5451.00,1.65
5450.00,1.66
5449.00,1.66
5448.00,1.66
5447.00,1.66
5446.00,1.66
5445.00,1.66
5444.00,1.66
5443.00,1.66
5442.00,1.66
5441.00,1.66
5440.00,1.66
5439.00,1.66
5438.00,1.66
5437.00,1.66
5436.00,1.66
5435.00,1.66
5434.00,1.66
5433.00,1.66
5432.00,1.66
5431.00,1.66
5430.00,1.66
5429.00,1.66
5428.00,1.66
5427.00,1.66
5426.00,1.66
5425.00,1.66
5424.00,1.66
5423.00,1.66
5422.00,1.66
5421.00,1.66
5420.00,1.66
5419.00,1.66
5418.00,1.66
5417.00,1.66
5416.00,1.66
5415.00,1.66
5414.00,1.66
5413.00,1.66
5412.00,1.66
5411.00,1.66
5410.00,1.66
5409.00,1.66
5408.00,1.66
5407.00,1.66
5406.00,1.66
5405.00,1.66
5404.00,1.66
5403.00,1.66
5402.00,1.66
5401.00,1.66
5400.00,1.65
5399.00,1.65
5398.00,1.65
5397.00,1.65
5396.00,1.65
5395.00,1.65
5394.00,1.65
5393.00,1.65
5392.00,1.65
5391.00,1.64
5390.00,1.64
5389.00,1.64
5388.00,1.64
5387.00,1.63
5386.00,1.63
5385.00,1.63
5384.00,1.62
5383.00,1.62
5382.00,1.62
5381.00,1.61
5380.00,1.61
5379.00,1.60
5378.00,1.60
5377.00,1.59
5376.00,1.58
5375.00,1.58
5374.00,1.57
5373.00,1.57
5372.00,1.56
5371.00,1.55
5370.00,1.55
5369.00,1.54
5368.00,1.53
5367.00,1.52
5366.00,1.52
5365.00,1.51
5364.00,1.50
5363.00,1.49
5362.00,1.49
5361.00,1.48
5360.00,1.47
5359.00,1.46
5358.00,1.45
5357.00,1.44
5356.00,1.43
5355.00,1.42
5354.00,1.41
5353.00,1.40
5352.00,1.39
5351.00,1.38
5350.00,1.37
5349.00,1.35
5348.00,1.34
5347.00,1.33
5346.00,1.32
5345.00,1.30
5344.00,1.29
5343.00,1.28
5342.00,1.26
5341.00,1.25
5340.00,1.23
5339.00,1.22
5338.00,1.21
5337.00,1.19
5336.00,1.18
5335.00,1.17
5334.00,1.15
5333.00,1.14
5332.00,1.12
5331.00,1.11
5330.00,1.10
5329.00,1.08
5328.00,1.07
5327.00,1.06
5326.00,1.04
5325.00,1.03
5324.00,1.02
5323.00,1.00
5322.00,0.99
5321.00,0.98
5320.00,0.97
5319.00,0.95
5318.00,0.94
5317.00,0.93
5316.00,0.92
5315.00,0.91
5314.00,0.90
5313.00,0.89
5312.00,0.88
5311.00,0.87
5310.00,0.86
5309.00,0.85
5308.00,0.84
5307.00,0.83
5306.00,0.82
5305.00,0.82
5304.00,0.81
5303.00,0.80
5302.00,0.80
5301.00,0.79
5300.00,0.79
5299.00,0.78
5298.00,0.78
5297.00,0.77
5296.00,0.77
5295.00,0.76
5294.00,0.76
5293.00,0.76
5292.00,0.76
5291.00,0.75
5290.00,0.75
5289.00,0.75
5288.00,0.75
5287.00,0.74
5286.00,0.74
5285.00,0.74
5284.00,0.74
5283.00,0.74
5282.00,0.73
5281.00,0.73
5280.00,0.73
5279.00,0.73
5278.00,0.73
5277.00,0.73
5276.00,0.73
5275.00,0.73
5274.00,0.73
5273.00,0.73
5272.00,0.73
5271.00,0.73
5270.00,0.72
5269.00,0.72
5268.00,0.72
5267.00,0.72
5266.00,0.72
5265.00,0.72
5264.00,0.72
5263.00,0.72
5262.00,0.72
5261.00,0.72
5260.00,0.72
5259.00,0.72
5258.00,0.72
5257.00,0.72
5256.00,0.72
5255.00,0.72
5254.00,0.72
5253.00,0.72
5252.00,0.72
5251.00,0.72
5250.00,0.72
5249.00,0.72
5248.00,0.72
5247.00,0.72
5246.00,0.72
5245.00,0.72
5244.00,0.72
5243.00,0.72
5242.00,0.72
5241.00,0.72
5240.00,0.72
5239.00,0.72
5238.00,0.72
5237.00,0.72
5236.00,0.72
5235.00,0.72
5234.00,0.72
5233.00,0.73
5232.00,0.73
5231.00,0.73
5230.00,0.73
5229.00,0.73
5228.00,0.73
5227.00,0.73
5226.00,0.73
5225.00,0.73
5224.00,0.73
5223.00,0.73
5222.00,0.73
5221.00,0.74
5220.00,0.74
5219.00,0.74
5218.00,0.74
5217.00,0.74
5216.00,0.74
5215.00,0.74
5214.00,0.74
5213.00,0.74
5212.00,0.74
5211.00,0.74
5210.00,0.74
5209.00,0.74
5208.00,0.74
5207.00,0.74
5206.00,0.74
5205.00,0.74
5204.00,0.74
5203.00,0.74
5202.00,0.74
5201.00,0.74
5200.00,0.74
5199.00,0.74
5198.00,0.74
5197.00,0.74
5196.00,0.74
5195.00,0.74
5194.00,0.74
5193.00,0.74
5192.00,0.74
5191.00,0.74
5190.00,0.74
5189.00,0.74
5188.00,0.75
5187.00,0.75
5186.00,0.75
5185.00,0.75
5184.00,0.75
5183.00,0.75
5182.00,0.75
5181.00,0.75
5180.00,0.75
5179.00,0.75
5178.00,0.75
5177.00,0.75
5176.00,0.75
5175.00,0.75
5174.00,0.75
5173.00,0.75
5172.00,0.75
5171.00,0.75
5170.00,0.75
5169.00,0.75
5168.00,0.76
5167.00,0.76
5166.00,0.76
5165.00,0.76
5164.00,0.76
5163.00,0.76
5162.00,0.76
5161.00,0.76
5160.00,0.76
5159.00,0.76
5158.00,0.76
5157.00,0.76
5156.00,0.76
5155.00,0.77
5154.00,0.77
5153.00,0.77
5152.00,0.77
5151.00,0.77
5150.00,0.77
5149.00,0.77
5148.00,0.77
5147.00,0.77
5146.00,0.77
5145.00,0.78
5144.00,0.78
5143.00,0.78
5142.00,0.78
5141.00,0.78
5140.00,0.78
5139.00,0.78
5138.00,0.78
5137.00,0.78
5136.00,0.78
5135.00,0.78
5134.00,0.78
5133.00,0.78
5132.00,0.78
5131.00,0.78
5130.00,0.78
5129.00,0.78
5128.00,0.78
5127.00,0.78
5126.00,0.78
5125.00,0.78
5124.00,0.78
5123.00,0.78
5122.00,0.78
5121.00,0.78
5120.00,0.78
5119.00,0.78
5118.00,0.78
5117.00,0.78
5116.00,0.79
5115.00,0.79
5114.00,0.79
5113.00,0.79
5112.00,0.79
5111.00,0.79
5110.00,0.79
5109.00,0.79
5108.00,0.79
5107.00,0.79
5106.00,0.79
5105.00,0.80
5104.00,0.80
5103.00,0.80
5102.00,0.80
5101.00,0.80
5100.00,0.80
5099.00,0.80
5098.00,0.80
5097.00,0.81
5096.00,0.81
5095.00,0.81
5094.00,0.81
5093.00,0.81
5092.00,0.81
5091.00,0.81
5090.00,0.81
5089.00,0.81
5088.00,0.81
5087.00,0.81
5086.00,0.81
5085.00,0.81
5084.00,0.81
5083.00,0.81
5082.00,0.81
5081.00,0.81
5080.00,0.81
5079.00,0.81
5078.00,0.81
5077.00,0.81
5076.00,0.81
5075.00,0.81
5074.00,0.81
5073.00,0.81
5072.00,0.81
5071.00,0.81
5070.00,0.82
5069.00,0.82
5068.00,0.82
5067.00,0.82
5066.00,0.82
5065.00,0.82
5064.00,0.82
5063.00,0.82
5062.00,0.82
5061.00,0.82
5060.00,0.83
5059.00,0.83
5058.00,0.83
5057.00,0.83
5056.00,0.83
5055.00,0.83
5054.00,0.83
5053.00,0.83
5052.00,0.83
5051.00,0.83
5050.00,0.83
5049.00,0.83
5048.00,0.83
5047.00,0.83
5046.00,0.83
5045.00,0.84
5044.00,0.84
5043.00,0.84
5042.00,0.84
5041.00,0.84
5040.00,0.84
5039.00,0.84
5038.00,0.84
5037.00,0.84
5036.00,0.84
5035.00,0.85
5034.00,0.85
5033.00,0.85
5032.00,0.85
5031.00,0.85
5030.00,0.85
5029.00,0.85
5028.00,0.85
5027.00,0.85
5026.00,0.85
5025.00,0.85
5024.00,0.85
5023.00,0.85
5022.00,0.85
5021.00,0.85
5020.00,0.85
5019.00,0.85
5018.00,0.85
5017.00,0.85
5016.00,0.86
5015.00,0.86
5014.00,0.86
5013.00,0.86
5012.00,0.86
5011.00,0.86
5010.00,0.86
5009.00,0.86
5008.00,0.86
5007.00,0.86
5006.00,0.87
5005.00,0.87
5004.00,0.87
5003.00,0.87
5002.00,0.87
5001.00,0.87
5000.00,0.87
4999.00,0.87
4998.00,0.87
4997.00,0.87
4996.00,0.88
4995.00,0.88
4994.00,0.88
4993.00,0.88
4992.00,0.88
4991.00,0.88
4990.00,0.88
4989.00,0.88
4988.00,0.88
4987.00,0.89
4986.00,0.89
4985.00,0.89
4984.00,0.89
4983.00,0.89
4982.00,0.89
4981.00,0.89
4980.00,0.89
4979.00,0.89
4978.00,0.89
4977.00,0.90
4976.00,0.90
4975.00,0.90
4974.00,0.90
4973.00,0.90
4972.00,0.90
4971.00,0.90
4970.00,0.90
4969.00,0.90
4968.00,0.91
4967.00,0.91
4966.00,0.91
4965.00,0.91
4964.00,0.91
4963.00,0.91
4962.00,0.91
4961.00,0.91
4960.00,0.91
4959.00,0.92
4958.00,0.92
4957.00,0.92
4956.00,0.92
4955.00,0.92
4954.00,0.92
4953.00,0.92
4952.00,0.92
4951.00,0.92
4950.00,0.92
4949.00,0.92
4948.00,0.92
4947.00,0.92
4946.00,0.93
4945.00,0.93
4944.00,0.93
4943.00,0.93
4942.00,0.93
4941.00,0.93
4940.00,0.93
4939.00,0.93
4938.00,0.93
4937.00,0.93
4936.00,0.93
4935.00,0.93
4934.00,0.93
4933.00,0.93
4932.00,0.93
4931.00,0.94
4930.00,0.94
4929.00,0.94
4928.00,0.94
4927.00,0.94
4926.00,0.94
4925.00,0.94
4924.00,0.94
4923.00,0.95
4922.00,0.95
4921.00,0.95
4920.00,0.95
4919.00,0.95
4918.00,0.95
4917.00,0.95
4916.00,0.95
4915.00,0.96
4914.00,0.96
4913.00,0.96
4912.00,0.96
4911.00,0.96
4910.00,0.96
4909.00,0.96
4908.00,0.96
4907.00,0.96
4906.00,0.96
4905.00,0.96
4904.00,0.96
4903.00,0.97
4902.00,0.97
4901.00,0.97
4900.00,0.97
4899.00,0.97
4898.00,0.97
4897.00,0.97
4896.00,0.97
4895.00,0.97
4894.00,0.98
4893.00,0.98
4892.00,0.98
4891.00,0.98
4890.00,0.98
4889.00,0.98
4888.00,0.98
4887.00,0.98
4886.00,0.98
4885.00,0.98
4884.00,0.98
4883.00,0.98
4882.00,0.99
4881.00,0.99
4880.00,0.99
4879.00,0.99
4878.00,0.99
4877.00,0.99
4876.00,0.99
4875.00,0.99
4874.00,0.99
4873.00,0.99
4872.00,0.99
4871.00,0.99
4870.00,0.99
4869.00,0.99
4868.00,1.00
4867.00,1.00
4866.00,1.00
4865.00,1.00
4864.00,1.00
4863.00,1.00
4862.00,1.00
4861.00,1.00
4860.00,1.00
4859.00,1.00
4858.00,1.00
4857.00,1.00
4856.00,1.00
4855.00,1.00
4854.00,1.00
4853.00,1.00
4852.00,1.00
4851.00,1.00
4850.00,1.00
4849.00,1.00
4848.00,1.00
4847.00,1.00
4846.00,1.00
4845.00,1.01
4844.00,1.01
4843.00,1.01
4842.00,1.01
4841.00,1.01
4840.00,1.01
4839.00,1.01
4838.00,1.01
4837.00,1.01
4836.00,1.01
4835.00,1.02
4834.00,1.02
4833.00,1.02
4832.00,1.02
4831.00,1.02
4830.00,1.02
4829.00,1.02
4828.00,1.02
4827.00,1.02
4826.00,1.03
4825.00,1.03
4824.00,1.03
4823.00,1.03
4822.00,1.03
4821.00,1.03
4820.00,1.03
4819.00,1.03
4818.00,1.03
4817.00,1.03
4816.00,1.03
4815.00,1.04
4814.00,1.04
4813.00,1.04
4812.00,1.04
4811.00,1.04
4810.00,1.04
4809.00,1.04
4808.00,1.05
4807.00,1.05
4806.00,1.05
4805.00,1.05
4804.00,1.05
4803.00,1.05
4802.00,1.05
4801.00,1.06
4800.00,1.06
4799.00,1.06
4798.00,1.06
4797.00,1.06
4796.00,1.06
4795.00,1.06
4794.00,1.06
4793.00,1.06
4792.00,1.06
4791.00,1.07
4790.00,1.07
4789.00,1.07
4788.00,1.07
4787.00,1.07
4786.00,1.07
4785.00,1.08
4784.00,1.08
4783.00,1.08
4782.00,1.08
4781.00,1.08
4780.00,1.09
4779.00,1.09
4778.00,1.09
4777.00,1.09
4776.00,1.09
4775.00,1.10
4774.00,1.10
4773.00,1.10
4772.00,1.10
4771.00,1.10
4770.00,1.10
4769.00,1.11
4768.00,1.11
4767.00,1.11
4766.00,1.11
4765.00,1.11
4764.00,1.11
4763.00,1.11
4762.00,1.11
4761.00,1.12
4760.00,1.12
4759.00,1.12
4758.00,1.12
4757.00,1.12
4756.00,1.12
4755.00,1.12
4754.00,1.13
4753.00,1.13
4752.00,1.13
4751.00,1.13
4750.00,1.13
4749.00,1.13
4748.00,1.14
4747.00,1.14
4746.00,1.14
4745.00,1.14
4744.00,1.14
4743.00,1.15
4742.00,1.15
4741.00,1.15
4740.00,1.15
4739.00,1.15
4738.00,1.16
4737.00,1.16
4736.00,1.16
4735.00,1.16
4734.00,1.16
4733.00,1.17
4732.00,1.17
4731.00,1.17
4730.00,1.17
4729.00,1.17
4728.00,1.17
4727.00,1.18
4726.00,1.18
4725.00,1.18
4724.00,1.18
4723.00,1.18
4722.00,1.19
4721.00,1.19
4720.00,1.19
4719.00,1.19
4718.00,1.19
4717.00,1.20
4716.00,1.20
4715.00,1.20
4714.00,1.20
4713.00,1.20
4712.00,1.21
4711.00,1.21
4710.00,1.21
4709.00,1.21
4708.00,1.22
4707.00,1.22
4706.00,1.22
4705.00,1.23
4704.00,1.23
4703.00,1.23
4702.00,1.24
4701.00,1.24
4700.00,1.24
4699.00,1.24
4698.00,1.25
4697.00,1.25
4696.00,1.25
4695.00,1.25
4694.00,1.26
4693.00,1.26
4692.00,1.26
4691.00,1.26
4690.00,1.27
4689.00,1.27
4688.00,1.27
4687.00,1.27
4686.00,1.28
4685.00,1.28
4684.00,1.28
4683.00,1.28
4682.00,1.29
4681.00,1.29
4680.00,1.29
4679.00,1.29
4678.00,1.30
4677.00,1.30
4676.00,1.30
4675.00,1.30
4674.00,1.30
4673.00,1.31
4672.00,1.31
4671.00,1.31
4670.00,1.31
4669.00,1.31
4668.00,1.31
4667.00,1.31
4666.00,1.32
4665.00,1.32
4664.00,1.32
4663.00,1.32
4662.00,1.32
4661.00,1.32
4660.00,1.32
4659.00,1.33
4658.00,1.33
4657.00,1.33
4656.00,1.33
4655.00,1.33
4654.00,1.33
4653.00,1.33
4652.00,1.33
4651.00,1.34
4650.00,1.34
4649.00,1.34
4648.00,1.34
4647.00,1.34
4646.00,1.34
4645.00,1.34
4644.00,1.34
4643.00,1.35
4642.00,1.35
4641.00,1.35
4640.00,1.35
4639.00,1.35
4638.00,1.36
4637.00,1.36
4636.00,1.36
4635.00,1.36
4634.00,1.37
4633.00,1.37
4632.00,1.37
4631.00,1.37
4630.00,1.37
4629.00,1.38
4628.00,1.38
4627.00,1.38
4626.00,1.38
4625.00,1.38
4624.00,1.38
4623.00,1.38
4622.00,1.39
4621.00,1.39
4620.00,1.39
4619.00,1.39
4618.00,1.39
4617.00,1.39
4616.00,1.39
4615.00,1.39
4614.00,1.39
4613.00,1.39
4612.00,1.39
4611.00,1.40
4610.00,1.40
4609.00,1.40
4608.00,1.40
4607.00,1.40
4606.00,1.40
4605.00,1.40
4604.00,1.40
4603.00,1.40
4602.00,1.40
4601.00,1.41
4600.00,1.41
4599.00,1.41
4598.00,1.41
4597.00,1.41
4596.00,1.41
4595.00,1.42
4594.00,1.42
4593.00,1.42
4592.00,1.42
4591.00,1.42
4590.00,1.42
4589.00,1.42
4588.00,1.43
4587.00,1.43
4586.00,1.43
4585.00,1.43
4584.00,1.43
4583.00,1.43
4582.00,1.44
4581.00,1.44
4580.00,1.44
4579.00,1.44
4578.00,1.44
4577.00,1.44
4576.00,1.44
4575.00,1.44
4574.00,1.44
4573.00,1.45
4572.00,1.45
4571.00,1.45
4570.00,1.45
4569.00,1.45
4568.00,1.45
4567.00,1.45
4566.00,1.45
4565.00,1.46
4564.00,1.46
4563.00,1.46
4562.00,1.46
4561.00,1.46
4560.00,1.46
4559.00,1.47
4558.00,1.47
4557.00,1.47
4556.00,1.47
4555.00,1.47
4554.00,1.47
4553.00,1.48
4552.00,1.48
4551.00,1.48
4550.00,1.48
4549.00,1.48
4548.00,1.48
4547.00,1.48
4546.00,1.48
4545.00,1.48
4544.00,1.49
4543.00,1.49
4542.00,1.49
4541.00,1.49
4540.00,1.49
4539.00,1.49
4538.00,1.49
4537.00,1.49
4536.00,1.49
4535.00,1.49
4534.00,1.49
4533.00,1.49
4532.00,1.50
4531.00,1.50
4530.00,1.50
4529.00,1.50
4528.00,1.50
4527.00,1.50
4526.00,1.50
4525.00,1.50
4524.00,1.50
4523.00,1.50
4522.00,1.50
4521.00,1.50
4520.00,1.50
4519.00,1.50
4518.00,1.50
4517.00,1.50
4516.00,1.50
4515.00,1.50
4514.00,1.50
4513.00,1.50
4512.00,1.50
4511.00,1.50
4510.00,1.50
4509.00,1.50
4508.00,1.50
4507.00,1.50
4506.00,1.50
4505.00,1.50
4504.00,1.49
4503.00,1.49
4502.00,1.49
4501.00,1.49
4500.00,1.49
4499.00,1.49
4498.00,1.49
4497.00,1.49
4496.00,1.49
4495.00,1.49
4494.00,1.49
4493.00,1.49
4492.00,1.49
4491.00,1.48
4490.00,1.48
4489.00,1.48
4488.00,1.48
4487.00,1.48
4486.00,1.48
4485.00,1.48
4484.00,1.47
4483.00,1.47
4482.00,1.47
4481.00,1.47
4480.00,1.47
4479.00,1.46
4478.00,1.46
4477.00,1.46
4476.00,1.45
4475.00,1.45
4474.00,1.44
4473.00,1.44
4472.00,1.44
4471.00,1.43
4470.00,1.43
4469.00,1.42
4468.00,1.42
4467.00,1.42
4466.00,1.41
4465.00,1.41
4464.00,1.41
4463.00,1.40
4462.00,1.40
4461.00,1.39
4460.00,1.39
4459.00,1.39
4458.00,1.38
4457.00,1.38
4456.00,1.38
4455.00,1.37
4454.00,1.37
4453.00,1.37
4452.00,1.36
4451.00,1.36
4450.00,1.35
4449.00,1.35
4448.00,1.34
4447.00,1.34
4446.00,1.33
4445.00,1.33
4444.00,1.33
4443.00,1.32
4442.00,1.32
4441.00,1.31
4440.00,1.31
4439.00,1.30
4438.00,1.30
4437.00,1.30
4436.00,1.29
4435.00,1.29
4434.00,1.29
4433.00,1.28
4432.00,1.28
4431.00,1.28
4430.00,1.28
4429.00,1.27
4428.00,1.27
4427.00,1.27
4426.00,1.27
4425.00,1.27
4424.00,1.27
4423.00,1.27
4422.00,1.27
4421.00,1.27
4420.00,1.27
4419.00,1.27
4418.00,1.27
4417.00,1.27
4416.00,1.27
4415.00,1.27
4414.00,1.27
4413.00,1.27
4412.00,1.27
4411.00,1.27
4410.00,1.27
4409.00,1.27
4408.00,1.28
4407.00,1.28
4406.00,1.28
4405.00,1.28
4404.00,1.28
4403.00,1.28
4402.00,1.28
4401.00,1.28
4400.00,1.28
4399.00,1.28
4398.00,1.28
4397.00,1.29
4396.00,1.29
4395.00,1.29
4394.00,1.29
4393.00,1.29
4392.00,1.29
4391.00,1.29
4390.00,1.29
4389.00,1.29
4388.00,1.29
4387.00,1.29
4386.00,1.30
4385.00,1.30
4384.00,1.30
4383.00,1.30
4382.00,1.30
4381.00,1.30
4380.00,1.30
4379.00,1.30
4378.00,1.31
4377.00,1.31
4376.00,1.31
4375.00,1.31
4374.00,1.31
4373.00,1.31
4372.00,1.32
4371.00,1.32
4370.00,1.32
4369.00,1.32
4368.00,1.32
4367.00,1.32
4366.00,1.32
4365.00,1.32
4364.00,1.32
4363.00,1.32
4362.00,1.32
4361.00,1.32
4360.00,1.32
4359.00,1.32
4358.00,1.32
4357.00,1.32
4356.00,1.32
4355.00,1.32
4354.00,1.32
4353.00,1.32
4352.00,1.32
4351.00,1.31
4350.00,1.32
4349.00,1.32
4348.00,1.32
4347.00,1.32
4346.00,1.32
4345.00,1.32
4344.00,1.32
4343.00,1.32
4342.00,1.32
4341.00,1.32
4340.00,1.32
4339.00,1.32
4338.00,1.32
4337.00,1.33
4336.00,1.33
4335.00,1.33
4334.00,1.33
4333.00,1.33
4332.00,1.33
4331.00,1.33
4330.00,1.33
4329.00,1.33
4328.00,1.34
4327.00,1.34
4326.00,1.34
4325.00,1.34
4324.00,1.34
4323.00,1.35
4322.00,1.35
4321.00,1.35
4320.00,1.35
4319.00,1.36
4318.00,1.36
4317.00,1.36
4316.00,1.36
4315.00,1.37
4314.00,1.37
4313.00,1.37
4312.00,1.38
4311.00,1.38
4310.00,1.38
4309.00,1.38
4308.00,1.38
4307.00,1.38
4306.00,1.39
4305.00,1.39
4304.00,1.39
4303.00,1.39
4302.00,1.39
4301.00,1.39
4300.00,1.39
4299.00,1.39
4298.00,1.39
4297.00,1.39
4296.00,1.39
4295.00,1.39
4294.00,1.40
4293.00,1.40
4292.00,1.40
4291.00,1.40
4290.00,1.40
4289.00,1.40
4288.00,1.41
4287.00,1.41
4286.00,1.41
4285.00,1.41
4284.00,1.41
4283.00,1.42
4282.00,1.42
4281.00,1.42
4280.00,1.42
4279.00,1.42
4278.00,1.42
4277.00,1.42
4276.00,1.42
4275.00,1.42
4274.00,1.43
4273.00,1.43
4272.00,1.43
4271.00,1.43
4270.00,1.43
4269.00,1.43
4268.00,1.43
4267.00,1.43
4266.00,1.43
4265.00,1.43
4264.00,1.43
4263.00,1.43
4262.00,1.43
4261.00,1.43
4260.00,1.43
4259.00,1.43
4258.00,1.43
4257.00,1.43
4256.00,1.43
4255.00,1.43
4254.00,1.43
4253.00,1.43
4252.00,1.43
4251.00,1.43
4250.00,1.43
4249.00,1.43
4248.00,1.43
4247.00,1.43
4246.00,1.43
4245.00,1.43
4244.00,1.44
4243.00,1.44
4242.00,1.44
4241.00,1.44
4240.00,1.44
4239.00,1.44
4238.00,1.44
4237.00,1.44
4236.00,1.45
4235.00,1.45
4234.00,1.45
4233.00,1.45
4232.00,1.45
4231.00,1.46
4230.00,1.46
4229.00,1.46
4228.00,1.46
4227.00,1.46
4226.00,1.46
4225.00,1.46
4224.00,1.47
4223.00,1.47
4222.00,1.47
4221.00,1.47
4220.00,1.47
4219.00,1.47
4218.00,1.47
4217.00,1.47
4216.00,1.47
4215.00,1.47
4214.00,1.47
4213.00,1.47
4212.00,1.48
4211.00,1.48
4210.00,1.48
4209.00,1.48
4208.00,1.49
4207.00,1.49
4206.00,1.49
4205.00,1.50
4204.00,1.50
4203.00,1.50
4202.00,1.50
4201.00,1.51
4200.00,1.51
4199.00,1.51
4198.00,1.51
4197.00,1.51
4196.00,1.51
4195.00,1.51
4194.00,1.51
4193.00,1.51
4192.00,1.51
4191.00,1.51
4190.00,1.51
4189.00,1.51
4188.00,1.51
4187.00,1.51
4186.00,1.51
4185.00,1.51
4184.00,1.51
4183.00,1.51
4182.00,1.51
4181.00,1.51
4180.00,1.51
4179.00,1.51
4178.00,1.51
4177.00,1.51
4176.00,1.51
4175.00,1.51
4174.00,1.51
4173.00,1.51
4172.00,1.51
4171.00,1.51
4170.00,1.51
4169.00,1.51
4168.00,1.51
4167.00,1.51
4166.00,1.51
4165.00,1.51
4164.00,1.51
4163.00,1.51
4162.00,1.51
4161.00,1.51
4160.00,1.51
4159.00,1.51
4158.00,1.51
4157.00,1.51
4156.00,1.51
4155.00,1.51
4154.00,1.52
4153.00,1.52
4152.00,1.52
4151.00,1.52
4150.00,1.52
4149.00,1.52
4148.00,1.52
4147.00,1.52
4146.00,1.52
4145.00,1.52
4144.00,1.53
4143.00,1.53
4142.00,1.53
4141.00,1.53
4140.00,1.53
4139.00,1.53
4138.00,1.53
4137.00,1.53
4136.00,1.53
4135.00,1.53
4134.00,1.54
4133.00,1.54
4132.00,1.54
4131.00,1.54
4130.00,1.54
4129.00,1.54
4128.00,1.54
4127.00,1.55
4126.00,1.55
4125.00,1.55
4124.00,1.55
4123.00,1.55
4122.00,1.55
4121.00,1.55
4120.00,1.55
4119.00,1.55
4118.00,1.55
4117.00,1.55
4116.00,1.55
4115.00,1.55
4114.00,1.55
4113.00,1.55
4112.00,1.55
4111.00,1.55
4110.00,1.55
4109.00,1.55
4108.00,1.55
4107.00,1.55
4106.00,1.56
4105.00,1.56
4104.00,1.56
4103.00,1.56
4102.00,1.56
4101.00,1.56
4100.00,1.56
4099.00,1.56
4098.00,1.56
4097.00,1.56
4096.00,1.56
4095.00,1.56
4094.00,1.55
4093.00,1.55
4092.00,1.55
4091.00,1.55
4090.00,1.55
4089.00,1.55
4088.00,1.55
4087.00,1.55
4086.00,1.55
4085.00,1.55
4084.00,1.55
4083.00,1.56
4082.00,1.56
4081.00,1.56
4080.00,1.56
4079.00,1.56
4078.00,1.56
4077.00,1.57
4076.00,1.57
4075.00,1.57
4074.00,1.57
4073.00,1.58
4072.00,1.58
4071.00,1.58
4070.00,1.58
4069.00,1.58
4068.00,1.59
4067.00,1.59
4066.00,1.59
4065.00,1.59
4064.00,1.60
4063.00,1.60
4062.00,1.60
4061.00,1.60
4060.00,1.61
4059.00,1.61
4058.00,1.61
4057.00,1.61
4056.00,1.62
4055.00,1.62
4054.00,1.62
4053.00,1.62
4052.00,1.62
4051.00,1.63
4050.00,1.63
4049.00,1.63
4048.00,1.63
4047.00,1.63
4046.00,1.64
4045.00,1.64
4044.00,1.64
4043.00,1.64
4042.00,1.64
4041.00,1.65
4040.00,1.65
4039.00,1.65
4038.00,1.65
4037.00,1.65
4036.00,1.66
4035.00,1.66
4034.00,1.66
4033.00,1.66
4032.00,1.66
4031.00,1.66
4030.00,1.66
4029.00,1.66
4028.00,1.66
4027.00,1.66
4026.00,1.66
4025.00,1.66
4024.00,1.66
4023.00,1.66
4022.00,1.65
4021.00,1.65
4020.00,1.65
4019.00,1.65
4018.00,1.65
4017.00,1.65
4016.00,1.65
4015.00,1.65
4014.00,1.65
4013.00,1.65
4012.00,1.65
4011.00,1.65
4010.00,1.65
4009.00,1.65
4008.00,1.65
4007.00,1.65
4006.00,1.65
4005.00,1.65
4004.00,1.65
4003.00,1.66
4002.00,1.66
4001.00,1.66
4000.00,1.66
