创建为新数据集,样品 146 用户 Administrator 日期 星期三, 十一月 08 2017
cm-1,%T
10000.00,1.37
9999.00,1.37
9998.00,1.37
9997.00,1.36
9996.00,1.36
9995.00,1.36
9994.00,1.36
9993.00,1.36
9992.00,1.36
9991.00,1.36
9990.00,1.36
9989.00,1.36
9988.00,1.36
9987.00,1.36
9986.00,1.36
9985.00,1.36
9984.00,1.36
9983.00,1.36
9982.00,1.36
9981.00,1.36
9980.00,1.36
9979.00,1.36
9978.00,1.36
9977.00,1.36
9976.00,1.36
9975.00,1.36
9974.00,1.37
9973.00,1.37
9972.00,1.37
9971.00,1.37
9970.00,1.37
9969.00,1.37
9968.00,1.37
9967.00,1.37
9966.00,1.36
9965.00,1.36
9964.00,1.36
9963.00,1.36
9962.00,1.36
9961.00,1.36
9960.00,1.36
9959.00,1.35
9958.00,1.35
9957.00,1.35
9956.00,1.35
9955.00,1.35
9954.00,1.34
9953.00,1.34
9952.00,1.34
9951.00,1.34
9950.00,1.34
9949.00,1.33
9948.00,1.33
9947.00,1.33
9946.00,1.33
9945.00,1.33
9944.00,1.32
9943.00,1.32
9942.00,1.32
9941.00,1.32
9940.00,1.32
9939.00,1.32
9938.00,1.32
9937.00,1.32
9936.00,1.32
9935.00,1.32
9934.00,1.32
9933.00,1.32
9932.00,1.32
9931.00,1.33
9930.00,1.33
9929.00,1.33
9928.00,1.33
9927.00,1.33
9926.00,1.33
9925.00,1.33
9924.00,1.33
9923.00,1.33
9922.00,1.33
9921.00,1.33
9920.00,1.33
9919.00,1.33
9918.00,1.33
9917.00,1.33
9916.00,1.33
9915.00,1.33
9914.00,1.33
9913.00,1.33
9912.00,1.33
9911.00,1.33
9910.00,1.34
9909.00,1.34
9908.00,1.34
9907.00,1.34
9906.00,1.34
9905.00,1.34
9904.00,1.35
9903.00,1.35
9902.00,1.35
9901.00,1.35
9900.00,1.35
9899.00,1.35
9898.00,1.35
9897.00,1.35
9896.00,1.35
9895.00,1.35
9894.00,1.35
9893.00,1.35
9892.00,1.35
9891.00,1.35
9890.00,1.35
9889.00,1.35
9888.00,1.35
9887.00,1.35
9886.00,1.35
9885.00,1.35
9884.00,1.36
9883.00,1.36
9882.00,1.36
9881.00,1.36
9880.00,1.36
9879.00,1.36
9878.00,1.36
9877.00,1.36
9876.00,1.36
9875.00,1.36
9874.00,1.36
9873.00,1.35
9872.00,1.35
9871.00,1.35
9870.00,1.35
9869.00,1.35
9868.00,1.35
9867.00,1.35
9866.00,1.35
9865.00,1.35
9864.00,1.35
9863.00,1.35
9862.00,1.35
9861.00,1.35
9860.00,1.35
9859.00,1.35
9858.00,1.35
9857.00,1.36
9856.00,1.36
9855.00,1.36
9854.00,1.36
9853.00,1.36
9852.00,1.36
9851.00,1.36
9850.00,1.36
9849.00,1.37
9848.00,1.37
9847.00,1.37
9846.00,1.37
9845.00,1.37
9844.00,1.36
9843.00,1.36
9842.00,1.36
9841.00,1.36
9840.00,1.36
9839.00,1.36
9838.00,1.36
9837.00,1.36
9836.00,1.36
9835.00,1.36
9834.00,1.36
9833.00,1.36
9832.00,1.36
9831.00,1.36
9830.00,1.36
9829.00,1.36
9828.00,1.36
9827.00,1.36
9826.00,1.36
9825.00,1.36
9824.00,1.36
9823.00,1.35
9822.00,1.35
9821.00,1.35
9820.00,1.35
9819.00,1.35
9818.00,1.35
9817.00,1.35
9816.00,1.35
9815.00,1.35
9814.00,1.35
9813.00,1.35
9812.00,1.35
9811.00,1.35
9810.00,1.34
9809.00,1.34
9808.00,1.34
9807.00,1.34
9806.00,1.34
9805.00,1.34
9804.00,1.34
9803.00,1.34
9802.00,1.34
9801.00,1.34
9800.00,1.34
9799.00,1.34
9798.00,1.34
9797.00,1.34
9796.00,1.34
9795.00,1.34
9794.00,1.34
9793.00,1.34
9792.00,1.34
9791.00,1.34
9790.00,1.34
9789.00,1.34
9788.00,1.34
9787.00,1.34
9786.00,1.34
9785.00,1.34
9784.00,1.34
9783.00,1.34
9782.00,1.34
9781.00,1.34
9780.00,1.34
9779.00,1.33
9778.00,1.33
9777.00,1.33
9776.00,1.33
9775.00,1.33
9774.00,1.33
9773.00,1.34
9772.00,1.34
9771.00,1.34
9770.00,1.34
9769.00,1.34
9768.00,1.34
9767.00,1.34
9766.00,1.34
9765.00,1.34
9764.00,1.34
9763.00,1.34
9762.00,1.34
9761.00,1.34
9760.00,1.34
9759.00,1.34
9758.00,1.34
9757.00,1.34
9756.00,1.34
9755.00,1.34
9754.00,1.34
9753.00,1.34
9752.00,1.34
9751.00,1.34
9750.00,1.34
9749.00,1.34
9748.00,1.34
9747.00,1.34
9746.00,1.34
9745.00,1.34
9744.00,1.33
9743.00,1.33
9742.00,1.33
9741.00,1.33
9740.00,1.33
9739.00,1.33
9738.00,1.33
9737.00,1.33
9736.00,1.32
9735.00,1.32
9734.00,1.32
9733.00,1.32
9732.00,1.32
9731.00,1.32
9730.00,1.32
9729.00,1.32
9728.00,1.32
9727.00,1.32
9726.00,1.32
9725.00,1.32
9724.00,1.32
9723.00,1.32
9722.00,1.32
9721.00,1.33
9720.00,1.33
9719.00,1.33
9718.00,1.33
9717.00,1.33
9716.00,1.33
9715.00,1.33
9714.00,1.34
9713.00,1.34
9712.00,1.34
9711.00,1.34
9710.00,1.34
9709.00,1.34
9708.00,1.34
9707.00,1.34
9706.00,1.34
9705.00,1.34
9704.00,1.34
9703.00,1.34
9702.00,1.34
9701.00,1.34
9700.00,1.34
9699.00,1.34
9698.00,1.34
9697.00,1.34
9696.00,1.34
9695.00,1.34
9694.00,1.34
9693.00,1.34
9692.00,1.34
9691.00,1.34
9690.00,1.34
9689.00,1.34
9688.00,1.34
9687.00,1.34
9686.00,1.34
9685.00,1.34
9684.00,1.34
9683.00,1.34
9682.00,1.34
9681.00,1.34
9680.00,1.34
9679.00,1.34
9678.00,1.34
9677.00,1.34
9676.00,1.34
9675.00,1.34
9674.00,1.34
9673.00,1.34
9672.00,1.34
9671.00,1.34
9670.00,1.34
9669.00,1.34
9668.00,1.34
9667.00,1.34
9666.00,1.34
9665.00,1.34
9664.00,1.34
9663.00,1.34
9662.00,1.34
9661.00,1.34
9660.00,1.34
9659.00,1.34
9658.00,1.34
9657.00,1.33
9656.00,1.33
9655.00,1.33
9654.00,1.33
9653.00,1.33
9652.00,1.33
9651.00,1.33
9650.00,1.33
9649.00,1.33
9648.00,1.33
9647.00,1.33
9646.00,1.33
9645.00,1.33
9644.00,1.33
9643.00,1.33
9642.00,1.33
9641.00,1.33
9640.00,1.33
9639.00,1.33
9638.00,1.33
9637.00,1.33
9636.00,1.34
9635.00,1.34
9634.00,1.34
9633.00,1.34
9632.00,1.34
9631.00,1.34
9630.00,1.34
9629.00,1.34
9628.00,1.34
9627.00,1.34
9626.00,1.34
9625.00,1.34
9624.00,1.35
9623.00,1.35
9622.00,1.35
9621.00,1.35
9620.00,1.35
9619.00,1.35
9618.00,1.35
9617.00,1.35
9616.00,1.35
9615.00,1.35
9614.00,1.36
9613.00,1.36
9612.00,1.36
9611.00,1.36
9610.00,1.36
9609.00,1.36
9608.00,1.36
9607.00,1.36
9606.00,1.36
9605.00,1.36
9604.00,1.35
9603.00,1.35
9602.00,1.35
9601.00,1.35
9600.00,1.35
9599.00,1.35
9598.00,1.34
9597.00,1.34
9596.00,1.34
9595.00,1.34
9594.00,1.34
9593.00,1.33
9592.00,1.33
9591.00,1.33
9590.00,1.33
9589.00,1.33
9588.00,1.33
9587.00,1.33
9586.00,1.33
9585.00,1.33
9584.00,1.33
9583.00,1.33
9582.00,1.33
9581.00,1.33
9580.00,1.33
9579.00,1.33
9578.00,1.33
9577.00,1.33
9576.00,1.34
9575.00,1.34
9574.00,1.34
9573.00,1.34
9572.00,1.34
9571.00,1.34
9570.00,1.34
9569.00,1.34
9568.00,1.34
9567.00,1.34
9566.00,1.35
9565.00,1.35
9564.00,1.35
9563.00,1.35
9562.00,1.35
9561.00,1.35
9560.00,1.35
9559.00,1.35
9558.00,1.35
9557.00,1.35
9556.00,1.35
9555.00,1.36
9554.00,1.36
9553.00,1.36
9552.00,1.36
9551.00,1.36
9550.00,1.36
9549.00,1.36
9548.00,1.36
9547.00,1.36
9546.00,1.36
9545.00,1.36
9544.00,1.36
9543.00,1.36
9542.00,1.36
9541.00,1.36
9540.00,1.36
9539.00,1.36
9538.00,1.36
9537.00,1.36
9536.00,1.36
9535.00,1.36
9534.00,1.36
9533.00,1.36
9532.00,1.36
9531.00,1.36
9530.00,1.36
9529.00,1.36
9528.00,1.36
9527.00,1.36
9526.00,1.36
9525.00,1.36
9524.00,1.36
9523.00,1.36
9522.00,1.36
9521.00,1.36
9520.00,1.36
9519.00,1.36
9518.00,1.36
9517.00,1.36
9516.00,1.36
9515.00,1.36
9514.00,1.36
9513.00,1.35
9512.00,1.35
9511.00,1.35
9510.00,1.35
9509.00,1.35
9508.00,1.35
9507.00,1.35
9506.00,1.35
9505.00,1.35
9504.00,1.35
9503.00,1.35
9502.00,1.35
9501.00,1.35
9500.00,1.35
9499.00,1.35
9498.00,1.35
9497.00,1.35
9496.00,1.35
9495.00,1.35
9494.00,1.35
9493.00,1.35
9492.00,1.35
9491.00,1.35
9490.00,1.35
9489.00,1.35
9488.00,1.35
9487.00,1.35
9486.00,1.34
9485.00,1.34
9484.00,1.34
9483.00,1.34
9482.00,1.34
9481.00,1.33
9480.00,1.33
9479.00,1.33
9478.00,1.33
9477.00,1.32
9476.00,1.32
9475.00,1.32
9474.00,1.32
9473.00,1.32
9472.00,1.32
9471.00,1.31
9470.00,1.31
9469.00,1.31
9468.00,1.31
9467.00,1.31
9466.00,1.31
9465.00,1.31
9464.00,1.31
9463.00,1.31
9462.00,1.31
9461.00,1.31
9460.00,1.31
9459.00,1.31
9458.00,1.31
9457.00,1.31
9456.00,1.31
9455.00,1.31
9454.00,1.31
9453.00,1.31
9452.00,1.31
9451.00,1.31
9450.00,1.31
9449.00,1.31
9448.00,1.32
9447.00,1.32
9446.00,1.32
9445.00,1.32
9444.00,1.32
9443.00,1.32
9442.00,1.32
9441.00,1.33
9440.00,1.33
9439.00,1.33
9438.00,1.33
9437.00,1.33
9436.00,1.33
9435.00,1.33
9434.00,1.33
9433.00,1.33
9432.00,1.33
9431.00,1.33
9430.00,1.33
9429.00,1.33
9428.00,1.33
9427.00,1.33
9426.00,1.33
9425.00,1.33
9424.00,1.33
9423.00,1.33
9422.00,1.33
9421.00,1.33
9420.00,1.33
9419.00,1.33
9418.00,1.34
9417.00,1.34
9416.00,1.34
9415.00,1.34
9414.00,1.34
9413.00,1.34
9412.00,1.34
9411.00,1.33
9410.00,1.33
9409.00,1.33
9408.00,1.33
9407.00,1.33
9406.00,1.33
9405.00,1.33
9404.00,1.33
9403.00,1.33
9402.00,1.33
9401.00,1.33
9400.00,1.33
9399.00,1.33
9398.00,1.33
9397.00,1.33
9396.00,1.33
9395.00,1.33
9394.00,1.33
9393.00,1.33
9392.00,1.33
9391.00,1.33
9390.00,1.33
9389.00,1.33
9388.00,1.33
9387.00,1.33
9386.00,1.33
9385.00,1.33
9384.00,1.33
9383.00,1.33
9382.00,1.33
9381.00,1.33
9380.00,1.33
9379.00,1.33
9378.00,1.33
9377.00,1.33
9376.00,1.33
9375.00,1.32
9374.00,1.32
9373.00,1.32
9372.00,1.32
9371.00,1.32
9370.00,1.32
9369.00,1.32
9368.00,1.32
9367.00,1.31
9366.00,1.31
9365.00,1.31
9364.00,1.31
9363.00,1.31
9362.00,1.31
9361.00,1.31
9360.00,1.31
9359.00,1.31
9358.00,1.31
9357.00,1.31
9356.00,1.31
9355.00,1.31
9354.00,1.31
9353.00,1.31
9352.00,1.32
9351.00,1.32
9350.00,1.32
9349.00,1.32
9348.00,1.32
9347.00,1.32
9346.00,1.32
9345.00,1.32
9344.00,1.32
9343.00,1.32
9342.00,1.32
9341.00,1.32
9340.00,1.33
9339.00,1.33
9338.00,1.33
9337.00,1.33
9336.00,1.33
9335.00,1.33
9334.00,1.33
9333.00,1.33
9332.00,1.33
9331.00,1.33
9330.00,1.33
9329.00,1.33
9328.00,1.33
9327.00,1.33
9326.00,1.33
9325.00,1.33
9324.00,1.33
9323.00,1.33
9322.00,1.33
9321.00,1.33
9320.00,1.33
9319.00,1.33
9318.00,1.33
9317.00,1.33
9316.00,1.33
9315.00,1.33
9314.00,1.33
9313.00,1.33
9312.00,1.33
9311.00,1.33
9310.00,1.33
9309.00,1.33
9308.00,1.33
9307.00,1.33
9306.00,1.33
9305.00,1.33
9304.00,1.33
9303.00,1.33
9302.00,1.33
9301.00,1.33
9300.00,1.33
9299.00,1.33
9298.00,1.33
9297.00,1.33
9296.00,1.33
9295.00,1.34
9294.00,1.34
9293.00,1.34
9292.00,1.34
9291.00,1.34
9290.00,1.34
9289.00,1.34
9288.00,1.35
9287.00,1.35
9286.00,1.35
9285.00,1.35
9284.00,1.35
9283.00,1.35
9282.00,1.35
9281.00,1.35
9280.00,1.36
9279.00,1.36
9278.00,1.36
9277.00,1.36
9276.00,1.36
9275.00,1.36
9274.00,1.36
9273.00,1.36
9272.00,1.36
9271.00,1.36
9270.00,1.36
9269.00,1.36
9268.00,1.36
9267.00,1.36
9266.00,1.37
9265.00,1.37
9264.00,1.37
9263.00,1.37
9262.00,1.37
9261.00,1.37
9260.00,1.37
9259.00,1.36
9258.00,1.36
9257.00,1.36
9256.00,1.36
9255.00,1.36
9254.00,1.36
9253.00,1.36
9252.00,1.35
9251.00,1.35
9250.00,1.35
9249.00,1.35
9248.00,1.35
9247.00,1.34
9246.00,1.34
9245.00,1.34
9244.00,1.34
9243.00,1.34
9242.00,1.34
9241.00,1.33
9240.00,1.33
9239.00,1.33
9238.00,1.33
9237.00,1.33
9236.00,1.33
9235.00,1.33
9234.00,1.33
9233.00,1.33
9232.00,1.33
9231.00,1.33
9230.00,1.33
9229.00,1.33
9228.00,1.33
9227.00,1.33
9226.00,1.33
9225.00,1.33
9224.00,1.33
9223.00,1.33
9222.00,1.33
9221.00,1.33
9220.00,1.33
9219.00,1.33
9218.00,1.33
9217.00,1.33
9216.00,1.33
9215.00,1.33
9214.00,1.34
9213.00,1.34
9212.00,1.34
9211.00,1.34
9210.00,1.34
9209.00,1.34
9208.00,1.34
9207.00,1.34
9206.00,1.34
9205.00,1.34
9204.00,1.34
9203.00,1.34
9202.00,1.34
9201.00,1.34
9200.00,1.34
9199.00,1.34
9198.00,1.34
9197.00,1.33
9196.00,1.33
9195.00,1.33
9194.00,1.33
9193.00,1.33
9192.00,1.33
9191.00,1.33
9190.00,1.33
9189.00,1.33
9188.00,1.33
9187.00,1.32
9186.00,1.32
9185.00,1.32
9184.00,1.32
9183.00,1.32
9182.00,1.32
9181.00,1.32
9180.00,1.32
9179.00,1.32
9178.00,1.32
9177.00,1.32
9176.00,1.33
9175.00,1.33
9174.00,1.33
9173.00,1.33
9172.00,1.33
9171.00,1.33
9170.00,1.33
9169.00,1.34
9168.00,1.34
9167.00,1.34
9166.00,1.34
9165.00,1.34
9164.00,1.34
9163.00,1.34
9162.00,1.34
9161.00,1.34
9160.00,1.34
9159.00,1.34
9158.00,1.34
9157.00,1.34
9156.00,1.34
9155.00,1.34
9154.00,1.34
9153.00,1.34
9152.00,1.34
9151.00,1.34
9150.00,1.34
9149.00,1.34
9148.00,1.34
9147.00,1.34
9146.00,1.34
9145.00,1.34
9144.00,1.34
9143.00,1.34
9142.00,1.34
9141.00,1.34
9140.00,1.34
9139.00,1.34
9138.00,1.34
9137.00,1.34
9136.00,1.34
9135.00,1.34
9134.00,1.34
9133.00,1.34
9132.00,1.34
9131.00,1.34
9130.00,1.33
9129.00,1.33
9128.00,1.33
9127.00,1.33
9126.00,1.33
9125.00,1.33
9124.00,1.33
9123.00,1.33
9122.00,1.33
9121.00,1.33
9120.00,1.33
9119.00,1.33
9118.00,1.34
9117.00,1.34
9116.00,1.34
9115.00,1.34
9114.00,1.34
9113.00,1.34
9112.00,1.34
9111.00,1.34
9110.00,1.34
9109.00,1.34
9108.00,1.34
9107.00,1.34
9106.00,1.34
9105.00,1.34
9104.00,1.34
9103.00,1.34
9102.00,1.34
9101.00,1.34
9100.00,1.34
9099.00,1.34
9098.00,1.34
9097.00,1.34
9096.00,1.34
9095.00,1.34
9094.00,1.34
9093.00,1.34
9092.00,1.34
9091.00,1.34
9090.00,1.34
9089.00,1.34
9088.00,1.34
9087.00,1.34
9086.00,1.34
9085.00,1.34
9084.00,1.34
9083.00,1.34
9082.00,1.34
9081.00,1.34
9080.00,1.34
9079.00,1.34
9078.00,1.34
9077.00,1.34
9076.00,1.34
9075.00,1.34
9074.00,1.34
9073.00,1.33
9072.00,1.33
9071.00,1.33
9070.00,1.33
9069.00,1.34
9068.00,1.34
9067.00,1.34
9066.00,1.34
9065.00,1.34
9064.00,1.34
9063.00,1.34
9062.00,1.34
9061.00,1.34
9060.00,1.34
9059.00,1.34
9058.00,1.34
9057.00,1.34
9056.00,1.33
9055.00,1.33
9054.00,1.33
9053.00,1.33
9052.00,1.33
9051.00,1.33
9050.00,1.33
9049.00,1.33
9048.00,1.33
9047.00,1.33
9046.00,1.32
9045.00,1.32
9044.00,1.32
9043.00,1.32
9042.00,1.32
9041.00,1.32
9040.00,1.32
9039.00,1.32
9038.00,1.32
9037.00,1.32
9036.00,1.33
9035.00,1.33
9034.00,1.33
9033.00,1.33
9032.00,1.33
9031.00,1.33
9030.00,1.33
9029.00,1.34
9028.00,1.34
9027.00,1.34
9026.00,1.34
9025.00,1.34
9024.00,1.34
9023.00,1.34
9022.00,1.34
9021.00,1.35
9020.00,1.35
9019.00,1.35
9018.00,1.35
9017.00,1.35
9016.00,1.35
9015.00,1.35
9014.00,1.35
9013.00,1.35
9012.00,1.35
9011.00,1.35
9010.00,1.35
9009.00,1.35
9008.00,1.35
9007.00,1.35
9006.00,1.35
9005.00,1.34
9004.00,1.34
9003.00,1.34
9002.00,1.34
9001.00,1.34
9000.00,1.34
8999.00,1.34
8998.00,1.34
8997.00,1.34
8996.00,1.33
8995.00,1.33
8994.00,1.33
8993.00,1.33
8992.00,1.33
8991.00,1.33
8990.00,1.33
8989.00,1.33
8988.00,1.33
8987.00,1.34
8986.00,1.34
8985.00,1.34
8984.00,1.34
8983.00,1.34
8982.00,1.34
8981.00,1.34
8980.00,1.34
8979.00,1.34
8978.00,1.34
8977.00,1.34
8976.00,1.34
8975.00,1.34
8974.00,1.35
8973.00,1.35
8972.00,1.35
8971.00,1.35
8970.00,1.35
8969.00,1.35
8968.00,1.35
8967.00,1.35
8966.00,1.35
8965.00,1.35
8964.00,1.35
8963.00,1.35
8962.00,1.35
8961.00,1.35
8960.00,1.35
8959.00,1.35
8958.00,1.34
8957.00,1.34
8956.00,1.34
8955.00,1.34
8954.00,1.34
8953.00,1.34
8952.00,1.34
8951.00,1.34
8950.00,1.34
8949.00,1.33
8948.00,1.33
8947.00,1.33
8946.00,1.33
8945.00,1.33
8944.00,1.33
8943.00,1.33
8942.00,1.33
8941.00,1.33
8940.00,1.33
8939.00,1.33
8938.00,1.33
8937.00,1.33
8936.00,1.33
8935.00,1.33
8934.00,1.33
8933.00,1.33
8932.00,1.33
8931.00,1.33
8930.00,1.33
8929.00,1.33
8928.00,1.33
8927.00,1.33
8926.00,1.33
8925.00,1.33
8924.00,1.33
8923.00,1.33
8922.00,1.33
8921.00,1.33
8920.00,1.33
8919.00,1.33
8918.00,1.33
8917.00,1.33
8916.00,1.33
8915.00,1.34
8914.00,1.34
8913.00,1.34
8912.00,1.34
8911.00,1.34
8910.00,1.34
8909.00,1.34
8908.00,1.34
8907.00,1.34
8906.00,1.34
8905.00,1.34
8904.00,1.34
8903.00,1.34
8902.00,1.34
8901.00,1.34
8900.00,1.34
8899.00,1.34
8898.00,1.34
8897.00,1.34
8896.00,1.34
8895.00,1.34
8894.00,1.34
8893.00,1.34
8892.00,1.34
8891.00,1.34
8890.00,1.34
8889.00,1.34
8888.00,1.34
8887.00,1.34
8886.00,1.34
8885.00,1.34
8884.00,1.34
8883.00,1.34
8882.00,1.34
8881.00,1.34
8880.00,1.34
8879.00,1.34
8878.00,1.34
8877.00,1.34
8876.00,1.34
8875.00,1.34
8874.00,1.34
8873.00,1.34
8872.00,1.34
8871.00,1.34
8870.00,1.34
8869.00,1.34
8868.00,1.34
8867.00,1.34
8866.00,1.34
8865.00,1.34
8864.00,1.34
8863.00,1.34
8862.00,1.34
8861.00,1.34
8860.00,1.34
8859.00,1.34
8858.00,1.34
8857.00,1.34
8856.00,1.34
8855.00,1.34
8854.00,1.34
8853.00,1.34
8852.00,1.34
8851.00,1.33
8850.00,1.33
8849.00,1.33
8848.00,1.33
8847.00,1.33
8846.00,1.33
8845.00,1.33
8844.00,1.33
8843.00,1.33
8842.00,1.33
8841.00,1.33
8840.00,1.33
8839.00,1.33
8838.00,1.33
8837.00,1.33
8836.00,1.33
8835.00,1.33
8834.00,1.33
8833.00,1.33
8832.00,1.33
8831.00,1.33
8830.00,1.33
8829.00,1.33
8828.00,1.33
8827.00,1.33
8826.00,1.33
8825.00,1.33
8824.00,1.33
8823.00,1.33
8822.00,1.33
8821.00,1.33
8820.00,1.33
8819.00,1.33
8818.00,1.33
8817.00,1.33
8816.00,1.33
8815.00,1.33
8814.00,1.33
8813.00,1.33
8812.00,1.33
8811.00,1.33
8810.00,1.33
8809.00,1.33
8808.00,1.33
8807.00,1.33
8806.00,1.33
8805.00,1.33
8804.00,1.33
8803.00,1.33
8802.00,1.33
8801.00,1.33
8800.00,1.33
8799.00,1.33
8798.00,1.33
8797.00,1.33
8796.00,1.33
8795.00,1.33
8794.00,1.33
8793.00,1.33
8792.00,1.33
8791.00,1.33
8790.00,1.33
8789.00,1.33
8788.00,1.33
8787.00,1.32
8786.00,1.32
8785.00,1.32
8784.00,1.32
8783.00,1.32
8782.00,1.32
8781.00,1.32
8780.00,1.32
8779.00,1.32
8778.00,1.32
8777.00,1.32
8776.00,1.32
8775.00,1.32
8774.00,1.32
8773.00,1.32
8772.00,1.32
8771.00,1.32
8770.00,1.31
8769.00,1.31
8768.00,1.31
8767.00,1.31
8766.00,1.31
8765.00,1.31
8764.00,1.31
8763.00,1.31
8762.00,1.31
8761.00,1.31
8760.00,1.32
8759.00,1.32
8758.00,1.32
8757.00,1.32
8756.00,1.32
8755.00,1.32
8754.00,1.32
8753.00,1.32
8752.00,1.32
8751.00,1.33
8750.00,1.33
8749.00,1.33
8748.00,1.33
8747.00,1.33
8746.00,1.32
8745.00,1.32
8744.00,1.32
8743.00,1.32
8742.00,1.32
8741.00,1.32
8740.00,1.32
8739.00,1.32
8738.00,1.32
8737.00,1.31
8736.00,1.31
8735.00,1.31
8734.00,1.31
8733.00,1.31
8732.00,1.31
8731.00,1.31
8730.00,1.31
8729.00,1.31
8728.00,1.31
8727.00,1.31
8726.00,1.31
8725.00,1.31
8724.00,1.31
8723.00,1.31
8722.00,1.32
8721.00,1.32
8720.00,1.32
8719.00,1.32
8718.00,1.32
8717.00,1.32
8716.00,1.32
8715.00,1.32
8714.00,1.32
8713.00,1.32
8712.00,1.32
8711.00,1.32
8710.00,1.32
8709.00,1.32
8708.00,1.32
8707.00,1.32
8706.00,1.32
8705.00,1.32
8704.00,1.32
8703.00,1.32
8702.00,1.32
8701.00,1.32
8700.00,1.32
8699.00,1.32
8698.00,1.32
8697.00,1.32
8696.00,1.32
8695.00,1.31
8694.00,1.31
8693.00,1.31
8692.00,1.31
8691.00,1.31
8690.00,1.31
8689.00,1.31
8688.00,1.31
8687.00,1.31
8686.00,1.31
8685.00,1.31
8684.00,1.31
8683.00,1.31
8682.00,1.31
8681.00,1.31
8680.00,1.31
8679.00,1.31
8678.00,1.31
8677.00,1.31
8676.00,1.31
8675.00,1.31
8674.00,1.31
8673.00,1.31
8672.00,1.31
8671.00,1.31
8670.00,1.31
8669.00,1.31
8668.00,1.31
8667.00,1.31
8666.00,1.31
8665.00,1.31
8664.00,1.31
8663.00,1.31
8662.00,1.31
8661.00,1.31
8660.00,1.31
8659.00,1.31
8658.00,1.30
8657.00,1.30
8656.00,1.30
8655.00,1.30
8654.00,1.30
8653.00,1.30
8652.00,1.30
8651.00,1.30
8650.00,1.30
8649.00,1.30
8648.00,1.30
8647.00,1.30
8646.00,1.30
8645.00,1.29
8644.00,1.29
8643.00,1.29
8642.00,1.29
8641.00,1.29
8640.00,1.29
8639.00,1.29
8638.00,1.29
8637.00,1.29
8636.00,1.29
8635.00,1.29
8634.00,1.28
8633.00,1.28
8632.00,1.28
8631.00,1.28
8630.00,1.28
8629.00,1.28
8628.00,1.28
8627.00,1.28
8626.00,1.29
8625.00,1.29
8624.00,1.29
8623.00,1.29
8622.00,1.29
8621.00,1.29
8620.00,1.29
8619.00,1.29
8618.00,1.30
8617.00,1.30
8616.00,1.30
8615.00,1.30
8614.00,1.30
8613.00,1.30
8612.00,1.30
8611.00,1.30
8610.00,1.30
8609.00,1.30
8608.00,1.30
8607.00,1.30
8606.00,1.30
8605.00,1.30
8604.00,1.30
8603.00,1.30
8602.00,1.30
8601.00,1.30
8600.00,1.30
8599.00,1.30
8598.00,1.30
8597.00,1.30
8596.00,1.30
8595.00,1.30
8594.00,1.30
8593.00,1.30
8592.00,1.30
8591.00,1.30
8590.00,1.30
8589.00,1.30
8588.00,1.30
8587.00,1.30
8586.00,1.30
8585.00,1.31
8584.00,1.31
8583.00,1.31
8582.00,1.31
8581.00,1.30
8580.00,1.30
8579.00,1.30
8578.00,1.30
8577.00,1.30
8576.00,1.30
8575.00,1.30
8574.00,1.30
8573.00,1.30
8572.00,1.30
8571.00,1.29
8570.00,1.29
8569.00,1.29
8568.00,1.29
8567.00,1.29
8566.00,1.29
8565.00,1.29
8564.00,1.29
8563.00,1.29
8562.00,1.29
8561.00,1.29
8560.00,1.30
8559.00,1.30
8558.00,1.30
8557.00,1.30
8556.00,1.30
8555.00,1.30
8554.00,1.30
8553.00,1.30
8552.00,1.30
8551.00,1.30
8550.00,1.30
8549.00,1.30
8548.00,1.30
8547.00,1.30
8546.00,1.30
8545.00,1.30
8544.00,1.30
8543.00,1.30
8542.00,1.29
8541.00,1.29
8540.00,1.29
8539.00,1.29
8538.00,1.29
8537.00,1.29
8536.00,1.29
8535.00,1.29
8534.00,1.29
8533.00,1.29
8532.00,1.29
8531.00,1.29
8530.00,1.29
8529.00,1.29
8528.00,1.29
8527.00,1.29
8526.00,1.29
8525.00,1.29
8524.00,1.29
8523.00,1.29
8522.00,1.28
8521.00,1.28
8520.00,1.28
8519.00,1.28
8518.00,1.28
8517.00,1.28
8516.00,1.28
8515.00,1.28
8514.00,1.28
8513.00,1.28
8512.00,1.28
8511.00,1.28
8510.00,1.28
8509.00,1.28
8508.00,1.28
8507.00,1.28
8506.00,1.28
8505.00,1.28
8504.00,1.28
8503.00,1.28
8502.00,1.28
8501.00,1.28
8500.00,1.28
8499.00,1.28
8498.00,1.28
8497.00,1.28
8496.00,1.28
8495.00,1.28
8494.00,1.28
8493.00,1.28
8492.00,1.28
8491.00,1.28
8490.00,1.27
8489.00,1.27
8488.00,1.27
8487.00,1.27
8486.00,1.27
8485.00,1.27
8484.00,1.27
8483.00,1.27
8482.00,1.27
8481.00,1.27
8480.00,1.27
8479.00,1.27
8478.00,1.26
8477.00,1.26
8476.00,1.26
8475.00,1.26
8474.00,1.26
8473.00,1.26
8472.00,1.26
8471.00,1.26
8470.00,1.26
8469.00,1.26
8468.00,1.26
8467.00,1.27
8466.00,1.27
8465.00,1.27
8464.00,1.27
8463.00,1.27
8462.00,1.27
8461.00,1.27
8460.00,1.27
8459.00,1.27
8458.00,1.27
8457.00,1.27
8456.00,1.27
8455.00,1.27
8454.00,1.27
8453.00,1.27
8452.00,1.27
8451.00,1.27
8450.00,1.27
8449.00,1.27
8448.00,1.27
8447.00,1.27
8446.00,1.27
8445.00,1.27
8444.00,1.27
8443.00,1.26
8442.00,1.27
8441.00,1.27
8440.00,1.27
8439.00,1.27
8438.00,1.27
8437.00,1.27
8436.00,1.27
8435.00,1.27
8434.00,1.27
8433.00,1.27
8432.00,1.27
8431.00,1.27
8430.00,1.27
8429.00,1.27
8428.00,1.27
8427.00,1.27
8426.00,1.26
8425.00,1.26
8424.00,1.26
8423.00,1.26
8422.00,1.26
8421.00,1.26
8420.00,1.26
8419.00,1.26
8418.00,1.26
8417.00,1.26
8416.00,1.26
8415.00,1.26
8414.00,1.26
8413.00,1.26
8412.00,1.26
8411.00,1.26
8410.00,1.26
8409.00,1.26
8408.00,1.27
8407.00,1.27
8406.00,1.27
8405.00,1.27
8404.00,1.27
8403.00,1.27
8402.00,1.27
8401.00,1.27
8400.00,1.27
8399.00,1.27
8398.00,1.27
8397.00,1.27
8396.00,1.27
8395.00,1.27
8394.00,1.27
8393.00,1.27
8392.00,1.27
8391.00,1.27
8390.00,1.27
8389.00,1.27
8388.00,1.27
8387.00,1.28
8386.00,1.28
8385.00,1.28
8384.00,1.28
8383.00,1.28
8382.00,1.28
8381.00,1.28
8380.00,1.28
8379.00,1.28
8378.00,1.28
8377.00,1.28
8376.00,1.28
8375.00,1.29
8374.00,1.29
8373.00,1.29
8372.00,1.29
8371.00,1.29
8370.00,1.29
8369.00,1.29
8368.00,1.29
8367.00,1.29
8366.00,1.29
8365.00,1.29
8364.00,1.29
8363.00,1.29
8362.00,1.29
8361.00,1.29
8360.00,1.29
8359.00,1.29
8358.00,1.29
8357.00,1.29
8356.00,1.29
8355.00,1.29
8354.00,1.29
8353.00,1.29
8352.00,1.29
8351.00,1.29
8350.00,1.29
8349.00,1.29
8348.00,1.28
8347.00,1.28
8346.00,1.28
8345.00,1.28
8344.00,1.28
8343.00,1.28
8342.00,1.28
8341.00,1.27
8340.00,1.27
8339.00,1.27
8338.00,1.27
8337.00,1.27
8336.00,1.27
8335.00,1.27
8334.00,1.27
8333.00,1.27
8332.00,1.27
8331.00,1.27
8330.00,1.27
8329.00,1.27
8328.00,1.27
8327.00,1.27
8326.00,1.27
8325.00,1.27
8324.00,1.27
8323.00,1.27
8322.00,1.27
8321.00,1.27
8320.00,1.27
8319.00,1.27
8318.00,1.27
8317.00,1.27
8316.00,1.27
8315.00,1.27
8314.00,1.27
8313.00,1.27
8312.00,1.27
8311.00,1.27
8310.00,1.27
8309.00,1.27
8308.00,1.27
8307.00,1.27
8306.00,1.27
8305.00,1.27
8304.00,1.27
8303.00,1.27
8302.00,1.27
8301.00,1.27
8300.00,1.27
8299.00,1.27
8298.00,1.27
8297.00,1.28
8296.00,1.28
8295.00,1.28
8294.00,1.28
8293.00,1.28
8292.00,1.28
8291.00,1.28
8290.00,1.28
8289.00,1.28
8288.00,1.28
8287.00,1.28
8286.00,1.28
8285.00,1.28
8284.00,1.28
8283.00,1.28
8282.00,1.28
8281.00,1.28
8280.00,1.28
8279.00,1.28
8278.00,1.28
8277.00,1.28
8276.00,1.28
8275.00,1.28
8274.00,1.28
8273.00,1.28
8272.00,1.28
8271.00,1.29
8270.00,1.29
8269.00,1.29
8268.00,1.29
8267.00,1.29
8266.00,1.29
8265.00,1.29
8264.00,1.29
8263.00,1.29
8262.00,1.29
8261.00,1.29
8260.00,1.29
8259.00,1.29
8258.00,1.29
8257.00,1.30
8256.00,1.30
8255.00,1.30
8254.00,1.30
8253.00,1.30
8252.00,1.29
8251.00,1.29
8250.00,1.29
8249.00,1.29
8248.00,1.29
8247.00,1.29
8246.00,1.29
8245.00,1.29
8244.00,1.29
8243.00,1.29
8242.00,1.29
8241.00,1.29
8240.00,1.29
8239.00,1.29
8238.00,1.29
8237.00,1.29
8236.00,1.29
8235.00,1.29
8234.00,1.29
8233.00,1.29
8232.00,1.29
8231.00,1.30
8230.00,1.30
8229.00,1.30
8228.00,1.30
8227.00,1.30
8226.00,1.30
8225.00,1.30
8224.00,1.30
8223.00,1.30
8222.00,1.30
8221.00,1.30
8220.00,1.30
8219.00,1.30
8218.00,1.30
8217.00,1.30
8216.00,1.30
8215.00,1.30
8214.00,1.30
8213.00,1.30
8212.00,1.30
8211.00,1.30
8210.00,1.30
8209.00,1.30
8208.00,1.30
8207.00,1.30
8206.00,1.30
8205.00,1.30
8204.00,1.30
8203.00,1.30
8202.00,1.30
8201.00,1.30
8200.00,1.30
8199.00,1.30
8198.00,1.30
8197.00,1.30
8196.00,1.30
8195.00,1.31
8194.00,1.31
8193.00,1.31
8192.00,1.31
8191.00,1.31
8190.00,1.31
8189.00,1.31
8188.00,1.31
8187.00,1.31
8186.00,1.31
8185.00,1.31
8184.00,1.31
8183.00,1.31
8182.00,1.31
8181.00,1.31
8180.00,1.31
8179.00,1.31
8178.00,1.31
8177.00,1.31
8176.00,1.31
8175.00,1.31
8174.00,1.31
8173.00,1.31
8172.00,1.31
8171.00,1.31
8170.00,1.31
8169.00,1.31
8168.00,1.31
8167.00,1.31
8166.00,1.31
8165.00,1.31
8164.00,1.31
8163.00,1.31
8162.00,1.31
8161.00,1.31
8160.00,1.31
8159.00,1.31
8158.00,1.31
8157.00,1.31
8156.00,1.31
8155.00,1.31
8154.00,1.31
8153.00,1.31
8152.00,1.31
8151.00,1.31
8150.00,1.31
8149.00,1.32
8148.00,1.32
8147.00,1.32
8146.00,1.32
8145.00,1.32
8144.00,1.32
8143.00,1.32
8142.00,1.32
8141.00,1.32
8140.00,1.32
8139.00,1.32
8138.00,1.32
8137.00,1.32
8136.00,1.32
8135.00,1.32
8134.00,1.32
8133.00,1.32
8132.00,1.32
8131.00,1.32
8130.00,1.32
8129.00,1.32
8128.00,1.32
8127.00,1.32
8126.00,1.32
8125.00,1.32
8124.00,1.32
8123.00,1.32
8122.00,1.32
8121.00,1.32
8120.00,1.32
8119.00,1.32
8118.00,1.32
8117.00,1.32
8116.00,1.32
8115.00,1.32
8114.00,1.32
8113.00,1.32
8112.00,1.32
8111.00,1.32
8110.00,1.32
8109.00,1.32
8108.00,1.32
8107.00,1.32
8106.00,1.32
8105.00,1.32
8104.00,1.32
8103.00,1.32
8102.00,1.32
8101.00,1.31
8100.00,1.31
8099.00,1.31
8098.00,1.31
8097.00,1.31
8096.00,1.31
8095.00,1.31
8094.00,1.31
8093.00,1.31
8092.00,1.31
8091.00,1.31
8090.00,1.31
8089.00,1.31
8088.00,1.31
8087.00,1.31
8086.00,1.32
8085.00,1.32
8084.00,1.32
8083.00,1.32
8082.00,1.32
8081.00,1.32
8080.00,1.33
8079.00,1.33
8078.00,1.33
8077.00,1.33
8076.00,1.33
8075.00,1.33
8074.00,1.33
8073.00,1.33
8072.00,1.33
8071.00,1.33
8070.00,1.33
8069.00,1.33
8068.00,1.33
8067.00,1.33
8066.00,1.33
8065.00,1.33
8064.00,1.33
8063.00,1.32
8062.00,1.32
8061.00,1.32
8060.00,1.32
8059.00,1.32
8058.00,1.32
8057.00,1.32
8056.00,1.32
8055.00,1.32
8054.00,1.32
8053.00,1.32
8052.00,1.32
8051.00,1.32
8050.00,1.32
8049.00,1.32
8048.00,1.32
8047.00,1.32
8046.00,1.32
8045.00,1.32
8044.00,1.32
8043.00,1.32
8042.00,1.32
8041.00,1.33
8040.00,1.33
8039.00,1.33
8038.00,1.33
8037.00,1.33
8036.00,1.33
8035.00,1.33
8034.00,1.33
8033.00,1.33
8032.00,1.33
8031.00,1.33
8030.00,1.33
8029.00,1.33
8028.00,1.33
8027.00,1.33
8026.00,1.33
8025.00,1.33
8024.00,1.33
8023.00,1.33
8022.00,1.33
8021.00,1.33
8020.00,1.33
8019.00,1.33
8018.00,1.33
8017.00,1.33
8016.00,1.33
8015.00,1.33
8014.00,1.33
8013.00,1.33
8012.00,1.33
8011.00,1.33
8010.00,1.33
8009.00,1.33
8008.00,1.33
8007.00,1.33
8006.00,1.33
8005.00,1.33
8004.00,1.33
8003.00,1.33
8002.00,1.34
8001.00,1.34
8000.00,1.34
7999.00,1.34
7998.00,1.33
7997.00,1.33
7996.00,1.33
7995.00,1.33
7994.00,1.33
7993.00,1.33
7992.00,1.33
7991.00,1.33
7990.00,1.33
7989.00,1.33
7988.00,1.33
7987.00,1.33
7986.00,1.33
7985.00,1.33
7984.00,1.34
7983.00,1.34
7982.00,1.34
7981.00,1.34
7980.00,1.34
7979.00,1.34
7978.00,1.34
7977.00,1.34
7976.00,1.34
7975.00,1.34
7974.00,1.34
7973.00,1.34
7972.00,1.34
7971.00,1.34
7970.00,1.34
7969.00,1.34
7968.00,1.34
7967.00,1.34
7966.00,1.34
7965.00,1.34
7964.00,1.34
7963.00,1.34
7962.00,1.34
7961.00,1.34
7960.00,1.34
7959.00,1.34
7958.00,1.34
7957.00,1.34
7956.00,1.34
7955.00,1.34
7954.00,1.34
7953.00,1.34
7952.00,1.34
7951.00,1.34
7950.00,1.34
7949.00,1.34
7948.00,1.34
7947.00,1.34
7946.00,1.34
7945.00,1.34
7944.00,1.34
7943.00,1.34
7942.00,1.34
7941.00,1.34
7940.00,1.34
7939.00,1.34
7938.00,1.34
7937.00,1.34
7936.00,1.34
7935.00,1.34
7934.00,1.34
7933.00,1.34
7932.00,1.34
7931.00,1.34
7930.00,1.34
7929.00,1.34
7928.00,1.34
7927.00,1.34
7926.00,1.34
7925.00,1.34
7924.00,1.34
7923.00,1.34
7922.00,1.34
7921.00,1.34
7920.00,1.34
7919.00,1.34
7918.00,1.34
7917.00,1.34
7916.00,1.34
7915.00,1.34
7914.00,1.34
7913.00,1.34
7912.00,1.34
7911.00,1.34
7910.00,1.34
7909.00,1.34
7908.00,1.34
7907.00,1.34
7906.00,1.34
7905.00,1.34
7904.00,1.34
7903.00,1.34
7902.00,1.34
7901.00,1.34
7900.00,1.34
7899.00,1.34
7898.00,1.34
7897.00,1.34
7896.00,1.34
7895.00,1.34
7894.00,1.34
7893.00,1.34
7892.00,1.34
7891.00,1.34
7890.00,1.34
7889.00,1.34
7888.00,1.34
7887.00,1.34
7886.00,1.34
7885.00,1.34
7884.00,1.34
7883.00,1.34
7882.00,1.34
7881.00,1.34
7880.00,1.34
7879.00,1.34
7878.00,1.34
7877.00,1.34
7876.00,1.34
7875.00,1.34
7874.00,1.34
7873.00,1.34
7872.00,1.34
7871.00,1.34
7870.00,1.34
7869.00,1.34
7868.00,1.34
7867.00,1.34
7866.00,1.34
7865.00,1.34
7864.00,1.34
7863.00,1.34
7862.00,1.34
7861.00,1.34
7860.00,1.34
7859.00,1.34
7858.00,1.34
7857.00,1.34
7856.00,1.34
7855.00,1.34
7854.00,1.34
7853.00,1.34
7852.00,1.34
7851.00,1.34
7850.00,1.34
7849.00,1.34
7848.00,1.35
7847.00,1.35
7846.00,1.35
7845.00,1.35
7844.00,1.35
7843.00,1.35
7842.00,1.35
7841.00,1.35
7840.00,1.35
7839.00,1.35
7838.00,1.35
7837.00,1.35
7836.00,1.35
7835.00,1.35
7834.00,1.35
7833.00,1.35
7832.00,1.35
7831.00,1.35
7830.00,1.35
7829.00,1.35
7828.00,1.35
7827.00,1.35
7826.00,1.35
7825.00,1.35
7824.00,1.35
7823.00,1.35
7822.00,1.35
7821.00,1.35
7820.00,1.35
7819.00,1.35
7818.00,1.35
7817.00,1.35
7816.00,1.35
7815.00,1.35
7814.00,1.35
7813.00,1.35
7812.00,1.35
7811.00,1.35
7810.00,1.35
7809.00,1.35
7808.00,1.35
7807.00,1.35
7806.00,1.35
7805.00,1.35
7804.00,1.35
7803.00,1.35
7802.00,1.35
7801.00,1.35
7800.00,1.35
7799.00,1.35
7798.00,1.35
7797.00,1.35
7796.00,1.35
7795.00,1.35
7794.00,1.35
7793.00,1.35
7792.00,1.35
7791.00,1.36
7790.00,1.36
7789.00,1.36
7788.00,1.36
7787.00,1.36
7786.00,1.36
7785.00,1.36
7784.00,1.36
7783.00,1.36
7782.00,1.36
7781.00,1.36
7780.00,1.36
7779.00,1.36
7778.00,1.36
7777.00,1.36
7776.00,1.36
7775.00,1.36
7774.00,1.36
7773.00,1.36
7772.00,1.36
7771.00,1.35
7770.00,1.35
7769.00,1.35
7768.00,1.35
7767.00,1.35
7766.00,1.35
7765.00,1.35
7764.00,1.35
7763.00,1.35
7762.00,1.35
7761.00,1.35
7760.00,1.35
7759.00,1.35
7758.00,1.35
7757.00,1.35
7756.00,1.35
7755.00,1.35
7754.00,1.35
7753.00,1.35
7752.00,1.35
7751.00,1.35
7750.00,1.35
7749.00,1.35
7748.00,1.36
7747.00,1.36
7746.00,1.36
7745.00,1.36
7744.00,1.36
7743.00,1.35
7742.00,1.35
7741.00,1.35
7740.00,1.35
7739.00,1.35
7738.00,1.35
7737.00,1.35
7736.00,1.35
7735.00,1.35
7734.00,1.35
7733.00,1.35
7732.00,1.35
7731.00,1.35
7730.00,1.35
7729.00,1.35
7728.00,1.35
7727.00,1.35
7726.00,1.35
7725.00,1.35
7724.00,1.35
7723.00,1.35
7722.00,1.36
7721.00,1.36
7720.00,1.36
7719.00,1.36
7718.00,1.36
7717.00,1.36
7716.00,1.36
7715.00,1.36
7714.00,1.36
7713.00,1.36
7712.00,1.36
7711.00,1.36
7710.00,1.36
7709.00,1.36
7708.00,1.36
7707.00,1.36
7706.00,1.36
7705.00,1.36
7704.00,1.36
7703.00,1.36
7702.00,1.36
7701.00,1.36
7700.00,1.36
7699.00,1.36
7698.00,1.36
7697.00,1.36
7696.00,1.36
7695.00,1.36
7694.00,1.36
7693.00,1.36
7692.00,1.36
7691.00,1.36
7690.00,1.36
7689.00,1.36
7688.00,1.36
7687.00,1.36
7686.00,1.36
7685.00,1.36
7684.00,1.36
7683.00,1.36
7682.00,1.36
7681.00,1.36
7680.00,1.35
7679.00,1.35
7678.00,1.35
7677.00,1.35
7676.00,1.35
7675.00,1.35
7674.00,1.35
7673.00,1.35
7672.00,1.35
7671.00,1.36
7670.00,1.36
7669.00,1.36
7668.00,1.36
7667.00,1.36
7666.00,1.36
7665.00,1.36
7664.00,1.36
7663.00,1.36
7662.00,1.36
7661.00,1.36
7660.00,1.36
7659.00,1.36
7658.00,1.36
7657.00,1.36
7656.00,1.36
7655.00,1.36
7654.00,1.36
7653.00,1.36
7652.00,1.36
7651.00,1.36
7650.00,1.36
7649.00,1.36
7648.00,1.36
7647.00,1.36
7646.00,1.36
7645.00,1.36
7644.00,1.36
7643.00,1.36
7642.00,1.36
7641.00,1.36
7640.00,1.36
7639.00,1.36
7638.00,1.36
7637.00,1.37
7636.00,1.37
7635.00,1.37
7634.00,1.37
7633.00,1.37
7632.00,1.37
7631.00,1.37
7630.00,1.37
7629.00,1.37
7628.00,1.37
7627.00,1.37
7626.00,1.37
7625.00,1.36
7624.00,1.36
7623.00,1.36
7622.00,1.36
7621.00,1.36
7620.00,1.36
7619.00,1.36
7618.00,1.36
7617.00,1.36
7616.00,1.36
7615.00,1.36
7614.00,1.36
7613.00,1.35
7612.00,1.35
7611.00,1.35
7610.00,1.35
7609.00,1.35
7608.00,1.35
7607.00,1.35
7606.00,1.35
7605.00,1.35
7604.00,1.35
7603.00,1.35
7602.00,1.35
7601.00,1.35
7600.00,1.35
7599.00,1.35
7598.00,1.35
7597.00,1.35
7596.00,1.35
7595.00,1.35
7594.00,1.35
7593.00,1.35
7592.00,1.35
7591.00,1.35
7590.00,1.35
7589.00,1.35
7588.00,1.35
7587.00,1.35
7586.00,1.35
7585.00,1.35
7584.00,1.35
7583.00,1.35
7582.00,1.35
7581.00,1.35
7580.00,1.36
7579.00,1.36
7578.00,1.36
7577.00,1.36
7576.00,1.36
7575.00,1.36
7574.00,1.36
7573.00,1.36
7572.00,1.36
7571.00,1.36
7570.00,1.36
7569.00,1.36
7568.00,1.36
7567.00,1.36
7566.00,1.36
7565.00,1.36
7564.00,1.36
7563.00,1.36
7562.00,1.36
7561.00,1.35
7560.00,1.35
7559.00,1.35
7558.00,1.35
7557.00,1.35
7556.00,1.35
7555.00,1.35
7554.00,1.35
7553.00,1.35
7552.00,1.35
7551.00,1.35
7550.00,1.35
7549.00,1.35
7548.00,1.35
7547.00,1.35
7546.00,1.35
7545.00,1.35
7544.00,1.35
7543.00,1.35
7542.00,1.35
7541.00,1.35
7540.00,1.35
7539.00,1.35
7538.00,1.35
7537.00,1.35
7536.00,1.35
7535.00,1.35
7534.00,1.35
7533.00,1.35
7532.00,1.35
7531.00,1.35
7530.00,1.35
7529.00,1.35
7528.00,1.35
7527.00,1.35
7526.00,1.35
7525.00,1.35
7524.00,1.35
7523.00,1.35
7522.00,1.35
7521.00,1.35
7520.00,1.35
7519.00,1.35
7518.00,1.35
7517.00,1.35
7516.00,1.35
7515.00,1.35
7514.00,1.35
7513.00,1.35
7512.00,1.35
7511.00,1.35
7510.00,1.35
7509.00,1.35
7508.00,1.35
7507.00,1.35
7506.00,1.35
7505.00,1.35
7504.00,1.35
7503.00,1.35
7502.00,1.35
7501.00,1.35
7500.00,1.35
7499.00,1.35
7498.00,1.35
7497.00,1.35
7496.00,1.35
7495.00,1.35
7494.00,1.35
7493.00,1.35
7492.00,1.35
7491.00,1.35
7490.00,1.35
7489.00,1.35
7488.00,1.35
7487.00,1.35
7486.00,1.35
7485.00,1.35
7484.00,1.35
7483.00,1.34
7482.00,1.34
7481.00,1.34
7480.00,1.34
7479.00,1.34
7478.00,1.34
7477.00,1.34
7476.00,1.34
7475.00,1.34
7474.00,1.34
7473.00,1.34
7472.00,1.34
7471.00,1.34
7470.00,1.34
7469.00,1.34
7468.00,1.34
7467.00,1.34
7466.00,1.34
7465.00,1.34
7464.00,1.34
7463.00,1.34
7462.00,1.34
7461.00,1.34
7460.00,1.34
7459.00,1.34
7458.00,1.34
7457.00,1.34
7456.00,1.34
7455.00,1.34
7454.00,1.34
7453.00,1.34
7452.00,1.34
7451.00,1.34
7450.00,1.34
7449.00,1.34
7448.00,1.34
7447.00,1.34
7446.00,1.34
7445.00,1.34
7444.00,1.34
7443.00,1.34
7442.00,1.34
7441.00,1.34
7440.00,1.34
7439.00,1.34
7438.00,1.34
7437.00,1.34
7436.00,1.33
7435.00,1.33
7434.00,1.33
7433.00,1.33
7432.00,1.33
7431.00,1.33
7430.00,1.33
7429.00,1.33
7428.00,1.33
7427.00,1.33
7426.00,1.33
7425.00,1.33
7424.00,1.33
7423.00,1.33
7422.00,1.33
7421.00,1.33
7420.00,1.33
7419.00,1.33
7418.00,1.33
7417.00,1.33
7416.00,1.33
7415.00,1.33
7414.00,1.33
7413.00,1.33
7412.00,1.33
7411.00,1.32
7410.00,1.32
7409.00,1.32
7408.00,1.32
7407.00,1.32
7406.00,1.32
7405.00,1.32
7404.00,1.32
7403.00,1.32
7402.00,1.32
7401.00,1.32
7400.00,1.32
7399.00,1.32
7398.00,1.32
7397.00,1.32
7396.00,1.31
7395.00,1.31
7394.00,1.31
7393.00,1.31
7392.00,1.31
7391.00,1.31
7390.00,1.31
7389.00,1.31
7388.00,1.31
7387.00,1.31
7386.00,1.31
7385.00,1.31
7384.00,1.31
7383.00,1.31
7382.00,1.31
7381.00,1.31
7380.00,1.31
7379.00,1.31
7378.00,1.31
7377.00,1.30
7376.00,1.30
7375.00,1.30
7374.00,1.30
7373.00,1.30
7372.00,1.30
7371.00,1.30
7370.00,1.30
7369.00,1.30
7368.00,1.30
7367.00,1.30
7366.00,1.30
7365.00,1.30
7364.00,1.30
7363.00,1.30
7362.00,1.30
7361.00,1.30
7360.00,1.30
7359.00,1.30
7358.00,1.30
7357.00,1.30
7356.00,1.30
7355.00,1.30
7354.00,1.30
7353.00,1.30
7352.00,1.30
7351.00,1.30
7350.00,1.30
7349.00,1.30
7348.00,1.30
7347.00,1.30
7346.00,1.29
7345.00,1.29
7344.00,1.29
7343.00,1.29
7342.00,1.29
7341.00,1.29
7340.00,1.29
7339.00,1.30
7338.00,1.30
7337.00,1.30
7336.00,1.30
7335.00,1.30
7334.00,1.30
7333.00,1.30
7332.00,1.30
7331.00,1.30
7330.00,1.30
7329.00,1.30
7328.00,1.30
7327.00,1.30
7326.00,1.30
7325.00,1.29
7324.00,1.29
7323.00,1.29
7322.00,1.29
7321.00,1.29
7320.00,1.29
7319.00,1.29
7318.00,1.29
7317.00,1.29
7316.00,1.29
7315.00,1.29
7314.00,1.29
7313.00,1.29
7312.00,1.29
7311.00,1.29
7310.00,1.29
7309.00,1.29
7308.00,1.29
7307.00,1.29
7306.00,1.29
7305.00,1.28
7304.00,1.28
7303.00,1.28
7302.00,1.28
7301.00,1.28
7300.00,1.28
7299.00,1.28
7298.00,1.28
7297.00,1.28
7296.00,1.28
7295.00,1.28
7294.00,1.28
7293.00,1.28
7292.00,1.28
7291.00,1.29
7290.00,1.29
7289.00,1.29
7288.00,1.29
7287.00,1.29
7286.00,1.29
7285.00,1.29
7284.00,1.29
7283.00,1.29
7282.00,1.29
7281.00,1.29
7280.00,1.28
7279.00,1.28
7278.00,1.28
7277.00,1.28
7276.00,1.28
7275.00,1.28
7274.00,1.28
7273.00,1.28
7272.00,1.28
7271.00,1.27
7270.00,1.27
7269.00,1.27
7268.00,1.27
7267.00,1.27
7266.00,1.27
7265.00,1.27
7264.00,1.26
7263.00,1.26
7262.00,1.26
7261.00,1.26
7260.00,1.26
7259.00,1.26
7258.00,1.26
7257.00,1.26
7256.00,1.25
7255.00,1.25
7254.00,1.25
7253.00,1.25
7252.00,1.25
7251.00,1.25
7250.00,1.25
7249.00,1.25
7248.00,1.25
7247.00,1.25
7246.00,1.25
7245.00,1.25
7244.00,1.24
7243.00,1.24
7242.00,1.24
7241.00,1.24
7240.00,1.24
7239.00,1.24
7238.00,1.23
7237.00,1.23
7236.00,1.23
7235.00,1.23
7234.00,1.23
7233.00,1.23
7232.00,1.22
7231.00,1.22
7230.00,1.22
7229.00,1.22
7228.00,1.22
7227.00,1.21
7226.00,1.21
7225.00,1.21
7224.00,1.21
7223.00,1.21
7222.00,1.20
7221.00,1.20
7220.00,1.20
7219.00,1.20
7218.00,1.20
7217.00,1.19
7216.00,1.19
7215.00,1.19
7214.00,1.19
7213.00,1.19
7212.00,1.18
7211.00,1.18
7210.00,1.18
7209.00,1.18
7208.00,1.17
7207.00,1.17
7206.00,1.17
7205.00,1.17
7204.00,1.16
7203.00,1.16
7202.00,1.16
7201.00,1.16
7200.00,1.15
7199.00,1.15
7198.00,1.15
7197.00,1.14
7196.00,1.14
7195.00,1.14
7194.00,1.14
7193.00,1.14
7192.00,1.13
7191.00,1.13
7190.00,1.13
7189.00,1.13
7188.00,1.13
7187.00,1.12
7186.00,1.12
7185.00,1.12
7184.00,1.12
7183.00,1.12
7182.00,1.11
7181.00,1.11
7180.00,1.11
7179.00,1.11
7178.00,1.11
7177.00,1.11
7176.00,1.10
7175.00,1.10
7174.00,1.10
7173.00,1.10
7172.00,1.10
7171.00,1.10
7170.00,1.09
7169.00,1.09
7168.00,1.09
7167.00,1.09
7166.00,1.09
7165.00,1.08
7164.00,1.08
7163.00,1.08
7162.00,1.08
7161.00,1.07
7160.00,1.07
7159.00,1.07
7158.00,1.07
7157.00,1.07
7156.00,1.07
7155.00,1.06
7154.00,1.06
7153.00,1.06
7152.00,1.06
7151.00,1.06
7150.00,1.06
7149.00,1.05
7148.00,1.05
7147.00,1.05
7146.00,1.05
7145.00,1.05
7144.00,1.05
7143.00,1.04
7142.00,1.04
7141.00,1.04
7140.00,1.04
7139.00,1.04
7138.00,1.04
7137.00,1.03
7136.00,1.03
7135.00,1.03
7134.00,1.03
7133.00,1.03
7132.00,1.03
7131.00,1.02
7130.00,1.02
7129.00,1.02
7128.00,1.02
7127.00,1.01
7126.00,1.01
7125.00,1.01
7124.00,1.01
7123.00,1.00
7122.00,1.00
7121.00,1.00
7120.00,1.00
7119.00,0.99
7118.00,0.99
7117.00,0.99
7116.00,0.99
7115.00,0.99
7114.00,0.98
7113.00,0.98
7112.00,0.98
7111.00,0.98
7110.00,0.98
7109.00,0.98
7108.00,0.97
7107.00,0.97
7106.00,0.97
7105.00,0.97
7104.00,0.97
7103.00,0.97
7102.00,0.97
7101.00,0.97
7100.00,0.96
7099.00,0.96
7098.00,0.96
7097.00,0.96
7096.00,0.96
7095.00,0.95
7094.00,0.95
7093.00,0.95
7092.00,0.95
7091.00,0.95
7090.00,0.94
7089.00,0.94
7088.00,0.94
7087.00,0.94
7086.00,0.94
7085.00,0.94
7084.00,0.93
7083.00,0.93
7082.00,0.93
7081.00,0.93
7080.00,0.93
7079.00,0.93
7078.00,0.93
7077.00,0.93
7076.00,0.93
7075.00,0.92
7074.00,0.92
7073.00,0.92
7072.00,0.92
7071.00,0.92
7070.00,0.92
7069.00,0.92
7068.00,0.92
7067.00,0.91
7066.00,0.91
7065.00,0.91
7064.00,0.91
7063.00,0.91
7062.00,0.91
7061.00,0.91
7060.00,0.90
7059.00,0.90
7058.00,0.90
7057.00,0.90
7056.00,0.90
7055.00,0.90
7054.00,0.90
7053.00,0.90
7052.00,0.90
7051.00,0.90
7050.00,0.89
7049.00,0.89
7048.00,0.89
7047.00,0.89
7046.00,0.89
7045.00,0.89
7044.00,0.89
7043.00,0.89
7042.00,0.89
7041.00,0.89
7040.00,0.88
7039.00,0.88
7038.00,0.88
7037.00,0.88
7036.00,0.88
7035.00,0.88
7034.00,0.88
7033.00,0.87
7032.00,0.87
7031.00,0.87
7030.00,0.87
7029.00,0.87
7028.00,0.87
7027.00,0.87
7026.00,0.86
7025.00,0.86
7024.00,0.86
7023.00,0.86
7022.00,0.86
7021.00,0.86
7020.00,0.86
7019.00,0.86
7018.00,0.86
7017.00,0.86
7016.00,0.86
7015.00,0.86
7014.00,0.86
7013.00,0.86
7012.00,0.86
7011.00,0.85
7010.00,0.85
7009.00,0.85
7008.00,0.85
7007.00,0.85
7006.00,0.85
7005.00,0.85
7004.00,0.85
7003.00,0.85
7002.00,0.85
7001.00,0.85
7000.00,0.85
6999.00,0.85
6998.00,0.85
6997.00,0.85
6996.00,0.85
6995.00,0.85
6994.00,0.85
6993.00,0.85
6992.00,0.84
6991.00,0.84
6990.00,0.84
6989.00,0.84
6988.00,0.84
6987.00,0.84
6986.00,0.84
6985.00,0.84
6984.00,0.84
6983.00,0.84
6982.00,0.84
6981.00,0.84
6980.00,0.84
6979.00,0.84
6978.00,0.83
6977.00,0.83
6976.00,0.83
6975.00,0.83
6974.00,0.83
6973.00,0.83
6972.00,0.83
6971.00,0.83
6970.00,0.83
6969.00,0.83
6968.00,0.83
6967.00,0.83
6966.00,0.83
6965.00,0.83
6964.00,0.83
6963.00,0.83
6962.00,0.83
6961.00,0.83
6960.00,0.83
6959.00,0.83
6958.00,0.83
6957.00,0.83
6956.00,0.83
6955.00,0.83
6954.00,0.83
6953.00,0.83
6952.00,0.83
6951.00,0.82
6950.00,0.82
6949.00,0.82
6948.00,0.82
6947.00,0.82
6946.00,0.82
6945.00,0.82
6944.00,0.82
6943.00,0.82
6942.00,0.82
6941.00,0.82
6940.00,0.82
6939.00,0.82
6938.00,0.82
6937.00,0.82
6936.00,0.82
6935.00,0.82
6934.00,0.81
6933.00,0.81
6932.00,0.81
6931.00,0.81
6930.00,0.81
6929.00,0.81
6928.00,0.81
6927.00,0.81
6926.00,0.81
6925.00,0.81
6924.00,0.81
6923.00,0.81
6922.00,0.81
6921.00,0.81
6920.00,0.81
6919.00,0.81
6918.00,0.81
6917.00,0.81
6916.00,0.81
6915.00,0.81
6914.00,0.81
6913.00,0.81
6912.00,0.81
6911.00,0.81
6910.00,0.81
6909.00,0.81
6908.00,0.81
6907.00,0.81
6906.00,0.81
6905.00,0.81
6904.00,0.80
6903.00,0.80
6902.00,0.80
6901.00,0.80
6900.00,0.80
6899.00,0.80
6898.00,0.80
6897.00,0.80
6896.00,0.80
6895.00,0.80
6894.00,0.80
6893.00,0.80
6892.00,0.80
6891.00,0.80
6890.00,0.80
6889.00,0.80
6888.00,0.80
6887.00,0.80
6886.00,0.80
6885.00,0.80
6884.00,0.80
6883.00,0.80
6882.00,0.80
6881.00,0.80
6880.00,0.80
6879.00,0.80
6878.00,0.79
6877.00,0.79
6876.00,0.79
6875.00,0.79
6874.00,0.79
6873.00,0.79
6872.00,0.79
6871.00,0.79
6870.00,0.79
6869.00,0.79
6868.00,0.80
6867.00,0.80
6866.00,0.80
6865.00,0.80
6864.00,0.80
6863.00,0.80
6862.00,0.80
6861.00,0.80
6860.00,0.80
6859.00,0.80
6858.00,0.80
6857.00,0.80
6856.00,0.80
6855.00,0.80
6854.00,0.80
6853.00,0.80
6852.00,0.80
6851.00,0.80
6850.00,0.80
6849.00,0.80
6848.00,0.80
6847.00,0.80
6846.00,0.80
6845.00,0.80
6844.00,0.80
6843.00,0.80
6842.00,0.80
6841.00,0.80
6840.00,0.80
6839.00,0.80
6838.00,0.80
6837.00,0.80
6836.00,0.80
6835.00,0.80
6834.00,0.80
6833.00,0.80
6832.00,0.80
6831.00,0.80
6830.00,0.80
6829.00,0.80
6828.00,0.80
6827.00,0.80
6826.00,0.80
6825.00,0.80
6824.00,0.80
6823.00,0.80
6822.00,0.81
6821.00,0.81
6820.00,0.81
6819.00,0.81
6818.00,0.81
6817.00,0.81
6816.00,0.81
6815.00,0.81
6814.00,0.81
6813.00,0.81
6812.00,0.81
6811.00,0.81
6810.00,0.82
6809.00,0.82
6808.00,0.82
6807.00,0.82
6806.00,0.82
6805.00,0.82
6804.00,0.82
6803.00,0.82
6802.00,0.82
6801.00,0.82
6800.00,0.82
6799.00,0.82
6798.00,0.82
6797.00,0.82
6796.00,0.82
6795.00,0.82
6794.00,0.82
6793.00,0.82
6792.00,0.82
6791.00,0.82
6790.00,0.82
6789.00,0.82
6788.00,0.82
6787.00,0.82
6786.00,0.83
6785.00,0.83
6784.00,0.83
6783.00,0.83
6782.00,0.83
6781.00,0.83
6780.00,0.83
6779.00,0.83
6778.00,0.83
6777.00,0.83
6776.00,0.83
6775.00,0.83
6774.00,0.83
6773.00,0.83
6772.00,0.84
6771.00,0.84
6770.00,0.84
6769.00,0.84
6768.00,0.84
6767.00,0.84
6766.00,0.84
6765.00,0.84
6764.00,0.84
6763.00,0.84
6762.00,0.84
6761.00,0.84
6760.00,0.84
6759.00,0.84
6758.00,0.84
6757.00,0.84
6756.00,0.84
6755.00,0.84
6754.00,0.85
6753.00,0.85
6752.00,0.85
6751.00,0.85
6750.00,0.85
6749.00,0.85
6748.00,0.85
6747.00,0.85
6746.00,0.85
6745.00,0.85
6744.00,0.85
6743.00,0.85
6742.00,0.85
6741.00,0.86
6740.00,0.86
6739.00,0.86
6738.00,0.86
6737.00,0.86
6736.00,0.86
6735.00,0.86
6734.00,0.86
6733.00,0.86
6732.00,0.86
6731.00,0.86
6730.00,0.86
6729.00,0.86
6728.00,0.86
6727.00,0.87
6726.00,0.87
6725.00,0.87
6724.00,0.87
6723.00,0.87
6722.00,0.87
6721.00,0.87
6720.00,0.87
6719.00,0.87
6718.00,0.87
6717.00,0.87
6716.00,0.87
6715.00,0.87
6714.00,0.87
6713.00,0.87
6712.00,0.87
6711.00,0.87
6710.00,0.88
6709.00,0.88
6708.00,0.88
6707.00,0.88
6706.00,0.88
6705.00,0.88
6704.00,0.88
6703.00,0.88
6702.00,0.88
6701.00,0.88
6700.00,0.89
6699.00,0.89
6698.00,0.89
6697.00,0.89
6696.00,0.89
6695.00,0.89
6694.00,0.89
6693.00,0.89
6692.00,0.89
6691.00,0.89
6690.00,0.89
6689.00,0.89
6688.00,0.90
6687.00,0.90
6686.00,0.90
6685.00,0.90
6684.00,0.90
6683.00,0.90
6682.00,0.90
6681.00,0.90
6680.00,0.91
6679.00,0.91
6678.00,0.91
6677.00,0.91
6676.00,0.91
6675.00,0.91
6674.00,0.91
6673.00,0.92
6672.00,0.92
6671.00,0.92
6670.00,0.92
6669.00,0.92
6668.00,0.92
6667.00,0.92
6666.00,0.92
6665.00,0.92
6664.00,0.92
6663.00,0.92
6662.00,0.92
6661.00,0.92
6660.00,0.92
6659.00,0.93
6658.00,0.93
6657.00,0.93
6656.00,0.93
6655.00,0.93
6654.00,0.93
6653.00,0.93
6652.00,0.93
6651.00,0.93
6650.00,0.93
6649.00,0.94
6648.00,0.94
6647.00,0.94
6646.00,0.94
6645.00,0.94
6644.00,0.94
6643.00,0.94
6642.00,0.94
6641.00,0.94
6640.00,0.94
6639.00,0.95
6638.00,0.95
6637.00,0.95
6636.00,0.95
6635.00,0.95
6634.00,0.95
6633.00,0.95
6632.00,0.95
6631.00,0.95
6630.00,0.95
6629.00,0.95
6628.00,0.95
6627.00,0.95
6626.00,0.95
6625.00,0.96
6624.00,0.96
6623.00,0.96
6622.00,0.96
6621.00,0.96
6620.00,0.96
6619.00,0.96
6618.00,0.96
6617.00,0.96
6616.00,0.97
6615.00,0.97
6614.00,0.97
6613.00,0.97
6612.00,0.97
6611.00,0.97
6610.00,0.97
6609.00,0.97
6608.00,0.97
6607.00,0.97
6606.00,0.97
6605.00,0.97
6604.00,0.97
6603.00,0.97
6602.00,0.97
6601.00,0.97
6600.00,0.98
6599.00,0.98
6598.00,0.98
6597.00,0.98
6596.00,0.98
6595.00,0.98
6594.00,0.98
6593.00,0.98
6592.00,0.98
6591.00,0.98
6590.00,0.98
6589.00,0.98
6588.00,0.98
6587.00,0.99
6586.00,0.99
6585.00,0.99
6584.00,0.99
6583.00,0.99
6582.00,0.99
6581.00,0.99
6580.00,0.99
6579.00,0.99
6578.00,1.00
6577.00,1.00
6576.00,1.00
6575.00,1.00
6574.00,1.00
6573.00,1.00
6572.00,1.00
6571.00,1.00
6570.00,1.00
6569.00,1.00
6568.00,1.00
6567.00,1.00
6566.00,1.00
6565.00,1.00
6564.00,1.00
6563.00,1.00
6562.00,1.01
6561.00,1.01
6560.00,1.01
6559.00,1.01
6558.00,1.01
6557.00,1.01
6556.00,1.01
6555.00,1.01
6554.00,1.01
6553.00,1.01
6552.00,1.01
6551.00,1.01
6550.00,1.01
6549.00,1.01
6548.00,1.02
6547.00,1.02
6546.00,1.02
6545.00,1.02
6544.00,1.02
6543.00,1.02
6542.00,1.02
6541.00,1.02
6540.00,1.02
6539.00,1.02
6538.00,1.02
6537.00,1.02
6536.00,1.02
6535.00,1.02
6534.00,1.03
6533.00,1.03
6532.00,1.03
6531.00,1.03
6530.00,1.03
6529.00,1.03
6528.00,1.03
6527.00,1.03
6526.00,1.03
6525.00,1.04
6524.00,1.04
6523.00,1.04
6522.00,1.04
6521.00,1.04
6520.00,1.04
6519.00,1.04
6518.00,1.04
6517.00,1.04
6516.00,1.04
6515.00,1.04
6514.00,1.04
6513.00,1.04
6512.00,1.04
6511.00,1.05
6510.00,1.05
6509.00,1.05
6508.00,1.05
6507.00,1.05
6506.00,1.05
6505.00,1.05
6504.00,1.05
6503.00,1.05
6502.00,1.05
6501.00,1.05
6500.00,1.05
6499.00,1.05
6498.00,1.05
6497.00,1.05
6496.00,1.05
6495.00,1.05
6494.00,1.05
6493.00,1.05
6492.00,1.05
6491.00,1.05
6490.00,1.05
6489.00,1.05
6488.00,1.05
6487.00,1.05
6486.00,1.05
6485.00,1.05
6484.00,1.05
6483.00,1.05
6482.00,1.05
6481.00,1.05
6480.00,1.05
6479.00,1.06
6478.00,1.06
6477.00,1.06
6476.00,1.06
6475.00,1.06
6474.00,1.06
6473.00,1.06
6472.00,1.06
6471.00,1.06
6470.00,1.06
6469.00,1.06
6468.00,1.06
6467.00,1.06
6466.00,1.06
6465.00,1.06
6464.00,1.06
6463.00,1.06
6462.00,1.06
6461.00,1.06
6460.00,1.06
6459.00,1.06
6458.00,1.07
6457.00,1.07
6456.00,1.07
6455.00,1.07
6454.00,1.07
6453.00,1.07
6452.00,1.07
6451.00,1.07
6450.00,1.07
6449.00,1.07
6448.00,1.07
6447.00,1.07
6446.00,1.07
6445.00,1.07
6444.00,1.07
6443.00,1.08
6442.00,1.08
6441.00,1.08
6440.00,1.08
6439.00,1.08
6438.00,1.08
6437.00,1.08
6436.00,1.08
6435.00,1.08
6434.00,1.08
6433.00,1.08
6432.00,1.08
6431.00,1.08
6430.00,1.08
6429.00,1.08
6428.00,1.08
6427.00,1.08
6426.00,1.08
6425.00,1.08
6424.00,1.08
6423.00,1.08
6422.00,1.08
6421.00,1.08
6420.00,1.08
6419.00,1.08
6418.00,1.08
6417.00,1.08
6416.00,1.08
6415.00,1.08
6414.00,1.08
6413.00,1.09
6412.00,1.09
6411.00,1.09
6410.00,1.09
6409.00,1.09
6408.00,1.09
6407.00,1.09
6406.00,1.09
6405.00,1.09
6404.00,1.09
6403.00,1.09
6402.00,1.09
6401.00,1.09
6400.00,1.09
6399.00,1.09
6398.00,1.10
6397.00,1.10
6396.00,1.10
6395.00,1.10
6394.00,1.10
6393.00,1.10
6392.00,1.10
6391.00,1.10
6390.00,1.10
6389.00,1.10
6388.00,1.10
6387.00,1.10
6386.00,1.10
6385.00,1.10
6384.00,1.10
6383.00,1.10
6382.00,1.10
6381.00,1.10
6380.00,1.10
6379.00,1.10
6378.00,1.11
6377.00,1.11
6376.00,1.11
6375.00,1.11
6374.00,1.11
6373.00,1.11
6372.00,1.11
6371.00,1.11
6370.00,1.11
6369.00,1.11
6368.00,1.11
6367.00,1.11
6366.00,1.11
6365.00,1.11
6364.00,1.11
6363.00,1.11
6362.00,1.11
6361.00,1.11
6360.00,1.11
6359.00,1.11
6358.00,1.11
6357.00,1.11
6356.00,1.12
6355.00,1.12
6354.00,1.12
6353.00,1.12
6352.00,1.12
6351.00,1.12
6350.00,1.12
6349.00,1.12
6348.00,1.12
6347.00,1.12
6346.00,1.12
6345.00,1.12
6344.00,1.12
6343.00,1.12
6342.00,1.12
6341.00,1.12
6340.00,1.12
6339.00,1.12
6338.00,1.12
6337.00,1.12
6336.00,1.13
6335.00,1.13
6334.00,1.13
6333.00,1.13
6332.00,1.13
6331.00,1.13
6330.00,1.13
6329.00,1.13
6328.00,1.13
6327.00,1.13
6326.00,1.13
6325.00,1.13
6324.00,1.13
6323.00,1.13
6322.00,1.13
6321.00,1.14
6320.00,1.14
6319.00,1.14
6318.00,1.14
6317.00,1.14
6316.00,1.14
6315.00,1.14
6314.00,1.14
6313.00,1.14
6312.00,1.14
6311.00,1.14
6310.00,1.14
6309.00,1.14
6308.00,1.15
6307.00,1.15
6306.00,1.15
6305.00,1.15
6304.00,1.15
6303.00,1.15
6302.00,1.15
6301.00,1.15
6300.00,1.15
6299.00,1.15
6298.00,1.15
6297.00,1.15
6296.00,1.15
6295.00,1.15
6294.00,1.15
6293.00,1.15
6292.00,1.16
6291.00,1.16
6290.00,1.16
6289.00,1.16
6288.00,1.16
6287.00,1.16
6286.00,1.16
6285.00,1.16
6284.00,1.16
6283.00,1.16
6282.00,1.17
6281.00,1.17
6280.00,1.17
6279.00,1.17
6278.00,1.17
6277.00,1.17
6276.00,1.17
6275.00,1.17
6274.00,1.17
6273.00,1.17
6272.00,1.17
6271.00,1.17
6270.00,1.17
6269.00,1.18
6268.00,1.18
6267.00,1.18
6266.00,1.18
6265.00,1.18
6264.00,1.18
6263.00,1.18
6262.00,1.18
6261.00,1.18
6260.00,1.18
6259.00,1.18
6258.00,1.18
6257.00,1.18
6256.00,1.18
6255.00,1.18
6254.00,1.18
6253.00,1.18
6252.00,1.18
6251.00,1.19
6250.00,1.19
6249.00,1.19
6248.00,1.19
6247.00,1.19
6246.00,1.19
6245.00,1.19
6244.00,1.19
6243.00,1.19
6242.00,1.19
6241.00,1.19
6240.00,1.20
6239.00,1.20
6238.00,1.20
6237.00,1.20
6236.00,1.20
6235.00,1.20
6234.00,1.20
6233.00,1.20
6232.00,1.20
6231.00,1.20
6230.00,1.20
6229.00,1.20
6228.00,1.20
6227.00,1.21
6226.00,1.21
6225.00,1.21
6224.00,1.21
6223.00,1.21
6222.00,1.21
6221.00,1.21
6220.00,1.21
6219.00,1.21
6218.00,1.22
6217.00,1.22
6216.00,1.22
6215.00,1.22
6214.00,1.22
6213.00,1.22
6212.00,1.22
6211.00,1.22
6210.00,1.22
6209.00,1.22
6208.00,1.22
6207.00,1.22
6206.00,1.22
6205.00,1.22
6204.00,1.22
6203.00,1.23
6202.00,1.23
6201.00,1.23
6200.00,1.23
6199.00,1.23
6198.00,1.23
6197.00,1.23
6196.00,1.23
6195.00,1.23
6194.00,1.23
6193.00,1.23
6192.00,1.23
6191.00,1.23
6190.00,1.23
6189.00,1.23
6188.00,1.24
6187.00,1.24
6186.00,1.24
6185.00,1.24
6184.00,1.24
6183.00,1.24
6182.00,1.24
6181.00,1.24
6180.00,1.24
6179.00,1.24
6178.00,1.24
6177.00,1.24
6176.00,1.25
6175.00,1.25
6174.00,1.25
6173.00,1.25
6172.00,1.25
6171.00,1.25
6170.00,1.25
6169.00,1.25
6168.00,1.25
6167.00,1.25
6166.00,1.25
6165.00,1.25
6164.00,1.26
6163.00,1.26
6162.00,1.26
6161.00,1.26
6160.00,1.26
6159.00,1.26
6158.00,1.26
6157.00,1.26
6156.00,1.26
6155.00,1.26
6154.00,1.26
6153.00,1.27
6152.00,1.27
6151.00,1.27
6150.00,1.27
6149.00,1.27
6148.00,1.27
6147.00,1.27
6146.00,1.27
6145.00,1.27
6144.00,1.27
6143.00,1.27
6142.00,1.28
6141.00,1.28
6140.00,1.28
6139.00,1.28
6138.00,1.28
6137.00,1.28
6136.00,1.28
6135.00,1.28
6134.00,1.28
6133.00,1.28
6132.00,1.28
6131.00,1.28
6130.00,1.28
6129.00,1.28
6128.00,1.28
6127.00,1.28
6126.00,1.28
6125.00,1.29
6124.00,1.29
6123.00,1.29
6122.00,1.29
6121.00,1.29
6120.00,1.29
6119.00,1.29
6118.00,1.29
6117.00,1.29
6116.00,1.29
6115.00,1.30
6114.00,1.30
6113.00,1.30
6112.00,1.30
6111.00,1.30
6110.00,1.30
6109.00,1.30
6108.00,1.30
6107.00,1.30
6106.00,1.30
6105.00,1.30
6104.00,1.30
6103.00,1.31
6102.00,1.31
6101.00,1.31
6100.00,1.31
6099.00,1.31
6098.00,1.31
6097.00,1.31
6096.00,1.31
6095.00,1.31
6094.00,1.31
6093.00,1.31
6092.00,1.31
6091.00,1.31
6090.00,1.31
6089.00,1.31
6088.00,1.31
6087.00,1.32
6086.00,1.32
6085.00,1.32
6084.00,1.32
6083.00,1.32
6082.00,1.32
6081.00,1.32
6080.00,1.32
6079.00,1.32
6078.00,1.32
6077.00,1.32
6076.00,1.32
6075.00,1.32
6074.00,1.32
6073.00,1.33
6072.00,1.33
6071.00,1.33
6070.00,1.33
6069.00,1.33
6068.00,1.33
6067.00,1.33
6066.00,1.33
6065.00,1.33
6064.00,1.33
6063.00,1.33
6062.00,1.33
6061.00,1.33
6060.00,1.33
6059.00,1.33
6058.00,1.33
6057.00,1.33
6056.00,1.33
6055.00,1.33
6054.00,1.33
6053.00,1.33
6052.00,1.33
6051.00,1.33
6050.00,1.33
6049.00,1.33
6048.00,1.33
6047.00,1.33
6046.00,1.33
6045.00,1.33
6044.00,1.34
6043.00,1.34
6042.00,1.34
6041.00,1.34
6040.00,1.34
6039.00,1.34
6038.00,1.34
6037.00,1.34
6036.00,1.34
6035.00,1.34
6034.00,1.34
6033.00,1.34
6032.00,1.34
6031.00,1.34
6030.00,1.34
6029.00,1.34
6028.00,1.34
6027.00,1.34
6026.00,1.34
6025.00,1.34
6024.00,1.34
6023.00,1.34
6022.00,1.34
6021.00,1.34
6020.00,1.34
6019.00,1.34
6018.00,1.34
6017.00,1.34
6016.00,1.34
6015.00,1.34
6014.00,1.34
6013.00,1.34
6012.00,1.34
6011.00,1.34
6010.00,1.34
6009.00,1.34
6008.00,1.34
6007.00,1.34
6006.00,1.34
6005.00,1.34
6004.00,1.34
6003.00,1.34
6002.00,1.34
6001.00,1.34
6000.00,1.34
5999.00,1.34
5998.00,1.34
5997.00,1.34
5996.00,1.34
5995.00,1.34
5994.00,1.34
5993.00,1.34
5992.00,1.34
5991.00,1.33
5990.00,1.33
5989.00,1.33
5988.00,1.33
5987.00,1.33
5986.00,1.33
5985.00,1.33
5984.00,1.33
5983.00,1.32
5982.00,1.32
5981.00,1.32
5980.00,1.32
5979.00,1.32
5978.00,1.32
5977.00,1.31
5976.00,1.31
5975.00,1.31
5974.00,1.31
5973.00,1.30
5972.00,1.30
5971.00,1.30
5970.00,1.30
5969.00,1.29
5968.00,1.29
5967.00,1.29
5966.00,1.28
5965.00,1.28
5964.00,1.27
5963.00,1.27
5962.00,1.27
5961.00,1.26
5960.00,1.26
5959.00,1.25
5958.00,1.25
5957.00,1.24
5956.00,1.24
5955.00,1.24
5954.00,1.23
5953.00,1.23
5952.00,1.22
5951.00,1.22
5950.00,1.22
5949.00,1.21
5948.00,1.21
5947.00,1.21
5946.00,1.21
5945.00,1.20
5944.00,1.20
5943.00,1.20
5942.00,1.20
5941.00,1.20
5940.00,1.20
5939.00,1.20
5938.00,1.19
5937.00,1.19
5936.00,1.19
5935.00,1.19
5934.00,1.19
5933.00,1.19
5932.00,1.19
5931.00,1.19
5930.00,1.19
5929.00,1.19
5928.00,1.19
5927.00,1.19
5926.00,1.18
5925.00,1.18
5924.00,1.18
5923.00,1.18
5922.00,1.18
5921.00,1.18
5920.00,1.18
5919.00,1.17
5918.00,1.17
5917.00,1.17
5916.00,1.17
5915.00,1.17
5914.00,1.17
5913.00,1.16
5912.00,1.16
5911.00,1.16
5910.00,1.16
5909.00,1.16
5908.00,1.16
5907.00,1.16
5906.00,1.16
5905.00,1.15
5904.00,1.15
5903.00,1.15
5902.00,1.15
5901.00,1.15
5900.00,1.15
5899.00,1.15
5898.00,1.16
5897.00,1.16
5896.00,1.16
5895.00,1.16
5894.00,1.16
5893.00,1.16
5892.00,1.16
5891.00,1.16
5890.00,1.17
5889.00,1.17
5888.00,1.17
5887.00,1.17
5886.00,1.17
5885.00,1.17
5884.00,1.17
5883.00,1.18
5882.00,1.18
5881.00,1.18
5880.00,1.18
5879.00,1.18
5878.00,1.18
5877.00,1.19
5876.00,1.19
5875.00,1.19
5874.00,1.19
5873.00,1.19
5872.00,1.19
5871.00,1.19
5870.00,1.19
5869.00,1.19
5868.00,1.20
5867.00,1.20
5866.00,1.20
5865.00,1.20
5864.00,1.20
5863.00,1.20
5862.00,1.20
5861.00,1.20
5860.00,1.20
5859.00,1.20
5858.00,1.20
5857.00,1.20
5856.00,1.21
5855.00,1.21
5854.00,1.21
5853.00,1.21
5852.00,1.21
5851.00,1.21
5850.00,1.21
5849.00,1.21
5848.00,1.21
5847.00,1.21
5846.00,1.21
5845.00,1.21
5844.00,1.22
5843.00,1.22
5842.00,1.22
5841.00,1.22
5840.00,1.22
5839.00,1.22
5838.00,1.22
5837.00,1.22
5836.00,1.22
5835.00,1.22
5834.00,1.22
5833.00,1.22
5832.00,1.22
5831.00,1.22
5830.00,1.22
5829.00,1.22
5828.00,1.22
5827.00,1.22
5826.00,1.22
5825.00,1.22
5824.00,1.22
5823.00,1.22
5822.00,1.22
5821.00,1.22
5820.00,1.22
5819.00,1.22
5818.00,1.22
5817.00,1.21
5816.00,1.21
5815.00,1.21
5814.00,1.21
5813.00,1.21
5812.00,1.21
5811.00,1.21
5810.00,1.21
5809.00,1.21
5808.00,1.21
5807.00,1.21
5806.00,1.21
5805.00,1.21
5804.00,1.21
5803.00,1.21
5802.00,1.21
5801.00,1.21
5800.00,1.21
5799.00,1.21
5798.00,1.20
5797.00,1.20
5796.00,1.20
5795.00,1.20
5794.00,1.20
5793.00,1.20
5792.00,1.20
5791.00,1.20
5790.00,1.19
5789.00,1.19
5788.00,1.19
5787.00,1.19
5786.00,1.19
5785.00,1.19
5784.00,1.19
5783.00,1.18
5782.00,1.18
5781.00,1.18
5780.00,1.18
5779.00,1.18
5778.00,1.18
5777.00,1.18
5776.00,1.18
5775.00,1.18
5774.00,1.18
5773.00,1.18
5772.00,1.18
5771.00,1.18
5770.00,1.18
5769.00,1.18
5768.00,1.18
5767.00,1.18
5766.00,1.18
5765.00,1.18
5764.00,1.19
5763.00,1.19
5762.00,1.19
5761.00,1.19
5760.00,1.19
5759.00,1.19
5758.00,1.20
5757.00,1.20
5756.00,1.20
5755.00,1.20
5754.00,1.21
5753.00,1.21
5752.00,1.21
5751.00,1.21
5750.00,1.22
5749.00,1.22
5748.00,1.22
5747.00,1.22
5746.00,1.22
5745.00,1.23
5744.00,1.23
5743.00,1.23
5742.00,1.23
5741.00,1.23
5740.00,1.23
5739.00,1.23
5738.00,1.23
5737.00,1.24
5736.00,1.24
5735.00,1.24
5734.00,1.24
5733.00,1.24
5732.00,1.24
5731.00,1.24
5730.00,1.24
5729.00,1.24
5728.00,1.24
5727.00,1.24
5726.00,1.24
5725.00,1.24
5724.00,1.24
5723.00,1.24
5722.00,1.24
5721.00,1.24
5720.00,1.24
5719.00,1.24
5718.00,1.24
5717.00,1.24
5716.00,1.24
5715.00,1.24
5714.00,1.24
5713.00,1.24
5712.00,1.24
5711.00,1.24
5710.00,1.24
5709.00,1.24
5708.00,1.24
5707.00,1.24
5706.00,1.24
5705.00,1.24
5704.00,1.24
5703.00,1.24
5702.00,1.24
5701.00,1.24
5700.00,1.24
5699.00,1.24
5698.00,1.24
5697.00,1.24
5696.00,1.24
5695.00,1.24
5694.00,1.24
5693.00,1.24
5692.00,1.23
5691.00,1.23
5690.00,1.23
5689.00,1.23
5688.00,1.23
5687.00,1.23
5686.00,1.23
5685.00,1.23
5684.00,1.23
5683.00,1.23
5682.00,1.23
5681.00,1.22
5680.00,1.22
5679.00,1.22
5678.00,1.22
5677.00,1.22
5676.00,1.22
5675.00,1.22
5674.00,1.22
5673.00,1.22
5672.00,1.22
5671.00,1.22
5670.00,1.22
5669.00,1.22
5668.00,1.22
5667.00,1.22
5666.00,1.22
5665.00,1.22
5664.00,1.22
5663.00,1.22
5662.00,1.22
5661.00,1.22
5660.00,1.23
5659.00,1.23
5658.00,1.23
5657.00,1.23
5656.00,1.23
5655.00,1.23
5654.00,1.23
5653.00,1.23
5652.00,1.23
5651.00,1.24
5650.00,1.24
5649.00,1.24
5648.00,1.24
5647.00,1.24
5646.00,1.24
5645.00,1.24
5644.00,1.24
5643.00,1.24
5642.00,1.24
5641.00,1.25
5640.00,1.25
5639.00,1.25
5638.00,1.25
5637.00,1.25
5636.00,1.25
5635.00,1.25
5634.00,1.25
5633.00,1.25
5632.00,1.26
5631.00,1.26
5630.00,1.26
5629.00,1.26
5628.00,1.26
5627.00,1.26
5626.00,1.26
5625.00,1.26
5624.00,1.26
5623.00,1.26
5622.00,1.26
5621.00,1.27
5620.00,1.27
5619.00,1.27
5618.00,1.27
5617.00,1.27
5616.00,1.27
5615.00,1.27
5614.00,1.27
5613.00,1.27
5612.00,1.27
5611.00,1.27
5610.00,1.27
5609.00,1.28
5608.00,1.28
5607.00,1.28
5606.00,1.28
5605.00,1.28
5604.00,1.28
5603.00,1.28
5602.00,1.28
5601.00,1.28
5600.00,1.28
5599.00,1.28
5598.00,1.29
5597.00,1.29
5596.00,1.29
5595.00,1.29
5594.00,1.29
5593.00,1.29
5592.00,1.29
5591.00,1.29
5590.00,1.29
5589.00,1.29
5588.00,1.29
5587.00,1.29
5586.00,1.29
5585.00,1.29
5584.00,1.30
5583.00,1.30
5582.00,1.30
5581.00,1.30
5580.00,1.30
5579.00,1.30
5578.00,1.30
5577.00,1.30
5576.00,1.30
5575.00,1.30
5574.00,1.30
5573.00,1.30
5572.00,1.30
5571.00,1.31
5570.00,1.31
5569.00,1.31
5568.00,1.31
5567.00,1.31
5566.00,1.31
5565.00,1.31
5564.00,1.31
5563.00,1.31
5562.00,1.31
5561.00,1.31
5560.00,1.31
5559.00,1.31
5558.00,1.32
5557.00,1.32
5556.00,1.32
5555.00,1.32
5554.00,1.32
5553.00,1.32
5552.00,1.32
5551.00,1.32
5550.00,1.32
5549.00,1.32
5548.00,1.32
5547.00,1.32
5546.00,1.32
5545.00,1.32
5544.00,1.32
5543.00,1.33
5542.00,1.33
5541.00,1.33
5540.00,1.33
5539.00,1.33
5538.00,1.33
5537.00,1.33
5536.00,1.33
5535.00,1.33
5534.00,1.33
5533.00,1.33
5532.00,1.33
5531.00,1.33
5530.00,1.33
5529.00,1.33
5528.00,1.33
5527.00,1.33
5526.00,1.33
5525.00,1.33
5524.00,1.33
5523.00,1.33
5522.00,1.33
5521.00,1.33
5520.00,1.33
5519.00,1.33
5518.00,1.33
5517.00,1.33
5516.00,1.33
5515.00,1.33
5514.00,1.33
5513.00,1.33
5512.00,1.33
5511.00,1.34
5510.00,1.34
5509.00,1.34
5508.00,1.34
5507.00,1.34
5506.00,1.34
5505.00,1.34
5504.00,1.34
5503.00,1.34
5502.00,1.34
5501.00,1.34
5500.00,1.34
5499.00,1.34
5498.00,1.34
5497.00,1.34
5496.00,1.34
5495.00,1.34
5494.00,1.34
5493.00,1.34
5492.00,1.34
5491.00,1.34
5490.00,1.34
5489.00,1.35
5488.00,1.35
5487.00,1.35
5486.00,1.35
5485.00,1.35
5484.00,1.35
5483.00,1.35
5482.00,1.35
5481.00,1.35
5480.00,1.35
5479.00,1.35
5478.00,1.35
5477.00,1.35
5476.00,1.35
5475.00,1.35
5474.00,1.35
5473.00,1.36
5472.00,1.36
5471.00,1.36
5470.00,1.36
5469.00,1.36
5468.00,1.36
5467.00,1.36
5466.00,1.36
5465.00,1.36
5464.00,1.36
5463.00,1.36
5462.00,1.36
5461.00,1.36
5460.00,1.36
5459.00,1.36
5458.00,1.36
5457.00,1.36
5456.00,1.36
5455.00,1.36
5454.00,1.36
5453.00,1.36
5452.00,1.36
5451.00,1.36
5450.00,1.36
5449.00,1.36
5448.00,1.36
5447.00,1.36
5446.00,1.36
5445.00,1.36
5444.00,1.36
5443.00,1.36
5442.00,1.36
5441.00,1.36
5440.00,1.36
5439.00,1.36
5438.00,1.36
5437.00,1.36
5436.00,1.37
5435.00,1.37
5434.00,1.37
5433.00,1.37
5432.00,1.37
5431.00,1.37
5430.00,1.37
5429.00,1.37
5428.00,1.37
5427.00,1.37
5426.00,1.37
5425.00,1.37
5424.00,1.37
5423.00,1.37
5422.00,1.37
5421.00,1.37
5420.00,1.37
5419.00,1.37
5418.00,1.37
5417.00,1.36
5416.00,1.36
5415.00,1.36
5414.00,1.36
5413.00,1.36
5412.00,1.36
5411.00,1.36
5410.00,1.37
5409.00,1.37
5408.00,1.37
5407.00,1.37
5406.00,1.37
5405.00,1.37
5404.00,1.37
5403.00,1.37
5402.00,1.37
5401.00,1.37
5400.00,1.37
5399.00,1.37
5398.00,1.37
5397.00,1.37
5396.00,1.36
5395.00,1.36
5394.00,1.36
5393.00,1.36
5392.00,1.36
5391.00,1.36
5390.00,1.36
5389.00,1.36
5388.00,1.36
5387.00,1.36
5386.00,1.35
5385.00,1.35
5384.00,1.35
5383.00,1.35
5382.00,1.35
5381.00,1.35
5380.00,1.35
5379.00,1.34
5378.00,1.34
5377.00,1.34
5376.00,1.34
5375.00,1.34
5374.00,1.34
5373.00,1.33
5372.00,1.33
5371.00,1.33
5370.00,1.33
5369.00,1.32
5368.00,1.32
5367.00,1.32
5366.00,1.32
5365.00,1.31
5364.00,1.31
5363.00,1.31
5362.00,1.30
5361.00,1.30
5360.00,1.29
5359.00,1.29
5358.00,1.28
5357.00,1.28
5356.00,1.28
5355.00,1.27
5354.00,1.27
5353.00,1.26
5352.00,1.26
5351.00,1.25
5350.00,1.24
5349.00,1.24
5348.00,1.23
5347.00,1.23
5346.00,1.22
5345.00,1.22
5344.00,1.21
5343.00,1.20
5342.00,1.20
5341.00,1.19
5340.00,1.18
5339.00,1.18
5338.00,1.17
5337.00,1.16
5336.00,1.16
5335.00,1.15
5334.00,1.14
5333.00,1.13
5332.00,1.13
5331.00,1.12
5330.00,1.11
5329.00,1.10
5328.00,1.09
5327.00,1.09
5326.00,1.08
5325.00,1.07
5324.00,1.06
5323.00,1.05
5322.00,1.04
5321.00,1.03
5320.00,1.02
5319.00,1.01
5318.00,1.00
5317.00,0.99
5316.00,0.98
5315.00,0.97
5314.00,0.96
5313.00,0.95
5312.00,0.94
5311.00,0.93
5310.00,0.92
5309.00,0.91
5308.00,0.90
5307.00,0.89
5306.00,0.88
5305.00,0.87
5304.00,0.86
5303.00,0.85
5302.00,0.84
5301.00,0.83
5300.00,0.83
5299.00,0.82
5298.00,0.81
5297.00,0.80
5296.00,0.80
5295.00,0.79
5294.00,0.78
5293.00,0.77
5292.00,0.77
5291.00,0.76
5290.00,0.76
5289.00,0.75
5288.00,0.74
5287.00,0.74
5286.00,0.73
5285.00,0.73
5284.00,0.72
5283.00,0.72
5282.00,0.71
5281.00,0.71
5280.00,0.70
5279.00,0.70
5278.00,0.69
5277.00,0.69
5276.00,0.69
5275.00,0.68
5274.00,0.68
5273.00,0.68
5272.00,0.67
5271.00,0.67
5270.00,0.66
5269.00,0.66
5268.00,0.66
5267.00,0.65
5266.00,0.65
5265.00,0.65
5264.00,0.64
5263.00,0.64
5262.00,0.64
5261.00,0.64
5260.00,0.63
5259.00,0.63
5258.00,0.63
5257.00,0.63
5256.00,0.62
5255.00,0.62
5254.00,0.62
5253.00,0.62
5252.00,0.61
5251.00,0.61
5250.00,0.61
5249.00,0.61
5248.00,0.61
5247.00,0.60
5246.00,0.60
5245.00,0.60
5244.00,0.60
5243.00,0.60
5242.00,0.60
5241.00,0.59
5240.00,0.59
5239.00,0.59
5238.00,0.59
5237.00,0.59
5236.00,0.59
5235.00,0.59
5234.00,0.58
5233.00,0.58
5232.00,0.58
5231.00,0.58
5230.00,0.58
5229.00,0.58
5228.00,0.58
5227.00,0.58
5226.00,0.57
5225.00,0.57
5224.00,0.57
5223.00,0.57
5222.00,0.57
5221.00,0.57
5220.00,0.57
5219.00,0.57
5218.00,0.57
5217.00,0.57
5216.00,0.57
5215.00,0.57
5214.00,0.57
5213.00,0.57
5212.00,0.57
5211.00,0.56
5210.00,0.56
5209.00,0.56
5208.00,0.56
5207.00,0.56
5206.00,0.56
5205.00,0.56
5204.00,0.56
5203.00,0.56
5202.00,0.56
5201.00,0.56
5200.00,0.56
5199.00,0.56
5198.00,0.56
5197.00,0.56
5196.00,0.56
5195.00,0.56
5194.00,0.56
5193.00,0.56
5192.00,0.56
5191.00,0.56
5190.00,0.56
5189.00,0.56
5188.00,0.56
5187.00,0.56
5186.00,0.56
5185.00,0.56
5184.00,0.56
5183.00,0.56
5182.00,0.56
5181.00,0.56
5180.00,0.56
5179.00,0.56
5178.00,0.56
5177.00,0.56
5176.00,0.56
5175.00,0.56
5174.00,0.56
5173.00,0.56
5172.00,0.56
5171.00,0.56
5170.00,0.56
5169.00,0.56
5168.00,0.56
5167.00,0.56
5166.00,0.56
5165.00,0.56
5164.00,0.56
5163.00,0.56
5162.00,0.56
5161.00,0.56
5160.00,0.56
5159.00,0.56
5158.00,0.56
5157.00,0.56
5156.00,0.56
5155.00,0.56
5154.00,0.56
5153.00,0.56
5152.00,0.56
5151.00,0.57
5150.00,0.57
5149.00,0.57
5148.00,0.57
5147.00,0.57
5146.00,0.57
5145.00,0.57
5144.00,0.57
5143.00,0.57
5142.00,0.57
5141.00,0.57
5140.00,0.57
5139.00,0.58
5138.00,0.58
5137.00,0.58
5136.00,0.58
5135.00,0.58
5134.00,0.58
5133.00,0.58
5132.00,0.58
5131.00,0.58
5130.00,0.58
5129.00,0.58
5128.00,0.59
5127.00,0.59
5126.00,0.59
5125.00,0.59
5124.00,0.59
5123.00,0.59
5122.00,0.59
5121.00,0.59
5120.00,0.59
5119.00,0.59
5118.00,0.59
5117.00,0.60
5116.00,0.60
5115.00,0.60
5114.00,0.60
5113.00,0.60
5112.00,0.60
5111.00,0.60
5110.00,0.60
5109.00,0.60
5108.00,0.60
5107.00,0.61
5106.00,0.61
5105.00,0.61
5104.00,0.61
5103.00,0.61
5102.00,0.61
5101.00,0.61
5100.00,0.61
5099.00,0.62
5098.00,0.62
5097.00,0.62
5096.00,0.62
5095.00,0.62
5094.00,0.62
5093.00,0.62
5092.00,0.62
5091.00,0.63
5090.00,0.63
5089.00,0.63
5088.00,0.63
5087.00,0.63
5086.00,0.63
5085.00,0.63
5084.00,0.63
5083.00,0.64
5082.00,0.64
5081.00,0.64
5080.00,0.64
5079.00,0.64
5078.00,0.64
5077.00,0.64
5076.00,0.64
5075.00,0.65
5074.00,0.65
5073.00,0.65
5072.00,0.65
5071.00,0.65
5070.00,0.66
5069.00,0.66
5068.00,0.66
5067.00,0.66
5066.00,0.66
5065.00,0.66
5064.00,0.67
5063.00,0.67
5062.00,0.67
5061.00,0.67
5060.00,0.67
5059.00,0.68
5058.00,0.68
5057.00,0.68
5056.00,0.68
5055.00,0.68
5054.00,0.68
5053.00,0.69
5052.00,0.69
5051.00,0.69
5050.00,0.69
5049.00,0.69
5048.00,0.69
5047.00,0.69
5046.00,0.70
5045.00,0.70
5044.00,0.70
5043.00,0.70
5042.00,0.70
5041.00,0.71
5040.00,0.71
5039.00,0.71
5038.00,0.71
5037.00,0.71
5036.00,0.72
5035.00,0.72
5034.00,0.72
5033.00,0.72
5032.00,0.72
5031.00,0.73
5030.00,0.73
5029.00,0.73
5028.00,0.73
5027.00,0.73
5026.00,0.73
5025.00,0.74
5024.00,0.74
5023.00,0.74
5022.00,0.74
5021.00,0.74
5020.00,0.74
5019.00,0.75
5018.00,0.75
5017.00,0.75
5016.00,0.75
5015.00,0.75
5014.00,0.75
5013.00,0.76
5012.00,0.76
5011.00,0.76
5010.00,0.76
5009.00,0.76
5008.00,0.77
5007.00,0.77
5006.00,0.77
5005.00,0.77
5004.00,0.78
5003.00,0.78
5002.00,0.78
5001.00,0.78
5000.00,0.78
4999.00,0.79
4998.00,0.79
4997.00,0.79
4996.00,0.79
4995.00,0.79
4994.00,0.79
4993.00,0.80
4992.00,0.80
4991.00,0.80
4990.00,0.80
4989.00,0.80
4988.00,0.80
4987.00,0.81
4986.00,0.81
4985.00,0.81
4984.00,0.81
4983.00,0.81
4982.00,0.81
4981.00,0.82
4980.00,0.82
4979.00,0.82
4978.00,0.82
4977.00,0.82
4976.00,0.82
4975.00,0.83
4974.00,0.83
4973.00,0.83
4972.00,0.83
4971.00,0.83
4970.00,0.83
4969.00,0.83
4968.00,0.84
4967.00,0.84
4966.00,0.84
4965.00,0.84
4964.00,0.84
4963.00,0.84
4962.00,0.84
4961.00,0.85
4960.00,0.85
4959.00,0.85
4958.00,0.85
4957.00,0.85
4956.00,0.85
4955.00,0.85
4954.00,0.86
4953.00,0.86
4952.00,0.86
4951.00,0.86
4950.00,0.86
4949.00,0.86
4948.00,0.87
4947.00,0.87
4946.00,0.87
4945.00,0.87
4944.00,0.87
4943.00,0.87
4942.00,0.87
4941.00,0.87
4940.00,0.88
4939.00,0.88
4938.00,0.88
4937.00,0.88
4936.00,0.88
4935.00,0.88
4934.00,0.88
4933.00,0.88
4932.00,0.89
4931.00,0.89
4930.00,0.89
4929.00,0.89
4928.00,0.89
4927.00,0.89
4926.00,0.89
4925.00,0.89
4924.00,0.89
4923.00,0.90
4922.00,0.90
4921.00,0.90
4920.00,0.90
4919.00,0.90
4918.00,0.90
4917.00,0.90
4916.00,0.90
4915.00,0.90
4914.00,0.90
4913.00,0.90
4912.00,0.90
4911.00,0.90
4910.00,0.91
4909.00,0.91
4908.00,0.91
4907.00,0.91
4906.00,0.91
4905.00,0.91
4904.00,0.91
4903.00,0.91
4902.00,0.91
4901.00,0.91
4900.00,0.91
4899.00,0.91
4898.00,0.91
4897.00,0.91
4896.00,0.91
4895.00,0.91
4894.00,0.91
4893.00,0.91
4892.00,0.91
4891.00,0.91
4890.00,0.91
4889.00,0.91
4888.00,0.91
4887.00,0.92
4886.00,0.92
4885.00,0.92
4884.00,0.92
4883.00,0.92
4882.00,0.92
4881.00,0.92
4880.00,0.92
4879.00,0.92
4878.00,0.92
4877.00,0.92
4876.00,0.92
4875.00,0.92
4874.00,0.92
4873.00,0.92
4872.00,0.92
4871.00,0.92
4870.00,0.92
4869.00,0.93
4868.00,0.93
4867.00,0.93
4866.00,0.93
4865.00,0.93
4864.00,0.93
4863.00,0.93
4862.00,0.93
4861.00,0.93
4860.00,0.93
4859.00,0.93
4858.00,0.93
4857.00,0.94
4856.00,0.94
4855.00,0.94
4854.00,0.94
4853.00,0.94
4852.00,0.94
4851.00,0.94
4850.00,0.94
4849.00,0.94
4848.00,0.94
4847.00,0.94
4846.00,0.94
4845.00,0.95
4844.00,0.95
4843.00,0.95
4842.00,0.95
4841.00,0.95
4840.00,0.95
4839.00,0.95
4838.00,0.95
4837.00,0.95
4836.00,0.95
4835.00,0.96
4834.00,0.96
4833.00,0.96
4832.00,0.96
4831.00,0.96
4830.00,0.96
4829.00,0.96
4828.00,0.96
4827.00,0.97
4826.00,0.97
4825.00,0.97
4824.00,0.97
4823.00,0.97
4822.00,0.97
4821.00,0.97
4820.00,0.98
4819.00,0.98
4818.00,0.98
4817.00,0.98
4816.00,0.98
4815.00,0.98
4814.00,0.98
4813.00,0.99
4812.00,0.99
4811.00,0.99
4810.00,0.99
4809.00,0.99
4808.00,0.99
4807.00,0.99
4806.00,1.00
4805.00,1.00
4804.00,1.00
4803.00,1.00
4802.00,1.00
4801.00,1.00
4800.00,1.00
4799.00,1.00
4798.00,1.01
4797.00,1.01
4796.00,1.01
4795.00,1.01
4794.00,1.01
4793.00,1.01
4792.00,1.02
4791.00,1.02
4790.00,1.02
4789.00,1.02
4788.00,1.02
4787.00,1.02
4786.00,1.03
4785.00,1.03
4784.00,1.03
4783.00,1.03
4782.00,1.03
4781.00,1.03
4780.00,1.04
4779.00,1.04
4778.00,1.04
4777.00,1.04
4776.00,1.04
4775.00,1.05
4774.00,1.05
4773.00,1.05
4772.00,1.05
4771.00,1.05
4770.00,1.05
4769.00,1.05
4768.00,1.06
4767.00,1.06
4766.00,1.06
4765.00,1.06
4764.00,1.06
4763.00,1.07
4762.00,1.07
4761.00,1.07
4760.00,1.07
4759.00,1.07
4758.00,1.08
4757.00,1.08
4756.00,1.08
4755.00,1.08
4754.00,1.08
4753.00,1.09
4752.00,1.09
4751.00,1.09
4750.00,1.09
4749.00,1.09
4748.00,1.10
4747.00,1.10
4746.00,1.10
4745.00,1.10
4744.00,1.10
4743.00,1.10
4742.00,1.11
4741.00,1.11
4740.00,1.11
4739.00,1.11
4738.00,1.11
4737.00,1.11
4736.00,1.12
4735.00,1.12
4734.00,1.12
4733.00,1.12
4732.00,1.12
4731.00,1.13
4730.00,1.13
4729.00,1.13
4728.00,1.13
4727.00,1.13
4726.00,1.14
4725.00,1.14
4724.00,1.14
4723.00,1.14
4722.00,1.15
4721.00,1.15
4720.00,1.15
4719.00,1.15
4718.00,1.15
4717.00,1.16
4716.00,1.16
4715.00,1.16
4714.00,1.16
4713.00,1.16
4712.00,1.16
4711.00,1.17
4710.00,1.17
4709.00,1.17
4708.00,1.17
4707.00,1.17
4706.00,1.17
4705.00,1.18
4704.00,1.18
4703.00,1.18
4702.00,1.18
4701.00,1.18
4700.00,1.18
4699.00,1.18
4698.00,1.19
4697.00,1.19
4696.00,1.19
4695.00,1.19
4694.00,1.19
4693.00,1.20
4692.00,1.20
4691.00,1.20
4690.00,1.20
4689.00,1.20
4688.00,1.20
4687.00,1.21
4686.00,1.21
4685.00,1.21
4684.00,1.21
4683.00,1.21
4682.00,1.21
4681.00,1.21
4680.00,1.22
4679.00,1.22
4678.00,1.22
4677.00,1.22
4676.00,1.22
4675.00,1.22
4674.00,1.23
4673.00,1.23
4672.00,1.23
4671.00,1.23
4670.00,1.23
4669.00,1.23
4668.00,1.23
4667.00,1.24
4666.00,1.24
4665.00,1.24
4664.00,1.24
4663.00,1.24
4662.00,1.24
4661.00,1.25
4660.00,1.25
4659.00,1.25
4658.00,1.25
4657.00,1.25
4656.00,1.25
4655.00,1.25
4654.00,1.26
4653.00,1.26
4652.00,1.26
4651.00,1.26
4650.00,1.26
4649.00,1.26
4648.00,1.26
4647.00,1.26
4646.00,1.27
4645.00,1.27
4644.00,1.27
4643.00,1.27
4642.00,1.27
4641.00,1.27
4640.00,1.27
4639.00,1.27
4638.00,1.27
4637.00,1.27
4636.00,1.27
4635.00,1.27
4634.00,1.28
4633.00,1.28
4632.00,1.28
4631.00,1.28
4630.00,1.28
4629.00,1.28
4628.00,1.28
4627.00,1.28
4626.00,1.28
4625.00,1.28
4624.00,1.29
4623.00,1.29
4622.00,1.29
4621.00,1.29
4620.00,1.29
4619.00,1.29
4618.00,1.29
4617.00,1.30
4616.00,1.30
4615.00,1.30
4614.00,1.30
4613.00,1.30
4612.00,1.30
4611.00,1.30
4610.00,1.30
4609.00,1.30
4608.00,1.31
4607.00,1.31
4606.00,1.31
4605.00,1.31
4604.00,1.31
4603.00,1.31
4602.00,1.31
4601.00,1.31
4600.00,1.31
4599.00,1.31
4598.00,1.31
4597.00,1.31
4596.00,1.31
4595.00,1.32
4594.00,1.32
4593.00,1.32
4592.00,1.32
4591.00,1.32
4590.00,1.32
4589.00,1.32
4588.00,1.32
4587.00,1.32
4586.00,1.32
4585.00,1.32
4584.00,1.32
4583.00,1.33
4582.00,1.33
4581.00,1.33
4580.00,1.33
4579.00,1.33
4578.00,1.33
4577.00,1.33
4576.00,1.33
4575.00,1.33
4574.00,1.33
4573.00,1.33
4572.00,1.33
4571.00,1.34
4570.00,1.34
4569.00,1.34
4568.00,1.34
4567.00,1.34
4566.00,1.34
4565.00,1.34
4564.00,1.34
4563.00,1.34
4562.00,1.34
4561.00,1.34
4560.00,1.34
4559.00,1.35
4558.00,1.35
4557.00,1.35
4556.00,1.35
4555.00,1.35
4554.00,1.35
4553.00,1.35
4552.00,1.35
4551.00,1.35
4550.00,1.35
4549.00,1.35
4548.00,1.35
4547.00,1.35
4546.00,1.35
4545.00,1.35
4544.00,1.35
4543.00,1.35
4542.00,1.35
4541.00,1.35
4540.00,1.35
4539.00,1.35
4538.00,1.35
4537.00,1.35
4536.00,1.36
4535.00,1.36
4534.00,1.36
4533.00,1.36
4532.00,1.36
4531.00,1.36
4530.00,1.36
4529.00,1.36
4528.00,1.36
4527.00,1.36
4526.00,1.36
4525.00,1.36
4524.00,1.36
4523.00,1.36
4522.00,1.36
4521.00,1.37
4520.00,1.37
4519.00,1.37
4518.00,1.37
4517.00,1.37
4516.00,1.37
4515.00,1.37
4514.00,1.37
4513.00,1.37
4512.00,1.37
4511.00,1.37
4510.00,1.37
4509.00,1.37
4508.00,1.37
4507.00,1.37
4506.00,1.37
4505.00,1.37
4504.00,1.37
4503.00,1.37
4502.00,1.37
4501.00,1.37
4500.00,1.37
4499.00,1.37
4498.00,1.37
4497.00,1.37
4496.00,1.37
4495.00,1.37
4494.00,1.37
4493.00,1.37
4492.00,1.37
4491.00,1.37
4490.00,1.37
4489.00,1.37
4488.00,1.37
4487.00,1.37
4486.00,1.37
4485.00,1.36
4484.00,1.36
4483.00,1.36
4482.00,1.36
4481.00,1.36
4480.00,1.36
4479.00,1.36
4478.00,1.36
4477.00,1.35
4476.00,1.35
4475.00,1.35
4474.00,1.35
4473.00,1.35
4472.00,1.35
4471.00,1.34
4470.00,1.34
4469.00,1.34
4468.00,1.34
4467.00,1.33
4466.00,1.33
4465.00,1.33
4464.00,1.33
4463.00,1.32
4462.00,1.32
4461.00,1.32
4460.00,1.31
4459.00,1.31
4458.00,1.31
4457.00,1.30
4456.00,1.30
4455.00,1.30
4454.00,1.29
4453.00,1.29
4452.00,1.28
4451.00,1.27
4450.00,1.27
4449.00,1.26
4448.00,1.26
4447.00,1.25
4446.00,1.24
4445.00,1.23
4444.00,1.22
4443.00,1.22
4442.00,1.21
4441.00,1.20
4440.00,1.19
4439.00,1.18
4438.00,1.17
4437.00,1.16
4436.00,1.15
4435.00,1.14
4434.00,1.13
4433.00,1.12
4432.00,1.11
4431.00,1.10
4430.00,1.09
4429.00,1.08
4428.00,1.07
4427.00,1.06
4426.00,1.05
4425.00,1.05
4424.00,1.04
4423.00,1.03
4422.00,1.02
4421.00,1.02
4420.00,1.01
4419.00,1.01
4418.00,1.00
4417.00,1.00
4416.00,0.99
4415.00,0.99
4414.00,0.99
4413.00,0.99
4412.00,0.98
4411.00,0.98
4410.00,0.98
4409.00,0.98
4408.00,0.98
4407.00,0.98
4406.00,0.99
4405.00,0.99
4404.00,0.99
4403.00,0.99
4402.00,0.99
4401.00,1.00
4400.00,1.00
4399.00,1.00
4398.00,1.01
4397.00,1.01
4396.00,1.02
4395.00,1.02
4394.00,1.02
4393.00,1.03
4392.00,1.03
4391.00,1.04
4390.00,1.04
4389.00,1.05
4388.00,1.05
4387.00,1.06
4386.00,1.06
4385.00,1.07
4384.00,1.07
4383.00,1.08
4382.00,1.08
4381.00,1.08
4380.00,1.09
4379.00,1.09
4378.00,1.09
4377.00,1.10
4376.00,1.10
4375.00,1.10
4374.00,1.10
4373.00,1.11
4372.00,1.11
4371.00,1.11
4370.00,1.11
4369.00,1.11
4368.00,1.11
4367.00,1.11
4366.00,1.11
4365.00,1.10
4364.00,1.10
4363.00,1.10
4362.00,1.10
4361.00,1.09
4360.00,1.09
4359.00,1.08
4358.00,1.08
4357.00,1.08
4356.00,1.07
4355.00,1.07
4354.00,1.06
4353.00,1.06
4352.00,1.06
4351.00,1.05
4350.00,1.05
4349.00,1.05
4348.00,1.04
4347.00,1.04
4346.00,1.04
4345.00,1.04
4344.00,1.04
4343.00,1.04
4342.00,1.04
4341.00,1.04
4340.00,1.04
4339.00,1.04
4338.00,1.04
4337.00,1.04
4336.00,1.04
4335.00,1.04
4334.00,1.05
4333.00,1.05
4332.00,1.05
4331.00,1.06
4330.00,1.06
4329.00,1.07
4328.00,1.07
4327.00,1.08
4326.00,1.08
4325.00,1.09
4324.00,1.09
4323.00,1.10
4322.00,1.10
4321.00,1.11
4320.00,1.12
4319.00,1.12
4318.00,1.13
4317.00,1.14
4316.00,1.14
4315.00,1.15
4314.00,1.16
4313.00,1.17
4312.00,1.17
4311.00,1.18
4310.00,1.19
4309.00,1.19
4308.00,1.20
4307.00,1.20
4306.00,1.21
4305.00,1.22
4304.00,1.22
4303.00,1.23
4302.00,1.23
4301.00,1.24
4300.00,1.24
4299.00,1.25
4298.00,1.25
4297.00,1.26
4296.00,1.26
4295.00,1.26
4294.00,1.27
4293.00,1.27
4292.00,1.27
4291.00,1.28
4290.00,1.28
4289.00,1.28
4288.00,1.28
4287.00,1.29
4286.00,1.29
4285.00,1.29
4284.00,1.29
4283.00,1.29
4282.00,1.29
4281.00,1.29
4280.00,1.29
4279.00,1.29
4278.00,1.29
4277.00,1.28
4276.00,1.28
4275.00,1.28
4274.00,1.28
4273.00,1.28
4272.00,1.27
4271.00,1.27
4270.00,1.27
4269.00,1.27
4268.00,1.26
4267.00,1.26
4266.00,1.26
4265.00,1.26
4264.00,1.25
4263.00,1.25
4262.00,1.25
4261.00,1.25
4260.00,1.25
4259.00,1.24
4258.00,1.24
4257.00,1.24
4256.00,1.24
4255.00,1.24
4254.00,1.24
4253.00,1.24
4252.00,1.24
4251.00,1.25
4250.00,1.25
4249.00,1.25
4248.00,1.25
4247.00,1.25
4246.00,1.26
4245.00,1.26
4244.00,1.26
4243.00,1.27
4242.00,1.27
4241.00,1.28
4240.00,1.28
4239.00,1.29
4238.00,1.29
4237.00,1.30
4236.00,1.30
4235.00,1.31
4234.00,1.31
4233.00,1.31
4232.00,1.32
4231.00,1.32
4230.00,1.33
4229.00,1.33
4228.00,1.33
4227.00,1.33
4226.00,1.34
4225.00,1.34
4224.00,1.34
4223.00,1.34
4222.00,1.34
4221.00,1.34
4220.00,1.34
4219.00,1.35
4218.00,1.35
4217.00,1.35
4216.00,1.35
4215.00,1.35
4214.00,1.35
4213.00,1.35
4212.00,1.35
4211.00,1.35
4210.00,1.35
4209.00,1.35
4208.00,1.35
4207.00,1.36
4206.00,1.36
4205.00,1.36
4204.00,1.36
4203.00,1.36
4202.00,1.36
4201.00,1.36
4200.00,1.36
4199.00,1.36
4198.00,1.36
4197.00,1.36
4196.00,1.36
4195.00,1.36
4194.00,1.36
4193.00,1.36
4192.00,1.36
4191.00,1.36
4190.00,1.36
4189.00,1.36
4188.00,1.36
4187.00,1.36
4186.00,1.36
4185.00,1.36
4184.00,1.36
4183.00,1.36
4182.00,1.36
4181.00,1.36
4180.00,1.36
4179.00,1.36
4178.00,1.36
4177.00,1.35
4176.00,1.35
4175.00,1.35
4174.00,1.35
4173.00,1.35
4172.00,1.35
4171.00,1.35
4170.00,1.35
4169.00,1.35
4168.00,1.34
4167.00,1.34
4166.00,1.34
4165.00,1.34
4164.00,1.34
4163.00,1.34
4162.00,1.34
4161.00,1.34
4160.00,1.34
4159.00,1.34
4158.00,1.34
4157.00,1.34
4156.00,1.34
4155.00,1.34
4154.00,1.34
4153.00,1.34
4152.00,1.33
4151.00,1.33
4150.00,1.33
4149.00,1.33
4148.00,1.33
4147.00,1.33
4146.00,1.33
4145.00,1.33
4144.00,1.33
4143.00,1.33
4142.00,1.33
4141.00,1.33
4140.00,1.33
4139.00,1.33
4138.00,1.33
4137.00,1.33
4136.00,1.33
4135.00,1.33
4134.00,1.33
4133.00,1.33
4132.00,1.33
4131.00,1.34
4130.00,1.34
4129.00,1.34
4128.00,1.34
4127.00,1.34
4126.00,1.34
4125.00,1.34
4124.00,1.34
4123.00,1.34
4122.00,1.34
4121.00,1.34
4120.00,1.34
4119.00,1.34
4118.00,1.34
4117.00,1.34
4116.00,1.34
4115.00,1.34
4114.00,1.34
4113.00,1.34
4112.00,1.34
4111.00,1.34
4110.00,1.33
4109.00,1.33
4108.00,1.33
4107.00,1.33
4106.00,1.33
4105.00,1.33
4104.00,1.33
4103.00,1.32
4102.00,1.32
4101.00,1.32
4100.00,1.32
4099.00,1.32
4098.00,1.32
4097.00,1.32
4096.00,1.31
4095.00,1.31
4094.00,1.31
4093.00,1.31
4092.00,1.31
4091.00,1.31
4090.00,1.31
4089.00,1.31
4088.00,1.31
4087.00,1.31
4086.00,1.30
4085.00,1.30
4084.00,1.30
4083.00,1.30
4082.00,1.30
4081.00,1.30
4080.00,1.30
4079.00,1.30
4078.00,1.30
4077.00,1.30
4076.00,1.30
4075.00,1.30
4074.00,1.30
4073.00,1.30
4072.00,1.30
4071.00,1.30
4070.00,1.29
4069.00,1.29
4068.00,1.29
4067.00,1.29
4066.00,1.29
4065.00,1.29
4064.00,1.29
4063.00,1.29
4062.00,1.29
4061.00,1.29
4060.00,1.29
4059.00,1.30
4058.00,1.30
4057.00,1.30
4056.00,1.30
4055.00,1.30
4054.00,1.30
4053.00,1.30
4052.00,1.30
4051.00,1.31
4050.00,1.31
4049.00,1.31
4048.00,1.31
4047.00,1.31
4046.00,1.31
4045.00,1.32
4044.00,1.32
4043.00,1.32
4042.00,1.32
4041.00,1.33
4040.00,1.33
4039.00,1.33
4038.00,1.33
4037.00,1.33
4036.00,1.34
4035.00,1.34
4034.00,1.34
4033.00,1.34
4032.00,1.34
4031.00,1.34
4030.00,1.34
4029.00,1.34
4028.00,1.35
4027.00,1.35
4026.00,1.35
4025.00,1.35
4024.00,1.35
4023.00,1.35
4022.00,1.35
4021.00,1.35
4020.00,1.35
4019.00,1.35
4018.00,1.35
4017.00,1.35
4016.00,1.36
4015.00,1.36
4014.00,1.36
4013.00,1.36
4012.00,1.36
4011.00,1.36
4010.00,1.36
4009.00,1.36
4008.00,1.36
4007.00,1.36
4006.00,1.36
4005.00,1.36
4004.00,1.36
4003.00,1.36
4002.00,1.36
4001.00,1.37
4000.00,1.37
