创建为新数据集,样品 148 用户 Administrator 日期 星期三, 十一月 08 2017
cm-1,%T
10000.00,1.32
9999.00,1.32
9998.00,1.32
9997.00,1.32
9996.00,1.32
9995.00,1.32
9994.00,1.32
9993.00,1.32
9992.00,1.32
9991.00,1.32
9990.00,1.31
9989.00,1.31
9988.00,1.31
9987.00,1.31
9986.00,1.31
9985.00,1.31
9984.00,1.31
9983.00,1.31
9982.00,1.31
9981.00,1.31
9980.00,1.30
9979.00,1.30
9978.00,1.30
9977.00,1.30
9976.00,1.30
9975.00,1.30
9974.00,1.30
9973.00,1.30
9972.00,1.29
9971.00,1.29
9970.00,1.29
9969.00,1.29
9968.00,1.29
9967.00,1.29
9966.00,1.29
9965.00,1.29
9964.00,1.29
9963.00,1.29
9962.00,1.29
9961.00,1.29
9960.00,1.29
9959.00,1.29
9958.00,1.29
9957.00,1.29
9956.00,1.29
9955.00,1.29
9954.00,1.29
9953.00,1.29
9952.00,1.29
9951.00,1.29
9950.00,1.29
9949.00,1.29
9948.00,1.29
9947.00,1.29
9946.00,1.29
9945.00,1.29
9944.00,1.30
9943.00,1.30
9942.00,1.30
9941.00,1.30
9940.00,1.30
9939.00,1.30
9938.00,1.30
9937.00,1.30
9936.00,1.30
9935.00,1.30
9934.00,1.30
9933.00,1.30
9932.00,1.30
9931.00,1.30
9930.00,1.30
9929.00,1.30
9928.00,1.30
9927.00,1.30
9926.00,1.30
9925.00,1.30
9924.00,1.29
9923.00,1.29
9922.00,1.29
9921.00,1.29
9920.00,1.29
9919.00,1.29
9918.00,1.29
9917.00,1.29
9916.00,1.28
9915.00,1.28
9914.00,1.28
9913.00,1.28
9912.00,1.28
9911.00,1.28
9910.00,1.28
9909.00,1.28
9908.00,1.28
9907.00,1.28
9906.00,1.28
9905.00,1.28
9904.00,1.28
9903.00,1.28
9902.00,1.28
9901.00,1.28
9900.00,1.27
9899.00,1.27
9898.00,1.27
9897.00,1.27
9896.00,1.27
9895.00,1.27
9894.00,1.27
9893.00,1.27
9892.00,1.27
9891.00,1.27
9890.00,1.27
9889.00,1.27
9888.00,1.27
9887.00,1.27
9886.00,1.27
9885.00,1.28
9884.00,1.28
9883.00,1.28
9882.00,1.28
9881.00,1.29
9880.00,1.29
9879.00,1.29
9878.00,1.29
9877.00,1.29
9876.00,1.30
9875.00,1.30
9874.00,1.30
9873.00,1.30
9872.00,1.30
9871.00,1.30
9870.00,1.30
9869.00,1.30
9868.00,1.30
9867.00,1.30
9866.00,1.30
9865.00,1.30
9864.00,1.30
9863.00,1.30
9862.00,1.30
9861.00,1.30
9860.00,1.30
9859.00,1.30
9858.00,1.30
9857.00,1.30
9856.00,1.30
9855.00,1.30
9854.00,1.30
9853.00,1.30
9852.00,1.30
9851.00,1.30
9850.00,1.30
9849.00,1.30
9848.00,1.30
9847.00,1.30
9846.00,1.30
9845.00,1.30
9844.00,1.30
9843.00,1.30
9842.00,1.30
9841.00,1.30
9840.00,1.30
9839.00,1.30
9838.00,1.30
9837.00,1.30
9836.00,1.30
9835.00,1.30
9834.00,1.31
9833.00,1.31
9832.00,1.31
9831.00,1.31
9830.00,1.31
9829.00,1.31
9828.00,1.31
9827.00,1.31
9826.00,1.31
9825.00,1.31
9824.00,1.31
9823.00,1.31
9822.00,1.31
9821.00,1.31
9820.00,1.30
9819.00,1.30
9818.00,1.30
9817.00,1.30
9816.00,1.30
9815.00,1.30
9814.00,1.30
9813.00,1.30
9812.00,1.30
9811.00,1.30
9810.00,1.30
9809.00,1.30
9808.00,1.30
9807.00,1.30
9806.00,1.30
9805.00,1.30
9804.00,1.30
9803.00,1.30
9802.00,1.31
9801.00,1.31
9800.00,1.31
9799.00,1.31
9798.00,1.31
9797.00,1.31
9796.00,1.31
9795.00,1.31
9794.00,1.31
9793.00,1.31
9792.00,1.31
9791.00,1.31
9790.00,1.31
9789.00,1.31
9788.00,1.31
9787.00,1.31
9786.00,1.30
9785.00,1.30
9784.00,1.30
9783.00,1.30
9782.00,1.30
9781.00,1.29
9780.00,1.29
9779.00,1.29
9778.00,1.29
9777.00,1.29
9776.00,1.29
9775.00,1.28
9774.00,1.28
9773.00,1.28
9772.00,1.28
9771.00,1.28
9770.00,1.28
9769.00,1.28
9768.00,1.28
9767.00,1.28
9766.00,1.28
9765.00,1.28
9764.00,1.28
9763.00,1.28
9762.00,1.29
9761.00,1.29
9760.00,1.29
9759.00,1.29
9758.00,1.29
9757.00,1.29
9756.00,1.30
9755.00,1.30
9754.00,1.30
9753.00,1.30
9752.00,1.30
9751.00,1.30
9750.00,1.30
9749.00,1.30
9748.00,1.30
9747.00,1.31
9746.00,1.31
9745.00,1.31
9744.00,1.31
9743.00,1.31
9742.00,1.31
9741.00,1.31
9740.00,1.31
9739.00,1.31
9738.00,1.31
9737.00,1.31
9736.00,1.31
9735.00,1.31
9734.00,1.31
9733.00,1.31
9732.00,1.31
9731.00,1.31
9730.00,1.31
9729.00,1.31
9728.00,1.31
9727.00,1.31
9726.00,1.31
9725.00,1.30
9724.00,1.30
9723.00,1.30
9722.00,1.30
9721.00,1.30
9720.00,1.30
9719.00,1.30
9718.00,1.29
9717.00,1.29
9716.00,1.29
9715.00,1.29
9714.00,1.29
9713.00,1.29
9712.00,1.29
9711.00,1.29
9710.00,1.29
9709.00,1.29
9708.00,1.29
9707.00,1.29
9706.00,1.29
9705.00,1.29
9704.00,1.29
9703.00,1.29
9702.00,1.29
9701.00,1.29
9700.00,1.29
9699.00,1.29
9698.00,1.29
9697.00,1.29
9696.00,1.29
9695.00,1.29
9694.00,1.29
9693.00,1.30
9692.00,1.30
9691.00,1.30
9690.00,1.30
9689.00,1.30
9688.00,1.30
9687.00,1.30
9686.00,1.31
9685.00,1.31
9684.00,1.31
9683.00,1.31
9682.00,1.31
9681.00,1.31
9680.00,1.31
9679.00,1.31
9678.00,1.32
9677.00,1.32
9676.00,1.32
9675.00,1.32
9674.00,1.32
9673.00,1.32
9672.00,1.32
9671.00,1.32
9670.00,1.32
9669.00,1.32
9668.00,1.32
9667.00,1.31
9666.00,1.31
9665.00,1.31
9664.00,1.31
9663.00,1.31
9662.00,1.31
9661.00,1.31
9660.00,1.31
9659.00,1.31
9658.00,1.31
9657.00,1.31
9656.00,1.31
9655.00,1.31
9654.00,1.31
9653.00,1.31
9652.00,1.31
9651.00,1.31
9650.00,1.31
9649.00,1.31
9648.00,1.31
9647.00,1.31
9646.00,1.31
9645.00,1.31
9644.00,1.30
9643.00,1.30
9642.00,1.30
9641.00,1.30
9640.00,1.30
9639.00,1.30
9638.00,1.29
9637.00,1.29
9636.00,1.29
9635.00,1.29
9634.00,1.29
9633.00,1.29
9632.00,1.29
9631.00,1.29
9630.00,1.29
9629.00,1.29
9628.00,1.29
9627.00,1.29
9626.00,1.29
9625.00,1.29
9624.00,1.29
9623.00,1.30
9622.00,1.30
9621.00,1.30
9620.00,1.30
9619.00,1.30
9618.00,1.30
9617.00,1.30
9616.00,1.29
9615.00,1.29
9614.00,1.29
9613.00,1.29
9612.00,1.29
9611.00,1.29
9610.00,1.29
9609.00,1.29
9608.00,1.29
9607.00,1.29
9606.00,1.29
9605.00,1.29
9604.00,1.29
9603.00,1.29
9602.00,1.29
9601.00,1.29
9600.00,1.29
9599.00,1.29
9598.00,1.29
9597.00,1.29
9596.00,1.29
9595.00,1.29
9594.00,1.29
9593.00,1.29
9592.00,1.29
9591.00,1.29
9590.00,1.29
9589.00,1.29
9588.00,1.29
9587.00,1.29
9586.00,1.29
9585.00,1.29
9584.00,1.29
9583.00,1.29
9582.00,1.29
9581.00,1.29
9580.00,1.29
9579.00,1.29
9578.00,1.29
9577.00,1.29
9576.00,1.30
9575.00,1.30
9574.00,1.30
9573.00,1.30
9572.00,1.30
9571.00,1.30
9570.00,1.30
9569.00,1.30
9568.00,1.30
9567.00,1.30
9566.00,1.30
9565.00,1.31
9564.00,1.31
9563.00,1.31
9562.00,1.31
9561.00,1.31
9560.00,1.31
9559.00,1.31
9558.00,1.31
9557.00,1.31
9556.00,1.31
9555.00,1.31
9554.00,1.31
9553.00,1.31
9552.00,1.31
9551.00,1.31
9550.00,1.31
9549.00,1.31
9548.00,1.31
9547.00,1.31
9546.00,1.31
9545.00,1.31
9544.00,1.31
9543.00,1.31
9542.00,1.30
9541.00,1.30
9540.00,1.30
9539.00,1.30
9538.00,1.30
9537.00,1.30
9536.00,1.29
9535.00,1.29
9534.00,1.29
9533.00,1.29
9532.00,1.29
9531.00,1.29
9530.00,1.29
9529.00,1.29
9528.00,1.28
9527.00,1.28
9526.00,1.29
9525.00,1.29
9524.00,1.29
9523.00,1.29
9522.00,1.29
9521.00,1.29
9520.00,1.29
9519.00,1.29
9518.00,1.29
9517.00,1.29
9516.00,1.29
9515.00,1.29
9514.00,1.30
9513.00,1.30
9512.00,1.30
9511.00,1.30
9510.00,1.30
9509.00,1.30
9508.00,1.30
9507.00,1.30
9506.00,1.30
9505.00,1.30
9504.00,1.30
9503.00,1.30
9502.00,1.30
9501.00,1.30
9500.00,1.30
9499.00,1.30
9498.00,1.30
9497.00,1.30
9496.00,1.30
9495.00,1.30
9494.00,1.30
9493.00,1.30
9492.00,1.30
9491.00,1.30
9490.00,1.30
9489.00,1.30
9488.00,1.30
9487.00,1.30
9486.00,1.30
9485.00,1.30
9484.00,1.29
9483.00,1.29
9482.00,1.29
9481.00,1.29
9480.00,1.29
9479.00,1.29
9478.00,1.29
9477.00,1.29
9476.00,1.29
9475.00,1.29
9474.00,1.29
9473.00,1.29
9472.00,1.29
9471.00,1.29
9470.00,1.29
9469.00,1.29
9468.00,1.29
9467.00,1.29
9466.00,1.29
9465.00,1.30
9464.00,1.30
9463.00,1.30
9462.00,1.30
9461.00,1.30
9460.00,1.30
9459.00,1.30
9458.00,1.30
9457.00,1.30
9456.00,1.30
9455.00,1.30
9454.00,1.30
9453.00,1.30
9452.00,1.30
9451.00,1.30
9450.00,1.30
9449.00,1.29
9448.00,1.29
9447.00,1.29
9446.00,1.29
9445.00,1.29
9444.00,1.29
9443.00,1.29
9442.00,1.29
9441.00,1.29
9440.00,1.29
9439.00,1.29
9438.00,1.29
9437.00,1.29
9436.00,1.29
9435.00,1.29
9434.00,1.29
9433.00,1.29
9432.00,1.29
9431.00,1.29
9430.00,1.29
9429.00,1.29
9428.00,1.29
9427.00,1.30
9426.00,1.30
9425.00,1.30
9424.00,1.30
9423.00,1.30
9422.00,1.30
9421.00,1.30
9420.00,1.30
9419.00,1.30
9418.00,1.30
9417.00,1.30
9416.00,1.30
9415.00,1.30
9414.00,1.30
9413.00,1.29
9412.00,1.29
9411.00,1.29
9410.00,1.29
9409.00,1.29
9408.00,1.29
9407.00,1.29
9406.00,1.29
9405.00,1.29
9404.00,1.29
9403.00,1.28
9402.00,1.28
9401.00,1.28
9400.00,1.28
9399.00,1.28
9398.00,1.28
9397.00,1.28
9396.00,1.28
9395.00,1.28
9394.00,1.28
9393.00,1.28
9392.00,1.28
9391.00,1.28
9390.00,1.28
9389.00,1.28
9388.00,1.28
9387.00,1.28
9386.00,1.29
9385.00,1.29
9384.00,1.29
9383.00,1.29
9382.00,1.29
9381.00,1.29
9380.00,1.29
9379.00,1.29
9378.00,1.29
9377.00,1.29
9376.00,1.29
9375.00,1.29
9374.00,1.29
9373.00,1.29
9372.00,1.29
9371.00,1.29
9370.00,1.29
9369.00,1.29
9368.00,1.29
9367.00,1.29
9366.00,1.29
9365.00,1.29
9364.00,1.29
9363.00,1.29
9362.00,1.29
9361.00,1.29
9360.00,1.29
9359.00,1.29
9358.00,1.29
9357.00,1.29
9356.00,1.29
9355.00,1.29
9354.00,1.29
9353.00,1.29
9352.00,1.29
9351.00,1.29
9350.00,1.29
9349.00,1.29
9348.00,1.29
9347.00,1.29
9346.00,1.29
9345.00,1.29
9344.00,1.29
9343.00,1.29
9342.00,1.30
9341.00,1.30
9340.00,1.30
9339.00,1.30
9338.00,1.30
9337.00,1.30
9336.00,1.31
9335.00,1.31
9334.00,1.31
9333.00,1.31
9332.00,1.31
9331.00,1.31
9330.00,1.31
9329.00,1.31
9328.00,1.31
9327.00,1.31
9326.00,1.31
9325.00,1.31
9324.00,1.31
9323.00,1.31
9322.00,1.31
9321.00,1.31
9320.00,1.31
9319.00,1.30
9318.00,1.30
9317.00,1.30
9316.00,1.30
9315.00,1.30
9314.00,1.30
9313.00,1.30
9312.00,1.30
9311.00,1.30
9310.00,1.30
9309.00,1.30
9308.00,1.30
9307.00,1.30
9306.00,1.30
9305.00,1.30
9304.00,1.30
9303.00,1.30
9302.00,1.30
9301.00,1.30
9300.00,1.30
9299.00,1.30
9298.00,1.31
9297.00,1.31
9296.00,1.31
9295.00,1.31
9294.00,1.31
9293.00,1.31
9292.00,1.31
9291.00,1.31
9290.00,1.31
9289.00,1.31
9288.00,1.31
9287.00,1.30
9286.00,1.30
9285.00,1.30
9284.00,1.30
9283.00,1.30
9282.00,1.30
9281.00,1.29
9280.00,1.29
9279.00,1.29
9278.00,1.29
9277.00,1.28
9276.00,1.28
9275.00,1.28
9274.00,1.28
9273.00,1.28
9272.00,1.28
9271.00,1.28
9270.00,1.28
9269.00,1.28
9268.00,1.28
9267.00,1.28
9266.00,1.28
9265.00,1.28
9264.00,1.28
9263.00,1.28
9262.00,1.28
9261.00,1.28
9260.00,1.28
9259.00,1.28
9258.00,1.28
9257.00,1.28
9256.00,1.28
9255.00,1.28
9254.00,1.28
9253.00,1.28
9252.00,1.28
9251.00,1.28
9250.00,1.28
9249.00,1.28
9248.00,1.28
9247.00,1.29
9246.00,1.29
9245.00,1.29
9244.00,1.29
9243.00,1.29
9242.00,1.29
9241.00,1.29
9240.00,1.29
9239.00,1.29
9238.00,1.30
9237.00,1.30
9236.00,1.30
9235.00,1.30
9234.00,1.30
9233.00,1.31
9232.00,1.31
9231.00,1.31
9230.00,1.31
9229.00,1.31
9228.00,1.31
9227.00,1.31
9226.00,1.31
9225.00,1.32
9224.00,1.32
9223.00,1.32
9222.00,1.31
9221.00,1.31
9220.00,1.31
9219.00,1.31
9218.00,1.31
9217.00,1.31
9216.00,1.31
9215.00,1.31
9214.00,1.31
9213.00,1.30
9212.00,1.30
9211.00,1.30
9210.00,1.30
9209.00,1.30
9208.00,1.30
9207.00,1.30
9206.00,1.30
9205.00,1.30
9204.00,1.31
9203.00,1.31
9202.00,1.31
9201.00,1.31
9200.00,1.31
9199.00,1.31
9198.00,1.31
9197.00,1.31
9196.00,1.32
9195.00,1.32
9194.00,1.32
9193.00,1.32
9192.00,1.32
9191.00,1.32
9190.00,1.32
9189.00,1.31
9188.00,1.31
9187.00,1.31
9186.00,1.31
9185.00,1.31
9184.00,1.31
9183.00,1.31
9182.00,1.31
9181.00,1.31
9180.00,1.31
9179.00,1.31
9178.00,1.31
9177.00,1.31
9176.00,1.31
9175.00,1.31
9174.00,1.31
9173.00,1.31
9172.00,1.31
9171.00,1.31
9170.00,1.31
9169.00,1.31
9168.00,1.31
9167.00,1.31
9166.00,1.31
9165.00,1.31
9164.00,1.31
9163.00,1.31
9162.00,1.31
9161.00,1.31
9160.00,1.31
9159.00,1.31
9158.00,1.31
9157.00,1.31
9156.00,1.31
9155.00,1.31
9154.00,1.30
9153.00,1.30
9152.00,1.30
9151.00,1.30
9150.00,1.30
9149.00,1.30
9148.00,1.30
9147.00,1.30
9146.00,1.30
9145.00,1.30
9144.00,1.29
9143.00,1.29
9142.00,1.29
9141.00,1.29
9140.00,1.29
9139.00,1.29
9138.00,1.29
9137.00,1.29
9136.00,1.29
9135.00,1.30
9134.00,1.30
9133.00,1.30
9132.00,1.30
9131.00,1.30
9130.00,1.30
9129.00,1.30
9128.00,1.30
9127.00,1.30
9126.00,1.30
9125.00,1.30
9124.00,1.30
9123.00,1.30
9122.00,1.30
9121.00,1.30
9120.00,1.30
9119.00,1.30
9118.00,1.30
9117.00,1.30
9116.00,1.30
9115.00,1.30
9114.00,1.30
9113.00,1.30
9112.00,1.30
9111.00,1.30
9110.00,1.30
9109.00,1.30
9108.00,1.30
9107.00,1.30
9106.00,1.30
9105.00,1.30
9104.00,1.30
9103.00,1.30
9102.00,1.30
9101.00,1.30
9100.00,1.30
9099.00,1.30
9098.00,1.30
9097.00,1.30
9096.00,1.29
9095.00,1.29
9094.00,1.29
9093.00,1.29
9092.00,1.29
9091.00,1.29
9090.00,1.29
9089.00,1.29
9088.00,1.29
9087.00,1.29
9086.00,1.29
9085.00,1.29
9084.00,1.29
9083.00,1.29
9082.00,1.29
9081.00,1.29
9080.00,1.29
9079.00,1.29
9078.00,1.29
9077.00,1.30
9076.00,1.30
9075.00,1.30
9074.00,1.30
9073.00,1.30
9072.00,1.30
9071.00,1.30
9070.00,1.30
9069.00,1.30
9068.00,1.30
9067.00,1.30
9066.00,1.30
9065.00,1.30
9064.00,1.30
9063.00,1.30
9062.00,1.30
9061.00,1.30
9060.00,1.30
9059.00,1.30
9058.00,1.30
9057.00,1.30
9056.00,1.30
9055.00,1.30
9054.00,1.30
9053.00,1.30
9052.00,1.30
9051.00,1.30
9050.00,1.30
9049.00,1.29
9048.00,1.29
9047.00,1.29
9046.00,1.29
9045.00,1.29
9044.00,1.29
9043.00,1.29
9042.00,1.29
9041.00,1.29
9040.00,1.29
9039.00,1.29
9038.00,1.30
9037.00,1.30
9036.00,1.30
9035.00,1.30
9034.00,1.30
9033.00,1.30
9032.00,1.30
9031.00,1.30
9030.00,1.31
9029.00,1.31
9028.00,1.31
9027.00,1.31
9026.00,1.31
9025.00,1.31
9024.00,1.31
9023.00,1.31
9022.00,1.31
9021.00,1.31
9020.00,1.31
9019.00,1.31
9018.00,1.31
9017.00,1.31
9016.00,1.30
9015.00,1.30
9014.00,1.30
9013.00,1.30
9012.00,1.30
9011.00,1.30
9010.00,1.30
9009.00,1.30
9008.00,1.30
9007.00,1.30
9006.00,1.30
9005.00,1.30
9004.00,1.30
9003.00,1.30
9002.00,1.30
9001.00,1.30
9000.00,1.30
8999.00,1.30
8998.00,1.30
8997.00,1.29
8996.00,1.29
8995.00,1.29
8994.00,1.29
8993.00,1.29
8992.00,1.29
8991.00,1.29
8990.00,1.29
8989.00,1.29
8988.00,1.29
8987.00,1.29
8986.00,1.29
8985.00,1.29
8984.00,1.29
8983.00,1.30
8982.00,1.30
8981.00,1.30
8980.00,1.30
8979.00,1.30
8978.00,1.30
8977.00,1.30
8976.00,1.30
8975.00,1.31
8974.00,1.31
8973.00,1.31
8972.00,1.31
8971.00,1.31
8970.00,1.31
8969.00,1.30
8968.00,1.30
8967.00,1.30
8966.00,1.30
8965.00,1.30
8964.00,1.30
8963.00,1.30
8962.00,1.30
8961.00,1.30
8960.00,1.30
8959.00,1.30
8958.00,1.30
8957.00,1.30
8956.00,1.30
8955.00,1.30
8954.00,1.30
8953.00,1.29
8952.00,1.29
8951.00,1.29
8950.00,1.29
8949.00,1.29
8948.00,1.29
8947.00,1.29
8946.00,1.29
8945.00,1.29
8944.00,1.29
8943.00,1.30
8942.00,1.30
8941.00,1.30
8940.00,1.30
8939.00,1.30
8938.00,1.30
8937.00,1.30
8936.00,1.30
8935.00,1.30
8934.00,1.30
8933.00,1.30
8932.00,1.30
8931.00,1.30
8930.00,1.30
8929.00,1.30
8928.00,1.30
8927.00,1.30
8926.00,1.30
8925.00,1.30
8924.00,1.29
8923.00,1.29
8922.00,1.29
8921.00,1.29
8920.00,1.29
8919.00,1.29
8918.00,1.29
8917.00,1.29
8916.00,1.29
8915.00,1.29
8914.00,1.29
8913.00,1.29
8912.00,1.29
8911.00,1.29
8910.00,1.29
8909.00,1.29
8908.00,1.29
8907.00,1.29
8906.00,1.29
8905.00,1.29
8904.00,1.29
8903.00,1.30
8902.00,1.30
8901.00,1.30
8900.00,1.30
8899.00,1.30
8898.00,1.30
8897.00,1.30
8896.00,1.30
8895.00,1.30
8894.00,1.30
8893.00,1.30
8892.00,1.30
8891.00,1.30
8890.00,1.30
8889.00,1.30
8888.00,1.30
8887.00,1.30
8886.00,1.30
8885.00,1.30
8884.00,1.30
8883.00,1.30
8882.00,1.30
8881.00,1.30
8880.00,1.30
8879.00,1.30
8878.00,1.30
8877.00,1.30
8876.00,1.30
8875.00,1.30
8874.00,1.30
8873.00,1.30
8872.00,1.30
8871.00,1.30
8870.00,1.29
8869.00,1.29
8868.00,1.29
8867.00,1.29
8866.00,1.29
8865.00,1.29
8864.00,1.29
8863.00,1.29
8862.00,1.29
8861.00,1.29
8860.00,1.29
8859.00,1.29
8858.00,1.29
8857.00,1.29
8856.00,1.29
8855.00,1.29
8854.00,1.29
8853.00,1.29
8852.00,1.29
8851.00,1.29
8850.00,1.29
8849.00,1.29
8848.00,1.28
8847.00,1.28
8846.00,1.28
8845.00,1.28
8844.00,1.28
8843.00,1.28
8842.00,1.28
8841.00,1.28
8840.00,1.28
8839.00,1.28
8838.00,1.28
8837.00,1.29
8836.00,1.29
8835.00,1.29
8834.00,1.29
8833.00,1.29
8832.00,1.29
8831.00,1.29
8830.00,1.29
8829.00,1.30
8828.00,1.30
8827.00,1.30
8826.00,1.30
8825.00,1.30
8824.00,1.30
8823.00,1.30
8822.00,1.30
8821.00,1.30
8820.00,1.30
8819.00,1.30
8818.00,1.30
8817.00,1.29
8816.00,1.29
8815.00,1.29
8814.00,1.29
8813.00,1.29
8812.00,1.29
8811.00,1.29
8810.00,1.29
8809.00,1.29
8808.00,1.29
8807.00,1.29
8806.00,1.28
8805.00,1.28
8804.00,1.28
8803.00,1.28
8802.00,1.28
8801.00,1.28
8800.00,1.28
8799.00,1.28
8798.00,1.28
8797.00,1.28
8796.00,1.28
8795.00,1.27
8794.00,1.27
8793.00,1.27
8792.00,1.27
8791.00,1.27
8790.00,1.27
8789.00,1.27
8788.00,1.27
8787.00,1.27
8786.00,1.27
8785.00,1.27
8784.00,1.27
8783.00,1.27
8782.00,1.27
8781.00,1.27
8780.00,1.27
8779.00,1.27
8778.00,1.27
8777.00,1.26
8776.00,1.26
8775.00,1.26
8774.00,1.26
8773.00,1.26
8772.00,1.26
8771.00,1.26
8770.00,1.26
8769.00,1.27
8768.00,1.27
8767.00,1.27
8766.00,1.27
8765.00,1.27
8764.00,1.27
8763.00,1.27
8762.00,1.27
8761.00,1.27
8760.00,1.27
8759.00,1.27
8758.00,1.27
8757.00,1.27
8756.00,1.27
8755.00,1.27
8754.00,1.27
8753.00,1.27
8752.00,1.26
8751.00,1.26
8750.00,1.26
8749.00,1.26
8748.00,1.25
8747.00,1.25
8746.00,1.25
8745.00,1.25
8744.00,1.25
8743.00,1.25
8742.00,1.24
8741.00,1.24
8740.00,1.24
8739.00,1.24
8738.00,1.24
8737.00,1.24
8736.00,1.24
8735.00,1.24
8734.00,1.24
8733.00,1.24
8732.00,1.24
8731.00,1.24
8730.00,1.24
8729.00,1.25
8728.00,1.25
8727.00,1.25
8726.00,1.25
8725.00,1.25
8724.00,1.25
8723.00,1.25
8722.00,1.25
8721.00,1.26
8720.00,1.26
8719.00,1.26
8718.00,1.26
8717.00,1.26
8716.00,1.26
8715.00,1.26
8714.00,1.26
8713.00,1.26
8712.00,1.26
8711.00,1.26
8710.00,1.26
8709.00,1.26
8708.00,1.26
8707.00,1.26
8706.00,1.26
8705.00,1.26
8704.00,1.26
8703.00,1.26
8702.00,1.26
8701.00,1.26
8700.00,1.26
8699.00,1.25
8698.00,1.25
8697.00,1.25
8696.00,1.25
8695.00,1.25
8694.00,1.24
8693.00,1.24
8692.00,1.24
8691.00,1.24
8690.00,1.24
8689.00,1.23
8688.00,1.23
8687.00,1.23
8686.00,1.23
8685.00,1.23
8684.00,1.23
8683.00,1.23
8682.00,1.23
8681.00,1.23
8680.00,1.23
8679.00,1.24
8678.00,1.24
8677.00,1.24
8676.00,1.24
8675.00,1.24
8674.00,1.24
8673.00,1.24
8672.00,1.24
8671.00,1.24
8670.00,1.25
8669.00,1.25
8668.00,1.25
8667.00,1.25
8666.00,1.25
8665.00,1.25
8664.00,1.25
8663.00,1.25
8662.00,1.25
8661.00,1.25
8660.00,1.25
8659.00,1.25
8658.00,1.25
8657.00,1.25
8656.00,1.25
8655.00,1.24
8654.00,1.24
8653.00,1.24
8652.00,1.24
8651.00,1.24
8650.00,1.24
8649.00,1.24
8648.00,1.24
8647.00,1.24
8646.00,1.24
8645.00,1.24
8644.00,1.24
8643.00,1.24
8642.00,1.24
8641.00,1.24
8640.00,1.24
8639.00,1.24
8638.00,1.24
8637.00,1.24
8636.00,1.23
8635.00,1.23
8634.00,1.23
8633.00,1.23
8632.00,1.23
8631.00,1.23
8630.00,1.23
8629.00,1.23
8628.00,1.23
8627.00,1.23
8626.00,1.23
8625.00,1.23
8624.00,1.23
8623.00,1.23
8622.00,1.23
8621.00,1.23
8620.00,1.23
8619.00,1.23
8618.00,1.23
8617.00,1.23
8616.00,1.22
8615.00,1.22
8614.00,1.22
8613.00,1.22
8612.00,1.22
8611.00,1.22
8610.00,1.22
8609.00,1.22
8608.00,1.22
8607.00,1.22
8606.00,1.22
8605.00,1.22
8604.00,1.22
8603.00,1.22
8602.00,1.22
8601.00,1.22
8600.00,1.22
8599.00,1.22
8598.00,1.22
8597.00,1.22
8596.00,1.22
8595.00,1.22
8594.00,1.22
8593.00,1.22
8592.00,1.22
8591.00,1.22
8590.00,1.22
8589.00,1.22
8588.00,1.22
8587.00,1.22
8586.00,1.22
8585.00,1.22
8584.00,1.22
8583.00,1.22
8582.00,1.22
8581.00,1.22
8580.00,1.22
8579.00,1.22
8578.00,1.22
8577.00,1.22
8576.00,1.21
8575.00,1.21
8574.00,1.21
8573.00,1.21
8572.00,1.21
8571.00,1.21
8570.00,1.21
8569.00,1.21
8568.00,1.21
8567.00,1.21
8566.00,1.21
8565.00,1.21
8564.00,1.21
8563.00,1.21
8562.00,1.20
8561.00,1.20
8560.00,1.20
8559.00,1.20
8558.00,1.20
8557.00,1.20
8556.00,1.20
8555.00,1.20
8554.00,1.20
8553.00,1.20
8552.00,1.20
8551.00,1.20
8550.00,1.20
8549.00,1.20
8548.00,1.20
8547.00,1.20
8546.00,1.20
8545.00,1.20
8544.00,1.20
8543.00,1.19
8542.00,1.19
8541.00,1.19
8540.00,1.19
8539.00,1.19
8538.00,1.19
8537.00,1.19
8536.00,1.19
8535.00,1.19
8534.00,1.19
8533.00,1.19
8532.00,1.19
8531.00,1.19
8530.00,1.19
8529.00,1.19
8528.00,1.19
8527.00,1.19
8526.00,1.19
8525.00,1.19
8524.00,1.19
8523.00,1.19
8522.00,1.19
8521.00,1.19
8520.00,1.19
8519.00,1.19
8518.00,1.19
8517.00,1.19
8516.00,1.19
8515.00,1.19
8514.00,1.19
8513.00,1.19
8512.00,1.19
8511.00,1.19
8510.00,1.19
8509.00,1.19
8508.00,1.19
8507.00,1.19
8506.00,1.19
8505.00,1.19
8504.00,1.19
8503.00,1.19
8502.00,1.19
8501.00,1.19
8500.00,1.19
8499.00,1.19
8498.00,1.19
8497.00,1.19
8496.00,1.19
8495.00,1.19
8494.00,1.19
8493.00,1.19
8492.00,1.18
8491.00,1.18
8490.00,1.18
8489.00,1.18
8488.00,1.18
8487.00,1.18
8486.00,1.17
8485.00,1.17
8484.00,1.17
8483.00,1.17
8482.00,1.17
8481.00,1.17
8480.00,1.17
8479.00,1.17
8478.00,1.17
8477.00,1.17
8476.00,1.17
8475.00,1.17
8474.00,1.16
8473.00,1.16
8472.00,1.16
8471.00,1.16
8470.00,1.16
8469.00,1.16
8468.00,1.16
8467.00,1.16
8466.00,1.16
8465.00,1.16
8464.00,1.16
8463.00,1.16
8462.00,1.16
8461.00,1.16
8460.00,1.16
8459.00,1.16
8458.00,1.16
8457.00,1.16
8456.00,1.16
8455.00,1.16
8454.00,1.16
8453.00,1.15
8452.00,1.15
8451.00,1.15
8450.00,1.15
8449.00,1.15
8448.00,1.15
8447.00,1.15
8446.00,1.15
8445.00,1.15
8444.00,1.15
8443.00,1.15
8442.00,1.15
8441.00,1.15
8440.00,1.15
8439.00,1.15
8438.00,1.15
8437.00,1.15
8436.00,1.15
8435.00,1.15
8434.00,1.15
8433.00,1.15
8432.00,1.15
8431.00,1.15
8430.00,1.15
8429.00,1.15
8428.00,1.15
8427.00,1.15
8426.00,1.15
8425.00,1.15
8424.00,1.15
8423.00,1.15
8422.00,1.15
8421.00,1.15
8420.00,1.15
8419.00,1.15
8418.00,1.15
8417.00,1.15
8416.00,1.15
8415.00,1.16
8414.00,1.16
8413.00,1.16
8412.00,1.16
8411.00,1.16
8410.00,1.16
8409.00,1.16
8408.00,1.16
8407.00,1.16
8406.00,1.16
8405.00,1.16
8404.00,1.16
8403.00,1.16
8402.00,1.16
8401.00,1.17
8400.00,1.17
8399.00,1.17
8398.00,1.17
8397.00,1.17
8396.00,1.17
8395.00,1.18
8394.00,1.18
8393.00,1.18
8392.00,1.18
8391.00,1.18
8390.00,1.18
8389.00,1.18
8388.00,1.19
8387.00,1.19
8386.00,1.19
8385.00,1.19
8384.00,1.19
8383.00,1.19
8382.00,1.19
8381.00,1.19
8380.00,1.19
8379.00,1.19
8378.00,1.19
8377.00,1.19
8376.00,1.19
8375.00,1.19
8374.00,1.19
8373.00,1.19
8372.00,1.19
8371.00,1.19
8370.00,1.19
8369.00,1.19
8368.00,1.19
8367.00,1.19
8366.00,1.19
8365.00,1.19
8364.00,1.19
8363.00,1.19
8362.00,1.19
8361.00,1.19
8360.00,1.19
8359.00,1.19
8358.00,1.19
8357.00,1.19
8356.00,1.19
8355.00,1.19
8354.00,1.19
8353.00,1.19
8352.00,1.19
8351.00,1.19
8350.00,1.19
8349.00,1.19
8348.00,1.19
8347.00,1.19
8346.00,1.19
8345.00,1.19
8344.00,1.19
8343.00,1.19
8342.00,1.20
8341.00,1.20
8340.00,1.20
8339.00,1.20
8338.00,1.20
8337.00,1.20
8336.00,1.20
8335.00,1.20
8334.00,1.20
8333.00,1.20
8332.00,1.20
8331.00,1.20
8330.00,1.20
8329.00,1.20
8328.00,1.20
8327.00,1.20
8326.00,1.20
8325.00,1.20
8324.00,1.20
8323.00,1.20
8322.00,1.20
8321.00,1.20
8320.00,1.20
8319.00,1.20
8318.00,1.20
8317.00,1.20
8316.00,1.20
8315.00,1.20
8314.00,1.20
8313.00,1.19
8312.00,1.19
8311.00,1.19
8310.00,1.19
8309.00,1.19
8308.00,1.19
8307.00,1.19
8306.00,1.19
8305.00,1.19
8304.00,1.19
8303.00,1.19
8302.00,1.19
8301.00,1.19
8300.00,1.19
8299.00,1.19
8298.00,1.20
8297.00,1.20
8296.00,1.20
8295.00,1.20
8294.00,1.20
8293.00,1.20
8292.00,1.20
8291.00,1.20
8290.00,1.20
8289.00,1.20
8288.00,1.20
8287.00,1.20
8286.00,1.20
8285.00,1.20
8284.00,1.20
8283.00,1.21
8282.00,1.21
8281.00,1.21
8280.00,1.21
8279.00,1.21
8278.00,1.21
8277.00,1.21
8276.00,1.21
8275.00,1.21
8274.00,1.21
8273.00,1.21
8272.00,1.21
8271.00,1.21
8270.00,1.21
8269.00,1.21
8268.00,1.21
8267.00,1.21
8266.00,1.21
8265.00,1.21
8264.00,1.21
8263.00,1.21
8262.00,1.21
8261.00,1.21
8260.00,1.21
8259.00,1.21
8258.00,1.21
8257.00,1.21
8256.00,1.21
8255.00,1.21
8254.00,1.21
8253.00,1.21
8252.00,1.21
8251.00,1.21
8250.00,1.21
8249.00,1.21
8248.00,1.21
8247.00,1.21
8246.00,1.21
8245.00,1.21
8244.00,1.21
8243.00,1.21
8242.00,1.21
8241.00,1.21
8240.00,1.21
8239.00,1.21
8238.00,1.21
8237.00,1.21
8236.00,1.21
8235.00,1.21
8234.00,1.21
8233.00,1.21
8232.00,1.21
8231.00,1.21
8230.00,1.21
8229.00,1.21
8228.00,1.21
8227.00,1.21
8226.00,1.21
8225.00,1.21
8224.00,1.21
8223.00,1.21
8222.00,1.21
8221.00,1.21
8220.00,1.21
8219.00,1.22
8218.00,1.22
8217.00,1.22
8216.00,1.22
8215.00,1.22
8214.00,1.22
8213.00,1.22
8212.00,1.22
8211.00,1.22
8210.00,1.22
8209.00,1.22
8208.00,1.22
8207.00,1.22
8206.00,1.22
8205.00,1.22
8204.00,1.22
8203.00,1.22
8202.00,1.22
8201.00,1.22
8200.00,1.22
8199.00,1.22
8198.00,1.22
8197.00,1.22
8196.00,1.22
8195.00,1.22
8194.00,1.22
8193.00,1.22
8192.00,1.22
8191.00,1.22
8190.00,1.22
8189.00,1.22
8188.00,1.22
8187.00,1.22
8186.00,1.22
8185.00,1.23
8184.00,1.23
8183.00,1.23
8182.00,1.23
8181.00,1.23
8180.00,1.23
8179.00,1.23
8178.00,1.23
8177.00,1.23
8176.00,1.23
8175.00,1.23
8174.00,1.24
8173.00,1.24
8172.00,1.24
8171.00,1.24
8170.00,1.24
8169.00,1.24
8168.00,1.24
8167.00,1.24
8166.00,1.25
8165.00,1.25
8164.00,1.25
8163.00,1.25
8162.00,1.25
8161.00,1.25
8160.00,1.25
8159.00,1.25
8158.00,1.25
8157.00,1.25
8156.00,1.25
8155.00,1.25
8154.00,1.25
8153.00,1.25
8152.00,1.25
8151.00,1.24
8150.00,1.24
8149.00,1.24
8148.00,1.24
8147.00,1.24
8146.00,1.24
8145.00,1.24
8144.00,1.24
8143.00,1.24
8142.00,1.24
8141.00,1.24
8140.00,1.24
8139.00,1.24
8138.00,1.24
8137.00,1.24
8136.00,1.24
8135.00,1.24
8134.00,1.24
8133.00,1.24
8132.00,1.24
8131.00,1.24
8130.00,1.23
8129.00,1.23
8128.00,1.23
8127.00,1.24
8126.00,1.24
8125.00,1.24
8124.00,1.24
8123.00,1.24
8122.00,1.24
8121.00,1.24
8120.00,1.24
8119.00,1.24
8118.00,1.25
8117.00,1.25
8116.00,1.25
8115.00,1.25
8114.00,1.25
8113.00,1.25
8112.00,1.26
8111.00,1.26
8110.00,1.26
8109.00,1.26
8108.00,1.26
8107.00,1.26
8106.00,1.26
8105.00,1.26
8104.00,1.26
8103.00,1.26
8102.00,1.26
8101.00,1.26
8100.00,1.26
8099.00,1.26
8098.00,1.26
8097.00,1.26
8096.00,1.26
8095.00,1.26
8094.00,1.26
8093.00,1.26
8092.00,1.26
8091.00,1.26
8090.00,1.26
8089.00,1.26
8088.00,1.26
8087.00,1.26
8086.00,1.26
8085.00,1.26
8084.00,1.26
8083.00,1.26
8082.00,1.26
8081.00,1.26
8080.00,1.26
8079.00,1.26
8078.00,1.26
8077.00,1.26
8076.00,1.26
8075.00,1.26
8074.00,1.26
8073.00,1.26
8072.00,1.26
8071.00,1.26
8070.00,1.26
8069.00,1.26
8068.00,1.26
8067.00,1.26
8066.00,1.26
8065.00,1.26
8064.00,1.26
8063.00,1.26
8062.00,1.26
8061.00,1.26
8060.00,1.26
8059.00,1.26
8058.00,1.26
8057.00,1.26
8056.00,1.26
8055.00,1.26
8054.00,1.26
8053.00,1.26
8052.00,1.26
8051.00,1.26
8050.00,1.26
8049.00,1.26
8048.00,1.26
8047.00,1.26
8046.00,1.26
8045.00,1.26
8044.00,1.26
8043.00,1.26
8042.00,1.26
8041.00,1.26
8040.00,1.26
8039.00,1.26
8038.00,1.26
8037.00,1.26
8036.00,1.26
8035.00,1.26
8034.00,1.26
8033.00,1.26
8032.00,1.26
8031.00,1.26
8030.00,1.26
8029.00,1.26
8028.00,1.26
8027.00,1.26
8026.00,1.26
8025.00,1.26
8024.00,1.27
8023.00,1.27
8022.00,1.27
8021.00,1.27
8020.00,1.27
8019.00,1.27
8018.00,1.27
8017.00,1.27
8016.00,1.27
8015.00,1.27
8014.00,1.27
8013.00,1.27
8012.00,1.27
8011.00,1.26
8010.00,1.26
8009.00,1.26
8008.00,1.26
8007.00,1.26
8006.00,1.26
8005.00,1.26
8004.00,1.27
8003.00,1.27
8002.00,1.27
8001.00,1.27
8000.00,1.27
7999.00,1.27
7998.00,1.27
7997.00,1.27
7996.00,1.27
7995.00,1.27
7994.00,1.27
7993.00,1.27
7992.00,1.27
7991.00,1.27
7990.00,1.28
7989.00,1.28
7988.00,1.28
7987.00,1.28
7986.00,1.28
7985.00,1.28
7984.00,1.28
7983.00,1.28
7982.00,1.28
7981.00,1.28
7980.00,1.28
7979.00,1.28
7978.00,1.28
7977.00,1.28
7976.00,1.28
7975.00,1.28
7974.00,1.28
7973.00,1.28
7972.00,1.28
7971.00,1.28
7970.00,1.28
7969.00,1.28
7968.00,1.28
7967.00,1.28
7966.00,1.28
7965.00,1.28
7964.00,1.28
7963.00,1.28
7962.00,1.28
7961.00,1.28
7960.00,1.28
7959.00,1.28
7958.00,1.28
7957.00,1.28
7956.00,1.28
7955.00,1.27
7954.00,1.27
7953.00,1.27
7952.00,1.28
7951.00,1.28
7950.00,1.28
7949.00,1.28
7948.00,1.28
7947.00,1.28
7946.00,1.28
7945.00,1.28
7944.00,1.28
7943.00,1.29
7942.00,1.29
7941.00,1.29
7940.00,1.29
7939.00,1.29
7938.00,1.29
7937.00,1.29
7936.00,1.29
7935.00,1.29
7934.00,1.29
7933.00,1.30
7932.00,1.30
7931.00,1.30
7930.00,1.30
7929.00,1.30
7928.00,1.30
7927.00,1.30
7926.00,1.30
7925.00,1.30
7924.00,1.30
7923.00,1.30
7922.00,1.30
7921.00,1.30
7920.00,1.30
7919.00,1.30
7918.00,1.30
7917.00,1.30
7916.00,1.30
7915.00,1.30
7914.00,1.30
7913.00,1.30
7912.00,1.30
7911.00,1.30
7910.00,1.30
7909.00,1.29
7908.00,1.29
7907.00,1.29
7906.00,1.29
7905.00,1.29
7904.00,1.29
7903.00,1.29
7902.00,1.29
7901.00,1.30
7900.00,1.30
7899.00,1.30
7898.00,1.30
7897.00,1.30
7896.00,1.30
7895.00,1.30
7894.00,1.30
7893.00,1.30
7892.00,1.30
7891.00,1.30
7890.00,1.30
7889.00,1.30
7888.00,1.30
7887.00,1.30
7886.00,1.30
7885.00,1.30
7884.00,1.30
7883.00,1.30
7882.00,1.30
7881.00,1.30
7880.00,1.30
7879.00,1.29
7878.00,1.29
7877.00,1.29
7876.00,1.29
7875.00,1.29
7874.00,1.29
7873.00,1.29
7872.00,1.29
7871.00,1.29
7870.00,1.29
7869.00,1.29
7868.00,1.29
7867.00,1.29
7866.00,1.29
7865.00,1.29
7864.00,1.29
7863.00,1.29
7862.00,1.29
7861.00,1.29
7860.00,1.29
7859.00,1.29
7858.00,1.29
7857.00,1.29
7856.00,1.29
7855.00,1.29
7854.00,1.29
7853.00,1.30
7852.00,1.30
7851.00,1.30
7850.00,1.30
7849.00,1.30
7848.00,1.30
7847.00,1.30
7846.00,1.30
7845.00,1.30
7844.00,1.30
7843.00,1.30
7842.00,1.30
7841.00,1.30
7840.00,1.30
7839.00,1.30
7838.00,1.30
7837.00,1.30
7836.00,1.30
7835.00,1.30
7834.00,1.30
7833.00,1.30
7832.00,1.30
7831.00,1.30
7830.00,1.30
7829.00,1.30
7828.00,1.30
7827.00,1.30
7826.00,1.30
7825.00,1.30
7824.00,1.30
7823.00,1.30
7822.00,1.30
7821.00,1.30
7820.00,1.30
7819.00,1.30
7818.00,1.30
7817.00,1.30
7816.00,1.30
7815.00,1.31
7814.00,1.31
7813.00,1.31
7812.00,1.31
7811.00,1.31
7810.00,1.31
7809.00,1.31
7808.00,1.31
7807.00,1.31
7806.00,1.31
7805.00,1.31
7804.00,1.31
7803.00,1.31
7802.00,1.31
7801.00,1.31
7800.00,1.31
7799.00,1.31
7798.00,1.31
7797.00,1.31
7796.00,1.31
7795.00,1.31
7794.00,1.31
7793.00,1.31
7792.00,1.31
7791.00,1.31
7790.00,1.31
7789.00,1.31
7788.00,1.31
7787.00,1.31
7786.00,1.31
7785.00,1.31
7784.00,1.31
7783.00,1.30
7782.00,1.30
7781.00,1.30
7780.00,1.30
7779.00,1.30
7778.00,1.30
7777.00,1.30
7776.00,1.30
7775.00,1.30
7774.00,1.30
7773.00,1.30
7772.00,1.30
7771.00,1.30
7770.00,1.30
7769.00,1.30
7768.00,1.30
7767.00,1.30
7766.00,1.30
7765.00,1.30
7764.00,1.30
7763.00,1.30
7762.00,1.30
7761.00,1.30
7760.00,1.30
7759.00,1.31
7758.00,1.31
7757.00,1.31
7756.00,1.31
7755.00,1.31
7754.00,1.31
7753.00,1.31
7752.00,1.31
7751.00,1.31
7750.00,1.31
7749.00,1.31
7748.00,1.31
7747.00,1.31
7746.00,1.32
7745.00,1.32
7744.00,1.32
7743.00,1.32
7742.00,1.32
7741.00,1.32
7740.00,1.32
7739.00,1.32
7738.00,1.32
7737.00,1.32
7736.00,1.32
7735.00,1.31
7734.00,1.31
7733.00,1.31
7732.00,1.31
7731.00,1.31
7730.00,1.31
7729.00,1.31
7728.00,1.31
7727.00,1.31
7726.00,1.31
7725.00,1.31
7724.00,1.31
7723.00,1.31
7722.00,1.31
7721.00,1.31
7720.00,1.31
7719.00,1.31
7718.00,1.31
7717.00,1.31
7716.00,1.31
7715.00,1.31
7714.00,1.31
7713.00,1.31
7712.00,1.31
7711.00,1.31
7710.00,1.31
7709.00,1.31
7708.00,1.31
7707.00,1.31
7706.00,1.31
7705.00,1.31
7704.00,1.31
7703.00,1.31
7702.00,1.31
7701.00,1.31
7700.00,1.31
7699.00,1.31
7698.00,1.31
7697.00,1.31
7696.00,1.31
7695.00,1.31
7694.00,1.31
7693.00,1.31
7692.00,1.31
7691.00,1.31
7690.00,1.31
7689.00,1.31
7688.00,1.31
7687.00,1.31
7686.00,1.31
7685.00,1.31
7684.00,1.31
7683.00,1.31
7682.00,1.31
7681.00,1.31
7680.00,1.31
7679.00,1.31
7678.00,1.31
7677.00,1.31
7676.00,1.31
7675.00,1.31
7674.00,1.31
7673.00,1.31
7672.00,1.30
7671.00,1.30
7670.00,1.30
7669.00,1.30
7668.00,1.30
7667.00,1.30
7666.00,1.30
7665.00,1.30
7664.00,1.30
7663.00,1.30
7662.00,1.30
7661.00,1.31
7660.00,1.31
7659.00,1.31
7658.00,1.31
7657.00,1.31
7656.00,1.31
7655.00,1.31
7654.00,1.31
7653.00,1.31
7652.00,1.31
7651.00,1.31
7650.00,1.31
7649.00,1.32
7648.00,1.32
7647.00,1.32
7646.00,1.32
7645.00,1.32
7644.00,1.32
7643.00,1.32
7642.00,1.32
7641.00,1.32
7640.00,1.32
7639.00,1.32
7638.00,1.31
7637.00,1.31
7636.00,1.31
7635.00,1.31
7634.00,1.31
7633.00,1.31
7632.00,1.31
7631.00,1.31
7630.00,1.31
7629.00,1.31
7628.00,1.31
7627.00,1.31
7626.00,1.31
7625.00,1.31
7624.00,1.31
7623.00,1.31
7622.00,1.31
7621.00,1.31
7620.00,1.31
7619.00,1.31
7618.00,1.31
7617.00,1.31
7616.00,1.31
7615.00,1.31
7614.00,1.31
7613.00,1.31
7612.00,1.31
7611.00,1.31
7610.00,1.31
7609.00,1.31
7608.00,1.31
7607.00,1.30
7606.00,1.30
7605.00,1.30
7604.00,1.30
7603.00,1.30
7602.00,1.30
7601.00,1.30
7600.00,1.30
7599.00,1.30
7598.00,1.30
7597.00,1.30
7596.00,1.31
7595.00,1.31
7594.00,1.31
7593.00,1.31
7592.00,1.31
7591.00,1.31
7590.00,1.31
7589.00,1.31
7588.00,1.31
7587.00,1.31
7586.00,1.31
7585.00,1.31
7584.00,1.31
7583.00,1.31
7582.00,1.31
7581.00,1.31
7580.00,1.31
7579.00,1.31
7578.00,1.31
7577.00,1.31
7576.00,1.31
7575.00,1.31
7574.00,1.31
7573.00,1.31
7572.00,1.31
7571.00,1.31
7570.00,1.31
7569.00,1.31
7568.00,1.31
7567.00,1.31
7566.00,1.31
7565.00,1.31
7564.00,1.31
7563.00,1.31
7562.00,1.31
7561.00,1.31
7560.00,1.31
7559.00,1.31
7558.00,1.31
7557.00,1.31
7556.00,1.31
7555.00,1.31
7554.00,1.31
7553.00,1.31
7552.00,1.31
7551.00,1.31
7550.00,1.31
7549.00,1.31
7548.00,1.31
7547.00,1.31
7546.00,1.31
7545.00,1.30
7544.00,1.30
7543.00,1.30
7542.00,1.30
7541.00,1.30
7540.00,1.30
7539.00,1.30
7538.00,1.30
7537.00,1.30
7536.00,1.30
7535.00,1.30
7534.00,1.30
7533.00,1.30
7532.00,1.30
7531.00,1.30
7530.00,1.30
7529.00,1.30
7528.00,1.30
7527.00,1.30
7526.00,1.30
7525.00,1.30
7524.00,1.30
7523.00,1.30
7522.00,1.30
7521.00,1.30
7520.00,1.30
7519.00,1.30
7518.00,1.30
7517.00,1.29
7516.00,1.29
7515.00,1.29
7514.00,1.29
7513.00,1.29
7512.00,1.29
7511.00,1.29
7510.00,1.29
7509.00,1.29
7508.00,1.29
7507.00,1.29
7506.00,1.29
7505.00,1.29
7504.00,1.29
7503.00,1.29
7502.00,1.29
7501.00,1.29
7500.00,1.29
7499.00,1.29
7498.00,1.29
7497.00,1.29
7496.00,1.29
7495.00,1.29
7494.00,1.29
7493.00,1.29
7492.00,1.29
7491.00,1.29
7490.00,1.29
7489.00,1.29
7488.00,1.29
7487.00,1.29
7486.00,1.29
7485.00,1.29
7484.00,1.29
7483.00,1.29
7482.00,1.29
7481.00,1.29
7480.00,1.29
7479.00,1.28
7478.00,1.28
7477.00,1.28
7476.00,1.28
7475.00,1.28
7474.00,1.28
7473.00,1.28
7472.00,1.28
7471.00,1.28
7470.00,1.28
7469.00,1.28
7468.00,1.28
7467.00,1.28
7466.00,1.28
7465.00,1.28
7464.00,1.28
7463.00,1.28
7462.00,1.28
7461.00,1.28
7460.00,1.28
7459.00,1.28
7458.00,1.27
7457.00,1.27
7456.00,1.27
7455.00,1.27
7454.00,1.27
7453.00,1.27
7452.00,1.27
7451.00,1.27
7450.00,1.27
7449.00,1.27
7448.00,1.27
7447.00,1.27
7446.00,1.27
7445.00,1.27
7444.00,1.27
7443.00,1.27
7442.00,1.27
7441.00,1.27
7440.00,1.27
7439.00,1.27
7438.00,1.27
7437.00,1.27
7436.00,1.27
7435.00,1.27
7434.00,1.26
7433.00,1.26
7432.00,1.26
7431.00,1.26
7430.00,1.26
7429.00,1.26
7428.00,1.26
7427.00,1.26
7426.00,1.25
7425.00,1.25
7424.00,1.25
7423.00,1.25
7422.00,1.25
7421.00,1.25
7420.00,1.25
7419.00,1.25
7418.00,1.25
7417.00,1.25
7416.00,1.24
7415.00,1.24
7414.00,1.24
7413.00,1.24
7412.00,1.24
7411.00,1.24
7410.00,1.24
7409.00,1.24
7408.00,1.24
7407.00,1.24
7406.00,1.24
7405.00,1.24
7404.00,1.24
7403.00,1.24
7402.00,1.24
7401.00,1.24
7400.00,1.24
7399.00,1.24
7398.00,1.24
7397.00,1.23
7396.00,1.23
7395.00,1.23
7394.00,1.23
7393.00,1.23
7392.00,1.23
7391.00,1.23
7390.00,1.23
7389.00,1.23
7388.00,1.23
7387.00,1.23
7386.00,1.22
7385.00,1.22
7384.00,1.22
7383.00,1.22
7382.00,1.22
7381.00,1.22
7380.00,1.22
7379.00,1.22
7378.00,1.22
7377.00,1.21
7376.00,1.21
7375.00,1.21
7374.00,1.21
7373.00,1.21
7372.00,1.21
7371.00,1.21
7370.00,1.21
7369.00,1.21
7368.00,1.21
7367.00,1.20
7366.00,1.20
7365.00,1.20
7364.00,1.20
7363.00,1.20
7362.00,1.20
7361.00,1.20
7360.00,1.20
7359.00,1.20
7358.00,1.20
7357.00,1.20
7356.00,1.20
7355.00,1.20
7354.00,1.20
7353.00,1.20
7352.00,1.20
7351.00,1.20
7350.00,1.20
7349.00,1.20
7348.00,1.20
7347.00,1.20
7346.00,1.20
7345.00,1.20
7344.00,1.20
7343.00,1.20
7342.00,1.20
7341.00,1.20
7340.00,1.20
7339.00,1.20
7338.00,1.20
7337.00,1.20
7336.00,1.20
7335.00,1.20
7334.00,1.20
7333.00,1.20
7332.00,1.20
7331.00,1.20
7330.00,1.19
7329.00,1.19
7328.00,1.19
7327.00,1.19
7326.00,1.19
7325.00,1.19
7324.00,1.19
7323.00,1.19
7322.00,1.19
7321.00,1.19
7320.00,1.19
7319.00,1.19
7318.00,1.19
7317.00,1.19
7316.00,1.19
7315.00,1.19
7314.00,1.19
7313.00,1.19
7312.00,1.19
7311.00,1.19
7310.00,1.19
7309.00,1.19
7308.00,1.19
7307.00,1.19
7306.00,1.19
7305.00,1.18
7304.00,1.18
7303.00,1.18
7302.00,1.18
7301.00,1.18
7300.00,1.18
7299.00,1.18
7298.00,1.18
7297.00,1.17
7296.00,1.17
7295.00,1.17
7294.00,1.17
7293.00,1.17
7292.00,1.17
7291.00,1.17
7290.00,1.17
7289.00,1.17
7288.00,1.17
7287.00,1.17
7286.00,1.17
7285.00,1.17
7284.00,1.17
7283.00,1.17
7282.00,1.17
7281.00,1.17
7280.00,1.16
7279.00,1.16
7278.00,1.16
7277.00,1.16
7276.00,1.16
7275.00,1.16
7274.00,1.16
7273.00,1.16
7272.00,1.16
7271.00,1.16
7270.00,1.15
7269.00,1.15
7268.00,1.15
7267.00,1.15
7266.00,1.15
7265.00,1.15
7264.00,1.15
7263.00,1.14
7262.00,1.14
7261.00,1.14
7260.00,1.14
7259.00,1.14
7258.00,1.14
7257.00,1.13
7256.00,1.13
7255.00,1.13
7254.00,1.13
7253.00,1.13
7252.00,1.13
7251.00,1.12
7250.00,1.12
7249.00,1.12
7248.00,1.12
7247.00,1.11
7246.00,1.11
7245.00,1.11
7244.00,1.11
7243.00,1.11
7242.00,1.10
7241.00,1.10
7240.00,1.10
7239.00,1.09
7238.00,1.09
7237.00,1.09
7236.00,1.09
7235.00,1.08
7234.00,1.08
7233.00,1.08
7232.00,1.08
7231.00,1.07
7230.00,1.07
7229.00,1.07
7228.00,1.07
7227.00,1.06
7226.00,1.06
7225.00,1.06
7224.00,1.06
7223.00,1.05
7222.00,1.05
7221.00,1.05
7220.00,1.04
7219.00,1.04
7218.00,1.04
7217.00,1.04
7216.00,1.03
7215.00,1.03
7214.00,1.03
7213.00,1.02
7212.00,1.02
7211.00,1.02
7210.00,1.01
7209.00,1.01
7208.00,1.01
7207.00,1.01
7206.00,1.00
7205.00,1.00
7204.00,1.00
7203.00,0.99
7202.00,0.99
7201.00,0.99
7200.00,0.99
7199.00,0.98
7198.00,0.98
7197.00,0.98
7196.00,0.98
7195.00,0.97
7194.00,0.97
7193.00,0.97
7192.00,0.96
7191.00,0.96
7190.00,0.96
7189.00,0.95
7188.00,0.95
7187.00,0.95
7186.00,0.95
7185.00,0.94
7184.00,0.94
7183.00,0.94
7182.00,0.94
7181.00,0.93
7180.00,0.93
7179.00,0.93
7178.00,0.93
7177.00,0.92
7176.00,0.92
7175.00,0.92
7174.00,0.92
7173.00,0.92
7172.00,0.91
7171.00,0.91
7170.00,0.91
7169.00,0.91
7168.00,0.90
7167.00,0.90
7166.00,0.90
7165.00,0.90
7164.00,0.89
7163.00,0.89
7162.00,0.89
7161.00,0.89
7160.00,0.88
7159.00,0.88
7158.00,0.88
7157.00,0.87
7156.00,0.87
7155.00,0.87
7154.00,0.87
7153.00,0.86
7152.00,0.86
7151.00,0.86
7150.00,0.85
7149.00,0.85
7148.00,0.85
7147.00,0.85
7146.00,0.85
7145.00,0.84
7144.00,0.84
7143.00,0.84
7142.00,0.84
7141.00,0.84
7140.00,0.84
7139.00,0.83
7138.00,0.83
7137.00,0.83
7136.00,0.83
7135.00,0.83
7134.00,0.83
7133.00,0.82
7132.00,0.82
7131.00,0.82
7130.00,0.82
7129.00,0.82
7128.00,0.81
7127.00,0.81
7126.00,0.81
7125.00,0.81
7124.00,0.81
7123.00,0.80
7122.00,0.80
7121.00,0.80
7120.00,0.80
7119.00,0.79
7118.00,0.79
7117.00,0.79
7116.00,0.78
7115.00,0.78
7114.00,0.78
7113.00,0.78
7112.00,0.77
7111.00,0.77
7110.00,0.77
7109.00,0.77
7108.00,0.76
7107.00,0.76
7106.00,0.76
7105.00,0.76
7104.00,0.75
7103.00,0.75
7102.00,0.75
7101.00,0.75
7100.00,0.74
7099.00,0.74
7098.00,0.74
7097.00,0.74
7096.00,0.74
7095.00,0.74
7094.00,0.73
7093.00,0.73
7092.00,0.73
7091.00,0.73
7090.00,0.73
7089.00,0.73
7088.00,0.72
7087.00,0.72
7086.00,0.72
7085.00,0.72
7084.00,0.72
7083.00,0.72
7082.00,0.72
7081.00,0.71
7080.00,0.71
7079.00,0.71
7078.00,0.71
7077.00,0.71
7076.00,0.71
7075.00,0.71
7074.00,0.71
7073.00,0.70
7072.00,0.70
7071.00,0.70
7070.00,0.70
7069.00,0.70
7068.00,0.70
7067.00,0.70
7066.00,0.69
7065.00,0.69
7064.00,0.69
7063.00,0.69
7062.00,0.69
7061.00,0.69
7060.00,0.69
7059.00,0.69
7058.00,0.69
7057.00,0.68
7056.00,0.68
7055.00,0.68
7054.00,0.68
7053.00,0.68
7052.00,0.68
7051.00,0.68
7050.00,0.68
7049.00,0.68
7048.00,0.68
7047.00,0.68
7046.00,0.68
7045.00,0.68
7044.00,0.67
7043.00,0.67
7042.00,0.67
7041.00,0.67
7040.00,0.67
7039.00,0.67
7038.00,0.67
7037.00,0.66
7036.00,0.66
7035.00,0.66
7034.00,0.66
7033.00,0.66
7032.00,0.66
7031.00,0.66
7030.00,0.65
7029.00,0.65
7028.00,0.65
7027.00,0.65
7026.00,0.65
7025.00,0.65
7024.00,0.65
7023.00,0.65
7022.00,0.65
7021.00,0.65
7020.00,0.65
7019.00,0.64
7018.00,0.64
7017.00,0.64
7016.00,0.64
7015.00,0.64
7014.00,0.64
7013.00,0.64
7012.00,0.64
7011.00,0.64
7010.00,0.64
7009.00,0.64
7008.00,0.64
7007.00,0.64
7006.00,0.64
7005.00,0.64
7004.00,0.64
7003.00,0.64
7002.00,0.64
7001.00,0.63
7000.00,0.63
6999.00,0.63
6998.00,0.63
6997.00,0.63
6996.00,0.63
6995.00,0.63
6994.00,0.63
6993.00,0.63
6992.00,0.63
6991.00,0.63
6990.00,0.63
6989.00,0.63
6988.00,0.63
6987.00,0.62
6986.00,0.62
6985.00,0.62
6984.00,0.62
6983.00,0.62
6982.00,0.62
6981.00,0.62
6980.00,0.62
6979.00,0.62
6978.00,0.62
6977.00,0.62
6976.00,0.62
6975.00,0.62
6974.00,0.62
6973.00,0.62
6972.00,0.62
6971.00,0.62
6970.00,0.62
6969.00,0.62
6968.00,0.62
6967.00,0.62
6966.00,0.62
6965.00,0.62
6964.00,0.62
6963.00,0.62
6962.00,0.62
6961.00,0.62
6960.00,0.62
6959.00,0.62
6958.00,0.62
6957.00,0.62
6956.00,0.62
6955.00,0.62
6954.00,0.62
6953.00,0.62
6952.00,0.62
6951.00,0.62
6950.00,0.62
6949.00,0.62
6948.00,0.61
6947.00,0.61
6946.00,0.61
6945.00,0.61
6944.00,0.61
6943.00,0.61
6942.00,0.61
6941.00,0.61
6940.00,0.61
6939.00,0.61
6938.00,0.61
6937.00,0.61
6936.00,0.61
6935.00,0.60
6934.00,0.60
6933.00,0.60
6932.00,0.60
6931.00,0.60
6930.00,0.60
6929.00,0.60
6928.00,0.60
6927.00,0.60
6926.00,0.60
6925.00,0.60
6924.00,0.60
6923.00,0.60
6922.00,0.60
6921.00,0.60
6920.00,0.60
6919.00,0.60
6918.00,0.61
6917.00,0.61
6916.00,0.61
6915.00,0.61
6914.00,0.61
6913.00,0.61
6912.00,0.61
6911.00,0.61
6910.00,0.61
6909.00,0.61
6908.00,0.61
6907.00,0.61
6906.00,0.61
6905.00,0.61
6904.00,0.61
6903.00,0.61
6902.00,0.61
6901.00,0.61
6900.00,0.61
6899.00,0.61
6898.00,0.61
6897.00,0.61
6896.00,0.61
6895.00,0.61
6894.00,0.61
6893.00,0.61
6892.00,0.61
6891.00,0.61
6890.00,0.60
6889.00,0.60
6888.00,0.60
6887.00,0.60
6886.00,0.60
6885.00,0.60
6884.00,0.60
6883.00,0.60
6882.00,0.60
6881.00,0.60
6880.00,0.60
6879.00,0.60
6878.00,0.60
6877.00,0.60
6876.00,0.60
6875.00,0.60
6874.00,0.60
6873.00,0.60
6872.00,0.60
6871.00,0.60
6870.00,0.60
6869.00,0.60
6868.00,0.60
6867.00,0.60
6866.00,0.60
6865.00,0.60
6864.00,0.60
6863.00,0.60
6862.00,0.60
6861.00,0.60
6860.00,0.60
6859.00,0.60
6858.00,0.60
6857.00,0.60
6856.00,0.60
6855.00,0.60
6854.00,0.60
6853.00,0.60
6852.00,0.60
6851.00,0.60
6850.00,0.60
6849.00,0.60
6848.00,0.60
6847.00,0.60
6846.00,0.60
6845.00,0.60
6844.00,0.60
6843.00,0.60
6842.00,0.60
6841.00,0.60
6840.00,0.61
6839.00,0.61
6838.00,0.61
6837.00,0.61
6836.00,0.61
6835.00,0.61
6834.00,0.61
6833.00,0.61
6832.00,0.61
6831.00,0.61
6830.00,0.61
6829.00,0.61
6828.00,0.61
6827.00,0.61
6826.00,0.61
6825.00,0.61
6824.00,0.61
6823.00,0.61
6822.00,0.61
6821.00,0.61
6820.00,0.61
6819.00,0.61
6818.00,0.61
6817.00,0.61
6816.00,0.61
6815.00,0.61
6814.00,0.61
6813.00,0.61
6812.00,0.61
6811.00,0.61
6810.00,0.61
6809.00,0.61
6808.00,0.61
6807.00,0.62
6806.00,0.62
6805.00,0.62
6804.00,0.62
6803.00,0.62
6802.00,0.62
6801.00,0.62
6800.00,0.62
6799.00,0.62
6798.00,0.62
6797.00,0.62
6796.00,0.62
6795.00,0.62
6794.00,0.62
6793.00,0.62
6792.00,0.62
6791.00,0.62
6790.00,0.62
6789.00,0.62
6788.00,0.62
6787.00,0.62
6786.00,0.62
6785.00,0.62
6784.00,0.62
6783.00,0.62
6782.00,0.62
6781.00,0.62
6780.00,0.63
6779.00,0.63
6778.00,0.63
6777.00,0.63
6776.00,0.63
6775.00,0.63
6774.00,0.63
6773.00,0.63
6772.00,0.63
6771.00,0.63
6770.00,0.63
6769.00,0.63
6768.00,0.63
6767.00,0.63
6766.00,0.64
6765.00,0.64
6764.00,0.64
6763.00,0.64
6762.00,0.64
6761.00,0.64
6760.00,0.64
6759.00,0.64
6758.00,0.64
6757.00,0.64
6756.00,0.64
6755.00,0.64
6754.00,0.64
6753.00,0.64
6752.00,0.64
6751.00,0.64
6750.00,0.64
6749.00,0.64
6748.00,0.64
6747.00,0.64
6746.00,0.64
6745.00,0.64
6744.00,0.64
6743.00,0.64
6742.00,0.64
6741.00,0.64
6740.00,0.64
6739.00,0.64
6738.00,0.64
6737.00,0.64
6736.00,0.65
6735.00,0.65
6734.00,0.65
6733.00,0.65
6732.00,0.65
6731.00,0.65
6730.00,0.65
6729.00,0.65
6728.00,0.65
6727.00,0.65
6726.00,0.66
6725.00,0.66
6724.00,0.66
6723.00,0.66
6722.00,0.66
6721.00,0.66
6720.00,0.66
6719.00,0.66
6718.00,0.66
6717.00,0.66
6716.00,0.66
6715.00,0.66
6714.00,0.66
6713.00,0.66
6712.00,0.66
6711.00,0.67
6710.00,0.67
6709.00,0.67
6708.00,0.67
6707.00,0.67
6706.00,0.67
6705.00,0.67
6704.00,0.67
6703.00,0.67
6702.00,0.67
6701.00,0.67
6700.00,0.67
6699.00,0.67
6698.00,0.67
6697.00,0.67
6696.00,0.67
6695.00,0.67
6694.00,0.67
6693.00,0.67
6692.00,0.67
6691.00,0.67
6690.00,0.67
6689.00,0.67
6688.00,0.67
6687.00,0.67
6686.00,0.67
6685.00,0.68
6684.00,0.68
6683.00,0.68
6682.00,0.68
6681.00,0.68
6680.00,0.68
6679.00,0.69
6678.00,0.69
6677.00,0.69
6676.00,0.69
6675.00,0.69
6674.00,0.69
6673.00,0.69
6672.00,0.69
6671.00,0.70
6670.00,0.70
6669.00,0.70
6668.00,0.70
6667.00,0.70
6666.00,0.70
6665.00,0.70
6664.00,0.70
6663.00,0.70
6662.00,0.70
6661.00,0.71
6660.00,0.71
6659.00,0.71
6658.00,0.71
6657.00,0.71
6656.00,0.71
6655.00,0.71
6654.00,0.71
6653.00,0.71
6652.00,0.71
6651.00,0.71
6650.00,0.71
6649.00,0.71
6648.00,0.71
6647.00,0.71
6646.00,0.71
6645.00,0.71
6644.00,0.71
6643.00,0.71
6642.00,0.72
6641.00,0.72
6640.00,0.72
6639.00,0.72
6638.00,0.72
6637.00,0.72
6636.00,0.72
6635.00,0.72
6634.00,0.72
6633.00,0.72
6632.00,0.72
6631.00,0.73
6630.00,0.73
6629.00,0.73
6628.00,0.73
6627.00,0.73
6626.00,0.73
6625.00,0.73
6624.00,0.73
6623.00,0.73
6622.00,0.73
6621.00,0.74
6620.00,0.74
6619.00,0.74
6618.00,0.74
6617.00,0.74
6616.00,0.74
6615.00,0.74
6614.00,0.75
6613.00,0.75
6612.00,0.75
6611.00,0.75
6610.00,0.75
6609.00,0.75
6608.00,0.75
6607.00,0.75
6606.00,0.75
6605.00,0.75
6604.00,0.76
6603.00,0.76
6602.00,0.76
6601.00,0.76
6600.00,0.76
6599.00,0.76
6598.00,0.76
6597.00,0.76
6596.00,0.76
6595.00,0.76
6594.00,0.76
6593.00,0.76
6592.00,0.76
6591.00,0.76
6590.00,0.76
6589.00,0.76
6588.00,0.76
6587.00,0.76
6586.00,0.76
6585.00,0.76
6584.00,0.76
6583.00,0.77
6582.00,0.77
6581.00,0.77
6580.00,0.77
6579.00,0.77
6578.00,0.77
6577.00,0.77
6576.00,0.77
6575.00,0.77
6574.00,0.77
6573.00,0.77
6572.00,0.77
6571.00,0.78
6570.00,0.78
6569.00,0.78
6568.00,0.78
6567.00,0.78
6566.00,0.78
6565.00,0.78
6564.00,0.78
6563.00,0.78
6562.00,0.78
6561.00,0.78
6560.00,0.78
6559.00,0.78
6558.00,0.78
6557.00,0.78
6556.00,0.78
6555.00,0.78
6554.00,0.79
6553.00,0.79
6552.00,0.79
6551.00,0.79
6550.00,0.79
6549.00,0.79
6548.00,0.79
6547.00,0.79
6546.00,0.79
6545.00,0.79
6544.00,0.79
6543.00,0.80
6542.00,0.80
6541.00,0.80
6540.00,0.80
6539.00,0.80
6538.00,0.80
6537.00,0.80
6536.00,0.80
6535.00,0.80
6534.00,0.80
6533.00,0.80
6532.00,0.81
6531.00,0.81
6530.00,0.81
6529.00,0.81
6528.00,0.81
6527.00,0.81
6526.00,0.81
6525.00,0.81
6524.00,0.81
6523.00,0.81
6522.00,0.81
6521.00,0.81
6520.00,0.81
6519.00,0.81
6518.00,0.81
6517.00,0.81
6516.00,0.81
6515.00,0.81
6514.00,0.81
6513.00,0.82
6512.00,0.82
6511.00,0.82
6510.00,0.82
6509.00,0.82
6508.00,0.82
6507.00,0.82
6506.00,0.82
6505.00,0.82
6504.00,0.82
6503.00,0.83
6502.00,0.83
6501.00,0.83
6500.00,0.83
6499.00,0.83
6498.00,0.83
6497.00,0.83
6496.00,0.83
6495.00,0.83
6494.00,0.83
6493.00,0.83
6492.00,0.83
6491.00,0.83
6490.00,0.83
6489.00,0.84
6488.00,0.84
6487.00,0.84
6486.00,0.84
6485.00,0.84
6484.00,0.84
6483.00,0.84
6482.00,0.84
6481.00,0.84
6480.00,0.84
6479.00,0.84
6478.00,0.84
6477.00,0.84
6476.00,0.84
6475.00,0.84
6474.00,0.84
6473.00,0.84
6472.00,0.84
6471.00,0.84
6470.00,0.84
6469.00,0.84
6468.00,0.84
6467.00,0.84
6466.00,0.84
6465.00,0.84
6464.00,0.84
6463.00,0.84
6462.00,0.84
6461.00,0.84
6460.00,0.84
6459.00,0.84
6458.00,0.85
6457.00,0.85
6456.00,0.85
6455.00,0.85
6454.00,0.85
6453.00,0.85
6452.00,0.85
6451.00,0.85
6450.00,0.85
6449.00,0.85
6448.00,0.85
6447.00,0.85
6446.00,0.85
6445.00,0.85
6444.00,0.85
6443.00,0.86
6442.00,0.86
6441.00,0.86
6440.00,0.86
6439.00,0.86
6438.00,0.86
6437.00,0.86
6436.00,0.86
6435.00,0.86
6434.00,0.86
6433.00,0.86
6432.00,0.86
6431.00,0.86
6430.00,0.86
6429.00,0.86
6428.00,0.86
6427.00,0.86
6426.00,0.86
6425.00,0.86
6424.00,0.86
6423.00,0.86
6422.00,0.86
6421.00,0.86
6420.00,0.86
6419.00,0.87
6418.00,0.87
6417.00,0.87
6416.00,0.87
6415.00,0.87
6414.00,0.87
6413.00,0.87
6412.00,0.87
6411.00,0.87
6410.00,0.87
6409.00,0.87
6408.00,0.87
6407.00,0.87
6406.00,0.88
6405.00,0.88
6404.00,0.88
6403.00,0.88
6402.00,0.88
6401.00,0.88
6400.00,0.88
6399.00,0.88
6398.00,0.88
6397.00,0.88
6396.00,0.88
6395.00,0.88
6394.00,0.88
6393.00,0.88
6392.00,0.88
6391.00,0.88
6390.00,0.88
6389.00,0.88
6388.00,0.88
6387.00,0.88
6386.00,0.89
6385.00,0.89
6384.00,0.89
6383.00,0.89
6382.00,0.89
6381.00,0.89
6380.00,0.89
6379.00,0.89
6378.00,0.89
6377.00,0.89
6376.00,0.89
6375.00,0.90
6374.00,0.90
6373.00,0.90
6372.00,0.90
6371.00,0.90
6370.00,0.90
6369.00,0.90
6368.00,0.90
6367.00,0.90
6366.00,0.90
6365.00,0.90
6364.00,0.90
6363.00,0.90
6362.00,0.90
6361.00,0.90
6360.00,0.90
6359.00,0.90
6358.00,0.90
6357.00,0.90
6356.00,0.90
6355.00,0.90
6354.00,0.90
6353.00,0.91
6352.00,0.91
6351.00,0.91
6350.00,0.91
6349.00,0.91
6348.00,0.91
6347.00,0.91
6346.00,0.91
6345.00,0.91
6344.00,0.91
6343.00,0.91
6342.00,0.91
6341.00,0.91
6340.00,0.92
6339.00,0.92
6338.00,0.92
6337.00,0.92
6336.00,0.92
6335.00,0.92
6334.00,0.92
6333.00,0.92
6332.00,0.92
6331.00,0.92
6330.00,0.92
6329.00,0.92
6328.00,0.92
6327.00,0.92
6326.00,0.92
6325.00,0.92
6324.00,0.92
6323.00,0.92
6322.00,0.93
6321.00,0.93
6320.00,0.93
6319.00,0.93
6318.00,0.93
6317.00,0.93
6316.00,0.93
6315.00,0.93
6314.00,0.93
6313.00,0.93
6312.00,0.93
6311.00,0.93
6310.00,0.94
6309.00,0.94
6308.00,0.94
6307.00,0.94
6306.00,0.94
6305.00,0.94
6304.00,0.94
6303.00,0.94
6302.00,0.94
6301.00,0.94
6300.00,0.94
6299.00,0.95
6298.00,0.95
6297.00,0.95
6296.00,0.95
6295.00,0.95
6294.00,0.95
6293.00,0.95
6292.00,0.95
6291.00,0.95
6290.00,0.95
6289.00,0.95
6288.00,0.95
6287.00,0.96
6286.00,0.96
6285.00,0.96
6284.00,0.96
6283.00,0.96
6282.00,0.96
6281.00,0.96
6280.00,0.96
6279.00,0.97
6278.00,0.97
6277.00,0.97
6276.00,0.97
6275.00,0.97
6274.00,0.97
6273.00,0.97
6272.00,0.98
6271.00,0.98
6270.00,0.98
6269.00,0.98
6268.00,0.98
6267.00,0.98
6266.00,0.98
6265.00,0.98
6264.00,0.98
6263.00,0.98
6262.00,0.98
6261.00,0.98
6260.00,0.99
6259.00,0.99
6258.00,0.99
6257.00,0.99
6256.00,0.99
6255.00,0.99
6254.00,0.99
6253.00,0.99
6252.00,0.99
6251.00,0.99
6250.00,0.99
6249.00,0.99
6248.00,0.99
6247.00,1.00
6246.00,1.00
6245.00,1.00
6244.00,1.00
6243.00,1.00
6242.00,1.00
6241.00,1.00
6240.00,1.01
6239.00,1.01
6238.00,1.01
6237.00,1.01
6236.00,1.01
6235.00,1.01
6234.00,1.01
6233.00,1.02
6232.00,1.02
6231.00,1.02
6230.00,1.02
6229.00,1.02
6228.00,1.02
6227.00,1.02
6226.00,1.02
6225.00,1.03
6224.00,1.03
6223.00,1.03
6222.00,1.03
6221.00,1.03
6220.00,1.03
6219.00,1.03
6218.00,1.04
6217.00,1.04
6216.00,1.04
6215.00,1.04
6214.00,1.04
6213.00,1.04
6212.00,1.04
6211.00,1.04
6210.00,1.05
6209.00,1.05
6208.00,1.05
6207.00,1.05
6206.00,1.05
6205.00,1.05
6204.00,1.05
6203.00,1.05
6202.00,1.05
6201.00,1.06
6200.00,1.06
6199.00,1.06
6198.00,1.06
6197.00,1.06
6196.00,1.06
6195.00,1.06
6194.00,1.06
6193.00,1.06
6192.00,1.07
6191.00,1.07
6190.00,1.07
6189.00,1.07
6188.00,1.07
6187.00,1.07
6186.00,1.07
6185.00,1.07
6184.00,1.07
6183.00,1.07
6182.00,1.07
6181.00,1.07
6180.00,1.07
6179.00,1.08
6178.00,1.08
6177.00,1.08
6176.00,1.08
6175.00,1.08
6174.00,1.08
6173.00,1.08
6172.00,1.08
6171.00,1.08
6170.00,1.08
6169.00,1.09
6168.00,1.09
6167.00,1.09
6166.00,1.09
6165.00,1.09
6164.00,1.09
6163.00,1.10
6162.00,1.10
6161.00,1.10
6160.00,1.10
6159.00,1.10
6158.00,1.10
6157.00,1.10
6156.00,1.10
6155.00,1.11
6154.00,1.11
6153.00,1.11
6152.00,1.11
6151.00,1.11
6150.00,1.11
6149.00,1.11
6148.00,1.11
6147.00,1.12
6146.00,1.12
6145.00,1.12
6144.00,1.12
6143.00,1.12
6142.00,1.12
6141.00,1.12
6140.00,1.13
6139.00,1.13
6138.00,1.13
6137.00,1.13
6136.00,1.13
6135.00,1.13
6134.00,1.13
6133.00,1.13
6132.00,1.13
6131.00,1.13
6130.00,1.13
6129.00,1.14
6128.00,1.14
6127.00,1.14
6126.00,1.14
6125.00,1.14
6124.00,1.14
6123.00,1.14
6122.00,1.14
6121.00,1.14
6120.00,1.14
6119.00,1.15
6118.00,1.15
6117.00,1.15
6116.00,1.15
6115.00,1.15
6114.00,1.15
6113.00,1.15
6112.00,1.16
6111.00,1.16
6110.00,1.16
6109.00,1.16
6108.00,1.16
6107.00,1.17
6106.00,1.17
6105.00,1.17
6104.00,1.17
6103.00,1.17
6102.00,1.17
6101.00,1.17
6100.00,1.18
6099.00,1.18
6098.00,1.18
6097.00,1.18
6096.00,1.18
6095.00,1.18
6094.00,1.18
6093.00,1.18
6092.00,1.18
6091.00,1.19
6090.00,1.19
6089.00,1.19
6088.00,1.19
6087.00,1.19
6086.00,1.19
6085.00,1.19
6084.00,1.19
6083.00,1.19
6082.00,1.19
6081.00,1.19
6080.00,1.19
6079.00,1.19
6078.00,1.20
6077.00,1.20
6076.00,1.20
6075.00,1.20
6074.00,1.20
6073.00,1.20
6072.00,1.20
6071.00,1.20
6070.00,1.21
6069.00,1.21
6068.00,1.21
6067.00,1.21
6066.00,1.21
6065.00,1.21
6064.00,1.21
6063.00,1.21
6062.00,1.21
6061.00,1.21
6060.00,1.22
6059.00,1.22
6058.00,1.22
6057.00,1.22
6056.00,1.22
6055.00,1.22
6054.00,1.22
6053.00,1.22
6052.00,1.22
6051.00,1.22
6050.00,1.22
6049.00,1.22
6048.00,1.22
6047.00,1.23
6046.00,1.23
6045.00,1.23
6044.00,1.23
6043.00,1.23
6042.00,1.23
6041.00,1.23
6040.00,1.23
6039.00,1.23
6038.00,1.23
6037.00,1.23
6036.00,1.23
6035.00,1.23
6034.00,1.23
6033.00,1.23
6032.00,1.23
6031.00,1.23
6030.00,1.23
6029.00,1.23
6028.00,1.23
6027.00,1.23
6026.00,1.23
6025.00,1.23
6024.00,1.23
6023.00,1.23
6022.00,1.23
6021.00,1.23
6020.00,1.23
6019.00,1.24
6018.00,1.24
6017.00,1.24
6016.00,1.24
6015.00,1.24
6014.00,1.24
6013.00,1.24
6012.00,1.24
6011.00,1.24
6010.00,1.24
6009.00,1.24
6008.00,1.24
6007.00,1.24
6006.00,1.23
6005.00,1.23
6004.00,1.23
6003.00,1.23
6002.00,1.23
6001.00,1.23
6000.00,1.23
5999.00,1.23
5998.00,1.23
5997.00,1.23
5996.00,1.23
5995.00,1.23
5994.00,1.23
5993.00,1.23
5992.00,1.22
5991.00,1.22
5990.00,1.22
5989.00,1.22
5988.00,1.22
5987.00,1.22
5986.00,1.21
5985.00,1.21
5984.00,1.21
5983.00,1.21
5982.00,1.20
5981.00,1.20
5980.00,1.20
5979.00,1.19
5978.00,1.19
5977.00,1.19
5976.00,1.18
5975.00,1.18
5974.00,1.18
5973.00,1.17
5972.00,1.17
5971.00,1.16
5970.00,1.16
5969.00,1.15
5968.00,1.15
5967.00,1.14
5966.00,1.14
5965.00,1.13
5964.00,1.12
5963.00,1.12
5962.00,1.11
5961.00,1.10
5960.00,1.10
5959.00,1.09
5958.00,1.08
5957.00,1.08
5956.00,1.07
5955.00,1.07
5954.00,1.06
5953.00,1.05
5952.00,1.05
5951.00,1.04
5950.00,1.04
5949.00,1.03
5948.00,1.03
5947.00,1.03
5946.00,1.02
5945.00,1.02
5944.00,1.02
5943.00,1.01
5942.00,1.01
5941.00,1.01
5940.00,1.01
5939.00,1.01
5938.00,1.01
5937.00,1.01
5936.00,1.00
5935.00,1.00
5934.00,1.00
5933.00,1.00
5932.00,1.00
5931.00,1.00
5930.00,1.00
5929.00,1.00
5928.00,1.00
5927.00,1.00
5926.00,1.00
5925.00,1.00
5924.00,0.99
5923.00,0.99
5922.00,0.99
5921.00,0.99
5920.00,0.99
5919.00,0.98
5918.00,0.98
5917.00,0.98
5916.00,0.98
5915.00,0.97
5914.00,0.97
5913.00,0.97
5912.00,0.97
5911.00,0.97
5910.00,0.96
5909.00,0.96
5908.00,0.96
5907.00,0.96
5906.00,0.96
5905.00,0.96
5904.00,0.95
5903.00,0.95
5902.00,0.95
5901.00,0.95
5900.00,0.95
5899.00,0.95
5898.00,0.95
5897.00,0.95
5896.00,0.96
5895.00,0.96
5894.00,0.96
5893.00,0.96
5892.00,0.96
5891.00,0.96
5890.00,0.97
5889.00,0.97
5888.00,0.97
5887.00,0.97
5886.00,0.98
5885.00,0.98
5884.00,0.98
5883.00,0.99
5882.00,0.99
5881.00,0.99
5880.00,0.99
5879.00,1.00
5878.00,1.00
5877.00,1.00
5876.00,1.00
5875.00,1.01
5874.00,1.01
5873.00,1.01
5872.00,1.01
5871.00,1.01
5870.00,1.01
5869.00,1.02
5868.00,1.02
5867.00,1.02
5866.00,1.02
5865.00,1.02
5864.00,1.02
5863.00,1.02
5862.00,1.02
5861.00,1.02
5860.00,1.03
5859.00,1.03
5858.00,1.03
5857.00,1.03
5856.00,1.03
5855.00,1.03
5854.00,1.03
5853.00,1.03
5852.00,1.03
5851.00,1.03
5850.00,1.03
5849.00,1.04
5848.00,1.04
5847.00,1.04
5846.00,1.04
5845.00,1.04
5844.00,1.04
5843.00,1.04
5842.00,1.04
5841.00,1.04
5840.00,1.04
5839.00,1.04
5838.00,1.04
5837.00,1.04
5836.00,1.04
5835.00,1.04
5834.00,1.04
5833.00,1.04
5832.00,1.04
5831.00,1.04
5830.00,1.04
5829.00,1.04
5828.00,1.04
5827.00,1.04
5826.00,1.04
5825.00,1.04
5824.00,1.04
5823.00,1.04
5822.00,1.04
5821.00,1.04
5820.00,1.05
5819.00,1.05
5818.00,1.05
5817.00,1.05
5816.00,1.05
5815.00,1.05
5814.00,1.05
5813.00,1.05
5812.00,1.05
5811.00,1.05
5810.00,1.05
5809.00,1.05
5808.00,1.04
5807.00,1.04
5806.00,1.04
5805.00,1.04
5804.00,1.04
5803.00,1.04
5802.00,1.04
5801.00,1.04
5800.00,1.04
5799.00,1.03
5798.00,1.03
5797.00,1.03
5796.00,1.03
5795.00,1.03
5794.00,1.02
5793.00,1.02
5792.00,1.02
5791.00,1.02
5790.00,1.02
5789.00,1.01
5788.00,1.01
5787.00,1.01
5786.00,1.01
5785.00,1.01
5784.00,1.01
5783.00,1.00
5782.00,1.00
5781.00,1.00
5780.00,1.00
5779.00,1.00
5778.00,1.00
5777.00,1.00
5776.00,1.00
5775.00,1.00
5774.00,1.00
5773.00,1.00
5772.00,1.00
5771.00,1.00
5770.00,1.00
5769.00,1.00
5768.00,1.00
5767.00,1.00
5766.00,1.00
5765.00,1.01
5764.00,1.01
5763.00,1.01
5762.00,1.01
5761.00,1.01
5760.00,1.02
5759.00,1.02
5758.00,1.02
5757.00,1.02
5756.00,1.03
5755.00,1.03
5754.00,1.03
5753.00,1.04
5752.00,1.04
5751.00,1.04
5750.00,1.05
5749.00,1.05
5748.00,1.05
5747.00,1.05
5746.00,1.06
5745.00,1.06
5744.00,1.06
5743.00,1.07
5742.00,1.07
5741.00,1.07
5740.00,1.07
5739.00,1.08
5738.00,1.08
5737.00,1.08
5736.00,1.08
5735.00,1.08
5734.00,1.08
5733.00,1.09
5732.00,1.09
5731.00,1.09
5730.00,1.09
5729.00,1.09
5728.00,1.09
5727.00,1.09
5726.00,1.09
5725.00,1.09
5724.00,1.09
5723.00,1.09
5722.00,1.09
5721.00,1.09
5720.00,1.10
5719.00,1.10
5718.00,1.10
5717.00,1.10
5716.00,1.10
5715.00,1.10
5714.00,1.10
5713.00,1.10
5712.00,1.10
5711.00,1.10
5710.00,1.09
5709.00,1.09
5708.00,1.09
5707.00,1.09
5706.00,1.09
5705.00,1.09
5704.00,1.09
5703.00,1.09
5702.00,1.09
5701.00,1.09
5700.00,1.09
5699.00,1.09
5698.00,1.09
5697.00,1.08
5696.00,1.08
5695.00,1.08
5694.00,1.08
5693.00,1.08
5692.00,1.08
5691.00,1.07
5690.00,1.07
5689.00,1.07
5688.00,1.07
5687.00,1.07
5686.00,1.07
5685.00,1.07
5684.00,1.06
5683.00,1.06
5682.00,1.06
5681.00,1.06
5680.00,1.06
5679.00,1.06
5678.00,1.06
5677.00,1.06
5676.00,1.06
5675.00,1.06
5674.00,1.06
5673.00,1.06
5672.00,1.06
5671.00,1.06
5670.00,1.06
5669.00,1.06
5668.00,1.06
5667.00,1.06
5666.00,1.06
5665.00,1.06
5664.00,1.06
5663.00,1.06
5662.00,1.07
5661.00,1.07
5660.00,1.07
5659.00,1.07
5658.00,1.07
5657.00,1.07
5656.00,1.07
5655.00,1.08
5654.00,1.08
5653.00,1.08
5652.00,1.08
5651.00,1.08
5650.00,1.09
5649.00,1.09
5648.00,1.09
5647.00,1.09
5646.00,1.09
5645.00,1.10
5644.00,1.10
5643.00,1.10
5642.00,1.10
5641.00,1.10
5640.00,1.11
5639.00,1.11
5638.00,1.11
5637.00,1.11
5636.00,1.11
5635.00,1.11
5634.00,1.12
5633.00,1.12
5632.00,1.12
5631.00,1.12
5630.00,1.12
5629.00,1.12
5628.00,1.12
5627.00,1.12
5626.00,1.12
5625.00,1.13
5624.00,1.13
5623.00,1.13
5622.00,1.13
5621.00,1.13
5620.00,1.13
5619.00,1.13
5618.00,1.14
5617.00,1.14
5616.00,1.14
5615.00,1.14
5614.00,1.14
5613.00,1.14
5612.00,1.14
5611.00,1.15
5610.00,1.15
5609.00,1.15
5608.00,1.15
5607.00,1.15
5606.00,1.15
5605.00,1.15
5604.00,1.16
5603.00,1.16
5602.00,1.16
5601.00,1.16
5600.00,1.16
5599.00,1.16
5598.00,1.17
5597.00,1.17
5596.00,1.17
5595.00,1.17
5594.00,1.17
5593.00,1.17
5592.00,1.18
5591.00,1.18
5590.00,1.18
5589.00,1.18
5588.00,1.18
5587.00,1.18
5586.00,1.18
5585.00,1.18
5584.00,1.19
5583.00,1.19
5582.00,1.19
5581.00,1.19
5580.00,1.19
5579.00,1.19
5578.00,1.19
5577.00,1.19
5576.00,1.20
5575.00,1.20
5574.00,1.20
5573.00,1.20
5572.00,1.20
5571.00,1.20
5570.00,1.20
5569.00,1.20
5568.00,1.21
5567.00,1.21
5566.00,1.21
5565.00,1.21
5564.00,1.21
5563.00,1.21
5562.00,1.21
5561.00,1.21
5560.00,1.21
5559.00,1.22
5558.00,1.22
5557.00,1.22
5556.00,1.22
5555.00,1.22
5554.00,1.22
5553.00,1.22
5552.00,1.22
5551.00,1.23
5550.00,1.23
5549.00,1.23
5548.00,1.23
5547.00,1.23
5546.00,1.23
5545.00,1.23
5544.00,1.23
5543.00,1.23
5542.00,1.23
5541.00,1.24
5540.00,1.24
5539.00,1.24
5538.00,1.24
5537.00,1.24
5536.00,1.24
5535.00,1.24
5534.00,1.24
5533.00,1.24
5532.00,1.24
5531.00,1.25
5530.00,1.25
5529.00,1.25
5528.00,1.25
5527.00,1.25
5526.00,1.25
5525.00,1.25
5524.00,1.25
5523.00,1.25
5522.00,1.26
5521.00,1.26
5520.00,1.26
5519.00,1.26
5518.00,1.26
5517.00,1.26
5516.00,1.26
5515.00,1.26
5514.00,1.26
5513.00,1.26
5512.00,1.26
5511.00,1.26
5510.00,1.26
5509.00,1.26
5508.00,1.26
5507.00,1.26
5506.00,1.26
5505.00,1.26
5504.00,1.26
5503.00,1.26
5502.00,1.26
5501.00,1.26
5500.00,1.27
5499.00,1.27
5498.00,1.27
5497.00,1.27
5496.00,1.27
5495.00,1.27
5494.00,1.27
5493.00,1.27
5492.00,1.27
5491.00,1.28
5490.00,1.28
5489.00,1.28
5488.00,1.28
5487.00,1.28
5486.00,1.28
5485.00,1.28
5484.00,1.28
5483.00,1.28
5482.00,1.29
5481.00,1.29
5480.00,1.29
5479.00,1.29
5478.00,1.29
5477.00,1.29
5476.00,1.29
5475.00,1.29
5474.00,1.29
5473.00,1.29
5472.00,1.29
5471.00,1.29
5470.00,1.30
5469.00,1.30
5468.00,1.30
5467.00,1.30
5466.00,1.30
5465.00,1.30
5464.00,1.30
5463.00,1.30
5462.00,1.30
5461.00,1.31
5460.00,1.31
5459.00,1.31
5458.00,1.31
5457.00,1.31
5456.00,1.31
5455.00,1.31
5454.00,1.31
5453.00,1.31
5452.00,1.31
5451.00,1.32
5450.00,1.32
5449.00,1.32
5448.00,1.32
5447.00,1.32
5446.00,1.32
5445.00,1.32
5444.00,1.32
5443.00,1.32
5442.00,1.32
5441.00,1.32
5440.00,1.32
5439.00,1.32
5438.00,1.32
5437.00,1.32
5436.00,1.32
5435.00,1.32
5434.00,1.32
5433.00,1.32
5432.00,1.32
5431.00,1.32
5430.00,1.32
5429.00,1.32
5428.00,1.32
5427.00,1.32
5426.00,1.32
5425.00,1.32
5424.00,1.32
5423.00,1.32
5422.00,1.32
5421.00,1.32
5420.00,1.32
5419.00,1.32
5418.00,1.32
5417.00,1.32
5416.00,1.32
5415.00,1.32
5414.00,1.32
5413.00,1.32
5412.00,1.32
5411.00,1.32
5410.00,1.32
5409.00,1.32
5408.00,1.32
5407.00,1.32
5406.00,1.31
5405.00,1.31
5404.00,1.31
5403.00,1.31
5402.00,1.31
5401.00,1.31
5400.00,1.31
5399.00,1.31
5398.00,1.31
5397.00,1.31
5396.00,1.31
5395.00,1.31
5394.00,1.31
5393.00,1.31
5392.00,1.31
5391.00,1.30
5390.00,1.30
5389.00,1.30
5388.00,1.30
5387.00,1.30
5386.00,1.30
5385.00,1.29
5384.00,1.29
5383.00,1.29
5382.00,1.29
5381.00,1.29
5380.00,1.28
5379.00,1.28
5378.00,1.28
5377.00,1.28
5376.00,1.27
5375.00,1.27
5374.00,1.27
5373.00,1.26
5372.00,1.26
5371.00,1.26
5370.00,1.25
5369.00,1.25
5368.00,1.24
5367.00,1.24
5366.00,1.24
5365.00,1.23
5364.00,1.23
5363.00,1.22
5362.00,1.22
5361.00,1.21
5360.00,1.21
5359.00,1.20
5358.00,1.19
5357.00,1.19
5356.00,1.18
5355.00,1.17
5354.00,1.17
5353.00,1.16
5352.00,1.15
5351.00,1.14
5350.00,1.14
5349.00,1.13
5348.00,1.12
5347.00,1.11
5346.00,1.10
5345.00,1.10
5344.00,1.09
5343.00,1.08
5342.00,1.07
5341.00,1.06
5340.00,1.05
5339.00,1.04
5338.00,1.03
5337.00,1.03
5336.00,1.02
5335.00,1.01
5334.00,1.00
5333.00,0.99
5332.00,0.98
5331.00,0.97
5330.00,0.96
5329.00,0.95
5328.00,0.95
5327.00,0.94
5326.00,0.93
5325.00,0.92
5324.00,0.91
5323.00,0.90
5322.00,0.89
5321.00,0.88
5320.00,0.87
5319.00,0.87
5318.00,0.86
5317.00,0.85
5316.00,0.84
5315.00,0.83
5314.00,0.82
5313.00,0.82
5312.00,0.81
5311.00,0.80
5310.00,0.79
5309.00,0.79
5308.00,0.78
5307.00,0.78
5306.00,0.77
5305.00,0.77
5304.00,0.76
5303.00,0.76
5302.00,0.75
5301.00,0.75
5300.00,0.74
5299.00,0.74
5298.00,0.74
5297.00,0.73
5296.00,0.73
5295.00,0.73
5294.00,0.73
5293.00,0.72
5292.00,0.72
5291.00,0.72
5290.00,0.72
5289.00,0.71
5288.00,0.71
5287.00,0.71
5286.00,0.71
5285.00,0.71
5284.00,0.70
5283.00,0.70
5282.00,0.70
5281.00,0.70
5280.00,0.70
5279.00,0.70
5278.00,0.70
5277.00,0.70
5276.00,0.70
5275.00,0.70
5274.00,0.70
5273.00,0.70
5272.00,0.70
5271.00,0.70
5270.00,0.70
5269.00,0.70
5268.00,0.70
5267.00,0.69
5266.00,0.69
5265.00,0.69
5264.00,0.69
5263.00,0.69
5262.00,0.69
5261.00,0.69
5260.00,0.69
5259.00,0.69
5258.00,0.69
5257.00,0.69
5256.00,0.69
5255.00,0.69
5254.00,0.69
5253.00,0.69
5252.00,0.69
5251.00,0.69
5250.00,0.69
5249.00,0.69
5248.00,0.69
5247.00,0.69
5246.00,0.69
5245.00,0.69
5244.00,0.69
5243.00,0.69
5242.00,0.69
5241.00,0.69
5240.00,0.69
5239.00,0.69
5238.00,0.69
5237.00,0.69
5236.00,0.69
5235.00,0.69
5234.00,0.69
5233.00,0.69
5232.00,0.69
5231.00,0.69
5230.00,0.69
5229.00,0.69
5228.00,0.69
5227.00,0.69
5226.00,0.69
5225.00,0.69
5224.00,0.69
5223.00,0.70
5222.00,0.70
5221.00,0.70
5220.00,0.70
5219.00,0.70
5218.00,0.70
5217.00,0.70
5216.00,0.70
5215.00,0.70
5214.00,0.70
5213.00,0.70
5212.00,0.70
5211.00,0.70
5210.00,0.70
5209.00,0.70
5208.00,0.70
5207.00,0.70
5206.00,0.70
5205.00,0.70
5204.00,0.71
5203.00,0.71
5202.00,0.71
5201.00,0.71
5200.00,0.71
5199.00,0.71
5198.00,0.71
5197.00,0.71
5196.00,0.71
5195.00,0.71
5194.00,0.71
5193.00,0.71
5192.00,0.71
5191.00,0.71
5190.00,0.71
5189.00,0.71
5188.00,0.71
5187.00,0.71
5186.00,0.71
5185.00,0.71
5184.00,0.71
5183.00,0.71
5182.00,0.71
5181.00,0.71
5180.00,0.71
5179.00,0.71
5178.00,0.71
5177.00,0.71
5176.00,0.71
5175.00,0.71
5174.00,0.71
5173.00,0.71
5172.00,0.71
5171.00,0.71
5170.00,0.71
5169.00,0.71
5168.00,0.71
5167.00,0.71
5166.00,0.71
5165.00,0.71
5164.00,0.72
5163.00,0.72
5162.00,0.72
5161.00,0.72
5160.00,0.72
5159.00,0.72
5158.00,0.72
5157.00,0.72
5156.00,0.72
5155.00,0.72
5154.00,0.72
5153.00,0.72
5152.00,0.72
5151.00,0.72
5150.00,0.72
5149.00,0.72
5148.00,0.72
5147.00,0.72
5146.00,0.72
5145.00,0.73
5144.00,0.73
5143.00,0.73
5142.00,0.73
5141.00,0.73
5140.00,0.73
5139.00,0.73
5138.00,0.73
5137.00,0.73
5136.00,0.73
5135.00,0.73
5134.00,0.73
5133.00,0.73
5132.00,0.73
5131.00,0.73
5130.00,0.73
5129.00,0.73
5128.00,0.73
5127.00,0.73
5126.00,0.73
5125.00,0.73
5124.00,0.73
5123.00,0.73
5122.00,0.74
5121.00,0.74
5120.00,0.74
5119.00,0.74
5118.00,0.74
5117.00,0.74
5116.00,0.74
5115.00,0.74
5114.00,0.74
5113.00,0.74
5112.00,0.74
5111.00,0.74
5110.00,0.74
5109.00,0.74
5108.00,0.75
5107.00,0.75
5106.00,0.75
5105.00,0.75
5104.00,0.75
5103.00,0.75
5102.00,0.75
5101.00,0.75
5100.00,0.75
5099.00,0.75
5098.00,0.75
5097.00,0.75
5096.00,0.75
5095.00,0.75
5094.00,0.75
5093.00,0.75
5092.00,0.75
5091.00,0.75
5090.00,0.75
5089.00,0.75
5088.00,0.75
5087.00,0.75
5086.00,0.75
5085.00,0.75
5084.00,0.75
5083.00,0.75
5082.00,0.75
5081.00,0.75
5080.00,0.75
5079.00,0.75
5078.00,0.76
5077.00,0.76
5076.00,0.76
5075.00,0.76
5074.00,0.76
5073.00,0.76
5072.00,0.76
5071.00,0.76
5070.00,0.76
5069.00,0.76
5068.00,0.76
5067.00,0.76
5066.00,0.76
5065.00,0.76
5064.00,0.76
5063.00,0.76
5062.00,0.77
5061.00,0.77
5060.00,0.77
5059.00,0.77
5058.00,0.77
5057.00,0.77
5056.00,0.77
5055.00,0.77
5054.00,0.77
5053.00,0.77
5052.00,0.77
5051.00,0.77
5050.00,0.77
5049.00,0.77
5048.00,0.77
5047.00,0.78
5046.00,0.78
5045.00,0.78
5044.00,0.78
5043.00,0.78
5042.00,0.78
5041.00,0.78
5040.00,0.78
5039.00,0.78
5038.00,0.78
5037.00,0.78
5036.00,0.78
5035.00,0.78
5034.00,0.78
5033.00,0.78
5032.00,0.78
5031.00,0.78
5030.00,0.78
5029.00,0.78
5028.00,0.78
5027.00,0.78
5026.00,0.79
5025.00,0.79
5024.00,0.79
5023.00,0.79
5022.00,0.79
5021.00,0.79
5020.00,0.79
5019.00,0.79
5018.00,0.79
5017.00,0.79
5016.00,0.79
5015.00,0.79
5014.00,0.79
5013.00,0.79
5012.00,0.80
5011.00,0.80
5010.00,0.80
5009.00,0.80
5008.00,0.80
5007.00,0.80
5006.00,0.80
5005.00,0.80
5004.00,0.80
5003.00,0.80
5002.00,0.80
5001.00,0.80
5000.00,0.80
4999.00,0.80
4998.00,0.80
4997.00,0.80
4996.00,0.80
4995.00,0.80
4994.00,0.81
4993.00,0.81
4992.00,0.81
4991.00,0.81
4990.00,0.81
4989.00,0.81
4988.00,0.81
4987.00,0.81
4986.00,0.81
4985.00,0.81
4984.00,0.82
4983.00,0.82
4982.00,0.82
4981.00,0.82
4980.00,0.82
4979.00,0.82
4978.00,0.82
4977.00,0.82
4976.00,0.82
4975.00,0.83
4974.00,0.83
4973.00,0.83
4972.00,0.83
4971.00,0.83
4970.00,0.83
4969.00,0.83
4968.00,0.83
4967.00,0.83
4966.00,0.83
4965.00,0.83
4964.00,0.83
4963.00,0.83
4962.00,0.83
4961.00,0.83
4960.00,0.83
4959.00,0.83
4958.00,0.83
4957.00,0.83
4956.00,0.83
4955.00,0.83
4954.00,0.83
4953.00,0.83
4952.00,0.83
4951.00,0.83
4950.00,0.84
4949.00,0.84
4948.00,0.84
4947.00,0.84
4946.00,0.84
4945.00,0.84
4944.00,0.84
4943.00,0.84
4942.00,0.85
4941.00,0.85
4940.00,0.85
4939.00,0.85
4938.00,0.85
4937.00,0.85
4936.00,0.85
4935.00,0.85
4934.00,0.85
4933.00,0.85
4932.00,0.85
4931.00,0.86
4930.00,0.86
4929.00,0.86
4928.00,0.86
4927.00,0.86
4926.00,0.86
4925.00,0.86
4924.00,0.86
4923.00,0.86
4922.00,0.86
4921.00,0.86
4920.00,0.86
4919.00,0.86
4918.00,0.86
4917.00,0.86
4916.00,0.87
4915.00,0.87
4914.00,0.87
4913.00,0.87
4912.00,0.87
4911.00,0.87
4910.00,0.87
4909.00,0.87
4908.00,0.87
4907.00,0.87
4906.00,0.87
4905.00,0.87
4904.00,0.87
4903.00,0.87
4902.00,0.87
4901.00,0.87
4900.00,0.87
4899.00,0.87
4898.00,0.87
4897.00,0.88
4896.00,0.88
4895.00,0.88
4894.00,0.88
4893.00,0.88
4892.00,0.88
4891.00,0.88
4890.00,0.88
4889.00,0.88
4888.00,0.88
4887.00,0.88
4886.00,0.88
4885.00,0.88
4884.00,0.88
4883.00,0.88
4882.00,0.88
4881.00,0.88
4880.00,0.88
4879.00,0.88
4878.00,0.88
4877.00,0.88
4876.00,0.88
4875.00,0.88
4874.00,0.88
4873.00,0.88
4872.00,0.88
4871.00,0.88
4870.00,0.88
4869.00,0.88
4868.00,0.88
4867.00,0.89
4866.00,0.89
4865.00,0.89
4864.00,0.89
4863.00,0.89
4862.00,0.89
4861.00,0.89
4860.00,0.89
4859.00,0.89
4858.00,0.89
4857.00,0.90
4856.00,0.90
4855.00,0.90
4854.00,0.90
4853.00,0.90
4852.00,0.90
4851.00,0.90
4850.00,0.90
4849.00,0.90
4848.00,0.90
4847.00,0.90
4846.00,0.90
4845.00,0.90
4844.00,0.90
4843.00,0.90
4842.00,0.90
4841.00,0.91
4840.00,0.91
4839.00,0.91
4838.00,0.91
4837.00,0.91
4836.00,0.91
4835.00,0.91
4834.00,0.91
4833.00,0.91
4832.00,0.91
4831.00,0.92
4830.00,0.92
4829.00,0.92
4828.00,0.92
4827.00,0.92
4826.00,0.92
4825.00,0.92
4824.00,0.92
4823.00,0.92
4822.00,0.93
4821.00,0.93
4820.00,0.93
4819.00,0.93
4818.00,0.93
4817.00,0.93
4816.00,0.93
4815.00,0.93
4814.00,0.93
4813.00,0.93
4812.00,0.93
4811.00,0.93
4810.00,0.93
4809.00,0.93
4808.00,0.93
4807.00,0.93
4806.00,0.93
4805.00,0.93
4804.00,0.93
4803.00,0.93
4802.00,0.93
4801.00,0.93
4800.00,0.93
4799.00,0.94
4798.00,0.94
4797.00,0.94
4796.00,0.94
4795.00,0.94
4794.00,0.94
4793.00,0.94
4792.00,0.94
4791.00,0.94
4790.00,0.95
4789.00,0.95
4788.00,0.95
4787.00,0.95
4786.00,0.95
4785.00,0.95
4784.00,0.95
4783.00,0.95
4782.00,0.96
4781.00,0.96
4780.00,0.96
4779.00,0.96
4778.00,0.96
4777.00,0.96
4776.00,0.97
4775.00,0.97
4774.00,0.97
4773.00,0.97
4772.00,0.97
4771.00,0.97
4770.00,0.97
4769.00,0.97
4768.00,0.97
4767.00,0.97
4766.00,0.97
4765.00,0.97
4764.00,0.98
4763.00,0.98
4762.00,0.98
4761.00,0.98
4760.00,0.98
4759.00,0.98
4758.00,0.98
4757.00,0.98
4756.00,0.98
4755.00,0.98
4754.00,0.98
4753.00,0.98
4752.00,0.98
4751.00,0.98
4750.00,0.98
4749.00,0.99
4748.00,0.99
4747.00,0.99
4746.00,0.99
4745.00,0.99
4744.00,0.99
4743.00,0.99
4742.00,0.99
4741.00,0.99
4740.00,1.00
4739.00,1.00
4738.00,1.00
4737.00,1.00
4736.00,1.00
4735.00,1.00
4734.00,1.00
4733.00,1.00
4732.00,1.01
4731.00,1.01
4730.00,1.01
4729.00,1.01
4728.00,1.01
4727.00,1.01
4726.00,1.01
4725.00,1.01
4724.00,1.02
4723.00,1.02
4722.00,1.02
4721.00,1.02
4720.00,1.02
4719.00,1.02
4718.00,1.03
4717.00,1.03
4716.00,1.03
4715.00,1.03
4714.00,1.03
4713.00,1.04
4712.00,1.04
4711.00,1.04
4710.00,1.04
4709.00,1.04
4708.00,1.05
4707.00,1.05
4706.00,1.05
4705.00,1.05
4704.00,1.05
4703.00,1.05
4702.00,1.06
4701.00,1.06
4700.00,1.06
4699.00,1.06
4698.00,1.06
4697.00,1.06
4696.00,1.06
4695.00,1.06
4694.00,1.06
4693.00,1.07
4692.00,1.07
4691.00,1.07
4690.00,1.07
4689.00,1.07
4688.00,1.07
4687.00,1.07
4686.00,1.07
4685.00,1.07
4684.00,1.07
4683.00,1.07
4682.00,1.08
4681.00,1.08
4680.00,1.08
4679.00,1.08
4678.00,1.08
4677.00,1.08
4676.00,1.08
4675.00,1.09
4674.00,1.09
4673.00,1.09
4672.00,1.09
4671.00,1.09
4670.00,1.10
4669.00,1.10
4668.00,1.10
4667.00,1.10
4666.00,1.10
4665.00,1.10
4664.00,1.11
4663.00,1.11
4662.00,1.11
4661.00,1.11
4660.00,1.11
4659.00,1.11
4658.00,1.11
4657.00,1.11
4656.00,1.11
4655.00,1.12
4654.00,1.12
4653.00,1.12
4652.00,1.12
4651.00,1.12
4650.00,1.12
4649.00,1.12
4648.00,1.12
4647.00,1.12
4646.00,1.12
4645.00,1.12
4644.00,1.12
4643.00,1.13
4642.00,1.13
4641.00,1.13
4640.00,1.13
4639.00,1.13
4638.00,1.13
4637.00,1.13
4636.00,1.13
4635.00,1.13
4634.00,1.13
4633.00,1.13
4632.00,1.13
4631.00,1.14
4630.00,1.14
4629.00,1.14
4628.00,1.14
4627.00,1.14
4626.00,1.14
4625.00,1.14
4624.00,1.14
4623.00,1.14
4622.00,1.14
4621.00,1.14
4620.00,1.14
4619.00,1.14
4618.00,1.14
4617.00,1.14
4616.00,1.14
4615.00,1.14
4614.00,1.14
4613.00,1.14
4612.00,1.15
4611.00,1.15
4610.00,1.15
4609.00,1.15
4608.00,1.15
4607.00,1.15
4606.00,1.15
4605.00,1.15
4604.00,1.15
4603.00,1.15
4602.00,1.16
4601.00,1.16
4600.00,1.16
4599.00,1.16
4598.00,1.16
4597.00,1.16
4596.00,1.17
4595.00,1.17
4594.00,1.17
4593.00,1.17
4592.00,1.17
4591.00,1.17
4590.00,1.17
4589.00,1.17
4588.00,1.17
4587.00,1.17
4586.00,1.18
4585.00,1.18
4584.00,1.18
4583.00,1.18
4582.00,1.18
4581.00,1.18
4580.00,1.18
4579.00,1.18
4578.00,1.18
4577.00,1.18
4576.00,1.18
4575.00,1.19
4574.00,1.19
4573.00,1.19
4572.00,1.19
4571.00,1.19
4570.00,1.19
4569.00,1.19
4568.00,1.19
4567.00,1.19
4566.00,1.19
4565.00,1.20
4564.00,1.20
4563.00,1.20
4562.00,1.20
4561.00,1.20
4560.00,1.20
4559.00,1.20
4558.00,1.20
4557.00,1.20
4556.00,1.20
4555.00,1.20
4554.00,1.20
4553.00,1.21
4552.00,1.21
4551.00,1.21
4550.00,1.21
4549.00,1.21
4548.00,1.21
4547.00,1.21
4546.00,1.21
4545.00,1.21
4544.00,1.21
4543.00,1.21
4542.00,1.21
4541.00,1.21
4540.00,1.21
4539.00,1.21
4538.00,1.21
4537.00,1.21
4536.00,1.21
4535.00,1.21
4534.00,1.21
4533.00,1.21
4532.00,1.21
4531.00,1.21
4530.00,1.21
4529.00,1.21
4528.00,1.21
4527.00,1.21
4526.00,1.21
4525.00,1.22
4524.00,1.22
4523.00,1.22
4522.00,1.22
4521.00,1.22
4520.00,1.22
4519.00,1.22
4518.00,1.22
4517.00,1.22
4516.00,1.22
4515.00,1.22
4514.00,1.22
4513.00,1.22
4512.00,1.22
4511.00,1.22
4510.00,1.22
4509.00,1.22
4508.00,1.22
4507.00,1.22
4506.00,1.22
4505.00,1.22
4504.00,1.22
4503.00,1.22
4502.00,1.22
4501.00,1.22
4500.00,1.22
4499.00,1.22
4498.00,1.22
4497.00,1.22
4496.00,1.22
4495.00,1.22
4494.00,1.22
4493.00,1.22
4492.00,1.22
4491.00,1.22
4490.00,1.22
4489.00,1.21
4488.00,1.21
4487.00,1.21
4486.00,1.21
4485.00,1.21
4484.00,1.21
4483.00,1.21
4482.00,1.21
4481.00,1.20
4480.00,1.20
4479.00,1.20
4478.00,1.20
4477.00,1.20
4476.00,1.20
4475.00,1.19
4474.00,1.19
4473.00,1.19
4472.00,1.19
4471.00,1.19
4470.00,1.18
4469.00,1.18
4468.00,1.18
4467.00,1.18
4466.00,1.17
4465.00,1.17
4464.00,1.17
4463.00,1.17
4462.00,1.16
4461.00,1.16
4460.00,1.16
4459.00,1.16
4458.00,1.15
4457.00,1.15
4456.00,1.15
4455.00,1.15
4454.00,1.14
4453.00,1.14
4452.00,1.14
4451.00,1.13
4450.00,1.13
4449.00,1.13
4448.00,1.12
4447.00,1.12
4446.00,1.12
4445.00,1.11
4444.00,1.11
4443.00,1.11
4442.00,1.10
4441.00,1.10
4440.00,1.10
4439.00,1.10
4438.00,1.09
4437.00,1.09
4436.00,1.09
4435.00,1.09
4434.00,1.08
4433.00,1.08
4432.00,1.08
4431.00,1.08
4430.00,1.08
4429.00,1.08
4428.00,1.07
4427.00,1.07
4426.00,1.07
4425.00,1.07
4424.00,1.07
4423.00,1.07
4422.00,1.07
4421.00,1.07
4420.00,1.06
4419.00,1.06
4418.00,1.06
4417.00,1.06
4416.00,1.06
4415.00,1.06
4414.00,1.06
4413.00,1.06
4412.00,1.06
4411.00,1.06
4410.00,1.06
4409.00,1.06
4408.00,1.06
4407.00,1.06
4406.00,1.07
4405.00,1.07
4404.00,1.07
4403.00,1.07
4402.00,1.07
4401.00,1.07
4400.00,1.07
4399.00,1.07
4398.00,1.07
4397.00,1.07
4396.00,1.07
4395.00,1.07
4394.00,1.07
4393.00,1.07
4392.00,1.07
4391.00,1.07
4390.00,1.07
4389.00,1.07
4388.00,1.07
4387.00,1.07
4386.00,1.07
4385.00,1.07
4384.00,1.08
4383.00,1.08
4382.00,1.08
4381.00,1.08
4380.00,1.08
4379.00,1.08
4378.00,1.08
4377.00,1.08
4376.00,1.09
4375.00,1.09
4374.00,1.09
4373.00,1.09
4372.00,1.09
4371.00,1.09
4370.00,1.09
4369.00,1.09
4368.00,1.09
4367.00,1.09
4366.00,1.09
4365.00,1.09
4364.00,1.09
4363.00,1.09
4362.00,1.09
4361.00,1.09
4360.00,1.10
4359.00,1.10
4358.00,1.10
4357.00,1.10
4356.00,1.10
4355.00,1.10
4354.00,1.10
4353.00,1.10
4352.00,1.10
4351.00,1.10
4350.00,1.10
4349.00,1.10
4348.00,1.10
4347.00,1.10
4346.00,1.10
4345.00,1.10
4344.00,1.10
4343.00,1.10
4342.00,1.10
4341.00,1.10
4340.00,1.10
4339.00,1.10
4338.00,1.10
4337.00,1.10
4336.00,1.10
4335.00,1.10
4334.00,1.10
4333.00,1.10
4332.00,1.10
4331.00,1.10
4330.00,1.10
4329.00,1.10
4328.00,1.10
4327.00,1.10
4326.00,1.10
4325.00,1.10
4324.00,1.11
4323.00,1.11
4322.00,1.11
4321.00,1.11
4320.00,1.11
4319.00,1.11
4318.00,1.11
4317.00,1.12
4316.00,1.12
4315.00,1.12
4314.00,1.12
4313.00,1.12
4312.00,1.12
4311.00,1.13
4310.00,1.13
4309.00,1.13
4308.00,1.13
4307.00,1.13
4306.00,1.14
4305.00,1.14
4304.00,1.14
4303.00,1.14
4302.00,1.14
4301.00,1.14
4300.00,1.15
4299.00,1.15
4298.00,1.15
4297.00,1.15
4296.00,1.15
4295.00,1.15
4294.00,1.15
4293.00,1.15
4292.00,1.15
4291.00,1.15
4290.00,1.15
4289.00,1.15
4288.00,1.15
4287.00,1.15
4286.00,1.15
4285.00,1.16
4284.00,1.16
4283.00,1.16
4282.00,1.16
4281.00,1.16
4280.00,1.16
4279.00,1.16
4278.00,1.16
4277.00,1.16
4276.00,1.16
4275.00,1.16
4274.00,1.16
4273.00,1.16
4272.00,1.16
4271.00,1.16
4270.00,1.16
4269.00,1.16
4268.00,1.16
4267.00,1.16
4266.00,1.16
4265.00,1.16
4264.00,1.16
4263.00,1.16
4262.00,1.16
4261.00,1.16
4260.00,1.16
4259.00,1.16
4258.00,1.16
4257.00,1.16
4256.00,1.16
4255.00,1.16
4254.00,1.16
4253.00,1.16
4252.00,1.16
4251.00,1.16
4250.00,1.16
4249.00,1.16
4248.00,1.16
4247.00,1.17
4246.00,1.17
4245.00,1.17
4244.00,1.17
4243.00,1.17
4242.00,1.18
4241.00,1.18
4240.00,1.18
4239.00,1.18
4238.00,1.18
4237.00,1.18
4236.00,1.19
4235.00,1.19
4234.00,1.19
4233.00,1.19
4232.00,1.19
4231.00,1.19
4230.00,1.19
4229.00,1.19
4228.00,1.19
4227.00,1.19
4226.00,1.19
4225.00,1.20
4224.00,1.20
4223.00,1.20
4222.00,1.20
4221.00,1.20
4220.00,1.20
4219.00,1.20
4218.00,1.20
4217.00,1.20
4216.00,1.20
4215.00,1.20
4214.00,1.20
4213.00,1.20
4212.00,1.20
4211.00,1.20
4210.00,1.20
4209.00,1.20
4208.00,1.20
4207.00,1.21
4206.00,1.21
4205.00,1.21
4204.00,1.21
4203.00,1.21
4202.00,1.21
4201.00,1.21
4200.00,1.21
4199.00,1.21
4198.00,1.21
4197.00,1.21
4196.00,1.21
4195.00,1.21
4194.00,1.21
4193.00,1.21
4192.00,1.21
4191.00,1.21
4190.00,1.21
4189.00,1.21
4188.00,1.21
4187.00,1.22
4186.00,1.22
4185.00,1.22
4184.00,1.22
4183.00,1.21
4182.00,1.21
4181.00,1.21
4180.00,1.21
4179.00,1.21
4178.00,1.21
4177.00,1.21
4176.00,1.21
4175.00,1.21
4174.00,1.21
4173.00,1.21
4172.00,1.21
4171.00,1.21
4170.00,1.21
4169.00,1.21
4168.00,1.21
4167.00,1.21
4166.00,1.21
4165.00,1.21
4164.00,1.21
4163.00,1.21
4162.00,1.21
4161.00,1.21
4160.00,1.21
4159.00,1.21
4158.00,1.21
4157.00,1.21
4156.00,1.21
4155.00,1.21
4154.00,1.21
4153.00,1.21
4152.00,1.21
4151.00,1.21
4150.00,1.21
4149.00,1.21
4148.00,1.21
4147.00,1.21
4146.00,1.21
4145.00,1.22
4144.00,1.22
4143.00,1.22
4142.00,1.22
4141.00,1.22
4140.00,1.22
4139.00,1.22
4138.00,1.22
4137.00,1.22
4136.00,1.22
4135.00,1.22
4134.00,1.22
4133.00,1.23
4132.00,1.23
4131.00,1.23
4130.00,1.23
4129.00,1.23
4128.00,1.23
4127.00,1.23
4126.00,1.23
4125.00,1.23
4124.00,1.23
4123.00,1.23
4122.00,1.23
4121.00,1.23
4120.00,1.23
4119.00,1.23
4118.00,1.23
4117.00,1.23
4116.00,1.23
4115.00,1.23
4114.00,1.23
4113.00,1.23
4112.00,1.23
4111.00,1.23
4110.00,1.23
4109.00,1.24
4108.00,1.24
4107.00,1.24
4106.00,1.24
4105.00,1.24
4104.00,1.24
4103.00,1.25
4102.00,1.25
4101.00,1.25
4100.00,1.25
4099.00,1.25
4098.00,1.25
4097.00,1.25
4096.00,1.26
4095.00,1.26
4094.00,1.26
4093.00,1.26
4092.00,1.26
4091.00,1.26
4090.00,1.26
4089.00,1.26
4088.00,1.26
4087.00,1.26
4086.00,1.26
4085.00,1.26
4084.00,1.26
4083.00,1.26
4082.00,1.26
4081.00,1.26
4080.00,1.26
4079.00,1.26
4078.00,1.26
4077.00,1.26
4076.00,1.26
4075.00,1.26
4074.00,1.26
4073.00,1.26
4072.00,1.26
4071.00,1.26
4070.00,1.26
4069.00,1.26
4068.00,1.26
4067.00,1.26
4066.00,1.26
4065.00,1.26
4064.00,1.26
4063.00,1.26
4062.00,1.26
4061.00,1.26
4060.00,1.26
4059.00,1.26
4058.00,1.26
4057.00,1.26
4056.00,1.26
4055.00,1.26
4054.00,1.26
4053.00,1.27
4052.00,1.27
4051.00,1.27
4050.00,1.27
4049.00,1.27
4048.00,1.27
4047.00,1.27
4046.00,1.27
4045.00,1.27
4044.00,1.28
4043.00,1.28
4042.00,1.28
4041.00,1.28
4040.00,1.28
4039.00,1.28
4038.00,1.28
4037.00,1.29
4036.00,1.29
4035.00,1.29
4034.00,1.29
4033.00,1.29
4032.00,1.29
4031.00,1.30
4030.00,1.30
4029.00,1.30
4028.00,1.30
4027.00,1.30
4026.00,1.30
4025.00,1.30
4024.00,1.30
4023.00,1.30
4022.00,1.30
4021.00,1.31
4020.00,1.31
4019.00,1.31
4018.00,1.31
4017.00,1.31
4016.00,1.31
4015.00,1.31
4014.00,1.31
4013.00,1.31
4012.00,1.31
4011.00,1.32
4010.00,1.32
4009.00,1.32
4008.00,1.32
4007.00,1.32
4006.00,1.32
4005.00,1.32
4004.00,1.32
4003.00,1.32
4002.00,1.32
4001.00,1.32
4000.00,1.31
