创建为新数据集,样品 152 用户 Administrator 日期 星期三, 十一月 08 2017
cm-1,%T
10000.00,1.32
9999.00,1.32
9998.00,1.32
9997.00,1.32
9996.00,1.32
9995.00,1.32
9994.00,1.32
9993.00,1.32
9992.00,1.32
9991.00,1.32
9990.00,1.32
9989.00,1.32
9988.00,1.32
9987.00,1.32
9986.00,1.32
9985.00,1.32
9984.00,1.32
9983.00,1.32
9982.00,1.31
9981.00,1.31
9980.00,1.31
9979.00,1.31
9978.00,1.31
9977.00,1.30
9976.00,1.30
9975.00,1.30
9974.00,1.30
9973.00,1.29
9972.00,1.29
9971.00,1.29
9970.00,1.29
9969.00,1.29
9968.00,1.29
9967.00,1.29
9966.00,1.30
9965.00,1.30
9964.00,1.30
9963.00,1.30
9962.00,1.30
9961.00,1.30
9960.00,1.31
9959.00,1.31
9958.00,1.31
9957.00,1.31
9956.00,1.31
9955.00,1.31
9954.00,1.31
9953.00,1.31
9952.00,1.31
9951.00,1.31
9950.00,1.31
9949.00,1.31
9948.00,1.31
9947.00,1.31
9946.00,1.31
9945.00,1.31
9944.00,1.31
9943.00,1.31
9942.00,1.31
9941.00,1.31
9940.00,1.31
9939.00,1.31
9938.00,1.31
9937.00,1.31
9936.00,1.31
9935.00,1.31
9934.00,1.31
9933.00,1.31
9932.00,1.31
9931.00,1.31
9930.00,1.31
9929.00,1.31
9928.00,1.31
9927.00,1.31
9926.00,1.31
9925.00,1.31
9924.00,1.31
9923.00,1.31
9922.00,1.31
9921.00,1.30
9920.00,1.30
9919.00,1.30
9918.00,1.30
9917.00,1.30
9916.00,1.30
9915.00,1.30
9914.00,1.30
9913.00,1.30
9912.00,1.30
9911.00,1.29
9910.00,1.29
9909.00,1.29
9908.00,1.29
9907.00,1.29
9906.00,1.29
9905.00,1.29
9904.00,1.29
9903.00,1.29
9902.00,1.29
9901.00,1.29
9900.00,1.29
9899.00,1.29
9898.00,1.29
9897.00,1.30
9896.00,1.30
9895.00,1.30
9894.00,1.30
9893.00,1.30
9892.00,1.30
9891.00,1.30
9890.00,1.30
9889.00,1.30
9888.00,1.30
9887.00,1.30
9886.00,1.30
9885.00,1.30
9884.00,1.30
9883.00,1.30
9882.00,1.30
9881.00,1.30
9880.00,1.30
9879.00,1.30
9878.00,1.30
9877.00,1.30
9876.00,1.30
9875.00,1.31
9874.00,1.31
9873.00,1.31
9872.00,1.31
9871.00,1.31
9870.00,1.31
9869.00,1.31
9868.00,1.31
9867.00,1.31
9866.00,1.31
9865.00,1.31
9864.00,1.31
9863.00,1.31
9862.00,1.31
9861.00,1.31
9860.00,1.31
9859.00,1.30
9858.00,1.30
9857.00,1.30
9856.00,1.30
9855.00,1.30
9854.00,1.30
9853.00,1.30
9852.00,1.30
9851.00,1.30
9850.00,1.30
9849.00,1.30
9848.00,1.30
9847.00,1.30
9846.00,1.30
9845.00,1.30
9844.00,1.30
9843.00,1.30
9842.00,1.30
9841.00,1.30
9840.00,1.30
9839.00,1.30
9838.00,1.31
9837.00,1.31
9836.00,1.31
9835.00,1.31
9834.00,1.31
9833.00,1.31
9832.00,1.31
9831.00,1.31
9830.00,1.31
9829.00,1.31
9828.00,1.31
9827.00,1.31
9826.00,1.31
9825.00,1.31
9824.00,1.30
9823.00,1.30
9822.00,1.30
9821.00,1.30
9820.00,1.30
9819.00,1.30
9818.00,1.30
9817.00,1.30
9816.00,1.30
9815.00,1.30
9814.00,1.30
9813.00,1.30
9812.00,1.30
9811.00,1.30
9810.00,1.30
9809.00,1.30
9808.00,1.30
9807.00,1.30
9806.00,1.30
9805.00,1.30
9804.00,1.29
9803.00,1.29
9802.00,1.29
9801.00,1.29
9800.00,1.29
9799.00,1.29
9798.00,1.29
9797.00,1.29
9796.00,1.29
9795.00,1.29
9794.00,1.29
9793.00,1.29
9792.00,1.29
9791.00,1.29
9790.00,1.29
9789.00,1.29
9788.00,1.30
9787.00,1.30
9786.00,1.30
9785.00,1.30
9784.00,1.30
9783.00,1.30
9782.00,1.30
9781.00,1.30
9780.00,1.30
9779.00,1.30
9778.00,1.30
9777.00,1.30
9776.00,1.30
9775.00,1.30
9774.00,1.30
9773.00,1.30
9772.00,1.30
9771.00,1.30
9770.00,1.30
9769.00,1.30
9768.00,1.30
9767.00,1.30
9766.00,1.30
9765.00,1.30
9764.00,1.31
9763.00,1.31
9762.00,1.31
9761.00,1.31
9760.00,1.31
9759.00,1.31
9758.00,1.31
9757.00,1.31
9756.00,1.31
9755.00,1.31
9754.00,1.31
9753.00,1.30
9752.00,1.30
9751.00,1.30
9750.00,1.30
9749.00,1.30
9748.00,1.30
9747.00,1.30
9746.00,1.30
9745.00,1.29
9744.00,1.29
9743.00,1.29
9742.00,1.29
9741.00,1.29
9740.00,1.29
9739.00,1.28
9738.00,1.28
9737.00,1.28
9736.00,1.28
9735.00,1.28
9734.00,1.27
9733.00,1.27
9732.00,1.27
9731.00,1.27
9730.00,1.27
9729.00,1.26
9728.00,1.26
9727.00,1.26
9726.00,1.26
9725.00,1.26
9724.00,1.26
9723.00,1.26
9722.00,1.26
9721.00,1.26
9720.00,1.27
9719.00,1.27
9718.00,1.27
9717.00,1.27
9716.00,1.27
9715.00,1.28
9714.00,1.28
9713.00,1.28
9712.00,1.28
9711.00,1.28
9710.00,1.28
9709.00,1.29
9708.00,1.29
9707.00,1.29
9706.00,1.29
9705.00,1.29
9704.00,1.29
9703.00,1.29
9702.00,1.29
9701.00,1.29
9700.00,1.29
9699.00,1.29
9698.00,1.29
9697.00,1.29
9696.00,1.29
9695.00,1.29
9694.00,1.29
9693.00,1.29
9692.00,1.29
9691.00,1.29
9690.00,1.29
9689.00,1.29
9688.00,1.29
9687.00,1.29
9686.00,1.29
9685.00,1.29
9684.00,1.29
9683.00,1.29
9682.00,1.29
9681.00,1.28
9680.00,1.29
9679.00,1.29
9678.00,1.29
9677.00,1.29
9676.00,1.29
9675.00,1.29
9674.00,1.29
9673.00,1.29
9672.00,1.30
9671.00,1.30
9670.00,1.30
9669.00,1.30
9668.00,1.30
9667.00,1.31
9666.00,1.31
9665.00,1.31
9664.00,1.31
9663.00,1.31
9662.00,1.32
9661.00,1.32
9660.00,1.32
9659.00,1.32
9658.00,1.32
9657.00,1.32
9656.00,1.32
9655.00,1.31
9654.00,1.31
9653.00,1.31
9652.00,1.31
9651.00,1.31
9650.00,1.31
9649.00,1.31
9648.00,1.30
9647.00,1.30
9646.00,1.30
9645.00,1.30
9644.00,1.30
9643.00,1.30
9642.00,1.30
9641.00,1.30
9640.00,1.30
9639.00,1.30
9638.00,1.30
9637.00,1.30
9636.00,1.30
9635.00,1.30
9634.00,1.30
9633.00,1.30
9632.00,1.30
9631.00,1.30
9630.00,1.30
9629.00,1.30
9628.00,1.30
9627.00,1.30
9626.00,1.30
9625.00,1.30
9624.00,1.30
9623.00,1.30
9622.00,1.30
9621.00,1.30
9620.00,1.30
9619.00,1.30
9618.00,1.29
9617.00,1.29
9616.00,1.29
9615.00,1.29
9614.00,1.28
9613.00,1.28
9612.00,1.28
9611.00,1.28
9610.00,1.28
9609.00,1.28
9608.00,1.28
9607.00,1.28
9606.00,1.28
9605.00,1.28
9604.00,1.28
9603.00,1.28
9602.00,1.28
9601.00,1.28
9600.00,1.28
9599.00,1.28
9598.00,1.28
9597.00,1.28
9596.00,1.28
9595.00,1.28
9594.00,1.28
9593.00,1.27
9592.00,1.27
9591.00,1.27
9590.00,1.27
9589.00,1.27
9588.00,1.27
9587.00,1.27
9586.00,1.27
9585.00,1.26
9584.00,1.26
9583.00,1.26
9582.00,1.26
9581.00,1.26
9580.00,1.26
9579.00,1.26
9578.00,1.27
9577.00,1.27
9576.00,1.27
9575.00,1.27
9574.00,1.27
9573.00,1.28
9572.00,1.28
9571.00,1.28
9570.00,1.29
9569.00,1.29
9568.00,1.29
9567.00,1.30
9566.00,1.30
9565.00,1.30
9564.00,1.31
9563.00,1.31
9562.00,1.31
9561.00,1.31
9560.00,1.31
9559.00,1.32
9558.00,1.32
9557.00,1.32
9556.00,1.32
9555.00,1.32
9554.00,1.31
9553.00,1.31
9552.00,1.31
9551.00,1.31
9550.00,1.31
9549.00,1.31
9548.00,1.31
9547.00,1.31
9546.00,1.30
9545.00,1.30
9544.00,1.30
9543.00,1.30
9542.00,1.30
9541.00,1.30
9540.00,1.30
9539.00,1.31
9538.00,1.31
9537.00,1.31
9536.00,1.31
9535.00,1.31
9534.00,1.31
9533.00,1.31
9532.00,1.30
9531.00,1.30
9530.00,1.30
9529.00,1.30
9528.00,1.30
9527.00,1.30
9526.00,1.29
9525.00,1.29
9524.00,1.29
9523.00,1.29
9522.00,1.28
9521.00,1.28
9520.00,1.28
9519.00,1.28
9518.00,1.28
9517.00,1.28
9516.00,1.28
9515.00,1.28
9514.00,1.28
9513.00,1.28
9512.00,1.28
9511.00,1.28
9510.00,1.28
9509.00,1.28
9508.00,1.28
9507.00,1.28
9506.00,1.29
9505.00,1.29
9504.00,1.29
9503.00,1.29
9502.00,1.29
9501.00,1.29
9500.00,1.29
9499.00,1.29
9498.00,1.29
9497.00,1.29
9496.00,1.29
9495.00,1.29
9494.00,1.29
9493.00,1.29
9492.00,1.29
9491.00,1.29
9490.00,1.28
9489.00,1.28
9488.00,1.28
9487.00,1.28
9486.00,1.28
9485.00,1.28
9484.00,1.28
9483.00,1.28
9482.00,1.29
9481.00,1.29
9480.00,1.29
9479.00,1.29
9478.00,1.29
9477.00,1.29
9476.00,1.29
9475.00,1.29
9474.00,1.29
9473.00,1.29
9472.00,1.29
9471.00,1.29
9470.00,1.29
9469.00,1.29
9468.00,1.29
9467.00,1.30
9466.00,1.30
9465.00,1.30
9464.00,1.30
9463.00,1.30
9462.00,1.30
9461.00,1.29
9460.00,1.29
9459.00,1.29
9458.00,1.29
9457.00,1.29
9456.00,1.29
9455.00,1.29
9454.00,1.29
9453.00,1.29
9452.00,1.29
9451.00,1.29
9450.00,1.29
9449.00,1.29
9448.00,1.29
9447.00,1.29
9446.00,1.29
9445.00,1.29
9444.00,1.29
9443.00,1.30
9442.00,1.30
9441.00,1.30
9440.00,1.30
9439.00,1.30
9438.00,1.30
9437.00,1.31
9436.00,1.31
9435.00,1.31
9434.00,1.31
9433.00,1.31
9432.00,1.31
9431.00,1.31
9430.00,1.31
9429.00,1.30
9428.00,1.30
9427.00,1.30
9426.00,1.30
9425.00,1.30
9424.00,1.30
9423.00,1.30
9422.00,1.29
9421.00,1.29
9420.00,1.29
9419.00,1.29
9418.00,1.29
9417.00,1.29
9416.00,1.29
9415.00,1.29
9414.00,1.29
9413.00,1.29
9412.00,1.29
9411.00,1.29
9410.00,1.29
9409.00,1.29
9408.00,1.29
9407.00,1.29
9406.00,1.29
9405.00,1.29
9404.00,1.29
9403.00,1.28
9402.00,1.28
9401.00,1.28
9400.00,1.28
9399.00,1.28
9398.00,1.28
9397.00,1.28
9396.00,1.28
9395.00,1.28
9394.00,1.28
9393.00,1.28
9392.00,1.29
9391.00,1.29
9390.00,1.29
9389.00,1.29
9388.00,1.29
9387.00,1.29
9386.00,1.29
9385.00,1.30
9384.00,1.30
9383.00,1.30
9382.00,1.30
9381.00,1.30
9380.00,1.30
9379.00,1.30
9378.00,1.30
9377.00,1.30
9376.00,1.30
9375.00,1.30
9374.00,1.30
9373.00,1.30
9372.00,1.30
9371.00,1.30
9370.00,1.29
9369.00,1.29
9368.00,1.29
9367.00,1.29
9366.00,1.29
9365.00,1.29
9364.00,1.29
9363.00,1.29
9362.00,1.29
9361.00,1.29
9360.00,1.29
9359.00,1.29
9358.00,1.29
9357.00,1.30
9356.00,1.30
9355.00,1.30
9354.00,1.30
9353.00,1.30
9352.00,1.30
9351.00,1.30
9350.00,1.30
9349.00,1.30
9348.00,1.30
9347.00,1.30
9346.00,1.30
9345.00,1.30
9344.00,1.30
9343.00,1.30
9342.00,1.30
9341.00,1.30
9340.00,1.30
9339.00,1.30
9338.00,1.30
9337.00,1.30
9336.00,1.30
9335.00,1.30
9334.00,1.31
9333.00,1.31
9332.00,1.31
9331.00,1.31
9330.00,1.31
9329.00,1.31
9328.00,1.31
9327.00,1.31
9326.00,1.31
9325.00,1.31
9324.00,1.31
9323.00,1.31
9322.00,1.31
9321.00,1.31
9320.00,1.31
9319.00,1.31
9318.00,1.31
9317.00,1.30
9316.00,1.30
9315.00,1.30
9314.00,1.30
9313.00,1.30
9312.00,1.30
9311.00,1.30
9310.00,1.30
9309.00,1.30
9308.00,1.30
9307.00,1.30
9306.00,1.29
9305.00,1.29
9304.00,1.29
9303.00,1.29
9302.00,1.29
9301.00,1.29
9300.00,1.29
9299.00,1.29
9298.00,1.28
9297.00,1.28
9296.00,1.28
9295.00,1.28
9294.00,1.28
9293.00,1.28
9292.00,1.28
9291.00,1.28
9290.00,1.28
9289.00,1.28
9288.00,1.28
9287.00,1.28
9286.00,1.28
9285.00,1.28
9284.00,1.28
9283.00,1.28
9282.00,1.28
9281.00,1.29
9280.00,1.29
9279.00,1.29
9278.00,1.29
9277.00,1.29
9276.00,1.29
9275.00,1.29
9274.00,1.29
9273.00,1.29
9272.00,1.29
9271.00,1.29
9270.00,1.29
9269.00,1.29
9268.00,1.29
9267.00,1.29
9266.00,1.29
9265.00,1.29
9264.00,1.29
9263.00,1.29
9262.00,1.30
9261.00,1.30
9260.00,1.30
9259.00,1.30
9258.00,1.30
9257.00,1.30
9256.00,1.30
9255.00,1.30
9254.00,1.30
9253.00,1.30
9252.00,1.30
9251.00,1.30
9250.00,1.30
9249.00,1.30
9248.00,1.30
9247.00,1.30
9246.00,1.30
9245.00,1.30
9244.00,1.30
9243.00,1.30
9242.00,1.30
9241.00,1.30
9240.00,1.30
9239.00,1.30
9238.00,1.30
9237.00,1.30
9236.00,1.30
9235.00,1.30
9234.00,1.30
9233.00,1.30
9232.00,1.30
9231.00,1.30
9230.00,1.30
9229.00,1.30
9228.00,1.30
9227.00,1.30
9226.00,1.30
9225.00,1.30
9224.00,1.30
9223.00,1.29
9222.00,1.29
9221.00,1.29
9220.00,1.29
9219.00,1.29
9218.00,1.29
9217.00,1.29
9216.00,1.29
9215.00,1.29
9214.00,1.29
9213.00,1.29
9212.00,1.29
9211.00,1.29
9210.00,1.29
9209.00,1.29
9208.00,1.29
9207.00,1.29
9206.00,1.29
9205.00,1.29
9204.00,1.29
9203.00,1.29
9202.00,1.29
9201.00,1.29
9200.00,1.30
9199.00,1.30
9198.00,1.30
9197.00,1.30
9196.00,1.29
9195.00,1.29
9194.00,1.29
9193.00,1.29
9192.00,1.29
9191.00,1.29
9190.00,1.29
9189.00,1.29
9188.00,1.28
9187.00,1.28
9186.00,1.28
9185.00,1.28
9184.00,1.28
9183.00,1.27
9182.00,1.27
9181.00,1.27
9180.00,1.27
9179.00,1.27
9178.00,1.26
9177.00,1.26
9176.00,1.26
9175.00,1.26
9174.00,1.26
9173.00,1.26
9172.00,1.26
9171.00,1.26
9170.00,1.26
9169.00,1.26
9168.00,1.27
9167.00,1.27
9166.00,1.27
9165.00,1.27
9164.00,1.27
9163.00,1.27
9162.00,1.28
9161.00,1.28
9160.00,1.28
9159.00,1.28
9158.00,1.28
9157.00,1.29
9156.00,1.29
9155.00,1.29
9154.00,1.29
9153.00,1.29
9152.00,1.29
9151.00,1.29
9150.00,1.29
9149.00,1.30
9148.00,1.30
9147.00,1.30
9146.00,1.30
9145.00,1.30
9144.00,1.30
9143.00,1.30
9142.00,1.30
9141.00,1.30
9140.00,1.30
9139.00,1.30
9138.00,1.30
9137.00,1.30
9136.00,1.30
9135.00,1.30
9134.00,1.30
9133.00,1.30
9132.00,1.30
9131.00,1.30
9130.00,1.30
9129.00,1.30
9128.00,1.30
9127.00,1.30
9126.00,1.30
9125.00,1.30
9124.00,1.30
9123.00,1.30
9122.00,1.30
9121.00,1.30
9120.00,1.30
9119.00,1.30
9118.00,1.30
9117.00,1.30
9116.00,1.30
9115.00,1.29
9114.00,1.29
9113.00,1.29
9112.00,1.29
9111.00,1.29
9110.00,1.29
9109.00,1.29
9108.00,1.29
9107.00,1.29
9106.00,1.29
9105.00,1.29
9104.00,1.29
9103.00,1.29
9102.00,1.29
9101.00,1.29
9100.00,1.29
9099.00,1.29
9098.00,1.29
9097.00,1.29
9096.00,1.29
9095.00,1.29
9094.00,1.29
9093.00,1.29
9092.00,1.29
9091.00,1.29
9090.00,1.29
9089.00,1.29
9088.00,1.29
9087.00,1.29
9086.00,1.29
9085.00,1.29
9084.00,1.29
9083.00,1.29
9082.00,1.29
9081.00,1.29
9080.00,1.29
9079.00,1.29
9078.00,1.29
9077.00,1.29
9076.00,1.29
9075.00,1.29
9074.00,1.30
9073.00,1.30
9072.00,1.30
9071.00,1.30
9070.00,1.30
9069.00,1.30
9068.00,1.30
9067.00,1.30
9066.00,1.31
9065.00,1.31
9064.00,1.31
9063.00,1.31
9062.00,1.31
9061.00,1.31
9060.00,1.32
9059.00,1.32
9058.00,1.32
9057.00,1.32
9056.00,1.32
9055.00,1.32
9054.00,1.32
9053.00,1.31
9052.00,1.31
9051.00,1.31
9050.00,1.31
9049.00,1.31
9048.00,1.31
9047.00,1.31
9046.00,1.30
9045.00,1.30
9044.00,1.30
9043.00,1.30
9042.00,1.30
9041.00,1.30
9040.00,1.30
9039.00,1.30
9038.00,1.30
9037.00,1.30
9036.00,1.30
9035.00,1.30
9034.00,1.30
9033.00,1.30
9032.00,1.30
9031.00,1.30
9030.00,1.30
9029.00,1.30
9028.00,1.30
9027.00,1.30
9026.00,1.30
9025.00,1.30
9024.00,1.30
9023.00,1.30
9022.00,1.30
9021.00,1.30
9020.00,1.30
9019.00,1.30
9018.00,1.30
9017.00,1.30
9016.00,1.30
9015.00,1.30
9014.00,1.30
9013.00,1.30
9012.00,1.30
9011.00,1.30
9010.00,1.30
9009.00,1.30
9008.00,1.30
9007.00,1.30
9006.00,1.30
9005.00,1.30
9004.00,1.30
9003.00,1.30
9002.00,1.30
9001.00,1.30
9000.00,1.30
8999.00,1.30
8998.00,1.30
8997.00,1.30
8996.00,1.30
8995.00,1.30
8994.00,1.30
8993.00,1.30
8992.00,1.30
8991.00,1.30
8990.00,1.30
8989.00,1.30
8988.00,1.30
8987.00,1.30
8986.00,1.30
8985.00,1.30
8984.00,1.30
8983.00,1.30
8982.00,1.30
8981.00,1.30
8980.00,1.30
8979.00,1.31
8978.00,1.31
8977.00,1.31
8976.00,1.31
8975.00,1.31
8974.00,1.31
8973.00,1.31
8972.00,1.31
8971.00,1.31
8970.00,1.31
8969.00,1.31
8968.00,1.31
8967.00,1.31
8966.00,1.31
8965.00,1.31
8964.00,1.31
8963.00,1.31
8962.00,1.30
8961.00,1.30
8960.00,1.30
8959.00,1.30
8958.00,1.30
8957.00,1.29
8956.00,1.29
8955.00,1.29
8954.00,1.29
8953.00,1.29
8952.00,1.29
8951.00,1.29
8950.00,1.28
8949.00,1.28
8948.00,1.28
8947.00,1.28
8946.00,1.28
8945.00,1.28
8944.00,1.28
8943.00,1.28
8942.00,1.28
8941.00,1.28
8940.00,1.28
8939.00,1.28
8938.00,1.29
8937.00,1.29
8936.00,1.29
8935.00,1.29
8934.00,1.29
8933.00,1.29
8932.00,1.29
8931.00,1.29
8930.00,1.29
8929.00,1.29
8928.00,1.29
8927.00,1.29
8926.00,1.29
8925.00,1.29
8924.00,1.29
8923.00,1.29
8922.00,1.29
8921.00,1.29
8920.00,1.29
8919.00,1.29
8918.00,1.29
8917.00,1.29
8916.00,1.29
8915.00,1.29
8914.00,1.29
8913.00,1.29
8912.00,1.29
8911.00,1.30
8910.00,1.30
8909.00,1.30
8908.00,1.30
8907.00,1.30
8906.00,1.30
8905.00,1.30
8904.00,1.30
8903.00,1.30
8902.00,1.30
8901.00,1.30
8900.00,1.30
8899.00,1.30
8898.00,1.30
8897.00,1.30
8896.00,1.30
8895.00,1.30
8894.00,1.30
8893.00,1.30
8892.00,1.30
8891.00,1.30
8890.00,1.30
8889.00,1.30
8888.00,1.30
8887.00,1.30
8886.00,1.30
8885.00,1.30
8884.00,1.30
8883.00,1.30
8882.00,1.30
8881.00,1.30
8880.00,1.29
8879.00,1.29
8878.00,1.29
8877.00,1.29
8876.00,1.29
8875.00,1.29
8874.00,1.29
8873.00,1.29
8872.00,1.29
8871.00,1.29
8870.00,1.29
8869.00,1.29
8868.00,1.29
8867.00,1.29
8866.00,1.29
8865.00,1.29
8864.00,1.29
8863.00,1.29
8862.00,1.29
8861.00,1.29
8860.00,1.29
8859.00,1.29
8858.00,1.29
8857.00,1.29
8856.00,1.29
8855.00,1.29
8854.00,1.29
8853.00,1.29
8852.00,1.29
8851.00,1.29
8850.00,1.29
8849.00,1.29
8848.00,1.29
8847.00,1.29
8846.00,1.29
8845.00,1.29
8844.00,1.29
8843.00,1.29
8842.00,1.29
8841.00,1.29
8840.00,1.29
8839.00,1.29
8838.00,1.29
8837.00,1.29
8836.00,1.29
8835.00,1.29
8834.00,1.29
8833.00,1.28
8832.00,1.28
8831.00,1.28
8830.00,1.28
8829.00,1.28
8828.00,1.28
8827.00,1.28
8826.00,1.28
8825.00,1.28
8824.00,1.28
8823.00,1.28
8822.00,1.28
8821.00,1.28
8820.00,1.28
8819.00,1.28
8818.00,1.28
8817.00,1.28
8816.00,1.28
8815.00,1.28
8814.00,1.28
8813.00,1.28
8812.00,1.28
8811.00,1.28
8810.00,1.28
8809.00,1.28
8808.00,1.28
8807.00,1.28
8806.00,1.28
8805.00,1.28
8804.00,1.28
8803.00,1.28
8802.00,1.28
8801.00,1.28
8800.00,1.28
8799.00,1.28
8798.00,1.27
8797.00,1.27
8796.00,1.27
8795.00,1.27
8794.00,1.27
8793.00,1.27
8792.00,1.27
8791.00,1.27
8790.00,1.27
8789.00,1.27
8788.00,1.27
8787.00,1.27
8786.00,1.27
8785.00,1.27
8784.00,1.27
8783.00,1.26
8782.00,1.26
8781.00,1.26
8780.00,1.26
8779.00,1.26
8778.00,1.26
8777.00,1.26
8776.00,1.25
8775.00,1.25
8774.00,1.25
8773.00,1.25
8772.00,1.25
8771.00,1.25
8770.00,1.25
8769.00,1.25
8768.00,1.25
8767.00,1.25
8766.00,1.25
8765.00,1.25
8764.00,1.25
8763.00,1.25
8762.00,1.25
8761.00,1.25
8760.00,1.25
8759.00,1.25
8758.00,1.25
8757.00,1.25
8756.00,1.25
8755.00,1.25
8754.00,1.25
8753.00,1.25
8752.00,1.25
8751.00,1.24
8750.00,1.24
8749.00,1.24
8748.00,1.24
8747.00,1.24
8746.00,1.24
8745.00,1.24
8744.00,1.24
8743.00,1.24
8742.00,1.24
8741.00,1.24
8740.00,1.24
8739.00,1.24
8738.00,1.24
8737.00,1.24
8736.00,1.24
8735.00,1.24
8734.00,1.24
8733.00,1.24
8732.00,1.24
8731.00,1.24
8730.00,1.24
8729.00,1.24
8728.00,1.23
8727.00,1.23
8726.00,1.23
8725.00,1.23
8724.00,1.23
8723.00,1.23
8722.00,1.23
8721.00,1.23
8720.00,1.23
8719.00,1.23
8718.00,1.23
8717.00,1.23
8716.00,1.23
8715.00,1.23
8714.00,1.23
8713.00,1.23
8712.00,1.23
8711.00,1.23
8710.00,1.23
8709.00,1.23
8708.00,1.24
8707.00,1.24
8706.00,1.24
8705.00,1.24
8704.00,1.24
8703.00,1.24
8702.00,1.24
8701.00,1.24
8700.00,1.24
8699.00,1.24
8698.00,1.24
8697.00,1.24
8696.00,1.24
8695.00,1.24
8694.00,1.24
8693.00,1.24
8692.00,1.24
8691.00,1.24
8690.00,1.24
8689.00,1.24
8688.00,1.24
8687.00,1.24
8686.00,1.24
8685.00,1.24
8684.00,1.24
8683.00,1.24
8682.00,1.25
8681.00,1.25
8680.00,1.25
8679.00,1.25
8678.00,1.25
8677.00,1.25
8676.00,1.25
8675.00,1.25
8674.00,1.25
8673.00,1.25
8672.00,1.25
8671.00,1.25
8670.00,1.25
8669.00,1.25
8668.00,1.25
8667.00,1.25
8666.00,1.25
8665.00,1.25
8664.00,1.25
8663.00,1.25
8662.00,1.25
8661.00,1.25
8660.00,1.25
8659.00,1.25
8658.00,1.25
8657.00,1.24
8656.00,1.24
8655.00,1.24
8654.00,1.24
8653.00,1.24
8652.00,1.24
8651.00,1.24
8650.00,1.24
8649.00,1.24
8648.00,1.24
8647.00,1.24
8646.00,1.24
8645.00,1.24
8644.00,1.24
8643.00,1.24
8642.00,1.24
8641.00,1.24
8640.00,1.24
8639.00,1.24
8638.00,1.24
8637.00,1.24
8636.00,1.24
8635.00,1.24
8634.00,1.24
8633.00,1.24
8632.00,1.23
8631.00,1.23
8630.00,1.23
8629.00,1.23
8628.00,1.23
8627.00,1.23
8626.00,1.23
8625.00,1.23
8624.00,1.23
8623.00,1.23
8622.00,1.23
8621.00,1.23
8620.00,1.23
8619.00,1.23
8618.00,1.23
8617.00,1.23
8616.00,1.23
8615.00,1.23
8614.00,1.23
8613.00,1.23
8612.00,1.23
8611.00,1.23
8610.00,1.23
8609.00,1.23
8608.00,1.23
8607.00,1.23
8606.00,1.23
8605.00,1.23
8604.00,1.23
8603.00,1.23
8602.00,1.23
8601.00,1.23
8600.00,1.23
8599.00,1.23
8598.00,1.22
8597.00,1.22
8596.00,1.22
8595.00,1.22
8594.00,1.22
8593.00,1.22
8592.00,1.22
8591.00,1.22
8590.00,1.21
8589.00,1.21
8588.00,1.21
8587.00,1.21
8586.00,1.21
8585.00,1.21
8584.00,1.21
8583.00,1.21
8582.00,1.21
8581.00,1.21
8580.00,1.21
8579.00,1.21
8578.00,1.21
8577.00,1.21
8576.00,1.21
8575.00,1.21
8574.00,1.21
8573.00,1.21
8572.00,1.21
8571.00,1.21
8570.00,1.21
8569.00,1.21
8568.00,1.21
8567.00,1.21
8566.00,1.21
8565.00,1.21
8564.00,1.21
8563.00,1.21
8562.00,1.21
8561.00,1.21
8560.00,1.21
8559.00,1.20
8558.00,1.20
8557.00,1.20
8556.00,1.20
8555.00,1.20
8554.00,1.20
8553.00,1.20
8552.00,1.20
8551.00,1.20
8550.00,1.21
8549.00,1.21
8548.00,1.21
8547.00,1.21
8546.00,1.21
8545.00,1.21
8544.00,1.21
8543.00,1.21
8542.00,1.20
8541.00,1.20
8540.00,1.20
8539.00,1.20
8538.00,1.20
8537.00,1.20
8536.00,1.20
8535.00,1.20
8534.00,1.19
8533.00,1.19
8532.00,1.19
8531.00,1.19
8530.00,1.19
8529.00,1.19
8528.00,1.19
8527.00,1.19
8526.00,1.19
8525.00,1.19
8524.00,1.19
8523.00,1.19
8522.00,1.19
8521.00,1.19
8520.00,1.19
8519.00,1.19
8518.00,1.19
8517.00,1.19
8516.00,1.19
8515.00,1.18
8514.00,1.18
8513.00,1.18
8512.00,1.18
8511.00,1.18
8510.00,1.18
8509.00,1.18
8508.00,1.18
8507.00,1.18
8506.00,1.18
8505.00,1.18
8504.00,1.18
8503.00,1.18
8502.00,1.18
8501.00,1.18
8500.00,1.18
8499.00,1.18
8498.00,1.18
8497.00,1.17
8496.00,1.17
8495.00,1.17
8494.00,1.17
8493.00,1.17
8492.00,1.17
8491.00,1.16
8490.00,1.16
8489.00,1.16
8488.00,1.16
8487.00,1.16
8486.00,1.15
8485.00,1.15
8484.00,1.15
8483.00,1.15
8482.00,1.15
8481.00,1.15
8480.00,1.15
8479.00,1.15
8478.00,1.15
8477.00,1.15
8476.00,1.15
8475.00,1.15
8474.00,1.15
8473.00,1.15
8472.00,1.15
8471.00,1.15
8470.00,1.15
8469.00,1.15
8468.00,1.15
8467.00,1.15
8466.00,1.14
8465.00,1.14
8464.00,1.14
8463.00,1.14
8462.00,1.14
8461.00,1.14
8460.00,1.14
8459.00,1.14
8458.00,1.14
8457.00,1.14
8456.00,1.14
8455.00,1.14
8454.00,1.14
8453.00,1.14
8452.00,1.14
8451.00,1.14
8450.00,1.14
8449.00,1.14
8448.00,1.14
8447.00,1.14
8446.00,1.14
8445.00,1.14
8444.00,1.13
8443.00,1.13
8442.00,1.13
8441.00,1.13
8440.00,1.13
8439.00,1.13
8438.00,1.13
8437.00,1.12
8436.00,1.12
8435.00,1.12
8434.00,1.12
8433.00,1.12
8432.00,1.12
8431.00,1.12
8430.00,1.12
8429.00,1.12
8428.00,1.12
8427.00,1.12
8426.00,1.12
8425.00,1.12
8424.00,1.12
8423.00,1.12
8422.00,1.12
8421.00,1.12
8420.00,1.12
8419.00,1.12
8418.00,1.13
8417.00,1.13
8416.00,1.13
8415.00,1.13
8414.00,1.13
8413.00,1.13
8412.00,1.14
8411.00,1.14
8410.00,1.14
8409.00,1.14
8408.00,1.14
8407.00,1.14
8406.00,1.14
8405.00,1.14
8404.00,1.14
8403.00,1.14
8402.00,1.15
8401.00,1.15
8400.00,1.15
8399.00,1.15
8398.00,1.15
8397.00,1.15
8396.00,1.15
8395.00,1.15
8394.00,1.15
8393.00,1.15
8392.00,1.15
8391.00,1.15
8390.00,1.15
8389.00,1.16
8388.00,1.16
8387.00,1.16
8386.00,1.16
8385.00,1.16
8384.00,1.16
8383.00,1.16
8382.00,1.17
8381.00,1.17
8380.00,1.17
8379.00,1.17
8378.00,1.17
8377.00,1.17
8376.00,1.17
8375.00,1.17
8374.00,1.17
8373.00,1.17
8372.00,1.17
8371.00,1.17
8370.00,1.17
8369.00,1.17
8368.00,1.17
8367.00,1.18
8366.00,1.18
8365.00,1.18
8364.00,1.18
8363.00,1.18
8362.00,1.18
8361.00,1.18
8360.00,1.18
8359.00,1.18
8358.00,1.18
8357.00,1.18
8356.00,1.18
8355.00,1.18
8354.00,1.18
8353.00,1.18
8352.00,1.18
8351.00,1.18
8350.00,1.18
8349.00,1.18
8348.00,1.18
8347.00,1.18
8346.00,1.19
8345.00,1.19
8344.00,1.19
8343.00,1.19
8342.00,1.19
8341.00,1.19
8340.00,1.19
8339.00,1.19
8338.00,1.19
8337.00,1.18
8336.00,1.18
8335.00,1.18
8334.00,1.18
8333.00,1.18
8332.00,1.18
8331.00,1.18
8330.00,1.18
8329.00,1.18
8328.00,1.18
8327.00,1.18
8326.00,1.18
8325.00,1.18
8324.00,1.18
8323.00,1.18
8322.00,1.19
8321.00,1.19
8320.00,1.19
8319.00,1.19
8318.00,1.19
8317.00,1.19
8316.00,1.19
8315.00,1.19
8314.00,1.19
8313.00,1.19
8312.00,1.19
8311.00,1.20
8310.00,1.20
8309.00,1.20
8308.00,1.20
8307.00,1.20
8306.00,1.19
8305.00,1.19
8304.00,1.19
8303.00,1.19
8302.00,1.19
8301.00,1.19
8300.00,1.19
8299.00,1.19
8298.00,1.20
8297.00,1.20
8296.00,1.20
8295.00,1.20
8294.00,1.20
8293.00,1.20
8292.00,1.20
8291.00,1.20
8290.00,1.20
8289.00,1.20
8288.00,1.20
8287.00,1.20
8286.00,1.20
8285.00,1.21
8284.00,1.21
8283.00,1.21
8282.00,1.21
8281.00,1.21
8280.00,1.21
8279.00,1.21
8278.00,1.21
8277.00,1.21
8276.00,1.21
8275.00,1.20
8274.00,1.20
8273.00,1.20
8272.00,1.20
8271.00,1.20
8270.00,1.20
8269.00,1.20
8268.00,1.20
8267.00,1.20
8266.00,1.20
8265.00,1.20
8264.00,1.20
8263.00,1.20
8262.00,1.20
8261.00,1.20
8260.00,1.20
8259.00,1.20
8258.00,1.21
8257.00,1.21
8256.00,1.21
8255.00,1.21
8254.00,1.21
8253.00,1.21
8252.00,1.21
8251.00,1.21
8250.00,1.22
8249.00,1.22
8248.00,1.22
8247.00,1.22
8246.00,1.22
8245.00,1.22
8244.00,1.22
8243.00,1.22
8242.00,1.22
8241.00,1.22
8240.00,1.22
8239.00,1.22
8238.00,1.22
8237.00,1.22
8236.00,1.21
8235.00,1.21
8234.00,1.21
8233.00,1.21
8232.00,1.21
8231.00,1.21
8230.00,1.21
8229.00,1.21
8228.00,1.21
8227.00,1.21
8226.00,1.21
8225.00,1.21
8224.00,1.21
8223.00,1.21
8222.00,1.22
8221.00,1.22
8220.00,1.22
8219.00,1.22
8218.00,1.22
8217.00,1.22
8216.00,1.22
8215.00,1.22
8214.00,1.22
8213.00,1.22
8212.00,1.22
8211.00,1.22
8210.00,1.22
8209.00,1.22
8208.00,1.22
8207.00,1.22
8206.00,1.22
8205.00,1.22
8204.00,1.22
8203.00,1.22
8202.00,1.23
8201.00,1.23
8200.00,1.23
8199.00,1.23
8198.00,1.23
8197.00,1.23
8196.00,1.23
8195.00,1.23
8194.00,1.23
8193.00,1.23
8192.00,1.23
8191.00,1.23
8190.00,1.23
8189.00,1.23
8188.00,1.23
8187.00,1.23
8186.00,1.23
8185.00,1.23
8184.00,1.23
8183.00,1.23
8182.00,1.23
8181.00,1.23
8180.00,1.23
8179.00,1.24
8178.00,1.24
8177.00,1.24
8176.00,1.24
8175.00,1.24
8174.00,1.24
8173.00,1.24
8172.00,1.23
8171.00,1.23
8170.00,1.23
8169.00,1.23
8168.00,1.23
8167.00,1.23
8166.00,1.23
8165.00,1.23
8164.00,1.23
8163.00,1.23
8162.00,1.23
8161.00,1.22
8160.00,1.22
8159.00,1.22
8158.00,1.22
8157.00,1.22
8156.00,1.23
8155.00,1.23
8154.00,1.23
8153.00,1.23
8152.00,1.23
8151.00,1.23
8150.00,1.23
8149.00,1.23
8148.00,1.24
8147.00,1.24
8146.00,1.24
8145.00,1.24
8144.00,1.24
8143.00,1.24
8142.00,1.24
8141.00,1.24
8140.00,1.25
8139.00,1.25
8138.00,1.25
8137.00,1.25
8136.00,1.25
8135.00,1.24
8134.00,1.24
8133.00,1.24
8132.00,1.24
8131.00,1.24
8130.00,1.24
8129.00,1.24
8128.00,1.24
8127.00,1.24
8126.00,1.24
8125.00,1.24
8124.00,1.24
8123.00,1.24
8122.00,1.24
8121.00,1.24
8120.00,1.24
8119.00,1.24
8118.00,1.24
8117.00,1.24
8116.00,1.24
8115.00,1.24
8114.00,1.24
8113.00,1.24
8112.00,1.25
8111.00,1.25
8110.00,1.25
8109.00,1.25
8108.00,1.25
8107.00,1.25
8106.00,1.26
8105.00,1.26
8104.00,1.26
8103.00,1.26
8102.00,1.26
8101.00,1.26
8100.00,1.26
8099.00,1.26
8098.00,1.26
8097.00,1.26
8096.00,1.26
8095.00,1.26
8094.00,1.25
8093.00,1.25
8092.00,1.25
8091.00,1.25
8090.00,1.25
8089.00,1.25
8088.00,1.25
8087.00,1.25
8086.00,1.25
8085.00,1.25
8084.00,1.25
8083.00,1.25
8082.00,1.25
8081.00,1.25
8080.00,1.25
8079.00,1.25
8078.00,1.25
8077.00,1.25
8076.00,1.25
8075.00,1.25
8074.00,1.25
8073.00,1.25
8072.00,1.25
8071.00,1.25
8070.00,1.25
8069.00,1.25
8068.00,1.25
8067.00,1.25
8066.00,1.25
8065.00,1.25
8064.00,1.25
8063.00,1.25
8062.00,1.25
8061.00,1.25
8060.00,1.25
8059.00,1.25
8058.00,1.25
8057.00,1.25
8056.00,1.25
8055.00,1.25
8054.00,1.25
8053.00,1.25
8052.00,1.25
8051.00,1.25
8050.00,1.25
8049.00,1.25
8048.00,1.25
8047.00,1.25
8046.00,1.25
8045.00,1.25
8044.00,1.25
8043.00,1.25
8042.00,1.25
8041.00,1.25
8040.00,1.25
8039.00,1.25
8038.00,1.25
8037.00,1.25
8036.00,1.25
8035.00,1.25
8034.00,1.25
8033.00,1.25
8032.00,1.25
8031.00,1.25
8030.00,1.25
8029.00,1.25
8028.00,1.25
8027.00,1.25
8026.00,1.25
8025.00,1.25
8024.00,1.25
8023.00,1.25
8022.00,1.25
8021.00,1.25
8020.00,1.25
8019.00,1.25
8018.00,1.25
8017.00,1.25
8016.00,1.25
8015.00,1.25
8014.00,1.25
8013.00,1.25
8012.00,1.25
8011.00,1.26
8010.00,1.26
8009.00,1.26
8008.00,1.26
8007.00,1.26
8006.00,1.26
8005.00,1.26
8004.00,1.26
8003.00,1.26
8002.00,1.26
8001.00,1.26
8000.00,1.26
7999.00,1.27
7998.00,1.27
7997.00,1.27
7996.00,1.27
7995.00,1.27
7994.00,1.27
7993.00,1.27
7992.00,1.26
7991.00,1.26
7990.00,1.26
7989.00,1.26
7988.00,1.26
7987.00,1.26
7986.00,1.26
7985.00,1.26
7984.00,1.26
7983.00,1.26
7982.00,1.27
7981.00,1.27
7980.00,1.27
7979.00,1.27
7978.00,1.27
7977.00,1.27
7976.00,1.27
7975.00,1.27
7974.00,1.27
7973.00,1.28
7972.00,1.28
7971.00,1.28
7970.00,1.28
7969.00,1.28
7968.00,1.28
7967.00,1.28
7966.00,1.28
7965.00,1.28
7964.00,1.28
7963.00,1.28
7962.00,1.28
7961.00,1.28
7960.00,1.28
7959.00,1.28
7958.00,1.28
7957.00,1.28
7956.00,1.28
7955.00,1.28
7954.00,1.28
7953.00,1.28
7952.00,1.28
7951.00,1.28
7950.00,1.28
7949.00,1.28
7948.00,1.28
7947.00,1.28
7946.00,1.28
7945.00,1.28
7944.00,1.28
7943.00,1.28
7942.00,1.28
7941.00,1.28
7940.00,1.28
7939.00,1.28
7938.00,1.28
7937.00,1.28
7936.00,1.28
7935.00,1.28
7934.00,1.28
7933.00,1.28
7932.00,1.28
7931.00,1.28
7930.00,1.28
7929.00,1.28
7928.00,1.28
7927.00,1.28
7926.00,1.28
7925.00,1.29
7924.00,1.29
7923.00,1.29
7922.00,1.29
7921.00,1.29
7920.00,1.29
7919.00,1.29
7918.00,1.29
7917.00,1.29
7916.00,1.29
7915.00,1.29
7914.00,1.29
7913.00,1.29
7912.00,1.29
7911.00,1.29
7910.00,1.29
7909.00,1.29
7908.00,1.29
7907.00,1.29
7906.00,1.29
7905.00,1.29
7904.00,1.29
7903.00,1.29
7902.00,1.29
7901.00,1.29
7900.00,1.29
7899.00,1.29
7898.00,1.29
7897.00,1.29
7896.00,1.29
7895.00,1.29
7894.00,1.29
7893.00,1.29
7892.00,1.29
7891.00,1.29
7890.00,1.29
7889.00,1.29
7888.00,1.29
7887.00,1.29
7886.00,1.29
7885.00,1.29
7884.00,1.29
7883.00,1.30
7882.00,1.30
7881.00,1.30
7880.00,1.30
7879.00,1.30
7878.00,1.30
7877.00,1.30
7876.00,1.30
7875.00,1.30
7874.00,1.30
7873.00,1.30
7872.00,1.30
7871.00,1.30
7870.00,1.30
7869.00,1.30
7868.00,1.31
7867.00,1.31
7866.00,1.31
7865.00,1.31
7864.00,1.31
7863.00,1.31
7862.00,1.31
7861.00,1.31
7860.00,1.31
7859.00,1.31
7858.00,1.31
7857.00,1.31
7856.00,1.31
7855.00,1.31
7854.00,1.31
7853.00,1.31
7852.00,1.31
7851.00,1.31
7850.00,1.31
7849.00,1.31
7848.00,1.31
7847.00,1.31
7846.00,1.31
7845.00,1.31
7844.00,1.31
7843.00,1.31
7842.00,1.31
7841.00,1.31
7840.00,1.31
7839.00,1.31
7838.00,1.31
7837.00,1.31
7836.00,1.31
7835.00,1.31
7834.00,1.31
7833.00,1.31
7832.00,1.31
7831.00,1.31
7830.00,1.31
7829.00,1.31
7828.00,1.31
7827.00,1.31
7826.00,1.31
7825.00,1.31
7824.00,1.31
7823.00,1.31
7822.00,1.31
7821.00,1.31
7820.00,1.31
7819.00,1.31
7818.00,1.31
7817.00,1.31
7816.00,1.31
7815.00,1.31
7814.00,1.31
7813.00,1.31
7812.00,1.31
7811.00,1.31
7810.00,1.31
7809.00,1.31
7808.00,1.31
7807.00,1.31
7806.00,1.31
7805.00,1.31
7804.00,1.31
7803.00,1.31
7802.00,1.31
7801.00,1.31
7800.00,1.31
7799.00,1.31
7798.00,1.31
7797.00,1.31
7796.00,1.31
7795.00,1.31
7794.00,1.31
7793.00,1.31
7792.00,1.31
7791.00,1.31
7790.00,1.31
7789.00,1.31
7788.00,1.31
7787.00,1.32
7786.00,1.32
7785.00,1.32
7784.00,1.32
7783.00,1.32
7782.00,1.32
7781.00,1.32
7780.00,1.32
7779.00,1.32
7778.00,1.32
7777.00,1.32
7776.00,1.32
7775.00,1.32
7774.00,1.32
7773.00,1.32
7772.00,1.32
7771.00,1.32
7770.00,1.32
7769.00,1.32
7768.00,1.32
7767.00,1.32
7766.00,1.32
7765.00,1.32
7764.00,1.32
7763.00,1.32
7762.00,1.32
7761.00,1.32
7760.00,1.32
7759.00,1.32
7758.00,1.32
7757.00,1.32
7756.00,1.32
7755.00,1.31
7754.00,1.31
7753.00,1.31
7752.00,1.31
7751.00,1.31
7750.00,1.31
7749.00,1.31
7748.00,1.31
7747.00,1.31
7746.00,1.31
7745.00,1.31
7744.00,1.31
7743.00,1.30
7742.00,1.30
7741.00,1.30
7740.00,1.30
7739.00,1.30
7738.00,1.30
7737.00,1.31
7736.00,1.31
7735.00,1.31
7734.00,1.31
7733.00,1.31
7732.00,1.31
7731.00,1.31
7730.00,1.31
7729.00,1.31
7728.00,1.31
7727.00,1.31
7726.00,1.31
7725.00,1.31
7724.00,1.32
7723.00,1.32
7722.00,1.32
7721.00,1.32
7720.00,1.32
7719.00,1.32
7718.00,1.32
7717.00,1.32
7716.00,1.32
7715.00,1.32
7714.00,1.32
7713.00,1.32
7712.00,1.32
7711.00,1.31
7710.00,1.31
7709.00,1.31
7708.00,1.31
7707.00,1.31
7706.00,1.31
7705.00,1.31
7704.00,1.31
7703.00,1.31
7702.00,1.31
7701.00,1.31
7700.00,1.31
7699.00,1.31
7698.00,1.31
7697.00,1.31
7696.00,1.31
7695.00,1.31
7694.00,1.31
7693.00,1.31
7692.00,1.31
7691.00,1.31
7690.00,1.31
7689.00,1.31
7688.00,1.31
7687.00,1.31
7686.00,1.31
7685.00,1.31
7684.00,1.31
7683.00,1.31
7682.00,1.31
7681.00,1.31
7680.00,1.31
7679.00,1.31
7678.00,1.31
7677.00,1.31
7676.00,1.31
7675.00,1.31
7674.00,1.31
7673.00,1.31
7672.00,1.31
7671.00,1.31
7670.00,1.31
7669.00,1.32
7668.00,1.32
7667.00,1.32
7666.00,1.32
7665.00,1.32
7664.00,1.32
7663.00,1.32
7662.00,1.32
7661.00,1.32
7660.00,1.32
7659.00,1.32
7658.00,1.32
7657.00,1.32
7656.00,1.32
7655.00,1.31
7654.00,1.31
7653.00,1.31
7652.00,1.31
7651.00,1.31
7650.00,1.31
7649.00,1.31
7648.00,1.31
7647.00,1.31
7646.00,1.31
7645.00,1.31
7644.00,1.31
7643.00,1.31
7642.00,1.31
7641.00,1.31
7640.00,1.31
7639.00,1.31
7638.00,1.31
7637.00,1.31
7636.00,1.31
7635.00,1.31
7634.00,1.31
7633.00,1.31
7632.00,1.31
7631.00,1.31
7630.00,1.31
7629.00,1.31
7628.00,1.31
7627.00,1.31
7626.00,1.31
7625.00,1.31
7624.00,1.31
7623.00,1.31
7622.00,1.31
7621.00,1.31
7620.00,1.31
7619.00,1.31
7618.00,1.31
7617.00,1.31
7616.00,1.32
7615.00,1.32
7614.00,1.32
7613.00,1.32
7612.00,1.32
7611.00,1.32
7610.00,1.32
7609.00,1.32
7608.00,1.32
7607.00,1.32
7606.00,1.32
7605.00,1.31
7604.00,1.31
7603.00,1.31
7602.00,1.31
7601.00,1.31
7600.00,1.31
7599.00,1.31
7598.00,1.31
7597.00,1.31
7596.00,1.31
7595.00,1.31
7594.00,1.31
7593.00,1.31
7592.00,1.31
7591.00,1.31
7590.00,1.31
7589.00,1.31
7588.00,1.31
7587.00,1.31
7586.00,1.31
7585.00,1.31
7584.00,1.31
7583.00,1.31
7582.00,1.31
7581.00,1.31
7580.00,1.31
7579.00,1.31
7578.00,1.31
7577.00,1.31
7576.00,1.31
7575.00,1.31
7574.00,1.31
7573.00,1.31
7572.00,1.31
7571.00,1.31
7570.00,1.31
7569.00,1.31
7568.00,1.31
7567.00,1.31
7566.00,1.31
7565.00,1.31
7564.00,1.31
7563.00,1.31
7562.00,1.31
7561.00,1.31
7560.00,1.31
7559.00,1.31
7558.00,1.31
7557.00,1.31
7556.00,1.31
7555.00,1.31
7554.00,1.31
7553.00,1.31
7552.00,1.31
7551.00,1.31
7550.00,1.31
7549.00,1.31
7548.00,1.31
7547.00,1.31
7546.00,1.31
7545.00,1.31
7544.00,1.31
7543.00,1.31
7542.00,1.31
7541.00,1.31
7540.00,1.31
7539.00,1.31
7538.00,1.31
7537.00,1.31
7536.00,1.30
7535.00,1.30
7534.00,1.30
7533.00,1.30
7532.00,1.30
7531.00,1.30
7530.00,1.30
7529.00,1.30
7528.00,1.30
7527.00,1.30
7526.00,1.30
7525.00,1.30
7524.00,1.30
7523.00,1.30
7522.00,1.30
7521.00,1.30
7520.00,1.30
7519.00,1.30
7518.00,1.30
7517.00,1.30
7516.00,1.30
7515.00,1.30
7514.00,1.30
7513.00,1.30
7512.00,1.30
7511.00,1.30
7510.00,1.30
7509.00,1.30
7508.00,1.30
7507.00,1.30
7506.00,1.29
7505.00,1.29
7504.00,1.29
7503.00,1.29
7502.00,1.29
7501.00,1.29
7500.00,1.29
7499.00,1.29
7498.00,1.29
7497.00,1.29
7496.00,1.29
7495.00,1.29
7494.00,1.29
7493.00,1.29
7492.00,1.29
7491.00,1.29
7490.00,1.28
7489.00,1.28
7488.00,1.28
7487.00,1.28
7486.00,1.28
7485.00,1.28
7484.00,1.28
7483.00,1.28
7482.00,1.28
7481.00,1.28
7480.00,1.28
7479.00,1.28
7478.00,1.28
7477.00,1.28
7476.00,1.28
7475.00,1.28
7474.00,1.28
7473.00,1.28
7472.00,1.28
7471.00,1.28
7470.00,1.28
7469.00,1.28
7468.00,1.28
7467.00,1.28
7466.00,1.28
7465.00,1.28
7464.00,1.28
7463.00,1.28
7462.00,1.28
7461.00,1.28
7460.00,1.27
7459.00,1.27
7458.00,1.27
7457.00,1.27
7456.00,1.27
7455.00,1.27
7454.00,1.27
7453.00,1.27
7452.00,1.27
7451.00,1.27
7450.00,1.27
7449.00,1.27
7448.00,1.27
7447.00,1.27
7446.00,1.27
7445.00,1.27
7444.00,1.27
7443.00,1.27
7442.00,1.27
7441.00,1.27
7440.00,1.27
7439.00,1.27
7438.00,1.27
7437.00,1.27
7436.00,1.27
7435.00,1.27
7434.00,1.27
7433.00,1.27
7432.00,1.26
7431.00,1.26
7430.00,1.26
7429.00,1.26
7428.00,1.26
7427.00,1.26
7426.00,1.26
7425.00,1.26
7424.00,1.26
7423.00,1.26
7422.00,1.26
7421.00,1.26
7420.00,1.26
7419.00,1.26
7418.00,1.26
7417.00,1.26
7416.00,1.26
7415.00,1.25
7414.00,1.25
7413.00,1.25
7412.00,1.25
7411.00,1.25
7410.00,1.25
7409.00,1.25
7408.00,1.25
7407.00,1.25
7406.00,1.24
7405.00,1.24
7404.00,1.24
7403.00,1.24
7402.00,1.24
7401.00,1.24
7400.00,1.24
7399.00,1.24
7398.00,1.24
7397.00,1.23
7396.00,1.23
7395.00,1.23
7394.00,1.23
7393.00,1.23
7392.00,1.23
7391.00,1.23
7390.00,1.23
7389.00,1.22
7388.00,1.22
7387.00,1.22
7386.00,1.22
7385.00,1.22
7384.00,1.22
7383.00,1.22
7382.00,1.22
7381.00,1.22
7380.00,1.22
7379.00,1.22
7378.00,1.22
7377.00,1.22
7376.00,1.22
7375.00,1.22
7374.00,1.22
7373.00,1.21
7372.00,1.21
7371.00,1.21
7370.00,1.21
7369.00,1.21
7368.00,1.21
7367.00,1.21
7366.00,1.21
7365.00,1.21
7364.00,1.21
7363.00,1.21
7362.00,1.21
7361.00,1.20
7360.00,1.20
7359.00,1.20
7358.00,1.20
7357.00,1.20
7356.00,1.20
7355.00,1.20
7354.00,1.20
7353.00,1.20
7352.00,1.20
7351.00,1.20
7350.00,1.20
7349.00,1.20
7348.00,1.20
7347.00,1.20
7346.00,1.20
7345.00,1.20
7344.00,1.20
7343.00,1.19
7342.00,1.19
7341.00,1.19
7340.00,1.19
7339.00,1.19
7338.00,1.19
7337.00,1.20
7336.00,1.20
7335.00,1.20
7334.00,1.20
7333.00,1.20
7332.00,1.20
7331.00,1.20
7330.00,1.20
7329.00,1.20
7328.00,1.20
7327.00,1.20
7326.00,1.20
7325.00,1.20
7324.00,1.20
7323.00,1.20
7322.00,1.20
7321.00,1.20
7320.00,1.20
7319.00,1.20
7318.00,1.20
7317.00,1.20
7316.00,1.20
7315.00,1.20
7314.00,1.20
7313.00,1.19
7312.00,1.19
7311.00,1.19
7310.00,1.19
7309.00,1.19
7308.00,1.19
7307.00,1.19
7306.00,1.19
7305.00,1.19
7304.00,1.19
7303.00,1.18
7302.00,1.18
7301.00,1.18
7300.00,1.18
7299.00,1.18
7298.00,1.18
7297.00,1.18
7296.00,1.17
7295.00,1.17
7294.00,1.17
7293.00,1.17
7292.00,1.17
7291.00,1.17
7290.00,1.17
7289.00,1.17
7288.00,1.16
7287.00,1.16
7286.00,1.16
7285.00,1.16
7284.00,1.16
7283.00,1.16
7282.00,1.16
7281.00,1.16
7280.00,1.15
7279.00,1.15
7278.00,1.15
7277.00,1.15
7276.00,1.15
7275.00,1.15
7274.00,1.15
7273.00,1.15
7272.00,1.15
7271.00,1.15
7270.00,1.14
7269.00,1.14
7268.00,1.14
7267.00,1.14
7266.00,1.14
7265.00,1.14
7264.00,1.14
7263.00,1.14
7262.00,1.14
7261.00,1.14
7260.00,1.13
7259.00,1.13
7258.00,1.13
7257.00,1.13
7256.00,1.13
7255.00,1.13
7254.00,1.12
7253.00,1.12
7252.00,1.12
7251.00,1.12
7250.00,1.12
7249.00,1.11
7248.00,1.11
7247.00,1.11
7246.00,1.11
7245.00,1.10
7244.00,1.10
7243.00,1.10
7242.00,1.10
7241.00,1.09
7240.00,1.09
7239.00,1.09
7238.00,1.08
7237.00,1.08
7236.00,1.08
7235.00,1.07
7234.00,1.07
7233.00,1.07
7232.00,1.06
7231.00,1.06
7230.00,1.05
7229.00,1.05
7228.00,1.05
7227.00,1.04
7226.00,1.04
7225.00,1.04
7224.00,1.03
7223.00,1.03
7222.00,1.03
7221.00,1.03
7220.00,1.02
7219.00,1.02
7218.00,1.02
7217.00,1.01
7216.00,1.01
7215.00,1.01
7214.00,1.00
7213.00,1.00
7212.00,1.00
7211.00,1.00
7210.00,0.99
7209.00,0.99
7208.00,0.99
7207.00,0.98
7206.00,0.98
7205.00,0.98
7204.00,0.97
7203.00,0.97
7202.00,0.97
7201.00,0.96
7200.00,0.96
7199.00,0.96
7198.00,0.95
7197.00,0.95
7196.00,0.95
7195.00,0.95
7194.00,0.94
7193.00,0.94
7192.00,0.94
7191.00,0.94
7190.00,0.93
7189.00,0.93
7188.00,0.93
7187.00,0.93
7186.00,0.92
7185.00,0.92
7184.00,0.92
7183.00,0.92
7182.00,0.92
7181.00,0.91
7180.00,0.91
7179.00,0.91
7178.00,0.91
7177.00,0.91
7176.00,0.90
7175.00,0.90
7174.00,0.90
7173.00,0.90
7172.00,0.89
7171.00,0.89
7170.00,0.89
7169.00,0.89
7168.00,0.88
7167.00,0.88
7166.00,0.88
7165.00,0.88
7164.00,0.87
7163.00,0.87
7162.00,0.87
7161.00,0.87
7160.00,0.87
7159.00,0.86
7158.00,0.86
7157.00,0.86
7156.00,0.86
7155.00,0.86
7154.00,0.85
7153.00,0.85
7152.00,0.85
7151.00,0.85
7150.00,0.84
7149.00,0.84
7148.00,0.84
7147.00,0.84
7146.00,0.84
7145.00,0.83
7144.00,0.83
7143.00,0.83
7142.00,0.83
7141.00,0.82
7140.00,0.82
7139.00,0.82
7138.00,0.81
7137.00,0.81
7136.00,0.81
7135.00,0.81
7134.00,0.80
7133.00,0.80
7132.00,0.80
7131.00,0.80
7130.00,0.79
7129.00,0.79
7128.00,0.79
7127.00,0.79
7126.00,0.78
7125.00,0.78
7124.00,0.78
7123.00,0.78
7122.00,0.77
7121.00,0.77
7120.00,0.77
7119.00,0.77
7118.00,0.77
7117.00,0.77
7116.00,0.76
7115.00,0.76
7114.00,0.76
7113.00,0.76
7112.00,0.75
7111.00,0.75
7110.00,0.75
7109.00,0.75
7108.00,0.74
7107.00,0.74
7106.00,0.74
7105.00,0.74
7104.00,0.73
7103.00,0.73
7102.00,0.73
7101.00,0.73
7100.00,0.72
7099.00,0.72
7098.00,0.72
7097.00,0.72
7096.00,0.72
7095.00,0.71
7094.00,0.71
7093.00,0.71
7092.00,0.71
7091.00,0.71
7090.00,0.70
7089.00,0.70
7088.00,0.70
7087.00,0.70
7086.00,0.70
7085.00,0.70
7084.00,0.69
7083.00,0.69
7082.00,0.69
7081.00,0.69
7080.00,0.69
7079.00,0.69
7078.00,0.68
7077.00,0.68
7076.00,0.68
7075.00,0.68
7074.00,0.68
7073.00,0.68
7072.00,0.68
7071.00,0.67
7070.00,0.67
7069.00,0.67
7068.00,0.67
7067.00,0.67
7066.00,0.67
7065.00,0.67
7064.00,0.66
7063.00,0.66
7062.00,0.66
7061.00,0.66
7060.00,0.66
7059.00,0.66
7058.00,0.66
7057.00,0.66
7056.00,0.65
7055.00,0.65
7054.00,0.65
7053.00,0.65
7052.00,0.65
7051.00,0.65
7050.00,0.65
7049.00,0.65
7048.00,0.65
7047.00,0.65
7046.00,0.64
7045.00,0.64
7044.00,0.64
7043.00,0.64
7042.00,0.64
7041.00,0.64
7040.00,0.64
7039.00,0.64
7038.00,0.64
7037.00,0.64
7036.00,0.64
7035.00,0.64
7034.00,0.63
7033.00,0.63
7032.00,0.63
7031.00,0.63
7030.00,0.63
7029.00,0.63
7028.00,0.63
7027.00,0.63
7026.00,0.63
7025.00,0.62
7024.00,0.62
7023.00,0.62
7022.00,0.62
7021.00,0.62
7020.00,0.62
7019.00,0.62
7018.00,0.62
7017.00,0.62
7016.00,0.62
7015.00,0.62
7014.00,0.62
7013.00,0.61
7012.00,0.61
7011.00,0.61
7010.00,0.61
7009.00,0.61
7008.00,0.61
7007.00,0.61
7006.00,0.61
7005.00,0.61
7004.00,0.61
7003.00,0.61
7002.00,0.61
7001.00,0.61
7000.00,0.61
6999.00,0.61
6998.00,0.60
6997.00,0.60
6996.00,0.60
6995.00,0.60
6994.00,0.60
6993.00,0.60
6992.00,0.60
6991.00,0.60
6990.00,0.60
6989.00,0.60
6988.00,0.60
6987.00,0.60
6986.00,0.60
6985.00,0.60
6984.00,0.60
6983.00,0.60
6982.00,0.60
6981.00,0.60
6980.00,0.59
6979.00,0.59
6978.00,0.59
6977.00,0.59
6976.00,0.59
6975.00,0.59
6974.00,0.59
6973.00,0.59
6972.00,0.59
6971.00,0.59
6970.00,0.59
6969.00,0.59
6968.00,0.59
6967.00,0.59
6966.00,0.58
6965.00,0.58
6964.00,0.58
6963.00,0.58
6962.00,0.58
6961.00,0.58
6960.00,0.58
6959.00,0.58
6958.00,0.58
6957.00,0.58
6956.00,0.58
6955.00,0.58
6954.00,0.58
6953.00,0.58
6952.00,0.58
6951.00,0.58
6950.00,0.58
6949.00,0.58
6948.00,0.58
6947.00,0.57
6946.00,0.57
6945.00,0.57
6944.00,0.57
6943.00,0.57
6942.00,0.57
6941.00,0.57
6940.00,0.57
6939.00,0.57
6938.00,0.57
6937.00,0.57
6936.00,0.57
6935.00,0.57
6934.00,0.57
6933.00,0.57
6932.00,0.57
6931.00,0.57
6930.00,0.57
6929.00,0.57
6928.00,0.57
6927.00,0.57
6926.00,0.57
6925.00,0.57
6924.00,0.57
6923.00,0.57
6922.00,0.57
6921.00,0.57
6920.00,0.57
6919.00,0.57
6918.00,0.57
6917.00,0.57
6916.00,0.57
6915.00,0.57
6914.00,0.57
6913.00,0.57
6912.00,0.57
6911.00,0.57
6910.00,0.57
6909.00,0.57
6908.00,0.57
6907.00,0.57
6906.00,0.57
6905.00,0.57
6904.00,0.57
6903.00,0.57
6902.00,0.57
6901.00,0.57
6900.00,0.57
6899.00,0.57
6898.00,0.57
6897.00,0.57
6896.00,0.57
6895.00,0.57
6894.00,0.57
6893.00,0.57
6892.00,0.57
6891.00,0.57
6890.00,0.57
6889.00,0.57
6888.00,0.57
6887.00,0.57
6886.00,0.57
6885.00,0.57
6884.00,0.57
6883.00,0.57
6882.00,0.56
6881.00,0.56
6880.00,0.56
6879.00,0.56
6878.00,0.56
6877.00,0.56
6876.00,0.56
6875.00,0.56
6874.00,0.56
6873.00,0.56
6872.00,0.56
6871.00,0.56
6870.00,0.56
6869.00,0.56
6868.00,0.55
6867.00,0.55
6866.00,0.55
6865.00,0.55
6864.00,0.55
6863.00,0.55
6862.00,0.55
6861.00,0.55
6860.00,0.55
6859.00,0.55
6858.00,0.55
6857.00,0.55
6856.00,0.55
6855.00,0.55
6854.00,0.55
6853.00,0.55
6852.00,0.55
6851.00,0.55
6850.00,0.55
6849.00,0.55
6848.00,0.55
6847.00,0.55
6846.00,0.55
6845.00,0.55
6844.00,0.55
6843.00,0.55
6842.00,0.55
6841.00,0.55
6840.00,0.55
6839.00,0.56
6838.00,0.56
6837.00,0.56
6836.00,0.56
6835.00,0.56
6834.00,0.56
6833.00,0.56
6832.00,0.56
6831.00,0.56
6830.00,0.56
6829.00,0.56
6828.00,0.56
6827.00,0.56
6826.00,0.56
6825.00,0.56
6824.00,0.56
6823.00,0.56
6822.00,0.56
6821.00,0.56
6820.00,0.56
6819.00,0.56
6818.00,0.56
6817.00,0.57
6816.00,0.57
6815.00,0.57
6814.00,0.57
6813.00,0.57
6812.00,0.57
6811.00,0.57
6810.00,0.57
6809.00,0.57
6808.00,0.57
6807.00,0.57
6806.00,0.57
6805.00,0.57
6804.00,0.57
6803.00,0.57
6802.00,0.57
6801.00,0.57
6800.00,0.57
6799.00,0.57
6798.00,0.57
6797.00,0.57
6796.00,0.57
6795.00,0.57
6794.00,0.57
6793.00,0.57
6792.00,0.57
6791.00,0.57
6790.00,0.58
6789.00,0.58
6788.00,0.58
6787.00,0.58
6786.00,0.58
6785.00,0.58
6784.00,0.58
6783.00,0.58
6782.00,0.58
6781.00,0.58
6780.00,0.58
6779.00,0.58
6778.00,0.58
6777.00,0.58
6776.00,0.58
6775.00,0.58
6774.00,0.58
6773.00,0.58
6772.00,0.58
6771.00,0.58
6770.00,0.59
6769.00,0.59
6768.00,0.59
6767.00,0.59
6766.00,0.59
6765.00,0.59
6764.00,0.59
6763.00,0.59
6762.00,0.59
6761.00,0.59
6760.00,0.59
6759.00,0.59
6758.00,0.59
6757.00,0.59
6756.00,0.60
6755.00,0.60
6754.00,0.60
6753.00,0.60
6752.00,0.60
6751.00,0.60
6750.00,0.60
6749.00,0.60
6748.00,0.60
6747.00,0.60
6746.00,0.60
6745.00,0.60
6744.00,0.61
6743.00,0.61
6742.00,0.61
6741.00,0.61
6740.00,0.61
6739.00,0.61
6738.00,0.61
6737.00,0.61
6736.00,0.61
6735.00,0.61
6734.00,0.61
6733.00,0.61
6732.00,0.62
6731.00,0.62
6730.00,0.62
6729.00,0.62
6728.00,0.62
6727.00,0.62
6726.00,0.62
6725.00,0.62
6724.00,0.62
6723.00,0.62
6722.00,0.62
6721.00,0.62
6720.00,0.62
6719.00,0.63
6718.00,0.63
6717.00,0.63
6716.00,0.63
6715.00,0.63
6714.00,0.63
6713.00,0.63
6712.00,0.63
6711.00,0.63
6710.00,0.63
6709.00,0.63
6708.00,0.63
6707.00,0.63
6706.00,0.63
6705.00,0.63
6704.00,0.63
6703.00,0.63
6702.00,0.63
6701.00,0.63
6700.00,0.64
6699.00,0.64
6698.00,0.64
6697.00,0.64
6696.00,0.64
6695.00,0.64
6694.00,0.64
6693.00,0.64
6692.00,0.64
6691.00,0.65
6690.00,0.65
6689.00,0.65
6688.00,0.65
6687.00,0.65
6686.00,0.65
6685.00,0.65
6684.00,0.65
6683.00,0.66
6682.00,0.66
6681.00,0.66
6680.00,0.66
6679.00,0.66
6678.00,0.66
6677.00,0.66
6676.00,0.66
6675.00,0.66
6674.00,0.66
6673.00,0.66
6672.00,0.67
6671.00,0.67
6670.00,0.67
6669.00,0.67
6668.00,0.67
6667.00,0.67
6666.00,0.67
6665.00,0.67
6664.00,0.67
6663.00,0.67
6662.00,0.67
6661.00,0.67
6660.00,0.68
6659.00,0.68
6658.00,0.68
6657.00,0.68
6656.00,0.68
6655.00,0.68
6654.00,0.68
6653.00,0.68
6652.00,0.68
6651.00,0.68
6650.00,0.68
6649.00,0.69
6648.00,0.69
6647.00,0.69
6646.00,0.69
6645.00,0.69
6644.00,0.69
6643.00,0.69
6642.00,0.69
6641.00,0.70
6640.00,0.70
6639.00,0.70
6638.00,0.70
6637.00,0.70
6636.00,0.70
6635.00,0.70
6634.00,0.70
6633.00,0.70
6632.00,0.70
6631.00,0.70
6630.00,0.70
6629.00,0.70
6628.00,0.71
6627.00,0.71
6626.00,0.71
6625.00,0.71
6624.00,0.71
6623.00,0.71
6622.00,0.71
6621.00,0.71
6620.00,0.71
6619.00,0.71
6618.00,0.71
6617.00,0.71
6616.00,0.72
6615.00,0.72
6614.00,0.72
6613.00,0.72
6612.00,0.72
6611.00,0.72
6610.00,0.72
6609.00,0.72
6608.00,0.72
6607.00,0.72
6606.00,0.73
6605.00,0.73
6604.00,0.73
6603.00,0.73
6602.00,0.73
6601.00,0.73
6600.00,0.73
6599.00,0.73
6598.00,0.73
6597.00,0.74
6596.00,0.74
6595.00,0.74
6594.00,0.74
6593.00,0.74
6592.00,0.74
6591.00,0.74
6590.00,0.74
6589.00,0.74
6588.00,0.74
6587.00,0.74
6586.00,0.74
6585.00,0.74
6584.00,0.74
6583.00,0.74
6582.00,0.75
6581.00,0.75
6580.00,0.75
6579.00,0.75
6578.00,0.75
6577.00,0.75
6576.00,0.75
6575.00,0.75
6574.00,0.75
6573.00,0.75
6572.00,0.75
6571.00,0.75
6570.00,0.75
6569.00,0.75
6568.00,0.75
6567.00,0.75
6566.00,0.75
6565.00,0.75
6564.00,0.76
6563.00,0.76
6562.00,0.76
6561.00,0.76
6560.00,0.76
6559.00,0.76
6558.00,0.76
6557.00,0.76
6556.00,0.76
6555.00,0.76
6554.00,0.76
6553.00,0.76
6552.00,0.76
6551.00,0.76
6550.00,0.76
6549.00,0.77
6548.00,0.77
6547.00,0.77
6546.00,0.77
6545.00,0.77
6544.00,0.77
6543.00,0.77
6542.00,0.77
6541.00,0.77
6540.00,0.77
6539.00,0.77
6538.00,0.77
6537.00,0.78
6536.00,0.78
6535.00,0.78
6534.00,0.78
6533.00,0.78
6532.00,0.78
6531.00,0.78
6530.00,0.78
6529.00,0.78
6528.00,0.78
6527.00,0.78
6526.00,0.78
6525.00,0.78
6524.00,0.78
6523.00,0.78
6522.00,0.78
6521.00,0.78
6520.00,0.78
6519.00,0.78
6518.00,0.78
6517.00,0.79
6516.00,0.79
6515.00,0.79
6514.00,0.79
6513.00,0.79
6512.00,0.79
6511.00,0.79
6510.00,0.79
6509.00,0.79
6508.00,0.79
6507.00,0.79
6506.00,0.79
6505.00,0.79
6504.00,0.79
6503.00,0.80
6502.00,0.80
6501.00,0.80
6500.00,0.80
6499.00,0.80
6498.00,0.80
6497.00,0.80
6496.00,0.80
6495.00,0.80
6494.00,0.80
6493.00,0.80
6492.00,0.80
6491.00,0.80
6490.00,0.80
6489.00,0.80
6488.00,0.80
6487.00,0.80
6486.00,0.80
6485.00,0.80
6484.00,0.80
6483.00,0.80
6482.00,0.80
6481.00,0.80
6480.00,0.81
6479.00,0.81
6478.00,0.81
6477.00,0.81
6476.00,0.81
6475.00,0.81
6474.00,0.81
6473.00,0.81
6472.00,0.81
6471.00,0.81
6470.00,0.81
6469.00,0.81
6468.00,0.81
6467.00,0.81
6466.00,0.81
6465.00,0.81
6464.00,0.81
6463.00,0.82
6462.00,0.82
6461.00,0.82
6460.00,0.82
6459.00,0.82
6458.00,0.82
6457.00,0.82
6456.00,0.82
6455.00,0.82
6454.00,0.82
6453.00,0.82
6452.00,0.82
6451.00,0.82
6450.00,0.82
6449.00,0.82
6448.00,0.82
6447.00,0.82
6446.00,0.82
6445.00,0.82
6444.00,0.82
6443.00,0.82
6442.00,0.82
6441.00,0.82
6440.00,0.82
6439.00,0.82
6438.00,0.82
6437.00,0.82
6436.00,0.82
6435.00,0.82
6434.00,0.82
6433.00,0.83
6432.00,0.83
6431.00,0.83
6430.00,0.83
6429.00,0.83
6428.00,0.83
6427.00,0.83
6426.00,0.83
6425.00,0.83
6424.00,0.83
6423.00,0.83
6422.00,0.83
6421.00,0.83
6420.00,0.83
6419.00,0.84
6418.00,0.84
6417.00,0.84
6416.00,0.84
6415.00,0.84
6414.00,0.84
6413.00,0.84
6412.00,0.84
6411.00,0.84
6410.00,0.84
6409.00,0.84
6408.00,0.85
6407.00,0.85
6406.00,0.85
6405.00,0.85
6404.00,0.85
6403.00,0.85
6402.00,0.85
6401.00,0.85
6400.00,0.85
6399.00,0.85
6398.00,0.85
6397.00,0.85
6396.00,0.85
6395.00,0.85
6394.00,0.85
6393.00,0.85
6392.00,0.85
6391.00,0.85
6390.00,0.85
6389.00,0.85
6388.00,0.85
6387.00,0.85
6386.00,0.85
6385.00,0.85
6384.00,0.85
6383.00,0.85
6382.00,0.85
6381.00,0.85
6380.00,0.85
6379.00,0.85
6378.00,0.86
6377.00,0.86
6376.00,0.86
6375.00,0.86
6374.00,0.86
6373.00,0.86
6372.00,0.86
6371.00,0.86
6370.00,0.86
6369.00,0.86
6368.00,0.86
6367.00,0.86
6366.00,0.86
6365.00,0.86
6364.00,0.86
6363.00,0.86
6362.00,0.86
6361.00,0.86
6360.00,0.86
6359.00,0.87
6358.00,0.87
6357.00,0.87
6356.00,0.87
6355.00,0.87
6354.00,0.87
6353.00,0.87
6352.00,0.87
6351.00,0.87
6350.00,0.87
6349.00,0.87
6348.00,0.87
6347.00,0.88
6346.00,0.88
6345.00,0.88
6344.00,0.88
6343.00,0.88
6342.00,0.88
6341.00,0.88
6340.00,0.88
6339.00,0.88
6338.00,0.88
6337.00,0.88
6336.00,0.88
6335.00,0.88
6334.00,0.88
6333.00,0.88
6332.00,0.89
6331.00,0.89
6330.00,0.89
6329.00,0.89
6328.00,0.89
6327.00,0.89
6326.00,0.89
6325.00,0.89
6324.00,0.89
6323.00,0.90
6322.00,0.90
6321.00,0.90
6320.00,0.90
6319.00,0.90
6318.00,0.90
6317.00,0.90
6316.00,0.90
6315.00,0.90
6314.00,0.90
6313.00,0.90
6312.00,0.90
6311.00,0.91
6310.00,0.91
6309.00,0.91
6308.00,0.91
6307.00,0.91
6306.00,0.91
6305.00,0.91
6304.00,0.91
6303.00,0.91
6302.00,0.92
6301.00,0.92
6300.00,0.92
6299.00,0.92
6298.00,0.92
6297.00,0.92
6296.00,0.92
6295.00,0.92
6294.00,0.92
6293.00,0.92
6292.00,0.92
6291.00,0.93
6290.00,0.93
6289.00,0.93
6288.00,0.93
6287.00,0.93
6286.00,0.93
6285.00,0.93
6284.00,0.93
6283.00,0.93
6282.00,0.93
6281.00,0.94
6280.00,0.94
6279.00,0.94
6278.00,0.94
6277.00,0.94
6276.00,0.94
6275.00,0.94
6274.00,0.94
6273.00,0.95
6272.00,0.95
6271.00,0.95
6270.00,0.95
6269.00,0.95
6268.00,0.95
6267.00,0.95
6266.00,0.96
6265.00,0.96
6264.00,0.96
6263.00,0.96
6262.00,0.96
6261.00,0.96
6260.00,0.96
6259.00,0.96
6258.00,0.96
6257.00,0.96
6256.00,0.96
6255.00,0.96
6254.00,0.97
6253.00,0.97
6252.00,0.97
6251.00,0.97
6250.00,0.97
6249.00,0.97
6248.00,0.97
6247.00,0.97
6246.00,0.97
6245.00,0.97
6244.00,0.98
6243.00,0.98
6242.00,0.98
6241.00,0.98
6240.00,0.98
6239.00,0.98
6238.00,0.98
6237.00,0.98
6236.00,0.98
6235.00,0.98
6234.00,0.99
6233.00,0.99
6232.00,0.99
6231.00,0.99
6230.00,0.99
6229.00,0.99
6228.00,0.99
6227.00,1.00
6226.00,1.00
6225.00,1.00
6224.00,1.00
6223.00,1.00
6222.00,1.00
6221.00,1.00
6220.00,1.01
6219.00,1.01
6218.00,1.01
6217.00,1.01
6216.00,1.01
6215.00,1.01
6214.00,1.01
6213.00,1.01
6212.00,1.02
6211.00,1.02
6210.00,1.02
6209.00,1.02
6208.00,1.02
6207.00,1.02
6206.00,1.02
6205.00,1.02
6204.00,1.02
6203.00,1.03
6202.00,1.03
6201.00,1.03
6200.00,1.03
6199.00,1.03
6198.00,1.03
6197.00,1.03
6196.00,1.03
6195.00,1.03
6194.00,1.03
6193.00,1.04
6192.00,1.04
6191.00,1.04
6190.00,1.04
6189.00,1.04
6188.00,1.04
6187.00,1.04
6186.00,1.05
6185.00,1.05
6184.00,1.05
6183.00,1.05
6182.00,1.05
6181.00,1.05
6180.00,1.06
6179.00,1.06
6178.00,1.06
6177.00,1.06
6176.00,1.06
6175.00,1.06
6174.00,1.07
6173.00,1.07
6172.00,1.07
6171.00,1.07
6170.00,1.07
6169.00,1.07
6168.00,1.07
6167.00,1.07
6166.00,1.07
6165.00,1.07
6164.00,1.08
6163.00,1.08
6162.00,1.08
6161.00,1.08
6160.00,1.08
6159.00,1.08
6158.00,1.08
6157.00,1.08
6156.00,1.09
6155.00,1.09
6154.00,1.09
6153.00,1.09
6152.00,1.09
6151.00,1.09
6150.00,1.09
6149.00,1.10
6148.00,1.10
6147.00,1.10
6146.00,1.10
6145.00,1.10
6144.00,1.10
6143.00,1.10
6142.00,1.10
6141.00,1.11
6140.00,1.11
6139.00,1.11
6138.00,1.11
6137.00,1.11
6136.00,1.11
6135.00,1.11
6134.00,1.11
6133.00,1.11
6132.00,1.12
6131.00,1.12
6130.00,1.12
6129.00,1.12
6128.00,1.12
6127.00,1.12
6126.00,1.12
6125.00,1.13
6124.00,1.13
6123.00,1.13
6122.00,1.13
6121.00,1.13
6120.00,1.13
6119.00,1.13
6118.00,1.14
6117.00,1.14
6116.00,1.14
6115.00,1.14
6114.00,1.14
6113.00,1.14
6112.00,1.14
6111.00,1.14
6110.00,1.15
6109.00,1.15
6108.00,1.15
6107.00,1.15
6106.00,1.15
6105.00,1.15
6104.00,1.15
6103.00,1.15
6102.00,1.15
6101.00,1.15
6100.00,1.16
6099.00,1.16
6098.00,1.16
6097.00,1.16
6096.00,1.16
6095.00,1.16
6094.00,1.16
6093.00,1.17
6092.00,1.17
6091.00,1.17
6090.00,1.17
6089.00,1.17
6088.00,1.17
6087.00,1.17
6086.00,1.18
6085.00,1.18
6084.00,1.18
6083.00,1.18
6082.00,1.18
6081.00,1.18
6080.00,1.18
6079.00,1.18
6078.00,1.18
6077.00,1.19
6076.00,1.19
6075.00,1.19
6074.00,1.19
6073.00,1.19
6072.00,1.19
6071.00,1.19
6070.00,1.19
6069.00,1.19
6068.00,1.19
6067.00,1.19
6066.00,1.20
6065.00,1.20
6064.00,1.20
6063.00,1.20
6062.00,1.20
6061.00,1.20
6060.00,1.20
6059.00,1.20
6058.00,1.20
6057.00,1.20
6056.00,1.20
6055.00,1.20
6054.00,1.20
6053.00,1.21
6052.00,1.21
6051.00,1.21
6050.00,1.21
6049.00,1.21
6048.00,1.21
6047.00,1.21
6046.00,1.21
6045.00,1.21
6044.00,1.21
6043.00,1.21
6042.00,1.21
6041.00,1.21
6040.00,1.21
6039.00,1.21
6038.00,1.22
6037.00,1.22
6036.00,1.22
6035.00,1.22
6034.00,1.22
6033.00,1.22
6032.00,1.22
6031.00,1.22
6030.00,1.22
6029.00,1.22
6028.00,1.22
6027.00,1.22
6026.00,1.22
6025.00,1.22
6024.00,1.22
6023.00,1.22
6022.00,1.22
6021.00,1.22
6020.00,1.22
6019.00,1.22
6018.00,1.22
6017.00,1.22
6016.00,1.22
6015.00,1.22
6014.00,1.22
6013.00,1.22
6012.00,1.22
6011.00,1.22
6010.00,1.22
6009.00,1.22
6008.00,1.22
6007.00,1.22
6006.00,1.22
6005.00,1.22
6004.00,1.22
6003.00,1.22
6002.00,1.22
6001.00,1.22
6000.00,1.22
5999.00,1.22
5998.00,1.22
5997.00,1.21
5996.00,1.21
5995.00,1.21
5994.00,1.21
5993.00,1.21
5992.00,1.21
5991.00,1.21
5990.00,1.20
5989.00,1.20
5988.00,1.20
5987.00,1.20
5986.00,1.20
5985.00,1.19
5984.00,1.19
5983.00,1.19
5982.00,1.19
5981.00,1.18
5980.00,1.18
5979.00,1.18
5978.00,1.17
5977.00,1.17
5976.00,1.16
5975.00,1.16
5974.00,1.15
5973.00,1.15
5972.00,1.14
5971.00,1.14
5970.00,1.13
5969.00,1.13
5968.00,1.12
5967.00,1.11
5966.00,1.11
5965.00,1.10
5964.00,1.09
5963.00,1.08
5962.00,1.08
5961.00,1.07
5960.00,1.06
5959.00,1.06
5958.00,1.05
5957.00,1.04
5956.00,1.03
5955.00,1.03
5954.00,1.02
5953.00,1.01
5952.00,1.01
5951.00,1.00
5950.00,1.00
5949.00,0.99
5948.00,0.99
5947.00,0.98
5946.00,0.98
5945.00,0.97
5944.00,0.97
5943.00,0.97
5942.00,0.97
5941.00,0.96
5940.00,0.96
5939.00,0.96
5938.00,0.96
5937.00,0.96
5936.00,0.95
5935.00,0.95
5934.00,0.95
5933.00,0.95
5932.00,0.95
5931.00,0.95
5930.00,0.95
5929.00,0.95
5928.00,0.95
5927.00,0.94
5926.00,0.94
5925.00,0.94
5924.00,0.94
5923.00,0.94
5922.00,0.94
5921.00,0.94
5920.00,0.93
5919.00,0.93
5918.00,0.93
5917.00,0.93
5916.00,0.92
5915.00,0.92
5914.00,0.92
5913.00,0.92
5912.00,0.92
5911.00,0.91
5910.00,0.91
5909.00,0.91
5908.00,0.91
5907.00,0.91
5906.00,0.91
5905.00,0.91
5904.00,0.91
5903.00,0.91
5902.00,0.91
5901.00,0.91
5900.00,0.91
5899.00,0.91
5898.00,0.91
5897.00,0.91
5896.00,0.91
5895.00,0.91
5894.00,0.91
5893.00,0.92
5892.00,0.92
5891.00,0.92
5890.00,0.92
5889.00,0.92
5888.00,0.93
5887.00,0.93
5886.00,0.93
5885.00,0.94
5884.00,0.94
5883.00,0.94
5882.00,0.94
5881.00,0.95
5880.00,0.95
5879.00,0.95
5878.00,0.96
5877.00,0.96
5876.00,0.96
5875.00,0.96
5874.00,0.97
5873.00,0.97
5872.00,0.97
5871.00,0.97
5870.00,0.97
5869.00,0.98
5868.00,0.98
5867.00,0.98
5866.00,0.98
5865.00,0.98
5864.00,0.98
5863.00,0.99
5862.00,0.99
5861.00,0.99
5860.00,0.99
5859.00,0.99
5858.00,0.99
5857.00,0.99
5856.00,0.99
5855.00,0.99
5854.00,0.99
5853.00,0.99
5852.00,0.99
5851.00,0.99
5850.00,1.00
5849.00,1.00
5848.00,1.00
5847.00,1.00
5846.00,1.00
5845.00,1.00
5844.00,1.00
5843.00,1.00
5842.00,1.00
5841.00,1.00
5840.00,1.00
5839.00,1.00
5838.00,1.00
5837.00,1.00
5836.00,1.00
5835.00,1.00
5834.00,1.00
5833.00,1.00
5832.00,1.00
5831.00,1.00
5830.00,1.00
5829.00,1.00
5828.00,1.00
5827.00,1.00
5826.00,1.00
5825.00,1.00
5824.00,1.00
5823.00,1.00
5822.00,1.00
5821.00,1.00
5820.00,1.00
5819.00,1.00
5818.00,1.00
5817.00,1.00
5816.00,1.00
5815.00,1.00
5814.00,1.00
5813.00,1.00
5812.00,1.00
5811.00,1.00
5810.00,1.00
5809.00,1.00
5808.00,1.00
5807.00,1.00
5806.00,1.00
5805.00,1.00
5804.00,1.00
5803.00,1.00
5802.00,1.00
5801.00,1.00
5800.00,1.00
5799.00,1.00
5798.00,1.00
5797.00,1.00
5796.00,0.99
5795.00,0.99
5794.00,0.99
5793.00,0.99
5792.00,0.99
5791.00,0.98
5790.00,0.98
5789.00,0.98
5788.00,0.98
5787.00,0.97
5786.00,0.97
5785.00,0.97
5784.00,0.97
5783.00,0.96
5782.00,0.96
5781.00,0.96
5780.00,0.96
5779.00,0.96
5778.00,0.96
5777.00,0.96
5776.00,0.95
5775.00,0.95
5774.00,0.95
5773.00,0.95
5772.00,0.95
5771.00,0.95
5770.00,0.95
5769.00,0.95
5768.00,0.96
5767.00,0.96
5766.00,0.96
5765.00,0.96
5764.00,0.96
5763.00,0.96
5762.00,0.96
5761.00,0.97
5760.00,0.97
5759.00,0.97
5758.00,0.97
5757.00,0.98
5756.00,0.98
5755.00,0.98
5754.00,0.98
5753.00,0.99
5752.00,0.99
5751.00,0.99
5750.00,1.00
5749.00,1.00
5748.00,1.00
5747.00,1.01
5746.00,1.01
5745.00,1.02
5744.00,1.02
5743.00,1.02
5742.00,1.03
5741.00,1.03
5740.00,1.03
5739.00,1.03
5738.00,1.04
5737.00,1.04
5736.00,1.04
5735.00,1.05
5734.00,1.05
5733.00,1.05
5732.00,1.05
5731.00,1.05
5730.00,1.05
5729.00,1.06
5728.00,1.06
5727.00,1.06
5726.00,1.06
5725.00,1.06
5724.00,1.06
5723.00,1.06
5722.00,1.06
5721.00,1.06
5720.00,1.06
5719.00,1.06
5718.00,1.06
5717.00,1.06
5716.00,1.06
5715.00,1.06
5714.00,1.06
5713.00,1.06
5712.00,1.06
5711.00,1.06
5710.00,1.06
5709.00,1.06
5708.00,1.06
5707.00,1.06
5706.00,1.06
5705.00,1.06
5704.00,1.06
5703.00,1.06
5702.00,1.06
5701.00,1.06
5700.00,1.06
5699.00,1.06
5698.00,1.06
5697.00,1.06
5696.00,1.06
5695.00,1.05
5694.00,1.05
5693.00,1.05
5692.00,1.05
5691.00,1.05
5690.00,1.05
5689.00,1.04
5688.00,1.04
5687.00,1.04
5686.00,1.04
5685.00,1.04
5684.00,1.03
5683.00,1.03
5682.00,1.03
5681.00,1.03
5680.00,1.03
5679.00,1.03
5678.00,1.03
5677.00,1.03
5676.00,1.03
5675.00,1.03
5674.00,1.03
5673.00,1.03
5672.00,1.03
5671.00,1.03
5670.00,1.03
5669.00,1.03
5668.00,1.03
5667.00,1.03
5666.00,1.03
5665.00,1.03
5664.00,1.03
5663.00,1.03
5662.00,1.03
5661.00,1.03
5660.00,1.04
5659.00,1.04
5658.00,1.04
5657.00,1.04
5656.00,1.04
5655.00,1.04
5654.00,1.05
5653.00,1.05
5652.00,1.05
5651.00,1.05
5650.00,1.05
5649.00,1.06
5648.00,1.06
5647.00,1.06
5646.00,1.06
5645.00,1.07
5644.00,1.07
5643.00,1.07
5642.00,1.07
5641.00,1.08
5640.00,1.08
5639.00,1.08
5638.00,1.08
5637.00,1.08
5636.00,1.09
5635.00,1.09
5634.00,1.09
5633.00,1.09
5632.00,1.09
5631.00,1.09
5630.00,1.09
5629.00,1.10
5628.00,1.10
5627.00,1.10
5626.00,1.10
5625.00,1.10
5624.00,1.10
5623.00,1.10
5622.00,1.10
5621.00,1.11
5620.00,1.11
5619.00,1.11
5618.00,1.11
5617.00,1.11
5616.00,1.11
5615.00,1.11
5614.00,1.12
5613.00,1.12
5612.00,1.12
5611.00,1.12
5610.00,1.12
5609.00,1.13
5608.00,1.13
5607.00,1.13
5606.00,1.13
5605.00,1.13
5604.00,1.13
5603.00,1.14
5602.00,1.14
5601.00,1.14
5600.00,1.14
5599.00,1.14
5598.00,1.14
5597.00,1.15
5596.00,1.15
5595.00,1.15
5594.00,1.15
5593.00,1.15
5592.00,1.15
5591.00,1.15
5590.00,1.16
5589.00,1.16
5588.00,1.16
5587.00,1.16
5586.00,1.16
5585.00,1.16
5584.00,1.16
5583.00,1.16
5582.00,1.17
5581.00,1.17
5580.00,1.17
5579.00,1.17
5578.00,1.17
5577.00,1.17
5576.00,1.17
5575.00,1.18
5574.00,1.18
5573.00,1.18
5572.00,1.18
5571.00,1.18
5570.00,1.18
5569.00,1.19
5568.00,1.19
5567.00,1.19
5566.00,1.19
5565.00,1.19
5564.00,1.19
5563.00,1.20
5562.00,1.20
5561.00,1.20
5560.00,1.20
5559.00,1.20
5558.00,1.20
5557.00,1.21
5556.00,1.21
5555.00,1.21
5554.00,1.21
5553.00,1.21
5552.00,1.21
5551.00,1.21
5550.00,1.21
5549.00,1.22
5548.00,1.22
5547.00,1.22
5546.00,1.22
5545.00,1.22
5544.00,1.22
5543.00,1.22
5542.00,1.22
5541.00,1.22
5540.00,1.22
5539.00,1.22
5538.00,1.22
5537.00,1.22
5536.00,1.23
5535.00,1.23
5534.00,1.23
5533.00,1.23
5532.00,1.23
5531.00,1.23
5530.00,1.23
5529.00,1.23
5528.00,1.23
5527.00,1.24
5526.00,1.24
5525.00,1.24
5524.00,1.24
5523.00,1.24
5522.00,1.24
5521.00,1.24
5520.00,1.24
5519.00,1.25
5518.00,1.25
5517.00,1.25
5516.00,1.25
5515.00,1.25
5514.00,1.25
5513.00,1.25
5512.00,1.25
5511.00,1.25
5510.00,1.25
5509.00,1.25
5508.00,1.25
5507.00,1.25
5506.00,1.25
5505.00,1.26
5504.00,1.26
5503.00,1.26
5502.00,1.26
5501.00,1.26
5500.00,1.26
5499.00,1.26
5498.00,1.26
5497.00,1.26
5496.00,1.26
5495.00,1.26
5494.00,1.26
5493.00,1.26
5492.00,1.26
5491.00,1.26
5490.00,1.26
5489.00,1.26
5488.00,1.27
5487.00,1.27
5486.00,1.27
5485.00,1.27
5484.00,1.27
5483.00,1.27
5482.00,1.27
5481.00,1.27
5480.00,1.27
5479.00,1.28
5478.00,1.28
5477.00,1.28
5476.00,1.28
5475.00,1.28
5474.00,1.28
5473.00,1.28
5472.00,1.28
5471.00,1.28
5470.00,1.29
5469.00,1.29
5468.00,1.29
5467.00,1.29
5466.00,1.29
5465.00,1.29
5464.00,1.29
5463.00,1.29
5462.00,1.30
5461.00,1.30
5460.00,1.30
5459.00,1.30
5458.00,1.30
5457.00,1.30
5456.00,1.30
5455.00,1.31
5454.00,1.31
5453.00,1.31
5452.00,1.31
5451.00,1.31
5450.00,1.31
5449.00,1.31
5448.00,1.31
5447.00,1.31
5446.00,1.31
5445.00,1.31
5444.00,1.31
5443.00,1.31
5442.00,1.31
5441.00,1.31
5440.00,1.31
5439.00,1.31
5438.00,1.31
5437.00,1.31
5436.00,1.31
5435.00,1.31
5434.00,1.31
5433.00,1.31
5432.00,1.31
5431.00,1.31
5430.00,1.31
5429.00,1.32
5428.00,1.32
5427.00,1.32
5426.00,1.32
5425.00,1.32
5424.00,1.32
5423.00,1.32
5422.00,1.32
5421.00,1.32
5420.00,1.32
5419.00,1.32
5418.00,1.32
5417.00,1.32
5416.00,1.32
5415.00,1.32
5414.00,1.32
5413.00,1.32
5412.00,1.32
5411.00,1.32
5410.00,1.32
5409.00,1.32
5408.00,1.32
5407.00,1.32
5406.00,1.32
5405.00,1.32
5404.00,1.32
5403.00,1.32
5402.00,1.32
5401.00,1.32
5400.00,1.32
5399.00,1.32
5398.00,1.32
5397.00,1.32
5396.00,1.32
5395.00,1.32
5394.00,1.31
5393.00,1.31
5392.00,1.31
5391.00,1.31
5390.00,1.31
5389.00,1.31
5388.00,1.31
5387.00,1.30
5386.00,1.30
5385.00,1.30
5384.00,1.30
5383.00,1.29
5382.00,1.29
5381.00,1.29
5380.00,1.29
5379.00,1.28
5378.00,1.28
5377.00,1.28
5376.00,1.28
5375.00,1.27
5374.00,1.27
5373.00,1.27
5372.00,1.26
5371.00,1.26
5370.00,1.26
5369.00,1.25
5368.00,1.25
5367.00,1.25
5366.00,1.24
5365.00,1.24
5364.00,1.23
5363.00,1.23
5362.00,1.22
5361.00,1.22
5360.00,1.21
5359.00,1.20
5358.00,1.20
5357.00,1.19
5356.00,1.18
5355.00,1.18
5354.00,1.17
5353.00,1.16
5352.00,1.15
5351.00,1.14
5350.00,1.13
5349.00,1.13
5348.00,1.12
5347.00,1.11
5346.00,1.10
5345.00,1.09
5344.00,1.08
5343.00,1.07
5342.00,1.06
5341.00,1.05
5340.00,1.05
5339.00,1.04
5338.00,1.03
5337.00,1.02
5336.00,1.01
5335.00,1.00
5334.00,0.99
5333.00,0.98
5332.00,0.97
5331.00,0.96
5330.00,0.95
5329.00,0.94
5328.00,0.93
5327.00,0.92
5326.00,0.91
5325.00,0.90
5324.00,0.89
5323.00,0.88
5322.00,0.87
5321.00,0.86
5320.00,0.85
5319.00,0.84
5318.00,0.83
5317.00,0.82
5316.00,0.81
5315.00,0.80
5314.00,0.79
5313.00,0.78
5312.00,0.77
5311.00,0.76
5310.00,0.76
5309.00,0.75
5308.00,0.74
5307.00,0.73
5306.00,0.73
5305.00,0.72
5304.00,0.71
5303.00,0.71
5302.00,0.70
5301.00,0.70
5300.00,0.69
5299.00,0.69
5298.00,0.68
5297.00,0.68
5296.00,0.67
5295.00,0.67
5294.00,0.67
5293.00,0.66
5292.00,0.66
5291.00,0.66
5290.00,0.65
5289.00,0.65
5288.00,0.65
5287.00,0.64
5286.00,0.64
5285.00,0.64
5284.00,0.64
5283.00,0.63
5282.00,0.63
5281.00,0.63
5280.00,0.63
5279.00,0.63
5278.00,0.62
5277.00,0.62
5276.00,0.62
5275.00,0.62
5274.00,0.62
5273.00,0.62
5272.00,0.62
5271.00,0.62
5270.00,0.62
5269.00,0.61
5268.00,0.61
5267.00,0.61
5266.00,0.61
5265.00,0.61
5264.00,0.61
5263.00,0.61
5262.00,0.61
5261.00,0.61
5260.00,0.61
5259.00,0.61
5258.00,0.61
5257.00,0.61
5256.00,0.61
5255.00,0.61
5254.00,0.61
5253.00,0.61
5252.00,0.61
5251.00,0.61
5250.00,0.61
5249.00,0.61
5248.00,0.61
5247.00,0.61
5246.00,0.61
5245.00,0.61
5244.00,0.61
5243.00,0.61
5242.00,0.61
5241.00,0.61
5240.00,0.61
5239.00,0.61
5238.00,0.61
5237.00,0.61
5236.00,0.61
5235.00,0.61
5234.00,0.61
5233.00,0.60
5232.00,0.60
5231.00,0.60
5230.00,0.60
5229.00,0.60
5228.00,0.60
5227.00,0.60
5226.00,0.60
5225.00,0.60
5224.00,0.60
5223.00,0.60
5222.00,0.60
5221.00,0.60
5220.00,0.61
5219.00,0.61
5218.00,0.61
5217.00,0.61
5216.00,0.61
5215.00,0.61
5214.00,0.61
5213.00,0.61
5212.00,0.61
5211.00,0.61
5210.00,0.61
5209.00,0.61
5208.00,0.61
5207.00,0.61
5206.00,0.61
5205.00,0.61
5204.00,0.61
5203.00,0.61
5202.00,0.61
5201.00,0.61
5200.00,0.61
5199.00,0.61
5198.00,0.61
5197.00,0.61
5196.00,0.61
5195.00,0.61
5194.00,0.61
5193.00,0.61
5192.00,0.61
5191.00,0.61
5190.00,0.61
5189.00,0.61
5188.00,0.61
5187.00,0.61
5186.00,0.61
5185.00,0.61
5184.00,0.61
5183.00,0.62
5182.00,0.62
5181.00,0.62
5180.00,0.62
5179.00,0.62
5178.00,0.62
5177.00,0.62
5176.00,0.62
5175.00,0.62
5174.00,0.62
5173.00,0.62
5172.00,0.62
5171.00,0.63
5170.00,0.63
5169.00,0.63
5168.00,0.63
5167.00,0.63
5166.00,0.63
5165.00,0.63
5164.00,0.63
5163.00,0.63
5162.00,0.63
5161.00,0.63
5160.00,0.63
5159.00,0.63
5158.00,0.63
5157.00,0.63
5156.00,0.63
5155.00,0.63
5154.00,0.63
5153.00,0.63
5152.00,0.63
5151.00,0.63
5150.00,0.63
5149.00,0.63
5148.00,0.63
5147.00,0.63
5146.00,0.63
5145.00,0.63
5144.00,0.63
5143.00,0.63
5142.00,0.63
5141.00,0.63
5140.00,0.63
5139.00,0.63
5138.00,0.63
5137.00,0.64
5136.00,0.64
5135.00,0.64
5134.00,0.64
5133.00,0.64
5132.00,0.64
5131.00,0.64
5130.00,0.64
5129.00,0.64
5128.00,0.64
5127.00,0.64
5126.00,0.65
5125.00,0.65
5124.00,0.65
5123.00,0.65
5122.00,0.65
5121.00,0.65
5120.00,0.65
5119.00,0.65
5118.00,0.65
5117.00,0.65
5116.00,0.66
5115.00,0.66
5114.00,0.66
5113.00,0.66
5112.00,0.66
5111.00,0.66
5110.00,0.66
5109.00,0.66
5108.00,0.66
5107.00,0.66
5106.00,0.66
5105.00,0.66
5104.00,0.66
5103.00,0.66
5102.00,0.66
5101.00,0.67
5100.00,0.67
5099.00,0.67
5098.00,0.67
5097.00,0.67
5096.00,0.67
5095.00,0.67
5094.00,0.67
5093.00,0.67
5092.00,0.67
5091.00,0.67
5090.00,0.67
5089.00,0.67
5088.00,0.67
5087.00,0.68
5086.00,0.68
5085.00,0.68
5084.00,0.68
5083.00,0.68
5082.00,0.68
5081.00,0.68
5080.00,0.68
5079.00,0.68
5078.00,0.68
5077.00,0.68
5076.00,0.68
5075.00,0.68
5074.00,0.68
5073.00,0.68
5072.00,0.68
5071.00,0.69
5070.00,0.69
5069.00,0.69
5068.00,0.69
5067.00,0.69
5066.00,0.69
5065.00,0.69
5064.00,0.69
5063.00,0.69
5062.00,0.69
5061.00,0.69
5060.00,0.69
5059.00,0.69
5058.00,0.70
5057.00,0.70
5056.00,0.70
5055.00,0.70
5054.00,0.70
5053.00,0.70
5052.00,0.70
5051.00,0.70
5050.00,0.70
5049.00,0.70
5048.00,0.70
5047.00,0.70
5046.00,0.70
5045.00,0.71
5044.00,0.71
5043.00,0.71
5042.00,0.71
5041.00,0.71
5040.00,0.71
5039.00,0.71
5038.00,0.71
5037.00,0.71
5036.00,0.71
5035.00,0.71
5034.00,0.71
5033.00,0.71
5032.00,0.72
5031.00,0.72
5030.00,0.72
5029.00,0.72
5028.00,0.72
5027.00,0.72
5026.00,0.72
5025.00,0.72
5024.00,0.72
5023.00,0.72
5022.00,0.72
5021.00,0.72
5020.00,0.73
5019.00,0.73
5018.00,0.73
5017.00,0.73
5016.00,0.73
5015.00,0.73
5014.00,0.73
5013.00,0.73
5012.00,0.73
5011.00,0.73
5010.00,0.73
5009.00,0.73
5008.00,0.73
5007.00,0.73
5006.00,0.74
5005.00,0.74
5004.00,0.74
5003.00,0.74
5002.00,0.74
5001.00,0.74
5000.00,0.74
4999.00,0.74
4998.00,0.74
4997.00,0.74
4996.00,0.75
4995.00,0.75
4994.00,0.75
4993.00,0.75
4992.00,0.75
4991.00,0.75
4990.00,0.75
4989.00,0.75
4988.00,0.76
4987.00,0.76
4986.00,0.76
4985.00,0.76
4984.00,0.76
4983.00,0.76
4982.00,0.76
4981.00,0.76
4980.00,0.77
4979.00,0.77
4978.00,0.77
4977.00,0.77
4976.00,0.77
4975.00,0.77
4974.00,0.77
4973.00,0.77
4972.00,0.77
4971.00,0.77
4970.00,0.78
4969.00,0.78
4968.00,0.78
4967.00,0.78
4966.00,0.78
4965.00,0.78
4964.00,0.78
4963.00,0.78
4962.00,0.78
4961.00,0.78
4960.00,0.78
4959.00,0.78
4958.00,0.78
4957.00,0.79
4956.00,0.79
4955.00,0.79
4954.00,0.79
4953.00,0.79
4952.00,0.79
4951.00,0.79
4950.00,0.79
4949.00,0.79
4948.00,0.79
4947.00,0.79
4946.00,0.80
4945.00,0.80
4944.00,0.80
4943.00,0.80
4942.00,0.80
4941.00,0.80
4940.00,0.80
4939.00,0.80
4938.00,0.80
4937.00,0.80
4936.00,0.80
4935.00,0.80
4934.00,0.80
4933.00,0.80
4932.00,0.80
4931.00,0.80
4930.00,0.80
4929.00,0.81
4928.00,0.81
4927.00,0.81
4926.00,0.81
4925.00,0.81
4924.00,0.81
4923.00,0.81
4922.00,0.81
4921.00,0.81
4920.00,0.81
4919.00,0.81
4918.00,0.82
4917.00,0.82
4916.00,0.82
4915.00,0.82
4914.00,0.82
4913.00,0.82
4912.00,0.82
4911.00,0.82
4910.00,0.82
4909.00,0.82
4908.00,0.82
4907.00,0.82
4906.00,0.82
4905.00,0.82
4904.00,0.83
4903.00,0.83
4902.00,0.83
4901.00,0.83
4900.00,0.83
4899.00,0.83
4898.00,0.83
4897.00,0.83
4896.00,0.83
4895.00,0.83
4894.00,0.83
4893.00,0.83
4892.00,0.83
4891.00,0.83
4890.00,0.83
4889.00,0.83
4888.00,0.83
4887.00,0.83
4886.00,0.83
4885.00,0.83
4884.00,0.83
4883.00,0.83
4882.00,0.83
4881.00,0.83
4880.00,0.83
4879.00,0.83
4878.00,0.83
4877.00,0.83
4876.00,0.83
4875.00,0.83
4874.00,0.83
4873.00,0.83
4872.00,0.83
4871.00,0.83
4870.00,0.83
4869.00,0.83
4868.00,0.83
4867.00,0.83
4866.00,0.83
4865.00,0.84
4864.00,0.84
4863.00,0.84
4862.00,0.84
4861.00,0.84
4860.00,0.84
4859.00,0.84
4858.00,0.84
4857.00,0.84
4856.00,0.84
4855.00,0.84
4854.00,0.84
4853.00,0.84
4852.00,0.84
4851.00,0.84
4850.00,0.84
4849.00,0.85
4848.00,0.85
4847.00,0.85
4846.00,0.85
4845.00,0.85
4844.00,0.85
4843.00,0.85
4842.00,0.85
4841.00,0.85
4840.00,0.85
4839.00,0.85
4838.00,0.85
4837.00,0.85
4836.00,0.85
4835.00,0.85
4834.00,0.85
4833.00,0.85
4832.00,0.86
4831.00,0.86
4830.00,0.86
4829.00,0.86
4828.00,0.86
4827.00,0.86
4826.00,0.86
4825.00,0.86
4824.00,0.86
4823.00,0.86
4822.00,0.86
4821.00,0.87
4820.00,0.87
4819.00,0.87
4818.00,0.87
4817.00,0.87
4816.00,0.87
4815.00,0.87
4814.00,0.87
4813.00,0.87
4812.00,0.87
4811.00,0.87
4810.00,0.87
4809.00,0.87
4808.00,0.87
4807.00,0.87
4806.00,0.87
4805.00,0.88
4804.00,0.88
4803.00,0.88
4802.00,0.88
4801.00,0.88
4800.00,0.88
4799.00,0.88
4798.00,0.88
4797.00,0.89
4796.00,0.89
4795.00,0.89
4794.00,0.89
4793.00,0.89
4792.00,0.89
4791.00,0.90
4790.00,0.90
4789.00,0.90
4788.00,0.90
4787.00,0.90
4786.00,0.90
4785.00,0.90
4784.00,0.90
4783.00,0.90
4782.00,0.91
4781.00,0.91
4780.00,0.91
4779.00,0.91
4778.00,0.91
4777.00,0.91
4776.00,0.91
4775.00,0.91
4774.00,0.91
4773.00,0.91
4772.00,0.92
4771.00,0.92
4770.00,0.92
4769.00,0.92
4768.00,0.92
4767.00,0.92
4766.00,0.92
4765.00,0.93
4764.00,0.93
4763.00,0.93
4762.00,0.93
4761.00,0.93
4760.00,0.93
4759.00,0.94
4758.00,0.94
4757.00,0.94
4756.00,0.94
4755.00,0.94
4754.00,0.95
4753.00,0.95
4752.00,0.95
4751.00,0.95
4750.00,0.95
4749.00,0.95
4748.00,0.95
4747.00,0.95
4746.00,0.96
4745.00,0.96
4744.00,0.96
4743.00,0.96
4742.00,0.96
4741.00,0.96
4740.00,0.96
4739.00,0.97
4738.00,0.97
4737.00,0.97
4736.00,0.97
4735.00,0.97
4734.00,0.97
4733.00,0.98
4732.00,0.98
4731.00,0.98
4730.00,0.98
4729.00,0.98
4728.00,0.98
4727.00,0.99
4726.00,0.99
4725.00,0.99
4724.00,0.99
4723.00,0.99
4722.00,0.99
4721.00,0.99
4720.00,1.00
4719.00,1.00
4718.00,1.00
4717.00,1.00
4716.00,1.00
4715.00,1.00
4714.00,1.00
4713.00,1.01
4712.00,1.01
4711.00,1.01
4710.00,1.01
4709.00,1.01
4708.00,1.01
4707.00,1.02
4706.00,1.02
4705.00,1.02
4704.00,1.02
4703.00,1.02
4702.00,1.03
4701.00,1.03
4700.00,1.03
4699.00,1.03
4698.00,1.03
4697.00,1.04
4696.00,1.04
4695.00,1.04
4694.00,1.04
4693.00,1.04
4692.00,1.05
4691.00,1.05
4690.00,1.05
4689.00,1.05
4688.00,1.05
4687.00,1.05
4686.00,1.05
4685.00,1.06
4684.00,1.06
4683.00,1.06
4682.00,1.06
4681.00,1.06
4680.00,1.06
4679.00,1.07
4678.00,1.07
4677.00,1.07
4676.00,1.07
4675.00,1.07
4674.00,1.07
4673.00,1.08
4672.00,1.08
4671.00,1.08
4670.00,1.08
4669.00,1.08
4668.00,1.08
4667.00,1.09
4666.00,1.09
4665.00,1.09
4664.00,1.09
4663.00,1.09
4662.00,1.10
4661.00,1.10
4660.00,1.10
4659.00,1.10
4658.00,1.10
4657.00,1.10
4656.00,1.11
4655.00,1.11
4654.00,1.11
4653.00,1.11
4652.00,1.11
4651.00,1.11
4650.00,1.12
4649.00,1.12
4648.00,1.12
4647.00,1.12
4646.00,1.12
4645.00,1.12
4644.00,1.12
4643.00,1.12
4642.00,1.12
4641.00,1.12
4640.00,1.12
4639.00,1.12
4638.00,1.12
4637.00,1.13
4636.00,1.13
4635.00,1.13
4634.00,1.13
4633.00,1.13
4632.00,1.13
4631.00,1.13
4630.00,1.13
4629.00,1.14
4628.00,1.14
4627.00,1.14
4626.00,1.14
4625.00,1.14
4624.00,1.14
4623.00,1.15
4622.00,1.15
4621.00,1.15
4620.00,1.15
4619.00,1.15
4618.00,1.15
4617.00,1.15
4616.00,1.15
4615.00,1.16
4614.00,1.16
4613.00,1.16
4612.00,1.16
4611.00,1.16
4610.00,1.16
4609.00,1.16
4608.00,1.16
4607.00,1.16
4606.00,1.16
4605.00,1.16
4604.00,1.16
4603.00,1.16
4602.00,1.16
4601.00,1.17
4600.00,1.17
4599.00,1.17
4598.00,1.17
4597.00,1.17
4596.00,1.17
4595.00,1.17
4594.00,1.17
4593.00,1.17
4592.00,1.18
4591.00,1.18
4590.00,1.18
4589.00,1.18
4588.00,1.18
4587.00,1.18
4586.00,1.19
4585.00,1.19
4584.00,1.19
4583.00,1.19
4582.00,1.19
4581.00,1.19
4580.00,1.19
4579.00,1.20
4578.00,1.20
4577.00,1.20
4576.00,1.20
4575.00,1.20
4574.00,1.20
4573.00,1.20
4572.00,1.20
4571.00,1.21
4570.00,1.21
4569.00,1.21
4568.00,1.21
4567.00,1.21
4566.00,1.21
4565.00,1.21
4564.00,1.21
4563.00,1.21
4562.00,1.21
4561.00,1.21
4560.00,1.21
4559.00,1.21
4558.00,1.21
4557.00,1.21
4556.00,1.21
4555.00,1.22
4554.00,1.22
4553.00,1.22
4552.00,1.22
4551.00,1.22
4550.00,1.22
4549.00,1.22
4548.00,1.22
4547.00,1.22
4546.00,1.22
4545.00,1.22
4544.00,1.22
4543.00,1.23
4542.00,1.23
4541.00,1.23
4540.00,1.23
4539.00,1.23
4538.00,1.23
4537.00,1.23
4536.00,1.23
4535.00,1.23
4534.00,1.23
4533.00,1.24
4532.00,1.24
4531.00,1.24
4530.00,1.24
4529.00,1.24
4528.00,1.24
4527.00,1.24
4526.00,1.24
4525.00,1.24
4524.00,1.24
4523.00,1.24
4522.00,1.24
4521.00,1.24
4520.00,1.24
4519.00,1.24
4518.00,1.24
4517.00,1.24
4516.00,1.24
4515.00,1.24
4514.00,1.24
4513.00,1.24
4512.00,1.24
4511.00,1.24
4510.00,1.25
4509.00,1.25
4508.00,1.25
4507.00,1.25
4506.00,1.25
4505.00,1.25
4504.00,1.25
4503.00,1.25
4502.00,1.25
4501.00,1.24
4500.00,1.24
4499.00,1.24
4498.00,1.24
4497.00,1.24
4496.00,1.24
4495.00,1.24
4494.00,1.24
4493.00,1.23
4492.00,1.23
4491.00,1.23
4490.00,1.23
4489.00,1.23
4488.00,1.23
4487.00,1.22
4486.00,1.22
4485.00,1.22
4484.00,1.22
4483.00,1.21
4482.00,1.21
4481.00,1.21
4480.00,1.21
4479.00,1.21
4478.00,1.20
4477.00,1.20
4476.00,1.20
4475.00,1.20
4474.00,1.19
4473.00,1.19
4472.00,1.19
4471.00,1.19
4470.00,1.19
4469.00,1.18
4468.00,1.18
4467.00,1.18
4466.00,1.18
4465.00,1.18
4464.00,1.17
4463.00,1.17
4462.00,1.17
4461.00,1.17
4460.00,1.16
4459.00,1.16
4458.00,1.16
4457.00,1.16
4456.00,1.15
4455.00,1.15
4454.00,1.15
4453.00,1.14
4452.00,1.14
4451.00,1.14
4450.00,1.13
4449.00,1.13
4448.00,1.12
4447.00,1.12
4446.00,1.11
4445.00,1.11
4444.00,1.11
4443.00,1.10
4442.00,1.10
4441.00,1.09
4440.00,1.09
4439.00,1.08
4438.00,1.08
4437.00,1.07
4436.00,1.07
4435.00,1.07
4434.00,1.06
4433.00,1.06
4432.00,1.06
4431.00,1.05
4430.00,1.05
4429.00,1.05
4428.00,1.05
4427.00,1.04
4426.00,1.04
4425.00,1.04
4424.00,1.04
4423.00,1.04
4422.00,1.04
4421.00,1.03
4420.00,1.03
4419.00,1.03
4418.00,1.03
4417.00,1.03
4416.00,1.03
4415.00,1.03
4414.00,1.03
4413.00,1.03
4412.00,1.03
4411.00,1.03
4410.00,1.03
4409.00,1.03
4408.00,1.03
4407.00,1.02
4406.00,1.02
4405.00,1.02
4404.00,1.02
4403.00,1.02
4402.00,1.03
4401.00,1.03
4400.00,1.03
4399.00,1.03
4398.00,1.03
4397.00,1.03
4396.00,1.03
4395.00,1.03
4394.00,1.03
4393.00,1.03
4392.00,1.04
4391.00,1.04
4390.00,1.04
4389.00,1.04
4388.00,1.04
4387.00,1.04
4386.00,1.04
4385.00,1.05
4384.00,1.05
4383.00,1.05
4382.00,1.05
4381.00,1.05
4380.00,1.05
4379.00,1.05
4378.00,1.05
4377.00,1.05
4376.00,1.06
4375.00,1.06
4374.00,1.06
4373.00,1.06
4372.00,1.06
4371.00,1.06
4370.00,1.06
4369.00,1.06
4368.00,1.07
4367.00,1.07
4366.00,1.07
4365.00,1.07
4364.00,1.07
4363.00,1.07
4362.00,1.07
4361.00,1.07
4360.00,1.07
4359.00,1.07
4358.00,1.07
4357.00,1.07
4356.00,1.07
4355.00,1.07
4354.00,1.07
4353.00,1.07
4352.00,1.07
4351.00,1.07
4350.00,1.07
4349.00,1.07
4348.00,1.07
4347.00,1.07
4346.00,1.07
4345.00,1.07
4344.00,1.07
4343.00,1.07
4342.00,1.07
4341.00,1.07
4340.00,1.08
4339.00,1.08
4338.00,1.08
4337.00,1.08
4336.00,1.08
4335.00,1.08
4334.00,1.08
4333.00,1.08
4332.00,1.08
4331.00,1.08
4330.00,1.08
4329.00,1.08
4328.00,1.08
4327.00,1.08
4326.00,1.08
4325.00,1.09
4324.00,1.09
4323.00,1.09
4322.00,1.09
4321.00,1.09
4320.00,1.09
4319.00,1.09
4318.00,1.10
4317.00,1.10
4316.00,1.10
4315.00,1.10
4314.00,1.10
4313.00,1.11
4312.00,1.11
4311.00,1.11
4310.00,1.11
4309.00,1.12
4308.00,1.12
4307.00,1.12
4306.00,1.12
4305.00,1.13
4304.00,1.13
4303.00,1.13
4302.00,1.13
4301.00,1.14
4300.00,1.14
4299.00,1.14
4298.00,1.14
4297.00,1.14
4296.00,1.15
4295.00,1.15
4294.00,1.15
4293.00,1.15
4292.00,1.15
4291.00,1.15
4290.00,1.16
4289.00,1.16
4288.00,1.16
4287.00,1.16
4286.00,1.16
4285.00,1.16
4284.00,1.16
4283.00,1.16
4282.00,1.16
4281.00,1.16
4280.00,1.16
4279.00,1.16
4278.00,1.16
4277.00,1.16
4276.00,1.16
4275.00,1.16
4274.00,1.16
4273.00,1.15
4272.00,1.15
4271.00,1.15
4270.00,1.15
4269.00,1.15
4268.00,1.15
4267.00,1.15
4266.00,1.14
4265.00,1.14
4264.00,1.14
4263.00,1.14
4262.00,1.14
4261.00,1.14
4260.00,1.14
4259.00,1.14
4258.00,1.14
4257.00,1.14
4256.00,1.14
4255.00,1.14
4254.00,1.14
4253.00,1.15
4252.00,1.15
4251.00,1.15
4250.00,1.15
4249.00,1.15
4248.00,1.16
4247.00,1.16
4246.00,1.16
4245.00,1.16
4244.00,1.16
4243.00,1.17
4242.00,1.17
4241.00,1.17
4240.00,1.17
4239.00,1.18
4238.00,1.18
4237.00,1.18
4236.00,1.18
4235.00,1.19
4234.00,1.19
4233.00,1.19
4232.00,1.19
4231.00,1.19
4230.00,1.19
4229.00,1.20
4228.00,1.20
4227.00,1.20
4226.00,1.20
4225.00,1.20
4224.00,1.20
4223.00,1.20
4222.00,1.21
4221.00,1.21
4220.00,1.21
4219.00,1.21
4218.00,1.21
4217.00,1.21
4216.00,1.21
4215.00,1.21
4214.00,1.21
4213.00,1.21
4212.00,1.21
4211.00,1.21
4210.00,1.21
4209.00,1.21
4208.00,1.21
4207.00,1.21
4206.00,1.21
4205.00,1.21
4204.00,1.21
4203.00,1.21
4202.00,1.21
4201.00,1.22
4200.00,1.22
4199.00,1.22
4198.00,1.22
4197.00,1.22
4196.00,1.22
4195.00,1.22
4194.00,1.22
4193.00,1.22
4192.00,1.22
4191.00,1.22
4190.00,1.22
4189.00,1.22
4188.00,1.22
4187.00,1.22
4186.00,1.22
4185.00,1.22
4184.00,1.22
4183.00,1.23
4182.00,1.23
4181.00,1.23
4180.00,1.23
4179.00,1.23
4178.00,1.23
4177.00,1.23
4176.00,1.23
4175.00,1.23
4174.00,1.23
4173.00,1.22
4172.00,1.22
4171.00,1.23
4170.00,1.23
4169.00,1.23
4168.00,1.23
4167.00,1.23
4166.00,1.23
4165.00,1.23
4164.00,1.23
4163.00,1.23
4162.00,1.23
4161.00,1.23
4160.00,1.23
4159.00,1.23
4158.00,1.23
4157.00,1.23
4156.00,1.23
4155.00,1.23
4154.00,1.24
4153.00,1.24
4152.00,1.24
4151.00,1.24
4150.00,1.24
4149.00,1.24
4148.00,1.24
4147.00,1.24
4146.00,1.24
4145.00,1.24
4144.00,1.24
4143.00,1.24
4142.00,1.24
4141.00,1.24
4140.00,1.25
4139.00,1.25
4138.00,1.25
4137.00,1.25
4136.00,1.25
4135.00,1.25
4134.00,1.25
4133.00,1.26
4132.00,1.26
4131.00,1.26
4130.00,1.26
4129.00,1.26
4128.00,1.26
4127.00,1.26
4126.00,1.26
4125.00,1.26
4124.00,1.27
4123.00,1.27
4122.00,1.27
4121.00,1.27
4120.00,1.27
4119.00,1.27
4118.00,1.27
4117.00,1.27
4116.00,1.27
4115.00,1.27
4114.00,1.27
4113.00,1.27
4112.00,1.27
4111.00,1.27
4110.00,1.27
4109.00,1.27
4108.00,1.27
4107.00,1.27
4106.00,1.27
4105.00,1.27
4104.00,1.27
4103.00,1.27
4102.00,1.27
4101.00,1.27
4100.00,1.27
4099.00,1.27
4098.00,1.27
4097.00,1.27
4096.00,1.27
4095.00,1.27
4094.00,1.27
4093.00,1.27
4092.00,1.27
4091.00,1.27
4090.00,1.27
4089.00,1.27
4088.00,1.27
4087.00,1.27
4086.00,1.27
4085.00,1.27
4084.00,1.28
4083.00,1.28
4082.00,1.28
4081.00,1.28
4080.00,1.28
4079.00,1.28
4078.00,1.29
4077.00,1.29
4076.00,1.29
4075.00,1.29
4074.00,1.29
4073.00,1.29
4072.00,1.29
4071.00,1.29
4070.00,1.29
4069.00,1.29
4068.00,1.29
4067.00,1.29
4066.00,1.29
4065.00,1.29
4064.00,1.29
4063.00,1.29
4062.00,1.29
4061.00,1.29
4060.00,1.29
4059.00,1.29
4058.00,1.28
4057.00,1.28
4056.00,1.28
4055.00,1.28
4054.00,1.28
4053.00,1.29
4052.00,1.29
4051.00,1.29
4050.00,1.29
4049.00,1.29
4048.00,1.29
4047.00,1.29
4046.00,1.29
4045.00,1.29
4044.00,1.29
4043.00,1.29
4042.00,1.29
4041.00,1.29
4040.00,1.29
4039.00,1.29
4038.00,1.29
4037.00,1.29
4036.00,1.29
4035.00,1.30
4034.00,1.30
4033.00,1.30
4032.00,1.30
4031.00,1.30
4030.00,1.30
4029.00,1.30
4028.00,1.30
4027.00,1.31
4026.00,1.31
4025.00,1.31
4024.00,1.31
4023.00,1.31
4022.00,1.31
4021.00,1.31
4020.00,1.31
4019.00,1.31
4018.00,1.32
4017.00,1.32
4016.00,1.32
4015.00,1.32
4014.00,1.32
4013.00,1.32
4012.00,1.32
4011.00,1.32
4010.00,1.32
4009.00,1.32
4008.00,1.32
4007.00,1.32
4006.00,1.32
4005.00,1.32
4004.00,1.32
4003.00,1.32
4002.00,1.32
4001.00,1.32
4000.00,1.32
