创建为新数据集,样品 153 用户 Administrator 日期 星期三, 十一月 08 2017
cm-1,%T
10000.00,1.66
9999.00,1.66
9998.00,1.66
9997.00,1.66
9996.00,1.66
9995.00,1.66
9994.00,1.65
9993.00,1.65
9992.00,1.65
9991.00,1.65
9990.00,1.65
9989.00,1.64
9988.00,1.64
9987.00,1.64
9986.00,1.63
9985.00,1.63
9984.00,1.63
9983.00,1.63
9982.00,1.62
9981.00,1.62
9980.00,1.62
9979.00,1.62
9978.00,1.62
9977.00,1.61
9976.00,1.61
9975.00,1.61
9974.00,1.61
9973.00,1.61
9972.00,1.61
9971.00,1.61
9970.00,1.62
9969.00,1.62
9968.00,1.62
9967.00,1.62
9966.00,1.62
9965.00,1.62
9964.00,1.62
9963.00,1.62
9962.00,1.62
9961.00,1.62
9960.00,1.62
9959.00,1.62
9958.00,1.62
9957.00,1.63
9956.00,1.63
9955.00,1.63
9954.00,1.63
9953.00,1.63
9952.00,1.63
9951.00,1.63
9950.00,1.64
9949.00,1.64
9948.00,1.64
9947.00,1.64
9946.00,1.64
9945.00,1.65
9944.00,1.65
9943.00,1.65
9942.00,1.65
9941.00,1.65
9940.00,1.65
9939.00,1.65
9938.00,1.66
9937.00,1.66
9936.00,1.66
9935.00,1.66
9934.00,1.65
9933.00,1.65
9932.00,1.65
9931.00,1.65
9930.00,1.65
9929.00,1.65
9928.00,1.65
9927.00,1.65
9926.00,1.64
9925.00,1.64
9924.00,1.64
9923.00,1.64
9922.00,1.64
9921.00,1.63
9920.00,1.63
9919.00,1.63
9918.00,1.63
9917.00,1.63
9916.00,1.63
9915.00,1.63
9914.00,1.63
9913.00,1.63
9912.00,1.63
9911.00,1.63
9910.00,1.63
9909.00,1.63
9908.00,1.63
9907.00,1.63
9906.00,1.63
9905.00,1.63
9904.00,1.63
9903.00,1.63
9902.00,1.64
9901.00,1.64
9900.00,1.64
9899.00,1.64
9898.00,1.64
9897.00,1.64
9896.00,1.64
9895.00,1.65
9894.00,1.65
9893.00,1.65
9892.00,1.65
9891.00,1.65
9890.00,1.65
9889.00,1.65
9888.00,1.65
9887.00,1.65
9886.00,1.65
9885.00,1.65
9884.00,1.65
9883.00,1.65
9882.00,1.65
9881.00,1.65
9880.00,1.65
9879.00,1.65
9878.00,1.65
9877.00,1.65
9876.00,1.65
9875.00,1.65
9874.00,1.66
9873.00,1.66
9872.00,1.66
9871.00,1.66
9870.00,1.66
9869.00,1.66
9868.00,1.66
9867.00,1.65
9866.00,1.65
9865.00,1.65
9864.00,1.65
9863.00,1.65
9862.00,1.65
9861.00,1.65
9860.00,1.64
9859.00,1.64
9858.00,1.64
9857.00,1.64
9856.00,1.64
9855.00,1.64
9854.00,1.64
9853.00,1.63
9852.00,1.63
9851.00,1.63
9850.00,1.63
9849.00,1.63
9848.00,1.63
9847.00,1.63
9846.00,1.63
9845.00,1.63
9844.00,1.63
9843.00,1.63
9842.00,1.63
9841.00,1.63
9840.00,1.63
9839.00,1.63
9838.00,1.63
9837.00,1.63
9836.00,1.63
9835.00,1.63
9834.00,1.63
9833.00,1.63
9832.00,1.63
9831.00,1.63
9830.00,1.63
9829.00,1.63
9828.00,1.63
9827.00,1.63
9826.00,1.63
9825.00,1.63
9824.00,1.64
9823.00,1.64
9822.00,1.64
9821.00,1.64
9820.00,1.64
9819.00,1.64
9818.00,1.64
9817.00,1.64
9816.00,1.65
9815.00,1.65
9814.00,1.65
9813.00,1.65
9812.00,1.65
9811.00,1.65
9810.00,1.65
9809.00,1.66
9808.00,1.66
9807.00,1.66
9806.00,1.66
9805.00,1.66
9804.00,1.66
9803.00,1.66
9802.00,1.66
9801.00,1.66
9800.00,1.66
9799.00,1.66
9798.00,1.66
9797.00,1.66
9796.00,1.66
9795.00,1.66
9794.00,1.65
9793.00,1.65
9792.00,1.65
9791.00,1.65
9790.00,1.65
9789.00,1.65
9788.00,1.65
9787.00,1.65
9786.00,1.65
9785.00,1.65
9784.00,1.65
9783.00,1.65
9782.00,1.65
9781.00,1.65
9780.00,1.66
9779.00,1.66
9778.00,1.66
9777.00,1.66
9776.00,1.66
9775.00,1.66
9774.00,1.66
9773.00,1.66
9772.00,1.66
9771.00,1.66
9770.00,1.66
9769.00,1.66
9768.00,1.66
9767.00,1.66
9766.00,1.66
9765.00,1.66
9764.00,1.66
9763.00,1.66
9762.00,1.66
9761.00,1.66
9760.00,1.66
9759.00,1.66
9758.00,1.66
9757.00,1.66
9756.00,1.66
9755.00,1.66
9754.00,1.65
9753.00,1.65
9752.00,1.65
9751.00,1.65
9750.00,1.65
9749.00,1.64
9748.00,1.64
9747.00,1.64
9746.00,1.64
9745.00,1.63
9744.00,1.63
9743.00,1.63
9742.00,1.63
9741.00,1.63
9740.00,1.63
9739.00,1.63
9738.00,1.63
9737.00,1.63
9736.00,1.63
9735.00,1.63
9734.00,1.64
9733.00,1.64
9732.00,1.64
9731.00,1.64
9730.00,1.64
9729.00,1.64
9728.00,1.65
9727.00,1.65
9726.00,1.65
9725.00,1.65
9724.00,1.65
9723.00,1.65
9722.00,1.65
9721.00,1.65
9720.00,1.65
9719.00,1.65
9718.00,1.65
9717.00,1.65
9716.00,1.65
9715.00,1.65
9714.00,1.65
9713.00,1.65
9712.00,1.65
9711.00,1.65
9710.00,1.65
9709.00,1.65
9708.00,1.65
9707.00,1.65
9706.00,1.65
9705.00,1.65
9704.00,1.65
9703.00,1.65
9702.00,1.65
9701.00,1.65
9700.00,1.65
9699.00,1.65
9698.00,1.65
9697.00,1.65
9696.00,1.65
9695.00,1.65
9694.00,1.65
9693.00,1.65
9692.00,1.65
9691.00,1.64
9690.00,1.64
9689.00,1.64
9688.00,1.64
9687.00,1.64
9686.00,1.64
9685.00,1.64
9684.00,1.64
9683.00,1.64
9682.00,1.64
9681.00,1.64
9680.00,1.64
9679.00,1.64
9678.00,1.64
9677.00,1.64
9676.00,1.64
9675.00,1.65
9674.00,1.65
9673.00,1.65
9672.00,1.65
9671.00,1.65
9670.00,1.65
9669.00,1.65
9668.00,1.65
9667.00,1.64
9666.00,1.64
9665.00,1.64
9664.00,1.64
9663.00,1.64
9662.00,1.64
9661.00,1.64
9660.00,1.64
9659.00,1.63
9658.00,1.63
9657.00,1.63
9656.00,1.63
9655.00,1.63
9654.00,1.63
9653.00,1.63
9652.00,1.63
9651.00,1.63
9650.00,1.63
9649.00,1.63
9648.00,1.64
9647.00,1.64
9646.00,1.64
9645.00,1.64
9644.00,1.64
9643.00,1.64
9642.00,1.64
9641.00,1.64
9640.00,1.64
9639.00,1.64
9638.00,1.64
9637.00,1.64
9636.00,1.64
9635.00,1.64
9634.00,1.64
9633.00,1.64
9632.00,1.64
9631.00,1.65
9630.00,1.65
9629.00,1.65
9628.00,1.65
9627.00,1.65
9626.00,1.64
9625.00,1.64
9624.00,1.64
9623.00,1.64
9622.00,1.64
9621.00,1.64
9620.00,1.64
9619.00,1.64
9618.00,1.64
9617.00,1.64
9616.00,1.64
9615.00,1.64
9614.00,1.64
9613.00,1.64
9612.00,1.64
9611.00,1.64
9610.00,1.64
9609.00,1.64
9608.00,1.64
9607.00,1.65
9606.00,1.65
9605.00,1.65
9604.00,1.65
9603.00,1.65
9602.00,1.65
9601.00,1.65
9600.00,1.65
9599.00,1.65
9598.00,1.65
9597.00,1.64
9596.00,1.64
9595.00,1.64
9594.00,1.64
9593.00,1.64
9592.00,1.64
9591.00,1.64
9590.00,1.64
9589.00,1.64
9588.00,1.64
9587.00,1.64
9586.00,1.64
9585.00,1.64
9584.00,1.64
9583.00,1.64
9582.00,1.64
9581.00,1.64
9580.00,1.64
9579.00,1.64
9578.00,1.64
9577.00,1.64
9576.00,1.64
9575.00,1.64
9574.00,1.64
9573.00,1.64
9572.00,1.64
9571.00,1.64
9570.00,1.64
9569.00,1.64
9568.00,1.63
9567.00,1.63
9566.00,1.63
9565.00,1.63
9564.00,1.63
9563.00,1.62
9562.00,1.62
9561.00,1.62
9560.00,1.62
9559.00,1.62
9558.00,1.62
9557.00,1.62
9556.00,1.62
9555.00,1.62
9554.00,1.62
9553.00,1.62
9552.00,1.62
9551.00,1.62
9550.00,1.62
9549.00,1.62
9548.00,1.62
9547.00,1.62
9546.00,1.62
9545.00,1.62
9544.00,1.62
9543.00,1.63
9542.00,1.63
9541.00,1.63
9540.00,1.63
9539.00,1.63
9538.00,1.63
9537.00,1.63
9536.00,1.64
9535.00,1.64
9534.00,1.64
9533.00,1.64
9532.00,1.64
9531.00,1.64
9530.00,1.64
9529.00,1.64
9528.00,1.64
9527.00,1.64
9526.00,1.64
9525.00,1.64
9524.00,1.64
9523.00,1.64
9522.00,1.64
9521.00,1.64
9520.00,1.64
9519.00,1.64
9518.00,1.64
9517.00,1.64
9516.00,1.64
9515.00,1.64
9514.00,1.64
9513.00,1.64
9512.00,1.64
9511.00,1.64
9510.00,1.64
9509.00,1.64
9508.00,1.65
9507.00,1.65
9506.00,1.65
9505.00,1.65
9504.00,1.65
9503.00,1.65
9502.00,1.65
9501.00,1.65
9500.00,1.65
9499.00,1.65
9498.00,1.65
9497.00,1.65
9496.00,1.64
9495.00,1.64
9494.00,1.64
9493.00,1.64
9492.00,1.64
9491.00,1.64
9490.00,1.64
9489.00,1.64
9488.00,1.65
9487.00,1.65
9486.00,1.65
9485.00,1.65
9484.00,1.65
9483.00,1.65
9482.00,1.65
9481.00,1.65
9480.00,1.65
9479.00,1.65
9478.00,1.65
9477.00,1.65
9476.00,1.65
9475.00,1.65
9474.00,1.65
9473.00,1.65
9472.00,1.65
9471.00,1.64
9470.00,1.64
9469.00,1.64
9468.00,1.64
9467.00,1.64
9466.00,1.64
9465.00,1.64
9464.00,1.64
9463.00,1.64
9462.00,1.64
9461.00,1.65
9460.00,1.65
9459.00,1.65
9458.00,1.65
9457.00,1.65
9456.00,1.65
9455.00,1.65
9454.00,1.65
9453.00,1.65
9452.00,1.65
9451.00,1.65
9450.00,1.65
9449.00,1.65
9448.00,1.65
9447.00,1.65
9446.00,1.65
9445.00,1.64
9444.00,1.64
9443.00,1.64
9442.00,1.64
9441.00,1.64
9440.00,1.64
9439.00,1.64
9438.00,1.64
9437.00,1.64
9436.00,1.63
9435.00,1.63
9434.00,1.63
9433.00,1.63
9432.00,1.63
9431.00,1.63
9430.00,1.63
9429.00,1.63
9428.00,1.63
9427.00,1.63
9426.00,1.63
9425.00,1.64
9424.00,1.64
9423.00,1.64
9422.00,1.64
9421.00,1.64
9420.00,1.64
9419.00,1.64
9418.00,1.64
9417.00,1.64
9416.00,1.64
9415.00,1.64
9414.00,1.64
9413.00,1.64
9412.00,1.64
9411.00,1.64
9410.00,1.64
9409.00,1.64
9408.00,1.64
9407.00,1.64
9406.00,1.64
9405.00,1.64
9404.00,1.64
9403.00,1.64
9402.00,1.64
9401.00,1.64
9400.00,1.64
9399.00,1.64
9398.00,1.64
9397.00,1.64
9396.00,1.64
9395.00,1.64
9394.00,1.64
9393.00,1.64
9392.00,1.64
9391.00,1.64
9390.00,1.64
9389.00,1.64
9388.00,1.63
9387.00,1.63
9386.00,1.63
9385.00,1.63
9384.00,1.63
9383.00,1.63
9382.00,1.63
9381.00,1.63
9380.00,1.63
9379.00,1.63
9378.00,1.63
9377.00,1.63
9376.00,1.63
9375.00,1.63
9374.00,1.63
9373.00,1.63
9372.00,1.63
9371.00,1.64
9370.00,1.64
9369.00,1.64
9368.00,1.64
9367.00,1.64
9366.00,1.65
9365.00,1.65
9364.00,1.65
9363.00,1.65
9362.00,1.65
9361.00,1.65
9360.00,1.65
9359.00,1.66
9358.00,1.66
9357.00,1.66
9356.00,1.66
9355.00,1.66
9354.00,1.66
9353.00,1.66
9352.00,1.65
9351.00,1.65
9350.00,1.65
9349.00,1.65
9348.00,1.65
9347.00,1.65
9346.00,1.65
9345.00,1.65
9344.00,1.65
9343.00,1.65
9342.00,1.65
9341.00,1.65
9340.00,1.65
9339.00,1.65
9338.00,1.65
9337.00,1.65
9336.00,1.65
9335.00,1.65
9334.00,1.65
9333.00,1.65
9332.00,1.65
9331.00,1.65
9330.00,1.65
9329.00,1.65
9328.00,1.65
9327.00,1.64
9326.00,1.64
9325.00,1.64
9324.00,1.64
9323.00,1.64
9322.00,1.64
9321.00,1.64
9320.00,1.63
9319.00,1.63
9318.00,1.63
9317.00,1.63
9316.00,1.63
9315.00,1.63
9314.00,1.63
9313.00,1.63
9312.00,1.63
9311.00,1.63
9310.00,1.63
9309.00,1.63
9308.00,1.63
9307.00,1.63
9306.00,1.63
9305.00,1.63
9304.00,1.63
9303.00,1.64
9302.00,1.64
9301.00,1.64
9300.00,1.64
9299.00,1.64
9298.00,1.64
9297.00,1.64
9296.00,1.64
9295.00,1.64
9294.00,1.64
9293.00,1.63
9292.00,1.63
9291.00,1.63
9290.00,1.63
9289.00,1.63
9288.00,1.63
9287.00,1.63
9286.00,1.63
9285.00,1.63
9284.00,1.63
9283.00,1.63
9282.00,1.63
9281.00,1.63
9280.00,1.63
9279.00,1.63
9278.00,1.63
9277.00,1.63
9276.00,1.63
9275.00,1.63
9274.00,1.63
9273.00,1.63
9272.00,1.63
9271.00,1.63
9270.00,1.63
9269.00,1.63
9268.00,1.64
9267.00,1.64
9266.00,1.64
9265.00,1.64
9264.00,1.63
9263.00,1.63
9262.00,1.63
9261.00,1.63
9260.00,1.63
9259.00,1.63
9258.00,1.63
9257.00,1.63
9256.00,1.64
9255.00,1.64
9254.00,1.64
9253.00,1.64
9252.00,1.64
9251.00,1.64
9250.00,1.64
9249.00,1.64
9248.00,1.64
9247.00,1.64
9246.00,1.64
9245.00,1.64
9244.00,1.64
9243.00,1.64
9242.00,1.64
9241.00,1.65
9240.00,1.65
9239.00,1.64
9238.00,1.64
9237.00,1.64
9236.00,1.64
9235.00,1.64
9234.00,1.64
9233.00,1.64
9232.00,1.64
9231.00,1.64
9230.00,1.64
9229.00,1.64
9228.00,1.63
9227.00,1.63
9226.00,1.63
9225.00,1.63
9224.00,1.63
9223.00,1.63
9222.00,1.63
9221.00,1.63
9220.00,1.63
9219.00,1.63
9218.00,1.63
9217.00,1.64
9216.00,1.64
9215.00,1.64
9214.00,1.64
9213.00,1.64
9212.00,1.64
9211.00,1.65
9210.00,1.65
9209.00,1.65
9208.00,1.65
9207.00,1.65
9206.00,1.66
9205.00,1.66
9204.00,1.66
9203.00,1.66
9202.00,1.66
9201.00,1.66
9200.00,1.66
9199.00,1.66
9198.00,1.66
9197.00,1.66
9196.00,1.66
9195.00,1.66
9194.00,1.66
9193.00,1.66
9192.00,1.66
9191.00,1.65
9190.00,1.65
9189.00,1.65
9188.00,1.65
9187.00,1.65
9186.00,1.65
9185.00,1.65
9184.00,1.66
9183.00,1.66
9182.00,1.66
9181.00,1.66
9180.00,1.66
9179.00,1.66
9178.00,1.66
9177.00,1.66
9176.00,1.66
9175.00,1.66
9174.00,1.65
9173.00,1.65
9172.00,1.65
9171.00,1.65
9170.00,1.65
9169.00,1.65
9168.00,1.65
9167.00,1.65
9166.00,1.65
9165.00,1.65
9164.00,1.64
9163.00,1.64
9162.00,1.64
9161.00,1.64
9160.00,1.64
9159.00,1.64
9158.00,1.64
9157.00,1.64
9156.00,1.64
9155.00,1.64
9154.00,1.64
9153.00,1.64
9152.00,1.64
9151.00,1.64
9150.00,1.64
9149.00,1.65
9148.00,1.65
9147.00,1.65
9146.00,1.65
9145.00,1.65
9144.00,1.65
9143.00,1.65
9142.00,1.65
9141.00,1.65
9140.00,1.65
9139.00,1.65
9138.00,1.65
9137.00,1.65
9136.00,1.65
9135.00,1.65
9134.00,1.65
9133.00,1.65
9132.00,1.65
9131.00,1.65
9130.00,1.65
9129.00,1.65
9128.00,1.65
9127.00,1.65
9126.00,1.65
9125.00,1.65
9124.00,1.65
9123.00,1.65
9122.00,1.65
9121.00,1.65
9120.00,1.65
9119.00,1.65
9118.00,1.65
9117.00,1.65
9116.00,1.65
9115.00,1.65
9114.00,1.65
9113.00,1.65
9112.00,1.64
9111.00,1.64
9110.00,1.64
9109.00,1.64
9108.00,1.64
9107.00,1.64
9106.00,1.64
9105.00,1.64
9104.00,1.64
9103.00,1.64
9102.00,1.64
9101.00,1.64
9100.00,1.64
9099.00,1.64
9098.00,1.64
9097.00,1.64
9096.00,1.64
9095.00,1.64
9094.00,1.64
9093.00,1.64
9092.00,1.64
9091.00,1.64
9090.00,1.64
9089.00,1.64
9088.00,1.64
9087.00,1.64
9086.00,1.64
9085.00,1.64
9084.00,1.64
9083.00,1.64
9082.00,1.64
9081.00,1.64
9080.00,1.64
9079.00,1.64
9078.00,1.64
9077.00,1.64
9076.00,1.64
9075.00,1.64
9074.00,1.63
9073.00,1.63
9072.00,1.63
9071.00,1.63
9070.00,1.63
9069.00,1.63
9068.00,1.63
9067.00,1.63
9066.00,1.63
9065.00,1.63
9064.00,1.63
9063.00,1.63
9062.00,1.64
9061.00,1.64
9060.00,1.64
9059.00,1.64
9058.00,1.64
9057.00,1.64
9056.00,1.64
9055.00,1.64
9054.00,1.64
9053.00,1.65
9052.00,1.65
9051.00,1.65
9050.00,1.65
9049.00,1.65
9048.00,1.65
9047.00,1.65
9046.00,1.65
9045.00,1.65
9044.00,1.65
9043.00,1.65
9042.00,1.65
9041.00,1.65
9040.00,1.65
9039.00,1.65
9038.00,1.65
9037.00,1.65
9036.00,1.65
9035.00,1.65
9034.00,1.65
9033.00,1.65
9032.00,1.65
9031.00,1.65
9030.00,1.65
9029.00,1.65
9028.00,1.65
9027.00,1.65
9026.00,1.65
9025.00,1.65
9024.00,1.65
9023.00,1.65
9022.00,1.65
9021.00,1.65
9020.00,1.65
9019.00,1.65
9018.00,1.65
9017.00,1.65
9016.00,1.65
9015.00,1.65
9014.00,1.65
9013.00,1.65
9012.00,1.65
9011.00,1.65
9010.00,1.65
9009.00,1.65
9008.00,1.65
9007.00,1.65
9006.00,1.65
9005.00,1.66
9004.00,1.66
9003.00,1.66
9002.00,1.66
9001.00,1.66
9000.00,1.65
8999.00,1.65
8998.00,1.65
8997.00,1.65
8996.00,1.65
8995.00,1.65
8994.00,1.65
8993.00,1.65
8992.00,1.65
8991.00,1.65
8990.00,1.65
8989.00,1.65
8988.00,1.65
8987.00,1.65
8986.00,1.65
8985.00,1.65
8984.00,1.65
8983.00,1.65
8982.00,1.65
8981.00,1.65
8980.00,1.65
8979.00,1.65
8978.00,1.66
8977.00,1.66
8976.00,1.66
8975.00,1.66
8974.00,1.66
8973.00,1.66
8972.00,1.66
8971.00,1.66
8970.00,1.66
8969.00,1.66
8968.00,1.65
8967.00,1.65
8966.00,1.65
8965.00,1.65
8964.00,1.65
8963.00,1.65
8962.00,1.65
8961.00,1.65
8960.00,1.65
8959.00,1.65
8958.00,1.65
8957.00,1.65
8956.00,1.65
8955.00,1.65
8954.00,1.65
8953.00,1.65
8952.00,1.65
8951.00,1.65
8950.00,1.65
8949.00,1.65
8948.00,1.65
8947.00,1.65
8946.00,1.65
8945.00,1.65
8944.00,1.65
8943.00,1.65
8942.00,1.65
8941.00,1.65
8940.00,1.65
8939.00,1.65
8938.00,1.65
8937.00,1.65
8936.00,1.65
8935.00,1.64
8934.00,1.64
8933.00,1.64
8932.00,1.64
8931.00,1.64
8930.00,1.64
8929.00,1.64
8928.00,1.64
8927.00,1.64
8926.00,1.64
8925.00,1.64
8924.00,1.65
8923.00,1.65
8922.00,1.65
8921.00,1.65
8920.00,1.65
8919.00,1.65
8918.00,1.65
8917.00,1.65
8916.00,1.65
8915.00,1.65
8914.00,1.65
8913.00,1.65
8912.00,1.65
8911.00,1.65
8910.00,1.64
8909.00,1.64
8908.00,1.64
8907.00,1.64
8906.00,1.64
8905.00,1.64
8904.00,1.64
8903.00,1.63
8902.00,1.63
8901.00,1.63
8900.00,1.63
8899.00,1.63
8898.00,1.63
8897.00,1.62
8896.00,1.62
8895.00,1.62
8894.00,1.62
8893.00,1.62
8892.00,1.62
8891.00,1.62
8890.00,1.62
8889.00,1.62
8888.00,1.63
8887.00,1.63
8886.00,1.63
8885.00,1.63
8884.00,1.63
8883.00,1.63
8882.00,1.64
8881.00,1.64
8880.00,1.64
8879.00,1.64
8878.00,1.64
8877.00,1.64
8876.00,1.64
8875.00,1.64
8874.00,1.64
8873.00,1.64
8872.00,1.64
8871.00,1.64
8870.00,1.64
8869.00,1.64
8868.00,1.64
8867.00,1.64
8866.00,1.64
8865.00,1.64
8864.00,1.64
8863.00,1.64
8862.00,1.64
8861.00,1.64
8860.00,1.64
8859.00,1.64
8858.00,1.64
8857.00,1.64
8856.00,1.64
8855.00,1.64
8854.00,1.64
8853.00,1.64
8852.00,1.64
8851.00,1.64
8850.00,1.64
8849.00,1.64
8848.00,1.64
8847.00,1.64
8846.00,1.64
8845.00,1.64
8844.00,1.64
8843.00,1.64
8842.00,1.64
8841.00,1.64
8840.00,1.64
8839.00,1.64
8838.00,1.64
8837.00,1.63
8836.00,1.63
8835.00,1.63
8834.00,1.63
8833.00,1.63
8832.00,1.63
8831.00,1.63
8830.00,1.63
8829.00,1.63
8828.00,1.63
8827.00,1.63
8826.00,1.63
8825.00,1.63
8824.00,1.63
8823.00,1.63
8822.00,1.63
8821.00,1.63
8820.00,1.63
8819.00,1.63
8818.00,1.63
8817.00,1.63
8816.00,1.63
8815.00,1.63
8814.00,1.63
8813.00,1.63
8812.00,1.62
8811.00,1.62
8810.00,1.62
8809.00,1.62
8808.00,1.62
8807.00,1.62
8806.00,1.62
8805.00,1.62
8804.00,1.62
8803.00,1.62
8802.00,1.61
8801.00,1.61
8800.00,1.61
8799.00,1.61
8798.00,1.61
8797.00,1.61
8796.00,1.61
8795.00,1.61
8794.00,1.61
8793.00,1.60
8792.00,1.60
8791.00,1.60
8790.00,1.60
8789.00,1.60
8788.00,1.60
8787.00,1.60
8786.00,1.60
8785.00,1.60
8784.00,1.60
8783.00,1.60
8782.00,1.60
8781.00,1.59
8780.00,1.59
8779.00,1.59
8778.00,1.59
8777.00,1.59
8776.00,1.59
8775.00,1.59
8774.00,1.59
8773.00,1.59
8772.00,1.59
8771.00,1.59
8770.00,1.59
8769.00,1.59
8768.00,1.59
8767.00,1.59
8766.00,1.59
8765.00,1.59
8764.00,1.59
8763.00,1.59
8762.00,1.59
8761.00,1.59
8760.00,1.59
8759.00,1.58
8758.00,1.58
8757.00,1.58
8756.00,1.58
8755.00,1.58
8754.00,1.58
8753.00,1.58
8752.00,1.58
8751.00,1.58
8750.00,1.58
8749.00,1.58
8748.00,1.58
8747.00,1.58
8746.00,1.58
8745.00,1.57
8744.00,1.57
8743.00,1.57
8742.00,1.57
8741.00,1.57
8740.00,1.57
8739.00,1.57
8738.00,1.57
8737.00,1.57
8736.00,1.57
8735.00,1.57
8734.00,1.57
8733.00,1.57
8732.00,1.57
8731.00,1.57
8730.00,1.57
8729.00,1.57
8728.00,1.57
8727.00,1.57
8726.00,1.57
8725.00,1.57
8724.00,1.57
8723.00,1.57
8722.00,1.57
8721.00,1.57
8720.00,1.57
8719.00,1.57
8718.00,1.57
8717.00,1.57
8716.00,1.57
8715.00,1.57
8714.00,1.57
8713.00,1.56
8712.00,1.56
8711.00,1.56
8710.00,1.56
8709.00,1.56
8708.00,1.56
8707.00,1.56
8706.00,1.56
8705.00,1.56
8704.00,1.56
8703.00,1.56
8702.00,1.56
8701.00,1.56
8700.00,1.56
8699.00,1.56
8698.00,1.56
8697.00,1.56
8696.00,1.55
8695.00,1.55
8694.00,1.55
8693.00,1.55
8692.00,1.55
8691.00,1.55
8690.00,1.55
8689.00,1.55
8688.00,1.55
8687.00,1.55
8686.00,1.55
8685.00,1.55
8684.00,1.55
8683.00,1.55
8682.00,1.55
8681.00,1.55
8680.00,1.55
8679.00,1.55
8678.00,1.55
8677.00,1.55
8676.00,1.55
8675.00,1.55
8674.00,1.55
8673.00,1.55
8672.00,1.55
8671.00,1.55
8670.00,1.55
8669.00,1.55
8668.00,1.55
8667.00,1.55
8666.00,1.55
8665.00,1.55
8664.00,1.55
8663.00,1.55
8662.00,1.55
8661.00,1.55
8660.00,1.55
8659.00,1.55
8658.00,1.55
8657.00,1.55
8656.00,1.55
8655.00,1.55
8654.00,1.55
8653.00,1.55
8652.00,1.55
8651.00,1.55
8650.00,1.55
8649.00,1.55
8648.00,1.55
8647.00,1.55
8646.00,1.55
8645.00,1.55
8644.00,1.55
8643.00,1.55
8642.00,1.55
8641.00,1.55
8640.00,1.55
8639.00,1.55
8638.00,1.55
8637.00,1.55
8636.00,1.55
8635.00,1.55
8634.00,1.55
8633.00,1.55
8632.00,1.55
8631.00,1.55
8630.00,1.55
8629.00,1.55
8628.00,1.55
8627.00,1.54
8626.00,1.54
8625.00,1.54
8624.00,1.54
8623.00,1.54
8622.00,1.54
8621.00,1.54
8620.00,1.54
8619.00,1.54
8618.00,1.54
8617.00,1.54
8616.00,1.54
8615.00,1.54
8614.00,1.54
8613.00,1.54
8612.00,1.54
8611.00,1.54
8610.00,1.54
8609.00,1.53
8608.00,1.53
8607.00,1.53
8606.00,1.53
8605.00,1.53
8604.00,1.53
8603.00,1.53
8602.00,1.53
8601.00,1.52
8600.00,1.52
8599.00,1.52
8598.00,1.52
8597.00,1.52
8596.00,1.52
8595.00,1.52
8594.00,1.52
8593.00,1.52
8592.00,1.51
8591.00,1.51
8590.00,1.51
8589.00,1.51
8588.00,1.51
8587.00,1.51
8586.00,1.51
8585.00,1.51
8584.00,1.51
8583.00,1.51
8582.00,1.52
8581.00,1.52
8580.00,1.52
8579.00,1.52
8578.00,1.52
8577.00,1.52
8576.00,1.52
8575.00,1.52
8574.00,1.52
8573.00,1.52
8572.00,1.52
8571.00,1.52
8570.00,1.51
8569.00,1.51
8568.00,1.51
8567.00,1.51
8566.00,1.51
8565.00,1.51
8564.00,1.51
8563.00,1.51
8562.00,1.51
8561.00,1.51
8560.00,1.51
8559.00,1.50
8558.00,1.50
8557.00,1.50
8556.00,1.50
8555.00,1.50
8554.00,1.50
8553.00,1.50
8552.00,1.50
8551.00,1.50
8550.00,1.50
8549.00,1.50
8548.00,1.50
8547.00,1.50
8546.00,1.50
8545.00,1.50
8544.00,1.50
8543.00,1.50
8542.00,1.50
8541.00,1.50
8540.00,1.50
8539.00,1.50
8538.00,1.50
8537.00,1.49
8536.00,1.49
8535.00,1.49
8534.00,1.49
8533.00,1.49
8532.00,1.49
8531.00,1.49
8530.00,1.49
8529.00,1.48
8528.00,1.48
8527.00,1.48
8526.00,1.48
8525.00,1.48
8524.00,1.47
8523.00,1.47
8522.00,1.47
8521.00,1.47
8520.00,1.47
8519.00,1.46
8518.00,1.46
8517.00,1.46
8516.00,1.46
8515.00,1.46
8514.00,1.46
8513.00,1.46
8512.00,1.46
8511.00,1.46
8510.00,1.46
8509.00,1.46
8508.00,1.46
8507.00,1.46
8506.00,1.46
8505.00,1.46
8504.00,1.46
8503.00,1.46
8502.00,1.46
8501.00,1.46
8500.00,1.45
8499.00,1.45
8498.00,1.45
8497.00,1.45
8496.00,1.45
8495.00,1.45
8494.00,1.45
8493.00,1.45
8492.00,1.45
8491.00,1.45
8490.00,1.45
8489.00,1.45
8488.00,1.45
8487.00,1.45
8486.00,1.45
8485.00,1.45
8484.00,1.45
8483.00,1.45
8482.00,1.45
8481.00,1.45
8480.00,1.45
8479.00,1.45
8478.00,1.45
8477.00,1.45
8476.00,1.45
8475.00,1.45
8474.00,1.45
8473.00,1.45
8472.00,1.45
8471.00,1.44
8470.00,1.44
8469.00,1.44
8468.00,1.44
8467.00,1.44
8466.00,1.44
8465.00,1.43
8464.00,1.43
8463.00,1.43
8462.00,1.43
8461.00,1.43
8460.00,1.42
8459.00,1.42
8458.00,1.42
8457.00,1.42
8456.00,1.42
8455.00,1.42
8454.00,1.42
8453.00,1.41
8452.00,1.41
8451.00,1.41
8450.00,1.41
8449.00,1.41
8448.00,1.41
8447.00,1.41
8446.00,1.41
8445.00,1.41
8444.00,1.41
8443.00,1.41
8442.00,1.41
8441.00,1.41
8440.00,1.41
8439.00,1.41
8438.00,1.41
8437.00,1.41
8436.00,1.41
8435.00,1.41
8434.00,1.41
8433.00,1.41
8432.00,1.41
8431.00,1.41
8430.00,1.41
8429.00,1.41
8428.00,1.41
8427.00,1.41
8426.00,1.41
8425.00,1.41
8424.00,1.41
8423.00,1.41
8422.00,1.41
8421.00,1.41
8420.00,1.41
8419.00,1.42
8418.00,1.42
8417.00,1.42
8416.00,1.42
8415.00,1.42
8414.00,1.42
8413.00,1.42
8412.00,1.43
8411.00,1.43
8410.00,1.43
8409.00,1.43
8408.00,1.43
8407.00,1.43
8406.00,1.43
8405.00,1.43
8404.00,1.43
8403.00,1.43
8402.00,1.44
8401.00,1.44
8400.00,1.44
8399.00,1.44
8398.00,1.44
8397.00,1.44
8396.00,1.44
8395.00,1.44
8394.00,1.44
8393.00,1.45
8392.00,1.45
8391.00,1.45
8390.00,1.45
8389.00,1.45
8388.00,1.45
8387.00,1.45
8386.00,1.46
8385.00,1.46
8384.00,1.46
8383.00,1.46
8382.00,1.46
8381.00,1.46
8380.00,1.46
8379.00,1.46
8378.00,1.46
8377.00,1.47
8376.00,1.47
8375.00,1.47
8374.00,1.47
8373.00,1.47
8372.00,1.47
8371.00,1.46
8370.00,1.46
8369.00,1.46
8368.00,1.46
8367.00,1.46
8366.00,1.46
8365.00,1.46
8364.00,1.46
8363.00,1.46
8362.00,1.46
8361.00,1.46
8360.00,1.46
8359.00,1.47
8358.00,1.47
8357.00,1.47
8356.00,1.47
8355.00,1.47
8354.00,1.47
8353.00,1.47
8352.00,1.47
8351.00,1.48
8350.00,1.48
8349.00,1.48
8348.00,1.48
8347.00,1.48
8346.00,1.48
8345.00,1.48
8344.00,1.48
8343.00,1.48
8342.00,1.48
8341.00,1.48
8340.00,1.48
8339.00,1.48
8338.00,1.48
8337.00,1.48
8336.00,1.48
8335.00,1.48
8334.00,1.48
8333.00,1.48
8332.00,1.48
8331.00,1.48
8330.00,1.48
8329.00,1.48
8328.00,1.48
8327.00,1.48
8326.00,1.48
8325.00,1.48
8324.00,1.48
8323.00,1.48
8322.00,1.48
8321.00,1.48
8320.00,1.48
8319.00,1.48
8318.00,1.48
8317.00,1.48
8316.00,1.48
8315.00,1.48
8314.00,1.48
8313.00,1.48
8312.00,1.48
8311.00,1.48
8310.00,1.48
8309.00,1.48
8308.00,1.48
8307.00,1.48
8306.00,1.48
8305.00,1.48
8304.00,1.48
8303.00,1.48
8302.00,1.48
8301.00,1.48
8300.00,1.48
8299.00,1.48
8298.00,1.48
8297.00,1.48
8296.00,1.47
8295.00,1.47
8294.00,1.47
8293.00,1.47
8292.00,1.47
8291.00,1.47
8290.00,1.48
8289.00,1.48
8288.00,1.48
8287.00,1.48
8286.00,1.48
8285.00,1.48
8284.00,1.48
8283.00,1.48
8282.00,1.48
8281.00,1.49
8280.00,1.49
8279.00,1.49
8278.00,1.49
8277.00,1.50
8276.00,1.50
8275.00,1.50
8274.00,1.50
8273.00,1.50
8272.00,1.50
8271.00,1.51
8270.00,1.51
8269.00,1.51
8268.00,1.51
8267.00,1.51
8266.00,1.51
8265.00,1.51
8264.00,1.51
8263.00,1.51
8262.00,1.51
8261.00,1.51
8260.00,1.51
8259.00,1.51
8258.00,1.51
8257.00,1.51
8256.00,1.51
8255.00,1.51
8254.00,1.50
8253.00,1.50
8252.00,1.50
8251.00,1.50
8250.00,1.50
8249.00,1.50
8248.00,1.50
8247.00,1.50
8246.00,1.50
8245.00,1.50
8244.00,1.50
8243.00,1.50
8242.00,1.50
8241.00,1.50
8240.00,1.50
8239.00,1.50
8238.00,1.51
8237.00,1.51
8236.00,1.51
8235.00,1.51
8234.00,1.51
8233.00,1.51
8232.00,1.51
8231.00,1.51
8230.00,1.51
8229.00,1.52
8228.00,1.52
8227.00,1.52
8226.00,1.52
8225.00,1.52
8224.00,1.52
8223.00,1.52
8222.00,1.52
8221.00,1.52
8220.00,1.52
8219.00,1.52
8218.00,1.52
8217.00,1.52
8216.00,1.52
8215.00,1.52
8214.00,1.52
8213.00,1.52
8212.00,1.52
8211.00,1.52
8210.00,1.52
8209.00,1.52
8208.00,1.52
8207.00,1.52
8206.00,1.52
8205.00,1.52
8204.00,1.52
8203.00,1.52
8202.00,1.52
8201.00,1.52
8200.00,1.52
8199.00,1.52
8198.00,1.52
8197.00,1.52
8196.00,1.52
8195.00,1.52
8194.00,1.52
8193.00,1.52
8192.00,1.52
8191.00,1.52
8190.00,1.52
8189.00,1.52
8188.00,1.52
8187.00,1.52
8186.00,1.53
8185.00,1.53
8184.00,1.53
8183.00,1.53
8182.00,1.53
8181.00,1.53
8180.00,1.53
8179.00,1.53
8178.00,1.53
8177.00,1.53
8176.00,1.53
8175.00,1.53
8174.00,1.54
8173.00,1.54
8172.00,1.54
8171.00,1.54
8170.00,1.54
8169.00,1.54
8168.00,1.54
8167.00,1.54
8166.00,1.54
8165.00,1.55
8164.00,1.55
8163.00,1.55
8162.00,1.55
8161.00,1.55
8160.00,1.55
8159.00,1.55
8158.00,1.55
8157.00,1.55
8156.00,1.56
8155.00,1.56
8154.00,1.56
8153.00,1.56
8152.00,1.56
8151.00,1.56
8150.00,1.56
8149.00,1.56
8148.00,1.56
8147.00,1.56
8146.00,1.55
8145.00,1.55
8144.00,1.55
8143.00,1.55
8142.00,1.55
8141.00,1.55
8140.00,1.55
8139.00,1.55
8138.00,1.55
8137.00,1.55
8136.00,1.55
8135.00,1.55
8134.00,1.55
8133.00,1.55
8132.00,1.55
8131.00,1.55
8130.00,1.55
8129.00,1.55
8128.00,1.55
8127.00,1.55
8126.00,1.55
8125.00,1.55
8124.00,1.56
8123.00,1.56
8122.00,1.56
8121.00,1.56
8120.00,1.56
8119.00,1.56
8118.00,1.56
8117.00,1.56
8116.00,1.57
8115.00,1.57
8114.00,1.57
8113.00,1.57
8112.00,1.57
8111.00,1.57
8110.00,1.57
8109.00,1.57
8108.00,1.57
8107.00,1.57
8106.00,1.57
8105.00,1.58
8104.00,1.58
8103.00,1.58
8102.00,1.58
8101.00,1.58
8100.00,1.58
8099.00,1.58
8098.00,1.58
8097.00,1.58
8096.00,1.58
8095.00,1.58
8094.00,1.58
8093.00,1.58
8092.00,1.58
8091.00,1.58
8090.00,1.58
8089.00,1.58
8088.00,1.58
8087.00,1.58
8086.00,1.58
8085.00,1.58
8084.00,1.58
8083.00,1.58
8082.00,1.58
8081.00,1.58
8080.00,1.58
8079.00,1.58
8078.00,1.58
8077.00,1.58
8076.00,1.58
8075.00,1.58
8074.00,1.58
8073.00,1.58
8072.00,1.58
8071.00,1.58
8070.00,1.58
8069.00,1.58
8068.00,1.58
8067.00,1.59
8066.00,1.59
8065.00,1.59
8064.00,1.59
8063.00,1.59
8062.00,1.59
8061.00,1.59
8060.00,1.59
8059.00,1.59
8058.00,1.60
8057.00,1.60
8056.00,1.60
8055.00,1.60
8054.00,1.60
8053.00,1.60
8052.00,1.60
8051.00,1.60
8050.00,1.60
8049.00,1.60
8048.00,1.60
8047.00,1.60
8046.00,1.60
8045.00,1.59
8044.00,1.59
8043.00,1.59
8042.00,1.59
8041.00,1.59
8040.00,1.59
8039.00,1.59
8038.00,1.59
8037.00,1.59
8036.00,1.59
8035.00,1.59
8034.00,1.59
8033.00,1.59
8032.00,1.59
8031.00,1.59
8030.00,1.59
8029.00,1.59
8028.00,1.59
8027.00,1.59
8026.00,1.59
8025.00,1.59
8024.00,1.59
8023.00,1.59
8022.00,1.59
8021.00,1.59
8020.00,1.59
8019.00,1.59
8018.00,1.59
8017.00,1.59
8016.00,1.59
8015.00,1.59
8014.00,1.59
8013.00,1.59
8012.00,1.59
8011.00,1.59
8010.00,1.59
8009.00,1.59
8008.00,1.60
8007.00,1.60
8006.00,1.60
8005.00,1.60
8004.00,1.60
8003.00,1.60
8002.00,1.60
8001.00,1.60
8000.00,1.61
7999.00,1.61
7998.00,1.61
7997.00,1.61
7996.00,1.61
7995.00,1.61
7994.00,1.61
7993.00,1.61
7992.00,1.61
7991.00,1.61
7990.00,1.61
7989.00,1.61
7988.00,1.61
7987.00,1.61
7986.00,1.61
7985.00,1.61
7984.00,1.61
7983.00,1.61
7982.00,1.61
7981.00,1.60
7980.00,1.60
7979.00,1.60
7978.00,1.60
7977.00,1.60
7976.00,1.60
7975.00,1.60
7974.00,1.60
7973.00,1.60
7972.00,1.60
7971.00,1.60
7970.00,1.60
7969.00,1.60
7968.00,1.60
7967.00,1.60
7966.00,1.60
7965.00,1.60
7964.00,1.61
7963.00,1.61
7962.00,1.61
7961.00,1.61
7960.00,1.61
7959.00,1.61
7958.00,1.61
7957.00,1.61
7956.00,1.61
7955.00,1.61
7954.00,1.61
7953.00,1.61
7952.00,1.62
7951.00,1.62
7950.00,1.62
7949.00,1.62
7948.00,1.62
7947.00,1.62
7946.00,1.62
7945.00,1.62
7944.00,1.62
7943.00,1.62
7942.00,1.62
7941.00,1.62
7940.00,1.62
7939.00,1.62
7938.00,1.62
7937.00,1.62
7936.00,1.62
7935.00,1.62
7934.00,1.62
7933.00,1.62
7932.00,1.62
7931.00,1.62
7930.00,1.62
7929.00,1.62
7928.00,1.62
7927.00,1.62
7926.00,1.62
7925.00,1.62
7924.00,1.62
7923.00,1.62
7922.00,1.62
7921.00,1.62
7920.00,1.62
7919.00,1.62
7918.00,1.62
7917.00,1.62
7916.00,1.62
7915.00,1.62
7914.00,1.62
7913.00,1.62
7912.00,1.63
7911.00,1.63
7910.00,1.63
7909.00,1.63
7908.00,1.63
7907.00,1.63
7906.00,1.63
7905.00,1.63
7904.00,1.63
7903.00,1.63
7902.00,1.63
7901.00,1.63
7900.00,1.63
7899.00,1.63
7898.00,1.63
7897.00,1.63
7896.00,1.63
7895.00,1.63
7894.00,1.63
7893.00,1.63
7892.00,1.63
7891.00,1.63
7890.00,1.63
7889.00,1.63
7888.00,1.63
7887.00,1.63
7886.00,1.63
7885.00,1.63
7884.00,1.63
7883.00,1.63
7882.00,1.63
7881.00,1.63
7880.00,1.63
7879.00,1.63
7878.00,1.63
7877.00,1.63
7876.00,1.63
7875.00,1.63
7874.00,1.63
7873.00,1.63
7872.00,1.63
7871.00,1.63
7870.00,1.63
7869.00,1.63
7868.00,1.63
7867.00,1.63
7866.00,1.63
7865.00,1.63
7864.00,1.63
7863.00,1.63
7862.00,1.63
7861.00,1.63
7860.00,1.63
7859.00,1.64
7858.00,1.64
7857.00,1.64
7856.00,1.64
7855.00,1.64
7854.00,1.64
7853.00,1.64
7852.00,1.64
7851.00,1.64
7850.00,1.64
7849.00,1.64
7848.00,1.64
7847.00,1.64
7846.00,1.64
7845.00,1.64
7844.00,1.64
7843.00,1.63
7842.00,1.63
7841.00,1.63
7840.00,1.63
7839.00,1.63
7838.00,1.63
7837.00,1.63
7836.00,1.64
7835.00,1.64
7834.00,1.64
7833.00,1.64
7832.00,1.64
7831.00,1.64
7830.00,1.64
7829.00,1.64
7828.00,1.64
7827.00,1.64
7826.00,1.64
7825.00,1.64
7824.00,1.64
7823.00,1.64
7822.00,1.64
7821.00,1.64
7820.00,1.64
7819.00,1.64
7818.00,1.64
7817.00,1.64
7816.00,1.64
7815.00,1.64
7814.00,1.64
7813.00,1.65
7812.00,1.65
7811.00,1.65
7810.00,1.65
7809.00,1.65
7808.00,1.65
7807.00,1.65
7806.00,1.65
7805.00,1.65
7804.00,1.65
7803.00,1.65
7802.00,1.65
7801.00,1.65
7800.00,1.66
7799.00,1.66
7798.00,1.66
7797.00,1.66
7796.00,1.66
7795.00,1.66
7794.00,1.66
7793.00,1.66
7792.00,1.66
7791.00,1.66
7790.00,1.66
7789.00,1.66
7788.00,1.66
7787.00,1.65
7786.00,1.65
7785.00,1.65
7784.00,1.65
7783.00,1.65
7782.00,1.65
7781.00,1.65
7780.00,1.65
7779.00,1.65
7778.00,1.65
7777.00,1.65
7776.00,1.65
7775.00,1.65
7774.00,1.65
7773.00,1.65
7772.00,1.65
7771.00,1.65
7770.00,1.65
7769.00,1.65
7768.00,1.65
7767.00,1.65
7766.00,1.65
7765.00,1.65
7764.00,1.66
7763.00,1.66
7762.00,1.66
7761.00,1.66
7760.00,1.66
7759.00,1.66
7758.00,1.66
7757.00,1.66
7756.00,1.66
7755.00,1.66
7754.00,1.66
7753.00,1.65
7752.00,1.65
7751.00,1.65
7750.00,1.65
7749.00,1.65
7748.00,1.65
7747.00,1.65
7746.00,1.65
7745.00,1.65
7744.00,1.65
7743.00,1.65
7742.00,1.65
7741.00,1.65
7740.00,1.65
7739.00,1.65
7738.00,1.65
7737.00,1.65
7736.00,1.65
7735.00,1.65
7734.00,1.65
7733.00,1.65
7732.00,1.65
7731.00,1.65
7730.00,1.65
7729.00,1.65
7728.00,1.65
7727.00,1.65
7726.00,1.65
7725.00,1.65
7724.00,1.65
7723.00,1.65
7722.00,1.65
7721.00,1.65
7720.00,1.65
7719.00,1.65
7718.00,1.65
7717.00,1.65
7716.00,1.65
7715.00,1.65
7714.00,1.65
7713.00,1.65
7712.00,1.65
7711.00,1.65
7710.00,1.65
7709.00,1.65
7708.00,1.65
7707.00,1.65
7706.00,1.65
7705.00,1.65
7704.00,1.65
7703.00,1.65
7702.00,1.65
7701.00,1.65
7700.00,1.65
7699.00,1.65
7698.00,1.65
7697.00,1.65
7696.00,1.65
7695.00,1.66
7694.00,1.66
7693.00,1.66
7692.00,1.66
7691.00,1.66
7690.00,1.66
7689.00,1.66
7688.00,1.66
7687.00,1.66
7686.00,1.66
7685.00,1.66
7684.00,1.66
7683.00,1.66
7682.00,1.66
7681.00,1.66
7680.00,1.66
7679.00,1.66
7678.00,1.66
7677.00,1.66
7676.00,1.66
7675.00,1.66
7674.00,1.66
7673.00,1.66
7672.00,1.65
7671.00,1.65
7670.00,1.65
7669.00,1.65
7668.00,1.65
7667.00,1.65
7666.00,1.65
7665.00,1.65
7664.00,1.65
7663.00,1.65
7662.00,1.65
7661.00,1.65
7660.00,1.65
7659.00,1.66
7658.00,1.66
7657.00,1.66
7656.00,1.66
7655.00,1.66
7654.00,1.66
7653.00,1.66
7652.00,1.66
7651.00,1.66
7650.00,1.66
7649.00,1.66
7648.00,1.66
7647.00,1.66
7646.00,1.66
7645.00,1.66
7644.00,1.66
7643.00,1.66
7642.00,1.66
7641.00,1.66
7640.00,1.66
7639.00,1.66
7638.00,1.66
7637.00,1.66
7636.00,1.66
7635.00,1.66
7634.00,1.66
7633.00,1.66
7632.00,1.66
7631.00,1.66
7630.00,1.66
7629.00,1.66
7628.00,1.66
7627.00,1.66
7626.00,1.66
7625.00,1.66
7624.00,1.66
7623.00,1.66
7622.00,1.66
7621.00,1.66
7620.00,1.66
7619.00,1.66
7618.00,1.66
7617.00,1.66
7616.00,1.66
7615.00,1.66
7614.00,1.66
7613.00,1.66
7612.00,1.66
7611.00,1.66
7610.00,1.66
7609.00,1.66
7608.00,1.66
7607.00,1.66
7606.00,1.66
7605.00,1.66
7604.00,1.65
7603.00,1.65
7602.00,1.65
7601.00,1.65
7600.00,1.65
7599.00,1.65
7598.00,1.65
7597.00,1.65
7596.00,1.65
7595.00,1.65
7594.00,1.65
7593.00,1.65
7592.00,1.65
7591.00,1.65
7590.00,1.65
7589.00,1.65
7588.00,1.65
7587.00,1.65
7586.00,1.65
7585.00,1.65
7584.00,1.65
7583.00,1.65
7582.00,1.65
7581.00,1.65
7580.00,1.65
7579.00,1.65
7578.00,1.65
7577.00,1.65
7576.00,1.65
7575.00,1.65
7574.00,1.65
7573.00,1.65
7572.00,1.65
7571.00,1.65
7570.00,1.65
7569.00,1.65
7568.00,1.65
7567.00,1.65
7566.00,1.65
7565.00,1.65
7564.00,1.65
7563.00,1.66
7562.00,1.66
7561.00,1.66
7560.00,1.66
7559.00,1.66
7558.00,1.66
7557.00,1.66
7556.00,1.66
7555.00,1.66
7554.00,1.66
7553.00,1.66
7552.00,1.66
7551.00,1.66
7550.00,1.66
7549.00,1.66
7548.00,1.66
7547.00,1.66
7546.00,1.65
7545.00,1.65
7544.00,1.65
7543.00,1.65
7542.00,1.65
7541.00,1.65
7540.00,1.65
7539.00,1.65
7538.00,1.65
7537.00,1.65
7536.00,1.65
7535.00,1.65
7534.00,1.65
7533.00,1.65
7532.00,1.65
7531.00,1.65
7530.00,1.65
7529.00,1.65
7528.00,1.65
7527.00,1.64
7526.00,1.64
7525.00,1.64
7524.00,1.64
7523.00,1.64
7522.00,1.64
7521.00,1.64
7520.00,1.64
7519.00,1.64
7518.00,1.64
7517.00,1.64
7516.00,1.64
7515.00,1.63
7514.00,1.63
7513.00,1.63
7512.00,1.63
7511.00,1.63
7510.00,1.63
7509.00,1.63
7508.00,1.63
7507.00,1.63
7506.00,1.63
7505.00,1.63
7504.00,1.63
7503.00,1.62
7502.00,1.62
7501.00,1.62
7500.00,1.62
7499.00,1.62
7498.00,1.62
7497.00,1.62
7496.00,1.62
7495.00,1.62
7494.00,1.62
7493.00,1.62
7492.00,1.62
7491.00,1.62
7490.00,1.62
7489.00,1.62
7488.00,1.62
7487.00,1.62
7486.00,1.62
7485.00,1.62
7484.00,1.62
7483.00,1.62
7482.00,1.62
7481.00,1.62
7480.00,1.61
7479.00,1.61
7478.00,1.61
7477.00,1.61
7476.00,1.61
7475.00,1.61
7474.00,1.61
7473.00,1.61
7472.00,1.61
7471.00,1.61
7470.00,1.61
7469.00,1.61
7468.00,1.61
7467.00,1.61
7466.00,1.61
7465.00,1.61
7464.00,1.61
7463.00,1.60
7462.00,1.60
7461.00,1.60
7460.00,1.60
7459.00,1.60
7458.00,1.60
7457.00,1.60
7456.00,1.60
7455.00,1.60
7454.00,1.60
7453.00,1.60
7452.00,1.60
7451.00,1.60
7450.00,1.60
7449.00,1.60
7448.00,1.60
7447.00,1.60
7446.00,1.60
7445.00,1.60
7444.00,1.60
7443.00,1.60
7442.00,1.60
7441.00,1.60
7440.00,1.59
7439.00,1.59
7438.00,1.59
7437.00,1.59
7436.00,1.59
7435.00,1.59
7434.00,1.59
7433.00,1.59
7432.00,1.59
7431.00,1.59
7430.00,1.59
7429.00,1.58
7428.00,1.58
7427.00,1.58
7426.00,1.58
7425.00,1.58
7424.00,1.58
7423.00,1.58
7422.00,1.57
7421.00,1.57
7420.00,1.57
7419.00,1.57
7418.00,1.57
7417.00,1.57
7416.00,1.56
7415.00,1.56
7414.00,1.56
7413.00,1.56
7412.00,1.56
7411.00,1.56
7410.00,1.56
7409.00,1.56
7408.00,1.55
7407.00,1.55
7406.00,1.55
7405.00,1.55
7404.00,1.55
7403.00,1.55
7402.00,1.55
7401.00,1.55
7400.00,1.55
7399.00,1.55
7398.00,1.54
7397.00,1.54
7396.00,1.54
7395.00,1.54
7394.00,1.54
7393.00,1.54
7392.00,1.54
7391.00,1.54
7390.00,1.53
7389.00,1.53
7388.00,1.53
7387.00,1.53
7386.00,1.53
7385.00,1.53
7384.00,1.53
7383.00,1.53
7382.00,1.53
7381.00,1.52
7380.00,1.52
7379.00,1.52
7378.00,1.52
7377.00,1.52
7376.00,1.52
7375.00,1.52
7374.00,1.52
7373.00,1.52
7372.00,1.52
7371.00,1.52
7370.00,1.52
7369.00,1.52
7368.00,1.52
7367.00,1.52
7366.00,1.52
7365.00,1.52
7364.00,1.52
7363.00,1.52
7362.00,1.52
7361.00,1.52
7360.00,1.52
7359.00,1.53
7358.00,1.53
7357.00,1.53
7356.00,1.53
7355.00,1.53
7354.00,1.53
7353.00,1.53
7352.00,1.53
7351.00,1.53
7350.00,1.53
7349.00,1.53
7348.00,1.53
7347.00,1.53
7346.00,1.53
7345.00,1.53
7344.00,1.53
7343.00,1.52
7342.00,1.52
7341.00,1.52
7340.00,1.52
7339.00,1.52
7338.00,1.52
7337.00,1.52
7336.00,1.52
7335.00,1.51
7334.00,1.51
7333.00,1.51
7332.00,1.51
7331.00,1.51
7330.00,1.51
7329.00,1.51
7328.00,1.51
7327.00,1.51
7326.00,1.51
7325.00,1.50
7324.00,1.50
7323.00,1.50
7322.00,1.50
7321.00,1.50
7320.00,1.50
7319.00,1.50
7318.00,1.50
7317.00,1.50
7316.00,1.50
7315.00,1.50
7314.00,1.50
7313.00,1.50
7312.00,1.49
7311.00,1.49
7310.00,1.49
7309.00,1.49
7308.00,1.49
7307.00,1.48
7306.00,1.48
7305.00,1.48
7304.00,1.48
7303.00,1.48
7302.00,1.48
7301.00,1.47
7300.00,1.47
7299.00,1.47
7298.00,1.47
7297.00,1.47
7296.00,1.47
7295.00,1.46
7294.00,1.46
7293.00,1.46
7292.00,1.46
7291.00,1.46
7290.00,1.46
7289.00,1.46
7288.00,1.46
7287.00,1.45
7286.00,1.45
7285.00,1.45
7284.00,1.45
7283.00,1.45
7282.00,1.45
7281.00,1.45
7280.00,1.44
7279.00,1.44
7278.00,1.44
7277.00,1.44
7276.00,1.44
7275.00,1.43
7274.00,1.43
7273.00,1.43
7272.00,1.43
7271.00,1.43
7270.00,1.42
7269.00,1.42
7268.00,1.42
7267.00,1.42
7266.00,1.42
7265.00,1.42
7264.00,1.41
7263.00,1.41
7262.00,1.41
7261.00,1.41
7260.00,1.41
7259.00,1.40
7258.00,1.40
7257.00,1.40
7256.00,1.40
7255.00,1.40
7254.00,1.40
7253.00,1.39
7252.00,1.39
7251.00,1.39
7250.00,1.39
7249.00,1.39
7248.00,1.39
7247.00,1.38
7246.00,1.38
7245.00,1.38
7244.00,1.38
7243.00,1.38
7242.00,1.37
7241.00,1.37
7240.00,1.37
7239.00,1.36
7238.00,1.36
7237.00,1.36
7236.00,1.35
7235.00,1.35
7234.00,1.34
7233.00,1.34
7232.00,1.33
7231.00,1.33
7230.00,1.32
7229.00,1.32
7228.00,1.31
7227.00,1.31
7226.00,1.30
7225.00,1.29
7224.00,1.29
7223.00,1.28
7222.00,1.28
7221.00,1.27
7220.00,1.27
7219.00,1.26
7218.00,1.26
7217.00,1.25
7216.00,1.25
7215.00,1.24
7214.00,1.24
7213.00,1.24
7212.00,1.23
7211.00,1.23
7210.00,1.22
7209.00,1.22
7208.00,1.21
7207.00,1.21
7206.00,1.20
7205.00,1.20
7204.00,1.19
7203.00,1.19
7202.00,1.18
7201.00,1.18
7200.00,1.18
7199.00,1.17
7198.00,1.17
7197.00,1.16
7196.00,1.16
7195.00,1.15
7194.00,1.15
7193.00,1.14
7192.00,1.14
7191.00,1.13
7190.00,1.13
7189.00,1.13
7188.00,1.12
7187.00,1.12
7186.00,1.12
7185.00,1.11
7184.00,1.11
7183.00,1.11
7182.00,1.10
7181.00,1.10
7180.00,1.10
7179.00,1.10
7178.00,1.09
7177.00,1.09
7176.00,1.09
7175.00,1.08
7174.00,1.08
7173.00,1.08
7172.00,1.07
7171.00,1.07
7170.00,1.07
7169.00,1.06
7168.00,1.06
7167.00,1.05
7166.00,1.05
7165.00,1.04
7164.00,1.04
7163.00,1.04
7162.00,1.03
7161.00,1.03
7160.00,1.02
7159.00,1.02
7158.00,1.02
7157.00,1.01
7156.00,1.01
7155.00,1.00
7154.00,1.00
7153.00,1.00
7152.00,0.99
7151.00,0.99
7150.00,0.99
7149.00,0.98
7148.00,0.98
7147.00,0.98
7146.00,0.98
7145.00,0.97
7144.00,0.97
7143.00,0.97
7142.00,0.96
7141.00,0.96
7140.00,0.96
7139.00,0.95
7138.00,0.95
7137.00,0.95
7136.00,0.94
7135.00,0.94
7134.00,0.94
7133.00,0.93
7132.00,0.93
7131.00,0.93
7130.00,0.92
7129.00,0.92
7128.00,0.92
7127.00,0.91
7126.00,0.91
7125.00,0.91
7124.00,0.90
7123.00,0.90
7122.00,0.90
7121.00,0.89
7120.00,0.89
7119.00,0.89
7118.00,0.88
7117.00,0.88
7116.00,0.88
7115.00,0.87
7114.00,0.87
7113.00,0.87
7112.00,0.86
7111.00,0.86
7110.00,0.86
7109.00,0.85
7108.00,0.85
7107.00,0.85
7106.00,0.85
7105.00,0.84
7104.00,0.84
7103.00,0.84
7102.00,0.83
7101.00,0.83
7100.00,0.83
7099.00,0.82
7098.00,0.82
7097.00,0.82
7096.00,0.81
7095.00,0.81
7094.00,0.81
7093.00,0.81
7092.00,0.80
7091.00,0.80
7090.00,0.80
7089.00,0.79
7088.00,0.79
7087.00,0.79
7086.00,0.79
7085.00,0.78
7084.00,0.78
7083.00,0.78
7082.00,0.78
7081.00,0.77
7080.00,0.77
7079.00,0.77
7078.00,0.77
7077.00,0.76
7076.00,0.76
7075.00,0.76
7074.00,0.76
7073.00,0.76
7072.00,0.75
7071.00,0.75
7070.00,0.75
7069.00,0.75
7068.00,0.75
7067.00,0.75
7066.00,0.74
7065.00,0.74
7064.00,0.74
7063.00,0.74
7062.00,0.74
7061.00,0.74
7060.00,0.73
7059.00,0.73
7058.00,0.73
7057.00,0.73
7056.00,0.73
7055.00,0.73
7054.00,0.73
7053.00,0.72
7052.00,0.72
7051.00,0.72
7050.00,0.72
7049.00,0.72
7048.00,0.72
7047.00,0.72
7046.00,0.72
7045.00,0.72
7044.00,0.71
7043.00,0.71
7042.00,0.71
7041.00,0.71
7040.00,0.71
7039.00,0.71
7038.00,0.71
7037.00,0.70
7036.00,0.70
7035.00,0.70
7034.00,0.70
7033.00,0.70
7032.00,0.70
7031.00,0.69
7030.00,0.69
7029.00,0.69
7028.00,0.69
7027.00,0.69
7026.00,0.69
7025.00,0.68
7024.00,0.68
7023.00,0.68
7022.00,0.68
7021.00,0.68
7020.00,0.68
7019.00,0.67
7018.00,0.67
7017.00,0.67
7016.00,0.67
7015.00,0.67
7014.00,0.67
7013.00,0.67
7012.00,0.67
7011.00,0.67
7010.00,0.67
7009.00,0.66
7008.00,0.66
7007.00,0.66
7006.00,0.66
7005.00,0.66
7004.00,0.66
7003.00,0.66
7002.00,0.66
7001.00,0.66
7000.00,0.65
6999.00,0.65
6998.00,0.65
6997.00,0.65
6996.00,0.65
6995.00,0.65
6994.00,0.65
6993.00,0.65
6992.00,0.65
6991.00,0.64
6990.00,0.64
6989.00,0.64
6988.00,0.64
6987.00,0.64
6986.00,0.64
6985.00,0.64
6984.00,0.64
6983.00,0.64
6982.00,0.64
6981.00,0.64
6980.00,0.64
6979.00,0.64
6978.00,0.64
6977.00,0.64
6976.00,0.64
6975.00,0.64
6974.00,0.64
6973.00,0.64
6972.00,0.64
6971.00,0.64
6970.00,0.64
6969.00,0.64
6968.00,0.64
6967.00,0.64
6966.00,0.64
6965.00,0.64
6964.00,0.64
6963.00,0.63
6962.00,0.63
6961.00,0.63
6960.00,0.63
6959.00,0.63
6958.00,0.63
6957.00,0.63
6956.00,0.63
6955.00,0.63
6954.00,0.63
6953.00,0.63
6952.00,0.63
6951.00,0.63
6950.00,0.63
6949.00,0.63
6948.00,0.63
6947.00,0.63
6946.00,0.63
6945.00,0.63
6944.00,0.62
6943.00,0.62
6942.00,0.62
6941.00,0.62
6940.00,0.62
6939.00,0.62
6938.00,0.62
6937.00,0.62
6936.00,0.62
6935.00,0.62
6934.00,0.62
6933.00,0.62
6932.00,0.62
6931.00,0.62
6930.00,0.62
6929.00,0.62
6928.00,0.62
6927.00,0.62
6926.00,0.62
6925.00,0.62
6924.00,0.62
6923.00,0.62
6922.00,0.61
6921.00,0.61
6920.00,0.61
6919.00,0.61
6918.00,0.61
6917.00,0.61
6916.00,0.61
6915.00,0.61
6914.00,0.61
6913.00,0.61
6912.00,0.61
6911.00,0.61
6910.00,0.61
6909.00,0.61
6908.00,0.61
6907.00,0.61
6906.00,0.61
6905.00,0.61
6904.00,0.61
6903.00,0.61
6902.00,0.61
6901.00,0.61
6900.00,0.61
6899.00,0.60
6898.00,0.60
6897.00,0.60
6896.00,0.60
6895.00,0.60
6894.00,0.60
6893.00,0.60
6892.00,0.60
6891.00,0.60
6890.00,0.60
6889.00,0.60
6888.00,0.60
6887.00,0.60
6886.00,0.60
6885.00,0.60
6884.00,0.60
6883.00,0.60
6882.00,0.60
6881.00,0.60
6880.00,0.60
6879.00,0.61
6878.00,0.61
6877.00,0.61
6876.00,0.61
6875.00,0.61
6874.00,0.61
6873.00,0.61
6872.00,0.61
6871.00,0.61
6870.00,0.61
6869.00,0.61
6868.00,0.61
6867.00,0.61
6866.00,0.61
6865.00,0.61
6864.00,0.61
6863.00,0.61
6862.00,0.61
6861.00,0.61
6860.00,0.61
6859.00,0.61
6858.00,0.61
6857.00,0.61
6856.00,0.61
6855.00,0.61
6854.00,0.61
6853.00,0.61
6852.00,0.61
6851.00,0.61
6850.00,0.61
6849.00,0.61
6848.00,0.61
6847.00,0.61
6846.00,0.61
6845.00,0.61
6844.00,0.61
6843.00,0.61
6842.00,0.61
6841.00,0.61
6840.00,0.61
6839.00,0.61
6838.00,0.61
6837.00,0.61
6836.00,0.61
6835.00,0.61
6834.00,0.61
6833.00,0.61
6832.00,0.61
6831.00,0.61
6830.00,0.61
6829.00,0.61
6828.00,0.62
6827.00,0.62
6826.00,0.62
6825.00,0.62
6824.00,0.62
6823.00,0.62
6822.00,0.62
6821.00,0.62
6820.00,0.62
6819.00,0.62
6818.00,0.62
6817.00,0.62
6816.00,0.62
6815.00,0.62
6814.00,0.62
6813.00,0.62
6812.00,0.62
6811.00,0.62
6810.00,0.63
6809.00,0.63
6808.00,0.63
6807.00,0.63
6806.00,0.63
6805.00,0.63
6804.00,0.63
6803.00,0.63
6802.00,0.63
6801.00,0.63
6800.00,0.63
6799.00,0.63
6798.00,0.63
6797.00,0.63
6796.00,0.63
6795.00,0.63
6794.00,0.63
6793.00,0.63
6792.00,0.64
6791.00,0.64
6790.00,0.64
6789.00,0.64
6788.00,0.64
6787.00,0.64
6786.00,0.64
6785.00,0.64
6784.00,0.64
6783.00,0.64
6782.00,0.64
6781.00,0.65
6780.00,0.65
6779.00,0.65
6778.00,0.65
6777.00,0.65
6776.00,0.65
6775.00,0.65
6774.00,0.65
6773.00,0.65
6772.00,0.65
6771.00,0.65
6770.00,0.65
6769.00,0.65
6768.00,0.65
6767.00,0.65
6766.00,0.65
6765.00,0.65
6764.00,0.66
6763.00,0.66
6762.00,0.66
6761.00,0.66
6760.00,0.66
6759.00,0.66
6758.00,0.66
6757.00,0.66
6756.00,0.66
6755.00,0.66
6754.00,0.66
6753.00,0.66
6752.00,0.66
6751.00,0.67
6750.00,0.67
6749.00,0.67
6748.00,0.67
6747.00,0.67
6746.00,0.67
6745.00,0.67
6744.00,0.67
6743.00,0.67
6742.00,0.67
6741.00,0.68
6740.00,0.68
6739.00,0.68
6738.00,0.68
6737.00,0.68
6736.00,0.68
6735.00,0.68
6734.00,0.68
6733.00,0.68
6732.00,0.68
6731.00,0.68
6730.00,0.68
6729.00,0.68
6728.00,0.69
6727.00,0.69
6726.00,0.69
6725.00,0.69
6724.00,0.69
6723.00,0.69
6722.00,0.69
6721.00,0.69
6720.00,0.69
6719.00,0.69
6718.00,0.69
6717.00,0.70
6716.00,0.70
6715.00,0.70
6714.00,0.70
6713.00,0.70
6712.00,0.70
6711.00,0.70
6710.00,0.70
6709.00,0.70
6708.00,0.70
6707.00,0.70
6706.00,0.70
6705.00,0.71
6704.00,0.71
6703.00,0.71
6702.00,0.71
6701.00,0.71
6700.00,0.71
6699.00,0.71
6698.00,0.71
6697.00,0.71
6696.00,0.72
6695.00,0.72
6694.00,0.72
6693.00,0.72
6692.00,0.72
6691.00,0.72
6690.00,0.72
6689.00,0.72
6688.00,0.72
6687.00,0.73
6686.00,0.73
6685.00,0.73
6684.00,0.73
6683.00,0.73
6682.00,0.73
6681.00,0.73
6680.00,0.73
6679.00,0.73
6678.00,0.73
6677.00,0.73
6676.00,0.73
6675.00,0.74
6674.00,0.74
6673.00,0.74
6672.00,0.74
6671.00,0.74
6670.00,0.74
6669.00,0.74
6668.00,0.74
6667.00,0.74
6666.00,0.74
6665.00,0.75
6664.00,0.75
6663.00,0.75
6662.00,0.75
6661.00,0.75
6660.00,0.75
6659.00,0.75
6658.00,0.75
6657.00,0.76
6656.00,0.76
6655.00,0.76
6654.00,0.76
6653.00,0.76
6652.00,0.76
6651.00,0.77
6650.00,0.77
6649.00,0.77
6648.00,0.77
6647.00,0.77
6646.00,0.78
6645.00,0.78
6644.00,0.78
6643.00,0.78
6642.00,0.78
6641.00,0.79
6640.00,0.79
6639.00,0.79
6638.00,0.79
6637.00,0.79
6636.00,0.79
6635.00,0.80
6634.00,0.80
6633.00,0.80
6632.00,0.80
6631.00,0.80
6630.00,0.80
6629.00,0.80
6628.00,0.80
6627.00,0.80
6626.00,0.81
6625.00,0.81
6624.00,0.81
6623.00,0.81
6622.00,0.81
6621.00,0.81
6620.00,0.81
6619.00,0.81
6618.00,0.81
6617.00,0.81
6616.00,0.81
6615.00,0.81
6614.00,0.81
6613.00,0.82
6612.00,0.82
6611.00,0.82
6610.00,0.82
6609.00,0.82
6608.00,0.82
6607.00,0.82
6606.00,0.82
6605.00,0.83
6604.00,0.83
6603.00,0.83
6602.00,0.83
6601.00,0.83
6600.00,0.83
6599.00,0.83
6598.00,0.83
6597.00,0.84
6596.00,0.84
6595.00,0.84
6594.00,0.84
6593.00,0.84
6592.00,0.84
6591.00,0.84
6590.00,0.84
6589.00,0.84
6588.00,0.85
6587.00,0.85
6586.00,0.85
6585.00,0.85
6584.00,0.85
6583.00,0.85
6582.00,0.86
6581.00,0.86
6580.00,0.86
6579.00,0.86
6578.00,0.86
6577.00,0.87
6576.00,0.87
6575.00,0.87
6574.00,0.87
6573.00,0.87
6572.00,0.87
6571.00,0.88
6570.00,0.88
6569.00,0.88
6568.00,0.88
6567.00,0.88
6566.00,0.88
6565.00,0.88
6564.00,0.89
6563.00,0.89
6562.00,0.89
6561.00,0.89
6560.00,0.89
6559.00,0.89
6558.00,0.89
6557.00,0.89
6556.00,0.89
6555.00,0.89
6554.00,0.89
6553.00,0.89
6552.00,0.89
6551.00,0.90
6550.00,0.90
6549.00,0.90
6548.00,0.90
6547.00,0.90
6546.00,0.90
6545.00,0.90
6544.00,0.90
6543.00,0.90
6542.00,0.90
6541.00,0.90
6540.00,0.90
6539.00,0.90
6538.00,0.90
6537.00,0.91
6536.00,0.91
6535.00,0.91
6534.00,0.91
6533.00,0.91
6532.00,0.91
6531.00,0.91
6530.00,0.91
6529.00,0.92
6528.00,0.92
6527.00,0.92
6526.00,0.92
6525.00,0.92
6524.00,0.92
6523.00,0.92
6522.00,0.92
6521.00,0.93
6520.00,0.93
6519.00,0.93
6518.00,0.93
6517.00,0.93
6516.00,0.93
6515.00,0.93
6514.00,0.93
6513.00,0.94
6512.00,0.94
6511.00,0.94
6510.00,0.94
6509.00,0.94
6508.00,0.94
6507.00,0.94
6506.00,0.94
6505.00,0.94
6504.00,0.95
6503.00,0.95
6502.00,0.95
6501.00,0.95
6500.00,0.95
6499.00,0.95
6498.00,0.95
6497.00,0.95
6496.00,0.95
6495.00,0.95
6494.00,0.95
6493.00,0.95
6492.00,0.95
6491.00,0.95
6490.00,0.95
6489.00,0.95
6488.00,0.96
6487.00,0.96
6486.00,0.96
6485.00,0.96
6484.00,0.96
6483.00,0.96
6482.00,0.96
6481.00,0.96
6480.00,0.96
6479.00,0.96
6478.00,0.96
6477.00,0.96
6476.00,0.96
6475.00,0.96
6474.00,0.96
6473.00,0.96
6472.00,0.96
6471.00,0.96
6470.00,0.96
6469.00,0.97
6468.00,0.97
6467.00,0.97
6466.00,0.97
6465.00,0.97
6464.00,0.97
6463.00,0.97
6462.00,0.97
6461.00,0.97
6460.00,0.97
6459.00,0.97
6458.00,0.97
6457.00,0.97
6456.00,0.98
6455.00,0.98
6454.00,0.98
6453.00,0.98
6452.00,0.98
6451.00,0.98
6450.00,0.98
6449.00,0.98
6448.00,0.98
6447.00,0.98
6446.00,0.98
6445.00,0.98
6444.00,0.98
6443.00,0.98
6442.00,0.98
6441.00,0.99
6440.00,0.99
6439.00,0.99
6438.00,0.99
6437.00,0.99
6436.00,0.99
6435.00,0.99
6434.00,0.99
6433.00,0.99
6432.00,0.99
6431.00,0.99
6430.00,0.99
6429.00,0.99
6428.00,0.99
6427.00,0.99
6426.00,0.99
6425.00,0.99
6424.00,0.99
6423.00,0.99
6422.00,0.99
6421.00,0.99
6420.00,0.99
6419.00,1.00
6418.00,1.00
6417.00,1.00
6416.00,1.00
6415.00,1.00
6414.00,1.00
6413.00,1.00
6412.00,1.00
6411.00,1.00
6410.00,1.01
6409.00,1.01
6408.00,1.01
6407.00,1.01
6406.00,1.01
6405.00,1.01
6404.00,1.01
6403.00,1.01
6402.00,1.01
6401.00,1.01
6400.00,1.01
6399.00,1.01
6398.00,1.02
6397.00,1.02
6396.00,1.02
6395.00,1.02
6394.00,1.02
6393.00,1.02
6392.00,1.02
6391.00,1.02
6390.00,1.02
6389.00,1.02
6388.00,1.02
6387.00,1.03
6386.00,1.03
6385.00,1.03
6384.00,1.03
6383.00,1.03
6382.00,1.03
6381.00,1.03
6380.00,1.03
6379.00,1.03
6378.00,1.03
6377.00,1.03
6376.00,1.04
6375.00,1.04
6374.00,1.04
6373.00,1.04
6372.00,1.04
6371.00,1.04
6370.00,1.04
6369.00,1.04
6368.00,1.04
6367.00,1.04
6366.00,1.05
6365.00,1.05
6364.00,1.05
6363.00,1.05
6362.00,1.05
6361.00,1.05
6360.00,1.05
6359.00,1.05
6358.00,1.05
6357.00,1.05
6356.00,1.05
6355.00,1.05
6354.00,1.06
6353.00,1.06
6352.00,1.06
6351.00,1.06
6350.00,1.06
6349.00,1.06
6348.00,1.06
6347.00,1.06
6346.00,1.06
6345.00,1.06
6344.00,1.07
6343.00,1.07
6342.00,1.07
6341.00,1.07
6340.00,1.07
6339.00,1.07
6338.00,1.07
6337.00,1.07
6336.00,1.07
6335.00,1.08
6334.00,1.08
6333.00,1.08
6332.00,1.08
6331.00,1.08
6330.00,1.08
6329.00,1.08
6328.00,1.08
6327.00,1.08
6326.00,1.08
6325.00,1.09
6324.00,1.09
6323.00,1.09
6322.00,1.09
6321.00,1.09
6320.00,1.09
6319.00,1.09
6318.00,1.09
6317.00,1.09
6316.00,1.10
6315.00,1.10
6314.00,1.10
6313.00,1.10
6312.00,1.10
6311.00,1.10
6310.00,1.10
6309.00,1.11
6308.00,1.11
6307.00,1.11
6306.00,1.11
6305.00,1.11
6304.00,1.11
6303.00,1.11
6302.00,1.11
6301.00,1.12
6300.00,1.12
6299.00,1.12
6298.00,1.12
6297.00,1.12
6296.00,1.12
6295.00,1.12
6294.00,1.13
6293.00,1.13
6292.00,1.13
6291.00,1.13
6290.00,1.13
6289.00,1.13
6288.00,1.14
6287.00,1.14
6286.00,1.14
6285.00,1.14
6284.00,1.14
6283.00,1.14
6282.00,1.15
6281.00,1.15
6280.00,1.15
6279.00,1.15
6278.00,1.15
6277.00,1.15
6276.00,1.15
6275.00,1.16
6274.00,1.16
6273.00,1.16
6272.00,1.16
6271.00,1.16
6270.00,1.16
6269.00,1.16
6268.00,1.16
6267.00,1.16
6266.00,1.17
6265.00,1.17
6264.00,1.17
6263.00,1.17
6262.00,1.17
6261.00,1.17
6260.00,1.17
6259.00,1.18
6258.00,1.18
6257.00,1.18
6256.00,1.18
6255.00,1.18
6254.00,1.18
6253.00,1.19
6252.00,1.19
6251.00,1.19
6250.00,1.19
6249.00,1.19
6248.00,1.19
6247.00,1.20
6246.00,1.20
6245.00,1.20
6244.00,1.20
6243.00,1.20
6242.00,1.21
6241.00,1.21
6240.00,1.21
6239.00,1.21
6238.00,1.21
6237.00,1.22
6236.00,1.22
6235.00,1.22
6234.00,1.22
6233.00,1.22
6232.00,1.22
6231.00,1.23
6230.00,1.23
6229.00,1.23
6228.00,1.23
6227.00,1.23
6226.00,1.23
6225.00,1.23
6224.00,1.24
6223.00,1.24
6222.00,1.24
6221.00,1.24
6220.00,1.24
6219.00,1.24
6218.00,1.24
6217.00,1.24
6216.00,1.25
6215.00,1.25
6214.00,1.25
6213.00,1.25
6212.00,1.25
6211.00,1.25
6210.00,1.26
6209.00,1.26
6208.00,1.26
6207.00,1.26
6206.00,1.26
6205.00,1.26
6204.00,1.27
6203.00,1.27
6202.00,1.27
6201.00,1.27
6200.00,1.27
6199.00,1.27
6198.00,1.28
6197.00,1.28
6196.00,1.28
6195.00,1.28
6194.00,1.28
6193.00,1.28
6192.00,1.29
6191.00,1.29
6190.00,1.29
6189.00,1.29
6188.00,1.29
6187.00,1.30
6186.00,1.30
6185.00,1.30
6184.00,1.30
6183.00,1.30
6182.00,1.31
6181.00,1.31
6180.00,1.31
6179.00,1.31
6178.00,1.31
6177.00,1.31
6176.00,1.32
6175.00,1.32
6174.00,1.32
6173.00,1.32
6172.00,1.32
6171.00,1.32
6170.00,1.33
6169.00,1.33
6168.00,1.33
6167.00,1.33
6166.00,1.33
6165.00,1.33
6164.00,1.33
6163.00,1.34
6162.00,1.34
6161.00,1.34
6160.00,1.34
6159.00,1.34
6158.00,1.34
6157.00,1.35
6156.00,1.35
6155.00,1.35
6154.00,1.35
6153.00,1.35
6152.00,1.36
6151.00,1.36
6150.00,1.36
6149.00,1.36
6148.00,1.37
6147.00,1.37
6146.00,1.37
6145.00,1.37
6144.00,1.37
6143.00,1.38
6142.00,1.38
6141.00,1.38
6140.00,1.38
6139.00,1.39
6138.00,1.39
6137.00,1.39
6136.00,1.39
6135.00,1.39
6134.00,1.39
6133.00,1.40
6132.00,1.40
6131.00,1.40
6130.00,1.40
6129.00,1.40
6128.00,1.41
6127.00,1.41
6126.00,1.41
6125.00,1.41
6124.00,1.41
6123.00,1.41
6122.00,1.42
6121.00,1.42
6120.00,1.42
6119.00,1.42
6118.00,1.42
6117.00,1.43
6116.00,1.43
6115.00,1.43
6114.00,1.43
6113.00,1.43
6112.00,1.44
6111.00,1.44
6110.00,1.44
6109.00,1.44
6108.00,1.45
6107.00,1.45
6106.00,1.45
6105.00,1.45
6104.00,1.45
6103.00,1.45
6102.00,1.46
6101.00,1.46
6100.00,1.46
6099.00,1.46
6098.00,1.46
6097.00,1.47
6096.00,1.47
6095.00,1.47
6094.00,1.47
6093.00,1.47
6092.00,1.47
6091.00,1.48
6090.00,1.48
6089.00,1.48
6088.00,1.48
6087.00,1.48
6086.00,1.48
6085.00,1.49
6084.00,1.49
6083.00,1.49
6082.00,1.49
6081.00,1.49
6080.00,1.49
6079.00,1.50
6078.00,1.50
6077.00,1.50
6076.00,1.50
6075.00,1.50
6074.00,1.50
6073.00,1.51
6072.00,1.51
6071.00,1.51
6070.00,1.51
6069.00,1.51
6068.00,1.51
6067.00,1.51
6066.00,1.51
6065.00,1.51
6064.00,1.51
6063.00,1.52
6062.00,1.52
6061.00,1.52
6060.00,1.52
6059.00,1.52
6058.00,1.52
6057.00,1.52
6056.00,1.52
6055.00,1.52
6054.00,1.52
6053.00,1.52
6052.00,1.53
6051.00,1.53
6050.00,1.53
6049.00,1.53
6048.00,1.53
6047.00,1.53
6046.00,1.53
6045.00,1.53
6044.00,1.54
6043.00,1.54
6042.00,1.54
6041.00,1.54
6040.00,1.54
6039.00,1.54
6038.00,1.54
6037.00,1.55
6036.00,1.55
6035.00,1.55
6034.00,1.55
6033.00,1.55
6032.00,1.55
6031.00,1.55
6030.00,1.55
6029.00,1.55
6028.00,1.56
6027.00,1.56
6026.00,1.56
6025.00,1.56
6024.00,1.56
6023.00,1.56
6022.00,1.56
6021.00,1.56
6020.00,1.56
6019.00,1.56
6018.00,1.55
6017.00,1.55
6016.00,1.55
6015.00,1.55
6014.00,1.55
6013.00,1.55
6012.00,1.55
6011.00,1.55
6010.00,1.55
6009.00,1.55
6008.00,1.55
6007.00,1.55
6006.00,1.55
6005.00,1.55
6004.00,1.54
6003.00,1.54
6002.00,1.54
6001.00,1.54
6000.00,1.54
5999.00,1.54
5998.00,1.54
5997.00,1.54
5996.00,1.53
5995.00,1.53
5994.00,1.53
5993.00,1.53
5992.00,1.53
5991.00,1.52
5990.00,1.52
5989.00,1.52
5988.00,1.52
5987.00,1.51
5986.00,1.51
5985.00,1.51
5984.00,1.50
5983.00,1.50
5982.00,1.50
5981.00,1.49
5980.00,1.49
5979.00,1.48
5978.00,1.48
5977.00,1.47
5976.00,1.47
5975.00,1.46
5974.00,1.46
5973.00,1.45
5972.00,1.44
5971.00,1.43
5970.00,1.43
5969.00,1.42
5968.00,1.41
5967.00,1.40
5966.00,1.39
5965.00,1.38
5964.00,1.37
5963.00,1.36
5962.00,1.35
5961.00,1.34
5960.00,1.33
5959.00,1.32
5958.00,1.31
5957.00,1.30
5956.00,1.29
5955.00,1.29
5954.00,1.28
5953.00,1.27
5952.00,1.26
5951.00,1.25
5950.00,1.24
5949.00,1.24
5948.00,1.23
5947.00,1.22
5946.00,1.22
5945.00,1.21
5944.00,1.21
5943.00,1.21
5942.00,1.20
5941.00,1.20
5940.00,1.20
5939.00,1.19
5938.00,1.19
5937.00,1.19
5936.00,1.19
5935.00,1.19
5934.00,1.19
5933.00,1.18
5932.00,1.18
5931.00,1.18
5930.00,1.18
5929.00,1.18
5928.00,1.18
5927.00,1.18
5926.00,1.17
5925.00,1.17
5924.00,1.17
5923.00,1.17
5922.00,1.16
5921.00,1.16
5920.00,1.16
5919.00,1.15
5918.00,1.15
5917.00,1.15
5916.00,1.14
5915.00,1.14
5914.00,1.13
5913.00,1.13
5912.00,1.13
5911.00,1.12
5910.00,1.12
5909.00,1.12
5908.00,1.11
5907.00,1.11
5906.00,1.11
5905.00,1.11
5904.00,1.11
5903.00,1.11
5902.00,1.11
5901.00,1.10
5900.00,1.11
5899.00,1.11
5898.00,1.11
5897.00,1.11
5896.00,1.11
5895.00,1.11
5894.00,1.11
5893.00,1.12
5892.00,1.12
5891.00,1.12
5890.00,1.13
5889.00,1.13
5888.00,1.13
5887.00,1.14
5886.00,1.14
5885.00,1.14
5884.00,1.15
5883.00,1.15
5882.00,1.16
5881.00,1.16
5880.00,1.16
5879.00,1.17
5878.00,1.17
5877.00,1.18
5876.00,1.18
5875.00,1.18
5874.00,1.19
5873.00,1.19
5872.00,1.19
5871.00,1.19
5870.00,1.20
5869.00,1.20
5868.00,1.20
5867.00,1.21
5866.00,1.21
5865.00,1.21
5864.00,1.21
5863.00,1.21
5862.00,1.22
5861.00,1.22
5860.00,1.22
5859.00,1.22
5858.00,1.22
5857.00,1.23
5856.00,1.23
5855.00,1.23
5854.00,1.23
5853.00,1.23
5852.00,1.23
5851.00,1.23
5850.00,1.23
5849.00,1.23
5848.00,1.23
5847.00,1.23
5846.00,1.23
5845.00,1.23
5844.00,1.23
5843.00,1.23
5842.00,1.23
5841.00,1.23
5840.00,1.23
5839.00,1.24
5838.00,1.24
5837.00,1.24
5836.00,1.24
5835.00,1.24
5834.00,1.24
5833.00,1.24
5832.00,1.24
5831.00,1.24
5830.00,1.24
5829.00,1.24
5828.00,1.24
5827.00,1.24
5826.00,1.24
5825.00,1.24
5824.00,1.24
5823.00,1.24
5822.00,1.24
5821.00,1.24
5820.00,1.24
5819.00,1.24
5818.00,1.24
5817.00,1.24
5816.00,1.24
5815.00,1.24
5814.00,1.24
5813.00,1.24
5812.00,1.24
5811.00,1.24
5810.00,1.24
5809.00,1.24
5808.00,1.24
5807.00,1.24
5806.00,1.23
5805.00,1.23
5804.00,1.23
5803.00,1.23
5802.00,1.23
5801.00,1.23
5800.00,1.23
5799.00,1.23
5798.00,1.22
5797.00,1.22
5796.00,1.22
5795.00,1.22
5794.00,1.21
5793.00,1.21
5792.00,1.21
5791.00,1.21
5790.00,1.20
5789.00,1.20
5788.00,1.20
5787.00,1.20
5786.00,1.19
5785.00,1.19
5784.00,1.19
5783.00,1.18
5782.00,1.18
5781.00,1.18
5780.00,1.18
5779.00,1.17
5778.00,1.17
5777.00,1.17
5776.00,1.17
5775.00,1.17
5774.00,1.17
5773.00,1.17
5772.00,1.17
5771.00,1.17
5770.00,1.17
5769.00,1.17
5768.00,1.17
5767.00,1.17
5766.00,1.17
5765.00,1.18
5764.00,1.18
5763.00,1.18
5762.00,1.19
5761.00,1.19
5760.00,1.19
5759.00,1.20
5758.00,1.20
5757.00,1.20
5756.00,1.21
5755.00,1.21
5754.00,1.22
5753.00,1.22
5752.00,1.23
5751.00,1.23
5750.00,1.23
5749.00,1.24
5748.00,1.24
5747.00,1.25
5746.00,1.25
5745.00,1.26
5744.00,1.26
5743.00,1.26
5742.00,1.27
5741.00,1.27
5740.00,1.28
5739.00,1.28
5738.00,1.28
5737.00,1.29
5736.00,1.29
5735.00,1.29
5734.00,1.30
5733.00,1.30
5732.00,1.30
5731.00,1.30
5730.00,1.31
5729.00,1.31
5728.00,1.31
5727.00,1.31
5726.00,1.31
5725.00,1.31
5724.00,1.32
5723.00,1.32
5722.00,1.32
5721.00,1.32
5720.00,1.32
5719.00,1.32
5718.00,1.32
5717.00,1.32
5716.00,1.32
5715.00,1.32
5714.00,1.32
5713.00,1.32
5712.00,1.32
5711.00,1.32
5710.00,1.32
5709.00,1.32
5708.00,1.32
5707.00,1.32
5706.00,1.32
5705.00,1.32
5704.00,1.31
5703.00,1.31
5702.00,1.31
5701.00,1.31
5700.00,1.31
5699.00,1.31
5698.00,1.31
5697.00,1.30
5696.00,1.30
5695.00,1.30
5694.00,1.30
5693.00,1.29
5692.00,1.29
5691.00,1.29
5690.00,1.29
5689.00,1.29
5688.00,1.28
5687.00,1.28
5686.00,1.28
5685.00,1.28
5684.00,1.27
5683.00,1.27
5682.00,1.27
5681.00,1.27
5680.00,1.27
5679.00,1.27
5678.00,1.27
5677.00,1.27
5676.00,1.27
5675.00,1.27
5674.00,1.27
5673.00,1.26
5672.00,1.27
5671.00,1.27
5670.00,1.27
5669.00,1.27
5668.00,1.27
5667.00,1.27
5666.00,1.27
5665.00,1.27
5664.00,1.27
5663.00,1.27
5662.00,1.27
5661.00,1.28
5660.00,1.28
5659.00,1.28
5658.00,1.28
5657.00,1.28
5656.00,1.29
5655.00,1.29
5654.00,1.29
5653.00,1.29
5652.00,1.30
5651.00,1.30
5650.00,1.30
5649.00,1.30
5648.00,1.31
5647.00,1.31
5646.00,1.31
5645.00,1.32
5644.00,1.32
5643.00,1.32
5642.00,1.32
5641.00,1.33
5640.00,1.33
5639.00,1.33
5638.00,1.33
5637.00,1.34
5636.00,1.34
5635.00,1.34
5634.00,1.34
5633.00,1.35
5632.00,1.35
5631.00,1.35
5630.00,1.35
5629.00,1.36
5628.00,1.36
5627.00,1.36
5626.00,1.36
5625.00,1.37
5624.00,1.37
5623.00,1.37
5622.00,1.37
5621.00,1.38
5620.00,1.38
5619.00,1.38
5618.00,1.38
5617.00,1.38
5616.00,1.39
5615.00,1.39
5614.00,1.39
5613.00,1.39
5612.00,1.40
5611.00,1.40
5610.00,1.40
5609.00,1.40
5608.00,1.41
5607.00,1.41
5606.00,1.41
5605.00,1.41
5604.00,1.41
5603.00,1.42
5602.00,1.42
5601.00,1.42
5600.00,1.42
5599.00,1.42
5598.00,1.43
5597.00,1.43
5596.00,1.43
5595.00,1.43
5594.00,1.43
5593.00,1.44
5592.00,1.44
5591.00,1.44
5590.00,1.44
5589.00,1.45
5588.00,1.45
5587.00,1.45
5586.00,1.45
5585.00,1.45
5584.00,1.45
5583.00,1.46
5582.00,1.46
5581.00,1.46
5580.00,1.46
5579.00,1.46
5578.00,1.46
5577.00,1.47
5576.00,1.47
5575.00,1.47
5574.00,1.47
5573.00,1.47
5572.00,1.48
5571.00,1.48
5570.00,1.48
5569.00,1.48
5568.00,1.48
5567.00,1.49
5566.00,1.49
5565.00,1.49
5564.00,1.49
5563.00,1.49
5562.00,1.50
5561.00,1.50
5560.00,1.50
5559.00,1.50
5558.00,1.50
5557.00,1.51
5556.00,1.51
5555.00,1.51
5554.00,1.51
5553.00,1.51
5552.00,1.52
5551.00,1.52
5550.00,1.52
5549.00,1.52
5548.00,1.52
5547.00,1.52
5546.00,1.53
5545.00,1.53
5544.00,1.53
5543.00,1.53
5542.00,1.53
5541.00,1.53
5540.00,1.53
5539.00,1.53
5538.00,1.54
5537.00,1.54
5536.00,1.54
5535.00,1.54
5534.00,1.54
5533.00,1.54
5532.00,1.54
5531.00,1.54
5530.00,1.54
5529.00,1.55
5528.00,1.55
5527.00,1.55
5526.00,1.55
5525.00,1.55
5524.00,1.55
5523.00,1.55
5522.00,1.55
5521.00,1.55
5520.00,1.56
5519.00,1.56
5518.00,1.56
5517.00,1.56
5516.00,1.56
5515.00,1.56
5514.00,1.56
5513.00,1.56
5512.00,1.56
5511.00,1.56
5510.00,1.56
5509.00,1.57
5508.00,1.57
5507.00,1.57
5506.00,1.57
5505.00,1.57
5504.00,1.57
5503.00,1.57
5502.00,1.57
5501.00,1.57
5500.00,1.57
5499.00,1.58
5498.00,1.58
5497.00,1.58
5496.00,1.58
5495.00,1.58
5494.00,1.58
5493.00,1.58
5492.00,1.58
5491.00,1.59
5490.00,1.59
5489.00,1.59
5488.00,1.59
5487.00,1.59
5486.00,1.59
5485.00,1.59
5484.00,1.60
5483.00,1.60
5482.00,1.60
5481.00,1.60
5480.00,1.60
5479.00,1.61
5478.00,1.61
5477.00,1.61
5476.00,1.61
5475.00,1.61
5474.00,1.62
5473.00,1.62
5472.00,1.62
5471.00,1.62
5470.00,1.62
5469.00,1.63
5468.00,1.63
5467.00,1.63
5466.00,1.63
5465.00,1.63
5464.00,1.64
5463.00,1.64
5462.00,1.64
5461.00,1.64
5460.00,1.64
5459.00,1.64
5458.00,1.65
5457.00,1.65
5456.00,1.65
5455.00,1.65
5454.00,1.65
5453.00,1.65
5452.00,1.65
5451.00,1.65
5450.00,1.65
5449.00,1.65
5448.00,1.65
5447.00,1.65
5446.00,1.66
5445.00,1.66
5444.00,1.66
5443.00,1.66
5442.00,1.66
5441.00,1.66
5440.00,1.66
5439.00,1.66
5438.00,1.66
5437.00,1.66
5436.00,1.66
5435.00,1.66
5434.00,1.66
5433.00,1.66
5432.00,1.66
5431.00,1.66
5430.00,1.66
5429.00,1.66
5428.00,1.66
5427.00,1.66
5426.00,1.66
5425.00,1.66
5424.00,1.66
5423.00,1.66
5422.00,1.66
5421.00,1.66
5420.00,1.66
5419.00,1.66
5418.00,1.66
5417.00,1.66
5416.00,1.66
5415.00,1.66
5414.00,1.66
5413.00,1.66
5412.00,1.66
5411.00,1.66
5410.00,1.66
5409.00,1.66
5408.00,1.66
5407.00,1.66
5406.00,1.66
5405.00,1.66
5404.00,1.66
5403.00,1.66
5402.00,1.66
5401.00,1.66
5400.00,1.66
5399.00,1.66
5398.00,1.65
5397.00,1.65
5396.00,1.65
5395.00,1.65
5394.00,1.65
5393.00,1.65
5392.00,1.64
5391.00,1.64
5390.00,1.64
5389.00,1.64
5388.00,1.64
5387.00,1.63
5386.00,1.63
5385.00,1.63
5384.00,1.63
5383.00,1.62
5382.00,1.62
5381.00,1.62
5380.00,1.61
5379.00,1.61
5378.00,1.60
5377.00,1.60
5376.00,1.59
5375.00,1.59
5374.00,1.58
5373.00,1.58
5372.00,1.57
5371.00,1.57
5370.00,1.56
5369.00,1.55
5368.00,1.55
5367.00,1.54
5366.00,1.54
5365.00,1.53
5364.00,1.52
5363.00,1.51
5362.00,1.51
5361.00,1.50
5360.00,1.49
5359.00,1.48
5358.00,1.47
5357.00,1.47
5356.00,1.46
5355.00,1.45
5354.00,1.44
5353.00,1.43
5352.00,1.42
5351.00,1.40
5350.00,1.39
5349.00,1.38
5348.00,1.37
5347.00,1.36
5346.00,1.34
5345.00,1.33
5344.00,1.32
5343.00,1.30
5342.00,1.29
5341.00,1.27
5340.00,1.26
5339.00,1.24
5338.00,1.23
5337.00,1.22
5336.00,1.20
5335.00,1.18
5334.00,1.17
5333.00,1.15
5332.00,1.14
5331.00,1.12
5330.00,1.11
5329.00,1.09
5328.00,1.08
5327.00,1.07
5326.00,1.05
5325.00,1.04
5324.00,1.02
5323.00,1.01
5322.00,0.99
5321.00,0.98
5320.00,0.97
5319.00,0.95
5318.00,0.94
5317.00,0.93
5316.00,0.92
5315.00,0.90
5314.00,0.89
5313.00,0.88
5312.00,0.87
5311.00,0.86
5310.00,0.85
5309.00,0.84
5308.00,0.82
5307.00,0.82
5306.00,0.81
5305.00,0.80
5304.00,0.79
5303.00,0.78
5302.00,0.77
5301.00,0.76
5300.00,0.76
5299.00,0.75
5298.00,0.74
5297.00,0.74
5296.00,0.73
5295.00,0.73
5294.00,0.72
5293.00,0.72
5292.00,0.71
5291.00,0.71
5290.00,0.70
5289.00,0.70
5288.00,0.70
5287.00,0.69
5286.00,0.69
5285.00,0.69
5284.00,0.68
5283.00,0.68
5282.00,0.68
5281.00,0.68
5280.00,0.68
5279.00,0.67
5278.00,0.67
5277.00,0.67
5276.00,0.67
5275.00,0.67
5274.00,0.67
5273.00,0.67
5272.00,0.66
5271.00,0.66
5270.00,0.66
5269.00,0.66
5268.00,0.66
5267.00,0.66
5266.00,0.66
5265.00,0.66
5264.00,0.66
5263.00,0.66
5262.00,0.66
5261.00,0.66
5260.00,0.66
5259.00,0.66
5258.00,0.65
5257.00,0.65
5256.00,0.65
5255.00,0.65
5254.00,0.65
5253.00,0.65
5252.00,0.65
5251.00,0.65
5250.00,0.65
5249.00,0.65
5248.00,0.65
5247.00,0.65
5246.00,0.65
5245.00,0.65
5244.00,0.65
5243.00,0.65
5242.00,0.65
5241.00,0.65
5240.00,0.65
5239.00,0.65
5238.00,0.65
5237.00,0.65
5236.00,0.65
5235.00,0.65
5234.00,0.65
5233.00,0.66
5232.00,0.66
5231.00,0.66
5230.00,0.66
5229.00,0.66
5228.00,0.66
5227.00,0.66
5226.00,0.66
5225.00,0.66
5224.00,0.66
5223.00,0.66
5222.00,0.66
5221.00,0.66
5220.00,0.66
5219.00,0.66
5218.00,0.66
5217.00,0.66
5216.00,0.66
5215.00,0.66
5214.00,0.66
5213.00,0.66
5212.00,0.66
5211.00,0.66
5210.00,0.66
5209.00,0.66
5208.00,0.66
5207.00,0.66
5206.00,0.66
5205.00,0.66
5204.00,0.66
5203.00,0.66
5202.00,0.66
5201.00,0.66
5200.00,0.66
5199.00,0.66
5198.00,0.66
5197.00,0.66
5196.00,0.66
5195.00,0.66
5194.00,0.66
5193.00,0.66
5192.00,0.66
5191.00,0.67
5190.00,0.67
5189.00,0.67
5188.00,0.67
5187.00,0.67
5186.00,0.67
5185.00,0.67
5184.00,0.67
5183.00,0.67
5182.00,0.67
5181.00,0.67
5180.00,0.67
5179.00,0.67
5178.00,0.67
5177.00,0.67
5176.00,0.67
5175.00,0.67
5174.00,0.68
5173.00,0.68
5172.00,0.68
5171.00,0.68
5170.00,0.68
5169.00,0.68
5168.00,0.68
5167.00,0.68
5166.00,0.68
5165.00,0.68
5164.00,0.69
5163.00,0.69
5162.00,0.69
5161.00,0.69
5160.00,0.69
5159.00,0.69
5158.00,0.69
5157.00,0.69
5156.00,0.69
5155.00,0.69
5154.00,0.69
5153.00,0.69
5152.00,0.69
5151.00,0.69
5150.00,0.69
5149.00,0.69
5148.00,0.69
5147.00,0.69
5146.00,0.69
5145.00,0.69
5144.00,0.69
5143.00,0.69
5142.00,0.69
5141.00,0.69
5140.00,0.70
5139.00,0.70
5138.00,0.70
5137.00,0.70
5136.00,0.70
5135.00,0.70
5134.00,0.70
5133.00,0.70
5132.00,0.70
5131.00,0.70
5130.00,0.70
5129.00,0.70
5128.00,0.70
5127.00,0.70
5126.00,0.70
5125.00,0.70
5124.00,0.70
5123.00,0.70
5122.00,0.71
5121.00,0.71
5120.00,0.71
5119.00,0.71
5118.00,0.71
5117.00,0.71
5116.00,0.71
5115.00,0.71
5114.00,0.71
5113.00,0.71
5112.00,0.71
5111.00,0.72
5110.00,0.72
5109.00,0.72
5108.00,0.72
5107.00,0.72
5106.00,0.72
5105.00,0.72
5104.00,0.72
5103.00,0.72
5102.00,0.73
5101.00,0.73
5100.00,0.73
5099.00,0.73
5098.00,0.73
5097.00,0.73
5096.00,0.73
5095.00,0.73
5094.00,0.73
5093.00,0.73
5092.00,0.73
5091.00,0.73
5090.00,0.73
5089.00,0.73
5088.00,0.73
5087.00,0.74
5086.00,0.74
5085.00,0.74
5084.00,0.74
5083.00,0.74
5082.00,0.74
5081.00,0.74
5080.00,0.74
5079.00,0.74
5078.00,0.74
5077.00,0.74
5076.00,0.74
5075.00,0.74
5074.00,0.74
5073.00,0.75
5072.00,0.75
5071.00,0.75
5070.00,0.75
5069.00,0.75
5068.00,0.75
5067.00,0.75
5066.00,0.75
5065.00,0.75
5064.00,0.75
5063.00,0.76
5062.00,0.76
5061.00,0.76
5060.00,0.76
5059.00,0.76
5058.00,0.76
5057.00,0.76
5056.00,0.76
5055.00,0.76
5054.00,0.76
5053.00,0.76
5052.00,0.76
5051.00,0.76
5050.00,0.76
5049.00,0.77
5048.00,0.77
5047.00,0.77
5046.00,0.77
5045.00,0.77
5044.00,0.77
5043.00,0.77
5042.00,0.77
5041.00,0.77
5040.00,0.78
5039.00,0.78
5038.00,0.78
5037.00,0.78
5036.00,0.78
5035.00,0.78
5034.00,0.78
5033.00,0.78
5032.00,0.79
5031.00,0.79
5030.00,0.79
5029.00,0.79
5028.00,0.79
5027.00,0.79
5026.00,0.79
5025.00,0.80
5024.00,0.80
5023.00,0.80
5022.00,0.80
5021.00,0.80
5020.00,0.80
5019.00,0.80
5018.00,0.80
5017.00,0.81
5016.00,0.81
5015.00,0.81
5014.00,0.81
5013.00,0.81
5012.00,0.81
5011.00,0.81
5010.00,0.81
5009.00,0.81
5008.00,0.81
5007.00,0.82
5006.00,0.82
5005.00,0.82
5004.00,0.82
5003.00,0.82
5002.00,0.82
5001.00,0.82
5000.00,0.82
4999.00,0.82
4998.00,0.82
4997.00,0.82
4996.00,0.82
4995.00,0.82
4994.00,0.83
4993.00,0.83
4992.00,0.83
4991.00,0.83
4990.00,0.83
4989.00,0.83
4988.00,0.83
4987.00,0.84
4986.00,0.84
4985.00,0.84
4984.00,0.84
4983.00,0.84
4982.00,0.84
4981.00,0.85
4980.00,0.85
4979.00,0.85
4978.00,0.85
4977.00,0.85
4976.00,0.86
4975.00,0.86
4974.00,0.86
4973.00,0.86
4972.00,0.86
4971.00,0.86
4970.00,0.86
4969.00,0.86
4968.00,0.87
4967.00,0.87
4966.00,0.87
4965.00,0.87
4964.00,0.87
4963.00,0.87
4962.00,0.87
4961.00,0.87
4960.00,0.88
4959.00,0.88
4958.00,0.88
4957.00,0.88
4956.00,0.88
4955.00,0.88
4954.00,0.88
4953.00,0.89
4952.00,0.89
4951.00,0.89
4950.00,0.89
4949.00,0.89
4948.00,0.89
4947.00,0.89
4946.00,0.89
4945.00,0.90
4944.00,0.90
4943.00,0.90
4942.00,0.90
4941.00,0.90
4940.00,0.90
4939.00,0.90
4938.00,0.90
4937.00,0.90
4936.00,0.91
4935.00,0.91
4934.00,0.91
4933.00,0.91
4932.00,0.91
4931.00,0.91
4930.00,0.91
4929.00,0.91
4928.00,0.91
4927.00,0.91
4926.00,0.91
4925.00,0.91
4924.00,0.91
4923.00,0.91
4922.00,0.91
4921.00,0.92
4920.00,0.92
4919.00,0.92
4918.00,0.92
4917.00,0.92
4916.00,0.92
4915.00,0.92
4914.00,0.92
4913.00,0.92
4912.00,0.92
4911.00,0.92
4910.00,0.93
4909.00,0.93
4908.00,0.93
4907.00,0.93
4906.00,0.93
4905.00,0.93
4904.00,0.93
4903.00,0.93
4902.00,0.93
4901.00,0.94
4900.00,0.94
4899.00,0.94
4898.00,0.94
4897.00,0.94
4896.00,0.94
4895.00,0.94
4894.00,0.94
4893.00,0.94
4892.00,0.94
4891.00,0.94
4890.00,0.94
4889.00,0.94
4888.00,0.95
4887.00,0.95
4886.00,0.95
4885.00,0.95
4884.00,0.95
4883.00,0.95
4882.00,0.95
4881.00,0.95
4880.00,0.95
4879.00,0.95
4878.00,0.95
4877.00,0.95
4876.00,0.95
4875.00,0.95
4874.00,0.95
4873.00,0.95
4872.00,0.95
4871.00,0.95
4870.00,0.95
4869.00,0.95
4868.00,0.95
4867.00,0.96
4866.00,0.96
4865.00,0.96
4864.00,0.96
4863.00,0.96
4862.00,0.96
4861.00,0.96
4860.00,0.96
4859.00,0.97
4858.00,0.97
4857.00,0.97
4856.00,0.97
4855.00,0.97
4854.00,0.97
4853.00,0.97
4852.00,0.97
4851.00,0.97
4850.00,0.98
4849.00,0.98
4848.00,0.98
4847.00,0.98
4846.00,0.98
4845.00,0.98
4844.00,0.98
4843.00,0.98
4842.00,0.98
4841.00,0.99
4840.00,0.99
4839.00,0.99
4838.00,0.99
4837.00,0.99
4836.00,0.99
4835.00,0.99
4834.00,0.99
4833.00,0.99
4832.00,0.99
4831.00,0.99
4830.00,1.00
4829.00,1.00
4828.00,1.00
4827.00,1.00
4826.00,1.00
4825.00,1.00
4824.00,1.00
4823.00,1.00
4822.00,1.00
4821.00,1.00
4820.00,1.00
4819.00,1.00
4818.00,1.01
4817.00,1.01
4816.00,1.01
4815.00,1.01
4814.00,1.01
4813.00,1.01
4812.00,1.02
4811.00,1.02
4810.00,1.02
4809.00,1.02
4808.00,1.02
4807.00,1.03
4806.00,1.03
4805.00,1.03
4804.00,1.03
4803.00,1.03
4802.00,1.04
4801.00,1.04
4800.00,1.04
4799.00,1.04
4798.00,1.04
4797.00,1.04
4796.00,1.05
4795.00,1.05
4794.00,1.05
4793.00,1.05
4792.00,1.05
4791.00,1.06
4790.00,1.06
4789.00,1.06
4788.00,1.06
4787.00,1.06
4786.00,1.06
4785.00,1.07
4784.00,1.07
4783.00,1.07
4782.00,1.07
4781.00,1.07
4780.00,1.07
4779.00,1.07
4778.00,1.07
4777.00,1.07
4776.00,1.07
4775.00,1.08
4774.00,1.08
4773.00,1.08
4772.00,1.08
4771.00,1.08
4770.00,1.08
4769.00,1.08
4768.00,1.09
4767.00,1.09
4766.00,1.09
4765.00,1.09
4764.00,1.10
4763.00,1.10
4762.00,1.10
4761.00,1.10
4760.00,1.11
4759.00,1.11
4758.00,1.11
4757.00,1.12
4756.00,1.12
4755.00,1.12
4754.00,1.13
4753.00,1.13
4752.00,1.13
4751.00,1.13
4750.00,1.14
4749.00,1.14
4748.00,1.14
4747.00,1.14
4746.00,1.15
4745.00,1.15
4744.00,1.15
4743.00,1.15
4742.00,1.15
4741.00,1.16
4740.00,1.16
4739.00,1.16
4738.00,1.16
4737.00,1.17
4736.00,1.17
4735.00,1.17
4734.00,1.17
4733.00,1.18
4732.00,1.18
4731.00,1.18
4730.00,1.18
4729.00,1.19
4728.00,1.19
4727.00,1.19
4726.00,1.19
4725.00,1.20
4724.00,1.20
4723.00,1.20
4722.00,1.20
4721.00,1.21
4720.00,1.21
4719.00,1.21
4718.00,1.22
4717.00,1.22
4716.00,1.22
4715.00,1.22
4714.00,1.23
4713.00,1.23
4712.00,1.23
4711.00,1.23
4710.00,1.24
4709.00,1.24
4708.00,1.24
4707.00,1.25
4706.00,1.25
4705.00,1.25
4704.00,1.25
4703.00,1.26
4702.00,1.26
4701.00,1.26
4700.00,1.26
4699.00,1.27
4698.00,1.27
4697.00,1.27
4696.00,1.27
4695.00,1.28
4694.00,1.28
4693.00,1.28
4692.00,1.28
4691.00,1.28
4690.00,1.29
4689.00,1.29
4688.00,1.29
4687.00,1.29
4686.00,1.30
4685.00,1.30
4684.00,1.30
4683.00,1.30
4682.00,1.31
4681.00,1.31
4680.00,1.31
4679.00,1.31
4678.00,1.32
4677.00,1.32
4676.00,1.32
4675.00,1.33
4674.00,1.33
4673.00,1.33
4672.00,1.34
4671.00,1.34
4670.00,1.34
4669.00,1.35
4668.00,1.35
4667.00,1.35
4666.00,1.35
4665.00,1.36
4664.00,1.36
4663.00,1.36
4662.00,1.36
4661.00,1.36
4660.00,1.37
4659.00,1.37
4658.00,1.37
4657.00,1.37
4656.00,1.37
4655.00,1.38
4654.00,1.38
4653.00,1.38
4652.00,1.38
4651.00,1.38
4650.00,1.39
4649.00,1.39
4648.00,1.39
4647.00,1.39
4646.00,1.40
4645.00,1.40
4644.00,1.40
4643.00,1.40
4642.00,1.40
4641.00,1.40
4640.00,1.41
4639.00,1.41
4638.00,1.41
4637.00,1.41
4636.00,1.41
4635.00,1.41
4634.00,1.41
4633.00,1.41
4632.00,1.42
4631.00,1.42
4630.00,1.42
4629.00,1.42
4628.00,1.42
4627.00,1.42
4626.00,1.43
4625.00,1.43
4624.00,1.43
4623.00,1.43
4622.00,1.43
4621.00,1.43
4620.00,1.43
4619.00,1.44
4618.00,1.44
4617.00,1.44
4616.00,1.44
4615.00,1.44
4614.00,1.44
4613.00,1.44
4612.00,1.44
4611.00,1.45
4610.00,1.45
4609.00,1.45
4608.00,1.45
4607.00,1.45
4606.00,1.45
4605.00,1.45
4604.00,1.45
4603.00,1.46
4602.00,1.46
4601.00,1.46
4600.00,1.46
4599.00,1.46
4598.00,1.46
4597.00,1.46
4596.00,1.47
4595.00,1.47
4594.00,1.47
4593.00,1.47
4592.00,1.47
4591.00,1.48
4590.00,1.48
4589.00,1.48
4588.00,1.48
4587.00,1.48
4586.00,1.48
4585.00,1.49
4584.00,1.49
4583.00,1.49
4582.00,1.49
4581.00,1.49
4580.00,1.49
4579.00,1.49
4578.00,1.49
4577.00,1.49
4576.00,1.50
4575.00,1.50
4574.00,1.50
4573.00,1.50
4572.00,1.50
4571.00,1.50
4570.00,1.50
4569.00,1.51
4568.00,1.51
4567.00,1.51
4566.00,1.51
4565.00,1.51
4564.00,1.52
4563.00,1.52
4562.00,1.52
4561.00,1.52
4560.00,1.52
4559.00,1.53
4558.00,1.53
4557.00,1.53
4556.00,1.53
4555.00,1.53
4554.00,1.53
4553.00,1.54
4552.00,1.54
4551.00,1.54
4550.00,1.54
4549.00,1.54
4548.00,1.54
4547.00,1.54
4546.00,1.54
4545.00,1.54
4544.00,1.54
4543.00,1.54
4542.00,1.54
4541.00,1.54
4540.00,1.55
4539.00,1.55
4538.00,1.55
4537.00,1.55
4536.00,1.55
4535.00,1.55
4534.00,1.55
4533.00,1.55
4532.00,1.55
4531.00,1.55
4530.00,1.55
4529.00,1.55
4528.00,1.55
4527.00,1.55
4526.00,1.55
4525.00,1.56
4524.00,1.56
4523.00,1.56
4522.00,1.56
4521.00,1.56
4520.00,1.56
4519.00,1.56
4518.00,1.56
4517.00,1.56
4516.00,1.56
4515.00,1.56
4514.00,1.56
4513.00,1.56
4512.00,1.56
4511.00,1.56
4510.00,1.56
4509.00,1.56
4508.00,1.56
4507.00,1.56
4506.00,1.56
4505.00,1.56
4504.00,1.55
4503.00,1.55
4502.00,1.55
4501.00,1.55
4500.00,1.55
4499.00,1.55
4498.00,1.55
4497.00,1.54
4496.00,1.54
4495.00,1.54
4494.00,1.54
4493.00,1.54
4492.00,1.54
4491.00,1.53
4490.00,1.53
4489.00,1.53
4488.00,1.53
4487.00,1.53
4486.00,1.52
4485.00,1.52
4484.00,1.52
4483.00,1.52
4482.00,1.51
4481.00,1.51
4480.00,1.51
4479.00,1.51
4478.00,1.50
4477.00,1.50
4476.00,1.50
4475.00,1.49
4474.00,1.49
4473.00,1.49
4472.00,1.48
4471.00,1.48
4470.00,1.47
4469.00,1.47
4468.00,1.47
4467.00,1.46
4466.00,1.46
4465.00,1.45
4464.00,1.45
4463.00,1.45
4462.00,1.44
4461.00,1.44
4460.00,1.43
4459.00,1.43
4458.00,1.42
4457.00,1.42
4456.00,1.41
4455.00,1.40
4454.00,1.40
4453.00,1.39
4452.00,1.39
4451.00,1.38
4450.00,1.37
4449.00,1.37
4448.00,1.36
4447.00,1.35
4446.00,1.35
4445.00,1.34
4444.00,1.33
4443.00,1.33
4442.00,1.32
4441.00,1.31
4440.00,1.31
4439.00,1.30
4438.00,1.29
4437.00,1.29
4436.00,1.28
4435.00,1.28
4434.00,1.27
4433.00,1.27
4432.00,1.26
4431.00,1.26
4430.00,1.25
4429.00,1.25
4428.00,1.25
4427.00,1.24
4426.00,1.24
4425.00,1.24
4424.00,1.24
4423.00,1.23
4422.00,1.23
4421.00,1.23
4420.00,1.23
4419.00,1.23
4418.00,1.23
4417.00,1.23
4416.00,1.23
4415.00,1.23
4414.00,1.23
4413.00,1.23
4412.00,1.23
4411.00,1.23
4410.00,1.23
4409.00,1.23
4408.00,1.23
4407.00,1.23
4406.00,1.23
4405.00,1.23
4404.00,1.23
4403.00,1.24
4402.00,1.24
4401.00,1.24
4400.00,1.24
4399.00,1.24
4398.00,1.24
4397.00,1.24
4396.00,1.25
4395.00,1.25
4394.00,1.25
4393.00,1.25
4392.00,1.25
4391.00,1.25
4390.00,1.26
4389.00,1.26
4388.00,1.26
4387.00,1.26
4386.00,1.26
4385.00,1.26
4384.00,1.26
4383.00,1.26
4382.00,1.27
4381.00,1.27
4380.00,1.27
4379.00,1.27
4378.00,1.27
4377.00,1.27
4376.00,1.27
4375.00,1.27
4374.00,1.27
4373.00,1.27
4372.00,1.28
4371.00,1.28
4370.00,1.28
4369.00,1.28
4368.00,1.28
4367.00,1.28
4366.00,1.28
4365.00,1.28
4364.00,1.28
4363.00,1.28
4362.00,1.28
4361.00,1.28
4360.00,1.28
4359.00,1.28
4358.00,1.28
4357.00,1.28
4356.00,1.28
4355.00,1.28
4354.00,1.28
4353.00,1.28
4352.00,1.29
4351.00,1.29
4350.00,1.29
4349.00,1.29
4348.00,1.29
4347.00,1.29
4346.00,1.29
4345.00,1.29
4344.00,1.29
4343.00,1.29
4342.00,1.30
4341.00,1.30
4340.00,1.30
4339.00,1.30
4338.00,1.30
4337.00,1.30
4336.00,1.30
4335.00,1.30
4334.00,1.31
4333.00,1.31
4332.00,1.31
4331.00,1.31
4330.00,1.31
4329.00,1.31
4328.00,1.31
4327.00,1.31
4326.00,1.31
4325.00,1.31
4324.00,1.32
4323.00,1.32
4322.00,1.32
4321.00,1.32
4320.00,1.32
4319.00,1.33
4318.00,1.33
4317.00,1.33
4316.00,1.33
4315.00,1.34
4314.00,1.34
4313.00,1.34
4312.00,1.35
4311.00,1.35
4310.00,1.35
4309.00,1.35
4308.00,1.36
4307.00,1.36
4306.00,1.36
4305.00,1.37
4304.00,1.37
4303.00,1.37
4302.00,1.37
4301.00,1.38
4300.00,1.38
4299.00,1.38
4298.00,1.38
4297.00,1.39
4296.00,1.39
4295.00,1.39
4294.00,1.39
4293.00,1.39
4292.00,1.40
4291.00,1.40
4290.00,1.40
4289.00,1.40
4288.00,1.40
4287.00,1.40
4286.00,1.41
4285.00,1.41
4284.00,1.41
4283.00,1.41
4282.00,1.41
4281.00,1.41
4280.00,1.41
4279.00,1.41
4278.00,1.41
4277.00,1.41
4276.00,1.41
4275.00,1.41
4274.00,1.41
4273.00,1.41
4272.00,1.41
4271.00,1.41
4270.00,1.41
4269.00,1.41
4268.00,1.40
4267.00,1.40
4266.00,1.40
4265.00,1.40
4264.00,1.40
4263.00,1.40
4262.00,1.40
4261.00,1.40
4260.00,1.40
4259.00,1.40
4258.00,1.40
4257.00,1.40
4256.00,1.40
4255.00,1.40
4254.00,1.40
4253.00,1.40
4252.00,1.40
4251.00,1.40
4250.00,1.41
4249.00,1.41
4248.00,1.41
4247.00,1.41
4246.00,1.41
4245.00,1.41
4244.00,1.42
4243.00,1.42
4242.00,1.42
4241.00,1.42
4240.00,1.42
4239.00,1.42
4238.00,1.43
4237.00,1.43
4236.00,1.43
4235.00,1.43
4234.00,1.43
4233.00,1.44
4232.00,1.44
4231.00,1.44
4230.00,1.44
4229.00,1.45
4228.00,1.45
4227.00,1.45
4226.00,1.45
4225.00,1.46
4224.00,1.46
4223.00,1.46
4222.00,1.46
4221.00,1.47
4220.00,1.47
4219.00,1.47
4218.00,1.47
4217.00,1.47
4216.00,1.48
4215.00,1.48
4214.00,1.48
4213.00,1.48
4212.00,1.48
4211.00,1.48
4210.00,1.48
4209.00,1.48
4208.00,1.48
4207.00,1.48
4206.00,1.48
4205.00,1.48
4204.00,1.48
4203.00,1.49
4202.00,1.49
4201.00,1.49
4200.00,1.49
4199.00,1.49
4198.00,1.49
4197.00,1.49
4196.00,1.50
4195.00,1.50
4194.00,1.50
4193.00,1.50
4192.00,1.50
4191.00,1.51
4190.00,1.51
4189.00,1.51
4188.00,1.51
4187.00,1.51
4186.00,1.51
4185.00,1.51
4184.00,1.51
4183.00,1.51
4182.00,1.51
4181.00,1.51
4180.00,1.51
4179.00,1.52
4178.00,1.52
4177.00,1.52
4176.00,1.52
4175.00,1.52
4174.00,1.52
4173.00,1.52
4172.00,1.52
4171.00,1.52
4170.00,1.52
4169.00,1.52
4168.00,1.52
4167.00,1.52
4166.00,1.52
4165.00,1.52
4164.00,1.52
4163.00,1.52
4162.00,1.52
4161.00,1.52
4160.00,1.52
4159.00,1.52
4158.00,1.52
4157.00,1.52
4156.00,1.52
4155.00,1.52
4154.00,1.52
4153.00,1.52
4152.00,1.52
4151.00,1.52
4150.00,1.52
4149.00,1.52
4148.00,1.52
4147.00,1.52
4146.00,1.52
4145.00,1.52
4144.00,1.53
4143.00,1.53
4142.00,1.53
4141.00,1.53
4140.00,1.53
4139.00,1.53
4138.00,1.53
4137.00,1.53
4136.00,1.54
4135.00,1.54
4134.00,1.54
4133.00,1.54
4132.00,1.54
4131.00,1.54
4130.00,1.54
4129.00,1.54
4128.00,1.54
4127.00,1.55
4126.00,1.55
4125.00,1.55
4124.00,1.55
4123.00,1.55
4122.00,1.55
4121.00,1.55
4120.00,1.55
4119.00,1.55
4118.00,1.56
4117.00,1.56
4116.00,1.56
4115.00,1.56
4114.00,1.56
4113.00,1.56
4112.00,1.57
4111.00,1.57
4110.00,1.57
4109.00,1.57
4108.00,1.57
4107.00,1.57
4106.00,1.57
4105.00,1.58
4104.00,1.58
4103.00,1.58
4102.00,1.58
4101.00,1.57
4100.00,1.57
4099.00,1.57
4098.00,1.57
4097.00,1.57
4096.00,1.57
4095.00,1.57
4094.00,1.57
4093.00,1.56
4092.00,1.56
4091.00,1.56
4090.00,1.56
4089.00,1.56
4088.00,1.56
4087.00,1.56
4086.00,1.56
4085.00,1.56
4084.00,1.56
4083.00,1.56
4082.00,1.56
4081.00,1.56
4080.00,1.56
4079.00,1.56
4078.00,1.57
4077.00,1.57
4076.00,1.57
4075.00,1.57
4074.00,1.57
4073.00,1.57
4072.00,1.58
4071.00,1.58
4070.00,1.58
4069.00,1.58
4068.00,1.58
4067.00,1.58
4066.00,1.58
4065.00,1.58
4064.00,1.58
4063.00,1.58
4062.00,1.58
4061.00,1.58
4060.00,1.58
4059.00,1.59
4058.00,1.59
4057.00,1.59
4056.00,1.59
4055.00,1.59
4054.00,1.59
4053.00,1.60
4052.00,1.60
4051.00,1.60
4050.00,1.60
4049.00,1.61
4048.00,1.61
4047.00,1.61
4046.00,1.62
4045.00,1.62
4044.00,1.62
4043.00,1.62
4042.00,1.62
4041.00,1.63
4040.00,1.63
4039.00,1.63
4038.00,1.63
4037.00,1.63
4036.00,1.63
4035.00,1.63
4034.00,1.63
4033.00,1.63
4032.00,1.63
4031.00,1.62
4030.00,1.62
4029.00,1.62
4028.00,1.62
4027.00,1.62
4026.00,1.62
4025.00,1.62
4024.00,1.62
4023.00,1.62
4022.00,1.62
4021.00,1.62
4020.00,1.62
4019.00,1.62
4018.00,1.62
4017.00,1.62
4016.00,1.63
4015.00,1.63
4014.00,1.63
4013.00,1.63
4012.00,1.64
4011.00,1.64
4010.00,1.64
4009.00,1.65
4008.00,1.65
4007.00,1.65
4006.00,1.65
4005.00,1.65
4004.00,1.66
4003.00,1.66
4002.00,1.66
4001.00,1.66
4000.00,1.66
