创建为新数据集,样品 154 用户 Administrator 日期 星期三, 十一月 08 2017
cm-1,%T
10000.00,1.16
9999.00,1.16
9998.00,1.16
9997.00,1.15
9996.00,1.15
9995.00,1.15
9994.00,1.15
9993.00,1.15
9992.00,1.15
9991.00,1.15
9990.00,1.15
9989.00,1.15
9988.00,1.15
9987.00,1.15
9986.00,1.15
9985.00,1.15
9984.00,1.15
9983.00,1.15
9982.00,1.15
9981.00,1.15
9980.00,1.16
9979.00,1.16
9978.00,1.16
9977.00,1.16
9976.00,1.16
9975.00,1.16
9974.00,1.16
9973.00,1.16
9972.00,1.16
9971.00,1.16
9970.00,1.16
9969.00,1.16
9968.00,1.16
9967.00,1.16
9966.00,1.16
9965.00,1.16
9964.00,1.15
9963.00,1.15
9962.00,1.15
9961.00,1.15
9960.00,1.15
9959.00,1.15
9958.00,1.15
9957.00,1.15
9956.00,1.15
9955.00,1.15
9954.00,1.15
9953.00,1.16
9952.00,1.16
9951.00,1.16
9950.00,1.15
9949.00,1.15
9948.00,1.15
9947.00,1.15
9946.00,1.15
9945.00,1.15
9944.00,1.15
9943.00,1.14
9942.00,1.14
9941.00,1.14
9940.00,1.14
9939.00,1.13
9938.00,1.13
9937.00,1.12
9936.00,1.12
9935.00,1.12
9934.00,1.11
9933.00,1.11
9932.00,1.11
9931.00,1.11
9930.00,1.10
9929.00,1.10
9928.00,1.10
9927.00,1.10
9926.00,1.10
9925.00,1.10
9924.00,1.11
9923.00,1.11
9922.00,1.11
9921.00,1.11
9920.00,1.12
9919.00,1.12
9918.00,1.12
9917.00,1.13
9916.00,1.13
9915.00,1.14
9914.00,1.14
9913.00,1.14
9912.00,1.14
9911.00,1.15
9910.00,1.15
9909.00,1.15
9908.00,1.15
9907.00,1.15
9906.00,1.15
9905.00,1.15
9904.00,1.15
9903.00,1.15
9902.00,1.15
9901.00,1.15
9900.00,1.15
9899.00,1.15
9898.00,1.15
9897.00,1.15
9896.00,1.15
9895.00,1.15
9894.00,1.15
9893.00,1.15
9892.00,1.15
9891.00,1.15
9890.00,1.15
9889.00,1.15
9888.00,1.15
9887.00,1.15
9886.00,1.16
9885.00,1.16
9884.00,1.16
9883.00,1.16
9882.00,1.16
9881.00,1.16
9880.00,1.16
9879.00,1.16
9878.00,1.16
9877.00,1.16
9876.00,1.16
9875.00,1.16
9874.00,1.16
9873.00,1.16
9872.00,1.15
9871.00,1.15
9870.00,1.15
9869.00,1.15
9868.00,1.15
9867.00,1.15
9866.00,1.14
9865.00,1.14
9864.00,1.14
9863.00,1.14
9862.00,1.14
9861.00,1.13
9860.00,1.13
9859.00,1.13
9858.00,1.13
9857.00,1.13
9856.00,1.13
9855.00,1.13
9854.00,1.12
9853.00,1.12
9852.00,1.12
9851.00,1.12
9850.00,1.12
9849.00,1.12
9848.00,1.12
9847.00,1.13
9846.00,1.13
9845.00,1.13
9844.00,1.13
9843.00,1.13
9842.00,1.13
9841.00,1.13
9840.00,1.13
9839.00,1.13
9838.00,1.13
9837.00,1.13
9836.00,1.13
9835.00,1.13
9834.00,1.13
9833.00,1.13
9832.00,1.13
9831.00,1.13
9830.00,1.14
9829.00,1.14
9828.00,1.14
9827.00,1.14
9826.00,1.14
9825.00,1.14
9824.00,1.14
9823.00,1.14
9822.00,1.14
9821.00,1.14
9820.00,1.14
9819.00,1.14
9818.00,1.15
9817.00,1.15
9816.00,1.15
9815.00,1.15
9814.00,1.15
9813.00,1.15
9812.00,1.15
9811.00,1.15
9810.00,1.15
9809.00,1.15
9808.00,1.15
9807.00,1.15
9806.00,1.15
9805.00,1.15
9804.00,1.15
9803.00,1.15
9802.00,1.15
9801.00,1.15
9800.00,1.15
9799.00,1.15
9798.00,1.15
9797.00,1.14
9796.00,1.14
9795.00,1.14
9794.00,1.14
9793.00,1.14
9792.00,1.14
9791.00,1.13
9790.00,1.13
9789.00,1.13
9788.00,1.13
9787.00,1.13
9786.00,1.13
9785.00,1.13
9784.00,1.13
9783.00,1.13
9782.00,1.13
9781.00,1.13
9780.00,1.13
9779.00,1.14
9778.00,1.14
9777.00,1.14
9776.00,1.14
9775.00,1.15
9774.00,1.15
9773.00,1.15
9772.00,1.15
9771.00,1.15
9770.00,1.16
9769.00,1.16
9768.00,1.16
9767.00,1.16
9766.00,1.16
9765.00,1.16
9764.00,1.16
9763.00,1.16
9762.00,1.16
9761.00,1.16
9760.00,1.15
9759.00,1.15
9758.00,1.15
9757.00,1.15
9756.00,1.15
9755.00,1.15
9754.00,1.15
9753.00,1.15
9752.00,1.15
9751.00,1.15
9750.00,1.14
9749.00,1.14
9748.00,1.14
9747.00,1.14
9746.00,1.14
9745.00,1.14
9744.00,1.14
9743.00,1.15
9742.00,1.15
9741.00,1.15
9740.00,1.15
9739.00,1.15
9738.00,1.15
9737.00,1.15
9736.00,1.15
9735.00,1.15
9734.00,1.16
9733.00,1.16
9732.00,1.16
9731.00,1.16
9730.00,1.16
9729.00,1.16
9728.00,1.16
9727.00,1.16
9726.00,1.16
9725.00,1.15
9724.00,1.15
9723.00,1.15
9722.00,1.15
9721.00,1.15
9720.00,1.15
9719.00,1.14
9718.00,1.14
9717.00,1.14
9716.00,1.14
9715.00,1.14
9714.00,1.14
9713.00,1.14
9712.00,1.14
9711.00,1.14
9710.00,1.14
9709.00,1.14
9708.00,1.14
9707.00,1.14
9706.00,1.14
9705.00,1.14
9704.00,1.14
9703.00,1.14
9702.00,1.14
9701.00,1.14
9700.00,1.14
9699.00,1.14
9698.00,1.14
9697.00,1.14
9696.00,1.14
9695.00,1.14
9694.00,1.14
9693.00,1.14
9692.00,1.14
9691.00,1.14
9690.00,1.14
9689.00,1.14
9688.00,1.14
9687.00,1.14
9686.00,1.14
9685.00,1.14
9684.00,1.14
9683.00,1.14
9682.00,1.14
9681.00,1.14
9680.00,1.14
9679.00,1.14
9678.00,1.14
9677.00,1.14
9676.00,1.14
9675.00,1.14
9674.00,1.14
9673.00,1.14
9672.00,1.14
9671.00,1.15
9670.00,1.15
9669.00,1.15
9668.00,1.15
9667.00,1.15
9666.00,1.15
9665.00,1.15
9664.00,1.15
9663.00,1.15
9662.00,1.15
9661.00,1.15
9660.00,1.15
9659.00,1.15
9658.00,1.15
9657.00,1.15
9656.00,1.15
9655.00,1.14
9654.00,1.14
9653.00,1.14
9652.00,1.14
9651.00,1.14
9650.00,1.14
9649.00,1.14
9648.00,1.14
9647.00,1.14
9646.00,1.14
9645.00,1.14
9644.00,1.14
9643.00,1.14
9642.00,1.14
9641.00,1.14
9640.00,1.14
9639.00,1.14
9638.00,1.15
9637.00,1.15
9636.00,1.15
9635.00,1.15
9634.00,1.15
9633.00,1.16
9632.00,1.16
9631.00,1.16
9630.00,1.16
9629.00,1.16
9628.00,1.16
9627.00,1.16
9626.00,1.16
9625.00,1.16
9624.00,1.15
9623.00,1.15
9622.00,1.15
9621.00,1.15
9620.00,1.15
9619.00,1.15
9618.00,1.14
9617.00,1.14
9616.00,1.14
9615.00,1.14
9614.00,1.14
9613.00,1.14
9612.00,1.14
9611.00,1.13
9610.00,1.13
9609.00,1.13
9608.00,1.13
9607.00,1.13
9606.00,1.13
9605.00,1.13
9604.00,1.13
9603.00,1.13
9602.00,1.12
9601.00,1.12
9600.00,1.12
9599.00,1.12
9598.00,1.12
9597.00,1.12
9596.00,1.11
9595.00,1.11
9594.00,1.11
9593.00,1.11
9592.00,1.11
9591.00,1.11
9590.00,1.11
9589.00,1.11
9588.00,1.11
9587.00,1.11
9586.00,1.11
9585.00,1.11
9584.00,1.11
9583.00,1.11
9582.00,1.11
9581.00,1.12
9580.00,1.12
9579.00,1.12
9578.00,1.12
9577.00,1.12
9576.00,1.12
9575.00,1.13
9574.00,1.13
9573.00,1.13
9572.00,1.13
9571.00,1.13
9570.00,1.13
9569.00,1.13
9568.00,1.13
9567.00,1.13
9566.00,1.13
9565.00,1.13
9564.00,1.13
9563.00,1.13
9562.00,1.13
9561.00,1.13
9560.00,1.13
9559.00,1.13
9558.00,1.13
9557.00,1.13
9556.00,1.13
9555.00,1.13
9554.00,1.13
9553.00,1.13
9552.00,1.13
9551.00,1.13
9550.00,1.13
9549.00,1.13
9548.00,1.13
9547.00,1.13
9546.00,1.13
9545.00,1.13
9544.00,1.13
9543.00,1.13
9542.00,1.13
9541.00,1.13
9540.00,1.13
9539.00,1.13
9538.00,1.13
9537.00,1.13
9536.00,1.13
9535.00,1.13
9534.00,1.13
9533.00,1.13
9532.00,1.12
9531.00,1.12
9530.00,1.12
9529.00,1.12
9528.00,1.12
9527.00,1.12
9526.00,1.12
9525.00,1.12
9524.00,1.12
9523.00,1.12
9522.00,1.12
9521.00,1.12
9520.00,1.12
9519.00,1.12
9518.00,1.12
9517.00,1.12
9516.00,1.12
9515.00,1.12
9514.00,1.12
9513.00,1.12
9512.00,1.12
9511.00,1.12
9510.00,1.12
9509.00,1.12
9508.00,1.13
9507.00,1.13
9506.00,1.13
9505.00,1.13
9504.00,1.13
9503.00,1.13
9502.00,1.13
9501.00,1.14
9500.00,1.14
9499.00,1.14
9498.00,1.14
9497.00,1.14
9496.00,1.15
9495.00,1.15
9494.00,1.15
9493.00,1.15
9492.00,1.15
9491.00,1.15
9490.00,1.16
9489.00,1.16
9488.00,1.16
9487.00,1.16
9486.00,1.16
9485.00,1.16
9484.00,1.16
9483.00,1.16
9482.00,1.16
9481.00,1.16
9480.00,1.16
9479.00,1.16
9478.00,1.15
9477.00,1.15
9476.00,1.15
9475.00,1.15
9474.00,1.15
9473.00,1.14
9472.00,1.14
9471.00,1.14
9470.00,1.14
9469.00,1.14
9468.00,1.13
9467.00,1.13
9466.00,1.13
9465.00,1.13
9464.00,1.13
9463.00,1.13
9462.00,1.13
9461.00,1.13
9460.00,1.13
9459.00,1.13
9458.00,1.14
9457.00,1.14
9456.00,1.14
9455.00,1.14
9454.00,1.14
9453.00,1.15
9452.00,1.15
9451.00,1.15
9450.00,1.15
9449.00,1.15
9448.00,1.15
9447.00,1.15
9446.00,1.15
9445.00,1.15
9444.00,1.15
9443.00,1.14
9442.00,1.14
9441.00,1.14
9440.00,1.14
9439.00,1.14
9438.00,1.13
9437.00,1.13
9436.00,1.13
9435.00,1.13
9434.00,1.13
9433.00,1.13
9432.00,1.13
9431.00,1.13
9430.00,1.13
9429.00,1.13
9428.00,1.13
9427.00,1.14
9426.00,1.14
9425.00,1.14
9424.00,1.14
9423.00,1.14
9422.00,1.14
9421.00,1.14
9420.00,1.14
9419.00,1.14
9418.00,1.14
9417.00,1.14
9416.00,1.14
9415.00,1.14
9414.00,1.14
9413.00,1.14
9412.00,1.14
9411.00,1.14
9410.00,1.14
9409.00,1.14
9408.00,1.14
9407.00,1.14
9406.00,1.14
9405.00,1.14
9404.00,1.14
9403.00,1.14
9402.00,1.14
9401.00,1.14
9400.00,1.14
9399.00,1.14
9398.00,1.14
9397.00,1.14
9396.00,1.14
9395.00,1.14
9394.00,1.14
9393.00,1.14
9392.00,1.14
9391.00,1.14
9390.00,1.14
9389.00,1.13
9388.00,1.13
9387.00,1.13
9386.00,1.13
9385.00,1.13
9384.00,1.13
9383.00,1.13
9382.00,1.13
9381.00,1.13
9380.00,1.13
9379.00,1.13
9378.00,1.13
9377.00,1.13
9376.00,1.12
9375.00,1.12
9374.00,1.12
9373.00,1.12
9372.00,1.12
9371.00,1.12
9370.00,1.12
9369.00,1.12
9368.00,1.12
9367.00,1.12
9366.00,1.12
9365.00,1.13
9364.00,1.13
9363.00,1.13
9362.00,1.13
9361.00,1.13
9360.00,1.13
9359.00,1.13
9358.00,1.13
9357.00,1.14
9356.00,1.14
9355.00,1.14
9354.00,1.14
9353.00,1.14
9352.00,1.14
9351.00,1.14
9350.00,1.14
9349.00,1.14
9348.00,1.14
9347.00,1.14
9346.00,1.14
9345.00,1.14
9344.00,1.14
9343.00,1.14
9342.00,1.14
9341.00,1.14
9340.00,1.14
9339.00,1.14
9338.00,1.14
9337.00,1.14
9336.00,1.14
9335.00,1.14
9334.00,1.14
9333.00,1.14
9332.00,1.14
9331.00,1.14
9330.00,1.14
9329.00,1.14
9328.00,1.14
9327.00,1.14
9326.00,1.13
9325.00,1.13
9324.00,1.13
9323.00,1.13
9322.00,1.13
9321.00,1.13
9320.00,1.13
9319.00,1.13
9318.00,1.13
9317.00,1.12
9316.00,1.12
9315.00,1.12
9314.00,1.12
9313.00,1.12
9312.00,1.12
9311.00,1.11
9310.00,1.11
9309.00,1.11
9308.00,1.11
9307.00,1.11
9306.00,1.11
9305.00,1.11
9304.00,1.10
9303.00,1.10
9302.00,1.10
9301.00,1.10
9300.00,1.11
9299.00,1.11
9298.00,1.11
9297.00,1.11
9296.00,1.11
9295.00,1.11
9294.00,1.11
9293.00,1.12
9292.00,1.12
9291.00,1.12
9290.00,1.12
9289.00,1.12
9288.00,1.13
9287.00,1.13
9286.00,1.13
9285.00,1.13
9284.00,1.13
9283.00,1.13
9282.00,1.13
9281.00,1.13
9280.00,1.13
9279.00,1.13
9278.00,1.13
9277.00,1.13
9276.00,1.13
9275.00,1.14
9274.00,1.14
9273.00,1.14
9272.00,1.14
9271.00,1.14
9270.00,1.14
9269.00,1.14
9268.00,1.14
9267.00,1.14
9266.00,1.14
9265.00,1.14
9264.00,1.14
9263.00,1.14
9262.00,1.14
9261.00,1.14
9260.00,1.14
9259.00,1.14
9258.00,1.14
9257.00,1.14
9256.00,1.14
9255.00,1.14
9254.00,1.15
9253.00,1.15
9252.00,1.15
9251.00,1.15
9250.00,1.15
9249.00,1.15
9248.00,1.15
9247.00,1.15
9246.00,1.15
9245.00,1.15
9244.00,1.15
9243.00,1.15
9242.00,1.15
9241.00,1.15
9240.00,1.15
9239.00,1.15
9238.00,1.15
9237.00,1.15
9236.00,1.15
9235.00,1.15
9234.00,1.15
9233.00,1.14
9232.00,1.14
9231.00,1.14
9230.00,1.14
9229.00,1.14
9228.00,1.14
9227.00,1.14
9226.00,1.14
9225.00,1.14
9224.00,1.14
9223.00,1.14
9222.00,1.14
9221.00,1.14
9220.00,1.14
9219.00,1.14
9218.00,1.14
9217.00,1.14
9216.00,1.14
9215.00,1.14
9214.00,1.14
9213.00,1.14
9212.00,1.14
9211.00,1.14
9210.00,1.14
9209.00,1.14
9208.00,1.14
9207.00,1.14
9206.00,1.14
9205.00,1.14
9204.00,1.14
9203.00,1.14
9202.00,1.14
9201.00,1.14
9200.00,1.14
9199.00,1.14
9198.00,1.14
9197.00,1.14
9196.00,1.14
9195.00,1.14
9194.00,1.14
9193.00,1.14
9192.00,1.14
9191.00,1.15
9190.00,1.15
9189.00,1.15
9188.00,1.15
9187.00,1.15
9186.00,1.15
9185.00,1.15
9184.00,1.15
9183.00,1.15
9182.00,1.15
9181.00,1.15
9180.00,1.15
9179.00,1.15
9178.00,1.15
9177.00,1.15
9176.00,1.15
9175.00,1.15
9174.00,1.15
9173.00,1.15
9172.00,1.15
9171.00,1.15
9170.00,1.15
9169.00,1.15
9168.00,1.15
9167.00,1.15
9166.00,1.15
9165.00,1.15
9164.00,1.15
9163.00,1.15
9162.00,1.15
9161.00,1.14
9160.00,1.14
9159.00,1.14
9158.00,1.14
9157.00,1.14
9156.00,1.14
9155.00,1.14
9154.00,1.14
9153.00,1.14
9152.00,1.14
9151.00,1.14
9150.00,1.14
9149.00,1.14
9148.00,1.14
9147.00,1.14
9146.00,1.14
9145.00,1.14
9144.00,1.14
9143.00,1.14
9142.00,1.14
9141.00,1.14
9140.00,1.14
9139.00,1.14
9138.00,1.14
9137.00,1.14
9136.00,1.13
9135.00,1.13
9134.00,1.13
9133.00,1.13
9132.00,1.13
9131.00,1.13
9130.00,1.13
9129.00,1.13
9128.00,1.13
9127.00,1.13
9126.00,1.13
9125.00,1.13
9124.00,1.13
9123.00,1.13
9122.00,1.13
9121.00,1.13
9120.00,1.13
9119.00,1.13
9118.00,1.13
9117.00,1.12
9116.00,1.12
9115.00,1.12
9114.00,1.12
9113.00,1.12
9112.00,1.12
9111.00,1.12
9110.00,1.12
9109.00,1.12
9108.00,1.12
9107.00,1.12
9106.00,1.12
9105.00,1.12
9104.00,1.12
9103.00,1.12
9102.00,1.12
9101.00,1.12
9100.00,1.13
9099.00,1.13
9098.00,1.13
9097.00,1.13
9096.00,1.14
9095.00,1.14
9094.00,1.14
9093.00,1.14
9092.00,1.14
9091.00,1.15
9090.00,1.15
9089.00,1.15
9088.00,1.15
9087.00,1.15
9086.00,1.15
9085.00,1.16
9084.00,1.16
9083.00,1.16
9082.00,1.16
9081.00,1.16
9080.00,1.16
9079.00,1.16
9078.00,1.16
9077.00,1.16
9076.00,1.16
9075.00,1.15
9074.00,1.15
9073.00,1.15
9072.00,1.15
9071.00,1.15
9070.00,1.15
9069.00,1.14
9068.00,1.14
9067.00,1.14
9066.00,1.14
9065.00,1.14
9064.00,1.14
9063.00,1.14
9062.00,1.14
9061.00,1.14
9060.00,1.14
9059.00,1.14
9058.00,1.13
9057.00,1.13
9056.00,1.13
9055.00,1.13
9054.00,1.13
9053.00,1.13
9052.00,1.13
9051.00,1.13
9050.00,1.13
9049.00,1.13
9048.00,1.13
9047.00,1.13
9046.00,1.13
9045.00,1.13
9044.00,1.14
9043.00,1.14
9042.00,1.14
9041.00,1.14
9040.00,1.14
9039.00,1.14
9038.00,1.14
9037.00,1.14
9036.00,1.14
9035.00,1.14
9034.00,1.14
9033.00,1.14
9032.00,1.14
9031.00,1.14
9030.00,1.14
9029.00,1.13
9028.00,1.13
9027.00,1.13
9026.00,1.13
9025.00,1.13
9024.00,1.13
9023.00,1.13
9022.00,1.13
9021.00,1.13
9020.00,1.13
9019.00,1.13
9018.00,1.13
9017.00,1.13
9016.00,1.13
9015.00,1.13
9014.00,1.13
9013.00,1.13
9012.00,1.13
9011.00,1.13
9010.00,1.13
9009.00,1.13
9008.00,1.13
9007.00,1.13
9006.00,1.13
9005.00,1.13
9004.00,1.13
9003.00,1.13
9002.00,1.14
9001.00,1.14
9000.00,1.14
8999.00,1.14
8998.00,1.14
8997.00,1.14
8996.00,1.14
8995.00,1.14
8994.00,1.14
8993.00,1.14
8992.00,1.14
8991.00,1.14
8990.00,1.14
8989.00,1.14
8988.00,1.14
8987.00,1.14
8986.00,1.14
8985.00,1.14
8984.00,1.14
8983.00,1.14
8982.00,1.14
8981.00,1.14
8980.00,1.14
8979.00,1.14
8978.00,1.14
8977.00,1.14
8976.00,1.14
8975.00,1.15
8974.00,1.15
8973.00,1.15
8972.00,1.15
8971.00,1.15
8970.00,1.15
8969.00,1.15
8968.00,1.15
8967.00,1.15
8966.00,1.15
8965.00,1.15
8964.00,1.15
8963.00,1.15
8962.00,1.16
8961.00,1.16
8960.00,1.16
8959.00,1.15
8958.00,1.15
8957.00,1.15
8956.00,1.15
8955.00,1.15
8954.00,1.15
8953.00,1.15
8952.00,1.15
8951.00,1.15
8950.00,1.15
8949.00,1.15
8948.00,1.15
8947.00,1.15
8946.00,1.15
8945.00,1.15
8944.00,1.15
8943.00,1.14
8942.00,1.14
8941.00,1.14
8940.00,1.14
8939.00,1.14
8938.00,1.14
8937.00,1.14
8936.00,1.14
8935.00,1.14
8934.00,1.14
8933.00,1.14
8932.00,1.14
8931.00,1.14
8930.00,1.14
8929.00,1.14
8928.00,1.14
8927.00,1.13
8926.00,1.13
8925.00,1.13
8924.00,1.13
8923.00,1.13
8922.00,1.13
8921.00,1.13
8920.00,1.13
8919.00,1.13
8918.00,1.13
8917.00,1.13
8916.00,1.13
8915.00,1.13
8914.00,1.13
8913.00,1.13
8912.00,1.13
8911.00,1.13
8910.00,1.13
8909.00,1.13
8908.00,1.13
8907.00,1.12
8906.00,1.12
8905.00,1.12
8904.00,1.12
8903.00,1.12
8902.00,1.12
8901.00,1.12
8900.00,1.12
8899.00,1.12
8898.00,1.12
8897.00,1.13
8896.00,1.13
8895.00,1.13
8894.00,1.13
8893.00,1.13
8892.00,1.14
8891.00,1.14
8890.00,1.14
8889.00,1.14
8888.00,1.15
8887.00,1.15
8886.00,1.15
8885.00,1.15
8884.00,1.15
8883.00,1.16
8882.00,1.16
8881.00,1.16
8880.00,1.16
8879.00,1.16
8878.00,1.16
8877.00,1.16
8876.00,1.16
8875.00,1.16
8874.00,1.16
8873.00,1.15
8872.00,1.15
8871.00,1.15
8870.00,1.15
8869.00,1.15
8868.00,1.15
8867.00,1.14
8866.00,1.14
8865.00,1.14
8864.00,1.14
8863.00,1.14
8862.00,1.14
8861.00,1.13
8860.00,1.13
8859.00,1.13
8858.00,1.13
8857.00,1.13
8856.00,1.13
8855.00,1.13
8854.00,1.13
8853.00,1.13
8852.00,1.13
8851.00,1.13
8850.00,1.13
8849.00,1.13
8848.00,1.13
8847.00,1.13
8846.00,1.13
8845.00,1.13
8844.00,1.14
8843.00,1.14
8842.00,1.14
8841.00,1.14
8840.00,1.14
8839.00,1.14
8838.00,1.14
8837.00,1.15
8836.00,1.15
8835.00,1.15
8834.00,1.15
8833.00,1.15
8832.00,1.15
8831.00,1.15
8830.00,1.15
8829.00,1.15
8828.00,1.15
8827.00,1.15
8826.00,1.15
8825.00,1.15
8824.00,1.14
8823.00,1.14
8822.00,1.14
8821.00,1.14
8820.00,1.14
8819.00,1.13
8818.00,1.13
8817.00,1.13
8816.00,1.13
8815.00,1.13
8814.00,1.13
8813.00,1.12
8812.00,1.12
8811.00,1.12
8810.00,1.12
8809.00,1.12
8808.00,1.12
8807.00,1.12
8806.00,1.12
8805.00,1.12
8804.00,1.12
8803.00,1.12
8802.00,1.12
8801.00,1.12
8800.00,1.12
8799.00,1.12
8798.00,1.12
8797.00,1.12
8796.00,1.12
8795.00,1.12
8794.00,1.12
8793.00,1.11
8792.00,1.11
8791.00,1.11
8790.00,1.11
8789.00,1.11
8788.00,1.11
8787.00,1.11
8786.00,1.11
8785.00,1.11
8784.00,1.11
8783.00,1.11
8782.00,1.11
8781.00,1.11
8780.00,1.11
8779.00,1.11
8778.00,1.11
8777.00,1.11
8776.00,1.12
8775.00,1.12
8774.00,1.12
8773.00,1.12
8772.00,1.12
8771.00,1.12
8770.00,1.12
8769.00,1.12
8768.00,1.13
8767.00,1.13
8766.00,1.13
8765.00,1.13
8764.00,1.13
8763.00,1.12
8762.00,1.12
8761.00,1.12
8760.00,1.12
8759.00,1.12
8758.00,1.12
8757.00,1.12
8756.00,1.12
8755.00,1.12
8754.00,1.12
8753.00,1.11
8752.00,1.11
8751.00,1.11
8750.00,1.11
8749.00,1.11
8748.00,1.11
8747.00,1.10
8746.00,1.10
8745.00,1.10
8744.00,1.10
8743.00,1.10
8742.00,1.10
8741.00,1.10
8740.00,1.10
8739.00,1.10
8738.00,1.10
8737.00,1.10
8736.00,1.10
8735.00,1.10
8734.00,1.10
8733.00,1.10
8732.00,1.10
8731.00,1.10
8730.00,1.10
8729.00,1.10
8728.00,1.10
8727.00,1.10
8726.00,1.10
8725.00,1.10
8724.00,1.10
8723.00,1.10
8722.00,1.10
8721.00,1.10
8720.00,1.10
8719.00,1.10
8718.00,1.10
8717.00,1.10
8716.00,1.10
8715.00,1.09
8714.00,1.09
8713.00,1.09
8712.00,1.09
8711.00,1.09
8710.00,1.09
8709.00,1.09
8708.00,1.09
8707.00,1.09
8706.00,1.09
8705.00,1.10
8704.00,1.10
8703.00,1.10
8702.00,1.10
8701.00,1.10
8700.00,1.10
8699.00,1.10
8698.00,1.10
8697.00,1.10
8696.00,1.10
8695.00,1.10
8694.00,1.10
8693.00,1.10
8692.00,1.10
8691.00,1.10
8690.00,1.10
8689.00,1.10
8688.00,1.10
8687.00,1.10
8686.00,1.10
8685.00,1.10
8684.00,1.10
8683.00,1.10
8682.00,1.10
8681.00,1.10
8680.00,1.10
8679.00,1.10
8678.00,1.10
8677.00,1.10
8676.00,1.10
8675.00,1.09
8674.00,1.09
8673.00,1.09
8672.00,1.09
8671.00,1.09
8670.00,1.09
8669.00,1.09
8668.00,1.09
8667.00,1.09
8666.00,1.09
8665.00,1.09
8664.00,1.09
8663.00,1.09
8662.00,1.09
8661.00,1.09
8660.00,1.09
8659.00,1.09
8658.00,1.09
8657.00,1.09
8656.00,1.09
8655.00,1.09
8654.00,1.09
8653.00,1.09
8652.00,1.09
8651.00,1.09
8650.00,1.09
8649.00,1.09
8648.00,1.09
8647.00,1.09
8646.00,1.09
8645.00,1.09
8644.00,1.09
8643.00,1.08
8642.00,1.08
8641.00,1.08
8640.00,1.08
8639.00,1.08
8638.00,1.08
8637.00,1.08
8636.00,1.08
8635.00,1.08
8634.00,1.08
8633.00,1.08
8632.00,1.08
8631.00,1.08
8630.00,1.08
8629.00,1.08
8628.00,1.08
8627.00,1.08
8626.00,1.08
8625.00,1.08
8624.00,1.08
8623.00,1.08
8622.00,1.08
8621.00,1.08
8620.00,1.09
8619.00,1.09
8618.00,1.09
8617.00,1.09
8616.00,1.09
8615.00,1.09
8614.00,1.09
8613.00,1.09
8612.00,1.09
8611.00,1.09
8610.00,1.09
8609.00,1.09
8608.00,1.09
8607.00,1.09
8606.00,1.08
8605.00,1.08
8604.00,1.08
8603.00,1.08
8602.00,1.08
8601.00,1.08
8600.00,1.08
8599.00,1.08
8598.00,1.08
8597.00,1.08
8596.00,1.08
8595.00,1.07
8594.00,1.07
8593.00,1.07
8592.00,1.07
8591.00,1.07
8590.00,1.07
8589.00,1.07
8588.00,1.07
8587.00,1.07
8586.00,1.07
8585.00,1.07
8584.00,1.07
8583.00,1.07
8582.00,1.07
8581.00,1.07
8580.00,1.07
8579.00,1.07
8578.00,1.07
8577.00,1.07
8576.00,1.07
8575.00,1.07
8574.00,1.07
8573.00,1.07
8572.00,1.07
8571.00,1.07
8570.00,1.07
8569.00,1.07
8568.00,1.07
8567.00,1.07
8566.00,1.07
8565.00,1.07
8564.00,1.06
8563.00,1.06
8562.00,1.06
8561.00,1.06
8560.00,1.06
8559.00,1.06
8558.00,1.06
8557.00,1.06
8556.00,1.06
8555.00,1.06
8554.00,1.06
8553.00,1.06
8552.00,1.06
8551.00,1.06
8550.00,1.06
8549.00,1.06
8548.00,1.06
8547.00,1.06
8546.00,1.06
8545.00,1.06
8544.00,1.06
8543.00,1.06
8542.00,1.06
8541.00,1.06
8540.00,1.06
8539.00,1.06
8538.00,1.06
8537.00,1.06
8536.00,1.05
8535.00,1.05
8534.00,1.05
8533.00,1.05
8532.00,1.05
8531.00,1.05
8530.00,1.05
8529.00,1.05
8528.00,1.04
8527.00,1.04
8526.00,1.04
8525.00,1.04
8524.00,1.04
8523.00,1.04
8522.00,1.04
8521.00,1.04
8520.00,1.03
8519.00,1.03
8518.00,1.03
8517.00,1.03
8516.00,1.03
8515.00,1.03
8514.00,1.03
8513.00,1.03
8512.00,1.03
8511.00,1.04
8510.00,1.04
8509.00,1.04
8508.00,1.04
8507.00,1.04
8506.00,1.04
8505.00,1.04
8504.00,1.04
8503.00,1.04
8502.00,1.04
8501.00,1.04
8500.00,1.04
8499.00,1.05
8498.00,1.05
8497.00,1.05
8496.00,1.04
8495.00,1.04
8494.00,1.04
8493.00,1.04
8492.00,1.04
8491.00,1.04
8490.00,1.04
8489.00,1.04
8488.00,1.04
8487.00,1.04
8486.00,1.04
8485.00,1.04
8484.00,1.04
8483.00,1.04
8482.00,1.03
8481.00,1.03
8480.00,1.03
8479.00,1.03
8478.00,1.03
8477.00,1.03
8476.00,1.02
8475.00,1.02
8474.00,1.02
8473.00,1.02
8472.00,1.02
8471.00,1.02
8470.00,1.02
8469.00,1.01
8468.00,1.01
8467.00,1.01
8466.00,1.01
8465.00,1.01
8464.00,1.01
8463.00,1.01
8462.00,1.01
8461.00,1.01
8460.00,1.01
8459.00,1.01
8458.00,1.01
8457.00,1.01
8456.00,1.01
8455.00,1.01
8454.00,1.01
8453.00,1.01
8452.00,1.01
8451.00,1.01
8450.00,1.01
8449.00,1.00
8448.00,1.00
8447.00,1.00
8446.00,1.00
8445.00,1.00
8444.00,1.00
8443.00,1.00
8442.00,1.00
8441.00,1.00
8440.00,1.00
8439.00,1.00
8438.00,1.00
8437.00,1.00
8436.00,1.00
8435.00,1.00
8434.00,1.00
8433.00,1.01
8432.00,1.01
8431.00,1.01
8430.00,1.01
8429.00,1.01
8428.00,1.01
8427.00,1.01
8426.00,1.01
8425.00,1.01
8424.00,1.02
8423.00,1.02
8422.00,1.02
8421.00,1.02
8420.00,1.02
8419.00,1.02
8418.00,1.02
8417.00,1.02
8416.00,1.02
8415.00,1.02
8414.00,1.02
8413.00,1.02
8412.00,1.02
8411.00,1.02
8410.00,1.02
8409.00,1.02
8408.00,1.02
8407.00,1.02
8406.00,1.03
8405.00,1.03
8404.00,1.03
8403.00,1.03
8402.00,1.03
8401.00,1.03
8400.00,1.03
8399.00,1.03
8398.00,1.03
8397.00,1.03
8396.00,1.03
8395.00,1.03
8394.00,1.04
8393.00,1.04
8392.00,1.04
8391.00,1.04
8390.00,1.04
8389.00,1.04
8388.00,1.04
8387.00,1.04
8386.00,1.04
8385.00,1.04
8384.00,1.04
8383.00,1.04
8382.00,1.04
8381.00,1.04
8380.00,1.04
8379.00,1.04
8378.00,1.04
8377.00,1.04
8376.00,1.04
8375.00,1.04
8374.00,1.04
8373.00,1.04
8372.00,1.04
8371.00,1.04
8370.00,1.04
8369.00,1.04
8368.00,1.04
8367.00,1.04
8366.00,1.04
8365.00,1.04
8364.00,1.04
8363.00,1.04
8362.00,1.04
8361.00,1.04
8360.00,1.04
8359.00,1.04
8358.00,1.04
8357.00,1.04
8356.00,1.04
8355.00,1.04
8354.00,1.04
8353.00,1.04
8352.00,1.04
8351.00,1.04
8350.00,1.04
8349.00,1.04
8348.00,1.04
8347.00,1.04
8346.00,1.04
8345.00,1.04
8344.00,1.04
8343.00,1.04
8342.00,1.04
8341.00,1.04
8340.00,1.04
8339.00,1.04
8338.00,1.04
8337.00,1.04
8336.00,1.04
8335.00,1.04
8334.00,1.04
8333.00,1.04
8332.00,1.04
8331.00,1.04
8330.00,1.04
8329.00,1.04
8328.00,1.04
8327.00,1.04
8326.00,1.05
8325.00,1.05
8324.00,1.05
8323.00,1.05
8322.00,1.05
8321.00,1.05
8320.00,1.05
8319.00,1.05
8318.00,1.05
8317.00,1.05
8316.00,1.05
8315.00,1.05
8314.00,1.05
8313.00,1.05
8312.00,1.05
8311.00,1.05
8310.00,1.05
8309.00,1.05
8308.00,1.05
8307.00,1.05
8306.00,1.05
8305.00,1.05
8304.00,1.05
8303.00,1.05
8302.00,1.05
8301.00,1.04
8300.00,1.04
8299.00,1.04
8298.00,1.04
8297.00,1.04
8296.00,1.04
8295.00,1.04
8294.00,1.04
8293.00,1.04
8292.00,1.04
8291.00,1.04
8290.00,1.04
8289.00,1.04
8288.00,1.04
8287.00,1.05
8286.00,1.05
8285.00,1.05
8284.00,1.05
8283.00,1.05
8282.00,1.05
8281.00,1.05
8280.00,1.05
8279.00,1.06
8278.00,1.06
8277.00,1.06
8276.00,1.06
8275.00,1.06
8274.00,1.06
8273.00,1.06
8272.00,1.06
8271.00,1.06
8270.00,1.06
8269.00,1.06
8268.00,1.06
8267.00,1.06
8266.00,1.06
8265.00,1.06
8264.00,1.06
8263.00,1.06
8262.00,1.06
8261.00,1.06
8260.00,1.06
8259.00,1.06
8258.00,1.06
8257.00,1.06
8256.00,1.06
8255.00,1.06
8254.00,1.06
8253.00,1.06
8252.00,1.06
8251.00,1.06
8250.00,1.06
8249.00,1.06
8248.00,1.06
8247.00,1.06
8246.00,1.06
8245.00,1.06
8244.00,1.06
8243.00,1.06
8242.00,1.06
8241.00,1.06
8240.00,1.06
8239.00,1.06
8238.00,1.06
8237.00,1.06
8236.00,1.06
8235.00,1.06
8234.00,1.06
8233.00,1.06
8232.00,1.06
8231.00,1.06
8230.00,1.06
8229.00,1.06
8228.00,1.06
8227.00,1.06
8226.00,1.06
8225.00,1.06
8224.00,1.06
8223.00,1.06
8222.00,1.06
8221.00,1.06
8220.00,1.06
8219.00,1.06
8218.00,1.07
8217.00,1.07
8216.00,1.07
8215.00,1.07
8214.00,1.07
8213.00,1.07
8212.00,1.07
8211.00,1.07
8210.00,1.07
8209.00,1.07
8208.00,1.07
8207.00,1.07
8206.00,1.07
8205.00,1.07
8204.00,1.07
8203.00,1.07
8202.00,1.07
8201.00,1.07
8200.00,1.06
8199.00,1.06
8198.00,1.06
8197.00,1.06
8196.00,1.06
8195.00,1.06
8194.00,1.06
8193.00,1.06
8192.00,1.07
8191.00,1.07
8190.00,1.07
8189.00,1.07
8188.00,1.07
8187.00,1.07
8186.00,1.07
8185.00,1.07
8184.00,1.07
8183.00,1.08
8182.00,1.08
8181.00,1.08
8180.00,1.08
8179.00,1.08
8178.00,1.08
8177.00,1.08
8176.00,1.08
8175.00,1.08
8174.00,1.08
8173.00,1.08
8172.00,1.08
8171.00,1.08
8170.00,1.08
8169.00,1.08
8168.00,1.08
8167.00,1.08
8166.00,1.08
8165.00,1.08
8164.00,1.08
8163.00,1.08
8162.00,1.08
8161.00,1.08
8160.00,1.08
8159.00,1.08
8158.00,1.08
8157.00,1.08
8156.00,1.08
8155.00,1.08
8154.00,1.09
8153.00,1.09
8152.00,1.09
8151.00,1.09
8150.00,1.09
8149.00,1.10
8148.00,1.10
8147.00,1.10
8146.00,1.10
8145.00,1.10
8144.00,1.10
8143.00,1.10
8142.00,1.11
8141.00,1.11
8140.00,1.11
8139.00,1.11
8138.00,1.11
8137.00,1.11
8136.00,1.11
8135.00,1.11
8134.00,1.11
8133.00,1.11
8132.00,1.11
8131.00,1.11
8130.00,1.11
8129.00,1.11
8128.00,1.11
8127.00,1.11
8126.00,1.11
8125.00,1.11
8124.00,1.11
8123.00,1.11
8122.00,1.11
8121.00,1.11
8120.00,1.11
8119.00,1.11
8118.00,1.11
8117.00,1.11
8116.00,1.11
8115.00,1.11
8114.00,1.11
8113.00,1.11
8112.00,1.11
8111.00,1.11
8110.00,1.10
8109.00,1.10
8108.00,1.10
8107.00,1.11
8106.00,1.11
8105.00,1.11
8104.00,1.11
8103.00,1.11
8102.00,1.11
8101.00,1.11
8100.00,1.11
8099.00,1.11
8098.00,1.11
8097.00,1.11
8096.00,1.11
8095.00,1.11
8094.00,1.11
8093.00,1.11
8092.00,1.11
8091.00,1.11
8090.00,1.11
8089.00,1.11
8088.00,1.11
8087.00,1.10
8086.00,1.10
8085.00,1.10
8084.00,1.10
8083.00,1.10
8082.00,1.10
8081.00,1.10
8080.00,1.10
8079.00,1.10
8078.00,1.10
8077.00,1.10
8076.00,1.10
8075.00,1.10
8074.00,1.11
8073.00,1.11
8072.00,1.11
8071.00,1.11
8070.00,1.11
8069.00,1.11
8068.00,1.11
8067.00,1.11
8066.00,1.11
8065.00,1.11
8064.00,1.11
8063.00,1.11
8062.00,1.11
8061.00,1.11
8060.00,1.11
8059.00,1.11
8058.00,1.11
8057.00,1.11
8056.00,1.11
8055.00,1.11
8054.00,1.11
8053.00,1.11
8052.00,1.11
8051.00,1.11
8050.00,1.11
8049.00,1.11
8048.00,1.11
8047.00,1.12
8046.00,1.12
8045.00,1.12
8044.00,1.12
8043.00,1.12
8042.00,1.12
8041.00,1.12
8040.00,1.12
8039.00,1.12
8038.00,1.12
8037.00,1.12
8036.00,1.13
8035.00,1.13
8034.00,1.13
8033.00,1.13
8032.00,1.13
8031.00,1.13
8030.00,1.13
8029.00,1.13
8028.00,1.13
8027.00,1.13
8026.00,1.13
8025.00,1.13
8024.00,1.13
8023.00,1.13
8022.00,1.13
8021.00,1.13
8020.00,1.13
8019.00,1.13
8018.00,1.13
8017.00,1.13
8016.00,1.13
8015.00,1.13
8014.00,1.13
8013.00,1.13
8012.00,1.13
8011.00,1.13
8010.00,1.12
8009.00,1.12
8008.00,1.12
8007.00,1.12
8006.00,1.12
8005.00,1.12
8004.00,1.12
8003.00,1.12
8002.00,1.12
8001.00,1.13
8000.00,1.13
7999.00,1.13
7998.00,1.13
7997.00,1.13
7996.00,1.13
7995.00,1.13
7994.00,1.13
7993.00,1.13
7992.00,1.13
7991.00,1.13
7990.00,1.13
7989.00,1.13
7988.00,1.13
7987.00,1.13
7986.00,1.13
7985.00,1.13
7984.00,1.13
7983.00,1.13
7982.00,1.13
7981.00,1.13
7980.00,1.13
7979.00,1.13
7978.00,1.13
7977.00,1.13
7976.00,1.13
7975.00,1.13
7974.00,1.13
7973.00,1.13
7972.00,1.13
7971.00,1.13
7970.00,1.13
7969.00,1.13
7968.00,1.13
7967.00,1.13
7966.00,1.13
7965.00,1.13
7964.00,1.13
7963.00,1.13
7962.00,1.13
7961.00,1.13
7960.00,1.13
7959.00,1.13
7958.00,1.13
7957.00,1.13
7956.00,1.13
7955.00,1.13
7954.00,1.13
7953.00,1.13
7952.00,1.13
7951.00,1.13
7950.00,1.13
7949.00,1.13
7948.00,1.13
7947.00,1.13
7946.00,1.13
7945.00,1.13
7944.00,1.13
7943.00,1.13
7942.00,1.13
7941.00,1.13
7940.00,1.13
7939.00,1.13
7938.00,1.13
7937.00,1.13
7936.00,1.13
7935.00,1.13
7934.00,1.13
7933.00,1.13
7932.00,1.13
7931.00,1.13
7930.00,1.13
7929.00,1.13
7928.00,1.13
7927.00,1.13
7926.00,1.13
7925.00,1.13
7924.00,1.14
7923.00,1.14
7922.00,1.14
7921.00,1.14
7920.00,1.14
7919.00,1.14
7918.00,1.14
7917.00,1.14
7916.00,1.14
7915.00,1.14
7914.00,1.14
7913.00,1.14
7912.00,1.14
7911.00,1.14
7910.00,1.14
7909.00,1.14
7908.00,1.14
7907.00,1.14
7906.00,1.14
7905.00,1.14
7904.00,1.14
7903.00,1.14
7902.00,1.14
7901.00,1.14
7900.00,1.14
7899.00,1.14
7898.00,1.14
7897.00,1.14
7896.00,1.14
7895.00,1.14
7894.00,1.14
7893.00,1.14
7892.00,1.14
7891.00,1.14
7890.00,1.14
7889.00,1.14
7888.00,1.14
7887.00,1.14
7886.00,1.14
7885.00,1.14
7884.00,1.14
7883.00,1.14
7882.00,1.14
7881.00,1.14
7880.00,1.14
7879.00,1.14
7878.00,1.14
7877.00,1.14
7876.00,1.14
7875.00,1.14
7874.00,1.14
7873.00,1.14
7872.00,1.14
7871.00,1.14
7870.00,1.14
7869.00,1.14
7868.00,1.14
7867.00,1.14
7866.00,1.14
7865.00,1.14
7864.00,1.14
7863.00,1.14
7862.00,1.15
7861.00,1.15
7860.00,1.15
7859.00,1.14
7858.00,1.14
7857.00,1.14
7856.00,1.14
7855.00,1.14
7854.00,1.14
7853.00,1.14
7852.00,1.14
7851.00,1.14
7850.00,1.14
7849.00,1.14
7848.00,1.14
7847.00,1.14
7846.00,1.14
7845.00,1.14
7844.00,1.14
7843.00,1.14
7842.00,1.14
7841.00,1.14
7840.00,1.14
7839.00,1.14
7838.00,1.14
7837.00,1.14
7836.00,1.14
7835.00,1.14
7834.00,1.14
7833.00,1.14
7832.00,1.15
7831.00,1.15
7830.00,1.15
7829.00,1.15
7828.00,1.15
7827.00,1.15
7826.00,1.15
7825.00,1.15
7824.00,1.15
7823.00,1.15
7822.00,1.15
7821.00,1.15
7820.00,1.15
7819.00,1.15
7818.00,1.15
7817.00,1.15
7816.00,1.15
7815.00,1.15
7814.00,1.15
7813.00,1.15
7812.00,1.15
7811.00,1.15
7810.00,1.15
7809.00,1.15
7808.00,1.15
7807.00,1.15
7806.00,1.15
7805.00,1.15
7804.00,1.15
7803.00,1.15
7802.00,1.15
7801.00,1.15
7800.00,1.15
7799.00,1.15
7798.00,1.15
7797.00,1.15
7796.00,1.15
7795.00,1.15
7794.00,1.15
7793.00,1.15
7792.00,1.15
7791.00,1.14
7790.00,1.14
7789.00,1.14
7788.00,1.14
7787.00,1.15
7786.00,1.15
7785.00,1.15
7784.00,1.15
7783.00,1.15
7782.00,1.15
7781.00,1.15
7780.00,1.15
7779.00,1.15
7778.00,1.15
7777.00,1.15
7776.00,1.15
7775.00,1.15
7774.00,1.16
7773.00,1.16
7772.00,1.16
7771.00,1.16
7770.00,1.16
7769.00,1.16
7768.00,1.16
7767.00,1.16
7766.00,1.16
7765.00,1.16
7764.00,1.16
7763.00,1.16
7762.00,1.16
7761.00,1.16
7760.00,1.16
7759.00,1.16
7758.00,1.16
7757.00,1.16
7756.00,1.16
7755.00,1.16
7754.00,1.16
7753.00,1.16
7752.00,1.16
7751.00,1.16
7750.00,1.15
7749.00,1.15
7748.00,1.15
7747.00,1.15
7746.00,1.15
7745.00,1.15
7744.00,1.15
7743.00,1.15
7742.00,1.15
7741.00,1.15
7740.00,1.15
7739.00,1.15
7738.00,1.15
7737.00,1.15
7736.00,1.15
7735.00,1.15
7734.00,1.15
7733.00,1.15
7732.00,1.15
7731.00,1.14
7730.00,1.14
7729.00,1.14
7728.00,1.14
7727.00,1.14
7726.00,1.14
7725.00,1.14
7724.00,1.15
7723.00,1.15
7722.00,1.15
7721.00,1.15
7720.00,1.15
7719.00,1.15
7718.00,1.15
7717.00,1.15
7716.00,1.15
7715.00,1.15
7714.00,1.15
7713.00,1.15
7712.00,1.15
7711.00,1.15
7710.00,1.15
7709.00,1.15
7708.00,1.15
7707.00,1.15
7706.00,1.15
7705.00,1.16
7704.00,1.16
7703.00,1.16
7702.00,1.16
7701.00,1.16
7700.00,1.16
7699.00,1.16
7698.00,1.16
7697.00,1.16
7696.00,1.16
7695.00,1.16
7694.00,1.16
7693.00,1.16
7692.00,1.16
7691.00,1.16
7690.00,1.16
7689.00,1.16
7688.00,1.16
7687.00,1.16
7686.00,1.16
7685.00,1.16
7684.00,1.16
7683.00,1.15
7682.00,1.15
7681.00,1.15
7680.00,1.15
7679.00,1.15
7678.00,1.15
7677.00,1.15
7676.00,1.15
7675.00,1.15
7674.00,1.15
7673.00,1.15
7672.00,1.15
7671.00,1.15
7670.00,1.15
7669.00,1.15
7668.00,1.15
7667.00,1.15
7666.00,1.15
7665.00,1.15
7664.00,1.15
7663.00,1.15
7662.00,1.15
7661.00,1.15
7660.00,1.15
7659.00,1.15
7658.00,1.15
7657.00,1.15
7656.00,1.15
7655.00,1.15
7654.00,1.15
7653.00,1.15
7652.00,1.15
7651.00,1.15
7650.00,1.15
7649.00,1.15
7648.00,1.15
7647.00,1.15
7646.00,1.15
7645.00,1.15
7644.00,1.15
7643.00,1.14
7642.00,1.14
7641.00,1.14
7640.00,1.14
7639.00,1.14
7638.00,1.14
7637.00,1.14
7636.00,1.14
7635.00,1.14
7634.00,1.14
7633.00,1.14
7632.00,1.14
7631.00,1.14
7630.00,1.14
7629.00,1.14
7628.00,1.14
7627.00,1.14
7626.00,1.14
7625.00,1.15
7624.00,1.15
7623.00,1.15
7622.00,1.15
7621.00,1.15
7620.00,1.15
7619.00,1.15
7618.00,1.15
7617.00,1.16
7616.00,1.16
7615.00,1.16
7614.00,1.16
7613.00,1.16
7612.00,1.16
7611.00,1.16
7610.00,1.16
7609.00,1.16
7608.00,1.16
7607.00,1.16
7606.00,1.16
7605.00,1.16
7604.00,1.16
7603.00,1.16
7602.00,1.16
7601.00,1.16
7600.00,1.16
7599.00,1.16
7598.00,1.16
7597.00,1.15
7596.00,1.15
7595.00,1.15
7594.00,1.15
7593.00,1.15
7592.00,1.15
7591.00,1.15
7590.00,1.15
7589.00,1.15
7588.00,1.15
7587.00,1.15
7586.00,1.15
7585.00,1.15
7584.00,1.15
7583.00,1.15
7582.00,1.15
7581.00,1.15
7580.00,1.15
7579.00,1.15
7578.00,1.15
7577.00,1.15
7576.00,1.15
7575.00,1.15
7574.00,1.15
7573.00,1.15
7572.00,1.15
7571.00,1.15
7570.00,1.15
7569.00,1.15
7568.00,1.15
7567.00,1.15
7566.00,1.15
7565.00,1.15
7564.00,1.15
7563.00,1.15
7562.00,1.15
7561.00,1.15
7560.00,1.15
7559.00,1.15
7558.00,1.15
7557.00,1.14
7556.00,1.14
7555.00,1.14
7554.00,1.14
7553.00,1.14
7552.00,1.14
7551.00,1.14
7550.00,1.14
7549.00,1.14
7548.00,1.14
7547.00,1.14
7546.00,1.14
7545.00,1.14
7544.00,1.14
7543.00,1.14
7542.00,1.14
7541.00,1.14
7540.00,1.14
7539.00,1.14
7538.00,1.14
7537.00,1.14
7536.00,1.14
7535.00,1.14
7534.00,1.14
7533.00,1.14
7532.00,1.14
7531.00,1.14
7530.00,1.14
7529.00,1.14
7528.00,1.14
7527.00,1.14
7526.00,1.14
7525.00,1.14
7524.00,1.14
7523.00,1.14
7522.00,1.14
7521.00,1.13
7520.00,1.13
7519.00,1.13
7518.00,1.13
7517.00,1.13
7516.00,1.13
7515.00,1.13
7514.00,1.13
7513.00,1.13
7512.00,1.13
7511.00,1.13
7510.00,1.13
7509.00,1.13
7508.00,1.13
7507.00,1.13
7506.00,1.13
7505.00,1.13
7504.00,1.13
7503.00,1.13
7502.00,1.13
7501.00,1.13
7500.00,1.13
7499.00,1.13
7498.00,1.13
7497.00,1.13
7496.00,1.13
7495.00,1.13
7494.00,1.12
7493.00,1.12
7492.00,1.12
7491.00,1.12
7490.00,1.12
7489.00,1.12
7488.00,1.12
7487.00,1.12
7486.00,1.12
7485.00,1.12
7484.00,1.12
7483.00,1.12
7482.00,1.12
7481.00,1.12
7480.00,1.12
7479.00,1.12
7478.00,1.12
7477.00,1.12
7476.00,1.12
7475.00,1.12
7474.00,1.11
7473.00,1.11
7472.00,1.11
7471.00,1.11
7470.00,1.11
7469.00,1.11
7468.00,1.11
7467.00,1.11
7466.00,1.11
7465.00,1.11
7464.00,1.11
7463.00,1.11
7462.00,1.11
7461.00,1.11
7460.00,1.11
7459.00,1.11
7458.00,1.11
7457.00,1.11
7456.00,1.11
7455.00,1.11
7454.00,1.11
7453.00,1.11
7452.00,1.11
7451.00,1.11
7450.00,1.10
7449.00,1.10
7448.00,1.10
7447.00,1.10
7446.00,1.10
7445.00,1.10
7444.00,1.10
7443.00,1.10
7442.00,1.10
7441.00,1.10
7440.00,1.10
7439.00,1.10
7438.00,1.10
7437.00,1.10
7436.00,1.10
7435.00,1.10
7434.00,1.10
7433.00,1.10
7432.00,1.10
7431.00,1.10
7430.00,1.10
7429.00,1.10
7428.00,1.09
7427.00,1.09
7426.00,1.09
7425.00,1.09
7424.00,1.09
7423.00,1.09
7422.00,1.09
7421.00,1.09
7420.00,1.09
7419.00,1.08
7418.00,1.08
7417.00,1.08
7416.00,1.08
7415.00,1.08
7414.00,1.08
7413.00,1.08
7412.00,1.08
7411.00,1.08
7410.00,1.08
7409.00,1.07
7408.00,1.07
7407.00,1.07
7406.00,1.07
7405.00,1.07
7404.00,1.07
7403.00,1.07
7402.00,1.07
7401.00,1.07
7400.00,1.07
7399.00,1.07
7398.00,1.07
7397.00,1.07
7396.00,1.07
7395.00,1.07
7394.00,1.07
7393.00,1.07
7392.00,1.07
7391.00,1.06
7390.00,1.06
7389.00,1.06
7388.00,1.06
7387.00,1.06
7386.00,1.06
7385.00,1.06
7384.00,1.06
7383.00,1.06
7382.00,1.06
7381.00,1.06
7380.00,1.06
7379.00,1.06
7378.00,1.06
7377.00,1.05
7376.00,1.05
7375.00,1.05
7374.00,1.05
7373.00,1.05
7372.00,1.05
7371.00,1.05
7370.00,1.05
7369.00,1.05
7368.00,1.05
7367.00,1.05
7366.00,1.05
7365.00,1.05
7364.00,1.05
7363.00,1.05
7362.00,1.05
7361.00,1.05
7360.00,1.05
7359.00,1.05
7358.00,1.05
7357.00,1.05
7356.00,1.05
7355.00,1.05
7354.00,1.05
7353.00,1.05
7352.00,1.04
7351.00,1.04
7350.00,1.04
7349.00,1.04
7348.00,1.04
7347.00,1.04
7346.00,1.04
7345.00,1.04
7344.00,1.04
7343.00,1.04
7342.00,1.04
7341.00,1.04
7340.00,1.04
7339.00,1.05
7338.00,1.05
7337.00,1.05
7336.00,1.05
7335.00,1.05
7334.00,1.05
7333.00,1.05
7332.00,1.05
7331.00,1.04
7330.00,1.04
7329.00,1.04
7328.00,1.04
7327.00,1.04
7326.00,1.04
7325.00,1.04
7324.00,1.04
7323.00,1.04
7322.00,1.04
7321.00,1.04
7320.00,1.04
7319.00,1.04
7318.00,1.04
7317.00,1.04
7316.00,1.04
7315.00,1.04
7314.00,1.04
7313.00,1.03
7312.00,1.03
7311.00,1.03
7310.00,1.03
7309.00,1.03
7308.00,1.03
7307.00,1.03
7306.00,1.03
7305.00,1.03
7304.00,1.02
7303.00,1.02
7302.00,1.02
7301.00,1.02
7300.00,1.02
7299.00,1.02
7298.00,1.02
7297.00,1.02
7296.00,1.02
7295.00,1.02
7294.00,1.02
7293.00,1.01
7292.00,1.01
7291.00,1.01
7290.00,1.01
7289.00,1.01
7288.00,1.01
7287.00,1.01
7286.00,1.01
7285.00,1.01
7284.00,1.00
7283.00,1.00
7282.00,1.00
7281.00,1.00
7280.00,1.00
7279.00,1.00
7278.00,1.00
7277.00,0.99
7276.00,0.99
7275.00,0.99
7274.00,0.99
7273.00,0.99
7272.00,0.99
7271.00,0.99
7270.00,0.99
7269.00,0.99
7268.00,0.99
7267.00,0.98
7266.00,0.98
7265.00,0.98
7264.00,0.98
7263.00,0.98
7262.00,0.98
7261.00,0.98
7260.00,0.98
7259.00,0.98
7258.00,0.98
7257.00,0.98
7256.00,0.97
7255.00,0.97
7254.00,0.97
7253.00,0.97
7252.00,0.97
7251.00,0.97
7250.00,0.97
7249.00,0.96
7248.00,0.96
7247.00,0.96
7246.00,0.96
7245.00,0.96
7244.00,0.95
7243.00,0.95
7242.00,0.95
7241.00,0.95
7240.00,0.94
7239.00,0.94
7238.00,0.94
7237.00,0.93
7236.00,0.93
7235.00,0.93
7234.00,0.93
7233.00,0.92
7232.00,0.92
7231.00,0.92
7230.00,0.91
7229.00,0.91
7228.00,0.91
7227.00,0.91
7226.00,0.90
7225.00,0.90
7224.00,0.90
7223.00,0.90
7222.00,0.89
7221.00,0.89
7220.00,0.89
7219.00,0.89
7218.00,0.89
7217.00,0.88
7216.00,0.88
7215.00,0.88
7214.00,0.88
7213.00,0.88
7212.00,0.87
7211.00,0.87
7210.00,0.87
7209.00,0.87
7208.00,0.87
7207.00,0.86
7206.00,0.86
7205.00,0.86
7204.00,0.86
7203.00,0.86
7202.00,0.85
7201.00,0.85
7200.00,0.85
7199.00,0.85
7198.00,0.84
7197.00,0.84
7196.00,0.84
7195.00,0.84
7194.00,0.83
7193.00,0.83
7192.00,0.83
7191.00,0.83
7190.00,0.82
7189.00,0.82
7188.00,0.82
7187.00,0.82
7186.00,0.81
7185.00,0.81
7184.00,0.81
7183.00,0.81
7182.00,0.80
7181.00,0.80
7180.00,0.80
7179.00,0.80
7178.00,0.79
7177.00,0.79
7176.00,0.79
7175.00,0.79
7174.00,0.79
7173.00,0.78
7172.00,0.78
7171.00,0.78
7170.00,0.78
7169.00,0.77
7168.00,0.77
7167.00,0.77
7166.00,0.77
7165.00,0.77
7164.00,0.76
7163.00,0.76
7162.00,0.76
7161.00,0.76
7160.00,0.76
7159.00,0.75
7158.00,0.75
7157.00,0.75
7156.00,0.75
7155.00,0.75
7154.00,0.75
7153.00,0.74
7152.00,0.74
7151.00,0.74
7150.00,0.74
7149.00,0.74
7148.00,0.74
7147.00,0.73
7146.00,0.73
7145.00,0.73
7144.00,0.73
7143.00,0.73
7142.00,0.72
7141.00,0.72
7140.00,0.72
7139.00,0.72
7138.00,0.72
7137.00,0.71
7136.00,0.71
7135.00,0.71
7134.00,0.71
7133.00,0.71
7132.00,0.70
7131.00,0.70
7130.00,0.70
7129.00,0.70
7128.00,0.69
7127.00,0.69
7126.00,0.69
7125.00,0.69
7124.00,0.68
7123.00,0.68
7122.00,0.68
7121.00,0.67
7120.00,0.67
7119.00,0.67
7118.00,0.66
7117.00,0.66
7116.00,0.66
7115.00,0.66
7114.00,0.65
7113.00,0.65
7112.00,0.65
7111.00,0.65
7110.00,0.65
7109.00,0.65
7108.00,0.64
7107.00,0.64
7106.00,0.64
7105.00,0.64
7104.00,0.64
7103.00,0.64
7102.00,0.63
7101.00,0.63
7100.00,0.63
7099.00,0.63
7098.00,0.63
7097.00,0.62
7096.00,0.62
7095.00,0.62
7094.00,0.62
7093.00,0.62
7092.00,0.61
7091.00,0.61
7090.00,0.61
7089.00,0.61
7088.00,0.61
7087.00,0.61
7086.00,0.61
7085.00,0.60
7084.00,0.60
7083.00,0.60
7082.00,0.60
7081.00,0.60
7080.00,0.60
7079.00,0.60
7078.00,0.60
7077.00,0.60
7076.00,0.59
7075.00,0.59
7074.00,0.59
7073.00,0.59
7072.00,0.59
7071.00,0.59
7070.00,0.59
7069.00,0.59
7068.00,0.59
7067.00,0.59
7066.00,0.58
7065.00,0.58
7064.00,0.58
7063.00,0.58
7062.00,0.58
7061.00,0.58
7060.00,0.58
7059.00,0.58
7058.00,0.58
7057.00,0.58
7056.00,0.58
7055.00,0.57
7054.00,0.57
7053.00,0.57
7052.00,0.57
7051.00,0.57
7050.00,0.57
7049.00,0.57
7048.00,0.57
7047.00,0.56
7046.00,0.56
7045.00,0.56
7044.00,0.56
7043.00,0.56
7042.00,0.56
7041.00,0.56
7040.00,0.56
7039.00,0.56
7038.00,0.56
7037.00,0.56
7036.00,0.56
7035.00,0.56
7034.00,0.56
7033.00,0.56
7032.00,0.56
7031.00,0.56
7030.00,0.56
7029.00,0.55
7028.00,0.55
7027.00,0.55
7026.00,0.55
7025.00,0.55
7024.00,0.55
7023.00,0.55
7022.00,0.55
7021.00,0.55
7020.00,0.54
7019.00,0.54
7018.00,0.54
7017.00,0.54
7016.00,0.54
7015.00,0.54
7014.00,0.54
7013.00,0.53
7012.00,0.53
7011.00,0.53
7010.00,0.53
7009.00,0.53
7008.00,0.53
7007.00,0.53
7006.00,0.53
7005.00,0.53
7004.00,0.53
7003.00,0.53
7002.00,0.53
7001.00,0.53
7000.00,0.53
6999.00,0.53
6998.00,0.53
6997.00,0.53
6996.00,0.53
6995.00,0.53
6994.00,0.53
6993.00,0.53
6992.00,0.53
6991.00,0.53
6990.00,0.53
6989.00,0.53
6988.00,0.53
6987.00,0.53
6986.00,0.53
6985.00,0.53
6984.00,0.53
6983.00,0.53
6982.00,0.53
6981.00,0.53
6980.00,0.53
6979.00,0.53
6978.00,0.53
6977.00,0.52
6976.00,0.52
6975.00,0.52
6974.00,0.52
6973.00,0.52
6972.00,0.52
6971.00,0.52
6970.00,0.52
6969.00,0.52
6968.00,0.52
6967.00,0.52
6966.00,0.52
6965.00,0.52
6964.00,0.52
6963.00,0.52
6962.00,0.52
6961.00,0.52
6960.00,0.52
6959.00,0.52
6958.00,0.52
6957.00,0.52
6956.00,0.52
6955.00,0.52
6954.00,0.52
6953.00,0.51
6952.00,0.51
6951.00,0.51
6950.00,0.51
6949.00,0.51
6948.00,0.51
6947.00,0.51
6946.00,0.51
6945.00,0.51
6944.00,0.51
6943.00,0.51
6942.00,0.51
6941.00,0.51
6940.00,0.51
6939.00,0.51
6938.00,0.51
6937.00,0.51
6936.00,0.51
6935.00,0.51
6934.00,0.51
6933.00,0.51
6932.00,0.51
6931.00,0.51
6930.00,0.51
6929.00,0.51
6928.00,0.51
6927.00,0.51
6926.00,0.51
6925.00,0.51
6924.00,0.51
6923.00,0.51
6922.00,0.51
6921.00,0.51
6920.00,0.51
6919.00,0.51
6918.00,0.51
6917.00,0.51
6916.00,0.51
6915.00,0.51
6914.00,0.51
6913.00,0.51
6912.00,0.51
6911.00,0.51
6910.00,0.51
6909.00,0.51
6908.00,0.51
6907.00,0.51
6906.00,0.51
6905.00,0.51
6904.00,0.51
6903.00,0.51
6902.00,0.51
6901.00,0.51
6900.00,0.51
6899.00,0.51
6898.00,0.51
6897.00,0.51
6896.00,0.51
6895.00,0.51
6894.00,0.51
6893.00,0.51
6892.00,0.51
6891.00,0.51
6890.00,0.51
6889.00,0.51
6888.00,0.51
6887.00,0.51
6886.00,0.51
6885.00,0.51
6884.00,0.51
6883.00,0.51
6882.00,0.51
6881.00,0.50
6880.00,0.50
6879.00,0.50
6878.00,0.50
6877.00,0.50
6876.00,0.50
6875.00,0.50
6874.00,0.50
6873.00,0.50
6872.00,0.50
6871.00,0.50
6870.00,0.50
6869.00,0.50
6868.00,0.50
6867.00,0.50
6866.00,0.50
6865.00,0.50
6864.00,0.50
6863.00,0.50
6862.00,0.50
6861.00,0.50
6860.00,0.50
6859.00,0.50
6858.00,0.50
6857.00,0.50
6856.00,0.50
6855.00,0.50
6854.00,0.50
6853.00,0.50
6852.00,0.50
6851.00,0.50
6850.00,0.50
6849.00,0.50
6848.00,0.50
6847.00,0.50
6846.00,0.50
6845.00,0.50
6844.00,0.50
6843.00,0.50
6842.00,0.51
6841.00,0.51
6840.00,0.51
6839.00,0.51
6838.00,0.51
6837.00,0.51
6836.00,0.51
6835.00,0.51
6834.00,0.51
6833.00,0.52
6832.00,0.52
6831.00,0.52
6830.00,0.52
6829.00,0.52
6828.00,0.52
6827.00,0.52
6826.00,0.52
6825.00,0.52
6824.00,0.52
6823.00,0.52
6822.00,0.52
6821.00,0.52
6820.00,0.52
6819.00,0.52
6818.00,0.52
6817.00,0.52
6816.00,0.52
6815.00,0.52
6814.00,0.52
6813.00,0.52
6812.00,0.52
6811.00,0.52
6810.00,0.52
6809.00,0.52
6808.00,0.52
6807.00,0.52
6806.00,0.52
6805.00,0.52
6804.00,0.52
6803.00,0.52
6802.00,0.52
6801.00,0.52
6800.00,0.52
6799.00,0.52
6798.00,0.52
6797.00,0.52
6796.00,0.52
6795.00,0.52
6794.00,0.52
6793.00,0.52
6792.00,0.52
6791.00,0.52
6790.00,0.52
6789.00,0.52
6788.00,0.53
6787.00,0.53
6786.00,0.53
6785.00,0.53
6784.00,0.53
6783.00,0.53
6782.00,0.53
6781.00,0.53
6780.00,0.53
6779.00,0.53
6778.00,0.53
6777.00,0.53
6776.00,0.53
6775.00,0.53
6774.00,0.53
6773.00,0.53
6772.00,0.53
6771.00,0.53
6770.00,0.53
6769.00,0.53
6768.00,0.53
6767.00,0.53
6766.00,0.53
6765.00,0.53
6764.00,0.53
6763.00,0.53
6762.00,0.53
6761.00,0.53
6760.00,0.54
6759.00,0.54
6758.00,0.54
6757.00,0.54
6756.00,0.54
6755.00,0.54
6754.00,0.54
6753.00,0.54
6752.00,0.54
6751.00,0.54
6750.00,0.54
6749.00,0.54
6748.00,0.54
6747.00,0.54
6746.00,0.54
6745.00,0.54
6744.00,0.54
6743.00,0.54
6742.00,0.54
6741.00,0.54
6740.00,0.54
6739.00,0.54
6738.00,0.54
6737.00,0.54
6736.00,0.54
6735.00,0.54
6734.00,0.54
6733.00,0.54
6732.00,0.54
6731.00,0.54
6730.00,0.54
6729.00,0.54
6728.00,0.54
6727.00,0.54
6726.00,0.54
6725.00,0.54
6724.00,0.54
6723.00,0.55
6722.00,0.55
6721.00,0.55
6720.00,0.55
6719.00,0.55
6718.00,0.55
6717.00,0.55
6716.00,0.55
6715.00,0.56
6714.00,0.56
6713.00,0.56
6712.00,0.56
6711.00,0.56
6710.00,0.56
6709.00,0.56
6708.00,0.56
6707.00,0.57
6706.00,0.57
6705.00,0.57
6704.00,0.57
6703.00,0.57
6702.00,0.57
6701.00,0.57
6700.00,0.57
6699.00,0.57
6698.00,0.57
6697.00,0.57
6696.00,0.57
6695.00,0.57
6694.00,0.57
6693.00,0.57
6692.00,0.57
6691.00,0.57
6690.00,0.58
6689.00,0.58
6688.00,0.58
6687.00,0.58
6686.00,0.58
6685.00,0.58
6684.00,0.58
6683.00,0.58
6682.00,0.58
6681.00,0.58
6680.00,0.58
6679.00,0.58
6678.00,0.58
6677.00,0.59
6676.00,0.59
6675.00,0.59
6674.00,0.59
6673.00,0.59
6672.00,0.59
6671.00,0.59
6670.00,0.59
6669.00,0.59
6668.00,0.59
6667.00,0.59
6666.00,0.59
6665.00,0.59
6664.00,0.59
6663.00,0.59
6662.00,0.59
6661.00,0.60
6660.00,0.60
6659.00,0.60
6658.00,0.60
6657.00,0.60
6656.00,0.60
6655.00,0.60
6654.00,0.60
6653.00,0.60
6652.00,0.60
6651.00,0.60
6650.00,0.61
6649.00,0.61
6648.00,0.61
6647.00,0.61
6646.00,0.61
6645.00,0.61
6644.00,0.61
6643.00,0.61
6642.00,0.61
6641.00,0.61
6640.00,0.61
6639.00,0.61
6638.00,0.61
6637.00,0.61
6636.00,0.61
6635.00,0.61
6634.00,0.61
6633.00,0.61
6632.00,0.61
6631.00,0.61
6630.00,0.61
6629.00,0.62
6628.00,0.62
6627.00,0.62
6626.00,0.62
6625.00,0.62
6624.00,0.62
6623.00,0.62
6622.00,0.62
6621.00,0.62
6620.00,0.62
6619.00,0.63
6618.00,0.63
6617.00,0.63
6616.00,0.63
6615.00,0.63
6614.00,0.63
6613.00,0.63
6612.00,0.63
6611.00,0.63
6610.00,0.63
6609.00,0.63
6608.00,0.63
6607.00,0.63
6606.00,0.63
6605.00,0.63
6604.00,0.64
6603.00,0.64
6602.00,0.64
6601.00,0.64
6600.00,0.64
6599.00,0.64
6598.00,0.64
6597.00,0.64
6596.00,0.64
6595.00,0.64
6594.00,0.64
6593.00,0.64
6592.00,0.65
6591.00,0.65
6590.00,0.65
6589.00,0.65
6588.00,0.65
6587.00,0.65
6586.00,0.65
6585.00,0.65
6584.00,0.65
6583.00,0.65
6582.00,0.66
6581.00,0.66
6580.00,0.66
6579.00,0.66
6578.00,0.66
6577.00,0.66
6576.00,0.66
6575.00,0.66
6574.00,0.66
6573.00,0.66
6572.00,0.66
6571.00,0.67
6570.00,0.67
6569.00,0.67
6568.00,0.67
6567.00,0.67
6566.00,0.67
6565.00,0.67
6564.00,0.67
6563.00,0.67
6562.00,0.67
6561.00,0.67
6560.00,0.67
6559.00,0.67
6558.00,0.67
6557.00,0.67
6556.00,0.67
6555.00,0.67
6554.00,0.67
6553.00,0.67
6552.00,0.67
6551.00,0.67
6550.00,0.67
6549.00,0.67
6548.00,0.67
6547.00,0.68
6546.00,0.68
6545.00,0.68
6544.00,0.68
6543.00,0.68
6542.00,0.68
6541.00,0.68
6540.00,0.68
6539.00,0.68
6538.00,0.68
6537.00,0.68
6536.00,0.68
6535.00,0.69
6534.00,0.69
6533.00,0.69
6532.00,0.69
6531.00,0.69
6530.00,0.69
6529.00,0.69
6528.00,0.69
6527.00,0.70
6526.00,0.70
6525.00,0.70
6524.00,0.70
6523.00,0.70
6522.00,0.70
6521.00,0.70
6520.00,0.70
6519.00,0.70
6518.00,0.70
6517.00,0.70
6516.00,0.70
6515.00,0.70
6514.00,0.70
6513.00,0.70
6512.00,0.70
6511.00,0.70
6510.00,0.70
6509.00,0.70
6508.00,0.70
6507.00,0.70
6506.00,0.70
6505.00,0.70
6504.00,0.70
6503.00,0.70
6502.00,0.70
6501.00,0.70
6500.00,0.71
6499.00,0.71
6498.00,0.71
6497.00,0.71
6496.00,0.71
6495.00,0.71
6494.00,0.71
6493.00,0.71
6492.00,0.71
6491.00,0.71
6490.00,0.71
6489.00,0.71
6488.00,0.71
6487.00,0.71
6486.00,0.71
6485.00,0.71
6484.00,0.71
6483.00,0.71
6482.00,0.71
6481.00,0.71
6480.00,0.71
6479.00,0.71
6478.00,0.71
6477.00,0.71
6476.00,0.72
6475.00,0.72
6474.00,0.72
6473.00,0.72
6472.00,0.72
6471.00,0.72
6470.00,0.72
6469.00,0.72
6468.00,0.72
6467.00,0.72
6466.00,0.72
6465.00,0.72
6464.00,0.72
6463.00,0.72
6462.00,0.72
6461.00,0.72
6460.00,0.72
6459.00,0.72
6458.00,0.72
6457.00,0.72
6456.00,0.72
6455.00,0.72
6454.00,0.73
6453.00,0.73
6452.00,0.73
6451.00,0.73
6450.00,0.73
6449.00,0.73
6448.00,0.73
6447.00,0.73
6446.00,0.73
6445.00,0.73
6444.00,0.73
6443.00,0.73
6442.00,0.73
6441.00,0.73
6440.00,0.73
6439.00,0.74
6438.00,0.74
6437.00,0.74
6436.00,0.74
6435.00,0.74
6434.00,0.74
6433.00,0.74
6432.00,0.74
6431.00,0.74
6430.00,0.74
6429.00,0.74
6428.00,0.74
6427.00,0.74
6426.00,0.74
6425.00,0.74
6424.00,0.74
6423.00,0.74
6422.00,0.74
6421.00,0.74
6420.00,0.74
6419.00,0.74
6418.00,0.74
6417.00,0.74
6416.00,0.74
6415.00,0.74
6414.00,0.74
6413.00,0.74
6412.00,0.74
6411.00,0.74
6410.00,0.74
6409.00,0.74
6408.00,0.75
6407.00,0.75
6406.00,0.75
6405.00,0.75
6404.00,0.75
6403.00,0.75
6402.00,0.75
6401.00,0.75
6400.00,0.75
6399.00,0.75
6398.00,0.75
6397.00,0.75
6396.00,0.75
6395.00,0.75
6394.00,0.75
6393.00,0.75
6392.00,0.75
6391.00,0.75
6390.00,0.75
6389.00,0.75
6388.00,0.75
6387.00,0.76
6386.00,0.76
6385.00,0.76
6384.00,0.76
6383.00,0.76
6382.00,0.76
6381.00,0.76
6380.00,0.76
6379.00,0.76
6378.00,0.76
6377.00,0.76
6376.00,0.76
6375.00,0.76
6374.00,0.76
6373.00,0.76
6372.00,0.77
6371.00,0.77
6370.00,0.77
6369.00,0.77
6368.00,0.77
6367.00,0.77
6366.00,0.77
6365.00,0.77
6364.00,0.77
6363.00,0.77
6362.00,0.77
6361.00,0.77
6360.00,0.77
6359.00,0.77
6358.00,0.77
6357.00,0.77
6356.00,0.77
6355.00,0.77
6354.00,0.78
6353.00,0.78
6352.00,0.78
6351.00,0.78
6350.00,0.78
6349.00,0.78
6348.00,0.78
6347.00,0.78
6346.00,0.78
6345.00,0.78
6344.00,0.78
6343.00,0.78
6342.00,0.78
6341.00,0.78
6340.00,0.79
6339.00,0.79
6338.00,0.79
6337.00,0.79
6336.00,0.79
6335.00,0.79
6334.00,0.79
6333.00,0.79
6332.00,0.79
6331.00,0.79
6330.00,0.79
6329.00,0.79
6328.00,0.79
6327.00,0.79
6326.00,0.80
6325.00,0.80
6324.00,0.80
6323.00,0.80
6322.00,0.80
6321.00,0.80
6320.00,0.80
6319.00,0.80
6318.00,0.80
6317.00,0.80
6316.00,0.80
6315.00,0.80
6314.00,0.80
6313.00,0.81
6312.00,0.81
6311.00,0.81
6310.00,0.81
6309.00,0.81
6308.00,0.81
6307.00,0.81
6306.00,0.81
6305.00,0.81
6304.00,0.81
6303.00,0.81
6302.00,0.81
6301.00,0.81
6300.00,0.81
6299.00,0.81
6298.00,0.81
6297.00,0.81
6296.00,0.81
6295.00,0.81
6294.00,0.81
6293.00,0.82
6292.00,0.82
6291.00,0.82
6290.00,0.82
6289.00,0.82
6288.00,0.82
6287.00,0.82
6286.00,0.82
6285.00,0.83
6284.00,0.83
6283.00,0.83
6282.00,0.83
6281.00,0.83
6280.00,0.83
6279.00,0.83
6278.00,0.83
6277.00,0.83
6276.00,0.84
6275.00,0.84
6274.00,0.84
6273.00,0.84
6272.00,0.84
6271.00,0.84
6270.00,0.84
6269.00,0.84
6268.00,0.84
6267.00,0.84
6266.00,0.84
6265.00,0.84
6264.00,0.84
6263.00,0.85
6262.00,0.85
6261.00,0.85
6260.00,0.85
6259.00,0.85
6258.00,0.85
6257.00,0.85
6256.00,0.85
6255.00,0.85
6254.00,0.85
6253.00,0.85
6252.00,0.85
6251.00,0.86
6250.00,0.86
6249.00,0.86
6248.00,0.86
6247.00,0.86
6246.00,0.86
6245.00,0.86
6244.00,0.87
6243.00,0.87
6242.00,0.87
6241.00,0.87
6240.00,0.87
6239.00,0.87
6238.00,0.87
6237.00,0.87
6236.00,0.88
6235.00,0.88
6234.00,0.88
6233.00,0.88
6232.00,0.88
6231.00,0.88
6230.00,0.88
6229.00,0.88
6228.00,0.88
6227.00,0.88
6226.00,0.89
6225.00,0.89
6224.00,0.89
6223.00,0.89
6222.00,0.89
6221.00,0.89
6220.00,0.89
6219.00,0.89
6218.00,0.89
6217.00,0.89
6216.00,0.89
6215.00,0.89
6214.00,0.89
6213.00,0.89
6212.00,0.90
6211.00,0.90
6210.00,0.90
6209.00,0.90
6208.00,0.90
6207.00,0.90
6206.00,0.90
6205.00,0.90
6204.00,0.90
6203.00,0.90
6202.00,0.90
6201.00,0.90
6200.00,0.91
6199.00,0.91
6198.00,0.91
6197.00,0.91
6196.00,0.91
6195.00,0.91
6194.00,0.91
6193.00,0.91
6192.00,0.91
6191.00,0.91
6190.00,0.91
6189.00,0.92
6188.00,0.92
6187.00,0.92
6186.00,0.92
6185.00,0.92
6184.00,0.92
6183.00,0.92
6182.00,0.93
6181.00,0.93
6180.00,0.93
6179.00,0.93
6178.00,0.93
6177.00,0.93
6176.00,0.93
6175.00,0.93
6174.00,0.94
6173.00,0.94
6172.00,0.94
6171.00,0.94
6170.00,0.94
6169.00,0.94
6168.00,0.94
6167.00,0.94
6166.00,0.94
6165.00,0.94
6164.00,0.94
6163.00,0.95
6162.00,0.95
6161.00,0.95
6160.00,0.95
6159.00,0.95
6158.00,0.95
6157.00,0.95
6156.00,0.95
6155.00,0.96
6154.00,0.96
6153.00,0.96
6152.00,0.96
6151.00,0.96
6150.00,0.96
6149.00,0.96
6148.00,0.97
6147.00,0.97
6146.00,0.97
6145.00,0.97
6144.00,0.97
6143.00,0.97
6142.00,0.97
6141.00,0.98
6140.00,0.98
6139.00,0.98
6138.00,0.98
6137.00,0.98
6136.00,0.98
6135.00,0.98
6134.00,0.98
6133.00,0.98
6132.00,0.98
6131.00,0.99
6130.00,0.99
6129.00,0.99
6128.00,0.99
6127.00,0.99
6126.00,0.99
6125.00,0.99
6124.00,0.99
6123.00,0.99
6122.00,1.00
6121.00,1.00
6120.00,1.00
6119.00,1.00
6118.00,1.00
6117.00,1.00
6116.00,1.00
6115.00,1.00
6114.00,1.00
6113.00,1.01
6112.00,1.01
6111.00,1.01
6110.00,1.01
6109.00,1.01
6108.00,1.01
6107.00,1.01
6106.00,1.02
6105.00,1.02
6104.00,1.02
6103.00,1.02
6102.00,1.02
6101.00,1.02
6100.00,1.02
6099.00,1.02
6098.00,1.03
6097.00,1.03
6096.00,1.03
6095.00,1.03
6094.00,1.03
6093.00,1.03
6092.00,1.03
6091.00,1.03
6090.00,1.03
6089.00,1.03
6088.00,1.03
6087.00,1.03
6086.00,1.04
6085.00,1.04
6084.00,1.04
6083.00,1.04
6082.00,1.04
6081.00,1.04
6080.00,1.04
6079.00,1.04
6078.00,1.04
6077.00,1.04
6076.00,1.05
6075.00,1.05
6074.00,1.05
6073.00,1.05
6072.00,1.05
6071.00,1.05
6070.00,1.05
6069.00,1.06
6068.00,1.06
6067.00,1.06
6066.00,1.06
6065.00,1.06
6064.00,1.06
6063.00,1.06
6062.00,1.06
6061.00,1.06
6060.00,1.06
6059.00,1.06
6058.00,1.06
6057.00,1.06
6056.00,1.06
6055.00,1.06
6054.00,1.06
6053.00,1.06
6052.00,1.06
6051.00,1.06
6050.00,1.07
6049.00,1.07
6048.00,1.07
6047.00,1.07
6046.00,1.07
6045.00,1.07
6044.00,1.07
6043.00,1.07
6042.00,1.07
6041.00,1.07
6040.00,1.07
6039.00,1.07
6038.00,1.07
6037.00,1.07
6036.00,1.07
6035.00,1.07
6034.00,1.07
6033.00,1.07
6032.00,1.07
6031.00,1.07
6030.00,1.07
6029.00,1.07
6028.00,1.07
6027.00,1.07
6026.00,1.07
6025.00,1.07
6024.00,1.07
6023.00,1.07
6022.00,1.07
6021.00,1.07
6020.00,1.07
6019.00,1.07
6018.00,1.07
6017.00,1.07
6016.00,1.07
6015.00,1.07
6014.00,1.07
6013.00,1.07
6012.00,1.07
6011.00,1.07
6010.00,1.07
6009.00,1.07
6008.00,1.07
6007.00,1.07
6006.00,1.07
6005.00,1.07
6004.00,1.07
6003.00,1.07
6002.00,1.07
6001.00,1.07
6000.00,1.07
5999.00,1.07
5998.00,1.07
5997.00,1.07
5996.00,1.07
5995.00,1.06
5994.00,1.06
5993.00,1.06
5992.00,1.06
5991.00,1.06
5990.00,1.06
5989.00,1.06
5988.00,1.06
5987.00,1.05
5986.00,1.05
5985.00,1.05
5984.00,1.05
5983.00,1.05
5982.00,1.04
5981.00,1.04
5980.00,1.04
5979.00,1.04
5978.00,1.03
5977.00,1.03
5976.00,1.03
5975.00,1.02
5974.00,1.02
5973.00,1.02
5972.00,1.01
5971.00,1.01
5970.00,1.00
5969.00,1.00
5968.00,0.99
5967.00,0.99
5966.00,0.98
5965.00,0.98
5964.00,0.97
5963.00,0.97
5962.00,0.96
5961.00,0.96
5960.00,0.95
5959.00,0.95
5958.00,0.94
5957.00,0.94
5956.00,0.93
5955.00,0.93
5954.00,0.92
5953.00,0.91
5952.00,0.91
5951.00,0.91
5950.00,0.90
5949.00,0.90
5948.00,0.89
5947.00,0.89
5946.00,0.89
5945.00,0.88
5944.00,0.88
5943.00,0.88
5942.00,0.87
5941.00,0.87
5940.00,0.87
5939.00,0.87
5938.00,0.87
5937.00,0.87
5936.00,0.87
5935.00,0.86
5934.00,0.86
5933.00,0.86
5932.00,0.86
5931.00,0.86
5930.00,0.86
5929.00,0.86
5928.00,0.86
5927.00,0.86
5926.00,0.86
5925.00,0.86
5924.00,0.86
5923.00,0.86
5922.00,0.85
5921.00,0.85
5920.00,0.85
5919.00,0.85
5918.00,0.85
5917.00,0.85
5916.00,0.84
5915.00,0.84
5914.00,0.84
5913.00,0.84
5912.00,0.83
5911.00,0.83
5910.00,0.83
5909.00,0.83
5908.00,0.83
5907.00,0.83
5906.00,0.83
5905.00,0.83
5904.00,0.83
5903.00,0.83
5902.00,0.83
5901.00,0.83
5900.00,0.83
5899.00,0.83
5898.00,0.83
5897.00,0.83
5896.00,0.83
5895.00,0.83
5894.00,0.83
5893.00,0.83
5892.00,0.84
5891.00,0.84
5890.00,0.84
5889.00,0.84
5888.00,0.84
5887.00,0.85
5886.00,0.85
5885.00,0.85
5884.00,0.85
5883.00,0.85
5882.00,0.86
5881.00,0.86
5880.00,0.86
5879.00,0.86
5878.00,0.86
5877.00,0.87
5876.00,0.87
5875.00,0.87
5874.00,0.87
5873.00,0.87
5872.00,0.87
5871.00,0.88
5870.00,0.88
5869.00,0.88
5868.00,0.88
5867.00,0.88
5866.00,0.88
5865.00,0.89
5864.00,0.89
5863.00,0.89
5862.00,0.89
5861.00,0.89
5860.00,0.89
5859.00,0.89
5858.00,0.90
5857.00,0.90
5856.00,0.90
5855.00,0.90
5854.00,0.90
5853.00,0.90
5852.00,0.90
5851.00,0.90
5850.00,0.90
5849.00,0.90
5848.00,0.90
5847.00,0.90
5846.00,0.90
5845.00,0.90
5844.00,0.90
5843.00,0.90
5842.00,0.90
5841.00,0.90
5840.00,0.90
5839.00,0.90
5838.00,0.90
5837.00,0.90
5836.00,0.90
5835.00,0.90
5834.00,0.90
5833.00,0.90
5832.00,0.90
5831.00,0.90
5830.00,0.90
5829.00,0.90
5828.00,0.90
5827.00,0.90
5826.00,0.90
5825.00,0.90
5824.00,0.90
5823.00,0.90
5822.00,0.90
5821.00,0.90
5820.00,0.90
5819.00,0.90
5818.00,0.91
5817.00,0.91
5816.00,0.91
5815.00,0.91
5814.00,0.91
5813.00,0.91
5812.00,0.91
5811.00,0.91
5810.00,0.91
5809.00,0.91
5808.00,0.91
5807.00,0.91
5806.00,0.91
5805.00,0.91
5804.00,0.91
5803.00,0.91
5802.00,0.90
5801.00,0.90
5800.00,0.90
5799.00,0.90
5798.00,0.90
5797.00,0.90
5796.00,0.90
5795.00,0.89
5794.00,0.89
5793.00,0.89
5792.00,0.89
5791.00,0.89
5790.00,0.89
5789.00,0.88
5788.00,0.88
5787.00,0.88
5786.00,0.88
5785.00,0.88
5784.00,0.88
5783.00,0.87
5782.00,0.87
5781.00,0.87
5780.00,0.87
5779.00,0.87
5778.00,0.87
5777.00,0.87
5776.00,0.87
5775.00,0.87
5774.00,0.87
5773.00,0.87
5772.00,0.87
5771.00,0.87
5770.00,0.87
5769.00,0.87
5768.00,0.87
5767.00,0.87
5766.00,0.87
5765.00,0.87
5764.00,0.87
5763.00,0.88
5762.00,0.88
5761.00,0.88
5760.00,0.88
5759.00,0.88
5758.00,0.89
5757.00,0.89
5756.00,0.89
5755.00,0.89
5754.00,0.90
5753.00,0.90
5752.00,0.90
5751.00,0.90
5750.00,0.91
5749.00,0.91
5748.00,0.91
5747.00,0.92
5746.00,0.92
5745.00,0.92
5744.00,0.92
5743.00,0.93
5742.00,0.93
5741.00,0.93
5740.00,0.93
5739.00,0.94
5738.00,0.94
5737.00,0.94
5736.00,0.94
5735.00,0.94
5734.00,0.95
5733.00,0.95
5732.00,0.95
5731.00,0.95
5730.00,0.95
5729.00,0.95
5728.00,0.95
5727.00,0.95
5726.00,0.95
5725.00,0.95
5724.00,0.95
5723.00,0.95
5722.00,0.95
5721.00,0.95
5720.00,0.95
5719.00,0.95
5718.00,0.95
5717.00,0.95
5716.00,0.95
5715.00,0.95
5714.00,0.95
5713.00,0.95
5712.00,0.95
5711.00,0.95
5710.00,0.95
5709.00,0.95
5708.00,0.95
5707.00,0.95
5706.00,0.95
5705.00,0.95
5704.00,0.95
5703.00,0.95
5702.00,0.95
5701.00,0.95
5700.00,0.95
5699.00,0.95
5698.00,0.95
5697.00,0.94
5696.00,0.94
5695.00,0.94
5694.00,0.94
5693.00,0.94
5692.00,0.94
5691.00,0.94
5690.00,0.94
5689.00,0.94
5688.00,0.94
5687.00,0.93
5686.00,0.93
5685.00,0.93
5684.00,0.93
5683.00,0.93
5682.00,0.93
5681.00,0.93
5680.00,0.93
5679.00,0.93
5678.00,0.93
5677.00,0.93
5676.00,0.93
5675.00,0.93
5674.00,0.93
5673.00,0.93
5672.00,0.93
5671.00,0.93
5670.00,0.93
5669.00,0.93
5668.00,0.93
5667.00,0.93
5666.00,0.93
5665.00,0.94
5664.00,0.94
5663.00,0.94
5662.00,0.94
5661.00,0.94
5660.00,0.94
5659.00,0.94
5658.00,0.94
5657.00,0.94
5656.00,0.95
5655.00,0.95
5654.00,0.95
5653.00,0.95
5652.00,0.95
5651.00,0.95
5650.00,0.95
5649.00,0.95
5648.00,0.96
5647.00,0.96
5646.00,0.96
5645.00,0.96
5644.00,0.96
5643.00,0.96
5642.00,0.96
5641.00,0.97
5640.00,0.97
5639.00,0.97
5638.00,0.97
5637.00,0.97
5636.00,0.97
5635.00,0.98
5634.00,0.98
5633.00,0.98
5632.00,0.98
5631.00,0.98
5630.00,0.98
5629.00,0.98
5628.00,0.98
5627.00,0.98
5626.00,0.99
5625.00,0.99
5624.00,0.99
5623.00,0.99
5622.00,0.99
5621.00,0.99
5620.00,0.99
5619.00,0.99
5618.00,1.00
5617.00,1.00
5616.00,1.00
5615.00,1.00
5614.00,1.00
5613.00,1.00
5612.00,1.00
5611.00,1.00
5610.00,1.01
5609.00,1.01
5608.00,1.01
5607.00,1.01
5606.00,1.01
5605.00,1.01
5604.00,1.01
5603.00,1.01
5602.00,1.02
5601.00,1.02
5600.00,1.02
5599.00,1.02
5598.00,1.02
5597.00,1.02
5596.00,1.02
5595.00,1.03
5594.00,1.03
5593.00,1.03
5592.00,1.03
5591.00,1.03
5590.00,1.03
5589.00,1.03
5588.00,1.04
5587.00,1.04
5586.00,1.04
5585.00,1.04
5584.00,1.04
5583.00,1.04
5582.00,1.04
5581.00,1.04
5580.00,1.05
5579.00,1.05
5578.00,1.05
5577.00,1.05
5576.00,1.05
5575.00,1.05
5574.00,1.05
5573.00,1.05
5572.00,1.05
5571.00,1.06
5570.00,1.06
5569.00,1.06
5568.00,1.06
5567.00,1.06
5566.00,1.06
5565.00,1.06
5564.00,1.06
5563.00,1.06
5562.00,1.06
5561.00,1.06
5560.00,1.07
5559.00,1.07
5558.00,1.07
5557.00,1.07
5556.00,1.07
5555.00,1.07
5554.00,1.07
5553.00,1.07
5552.00,1.07
5551.00,1.08
5550.00,1.08
5549.00,1.08
5548.00,1.08
5547.00,1.08
5546.00,1.08
5545.00,1.08
5544.00,1.08
5543.00,1.08
5542.00,1.08
5541.00,1.08
5540.00,1.09
5539.00,1.09
5538.00,1.09
5537.00,1.09
5536.00,1.09
5535.00,1.09
5534.00,1.09
5533.00,1.09
5532.00,1.09
5531.00,1.09
5530.00,1.09
5529.00,1.09
5528.00,1.10
5527.00,1.10
5526.00,1.10
5525.00,1.10
5524.00,1.10
5523.00,1.10
5522.00,1.10
5521.00,1.10
5520.00,1.10
5519.00,1.10
5518.00,1.10
5517.00,1.10
5516.00,1.10
5515.00,1.10
5514.00,1.10
5513.00,1.11
5512.00,1.11
5511.00,1.11
5510.00,1.11
5509.00,1.11
5508.00,1.11
5507.00,1.11
5506.00,1.11
5505.00,1.11
5504.00,1.11
5503.00,1.11
5502.00,1.11
5501.00,1.11
5500.00,1.11
5499.00,1.11
5498.00,1.11
5497.00,1.11
5496.00,1.11
5495.00,1.11
5494.00,1.11
5493.00,1.12
5492.00,1.12
5491.00,1.12
5490.00,1.12
5489.00,1.12
5488.00,1.12
5487.00,1.12
5486.00,1.12
5485.00,1.12
5484.00,1.12
5483.00,1.12
5482.00,1.12
5481.00,1.13
5480.00,1.13
5479.00,1.13
5478.00,1.13
5477.00,1.13
5476.00,1.13
5475.00,1.13
5474.00,1.13
5473.00,1.13
5472.00,1.13
5471.00,1.14
5470.00,1.14
5469.00,1.14
5468.00,1.14
5467.00,1.14
5466.00,1.14
5465.00,1.14
5464.00,1.14
5463.00,1.14
5462.00,1.14
5461.00,1.14
5460.00,1.14
5459.00,1.15
5458.00,1.15
5457.00,1.15
5456.00,1.15
5455.00,1.15
5454.00,1.15
5453.00,1.15
5452.00,1.15
5451.00,1.15
5450.00,1.15
5449.00,1.15
5448.00,1.15
5447.00,1.15
5446.00,1.15
5445.00,1.15
5444.00,1.15
5443.00,1.15
5442.00,1.16
5441.00,1.16
5440.00,1.16
5439.00,1.16
5438.00,1.16
5437.00,1.16
5436.00,1.16
5435.00,1.16
5434.00,1.16
5433.00,1.16
5432.00,1.16
5431.00,1.16
5430.00,1.16
5429.00,1.16
5428.00,1.16
5427.00,1.16
5426.00,1.16
5425.00,1.16
5424.00,1.16
5423.00,1.16
5422.00,1.16
5421.00,1.16
5420.00,1.16
5419.00,1.16
5418.00,1.16
5417.00,1.16
5416.00,1.16
5415.00,1.16
5414.00,1.16
5413.00,1.16
5412.00,1.16
5411.00,1.16
5410.00,1.16
5409.00,1.16
5408.00,1.16
5407.00,1.16
5406.00,1.16
5405.00,1.16
5404.00,1.16
5403.00,1.16
5402.00,1.16
5401.00,1.16
5400.00,1.16
5399.00,1.16
5398.00,1.15
5397.00,1.15
5396.00,1.15
5395.00,1.15
5394.00,1.15
5393.00,1.15
5392.00,1.15
5391.00,1.15
5390.00,1.14
5389.00,1.14
5388.00,1.14
5387.00,1.14
5386.00,1.14
5385.00,1.13
5384.00,1.13
5383.00,1.13
5382.00,1.13
5381.00,1.12
5380.00,1.12
5379.00,1.12
5378.00,1.12
5377.00,1.11
5376.00,1.11
5375.00,1.11
5374.00,1.11
5373.00,1.10
5372.00,1.10
5371.00,1.10
5370.00,1.09
5369.00,1.09
5368.00,1.08
5367.00,1.08
5366.00,1.08
5365.00,1.07
5364.00,1.07
5363.00,1.06
5362.00,1.06
5361.00,1.05
5360.00,1.05
5359.00,1.04
5358.00,1.03
5357.00,1.03
5356.00,1.02
5355.00,1.02
5354.00,1.01
5353.00,1.00
5352.00,1.00
5351.00,0.99
5350.00,0.98
5349.00,0.97
5348.00,0.97
5347.00,0.96
5346.00,0.95
5345.00,0.94
5344.00,0.94
5343.00,0.93
5342.00,0.92
5341.00,0.91
5340.00,0.91
5339.00,0.90
5338.00,0.89
5337.00,0.88
5336.00,0.88
5335.00,0.87
5334.00,0.86
5333.00,0.85
5332.00,0.85
5331.00,0.84
5330.00,0.83
5329.00,0.82
5328.00,0.82
5327.00,0.81
5326.00,0.80
5325.00,0.79
5324.00,0.79
5323.00,0.78
5322.00,0.77
5321.00,0.77
5320.00,0.76
5319.00,0.75
5318.00,0.75
5317.00,0.74
5316.00,0.73
5315.00,0.73
5314.00,0.72
5313.00,0.72
5312.00,0.71
5311.00,0.70
5310.00,0.70
5309.00,0.69
5308.00,0.69
5307.00,0.68
5306.00,0.68
5305.00,0.67
5304.00,0.67
5303.00,0.67
5302.00,0.66
5301.00,0.66
5300.00,0.66
5299.00,0.65
5298.00,0.65
5297.00,0.65
5296.00,0.64
5295.00,0.64
5294.00,0.64
5293.00,0.64
5292.00,0.63
5291.00,0.63
5290.00,0.63
5289.00,0.63
5288.00,0.63
5287.00,0.62
5286.00,0.62
5285.00,0.62
5284.00,0.62
5283.00,0.62
5282.00,0.62
5281.00,0.62
5280.00,0.62
5279.00,0.62
5278.00,0.62
5277.00,0.62
5276.00,0.62
5275.00,0.62
5274.00,0.61
5273.00,0.61
5272.00,0.61
5271.00,0.61
5270.00,0.61
5269.00,0.61
5268.00,0.61
5267.00,0.61
5266.00,0.61
5265.00,0.61
5264.00,0.61
5263.00,0.61
5262.00,0.61
5261.00,0.61
5260.00,0.61
5259.00,0.61
5258.00,0.61
5257.00,0.61
5256.00,0.61
5255.00,0.61
5254.00,0.62
5253.00,0.62
5252.00,0.62
5251.00,0.62
5250.00,0.62
5249.00,0.62
5248.00,0.62
5247.00,0.62
5246.00,0.62
5245.00,0.62
5244.00,0.62
5243.00,0.62
5242.00,0.62
5241.00,0.62
5240.00,0.62
5239.00,0.62
5238.00,0.62
5237.00,0.62
5236.00,0.62
5235.00,0.62
5234.00,0.62
5233.00,0.62
5232.00,0.62
5231.00,0.62
5230.00,0.63
5229.00,0.63
5228.00,0.63
5227.00,0.63
5226.00,0.63
5225.00,0.63
5224.00,0.63
5223.00,0.63
5222.00,0.63
5221.00,0.63
5220.00,0.63
5219.00,0.63
5218.00,0.63
5217.00,0.63
5216.00,0.63
5215.00,0.63
5214.00,0.63
5213.00,0.63
5212.00,0.63
5211.00,0.63
5210.00,0.63
5209.00,0.63
5208.00,0.63
5207.00,0.63
5206.00,0.63
5205.00,0.63
5204.00,0.63
5203.00,0.63
5202.00,0.63
5201.00,0.63
5200.00,0.63
5199.00,0.63
5198.00,0.63
5197.00,0.63
5196.00,0.63
5195.00,0.63
5194.00,0.63
5193.00,0.63
5192.00,0.63
5191.00,0.63
5190.00,0.63
5189.00,0.63
5188.00,0.63
5187.00,0.63
5186.00,0.63
5185.00,0.63
5184.00,0.63
5183.00,0.63
5182.00,0.63
5181.00,0.63
5180.00,0.63
5179.00,0.63
5178.00,0.63
5177.00,0.63
5176.00,0.64
5175.00,0.64
5174.00,0.64
5173.00,0.64
5172.00,0.64
5171.00,0.64
5170.00,0.64
5169.00,0.64
5168.00,0.64
5167.00,0.64
5166.00,0.64
5165.00,0.64
5164.00,0.64
5163.00,0.64
5162.00,0.64
5161.00,0.64
5160.00,0.64
5159.00,0.64
5158.00,0.64
5157.00,0.64
5156.00,0.65
5155.00,0.65
5154.00,0.65
5153.00,0.65
5152.00,0.65
5151.00,0.65
5150.00,0.65
5149.00,0.65
5148.00,0.65
5147.00,0.65
5146.00,0.65
5145.00,0.65
5144.00,0.65
5143.00,0.65
5142.00,0.65
5141.00,0.65
5140.00,0.65
5139.00,0.65
5138.00,0.65
5137.00,0.65
5136.00,0.65
5135.00,0.65
5134.00,0.65
5133.00,0.65
5132.00,0.65
5131.00,0.65
5130.00,0.65
5129.00,0.65
5128.00,0.65
5127.00,0.65
5126.00,0.65
5125.00,0.65
5124.00,0.65
5123.00,0.65
5122.00,0.65
5121.00,0.65
5120.00,0.66
5119.00,0.66
5118.00,0.66
5117.00,0.66
5116.00,0.66
5115.00,0.66
5114.00,0.66
5113.00,0.66
5112.00,0.66
5111.00,0.66
5110.00,0.66
5109.00,0.66
5108.00,0.66
5107.00,0.66
5106.00,0.66
5105.00,0.66
5104.00,0.66
5103.00,0.66
5102.00,0.66
5101.00,0.66
5100.00,0.66
5099.00,0.67
5098.00,0.67
5097.00,0.67
5096.00,0.67
5095.00,0.67
5094.00,0.67
5093.00,0.67
5092.00,0.67
5091.00,0.67
5090.00,0.67
5089.00,0.67
5088.00,0.67
5087.00,0.67
5086.00,0.67
5085.00,0.67
5084.00,0.67
5083.00,0.67
5082.00,0.67
5081.00,0.67
5080.00,0.67
5079.00,0.67
5078.00,0.67
5077.00,0.67
5076.00,0.68
5075.00,0.68
5074.00,0.68
5073.00,0.68
5072.00,0.68
5071.00,0.68
5070.00,0.68
5069.00,0.68
5068.00,0.68
5067.00,0.68
5066.00,0.68
5065.00,0.68
5064.00,0.68
5063.00,0.68
5062.00,0.68
5061.00,0.68
5060.00,0.68
5059.00,0.68
5058.00,0.68
5057.00,0.68
5056.00,0.69
5055.00,0.69
5054.00,0.69
5053.00,0.69
5052.00,0.69
5051.00,0.69
5050.00,0.69
5049.00,0.69
5048.00,0.69
5047.00,0.69
5046.00,0.69
5045.00,0.69
5044.00,0.69
5043.00,0.69
5042.00,0.69
5041.00,0.69
5040.00,0.69
5039.00,0.69
5038.00,0.69
5037.00,0.69
5036.00,0.69
5035.00,0.69
5034.00,0.69
5033.00,0.69
5032.00,0.69
5031.00,0.69
5030.00,0.69
5029.00,0.69
5028.00,0.69
5027.00,0.70
5026.00,0.70
5025.00,0.70
5024.00,0.70
5023.00,0.70
5022.00,0.70
5021.00,0.70
5020.00,0.70
5019.00,0.70
5018.00,0.70
5017.00,0.70
5016.00,0.70
5015.00,0.70
5014.00,0.70
5013.00,0.70
5012.00,0.70
5011.00,0.70
5010.00,0.70
5009.00,0.70
5008.00,0.70
5007.00,0.70
5006.00,0.70
5005.00,0.70
5004.00,0.70
5003.00,0.71
5002.00,0.71
5001.00,0.71
5000.00,0.71
4999.00,0.71
4998.00,0.71
4997.00,0.71
4996.00,0.71
4995.00,0.71
4994.00,0.71
4993.00,0.71
4992.00,0.72
4991.00,0.72
4990.00,0.72
4989.00,0.72
4988.00,0.72
4987.00,0.72
4986.00,0.72
4985.00,0.72
4984.00,0.72
4983.00,0.72
4982.00,0.72
4981.00,0.72
4980.00,0.72
4979.00,0.72
4978.00,0.72
4977.00,0.72
4976.00,0.72
4975.00,0.72
4974.00,0.72
4973.00,0.72
4972.00,0.73
4971.00,0.73
4970.00,0.73
4969.00,0.73
4968.00,0.73
4967.00,0.73
4966.00,0.73
4965.00,0.73
4964.00,0.73
4963.00,0.73
4962.00,0.73
4961.00,0.73
4960.00,0.73
4959.00,0.74
4958.00,0.74
4957.00,0.74
4956.00,0.74
4955.00,0.74
4954.00,0.74
4953.00,0.74
4952.00,0.74
4951.00,0.74
4950.00,0.74
4949.00,0.74
4948.00,0.74
4947.00,0.74
4946.00,0.74
4945.00,0.74
4944.00,0.74
4943.00,0.74
4942.00,0.74
4941.00,0.75
4940.00,0.75
4939.00,0.75
4938.00,0.75
4937.00,0.75
4936.00,0.75
4935.00,0.75
4934.00,0.75
4933.00,0.75
4932.00,0.75
4931.00,0.75
4930.00,0.75
4929.00,0.75
4928.00,0.75
4927.00,0.75
4926.00,0.75
4925.00,0.75
4924.00,0.75
4923.00,0.75
4922.00,0.75
4921.00,0.75
4920.00,0.76
4919.00,0.76
4918.00,0.76
4917.00,0.76
4916.00,0.76
4915.00,0.76
4914.00,0.76
4913.00,0.76
4912.00,0.76
4911.00,0.76
4910.00,0.76
4909.00,0.76
4908.00,0.76
4907.00,0.76
4906.00,0.76
4905.00,0.76
4904.00,0.76
4903.00,0.76
4902.00,0.76
4901.00,0.76
4900.00,0.76
4899.00,0.76
4898.00,0.77
4897.00,0.77
4896.00,0.77
4895.00,0.77
4894.00,0.77
4893.00,0.77
4892.00,0.77
4891.00,0.77
4890.00,0.77
4889.00,0.77
4888.00,0.77
4887.00,0.77
4886.00,0.78
4885.00,0.78
4884.00,0.78
4883.00,0.78
4882.00,0.78
4881.00,0.78
4880.00,0.78
4879.00,0.78
4878.00,0.78
4877.00,0.78
4876.00,0.78
4875.00,0.78
4874.00,0.78
4873.00,0.78
4872.00,0.78
4871.00,0.78
4870.00,0.78
4869.00,0.78
4868.00,0.78
4867.00,0.78
4866.00,0.78
4865.00,0.78
4864.00,0.78
4863.00,0.78
4862.00,0.78
4861.00,0.78
4860.00,0.78
4859.00,0.78
4858.00,0.78
4857.00,0.78
4856.00,0.78
4855.00,0.78
4854.00,0.79
4853.00,0.79
4852.00,0.79
4851.00,0.79
4850.00,0.79
4849.00,0.79
4848.00,0.79
4847.00,0.79
4846.00,0.79
4845.00,0.79
4844.00,0.79
4843.00,0.79
4842.00,0.79
4841.00,0.79
4840.00,0.79
4839.00,0.79
4838.00,0.79
4837.00,0.79
4836.00,0.79
4835.00,0.80
4834.00,0.80
4833.00,0.80
4832.00,0.80
4831.00,0.80
4830.00,0.80
4829.00,0.80
4828.00,0.80
4827.00,0.80
4826.00,0.80
4825.00,0.80
4824.00,0.80
4823.00,0.80
4822.00,0.80
4821.00,0.80
4820.00,0.80
4819.00,0.80
4818.00,0.80
4817.00,0.80
4816.00,0.80
4815.00,0.81
4814.00,0.81
4813.00,0.81
4812.00,0.81
4811.00,0.81
4810.00,0.81
4809.00,0.81
4808.00,0.81
4807.00,0.82
4806.00,0.82
4805.00,0.82
4804.00,0.82
4803.00,0.82
4802.00,0.82
4801.00,0.82
4800.00,0.82
4799.00,0.82
4798.00,0.83
4797.00,0.83
4796.00,0.83
4795.00,0.83
4794.00,0.83
4793.00,0.83
4792.00,0.83
4791.00,0.83
4790.00,0.83
4789.00,0.83
4788.00,0.83
4787.00,0.83
4786.00,0.83
4785.00,0.83
4784.00,0.83
4783.00,0.83
4782.00,0.83
4781.00,0.83
4780.00,0.83
4779.00,0.83
4778.00,0.83
4777.00,0.83
4776.00,0.83
4775.00,0.84
4774.00,0.84
4773.00,0.84
4772.00,0.84
4771.00,0.84
4770.00,0.84
4769.00,0.84
4768.00,0.85
4767.00,0.85
4766.00,0.85
4765.00,0.85
4764.00,0.85
4763.00,0.85
4762.00,0.85
4761.00,0.85
4760.00,0.85
4759.00,0.86
4758.00,0.86
4757.00,0.86
4756.00,0.86
4755.00,0.86
4754.00,0.86
4753.00,0.86
4752.00,0.86
4751.00,0.86
4750.00,0.86
4749.00,0.86
4748.00,0.86
4747.00,0.87
4746.00,0.87
4745.00,0.87
4744.00,0.87
4743.00,0.87
4742.00,0.87
4741.00,0.87
4740.00,0.87
4739.00,0.88
4738.00,0.88
4737.00,0.88
4736.00,0.88
4735.00,0.88
4734.00,0.88
4733.00,0.88
4732.00,0.89
4731.00,0.89
4730.00,0.89
4729.00,0.89
4728.00,0.89
4727.00,0.89
4726.00,0.89
4725.00,0.89
4724.00,0.89
4723.00,0.89
4722.00,0.89
4721.00,0.90
4720.00,0.90
4719.00,0.90
4718.00,0.90
4717.00,0.90
4716.00,0.90
4715.00,0.90
4714.00,0.90
4713.00,0.90
4712.00,0.90
4711.00,0.90
4710.00,0.90
4709.00,0.90
4708.00,0.91
4707.00,0.91
4706.00,0.91
4705.00,0.91
4704.00,0.91
4703.00,0.91
4702.00,0.91
4701.00,0.92
4700.00,0.92
4699.00,0.92
4698.00,0.92
4697.00,0.92
4696.00,0.93
4695.00,0.93
4694.00,0.93
4693.00,0.93
4692.00,0.93
4691.00,0.93
4690.00,0.93
4689.00,0.94
4688.00,0.94
4687.00,0.94
4686.00,0.94
4685.00,0.94
4684.00,0.94
4683.00,0.95
4682.00,0.95
4681.00,0.95
4680.00,0.95
4679.00,0.95
4678.00,0.95
4677.00,0.95
4676.00,0.95
4675.00,0.96
4674.00,0.96
4673.00,0.96
4672.00,0.96
4671.00,0.96
4670.00,0.96
4669.00,0.96
4668.00,0.96
4667.00,0.96
4666.00,0.96
4665.00,0.96
4664.00,0.96
4663.00,0.96
4662.00,0.97
4661.00,0.97
4660.00,0.97
4659.00,0.97
4658.00,0.97
4657.00,0.97
4656.00,0.97
4655.00,0.97
4654.00,0.97
4653.00,0.97
4652.00,0.97
4651.00,0.97
4650.00,0.97
4649.00,0.98
4648.00,0.98
4647.00,0.98
4646.00,0.98
4645.00,0.98
4644.00,0.98
4643.00,0.98
4642.00,0.98
4641.00,0.98
4640.00,0.98
4639.00,0.98
4638.00,0.98
4637.00,0.98
4636.00,0.98
4635.00,0.99
4634.00,0.99
4633.00,0.99
4632.00,0.99
4631.00,0.99
4630.00,0.99
4629.00,0.99
4628.00,0.99
4627.00,0.99
4626.00,0.99
4625.00,1.00
4624.00,1.00
4623.00,1.00
4622.00,1.00
4621.00,1.00
4620.00,1.00
4619.00,1.00
4618.00,1.00
4617.00,1.00
4616.00,1.00
4615.00,1.00
4614.00,1.00
4613.00,1.00
4612.00,1.00
4611.00,1.00
4610.00,1.00
4609.00,1.00
4608.00,1.01
4607.00,1.01
4606.00,1.01
4605.00,1.01
4604.00,1.01
4603.00,1.01
4602.00,1.01
4601.00,1.01
4600.00,1.01
4599.00,1.01
4598.00,1.01
4597.00,1.01
4596.00,1.01
4595.00,1.01
4594.00,1.01
4593.00,1.01
4592.00,1.01
4591.00,1.02
4590.00,1.02
4589.00,1.02
4588.00,1.02
4587.00,1.02
4586.00,1.02
4585.00,1.02
4584.00,1.02
4583.00,1.02
4582.00,1.02
4581.00,1.03
4580.00,1.03
4579.00,1.03
4578.00,1.03
4577.00,1.03
4576.00,1.03
4575.00,1.03
4574.00,1.04
4573.00,1.04
4572.00,1.04
4571.00,1.04
4570.00,1.04
4569.00,1.04
4568.00,1.04
4567.00,1.04
4566.00,1.04
4565.00,1.04
4564.00,1.04
4563.00,1.04
4562.00,1.05
4561.00,1.05
4560.00,1.05
4559.00,1.05
4558.00,1.05
4557.00,1.05
4556.00,1.05
4555.00,1.05
4554.00,1.05
4553.00,1.05
4552.00,1.05
4551.00,1.05
4550.00,1.05
4549.00,1.05
4548.00,1.05
4547.00,1.05
4546.00,1.05
4545.00,1.05
4544.00,1.06
4543.00,1.06
4542.00,1.06
4541.00,1.06
4540.00,1.06
4539.00,1.06
4538.00,1.06
4537.00,1.06
4536.00,1.06
4535.00,1.06
4534.00,1.06
4533.00,1.06
4532.00,1.06
4531.00,1.06
4530.00,1.06
4529.00,1.06
4528.00,1.06
4527.00,1.06
4526.00,1.06
4525.00,1.06
4524.00,1.06
4523.00,1.06
4522.00,1.06
4521.00,1.06
4520.00,1.06
4519.00,1.06
4518.00,1.06
4517.00,1.06
4516.00,1.06
4515.00,1.06
4514.00,1.06
4513.00,1.06
4512.00,1.06
4511.00,1.06
4510.00,1.06
4509.00,1.06
4508.00,1.06
4507.00,1.06
4506.00,1.06
4505.00,1.06
4504.00,1.06
4503.00,1.06
4502.00,1.06
4501.00,1.06
4500.00,1.06
4499.00,1.06
4498.00,1.06
4497.00,1.05
4496.00,1.05
4495.00,1.05
4494.00,1.05
4493.00,1.05
4492.00,1.05
4491.00,1.05
4490.00,1.05
4489.00,1.05
4488.00,1.05
4487.00,1.05
4486.00,1.05
4485.00,1.05
4484.00,1.05
4483.00,1.05
4482.00,1.04
4481.00,1.04
4480.00,1.04
4479.00,1.04
4478.00,1.04
4477.00,1.04
4476.00,1.03
4475.00,1.03
4474.00,1.03
4473.00,1.03
4472.00,1.03
4471.00,1.03
4470.00,1.02
4469.00,1.02
4468.00,1.02
4467.00,1.02
4466.00,1.02
4465.00,1.02
4464.00,1.01
4463.00,1.01
4462.00,1.01
4461.00,1.01
4460.00,1.01
4459.00,1.01
4458.00,1.00
4457.00,1.00
4456.00,1.00
4455.00,1.00
4454.00,1.00
4453.00,0.99
4452.00,0.99
4451.00,0.99
4450.00,0.99
4449.00,0.98
4448.00,0.98
4447.00,0.98
4446.00,0.98
4445.00,0.97
4444.00,0.97
4443.00,0.97
4442.00,0.97
4441.00,0.96
4440.00,0.96
4439.00,0.96
4438.00,0.96
4437.00,0.96
4436.00,0.95
4435.00,0.95
4434.00,0.95
4433.00,0.95
4432.00,0.95
4431.00,0.95
4430.00,0.95
4429.00,0.95
4428.00,0.95
4427.00,0.95
4426.00,0.95
4425.00,0.95
4424.00,0.95
4423.00,0.94
4422.00,0.94
4421.00,0.94
4420.00,0.94
4419.00,0.94
4418.00,0.94
4417.00,0.94
4416.00,0.94
4415.00,0.94
4414.00,0.94
4413.00,0.94
4412.00,0.94
4411.00,0.94
4410.00,0.94
4409.00,0.94
4408.00,0.94
4407.00,0.94
4406.00,0.94
4405.00,0.94
4404.00,0.94
4403.00,0.94
4402.00,0.94
4401.00,0.94
4400.00,0.95
4399.00,0.95
4398.00,0.95
4397.00,0.95
4396.00,0.95
4395.00,0.95
4394.00,0.95
4393.00,0.95
4392.00,0.95
4391.00,0.95
4390.00,0.95
4389.00,0.95
4388.00,0.95
4387.00,0.95
4386.00,0.95
4385.00,0.95
4384.00,0.95
4383.00,0.95
4382.00,0.95
4381.00,0.96
4380.00,0.96
4379.00,0.96
4378.00,0.96
4377.00,0.96
4376.00,0.96
4375.00,0.96
4374.00,0.96
4373.00,0.96
4372.00,0.96
4371.00,0.96
4370.00,0.96
4369.00,0.97
4368.00,0.97
4367.00,0.97
4366.00,0.97
4365.00,0.97
4364.00,0.97
4363.00,0.97
4362.00,0.97
4361.00,0.97
4360.00,0.97
4359.00,0.97
4358.00,0.97
4357.00,0.97
4356.00,0.98
4355.00,0.98
4354.00,0.98
4353.00,0.98
4352.00,0.98
4351.00,0.98
4350.00,0.98
4349.00,0.98
4348.00,0.98
4347.00,0.98
4346.00,0.98
4345.00,0.98
4344.00,0.97
4343.00,0.97
4342.00,0.97
4341.00,0.97
4340.00,0.97
4339.00,0.97
4338.00,0.97
4337.00,0.97
4336.00,0.97
4335.00,0.97
4334.00,0.98
4333.00,0.98
4332.00,0.98
4331.00,0.98
4330.00,0.98
4329.00,0.98
4328.00,0.98
4327.00,0.98
4326.00,0.98
4325.00,0.98
4324.00,0.98
4323.00,0.98
4322.00,0.98
4321.00,0.99
4320.00,0.99
4319.00,0.99
4318.00,0.99
4317.00,0.99
4316.00,0.99
4315.00,1.00
4314.00,1.00
4313.00,1.00
4312.00,1.00
4311.00,1.01
4310.00,1.01
4309.00,1.01
4308.00,1.01
4307.00,1.01
4306.00,1.02
4305.00,1.02
4304.00,1.02
4303.00,1.02
4302.00,1.02
4301.00,1.02
4300.00,1.02
4299.00,1.02
4298.00,1.02
4297.00,1.02
4296.00,1.03
4295.00,1.03
4294.00,1.03
4293.00,1.03
4292.00,1.03
4291.00,1.03
4290.00,1.03
4289.00,1.03
4288.00,1.03
4287.00,1.03
4286.00,1.03
4285.00,1.03
4284.00,1.03
4283.00,1.03
4282.00,1.03
4281.00,1.03
4280.00,1.03
4279.00,1.03
4278.00,1.02
4277.00,1.02
4276.00,1.02
4275.00,1.02
4274.00,1.02
4273.00,1.02
4272.00,1.02
4271.00,1.02
4270.00,1.02
4269.00,1.02
4268.00,1.02
4267.00,1.02
4266.00,1.02
4265.00,1.02
4264.00,1.02
4263.00,1.02
4262.00,1.02
4261.00,1.02
4260.00,1.02
4259.00,1.02
4258.00,1.02
4257.00,1.02
4256.00,1.02
4255.00,1.02
4254.00,1.02
4253.00,1.02
4252.00,1.02
4251.00,1.02
4250.00,1.02
4249.00,1.03
4248.00,1.03
4247.00,1.03
4246.00,1.03
4245.00,1.03
4244.00,1.03
4243.00,1.03
4242.00,1.04
4241.00,1.04
4240.00,1.04
4239.00,1.04
4238.00,1.04
4237.00,1.04
4236.00,1.04
4235.00,1.05
4234.00,1.05
4233.00,1.05
4232.00,1.05
4231.00,1.05
4230.00,1.05
4229.00,1.05
4228.00,1.05
4227.00,1.05
4226.00,1.05
4225.00,1.05
4224.00,1.05
4223.00,1.05
4222.00,1.05
4221.00,1.05
4220.00,1.05
4219.00,1.06
4218.00,1.06
4217.00,1.06
4216.00,1.06
4215.00,1.06
4214.00,1.06
4213.00,1.06
4212.00,1.06
4211.00,1.06
4210.00,1.06
4209.00,1.06
4208.00,1.06
4207.00,1.06
4206.00,1.06
4205.00,1.06
4204.00,1.06
4203.00,1.06
4202.00,1.06
4201.00,1.06
4200.00,1.06
4199.00,1.06
4198.00,1.06
4197.00,1.06
4196.00,1.07
4195.00,1.07
4194.00,1.07
4193.00,1.07
4192.00,1.07
4191.00,1.07
4190.00,1.07
4189.00,1.07
4188.00,1.07
4187.00,1.07
4186.00,1.07
4185.00,1.08
4184.00,1.08
4183.00,1.08
4182.00,1.08
4181.00,1.08
4180.00,1.08
4179.00,1.08
4178.00,1.08
4177.00,1.07
4176.00,1.07
4175.00,1.07
4174.00,1.07
4173.00,1.07
4172.00,1.07
4171.00,1.07
4170.00,1.07
4169.00,1.07
4168.00,1.07
4167.00,1.07
4166.00,1.07
4165.00,1.07
4164.00,1.07
4163.00,1.07
4162.00,1.07
4161.00,1.07
4160.00,1.07
4159.00,1.07
4158.00,1.08
4157.00,1.08
4156.00,1.08
4155.00,1.08
4154.00,1.08
4153.00,1.08
4152.00,1.09
4151.00,1.09
4150.00,1.09
4149.00,1.09
4148.00,1.09
4147.00,1.10
4146.00,1.10
4145.00,1.10
4144.00,1.10
4143.00,1.10
4142.00,1.10
4141.00,1.10
4140.00,1.10
4139.00,1.10
4138.00,1.10
4137.00,1.10
4136.00,1.10
4135.00,1.10
4134.00,1.10
4133.00,1.10
4132.00,1.10
4131.00,1.10
4130.00,1.10
4129.00,1.10
4128.00,1.10
4127.00,1.10
4126.00,1.10
4125.00,1.10
4124.00,1.10
4123.00,1.10
4122.00,1.10
4121.00,1.10
4120.00,1.10
4119.00,1.10
4118.00,1.10
4117.00,1.10
4116.00,1.10
4115.00,1.10
4114.00,1.10
4113.00,1.10
4112.00,1.10
4111.00,1.10
4110.00,1.10
4109.00,1.10
4108.00,1.10
4107.00,1.10
4106.00,1.10
4105.00,1.10
4104.00,1.10
4103.00,1.10
4102.00,1.10
4101.00,1.10
4100.00,1.10
4099.00,1.10
4098.00,1.10
4097.00,1.10
4096.00,1.11
4095.00,1.11
4094.00,1.11
4093.00,1.11
4092.00,1.11
4091.00,1.11
4090.00,1.11
4089.00,1.11
4088.00,1.11
4087.00,1.11
4086.00,1.11
4085.00,1.11
4084.00,1.11
4083.00,1.11
4082.00,1.11
4081.00,1.11
4080.00,1.11
4079.00,1.11
4078.00,1.11
4077.00,1.11
4076.00,1.12
4075.00,1.12
4074.00,1.12
4073.00,1.12
4072.00,1.12
4071.00,1.12
4070.00,1.12
4069.00,1.12
4068.00,1.12
4067.00,1.12
4066.00,1.12
4065.00,1.13
4064.00,1.13
4063.00,1.13
4062.00,1.13
4061.00,1.13
4060.00,1.13
4059.00,1.13
4058.00,1.13
4057.00,1.13
4056.00,1.13
4055.00,1.13
4054.00,1.13
4053.00,1.14
4052.00,1.14
4051.00,1.14
4050.00,1.14
4049.00,1.14
4048.00,1.14
4047.00,1.14
4046.00,1.14
4045.00,1.14
4044.00,1.14
4043.00,1.14
4042.00,1.14
4041.00,1.14
4040.00,1.14
4039.00,1.14
4038.00,1.14
4037.00,1.14
4036.00,1.14
4035.00,1.14
4034.00,1.14
4033.00,1.14
4032.00,1.14
4031.00,1.14
4030.00,1.14
4029.00,1.15
4028.00,1.15
4027.00,1.15
4026.00,1.15
4025.00,1.15
4024.00,1.15
4023.00,1.15
4022.00,1.15
4021.00,1.15
4020.00,1.15
4019.00,1.15
4018.00,1.15
4017.00,1.15
4016.00,1.15
4015.00,1.15
4014.00,1.15
4013.00,1.15
4012.00,1.15
4011.00,1.16
4010.00,1.16
4009.00,1.16
4008.00,1.16
4007.00,1.16
4006.00,1.16
4005.00,1.16
4004.00,1.16
4003.00,1.16
4002.00,1.16
4001.00,1.16
4000.00,1.16
