创建为新数据集,样品 074 用户 Administrator 日期 星期日, 十一月 05 2017
cm-1,%T
10000.00,1.32
9999.00,1.31
9998.00,1.31
9997.00,1.31
9996.00,1.30
9995.00,1.30
9994.00,1.30
9993.00,1.30
9992.00,1.29
9991.00,1.29
9990.00,1.29
9989.00,1.29
9988.00,1.29
9987.00,1.29
9986.00,1.29
9985.00,1.29
9984.00,1.30
9983.00,1.30
9982.00,1.30
9981.00,1.30
9980.00,1.30
9979.00,1.30
9978.00,1.30
9977.00,1.31
9976.00,1.31
9975.00,1.31
9974.00,1.31
9973.00,1.31
9972.00,1.31
9971.00,1.31
9970.00,1.31
9969.00,1.31
9968.00,1.31
9967.00,1.31
9966.00,1.30
9965.00,1.30
9964.00,1.30
9963.00,1.30
9962.00,1.30
9961.00,1.30
9960.00,1.30
9959.00,1.30
9958.00,1.30
9957.00,1.30
9956.00,1.30
9955.00,1.30
9954.00,1.30
9953.00,1.30
9952.00,1.30
9951.00,1.30
9950.00,1.30
9949.00,1.30
9948.00,1.30
9947.00,1.30
9946.00,1.31
9945.00,1.31
9944.00,1.31
9943.00,1.31
9942.00,1.31
9941.00,1.31
9940.00,1.31
9939.00,1.31
9938.00,1.31
9937.00,1.31
9936.00,1.31
9935.00,1.31
9934.00,1.31
9933.00,1.31
9932.00,1.31
9931.00,1.31
9930.00,1.30
9929.00,1.30
9928.00,1.30
9927.00,1.30
9926.00,1.30
9925.00,1.30
9924.00,1.30
9923.00,1.30
9922.00,1.30
9921.00,1.30
9920.00,1.30
9919.00,1.30
9918.00,1.30
9917.00,1.30
9916.00,1.30
9915.00,1.30
9914.00,1.30
9913.00,1.30
9912.00,1.30
9911.00,1.30
9910.00,1.30
9909.00,1.30
9908.00,1.30
9907.00,1.30
9906.00,1.30
9905.00,1.30
9904.00,1.30
9903.00,1.30
9902.00,1.30
9901.00,1.30
9900.00,1.29
9899.00,1.29
9898.00,1.29
9897.00,1.29
9896.00,1.29
9895.00,1.29
9894.00,1.29
9893.00,1.28
9892.00,1.28
9891.00,1.28
9890.00,1.28
9889.00,1.28
9888.00,1.28
9887.00,1.28
9886.00,1.28
9885.00,1.28
9884.00,1.28
9883.00,1.28
9882.00,1.28
9881.00,1.28
9880.00,1.28
9879.00,1.29
9878.00,1.29
9877.00,1.29
9876.00,1.29
9875.00,1.30
9874.00,1.30
9873.00,1.30
9872.00,1.30
9871.00,1.30
9870.00,1.30
9869.00,1.30
9868.00,1.30
9867.00,1.30
9866.00,1.29
9865.00,1.29
9864.00,1.29
9863.00,1.29
9862.00,1.29
9861.00,1.28
9860.00,1.28
9859.00,1.28
9858.00,1.28
9857.00,1.28
9856.00,1.27
9855.00,1.27
9854.00,1.27
9853.00,1.27
9852.00,1.27
9851.00,1.27
9850.00,1.28
9849.00,1.28
9848.00,1.28
9847.00,1.28
9846.00,1.28
9845.00,1.29
9844.00,1.29
9843.00,1.29
9842.00,1.29
9841.00,1.29
9840.00,1.29
9839.00,1.30
9838.00,1.30
9837.00,1.30
9836.00,1.29
9835.00,1.29
9834.00,1.29
9833.00,1.29
9832.00,1.29
9831.00,1.28
9830.00,1.28
9829.00,1.28
9828.00,1.27
9827.00,1.27
9826.00,1.26
9825.00,1.26
9824.00,1.26
9823.00,1.26
9822.00,1.25
9821.00,1.25
9820.00,1.25
9819.00,1.25
9818.00,1.25
9817.00,1.25
9816.00,1.26
9815.00,1.26
9814.00,1.26
9813.00,1.26
9812.00,1.26
9811.00,1.27
9810.00,1.27
9809.00,1.27
9808.00,1.28
9807.00,1.28
9806.00,1.28
9805.00,1.28
9804.00,1.28
9803.00,1.28
9802.00,1.28
9801.00,1.28
9800.00,1.28
9799.00,1.28
9798.00,1.28
9797.00,1.28
9796.00,1.28
9795.00,1.28
9794.00,1.27
9793.00,1.27
9792.00,1.27
9791.00,1.27
9790.00,1.27
9789.00,1.27
9788.00,1.27
9787.00,1.27
9786.00,1.27
9785.00,1.27
9784.00,1.27
9783.00,1.27
9782.00,1.27
9781.00,1.27
9780.00,1.27
9779.00,1.28
9778.00,1.28
9777.00,1.28
9776.00,1.28
9775.00,1.29
9774.00,1.29
9773.00,1.29
9772.00,1.30
9771.00,1.30
9770.00,1.30
9769.00,1.30
9768.00,1.31
9767.00,1.31
9766.00,1.31
9765.00,1.31
9764.00,1.31
9763.00,1.31
9762.00,1.30
9761.00,1.30
9760.00,1.30
9759.00,1.30
9758.00,1.30
9757.00,1.30
9756.00,1.29
9755.00,1.29
9754.00,1.29
9753.00,1.29
9752.00,1.29
9751.00,1.28
9750.00,1.28
9749.00,1.28
9748.00,1.28
9747.00,1.28
9746.00,1.27
9745.00,1.27
9744.00,1.27
9743.00,1.27
9742.00,1.27
9741.00,1.27
9740.00,1.26
9739.00,1.26
9738.00,1.26
9737.00,1.26
9736.00,1.26
9735.00,1.26
9734.00,1.27
9733.00,1.27
9732.00,1.27
9731.00,1.27
9730.00,1.28
9729.00,1.28
9728.00,1.28
9727.00,1.29
9726.00,1.29
9725.00,1.29
9724.00,1.29
9723.00,1.30
9722.00,1.30
9721.00,1.30
9720.00,1.30
9719.00,1.31
9718.00,1.31
9717.00,1.31
9716.00,1.31
9715.00,1.31
9714.00,1.31
9713.00,1.31
9712.00,1.31
9711.00,1.31
9710.00,1.31
9709.00,1.31
9708.00,1.31
9707.00,1.31
9706.00,1.31
9705.00,1.31
9704.00,1.30
9703.00,1.30
9702.00,1.30
9701.00,1.30
9700.00,1.30
9699.00,1.29
9698.00,1.29
9697.00,1.29
9696.00,1.29
9695.00,1.28
9694.00,1.28
9693.00,1.28
9692.00,1.28
9691.00,1.28
9690.00,1.28
9689.00,1.27
9688.00,1.27
9687.00,1.27
9686.00,1.27
9685.00,1.27
9684.00,1.27
9683.00,1.27
9682.00,1.27
9681.00,1.28
9680.00,1.28
9679.00,1.28
9678.00,1.28
9677.00,1.28
9676.00,1.28
9675.00,1.28
9674.00,1.28
9673.00,1.28
9672.00,1.28
9671.00,1.28
9670.00,1.28
9669.00,1.28
9668.00,1.28
9667.00,1.28
9666.00,1.28
9665.00,1.28
9664.00,1.28
9663.00,1.27
9662.00,1.27
9661.00,1.27
9660.00,1.27
9659.00,1.27
9658.00,1.27
9657.00,1.27
9656.00,1.27
9655.00,1.27
9654.00,1.27
9653.00,1.27
9652.00,1.27
9651.00,1.28
9650.00,1.28
9649.00,1.28
9648.00,1.28
9647.00,1.28
9646.00,1.28
9645.00,1.29
9644.00,1.29
9643.00,1.29
9642.00,1.29
9641.00,1.29
9640.00,1.30
9639.00,1.30
9638.00,1.30
9637.00,1.30
9636.00,1.30
9635.00,1.31
9634.00,1.31
9633.00,1.31
9632.00,1.31
9631.00,1.31
9630.00,1.31
9629.00,1.31
9628.00,1.31
9627.00,1.31
9626.00,1.31
9625.00,1.30
9624.00,1.30
9623.00,1.30
9622.00,1.30
9621.00,1.30
9620.00,1.29
9619.00,1.29
9618.00,1.29
9617.00,1.29
9616.00,1.28
9615.00,1.28
9614.00,1.28
9613.00,1.28
9612.00,1.28
9611.00,1.28
9610.00,1.28
9609.00,1.28
9608.00,1.28
9607.00,1.28
9606.00,1.28
9605.00,1.28
9604.00,1.28
9603.00,1.28
9602.00,1.28
9601.00,1.28
9600.00,1.28
9599.00,1.28
9598.00,1.27
9597.00,1.27
9596.00,1.27
9595.00,1.27
9594.00,1.26
9593.00,1.26
9592.00,1.26
9591.00,1.26
9590.00,1.26
9589.00,1.25
9588.00,1.25
9587.00,1.26
9586.00,1.26
9585.00,1.26
9584.00,1.26
9583.00,1.27
9582.00,1.27
9581.00,1.27
9580.00,1.28
9579.00,1.28
9578.00,1.29
9577.00,1.29
9576.00,1.30
9575.00,1.30
9574.00,1.30
9573.00,1.30
9572.00,1.31
9571.00,1.31
9570.00,1.31
9569.00,1.31
9568.00,1.30
9567.00,1.30
9566.00,1.30
9565.00,1.30
9564.00,1.30
9563.00,1.30
9562.00,1.29
9561.00,1.29
9560.00,1.29
9559.00,1.29
9558.00,1.29
9557.00,1.29
9556.00,1.29
9555.00,1.29
9554.00,1.29
9553.00,1.28
9552.00,1.28
9551.00,1.28
9550.00,1.28
9549.00,1.28
9548.00,1.28
9547.00,1.28
9546.00,1.28
9545.00,1.27
9544.00,1.27
9543.00,1.27
9542.00,1.27
9541.00,1.27
9540.00,1.27
9539.00,1.26
9538.00,1.26
9537.00,1.26
9536.00,1.26
9535.00,1.26
9534.00,1.26
9533.00,1.26
9532.00,1.25
9531.00,1.25
9530.00,1.25
9529.00,1.25
9528.00,1.25
9527.00,1.25
9526.00,1.25
9525.00,1.25
9524.00,1.25
9523.00,1.25
9522.00,1.26
9521.00,1.26
9520.00,1.26
9519.00,1.26
9518.00,1.26
9517.00,1.27
9516.00,1.27
9515.00,1.27
9514.00,1.27
9513.00,1.28
9512.00,1.28
9511.00,1.28
9510.00,1.28
9509.00,1.28
9508.00,1.29
9507.00,1.29
9506.00,1.29
9505.00,1.29
9504.00,1.29
9503.00,1.29
9502.00,1.29
9501.00,1.29
9500.00,1.29
9499.00,1.29
9498.00,1.29
9497.00,1.29
9496.00,1.29
9495.00,1.29
9494.00,1.29
9493.00,1.29
9492.00,1.29
9491.00,1.29
9490.00,1.29
9489.00,1.29
9488.00,1.30
9487.00,1.30
9486.00,1.30
9485.00,1.30
9484.00,1.30
9483.00,1.30
9482.00,1.30
9481.00,1.29
9480.00,1.29
9479.00,1.29
9478.00,1.29
9477.00,1.29
9476.00,1.29
9475.00,1.29
9474.00,1.29
9473.00,1.28
9472.00,1.28
9471.00,1.28
9470.00,1.28
9469.00,1.27
9468.00,1.27
9467.00,1.27
9466.00,1.27
9465.00,1.27
9464.00,1.26
9463.00,1.26
9462.00,1.26
9461.00,1.26
9460.00,1.26
9459.00,1.26
9458.00,1.26
9457.00,1.26
9456.00,1.26
9455.00,1.26
9454.00,1.26
9453.00,1.26
9452.00,1.27
9451.00,1.27
9450.00,1.27
9449.00,1.27
9448.00,1.27
9447.00,1.27
9446.00,1.27
9445.00,1.28
9444.00,1.28
9443.00,1.28
9442.00,1.28
9441.00,1.28
9440.00,1.28
9439.00,1.28
9438.00,1.28
9437.00,1.29
9436.00,1.29
9435.00,1.29
9434.00,1.29
9433.00,1.29
9432.00,1.29
9431.00,1.29
9430.00,1.29
9429.00,1.29
9428.00,1.29
9427.00,1.28
9426.00,1.28
9425.00,1.28
9424.00,1.28
9423.00,1.28
9422.00,1.27
9421.00,1.27
9420.00,1.27
9419.00,1.27
9418.00,1.26
9417.00,1.26
9416.00,1.26
9415.00,1.26
9414.00,1.25
9413.00,1.25
9412.00,1.25
9411.00,1.25
9410.00,1.25
9409.00,1.25
9408.00,1.25
9407.00,1.25
9406.00,1.25
9405.00,1.25
9404.00,1.26
9403.00,1.26
9402.00,1.26
9401.00,1.26
9400.00,1.26
9399.00,1.26
9398.00,1.26
9397.00,1.27
9396.00,1.27
9395.00,1.27
9394.00,1.27
9393.00,1.27
9392.00,1.27
9391.00,1.27
9390.00,1.27
9389.00,1.27
9388.00,1.27
9387.00,1.27
9386.00,1.27
9385.00,1.27
9384.00,1.27
9383.00,1.27
9382.00,1.27
9381.00,1.27
9380.00,1.26
9379.00,1.26
9378.00,1.26
9377.00,1.26
9376.00,1.26
9375.00,1.26
9374.00,1.26
9373.00,1.26
9372.00,1.26
9371.00,1.26
9370.00,1.26
9369.00,1.27
9368.00,1.27
9367.00,1.27
9366.00,1.27
9365.00,1.28
9364.00,1.28
9363.00,1.28
9362.00,1.28
9361.00,1.28
9360.00,1.28
9359.00,1.28
9358.00,1.28
9357.00,1.28
9356.00,1.28
9355.00,1.28
9354.00,1.28
9353.00,1.28
9352.00,1.28
9351.00,1.28
9350.00,1.28
9349.00,1.28
9348.00,1.28
9347.00,1.28
9346.00,1.28
9345.00,1.28
9344.00,1.28
9343.00,1.28
9342.00,1.28
9341.00,1.28
9340.00,1.28
9339.00,1.28
9338.00,1.28
9337.00,1.28
9336.00,1.28
9335.00,1.28
9334.00,1.28
9333.00,1.27
9332.00,1.27
9331.00,1.27
9330.00,1.27
9329.00,1.27
9328.00,1.26
9327.00,1.26
9326.00,1.26
9325.00,1.26
9324.00,1.25
9323.00,1.25
9322.00,1.25
9321.00,1.25
9320.00,1.25
9319.00,1.25
9318.00,1.25
9317.00,1.25
9316.00,1.25
9315.00,1.25
9314.00,1.25
9313.00,1.25
9312.00,1.25
9311.00,1.26
9310.00,1.26
9309.00,1.26
9308.00,1.26
9307.00,1.27
9306.00,1.27
9305.00,1.27
9304.00,1.28
9303.00,1.28
9302.00,1.28
9301.00,1.29
9300.00,1.29
9299.00,1.29
9298.00,1.29
9297.00,1.29
9296.00,1.30
9295.00,1.30
9294.00,1.30
9293.00,1.30
9292.00,1.30
9291.00,1.30
9290.00,1.30
9289.00,1.30
9288.00,1.30
9287.00,1.30
9286.00,1.30
9285.00,1.30
9284.00,1.29
9283.00,1.29
9282.00,1.29
9281.00,1.29
9280.00,1.29
9279.00,1.29
9278.00,1.29
9277.00,1.29
9276.00,1.29
9275.00,1.29
9274.00,1.29
9273.00,1.29
9272.00,1.29
9271.00,1.29
9270.00,1.29
9269.00,1.29
9268.00,1.29
9267.00,1.29
9266.00,1.29
9265.00,1.29
9264.00,1.29
9263.00,1.29
9262.00,1.29
9261.00,1.29
9260.00,1.29
9259.00,1.29
9258.00,1.29
9257.00,1.29
9256.00,1.29
9255.00,1.29
9254.00,1.30
9253.00,1.30
9252.00,1.30
9251.00,1.30
9250.00,1.30
9249.00,1.30
9248.00,1.30
9247.00,1.30
9246.00,1.30
9245.00,1.30
9244.00,1.29
9243.00,1.29
9242.00,1.29
9241.00,1.29
9240.00,1.29
9239.00,1.28
9238.00,1.28
9237.00,1.28
9236.00,1.27
9235.00,1.27
9234.00,1.27
9233.00,1.27
9232.00,1.27
9231.00,1.27
9230.00,1.27
9229.00,1.27
9228.00,1.27
9227.00,1.28
9226.00,1.28
9225.00,1.28
9224.00,1.28
9223.00,1.29
9222.00,1.29
9221.00,1.29
9220.00,1.29
9219.00,1.29
9218.00,1.29
9217.00,1.30
9216.00,1.30
9215.00,1.30
9214.00,1.30
9213.00,1.30
9212.00,1.30
9211.00,1.30
9210.00,1.30
9209.00,1.29
9208.00,1.30
9207.00,1.30
9206.00,1.30
9205.00,1.30
9204.00,1.30
9203.00,1.30
9202.00,1.30
9201.00,1.30
9200.00,1.30
9199.00,1.30
9198.00,1.30
9197.00,1.30
9196.00,1.30
9195.00,1.30
9194.00,1.30
9193.00,1.30
9192.00,1.30
9191.00,1.30
9190.00,1.30
9189.00,1.30
9188.00,1.30
9187.00,1.30
9186.00,1.30
9185.00,1.30
9184.00,1.29
9183.00,1.29
9182.00,1.29
9181.00,1.29
9180.00,1.29
9179.00,1.29
9178.00,1.29
9177.00,1.30
9176.00,1.30
9175.00,1.30
9174.00,1.30
9173.00,1.30
9172.00,1.30
9171.00,1.30
9170.00,1.30
9169.00,1.30
9168.00,1.30
9167.00,1.30
9166.00,1.30
9165.00,1.29
9164.00,1.29
9163.00,1.29
9162.00,1.29
9161.00,1.29
9160.00,1.29
9159.00,1.29
9158.00,1.29
9157.00,1.29
9156.00,1.29
9155.00,1.29
9154.00,1.29
9153.00,1.29
9152.00,1.29
9151.00,1.29
9150.00,1.29
9149.00,1.29
9148.00,1.29
9147.00,1.29
9146.00,1.29
9145.00,1.29
9144.00,1.29
9143.00,1.29
9142.00,1.29
9141.00,1.29
9140.00,1.29
9139.00,1.29
9138.00,1.29
9137.00,1.29
9136.00,1.29
9135.00,1.28
9134.00,1.28
9133.00,1.28
9132.00,1.28
9131.00,1.28
9130.00,1.28
9129.00,1.27
9128.00,1.27
9127.00,1.27
9126.00,1.27
9125.00,1.27
9124.00,1.27
9123.00,1.27
9122.00,1.28
9121.00,1.28
9120.00,1.28
9119.00,1.28
9118.00,1.28
9117.00,1.29
9116.00,1.29
9115.00,1.29
9114.00,1.30
9113.00,1.30
9112.00,1.30
9111.00,1.30
9110.00,1.30
9109.00,1.31
9108.00,1.31
9107.00,1.31
9106.00,1.31
9105.00,1.31
9104.00,1.31
9103.00,1.31
9102.00,1.31
9101.00,1.31
9100.00,1.31
9099.00,1.31
9098.00,1.31
9097.00,1.31
9096.00,1.31
9095.00,1.31
9094.00,1.31
9093.00,1.31
9092.00,1.31
9091.00,1.31
9090.00,1.31
9089.00,1.31
9088.00,1.31
9087.00,1.31
9086.00,1.31
9085.00,1.31
9084.00,1.31
9083.00,1.31
9082.00,1.31
9081.00,1.31
9080.00,1.31
9079.00,1.31
9078.00,1.31
9077.00,1.31
9076.00,1.30
9075.00,1.30
9074.00,1.30
9073.00,1.30
9072.00,1.30
9071.00,1.30
9070.00,1.29
9069.00,1.29
9068.00,1.29
9067.00,1.29
9066.00,1.29
9065.00,1.29
9064.00,1.28
9063.00,1.28
9062.00,1.28
9061.00,1.28
9060.00,1.28
9059.00,1.28
9058.00,1.28
9057.00,1.28
9056.00,1.28
9055.00,1.28
9054.00,1.28
9053.00,1.28
9052.00,1.28
9051.00,1.28
9050.00,1.28
9049.00,1.28
9048.00,1.28
9047.00,1.28
9046.00,1.28
9045.00,1.28
9044.00,1.28
9043.00,1.28
9042.00,1.28
9041.00,1.28
9040.00,1.28
9039.00,1.28
9038.00,1.28
9037.00,1.28
9036.00,1.28
9035.00,1.28
9034.00,1.28
9033.00,1.28
9032.00,1.28
9031.00,1.28
9030.00,1.27
9029.00,1.27
9028.00,1.27
9027.00,1.27
9026.00,1.27
9025.00,1.27
9024.00,1.27
9023.00,1.27
9022.00,1.27
9021.00,1.27
9020.00,1.27
9019.00,1.27
9018.00,1.27
9017.00,1.27
9016.00,1.27
9015.00,1.27
9014.00,1.27
9013.00,1.27
9012.00,1.27
9011.00,1.27
9010.00,1.28
9009.00,1.28
9008.00,1.28
9007.00,1.28
9006.00,1.28
9005.00,1.28
9004.00,1.28
9003.00,1.28
9002.00,1.28
9001.00,1.28
9000.00,1.28
8999.00,1.28
8998.00,1.28
8997.00,1.28
8996.00,1.28
8995.00,1.28
8994.00,1.28
8993.00,1.28
8992.00,1.28
8991.00,1.28
8990.00,1.28
8989.00,1.28
8988.00,1.29
8987.00,1.29
8986.00,1.29
8985.00,1.29
8984.00,1.29
8983.00,1.29
8982.00,1.29
8981.00,1.29
8980.00,1.29
8979.00,1.29
8978.00,1.29
8977.00,1.29
8976.00,1.29
8975.00,1.29
8974.00,1.29
8973.00,1.29
8972.00,1.29
8971.00,1.29
8970.00,1.29
8969.00,1.29
8968.00,1.29
8967.00,1.29
8966.00,1.30
8965.00,1.30
8964.00,1.30
8963.00,1.30
8962.00,1.30
8961.00,1.30
8960.00,1.30
8959.00,1.30
8958.00,1.31
8957.00,1.31
8956.00,1.31
8955.00,1.31
8954.00,1.31
8953.00,1.31
8952.00,1.31
8951.00,1.31
8950.00,1.31
8949.00,1.31
8948.00,1.31
8947.00,1.31
8946.00,1.31
8945.00,1.31
8944.00,1.31
8943.00,1.31
8942.00,1.31
8941.00,1.30
8940.00,1.30
8939.00,1.30
8938.00,1.30
8937.00,1.30
8936.00,1.30
8935.00,1.30
8934.00,1.30
8933.00,1.30
8932.00,1.30
8931.00,1.29
8930.00,1.29
8929.00,1.29
8928.00,1.29
8927.00,1.29
8926.00,1.29
8925.00,1.29
8924.00,1.29
8923.00,1.29
8922.00,1.29
8921.00,1.29
8920.00,1.29
8919.00,1.29
8918.00,1.29
8917.00,1.29
8916.00,1.30
8915.00,1.30
8914.00,1.30
8913.00,1.30
8912.00,1.30
8911.00,1.30
8910.00,1.30
8909.00,1.30
8908.00,1.31
8907.00,1.31
8906.00,1.31
8905.00,1.31
8904.00,1.31
8903.00,1.31
8902.00,1.31
8901.00,1.31
8900.00,1.31
8899.00,1.30
8898.00,1.30
8897.00,1.30
8896.00,1.30
8895.00,1.30
8894.00,1.29
8893.00,1.29
8892.00,1.29
8891.00,1.29
8890.00,1.29
8889.00,1.28
8888.00,1.28
8887.00,1.28
8886.00,1.28
8885.00,1.28
8884.00,1.28
8883.00,1.28
8882.00,1.28
8881.00,1.28
8880.00,1.28
8879.00,1.28
8878.00,1.28
8877.00,1.28
8876.00,1.28
8875.00,1.28
8874.00,1.28
8873.00,1.28
8872.00,1.28
8871.00,1.29
8870.00,1.29
8869.00,1.29
8868.00,1.29
8867.00,1.29
8866.00,1.29
8865.00,1.29
8864.00,1.29
8863.00,1.29
8862.00,1.29
8861.00,1.29
8860.00,1.29
8859.00,1.29
8858.00,1.29
8857.00,1.29
8856.00,1.29
8855.00,1.29
8854.00,1.29
8853.00,1.29
8852.00,1.29
8851.00,1.29
8850.00,1.29
8849.00,1.29
8848.00,1.29
8847.00,1.29
8846.00,1.29
8845.00,1.29
8844.00,1.29
8843.00,1.29
8842.00,1.28
8841.00,1.28
8840.00,1.28
8839.00,1.28
8838.00,1.28
8837.00,1.27
8836.00,1.27
8835.00,1.27
8834.00,1.27
8833.00,1.27
8832.00,1.27
8831.00,1.27
8830.00,1.27
8829.00,1.27
8828.00,1.27
8827.00,1.27
8826.00,1.27
8825.00,1.27
8824.00,1.27
8823.00,1.27
8822.00,1.28
8821.00,1.28
8820.00,1.28
8819.00,1.28
8818.00,1.28
8817.00,1.28
8816.00,1.28
8815.00,1.28
8814.00,1.28
8813.00,1.28
8812.00,1.28
8811.00,1.28
8810.00,1.28
8809.00,1.28
8808.00,1.28
8807.00,1.28
8806.00,1.28
8805.00,1.28
8804.00,1.28
8803.00,1.28
8802.00,1.28
8801.00,1.28
8800.00,1.28
8799.00,1.28
8798.00,1.28
8797.00,1.28
8796.00,1.28
8795.00,1.28
8794.00,1.28
8793.00,1.28
8792.00,1.28
8791.00,1.28
8790.00,1.28
8789.00,1.28
8788.00,1.28
8787.00,1.28
8786.00,1.27
8785.00,1.27
8784.00,1.27
8783.00,1.27
8782.00,1.27
8781.00,1.27
8780.00,1.26
8779.00,1.26
8778.00,1.26
8777.00,1.26
8776.00,1.26
8775.00,1.26
8774.00,1.26
8773.00,1.26
8772.00,1.26
8771.00,1.27
8770.00,1.27
8769.00,1.27
8768.00,1.27
8767.00,1.27
8766.00,1.27
8765.00,1.27
8764.00,1.27
8763.00,1.27
8762.00,1.27
8761.00,1.27
8760.00,1.27
8759.00,1.26
8758.00,1.26
8757.00,1.26
8756.00,1.26
8755.00,1.26
8754.00,1.26
8753.00,1.26
8752.00,1.26
8751.00,1.26
8750.00,1.26
8749.00,1.26
8748.00,1.26
8747.00,1.26
8746.00,1.26
8745.00,1.26
8744.00,1.26
8743.00,1.26
8742.00,1.26
8741.00,1.26
8740.00,1.26
8739.00,1.27
8738.00,1.27
8737.00,1.27
8736.00,1.27
8735.00,1.27
8734.00,1.27
8733.00,1.27
8732.00,1.27
8731.00,1.27
8730.00,1.28
8729.00,1.27
8728.00,1.27
8727.00,1.27
8726.00,1.27
8725.00,1.27
8724.00,1.27
8723.00,1.27
8722.00,1.27
8721.00,1.27
8720.00,1.27
8719.00,1.27
8718.00,1.26
8717.00,1.26
8716.00,1.26
8715.00,1.26
8714.00,1.26
8713.00,1.26
8712.00,1.26
8711.00,1.26
8710.00,1.26
8709.00,1.25
8708.00,1.25
8707.00,1.25
8706.00,1.25
8705.00,1.25
8704.00,1.25
8703.00,1.24
8702.00,1.24
8701.00,1.24
8700.00,1.24
8699.00,1.24
8698.00,1.24
8697.00,1.24
8696.00,1.24
8695.00,1.24
8694.00,1.24
8693.00,1.24
8692.00,1.24
8691.00,1.24
8690.00,1.24
8689.00,1.24
8688.00,1.24
8687.00,1.24
8686.00,1.24
8685.00,1.24
8684.00,1.24
8683.00,1.25
8682.00,1.25
8681.00,1.25
8680.00,1.25
8679.00,1.25
8678.00,1.25
8677.00,1.25
8676.00,1.25
8675.00,1.25
8674.00,1.25
8673.00,1.25
8672.00,1.25
8671.00,1.25
8670.00,1.25
8669.00,1.25
8668.00,1.25
8667.00,1.24
8666.00,1.24
8665.00,1.24
8664.00,1.24
8663.00,1.24
8662.00,1.24
8661.00,1.24
8660.00,1.24
8659.00,1.24
8658.00,1.24
8657.00,1.24
8656.00,1.24
8655.00,1.24
8654.00,1.24
8653.00,1.23
8652.00,1.23
8651.00,1.23
8650.00,1.23
8649.00,1.23
8648.00,1.23
8647.00,1.23
8646.00,1.24
8645.00,1.24
8644.00,1.24
8643.00,1.24
8642.00,1.24
8641.00,1.24
8640.00,1.24
8639.00,1.24
8638.00,1.24
8637.00,1.24
8636.00,1.24
8635.00,1.24
8634.00,1.24
8633.00,1.24
8632.00,1.24
8631.00,1.24
8630.00,1.24
8629.00,1.24
8628.00,1.23
8627.00,1.23
8626.00,1.23
8625.00,1.23
8624.00,1.23
8623.00,1.22
8622.00,1.22
8621.00,1.22
8620.00,1.22
8619.00,1.22
8618.00,1.22
8617.00,1.22
8616.00,1.22
8615.00,1.22
8614.00,1.22
8613.00,1.22
8612.00,1.22
8611.00,1.22
8610.00,1.22
8609.00,1.22
8608.00,1.22
8607.00,1.22
8606.00,1.22
8605.00,1.22
8604.00,1.22
8603.00,1.22
8602.00,1.22
8601.00,1.21
8600.00,1.21
8599.00,1.21
8598.00,1.21
8597.00,1.21
8596.00,1.21
8595.00,1.21
8594.00,1.22
8593.00,1.22
8592.00,1.22
8591.00,1.22
8590.00,1.22
8589.00,1.22
8588.00,1.22
8587.00,1.22
8586.00,1.22
8585.00,1.22
8584.00,1.22
8583.00,1.22
8582.00,1.22
8581.00,1.22
8580.00,1.22
8579.00,1.22
8578.00,1.22
8577.00,1.22
8576.00,1.22
8575.00,1.22
8574.00,1.21
8573.00,1.21
8572.00,1.21
8571.00,1.21
8570.00,1.21
8569.00,1.21
8568.00,1.21
8567.00,1.21
8566.00,1.21
8565.00,1.21
8564.00,1.20
8563.00,1.20
8562.00,1.20
8561.00,1.20
8560.00,1.20
8559.00,1.20
8558.00,1.20
8557.00,1.20
8556.00,1.21
8555.00,1.21
8554.00,1.21
8553.00,1.20
8552.00,1.20
8551.00,1.20
8550.00,1.20
8549.00,1.20
8548.00,1.20
8547.00,1.20
8546.00,1.20
8545.00,1.19
8544.00,1.19
8543.00,1.19
8542.00,1.19
8541.00,1.19
8540.00,1.18
8539.00,1.18
8538.00,1.18
8537.00,1.18
8536.00,1.18
8535.00,1.18
8534.00,1.18
8533.00,1.18
8532.00,1.18
8531.00,1.18
8530.00,1.18
8529.00,1.18
8528.00,1.18
8527.00,1.18
8526.00,1.18
8525.00,1.18
8524.00,1.18
8523.00,1.18
8522.00,1.18
8521.00,1.18
8520.00,1.18
8519.00,1.18
8518.00,1.18
8517.00,1.18
8516.00,1.18
8515.00,1.18
8514.00,1.18
8513.00,1.18
8512.00,1.18
8511.00,1.18
8510.00,1.18
8509.00,1.18
8508.00,1.18
8507.00,1.18
8506.00,1.18
8505.00,1.18
8504.00,1.18
8503.00,1.18
8502.00,1.18
8501.00,1.18
8500.00,1.18
8499.00,1.18
8498.00,1.18
8497.00,1.18
8496.00,1.18
8495.00,1.18
8494.00,1.17
8493.00,1.17
8492.00,1.17
8491.00,1.17
8490.00,1.17
8489.00,1.16
8488.00,1.16
8487.00,1.16
8486.00,1.16
8485.00,1.16
8484.00,1.15
8483.00,1.15
8482.00,1.15
8481.00,1.15
8480.00,1.15
8479.00,1.15
8478.00,1.15
8477.00,1.15
8476.00,1.15
8475.00,1.15
8474.00,1.15
8473.00,1.15
8472.00,1.15
8471.00,1.15
8470.00,1.15
8469.00,1.15
8468.00,1.15
8467.00,1.15
8466.00,1.15
8465.00,1.15
8464.00,1.15
8463.00,1.15
8462.00,1.15
8461.00,1.15
8460.00,1.14
8459.00,1.14
8458.00,1.14
8457.00,1.14
8456.00,1.14
8455.00,1.14
8454.00,1.14
8453.00,1.14
8452.00,1.13
8451.00,1.13
8450.00,1.13
8449.00,1.13
8448.00,1.13
8447.00,1.13
8446.00,1.13
8445.00,1.13
8444.00,1.14
8443.00,1.14
8442.00,1.14
8441.00,1.14
8440.00,1.14
8439.00,1.14
8438.00,1.14
8437.00,1.15
8436.00,1.15
8435.00,1.15
8434.00,1.15
8433.00,1.15
8432.00,1.15
8431.00,1.15
8430.00,1.15
8429.00,1.15
8428.00,1.15
8427.00,1.15
8426.00,1.15
8425.00,1.15
8424.00,1.15
8423.00,1.15
8422.00,1.15
8421.00,1.15
8420.00,1.15
8419.00,1.15
8418.00,1.15
8417.00,1.15
8416.00,1.15
8415.00,1.15
8414.00,1.15
8413.00,1.15
8412.00,1.15
8411.00,1.15
8410.00,1.15
8409.00,1.15
8408.00,1.16
8407.00,1.16
8406.00,1.16
8405.00,1.16
8404.00,1.17
8403.00,1.17
8402.00,1.17
8401.00,1.17
8400.00,1.18
8399.00,1.18
8398.00,1.18
8397.00,1.18
8396.00,1.18
8395.00,1.18
8394.00,1.18
8393.00,1.18
8392.00,1.18
8391.00,1.18
8390.00,1.18
8389.00,1.18
8388.00,1.18
8387.00,1.18
8386.00,1.18
8385.00,1.18
8384.00,1.18
8383.00,1.18
8382.00,1.17
8381.00,1.17
8380.00,1.17
8379.00,1.17
8378.00,1.17
8377.00,1.17
8376.00,1.17
8375.00,1.17
8374.00,1.17
8373.00,1.17
8372.00,1.17
8371.00,1.18
8370.00,1.18
8369.00,1.18
8368.00,1.18
8367.00,1.18
8366.00,1.18
8365.00,1.18
8364.00,1.18
8363.00,1.18
8362.00,1.18
8361.00,1.18
8360.00,1.18
8359.00,1.18
8358.00,1.18
8357.00,1.18
8356.00,1.18
8355.00,1.18
8354.00,1.18
8353.00,1.18
8352.00,1.18
8351.00,1.18
8350.00,1.18
8349.00,1.18
8348.00,1.18
8347.00,1.18
8346.00,1.18
8345.00,1.18
8344.00,1.18
8343.00,1.18
8342.00,1.18
8341.00,1.18
8340.00,1.18
8339.00,1.19
8338.00,1.19
8337.00,1.19
8336.00,1.19
8335.00,1.19
8334.00,1.19
8333.00,1.19
8332.00,1.19
8331.00,1.19
8330.00,1.19
8329.00,1.19
8328.00,1.19
8327.00,1.19
8326.00,1.19
8325.00,1.19
8324.00,1.20
8323.00,1.20
8322.00,1.20
8321.00,1.20
8320.00,1.20
8319.00,1.20
8318.00,1.20
8317.00,1.20
8316.00,1.20
8315.00,1.20
8314.00,1.20
8313.00,1.20
8312.00,1.20
8311.00,1.20
8310.00,1.20
8309.00,1.20
8308.00,1.20
8307.00,1.20
8306.00,1.20
8305.00,1.20
8304.00,1.19
8303.00,1.19
8302.00,1.19
8301.00,1.19
8300.00,1.19
8299.00,1.19
8298.00,1.19
8297.00,1.19
8296.00,1.19
8295.00,1.19
8294.00,1.19
8293.00,1.18
8292.00,1.18
8291.00,1.18
8290.00,1.18
8289.00,1.18
8288.00,1.18
8287.00,1.18
8286.00,1.18
8285.00,1.18
8284.00,1.18
8283.00,1.18
8282.00,1.18
8281.00,1.18
8280.00,1.18
8279.00,1.18
8278.00,1.18
8277.00,1.18
8276.00,1.19
8275.00,1.19
8274.00,1.19
8273.00,1.19
8272.00,1.19
8271.00,1.20
8270.00,1.20
8269.00,1.20
8268.00,1.20
8267.00,1.20
8266.00,1.20
8265.00,1.20
8264.00,1.21
8263.00,1.21
8262.00,1.21
8261.00,1.21
8260.00,1.21
8259.00,1.21
8258.00,1.21
8257.00,1.21
8256.00,1.21
8255.00,1.21
8254.00,1.21
8253.00,1.21
8252.00,1.21
8251.00,1.21
8250.00,1.21
8249.00,1.21
8248.00,1.22
8247.00,1.22
8246.00,1.22
8245.00,1.22
8244.00,1.22
8243.00,1.22
8242.00,1.22
8241.00,1.22
8240.00,1.22
8239.00,1.22
8238.00,1.22
8237.00,1.22
8236.00,1.22
8235.00,1.22
8234.00,1.22
8233.00,1.22
8232.00,1.22
8231.00,1.22
8230.00,1.22
8229.00,1.22
8228.00,1.22
8227.00,1.22
8226.00,1.22
8225.00,1.22
8224.00,1.22
8223.00,1.22
8222.00,1.22
8221.00,1.22
8220.00,1.22
8219.00,1.22
8218.00,1.22
8217.00,1.22
8216.00,1.22
8215.00,1.22
8214.00,1.22
8213.00,1.22
8212.00,1.22
8211.00,1.22
8210.00,1.22
8209.00,1.22
8208.00,1.22
8207.00,1.22
8206.00,1.22
8205.00,1.22
8204.00,1.22
8203.00,1.23
8202.00,1.23
8201.00,1.23
8200.00,1.23
8199.00,1.23
8198.00,1.23
8197.00,1.23
8196.00,1.23
8195.00,1.23
8194.00,1.23
8193.00,1.22
8192.00,1.22
8191.00,1.22
8190.00,1.22
8189.00,1.22
8188.00,1.22
8187.00,1.22
8186.00,1.22
8185.00,1.22
8184.00,1.22
8183.00,1.22
8182.00,1.22
8181.00,1.22
8180.00,1.22
8179.00,1.22
8178.00,1.22
8177.00,1.22
8176.00,1.22
8175.00,1.22
8174.00,1.22
8173.00,1.22
8172.00,1.22
8171.00,1.22
8170.00,1.22
8169.00,1.22
8168.00,1.22
8167.00,1.22
8166.00,1.22
8165.00,1.23
8164.00,1.23
8163.00,1.23
8162.00,1.23
8161.00,1.23
8160.00,1.23
8159.00,1.23
8158.00,1.23
8157.00,1.23
8156.00,1.23
8155.00,1.23
8154.00,1.24
8153.00,1.24
8152.00,1.24
8151.00,1.24
8150.00,1.24
8149.00,1.24
8148.00,1.24
8147.00,1.24
8146.00,1.25
8145.00,1.25
8144.00,1.25
8143.00,1.25
8142.00,1.25
8141.00,1.25
8140.00,1.25
8139.00,1.25
8138.00,1.25
8137.00,1.25
8136.00,1.25
8135.00,1.25
8134.00,1.25
8133.00,1.25
8132.00,1.25
8131.00,1.25
8130.00,1.25
8129.00,1.25
8128.00,1.25
8127.00,1.25
8126.00,1.25
8125.00,1.25
8124.00,1.25
8123.00,1.25
8122.00,1.25
8121.00,1.25
8120.00,1.25
8119.00,1.25
8118.00,1.25
8117.00,1.25
8116.00,1.26
8115.00,1.26
8114.00,1.26
8113.00,1.26
8112.00,1.26
8111.00,1.26
8110.00,1.26
8109.00,1.26
8108.00,1.26
8107.00,1.26
8106.00,1.26
8105.00,1.26
8104.00,1.26
8103.00,1.25
8102.00,1.25
8101.00,1.25
8100.00,1.25
8099.00,1.25
8098.00,1.25
8097.00,1.25
8096.00,1.25
8095.00,1.25
8094.00,1.25
8093.00,1.25
8092.00,1.25
8091.00,1.25
8090.00,1.25
8089.00,1.25
8088.00,1.25
8087.00,1.25
8086.00,1.25
8085.00,1.25
8084.00,1.25
8083.00,1.25
8082.00,1.25
8081.00,1.25
8080.00,1.25
8079.00,1.25
8078.00,1.25
8077.00,1.25
8076.00,1.25
8075.00,1.25
8074.00,1.25
8073.00,1.25
8072.00,1.25
8071.00,1.25
8070.00,1.25
8069.00,1.25
8068.00,1.25
8067.00,1.25
8066.00,1.25
8065.00,1.25
8064.00,1.25
8063.00,1.25
8062.00,1.25
8061.00,1.25
8060.00,1.25
8059.00,1.25
8058.00,1.25
8057.00,1.25
8056.00,1.26
8055.00,1.26
8054.00,1.26
8053.00,1.26
8052.00,1.26
8051.00,1.26
8050.00,1.26
8049.00,1.26
8048.00,1.27
8047.00,1.27
8046.00,1.27
8045.00,1.27
8044.00,1.27
8043.00,1.27
8042.00,1.27
8041.00,1.27
8040.00,1.27
8039.00,1.27
8038.00,1.27
8037.00,1.27
8036.00,1.27
8035.00,1.27
8034.00,1.27
8033.00,1.27
8032.00,1.27
8031.00,1.27
8030.00,1.27
8029.00,1.27
8028.00,1.27
8027.00,1.27
8026.00,1.27
8025.00,1.27
8024.00,1.27
8023.00,1.27
8022.00,1.27
8021.00,1.27
8020.00,1.27
8019.00,1.27
8018.00,1.27
8017.00,1.27
8016.00,1.28
8015.00,1.28
8014.00,1.28
8013.00,1.28
8012.00,1.28
8011.00,1.28
8010.00,1.28
8009.00,1.28
8008.00,1.28
8007.00,1.28
8006.00,1.28
8005.00,1.28
8004.00,1.28
8003.00,1.28
8002.00,1.28
8001.00,1.28
8000.00,1.28
7999.00,1.28
7998.00,1.28
7997.00,1.28
7996.00,1.28
7995.00,1.28
7994.00,1.28
7993.00,1.28
7992.00,1.28
7991.00,1.28
7990.00,1.28
7989.00,1.28
7988.00,1.28
7987.00,1.28
7986.00,1.28
7985.00,1.28
7984.00,1.27
7983.00,1.27
7982.00,1.27
7981.00,1.27
7980.00,1.27
7979.00,1.27
7978.00,1.27
7977.00,1.27
7976.00,1.27
7975.00,1.27
7974.00,1.27
7973.00,1.27
7972.00,1.27
7971.00,1.27
7970.00,1.27
7969.00,1.27
7968.00,1.27
7967.00,1.28
7966.00,1.28
7965.00,1.28
7964.00,1.28
7963.00,1.28
7962.00,1.28
7961.00,1.28
7960.00,1.28
7959.00,1.28
7958.00,1.28
7957.00,1.28
7956.00,1.28
7955.00,1.28
7954.00,1.28
7953.00,1.28
7952.00,1.28
7951.00,1.28
7950.00,1.28
7949.00,1.27
7948.00,1.27
7947.00,1.28
7946.00,1.28
7945.00,1.28
7944.00,1.28
7943.00,1.28
7942.00,1.28
7941.00,1.28
7940.00,1.28
7939.00,1.28
7938.00,1.28
7937.00,1.28
7936.00,1.29
7935.00,1.29
7934.00,1.29
7933.00,1.29
7932.00,1.29
7931.00,1.29
7930.00,1.29
7929.00,1.29
7928.00,1.29
7927.00,1.29
7926.00,1.29
7925.00,1.29
7924.00,1.29
7923.00,1.29
7922.00,1.29
7921.00,1.29
7920.00,1.29
7919.00,1.29
7918.00,1.29
7917.00,1.29
7916.00,1.29
7915.00,1.29
7914.00,1.29
7913.00,1.29
7912.00,1.29
7911.00,1.29
7910.00,1.29
7909.00,1.29
7908.00,1.29
7907.00,1.29
7906.00,1.29
7905.00,1.29
7904.00,1.28
7903.00,1.28
7902.00,1.28
7901.00,1.28
7900.00,1.28
7899.00,1.28
7898.00,1.28
7897.00,1.27
7896.00,1.27
7895.00,1.27
7894.00,1.27
7893.00,1.27
7892.00,1.27
7891.00,1.27
7890.00,1.27
7889.00,1.27
7888.00,1.27
7887.00,1.27
7886.00,1.27
7885.00,1.27
7884.00,1.27
7883.00,1.27
7882.00,1.27
7881.00,1.27
7880.00,1.27
7879.00,1.27
7878.00,1.27
7877.00,1.27
7876.00,1.27
7875.00,1.27
7874.00,1.27
7873.00,1.27
7872.00,1.27
7871.00,1.27
7870.00,1.27
7869.00,1.27
7868.00,1.27
7867.00,1.27
7866.00,1.27
7865.00,1.27
7864.00,1.27
7863.00,1.27
7862.00,1.28
7861.00,1.28
7860.00,1.28
7859.00,1.28
7858.00,1.28
7857.00,1.28
7856.00,1.28
7855.00,1.28
7854.00,1.28
7853.00,1.28
7852.00,1.28
7851.00,1.28
7850.00,1.28
7849.00,1.28
7848.00,1.28
7847.00,1.29
7846.00,1.29
7845.00,1.29
7844.00,1.29
7843.00,1.29
7842.00,1.29
7841.00,1.29
7840.00,1.29
7839.00,1.29
7838.00,1.29
7837.00,1.29
7836.00,1.29
7835.00,1.29
7834.00,1.29
7833.00,1.29
7832.00,1.29
7831.00,1.29
7830.00,1.29
7829.00,1.29
7828.00,1.29
7827.00,1.29
7826.00,1.29
7825.00,1.29
7824.00,1.29
7823.00,1.29
7822.00,1.29
7821.00,1.29
7820.00,1.29
7819.00,1.29
7818.00,1.29
7817.00,1.29
7816.00,1.29
7815.00,1.29
7814.00,1.29
7813.00,1.28
7812.00,1.28
7811.00,1.28
7810.00,1.28
7809.00,1.29
7808.00,1.29
7807.00,1.29
7806.00,1.29
7805.00,1.29
7804.00,1.29
7803.00,1.29
7802.00,1.29
7801.00,1.29
7800.00,1.29
7799.00,1.29
7798.00,1.30
7797.00,1.30
7796.00,1.30
7795.00,1.30
7794.00,1.30
7793.00,1.30
7792.00,1.30
7791.00,1.30
7790.00,1.30
7789.00,1.30
7788.00,1.30
7787.00,1.30
7786.00,1.30
7785.00,1.30
7784.00,1.30
7783.00,1.30
7782.00,1.30
7781.00,1.30
7780.00,1.30
7779.00,1.30
7778.00,1.29
7777.00,1.29
7776.00,1.29
7775.00,1.29
7774.00,1.29
7773.00,1.29
7772.00,1.29
7771.00,1.29
7770.00,1.29
7769.00,1.29
7768.00,1.29
7767.00,1.29
7766.00,1.30
7765.00,1.30
7764.00,1.30
7763.00,1.30
7762.00,1.30
7761.00,1.30
7760.00,1.30
7759.00,1.31
7758.00,1.31
7757.00,1.31
7756.00,1.31
7755.00,1.31
7754.00,1.31
7753.00,1.31
7752.00,1.31
7751.00,1.31
7750.00,1.31
7749.00,1.31
7748.00,1.31
7747.00,1.31
7746.00,1.31
7745.00,1.30
7744.00,1.30
7743.00,1.30
7742.00,1.30
7741.00,1.30
7740.00,1.29
7739.00,1.29
7738.00,1.29
7737.00,1.29
7736.00,1.29
7735.00,1.29
7734.00,1.29
7733.00,1.29
7732.00,1.28
7731.00,1.28
7730.00,1.28
7729.00,1.28
7728.00,1.28
7727.00,1.29
7726.00,1.29
7725.00,1.29
7724.00,1.29
7723.00,1.29
7722.00,1.29
7721.00,1.29
7720.00,1.29
7719.00,1.29
7718.00,1.29
7717.00,1.29
7716.00,1.29
7715.00,1.29
7714.00,1.29
7713.00,1.29
7712.00,1.29
7711.00,1.29
7710.00,1.29
7709.00,1.29
7708.00,1.29
7707.00,1.29
7706.00,1.29
7705.00,1.29
7704.00,1.29
7703.00,1.29
7702.00,1.29
7701.00,1.29
7700.00,1.29
7699.00,1.29
7698.00,1.30
7697.00,1.30
7696.00,1.30
7695.00,1.30
7694.00,1.30
7693.00,1.30
7692.00,1.30
7691.00,1.30
7690.00,1.30
7689.00,1.31
7688.00,1.31
7687.00,1.31
7686.00,1.31
7685.00,1.31
7684.00,1.31
7683.00,1.31
7682.00,1.31
7681.00,1.31
7680.00,1.31
7679.00,1.31
7678.00,1.31
7677.00,1.31
7676.00,1.31
7675.00,1.31
7674.00,1.31
7673.00,1.31
7672.00,1.31
7671.00,1.31
7670.00,1.31
7669.00,1.31
7668.00,1.31
7667.00,1.31
7666.00,1.31
7665.00,1.31
7664.00,1.31
7663.00,1.31
7662.00,1.31
7661.00,1.31
7660.00,1.30
7659.00,1.30
7658.00,1.30
7657.00,1.30
7656.00,1.30
7655.00,1.30
7654.00,1.30
7653.00,1.30
7652.00,1.30
7651.00,1.30
7650.00,1.30
7649.00,1.30
7648.00,1.30
7647.00,1.30
7646.00,1.30
7645.00,1.30
7644.00,1.30
7643.00,1.30
7642.00,1.30
7641.00,1.30
7640.00,1.30
7639.00,1.30
7638.00,1.30
7637.00,1.30
7636.00,1.30
7635.00,1.30
7634.00,1.30
7633.00,1.30
7632.00,1.30
7631.00,1.30
7630.00,1.30
7629.00,1.30
7628.00,1.31
7627.00,1.31
7626.00,1.31
7625.00,1.31
7624.00,1.31
7623.00,1.31
7622.00,1.31
7621.00,1.31
7620.00,1.31
7619.00,1.31
7618.00,1.31
7617.00,1.31
7616.00,1.31
7615.00,1.31
7614.00,1.31
7613.00,1.31
7612.00,1.31
7611.00,1.31
7610.00,1.31
7609.00,1.31
7608.00,1.31
7607.00,1.31
7606.00,1.31
7605.00,1.31
7604.00,1.31
7603.00,1.31
7602.00,1.31
7601.00,1.31
7600.00,1.30
7599.00,1.30
7598.00,1.30
7597.00,1.30
7596.00,1.30
7595.00,1.30
7594.00,1.30
7593.00,1.30
7592.00,1.30
7591.00,1.30
7590.00,1.30
7589.00,1.30
7588.00,1.30
7587.00,1.30
7586.00,1.30
7585.00,1.30
7584.00,1.30
7583.00,1.31
7582.00,1.31
7581.00,1.31
7580.00,1.31
7579.00,1.31
7578.00,1.31
7577.00,1.31
7576.00,1.31
7575.00,1.31
7574.00,1.31
7573.00,1.31
7572.00,1.31
7571.00,1.31
7570.00,1.31
7569.00,1.31
7568.00,1.31
7567.00,1.31
7566.00,1.31
7565.00,1.31
7564.00,1.31
7563.00,1.31
7562.00,1.30
7561.00,1.30
7560.00,1.30
7559.00,1.30
7558.00,1.30
7557.00,1.30
7556.00,1.30
7555.00,1.30
7554.00,1.30
7553.00,1.30
7552.00,1.30
7551.00,1.30
7550.00,1.30
7549.00,1.30
7548.00,1.30
7547.00,1.30
7546.00,1.30
7545.00,1.30
7544.00,1.30
7543.00,1.30
7542.00,1.30
7541.00,1.30
7540.00,1.30
7539.00,1.30
7538.00,1.30
7537.00,1.30
7536.00,1.30
7535.00,1.30
7534.00,1.30
7533.00,1.30
7532.00,1.30
7531.00,1.30
7530.00,1.30
7529.00,1.30
7528.00,1.30
7527.00,1.29
7526.00,1.29
7525.00,1.29
7524.00,1.29
7523.00,1.29
7522.00,1.29
7521.00,1.29
7520.00,1.29
7519.00,1.29
7518.00,1.29
7517.00,1.29
7516.00,1.28
7515.00,1.28
7514.00,1.28
7513.00,1.28
7512.00,1.28
7511.00,1.28
7510.00,1.28
7509.00,1.28
7508.00,1.27
7507.00,1.27
7506.00,1.27
7505.00,1.27
7504.00,1.27
7503.00,1.27
7502.00,1.27
7501.00,1.27
7500.00,1.27
7499.00,1.28
7498.00,1.28
7497.00,1.28
7496.00,1.28
7495.00,1.28
7494.00,1.28
7493.00,1.28
7492.00,1.28
7491.00,1.28
7490.00,1.28
7489.00,1.28
7488.00,1.28
7487.00,1.28
7486.00,1.28
7485.00,1.28
7484.00,1.28
7483.00,1.28
7482.00,1.28
7481.00,1.28
7480.00,1.28
7479.00,1.28
7478.00,1.28
7477.00,1.28
7476.00,1.28
7475.00,1.28
7474.00,1.28
7473.00,1.28
7472.00,1.28
7471.00,1.28
7470.00,1.28
7469.00,1.28
7468.00,1.28
7467.00,1.28
7466.00,1.28
7465.00,1.28
7464.00,1.28
7463.00,1.27
7462.00,1.27
7461.00,1.27
7460.00,1.27
7459.00,1.27
7458.00,1.27
7457.00,1.27
7456.00,1.27
7455.00,1.27
7454.00,1.27
7453.00,1.27
7452.00,1.27
7451.00,1.27
7450.00,1.27
7449.00,1.27
7448.00,1.27
7447.00,1.26
7446.00,1.26
7445.00,1.26
7444.00,1.26
7443.00,1.26
7442.00,1.26
7441.00,1.26
7440.00,1.26
7439.00,1.26
7438.00,1.26
7437.00,1.26
7436.00,1.26
7435.00,1.26
7434.00,1.25
7433.00,1.25
7432.00,1.25
7431.00,1.25
7430.00,1.25
7429.00,1.25
7428.00,1.25
7427.00,1.25
7426.00,1.25
7425.00,1.25
7424.00,1.25
7423.00,1.24
7422.00,1.24
7421.00,1.24
7420.00,1.24
7419.00,1.24
7418.00,1.24
7417.00,1.24
7416.00,1.24
7415.00,1.24
7414.00,1.23
7413.00,1.23
7412.00,1.23
7411.00,1.23
7410.00,1.23
7409.00,1.23
7408.00,1.23
7407.00,1.23
7406.00,1.23
7405.00,1.23
7404.00,1.23
7403.00,1.23
7402.00,1.23
7401.00,1.23
7400.00,1.22
7399.00,1.22
7398.00,1.22
7397.00,1.22
7396.00,1.22
7395.00,1.22
7394.00,1.21
7393.00,1.21
7392.00,1.21
7391.00,1.21
7390.00,1.21
7389.00,1.21
7388.00,1.21
7387.00,1.21
7386.00,1.21
7385.00,1.21
7384.00,1.20
7383.00,1.20
7382.00,1.20
7381.00,1.20
7380.00,1.20
7379.00,1.20
7378.00,1.20
7377.00,1.20
7376.00,1.20
7375.00,1.20
7374.00,1.20
7373.00,1.20
7372.00,1.20
7371.00,1.20
7370.00,1.20
7369.00,1.20
7368.00,1.20
7367.00,1.21
7366.00,1.21
7365.00,1.21
7364.00,1.21
7363.00,1.21
7362.00,1.21
7361.00,1.21
7360.00,1.21
7359.00,1.21
7358.00,1.21
7357.00,1.21
7356.00,1.21
7355.00,1.21
7354.00,1.21
7353.00,1.21
7352.00,1.21
7351.00,1.21
7350.00,1.21
7349.00,1.21
7348.00,1.21
7347.00,1.21
7346.00,1.21
7345.00,1.21
7344.00,1.21
7343.00,1.21
7342.00,1.21
7341.00,1.21
7340.00,1.21
7339.00,1.21
7338.00,1.21
7337.00,1.21
7336.00,1.21
7335.00,1.21
7334.00,1.21
7333.00,1.20
7332.00,1.20
7331.00,1.20
7330.00,1.20
7329.00,1.20
7328.00,1.20
7327.00,1.20
7326.00,1.20
7325.00,1.20
7324.00,1.20
7323.00,1.20
7322.00,1.20
7321.00,1.20
7320.00,1.20
7319.00,1.20
7318.00,1.20
7317.00,1.20
7316.00,1.20
7315.00,1.20
7314.00,1.20
7313.00,1.20
7312.00,1.20
7311.00,1.19
7310.00,1.19
7309.00,1.19
7308.00,1.19
7307.00,1.19
7306.00,1.19
7305.00,1.19
7304.00,1.18
7303.00,1.18
7302.00,1.18
7301.00,1.18
7300.00,1.18
7299.00,1.18
7298.00,1.17
7297.00,1.17
7296.00,1.17
7295.00,1.17
7294.00,1.17
7293.00,1.17
7292.00,1.17
7291.00,1.17
7290.00,1.17
7289.00,1.16
7288.00,1.16
7287.00,1.16
7286.00,1.16
7285.00,1.16
7284.00,1.16
7283.00,1.16
7282.00,1.16
7281.00,1.16
7280.00,1.16
7279.00,1.16
7278.00,1.16
7277.00,1.16
7276.00,1.16
7275.00,1.16
7274.00,1.16
7273.00,1.15
7272.00,1.15
7271.00,1.15
7270.00,1.15
7269.00,1.15
7268.00,1.15
7267.00,1.15
7266.00,1.14
7265.00,1.14
7264.00,1.14
7263.00,1.14
7262.00,1.14
7261.00,1.14
7260.00,1.13
7259.00,1.13
7258.00,1.13
7257.00,1.13
7256.00,1.13
7255.00,1.13
7254.00,1.13
7253.00,1.12
7252.00,1.12
7251.00,1.12
7250.00,1.12
7249.00,1.12
7248.00,1.12
7247.00,1.12
7246.00,1.12
7245.00,1.12
7244.00,1.11
7243.00,1.11
7242.00,1.11
7241.00,1.11
7240.00,1.11
7239.00,1.11
7238.00,1.11
7237.00,1.10
7236.00,1.10
7235.00,1.10
7234.00,1.10
7233.00,1.09
7232.00,1.09
7231.00,1.09
7230.00,1.08
7229.00,1.08
7228.00,1.08
7227.00,1.07
7226.00,1.07
7225.00,1.07
7224.00,1.06
7223.00,1.06
7222.00,1.06
7221.00,1.05
7220.00,1.05
7219.00,1.05
7218.00,1.05
7217.00,1.04
7216.00,1.04
7215.00,1.04
7214.00,1.04
7213.00,1.03
7212.00,1.03
7211.00,1.03
7210.00,1.03
7209.00,1.02
7208.00,1.02
7207.00,1.02
7206.00,1.02
7205.00,1.01
7204.00,1.01
7203.00,1.01
7202.00,1.01
7201.00,1.00
7200.00,1.00
7199.00,1.00
7198.00,1.00
7197.00,0.99
7196.00,0.99
7195.00,0.99
7194.00,0.99
7193.00,0.99
7192.00,0.98
7191.00,0.98
7190.00,0.98
7189.00,0.98
7188.00,0.98
7187.00,0.97
7186.00,0.97
7185.00,0.97
7184.00,0.96
7183.00,0.96
7182.00,0.96
7181.00,0.95
7180.00,0.95
7179.00,0.95
7178.00,0.95
7177.00,0.94
7176.00,0.94
7175.00,0.94
7174.00,0.93
7173.00,0.93
7172.00,0.93
7171.00,0.93
7170.00,0.93
7169.00,0.92
7168.00,0.92
7167.00,0.92
7166.00,0.92
7165.00,0.92
7164.00,0.92
7163.00,0.91
7162.00,0.91
7161.00,0.91
7160.00,0.91
7159.00,0.91
7158.00,0.90
7157.00,0.90
7156.00,0.90
7155.00,0.90
7154.00,0.90
7153.00,0.89
7152.00,0.89
7151.00,0.89
7150.00,0.89
7149.00,0.89
7148.00,0.88
7147.00,0.88
7146.00,0.88
7145.00,0.88
7144.00,0.88
7143.00,0.87
7142.00,0.87
7141.00,0.87
7140.00,0.87
7139.00,0.87
7138.00,0.86
7137.00,0.86
7136.00,0.86
7135.00,0.85
7134.00,0.85
7133.00,0.85
7132.00,0.84
7131.00,0.84
7130.00,0.83
7129.00,0.83
7128.00,0.83
7127.00,0.82
7126.00,0.82
7125.00,0.82
7124.00,0.82
7123.00,0.81
7122.00,0.81
7121.00,0.81
7120.00,0.81
7119.00,0.81
7118.00,0.80
7117.00,0.80
7116.00,0.80
7115.00,0.80
7114.00,0.80
7113.00,0.79
7112.00,0.79
7111.00,0.79
7110.00,0.79
7109.00,0.78
7108.00,0.78
7107.00,0.78
7106.00,0.77
7105.00,0.77
7104.00,0.77
7103.00,0.76
7102.00,0.76
7101.00,0.76
7100.00,0.75
7099.00,0.75
7098.00,0.75
7097.00,0.75
7096.00,0.75
7095.00,0.74
7094.00,0.74
7093.00,0.74
7092.00,0.74
7091.00,0.74
7090.00,0.74
7089.00,0.73
7088.00,0.73
7087.00,0.73
7086.00,0.73
7085.00,0.73
7084.00,0.72
7083.00,0.72
7082.00,0.72
7081.00,0.72
7080.00,0.71
7079.00,0.71
7078.00,0.71
7077.00,0.71
7076.00,0.70
7075.00,0.70
7074.00,0.70
7073.00,0.70
7072.00,0.70
7071.00,0.70
7070.00,0.69
7069.00,0.69
7068.00,0.69
7067.00,0.69
7066.00,0.69
7065.00,0.69
7064.00,0.69
7063.00,0.69
7062.00,0.69
7061.00,0.68
7060.00,0.68
7059.00,0.68
7058.00,0.68
7057.00,0.68
7056.00,0.68
7055.00,0.68
7054.00,0.68
7053.00,0.67
7052.00,0.67
7051.00,0.67
7050.00,0.67
7049.00,0.67
7048.00,0.67
7047.00,0.67
7046.00,0.67
7045.00,0.66
7044.00,0.66
7043.00,0.66
7042.00,0.66
7041.00,0.66
7040.00,0.66
7039.00,0.65
7038.00,0.65
7037.00,0.65
7036.00,0.65
7035.00,0.65
7034.00,0.65
7033.00,0.65
7032.00,0.64
7031.00,0.64
7030.00,0.64
7029.00,0.64
7028.00,0.64
7027.00,0.64
7026.00,0.64
7025.00,0.63
7024.00,0.63
7023.00,0.63
7022.00,0.63
7021.00,0.63
7020.00,0.63
7019.00,0.63
7018.00,0.63
7017.00,0.63
7016.00,0.63
7015.00,0.63
7014.00,0.63
7013.00,0.63
7012.00,0.63
7011.00,0.63
7010.00,0.63
7009.00,0.63
7008.00,0.63
7007.00,0.63
7006.00,0.63
7005.00,0.63
7004.00,0.63
7003.00,0.63
7002.00,0.63
7001.00,0.63
7000.00,0.63
6999.00,0.63
6998.00,0.63
6997.00,0.62
6996.00,0.62
6995.00,0.62
6994.00,0.62
6993.00,0.62
6992.00,0.62
6991.00,0.62
6990.00,0.62
6989.00,0.62
6988.00,0.62
6987.00,0.62
6986.00,0.62
6985.00,0.62
6984.00,0.62
6983.00,0.61
6982.00,0.61
6981.00,0.61
6980.00,0.61
6979.00,0.61
6978.00,0.61
6977.00,0.61
6976.00,0.61
6975.00,0.61
6974.00,0.61
6973.00,0.61
6972.00,0.61
6971.00,0.61
6970.00,0.61
6969.00,0.61
6968.00,0.60
6967.00,0.60
6966.00,0.60
6965.00,0.60
6964.00,0.60
6963.00,0.60
6962.00,0.60
6961.00,0.60
6960.00,0.60
6959.00,0.60
6958.00,0.59
6957.00,0.59
6956.00,0.59
6955.00,0.59
6954.00,0.59
6953.00,0.59
6952.00,0.59
6951.00,0.59
6950.00,0.58
6949.00,0.58
6948.00,0.58
6947.00,0.58
6946.00,0.58
6945.00,0.58
6944.00,0.58
6943.00,0.58
6942.00,0.58
6941.00,0.58
6940.00,0.58
6939.00,0.58
6938.00,0.57
6937.00,0.57
6936.00,0.57
6935.00,0.57
6934.00,0.57
6933.00,0.57
6932.00,0.57
6931.00,0.57
6930.00,0.57
6929.00,0.57
6928.00,0.57
6927.00,0.57
6926.00,0.57
6925.00,0.58
6924.00,0.58
6923.00,0.58
6922.00,0.58
6921.00,0.58
6920.00,0.58
6919.00,0.58
6918.00,0.58
6917.00,0.58
6916.00,0.58
6915.00,0.58
6914.00,0.58
6913.00,0.58
6912.00,0.58
6911.00,0.58
6910.00,0.58
6909.00,0.58
6908.00,0.58
6907.00,0.58
6906.00,0.58
6905.00,0.59
6904.00,0.59
6903.00,0.59
6902.00,0.59
6901.00,0.59
6900.00,0.59
6899.00,0.59
6898.00,0.59
6897.00,0.59
6896.00,0.59
6895.00,0.59
6894.00,0.58
6893.00,0.58
6892.00,0.58
6891.00,0.58
6890.00,0.58
6889.00,0.58
6888.00,0.58
6887.00,0.58
6886.00,0.57
6885.00,0.57
6884.00,0.57
6883.00,0.57
6882.00,0.57
6881.00,0.57
6880.00,0.57
6879.00,0.57
6878.00,0.56
6877.00,0.56
6876.00,0.56
6875.00,0.56
6874.00,0.56
6873.00,0.56
6872.00,0.56
6871.00,0.56
6870.00,0.56
6869.00,0.56
6868.00,0.56
6867.00,0.57
6866.00,0.57
6865.00,0.57
6864.00,0.57
6863.00,0.57
6862.00,0.57
6861.00,0.57
6860.00,0.57
6859.00,0.57
6858.00,0.57
6857.00,0.57
6856.00,0.57
6855.00,0.57
6854.00,0.57
6853.00,0.58
6852.00,0.58
6851.00,0.58
6850.00,0.58
6849.00,0.58
6848.00,0.58
6847.00,0.58
6846.00,0.58
6845.00,0.58
6844.00,0.58
6843.00,0.58
6842.00,0.58
6841.00,0.58
6840.00,0.58
6839.00,0.58
6838.00,0.58
6837.00,0.58
6836.00,0.58
6835.00,0.58
6834.00,0.58
6833.00,0.58
6832.00,0.58
6831.00,0.58
6830.00,0.58
6829.00,0.58
6828.00,0.58
6827.00,0.58
6826.00,0.58
6825.00,0.58
6824.00,0.58
6823.00,0.58
6822.00,0.58
6821.00,0.58
6820.00,0.58
6819.00,0.58
6818.00,0.58
6817.00,0.58
6816.00,0.58
6815.00,0.58
6814.00,0.58
6813.00,0.58
6812.00,0.58
6811.00,0.58
6810.00,0.58
6809.00,0.58
6808.00,0.58
6807.00,0.58
6806.00,0.58
6805.00,0.58
6804.00,0.58
6803.00,0.58
6802.00,0.58
6801.00,0.58
6800.00,0.59
6799.00,0.59
6798.00,0.59
6797.00,0.59
6796.00,0.59
6795.00,0.59
6794.00,0.59
6793.00,0.59
6792.00,0.59
6791.00,0.59
6790.00,0.59
6789.00,0.60
6788.00,0.60
6787.00,0.60
6786.00,0.60
6785.00,0.60
6784.00,0.60
6783.00,0.60
6782.00,0.60
6781.00,0.60
6780.00,0.60
6779.00,0.60
6778.00,0.60
6777.00,0.60
6776.00,0.60
6775.00,0.61
6774.00,0.61
6773.00,0.61
6772.00,0.61
6771.00,0.61
6770.00,0.61
6769.00,0.61
6768.00,0.61
6767.00,0.61
6766.00,0.61
6765.00,0.61
6764.00,0.61
6763.00,0.61
6762.00,0.61
6761.00,0.61
6760.00,0.61
6759.00,0.62
6758.00,0.62
6757.00,0.62
6756.00,0.62
6755.00,0.62
6754.00,0.62
6753.00,0.62
6752.00,0.62
6751.00,0.62
6750.00,0.62
6749.00,0.62
6748.00,0.62
6747.00,0.62
6746.00,0.62
6745.00,0.62
6744.00,0.62
6743.00,0.62
6742.00,0.62
6741.00,0.62
6740.00,0.63
6739.00,0.63
6738.00,0.63
6737.00,0.63
6736.00,0.63
6735.00,0.63
6734.00,0.63
6733.00,0.63
6732.00,0.63
6731.00,0.63
6730.00,0.63
6729.00,0.63
6728.00,0.63
6727.00,0.63
6726.00,0.63
6725.00,0.64
6724.00,0.64
6723.00,0.64
6722.00,0.64
6721.00,0.64
6720.00,0.64
6719.00,0.64
6718.00,0.64
6717.00,0.64
6716.00,0.64
6715.00,0.64
6714.00,0.64
6713.00,0.64
6712.00,0.64
6711.00,0.64
6710.00,0.64
6709.00,0.64
6708.00,0.65
6707.00,0.65
6706.00,0.65
6705.00,0.65
6704.00,0.65
6703.00,0.65
6702.00,0.65
6701.00,0.65
6700.00,0.65
6699.00,0.65
6698.00,0.65
6697.00,0.65
6696.00,0.65
6695.00,0.65
6694.00,0.65
6693.00,0.65
6692.00,0.65
6691.00,0.66
6690.00,0.66
6689.00,0.66
6688.00,0.66
6687.00,0.66
6686.00,0.66
6685.00,0.66
6684.00,0.66
6683.00,0.66
6682.00,0.66
6681.00,0.66
6680.00,0.66
6679.00,0.66
6678.00,0.66
6677.00,0.66
6676.00,0.67
6675.00,0.67
6674.00,0.67
6673.00,0.67
6672.00,0.67
6671.00,0.67
6670.00,0.67
6669.00,0.67
6668.00,0.67
6667.00,0.67
6666.00,0.67
6665.00,0.67
6664.00,0.68
6663.00,0.68
6662.00,0.68
6661.00,0.68
6660.00,0.68
6659.00,0.68
6658.00,0.68
6657.00,0.69
6656.00,0.69
6655.00,0.69
6654.00,0.69
6653.00,0.69
6652.00,0.69
6651.00,0.69
6650.00,0.70
6649.00,0.70
6648.00,0.70
6647.00,0.70
6646.00,0.70
6645.00,0.70
6644.00,0.70
6643.00,0.70
6642.00,0.70
6641.00,0.70
6640.00,0.70
6639.00,0.70
6638.00,0.70
6637.00,0.71
6636.00,0.71
6635.00,0.71
6634.00,0.71
6633.00,0.71
6632.00,0.71
6631.00,0.71
6630.00,0.71
6629.00,0.71
6628.00,0.71
6627.00,0.71
6626.00,0.71
6625.00,0.71
6624.00,0.71
6623.00,0.71
6622.00,0.71
6621.00,0.71
6620.00,0.72
6619.00,0.72
6618.00,0.72
6617.00,0.72
6616.00,0.72
6615.00,0.72
6614.00,0.72
6613.00,0.72
6612.00,0.73
6611.00,0.73
6610.00,0.73
6609.00,0.73
6608.00,0.73
6607.00,0.73
6606.00,0.73
6605.00,0.74
6604.00,0.74
6603.00,0.74
6602.00,0.74
6601.00,0.74
6600.00,0.74
6599.00,0.74
6598.00,0.74
6597.00,0.74
6596.00,0.74
6595.00,0.75
6594.00,0.75
6593.00,0.75
6592.00,0.75
6591.00,0.75
6590.00,0.75
6589.00,0.75
6588.00,0.75
6587.00,0.75
6586.00,0.75
6585.00,0.75
6584.00,0.75
6583.00,0.75
6582.00,0.75
6581.00,0.75
6580.00,0.75
6579.00,0.75
6578.00,0.75
6577.00,0.75
6576.00,0.75
6575.00,0.76
6574.00,0.76
6573.00,0.76
6572.00,0.76
6571.00,0.76
6570.00,0.76
6569.00,0.76
6568.00,0.76
6567.00,0.76
6566.00,0.76
6565.00,0.76
6564.00,0.76
6563.00,0.76
6562.00,0.77
6561.00,0.77
6560.00,0.77
6559.00,0.77
6558.00,0.77
6557.00,0.77
6556.00,0.77
6555.00,0.78
6554.00,0.78
6553.00,0.78
6552.00,0.78
6551.00,0.78
6550.00,0.78
6549.00,0.78
6548.00,0.78
6547.00,0.78
6546.00,0.78
6545.00,0.78
6544.00,0.78
6543.00,0.78
6542.00,0.78
6541.00,0.78
6540.00,0.78
6539.00,0.78
6538.00,0.78
6537.00,0.78
6536.00,0.78
6535.00,0.78
6534.00,0.79
6533.00,0.79
6532.00,0.79
6531.00,0.79
6530.00,0.79
6529.00,0.79
6528.00,0.79
6527.00,0.79
6526.00,0.79
6525.00,0.80
6524.00,0.80
6523.00,0.80
6522.00,0.80
6521.00,0.80
6520.00,0.80
6519.00,0.80
6518.00,0.80
6517.00,0.80
6516.00,0.80
6515.00,0.80
6514.00,0.80
6513.00,0.80
6512.00,0.80
6511.00,0.81
6510.00,0.81
6509.00,0.81
6508.00,0.81
6507.00,0.81
6506.00,0.81
6505.00,0.81
6504.00,0.81
6503.00,0.81
6502.00,0.81
6501.00,0.81
6500.00,0.81
6499.00,0.81
6498.00,0.81
6497.00,0.81
6496.00,0.81
6495.00,0.81
6494.00,0.81
6493.00,0.81
6492.00,0.81
6491.00,0.81
6490.00,0.82
6489.00,0.82
6488.00,0.82
6487.00,0.82
6486.00,0.82
6485.00,0.82
6484.00,0.82
6483.00,0.82
6482.00,0.82
6481.00,0.82
6480.00,0.82
6479.00,0.82
6478.00,0.83
6477.00,0.83
6476.00,0.83
6475.00,0.83
6474.00,0.83
6473.00,0.83
6472.00,0.83
6471.00,0.83
6470.00,0.84
6469.00,0.84
6468.00,0.84
6467.00,0.84
6466.00,0.84
6465.00,0.84
6464.00,0.84
6463.00,0.84
6462.00,0.84
6461.00,0.84
6460.00,0.84
6459.00,0.84
6458.00,0.84
6457.00,0.85
6456.00,0.85
6455.00,0.85
6454.00,0.85
6453.00,0.85
6452.00,0.85
6451.00,0.85
6450.00,0.85
6449.00,0.85
6448.00,0.85
6447.00,0.85
6446.00,0.85
6445.00,0.85
6444.00,0.85
6443.00,0.85
6442.00,0.85
6441.00,0.84
6440.00,0.84
6439.00,0.84
6438.00,0.84
6437.00,0.84
6436.00,0.85
6435.00,0.85
6434.00,0.85
6433.00,0.85
6432.00,0.85
6431.00,0.85
6430.00,0.85
6429.00,0.85
6428.00,0.85
6427.00,0.85
6426.00,0.85
6425.00,0.85
6424.00,0.85
6423.00,0.85
6422.00,0.86
6421.00,0.86
6420.00,0.86
6419.00,0.86
6418.00,0.86
6417.00,0.86
6416.00,0.86
6415.00,0.86
6414.00,0.86
6413.00,0.86
6412.00,0.86
6411.00,0.86
6410.00,0.86
6409.00,0.86
6408.00,0.86
6407.00,0.86
6406.00,0.86
6405.00,0.86
6404.00,0.86
6403.00,0.86
6402.00,0.86
6401.00,0.86
6400.00,0.86
6399.00,0.86
6398.00,0.86
6397.00,0.87
6396.00,0.87
6395.00,0.87
6394.00,0.87
6393.00,0.87
6392.00,0.87
6391.00,0.87
6390.00,0.87
6389.00,0.87
6388.00,0.87
6387.00,0.87
6386.00,0.87
6385.00,0.87
6384.00,0.87
6383.00,0.87
6382.00,0.87
6381.00,0.87
6380.00,0.87
6379.00,0.87
6378.00,0.87
6377.00,0.87
6376.00,0.87
6375.00,0.87
6374.00,0.87
6373.00,0.87
6372.00,0.87
6371.00,0.88
6370.00,0.88
6369.00,0.88
6368.00,0.88
6367.00,0.88
6366.00,0.88
6365.00,0.88
6364.00,0.88
6363.00,0.88
6362.00,0.89
6361.00,0.89
6360.00,0.89
6359.00,0.89
6358.00,0.89
6357.00,0.89
6356.00,0.89
6355.00,0.89
6354.00,0.89
6353.00,0.89
6352.00,0.90
6351.00,0.90
6350.00,0.90
6349.00,0.90
6348.00,0.90
6347.00,0.90
6346.00,0.90
6345.00,0.90
6344.00,0.90
6343.00,0.90
6342.00,0.90
6341.00,0.90
6340.00,0.90
6339.00,0.90
6338.00,0.90
6337.00,0.90
6336.00,0.90
6335.00,0.90
6334.00,0.90
6333.00,0.90
6332.00,0.90
6331.00,0.91
6330.00,0.91
6329.00,0.91
6328.00,0.91
6327.00,0.91
6326.00,0.91
6325.00,0.91
6324.00,0.91
6323.00,0.91
6322.00,0.91
6321.00,0.91
6320.00,0.91
6319.00,0.91
6318.00,0.91
6317.00,0.91
6316.00,0.91
6315.00,0.92
6314.00,0.92
6313.00,0.92
6312.00,0.92
6311.00,0.92
6310.00,0.92
6309.00,0.92
6308.00,0.92
6307.00,0.92
6306.00,0.92
6305.00,0.92
6304.00,0.92
6303.00,0.92
6302.00,0.92
6301.00,0.92
6300.00,0.93
6299.00,0.93
6298.00,0.93
6297.00,0.93
6296.00,0.93
6295.00,0.93
6294.00,0.93
6293.00,0.93
6292.00,0.93
6291.00,0.94
6290.00,0.94
6289.00,0.94
6288.00,0.94
6287.00,0.94
6286.00,0.94
6285.00,0.94
6284.00,0.94
6283.00,0.94
6282.00,0.94
6281.00,0.94
6280.00,0.94
6279.00,0.95
6278.00,0.95
6277.00,0.95
6276.00,0.95
6275.00,0.95
6274.00,0.95
6273.00,0.95
6272.00,0.95
6271.00,0.95
6270.00,0.95
6269.00,0.95
6268.00,0.95
6267.00,0.95
6266.00,0.95
6265.00,0.95
6264.00,0.95
6263.00,0.95
6262.00,0.96
6261.00,0.96
6260.00,0.96
6259.00,0.96
6258.00,0.96
6257.00,0.96
6256.00,0.96
6255.00,0.96
6254.00,0.97
6253.00,0.97
6252.00,0.97
6251.00,0.97
6250.00,0.97
6249.00,0.97
6248.00,0.97
6247.00,0.98
6246.00,0.98
6245.00,0.98
6244.00,0.98
6243.00,0.98
6242.00,0.98
6241.00,0.98
6240.00,0.98
6239.00,0.98
6238.00,0.99
6237.00,0.99
6236.00,0.99
6235.00,0.99
6234.00,0.99
6233.00,0.99
6232.00,0.99
6231.00,1.00
6230.00,1.00
6229.00,1.00
6228.00,1.00
6227.00,1.00
6226.00,1.00
6225.00,1.01
6224.00,1.01
6223.00,1.01
6222.00,1.01
6221.00,1.01
6220.00,1.01
6219.00,1.02
6218.00,1.02
6217.00,1.02
6216.00,1.02
6215.00,1.02
6214.00,1.02
6213.00,1.02
6212.00,1.02
6211.00,1.02
6210.00,1.03
6209.00,1.03
6208.00,1.03
6207.00,1.03
6206.00,1.03
6205.00,1.03
6204.00,1.03
6203.00,1.03
6202.00,1.03
6201.00,1.03
6200.00,1.03
6199.00,1.03
6198.00,1.03
6197.00,1.03
6196.00,1.04
6195.00,1.04
6194.00,1.04
6193.00,1.04
6192.00,1.04
6191.00,1.04
6190.00,1.04
6189.00,1.04
6188.00,1.04
6187.00,1.05
6186.00,1.05
6185.00,1.05
6184.00,1.05
6183.00,1.05
6182.00,1.05
6181.00,1.06
6180.00,1.06
6179.00,1.06
6178.00,1.06
6177.00,1.06
6176.00,1.06
6175.00,1.07
6174.00,1.07
6173.00,1.07
6172.00,1.07
6171.00,1.07
6170.00,1.07
6169.00,1.07
6168.00,1.08
6167.00,1.08
6166.00,1.08
6165.00,1.08
6164.00,1.08
6163.00,1.08
6162.00,1.08
6161.00,1.08
6160.00,1.08
6159.00,1.09
6158.00,1.09
6157.00,1.09
6156.00,1.09
6155.00,1.09
6154.00,1.09
6153.00,1.09
6152.00,1.09
6151.00,1.10
6150.00,1.10
6149.00,1.10
6148.00,1.10
6147.00,1.10
6146.00,1.10
6145.00,1.10
6144.00,1.11
6143.00,1.11
6142.00,1.11
6141.00,1.11
6140.00,1.11
6139.00,1.11
6138.00,1.11
6137.00,1.11
6136.00,1.11
6135.00,1.12
6134.00,1.12
6133.00,1.12
6132.00,1.12
6131.00,1.12
6130.00,1.12
6129.00,1.12
6128.00,1.12
6127.00,1.12
6126.00,1.12
6125.00,1.13
6124.00,1.13
6123.00,1.13
6122.00,1.13
6121.00,1.13
6120.00,1.13
6119.00,1.14
6118.00,1.14
6117.00,1.14
6116.00,1.14
6115.00,1.14
6114.00,1.14
6113.00,1.15
6112.00,1.15
6111.00,1.15
6110.00,1.15
6109.00,1.15
6108.00,1.15
6107.00,1.16
6106.00,1.16
6105.00,1.16
6104.00,1.16
6103.00,1.16
6102.00,1.16
6101.00,1.17
6100.00,1.17
6099.00,1.17
6098.00,1.17
6097.00,1.17
6096.00,1.17
6095.00,1.17
6094.00,1.18
6093.00,1.18
6092.00,1.18
6091.00,1.18
6090.00,1.18
6089.00,1.18
6088.00,1.18
6087.00,1.18
6086.00,1.18
6085.00,1.18
6084.00,1.18
6083.00,1.18
6082.00,1.18
6081.00,1.18
6080.00,1.18
6079.00,1.19
6078.00,1.19
6077.00,1.19
6076.00,1.19
6075.00,1.19
6074.00,1.19
6073.00,1.19
6072.00,1.19
6071.00,1.19
6070.00,1.19
6069.00,1.19
6068.00,1.19
6067.00,1.20
6066.00,1.20
6065.00,1.20
6064.00,1.20
6063.00,1.20
6062.00,1.20
6061.00,1.20
6060.00,1.20
6059.00,1.20
6058.00,1.20
6057.00,1.20
6056.00,1.20
6055.00,1.20
6054.00,1.20
6053.00,1.20
6052.00,1.20
6051.00,1.20
6050.00,1.20
6049.00,1.20
6048.00,1.21
6047.00,1.21
6046.00,1.21
6045.00,1.21
6044.00,1.21
6043.00,1.21
6042.00,1.21
6041.00,1.21
6040.00,1.21
6039.00,1.21
6038.00,1.21
6037.00,1.22
6036.00,1.22
6035.00,1.22
6034.00,1.22
6033.00,1.22
6032.00,1.22
6031.00,1.22
6030.00,1.22
6029.00,1.22
6028.00,1.22
6027.00,1.22
6026.00,1.22
6025.00,1.22
6024.00,1.22
6023.00,1.22
6022.00,1.22
6021.00,1.22
6020.00,1.22
6019.00,1.22
6018.00,1.22
6017.00,1.22
6016.00,1.22
6015.00,1.22
6014.00,1.22
6013.00,1.22
6012.00,1.22
6011.00,1.22
6010.00,1.22
6009.00,1.22
6008.00,1.22
6007.00,1.22
6006.00,1.22
6005.00,1.22
6004.00,1.22
6003.00,1.21
6002.00,1.21
6001.00,1.21
6000.00,1.21
5999.00,1.21
5998.00,1.21
5997.00,1.21
5996.00,1.21
5995.00,1.21
5994.00,1.21
5993.00,1.21
5992.00,1.20
5991.00,1.20
5990.00,1.20
5989.00,1.20
5988.00,1.20
5987.00,1.20
5986.00,1.19
5985.00,1.19
5984.00,1.19
5983.00,1.19
5982.00,1.19
5981.00,1.18
5980.00,1.18
5979.00,1.18
5978.00,1.17
5977.00,1.17
5976.00,1.17
5975.00,1.16
5974.00,1.16
5973.00,1.15
5972.00,1.15
5971.00,1.14
5970.00,1.14
5969.00,1.13
5968.00,1.12
5967.00,1.12
5966.00,1.11
5965.00,1.10
5964.00,1.10
5963.00,1.09
5962.00,1.08
5961.00,1.08
5960.00,1.07
5959.00,1.06
5958.00,1.06
5957.00,1.05
5956.00,1.04
5955.00,1.04
5954.00,1.03
5953.00,1.02
5952.00,1.02
5951.00,1.01
5950.00,1.01
5949.00,1.00
5948.00,0.99
5947.00,0.99
5946.00,0.99
5945.00,0.98
5944.00,0.98
5943.00,0.97
5942.00,0.97
5941.00,0.97
5940.00,0.97
5939.00,0.97
5938.00,0.96
5937.00,0.96
5936.00,0.96
5935.00,0.96
5934.00,0.96
5933.00,0.96
5932.00,0.96
5931.00,0.96
5930.00,0.96
5929.00,0.96
5928.00,0.96
5927.00,0.96
5926.00,0.96
5925.00,0.96
5924.00,0.96
5923.00,0.95
5922.00,0.95
5921.00,0.95
5920.00,0.95
5919.00,0.95
5918.00,0.94
5917.00,0.94
5916.00,0.94
5915.00,0.94
5914.00,0.93
5913.00,0.93
5912.00,0.93
5911.00,0.92
5910.00,0.92
5909.00,0.92
5908.00,0.92
5907.00,0.92
5906.00,0.91
5905.00,0.91
5904.00,0.91
5903.00,0.91
5902.00,0.91
5901.00,0.91
5900.00,0.91
5899.00,0.91
5898.00,0.91
5897.00,0.91
5896.00,0.92
5895.00,0.92
5894.00,0.92
5893.00,0.92
5892.00,0.92
5891.00,0.92
5890.00,0.93
5889.00,0.93
5888.00,0.93
5887.00,0.93
5886.00,0.94
5885.00,0.94
5884.00,0.94
5883.00,0.94
5882.00,0.95
5881.00,0.95
5880.00,0.95
5879.00,0.95
5878.00,0.95
5877.00,0.96
5876.00,0.96
5875.00,0.96
5874.00,0.96
5873.00,0.96
5872.00,0.97
5871.00,0.97
5870.00,0.97
5869.00,0.97
5868.00,0.98
5867.00,0.98
5866.00,0.98
5865.00,0.98
5864.00,0.99
5863.00,0.99
5862.00,0.99
5861.00,0.99
5860.00,0.99
5859.00,1.00
5858.00,1.00
5857.00,1.00
5856.00,1.00
5855.00,1.00
5854.00,1.00
5853.00,1.00
5852.00,1.01
5851.00,1.01
5850.00,1.01
5849.00,1.01
5848.00,1.01
5847.00,1.01
5846.00,1.01
5845.00,1.01
5844.00,1.01
5843.00,1.00
5842.00,1.00
5841.00,1.00
5840.00,1.00
5839.00,1.00
5838.00,1.00
5837.00,1.00
5836.00,1.00
5835.00,1.00
5834.00,1.00
5833.00,1.00
5832.00,1.00
5831.00,1.00
5830.00,1.00
5829.00,1.00
5828.00,1.00
5827.00,1.00
5826.00,1.00
5825.00,1.00
5824.00,1.01
5823.00,1.01
5822.00,1.01
5821.00,1.01
5820.00,1.01
5819.00,1.01
5818.00,1.01
5817.00,1.01
5816.00,1.01
5815.00,1.01
5814.00,1.01
5813.00,1.01
5812.00,1.01
5811.00,1.01
5810.00,1.01
5809.00,1.01
5808.00,1.01
5807.00,1.01
5806.00,1.01
5805.00,1.01
5804.00,1.01
5803.00,1.01
5802.00,1.01
5801.00,1.01
5800.00,1.01
5799.00,1.01
5798.00,1.00
5797.00,1.00
5796.00,1.00
5795.00,1.00
5794.00,1.00
5793.00,0.99
5792.00,0.99
5791.00,0.99
5790.00,0.99
5789.00,0.98
5788.00,0.98
5787.00,0.98
5786.00,0.98
5785.00,0.98
5784.00,0.97
5783.00,0.97
5782.00,0.97
5781.00,0.97
5780.00,0.97
5779.00,0.96
5778.00,0.96
5777.00,0.96
5776.00,0.96
5775.00,0.96
5774.00,0.96
5773.00,0.96
5772.00,0.96
5771.00,0.96
5770.00,0.96
5769.00,0.96
5768.00,0.96
5767.00,0.96
5766.00,0.96
5765.00,0.96
5764.00,0.96
5763.00,0.96
5762.00,0.97
5761.00,0.97
5760.00,0.97
5759.00,0.97
5758.00,0.98
5757.00,0.98
5756.00,0.98
5755.00,0.99
5754.00,0.99
5753.00,0.99
5752.00,1.00
5751.00,1.00
5750.00,1.00
5749.00,1.01
5748.00,1.01
5747.00,1.01
5746.00,1.02
5745.00,1.02
5744.00,1.02
5743.00,1.03
5742.00,1.03
5741.00,1.04
5740.00,1.04
5739.00,1.04
5738.00,1.04
5737.00,1.05
5736.00,1.05
5735.00,1.05
5734.00,1.06
5733.00,1.06
5732.00,1.06
5731.00,1.06
5730.00,1.06
5729.00,1.07
5728.00,1.07
5727.00,1.07
5726.00,1.07
5725.00,1.07
5724.00,1.07
5723.00,1.07
5722.00,1.07
5721.00,1.07
5720.00,1.07
5719.00,1.07
5718.00,1.07
5717.00,1.07
5716.00,1.07
5715.00,1.07
5714.00,1.07
5713.00,1.07
5712.00,1.07
5711.00,1.07
5710.00,1.07
5709.00,1.07
5708.00,1.07
5707.00,1.07
5706.00,1.07
5705.00,1.07
5704.00,1.07
5703.00,1.07
5702.00,1.07
5701.00,1.06
5700.00,1.06
5699.00,1.06
5698.00,1.06
5697.00,1.06
5696.00,1.06
5695.00,1.06
5694.00,1.06
5693.00,1.06
5692.00,1.06
5691.00,1.05
5690.00,1.05
5689.00,1.05
5688.00,1.05
5687.00,1.05
5686.00,1.05
5685.00,1.05
5684.00,1.05
5683.00,1.04
5682.00,1.04
5681.00,1.04
5680.00,1.04
5679.00,1.04
5678.00,1.04
5677.00,1.04
5676.00,1.04
5675.00,1.04
5674.00,1.04
5673.00,1.04
5672.00,1.04
5671.00,1.04
5670.00,1.04
5669.00,1.04
5668.00,1.04
5667.00,1.04
5666.00,1.04
5665.00,1.04
5664.00,1.04
5663.00,1.04
5662.00,1.04
5661.00,1.05
5660.00,1.05
5659.00,1.05
5658.00,1.05
5657.00,1.05
5656.00,1.05
5655.00,1.06
5654.00,1.06
5653.00,1.06
5652.00,1.06
5651.00,1.06
5650.00,1.06
5649.00,1.07
5648.00,1.07
5647.00,1.07
5646.00,1.07
5645.00,1.07
5644.00,1.07
5643.00,1.08
5642.00,1.08
5641.00,1.08
5640.00,1.08
5639.00,1.08
5638.00,1.08
5637.00,1.09
5636.00,1.09
5635.00,1.09
5634.00,1.09
5633.00,1.09
5632.00,1.09
5631.00,1.10
5630.00,1.10
5629.00,1.10
5628.00,1.10
5627.00,1.10
5626.00,1.11
5625.00,1.11
5624.00,1.11
5623.00,1.11
5622.00,1.11
5621.00,1.12
5620.00,1.12
5619.00,1.12
5618.00,1.12
5617.00,1.12
5616.00,1.13
5615.00,1.13
5614.00,1.13
5613.00,1.13
5612.00,1.13
5611.00,1.14
5610.00,1.14
5609.00,1.14
5608.00,1.14
5607.00,1.14
5606.00,1.14
5605.00,1.15
5604.00,1.15
5603.00,1.15
5602.00,1.15
5601.00,1.15
5600.00,1.15
5599.00,1.15
5598.00,1.15
5597.00,1.16
5596.00,1.16
5595.00,1.16
5594.00,1.16
5593.00,1.16
5592.00,1.16
5591.00,1.16
5590.00,1.17
5589.00,1.17
5588.00,1.17
5587.00,1.17
5586.00,1.17
5585.00,1.17
5584.00,1.17
5583.00,1.18
5582.00,1.18
5581.00,1.18
5580.00,1.18
5579.00,1.18
5578.00,1.18
5577.00,1.19
5576.00,1.19
5575.00,1.19
5574.00,1.19
5573.00,1.19
5572.00,1.19
5571.00,1.20
5570.00,1.20
5569.00,1.20
5568.00,1.20
5567.00,1.20
5566.00,1.20
5565.00,1.20
5564.00,1.20
5563.00,1.21
5562.00,1.21
5561.00,1.21
5560.00,1.21
5559.00,1.21
5558.00,1.21
5557.00,1.21
5556.00,1.21
5555.00,1.21
5554.00,1.22
5553.00,1.22
5552.00,1.22
5551.00,1.22
5550.00,1.22
5549.00,1.22
5548.00,1.22
5547.00,1.22
5546.00,1.22
5545.00,1.22
5544.00,1.22
5543.00,1.23
5542.00,1.23
5541.00,1.23
5540.00,1.23
5539.00,1.23
5538.00,1.23
5537.00,1.23
5536.00,1.23
5535.00,1.23
5534.00,1.24
5533.00,1.24
5532.00,1.24
5531.00,1.24
5530.00,1.24
5529.00,1.24
5528.00,1.25
5527.00,1.25
5526.00,1.25
5525.00,1.25
5524.00,1.25
5523.00,1.25
5522.00,1.25
5521.00,1.25
5520.00,1.25
5519.00,1.25
5518.00,1.25
5517.00,1.25
5516.00,1.25
5515.00,1.25
5514.00,1.25
5513.00,1.25
5512.00,1.25
5511.00,1.25
5510.00,1.25
5509.00,1.25
5508.00,1.25
5507.00,1.25
5506.00,1.25
5505.00,1.25
5504.00,1.25
5503.00,1.25
5502.00,1.25
5501.00,1.25
5500.00,1.25
5499.00,1.25
5498.00,1.25
5497.00,1.25
5496.00,1.25
5495.00,1.25
5494.00,1.25
5493.00,1.26
5492.00,1.26
5491.00,1.26
5490.00,1.26
5489.00,1.26
5488.00,1.26
5487.00,1.26
5486.00,1.27
5485.00,1.27
5484.00,1.27
5483.00,1.27
5482.00,1.27
5481.00,1.27
5480.00,1.28
5479.00,1.28
5478.00,1.28
5477.00,1.28
5476.00,1.28
5475.00,1.28
5474.00,1.28
5473.00,1.28
5472.00,1.29
5471.00,1.29
5470.00,1.29
5469.00,1.29
5468.00,1.29
5467.00,1.29
5466.00,1.29
5465.00,1.29
5464.00,1.29
5463.00,1.29
5462.00,1.29
5461.00,1.30
5460.00,1.30
5459.00,1.30
5458.00,1.30
5457.00,1.30
5456.00,1.30
5455.00,1.30
5454.00,1.30
5453.00,1.30
5452.00,1.30
5451.00,1.30
5450.00,1.30
5449.00,1.30
5448.00,1.31
5447.00,1.31
5446.00,1.31
5445.00,1.31
5444.00,1.31
5443.00,1.31
5442.00,1.31
5441.00,1.31
5440.00,1.31
5439.00,1.31
5438.00,1.31
5437.00,1.31
5436.00,1.31
5435.00,1.31
5434.00,1.31
5433.00,1.31
5432.00,1.31
5431.00,1.31
5430.00,1.31
5429.00,1.31
5428.00,1.31
5427.00,1.31
5426.00,1.31
5425.00,1.31
5424.00,1.31
5423.00,1.31
5422.00,1.31
5421.00,1.31
5420.00,1.31
5419.00,1.31
5418.00,1.31
5417.00,1.31
5416.00,1.31
5415.00,1.31
5414.00,1.31
5413.00,1.31
5412.00,1.31
5411.00,1.31
5410.00,1.31
5409.00,1.31
5408.00,1.31
5407.00,1.31
5406.00,1.31
5405.00,1.31
5404.00,1.31
5403.00,1.31
5402.00,1.31
5401.00,1.31
5400.00,1.31
5399.00,1.31
5398.00,1.31
5397.00,1.31
5396.00,1.31
5395.00,1.31
5394.00,1.31
5393.00,1.31
5392.00,1.30
5391.00,1.30
5390.00,1.30
5389.00,1.30
5388.00,1.30
5387.00,1.30
5386.00,1.30
5385.00,1.30
5384.00,1.30
5383.00,1.29
5382.00,1.29
5381.00,1.29
5380.00,1.29
5379.00,1.29
5378.00,1.28
5377.00,1.28
5376.00,1.28
5375.00,1.28
5374.00,1.28
5373.00,1.27
5372.00,1.27
5371.00,1.27
5370.00,1.26
5369.00,1.26
5368.00,1.26
5367.00,1.25
5366.00,1.25
5365.00,1.24
5364.00,1.24
5363.00,1.24
5362.00,1.23
5361.00,1.23
5360.00,1.22
5359.00,1.22
5358.00,1.21
5357.00,1.20
5356.00,1.20
5355.00,1.19
5354.00,1.18
5353.00,1.18
5352.00,1.17
5351.00,1.16
5350.00,1.15
5349.00,1.14
5348.00,1.14
5347.00,1.13
5346.00,1.12
5345.00,1.11
5344.00,1.10
5343.00,1.09
5342.00,1.08
5341.00,1.07
5340.00,1.07
5339.00,1.06
5338.00,1.05
5337.00,1.04
5336.00,1.03
5335.00,1.02
5334.00,1.01
5333.00,1.00
5332.00,0.99
5331.00,0.98
5330.00,0.97
5329.00,0.96
5328.00,0.95
5327.00,0.94
5326.00,0.93
5325.00,0.92
5324.00,0.91
5323.00,0.90
5322.00,0.89
5321.00,0.88
5320.00,0.87
5319.00,0.86
5318.00,0.84
5317.00,0.83
5316.00,0.82
5315.00,0.81
5314.00,0.80
5313.00,0.79
5312.00,0.78
5311.00,0.77
5310.00,0.76
5309.00,0.75
5308.00,0.74
5307.00,0.74
5306.00,0.73
5305.00,0.72
5304.00,0.71
5303.00,0.70
5302.00,0.69
5301.00,0.69
5300.00,0.68
5299.00,0.67
5298.00,0.67
5297.00,0.66
5296.00,0.66
5295.00,0.65
5294.00,0.65
5293.00,0.64
5292.00,0.64
5291.00,0.64
5290.00,0.63
5289.00,0.63
5288.00,0.63
5287.00,0.62
5286.00,0.62
5285.00,0.62
5284.00,0.62
5283.00,0.61
5282.00,0.61
5281.00,0.61
5280.00,0.61
5279.00,0.61
5278.00,0.60
5277.00,0.60
5276.00,0.60
5275.00,0.60
5274.00,0.60
5273.00,0.59
5272.00,0.59
5271.00,0.59
5270.00,0.59
5269.00,0.59
5268.00,0.58
5267.00,0.58
5266.00,0.58
5265.00,0.58
5264.00,0.58
5263.00,0.58
5262.00,0.58
5261.00,0.57
5260.00,0.57
5259.00,0.57
5258.00,0.57
5257.00,0.57
5256.00,0.57
5255.00,0.57
5254.00,0.57
5253.00,0.57
5252.00,0.57
5251.00,0.57
5250.00,0.57
5249.00,0.57
5248.00,0.57
5247.00,0.57
5246.00,0.57
5245.00,0.57
5244.00,0.57
5243.00,0.57
5242.00,0.57
5241.00,0.57
5240.00,0.57
5239.00,0.57
5238.00,0.56
5237.00,0.56
5236.00,0.56
5235.00,0.56
5234.00,0.56
5233.00,0.56
5232.00,0.56
5231.00,0.56
5230.00,0.56
5229.00,0.56
5228.00,0.56
5227.00,0.56
5226.00,0.56
5225.00,0.56
5224.00,0.56
5223.00,0.56
5222.00,0.56
5221.00,0.56
5220.00,0.56
5219.00,0.56
5218.00,0.56
5217.00,0.56
5216.00,0.57
5215.00,0.57
5214.00,0.57
5213.00,0.57
5212.00,0.57
5211.00,0.57
5210.00,0.57
5209.00,0.57
5208.00,0.57
5207.00,0.57
5206.00,0.57
5205.00,0.57
5204.00,0.57
5203.00,0.57
5202.00,0.57
5201.00,0.57
5200.00,0.57
5199.00,0.57
5198.00,0.57
5197.00,0.57
5196.00,0.57
5195.00,0.57
5194.00,0.57
5193.00,0.57
5192.00,0.57
5191.00,0.57
5190.00,0.57
5189.00,0.57
5188.00,0.57
5187.00,0.57
5186.00,0.57
5185.00,0.57
5184.00,0.57
5183.00,0.57
5182.00,0.58
5181.00,0.58
5180.00,0.58
5179.00,0.58
5178.00,0.58
5177.00,0.58
5176.00,0.58
5175.00,0.58
5174.00,0.58
5173.00,0.58
5172.00,0.58
5171.00,0.58
5170.00,0.58
5169.00,0.58
5168.00,0.58
5167.00,0.58
5166.00,0.58
5165.00,0.58
5164.00,0.58
5163.00,0.58
5162.00,0.58
5161.00,0.58
5160.00,0.58
5159.00,0.58
5158.00,0.58
5157.00,0.59
5156.00,0.59
5155.00,0.59
5154.00,0.59
5153.00,0.59
5152.00,0.59
5151.00,0.59
5150.00,0.59
5149.00,0.59
5148.00,0.59
5147.00,0.59
5146.00,0.59
5145.00,0.59
5144.00,0.59
5143.00,0.59
5142.00,0.59
5141.00,0.59
5140.00,0.59
5139.00,0.60
5138.00,0.60
5137.00,0.60
5136.00,0.60
5135.00,0.60
5134.00,0.60
5133.00,0.60
5132.00,0.60
5131.00,0.60
5130.00,0.60
5129.00,0.60
5128.00,0.60
5127.00,0.60
5126.00,0.60
5125.00,0.60
5124.00,0.60
5123.00,0.60
5122.00,0.60
5121.00,0.60
5120.00,0.60
5119.00,0.60
5118.00,0.60
5117.00,0.60
5116.00,0.60
5115.00,0.60
5114.00,0.60
5113.00,0.60
5112.00,0.60
5111.00,0.60
5110.00,0.60
5109.00,0.61
5108.00,0.61
5107.00,0.61
5106.00,0.61
5105.00,0.61
5104.00,0.61
5103.00,0.61
5102.00,0.61
5101.00,0.61
5100.00,0.61
5099.00,0.62
5098.00,0.62
5097.00,0.62
5096.00,0.62
5095.00,0.62
5094.00,0.62
5093.00,0.62
5092.00,0.62
5091.00,0.62
5090.00,0.63
5089.00,0.63
5088.00,0.63
5087.00,0.63
5086.00,0.63
5085.00,0.63
5084.00,0.63
5083.00,0.63
5082.00,0.63
5081.00,0.63
5080.00,0.63
5079.00,0.63
5078.00,0.63
5077.00,0.63
5076.00,0.64
5075.00,0.64
5074.00,0.64
5073.00,0.64
5072.00,0.64
5071.00,0.64
5070.00,0.64
5069.00,0.64
5068.00,0.64
5067.00,0.64
5066.00,0.64
5065.00,0.64
5064.00,0.65
5063.00,0.65
5062.00,0.65
5061.00,0.65
5060.00,0.65
5059.00,0.65
5058.00,0.65
5057.00,0.65
5056.00,0.65
5055.00,0.65
5054.00,0.65
5053.00,0.66
5052.00,0.66
5051.00,0.66
5050.00,0.66
5049.00,0.66
5048.00,0.66
5047.00,0.66
5046.00,0.66
5045.00,0.66
5044.00,0.66
5043.00,0.66
5042.00,0.66
5041.00,0.66
5040.00,0.66
5039.00,0.66
5038.00,0.66
5037.00,0.66
5036.00,0.67
5035.00,0.67
5034.00,0.67
5033.00,0.67
5032.00,0.67
5031.00,0.67
5030.00,0.67
5029.00,0.68
5028.00,0.68
5027.00,0.68
5026.00,0.68
5025.00,0.68
5024.00,0.68
5023.00,0.69
5022.00,0.69
5021.00,0.69
5020.00,0.69
5019.00,0.69
5018.00,0.69
5017.00,0.69
5016.00,0.69
5015.00,0.69
5014.00,0.70
5013.00,0.70
5012.00,0.70
5011.00,0.70
5010.00,0.70
5009.00,0.70
5008.00,0.70
5007.00,0.70
5006.00,0.70
5005.00,0.70
5004.00,0.70
5003.00,0.70
5002.00,0.70
5001.00,0.70
5000.00,0.70
4999.00,0.71
4998.00,0.71
4997.00,0.71
4996.00,0.71
4995.00,0.71
4994.00,0.71
4993.00,0.71
4992.00,0.71
4991.00,0.71
4990.00,0.72
4989.00,0.72
4988.00,0.72
4987.00,0.72
4986.00,0.72
4985.00,0.72
4984.00,0.73
4983.00,0.73
4982.00,0.73
4981.00,0.73
4980.00,0.73
4979.00,0.73
4978.00,0.73
4977.00,0.73
4976.00,0.74
4975.00,0.74
4974.00,0.74
4973.00,0.74
4972.00,0.74
4971.00,0.74
4970.00,0.74
4969.00,0.74
4968.00,0.74
4967.00,0.74
4966.00,0.74
4965.00,0.74
4964.00,0.74
4963.00,0.75
4962.00,0.75
4961.00,0.75
4960.00,0.75
4959.00,0.75
4958.00,0.75
4957.00,0.75
4956.00,0.75
4955.00,0.75
4954.00,0.75
4953.00,0.75
4952.00,0.76
4951.00,0.76
4950.00,0.76
4949.00,0.76
4948.00,0.76
4947.00,0.76
4946.00,0.76
4945.00,0.76
4944.00,0.76
4943.00,0.76
4942.00,0.76
4941.00,0.76
4940.00,0.76
4939.00,0.76
4938.00,0.76
4937.00,0.76
4936.00,0.76
4935.00,0.76
4934.00,0.77
4933.00,0.77
4932.00,0.77
4931.00,0.77
4930.00,0.77
4929.00,0.77
4928.00,0.77
4927.00,0.77
4926.00,0.77
4925.00,0.78
4924.00,0.78
4923.00,0.78
4922.00,0.78
4921.00,0.78
4920.00,0.78
4919.00,0.78
4918.00,0.78
4917.00,0.78
4916.00,0.78
4915.00,0.79
4914.00,0.79
4913.00,0.79
4912.00,0.79
4911.00,0.79
4910.00,0.79
4909.00,0.79
4908.00,0.79
4907.00,0.79
4906.00,0.79
4905.00,0.79
4904.00,0.80
4903.00,0.80
4902.00,0.80
4901.00,0.80
4900.00,0.80
4899.00,0.80
4898.00,0.80
4897.00,0.80
4896.00,0.80
4895.00,0.80
4894.00,0.80
4893.00,0.81
4892.00,0.81
4891.00,0.81
4890.00,0.81
4889.00,0.81
4888.00,0.81
4887.00,0.81
4886.00,0.81
4885.00,0.81
4884.00,0.81
4883.00,0.81
4882.00,0.81
4881.00,0.81
4880.00,0.82
4879.00,0.82
4878.00,0.82
4877.00,0.82
4876.00,0.82
4875.00,0.82
4874.00,0.82
4873.00,0.82
4872.00,0.82
4871.00,0.82
4870.00,0.82
4869.00,0.82
4868.00,0.82
4867.00,0.82
4866.00,0.82
4865.00,0.82
4864.00,0.82
4863.00,0.82
4862.00,0.82
4861.00,0.82
4860.00,0.82
4859.00,0.82
4858.00,0.82
4857.00,0.82
4856.00,0.82
4855.00,0.82
4854.00,0.82
4853.00,0.82
4852.00,0.82
4851.00,0.82
4850.00,0.83
4849.00,0.83
4848.00,0.83
4847.00,0.83
4846.00,0.83
4845.00,0.83
4844.00,0.83
4843.00,0.83
4842.00,0.83
4841.00,0.84
4840.00,0.84
4839.00,0.84
4838.00,0.84
4837.00,0.84
4836.00,0.84
4835.00,0.84
4834.00,0.84
4833.00,0.85
4832.00,0.85
4831.00,0.85
4830.00,0.85
4829.00,0.85
4828.00,0.85
4827.00,0.85
4826.00,0.85
4825.00,0.86
4824.00,0.86
4823.00,0.86
4822.00,0.86
4821.00,0.86
4820.00,0.86
4819.00,0.86
4818.00,0.86
4817.00,0.86
4816.00,0.86
4815.00,0.86
4814.00,0.86
4813.00,0.86
4812.00,0.86
4811.00,0.87
4810.00,0.87
4809.00,0.87
4808.00,0.87
4807.00,0.87
4806.00,0.87
4805.00,0.87
4804.00,0.87
4803.00,0.87
4802.00,0.87
4801.00,0.87
4800.00,0.87
4799.00,0.87
4798.00,0.88
4797.00,0.88
4796.00,0.88
4795.00,0.88
4794.00,0.88
4793.00,0.88
4792.00,0.88
4791.00,0.89
4790.00,0.89
4789.00,0.89
4788.00,0.89
4787.00,0.89
4786.00,0.89
4785.00,0.89
4784.00,0.90
4783.00,0.90
4782.00,0.90
4781.00,0.90
4780.00,0.90
4779.00,0.90
4778.00,0.90
4777.00,0.91
4776.00,0.91
4775.00,0.91
4774.00,0.91
4773.00,0.91
4772.00,0.91
4771.00,0.91
4770.00,0.91
4769.00,0.92
4768.00,0.92
4767.00,0.92
4766.00,0.92
4765.00,0.92
4764.00,0.92
4763.00,0.92
4762.00,0.93
4761.00,0.93
4760.00,0.93
4759.00,0.93
4758.00,0.93
4757.00,0.93
4756.00,0.94
4755.00,0.94
4754.00,0.94
4753.00,0.94
4752.00,0.94
4751.00,0.95
4750.00,0.95
4749.00,0.95
4748.00,0.95
4747.00,0.95
4746.00,0.96
4745.00,0.96
4744.00,0.96
4743.00,0.96
4742.00,0.97
4741.00,0.97
4740.00,0.97
4739.00,0.98
4738.00,0.98
4737.00,0.98
4736.00,0.98
4735.00,0.98
4734.00,0.99
4733.00,0.99
4732.00,0.99
4731.00,0.99
4730.00,1.00
4729.00,1.00
4728.00,1.00
4727.00,1.00
4726.00,1.00
4725.00,1.01
4724.00,1.01
4723.00,1.01
4722.00,1.01
4721.00,1.01
4720.00,1.01
4719.00,1.02
4718.00,1.02
4717.00,1.02
4716.00,1.02
4715.00,1.02
4714.00,1.02
4713.00,1.02
4712.00,1.03
4711.00,1.03
4710.00,1.03
4709.00,1.03
4708.00,1.03
4707.00,1.03
4706.00,1.04
4705.00,1.04
4704.00,1.04
4703.00,1.04
4702.00,1.04
4701.00,1.04
4700.00,1.05
4699.00,1.05
4698.00,1.05
4697.00,1.05
4696.00,1.05
4695.00,1.05
4694.00,1.05
4693.00,1.05
4692.00,1.06
4691.00,1.06
4690.00,1.06
4689.00,1.06
4688.00,1.06
4687.00,1.06
4686.00,1.06
4685.00,1.07
4684.00,1.07
4683.00,1.07
4682.00,1.07
4681.00,1.07
4680.00,1.08
4679.00,1.08
4678.00,1.08
4677.00,1.08
4676.00,1.09
4675.00,1.09
4674.00,1.09
4673.00,1.09
4672.00,1.09
4671.00,1.09
4670.00,1.10
4669.00,1.10
4668.00,1.10
4667.00,1.10
4666.00,1.10
4665.00,1.10
4664.00,1.11
4663.00,1.11
4662.00,1.11
4661.00,1.11
4660.00,1.11
4659.00,1.12
4658.00,1.12
4657.00,1.12
4656.00,1.12
4655.00,1.12
4654.00,1.13
4653.00,1.13
4652.00,1.13
4651.00,1.13
4650.00,1.14
4649.00,1.14
4648.00,1.14
4647.00,1.14
4646.00,1.14
4645.00,1.14
4644.00,1.14
4643.00,1.15
4642.00,1.15
4641.00,1.15
4640.00,1.15
4639.00,1.15
4638.00,1.15
4637.00,1.15
4636.00,1.15
4635.00,1.16
4634.00,1.16
4633.00,1.16
4632.00,1.16
4631.00,1.16
4630.00,1.16
4629.00,1.17
4628.00,1.17
4627.00,1.17
4626.00,1.17
4625.00,1.18
4624.00,1.18
4623.00,1.18
4622.00,1.18
4621.00,1.18
4620.00,1.18
4619.00,1.19
4618.00,1.19
4617.00,1.19
4616.00,1.19
4615.00,1.19
4614.00,1.19
4613.00,1.19
4612.00,1.19
4611.00,1.19
4610.00,1.19
4609.00,1.19
4608.00,1.19
4607.00,1.19
4606.00,1.19
4605.00,1.19
4604.00,1.19
4603.00,1.19
4602.00,1.19
4601.00,1.19
4600.00,1.19
4599.00,1.19
4598.00,1.19
4597.00,1.19
4596.00,1.19
4595.00,1.19
4594.00,1.20
4593.00,1.20
4592.00,1.20
4591.00,1.20
4590.00,1.20
4589.00,1.20
4588.00,1.20
4587.00,1.20
4586.00,1.20
4585.00,1.21
4584.00,1.21
4583.00,1.21
4582.00,1.21
4581.00,1.21
4580.00,1.21
4579.00,1.22
4578.00,1.22
4577.00,1.22
4576.00,1.22
4575.00,1.22
4574.00,1.22
4573.00,1.23
4572.00,1.23
4571.00,1.23
4570.00,1.23
4569.00,1.23
4568.00,1.23
4567.00,1.23
4566.00,1.24
4565.00,1.24
4564.00,1.24
4563.00,1.24
4562.00,1.24
4561.00,1.24
4560.00,1.24
4559.00,1.24
4558.00,1.25
4557.00,1.25
4556.00,1.25
4555.00,1.25
4554.00,1.25
4553.00,1.26
4552.00,1.26
4551.00,1.26
4550.00,1.26
4549.00,1.26
4548.00,1.26
4547.00,1.27
4546.00,1.27
4545.00,1.27
4544.00,1.27
4543.00,1.27
4542.00,1.27
4541.00,1.27
4540.00,1.27
4539.00,1.26
4538.00,1.26
4537.00,1.26
4536.00,1.26
4535.00,1.26
4534.00,1.26
4533.00,1.26
4532.00,1.26
4531.00,1.26
4530.00,1.26
4529.00,1.26
4528.00,1.26
4527.00,1.27
4526.00,1.27
4525.00,1.27
4524.00,1.27
4523.00,1.27
4522.00,1.27
4521.00,1.27
4520.00,1.27
4519.00,1.27
4518.00,1.27
4517.00,1.27
4516.00,1.27
4515.00,1.27
4514.00,1.27
4513.00,1.27
4512.00,1.27
4511.00,1.27
4510.00,1.27
4509.00,1.27
4508.00,1.27
4507.00,1.27
4506.00,1.27
4505.00,1.27
4504.00,1.27
4503.00,1.27
4502.00,1.27
4501.00,1.27
4500.00,1.27
4499.00,1.27
4498.00,1.27
4497.00,1.27
4496.00,1.27
4495.00,1.27
4494.00,1.27
4493.00,1.27
4492.00,1.27
4491.00,1.27
4490.00,1.26
4489.00,1.26
4488.00,1.26
4487.00,1.26
4486.00,1.26
4485.00,1.25
4484.00,1.25
4483.00,1.25
4482.00,1.25
4481.00,1.24
4480.00,1.24
4479.00,1.24
4478.00,1.23
4477.00,1.23
4476.00,1.23
4475.00,1.23
4474.00,1.22
4473.00,1.22
4472.00,1.22
4471.00,1.21
4470.00,1.21
4469.00,1.21
4468.00,1.20
4467.00,1.20
4466.00,1.20
4465.00,1.19
4464.00,1.19
4463.00,1.18
4462.00,1.18
4461.00,1.18
4460.00,1.17
4459.00,1.17
4458.00,1.17
4457.00,1.16
4456.00,1.16
4455.00,1.15
4454.00,1.15
4453.00,1.14
4452.00,1.14
4451.00,1.13
4450.00,1.13
4449.00,1.12
4448.00,1.12
4447.00,1.11
4446.00,1.11
4445.00,1.10
4444.00,1.09
4443.00,1.09
4442.00,1.08
4441.00,1.07
4440.00,1.07
4439.00,1.06
4438.00,1.06
4437.00,1.05
4436.00,1.05
4435.00,1.04
4434.00,1.04
4433.00,1.04
4432.00,1.03
4431.00,1.03
4430.00,1.03
4429.00,1.02
4428.00,1.02
4427.00,1.02
4426.00,1.02
4425.00,1.01
4424.00,1.01
4423.00,1.01
4422.00,1.01
4421.00,1.01
4420.00,1.01
4419.00,1.00
4418.00,1.00
4417.00,1.00
4416.00,1.00
4415.00,1.00
4414.00,1.00
4413.00,1.00
4412.00,1.00
4411.00,1.00
4410.00,1.00
4409.00,1.00
4408.00,1.00
4407.00,1.00
4406.00,1.00
4405.00,1.00
4404.00,1.00
4403.00,1.00
4402.00,1.00
4401.00,1.01
4400.00,1.01
4399.00,1.01
4398.00,1.01
4397.00,1.01
4396.00,1.01
4395.00,1.01
4394.00,1.01
4393.00,1.01
4392.00,1.01
4391.00,1.01
4390.00,1.01
4389.00,1.01
4388.00,1.01
4387.00,1.01
4386.00,1.01
4385.00,1.02
4384.00,1.02
4383.00,1.02
4382.00,1.02
4381.00,1.02
4380.00,1.02
4379.00,1.02
4378.00,1.03
4377.00,1.03
4376.00,1.03
4375.00,1.03
4374.00,1.03
4373.00,1.03
4372.00,1.03
4371.00,1.04
4370.00,1.04
4369.00,1.04
4368.00,1.04
4367.00,1.04
4366.00,1.04
4365.00,1.04
4364.00,1.04
4363.00,1.04
4362.00,1.04
4361.00,1.04
4360.00,1.04
4359.00,1.04
4358.00,1.04
4357.00,1.04
4356.00,1.04
4355.00,1.04
4354.00,1.04
4353.00,1.03
4352.00,1.03
4351.00,1.03
4350.00,1.03
4349.00,1.03
4348.00,1.03
4347.00,1.03
4346.00,1.03
4345.00,1.03
4344.00,1.03
4343.00,1.03
4342.00,1.03
4341.00,1.03
4340.00,1.03
4339.00,1.03
4338.00,1.03
4337.00,1.03
4336.00,1.04
4335.00,1.04
4334.00,1.04
4333.00,1.04
4332.00,1.04
4331.00,1.04
4330.00,1.04
4329.00,1.04
4328.00,1.05
4327.00,1.05
4326.00,1.05
4325.00,1.05
4324.00,1.05
4323.00,1.06
4322.00,1.06
4321.00,1.06
4320.00,1.06
4319.00,1.07
4318.00,1.07
4317.00,1.07
4316.00,1.07
4315.00,1.08
4314.00,1.08
4313.00,1.08
4312.00,1.09
4311.00,1.09
4310.00,1.09
4309.00,1.09
4308.00,1.10
4307.00,1.10
4306.00,1.10
4305.00,1.10
4304.00,1.11
4303.00,1.11
4302.00,1.11
4301.00,1.11
4300.00,1.11
4299.00,1.11
4298.00,1.12
4297.00,1.12
4296.00,1.12
4295.00,1.12
4294.00,1.12
4293.00,1.12
4292.00,1.12
4291.00,1.12
4290.00,1.13
4289.00,1.13
4288.00,1.13
4287.00,1.13
4286.00,1.13
4285.00,1.13
4284.00,1.14
4283.00,1.14
4282.00,1.14
4281.00,1.14
4280.00,1.14
4279.00,1.14
4278.00,1.15
4277.00,1.15
4276.00,1.15
4275.00,1.15
4274.00,1.15
4273.00,1.15
4272.00,1.15
4271.00,1.15
4270.00,1.15
4269.00,1.15
4268.00,1.15
4267.00,1.15
4266.00,1.15
4265.00,1.15
4264.00,1.15
4263.00,1.14
4262.00,1.14
4261.00,1.14
4260.00,1.14
4259.00,1.14
4258.00,1.14
4257.00,1.14
4256.00,1.14
4255.00,1.14
4254.00,1.14
4253.00,1.14
4252.00,1.14
4251.00,1.14
4250.00,1.14
4249.00,1.14
4248.00,1.14
4247.00,1.14
4246.00,1.14
4245.00,1.15
4244.00,1.15
4243.00,1.15
4242.00,1.15
4241.00,1.16
4240.00,1.16
4239.00,1.16
4238.00,1.17
4237.00,1.17
4236.00,1.17
4235.00,1.18
4234.00,1.18
4233.00,1.18
4232.00,1.19
4231.00,1.19
4230.00,1.19
4229.00,1.19
4228.00,1.20
4227.00,1.20
4226.00,1.20
4225.00,1.20
4224.00,1.20
4223.00,1.20
4222.00,1.20
4221.00,1.20
4220.00,1.20
4219.00,1.20
4218.00,1.20
4217.00,1.20
4216.00,1.20
4215.00,1.20
4214.00,1.20
4213.00,1.20
4212.00,1.20
4211.00,1.20
4210.00,1.20
4209.00,1.20
4208.00,1.20
4207.00,1.20
4206.00,1.20
4205.00,1.20
4204.00,1.20
4203.00,1.20
4202.00,1.20
4201.00,1.20
4200.00,1.20
4199.00,1.20
4198.00,1.20
4197.00,1.20
4196.00,1.20
4195.00,1.20
4194.00,1.20
4193.00,1.20
4192.00,1.21
4191.00,1.21
4190.00,1.21
4189.00,1.21
4188.00,1.21
4187.00,1.21
4186.00,1.21
4185.00,1.21
4184.00,1.21
4183.00,1.21
4182.00,1.21
4181.00,1.21
4180.00,1.21
4179.00,1.21
4178.00,1.21
4177.00,1.21
4176.00,1.21
4175.00,1.21
4174.00,1.21
4173.00,1.21
4172.00,1.21
4171.00,1.21
4170.00,1.21
4169.00,1.20
4168.00,1.20
4167.00,1.20
4166.00,1.20
4165.00,1.20
4164.00,1.20
4163.00,1.20
4162.00,1.20
4161.00,1.20
4160.00,1.20
4159.00,1.20
4158.00,1.20
4157.00,1.20
4156.00,1.20
4155.00,1.20
4154.00,1.20
4153.00,1.20
4152.00,1.20
4151.00,1.21
4150.00,1.21
4149.00,1.21
4148.00,1.21
4147.00,1.21
4146.00,1.21
4145.00,1.21
4144.00,1.21
4143.00,1.21
4142.00,1.21
4141.00,1.21
4140.00,1.20
4139.00,1.20
4138.00,1.20
4137.00,1.20
4136.00,1.20
4135.00,1.20
4134.00,1.20
4133.00,1.20
4132.00,1.20
4131.00,1.20
4130.00,1.20
4129.00,1.20
4128.00,1.20
4127.00,1.20
4126.00,1.20
4125.00,1.20
4124.00,1.21
4123.00,1.21
4122.00,1.21
4121.00,1.21
4120.00,1.21
4119.00,1.22
4118.00,1.22
4117.00,1.22
4116.00,1.22
4115.00,1.22
4114.00,1.23
4113.00,1.23
4112.00,1.23
4111.00,1.23
4110.00,1.23
4109.00,1.23
4108.00,1.24
4107.00,1.24
4106.00,1.24
4105.00,1.24
4104.00,1.24
4103.00,1.24
4102.00,1.25
4101.00,1.25
4100.00,1.25
4099.00,1.25
4098.00,1.25
4097.00,1.25
4096.00,1.25
4095.00,1.25
4094.00,1.25
4093.00,1.25
4092.00,1.25
4091.00,1.25
4090.00,1.25
4089.00,1.25
4088.00,1.24
4087.00,1.24
4086.00,1.24
4085.00,1.23
4084.00,1.23
4083.00,1.23
4082.00,1.22
4081.00,1.22
4080.00,1.22
4079.00,1.22
4078.00,1.21
4077.00,1.21
4076.00,1.21
4075.00,1.21
4074.00,1.21
4073.00,1.21
4072.00,1.21
4071.00,1.21
4070.00,1.21
4069.00,1.21
4068.00,1.21
4067.00,1.22
4066.00,1.22
4065.00,1.22
4064.00,1.23
4063.00,1.23
4062.00,1.23
4061.00,1.24
4060.00,1.24
4059.00,1.24
4058.00,1.25
4057.00,1.25
4056.00,1.25
4055.00,1.26
4054.00,1.26
4053.00,1.26
4052.00,1.26
4051.00,1.26
4050.00,1.27
4049.00,1.27
4048.00,1.27
4047.00,1.27
4046.00,1.27
4045.00,1.27
4044.00,1.27
4043.00,1.28
4042.00,1.28
4041.00,1.28
4040.00,1.28
4039.00,1.28
4038.00,1.28
4037.00,1.28
4036.00,1.28
4035.00,1.29
4034.00,1.29
4033.00,1.29
4032.00,1.29
4031.00,1.29
4030.00,1.29
4029.00,1.29
4028.00,1.29
4027.00,1.29
4026.00,1.29
4025.00,1.29
4024.00,1.29
4023.00,1.29
4022.00,1.29
4021.00,1.29
4020.00,1.29
4019.00,1.29
4018.00,1.29
4017.00,1.29
4016.00,1.29
4015.00,1.29
4014.00,1.29
4013.00,1.29
4012.00,1.29
4011.00,1.29
4010.00,1.30
4009.00,1.30
4008.00,1.30
4007.00,1.30
4006.00,1.30
4005.00,1.30
4004.00,1.31
4003.00,1.31
4002.00,1.31
4001.00,1.31
4000.00,1.31
