创建为新数据集,样品 147 用户 Administrator 日期 星期三, 十一月 08 2017
cm-1,%T
10000.00,1.52
9999.00,1.52
9998.00,1.51
9997.00,1.51
9996.00,1.51
9995.00,1.51
9994.00,1.51
9993.00,1.51
9992.00,1.51
9991.00,1.51
9990.00,1.51
9989.00,1.51
9988.00,1.51
9987.00,1.51
9986.00,1.51
9985.00,1.51
9984.00,1.51
9983.00,1.51
9982.00,1.51
9981.00,1.51
9980.00,1.52
9979.00,1.52
9978.00,1.52
9977.00,1.52
9976.00,1.52
9975.00,1.52
9974.00,1.52
9973.00,1.51
9972.00,1.51
9971.00,1.51
9970.00,1.51
9969.00,1.51
9968.00,1.51
9967.00,1.51
9966.00,1.50
9965.00,1.50
9964.00,1.50
9963.00,1.50
9962.00,1.50
9961.00,1.50
9960.00,1.50
9959.00,1.50
9958.00,1.50
9957.00,1.50
9956.00,1.50
9955.00,1.50
9954.00,1.50
9953.00,1.50
9952.00,1.50
9951.00,1.50
9950.00,1.50
9949.00,1.50
9948.00,1.50
9947.00,1.50
9946.00,1.50
9945.00,1.49
9944.00,1.49
9943.00,1.49
9942.00,1.49
9941.00,1.48
9940.00,1.48
9939.00,1.48
9938.00,1.48
9937.00,1.47
9936.00,1.47
9935.00,1.47
9934.00,1.47
9933.00,1.47
9932.00,1.47
9931.00,1.47
9930.00,1.47
9929.00,1.47
9928.00,1.47
9927.00,1.47
9926.00,1.47
9925.00,1.47
9924.00,1.48
9923.00,1.48
9922.00,1.48
9921.00,1.48
9920.00,1.48
9919.00,1.49
9918.00,1.49
9917.00,1.49
9916.00,1.49
9915.00,1.49
9914.00,1.49
9913.00,1.49
9912.00,1.50
9911.00,1.50
9910.00,1.50
9909.00,1.50
9908.00,1.50
9907.00,1.50
9906.00,1.50
9905.00,1.50
9904.00,1.50
9903.00,1.50
9902.00,1.50
9901.00,1.50
9900.00,1.50
9899.00,1.50
9898.00,1.50
9897.00,1.50
9896.00,1.50
9895.00,1.50
9894.00,1.50
9893.00,1.50
9892.00,1.50
9891.00,1.50
9890.00,1.50
9889.00,1.50
9888.00,1.51
9887.00,1.51
9886.00,1.51
9885.00,1.51
9884.00,1.51
9883.00,1.51
9882.00,1.51
9881.00,1.51
9880.00,1.51
9879.00,1.51
9878.00,1.51
9877.00,1.51
9876.00,1.51
9875.00,1.51
9874.00,1.50
9873.00,1.50
9872.00,1.50
9871.00,1.49
9870.00,1.49
9869.00,1.49
9868.00,1.48
9867.00,1.48
9866.00,1.48
9865.00,1.47
9864.00,1.47
9863.00,1.47
9862.00,1.47
9861.00,1.47
9860.00,1.47
9859.00,1.47
9858.00,1.47
9857.00,1.47
9856.00,1.47
9855.00,1.47
9854.00,1.47
9853.00,1.47
9852.00,1.47
9851.00,1.47
9850.00,1.47
9849.00,1.48
9848.00,1.48
9847.00,1.48
9846.00,1.48
9845.00,1.48
9844.00,1.48
9843.00,1.48
9842.00,1.48
9841.00,1.48
9840.00,1.48
9839.00,1.48
9838.00,1.49
9837.00,1.49
9836.00,1.49
9835.00,1.49
9834.00,1.49
9833.00,1.49
9832.00,1.49
9831.00,1.49
9830.00,1.49
9829.00,1.49
9828.00,1.49
9827.00,1.49
9826.00,1.49
9825.00,1.49
9824.00,1.49
9823.00,1.48
9822.00,1.48
9821.00,1.48
9820.00,1.48
9819.00,1.47
9818.00,1.47
9817.00,1.47
9816.00,1.47
9815.00,1.47
9814.00,1.47
9813.00,1.47
9812.00,1.47
9811.00,1.47
9810.00,1.47
9809.00,1.47
9808.00,1.47
9807.00,1.47
9806.00,1.47
9805.00,1.47
9804.00,1.48
9803.00,1.48
9802.00,1.48
9801.00,1.48
9800.00,1.48
9799.00,1.48
9798.00,1.49
9797.00,1.49
9796.00,1.49
9795.00,1.49
9794.00,1.49
9793.00,1.49
9792.00,1.49
9791.00,1.49
9790.00,1.49
9789.00,1.49
9788.00,1.49
9787.00,1.48
9786.00,1.48
9785.00,1.48
9784.00,1.48
9783.00,1.48
9782.00,1.48
9781.00,1.48
9780.00,1.48
9779.00,1.48
9778.00,1.48
9777.00,1.48
9776.00,1.48
9775.00,1.48
9774.00,1.49
9773.00,1.49
9772.00,1.49
9771.00,1.49
9770.00,1.49
9769.00,1.49
9768.00,1.49
9767.00,1.49
9766.00,1.49
9765.00,1.49
9764.00,1.49
9763.00,1.49
9762.00,1.49
9761.00,1.49
9760.00,1.49
9759.00,1.49
9758.00,1.49
9757.00,1.49
9756.00,1.49
9755.00,1.49
9754.00,1.49
9753.00,1.49
9752.00,1.49
9751.00,1.49
9750.00,1.49
9749.00,1.49
9748.00,1.49
9747.00,1.49
9746.00,1.49
9745.00,1.49
9744.00,1.49
9743.00,1.49
9742.00,1.49
9741.00,1.49
9740.00,1.49
9739.00,1.49
9738.00,1.49
9737.00,1.49
9736.00,1.49
9735.00,1.49
9734.00,1.49
9733.00,1.50
9732.00,1.50
9731.00,1.50
9730.00,1.50
9729.00,1.50
9728.00,1.50
9727.00,1.50
9726.00,1.50
9725.00,1.50
9724.00,1.50
9723.00,1.50
9722.00,1.50
9721.00,1.50
9720.00,1.50
9719.00,1.49
9718.00,1.49
9717.00,1.49
9716.00,1.49
9715.00,1.49
9714.00,1.49
9713.00,1.49
9712.00,1.49
9711.00,1.48
9710.00,1.48
9709.00,1.48
9708.00,1.48
9707.00,1.48
9706.00,1.48
9705.00,1.49
9704.00,1.49
9703.00,1.49
9702.00,1.49
9701.00,1.49
9700.00,1.49
9699.00,1.49
9698.00,1.49
9697.00,1.50
9696.00,1.50
9695.00,1.50
9694.00,1.50
9693.00,1.50
9692.00,1.50
9691.00,1.50
9690.00,1.50
9689.00,1.50
9688.00,1.50
9687.00,1.49
9686.00,1.49
9685.00,1.49
9684.00,1.49
9683.00,1.49
9682.00,1.49
9681.00,1.49
9680.00,1.49
9679.00,1.49
9678.00,1.49
9677.00,1.49
9676.00,1.49
9675.00,1.49
9674.00,1.49
9673.00,1.49
9672.00,1.49
9671.00,1.49
9670.00,1.50
9669.00,1.50
9668.00,1.50
9667.00,1.50
9666.00,1.50
9665.00,1.51
9664.00,1.51
9663.00,1.51
9662.00,1.51
9661.00,1.51
9660.00,1.51
9659.00,1.51
9658.00,1.51
9657.00,1.51
9656.00,1.50
9655.00,1.50
9654.00,1.50
9653.00,1.50
9652.00,1.50
9651.00,1.50
9650.00,1.50
9649.00,1.49
9648.00,1.49
9647.00,1.49
9646.00,1.49
9645.00,1.49
9644.00,1.49
9643.00,1.49
9642.00,1.49
9641.00,1.49
9640.00,1.49
9639.00,1.49
9638.00,1.49
9637.00,1.49
9636.00,1.49
9635.00,1.49
9634.00,1.49
9633.00,1.49
9632.00,1.49
9631.00,1.49
9630.00,1.49
9629.00,1.49
9628.00,1.49
9627.00,1.49
9626.00,1.49
9625.00,1.49
9624.00,1.49
9623.00,1.49
9622.00,1.49
9621.00,1.49
9620.00,1.49
9619.00,1.49
9618.00,1.49
9617.00,1.49
9616.00,1.49
9615.00,1.49
9614.00,1.49
9613.00,1.49
9612.00,1.49
9611.00,1.49
9610.00,1.49
9609.00,1.49
9608.00,1.49
9607.00,1.49
9606.00,1.50
9605.00,1.50
9604.00,1.50
9603.00,1.50
9602.00,1.50
9601.00,1.50
9600.00,1.50
9599.00,1.51
9598.00,1.51
9597.00,1.51
9596.00,1.51
9595.00,1.51
9594.00,1.51
9593.00,1.51
9592.00,1.50
9591.00,1.50
9590.00,1.50
9589.00,1.50
9588.00,1.50
9587.00,1.50
9586.00,1.49
9585.00,1.49
9584.00,1.49
9583.00,1.49
9582.00,1.49
9581.00,1.49
9580.00,1.49
9579.00,1.49
9578.00,1.49
9577.00,1.49
9576.00,1.49
9575.00,1.49
9574.00,1.49
9573.00,1.49
9572.00,1.50
9571.00,1.50
9570.00,1.50
9569.00,1.50
9568.00,1.50
9567.00,1.50
9566.00,1.50
9565.00,1.49
9564.00,1.49
9563.00,1.49
9562.00,1.49
9561.00,1.49
9560.00,1.49
9559.00,1.49
9558.00,1.49
9557.00,1.49
9556.00,1.48
9555.00,1.48
9554.00,1.48
9553.00,1.48
9552.00,1.48
9551.00,1.48
9550.00,1.48
9549.00,1.48
9548.00,1.48
9547.00,1.48
9546.00,1.49
9545.00,1.49
9544.00,1.49
9543.00,1.49
9542.00,1.49
9541.00,1.49
9540.00,1.49
9539.00,1.49
9538.00,1.49
9537.00,1.49
9536.00,1.49
9535.00,1.49
9534.00,1.49
9533.00,1.49
9532.00,1.49
9531.00,1.49
9530.00,1.49
9529.00,1.49
9528.00,1.50
9527.00,1.50
9526.00,1.50
9525.00,1.50
9524.00,1.50
9523.00,1.50
9522.00,1.50
9521.00,1.50
9520.00,1.50
9519.00,1.50
9518.00,1.50
9517.00,1.50
9516.00,1.50
9515.00,1.50
9514.00,1.50
9513.00,1.50
9512.00,1.50
9511.00,1.50
9510.00,1.50
9509.00,1.50
9508.00,1.49
9507.00,1.49
9506.00,1.49
9505.00,1.49
9504.00,1.49
9503.00,1.49
9502.00,1.49
9501.00,1.49
9500.00,1.49
9499.00,1.48
9498.00,1.48
9497.00,1.48
9496.00,1.48
9495.00,1.48
9494.00,1.48
9493.00,1.48
9492.00,1.48
9491.00,1.48
9490.00,1.48
9489.00,1.49
9488.00,1.49
9487.00,1.49
9486.00,1.49
9485.00,1.49
9484.00,1.49
9483.00,1.49
9482.00,1.49
9481.00,1.49
9480.00,1.50
9479.00,1.50
9478.00,1.50
9477.00,1.50
9476.00,1.50
9475.00,1.50
9474.00,1.50
9473.00,1.50
9472.00,1.50
9471.00,1.50
9470.00,1.50
9469.00,1.50
9468.00,1.50
9467.00,1.50
9466.00,1.50
9465.00,1.50
9464.00,1.50
9463.00,1.50
9462.00,1.50
9461.00,1.50
9460.00,1.50
9459.00,1.50
9458.00,1.50
9457.00,1.50
9456.00,1.49
9455.00,1.49
9454.00,1.49
9453.00,1.49
9452.00,1.49
9451.00,1.49
9450.00,1.49
9449.00,1.49
9448.00,1.49
9447.00,1.49
9446.00,1.49
9445.00,1.49
9444.00,1.50
9443.00,1.50
9442.00,1.50
9441.00,1.50
9440.00,1.50
9439.00,1.51
9438.00,1.51
9437.00,1.51
9436.00,1.51
9435.00,1.51
9434.00,1.51
9433.00,1.51
9432.00,1.51
9431.00,1.51
9430.00,1.51
9429.00,1.51
9428.00,1.51
9427.00,1.51
9426.00,1.51
9425.00,1.51
9424.00,1.51
9423.00,1.51
9422.00,1.51
9421.00,1.51
9420.00,1.51
9419.00,1.50
9418.00,1.50
9417.00,1.50
9416.00,1.50
9415.00,1.50
9414.00,1.50
9413.00,1.50
9412.00,1.50
9411.00,1.51
9410.00,1.51
9409.00,1.51
9408.00,1.51
9407.00,1.51
9406.00,1.51
9405.00,1.51
9404.00,1.51
9403.00,1.51
9402.00,1.51
9401.00,1.51
9400.00,1.51
9399.00,1.51
9398.00,1.51
9397.00,1.51
9396.00,1.51
9395.00,1.51
9394.00,1.51
9393.00,1.51
9392.00,1.51
9391.00,1.50
9390.00,1.50
9389.00,1.50
9388.00,1.50
9387.00,1.50
9386.00,1.50
9385.00,1.50
9384.00,1.50
9383.00,1.50
9382.00,1.50
9381.00,1.50
9380.00,1.50
9379.00,1.50
9378.00,1.50
9377.00,1.50
9376.00,1.50
9375.00,1.50
9374.00,1.50
9373.00,1.50
9372.00,1.50
9371.00,1.49
9370.00,1.49
9369.00,1.49
9368.00,1.49
9367.00,1.49
9366.00,1.49
9365.00,1.49
9364.00,1.49
9363.00,1.49
9362.00,1.49
9361.00,1.49
9360.00,1.49
9359.00,1.49
9358.00,1.49
9357.00,1.49
9356.00,1.49
9355.00,1.49
9354.00,1.49
9353.00,1.49
9352.00,1.49
9351.00,1.50
9350.00,1.50
9349.00,1.50
9348.00,1.50
9347.00,1.50
9346.00,1.50
9345.00,1.50
9344.00,1.50
9343.00,1.50
9342.00,1.50
9341.00,1.50
9340.00,1.50
9339.00,1.50
9338.00,1.50
9337.00,1.49
9336.00,1.49
9335.00,1.49
9334.00,1.49
9333.00,1.49
9332.00,1.49
9331.00,1.49
9330.00,1.49
9329.00,1.50
9328.00,1.50
9327.00,1.50
9326.00,1.50
9325.00,1.50
9324.00,1.50
9323.00,1.50
9322.00,1.50
9321.00,1.50
9320.00,1.51
9319.00,1.51
9318.00,1.51
9317.00,1.51
9316.00,1.51
9315.00,1.51
9314.00,1.51
9313.00,1.51
9312.00,1.51
9311.00,1.51
9310.00,1.51
9309.00,1.51
9308.00,1.51
9307.00,1.51
9306.00,1.51
9305.00,1.50
9304.00,1.50
9303.00,1.50
9302.00,1.50
9301.00,1.50
9300.00,1.50
9299.00,1.50
9298.00,1.50
9297.00,1.50
9296.00,1.50
9295.00,1.50
9294.00,1.50
9293.00,1.50
9292.00,1.50
9291.00,1.50
9290.00,1.50
9289.00,1.50
9288.00,1.50
9287.00,1.50
9286.00,1.50
9285.00,1.50
9284.00,1.51
9283.00,1.51
9282.00,1.51
9281.00,1.51
9280.00,1.51
9279.00,1.51
9278.00,1.51
9277.00,1.51
9276.00,1.51
9275.00,1.51
9274.00,1.52
9273.00,1.52
9272.00,1.51
9271.00,1.51
9270.00,1.51
9269.00,1.51
9268.00,1.51
9267.00,1.51
9266.00,1.51
9265.00,1.51
9264.00,1.51
9263.00,1.51
9262.00,1.51
9261.00,1.51
9260.00,1.51
9259.00,1.51
9258.00,1.51
9257.00,1.51
9256.00,1.51
9255.00,1.51
9254.00,1.51
9253.00,1.51
9252.00,1.51
9251.00,1.51
9250.00,1.51
9249.00,1.51
9248.00,1.51
9247.00,1.51
9246.00,1.51
9245.00,1.51
9244.00,1.51
9243.00,1.51
9242.00,1.51
9241.00,1.51
9240.00,1.51
9239.00,1.50
9238.00,1.50
9237.00,1.50
9236.00,1.50
9235.00,1.50
9234.00,1.50
9233.00,1.50
9232.00,1.50
9231.00,1.50
9230.00,1.50
9229.00,1.50
9228.00,1.50
9227.00,1.50
9226.00,1.50
9225.00,1.49
9224.00,1.49
9223.00,1.49
9222.00,1.49
9221.00,1.49
9220.00,1.49
9219.00,1.49
9218.00,1.49
9217.00,1.49
9216.00,1.49
9215.00,1.49
9214.00,1.49
9213.00,1.49
9212.00,1.49
9211.00,1.50
9210.00,1.50
9209.00,1.50
9208.00,1.50
9207.00,1.50
9206.00,1.50
9205.00,1.50
9204.00,1.50
9203.00,1.50
9202.00,1.50
9201.00,1.50
9200.00,1.50
9199.00,1.50
9198.00,1.50
9197.00,1.50
9196.00,1.50
9195.00,1.50
9194.00,1.50
9193.00,1.50
9192.00,1.50
9191.00,1.50
9190.00,1.50
9189.00,1.50
9188.00,1.50
9187.00,1.51
9186.00,1.51
9185.00,1.51
9184.00,1.51
9183.00,1.51
9182.00,1.51
9181.00,1.51
9180.00,1.51
9179.00,1.51
9178.00,1.51
9177.00,1.51
9176.00,1.51
9175.00,1.51
9174.00,1.51
9173.00,1.51
9172.00,1.50
9171.00,1.50
9170.00,1.50
9169.00,1.50
9168.00,1.50
9167.00,1.50
9166.00,1.50
9165.00,1.50
9164.00,1.50
9163.00,1.50
9162.00,1.50
9161.00,1.49
9160.00,1.49
9159.00,1.49
9158.00,1.49
9157.00,1.49
9156.00,1.49
9155.00,1.49
9154.00,1.49
9153.00,1.49
9152.00,1.49
9151.00,1.49
9150.00,1.49
9149.00,1.49
9148.00,1.49
9147.00,1.49
9146.00,1.49
9145.00,1.50
9144.00,1.50
9143.00,1.50
9142.00,1.50
9141.00,1.50
9140.00,1.50
9139.00,1.50
9138.00,1.51
9137.00,1.51
9136.00,1.51
9135.00,1.51
9134.00,1.51
9133.00,1.51
9132.00,1.51
9131.00,1.51
9130.00,1.51
9129.00,1.51
9128.00,1.51
9127.00,1.51
9126.00,1.51
9125.00,1.51
9124.00,1.51
9123.00,1.51
9122.00,1.51
9121.00,1.51
9120.00,1.51
9119.00,1.51
9118.00,1.51
9117.00,1.51
9116.00,1.51
9115.00,1.51
9114.00,1.51
9113.00,1.51
9112.00,1.51
9111.00,1.50
9110.00,1.50
9109.00,1.50
9108.00,1.50
9107.00,1.50
9106.00,1.50
9105.00,1.50
9104.00,1.50
9103.00,1.50
9102.00,1.50
9101.00,1.50
9100.00,1.50
9099.00,1.50
9098.00,1.50
9097.00,1.50
9096.00,1.50
9095.00,1.50
9094.00,1.50
9093.00,1.50
9092.00,1.50
9091.00,1.50
9090.00,1.50
9089.00,1.50
9088.00,1.50
9087.00,1.49
9086.00,1.49
9085.00,1.49
9084.00,1.49
9083.00,1.49
9082.00,1.49
9081.00,1.49
9080.00,1.49
9079.00,1.49
9078.00,1.49
9077.00,1.49
9076.00,1.49
9075.00,1.49
9074.00,1.49
9073.00,1.50
9072.00,1.50
9071.00,1.50
9070.00,1.50
9069.00,1.50
9068.00,1.50
9067.00,1.50
9066.00,1.50
9065.00,1.50
9064.00,1.50
9063.00,1.50
9062.00,1.50
9061.00,1.50
9060.00,1.51
9059.00,1.51
9058.00,1.51
9057.00,1.51
9056.00,1.51
9055.00,1.51
9054.00,1.51
9053.00,1.51
9052.00,1.51
9051.00,1.51
9050.00,1.51
9049.00,1.51
9048.00,1.51
9047.00,1.51
9046.00,1.51
9045.00,1.51
9044.00,1.51
9043.00,1.51
9042.00,1.51
9041.00,1.51
9040.00,1.51
9039.00,1.51
9038.00,1.51
9037.00,1.51
9036.00,1.51
9035.00,1.50
9034.00,1.50
9033.00,1.50
9032.00,1.50
9031.00,1.50
9030.00,1.50
9029.00,1.50
9028.00,1.50
9027.00,1.49
9026.00,1.49
9025.00,1.49
9024.00,1.49
9023.00,1.49
9022.00,1.49
9021.00,1.50
9020.00,1.50
9019.00,1.50
9018.00,1.50
9017.00,1.50
9016.00,1.50
9015.00,1.50
9014.00,1.50
9013.00,1.50
9012.00,1.51
9011.00,1.51
9010.00,1.51
9009.00,1.51
9008.00,1.51
9007.00,1.51
9006.00,1.51
9005.00,1.51
9004.00,1.51
9003.00,1.51
9002.00,1.51
9001.00,1.51
9000.00,1.51
8999.00,1.51
8998.00,1.51
8997.00,1.51
8996.00,1.51
8995.00,1.51
8994.00,1.51
8993.00,1.51
8992.00,1.51
8991.00,1.51
8990.00,1.51
8989.00,1.50
8988.00,1.50
8987.00,1.50
8986.00,1.51
8985.00,1.51
8984.00,1.51
8983.00,1.51
8982.00,1.51
8981.00,1.51
8980.00,1.51
8979.00,1.51
8978.00,1.51
8977.00,1.51
8976.00,1.51
8975.00,1.51
8974.00,1.51
8973.00,1.51
8972.00,1.51
8971.00,1.51
8970.00,1.51
8969.00,1.51
8968.00,1.51
8967.00,1.51
8966.00,1.51
8965.00,1.51
8964.00,1.51
8963.00,1.51
8962.00,1.51
8961.00,1.51
8960.00,1.51
8959.00,1.51
8958.00,1.51
8957.00,1.51
8956.00,1.51
8955.00,1.51
8954.00,1.51
8953.00,1.51
8952.00,1.51
8951.00,1.51
8950.00,1.51
8949.00,1.51
8948.00,1.51
8947.00,1.51
8946.00,1.51
8945.00,1.51
8944.00,1.51
8943.00,1.51
8942.00,1.51
8941.00,1.51
8940.00,1.51
8939.00,1.51
8938.00,1.51
8937.00,1.51
8936.00,1.51
8935.00,1.51
8934.00,1.51
8933.00,1.51
8932.00,1.51
8931.00,1.51
8930.00,1.51
8929.00,1.51
8928.00,1.51
8927.00,1.51
8926.00,1.51
8925.00,1.51
8924.00,1.51
8923.00,1.51
8922.00,1.51
8921.00,1.51
8920.00,1.51
8919.00,1.51
8918.00,1.50
8917.00,1.50
8916.00,1.50
8915.00,1.50
8914.00,1.50
8913.00,1.50
8912.00,1.50
8911.00,1.50
8910.00,1.50
8909.00,1.49
8908.00,1.49
8907.00,1.49
8906.00,1.49
8905.00,1.49
8904.00,1.49
8903.00,1.49
8902.00,1.49
8901.00,1.49
8900.00,1.48
8899.00,1.48
8898.00,1.48
8897.00,1.48
8896.00,1.48
8895.00,1.48
8894.00,1.49
8893.00,1.49
8892.00,1.49
8891.00,1.49
8890.00,1.49
8889.00,1.49
8888.00,1.49
8887.00,1.49
8886.00,1.49
8885.00,1.49
8884.00,1.49
8883.00,1.49
8882.00,1.49
8881.00,1.49
8880.00,1.49
8879.00,1.50
8878.00,1.50
8877.00,1.50
8876.00,1.50
8875.00,1.50
8874.00,1.50
8873.00,1.50
8872.00,1.50
8871.00,1.50
8870.00,1.50
8869.00,1.50
8868.00,1.50
8867.00,1.50
8866.00,1.50
8865.00,1.50
8864.00,1.50
8863.00,1.50
8862.00,1.50
8861.00,1.50
8860.00,1.50
8859.00,1.50
8858.00,1.49
8857.00,1.49
8856.00,1.49
8855.00,1.49
8854.00,1.49
8853.00,1.49
8852.00,1.49
8851.00,1.49
8850.00,1.49
8849.00,1.49
8848.00,1.49
8847.00,1.49
8846.00,1.49
8845.00,1.49
8844.00,1.49
8843.00,1.49
8842.00,1.49
8841.00,1.49
8840.00,1.49
8839.00,1.49
8838.00,1.49
8837.00,1.49
8836.00,1.49
8835.00,1.49
8834.00,1.49
8833.00,1.49
8832.00,1.50
8831.00,1.50
8830.00,1.50
8829.00,1.49
8828.00,1.49
8827.00,1.49
8826.00,1.49
8825.00,1.49
8824.00,1.49
8823.00,1.49
8822.00,1.49
8821.00,1.49
8820.00,1.49
8819.00,1.49
8818.00,1.49
8817.00,1.49
8816.00,1.49
8815.00,1.49
8814.00,1.49
8813.00,1.49
8812.00,1.49
8811.00,1.49
8810.00,1.49
8809.00,1.49
8808.00,1.49
8807.00,1.49
8806.00,1.49
8805.00,1.49
8804.00,1.49
8803.00,1.49
8802.00,1.49
8801.00,1.49
8800.00,1.49
8799.00,1.49
8798.00,1.49
8797.00,1.49
8796.00,1.49
8795.00,1.49
8794.00,1.49
8793.00,1.49
8792.00,1.49
8791.00,1.49
8790.00,1.49
8789.00,1.49
8788.00,1.49
8787.00,1.49
8786.00,1.49
8785.00,1.48
8784.00,1.48
8783.00,1.48
8782.00,1.48
8781.00,1.48
8780.00,1.48
8779.00,1.48
8778.00,1.48
8777.00,1.48
8776.00,1.48
8775.00,1.48
8774.00,1.48
8773.00,1.48
8772.00,1.48
8771.00,1.48
8770.00,1.48
8769.00,1.48
8768.00,1.48
8767.00,1.48
8766.00,1.48
8765.00,1.48
8764.00,1.48
8763.00,1.48
8762.00,1.48
8761.00,1.48
8760.00,1.48
8759.00,1.48
8758.00,1.47
8757.00,1.47
8756.00,1.47
8755.00,1.47
8754.00,1.47
8753.00,1.47
8752.00,1.47
8751.00,1.47
8750.00,1.47
8749.00,1.47
8748.00,1.47
8747.00,1.47
8746.00,1.47
8745.00,1.47
8744.00,1.47
8743.00,1.47
8742.00,1.47
8741.00,1.47
8740.00,1.47
8739.00,1.47
8738.00,1.47
8737.00,1.47
8736.00,1.47
8735.00,1.47
8734.00,1.47
8733.00,1.47
8732.00,1.46
8731.00,1.46
8730.00,1.46
8729.00,1.46
8728.00,1.46
8727.00,1.46
8726.00,1.46
8725.00,1.46
8724.00,1.46
8723.00,1.46
8722.00,1.46
8721.00,1.46
8720.00,1.46
8719.00,1.46
8718.00,1.46
8717.00,1.46
8716.00,1.46
8715.00,1.46
8714.00,1.46
8713.00,1.46
8712.00,1.46
8711.00,1.46
8710.00,1.46
8709.00,1.46
8708.00,1.46
8707.00,1.46
8706.00,1.46
8705.00,1.46
8704.00,1.46
8703.00,1.46
8702.00,1.46
8701.00,1.47
8700.00,1.47
8699.00,1.47
8698.00,1.47
8697.00,1.47
8696.00,1.47
8695.00,1.47
8694.00,1.47
8693.00,1.47
8692.00,1.47
8691.00,1.47
8690.00,1.47
8689.00,1.47
8688.00,1.47
8687.00,1.47
8686.00,1.47
8685.00,1.47
8684.00,1.47
8683.00,1.47
8682.00,1.46
8681.00,1.46
8680.00,1.46
8679.00,1.46
8678.00,1.46
8677.00,1.46
8676.00,1.46
8675.00,1.46
8674.00,1.45
8673.00,1.45
8672.00,1.45
8671.00,1.45
8670.00,1.45
8669.00,1.45
8668.00,1.45
8667.00,1.45
8666.00,1.45
8665.00,1.45
8664.00,1.45
8663.00,1.45
8662.00,1.45
8661.00,1.45
8660.00,1.45
8659.00,1.45
8658.00,1.45
8657.00,1.45
8656.00,1.45
8655.00,1.45
8654.00,1.45
8653.00,1.45
8652.00,1.45
8651.00,1.45
8650.00,1.45
8649.00,1.45
8648.00,1.45
8647.00,1.45
8646.00,1.45
8645.00,1.45
8644.00,1.45
8643.00,1.45
8642.00,1.45
8641.00,1.45
8640.00,1.45
8639.00,1.45
8638.00,1.45
8637.00,1.45
8636.00,1.45
8635.00,1.45
8634.00,1.45
8633.00,1.45
8632.00,1.45
8631.00,1.45
8630.00,1.45
8629.00,1.46
8628.00,1.46
8627.00,1.46
8626.00,1.46
8625.00,1.46
8624.00,1.46
8623.00,1.46
8622.00,1.46
8621.00,1.46
8620.00,1.46
8619.00,1.46
8618.00,1.46
8617.00,1.46
8616.00,1.46
8615.00,1.45
8614.00,1.45
8613.00,1.45
8612.00,1.45
8611.00,1.45
8610.00,1.44
8609.00,1.44
8608.00,1.44
8607.00,1.44
8606.00,1.44
8605.00,1.44
8604.00,1.44
8603.00,1.44
8602.00,1.43
8601.00,1.43
8600.00,1.43
8599.00,1.43
8598.00,1.43
8597.00,1.43
8596.00,1.44
8595.00,1.44
8594.00,1.44
8593.00,1.44
8592.00,1.44
8591.00,1.44
8590.00,1.44
8589.00,1.44
8588.00,1.44
8587.00,1.44
8586.00,1.44
8585.00,1.43
8584.00,1.43
8583.00,1.43
8582.00,1.43
8581.00,1.43
8580.00,1.43
8579.00,1.42
8578.00,1.42
8577.00,1.42
8576.00,1.42
8575.00,1.41
8574.00,1.41
8573.00,1.41
8572.00,1.41
8571.00,1.41
8570.00,1.41
8569.00,1.41
8568.00,1.40
8567.00,1.40
8566.00,1.40
8565.00,1.40
8564.00,1.40
8563.00,1.40
8562.00,1.40
8561.00,1.40
8560.00,1.41
8559.00,1.41
8558.00,1.41
8557.00,1.41
8556.00,1.41
8555.00,1.41
8554.00,1.41
8553.00,1.42
8552.00,1.42
8551.00,1.42
8550.00,1.42
8549.00,1.42
8548.00,1.42
8547.00,1.43
8546.00,1.43
8545.00,1.43
8544.00,1.43
8543.00,1.43
8542.00,1.43
8541.00,1.43
8540.00,1.43
8539.00,1.43
8538.00,1.43
8537.00,1.43
8536.00,1.43
8535.00,1.43
8534.00,1.43
8533.00,1.43
8532.00,1.43
8531.00,1.43
8530.00,1.42
8529.00,1.42
8528.00,1.42
8527.00,1.42
8526.00,1.42
8525.00,1.42
8524.00,1.42
8523.00,1.42
8522.00,1.42
8521.00,1.42
8520.00,1.42
8519.00,1.42
8518.00,1.42
8517.00,1.42
8516.00,1.42
8515.00,1.42
8514.00,1.42
8513.00,1.42
8512.00,1.42
8511.00,1.42
8510.00,1.42
8509.00,1.41
8508.00,1.41
8507.00,1.41
8506.00,1.41
8505.00,1.41
8504.00,1.41
8503.00,1.41
8502.00,1.41
8501.00,1.41
8500.00,1.41
8499.00,1.41
8498.00,1.41
8497.00,1.41
8496.00,1.41
8495.00,1.41
8494.00,1.41
8493.00,1.41
8492.00,1.41
8491.00,1.40
8490.00,1.40
8489.00,1.40
8488.00,1.40
8487.00,1.40
8486.00,1.40
8485.00,1.40
8484.00,1.40
8483.00,1.40
8482.00,1.40
8481.00,1.40
8480.00,1.39
8479.00,1.39
8478.00,1.39
8477.00,1.39
8476.00,1.39
8475.00,1.39
8474.00,1.39
8473.00,1.39
8472.00,1.39
8471.00,1.39
8470.00,1.39
8469.00,1.39
8468.00,1.39
8467.00,1.39
8466.00,1.39
8465.00,1.39
8464.00,1.39
8463.00,1.39
8462.00,1.39
8461.00,1.39
8460.00,1.39
8459.00,1.39
8458.00,1.39
8457.00,1.39
8456.00,1.39
8455.00,1.39
8454.00,1.39
8453.00,1.39
8452.00,1.39
8451.00,1.39
8450.00,1.39
8449.00,1.39
8448.00,1.39
8447.00,1.38
8446.00,1.38
8445.00,1.38
8444.00,1.38
8443.00,1.38
8442.00,1.38
8441.00,1.38
8440.00,1.38
8439.00,1.37
8438.00,1.37
8437.00,1.37
8436.00,1.37
8435.00,1.37
8434.00,1.37
8433.00,1.37
8432.00,1.37
8431.00,1.37
8430.00,1.37
8429.00,1.37
8428.00,1.37
8427.00,1.37
8426.00,1.38
8425.00,1.38
8424.00,1.38
8423.00,1.38
8422.00,1.38
8421.00,1.38
8420.00,1.38
8419.00,1.38
8418.00,1.38
8417.00,1.38
8416.00,1.38
8415.00,1.38
8414.00,1.38
8413.00,1.38
8412.00,1.38
8411.00,1.38
8410.00,1.39
8409.00,1.39
8408.00,1.39
8407.00,1.39
8406.00,1.39
8405.00,1.39
8404.00,1.39
8403.00,1.39
8402.00,1.39
8401.00,1.39
8400.00,1.39
8399.00,1.39
8398.00,1.39
8397.00,1.39
8396.00,1.39
8395.00,1.39
8394.00,1.39
8393.00,1.39
8392.00,1.39
8391.00,1.39
8390.00,1.39
8389.00,1.39
8388.00,1.39
8387.00,1.39
8386.00,1.39
8385.00,1.39
8384.00,1.39
8383.00,1.39
8382.00,1.40
8381.00,1.40
8380.00,1.40
8379.00,1.40
8378.00,1.40
8377.00,1.40
8376.00,1.40
8375.00,1.40
8374.00,1.40
8373.00,1.41
8372.00,1.41
8371.00,1.41
8370.00,1.41
8369.00,1.41
8368.00,1.41
8367.00,1.41
8366.00,1.41
8365.00,1.41
8364.00,1.41
8363.00,1.41
8362.00,1.41
8361.00,1.41
8360.00,1.41
8359.00,1.41
8358.00,1.41
8357.00,1.41
8356.00,1.41
8355.00,1.41
8354.00,1.41
8353.00,1.41
8352.00,1.41
8351.00,1.41
8350.00,1.41
8349.00,1.41
8348.00,1.41
8347.00,1.41
8346.00,1.41
8345.00,1.41
8344.00,1.41
8343.00,1.41
8342.00,1.41
8341.00,1.41
8340.00,1.41
8339.00,1.41
8338.00,1.41
8337.00,1.41
8336.00,1.41
8335.00,1.41
8334.00,1.41
8333.00,1.41
8332.00,1.41
8331.00,1.41
8330.00,1.41
8329.00,1.41
8328.00,1.42
8327.00,1.42
8326.00,1.42
8325.00,1.42
8324.00,1.42
8323.00,1.42
8322.00,1.42
8321.00,1.42
8320.00,1.42
8319.00,1.42
8318.00,1.42
8317.00,1.42
8316.00,1.42
8315.00,1.42
8314.00,1.41
8313.00,1.41
8312.00,1.41
8311.00,1.41
8310.00,1.41
8309.00,1.41
8308.00,1.42
8307.00,1.42
8306.00,1.42
8305.00,1.42
8304.00,1.42
8303.00,1.42
8302.00,1.42
8301.00,1.42
8300.00,1.42
8299.00,1.42
8298.00,1.42
8297.00,1.42
8296.00,1.42
8295.00,1.42
8294.00,1.42
8293.00,1.42
8292.00,1.42
8291.00,1.42
8290.00,1.42
8289.00,1.42
8288.00,1.42
8287.00,1.42
8286.00,1.42
8285.00,1.42
8284.00,1.42
8283.00,1.42
8282.00,1.42
8281.00,1.42
8280.00,1.42
8279.00,1.42
8278.00,1.42
8277.00,1.42
8276.00,1.42
8275.00,1.42
8274.00,1.42
8273.00,1.42
8272.00,1.42
8271.00,1.42
8270.00,1.42
8269.00,1.42
8268.00,1.42
8267.00,1.42
8266.00,1.42
8265.00,1.42
8264.00,1.42
8263.00,1.42
8262.00,1.42
8261.00,1.43
8260.00,1.43
8259.00,1.43
8258.00,1.43
8257.00,1.43
8256.00,1.43
8255.00,1.43
8254.00,1.43
8253.00,1.44
8252.00,1.44
8251.00,1.44
8250.00,1.44
8249.00,1.44
8248.00,1.44
8247.00,1.44
8246.00,1.44
8245.00,1.44
8244.00,1.44
8243.00,1.44
8242.00,1.43
8241.00,1.43
8240.00,1.43
8239.00,1.43
8238.00,1.43
8237.00,1.43
8236.00,1.43
8235.00,1.43
8234.00,1.43
8233.00,1.43
8232.00,1.43
8231.00,1.43
8230.00,1.43
8229.00,1.43
8228.00,1.43
8227.00,1.43
8226.00,1.43
8225.00,1.43
8224.00,1.43
8223.00,1.43
8222.00,1.43
8221.00,1.43
8220.00,1.43
8219.00,1.43
8218.00,1.44
8217.00,1.44
8216.00,1.44
8215.00,1.44
8214.00,1.44
8213.00,1.44
8212.00,1.44
8211.00,1.44
8210.00,1.44
8209.00,1.44
8208.00,1.44
8207.00,1.44
8206.00,1.44
8205.00,1.43
8204.00,1.43
8203.00,1.43
8202.00,1.43
8201.00,1.43
8200.00,1.43
8199.00,1.43
8198.00,1.43
8197.00,1.43
8196.00,1.43
8195.00,1.44
8194.00,1.44
8193.00,1.44
8192.00,1.44
8191.00,1.44
8190.00,1.44
8189.00,1.44
8188.00,1.44
8187.00,1.44
8186.00,1.44
8185.00,1.44
8184.00,1.44
8183.00,1.44
8182.00,1.45
8181.00,1.45
8180.00,1.45
8179.00,1.45
8178.00,1.45
8177.00,1.45
8176.00,1.45
8175.00,1.45
8174.00,1.45
8173.00,1.45
8172.00,1.45
8171.00,1.45
8170.00,1.45
8169.00,1.45
8168.00,1.45
8167.00,1.45
8166.00,1.45
8165.00,1.45
8164.00,1.45
8163.00,1.45
8162.00,1.45
8161.00,1.45
8160.00,1.45
8159.00,1.45
8158.00,1.45
8157.00,1.45
8156.00,1.45
8155.00,1.45
8154.00,1.45
8153.00,1.45
8152.00,1.45
8151.00,1.45
8150.00,1.45
8149.00,1.45
8148.00,1.45
8147.00,1.45
8146.00,1.45
8145.00,1.45
8144.00,1.45
8143.00,1.45
8142.00,1.45
8141.00,1.45
8140.00,1.45
8139.00,1.45
8138.00,1.45
8137.00,1.45
8136.00,1.45
8135.00,1.46
8134.00,1.46
8133.00,1.46
8132.00,1.46
8131.00,1.46
8130.00,1.46
8129.00,1.46
8128.00,1.46
8127.00,1.46
8126.00,1.46
8125.00,1.46
8124.00,1.46
8123.00,1.46
8122.00,1.46
8121.00,1.46
8120.00,1.46
8119.00,1.46
8118.00,1.46
8117.00,1.46
8116.00,1.46
8115.00,1.46
8114.00,1.46
8113.00,1.46
8112.00,1.46
8111.00,1.46
8110.00,1.46
8109.00,1.47
8108.00,1.47
8107.00,1.47
8106.00,1.47
8105.00,1.47
8104.00,1.47
8103.00,1.47
8102.00,1.47
8101.00,1.47
8100.00,1.47
8099.00,1.47
8098.00,1.48
8097.00,1.48
8096.00,1.48
8095.00,1.48
8094.00,1.48
8093.00,1.48
8092.00,1.48
8091.00,1.48
8090.00,1.48
8089.00,1.48
8088.00,1.48
8087.00,1.48
8086.00,1.48
8085.00,1.47
8084.00,1.47
8083.00,1.47
8082.00,1.47
8081.00,1.47
8080.00,1.47
8079.00,1.47
8078.00,1.47
8077.00,1.47
8076.00,1.47
8075.00,1.47
8074.00,1.47
8073.00,1.47
8072.00,1.47
8071.00,1.47
8070.00,1.47
8069.00,1.47
8068.00,1.47
8067.00,1.47
8066.00,1.47
8065.00,1.47
8064.00,1.47
8063.00,1.47
8062.00,1.47
8061.00,1.47
8060.00,1.48
8059.00,1.48
8058.00,1.48
8057.00,1.48
8056.00,1.48
8055.00,1.48
8054.00,1.48
8053.00,1.48
8052.00,1.48
8051.00,1.48
8050.00,1.47
8049.00,1.47
8048.00,1.47
8047.00,1.47
8046.00,1.47
8045.00,1.47
8044.00,1.47
8043.00,1.47
8042.00,1.47
8041.00,1.47
8040.00,1.47
8039.00,1.47
8038.00,1.47
8037.00,1.47
8036.00,1.47
8035.00,1.47
8034.00,1.48
8033.00,1.48
8032.00,1.48
8031.00,1.48
8030.00,1.48
8029.00,1.48
8028.00,1.48
8027.00,1.48
8026.00,1.48
8025.00,1.48
8024.00,1.48
8023.00,1.48
8022.00,1.48
8021.00,1.48
8020.00,1.48
8019.00,1.48
8018.00,1.48
8017.00,1.48
8016.00,1.48
8015.00,1.48
8014.00,1.48
8013.00,1.48
8012.00,1.48
8011.00,1.48
8010.00,1.48
8009.00,1.48
8008.00,1.48
8007.00,1.48
8006.00,1.48
8005.00,1.48
8004.00,1.48
8003.00,1.48
8002.00,1.48
8001.00,1.48
8000.00,1.48
7999.00,1.48
7998.00,1.48
7997.00,1.48
7996.00,1.48
7995.00,1.47
7994.00,1.47
7993.00,1.47
7992.00,1.47
7991.00,1.47
7990.00,1.47
7989.00,1.47
7988.00,1.47
7987.00,1.47
7986.00,1.47
7985.00,1.47
7984.00,1.47
7983.00,1.47
7982.00,1.47
7981.00,1.47
7980.00,1.47
7979.00,1.47
7978.00,1.47
7977.00,1.47
7976.00,1.48
7975.00,1.48
7974.00,1.48
7973.00,1.48
7972.00,1.48
7971.00,1.48
7970.00,1.48
7969.00,1.48
7968.00,1.48
7967.00,1.48
7966.00,1.48
7965.00,1.48
7964.00,1.48
7963.00,1.48
7962.00,1.48
7961.00,1.48
7960.00,1.48
7959.00,1.48
7958.00,1.48
7957.00,1.48
7956.00,1.48
7955.00,1.48
7954.00,1.48
7953.00,1.48
7952.00,1.48
7951.00,1.48
7950.00,1.48
7949.00,1.48
7948.00,1.48
7947.00,1.48
7946.00,1.48
7945.00,1.48
7944.00,1.49
7943.00,1.49
7942.00,1.49
7941.00,1.49
7940.00,1.49
7939.00,1.49
7938.00,1.49
7937.00,1.49
7936.00,1.49
7935.00,1.49
7934.00,1.49
7933.00,1.49
7932.00,1.49
7931.00,1.49
7930.00,1.49
7929.00,1.49
7928.00,1.48
7927.00,1.48
7926.00,1.48
7925.00,1.48
7924.00,1.48
7923.00,1.48
7922.00,1.48
7921.00,1.48
7920.00,1.48
7919.00,1.48
7918.00,1.48
7917.00,1.48
7916.00,1.48
7915.00,1.48
7914.00,1.48
7913.00,1.48
7912.00,1.48
7911.00,1.49
7910.00,1.49
7909.00,1.49
7908.00,1.49
7907.00,1.49
7906.00,1.49
7905.00,1.49
7904.00,1.49
7903.00,1.49
7902.00,1.49
7901.00,1.49
7900.00,1.49
7899.00,1.50
7898.00,1.50
7897.00,1.50
7896.00,1.50
7895.00,1.50
7894.00,1.50
7893.00,1.50
7892.00,1.50
7891.00,1.50
7890.00,1.50
7889.00,1.50
7888.00,1.50
7887.00,1.50
7886.00,1.50
7885.00,1.50
7884.00,1.50
7883.00,1.50
7882.00,1.50
7881.00,1.50
7880.00,1.50
7879.00,1.50
7878.00,1.50
7877.00,1.50
7876.00,1.50
7875.00,1.50
7874.00,1.50
7873.00,1.50
7872.00,1.50
7871.00,1.50
7870.00,1.50
7869.00,1.50
7868.00,1.50
7867.00,1.50
7866.00,1.50
7865.00,1.50
7864.00,1.50
7863.00,1.50
7862.00,1.50
7861.00,1.50
7860.00,1.50
7859.00,1.50
7858.00,1.50
7857.00,1.51
7856.00,1.51
7855.00,1.51
7854.00,1.51
7853.00,1.51
7852.00,1.51
7851.00,1.51
7850.00,1.51
7849.00,1.51
7848.00,1.51
7847.00,1.51
7846.00,1.50
7845.00,1.50
7844.00,1.50
7843.00,1.50
7842.00,1.50
7841.00,1.50
7840.00,1.50
7839.00,1.50
7838.00,1.50
7837.00,1.50
7836.00,1.50
7835.00,1.50
7834.00,1.50
7833.00,1.50
7832.00,1.50
7831.00,1.50
7830.00,1.50
7829.00,1.50
7828.00,1.50
7827.00,1.50
7826.00,1.50
7825.00,1.50
7824.00,1.50
7823.00,1.50
7822.00,1.50
7821.00,1.50
7820.00,1.50
7819.00,1.50
7818.00,1.50
7817.00,1.50
7816.00,1.50
7815.00,1.50
7814.00,1.50
7813.00,1.50
7812.00,1.50
7811.00,1.50
7810.00,1.50
7809.00,1.50
7808.00,1.50
7807.00,1.50
7806.00,1.50
7805.00,1.50
7804.00,1.50
7803.00,1.50
7802.00,1.50
7801.00,1.50
7800.00,1.50
7799.00,1.50
7798.00,1.50
7797.00,1.50
7796.00,1.50
7795.00,1.50
7794.00,1.50
7793.00,1.50
7792.00,1.50
7791.00,1.50
7790.00,1.50
7789.00,1.50
7788.00,1.50
7787.00,1.50
7786.00,1.50
7785.00,1.50
7784.00,1.50
7783.00,1.50
7782.00,1.50
7781.00,1.50
7780.00,1.50
7779.00,1.50
7778.00,1.50
7777.00,1.50
7776.00,1.50
7775.00,1.50
7774.00,1.50
7773.00,1.50
7772.00,1.50
7771.00,1.50
7770.00,1.51
7769.00,1.51
7768.00,1.51
7767.00,1.51
7766.00,1.51
7765.00,1.51
7764.00,1.51
7763.00,1.51
7762.00,1.51
7761.00,1.51
7760.00,1.51
7759.00,1.51
7758.00,1.51
7757.00,1.51
7756.00,1.51
7755.00,1.51
7754.00,1.51
7753.00,1.51
7752.00,1.51
7751.00,1.51
7750.00,1.51
7749.00,1.51
7748.00,1.51
7747.00,1.51
7746.00,1.51
7745.00,1.51
7744.00,1.51
7743.00,1.51
7742.00,1.51
7741.00,1.51
7740.00,1.51
7739.00,1.51
7738.00,1.51
7737.00,1.51
7736.00,1.51
7735.00,1.50
7734.00,1.50
7733.00,1.50
7732.00,1.50
7731.00,1.50
7730.00,1.50
7729.00,1.50
7728.00,1.50
7727.00,1.50
7726.00,1.50
7725.00,1.50
7724.00,1.50
7723.00,1.50
7722.00,1.50
7721.00,1.50
7720.00,1.50
7719.00,1.50
7718.00,1.50
7717.00,1.51
7716.00,1.51
7715.00,1.51
7714.00,1.51
7713.00,1.50
7712.00,1.50
7711.00,1.50
7710.00,1.50
7709.00,1.50
7708.00,1.50
7707.00,1.50
7706.00,1.50
7705.00,1.50
7704.00,1.50
7703.00,1.50
7702.00,1.50
7701.00,1.50
7700.00,1.50
7699.00,1.50
7698.00,1.50
7697.00,1.50
7696.00,1.50
7695.00,1.50
7694.00,1.50
7693.00,1.50
7692.00,1.50
7691.00,1.50
7690.00,1.50
7689.00,1.50
7688.00,1.50
7687.00,1.50
7686.00,1.50
7685.00,1.50
7684.00,1.50
7683.00,1.50
7682.00,1.50
7681.00,1.50
7680.00,1.50
7679.00,1.50
7678.00,1.50
7677.00,1.50
7676.00,1.50
7675.00,1.51
7674.00,1.51
7673.00,1.51
7672.00,1.51
7671.00,1.51
7670.00,1.51
7669.00,1.51
7668.00,1.51
7667.00,1.51
7666.00,1.51
7665.00,1.51
7664.00,1.51
7663.00,1.51
7662.00,1.51
7661.00,1.51
7660.00,1.51
7659.00,1.51
7658.00,1.51
7657.00,1.51
7656.00,1.51
7655.00,1.52
7654.00,1.52
7653.00,1.52
7652.00,1.52
7651.00,1.52
7650.00,1.51
7649.00,1.51
7648.00,1.51
7647.00,1.51
7646.00,1.51
7645.00,1.51
7644.00,1.51
7643.00,1.51
7642.00,1.51
7641.00,1.51
7640.00,1.50
7639.00,1.50
7638.00,1.50
7637.00,1.50
7636.00,1.50
7635.00,1.50
7634.00,1.50
7633.00,1.50
7632.00,1.50
7631.00,1.50
7630.00,1.50
7629.00,1.50
7628.00,1.50
7627.00,1.50
7626.00,1.50
7625.00,1.50
7624.00,1.50
7623.00,1.51
7622.00,1.51
7621.00,1.51
7620.00,1.51
7619.00,1.51
7618.00,1.51
7617.00,1.51
7616.00,1.51
7615.00,1.51
7614.00,1.51
7613.00,1.51
7612.00,1.51
7611.00,1.51
7610.00,1.51
7609.00,1.51
7608.00,1.51
7607.00,1.51
7606.00,1.51
7605.00,1.51
7604.00,1.51
7603.00,1.51
7602.00,1.51
7601.00,1.51
7600.00,1.51
7599.00,1.51
7598.00,1.51
7597.00,1.51
7596.00,1.51
7595.00,1.51
7594.00,1.51
7593.00,1.51
7592.00,1.51
7591.00,1.51
7590.00,1.50
7589.00,1.50
7588.00,1.50
7587.00,1.50
7586.00,1.50
7585.00,1.50
7584.00,1.50
7583.00,1.50
7582.00,1.49
7581.00,1.49
7580.00,1.49
7579.00,1.49
7578.00,1.49
7577.00,1.49
7576.00,1.49
7575.00,1.49
7574.00,1.49
7573.00,1.49
7572.00,1.49
7571.00,1.49
7570.00,1.49
7569.00,1.49
7568.00,1.49
7567.00,1.49
7566.00,1.50
7565.00,1.50
7564.00,1.50
7563.00,1.50
7562.00,1.50
7561.00,1.50
7560.00,1.50
7559.00,1.50
7558.00,1.50
7557.00,1.50
7556.00,1.50
7555.00,1.50
7554.00,1.50
7553.00,1.50
7552.00,1.50
7551.00,1.50
7550.00,1.50
7549.00,1.51
7548.00,1.51
7547.00,1.51
7546.00,1.51
7545.00,1.51
7544.00,1.51
7543.00,1.51
7542.00,1.51
7541.00,1.51
7540.00,1.51
7539.00,1.51
7538.00,1.51
7537.00,1.50
7536.00,1.50
7535.00,1.50
7534.00,1.50
7533.00,1.50
7532.00,1.50
7531.00,1.50
7530.00,1.50
7529.00,1.50
7528.00,1.50
7527.00,1.50
7526.00,1.50
7525.00,1.50
7524.00,1.50
7523.00,1.49
7522.00,1.49
7521.00,1.49
7520.00,1.49
7519.00,1.49
7518.00,1.49
7517.00,1.49
7516.00,1.49
7515.00,1.49
7514.00,1.49
7513.00,1.49
7512.00,1.49
7511.00,1.49
7510.00,1.49
7509.00,1.49
7508.00,1.49
7507.00,1.48
7506.00,1.48
7505.00,1.48
7504.00,1.48
7503.00,1.49
7502.00,1.49
7501.00,1.49
7500.00,1.49
7499.00,1.49
7498.00,1.49
7497.00,1.49
7496.00,1.49
7495.00,1.49
7494.00,1.49
7493.00,1.49
7492.00,1.49
7491.00,1.49
7490.00,1.49
7489.00,1.49
7488.00,1.49
7487.00,1.49
7486.00,1.49
7485.00,1.49
7484.00,1.49
7483.00,1.49
7482.00,1.49
7481.00,1.49
7480.00,1.49
7479.00,1.49
7478.00,1.49
7477.00,1.49
7476.00,1.49
7475.00,1.48
7474.00,1.48
7473.00,1.48
7472.00,1.48
7471.00,1.48
7470.00,1.48
7469.00,1.48
7468.00,1.48
7467.00,1.48
7466.00,1.48
7465.00,1.48
7464.00,1.48
7463.00,1.48
7462.00,1.48
7461.00,1.48
7460.00,1.48
7459.00,1.48
7458.00,1.48
7457.00,1.48
7456.00,1.48
7455.00,1.48
7454.00,1.47
7453.00,1.47
7452.00,1.47
7451.00,1.47
7450.00,1.47
7449.00,1.47
7448.00,1.47
7447.00,1.47
7446.00,1.47
7445.00,1.47
7444.00,1.47
7443.00,1.47
7442.00,1.47
7441.00,1.47
7440.00,1.47
7439.00,1.47
7438.00,1.46
7437.00,1.46
7436.00,1.46
7435.00,1.46
7434.00,1.46
7433.00,1.46
7432.00,1.46
7431.00,1.46
7430.00,1.46
7429.00,1.46
7428.00,1.46
7427.00,1.46
7426.00,1.46
7425.00,1.46
7424.00,1.46
7423.00,1.46
7422.00,1.46
7421.00,1.46
7420.00,1.46
7419.00,1.46
7418.00,1.46
7417.00,1.46
7416.00,1.46
7415.00,1.46
7414.00,1.46
7413.00,1.46
7412.00,1.46
7411.00,1.45
7410.00,1.45
7409.00,1.45
7408.00,1.45
7407.00,1.45
7406.00,1.45
7405.00,1.45
7404.00,1.45
7403.00,1.45
7402.00,1.45
7401.00,1.45
7400.00,1.45
7399.00,1.44
7398.00,1.44
7397.00,1.44
7396.00,1.44
7395.00,1.44
7394.00,1.44
7393.00,1.44
7392.00,1.44
7391.00,1.44
7390.00,1.44
7389.00,1.44
7388.00,1.44
7387.00,1.44
7386.00,1.44
7385.00,1.44
7384.00,1.44
7383.00,1.44
7382.00,1.44
7381.00,1.44
7380.00,1.44
7379.00,1.43
7378.00,1.43
7377.00,1.43
7376.00,1.43
7375.00,1.43
7374.00,1.43
7373.00,1.43
7372.00,1.43
7371.00,1.43
7370.00,1.43
7369.00,1.43
7368.00,1.43
7367.00,1.43
7366.00,1.43
7365.00,1.43
7364.00,1.43
7363.00,1.43
7362.00,1.43
7361.00,1.43
7360.00,1.43
7359.00,1.43
7358.00,1.43
7357.00,1.43
7356.00,1.43
7355.00,1.43
7354.00,1.43
7353.00,1.43
7352.00,1.43
7351.00,1.43
7350.00,1.43
7349.00,1.43
7348.00,1.43
7347.00,1.43
7346.00,1.43
7345.00,1.43
7344.00,1.43
7343.00,1.43
7342.00,1.43
7341.00,1.43
7340.00,1.43
7339.00,1.43
7338.00,1.43
7337.00,1.43
7336.00,1.43
7335.00,1.43
7334.00,1.43
7333.00,1.43
7332.00,1.43
7331.00,1.43
7330.00,1.43
7329.00,1.43
7328.00,1.42
7327.00,1.42
7326.00,1.42
7325.00,1.42
7324.00,1.42
7323.00,1.42
7322.00,1.42
7321.00,1.42
7320.00,1.42
7319.00,1.42
7318.00,1.42
7317.00,1.42
7316.00,1.42
7315.00,1.42
7314.00,1.42
7313.00,1.42
7312.00,1.42
7311.00,1.42
7310.00,1.41
7309.00,1.41
7308.00,1.41
7307.00,1.41
7306.00,1.41
7305.00,1.41
7304.00,1.41
7303.00,1.41
7302.00,1.41
7301.00,1.40
7300.00,1.40
7299.00,1.40
7298.00,1.40
7297.00,1.40
7296.00,1.40
7295.00,1.40
7294.00,1.40
7293.00,1.40
7292.00,1.40
7291.00,1.40
7290.00,1.40
7289.00,1.40
7288.00,1.40
7287.00,1.40
7286.00,1.40
7285.00,1.40
7284.00,1.39
7283.00,1.39
7282.00,1.39
7281.00,1.39
7280.00,1.39
7279.00,1.39
7278.00,1.39
7277.00,1.39
7276.00,1.39
7275.00,1.39
7274.00,1.39
7273.00,1.38
7272.00,1.38
7271.00,1.38
7270.00,1.38
7269.00,1.38
7268.00,1.38
7267.00,1.38
7266.00,1.38
7265.00,1.38
7264.00,1.37
7263.00,1.37
7262.00,1.37
7261.00,1.37
7260.00,1.37
7259.00,1.37
7258.00,1.37
7257.00,1.37
7256.00,1.37
7255.00,1.37
7254.00,1.36
7253.00,1.36
7252.00,1.36
7251.00,1.36
7250.00,1.36
7249.00,1.36
7248.00,1.35
7247.00,1.35
7246.00,1.35
7245.00,1.35
7244.00,1.35
7243.00,1.35
7242.00,1.34
7241.00,1.34
7240.00,1.34
7239.00,1.34
7238.00,1.34
7237.00,1.33
7236.00,1.33
7235.00,1.33
7234.00,1.33
7233.00,1.33
7232.00,1.32
7231.00,1.32
7230.00,1.32
7229.00,1.31
7228.00,1.31
7227.00,1.31
7226.00,1.31
7225.00,1.30
7224.00,1.30
7223.00,1.30
7222.00,1.29
7221.00,1.29
7220.00,1.29
7219.00,1.28
7218.00,1.28
7217.00,1.28
7216.00,1.27
7215.00,1.27
7214.00,1.27
7213.00,1.26
7212.00,1.26
7211.00,1.26
7210.00,1.26
7209.00,1.25
7208.00,1.25
7207.00,1.25
7206.00,1.24
7205.00,1.24
7204.00,1.24
7203.00,1.24
7202.00,1.23
7201.00,1.23
7200.00,1.23
7199.00,1.23
7198.00,1.22
7197.00,1.22
7196.00,1.22
7195.00,1.21
7194.00,1.21
7193.00,1.21
7192.00,1.21
7191.00,1.20
7190.00,1.20
7189.00,1.20
7188.00,1.20
7187.00,1.19
7186.00,1.19
7185.00,1.19
7184.00,1.19
7183.00,1.18
7182.00,1.18
7181.00,1.18
7180.00,1.18
7179.00,1.18
7178.00,1.17
7177.00,1.17
7176.00,1.17
7175.00,1.17
7174.00,1.17
7173.00,1.16
7172.00,1.16
7171.00,1.16
7170.00,1.16
7169.00,1.16
7168.00,1.15
7167.00,1.15
7166.00,1.15
7165.00,1.15
7164.00,1.15
7163.00,1.14
7162.00,1.14
7161.00,1.14
7160.00,1.14
7159.00,1.13
7158.00,1.13
7157.00,1.13
7156.00,1.13
7155.00,1.13
7154.00,1.12
7153.00,1.12
7152.00,1.12
7151.00,1.12
7150.00,1.12
7149.00,1.11
7148.00,1.11
7147.00,1.11
7146.00,1.11
7145.00,1.11
7144.00,1.10
7143.00,1.10
7142.00,1.10
7141.00,1.09
7140.00,1.09
7139.00,1.09
7138.00,1.09
7137.00,1.08
7136.00,1.08
7135.00,1.08
7134.00,1.07
7133.00,1.07
7132.00,1.07
7131.00,1.07
7130.00,1.06
7129.00,1.06
7128.00,1.06
7127.00,1.06
7126.00,1.05
7125.00,1.05
7124.00,1.05
7123.00,1.05
7122.00,1.05
7121.00,1.04
7120.00,1.04
7119.00,1.04
7118.00,1.04
7117.00,1.04
7116.00,1.04
7115.00,1.03
7114.00,1.03
7113.00,1.03
7112.00,1.03
7111.00,1.03
7110.00,1.03
7109.00,1.02
7108.00,1.02
7107.00,1.02
7106.00,1.02
7105.00,1.02
7104.00,1.01
7103.00,1.01
7102.00,1.01
7101.00,1.01
7100.00,1.01
7099.00,1.00
7098.00,1.00
7097.00,1.00
7096.00,1.00
7095.00,0.99
7094.00,0.99
7093.00,0.99
7092.00,0.99
7091.00,0.98
7090.00,0.98
7089.00,0.98
7088.00,0.98
7087.00,0.97
7086.00,0.97
7085.00,0.97
7084.00,0.97
7083.00,0.97
7082.00,0.96
7081.00,0.96
7080.00,0.96
7079.00,0.96
7078.00,0.95
7077.00,0.95
7076.00,0.95
7075.00,0.95
7074.00,0.95
7073.00,0.94
7072.00,0.94
7071.00,0.94
7070.00,0.94
7069.00,0.94
7068.00,0.93
7067.00,0.93
7066.00,0.93
7065.00,0.93
7064.00,0.93
7063.00,0.93
7062.00,0.93
7061.00,0.92
7060.00,0.92
7059.00,0.92
7058.00,0.92
7057.00,0.92
7056.00,0.92
7055.00,0.92
7054.00,0.91
7053.00,0.91
7052.00,0.91
7051.00,0.91
7050.00,0.91
7049.00,0.91
7048.00,0.91
7047.00,0.91
7046.00,0.91
7045.00,0.90
7044.00,0.90
7043.00,0.90
7042.00,0.90
7041.00,0.90
7040.00,0.90
7039.00,0.90
7038.00,0.90
7037.00,0.90
7036.00,0.90
7035.00,0.90
7034.00,0.90
7033.00,0.89
7032.00,0.89
7031.00,0.89
7030.00,0.89
7029.00,0.89
7028.00,0.89
7027.00,0.89
7026.00,0.88
7025.00,0.88
7024.00,0.88
7023.00,0.88
7022.00,0.88
7021.00,0.88
7020.00,0.87
7019.00,0.87
7018.00,0.87
7017.00,0.87
7016.00,0.87
7015.00,0.86
7014.00,0.86
7013.00,0.86
7012.00,0.86
7011.00,0.86
7010.00,0.86
7009.00,0.86
7008.00,0.86
7007.00,0.86
7006.00,0.85
7005.00,0.85
7004.00,0.85
7003.00,0.85
7002.00,0.85
7001.00,0.85
7000.00,0.85
6999.00,0.85
6998.00,0.85
6997.00,0.85
6996.00,0.85
6995.00,0.85
6994.00,0.85
6993.00,0.85
6992.00,0.85
6991.00,0.85
6990.00,0.84
6989.00,0.84
6988.00,0.84
6987.00,0.84
6986.00,0.84
6985.00,0.84
6984.00,0.84
6983.00,0.84
6982.00,0.84
6981.00,0.84
6980.00,0.83
6979.00,0.83
6978.00,0.83
6977.00,0.83
6976.00,0.83
6975.00,0.83
6974.00,0.83
6973.00,0.83
6972.00,0.83
6971.00,0.83
6970.00,0.83
6969.00,0.83
6968.00,0.83
6967.00,0.83
6966.00,0.83
6965.00,0.83
6964.00,0.83
6963.00,0.83
6962.00,0.83
6961.00,0.83
6960.00,0.83
6959.00,0.83
6958.00,0.83
6957.00,0.83
6956.00,0.83
6955.00,0.83
6954.00,0.82
6953.00,0.82
6952.00,0.82
6951.00,0.82
6950.00,0.82
6949.00,0.82
6948.00,0.82
6947.00,0.82
6946.00,0.82
6945.00,0.82
6944.00,0.82
6943.00,0.82
6942.00,0.82
6941.00,0.82
6940.00,0.82
6939.00,0.82
6938.00,0.82
6937.00,0.82
6936.00,0.82
6935.00,0.82
6934.00,0.82
6933.00,0.82
6932.00,0.82
6931.00,0.82
6930.00,0.82
6929.00,0.82
6928.00,0.82
6927.00,0.82
6926.00,0.82
6925.00,0.82
6924.00,0.82
6923.00,0.82
6922.00,0.81
6921.00,0.81
6920.00,0.81
6919.00,0.81
6918.00,0.81
6917.00,0.81
6916.00,0.81
6915.00,0.81
6914.00,0.81
6913.00,0.81
6912.00,0.81
6911.00,0.81
6910.00,0.81
6909.00,0.81
6908.00,0.81
6907.00,0.81
6906.00,0.81
6905.00,0.81
6904.00,0.81
6903.00,0.81
6902.00,0.81
6901.00,0.81
6900.00,0.81
6899.00,0.81
6898.00,0.81
6897.00,0.81
6896.00,0.81
6895.00,0.81
6894.00,0.81
6893.00,0.81
6892.00,0.81
6891.00,0.81
6890.00,0.81
6889.00,0.81
6888.00,0.81
6887.00,0.81
6886.00,0.81
6885.00,0.81
6884.00,0.81
6883.00,0.81
6882.00,0.81
6881.00,0.81
6880.00,0.81
6879.00,0.81
6878.00,0.81
6877.00,0.81
6876.00,0.81
6875.00,0.81
6874.00,0.81
6873.00,0.81
6872.00,0.81
6871.00,0.81
6870.00,0.81
6869.00,0.81
6868.00,0.81
6867.00,0.81
6866.00,0.81
6865.00,0.81
6864.00,0.81
6863.00,0.81
6862.00,0.81
6861.00,0.81
6860.00,0.81
6859.00,0.81
6858.00,0.81
6857.00,0.81
6856.00,0.81
6855.00,0.81
6854.00,0.81
6853.00,0.81
6852.00,0.81
6851.00,0.81
6850.00,0.81
6849.00,0.81
6848.00,0.81
6847.00,0.81
6846.00,0.81
6845.00,0.81
6844.00,0.81
6843.00,0.81
6842.00,0.81
6841.00,0.81
6840.00,0.81
6839.00,0.81
6838.00,0.81
6837.00,0.81
6836.00,0.81
6835.00,0.81
6834.00,0.81
6833.00,0.81
6832.00,0.81
6831.00,0.81
6830.00,0.81
6829.00,0.82
6828.00,0.82
6827.00,0.82
6826.00,0.82
6825.00,0.82
6824.00,0.82
6823.00,0.82
6822.00,0.82
6821.00,0.82
6820.00,0.82
6819.00,0.82
6818.00,0.82
6817.00,0.82
6816.00,0.82
6815.00,0.82
6814.00,0.82
6813.00,0.82
6812.00,0.82
6811.00,0.83
6810.00,0.83
6809.00,0.83
6808.00,0.83
6807.00,0.83
6806.00,0.83
6805.00,0.83
6804.00,0.83
6803.00,0.83
6802.00,0.83
6801.00,0.83
6800.00,0.83
6799.00,0.83
6798.00,0.83
6797.00,0.83
6796.00,0.83
6795.00,0.83
6794.00,0.83
6793.00,0.83
6792.00,0.83
6791.00,0.83
6790.00,0.83
6789.00,0.83
6788.00,0.83
6787.00,0.83
6786.00,0.83
6785.00,0.83
6784.00,0.83
6783.00,0.83
6782.00,0.83
6781.00,0.84
6780.00,0.84
6779.00,0.84
6778.00,0.84
6777.00,0.84
6776.00,0.84
6775.00,0.84
6774.00,0.84
6773.00,0.84
6772.00,0.84
6771.00,0.84
6770.00,0.84
6769.00,0.84
6768.00,0.84
6767.00,0.84
6766.00,0.84
6765.00,0.84
6764.00,0.85
6763.00,0.85
6762.00,0.85
6761.00,0.85
6760.00,0.85
6759.00,0.85
6758.00,0.85
6757.00,0.85
6756.00,0.85
6755.00,0.85
6754.00,0.85
6753.00,0.85
6752.00,0.85
6751.00,0.85
6750.00,0.85
6749.00,0.85
6748.00,0.85
6747.00,0.85
6746.00,0.86
6745.00,0.86
6744.00,0.86
6743.00,0.86
6742.00,0.86
6741.00,0.86
6740.00,0.86
6739.00,0.86
6738.00,0.86
6737.00,0.86
6736.00,0.87
6735.00,0.87
6734.00,0.87
6733.00,0.87
6732.00,0.87
6731.00,0.87
6730.00,0.87
6729.00,0.88
6728.00,0.88
6727.00,0.88
6726.00,0.88
6725.00,0.88
6724.00,0.88
6723.00,0.89
6722.00,0.89
6721.00,0.89
6720.00,0.89
6719.00,0.89
6718.00,0.89
6717.00,0.89
6716.00,0.89
6715.00,0.89
6714.00,0.89
6713.00,0.89
6712.00,0.89
6711.00,0.89
6710.00,0.89
6709.00,0.89
6708.00,0.89
6707.00,0.90
6706.00,0.90
6705.00,0.90
6704.00,0.90
6703.00,0.90
6702.00,0.90
6701.00,0.90
6700.00,0.90
6699.00,0.90
6698.00,0.90
6697.00,0.90
6696.00,0.90
6695.00,0.90
6694.00,0.91
6693.00,0.91
6692.00,0.91
6691.00,0.91
6690.00,0.91
6689.00,0.91
6688.00,0.91
6687.00,0.91
6686.00,0.92
6685.00,0.92
6684.00,0.92
6683.00,0.92
6682.00,0.92
6681.00,0.92
6680.00,0.92
6679.00,0.92
6678.00,0.92
6677.00,0.92
6676.00,0.92
6675.00,0.92
6674.00,0.92
6673.00,0.93
6672.00,0.93
6671.00,0.93
6670.00,0.93
6669.00,0.93
6668.00,0.93
6667.00,0.93
6666.00,0.93
6665.00,0.93
6664.00,0.94
6663.00,0.94
6662.00,0.94
6661.00,0.94
6660.00,0.94
6659.00,0.94
6658.00,0.94
6657.00,0.95
6656.00,0.95
6655.00,0.95
6654.00,0.95
6653.00,0.95
6652.00,0.95
6651.00,0.95
6650.00,0.95
6649.00,0.95
6648.00,0.95
6647.00,0.95
6646.00,0.95
6645.00,0.95
6644.00,0.95
6643.00,0.95
6642.00,0.96
6641.00,0.96
6640.00,0.96
6639.00,0.96
6638.00,0.96
6637.00,0.96
6636.00,0.96
6635.00,0.96
6634.00,0.96
6633.00,0.96
6632.00,0.96
6631.00,0.96
6630.00,0.96
6629.00,0.96
6628.00,0.96
6627.00,0.97
6626.00,0.97
6625.00,0.97
6624.00,0.97
6623.00,0.97
6622.00,0.97
6621.00,0.97
6620.00,0.98
6619.00,0.98
6618.00,0.98
6617.00,0.98
6616.00,0.98
6615.00,0.98
6614.00,0.99
6613.00,0.99
6612.00,0.99
6611.00,0.99
6610.00,0.99
6609.00,0.99
6608.00,0.99
6607.00,0.99
6606.00,1.00
6605.00,1.00
6604.00,1.00
6603.00,1.00
6602.00,1.00
6601.00,1.00
6600.00,1.00
6599.00,1.00
6598.00,1.00
6597.00,1.00
6596.00,1.00
6595.00,1.00
6594.00,1.01
6593.00,1.01
6592.00,1.01
6591.00,1.01
6590.00,1.01
6589.00,1.01
6588.00,1.01
6587.00,1.01
6586.00,1.01
6585.00,1.01
6584.00,1.01
6583.00,1.01
6582.00,1.01
6581.00,1.01
6580.00,1.01
6579.00,1.01
6578.00,1.01
6577.00,1.01
6576.00,1.01
6575.00,1.01
6574.00,1.02
6573.00,1.02
6572.00,1.02
6571.00,1.02
6570.00,1.02
6569.00,1.02
6568.00,1.02
6567.00,1.02
6566.00,1.02
6565.00,1.02
6564.00,1.02
6563.00,1.02
6562.00,1.02
6561.00,1.03
6560.00,1.03
6559.00,1.03
6558.00,1.03
6557.00,1.03
6556.00,1.03
6555.00,1.03
6554.00,1.03
6553.00,1.03
6552.00,1.04
6551.00,1.04
6550.00,1.04
6549.00,1.04
6548.00,1.04
6547.00,1.04
6546.00,1.05
6545.00,1.05
6544.00,1.05
6543.00,1.05
6542.00,1.05
6541.00,1.05
6540.00,1.05
6539.00,1.06
6538.00,1.06
6537.00,1.06
6536.00,1.06
6535.00,1.06
6534.00,1.06
6533.00,1.06
6532.00,1.06
6531.00,1.06
6530.00,1.06
6529.00,1.06
6528.00,1.06
6527.00,1.06
6526.00,1.06
6525.00,1.06
6524.00,1.06
6523.00,1.06
6522.00,1.06
6521.00,1.06
6520.00,1.06
6519.00,1.06
6518.00,1.06
6517.00,1.06
6516.00,1.07
6515.00,1.07
6514.00,1.07
6513.00,1.07
6512.00,1.07
6511.00,1.07
6510.00,1.07
6509.00,1.07
6508.00,1.07
6507.00,1.07
6506.00,1.07
6505.00,1.07
6504.00,1.08
6503.00,1.08
6502.00,1.08
6501.00,1.08
6500.00,1.08
6499.00,1.08
6498.00,1.08
6497.00,1.08
6496.00,1.08
6495.00,1.08
6494.00,1.08
6493.00,1.09
6492.00,1.09
6491.00,1.09
6490.00,1.09
6489.00,1.09
6488.00,1.09
6487.00,1.09
6486.00,1.09
6485.00,1.09
6484.00,1.09
6483.00,1.09
6482.00,1.09
6481.00,1.09
6480.00,1.09
6479.00,1.09
6478.00,1.09
6477.00,1.09
6476.00,1.09
6475.00,1.09
6474.00,1.10
6473.00,1.10
6472.00,1.10
6471.00,1.10
6470.00,1.10
6469.00,1.10
6468.00,1.10
6467.00,1.10
6466.00,1.10
6465.00,1.10
6464.00,1.10
6463.00,1.10
6462.00,1.10
6461.00,1.10
6460.00,1.10
6459.00,1.10
6458.00,1.10
6457.00,1.10
6456.00,1.10
6455.00,1.10
6454.00,1.10
6453.00,1.10
6452.00,1.10
6451.00,1.10
6450.00,1.10
6449.00,1.10
6448.00,1.10
6447.00,1.10
6446.00,1.11
6445.00,1.11
6444.00,1.11
6443.00,1.11
6442.00,1.11
6441.00,1.11
6440.00,1.11
6439.00,1.11
6438.00,1.11
6437.00,1.11
6436.00,1.12
6435.00,1.12
6434.00,1.12
6433.00,1.12
6432.00,1.12
6431.00,1.12
6430.00,1.12
6429.00,1.12
6428.00,1.12
6427.00,1.12
6426.00,1.12
6425.00,1.12
6424.00,1.12
6423.00,1.12
6422.00,1.12
6421.00,1.12
6420.00,1.12
6419.00,1.12
6418.00,1.12
6417.00,1.12
6416.00,1.12
6415.00,1.12
6414.00,1.12
6413.00,1.12
6412.00,1.12
6411.00,1.12
6410.00,1.12
6409.00,1.12
6408.00,1.12
6407.00,1.12
6406.00,1.12
6405.00,1.12
6404.00,1.12
6403.00,1.12
6402.00,1.12
6401.00,1.12
6400.00,1.12
6399.00,1.12
6398.00,1.12
6397.00,1.12
6396.00,1.12
6395.00,1.12
6394.00,1.12
6393.00,1.13
6392.00,1.13
6391.00,1.13
6390.00,1.13
6389.00,1.13
6388.00,1.13
6387.00,1.13
6386.00,1.13
6385.00,1.13
6384.00,1.14
6383.00,1.14
6382.00,1.14
6381.00,1.14
6380.00,1.14
6379.00,1.14
6378.00,1.14
6377.00,1.14
6376.00,1.14
6375.00,1.14
6374.00,1.14
6373.00,1.14
6372.00,1.14
6371.00,1.14
6370.00,1.14
6369.00,1.14
6368.00,1.15
6367.00,1.15
6366.00,1.15
6365.00,1.15
6364.00,1.15
6363.00,1.15
6362.00,1.15
6361.00,1.15
6360.00,1.15
6359.00,1.15
6358.00,1.15
6357.00,1.15
6356.00,1.15
6355.00,1.15
6354.00,1.15
6353.00,1.15
6352.00,1.15
6351.00,1.15
6350.00,1.15
6349.00,1.16
6348.00,1.16
6347.00,1.16
6346.00,1.16
6345.00,1.16
6344.00,1.16
6343.00,1.16
6342.00,1.16
6341.00,1.16
6340.00,1.16
6339.00,1.16
6338.00,1.16
6337.00,1.17
6336.00,1.17
6335.00,1.17
6334.00,1.17
6333.00,1.17
6332.00,1.17
6331.00,1.17
6330.00,1.17
6329.00,1.17
6328.00,1.17
6327.00,1.17
6326.00,1.17
6325.00,1.18
6324.00,1.18
6323.00,1.18
6322.00,1.18
6321.00,1.18
6320.00,1.18
6319.00,1.18
6318.00,1.18
6317.00,1.18
6316.00,1.18
6315.00,1.18
6314.00,1.18
6313.00,1.18
6312.00,1.18
6311.00,1.18
6310.00,1.19
6309.00,1.19
6308.00,1.19
6307.00,1.19
6306.00,1.19
6305.00,1.19
6304.00,1.19
6303.00,1.19
6302.00,1.19
6301.00,1.19
6300.00,1.19
6299.00,1.19
6298.00,1.20
6297.00,1.20
6296.00,1.20
6295.00,1.20
6294.00,1.20
6293.00,1.20
6292.00,1.20
6291.00,1.20
6290.00,1.20
6289.00,1.21
6288.00,1.21
6287.00,1.21
6286.00,1.21
6285.00,1.21
6284.00,1.21
6283.00,1.21
6282.00,1.21
6281.00,1.22
6280.00,1.22
6279.00,1.22
6278.00,1.22
6277.00,1.22
6276.00,1.22
6275.00,1.22
6274.00,1.22
6273.00,1.22
6272.00,1.22
6271.00,1.22
6270.00,1.22
6269.00,1.23
6268.00,1.23
6267.00,1.23
6266.00,1.23
6265.00,1.23
6264.00,1.23
6263.00,1.23
6262.00,1.23
6261.00,1.23
6260.00,1.23
6259.00,1.23
6258.00,1.23
6257.00,1.24
6256.00,1.24
6255.00,1.24
6254.00,1.24
6253.00,1.24
6252.00,1.24
6251.00,1.24
6250.00,1.24
6249.00,1.24
6248.00,1.24
6247.00,1.24
6246.00,1.25
6245.00,1.25
6244.00,1.25
6243.00,1.25
6242.00,1.25
6241.00,1.25
6240.00,1.25
6239.00,1.25
6238.00,1.25
6237.00,1.26
6236.00,1.26
6235.00,1.26
6234.00,1.26
6233.00,1.26
6232.00,1.26
6231.00,1.26
6230.00,1.26
6229.00,1.26
6228.00,1.27
6227.00,1.27
6226.00,1.27
6225.00,1.27
6224.00,1.27
6223.00,1.27
6222.00,1.27
6221.00,1.27
6220.00,1.27
6219.00,1.27
6218.00,1.27
6217.00,1.28
6216.00,1.28
6215.00,1.28
6214.00,1.28
6213.00,1.28
6212.00,1.28
6211.00,1.28
6210.00,1.28
6209.00,1.29
6208.00,1.29
6207.00,1.29
6206.00,1.29
6205.00,1.29
6204.00,1.29
6203.00,1.29
6202.00,1.29
6201.00,1.30
6200.00,1.30
6199.00,1.30
6198.00,1.30
6197.00,1.30
6196.00,1.30
6195.00,1.30
6194.00,1.30
6193.00,1.30
6192.00,1.30
6191.00,1.30
6190.00,1.31
6189.00,1.31
6188.00,1.31
6187.00,1.31
6186.00,1.31
6185.00,1.31
6184.00,1.31
6183.00,1.31
6182.00,1.32
6181.00,1.32
6180.00,1.32
6179.00,1.32
6178.00,1.32
6177.00,1.32
6176.00,1.32
6175.00,1.33
6174.00,1.33
6173.00,1.33
6172.00,1.33
6171.00,1.33
6170.00,1.33
6169.00,1.33
6168.00,1.33
6167.00,1.33
6166.00,1.33
6165.00,1.33
6164.00,1.33
6163.00,1.34
6162.00,1.34
6161.00,1.34
6160.00,1.34
6159.00,1.34
6158.00,1.34
6157.00,1.34
6156.00,1.34
6155.00,1.34
6154.00,1.35
6153.00,1.35
6152.00,1.35
6151.00,1.35
6150.00,1.35
6149.00,1.35
6148.00,1.36
6147.00,1.36
6146.00,1.36
6145.00,1.36
6144.00,1.36
6143.00,1.36
6142.00,1.37
6141.00,1.37
6140.00,1.37
6139.00,1.37
6138.00,1.37
6137.00,1.37
6136.00,1.37
6135.00,1.37
6134.00,1.37
6133.00,1.37
6132.00,1.37
6131.00,1.37
6130.00,1.38
6129.00,1.38
6128.00,1.38
6127.00,1.38
6126.00,1.38
6125.00,1.38
6124.00,1.38
6123.00,1.38
6122.00,1.38
6121.00,1.38
6120.00,1.38
6119.00,1.38
6118.00,1.38
6117.00,1.39
6116.00,1.39
6115.00,1.39
6114.00,1.39
6113.00,1.39
6112.00,1.39
6111.00,1.39
6110.00,1.39
6109.00,1.40
6108.00,1.40
6107.00,1.40
6106.00,1.40
6105.00,1.40
6104.00,1.40
6103.00,1.40
6102.00,1.40
6101.00,1.41
6100.00,1.41
6099.00,1.41
6098.00,1.41
6097.00,1.41
6096.00,1.41
6095.00,1.41
6094.00,1.41
6093.00,1.41
6092.00,1.42
6091.00,1.42
6090.00,1.42
6089.00,1.42
6088.00,1.42
6087.00,1.42
6086.00,1.42
6085.00,1.42
6084.00,1.42
6083.00,1.42
6082.00,1.43
6081.00,1.43
6080.00,1.43
6079.00,1.43
6078.00,1.43
6077.00,1.43
6076.00,1.43
6075.00,1.43
6074.00,1.43
6073.00,1.43
6072.00,1.43
6071.00,1.43
6070.00,1.44
6069.00,1.44
6068.00,1.44
6067.00,1.44
6066.00,1.44
6065.00,1.44
6064.00,1.44
6063.00,1.44
6062.00,1.44
6061.00,1.44
6060.00,1.44
6059.00,1.44
6058.00,1.44
6057.00,1.44
6056.00,1.45
6055.00,1.45
6054.00,1.45
6053.00,1.45
6052.00,1.45
6051.00,1.45
6050.00,1.45
6049.00,1.45
6048.00,1.45
6047.00,1.45
6046.00,1.45
6045.00,1.45
6044.00,1.45
6043.00,1.45
6042.00,1.45
6041.00,1.45
6040.00,1.45
6039.00,1.45
6038.00,1.45
6037.00,1.45
6036.00,1.45
6035.00,1.45
6034.00,1.45
6033.00,1.45
6032.00,1.46
6031.00,1.46
6030.00,1.46
6029.00,1.46
6028.00,1.46
6027.00,1.46
6026.00,1.46
6025.00,1.46
6024.00,1.46
6023.00,1.46
6022.00,1.46
6021.00,1.46
6020.00,1.46
6019.00,1.46
6018.00,1.46
6017.00,1.46
6016.00,1.46
6015.00,1.46
6014.00,1.46
6013.00,1.46
6012.00,1.46
6011.00,1.46
6010.00,1.46
6009.00,1.46
6008.00,1.46
6007.00,1.46
6006.00,1.46
6005.00,1.46
6004.00,1.46
6003.00,1.46
6002.00,1.45
6001.00,1.45
6000.00,1.45
5999.00,1.45
5998.00,1.45
5997.00,1.45
5996.00,1.45
5995.00,1.45
5994.00,1.45
5993.00,1.45
5992.00,1.45
5991.00,1.45
5990.00,1.44
5989.00,1.44
5988.00,1.44
5987.00,1.44
5986.00,1.44
5985.00,1.44
5984.00,1.43
5983.00,1.43
5982.00,1.43
5981.00,1.43
5980.00,1.42
5979.00,1.42
5978.00,1.42
5977.00,1.41
5976.00,1.41
5975.00,1.41
5974.00,1.40
5973.00,1.40
5972.00,1.40
5971.00,1.39
5970.00,1.39
5969.00,1.38
5968.00,1.38
5967.00,1.37
5966.00,1.37
5965.00,1.36
5964.00,1.36
5963.00,1.35
5962.00,1.34
5961.00,1.34
5960.00,1.33
5959.00,1.33
5958.00,1.32
5957.00,1.31
5956.00,1.31
5955.00,1.30
5954.00,1.29
5953.00,1.29
5952.00,1.28
5951.00,1.28
5950.00,1.27
5949.00,1.27
5948.00,1.27
5947.00,1.26
5946.00,1.26
5945.00,1.26
5944.00,1.25
5943.00,1.25
5942.00,1.25
5941.00,1.25
5940.00,1.24
5939.00,1.24
5938.00,1.24
5937.00,1.24
5936.00,1.24
5935.00,1.24
5934.00,1.24
5933.00,1.24
5932.00,1.24
5931.00,1.24
5930.00,1.24
5929.00,1.23
5928.00,1.23
5927.00,1.23
5926.00,1.23
5925.00,1.23
5924.00,1.23
5923.00,1.22
5922.00,1.22
5921.00,1.22
5920.00,1.22
5919.00,1.22
5918.00,1.21
5917.00,1.21
5916.00,1.21
5915.00,1.21
5914.00,1.20
5913.00,1.20
5912.00,1.20
5911.00,1.20
5910.00,1.20
5909.00,1.19
5908.00,1.19
5907.00,1.19
5906.00,1.19
5905.00,1.19
5904.00,1.19
5903.00,1.19
5902.00,1.19
5901.00,1.19
5900.00,1.19
5899.00,1.19
5898.00,1.19
5897.00,1.19
5896.00,1.19
5895.00,1.19
5894.00,1.19
5893.00,1.19
5892.00,1.19
5891.00,1.20
5890.00,1.20
5889.00,1.20
5888.00,1.20
5887.00,1.21
5886.00,1.21
5885.00,1.21
5884.00,1.21
5883.00,1.22
5882.00,1.22
5881.00,1.22
5880.00,1.23
5879.00,1.23
5878.00,1.23
5877.00,1.23
5876.00,1.24
5875.00,1.24
5874.00,1.24
5873.00,1.24
5872.00,1.24
5871.00,1.25
5870.00,1.25
5869.00,1.25
5868.00,1.25
5867.00,1.25
5866.00,1.25
5865.00,1.25
5864.00,1.25
5863.00,1.25
5862.00,1.26
5861.00,1.26
5860.00,1.26
5859.00,1.26
5858.00,1.26
5857.00,1.26
5856.00,1.26
5855.00,1.26
5854.00,1.26
5853.00,1.27
5852.00,1.27
5851.00,1.27
5850.00,1.27
5849.00,1.27
5848.00,1.27
5847.00,1.27
5846.00,1.27
5845.00,1.27
5844.00,1.27
5843.00,1.27
5842.00,1.27
5841.00,1.27
5840.00,1.27
5839.00,1.27
5838.00,1.27
5837.00,1.27
5836.00,1.27
5835.00,1.27
5834.00,1.27
5833.00,1.27
5832.00,1.27
5831.00,1.27
5830.00,1.27
5829.00,1.27
5828.00,1.27
5827.00,1.27
5826.00,1.27
5825.00,1.27
5824.00,1.27
5823.00,1.27
5822.00,1.27
5821.00,1.27
5820.00,1.27
5819.00,1.27
5818.00,1.27
5817.00,1.27
5816.00,1.27
5815.00,1.27
5814.00,1.27
5813.00,1.27
5812.00,1.27
5811.00,1.27
5810.00,1.27
5809.00,1.27
5808.00,1.27
5807.00,1.27
5806.00,1.27
5805.00,1.27
5804.00,1.27
5803.00,1.27
5802.00,1.27
5801.00,1.27
5800.00,1.27
5799.00,1.26
5798.00,1.26
5797.00,1.26
5796.00,1.26
5795.00,1.26
5794.00,1.26
5793.00,1.25
5792.00,1.25
5791.00,1.25
5790.00,1.25
5789.00,1.25
5788.00,1.25
5787.00,1.24
5786.00,1.24
5785.00,1.24
5784.00,1.24
5783.00,1.24
5782.00,1.23
5781.00,1.23
5780.00,1.23
5779.00,1.23
5778.00,1.23
5777.00,1.23
5776.00,1.23
5775.00,1.23
5774.00,1.23
5773.00,1.23
5772.00,1.23
5771.00,1.23
5770.00,1.23
5769.00,1.23
5768.00,1.23
5767.00,1.23
5766.00,1.23
5765.00,1.23
5764.00,1.24
5763.00,1.24
5762.00,1.24
5761.00,1.24
5760.00,1.24
5759.00,1.25
5758.00,1.25
5757.00,1.25
5756.00,1.25
5755.00,1.26
5754.00,1.26
5753.00,1.26
5752.00,1.26
5751.00,1.27
5750.00,1.27
5749.00,1.27
5748.00,1.28
5747.00,1.28
5746.00,1.28
5745.00,1.29
5744.00,1.29
5743.00,1.29
5742.00,1.29
5741.00,1.30
5740.00,1.30
5739.00,1.30
5738.00,1.30
5737.00,1.31
5736.00,1.31
5735.00,1.31
5734.00,1.31
5733.00,1.31
5732.00,1.32
5731.00,1.32
5730.00,1.32
5729.00,1.32
5728.00,1.32
5727.00,1.32
5726.00,1.32
5725.00,1.32
5724.00,1.32
5723.00,1.32
5722.00,1.32
5721.00,1.32
5720.00,1.32
5719.00,1.32
5718.00,1.32
5717.00,1.32
5716.00,1.32
5715.00,1.32
5714.00,1.32
5713.00,1.32
5712.00,1.32
5711.00,1.32
5710.00,1.32
5709.00,1.32
5708.00,1.32
5707.00,1.32
5706.00,1.32
5705.00,1.32
5704.00,1.32
5703.00,1.32
5702.00,1.32
5701.00,1.32
5700.00,1.32
5699.00,1.32
5698.00,1.32
5697.00,1.31
5696.00,1.31
5695.00,1.31
5694.00,1.31
5693.00,1.31
5692.00,1.31
5691.00,1.31
5690.00,1.31
5689.00,1.30
5688.00,1.30
5687.00,1.30
5686.00,1.30
5685.00,1.30
5684.00,1.30
5683.00,1.30
5682.00,1.30
5681.00,1.29
5680.00,1.29
5679.00,1.29
5678.00,1.29
5677.00,1.29
5676.00,1.29
5675.00,1.29
5674.00,1.29
5673.00,1.29
5672.00,1.29
5671.00,1.29
5670.00,1.29
5669.00,1.29
5668.00,1.29
5667.00,1.29
5666.00,1.29
5665.00,1.30
5664.00,1.30
5663.00,1.30
5662.00,1.30
5661.00,1.30
5660.00,1.30
5659.00,1.30
5658.00,1.30
5657.00,1.30
5656.00,1.31
5655.00,1.31
5654.00,1.31
5653.00,1.31
5652.00,1.31
5651.00,1.31
5650.00,1.32
5649.00,1.32
5648.00,1.32
5647.00,1.32
5646.00,1.32
5645.00,1.32
5644.00,1.33
5643.00,1.33
5642.00,1.33
5641.00,1.33
5640.00,1.33
5639.00,1.34
5638.00,1.34
5637.00,1.34
5636.00,1.34
5635.00,1.34
5634.00,1.34
5633.00,1.34
5632.00,1.34
5631.00,1.35
5630.00,1.35
5629.00,1.35
5628.00,1.35
5627.00,1.35
5626.00,1.35
5625.00,1.35
5624.00,1.35
5623.00,1.35
5622.00,1.36
5621.00,1.36
5620.00,1.36
5619.00,1.36
5618.00,1.36
5617.00,1.36
5616.00,1.36
5615.00,1.37
5614.00,1.37
5613.00,1.37
5612.00,1.37
5611.00,1.37
5610.00,1.37
5609.00,1.37
5608.00,1.37
5607.00,1.38
5606.00,1.38
5605.00,1.38
5604.00,1.38
5603.00,1.38
5602.00,1.38
5601.00,1.38
5600.00,1.38
5599.00,1.38
5598.00,1.39
5597.00,1.39
5596.00,1.39
5595.00,1.39
5594.00,1.39
5593.00,1.39
5592.00,1.39
5591.00,1.39
5590.00,1.40
5589.00,1.40
5588.00,1.40
5587.00,1.40
5586.00,1.40
5585.00,1.40
5584.00,1.40
5583.00,1.40
5582.00,1.40
5581.00,1.40
5580.00,1.41
5579.00,1.41
5578.00,1.41
5577.00,1.41
5576.00,1.41
5575.00,1.41
5574.00,1.41
5573.00,1.41
5572.00,1.41
5571.00,1.42
5570.00,1.42
5569.00,1.42
5568.00,1.42
5567.00,1.42
5566.00,1.42
5565.00,1.42
5564.00,1.42
5563.00,1.42
5562.00,1.43
5561.00,1.43
5560.00,1.43
5559.00,1.43
5558.00,1.43
5557.00,1.43
5556.00,1.43
5555.00,1.43
5554.00,1.43
5553.00,1.43
5552.00,1.44
5551.00,1.44
5550.00,1.44
5549.00,1.44
5548.00,1.44
5547.00,1.44
5546.00,1.44
5545.00,1.44
5544.00,1.44
5543.00,1.44
5542.00,1.44
5541.00,1.45
5540.00,1.45
5539.00,1.45
5538.00,1.45
5537.00,1.45
5536.00,1.45
5535.00,1.45
5534.00,1.45
5533.00,1.45
5532.00,1.45
5531.00,1.46
5530.00,1.46
5529.00,1.46
5528.00,1.46
5527.00,1.46
5526.00,1.46
5525.00,1.46
5524.00,1.46
5523.00,1.46
5522.00,1.46
5521.00,1.46
5520.00,1.46
5519.00,1.46
5518.00,1.46
5517.00,1.46
5516.00,1.46
5515.00,1.46
5514.00,1.46
5513.00,1.46
5512.00,1.46
5511.00,1.46
5510.00,1.46
5509.00,1.46
5508.00,1.46
5507.00,1.46
5506.00,1.46
5505.00,1.46
5504.00,1.47
5503.00,1.47
5502.00,1.47
5501.00,1.47
5500.00,1.47
5499.00,1.47
5498.00,1.47
5497.00,1.47
5496.00,1.47
5495.00,1.47
5494.00,1.47
5493.00,1.47
5492.00,1.48
5491.00,1.48
5490.00,1.48
5489.00,1.48
5488.00,1.48
5487.00,1.48
5486.00,1.48
5485.00,1.48
5484.00,1.48
5483.00,1.48
5482.00,1.49
5481.00,1.49
5480.00,1.49
5479.00,1.49
5478.00,1.49
5477.00,1.49
5476.00,1.49
5475.00,1.49
5474.00,1.49
5473.00,1.49
5472.00,1.49
5471.00,1.49
5470.00,1.49
5469.00,1.49
5468.00,1.50
5467.00,1.50
5466.00,1.50
5465.00,1.50
5464.00,1.50
5463.00,1.50
5462.00,1.50
5461.00,1.50
5460.00,1.50
5459.00,1.50
5458.00,1.50
5457.00,1.50
5456.00,1.50
5455.00,1.50
5454.00,1.50
5453.00,1.50
5452.00,1.50
5451.00,1.50
5450.00,1.50
5449.00,1.51
5448.00,1.51
5447.00,1.51
5446.00,1.51
5445.00,1.51
5444.00,1.51
5443.00,1.51
5442.00,1.51
5441.00,1.51
5440.00,1.51
5439.00,1.51
5438.00,1.51
5437.00,1.51
5436.00,1.51
5435.00,1.51
5434.00,1.51
5433.00,1.51
5432.00,1.51
5431.00,1.51
5430.00,1.51
5429.00,1.51
5428.00,1.51
5427.00,1.51
5426.00,1.51
5425.00,1.51
5424.00,1.51
5423.00,1.51
5422.00,1.52
5421.00,1.52
5420.00,1.52
5419.00,1.52
5418.00,1.52
5417.00,1.52
5416.00,1.52
5415.00,1.52
5414.00,1.52
5413.00,1.52
5412.00,1.52
5411.00,1.52
5410.00,1.52
5409.00,1.52
5408.00,1.52
5407.00,1.52
5406.00,1.52
5405.00,1.52
5404.00,1.52
5403.00,1.52
5402.00,1.52
5401.00,1.52
5400.00,1.52
5399.00,1.52
5398.00,1.51
5397.00,1.51
5396.00,1.51
5395.00,1.51
5394.00,1.51
5393.00,1.51
5392.00,1.51
5391.00,1.51
5390.00,1.51
5389.00,1.50
5388.00,1.50
5387.00,1.50
5386.00,1.50
5385.00,1.50
5384.00,1.50
5383.00,1.49
5382.00,1.49
5381.00,1.49
5380.00,1.49
5379.00,1.49
5378.00,1.48
5377.00,1.48
5376.00,1.48
5375.00,1.48
5374.00,1.47
5373.00,1.47
5372.00,1.47
5371.00,1.46
5370.00,1.46
5369.00,1.46
5368.00,1.45
5367.00,1.45
5366.00,1.45
5365.00,1.44
5364.00,1.44
5363.00,1.43
5362.00,1.43
5361.00,1.43
5360.00,1.42
5359.00,1.42
5358.00,1.41
5357.00,1.40
5356.00,1.40
5355.00,1.39
5354.00,1.39
5353.00,1.38
5352.00,1.37
5351.00,1.37
5350.00,1.36
5349.00,1.35
5348.00,1.35
5347.00,1.34
5346.00,1.33
5345.00,1.32
5344.00,1.31
5343.00,1.31
5342.00,1.30
5341.00,1.29
5340.00,1.28
5339.00,1.27
5338.00,1.26
5337.00,1.25
5336.00,1.24
5335.00,1.24
5334.00,1.23
5333.00,1.22
5332.00,1.21
5331.00,1.20
5330.00,1.19
5329.00,1.18
5328.00,1.17
5327.00,1.16
5326.00,1.15
5325.00,1.14
5324.00,1.13
5323.00,1.11
5322.00,1.10
5321.00,1.09
5320.00,1.08
5319.00,1.07
5318.00,1.06
5317.00,1.05
5316.00,1.04
5315.00,1.03
5314.00,1.01
5313.00,1.00
5312.00,0.99
5311.00,0.98
5310.00,0.97
5309.00,0.96
5308.00,0.95
5307.00,0.94
5306.00,0.93
5305.00,0.93
5304.00,0.92
5303.00,0.91
5302.00,0.90
5301.00,0.89
5300.00,0.89
5299.00,0.88
5298.00,0.87
5297.00,0.86
5296.00,0.86
5295.00,0.85
5294.00,0.85
5293.00,0.84
5292.00,0.83
5291.00,0.83
5290.00,0.82
5289.00,0.82
5288.00,0.81
5287.00,0.81
5286.00,0.81
5285.00,0.80
5284.00,0.80
5283.00,0.80
5282.00,0.79
5281.00,0.79
5280.00,0.79
5279.00,0.79
5278.00,0.78
5277.00,0.78
5276.00,0.78
5275.00,0.78
5274.00,0.77
5273.00,0.77
5272.00,0.77
5271.00,0.77
5270.00,0.77
5269.00,0.76
5268.00,0.76
5267.00,0.76
5266.00,0.76
5265.00,0.75
5264.00,0.75
5263.00,0.75
5262.00,0.75
5261.00,0.75
5260.00,0.74
5259.00,0.74
5258.00,0.74
5257.00,0.74
5256.00,0.74
5255.00,0.74
5254.00,0.74
5253.00,0.73
5252.00,0.73
5251.00,0.73
5250.00,0.73
5249.00,0.73
5248.00,0.73
5247.00,0.73
5246.00,0.73
5245.00,0.73
5244.00,0.73
5243.00,0.73
5242.00,0.73
5241.00,0.73
5240.00,0.73
5239.00,0.73
5238.00,0.73
5237.00,0.73
5236.00,0.73
5235.00,0.73
5234.00,0.73
5233.00,0.73
5232.00,0.73
5231.00,0.73
5230.00,0.73
5229.00,0.73
5228.00,0.72
5227.00,0.72
5226.00,0.72
5225.00,0.72
5224.00,0.72
5223.00,0.72
5222.00,0.72
5221.00,0.72
5220.00,0.72
5219.00,0.72
5218.00,0.72
5217.00,0.72
5216.00,0.72
5215.00,0.72
5214.00,0.72
5213.00,0.73
5212.00,0.73
5211.00,0.73
5210.00,0.73
5209.00,0.73
5208.00,0.73
5207.00,0.73
5206.00,0.73
5205.00,0.73
5204.00,0.73
5203.00,0.73
5202.00,0.73
5201.00,0.73
5200.00,0.73
5199.00,0.73
5198.00,0.73
5197.00,0.73
5196.00,0.73
5195.00,0.73
5194.00,0.73
5193.00,0.73
5192.00,0.73
5191.00,0.73
5190.00,0.73
5189.00,0.73
5188.00,0.73
5187.00,0.73
5186.00,0.73
5185.00,0.73
5184.00,0.73
5183.00,0.73
5182.00,0.73
5181.00,0.73
5180.00,0.73
5179.00,0.73
5178.00,0.73
5177.00,0.73
5176.00,0.73
5175.00,0.73
5174.00,0.73
5173.00,0.73
5172.00,0.73
5171.00,0.74
5170.00,0.74
5169.00,0.74
5168.00,0.74
5167.00,0.74
5166.00,0.74
5165.00,0.74
5164.00,0.74
5163.00,0.74
5162.00,0.74
5161.00,0.74
5160.00,0.74
5159.00,0.74
5158.00,0.74
5157.00,0.74
5156.00,0.74
5155.00,0.74
5154.00,0.74
5153.00,0.74
5152.00,0.74
5151.00,0.74
5150.00,0.74
5149.00,0.74
5148.00,0.75
5147.00,0.75
5146.00,0.75
5145.00,0.75
5144.00,0.75
5143.00,0.75
5142.00,0.75
5141.00,0.75
5140.00,0.75
5139.00,0.75
5138.00,0.75
5137.00,0.75
5136.00,0.75
5135.00,0.75
5134.00,0.75
5133.00,0.75
5132.00,0.76
5131.00,0.76
5130.00,0.76
5129.00,0.76
5128.00,0.76
5127.00,0.76
5126.00,0.76
5125.00,0.76
5124.00,0.76
5123.00,0.76
5122.00,0.76
5121.00,0.76
5120.00,0.77
5119.00,0.77
5118.00,0.77
5117.00,0.77
5116.00,0.77
5115.00,0.77
5114.00,0.77
5113.00,0.77
5112.00,0.77
5111.00,0.77
5110.00,0.77
5109.00,0.77
5108.00,0.77
5107.00,0.77
5106.00,0.77
5105.00,0.77
5104.00,0.78
5103.00,0.78
5102.00,0.78
5101.00,0.78
5100.00,0.78
5099.00,0.78
5098.00,0.78
5097.00,0.78
5096.00,0.78
5095.00,0.78
5094.00,0.78
5093.00,0.79
5092.00,0.79
5091.00,0.79
5090.00,0.79
5089.00,0.79
5088.00,0.79
5087.00,0.79
5086.00,0.79
5085.00,0.79
5084.00,0.79
5083.00,0.80
5082.00,0.80
5081.00,0.80
5080.00,0.80
5079.00,0.80
5078.00,0.80
5077.00,0.80
5076.00,0.81
5075.00,0.81
5074.00,0.81
5073.00,0.81
5072.00,0.81
5071.00,0.81
5070.00,0.81
5069.00,0.81
5068.00,0.82
5067.00,0.82
5066.00,0.82
5065.00,0.82
5064.00,0.82
5063.00,0.82
5062.00,0.82
5061.00,0.82
5060.00,0.82
5059.00,0.82
5058.00,0.83
5057.00,0.83
5056.00,0.83
5055.00,0.83
5054.00,0.83
5053.00,0.83
5052.00,0.83
5051.00,0.83
5050.00,0.83
5049.00,0.83
5048.00,0.83
5047.00,0.83
5046.00,0.84
5045.00,0.84
5044.00,0.84
5043.00,0.84
5042.00,0.84
5041.00,0.84
5040.00,0.84
5039.00,0.85
5038.00,0.85
5037.00,0.85
5036.00,0.85
5035.00,0.85
5034.00,0.85
5033.00,0.86
5032.00,0.86
5031.00,0.86
5030.00,0.86
5029.00,0.86
5028.00,0.86
5027.00,0.86
5026.00,0.87
5025.00,0.87
5024.00,0.87
5023.00,0.87
5022.00,0.87
5021.00,0.87
5020.00,0.87
5019.00,0.87
5018.00,0.87
5017.00,0.87
5016.00,0.88
5015.00,0.88
5014.00,0.88
5013.00,0.88
5012.00,0.88
5011.00,0.88
5010.00,0.88
5009.00,0.88
5008.00,0.88
5007.00,0.89
5006.00,0.89
5005.00,0.89
5004.00,0.89
5003.00,0.89
5002.00,0.89
5001.00,0.90
5000.00,0.90
4999.00,0.90
4998.00,0.90
4997.00,0.90
4996.00,0.91
4995.00,0.91
4994.00,0.91
4993.00,0.91
4992.00,0.91
4991.00,0.92
4990.00,0.92
4989.00,0.92
4988.00,0.92
4987.00,0.92
4986.00,0.92
4985.00,0.92
4984.00,0.93
4983.00,0.93
4982.00,0.93
4981.00,0.93
4980.00,0.93
4979.00,0.93
4978.00,0.93
4977.00,0.93
4976.00,0.93
4975.00,0.93
4974.00,0.93
4973.00,0.94
4972.00,0.94
4971.00,0.94
4970.00,0.94
4969.00,0.94
4968.00,0.94
4967.00,0.94
4966.00,0.94
4965.00,0.94
4964.00,0.95
4963.00,0.95
4962.00,0.95
4961.00,0.95
4960.00,0.95
4959.00,0.95
4958.00,0.95
4957.00,0.96
4956.00,0.96
4955.00,0.96
4954.00,0.96
4953.00,0.96
4952.00,0.96
4951.00,0.96
4950.00,0.97
4949.00,0.97
4948.00,0.97
4947.00,0.97
4946.00,0.97
4945.00,0.97
4944.00,0.97
4943.00,0.98
4942.00,0.98
4941.00,0.98
4940.00,0.98
4939.00,0.98
4938.00,0.98
4937.00,0.98
4936.00,0.99
4935.00,0.99
4934.00,0.99
4933.00,0.99
4932.00,0.99
4931.00,0.99
4930.00,0.99
4929.00,0.99
4928.00,0.99
4927.00,0.99
4926.00,1.00
4925.00,1.00
4924.00,1.00
4923.00,1.00
4922.00,1.00
4921.00,1.00
4920.00,1.00
4919.00,1.00
4918.00,1.00
4917.00,1.00
4916.00,1.00
4915.00,1.00
4914.00,1.00
4913.00,1.00
4912.00,1.00
4911.00,1.00
4910.00,1.00
4909.00,1.00
4908.00,1.01
4907.00,1.01
4906.00,1.01
4905.00,1.01
4904.00,1.01
4903.00,1.01
4902.00,1.01
4901.00,1.01
4900.00,1.01
4899.00,1.01
4898.00,1.01
4897.00,1.01
4896.00,1.01
4895.00,1.01
4894.00,1.01
4893.00,1.01
4892.00,1.02
4891.00,1.02
4890.00,1.02
4889.00,1.02
4888.00,1.02
4887.00,1.02
4886.00,1.02
4885.00,1.02
4884.00,1.02
4883.00,1.02
4882.00,1.02
4881.00,1.02
4880.00,1.02
4879.00,1.02
4878.00,1.03
4877.00,1.03
4876.00,1.03
4875.00,1.03
4874.00,1.03
4873.00,1.03
4872.00,1.03
4871.00,1.03
4870.00,1.03
4869.00,1.03
4868.00,1.03
4867.00,1.03
4866.00,1.03
4865.00,1.03
4864.00,1.03
4863.00,1.03
4862.00,1.03
4861.00,1.03
4860.00,1.03
4859.00,1.03
4858.00,1.03
4857.00,1.04
4856.00,1.04
4855.00,1.04
4854.00,1.04
4853.00,1.04
4852.00,1.04
4851.00,1.04
4850.00,1.04
4849.00,1.04
4848.00,1.04
4847.00,1.04
4846.00,1.04
4845.00,1.04
4844.00,1.04
4843.00,1.04
4842.00,1.05
4841.00,1.05
4840.00,1.05
4839.00,1.05
4838.00,1.05
4837.00,1.05
4836.00,1.05
4835.00,1.05
4834.00,1.05
4833.00,1.05
4832.00,1.06
4831.00,1.06
4830.00,1.06
4829.00,1.06
4828.00,1.06
4827.00,1.06
4826.00,1.06
4825.00,1.06
4824.00,1.06
4823.00,1.07
4822.00,1.07
4821.00,1.07
4820.00,1.07
4819.00,1.07
4818.00,1.07
4817.00,1.07
4816.00,1.07
4815.00,1.08
4814.00,1.08
4813.00,1.08
4812.00,1.08
4811.00,1.08
4810.00,1.08
4809.00,1.09
4808.00,1.09
4807.00,1.09
4806.00,1.09
4805.00,1.09
4804.00,1.09
4803.00,1.09
4802.00,1.10
4801.00,1.10
4800.00,1.10
4799.00,1.10
4798.00,1.10
4797.00,1.10
4796.00,1.10
4795.00,1.11
4794.00,1.11
4793.00,1.11
4792.00,1.11
4791.00,1.11
4790.00,1.12
4789.00,1.12
4788.00,1.12
4787.00,1.12
4786.00,1.12
4785.00,1.13
4784.00,1.13
4783.00,1.13
4782.00,1.13
4781.00,1.13
4780.00,1.14
4779.00,1.14
4778.00,1.14
4777.00,1.14
4776.00,1.14
4775.00,1.14
4774.00,1.14
4773.00,1.15
4772.00,1.15
4771.00,1.15
4770.00,1.15
4769.00,1.15
4768.00,1.15
4767.00,1.15
4766.00,1.16
4765.00,1.16
4764.00,1.16
4763.00,1.16
4762.00,1.16
4761.00,1.17
4760.00,1.17
4759.00,1.17
4758.00,1.17
4757.00,1.17
4756.00,1.18
4755.00,1.18
4754.00,1.18
4753.00,1.18
4752.00,1.19
4751.00,1.19
4750.00,1.19
4749.00,1.19
4748.00,1.19
4747.00,1.20
4746.00,1.20
4745.00,1.20
4744.00,1.20
4743.00,1.21
4742.00,1.21
4741.00,1.21
4740.00,1.21
4739.00,1.21
4738.00,1.22
4737.00,1.22
4736.00,1.22
4735.00,1.22
4734.00,1.22
4733.00,1.23
4732.00,1.23
4731.00,1.23
4730.00,1.23
4729.00,1.23
4728.00,1.24
4727.00,1.24
4726.00,1.24
4725.00,1.24
4724.00,1.24
4723.00,1.25
4722.00,1.25
4721.00,1.25
4720.00,1.25
4719.00,1.26
4718.00,1.26
4717.00,1.26
4716.00,1.26
4715.00,1.26
4714.00,1.27
4713.00,1.27
4712.00,1.27
4711.00,1.27
4710.00,1.28
4709.00,1.28
4708.00,1.28
4707.00,1.28
4706.00,1.29
4705.00,1.29
4704.00,1.29
4703.00,1.29
4702.00,1.29
4701.00,1.30
4700.00,1.30
4699.00,1.30
4698.00,1.30
4697.00,1.30
4696.00,1.31
4695.00,1.31
4694.00,1.31
4693.00,1.31
4692.00,1.31
4691.00,1.32
4690.00,1.32
4689.00,1.32
4688.00,1.32
4687.00,1.32
4686.00,1.33
4685.00,1.33
4684.00,1.33
4683.00,1.33
4682.00,1.33
4681.00,1.33
4680.00,1.34
4679.00,1.34
4678.00,1.34
4677.00,1.34
4676.00,1.34
4675.00,1.34
4674.00,1.34
4673.00,1.35
4672.00,1.35
4671.00,1.35
4670.00,1.35
4669.00,1.35
4668.00,1.35
4667.00,1.36
4666.00,1.36
4665.00,1.36
4664.00,1.36
4663.00,1.36
4662.00,1.36
4661.00,1.37
4660.00,1.37
4659.00,1.37
4658.00,1.37
4657.00,1.37
4656.00,1.37
4655.00,1.38
4654.00,1.38
4653.00,1.38
4652.00,1.38
4651.00,1.38
4650.00,1.38
4649.00,1.39
4648.00,1.39
4647.00,1.39
4646.00,1.39
4645.00,1.39
4644.00,1.40
4643.00,1.40
4642.00,1.40
4641.00,1.40
4640.00,1.40
4639.00,1.40
4638.00,1.41
4637.00,1.41
4636.00,1.41
4635.00,1.41
4634.00,1.41
4633.00,1.41
4632.00,1.41
4631.00,1.41
4630.00,1.42
4629.00,1.42
4628.00,1.42
4627.00,1.42
4626.00,1.42
4625.00,1.42
4624.00,1.42
4623.00,1.42
4622.00,1.42
4621.00,1.42
4620.00,1.43
4619.00,1.43
4618.00,1.43
4617.00,1.43
4616.00,1.43
4615.00,1.43
4614.00,1.43
4613.00,1.43
4612.00,1.44
4611.00,1.44
4610.00,1.44
4609.00,1.44
4608.00,1.44
4607.00,1.44
4606.00,1.44
4605.00,1.44
4604.00,1.44
4603.00,1.44
4602.00,1.44
4601.00,1.45
4600.00,1.45
4599.00,1.45
4598.00,1.45
4597.00,1.45
4596.00,1.45
4595.00,1.45
4594.00,1.45
4593.00,1.45
4592.00,1.45
4591.00,1.45
4590.00,1.46
4589.00,1.46
4588.00,1.46
4587.00,1.46
4586.00,1.46
4585.00,1.46
4584.00,1.46
4583.00,1.46
4582.00,1.46
4581.00,1.46
4580.00,1.47
4579.00,1.47
4578.00,1.47
4577.00,1.47
4576.00,1.47
4575.00,1.47
4574.00,1.47
4573.00,1.47
4572.00,1.48
4571.00,1.48
4570.00,1.48
4569.00,1.48
4568.00,1.48
4567.00,1.48
4566.00,1.48
4565.00,1.48
4564.00,1.48
4563.00,1.48
4562.00,1.48
4561.00,1.48
4560.00,1.49
4559.00,1.49
4558.00,1.49
4557.00,1.49
4556.00,1.49
4555.00,1.49
4554.00,1.49
4553.00,1.49
4552.00,1.49
4551.00,1.50
4550.00,1.50
4549.00,1.50
4548.00,1.50
4547.00,1.50
4546.00,1.50
4545.00,1.50
4544.00,1.50
4543.00,1.50
4542.00,1.50
4541.00,1.50
4540.00,1.50
4539.00,1.50
4538.00,1.50
4537.00,1.50
4536.00,1.50
4535.00,1.50
4534.00,1.50
4533.00,1.50
4532.00,1.51
4531.00,1.51
4530.00,1.51
4529.00,1.51
4528.00,1.51
4527.00,1.51
4526.00,1.51
4525.00,1.51
4524.00,1.51
4523.00,1.51
4522.00,1.51
4521.00,1.51
4520.00,1.51
4519.00,1.51
4518.00,1.51
4517.00,1.51
4516.00,1.51
4515.00,1.51
4514.00,1.51
4513.00,1.51
4512.00,1.51
4511.00,1.51
4510.00,1.51
4509.00,1.51
4508.00,1.52
4507.00,1.52
4506.00,1.52
4505.00,1.52
4504.00,1.52
4503.00,1.52
4502.00,1.52
4501.00,1.52
4500.00,1.52
4499.00,1.52
4498.00,1.52
4497.00,1.52
4496.00,1.51
4495.00,1.51
4494.00,1.51
4493.00,1.51
4492.00,1.51
4491.00,1.51
4490.00,1.51
4489.00,1.51
4488.00,1.51
4487.00,1.50
4486.00,1.50
4485.00,1.50
4484.00,1.50
4483.00,1.49
4482.00,1.49
4481.00,1.49
4480.00,1.49
4479.00,1.49
4478.00,1.48
4477.00,1.48
4476.00,1.48
4475.00,1.48
4474.00,1.47
4473.00,1.47
4472.00,1.47
4471.00,1.47
4470.00,1.46
4469.00,1.46
4468.00,1.46
4467.00,1.45
4466.00,1.45
4465.00,1.45
4464.00,1.44
4463.00,1.44
4462.00,1.43
4461.00,1.43
4460.00,1.42
4459.00,1.42
4458.00,1.41
4457.00,1.41
4456.00,1.40
4455.00,1.40
4454.00,1.39
4453.00,1.38
4452.00,1.38
4451.00,1.37
4450.00,1.36
4449.00,1.36
4448.00,1.35
4447.00,1.34
4446.00,1.34
4445.00,1.33
4444.00,1.32
4443.00,1.31
4442.00,1.31
4441.00,1.30
4440.00,1.29
4439.00,1.29
4438.00,1.28
4437.00,1.27
4436.00,1.26
4435.00,1.26
4434.00,1.25
4433.00,1.24
4432.00,1.24
4431.00,1.23
4430.00,1.23
4429.00,1.22
4428.00,1.22
4427.00,1.21
4426.00,1.21
4425.00,1.20
4424.00,1.20
4423.00,1.19
4422.00,1.19
4421.00,1.19
4420.00,1.18
4419.00,1.18
4418.00,1.18
4417.00,1.18
4416.00,1.18
4415.00,1.17
4414.00,1.17
4413.00,1.17
4412.00,1.17
4411.00,1.17
4410.00,1.17
4409.00,1.17
4408.00,1.17
4407.00,1.17
4406.00,1.17
4405.00,1.17
4404.00,1.17
4403.00,1.17
4402.00,1.17
4401.00,1.17
4400.00,1.17
4399.00,1.17
4398.00,1.17
4397.00,1.18
4396.00,1.18
4395.00,1.18
4394.00,1.18
4393.00,1.18
4392.00,1.18
4391.00,1.19
4390.00,1.19
4389.00,1.19
4388.00,1.19
4387.00,1.20
4386.00,1.20
4385.00,1.20
4384.00,1.21
4383.00,1.21
4382.00,1.21
4381.00,1.21
4380.00,1.22
4379.00,1.22
4378.00,1.22
4377.00,1.23
4376.00,1.23
4375.00,1.23
4374.00,1.23
4373.00,1.23
4372.00,1.23
4371.00,1.24
4370.00,1.24
4369.00,1.24
4368.00,1.24
4367.00,1.24
4366.00,1.24
4365.00,1.24
4364.00,1.24
4363.00,1.24
4362.00,1.23
4361.00,1.23
4360.00,1.23
4359.00,1.23
4358.00,1.23
4357.00,1.23
4356.00,1.23
4355.00,1.23
4354.00,1.23
4353.00,1.22
4352.00,1.22
4351.00,1.22
4350.00,1.22
4349.00,1.22
4348.00,1.22
4347.00,1.22
4346.00,1.22
4345.00,1.22
4344.00,1.22
4343.00,1.22
4342.00,1.22
4341.00,1.22
4340.00,1.22
4339.00,1.22
4338.00,1.22
4337.00,1.22
4336.00,1.22
4335.00,1.22
4334.00,1.22
4333.00,1.22
4332.00,1.22
4331.00,1.23
4330.00,1.23
4329.00,1.23
4328.00,1.23
4327.00,1.24
4326.00,1.24
4325.00,1.24
4324.00,1.25
4323.00,1.25
4322.00,1.25
4321.00,1.26
4320.00,1.26
4319.00,1.26
4318.00,1.27
4317.00,1.27
4316.00,1.28
4315.00,1.28
4314.00,1.29
4313.00,1.29
4312.00,1.29
4311.00,1.30
4310.00,1.30
4309.00,1.30
4308.00,1.31
4307.00,1.31
4306.00,1.32
4305.00,1.32
4304.00,1.32
4303.00,1.33
4302.00,1.33
4301.00,1.33
4300.00,1.34
4299.00,1.34
4298.00,1.34
4297.00,1.34
4296.00,1.35
4295.00,1.35
4294.00,1.35
4293.00,1.35
4292.00,1.36
4291.00,1.36
4290.00,1.36
4289.00,1.36
4288.00,1.36
4287.00,1.37
4286.00,1.37
4285.00,1.37
4284.00,1.37
4283.00,1.37
4282.00,1.37
4281.00,1.37
4280.00,1.37
4279.00,1.37
4278.00,1.37
4277.00,1.37
4276.00,1.37
4275.00,1.37
4274.00,1.37
4273.00,1.37
4272.00,1.37
4271.00,1.37
4270.00,1.37
4269.00,1.37
4268.00,1.36
4267.00,1.36
4266.00,1.36
4265.00,1.36
4264.00,1.36
4263.00,1.36
4262.00,1.36
4261.00,1.36
4260.00,1.36
4259.00,1.36
4258.00,1.36
4257.00,1.36
4256.00,1.36
4255.00,1.36
4254.00,1.36
4253.00,1.36
4252.00,1.36
4251.00,1.36
4250.00,1.36
4249.00,1.36
4248.00,1.36
4247.00,1.36
4246.00,1.36
4245.00,1.37
4244.00,1.37
4243.00,1.37
4242.00,1.37
4241.00,1.37
4240.00,1.38
4239.00,1.38
4238.00,1.38
4237.00,1.38
4236.00,1.38
4235.00,1.39
4234.00,1.39
4233.00,1.39
4232.00,1.40
4231.00,1.40
4230.00,1.40
4229.00,1.40
4228.00,1.41
4227.00,1.41
4226.00,1.41
4225.00,1.41
4224.00,1.41
4223.00,1.42
4222.00,1.42
4221.00,1.42
4220.00,1.42
4219.00,1.42
4218.00,1.42
4217.00,1.42
4216.00,1.42
4215.00,1.42
4214.00,1.42
4213.00,1.42
4212.00,1.42
4211.00,1.42
4210.00,1.42
4209.00,1.42
4208.00,1.42
4207.00,1.42
4206.00,1.42
4205.00,1.42
4204.00,1.42
4203.00,1.43
4202.00,1.43
4201.00,1.43
4200.00,1.43
4199.00,1.43
4198.00,1.43
4197.00,1.43
4196.00,1.43
4195.00,1.43
4194.00,1.43
4193.00,1.43
4192.00,1.43
4191.00,1.44
4190.00,1.44
4189.00,1.44
4188.00,1.44
4187.00,1.44
4186.00,1.44
4185.00,1.44
4184.00,1.44
4183.00,1.44
4182.00,1.44
4181.00,1.44
4180.00,1.44
4179.00,1.44
4178.00,1.44
4177.00,1.44
4176.00,1.44
4175.00,1.44
4174.00,1.44
4173.00,1.44
4172.00,1.44
4171.00,1.44
4170.00,1.44
4169.00,1.44
4168.00,1.44
4167.00,1.44
4166.00,1.44
4165.00,1.44
4164.00,1.44
4163.00,1.44
4162.00,1.44
4161.00,1.44
4160.00,1.44
4159.00,1.44
4158.00,1.44
4157.00,1.44
4156.00,1.44
4155.00,1.44
4154.00,1.44
4153.00,1.44
4152.00,1.44
4151.00,1.44
4150.00,1.44
4149.00,1.44
4148.00,1.45
4147.00,1.45
4146.00,1.45
4145.00,1.45
4144.00,1.45
4143.00,1.45
4142.00,1.45
4141.00,1.45
4140.00,1.45
4139.00,1.45
4138.00,1.45
4137.00,1.45
4136.00,1.46
4135.00,1.46
4134.00,1.46
4133.00,1.46
4132.00,1.46
4131.00,1.46
4130.00,1.46
4129.00,1.46
4128.00,1.46
4127.00,1.46
4126.00,1.46
4125.00,1.46
4124.00,1.46
4123.00,1.46
4122.00,1.46
4121.00,1.46
4120.00,1.45
4119.00,1.45
4118.00,1.45
4117.00,1.45
4116.00,1.45
4115.00,1.45
4114.00,1.45
4113.00,1.45
4112.00,1.45
4111.00,1.45
4110.00,1.45
4109.00,1.45
4108.00,1.45
4107.00,1.45
4106.00,1.45
4105.00,1.46
4104.00,1.46
4103.00,1.46
4102.00,1.46
4101.00,1.46
4100.00,1.46
4099.00,1.46
4098.00,1.46
4097.00,1.46
4096.00,1.46
4095.00,1.46
4094.00,1.46
4093.00,1.46
4092.00,1.46
4091.00,1.46
4090.00,1.46
4089.00,1.46
4088.00,1.45
4087.00,1.45
4086.00,1.45
4085.00,1.45
4084.00,1.45
4083.00,1.45
4082.00,1.45
4081.00,1.45
4080.00,1.45
4079.00,1.45
4078.00,1.46
4077.00,1.46
4076.00,1.46
4075.00,1.46
4074.00,1.46
4073.00,1.46
4072.00,1.46
4071.00,1.46
4070.00,1.46
4069.00,1.47
4068.00,1.47
4067.00,1.47
4066.00,1.47
4065.00,1.47
4064.00,1.47
4063.00,1.47
4062.00,1.47
4061.00,1.47
4060.00,1.47
4059.00,1.47
4058.00,1.47
4057.00,1.47
4056.00,1.47
4055.00,1.47
4054.00,1.47
4053.00,1.48
4052.00,1.48
4051.00,1.48
4050.00,1.48
4049.00,1.48
4048.00,1.48
4047.00,1.48
4046.00,1.48
4045.00,1.48
4044.00,1.48
4043.00,1.48
4042.00,1.48
4041.00,1.48
4040.00,1.48
4039.00,1.48
4038.00,1.48
4037.00,1.48
4036.00,1.48
4035.00,1.48
4034.00,1.49
4033.00,1.49
4032.00,1.49
4031.00,1.49
4030.00,1.49
4029.00,1.49
4028.00,1.49
4027.00,1.50
4026.00,1.50
4025.00,1.50
4024.00,1.50
4023.00,1.50
4022.00,1.50
4021.00,1.50
4020.00,1.50
4019.00,1.51
4018.00,1.51
4017.00,1.51
4016.00,1.51
4015.00,1.51
4014.00,1.51
4013.00,1.51
4012.00,1.51
4011.00,1.51
4010.00,1.51
4009.00,1.51
4008.00,1.51
4007.00,1.51
4006.00,1.51
4005.00,1.51
4004.00,1.51
4003.00,1.51
4002.00,1.51
4001.00,1.52
4000.00,1.52
