创建为新数据集,样品 155 用户 Administrator 日期 星期三, 十一月 08 2017
cm-1,%T
10000.00,1.37
9999.00,1.37
9998.00,1.37
9997.00,1.37
9996.00,1.37
9995.00,1.37
9994.00,1.37
9993.00,1.37
9992.00,1.37
9991.00,1.36
9990.00,1.36
9989.00,1.36
9988.00,1.36
9987.00,1.35
9986.00,1.35
9985.00,1.35
9984.00,1.35
9983.00,1.35
9982.00,1.34
9981.00,1.34
9980.00,1.34
9979.00,1.34
9978.00,1.34
9977.00,1.34
9976.00,1.34
9975.00,1.34
9974.00,1.34
9973.00,1.34
9972.00,1.34
9971.00,1.34
9970.00,1.34
9969.00,1.34
9968.00,1.34
9967.00,1.34
9966.00,1.34
9965.00,1.34
9964.00,1.34
9963.00,1.34
9962.00,1.34
9961.00,1.34
9960.00,1.34
9959.00,1.35
9958.00,1.35
9957.00,1.35
9956.00,1.35
9955.00,1.35
9954.00,1.36
9953.00,1.36
9952.00,1.36
9951.00,1.36
9950.00,1.36
9949.00,1.37
9948.00,1.37
9947.00,1.37
9946.00,1.37
9945.00,1.37
9944.00,1.37
9943.00,1.37
9942.00,1.37
9941.00,1.36
9940.00,1.36
9939.00,1.36
9938.00,1.36
9937.00,1.35
9936.00,1.35
9935.00,1.34
9934.00,1.34
9933.00,1.34
9932.00,1.33
9931.00,1.33
9930.00,1.32
9929.00,1.32
9928.00,1.32
9927.00,1.32
9926.00,1.32
9925.00,1.31
9924.00,1.31
9923.00,1.31
9922.00,1.31
9921.00,1.32
9920.00,1.32
9919.00,1.32
9918.00,1.32
9917.00,1.32
9916.00,1.32
9915.00,1.33
9914.00,1.33
9913.00,1.33
9912.00,1.33
9911.00,1.33
9910.00,1.33
9909.00,1.33
9908.00,1.33
9907.00,1.33
9906.00,1.33
9905.00,1.33
9904.00,1.33
9903.00,1.33
9902.00,1.33
9901.00,1.33
9900.00,1.33
9899.00,1.33
9898.00,1.33
9897.00,1.34
9896.00,1.34
9895.00,1.34
9894.00,1.34
9893.00,1.34
9892.00,1.35
9891.00,1.35
9890.00,1.35
9889.00,1.35
9888.00,1.35
9887.00,1.35
9886.00,1.35
9885.00,1.35
9884.00,1.35
9883.00,1.35
9882.00,1.35
9881.00,1.35
9880.00,1.35
9879.00,1.35
9878.00,1.34
9877.00,1.34
9876.00,1.34
9875.00,1.34
9874.00,1.34
9873.00,1.34
9872.00,1.33
9871.00,1.33
9870.00,1.33
9869.00,1.33
9868.00,1.33
9867.00,1.33
9866.00,1.33
9865.00,1.33
9864.00,1.33
9863.00,1.33
9862.00,1.33
9861.00,1.34
9860.00,1.34
9859.00,1.34
9858.00,1.34
9857.00,1.34
9856.00,1.34
9855.00,1.33
9854.00,1.33
9853.00,1.33
9852.00,1.33
9851.00,1.33
9850.00,1.33
9849.00,1.33
9848.00,1.33
9847.00,1.33
9846.00,1.33
9845.00,1.33
9844.00,1.33
9843.00,1.33
9842.00,1.33
9841.00,1.34
9840.00,1.34
9839.00,1.34
9838.00,1.34
9837.00,1.34
9836.00,1.34
9835.00,1.34
9834.00,1.34
9833.00,1.34
9832.00,1.34
9831.00,1.34
9830.00,1.34
9829.00,1.35
9828.00,1.35
9827.00,1.35
9826.00,1.35
9825.00,1.35
9824.00,1.35
9823.00,1.35
9822.00,1.35
9821.00,1.35
9820.00,1.36
9819.00,1.36
9818.00,1.36
9817.00,1.36
9816.00,1.36
9815.00,1.36
9814.00,1.36
9813.00,1.36
9812.00,1.37
9811.00,1.37
9810.00,1.37
9809.00,1.37
9808.00,1.37
9807.00,1.37
9806.00,1.37
9805.00,1.36
9804.00,1.36
9803.00,1.36
9802.00,1.36
9801.00,1.36
9800.00,1.36
9799.00,1.36
9798.00,1.36
9797.00,1.36
9796.00,1.35
9795.00,1.35
9794.00,1.35
9793.00,1.35
9792.00,1.35
9791.00,1.35
9790.00,1.35
9789.00,1.35
9788.00,1.35
9787.00,1.34
9786.00,1.34
9785.00,1.34
9784.00,1.34
9783.00,1.34
9782.00,1.34
9781.00,1.34
9780.00,1.34
9779.00,1.34
9778.00,1.34
9777.00,1.34
9776.00,1.33
9775.00,1.33
9774.00,1.33
9773.00,1.33
9772.00,1.33
9771.00,1.33
9770.00,1.33
9769.00,1.32
9768.00,1.32
9767.00,1.32
9766.00,1.32
9765.00,1.32
9764.00,1.32
9763.00,1.32
9762.00,1.32
9761.00,1.33
9760.00,1.33
9759.00,1.33
9758.00,1.33
9757.00,1.33
9756.00,1.33
9755.00,1.33
9754.00,1.34
9753.00,1.34
9752.00,1.34
9751.00,1.34
9750.00,1.34
9749.00,1.34
9748.00,1.34
9747.00,1.34
9746.00,1.34
9745.00,1.34
9744.00,1.34
9743.00,1.35
9742.00,1.35
9741.00,1.35
9740.00,1.35
9739.00,1.35
9738.00,1.35
9737.00,1.35
9736.00,1.35
9735.00,1.35
9734.00,1.35
9733.00,1.35
9732.00,1.35
9731.00,1.35
9730.00,1.35
9729.00,1.34
9728.00,1.34
9727.00,1.34
9726.00,1.34
9725.00,1.34
9724.00,1.34
9723.00,1.34
9722.00,1.34
9721.00,1.34
9720.00,1.34
9719.00,1.34
9718.00,1.34
9717.00,1.34
9716.00,1.35
9715.00,1.35
9714.00,1.35
9713.00,1.35
9712.00,1.36
9711.00,1.36
9710.00,1.36
9709.00,1.36
9708.00,1.37
9707.00,1.37
9706.00,1.37
9705.00,1.37
9704.00,1.37
9703.00,1.36
9702.00,1.36
9701.00,1.36
9700.00,1.36
9699.00,1.36
9698.00,1.35
9697.00,1.35
9696.00,1.35
9695.00,1.35
9694.00,1.34
9693.00,1.34
9692.00,1.34
9691.00,1.34
9690.00,1.33
9689.00,1.33
9688.00,1.33
9687.00,1.33
9686.00,1.33
9685.00,1.32
9684.00,1.32
9683.00,1.32
9682.00,1.32
9681.00,1.32
9680.00,1.32
9679.00,1.32
9678.00,1.32
9677.00,1.31
9676.00,1.31
9675.00,1.32
9674.00,1.32
9673.00,1.32
9672.00,1.32
9671.00,1.32
9670.00,1.32
9669.00,1.32
9668.00,1.33
9667.00,1.33
9666.00,1.33
9665.00,1.34
9664.00,1.34
9663.00,1.34
9662.00,1.34
9661.00,1.34
9660.00,1.35
9659.00,1.35
9658.00,1.35
9657.00,1.35
9656.00,1.35
9655.00,1.35
9654.00,1.35
9653.00,1.35
9652.00,1.35
9651.00,1.35
9650.00,1.35
9649.00,1.35
9648.00,1.35
9647.00,1.35
9646.00,1.35
9645.00,1.35
9644.00,1.35
9643.00,1.35
9642.00,1.35
9641.00,1.34
9640.00,1.34
9639.00,1.34
9638.00,1.34
9637.00,1.34
9636.00,1.34
9635.00,1.34
9634.00,1.34
9633.00,1.34
9632.00,1.34
9631.00,1.34
9630.00,1.34
9629.00,1.34
9628.00,1.34
9627.00,1.34
9626.00,1.34
9625.00,1.34
9624.00,1.33
9623.00,1.33
9622.00,1.33
9621.00,1.33
9620.00,1.33
9619.00,1.33
9618.00,1.33
9617.00,1.33
9616.00,1.33
9615.00,1.33
9614.00,1.33
9613.00,1.33
9612.00,1.33
9611.00,1.34
9610.00,1.34
9609.00,1.34
9608.00,1.34
9607.00,1.34
9606.00,1.34
9605.00,1.34
9604.00,1.34
9603.00,1.34
9602.00,1.34
9601.00,1.34
9600.00,1.34
9599.00,1.34
9598.00,1.34
9597.00,1.34
9596.00,1.34
9595.00,1.34
9594.00,1.34
9593.00,1.34
9592.00,1.34
9591.00,1.34
9590.00,1.34
9589.00,1.34
9588.00,1.34
9587.00,1.35
9586.00,1.35
9585.00,1.35
9584.00,1.35
9583.00,1.35
9582.00,1.35
9581.00,1.35
9580.00,1.35
9579.00,1.35
9578.00,1.35
9577.00,1.35
9576.00,1.35
9575.00,1.35
9574.00,1.35
9573.00,1.35
9572.00,1.35
9571.00,1.35
9570.00,1.35
9569.00,1.34
9568.00,1.34
9567.00,1.34
9566.00,1.34
9565.00,1.34
9564.00,1.34
9563.00,1.35
9562.00,1.35
9561.00,1.35
9560.00,1.35
9559.00,1.35
9558.00,1.35
9557.00,1.35
9556.00,1.36
9555.00,1.36
9554.00,1.36
9553.00,1.36
9552.00,1.36
9551.00,1.36
9550.00,1.36
9549.00,1.36
9548.00,1.36
9547.00,1.36
9546.00,1.36
9545.00,1.36
9544.00,1.36
9543.00,1.36
9542.00,1.36
9541.00,1.36
9540.00,1.35
9539.00,1.35
9538.00,1.35
9537.00,1.35
9536.00,1.35
9535.00,1.35
9534.00,1.35
9533.00,1.34
9532.00,1.34
9531.00,1.34
9530.00,1.34
9529.00,1.34
9528.00,1.34
9527.00,1.34
9526.00,1.34
9525.00,1.33
9524.00,1.33
9523.00,1.33
9522.00,1.33
9521.00,1.33
9520.00,1.33
9519.00,1.33
9518.00,1.33
9517.00,1.33
9516.00,1.33
9515.00,1.33
9514.00,1.33
9513.00,1.33
9512.00,1.33
9511.00,1.33
9510.00,1.33
9509.00,1.33
9508.00,1.33
9507.00,1.34
9506.00,1.34
9505.00,1.34
9504.00,1.34
9503.00,1.34
9502.00,1.34
9501.00,1.34
9500.00,1.34
9499.00,1.34
9498.00,1.34
9497.00,1.34
9496.00,1.34
9495.00,1.34
9494.00,1.34
9493.00,1.34
9492.00,1.34
9491.00,1.34
9490.00,1.34
9489.00,1.34
9488.00,1.34
9487.00,1.34
9486.00,1.34
9485.00,1.34
9484.00,1.34
9483.00,1.34
9482.00,1.34
9481.00,1.34
9480.00,1.34
9479.00,1.34
9478.00,1.34
9477.00,1.34
9476.00,1.34
9475.00,1.34
9474.00,1.34
9473.00,1.34
9472.00,1.34
9471.00,1.34
9470.00,1.34
9469.00,1.34
9468.00,1.34
9467.00,1.34
9466.00,1.34
9465.00,1.35
9464.00,1.35
9463.00,1.35
9462.00,1.35
9461.00,1.35
9460.00,1.35
9459.00,1.35
9458.00,1.35
9457.00,1.35
9456.00,1.35
9455.00,1.35
9454.00,1.35
9453.00,1.35
9452.00,1.35
9451.00,1.35
9450.00,1.35
9449.00,1.34
9448.00,1.34
9447.00,1.34
9446.00,1.34
9445.00,1.34
9444.00,1.33
9443.00,1.33
9442.00,1.33
9441.00,1.33
9440.00,1.33
9439.00,1.33
9438.00,1.33
9437.00,1.33
9436.00,1.33
9435.00,1.33
9434.00,1.33
9433.00,1.33
9432.00,1.33
9431.00,1.33
9430.00,1.33
9429.00,1.33
9428.00,1.33
9427.00,1.34
9426.00,1.34
9425.00,1.34
9424.00,1.34
9423.00,1.34
9422.00,1.34
9421.00,1.35
9420.00,1.35
9419.00,1.35
9418.00,1.35
9417.00,1.35
9416.00,1.35
9415.00,1.34
9414.00,1.34
9413.00,1.34
9412.00,1.34
9411.00,1.34
9410.00,1.34
9409.00,1.34
9408.00,1.34
9407.00,1.34
9406.00,1.34
9405.00,1.34
9404.00,1.34
9403.00,1.34
9402.00,1.34
9401.00,1.34
9400.00,1.34
9399.00,1.34
9398.00,1.34
9397.00,1.34
9396.00,1.34
9395.00,1.34
9394.00,1.34
9393.00,1.34
9392.00,1.34
9391.00,1.34
9390.00,1.34
9389.00,1.34
9388.00,1.34
9387.00,1.33
9386.00,1.33
9385.00,1.33
9384.00,1.33
9383.00,1.33
9382.00,1.33
9381.00,1.33
9380.00,1.33
9379.00,1.33
9378.00,1.33
9377.00,1.34
9376.00,1.34
9375.00,1.34
9374.00,1.34
9373.00,1.34
9372.00,1.34
9371.00,1.34
9370.00,1.35
9369.00,1.35
9368.00,1.35
9367.00,1.35
9366.00,1.35
9365.00,1.35
9364.00,1.36
9363.00,1.36
9362.00,1.36
9361.00,1.36
9360.00,1.36
9359.00,1.36
9358.00,1.36
9357.00,1.36
9356.00,1.36
9355.00,1.36
9354.00,1.36
9353.00,1.36
9352.00,1.36
9351.00,1.36
9350.00,1.36
9349.00,1.36
9348.00,1.35
9347.00,1.35
9346.00,1.35
9345.00,1.35
9344.00,1.35
9343.00,1.35
9342.00,1.34
9341.00,1.34
9340.00,1.34
9339.00,1.34
9338.00,1.34
9337.00,1.34
9336.00,1.34
9335.00,1.33
9334.00,1.33
9333.00,1.33
9332.00,1.33
9331.00,1.33
9330.00,1.33
9329.00,1.33
9328.00,1.33
9327.00,1.33
9326.00,1.33
9325.00,1.33
9324.00,1.33
9323.00,1.34
9322.00,1.34
9321.00,1.34
9320.00,1.34
9319.00,1.34
9318.00,1.34
9317.00,1.33
9316.00,1.33
9315.00,1.33
9314.00,1.33
9313.00,1.33
9312.00,1.33
9311.00,1.33
9310.00,1.33
9309.00,1.34
9308.00,1.34
9307.00,1.34
9306.00,1.34
9305.00,1.34
9304.00,1.34
9303.00,1.34
9302.00,1.34
9301.00,1.34
9300.00,1.34
9299.00,1.35
9298.00,1.35
9297.00,1.35
9296.00,1.35
9295.00,1.35
9294.00,1.35
9293.00,1.35
9292.00,1.35
9291.00,1.35
9290.00,1.36
9289.00,1.36
9288.00,1.36
9287.00,1.36
9286.00,1.36
9285.00,1.36
9284.00,1.36
9283.00,1.36
9282.00,1.36
9281.00,1.36
9280.00,1.37
9279.00,1.37
9278.00,1.37
9277.00,1.37
9276.00,1.37
9275.00,1.37
9274.00,1.37
9273.00,1.37
9272.00,1.37
9271.00,1.36
9270.00,1.36
9269.00,1.36
9268.00,1.36
9267.00,1.35
9266.00,1.35
9265.00,1.35
9264.00,1.35
9263.00,1.34
9262.00,1.34
9261.00,1.34
9260.00,1.34
9259.00,1.34
9258.00,1.34
9257.00,1.34
9256.00,1.34
9255.00,1.34
9254.00,1.34
9253.00,1.34
9252.00,1.35
9251.00,1.35
9250.00,1.35
9249.00,1.35
9248.00,1.36
9247.00,1.36
9246.00,1.36
9245.00,1.36
9244.00,1.36
9243.00,1.37
9242.00,1.37
9241.00,1.37
9240.00,1.37
9239.00,1.37
9238.00,1.37
9237.00,1.37
9236.00,1.37
9235.00,1.36
9234.00,1.36
9233.00,1.36
9232.00,1.36
9231.00,1.36
9230.00,1.35
9229.00,1.35
9228.00,1.35
9227.00,1.35
9226.00,1.35
9225.00,1.35
9224.00,1.35
9223.00,1.34
9222.00,1.34
9221.00,1.34
9220.00,1.34
9219.00,1.34
9218.00,1.34
9217.00,1.34
9216.00,1.34
9215.00,1.34
9214.00,1.34
9213.00,1.34
9212.00,1.35
9211.00,1.35
9210.00,1.35
9209.00,1.35
9208.00,1.35
9207.00,1.35
9206.00,1.35
9205.00,1.35
9204.00,1.36
9203.00,1.36
9202.00,1.36
9201.00,1.36
9200.00,1.36
9199.00,1.36
9198.00,1.37
9197.00,1.37
9196.00,1.37
9195.00,1.37
9194.00,1.37
9193.00,1.37
9192.00,1.36
9191.00,1.36
9190.00,1.36
9189.00,1.36
9188.00,1.36
9187.00,1.36
9186.00,1.35
9185.00,1.35
9184.00,1.35
9183.00,1.35
9182.00,1.35
9181.00,1.35
9180.00,1.34
9179.00,1.34
9178.00,1.34
9177.00,1.34
9176.00,1.34
9175.00,1.34
9174.00,1.34
9173.00,1.35
9172.00,1.35
9171.00,1.35
9170.00,1.35
9169.00,1.35
9168.00,1.35
9167.00,1.35
9166.00,1.35
9165.00,1.35
9164.00,1.35
9163.00,1.35
9162.00,1.35
9161.00,1.35
9160.00,1.35
9159.00,1.35
9158.00,1.35
9157.00,1.35
9156.00,1.35
9155.00,1.35
9154.00,1.35
9153.00,1.35
9152.00,1.35
9151.00,1.35
9150.00,1.35
9149.00,1.35
9148.00,1.35
9147.00,1.35
9146.00,1.35
9145.00,1.35
9144.00,1.35
9143.00,1.35
9142.00,1.35
9141.00,1.35
9140.00,1.35
9139.00,1.34
9138.00,1.34
9137.00,1.34
9136.00,1.34
9135.00,1.34
9134.00,1.34
9133.00,1.34
9132.00,1.34
9131.00,1.34
9130.00,1.34
9129.00,1.34
9128.00,1.34
9127.00,1.34
9126.00,1.34
9125.00,1.34
9124.00,1.34
9123.00,1.34
9122.00,1.34
9121.00,1.34
9120.00,1.34
9119.00,1.34
9118.00,1.34
9117.00,1.34
9116.00,1.34
9115.00,1.34
9114.00,1.34
9113.00,1.34
9112.00,1.34
9111.00,1.34
9110.00,1.34
9109.00,1.34
9108.00,1.34
9107.00,1.34
9106.00,1.34
9105.00,1.34
9104.00,1.34
9103.00,1.34
9102.00,1.35
9101.00,1.35
9100.00,1.35
9099.00,1.35
9098.00,1.35
9097.00,1.35
9096.00,1.35
9095.00,1.36
9094.00,1.36
9093.00,1.36
9092.00,1.36
9091.00,1.36
9090.00,1.36
9089.00,1.36
9088.00,1.36
9087.00,1.36
9086.00,1.36
9085.00,1.36
9084.00,1.36
9083.00,1.36
9082.00,1.36
9081.00,1.36
9080.00,1.36
9079.00,1.36
9078.00,1.36
9077.00,1.36
9076.00,1.36
9075.00,1.36
9074.00,1.36
9073.00,1.36
9072.00,1.36
9071.00,1.36
9070.00,1.36
9069.00,1.36
9068.00,1.36
9067.00,1.36
9066.00,1.36
9065.00,1.36
9064.00,1.35
9063.00,1.35
9062.00,1.35
9061.00,1.36
9060.00,1.36
9059.00,1.36
9058.00,1.36
9057.00,1.36
9056.00,1.36
9055.00,1.36
9054.00,1.36
9053.00,1.36
9052.00,1.36
9051.00,1.37
9050.00,1.37
9049.00,1.37
9048.00,1.37
9047.00,1.37
9046.00,1.37
9045.00,1.37
9044.00,1.37
9043.00,1.37
9042.00,1.37
9041.00,1.37
9040.00,1.37
9039.00,1.37
9038.00,1.37
9037.00,1.37
9036.00,1.37
9035.00,1.37
9034.00,1.37
9033.00,1.37
9032.00,1.37
9031.00,1.37
9030.00,1.37
9029.00,1.37
9028.00,1.37
9027.00,1.37
9026.00,1.37
9025.00,1.37
9024.00,1.37
9023.00,1.36
9022.00,1.36
9021.00,1.36
9020.00,1.36
9019.00,1.36
9018.00,1.36
9017.00,1.36
9016.00,1.35
9015.00,1.35
9014.00,1.35
9013.00,1.35
9012.00,1.35
9011.00,1.35
9010.00,1.35
9009.00,1.35
9008.00,1.35
9007.00,1.35
9006.00,1.35
9005.00,1.35
9004.00,1.35
9003.00,1.35
9002.00,1.35
9001.00,1.35
9000.00,1.35
8999.00,1.35
8998.00,1.35
8997.00,1.35
8996.00,1.35
8995.00,1.35
8994.00,1.35
8993.00,1.35
8992.00,1.35
8991.00,1.35
8990.00,1.35
8989.00,1.35
8988.00,1.35
8987.00,1.35
8986.00,1.35
8985.00,1.35
8984.00,1.36
8983.00,1.36
8982.00,1.36
8981.00,1.36
8980.00,1.36
8979.00,1.36
8978.00,1.36
8977.00,1.36
8976.00,1.36
8975.00,1.36
8974.00,1.36
8973.00,1.36
8972.00,1.36
8971.00,1.36
8970.00,1.36
8969.00,1.36
8968.00,1.36
8967.00,1.36
8966.00,1.36
8965.00,1.36
8964.00,1.36
8963.00,1.36
8962.00,1.36
8961.00,1.36
8960.00,1.36
8959.00,1.36
8958.00,1.36
8957.00,1.36
8956.00,1.36
8955.00,1.36
8954.00,1.36
8953.00,1.36
8952.00,1.36
8951.00,1.36
8950.00,1.36
8949.00,1.35
8948.00,1.35
8947.00,1.35
8946.00,1.35
8945.00,1.35
8944.00,1.35
8943.00,1.35
8942.00,1.35
8941.00,1.35
8940.00,1.35
8939.00,1.35
8938.00,1.35
8937.00,1.35
8936.00,1.35
8935.00,1.35
8934.00,1.35
8933.00,1.35
8932.00,1.35
8931.00,1.35
8930.00,1.35
8929.00,1.35
8928.00,1.35
8927.00,1.35
8926.00,1.35
8925.00,1.35
8924.00,1.35
8923.00,1.35
8922.00,1.35
8921.00,1.35
8920.00,1.35
8919.00,1.35
8918.00,1.35
8917.00,1.35
8916.00,1.34
8915.00,1.34
8914.00,1.34
8913.00,1.34
8912.00,1.34
8911.00,1.34
8910.00,1.34
8909.00,1.34
8908.00,1.34
8907.00,1.34
8906.00,1.34
8905.00,1.34
8904.00,1.34
8903.00,1.34
8902.00,1.34
8901.00,1.34
8900.00,1.34
8899.00,1.34
8898.00,1.34
8897.00,1.34
8896.00,1.34
8895.00,1.35
8894.00,1.35
8893.00,1.35
8892.00,1.35
8891.00,1.35
8890.00,1.35
8889.00,1.35
8888.00,1.35
8887.00,1.35
8886.00,1.35
8885.00,1.35
8884.00,1.35
8883.00,1.36
8882.00,1.36
8881.00,1.36
8880.00,1.36
8879.00,1.36
8878.00,1.36
8877.00,1.36
8876.00,1.36
8875.00,1.36
8874.00,1.36
8873.00,1.36
8872.00,1.36
8871.00,1.36
8870.00,1.36
8869.00,1.36
8868.00,1.36
8867.00,1.36
8866.00,1.36
8865.00,1.36
8864.00,1.36
8863.00,1.36
8862.00,1.36
8861.00,1.36
8860.00,1.36
8859.00,1.36
8858.00,1.36
8857.00,1.36
8856.00,1.36
8855.00,1.36
8854.00,1.36
8853.00,1.36
8852.00,1.36
8851.00,1.36
8850.00,1.36
8849.00,1.36
8848.00,1.36
8847.00,1.36
8846.00,1.36
8845.00,1.36
8844.00,1.36
8843.00,1.36
8842.00,1.36
8841.00,1.36
8840.00,1.35
8839.00,1.35
8838.00,1.35
8837.00,1.35
8836.00,1.35
8835.00,1.35
8834.00,1.35
8833.00,1.35
8832.00,1.35
8831.00,1.35
8830.00,1.35
8829.00,1.35
8828.00,1.35
8827.00,1.35
8826.00,1.35
8825.00,1.34
8824.00,1.34
8823.00,1.34
8822.00,1.34
8821.00,1.34
8820.00,1.34
8819.00,1.34
8818.00,1.34
8817.00,1.34
8816.00,1.34
8815.00,1.34
8814.00,1.33
8813.00,1.33
8812.00,1.33
8811.00,1.33
8810.00,1.33
8809.00,1.33
8808.00,1.33
8807.00,1.33
8806.00,1.33
8805.00,1.33
8804.00,1.33
8803.00,1.33
8802.00,1.33
8801.00,1.34
8800.00,1.34
8799.00,1.34
8798.00,1.34
8797.00,1.34
8796.00,1.34
8795.00,1.34
8794.00,1.34
8793.00,1.34
8792.00,1.34
8791.00,1.34
8790.00,1.34
8789.00,1.34
8788.00,1.34
8787.00,1.34
8786.00,1.34
8785.00,1.34
8784.00,1.34
8783.00,1.34
8782.00,1.33
8781.00,1.33
8780.00,1.33
8779.00,1.33
8778.00,1.33
8777.00,1.32
8776.00,1.32
8775.00,1.32
8774.00,1.32
8773.00,1.32
8772.00,1.31
8771.00,1.31
8770.00,1.31
8769.00,1.31
8768.00,1.31
8767.00,1.31
8766.00,1.31
8765.00,1.31
8764.00,1.31
8763.00,1.30
8762.00,1.30
8761.00,1.30
8760.00,1.30
8759.00,1.30
8758.00,1.30
8757.00,1.30
8756.00,1.30
8755.00,1.30
8754.00,1.30
8753.00,1.30
8752.00,1.30
8751.00,1.30
8750.00,1.30
8749.00,1.30
8748.00,1.30
8747.00,1.30
8746.00,1.30
8745.00,1.30
8744.00,1.30
8743.00,1.30
8742.00,1.30
8741.00,1.30
8740.00,1.30
8739.00,1.30
8738.00,1.30
8737.00,1.30
8736.00,1.30
8735.00,1.30
8734.00,1.30
8733.00,1.30
8732.00,1.29
8731.00,1.29
8730.00,1.29
8729.00,1.29
8728.00,1.29
8727.00,1.29
8726.00,1.29
8725.00,1.29
8724.00,1.29
8723.00,1.29
8722.00,1.29
8721.00,1.29
8720.00,1.29
8719.00,1.29
8718.00,1.29
8717.00,1.29
8716.00,1.29
8715.00,1.29
8714.00,1.29
8713.00,1.29
8712.00,1.30
8711.00,1.30
8710.00,1.30
8709.00,1.29
8708.00,1.29
8707.00,1.29
8706.00,1.29
8705.00,1.29
8704.00,1.29
8703.00,1.29
8702.00,1.29
8701.00,1.29
8700.00,1.29
8699.00,1.29
8698.00,1.29
8697.00,1.29
8696.00,1.29
8695.00,1.29
8694.00,1.29
8693.00,1.29
8692.00,1.29
8691.00,1.29
8690.00,1.29
8689.00,1.29
8688.00,1.29
8687.00,1.29
8686.00,1.29
8685.00,1.29
8684.00,1.29
8683.00,1.29
8682.00,1.29
8681.00,1.28
8680.00,1.28
8679.00,1.28
8678.00,1.28
8677.00,1.28
8676.00,1.28
8675.00,1.28
8674.00,1.28
8673.00,1.28
8672.00,1.28
8671.00,1.29
8670.00,1.29
8669.00,1.29
8668.00,1.29
8667.00,1.29
8666.00,1.29
8665.00,1.29
8664.00,1.29
8663.00,1.29
8662.00,1.29
8661.00,1.29
8660.00,1.29
8659.00,1.29
8658.00,1.29
8657.00,1.29
8656.00,1.29
8655.00,1.29
8654.00,1.29
8653.00,1.29
8652.00,1.29
8651.00,1.29
8650.00,1.29
8649.00,1.29
8648.00,1.29
8647.00,1.29
8646.00,1.29
8645.00,1.29
8644.00,1.29
8643.00,1.29
8642.00,1.29
8641.00,1.29
8640.00,1.29
8639.00,1.29
8638.00,1.29
8637.00,1.29
8636.00,1.29
8635.00,1.29
8634.00,1.29
8633.00,1.29
8632.00,1.29
8631.00,1.29
8630.00,1.29
8629.00,1.29
8628.00,1.28
8627.00,1.28
8626.00,1.28
8625.00,1.28
8624.00,1.28
8623.00,1.28
8622.00,1.28
8621.00,1.28
8620.00,1.28
8619.00,1.28
8618.00,1.28
8617.00,1.28
8616.00,1.28
8615.00,1.28
8614.00,1.28
8613.00,1.28
8612.00,1.28
8611.00,1.28
8610.00,1.28
8609.00,1.28
8608.00,1.28
8607.00,1.28
8606.00,1.28
8605.00,1.28
8604.00,1.28
8603.00,1.28
8602.00,1.28
8601.00,1.28
8600.00,1.28
8599.00,1.28
8598.00,1.28
8597.00,1.28
8596.00,1.27
8595.00,1.27
8594.00,1.27
8593.00,1.27
8592.00,1.27
8591.00,1.27
8590.00,1.27
8589.00,1.27
8588.00,1.26
8587.00,1.26
8586.00,1.26
8585.00,1.26
8584.00,1.26
8583.00,1.26
8582.00,1.26
8581.00,1.26
8580.00,1.26
8579.00,1.26
8578.00,1.26
8577.00,1.26
8576.00,1.26
8575.00,1.26
8574.00,1.26
8573.00,1.26
8572.00,1.26
8571.00,1.26
8570.00,1.26
8569.00,1.26
8568.00,1.26
8567.00,1.25
8566.00,1.25
8565.00,1.25
8564.00,1.25
8563.00,1.25
8562.00,1.25
8561.00,1.25
8560.00,1.25
8559.00,1.25
8558.00,1.25
8557.00,1.25
8556.00,1.25
8555.00,1.25
8554.00,1.25
8553.00,1.25
8552.00,1.25
8551.00,1.25
8550.00,1.25
8549.00,1.25
8548.00,1.25
8547.00,1.25
8546.00,1.25
8545.00,1.25
8544.00,1.25
8543.00,1.24
8542.00,1.24
8541.00,1.24
8540.00,1.24
8539.00,1.24
8538.00,1.24
8537.00,1.24
8536.00,1.24
8535.00,1.24
8534.00,1.24
8533.00,1.24
8532.00,1.24
8531.00,1.24
8530.00,1.24
8529.00,1.25
8528.00,1.25
8527.00,1.25
8526.00,1.25
8525.00,1.25
8524.00,1.25
8523.00,1.24
8522.00,1.24
8521.00,1.24
8520.00,1.24
8519.00,1.24
8518.00,1.24
8517.00,1.24
8516.00,1.24
8515.00,1.23
8514.00,1.23
8513.00,1.23
8512.00,1.23
8511.00,1.23
8510.00,1.23
8509.00,1.22
8508.00,1.22
8507.00,1.22
8506.00,1.22
8505.00,1.22
8504.00,1.22
8503.00,1.22
8502.00,1.22
8501.00,1.22
8500.00,1.22
8499.00,1.22
8498.00,1.22
8497.00,1.22
8496.00,1.22
8495.00,1.21
8494.00,1.21
8493.00,1.21
8492.00,1.21
8491.00,1.21
8490.00,1.21
8489.00,1.21
8488.00,1.21
8487.00,1.21
8486.00,1.21
8485.00,1.21
8484.00,1.21
8483.00,1.20
8482.00,1.20
8481.00,1.20
8480.00,1.20
8479.00,1.20
8478.00,1.20
8477.00,1.20
8476.00,1.20
8475.00,1.20
8474.00,1.20
8473.00,1.20
8472.00,1.20
8471.00,1.20
8470.00,1.20
8469.00,1.20
8468.00,1.19
8467.00,1.19
8466.00,1.19
8465.00,1.19
8464.00,1.19
8463.00,1.19
8462.00,1.19
8461.00,1.19
8460.00,1.18
8459.00,1.18
8458.00,1.18
8457.00,1.18
8456.00,1.18
8455.00,1.18
8454.00,1.18
8453.00,1.18
8452.00,1.18
8451.00,1.18
8450.00,1.18
8449.00,1.18
8448.00,1.18
8447.00,1.18
8446.00,1.18
8445.00,1.18
8444.00,1.18
8443.00,1.18
8442.00,1.18
8441.00,1.18
8440.00,1.18
8439.00,1.18
8438.00,1.18
8437.00,1.18
8436.00,1.18
8435.00,1.18
8434.00,1.18
8433.00,1.18
8432.00,1.18
8431.00,1.18
8430.00,1.19
8429.00,1.19
8428.00,1.19
8427.00,1.19
8426.00,1.19
8425.00,1.18
8424.00,1.18
8423.00,1.18
8422.00,1.18
8421.00,1.18
8420.00,1.18
8419.00,1.18
8418.00,1.18
8417.00,1.18
8416.00,1.18
8415.00,1.18
8414.00,1.18
8413.00,1.18
8412.00,1.18
8411.00,1.18
8410.00,1.18
8409.00,1.18
8408.00,1.18
8407.00,1.18
8406.00,1.19
8405.00,1.19
8404.00,1.19
8403.00,1.19
8402.00,1.19
8401.00,1.19
8400.00,1.20
8399.00,1.20
8398.00,1.20
8397.00,1.20
8396.00,1.20
8395.00,1.20
8394.00,1.20
8393.00,1.21
8392.00,1.21
8391.00,1.21
8390.00,1.21
8389.00,1.21
8388.00,1.21
8387.00,1.21
8386.00,1.22
8385.00,1.22
8384.00,1.22
8383.00,1.22
8382.00,1.22
8381.00,1.22
8380.00,1.22
8379.00,1.22
8378.00,1.22
8377.00,1.22
8376.00,1.22
8375.00,1.22
8374.00,1.22
8373.00,1.22
8372.00,1.22
8371.00,1.23
8370.00,1.23
8369.00,1.23
8368.00,1.23
8367.00,1.23
8366.00,1.23
8365.00,1.23
8364.00,1.23
8363.00,1.23
8362.00,1.23
8361.00,1.23
8360.00,1.23
8359.00,1.23
8358.00,1.24
8357.00,1.24
8356.00,1.24
8355.00,1.24
8354.00,1.24
8353.00,1.24
8352.00,1.24
8351.00,1.23
8350.00,1.23
8349.00,1.23
8348.00,1.23
8347.00,1.23
8346.00,1.23
8345.00,1.23
8344.00,1.23
8343.00,1.23
8342.00,1.23
8341.00,1.23
8340.00,1.22
8339.00,1.22
8338.00,1.22
8337.00,1.22
8336.00,1.22
8335.00,1.22
8334.00,1.22
8333.00,1.22
8332.00,1.22
8331.00,1.22
8330.00,1.23
8329.00,1.23
8328.00,1.23
8327.00,1.23
8326.00,1.23
8325.00,1.23
8324.00,1.23
8323.00,1.23
8322.00,1.23
8321.00,1.23
8320.00,1.23
8319.00,1.23
8318.00,1.23
8317.00,1.23
8316.00,1.23
8315.00,1.23
8314.00,1.23
8313.00,1.23
8312.00,1.23
8311.00,1.23
8310.00,1.23
8309.00,1.23
8308.00,1.23
8307.00,1.23
8306.00,1.23
8305.00,1.24
8304.00,1.24
8303.00,1.24
8302.00,1.24
8301.00,1.24
8300.00,1.24
8299.00,1.24
8298.00,1.24
8297.00,1.24
8296.00,1.24
8295.00,1.24
8294.00,1.24
8293.00,1.24
8292.00,1.24
8291.00,1.24
8290.00,1.24
8289.00,1.24
8288.00,1.24
8287.00,1.25
8286.00,1.25
8285.00,1.25
8284.00,1.25
8283.00,1.25
8282.00,1.25
8281.00,1.25
8280.00,1.25
8279.00,1.25
8278.00,1.25
8277.00,1.25
8276.00,1.25
8275.00,1.25
8274.00,1.25
8273.00,1.25
8272.00,1.25
8271.00,1.25
8270.00,1.25
8269.00,1.25
8268.00,1.25
8267.00,1.25
8266.00,1.25
8265.00,1.25
8264.00,1.25
8263.00,1.25
8262.00,1.25
8261.00,1.25
8260.00,1.26
8259.00,1.26
8258.00,1.26
8257.00,1.26
8256.00,1.26
8255.00,1.26
8254.00,1.26
8253.00,1.26
8252.00,1.26
8251.00,1.26
8250.00,1.26
8249.00,1.26
8248.00,1.26
8247.00,1.26
8246.00,1.26
8245.00,1.26
8244.00,1.26
8243.00,1.26
8242.00,1.26
8241.00,1.26
8240.00,1.26
8239.00,1.26
8238.00,1.26
8237.00,1.26
8236.00,1.26
8235.00,1.26
8234.00,1.26
8233.00,1.26
8232.00,1.26
8231.00,1.26
8230.00,1.26
8229.00,1.26
8228.00,1.26
8227.00,1.26
8226.00,1.26
8225.00,1.26
8224.00,1.26
8223.00,1.26
8222.00,1.26
8221.00,1.26
8220.00,1.26
8219.00,1.26
8218.00,1.26
8217.00,1.26
8216.00,1.26
8215.00,1.26
8214.00,1.26
8213.00,1.26
8212.00,1.26
8211.00,1.26
8210.00,1.26
8209.00,1.26
8208.00,1.26
8207.00,1.26
8206.00,1.26
8205.00,1.26
8204.00,1.26
8203.00,1.26
8202.00,1.26
8201.00,1.26
8200.00,1.26
8199.00,1.26
8198.00,1.26
8197.00,1.26
8196.00,1.26
8195.00,1.27
8194.00,1.27
8193.00,1.27
8192.00,1.27
8191.00,1.27
8190.00,1.27
8189.00,1.27
8188.00,1.27
8187.00,1.28
8186.00,1.28
8185.00,1.28
8184.00,1.28
8183.00,1.28
8182.00,1.28
8181.00,1.28
8180.00,1.28
8179.00,1.28
8178.00,1.28
8177.00,1.28
8176.00,1.29
8175.00,1.29
8174.00,1.29
8173.00,1.29
8172.00,1.29
8171.00,1.29
8170.00,1.29
8169.00,1.29
8168.00,1.29
8167.00,1.28
8166.00,1.28
8165.00,1.28
8164.00,1.28
8163.00,1.28
8162.00,1.28
8161.00,1.28
8160.00,1.28
8159.00,1.28
8158.00,1.28
8157.00,1.28
8156.00,1.27
8155.00,1.27
8154.00,1.27
8153.00,1.27
8152.00,1.27
8151.00,1.27
8150.00,1.28
8149.00,1.28
8148.00,1.28
8147.00,1.28
8146.00,1.28
8145.00,1.28
8144.00,1.28
8143.00,1.28
8142.00,1.28
8141.00,1.28
8140.00,1.29
8139.00,1.29
8138.00,1.29
8137.00,1.29
8136.00,1.29
8135.00,1.29
8134.00,1.29
8133.00,1.29
8132.00,1.29
8131.00,1.29
8130.00,1.29
8129.00,1.29
8128.00,1.29
8127.00,1.30
8126.00,1.30
8125.00,1.30
8124.00,1.30
8123.00,1.30
8122.00,1.30
8121.00,1.30
8120.00,1.30
8119.00,1.30
8118.00,1.30
8117.00,1.30
8116.00,1.30
8115.00,1.30
8114.00,1.30
8113.00,1.30
8112.00,1.30
8111.00,1.30
8110.00,1.31
8109.00,1.31
8108.00,1.31
8107.00,1.31
8106.00,1.31
8105.00,1.31
8104.00,1.31
8103.00,1.31
8102.00,1.31
8101.00,1.31
8100.00,1.31
8099.00,1.31
8098.00,1.31
8097.00,1.31
8096.00,1.31
8095.00,1.31
8094.00,1.31
8093.00,1.31
8092.00,1.31
8091.00,1.31
8090.00,1.31
8089.00,1.30
8088.00,1.30
8087.00,1.30
8086.00,1.30
8085.00,1.30
8084.00,1.30
8083.00,1.30
8082.00,1.30
8081.00,1.30
8080.00,1.30
8079.00,1.30
8078.00,1.30
8077.00,1.30
8076.00,1.30
8075.00,1.30
8074.00,1.30
8073.00,1.30
8072.00,1.30
8071.00,1.30
8070.00,1.30
8069.00,1.30
8068.00,1.30
8067.00,1.30
8066.00,1.30
8065.00,1.30
8064.00,1.30
8063.00,1.30
8062.00,1.31
8061.00,1.31
8060.00,1.31
8059.00,1.31
8058.00,1.31
8057.00,1.31
8056.00,1.31
8055.00,1.31
8054.00,1.31
8053.00,1.31
8052.00,1.31
8051.00,1.31
8050.00,1.31
8049.00,1.31
8048.00,1.31
8047.00,1.31
8046.00,1.31
8045.00,1.31
8044.00,1.31
8043.00,1.31
8042.00,1.32
8041.00,1.32
8040.00,1.32
8039.00,1.32
8038.00,1.32
8037.00,1.32
8036.00,1.32
8035.00,1.32
8034.00,1.32
8033.00,1.32
8032.00,1.31
8031.00,1.31
8030.00,1.31
8029.00,1.31
8028.00,1.31
8027.00,1.31
8026.00,1.31
8025.00,1.31
8024.00,1.31
8023.00,1.31
8022.00,1.31
8021.00,1.31
8020.00,1.32
8019.00,1.32
8018.00,1.32
8017.00,1.32
8016.00,1.32
8015.00,1.32
8014.00,1.32
8013.00,1.32
8012.00,1.32
8011.00,1.32
8010.00,1.32
8009.00,1.33
8008.00,1.33
8007.00,1.33
8006.00,1.33
8005.00,1.33
8004.00,1.33
8003.00,1.33
8002.00,1.33
8001.00,1.33
8000.00,1.33
7999.00,1.33
7998.00,1.33
7997.00,1.33
7996.00,1.33
7995.00,1.33
7994.00,1.33
7993.00,1.33
7992.00,1.33
7991.00,1.33
7990.00,1.33
7989.00,1.33
7988.00,1.33
7987.00,1.33
7986.00,1.33
7985.00,1.33
7984.00,1.33
7983.00,1.33
7982.00,1.33
7981.00,1.33
7980.00,1.33
7979.00,1.33
7978.00,1.33
7977.00,1.33
7976.00,1.33
7975.00,1.33
7974.00,1.33
7973.00,1.33
7972.00,1.33
7971.00,1.33
7970.00,1.33
7969.00,1.33
7968.00,1.33
7967.00,1.33
7966.00,1.33
7965.00,1.33
7964.00,1.33
7963.00,1.33
7962.00,1.34
7961.00,1.34
7960.00,1.34
7959.00,1.34
7958.00,1.34
7957.00,1.34
7956.00,1.34
7955.00,1.34
7954.00,1.34
7953.00,1.34
7952.00,1.34
7951.00,1.34
7950.00,1.34
7949.00,1.34
7948.00,1.34
7947.00,1.34
7946.00,1.34
7945.00,1.34
7944.00,1.34
7943.00,1.34
7942.00,1.34
7941.00,1.34
7940.00,1.34
7939.00,1.34
7938.00,1.34
7937.00,1.34
7936.00,1.34
7935.00,1.34
7934.00,1.34
7933.00,1.34
7932.00,1.34
7931.00,1.34
7930.00,1.34
7929.00,1.34
7928.00,1.34
7927.00,1.34
7926.00,1.34
7925.00,1.34
7924.00,1.35
7923.00,1.35
7922.00,1.35
7921.00,1.35
7920.00,1.35
7919.00,1.35
7918.00,1.35
7917.00,1.35
7916.00,1.35
7915.00,1.34
7914.00,1.34
7913.00,1.34
7912.00,1.34
7911.00,1.34
7910.00,1.34
7909.00,1.34
7908.00,1.34
7907.00,1.34
7906.00,1.34
7905.00,1.34
7904.00,1.34
7903.00,1.34
7902.00,1.34
7901.00,1.34
7900.00,1.34
7899.00,1.34
7898.00,1.34
7897.00,1.34
7896.00,1.34
7895.00,1.34
7894.00,1.34
7893.00,1.34
7892.00,1.34
7891.00,1.34
7890.00,1.34
7889.00,1.35
7888.00,1.35
7887.00,1.35
7886.00,1.35
7885.00,1.35
7884.00,1.35
7883.00,1.35
7882.00,1.35
7881.00,1.35
7880.00,1.35
7879.00,1.35
7878.00,1.35
7877.00,1.35
7876.00,1.35
7875.00,1.35
7874.00,1.35
7873.00,1.35
7872.00,1.35
7871.00,1.35
7870.00,1.35
7869.00,1.35
7868.00,1.35
7867.00,1.35
7866.00,1.35
7865.00,1.35
7864.00,1.35
7863.00,1.35
7862.00,1.36
7861.00,1.36
7860.00,1.36
7859.00,1.36
7858.00,1.36
7857.00,1.36
7856.00,1.36
7855.00,1.36
7854.00,1.36
7853.00,1.36
7852.00,1.36
7851.00,1.36
7850.00,1.36
7849.00,1.36
7848.00,1.36
7847.00,1.36
7846.00,1.36
7845.00,1.36
7844.00,1.36
7843.00,1.36
7842.00,1.36
7841.00,1.35
7840.00,1.35
7839.00,1.35
7838.00,1.35
7837.00,1.35
7836.00,1.35
7835.00,1.35
7834.00,1.35
7833.00,1.35
7832.00,1.35
7831.00,1.35
7830.00,1.36
7829.00,1.36
7828.00,1.36
7827.00,1.36
7826.00,1.36
7825.00,1.36
7824.00,1.36
7823.00,1.36
7822.00,1.36
7821.00,1.36
7820.00,1.36
7819.00,1.36
7818.00,1.36
7817.00,1.36
7816.00,1.36
7815.00,1.36
7814.00,1.36
7813.00,1.36
7812.00,1.36
7811.00,1.36
7810.00,1.36
7809.00,1.36
7808.00,1.36
7807.00,1.36
7806.00,1.36
7805.00,1.36
7804.00,1.36
7803.00,1.36
7802.00,1.36
7801.00,1.35
7800.00,1.35
7799.00,1.35
7798.00,1.35
7797.00,1.35
7796.00,1.35
7795.00,1.35
7794.00,1.35
7793.00,1.35
7792.00,1.35
7791.00,1.35
7790.00,1.35
7789.00,1.35
7788.00,1.36
7787.00,1.36
7786.00,1.36
7785.00,1.36
7784.00,1.36
7783.00,1.36
7782.00,1.36
7781.00,1.36
7780.00,1.36
7779.00,1.36
7778.00,1.36
7777.00,1.36
7776.00,1.36
7775.00,1.36
7774.00,1.36
7773.00,1.36
7772.00,1.36
7771.00,1.36
7770.00,1.36
7769.00,1.36
7768.00,1.36
7767.00,1.36
7766.00,1.36
7765.00,1.36
7764.00,1.36
7763.00,1.36
7762.00,1.36
7761.00,1.36
7760.00,1.36
7759.00,1.36
7758.00,1.36
7757.00,1.36
7756.00,1.36
7755.00,1.36
7754.00,1.36
7753.00,1.36
7752.00,1.36
7751.00,1.36
7750.00,1.36
7749.00,1.36
7748.00,1.36
7747.00,1.36
7746.00,1.36
7745.00,1.36
7744.00,1.36
7743.00,1.36
7742.00,1.37
7741.00,1.37
7740.00,1.37
7739.00,1.37
7738.00,1.37
7737.00,1.37
7736.00,1.37
7735.00,1.37
7734.00,1.37
7733.00,1.37
7732.00,1.37
7731.00,1.37
7730.00,1.37
7729.00,1.37
7728.00,1.37
7727.00,1.36
7726.00,1.36
7725.00,1.36
7724.00,1.36
7723.00,1.36
7722.00,1.36
7721.00,1.36
7720.00,1.36
7719.00,1.36
7718.00,1.36
7717.00,1.36
7716.00,1.36
7715.00,1.36
7714.00,1.36
7713.00,1.36
7712.00,1.36
7711.00,1.36
7710.00,1.36
7709.00,1.36
7708.00,1.36
7707.00,1.37
7706.00,1.37
7705.00,1.37
7704.00,1.37
7703.00,1.37
7702.00,1.37
7701.00,1.37
7700.00,1.37
7699.00,1.37
7698.00,1.37
7697.00,1.37
7696.00,1.37
7695.00,1.37
7694.00,1.37
7693.00,1.37
7692.00,1.37
7691.00,1.37
7690.00,1.37
7689.00,1.37
7688.00,1.37
7687.00,1.37
7686.00,1.37
7685.00,1.37
7684.00,1.37
7683.00,1.37
7682.00,1.36
7681.00,1.36
7680.00,1.36
7679.00,1.36
7678.00,1.36
7677.00,1.36
7676.00,1.36
7675.00,1.36
7674.00,1.36
7673.00,1.36
7672.00,1.36
7671.00,1.36
7670.00,1.36
7669.00,1.36
7668.00,1.36
7667.00,1.36
7666.00,1.36
7665.00,1.36
7664.00,1.36
7663.00,1.36
7662.00,1.36
7661.00,1.36
7660.00,1.36
7659.00,1.37
7658.00,1.37
7657.00,1.37
7656.00,1.37
7655.00,1.37
7654.00,1.37
7653.00,1.37
7652.00,1.37
7651.00,1.37
7650.00,1.37
7649.00,1.37
7648.00,1.37
7647.00,1.37
7646.00,1.37
7645.00,1.37
7644.00,1.37
7643.00,1.37
7642.00,1.37
7641.00,1.37
7640.00,1.37
7639.00,1.37
7638.00,1.37
7637.00,1.37
7636.00,1.37
7635.00,1.37
7634.00,1.37
7633.00,1.37
7632.00,1.37
7631.00,1.37
7630.00,1.36
7629.00,1.36
7628.00,1.36
7627.00,1.36
7626.00,1.36
7625.00,1.36
7624.00,1.36
7623.00,1.36
7622.00,1.36
7621.00,1.36
7620.00,1.36
7619.00,1.36
7618.00,1.36
7617.00,1.36
7616.00,1.36
7615.00,1.36
7614.00,1.36
7613.00,1.36
7612.00,1.36
7611.00,1.36
7610.00,1.36
7609.00,1.36
7608.00,1.36
7607.00,1.36
7606.00,1.36
7605.00,1.36
7604.00,1.36
7603.00,1.36
7602.00,1.36
7601.00,1.36
7600.00,1.36
7599.00,1.36
7598.00,1.36
7597.00,1.36
7596.00,1.36
7595.00,1.36
7594.00,1.36
7593.00,1.36
7592.00,1.36
7591.00,1.36
7590.00,1.36
7589.00,1.36
7588.00,1.36
7587.00,1.36
7586.00,1.36
7585.00,1.36
7584.00,1.36
7583.00,1.36
7582.00,1.36
7581.00,1.36
7580.00,1.36
7579.00,1.36
7578.00,1.36
7577.00,1.36
7576.00,1.36
7575.00,1.36
7574.00,1.36
7573.00,1.36
7572.00,1.36
7571.00,1.36
7570.00,1.36
7569.00,1.36
7568.00,1.36
7567.00,1.36
7566.00,1.36
7565.00,1.36
7564.00,1.36
7563.00,1.36
7562.00,1.36
7561.00,1.36
7560.00,1.36
7559.00,1.36
7558.00,1.36
7557.00,1.36
7556.00,1.36
7555.00,1.36
7554.00,1.36
7553.00,1.36
7552.00,1.36
7551.00,1.36
7550.00,1.36
7549.00,1.36
7548.00,1.36
7547.00,1.36
7546.00,1.36
7545.00,1.36
7544.00,1.36
7543.00,1.36
7542.00,1.35
7541.00,1.35
7540.00,1.35
7539.00,1.35
7538.00,1.35
7537.00,1.35
7536.00,1.35
7535.00,1.34
7534.00,1.34
7533.00,1.34
7532.00,1.34
7531.00,1.34
7530.00,1.34
7529.00,1.34
7528.00,1.34
7527.00,1.34
7526.00,1.34
7525.00,1.34
7524.00,1.34
7523.00,1.34
7522.00,1.34
7521.00,1.34
7520.00,1.34
7519.00,1.34
7518.00,1.34
7517.00,1.34
7516.00,1.34
7515.00,1.34
7514.00,1.34
7513.00,1.34
7512.00,1.34
7511.00,1.34
7510.00,1.34
7509.00,1.34
7508.00,1.34
7507.00,1.34
7506.00,1.34
7505.00,1.34
7504.00,1.34
7503.00,1.34
7502.00,1.34
7501.00,1.34
7500.00,1.34
7499.00,1.34
7498.00,1.34
7497.00,1.34
7496.00,1.34
7495.00,1.34
7494.00,1.34
7493.00,1.33
7492.00,1.33
7491.00,1.33
7490.00,1.33
7489.00,1.33
7488.00,1.33
7487.00,1.33
7486.00,1.33
7485.00,1.33
7484.00,1.33
7483.00,1.33
7482.00,1.33
7481.00,1.33
7480.00,1.33
7479.00,1.33
7478.00,1.33
7477.00,1.33
7476.00,1.33
7475.00,1.33
7474.00,1.33
7473.00,1.32
7472.00,1.32
7471.00,1.32
7470.00,1.32
7469.00,1.32
7468.00,1.32
7467.00,1.32
7466.00,1.32
7465.00,1.32
7464.00,1.32
7463.00,1.32
7462.00,1.32
7461.00,1.32
7460.00,1.32
7459.00,1.32
7458.00,1.32
7457.00,1.32
7456.00,1.32
7455.00,1.32
7454.00,1.32
7453.00,1.32
7452.00,1.32
7451.00,1.32
7450.00,1.32
7449.00,1.32
7448.00,1.32
7447.00,1.32
7446.00,1.32
7445.00,1.32
7444.00,1.32
7443.00,1.32
7442.00,1.31
7441.00,1.31
7440.00,1.31
7439.00,1.31
7438.00,1.31
7437.00,1.31
7436.00,1.31
7435.00,1.31
7434.00,1.31
7433.00,1.31
7432.00,1.31
7431.00,1.30
7430.00,1.30
7429.00,1.30
7428.00,1.30
7427.00,1.30
7426.00,1.30
7425.00,1.30
7424.00,1.30
7423.00,1.30
7422.00,1.30
7421.00,1.30
7420.00,1.30
7419.00,1.29
7418.00,1.29
7417.00,1.29
7416.00,1.29
7415.00,1.29
7414.00,1.29
7413.00,1.29
7412.00,1.29
7411.00,1.29
7410.00,1.29
7409.00,1.29
7408.00,1.29
7407.00,1.28
7406.00,1.28
7405.00,1.28
7404.00,1.28
7403.00,1.28
7402.00,1.28
7401.00,1.28
7400.00,1.28
7399.00,1.28
7398.00,1.28
7397.00,1.28
7396.00,1.27
7395.00,1.27
7394.00,1.27
7393.00,1.27
7392.00,1.27
7391.00,1.27
7390.00,1.27
7389.00,1.27
7388.00,1.27
7387.00,1.27
7386.00,1.27
7385.00,1.26
7384.00,1.26
7383.00,1.26
7382.00,1.26
7381.00,1.26
7380.00,1.26
7379.00,1.26
7378.00,1.26
7377.00,1.26
7376.00,1.26
7375.00,1.26
7374.00,1.26
7373.00,1.26
7372.00,1.26
7371.00,1.26
7370.00,1.26
7369.00,1.26
7368.00,1.26
7367.00,1.26
7366.00,1.26
7365.00,1.26
7364.00,1.26
7363.00,1.26
7362.00,1.26
7361.00,1.26
7360.00,1.26
7359.00,1.25
7358.00,1.25
7357.00,1.25
7356.00,1.25
7355.00,1.25
7354.00,1.25
7353.00,1.25
7352.00,1.25
7351.00,1.25
7350.00,1.25
7349.00,1.25
7348.00,1.24
7347.00,1.24
7346.00,1.24
7345.00,1.24
7344.00,1.24
7343.00,1.24
7342.00,1.24
7341.00,1.24
7340.00,1.24
7339.00,1.24
7338.00,1.24
7337.00,1.24
7336.00,1.24
7335.00,1.24
7334.00,1.24
7333.00,1.24
7332.00,1.24
7331.00,1.24
7330.00,1.24
7329.00,1.24
7328.00,1.24
7327.00,1.24
7326.00,1.24
7325.00,1.24
7324.00,1.24
7323.00,1.24
7322.00,1.24
7321.00,1.24
7320.00,1.23
7319.00,1.23
7318.00,1.23
7317.00,1.23
7316.00,1.23
7315.00,1.23
7314.00,1.23
7313.00,1.22
7312.00,1.22
7311.00,1.22
7310.00,1.22
7309.00,1.22
7308.00,1.22
7307.00,1.22
7306.00,1.22
7305.00,1.22
7304.00,1.21
7303.00,1.21
7302.00,1.21
7301.00,1.21
7300.00,1.21
7299.00,1.21
7298.00,1.21
7297.00,1.21
7296.00,1.21
7295.00,1.21
7294.00,1.20
7293.00,1.20
7292.00,1.20
7291.00,1.20
7290.00,1.20
7289.00,1.20
7288.00,1.20
7287.00,1.19
7286.00,1.19
7285.00,1.19
7284.00,1.19
7283.00,1.19
7282.00,1.19
7281.00,1.19
7280.00,1.18
7279.00,1.18
7278.00,1.18
7277.00,1.18
7276.00,1.18
7275.00,1.18
7274.00,1.18
7273.00,1.17
7272.00,1.17
7271.00,1.17
7270.00,1.17
7269.00,1.17
7268.00,1.17
7267.00,1.17
7266.00,1.16
7265.00,1.16
7264.00,1.16
7263.00,1.16
7262.00,1.16
7261.00,1.16
7260.00,1.16
7259.00,1.15
7258.00,1.15
7257.00,1.15
7256.00,1.15
7255.00,1.15
7254.00,1.14
7253.00,1.14
7252.00,1.14
7251.00,1.14
7250.00,1.14
7249.00,1.13
7248.00,1.13
7247.00,1.13
7246.00,1.12
7245.00,1.12
7244.00,1.12
7243.00,1.12
7242.00,1.11
7241.00,1.11
7240.00,1.11
7239.00,1.10
7238.00,1.10
7237.00,1.10
7236.00,1.10
7235.00,1.09
7234.00,1.09
7233.00,1.09
7232.00,1.09
7231.00,1.08
7230.00,1.08
7229.00,1.08
7228.00,1.07
7227.00,1.07
7226.00,1.07
7225.00,1.06
7224.00,1.06
7223.00,1.06
7222.00,1.05
7221.00,1.05
7220.00,1.05
7219.00,1.04
7218.00,1.04
7217.00,1.04
7216.00,1.03
7215.00,1.03
7214.00,1.03
7213.00,1.02
7212.00,1.02
7211.00,1.02
7210.00,1.01
7209.00,1.01
7208.00,1.01
7207.00,1.00
7206.00,1.00
7205.00,1.00
7204.00,0.99
7203.00,0.99
7202.00,0.99
7201.00,0.99
7200.00,0.98
7199.00,0.98
7198.00,0.98
7197.00,0.97
7196.00,0.97
7195.00,0.97
7194.00,0.96
7193.00,0.96
7192.00,0.96
7191.00,0.95
7190.00,0.95
7189.00,0.95
7188.00,0.94
7187.00,0.94
7186.00,0.93
7185.00,0.93
7184.00,0.93
7183.00,0.92
7182.00,0.92
7181.00,0.92
7180.00,0.92
7179.00,0.91
7178.00,0.91
7177.00,0.91
7176.00,0.90
7175.00,0.90
7174.00,0.90
7173.00,0.89
7172.00,0.89
7171.00,0.89
7170.00,0.88
7169.00,0.88
7168.00,0.88
7167.00,0.87
7166.00,0.87
7165.00,0.87
7164.00,0.86
7163.00,0.86
7162.00,0.86
7161.00,0.85
7160.00,0.85
7159.00,0.85
7158.00,0.84
7157.00,0.84
7156.00,0.84
7155.00,0.84
7154.00,0.84
7153.00,0.83
7152.00,0.83
7151.00,0.83
7150.00,0.83
7149.00,0.83
7148.00,0.83
7147.00,0.82
7146.00,0.82
7145.00,0.82
7144.00,0.82
7143.00,0.82
7142.00,0.81
7141.00,0.81
7140.00,0.81
7139.00,0.81
7138.00,0.80
7137.00,0.80
7136.00,0.80
7135.00,0.80
7134.00,0.79
7133.00,0.79
7132.00,0.79
7131.00,0.78
7130.00,0.78
7129.00,0.78
7128.00,0.78
7127.00,0.77
7126.00,0.77
7125.00,0.77
7124.00,0.76
7123.00,0.76
7122.00,0.76
7121.00,0.76
7120.00,0.75
7119.00,0.75
7118.00,0.75
7117.00,0.75
7116.00,0.75
7115.00,0.74
7114.00,0.74
7113.00,0.74
7112.00,0.74
7111.00,0.74
7110.00,0.73
7109.00,0.73
7108.00,0.73
7107.00,0.73
7106.00,0.73
7105.00,0.72
7104.00,0.72
7103.00,0.72
7102.00,0.72
7101.00,0.72
7100.00,0.71
7099.00,0.71
7098.00,0.71
7097.00,0.71
7096.00,0.70
7095.00,0.70
7094.00,0.70
7093.00,0.70
7092.00,0.69
7091.00,0.69
7090.00,0.69
7089.00,0.69
7088.00,0.68
7087.00,0.68
7086.00,0.68
7085.00,0.68
7084.00,0.67
7083.00,0.67
7082.00,0.67
7081.00,0.67
7080.00,0.67
7079.00,0.66
7078.00,0.66
7077.00,0.66
7076.00,0.66
7075.00,0.66
7074.00,0.66
7073.00,0.66
7072.00,0.66
7071.00,0.65
7070.00,0.65
7069.00,0.65
7068.00,0.65
7067.00,0.65
7066.00,0.65
7065.00,0.65
7064.00,0.65
7063.00,0.65
7062.00,0.65
7061.00,0.64
7060.00,0.64
7059.00,0.64
7058.00,0.64
7057.00,0.64
7056.00,0.64
7055.00,0.64
7054.00,0.64
7053.00,0.63
7052.00,0.63
7051.00,0.63
7050.00,0.63
7049.00,0.63
7048.00,0.63
7047.00,0.63
7046.00,0.63
7045.00,0.63
7044.00,0.63
7043.00,0.63
7042.00,0.62
7041.00,0.62
7040.00,0.62
7039.00,0.62
7038.00,0.62
7037.00,0.62
7036.00,0.62
7035.00,0.62
7034.00,0.62
7033.00,0.62
7032.00,0.62
7031.00,0.62
7030.00,0.62
7029.00,0.62
7028.00,0.62
7027.00,0.62
7026.00,0.62
7025.00,0.61
7024.00,0.61
7023.00,0.61
7022.00,0.61
7021.00,0.61
7020.00,0.61
7019.00,0.61
7018.00,0.61
7017.00,0.60
7016.00,0.60
7015.00,0.60
7014.00,0.60
7013.00,0.60
7012.00,0.60
7011.00,0.60
7010.00,0.60
7009.00,0.60
7008.00,0.60
7007.00,0.60
7006.00,0.60
7005.00,0.60
7004.00,0.60
7003.00,0.60
7002.00,0.60
7001.00,0.60
7000.00,0.60
6999.00,0.60
6998.00,0.60
6997.00,0.59
6996.00,0.59
6995.00,0.59
6994.00,0.59
6993.00,0.59
6992.00,0.59
6991.00,0.59
6990.00,0.59
6989.00,0.59
6988.00,0.58
6987.00,0.58
6986.00,0.58
6985.00,0.58
6984.00,0.58
6983.00,0.58
6982.00,0.58
6981.00,0.58
6980.00,0.58
6979.00,0.58
6978.00,0.58
6977.00,0.58
6976.00,0.58
6975.00,0.58
6974.00,0.58
6973.00,0.58
6972.00,0.58
6971.00,0.58
6970.00,0.58
6969.00,0.58
6968.00,0.58
6967.00,0.58
6966.00,0.58
6965.00,0.58
6964.00,0.58
6963.00,0.57
6962.00,0.57
6961.00,0.57
6960.00,0.57
6959.00,0.57
6958.00,0.57
6957.00,0.57
6956.00,0.57
6955.00,0.57
6954.00,0.57
6953.00,0.57
6952.00,0.57
6951.00,0.57
6950.00,0.57
6949.00,0.57
6948.00,0.57
6947.00,0.57
6946.00,0.57
6945.00,0.57
6944.00,0.57
6943.00,0.57
6942.00,0.57
6941.00,0.56
6940.00,0.56
6939.00,0.56
6938.00,0.57
6937.00,0.57
6936.00,0.57
6935.00,0.57
6934.00,0.57
6933.00,0.57
6932.00,0.57
6931.00,0.57
6930.00,0.57
6929.00,0.57
6928.00,0.57
6927.00,0.57
6926.00,0.57
6925.00,0.57
6924.00,0.57
6923.00,0.57
6922.00,0.57
6921.00,0.57
6920.00,0.57
6919.00,0.57
6918.00,0.57
6917.00,0.57
6916.00,0.57
6915.00,0.57
6914.00,0.57
6913.00,0.57
6912.00,0.57
6911.00,0.57
6910.00,0.57
6909.00,0.57
6908.00,0.57
6907.00,0.57
6906.00,0.57
6905.00,0.57
6904.00,0.57
6903.00,0.57
6902.00,0.57
6901.00,0.57
6900.00,0.57
6899.00,0.57
6898.00,0.57
6897.00,0.57
6896.00,0.57
6895.00,0.56
6894.00,0.56
6893.00,0.56
6892.00,0.56
6891.00,0.56
6890.00,0.56
6889.00,0.56
6888.00,0.56
6887.00,0.56
6886.00,0.56
6885.00,0.56
6884.00,0.56
6883.00,0.56
6882.00,0.56
6881.00,0.56
6880.00,0.56
6879.00,0.56
6878.00,0.56
6877.00,0.56
6876.00,0.56
6875.00,0.56
6874.00,0.56
6873.00,0.56
6872.00,0.56
6871.00,0.56
6870.00,0.56
6869.00,0.56
6868.00,0.56
6867.00,0.56
6866.00,0.56
6865.00,0.56
6864.00,0.56
6863.00,0.56
6862.00,0.56
6861.00,0.56
6860.00,0.56
6859.00,0.56
6858.00,0.56
6857.00,0.56
6856.00,0.56
6855.00,0.56
6854.00,0.56
6853.00,0.56
6852.00,0.56
6851.00,0.56
6850.00,0.56
6849.00,0.56
6848.00,0.56
6847.00,0.56
6846.00,0.56
6845.00,0.56
6844.00,0.56
6843.00,0.57
6842.00,0.57
6841.00,0.57
6840.00,0.57
6839.00,0.57
6838.00,0.57
6837.00,0.57
6836.00,0.57
6835.00,0.57
6834.00,0.57
6833.00,0.57
6832.00,0.57
6831.00,0.57
6830.00,0.57
6829.00,0.57
6828.00,0.57
6827.00,0.57
6826.00,0.57
6825.00,0.57
6824.00,0.57
6823.00,0.57
6822.00,0.57
6821.00,0.57
6820.00,0.57
6819.00,0.57
6818.00,0.57
6817.00,0.57
6816.00,0.57
6815.00,0.57
6814.00,0.57
6813.00,0.57
6812.00,0.57
6811.00,0.57
6810.00,0.57
6809.00,0.57
6808.00,0.57
6807.00,0.57
6806.00,0.57
6805.00,0.57
6804.00,0.58
6803.00,0.58
6802.00,0.58
6801.00,0.58
6800.00,0.58
6799.00,0.58
6798.00,0.58
6797.00,0.58
6796.00,0.58
6795.00,0.58
6794.00,0.58
6793.00,0.58
6792.00,0.58
6791.00,0.58
6790.00,0.58
6789.00,0.58
6788.00,0.58
6787.00,0.58
6786.00,0.58
6785.00,0.58
6784.00,0.59
6783.00,0.59
6782.00,0.59
6781.00,0.59
6780.00,0.59
6779.00,0.59
6778.00,0.59
6777.00,0.59
6776.00,0.59
6775.00,0.59
6774.00,0.59
6773.00,0.59
6772.00,0.59
6771.00,0.59
6770.00,0.59
6769.00,0.59
6768.00,0.59
6767.00,0.59
6766.00,0.59
6765.00,0.59
6764.00,0.59
6763.00,0.59
6762.00,0.60
6761.00,0.60
6760.00,0.60
6759.00,0.60
6758.00,0.60
6757.00,0.60
6756.00,0.60
6755.00,0.60
6754.00,0.60
6753.00,0.60
6752.00,0.60
6751.00,0.60
6750.00,0.60
6749.00,0.61
6748.00,0.61
6747.00,0.61
6746.00,0.61
6745.00,0.61
6744.00,0.61
6743.00,0.61
6742.00,0.61
6741.00,0.61
6740.00,0.61
6739.00,0.61
6738.00,0.62
6737.00,0.62
6736.00,0.62
6735.00,0.62
6734.00,0.62
6733.00,0.62
6732.00,0.62
6731.00,0.62
6730.00,0.62
6729.00,0.62
6728.00,0.62
6727.00,0.62
6726.00,0.62
6725.00,0.62
6724.00,0.62
6723.00,0.62
6722.00,0.62
6721.00,0.62
6720.00,0.62
6719.00,0.62
6718.00,0.62
6717.00,0.62
6716.00,0.62
6715.00,0.62
6714.00,0.62
6713.00,0.63
6712.00,0.63
6711.00,0.63
6710.00,0.63
6709.00,0.63
6708.00,0.63
6707.00,0.63
6706.00,0.63
6705.00,0.63
6704.00,0.64
6703.00,0.64
6702.00,0.64
6701.00,0.64
6700.00,0.64
6699.00,0.64
6698.00,0.65
6697.00,0.65
6696.00,0.65
6695.00,0.65
6694.00,0.65
6693.00,0.65
6692.00,0.65
6691.00,0.65
6690.00,0.65
6689.00,0.65
6688.00,0.66
6687.00,0.66
6686.00,0.66
6685.00,0.66
6684.00,0.66
6683.00,0.66
6682.00,0.66
6681.00,0.66
6680.00,0.66
6679.00,0.66
6678.00,0.66
6677.00,0.66
6676.00,0.66
6675.00,0.66
6674.00,0.66
6673.00,0.66
6672.00,0.66
6671.00,0.66
6670.00,0.66
6669.00,0.66
6668.00,0.66
6667.00,0.66
6666.00,0.66
6665.00,0.67
6664.00,0.67
6663.00,0.67
6662.00,0.67
6661.00,0.67
6660.00,0.67
6659.00,0.68
6658.00,0.68
6657.00,0.68
6656.00,0.68
6655.00,0.68
6654.00,0.68
6653.00,0.69
6652.00,0.69
6651.00,0.69
6650.00,0.69
6649.00,0.69
6648.00,0.69
6647.00,0.69
6646.00,0.69
6645.00,0.69
6644.00,0.69
6643.00,0.69
6642.00,0.70
6641.00,0.70
6640.00,0.70
6639.00,0.70
6638.00,0.70
6637.00,0.70
6636.00,0.70
6635.00,0.70
6634.00,0.70
6633.00,0.70
6632.00,0.70
6631.00,0.70
6630.00,0.70
6629.00,0.70
6628.00,0.70
6627.00,0.70
6626.00,0.70
6625.00,0.71
6624.00,0.71
6623.00,0.71
6622.00,0.71
6621.00,0.71
6620.00,0.71
6619.00,0.71
6618.00,0.71
6617.00,0.71
6616.00,0.71
6615.00,0.71
6614.00,0.72
6613.00,0.72
6612.00,0.72
6611.00,0.72
6610.00,0.72
6609.00,0.72
6608.00,0.72
6607.00,0.72
6606.00,0.72
6605.00,0.72
6604.00,0.73
6603.00,0.73
6602.00,0.73
6601.00,0.73
6600.00,0.73
6599.00,0.73
6598.00,0.73
6597.00,0.73
6596.00,0.73
6595.00,0.73
6594.00,0.73
6593.00,0.73
6592.00,0.73
6591.00,0.74
6590.00,0.74
6589.00,0.74
6588.00,0.74
6587.00,0.74
6586.00,0.74
6585.00,0.74
6584.00,0.74
6583.00,0.74
6582.00,0.74
6581.00,0.74
6580.00,0.74
6579.00,0.74
6578.00,0.74
6577.00,0.75
6576.00,0.75
6575.00,0.75
6574.00,0.75
6573.00,0.75
6572.00,0.75
6571.00,0.76
6570.00,0.76
6569.00,0.76
6568.00,0.76
6567.00,0.76
6566.00,0.76
6565.00,0.76
6564.00,0.76
6563.00,0.77
6562.00,0.77
6561.00,0.77
6560.00,0.77
6559.00,0.77
6558.00,0.77
6557.00,0.77
6556.00,0.77
6555.00,0.77
6554.00,0.77
6553.00,0.77
6552.00,0.77
6551.00,0.78
6550.00,0.78
6549.00,0.78
6548.00,0.78
6547.00,0.78
6546.00,0.78
6545.00,0.78
6544.00,0.78
6543.00,0.78
6542.00,0.78
6541.00,0.79
6540.00,0.79
6539.00,0.79
6538.00,0.79
6537.00,0.79
6536.00,0.79
6535.00,0.79
6534.00,0.79
6533.00,0.79
6532.00,0.79
6531.00,0.79
6530.00,0.79
6529.00,0.80
6528.00,0.80
6527.00,0.80
6526.00,0.80
6525.00,0.80
6524.00,0.80
6523.00,0.80
6522.00,0.80
6521.00,0.80
6520.00,0.80
6519.00,0.80
6518.00,0.80
6517.00,0.80
6516.00,0.80
6515.00,0.80
6514.00,0.80
6513.00,0.80
6512.00,0.81
6511.00,0.81
6510.00,0.81
6509.00,0.81
6508.00,0.81
6507.00,0.81
6506.00,0.81
6505.00,0.81
6504.00,0.81
6503.00,0.81
6502.00,0.81
6501.00,0.81
6500.00,0.81
6499.00,0.81
6498.00,0.81
6497.00,0.81
6496.00,0.81
6495.00,0.81
6494.00,0.82
6493.00,0.82
6492.00,0.82
6491.00,0.82
6490.00,0.82
6489.00,0.82
6488.00,0.82
6487.00,0.82
6486.00,0.82
6485.00,0.82
6484.00,0.82
6483.00,0.82
6482.00,0.83
6481.00,0.83
6480.00,0.83
6479.00,0.83
6478.00,0.83
6477.00,0.83
6476.00,0.83
6475.00,0.83
6474.00,0.83
6473.00,0.83
6472.00,0.83
6471.00,0.83
6470.00,0.83
6469.00,0.83
6468.00,0.83
6467.00,0.83
6466.00,0.83
6465.00,0.83
6464.00,0.83
6463.00,0.83
6462.00,0.84
6461.00,0.84
6460.00,0.84
6459.00,0.84
6458.00,0.84
6457.00,0.84
6456.00,0.84
6455.00,0.84
6454.00,0.84
6453.00,0.84
6452.00,0.84
6451.00,0.85
6450.00,0.85
6449.00,0.85
6448.00,0.85
6447.00,0.85
6446.00,0.85
6445.00,0.85
6444.00,0.85
6443.00,0.86
6442.00,0.86
6441.00,0.86
6440.00,0.86
6439.00,0.86
6438.00,0.86
6437.00,0.86
6436.00,0.87
6435.00,0.87
6434.00,0.87
6433.00,0.87
6432.00,0.87
6431.00,0.87
6430.00,0.87
6429.00,0.87
6428.00,0.87
6427.00,0.87
6426.00,0.87
6425.00,0.87
6424.00,0.87
6423.00,0.87
6422.00,0.87
6421.00,0.87
6420.00,0.87
6419.00,0.87
6418.00,0.86
6417.00,0.86
6416.00,0.86
6415.00,0.86
6414.00,0.87
6413.00,0.87
6412.00,0.87
6411.00,0.87
6410.00,0.87
6409.00,0.87
6408.00,0.87
6407.00,0.87
6406.00,0.87
6405.00,0.87
6404.00,0.88
6403.00,0.88
6402.00,0.88
6401.00,0.88
6400.00,0.88
6399.00,0.88
6398.00,0.88
6397.00,0.89
6396.00,0.89
6395.00,0.89
6394.00,0.89
6393.00,0.89
6392.00,0.89
6391.00,0.89
6390.00,0.89
6389.00,0.89
6388.00,0.89
6387.00,0.89
6386.00,0.89
6385.00,0.89
6384.00,0.89
6383.00,0.89
6382.00,0.89
6381.00,0.89
6380.00,0.89
6379.00,0.89
6378.00,0.89
6377.00,0.89
6376.00,0.89
6375.00,0.89
6374.00,0.89
6373.00,0.89
6372.00,0.89
6371.00,0.89
6370.00,0.89
6369.00,0.89
6368.00,0.89
6367.00,0.89
6366.00,0.89
6365.00,0.90
6364.00,0.90
6363.00,0.90
6362.00,0.90
6361.00,0.90
6360.00,0.90
6359.00,0.90
6358.00,0.90
6357.00,0.90
6356.00,0.90
6355.00,0.91
6354.00,0.91
6353.00,0.91
6352.00,0.91
6351.00,0.91
6350.00,0.91
6349.00,0.91
6348.00,0.91
6347.00,0.92
6346.00,0.92
6345.00,0.92
6344.00,0.92
6343.00,0.92
6342.00,0.92
6341.00,0.92
6340.00,0.92
6339.00,0.92
6338.00,0.92
6337.00,0.92
6336.00,0.92
6335.00,0.92
6334.00,0.92
6333.00,0.92
6332.00,0.92
6331.00,0.92
6330.00,0.93
6329.00,0.93
6328.00,0.93
6327.00,0.93
6326.00,0.93
6325.00,0.93
6324.00,0.94
6323.00,0.94
6322.00,0.94
6321.00,0.94
6320.00,0.94
6319.00,0.94
6318.00,0.95
6317.00,0.95
6316.00,0.95
6315.00,0.95
6314.00,0.95
6313.00,0.95
6312.00,0.95
6311.00,0.95
6310.00,0.95
6309.00,0.95
6308.00,0.95
6307.00,0.95
6306.00,0.95
6305.00,0.95
6304.00,0.95
6303.00,0.95
6302.00,0.95
6301.00,0.95
6300.00,0.96
6299.00,0.96
6298.00,0.96
6297.00,0.96
6296.00,0.96
6295.00,0.96
6294.00,0.96
6293.00,0.97
6292.00,0.97
6291.00,0.97
6290.00,0.97
6289.00,0.97
6288.00,0.97
6287.00,0.97
6286.00,0.98
6285.00,0.98
6284.00,0.98
6283.00,0.98
6282.00,0.98
6281.00,0.98
6280.00,0.98
6279.00,0.98
6278.00,0.99
6277.00,0.99
6276.00,0.99
6275.00,0.99
6274.00,0.99
6273.00,0.99
6272.00,0.99
6271.00,0.99
6270.00,1.00
6269.00,1.00
6268.00,1.00
6267.00,1.00
6266.00,1.00
6265.00,1.00
6264.00,1.00
6263.00,1.00
6262.00,1.00
6261.00,1.01
6260.00,1.01
6259.00,1.01
6258.00,1.01
6257.00,1.01
6256.00,1.01
6255.00,1.01
6254.00,1.01
6253.00,1.02
6252.00,1.02
6251.00,1.02
6250.00,1.02
6249.00,1.02
6248.00,1.02
6247.00,1.02
6246.00,1.02
6245.00,1.02
6244.00,1.02
6243.00,1.03
6242.00,1.03
6241.00,1.03
6240.00,1.03
6239.00,1.03
6238.00,1.03
6237.00,1.03
6236.00,1.03
6235.00,1.03
6234.00,1.04
6233.00,1.04
6232.00,1.04
6231.00,1.04
6230.00,1.04
6229.00,1.04
6228.00,1.04
6227.00,1.04
6226.00,1.05
6225.00,1.05
6224.00,1.05
6223.00,1.05
6222.00,1.05
6221.00,1.05
6220.00,1.06
6219.00,1.06
6218.00,1.06
6217.00,1.06
6216.00,1.06
6215.00,1.06
6214.00,1.07
6213.00,1.07
6212.00,1.07
6211.00,1.07
6210.00,1.07
6209.00,1.07
6208.00,1.07
6207.00,1.08
6206.00,1.08
6205.00,1.08
6204.00,1.08
6203.00,1.08
6202.00,1.08
6201.00,1.08
6200.00,1.08
6199.00,1.08
6198.00,1.08
6197.00,1.08
6196.00,1.09
6195.00,1.09
6194.00,1.09
6193.00,1.09
6192.00,1.09
6191.00,1.09
6190.00,1.09
6189.00,1.09
6188.00,1.09
6187.00,1.09
6186.00,1.10
6185.00,1.10
6184.00,1.10
6183.00,1.10
6182.00,1.10
6181.00,1.10
6180.00,1.10
6179.00,1.11
6178.00,1.11
6177.00,1.11
6176.00,1.11
6175.00,1.11
6174.00,1.11
6173.00,1.11
6172.00,1.12
6171.00,1.12
6170.00,1.12
6169.00,1.12
6168.00,1.12
6167.00,1.12
6166.00,1.13
6165.00,1.13
6164.00,1.13
6163.00,1.13
6162.00,1.13
6161.00,1.13
6160.00,1.14
6159.00,1.14
6158.00,1.14
6157.00,1.14
6156.00,1.14
6155.00,1.14
6154.00,1.15
6153.00,1.15
6152.00,1.15
6151.00,1.15
6150.00,1.15
6149.00,1.15
6148.00,1.16
6147.00,1.16
6146.00,1.16
6145.00,1.16
6144.00,1.16
6143.00,1.16
6142.00,1.17
6141.00,1.17
6140.00,1.17
6139.00,1.17
6138.00,1.17
6137.00,1.17
6136.00,1.17
6135.00,1.18
6134.00,1.18
6133.00,1.18
6132.00,1.18
6131.00,1.18
6130.00,1.18
6129.00,1.18
6128.00,1.18
6127.00,1.18
6126.00,1.19
6125.00,1.19
6124.00,1.19
6123.00,1.19
6122.00,1.19
6121.00,1.19
6120.00,1.19
6119.00,1.19
6118.00,1.19
6117.00,1.19
6116.00,1.20
6115.00,1.20
6114.00,1.20
6113.00,1.20
6112.00,1.20
6111.00,1.20
6110.00,1.20
6109.00,1.20
6108.00,1.21
6107.00,1.21
6106.00,1.21
6105.00,1.21
6104.00,1.21
6103.00,1.21
6102.00,1.21
6101.00,1.22
6100.00,1.22
6099.00,1.22
6098.00,1.22
6097.00,1.22
6096.00,1.22
6095.00,1.22
6094.00,1.22
6093.00,1.23
6092.00,1.23
6091.00,1.23
6090.00,1.23
6089.00,1.23
6088.00,1.23
6087.00,1.23
6086.00,1.23
6085.00,1.24
6084.00,1.24
6083.00,1.24
6082.00,1.24
6081.00,1.24
6080.00,1.24
6079.00,1.24
6078.00,1.24
6077.00,1.25
6076.00,1.25
6075.00,1.25
6074.00,1.25
6073.00,1.25
6072.00,1.25
6071.00,1.25
6070.00,1.25
6069.00,1.25
6068.00,1.26
6067.00,1.26
6066.00,1.26
6065.00,1.26
6064.00,1.26
6063.00,1.26
6062.00,1.26
6061.00,1.26
6060.00,1.26
6059.00,1.26
6058.00,1.27
6057.00,1.27
6056.00,1.27
6055.00,1.27
6054.00,1.27
6053.00,1.27
6052.00,1.27
6051.00,1.27
6050.00,1.27
6049.00,1.27
6048.00,1.28
6047.00,1.28
6046.00,1.28
6045.00,1.28
6044.00,1.28
6043.00,1.28
6042.00,1.28
6041.00,1.28
6040.00,1.28
6039.00,1.28
6038.00,1.28
6037.00,1.28
6036.00,1.28
6035.00,1.28
6034.00,1.28
6033.00,1.28
6032.00,1.28
6031.00,1.28
6030.00,1.28
6029.00,1.29
6028.00,1.29
6027.00,1.29
6026.00,1.29
6025.00,1.29
6024.00,1.29
6023.00,1.29
6022.00,1.29
6021.00,1.29
6020.00,1.29
6019.00,1.29
6018.00,1.29
6017.00,1.29
6016.00,1.29
6015.00,1.29
6014.00,1.29
6013.00,1.29
6012.00,1.29
6011.00,1.29
6010.00,1.29
6009.00,1.29
6008.00,1.29
6007.00,1.29
6006.00,1.29
6005.00,1.29
6004.00,1.28
6003.00,1.28
6002.00,1.28
6001.00,1.28
6000.00,1.28
5999.00,1.28
5998.00,1.28
5997.00,1.28
5996.00,1.28
5995.00,1.28
5994.00,1.28
5993.00,1.28
5992.00,1.28
5991.00,1.28
5990.00,1.27
5989.00,1.27
5988.00,1.27
5987.00,1.27
5986.00,1.27
5985.00,1.26
5984.00,1.26
5983.00,1.26
5982.00,1.25
5981.00,1.25
5980.00,1.25
5979.00,1.24
5978.00,1.24
5977.00,1.23
5976.00,1.23
5975.00,1.22
5974.00,1.22
5973.00,1.21
5972.00,1.21
5971.00,1.20
5970.00,1.20
5969.00,1.19
5968.00,1.19
5967.00,1.18
5966.00,1.17
5965.00,1.17
5964.00,1.16
5963.00,1.16
5962.00,1.15
5961.00,1.14
5960.00,1.14
5959.00,1.13
5958.00,1.12
5957.00,1.12
5956.00,1.11
5955.00,1.10
5954.00,1.10
5953.00,1.09
5952.00,1.09
5951.00,1.08
5950.00,1.07
5949.00,1.07
5948.00,1.07
5947.00,1.06
5946.00,1.06
5945.00,1.05
5944.00,1.05
5943.00,1.05
5942.00,1.04
5941.00,1.04
5940.00,1.04
5939.00,1.04
5938.00,1.04
5937.00,1.04
5936.00,1.03
5935.00,1.03
5934.00,1.03
5933.00,1.03
5932.00,1.03
5931.00,1.03
5930.00,1.03
5929.00,1.03
5928.00,1.03
5927.00,1.03
5926.00,1.03
5925.00,1.02
5924.00,1.02
5923.00,1.02
5922.00,1.02
5921.00,1.02
5920.00,1.01
5919.00,1.01
5918.00,1.01
5917.00,1.01
5916.00,1.01
5915.00,1.00
5914.00,1.00
5913.00,1.00
5912.00,1.00
5911.00,0.99
5910.00,0.99
5909.00,0.99
5908.00,0.99
5907.00,0.99
5906.00,0.99
5905.00,0.99
5904.00,0.99
5903.00,0.98
5902.00,0.98
5901.00,0.98
5900.00,0.98
5899.00,0.98
5898.00,0.98
5897.00,0.99
5896.00,0.99
5895.00,0.99
5894.00,0.99
5893.00,0.99
5892.00,0.99
5891.00,0.99
5890.00,1.00
5889.00,1.00
5888.00,1.00
5887.00,1.00
5886.00,1.01
5885.00,1.01
5884.00,1.01
5883.00,1.01
5882.00,1.02
5881.00,1.02
5880.00,1.02
5879.00,1.03
5878.00,1.03
5877.00,1.03
5876.00,1.04
5875.00,1.04
5874.00,1.04
5873.00,1.04
5872.00,1.05
5871.00,1.05
5870.00,1.05
5869.00,1.05
5868.00,1.05
5867.00,1.06
5866.00,1.06
5865.00,1.06
5864.00,1.06
5863.00,1.06
5862.00,1.07
5861.00,1.07
5860.00,1.07
5859.00,1.07
5858.00,1.07
5857.00,1.07
5856.00,1.07
5855.00,1.07
5854.00,1.07
5853.00,1.08
5852.00,1.08
5851.00,1.08
5850.00,1.08
5849.00,1.08
5848.00,1.08
5847.00,1.08
5846.00,1.08
5845.00,1.08
5844.00,1.08
5843.00,1.08
5842.00,1.08
5841.00,1.08
5840.00,1.08
5839.00,1.08
5838.00,1.08
5837.00,1.08
5836.00,1.08
5835.00,1.08
5834.00,1.08
5833.00,1.08
5832.00,1.08
5831.00,1.07
5830.00,1.07
5829.00,1.07
5828.00,1.07
5827.00,1.07
5826.00,1.07
5825.00,1.07
5824.00,1.07
5823.00,1.07
5822.00,1.07
5821.00,1.07
5820.00,1.07
5819.00,1.07
5818.00,1.07
5817.00,1.07
5816.00,1.07
5815.00,1.07
5814.00,1.07
5813.00,1.07
5812.00,1.07
5811.00,1.07
5810.00,1.07
5809.00,1.07
5808.00,1.07
5807.00,1.07
5806.00,1.07
5805.00,1.07
5804.00,1.07
5803.00,1.07
5802.00,1.07
5801.00,1.07
5800.00,1.07
5799.00,1.07
5798.00,1.06
5797.00,1.06
5796.00,1.06
5795.00,1.06
5794.00,1.06
5793.00,1.06
5792.00,1.05
5791.00,1.05
5790.00,1.05
5789.00,1.05
5788.00,1.04
5787.00,1.04
5786.00,1.04
5785.00,1.04
5784.00,1.04
5783.00,1.04
5782.00,1.03
5781.00,1.03
5780.00,1.03
5779.00,1.03
5778.00,1.03
5777.00,1.03
5776.00,1.03
5775.00,1.03
5774.00,1.03
5773.00,1.03
5772.00,1.03
5771.00,1.03
5770.00,1.03
5769.00,1.03
5768.00,1.03
5767.00,1.03
5766.00,1.03
5765.00,1.03
5764.00,1.03
5763.00,1.04
5762.00,1.04
5761.00,1.04
5760.00,1.04
5759.00,1.05
5758.00,1.05
5757.00,1.05
5756.00,1.05
5755.00,1.06
5754.00,1.06
5753.00,1.06
5752.00,1.07
5751.00,1.07
5750.00,1.07
5749.00,1.08
5748.00,1.08
5747.00,1.08
5746.00,1.09
5745.00,1.09
5744.00,1.09
5743.00,1.10
5742.00,1.10
5741.00,1.10
5740.00,1.10
5739.00,1.11
5738.00,1.11
5737.00,1.11
5736.00,1.11
5735.00,1.11
5734.00,1.12
5733.00,1.12
5732.00,1.12
5731.00,1.12
5730.00,1.12
5729.00,1.12
5728.00,1.12
5727.00,1.12
5726.00,1.12
5725.00,1.12
5724.00,1.13
5723.00,1.13
5722.00,1.13
5721.00,1.13
5720.00,1.13
5719.00,1.13
5718.00,1.13
5717.00,1.13
5716.00,1.13
5715.00,1.13
5714.00,1.13
5713.00,1.13
5712.00,1.13
5711.00,1.13
5710.00,1.13
5709.00,1.13
5708.00,1.13
5707.00,1.13
5706.00,1.12
5705.00,1.12
5704.00,1.12
5703.00,1.12
5702.00,1.12
5701.00,1.12
5700.00,1.12
5699.00,1.12
5698.00,1.12
5697.00,1.11
5696.00,1.11
5695.00,1.11
5694.00,1.11
5693.00,1.11
5692.00,1.11
5691.00,1.11
5690.00,1.11
5689.00,1.10
5688.00,1.10
5687.00,1.10
5686.00,1.10
5685.00,1.10
5684.00,1.10
5683.00,1.10
5682.00,1.10
5681.00,1.10
5680.00,1.09
5679.00,1.09
5678.00,1.09
5677.00,1.09
5676.00,1.09
5675.00,1.09
5674.00,1.09
5673.00,1.09
5672.00,1.09
5671.00,1.09
5670.00,1.09
5669.00,1.09
5668.00,1.09
5667.00,1.10
5666.00,1.10
5665.00,1.10
5664.00,1.10
5663.00,1.10
5662.00,1.10
5661.00,1.10
5660.00,1.10
5659.00,1.10
5658.00,1.11
5657.00,1.11
5656.00,1.11
5655.00,1.11
5654.00,1.11
5653.00,1.11
5652.00,1.11
5651.00,1.11
5650.00,1.12
5649.00,1.12
5648.00,1.12
5647.00,1.12
5646.00,1.12
5645.00,1.12
5644.00,1.13
5643.00,1.13
5642.00,1.13
5641.00,1.13
5640.00,1.13
5639.00,1.14
5638.00,1.14
5637.00,1.14
5636.00,1.14
5635.00,1.14
5634.00,1.14
5633.00,1.15
5632.00,1.15
5631.00,1.15
5630.00,1.15
5629.00,1.15
5628.00,1.16
5627.00,1.16
5626.00,1.16
5625.00,1.16
5624.00,1.16
5623.00,1.17
5622.00,1.17
5621.00,1.17
5620.00,1.17
5619.00,1.17
5618.00,1.17
5617.00,1.18
5616.00,1.18
5615.00,1.18
5614.00,1.18
5613.00,1.18
5612.00,1.18
5611.00,1.19
5610.00,1.19
5609.00,1.19
5608.00,1.19
5607.00,1.19
5606.00,1.19
5605.00,1.19
5604.00,1.20
5603.00,1.20
5602.00,1.20
5601.00,1.20
5600.00,1.20
5599.00,1.20
5598.00,1.20
5597.00,1.21
5596.00,1.21
5595.00,1.21
5594.00,1.21
5593.00,1.21
5592.00,1.21
5591.00,1.22
5590.00,1.22
5589.00,1.22
5588.00,1.22
5587.00,1.22
5586.00,1.22
5585.00,1.23
5584.00,1.23
5583.00,1.23
5582.00,1.23
5581.00,1.23
5580.00,1.23
5579.00,1.23
5578.00,1.23
5577.00,1.24
5576.00,1.24
5575.00,1.24
5574.00,1.24
5573.00,1.24
5572.00,1.24
5571.00,1.24
5570.00,1.24
5569.00,1.25
5568.00,1.25
5567.00,1.25
5566.00,1.25
5565.00,1.25
5564.00,1.25
5563.00,1.26
5562.00,1.26
5561.00,1.26
5560.00,1.26
5559.00,1.26
5558.00,1.26
5557.00,1.26
5556.00,1.27
5555.00,1.27
5554.00,1.27
5553.00,1.27
5552.00,1.27
5551.00,1.27
5550.00,1.27
5549.00,1.28
5548.00,1.28
5547.00,1.28
5546.00,1.28
5545.00,1.28
5544.00,1.28
5543.00,1.28
5542.00,1.28
5541.00,1.28
5540.00,1.29
5539.00,1.29
5538.00,1.29
5537.00,1.29
5536.00,1.29
5535.00,1.29
5534.00,1.29
5533.00,1.29
5532.00,1.29
5531.00,1.30
5530.00,1.30
5529.00,1.30
5528.00,1.30
5527.00,1.30
5526.00,1.30
5525.00,1.30
5524.00,1.30
5523.00,1.30
5522.00,1.30
5521.00,1.30
5520.00,1.30
5519.00,1.30
5518.00,1.30
5517.00,1.30
5516.00,1.31
5515.00,1.31
5514.00,1.31
5513.00,1.31
5512.00,1.31
5511.00,1.31
5510.00,1.31
5509.00,1.31
5508.00,1.31
5507.00,1.31
5506.00,1.31
5505.00,1.31
5504.00,1.31
5503.00,1.31
5502.00,1.31
5501.00,1.31
5500.00,1.31
5499.00,1.31
5498.00,1.31
5497.00,1.32
5496.00,1.32
5495.00,1.32
5494.00,1.32
5493.00,1.32
5492.00,1.32
5491.00,1.32
5490.00,1.32
5489.00,1.32
5488.00,1.32
5487.00,1.32
5486.00,1.33
5485.00,1.33
5484.00,1.33
5483.00,1.33
5482.00,1.33
5481.00,1.33
5480.00,1.33
5479.00,1.33
5478.00,1.33
5477.00,1.34
5476.00,1.34
5475.00,1.34
5474.00,1.34
5473.00,1.34
5472.00,1.34
5471.00,1.34
5470.00,1.34
5469.00,1.34
5468.00,1.34
5467.00,1.35
5466.00,1.35
5465.00,1.35
5464.00,1.35
5463.00,1.35
5462.00,1.35
5461.00,1.35
5460.00,1.35
5459.00,1.35
5458.00,1.35
5457.00,1.36
5456.00,1.36
5455.00,1.36
5454.00,1.36
5453.00,1.36
5452.00,1.36
5451.00,1.36
5450.00,1.36
5449.00,1.36
5448.00,1.36
5447.00,1.36
5446.00,1.36
5445.00,1.36
5444.00,1.36
5443.00,1.36
5442.00,1.36
5441.00,1.36
5440.00,1.36
5439.00,1.36
5438.00,1.36
5437.00,1.36
5436.00,1.36
5435.00,1.36
5434.00,1.37
5433.00,1.37
5432.00,1.37
5431.00,1.37
5430.00,1.37
5429.00,1.37
5428.00,1.37
5427.00,1.37
5426.00,1.37
5425.00,1.37
5424.00,1.37
5423.00,1.37
5422.00,1.37
5421.00,1.37
5420.00,1.37
5419.00,1.37
5418.00,1.37
5417.00,1.37
5416.00,1.37
5415.00,1.37
5414.00,1.37
5413.00,1.37
5412.00,1.37
5411.00,1.37
5410.00,1.37
5409.00,1.37
5408.00,1.36
5407.00,1.36
5406.00,1.36
5405.00,1.36
5404.00,1.36
5403.00,1.36
5402.00,1.36
5401.00,1.36
5400.00,1.36
5399.00,1.36
5398.00,1.36
5397.00,1.35
5396.00,1.35
5395.00,1.35
5394.00,1.35
5393.00,1.35
5392.00,1.35
5391.00,1.34
5390.00,1.34
5389.00,1.34
5388.00,1.34
5387.00,1.34
5386.00,1.34
5385.00,1.33
5384.00,1.33
5383.00,1.33
5382.00,1.33
5381.00,1.32
5380.00,1.32
5379.00,1.32
5378.00,1.31
5377.00,1.31
5376.00,1.31
5375.00,1.30
5374.00,1.30
5373.00,1.29
5372.00,1.29
5371.00,1.29
5370.00,1.28
5369.00,1.28
5368.00,1.27
5367.00,1.27
5366.00,1.26
5365.00,1.26
5364.00,1.25
5363.00,1.24
5362.00,1.24
5361.00,1.23
5360.00,1.23
5359.00,1.22
5358.00,1.21
5357.00,1.20
5356.00,1.20
5355.00,1.19
5354.00,1.18
5353.00,1.17
5352.00,1.16
5351.00,1.16
5350.00,1.15
5349.00,1.14
5348.00,1.13
5347.00,1.12
5346.00,1.11
5345.00,1.10
5344.00,1.09
5343.00,1.08
5342.00,1.07
5341.00,1.06
5340.00,1.05
5339.00,1.04
5338.00,1.03
5337.00,1.02
5336.00,1.01
5335.00,1.00
5334.00,0.99
5333.00,0.98
5332.00,0.97
5331.00,0.96
5330.00,0.95
5329.00,0.94
5328.00,0.93
5327.00,0.93
5326.00,0.92
5325.00,0.91
5324.00,0.90
5323.00,0.89
5322.00,0.88
5321.00,0.87
5320.00,0.86
5319.00,0.85
5318.00,0.84
5317.00,0.83
5316.00,0.83
5315.00,0.82
5314.00,0.81
5313.00,0.80
5312.00,0.79
5311.00,0.79
5310.00,0.78
5309.00,0.77
5308.00,0.76
5307.00,0.76
5306.00,0.75
5305.00,0.74
5304.00,0.74
5303.00,0.73
5302.00,0.73
5301.00,0.72
5300.00,0.72
5299.00,0.71
5298.00,0.71
5297.00,0.71
5296.00,0.70
5295.00,0.70
5294.00,0.70
5293.00,0.69
5292.00,0.69
5291.00,0.69
5290.00,0.68
5289.00,0.68
5288.00,0.68
5287.00,0.68
5286.00,0.68
5285.00,0.67
5284.00,0.67
5283.00,0.67
5282.00,0.67
5281.00,0.67
5280.00,0.67
5279.00,0.67
5278.00,0.67
5277.00,0.66
5276.00,0.66
5275.00,0.66
5274.00,0.66
5273.00,0.66
5272.00,0.66
5271.00,0.66
5270.00,0.66
5269.00,0.66
5268.00,0.66
5267.00,0.66
5266.00,0.66
5265.00,0.66
5264.00,0.66
5263.00,0.66
5262.00,0.66
5261.00,0.66
5260.00,0.66
5259.00,0.66
5258.00,0.66
5257.00,0.66
5256.00,0.66
5255.00,0.66
5254.00,0.66
5253.00,0.66
5252.00,0.66
5251.00,0.66
5250.00,0.66
5249.00,0.66
5248.00,0.66
5247.00,0.66
5246.00,0.66
5245.00,0.66
5244.00,0.66
5243.00,0.66
5242.00,0.66
5241.00,0.66
5240.00,0.66
5239.00,0.66
5238.00,0.66
5237.00,0.66
5236.00,0.66
5235.00,0.66
5234.00,0.67
5233.00,0.67
5232.00,0.67
5231.00,0.67
5230.00,0.67
5229.00,0.67
5228.00,0.67
5227.00,0.67
5226.00,0.67
5225.00,0.67
5224.00,0.67
5223.00,0.67
5222.00,0.67
5221.00,0.67
5220.00,0.67
5219.00,0.67
5218.00,0.67
5217.00,0.67
5216.00,0.67
5215.00,0.67
5214.00,0.67
5213.00,0.67
5212.00,0.67
5211.00,0.67
5210.00,0.67
5209.00,0.67
5208.00,0.67
5207.00,0.67
5206.00,0.67
5205.00,0.67
5204.00,0.67
5203.00,0.67
5202.00,0.67
5201.00,0.67
5200.00,0.67
5199.00,0.67
5198.00,0.67
5197.00,0.67
5196.00,0.67
5195.00,0.67
5194.00,0.67
5193.00,0.68
5192.00,0.68
5191.00,0.68
5190.00,0.68
5189.00,0.68
5188.00,0.68
5187.00,0.68
5186.00,0.68
5185.00,0.68
5184.00,0.68
5183.00,0.68
5182.00,0.68
5181.00,0.68
5180.00,0.68
5179.00,0.68
5178.00,0.68
5177.00,0.68
5176.00,0.68
5175.00,0.68
5174.00,0.68
5173.00,0.68
5172.00,0.68
5171.00,0.68
5170.00,0.68
5169.00,0.68
5168.00,0.68
5167.00,0.68
5166.00,0.68
5165.00,0.68
5164.00,0.68
5163.00,0.68
5162.00,0.68
5161.00,0.68
5160.00,0.68
5159.00,0.69
5158.00,0.69
5157.00,0.69
5156.00,0.69
5155.00,0.69
5154.00,0.69
5153.00,0.69
5152.00,0.69
5151.00,0.69
5150.00,0.69
5149.00,0.69
5148.00,0.69
5147.00,0.69
5146.00,0.69
5145.00,0.69
5144.00,0.69
5143.00,0.69
5142.00,0.69
5141.00,0.70
5140.00,0.70
5139.00,0.70
5138.00,0.70
5137.00,0.70
5136.00,0.70
5135.00,0.70
5134.00,0.70
5133.00,0.70
5132.00,0.70
5131.00,0.70
5130.00,0.70
5129.00,0.70
5128.00,0.70
5127.00,0.70
5126.00,0.70
5125.00,0.71
5124.00,0.71
5123.00,0.71
5122.00,0.71
5121.00,0.71
5120.00,0.71
5119.00,0.71
5118.00,0.71
5117.00,0.71
5116.00,0.71
5115.00,0.71
5114.00,0.71
5113.00,0.71
5112.00,0.71
5111.00,0.71
5110.00,0.71
5109.00,0.71
5108.00,0.71
5107.00,0.71
5106.00,0.71
5105.00,0.71
5104.00,0.71
5103.00,0.71
5102.00,0.72
5101.00,0.72
5100.00,0.72
5099.00,0.72
5098.00,0.72
5097.00,0.72
5096.00,0.72
5095.00,0.72
5094.00,0.72
5093.00,0.72
5092.00,0.72
5091.00,0.72
5090.00,0.72
5089.00,0.72
5088.00,0.73
5087.00,0.73
5086.00,0.73
5085.00,0.73
5084.00,0.73
5083.00,0.73
5082.00,0.73
5081.00,0.73
5080.00,0.73
5079.00,0.73
5078.00,0.73
5077.00,0.73
5076.00,0.73
5075.00,0.73
5074.00,0.73
5073.00,0.73
5072.00,0.73
5071.00,0.73
5070.00,0.73
5069.00,0.74
5068.00,0.74
5067.00,0.74
5066.00,0.74
5065.00,0.74
5064.00,0.74
5063.00,0.74
5062.00,0.74
5061.00,0.74
5060.00,0.74
5059.00,0.74
5058.00,0.74
5057.00,0.74
5056.00,0.74
5055.00,0.74
5054.00,0.74
5053.00,0.75
5052.00,0.75
5051.00,0.75
5050.00,0.75
5049.00,0.75
5048.00,0.75
5047.00,0.75
5046.00,0.75
5045.00,0.75
5044.00,0.75
5043.00,0.75
5042.00,0.75
5041.00,0.75
5040.00,0.75
5039.00,0.75
5038.00,0.75
5037.00,0.75
5036.00,0.75
5035.00,0.75
5034.00,0.75
5033.00,0.75
5032.00,0.75
5031.00,0.75
5030.00,0.75
5029.00,0.76
5028.00,0.76
5027.00,0.76
5026.00,0.76
5025.00,0.76
5024.00,0.76
5023.00,0.76
5022.00,0.76
5021.00,0.76
5020.00,0.76
5019.00,0.76
5018.00,0.76
5017.00,0.77
5016.00,0.77
5015.00,0.77
5014.00,0.77
5013.00,0.77
5012.00,0.77
5011.00,0.77
5010.00,0.78
5009.00,0.78
5008.00,0.78
5007.00,0.78
5006.00,0.78
5005.00,0.78
5004.00,0.78
5003.00,0.79
5002.00,0.79
5001.00,0.79
5000.00,0.79
4999.00,0.79
4998.00,0.79
4997.00,0.79
4996.00,0.79
4995.00,0.79
4994.00,0.79
4993.00,0.79
4992.00,0.79
4991.00,0.79
4990.00,0.80
4989.00,0.80
4988.00,0.80
4987.00,0.80
4986.00,0.80
4985.00,0.80
4984.00,0.80
4983.00,0.80
4982.00,0.80
4981.00,0.80
4980.00,0.80
4979.00,0.80
4978.00,0.80
4977.00,0.81
4976.00,0.81
4975.00,0.81
4974.00,0.81
4973.00,0.81
4972.00,0.81
4971.00,0.81
4970.00,0.81
4969.00,0.81
4968.00,0.81
4967.00,0.81
4966.00,0.81
4965.00,0.81
4964.00,0.81
4963.00,0.81
4962.00,0.81
4961.00,0.82
4960.00,0.82
4959.00,0.82
4958.00,0.82
4957.00,0.82
4956.00,0.82
4955.00,0.82
4954.00,0.82
4953.00,0.82
4952.00,0.82
4951.00,0.82
4950.00,0.82
4949.00,0.82
4948.00,0.82
4947.00,0.83
4946.00,0.83
4945.00,0.83
4944.00,0.83
4943.00,0.83
4942.00,0.83
4941.00,0.83
4940.00,0.83
4939.00,0.83
4938.00,0.83
4937.00,0.84
4936.00,0.84
4935.00,0.84
4934.00,0.84
4933.00,0.84
4932.00,0.84
4931.00,0.84
4930.00,0.84
4929.00,0.85
4928.00,0.85
4927.00,0.85
4926.00,0.85
4925.00,0.85
4924.00,0.85
4923.00,0.85
4922.00,0.85
4921.00,0.85
4920.00,0.85
4919.00,0.85
4918.00,0.85
4917.00,0.86
4916.00,0.86
4915.00,0.86
4914.00,0.86
4913.00,0.86
4912.00,0.86
4911.00,0.86
4910.00,0.86
4909.00,0.86
4908.00,0.86
4907.00,0.86
4906.00,0.86
4905.00,0.86
4904.00,0.86
4903.00,0.86
4902.00,0.86
4901.00,0.86
4900.00,0.86
4899.00,0.86
4898.00,0.86
4897.00,0.87
4896.00,0.87
4895.00,0.87
4894.00,0.87
4893.00,0.87
4892.00,0.87
4891.00,0.87
4890.00,0.87
4889.00,0.87
4888.00,0.87
4887.00,0.87
4886.00,0.88
4885.00,0.88
4884.00,0.88
4883.00,0.88
4882.00,0.88
4881.00,0.88
4880.00,0.88
4879.00,0.88
4878.00,0.88
4877.00,0.88
4876.00,0.88
4875.00,0.88
4874.00,0.88
4873.00,0.88
4872.00,0.88
4871.00,0.88
4870.00,0.88
4869.00,0.88
4868.00,0.88
4867.00,0.88
4866.00,0.88
4865.00,0.88
4864.00,0.88
4863.00,0.88
4862.00,0.88
4861.00,0.88
4860.00,0.88
4859.00,0.88
4858.00,0.89
4857.00,0.89
4856.00,0.89
4855.00,0.89
4854.00,0.89
4853.00,0.89
4852.00,0.89
4851.00,0.89
4850.00,0.89
4849.00,0.89
4848.00,0.89
4847.00,0.89
4846.00,0.89
4845.00,0.89
4844.00,0.89
4843.00,0.89
4842.00,0.90
4841.00,0.90
4840.00,0.90
4839.00,0.90
4838.00,0.90
4837.00,0.90
4836.00,0.90
4835.00,0.90
4834.00,0.90
4833.00,0.91
4832.00,0.91
4831.00,0.91
4830.00,0.91
4829.00,0.91
4828.00,0.91
4827.00,0.91
4826.00,0.92
4825.00,0.92
4824.00,0.92
4823.00,0.92
4822.00,0.92
4821.00,0.92
4820.00,0.92
4819.00,0.92
4818.00,0.93
4817.00,0.93
4816.00,0.93
4815.00,0.93
4814.00,0.93
4813.00,0.93
4812.00,0.93
4811.00,0.93
4810.00,0.93
4809.00,0.93
4808.00,0.93
4807.00,0.93
4806.00,0.93
4805.00,0.93
4804.00,0.94
4803.00,0.94
4802.00,0.94
4801.00,0.94
4800.00,0.94
4799.00,0.94
4798.00,0.94
4797.00,0.94
4796.00,0.94
4795.00,0.94
4794.00,0.94
4793.00,0.94
4792.00,0.95
4791.00,0.95
4790.00,0.95
4789.00,0.95
4788.00,0.95
4787.00,0.95
4786.00,0.95
4785.00,0.95
4784.00,0.95
4783.00,0.95
4782.00,0.95
4781.00,0.95
4780.00,0.95
4779.00,0.95
4778.00,0.96
4777.00,0.96
4776.00,0.96
4775.00,0.96
4774.00,0.96
4773.00,0.96
4772.00,0.96
4771.00,0.96
4770.00,0.97
4769.00,0.97
4768.00,0.97
4767.00,0.97
4766.00,0.97
4765.00,0.98
4764.00,0.98
4763.00,0.98
4762.00,0.98
4761.00,0.98
4760.00,0.98
4759.00,0.99
4758.00,0.99
4757.00,0.99
4756.00,0.99
4755.00,0.99
4754.00,0.99
4753.00,1.00
4752.00,1.00
4751.00,1.00
4750.00,1.00
4749.00,1.00
4748.00,1.00
4747.00,1.01
4746.00,1.01
4745.00,1.01
4744.00,1.01
4743.00,1.01
4742.00,1.01
4741.00,1.02
4740.00,1.02
4739.00,1.02
4738.00,1.02
4737.00,1.02
4736.00,1.03
4735.00,1.03
4734.00,1.03
4733.00,1.03
4732.00,1.03
4731.00,1.03
4730.00,1.03
4729.00,1.03
4728.00,1.04
4727.00,1.04
4726.00,1.04
4725.00,1.04
4724.00,1.04
4723.00,1.04
4722.00,1.04
4721.00,1.04
4720.00,1.04
4719.00,1.04
4718.00,1.04
4717.00,1.04
4716.00,1.04
4715.00,1.05
4714.00,1.05
4713.00,1.05
4712.00,1.05
4711.00,1.05
4710.00,1.06
4709.00,1.06
4708.00,1.06
4707.00,1.06
4706.00,1.06
4705.00,1.06
4704.00,1.07
4703.00,1.07
4702.00,1.07
4701.00,1.07
4700.00,1.07
4699.00,1.07
4698.00,1.08
4697.00,1.08
4696.00,1.08
4695.00,1.08
4694.00,1.08
4693.00,1.08
4692.00,1.08
4691.00,1.08
4690.00,1.09
4689.00,1.09
4688.00,1.09
4687.00,1.09
4686.00,1.09
4685.00,1.09
4684.00,1.09
4683.00,1.10
4682.00,1.10
4681.00,1.10
4680.00,1.10
4679.00,1.10
4678.00,1.10
4677.00,1.11
4676.00,1.11
4675.00,1.11
4674.00,1.11
4673.00,1.11
4672.00,1.11
4671.00,1.12
4670.00,1.12
4669.00,1.12
4668.00,1.12
4667.00,1.12
4666.00,1.12
4665.00,1.12
4664.00,1.13
4663.00,1.13
4662.00,1.13
4661.00,1.13
4660.00,1.13
4659.00,1.13
4658.00,1.13
4657.00,1.14
4656.00,1.14
4655.00,1.14
4654.00,1.14
4653.00,1.14
4652.00,1.14
4651.00,1.14
4650.00,1.14
4649.00,1.14
4648.00,1.15
4647.00,1.15
4646.00,1.15
4645.00,1.15
4644.00,1.15
4643.00,1.15
4642.00,1.15
4641.00,1.15
4640.00,1.15
4639.00,1.15
4638.00,1.15
4637.00,1.15
4636.00,1.16
4635.00,1.16
4634.00,1.16
4633.00,1.16
4632.00,1.16
4631.00,1.16
4630.00,1.16
4629.00,1.16
4628.00,1.16
4627.00,1.17
4626.00,1.17
4625.00,1.17
4624.00,1.17
4623.00,1.17
4622.00,1.17
4621.00,1.17
4620.00,1.17
4619.00,1.18
4618.00,1.18
4617.00,1.18
4616.00,1.18
4615.00,1.18
4614.00,1.18
4613.00,1.18
4612.00,1.18
4611.00,1.19
4610.00,1.19
4609.00,1.19
4608.00,1.19
4607.00,1.19
4606.00,1.19
4605.00,1.19
4604.00,1.19
4603.00,1.19
4602.00,1.19
4601.00,1.20
4600.00,1.20
4599.00,1.20
4598.00,1.20
4597.00,1.20
4596.00,1.20
4595.00,1.20
4594.00,1.20
4593.00,1.20
4592.00,1.20
4591.00,1.20
4590.00,1.20
4589.00,1.20
4588.00,1.20
4587.00,1.20
4586.00,1.20
4585.00,1.20
4584.00,1.20
4583.00,1.20
4582.00,1.21
4581.00,1.21
4580.00,1.21
4579.00,1.21
4578.00,1.21
4577.00,1.21
4576.00,1.21
4575.00,1.21
4574.00,1.21
4573.00,1.22
4572.00,1.22
4571.00,1.22
4570.00,1.22
4569.00,1.22
4568.00,1.22
4567.00,1.22
4566.00,1.22
4565.00,1.23
4564.00,1.23
4563.00,1.23
4562.00,1.23
4561.00,1.23
4560.00,1.23
4559.00,1.23
4558.00,1.23
4557.00,1.23
4556.00,1.24
4555.00,1.24
4554.00,1.24
4553.00,1.24
4552.00,1.24
4551.00,1.24
4550.00,1.24
4549.00,1.24
4548.00,1.24
4547.00,1.25
4546.00,1.25
4545.00,1.25
4544.00,1.25
4543.00,1.25
4542.00,1.25
4541.00,1.25
4540.00,1.25
4539.00,1.25
4538.00,1.25
4537.00,1.25
4536.00,1.25
4535.00,1.25
4534.00,1.25
4533.00,1.25
4532.00,1.25
4531.00,1.25
4530.00,1.25
4529.00,1.25
4528.00,1.25
4527.00,1.25
4526.00,1.25
4525.00,1.25
4524.00,1.25
4523.00,1.25
4522.00,1.25
4521.00,1.25
4520.00,1.25
4519.00,1.25
4518.00,1.25
4517.00,1.25
4516.00,1.25
4515.00,1.25
4514.00,1.25
4513.00,1.26
4512.00,1.26
4511.00,1.26
4510.00,1.26
4509.00,1.26
4508.00,1.26
4507.00,1.26
4506.00,1.26
4505.00,1.25
4504.00,1.25
4503.00,1.25
4502.00,1.25
4501.00,1.25
4500.00,1.25
4499.00,1.25
4498.00,1.25
4497.00,1.25
4496.00,1.25
4495.00,1.25
4494.00,1.25
4493.00,1.25
4492.00,1.25
4491.00,1.25
4490.00,1.25
4489.00,1.24
4488.00,1.24
4487.00,1.24
4486.00,1.24
4485.00,1.24
4484.00,1.24
4483.00,1.24
4482.00,1.24
4481.00,1.24
4480.00,1.24
4479.00,1.24
4478.00,1.23
4477.00,1.23
4476.00,1.23
4475.00,1.23
4474.00,1.23
4473.00,1.23
4472.00,1.22
4471.00,1.22
4470.00,1.22
4469.00,1.22
4468.00,1.22
4467.00,1.21
4466.00,1.21
4465.00,1.21
4464.00,1.21
4463.00,1.21
4462.00,1.20
4461.00,1.20
4460.00,1.20
4459.00,1.19
4458.00,1.19
4457.00,1.19
4456.00,1.19
4455.00,1.18
4454.00,1.18
4453.00,1.18
4452.00,1.18
4451.00,1.17
4450.00,1.17
4449.00,1.17
4448.00,1.16
4447.00,1.16
4446.00,1.16
4445.00,1.15
4444.00,1.15
4443.00,1.15
4442.00,1.15
4441.00,1.14
4440.00,1.14
4439.00,1.14
4438.00,1.13
4437.00,1.13
4436.00,1.13
4435.00,1.12
4434.00,1.12
4433.00,1.12
4432.00,1.11
4431.00,1.11
4430.00,1.11
4429.00,1.11
4428.00,1.10
4427.00,1.10
4426.00,1.10
4425.00,1.10
4424.00,1.10
4423.00,1.10
4422.00,1.09
4421.00,1.09
4420.00,1.09
4419.00,1.09
4418.00,1.09
4417.00,1.09
4416.00,1.09
4415.00,1.09
4414.00,1.09
4413.00,1.09
4412.00,1.09
4411.00,1.09
4410.00,1.09
4409.00,1.09
4408.00,1.09
4407.00,1.09
4406.00,1.09
4405.00,1.10
4404.00,1.10
4403.00,1.10
4402.00,1.10
4401.00,1.10
4400.00,1.10
4399.00,1.10
4398.00,1.10
4397.00,1.10
4396.00,1.10
4395.00,1.11
4394.00,1.11
4393.00,1.11
4392.00,1.11
4391.00,1.11
4390.00,1.11
4389.00,1.11
4388.00,1.11
4387.00,1.11
4386.00,1.11
4385.00,1.12
4384.00,1.12
4383.00,1.12
4382.00,1.12
4381.00,1.12
4380.00,1.12
4379.00,1.12
4378.00,1.12
4377.00,1.12
4376.00,1.12
4375.00,1.12
4374.00,1.12
4373.00,1.12
4372.00,1.12
4371.00,1.12
4370.00,1.12
4369.00,1.12
4368.00,1.12
4367.00,1.12
4366.00,1.12
4365.00,1.12
4364.00,1.12
4363.00,1.12
4362.00,1.12
4361.00,1.12
4360.00,1.12
4359.00,1.12
4358.00,1.12
4357.00,1.12
4356.00,1.12
4355.00,1.12
4354.00,1.13
4353.00,1.13
4352.00,1.13
4351.00,1.13
4350.00,1.13
4349.00,1.13
4348.00,1.13
4347.00,1.13
4346.00,1.13
4345.00,1.13
4344.00,1.13
4343.00,1.13
4342.00,1.13
4341.00,1.13
4340.00,1.13
4339.00,1.14
4338.00,1.14
4337.00,1.14
4336.00,1.14
4335.00,1.14
4334.00,1.14
4333.00,1.14
4332.00,1.14
4331.00,1.14
4330.00,1.14
4329.00,1.14
4328.00,1.14
4327.00,1.14
4326.00,1.14
4325.00,1.14
4324.00,1.14
4323.00,1.14
4322.00,1.15
4321.00,1.15
4320.00,1.15
4319.00,1.15
4318.00,1.15
4317.00,1.15
4316.00,1.15
4315.00,1.16
4314.00,1.16
4313.00,1.16
4312.00,1.16
4311.00,1.16
4310.00,1.16
4309.00,1.16
4308.00,1.17
4307.00,1.17
4306.00,1.17
4305.00,1.17
4304.00,1.17
4303.00,1.17
4302.00,1.18
4301.00,1.18
4300.00,1.18
4299.00,1.18
4298.00,1.18
4297.00,1.18
4296.00,1.19
4295.00,1.19
4294.00,1.19
4293.00,1.19
4292.00,1.19
4291.00,1.19
4290.00,1.19
4289.00,1.19
4288.00,1.20
4287.00,1.20
4286.00,1.20
4285.00,1.20
4284.00,1.20
4283.00,1.20
4282.00,1.20
4281.00,1.20
4280.00,1.20
4279.00,1.20
4278.00,1.20
4277.00,1.20
4276.00,1.20
4275.00,1.21
4274.00,1.21
4273.00,1.21
4272.00,1.21
4271.00,1.21
4270.00,1.21
4269.00,1.21
4268.00,1.21
4267.00,1.21
4266.00,1.21
4265.00,1.21
4264.00,1.21
4263.00,1.21
4262.00,1.21
4261.00,1.21
4260.00,1.20
4259.00,1.20
4258.00,1.20
4257.00,1.20
4256.00,1.20
4255.00,1.20
4254.00,1.20
4253.00,1.20
4252.00,1.20
4251.00,1.20
4250.00,1.20
4249.00,1.21
4248.00,1.21
4247.00,1.21
4246.00,1.21
4245.00,1.21
4244.00,1.21
4243.00,1.22
4242.00,1.22
4241.00,1.22
4240.00,1.22
4239.00,1.22
4238.00,1.22
4237.00,1.23
4236.00,1.23
4235.00,1.23
4234.00,1.23
4233.00,1.23
4232.00,1.23
4231.00,1.23
4230.00,1.23
4229.00,1.23
4228.00,1.23
4227.00,1.23
4226.00,1.23
4225.00,1.23
4224.00,1.23
4223.00,1.23
4222.00,1.23
4221.00,1.23
4220.00,1.24
4219.00,1.24
4218.00,1.24
4217.00,1.24
4216.00,1.24
4215.00,1.24
4214.00,1.24
4213.00,1.24
4212.00,1.24
4211.00,1.25
4210.00,1.25
4209.00,1.25
4208.00,1.25
4207.00,1.25
4206.00,1.25
4205.00,1.25
4204.00,1.25
4203.00,1.25
4202.00,1.25
4201.00,1.25
4200.00,1.25
4199.00,1.26
4198.00,1.26
4197.00,1.26
4196.00,1.26
4195.00,1.26
4194.00,1.26
4193.00,1.26
4192.00,1.26
4191.00,1.25
4190.00,1.25
4189.00,1.25
4188.00,1.25
4187.00,1.25
4186.00,1.25
4185.00,1.25
4184.00,1.25
4183.00,1.25
4182.00,1.25
4181.00,1.25
4180.00,1.25
4179.00,1.25
4178.00,1.25
4177.00,1.26
4176.00,1.26
4175.00,1.26
4174.00,1.26
4173.00,1.26
4172.00,1.26
4171.00,1.26
4170.00,1.26
4169.00,1.26
4168.00,1.26
4167.00,1.26
4166.00,1.26
4165.00,1.26
4164.00,1.26
4163.00,1.26
4162.00,1.26
4161.00,1.26
4160.00,1.26
4159.00,1.27
4158.00,1.27
4157.00,1.27
4156.00,1.27
4155.00,1.27
4154.00,1.27
4153.00,1.28
4152.00,1.28
4151.00,1.28
4150.00,1.28
4149.00,1.28
4148.00,1.28
4147.00,1.29
4146.00,1.29
4145.00,1.29
4144.00,1.29
4143.00,1.29
4142.00,1.29
4141.00,1.29
4140.00,1.29
4139.00,1.29
4138.00,1.29
4137.00,1.29
4136.00,1.29
4135.00,1.30
4134.00,1.30
4133.00,1.30
4132.00,1.30
4131.00,1.30
4130.00,1.30
4129.00,1.30
4128.00,1.30
4127.00,1.30
4126.00,1.30
4125.00,1.30
4124.00,1.30
4123.00,1.31
4122.00,1.31
4121.00,1.31
4120.00,1.31
4119.00,1.31
4118.00,1.31
4117.00,1.31
4116.00,1.31
4115.00,1.31
4114.00,1.32
4113.00,1.32
4112.00,1.32
4111.00,1.32
4110.00,1.31
4109.00,1.31
4108.00,1.31
4107.00,1.31
4106.00,1.31
4105.00,1.31
4104.00,1.31
4103.00,1.31
4102.00,1.30
4101.00,1.30
4100.00,1.30
4099.00,1.30
4098.00,1.30
4097.00,1.30
4096.00,1.30
4095.00,1.30
4094.00,1.30
4093.00,1.30
4092.00,1.30
4091.00,1.31
4090.00,1.31
4089.00,1.31
4088.00,1.31
4087.00,1.31
4086.00,1.31
4085.00,1.32
4084.00,1.32
4083.00,1.32
4082.00,1.32
4081.00,1.32
4080.00,1.32
4079.00,1.32
4078.00,1.32
4077.00,1.32
4076.00,1.32
4075.00,1.32
4074.00,1.32
4073.00,1.32
4072.00,1.32
4071.00,1.32
4070.00,1.32
4069.00,1.32
4068.00,1.32
4067.00,1.32
4066.00,1.32
4065.00,1.32
4064.00,1.32
4063.00,1.32
4062.00,1.32
4061.00,1.32
4060.00,1.32
4059.00,1.33
4058.00,1.33
4057.00,1.33
4056.00,1.33
4055.00,1.33
4054.00,1.33
4053.00,1.33
4052.00,1.33
4051.00,1.33
4050.00,1.33
4049.00,1.33
4048.00,1.33
4047.00,1.33
4046.00,1.33
4045.00,1.33
4044.00,1.34
4043.00,1.34
4042.00,1.34
4041.00,1.34
4040.00,1.34
4039.00,1.34
4038.00,1.35
4037.00,1.35
4036.00,1.35
4035.00,1.35
4034.00,1.36
4033.00,1.36
4032.00,1.36
4031.00,1.36
4030.00,1.36
4029.00,1.36
4028.00,1.37
4027.00,1.37
4026.00,1.37
4025.00,1.37
4024.00,1.37
4023.00,1.37
4022.00,1.37
4021.00,1.37
4020.00,1.37
4019.00,1.37
4018.00,1.37
4017.00,1.37
4016.00,1.37
4015.00,1.37
4014.00,1.37
4013.00,1.37
4012.00,1.37
4011.00,1.37
4010.00,1.37
4009.00,1.37
4008.00,1.37
4007.00,1.37
4006.00,1.37
4005.00,1.37
4004.00,1.37
4003.00,1.37
4002.00,1.37
4001.00,1.37
4000.00,1.37
