创建为新数据集,样品 157 用户 Administrator 日期 星期三, 十一月 08 2017
cm-1,%T
10000.00,1.23
9999.00,1.23
9998.00,1.23
9997.00,1.22
9996.00,1.22
9995.00,1.22
9994.00,1.21
9993.00,1.21
9992.00,1.21
9991.00,1.21
9990.00,1.20
9989.00,1.20
9988.00,1.20
9987.00,1.20
9986.00,1.20
9985.00,1.20
9984.00,1.20
9983.00,1.20
9982.00,1.20
9981.00,1.20
9980.00,1.20
9979.00,1.20
9978.00,1.21
9977.00,1.21
9976.00,1.21
9975.00,1.21
9974.00,1.21
9973.00,1.21
9972.00,1.21
9971.00,1.21
9970.00,1.21
9969.00,1.21
9968.00,1.21
9967.00,1.21
9966.00,1.21
9965.00,1.21
9964.00,1.21
9963.00,1.21
9962.00,1.21
9961.00,1.21
9960.00,1.21
9959.00,1.21
9958.00,1.21
9957.00,1.21
9956.00,1.21
9955.00,1.21
9954.00,1.21
9953.00,1.21
9952.00,1.21
9951.00,1.21
9950.00,1.21
9949.00,1.21
9948.00,1.21
9947.00,1.21
9946.00,1.21
9945.00,1.22
9944.00,1.22
9943.00,1.22
9942.00,1.22
9941.00,1.22
9940.00,1.22
9939.00,1.23
9938.00,1.23
9937.00,1.23
9936.00,1.23
9935.00,1.22
9934.00,1.22
9933.00,1.22
9932.00,1.22
9931.00,1.21
9930.00,1.21
9929.00,1.21
9928.00,1.20
9927.00,1.20
9926.00,1.20
9925.00,1.19
9924.00,1.19
9923.00,1.19
9922.00,1.18
9921.00,1.18
9920.00,1.18
9919.00,1.18
9918.00,1.18
9917.00,1.18
9916.00,1.18
9915.00,1.18
9914.00,1.18
9913.00,1.17
9912.00,1.17
9911.00,1.17
9910.00,1.17
9909.00,1.17
9908.00,1.17
9907.00,1.17
9906.00,1.17
9905.00,1.17
9904.00,1.17
9903.00,1.16
9902.00,1.16
9901.00,1.16
9900.00,1.16
9899.00,1.16
9898.00,1.15
9897.00,1.15
9896.00,1.15
9895.00,1.15
9894.00,1.15
9893.00,1.15
9892.00,1.15
9891.00,1.15
9890.00,1.15
9889.00,1.15
9888.00,1.15
9887.00,1.15
9886.00,1.15
9885.00,1.16
9884.00,1.16
9883.00,1.16
9882.00,1.16
9881.00,1.16
9880.00,1.16
9879.00,1.16
9878.00,1.16
9877.00,1.16
9876.00,1.16
9875.00,1.16
9874.00,1.16
9873.00,1.16
9872.00,1.16
9871.00,1.16
9870.00,1.16
9869.00,1.16
9868.00,1.16
9867.00,1.16
9866.00,1.16
9865.00,1.16
9864.00,1.16
9863.00,1.16
9862.00,1.16
9861.00,1.16
9860.00,1.16
9859.00,1.16
9858.00,1.16
9857.00,1.16
9856.00,1.16
9855.00,1.16
9854.00,1.16
9853.00,1.16
9852.00,1.16
9851.00,1.17
9850.00,1.17
9849.00,1.17
9848.00,1.17
9847.00,1.17
9846.00,1.17
9845.00,1.18
9844.00,1.18
9843.00,1.18
9842.00,1.18
9841.00,1.18
9840.00,1.18
9839.00,1.19
9838.00,1.19
9837.00,1.19
9836.00,1.19
9835.00,1.19
9834.00,1.19
9833.00,1.19
9832.00,1.19
9831.00,1.19
9830.00,1.19
9829.00,1.19
9828.00,1.19
9827.00,1.19
9826.00,1.19
9825.00,1.18
9824.00,1.18
9823.00,1.18
9822.00,1.18
9821.00,1.18
9820.00,1.18
9819.00,1.17
9818.00,1.17
9817.00,1.17
9816.00,1.17
9815.00,1.17
9814.00,1.17
9813.00,1.17
9812.00,1.17
9811.00,1.17
9810.00,1.17
9809.00,1.17
9808.00,1.17
9807.00,1.17
9806.00,1.17
9805.00,1.17
9804.00,1.17
9803.00,1.17
9802.00,1.17
9801.00,1.17
9800.00,1.17
9799.00,1.17
9798.00,1.17
9797.00,1.18
9796.00,1.18
9795.00,1.18
9794.00,1.18
9793.00,1.18
9792.00,1.18
9791.00,1.18
9790.00,1.19
9789.00,1.19
9788.00,1.19
9787.00,1.19
9786.00,1.20
9785.00,1.20
9784.00,1.20
9783.00,1.20
9782.00,1.20
9781.00,1.20
9780.00,1.21
9779.00,1.21
9778.00,1.21
9777.00,1.21
9776.00,1.21
9775.00,1.21
9774.00,1.20
9773.00,1.20
9772.00,1.20
9771.00,1.20
9770.00,1.19
9769.00,1.19
9768.00,1.19
9767.00,1.18
9766.00,1.18
9765.00,1.18
9764.00,1.17
9763.00,1.17
9762.00,1.17
9761.00,1.17
9760.00,1.17
9759.00,1.16
9758.00,1.16
9757.00,1.16
9756.00,1.16
9755.00,1.17
9754.00,1.17
9753.00,1.17
9752.00,1.17
9751.00,1.17
9750.00,1.18
9749.00,1.18
9748.00,1.18
9747.00,1.19
9746.00,1.19
9745.00,1.19
9744.00,1.20
9743.00,1.20
9742.00,1.20
9741.00,1.20
9740.00,1.21
9739.00,1.21
9738.00,1.21
9737.00,1.21
9736.00,1.21
9735.00,1.21
9734.00,1.21
9733.00,1.21
9732.00,1.20
9731.00,1.20
9730.00,1.20
9729.00,1.20
9728.00,1.20
9727.00,1.19
9726.00,1.19
9725.00,1.19
9724.00,1.19
9723.00,1.19
9722.00,1.19
9721.00,1.18
9720.00,1.18
9719.00,1.18
9718.00,1.18
9717.00,1.18
9716.00,1.18
9715.00,1.18
9714.00,1.18
9713.00,1.18
9712.00,1.18
9711.00,1.18
9710.00,1.18
9709.00,1.18
9708.00,1.18
9707.00,1.18
9706.00,1.18
9705.00,1.18
9704.00,1.18
9703.00,1.18
9702.00,1.18
9701.00,1.18
9700.00,1.18
9699.00,1.18
9698.00,1.18
9697.00,1.18
9696.00,1.18
9695.00,1.18
9694.00,1.18
9693.00,1.18
9692.00,1.18
9691.00,1.18
9690.00,1.17
9689.00,1.17
9688.00,1.17
9687.00,1.17
9686.00,1.17
9685.00,1.16
9684.00,1.16
9683.00,1.16
9682.00,1.16
9681.00,1.16
9680.00,1.16
9679.00,1.16
9678.00,1.16
9677.00,1.16
9676.00,1.16
9675.00,1.16
9674.00,1.17
9673.00,1.17
9672.00,1.17
9671.00,1.17
9670.00,1.17
9669.00,1.18
9668.00,1.18
9667.00,1.18
9666.00,1.18
9665.00,1.19
9664.00,1.19
9663.00,1.19
9662.00,1.19
9661.00,1.19
9660.00,1.20
9659.00,1.20
9658.00,1.20
9657.00,1.20
9656.00,1.20
9655.00,1.20
9654.00,1.20
9653.00,1.21
9652.00,1.21
9651.00,1.21
9650.00,1.21
9649.00,1.21
9648.00,1.20
9647.00,1.20
9646.00,1.20
9645.00,1.20
9644.00,1.20
9643.00,1.20
9642.00,1.20
9641.00,1.20
9640.00,1.20
9639.00,1.19
9638.00,1.19
9637.00,1.19
9636.00,1.19
9635.00,1.19
9634.00,1.20
9633.00,1.20
9632.00,1.20
9631.00,1.20
9630.00,1.20
9629.00,1.20
9628.00,1.20
9627.00,1.20
9626.00,1.20
9625.00,1.20
9624.00,1.20
9623.00,1.20
9622.00,1.20
9621.00,1.20
9620.00,1.20
9619.00,1.19
9618.00,1.19
9617.00,1.19
9616.00,1.19
9615.00,1.19
9614.00,1.19
9613.00,1.19
9612.00,1.19
9611.00,1.19
9610.00,1.19
9609.00,1.19
9608.00,1.19
9607.00,1.19
9606.00,1.19
9605.00,1.19
9604.00,1.19
9603.00,1.19
9602.00,1.18
9601.00,1.18
9600.00,1.18
9599.00,1.18
9598.00,1.18
9597.00,1.18
9596.00,1.18
9595.00,1.18
9594.00,1.18
9593.00,1.18
9592.00,1.18
9591.00,1.18
9590.00,1.19
9589.00,1.19
9588.00,1.19
9587.00,1.19
9586.00,1.19
9585.00,1.19
9584.00,1.19
9583.00,1.20
9582.00,1.20
9581.00,1.20
9580.00,1.19
9579.00,1.19
9578.00,1.19
9577.00,1.19
9576.00,1.19
9575.00,1.19
9574.00,1.19
9573.00,1.19
9572.00,1.18
9571.00,1.18
9570.00,1.18
9569.00,1.18
9568.00,1.18
9567.00,1.18
9566.00,1.18
9565.00,1.18
9564.00,1.18
9563.00,1.18
9562.00,1.18
9561.00,1.18
9560.00,1.18
9559.00,1.18
9558.00,1.18
9557.00,1.18
9556.00,1.18
9555.00,1.18
9554.00,1.18
9553.00,1.18
9552.00,1.18
9551.00,1.19
9550.00,1.19
9549.00,1.19
9548.00,1.19
9547.00,1.19
9546.00,1.19
9545.00,1.19
9544.00,1.19
9543.00,1.20
9542.00,1.20
9541.00,1.20
9540.00,1.20
9539.00,1.20
9538.00,1.20
9537.00,1.20
9536.00,1.20
9535.00,1.20
9534.00,1.20
9533.00,1.20
9532.00,1.20
9531.00,1.20
9530.00,1.20
9529.00,1.20
9528.00,1.19
9527.00,1.19
9526.00,1.19
9525.00,1.19
9524.00,1.19
9523.00,1.19
9522.00,1.19
9521.00,1.19
9520.00,1.19
9519.00,1.19
9518.00,1.19
9517.00,1.19
9516.00,1.19
9515.00,1.19
9514.00,1.19
9513.00,1.19
9512.00,1.19
9511.00,1.19
9510.00,1.19
9509.00,1.19
9508.00,1.19
9507.00,1.20
9506.00,1.20
9505.00,1.20
9504.00,1.19
9503.00,1.19
9502.00,1.19
9501.00,1.19
9500.00,1.19
9499.00,1.19
9498.00,1.19
9497.00,1.19
9496.00,1.19
9495.00,1.18
9494.00,1.18
9493.00,1.18
9492.00,1.18
9491.00,1.18
9490.00,1.18
9489.00,1.18
9488.00,1.18
9487.00,1.18
9486.00,1.18
9485.00,1.18
9484.00,1.19
9483.00,1.19
9482.00,1.19
9481.00,1.19
9480.00,1.19
9479.00,1.19
9478.00,1.19
9477.00,1.19
9476.00,1.19
9475.00,1.19
9474.00,1.19
9473.00,1.19
9472.00,1.19
9471.00,1.19
9470.00,1.19
9469.00,1.19
9468.00,1.19
9467.00,1.19
9466.00,1.19
9465.00,1.19
9464.00,1.19
9463.00,1.18
9462.00,1.18
9461.00,1.18
9460.00,1.18
9459.00,1.18
9458.00,1.17
9457.00,1.17
9456.00,1.17
9455.00,1.17
9454.00,1.17
9453.00,1.17
9452.00,1.16
9451.00,1.16
9450.00,1.16
9449.00,1.16
9448.00,1.16
9447.00,1.16
9446.00,1.17
9445.00,1.17
9444.00,1.17
9443.00,1.17
9442.00,1.17
9441.00,1.17
9440.00,1.18
9439.00,1.18
9438.00,1.18
9437.00,1.18
9436.00,1.19
9435.00,1.19
9434.00,1.19
9433.00,1.19
9432.00,1.19
9431.00,1.19
9430.00,1.19
9429.00,1.19
9428.00,1.20
9427.00,1.20
9426.00,1.20
9425.00,1.20
9424.00,1.20
9423.00,1.20
9422.00,1.20
9421.00,1.20
9420.00,1.20
9419.00,1.20
9418.00,1.20
9417.00,1.20
9416.00,1.20
9415.00,1.20
9414.00,1.20
9413.00,1.20
9412.00,1.20
9411.00,1.20
9410.00,1.20
9409.00,1.20
9408.00,1.20
9407.00,1.20
9406.00,1.20
9405.00,1.20
9404.00,1.20
9403.00,1.20
9402.00,1.20
9401.00,1.20
9400.00,1.20
9399.00,1.20
9398.00,1.20
9397.00,1.20
9396.00,1.20
9395.00,1.20
9394.00,1.20
9393.00,1.20
9392.00,1.20
9391.00,1.20
9390.00,1.20
9389.00,1.20
9388.00,1.20
9387.00,1.20
9386.00,1.20
9385.00,1.20
9384.00,1.19
9383.00,1.19
9382.00,1.19
9381.00,1.19
9380.00,1.20
9379.00,1.20
9378.00,1.20
9377.00,1.20
9376.00,1.20
9375.00,1.20
9374.00,1.20
9373.00,1.20
9372.00,1.20
9371.00,1.20
9370.00,1.20
9369.00,1.21
9368.00,1.21
9367.00,1.21
9366.00,1.21
9365.00,1.21
9364.00,1.21
9363.00,1.21
9362.00,1.21
9361.00,1.21
9360.00,1.21
9359.00,1.21
9358.00,1.21
9357.00,1.21
9356.00,1.21
9355.00,1.21
9354.00,1.21
9353.00,1.21
9352.00,1.21
9351.00,1.21
9350.00,1.21
9349.00,1.21
9348.00,1.21
9347.00,1.21
9346.00,1.21
9345.00,1.21
9344.00,1.21
9343.00,1.21
9342.00,1.21
9341.00,1.21
9340.00,1.21
9339.00,1.21
9338.00,1.21
9337.00,1.21
9336.00,1.21
9335.00,1.21
9334.00,1.21
9333.00,1.21
9332.00,1.21
9331.00,1.21
9330.00,1.21
9329.00,1.21
9328.00,1.21
9327.00,1.21
9326.00,1.21
9325.00,1.21
9324.00,1.21
9323.00,1.21
9322.00,1.21
9321.00,1.21
9320.00,1.21
9319.00,1.21
9318.00,1.21
9317.00,1.21
9316.00,1.20
9315.00,1.20
9314.00,1.20
9313.00,1.20
9312.00,1.20
9311.00,1.20
9310.00,1.20
9309.00,1.20
9308.00,1.20
9307.00,1.20
9306.00,1.20
9305.00,1.20
9304.00,1.20
9303.00,1.20
9302.00,1.20
9301.00,1.20
9300.00,1.20
9299.00,1.20
9298.00,1.20
9297.00,1.20
9296.00,1.20
9295.00,1.20
9294.00,1.20
9293.00,1.20
9292.00,1.19
9291.00,1.19
9290.00,1.19
9289.00,1.19
9288.00,1.19
9287.00,1.19
9286.00,1.19
9285.00,1.19
9284.00,1.19
9283.00,1.19
9282.00,1.19
9281.00,1.19
9280.00,1.19
9279.00,1.19
9278.00,1.19
9277.00,1.19
9276.00,1.19
9275.00,1.19
9274.00,1.19
9273.00,1.19
9272.00,1.19
9271.00,1.19
9270.00,1.19
9269.00,1.19
9268.00,1.19
9267.00,1.19
9266.00,1.19
9265.00,1.20
9264.00,1.20
9263.00,1.20
9262.00,1.20
9261.00,1.20
9260.00,1.20
9259.00,1.20
9258.00,1.20
9257.00,1.21
9256.00,1.21
9255.00,1.21
9254.00,1.21
9253.00,1.21
9252.00,1.21
9251.00,1.21
9250.00,1.21
9249.00,1.21
9248.00,1.21
9247.00,1.21
9246.00,1.21
9245.00,1.20
9244.00,1.20
9243.00,1.20
9242.00,1.20
9241.00,1.20
9240.00,1.20
9239.00,1.20
9238.00,1.20
9237.00,1.20
9236.00,1.19
9235.00,1.19
9234.00,1.19
9233.00,1.19
9232.00,1.19
9231.00,1.19
9230.00,1.19
9229.00,1.19
9228.00,1.19
9227.00,1.19
9226.00,1.19
9225.00,1.19
9224.00,1.19
9223.00,1.19
9222.00,1.19
9221.00,1.19
9220.00,1.19
9219.00,1.19
9218.00,1.19
9217.00,1.19
9216.00,1.19
9215.00,1.18
9214.00,1.18
9213.00,1.18
9212.00,1.18
9211.00,1.18
9210.00,1.18
9209.00,1.18
9208.00,1.19
9207.00,1.19
9206.00,1.19
9205.00,1.19
9204.00,1.19
9203.00,1.19
9202.00,1.19
9201.00,1.19
9200.00,1.19
9199.00,1.19
9198.00,1.19
9197.00,1.19
9196.00,1.19
9195.00,1.19
9194.00,1.19
9193.00,1.19
9192.00,1.19
9191.00,1.19
9190.00,1.19
9189.00,1.19
9188.00,1.19
9187.00,1.19
9186.00,1.19
9185.00,1.19
9184.00,1.18
9183.00,1.18
9182.00,1.18
9181.00,1.18
9180.00,1.18
9179.00,1.18
9178.00,1.18
9177.00,1.18
9176.00,1.18
9175.00,1.19
9174.00,1.19
9173.00,1.19
9172.00,1.19
9171.00,1.19
9170.00,1.19
9169.00,1.20
9168.00,1.20
9167.00,1.20
9166.00,1.20
9165.00,1.20
9164.00,1.20
9163.00,1.20
9162.00,1.20
9161.00,1.20
9160.00,1.20
9159.00,1.20
9158.00,1.20
9157.00,1.20
9156.00,1.20
9155.00,1.20
9154.00,1.20
9153.00,1.20
9152.00,1.20
9151.00,1.20
9150.00,1.20
9149.00,1.20
9148.00,1.20
9147.00,1.20
9146.00,1.20
9145.00,1.20
9144.00,1.20
9143.00,1.20
9142.00,1.20
9141.00,1.20
9140.00,1.21
9139.00,1.21
9138.00,1.21
9137.00,1.21
9136.00,1.21
9135.00,1.21
9134.00,1.20
9133.00,1.20
9132.00,1.20
9131.00,1.20
9130.00,1.20
9129.00,1.20
9128.00,1.20
9127.00,1.20
9126.00,1.20
9125.00,1.20
9124.00,1.20
9123.00,1.20
9122.00,1.20
9121.00,1.19
9120.00,1.19
9119.00,1.19
9118.00,1.19
9117.00,1.19
9116.00,1.19
9115.00,1.19
9114.00,1.19
9113.00,1.19
9112.00,1.19
9111.00,1.19
9110.00,1.19
9109.00,1.19
9108.00,1.19
9107.00,1.19
9106.00,1.19
9105.00,1.19
9104.00,1.19
9103.00,1.20
9102.00,1.20
9101.00,1.20
9100.00,1.20
9099.00,1.20
9098.00,1.20
9097.00,1.20
9096.00,1.20
9095.00,1.20
9094.00,1.20
9093.00,1.20
9092.00,1.20
9091.00,1.20
9090.00,1.20
9089.00,1.20
9088.00,1.20
9087.00,1.20
9086.00,1.20
9085.00,1.20
9084.00,1.20
9083.00,1.20
9082.00,1.19
9081.00,1.19
9080.00,1.19
9079.00,1.19
9078.00,1.19
9077.00,1.19
9076.00,1.19
9075.00,1.19
9074.00,1.19
9073.00,1.19
9072.00,1.19
9071.00,1.19
9070.00,1.19
9069.00,1.19
9068.00,1.19
9067.00,1.19
9066.00,1.19
9065.00,1.19
9064.00,1.19
9063.00,1.19
9062.00,1.19
9061.00,1.20
9060.00,1.20
9059.00,1.20
9058.00,1.20
9057.00,1.21
9056.00,1.21
9055.00,1.21
9054.00,1.22
9053.00,1.22
9052.00,1.22
9051.00,1.22
9050.00,1.22
9049.00,1.23
9048.00,1.23
9047.00,1.23
9046.00,1.23
9045.00,1.22
9044.00,1.22
9043.00,1.22
9042.00,1.22
9041.00,1.22
9040.00,1.21
9039.00,1.21
9038.00,1.21
9037.00,1.20
9036.00,1.20
9035.00,1.20
9034.00,1.19
9033.00,1.19
9032.00,1.18
9031.00,1.18
9030.00,1.18
9029.00,1.18
9028.00,1.17
9027.00,1.17
9026.00,1.17
9025.00,1.17
9024.00,1.17
9023.00,1.17
9022.00,1.17
9021.00,1.17
9020.00,1.17
9019.00,1.17
9018.00,1.17
9017.00,1.17
9016.00,1.17
9015.00,1.17
9014.00,1.17
9013.00,1.18
9012.00,1.18
9011.00,1.18
9010.00,1.18
9009.00,1.18
9008.00,1.18
9007.00,1.19
9006.00,1.19
9005.00,1.19
9004.00,1.19
9003.00,1.19
9002.00,1.20
9001.00,1.20
9000.00,1.20
8999.00,1.20
8998.00,1.20
8997.00,1.20
8996.00,1.20
8995.00,1.21
8994.00,1.21
8993.00,1.21
8992.00,1.21
8991.00,1.21
8990.00,1.21
8989.00,1.21
8988.00,1.21
8987.00,1.21
8986.00,1.21
8985.00,1.21
8984.00,1.21
8983.00,1.21
8982.00,1.20
8981.00,1.20
8980.00,1.20
8979.00,1.20
8978.00,1.20
8977.00,1.20
8976.00,1.20
8975.00,1.20
8974.00,1.20
8973.00,1.20
8972.00,1.20
8971.00,1.19
8970.00,1.19
8969.00,1.19
8968.00,1.19
8967.00,1.19
8966.00,1.19
8965.00,1.19
8964.00,1.19
8963.00,1.19
8962.00,1.19
8961.00,1.19
8960.00,1.19
8959.00,1.19
8958.00,1.19
8957.00,1.19
8956.00,1.19
8955.00,1.19
8954.00,1.19
8953.00,1.19
8952.00,1.19
8951.00,1.19
8950.00,1.19
8949.00,1.19
8948.00,1.19
8947.00,1.19
8946.00,1.19
8945.00,1.19
8944.00,1.19
8943.00,1.19
8942.00,1.19
8941.00,1.19
8940.00,1.19
8939.00,1.19
8938.00,1.19
8937.00,1.19
8936.00,1.20
8935.00,1.20
8934.00,1.20
8933.00,1.20
8932.00,1.20
8931.00,1.20
8930.00,1.20
8929.00,1.20
8928.00,1.20
8927.00,1.20
8926.00,1.20
8925.00,1.20
8924.00,1.19
8923.00,1.19
8922.00,1.19
8921.00,1.19
8920.00,1.19
8919.00,1.19
8918.00,1.19
8917.00,1.19
8916.00,1.19
8915.00,1.20
8914.00,1.20
8913.00,1.20
8912.00,1.20
8911.00,1.20
8910.00,1.20
8909.00,1.20
8908.00,1.20
8907.00,1.21
8906.00,1.21
8905.00,1.21
8904.00,1.21
8903.00,1.21
8902.00,1.21
8901.00,1.21
8900.00,1.21
8899.00,1.21
8898.00,1.21
8897.00,1.22
8896.00,1.22
8895.00,1.22
8894.00,1.22
8893.00,1.22
8892.00,1.22
8891.00,1.22
8890.00,1.22
8889.00,1.21
8888.00,1.21
8887.00,1.21
8886.00,1.21
8885.00,1.21
8884.00,1.21
8883.00,1.21
8882.00,1.20
8881.00,1.20
8880.00,1.20
8879.00,1.20
8878.00,1.20
8877.00,1.20
8876.00,1.20
8875.00,1.20
8874.00,1.20
8873.00,1.20
8872.00,1.20
8871.00,1.20
8870.00,1.20
8869.00,1.20
8868.00,1.20
8867.00,1.19
8866.00,1.19
8865.00,1.19
8864.00,1.19
8863.00,1.19
8862.00,1.19
8861.00,1.19
8860.00,1.19
8859.00,1.19
8858.00,1.19
8857.00,1.19
8856.00,1.19
8855.00,1.19
8854.00,1.19
8853.00,1.19
8852.00,1.19
8851.00,1.19
8850.00,1.19
8849.00,1.19
8848.00,1.19
8847.00,1.19
8846.00,1.19
8845.00,1.19
8844.00,1.19
8843.00,1.19
8842.00,1.19
8841.00,1.19
8840.00,1.19
8839.00,1.19
8838.00,1.19
8837.00,1.19
8836.00,1.19
8835.00,1.19
8834.00,1.19
8833.00,1.19
8832.00,1.18
8831.00,1.18
8830.00,1.18
8829.00,1.18
8828.00,1.18
8827.00,1.18
8826.00,1.18
8825.00,1.18
8824.00,1.18
8823.00,1.18
8822.00,1.18
8821.00,1.18
8820.00,1.18
8819.00,1.18
8818.00,1.18
8817.00,1.18
8816.00,1.17
8815.00,1.17
8814.00,1.17
8813.00,1.17
8812.00,1.17
8811.00,1.17
8810.00,1.17
8809.00,1.17
8808.00,1.17
8807.00,1.17
8806.00,1.17
8805.00,1.17
8804.00,1.17
8803.00,1.17
8802.00,1.17
8801.00,1.17
8800.00,1.17
8799.00,1.17
8798.00,1.17
8797.00,1.17
8796.00,1.17
8795.00,1.17
8794.00,1.17
8793.00,1.17
8792.00,1.17
8791.00,1.17
8790.00,1.16
8789.00,1.16
8788.00,1.16
8787.00,1.16
8786.00,1.16
8785.00,1.16
8784.00,1.16
8783.00,1.16
8782.00,1.17
8781.00,1.17
8780.00,1.17
8779.00,1.17
8778.00,1.17
8777.00,1.17
8776.00,1.17
8775.00,1.17
8774.00,1.17
8773.00,1.17
8772.00,1.17
8771.00,1.18
8770.00,1.18
8769.00,1.18
8768.00,1.18
8767.00,1.18
8766.00,1.18
8765.00,1.18
8764.00,1.18
8763.00,1.18
8762.00,1.18
8761.00,1.18
8760.00,1.18
8759.00,1.18
8758.00,1.18
8757.00,1.18
8756.00,1.18
8755.00,1.18
8754.00,1.18
8753.00,1.18
8752.00,1.18
8751.00,1.18
8750.00,1.17
8749.00,1.17
8748.00,1.17
8747.00,1.17
8746.00,1.17
8745.00,1.17
8744.00,1.17
8743.00,1.17
8742.00,1.17
8741.00,1.17
8740.00,1.17
8739.00,1.17
8738.00,1.17
8737.00,1.17
8736.00,1.17
8735.00,1.17
8734.00,1.17
8733.00,1.17
8732.00,1.17
8731.00,1.17
8730.00,1.17
8729.00,1.17
8728.00,1.18
8727.00,1.18
8726.00,1.18
8725.00,1.18
8724.00,1.18
8723.00,1.18
8722.00,1.18
8721.00,1.18
8720.00,1.17
8719.00,1.17
8718.00,1.17
8717.00,1.17
8716.00,1.17
8715.00,1.17
8714.00,1.17
8713.00,1.17
8712.00,1.17
8711.00,1.17
8710.00,1.16
8709.00,1.16
8708.00,1.16
8707.00,1.16
8706.00,1.16
8705.00,1.16
8704.00,1.16
8703.00,1.16
8702.00,1.16
8701.00,1.16
8700.00,1.16
8699.00,1.17
8698.00,1.17
8697.00,1.17
8696.00,1.17
8695.00,1.17
8694.00,1.17
8693.00,1.17
8692.00,1.17
8691.00,1.17
8690.00,1.17
8689.00,1.17
8688.00,1.17
8687.00,1.17
8686.00,1.17
8685.00,1.17
8684.00,1.17
8683.00,1.17
8682.00,1.17
8681.00,1.16
8680.00,1.16
8679.00,1.16
8678.00,1.16
8677.00,1.16
8676.00,1.16
8675.00,1.16
8674.00,1.16
8673.00,1.16
8672.00,1.15
8671.00,1.15
8670.00,1.15
8669.00,1.15
8668.00,1.15
8667.00,1.15
8666.00,1.16
8665.00,1.16
8664.00,1.16
8663.00,1.16
8662.00,1.16
8661.00,1.16
8660.00,1.16
8659.00,1.17
8658.00,1.17
8657.00,1.17
8656.00,1.17
8655.00,1.17
8654.00,1.17
8653.00,1.18
8652.00,1.18
8651.00,1.18
8650.00,1.18
8649.00,1.18
8648.00,1.18
8647.00,1.18
8646.00,1.18
8645.00,1.18
8644.00,1.18
8643.00,1.18
8642.00,1.18
8641.00,1.18
8640.00,1.17
8639.00,1.17
8638.00,1.17
8637.00,1.17
8636.00,1.17
8635.00,1.16
8634.00,1.16
8633.00,1.16
8632.00,1.16
8631.00,1.16
8630.00,1.16
8629.00,1.15
8628.00,1.15
8627.00,1.15
8626.00,1.15
8625.00,1.15
8624.00,1.15
8623.00,1.15
8622.00,1.15
8621.00,1.15
8620.00,1.15
8619.00,1.15
8618.00,1.16
8617.00,1.16
8616.00,1.16
8615.00,1.16
8614.00,1.16
8613.00,1.16
8612.00,1.16
8611.00,1.16
8610.00,1.16
8609.00,1.16
8608.00,1.16
8607.00,1.16
8606.00,1.16
8605.00,1.16
8604.00,1.16
8603.00,1.16
8602.00,1.16
8601.00,1.16
8600.00,1.16
8599.00,1.16
8598.00,1.16
8597.00,1.16
8596.00,1.16
8595.00,1.15
8594.00,1.15
8593.00,1.15
8592.00,1.15
8591.00,1.15
8590.00,1.15
8589.00,1.15
8588.00,1.15
8587.00,1.15
8586.00,1.15
8585.00,1.15
8584.00,1.15
8583.00,1.15
8582.00,1.15
8581.00,1.15
8580.00,1.15
8579.00,1.15
8578.00,1.15
8577.00,1.15
8576.00,1.15
8575.00,1.15
8574.00,1.15
8573.00,1.15
8572.00,1.15
8571.00,1.15
8570.00,1.15
8569.00,1.15
8568.00,1.15
8567.00,1.15
8566.00,1.15
8565.00,1.15
8564.00,1.15
8563.00,1.15
8562.00,1.15
8561.00,1.15
8560.00,1.15
8559.00,1.15
8558.00,1.15
8557.00,1.15
8556.00,1.15
8555.00,1.16
8554.00,1.16
8553.00,1.16
8552.00,1.16
8551.00,1.16
8550.00,1.16
8549.00,1.16
8548.00,1.16
8547.00,1.16
8546.00,1.16
8545.00,1.16
8544.00,1.16
8543.00,1.16
8542.00,1.16
8541.00,1.16
8540.00,1.16
8539.00,1.16
8538.00,1.16
8537.00,1.16
8536.00,1.16
8535.00,1.15
8534.00,1.15
8533.00,1.15
8532.00,1.15
8531.00,1.15
8530.00,1.15
8529.00,1.14
8528.00,1.14
8527.00,1.14
8526.00,1.14
8525.00,1.14
8524.00,1.14
8523.00,1.13
8522.00,1.13
8521.00,1.13
8520.00,1.13
8519.00,1.13
8518.00,1.13
8517.00,1.13
8516.00,1.13
8515.00,1.13
8514.00,1.13
8513.00,1.13
8512.00,1.13
8511.00,1.13
8510.00,1.13
8509.00,1.13
8508.00,1.14
8507.00,1.14
8506.00,1.14
8505.00,1.14
8504.00,1.14
8503.00,1.14
8502.00,1.14
8501.00,1.14
8500.00,1.14
8499.00,1.14
8498.00,1.14
8497.00,1.14
8496.00,1.14
8495.00,1.14
8494.00,1.13
8493.00,1.13
8492.00,1.13
8491.00,1.13
8490.00,1.13
8489.00,1.12
8488.00,1.12
8487.00,1.12
8486.00,1.12
8485.00,1.12
8484.00,1.12
8483.00,1.11
8482.00,1.11
8481.00,1.11
8480.00,1.11
8479.00,1.11
8478.00,1.11
8477.00,1.11
8476.00,1.11
8475.00,1.11
8474.00,1.10
8473.00,1.10
8472.00,1.10
8471.00,1.10
8470.00,1.10
8469.00,1.10
8468.00,1.10
8467.00,1.10
8466.00,1.10
8465.00,1.10
8464.00,1.10
8463.00,1.10
8462.00,1.10
8461.00,1.10
8460.00,1.10
8459.00,1.10
8458.00,1.10
8457.00,1.10
8456.00,1.10
8455.00,1.10
8454.00,1.10
8453.00,1.10
8452.00,1.10
8451.00,1.09
8450.00,1.09
8449.00,1.09
8448.00,1.09
8447.00,1.09
8446.00,1.09
8445.00,1.09
8444.00,1.09
8443.00,1.09
8442.00,1.09
8441.00,1.09
8440.00,1.09
8439.00,1.09
8438.00,1.09
8437.00,1.09
8436.00,1.09
8435.00,1.09
8434.00,1.09
8433.00,1.09
8432.00,1.09
8431.00,1.09
8430.00,1.09
8429.00,1.09
8428.00,1.09
8427.00,1.09
8426.00,1.09
8425.00,1.09
8424.00,1.09
8423.00,1.09
8422.00,1.09
8421.00,1.09
8420.00,1.09
8419.00,1.10
8418.00,1.10
8417.00,1.10
8416.00,1.10
8415.00,1.10
8414.00,1.10
8413.00,1.10
8412.00,1.11
8411.00,1.11
8410.00,1.11
8409.00,1.11
8408.00,1.11
8407.00,1.11
8406.00,1.11
8405.00,1.11
8404.00,1.12
8403.00,1.12
8402.00,1.12
8401.00,1.12
8400.00,1.12
8399.00,1.12
8398.00,1.12
8397.00,1.12
8396.00,1.12
8395.00,1.12
8394.00,1.12
8393.00,1.12
8392.00,1.13
8391.00,1.13
8390.00,1.13
8389.00,1.13
8388.00,1.13
8387.00,1.13
8386.00,1.13
8385.00,1.13
8384.00,1.13
8383.00,1.13
8382.00,1.13
8381.00,1.13
8380.00,1.13
8379.00,1.13
8378.00,1.13
8377.00,1.13
8376.00,1.13
8375.00,1.13
8374.00,1.13
8373.00,1.13
8372.00,1.13
8371.00,1.13
8370.00,1.13
8369.00,1.13
8368.00,1.13
8367.00,1.13
8366.00,1.13
8365.00,1.13
8364.00,1.13
8363.00,1.13
8362.00,1.13
8361.00,1.13
8360.00,1.13
8359.00,1.13
8358.00,1.13
8357.00,1.13
8356.00,1.13
8355.00,1.13
8354.00,1.13
8353.00,1.13
8352.00,1.13
8351.00,1.13
8350.00,1.13
8349.00,1.13
8348.00,1.13
8347.00,1.13
8346.00,1.13
8345.00,1.13
8344.00,1.13
8343.00,1.13
8342.00,1.13
8341.00,1.13
8340.00,1.13
8339.00,1.13
8338.00,1.13
8337.00,1.13
8336.00,1.13
8335.00,1.13
8334.00,1.13
8333.00,1.13
8332.00,1.13
8331.00,1.13
8330.00,1.13
8329.00,1.13
8328.00,1.13
8327.00,1.13
8326.00,1.13
8325.00,1.13
8324.00,1.13
8323.00,1.13
8322.00,1.13
8321.00,1.13
8320.00,1.13
8319.00,1.13
8318.00,1.13
8317.00,1.13
8316.00,1.13
8315.00,1.13
8314.00,1.13
8313.00,1.13
8312.00,1.13
8311.00,1.13
8310.00,1.14
8309.00,1.14
8308.00,1.14
8307.00,1.14
8306.00,1.14
8305.00,1.14
8304.00,1.14
8303.00,1.14
8302.00,1.14
8301.00,1.14
8300.00,1.14
8299.00,1.15
8298.00,1.15
8297.00,1.15
8296.00,1.15
8295.00,1.15
8294.00,1.15
8293.00,1.15
8292.00,1.15
8291.00,1.14
8290.00,1.14
8289.00,1.14
8288.00,1.14
8287.00,1.14
8286.00,1.14
8285.00,1.14
8284.00,1.14
8283.00,1.14
8282.00,1.14
8281.00,1.14
8280.00,1.14
8279.00,1.14
8278.00,1.14
8277.00,1.14
8276.00,1.14
8275.00,1.14
8274.00,1.14
8273.00,1.14
8272.00,1.14
8271.00,1.14
8270.00,1.14
8269.00,1.14
8268.00,1.14
8267.00,1.14
8266.00,1.14
8265.00,1.14
8264.00,1.14
8263.00,1.14
8262.00,1.14
8261.00,1.14
8260.00,1.14
8259.00,1.14
8258.00,1.14
8257.00,1.14
8256.00,1.14
8255.00,1.14
8254.00,1.14
8253.00,1.14
8252.00,1.14
8251.00,1.14
8250.00,1.14
8249.00,1.14
8248.00,1.14
8247.00,1.14
8246.00,1.14
8245.00,1.14
8244.00,1.14
8243.00,1.14
8242.00,1.15
8241.00,1.15
8240.00,1.15
8239.00,1.15
8238.00,1.15
8237.00,1.15
8236.00,1.16
8235.00,1.16
8234.00,1.16
8233.00,1.16
8232.00,1.16
8231.00,1.16
8230.00,1.16
8229.00,1.16
8228.00,1.16
8227.00,1.16
8226.00,1.16
8225.00,1.16
8224.00,1.16
8223.00,1.16
8222.00,1.16
8221.00,1.16
8220.00,1.16
8219.00,1.16
8218.00,1.15
8217.00,1.15
8216.00,1.15
8215.00,1.15
8214.00,1.15
8213.00,1.15
8212.00,1.15
8211.00,1.15
8210.00,1.15
8209.00,1.15
8208.00,1.15
8207.00,1.15
8206.00,1.15
8205.00,1.15
8204.00,1.15
8203.00,1.15
8202.00,1.15
8201.00,1.15
8200.00,1.15
8199.00,1.15
8198.00,1.15
8197.00,1.15
8196.00,1.15
8195.00,1.15
8194.00,1.15
8193.00,1.15
8192.00,1.15
8191.00,1.15
8190.00,1.15
8189.00,1.15
8188.00,1.15
8187.00,1.16
8186.00,1.16
8185.00,1.16
8184.00,1.16
8183.00,1.16
8182.00,1.16
8181.00,1.16
8180.00,1.16
8179.00,1.16
8178.00,1.16
8177.00,1.16
8176.00,1.16
8175.00,1.16
8174.00,1.16
8173.00,1.16
8172.00,1.16
8171.00,1.16
8170.00,1.16
8169.00,1.16
8168.00,1.16
8167.00,1.16
8166.00,1.16
8165.00,1.16
8164.00,1.16
8163.00,1.17
8162.00,1.17
8161.00,1.17
8160.00,1.17
8159.00,1.17
8158.00,1.17
8157.00,1.17
8156.00,1.17
8155.00,1.17
8154.00,1.17
8153.00,1.17
8152.00,1.17
8151.00,1.17
8150.00,1.17
8149.00,1.17
8148.00,1.17
8147.00,1.17
8146.00,1.17
8145.00,1.17
8144.00,1.17
8143.00,1.17
8142.00,1.17
8141.00,1.17
8140.00,1.17
8139.00,1.17
8138.00,1.17
8137.00,1.17
8136.00,1.17
8135.00,1.17
8134.00,1.17
8133.00,1.17
8132.00,1.17
8131.00,1.17
8130.00,1.17
8129.00,1.17
8128.00,1.17
8127.00,1.17
8126.00,1.17
8125.00,1.17
8124.00,1.17
8123.00,1.17
8122.00,1.17
8121.00,1.17
8120.00,1.17
8119.00,1.17
8118.00,1.17
8117.00,1.17
8116.00,1.17
8115.00,1.17
8114.00,1.17
8113.00,1.17
8112.00,1.17
8111.00,1.17
8110.00,1.17
8109.00,1.17
8108.00,1.17
8107.00,1.17
8106.00,1.17
8105.00,1.17
8104.00,1.17
8103.00,1.18
8102.00,1.18
8101.00,1.18
8100.00,1.18
8099.00,1.18
8098.00,1.18
8097.00,1.18
8096.00,1.18
8095.00,1.18
8094.00,1.18
8093.00,1.18
8092.00,1.18
8091.00,1.18
8090.00,1.18
8089.00,1.18
8088.00,1.18
8087.00,1.18
8086.00,1.18
8085.00,1.18
8084.00,1.18
8083.00,1.18
8082.00,1.18
8081.00,1.18
8080.00,1.18
8079.00,1.18
8078.00,1.18
8077.00,1.19
8076.00,1.19
8075.00,1.19
8074.00,1.19
8073.00,1.19
8072.00,1.19
8071.00,1.19
8070.00,1.19
8069.00,1.19
8068.00,1.19
8067.00,1.19
8066.00,1.19
8065.00,1.19
8064.00,1.19
8063.00,1.19
8062.00,1.19
8061.00,1.19
8060.00,1.19
8059.00,1.19
8058.00,1.19
8057.00,1.19
8056.00,1.19
8055.00,1.19
8054.00,1.19
8053.00,1.19
8052.00,1.19
8051.00,1.19
8050.00,1.19
8049.00,1.19
8048.00,1.19
8047.00,1.19
8046.00,1.19
8045.00,1.19
8044.00,1.19
8043.00,1.19
8042.00,1.19
8041.00,1.19
8040.00,1.19
8039.00,1.19
8038.00,1.19
8037.00,1.19
8036.00,1.19
8035.00,1.19
8034.00,1.19
8033.00,1.19
8032.00,1.19
8031.00,1.19
8030.00,1.19
8029.00,1.19
8028.00,1.19
8027.00,1.19
8026.00,1.19
8025.00,1.19
8024.00,1.19
8023.00,1.19
8022.00,1.19
8021.00,1.19
8020.00,1.19
8019.00,1.19
8018.00,1.19
8017.00,1.19
8016.00,1.19
8015.00,1.19
8014.00,1.19
8013.00,1.19
8012.00,1.19
8011.00,1.19
8010.00,1.19
8009.00,1.19
8008.00,1.19
8007.00,1.20
8006.00,1.20
8005.00,1.20
8004.00,1.20
8003.00,1.20
8002.00,1.20
8001.00,1.20
8000.00,1.20
7999.00,1.20
7998.00,1.20
7997.00,1.20
7996.00,1.20
7995.00,1.20
7994.00,1.20
7993.00,1.20
7992.00,1.20
7991.00,1.20
7990.00,1.20
7989.00,1.20
7988.00,1.20
7987.00,1.20
7986.00,1.20
7985.00,1.20
7984.00,1.20
7983.00,1.20
7982.00,1.20
7981.00,1.20
7980.00,1.20
7979.00,1.20
7978.00,1.20
7977.00,1.20
7976.00,1.20
7975.00,1.20
7974.00,1.20
7973.00,1.20
7972.00,1.20
7971.00,1.20
7970.00,1.20
7969.00,1.20
7968.00,1.20
7967.00,1.20
7966.00,1.20
7965.00,1.20
7964.00,1.20
7963.00,1.20
7962.00,1.20
7961.00,1.20
7960.00,1.20
7959.00,1.20
7958.00,1.20
7957.00,1.20
7956.00,1.20
7955.00,1.20
7954.00,1.20
7953.00,1.20
7952.00,1.20
7951.00,1.20
7950.00,1.20
7949.00,1.20
7948.00,1.20
7947.00,1.20
7946.00,1.20
7945.00,1.20
7944.00,1.20
7943.00,1.20
7942.00,1.20
7941.00,1.20
7940.00,1.20
7939.00,1.20
7938.00,1.20
7937.00,1.20
7936.00,1.20
7935.00,1.20
7934.00,1.20
7933.00,1.20
7932.00,1.20
7931.00,1.20
7930.00,1.20
7929.00,1.20
7928.00,1.20
7927.00,1.21
7926.00,1.21
7925.00,1.21
7924.00,1.21
7923.00,1.21
7922.00,1.21
7921.00,1.21
7920.00,1.21
7919.00,1.21
7918.00,1.21
7917.00,1.21
7916.00,1.21
7915.00,1.21
7914.00,1.20
7913.00,1.20
7912.00,1.20
7911.00,1.20
7910.00,1.20
7909.00,1.20
7908.00,1.20
7907.00,1.20
7906.00,1.20
7905.00,1.20
7904.00,1.20
7903.00,1.21
7902.00,1.21
7901.00,1.21
7900.00,1.21
7899.00,1.21
7898.00,1.21
7897.00,1.21
7896.00,1.22
7895.00,1.22
7894.00,1.22
7893.00,1.22
7892.00,1.22
7891.00,1.22
7890.00,1.22
7889.00,1.22
7888.00,1.22
7887.00,1.22
7886.00,1.22
7885.00,1.22
7884.00,1.22
7883.00,1.22
7882.00,1.22
7881.00,1.21
7880.00,1.21
7879.00,1.21
7878.00,1.21
7877.00,1.21
7876.00,1.21
7875.00,1.21
7874.00,1.20
7873.00,1.20
7872.00,1.20
7871.00,1.20
7870.00,1.20
7869.00,1.20
7868.00,1.20
7867.00,1.20
7866.00,1.20
7865.00,1.20
7864.00,1.20
7863.00,1.20
7862.00,1.20
7861.00,1.20
7860.00,1.20
7859.00,1.20
7858.00,1.21
7857.00,1.21
7856.00,1.21
7855.00,1.21
7854.00,1.21
7853.00,1.21
7852.00,1.21
7851.00,1.21
7850.00,1.22
7849.00,1.22
7848.00,1.22
7847.00,1.22
7846.00,1.22
7845.00,1.22
7844.00,1.22
7843.00,1.22
7842.00,1.22
7841.00,1.22
7840.00,1.23
7839.00,1.23
7838.00,1.23
7837.00,1.23
7836.00,1.23
7835.00,1.22
7834.00,1.22
7833.00,1.22
7832.00,1.22
7831.00,1.22
7830.00,1.22
7829.00,1.22
7828.00,1.22
7827.00,1.22
7826.00,1.22
7825.00,1.22
7824.00,1.22
7823.00,1.22
7822.00,1.22
7821.00,1.22
7820.00,1.22
7819.00,1.22
7818.00,1.22
7817.00,1.22
7816.00,1.22
7815.00,1.22
7814.00,1.22
7813.00,1.22
7812.00,1.22
7811.00,1.22
7810.00,1.22
7809.00,1.22
7808.00,1.22
7807.00,1.22
7806.00,1.22
7805.00,1.22
7804.00,1.22
7803.00,1.22
7802.00,1.22
7801.00,1.22
7800.00,1.22
7799.00,1.22
7798.00,1.23
7797.00,1.23
7796.00,1.23
7795.00,1.23
7794.00,1.23
7793.00,1.23
7792.00,1.23
7791.00,1.23
7790.00,1.23
7789.00,1.23
7788.00,1.22
7787.00,1.22
7786.00,1.22
7785.00,1.22
7784.00,1.22
7783.00,1.22
7782.00,1.22
7781.00,1.22
7780.00,1.22
7779.00,1.22
7778.00,1.21
7777.00,1.21
7776.00,1.21
7775.00,1.21
7774.00,1.21
7773.00,1.21
7772.00,1.21
7771.00,1.21
7770.00,1.21
7769.00,1.21
7768.00,1.21
7767.00,1.21
7766.00,1.21
7765.00,1.21
7764.00,1.22
7763.00,1.22
7762.00,1.22
7761.00,1.22
7760.00,1.22
7759.00,1.22
7758.00,1.22
7757.00,1.22
7756.00,1.22
7755.00,1.22
7754.00,1.22
7753.00,1.22
7752.00,1.22
7751.00,1.22
7750.00,1.22
7749.00,1.22
7748.00,1.22
7747.00,1.22
7746.00,1.22
7745.00,1.22
7744.00,1.22
7743.00,1.22
7742.00,1.22
7741.00,1.22
7740.00,1.23
7739.00,1.23
7738.00,1.23
7737.00,1.23
7736.00,1.23
7735.00,1.23
7734.00,1.23
7733.00,1.23
7732.00,1.23
7731.00,1.23
7730.00,1.23
7729.00,1.23
7728.00,1.22
7727.00,1.22
7726.00,1.22
7725.00,1.22
7724.00,1.22
7723.00,1.22
7722.00,1.22
7721.00,1.22
7720.00,1.22
7719.00,1.22
7718.00,1.22
7717.00,1.22
7716.00,1.22
7715.00,1.22
7714.00,1.22
7713.00,1.22
7712.00,1.22
7711.00,1.22
7710.00,1.23
7709.00,1.23
7708.00,1.23
7707.00,1.23
7706.00,1.23
7705.00,1.23
7704.00,1.23
7703.00,1.23
7702.00,1.23
7701.00,1.23
7700.00,1.23
7699.00,1.22
7698.00,1.22
7697.00,1.22
7696.00,1.22
7695.00,1.22
7694.00,1.22
7693.00,1.22
7692.00,1.22
7691.00,1.22
7690.00,1.22
7689.00,1.22
7688.00,1.22
7687.00,1.22
7686.00,1.22
7685.00,1.22
7684.00,1.22
7683.00,1.22
7682.00,1.22
7681.00,1.23
7680.00,1.23
7679.00,1.23
7678.00,1.23
7677.00,1.23
7676.00,1.23
7675.00,1.23
7674.00,1.23
7673.00,1.23
7672.00,1.23
7671.00,1.23
7670.00,1.23
7669.00,1.23
7668.00,1.22
7667.00,1.22
7666.00,1.22
7665.00,1.22
7664.00,1.22
7663.00,1.22
7662.00,1.22
7661.00,1.22
7660.00,1.22
7659.00,1.22
7658.00,1.22
7657.00,1.22
7656.00,1.22
7655.00,1.22
7654.00,1.22
7653.00,1.22
7652.00,1.22
7651.00,1.22
7650.00,1.22
7649.00,1.22
7648.00,1.22
7647.00,1.22
7646.00,1.22
7645.00,1.22
7644.00,1.22
7643.00,1.22
7642.00,1.22
7641.00,1.22
7640.00,1.22
7639.00,1.22
7638.00,1.22
7637.00,1.22
7636.00,1.22
7635.00,1.22
7634.00,1.22
7633.00,1.22
7632.00,1.23
7631.00,1.23
7630.00,1.23
7629.00,1.23
7628.00,1.23
7627.00,1.23
7626.00,1.23
7625.00,1.23
7624.00,1.23
7623.00,1.23
7622.00,1.23
7621.00,1.23
7620.00,1.23
7619.00,1.23
7618.00,1.23
7617.00,1.23
7616.00,1.23
7615.00,1.23
7614.00,1.23
7613.00,1.23
7612.00,1.23
7611.00,1.23
7610.00,1.23
7609.00,1.23
7608.00,1.23
7607.00,1.23
7606.00,1.23
7605.00,1.23
7604.00,1.23
7603.00,1.23
7602.00,1.23
7601.00,1.23
7600.00,1.23
7599.00,1.23
7598.00,1.23
7597.00,1.23
7596.00,1.23
7595.00,1.23
7594.00,1.23
7593.00,1.23
7592.00,1.23
7591.00,1.23
7590.00,1.23
7589.00,1.23
7588.00,1.23
7587.00,1.22
7586.00,1.22
7585.00,1.22
7584.00,1.22
7583.00,1.22
7582.00,1.22
7581.00,1.22
7580.00,1.22
7579.00,1.22
7578.00,1.22
7577.00,1.22
7576.00,1.22
7575.00,1.22
7574.00,1.22
7573.00,1.22
7572.00,1.23
7571.00,1.23
7570.00,1.23
7569.00,1.23
7568.00,1.23
7567.00,1.23
7566.00,1.23
7565.00,1.23
7564.00,1.23
7563.00,1.23
7562.00,1.23
7561.00,1.23
7560.00,1.23
7559.00,1.23
7558.00,1.22
7557.00,1.22
7556.00,1.22
7555.00,1.22
7554.00,1.22
7553.00,1.22
7552.00,1.22
7551.00,1.22
7550.00,1.22
7549.00,1.22
7548.00,1.22
7547.00,1.22
7546.00,1.22
7545.00,1.22
7544.00,1.22
7543.00,1.22
7542.00,1.22
7541.00,1.22
7540.00,1.22
7539.00,1.22
7538.00,1.22
7537.00,1.22
7536.00,1.22
7535.00,1.22
7534.00,1.22
7533.00,1.22
7532.00,1.22
7531.00,1.22
7530.00,1.22
7529.00,1.21
7528.00,1.21
7527.00,1.21
7526.00,1.21
7525.00,1.21
7524.00,1.21
7523.00,1.21
7522.00,1.21
7521.00,1.21
7520.00,1.21
7519.00,1.21
7518.00,1.21
7517.00,1.21
7516.00,1.20
7515.00,1.20
7514.00,1.20
7513.00,1.20
7512.00,1.20
7511.00,1.20
7510.00,1.20
7509.00,1.20
7508.00,1.20
7507.00,1.20
7506.00,1.20
7505.00,1.20
7504.00,1.20
7503.00,1.20
7502.00,1.20
7501.00,1.20
7500.00,1.20
7499.00,1.20
7498.00,1.20
7497.00,1.20
7496.00,1.20
7495.00,1.20
7494.00,1.20
7493.00,1.20
7492.00,1.20
7491.00,1.20
7490.00,1.20
7489.00,1.20
7488.00,1.20
7487.00,1.20
7486.00,1.20
7485.00,1.20
7484.00,1.20
7483.00,1.20
7482.00,1.20
7481.00,1.20
7480.00,1.20
7479.00,1.20
7478.00,1.20
7477.00,1.20
7476.00,1.20
7475.00,1.20
7474.00,1.20
7473.00,1.20
7472.00,1.20
7471.00,1.20
7470.00,1.20
7469.00,1.20
7468.00,1.20
7467.00,1.20
7466.00,1.20
7465.00,1.20
7464.00,1.20
7463.00,1.20
7462.00,1.20
7461.00,1.20
7460.00,1.20
7459.00,1.19
7458.00,1.19
7457.00,1.19
7456.00,1.19
7455.00,1.19
7454.00,1.19
7453.00,1.19
7452.00,1.19
7451.00,1.19
7450.00,1.19
7449.00,1.19
7448.00,1.19
7447.00,1.19
7446.00,1.20
7445.00,1.20
7444.00,1.20
7443.00,1.20
7442.00,1.20
7441.00,1.20
7440.00,1.20
7439.00,1.20
7438.00,1.20
7437.00,1.20
7436.00,1.20
7435.00,1.20
7434.00,1.20
7433.00,1.20
7432.00,1.19
7431.00,1.19
7430.00,1.19
7429.00,1.19
7428.00,1.19
7427.00,1.19
7426.00,1.19
7425.00,1.19
7424.00,1.19
7423.00,1.18
7422.00,1.18
7421.00,1.18
7420.00,1.18
7419.00,1.18
7418.00,1.18
7417.00,1.18
7416.00,1.18
7415.00,1.18
7414.00,1.18
7413.00,1.17
7412.00,1.17
7411.00,1.17
7410.00,1.17
7409.00,1.17
7408.00,1.17
7407.00,1.17
7406.00,1.17
7405.00,1.17
7404.00,1.17
7403.00,1.17
7402.00,1.17
7401.00,1.17
7400.00,1.17
7399.00,1.17
7398.00,1.17
7397.00,1.17
7396.00,1.16
7395.00,1.16
7394.00,1.16
7393.00,1.16
7392.00,1.16
7391.00,1.16
7390.00,1.16
7389.00,1.16
7388.00,1.16
7387.00,1.16
7386.00,1.16
7385.00,1.16
7384.00,1.16
7383.00,1.16
7382.00,1.16
7381.00,1.16
7380.00,1.16
7379.00,1.16
7378.00,1.16
7377.00,1.15
7376.00,1.15
7375.00,1.15
7374.00,1.15
7373.00,1.15
7372.00,1.15
7371.00,1.15
7370.00,1.15
7369.00,1.15
7368.00,1.15
7367.00,1.15
7366.00,1.15
7365.00,1.15
7364.00,1.15
7363.00,1.15
7362.00,1.15
7361.00,1.15
7360.00,1.15
7359.00,1.15
7358.00,1.15
7357.00,1.14
7356.00,1.14
7355.00,1.14
7354.00,1.14
7353.00,1.14
7352.00,1.14
7351.00,1.14
7350.00,1.14
7349.00,1.14
7348.00,1.14
7347.00,1.14
7346.00,1.14
7345.00,1.14
7344.00,1.14
7343.00,1.14
7342.00,1.14
7341.00,1.14
7340.00,1.14
7339.00,1.14
7338.00,1.14
7337.00,1.14
7336.00,1.14
7335.00,1.14
7334.00,1.14
7333.00,1.14
7332.00,1.14
7331.00,1.14
7330.00,1.14
7329.00,1.14
7328.00,1.14
7327.00,1.14
7326.00,1.14
7325.00,1.14
7324.00,1.14
7323.00,1.14
7322.00,1.14
7321.00,1.14
7320.00,1.14
7319.00,1.14
7318.00,1.14
7317.00,1.14
7316.00,1.14
7315.00,1.14
7314.00,1.14
7313.00,1.14
7312.00,1.14
7311.00,1.14
7310.00,1.14
7309.00,1.14
7308.00,1.14
7307.00,1.14
7306.00,1.14
7305.00,1.14
7304.00,1.14
7303.00,1.14
7302.00,1.13
7301.00,1.13
7300.00,1.13
7299.00,1.13
7298.00,1.13
7297.00,1.13
7296.00,1.13
7295.00,1.13
7294.00,1.13
7293.00,1.13
7292.00,1.13
7291.00,1.13
7290.00,1.13
7289.00,1.13
7288.00,1.13
7287.00,1.13
7286.00,1.13
7285.00,1.13
7284.00,1.13
7283.00,1.12
7282.00,1.12
7281.00,1.12
7280.00,1.12
7279.00,1.12
7278.00,1.12
7277.00,1.12
7276.00,1.12
7275.00,1.12
7274.00,1.12
7273.00,1.12
7272.00,1.12
7271.00,1.12
7270.00,1.12
7269.00,1.12
7268.00,1.11
7267.00,1.11
7266.00,1.11
7265.00,1.11
7264.00,1.11
7263.00,1.11
7262.00,1.11
7261.00,1.11
7260.00,1.11
7259.00,1.11
7258.00,1.11
7257.00,1.11
7256.00,1.10
7255.00,1.10
7254.00,1.10
7253.00,1.10
7252.00,1.10
7251.00,1.10
7250.00,1.10
7249.00,1.10
7248.00,1.09
7247.00,1.09
7246.00,1.09
7245.00,1.09
7244.00,1.09
7243.00,1.08
7242.00,1.08
7241.00,1.08
7240.00,1.07
7239.00,1.07
7238.00,1.07
7237.00,1.07
7236.00,1.06
7235.00,1.06
7234.00,1.06
7233.00,1.06
7232.00,1.05
7231.00,1.05
7230.00,1.05
7229.00,1.05
7228.00,1.04
7227.00,1.04
7226.00,1.04
7225.00,1.03
7224.00,1.03
7223.00,1.03
7222.00,1.03
7221.00,1.02
7220.00,1.02
7219.00,1.02
7218.00,1.02
7217.00,1.01
7216.00,1.01
7215.00,1.01
7214.00,1.01
7213.00,1.01
7212.00,1.00
7211.00,1.00
7210.00,1.00
7209.00,1.00
7208.00,1.00
7207.00,0.99
7206.00,0.99
7205.00,0.99
7204.00,0.99
7203.00,0.99
7202.00,0.98
7201.00,0.98
7200.00,0.98
7199.00,0.98
7198.00,0.97
7197.00,0.97
7196.00,0.97
7195.00,0.97
7194.00,0.97
7193.00,0.96
7192.00,0.96
7191.00,0.96
7190.00,0.96
7189.00,0.95
7188.00,0.95
7187.00,0.95
7186.00,0.95
7185.00,0.94
7184.00,0.94
7183.00,0.94
7182.00,0.94
7181.00,0.93
7180.00,0.93
7179.00,0.93
7178.00,0.93
7177.00,0.92
7176.00,0.92
7175.00,0.92
7174.00,0.92
7173.00,0.92
7172.00,0.92
7171.00,0.91
7170.00,0.91
7169.00,0.91
7168.00,0.91
7167.00,0.91
7166.00,0.91
7165.00,0.90
7164.00,0.90
7163.00,0.90
7162.00,0.90
7161.00,0.90
7160.00,0.90
7159.00,0.89
7158.00,0.89
7157.00,0.89
7156.00,0.89
7155.00,0.88
7154.00,0.88
7153.00,0.88
7152.00,0.88
7151.00,0.87
7150.00,0.87
7149.00,0.87
7148.00,0.86
7147.00,0.86
7146.00,0.86
7145.00,0.85
7144.00,0.85
7143.00,0.85
7142.00,0.85
7141.00,0.84
7140.00,0.84
7139.00,0.84
7138.00,0.84
7137.00,0.84
7136.00,0.84
7135.00,0.83
7134.00,0.83
7133.00,0.83
7132.00,0.83
7131.00,0.83
7130.00,0.83
7129.00,0.82
7128.00,0.82
7127.00,0.82
7126.00,0.82
7125.00,0.82
7124.00,0.81
7123.00,0.81
7122.00,0.81
7121.00,0.81
7120.00,0.80
7119.00,0.80
7118.00,0.80
7117.00,0.79
7116.00,0.79
7115.00,0.79
7114.00,0.79
7113.00,0.79
7112.00,0.78
7111.00,0.78
7110.00,0.78
7109.00,0.78
7108.00,0.78
7107.00,0.77
7106.00,0.77
7105.00,0.77
7104.00,0.77
7103.00,0.76
7102.00,0.76
7101.00,0.76
7100.00,0.76
7099.00,0.75
7098.00,0.75
7097.00,0.75
7096.00,0.75
7095.00,0.74
7094.00,0.74
7093.00,0.74
7092.00,0.74
7091.00,0.74
7090.00,0.74
7089.00,0.74
7088.00,0.73
7087.00,0.73
7086.00,0.73
7085.00,0.73
7084.00,0.73
7083.00,0.73
7082.00,0.73
7081.00,0.73
7080.00,0.73
7079.00,0.73
7078.00,0.73
7077.00,0.73
7076.00,0.72
7075.00,0.72
7074.00,0.72
7073.00,0.72
7072.00,0.72
7071.00,0.72
7070.00,0.72
7069.00,0.72
7068.00,0.72
7067.00,0.72
7066.00,0.71
7065.00,0.71
7064.00,0.71
7063.00,0.71
7062.00,0.71
7061.00,0.71
7060.00,0.71
7059.00,0.71
7058.00,0.70
7057.00,0.70
7056.00,0.70
7055.00,0.70
7054.00,0.70
7053.00,0.70
7052.00,0.70
7051.00,0.69
7050.00,0.69
7049.00,0.69
7048.00,0.69
7047.00,0.69
7046.00,0.69
7045.00,0.69
7044.00,0.69
7043.00,0.69
7042.00,0.68
7041.00,0.68
7040.00,0.68
7039.00,0.68
7038.00,0.68
7037.00,0.68
7036.00,0.68
7035.00,0.68
7034.00,0.68
7033.00,0.68
7032.00,0.67
7031.00,0.67
7030.00,0.67
7029.00,0.67
7028.00,0.67
7027.00,0.67
7026.00,0.67
7025.00,0.67
7024.00,0.67
7023.00,0.67
7022.00,0.67
7021.00,0.67
7020.00,0.67
7019.00,0.66
7018.00,0.66
7017.00,0.66
7016.00,0.66
7015.00,0.66
7014.00,0.66
7013.00,0.66
7012.00,0.66
7011.00,0.66
7010.00,0.66
7009.00,0.66
7008.00,0.66
7007.00,0.66
7006.00,0.66
7005.00,0.66
7004.00,0.66
7003.00,0.66
7002.00,0.65
7001.00,0.65
7000.00,0.65
6999.00,0.65
6998.00,0.65
6997.00,0.65
6996.00,0.65
6995.00,0.65
6994.00,0.65
6993.00,0.64
6992.00,0.64
6991.00,0.64
6990.00,0.64
6989.00,0.64
6988.00,0.64
6987.00,0.64
6986.00,0.64
6985.00,0.64
6984.00,0.65
6983.00,0.65
6982.00,0.65
6981.00,0.65
6980.00,0.65
6979.00,0.65
6978.00,0.65
6977.00,0.65
6976.00,0.65
6975.00,0.65
6974.00,0.65
6973.00,0.65
6972.00,0.64
6971.00,0.64
6970.00,0.64
6969.00,0.64
6968.00,0.64
6967.00,0.64
6966.00,0.64
6965.00,0.64
6964.00,0.64
6963.00,0.64
6962.00,0.64
6961.00,0.63
6960.00,0.63
6959.00,0.63
6958.00,0.63
6957.00,0.63
6956.00,0.63
6955.00,0.63
6954.00,0.63
6953.00,0.63
6952.00,0.63
6951.00,0.63
6950.00,0.63
6949.00,0.63
6948.00,0.63
6947.00,0.63
6946.00,0.63
6945.00,0.63
6944.00,0.63
6943.00,0.63
6942.00,0.63
6941.00,0.63
6940.00,0.63
6939.00,0.63
6938.00,0.63
6937.00,0.63
6936.00,0.63
6935.00,0.63
6934.00,0.63
6933.00,0.63
6932.00,0.63
6931.00,0.63
6930.00,0.63
6929.00,0.63
6928.00,0.63
6927.00,0.63
6926.00,0.63
6925.00,0.63
6924.00,0.63
6923.00,0.63
6922.00,0.63
6921.00,0.63
6920.00,0.63
6919.00,0.62
6918.00,0.62
6917.00,0.62
6916.00,0.62
6915.00,0.62
6914.00,0.62
6913.00,0.62
6912.00,0.62
6911.00,0.62
6910.00,0.62
6909.00,0.62
6908.00,0.62
6907.00,0.62
6906.00,0.62
6905.00,0.62
6904.00,0.62
6903.00,0.62
6902.00,0.62
6901.00,0.61
6900.00,0.61
6899.00,0.61
6898.00,0.61
6897.00,0.61
6896.00,0.61
6895.00,0.62
6894.00,0.62
6893.00,0.62
6892.00,0.62
6891.00,0.62
6890.00,0.62
6889.00,0.62
6888.00,0.62
6887.00,0.62
6886.00,0.62
6885.00,0.62
6884.00,0.62
6883.00,0.62
6882.00,0.62
6881.00,0.62
6880.00,0.62
6879.00,0.62
6878.00,0.62
6877.00,0.62
6876.00,0.62
6875.00,0.62
6874.00,0.62
6873.00,0.62
6872.00,0.62
6871.00,0.62
6870.00,0.62
6869.00,0.62
6868.00,0.62
6867.00,0.62
6866.00,0.61
6865.00,0.61
6864.00,0.61
6863.00,0.61
6862.00,0.61
6861.00,0.61
6860.00,0.61
6859.00,0.61
6858.00,0.61
6857.00,0.61
6856.00,0.61
6855.00,0.61
6854.00,0.61
6853.00,0.61
6852.00,0.61
6851.00,0.61
6850.00,0.61
6849.00,0.61
6848.00,0.62
6847.00,0.62
6846.00,0.62
6845.00,0.62
6844.00,0.62
6843.00,0.62
6842.00,0.62
6841.00,0.62
6840.00,0.62
6839.00,0.62
6838.00,0.62
6837.00,0.62
6836.00,0.62
6835.00,0.62
6834.00,0.62
6833.00,0.62
6832.00,0.62
6831.00,0.62
6830.00,0.62
6829.00,0.62
6828.00,0.62
6827.00,0.62
6826.00,0.62
6825.00,0.62
6824.00,0.62
6823.00,0.62
6822.00,0.62
6821.00,0.62
6820.00,0.62
6819.00,0.62
6818.00,0.62
6817.00,0.62
6816.00,0.62
6815.00,0.62
6814.00,0.62
6813.00,0.63
6812.00,0.63
6811.00,0.63
6810.00,0.63
6809.00,0.63
6808.00,0.63
6807.00,0.63
6806.00,0.63
6805.00,0.63
6804.00,0.63
6803.00,0.63
6802.00,0.63
6801.00,0.63
6800.00,0.63
6799.00,0.63
6798.00,0.63
6797.00,0.63
6796.00,0.63
6795.00,0.63
6794.00,0.64
6793.00,0.64
6792.00,0.64
6791.00,0.64
6790.00,0.64
6789.00,0.64
6788.00,0.64
6787.00,0.64
6786.00,0.64
6785.00,0.64
6784.00,0.64
6783.00,0.64
6782.00,0.64
6781.00,0.64
6780.00,0.64
6779.00,0.64
6778.00,0.65
6777.00,0.65
6776.00,0.65
6775.00,0.65
6774.00,0.65
6773.00,0.65
6772.00,0.65
6771.00,0.65
6770.00,0.65
6769.00,0.65
6768.00,0.65
6767.00,0.65
6766.00,0.65
6765.00,0.65
6764.00,0.65
6763.00,0.65
6762.00,0.65
6761.00,0.65
6760.00,0.65
6759.00,0.66
6758.00,0.66
6757.00,0.66
6756.00,0.66
6755.00,0.66
6754.00,0.66
6753.00,0.66
6752.00,0.66
6751.00,0.66
6750.00,0.66
6749.00,0.66
6748.00,0.66
6747.00,0.66
6746.00,0.66
6745.00,0.66
6744.00,0.66
6743.00,0.66
6742.00,0.66
6741.00,0.66
6740.00,0.67
6739.00,0.67
6738.00,0.67
6737.00,0.67
6736.00,0.67
6735.00,0.67
6734.00,0.67
6733.00,0.67
6732.00,0.67
6731.00,0.67
6730.00,0.67
6729.00,0.67
6728.00,0.67
6727.00,0.67
6726.00,0.67
6725.00,0.67
6724.00,0.67
6723.00,0.67
6722.00,0.68
6721.00,0.68
6720.00,0.68
6719.00,0.68
6718.00,0.68
6717.00,0.68
6716.00,0.68
6715.00,0.68
6714.00,0.68
6713.00,0.68
6712.00,0.68
6711.00,0.68
6710.00,0.69
6709.00,0.69
6708.00,0.69
6707.00,0.69
6706.00,0.69
6705.00,0.69
6704.00,0.69
6703.00,0.69
6702.00,0.69
6701.00,0.69
6700.00,0.69
6699.00,0.69
6698.00,0.69
6697.00,0.70
6696.00,0.70
6695.00,0.70
6694.00,0.70
6693.00,0.70
6692.00,0.70
6691.00,0.70
6690.00,0.71
6689.00,0.71
6688.00,0.71
6687.00,0.71
6686.00,0.71
6685.00,0.71
6684.00,0.71
6683.00,0.71
6682.00,0.71
6681.00,0.71
6680.00,0.72
6679.00,0.72
6678.00,0.72
6677.00,0.72
6676.00,0.72
6675.00,0.72
6674.00,0.72
6673.00,0.72
6672.00,0.72
6671.00,0.71
6670.00,0.72
6669.00,0.72
6668.00,0.72
6667.00,0.72
6666.00,0.72
6665.00,0.72
6664.00,0.72
6663.00,0.72
6662.00,0.72
6661.00,0.72
6660.00,0.72
6659.00,0.72
6658.00,0.72
6657.00,0.73
6656.00,0.73
6655.00,0.73
6654.00,0.73
6653.00,0.73
6652.00,0.73
6651.00,0.74
6650.00,0.74
6649.00,0.74
6648.00,0.74
6647.00,0.74
6646.00,0.74
6645.00,0.74
6644.00,0.75
6643.00,0.75
6642.00,0.75
6641.00,0.75
6640.00,0.75
6639.00,0.75
6638.00,0.75
6637.00,0.75
6636.00,0.75
6635.00,0.75
6634.00,0.75
6633.00,0.75
6632.00,0.75
6631.00,0.75
6630.00,0.75
6629.00,0.75
6628.00,0.75
6627.00,0.75
6626.00,0.75
6625.00,0.75
6624.00,0.75
6623.00,0.76
6622.00,0.76
6621.00,0.76
6620.00,0.76
6619.00,0.76
6618.00,0.76
6617.00,0.76
6616.00,0.76
6615.00,0.76
6614.00,0.77
6613.00,0.77
6612.00,0.77
6611.00,0.77
6610.00,0.77
6609.00,0.77
6608.00,0.77
6607.00,0.77
6606.00,0.77
6605.00,0.77
6604.00,0.77
6603.00,0.77
6602.00,0.77
6601.00,0.77
6600.00,0.77
6599.00,0.77
6598.00,0.77
6597.00,0.77
6596.00,0.77
6595.00,0.77
6594.00,0.78
6593.00,0.78
6592.00,0.78
6591.00,0.78
6590.00,0.78
6589.00,0.78
6588.00,0.78
6587.00,0.78
6586.00,0.78
6585.00,0.78
6584.00,0.78
6583.00,0.79
6582.00,0.79
6581.00,0.79
6580.00,0.79
6579.00,0.79
6578.00,0.79
6577.00,0.79
6576.00,0.79
6575.00,0.79
6574.00,0.79
6573.00,0.80
6572.00,0.80
6571.00,0.80
6570.00,0.80
6569.00,0.80
6568.00,0.80
6567.00,0.80
6566.00,0.80
6565.00,0.80
6564.00,0.80
6563.00,0.80
6562.00,0.80
6561.00,0.80
6560.00,0.81
6559.00,0.81
6558.00,0.81
6557.00,0.81
6556.00,0.81
6555.00,0.81
6554.00,0.81
6553.00,0.81
6552.00,0.81
6551.00,0.81
6550.00,0.81
6549.00,0.81
6548.00,0.81
6547.00,0.81
6546.00,0.81
6545.00,0.81
6544.00,0.81
6543.00,0.81
6542.00,0.82
6541.00,0.82
6540.00,0.82
6539.00,0.82
6538.00,0.82
6537.00,0.82
6536.00,0.82
6535.00,0.82
6534.00,0.82
6533.00,0.82
6532.00,0.82
6531.00,0.82
6530.00,0.83
6529.00,0.83
6528.00,0.83
6527.00,0.83
6526.00,0.83
6525.00,0.83
6524.00,0.83
6523.00,0.83
6522.00,0.83
6521.00,0.83
6520.00,0.84
6519.00,0.84
6518.00,0.84
6517.00,0.84
6516.00,0.84
6515.00,0.84
6514.00,0.84
6513.00,0.84
6512.00,0.84
6511.00,0.84
6510.00,0.84
6509.00,0.84
6508.00,0.84
6507.00,0.85
6506.00,0.85
6505.00,0.85
6504.00,0.85
6503.00,0.85
6502.00,0.85
6501.00,0.85
6500.00,0.85
6499.00,0.85
6498.00,0.85
6497.00,0.85
6496.00,0.85
6495.00,0.85
6494.00,0.85
6493.00,0.85
6492.00,0.85
6491.00,0.85
6490.00,0.86
6489.00,0.86
6488.00,0.86
6487.00,0.86
6486.00,0.86
6485.00,0.86
6484.00,0.86
6483.00,0.86
6482.00,0.86
6481.00,0.86
6480.00,0.86
6479.00,0.86
6478.00,0.86
6477.00,0.86
6476.00,0.86
6475.00,0.86
6474.00,0.86
6473.00,0.87
6472.00,0.87
6471.00,0.87
6470.00,0.87
6469.00,0.87
6468.00,0.87
6467.00,0.87
6466.00,0.87
6465.00,0.87
6464.00,0.87
6463.00,0.87
6462.00,0.87
6461.00,0.87
6460.00,0.87
6459.00,0.87
6458.00,0.87
6457.00,0.87
6456.00,0.87
6455.00,0.87
6454.00,0.87
6453.00,0.87
6452.00,0.87
6451.00,0.87
6450.00,0.87
6449.00,0.87
6448.00,0.87
6447.00,0.87
6446.00,0.87
6445.00,0.87
6444.00,0.87
6443.00,0.88
6442.00,0.88
6441.00,0.88
6440.00,0.88
6439.00,0.88
6438.00,0.88
6437.00,0.88
6436.00,0.88
6435.00,0.88
6434.00,0.88
6433.00,0.88
6432.00,0.88
6431.00,0.88
6430.00,0.88
6429.00,0.88
6428.00,0.88
6427.00,0.88
6426.00,0.88
6425.00,0.89
6424.00,0.89
6423.00,0.89
6422.00,0.89
6421.00,0.89
6420.00,0.89
6419.00,0.89
6418.00,0.89
6417.00,0.89
6416.00,0.89
6415.00,0.89
6414.00,0.89
6413.00,0.89
6412.00,0.89
6411.00,0.89
6410.00,0.89
6409.00,0.89
6408.00,0.89
6407.00,0.90
6406.00,0.90
6405.00,0.90
6404.00,0.90
6403.00,0.90
6402.00,0.90
6401.00,0.90
6400.00,0.90
6399.00,0.90
6398.00,0.90
6397.00,0.90
6396.00,0.90
6395.00,0.90
6394.00,0.90
6393.00,0.91
6392.00,0.91
6391.00,0.91
6390.00,0.91
6389.00,0.91
6388.00,0.91
6387.00,0.91
6386.00,0.91
6385.00,0.91
6384.00,0.91
6383.00,0.91
6382.00,0.91
6381.00,0.91
6380.00,0.91
6379.00,0.91
6378.00,0.91
6377.00,0.91
6376.00,0.91
6375.00,0.91
6374.00,0.91
6373.00,0.91
6372.00,0.91
6371.00,0.91
6370.00,0.91
6369.00,0.91
6368.00,0.91
6367.00,0.91
6366.00,0.91
6365.00,0.91
6364.00,0.91
6363.00,0.91
6362.00,0.91
6361.00,0.92
6360.00,0.92
6359.00,0.92
6358.00,0.92
6357.00,0.92
6356.00,0.92
6355.00,0.92
6354.00,0.92
6353.00,0.92
6352.00,0.92
6351.00,0.92
6350.00,0.92
6349.00,0.93
6348.00,0.93
6347.00,0.93
6346.00,0.93
6345.00,0.93
6344.00,0.93
6343.00,0.93
6342.00,0.93
6341.00,0.93
6340.00,0.93
6339.00,0.93
6338.00,0.93
6337.00,0.94
6336.00,0.94
6335.00,0.94
6334.00,0.94
6333.00,0.94
6332.00,0.94
6331.00,0.94
6330.00,0.94
6329.00,0.94
6328.00,0.94
6327.00,0.94
6326.00,0.94
6325.00,0.94
6324.00,0.95
6323.00,0.95
6322.00,0.95
6321.00,0.95
6320.00,0.95
6319.00,0.95
6318.00,0.95
6317.00,0.95
6316.00,0.95
6315.00,0.95
6314.00,0.95
6313.00,0.95
6312.00,0.96
6311.00,0.96
6310.00,0.96
6309.00,0.96
6308.00,0.96
6307.00,0.96
6306.00,0.96
6305.00,0.96
6304.00,0.96
6303.00,0.96
6302.00,0.96
6301.00,0.96
6300.00,0.96
6299.00,0.96
6298.00,0.96
6297.00,0.97
6296.00,0.97
6295.00,0.97
6294.00,0.97
6293.00,0.97
6292.00,0.97
6291.00,0.97
6290.00,0.97
6289.00,0.97
6288.00,0.97
6287.00,0.97
6286.00,0.97
6285.00,0.97
6284.00,0.97
6283.00,0.97
6282.00,0.97
6281.00,0.97
6280.00,0.98
6279.00,0.98
6278.00,0.98
6277.00,0.98
6276.00,0.98
6275.00,0.98
6274.00,0.98
6273.00,0.98
6272.00,0.98
6271.00,0.98
6270.00,0.99
6269.00,0.99
6268.00,0.99
6267.00,0.99
6266.00,0.99
6265.00,0.99
6264.00,0.99
6263.00,0.99
6262.00,0.99
6261.00,0.99
6260.00,0.99
6259.00,0.99
6258.00,0.99
6257.00,0.99
6256.00,0.99
6255.00,0.99
6254.00,0.99
6253.00,1.00
6252.00,1.00
6251.00,1.00
6250.00,1.00
6249.00,1.00
6248.00,1.00
6247.00,1.00
6246.00,1.00
6245.00,1.00
6244.00,1.00
6243.00,1.00
6242.00,1.01
6241.00,1.01
6240.00,1.01
6239.00,1.01
6238.00,1.01
6237.00,1.01
6236.00,1.01
6235.00,1.01
6234.00,1.02
6233.00,1.02
6232.00,1.02
6231.00,1.02
6230.00,1.02
6229.00,1.02
6228.00,1.02
6227.00,1.02
6226.00,1.02
6225.00,1.02
6224.00,1.02
6223.00,1.02
6222.00,1.02
6221.00,1.03
6220.00,1.03
6219.00,1.03
6218.00,1.03
6217.00,1.03
6216.00,1.03
6215.00,1.03
6214.00,1.03
6213.00,1.03
6212.00,1.03
6211.00,1.03
6210.00,1.03
6209.00,1.03
6208.00,1.03
6207.00,1.04
6206.00,1.04
6205.00,1.04
6204.00,1.04
6203.00,1.04
6202.00,1.04
6201.00,1.04
6200.00,1.04
6199.00,1.05
6198.00,1.05
6197.00,1.05
6196.00,1.05
6195.00,1.05
6194.00,1.05
6193.00,1.06
6192.00,1.06
6191.00,1.06
6190.00,1.06
6189.00,1.06
6188.00,1.06
6187.00,1.06
6186.00,1.06
6185.00,1.06
6184.00,1.06
6183.00,1.06
6182.00,1.06
6181.00,1.06
6180.00,1.06
6179.00,1.07
6178.00,1.07
6177.00,1.07
6176.00,1.07
6175.00,1.07
6174.00,1.07
6173.00,1.07
6172.00,1.07
6171.00,1.07
6170.00,1.07
6169.00,1.07
6168.00,1.07
6167.00,1.07
6166.00,1.08
6165.00,1.08
6164.00,1.08
6163.00,1.08
6162.00,1.08
6161.00,1.08
6160.00,1.08
6159.00,1.08
6158.00,1.08
6157.00,1.09
6156.00,1.09
6155.00,1.09
6154.00,1.09
6153.00,1.09
6152.00,1.09
6151.00,1.09
6150.00,1.09
6149.00,1.09
6148.00,1.10
6147.00,1.10
6146.00,1.10
6145.00,1.10
6144.00,1.10
6143.00,1.10
6142.00,1.10
6141.00,1.10
6140.00,1.10
6139.00,1.10
6138.00,1.10
6137.00,1.10
6136.00,1.11
6135.00,1.11
6134.00,1.11
6133.00,1.11
6132.00,1.11
6131.00,1.11
6130.00,1.11
6129.00,1.11
6128.00,1.11
6127.00,1.11
6126.00,1.11
6125.00,1.12
6124.00,1.12
6123.00,1.12
6122.00,1.12
6121.00,1.12
6120.00,1.12
6119.00,1.12
6118.00,1.12
6117.00,1.12
6116.00,1.12
6115.00,1.13
6114.00,1.13
6113.00,1.13
6112.00,1.13
6111.00,1.13
6110.00,1.13
6109.00,1.13
6108.00,1.13
6107.00,1.13
6106.00,1.14
6105.00,1.14
6104.00,1.14
6103.00,1.14
6102.00,1.14
6101.00,1.14
6100.00,1.14
6099.00,1.14
6098.00,1.15
6097.00,1.15
6096.00,1.15
6095.00,1.15
6094.00,1.15
6093.00,1.15
6092.00,1.15
6091.00,1.15
6090.00,1.15
6089.00,1.15
6088.00,1.15
6087.00,1.15
6086.00,1.15
6085.00,1.15
6084.00,1.15
6083.00,1.16
6082.00,1.16
6081.00,1.16
6080.00,1.16
6079.00,1.16
6078.00,1.16
6077.00,1.16
6076.00,1.16
6075.00,1.16
6074.00,1.16
6073.00,1.16
6072.00,1.16
6071.00,1.16
6070.00,1.16
6069.00,1.16
6068.00,1.16
6067.00,1.16
6066.00,1.16
6065.00,1.17
6064.00,1.17
6063.00,1.17
6062.00,1.17
6061.00,1.17
6060.00,1.17
6059.00,1.17
6058.00,1.17
6057.00,1.17
6056.00,1.17
6055.00,1.18
6054.00,1.18
6053.00,1.18
6052.00,1.18
6051.00,1.18
6050.00,1.18
6049.00,1.18
6048.00,1.18
6047.00,1.18
6046.00,1.18
6045.00,1.18
6044.00,1.18
6043.00,1.18
6042.00,1.18
6041.00,1.18
6040.00,1.18
6039.00,1.18
6038.00,1.18
6037.00,1.18
6036.00,1.18
6035.00,1.18
6034.00,1.18
6033.00,1.18
6032.00,1.18
6031.00,1.18
6030.00,1.18
6029.00,1.18
6028.00,1.18
6027.00,1.18
6026.00,1.18
6025.00,1.18
6024.00,1.19
6023.00,1.19
6022.00,1.19
6021.00,1.19
6020.00,1.19
6019.00,1.19
6018.00,1.19
6017.00,1.19
6016.00,1.19
6015.00,1.19
6014.00,1.19
6013.00,1.19
6012.00,1.19
6011.00,1.19
6010.00,1.19
6009.00,1.19
6008.00,1.19
6007.00,1.19
6006.00,1.19
6005.00,1.19
6004.00,1.19
6003.00,1.18
6002.00,1.18
6001.00,1.18
6000.00,1.18
5999.00,1.18
5998.00,1.18
5997.00,1.18
5996.00,1.18
5995.00,1.18
5994.00,1.18
5993.00,1.18
5992.00,1.18
5991.00,1.18
5990.00,1.17
5989.00,1.17
5988.00,1.17
5987.00,1.17
5986.00,1.17
5985.00,1.17
5984.00,1.17
5983.00,1.16
5982.00,1.16
5981.00,1.16
5980.00,1.16
5979.00,1.15
5978.00,1.15
5977.00,1.15
5976.00,1.15
5975.00,1.14
5974.00,1.14
5973.00,1.14
5972.00,1.13
5971.00,1.13
5970.00,1.13
5969.00,1.12
5968.00,1.12
5967.00,1.11
5966.00,1.11
5965.00,1.10
5964.00,1.10
5963.00,1.09
5962.00,1.09
5961.00,1.09
5960.00,1.08
5959.00,1.08
5958.00,1.07
5957.00,1.07
5956.00,1.06
5955.00,1.06
5954.00,1.05
5953.00,1.05
5952.00,1.04
5951.00,1.04
5950.00,1.04
5949.00,1.03
5948.00,1.03
5947.00,1.03
5946.00,1.02
5945.00,1.02
5944.00,1.02
5943.00,1.02
5942.00,1.01
5941.00,1.01
5940.00,1.01
5939.00,1.01
5938.00,1.01
5937.00,1.01
5936.00,1.01
5935.00,1.01
5934.00,1.01
5933.00,1.01
5932.00,1.01
5931.00,1.01
5930.00,1.01
5929.00,1.01
5928.00,1.01
5927.00,1.01
5926.00,1.01
5925.00,1.00
5924.00,1.00
5923.00,1.00
5922.00,1.00
5921.00,1.00
5920.00,1.00
5919.00,0.99
5918.00,0.99
5917.00,0.99
5916.00,0.99
5915.00,0.99
5914.00,0.98
5913.00,0.98
5912.00,0.98
5911.00,0.98
5910.00,0.98
5909.00,0.98
5908.00,0.98
5907.00,0.97
5906.00,0.97
5905.00,0.97
5904.00,0.97
5903.00,0.97
5902.00,0.97
5901.00,0.97
5900.00,0.97
5899.00,0.97
5898.00,0.97
5897.00,0.97
5896.00,0.98
5895.00,0.98
5894.00,0.98
5893.00,0.98
5892.00,0.98
5891.00,0.98
5890.00,0.99
5889.00,0.99
5888.00,0.99
5887.00,0.99
5886.00,0.99
5885.00,1.00
5884.00,1.00
5883.00,1.00
5882.00,1.00
5881.00,1.01
5880.00,1.01
5879.00,1.01
5878.00,1.01
5877.00,1.01
5876.00,1.01
5875.00,1.02
5874.00,1.02
5873.00,1.02
5872.00,1.02
5871.00,1.02
5870.00,1.02
5869.00,1.02
5868.00,1.02
5867.00,1.03
5866.00,1.03
5865.00,1.03
5864.00,1.03
5863.00,1.03
5862.00,1.03
5861.00,1.03
5860.00,1.03
5859.00,1.03
5858.00,1.04
5857.00,1.04
5856.00,1.04
5855.00,1.04
5854.00,1.04
5853.00,1.04
5852.00,1.04
5851.00,1.04
5850.00,1.04
5849.00,1.04
5848.00,1.04
5847.00,1.05
5846.00,1.05
5845.00,1.05
5844.00,1.05
5843.00,1.05
5842.00,1.05
5841.00,1.05
5840.00,1.04
5839.00,1.04
5838.00,1.04
5837.00,1.04
5836.00,1.04
5835.00,1.04
5834.00,1.04
5833.00,1.04
5832.00,1.04
5831.00,1.04
5830.00,1.04
5829.00,1.04
5828.00,1.04
5827.00,1.04
5826.00,1.04
5825.00,1.04
5824.00,1.04
5823.00,1.04
5822.00,1.04
5821.00,1.04
5820.00,1.04
5819.00,1.04
5818.00,1.04
5817.00,1.04
5816.00,1.04
5815.00,1.04
5814.00,1.04
5813.00,1.04
5812.00,1.04
5811.00,1.04
5810.00,1.04
5809.00,1.04
5808.00,1.04
5807.00,1.04
5806.00,1.04
5805.00,1.04
5804.00,1.04
5803.00,1.04
5802.00,1.04
5801.00,1.04
5800.00,1.04
5799.00,1.04
5798.00,1.04
5797.00,1.03
5796.00,1.03
5795.00,1.03
5794.00,1.03
5793.00,1.03
5792.00,1.03
5791.00,1.03
5790.00,1.03
5789.00,1.02
5788.00,1.02
5787.00,1.02
5786.00,1.02
5785.00,1.02
5784.00,1.02
5783.00,1.02
5782.00,1.02
5781.00,1.02
5780.00,1.02
5779.00,1.01
5778.00,1.01
5777.00,1.01
5776.00,1.01
5775.00,1.01
5774.00,1.01
5773.00,1.01
5772.00,1.01
5771.00,1.01
5770.00,1.01
5769.00,1.01
5768.00,1.01
5767.00,1.01
5766.00,1.01
5765.00,1.01
5764.00,1.01
5763.00,1.01
5762.00,1.02
5761.00,1.02
5760.00,1.02
5759.00,1.02
5758.00,1.02
5757.00,1.03
5756.00,1.03
5755.00,1.03
5754.00,1.03
5753.00,1.04
5752.00,1.04
5751.00,1.04
5750.00,1.04
5749.00,1.04
5748.00,1.05
5747.00,1.05
5746.00,1.05
5745.00,1.05
5744.00,1.06
5743.00,1.06
5742.00,1.06
5741.00,1.06
5740.00,1.06
5739.00,1.07
5738.00,1.07
5737.00,1.07
5736.00,1.07
5735.00,1.07
5734.00,1.07
5733.00,1.07
5732.00,1.08
5731.00,1.08
5730.00,1.08
5729.00,1.08
5728.00,1.08
5727.00,1.08
5726.00,1.08
5725.00,1.08
5724.00,1.08
5723.00,1.08
5722.00,1.08
5721.00,1.08
5720.00,1.08
5719.00,1.08
5718.00,1.08
5717.00,1.08
5716.00,1.08
5715.00,1.08
5714.00,1.08
5713.00,1.08
5712.00,1.08
5711.00,1.08
5710.00,1.08
5709.00,1.08
5708.00,1.08
5707.00,1.08
5706.00,1.08
5705.00,1.08
5704.00,1.08
5703.00,1.07
5702.00,1.07
5701.00,1.07
5700.00,1.07
5699.00,1.07
5698.00,1.07
5697.00,1.07
5696.00,1.07
5695.00,1.07
5694.00,1.07
5693.00,1.07
5692.00,1.07
5691.00,1.07
5690.00,1.06
5689.00,1.06
5688.00,1.06
5687.00,1.06
5686.00,1.06
5685.00,1.06
5684.00,1.06
5683.00,1.06
5682.00,1.06
5681.00,1.06
5680.00,1.06
5679.00,1.06
5678.00,1.06
5677.00,1.06
5676.00,1.06
5675.00,1.06
5674.00,1.06
5673.00,1.06
5672.00,1.06
5671.00,1.06
5670.00,1.06
5669.00,1.06
5668.00,1.06
5667.00,1.06
5666.00,1.06
5665.00,1.06
5664.00,1.06
5663.00,1.06
5662.00,1.06
5661.00,1.06
5660.00,1.06
5659.00,1.06
5658.00,1.06
5657.00,1.06
5656.00,1.06
5655.00,1.06
5654.00,1.07
5653.00,1.07
5652.00,1.07
5651.00,1.07
5650.00,1.07
5649.00,1.07
5648.00,1.07
5647.00,1.07
5646.00,1.07
5645.00,1.07
5644.00,1.08
5643.00,1.08
5642.00,1.08
5641.00,1.08
5640.00,1.08
5639.00,1.08
5638.00,1.08
5637.00,1.08
5636.00,1.08
5635.00,1.09
5634.00,1.09
5633.00,1.09
5632.00,1.09
5631.00,1.09
5630.00,1.09
5629.00,1.09
5628.00,1.09
5627.00,1.09
5626.00,1.10
5625.00,1.10
5624.00,1.10
5623.00,1.10
5622.00,1.10
5621.00,1.10
5620.00,1.10
5619.00,1.10
5618.00,1.10
5617.00,1.10
5616.00,1.11
5615.00,1.11
5614.00,1.11
5613.00,1.11
5612.00,1.11
5611.00,1.11
5610.00,1.11
5609.00,1.11
5608.00,1.11
5607.00,1.12
5606.00,1.12
5605.00,1.12
5604.00,1.12
5603.00,1.12
5602.00,1.12
5601.00,1.12
5600.00,1.13
5599.00,1.13
5598.00,1.13
5597.00,1.13
5596.00,1.13
5595.00,1.13
5594.00,1.13
5593.00,1.13
5592.00,1.14
5591.00,1.14
5590.00,1.14
5589.00,1.14
5588.00,1.14
5587.00,1.14
5586.00,1.14
5585.00,1.14
5584.00,1.14
5583.00,1.14
5582.00,1.14
5581.00,1.15
5580.00,1.15
5579.00,1.15
5578.00,1.15
5577.00,1.15
5576.00,1.15
5575.00,1.15
5574.00,1.15
5573.00,1.15
5572.00,1.15
5571.00,1.15
5570.00,1.15
5569.00,1.16
5568.00,1.16
5567.00,1.16
5566.00,1.16
5565.00,1.16
5564.00,1.16
5563.00,1.16
5562.00,1.16
5561.00,1.16
5560.00,1.16
5559.00,1.16
5558.00,1.17
5557.00,1.17
5556.00,1.17
5555.00,1.17
5554.00,1.17
5553.00,1.17
5552.00,1.17
5551.00,1.17
5550.00,1.17
5549.00,1.17
5548.00,1.17
5547.00,1.17
5546.00,1.17
5545.00,1.17
5544.00,1.17
5543.00,1.18
5542.00,1.18
5541.00,1.18
5540.00,1.18
5539.00,1.18
5538.00,1.18
5537.00,1.18
5536.00,1.18
5535.00,1.18
5534.00,1.18
5533.00,1.19
5532.00,1.19
5531.00,1.19
5530.00,1.19
5529.00,1.19
5528.00,1.19
5527.00,1.19
5526.00,1.19
5525.00,1.19
5524.00,1.19
5523.00,1.19
5522.00,1.19
5521.00,1.20
5520.00,1.20
5519.00,1.20
5518.00,1.20
5517.00,1.20
5516.00,1.20
5515.00,1.20
5514.00,1.20
5513.00,1.20
5512.00,1.20
5511.00,1.20
5510.00,1.20
5509.00,1.20
5508.00,1.20
5507.00,1.20
5506.00,1.20
5505.00,1.20
5504.00,1.20
5503.00,1.20
5502.00,1.20
5501.00,1.20
5500.00,1.20
5499.00,1.20
5498.00,1.20
5497.00,1.20
5496.00,1.20
5495.00,1.20
5494.00,1.20
5493.00,1.20
5492.00,1.20
5491.00,1.20
5490.00,1.20
5489.00,1.21
5488.00,1.21
5487.00,1.21
5486.00,1.21
5485.00,1.21
5484.00,1.21
5483.00,1.21
5482.00,1.21
5481.00,1.21
5480.00,1.21
5479.00,1.21
5478.00,1.21
5477.00,1.21
5476.00,1.21
5475.00,1.21
5474.00,1.22
5473.00,1.22
5472.00,1.22
5471.00,1.22
5470.00,1.22
5469.00,1.22
5468.00,1.22
5467.00,1.22
5466.00,1.22
5465.00,1.22
5464.00,1.22
5463.00,1.22
5462.00,1.22
5461.00,1.22
5460.00,1.22
5459.00,1.23
5458.00,1.23
5457.00,1.23
5456.00,1.23
5455.00,1.23
5454.00,1.23
5453.00,1.23
5452.00,1.23
5451.00,1.23
5450.00,1.23
5449.00,1.23
5448.00,1.23
5447.00,1.23
5446.00,1.23
5445.00,1.23
5444.00,1.23
5443.00,1.23
5442.00,1.23
5441.00,1.23
5440.00,1.23
5439.00,1.23
5438.00,1.23
5437.00,1.23
5436.00,1.23
5435.00,1.23
5434.00,1.23
5433.00,1.23
5432.00,1.23
5431.00,1.23
5430.00,1.23
5429.00,1.23
5428.00,1.23
5427.00,1.23
5426.00,1.23
5425.00,1.23
5424.00,1.23
5423.00,1.23
5422.00,1.23
5421.00,1.23
5420.00,1.23
5419.00,1.23
5418.00,1.23
5417.00,1.23
5416.00,1.23
5415.00,1.23
5414.00,1.23
5413.00,1.23
5412.00,1.23
5411.00,1.23
5410.00,1.23
5409.00,1.23
5408.00,1.23
5407.00,1.23
5406.00,1.23
5405.00,1.23
5404.00,1.23
5403.00,1.23
5402.00,1.23
5401.00,1.23
5400.00,1.23
5399.00,1.22
5398.00,1.22
5397.00,1.22
5396.00,1.22
5395.00,1.22
5394.00,1.22
5393.00,1.22
5392.00,1.22
5391.00,1.22
5390.00,1.21
5389.00,1.21
5388.00,1.21
5387.00,1.21
5386.00,1.21
5385.00,1.21
5384.00,1.21
5383.00,1.21
5382.00,1.20
5381.00,1.20
5380.00,1.20
5379.00,1.20
5378.00,1.20
5377.00,1.20
5376.00,1.19
5375.00,1.19
5374.00,1.19
5373.00,1.19
5372.00,1.18
5371.00,1.18
5370.00,1.18
5369.00,1.17
5368.00,1.17
5367.00,1.17
5366.00,1.16
5365.00,1.16
5364.00,1.15
5363.00,1.15
5362.00,1.15
5361.00,1.14
5360.00,1.14
5359.00,1.13
5358.00,1.13
5357.00,1.12
5356.00,1.12
5355.00,1.11
5354.00,1.10
5353.00,1.10
5352.00,1.09
5351.00,1.08
5350.00,1.08
5349.00,1.07
5348.00,1.06
5347.00,1.06
5346.00,1.05
5345.00,1.04
5344.00,1.04
5343.00,1.03
5342.00,1.02
5341.00,1.01
5340.00,1.01
5339.00,1.00
5338.00,0.99
5337.00,0.98
5336.00,0.98
5335.00,0.97
5334.00,0.96
5333.00,0.95
5332.00,0.95
5331.00,0.94
5330.00,0.93
5329.00,0.92
5328.00,0.92
5327.00,0.91
5326.00,0.90
5325.00,0.89
5324.00,0.88
5323.00,0.87
5322.00,0.87
5321.00,0.86
5320.00,0.85
5319.00,0.84
5318.00,0.83
5317.00,0.83
5316.00,0.82
5315.00,0.81
5314.00,0.80
5313.00,0.79
5312.00,0.79
5311.00,0.78
5310.00,0.77
5309.00,0.77
5308.00,0.76
5307.00,0.75
5306.00,0.74
5305.00,0.74
5304.00,0.73
5303.00,0.73
5302.00,0.72
5301.00,0.72
5300.00,0.71
5299.00,0.71
5298.00,0.70
5297.00,0.70
5296.00,0.69
5295.00,0.69
5294.00,0.69
5293.00,0.68
5292.00,0.68
5291.00,0.68
5290.00,0.67
5289.00,0.67
5288.00,0.67
5287.00,0.67
5286.00,0.66
5285.00,0.66
5284.00,0.66
5283.00,0.66
5282.00,0.66
5281.00,0.66
5280.00,0.65
5279.00,0.65
5278.00,0.65
5277.00,0.65
5276.00,0.65
5275.00,0.65
5274.00,0.65
5273.00,0.65
5272.00,0.65
5271.00,0.65
5270.00,0.65
5269.00,0.64
5268.00,0.64
5267.00,0.64
5266.00,0.64
5265.00,0.64
5264.00,0.64
5263.00,0.64
5262.00,0.64
5261.00,0.64
5260.00,0.64
5259.00,0.64
5258.00,0.64
5257.00,0.64
5256.00,0.64
5255.00,0.64
5254.00,0.64
5253.00,0.64
5252.00,0.64
5251.00,0.64
5250.00,0.63
5249.00,0.63
5248.00,0.63
5247.00,0.63
5246.00,0.63
5245.00,0.63
5244.00,0.63
5243.00,0.63
5242.00,0.63
5241.00,0.63
5240.00,0.63
5239.00,0.63
5238.00,0.63
5237.00,0.63
5236.00,0.63
5235.00,0.63
5234.00,0.63
5233.00,0.63
5232.00,0.63
5231.00,0.63
5230.00,0.63
5229.00,0.63
5228.00,0.63
5227.00,0.63
5226.00,0.63
5225.00,0.63
5224.00,0.63
5223.00,0.63
5222.00,0.63
5221.00,0.63
5220.00,0.63
5219.00,0.63
5218.00,0.63
5217.00,0.63
5216.00,0.63
5215.00,0.63
5214.00,0.63
5213.00,0.63
5212.00,0.63
5211.00,0.63
5210.00,0.63
5209.00,0.64
5208.00,0.64
5207.00,0.64
5206.00,0.64
5205.00,0.64
5204.00,0.64
5203.00,0.64
5202.00,0.64
5201.00,0.64
5200.00,0.64
5199.00,0.64
5198.00,0.64
5197.00,0.64
5196.00,0.64
5195.00,0.64
5194.00,0.64
5193.00,0.64
5192.00,0.64
5191.00,0.64
5190.00,0.64
5189.00,0.64
5188.00,0.64
5187.00,0.64
5186.00,0.64
5185.00,0.64
5184.00,0.64
5183.00,0.64
5182.00,0.64
5181.00,0.64
5180.00,0.64
5179.00,0.64
5178.00,0.64
5177.00,0.64
5176.00,0.64
5175.00,0.64
5174.00,0.64
5173.00,0.65
5172.00,0.65
5171.00,0.65
5170.00,0.65
5169.00,0.65
5168.00,0.65
5167.00,0.65
5166.00,0.65
5165.00,0.65
5164.00,0.65
5163.00,0.65
5162.00,0.65
5161.00,0.65
5160.00,0.65
5159.00,0.65
5158.00,0.65
5157.00,0.65
5156.00,0.65
5155.00,0.65
5154.00,0.65
5153.00,0.65
5152.00,0.65
5151.00,0.65
5150.00,0.65
5149.00,0.66
5148.00,0.66
5147.00,0.66
5146.00,0.66
5145.00,0.66
5144.00,0.66
5143.00,0.66
5142.00,0.66
5141.00,0.66
5140.00,0.66
5139.00,0.66
5138.00,0.66
5137.00,0.66
5136.00,0.66
5135.00,0.66
5134.00,0.66
5133.00,0.66
5132.00,0.66
5131.00,0.66
5130.00,0.66
5129.00,0.66
5128.00,0.66
5127.00,0.66
5126.00,0.66
5125.00,0.66
5124.00,0.66
5123.00,0.66
5122.00,0.66
5121.00,0.66
5120.00,0.66
5119.00,0.66
5118.00,0.66
5117.00,0.67
5116.00,0.67
5115.00,0.67
5114.00,0.67
5113.00,0.67
5112.00,0.67
5111.00,0.67
5110.00,0.67
5109.00,0.67
5108.00,0.67
5107.00,0.67
5106.00,0.67
5105.00,0.67
5104.00,0.67
5103.00,0.67
5102.00,0.67
5101.00,0.68
5100.00,0.68
5099.00,0.68
5098.00,0.68
5097.00,0.68
5096.00,0.68
5095.00,0.68
5094.00,0.68
5093.00,0.68
5092.00,0.68
5091.00,0.68
5090.00,0.68
5089.00,0.68
5088.00,0.68
5087.00,0.68
5086.00,0.68
5085.00,0.68
5084.00,0.69
5083.00,0.69
5082.00,0.69
5081.00,0.69
5080.00,0.69
5079.00,0.69
5078.00,0.69
5077.00,0.69
5076.00,0.69
5075.00,0.69
5074.00,0.69
5073.00,0.69
5072.00,0.69
5071.00,0.69
5070.00,0.69
5069.00,0.69
5068.00,0.69
5067.00,0.69
5066.00,0.69
5065.00,0.69
5064.00,0.69
5063.00,0.69
5062.00,0.69
5061.00,0.69
5060.00,0.69
5059.00,0.69
5058.00,0.70
5057.00,0.70
5056.00,0.70
5055.00,0.70
5054.00,0.70
5053.00,0.70
5052.00,0.70
5051.00,0.70
5050.00,0.70
5049.00,0.70
5048.00,0.70
5047.00,0.70
5046.00,0.71
5045.00,0.71
5044.00,0.71
5043.00,0.71
5042.00,0.71
5041.00,0.71
5040.00,0.71
5039.00,0.71
5038.00,0.71
5037.00,0.71
5036.00,0.71
5035.00,0.72
5034.00,0.72
5033.00,0.72
5032.00,0.72
5031.00,0.72
5030.00,0.72
5029.00,0.72
5028.00,0.72
5027.00,0.72
5026.00,0.72
5025.00,0.72
5024.00,0.73
5023.00,0.73
5022.00,0.73
5021.00,0.73
5020.00,0.73
5019.00,0.73
5018.00,0.73
5017.00,0.73
5016.00,0.73
5015.00,0.73
5014.00,0.74
5013.00,0.74
5012.00,0.74
5011.00,0.74
5010.00,0.74
5009.00,0.74
5008.00,0.74
5007.00,0.74
5006.00,0.74
5005.00,0.75
5004.00,0.75
5003.00,0.75
5002.00,0.75
5001.00,0.75
5000.00,0.75
4999.00,0.75
4998.00,0.75
4997.00,0.76
4996.00,0.76
4995.00,0.76
4994.00,0.76
4993.00,0.76
4992.00,0.76
4991.00,0.76
4990.00,0.76
4989.00,0.76
4988.00,0.76
4987.00,0.76
4986.00,0.77
4985.00,0.77
4984.00,0.77
4983.00,0.77
4982.00,0.77
4981.00,0.77
4980.00,0.77
4979.00,0.77
4978.00,0.77
4977.00,0.77
4976.00,0.77
4975.00,0.77
4974.00,0.77
4973.00,0.77
4972.00,0.77
4971.00,0.77
4970.00,0.78
4969.00,0.78
4968.00,0.78
4967.00,0.78
4966.00,0.78
4965.00,0.78
4964.00,0.78
4963.00,0.78
4962.00,0.78
4961.00,0.78
4960.00,0.78
4959.00,0.78
4958.00,0.79
4957.00,0.79
4956.00,0.79
4955.00,0.79
4954.00,0.79
4953.00,0.79
4952.00,0.79
4951.00,0.79
4950.00,0.79
4949.00,0.79
4948.00,0.79
4947.00,0.79
4946.00,0.79
4945.00,0.79
4944.00,0.80
4943.00,0.80
4942.00,0.80
4941.00,0.80
4940.00,0.80
4939.00,0.80
4938.00,0.80
4937.00,0.80
4936.00,0.80
4935.00,0.80
4934.00,0.80
4933.00,0.80
4932.00,0.80
4931.00,0.80
4930.00,0.80
4929.00,0.80
4928.00,0.81
4927.00,0.81
4926.00,0.81
4925.00,0.81
4924.00,0.81
4923.00,0.81
4922.00,0.81
4921.00,0.82
4920.00,0.82
4919.00,0.82
4918.00,0.82
4917.00,0.82
4916.00,0.82
4915.00,0.82
4914.00,0.82
4913.00,0.82
4912.00,0.83
4911.00,0.83
4910.00,0.83
4909.00,0.83
4908.00,0.83
4907.00,0.83
4906.00,0.83
4905.00,0.83
4904.00,0.83
4903.00,0.83
4902.00,0.83
4901.00,0.83
4900.00,0.83
4899.00,0.83
4898.00,0.83
4897.00,0.83
4896.00,0.83
4895.00,0.83
4894.00,0.83
4893.00,0.83
4892.00,0.83
4891.00,0.83
4890.00,0.83
4889.00,0.84
4888.00,0.84
4887.00,0.84
4886.00,0.84
4885.00,0.84
4884.00,0.84
4883.00,0.84
4882.00,0.84
4881.00,0.84
4880.00,0.84
4879.00,0.84
4878.00,0.85
4877.00,0.85
4876.00,0.85
4875.00,0.85
4874.00,0.85
4873.00,0.85
4872.00,0.85
4871.00,0.85
4870.00,0.85
4869.00,0.85
4868.00,0.85
4867.00,0.85
4866.00,0.85
4865.00,0.85
4864.00,0.85
4863.00,0.85
4862.00,0.85
4861.00,0.85
4860.00,0.85
4859.00,0.85
4858.00,0.85
4857.00,0.85
4856.00,0.85
4855.00,0.85
4854.00,0.85
4853.00,0.85
4852.00,0.86
4851.00,0.86
4850.00,0.86
4849.00,0.86
4848.00,0.86
4847.00,0.86
4846.00,0.86
4845.00,0.86
4844.00,0.86
4843.00,0.86
4842.00,0.86
4841.00,0.87
4840.00,0.87
4839.00,0.87
4838.00,0.87
4837.00,0.87
4836.00,0.87
4835.00,0.87
4834.00,0.87
4833.00,0.87
4832.00,0.87
4831.00,0.87
4830.00,0.87
4829.00,0.88
4828.00,0.88
4827.00,0.88
4826.00,0.88
4825.00,0.88
4824.00,0.88
4823.00,0.88
4822.00,0.88
4821.00,0.88
4820.00,0.88
4819.00,0.88
4818.00,0.88
4817.00,0.89
4816.00,0.89
4815.00,0.89
4814.00,0.89
4813.00,0.89
4812.00,0.89
4811.00,0.89
4810.00,0.89
4809.00,0.89
4808.00,0.89
4807.00,0.89
4806.00,0.89
4805.00,0.90
4804.00,0.90
4803.00,0.90
4802.00,0.90
4801.00,0.90
4800.00,0.90
4799.00,0.90
4798.00,0.90
4797.00,0.90
4796.00,0.91
4795.00,0.91
4794.00,0.91
4793.00,0.91
4792.00,0.91
4791.00,0.91
4790.00,0.91
4789.00,0.92
4788.00,0.92
4787.00,0.92
4786.00,0.92
4785.00,0.92
4784.00,0.92
4783.00,0.93
4782.00,0.93
4781.00,0.93
4780.00,0.93
4779.00,0.93
4778.00,0.93
4777.00,0.93
4776.00,0.93
4775.00,0.94
4774.00,0.94
4773.00,0.94
4772.00,0.94
4771.00,0.94
4770.00,0.94
4769.00,0.94
4768.00,0.94
4767.00,0.94
4766.00,0.95
4765.00,0.95
4764.00,0.95
4763.00,0.95
4762.00,0.95
4761.00,0.95
4760.00,0.95
4759.00,0.96
4758.00,0.96
4757.00,0.96
4756.00,0.96
4755.00,0.96
4754.00,0.96
4753.00,0.96
4752.00,0.96
4751.00,0.96
4750.00,0.97
4749.00,0.97
4748.00,0.97
4747.00,0.97
4746.00,0.97
4745.00,0.97
4744.00,0.97
4743.00,0.97
4742.00,0.98
4741.00,0.98
4740.00,0.98
4739.00,0.98
4738.00,0.98
4737.00,0.98
4736.00,0.98
4735.00,0.99
4734.00,0.99
4733.00,0.99
4732.00,0.99
4731.00,0.99
4730.00,0.99
4729.00,1.00
4728.00,1.00
4727.00,1.00
4726.00,1.00
4725.00,1.00
4724.00,1.00
4723.00,1.01
4722.00,1.01
4721.00,1.01
4720.00,1.01
4719.00,1.02
4718.00,1.02
4717.00,1.02
4716.00,1.02
4715.00,1.02
4714.00,1.03
4713.00,1.03
4712.00,1.03
4711.00,1.03
4710.00,1.03
4709.00,1.03
4708.00,1.04
4707.00,1.04
4706.00,1.04
4705.00,1.04
4704.00,1.04
4703.00,1.04
4702.00,1.04
4701.00,1.04
4700.00,1.04
4699.00,1.05
4698.00,1.05
4697.00,1.05
4696.00,1.05
4695.00,1.05
4694.00,1.05
4693.00,1.06
4692.00,1.06
4691.00,1.06
4690.00,1.06
4689.00,1.06
4688.00,1.07
4687.00,1.07
4686.00,1.07
4685.00,1.07
4684.00,1.07
4683.00,1.07
4682.00,1.08
4681.00,1.08
4680.00,1.08
4679.00,1.08
4678.00,1.08
4677.00,1.08
4676.00,1.08
4675.00,1.08
4674.00,1.08
4673.00,1.09
4672.00,1.09
4671.00,1.09
4670.00,1.09
4669.00,1.09
4668.00,1.09
4667.00,1.09
4666.00,1.09
4665.00,1.10
4664.00,1.10
4663.00,1.10
4662.00,1.10
4661.00,1.10
4660.00,1.11
4659.00,1.11
4658.00,1.11
4657.00,1.11
4656.00,1.11
4655.00,1.11
4654.00,1.11
4653.00,1.12
4652.00,1.12
4651.00,1.12
4650.00,1.12
4649.00,1.12
4648.00,1.12
4647.00,1.12
4646.00,1.12
4645.00,1.12
4644.00,1.12
4643.00,1.12
4642.00,1.12
4641.00,1.13
4640.00,1.13
4639.00,1.13
4638.00,1.13
4637.00,1.13
4636.00,1.13
4635.00,1.13
4634.00,1.13
4633.00,1.13
4632.00,1.13
4631.00,1.14
4630.00,1.14
4629.00,1.14
4628.00,1.14
4627.00,1.14
4626.00,1.14
4625.00,1.14
4624.00,1.14
4623.00,1.14
4622.00,1.14
4621.00,1.14
4620.00,1.14
4619.00,1.15
4618.00,1.15
4617.00,1.15
4616.00,1.15
4615.00,1.15
4614.00,1.15
4613.00,1.15
4612.00,1.15
4611.00,1.15
4610.00,1.15
4609.00,1.15
4608.00,1.15
4607.00,1.15
4606.00,1.16
4605.00,1.16
4604.00,1.16
4603.00,1.16
4602.00,1.16
4601.00,1.16
4600.00,1.16
4599.00,1.16
4598.00,1.16
4597.00,1.17
4596.00,1.17
4595.00,1.17
4594.00,1.17
4593.00,1.17
4592.00,1.17
4591.00,1.17
4590.00,1.18
4589.00,1.18
4588.00,1.18
4587.00,1.18
4586.00,1.18
4585.00,1.18
4584.00,1.18
4583.00,1.18
4582.00,1.19
4581.00,1.19
4580.00,1.19
4579.00,1.19
4578.00,1.19
4577.00,1.19
4576.00,1.19
4575.00,1.19
4574.00,1.19
4573.00,1.19
4572.00,1.19
4571.00,1.19
4570.00,1.19
4569.00,1.19
4568.00,1.19
4567.00,1.19
4566.00,1.20
4565.00,1.20
4564.00,1.20
4563.00,1.20
4562.00,1.20
4561.00,1.20
4560.00,1.20
4559.00,1.20
4558.00,1.20
4557.00,1.20
4556.00,1.21
4555.00,1.21
4554.00,1.21
4553.00,1.21
4552.00,1.21
4551.00,1.21
4550.00,1.21
4549.00,1.21
4548.00,1.21
4547.00,1.21
4546.00,1.21
4545.00,1.22
4544.00,1.22
4543.00,1.22
4542.00,1.22
4541.00,1.22
4540.00,1.22
4539.00,1.22
4538.00,1.22
4537.00,1.22
4536.00,1.22
4535.00,1.22
4534.00,1.22
4533.00,1.22
4532.00,1.22
4531.00,1.23
4530.00,1.23
4529.00,1.23
4528.00,1.23
4527.00,1.23
4526.00,1.23
4525.00,1.23
4524.00,1.23
4523.00,1.23
4522.00,1.23
4521.00,1.23
4520.00,1.23
4519.00,1.23
4518.00,1.23
4517.00,1.23
4516.00,1.23
4515.00,1.23
4514.00,1.23
4513.00,1.23
4512.00,1.23
4511.00,1.23
4510.00,1.23
4509.00,1.23
4508.00,1.23
4507.00,1.23
4506.00,1.23
4505.00,1.23
4504.00,1.23
4503.00,1.23
4502.00,1.23
4501.00,1.23
4500.00,1.23
4499.00,1.23
4498.00,1.23
4497.00,1.23
4496.00,1.23
4495.00,1.22
4494.00,1.22
4493.00,1.22
4492.00,1.22
4491.00,1.22
4490.00,1.22
4489.00,1.22
4488.00,1.22
4487.00,1.22
4486.00,1.22
4485.00,1.22
4484.00,1.21
4483.00,1.21
4482.00,1.21
4481.00,1.21
4480.00,1.21
4479.00,1.21
4478.00,1.20
4477.00,1.20
4476.00,1.20
4475.00,1.20
4474.00,1.20
4473.00,1.19
4472.00,1.19
4471.00,1.19
4470.00,1.19
4469.00,1.18
4468.00,1.18
4467.00,1.18
4466.00,1.17
4465.00,1.17
4464.00,1.17
4463.00,1.16
4462.00,1.16
4461.00,1.16
4460.00,1.15
4459.00,1.15
4458.00,1.15
4457.00,1.14
4456.00,1.14
4455.00,1.14
4454.00,1.13
4453.00,1.13
4452.00,1.13
4451.00,1.12
4450.00,1.12
4449.00,1.12
4448.00,1.11
4447.00,1.11
4446.00,1.10
4445.00,1.10
4444.00,1.09
4443.00,1.09
4442.00,1.08
4441.00,1.08
4440.00,1.07
4439.00,1.07
4438.00,1.06
4437.00,1.06
4436.00,1.05
4435.00,1.05
4434.00,1.04
4433.00,1.04
4432.00,1.03
4431.00,1.03
4430.00,1.02
4429.00,1.02
4428.00,1.02
4427.00,1.01
4426.00,1.01
4425.00,1.01
4424.00,1.01
4423.00,1.01
4422.00,1.00
4421.00,1.00
4420.00,1.00
4419.00,1.00
4418.00,1.00
4417.00,1.00
4416.00,1.00
4415.00,1.00
4414.00,1.00
4413.00,1.00
4412.00,1.00
4411.00,0.99
4410.00,0.99
4409.00,0.99
4408.00,0.99
4407.00,0.99
4406.00,0.99
4405.00,0.99
4404.00,0.99
4403.00,0.99
4402.00,0.99
4401.00,1.00
4400.00,1.00
4399.00,1.00
4398.00,1.00
4397.00,1.00
4396.00,1.00
4395.00,1.00
4394.00,1.00
4393.00,1.01
4392.00,1.01
4391.00,1.01
4390.00,1.01
4389.00,1.01
4388.00,1.01
4387.00,1.02
4386.00,1.02
4385.00,1.02
4384.00,1.02
4383.00,1.02
4382.00,1.02
4381.00,1.03
4380.00,1.03
4379.00,1.03
4378.00,1.03
4377.00,1.03
4376.00,1.03
4375.00,1.04
4374.00,1.04
4373.00,1.04
4372.00,1.04
4371.00,1.04
4370.00,1.04
4369.00,1.04
4368.00,1.04
4367.00,1.04
4366.00,1.04
4365.00,1.04
4364.00,1.04
4363.00,1.04
4362.00,1.04
4361.00,1.04
4360.00,1.04
4359.00,1.04
4358.00,1.04
4357.00,1.04
4356.00,1.04
4355.00,1.03
4354.00,1.03
4353.00,1.03
4352.00,1.03
4351.00,1.03
4350.00,1.03
4349.00,1.03
4348.00,1.03
4347.00,1.03
4346.00,1.03
4345.00,1.03
4344.00,1.03
4343.00,1.03
4342.00,1.03
4341.00,1.03
4340.00,1.03
4339.00,1.03
4338.00,1.03
4337.00,1.03
4336.00,1.03
4335.00,1.03
4334.00,1.03
4333.00,1.03
4332.00,1.03
4331.00,1.03
4330.00,1.03
4329.00,1.03
4328.00,1.03
4327.00,1.04
4326.00,1.04
4325.00,1.04
4324.00,1.04
4323.00,1.05
4322.00,1.05
4321.00,1.05
4320.00,1.05
4319.00,1.06
4318.00,1.06
4317.00,1.06
4316.00,1.06
4315.00,1.07
4314.00,1.07
4313.00,1.07
4312.00,1.07
4311.00,1.08
4310.00,1.08
4309.00,1.08
4308.00,1.08
4307.00,1.08
4306.00,1.09
4305.00,1.09
4304.00,1.09
4303.00,1.09
4302.00,1.09
4301.00,1.10
4300.00,1.10
4299.00,1.10
4298.00,1.10
4297.00,1.10
4296.00,1.11
4295.00,1.11
4294.00,1.11
4293.00,1.11
4292.00,1.11
4291.00,1.11
4290.00,1.12
4289.00,1.12
4288.00,1.12
4287.00,1.12
4286.00,1.12
4285.00,1.12
4284.00,1.13
4283.00,1.13
4282.00,1.13
4281.00,1.13
4280.00,1.13
4279.00,1.13
4278.00,1.13
4277.00,1.13
4276.00,1.13
4275.00,1.13
4274.00,1.13
4273.00,1.12
4272.00,1.12
4271.00,1.12
4270.00,1.12
4269.00,1.12
4268.00,1.12
4267.00,1.11
4266.00,1.11
4265.00,1.11
4264.00,1.11
4263.00,1.11
4262.00,1.10
4261.00,1.10
4260.00,1.10
4259.00,1.10
4258.00,1.10
4257.00,1.10
4256.00,1.10
4255.00,1.10
4254.00,1.10
4253.00,1.10
4252.00,1.10
4251.00,1.10
4250.00,1.10
4249.00,1.10
4248.00,1.10
4247.00,1.10
4246.00,1.10
4245.00,1.10
4244.00,1.11
4243.00,1.11
4242.00,1.11
4241.00,1.11
4240.00,1.11
4239.00,1.12
4238.00,1.12
4237.00,1.12
4236.00,1.12
4235.00,1.13
4234.00,1.13
4233.00,1.13
4232.00,1.13
4231.00,1.13
4230.00,1.14
4229.00,1.14
4228.00,1.14
4227.00,1.14
4226.00,1.15
4225.00,1.15
4224.00,1.15
4223.00,1.15
4222.00,1.15
4221.00,1.16
4220.00,1.16
4219.00,1.16
4218.00,1.16
4217.00,1.16
4216.00,1.16
4215.00,1.16
4214.00,1.16
4213.00,1.16
4212.00,1.16
4211.00,1.16
4210.00,1.16
4209.00,1.16
4208.00,1.16
4207.00,1.15
4206.00,1.15
4205.00,1.15
4204.00,1.15
4203.00,1.15
4202.00,1.15
4201.00,1.15
4200.00,1.15
4199.00,1.15
4198.00,1.15
4197.00,1.15
4196.00,1.15
4195.00,1.15
4194.00,1.15
4193.00,1.15
4192.00,1.15
4191.00,1.15
4190.00,1.15
4189.00,1.15
4188.00,1.15
4187.00,1.15
4186.00,1.15
4185.00,1.15
4184.00,1.15
4183.00,1.15
4182.00,1.15
4181.00,1.15
4180.00,1.15
4179.00,1.15
4178.00,1.15
4177.00,1.15
4176.00,1.15
4175.00,1.15
4174.00,1.15
4173.00,1.15
4172.00,1.15
4171.00,1.15
4170.00,1.15
4169.00,1.15
4168.00,1.15
4167.00,1.15
4166.00,1.15
4165.00,1.15
4164.00,1.15
4163.00,1.15
4162.00,1.15
4161.00,1.15
4160.00,1.15
4159.00,1.15
4158.00,1.15
4157.00,1.15
4156.00,1.15
4155.00,1.15
4154.00,1.15
4153.00,1.15
4152.00,1.15
4151.00,1.15
4150.00,1.15
4149.00,1.15
4148.00,1.15
4147.00,1.16
4146.00,1.16
4145.00,1.16
4144.00,1.16
4143.00,1.16
4142.00,1.16
4141.00,1.16
4140.00,1.16
4139.00,1.16
4138.00,1.16
4137.00,1.16
4136.00,1.16
4135.00,1.17
4134.00,1.17
4133.00,1.17
4132.00,1.17
4131.00,1.17
4130.00,1.17
4129.00,1.17
4128.00,1.17
4127.00,1.17
4126.00,1.17
4125.00,1.17
4124.00,1.17
4123.00,1.17
4122.00,1.17
4121.00,1.17
4120.00,1.17
4119.00,1.17
4118.00,1.17
4117.00,1.17
4116.00,1.17
4115.00,1.17
4114.00,1.17
4113.00,1.17
4112.00,1.17
4111.00,1.17
4110.00,1.17
4109.00,1.17
4108.00,1.17
4107.00,1.17
4106.00,1.17
4105.00,1.17
4104.00,1.17
4103.00,1.17
4102.00,1.17
4101.00,1.16
4100.00,1.16
4099.00,1.16
4098.00,1.16
4097.00,1.16
4096.00,1.16
4095.00,1.16
4094.00,1.16
4093.00,1.16
4092.00,1.16
4091.00,1.16
4090.00,1.16
4089.00,1.16
4088.00,1.16
4087.00,1.16
4086.00,1.16
4085.00,1.16
4084.00,1.16
4083.00,1.16
4082.00,1.16
4081.00,1.16
4080.00,1.16
4079.00,1.16
4078.00,1.16
4077.00,1.16
4076.00,1.16
4075.00,1.16
4074.00,1.17
4073.00,1.17
4072.00,1.17
4071.00,1.17
4070.00,1.17
4069.00,1.17
4068.00,1.17
4067.00,1.17
4066.00,1.17
4065.00,1.17
4064.00,1.17
4063.00,1.17
4062.00,1.17
4061.00,1.17
4060.00,1.17
4059.00,1.18
4058.00,1.18
4057.00,1.18
4056.00,1.18
4055.00,1.18
4054.00,1.18
4053.00,1.18
4052.00,1.18
4051.00,1.18
4050.00,1.18
4049.00,1.18
4048.00,1.18
4047.00,1.18
4046.00,1.18
4045.00,1.18
4044.00,1.18
4043.00,1.18
4042.00,1.18
4041.00,1.18
4040.00,1.18
4039.00,1.18
4038.00,1.18
4037.00,1.18
4036.00,1.18
4035.00,1.19
4034.00,1.19
4033.00,1.19
4032.00,1.19
4031.00,1.19
4030.00,1.19
4029.00,1.19
4028.00,1.19
4027.00,1.19
4026.00,1.19
4025.00,1.19
4024.00,1.19
4023.00,1.20
4022.00,1.20
4021.00,1.20
4020.00,1.20
4019.00,1.20
4018.00,1.21
4017.00,1.21
4016.00,1.21
4015.00,1.21
4014.00,1.21
4013.00,1.21
4012.00,1.22
4011.00,1.22
4010.00,1.22
4009.00,1.22
4008.00,1.22
4007.00,1.22
4006.00,1.22
4005.00,1.22
4004.00,1.23
4003.00,1.23
4002.00,1.23
4001.00,1.23
4000.00,1.23
