创建为新数据集,样品 160 用户 Administrator 日期 星期三, 十一月 08 2017
cm-1,%T
10000.00,1.25
9999.00,1.25
9998.00,1.24
9997.00,1.24
9996.00,1.24
9995.00,1.23
9994.00,1.23
9993.00,1.23
9992.00,1.23
9991.00,1.22
9990.00,1.22
9989.00,1.22
9988.00,1.22
9987.00,1.22
9986.00,1.22
9985.00,1.21
9984.00,1.21
9983.00,1.21
9982.00,1.21
9981.00,1.21
9980.00,1.21
9979.00,1.21
9978.00,1.21
9977.00,1.21
9976.00,1.21
9975.00,1.21
9974.00,1.21
9973.00,1.21
9972.00,1.21
9971.00,1.21
9970.00,1.21
9969.00,1.22
9968.00,1.22
9967.00,1.22
9966.00,1.22
9965.00,1.22
9964.00,1.22
9963.00,1.22
9962.00,1.22
9961.00,1.22
9960.00,1.22
9959.00,1.22
9958.00,1.22
9957.00,1.22
9956.00,1.22
9955.00,1.22
9954.00,1.22
9953.00,1.21
9952.00,1.21
9951.00,1.21
9950.00,1.21
9949.00,1.21
9948.00,1.21
9947.00,1.20
9946.00,1.20
9945.00,1.20
9944.00,1.20
9943.00,1.20
9942.00,1.20
9941.00,1.19
9940.00,1.19
9939.00,1.19
9938.00,1.19
9937.00,1.19
9936.00,1.19
9935.00,1.19
9934.00,1.19
9933.00,1.19
9932.00,1.19
9931.00,1.18
9930.00,1.18
9929.00,1.18
9928.00,1.18
9927.00,1.18
9926.00,1.18
9925.00,1.18
9924.00,1.18
9923.00,1.18
9922.00,1.18
9921.00,1.18
9920.00,1.18
9919.00,1.18
9918.00,1.18
9917.00,1.18
9916.00,1.18
9915.00,1.18
9914.00,1.18
9913.00,1.19
9912.00,1.19
9911.00,1.19
9910.00,1.19
9909.00,1.19
9908.00,1.19
9907.00,1.19
9906.00,1.19
9905.00,1.19
9904.00,1.19
9903.00,1.19
9902.00,1.19
9901.00,1.19
9900.00,1.19
9899.00,1.19
9898.00,1.19
9897.00,1.19
9896.00,1.19
9895.00,1.19
9894.00,1.19
9893.00,1.19
9892.00,1.19
9891.00,1.19
9890.00,1.19
9889.00,1.19
9888.00,1.19
9887.00,1.19
9886.00,1.19
9885.00,1.19
9884.00,1.19
9883.00,1.19
9882.00,1.20
9881.00,1.20
9880.00,1.20
9879.00,1.20
9878.00,1.20
9877.00,1.20
9876.00,1.20
9875.00,1.20
9874.00,1.20
9873.00,1.20
9872.00,1.20
9871.00,1.20
9870.00,1.20
9869.00,1.20
9868.00,1.20
9867.00,1.19
9866.00,1.19
9865.00,1.19
9864.00,1.19
9863.00,1.19
9862.00,1.19
9861.00,1.19
9860.00,1.19
9859.00,1.19
9858.00,1.19
9857.00,1.19
9856.00,1.19
9855.00,1.19
9854.00,1.19
9853.00,1.19
9852.00,1.19
9851.00,1.19
9850.00,1.19
9849.00,1.19
9848.00,1.19
9847.00,1.20
9846.00,1.20
9845.00,1.20
9844.00,1.19
9843.00,1.19
9842.00,1.19
9841.00,1.19
9840.00,1.19
9839.00,1.19
9838.00,1.19
9837.00,1.19
9836.00,1.19
9835.00,1.19
9834.00,1.19
9833.00,1.19
9832.00,1.19
9831.00,1.19
9830.00,1.19
9829.00,1.19
9828.00,1.19
9827.00,1.19
9826.00,1.19
9825.00,1.19
9824.00,1.19
9823.00,1.19
9822.00,1.19
9821.00,1.19
9820.00,1.19
9819.00,1.19
9818.00,1.19
9817.00,1.19
9816.00,1.19
9815.00,1.19
9814.00,1.19
9813.00,1.19
9812.00,1.19
9811.00,1.19
9810.00,1.19
9809.00,1.19
9808.00,1.19
9807.00,1.20
9806.00,1.20
9805.00,1.20
9804.00,1.20
9803.00,1.20
9802.00,1.20
9801.00,1.20
9800.00,1.20
9799.00,1.20
9798.00,1.20
9797.00,1.20
9796.00,1.20
9795.00,1.20
9794.00,1.21
9793.00,1.21
9792.00,1.21
9791.00,1.21
9790.00,1.21
9789.00,1.21
9788.00,1.21
9787.00,1.21
9786.00,1.21
9785.00,1.21
9784.00,1.21
9783.00,1.21
9782.00,1.22
9781.00,1.22
9780.00,1.22
9779.00,1.22
9778.00,1.22
9777.00,1.22
9776.00,1.22
9775.00,1.22
9774.00,1.22
9773.00,1.22
9772.00,1.22
9771.00,1.21
9770.00,1.21
9769.00,1.21
9768.00,1.21
9767.00,1.21
9766.00,1.20
9765.00,1.20
9764.00,1.20
9763.00,1.19
9762.00,1.19
9761.00,1.19
9760.00,1.18
9759.00,1.18
9758.00,1.18
9757.00,1.18
9756.00,1.18
9755.00,1.17
9754.00,1.17
9753.00,1.17
9752.00,1.17
9751.00,1.17
9750.00,1.17
9749.00,1.17
9748.00,1.18
9747.00,1.18
9746.00,1.18
9745.00,1.18
9744.00,1.18
9743.00,1.19
9742.00,1.19
9741.00,1.19
9740.00,1.19
9739.00,1.19
9738.00,1.20
9737.00,1.20
9736.00,1.20
9735.00,1.20
9734.00,1.20
9733.00,1.20
9732.00,1.20
9731.00,1.20
9730.00,1.19
9729.00,1.19
9728.00,1.19
9727.00,1.19
9726.00,1.19
9725.00,1.19
9724.00,1.19
9723.00,1.19
9722.00,1.19
9721.00,1.19
9720.00,1.19
9719.00,1.19
9718.00,1.19
9717.00,1.19
9716.00,1.19
9715.00,1.19
9714.00,1.19
9713.00,1.19
9712.00,1.19
9711.00,1.19
9710.00,1.19
9709.00,1.19
9708.00,1.19
9707.00,1.19
9706.00,1.19
9705.00,1.19
9704.00,1.18
9703.00,1.18
9702.00,1.18
9701.00,1.18
9700.00,1.18
9699.00,1.18
9698.00,1.18
9697.00,1.18
9696.00,1.18
9695.00,1.18
9694.00,1.18
9693.00,1.18
9692.00,1.18
9691.00,1.18
9690.00,1.19
9689.00,1.19
9688.00,1.19
9687.00,1.19
9686.00,1.19
9685.00,1.19
9684.00,1.19
9683.00,1.19
9682.00,1.19
9681.00,1.19
9680.00,1.19
9679.00,1.19
9678.00,1.19
9677.00,1.19
9676.00,1.19
9675.00,1.19
9674.00,1.19
9673.00,1.19
9672.00,1.19
9671.00,1.19
9670.00,1.19
9669.00,1.19
9668.00,1.19
9667.00,1.19
9666.00,1.20
9665.00,1.20
9664.00,1.20
9663.00,1.20
9662.00,1.20
9661.00,1.20
9660.00,1.20
9659.00,1.20
9658.00,1.20
9657.00,1.20
9656.00,1.20
9655.00,1.20
9654.00,1.20
9653.00,1.20
9652.00,1.20
9651.00,1.20
9650.00,1.20
9649.00,1.20
9648.00,1.20
9647.00,1.20
9646.00,1.20
9645.00,1.20
9644.00,1.20
9643.00,1.20
9642.00,1.20
9641.00,1.20
9640.00,1.20
9639.00,1.20
9638.00,1.20
9637.00,1.20
9636.00,1.20
9635.00,1.20
9634.00,1.20
9633.00,1.20
9632.00,1.20
9631.00,1.20
9630.00,1.20
9629.00,1.20
9628.00,1.20
9627.00,1.20
9626.00,1.20
9625.00,1.20
9624.00,1.20
9623.00,1.20
9622.00,1.19
9621.00,1.19
9620.00,1.19
9619.00,1.19
9618.00,1.19
9617.00,1.19
9616.00,1.19
9615.00,1.19
9614.00,1.19
9613.00,1.19
9612.00,1.19
9611.00,1.19
9610.00,1.19
9609.00,1.19
9608.00,1.18
9607.00,1.18
9606.00,1.18
9605.00,1.18
9604.00,1.18
9603.00,1.18
9602.00,1.18
9601.00,1.18
9600.00,1.18
9599.00,1.17
9598.00,1.17
9597.00,1.17
9596.00,1.17
9595.00,1.17
9594.00,1.18
9593.00,1.18
9592.00,1.18
9591.00,1.18
9590.00,1.18
9589.00,1.18
9588.00,1.18
9587.00,1.18
9586.00,1.18
9585.00,1.18
9584.00,1.18
9583.00,1.18
9582.00,1.18
9581.00,1.18
9580.00,1.18
9579.00,1.18
9578.00,1.18
9577.00,1.18
9576.00,1.18
9575.00,1.18
9574.00,1.18
9573.00,1.18
9572.00,1.18
9571.00,1.18
9570.00,1.18
9569.00,1.19
9568.00,1.19
9567.00,1.19
9566.00,1.19
9565.00,1.19
9564.00,1.19
9563.00,1.19
9562.00,1.19
9561.00,1.19
9560.00,1.20
9559.00,1.20
9558.00,1.20
9557.00,1.20
9556.00,1.20
9555.00,1.19
9554.00,1.19
9553.00,1.19
9552.00,1.19
9551.00,1.19
9550.00,1.19
9549.00,1.19
9548.00,1.19
9547.00,1.19
9546.00,1.18
9545.00,1.18
9544.00,1.18
9543.00,1.18
9542.00,1.18
9541.00,1.19
9540.00,1.19
9539.00,1.19
9538.00,1.19
9537.00,1.19
9536.00,1.20
9535.00,1.20
9534.00,1.20
9533.00,1.20
9532.00,1.21
9531.00,1.21
9530.00,1.21
9529.00,1.21
9528.00,1.21
9527.00,1.22
9526.00,1.22
9525.00,1.22
9524.00,1.22
9523.00,1.22
9522.00,1.22
9521.00,1.21
9520.00,1.21
9519.00,1.21
9518.00,1.21
9517.00,1.21
9516.00,1.21
9515.00,1.20
9514.00,1.20
9513.00,1.20
9512.00,1.20
9511.00,1.20
9510.00,1.20
9509.00,1.19
9508.00,1.19
9507.00,1.19
9506.00,1.19
9505.00,1.19
9504.00,1.19
9503.00,1.19
9502.00,1.19
9501.00,1.19
9500.00,1.19
9499.00,1.19
9498.00,1.19
9497.00,1.19
9496.00,1.19
9495.00,1.19
9494.00,1.19
9493.00,1.19
9492.00,1.19
9491.00,1.19
9490.00,1.19
9489.00,1.19
9488.00,1.19
9487.00,1.19
9486.00,1.19
9485.00,1.19
9484.00,1.19
9483.00,1.19
9482.00,1.19
9481.00,1.19
9480.00,1.19
9479.00,1.19
9478.00,1.19
9477.00,1.19
9476.00,1.19
9475.00,1.19
9474.00,1.19
9473.00,1.19
9472.00,1.19
9471.00,1.19
9470.00,1.19
9469.00,1.19
9468.00,1.19
9467.00,1.19
9466.00,1.19
9465.00,1.19
9464.00,1.19
9463.00,1.19
9462.00,1.19
9461.00,1.19
9460.00,1.20
9459.00,1.20
9458.00,1.20
9457.00,1.20
9456.00,1.20
9455.00,1.21
9454.00,1.21
9453.00,1.21
9452.00,1.21
9451.00,1.21
9450.00,1.21
9449.00,1.21
9448.00,1.21
9447.00,1.21
9446.00,1.20
9445.00,1.20
9444.00,1.20
9443.00,1.20
9442.00,1.20
9441.00,1.20
9440.00,1.20
9439.00,1.19
9438.00,1.19
9437.00,1.19
9436.00,1.19
9435.00,1.19
9434.00,1.19
9433.00,1.19
9432.00,1.19
9431.00,1.19
9430.00,1.19
9429.00,1.19
9428.00,1.19
9427.00,1.20
9426.00,1.20
9425.00,1.20
9424.00,1.20
9423.00,1.20
9422.00,1.20
9421.00,1.20
9420.00,1.20
9419.00,1.20
9418.00,1.20
9417.00,1.20
9416.00,1.20
9415.00,1.20
9414.00,1.20
9413.00,1.20
9412.00,1.20
9411.00,1.20
9410.00,1.20
9409.00,1.20
9408.00,1.20
9407.00,1.20
9406.00,1.20
9405.00,1.20
9404.00,1.20
9403.00,1.20
9402.00,1.20
9401.00,1.20
9400.00,1.20
9399.00,1.20
9398.00,1.19
9397.00,1.19
9396.00,1.19
9395.00,1.19
9394.00,1.19
9393.00,1.19
9392.00,1.18
9391.00,1.18
9390.00,1.18
9389.00,1.18
9388.00,1.18
9387.00,1.18
9386.00,1.18
9385.00,1.18
9384.00,1.19
9383.00,1.19
9382.00,1.19
9381.00,1.19
9380.00,1.19
9379.00,1.19
9378.00,1.20
9377.00,1.20
9376.00,1.20
9375.00,1.20
9374.00,1.20
9373.00,1.20
9372.00,1.20
9371.00,1.20
9370.00,1.20
9369.00,1.20
9368.00,1.20
9367.00,1.20
9366.00,1.20
9365.00,1.20
9364.00,1.20
9363.00,1.20
9362.00,1.20
9361.00,1.20
9360.00,1.20
9359.00,1.20
9358.00,1.20
9357.00,1.20
9356.00,1.20
9355.00,1.20
9354.00,1.20
9353.00,1.20
9352.00,1.21
9351.00,1.21
9350.00,1.21
9349.00,1.21
9348.00,1.21
9347.00,1.21
9346.00,1.21
9345.00,1.21
9344.00,1.21
9343.00,1.21
9342.00,1.21
9341.00,1.21
9340.00,1.21
9339.00,1.21
9338.00,1.21
9337.00,1.21
9336.00,1.21
9335.00,1.21
9334.00,1.21
9333.00,1.21
9332.00,1.20
9331.00,1.20
9330.00,1.20
9329.00,1.20
9328.00,1.20
9327.00,1.20
9326.00,1.20
9325.00,1.20
9324.00,1.20
9323.00,1.20
9322.00,1.20
9321.00,1.20
9320.00,1.20
9319.00,1.20
9318.00,1.20
9317.00,1.20
9316.00,1.20
9315.00,1.20
9314.00,1.20
9313.00,1.20
9312.00,1.20
9311.00,1.21
9310.00,1.21
9309.00,1.21
9308.00,1.21
9307.00,1.21
9306.00,1.21
9305.00,1.21
9304.00,1.21
9303.00,1.21
9302.00,1.21
9301.00,1.21
9300.00,1.21
9299.00,1.21
9298.00,1.20
9297.00,1.20
9296.00,1.20
9295.00,1.20
9294.00,1.20
9293.00,1.20
9292.00,1.19
9291.00,1.19
9290.00,1.19
9289.00,1.19
9288.00,1.19
9287.00,1.19
9286.00,1.19
9285.00,1.19
9284.00,1.19
9283.00,1.19
9282.00,1.19
9281.00,1.19
9280.00,1.19
9279.00,1.19
9278.00,1.19
9277.00,1.19
9276.00,1.19
9275.00,1.19
9274.00,1.19
9273.00,1.20
9272.00,1.20
9271.00,1.20
9270.00,1.20
9269.00,1.20
9268.00,1.20
9267.00,1.20
9266.00,1.20
9265.00,1.20
9264.00,1.20
9263.00,1.20
9262.00,1.20
9261.00,1.20
9260.00,1.20
9259.00,1.20
9258.00,1.20
9257.00,1.20
9256.00,1.20
9255.00,1.20
9254.00,1.20
9253.00,1.20
9252.00,1.20
9251.00,1.19
9250.00,1.19
9249.00,1.19
9248.00,1.19
9247.00,1.19
9246.00,1.19
9245.00,1.19
9244.00,1.19
9243.00,1.19
9242.00,1.19
9241.00,1.20
9240.00,1.20
9239.00,1.20
9238.00,1.20
9237.00,1.20
9236.00,1.20
9235.00,1.21
9234.00,1.21
9233.00,1.21
9232.00,1.21
9231.00,1.21
9230.00,1.21
9229.00,1.21
9228.00,1.21
9227.00,1.21
9226.00,1.21
9225.00,1.21
9224.00,1.21
9223.00,1.21
9222.00,1.21
9221.00,1.21
9220.00,1.21
9219.00,1.21
9218.00,1.21
9217.00,1.21
9216.00,1.21
9215.00,1.20
9214.00,1.20
9213.00,1.20
9212.00,1.20
9211.00,1.20
9210.00,1.20
9209.00,1.20
9208.00,1.20
9207.00,1.20
9206.00,1.20
9205.00,1.20
9204.00,1.20
9203.00,1.20
9202.00,1.20
9201.00,1.20
9200.00,1.20
9199.00,1.20
9198.00,1.20
9197.00,1.20
9196.00,1.20
9195.00,1.21
9194.00,1.21
9193.00,1.21
9192.00,1.21
9191.00,1.21
9190.00,1.21
9189.00,1.21
9188.00,1.21
9187.00,1.21
9186.00,1.21
9185.00,1.21
9184.00,1.21
9183.00,1.21
9182.00,1.21
9181.00,1.20
9180.00,1.20
9179.00,1.20
9178.00,1.20
9177.00,1.20
9176.00,1.20
9175.00,1.20
9174.00,1.20
9173.00,1.20
9172.00,1.20
9171.00,1.20
9170.00,1.20
9169.00,1.20
9168.00,1.20
9167.00,1.20
9166.00,1.20
9165.00,1.20
9164.00,1.20
9163.00,1.20
9162.00,1.20
9161.00,1.20
9160.00,1.20
9159.00,1.20
9158.00,1.20
9157.00,1.20
9156.00,1.20
9155.00,1.20
9154.00,1.20
9153.00,1.20
9152.00,1.20
9151.00,1.20
9150.00,1.20
9149.00,1.20
9148.00,1.20
9147.00,1.20
9146.00,1.20
9145.00,1.21
9144.00,1.21
9143.00,1.21
9142.00,1.21
9141.00,1.21
9140.00,1.21
9139.00,1.21
9138.00,1.21
9137.00,1.21
9136.00,1.21
9135.00,1.21
9134.00,1.21
9133.00,1.21
9132.00,1.21
9131.00,1.21
9130.00,1.21
9129.00,1.21
9128.00,1.21
9127.00,1.21
9126.00,1.22
9125.00,1.22
9124.00,1.22
9123.00,1.22
9122.00,1.22
9121.00,1.22
9120.00,1.22
9119.00,1.22
9118.00,1.22
9117.00,1.22
9116.00,1.22
9115.00,1.22
9114.00,1.22
9113.00,1.22
9112.00,1.22
9111.00,1.22
9110.00,1.22
9109.00,1.22
9108.00,1.21
9107.00,1.21
9106.00,1.21
9105.00,1.21
9104.00,1.21
9103.00,1.21
9102.00,1.21
9101.00,1.21
9100.00,1.21
9099.00,1.21
9098.00,1.21
9097.00,1.21
9096.00,1.21
9095.00,1.21
9094.00,1.21
9093.00,1.21
9092.00,1.21
9091.00,1.21
9090.00,1.21
9089.00,1.21
9088.00,1.21
9087.00,1.21
9086.00,1.21
9085.00,1.21
9084.00,1.21
9083.00,1.21
9082.00,1.21
9081.00,1.21
9080.00,1.21
9079.00,1.21
9078.00,1.21
9077.00,1.21
9076.00,1.21
9075.00,1.21
9074.00,1.21
9073.00,1.21
9072.00,1.21
9071.00,1.21
9070.00,1.21
9069.00,1.20
9068.00,1.20
9067.00,1.20
9066.00,1.20
9065.00,1.20
9064.00,1.20
9063.00,1.20
9062.00,1.20
9061.00,1.20
9060.00,1.20
9059.00,1.20
9058.00,1.20
9057.00,1.20
9056.00,1.20
9055.00,1.20
9054.00,1.20
9053.00,1.20
9052.00,1.20
9051.00,1.20
9050.00,1.20
9049.00,1.19
9048.00,1.19
9047.00,1.19
9046.00,1.19
9045.00,1.19
9044.00,1.19
9043.00,1.19
9042.00,1.19
9041.00,1.19
9040.00,1.19
9039.00,1.19
9038.00,1.19
9037.00,1.19
9036.00,1.19
9035.00,1.19
9034.00,1.20
9033.00,1.20
9032.00,1.20
9031.00,1.20
9030.00,1.20
9029.00,1.20
9028.00,1.20
9027.00,1.20
9026.00,1.20
9025.00,1.20
9024.00,1.20
9023.00,1.20
9022.00,1.20
9021.00,1.20
9020.00,1.20
9019.00,1.20
9018.00,1.21
9017.00,1.21
9016.00,1.21
9015.00,1.21
9014.00,1.21
9013.00,1.21
9012.00,1.21
9011.00,1.21
9010.00,1.21
9009.00,1.21
9008.00,1.21
9007.00,1.21
9006.00,1.21
9005.00,1.21
9004.00,1.21
9003.00,1.21
9002.00,1.21
9001.00,1.21
9000.00,1.21
8999.00,1.21
8998.00,1.21
8997.00,1.21
8996.00,1.21
8995.00,1.21
8994.00,1.21
8993.00,1.21
8992.00,1.21
8991.00,1.21
8990.00,1.20
8989.00,1.20
8988.00,1.20
8987.00,1.20
8986.00,1.20
8985.00,1.20
8984.00,1.20
8983.00,1.20
8982.00,1.20
8981.00,1.20
8980.00,1.20
8979.00,1.20
8978.00,1.20
8977.00,1.20
8976.00,1.20
8975.00,1.20
8974.00,1.20
8973.00,1.20
8972.00,1.20
8971.00,1.20
8970.00,1.20
8969.00,1.20
8968.00,1.20
8967.00,1.20
8966.00,1.20
8965.00,1.20
8964.00,1.20
8963.00,1.20
8962.00,1.20
8961.00,1.20
8960.00,1.20
8959.00,1.19
8958.00,1.19
8957.00,1.19
8956.00,1.19
8955.00,1.19
8954.00,1.19
8953.00,1.19
8952.00,1.19
8951.00,1.19
8950.00,1.19
8949.00,1.19
8948.00,1.19
8947.00,1.19
8946.00,1.19
8945.00,1.19
8944.00,1.20
8943.00,1.20
8942.00,1.20
8941.00,1.20
8940.00,1.20
8939.00,1.20
8938.00,1.20
8937.00,1.20
8936.00,1.20
8935.00,1.20
8934.00,1.20
8933.00,1.20
8932.00,1.20
8931.00,1.20
8930.00,1.20
8929.00,1.20
8928.00,1.20
8927.00,1.20
8926.00,1.19
8925.00,1.19
8924.00,1.19
8923.00,1.19
8922.00,1.19
8921.00,1.19
8920.00,1.19
8919.00,1.19
8918.00,1.19
8917.00,1.19
8916.00,1.19
8915.00,1.19
8914.00,1.19
8913.00,1.19
8912.00,1.19
8911.00,1.19
8910.00,1.19
8909.00,1.19
8908.00,1.19
8907.00,1.20
8906.00,1.20
8905.00,1.20
8904.00,1.20
8903.00,1.20
8902.00,1.20
8901.00,1.20
8900.00,1.20
8899.00,1.20
8898.00,1.20
8897.00,1.20
8896.00,1.20
8895.00,1.20
8894.00,1.20
8893.00,1.20
8892.00,1.19
8891.00,1.19
8890.00,1.19
8889.00,1.19
8888.00,1.19
8887.00,1.19
8886.00,1.19
8885.00,1.19
8884.00,1.19
8883.00,1.19
8882.00,1.19
8881.00,1.19
8880.00,1.19
8879.00,1.19
8878.00,1.19
8877.00,1.19
8876.00,1.19
8875.00,1.20
8874.00,1.20
8873.00,1.20
8872.00,1.20
8871.00,1.20
8870.00,1.20
8869.00,1.20
8868.00,1.20
8867.00,1.20
8866.00,1.20
8865.00,1.20
8864.00,1.20
8863.00,1.20
8862.00,1.20
8861.00,1.20
8860.00,1.20
8859.00,1.20
8858.00,1.20
8857.00,1.20
8856.00,1.20
8855.00,1.20
8854.00,1.20
8853.00,1.20
8852.00,1.20
8851.00,1.20
8850.00,1.20
8849.00,1.20
8848.00,1.20
8847.00,1.20
8846.00,1.20
8845.00,1.20
8844.00,1.20
8843.00,1.20
8842.00,1.19
8841.00,1.19
8840.00,1.19
8839.00,1.19
8838.00,1.19
8837.00,1.19
8836.00,1.19
8835.00,1.19
8834.00,1.19
8833.00,1.19
8832.00,1.19
8831.00,1.19
8830.00,1.19
8829.00,1.19
8828.00,1.19
8827.00,1.19
8826.00,1.19
8825.00,1.19
8824.00,1.19
8823.00,1.19
8822.00,1.19
8821.00,1.19
8820.00,1.19
8819.00,1.19
8818.00,1.19
8817.00,1.19
8816.00,1.19
8815.00,1.19
8814.00,1.19
8813.00,1.19
8812.00,1.19
8811.00,1.19
8810.00,1.18
8809.00,1.18
8808.00,1.18
8807.00,1.18
8806.00,1.18
8805.00,1.18
8804.00,1.18
8803.00,1.18
8802.00,1.18
8801.00,1.18
8800.00,1.18
8799.00,1.18
8798.00,1.18
8797.00,1.18
8796.00,1.19
8795.00,1.19
8794.00,1.19
8793.00,1.19
8792.00,1.19
8791.00,1.19
8790.00,1.19
8789.00,1.19
8788.00,1.19
8787.00,1.19
8786.00,1.19
8785.00,1.19
8784.00,1.19
8783.00,1.19
8782.00,1.18
8781.00,1.18
8780.00,1.18
8779.00,1.18
8778.00,1.18
8777.00,1.18
8776.00,1.18
8775.00,1.18
8774.00,1.18
8773.00,1.18
8772.00,1.18
8771.00,1.18
8770.00,1.18
8769.00,1.18
8768.00,1.18
8767.00,1.18
8766.00,1.17
8765.00,1.17
8764.00,1.17
8763.00,1.17
8762.00,1.17
8761.00,1.17
8760.00,1.17
8759.00,1.17
8758.00,1.17
8757.00,1.17
8756.00,1.17
8755.00,1.17
8754.00,1.17
8753.00,1.17
8752.00,1.17
8751.00,1.17
8750.00,1.17
8749.00,1.17
8748.00,1.17
8747.00,1.17
8746.00,1.17
8745.00,1.17
8744.00,1.17
8743.00,1.17
8742.00,1.17
8741.00,1.17
8740.00,1.18
8739.00,1.18
8738.00,1.18
8737.00,1.18
8736.00,1.18
8735.00,1.18
8734.00,1.18
8733.00,1.18
8732.00,1.18
8731.00,1.18
8730.00,1.18
8729.00,1.18
8728.00,1.18
8727.00,1.18
8726.00,1.18
8725.00,1.18
8724.00,1.17
8723.00,1.17
8722.00,1.17
8721.00,1.17
8720.00,1.17
8719.00,1.17
8718.00,1.17
8717.00,1.17
8716.00,1.17
8715.00,1.16
8714.00,1.16
8713.00,1.16
8712.00,1.16
8711.00,1.16
8710.00,1.16
8709.00,1.16
8708.00,1.16
8707.00,1.16
8706.00,1.16
8705.00,1.16
8704.00,1.16
8703.00,1.16
8702.00,1.16
8701.00,1.16
8700.00,1.16
8699.00,1.16
8698.00,1.16
8697.00,1.16
8696.00,1.16
8695.00,1.16
8694.00,1.16
8693.00,1.16
8692.00,1.16
8691.00,1.16
8690.00,1.15
8689.00,1.15
8688.00,1.15
8687.00,1.15
8686.00,1.16
8685.00,1.16
8684.00,1.16
8683.00,1.16
8682.00,1.16
8681.00,1.16
8680.00,1.16
8679.00,1.16
8678.00,1.17
8677.00,1.17
8676.00,1.17
8675.00,1.17
8674.00,1.17
8673.00,1.18
8672.00,1.18
8671.00,1.18
8670.00,1.18
8669.00,1.18
8668.00,1.18
8667.00,1.18
8666.00,1.18
8665.00,1.17
8664.00,1.17
8663.00,1.17
8662.00,1.17
8661.00,1.17
8660.00,1.17
8659.00,1.17
8658.00,1.17
8657.00,1.16
8656.00,1.16
8655.00,1.16
8654.00,1.16
8653.00,1.16
8652.00,1.16
8651.00,1.16
8650.00,1.16
8649.00,1.16
8648.00,1.16
8647.00,1.16
8646.00,1.16
8645.00,1.16
8644.00,1.15
8643.00,1.15
8642.00,1.15
8641.00,1.15
8640.00,1.15
8639.00,1.15
8638.00,1.15
8637.00,1.15
8636.00,1.14
8635.00,1.14
8634.00,1.14
8633.00,1.14
8632.00,1.14
8631.00,1.14
8630.00,1.14
8629.00,1.14
8628.00,1.14
8627.00,1.14
8626.00,1.14
8625.00,1.14
8624.00,1.14
8623.00,1.14
8622.00,1.14
8621.00,1.14
8620.00,1.14
8619.00,1.14
8618.00,1.14
8617.00,1.14
8616.00,1.14
8615.00,1.14
8614.00,1.14
8613.00,1.15
8612.00,1.15
8611.00,1.15
8610.00,1.15
8609.00,1.15
8608.00,1.15
8607.00,1.15
8606.00,1.15
8605.00,1.15
8604.00,1.15
8603.00,1.15
8602.00,1.15
8601.00,1.15
8600.00,1.15
8599.00,1.15
8598.00,1.14
8597.00,1.14
8596.00,1.14
8595.00,1.14
8594.00,1.14
8593.00,1.14
8592.00,1.14
8591.00,1.14
8590.00,1.14
8589.00,1.14
8588.00,1.13
8587.00,1.13
8586.00,1.13
8585.00,1.13
8584.00,1.13
8583.00,1.13
8582.00,1.13
8581.00,1.13
8580.00,1.12
8579.00,1.12
8578.00,1.12
8577.00,1.12
8576.00,1.12
8575.00,1.12
8574.00,1.12
8573.00,1.12
8572.00,1.12
8571.00,1.12
8570.00,1.13
8569.00,1.13
8568.00,1.13
8567.00,1.13
8566.00,1.13
8565.00,1.13
8564.00,1.13
8563.00,1.13
8562.00,1.13
8561.00,1.13
8560.00,1.13
8559.00,1.13
8558.00,1.13
8557.00,1.12
8556.00,1.12
8555.00,1.12
8554.00,1.12
8553.00,1.12
8552.00,1.12
8551.00,1.12
8550.00,1.12
8549.00,1.12
8548.00,1.12
8547.00,1.12
8546.00,1.12
8545.00,1.12
8544.00,1.12
8543.00,1.12
8542.00,1.12
8541.00,1.12
8540.00,1.12
8539.00,1.12
8538.00,1.12
8537.00,1.12
8536.00,1.12
8535.00,1.12
8534.00,1.12
8533.00,1.12
8532.00,1.12
8531.00,1.12
8530.00,1.12
8529.00,1.12
8528.00,1.12
8527.00,1.12
8526.00,1.12
8525.00,1.11
8524.00,1.11
8523.00,1.11
8522.00,1.11
8521.00,1.11
8520.00,1.11
8519.00,1.11
8518.00,1.11
8517.00,1.11
8516.00,1.11
8515.00,1.11
8514.00,1.11
8513.00,1.11
8512.00,1.11
8511.00,1.11
8510.00,1.11
8509.00,1.11
8508.00,1.11
8507.00,1.11
8506.00,1.11
8505.00,1.11
8504.00,1.11
8503.00,1.11
8502.00,1.11
8501.00,1.11
8500.00,1.11
8499.00,1.11
8498.00,1.11
8497.00,1.11
8496.00,1.11
8495.00,1.11
8494.00,1.11
8493.00,1.11
8492.00,1.11
8491.00,1.11
8490.00,1.11
8489.00,1.11
8488.00,1.11
8487.00,1.11
8486.00,1.10
8485.00,1.10
8484.00,1.10
8483.00,1.10
8482.00,1.10
8481.00,1.10
8480.00,1.10
8479.00,1.10
8478.00,1.10
8477.00,1.10
8476.00,1.10
8475.00,1.10
8474.00,1.10
8473.00,1.10
8472.00,1.09
8471.00,1.09
8470.00,1.09
8469.00,1.09
8468.00,1.09
8467.00,1.09
8466.00,1.09
8465.00,1.09
8464.00,1.09
8463.00,1.09
8462.00,1.09
8461.00,1.09
8460.00,1.09
8459.00,1.09
8458.00,1.09
8457.00,1.09
8456.00,1.09
8455.00,1.09
8454.00,1.09
8453.00,1.08
8452.00,1.08
8451.00,1.08
8450.00,1.08
8449.00,1.08
8448.00,1.08
8447.00,1.08
8446.00,1.08
8445.00,1.08
8444.00,1.08
8443.00,1.08
8442.00,1.08
8441.00,1.08
8440.00,1.08
8439.00,1.08
8438.00,1.08
8437.00,1.08
8436.00,1.08
8435.00,1.08
8434.00,1.08
8433.00,1.08
8432.00,1.08
8431.00,1.08
8430.00,1.08
8429.00,1.08
8428.00,1.08
8427.00,1.08
8426.00,1.08
8425.00,1.08
8424.00,1.08
8423.00,1.09
8422.00,1.09
8421.00,1.09
8420.00,1.09
8419.00,1.09
8418.00,1.09
8417.00,1.09
8416.00,1.09
8415.00,1.09
8414.00,1.09
8413.00,1.09
8412.00,1.10
8411.00,1.10
8410.00,1.10
8409.00,1.10
8408.00,1.10
8407.00,1.10
8406.00,1.10
8405.00,1.10
8404.00,1.10
8403.00,1.10
8402.00,1.10
8401.00,1.10
8400.00,1.10
8399.00,1.10
8398.00,1.10
8397.00,1.10
8396.00,1.10
8395.00,1.10
8394.00,1.10
8393.00,1.10
8392.00,1.10
8391.00,1.10
8390.00,1.09
8389.00,1.09
8388.00,1.09
8387.00,1.09
8386.00,1.09
8385.00,1.09
8384.00,1.09
8383.00,1.09
8382.00,1.09
8381.00,1.09
8380.00,1.09
8379.00,1.09
8378.00,1.09
8377.00,1.09
8376.00,1.09
8375.00,1.09
8374.00,1.09
8373.00,1.09
8372.00,1.09
8371.00,1.10
8370.00,1.10
8369.00,1.10
8368.00,1.10
8367.00,1.10
8366.00,1.10
8365.00,1.10
8364.00,1.11
8363.00,1.11
8362.00,1.11
8361.00,1.11
8360.00,1.11
8359.00,1.11
8358.00,1.11
8357.00,1.11
8356.00,1.11
8355.00,1.11
8354.00,1.11
8353.00,1.11
8352.00,1.11
8351.00,1.11
8350.00,1.11
8349.00,1.11
8348.00,1.11
8347.00,1.11
8346.00,1.11
8345.00,1.11
8344.00,1.11
8343.00,1.11
8342.00,1.11
8341.00,1.11
8340.00,1.11
8339.00,1.11
8338.00,1.11
8337.00,1.11
8336.00,1.11
8335.00,1.11
8334.00,1.11
8333.00,1.11
8332.00,1.11
8331.00,1.11
8330.00,1.11
8329.00,1.11
8328.00,1.11
8327.00,1.11
8326.00,1.11
8325.00,1.11
8324.00,1.11
8323.00,1.11
8322.00,1.11
8321.00,1.12
8320.00,1.12
8319.00,1.12
8318.00,1.12
8317.00,1.12
8316.00,1.12
8315.00,1.12
8314.00,1.12
8313.00,1.12
8312.00,1.12
8311.00,1.12
8310.00,1.12
8309.00,1.12
8308.00,1.12
8307.00,1.12
8306.00,1.12
8305.00,1.12
8304.00,1.12
8303.00,1.12
8302.00,1.12
8301.00,1.12
8300.00,1.12
8299.00,1.12
8298.00,1.12
8297.00,1.12
8296.00,1.12
8295.00,1.12
8294.00,1.12
8293.00,1.12
8292.00,1.12
8291.00,1.12
8290.00,1.12
8289.00,1.13
8288.00,1.13
8287.00,1.13
8286.00,1.13
8285.00,1.13
8284.00,1.13
8283.00,1.13
8282.00,1.13
8281.00,1.13
8280.00,1.13
8279.00,1.13
8278.00,1.13
8277.00,1.13
8276.00,1.13
8275.00,1.13
8274.00,1.13
8273.00,1.13
8272.00,1.13
8271.00,1.13
8270.00,1.13
8269.00,1.13
8268.00,1.13
8267.00,1.13
8266.00,1.13
8265.00,1.13
8264.00,1.13
8263.00,1.13
8262.00,1.13
8261.00,1.13
8260.00,1.13
8259.00,1.13
8258.00,1.13
8257.00,1.13
8256.00,1.13
8255.00,1.13
8254.00,1.13
8253.00,1.13
8252.00,1.13
8251.00,1.13
8250.00,1.13
8249.00,1.13
8248.00,1.13
8247.00,1.13
8246.00,1.13
8245.00,1.13
8244.00,1.13
8243.00,1.13
8242.00,1.13
8241.00,1.13
8240.00,1.13
8239.00,1.13
8238.00,1.14
8237.00,1.14
8236.00,1.14
8235.00,1.14
8234.00,1.14
8233.00,1.14
8232.00,1.14
8231.00,1.14
8230.00,1.14
8229.00,1.14
8228.00,1.14
8227.00,1.14
8226.00,1.14
8225.00,1.14
8224.00,1.14
8223.00,1.14
8222.00,1.14
8221.00,1.14
8220.00,1.14
8219.00,1.14
8218.00,1.14
8217.00,1.14
8216.00,1.14
8215.00,1.14
8214.00,1.14
8213.00,1.14
8212.00,1.14
8211.00,1.14
8210.00,1.14
8209.00,1.14
8208.00,1.14
8207.00,1.14
8206.00,1.14
8205.00,1.14
8204.00,1.14
8203.00,1.14
8202.00,1.14
8201.00,1.14
8200.00,1.14
8199.00,1.14
8198.00,1.14
8197.00,1.14
8196.00,1.14
8195.00,1.14
8194.00,1.14
8193.00,1.14
8192.00,1.14
8191.00,1.14
8190.00,1.15
8189.00,1.15
8188.00,1.15
8187.00,1.15
8186.00,1.15
8185.00,1.15
8184.00,1.15
8183.00,1.15
8182.00,1.15
8181.00,1.15
8180.00,1.16
8179.00,1.16
8178.00,1.16
8177.00,1.16
8176.00,1.16
8175.00,1.16
8174.00,1.16
8173.00,1.16
8172.00,1.16
8171.00,1.16
8170.00,1.16
8169.00,1.16
8168.00,1.16
8167.00,1.16
8166.00,1.16
8165.00,1.16
8164.00,1.16
8163.00,1.16
8162.00,1.17
8161.00,1.17
8160.00,1.17
8159.00,1.17
8158.00,1.17
8157.00,1.17
8156.00,1.17
8155.00,1.17
8154.00,1.17
8153.00,1.17
8152.00,1.16
8151.00,1.16
8150.00,1.16
8149.00,1.16
8148.00,1.16
8147.00,1.16
8146.00,1.16
8145.00,1.16
8144.00,1.16
8143.00,1.16
8142.00,1.16
8141.00,1.16
8140.00,1.16
8139.00,1.16
8138.00,1.16
8137.00,1.16
8136.00,1.16
8135.00,1.16
8134.00,1.16
8133.00,1.16
8132.00,1.17
8131.00,1.17
8130.00,1.17
8129.00,1.17
8128.00,1.17
8127.00,1.17
8126.00,1.17
8125.00,1.17
8124.00,1.17
8123.00,1.17
8122.00,1.17
8121.00,1.17
8120.00,1.17
8119.00,1.17
8118.00,1.17
8117.00,1.17
8116.00,1.17
8115.00,1.17
8114.00,1.17
8113.00,1.17
8112.00,1.17
8111.00,1.17
8110.00,1.17
8109.00,1.17
8108.00,1.17
8107.00,1.17
8106.00,1.17
8105.00,1.17
8104.00,1.17
8103.00,1.17
8102.00,1.17
8101.00,1.17
8100.00,1.17
8099.00,1.17
8098.00,1.17
8097.00,1.17
8096.00,1.17
8095.00,1.17
8094.00,1.17
8093.00,1.18
8092.00,1.18
8091.00,1.18
8090.00,1.18
8089.00,1.18
8088.00,1.17
8087.00,1.17
8086.00,1.17
8085.00,1.17
8084.00,1.17
8083.00,1.17
8082.00,1.17
8081.00,1.17
8080.00,1.17
8079.00,1.17
8078.00,1.17
8077.00,1.17
8076.00,1.17
8075.00,1.17
8074.00,1.17
8073.00,1.17
8072.00,1.17
8071.00,1.17
8070.00,1.17
8069.00,1.17
8068.00,1.17
8067.00,1.17
8066.00,1.18
8065.00,1.18
8064.00,1.18
8063.00,1.18
8062.00,1.18
8061.00,1.18
8060.00,1.18
8059.00,1.18
8058.00,1.18
8057.00,1.18
8056.00,1.18
8055.00,1.18
8054.00,1.18
8053.00,1.18
8052.00,1.18
8051.00,1.18
8050.00,1.18
8049.00,1.18
8048.00,1.18
8047.00,1.18
8046.00,1.18
8045.00,1.18
8044.00,1.18
8043.00,1.18
8042.00,1.18
8041.00,1.18
8040.00,1.18
8039.00,1.18
8038.00,1.18
8037.00,1.18
8036.00,1.18
8035.00,1.18
8034.00,1.18
8033.00,1.18
8032.00,1.18
8031.00,1.18
8030.00,1.18
8029.00,1.18
8028.00,1.18
8027.00,1.18
8026.00,1.18
8025.00,1.18
8024.00,1.18
8023.00,1.18
8022.00,1.18
8021.00,1.18
8020.00,1.18
8019.00,1.18
8018.00,1.18
8017.00,1.18
8016.00,1.18
8015.00,1.18
8014.00,1.18
8013.00,1.18
8012.00,1.18
8011.00,1.17
8010.00,1.17
8009.00,1.17
8008.00,1.17
8007.00,1.17
8006.00,1.17
8005.00,1.17
8004.00,1.17
8003.00,1.17
8002.00,1.17
8001.00,1.17
8000.00,1.18
7999.00,1.18
7998.00,1.18
7997.00,1.18
7996.00,1.18
7995.00,1.18
7994.00,1.19
7993.00,1.19
7992.00,1.19
7991.00,1.19
7990.00,1.19
7989.00,1.19
7988.00,1.19
7987.00,1.20
7986.00,1.20
7985.00,1.20
7984.00,1.20
7983.00,1.20
7982.00,1.20
7981.00,1.20
7980.00,1.20
7979.00,1.20
7978.00,1.20
7977.00,1.20
7976.00,1.20
7975.00,1.20
7974.00,1.20
7973.00,1.20
7972.00,1.20
7971.00,1.20
7970.00,1.20
7969.00,1.20
7968.00,1.20
7967.00,1.20
7966.00,1.20
7965.00,1.20
7964.00,1.20
7963.00,1.20
7962.00,1.20
7961.00,1.19
7960.00,1.19
7959.00,1.19
7958.00,1.19
7957.00,1.19
7956.00,1.19
7955.00,1.19
7954.00,1.19
7953.00,1.19
7952.00,1.19
7951.00,1.19
7950.00,1.19
7949.00,1.19
7948.00,1.19
7947.00,1.19
7946.00,1.19
7945.00,1.19
7944.00,1.19
7943.00,1.19
7942.00,1.19
7941.00,1.19
7940.00,1.19
7939.00,1.19
7938.00,1.19
7937.00,1.19
7936.00,1.19
7935.00,1.19
7934.00,1.20
7933.00,1.20
7932.00,1.20
7931.00,1.20
7930.00,1.20
7929.00,1.20
7928.00,1.20
7927.00,1.20
7926.00,1.20
7925.00,1.20
7924.00,1.20
7923.00,1.20
7922.00,1.20
7921.00,1.20
7920.00,1.20
7919.00,1.20
7918.00,1.20
7917.00,1.20
7916.00,1.20
7915.00,1.20
7914.00,1.20
7913.00,1.20
7912.00,1.20
7911.00,1.20
7910.00,1.20
7909.00,1.20
7908.00,1.20
7907.00,1.19
7906.00,1.19
7905.00,1.19
7904.00,1.19
7903.00,1.19
7902.00,1.19
7901.00,1.19
7900.00,1.19
7899.00,1.19
7898.00,1.19
7897.00,1.19
7896.00,1.19
7895.00,1.19
7894.00,1.19
7893.00,1.19
7892.00,1.20
7891.00,1.20
7890.00,1.20
7889.00,1.20
7888.00,1.20
7887.00,1.20
7886.00,1.20
7885.00,1.20
7884.00,1.20
7883.00,1.20
7882.00,1.20
7881.00,1.20
7880.00,1.20
7879.00,1.20
7878.00,1.20
7877.00,1.20
7876.00,1.20
7875.00,1.20
7874.00,1.20
7873.00,1.20
7872.00,1.20
7871.00,1.20
7870.00,1.20
7869.00,1.20
7868.00,1.20
7867.00,1.20
7866.00,1.20
7865.00,1.20
7864.00,1.20
7863.00,1.20
7862.00,1.20
7861.00,1.20
7860.00,1.20
7859.00,1.20
7858.00,1.20
7857.00,1.20
7856.00,1.21
7855.00,1.21
7854.00,1.21
7853.00,1.21
7852.00,1.21
7851.00,1.21
7850.00,1.21
7849.00,1.21
7848.00,1.21
7847.00,1.21
7846.00,1.21
7845.00,1.21
7844.00,1.21
7843.00,1.21
7842.00,1.21
7841.00,1.21
7840.00,1.21
7839.00,1.21
7838.00,1.21
7837.00,1.21
7836.00,1.21
7835.00,1.21
7834.00,1.21
7833.00,1.21
7832.00,1.21
7831.00,1.21
7830.00,1.21
7829.00,1.21
7828.00,1.21
7827.00,1.21
7826.00,1.21
7825.00,1.21
7824.00,1.21
7823.00,1.21
7822.00,1.21
7821.00,1.21
7820.00,1.21
7819.00,1.21
7818.00,1.21
7817.00,1.21
7816.00,1.21
7815.00,1.21
7814.00,1.21
7813.00,1.21
7812.00,1.21
7811.00,1.21
7810.00,1.21
7809.00,1.21
7808.00,1.22
7807.00,1.22
7806.00,1.22
7805.00,1.22
7804.00,1.22
7803.00,1.22
7802.00,1.22
7801.00,1.22
7800.00,1.22
7799.00,1.21
7798.00,1.21
7797.00,1.21
7796.00,1.21
7795.00,1.21
7794.00,1.21
7793.00,1.21
7792.00,1.21
7791.00,1.21
7790.00,1.21
7789.00,1.21
7788.00,1.21
7787.00,1.21
7786.00,1.21
7785.00,1.21
7784.00,1.21
7783.00,1.21
7782.00,1.21
7781.00,1.21
7780.00,1.21
7779.00,1.21
7778.00,1.21
7777.00,1.21
7776.00,1.21
7775.00,1.21
7774.00,1.21
7773.00,1.21
7772.00,1.22
7771.00,1.22
7770.00,1.22
7769.00,1.22
7768.00,1.22
7767.00,1.22
7766.00,1.22
7765.00,1.22
7764.00,1.22
7763.00,1.22
7762.00,1.21
7761.00,1.21
7760.00,1.21
7759.00,1.21
7758.00,1.21
7757.00,1.21
7756.00,1.21
7755.00,1.21
7754.00,1.21
7753.00,1.21
7752.00,1.21
7751.00,1.21
7750.00,1.21
7749.00,1.21
7748.00,1.21
7747.00,1.21
7746.00,1.21
7745.00,1.21
7744.00,1.21
7743.00,1.21
7742.00,1.21
7741.00,1.21
7740.00,1.21
7739.00,1.21
7738.00,1.21
7737.00,1.21
7736.00,1.22
7735.00,1.22
7734.00,1.22
7733.00,1.22
7732.00,1.22
7731.00,1.22
7730.00,1.22
7729.00,1.22
7728.00,1.22
7727.00,1.22
7726.00,1.22
7725.00,1.22
7724.00,1.22
7723.00,1.22
7722.00,1.22
7721.00,1.22
7720.00,1.22
7719.00,1.22
7718.00,1.22
7717.00,1.22
7716.00,1.22
7715.00,1.22
7714.00,1.22
7713.00,1.22
7712.00,1.22
7711.00,1.22
7710.00,1.22
7709.00,1.22
7708.00,1.22
7707.00,1.22
7706.00,1.22
7705.00,1.22
7704.00,1.22
7703.00,1.22
7702.00,1.22
7701.00,1.22
7700.00,1.22
7699.00,1.22
7698.00,1.22
7697.00,1.22
7696.00,1.22
7695.00,1.22
7694.00,1.22
7693.00,1.22
7692.00,1.22
7691.00,1.22
7690.00,1.21
7689.00,1.21
7688.00,1.21
7687.00,1.21
7686.00,1.21
7685.00,1.21
7684.00,1.21
7683.00,1.21
7682.00,1.21
7681.00,1.21
7680.00,1.21
7679.00,1.21
7678.00,1.21
7677.00,1.21
7676.00,1.21
7675.00,1.21
7674.00,1.21
7673.00,1.21
7672.00,1.21
7671.00,1.21
7670.00,1.21
7669.00,1.21
7668.00,1.21
7667.00,1.21
7666.00,1.21
7665.00,1.21
7664.00,1.21
7663.00,1.21
7662.00,1.21
7661.00,1.21
7660.00,1.21
7659.00,1.21
7658.00,1.21
7657.00,1.21
7656.00,1.21
7655.00,1.21
7654.00,1.21
7653.00,1.21
7652.00,1.21
7651.00,1.21
7650.00,1.21
7649.00,1.21
7648.00,1.21
7647.00,1.21
7646.00,1.21
7645.00,1.21
7644.00,1.21
7643.00,1.21
7642.00,1.21
7641.00,1.21
7640.00,1.22
7639.00,1.22
7638.00,1.22
7637.00,1.22
7636.00,1.22
7635.00,1.22
7634.00,1.22
7633.00,1.22
7632.00,1.21
7631.00,1.21
7630.00,1.21
7629.00,1.21
7628.00,1.21
7627.00,1.21
7626.00,1.21
7625.00,1.21
7624.00,1.21
7623.00,1.21
7622.00,1.21
7621.00,1.21
7620.00,1.21
7619.00,1.21
7618.00,1.21
7617.00,1.21
7616.00,1.21
7615.00,1.21
7614.00,1.21
7613.00,1.21
7612.00,1.21
7611.00,1.21
7610.00,1.21
7609.00,1.21
7608.00,1.21
7607.00,1.21
7606.00,1.21
7605.00,1.21
7604.00,1.21
7603.00,1.21
7602.00,1.21
7601.00,1.21
7600.00,1.21
7599.00,1.21
7598.00,1.21
7597.00,1.21
7596.00,1.21
7595.00,1.21
7594.00,1.21
7593.00,1.21
7592.00,1.21
7591.00,1.21
7590.00,1.21
7589.00,1.21
7588.00,1.21
7587.00,1.21
7586.00,1.21
7585.00,1.21
7584.00,1.21
7583.00,1.21
7582.00,1.21
7581.00,1.21
7580.00,1.21
7579.00,1.21
7578.00,1.21
7577.00,1.21
7576.00,1.22
7575.00,1.22
7574.00,1.22
7573.00,1.22
7572.00,1.22
7571.00,1.22
7570.00,1.22
7569.00,1.22
7568.00,1.22
7567.00,1.22
7566.00,1.22
7565.00,1.22
7564.00,1.22
7563.00,1.22
7562.00,1.22
7561.00,1.22
7560.00,1.22
7559.00,1.22
7558.00,1.22
7557.00,1.22
7556.00,1.22
7555.00,1.22
7554.00,1.21
7553.00,1.21
7552.00,1.21
7551.00,1.21
7550.00,1.21
7549.00,1.21
7548.00,1.21
7547.00,1.21
7546.00,1.21
7545.00,1.21
7544.00,1.21
7543.00,1.21
7542.00,1.21
7541.00,1.21
7540.00,1.21
7539.00,1.21
7538.00,1.20
7537.00,1.20
7536.00,1.20
7535.00,1.20
7534.00,1.20
7533.00,1.20
7532.00,1.20
7531.00,1.20
7530.00,1.20
7529.00,1.20
7528.00,1.20
7527.00,1.20
7526.00,1.20
7525.00,1.20
7524.00,1.20
7523.00,1.20
7522.00,1.20
7521.00,1.20
7520.00,1.20
7519.00,1.20
7518.00,1.20
7517.00,1.20
7516.00,1.20
7515.00,1.20
7514.00,1.20
7513.00,1.20
7512.00,1.20
7511.00,1.20
7510.00,1.20
7509.00,1.20
7508.00,1.20
7507.00,1.20
7506.00,1.20
7505.00,1.20
7504.00,1.20
7503.00,1.20
7502.00,1.20
7501.00,1.20
7500.00,1.20
7499.00,1.20
7498.00,1.20
7497.00,1.20
7496.00,1.20
7495.00,1.20
7494.00,1.20
7493.00,1.20
7492.00,1.20
7491.00,1.20
7490.00,1.20
7489.00,1.20
7488.00,1.19
7487.00,1.19
7486.00,1.19
7485.00,1.19
7484.00,1.19
7483.00,1.19
7482.00,1.19
7481.00,1.19
7480.00,1.19
7479.00,1.18
7478.00,1.18
7477.00,1.18
7476.00,1.18
7475.00,1.18
7474.00,1.18
7473.00,1.18
7472.00,1.18
7471.00,1.18
7470.00,1.18
7469.00,1.18
7468.00,1.18
7467.00,1.18
7466.00,1.18
7465.00,1.18
7464.00,1.18
7463.00,1.18
7462.00,1.18
7461.00,1.18
7460.00,1.18
7459.00,1.18
7458.00,1.18
7457.00,1.18
7456.00,1.18
7455.00,1.18
7454.00,1.18
7453.00,1.18
7452.00,1.18
7451.00,1.18
7450.00,1.18
7449.00,1.18
7448.00,1.18
7447.00,1.17
7446.00,1.17
7445.00,1.17
7444.00,1.17
7443.00,1.17
7442.00,1.17
7441.00,1.17
7440.00,1.17
7439.00,1.17
7438.00,1.17
7437.00,1.17
7436.00,1.17
7435.00,1.17
7434.00,1.17
7433.00,1.17
7432.00,1.17
7431.00,1.17
7430.00,1.17
7429.00,1.17
7428.00,1.16
7427.00,1.16
7426.00,1.16
7425.00,1.16
7424.00,1.16
7423.00,1.16
7422.00,1.16
7421.00,1.16
7420.00,1.16
7419.00,1.16
7418.00,1.16
7417.00,1.16
7416.00,1.16
7415.00,1.15
7414.00,1.15
7413.00,1.15
7412.00,1.15
7411.00,1.15
7410.00,1.15
7409.00,1.15
7408.00,1.15
7407.00,1.15
7406.00,1.15
7405.00,1.15
7404.00,1.15
7403.00,1.15
7402.00,1.15
7401.00,1.15
7400.00,1.14
7399.00,1.14
7398.00,1.14
7397.00,1.14
7396.00,1.14
7395.00,1.14
7394.00,1.14
7393.00,1.14
7392.00,1.14
7391.00,1.14
7390.00,1.14
7389.00,1.14
7388.00,1.14
7387.00,1.14
7386.00,1.13
7385.00,1.13
7384.00,1.13
7383.00,1.13
7382.00,1.13
7381.00,1.13
7380.00,1.12
7379.00,1.12
7378.00,1.12
7377.00,1.12
7376.00,1.12
7375.00,1.12
7374.00,1.12
7373.00,1.12
7372.00,1.12
7371.00,1.12
7370.00,1.12
7369.00,1.12
7368.00,1.12
7367.00,1.12
7366.00,1.12
7365.00,1.12
7364.00,1.12
7363.00,1.12
7362.00,1.12
7361.00,1.12
7360.00,1.12
7359.00,1.12
7358.00,1.12
7357.00,1.12
7356.00,1.12
7355.00,1.12
7354.00,1.12
7353.00,1.12
7352.00,1.12
7351.00,1.12
7350.00,1.12
7349.00,1.12
7348.00,1.12
7347.00,1.12
7346.00,1.12
7345.00,1.12
7344.00,1.12
7343.00,1.12
7342.00,1.12
7341.00,1.12
7340.00,1.12
7339.00,1.12
7338.00,1.12
7337.00,1.12
7336.00,1.12
7335.00,1.12
7334.00,1.12
7333.00,1.12
7332.00,1.12
7331.00,1.12
7330.00,1.12
7329.00,1.12
7328.00,1.12
7327.00,1.12
7326.00,1.11
7325.00,1.11
7324.00,1.11
7323.00,1.11
7322.00,1.11
7321.00,1.11
7320.00,1.11
7319.00,1.11
7318.00,1.11
7317.00,1.11
7316.00,1.11
7315.00,1.11
7314.00,1.11
7313.00,1.11
7312.00,1.11
7311.00,1.11
7310.00,1.11
7309.00,1.11
7308.00,1.11
7307.00,1.10
7306.00,1.10
7305.00,1.10
7304.00,1.10
7303.00,1.10
7302.00,1.10
7301.00,1.10
7300.00,1.10
7299.00,1.10
7298.00,1.10
7297.00,1.09
7296.00,1.09
7295.00,1.09
7294.00,1.09
7293.00,1.09
7292.00,1.09
7291.00,1.09
7290.00,1.09
7289.00,1.08
7288.00,1.08
7287.00,1.08
7286.00,1.08
7285.00,1.08
7284.00,1.08
7283.00,1.08
7282.00,1.08
7281.00,1.08
7280.00,1.08
7279.00,1.08
7278.00,1.07
7277.00,1.07
7276.00,1.07
7275.00,1.07
7274.00,1.07
7273.00,1.07
7272.00,1.07
7271.00,1.07
7270.00,1.07
7269.00,1.07
7268.00,1.07
7267.00,1.07
7266.00,1.07
7265.00,1.07
7264.00,1.07
7263.00,1.06
7262.00,1.06
7261.00,1.06
7260.00,1.06
7259.00,1.06
7258.00,1.06
7257.00,1.06
7256.00,1.06
7255.00,1.06
7254.00,1.06
7253.00,1.06
7252.00,1.06
7251.00,1.05
7250.00,1.05
7249.00,1.05
7248.00,1.05
7247.00,1.05
7246.00,1.05
7245.00,1.05
7244.00,1.04
7243.00,1.04
7242.00,1.04
7241.00,1.04
7240.00,1.04
7239.00,1.03
7238.00,1.03
7237.00,1.03
7236.00,1.03
7235.00,1.02
7234.00,1.02
7233.00,1.02
7232.00,1.02
7231.00,1.01
7230.00,1.01
7229.00,1.01
7228.00,1.01
7227.00,1.00
7226.00,1.00
7225.00,1.00
7224.00,0.99
7223.00,0.99
7222.00,0.99
7221.00,0.99
7220.00,0.98
7219.00,0.98
7218.00,0.98
7217.00,0.97
7216.00,0.97
7215.00,0.97
7214.00,0.96
7213.00,0.96
7212.00,0.96
7211.00,0.96
7210.00,0.95
7209.00,0.95
7208.00,0.95
7207.00,0.94
7206.00,0.94
7205.00,0.94
7204.00,0.93
7203.00,0.93
7202.00,0.93
7201.00,0.93
7200.00,0.92
7199.00,0.92
7198.00,0.92
7197.00,0.92
7196.00,0.91
7195.00,0.91
7194.00,0.91
7193.00,0.91
7192.00,0.90
7191.00,0.90
7190.00,0.90
7189.00,0.89
7188.00,0.89
7187.00,0.89
7186.00,0.89
7185.00,0.88
7184.00,0.88
7183.00,0.88
7182.00,0.87
7181.00,0.87
7180.00,0.87
7179.00,0.87
7178.00,0.86
7177.00,0.86
7176.00,0.86
7175.00,0.86
7174.00,0.86
7173.00,0.86
7172.00,0.85
7171.00,0.85
7170.00,0.85
7169.00,0.85
7168.00,0.85
7167.00,0.84
7166.00,0.84
7165.00,0.84
7164.00,0.84
7163.00,0.84
7162.00,0.83
7161.00,0.83
7160.00,0.83
7159.00,0.83
7158.00,0.82
7157.00,0.82
7156.00,0.82
7155.00,0.82
7154.00,0.81
7153.00,0.81
7152.00,0.81
7151.00,0.81
7150.00,0.80
7149.00,0.80
7148.00,0.80
7147.00,0.80
7146.00,0.80
7145.00,0.79
7144.00,0.79
7143.00,0.79
7142.00,0.79
7141.00,0.78
7140.00,0.78
7139.00,0.78
7138.00,0.78
7137.00,0.77
7136.00,0.77
7135.00,0.77
7134.00,0.77
7133.00,0.76
7132.00,0.76
7131.00,0.76
7130.00,0.76
7129.00,0.75
7128.00,0.75
7127.00,0.75
7126.00,0.75
7125.00,0.74
7124.00,0.74
7123.00,0.74
7122.00,0.74
7121.00,0.73
7120.00,0.73
7119.00,0.73
7118.00,0.73
7117.00,0.73
7116.00,0.72
7115.00,0.72
7114.00,0.72
7113.00,0.72
7112.00,0.72
7111.00,0.71
7110.00,0.71
7109.00,0.71
7108.00,0.71
7107.00,0.71
7106.00,0.71
7105.00,0.71
7104.00,0.70
7103.00,0.70
7102.00,0.70
7101.00,0.70
7100.00,0.70
7099.00,0.70
7098.00,0.70
7097.00,0.69
7096.00,0.69
7095.00,0.69
7094.00,0.69
7093.00,0.69
7092.00,0.69
7091.00,0.69
7090.00,0.68
7089.00,0.68
7088.00,0.68
7087.00,0.68
7086.00,0.68
7085.00,0.68
7084.00,0.67
7083.00,0.67
7082.00,0.67
7081.00,0.67
7080.00,0.66
7079.00,0.66
7078.00,0.66
7077.00,0.66
7076.00,0.66
7075.00,0.65
7074.00,0.65
7073.00,0.65
7072.00,0.65
7071.00,0.65
7070.00,0.64
7069.00,0.64
7068.00,0.64
7067.00,0.64
7066.00,0.64
7065.00,0.64
7064.00,0.64
7063.00,0.63
7062.00,0.63
7061.00,0.63
7060.00,0.63
7059.00,0.63
7058.00,0.63
7057.00,0.63
7056.00,0.63
7055.00,0.63
7054.00,0.63
7053.00,0.63
7052.00,0.63
7051.00,0.62
7050.00,0.62
7049.00,0.62
7048.00,0.62
7047.00,0.62
7046.00,0.62
7045.00,0.62
7044.00,0.62
7043.00,0.62
7042.00,0.62
7041.00,0.62
7040.00,0.62
7039.00,0.62
7038.00,0.61
7037.00,0.61
7036.00,0.61
7035.00,0.61
7034.00,0.61
7033.00,0.61
7032.00,0.61
7031.00,0.61
7030.00,0.61
7029.00,0.61
7028.00,0.61
7027.00,0.60
7026.00,0.60
7025.00,0.60
7024.00,0.60
7023.00,0.60
7022.00,0.60
7021.00,0.60
7020.00,0.60
7019.00,0.60
7018.00,0.59
7017.00,0.59
7016.00,0.59
7015.00,0.59
7014.00,0.59
7013.00,0.59
7012.00,0.59
7011.00,0.59
7010.00,0.59
7009.00,0.59
7008.00,0.58
7007.00,0.58
7006.00,0.58
7005.00,0.58
7004.00,0.58
7003.00,0.58
7002.00,0.58
7001.00,0.58
7000.00,0.58
6999.00,0.58
6998.00,0.58
6997.00,0.58
6996.00,0.58
6995.00,0.58
6994.00,0.58
6993.00,0.58
6992.00,0.58
6991.00,0.58
6990.00,0.57
6989.00,0.57
6988.00,0.57
6987.00,0.57
6986.00,0.57
6985.00,0.57
6984.00,0.57
6983.00,0.57
6982.00,0.57
6981.00,0.57
6980.00,0.57
6979.00,0.57
6978.00,0.57
6977.00,0.57
6976.00,0.57
6975.00,0.57
6974.00,0.57
6973.00,0.56
6972.00,0.56
6971.00,0.56
6970.00,0.56
6969.00,0.56
6968.00,0.56
6967.00,0.56
6966.00,0.56
6965.00,0.56
6964.00,0.56
6963.00,0.56
6962.00,0.56
6961.00,0.56
6960.00,0.56
6959.00,0.56
6958.00,0.56
6957.00,0.56
6956.00,0.56
6955.00,0.56
6954.00,0.56
6953.00,0.56
6952.00,0.56
6951.00,0.56
6950.00,0.56
6949.00,0.56
6948.00,0.56
6947.00,0.56
6946.00,0.56
6945.00,0.56
6944.00,0.56
6943.00,0.56
6942.00,0.55
6941.00,0.55
6940.00,0.55
6939.00,0.55
6938.00,0.55
6937.00,0.55
6936.00,0.55
6935.00,0.55
6934.00,0.55
6933.00,0.55
6932.00,0.55
6931.00,0.55
6930.00,0.55
6929.00,0.55
6928.00,0.55
6927.00,0.55
6926.00,0.55
6925.00,0.55
6924.00,0.55
6923.00,0.55
6922.00,0.55
6921.00,0.55
6920.00,0.55
6919.00,0.55
6918.00,0.55
6917.00,0.55
6916.00,0.55
6915.00,0.55
6914.00,0.55
6913.00,0.55
6912.00,0.55
6911.00,0.55
6910.00,0.54
6909.00,0.54
6908.00,0.54
6907.00,0.54
6906.00,0.54
6905.00,0.54
6904.00,0.54
6903.00,0.54
6902.00,0.54
6901.00,0.54
6900.00,0.54
6899.00,0.54
6898.00,0.54
6897.00,0.54
6896.00,0.54
6895.00,0.55
6894.00,0.55
6893.00,0.55
6892.00,0.55
6891.00,0.55
6890.00,0.55
6889.00,0.55
6888.00,0.55
6887.00,0.55
6886.00,0.55
6885.00,0.55
6884.00,0.55
6883.00,0.55
6882.00,0.55
6881.00,0.54
6880.00,0.54
6879.00,0.54
6878.00,0.54
6877.00,0.54
6876.00,0.54
6875.00,0.54
6874.00,0.54
6873.00,0.54
6872.00,0.54
6871.00,0.54
6870.00,0.54
6869.00,0.54
6868.00,0.54
6867.00,0.54
6866.00,0.54
6865.00,0.54
6864.00,0.54
6863.00,0.54
6862.00,0.54
6861.00,0.54
6860.00,0.54
6859.00,0.55
6858.00,0.55
6857.00,0.55
6856.00,0.55
6855.00,0.55
6854.00,0.55
6853.00,0.55
6852.00,0.55
6851.00,0.55
6850.00,0.55
6849.00,0.55
6848.00,0.55
6847.00,0.55
6846.00,0.55
6845.00,0.55
6844.00,0.55
6843.00,0.55
6842.00,0.55
6841.00,0.55
6840.00,0.55
6839.00,0.55
6838.00,0.55
6837.00,0.55
6836.00,0.55
6835.00,0.55
6834.00,0.55
6833.00,0.55
6832.00,0.55
6831.00,0.55
6830.00,0.55
6829.00,0.55
6828.00,0.55
6827.00,0.55
6826.00,0.55
6825.00,0.55
6824.00,0.55
6823.00,0.55
6822.00,0.55
6821.00,0.55
6820.00,0.55
6819.00,0.55
6818.00,0.55
6817.00,0.56
6816.00,0.56
6815.00,0.56
6814.00,0.56
6813.00,0.56
6812.00,0.56
6811.00,0.56
6810.00,0.56
6809.00,0.56
6808.00,0.56
6807.00,0.56
6806.00,0.56
6805.00,0.56
6804.00,0.56
6803.00,0.56
6802.00,0.56
6801.00,0.56
6800.00,0.56
6799.00,0.56
6798.00,0.56
6797.00,0.56
6796.00,0.56
6795.00,0.56
6794.00,0.56
6793.00,0.57
6792.00,0.57
6791.00,0.57
6790.00,0.57
6789.00,0.57
6788.00,0.57
6787.00,0.57
6786.00,0.57
6785.00,0.57
6784.00,0.57
6783.00,0.57
6782.00,0.57
6781.00,0.57
6780.00,0.58
6779.00,0.58
6778.00,0.58
6777.00,0.58
6776.00,0.58
6775.00,0.58
6774.00,0.58
6773.00,0.58
6772.00,0.58
6771.00,0.58
6770.00,0.58
6769.00,0.58
6768.00,0.58
6767.00,0.58
6766.00,0.58
6765.00,0.58
6764.00,0.58
6763.00,0.58
6762.00,0.58
6761.00,0.58
6760.00,0.58
6759.00,0.58
6758.00,0.58
6757.00,0.58
6756.00,0.58
6755.00,0.58
6754.00,0.58
6753.00,0.58
6752.00,0.58
6751.00,0.58
6750.00,0.58
6749.00,0.59
6748.00,0.59
6747.00,0.59
6746.00,0.59
6745.00,0.59
6744.00,0.59
6743.00,0.59
6742.00,0.59
6741.00,0.59
6740.00,0.59
6739.00,0.59
6738.00,0.59
6737.00,0.59
6736.00,0.60
6735.00,0.60
6734.00,0.60
6733.00,0.60
6732.00,0.60
6731.00,0.60
6730.00,0.60
6729.00,0.60
6728.00,0.60
6727.00,0.60
6726.00,0.60
6725.00,0.60
6724.00,0.60
6723.00,0.60
6722.00,0.60
6721.00,0.60
6720.00,0.60
6719.00,0.60
6718.00,0.60
6717.00,0.61
6716.00,0.61
6715.00,0.61
6714.00,0.61
6713.00,0.61
6712.00,0.61
6711.00,0.61
6710.00,0.61
6709.00,0.61
6708.00,0.62
6707.00,0.62
6706.00,0.62
6705.00,0.62
6704.00,0.62
6703.00,0.62
6702.00,0.62
6701.00,0.62
6700.00,0.62
6699.00,0.62
6698.00,0.62
6697.00,0.62
6696.00,0.62
6695.00,0.62
6694.00,0.62
6693.00,0.62
6692.00,0.62
6691.00,0.63
6690.00,0.63
6689.00,0.63
6688.00,0.63
6687.00,0.63
6686.00,0.63
6685.00,0.63
6684.00,0.63
6683.00,0.63
6682.00,0.63
6681.00,0.63
6680.00,0.63
6679.00,0.63
6678.00,0.64
6677.00,0.64
6676.00,0.64
6675.00,0.64
6674.00,0.64
6673.00,0.64
6672.00,0.64
6671.00,0.64
6670.00,0.64
6669.00,0.64
6668.00,0.65
6667.00,0.65
6666.00,0.65
6665.00,0.65
6664.00,0.65
6663.00,0.65
6662.00,0.65
6661.00,0.65
6660.00,0.65
6659.00,0.65
6658.00,0.65
6657.00,0.65
6656.00,0.65
6655.00,0.65
6654.00,0.65
6653.00,0.65
6652.00,0.65
6651.00,0.66
6650.00,0.66
6649.00,0.66
6648.00,0.66
6647.00,0.66
6646.00,0.66
6645.00,0.66
6644.00,0.66
6643.00,0.66
6642.00,0.66
6641.00,0.66
6640.00,0.67
6639.00,0.67
6638.00,0.67
6637.00,0.67
6636.00,0.67
6635.00,0.67
6634.00,0.67
6633.00,0.67
6632.00,0.67
6631.00,0.67
6630.00,0.67
6629.00,0.67
6628.00,0.68
6627.00,0.68
6626.00,0.68
6625.00,0.68
6624.00,0.68
6623.00,0.68
6622.00,0.68
6621.00,0.68
6620.00,0.68
6619.00,0.68
6618.00,0.68
6617.00,0.68
6616.00,0.69
6615.00,0.69
6614.00,0.69
6613.00,0.69
6612.00,0.69
6611.00,0.69
6610.00,0.69
6609.00,0.69
6608.00,0.69
6607.00,0.69
6606.00,0.70
6605.00,0.70
6604.00,0.70
6603.00,0.70
6602.00,0.70
6601.00,0.70
6600.00,0.70
6599.00,0.70
6598.00,0.70
6597.00,0.70
6596.00,0.70
6595.00,0.70
6594.00,0.70
6593.00,0.70
6592.00,0.70
6591.00,0.70
6590.00,0.70
6589.00,0.71
6588.00,0.71
6587.00,0.71
6586.00,0.71
6585.00,0.71
6584.00,0.71
6583.00,0.71
6582.00,0.71
6581.00,0.71
6580.00,0.71
6579.00,0.71
6578.00,0.72
6577.00,0.72
6576.00,0.72
6575.00,0.72
6574.00,0.72
6573.00,0.72
6572.00,0.72
6571.00,0.72
6570.00,0.72
6569.00,0.73
6568.00,0.73
6567.00,0.73
6566.00,0.73
6565.00,0.73
6564.00,0.73
6563.00,0.73
6562.00,0.73
6561.00,0.73
6560.00,0.74
6559.00,0.74
6558.00,0.74
6557.00,0.74
6556.00,0.74
6555.00,0.74
6554.00,0.74
6553.00,0.74
6552.00,0.74
6551.00,0.74
6550.00,0.74
6549.00,0.74
6548.00,0.74
6547.00,0.74
6546.00,0.75
6545.00,0.75
6544.00,0.75
6543.00,0.75
6542.00,0.75
6541.00,0.75
6540.00,0.75
6539.00,0.75
6538.00,0.75
6537.00,0.75
6536.00,0.75
6535.00,0.75
6534.00,0.75
6533.00,0.75
6532.00,0.75
6531.00,0.75
6530.00,0.75
6529.00,0.75
6528.00,0.75
6527.00,0.75
6526.00,0.75
6525.00,0.76
6524.00,0.76
6523.00,0.76
6522.00,0.76
6521.00,0.76
6520.00,0.76
6519.00,0.76
6518.00,0.76
6517.00,0.76
6516.00,0.76
6515.00,0.76
6514.00,0.76
6513.00,0.76
6512.00,0.76
6511.00,0.76
6510.00,0.76
6509.00,0.76
6508.00,0.77
6507.00,0.77
6506.00,0.77
6505.00,0.77
6504.00,0.77
6503.00,0.77
6502.00,0.77
6501.00,0.77
6500.00,0.77
6499.00,0.77
6498.00,0.77
6497.00,0.77
6496.00,0.77
6495.00,0.77
6494.00,0.77
6493.00,0.77
6492.00,0.77
6491.00,0.78
6490.00,0.78
6489.00,0.78
6488.00,0.78
6487.00,0.78
6486.00,0.78
6485.00,0.78
6484.00,0.78
6483.00,0.78
6482.00,0.78
6481.00,0.78
6480.00,0.78
6479.00,0.78
6478.00,0.78
6477.00,0.78
6476.00,0.78
6475.00,0.78
6474.00,0.78
6473.00,0.78
6472.00,0.79
6471.00,0.79
6470.00,0.79
6469.00,0.79
6468.00,0.79
6467.00,0.79
6466.00,0.79
6465.00,0.79
6464.00,0.79
6463.00,0.79
6462.00,0.79
6461.00,0.79
6460.00,0.79
6459.00,0.79
6458.00,0.79
6457.00,0.80
6456.00,0.80
6455.00,0.80
6454.00,0.80
6453.00,0.80
6452.00,0.80
6451.00,0.80
6450.00,0.80
6449.00,0.80
6448.00,0.80
6447.00,0.80
6446.00,0.80
6445.00,0.80
6444.00,0.80
6443.00,0.80
6442.00,0.80
6441.00,0.80
6440.00,0.80
6439.00,0.81
6438.00,0.81
6437.00,0.81
6436.00,0.81
6435.00,0.81
6434.00,0.81
6433.00,0.81
6432.00,0.81
6431.00,0.81
6430.00,0.81
6429.00,0.81
6428.00,0.81
6427.00,0.81
6426.00,0.81
6425.00,0.81
6424.00,0.81
6423.00,0.81
6422.00,0.81
6421.00,0.81
6420.00,0.81
6419.00,0.81
6418.00,0.81
6417.00,0.81
6416.00,0.81
6415.00,0.81
6414.00,0.81
6413.00,0.81
6412.00,0.81
6411.00,0.81
6410.00,0.81
6409.00,0.81
6408.00,0.82
6407.00,0.82
6406.00,0.82
6405.00,0.82
6404.00,0.82
6403.00,0.82
6402.00,0.82
6401.00,0.82
6400.00,0.82
6399.00,0.82
6398.00,0.82
6397.00,0.82
6396.00,0.82
6395.00,0.82
6394.00,0.82
6393.00,0.82
6392.00,0.82
6391.00,0.83
6390.00,0.83
6389.00,0.83
6388.00,0.83
6387.00,0.83
6386.00,0.83
6385.00,0.83
6384.00,0.83
6383.00,0.83
6382.00,0.83
6381.00,0.83
6380.00,0.83
6379.00,0.83
6378.00,0.83
6377.00,0.83
6376.00,0.83
6375.00,0.83
6374.00,0.83
6373.00,0.83
6372.00,0.83
6371.00,0.83
6370.00,0.84
6369.00,0.84
6368.00,0.84
6367.00,0.84
6366.00,0.84
6365.00,0.84
6364.00,0.84
6363.00,0.84
6362.00,0.84
6361.00,0.84
6360.00,0.84
6359.00,0.84
6358.00,0.84
6357.00,0.85
6356.00,0.85
6355.00,0.85
6354.00,0.85
6353.00,0.85
6352.00,0.85
6351.00,0.85
6350.00,0.85
6349.00,0.85
6348.00,0.85
6347.00,0.85
6346.00,0.85
6345.00,0.86
6344.00,0.86
6343.00,0.86
6342.00,0.86
6341.00,0.86
6340.00,0.86
6339.00,0.86
6338.00,0.86
6337.00,0.86
6336.00,0.86
6335.00,0.86
6334.00,0.86
6333.00,0.86
6332.00,0.86
6331.00,0.86
6330.00,0.86
6329.00,0.86
6328.00,0.86
6327.00,0.87
6326.00,0.87
6325.00,0.87
6324.00,0.87
6323.00,0.87
6322.00,0.87
6321.00,0.87
6320.00,0.87
6319.00,0.87
6318.00,0.87
6317.00,0.87
6316.00,0.87
6315.00,0.87
6314.00,0.87
6313.00,0.87
6312.00,0.87
6311.00,0.87
6310.00,0.87
6309.00,0.87
6308.00,0.87
6307.00,0.88
6306.00,0.88
6305.00,0.88
6304.00,0.88
6303.00,0.88
6302.00,0.88
6301.00,0.89
6300.00,0.89
6299.00,0.89
6298.00,0.89
6297.00,0.89
6296.00,0.89
6295.00,0.89
6294.00,0.90
6293.00,0.90
6292.00,0.90
6291.00,0.90
6290.00,0.90
6289.00,0.90
6288.00,0.90
6287.00,0.90
6286.00,0.90
6285.00,0.90
6284.00,0.91
6283.00,0.91
6282.00,0.91
6281.00,0.91
6280.00,0.91
6279.00,0.91
6278.00,0.91
6277.00,0.91
6276.00,0.91
6275.00,0.91
6274.00,0.91
6273.00,0.91
6272.00,0.92
6271.00,0.92
6270.00,0.92
6269.00,0.92
6268.00,0.92
6267.00,0.92
6266.00,0.92
6265.00,0.92
6264.00,0.93
6263.00,0.93
6262.00,0.93
6261.00,0.93
6260.00,0.93
6259.00,0.93
6258.00,0.93
6257.00,0.93
6256.00,0.93
6255.00,0.94
6254.00,0.94
6253.00,0.94
6252.00,0.94
6251.00,0.94
6250.00,0.94
6249.00,0.94
6248.00,0.94
6247.00,0.94
6246.00,0.94
6245.00,0.94
6244.00,0.94
6243.00,0.94
6242.00,0.94
6241.00,0.94
6240.00,0.94
6239.00,0.95
6238.00,0.95
6237.00,0.95
6236.00,0.95
6235.00,0.95
6234.00,0.95
6233.00,0.95
6232.00,0.95
6231.00,0.95
6230.00,0.95
6229.00,0.96
6228.00,0.96
6227.00,0.96
6226.00,0.96
6225.00,0.96
6224.00,0.96
6223.00,0.96
6222.00,0.96
6221.00,0.97
6220.00,0.97
6219.00,0.97
6218.00,0.97
6217.00,0.97
6216.00,0.97
6215.00,0.97
6214.00,0.97
6213.00,0.97
6212.00,0.97
6211.00,0.97
6210.00,0.97
6209.00,0.97
6208.00,0.98
6207.00,0.98
6206.00,0.98
6205.00,0.98
6204.00,0.98
6203.00,0.98
6202.00,0.98
6201.00,0.98
6200.00,0.98
6199.00,0.99
6198.00,0.99
6197.00,0.99
6196.00,0.99
6195.00,0.99
6194.00,0.99
6193.00,0.99
6192.00,0.99
6191.00,1.00
6190.00,1.00
6189.00,1.00
6188.00,1.00
6187.00,1.00
6186.00,1.00
6185.00,1.00
6184.00,1.00
6183.00,1.00
6182.00,1.00
6181.00,1.00
6180.00,1.01
6179.00,1.01
6178.00,1.01
6177.00,1.01
6176.00,1.01
6175.00,1.01
6174.00,1.01
6173.00,1.01
6172.00,1.02
6171.00,1.02
6170.00,1.02
6169.00,1.02
6168.00,1.02
6167.00,1.02
6166.00,1.02
6165.00,1.02
6164.00,1.03
6163.00,1.03
6162.00,1.03
6161.00,1.03
6160.00,1.03
6159.00,1.03
6158.00,1.03
6157.00,1.03
6156.00,1.03
6155.00,1.04
6154.00,1.04
6153.00,1.04
6152.00,1.04
6151.00,1.04
6150.00,1.04
6149.00,1.04
6148.00,1.04
6147.00,1.05
6146.00,1.05
6145.00,1.05
6144.00,1.05
6143.00,1.05
6142.00,1.05
6141.00,1.05
6140.00,1.05
6139.00,1.05
6138.00,1.06
6137.00,1.06
6136.00,1.06
6135.00,1.06
6134.00,1.06
6133.00,1.06
6132.00,1.06
6131.00,1.06
6130.00,1.06
6129.00,1.06
6128.00,1.06
6127.00,1.06
6126.00,1.06
6125.00,1.07
6124.00,1.07
6123.00,1.07
6122.00,1.07
6121.00,1.07
6120.00,1.07
6119.00,1.07
6118.00,1.07
6117.00,1.07
6116.00,1.07
6115.00,1.07
6114.00,1.08
6113.00,1.08
6112.00,1.08
6111.00,1.08
6110.00,1.08
6109.00,1.08
6108.00,1.08
6107.00,1.08
6106.00,1.08
6105.00,1.08
6104.00,1.08
6103.00,1.08
6102.00,1.09
6101.00,1.09
6100.00,1.09
6099.00,1.09
6098.00,1.09
6097.00,1.09
6096.00,1.09
6095.00,1.09
6094.00,1.09
6093.00,1.10
6092.00,1.10
6091.00,1.10
6090.00,1.10
6089.00,1.10
6088.00,1.10
6087.00,1.10
6086.00,1.10
6085.00,1.11
6084.00,1.11
6083.00,1.11
6082.00,1.11
6081.00,1.11
6080.00,1.11
6079.00,1.12
6078.00,1.12
6077.00,1.12
6076.00,1.12
6075.00,1.12
6074.00,1.12
6073.00,1.12
6072.00,1.12
6071.00,1.12
6070.00,1.12
6069.00,1.13
6068.00,1.13
6067.00,1.13
6066.00,1.13
6065.00,1.13
6064.00,1.13
6063.00,1.13
6062.00,1.13
6061.00,1.13
6060.00,1.13
6059.00,1.13
6058.00,1.13
6057.00,1.13
6056.00,1.13
6055.00,1.13
6054.00,1.14
6053.00,1.14
6052.00,1.14
6051.00,1.14
6050.00,1.14
6049.00,1.14
6048.00,1.14
6047.00,1.14
6046.00,1.14
6045.00,1.14
6044.00,1.14
6043.00,1.14
6042.00,1.14
6041.00,1.14
6040.00,1.14
6039.00,1.14
6038.00,1.14
6037.00,1.14
6036.00,1.14
6035.00,1.14
6034.00,1.14
6033.00,1.14
6032.00,1.14
6031.00,1.14
6030.00,1.14
6029.00,1.14
6028.00,1.14
6027.00,1.14
6026.00,1.15
6025.00,1.15
6024.00,1.15
6023.00,1.15
6022.00,1.15
6021.00,1.15
6020.00,1.15
6019.00,1.15
6018.00,1.15
6017.00,1.15
6016.00,1.15
6015.00,1.15
6014.00,1.15
6013.00,1.15
6012.00,1.15
6011.00,1.15
6010.00,1.15
6009.00,1.15
6008.00,1.15
6007.00,1.15
6006.00,1.15
6005.00,1.15
6004.00,1.15
6003.00,1.15
6002.00,1.15
6001.00,1.14
6000.00,1.14
5999.00,1.14
5998.00,1.14
5997.00,1.14
5996.00,1.14
5995.00,1.14
5994.00,1.14
5993.00,1.14
5992.00,1.14
5991.00,1.13
5990.00,1.13
5989.00,1.13
5988.00,1.13
5987.00,1.13
5986.00,1.13
5985.00,1.13
5984.00,1.12
5983.00,1.12
5982.00,1.12
5981.00,1.12
5980.00,1.11
5979.00,1.11
5978.00,1.11
5977.00,1.11
5976.00,1.10
5975.00,1.10
5974.00,1.09
5973.00,1.09
5972.00,1.09
5971.00,1.08
5970.00,1.08
5969.00,1.07
5968.00,1.07
5967.00,1.06
5966.00,1.06
5965.00,1.05
5964.00,1.05
5963.00,1.04
5962.00,1.04
5961.00,1.03
5960.00,1.02
5959.00,1.02
5958.00,1.01
5957.00,1.01
5956.00,1.00
5955.00,1.00
5954.00,0.99
5953.00,0.99
5952.00,0.98
5951.00,0.98
5950.00,0.97
5949.00,0.97
5948.00,0.96
5947.00,0.96
5946.00,0.96
5945.00,0.95
5944.00,0.95
5943.00,0.95
5942.00,0.95
5941.00,0.94
5940.00,0.94
5939.00,0.94
5938.00,0.94
5937.00,0.94
5936.00,0.94
5935.00,0.94
5934.00,0.94
5933.00,0.94
5932.00,0.93
5931.00,0.93
5930.00,0.93
5929.00,0.93
5928.00,0.93
5927.00,0.93
5926.00,0.93
5925.00,0.93
5924.00,0.93
5923.00,0.93
5922.00,0.92
5921.00,0.92
5920.00,0.92
5919.00,0.92
5918.00,0.92
5917.00,0.91
5916.00,0.91
5915.00,0.91
5914.00,0.91
5913.00,0.90
5912.00,0.90
5911.00,0.90
5910.00,0.90
5909.00,0.90
5908.00,0.90
5907.00,0.89
5906.00,0.89
5905.00,0.89
5904.00,0.89
5903.00,0.89
5902.00,0.89
5901.00,0.89
5900.00,0.89
5899.00,0.89
5898.00,0.89
5897.00,0.90
5896.00,0.90
5895.00,0.90
5894.00,0.90
5893.00,0.90
5892.00,0.90
5891.00,0.91
5890.00,0.91
5889.00,0.91
5888.00,0.91
5887.00,0.91
5886.00,0.92
5885.00,0.92
5884.00,0.92
5883.00,0.92
5882.00,0.92
5881.00,0.93
5880.00,0.93
5879.00,0.93
5878.00,0.93
5877.00,0.94
5876.00,0.94
5875.00,0.94
5874.00,0.94
5873.00,0.94
5872.00,0.94
5871.00,0.95
5870.00,0.95
5869.00,0.95
5868.00,0.95
5867.00,0.95
5866.00,0.95
5865.00,0.96
5864.00,0.96
5863.00,0.96
5862.00,0.96
5861.00,0.96
5860.00,0.96
5859.00,0.97
5858.00,0.97
5857.00,0.97
5856.00,0.97
5855.00,0.97
5854.00,0.97
5853.00,0.97
5852.00,0.97
5851.00,0.97
5850.00,0.97
5849.00,0.97
5848.00,0.97
5847.00,0.97
5846.00,0.97
5845.00,0.97
5844.00,0.97
5843.00,0.97
5842.00,0.97
5841.00,0.97
5840.00,0.97
5839.00,0.97
5838.00,0.97
5837.00,0.97
5836.00,0.97
5835.00,0.97
5834.00,0.97
5833.00,0.97
5832.00,0.97
5831.00,0.97
5830.00,0.97
5829.00,0.97
5828.00,0.97
5827.00,0.97
5826.00,0.97
5825.00,0.97
5824.00,0.97
5823.00,0.97
5822.00,0.97
5821.00,0.97
5820.00,0.97
5819.00,0.98
5818.00,0.98
5817.00,0.98
5816.00,0.98
5815.00,0.98
5814.00,0.98
5813.00,0.98
5812.00,0.98
5811.00,0.98
5810.00,0.98
5809.00,0.98
5808.00,0.98
5807.00,0.98
5806.00,0.98
5805.00,0.98
5804.00,0.98
5803.00,0.98
5802.00,0.97
5801.00,0.97
5800.00,0.97
5799.00,0.97
5798.00,0.97
5797.00,0.97
5796.00,0.97
5795.00,0.97
5794.00,0.96
5793.00,0.96
5792.00,0.96
5791.00,0.96
5790.00,0.96
5789.00,0.95
5788.00,0.95
5787.00,0.95
5786.00,0.95
5785.00,0.95
5784.00,0.94
5783.00,0.94
5782.00,0.94
5781.00,0.94
5780.00,0.94
5779.00,0.93
5778.00,0.93
5777.00,0.93
5776.00,0.93
5775.00,0.93
5774.00,0.93
5773.00,0.93
5772.00,0.93
5771.00,0.93
5770.00,0.93
5769.00,0.93
5768.00,0.93
5767.00,0.93
5766.00,0.93
5765.00,0.93
5764.00,0.93
5763.00,0.93
5762.00,0.94
5761.00,0.94
5760.00,0.94
5759.00,0.94
5758.00,0.95
5757.00,0.95
5756.00,0.95
5755.00,0.96
5754.00,0.96
5753.00,0.96
5752.00,0.96
5751.00,0.97
5750.00,0.97
5749.00,0.97
5748.00,0.98
5747.00,0.98
5746.00,0.98
5745.00,0.99
5744.00,0.99
5743.00,0.99
5742.00,0.99
5741.00,0.99
5740.00,1.00
5739.00,1.00
5738.00,1.00
5737.00,1.00
5736.00,1.01
5735.00,1.01
5734.00,1.01
5733.00,1.01
5732.00,1.01
5731.00,1.01
5730.00,1.01
5729.00,1.02
5728.00,1.02
5727.00,1.02
5726.00,1.02
5725.00,1.02
5724.00,1.02
5723.00,1.02
5722.00,1.02
5721.00,1.02
5720.00,1.03
5719.00,1.03
5718.00,1.03
5717.00,1.03
5716.00,1.03
5715.00,1.03
5714.00,1.03
5713.00,1.03
5712.00,1.03
5711.00,1.03
5710.00,1.03
5709.00,1.03
5708.00,1.02
5707.00,1.02
5706.00,1.02
5705.00,1.02
5704.00,1.02
5703.00,1.02
5702.00,1.02
5701.00,1.02
5700.00,1.02
5699.00,1.02
5698.00,1.01
5697.00,1.01
5696.00,1.01
5695.00,1.01
5694.00,1.01
5693.00,1.01
5692.00,1.00
5691.00,1.00
5690.00,1.00
5689.00,1.00
5688.00,1.00
5687.00,1.00
5686.00,1.00
5685.00,1.00
5684.00,0.99
5683.00,0.99
5682.00,0.99
5681.00,0.99
5680.00,0.99
5679.00,0.99
5678.00,0.99
5677.00,0.99
5676.00,0.99
5675.00,0.99
5674.00,0.99
5673.00,0.99
5672.00,0.99
5671.00,0.99
5670.00,1.00
5669.00,1.00
5668.00,1.00
5667.00,1.00
5666.00,1.00
5665.00,1.00
5664.00,1.00
5663.00,1.00
5662.00,1.00
5661.00,1.00
5660.00,1.00
5659.00,1.00
5658.00,1.00
5657.00,1.01
5656.00,1.01
5655.00,1.01
5654.00,1.01
5653.00,1.01
5652.00,1.01
5651.00,1.01
5650.00,1.02
5649.00,1.02
5648.00,1.02
5647.00,1.02
5646.00,1.02
5645.00,1.02
5644.00,1.02
5643.00,1.03
5642.00,1.03
5641.00,1.03
5640.00,1.03
5639.00,1.03
5638.00,1.03
5637.00,1.03
5636.00,1.04
5635.00,1.04
5634.00,1.04
5633.00,1.04
5632.00,1.04
5631.00,1.04
5630.00,1.04
5629.00,1.04
5628.00,1.05
5627.00,1.05
5626.00,1.05
5625.00,1.05
5624.00,1.05
5623.00,1.05
5622.00,1.05
5621.00,1.05
5620.00,1.06
5619.00,1.06
5618.00,1.06
5617.00,1.06
5616.00,1.06
5615.00,1.06
5614.00,1.06
5613.00,1.07
5612.00,1.07
5611.00,1.07
5610.00,1.07
5609.00,1.07
5608.00,1.07
5607.00,1.07
5606.00,1.08
5605.00,1.08
5604.00,1.08
5603.00,1.08
5602.00,1.08
5601.00,1.08
5600.00,1.08
5599.00,1.09
5598.00,1.09
5597.00,1.09
5596.00,1.09
5595.00,1.09
5594.00,1.09
5593.00,1.09
5592.00,1.09
5591.00,1.10
5590.00,1.10
5589.00,1.10
5588.00,1.10
5587.00,1.10
5586.00,1.10
5585.00,1.10
5584.00,1.10
5583.00,1.11
5582.00,1.11
5581.00,1.11
5580.00,1.11
5579.00,1.11
5578.00,1.11
5577.00,1.11
5576.00,1.11
5575.00,1.11
5574.00,1.12
5573.00,1.12
5572.00,1.12
5571.00,1.12
5570.00,1.12
5569.00,1.12
5568.00,1.12
5567.00,1.12
5566.00,1.12
5565.00,1.13
5564.00,1.13
5563.00,1.13
5562.00,1.13
5561.00,1.13
5560.00,1.13
5559.00,1.13
5558.00,1.13
5557.00,1.14
5556.00,1.14
5555.00,1.14
5554.00,1.14
5553.00,1.14
5552.00,1.14
5551.00,1.14
5550.00,1.14
5549.00,1.14
5548.00,1.14
5547.00,1.15
5546.00,1.15
5545.00,1.15
5544.00,1.15
5543.00,1.15
5542.00,1.15
5541.00,1.15
5540.00,1.15
5539.00,1.15
5538.00,1.15
5537.00,1.15
5536.00,1.16
5535.00,1.16
5534.00,1.16
5533.00,1.16
5532.00,1.16
5531.00,1.16
5530.00,1.16
5529.00,1.16
5528.00,1.16
5527.00,1.16
5526.00,1.16
5525.00,1.16
5524.00,1.16
5523.00,1.16
5522.00,1.16
5521.00,1.17
5520.00,1.17
5519.00,1.17
5518.00,1.17
5517.00,1.17
5516.00,1.17
5515.00,1.17
5514.00,1.17
5513.00,1.17
5512.00,1.17
5511.00,1.17
5510.00,1.17
5509.00,1.17
5508.00,1.17
5507.00,1.17
5506.00,1.17
5505.00,1.17
5504.00,1.17
5503.00,1.17
5502.00,1.17
5501.00,1.18
5500.00,1.18
5499.00,1.18
5498.00,1.18
5497.00,1.18
5496.00,1.18
5495.00,1.18
5494.00,1.18
5493.00,1.18
5492.00,1.18
5491.00,1.18
5490.00,1.18
5489.00,1.18
5488.00,1.18
5487.00,1.18
5486.00,1.18
5485.00,1.19
5484.00,1.19
5483.00,1.19
5482.00,1.19
5481.00,1.19
5480.00,1.19
5479.00,1.19
5478.00,1.19
5477.00,1.19
5476.00,1.19
5475.00,1.19
5474.00,1.20
5473.00,1.20
5472.00,1.20
5471.00,1.20
5470.00,1.20
5469.00,1.20
5468.00,1.20
5467.00,1.20
5466.00,1.20
5465.00,1.21
5464.00,1.21
5463.00,1.21
5462.00,1.21
5461.00,1.21
5460.00,1.21
5459.00,1.21
5458.00,1.21
5457.00,1.21
5456.00,1.21
5455.00,1.21
5454.00,1.21
5453.00,1.22
5452.00,1.22
5451.00,1.22
5450.00,1.22
5449.00,1.22
5448.00,1.22
5447.00,1.22
5446.00,1.22
5445.00,1.22
5444.00,1.22
5443.00,1.22
5442.00,1.22
5441.00,1.22
5440.00,1.22
5439.00,1.22
5438.00,1.22
5437.00,1.22
5436.00,1.22
5435.00,1.22
5434.00,1.22
5433.00,1.22
5432.00,1.22
5431.00,1.22
5430.00,1.22
5429.00,1.22
5428.00,1.22
5427.00,1.22
5426.00,1.22
5425.00,1.22
5424.00,1.22
5423.00,1.22
5422.00,1.22
5421.00,1.22
5420.00,1.22
5419.00,1.22
5418.00,1.22
5417.00,1.22
5416.00,1.22
5415.00,1.22
5414.00,1.22
5413.00,1.22
5412.00,1.22
5411.00,1.22
5410.00,1.22
5409.00,1.22
5408.00,1.22
5407.00,1.22
5406.00,1.22
5405.00,1.22
5404.00,1.22
5403.00,1.22
5402.00,1.21
5401.00,1.21
5400.00,1.21
5399.00,1.21
5398.00,1.21
5397.00,1.21
5396.00,1.21
5395.00,1.21
5394.00,1.21
5393.00,1.21
5392.00,1.21
5391.00,1.21
5390.00,1.21
5389.00,1.20
5388.00,1.20
5387.00,1.20
5386.00,1.20
5385.00,1.20
5384.00,1.19
5383.00,1.19
5382.00,1.19
5381.00,1.19
5380.00,1.18
5379.00,1.18
5378.00,1.18
5377.00,1.18
5376.00,1.17
5375.00,1.17
5374.00,1.17
5373.00,1.16
5372.00,1.16
5371.00,1.16
5370.00,1.15
5369.00,1.15
5368.00,1.15
5367.00,1.14
5366.00,1.14
5365.00,1.14
5364.00,1.13
5363.00,1.13
5362.00,1.12
5361.00,1.12
5360.00,1.11
5359.00,1.11
5358.00,1.10
5357.00,1.10
5356.00,1.09
5355.00,1.08
5354.00,1.08
5353.00,1.07
5352.00,1.06
5351.00,1.06
5350.00,1.05
5349.00,1.04
5348.00,1.03
5347.00,1.03
5346.00,1.02
5345.00,1.01
5344.00,1.00
5343.00,1.00
5342.00,0.99
5341.00,0.98
5340.00,0.97
5339.00,0.96
5338.00,0.95
5337.00,0.94
5336.00,0.94
5335.00,0.93
5334.00,0.92
5333.00,0.91
5332.00,0.90
5331.00,0.89
5330.00,0.88
5329.00,0.87
5328.00,0.86
5327.00,0.86
5326.00,0.85
5325.00,0.84
5324.00,0.83
5323.00,0.82
5322.00,0.81
5321.00,0.80
5320.00,0.79
5319.00,0.79
5318.00,0.78
5317.00,0.77
5316.00,0.76
5315.00,0.75
5314.00,0.75
5313.00,0.74
5312.00,0.73
5311.00,0.72
5310.00,0.72
5309.00,0.71
5308.00,0.70
5307.00,0.70
5306.00,0.69
5305.00,0.69
5304.00,0.68
5303.00,0.68
5302.00,0.67
5301.00,0.67
5300.00,0.66
5299.00,0.66
5298.00,0.65
5297.00,0.65
5296.00,0.64
5295.00,0.64
5294.00,0.63
5293.00,0.63
5292.00,0.63
5291.00,0.62
5290.00,0.62
5289.00,0.62
5288.00,0.62
5287.00,0.61
5286.00,0.61
5285.00,0.61
5284.00,0.61
5283.00,0.61
5282.00,0.61
5281.00,0.61
5280.00,0.60
5279.00,0.60
5278.00,0.60
5277.00,0.60
5276.00,0.60
5275.00,0.60
5274.00,0.60
5273.00,0.60
5272.00,0.60
5271.00,0.60
5270.00,0.60
5269.00,0.60
5268.00,0.60
5267.00,0.60
5266.00,0.60
5265.00,0.60
5264.00,0.60
5263.00,0.60
5262.00,0.59
5261.00,0.59
5260.00,0.59
5259.00,0.59
5258.00,0.59
5257.00,0.59
5256.00,0.59
5255.00,0.59
5254.00,0.59
5253.00,0.59
5252.00,0.59
5251.00,0.59
5250.00,0.59
5249.00,0.59
5248.00,0.59
5247.00,0.59
5246.00,0.59
5245.00,0.59
5244.00,0.59
5243.00,0.59
5242.00,0.59
5241.00,0.59
5240.00,0.59
5239.00,0.59
5238.00,0.59
5237.00,0.59
5236.00,0.59
5235.00,0.59
5234.00,0.59
5233.00,0.59
5232.00,0.59
5231.00,0.59
5230.00,0.59
5229.00,0.59
5228.00,0.59
5227.00,0.60
5226.00,0.60
5225.00,0.60
5224.00,0.60
5223.00,0.60
5222.00,0.60
5221.00,0.60
5220.00,0.60
5219.00,0.60
5218.00,0.60
5217.00,0.60
5216.00,0.59
5215.00,0.59
5214.00,0.59
5213.00,0.59
5212.00,0.59
5211.00,0.59
5210.00,0.59
5209.00,0.59
5208.00,0.60
5207.00,0.60
5206.00,0.60
5205.00,0.60
5204.00,0.60
5203.00,0.60
5202.00,0.60
5201.00,0.60
5200.00,0.60
5199.00,0.60
5198.00,0.60
5197.00,0.60
5196.00,0.60
5195.00,0.60
5194.00,0.60
5193.00,0.60
5192.00,0.60
5191.00,0.60
5190.00,0.60
5189.00,0.60
5188.00,0.61
5187.00,0.61
5186.00,0.61
5185.00,0.61
5184.00,0.61
5183.00,0.61
5182.00,0.61
5181.00,0.61
5180.00,0.61
5179.00,0.61
5178.00,0.61
5177.00,0.61
5176.00,0.61
5175.00,0.61
5174.00,0.61
5173.00,0.62
5172.00,0.62
5171.00,0.62
5170.00,0.62
5169.00,0.62
5168.00,0.62
5167.00,0.62
5166.00,0.62
5165.00,0.62
5164.00,0.62
5163.00,0.62
5162.00,0.62
5161.00,0.62
5160.00,0.62
5159.00,0.62
5158.00,0.62
5157.00,0.62
5156.00,0.62
5155.00,0.62
5154.00,0.62
5153.00,0.62
5152.00,0.62
5151.00,0.62
5150.00,0.62
5149.00,0.62
5148.00,0.62
5147.00,0.62
5146.00,0.62
5145.00,0.62
5144.00,0.62
5143.00,0.62
5142.00,0.62
5141.00,0.62
5140.00,0.62
5139.00,0.62
5138.00,0.62
5137.00,0.62
5136.00,0.62
5135.00,0.62
5134.00,0.62
5133.00,0.62
5132.00,0.63
5131.00,0.63
5130.00,0.63
5129.00,0.63
5128.00,0.63
5127.00,0.63
5126.00,0.63
5125.00,0.63
5124.00,0.63
5123.00,0.63
5122.00,0.63
5121.00,0.63
5120.00,0.63
5119.00,0.63
5118.00,0.63
5117.00,0.63
5116.00,0.63
5115.00,0.63
5114.00,0.63
5113.00,0.64
5112.00,0.64
5111.00,0.64
5110.00,0.64
5109.00,0.64
5108.00,0.64
5107.00,0.64
5106.00,0.64
5105.00,0.64
5104.00,0.64
5103.00,0.64
5102.00,0.64
5101.00,0.64
5100.00,0.64
5099.00,0.64
5098.00,0.64
5097.00,0.64
5096.00,0.64
5095.00,0.64
5094.00,0.64
5093.00,0.64
5092.00,0.64
5091.00,0.64
5090.00,0.64
5089.00,0.64
5088.00,0.64
5087.00,0.65
5086.00,0.65
5085.00,0.65
5084.00,0.65
5083.00,0.65
5082.00,0.65
5081.00,0.65
5080.00,0.65
5079.00,0.65
5078.00,0.65
5077.00,0.65
5076.00,0.65
5075.00,0.65
5074.00,0.65
5073.00,0.66
5072.00,0.66
5071.00,0.66
5070.00,0.66
5069.00,0.66
5068.00,0.66
5067.00,0.66
5066.00,0.66
5065.00,0.66
5064.00,0.66
5063.00,0.66
5062.00,0.66
5061.00,0.66
5060.00,0.67
5059.00,0.67
5058.00,0.67
5057.00,0.67
5056.00,0.67
5055.00,0.67
5054.00,0.67
5053.00,0.67
5052.00,0.67
5051.00,0.67
5050.00,0.67
5049.00,0.67
5048.00,0.67
5047.00,0.67
5046.00,0.67
5045.00,0.67
5044.00,0.67
5043.00,0.67
5042.00,0.67
5041.00,0.67
5040.00,0.67
5039.00,0.67
5038.00,0.68
5037.00,0.68
5036.00,0.68
5035.00,0.68
5034.00,0.68
5033.00,0.68
5032.00,0.68
5031.00,0.68
5030.00,0.68
5029.00,0.68
5028.00,0.68
5027.00,0.68
5026.00,0.68
5025.00,0.68
5024.00,0.68
5023.00,0.68
5022.00,0.68
5021.00,0.68
5020.00,0.68
5019.00,0.69
5018.00,0.69
5017.00,0.69
5016.00,0.69
5015.00,0.69
5014.00,0.69
5013.00,0.69
5012.00,0.69
5011.00,0.69
5010.00,0.69
5009.00,0.69
5008.00,0.70
5007.00,0.70
5006.00,0.70
5005.00,0.70
5004.00,0.70
5003.00,0.70
5002.00,0.70
5001.00,0.70
5000.00,0.70
4999.00,0.70
4998.00,0.70
4997.00,0.70
4996.00,0.70
4995.00,0.70
4994.00,0.70
4993.00,0.70
4992.00,0.70
4991.00,0.70
4990.00,0.70
4989.00,0.70
4988.00,0.71
4987.00,0.71
4986.00,0.71
4985.00,0.71
4984.00,0.71
4983.00,0.71
4982.00,0.71
4981.00,0.71
4980.00,0.71
4979.00,0.71
4978.00,0.71
4977.00,0.72
4976.00,0.72
4975.00,0.72
4974.00,0.72
4973.00,0.72
4972.00,0.72
4971.00,0.72
4970.00,0.72
4969.00,0.73
4968.00,0.73
4967.00,0.73
4966.00,0.73
4965.00,0.73
4964.00,0.73
4963.00,0.73
4962.00,0.73
4961.00,0.73
4960.00,0.73
4959.00,0.73
4958.00,0.74
4957.00,0.74
4956.00,0.74
4955.00,0.74
4954.00,0.74
4953.00,0.74
4952.00,0.74
4951.00,0.74
4950.00,0.74
4949.00,0.74
4948.00,0.74
4947.00,0.74
4946.00,0.74
4945.00,0.75
4944.00,0.75
4943.00,0.75
4942.00,0.75
4941.00,0.75
4940.00,0.75
4939.00,0.75
4938.00,0.75
4937.00,0.75
4936.00,0.75
4935.00,0.75
4934.00,0.75
4933.00,0.75
4932.00,0.75
4931.00,0.75
4930.00,0.76
4929.00,0.76
4928.00,0.76
4927.00,0.76
4926.00,0.76
4925.00,0.76
4924.00,0.76
4923.00,0.76
4922.00,0.76
4921.00,0.76
4920.00,0.76
4919.00,0.76
4918.00,0.76
4917.00,0.76
4916.00,0.77
4915.00,0.77
4914.00,0.77
4913.00,0.77
4912.00,0.77
4911.00,0.77
4910.00,0.77
4909.00,0.77
4908.00,0.77
4907.00,0.77
4906.00,0.77
4905.00,0.77
4904.00,0.77
4903.00,0.78
4902.00,0.78
4901.00,0.78
4900.00,0.78
4899.00,0.78
4898.00,0.78
4897.00,0.78
4896.00,0.78
4895.00,0.78
4894.00,0.78
4893.00,0.78
4892.00,0.78
4891.00,0.78
4890.00,0.79
4889.00,0.79
4888.00,0.79
4887.00,0.79
4886.00,0.79
4885.00,0.79
4884.00,0.79
4883.00,0.79
4882.00,0.79
4881.00,0.79
4880.00,0.79
4879.00,0.79
4878.00,0.79
4877.00,0.79
4876.00,0.79
4875.00,0.79
4874.00,0.79
4873.00,0.79
4872.00,0.79
4871.00,0.79
4870.00,0.79
4869.00,0.80
4868.00,0.80
4867.00,0.80
4866.00,0.80
4865.00,0.80
4864.00,0.80
4863.00,0.80
4862.00,0.80
4861.00,0.80
4860.00,0.80
4859.00,0.80
4858.00,0.80
4857.00,0.80
4856.00,0.80
4855.00,0.80
4854.00,0.80
4853.00,0.80
4852.00,0.80
4851.00,0.80
4850.00,0.81
4849.00,0.81
4848.00,0.81
4847.00,0.81
4846.00,0.81
4845.00,0.81
4844.00,0.81
4843.00,0.81
4842.00,0.81
4841.00,0.81
4840.00,0.81
4839.00,0.81
4838.00,0.81
4837.00,0.81
4836.00,0.81
4835.00,0.81
4834.00,0.81
4833.00,0.81
4832.00,0.81
4831.00,0.81
4830.00,0.82
4829.00,0.82
4828.00,0.82
4827.00,0.82
4826.00,0.82
4825.00,0.82
4824.00,0.82
4823.00,0.82
4822.00,0.82
4821.00,0.82
4820.00,0.82
4819.00,0.83
4818.00,0.83
4817.00,0.83
4816.00,0.83
4815.00,0.83
4814.00,0.83
4813.00,0.83
4812.00,0.83
4811.00,0.83
4810.00,0.83
4809.00,0.83
4808.00,0.83
4807.00,0.83
4806.00,0.84
4805.00,0.84
4804.00,0.84
4803.00,0.84
4802.00,0.84
4801.00,0.84
4800.00,0.84
4799.00,0.84
4798.00,0.84
4797.00,0.84
4796.00,0.85
4795.00,0.85
4794.00,0.85
4793.00,0.85
4792.00,0.85
4791.00,0.85
4790.00,0.85
4789.00,0.85
4788.00,0.85
4787.00,0.85
4786.00,0.86
4785.00,0.86
4784.00,0.86
4783.00,0.86
4782.00,0.86
4781.00,0.86
4780.00,0.86
4779.00,0.86
4778.00,0.86
4777.00,0.87
4776.00,0.87
4775.00,0.87
4774.00,0.87
4773.00,0.87
4772.00,0.87
4771.00,0.87
4770.00,0.87
4769.00,0.87
4768.00,0.88
4767.00,0.88
4766.00,0.88
4765.00,0.88
4764.00,0.88
4763.00,0.88
4762.00,0.89
4761.00,0.89
4760.00,0.89
4759.00,0.89
4758.00,0.89
4757.00,0.89
4756.00,0.90
4755.00,0.90
4754.00,0.90
4753.00,0.90
4752.00,0.90
4751.00,0.90
4750.00,0.90
4749.00,0.91
4748.00,0.91
4747.00,0.91
4746.00,0.91
4745.00,0.91
4744.00,0.91
4743.00,0.91
4742.00,0.91
4741.00,0.91
4740.00,0.91
4739.00,0.92
4738.00,0.92
4737.00,0.92
4736.00,0.92
4735.00,0.92
4734.00,0.92
4733.00,0.92
4732.00,0.93
4731.00,0.93
4730.00,0.93
4729.00,0.93
4728.00,0.93
4727.00,0.94
4726.00,0.94
4725.00,0.94
4724.00,0.94
4723.00,0.94
4722.00,0.94
4721.00,0.95
4720.00,0.95
4719.00,0.95
4718.00,0.95
4717.00,0.95
4716.00,0.95
4715.00,0.95
4714.00,0.96
4713.00,0.96
4712.00,0.96
4711.00,0.96
4710.00,0.96
4709.00,0.96
4708.00,0.96
4707.00,0.96
4706.00,0.97
4705.00,0.97
4704.00,0.97
4703.00,0.97
4702.00,0.97
4701.00,0.97
4700.00,0.98
4699.00,0.98
4698.00,0.98
4697.00,0.98
4696.00,0.98
4695.00,0.99
4694.00,0.99
4693.00,0.99
4692.00,0.99
4691.00,0.99
4690.00,0.99
4689.00,1.00
4688.00,1.00
4687.00,1.00
4686.00,1.00
4685.00,1.00
4684.00,1.00
4683.00,1.00
4682.00,1.00
4681.00,1.00
4680.00,1.00
4679.00,1.01
4678.00,1.01
4677.00,1.01
4676.00,1.01
4675.00,1.01
4674.00,1.01
4673.00,1.01
4672.00,1.02
4671.00,1.02
4670.00,1.02
4669.00,1.02
4668.00,1.02
4667.00,1.02
4666.00,1.02
4665.00,1.03
4664.00,1.03
4663.00,1.03
4662.00,1.03
4661.00,1.03
4660.00,1.03
4659.00,1.04
4658.00,1.04
4657.00,1.04
4656.00,1.04
4655.00,1.04
4654.00,1.04
4653.00,1.04
4652.00,1.05
4651.00,1.05
4650.00,1.05
4649.00,1.05
4648.00,1.05
4647.00,1.05
4646.00,1.05
4645.00,1.05
4644.00,1.06
4643.00,1.06
4642.00,1.06
4641.00,1.06
4640.00,1.06
4639.00,1.06
4638.00,1.06
4637.00,1.06
4636.00,1.06
4635.00,1.06
4634.00,1.06
4633.00,1.06
4632.00,1.07
4631.00,1.07
4630.00,1.07
4629.00,1.07
4628.00,1.07
4627.00,1.07
4626.00,1.07
4625.00,1.07
4624.00,1.07
4623.00,1.08
4622.00,1.08
4621.00,1.08
4620.00,1.08
4619.00,1.08
4618.00,1.08
4617.00,1.08
4616.00,1.09
4615.00,1.09
4614.00,1.09
4613.00,1.09
4612.00,1.09
4611.00,1.09
4610.00,1.09
4609.00,1.09
4608.00,1.10
4607.00,1.10
4606.00,1.10
4605.00,1.10
4604.00,1.10
4603.00,1.10
4602.00,1.10
4601.00,1.10
4600.00,1.10
4599.00,1.10
4598.00,1.10
4597.00,1.11
4596.00,1.11
4595.00,1.11
4594.00,1.11
4593.00,1.11
4592.00,1.11
4591.00,1.11
4590.00,1.11
4589.00,1.11
4588.00,1.11
4587.00,1.11
4586.00,1.11
4585.00,1.12
4584.00,1.12
4583.00,1.12
4582.00,1.12
4581.00,1.12
4580.00,1.12
4579.00,1.12
4578.00,1.12
4577.00,1.12
4576.00,1.13
4575.00,1.13
4574.00,1.13
4573.00,1.13
4572.00,1.13
4571.00,1.13
4570.00,1.13
4569.00,1.13
4568.00,1.13
4567.00,1.13
4566.00,1.13
4565.00,1.14
4564.00,1.14
4563.00,1.14
4562.00,1.14
4561.00,1.14
4560.00,1.14
4559.00,1.14
4558.00,1.14
4557.00,1.14
4556.00,1.14
4555.00,1.14
4554.00,1.14
4553.00,1.14
4552.00,1.14
4551.00,1.15
4550.00,1.15
4549.00,1.15
4548.00,1.15
4547.00,1.15
4546.00,1.15
4545.00,1.15
4544.00,1.15
4543.00,1.16
4542.00,1.16
4541.00,1.16
4540.00,1.16
4539.00,1.16
4538.00,1.16
4537.00,1.16
4536.00,1.16
4535.00,1.17
4534.00,1.17
4533.00,1.17
4532.00,1.17
4531.00,1.17
4530.00,1.17
4529.00,1.17
4528.00,1.17
4527.00,1.17
4526.00,1.16
4525.00,1.16
4524.00,1.16
4523.00,1.16
4522.00,1.16
4521.00,1.16
4520.00,1.16
4519.00,1.16
4518.00,1.16
4517.00,1.16
4516.00,1.16
4515.00,1.16
4514.00,1.16
4513.00,1.15
4512.00,1.15
4511.00,1.15
4510.00,1.15
4509.00,1.15
4508.00,1.15
4507.00,1.15
4506.00,1.15
4505.00,1.15
4504.00,1.16
4503.00,1.16
4502.00,1.16
4501.00,1.16
4500.00,1.16
4499.00,1.16
4498.00,1.16
4497.00,1.16
4496.00,1.16
4495.00,1.15
4494.00,1.15
4493.00,1.15
4492.00,1.15
4491.00,1.15
4490.00,1.15
4489.00,1.15
4488.00,1.15
4487.00,1.15
4486.00,1.15
4485.00,1.15
4484.00,1.15
4483.00,1.15
4482.00,1.14
4481.00,1.14
4480.00,1.14
4479.00,1.14
4478.00,1.14
4477.00,1.13
4476.00,1.13
4475.00,1.13
4474.00,1.13
4473.00,1.12
4472.00,1.12
4471.00,1.12
4470.00,1.12
4469.00,1.11
4468.00,1.11
4467.00,1.11
4466.00,1.11
4465.00,1.10
4464.00,1.10
4463.00,1.10
4462.00,1.10
4461.00,1.09
4460.00,1.09
4459.00,1.09
4458.00,1.09
4457.00,1.08
4456.00,1.08
4455.00,1.08
4454.00,1.07
4453.00,1.07
4452.00,1.07
4451.00,1.06
4450.00,1.06
4449.00,1.06
4448.00,1.05
4447.00,1.05
4446.00,1.04
4445.00,1.04
4444.00,1.04
4443.00,1.03
4442.00,1.03
4441.00,1.02
4440.00,1.02
4439.00,1.01
4438.00,1.01
4437.00,1.01
4436.00,1.00
4435.00,1.00
4434.00,1.00
4433.00,0.99
4432.00,0.99
4431.00,0.99
4430.00,0.99
4429.00,0.98
4428.00,0.98
4427.00,0.98
4426.00,0.98
4425.00,0.98
4424.00,0.97
4423.00,0.97
4422.00,0.97
4421.00,0.97
4420.00,0.97
4419.00,0.97
4418.00,0.97
4417.00,0.96
4416.00,0.96
4415.00,0.96
4414.00,0.96
4413.00,0.96
4412.00,0.96
4411.00,0.96
4410.00,0.96
4409.00,0.96
4408.00,0.96
4407.00,0.96
4406.00,0.96
4405.00,0.96
4404.00,0.96
4403.00,0.96
4402.00,0.96
4401.00,0.96
4400.00,0.96
4399.00,0.96
4398.00,0.97
4397.00,0.97
4396.00,0.97
4395.00,0.97
4394.00,0.97
4393.00,0.97
4392.00,0.97
4391.00,0.98
4390.00,0.98
4389.00,0.98
4388.00,0.98
4387.00,0.98
4386.00,0.98
4385.00,0.98
4384.00,0.99
4383.00,0.99
4382.00,0.99
4381.00,0.99
4380.00,0.99
4379.00,0.99
4378.00,1.00
4377.00,1.00
4376.00,1.00
4375.00,1.00
4374.00,1.00
4373.00,1.00
4372.00,1.00
4371.00,1.00
4370.00,1.00
4369.00,1.00
4368.00,1.00
4367.00,1.00
4366.00,1.01
4365.00,1.01
4364.00,1.01
4363.00,1.00
4362.00,1.00
4361.00,1.00
4360.00,1.00
4359.00,1.00
4358.00,1.00
4357.00,1.00
4356.00,1.00
4355.00,1.00
4354.00,1.00
4353.00,1.00
4352.00,1.00
4351.00,1.00
4350.00,1.00
4349.00,1.00
4348.00,1.00
4347.00,1.00
4346.00,1.00
4345.00,1.00
4344.00,1.00
4343.00,1.00
4342.00,1.00
4341.00,1.00
4340.00,1.00
4339.00,1.00
4338.00,1.00
4337.00,1.00
4336.00,1.00
4335.00,1.01
4334.00,1.01
4333.00,1.01
4332.00,1.01
4331.00,1.01
4330.00,1.01
4329.00,1.01
4328.00,1.01
4327.00,1.02
4326.00,1.02
4325.00,1.02
4324.00,1.02
4323.00,1.02
4322.00,1.02
4321.00,1.02
4320.00,1.02
4319.00,1.03
4318.00,1.03
4317.00,1.03
4316.00,1.03
4315.00,1.03
4314.00,1.03
4313.00,1.03
4312.00,1.03
4311.00,1.04
4310.00,1.04
4309.00,1.04
4308.00,1.04
4307.00,1.04
4306.00,1.04
4305.00,1.05
4304.00,1.05
4303.00,1.05
4302.00,1.05
4301.00,1.05
4300.00,1.05
4299.00,1.06
4298.00,1.06
4297.00,1.06
4296.00,1.06
4295.00,1.06
4294.00,1.06
4293.00,1.06
4292.00,1.06
4291.00,1.06
4290.00,1.07
4289.00,1.07
4288.00,1.07
4287.00,1.07
4286.00,1.07
4285.00,1.07
4284.00,1.07
4283.00,1.07
4282.00,1.07
4281.00,1.07
4280.00,1.07
4279.00,1.07
4278.00,1.07
4277.00,1.07
4276.00,1.07
4275.00,1.07
4274.00,1.07
4273.00,1.07
4272.00,1.07
4271.00,1.07
4270.00,1.07
4269.00,1.07
4268.00,1.07
4267.00,1.07
4266.00,1.07
4265.00,1.07
4264.00,1.07
4263.00,1.07
4262.00,1.07
4261.00,1.07
4260.00,1.07
4259.00,1.07
4258.00,1.07
4257.00,1.07
4256.00,1.07
4255.00,1.07
4254.00,1.07
4253.00,1.07
4252.00,1.07
4251.00,1.07
4250.00,1.07
4249.00,1.07
4248.00,1.07
4247.00,1.07
4246.00,1.07
4245.00,1.07
4244.00,1.07
4243.00,1.07
4242.00,1.08
4241.00,1.08
4240.00,1.08
4239.00,1.08
4238.00,1.08
4237.00,1.08
4236.00,1.08
4235.00,1.09
4234.00,1.09
4233.00,1.09
4232.00,1.09
4231.00,1.09
4230.00,1.09
4229.00,1.09
4228.00,1.09
4227.00,1.10
4226.00,1.10
4225.00,1.10
4224.00,1.10
4223.00,1.10
4222.00,1.10
4221.00,1.10
4220.00,1.10
4219.00,1.10
4218.00,1.10
4217.00,1.11
4216.00,1.11
4215.00,1.11
4214.00,1.11
4213.00,1.11
4212.00,1.11
4211.00,1.12
4210.00,1.12
4209.00,1.12
4208.00,1.12
4207.00,1.12
4206.00,1.12
4205.00,1.12
4204.00,1.12
4203.00,1.12
4202.00,1.12
4201.00,1.12
4200.00,1.12
4199.00,1.12
4198.00,1.12
4197.00,1.12
4196.00,1.12
4195.00,1.12
4194.00,1.12
4193.00,1.12
4192.00,1.12
4191.00,1.12
4190.00,1.12
4189.00,1.12
4188.00,1.12
4187.00,1.12
4186.00,1.12
4185.00,1.12
4184.00,1.12
4183.00,1.12
4182.00,1.12
4181.00,1.12
4180.00,1.12
4179.00,1.12
4178.00,1.12
4177.00,1.12
4176.00,1.12
4175.00,1.12
4174.00,1.13
4173.00,1.13
4172.00,1.13
4171.00,1.13
4170.00,1.13
4169.00,1.13
4168.00,1.13
4167.00,1.13
4166.00,1.13
4165.00,1.14
4164.00,1.14
4163.00,1.14
4162.00,1.14
4161.00,1.14
4160.00,1.14
4159.00,1.14
4158.00,1.14
4157.00,1.14
4156.00,1.14
4155.00,1.14
4154.00,1.14
4153.00,1.14
4152.00,1.14
4151.00,1.14
4150.00,1.14
4149.00,1.14
4148.00,1.14
4147.00,1.14
4146.00,1.14
4145.00,1.14
4144.00,1.14
4143.00,1.14
4142.00,1.14
4141.00,1.14
4140.00,1.14
4139.00,1.14
4138.00,1.13
4137.00,1.13
4136.00,1.13
4135.00,1.13
4134.00,1.13
4133.00,1.13
4132.00,1.13
4131.00,1.14
4130.00,1.14
4129.00,1.14
4128.00,1.14
4127.00,1.14
4126.00,1.14
4125.00,1.14
4124.00,1.15
4123.00,1.15
4122.00,1.15
4121.00,1.15
4120.00,1.15
4119.00,1.15
4118.00,1.16
4117.00,1.16
4116.00,1.16
4115.00,1.16
4114.00,1.16
4113.00,1.16
4112.00,1.16
4111.00,1.16
4110.00,1.16
4109.00,1.15
4108.00,1.15
4107.00,1.15
4106.00,1.15
4105.00,1.15
4104.00,1.15
4103.00,1.15
4102.00,1.15
4101.00,1.15
4100.00,1.15
4099.00,1.15
4098.00,1.15
4097.00,1.15
4096.00,1.15
4095.00,1.15
4094.00,1.15
4093.00,1.15
4092.00,1.15
4091.00,1.15
4090.00,1.15
4089.00,1.15
4088.00,1.15
4087.00,1.15
4086.00,1.15
4085.00,1.15
4084.00,1.15
4083.00,1.15
4082.00,1.15
4081.00,1.15
4080.00,1.15
4079.00,1.15
4078.00,1.15
4077.00,1.15
4076.00,1.15
4075.00,1.16
4074.00,1.16
4073.00,1.16
4072.00,1.16
4071.00,1.16
4070.00,1.16
4069.00,1.16
4068.00,1.16
4067.00,1.16
4066.00,1.16
4065.00,1.16
4064.00,1.16
4063.00,1.16
4062.00,1.17
4061.00,1.17
4060.00,1.17
4059.00,1.17
4058.00,1.17
4057.00,1.17
4056.00,1.17
4055.00,1.17
4054.00,1.17
4053.00,1.17
4052.00,1.17
4051.00,1.18
4050.00,1.18
4049.00,1.18
4048.00,1.18
4047.00,1.18
4046.00,1.18
4045.00,1.18
4044.00,1.18
4043.00,1.18
4042.00,1.18
4041.00,1.18
4040.00,1.18
4039.00,1.18
4038.00,1.18
4037.00,1.18
4036.00,1.18
4035.00,1.18
4034.00,1.18
4033.00,1.18
4032.00,1.18
4031.00,1.18
4030.00,1.18
4029.00,1.18
4028.00,1.19
4027.00,1.19
4026.00,1.19
4025.00,1.19
4024.00,1.19
4023.00,1.19
4022.00,1.19
4021.00,1.19
4020.00,1.19
4019.00,1.19
4018.00,1.19
4017.00,1.19
4016.00,1.19
4015.00,1.19
4014.00,1.20
4013.00,1.20
4012.00,1.20
4011.00,1.20
4010.00,1.20
4009.00,1.20
4008.00,1.21
4007.00,1.21
4006.00,1.21
4005.00,1.21
4004.00,1.21
4003.00,1.21
4002.00,1.22
4001.00,1.22
4000.00,1.22
