创建为新数据集,样品 162 用户 Administrator 日期 星期三, 十一月 08 2017
cm-1,%T
10000.00,1.36
9999.00,1.36
9998.00,1.35
9997.00,1.35
9996.00,1.35
9995.00,1.35
9994.00,1.35
9993.00,1.34
9992.00,1.34
9991.00,1.34
9990.00,1.34
9989.00,1.34
9988.00,1.34
9987.00,1.35
9986.00,1.35
9985.00,1.35
9984.00,1.35
9983.00,1.35
9982.00,1.35
9981.00,1.35
9980.00,1.35
9979.00,1.35
9978.00,1.35
9977.00,1.36
9976.00,1.36
9975.00,1.36
9974.00,1.36
9973.00,1.36
9972.00,1.36
9971.00,1.35
9970.00,1.35
9969.00,1.35
9968.00,1.35
9967.00,1.35
9966.00,1.35
9965.00,1.35
9964.00,1.35
9963.00,1.35
9962.00,1.35
9961.00,1.35
9960.00,1.35
9959.00,1.35
9958.00,1.36
9957.00,1.36
9956.00,1.36
9955.00,1.36
9954.00,1.36
9953.00,1.36
9952.00,1.36
9951.00,1.36
9950.00,1.35
9949.00,1.35
9948.00,1.35
9947.00,1.35
9946.00,1.35
9945.00,1.35
9944.00,1.35
9943.00,1.35
9942.00,1.35
9941.00,1.35
9940.00,1.35
9939.00,1.35
9938.00,1.35
9937.00,1.35
9936.00,1.35
9935.00,1.34
9934.00,1.34
9933.00,1.34
9932.00,1.34
9931.00,1.34
9930.00,1.34
9929.00,1.34
9928.00,1.33
9927.00,1.33
9926.00,1.33
9925.00,1.33
9924.00,1.33
9923.00,1.33
9922.00,1.33
9921.00,1.32
9920.00,1.32
9919.00,1.32
9918.00,1.32
9917.00,1.32
9916.00,1.32
9915.00,1.32
9914.00,1.32
9913.00,1.32
9912.00,1.32
9911.00,1.33
9910.00,1.33
9909.00,1.33
9908.00,1.33
9907.00,1.33
9906.00,1.33
9905.00,1.33
9904.00,1.33
9903.00,1.33
9902.00,1.33
9901.00,1.33
9900.00,1.33
9899.00,1.33
9898.00,1.33
9897.00,1.33
9896.00,1.33
9895.00,1.33
9894.00,1.33
9893.00,1.33
9892.00,1.33
9891.00,1.32
9890.00,1.32
9889.00,1.32
9888.00,1.32
9887.00,1.32
9886.00,1.32
9885.00,1.32
9884.00,1.32
9883.00,1.32
9882.00,1.32
9881.00,1.32
9880.00,1.32
9879.00,1.32
9878.00,1.32
9877.00,1.32
9876.00,1.32
9875.00,1.32
9874.00,1.32
9873.00,1.32
9872.00,1.33
9871.00,1.33
9870.00,1.33
9869.00,1.33
9868.00,1.33
9867.00,1.34
9866.00,1.34
9865.00,1.34
9864.00,1.34
9863.00,1.34
9862.00,1.35
9861.00,1.35
9860.00,1.35
9859.00,1.35
9858.00,1.35
9857.00,1.35
9856.00,1.35
9855.00,1.35
9854.00,1.35
9853.00,1.35
9852.00,1.35
9851.00,1.35
9850.00,1.35
9849.00,1.35
9848.00,1.35
9847.00,1.35
9846.00,1.35
9845.00,1.35
9844.00,1.34
9843.00,1.34
9842.00,1.34
9841.00,1.34
9840.00,1.34
9839.00,1.34
9838.00,1.34
9837.00,1.34
9836.00,1.34
9835.00,1.34
9834.00,1.34
9833.00,1.34
9832.00,1.34
9831.00,1.34
9830.00,1.34
9829.00,1.34
9828.00,1.34
9827.00,1.34
9826.00,1.34
9825.00,1.34
9824.00,1.34
9823.00,1.34
9822.00,1.34
9821.00,1.34
9820.00,1.34
9819.00,1.34
9818.00,1.34
9817.00,1.34
9816.00,1.34
9815.00,1.34
9814.00,1.34
9813.00,1.34
9812.00,1.34
9811.00,1.34
9810.00,1.34
9809.00,1.34
9808.00,1.33
9807.00,1.33
9806.00,1.33
9805.00,1.33
9804.00,1.33
9803.00,1.32
9802.00,1.32
9801.00,1.32
9800.00,1.32
9799.00,1.32
9798.00,1.32
9797.00,1.32
9796.00,1.32
9795.00,1.32
9794.00,1.33
9793.00,1.33
9792.00,1.33
9791.00,1.33
9790.00,1.33
9789.00,1.33
9788.00,1.33
9787.00,1.33
9786.00,1.33
9785.00,1.33
9784.00,1.34
9783.00,1.34
9782.00,1.34
9781.00,1.34
9780.00,1.34
9779.00,1.34
9778.00,1.34
9777.00,1.34
9776.00,1.33
9775.00,1.33
9774.00,1.33
9773.00,1.33
9772.00,1.33
9771.00,1.33
9770.00,1.33
9769.00,1.33
9768.00,1.33
9767.00,1.33
9766.00,1.33
9765.00,1.33
9764.00,1.33
9763.00,1.33
9762.00,1.33
9761.00,1.33
9760.00,1.33
9759.00,1.33
9758.00,1.33
9757.00,1.33
9756.00,1.33
9755.00,1.34
9754.00,1.34
9753.00,1.34
9752.00,1.34
9751.00,1.34
9750.00,1.34
9749.00,1.34
9748.00,1.34
9747.00,1.34
9746.00,1.34
9745.00,1.34
9744.00,1.34
9743.00,1.34
9742.00,1.33
9741.00,1.33
9740.00,1.33
9739.00,1.33
9738.00,1.33
9737.00,1.33
9736.00,1.33
9735.00,1.33
9734.00,1.32
9733.00,1.32
9732.00,1.32
9731.00,1.32
9730.00,1.32
9729.00,1.32
9728.00,1.32
9727.00,1.32
9726.00,1.32
9725.00,1.32
9724.00,1.32
9723.00,1.32
9722.00,1.32
9721.00,1.32
9720.00,1.32
9719.00,1.33
9718.00,1.33
9717.00,1.33
9716.00,1.33
9715.00,1.33
9714.00,1.33
9713.00,1.33
9712.00,1.33
9711.00,1.33
9710.00,1.33
9709.00,1.33
9708.00,1.33
9707.00,1.33
9706.00,1.33
9705.00,1.33
9704.00,1.33
9703.00,1.33
9702.00,1.33
9701.00,1.33
9700.00,1.33
9699.00,1.33
9698.00,1.34
9697.00,1.34
9696.00,1.34
9695.00,1.34
9694.00,1.34
9693.00,1.34
9692.00,1.35
9691.00,1.35
9690.00,1.35
9689.00,1.35
9688.00,1.35
9687.00,1.35
9686.00,1.35
9685.00,1.35
9684.00,1.35
9683.00,1.35
9682.00,1.35
9681.00,1.35
9680.00,1.35
9679.00,1.35
9678.00,1.35
9677.00,1.35
9676.00,1.35
9675.00,1.35
9674.00,1.35
9673.00,1.35
9672.00,1.34
9671.00,1.34
9670.00,1.34
9669.00,1.34
9668.00,1.34
9667.00,1.34
9666.00,1.34
9665.00,1.34
9664.00,1.34
9663.00,1.34
9662.00,1.34
9661.00,1.35
9660.00,1.35
9659.00,1.35
9658.00,1.35
9657.00,1.35
9656.00,1.35
9655.00,1.35
9654.00,1.35
9653.00,1.35
9652.00,1.35
9651.00,1.35
9650.00,1.35
9649.00,1.35
9648.00,1.34
9647.00,1.34
9646.00,1.34
9645.00,1.34
9644.00,1.34
9643.00,1.34
9642.00,1.34
9641.00,1.34
9640.00,1.34
9639.00,1.34
9638.00,1.34
9637.00,1.34
9636.00,1.34
9635.00,1.34
9634.00,1.34
9633.00,1.34
9632.00,1.34
9631.00,1.34
9630.00,1.34
9629.00,1.34
9628.00,1.34
9627.00,1.34
9626.00,1.34
9625.00,1.34
9624.00,1.34
9623.00,1.34
9622.00,1.34
9621.00,1.34
9620.00,1.34
9619.00,1.34
9618.00,1.34
9617.00,1.34
9616.00,1.34
9615.00,1.34
9614.00,1.34
9613.00,1.34
9612.00,1.34
9611.00,1.35
9610.00,1.35
9609.00,1.35
9608.00,1.35
9607.00,1.35
9606.00,1.35
9605.00,1.35
9604.00,1.35
9603.00,1.35
9602.00,1.35
9601.00,1.35
9600.00,1.34
9599.00,1.34
9598.00,1.34
9597.00,1.34
9596.00,1.34
9595.00,1.34
9594.00,1.33
9593.00,1.33
9592.00,1.33
9591.00,1.33
9590.00,1.33
9589.00,1.33
9588.00,1.33
9587.00,1.33
9586.00,1.32
9585.00,1.32
9584.00,1.32
9583.00,1.32
9582.00,1.32
9581.00,1.32
9580.00,1.33
9579.00,1.33
9578.00,1.33
9577.00,1.33
9576.00,1.33
9575.00,1.33
9574.00,1.33
9573.00,1.33
9572.00,1.33
9571.00,1.33
9570.00,1.33
9569.00,1.33
9568.00,1.33
9567.00,1.33
9566.00,1.33
9565.00,1.33
9564.00,1.33
9563.00,1.33
9562.00,1.33
9561.00,1.33
9560.00,1.33
9559.00,1.33
9558.00,1.33
9557.00,1.33
9556.00,1.33
9555.00,1.33
9554.00,1.33
9553.00,1.33
9552.00,1.33
9551.00,1.33
9550.00,1.33
9549.00,1.33
9548.00,1.33
9547.00,1.33
9546.00,1.32
9545.00,1.32
9544.00,1.32
9543.00,1.32
9542.00,1.33
9541.00,1.33
9540.00,1.33
9539.00,1.33
9538.00,1.33
9537.00,1.33
9536.00,1.33
9535.00,1.33
9534.00,1.33
9533.00,1.34
9532.00,1.34
9531.00,1.34
9530.00,1.34
9529.00,1.34
9528.00,1.34
9527.00,1.34
9526.00,1.34
9525.00,1.34
9524.00,1.34
9523.00,1.34
9522.00,1.34
9521.00,1.34
9520.00,1.34
9519.00,1.34
9518.00,1.34
9517.00,1.35
9516.00,1.35
9515.00,1.35
9514.00,1.35
9513.00,1.35
9512.00,1.35
9511.00,1.35
9510.00,1.35
9509.00,1.35
9508.00,1.35
9507.00,1.35
9506.00,1.35
9505.00,1.35
9504.00,1.35
9503.00,1.35
9502.00,1.34
9501.00,1.34
9500.00,1.34
9499.00,1.34
9498.00,1.34
9497.00,1.34
9496.00,1.33
9495.00,1.33
9494.00,1.33
9493.00,1.33
9492.00,1.33
9491.00,1.32
9490.00,1.32
9489.00,1.32
9488.00,1.32
9487.00,1.32
9486.00,1.32
9485.00,1.32
9484.00,1.32
9483.00,1.32
9482.00,1.32
9481.00,1.32
9480.00,1.32
9479.00,1.32
9478.00,1.32
9477.00,1.32
9476.00,1.32
9475.00,1.33
9474.00,1.33
9473.00,1.33
9472.00,1.33
9471.00,1.33
9470.00,1.33
9469.00,1.33
9468.00,1.33
9467.00,1.33
9466.00,1.33
9465.00,1.33
9464.00,1.33
9463.00,1.33
9462.00,1.33
9461.00,1.33
9460.00,1.33
9459.00,1.33
9458.00,1.33
9457.00,1.33
9456.00,1.33
9455.00,1.33
9454.00,1.33
9453.00,1.33
9452.00,1.33
9451.00,1.33
9450.00,1.34
9449.00,1.34
9448.00,1.34
9447.00,1.34
9446.00,1.34
9445.00,1.34
9444.00,1.34
9443.00,1.34
9442.00,1.34
9441.00,1.34
9440.00,1.34
9439.00,1.34
9438.00,1.34
9437.00,1.34
9436.00,1.34
9435.00,1.34
9434.00,1.34
9433.00,1.34
9432.00,1.34
9431.00,1.34
9430.00,1.34
9429.00,1.34
9428.00,1.34
9427.00,1.34
9426.00,1.34
9425.00,1.34
9424.00,1.34
9423.00,1.34
9422.00,1.34
9421.00,1.34
9420.00,1.34
9419.00,1.34
9418.00,1.33
9417.00,1.33
9416.00,1.33
9415.00,1.33
9414.00,1.33
9413.00,1.32
9412.00,1.32
9411.00,1.32
9410.00,1.32
9409.00,1.32
9408.00,1.32
9407.00,1.32
9406.00,1.32
9405.00,1.33
9404.00,1.33
9403.00,1.33
9402.00,1.33
9401.00,1.34
9400.00,1.34
9399.00,1.34
9398.00,1.34
9397.00,1.35
9396.00,1.35
9395.00,1.35
9394.00,1.35
9393.00,1.35
9392.00,1.35
9391.00,1.35
9390.00,1.35
9389.00,1.35
9388.00,1.35
9387.00,1.35
9386.00,1.35
9385.00,1.35
9384.00,1.35
9383.00,1.35
9382.00,1.35
9381.00,1.34
9380.00,1.34
9379.00,1.34
9378.00,1.34
9377.00,1.34
9376.00,1.34
9375.00,1.33
9374.00,1.33
9373.00,1.33
9372.00,1.33
9371.00,1.33
9370.00,1.33
9369.00,1.33
9368.00,1.32
9367.00,1.32
9366.00,1.32
9365.00,1.32
9364.00,1.32
9363.00,1.32
9362.00,1.32
9361.00,1.32
9360.00,1.32
9359.00,1.32
9358.00,1.32
9357.00,1.32
9356.00,1.32
9355.00,1.32
9354.00,1.32
9353.00,1.32
9352.00,1.32
9351.00,1.33
9350.00,1.33
9349.00,1.33
9348.00,1.33
9347.00,1.33
9346.00,1.34
9345.00,1.34
9344.00,1.34
9343.00,1.34
9342.00,1.34
9341.00,1.34
9340.00,1.34
9339.00,1.35
9338.00,1.35
9337.00,1.35
9336.00,1.35
9335.00,1.35
9334.00,1.34
9333.00,1.34
9332.00,1.34
9331.00,1.34
9330.00,1.34
9329.00,1.34
9328.00,1.34
9327.00,1.34
9326.00,1.34
9325.00,1.34
9324.00,1.34
9323.00,1.34
9322.00,1.34
9321.00,1.34
9320.00,1.34
9319.00,1.34
9318.00,1.34
9317.00,1.34
9316.00,1.34
9315.00,1.34
9314.00,1.34
9313.00,1.34
9312.00,1.34
9311.00,1.34
9310.00,1.34
9309.00,1.34
9308.00,1.34
9307.00,1.34
9306.00,1.34
9305.00,1.34
9304.00,1.34
9303.00,1.34
9302.00,1.34
9301.00,1.34
9300.00,1.34
9299.00,1.34
9298.00,1.34
9297.00,1.34
9296.00,1.34
9295.00,1.34
9294.00,1.34
9293.00,1.34
9292.00,1.34
9291.00,1.34
9290.00,1.34
9289.00,1.34
9288.00,1.34
9287.00,1.34
9286.00,1.34
9285.00,1.34
9284.00,1.34
9283.00,1.34
9282.00,1.34
9281.00,1.34
9280.00,1.34
9279.00,1.34
9278.00,1.34
9277.00,1.34
9276.00,1.34
9275.00,1.34
9274.00,1.34
9273.00,1.34
9272.00,1.33
9271.00,1.33
9270.00,1.33
9269.00,1.33
9268.00,1.33
9267.00,1.33
9266.00,1.33
9265.00,1.33
9264.00,1.33
9263.00,1.33
9262.00,1.33
9261.00,1.33
9260.00,1.33
9259.00,1.33
9258.00,1.33
9257.00,1.33
9256.00,1.33
9255.00,1.33
9254.00,1.33
9253.00,1.33
9252.00,1.33
9251.00,1.33
9250.00,1.33
9249.00,1.33
9248.00,1.33
9247.00,1.33
9246.00,1.33
9245.00,1.33
9244.00,1.33
9243.00,1.33
9242.00,1.33
9241.00,1.33
9240.00,1.33
9239.00,1.33
9238.00,1.33
9237.00,1.33
9236.00,1.33
9235.00,1.33
9234.00,1.33
9233.00,1.33
9232.00,1.33
9231.00,1.34
9230.00,1.34
9229.00,1.34
9228.00,1.34
9227.00,1.34
9226.00,1.34
9225.00,1.34
9224.00,1.34
9223.00,1.34
9222.00,1.35
9221.00,1.35
9220.00,1.35
9219.00,1.34
9218.00,1.34
9217.00,1.34
9216.00,1.34
9215.00,1.34
9214.00,1.34
9213.00,1.34
9212.00,1.34
9211.00,1.34
9210.00,1.34
9209.00,1.34
9208.00,1.33
9207.00,1.33
9206.00,1.33
9205.00,1.33
9204.00,1.33
9203.00,1.33
9202.00,1.33
9201.00,1.33
9200.00,1.33
9199.00,1.33
9198.00,1.33
9197.00,1.33
9196.00,1.33
9195.00,1.33
9194.00,1.33
9193.00,1.33
9192.00,1.33
9191.00,1.33
9190.00,1.33
9189.00,1.33
9188.00,1.33
9187.00,1.33
9186.00,1.33
9185.00,1.33
9184.00,1.33
9183.00,1.33
9182.00,1.33
9181.00,1.33
9180.00,1.33
9179.00,1.33
9178.00,1.33
9177.00,1.33
9176.00,1.33
9175.00,1.33
9174.00,1.33
9173.00,1.33
9172.00,1.33
9171.00,1.33
9170.00,1.33
9169.00,1.33
9168.00,1.33
9167.00,1.33
9166.00,1.33
9165.00,1.33
9164.00,1.33
9163.00,1.33
9162.00,1.33
9161.00,1.32
9160.00,1.32
9159.00,1.32
9158.00,1.32
9157.00,1.32
9156.00,1.32
9155.00,1.32
9154.00,1.32
9153.00,1.32
9152.00,1.32
9151.00,1.32
9150.00,1.32
9149.00,1.32
9148.00,1.32
9147.00,1.32
9146.00,1.32
9145.00,1.32
9144.00,1.32
9143.00,1.32
9142.00,1.32
9141.00,1.32
9140.00,1.32
9139.00,1.32
9138.00,1.32
9137.00,1.33
9136.00,1.33
9135.00,1.33
9134.00,1.33
9133.00,1.33
9132.00,1.33
9131.00,1.33
9130.00,1.34
9129.00,1.34
9128.00,1.34
9127.00,1.34
9126.00,1.34
9125.00,1.34
9124.00,1.34
9123.00,1.34
9122.00,1.34
9121.00,1.34
9120.00,1.34
9119.00,1.34
9118.00,1.34
9117.00,1.34
9116.00,1.34
9115.00,1.34
9114.00,1.34
9113.00,1.34
9112.00,1.34
9111.00,1.33
9110.00,1.33
9109.00,1.33
9108.00,1.33
9107.00,1.33
9106.00,1.33
9105.00,1.33
9104.00,1.33
9103.00,1.33
9102.00,1.33
9101.00,1.33
9100.00,1.33
9099.00,1.33
9098.00,1.33
9097.00,1.33
9096.00,1.33
9095.00,1.34
9094.00,1.34
9093.00,1.34
9092.00,1.34
9091.00,1.34
9090.00,1.34
9089.00,1.34
9088.00,1.35
9087.00,1.35
9086.00,1.35
9085.00,1.35
9084.00,1.35
9083.00,1.35
9082.00,1.35
9081.00,1.35
9080.00,1.35
9079.00,1.35
9078.00,1.35
9077.00,1.35
9076.00,1.35
9075.00,1.35
9074.00,1.35
9073.00,1.35
9072.00,1.35
9071.00,1.35
9070.00,1.35
9069.00,1.35
9068.00,1.35
9067.00,1.35
9066.00,1.35
9065.00,1.35
9064.00,1.35
9063.00,1.35
9062.00,1.35
9061.00,1.35
9060.00,1.35
9059.00,1.35
9058.00,1.34
9057.00,1.34
9056.00,1.34
9055.00,1.34
9054.00,1.34
9053.00,1.34
9052.00,1.33
9051.00,1.33
9050.00,1.33
9049.00,1.33
9048.00,1.33
9047.00,1.33
9046.00,1.33
9045.00,1.33
9044.00,1.33
9043.00,1.33
9042.00,1.33
9041.00,1.32
9040.00,1.32
9039.00,1.32
9038.00,1.32
9037.00,1.32
9036.00,1.32
9035.00,1.32
9034.00,1.32
9033.00,1.32
9032.00,1.32
9031.00,1.32
9030.00,1.32
9029.00,1.32
9028.00,1.32
9027.00,1.32
9026.00,1.32
9025.00,1.32
9024.00,1.32
9023.00,1.33
9022.00,1.33
9021.00,1.33
9020.00,1.33
9019.00,1.33
9018.00,1.33
9017.00,1.33
9016.00,1.33
9015.00,1.33
9014.00,1.33
9013.00,1.33
9012.00,1.33
9011.00,1.33
9010.00,1.33
9009.00,1.33
9008.00,1.33
9007.00,1.33
9006.00,1.33
9005.00,1.33
9004.00,1.33
9003.00,1.33
9002.00,1.33
9001.00,1.33
9000.00,1.33
8999.00,1.33
8998.00,1.33
8997.00,1.33
8996.00,1.33
8995.00,1.33
8994.00,1.33
8993.00,1.33
8992.00,1.33
8991.00,1.33
8990.00,1.33
8989.00,1.33
8988.00,1.33
8987.00,1.33
8986.00,1.33
8985.00,1.33
8984.00,1.33
8983.00,1.33
8982.00,1.33
8981.00,1.33
8980.00,1.33
8979.00,1.33
8978.00,1.33
8977.00,1.33
8976.00,1.33
8975.00,1.33
8974.00,1.33
8973.00,1.33
8972.00,1.33
8971.00,1.33
8970.00,1.33
8969.00,1.33
8968.00,1.33
8967.00,1.34
8966.00,1.34
8965.00,1.34
8964.00,1.34
8963.00,1.34
8962.00,1.34
8961.00,1.34
8960.00,1.34
8959.00,1.34
8958.00,1.34
8957.00,1.34
8956.00,1.34
8955.00,1.34
8954.00,1.34
8953.00,1.34
8952.00,1.34
8951.00,1.34
8950.00,1.34
8949.00,1.34
8948.00,1.34
8947.00,1.34
8946.00,1.34
8945.00,1.34
8944.00,1.34
8943.00,1.34
8942.00,1.34
8941.00,1.34
8940.00,1.34
8939.00,1.34
8938.00,1.34
8937.00,1.34
8936.00,1.33
8935.00,1.33
8934.00,1.33
8933.00,1.33
8932.00,1.33
8931.00,1.33
8930.00,1.33
8929.00,1.33
8928.00,1.33
8927.00,1.33
8926.00,1.33
8925.00,1.33
8924.00,1.33
8923.00,1.34
8922.00,1.34
8921.00,1.34
8920.00,1.34
8919.00,1.34
8918.00,1.34
8917.00,1.33
8916.00,1.33
8915.00,1.33
8914.00,1.33
8913.00,1.33
8912.00,1.33
8911.00,1.33
8910.00,1.33
8909.00,1.33
8908.00,1.33
8907.00,1.33
8906.00,1.33
8905.00,1.33
8904.00,1.33
8903.00,1.33
8902.00,1.33
8901.00,1.33
8900.00,1.33
8899.00,1.33
8898.00,1.33
8897.00,1.33
8896.00,1.33
8895.00,1.33
8894.00,1.33
8893.00,1.33
8892.00,1.33
8891.00,1.32
8890.00,1.32
8889.00,1.32
8888.00,1.32
8887.00,1.32
8886.00,1.32
8885.00,1.32
8884.00,1.32
8883.00,1.32
8882.00,1.32
8881.00,1.32
8880.00,1.33
8879.00,1.33
8878.00,1.33
8877.00,1.33
8876.00,1.33
8875.00,1.33
8874.00,1.33
8873.00,1.33
8872.00,1.33
8871.00,1.33
8870.00,1.33
8869.00,1.33
8868.00,1.33
8867.00,1.33
8866.00,1.32
8865.00,1.32
8864.00,1.32
8863.00,1.32
8862.00,1.32
8861.00,1.32
8860.00,1.33
8859.00,1.33
8858.00,1.33
8857.00,1.33
8856.00,1.33
8855.00,1.33
8854.00,1.33
8853.00,1.33
8852.00,1.33
8851.00,1.33
8850.00,1.33
8849.00,1.33
8848.00,1.33
8847.00,1.32
8846.00,1.32
8845.00,1.32
8844.00,1.32
8843.00,1.32
8842.00,1.32
8841.00,1.32
8840.00,1.32
8839.00,1.32
8838.00,1.32
8837.00,1.32
8836.00,1.32
8835.00,1.32
8834.00,1.32
8833.00,1.32
8832.00,1.32
8831.00,1.32
8830.00,1.32
8829.00,1.32
8828.00,1.32
8827.00,1.32
8826.00,1.32
8825.00,1.32
8824.00,1.32
8823.00,1.32
8822.00,1.32
8821.00,1.32
8820.00,1.32
8819.00,1.32
8818.00,1.32
8817.00,1.32
8816.00,1.32
8815.00,1.31
8814.00,1.31
8813.00,1.31
8812.00,1.31
8811.00,1.31
8810.00,1.30
8809.00,1.30
8808.00,1.30
8807.00,1.30
8806.00,1.30
8805.00,1.30
8804.00,1.30
8803.00,1.30
8802.00,1.30
8801.00,1.30
8800.00,1.30
8799.00,1.30
8798.00,1.30
8797.00,1.30
8796.00,1.30
8795.00,1.30
8794.00,1.30
8793.00,1.31
8792.00,1.31
8791.00,1.31
8790.00,1.31
8789.00,1.31
8788.00,1.31
8787.00,1.31
8786.00,1.31
8785.00,1.31
8784.00,1.31
8783.00,1.31
8782.00,1.30
8781.00,1.30
8780.00,1.30
8779.00,1.30
8778.00,1.30
8777.00,1.30
8776.00,1.29
8775.00,1.29
8774.00,1.29
8773.00,1.29
8772.00,1.29
8771.00,1.29
8770.00,1.29
8769.00,1.29
8768.00,1.29
8767.00,1.29
8766.00,1.30
8765.00,1.30
8764.00,1.30
8763.00,1.30
8762.00,1.30
8761.00,1.30
8760.00,1.30
8759.00,1.30
8758.00,1.30
8757.00,1.30
8756.00,1.30
8755.00,1.30
8754.00,1.30
8753.00,1.30
8752.00,1.30
8751.00,1.30
8750.00,1.30
8749.00,1.29
8748.00,1.29
8747.00,1.29
8746.00,1.29
8745.00,1.29
8744.00,1.29
8743.00,1.29
8742.00,1.29
8741.00,1.28
8740.00,1.28
8739.00,1.28
8738.00,1.28
8737.00,1.28
8736.00,1.28
8735.00,1.28
8734.00,1.28
8733.00,1.28
8732.00,1.28
8731.00,1.28
8730.00,1.28
8729.00,1.28
8728.00,1.28
8727.00,1.28
8726.00,1.28
8725.00,1.28
8724.00,1.28
8723.00,1.28
8722.00,1.27
8721.00,1.27
8720.00,1.27
8719.00,1.27
8718.00,1.27
8717.00,1.27
8716.00,1.27
8715.00,1.27
8714.00,1.27
8713.00,1.27
8712.00,1.27
8711.00,1.27
8710.00,1.27
8709.00,1.27
8708.00,1.27
8707.00,1.27
8706.00,1.27
8705.00,1.27
8704.00,1.27
8703.00,1.28
8702.00,1.28
8701.00,1.28
8700.00,1.28
8699.00,1.28
8698.00,1.28
8697.00,1.28
8696.00,1.28
8695.00,1.28
8694.00,1.28
8693.00,1.28
8692.00,1.28
8691.00,1.28
8690.00,1.28
8689.00,1.28
8688.00,1.28
8687.00,1.28
8686.00,1.28
8685.00,1.28
8684.00,1.28
8683.00,1.28
8682.00,1.28
8681.00,1.28
8680.00,1.28
8679.00,1.28
8678.00,1.28
8677.00,1.28
8676.00,1.28
8675.00,1.27
8674.00,1.27
8673.00,1.27
8672.00,1.27
8671.00,1.27
8670.00,1.27
8669.00,1.27
8668.00,1.27
8667.00,1.27
8666.00,1.27
8665.00,1.26
8664.00,1.26
8663.00,1.26
8662.00,1.26
8661.00,1.26
8660.00,1.26
8659.00,1.26
8658.00,1.26
8657.00,1.26
8656.00,1.26
8655.00,1.26
8654.00,1.26
8653.00,1.26
8652.00,1.26
8651.00,1.27
8650.00,1.27
8649.00,1.27
8648.00,1.27
8647.00,1.27
8646.00,1.27
8645.00,1.27
8644.00,1.27
8643.00,1.27
8642.00,1.27
8641.00,1.27
8640.00,1.27
8639.00,1.27
8638.00,1.27
8637.00,1.27
8636.00,1.27
8635.00,1.27
8634.00,1.27
8633.00,1.26
8632.00,1.26
8631.00,1.26
8630.00,1.26
8629.00,1.26
8628.00,1.26
8627.00,1.25
8626.00,1.25
8625.00,1.25
8624.00,1.25
8623.00,1.25
8622.00,1.25
8621.00,1.25
8620.00,1.25
8619.00,1.25
8618.00,1.25
8617.00,1.25
8616.00,1.25
8615.00,1.25
8614.00,1.25
8613.00,1.25
8612.00,1.25
8611.00,1.25
8610.00,1.25
8609.00,1.25
8608.00,1.25
8607.00,1.25
8606.00,1.25
8605.00,1.25
8604.00,1.25
8603.00,1.25
8602.00,1.25
8601.00,1.25
8600.00,1.25
8599.00,1.24
8598.00,1.24
8597.00,1.24
8596.00,1.24
8595.00,1.24
8594.00,1.24
8593.00,1.24
8592.00,1.24
8591.00,1.24
8590.00,1.24
8589.00,1.24
8588.00,1.23
8587.00,1.23
8586.00,1.23
8585.00,1.23
8584.00,1.23
8583.00,1.23
8582.00,1.23
8581.00,1.23
8580.00,1.23
8579.00,1.23
8578.00,1.23
8577.00,1.23
8576.00,1.23
8575.00,1.23
8574.00,1.23
8573.00,1.23
8572.00,1.23
8571.00,1.23
8570.00,1.23
8569.00,1.23
8568.00,1.22
8567.00,1.22
8566.00,1.22
8565.00,1.22
8564.00,1.22
8563.00,1.22
8562.00,1.22
8561.00,1.22
8560.00,1.22
8559.00,1.22
8558.00,1.23
8557.00,1.23
8556.00,1.23
8555.00,1.23
8554.00,1.23
8553.00,1.23
8552.00,1.23
8551.00,1.23
8550.00,1.23
8549.00,1.23
8548.00,1.22
8547.00,1.22
8546.00,1.22
8545.00,1.22
8544.00,1.22
8543.00,1.22
8542.00,1.22
8541.00,1.21
8540.00,1.21
8539.00,1.21
8538.00,1.21
8537.00,1.21
8536.00,1.20
8535.00,1.20
8534.00,1.20
8533.00,1.20
8532.00,1.20
8531.00,1.20
8530.00,1.20
8529.00,1.20
8528.00,1.20
8527.00,1.20
8526.00,1.20
8525.00,1.20
8524.00,1.20
8523.00,1.20
8522.00,1.20
8521.00,1.20
8520.00,1.20
8519.00,1.20
8518.00,1.20
8517.00,1.20
8516.00,1.21
8515.00,1.21
8514.00,1.21
8513.00,1.21
8512.00,1.21
8511.00,1.21
8510.00,1.21
8509.00,1.21
8508.00,1.21
8507.00,1.21
8506.00,1.21
8505.00,1.21
8504.00,1.21
8503.00,1.21
8502.00,1.21
8501.00,1.20
8500.00,1.20
8499.00,1.20
8498.00,1.20
8497.00,1.20
8496.00,1.19
8495.00,1.19
8494.00,1.19
8493.00,1.19
8492.00,1.18
8491.00,1.18
8490.00,1.18
8489.00,1.18
8488.00,1.18
8487.00,1.18
8486.00,1.18
8485.00,1.18
8484.00,1.17
8483.00,1.17
8482.00,1.17
8481.00,1.17
8480.00,1.17
8479.00,1.17
8478.00,1.17
8477.00,1.17
8476.00,1.17
8475.00,1.17
8474.00,1.17
8473.00,1.17
8472.00,1.17
8471.00,1.17
8470.00,1.17
8469.00,1.17
8468.00,1.17
8467.00,1.17
8466.00,1.17
8465.00,1.17
8464.00,1.16
8463.00,1.16
8462.00,1.16
8461.00,1.16
8460.00,1.16
8459.00,1.16
8458.00,1.16
8457.00,1.16
8456.00,1.16
8455.00,1.16
8454.00,1.16
8453.00,1.16
8452.00,1.16
8451.00,1.16
8450.00,1.16
8449.00,1.16
8448.00,1.16
8447.00,1.16
8446.00,1.16
8445.00,1.16
8444.00,1.16
8443.00,1.16
8442.00,1.16
8441.00,1.16
8440.00,1.16
8439.00,1.16
8438.00,1.16
8437.00,1.16
8436.00,1.16
8435.00,1.16
8434.00,1.16
8433.00,1.16
8432.00,1.16
8431.00,1.16
8430.00,1.16
8429.00,1.16
8428.00,1.16
8427.00,1.16
8426.00,1.16
8425.00,1.16
8424.00,1.16
8423.00,1.16
8422.00,1.16
8421.00,1.16
8420.00,1.16
8419.00,1.16
8418.00,1.16
8417.00,1.16
8416.00,1.16
8415.00,1.16
8414.00,1.16
8413.00,1.16
8412.00,1.16
8411.00,1.16
8410.00,1.16
8409.00,1.16
8408.00,1.17
8407.00,1.17
8406.00,1.17
8405.00,1.17
8404.00,1.17
8403.00,1.17
8402.00,1.17
8401.00,1.17
8400.00,1.17
8399.00,1.17
8398.00,1.17
8397.00,1.18
8396.00,1.18
8395.00,1.18
8394.00,1.18
8393.00,1.18
8392.00,1.18
8391.00,1.18
8390.00,1.19
8389.00,1.19
8388.00,1.19
8387.00,1.19
8386.00,1.19
8385.00,1.19
8384.00,1.19
8383.00,1.19
8382.00,1.19
8381.00,1.19
8380.00,1.20
8379.00,1.20
8378.00,1.20
8377.00,1.20
8376.00,1.20
8375.00,1.20
8374.00,1.20
8373.00,1.20
8372.00,1.20
8371.00,1.20
8370.00,1.20
8369.00,1.20
8368.00,1.20
8367.00,1.20
8366.00,1.20
8365.00,1.20
8364.00,1.20
8363.00,1.20
8362.00,1.20
8361.00,1.20
8360.00,1.20
8359.00,1.20
8358.00,1.20
8357.00,1.20
8356.00,1.20
8355.00,1.20
8354.00,1.20
8353.00,1.20
8352.00,1.20
8351.00,1.20
8350.00,1.20
8349.00,1.20
8348.00,1.20
8347.00,1.20
8346.00,1.20
8345.00,1.20
8344.00,1.20
8343.00,1.19
8342.00,1.19
8341.00,1.19
8340.00,1.19
8339.00,1.19
8338.00,1.19
8337.00,1.19
8336.00,1.19
8335.00,1.19
8334.00,1.19
8333.00,1.19
8332.00,1.19
8331.00,1.19
8330.00,1.19
8329.00,1.19
8328.00,1.19
8327.00,1.19
8326.00,1.19
8325.00,1.19
8324.00,1.19
8323.00,1.19
8322.00,1.19
8321.00,1.19
8320.00,1.19
8319.00,1.19
8318.00,1.19
8317.00,1.19
8316.00,1.19
8315.00,1.19
8314.00,1.19
8313.00,1.20
8312.00,1.20
8311.00,1.20
8310.00,1.20
8309.00,1.20
8308.00,1.20
8307.00,1.20
8306.00,1.20
8305.00,1.20
8304.00,1.20
8303.00,1.20
8302.00,1.20
8301.00,1.20
8300.00,1.20
8299.00,1.20
8298.00,1.20
8297.00,1.20
8296.00,1.20
8295.00,1.20
8294.00,1.20
8293.00,1.20
8292.00,1.21
8291.00,1.21
8290.00,1.21
8289.00,1.21
8288.00,1.21
8287.00,1.21
8286.00,1.22
8285.00,1.22
8284.00,1.22
8283.00,1.22
8282.00,1.22
8281.00,1.22
8280.00,1.22
8279.00,1.22
8278.00,1.22
8277.00,1.22
8276.00,1.22
8275.00,1.22
8274.00,1.22
8273.00,1.22
8272.00,1.22
8271.00,1.22
8270.00,1.22
8269.00,1.22
8268.00,1.22
8267.00,1.22
8266.00,1.22
8265.00,1.22
8264.00,1.22
8263.00,1.22
8262.00,1.22
8261.00,1.22
8260.00,1.22
8259.00,1.22
8258.00,1.22
8257.00,1.22
8256.00,1.22
8255.00,1.22
8254.00,1.22
8253.00,1.22
8252.00,1.23
8251.00,1.23
8250.00,1.23
8249.00,1.23
8248.00,1.23
8247.00,1.23
8246.00,1.23
8245.00,1.23
8244.00,1.23
8243.00,1.23
8242.00,1.23
8241.00,1.23
8240.00,1.23
8239.00,1.23
8238.00,1.23
8237.00,1.23
8236.00,1.23
8235.00,1.23
8234.00,1.23
8233.00,1.23
8232.00,1.23
8231.00,1.23
8230.00,1.23
8229.00,1.23
8228.00,1.23
8227.00,1.23
8226.00,1.23
8225.00,1.23
8224.00,1.23
8223.00,1.24
8222.00,1.24
8221.00,1.24
8220.00,1.24
8219.00,1.24
8218.00,1.24
8217.00,1.24
8216.00,1.23
8215.00,1.23
8214.00,1.23
8213.00,1.23
8212.00,1.23
8211.00,1.23
8210.00,1.23
8209.00,1.23
8208.00,1.23
8207.00,1.23
8206.00,1.23
8205.00,1.23
8204.00,1.23
8203.00,1.23
8202.00,1.24
8201.00,1.24
8200.00,1.24
8199.00,1.24
8198.00,1.24
8197.00,1.24
8196.00,1.24
8195.00,1.24
8194.00,1.24
8193.00,1.24
8192.00,1.25
8191.00,1.25
8190.00,1.25
8189.00,1.25
8188.00,1.25
8187.00,1.25
8186.00,1.25
8185.00,1.25
8184.00,1.25
8183.00,1.25
8182.00,1.25
8181.00,1.25
8180.00,1.25
8179.00,1.25
8178.00,1.25
8177.00,1.25
8176.00,1.25
8175.00,1.25
8174.00,1.25
8173.00,1.25
8172.00,1.25
8171.00,1.25
8170.00,1.25
8169.00,1.26
8168.00,1.26
8167.00,1.26
8166.00,1.26
8165.00,1.26
8164.00,1.26
8163.00,1.26
8162.00,1.26
8161.00,1.26
8160.00,1.26
8159.00,1.27
8158.00,1.27
8157.00,1.27
8156.00,1.27
8155.00,1.27
8154.00,1.27
8153.00,1.27
8152.00,1.27
8151.00,1.27
8150.00,1.27
8149.00,1.27
8148.00,1.27
8147.00,1.27
8146.00,1.27
8145.00,1.27
8144.00,1.27
8143.00,1.27
8142.00,1.27
8141.00,1.27
8140.00,1.27
8139.00,1.27
8138.00,1.27
8137.00,1.27
8136.00,1.26
8135.00,1.26
8134.00,1.26
8133.00,1.26
8132.00,1.26
8131.00,1.26
8130.00,1.26
8129.00,1.26
8128.00,1.27
8127.00,1.27
8126.00,1.27
8125.00,1.27
8124.00,1.27
8123.00,1.27
8122.00,1.27
8121.00,1.27
8120.00,1.27
8119.00,1.27
8118.00,1.27
8117.00,1.27
8116.00,1.27
8115.00,1.27
8114.00,1.27
8113.00,1.27
8112.00,1.27
8111.00,1.27
8110.00,1.27
8109.00,1.27
8108.00,1.27
8107.00,1.27
8106.00,1.27
8105.00,1.27
8104.00,1.27
8103.00,1.27
8102.00,1.27
8101.00,1.27
8100.00,1.27
8099.00,1.27
8098.00,1.27
8097.00,1.27
8096.00,1.27
8095.00,1.27
8094.00,1.27
8093.00,1.27
8092.00,1.28
8091.00,1.28
8090.00,1.28
8089.00,1.28
8088.00,1.28
8087.00,1.28
8086.00,1.28
8085.00,1.28
8084.00,1.28
8083.00,1.28
8082.00,1.28
8081.00,1.28
8080.00,1.28
8079.00,1.28
8078.00,1.28
8077.00,1.29
8076.00,1.29
8075.00,1.29
8074.00,1.29
8073.00,1.29
8072.00,1.29
8071.00,1.29
8070.00,1.29
8069.00,1.30
8068.00,1.30
8067.00,1.30
8066.00,1.30
8065.00,1.30
8064.00,1.30
8063.00,1.30
8062.00,1.30
8061.00,1.30
8060.00,1.30
8059.00,1.30
8058.00,1.30
8057.00,1.30
8056.00,1.30
8055.00,1.30
8054.00,1.30
8053.00,1.30
8052.00,1.30
8051.00,1.30
8050.00,1.30
8049.00,1.30
8048.00,1.30
8047.00,1.30
8046.00,1.30
8045.00,1.30
8044.00,1.30
8043.00,1.30
8042.00,1.30
8041.00,1.30
8040.00,1.30
8039.00,1.30
8038.00,1.30
8037.00,1.30
8036.00,1.30
8035.00,1.30
8034.00,1.30
8033.00,1.30
8032.00,1.30
8031.00,1.30
8030.00,1.30
8029.00,1.30
8028.00,1.30
8027.00,1.30
8026.00,1.30
8025.00,1.30
8024.00,1.30
8023.00,1.30
8022.00,1.30
8021.00,1.29
8020.00,1.29
8019.00,1.29
8018.00,1.29
8017.00,1.29
8016.00,1.29
8015.00,1.29
8014.00,1.30
8013.00,1.30
8012.00,1.30
8011.00,1.30
8010.00,1.30
8009.00,1.30
8008.00,1.30
8007.00,1.30
8006.00,1.30
8005.00,1.30
8004.00,1.30
8003.00,1.30
8002.00,1.30
8001.00,1.30
8000.00,1.30
7999.00,1.30
7998.00,1.30
7997.00,1.30
7996.00,1.30
7995.00,1.30
7994.00,1.30
7993.00,1.31
7992.00,1.31
7991.00,1.31
7990.00,1.31
7989.00,1.31
7988.00,1.31
7987.00,1.31
7986.00,1.31
7985.00,1.31
7984.00,1.31
7983.00,1.31
7982.00,1.31
7981.00,1.31
7980.00,1.31
7979.00,1.31
7978.00,1.32
7977.00,1.32
7976.00,1.32
7975.00,1.32
7974.00,1.32
7973.00,1.32
7972.00,1.32
7971.00,1.32
7970.00,1.32
7969.00,1.32
7968.00,1.32
7967.00,1.32
7966.00,1.32
7965.00,1.32
7964.00,1.32
7963.00,1.32
7962.00,1.32
7961.00,1.32
7960.00,1.32
7959.00,1.32
7958.00,1.32
7957.00,1.31
7956.00,1.31
7955.00,1.31
7954.00,1.31
7953.00,1.31
7952.00,1.31
7951.00,1.31
7950.00,1.31
7949.00,1.31
7948.00,1.31
7947.00,1.31
7946.00,1.32
7945.00,1.32
7944.00,1.32
7943.00,1.32
7942.00,1.32
7941.00,1.32
7940.00,1.32
7939.00,1.32
7938.00,1.32
7937.00,1.32
7936.00,1.32
7935.00,1.32
7934.00,1.32
7933.00,1.33
7932.00,1.33
7931.00,1.33
7930.00,1.33
7929.00,1.33
7928.00,1.33
7927.00,1.33
7926.00,1.33
7925.00,1.33
7924.00,1.33
7923.00,1.33
7922.00,1.33
7921.00,1.33
7920.00,1.33
7919.00,1.32
7918.00,1.32
7917.00,1.32
7916.00,1.32
7915.00,1.32
7914.00,1.32
7913.00,1.32
7912.00,1.32
7911.00,1.32
7910.00,1.32
7909.00,1.32
7908.00,1.32
7907.00,1.32
7906.00,1.32
7905.00,1.32
7904.00,1.32
7903.00,1.32
7902.00,1.32
7901.00,1.32
7900.00,1.32
7899.00,1.32
7898.00,1.32
7897.00,1.32
7896.00,1.32
7895.00,1.32
7894.00,1.32
7893.00,1.32
7892.00,1.32
7891.00,1.32
7890.00,1.32
7889.00,1.32
7888.00,1.32
7887.00,1.32
7886.00,1.32
7885.00,1.32
7884.00,1.32
7883.00,1.32
7882.00,1.32
7881.00,1.32
7880.00,1.32
7879.00,1.32
7878.00,1.32
7877.00,1.32
7876.00,1.32
7875.00,1.32
7874.00,1.32
7873.00,1.32
7872.00,1.32
7871.00,1.33
7870.00,1.33
7869.00,1.33
7868.00,1.33
7867.00,1.33
7866.00,1.33
7865.00,1.33
7864.00,1.33
7863.00,1.33
7862.00,1.33
7861.00,1.33
7860.00,1.33
7859.00,1.33
7858.00,1.33
7857.00,1.33
7856.00,1.33
7855.00,1.33
7854.00,1.33
7853.00,1.33
7852.00,1.33
7851.00,1.33
7850.00,1.33
7849.00,1.33
7848.00,1.33
7847.00,1.33
7846.00,1.33
7845.00,1.33
7844.00,1.33
7843.00,1.33
7842.00,1.33
7841.00,1.33
7840.00,1.33
7839.00,1.33
7838.00,1.33
7837.00,1.33
7836.00,1.33
7835.00,1.33
7834.00,1.33
7833.00,1.33
7832.00,1.33
7831.00,1.33
7830.00,1.33
7829.00,1.33
7828.00,1.33
7827.00,1.33
7826.00,1.33
7825.00,1.33
7824.00,1.33
7823.00,1.33
7822.00,1.33
7821.00,1.33
7820.00,1.33
7819.00,1.33
7818.00,1.33
7817.00,1.33
7816.00,1.33
7815.00,1.33
7814.00,1.33
7813.00,1.33
7812.00,1.33
7811.00,1.33
7810.00,1.33
7809.00,1.33
7808.00,1.33
7807.00,1.34
7806.00,1.34
7805.00,1.34
7804.00,1.34
7803.00,1.34
7802.00,1.34
7801.00,1.34
7800.00,1.34
7799.00,1.34
7798.00,1.34
7797.00,1.34
7796.00,1.34
7795.00,1.34
7794.00,1.34
7793.00,1.34
7792.00,1.33
7791.00,1.33
7790.00,1.33
7789.00,1.33
7788.00,1.33
7787.00,1.33
7786.00,1.33
7785.00,1.33
7784.00,1.33
7783.00,1.33
7782.00,1.33
7781.00,1.33
7780.00,1.33
7779.00,1.33
7778.00,1.33
7777.00,1.33
7776.00,1.33
7775.00,1.33
7774.00,1.33
7773.00,1.33
7772.00,1.33
7771.00,1.33
7770.00,1.33
7769.00,1.33
7768.00,1.34
7767.00,1.34
7766.00,1.34
7765.00,1.34
7764.00,1.34
7763.00,1.34
7762.00,1.34
7761.00,1.34
7760.00,1.34
7759.00,1.34
7758.00,1.34
7757.00,1.35
7756.00,1.35
7755.00,1.35
7754.00,1.35
7753.00,1.35
7752.00,1.35
7751.00,1.35
7750.00,1.35
7749.00,1.35
7748.00,1.35
7747.00,1.35
7746.00,1.35
7745.00,1.35
7744.00,1.35
7743.00,1.35
7742.00,1.35
7741.00,1.35
7740.00,1.35
7739.00,1.35
7738.00,1.35
7737.00,1.35
7736.00,1.35
7735.00,1.35
7734.00,1.35
7733.00,1.35
7732.00,1.35
7731.00,1.35
7730.00,1.35
7729.00,1.35
7728.00,1.35
7727.00,1.35
7726.00,1.35
7725.00,1.35
7724.00,1.35
7723.00,1.36
7722.00,1.36
7721.00,1.36
7720.00,1.36
7719.00,1.36
7718.00,1.36
7717.00,1.35
7716.00,1.35
7715.00,1.35
7714.00,1.35
7713.00,1.35
7712.00,1.35
7711.00,1.35
7710.00,1.35
7709.00,1.35
7708.00,1.35
7707.00,1.35
7706.00,1.35
7705.00,1.35
7704.00,1.35
7703.00,1.35
7702.00,1.35
7701.00,1.35
7700.00,1.34
7699.00,1.34
7698.00,1.34
7697.00,1.34
7696.00,1.35
7695.00,1.35
7694.00,1.35
7693.00,1.35
7692.00,1.35
7691.00,1.35
7690.00,1.35
7689.00,1.35
7688.00,1.35
7687.00,1.35
7686.00,1.35
7685.00,1.35
7684.00,1.35
7683.00,1.35
7682.00,1.35
7681.00,1.35
7680.00,1.35
7679.00,1.35
7678.00,1.35
7677.00,1.35
7676.00,1.35
7675.00,1.35
7674.00,1.35
7673.00,1.35
7672.00,1.35
7671.00,1.35
7670.00,1.35
7669.00,1.35
7668.00,1.35
7667.00,1.35
7666.00,1.35
7665.00,1.35
7664.00,1.35
7663.00,1.35
7662.00,1.35
7661.00,1.35
7660.00,1.35
7659.00,1.35
7658.00,1.35
7657.00,1.35
7656.00,1.35
7655.00,1.35
7654.00,1.35
7653.00,1.35
7652.00,1.35
7651.00,1.35
7650.00,1.35
7649.00,1.35
7648.00,1.35
7647.00,1.35
7646.00,1.35
7645.00,1.35
7644.00,1.35
7643.00,1.35
7642.00,1.35
7641.00,1.35
7640.00,1.35
7639.00,1.35
7638.00,1.35
7637.00,1.35
7636.00,1.35
7635.00,1.35
7634.00,1.35
7633.00,1.35
7632.00,1.35
7631.00,1.35
7630.00,1.35
7629.00,1.35
7628.00,1.35
7627.00,1.35
7626.00,1.35
7625.00,1.35
7624.00,1.35
7623.00,1.35
7622.00,1.35
7621.00,1.35
7620.00,1.35
7619.00,1.35
7618.00,1.35
7617.00,1.35
7616.00,1.35
7615.00,1.35
7614.00,1.35
7613.00,1.35
7612.00,1.35
7611.00,1.35
7610.00,1.35
7609.00,1.35
7608.00,1.35
7607.00,1.35
7606.00,1.35
7605.00,1.35
7604.00,1.35
7603.00,1.35
7602.00,1.35
7601.00,1.35
7600.00,1.35
7599.00,1.35
7598.00,1.35
7597.00,1.35
7596.00,1.35
7595.00,1.35
7594.00,1.35
7593.00,1.35
7592.00,1.35
7591.00,1.35
7590.00,1.35
7589.00,1.35
7588.00,1.35
7587.00,1.35
7586.00,1.35
7585.00,1.35
7584.00,1.35
7583.00,1.35
7582.00,1.35
7581.00,1.35
7580.00,1.35
7579.00,1.35
7578.00,1.35
7577.00,1.35
7576.00,1.35
7575.00,1.35
7574.00,1.35
7573.00,1.35
7572.00,1.35
7571.00,1.35
7570.00,1.35
7569.00,1.35
7568.00,1.35
7567.00,1.35
7566.00,1.35
7565.00,1.35
7564.00,1.35
7563.00,1.35
7562.00,1.35
7561.00,1.35
7560.00,1.35
7559.00,1.35
7558.00,1.35
7557.00,1.35
7556.00,1.35
7555.00,1.35
7554.00,1.35
7553.00,1.35
7552.00,1.35
7551.00,1.35
7550.00,1.35
7549.00,1.35
7548.00,1.35
7547.00,1.35
7546.00,1.35
7545.00,1.35
7544.00,1.35
7543.00,1.34
7542.00,1.34
7541.00,1.34
7540.00,1.34
7539.00,1.34
7538.00,1.34
7537.00,1.34
7536.00,1.34
7535.00,1.34
7534.00,1.34
7533.00,1.34
7532.00,1.34
7531.00,1.34
7530.00,1.34
7529.00,1.34
7528.00,1.34
7527.00,1.34
7526.00,1.34
7525.00,1.34
7524.00,1.33
7523.00,1.33
7522.00,1.33
7521.00,1.33
7520.00,1.33
7519.00,1.33
7518.00,1.33
7517.00,1.33
7516.00,1.33
7515.00,1.33
7514.00,1.33
7513.00,1.33
7512.00,1.33
7511.00,1.32
7510.00,1.32
7509.00,1.32
7508.00,1.32
7507.00,1.32
7506.00,1.32
7505.00,1.32
7504.00,1.32
7503.00,1.32
7502.00,1.32
7501.00,1.32
7500.00,1.32
7499.00,1.32
7498.00,1.32
7497.00,1.32
7496.00,1.32
7495.00,1.32
7494.00,1.32
7493.00,1.32
7492.00,1.32
7491.00,1.32
7490.00,1.32
7489.00,1.32
7488.00,1.32
7487.00,1.32
7486.00,1.32
7485.00,1.32
7484.00,1.32
7483.00,1.32
7482.00,1.32
7481.00,1.32
7480.00,1.32
7479.00,1.32
7478.00,1.31
7477.00,1.31
7476.00,1.31
7475.00,1.31
7474.00,1.31
7473.00,1.31
7472.00,1.31
7471.00,1.31
7470.00,1.31
7469.00,1.31
7468.00,1.30
7467.00,1.30
7466.00,1.30
7465.00,1.30
7464.00,1.30
7463.00,1.30
7462.00,1.30
7461.00,1.30
7460.00,1.30
7459.00,1.30
7458.00,1.30
7457.00,1.30
7456.00,1.30
7455.00,1.30
7454.00,1.30
7453.00,1.30
7452.00,1.29
7451.00,1.29
7450.00,1.29
7449.00,1.29
7448.00,1.29
7447.00,1.29
7446.00,1.29
7445.00,1.29
7444.00,1.29
7443.00,1.29
7442.00,1.29
7441.00,1.29
7440.00,1.29
7439.00,1.29
7438.00,1.29
7437.00,1.29
7436.00,1.29
7435.00,1.28
7434.00,1.28
7433.00,1.28
7432.00,1.28
7431.00,1.28
7430.00,1.28
7429.00,1.28
7428.00,1.28
7427.00,1.28
7426.00,1.28
7425.00,1.28
7424.00,1.28
7423.00,1.27
7422.00,1.27
7421.00,1.27
7420.00,1.27
7419.00,1.27
7418.00,1.27
7417.00,1.27
7416.00,1.27
7415.00,1.27
7414.00,1.27
7413.00,1.27
7412.00,1.27
7411.00,1.27
7410.00,1.27
7409.00,1.27
7408.00,1.26
7407.00,1.26
7406.00,1.26
7405.00,1.26
7404.00,1.26
7403.00,1.26
7402.00,1.26
7401.00,1.26
7400.00,1.26
7399.00,1.26
7398.00,1.26
7397.00,1.26
7396.00,1.26
7395.00,1.26
7394.00,1.26
7393.00,1.26
7392.00,1.26
7391.00,1.25
7390.00,1.25
7389.00,1.25
7388.00,1.25
7387.00,1.25
7386.00,1.25
7385.00,1.25
7384.00,1.24
7383.00,1.24
7382.00,1.24
7381.00,1.24
7380.00,1.24
7379.00,1.24
7378.00,1.24
7377.00,1.23
7376.00,1.23
7375.00,1.23
7374.00,1.23
7373.00,1.23
7372.00,1.23
7371.00,1.23
7370.00,1.23
7369.00,1.23
7368.00,1.23
7367.00,1.23
7366.00,1.23
7365.00,1.23
7364.00,1.23
7363.00,1.23
7362.00,1.23
7361.00,1.23
7360.00,1.23
7359.00,1.23
7358.00,1.23
7357.00,1.23
7356.00,1.23
7355.00,1.23
7354.00,1.23
7353.00,1.23
7352.00,1.22
7351.00,1.22
7350.00,1.22
7349.00,1.22
7348.00,1.22
7347.00,1.22
7346.00,1.22
7345.00,1.22
7344.00,1.22
7343.00,1.22
7342.00,1.22
7341.00,1.22
7340.00,1.22
7339.00,1.22
7338.00,1.22
7337.00,1.22
7336.00,1.22
7335.00,1.21
7334.00,1.21
7333.00,1.21
7332.00,1.21
7331.00,1.21
7330.00,1.21
7329.00,1.21
7328.00,1.21
7327.00,1.21
7326.00,1.21
7325.00,1.21
7324.00,1.21
7323.00,1.21
7322.00,1.20
7321.00,1.20
7320.00,1.20
7319.00,1.20
7318.00,1.20
7317.00,1.20
7316.00,1.20
7315.00,1.20
7314.00,1.20
7313.00,1.20
7312.00,1.20
7311.00,1.20
7310.00,1.19
7309.00,1.19
7308.00,1.19
7307.00,1.19
7306.00,1.19
7305.00,1.19
7304.00,1.19
7303.00,1.19
7302.00,1.19
7301.00,1.19
7300.00,1.18
7299.00,1.18
7298.00,1.18
7297.00,1.18
7296.00,1.18
7295.00,1.18
7294.00,1.18
7293.00,1.18
7292.00,1.18
7291.00,1.18
7290.00,1.18
7289.00,1.18
7288.00,1.18
7287.00,1.17
7286.00,1.17
7285.00,1.17
7284.00,1.17
7283.00,1.17
7282.00,1.17
7281.00,1.17
7280.00,1.17
7279.00,1.17
7278.00,1.17
7277.00,1.17
7276.00,1.17
7275.00,1.16
7274.00,1.16
7273.00,1.16
7272.00,1.16
7271.00,1.16
7270.00,1.16
7269.00,1.16
7268.00,1.15
7267.00,1.15
7266.00,1.15
7265.00,1.15
7264.00,1.15
7263.00,1.15
7262.00,1.15
7261.00,1.14
7260.00,1.14
7259.00,1.14
7258.00,1.14
7257.00,1.14
7256.00,1.14
7255.00,1.13
7254.00,1.13
7253.00,1.13
7252.00,1.13
7251.00,1.13
7250.00,1.12
7249.00,1.12
7248.00,1.12
7247.00,1.12
7246.00,1.11
7245.00,1.11
7244.00,1.11
7243.00,1.10
7242.00,1.10
7241.00,1.10
7240.00,1.09
7239.00,1.09
7238.00,1.09
7237.00,1.09
7236.00,1.08
7235.00,1.08
7234.00,1.08
7233.00,1.08
7232.00,1.07
7231.00,1.07
7230.00,1.07
7229.00,1.06
7228.00,1.06
7227.00,1.06
7226.00,1.05
7225.00,1.05
7224.00,1.05
7223.00,1.04
7222.00,1.04
7221.00,1.03
7220.00,1.03
7219.00,1.03
7218.00,1.02
7217.00,1.02
7216.00,1.02
7215.00,1.01
7214.00,1.01
7213.00,1.00
7212.00,1.00
7211.00,1.00
7210.00,0.99
7209.00,0.99
7208.00,0.99
7207.00,0.98
7206.00,0.98
7205.00,0.97
7204.00,0.97
7203.00,0.97
7202.00,0.96
7201.00,0.96
7200.00,0.96
7199.00,0.95
7198.00,0.95
7197.00,0.95
7196.00,0.94
7195.00,0.94
7194.00,0.94
7193.00,0.93
7192.00,0.93
7191.00,0.93
7190.00,0.92
7189.00,0.92
7188.00,0.92
7187.00,0.91
7186.00,0.91
7185.00,0.91
7184.00,0.90
7183.00,0.90
7182.00,0.90
7181.00,0.90
7180.00,0.89
7179.00,0.89
7178.00,0.89
7177.00,0.88
7176.00,0.88
7175.00,0.88
7174.00,0.88
7173.00,0.87
7172.00,0.87
7171.00,0.87
7170.00,0.87
7169.00,0.86
7168.00,0.86
7167.00,0.86
7166.00,0.86
7165.00,0.85
7164.00,0.85
7163.00,0.85
7162.00,0.85
7161.00,0.84
7160.00,0.84
7159.00,0.84
7158.00,0.84
7157.00,0.83
7156.00,0.83
7155.00,0.83
7154.00,0.83
7153.00,0.83
7152.00,0.82
7151.00,0.82
7150.00,0.82
7149.00,0.82
7148.00,0.81
7147.00,0.81
7146.00,0.81
7145.00,0.81
7144.00,0.80
7143.00,0.80
7142.00,0.80
7141.00,0.79
7140.00,0.79
7139.00,0.79
7138.00,0.78
7137.00,0.78
7136.00,0.78
7135.00,0.78
7134.00,0.77
7133.00,0.77
7132.00,0.77
7131.00,0.77
7130.00,0.76
7129.00,0.76
7128.00,0.76
7127.00,0.76
7126.00,0.76
7125.00,0.75
7124.00,0.75
7123.00,0.75
7122.00,0.75
7121.00,0.74
7120.00,0.74
7119.00,0.74
7118.00,0.74
7117.00,0.74
7116.00,0.73
7115.00,0.73
7114.00,0.73
7113.00,0.73
7112.00,0.72
7111.00,0.72
7110.00,0.72
7109.00,0.72
7108.00,0.71
7107.00,0.71
7106.00,0.71
7105.00,0.71
7104.00,0.71
7103.00,0.70
7102.00,0.70
7101.00,0.70
7100.00,0.70
7099.00,0.69
7098.00,0.69
7097.00,0.69
7096.00,0.69
7095.00,0.68
7094.00,0.68
7093.00,0.68
7092.00,0.68
7091.00,0.67
7090.00,0.67
7089.00,0.67
7088.00,0.67
7087.00,0.67
7086.00,0.66
7085.00,0.66
7084.00,0.66
7083.00,0.66
7082.00,0.66
7081.00,0.66
7080.00,0.66
7079.00,0.66
7078.00,0.65
7077.00,0.65
7076.00,0.65
7075.00,0.65
7074.00,0.65
7073.00,0.65
7072.00,0.65
7071.00,0.65
7070.00,0.64
7069.00,0.64
7068.00,0.64
7067.00,0.64
7066.00,0.64
7065.00,0.64
7064.00,0.64
7063.00,0.63
7062.00,0.63
7061.00,0.63
7060.00,0.63
7059.00,0.63
7058.00,0.63
7057.00,0.63
7056.00,0.63
7055.00,0.63
7054.00,0.62
7053.00,0.62
7052.00,0.62
7051.00,0.62
7050.00,0.62
7049.00,0.62
7048.00,0.62
7047.00,0.62
7046.00,0.61
7045.00,0.61
7044.00,0.61
7043.00,0.61
7042.00,0.61
7041.00,0.61
7040.00,0.61
7039.00,0.61
7038.00,0.61
7037.00,0.60
7036.00,0.60
7035.00,0.60
7034.00,0.60
7033.00,0.60
7032.00,0.60
7031.00,0.60
7030.00,0.60
7029.00,0.60
7028.00,0.59
7027.00,0.59
7026.00,0.59
7025.00,0.59
7024.00,0.59
7023.00,0.59
7022.00,0.59
7021.00,0.59
7020.00,0.59
7019.00,0.59
7018.00,0.59
7017.00,0.59
7016.00,0.58
7015.00,0.58
7014.00,0.58
7013.00,0.58
7012.00,0.58
7011.00,0.58
7010.00,0.58
7009.00,0.58
7008.00,0.58
7007.00,0.58
7006.00,0.58
7005.00,0.58
7004.00,0.58
7003.00,0.58
7002.00,0.57
7001.00,0.57
7000.00,0.57
6999.00,0.57
6998.00,0.57
6997.00,0.57
6996.00,0.57
6995.00,0.57
6994.00,0.57
6993.00,0.57
6992.00,0.57
6991.00,0.57
6990.00,0.56
6989.00,0.56
6988.00,0.56
6987.00,0.56
6986.00,0.56
6985.00,0.56
6984.00,0.56
6983.00,0.56
6982.00,0.56
6981.00,0.56
6980.00,0.56
6979.00,0.56
6978.00,0.56
6977.00,0.56
6976.00,0.56
6975.00,0.56
6974.00,0.56
6973.00,0.56
6972.00,0.56
6971.00,0.56
6970.00,0.55
6969.00,0.55
6968.00,0.55
6967.00,0.55
6966.00,0.55
6965.00,0.55
6964.00,0.55
6963.00,0.55
6962.00,0.55
6961.00,0.55
6960.00,0.55
6959.00,0.55
6958.00,0.55
6957.00,0.55
6956.00,0.55
6955.00,0.55
6954.00,0.55
6953.00,0.55
6952.00,0.55
6951.00,0.55
6950.00,0.55
6949.00,0.55
6948.00,0.55
6947.00,0.55
6946.00,0.55
6945.00,0.55
6944.00,0.55
6943.00,0.55
6942.00,0.55
6941.00,0.55
6940.00,0.55
6939.00,0.55
6938.00,0.55
6937.00,0.55
6936.00,0.55
6935.00,0.55
6934.00,0.55
6933.00,0.55
6932.00,0.55
6931.00,0.55
6930.00,0.55
6929.00,0.55
6928.00,0.55
6927.00,0.55
6926.00,0.55
6925.00,0.56
6924.00,0.56
6923.00,0.56
6922.00,0.56
6921.00,0.56
6920.00,0.56
6919.00,0.56
6918.00,0.56
6917.00,0.56
6916.00,0.56
6915.00,0.56
6914.00,0.56
6913.00,0.56
6912.00,0.56
6911.00,0.56
6910.00,0.55
6909.00,0.55
6908.00,0.55
6907.00,0.55
6906.00,0.55
6905.00,0.55
6904.00,0.55
6903.00,0.55
6902.00,0.55
6901.00,0.55
6900.00,0.55
6899.00,0.55
6898.00,0.55
6897.00,0.55
6896.00,0.55
6895.00,0.55
6894.00,0.55
6893.00,0.55
6892.00,0.55
6891.00,0.55
6890.00,0.54
6889.00,0.54
6888.00,0.54
6887.00,0.54
6886.00,0.54
6885.00,0.54
6884.00,0.54
6883.00,0.54
6882.00,0.54
6881.00,0.54
6880.00,0.54
6879.00,0.54
6878.00,0.54
6877.00,0.54
6876.00,0.54
6875.00,0.54
6874.00,0.54
6873.00,0.54
6872.00,0.54
6871.00,0.54
6870.00,0.54
6869.00,0.54
6868.00,0.54
6867.00,0.54
6866.00,0.54
6865.00,0.54
6864.00,0.54
6863.00,0.54
6862.00,0.54
6861.00,0.54
6860.00,0.54
6859.00,0.54
6858.00,0.54
6857.00,0.54
6856.00,0.54
6855.00,0.54
6854.00,0.54
6853.00,0.54
6852.00,0.54
6851.00,0.54
6850.00,0.54
6849.00,0.54
6848.00,0.54
6847.00,0.54
6846.00,0.54
6845.00,0.54
6844.00,0.54
6843.00,0.54
6842.00,0.54
6841.00,0.54
6840.00,0.55
6839.00,0.55
6838.00,0.55
6837.00,0.55
6836.00,0.55
6835.00,0.55
6834.00,0.55
6833.00,0.55
6832.00,0.55
6831.00,0.55
6830.00,0.55
6829.00,0.55
6828.00,0.55
6827.00,0.55
6826.00,0.55
6825.00,0.55
6824.00,0.55
6823.00,0.55
6822.00,0.55
6821.00,0.55
6820.00,0.55
6819.00,0.55
6818.00,0.55
6817.00,0.55
6816.00,0.55
6815.00,0.55
6814.00,0.55
6813.00,0.55
6812.00,0.55
6811.00,0.55
6810.00,0.56
6809.00,0.56
6808.00,0.56
6807.00,0.56
6806.00,0.56
6805.00,0.56
6804.00,0.56
6803.00,0.56
6802.00,0.56
6801.00,0.56
6800.00,0.56
6799.00,0.56
6798.00,0.56
6797.00,0.56
6796.00,0.56
6795.00,0.56
6794.00,0.56
6793.00,0.56
6792.00,0.56
6791.00,0.56
6790.00,0.56
6789.00,0.56
6788.00,0.56
6787.00,0.56
6786.00,0.56
6785.00,0.56
6784.00,0.56
6783.00,0.56
6782.00,0.56
6781.00,0.57
6780.00,0.57
6779.00,0.57
6778.00,0.57
6777.00,0.57
6776.00,0.57
6775.00,0.57
6774.00,0.57
6773.00,0.57
6772.00,0.57
6771.00,0.57
6770.00,0.57
6769.00,0.57
6768.00,0.57
6767.00,0.57
6766.00,0.57
6765.00,0.57
6764.00,0.58
6763.00,0.58
6762.00,0.58
6761.00,0.58
6760.00,0.58
6759.00,0.58
6758.00,0.58
6757.00,0.58
6756.00,0.58
6755.00,0.58
6754.00,0.58
6753.00,0.58
6752.00,0.58
6751.00,0.59
6750.00,0.59
6749.00,0.59
6748.00,0.59
6747.00,0.59
6746.00,0.59
6745.00,0.59
6744.00,0.59
6743.00,0.59
6742.00,0.59
6741.00,0.59
6740.00,0.59
6739.00,0.59
6738.00,0.59
6737.00,0.60
6736.00,0.60
6735.00,0.60
6734.00,0.60
6733.00,0.60
6732.00,0.60
6731.00,0.60
6730.00,0.60
6729.00,0.60
6728.00,0.60
6727.00,0.60
6726.00,0.61
6725.00,0.61
6724.00,0.61
6723.00,0.61
6722.00,0.61
6721.00,0.61
6720.00,0.61
6719.00,0.61
6718.00,0.61
6717.00,0.61
6716.00,0.61
6715.00,0.61
6714.00,0.61
6713.00,0.62
6712.00,0.62
6711.00,0.62
6710.00,0.62
6709.00,0.62
6708.00,0.62
6707.00,0.62
6706.00,0.62
6705.00,0.62
6704.00,0.62
6703.00,0.62
6702.00,0.62
6701.00,0.62
6700.00,0.62
6699.00,0.62
6698.00,0.62
6697.00,0.62
6696.00,0.62
6695.00,0.62
6694.00,0.62
6693.00,0.62
6692.00,0.62
6691.00,0.62
6690.00,0.62
6689.00,0.62
6688.00,0.63
6687.00,0.63
6686.00,0.63
6685.00,0.63
6684.00,0.63
6683.00,0.63
6682.00,0.63
6681.00,0.64
6680.00,0.64
6679.00,0.64
6678.00,0.64
6677.00,0.64
6676.00,0.64
6675.00,0.64
6674.00,0.64
6673.00,0.64
6672.00,0.65
6671.00,0.65
6670.00,0.65
6669.00,0.65
6668.00,0.65
6667.00,0.65
6666.00,0.65
6665.00,0.65
6664.00,0.65
6663.00,0.65
6662.00,0.65
6661.00,0.65
6660.00,0.65
6659.00,0.65
6658.00,0.65
6657.00,0.65
6656.00,0.65
6655.00,0.65
6654.00,0.66
6653.00,0.66
6652.00,0.66
6651.00,0.66
6650.00,0.66
6649.00,0.66
6648.00,0.66
6647.00,0.66
6646.00,0.66
6645.00,0.66
6644.00,0.66
6643.00,0.66
6642.00,0.67
6641.00,0.67
6640.00,0.67
6639.00,0.67
6638.00,0.67
6637.00,0.67
6636.00,0.67
6635.00,0.67
6634.00,0.67
6633.00,0.67
6632.00,0.68
6631.00,0.68
6630.00,0.68
6629.00,0.68
6628.00,0.68
6627.00,0.68
6626.00,0.68
6625.00,0.68
6624.00,0.68
6623.00,0.68
6622.00,0.69
6621.00,0.69
6620.00,0.69
6619.00,0.69
6618.00,0.69
6617.00,0.69
6616.00,0.69
6615.00,0.69
6614.00,0.70
6613.00,0.70
6612.00,0.70
6611.00,0.70
6610.00,0.70
6609.00,0.70
6608.00,0.70
6607.00,0.70
6606.00,0.71
6605.00,0.71
6604.00,0.71
6603.00,0.71
6602.00,0.71
6601.00,0.71
6600.00,0.71
6599.00,0.71
6598.00,0.71
6597.00,0.71
6596.00,0.71
6595.00,0.71
6594.00,0.72
6593.00,0.72
6592.00,0.72
6591.00,0.72
6590.00,0.72
6589.00,0.72
6588.00,0.72
6587.00,0.72
6586.00,0.72
6585.00,0.72
6584.00,0.72
6583.00,0.72
6582.00,0.73
6581.00,0.73
6580.00,0.73
6579.00,0.73
6578.00,0.73
6577.00,0.73
6576.00,0.73
6575.00,0.73
6574.00,0.74
6573.00,0.74
6572.00,0.74
6571.00,0.74
6570.00,0.74
6569.00,0.74
6568.00,0.74
6567.00,0.74
6566.00,0.74
6565.00,0.74
6564.00,0.74
6563.00,0.74
6562.00,0.74
6561.00,0.74
6560.00,0.74
6559.00,0.74
6558.00,0.74
6557.00,0.74
6556.00,0.74
6555.00,0.75
6554.00,0.75
6553.00,0.75
6552.00,0.75
6551.00,0.75
6550.00,0.75
6549.00,0.75
6548.00,0.75
6547.00,0.76
6546.00,0.76
6545.00,0.76
6544.00,0.76
6543.00,0.76
6542.00,0.76
6541.00,0.76
6540.00,0.76
6539.00,0.76
6538.00,0.77
6537.00,0.77
6536.00,0.77
6535.00,0.77
6534.00,0.77
6533.00,0.77
6532.00,0.77
6531.00,0.77
6530.00,0.77
6529.00,0.77
6528.00,0.77
6527.00,0.77
6526.00,0.77
6525.00,0.77
6524.00,0.78
6523.00,0.78
6522.00,0.78
6521.00,0.78
6520.00,0.78
6519.00,0.78
6518.00,0.78
6517.00,0.78
6516.00,0.78
6515.00,0.78
6514.00,0.78
6513.00,0.78
6512.00,0.78
6511.00,0.78
6510.00,0.78
6509.00,0.78
6508.00,0.78
6507.00,0.78
6506.00,0.78
6505.00,0.78
6504.00,0.79
6503.00,0.79
6502.00,0.79
6501.00,0.79
6500.00,0.79
6499.00,0.79
6498.00,0.79
6497.00,0.79
6496.00,0.79
6495.00,0.79
6494.00,0.79
6493.00,0.79
6492.00,0.80
6491.00,0.80
6490.00,0.80
6489.00,0.80
6488.00,0.80
6487.00,0.80
6486.00,0.80
6485.00,0.80
6484.00,0.80
6483.00,0.81
6482.00,0.81
6481.00,0.81
6480.00,0.81
6479.00,0.81
6478.00,0.81
6477.00,0.81
6476.00,0.81
6475.00,0.81
6474.00,0.81
6473.00,0.81
6472.00,0.81
6471.00,0.81
6470.00,0.81
6469.00,0.81
6468.00,0.81
6467.00,0.81
6466.00,0.81
6465.00,0.81
6464.00,0.81
6463.00,0.81
6462.00,0.81
6461.00,0.81
6460.00,0.81
6459.00,0.81
6458.00,0.81
6457.00,0.81
6456.00,0.81
6455.00,0.81
6454.00,0.81
6453.00,0.81
6452.00,0.82
6451.00,0.82
6450.00,0.82
6449.00,0.82
6448.00,0.82
6447.00,0.82
6446.00,0.82
6445.00,0.82
6444.00,0.82
6443.00,0.82
6442.00,0.82
6441.00,0.82
6440.00,0.82
6439.00,0.82
6438.00,0.82
6437.00,0.82
6436.00,0.82
6435.00,0.82
6434.00,0.83
6433.00,0.83
6432.00,0.83
6431.00,0.83
6430.00,0.83
6429.00,0.83
6428.00,0.83
6427.00,0.83
6426.00,0.83
6425.00,0.83
6424.00,0.83
6423.00,0.83
6422.00,0.83
6421.00,0.83
6420.00,0.83
6419.00,0.83
6418.00,0.84
6417.00,0.84
6416.00,0.84
6415.00,0.84
6414.00,0.84
6413.00,0.84
6412.00,0.84
6411.00,0.84
6410.00,0.84
6409.00,0.85
6408.00,0.85
6407.00,0.85
6406.00,0.85
6405.00,0.85
6404.00,0.85
6403.00,0.85
6402.00,0.85
6401.00,0.85
6400.00,0.85
6399.00,0.85
6398.00,0.85
6397.00,0.85
6396.00,0.85
6395.00,0.85
6394.00,0.85
6393.00,0.85
6392.00,0.85
6391.00,0.86
6390.00,0.86
6389.00,0.86
6388.00,0.86
6387.00,0.86
6386.00,0.86
6385.00,0.86
6384.00,0.86
6383.00,0.86
6382.00,0.86
6381.00,0.86
6380.00,0.86
6379.00,0.86
6378.00,0.86
6377.00,0.87
6376.00,0.87
6375.00,0.87
6374.00,0.87
6373.00,0.87
6372.00,0.87
6371.00,0.87
6370.00,0.87
6369.00,0.87
6368.00,0.87
6367.00,0.87
6366.00,0.87
6365.00,0.88
6364.00,0.88
6363.00,0.88
6362.00,0.88
6361.00,0.88
6360.00,0.88
6359.00,0.88
6358.00,0.88
6357.00,0.88
6356.00,0.88
6355.00,0.89
6354.00,0.89
6353.00,0.89
6352.00,0.89
6351.00,0.89
6350.00,0.89
6349.00,0.89
6348.00,0.89
6347.00,0.89
6346.00,0.89
6345.00,0.89
6344.00,0.89
6343.00,0.89
6342.00,0.89
6341.00,0.89
6340.00,0.89
6339.00,0.89
6338.00,0.89
6337.00,0.89
6336.00,0.89
6335.00,0.89
6334.00,0.89
6333.00,0.90
6332.00,0.90
6331.00,0.90
6330.00,0.90
6329.00,0.90
6328.00,0.90
6327.00,0.90
6326.00,0.90
6325.00,0.90
6324.00,0.90
6323.00,0.91
6322.00,0.91
6321.00,0.91
6320.00,0.91
6319.00,0.91
6318.00,0.91
6317.00,0.91
6316.00,0.91
6315.00,0.91
6314.00,0.91
6313.00,0.92
6312.00,0.92
6311.00,0.92
6310.00,0.92
6309.00,0.92
6308.00,0.92
6307.00,0.92
6306.00,0.92
6305.00,0.93
6304.00,0.93
6303.00,0.93
6302.00,0.93
6301.00,0.93
6300.00,0.93
6299.00,0.93
6298.00,0.94
6297.00,0.94
6296.00,0.94
6295.00,0.94
6294.00,0.94
6293.00,0.94
6292.00,0.94
6291.00,0.94
6290.00,0.95
6289.00,0.95
6288.00,0.95
6287.00,0.95
6286.00,0.95
6285.00,0.95
6284.00,0.95
6283.00,0.95
6282.00,0.95
6281.00,0.96
6280.00,0.96
6279.00,0.96
6278.00,0.96
6277.00,0.96
6276.00,0.96
6275.00,0.96
6274.00,0.96
6273.00,0.96
6272.00,0.97
6271.00,0.97
6270.00,0.97
6269.00,0.97
6268.00,0.97
6267.00,0.97
6266.00,0.97
6265.00,0.97
6264.00,0.97
6263.00,0.97
6262.00,0.97
6261.00,0.97
6260.00,0.98
6259.00,0.98
6258.00,0.98
6257.00,0.98
6256.00,0.98
6255.00,0.98
6254.00,0.99
6253.00,0.99
6252.00,0.99
6251.00,0.99
6250.00,0.99
6249.00,1.00
6248.00,1.00
6247.00,1.00
6246.00,1.00
6245.00,1.00
6244.00,1.00
6243.00,1.00
6242.00,1.00
6241.00,1.00
6240.00,1.00
6239.00,1.01
6238.00,1.01
6237.00,1.01
6236.00,1.01
6235.00,1.01
6234.00,1.01
6233.00,1.01
6232.00,1.01
6231.00,1.01
6230.00,1.01
6229.00,1.01
6228.00,1.01
6227.00,1.01
6226.00,1.01
6225.00,1.01
6224.00,1.01
6223.00,1.02
6222.00,1.02
6221.00,1.02
6220.00,1.02
6219.00,1.02
6218.00,1.02
6217.00,1.02
6216.00,1.02
6215.00,1.03
6214.00,1.03
6213.00,1.03
6212.00,1.03
6211.00,1.03
6210.00,1.03
6209.00,1.03
6208.00,1.03
6207.00,1.03
6206.00,1.04
6205.00,1.04
6204.00,1.04
6203.00,1.04
6202.00,1.04
6201.00,1.04
6200.00,1.04
6199.00,1.05
6198.00,1.05
6197.00,1.05
6196.00,1.05
6195.00,1.05
6194.00,1.05
6193.00,1.06
6192.00,1.06
6191.00,1.06
6190.00,1.06
6189.00,1.06
6188.00,1.06
6187.00,1.07
6186.00,1.07
6185.00,1.07
6184.00,1.07
6183.00,1.07
6182.00,1.07
6181.00,1.08
6180.00,1.08
6179.00,1.08
6178.00,1.08
6177.00,1.08
6176.00,1.08
6175.00,1.08
6174.00,1.08
6173.00,1.09
6172.00,1.09
6171.00,1.09
6170.00,1.09
6169.00,1.09
6168.00,1.09
6167.00,1.09
6166.00,1.09
6165.00,1.10
6164.00,1.10
6163.00,1.10
6162.00,1.10
6161.00,1.10
6160.00,1.10
6159.00,1.11
6158.00,1.11
6157.00,1.11
6156.00,1.11
6155.00,1.11
6154.00,1.12
6153.00,1.12
6152.00,1.12
6151.00,1.12
6150.00,1.12
6149.00,1.12
6148.00,1.13
6147.00,1.13
6146.00,1.13
6145.00,1.13
6144.00,1.13
6143.00,1.13
6142.00,1.14
6141.00,1.14
6140.00,1.14
6139.00,1.14
6138.00,1.14
6137.00,1.14
6136.00,1.14
6135.00,1.14
6134.00,1.15
6133.00,1.15
6132.00,1.15
6131.00,1.15
6130.00,1.15
6129.00,1.15
6128.00,1.15
6127.00,1.15
6126.00,1.16
6125.00,1.16
6124.00,1.16
6123.00,1.16
6122.00,1.16
6121.00,1.16
6120.00,1.17
6119.00,1.17
6118.00,1.17
6117.00,1.17
6116.00,1.17
6115.00,1.17
6114.00,1.18
6113.00,1.18
6112.00,1.18
6111.00,1.18
6110.00,1.18
6109.00,1.18
6108.00,1.18
6107.00,1.18
6106.00,1.18
6105.00,1.19
6104.00,1.19
6103.00,1.19
6102.00,1.19
6101.00,1.19
6100.00,1.19
6099.00,1.19
6098.00,1.19
6097.00,1.19
6096.00,1.19
6095.00,1.19
6094.00,1.19
6093.00,1.20
6092.00,1.20
6091.00,1.20
6090.00,1.20
6089.00,1.20
6088.00,1.20
6087.00,1.20
6086.00,1.20
6085.00,1.21
6084.00,1.21
6083.00,1.21
6082.00,1.21
6081.00,1.21
6080.00,1.21
6079.00,1.21
6078.00,1.22
6077.00,1.22
6076.00,1.22
6075.00,1.22
6074.00,1.22
6073.00,1.22
6072.00,1.23
6071.00,1.23
6070.00,1.23
6069.00,1.23
6068.00,1.23
6067.00,1.23
6066.00,1.23
6065.00,1.23
6064.00,1.23
6063.00,1.24
6062.00,1.24
6061.00,1.24
6060.00,1.24
6059.00,1.24
6058.00,1.24
6057.00,1.24
6056.00,1.24
6055.00,1.24
6054.00,1.24
6053.00,1.24
6052.00,1.25
6051.00,1.25
6050.00,1.25
6049.00,1.25
6048.00,1.25
6047.00,1.25
6046.00,1.25
6045.00,1.25
6044.00,1.25
6043.00,1.25
6042.00,1.26
6041.00,1.26
6040.00,1.26
6039.00,1.26
6038.00,1.26
6037.00,1.26
6036.00,1.26
6035.00,1.26
6034.00,1.26
6033.00,1.26
6032.00,1.26
6031.00,1.26
6030.00,1.26
6029.00,1.26
6028.00,1.26
6027.00,1.26
6026.00,1.26
6025.00,1.26
6024.00,1.27
6023.00,1.27
6022.00,1.27
6021.00,1.27
6020.00,1.27
6019.00,1.27
6018.00,1.27
6017.00,1.27
6016.00,1.27
6015.00,1.27
6014.00,1.27
6013.00,1.27
6012.00,1.27
6011.00,1.27
6010.00,1.27
6009.00,1.27
6008.00,1.27
6007.00,1.26
6006.00,1.26
6005.00,1.26
6004.00,1.26
6003.00,1.26
6002.00,1.26
6001.00,1.26
6000.00,1.26
5999.00,1.26
5998.00,1.25
5997.00,1.25
5996.00,1.25
5995.00,1.25
5994.00,1.25
5993.00,1.25
5992.00,1.25
5991.00,1.24
5990.00,1.24
5989.00,1.24
5988.00,1.24
5987.00,1.24
5986.00,1.24
5985.00,1.23
5984.00,1.23
5983.00,1.23
5982.00,1.23
5981.00,1.22
5980.00,1.22
5979.00,1.21
5978.00,1.21
5977.00,1.21
5976.00,1.20
5975.00,1.20
5974.00,1.19
5973.00,1.19
5972.00,1.18
5971.00,1.18
5970.00,1.17
5969.00,1.16
5968.00,1.16
5967.00,1.15
5966.00,1.14
5965.00,1.14
5964.00,1.13
5963.00,1.12
5962.00,1.12
5961.00,1.11
5960.00,1.10
5959.00,1.10
5958.00,1.09
5957.00,1.08
5956.00,1.08
5955.00,1.07
5954.00,1.06
5953.00,1.06
5952.00,1.05
5951.00,1.05
5950.00,1.04
5949.00,1.03
5948.00,1.03
5947.00,1.03
5946.00,1.02
5945.00,1.02
5944.00,1.01
5943.00,1.01
5942.00,1.01
5941.00,1.00
5940.00,1.00
5939.00,1.00
5938.00,1.00
5937.00,1.00
5936.00,1.00
5935.00,1.00
5934.00,0.99
5933.00,0.99
5932.00,0.99
5931.00,0.99
5930.00,0.99
5929.00,0.99
5928.00,0.99
5927.00,0.99
5926.00,0.98
5925.00,0.98
5924.00,0.98
5923.00,0.98
5922.00,0.98
5921.00,0.97
5920.00,0.97
5919.00,0.97
5918.00,0.97
5917.00,0.96
5916.00,0.96
5915.00,0.96
5914.00,0.95
5913.00,0.95
5912.00,0.95
5911.00,0.95
5910.00,0.94
5909.00,0.94
5908.00,0.94
5907.00,0.94
5906.00,0.94
5905.00,0.94
5904.00,0.93
5903.00,0.93
5902.00,0.93
5901.00,0.93
5900.00,0.93
5899.00,0.93
5898.00,0.94
5897.00,0.94
5896.00,0.94
5895.00,0.94
5894.00,0.94
5893.00,0.95
5892.00,0.95
5891.00,0.95
5890.00,0.95
5889.00,0.96
5888.00,0.96
5887.00,0.96
5886.00,0.97
5885.00,0.97
5884.00,0.97
5883.00,0.98
5882.00,0.98
5881.00,0.98
5880.00,0.99
5879.00,0.99
5878.00,0.99
5877.00,0.99
5876.00,1.00
5875.00,1.00
5874.00,1.00
5873.00,1.00
5872.00,1.01
5871.00,1.01
5870.00,1.01
5869.00,1.01
5868.00,1.01
5867.00,1.02
5866.00,1.02
5865.00,1.02
5864.00,1.02
5863.00,1.02
5862.00,1.02
5861.00,1.03
5860.00,1.03
5859.00,1.03
5858.00,1.03
5857.00,1.03
5856.00,1.03
5855.00,1.03
5854.00,1.03
5853.00,1.03
5852.00,1.04
5851.00,1.04
5850.00,1.04
5849.00,1.04
5848.00,1.04
5847.00,1.04
5846.00,1.04
5845.00,1.04
5844.00,1.04
5843.00,1.04
5842.00,1.04
5841.00,1.04
5840.00,1.04
5839.00,1.04
5838.00,1.04
5837.00,1.04
5836.00,1.03
5835.00,1.03
5834.00,1.03
5833.00,1.03
5832.00,1.03
5831.00,1.04
5830.00,1.04
5829.00,1.04
5828.00,1.04
5827.00,1.04
5826.00,1.04
5825.00,1.04
5824.00,1.04
5823.00,1.04
5822.00,1.04
5821.00,1.04
5820.00,1.04
5819.00,1.04
5818.00,1.04
5817.00,1.04
5816.00,1.04
5815.00,1.04
5814.00,1.04
5813.00,1.04
5812.00,1.04
5811.00,1.04
5810.00,1.04
5809.00,1.04
5808.00,1.04
5807.00,1.04
5806.00,1.04
5805.00,1.04
5804.00,1.04
5803.00,1.04
5802.00,1.04
5801.00,1.04
5800.00,1.03
5799.00,1.03
5798.00,1.03
5797.00,1.03
5796.00,1.03
5795.00,1.03
5794.00,1.02
5793.00,1.02
5792.00,1.02
5791.00,1.02
5790.00,1.02
5789.00,1.01
5788.00,1.01
5787.00,1.01
5786.00,1.01
5785.00,1.00
5784.00,1.00
5783.00,1.00
5782.00,1.00
5781.00,1.00
5780.00,0.99
5779.00,0.99
5778.00,0.99
5777.00,0.99
5776.00,0.99
5775.00,0.99
5774.00,0.99
5773.00,0.99
5772.00,0.99
5771.00,0.99
5770.00,0.99
5769.00,0.99
5768.00,0.99
5767.00,0.99
5766.00,0.99
5765.00,0.99
5764.00,0.99
5763.00,1.00
5762.00,1.00
5761.00,1.00
5760.00,1.01
5759.00,1.01
5758.00,1.01
5757.00,1.01
5756.00,1.02
5755.00,1.02
5754.00,1.03
5753.00,1.03
5752.00,1.03
5751.00,1.04
5750.00,1.04
5749.00,1.04
5748.00,1.05
5747.00,1.05
5746.00,1.05
5745.00,1.06
5744.00,1.06
5743.00,1.06
5742.00,1.06
5741.00,1.07
5740.00,1.07
5739.00,1.07
5738.00,1.07
5737.00,1.08
5736.00,1.08
5735.00,1.08
5734.00,1.08
5733.00,1.08
5732.00,1.09
5731.00,1.09
5730.00,1.09
5729.00,1.09
5728.00,1.09
5727.00,1.09
5726.00,1.09
5725.00,1.09
5724.00,1.10
5723.00,1.10
5722.00,1.10
5721.00,1.10
5720.00,1.10
5719.00,1.10
5718.00,1.10
5717.00,1.10
5716.00,1.10
5715.00,1.10
5714.00,1.10
5713.00,1.10
5712.00,1.10
5711.00,1.10
5710.00,1.10
5709.00,1.10
5708.00,1.10
5707.00,1.10
5706.00,1.10
5705.00,1.10
5704.00,1.10
5703.00,1.09
5702.00,1.09
5701.00,1.09
5700.00,1.09
5699.00,1.09
5698.00,1.09
5697.00,1.09
5696.00,1.09
5695.00,1.08
5694.00,1.08
5693.00,1.08
5692.00,1.08
5691.00,1.08
5690.00,1.07
5689.00,1.07
5688.00,1.07
5687.00,1.07
5686.00,1.07
5685.00,1.06
5684.00,1.06
5683.00,1.06
5682.00,1.06
5681.00,1.06
5680.00,1.06
5679.00,1.06
5678.00,1.06
5677.00,1.06
5676.00,1.06
5675.00,1.06
5674.00,1.06
5673.00,1.06
5672.00,1.06
5671.00,1.06
5670.00,1.06
5669.00,1.06
5668.00,1.06
5667.00,1.06
5666.00,1.06
5665.00,1.06
5664.00,1.06
5663.00,1.06
5662.00,1.07
5661.00,1.07
5660.00,1.07
5659.00,1.07
5658.00,1.07
5657.00,1.07
5656.00,1.08
5655.00,1.08
5654.00,1.08
5653.00,1.08
5652.00,1.08
5651.00,1.09
5650.00,1.09
5649.00,1.09
5648.00,1.09
5647.00,1.10
5646.00,1.10
5645.00,1.10
5644.00,1.10
5643.00,1.10
5642.00,1.10
5641.00,1.11
5640.00,1.11
5639.00,1.11
5638.00,1.11
5637.00,1.11
5636.00,1.11
5635.00,1.11
5634.00,1.12
5633.00,1.12
5632.00,1.12
5631.00,1.12
5630.00,1.12
5629.00,1.12
5628.00,1.13
5627.00,1.13
5626.00,1.13
5625.00,1.13
5624.00,1.13
5623.00,1.13
5622.00,1.13
5621.00,1.14
5620.00,1.14
5619.00,1.14
5618.00,1.14
5617.00,1.14
5616.00,1.15
5615.00,1.15
5614.00,1.15
5613.00,1.15
5612.00,1.15
5611.00,1.15
5610.00,1.16
5609.00,1.16
5608.00,1.16
5607.00,1.16
5606.00,1.17
5605.00,1.17
5604.00,1.17
5603.00,1.17
5602.00,1.17
5601.00,1.18
5600.00,1.18
5599.00,1.18
5598.00,1.18
5597.00,1.18
5596.00,1.18
5595.00,1.18
5594.00,1.19
5593.00,1.19
5592.00,1.19
5591.00,1.19
5590.00,1.19
5589.00,1.19
5588.00,1.20
5587.00,1.20
5586.00,1.20
5585.00,1.20
5584.00,1.20
5583.00,1.20
5582.00,1.21
5581.00,1.21
5580.00,1.21
5579.00,1.21
5578.00,1.21
5577.00,1.21
5576.00,1.22
5575.00,1.22
5574.00,1.22
5573.00,1.22
5572.00,1.22
5571.00,1.22
5570.00,1.22
5569.00,1.22
5568.00,1.22
5567.00,1.23
5566.00,1.23
5565.00,1.23
5564.00,1.23
5563.00,1.23
5562.00,1.23
5561.00,1.23
5560.00,1.23
5559.00,1.23
5558.00,1.24
5557.00,1.24
5556.00,1.24
5555.00,1.24
5554.00,1.24
5553.00,1.24
5552.00,1.24
5551.00,1.25
5550.00,1.25
5549.00,1.25
5548.00,1.25
5547.00,1.25
5546.00,1.25
5545.00,1.25
5544.00,1.26
5543.00,1.26
5542.00,1.26
5541.00,1.26
5540.00,1.26
5539.00,1.26
5538.00,1.26
5537.00,1.26
5536.00,1.26
5535.00,1.27
5534.00,1.27
5533.00,1.27
5532.00,1.27
5531.00,1.27
5530.00,1.27
5529.00,1.27
5528.00,1.27
5527.00,1.27
5526.00,1.27
5525.00,1.27
5524.00,1.27
5523.00,1.27
5522.00,1.28
5521.00,1.28
5520.00,1.28
5519.00,1.28
5518.00,1.28
5517.00,1.28
5516.00,1.28
5515.00,1.28
5514.00,1.28
5513.00,1.28
5512.00,1.28
5511.00,1.28
5510.00,1.28
5509.00,1.29
5508.00,1.29
5507.00,1.29
5506.00,1.29
5505.00,1.29
5504.00,1.29
5503.00,1.29
5502.00,1.29
5501.00,1.29
5500.00,1.29
5499.00,1.29
5498.00,1.30
5497.00,1.30
5496.00,1.30
5495.00,1.30
5494.00,1.30
5493.00,1.30
5492.00,1.30
5491.00,1.30
5490.00,1.31
5489.00,1.31
5488.00,1.31
5487.00,1.31
5486.00,1.31
5485.00,1.31
5484.00,1.31
5483.00,1.31
5482.00,1.31
5481.00,1.32
5480.00,1.32
5479.00,1.32
5478.00,1.32
5477.00,1.32
5476.00,1.32
5475.00,1.32
5474.00,1.32
5473.00,1.32
5472.00,1.32
5471.00,1.33
5470.00,1.33
5469.00,1.33
5468.00,1.33
5467.00,1.33
5466.00,1.33
5465.00,1.33
5464.00,1.33
5463.00,1.34
5462.00,1.34
5461.00,1.34
5460.00,1.34
5459.00,1.34
5458.00,1.34
5457.00,1.34
5456.00,1.34
5455.00,1.34
5454.00,1.34
5453.00,1.35
5452.00,1.35
5451.00,1.35
5450.00,1.35
5449.00,1.35
5448.00,1.35
5447.00,1.35
5446.00,1.35
5445.00,1.35
5444.00,1.35
5443.00,1.35
5442.00,1.35
5441.00,1.35
5440.00,1.35
5439.00,1.35
5438.00,1.35
5437.00,1.35
5436.00,1.35
5435.00,1.35
5434.00,1.35
5433.00,1.35
5432.00,1.35
5431.00,1.35
5430.00,1.35
5429.00,1.35
5428.00,1.35
5427.00,1.35
5426.00,1.35
5425.00,1.35
5424.00,1.35
5423.00,1.35
5422.00,1.36
5421.00,1.36
5420.00,1.36
5419.00,1.36
5418.00,1.36
5417.00,1.36
5416.00,1.36
5415.00,1.36
5414.00,1.36
5413.00,1.35
5412.00,1.35
5411.00,1.35
5410.00,1.35
5409.00,1.35
5408.00,1.35
5407.00,1.35
5406.00,1.35
5405.00,1.35
5404.00,1.35
5403.00,1.35
5402.00,1.35
5401.00,1.35
5400.00,1.35
5399.00,1.35
5398.00,1.35
5397.00,1.35
5396.00,1.35
5395.00,1.35
5394.00,1.34
5393.00,1.34
5392.00,1.34
5391.00,1.34
5390.00,1.34
5389.00,1.34
5388.00,1.33
5387.00,1.33
5386.00,1.33
5385.00,1.33
5384.00,1.32
5383.00,1.32
5382.00,1.32
5381.00,1.31
5380.00,1.31
5379.00,1.31
5378.00,1.30
5377.00,1.30
5376.00,1.29
5375.00,1.29
5374.00,1.29
5373.00,1.28
5372.00,1.28
5371.00,1.27
5370.00,1.27
5369.00,1.26
5368.00,1.26
5367.00,1.25
5366.00,1.25
5365.00,1.24
5364.00,1.23
5363.00,1.23
5362.00,1.22
5361.00,1.21
5360.00,1.21
5359.00,1.20
5358.00,1.19
5357.00,1.19
5356.00,1.18
5355.00,1.17
5354.00,1.16
5353.00,1.15
5352.00,1.15
5351.00,1.14
5350.00,1.13
5349.00,1.12
5348.00,1.11
5347.00,1.10
5346.00,1.09
5345.00,1.08
5344.00,1.07
5343.00,1.06
5342.00,1.05
5341.00,1.04
5340.00,1.03
5339.00,1.02
5338.00,1.01
5337.00,1.00
5336.00,0.99
5335.00,0.98
5334.00,0.97
5333.00,0.96
5332.00,0.95
5331.00,0.95
5330.00,0.94
5329.00,0.93
5328.00,0.92
5327.00,0.91
5326.00,0.90
5325.00,0.89
5324.00,0.88
5323.00,0.87
5322.00,0.86
5321.00,0.85
5320.00,0.84
5319.00,0.83
5318.00,0.82
5317.00,0.81
5316.00,0.81
5315.00,0.80
5314.00,0.79
5313.00,0.78
5312.00,0.77
5311.00,0.76
5310.00,0.76
5309.00,0.75
5308.00,0.74
5307.00,0.74
5306.00,0.73
5305.00,0.72
5304.00,0.72
5303.00,0.71
5302.00,0.71
5301.00,0.70
5300.00,0.70
5299.00,0.70
5298.00,0.69
5297.00,0.69
5296.00,0.69
5295.00,0.68
5294.00,0.68
5293.00,0.68
5292.00,0.68
5291.00,0.67
5290.00,0.67
5289.00,0.67
5288.00,0.67
5287.00,0.67
5286.00,0.66
5285.00,0.66
5284.00,0.66
5283.00,0.66
5282.00,0.66
5281.00,0.66
5280.00,0.66
5279.00,0.65
5278.00,0.65
5277.00,0.65
5276.00,0.65
5275.00,0.65
5274.00,0.65
5273.00,0.65
5272.00,0.65
5271.00,0.65
5270.00,0.65
5269.00,0.65
5268.00,0.65
5267.00,0.65
5266.00,0.65
5265.00,0.65
5264.00,0.64
5263.00,0.64
5262.00,0.64
5261.00,0.64
5260.00,0.64
5259.00,0.64
5258.00,0.64
5257.00,0.64
5256.00,0.64
5255.00,0.64
5254.00,0.64
5253.00,0.64
5252.00,0.64
5251.00,0.64
5250.00,0.64
5249.00,0.64
5248.00,0.64
5247.00,0.64
5246.00,0.64
5245.00,0.64
5244.00,0.64
5243.00,0.64
5242.00,0.64
5241.00,0.64
5240.00,0.64
5239.00,0.64
5238.00,0.64
5237.00,0.64
5236.00,0.64
5235.00,0.64
5234.00,0.64
5233.00,0.65
5232.00,0.65
5231.00,0.65
5230.00,0.65
5229.00,0.65
5228.00,0.65
5227.00,0.65
5226.00,0.65
5225.00,0.65
5224.00,0.65
5223.00,0.65
5222.00,0.65
5221.00,0.65
5220.00,0.65
5219.00,0.65
5218.00,0.65
5217.00,0.65
5216.00,0.65
5215.00,0.65
5214.00,0.65
5213.00,0.65
5212.00,0.65
5211.00,0.65
5210.00,0.65
5209.00,0.65
5208.00,0.65
5207.00,0.65
5206.00,0.65
5205.00,0.65
5204.00,0.65
5203.00,0.65
5202.00,0.65
5201.00,0.65
5200.00,0.65
5199.00,0.65
5198.00,0.65
5197.00,0.66
5196.00,0.66
5195.00,0.66
5194.00,0.66
5193.00,0.66
5192.00,0.66
5191.00,0.66
5190.00,0.66
5189.00,0.66
5188.00,0.66
5187.00,0.66
5186.00,0.66
5185.00,0.67
5184.00,0.67
5183.00,0.67
5182.00,0.67
5181.00,0.67
5180.00,0.67
5179.00,0.67
5178.00,0.67
5177.00,0.67
5176.00,0.67
5175.00,0.67
5174.00,0.67
5173.00,0.67
5172.00,0.67
5171.00,0.67
5170.00,0.67
5169.00,0.67
5168.00,0.67
5167.00,0.67
5166.00,0.67
5165.00,0.67
5164.00,0.67
5163.00,0.67
5162.00,0.67
5161.00,0.67
5160.00,0.67
5159.00,0.67
5158.00,0.67
5157.00,0.67
5156.00,0.67
5155.00,0.67
5154.00,0.67
5153.00,0.67
5152.00,0.67
5151.00,0.67
5150.00,0.67
5149.00,0.67
5148.00,0.67
5147.00,0.68
5146.00,0.68
5145.00,0.68
5144.00,0.68
5143.00,0.68
5142.00,0.68
5141.00,0.68
5140.00,0.68
5139.00,0.68
5138.00,0.68
5137.00,0.68
5136.00,0.68
5135.00,0.68
5134.00,0.68
5133.00,0.68
5132.00,0.68
5131.00,0.68
5130.00,0.68
5129.00,0.69
5128.00,0.69
5127.00,0.69
5126.00,0.69
5125.00,0.69
5124.00,0.69
5123.00,0.69
5122.00,0.69
5121.00,0.69
5120.00,0.69
5119.00,0.69
5118.00,0.69
5117.00,0.69
5116.00,0.69
5115.00,0.69
5114.00,0.69
5113.00,0.69
5112.00,0.69
5111.00,0.70
5110.00,0.70
5109.00,0.70
5108.00,0.70
5107.00,0.70
5106.00,0.70
5105.00,0.70
5104.00,0.70
5103.00,0.70
5102.00,0.70
5101.00,0.70
5100.00,0.70
5099.00,0.70
5098.00,0.70
5097.00,0.70
5096.00,0.70
5095.00,0.70
5094.00,0.70
5093.00,0.70
5092.00,0.70
5091.00,0.70
5090.00,0.70
5089.00,0.70
5088.00,0.70
5087.00,0.70
5086.00,0.70
5085.00,0.70
5084.00,0.70
5083.00,0.70
5082.00,0.71
5081.00,0.71
5080.00,0.71
5079.00,0.71
5078.00,0.71
5077.00,0.71
5076.00,0.71
5075.00,0.71
5074.00,0.71
5073.00,0.72
5072.00,0.72
5071.00,0.72
5070.00,0.72
5069.00,0.72
5068.00,0.72
5067.00,0.72
5066.00,0.72
5065.00,0.72
5064.00,0.72
5063.00,0.72
5062.00,0.72
5061.00,0.72
5060.00,0.72
5059.00,0.72
5058.00,0.72
5057.00,0.72
5056.00,0.72
5055.00,0.72
5054.00,0.72
5053.00,0.72
5052.00,0.72
5051.00,0.72
5050.00,0.72
5049.00,0.72
5048.00,0.72
5047.00,0.72
5046.00,0.72
5045.00,0.73
5044.00,0.73
5043.00,0.73
5042.00,0.73
5041.00,0.73
5040.00,0.73
5039.00,0.73
5038.00,0.73
5037.00,0.73
5036.00,0.73
5035.00,0.73
5034.00,0.73
5033.00,0.73
5032.00,0.73
5031.00,0.73
5030.00,0.74
5029.00,0.74
5028.00,0.74
5027.00,0.74
5026.00,0.74
5025.00,0.74
5024.00,0.74
5023.00,0.74
5022.00,0.75
5021.00,0.75
5020.00,0.75
5019.00,0.75
5018.00,0.75
5017.00,0.75
5016.00,0.75
5015.00,0.75
5014.00,0.75
5013.00,0.76
5012.00,0.76
5011.00,0.76
5010.00,0.76
5009.00,0.76
5008.00,0.76
5007.00,0.76
5006.00,0.76
5005.00,0.76
5004.00,0.76
5003.00,0.76
5002.00,0.77
5001.00,0.77
5000.00,0.77
4999.00,0.77
4998.00,0.77
4997.00,0.77
4996.00,0.77
4995.00,0.77
4994.00,0.77
4993.00,0.77
4992.00,0.77
4991.00,0.77
4990.00,0.77
4989.00,0.77
4988.00,0.77
4987.00,0.77
4986.00,0.77
4985.00,0.78
4984.00,0.78
4983.00,0.78
4982.00,0.78
4981.00,0.78
4980.00,0.78
4979.00,0.78
4978.00,0.78
4977.00,0.78
4976.00,0.78
4975.00,0.78
4974.00,0.78
4973.00,0.78
4972.00,0.79
4971.00,0.79
4970.00,0.79
4969.00,0.79
4968.00,0.79
4967.00,0.79
4966.00,0.79
4965.00,0.79
4964.00,0.79
4963.00,0.79
4962.00,0.79
4961.00,0.79
4960.00,0.79
4959.00,0.79
4958.00,0.79
4957.00,0.80
4956.00,0.80
4955.00,0.80
4954.00,0.80
4953.00,0.80
4952.00,0.80
4951.00,0.80
4950.00,0.80
4949.00,0.80
4948.00,0.80
4947.00,0.80
4946.00,0.80
4945.00,0.80
4944.00,0.80
4943.00,0.81
4942.00,0.81
4941.00,0.81
4940.00,0.81
4939.00,0.81
4938.00,0.81
4937.00,0.81
4936.00,0.81
4935.00,0.81
4934.00,0.81
4933.00,0.81
4932.00,0.81
4931.00,0.81
4930.00,0.82
4929.00,0.82
4928.00,0.82
4927.00,0.82
4926.00,0.82
4925.00,0.82
4924.00,0.82
4923.00,0.82
4922.00,0.82
4921.00,0.82
4920.00,0.82
4919.00,0.82
4918.00,0.82
4917.00,0.82
4916.00,0.82
4915.00,0.83
4914.00,0.83
4913.00,0.83
4912.00,0.83
4911.00,0.83
4910.00,0.83
4909.00,0.83
4908.00,0.83
4907.00,0.83
4906.00,0.83
4905.00,0.83
4904.00,0.83
4903.00,0.83
4902.00,0.83
4901.00,0.84
4900.00,0.84
4899.00,0.84
4898.00,0.84
4897.00,0.84
4896.00,0.84
4895.00,0.84
4894.00,0.84
4893.00,0.84
4892.00,0.84
4891.00,0.84
4890.00,0.85
4889.00,0.85
4888.00,0.85
4887.00,0.85
4886.00,0.85
4885.00,0.85
4884.00,0.85
4883.00,0.85
4882.00,0.85
4881.00,0.85
4880.00,0.85
4879.00,0.85
4878.00,0.85
4877.00,0.85
4876.00,0.85
4875.00,0.85
4874.00,0.86
4873.00,0.86
4872.00,0.86
4871.00,0.85
4870.00,0.85
4869.00,0.85
4868.00,0.85
4867.00,0.85
4866.00,0.85
4865.00,0.86
4864.00,0.86
4863.00,0.86
4862.00,0.86
4861.00,0.86
4860.00,0.86
4859.00,0.86
4858.00,0.86
4857.00,0.86
4856.00,0.86
4855.00,0.86
4854.00,0.86
4853.00,0.86
4852.00,0.86
4851.00,0.86
4850.00,0.86
4849.00,0.86
4848.00,0.86
4847.00,0.87
4846.00,0.87
4845.00,0.87
4844.00,0.87
4843.00,0.87
4842.00,0.87
4841.00,0.87
4840.00,0.87
4839.00,0.87
4838.00,0.87
4837.00,0.87
4836.00,0.87
4835.00,0.87
4834.00,0.87
4833.00,0.88
4832.00,0.88
4831.00,0.88
4830.00,0.88
4829.00,0.88
4828.00,0.88
4827.00,0.88
4826.00,0.88
4825.00,0.88
4824.00,0.88
4823.00,0.88
4822.00,0.88
4821.00,0.88
4820.00,0.88
4819.00,0.88
4818.00,0.89
4817.00,0.89
4816.00,0.89
4815.00,0.89
4814.00,0.89
4813.00,0.89
4812.00,0.89
4811.00,0.89
4810.00,0.89
4809.00,0.89
4808.00,0.89
4807.00,0.89
4806.00,0.89
4805.00,0.89
4804.00,0.90
4803.00,0.90
4802.00,0.90
4801.00,0.90
4800.00,0.90
4799.00,0.90
4798.00,0.90
4797.00,0.90
4796.00,0.90
4795.00,0.90
4794.00,0.90
4793.00,0.91
4792.00,0.91
4791.00,0.91
4790.00,0.91
4789.00,0.91
4788.00,0.91
4787.00,0.91
4786.00,0.92
4785.00,0.92
4784.00,0.92
4783.00,0.92
4782.00,0.92
4781.00,0.92
4780.00,0.92
4779.00,0.93
4778.00,0.93
4777.00,0.93
4776.00,0.93
4775.00,0.93
4774.00,0.93
4773.00,0.93
4772.00,0.93
4771.00,0.93
4770.00,0.94
4769.00,0.94
4768.00,0.94
4767.00,0.94
4766.00,0.94
4765.00,0.94
4764.00,0.94
4763.00,0.94
4762.00,0.94
4761.00,0.95
4760.00,0.95
4759.00,0.95
4758.00,0.95
4757.00,0.95
4756.00,0.95
4755.00,0.95
4754.00,0.95
4753.00,0.95
4752.00,0.95
4751.00,0.95
4750.00,0.96
4749.00,0.96
4748.00,0.96
4747.00,0.96
4746.00,0.96
4745.00,0.96
4744.00,0.96
4743.00,0.96
4742.00,0.96
4741.00,0.96
4740.00,0.97
4739.00,0.97
4738.00,0.97
4737.00,0.97
4736.00,0.97
4735.00,0.97
4734.00,0.97
4733.00,0.98
4732.00,0.98
4731.00,0.98
4730.00,0.98
4729.00,0.98
4728.00,0.98
4727.00,0.98
4726.00,0.99
4725.00,0.99
4724.00,0.99
4723.00,0.99
4722.00,0.99
4721.00,0.99
4720.00,1.00
4719.00,1.00
4718.00,1.00
4717.00,1.00
4716.00,1.00
4715.00,1.00
4714.00,1.01
4713.00,1.01
4712.00,1.01
4711.00,1.01
4710.00,1.01
4709.00,1.02
4708.00,1.02
4707.00,1.02
4706.00,1.02
4705.00,1.02
4704.00,1.03
4703.00,1.03
4702.00,1.03
4701.00,1.03
4700.00,1.03
4699.00,1.03
4698.00,1.04
4697.00,1.04
4696.00,1.04
4695.00,1.04
4694.00,1.04
4693.00,1.04
4692.00,1.04
4691.00,1.04
4690.00,1.05
4689.00,1.05
4688.00,1.05
4687.00,1.05
4686.00,1.05
4685.00,1.05
4684.00,1.05
4683.00,1.05
4682.00,1.05
4681.00,1.05
4680.00,1.05
4679.00,1.05
4678.00,1.05
4677.00,1.06
4676.00,1.06
4675.00,1.06
4674.00,1.06
4673.00,1.06
4672.00,1.06
4671.00,1.06
4670.00,1.07
4669.00,1.07
4668.00,1.07
4667.00,1.07
4666.00,1.07
4665.00,1.07
4664.00,1.07
4663.00,1.07
4662.00,1.08
4661.00,1.08
4660.00,1.08
4659.00,1.08
4658.00,1.08
4657.00,1.08
4656.00,1.08
4655.00,1.09
4654.00,1.09
4653.00,1.09
4652.00,1.09
4651.00,1.09
4650.00,1.09
4649.00,1.10
4648.00,1.10
4647.00,1.10
4646.00,1.10
4645.00,1.10
4644.00,1.11
4643.00,1.11
4642.00,1.11
4641.00,1.11
4640.00,1.11
4639.00,1.11
4638.00,1.11
4637.00,1.11
4636.00,1.11
4635.00,1.11
4634.00,1.11
4633.00,1.11
4632.00,1.11
4631.00,1.11
4630.00,1.11
4629.00,1.12
4628.00,1.12
4627.00,1.12
4626.00,1.12
4625.00,1.12
4624.00,1.12
4623.00,1.12
4622.00,1.12
4621.00,1.12
4620.00,1.13
4619.00,1.13
4618.00,1.13
4617.00,1.13
4616.00,1.13
4615.00,1.13
4614.00,1.13
4613.00,1.13
4612.00,1.13
4611.00,1.14
4610.00,1.14
4609.00,1.14
4608.00,1.14
4607.00,1.14
4606.00,1.14
4605.00,1.14
4604.00,1.14
4603.00,1.14
4602.00,1.14
4601.00,1.14
4600.00,1.14
4599.00,1.14
4598.00,1.14
4597.00,1.14
4596.00,1.14
4595.00,1.15
4594.00,1.15
4593.00,1.15
4592.00,1.15
4591.00,1.15
4590.00,1.15
4589.00,1.15
4588.00,1.15
4587.00,1.16
4586.00,1.16
4585.00,1.16
4584.00,1.16
4583.00,1.16
4582.00,1.16
4581.00,1.17
4580.00,1.17
4579.00,1.17
4578.00,1.17
4577.00,1.17
4576.00,1.17
4575.00,1.17
4574.00,1.18
4573.00,1.18
4572.00,1.18
4571.00,1.18
4570.00,1.18
4569.00,1.18
4568.00,1.18
4567.00,1.18
4566.00,1.18
4565.00,1.18
4564.00,1.18
4563.00,1.18
4562.00,1.18
4561.00,1.19
4560.00,1.19
4559.00,1.19
4558.00,1.19
4557.00,1.19
4556.00,1.19
4555.00,1.19
4554.00,1.19
4553.00,1.19
4552.00,1.19
4551.00,1.19
4550.00,1.19
4549.00,1.19
4548.00,1.20
4547.00,1.20
4546.00,1.20
4545.00,1.20
4544.00,1.20
4543.00,1.20
4542.00,1.20
4541.00,1.20
4540.00,1.20
4539.00,1.20
4538.00,1.20
4537.00,1.21
4536.00,1.21
4535.00,1.21
4534.00,1.21
4533.00,1.21
4532.00,1.21
4531.00,1.21
4530.00,1.21
4529.00,1.21
4528.00,1.21
4527.00,1.21
4526.00,1.21
4525.00,1.21
4524.00,1.21
4523.00,1.21
4522.00,1.21
4521.00,1.21
4520.00,1.21
4519.00,1.21
4518.00,1.21
4517.00,1.21
4516.00,1.21
4515.00,1.21
4514.00,1.21
4513.00,1.21
4512.00,1.21
4511.00,1.21
4510.00,1.21
4509.00,1.21
4508.00,1.21
4507.00,1.21
4506.00,1.21
4505.00,1.21
4504.00,1.21
4503.00,1.21
4502.00,1.21
4501.00,1.21
4500.00,1.21
4499.00,1.21
4498.00,1.21
4497.00,1.21
4496.00,1.21
4495.00,1.21
4494.00,1.21
4493.00,1.20
4492.00,1.20
4491.00,1.20
4490.00,1.20
4489.00,1.20
4488.00,1.20
4487.00,1.20
4486.00,1.20
4485.00,1.20
4484.00,1.19
4483.00,1.19
4482.00,1.19
4481.00,1.19
4480.00,1.19
4479.00,1.19
4478.00,1.18
4477.00,1.18
4476.00,1.18
4475.00,1.18
4474.00,1.18
4473.00,1.18
4472.00,1.17
4471.00,1.17
4470.00,1.17
4469.00,1.17
4468.00,1.17
4467.00,1.16
4466.00,1.16
4465.00,1.16
4464.00,1.16
4463.00,1.16
4462.00,1.15
4461.00,1.15
4460.00,1.15
4459.00,1.15
4458.00,1.15
4457.00,1.14
4456.00,1.14
4455.00,1.14
4454.00,1.14
4453.00,1.13
4452.00,1.13
4451.00,1.13
4450.00,1.12
4449.00,1.12
4448.00,1.12
4447.00,1.11
4446.00,1.11
4445.00,1.10
4444.00,1.10
4443.00,1.10
4442.00,1.09
4441.00,1.09
4440.00,1.08
4439.00,1.08
4438.00,1.08
4437.00,1.07
4436.00,1.07
4435.00,1.06
4434.00,1.06
4433.00,1.06
4432.00,1.06
4431.00,1.05
4430.00,1.05
4429.00,1.05
4428.00,1.05
4427.00,1.04
4426.00,1.04
4425.00,1.04
4424.00,1.04
4423.00,1.04
4422.00,1.04
4421.00,1.04
4420.00,1.04
4419.00,1.04
4418.00,1.04
4417.00,1.04
4416.00,1.04
4415.00,1.04
4414.00,1.04
4413.00,1.04
4412.00,1.04
4411.00,1.04
4410.00,1.04
4409.00,1.04
4408.00,1.04
4407.00,1.04
4406.00,1.04
4405.00,1.04
4404.00,1.04
4403.00,1.04
4402.00,1.04
4401.00,1.05
4400.00,1.05
4399.00,1.05
4398.00,1.05
4397.00,1.05
4396.00,1.05
4395.00,1.05
4394.00,1.05
4393.00,1.06
4392.00,1.06
4391.00,1.06
4390.00,1.06
4389.00,1.06
4388.00,1.06
4387.00,1.07
4386.00,1.07
4385.00,1.07
4384.00,1.07
4383.00,1.07
4382.00,1.07
4381.00,1.08
4380.00,1.08
4379.00,1.08
4378.00,1.08
4377.00,1.08
4376.00,1.08
4375.00,1.08
4374.00,1.08
4373.00,1.08
4372.00,1.08
4371.00,1.08
4370.00,1.08
4369.00,1.08
4368.00,1.08
4367.00,1.08
4366.00,1.08
4365.00,1.08
4364.00,1.08
4363.00,1.08
4362.00,1.08
4361.00,1.08
4360.00,1.08
4359.00,1.09
4358.00,1.09
4357.00,1.09
4356.00,1.09
4355.00,1.09
4354.00,1.09
4353.00,1.09
4352.00,1.09
4351.00,1.09
4350.00,1.09
4349.00,1.09
4348.00,1.09
4347.00,1.09
4346.00,1.09
4345.00,1.09
4344.00,1.09
4343.00,1.09
4342.00,1.09
4341.00,1.09
4340.00,1.09
4339.00,1.10
4338.00,1.10
4337.00,1.10
4336.00,1.10
4335.00,1.10
4334.00,1.10
4333.00,1.10
4332.00,1.10
4331.00,1.10
4330.00,1.10
4329.00,1.10
4328.00,1.11
4327.00,1.11
4326.00,1.11
4325.00,1.11
4324.00,1.11
4323.00,1.11
4322.00,1.11
4321.00,1.11
4320.00,1.12
4319.00,1.12
4318.00,1.12
4317.00,1.12
4316.00,1.12
4315.00,1.12
4314.00,1.12
4313.00,1.13
4312.00,1.13
4311.00,1.13
4310.00,1.13
4309.00,1.13
4308.00,1.13
4307.00,1.13
4306.00,1.13
4305.00,1.14
4304.00,1.14
4303.00,1.14
4302.00,1.14
4301.00,1.14
4300.00,1.14
4299.00,1.14
4298.00,1.14
4297.00,1.14
4296.00,1.15
4295.00,1.15
4294.00,1.15
4293.00,1.15
4292.00,1.15
4291.00,1.15
4290.00,1.15
4289.00,1.15
4288.00,1.15
4287.00,1.15
4286.00,1.15
4285.00,1.15
4284.00,1.15
4283.00,1.15
4282.00,1.15
4281.00,1.15
4280.00,1.15
4279.00,1.15
4278.00,1.15
4277.00,1.15
4276.00,1.15
4275.00,1.15
4274.00,1.15
4273.00,1.15
4272.00,1.15
4271.00,1.15
4270.00,1.15
4269.00,1.15
4268.00,1.15
4267.00,1.15
4266.00,1.15
4265.00,1.15
4264.00,1.15
4263.00,1.15
4262.00,1.15
4261.00,1.15
4260.00,1.15
4259.00,1.15
4258.00,1.15
4257.00,1.15
4256.00,1.15
4255.00,1.15
4254.00,1.16
4253.00,1.16
4252.00,1.16
4251.00,1.16
4250.00,1.16
4249.00,1.16
4248.00,1.16
4247.00,1.16
4246.00,1.16
4245.00,1.16
4244.00,1.17
4243.00,1.17
4242.00,1.17
4241.00,1.17
4240.00,1.17
4239.00,1.18
4238.00,1.18
4237.00,1.18
4236.00,1.18
4235.00,1.18
4234.00,1.19
4233.00,1.19
4232.00,1.19
4231.00,1.19
4230.00,1.19
4229.00,1.19
4228.00,1.19
4227.00,1.19
4226.00,1.19
4225.00,1.20
4224.00,1.20
4223.00,1.20
4222.00,1.20
4221.00,1.20
4220.00,1.20
4219.00,1.20
4218.00,1.20
4217.00,1.20
4216.00,1.20
4215.00,1.20
4214.00,1.20
4213.00,1.20
4212.00,1.20
4211.00,1.20
4210.00,1.20
4209.00,1.20
4208.00,1.20
4207.00,1.20
4206.00,1.20
4205.00,1.20
4204.00,1.20
4203.00,1.21
4202.00,1.21
4201.00,1.21
4200.00,1.21
4199.00,1.21
4198.00,1.21
4197.00,1.21
4196.00,1.21
4195.00,1.22
4194.00,1.22
4193.00,1.22
4192.00,1.22
4191.00,1.22
4190.00,1.22
4189.00,1.22
4188.00,1.22
4187.00,1.23
4186.00,1.23
4185.00,1.23
4184.00,1.23
4183.00,1.23
4182.00,1.23
4181.00,1.23
4180.00,1.23
4179.00,1.23
4178.00,1.23
4177.00,1.23
4176.00,1.23
4175.00,1.23
4174.00,1.23
4173.00,1.23
4172.00,1.23
4171.00,1.23
4170.00,1.23
4169.00,1.23
4168.00,1.23
4167.00,1.23
4166.00,1.23
4165.00,1.23
4164.00,1.24
4163.00,1.24
4162.00,1.24
4161.00,1.24
4160.00,1.24
4159.00,1.24
4158.00,1.24
4157.00,1.24
4156.00,1.24
4155.00,1.24
4154.00,1.24
4153.00,1.24
4152.00,1.24
4151.00,1.24
4150.00,1.24
4149.00,1.24
4148.00,1.24
4147.00,1.24
4146.00,1.24
4145.00,1.24
4144.00,1.24
4143.00,1.24
4142.00,1.24
4141.00,1.24
4140.00,1.24
4139.00,1.24
4138.00,1.24
4137.00,1.24
4136.00,1.24
4135.00,1.24
4134.00,1.24
4133.00,1.24
4132.00,1.24
4131.00,1.24
4130.00,1.25
4129.00,1.25
4128.00,1.25
4127.00,1.25
4126.00,1.25
4125.00,1.25
4124.00,1.25
4123.00,1.25
4122.00,1.25
4121.00,1.25
4120.00,1.25
4119.00,1.25
4118.00,1.26
4117.00,1.26
4116.00,1.26
4115.00,1.26
4114.00,1.26
4113.00,1.26
4112.00,1.26
4111.00,1.26
4110.00,1.26
4109.00,1.26
4108.00,1.26
4107.00,1.26
4106.00,1.26
4105.00,1.26
4104.00,1.26
4103.00,1.26
4102.00,1.26
4101.00,1.26
4100.00,1.26
4099.00,1.26
4098.00,1.26
4097.00,1.26
4096.00,1.26
4095.00,1.26
4094.00,1.27
4093.00,1.27
4092.00,1.27
4091.00,1.27
4090.00,1.27
4089.00,1.27
4088.00,1.27
4087.00,1.27
4086.00,1.27
4085.00,1.27
4084.00,1.28
4083.00,1.28
4082.00,1.28
4081.00,1.28
4080.00,1.28
4079.00,1.28
4078.00,1.28
4077.00,1.28
4076.00,1.28
4075.00,1.28
4074.00,1.28
4073.00,1.28
4072.00,1.28
4071.00,1.29
4070.00,1.29
4069.00,1.29
4068.00,1.29
4067.00,1.29
4066.00,1.29
4065.00,1.29
4064.00,1.29
4063.00,1.29
4062.00,1.29
4061.00,1.29
4060.00,1.29
4059.00,1.29
4058.00,1.29
4057.00,1.30
4056.00,1.30
4055.00,1.30
4054.00,1.30
4053.00,1.30
4052.00,1.30
4051.00,1.30
4050.00,1.30
4049.00,1.30
4048.00,1.30
4047.00,1.30
4046.00,1.31
4045.00,1.31
4044.00,1.31
4043.00,1.31
4042.00,1.31
4041.00,1.31
4040.00,1.31
4039.00,1.31
4038.00,1.31
4037.00,1.32
4036.00,1.32
4035.00,1.32
4034.00,1.32
4033.00,1.32
4032.00,1.32
4031.00,1.32
4030.00,1.32
4029.00,1.32
4028.00,1.32
4027.00,1.32
4026.00,1.32
4025.00,1.32
4024.00,1.32
4023.00,1.32
4022.00,1.31
4021.00,1.31
4020.00,1.31
4019.00,1.31
4018.00,1.31
4017.00,1.31
4016.00,1.31
4015.00,1.31
4014.00,1.32
4013.00,1.32
4012.00,1.32
4011.00,1.32
4010.00,1.32
4009.00,1.33
4008.00,1.33
4007.00,1.33
4006.00,1.34
4005.00,1.34
4004.00,1.34
4003.00,1.35
4002.00,1.35
4001.00,1.36
4000.00,1.36
