创建为新数据集,样品 163 用户 Administrator 日期 星期三, 十一月 08 2017
cm-1,%T
10000.00,1.46
9999.00,1.46
9998.00,1.47
9997.00,1.47
9996.00,1.47
9995.00,1.47
9994.00,1.47
9993.00,1.48
9992.00,1.48
9991.00,1.48
9990.00,1.48
9989.00,1.49
9988.00,1.49
9987.00,1.49
9986.00,1.49
9985.00,1.50
9984.00,1.50
9983.00,1.50
9982.00,1.49
9981.00,1.49
9980.00,1.49
9979.00,1.49
9978.00,1.48
9977.00,1.48
9976.00,1.47
9975.00,1.46
9974.00,1.46
9973.00,1.45
9972.00,1.44
9971.00,1.44
9970.00,1.43
9969.00,1.42
9968.00,1.41
9967.00,1.41
9966.00,1.40
9965.00,1.40
9964.00,1.39
9963.00,1.39
9962.00,1.39
9961.00,1.38
9960.00,1.38
9959.00,1.38
9958.00,1.38
9957.00,1.38
9956.00,1.38
9955.00,1.38
9954.00,1.38
9953.00,1.38
9952.00,1.38
9951.00,1.38
9950.00,1.38
9949.00,1.38
9948.00,1.38
9947.00,1.38
9946.00,1.38
9945.00,1.38
9944.00,1.38
9943.00,1.38
9942.00,1.38
9941.00,1.38
9940.00,1.38
9939.00,1.38
9938.00,1.38
9937.00,1.38
9936.00,1.38
9935.00,1.38
9934.00,1.37
9933.00,1.37
9932.00,1.37
9931.00,1.37
9930.00,1.37
9929.00,1.37
9928.00,1.37
9927.00,1.37
9926.00,1.36
9925.00,1.36
9924.00,1.36
9923.00,1.36
9922.00,1.36
9921.00,1.36
9920.00,1.36
9919.00,1.36
9918.00,1.36
9917.00,1.37
9916.00,1.37
9915.00,1.37
9914.00,1.37
9913.00,1.37
9912.00,1.37
9911.00,1.37
9910.00,1.37
9909.00,1.37
9908.00,1.37
9907.00,1.37
9906.00,1.37
9905.00,1.37
9904.00,1.37
9903.00,1.37
9902.00,1.37
9901.00,1.37
9900.00,1.37
9899.00,1.37
9898.00,1.37
9897.00,1.37
9896.00,1.37
9895.00,1.37
9894.00,1.37
9893.00,1.37
9892.00,1.37
9891.00,1.37
9890.00,1.37
9889.00,1.37
9888.00,1.37
9887.00,1.37
9886.00,1.37
9885.00,1.37
9884.00,1.37
9883.00,1.37
9882.00,1.37
9881.00,1.36
9880.00,1.36
9879.00,1.36
9878.00,1.36
9877.00,1.36
9876.00,1.35
9875.00,1.35
9874.00,1.35
9873.00,1.35
9872.00,1.35
9871.00,1.35
9870.00,1.35
9869.00,1.35
9868.00,1.35
9867.00,1.35
9866.00,1.35
9865.00,1.35
9864.00,1.35
9863.00,1.35
9862.00,1.35
9861.00,1.35
9860.00,1.35
9859.00,1.35
9858.00,1.36
9857.00,1.36
9856.00,1.36
9855.00,1.36
9854.00,1.36
9853.00,1.36
9852.00,1.36
9851.00,1.36
9850.00,1.35
9849.00,1.35
9848.00,1.35
9847.00,1.35
9846.00,1.35
9845.00,1.35
9844.00,1.35
9843.00,1.35
9842.00,1.35
9841.00,1.35
9840.00,1.35
9839.00,1.35
9838.00,1.35
9837.00,1.35
9836.00,1.35
9835.00,1.35
9834.00,1.35
9833.00,1.35
9832.00,1.35
9831.00,1.35
9830.00,1.35
9829.00,1.35
9828.00,1.35
9827.00,1.35
9826.00,1.35
9825.00,1.35
9824.00,1.35
9823.00,1.35
9822.00,1.35
9821.00,1.35
9820.00,1.35
9819.00,1.35
9818.00,1.35
9817.00,1.35
9816.00,1.35
9815.00,1.35
9814.00,1.35
9813.00,1.35
9812.00,1.35
9811.00,1.35
9810.00,1.35
9809.00,1.35
9808.00,1.35
9807.00,1.35
9806.00,1.34
9805.00,1.34
9804.00,1.34
9803.00,1.34
9802.00,1.34
9801.00,1.34
9800.00,1.34
9799.00,1.34
9798.00,1.34
9797.00,1.34
9796.00,1.34
9795.00,1.34
9794.00,1.34
9793.00,1.34
9792.00,1.34
9791.00,1.34
9790.00,1.34
9789.00,1.34
9788.00,1.35
9787.00,1.35
9786.00,1.35
9785.00,1.35
9784.00,1.35
9783.00,1.36
9782.00,1.36
9781.00,1.36
9780.00,1.36
9779.00,1.37
9778.00,1.37
9777.00,1.37
9776.00,1.37
9775.00,1.37
9774.00,1.37
9773.00,1.37
9772.00,1.37
9771.00,1.37
9770.00,1.37
9769.00,1.37
9768.00,1.36
9767.00,1.36
9766.00,1.36
9765.00,1.36
9764.00,1.36
9763.00,1.35
9762.00,1.35
9761.00,1.35
9760.00,1.35
9759.00,1.35
9758.00,1.35
9757.00,1.34
9756.00,1.34
9755.00,1.34
9754.00,1.34
9753.00,1.34
9752.00,1.34
9751.00,1.34
9750.00,1.34
9749.00,1.34
9748.00,1.34
9747.00,1.34
9746.00,1.34
9745.00,1.34
9744.00,1.34
9743.00,1.34
9742.00,1.34
9741.00,1.34
9740.00,1.35
9739.00,1.35
9738.00,1.35
9737.00,1.35
9736.00,1.35
9735.00,1.35
9734.00,1.35
9733.00,1.36
9732.00,1.36
9731.00,1.36
9730.00,1.36
9729.00,1.36
9728.00,1.36
9727.00,1.36
9726.00,1.36
9725.00,1.36
9724.00,1.35
9723.00,1.35
9722.00,1.35
9721.00,1.35
9720.00,1.35
9719.00,1.35
9718.00,1.34
9717.00,1.34
9716.00,1.34
9715.00,1.34
9714.00,1.34
9713.00,1.34
9712.00,1.34
9711.00,1.34
9710.00,1.34
9709.00,1.34
9708.00,1.34
9707.00,1.34
9706.00,1.34
9705.00,1.34
9704.00,1.34
9703.00,1.34
9702.00,1.34
9701.00,1.34
9700.00,1.34
9699.00,1.34
9698.00,1.34
9697.00,1.34
9696.00,1.34
9695.00,1.34
9694.00,1.34
9693.00,1.34
9692.00,1.34
9691.00,1.34
9690.00,1.34
9689.00,1.34
9688.00,1.34
9687.00,1.34
9686.00,1.33
9685.00,1.33
9684.00,1.33
9683.00,1.33
9682.00,1.33
9681.00,1.33
9680.00,1.33
9679.00,1.33
9678.00,1.33
9677.00,1.33
9676.00,1.33
9675.00,1.33
9674.00,1.33
9673.00,1.33
9672.00,1.33
9671.00,1.34
9670.00,1.34
9669.00,1.34
9668.00,1.34
9667.00,1.34
9666.00,1.34
9665.00,1.34
9664.00,1.34
9663.00,1.34
9662.00,1.34
9661.00,1.34
9660.00,1.34
9659.00,1.34
9658.00,1.34
9657.00,1.34
9656.00,1.34
9655.00,1.34
9654.00,1.34
9653.00,1.34
9652.00,1.34
9651.00,1.34
9650.00,1.34
9649.00,1.34
9648.00,1.34
9647.00,1.35
9646.00,1.35
9645.00,1.35
9644.00,1.35
9643.00,1.35
9642.00,1.35
9641.00,1.36
9640.00,1.36
9639.00,1.36
9638.00,1.36
9637.00,1.36
9636.00,1.37
9635.00,1.37
9634.00,1.37
9633.00,1.37
9632.00,1.37
9631.00,1.37
9630.00,1.37
9629.00,1.37
9628.00,1.36
9627.00,1.36
9626.00,1.36
9625.00,1.36
9624.00,1.36
9623.00,1.35
9622.00,1.35
9621.00,1.35
9620.00,1.35
9619.00,1.35
9618.00,1.35
9617.00,1.35
9616.00,1.35
9615.00,1.35
9614.00,1.35
9613.00,1.35
9612.00,1.35
9611.00,1.35
9610.00,1.36
9609.00,1.36
9608.00,1.36
9607.00,1.36
9606.00,1.36
9605.00,1.36
9604.00,1.36
9603.00,1.36
9602.00,1.36
9601.00,1.36
9600.00,1.36
9599.00,1.36
9598.00,1.35
9597.00,1.35
9596.00,1.35
9595.00,1.35
9594.00,1.35
9593.00,1.35
9592.00,1.35
9591.00,1.35
9590.00,1.35
9589.00,1.35
9588.00,1.34
9587.00,1.34
9586.00,1.34
9585.00,1.34
9584.00,1.35
9583.00,1.35
9582.00,1.35
9581.00,1.35
9580.00,1.35
9579.00,1.35
9578.00,1.35
9577.00,1.35
9576.00,1.35
9575.00,1.35
9574.00,1.35
9573.00,1.35
9572.00,1.35
9571.00,1.35
9570.00,1.35
9569.00,1.35
9568.00,1.35
9567.00,1.35
9566.00,1.35
9565.00,1.35
9564.00,1.35
9563.00,1.35
9562.00,1.35
9561.00,1.35
9560.00,1.35
9559.00,1.35
9558.00,1.35
9557.00,1.35
9556.00,1.35
9555.00,1.35
9554.00,1.35
9553.00,1.35
9552.00,1.35
9551.00,1.35
9550.00,1.35
9549.00,1.35
9548.00,1.34
9547.00,1.34
9546.00,1.34
9545.00,1.34
9544.00,1.34
9543.00,1.34
9542.00,1.34
9541.00,1.34
9540.00,1.34
9539.00,1.34
9538.00,1.33
9537.00,1.33
9536.00,1.33
9535.00,1.33
9534.00,1.33
9533.00,1.33
9532.00,1.34
9531.00,1.34
9530.00,1.34
9529.00,1.34
9528.00,1.34
9527.00,1.34
9526.00,1.34
9525.00,1.34
9524.00,1.34
9523.00,1.35
9522.00,1.35
9521.00,1.35
9520.00,1.35
9519.00,1.35
9518.00,1.36
9517.00,1.36
9516.00,1.36
9515.00,1.36
9514.00,1.37
9513.00,1.37
9512.00,1.37
9511.00,1.37
9510.00,1.37
9509.00,1.38
9508.00,1.38
9507.00,1.38
9506.00,1.38
9505.00,1.38
9504.00,1.38
9503.00,1.38
9502.00,1.38
9501.00,1.38
9500.00,1.38
9499.00,1.37
9498.00,1.37
9497.00,1.37
9496.00,1.37
9495.00,1.37
9494.00,1.36
9493.00,1.36
9492.00,1.36
9491.00,1.36
9490.00,1.36
9489.00,1.36
9488.00,1.35
9487.00,1.35
9486.00,1.35
9485.00,1.35
9484.00,1.35
9483.00,1.35
9482.00,1.34
9481.00,1.34
9480.00,1.34
9479.00,1.34
9478.00,1.34
9477.00,1.34
9476.00,1.33
9475.00,1.33
9474.00,1.33
9473.00,1.33
9472.00,1.33
9471.00,1.33
9470.00,1.33
9469.00,1.33
9468.00,1.33
9467.00,1.33
9466.00,1.34
9465.00,1.34
9464.00,1.34
9463.00,1.34
9462.00,1.34
9461.00,1.34
9460.00,1.35
9459.00,1.35
9458.00,1.35
9457.00,1.35
9456.00,1.35
9455.00,1.35
9454.00,1.35
9453.00,1.35
9452.00,1.36
9451.00,1.36
9450.00,1.36
9449.00,1.36
9448.00,1.36
9447.00,1.35
9446.00,1.35
9445.00,1.35
9444.00,1.35
9443.00,1.35
9442.00,1.35
9441.00,1.35
9440.00,1.35
9439.00,1.35
9438.00,1.35
9437.00,1.35
9436.00,1.34
9435.00,1.34
9434.00,1.34
9433.00,1.34
9432.00,1.34
9431.00,1.34
9430.00,1.34
9429.00,1.34
9428.00,1.33
9427.00,1.33
9426.00,1.33
9425.00,1.33
9424.00,1.33
9423.00,1.33
9422.00,1.33
9421.00,1.33
9420.00,1.33
9419.00,1.32
9418.00,1.32
9417.00,1.32
9416.00,1.32
9415.00,1.32
9414.00,1.32
9413.00,1.33
9412.00,1.33
9411.00,1.33
9410.00,1.33
9409.00,1.33
9408.00,1.33
9407.00,1.33
9406.00,1.33
9405.00,1.33
9404.00,1.33
9403.00,1.33
9402.00,1.33
9401.00,1.33
9400.00,1.33
9399.00,1.33
9398.00,1.33
9397.00,1.33
9396.00,1.33
9395.00,1.33
9394.00,1.33
9393.00,1.33
9392.00,1.33
9391.00,1.33
9390.00,1.33
9389.00,1.33
9388.00,1.34
9387.00,1.34
9386.00,1.34
9385.00,1.34
9384.00,1.34
9383.00,1.34
9382.00,1.34
9381.00,1.35
9380.00,1.35
9379.00,1.35
9378.00,1.35
9377.00,1.35
9376.00,1.36
9375.00,1.36
9374.00,1.36
9373.00,1.36
9372.00,1.36
9371.00,1.37
9370.00,1.37
9369.00,1.37
9368.00,1.37
9367.00,1.37
9366.00,1.38
9365.00,1.38
9364.00,1.38
9363.00,1.38
9362.00,1.38
9361.00,1.38
9360.00,1.38
9359.00,1.38
9358.00,1.37
9357.00,1.37
9356.00,1.37
9355.00,1.37
9354.00,1.37
9353.00,1.36
9352.00,1.36
9351.00,1.36
9350.00,1.35
9349.00,1.35
9348.00,1.35
9347.00,1.35
9346.00,1.34
9345.00,1.34
9344.00,1.34
9343.00,1.34
9342.00,1.33
9341.00,1.33
9340.00,1.33
9339.00,1.33
9338.00,1.33
9337.00,1.32
9336.00,1.32
9335.00,1.32
9334.00,1.32
9333.00,1.32
9332.00,1.32
9331.00,1.32
9330.00,1.32
9329.00,1.32
9328.00,1.32
9327.00,1.32
9326.00,1.32
9325.00,1.32
9324.00,1.32
9323.00,1.32
9322.00,1.33
9321.00,1.33
9320.00,1.33
9319.00,1.33
9318.00,1.33
9317.00,1.33
9316.00,1.34
9315.00,1.34
9314.00,1.34
9313.00,1.34
9312.00,1.34
9311.00,1.34
9310.00,1.34
9309.00,1.34
9308.00,1.34
9307.00,1.34
9306.00,1.34
9305.00,1.34
9304.00,1.34
9303.00,1.34
9302.00,1.34
9301.00,1.34
9300.00,1.34
9299.00,1.34
9298.00,1.34
9297.00,1.34
9296.00,1.34
9295.00,1.34
9294.00,1.34
9293.00,1.34
9292.00,1.34
9291.00,1.35
9290.00,1.35
9289.00,1.35
9288.00,1.35
9287.00,1.35
9286.00,1.35
9285.00,1.35
9284.00,1.35
9283.00,1.35
9282.00,1.35
9281.00,1.36
9280.00,1.36
9279.00,1.36
9278.00,1.36
9277.00,1.36
9276.00,1.36
9275.00,1.36
9274.00,1.36
9273.00,1.36
9272.00,1.36
9271.00,1.36
9270.00,1.36
9269.00,1.36
9268.00,1.35
9267.00,1.35
9266.00,1.35
9265.00,1.35
9264.00,1.35
9263.00,1.35
9262.00,1.35
9261.00,1.35
9260.00,1.35
9259.00,1.35
9258.00,1.35
9257.00,1.35
9256.00,1.34
9255.00,1.34
9254.00,1.34
9253.00,1.34
9252.00,1.34
9251.00,1.34
9250.00,1.33
9249.00,1.33
9248.00,1.33
9247.00,1.33
9246.00,1.33
9245.00,1.33
9244.00,1.33
9243.00,1.32
9242.00,1.32
9241.00,1.32
9240.00,1.32
9239.00,1.32
9238.00,1.32
9237.00,1.32
9236.00,1.33
9235.00,1.33
9234.00,1.33
9233.00,1.33
9232.00,1.33
9231.00,1.33
9230.00,1.34
9229.00,1.34
9228.00,1.34
9227.00,1.34
9226.00,1.34
9225.00,1.35
9224.00,1.35
9223.00,1.35
9222.00,1.35
9221.00,1.35
9220.00,1.35
9219.00,1.36
9218.00,1.36
9217.00,1.36
9216.00,1.36
9215.00,1.36
9214.00,1.36
9213.00,1.36
9212.00,1.36
9211.00,1.36
9210.00,1.36
9209.00,1.36
9208.00,1.36
9207.00,1.36
9206.00,1.36
9205.00,1.36
9204.00,1.36
9203.00,1.36
9202.00,1.36
9201.00,1.36
9200.00,1.36
9199.00,1.36
9198.00,1.36
9197.00,1.36
9196.00,1.36
9195.00,1.36
9194.00,1.36
9193.00,1.37
9192.00,1.37
9191.00,1.37
9190.00,1.37
9189.00,1.37
9188.00,1.37
9187.00,1.37
9186.00,1.37
9185.00,1.38
9184.00,1.38
9183.00,1.38
9182.00,1.38
9181.00,1.38
9180.00,1.38
9179.00,1.38
9178.00,1.38
9177.00,1.38
9176.00,1.38
9175.00,1.38
9174.00,1.38
9173.00,1.38
9172.00,1.38
9171.00,1.38
9170.00,1.37
9169.00,1.37
9168.00,1.37
9167.00,1.37
9166.00,1.37
9165.00,1.37
9164.00,1.37
9163.00,1.37
9162.00,1.37
9161.00,1.37
9160.00,1.37
9159.00,1.36
9158.00,1.36
9157.00,1.36
9156.00,1.36
9155.00,1.36
9154.00,1.36
9153.00,1.36
9152.00,1.36
9151.00,1.36
9150.00,1.36
9149.00,1.36
9148.00,1.36
9147.00,1.36
9146.00,1.36
9145.00,1.36
9144.00,1.36
9143.00,1.36
9142.00,1.36
9141.00,1.36
9140.00,1.36
9139.00,1.36
9138.00,1.36
9137.00,1.36
9136.00,1.36
9135.00,1.36
9134.00,1.36
9133.00,1.36
9132.00,1.36
9131.00,1.36
9130.00,1.35
9129.00,1.35
9128.00,1.35
9127.00,1.35
9126.00,1.35
9125.00,1.35
9124.00,1.35
9123.00,1.35
9122.00,1.35
9121.00,1.35
9120.00,1.35
9119.00,1.35
9118.00,1.35
9117.00,1.35
9116.00,1.34
9115.00,1.34
9114.00,1.34
9113.00,1.34
9112.00,1.34
9111.00,1.34
9110.00,1.34
9109.00,1.35
9108.00,1.35
9107.00,1.35
9106.00,1.35
9105.00,1.35
9104.00,1.35
9103.00,1.35
9102.00,1.35
9101.00,1.35
9100.00,1.35
9099.00,1.35
9098.00,1.35
9097.00,1.35
9096.00,1.35
9095.00,1.35
9094.00,1.36
9093.00,1.36
9092.00,1.36
9091.00,1.36
9090.00,1.35
9089.00,1.35
9088.00,1.35
9087.00,1.35
9086.00,1.35
9085.00,1.35
9084.00,1.35
9083.00,1.35
9082.00,1.35
9081.00,1.35
9080.00,1.35
9079.00,1.35
9078.00,1.35
9077.00,1.35
9076.00,1.35
9075.00,1.35
9074.00,1.35
9073.00,1.35
9072.00,1.35
9071.00,1.35
9070.00,1.35
9069.00,1.35
9068.00,1.35
9067.00,1.35
9066.00,1.35
9065.00,1.35
9064.00,1.35
9063.00,1.35
9062.00,1.35
9061.00,1.35
9060.00,1.35
9059.00,1.35
9058.00,1.35
9057.00,1.34
9056.00,1.34
9055.00,1.34
9054.00,1.34
9053.00,1.34
9052.00,1.34
9051.00,1.34
9050.00,1.34
9049.00,1.35
9048.00,1.35
9047.00,1.35
9046.00,1.35
9045.00,1.35
9044.00,1.35
9043.00,1.35
9042.00,1.35
9041.00,1.35
9040.00,1.35
9039.00,1.35
9038.00,1.36
9037.00,1.36
9036.00,1.36
9035.00,1.36
9034.00,1.36
9033.00,1.36
9032.00,1.36
9031.00,1.36
9030.00,1.36
9029.00,1.36
9028.00,1.36
9027.00,1.36
9026.00,1.36
9025.00,1.36
9024.00,1.36
9023.00,1.36
9022.00,1.36
9021.00,1.36
9020.00,1.36
9019.00,1.36
9018.00,1.36
9017.00,1.36
9016.00,1.36
9015.00,1.36
9014.00,1.36
9013.00,1.36
9012.00,1.36
9011.00,1.36
9010.00,1.36
9009.00,1.36
9008.00,1.36
9007.00,1.36
9006.00,1.36
9005.00,1.36
9004.00,1.36
9003.00,1.36
9002.00,1.36
9001.00,1.36
9000.00,1.36
8999.00,1.36
8998.00,1.36
8997.00,1.36
8996.00,1.36
8995.00,1.36
8994.00,1.37
8993.00,1.37
8992.00,1.37
8991.00,1.37
8990.00,1.37
8989.00,1.37
8988.00,1.37
8987.00,1.37
8986.00,1.37
8985.00,1.37
8984.00,1.37
8983.00,1.36
8982.00,1.36
8981.00,1.36
8980.00,1.36
8979.00,1.36
8978.00,1.36
8977.00,1.36
8976.00,1.36
8975.00,1.36
8974.00,1.36
8973.00,1.36
8972.00,1.35
8971.00,1.35
8970.00,1.35
8969.00,1.35
8968.00,1.35
8967.00,1.36
8966.00,1.36
8965.00,1.36
8964.00,1.36
8963.00,1.36
8962.00,1.36
8961.00,1.36
8960.00,1.36
8959.00,1.36
8958.00,1.36
8957.00,1.36
8956.00,1.36
8955.00,1.36
8954.00,1.36
8953.00,1.36
8952.00,1.36
8951.00,1.36
8950.00,1.36
8949.00,1.36
8948.00,1.36
8947.00,1.36
8946.00,1.36
8945.00,1.36
8944.00,1.36
8943.00,1.36
8942.00,1.36
8941.00,1.36
8940.00,1.36
8939.00,1.36
8938.00,1.36
8937.00,1.36
8936.00,1.36
8935.00,1.35
8934.00,1.35
8933.00,1.35
8932.00,1.35
8931.00,1.35
8930.00,1.35
8929.00,1.34
8928.00,1.34
8927.00,1.34
8926.00,1.34
8925.00,1.34
8924.00,1.34
8923.00,1.34
8922.00,1.34
8921.00,1.34
8920.00,1.34
8919.00,1.34
8918.00,1.34
8917.00,1.34
8916.00,1.35
8915.00,1.35
8914.00,1.35
8913.00,1.35
8912.00,1.35
8911.00,1.35
8910.00,1.36
8909.00,1.36
8908.00,1.36
8907.00,1.36
8906.00,1.36
8905.00,1.36
8904.00,1.36
8903.00,1.36
8902.00,1.36
8901.00,1.36
8900.00,1.36
8899.00,1.36
8898.00,1.36
8897.00,1.36
8896.00,1.36
8895.00,1.36
8894.00,1.36
8893.00,1.37
8892.00,1.37
8891.00,1.37
8890.00,1.37
8889.00,1.37
8888.00,1.37
8887.00,1.37
8886.00,1.37
8885.00,1.37
8884.00,1.37
8883.00,1.37
8882.00,1.37
8881.00,1.37
8880.00,1.36
8879.00,1.36
8878.00,1.36
8877.00,1.36
8876.00,1.36
8875.00,1.36
8874.00,1.36
8873.00,1.36
8872.00,1.36
8871.00,1.35
8870.00,1.35
8869.00,1.35
8868.00,1.35
8867.00,1.35
8866.00,1.35
8865.00,1.35
8864.00,1.35
8863.00,1.35
8862.00,1.35
8861.00,1.35
8860.00,1.35
8859.00,1.35
8858.00,1.35
8857.00,1.35
8856.00,1.35
8855.00,1.35
8854.00,1.35
8853.00,1.35
8852.00,1.35
8851.00,1.35
8850.00,1.35
8849.00,1.35
8848.00,1.35
8847.00,1.35
8846.00,1.35
8845.00,1.35
8844.00,1.35
8843.00,1.35
8842.00,1.34
8841.00,1.34
8840.00,1.34
8839.00,1.34
8838.00,1.34
8837.00,1.34
8836.00,1.34
8835.00,1.34
8834.00,1.34
8833.00,1.34
8832.00,1.34
8831.00,1.34
8830.00,1.34
8829.00,1.34
8828.00,1.34
8827.00,1.34
8826.00,1.34
8825.00,1.34
8824.00,1.34
8823.00,1.34
8822.00,1.34
8821.00,1.34
8820.00,1.34
8819.00,1.34
8818.00,1.34
8817.00,1.34
8816.00,1.34
8815.00,1.34
8814.00,1.34
8813.00,1.34
8812.00,1.34
8811.00,1.34
8810.00,1.34
8809.00,1.34
8808.00,1.34
8807.00,1.34
8806.00,1.34
8805.00,1.33
8804.00,1.33
8803.00,1.33
8802.00,1.33
8801.00,1.33
8800.00,1.33
8799.00,1.33
8798.00,1.33
8797.00,1.33
8796.00,1.33
8795.00,1.33
8794.00,1.33
8793.00,1.33
8792.00,1.33
8791.00,1.33
8790.00,1.34
8789.00,1.34
8788.00,1.34
8787.00,1.34
8786.00,1.34
8785.00,1.34
8784.00,1.34
8783.00,1.34
8782.00,1.34
8781.00,1.34
8780.00,1.34
8779.00,1.34
8778.00,1.34
8777.00,1.34
8776.00,1.33
8775.00,1.33
8774.00,1.33
8773.00,1.33
8772.00,1.33
8771.00,1.33
8770.00,1.33
8769.00,1.33
8768.00,1.33
8767.00,1.33
8766.00,1.33
8765.00,1.33
8764.00,1.33
8763.00,1.33
8762.00,1.33
8761.00,1.33
8760.00,1.33
8759.00,1.33
8758.00,1.33
8757.00,1.33
8756.00,1.33
8755.00,1.33
8754.00,1.33
8753.00,1.33
8752.00,1.33
8751.00,1.33
8750.00,1.33
8749.00,1.33
8748.00,1.33
8747.00,1.33
8746.00,1.33
8745.00,1.33
8744.00,1.32
8743.00,1.32
8742.00,1.32
8741.00,1.32
8740.00,1.32
8739.00,1.32
8738.00,1.32
8737.00,1.32
8736.00,1.32
8735.00,1.31
8734.00,1.31
8733.00,1.31
8732.00,1.31
8731.00,1.31
8730.00,1.31
8729.00,1.31
8728.00,1.31
8727.00,1.31
8726.00,1.31
8725.00,1.31
8724.00,1.31
8723.00,1.31
8722.00,1.31
8721.00,1.31
8720.00,1.31
8719.00,1.31
8718.00,1.31
8717.00,1.31
8716.00,1.30
8715.00,1.30
8714.00,1.30
8713.00,1.30
8712.00,1.30
8711.00,1.30
8710.00,1.30
8709.00,1.30
8708.00,1.30
8707.00,1.30
8706.00,1.30
8705.00,1.30
8704.00,1.30
8703.00,1.30
8702.00,1.30
8701.00,1.30
8700.00,1.30
8699.00,1.30
8698.00,1.30
8697.00,1.30
8696.00,1.30
8695.00,1.30
8694.00,1.30
8693.00,1.30
8692.00,1.30
8691.00,1.30
8690.00,1.30
8689.00,1.30
8688.00,1.30
8687.00,1.30
8686.00,1.30
8685.00,1.30
8684.00,1.30
8683.00,1.30
8682.00,1.30
8681.00,1.30
8680.00,1.30
8679.00,1.30
8678.00,1.30
8677.00,1.30
8676.00,1.30
8675.00,1.30
8674.00,1.30
8673.00,1.30
8672.00,1.30
8671.00,1.30
8670.00,1.30
8669.00,1.31
8668.00,1.31
8667.00,1.31
8666.00,1.31
8665.00,1.31
8664.00,1.31
8663.00,1.31
8662.00,1.31
8661.00,1.30
8660.00,1.30
8659.00,1.30
8658.00,1.30
8657.00,1.30
8656.00,1.30
8655.00,1.30
8654.00,1.30
8653.00,1.30
8652.00,1.29
8651.00,1.29
8650.00,1.29
8649.00,1.29
8648.00,1.29
8647.00,1.29
8646.00,1.29
8645.00,1.29
8644.00,1.28
8643.00,1.28
8642.00,1.28
8641.00,1.28
8640.00,1.28
8639.00,1.28
8638.00,1.28
8637.00,1.28
8636.00,1.28
8635.00,1.28
8634.00,1.28
8633.00,1.28
8632.00,1.28
8631.00,1.28
8630.00,1.28
8629.00,1.28
8628.00,1.28
8627.00,1.28
8626.00,1.29
8625.00,1.29
8624.00,1.29
8623.00,1.29
8622.00,1.29
8621.00,1.29
8620.00,1.29
8619.00,1.29
8618.00,1.29
8617.00,1.29
8616.00,1.29
8615.00,1.29
8614.00,1.29
8613.00,1.29
8612.00,1.29
8611.00,1.29
8610.00,1.29
8609.00,1.29
8608.00,1.29
8607.00,1.29
8606.00,1.29
8605.00,1.29
8604.00,1.29
8603.00,1.29
8602.00,1.29
8601.00,1.29
8600.00,1.29
8599.00,1.29
8598.00,1.29
8597.00,1.29
8596.00,1.29
8595.00,1.29
8594.00,1.29
8593.00,1.29
8592.00,1.29
8591.00,1.29
8590.00,1.29
8589.00,1.29
8588.00,1.29
8587.00,1.29
8586.00,1.28
8585.00,1.28
8584.00,1.28
8583.00,1.28
8582.00,1.28
8581.00,1.28
8580.00,1.28
8579.00,1.27
8578.00,1.27
8577.00,1.27
8576.00,1.27
8575.00,1.27
8574.00,1.27
8573.00,1.27
8572.00,1.27
8571.00,1.27
8570.00,1.27
8569.00,1.26
8568.00,1.26
8567.00,1.26
8566.00,1.26
8565.00,1.26
8564.00,1.26
8563.00,1.26
8562.00,1.26
8561.00,1.26
8560.00,1.26
8559.00,1.26
8558.00,1.26
8557.00,1.25
8556.00,1.25
8555.00,1.25
8554.00,1.25
8553.00,1.26
8552.00,1.26
8551.00,1.26
8550.00,1.26
8549.00,1.26
8548.00,1.26
8547.00,1.26
8546.00,1.26
8545.00,1.26
8544.00,1.26
8543.00,1.26
8542.00,1.26
8541.00,1.26
8540.00,1.26
8539.00,1.26
8538.00,1.26
8537.00,1.26
8536.00,1.26
8535.00,1.26
8534.00,1.26
8533.00,1.26
8532.00,1.26
8531.00,1.26
8530.00,1.26
8529.00,1.26
8528.00,1.26
8527.00,1.26
8526.00,1.26
8525.00,1.26
8524.00,1.26
8523.00,1.26
8522.00,1.25
8521.00,1.25
8520.00,1.25
8519.00,1.25
8518.00,1.25
8517.00,1.25
8516.00,1.25
8515.00,1.24
8514.00,1.24
8513.00,1.24
8512.00,1.24
8511.00,1.24
8510.00,1.24
8509.00,1.24
8508.00,1.24
8507.00,1.24
8506.00,1.23
8505.00,1.23
8504.00,1.23
8503.00,1.23
8502.00,1.23
8501.00,1.23
8500.00,1.23
8499.00,1.23
8498.00,1.23
8497.00,1.23
8496.00,1.23
8495.00,1.23
8494.00,1.23
8493.00,1.23
8492.00,1.23
8491.00,1.23
8490.00,1.23
8489.00,1.23
8488.00,1.23
8487.00,1.23
8486.00,1.23
8485.00,1.23
8484.00,1.23
8483.00,1.23
8482.00,1.23
8481.00,1.23
8480.00,1.23
8479.00,1.22
8478.00,1.22
8477.00,1.22
8476.00,1.22
8475.00,1.22
8474.00,1.22
8473.00,1.22
8472.00,1.22
8471.00,1.21
8470.00,1.21
8469.00,1.21
8468.00,1.21
8467.00,1.21
8466.00,1.21
8465.00,1.21
8464.00,1.21
8463.00,1.21
8462.00,1.21
8461.00,1.21
8460.00,1.21
8459.00,1.21
8458.00,1.21
8457.00,1.21
8456.00,1.21
8455.00,1.21
8454.00,1.21
8453.00,1.21
8452.00,1.20
8451.00,1.20
8450.00,1.20
8449.00,1.20
8448.00,1.20
8447.00,1.20
8446.00,1.20
8445.00,1.20
8444.00,1.20
8443.00,1.20
8442.00,1.19
8441.00,1.19
8440.00,1.19
8439.00,1.19
8438.00,1.19
8437.00,1.19
8436.00,1.19
8435.00,1.19
8434.00,1.19
8433.00,1.19
8432.00,1.19
8431.00,1.19
8430.00,1.19
8429.00,1.19
8428.00,1.19
8427.00,1.19
8426.00,1.19
8425.00,1.19
8424.00,1.20
8423.00,1.20
8422.00,1.20
8421.00,1.20
8420.00,1.20
8419.00,1.20
8418.00,1.20
8417.00,1.20
8416.00,1.20
8415.00,1.20
8414.00,1.20
8413.00,1.20
8412.00,1.20
8411.00,1.20
8410.00,1.20
8409.00,1.20
8408.00,1.20
8407.00,1.20
8406.00,1.20
8405.00,1.21
8404.00,1.21
8403.00,1.21
8402.00,1.21
8401.00,1.21
8400.00,1.21
8399.00,1.22
8398.00,1.22
8397.00,1.22
8396.00,1.22
8395.00,1.23
8394.00,1.23
8393.00,1.23
8392.00,1.23
8391.00,1.23
8390.00,1.23
8389.00,1.23
8388.00,1.23
8387.00,1.23
8386.00,1.23
8385.00,1.23
8384.00,1.23
8383.00,1.23
8382.00,1.23
8381.00,1.23
8380.00,1.23
8379.00,1.23
8378.00,1.23
8377.00,1.23
8376.00,1.23
8375.00,1.23
8374.00,1.23
8373.00,1.23
8372.00,1.23
8371.00,1.24
8370.00,1.24
8369.00,1.24
8368.00,1.24
8367.00,1.24
8366.00,1.24
8365.00,1.25
8364.00,1.25
8363.00,1.25
8362.00,1.25
8361.00,1.25
8360.00,1.25
8359.00,1.25
8358.00,1.25
8357.00,1.25
8356.00,1.25
8355.00,1.25
8354.00,1.25
8353.00,1.25
8352.00,1.25
8351.00,1.25
8350.00,1.25
8349.00,1.25
8348.00,1.25
8347.00,1.25
8346.00,1.25
8345.00,1.25
8344.00,1.25
8343.00,1.25
8342.00,1.25
8341.00,1.25
8340.00,1.25
8339.00,1.25
8338.00,1.25
8337.00,1.25
8336.00,1.24
8335.00,1.24
8334.00,1.24
8333.00,1.24
8332.00,1.24
8331.00,1.24
8330.00,1.24
8329.00,1.24
8328.00,1.24
8327.00,1.24
8326.00,1.24
8325.00,1.24
8324.00,1.24
8323.00,1.24
8322.00,1.24
8321.00,1.24
8320.00,1.24
8319.00,1.24
8318.00,1.24
8317.00,1.24
8316.00,1.24
8315.00,1.24
8314.00,1.24
8313.00,1.24
8312.00,1.24
8311.00,1.24
8310.00,1.24
8309.00,1.24
8308.00,1.24
8307.00,1.24
8306.00,1.24
8305.00,1.24
8304.00,1.24
8303.00,1.24
8302.00,1.24
8301.00,1.24
8300.00,1.25
8299.00,1.25
8298.00,1.25
8297.00,1.25
8296.00,1.25
8295.00,1.25
8294.00,1.25
8293.00,1.25
8292.00,1.25
8291.00,1.25
8290.00,1.25
8289.00,1.26
8288.00,1.26
8287.00,1.26
8286.00,1.26
8285.00,1.26
8284.00,1.26
8283.00,1.26
8282.00,1.26
8281.00,1.26
8280.00,1.25
8279.00,1.25
8278.00,1.25
8277.00,1.25
8276.00,1.25
8275.00,1.25
8274.00,1.25
8273.00,1.25
8272.00,1.25
8271.00,1.25
8270.00,1.25
8269.00,1.25
8268.00,1.25
8267.00,1.25
8266.00,1.25
8265.00,1.25
8264.00,1.25
8263.00,1.26
8262.00,1.26
8261.00,1.26
8260.00,1.26
8259.00,1.26
8258.00,1.26
8257.00,1.26
8256.00,1.26
8255.00,1.26
8254.00,1.26
8253.00,1.26
8252.00,1.26
8251.00,1.26
8250.00,1.26
8249.00,1.26
8248.00,1.26
8247.00,1.26
8246.00,1.26
8245.00,1.26
8244.00,1.26
8243.00,1.26
8242.00,1.26
8241.00,1.26
8240.00,1.26
8239.00,1.26
8238.00,1.26
8237.00,1.26
8236.00,1.26
8235.00,1.26
8234.00,1.26
8233.00,1.26
8232.00,1.26
8231.00,1.26
8230.00,1.27
8229.00,1.27
8228.00,1.27
8227.00,1.27
8226.00,1.27
8225.00,1.27
8224.00,1.27
8223.00,1.27
8222.00,1.28
8221.00,1.28
8220.00,1.28
8219.00,1.28
8218.00,1.28
8217.00,1.28
8216.00,1.28
8215.00,1.28
8214.00,1.28
8213.00,1.28
8212.00,1.28
8211.00,1.28
8210.00,1.28
8209.00,1.28
8208.00,1.28
8207.00,1.28
8206.00,1.28
8205.00,1.28
8204.00,1.28
8203.00,1.28
8202.00,1.28
8201.00,1.28
8200.00,1.28
8199.00,1.28
8198.00,1.29
8197.00,1.29
8196.00,1.29
8195.00,1.29
8194.00,1.29
8193.00,1.29
8192.00,1.29
8191.00,1.29
8190.00,1.30
8189.00,1.30
8188.00,1.30
8187.00,1.30
8186.00,1.30
8185.00,1.30
8184.00,1.30
8183.00,1.30
8182.00,1.30
8181.00,1.30
8180.00,1.30
8179.00,1.30
8178.00,1.30
8177.00,1.30
8176.00,1.30
8175.00,1.30
8174.00,1.30
8173.00,1.30
8172.00,1.30
8171.00,1.30
8170.00,1.30
8169.00,1.30
8168.00,1.30
8167.00,1.29
8166.00,1.29
8165.00,1.29
8164.00,1.29
8163.00,1.29
8162.00,1.29
8161.00,1.29
8160.00,1.29
8159.00,1.29
8158.00,1.29
8157.00,1.29
8156.00,1.29
8155.00,1.29
8154.00,1.29
8153.00,1.29
8152.00,1.29
8151.00,1.29
8150.00,1.29
8149.00,1.29
8148.00,1.29
8147.00,1.29
8146.00,1.29
8145.00,1.29
8144.00,1.29
8143.00,1.29
8142.00,1.29
8141.00,1.29
8140.00,1.29
8139.00,1.29
8138.00,1.29
8137.00,1.29
8136.00,1.29
8135.00,1.29
8134.00,1.29
8133.00,1.29
8132.00,1.29
8131.00,1.29
8130.00,1.29
8129.00,1.29
8128.00,1.29
8127.00,1.29
8126.00,1.30
8125.00,1.30
8124.00,1.30
8123.00,1.30
8122.00,1.30
8121.00,1.30
8120.00,1.30
8119.00,1.31
8118.00,1.31
8117.00,1.31
8116.00,1.31
8115.00,1.31
8114.00,1.31
8113.00,1.31
8112.00,1.31
8111.00,1.31
8110.00,1.31
8109.00,1.31
8108.00,1.31
8107.00,1.31
8106.00,1.31
8105.00,1.31
8104.00,1.31
8103.00,1.31
8102.00,1.31
8101.00,1.31
8100.00,1.31
8099.00,1.30
8098.00,1.30
8097.00,1.30
8096.00,1.30
8095.00,1.30
8094.00,1.30
8093.00,1.30
8092.00,1.30
8091.00,1.30
8090.00,1.30
8089.00,1.30
8088.00,1.30
8087.00,1.30
8086.00,1.30
8085.00,1.30
8084.00,1.31
8083.00,1.31
8082.00,1.31
8081.00,1.31
8080.00,1.31
8079.00,1.31
8078.00,1.31
8077.00,1.31
8076.00,1.31
8075.00,1.31
8074.00,1.31
8073.00,1.31
8072.00,1.31
8071.00,1.32
8070.00,1.32
8069.00,1.32
8068.00,1.32
8067.00,1.32
8066.00,1.31
8065.00,1.31
8064.00,1.32
8063.00,1.32
8062.00,1.32
8061.00,1.32
8060.00,1.32
8059.00,1.32
8058.00,1.32
8057.00,1.32
8056.00,1.32
8055.00,1.32
8054.00,1.32
8053.00,1.32
8052.00,1.32
8051.00,1.32
8050.00,1.32
8049.00,1.32
8048.00,1.33
8047.00,1.33
8046.00,1.33
8045.00,1.33
8044.00,1.33
8043.00,1.33
8042.00,1.33
8041.00,1.33
8040.00,1.33
8039.00,1.33
8038.00,1.33
8037.00,1.33
8036.00,1.33
8035.00,1.33
8034.00,1.33
8033.00,1.33
8032.00,1.33
8031.00,1.33
8030.00,1.33
8029.00,1.33
8028.00,1.33
8027.00,1.33
8026.00,1.33
8025.00,1.33
8024.00,1.33
8023.00,1.33
8022.00,1.33
8021.00,1.33
8020.00,1.33
8019.00,1.33
8018.00,1.33
8017.00,1.33
8016.00,1.33
8015.00,1.33
8014.00,1.33
8013.00,1.33
8012.00,1.33
8011.00,1.33
8010.00,1.33
8009.00,1.33
8008.00,1.33
8007.00,1.33
8006.00,1.33
8005.00,1.33
8004.00,1.33
8003.00,1.33
8002.00,1.33
8001.00,1.33
8000.00,1.33
7999.00,1.34
7998.00,1.34
7997.00,1.34
7996.00,1.34
7995.00,1.34
7994.00,1.34
7993.00,1.34
7992.00,1.34
7991.00,1.34
7990.00,1.34
7989.00,1.34
7988.00,1.34
7987.00,1.34
7986.00,1.34
7985.00,1.34
7984.00,1.35
7983.00,1.35
7982.00,1.35
7981.00,1.35
7980.00,1.34
7979.00,1.34
7978.00,1.34
7977.00,1.34
7976.00,1.34
7975.00,1.34
7974.00,1.34
7973.00,1.34
7972.00,1.34
7971.00,1.34
7970.00,1.34
7969.00,1.34
7968.00,1.34
7967.00,1.34
7966.00,1.33
7965.00,1.33
7964.00,1.33
7963.00,1.33
7962.00,1.33
7961.00,1.33
7960.00,1.33
7959.00,1.33
7958.00,1.33
7957.00,1.34
7956.00,1.34
7955.00,1.34
7954.00,1.34
7953.00,1.34
7952.00,1.34
7951.00,1.34
7950.00,1.34
7949.00,1.34
7948.00,1.34
7947.00,1.35
7946.00,1.35
7945.00,1.35
7944.00,1.35
7943.00,1.35
7942.00,1.35
7941.00,1.35
7940.00,1.35
7939.00,1.35
7938.00,1.35
7937.00,1.35
7936.00,1.35
7935.00,1.35
7934.00,1.35
7933.00,1.35
7932.00,1.35
7931.00,1.35
7930.00,1.35
7929.00,1.35
7928.00,1.35
7927.00,1.35
7926.00,1.35
7925.00,1.35
7924.00,1.35
7923.00,1.35
7922.00,1.35
7921.00,1.35
7920.00,1.35
7919.00,1.35
7918.00,1.35
7917.00,1.35
7916.00,1.35
7915.00,1.35
7914.00,1.35
7913.00,1.35
7912.00,1.34
7911.00,1.34
7910.00,1.34
7909.00,1.34
7908.00,1.34
7907.00,1.34
7906.00,1.34
7905.00,1.34
7904.00,1.34
7903.00,1.34
7902.00,1.34
7901.00,1.34
7900.00,1.34
7899.00,1.34
7898.00,1.34
7897.00,1.34
7896.00,1.35
7895.00,1.35
7894.00,1.35
7893.00,1.35
7892.00,1.35
7891.00,1.35
7890.00,1.35
7889.00,1.35
7888.00,1.35
7887.00,1.36
7886.00,1.36
7885.00,1.36
7884.00,1.36
7883.00,1.36
7882.00,1.36
7881.00,1.36
7880.00,1.36
7879.00,1.36
7878.00,1.36
7877.00,1.36
7876.00,1.36
7875.00,1.36
7874.00,1.36
7873.00,1.36
7872.00,1.36
7871.00,1.36
7870.00,1.36
7869.00,1.36
7868.00,1.36
7867.00,1.36
7866.00,1.36
7865.00,1.36
7864.00,1.36
7863.00,1.36
7862.00,1.36
7861.00,1.36
7860.00,1.36
7859.00,1.36
7858.00,1.36
7857.00,1.36
7856.00,1.36
7855.00,1.36
7854.00,1.36
7853.00,1.36
7852.00,1.36
7851.00,1.36
7850.00,1.36
7849.00,1.36
7848.00,1.36
7847.00,1.36
7846.00,1.36
7845.00,1.36
7844.00,1.36
7843.00,1.36
7842.00,1.36
7841.00,1.36
7840.00,1.36
7839.00,1.36
7838.00,1.36
7837.00,1.36
7836.00,1.36
7835.00,1.36
7834.00,1.36
7833.00,1.36
7832.00,1.36
7831.00,1.36
7830.00,1.36
7829.00,1.36
7828.00,1.36
7827.00,1.36
7826.00,1.36
7825.00,1.36
7824.00,1.36
7823.00,1.36
7822.00,1.37
7821.00,1.37
7820.00,1.37
7819.00,1.37
7818.00,1.37
7817.00,1.37
7816.00,1.37
7815.00,1.37
7814.00,1.37
7813.00,1.37
7812.00,1.38
7811.00,1.38
7810.00,1.38
7809.00,1.38
7808.00,1.38
7807.00,1.38
7806.00,1.38
7805.00,1.38
7804.00,1.38
7803.00,1.38
7802.00,1.38
7801.00,1.38
7800.00,1.38
7799.00,1.38
7798.00,1.38
7797.00,1.38
7796.00,1.38
7795.00,1.38
7794.00,1.38
7793.00,1.37
7792.00,1.37
7791.00,1.37
7790.00,1.37
7789.00,1.37
7788.00,1.37
7787.00,1.37
7786.00,1.37
7785.00,1.37
7784.00,1.37
7783.00,1.37
7782.00,1.37
7781.00,1.37
7780.00,1.37
7779.00,1.37
7778.00,1.37
7777.00,1.37
7776.00,1.37
7775.00,1.37
7774.00,1.37
7773.00,1.37
7772.00,1.37
7771.00,1.37
7770.00,1.37
7769.00,1.37
7768.00,1.37
7767.00,1.37
7766.00,1.37
7765.00,1.37
7764.00,1.37
7763.00,1.37
7762.00,1.37
7761.00,1.37
7760.00,1.37
7759.00,1.37
7758.00,1.37
7757.00,1.37
7756.00,1.37
7755.00,1.37
7754.00,1.37
7753.00,1.37
7752.00,1.37
7751.00,1.37
7750.00,1.37
7749.00,1.37
7748.00,1.37
7747.00,1.37
7746.00,1.37
7745.00,1.37
7744.00,1.37
7743.00,1.37
7742.00,1.37
7741.00,1.38
7740.00,1.38
7739.00,1.38
7738.00,1.38
7737.00,1.38
7736.00,1.38
7735.00,1.38
7734.00,1.38
7733.00,1.38
7732.00,1.38
7731.00,1.38
7730.00,1.38
7729.00,1.38
7728.00,1.38
7727.00,1.38
7726.00,1.38
7725.00,1.38
7724.00,1.38
7723.00,1.38
7722.00,1.38
7721.00,1.38
7720.00,1.38
7719.00,1.38
7718.00,1.38
7717.00,1.38
7716.00,1.38
7715.00,1.38
7714.00,1.38
7713.00,1.38
7712.00,1.38
7711.00,1.38
7710.00,1.38
7709.00,1.38
7708.00,1.38
7707.00,1.38
7706.00,1.38
7705.00,1.38
7704.00,1.38
7703.00,1.38
7702.00,1.38
7701.00,1.38
7700.00,1.38
7699.00,1.38
7698.00,1.38
7697.00,1.38
7696.00,1.38
7695.00,1.38
7694.00,1.38
7693.00,1.38
7692.00,1.38
7691.00,1.38
7690.00,1.38
7689.00,1.38
7688.00,1.38
7687.00,1.38
7686.00,1.38
7685.00,1.38
7684.00,1.38
7683.00,1.38
7682.00,1.38
7681.00,1.38
7680.00,1.38
7679.00,1.38
7678.00,1.38
7677.00,1.38
7676.00,1.38
7675.00,1.38
7674.00,1.38
7673.00,1.38
7672.00,1.38
7671.00,1.38
7670.00,1.38
7669.00,1.38
7668.00,1.38
7667.00,1.38
7666.00,1.38
7665.00,1.37
7664.00,1.37
7663.00,1.37
7662.00,1.37
7661.00,1.37
7660.00,1.37
7659.00,1.37
7658.00,1.37
7657.00,1.37
7656.00,1.37
7655.00,1.37
7654.00,1.37
7653.00,1.37
7652.00,1.37
7651.00,1.37
7650.00,1.37
7649.00,1.37
7648.00,1.37
7647.00,1.37
7646.00,1.37
7645.00,1.37
7644.00,1.37
7643.00,1.37
7642.00,1.37
7641.00,1.37
7640.00,1.37
7639.00,1.37
7638.00,1.37
7637.00,1.37
7636.00,1.37
7635.00,1.37
7634.00,1.37
7633.00,1.37
7632.00,1.37
7631.00,1.37
7630.00,1.37
7629.00,1.37
7628.00,1.37
7627.00,1.37
7626.00,1.37
7625.00,1.37
7624.00,1.37
7623.00,1.38
7622.00,1.38
7621.00,1.38
7620.00,1.38
7619.00,1.38
7618.00,1.38
7617.00,1.38
7616.00,1.38
7615.00,1.38
7614.00,1.38
7613.00,1.38
7612.00,1.38
7611.00,1.38
7610.00,1.38
7609.00,1.38
7608.00,1.38
7607.00,1.38
7606.00,1.38
7605.00,1.38
7604.00,1.38
7603.00,1.38
7602.00,1.38
7601.00,1.38
7600.00,1.38
7599.00,1.38
7598.00,1.37
7597.00,1.37
7596.00,1.37
7595.00,1.37
7594.00,1.37
7593.00,1.37
7592.00,1.37
7591.00,1.37
7590.00,1.37
7589.00,1.37
7588.00,1.37
7587.00,1.37
7586.00,1.37
7585.00,1.37
7584.00,1.37
7583.00,1.38
7582.00,1.38
7581.00,1.38
7580.00,1.38
7579.00,1.38
7578.00,1.38
7577.00,1.38
7576.00,1.38
7575.00,1.38
7574.00,1.38
7573.00,1.38
7572.00,1.37
7571.00,1.37
7570.00,1.37
7569.00,1.37
7568.00,1.37
7567.00,1.37
7566.00,1.37
7565.00,1.37
7564.00,1.37
7563.00,1.37
7562.00,1.36
7561.00,1.36
7560.00,1.36
7559.00,1.36
7558.00,1.36
7557.00,1.36
7556.00,1.36
7555.00,1.36
7554.00,1.36
7553.00,1.36
7552.00,1.36
7551.00,1.36
7550.00,1.36
7549.00,1.36
7548.00,1.36
7547.00,1.36
7546.00,1.36
7545.00,1.36
7544.00,1.36
7543.00,1.36
7542.00,1.36
7541.00,1.36
7540.00,1.36
7539.00,1.36
7538.00,1.36
7537.00,1.36
7536.00,1.36
7535.00,1.36
7534.00,1.36
7533.00,1.36
7532.00,1.36
7531.00,1.36
7530.00,1.36
7529.00,1.36
7528.00,1.36
7527.00,1.36
7526.00,1.36
7525.00,1.36
7524.00,1.36
7523.00,1.36
7522.00,1.36
7521.00,1.36
7520.00,1.36
7519.00,1.36
7518.00,1.36
7517.00,1.36
7516.00,1.36
7515.00,1.36
7514.00,1.36
7513.00,1.36
7512.00,1.36
7511.00,1.36
7510.00,1.36
7509.00,1.36
7508.00,1.36
7507.00,1.36
7506.00,1.36
7505.00,1.36
7504.00,1.36
7503.00,1.36
7502.00,1.36
7501.00,1.36
7500.00,1.36
7499.00,1.36
7498.00,1.36
7497.00,1.36
7496.00,1.35
7495.00,1.35
7494.00,1.35
7493.00,1.35
7492.00,1.35
7491.00,1.35
7490.00,1.35
7489.00,1.35
7488.00,1.35
7487.00,1.35
7486.00,1.35
7485.00,1.35
7484.00,1.35
7483.00,1.35
7482.00,1.35
7481.00,1.35
7480.00,1.35
7479.00,1.35
7478.00,1.35
7477.00,1.35
7476.00,1.35
7475.00,1.35
7474.00,1.35
7473.00,1.35
7472.00,1.35
7471.00,1.35
7470.00,1.34
7469.00,1.34
7468.00,1.34
7467.00,1.34
7466.00,1.34
7465.00,1.34
7464.00,1.34
7463.00,1.34
7462.00,1.34
7461.00,1.34
7460.00,1.34
7459.00,1.34
7458.00,1.34
7457.00,1.34
7456.00,1.34
7455.00,1.33
7454.00,1.33
7453.00,1.33
7452.00,1.33
7451.00,1.33
7450.00,1.33
7449.00,1.33
7448.00,1.33
7447.00,1.33
7446.00,1.33
7445.00,1.33
7444.00,1.33
7443.00,1.32
7442.00,1.32
7441.00,1.32
7440.00,1.32
7439.00,1.32
7438.00,1.32
7437.00,1.32
7436.00,1.32
7435.00,1.32
7434.00,1.32
7433.00,1.31
7432.00,1.31
7431.00,1.31
7430.00,1.31
7429.00,1.31
7428.00,1.31
7427.00,1.31
7426.00,1.31
7425.00,1.31
7424.00,1.31
7423.00,1.31
7422.00,1.31
7421.00,1.31
7420.00,1.31
7419.00,1.31
7418.00,1.30
7417.00,1.30
7416.00,1.30
7415.00,1.30
7414.00,1.30
7413.00,1.30
7412.00,1.30
7411.00,1.29
7410.00,1.29
7409.00,1.29
7408.00,1.29
7407.00,1.29
7406.00,1.29
7405.00,1.29
7404.00,1.29
7403.00,1.29
7402.00,1.29
7401.00,1.29
7400.00,1.29
7399.00,1.29
7398.00,1.29
7397.00,1.28
7396.00,1.28
7395.00,1.28
7394.00,1.28
7393.00,1.28
7392.00,1.28
7391.00,1.28
7390.00,1.28
7389.00,1.28
7388.00,1.27
7387.00,1.27
7386.00,1.27
7385.00,1.27
7384.00,1.27
7383.00,1.27
7382.00,1.26
7381.00,1.26
7380.00,1.26
7379.00,1.26
7378.00,1.26
7377.00,1.26
7376.00,1.26
7375.00,1.26
7374.00,1.27
7373.00,1.27
7372.00,1.27
7371.00,1.27
7370.00,1.27
7369.00,1.27
7368.00,1.27
7367.00,1.27
7366.00,1.28
7365.00,1.28
7364.00,1.28
7363.00,1.28
7362.00,1.28
7361.00,1.28
7360.00,1.28
7359.00,1.28
7358.00,1.27
7357.00,1.27
7356.00,1.27
7355.00,1.27
7354.00,1.27
7353.00,1.27
7352.00,1.27
7351.00,1.27
7350.00,1.26
7349.00,1.26
7348.00,1.26
7347.00,1.26
7346.00,1.26
7345.00,1.26
7344.00,1.26
7343.00,1.26
7342.00,1.26
7341.00,1.26
7340.00,1.26
7339.00,1.26
7338.00,1.26
7337.00,1.26
7336.00,1.26
7335.00,1.26
7334.00,1.26
7333.00,1.26
7332.00,1.26
7331.00,1.26
7330.00,1.26
7329.00,1.26
7328.00,1.26
7327.00,1.26
7326.00,1.26
7325.00,1.26
7324.00,1.26
7323.00,1.26
7322.00,1.26
7321.00,1.26
7320.00,1.26
7319.00,1.25
7318.00,1.25
7317.00,1.25
7316.00,1.25
7315.00,1.25
7314.00,1.25
7313.00,1.25
7312.00,1.25
7311.00,1.25
7310.00,1.25
7309.00,1.24
7308.00,1.24
7307.00,1.24
7306.00,1.24
7305.00,1.24
7304.00,1.24
7303.00,1.24
7302.00,1.23
7301.00,1.23
7300.00,1.23
7299.00,1.23
7298.00,1.23
7297.00,1.23
7296.00,1.23
7295.00,1.22
7294.00,1.22
7293.00,1.22
7292.00,1.22
7291.00,1.22
7290.00,1.22
7289.00,1.22
7288.00,1.22
7287.00,1.22
7286.00,1.22
7285.00,1.22
7284.00,1.22
7283.00,1.22
7282.00,1.22
7281.00,1.22
7280.00,1.22
7279.00,1.22
7278.00,1.22
7277.00,1.21
7276.00,1.21
7275.00,1.21
7274.00,1.21
7273.00,1.21
7272.00,1.21
7271.00,1.21
7270.00,1.21
7269.00,1.20
7268.00,1.20
7267.00,1.20
7266.00,1.20
7265.00,1.19
7264.00,1.19
7263.00,1.19
7262.00,1.19
7261.00,1.19
7260.00,1.18
7259.00,1.18
7258.00,1.18
7257.00,1.18
7256.00,1.18
7255.00,1.17
7254.00,1.17
7253.00,1.17
7252.00,1.17
7251.00,1.17
7250.00,1.16
7249.00,1.16
7248.00,1.16
7247.00,1.16
7246.00,1.16
7245.00,1.15
7244.00,1.15
7243.00,1.15
7242.00,1.15
7241.00,1.15
7240.00,1.14
7239.00,1.14
7238.00,1.14
7237.00,1.14
7236.00,1.13
7235.00,1.13
7234.00,1.13
7233.00,1.12
7232.00,1.12
7231.00,1.12
7230.00,1.11
7229.00,1.11
7228.00,1.11
7227.00,1.10
7226.00,1.10
7225.00,1.10
7224.00,1.09
7223.00,1.09
7222.00,1.09
7221.00,1.08
7220.00,1.08
7219.00,1.08
7218.00,1.07
7217.00,1.07
7216.00,1.07
7215.00,1.06
7214.00,1.06
7213.00,1.06
7212.00,1.05
7211.00,1.05
7210.00,1.05
7209.00,1.04
7208.00,1.04
7207.00,1.04
7206.00,1.03
7205.00,1.03
7204.00,1.03
7203.00,1.02
7202.00,1.02
7201.00,1.02
7200.00,1.01
7199.00,1.01
7198.00,1.01
7197.00,1.00
7196.00,1.00
7195.00,1.00
7194.00,0.99
7193.00,0.99
7192.00,0.99
7191.00,0.98
7190.00,0.98
7189.00,0.98
7188.00,0.97
7187.00,0.97
7186.00,0.97
7185.00,0.96
7184.00,0.96
7183.00,0.96
7182.00,0.95
7181.00,0.95
7180.00,0.95
7179.00,0.95
7178.00,0.95
7177.00,0.94
7176.00,0.94
7175.00,0.94
7174.00,0.94
7173.00,0.94
7172.00,0.94
7171.00,0.93
7170.00,0.93
7169.00,0.93
7168.00,0.93
7167.00,0.93
7166.00,0.92
7165.00,0.92
7164.00,0.92
7163.00,0.92
7162.00,0.92
7161.00,0.91
7160.00,0.91
7159.00,0.91
7158.00,0.90
7157.00,0.90
7156.00,0.90
7155.00,0.89
7154.00,0.89
7153.00,0.89
7152.00,0.88
7151.00,0.88
7150.00,0.88
7149.00,0.87
7148.00,0.87
7147.00,0.87
7146.00,0.87
7145.00,0.86
7144.00,0.86
7143.00,0.86
7142.00,0.85
7141.00,0.85
7140.00,0.85
7139.00,0.85
7138.00,0.84
7137.00,0.84
7136.00,0.84
7135.00,0.84
7134.00,0.83
7133.00,0.83
7132.00,0.83
7131.00,0.83
7130.00,0.83
7129.00,0.82
7128.00,0.82
7127.00,0.82
7126.00,0.82
7125.00,0.82
7124.00,0.81
7123.00,0.81
7122.00,0.81
7121.00,0.81
7120.00,0.80
7119.00,0.80
7118.00,0.80
7117.00,0.80
7116.00,0.79
7115.00,0.79
7114.00,0.79
7113.00,0.79
7112.00,0.78
7111.00,0.78
7110.00,0.78
7109.00,0.77
7108.00,0.77
7107.00,0.77
7106.00,0.77
7105.00,0.76
7104.00,0.76
7103.00,0.76
7102.00,0.75
7101.00,0.75
7100.00,0.75
7099.00,0.75
7098.00,0.74
7097.00,0.74
7096.00,0.74
7095.00,0.74
7094.00,0.74
7093.00,0.74
7092.00,0.73
7091.00,0.73
7090.00,0.73
7089.00,0.73
7088.00,0.73
7087.00,0.73
7086.00,0.73
7085.00,0.73
7084.00,0.73
7083.00,0.73
7082.00,0.72
7081.00,0.72
7080.00,0.72
7079.00,0.72
7078.00,0.72
7077.00,0.72
7076.00,0.72
7075.00,0.71
7074.00,0.71
7073.00,0.71
7072.00,0.71
7071.00,0.71
7070.00,0.70
7069.00,0.70
7068.00,0.70
7067.00,0.70
7066.00,0.70
7065.00,0.70
7064.00,0.70
7063.00,0.70
7062.00,0.69
7061.00,0.69
7060.00,0.69
7059.00,0.69
7058.00,0.69
7057.00,0.69
7056.00,0.69
7055.00,0.69
7054.00,0.69
7053.00,0.69
7052.00,0.69
7051.00,0.69
7050.00,0.69
7049.00,0.68
7048.00,0.68
7047.00,0.68
7046.00,0.68
7045.00,0.68
7044.00,0.68
7043.00,0.68
7042.00,0.68
7041.00,0.68
7040.00,0.68
7039.00,0.68
7038.00,0.68
7037.00,0.68
7036.00,0.67
7035.00,0.67
7034.00,0.67
7033.00,0.67
7032.00,0.67
7031.00,0.67
7030.00,0.67
7029.00,0.67
7028.00,0.67
7027.00,0.67
7026.00,0.67
7025.00,0.67
7024.00,0.67
7023.00,0.66
7022.00,0.66
7021.00,0.66
7020.00,0.66
7019.00,0.66
7018.00,0.66
7017.00,0.66
7016.00,0.66
7015.00,0.66
7014.00,0.66
7013.00,0.66
7012.00,0.66
7011.00,0.66
7010.00,0.66
7009.00,0.66
7008.00,0.66
7007.00,0.66
7006.00,0.66
7005.00,0.66
7004.00,0.65
7003.00,0.65
7002.00,0.65
7001.00,0.65
7000.00,0.65
6999.00,0.65
6998.00,0.65
6997.00,0.65
6996.00,0.65
6995.00,0.64
6994.00,0.64
6993.00,0.64
6992.00,0.64
6991.00,0.64
6990.00,0.64
6989.00,0.64
6988.00,0.64
6987.00,0.64
6986.00,0.64
6985.00,0.63
6984.00,0.63
6983.00,0.63
6982.00,0.63
6981.00,0.63
6980.00,0.63
6979.00,0.63
6978.00,0.63
6977.00,0.63
6976.00,0.63
6975.00,0.62
6974.00,0.62
6973.00,0.62
6972.00,0.62
6971.00,0.62
6970.00,0.62
6969.00,0.62
6968.00,0.62
6967.00,0.62
6966.00,0.62
6965.00,0.62
6964.00,0.62
6963.00,0.62
6962.00,0.63
6961.00,0.63
6960.00,0.63
6959.00,0.63
6958.00,0.63
6957.00,0.63
6956.00,0.63
6955.00,0.63
6954.00,0.63
6953.00,0.63
6952.00,0.63
6951.00,0.63
6950.00,0.63
6949.00,0.62
6948.00,0.62
6947.00,0.62
6946.00,0.62
6945.00,0.62
6944.00,0.62
6943.00,0.62
6942.00,0.62
6941.00,0.62
6940.00,0.62
6939.00,0.62
6938.00,0.62
6937.00,0.62
6936.00,0.62
6935.00,0.62
6934.00,0.62
6933.00,0.62
6932.00,0.62
6931.00,0.62
6930.00,0.62
6929.00,0.62
6928.00,0.62
6927.00,0.62
6926.00,0.62
6925.00,0.62
6924.00,0.62
6923.00,0.62
6922.00,0.62
6921.00,0.62
6920.00,0.62
6919.00,0.62
6918.00,0.62
6917.00,0.62
6916.00,0.61
6915.00,0.61
6914.00,0.61
6913.00,0.61
6912.00,0.61
6911.00,0.61
6910.00,0.61
6909.00,0.61
6908.00,0.61
6907.00,0.61
6906.00,0.61
6905.00,0.61
6904.00,0.61
6903.00,0.61
6902.00,0.61
6901.00,0.61
6900.00,0.61
6899.00,0.61
6898.00,0.61
6897.00,0.61
6896.00,0.61
6895.00,0.61
6894.00,0.61
6893.00,0.61
6892.00,0.61
6891.00,0.61
6890.00,0.61
6889.00,0.61
6888.00,0.61
6887.00,0.61
6886.00,0.61
6885.00,0.62
6884.00,0.62
6883.00,0.62
6882.00,0.62
6881.00,0.62
6880.00,0.62
6879.00,0.62
6878.00,0.61
6877.00,0.61
6876.00,0.61
6875.00,0.61
6874.00,0.61
6873.00,0.61
6872.00,0.61
6871.00,0.61
6870.00,0.61
6869.00,0.61
6868.00,0.61
6867.00,0.61
6866.00,0.61
6865.00,0.61
6864.00,0.61
6863.00,0.61
6862.00,0.61
6861.00,0.61
6860.00,0.61
6859.00,0.61
6858.00,0.61
6857.00,0.61
6856.00,0.61
6855.00,0.61
6854.00,0.62
6853.00,0.62
6852.00,0.62
6851.00,0.62
6850.00,0.62
6849.00,0.62
6848.00,0.62
6847.00,0.62
6846.00,0.62
6845.00,0.62
6844.00,0.62
6843.00,0.62
6842.00,0.62
6841.00,0.62
6840.00,0.62
6839.00,0.62
6838.00,0.62
6837.00,0.62
6836.00,0.62
6835.00,0.62
6834.00,0.62
6833.00,0.62
6832.00,0.62
6831.00,0.62
6830.00,0.62
6829.00,0.62
6828.00,0.62
6827.00,0.62
6826.00,0.62
6825.00,0.62
6824.00,0.62
6823.00,0.62
6822.00,0.62
6821.00,0.62
6820.00,0.62
6819.00,0.62
6818.00,0.62
6817.00,0.62
6816.00,0.62
6815.00,0.62
6814.00,0.62
6813.00,0.62
6812.00,0.62
6811.00,0.62
6810.00,0.62
6809.00,0.62
6808.00,0.62
6807.00,0.62
6806.00,0.62
6805.00,0.62
6804.00,0.62
6803.00,0.62
6802.00,0.62
6801.00,0.62
6800.00,0.63
6799.00,0.63
6798.00,0.63
6797.00,0.63
6796.00,0.63
6795.00,0.63
6794.00,0.63
6793.00,0.63
6792.00,0.63
6791.00,0.63
6790.00,0.63
6789.00,0.63
6788.00,0.63
6787.00,0.63
6786.00,0.63
6785.00,0.63
6784.00,0.64
6783.00,0.64
6782.00,0.64
6781.00,0.64
6780.00,0.64
6779.00,0.64
6778.00,0.64
6777.00,0.64
6776.00,0.64
6775.00,0.64
6774.00,0.64
6773.00,0.64
6772.00,0.64
6771.00,0.64
6770.00,0.64
6769.00,0.64
6768.00,0.64
6767.00,0.64
6766.00,0.64
6765.00,0.64
6764.00,0.64
6763.00,0.64
6762.00,0.64
6761.00,0.64
6760.00,0.64
6759.00,0.64
6758.00,0.64
6757.00,0.64
6756.00,0.64
6755.00,0.65
6754.00,0.65
6753.00,0.65
6752.00,0.65
6751.00,0.65
6750.00,0.65
6749.00,0.65
6748.00,0.65
6747.00,0.65
6746.00,0.65
6745.00,0.65
6744.00,0.65
6743.00,0.65
6742.00,0.65
6741.00,0.65
6740.00,0.66
6739.00,0.66
6738.00,0.66
6737.00,0.66
6736.00,0.66
6735.00,0.66
6734.00,0.66
6733.00,0.66
6732.00,0.66
6731.00,0.66
6730.00,0.66
6729.00,0.66
6728.00,0.66
6727.00,0.66
6726.00,0.66
6725.00,0.66
6724.00,0.66
6723.00,0.66
6722.00,0.67
6721.00,0.67
6720.00,0.67
6719.00,0.67
6718.00,0.67
6717.00,0.67
6716.00,0.67
6715.00,0.67
6714.00,0.68
6713.00,0.68
6712.00,0.68
6711.00,0.68
6710.00,0.68
6709.00,0.68
6708.00,0.68
6707.00,0.69
6706.00,0.69
6705.00,0.69
6704.00,0.69
6703.00,0.69
6702.00,0.69
6701.00,0.69
6700.00,0.69
6699.00,0.69
6698.00,0.70
6697.00,0.70
6696.00,0.70
6695.00,0.70
6694.00,0.70
6693.00,0.70
6692.00,0.70
6691.00,0.70
6690.00,0.70
6689.00,0.70
6688.00,0.71
6687.00,0.71
6686.00,0.71
6685.00,0.71
6684.00,0.71
6683.00,0.71
6682.00,0.71
6681.00,0.71
6680.00,0.71
6679.00,0.71
6678.00,0.71
6677.00,0.71
6676.00,0.71
6675.00,0.72
6674.00,0.72
6673.00,0.72
6672.00,0.72
6671.00,0.72
6670.00,0.72
6669.00,0.72
6668.00,0.72
6667.00,0.72
6666.00,0.72
6665.00,0.72
6664.00,0.73
6663.00,0.73
6662.00,0.73
6661.00,0.73
6660.00,0.73
6659.00,0.73
6658.00,0.73
6657.00,0.73
6656.00,0.73
6655.00,0.73
6654.00,0.73
6653.00,0.73
6652.00,0.73
6651.00,0.73
6650.00,0.73
6649.00,0.74
6648.00,0.74
6647.00,0.74
6646.00,0.74
6645.00,0.74
6644.00,0.74
6643.00,0.74
6642.00,0.74
6641.00,0.74
6640.00,0.75
6639.00,0.75
6638.00,0.75
6637.00,0.75
6636.00,0.75
6635.00,0.75
6634.00,0.75
6633.00,0.75
6632.00,0.75
6631.00,0.75
6630.00,0.75
6629.00,0.76
6628.00,0.76
6627.00,0.76
6626.00,0.76
6625.00,0.76
6624.00,0.76
6623.00,0.76
6622.00,0.76
6621.00,0.76
6620.00,0.76
6619.00,0.76
6618.00,0.76
6617.00,0.76
6616.00,0.76
6615.00,0.76
6614.00,0.77
6613.00,0.77
6612.00,0.77
6611.00,0.77
6610.00,0.77
6609.00,0.77
6608.00,0.77
6607.00,0.77
6606.00,0.77
6605.00,0.77
6604.00,0.77
6603.00,0.78
6602.00,0.78
6601.00,0.78
6600.00,0.78
6599.00,0.78
6598.00,0.78
6597.00,0.78
6596.00,0.78
6595.00,0.78
6594.00,0.78
6593.00,0.78
6592.00,0.78
6591.00,0.78
6590.00,0.78
6589.00,0.79
6588.00,0.79
6587.00,0.79
6586.00,0.79
6585.00,0.79
6584.00,0.79
6583.00,0.79
6582.00,0.79
6581.00,0.79
6580.00,0.79
6579.00,0.79
6578.00,0.79
6577.00,0.79
6576.00,0.79
6575.00,0.79
6574.00,0.79
6573.00,0.79
6572.00,0.79
6571.00,0.80
6570.00,0.80
6569.00,0.80
6568.00,0.80
6567.00,0.80
6566.00,0.80
6565.00,0.80
6564.00,0.80
6563.00,0.81
6562.00,0.81
6561.00,0.81
6560.00,0.81
6559.00,0.81
6558.00,0.81
6557.00,0.81
6556.00,0.81
6555.00,0.82
6554.00,0.82
6553.00,0.82
6552.00,0.82
6551.00,0.82
6550.00,0.82
6549.00,0.82
6548.00,0.82
6547.00,0.82
6546.00,0.82
6545.00,0.82
6544.00,0.82
6543.00,0.83
6542.00,0.83
6541.00,0.83
6540.00,0.83
6539.00,0.83
6538.00,0.83
6537.00,0.83
6536.00,0.83
6535.00,0.83
6534.00,0.84
6533.00,0.84
6532.00,0.84
6531.00,0.84
6530.00,0.84
6529.00,0.84
6528.00,0.84
6527.00,0.84
6526.00,0.84
6525.00,0.85
6524.00,0.85
6523.00,0.85
6522.00,0.85
6521.00,0.85
6520.00,0.85
6519.00,0.85
6518.00,0.85
6517.00,0.85
6516.00,0.85
6515.00,0.85
6514.00,0.85
6513.00,0.85
6512.00,0.85
6511.00,0.85
6510.00,0.85
6509.00,0.86
6508.00,0.86
6507.00,0.86
6506.00,0.86
6505.00,0.86
6504.00,0.86
6503.00,0.86
6502.00,0.86
6501.00,0.86
6500.00,0.86
6499.00,0.86
6498.00,0.86
6497.00,0.86
6496.00,0.86
6495.00,0.86
6494.00,0.86
6493.00,0.86
6492.00,0.86
6491.00,0.87
6490.00,0.87
6489.00,0.87
6488.00,0.87
6487.00,0.87
6486.00,0.87
6485.00,0.87
6484.00,0.87
6483.00,0.87
6482.00,0.87
6481.00,0.87
6480.00,0.87
6479.00,0.88
6478.00,0.88
6477.00,0.88
6476.00,0.88
6475.00,0.88
6474.00,0.88
6473.00,0.88
6472.00,0.88
6471.00,0.88
6470.00,0.88
6469.00,0.88
6468.00,0.88
6467.00,0.88
6466.00,0.88
6465.00,0.88
6464.00,0.88
6463.00,0.88
6462.00,0.88
6461.00,0.88
6460.00,0.88
6459.00,0.88
6458.00,0.89
6457.00,0.89
6456.00,0.89
6455.00,0.89
6454.00,0.89
6453.00,0.89
6452.00,0.89
6451.00,0.89
6450.00,0.89
6449.00,0.89
6448.00,0.89
6447.00,0.89
6446.00,0.89
6445.00,0.89
6444.00,0.89
6443.00,0.89
6442.00,0.89
6441.00,0.89
6440.00,0.90
6439.00,0.90
6438.00,0.90
6437.00,0.90
6436.00,0.90
6435.00,0.90
6434.00,0.90
6433.00,0.90
6432.00,0.90
6431.00,0.90
6430.00,0.90
6429.00,0.90
6428.00,0.90
6427.00,0.90
6426.00,0.90
6425.00,0.90
6424.00,0.90
6423.00,0.90
6422.00,0.90
6421.00,0.90
6420.00,0.90
6419.00,0.90
6418.00,0.90
6417.00,0.90
6416.00,0.90
6415.00,0.90
6414.00,0.90
6413.00,0.90
6412.00,0.91
6411.00,0.91
6410.00,0.91
6409.00,0.91
6408.00,0.91
6407.00,0.91
6406.00,0.91
6405.00,0.91
6404.00,0.91
6403.00,0.91
6402.00,0.91
6401.00,0.91
6400.00,0.91
6399.00,0.91
6398.00,0.91
6397.00,0.91
6396.00,0.91
6395.00,0.91
6394.00,0.91
6393.00,0.91
6392.00,0.92
6391.00,0.92
6390.00,0.92
6389.00,0.92
6388.00,0.92
6387.00,0.92
6386.00,0.92
6385.00,0.92
6384.00,0.92
6383.00,0.92
6382.00,0.92
6381.00,0.92
6380.00,0.92
6379.00,0.93
6378.00,0.93
6377.00,0.93
6376.00,0.93
6375.00,0.93
6374.00,0.93
6373.00,0.93
6372.00,0.93
6371.00,0.93
6370.00,0.93
6369.00,0.93
6368.00,0.93
6367.00,0.93
6366.00,0.94
6365.00,0.94
6364.00,0.94
6363.00,0.94
6362.00,0.94
6361.00,0.94
6360.00,0.94
6359.00,0.94
6358.00,0.94
6357.00,0.94
6356.00,0.94
6355.00,0.94
6354.00,0.94
6353.00,0.95
6352.00,0.95
6351.00,0.95
6350.00,0.95
6349.00,0.95
6348.00,0.95
6347.00,0.95
6346.00,0.95
6345.00,0.95
6344.00,0.95
6343.00,0.95
6342.00,0.95
6341.00,0.95
6340.00,0.95
6339.00,0.95
6338.00,0.95
6337.00,0.96
6336.00,0.96
6335.00,0.96
6334.00,0.96
6333.00,0.96
6332.00,0.96
6331.00,0.96
6330.00,0.96
6329.00,0.96
6328.00,0.96
6327.00,0.97
6326.00,0.97
6325.00,0.97
6324.00,0.97
6323.00,0.97
6322.00,0.97
6321.00,0.97
6320.00,0.98
6319.00,0.98
6318.00,0.98
6317.00,0.98
6316.00,0.98
6315.00,0.98
6314.00,0.98
6313.00,0.99
6312.00,0.99
6311.00,0.99
6310.00,0.99
6309.00,0.99
6308.00,0.99
6307.00,0.99
6306.00,0.99
6305.00,0.99
6304.00,0.99
6303.00,0.99
6302.00,0.99
6301.00,0.99
6300.00,0.99
6299.00,0.99
6298.00,0.99
6297.00,0.99
6296.00,0.99
6295.00,0.99
6294.00,0.99
6293.00,1.00
6292.00,1.00
6291.00,1.00
6290.00,1.00
6289.00,1.00
6288.00,1.00
6287.00,1.00
6286.00,1.00
6285.00,1.00
6284.00,1.00
6283.00,1.01
6282.00,1.01
6281.00,1.01
6280.00,1.01
6279.00,1.01
6278.00,1.01
6277.00,1.01
6276.00,1.01
6275.00,1.01
6274.00,1.02
6273.00,1.02
6272.00,1.02
6271.00,1.02
6270.00,1.02
6269.00,1.02
6268.00,1.02
6267.00,1.02
6266.00,1.02
6265.00,1.03
6264.00,1.03
6263.00,1.03
6262.00,1.03
6261.00,1.03
6260.00,1.03
6259.00,1.03
6258.00,1.04
6257.00,1.04
6256.00,1.04
6255.00,1.04
6254.00,1.04
6253.00,1.04
6252.00,1.04
6251.00,1.05
6250.00,1.05
6249.00,1.05
6248.00,1.05
6247.00,1.05
6246.00,1.05
6245.00,1.05
6244.00,1.05
6243.00,1.05
6242.00,1.05
6241.00,1.05
6240.00,1.05
6239.00,1.05
6238.00,1.05
6237.00,1.06
6236.00,1.06
6235.00,1.06
6234.00,1.06
6233.00,1.06
6232.00,1.06
6231.00,1.06
6230.00,1.06
6229.00,1.07
6228.00,1.07
6227.00,1.07
6226.00,1.07
6225.00,1.07
6224.00,1.07
6223.00,1.07
6222.00,1.08
6221.00,1.08
6220.00,1.08
6219.00,1.08
6218.00,1.08
6217.00,1.08
6216.00,1.08
6215.00,1.08
6214.00,1.08
6213.00,1.09
6212.00,1.09
6211.00,1.09
6210.00,1.09
6209.00,1.09
6208.00,1.09
6207.00,1.09
6206.00,1.10
6205.00,1.10
6204.00,1.10
6203.00,1.10
6202.00,1.10
6201.00,1.10
6200.00,1.10
6199.00,1.11
6198.00,1.11
6197.00,1.11
6196.00,1.11
6195.00,1.11
6194.00,1.11
6193.00,1.11
6192.00,1.11
6191.00,1.11
6190.00,1.11
6189.00,1.12
6188.00,1.12
6187.00,1.12
6186.00,1.12
6185.00,1.12
6184.00,1.12
6183.00,1.12
6182.00,1.12
6181.00,1.12
6180.00,1.13
6179.00,1.13
6178.00,1.13
6177.00,1.13
6176.00,1.13
6175.00,1.13
6174.00,1.14
6173.00,1.14
6172.00,1.14
6171.00,1.14
6170.00,1.14
6169.00,1.14
6168.00,1.14
6167.00,1.15
6166.00,1.15
6165.00,1.15
6164.00,1.15
6163.00,1.15
6162.00,1.15
6161.00,1.15
6160.00,1.15
6159.00,1.15
6158.00,1.16
6157.00,1.16
6156.00,1.16
6155.00,1.16
6154.00,1.16
6153.00,1.16
6152.00,1.16
6151.00,1.16
6150.00,1.17
6149.00,1.17
6148.00,1.17
6147.00,1.17
6146.00,1.17
6145.00,1.17
6144.00,1.18
6143.00,1.18
6142.00,1.18
6141.00,1.18
6140.00,1.18
6139.00,1.19
6138.00,1.19
6137.00,1.19
6136.00,1.19
6135.00,1.19
6134.00,1.19
6133.00,1.19
6132.00,1.19
6131.00,1.19
6130.00,1.20
6129.00,1.20
6128.00,1.20
6127.00,1.20
6126.00,1.20
6125.00,1.20
6124.00,1.20
6123.00,1.21
6122.00,1.21
6121.00,1.21
6120.00,1.21
6119.00,1.21
6118.00,1.21
6117.00,1.21
6116.00,1.21
6115.00,1.22
6114.00,1.22
6113.00,1.22
6112.00,1.22
6111.00,1.22
6110.00,1.22
6109.00,1.22
6108.00,1.22
6107.00,1.22
6106.00,1.22
6105.00,1.22
6104.00,1.22
6103.00,1.23
6102.00,1.23
6101.00,1.23
6100.00,1.23
6099.00,1.23
6098.00,1.23
6097.00,1.23
6096.00,1.24
6095.00,1.24
6094.00,1.24
6093.00,1.24
6092.00,1.24
6091.00,1.24
6090.00,1.25
6089.00,1.25
6088.00,1.25
6087.00,1.25
6086.00,1.25
6085.00,1.25
6084.00,1.25
6083.00,1.25
6082.00,1.25
6081.00,1.26
6080.00,1.26
6079.00,1.26
6078.00,1.26
6077.00,1.26
6076.00,1.26
6075.00,1.26
6074.00,1.26
6073.00,1.26
6072.00,1.26
6071.00,1.26
6070.00,1.27
6069.00,1.27
6068.00,1.27
6067.00,1.27
6066.00,1.27
6065.00,1.27
6064.00,1.27
6063.00,1.27
6062.00,1.27
6061.00,1.27
6060.00,1.27
6059.00,1.28
6058.00,1.28
6057.00,1.28
6056.00,1.28
6055.00,1.28
6054.00,1.28
6053.00,1.28
6052.00,1.28
6051.00,1.28
6050.00,1.28
6049.00,1.28
6048.00,1.29
6047.00,1.29
6046.00,1.29
6045.00,1.29
6044.00,1.29
6043.00,1.29
6042.00,1.29
6041.00,1.29
6040.00,1.29
6039.00,1.29
6038.00,1.30
6037.00,1.30
6036.00,1.30
6035.00,1.30
6034.00,1.30
6033.00,1.30
6032.00,1.30
6031.00,1.30
6030.00,1.30
6029.00,1.30
6028.00,1.30
6027.00,1.30
6026.00,1.30
6025.00,1.30
6024.00,1.30
6023.00,1.30
6022.00,1.30
6021.00,1.30
6020.00,1.30
6019.00,1.30
6018.00,1.30
6017.00,1.30
6016.00,1.30
6015.00,1.30
6014.00,1.30
6013.00,1.30
6012.00,1.30
6011.00,1.30
6010.00,1.30
6009.00,1.30
6008.00,1.30
6007.00,1.30
6006.00,1.30
6005.00,1.30
6004.00,1.30
6003.00,1.30
6002.00,1.30
6001.00,1.30
6000.00,1.30
5999.00,1.30
5998.00,1.30
5997.00,1.30
5996.00,1.30
5995.00,1.29
5994.00,1.29
5993.00,1.29
5992.00,1.29
5991.00,1.29
5990.00,1.29
5989.00,1.28
5988.00,1.28
5987.00,1.28
5986.00,1.28
5985.00,1.28
5984.00,1.27
5983.00,1.27
5982.00,1.27
5981.00,1.27
5980.00,1.26
5979.00,1.26
5978.00,1.26
5977.00,1.25
5976.00,1.25
5975.00,1.25
5974.00,1.24
5973.00,1.24
5972.00,1.23
5971.00,1.23
5970.00,1.22
5969.00,1.22
5968.00,1.21
5967.00,1.20
5966.00,1.20
5965.00,1.19
5964.00,1.18
5963.00,1.17
5962.00,1.17
5961.00,1.16
5960.00,1.15
5959.00,1.15
5958.00,1.14
5957.00,1.13
5956.00,1.12
5955.00,1.12
5954.00,1.11
5953.00,1.10
5952.00,1.10
5951.00,1.09
5950.00,1.09
5949.00,1.08
5948.00,1.08
5947.00,1.08
5946.00,1.07
5945.00,1.07
5944.00,1.07
5943.00,1.06
5942.00,1.06
5941.00,1.06
5940.00,1.06
5939.00,1.06
5938.00,1.06
5937.00,1.06
5936.00,1.05
5935.00,1.05
5934.00,1.05
5933.00,1.05
5932.00,1.05
5931.00,1.05
5930.00,1.05
5929.00,1.05
5928.00,1.05
5927.00,1.04
5926.00,1.04
5925.00,1.04
5924.00,1.04
5923.00,1.04
5922.00,1.04
5921.00,1.03
5920.00,1.03
5919.00,1.03
5918.00,1.03
5917.00,1.02
5916.00,1.02
5915.00,1.02
5914.00,1.02
5913.00,1.01
5912.00,1.01
5911.00,1.01
5910.00,1.01
5909.00,1.01
5908.00,1.00
5907.00,1.00
5906.00,1.00
5905.00,1.00
5904.00,1.00
5903.00,1.00
5902.00,1.00
5901.00,1.00
5900.00,1.00
5899.00,1.00
5898.00,1.00
5897.00,1.00
5896.00,1.00
5895.00,1.00
5894.00,1.00
5893.00,1.01
5892.00,1.01
5891.00,1.01
5890.00,1.01
5889.00,1.02
5888.00,1.02
5887.00,1.02
5886.00,1.02
5885.00,1.03
5884.00,1.03
5883.00,1.03
5882.00,1.04
5881.00,1.04
5880.00,1.04
5879.00,1.04
5878.00,1.05
5877.00,1.05
5876.00,1.05
5875.00,1.06
5874.00,1.06
5873.00,1.06
5872.00,1.06
5871.00,1.06
5870.00,1.06
5869.00,1.07
5868.00,1.07
5867.00,1.07
5866.00,1.07
5865.00,1.07
5864.00,1.07
5863.00,1.07
5862.00,1.08
5861.00,1.08
5860.00,1.08
5859.00,1.08
5858.00,1.08
5857.00,1.08
5856.00,1.08
5855.00,1.08
5854.00,1.09
5853.00,1.09
5852.00,1.09
5851.00,1.09
5850.00,1.09
5849.00,1.09
5848.00,1.09
5847.00,1.09
5846.00,1.09
5845.00,1.09
5844.00,1.09
5843.00,1.09
5842.00,1.09
5841.00,1.09
5840.00,1.09
5839.00,1.09
5838.00,1.09
5837.00,1.09
5836.00,1.09
5835.00,1.09
5834.00,1.09
5833.00,1.09
5832.00,1.09
5831.00,1.09
5830.00,1.09
5829.00,1.09
5828.00,1.09
5827.00,1.09
5826.00,1.09
5825.00,1.09
5824.00,1.09
5823.00,1.09
5822.00,1.09
5821.00,1.09
5820.00,1.09
5819.00,1.09
5818.00,1.09
5817.00,1.09
5816.00,1.10
5815.00,1.10
5814.00,1.10
5813.00,1.10
5812.00,1.10
5811.00,1.10
5810.00,1.10
5809.00,1.10
5808.00,1.10
5807.00,1.10
5806.00,1.10
5805.00,1.10
5804.00,1.10
5803.00,1.10
5802.00,1.10
5801.00,1.09
5800.00,1.09
5799.00,1.09
5798.00,1.09
5797.00,1.09
5796.00,1.09
5795.00,1.08
5794.00,1.08
5793.00,1.08
5792.00,1.08
5791.00,1.07
5790.00,1.07
5789.00,1.07
5788.00,1.07
5787.00,1.06
5786.00,1.06
5785.00,1.06
5784.00,1.06
5783.00,1.05
5782.00,1.05
5781.00,1.05
5780.00,1.05
5779.00,1.05
5778.00,1.05
5777.00,1.04
5776.00,1.04
5775.00,1.04
5774.00,1.04
5773.00,1.04
5772.00,1.04
5771.00,1.04
5770.00,1.04
5769.00,1.05
5768.00,1.05
5767.00,1.05
5766.00,1.05
5765.00,1.05
5764.00,1.05
5763.00,1.05
5762.00,1.06
5761.00,1.06
5760.00,1.06
5759.00,1.06
5758.00,1.07
5757.00,1.07
5756.00,1.07
5755.00,1.08
5754.00,1.08
5753.00,1.08
5752.00,1.09
5751.00,1.09
5750.00,1.09
5749.00,1.10
5748.00,1.10
5747.00,1.11
5746.00,1.11
5745.00,1.11
5744.00,1.12
5743.00,1.12
5742.00,1.12
5741.00,1.12
5740.00,1.13
5739.00,1.13
5738.00,1.13
5737.00,1.13
5736.00,1.14
5735.00,1.14
5734.00,1.14
5733.00,1.14
5732.00,1.14
5731.00,1.14
5730.00,1.14
5729.00,1.14
5728.00,1.14
5727.00,1.14
5726.00,1.14
5725.00,1.14
5724.00,1.14
5723.00,1.14
5722.00,1.14
5721.00,1.14
5720.00,1.14
5719.00,1.14
5718.00,1.14
5717.00,1.14
5716.00,1.14
5715.00,1.14
5714.00,1.14
5713.00,1.14
5712.00,1.14
5711.00,1.14
5710.00,1.14
5709.00,1.14
5708.00,1.14
5707.00,1.14
5706.00,1.14
5705.00,1.14
5704.00,1.14
5703.00,1.14
5702.00,1.14
5701.00,1.14
5700.00,1.14
5699.00,1.14
5698.00,1.14
5697.00,1.14
5696.00,1.13
5695.00,1.13
5694.00,1.13
5693.00,1.13
5692.00,1.13
5691.00,1.13
5690.00,1.13
5689.00,1.12
5688.00,1.12
5687.00,1.12
5686.00,1.12
5685.00,1.12
5684.00,1.12
5683.00,1.12
5682.00,1.12
5681.00,1.12
5680.00,1.12
5679.00,1.12
5678.00,1.11
5677.00,1.11
5676.00,1.11
5675.00,1.11
5674.00,1.11
5673.00,1.11
5672.00,1.11
5671.00,1.11
5670.00,1.11
5669.00,1.11
5668.00,1.11
5667.00,1.12
5666.00,1.12
5665.00,1.12
5664.00,1.12
5663.00,1.12
5662.00,1.12
5661.00,1.12
5660.00,1.12
5659.00,1.12
5658.00,1.12
5657.00,1.13
5656.00,1.13
5655.00,1.13
5654.00,1.13
5653.00,1.13
5652.00,1.13
5651.00,1.14
5650.00,1.14
5649.00,1.14
5648.00,1.14
5647.00,1.14
5646.00,1.15
5645.00,1.15
5644.00,1.15
5643.00,1.15
5642.00,1.15
5641.00,1.15
5640.00,1.16
5639.00,1.16
5638.00,1.16
5637.00,1.16
5636.00,1.16
5635.00,1.16
5634.00,1.17
5633.00,1.17
5632.00,1.17
5631.00,1.17
5630.00,1.17
5629.00,1.17
5628.00,1.18
5627.00,1.18
5626.00,1.18
5625.00,1.18
5624.00,1.18
5623.00,1.19
5622.00,1.19
5621.00,1.19
5620.00,1.19
5619.00,1.19
5618.00,1.19
5617.00,1.20
5616.00,1.20
5615.00,1.20
5614.00,1.20
5613.00,1.20
5612.00,1.20
5611.00,1.21
5610.00,1.21
5609.00,1.21
5608.00,1.21
5607.00,1.21
5606.00,1.21
5605.00,1.21
5604.00,1.21
5603.00,1.21
5602.00,1.22
5601.00,1.22
5600.00,1.22
5599.00,1.22
5598.00,1.22
5597.00,1.22
5596.00,1.22
5595.00,1.22
5594.00,1.23
5593.00,1.23
5592.00,1.23
5591.00,1.23
5590.00,1.23
5589.00,1.23
5588.00,1.23
5587.00,1.24
5586.00,1.24
5585.00,1.24
5584.00,1.24
5583.00,1.24
5582.00,1.24
5581.00,1.24
5580.00,1.25
5579.00,1.25
5578.00,1.25
5577.00,1.25
5576.00,1.25
5575.00,1.25
5574.00,1.25
5573.00,1.26
5572.00,1.26
5571.00,1.26
5570.00,1.26
5569.00,1.26
5568.00,1.26
5567.00,1.26
5566.00,1.26
5565.00,1.27
5564.00,1.27
5563.00,1.27
5562.00,1.27
5561.00,1.27
5560.00,1.27
5559.00,1.27
5558.00,1.27
5557.00,1.27
5556.00,1.28
5555.00,1.28
5554.00,1.28
5553.00,1.28
5552.00,1.28
5551.00,1.28
5550.00,1.28
5549.00,1.29
5548.00,1.29
5547.00,1.29
5546.00,1.29
5545.00,1.29
5544.00,1.29
5543.00,1.29
5542.00,1.30
5541.00,1.30
5540.00,1.30
5539.00,1.30
5538.00,1.30
5537.00,1.30
5536.00,1.30
5535.00,1.30
5534.00,1.30
5533.00,1.30
5532.00,1.30
5531.00,1.31
5530.00,1.31
5529.00,1.31
5528.00,1.31
5527.00,1.31
5526.00,1.31
5525.00,1.31
5524.00,1.31
5523.00,1.31
5522.00,1.31
5521.00,1.31
5520.00,1.31
5519.00,1.31
5518.00,1.31
5517.00,1.32
5516.00,1.32
5515.00,1.32
5514.00,1.32
5513.00,1.32
5512.00,1.32
5511.00,1.32
5510.00,1.32
5509.00,1.32
5508.00,1.32
5507.00,1.32
5506.00,1.32
5505.00,1.32
5504.00,1.32
5503.00,1.32
5502.00,1.32
5501.00,1.32
5500.00,1.33
5499.00,1.33
5498.00,1.33
5497.00,1.33
5496.00,1.33
5495.00,1.33
5494.00,1.33
5493.00,1.33
5492.00,1.33
5491.00,1.33
5490.00,1.33
5489.00,1.33
5488.00,1.33
5487.00,1.34
5486.00,1.34
5485.00,1.34
5484.00,1.34
5483.00,1.34
5482.00,1.34
5481.00,1.34
5480.00,1.34
5479.00,1.34
5478.00,1.34
5477.00,1.35
5476.00,1.35
5475.00,1.35
5474.00,1.35
5473.00,1.35
5472.00,1.35
5471.00,1.35
5470.00,1.35
5469.00,1.35
5468.00,1.35
5467.00,1.35
5466.00,1.36
5465.00,1.36
5464.00,1.36
5463.00,1.36
5462.00,1.36
5461.00,1.36
5460.00,1.36
5459.00,1.36
5458.00,1.36
5457.00,1.36
5456.00,1.37
5455.00,1.37
5454.00,1.37
5453.00,1.37
5452.00,1.37
5451.00,1.37
5450.00,1.37
5449.00,1.37
5448.00,1.37
5447.00,1.37
5446.00,1.37
5445.00,1.37
5444.00,1.37
5443.00,1.38
5442.00,1.38
5441.00,1.38
5440.00,1.38
5439.00,1.38
5438.00,1.38
5437.00,1.38
5436.00,1.38
5435.00,1.38
5434.00,1.38
5433.00,1.38
5432.00,1.38
5431.00,1.38
5430.00,1.38
5429.00,1.38
5428.00,1.38
5427.00,1.38
5426.00,1.38
5425.00,1.38
5424.00,1.38
5423.00,1.38
5422.00,1.38
5421.00,1.38
5420.00,1.38
5419.00,1.38
5418.00,1.38
5417.00,1.38
5416.00,1.38
5415.00,1.38
5414.00,1.38
5413.00,1.38
5412.00,1.38
5411.00,1.38
5410.00,1.38
5409.00,1.38
5408.00,1.38
5407.00,1.38
5406.00,1.38
5405.00,1.38
5404.00,1.38
5403.00,1.38
5402.00,1.38
5401.00,1.38
5400.00,1.38
5399.00,1.38
5398.00,1.38
5397.00,1.37
5396.00,1.37
5395.00,1.37
5394.00,1.37
5393.00,1.37
5392.00,1.37
5391.00,1.37
5390.00,1.36
5389.00,1.36
5388.00,1.36
5387.00,1.36
5386.00,1.36
5385.00,1.36
5384.00,1.35
5383.00,1.35
5382.00,1.35
5381.00,1.35
5380.00,1.34
5379.00,1.34
5378.00,1.34
5377.00,1.33
5376.00,1.33
5375.00,1.33
5374.00,1.32
5373.00,1.32
5372.00,1.31
5371.00,1.31
5370.00,1.30
5369.00,1.30
5368.00,1.30
5367.00,1.29
5366.00,1.29
5365.00,1.28
5364.00,1.28
5363.00,1.27
5362.00,1.26
5361.00,1.26
5360.00,1.25
5359.00,1.25
5358.00,1.24
5357.00,1.23
5356.00,1.23
5355.00,1.22
5354.00,1.21
5353.00,1.21
5352.00,1.20
5351.00,1.19
5350.00,1.18
5349.00,1.18
5348.00,1.17
5347.00,1.16
5346.00,1.15
5345.00,1.14
5344.00,1.13
5343.00,1.12
5342.00,1.11
5341.00,1.10
5340.00,1.09
5339.00,1.08
5338.00,1.07
5337.00,1.06
5336.00,1.05
5335.00,1.04
5334.00,1.03
5333.00,1.02
5332.00,1.01
5331.00,1.00
5330.00,0.99
5329.00,0.98
5328.00,0.97
5327.00,0.97
5326.00,0.96
5325.00,0.95
5324.00,0.94
5323.00,0.93
5322.00,0.92
5321.00,0.91
5320.00,0.90
5319.00,0.89
5318.00,0.88
5317.00,0.87
5316.00,0.87
5315.00,0.86
5314.00,0.85
5313.00,0.84
5312.00,0.83
5311.00,0.83
5310.00,0.82
5309.00,0.81
5308.00,0.80
5307.00,0.80
5306.00,0.79
5305.00,0.79
5304.00,0.78
5303.00,0.78
5302.00,0.77
5301.00,0.77
5300.00,0.76
5299.00,0.76
5298.00,0.76
5297.00,0.75
5296.00,0.75
5295.00,0.75
5294.00,0.74
5293.00,0.74
5292.00,0.74
5291.00,0.73
5290.00,0.73
5289.00,0.73
5288.00,0.73
5287.00,0.73
5286.00,0.72
5285.00,0.72
5284.00,0.72
5283.00,0.72
5282.00,0.72
5281.00,0.71
5280.00,0.71
5279.00,0.71
5278.00,0.71
5277.00,0.71
5276.00,0.71
5275.00,0.71
5274.00,0.71
5273.00,0.71
5272.00,0.71
5271.00,0.71
5270.00,0.70
5269.00,0.70
5268.00,0.70
5267.00,0.70
5266.00,0.70
5265.00,0.70
5264.00,0.70
5263.00,0.70
5262.00,0.70
5261.00,0.70
5260.00,0.70
5259.00,0.70
5258.00,0.70
5257.00,0.70
5256.00,0.70
5255.00,0.70
5254.00,0.70
5253.00,0.70
5252.00,0.70
5251.00,0.70
5250.00,0.70
5249.00,0.70
5248.00,0.70
5247.00,0.70
5246.00,0.70
5245.00,0.70
5244.00,0.70
5243.00,0.70
5242.00,0.70
5241.00,0.70
5240.00,0.70
5239.00,0.70
5238.00,0.70
5237.00,0.70
5236.00,0.70
5235.00,0.70
5234.00,0.70
5233.00,0.70
5232.00,0.70
5231.00,0.70
5230.00,0.70
5229.00,0.70
5228.00,0.70
5227.00,0.70
5226.00,0.70
5225.00,0.70
5224.00,0.70
5223.00,0.70
5222.00,0.70
5221.00,0.70
5220.00,0.70
5219.00,0.70
5218.00,0.70
5217.00,0.70
5216.00,0.70
5215.00,0.70
5214.00,0.70
5213.00,0.70
5212.00,0.70
5211.00,0.70
5210.00,0.70
5209.00,0.70
5208.00,0.71
5207.00,0.71
5206.00,0.71
5205.00,0.71
5204.00,0.71
5203.00,0.71
5202.00,0.71
5201.00,0.71
5200.00,0.71
5199.00,0.71
5198.00,0.71
5197.00,0.71
5196.00,0.71
5195.00,0.71
5194.00,0.71
5193.00,0.71
5192.00,0.71
5191.00,0.71
5190.00,0.71
5189.00,0.71
5188.00,0.71
5187.00,0.71
5186.00,0.71
5185.00,0.71
5184.00,0.71
5183.00,0.71
5182.00,0.71
5181.00,0.72
5180.00,0.72
5179.00,0.72
5178.00,0.72
5177.00,0.72
5176.00,0.72
5175.00,0.72
5174.00,0.72
5173.00,0.72
5172.00,0.72
5171.00,0.72
5170.00,0.73
5169.00,0.73
5168.00,0.73
5167.00,0.73
5166.00,0.73
5165.00,0.73
5164.00,0.73
5163.00,0.73
5162.00,0.73
5161.00,0.73
5160.00,0.73
5159.00,0.73
5158.00,0.73
5157.00,0.73
5156.00,0.73
5155.00,0.73
5154.00,0.73
5153.00,0.73
5152.00,0.73
5151.00,0.73
5150.00,0.73
5149.00,0.73
5148.00,0.73
5147.00,0.73
5146.00,0.73
5145.00,0.73
5144.00,0.74
5143.00,0.74
5142.00,0.74
5141.00,0.74
5140.00,0.74
5139.00,0.74
5138.00,0.74
5137.00,0.74
5136.00,0.74
5135.00,0.74
5134.00,0.74
5133.00,0.74
5132.00,0.74
5131.00,0.74
5130.00,0.74
5129.00,0.74
5128.00,0.75
5127.00,0.75
5126.00,0.75
5125.00,0.75
5124.00,0.75
5123.00,0.75
5122.00,0.75
5121.00,0.75
5120.00,0.75
5119.00,0.75
5118.00,0.75
5117.00,0.75
5116.00,0.75
5115.00,0.75
5114.00,0.75
5113.00,0.75
5112.00,0.75
5111.00,0.75
5110.00,0.75
5109.00,0.75
5108.00,0.75
5107.00,0.75
5106.00,0.75
5105.00,0.75
5104.00,0.75
5103.00,0.75
5102.00,0.76
5101.00,0.76
5100.00,0.76
5099.00,0.76
5098.00,0.76
5097.00,0.76
5096.00,0.76
5095.00,0.76
5094.00,0.76
5093.00,0.76
5092.00,0.76
5091.00,0.76
5090.00,0.76
5089.00,0.76
5088.00,0.76
5087.00,0.76
5086.00,0.76
5085.00,0.76
5084.00,0.76
5083.00,0.76
5082.00,0.77
5081.00,0.77
5080.00,0.77
5079.00,0.77
5078.00,0.77
5077.00,0.77
5076.00,0.77
5075.00,0.77
5074.00,0.77
5073.00,0.77
5072.00,0.77
5071.00,0.77
5070.00,0.77
5069.00,0.77
5068.00,0.77
5067.00,0.77
5066.00,0.77
5065.00,0.77
5064.00,0.77
5063.00,0.78
5062.00,0.78
5061.00,0.78
5060.00,0.78
5059.00,0.78
5058.00,0.78
5057.00,0.78
5056.00,0.78
5055.00,0.78
5054.00,0.78
5053.00,0.78
5052.00,0.78
5051.00,0.78
5050.00,0.78
5049.00,0.78
5048.00,0.78
5047.00,0.78
5046.00,0.78
5045.00,0.78
5044.00,0.78
5043.00,0.78
5042.00,0.79
5041.00,0.79
5040.00,0.79
5039.00,0.79
5038.00,0.79
5037.00,0.79
5036.00,0.79
5035.00,0.79
5034.00,0.79
5033.00,0.79
5032.00,0.79
5031.00,0.80
5030.00,0.80
5029.00,0.80
5028.00,0.80
5027.00,0.80
5026.00,0.80
5025.00,0.80
5024.00,0.80
5023.00,0.80
5022.00,0.80
5021.00,0.80
5020.00,0.80
5019.00,0.80
5018.00,0.81
5017.00,0.81
5016.00,0.81
5015.00,0.81
5014.00,0.81
5013.00,0.81
5012.00,0.81
5011.00,0.81
5010.00,0.81
5009.00,0.81
5008.00,0.81
5007.00,0.81
5006.00,0.81
5005.00,0.81
5004.00,0.81
5003.00,0.81
5002.00,0.82
5001.00,0.82
5000.00,0.82
4999.00,0.82
4998.00,0.82
4997.00,0.82
4996.00,0.82
4995.00,0.82
4994.00,0.82
4993.00,0.82
4992.00,0.82
4991.00,0.82
4990.00,0.83
4989.00,0.83
4988.00,0.83
4987.00,0.83
4986.00,0.83
4985.00,0.83
4984.00,0.83
4983.00,0.83
4982.00,0.83
4981.00,0.84
4980.00,0.84
4979.00,0.84
4978.00,0.84
4977.00,0.84
4976.00,0.84
4975.00,0.84
4974.00,0.85
4973.00,0.85
4972.00,0.85
4971.00,0.85
4970.00,0.85
4969.00,0.85
4968.00,0.85
4967.00,0.85
4966.00,0.85
4965.00,0.86
4964.00,0.86
4963.00,0.86
4962.00,0.86
4961.00,0.86
4960.00,0.86
4959.00,0.86
4958.00,0.86
4957.00,0.86
4956.00,0.86
4955.00,0.86
4954.00,0.87
4953.00,0.87
4952.00,0.87
4951.00,0.87
4950.00,0.87
4949.00,0.87
4948.00,0.87
4947.00,0.87
4946.00,0.87
4945.00,0.87
4944.00,0.87
4943.00,0.87
4942.00,0.88
4941.00,0.88
4940.00,0.88
4939.00,0.88
4938.00,0.88
4937.00,0.88
4936.00,0.88
4935.00,0.88
4934.00,0.88
4933.00,0.88
4932.00,0.88
4931.00,0.88
4930.00,0.88
4929.00,0.89
4928.00,0.89
4927.00,0.89
4926.00,0.89
4925.00,0.89
4924.00,0.89
4923.00,0.89
4922.00,0.89
4921.00,0.89
4920.00,0.89
4919.00,0.89
4918.00,0.89
4917.00,0.89
4916.00,0.89
4915.00,0.90
4914.00,0.90
4913.00,0.90
4912.00,0.90
4911.00,0.90
4910.00,0.90
4909.00,0.90
4908.00,0.90
4907.00,0.90
4906.00,0.90
4905.00,0.90
4904.00,0.90
4903.00,0.90
4902.00,0.90
4901.00,0.90
4900.00,0.90
4899.00,0.90
4898.00,0.90
4897.00,0.90
4896.00,0.90
4895.00,0.90
4894.00,0.90
4893.00,0.90
4892.00,0.90
4891.00,0.90
4890.00,0.90
4889.00,0.90
4888.00,0.90
4887.00,0.90
4886.00,0.90
4885.00,0.90
4884.00,0.90
4883.00,0.90
4882.00,0.90
4881.00,0.90
4880.00,0.91
4879.00,0.91
4878.00,0.91
4877.00,0.91
4876.00,0.91
4875.00,0.91
4874.00,0.91
4873.00,0.91
4872.00,0.91
4871.00,0.91
4870.00,0.91
4869.00,0.91
4868.00,0.91
4867.00,0.91
4866.00,0.92
4865.00,0.92
4864.00,0.92
4863.00,0.92
4862.00,0.92
4861.00,0.92
4860.00,0.92
4859.00,0.92
4858.00,0.92
4857.00,0.92
4856.00,0.92
4855.00,0.92
4854.00,0.92
4853.00,0.92
4852.00,0.92
4851.00,0.93
4850.00,0.93
4849.00,0.93
4848.00,0.93
4847.00,0.93
4846.00,0.93
4845.00,0.93
4844.00,0.93
4843.00,0.93
4842.00,0.93
4841.00,0.94
4840.00,0.94
4839.00,0.94
4838.00,0.94
4837.00,0.94
4836.00,0.94
4835.00,0.94
4834.00,0.94
4833.00,0.94
4832.00,0.94
4831.00,0.94
4830.00,0.94
4829.00,0.94
4828.00,0.94
4827.00,0.94
4826.00,0.94
4825.00,0.94
4824.00,0.94
4823.00,0.94
4822.00,0.94
4821.00,0.95
4820.00,0.95
4819.00,0.95
4818.00,0.95
4817.00,0.95
4816.00,0.95
4815.00,0.95
4814.00,0.95
4813.00,0.95
4812.00,0.95
4811.00,0.95
4810.00,0.95
4809.00,0.95
4808.00,0.95
4807.00,0.95
4806.00,0.96
4805.00,0.96
4804.00,0.96
4803.00,0.96
4802.00,0.96
4801.00,0.96
4800.00,0.96
4799.00,0.96
4798.00,0.96
4797.00,0.96
4796.00,0.96
4795.00,0.96
4794.00,0.96
4793.00,0.97
4792.00,0.97
4791.00,0.97
4790.00,0.97
4789.00,0.97
4788.00,0.97
4787.00,0.97
4786.00,0.97
4785.00,0.97
4784.00,0.97
4783.00,0.98
4782.00,0.98
4781.00,0.98
4780.00,0.98
4779.00,0.98
4778.00,0.98
4777.00,0.98
4776.00,0.99
4775.00,0.99
4774.00,0.99
4773.00,0.99
4772.00,0.99
4771.00,0.99
4770.00,1.00
4769.00,1.00
4768.00,1.00
4767.00,1.00
4766.00,1.00
4765.00,1.00
4764.00,1.00
4763.00,1.01
4762.00,1.01
4761.00,1.01
4760.00,1.01
4759.00,1.01
4758.00,1.01
4757.00,1.01
4756.00,1.01
4755.00,1.02
4754.00,1.02
4753.00,1.02
4752.00,1.02
4751.00,1.02
4750.00,1.02
4749.00,1.02
4748.00,1.02
4747.00,1.03
4746.00,1.03
4745.00,1.03
4744.00,1.03
4743.00,1.03
4742.00,1.03
4741.00,1.04
4740.00,1.04
4739.00,1.04
4738.00,1.04
4737.00,1.04
4736.00,1.05
4735.00,1.05
4734.00,1.05
4733.00,1.05
4732.00,1.05
4731.00,1.05
4730.00,1.05
4729.00,1.06
4728.00,1.06
4727.00,1.06
4726.00,1.06
4725.00,1.06
4724.00,1.06
4723.00,1.06
4722.00,1.06
4721.00,1.06
4720.00,1.07
4719.00,1.07
4718.00,1.07
4717.00,1.07
4716.00,1.07
4715.00,1.07
4714.00,1.07
4713.00,1.08
4712.00,1.08
4711.00,1.08
4710.00,1.08
4709.00,1.08
4708.00,1.08
4707.00,1.08
4706.00,1.09
4705.00,1.09
4704.00,1.09
4703.00,1.09
4702.00,1.09
4701.00,1.09
4700.00,1.10
4699.00,1.10
4698.00,1.10
4697.00,1.10
4696.00,1.11
4695.00,1.11
4694.00,1.11
4693.00,1.11
4692.00,1.11
4691.00,1.11
4690.00,1.12
4689.00,1.12
4688.00,1.12
4687.00,1.12
4686.00,1.12
4685.00,1.12
4684.00,1.12
4683.00,1.12
4682.00,1.12
4681.00,1.13
4680.00,1.13
4679.00,1.13
4678.00,1.13
4677.00,1.13
4676.00,1.13
4675.00,1.13
4674.00,1.14
4673.00,1.14
4672.00,1.14
4671.00,1.14
4670.00,1.14
4669.00,1.14
4668.00,1.14
4667.00,1.14
4666.00,1.14
4665.00,1.15
4664.00,1.15
4663.00,1.15
4662.00,1.15
4661.00,1.15
4660.00,1.15
4659.00,1.15
4658.00,1.15
4657.00,1.15
4656.00,1.15
4655.00,1.16
4654.00,1.16
4653.00,1.16
4652.00,1.16
4651.00,1.16
4650.00,1.16
4649.00,1.16
4648.00,1.16
4647.00,1.16
4646.00,1.16
4645.00,1.16
4644.00,1.16
4643.00,1.16
4642.00,1.16
4641.00,1.17
4640.00,1.17
4639.00,1.17
4638.00,1.17
4637.00,1.17
4636.00,1.17
4635.00,1.17
4634.00,1.17
4633.00,1.17
4632.00,1.17
4631.00,1.18
4630.00,1.18
4629.00,1.18
4628.00,1.18
4627.00,1.18
4626.00,1.19
4625.00,1.19
4624.00,1.19
4623.00,1.19
4622.00,1.19
4621.00,1.20
4620.00,1.20
4619.00,1.20
4618.00,1.20
4617.00,1.20
4616.00,1.21
4615.00,1.21
4614.00,1.21
4613.00,1.21
4612.00,1.21
4611.00,1.21
4610.00,1.21
4609.00,1.21
4608.00,1.21
4607.00,1.21
4606.00,1.21
4605.00,1.21
4604.00,1.22
4603.00,1.22
4602.00,1.22
4601.00,1.22
4600.00,1.22
4599.00,1.22
4598.00,1.22
4597.00,1.22
4596.00,1.22
4595.00,1.21
4594.00,1.21
4593.00,1.21
4592.00,1.21
4591.00,1.21
4590.00,1.21
4589.00,1.21
4588.00,1.21
4587.00,1.22
4586.00,1.22
4585.00,1.22
4584.00,1.22
4583.00,1.22
4582.00,1.22
4581.00,1.22
4580.00,1.22
4579.00,1.22
4578.00,1.22
4577.00,1.23
4576.00,1.23
4575.00,1.23
4574.00,1.23
4573.00,1.23
4572.00,1.23
4571.00,1.23
4570.00,1.23
4569.00,1.24
4568.00,1.24
4567.00,1.24
4566.00,1.24
4565.00,1.24
4564.00,1.24
4563.00,1.24
4562.00,1.24
4561.00,1.25
4560.00,1.25
4559.00,1.25
4558.00,1.25
4557.00,1.25
4556.00,1.25
4555.00,1.25
4554.00,1.25
4553.00,1.25
4552.00,1.25
4551.00,1.25
4550.00,1.25
4549.00,1.25
4548.00,1.25
4547.00,1.25
4546.00,1.25
4545.00,1.25
4544.00,1.26
4543.00,1.26
4542.00,1.26
4541.00,1.26
4540.00,1.26
4539.00,1.26
4538.00,1.26
4537.00,1.26
4536.00,1.26
4535.00,1.26
4534.00,1.26
4533.00,1.27
4532.00,1.27
4531.00,1.27
4530.00,1.27
4529.00,1.27
4528.00,1.27
4527.00,1.27
4526.00,1.27
4525.00,1.27
4524.00,1.27
4523.00,1.27
4522.00,1.27
4521.00,1.27
4520.00,1.28
4519.00,1.28
4518.00,1.28
4517.00,1.28
4516.00,1.28
4515.00,1.28
4514.00,1.28
4513.00,1.28
4512.00,1.28
4511.00,1.28
4510.00,1.27
4509.00,1.27
4508.00,1.27
4507.00,1.27
4506.00,1.27
4505.00,1.27
4504.00,1.27
4503.00,1.27
4502.00,1.27
4501.00,1.27
4500.00,1.27
4499.00,1.27
4498.00,1.26
4497.00,1.26
4496.00,1.26
4495.00,1.26
4494.00,1.26
4493.00,1.26
4492.00,1.26
4491.00,1.26
4490.00,1.26
4489.00,1.26
4488.00,1.26
4487.00,1.26
4486.00,1.26
4485.00,1.26
4484.00,1.26
4483.00,1.26
4482.00,1.26
4481.00,1.25
4480.00,1.25
4479.00,1.25
4478.00,1.25
4477.00,1.25
4476.00,1.25
4475.00,1.24
4474.00,1.24
4473.00,1.24
4472.00,1.24
4471.00,1.23
4470.00,1.23
4469.00,1.23
4468.00,1.23
4467.00,1.22
4466.00,1.22
4465.00,1.22
4464.00,1.22
4463.00,1.21
4462.00,1.21
4461.00,1.21
4460.00,1.20
4459.00,1.20
4458.00,1.20
4457.00,1.20
4456.00,1.19
4455.00,1.19
4454.00,1.19
4453.00,1.18
4452.00,1.18
4451.00,1.18
4450.00,1.17
4449.00,1.17
4448.00,1.17
4447.00,1.17
4446.00,1.16
4445.00,1.16
4444.00,1.15
4443.00,1.15
4442.00,1.15
4441.00,1.14
4440.00,1.14
4439.00,1.14
4438.00,1.13
4437.00,1.13
4436.00,1.13
4435.00,1.12
4434.00,1.12
4433.00,1.12
4432.00,1.12
4431.00,1.11
4430.00,1.11
4429.00,1.11
4428.00,1.11
4427.00,1.11
4426.00,1.10
4425.00,1.10
4424.00,1.10
4423.00,1.10
4422.00,1.10
4421.00,1.10
4420.00,1.10
4419.00,1.10
4418.00,1.10
4417.00,1.10
4416.00,1.10
4415.00,1.10
4414.00,1.10
4413.00,1.10
4412.00,1.10
4411.00,1.10
4410.00,1.10
4409.00,1.10
4408.00,1.10
4407.00,1.10
4406.00,1.10
4405.00,1.10
4404.00,1.10
4403.00,1.10
4402.00,1.10
4401.00,1.10
4400.00,1.10
4399.00,1.10
4398.00,1.11
4397.00,1.11
4396.00,1.11
4395.00,1.11
4394.00,1.11
4393.00,1.11
4392.00,1.11
4391.00,1.11
4390.00,1.11
4389.00,1.12
4388.00,1.12
4387.00,1.12
4386.00,1.12
4385.00,1.12
4384.00,1.12
4383.00,1.12
4382.00,1.12
4381.00,1.12
4380.00,1.12
4379.00,1.13
4378.00,1.13
4377.00,1.13
4376.00,1.13
4375.00,1.13
4374.00,1.13
4373.00,1.13
4372.00,1.14
4371.00,1.14
4370.00,1.14
4369.00,1.14
4368.00,1.14
4367.00,1.14
4366.00,1.14
4365.00,1.14
4364.00,1.14
4363.00,1.14
4362.00,1.14
4361.00,1.14
4360.00,1.14
4359.00,1.14
4358.00,1.14
4357.00,1.14
4356.00,1.14
4355.00,1.14
4354.00,1.14
4353.00,1.14
4352.00,1.14
4351.00,1.14
4350.00,1.14
4349.00,1.14
4348.00,1.14
4347.00,1.14
4346.00,1.14
4345.00,1.14
4344.00,1.14
4343.00,1.14
4342.00,1.14
4341.00,1.15
4340.00,1.15
4339.00,1.15
4338.00,1.15
4337.00,1.15
4336.00,1.15
4335.00,1.15
4334.00,1.15
4333.00,1.15
4332.00,1.15
4331.00,1.15
4330.00,1.15
4329.00,1.15
4328.00,1.15
4327.00,1.15
4326.00,1.15
4325.00,1.15
4324.00,1.15
4323.00,1.15
4322.00,1.15
4321.00,1.15
4320.00,1.15
4319.00,1.16
4318.00,1.16
4317.00,1.16
4316.00,1.16
4315.00,1.17
4314.00,1.17
4313.00,1.17
4312.00,1.17
4311.00,1.18
4310.00,1.18
4309.00,1.18
4308.00,1.18
4307.00,1.19
4306.00,1.19
4305.00,1.19
4304.00,1.19
4303.00,1.19
4302.00,1.19
4301.00,1.20
4300.00,1.20
4299.00,1.20
4298.00,1.20
4297.00,1.20
4296.00,1.20
4295.00,1.20
4294.00,1.20
4293.00,1.21
4292.00,1.21
4291.00,1.21
4290.00,1.21
4289.00,1.21
4288.00,1.21
4287.00,1.21
4286.00,1.21
4285.00,1.21
4284.00,1.21
4283.00,1.21
4282.00,1.21
4281.00,1.21
4280.00,1.21
4279.00,1.21
4278.00,1.21
4277.00,1.21
4276.00,1.21
4275.00,1.21
4274.00,1.21
4273.00,1.21
4272.00,1.21
4271.00,1.21
4270.00,1.21
4269.00,1.21
4268.00,1.21
4267.00,1.21
4266.00,1.21
4265.00,1.21
4264.00,1.21
4263.00,1.21
4262.00,1.21
4261.00,1.21
4260.00,1.21
4259.00,1.21
4258.00,1.21
4257.00,1.21
4256.00,1.21
4255.00,1.21
4254.00,1.22
4253.00,1.22
4252.00,1.22
4251.00,1.22
4250.00,1.22
4249.00,1.23
4248.00,1.23
4247.00,1.23
4246.00,1.23
4245.00,1.23
4244.00,1.24
4243.00,1.24
4242.00,1.24
4241.00,1.24
4240.00,1.24
4239.00,1.24
4238.00,1.24
4237.00,1.24
4236.00,1.24
4235.00,1.24
4234.00,1.25
4233.00,1.25
4232.00,1.25
4231.00,1.25
4230.00,1.25
4229.00,1.25
4228.00,1.25
4227.00,1.25
4226.00,1.25
4225.00,1.25
4224.00,1.25
4223.00,1.26
4222.00,1.26
4221.00,1.26
4220.00,1.26
4219.00,1.26
4218.00,1.26
4217.00,1.26
4216.00,1.26
4215.00,1.26
4214.00,1.26
4213.00,1.26
4212.00,1.26
4211.00,1.26
4210.00,1.26
4209.00,1.26
4208.00,1.26
4207.00,1.26
4206.00,1.26
4205.00,1.26
4204.00,1.26
4203.00,1.26
4202.00,1.26
4201.00,1.26
4200.00,1.26
4199.00,1.26
4198.00,1.26
4197.00,1.26
4196.00,1.26
4195.00,1.27
4194.00,1.27
4193.00,1.27
4192.00,1.27
4191.00,1.27
4190.00,1.27
4189.00,1.27
4188.00,1.27
4187.00,1.27
4186.00,1.28
4185.00,1.28
4184.00,1.28
4183.00,1.28
4182.00,1.28
4181.00,1.28
4180.00,1.28
4179.00,1.28
4178.00,1.28
4177.00,1.28
4176.00,1.28
4175.00,1.28
4174.00,1.28
4173.00,1.28
4172.00,1.28
4171.00,1.28
4170.00,1.28
4169.00,1.28
4168.00,1.28
4167.00,1.28
4166.00,1.28
4165.00,1.28
4164.00,1.28
4163.00,1.28
4162.00,1.28
4161.00,1.27
4160.00,1.27
4159.00,1.27
4158.00,1.27
4157.00,1.27
4156.00,1.27
4155.00,1.27
4154.00,1.27
4153.00,1.27
4152.00,1.27
4151.00,1.27
4150.00,1.27
4149.00,1.27
4148.00,1.27
4147.00,1.27
4146.00,1.28
4145.00,1.28
4144.00,1.28
4143.00,1.28
4142.00,1.28
4141.00,1.28
4140.00,1.28
4139.00,1.28
4138.00,1.28
4137.00,1.28
4136.00,1.29
4135.00,1.29
4134.00,1.29
4133.00,1.29
4132.00,1.29
4131.00,1.29
4130.00,1.29
4129.00,1.29
4128.00,1.29
4127.00,1.29
4126.00,1.29
4125.00,1.29
4124.00,1.29
4123.00,1.29
4122.00,1.29
4121.00,1.29
4120.00,1.29
4119.00,1.29
4118.00,1.29
4117.00,1.29
4116.00,1.29
4115.00,1.30
4114.00,1.30
4113.00,1.30
4112.00,1.30
4111.00,1.30
4110.00,1.30
4109.00,1.30
4108.00,1.30
4107.00,1.30
4106.00,1.30
4105.00,1.30
4104.00,1.30
4103.00,1.31
4102.00,1.31
4101.00,1.31
4100.00,1.31
4099.00,1.31
4098.00,1.31
4097.00,1.31
4096.00,1.31
4095.00,1.31
4094.00,1.31
4093.00,1.31
4092.00,1.31
4091.00,1.31
4090.00,1.31
4089.00,1.31
4088.00,1.31
4087.00,1.31
4086.00,1.31
4085.00,1.31
4084.00,1.31
4083.00,1.31
4082.00,1.31
4081.00,1.31
4080.00,1.31
4079.00,1.31
4078.00,1.31
4077.00,1.31
4076.00,1.31
4075.00,1.31
4074.00,1.31
4073.00,1.31
4072.00,1.31
4071.00,1.31
4070.00,1.31
4069.00,1.31
4068.00,1.31
4067.00,1.31
4066.00,1.31
4065.00,1.31
4064.00,1.31
4063.00,1.32
4062.00,1.32
4061.00,1.32
4060.00,1.32
4059.00,1.32
4058.00,1.32
4057.00,1.32
4056.00,1.33
4055.00,1.33
4054.00,1.33
4053.00,1.33
4052.00,1.33
4051.00,1.33
4050.00,1.34
4049.00,1.34
4048.00,1.34
4047.00,1.34
4046.00,1.34
4045.00,1.34
4044.00,1.34
4043.00,1.34
4042.00,1.34
4041.00,1.34
4040.00,1.34
4039.00,1.34
4038.00,1.34
4037.00,1.34
4036.00,1.35
4035.00,1.35
4034.00,1.35
4033.00,1.35
4032.00,1.35
4031.00,1.35
4030.00,1.35
4029.00,1.35
4028.00,1.35
4027.00,1.36
4026.00,1.36
4025.00,1.36
4024.00,1.36
4023.00,1.36
4022.00,1.36
4021.00,1.36
4020.00,1.36
4019.00,1.36
4018.00,1.36
4017.00,1.36
4016.00,1.36
4015.00,1.36
4014.00,1.36
4013.00,1.36
4012.00,1.36
4011.00,1.37
4010.00,1.37
4009.00,1.37
4008.00,1.37
4007.00,1.37
4006.00,1.37
4005.00,1.37
4004.00,1.37
4003.00,1.38
4002.00,1.38
4001.00,1.38
4000.00,1.38
