创建为新数据集,样品 077 用户 Administrator 日期 星期日, 十一月 05 2017
cm-1,%T
10000.00,1.44
9999.00,1.44
9998.00,1.44
9997.00,1.43
9996.00,1.43
9995.00,1.43
9994.00,1.43
9993.00,1.43
9992.00,1.43
9991.00,1.43
9990.00,1.43
9989.00,1.43
9988.00,1.43
9987.00,1.43
9986.00,1.43
9985.00,1.43
9984.00,1.43
9983.00,1.43
9982.00,1.43
9981.00,1.43
9980.00,1.43
9979.00,1.43
9978.00,1.43
9977.00,1.43
9976.00,1.43
9975.00,1.43
9974.00,1.43
9973.00,1.43
9972.00,1.43
9971.00,1.43
9970.00,1.43
9969.00,1.43
9968.00,1.44
9967.00,1.44
9966.00,1.44
9965.00,1.44
9964.00,1.44
9963.00,1.44
9962.00,1.44
9961.00,1.44
9960.00,1.44
9959.00,1.43
9958.00,1.43
9957.00,1.43
9956.00,1.43
9955.00,1.43
9954.00,1.43
9953.00,1.43
9952.00,1.42
9951.00,1.42
9950.00,1.42
9949.00,1.42
9948.00,1.42
9947.00,1.42
9946.00,1.42
9945.00,1.42
9944.00,1.42
9943.00,1.42
9942.00,1.42
9941.00,1.42
9940.00,1.42
9939.00,1.42
9938.00,1.42
9937.00,1.42
9936.00,1.42
9935.00,1.42
9934.00,1.42
9933.00,1.42
9932.00,1.42
9931.00,1.42
9930.00,1.42
9929.00,1.42
9928.00,1.42
9927.00,1.42
9926.00,1.42
9925.00,1.42
9924.00,1.42
9923.00,1.42
9922.00,1.42
9921.00,1.42
9920.00,1.43
9919.00,1.43
9918.00,1.43
9917.00,1.43
9916.00,1.43
9915.00,1.43
9914.00,1.43
9913.00,1.44
9912.00,1.44
9911.00,1.44
9910.00,1.44
9909.00,1.44
9908.00,1.43
9907.00,1.43
9906.00,1.43
9905.00,1.43
9904.00,1.43
9903.00,1.43
9902.00,1.43
9901.00,1.42
9900.00,1.42
9899.00,1.42
9898.00,1.42
9897.00,1.42
9896.00,1.42
9895.00,1.42
9894.00,1.42
9893.00,1.42
9892.00,1.42
9891.00,1.42
9890.00,1.42
9889.00,1.42
9888.00,1.42
9887.00,1.42
9886.00,1.42
9885.00,1.42
9884.00,1.41
9883.00,1.41
9882.00,1.41
9881.00,1.41
9880.00,1.40
9879.00,1.40
9878.00,1.40
9877.00,1.40
9876.00,1.40
9875.00,1.40
9874.00,1.40
9873.00,1.40
9872.00,1.40
9871.00,1.40
9870.00,1.40
9869.00,1.40
9868.00,1.40
9867.00,1.40
9866.00,1.40
9865.00,1.40
9864.00,1.40
9863.00,1.40
9862.00,1.40
9861.00,1.40
9860.00,1.40
9859.00,1.40
9858.00,1.40
9857.00,1.39
9856.00,1.39
9855.00,1.39
9854.00,1.39
9853.00,1.39
9852.00,1.39
9851.00,1.39
9850.00,1.38
9849.00,1.38
9848.00,1.38
9847.00,1.38
9846.00,1.38
9845.00,1.38
9844.00,1.38
9843.00,1.38
9842.00,1.38
9841.00,1.38
9840.00,1.38
9839.00,1.38
9838.00,1.38
9837.00,1.38
9836.00,1.38
9835.00,1.38
9834.00,1.38
9833.00,1.38
9832.00,1.38
9831.00,1.38
9830.00,1.38
9829.00,1.38
9828.00,1.38
9827.00,1.38
9826.00,1.38
9825.00,1.39
9824.00,1.39
9823.00,1.39
9822.00,1.39
9821.00,1.39
9820.00,1.40
9819.00,1.40
9818.00,1.40
9817.00,1.40
9816.00,1.40
9815.00,1.40
9814.00,1.40
9813.00,1.40
9812.00,1.40
9811.00,1.40
9810.00,1.40
9809.00,1.40
9808.00,1.40
9807.00,1.40
9806.00,1.39
9805.00,1.39
9804.00,1.39
9803.00,1.39
9802.00,1.39
9801.00,1.39
9800.00,1.39
9799.00,1.38
9798.00,1.38
9797.00,1.38
9796.00,1.38
9795.00,1.38
9794.00,1.38
9793.00,1.38
9792.00,1.38
9791.00,1.38
9790.00,1.38
9789.00,1.38
9788.00,1.38
9787.00,1.38
9786.00,1.38
9785.00,1.38
9784.00,1.38
9783.00,1.38
9782.00,1.38
9781.00,1.38
9780.00,1.38
9779.00,1.38
9778.00,1.39
9777.00,1.39
9776.00,1.39
9775.00,1.39
9774.00,1.39
9773.00,1.39
9772.00,1.39
9771.00,1.38
9770.00,1.38
9769.00,1.38
9768.00,1.38
9767.00,1.38
9766.00,1.38
9765.00,1.38
9764.00,1.38
9763.00,1.38
9762.00,1.38
9761.00,1.38
9760.00,1.38
9759.00,1.38
9758.00,1.39
9757.00,1.39
9756.00,1.39
9755.00,1.39
9754.00,1.39
9753.00,1.39
9752.00,1.39
9751.00,1.39
9750.00,1.39
9749.00,1.39
9748.00,1.39
9747.00,1.39
9746.00,1.40
9745.00,1.40
9744.00,1.40
9743.00,1.40
9742.00,1.40
9741.00,1.41
9740.00,1.41
9739.00,1.41
9738.00,1.41
9737.00,1.41
9736.00,1.42
9735.00,1.42
9734.00,1.42
9733.00,1.42
9732.00,1.42
9731.00,1.43
9730.00,1.43
9729.00,1.43
9728.00,1.43
9727.00,1.43
9726.00,1.43
9725.00,1.43
9724.00,1.43
9723.00,1.42
9722.00,1.42
9721.00,1.42
9720.00,1.42
9719.00,1.42
9718.00,1.41
9717.00,1.41
9716.00,1.41
9715.00,1.41
9714.00,1.40
9713.00,1.40
9712.00,1.40
9711.00,1.40
9710.00,1.40
9709.00,1.39
9708.00,1.39
9707.00,1.39
9706.00,1.39
9705.00,1.39
9704.00,1.40
9703.00,1.40
9702.00,1.40
9701.00,1.40
9700.00,1.40
9699.00,1.40
9698.00,1.41
9697.00,1.41
9696.00,1.41
9695.00,1.41
9694.00,1.41
9693.00,1.41
9692.00,1.41
9691.00,1.41
9690.00,1.41
9689.00,1.41
9688.00,1.41
9687.00,1.41
9686.00,1.41
9685.00,1.41
9684.00,1.41
9683.00,1.40
9682.00,1.40
9681.00,1.40
9680.00,1.40
9679.00,1.39
9678.00,1.39
9677.00,1.39
9676.00,1.39
9675.00,1.39
9674.00,1.39
9673.00,1.39
9672.00,1.39
9671.00,1.39
9670.00,1.39
9669.00,1.39
9668.00,1.40
9667.00,1.40
9666.00,1.40
9665.00,1.40
9664.00,1.41
9663.00,1.41
9662.00,1.41
9661.00,1.41
9660.00,1.42
9659.00,1.42
9658.00,1.42
9657.00,1.42
9656.00,1.42
9655.00,1.42
9654.00,1.42
9653.00,1.42
9652.00,1.42
9651.00,1.42
9650.00,1.42
9649.00,1.42
9648.00,1.42
9647.00,1.42
9646.00,1.42
9645.00,1.42
9644.00,1.42
9643.00,1.42
9642.00,1.42
9641.00,1.42
9640.00,1.42
9639.00,1.42
9638.00,1.42
9637.00,1.42
9636.00,1.42
9635.00,1.42
9634.00,1.41
9633.00,1.41
9632.00,1.41
9631.00,1.41
9630.00,1.41
9629.00,1.40
9628.00,1.40
9627.00,1.40
9626.00,1.40
9625.00,1.40
9624.00,1.39
9623.00,1.39
9622.00,1.39
9621.00,1.39
9620.00,1.39
9619.00,1.39
9618.00,1.39
9617.00,1.39
9616.00,1.39
9615.00,1.39
9614.00,1.39
9613.00,1.39
9612.00,1.39
9611.00,1.39
9610.00,1.39
9609.00,1.39
9608.00,1.39
9607.00,1.39
9606.00,1.39
9605.00,1.39
9604.00,1.39
9603.00,1.39
9602.00,1.39
9601.00,1.39
9600.00,1.39
9599.00,1.39
9598.00,1.39
9597.00,1.39
9596.00,1.39
9595.00,1.39
9594.00,1.39
9593.00,1.39
9592.00,1.39
9591.00,1.39
9590.00,1.39
9589.00,1.39
9588.00,1.39
9587.00,1.39
9586.00,1.39
9585.00,1.39
9584.00,1.39
9583.00,1.40
9582.00,1.40
9581.00,1.40
9580.00,1.40
9579.00,1.41
9578.00,1.41
9577.00,1.41
9576.00,1.41
9575.00,1.42
9574.00,1.42
9573.00,1.42
9572.00,1.42
9571.00,1.42
9570.00,1.43
9569.00,1.43
9568.00,1.43
9567.00,1.43
9566.00,1.43
9565.00,1.43
9564.00,1.43
9563.00,1.43
9562.00,1.42
9561.00,1.42
9560.00,1.42
9559.00,1.42
9558.00,1.42
9557.00,1.42
9556.00,1.42
9555.00,1.42
9554.00,1.42
9553.00,1.42
9552.00,1.41
9551.00,1.41
9550.00,1.41
9549.00,1.41
9548.00,1.41
9547.00,1.41
9546.00,1.41
9545.00,1.42
9544.00,1.42
9543.00,1.42
9542.00,1.42
9541.00,1.42
9540.00,1.42
9539.00,1.42
9538.00,1.42
9537.00,1.42
9536.00,1.42
9535.00,1.42
9534.00,1.42
9533.00,1.42
9532.00,1.42
9531.00,1.42
9530.00,1.42
9529.00,1.41
9528.00,1.41
9527.00,1.41
9526.00,1.41
9525.00,1.40
9524.00,1.40
9523.00,1.40
9522.00,1.39
9521.00,1.39
9520.00,1.39
9519.00,1.38
9518.00,1.38
9517.00,1.38
9516.00,1.38
9515.00,1.38
9514.00,1.38
9513.00,1.38
9512.00,1.38
9511.00,1.38
9510.00,1.38
9509.00,1.38
9508.00,1.38
9507.00,1.38
9506.00,1.39
9505.00,1.39
9504.00,1.39
9503.00,1.39
9502.00,1.39
9501.00,1.39
9500.00,1.39
9499.00,1.39
9498.00,1.40
9497.00,1.40
9496.00,1.40
9495.00,1.40
9494.00,1.40
9493.00,1.39
9492.00,1.39
9491.00,1.39
9490.00,1.39
9489.00,1.39
9488.00,1.39
9487.00,1.39
9486.00,1.39
9485.00,1.39
9484.00,1.39
9483.00,1.38
9482.00,1.38
9481.00,1.38
9480.00,1.38
9479.00,1.39
9478.00,1.39
9477.00,1.39
9476.00,1.39
9475.00,1.39
9474.00,1.39
9473.00,1.39
9472.00,1.40
9471.00,1.40
9470.00,1.40
9469.00,1.40
9468.00,1.40
9467.00,1.41
9466.00,1.41
9465.00,1.41
9464.00,1.41
9463.00,1.41
9462.00,1.42
9461.00,1.42
9460.00,1.42
9459.00,1.42
9458.00,1.42
9457.00,1.42
9456.00,1.42
9455.00,1.42
9454.00,1.42
9453.00,1.42
9452.00,1.42
9451.00,1.42
9450.00,1.42
9449.00,1.42
9448.00,1.42
9447.00,1.42
9446.00,1.42
9445.00,1.42
9444.00,1.42
9443.00,1.42
9442.00,1.42
9441.00,1.42
9440.00,1.42
9439.00,1.42
9438.00,1.42
9437.00,1.42
9436.00,1.42
9435.00,1.42
9434.00,1.42
9433.00,1.42
9432.00,1.42
9431.00,1.42
9430.00,1.41
9429.00,1.41
9428.00,1.41
9427.00,1.41
9426.00,1.41
9425.00,1.40
9424.00,1.40
9423.00,1.40
9422.00,1.40
9421.00,1.40
9420.00,1.39
9419.00,1.39
9418.00,1.39
9417.00,1.39
9416.00,1.39
9415.00,1.39
9414.00,1.39
9413.00,1.39
9412.00,1.39
9411.00,1.39
9410.00,1.39
9409.00,1.39
9408.00,1.39
9407.00,1.39
9406.00,1.39
9405.00,1.40
9404.00,1.40
9403.00,1.40
9402.00,1.40
9401.00,1.40
9400.00,1.41
9399.00,1.41
9398.00,1.41
9397.00,1.41
9396.00,1.41
9395.00,1.41
9394.00,1.41
9393.00,1.41
9392.00,1.41
9391.00,1.41
9390.00,1.41
9389.00,1.40
9388.00,1.40
9387.00,1.40
9386.00,1.40
9385.00,1.40
9384.00,1.40
9383.00,1.40
9382.00,1.40
9381.00,1.40
9380.00,1.40
9379.00,1.40
9378.00,1.40
9377.00,1.40
9376.00,1.40
9375.00,1.41
9374.00,1.41
9373.00,1.41
9372.00,1.41
9371.00,1.42
9370.00,1.42
9369.00,1.42
9368.00,1.42
9367.00,1.42
9366.00,1.42
9365.00,1.42
9364.00,1.42
9363.00,1.42
9362.00,1.42
9361.00,1.42
9360.00,1.42
9359.00,1.41
9358.00,1.41
9357.00,1.41
9356.00,1.41
9355.00,1.41
9354.00,1.41
9353.00,1.41
9352.00,1.41
9351.00,1.41
9350.00,1.41
9349.00,1.41
9348.00,1.41
9347.00,1.41
9346.00,1.41
9345.00,1.41
9344.00,1.41
9343.00,1.40
9342.00,1.40
9341.00,1.40
9340.00,1.40
9339.00,1.40
9338.00,1.40
9337.00,1.40
9336.00,1.40
9335.00,1.40
9334.00,1.40
9333.00,1.39
9332.00,1.39
9331.00,1.39
9330.00,1.39
9329.00,1.39
9328.00,1.40
9327.00,1.40
9326.00,1.40
9325.00,1.40
9324.00,1.40
9323.00,1.40
9322.00,1.41
9321.00,1.41
9320.00,1.41
9319.00,1.41
9318.00,1.42
9317.00,1.42
9316.00,1.42
9315.00,1.42
9314.00,1.42
9313.00,1.42
9312.00,1.42
9311.00,1.42
9310.00,1.42
9309.00,1.42
9308.00,1.42
9307.00,1.42
9306.00,1.42
9305.00,1.42
9304.00,1.41
9303.00,1.41
9302.00,1.41
9301.00,1.41
9300.00,1.41
9299.00,1.41
9298.00,1.41
9297.00,1.41
9296.00,1.41
9295.00,1.41
9294.00,1.41
9293.00,1.41
9292.00,1.41
9291.00,1.41
9290.00,1.41
9289.00,1.41
9288.00,1.41
9287.00,1.40
9286.00,1.40
9285.00,1.40
9284.00,1.40
9283.00,1.40
9282.00,1.40
9281.00,1.39
9280.00,1.39
9279.00,1.39
9278.00,1.39
9277.00,1.39
9276.00,1.39
9275.00,1.38
9274.00,1.38
9273.00,1.38
9272.00,1.38
9271.00,1.38
9270.00,1.38
9269.00,1.38
9268.00,1.39
9267.00,1.39
9266.00,1.39
9265.00,1.39
9264.00,1.39
9263.00,1.39
9262.00,1.40
9261.00,1.40
9260.00,1.40
9259.00,1.40
9258.00,1.40
9257.00,1.40
9256.00,1.40
9255.00,1.40
9254.00,1.40
9253.00,1.40
9252.00,1.40
9251.00,1.39
9250.00,1.39
9249.00,1.39
9248.00,1.39
9247.00,1.39
9246.00,1.39
9245.00,1.38
9244.00,1.38
9243.00,1.38
9242.00,1.38
9241.00,1.38
9240.00,1.38
9239.00,1.38
9238.00,1.38
9237.00,1.38
9236.00,1.38
9235.00,1.38
9234.00,1.38
9233.00,1.38
9232.00,1.38
9231.00,1.38
9230.00,1.38
9229.00,1.39
9228.00,1.39
9227.00,1.39
9226.00,1.40
9225.00,1.40
9224.00,1.40
9223.00,1.41
9222.00,1.41
9221.00,1.42
9220.00,1.42
9219.00,1.42
9218.00,1.43
9217.00,1.43
9216.00,1.43
9215.00,1.43
9214.00,1.43
9213.00,1.43
9212.00,1.43
9211.00,1.43
9210.00,1.43
9209.00,1.43
9208.00,1.43
9207.00,1.42
9206.00,1.42
9205.00,1.42
9204.00,1.41
9203.00,1.41
9202.00,1.41
9201.00,1.40
9200.00,1.40
9199.00,1.40
9198.00,1.40
9197.00,1.40
9196.00,1.39
9195.00,1.39
9194.00,1.39
9193.00,1.40
9192.00,1.40
9191.00,1.40
9190.00,1.40
9189.00,1.40
9188.00,1.40
9187.00,1.40
9186.00,1.40
9185.00,1.40
9184.00,1.41
9183.00,1.41
9182.00,1.41
9181.00,1.41
9180.00,1.41
9179.00,1.41
9178.00,1.41
9177.00,1.41
9176.00,1.41
9175.00,1.41
9174.00,1.41
9173.00,1.40
9172.00,1.40
9171.00,1.40
9170.00,1.40
9169.00,1.40
9168.00,1.39
9167.00,1.39
9166.00,1.39
9165.00,1.39
9164.00,1.38
9163.00,1.38
9162.00,1.38
9161.00,1.38
9160.00,1.38
9159.00,1.38
9158.00,1.38
9157.00,1.38
9156.00,1.38
9155.00,1.38
9154.00,1.38
9153.00,1.38
9152.00,1.38
9151.00,1.38
9150.00,1.39
9149.00,1.39
9148.00,1.39
9147.00,1.39
9146.00,1.39
9145.00,1.40
9144.00,1.40
9143.00,1.40
9142.00,1.40
9141.00,1.40
9140.00,1.41
9139.00,1.41
9138.00,1.41
9137.00,1.41
9136.00,1.41
9135.00,1.41
9134.00,1.41
9133.00,1.41
9132.00,1.41
9131.00,1.41
9130.00,1.41
9129.00,1.41
9128.00,1.41
9127.00,1.41
9126.00,1.41
9125.00,1.41
9124.00,1.41
9123.00,1.41
9122.00,1.41
9121.00,1.41
9120.00,1.42
9119.00,1.42
9118.00,1.42
9117.00,1.42
9116.00,1.42
9115.00,1.42
9114.00,1.42
9113.00,1.42
9112.00,1.42
9111.00,1.42
9110.00,1.42
9109.00,1.42
9108.00,1.42
9107.00,1.42
9106.00,1.42
9105.00,1.42
9104.00,1.42
9103.00,1.42
9102.00,1.42
9101.00,1.42
9100.00,1.42
9099.00,1.42
9098.00,1.42
9097.00,1.42
9096.00,1.42
9095.00,1.42
9094.00,1.42
9093.00,1.42
9092.00,1.42
9091.00,1.42
9090.00,1.43
9089.00,1.43
9088.00,1.43
9087.00,1.43
9086.00,1.43
9085.00,1.43
9084.00,1.43
9083.00,1.43
9082.00,1.43
9081.00,1.43
9080.00,1.43
9079.00,1.43
9078.00,1.43
9077.00,1.43
9076.00,1.43
9075.00,1.43
9074.00,1.43
9073.00,1.43
9072.00,1.43
9071.00,1.43
9070.00,1.43
9069.00,1.43
9068.00,1.43
9067.00,1.43
9066.00,1.43
9065.00,1.43
9064.00,1.43
9063.00,1.43
9062.00,1.43
9061.00,1.44
9060.00,1.44
9059.00,1.44
9058.00,1.44
9057.00,1.43
9056.00,1.43
9055.00,1.43
9054.00,1.43
9053.00,1.43
9052.00,1.43
9051.00,1.42
9050.00,1.42
9049.00,1.42
9048.00,1.42
9047.00,1.42
9046.00,1.42
9045.00,1.41
9044.00,1.41
9043.00,1.41
9042.00,1.41
9041.00,1.41
9040.00,1.41
9039.00,1.41
9038.00,1.41
9037.00,1.41
9036.00,1.41
9035.00,1.41
9034.00,1.41
9033.00,1.41
9032.00,1.41
9031.00,1.41
9030.00,1.41
9029.00,1.41
9028.00,1.41
9027.00,1.41
9026.00,1.40
9025.00,1.40
9024.00,1.40
9023.00,1.40
9022.00,1.40
9021.00,1.40
9020.00,1.40
9019.00,1.40
9018.00,1.40
9017.00,1.40
9016.00,1.40
9015.00,1.40
9014.00,1.40
9013.00,1.40
9012.00,1.41
9011.00,1.41
9010.00,1.41
9009.00,1.41
9008.00,1.41
9007.00,1.41
9006.00,1.41
9005.00,1.41
9004.00,1.41
9003.00,1.41
9002.00,1.41
9001.00,1.41
9000.00,1.41
8999.00,1.41
8998.00,1.41
8997.00,1.41
8996.00,1.41
8995.00,1.41
8994.00,1.41
8993.00,1.41
8992.00,1.41
8991.00,1.41
8990.00,1.41
8989.00,1.41
8988.00,1.41
8987.00,1.41
8986.00,1.40
8985.00,1.40
8984.00,1.40
8983.00,1.41
8982.00,1.41
8981.00,1.41
8980.00,1.41
8979.00,1.41
8978.00,1.41
8977.00,1.41
8976.00,1.41
8975.00,1.41
8974.00,1.41
8973.00,1.41
8972.00,1.41
8971.00,1.41
8970.00,1.41
8969.00,1.41
8968.00,1.41
8967.00,1.41
8966.00,1.41
8965.00,1.41
8964.00,1.41
8963.00,1.41
8962.00,1.41
8961.00,1.41
8960.00,1.41
8959.00,1.41
8958.00,1.41
8957.00,1.41
8956.00,1.40
8955.00,1.40
8954.00,1.40
8953.00,1.40
8952.00,1.40
8951.00,1.40
8950.00,1.40
8949.00,1.41
8948.00,1.41
8947.00,1.41
8946.00,1.41
8945.00,1.41
8944.00,1.41
8943.00,1.41
8942.00,1.41
8941.00,1.41
8940.00,1.41
8939.00,1.41
8938.00,1.41
8937.00,1.40
8936.00,1.40
8935.00,1.40
8934.00,1.40
8933.00,1.40
8932.00,1.40
8931.00,1.40
8930.00,1.40
8929.00,1.40
8928.00,1.40
8927.00,1.40
8926.00,1.40
8925.00,1.40
8924.00,1.41
8923.00,1.41
8922.00,1.41
8921.00,1.41
8920.00,1.42
8919.00,1.42
8918.00,1.42
8917.00,1.42
8916.00,1.43
8915.00,1.43
8914.00,1.43
8913.00,1.43
8912.00,1.43
8911.00,1.44
8910.00,1.44
8909.00,1.44
8908.00,1.44
8907.00,1.43
8906.00,1.43
8905.00,1.43
8904.00,1.43
8903.00,1.43
8902.00,1.43
8901.00,1.43
8900.00,1.42
8899.00,1.42
8898.00,1.42
8897.00,1.42
8896.00,1.42
8895.00,1.42
8894.00,1.42
8893.00,1.42
8892.00,1.42
8891.00,1.42
8890.00,1.42
8889.00,1.42
8888.00,1.42
8887.00,1.42
8886.00,1.42
8885.00,1.42
8884.00,1.42
8883.00,1.42
8882.00,1.42
8881.00,1.42
8880.00,1.42
8879.00,1.42
8878.00,1.42
8877.00,1.42
8876.00,1.42
8875.00,1.42
8874.00,1.42
8873.00,1.42
8872.00,1.42
8871.00,1.42
8870.00,1.42
8869.00,1.42
8868.00,1.41
8867.00,1.41
8866.00,1.41
8865.00,1.41
8864.00,1.41
8863.00,1.41
8862.00,1.41
8861.00,1.41
8860.00,1.41
8859.00,1.41
8858.00,1.41
8857.00,1.41
8856.00,1.41
8855.00,1.41
8854.00,1.41
8853.00,1.41
8852.00,1.41
8851.00,1.41
8850.00,1.41
8849.00,1.41
8848.00,1.41
8847.00,1.41
8846.00,1.40
8845.00,1.40
8844.00,1.40
8843.00,1.40
8842.00,1.40
8841.00,1.40
8840.00,1.40
8839.00,1.40
8838.00,1.40
8837.00,1.39
8836.00,1.39
8835.00,1.39
8834.00,1.39
8833.00,1.39
8832.00,1.39
8831.00,1.39
8830.00,1.39
8829.00,1.39
8828.00,1.39
8827.00,1.39
8826.00,1.39
8825.00,1.39
8824.00,1.39
8823.00,1.39
8822.00,1.39
8821.00,1.39
8820.00,1.39
8819.00,1.39
8818.00,1.40
8817.00,1.40
8816.00,1.40
8815.00,1.40
8814.00,1.40
8813.00,1.40
8812.00,1.40
8811.00,1.40
8810.00,1.40
8809.00,1.40
8808.00,1.40
8807.00,1.40
8806.00,1.40
8805.00,1.40
8804.00,1.40
8803.00,1.40
8802.00,1.40
8801.00,1.40
8800.00,1.39
8799.00,1.39
8798.00,1.39
8797.00,1.39
8796.00,1.39
8795.00,1.39
8794.00,1.39
8793.00,1.39
8792.00,1.39
8791.00,1.39
8790.00,1.38
8789.00,1.38
8788.00,1.38
8787.00,1.38
8786.00,1.38
8785.00,1.38
8784.00,1.38
8783.00,1.38
8782.00,1.37
8781.00,1.37
8780.00,1.37
8779.00,1.37
8778.00,1.37
8777.00,1.37
8776.00,1.37
8775.00,1.36
8774.00,1.36
8773.00,1.36
8772.00,1.36
8771.00,1.36
8770.00,1.36
8769.00,1.36
8768.00,1.36
8767.00,1.36
8766.00,1.36
8765.00,1.37
8764.00,1.37
8763.00,1.37
8762.00,1.37
8761.00,1.37
8760.00,1.37
8759.00,1.37
8758.00,1.37
8757.00,1.37
8756.00,1.38
8755.00,1.38
8754.00,1.38
8753.00,1.38
8752.00,1.38
8751.00,1.38
8750.00,1.38
8749.00,1.38
8748.00,1.38
8747.00,1.38
8746.00,1.38
8745.00,1.37
8744.00,1.37
8743.00,1.37
8742.00,1.37
8741.00,1.37
8740.00,1.37
8739.00,1.36
8738.00,1.36
8737.00,1.36
8736.00,1.36
8735.00,1.36
8734.00,1.36
8733.00,1.35
8732.00,1.35
8731.00,1.35
8730.00,1.35
8729.00,1.35
8728.00,1.35
8727.00,1.35
8726.00,1.35
8725.00,1.35
8724.00,1.35
8723.00,1.35
8722.00,1.35
8721.00,1.35
8720.00,1.35
8719.00,1.35
8718.00,1.35
8717.00,1.35
8716.00,1.35
8715.00,1.35
8714.00,1.35
8713.00,1.35
8712.00,1.35
8711.00,1.35
8710.00,1.35
8709.00,1.35
8708.00,1.35
8707.00,1.35
8706.00,1.35
8705.00,1.35
8704.00,1.36
8703.00,1.36
8702.00,1.36
8701.00,1.36
8700.00,1.36
8699.00,1.36
8698.00,1.36
8697.00,1.36
8696.00,1.36
8695.00,1.36
8694.00,1.36
8693.00,1.36
8692.00,1.36
8691.00,1.36
8690.00,1.36
8689.00,1.36
8688.00,1.36
8687.00,1.36
8686.00,1.36
8685.00,1.36
8684.00,1.36
8683.00,1.36
8682.00,1.36
8681.00,1.36
8680.00,1.35
8679.00,1.35
8678.00,1.35
8677.00,1.35
8676.00,1.35
8675.00,1.35
8674.00,1.35
8673.00,1.35
8672.00,1.35
8671.00,1.35
8670.00,1.35
8669.00,1.35
8668.00,1.35
8667.00,1.35
8666.00,1.35
8665.00,1.35
8664.00,1.35
8663.00,1.35
8662.00,1.35
8661.00,1.35
8660.00,1.35
8659.00,1.35
8658.00,1.35
8657.00,1.35
8656.00,1.35
8655.00,1.35
8654.00,1.35
8653.00,1.35
8652.00,1.35
8651.00,1.35
8650.00,1.35
8649.00,1.36
8648.00,1.36
8647.00,1.36
8646.00,1.36
8645.00,1.36
8644.00,1.36
8643.00,1.35
8642.00,1.35
8641.00,1.35
8640.00,1.35
8639.00,1.35
8638.00,1.34
8637.00,1.34
8636.00,1.34
8635.00,1.34
8634.00,1.33
8633.00,1.33
8632.00,1.33
8631.00,1.33
8630.00,1.33
8629.00,1.33
8628.00,1.32
8627.00,1.32
8626.00,1.32
8625.00,1.32
8624.00,1.32
8623.00,1.32
8622.00,1.32
8621.00,1.32
8620.00,1.33
8619.00,1.33
8618.00,1.33
8617.00,1.33
8616.00,1.33
8615.00,1.33
8614.00,1.33
8613.00,1.33
8612.00,1.33
8611.00,1.33
8610.00,1.33
8609.00,1.33
8608.00,1.33
8607.00,1.34
8606.00,1.34
8605.00,1.34
8604.00,1.34
8603.00,1.34
8602.00,1.34
8601.00,1.34
8600.00,1.34
8599.00,1.34
8598.00,1.34
8597.00,1.34
8596.00,1.34
8595.00,1.34
8594.00,1.34
8593.00,1.34
8592.00,1.34
8591.00,1.34
8590.00,1.34
8589.00,1.34
8588.00,1.34
8587.00,1.34
8586.00,1.34
8585.00,1.34
8584.00,1.34
8583.00,1.34
8582.00,1.34
8581.00,1.34
8580.00,1.34
8579.00,1.34
8578.00,1.34
8577.00,1.34
8576.00,1.34
8575.00,1.34
8574.00,1.34
8573.00,1.34
8572.00,1.34
8571.00,1.34
8570.00,1.35
8569.00,1.35
8568.00,1.35
8567.00,1.35
8566.00,1.34
8565.00,1.34
8564.00,1.34
8563.00,1.34
8562.00,1.34
8561.00,1.34
8560.00,1.34
8559.00,1.34
8558.00,1.33
8557.00,1.33
8556.00,1.33
8555.00,1.33
8554.00,1.33
8553.00,1.32
8552.00,1.32
8551.00,1.32
8550.00,1.32
8549.00,1.32
8548.00,1.32
8547.00,1.32
8546.00,1.32
8545.00,1.32
8544.00,1.31
8543.00,1.31
8542.00,1.31
8541.00,1.31
8540.00,1.31
8539.00,1.31
8538.00,1.31
8537.00,1.31
8536.00,1.31
8535.00,1.31
8534.00,1.32
8533.00,1.32
8532.00,1.32
8531.00,1.32
8530.00,1.32
8529.00,1.32
8528.00,1.32
8527.00,1.33
8526.00,1.33
8525.00,1.33
8524.00,1.33
8523.00,1.33
8522.00,1.33
8521.00,1.33
8520.00,1.33
8519.00,1.33
8518.00,1.33
8517.00,1.33
8516.00,1.33
8515.00,1.33
8514.00,1.33
8513.00,1.33
8512.00,1.33
8511.00,1.33
8510.00,1.33
8509.00,1.33
8508.00,1.33
8507.00,1.33
8506.00,1.33
8505.00,1.33
8504.00,1.32
8503.00,1.32
8502.00,1.32
8501.00,1.32
8500.00,1.32
8499.00,1.32
8498.00,1.32
8497.00,1.32
8496.00,1.32
8495.00,1.32
8494.00,1.32
8493.00,1.32
8492.00,1.32
8491.00,1.32
8490.00,1.32
8489.00,1.32
8488.00,1.32
8487.00,1.31
8486.00,1.31
8485.00,1.31
8484.00,1.30
8483.00,1.30
8482.00,1.30
8481.00,1.30
8480.00,1.29
8479.00,1.29
8478.00,1.29
8477.00,1.29
8476.00,1.28
8475.00,1.28
8474.00,1.28
8473.00,1.28
8472.00,1.28
8471.00,1.28
8470.00,1.28
8469.00,1.28
8468.00,1.28
8467.00,1.28
8466.00,1.28
8465.00,1.28
8464.00,1.28
8463.00,1.28
8462.00,1.28
8461.00,1.28
8460.00,1.28
8459.00,1.28
8458.00,1.28
8457.00,1.28
8456.00,1.28
8455.00,1.28
8454.00,1.27
8453.00,1.27
8452.00,1.27
8451.00,1.27
8450.00,1.27
8449.00,1.26
8448.00,1.26
8447.00,1.26
8446.00,1.26
8445.00,1.26
8444.00,1.26
8443.00,1.26
8442.00,1.26
8441.00,1.26
8440.00,1.26
8439.00,1.26
8438.00,1.26
8437.00,1.26
8436.00,1.26
8435.00,1.26
8434.00,1.26
8433.00,1.26
8432.00,1.26
8431.00,1.27
8430.00,1.27
8429.00,1.27
8428.00,1.27
8427.00,1.27
8426.00,1.27
8425.00,1.27
8424.00,1.27
8423.00,1.27
8422.00,1.27
8421.00,1.27
8420.00,1.27
8419.00,1.27
8418.00,1.27
8417.00,1.27
8416.00,1.27
8415.00,1.27
8414.00,1.27
8413.00,1.27
8412.00,1.27
8411.00,1.27
8410.00,1.27
8409.00,1.27
8408.00,1.27
8407.00,1.27
8406.00,1.27
8405.00,1.27
8404.00,1.27
8403.00,1.27
8402.00,1.27
8401.00,1.27
8400.00,1.27
8399.00,1.27
8398.00,1.27
8397.00,1.27
8396.00,1.27
8395.00,1.27
8394.00,1.27
8393.00,1.27
8392.00,1.27
8391.00,1.28
8390.00,1.28
8389.00,1.28
8388.00,1.28
8387.00,1.28
8386.00,1.29
8385.00,1.29
8384.00,1.29
8383.00,1.29
8382.00,1.30
8381.00,1.30
8380.00,1.30
8379.00,1.30
8378.00,1.30
8377.00,1.30
8376.00,1.31
8375.00,1.31
8374.00,1.31
8373.00,1.31
8372.00,1.31
8371.00,1.31
8370.00,1.31
8369.00,1.31
8368.00,1.30
8367.00,1.30
8366.00,1.30
8365.00,1.30
8364.00,1.31
8363.00,1.31
8362.00,1.31
8361.00,1.31
8360.00,1.31
8359.00,1.31
8358.00,1.31
8357.00,1.31
8356.00,1.31
8355.00,1.31
8354.00,1.32
8353.00,1.32
8352.00,1.32
8351.00,1.32
8350.00,1.32
8349.00,1.32
8348.00,1.32
8347.00,1.32
8346.00,1.32
8345.00,1.32
8344.00,1.32
8343.00,1.32
8342.00,1.32
8341.00,1.32
8340.00,1.32
8339.00,1.32
8338.00,1.32
8337.00,1.32
8336.00,1.32
8335.00,1.32
8334.00,1.32
8333.00,1.32
8332.00,1.31
8331.00,1.31
8330.00,1.31
8329.00,1.31
8328.00,1.31
8327.00,1.31
8326.00,1.31
8325.00,1.31
8324.00,1.31
8323.00,1.31
8322.00,1.31
8321.00,1.31
8320.00,1.31
8319.00,1.32
8318.00,1.32
8317.00,1.32
8316.00,1.32
8315.00,1.32
8314.00,1.32
8313.00,1.32
8312.00,1.32
8311.00,1.32
8310.00,1.32
8309.00,1.32
8308.00,1.32
8307.00,1.32
8306.00,1.32
8305.00,1.32
8304.00,1.32
8303.00,1.32
8302.00,1.32
8301.00,1.32
8300.00,1.32
8299.00,1.32
8298.00,1.32
8297.00,1.32
8296.00,1.31
8295.00,1.31
8294.00,1.31
8293.00,1.31
8292.00,1.31
8291.00,1.31
8290.00,1.31
8289.00,1.31
8288.00,1.31
8287.00,1.31
8286.00,1.31
8285.00,1.31
8284.00,1.31
8283.00,1.31
8282.00,1.31
8281.00,1.31
8280.00,1.31
8279.00,1.32
8278.00,1.32
8277.00,1.32
8276.00,1.32
8275.00,1.32
8274.00,1.32
8273.00,1.32
8272.00,1.33
8271.00,1.33
8270.00,1.33
8269.00,1.33
8268.00,1.33
8267.00,1.33
8266.00,1.33
8265.00,1.33
8264.00,1.33
8263.00,1.33
8262.00,1.33
8261.00,1.33
8260.00,1.33
8259.00,1.33
8258.00,1.33
8257.00,1.32
8256.00,1.32
8255.00,1.32
8254.00,1.32
8253.00,1.32
8252.00,1.32
8251.00,1.31
8250.00,1.31
8249.00,1.31
8248.00,1.31
8247.00,1.31
8246.00,1.31
8245.00,1.31
8244.00,1.31
8243.00,1.31
8242.00,1.31
8241.00,1.31
8240.00,1.31
8239.00,1.32
8238.00,1.32
8237.00,1.32
8236.00,1.32
8235.00,1.32
8234.00,1.32
8233.00,1.33
8232.00,1.33
8231.00,1.33
8230.00,1.33
8229.00,1.33
8228.00,1.33
8227.00,1.34
8226.00,1.34
8225.00,1.34
8224.00,1.34
8223.00,1.34
8222.00,1.34
8221.00,1.34
8220.00,1.35
8219.00,1.35
8218.00,1.35
8217.00,1.35
8216.00,1.35
8215.00,1.35
8214.00,1.35
8213.00,1.35
8212.00,1.35
8211.00,1.35
8210.00,1.35
8209.00,1.35
8208.00,1.35
8207.00,1.35
8206.00,1.35
8205.00,1.35
8204.00,1.35
8203.00,1.35
8202.00,1.35
8201.00,1.35
8200.00,1.35
8199.00,1.35
8198.00,1.35
8197.00,1.35
8196.00,1.35
8195.00,1.35
8194.00,1.35
8193.00,1.35
8192.00,1.35
8191.00,1.35
8190.00,1.35
8189.00,1.35
8188.00,1.35
8187.00,1.35
8186.00,1.35
8185.00,1.35
8184.00,1.35
8183.00,1.35
8182.00,1.35
8181.00,1.34
8180.00,1.34
8179.00,1.34
8178.00,1.34
8177.00,1.34
8176.00,1.34
8175.00,1.34
8174.00,1.34
8173.00,1.34
8172.00,1.34
8171.00,1.34
8170.00,1.34
8169.00,1.34
8168.00,1.34
8167.00,1.34
8166.00,1.34
8165.00,1.34
8164.00,1.34
8163.00,1.34
8162.00,1.34
8161.00,1.34
8160.00,1.34
8159.00,1.34
8158.00,1.34
8157.00,1.34
8156.00,1.34
8155.00,1.34
8154.00,1.34
8153.00,1.34
8152.00,1.34
8151.00,1.34
8150.00,1.34
8149.00,1.34
8148.00,1.35
8147.00,1.35
8146.00,1.35
8145.00,1.35
8144.00,1.35
8143.00,1.35
8142.00,1.35
8141.00,1.35
8140.00,1.35
8139.00,1.35
8138.00,1.35
8137.00,1.35
8136.00,1.35
8135.00,1.35
8134.00,1.35
8133.00,1.35
8132.00,1.35
8131.00,1.35
8130.00,1.35
8129.00,1.35
8128.00,1.35
8127.00,1.35
8126.00,1.36
8125.00,1.36
8124.00,1.36
8123.00,1.36
8122.00,1.36
8121.00,1.36
8120.00,1.36
8119.00,1.36
8118.00,1.36
8117.00,1.36
8116.00,1.36
8115.00,1.36
8114.00,1.36
8113.00,1.36
8112.00,1.36
8111.00,1.36
8110.00,1.36
8109.00,1.36
8108.00,1.36
8107.00,1.36
8106.00,1.36
8105.00,1.36
8104.00,1.36
8103.00,1.36
8102.00,1.36
8101.00,1.36
8100.00,1.36
8099.00,1.36
8098.00,1.37
8097.00,1.37
8096.00,1.37
8095.00,1.37
8094.00,1.37
8093.00,1.37
8092.00,1.37
8091.00,1.37
8090.00,1.37
8089.00,1.37
8088.00,1.38
8087.00,1.38
8086.00,1.38
8085.00,1.38
8084.00,1.38
8083.00,1.38
8082.00,1.38
8081.00,1.38
8080.00,1.38
8079.00,1.38
8078.00,1.38
8077.00,1.38
8076.00,1.38
8075.00,1.38
8074.00,1.38
8073.00,1.38
8072.00,1.38
8071.00,1.38
8070.00,1.38
8069.00,1.38
8068.00,1.38
8067.00,1.38
8066.00,1.38
8065.00,1.38
8064.00,1.38
8063.00,1.37
8062.00,1.37
8061.00,1.37
8060.00,1.37
8059.00,1.37
8058.00,1.37
8057.00,1.37
8056.00,1.37
8055.00,1.37
8054.00,1.37
8053.00,1.38
8052.00,1.38
8051.00,1.38
8050.00,1.38
8049.00,1.38
8048.00,1.38
8047.00,1.38
8046.00,1.38
8045.00,1.38
8044.00,1.38
8043.00,1.39
8042.00,1.39
8041.00,1.39
8040.00,1.39
8039.00,1.39
8038.00,1.39
8037.00,1.39
8036.00,1.39
8035.00,1.39
8034.00,1.39
8033.00,1.39
8032.00,1.39
8031.00,1.39
8030.00,1.39
8029.00,1.39
8028.00,1.39
8027.00,1.38
8026.00,1.38
8025.00,1.38
8024.00,1.38
8023.00,1.38
8022.00,1.39
8021.00,1.39
8020.00,1.39
8019.00,1.39
8018.00,1.39
8017.00,1.39
8016.00,1.39
8015.00,1.39
8014.00,1.39
8013.00,1.39
8012.00,1.40
8011.00,1.40
8010.00,1.40
8009.00,1.40
8008.00,1.40
8007.00,1.40
8006.00,1.40
8005.00,1.40
8004.00,1.40
8003.00,1.40
8002.00,1.40
8001.00,1.40
8000.00,1.40
7999.00,1.40
7998.00,1.40
7997.00,1.40
7996.00,1.40
7995.00,1.40
7994.00,1.40
7993.00,1.40
7992.00,1.40
7991.00,1.40
7990.00,1.40
7989.00,1.40
7988.00,1.40
7987.00,1.40
7986.00,1.40
7985.00,1.39
7984.00,1.39
7983.00,1.39
7982.00,1.39
7981.00,1.39
7980.00,1.39
7979.00,1.39
7978.00,1.39
7977.00,1.39
7976.00,1.39
7975.00,1.39
7974.00,1.39
7973.00,1.39
7972.00,1.39
7971.00,1.39
7970.00,1.39
7969.00,1.39
7968.00,1.39
7967.00,1.39
7966.00,1.39
7965.00,1.39
7964.00,1.39
7963.00,1.39
7962.00,1.39
7961.00,1.39
7960.00,1.39
7959.00,1.39
7958.00,1.39
7957.00,1.39
7956.00,1.39
7955.00,1.39
7954.00,1.39
7953.00,1.39
7952.00,1.39
7951.00,1.39
7950.00,1.39
7949.00,1.39
7948.00,1.39
7947.00,1.39
7946.00,1.39
7945.00,1.39
7944.00,1.39
7943.00,1.39
7942.00,1.39
7941.00,1.39
7940.00,1.40
7939.00,1.40
7938.00,1.40
7937.00,1.40
7936.00,1.40
7935.00,1.40
7934.00,1.40
7933.00,1.40
7932.00,1.40
7931.00,1.40
7930.00,1.40
7929.00,1.40
7928.00,1.40
7927.00,1.39
7926.00,1.39
7925.00,1.39
7924.00,1.39
7923.00,1.39
7922.00,1.39
7921.00,1.39
7920.00,1.39
7919.00,1.40
7918.00,1.40
7917.00,1.40
7916.00,1.40
7915.00,1.40
7914.00,1.40
7913.00,1.40
7912.00,1.40
7911.00,1.40
7910.00,1.40
7909.00,1.40
7908.00,1.40
7907.00,1.40
7906.00,1.40
7905.00,1.40
7904.00,1.40
7903.00,1.40
7902.00,1.40
7901.00,1.40
7900.00,1.40
7899.00,1.40
7898.00,1.40
7897.00,1.40
7896.00,1.40
7895.00,1.40
7894.00,1.40
7893.00,1.40
7892.00,1.40
7891.00,1.40
7890.00,1.40
7889.00,1.40
7888.00,1.40
7887.00,1.40
7886.00,1.40
7885.00,1.40
7884.00,1.40
7883.00,1.40
7882.00,1.40
7881.00,1.40
7880.00,1.40
7879.00,1.40
7878.00,1.41
7877.00,1.41
7876.00,1.41
7875.00,1.41
7874.00,1.41
7873.00,1.41
7872.00,1.41
7871.00,1.41
7870.00,1.41
7869.00,1.41
7868.00,1.41
7867.00,1.41
7866.00,1.41
7865.00,1.42
7864.00,1.42
7863.00,1.42
7862.00,1.42
7861.00,1.42
7860.00,1.42
7859.00,1.42
7858.00,1.42
7857.00,1.42
7856.00,1.42
7855.00,1.42
7854.00,1.42
7853.00,1.42
7852.00,1.42
7851.00,1.42
7850.00,1.42
7849.00,1.42
7848.00,1.42
7847.00,1.42
7846.00,1.42
7845.00,1.42
7844.00,1.42
7843.00,1.42
7842.00,1.42
7841.00,1.42
7840.00,1.42
7839.00,1.42
7838.00,1.42
7837.00,1.42
7836.00,1.41
7835.00,1.41
7834.00,1.41
7833.00,1.42
7832.00,1.42
7831.00,1.42
7830.00,1.42
7829.00,1.42
7828.00,1.42
7827.00,1.42
7826.00,1.42
7825.00,1.42
7824.00,1.42
7823.00,1.42
7822.00,1.42
7821.00,1.42
7820.00,1.42
7819.00,1.42
7818.00,1.42
7817.00,1.41
7816.00,1.41
7815.00,1.41
7814.00,1.41
7813.00,1.41
7812.00,1.41
7811.00,1.41
7810.00,1.41
7809.00,1.41
7808.00,1.41
7807.00,1.41
7806.00,1.41
7805.00,1.41
7804.00,1.42
7803.00,1.42
7802.00,1.42
7801.00,1.42
7800.00,1.42
7799.00,1.42
7798.00,1.42
7797.00,1.42
7796.00,1.43
7795.00,1.43
7794.00,1.43
7793.00,1.43
7792.00,1.43
7791.00,1.43
7790.00,1.43
7789.00,1.43
7788.00,1.43
7787.00,1.43
7786.00,1.43
7785.00,1.42
7784.00,1.42
7783.00,1.42
7782.00,1.42
7781.00,1.42
7780.00,1.42
7779.00,1.42
7778.00,1.42
7777.00,1.42
7776.00,1.42
7775.00,1.42
7774.00,1.42
7773.00,1.42
7772.00,1.42
7771.00,1.42
7770.00,1.42
7769.00,1.42
7768.00,1.42
7767.00,1.42
7766.00,1.42
7765.00,1.42
7764.00,1.42
7763.00,1.42
7762.00,1.42
7761.00,1.42
7760.00,1.42
7759.00,1.42
7758.00,1.42
7757.00,1.42
7756.00,1.42
7755.00,1.42
7754.00,1.42
7753.00,1.42
7752.00,1.42
7751.00,1.42
7750.00,1.42
7749.00,1.42
7748.00,1.42
7747.00,1.42
7746.00,1.42
7745.00,1.42
7744.00,1.42
7743.00,1.42
7742.00,1.42
7741.00,1.42
7740.00,1.42
7739.00,1.42
7738.00,1.42
7737.00,1.42
7736.00,1.42
7735.00,1.42
7734.00,1.42
7733.00,1.42
7732.00,1.42
7731.00,1.42
7730.00,1.42
7729.00,1.42
7728.00,1.42
7727.00,1.42
7726.00,1.42
7725.00,1.42
7724.00,1.42
7723.00,1.42
7722.00,1.43
7721.00,1.43
7720.00,1.43
7719.00,1.43
7718.00,1.43
7717.00,1.43
7716.00,1.43
7715.00,1.43
7714.00,1.43
7713.00,1.44
7712.00,1.44
7711.00,1.44
7710.00,1.44
7709.00,1.44
7708.00,1.44
7707.00,1.44
7706.00,1.44
7705.00,1.43
7704.00,1.43
7703.00,1.43
7702.00,1.43
7701.00,1.43
7700.00,1.43
7699.00,1.43
7698.00,1.43
7697.00,1.43
7696.00,1.43
7695.00,1.43
7694.00,1.43
7693.00,1.43
7692.00,1.43
7691.00,1.43
7690.00,1.43
7689.00,1.43
7688.00,1.43
7687.00,1.43
7686.00,1.43
7685.00,1.43
7684.00,1.43
7683.00,1.43
7682.00,1.43
7681.00,1.43
7680.00,1.43
7679.00,1.43
7678.00,1.43
7677.00,1.43
7676.00,1.44
7675.00,1.44
7674.00,1.44
7673.00,1.44
7672.00,1.44
7671.00,1.44
7670.00,1.44
7669.00,1.44
7668.00,1.44
7667.00,1.44
7666.00,1.44
7665.00,1.44
7664.00,1.43
7663.00,1.43
7662.00,1.43
7661.00,1.43
7660.00,1.43
7659.00,1.43
7658.00,1.43
7657.00,1.43
7656.00,1.43
7655.00,1.43
7654.00,1.43
7653.00,1.43
7652.00,1.43
7651.00,1.43
7650.00,1.43
7649.00,1.43
7648.00,1.43
7647.00,1.43
7646.00,1.43
7645.00,1.43
7644.00,1.43
7643.00,1.43
7642.00,1.43
7641.00,1.43
7640.00,1.43
7639.00,1.42
7638.00,1.42
7637.00,1.42
7636.00,1.42
7635.00,1.42
7634.00,1.42
7633.00,1.42
7632.00,1.42
7631.00,1.42
7630.00,1.42
7629.00,1.42
7628.00,1.42
7627.00,1.42
7626.00,1.42
7625.00,1.42
7624.00,1.42
7623.00,1.42
7622.00,1.42
7621.00,1.42
7620.00,1.43
7619.00,1.43
7618.00,1.43
7617.00,1.43
7616.00,1.43
7615.00,1.43
7614.00,1.43
7613.00,1.43
7612.00,1.43
7611.00,1.43
7610.00,1.43
7609.00,1.44
7608.00,1.44
7607.00,1.44
7606.00,1.44
7605.00,1.44
7604.00,1.44
7603.00,1.44
7602.00,1.44
7601.00,1.44
7600.00,1.44
7599.00,1.44
7598.00,1.44
7597.00,1.44
7596.00,1.44
7595.00,1.44
7594.00,1.44
7593.00,1.44
7592.00,1.44
7591.00,1.44
7590.00,1.43
7589.00,1.43
7588.00,1.43
7587.00,1.43
7586.00,1.43
7585.00,1.43
7584.00,1.43
7583.00,1.43
7582.00,1.43
7581.00,1.43
7580.00,1.43
7579.00,1.44
7578.00,1.44
7577.00,1.44
7576.00,1.44
7575.00,1.44
7574.00,1.44
7573.00,1.44
7572.00,1.44
7571.00,1.44
7570.00,1.43
7569.00,1.43
7568.00,1.43
7567.00,1.43
7566.00,1.43
7565.00,1.43
7564.00,1.43
7563.00,1.43
7562.00,1.42
7561.00,1.42
7560.00,1.42
7559.00,1.42
7558.00,1.42
7557.00,1.42
7556.00,1.42
7555.00,1.42
7554.00,1.42
7553.00,1.42
7552.00,1.42
7551.00,1.42
7550.00,1.42
7549.00,1.42
7548.00,1.42
7547.00,1.42
7546.00,1.43
7545.00,1.43
7544.00,1.43
7543.00,1.43
7542.00,1.43
7541.00,1.43
7540.00,1.43
7539.00,1.43
7538.00,1.43
7537.00,1.43
7536.00,1.43
7535.00,1.43
7534.00,1.43
7533.00,1.43
7532.00,1.43
7531.00,1.43
7530.00,1.43
7529.00,1.43
7528.00,1.43
7527.00,1.43
7526.00,1.43
7525.00,1.42
7524.00,1.42
7523.00,1.42
7522.00,1.42
7521.00,1.42
7520.00,1.42
7519.00,1.42
7518.00,1.42
7517.00,1.42
7516.00,1.41
7515.00,1.41
7514.00,1.41
7513.00,1.41
7512.00,1.41
7511.00,1.41
7510.00,1.41
7509.00,1.41
7508.00,1.41
7507.00,1.41
7506.00,1.41
7505.00,1.41
7504.00,1.40
7503.00,1.40
7502.00,1.40
7501.00,1.40
7500.00,1.40
7499.00,1.40
7498.00,1.40
7497.00,1.40
7496.00,1.40
7495.00,1.40
7494.00,1.40
7493.00,1.40
7492.00,1.40
7491.00,1.40
7490.00,1.40
7489.00,1.40
7488.00,1.40
7487.00,1.40
7486.00,1.40
7485.00,1.40
7484.00,1.40
7483.00,1.40
7482.00,1.40
7481.00,1.40
7480.00,1.40
7479.00,1.40
7478.00,1.40
7477.00,1.40
7476.00,1.40
7475.00,1.40
7474.00,1.39
7473.00,1.39
7472.00,1.39
7471.00,1.39
7470.00,1.39
7469.00,1.39
7468.00,1.39
7467.00,1.39
7466.00,1.39
7465.00,1.39
7464.00,1.39
7463.00,1.39
7462.00,1.39
7461.00,1.39
7460.00,1.39
7459.00,1.39
7458.00,1.39
7457.00,1.39
7456.00,1.40
7455.00,1.40
7454.00,1.40
7453.00,1.40
7452.00,1.40
7451.00,1.40
7450.00,1.40
7449.00,1.40
7448.00,1.40
7447.00,1.40
7446.00,1.40
7445.00,1.40
7444.00,1.40
7443.00,1.40
7442.00,1.40
7441.00,1.40
7440.00,1.39
7439.00,1.39
7438.00,1.39
7437.00,1.39
7436.00,1.39
7435.00,1.39
7434.00,1.39
7433.00,1.39
7432.00,1.39
7431.00,1.39
7430.00,1.39
7429.00,1.39
7428.00,1.39
7427.00,1.39
7426.00,1.39
7425.00,1.39
7424.00,1.39
7423.00,1.39
7422.00,1.39
7421.00,1.38
7420.00,1.38
7419.00,1.38
7418.00,1.38
7417.00,1.38
7416.00,1.38
7415.00,1.38
7414.00,1.38
7413.00,1.38
7412.00,1.38
7411.00,1.38
7410.00,1.38
7409.00,1.38
7408.00,1.38
7407.00,1.38
7406.00,1.38
7405.00,1.38
7404.00,1.38
7403.00,1.38
7402.00,1.38
7401.00,1.38
7400.00,1.38
7399.00,1.38
7398.00,1.37
7397.00,1.37
7396.00,1.37
7395.00,1.37
7394.00,1.37
7393.00,1.37
7392.00,1.37
7391.00,1.37
7390.00,1.37
7389.00,1.36
7388.00,1.36
7387.00,1.36
7386.00,1.36
7385.00,1.36
7384.00,1.36
7383.00,1.36
7382.00,1.35
7381.00,1.35
7380.00,1.35
7379.00,1.35
7378.00,1.35
7377.00,1.35
7376.00,1.35
7375.00,1.34
7374.00,1.34
7373.00,1.34
7372.00,1.34
7371.00,1.34
7370.00,1.34
7369.00,1.34
7368.00,1.34
7367.00,1.34
7366.00,1.34
7365.00,1.34
7364.00,1.34
7363.00,1.34
7362.00,1.34
7361.00,1.34
7360.00,1.34
7359.00,1.34
7358.00,1.34
7357.00,1.34
7356.00,1.34
7355.00,1.34
7354.00,1.35
7353.00,1.35
7352.00,1.35
7351.00,1.35
7350.00,1.35
7349.00,1.35
7348.00,1.35
7347.00,1.35
7346.00,1.35
7345.00,1.35
7344.00,1.35
7343.00,1.35
7342.00,1.35
7341.00,1.35
7340.00,1.35
7339.00,1.35
7338.00,1.34
7337.00,1.34
7336.00,1.34
7335.00,1.34
7334.00,1.34
7333.00,1.34
7332.00,1.34
7331.00,1.34
7330.00,1.34
7329.00,1.34
7328.00,1.34
7327.00,1.34
7326.00,1.34
7325.00,1.34
7324.00,1.34
7323.00,1.34
7322.00,1.34
7321.00,1.34
7320.00,1.34
7319.00,1.34
7318.00,1.34
7317.00,1.34
7316.00,1.34
7315.00,1.33
7314.00,1.33
7313.00,1.33
7312.00,1.33
7311.00,1.33
7310.00,1.33
7309.00,1.33
7308.00,1.33
7307.00,1.33
7306.00,1.33
7305.00,1.33
7304.00,1.33
7303.00,1.33
7302.00,1.33
7301.00,1.32
7300.00,1.32
7299.00,1.32
7298.00,1.32
7297.00,1.32
7296.00,1.32
7295.00,1.32
7294.00,1.32
7293.00,1.32
7292.00,1.32
7291.00,1.32
7290.00,1.32
7289.00,1.32
7288.00,1.32
7287.00,1.32
7286.00,1.31
7285.00,1.31
7284.00,1.31
7283.00,1.31
7282.00,1.31
7281.00,1.31
7280.00,1.31
7279.00,1.31
7278.00,1.30
7277.00,1.30
7276.00,1.30
7275.00,1.30
7274.00,1.30
7273.00,1.30
7272.00,1.29
7271.00,1.29
7270.00,1.29
7269.00,1.29
7268.00,1.29
7267.00,1.29
7266.00,1.29
7265.00,1.29
7264.00,1.28
7263.00,1.28
7262.00,1.28
7261.00,1.28
7260.00,1.28
7259.00,1.28
7258.00,1.28
7257.00,1.28
7256.00,1.28
7255.00,1.28
7254.00,1.28
7253.00,1.28
7252.00,1.27
7251.00,1.27
7250.00,1.27
7249.00,1.27
7248.00,1.27
7247.00,1.27
7246.00,1.27
7245.00,1.27
7244.00,1.27
7243.00,1.26
7242.00,1.26
7241.00,1.26
7240.00,1.26
7239.00,1.26
7238.00,1.26
7237.00,1.25
7236.00,1.25
7235.00,1.25
7234.00,1.24
7233.00,1.24
7232.00,1.24
7231.00,1.23
7230.00,1.23
7229.00,1.23
7228.00,1.23
7227.00,1.22
7226.00,1.22
7225.00,1.22
7224.00,1.21
7223.00,1.21
7222.00,1.21
7221.00,1.20
7220.00,1.20
7219.00,1.20
7218.00,1.20
7217.00,1.19
7216.00,1.19
7215.00,1.19
7214.00,1.19
7213.00,1.19
7212.00,1.18
7211.00,1.18
7210.00,1.18
7209.00,1.18
7208.00,1.17
7207.00,1.17
7206.00,1.17
7205.00,1.17
7204.00,1.16
7203.00,1.16
7202.00,1.16
7201.00,1.16
7200.00,1.15
7199.00,1.15
7198.00,1.15
7197.00,1.14
7196.00,1.14
7195.00,1.14
7194.00,1.14
7193.00,1.13
7192.00,1.13
7191.00,1.13
7190.00,1.13
7189.00,1.12
7188.00,1.12
7187.00,1.12
7186.00,1.12
7185.00,1.11
7184.00,1.11
7183.00,1.11
7182.00,1.11
7181.00,1.10
7180.00,1.10
7179.00,1.10
7178.00,1.10
7177.00,1.10
7176.00,1.09
7175.00,1.09
7174.00,1.09
7173.00,1.09
7172.00,1.09
7171.00,1.08
7170.00,1.08
7169.00,1.08
7168.00,1.08
7167.00,1.07
7166.00,1.07
7165.00,1.07
7164.00,1.07
7163.00,1.07
7162.00,1.06
7161.00,1.06
7160.00,1.06
7159.00,1.06
7158.00,1.06
7157.00,1.06
7156.00,1.06
7155.00,1.05
7154.00,1.05
7153.00,1.05
7152.00,1.05
7151.00,1.05
7150.00,1.05
7149.00,1.05
7148.00,1.04
7147.00,1.04
7146.00,1.04
7145.00,1.04
7144.00,1.03
7143.00,1.03
7142.00,1.03
7141.00,1.03
7140.00,1.02
7139.00,1.02
7138.00,1.02
7137.00,1.01
7136.00,1.01
7135.00,1.01
7134.00,1.00
7133.00,1.00
7132.00,1.00
7131.00,0.99
7130.00,0.99
7129.00,0.99
7128.00,0.98
7127.00,0.98
7126.00,0.98
7125.00,0.97
7124.00,0.97
7123.00,0.97
7122.00,0.96
7121.00,0.96
7120.00,0.96
7119.00,0.95
7118.00,0.95
7117.00,0.95
7116.00,0.95
7115.00,0.94
7114.00,0.94
7113.00,0.94
7112.00,0.94
7111.00,0.94
7110.00,0.93
7109.00,0.93
7108.00,0.93
7107.00,0.93
7106.00,0.93
7105.00,0.93
7104.00,0.93
7103.00,0.92
7102.00,0.92
7101.00,0.92
7100.00,0.92
7099.00,0.92
7098.00,0.92
7097.00,0.92
7096.00,0.91
7095.00,0.91
7094.00,0.91
7093.00,0.91
7092.00,0.91
7091.00,0.91
7090.00,0.90
7089.00,0.90
7088.00,0.90
7087.00,0.90
7086.00,0.90
7085.00,0.90
7084.00,0.89
7083.00,0.89
7082.00,0.89
7081.00,0.89
7080.00,0.89
7079.00,0.89
7078.00,0.88
7077.00,0.88
7076.00,0.88
7075.00,0.88
7074.00,0.88
7073.00,0.88
7072.00,0.87
7071.00,0.87
7070.00,0.87
7069.00,0.87
7068.00,0.87
7067.00,0.87
7066.00,0.86
7065.00,0.86
7064.00,0.86
7063.00,0.86
7062.00,0.86
7061.00,0.85
7060.00,0.85
7059.00,0.85
7058.00,0.85
7057.00,0.85
7056.00,0.84
7055.00,0.84
7054.00,0.84
7053.00,0.84
7052.00,0.84
7051.00,0.84
7050.00,0.83
7049.00,0.83
7048.00,0.83
7047.00,0.83
7046.00,0.83
7045.00,0.83
7044.00,0.82
7043.00,0.82
7042.00,0.82
7041.00,0.82
7040.00,0.82
7039.00,0.81
7038.00,0.81
7037.00,0.81
7036.00,0.81
7035.00,0.81
7034.00,0.81
7033.00,0.81
7032.00,0.81
7031.00,0.80
7030.00,0.80
7029.00,0.80
7028.00,0.80
7027.00,0.80
7026.00,0.80
7025.00,0.80
7024.00,0.80
7023.00,0.80
7022.00,0.80
7021.00,0.80
7020.00,0.80
7019.00,0.80
7018.00,0.79
7017.00,0.79
7016.00,0.79
7015.00,0.79
7014.00,0.79
7013.00,0.79
7012.00,0.79
7011.00,0.79
7010.00,0.79
7009.00,0.78
7008.00,0.78
7007.00,0.78
7006.00,0.78
7005.00,0.78
7004.00,0.78
7003.00,0.78
7002.00,0.78
7001.00,0.78
7000.00,0.78
6999.00,0.78
6998.00,0.78
6997.00,0.77
6996.00,0.77
6995.00,0.77
6994.00,0.77
6993.00,0.77
6992.00,0.77
6991.00,0.77
6990.00,0.77
6989.00,0.77
6988.00,0.77
6987.00,0.77
6986.00,0.77
6985.00,0.77
6984.00,0.77
6983.00,0.77
6982.00,0.77
6981.00,0.77
6980.00,0.77
6979.00,0.77
6978.00,0.77
6977.00,0.77
6976.00,0.77
6975.00,0.77
6974.00,0.77
6973.00,0.77
6972.00,0.77
6971.00,0.77
6970.00,0.77
6969.00,0.77
6968.00,0.77
6967.00,0.77
6966.00,0.77
6965.00,0.76
6964.00,0.76
6963.00,0.76
6962.00,0.76
6961.00,0.76
6960.00,0.76
6959.00,0.75
6958.00,0.75
6957.00,0.75
6956.00,0.75
6955.00,0.75
6954.00,0.74
6953.00,0.74
6952.00,0.74
6951.00,0.74
6950.00,0.74
6949.00,0.74
6948.00,0.74
6947.00,0.74
6946.00,0.74
6945.00,0.74
6944.00,0.74
6943.00,0.74
6942.00,0.74
6941.00,0.74
6940.00,0.74
6939.00,0.74
6938.00,0.74
6937.00,0.74
6936.00,0.74
6935.00,0.74
6934.00,0.74
6933.00,0.74
6932.00,0.74
6931.00,0.74
6930.00,0.73
6929.00,0.73
6928.00,0.73
6927.00,0.73
6926.00,0.73
6925.00,0.73
6924.00,0.73
6923.00,0.73
6922.00,0.73
6921.00,0.73
6920.00,0.73
6919.00,0.73
6918.00,0.73
6917.00,0.73
6916.00,0.73
6915.00,0.73
6914.00,0.73
6913.00,0.73
6912.00,0.73
6911.00,0.72
6910.00,0.72
6909.00,0.72
6908.00,0.72
6907.00,0.72
6906.00,0.72
6905.00,0.72
6904.00,0.72
6903.00,0.72
6902.00,0.72
6901.00,0.72
6900.00,0.72
6899.00,0.72
6898.00,0.72
6897.00,0.72
6896.00,0.72
6895.00,0.72
6894.00,0.72
6893.00,0.72
6892.00,0.72
6891.00,0.72
6890.00,0.72
6889.00,0.72
6888.00,0.72
6887.00,0.72
6886.00,0.72
6885.00,0.72
6884.00,0.72
6883.00,0.72
6882.00,0.72
6881.00,0.72
6880.00,0.72
6879.00,0.72
6878.00,0.72
6877.00,0.72
6876.00,0.72
6875.00,0.72
6874.00,0.72
6873.00,0.71
6872.00,0.71
6871.00,0.71
6870.00,0.71
6869.00,0.71
6868.00,0.71
6867.00,0.71
6866.00,0.71
6865.00,0.71
6864.00,0.71
6863.00,0.71
6862.00,0.71
6861.00,0.71
6860.00,0.71
6859.00,0.71
6858.00,0.71
6857.00,0.71
6856.00,0.71
6855.00,0.71
6854.00,0.71
6853.00,0.71
6852.00,0.71
6851.00,0.71
6850.00,0.71
6849.00,0.71
6848.00,0.71
6847.00,0.71
6846.00,0.71
6845.00,0.71
6844.00,0.71
6843.00,0.72
6842.00,0.72
6841.00,0.72
6840.00,0.72
6839.00,0.72
6838.00,0.72
6837.00,0.72
6836.00,0.72
6835.00,0.72
6834.00,0.72
6833.00,0.72
6832.00,0.72
6831.00,0.72
6830.00,0.72
6829.00,0.72
6828.00,0.72
6827.00,0.72
6826.00,0.72
6825.00,0.72
6824.00,0.72
6823.00,0.72
6822.00,0.72
6821.00,0.72
6820.00,0.72
6819.00,0.72
6818.00,0.72
6817.00,0.72
6816.00,0.72
6815.00,0.72
6814.00,0.72
6813.00,0.72
6812.00,0.72
6811.00,0.72
6810.00,0.73
6809.00,0.73
6808.00,0.73
6807.00,0.73
6806.00,0.73
6805.00,0.73
6804.00,0.73
6803.00,0.73
6802.00,0.73
6801.00,0.73
6800.00,0.73
6799.00,0.73
6798.00,0.73
6797.00,0.73
6796.00,0.73
6795.00,0.74
6794.00,0.74
6793.00,0.74
6792.00,0.74
6791.00,0.74
6790.00,0.74
6789.00,0.74
6788.00,0.74
6787.00,0.74
6786.00,0.74
6785.00,0.74
6784.00,0.74
6783.00,0.74
6782.00,0.74
6781.00,0.74
6780.00,0.74
6779.00,0.75
6778.00,0.75
6777.00,0.75
6776.00,0.75
6775.00,0.75
6774.00,0.75
6773.00,0.75
6772.00,0.75
6771.00,0.75
6770.00,0.75
6769.00,0.75
6768.00,0.75
6767.00,0.75
6766.00,0.75
6765.00,0.76
6764.00,0.76
6763.00,0.76
6762.00,0.76
6761.00,0.76
6760.00,0.76
6759.00,0.77
6758.00,0.77
6757.00,0.77
6756.00,0.77
6755.00,0.77
6754.00,0.77
6753.00,0.77
6752.00,0.77
6751.00,0.77
6750.00,0.77
6749.00,0.77
6748.00,0.77
6747.00,0.77
6746.00,0.77
6745.00,0.77
6744.00,0.77
6743.00,0.77
6742.00,0.77
6741.00,0.77
6740.00,0.77
6739.00,0.77
6738.00,0.77
6737.00,0.77
6736.00,0.78
6735.00,0.78
6734.00,0.78
6733.00,0.78
6732.00,0.78
6731.00,0.78
6730.00,0.78
6729.00,0.78
6728.00,0.78
6727.00,0.78
6726.00,0.78
6725.00,0.78
6724.00,0.79
6723.00,0.79
6722.00,0.79
6721.00,0.79
6720.00,0.79
6719.00,0.79
6718.00,0.79
6717.00,0.79
6716.00,0.79
6715.00,0.79
6714.00,0.79
6713.00,0.79
6712.00,0.80
6711.00,0.80
6710.00,0.80
6709.00,0.80
6708.00,0.80
6707.00,0.80
6706.00,0.80
6705.00,0.80
6704.00,0.80
6703.00,0.80
6702.00,0.80
6701.00,0.80
6700.00,0.80
6699.00,0.80
6698.00,0.80
6697.00,0.80
6696.00,0.80
6695.00,0.80
6694.00,0.81
6693.00,0.81
6692.00,0.81
6691.00,0.81
6690.00,0.81
6689.00,0.81
6688.00,0.81
6687.00,0.81
6686.00,0.81
6685.00,0.81
6684.00,0.82
6683.00,0.82
6682.00,0.82
6681.00,0.82
6680.00,0.82
6679.00,0.82
6678.00,0.82
6677.00,0.82
6676.00,0.83
6675.00,0.83
6674.00,0.83
6673.00,0.83
6672.00,0.83
6671.00,0.83
6670.00,0.83
6669.00,0.83
6668.00,0.83
6667.00,0.84
6666.00,0.84
6665.00,0.84
6664.00,0.84
6663.00,0.84
6662.00,0.84
6661.00,0.84
6660.00,0.84
6659.00,0.84
6658.00,0.84
6657.00,0.84
6656.00,0.84
6655.00,0.85
6654.00,0.85
6653.00,0.85
6652.00,0.85
6651.00,0.85
6650.00,0.85
6649.00,0.85
6648.00,0.85
6647.00,0.85
6646.00,0.85
6645.00,0.85
6644.00,0.86
6643.00,0.86
6642.00,0.86
6641.00,0.86
6640.00,0.86
6639.00,0.86
6638.00,0.86
6637.00,0.86
6636.00,0.86
6635.00,0.86
6634.00,0.87
6633.00,0.87
6632.00,0.87
6631.00,0.87
6630.00,0.87
6629.00,0.87
6628.00,0.87
6627.00,0.87
6626.00,0.87
6625.00,0.87
6624.00,0.87
6623.00,0.87
6622.00,0.87
6621.00,0.87
6620.00,0.87
6619.00,0.87
6618.00,0.87
6617.00,0.87
6616.00,0.88
6615.00,0.88
6614.00,0.88
6613.00,0.88
6612.00,0.88
6611.00,0.88
6610.00,0.88
6609.00,0.88
6608.00,0.89
6607.00,0.89
6606.00,0.89
6605.00,0.89
6604.00,0.89
6603.00,0.89
6602.00,0.89
6601.00,0.89
6600.00,0.89
6599.00,0.89
6598.00,0.89
6597.00,0.90
6596.00,0.90
6595.00,0.90
6594.00,0.90
6593.00,0.90
6592.00,0.90
6591.00,0.91
6590.00,0.91
6589.00,0.91
6588.00,0.91
6587.00,0.91
6586.00,0.91
6585.00,0.92
6584.00,0.92
6583.00,0.92
6582.00,0.92
6581.00,0.92
6580.00,0.92
6579.00,0.92
6578.00,0.92
6577.00,0.92
6576.00,0.92
6575.00,0.92
6574.00,0.93
6573.00,0.93
6572.00,0.93
6571.00,0.93
6570.00,0.93
6569.00,0.93
6568.00,0.93
6567.00,0.93
6566.00,0.93
6565.00,0.93
6564.00,0.93
6563.00,0.93
6562.00,0.93
6561.00,0.93
6560.00,0.93
6559.00,0.93
6558.00,0.93
6557.00,0.94
6556.00,0.94
6555.00,0.94
6554.00,0.94
6553.00,0.94
6552.00,0.94
6551.00,0.94
6550.00,0.94
6549.00,0.95
6548.00,0.95
6547.00,0.95
6546.00,0.95
6545.00,0.95
6544.00,0.95
6543.00,0.95
6542.00,0.95
6541.00,0.96
6540.00,0.96
6539.00,0.96
6538.00,0.96
6537.00,0.96
6536.00,0.96
6535.00,0.96
6534.00,0.96
6533.00,0.96
6532.00,0.96
6531.00,0.96
6530.00,0.96
6529.00,0.96
6528.00,0.96
6527.00,0.96
6526.00,0.96
6525.00,0.96
6524.00,0.96
6523.00,0.96
6522.00,0.96
6521.00,0.97
6520.00,0.97
6519.00,0.97
6518.00,0.97
6517.00,0.97
6516.00,0.97
6515.00,0.97
6514.00,0.97
6513.00,0.97
6512.00,0.97
6511.00,0.97
6510.00,0.97
6509.00,0.97
6508.00,0.97
6507.00,0.97
6506.00,0.97
6505.00,0.97
6504.00,0.97
6503.00,0.97
6502.00,0.97
6501.00,0.98
6500.00,0.98
6499.00,0.98
6498.00,0.98
6497.00,0.98
6496.00,0.98
6495.00,0.98
6494.00,0.98
6493.00,0.98
6492.00,0.98
6491.00,0.98
6490.00,0.98
6489.00,0.98
6488.00,0.98
6487.00,0.98
6486.00,0.98
6485.00,0.99
6484.00,0.99
6483.00,0.99
6482.00,0.99
6481.00,0.99
6480.00,0.99
6479.00,0.99
6478.00,0.99
6477.00,0.99
6476.00,0.99
6475.00,1.00
6474.00,1.00
6473.00,1.00
6472.00,1.00
6471.00,1.00
6470.00,1.00
6469.00,1.00
6468.00,1.00
6467.00,1.00
6466.00,1.00
6465.00,1.00
6464.00,1.00
6463.00,0.99
6462.00,0.99
6461.00,0.99
6460.00,0.99
6459.00,0.99
6458.00,0.99
6457.00,0.99
6456.00,0.99
6455.00,0.99
6454.00,0.99
6453.00,0.99
6452.00,0.99
6451.00,0.99
6450.00,0.99
6449.00,0.99
6448.00,0.99
6447.00,0.99
6446.00,1.00
6445.00,1.00
6444.00,1.00
6443.00,1.00
6442.00,1.00
6441.00,1.00
6440.00,1.01
6439.00,1.01
6438.00,1.01
6437.00,1.01
6436.00,1.01
6435.00,1.01
6434.00,1.01
6433.00,1.01
6432.00,1.01
6431.00,1.01
6430.00,1.01
6429.00,1.01
6428.00,1.01
6427.00,1.01
6426.00,1.01
6425.00,1.01
6424.00,1.01
6423.00,1.01
6422.00,1.01
6421.00,1.01
6420.00,1.01
6419.00,1.01
6418.00,1.01
6417.00,1.01
6416.00,1.01
6415.00,1.01
6414.00,1.01
6413.00,1.01
6412.00,1.01
6411.00,1.01
6410.00,1.01
6409.00,1.01
6408.00,1.01
6407.00,1.01
6406.00,1.01
6405.00,1.01
6404.00,1.02
6403.00,1.02
6402.00,1.02
6401.00,1.02
6400.00,1.02
6399.00,1.02
6398.00,1.02
6397.00,1.02
6396.00,1.02
6395.00,1.02
6394.00,1.02
6393.00,1.02
6392.00,1.02
6391.00,1.02
6390.00,1.02
6389.00,1.03
6388.00,1.03
6387.00,1.03
6386.00,1.03
6385.00,1.03
6384.00,1.03
6383.00,1.03
6382.00,1.03
6381.00,1.03
6380.00,1.03
6379.00,1.03
6378.00,1.03
6377.00,1.03
6376.00,1.03
6375.00,1.03
6374.00,1.03
6373.00,1.03
6372.00,1.03
6371.00,1.03
6370.00,1.03
6369.00,1.03
6368.00,1.03
6367.00,1.03
6366.00,1.03
6365.00,1.03
6364.00,1.03
6363.00,1.03
6362.00,1.03
6361.00,1.03
6360.00,1.03
6359.00,1.03
6358.00,1.03
6357.00,1.03
6356.00,1.04
6355.00,1.04
6354.00,1.04
6353.00,1.04
6352.00,1.04
6351.00,1.04
6350.00,1.04
6349.00,1.04
6348.00,1.04
6347.00,1.04
6346.00,1.04
6345.00,1.04
6344.00,1.04
6343.00,1.05
6342.00,1.05
6341.00,1.05
6340.00,1.05
6339.00,1.05
6338.00,1.05
6337.00,1.05
6336.00,1.05
6335.00,1.05
6334.00,1.05
6333.00,1.05
6332.00,1.05
6331.00,1.06
6330.00,1.06
6329.00,1.06
6328.00,1.06
6327.00,1.06
6326.00,1.06
6325.00,1.06
6324.00,1.06
6323.00,1.06
6322.00,1.06
6321.00,1.06
6320.00,1.06
6319.00,1.06
6318.00,1.06
6317.00,1.06
6316.00,1.07
6315.00,1.07
6314.00,1.07
6313.00,1.07
6312.00,1.07
6311.00,1.07
6310.00,1.07
6309.00,1.07
6308.00,1.07
6307.00,1.07
6306.00,1.08
6305.00,1.08
6304.00,1.08
6303.00,1.08
6302.00,1.08
6301.00,1.08
6300.00,1.08
6299.00,1.09
6298.00,1.09
6297.00,1.09
6296.00,1.09
6295.00,1.09
6294.00,1.09
6293.00,1.09
6292.00,1.09
6291.00,1.09
6290.00,1.09
6289.00,1.09
6288.00,1.09
6287.00,1.09
6286.00,1.09
6285.00,1.09
6284.00,1.09
6283.00,1.09
6282.00,1.09
6281.00,1.10
6280.00,1.10
6279.00,1.10
6278.00,1.10
6277.00,1.10
6276.00,1.10
6275.00,1.10
6274.00,1.10
6273.00,1.10
6272.00,1.11
6271.00,1.11
6270.00,1.11
6269.00,1.11
6268.00,1.11
6267.00,1.11
6266.00,1.11
6265.00,1.11
6264.00,1.12
6263.00,1.12
6262.00,1.12
6261.00,1.12
6260.00,1.12
6259.00,1.12
6258.00,1.12
6257.00,1.12
6256.00,1.12
6255.00,1.12
6254.00,1.12
6253.00,1.12
6252.00,1.13
6251.00,1.13
6250.00,1.13
6249.00,1.13
6248.00,1.13
6247.00,1.13
6246.00,1.13
6245.00,1.13
6244.00,1.13
6243.00,1.13
6242.00,1.13
6241.00,1.13
6240.00,1.13
6239.00,1.13
6238.00,1.13
6237.00,1.14
6236.00,1.14
6235.00,1.14
6234.00,1.14
6233.00,1.14
6232.00,1.14
6231.00,1.14
6230.00,1.15
6229.00,1.15
6228.00,1.15
6227.00,1.15
6226.00,1.15
6225.00,1.16
6224.00,1.16
6223.00,1.16
6222.00,1.16
6221.00,1.16
6220.00,1.16
6219.00,1.17
6218.00,1.17
6217.00,1.17
6216.00,1.17
6215.00,1.17
6214.00,1.17
6213.00,1.17
6212.00,1.17
6211.00,1.18
6210.00,1.18
6209.00,1.18
6208.00,1.18
6207.00,1.18
6206.00,1.18
6205.00,1.18
6204.00,1.18
6203.00,1.18
6202.00,1.18
6201.00,1.18
6200.00,1.18
6199.00,1.18
6198.00,1.18
6197.00,1.18
6196.00,1.18
6195.00,1.19
6194.00,1.19
6193.00,1.19
6192.00,1.19
6191.00,1.19
6190.00,1.19
6189.00,1.19
6188.00,1.19
6187.00,1.19
6186.00,1.20
6185.00,1.20
6184.00,1.20
6183.00,1.20
6182.00,1.20
6181.00,1.20
6180.00,1.20
6179.00,1.20
6178.00,1.20
6177.00,1.20
6176.00,1.20
6175.00,1.20
6174.00,1.20
6173.00,1.21
6172.00,1.21
6171.00,1.21
6170.00,1.21
6169.00,1.21
6168.00,1.21
6167.00,1.21
6166.00,1.21
6165.00,1.21
6164.00,1.22
6163.00,1.22
6162.00,1.22
6161.00,1.22
6160.00,1.22
6159.00,1.22
6158.00,1.23
6157.00,1.23
6156.00,1.23
6155.00,1.23
6154.00,1.24
6153.00,1.24
6152.00,1.24
6151.00,1.24
6150.00,1.24
6149.00,1.24
6148.00,1.24
6147.00,1.25
6146.00,1.25
6145.00,1.25
6144.00,1.25
6143.00,1.25
6142.00,1.25
6141.00,1.25
6140.00,1.25
6139.00,1.25
6138.00,1.25
6137.00,1.26
6136.00,1.26
6135.00,1.26
6134.00,1.26
6133.00,1.26
6132.00,1.26
6131.00,1.27
6130.00,1.27
6129.00,1.27
6128.00,1.27
6127.00,1.27
6126.00,1.27
6125.00,1.27
6124.00,1.28
6123.00,1.28
6122.00,1.28
6121.00,1.28
6120.00,1.28
6119.00,1.28
6118.00,1.28
6117.00,1.29
6116.00,1.29
6115.00,1.29
6114.00,1.29
6113.00,1.29
6112.00,1.29
6111.00,1.29
6110.00,1.29
6109.00,1.30
6108.00,1.30
6107.00,1.30
6106.00,1.30
6105.00,1.30
6104.00,1.30
6103.00,1.30
6102.00,1.31
6101.00,1.31
6100.00,1.31
6099.00,1.31
6098.00,1.31
6097.00,1.31
6096.00,1.31
6095.00,1.31
6094.00,1.31
6093.00,1.31
6092.00,1.31
6091.00,1.31
6090.00,1.31
6089.00,1.32
6088.00,1.32
6087.00,1.32
6086.00,1.32
6085.00,1.32
6084.00,1.32
6083.00,1.32
6082.00,1.32
6081.00,1.32
6080.00,1.32
6079.00,1.32
6078.00,1.32
6077.00,1.32
6076.00,1.32
6075.00,1.32
6074.00,1.32
6073.00,1.33
6072.00,1.33
6071.00,1.33
6070.00,1.33
6069.00,1.33
6068.00,1.33
6067.00,1.33
6066.00,1.33
6065.00,1.33
6064.00,1.34
6063.00,1.34
6062.00,1.34
6061.00,1.34
6060.00,1.34
6059.00,1.34
6058.00,1.34
6057.00,1.34
6056.00,1.34
6055.00,1.34
6054.00,1.34
6053.00,1.34
6052.00,1.34
6051.00,1.34
6050.00,1.34
6049.00,1.34
6048.00,1.34
6047.00,1.35
6046.00,1.35
6045.00,1.35
6044.00,1.35
6043.00,1.35
6042.00,1.35
6041.00,1.35
6040.00,1.35
6039.00,1.35
6038.00,1.35
6037.00,1.35
6036.00,1.35
6035.00,1.35
6034.00,1.36
6033.00,1.36
6032.00,1.36
6031.00,1.36
6030.00,1.36
6029.00,1.36
6028.00,1.36
6027.00,1.36
6026.00,1.36
6025.00,1.36
6024.00,1.36
6023.00,1.36
6022.00,1.36
6021.00,1.36
6020.00,1.36
6019.00,1.36
6018.00,1.36
6017.00,1.36
6016.00,1.36
6015.00,1.36
6014.00,1.36
6013.00,1.36
6012.00,1.36
6011.00,1.36
6010.00,1.36
6009.00,1.36
6008.00,1.36
6007.00,1.36
6006.00,1.36
6005.00,1.36
6004.00,1.36
6003.00,1.35
6002.00,1.35
6001.00,1.35
6000.00,1.35
5999.00,1.35
5998.00,1.35
5997.00,1.35
5996.00,1.35
5995.00,1.34
5994.00,1.34
5993.00,1.34
5992.00,1.34
5991.00,1.34
5990.00,1.34
5989.00,1.33
5988.00,1.33
5987.00,1.33
5986.00,1.33
5985.00,1.33
5984.00,1.32
5983.00,1.32
5982.00,1.32
5981.00,1.32
5980.00,1.31
5979.00,1.31
5978.00,1.31
5977.00,1.30
5976.00,1.30
5975.00,1.30
5974.00,1.29
5973.00,1.29
5972.00,1.29
5971.00,1.28
5970.00,1.28
5969.00,1.27
5968.00,1.27
5967.00,1.26
5966.00,1.25
5965.00,1.25
5964.00,1.24
5963.00,1.23
5962.00,1.23
5961.00,1.22
5960.00,1.21
5959.00,1.21
5958.00,1.20
5957.00,1.19
5956.00,1.18
5955.00,1.18
5954.00,1.17
5953.00,1.16
5952.00,1.16
5951.00,1.15
5950.00,1.14
5949.00,1.14
5948.00,1.13
5947.00,1.13
5946.00,1.12
5945.00,1.12
5944.00,1.12
5943.00,1.11
5942.00,1.11
5941.00,1.11
5940.00,1.11
5939.00,1.11
5938.00,1.10
5937.00,1.10
5936.00,1.10
5935.00,1.10
5934.00,1.10
5933.00,1.10
5932.00,1.10
5931.00,1.10
5930.00,1.10
5929.00,1.10
5928.00,1.10
5927.00,1.10
5926.00,1.10
5925.00,1.09
5924.00,1.09
5923.00,1.09
5922.00,1.09
5921.00,1.09
5920.00,1.08
5919.00,1.08
5918.00,1.08
5917.00,1.07
5916.00,1.07
5915.00,1.07
5914.00,1.07
5913.00,1.06
5912.00,1.06
5911.00,1.06
5910.00,1.05
5909.00,1.05
5908.00,1.05
5907.00,1.04
5906.00,1.04
5905.00,1.04
5904.00,1.04
5903.00,1.04
5902.00,1.04
5901.00,1.04
5900.00,1.04
5899.00,1.04
5898.00,1.04
5897.00,1.04
5896.00,1.04
5895.00,1.04
5894.00,1.04
5893.00,1.05
5892.00,1.05
5891.00,1.05
5890.00,1.05
5889.00,1.06
5888.00,1.06
5887.00,1.06
5886.00,1.06
5885.00,1.07
5884.00,1.07
5883.00,1.07
5882.00,1.07
5881.00,1.08
5880.00,1.08
5879.00,1.08
5878.00,1.08
5877.00,1.08
5876.00,1.09
5875.00,1.09
5874.00,1.09
5873.00,1.09
5872.00,1.09
5871.00,1.10
5870.00,1.10
5869.00,1.10
5868.00,1.10
5867.00,1.10
5866.00,1.11
5865.00,1.11
5864.00,1.11
5863.00,1.11
5862.00,1.11
5861.00,1.12
5860.00,1.12
5859.00,1.12
5858.00,1.12
5857.00,1.12
5856.00,1.12
5855.00,1.13
5854.00,1.13
5853.00,1.13
5852.00,1.13
5851.00,1.13
5850.00,1.13
5849.00,1.13
5848.00,1.13
5847.00,1.13
5846.00,1.13
5845.00,1.13
5844.00,1.13
5843.00,1.13
5842.00,1.13
5841.00,1.13
5840.00,1.13
5839.00,1.13
5838.00,1.13
5837.00,1.13
5836.00,1.13
5835.00,1.13
5834.00,1.13
5833.00,1.13
5832.00,1.13
5831.00,1.13
5830.00,1.13
5829.00,1.13
5828.00,1.13
5827.00,1.13
5826.00,1.13
5825.00,1.13
5824.00,1.13
5823.00,1.13
5822.00,1.13
5821.00,1.13
5820.00,1.13
5819.00,1.13
5818.00,1.13
5817.00,1.14
5816.00,1.14
5815.00,1.14
5814.00,1.14
5813.00,1.14
5812.00,1.14
5811.00,1.14
5810.00,1.14
5809.00,1.14
5808.00,1.13
5807.00,1.13
5806.00,1.13
5805.00,1.13
5804.00,1.13
5803.00,1.13
5802.00,1.13
5801.00,1.13
5800.00,1.12
5799.00,1.12
5798.00,1.12
5797.00,1.12
5796.00,1.12
5795.00,1.12
5794.00,1.11
5793.00,1.11
5792.00,1.11
5791.00,1.11
5790.00,1.11
5789.00,1.10
5788.00,1.10
5787.00,1.10
5786.00,1.10
5785.00,1.10
5784.00,1.09
5783.00,1.09
5782.00,1.09
5781.00,1.09
5780.00,1.09
5779.00,1.08
5778.00,1.08
5777.00,1.08
5776.00,1.08
5775.00,1.08
5774.00,1.08
5773.00,1.08
5772.00,1.08
5771.00,1.08
5770.00,1.08
5769.00,1.08
5768.00,1.08
5767.00,1.08
5766.00,1.08
5765.00,1.08
5764.00,1.09
5763.00,1.09
5762.00,1.09
5761.00,1.09
5760.00,1.10
5759.00,1.10
5758.00,1.10
5757.00,1.10
5756.00,1.11
5755.00,1.11
5754.00,1.11
5753.00,1.12
5752.00,1.12
5751.00,1.12
5750.00,1.13
5749.00,1.13
5748.00,1.13
5747.00,1.14
5746.00,1.14
5745.00,1.14
5744.00,1.15
5743.00,1.15
5742.00,1.15
5741.00,1.16
5740.00,1.16
5739.00,1.16
5738.00,1.17
5737.00,1.17
5736.00,1.17
5735.00,1.17
5734.00,1.17
5733.00,1.18
5732.00,1.18
5731.00,1.18
5730.00,1.18
5729.00,1.18
5728.00,1.19
5727.00,1.19
5726.00,1.19
5725.00,1.19
5724.00,1.19
5723.00,1.19
5722.00,1.20
5721.00,1.20
5720.00,1.20
5719.00,1.20
5718.00,1.20
5717.00,1.20
5716.00,1.20
5715.00,1.20
5714.00,1.20
5713.00,1.20
5712.00,1.20
5711.00,1.20
5710.00,1.20
5709.00,1.20
5708.00,1.20
5707.00,1.20
5706.00,1.20
5705.00,1.20
5704.00,1.20
5703.00,1.20
5702.00,1.20
5701.00,1.20
5700.00,1.19
5699.00,1.19
5698.00,1.19
5697.00,1.19
5696.00,1.19
5695.00,1.19
5694.00,1.19
5693.00,1.18
5692.00,1.18
5691.00,1.18
5690.00,1.18
5689.00,1.18
5688.00,1.18
5687.00,1.18
5686.00,1.18
5685.00,1.17
5684.00,1.17
5683.00,1.17
5682.00,1.17
5681.00,1.17
5680.00,1.17
5679.00,1.17
5678.00,1.17
5677.00,1.17
5676.00,1.17
5675.00,1.17
5674.00,1.17
5673.00,1.17
5672.00,1.17
5671.00,1.17
5670.00,1.17
5669.00,1.17
5668.00,1.17
5667.00,1.17
5666.00,1.18
5665.00,1.18
5664.00,1.18
5663.00,1.18
5662.00,1.18
5661.00,1.18
5660.00,1.18
5659.00,1.18
5658.00,1.18
5657.00,1.19
5656.00,1.19
5655.00,1.19
5654.00,1.19
5653.00,1.19
5652.00,1.20
5651.00,1.20
5650.00,1.20
5649.00,1.20
5648.00,1.20
5647.00,1.21
5646.00,1.21
5645.00,1.21
5644.00,1.21
5643.00,1.21
5642.00,1.22
5641.00,1.22
5640.00,1.22
5639.00,1.22
5638.00,1.22
5637.00,1.23
5636.00,1.23
5635.00,1.23
5634.00,1.23
5633.00,1.23
5632.00,1.23
5631.00,1.23
5630.00,1.24
5629.00,1.24
5628.00,1.24
5627.00,1.24
5626.00,1.24
5625.00,1.24
5624.00,1.25
5623.00,1.25
5622.00,1.25
5621.00,1.25
5620.00,1.25
5619.00,1.25
5618.00,1.26
5617.00,1.26
5616.00,1.26
5615.00,1.26
5614.00,1.26
5613.00,1.27
5612.00,1.27
5611.00,1.27
5610.00,1.27
5609.00,1.27
5608.00,1.27
5607.00,1.28
5606.00,1.28
5605.00,1.28
5604.00,1.28
5603.00,1.28
5602.00,1.28
5601.00,1.28
5600.00,1.29
5599.00,1.29
5598.00,1.29
5597.00,1.29
5596.00,1.29
5595.00,1.29
5594.00,1.29
5593.00,1.29
5592.00,1.30
5591.00,1.30
5590.00,1.30
5589.00,1.30
5588.00,1.30
5587.00,1.30
5586.00,1.30
5585.00,1.30
5584.00,1.30
5583.00,1.30
5582.00,1.30
5581.00,1.31
5580.00,1.31
5579.00,1.31
5578.00,1.31
5577.00,1.31
5576.00,1.31
5575.00,1.31
5574.00,1.31
5573.00,1.31
5572.00,1.31
5571.00,1.32
5570.00,1.32
5569.00,1.32
5568.00,1.32
5567.00,1.32
5566.00,1.32
5565.00,1.32
5564.00,1.33
5563.00,1.33
5562.00,1.33
5561.00,1.33
5560.00,1.33
5559.00,1.34
5558.00,1.34
5557.00,1.34
5556.00,1.34
5555.00,1.34
5554.00,1.34
5553.00,1.34
5552.00,1.35
5551.00,1.35
5550.00,1.35
5549.00,1.35
5548.00,1.35
5547.00,1.35
5546.00,1.35
5545.00,1.35
5544.00,1.35
5543.00,1.35
5542.00,1.35
5541.00,1.35
5540.00,1.35
5539.00,1.35
5538.00,1.35
5537.00,1.36
5536.00,1.36
5535.00,1.36
5534.00,1.36
5533.00,1.36
5532.00,1.36
5531.00,1.36
5530.00,1.36
5529.00,1.36
5528.00,1.36
5527.00,1.36
5526.00,1.36
5525.00,1.37
5524.00,1.37
5523.00,1.37
5522.00,1.37
5521.00,1.37
5520.00,1.37
5519.00,1.37
5518.00,1.37
5517.00,1.37
5516.00,1.37
5515.00,1.37
5514.00,1.37
5513.00,1.37
5512.00,1.37
5511.00,1.37
5510.00,1.37
5509.00,1.37
5508.00,1.37
5507.00,1.37
5506.00,1.37
5505.00,1.38
5504.00,1.38
5503.00,1.38
5502.00,1.38
5501.00,1.38
5500.00,1.38
5499.00,1.38
5498.00,1.38
5497.00,1.38
5496.00,1.38
5495.00,1.38
5494.00,1.38
5493.00,1.38
5492.00,1.38
5491.00,1.38
5490.00,1.38
5489.00,1.38
5488.00,1.38
5487.00,1.39
5486.00,1.39
5485.00,1.39
5484.00,1.39
5483.00,1.39
5482.00,1.39
5481.00,1.39
5480.00,1.39
5479.00,1.39
5478.00,1.40
5477.00,1.40
5476.00,1.40
5475.00,1.40
5474.00,1.40
5473.00,1.40
5472.00,1.41
5471.00,1.41
5470.00,1.41
5469.00,1.41
5468.00,1.41
5467.00,1.41
5466.00,1.41
5465.00,1.42
5464.00,1.42
5463.00,1.42
5462.00,1.42
5461.00,1.42
5460.00,1.42
5459.00,1.42
5458.00,1.42
5457.00,1.42
5456.00,1.42
5455.00,1.42
5454.00,1.42
5453.00,1.42
5452.00,1.42
5451.00,1.42
5450.00,1.42
5449.00,1.42
5448.00,1.42
5447.00,1.42
5446.00,1.42
5445.00,1.42
5444.00,1.42
5443.00,1.42
5442.00,1.42
5441.00,1.42
5440.00,1.42
5439.00,1.42
5438.00,1.42
5437.00,1.43
5436.00,1.43
5435.00,1.43
5434.00,1.43
5433.00,1.43
5432.00,1.43
5431.00,1.43
5430.00,1.43
5429.00,1.43
5428.00,1.43
5427.00,1.43
5426.00,1.43
5425.00,1.43
5424.00,1.44
5423.00,1.44
5422.00,1.44
5421.00,1.44
5420.00,1.44
5419.00,1.44
5418.00,1.44
5417.00,1.44
5416.00,1.44
5415.00,1.44
5414.00,1.44
5413.00,1.44
5412.00,1.44
5411.00,1.44
5410.00,1.44
5409.00,1.44
5408.00,1.44
5407.00,1.44
5406.00,1.44
5405.00,1.44
5404.00,1.44
5403.00,1.44
5402.00,1.44
5401.00,1.44
5400.00,1.44
5399.00,1.44
5398.00,1.44
5397.00,1.44
5396.00,1.44
5395.00,1.44
5394.00,1.44
5393.00,1.44
5392.00,1.44
5391.00,1.44
5390.00,1.44
5389.00,1.44
5388.00,1.43
5387.00,1.43
5386.00,1.43
5385.00,1.43
5384.00,1.43
5383.00,1.43
5382.00,1.43
5381.00,1.43
5380.00,1.42
5379.00,1.42
5378.00,1.42
5377.00,1.42
5376.00,1.42
5375.00,1.41
5374.00,1.41
5373.00,1.41
5372.00,1.41
5371.00,1.40
5370.00,1.40
5369.00,1.40
5368.00,1.39
5367.00,1.39
5366.00,1.39
5365.00,1.38
5364.00,1.38
5363.00,1.37
5362.00,1.37
5361.00,1.36
5360.00,1.36
5359.00,1.35
5358.00,1.35
5357.00,1.34
5356.00,1.34
5355.00,1.33
5354.00,1.33
5353.00,1.32
5352.00,1.31
5351.00,1.31
5350.00,1.30
5349.00,1.29
5348.00,1.28
5347.00,1.28
5346.00,1.27
5345.00,1.26
5344.00,1.25
5343.00,1.24
5342.00,1.23
5341.00,1.22
5340.00,1.22
5339.00,1.21
5338.00,1.20
5337.00,1.19
5336.00,1.18
5335.00,1.17
5334.00,1.16
5333.00,1.15
5332.00,1.14
5331.00,1.13
5330.00,1.12
5329.00,1.11
5328.00,1.10
5327.00,1.09
5326.00,1.08
5325.00,1.07
5324.00,1.05
5323.00,1.04
5322.00,1.03
5321.00,1.02
5320.00,1.01
5319.00,1.00
5318.00,0.98
5317.00,0.97
5316.00,0.96
5315.00,0.95
5314.00,0.94
5313.00,0.92
5312.00,0.91
5311.00,0.90
5310.00,0.89
5309.00,0.88
5308.00,0.87
5307.00,0.86
5306.00,0.84
5305.00,0.83
5304.00,0.82
5303.00,0.81
5302.00,0.81
5301.00,0.80
5300.00,0.79
5299.00,0.78
5298.00,0.77
5297.00,0.77
5296.00,0.76
5295.00,0.75
5294.00,0.74
5293.00,0.74
5292.00,0.73
5291.00,0.73
5290.00,0.72
5289.00,0.72
5288.00,0.71
5287.00,0.71
5286.00,0.70
5285.00,0.70
5284.00,0.69
5283.00,0.69
5282.00,0.68
5281.00,0.68
5280.00,0.68
5279.00,0.67
5278.00,0.67
5277.00,0.67
5276.00,0.66
5275.00,0.66
5274.00,0.66
5273.00,0.65
5272.00,0.65
5271.00,0.65
5270.00,0.65
5269.00,0.64
5268.00,0.64
5267.00,0.64
5266.00,0.64
5265.00,0.63
5264.00,0.63
5263.00,0.63
5262.00,0.63
5261.00,0.63
5260.00,0.63
5259.00,0.62
5258.00,0.62
5257.00,0.62
5256.00,0.62
5255.00,0.62
5254.00,0.62
5253.00,0.62
5252.00,0.61
5251.00,0.61
5250.00,0.61
5249.00,0.61
5248.00,0.61
5247.00,0.61
5246.00,0.61
5245.00,0.60
5244.00,0.60
5243.00,0.60
5242.00,0.60
5241.00,0.60
5240.00,0.60
5239.00,0.60
5238.00,0.60
5237.00,0.59
5236.00,0.59
5235.00,0.59
5234.00,0.59
5233.00,0.59
5232.00,0.59
5231.00,0.59
5230.00,0.59
5229.00,0.59
5228.00,0.59
5227.00,0.59
5226.00,0.59
5225.00,0.59
5224.00,0.59
5223.00,0.59
5222.00,0.59
5221.00,0.59
5220.00,0.59
5219.00,0.59
5218.00,0.59
5217.00,0.59
5216.00,0.59
5215.00,0.59
5214.00,0.59
5213.00,0.59
5212.00,0.59
5211.00,0.59
5210.00,0.58
5209.00,0.58
5208.00,0.58
5207.00,0.58
5206.00,0.58
5205.00,0.58
5204.00,0.58
5203.00,0.58
5202.00,0.58
5201.00,0.58
5200.00,0.58
5199.00,0.58
5198.00,0.58
5197.00,0.58
5196.00,0.58
5195.00,0.58
5194.00,0.58
5193.00,0.58
5192.00,0.58
5191.00,0.58
5190.00,0.58
5189.00,0.58
5188.00,0.58
5187.00,0.59
5186.00,0.59
5185.00,0.59
5184.00,0.59
5183.00,0.59
5182.00,0.59
5181.00,0.59
5180.00,0.59
5179.00,0.59
5178.00,0.59
5177.00,0.59
5176.00,0.59
5175.00,0.59
5174.00,0.59
5173.00,0.59
5172.00,0.60
5171.00,0.60
5170.00,0.60
5169.00,0.60
5168.00,0.60
5167.00,0.60
5166.00,0.60
5165.00,0.60
5164.00,0.60
5163.00,0.60
5162.00,0.60
5161.00,0.60
5160.00,0.60
5159.00,0.60
5158.00,0.60
5157.00,0.60
5156.00,0.61
5155.00,0.61
5154.00,0.61
5153.00,0.61
5152.00,0.61
5151.00,0.61
5150.00,0.61
5149.00,0.61
5148.00,0.61
5147.00,0.61
5146.00,0.61
5145.00,0.61
5144.00,0.61
5143.00,0.61
5142.00,0.61
5141.00,0.61
5140.00,0.61
5139.00,0.61
5138.00,0.61
5137.00,0.61
5136.00,0.61
5135.00,0.61
5134.00,0.62
5133.00,0.62
5132.00,0.62
5131.00,0.62
5130.00,0.62
5129.00,0.62
5128.00,0.62
5127.00,0.62
5126.00,0.62
5125.00,0.62
5124.00,0.62
5123.00,0.62
5122.00,0.62
5121.00,0.62
5120.00,0.62
5119.00,0.62
5118.00,0.62
5117.00,0.63
5116.00,0.63
5115.00,0.63
5114.00,0.63
5113.00,0.63
5112.00,0.63
5111.00,0.63
5110.00,0.63
5109.00,0.63
5108.00,0.63
5107.00,0.63
5106.00,0.63
5105.00,0.63
5104.00,0.63
5103.00,0.63
5102.00,0.64
5101.00,0.64
5100.00,0.64
5099.00,0.64
5098.00,0.64
5097.00,0.64
5096.00,0.64
5095.00,0.64
5094.00,0.64
5093.00,0.65
5092.00,0.65
5091.00,0.65
5090.00,0.65
5089.00,0.65
5088.00,0.65
5087.00,0.65
5086.00,0.66
5085.00,0.66
5084.00,0.66
5083.00,0.66
5082.00,0.66
5081.00,0.66
5080.00,0.66
5079.00,0.66
5078.00,0.66
5077.00,0.66
5076.00,0.67
5075.00,0.67
5074.00,0.67
5073.00,0.67
5072.00,0.67
5071.00,0.67
5070.00,0.67
5069.00,0.67
5068.00,0.68
5067.00,0.68
5066.00,0.68
5065.00,0.68
5064.00,0.68
5063.00,0.68
5062.00,0.68
5061.00,0.69
5060.00,0.69
5059.00,0.69
5058.00,0.69
5057.00,0.69
5056.00,0.69
5055.00,0.69
5054.00,0.69
5053.00,0.70
5052.00,0.70
5051.00,0.70
5050.00,0.70
5049.00,0.70
5048.00,0.70
5047.00,0.71
5046.00,0.71
5045.00,0.71
5044.00,0.71
5043.00,0.71
5042.00,0.71
5041.00,0.72
5040.00,0.72
5039.00,0.72
5038.00,0.72
5037.00,0.72
5036.00,0.73
5035.00,0.73
5034.00,0.73
5033.00,0.73
5032.00,0.73
5031.00,0.73
5030.00,0.73
5029.00,0.74
5028.00,0.74
5027.00,0.74
5026.00,0.74
5025.00,0.74
5024.00,0.74
5023.00,0.75
5022.00,0.75
5021.00,0.75
5020.00,0.75
5019.00,0.75
5018.00,0.76
5017.00,0.76
5016.00,0.76
5015.00,0.76
5014.00,0.77
5013.00,0.77
5012.00,0.77
5011.00,0.77
5010.00,0.77
5009.00,0.77
5008.00,0.77
5007.00,0.78
5006.00,0.78
5005.00,0.78
5004.00,0.78
5003.00,0.78
5002.00,0.78
5001.00,0.78
5000.00,0.79
4999.00,0.79
4998.00,0.79
4997.00,0.79
4996.00,0.79
4995.00,0.79
4994.00,0.80
4993.00,0.80
4992.00,0.80
4991.00,0.80
4990.00,0.80
4989.00,0.80
4988.00,0.81
4987.00,0.81
4986.00,0.81
4985.00,0.81
4984.00,0.81
4983.00,0.81
4982.00,0.81
4981.00,0.82
4980.00,0.82
4979.00,0.82
4978.00,0.82
4977.00,0.82
4976.00,0.82
4975.00,0.83
4974.00,0.83
4973.00,0.83
4972.00,0.83
4971.00,0.83
4970.00,0.83
4969.00,0.83
4968.00,0.84
4967.00,0.84
4966.00,0.84
4965.00,0.84
4964.00,0.84
4963.00,0.84
4962.00,0.84
4961.00,0.84
4960.00,0.85
4959.00,0.85
4958.00,0.85
4957.00,0.85
4956.00,0.85
4955.00,0.85
4954.00,0.85
4953.00,0.86
4952.00,0.86
4951.00,0.86
4950.00,0.86
4949.00,0.86
4948.00,0.86
4947.00,0.86
4946.00,0.86
4945.00,0.86
4944.00,0.86
4943.00,0.87
4942.00,0.87
4941.00,0.87
4940.00,0.87
4939.00,0.87
4938.00,0.87
4937.00,0.87
4936.00,0.87
4935.00,0.87
4934.00,0.87
4933.00,0.87
4932.00,0.87
4931.00,0.87
4930.00,0.87
4929.00,0.87
4928.00,0.87
4927.00,0.87
4926.00,0.87
4925.00,0.88
4924.00,0.88
4923.00,0.88
4922.00,0.88
4921.00,0.88
4920.00,0.88
4919.00,0.88
4918.00,0.88
4917.00,0.88
4916.00,0.88
4915.00,0.88
4914.00,0.88
4913.00,0.88
4912.00,0.88
4911.00,0.88
4910.00,0.88
4909.00,0.89
4908.00,0.89
4907.00,0.89
4906.00,0.89
4905.00,0.89
4904.00,0.89
4903.00,0.89
4902.00,0.89
4901.00,0.89
4900.00,0.89
4899.00,0.89
4898.00,0.89
4897.00,0.89
4896.00,0.89
4895.00,0.89
4894.00,0.89
4893.00,0.89
4892.00,0.89
4891.00,0.89
4890.00,0.89
4889.00,0.89
4888.00,0.89
4887.00,0.89
4886.00,0.89
4885.00,0.89
4884.00,0.89
4883.00,0.89
4882.00,0.89
4881.00,0.89
4880.00,0.90
4879.00,0.90
4878.00,0.90
4877.00,0.90
4876.00,0.90
4875.00,0.90
4874.00,0.90
4873.00,0.90
4872.00,0.90
4871.00,0.90
4870.00,0.90
4869.00,0.90
4868.00,0.90
4867.00,0.90
4866.00,0.90
4865.00,0.90
4864.00,0.90
4863.00,0.90
4862.00,0.90
4861.00,0.90
4860.00,0.90
4859.00,0.90
4858.00,0.91
4857.00,0.91
4856.00,0.91
4855.00,0.91
4854.00,0.91
4853.00,0.91
4852.00,0.91
4851.00,0.91
4850.00,0.91
4849.00,0.91
4848.00,0.92
4847.00,0.92
4846.00,0.92
4845.00,0.92
4844.00,0.92
4843.00,0.92
4842.00,0.92
4841.00,0.92
4840.00,0.92
4839.00,0.92
4838.00,0.92
4837.00,0.92
4836.00,0.92
4835.00,0.92
4834.00,0.92
4833.00,0.92
4832.00,0.93
4831.00,0.93
4830.00,0.93
4829.00,0.93
4828.00,0.93
4827.00,0.93
4826.00,0.93
4825.00,0.94
4824.00,0.94
4823.00,0.94
4822.00,0.94
4821.00,0.94
4820.00,0.94
4819.00,0.94
4818.00,0.94
4817.00,0.94
4816.00,0.94
4815.00,0.94
4814.00,0.95
4813.00,0.95
4812.00,0.95
4811.00,0.95
4810.00,0.95
4809.00,0.95
4808.00,0.95
4807.00,0.95
4806.00,0.95
4805.00,0.96
4804.00,0.96
4803.00,0.96
4802.00,0.96
4801.00,0.96
4800.00,0.96
4799.00,0.97
4798.00,0.97
4797.00,0.97
4796.00,0.97
4795.00,0.97
4794.00,0.97
4793.00,0.98
4792.00,0.98
4791.00,0.98
4790.00,0.98
4789.00,0.98
4788.00,0.98
4787.00,0.99
4786.00,0.99
4785.00,0.99
4784.00,0.99
4783.00,0.99
4782.00,1.00
4781.00,1.00
4780.00,1.00
4779.00,1.00
4778.00,1.01
4777.00,1.01
4776.00,1.01
4775.00,1.01
4774.00,1.02
4773.00,1.02
4772.00,1.02
4771.00,1.03
4770.00,1.03
4769.00,1.03
4768.00,1.03
4767.00,1.04
4766.00,1.04
4765.00,1.04
4764.00,1.04
4763.00,1.05
4762.00,1.05
4761.00,1.05
4760.00,1.05
4759.00,1.05
4758.00,1.06
4757.00,1.06
4756.00,1.06
4755.00,1.06
4754.00,1.06
4753.00,1.07
4752.00,1.07
4751.00,1.07
4750.00,1.07
4749.00,1.07
4748.00,1.07
4747.00,1.08
4746.00,1.08
4745.00,1.08
4744.00,1.08
4743.00,1.08
4742.00,1.09
4741.00,1.09
4740.00,1.09
4739.00,1.09
4738.00,1.10
4737.00,1.10
4736.00,1.10
4735.00,1.10
4734.00,1.10
4733.00,1.10
4732.00,1.11
4731.00,1.11
4730.00,1.11
4729.00,1.11
4728.00,1.11
4727.00,1.12
4726.00,1.12
4725.00,1.12
4724.00,1.12
4723.00,1.12
4722.00,1.13
4721.00,1.13
4720.00,1.13
4719.00,1.14
4718.00,1.14
4717.00,1.14
4716.00,1.14
4715.00,1.15
4714.00,1.15
4713.00,1.15
4712.00,1.16
4711.00,1.16
4710.00,1.16
4709.00,1.16
4708.00,1.16
4707.00,1.17
4706.00,1.17
4705.00,1.17
4704.00,1.17
4703.00,1.17
4702.00,1.18
4701.00,1.18
4700.00,1.18
4699.00,1.18
4698.00,1.18
4697.00,1.19
4696.00,1.19
4695.00,1.19
4694.00,1.19
4693.00,1.20
4692.00,1.20
4691.00,1.20
4690.00,1.20
4689.00,1.20
4688.00,1.21
4687.00,1.21
4686.00,1.21
4685.00,1.21
4684.00,1.21
4683.00,1.22
4682.00,1.22
4681.00,1.22
4680.00,1.22
4679.00,1.22
4678.00,1.23
4677.00,1.23
4676.00,1.23
4675.00,1.23
4674.00,1.23
4673.00,1.24
4672.00,1.24
4671.00,1.24
4670.00,1.24
4669.00,1.25
4668.00,1.25
4667.00,1.25
4666.00,1.25
4665.00,1.26
4664.00,1.26
4663.00,1.26
4662.00,1.26
4661.00,1.27
4660.00,1.27
4659.00,1.27
4658.00,1.27
4657.00,1.27
4656.00,1.28
4655.00,1.28
4654.00,1.28
4653.00,1.28
4652.00,1.29
4651.00,1.29
4650.00,1.29
4649.00,1.29
4648.00,1.29
4647.00,1.29
4646.00,1.30
4645.00,1.30
4644.00,1.30
4643.00,1.30
4642.00,1.30
4641.00,1.30
4640.00,1.30
4639.00,1.31
4638.00,1.31
4637.00,1.31
4636.00,1.31
4635.00,1.31
4634.00,1.31
4633.00,1.31
4632.00,1.32
4631.00,1.32
4630.00,1.32
4629.00,1.32
4628.00,1.32
4627.00,1.32
4626.00,1.32
4625.00,1.32
4624.00,1.32
4623.00,1.32
4622.00,1.33
4621.00,1.33
4620.00,1.33
4619.00,1.33
4618.00,1.33
4617.00,1.33
4616.00,1.33
4615.00,1.33
4614.00,1.33
4613.00,1.33
4612.00,1.33
4611.00,1.33
4610.00,1.33
4609.00,1.34
4608.00,1.34
4607.00,1.34
4606.00,1.34
4605.00,1.34
4604.00,1.34
4603.00,1.34
4602.00,1.35
4601.00,1.35
4600.00,1.35
4599.00,1.35
4598.00,1.35
4597.00,1.35
4596.00,1.36
4595.00,1.36
4594.00,1.36
4593.00,1.36
4592.00,1.36
4591.00,1.36
4590.00,1.37
4589.00,1.37
4588.00,1.37
4587.00,1.37
4586.00,1.37
4585.00,1.37
4584.00,1.37
4583.00,1.38
4582.00,1.38
4581.00,1.38
4580.00,1.38
4579.00,1.38
4578.00,1.38
4577.00,1.38
4576.00,1.38
4575.00,1.38
4574.00,1.38
4573.00,1.38
4572.00,1.38
4571.00,1.38
4570.00,1.38
4569.00,1.39
4568.00,1.39
4567.00,1.39
4566.00,1.39
4565.00,1.39
4564.00,1.39
4563.00,1.39
4562.00,1.40
4561.00,1.40
4560.00,1.40
4559.00,1.40
4558.00,1.40
4557.00,1.40
4556.00,1.40
4555.00,1.40
4554.00,1.40
4553.00,1.41
4552.00,1.41
4551.00,1.41
4550.00,1.41
4549.00,1.41
4548.00,1.41
4547.00,1.41
4546.00,1.41
4545.00,1.42
4544.00,1.42
4543.00,1.42
4542.00,1.42
4541.00,1.42
4540.00,1.43
4539.00,1.43
4538.00,1.43
4537.00,1.43
4536.00,1.43
4535.00,1.43
4534.00,1.44
4533.00,1.44
4532.00,1.44
4531.00,1.44
4530.00,1.44
4529.00,1.44
4528.00,1.44
4527.00,1.44
4526.00,1.44
4525.00,1.44
4524.00,1.44
4523.00,1.44
4522.00,1.44
4521.00,1.44
4520.00,1.44
4519.00,1.44
4518.00,1.44
4517.00,1.44
4516.00,1.44
4515.00,1.44
4514.00,1.44
4513.00,1.44
4512.00,1.44
4511.00,1.44
4510.00,1.44
4509.00,1.44
4508.00,1.44
4507.00,1.44
4506.00,1.44
4505.00,1.44
4504.00,1.44
4503.00,1.44
4502.00,1.43
4501.00,1.43
4500.00,1.43
4499.00,1.43
4498.00,1.43
4497.00,1.43
4496.00,1.43
4495.00,1.43
4494.00,1.43
4493.00,1.43
4492.00,1.43
4491.00,1.43
4490.00,1.43
4489.00,1.43
4488.00,1.42
4487.00,1.42
4486.00,1.42
4485.00,1.42
4484.00,1.42
4483.00,1.41
4482.00,1.41
4481.00,1.41
4480.00,1.40
4479.00,1.40
4478.00,1.40
4477.00,1.39
4476.00,1.39
4475.00,1.39
4474.00,1.38
4473.00,1.38
4472.00,1.37
4471.00,1.37
4470.00,1.36
4469.00,1.36
4468.00,1.35
4467.00,1.35
4466.00,1.34
4465.00,1.34
4464.00,1.33
4463.00,1.33
4462.00,1.32
4461.00,1.32
4460.00,1.31
4459.00,1.31
4458.00,1.30
4457.00,1.29
4456.00,1.29
4455.00,1.28
4454.00,1.28
4453.00,1.27
4452.00,1.26
4451.00,1.26
4450.00,1.25
4449.00,1.24
4448.00,1.24
4447.00,1.23
4446.00,1.22
4445.00,1.21
4444.00,1.21
4443.00,1.20
4442.00,1.19
4441.00,1.18
4440.00,1.18
4439.00,1.17
4438.00,1.16
4437.00,1.15
4436.00,1.14
4435.00,1.14
4434.00,1.13
4433.00,1.12
4432.00,1.11
4431.00,1.11
4430.00,1.10
4429.00,1.09
4428.00,1.09
4427.00,1.08
4426.00,1.08
4425.00,1.07
4424.00,1.07
4423.00,1.06
4422.00,1.06
4421.00,1.05
4420.00,1.05
4419.00,1.05
4418.00,1.05
4417.00,1.04
4416.00,1.04
4415.00,1.04
4414.00,1.04
4413.00,1.04
4412.00,1.03
4411.00,1.03
4410.00,1.03
4409.00,1.03
4408.00,1.03
4407.00,1.03
4406.00,1.03
4405.00,1.03
4404.00,1.03
4403.00,1.03
4402.00,1.03
4401.00,1.03
4400.00,1.03
4399.00,1.04
4398.00,1.04
4397.00,1.04
4396.00,1.04
4395.00,1.04
4394.00,1.05
4393.00,1.05
4392.00,1.05
4391.00,1.05
4390.00,1.06
4389.00,1.06
4388.00,1.06
4387.00,1.07
4386.00,1.07
4385.00,1.07
4384.00,1.07
4383.00,1.08
4382.00,1.08
4381.00,1.08
4380.00,1.08
4379.00,1.09
4378.00,1.09
4377.00,1.09
4376.00,1.09
4375.00,1.09
4374.00,1.09
4373.00,1.10
4372.00,1.10
4371.00,1.10
4370.00,1.10
4369.00,1.10
4368.00,1.10
4367.00,1.10
4366.00,1.10
4365.00,1.10
4364.00,1.10
4363.00,1.10
4362.00,1.10
4361.00,1.10
4360.00,1.10
4359.00,1.10
4358.00,1.10
4357.00,1.09
4356.00,1.09
4355.00,1.09
4354.00,1.09
4353.00,1.09
4352.00,1.08
4351.00,1.08
4350.00,1.08
4349.00,1.08
4348.00,1.08
4347.00,1.08
4346.00,1.08
4345.00,1.08
4344.00,1.08
4343.00,1.08
4342.00,1.08
4341.00,1.08
4340.00,1.08
4339.00,1.08
4338.00,1.08
4337.00,1.08
4336.00,1.08
4335.00,1.09
4334.00,1.09
4333.00,1.09
4332.00,1.09
4331.00,1.10
4330.00,1.10
4329.00,1.10
4328.00,1.10
4327.00,1.11
4326.00,1.11
4325.00,1.11
4324.00,1.11
4323.00,1.12
4322.00,1.12
4321.00,1.12
4320.00,1.12
4319.00,1.13
4318.00,1.13
4317.00,1.13
4316.00,1.14
4315.00,1.14
4314.00,1.14
4313.00,1.15
4312.00,1.15
4311.00,1.16
4310.00,1.16
4309.00,1.16
4308.00,1.17
4307.00,1.17
4306.00,1.18
4305.00,1.18
4304.00,1.18
4303.00,1.19
4302.00,1.19
4301.00,1.20
4300.00,1.20
4299.00,1.21
4298.00,1.21
4297.00,1.22
4296.00,1.22
4295.00,1.22
4294.00,1.23
4293.00,1.23
4292.00,1.24
4291.00,1.24
4290.00,1.25
4289.00,1.25
4288.00,1.25
4287.00,1.25
4286.00,1.26
4285.00,1.26
4284.00,1.26
4283.00,1.26
4282.00,1.26
4281.00,1.26
4280.00,1.26
4279.00,1.26
4278.00,1.26
4277.00,1.26
4276.00,1.26
4275.00,1.26
4274.00,1.26
4273.00,1.26
4272.00,1.26
4271.00,1.26
4270.00,1.25
4269.00,1.25
4268.00,1.25
4267.00,1.25
4266.00,1.25
4265.00,1.25
4264.00,1.25
4263.00,1.24
4262.00,1.24
4261.00,1.24
4260.00,1.24
4259.00,1.24
4258.00,1.24
4257.00,1.24
4256.00,1.23
4255.00,1.23
4254.00,1.23
4253.00,1.23
4252.00,1.23
4251.00,1.23
4250.00,1.23
4249.00,1.24
4248.00,1.24
4247.00,1.24
4246.00,1.24
4245.00,1.24
4244.00,1.24
4243.00,1.25
4242.00,1.25
4241.00,1.25
4240.00,1.25
4239.00,1.26
4238.00,1.26
4237.00,1.26
4236.00,1.26
4235.00,1.27
4234.00,1.27
4233.00,1.27
4232.00,1.27
4231.00,1.28
4230.00,1.28
4229.00,1.28
4228.00,1.29
4227.00,1.29
4226.00,1.29
4225.00,1.30
4224.00,1.30
4223.00,1.30
4222.00,1.30
4221.00,1.31
4220.00,1.31
4219.00,1.31
4218.00,1.32
4217.00,1.32
4216.00,1.32
4215.00,1.32
4214.00,1.32
4213.00,1.32
4212.00,1.33
4211.00,1.33
4210.00,1.33
4209.00,1.33
4208.00,1.33
4207.00,1.33
4206.00,1.33
4205.00,1.33
4204.00,1.33
4203.00,1.33
4202.00,1.33
4201.00,1.33
4200.00,1.33
4199.00,1.33
4198.00,1.34
4197.00,1.34
4196.00,1.34
4195.00,1.34
4194.00,1.34
4193.00,1.34
4192.00,1.34
4191.00,1.34
4190.00,1.34
4189.00,1.34
4188.00,1.34
4187.00,1.34
4186.00,1.34
4185.00,1.34
4184.00,1.34
4183.00,1.34
4182.00,1.34
4181.00,1.34
4180.00,1.34
4179.00,1.34
4178.00,1.34
4177.00,1.34
4176.00,1.34
4175.00,1.34
4174.00,1.34
4173.00,1.34
4172.00,1.34
4171.00,1.34
4170.00,1.34
4169.00,1.34
4168.00,1.34
4167.00,1.35
4166.00,1.35
4165.00,1.35
4164.00,1.35
4163.00,1.36
4162.00,1.36
4161.00,1.36
4160.00,1.36
4159.00,1.37
4158.00,1.37
4157.00,1.37
4156.00,1.37
4155.00,1.37
4154.00,1.37
4153.00,1.37
4152.00,1.37
4151.00,1.37
4150.00,1.37
4149.00,1.37
4148.00,1.37
4147.00,1.37
4146.00,1.37
4145.00,1.36
4144.00,1.36
4143.00,1.36
4142.00,1.36
4141.00,1.36
4140.00,1.36
4139.00,1.36
4138.00,1.36
4137.00,1.36
4136.00,1.36
4135.00,1.36
4134.00,1.36
4133.00,1.36
4132.00,1.36
4131.00,1.35
4130.00,1.35
4129.00,1.35
4128.00,1.35
4127.00,1.35
4126.00,1.35
4125.00,1.35
4124.00,1.35
4123.00,1.35
4122.00,1.35
4121.00,1.35
4120.00,1.35
4119.00,1.35
4118.00,1.35
4117.00,1.35
4116.00,1.35
4115.00,1.35
4114.00,1.35
4113.00,1.34
4112.00,1.34
4111.00,1.34
4110.00,1.34
4109.00,1.34
4108.00,1.34
4107.00,1.34
4106.00,1.34
4105.00,1.34
4104.00,1.34
4103.00,1.34
4102.00,1.34
4101.00,1.34
4100.00,1.34
4099.00,1.34
4098.00,1.34
4097.00,1.34
4096.00,1.34
4095.00,1.34
4094.00,1.34
4093.00,1.34
4092.00,1.34
4091.00,1.34
4090.00,1.34
4089.00,1.34
4088.00,1.34
4087.00,1.34
4086.00,1.34
4085.00,1.34
4084.00,1.34
4083.00,1.34
4082.00,1.34
4081.00,1.34
4080.00,1.34
4079.00,1.34
4078.00,1.34
4077.00,1.35
4076.00,1.35
4075.00,1.35
4074.00,1.35
4073.00,1.35
4072.00,1.35
4071.00,1.35
4070.00,1.35
4069.00,1.35
4068.00,1.35
4067.00,1.35
4066.00,1.35
4065.00,1.36
4064.00,1.36
4063.00,1.36
4062.00,1.36
4061.00,1.36
4060.00,1.36
4059.00,1.36
4058.00,1.36
4057.00,1.36
4056.00,1.36
4055.00,1.37
4054.00,1.37
4053.00,1.37
4052.00,1.37
4051.00,1.37
4050.00,1.37
4049.00,1.37
4048.00,1.37
4047.00,1.37
4046.00,1.37
4045.00,1.37
4044.00,1.37
4043.00,1.38
4042.00,1.38
4041.00,1.38
4040.00,1.38
4039.00,1.38
4038.00,1.39
4037.00,1.39
4036.00,1.39
4035.00,1.39
4034.00,1.40
4033.00,1.40
4032.00,1.40
4031.00,1.40
4030.00,1.41
4029.00,1.41
4028.00,1.41
4027.00,1.42
4026.00,1.42
4025.00,1.42
4024.00,1.42
4023.00,1.43
4022.00,1.43
4021.00,1.43
4020.00,1.43
4019.00,1.43
4018.00,1.43
4017.00,1.44
4016.00,1.44
4015.00,1.44
4014.00,1.44
4013.00,1.44
4012.00,1.44
4011.00,1.44
4010.00,1.44
4009.00,1.44
4008.00,1.44
4007.00,1.44
4006.00,1.44
4005.00,1.44
4004.00,1.44
4003.00,1.44
4002.00,1.43
4001.00,1.43
4000.00,1.43
