创建为新数据集,样品 078 用户 Administrator 日期 星期日, 十一月 05 2017
cm-1,%T
10000.00,1.30
9999.00,1.30
9998.00,1.30
9997.00,1.30
9996.00,1.30
9995.00,1.30
9994.00,1.30
9993.00,1.30
9992.00,1.30
9991.00,1.30
9990.00,1.30
9989.00,1.30
9988.00,1.30
9987.00,1.30
9986.00,1.30
9985.00,1.30
9984.00,1.30
9983.00,1.30
9982.00,1.30
9981.00,1.30
9980.00,1.30
9979.00,1.30
9978.00,1.30
9977.00,1.30
9976.00,1.30
9975.00,1.30
9974.00,1.30
9973.00,1.30
9972.00,1.30
9971.00,1.30
9970.00,1.30
9969.00,1.30
9968.00,1.30
9967.00,1.30
9966.00,1.30
9965.00,1.30
9964.00,1.30
9963.00,1.30
9962.00,1.30
9961.00,1.30
9960.00,1.30
9959.00,1.30
9958.00,1.29
9957.00,1.29
9956.00,1.29
9955.00,1.29
9954.00,1.29
9953.00,1.29
9952.00,1.29
9951.00,1.29
9950.00,1.29
9949.00,1.29
9948.00,1.29
9947.00,1.29
9946.00,1.29
9945.00,1.29
9944.00,1.28
9943.00,1.28
9942.00,1.28
9941.00,1.28
9940.00,1.28
9939.00,1.27
9938.00,1.27
9937.00,1.26
9936.00,1.26
9935.00,1.25
9934.00,1.25
9933.00,1.24
9932.00,1.24
9931.00,1.24
9930.00,1.23
9929.00,1.23
9928.00,1.22
9927.00,1.22
9926.00,1.22
9925.00,1.21
9924.00,1.21
9923.00,1.21
9922.00,1.21
9921.00,1.21
9920.00,1.21
9919.00,1.21
9918.00,1.21
9917.00,1.21
9916.00,1.21
9915.00,1.21
9914.00,1.21
9913.00,1.21
9912.00,1.21
9911.00,1.21
9910.00,1.22
9909.00,1.22
9908.00,1.22
9907.00,1.22
9906.00,1.22
9905.00,1.23
9904.00,1.23
9903.00,1.23
9902.00,1.23
9901.00,1.24
9900.00,1.24
9899.00,1.24
9898.00,1.24
9897.00,1.24
9896.00,1.24
9895.00,1.24
9894.00,1.25
9893.00,1.25
9892.00,1.25
9891.00,1.25
9890.00,1.25
9889.00,1.25
9888.00,1.25
9887.00,1.26
9886.00,1.26
9885.00,1.26
9884.00,1.26
9883.00,1.26
9882.00,1.27
9881.00,1.27
9880.00,1.27
9879.00,1.27
9878.00,1.27
9877.00,1.27
9876.00,1.27
9875.00,1.27
9874.00,1.27
9873.00,1.27
9872.00,1.27
9871.00,1.27
9870.00,1.27
9869.00,1.27
9868.00,1.27
9867.00,1.27
9866.00,1.27
9865.00,1.27
9864.00,1.27
9863.00,1.27
9862.00,1.27
9861.00,1.27
9860.00,1.27
9859.00,1.27
9858.00,1.27
9857.00,1.27
9856.00,1.27
9855.00,1.27
9854.00,1.27
9853.00,1.27
9852.00,1.27
9851.00,1.27
9850.00,1.27
9849.00,1.27
9848.00,1.27
9847.00,1.27
9846.00,1.27
9845.00,1.26
9844.00,1.26
9843.00,1.26
9842.00,1.26
9841.00,1.26
9840.00,1.25
9839.00,1.25
9838.00,1.25
9837.00,1.25
9836.00,1.25
9835.00,1.25
9834.00,1.25
9833.00,1.25
9832.00,1.25
9831.00,1.25
9830.00,1.25
9829.00,1.25
9828.00,1.25
9827.00,1.25
9826.00,1.25
9825.00,1.25
9824.00,1.25
9823.00,1.25
9822.00,1.25
9821.00,1.25
9820.00,1.25
9819.00,1.25
9818.00,1.25
9817.00,1.25
9816.00,1.25
9815.00,1.25
9814.00,1.25
9813.00,1.25
9812.00,1.25
9811.00,1.25
9810.00,1.25
9809.00,1.25
9808.00,1.25
9807.00,1.25
9806.00,1.25
9805.00,1.25
9804.00,1.25
9803.00,1.25
9802.00,1.25
9801.00,1.25
9800.00,1.25
9799.00,1.25
9798.00,1.25
9797.00,1.26
9796.00,1.26
9795.00,1.26
9794.00,1.26
9793.00,1.26
9792.00,1.26
9791.00,1.26
9790.00,1.26
9789.00,1.26
9788.00,1.26
9787.00,1.26
9786.00,1.26
9785.00,1.26
9784.00,1.25
9783.00,1.25
9782.00,1.25
9781.00,1.25
9780.00,1.25
9779.00,1.24
9778.00,1.24
9777.00,1.24
9776.00,1.24
9775.00,1.23
9774.00,1.23
9773.00,1.23
9772.00,1.23
9771.00,1.23
9770.00,1.23
9769.00,1.23
9768.00,1.23
9767.00,1.23
9766.00,1.23
9765.00,1.23
9764.00,1.23
9763.00,1.24
9762.00,1.24
9761.00,1.24
9760.00,1.24
9759.00,1.25
9758.00,1.25
9757.00,1.25
9756.00,1.25
9755.00,1.25
9754.00,1.25
9753.00,1.25
9752.00,1.25
9751.00,1.25
9750.00,1.25
9749.00,1.25
9748.00,1.25
9747.00,1.24
9746.00,1.24
9745.00,1.24
9744.00,1.24
9743.00,1.24
9742.00,1.24
9741.00,1.24
9740.00,1.24
9739.00,1.24
9738.00,1.24
9737.00,1.24
9736.00,1.24
9735.00,1.25
9734.00,1.25
9733.00,1.25
9732.00,1.26
9731.00,1.26
9730.00,1.26
9729.00,1.27
9728.00,1.27
9727.00,1.27
9726.00,1.28
9725.00,1.28
9724.00,1.28
9723.00,1.29
9722.00,1.29
9721.00,1.29
9720.00,1.29
9719.00,1.29
9718.00,1.30
9717.00,1.30
9716.00,1.30
9715.00,1.30
9714.00,1.29
9713.00,1.29
9712.00,1.29
9711.00,1.29
9710.00,1.29
9709.00,1.28
9708.00,1.28
9707.00,1.28
9706.00,1.27
9705.00,1.27
9704.00,1.26
9703.00,1.26
9702.00,1.25
9701.00,1.25
9700.00,1.25
9699.00,1.24
9698.00,1.24
9697.00,1.24
9696.00,1.23
9695.00,1.23
9694.00,1.23
9693.00,1.23
9692.00,1.23
9691.00,1.23
9690.00,1.23
9689.00,1.23
9688.00,1.24
9687.00,1.24
9686.00,1.24
9685.00,1.24
9684.00,1.24
9683.00,1.25
9682.00,1.25
9681.00,1.25
9680.00,1.25
9679.00,1.26
9678.00,1.26
9677.00,1.26
9676.00,1.26
9675.00,1.26
9674.00,1.26
9673.00,1.26
9672.00,1.26
9671.00,1.26
9670.00,1.26
9669.00,1.26
9668.00,1.26
9667.00,1.26
9666.00,1.25
9665.00,1.25
9664.00,1.25
9663.00,1.25
9662.00,1.25
9661.00,1.24
9660.00,1.24
9659.00,1.24
9658.00,1.24
9657.00,1.24
9656.00,1.25
9655.00,1.25
9654.00,1.25
9653.00,1.25
9652.00,1.25
9651.00,1.26
9650.00,1.26
9649.00,1.26
9648.00,1.26
9647.00,1.26
9646.00,1.26
9645.00,1.26
9644.00,1.26
9643.00,1.26
9642.00,1.26
9641.00,1.26
9640.00,1.26
9639.00,1.25
9638.00,1.25
9637.00,1.25
9636.00,1.25
9635.00,1.25
9634.00,1.24
9633.00,1.24
9632.00,1.24
9631.00,1.24
9630.00,1.24
9629.00,1.24
9628.00,1.24
9627.00,1.24
9626.00,1.24
9625.00,1.24
9624.00,1.25
9623.00,1.25
9622.00,1.25
9621.00,1.25
9620.00,1.25
9619.00,1.25
9618.00,1.25
9617.00,1.25
9616.00,1.25
9615.00,1.25
9614.00,1.25
9613.00,1.25
9612.00,1.25
9611.00,1.25
9610.00,1.25
9609.00,1.25
9608.00,1.25
9607.00,1.25
9606.00,1.25
9605.00,1.25
9604.00,1.25
9603.00,1.25
9602.00,1.25
9601.00,1.25
9600.00,1.25
9599.00,1.26
9598.00,1.26
9597.00,1.26
9596.00,1.26
9595.00,1.26
9594.00,1.26
9593.00,1.26
9592.00,1.26
9591.00,1.26
9590.00,1.26
9589.00,1.26
9588.00,1.26
9587.00,1.26
9586.00,1.26
9585.00,1.26
9584.00,1.26
9583.00,1.26
9582.00,1.26
9581.00,1.26
9580.00,1.26
9579.00,1.26
9578.00,1.26
9577.00,1.26
9576.00,1.26
9575.00,1.26
9574.00,1.26
9573.00,1.26
9572.00,1.26
9571.00,1.26
9570.00,1.26
9569.00,1.25
9568.00,1.25
9567.00,1.25
9566.00,1.25
9565.00,1.24
9564.00,1.24
9563.00,1.24
9562.00,1.23
9561.00,1.23
9560.00,1.23
9559.00,1.23
9558.00,1.22
9557.00,1.22
9556.00,1.22
9555.00,1.22
9554.00,1.22
9553.00,1.22
9552.00,1.22
9551.00,1.22
9550.00,1.22
9549.00,1.22
9548.00,1.22
9547.00,1.23
9546.00,1.23
9545.00,1.23
9544.00,1.23
9543.00,1.23
9542.00,1.23
9541.00,1.23
9540.00,1.24
9539.00,1.24
9538.00,1.24
9537.00,1.24
9536.00,1.24
9535.00,1.24
9534.00,1.24
9533.00,1.24
9532.00,1.24
9531.00,1.23
9530.00,1.24
9529.00,1.24
9528.00,1.24
9527.00,1.24
9526.00,1.24
9525.00,1.24
9524.00,1.24
9523.00,1.24
9522.00,1.24
9521.00,1.25
9520.00,1.25
9519.00,1.25
9518.00,1.25
9517.00,1.25
9516.00,1.26
9515.00,1.26
9514.00,1.26
9513.00,1.26
9512.00,1.26
9511.00,1.26
9510.00,1.26
9509.00,1.26
9508.00,1.26
9507.00,1.27
9506.00,1.27
9505.00,1.27
9504.00,1.27
9503.00,1.27
9502.00,1.27
9501.00,1.27
9500.00,1.27
9499.00,1.27
9498.00,1.27
9497.00,1.27
9496.00,1.27
9495.00,1.27
9494.00,1.27
9493.00,1.27
9492.00,1.27
9491.00,1.27
9490.00,1.27
9489.00,1.27
9488.00,1.27
9487.00,1.27
9486.00,1.27
9485.00,1.27
9484.00,1.27
9483.00,1.27
9482.00,1.27
9481.00,1.27
9480.00,1.27
9479.00,1.27
9478.00,1.27
9477.00,1.27
9476.00,1.27
9475.00,1.27
9474.00,1.26
9473.00,1.26
9472.00,1.26
9471.00,1.26
9470.00,1.25
9469.00,1.25
9468.00,1.25
9467.00,1.25
9466.00,1.25
9465.00,1.25
9464.00,1.25
9463.00,1.25
9462.00,1.25
9461.00,1.25
9460.00,1.25
9459.00,1.25
9458.00,1.25
9457.00,1.25
9456.00,1.25
9455.00,1.25
9454.00,1.25
9453.00,1.25
9452.00,1.25
9451.00,1.25
9450.00,1.25
9449.00,1.25
9448.00,1.25
9447.00,1.25
9446.00,1.25
9445.00,1.24
9444.00,1.24
9443.00,1.24
9442.00,1.24
9441.00,1.24
9440.00,1.23
9439.00,1.23
9438.00,1.23
9437.00,1.22
9436.00,1.22
9435.00,1.22
9434.00,1.21
9433.00,1.21
9432.00,1.21
9431.00,1.21
9430.00,1.21
9429.00,1.21
9428.00,1.21
9427.00,1.21
9426.00,1.21
9425.00,1.22
9424.00,1.22
9423.00,1.22
9422.00,1.23
9421.00,1.23
9420.00,1.23
9419.00,1.24
9418.00,1.24
9417.00,1.24
9416.00,1.24
9415.00,1.25
9414.00,1.25
9413.00,1.25
9412.00,1.25
9411.00,1.25
9410.00,1.25
9409.00,1.25
9408.00,1.25
9407.00,1.24
9406.00,1.24
9405.00,1.24
9404.00,1.24
9403.00,1.24
9402.00,1.24
9401.00,1.23
9400.00,1.23
9399.00,1.23
9398.00,1.23
9397.00,1.23
9396.00,1.23
9395.00,1.23
9394.00,1.23
9393.00,1.23
9392.00,1.23
9391.00,1.23
9390.00,1.24
9389.00,1.24
9388.00,1.24
9387.00,1.24
9386.00,1.25
9385.00,1.25
9384.00,1.25
9383.00,1.25
9382.00,1.25
9381.00,1.26
9380.00,1.26
9379.00,1.26
9378.00,1.26
9377.00,1.26
9376.00,1.27
9375.00,1.27
9374.00,1.27
9373.00,1.27
9372.00,1.27
9371.00,1.27
9370.00,1.27
9369.00,1.27
9368.00,1.27
9367.00,1.27
9366.00,1.27
9365.00,1.26
9364.00,1.26
9363.00,1.26
9362.00,1.26
9361.00,1.26
9360.00,1.25
9359.00,1.25
9358.00,1.25
9357.00,1.25
9356.00,1.25
9355.00,1.25
9354.00,1.25
9353.00,1.25
9352.00,1.25
9351.00,1.25
9350.00,1.25
9349.00,1.25
9348.00,1.25
9347.00,1.26
9346.00,1.26
9345.00,1.26
9344.00,1.26
9343.00,1.27
9342.00,1.27
9341.00,1.27
9340.00,1.27
9339.00,1.27
9338.00,1.27
9337.00,1.27
9336.00,1.27
9335.00,1.27
9334.00,1.27
9333.00,1.27
9332.00,1.27
9331.00,1.27
9330.00,1.27
9329.00,1.27
9328.00,1.27
9327.00,1.27
9326.00,1.27
9325.00,1.27
9324.00,1.27
9323.00,1.27
9322.00,1.27
9321.00,1.27
9320.00,1.27
9319.00,1.27
9318.00,1.27
9317.00,1.27
9316.00,1.27
9315.00,1.27
9314.00,1.26
9313.00,1.26
9312.00,1.26
9311.00,1.26
9310.00,1.26
9309.00,1.26
9308.00,1.26
9307.00,1.26
9306.00,1.26
9305.00,1.26
9304.00,1.26
9303.00,1.26
9302.00,1.25
9301.00,1.25
9300.00,1.25
9299.00,1.25
9298.00,1.25
9297.00,1.25
9296.00,1.25
9295.00,1.25
9294.00,1.25
9293.00,1.25
9292.00,1.25
9291.00,1.26
9290.00,1.26
9289.00,1.26
9288.00,1.26
9287.00,1.27
9286.00,1.27
9285.00,1.27
9284.00,1.28
9283.00,1.28
9282.00,1.28
9281.00,1.29
9280.00,1.29
9279.00,1.29
9278.00,1.29
9277.00,1.29
9276.00,1.29
9275.00,1.29
9274.00,1.29
9273.00,1.29
9272.00,1.29
9271.00,1.29
9270.00,1.28
9269.00,1.28
9268.00,1.28
9267.00,1.28
9266.00,1.27
9265.00,1.27
9264.00,1.27
9263.00,1.27
9262.00,1.27
9261.00,1.27
9260.00,1.27
9259.00,1.27
9258.00,1.27
9257.00,1.27
9256.00,1.27
9255.00,1.27
9254.00,1.27
9253.00,1.27
9252.00,1.27
9251.00,1.27
9250.00,1.27
9249.00,1.27
9248.00,1.27
9247.00,1.27
9246.00,1.27
9245.00,1.28
9244.00,1.28
9243.00,1.28
9242.00,1.28
9241.00,1.28
9240.00,1.28
9239.00,1.28
9238.00,1.28
9237.00,1.28
9236.00,1.28
9235.00,1.28
9234.00,1.28
9233.00,1.28
9232.00,1.28
9231.00,1.28
9230.00,1.28
9229.00,1.28
9228.00,1.28
9227.00,1.28
9226.00,1.28
9225.00,1.28
9224.00,1.28
9223.00,1.28
9222.00,1.27
9221.00,1.27
9220.00,1.27
9219.00,1.27
9218.00,1.27
9217.00,1.27
9216.00,1.27
9215.00,1.27
9214.00,1.26
9213.00,1.26
9212.00,1.26
9211.00,1.26
9210.00,1.26
9209.00,1.26
9208.00,1.26
9207.00,1.26
9206.00,1.26
9205.00,1.26
9204.00,1.26
9203.00,1.26
9202.00,1.26
9201.00,1.27
9200.00,1.27
9199.00,1.27
9198.00,1.27
9197.00,1.27
9196.00,1.27
9195.00,1.27
9194.00,1.27
9193.00,1.27
9192.00,1.28
9191.00,1.28
9190.00,1.28
9189.00,1.28
9188.00,1.28
9187.00,1.28
9186.00,1.28
9185.00,1.28
9184.00,1.28
9183.00,1.28
9182.00,1.28
9181.00,1.28
9180.00,1.28
9179.00,1.28
9178.00,1.28
9177.00,1.28
9176.00,1.28
9175.00,1.28
9174.00,1.28
9173.00,1.28
9172.00,1.28
9171.00,1.28
9170.00,1.28
9169.00,1.28
9168.00,1.28
9167.00,1.28
9166.00,1.28
9165.00,1.28
9164.00,1.28
9163.00,1.28
9162.00,1.28
9161.00,1.28
9160.00,1.28
9159.00,1.28
9158.00,1.28
9157.00,1.27
9156.00,1.27
9155.00,1.27
9154.00,1.27
9153.00,1.27
9152.00,1.26
9151.00,1.26
9150.00,1.26
9149.00,1.26
9148.00,1.25
9147.00,1.25
9146.00,1.25
9145.00,1.25
9144.00,1.25
9143.00,1.25
9142.00,1.25
9141.00,1.25
9140.00,1.25
9139.00,1.26
9138.00,1.26
9137.00,1.26
9136.00,1.26
9135.00,1.26
9134.00,1.27
9133.00,1.27
9132.00,1.27
9131.00,1.27
9130.00,1.27
9129.00,1.27
9128.00,1.27
9127.00,1.27
9126.00,1.27
9125.00,1.27
9124.00,1.27
9123.00,1.27
9122.00,1.27
9121.00,1.27
9120.00,1.27
9119.00,1.27
9118.00,1.27
9117.00,1.27
9116.00,1.27
9115.00,1.27
9114.00,1.27
9113.00,1.27
9112.00,1.27
9111.00,1.27
9110.00,1.27
9109.00,1.27
9108.00,1.27
9107.00,1.27
9106.00,1.27
9105.00,1.27
9104.00,1.27
9103.00,1.27
9102.00,1.27
9101.00,1.27
9100.00,1.27
9099.00,1.27
9098.00,1.27
9097.00,1.27
9096.00,1.27
9095.00,1.27
9094.00,1.27
9093.00,1.27
9092.00,1.27
9091.00,1.27
9090.00,1.27
9089.00,1.27
9088.00,1.27
9087.00,1.27
9086.00,1.26
9085.00,1.26
9084.00,1.26
9083.00,1.26
9082.00,1.26
9081.00,1.26
9080.00,1.25
9079.00,1.25
9078.00,1.25
9077.00,1.25
9076.00,1.25
9075.00,1.25
9074.00,1.25
9073.00,1.25
9072.00,1.25
9071.00,1.25
9070.00,1.25
9069.00,1.25
9068.00,1.25
9067.00,1.26
9066.00,1.26
9065.00,1.26
9064.00,1.26
9063.00,1.26
9062.00,1.26
9061.00,1.27
9060.00,1.27
9059.00,1.27
9058.00,1.26
9057.00,1.26
9056.00,1.26
9055.00,1.26
9054.00,1.26
9053.00,1.26
9052.00,1.26
9051.00,1.25
9050.00,1.25
9049.00,1.25
9048.00,1.25
9047.00,1.25
9046.00,1.25
9045.00,1.25
9044.00,1.25
9043.00,1.25
9042.00,1.25
9041.00,1.25
9040.00,1.25
9039.00,1.25
9038.00,1.26
9037.00,1.26
9036.00,1.26
9035.00,1.26
9034.00,1.26
9033.00,1.27
9032.00,1.27
9031.00,1.27
9030.00,1.27
9029.00,1.27
9028.00,1.28
9027.00,1.28
9026.00,1.28
9025.00,1.28
9024.00,1.28
9023.00,1.28
9022.00,1.29
9021.00,1.29
9020.00,1.29
9019.00,1.29
9018.00,1.29
9017.00,1.29
9016.00,1.29
9015.00,1.28
9014.00,1.28
9013.00,1.28
9012.00,1.28
9011.00,1.28
9010.00,1.28
9009.00,1.28
9008.00,1.28
9007.00,1.28
9006.00,1.28
9005.00,1.28
9004.00,1.28
9003.00,1.28
9002.00,1.28
9001.00,1.28
9000.00,1.28
8999.00,1.28
8998.00,1.28
8997.00,1.28
8996.00,1.28
8995.00,1.28
8994.00,1.28
8993.00,1.28
8992.00,1.28
8991.00,1.28
8990.00,1.27
8989.00,1.27
8988.00,1.27
8987.00,1.27
8986.00,1.27
8985.00,1.26
8984.00,1.26
8983.00,1.26
8982.00,1.26
8981.00,1.26
8980.00,1.26
8979.00,1.26
8978.00,1.26
8977.00,1.26
8976.00,1.26
8975.00,1.26
8974.00,1.26
8973.00,1.26
8972.00,1.26
8971.00,1.27
8970.00,1.27
8969.00,1.27
8968.00,1.27
8967.00,1.27
8966.00,1.28
8965.00,1.28
8964.00,1.28
8963.00,1.28
8962.00,1.28
8961.00,1.28
8960.00,1.28
8959.00,1.28
8958.00,1.28
8957.00,1.28
8956.00,1.28
8955.00,1.28
8954.00,1.28
8953.00,1.28
8952.00,1.28
8951.00,1.28
8950.00,1.28
8949.00,1.28
8948.00,1.28
8947.00,1.28
8946.00,1.27
8945.00,1.27
8944.00,1.27
8943.00,1.27
8942.00,1.27
8941.00,1.27
8940.00,1.27
8939.00,1.26
8938.00,1.26
8937.00,1.26
8936.00,1.26
8935.00,1.26
8934.00,1.26
8933.00,1.26
8932.00,1.26
8931.00,1.26
8930.00,1.27
8929.00,1.27
8928.00,1.27
8927.00,1.27
8926.00,1.27
8925.00,1.27
8924.00,1.27
8923.00,1.27
8922.00,1.27
8921.00,1.28
8920.00,1.28
8919.00,1.28
8918.00,1.28
8917.00,1.28
8916.00,1.28
8915.00,1.28
8914.00,1.28
8913.00,1.28
8912.00,1.28
8911.00,1.28
8910.00,1.28
8909.00,1.27
8908.00,1.27
8907.00,1.27
8906.00,1.27
8905.00,1.27
8904.00,1.27
8903.00,1.27
8902.00,1.27
8901.00,1.27
8900.00,1.27
8899.00,1.27
8898.00,1.26
8897.00,1.26
8896.00,1.26
8895.00,1.26
8894.00,1.27
8893.00,1.27
8892.00,1.27
8891.00,1.27
8890.00,1.27
8889.00,1.27
8888.00,1.27
8887.00,1.27
8886.00,1.27
8885.00,1.27
8884.00,1.27
8883.00,1.27
8882.00,1.27
8881.00,1.27
8880.00,1.27
8879.00,1.27
8878.00,1.27
8877.00,1.27
8876.00,1.27
8875.00,1.27
8874.00,1.27
8873.00,1.27
8872.00,1.27
8871.00,1.27
8870.00,1.27
8869.00,1.27
8868.00,1.27
8867.00,1.27
8866.00,1.27
8865.00,1.27
8864.00,1.27
8863.00,1.27
8862.00,1.26
8861.00,1.26
8860.00,1.26
8859.00,1.26
8858.00,1.26
8857.00,1.26
8856.00,1.26
8855.00,1.26
8854.00,1.26
8853.00,1.26
8852.00,1.26
8851.00,1.26
8850.00,1.26
8849.00,1.26
8848.00,1.26
8847.00,1.26
8846.00,1.26
8845.00,1.26
8844.00,1.26
8843.00,1.26
8842.00,1.26
8841.00,1.26
8840.00,1.26
8839.00,1.27
8838.00,1.27
8837.00,1.27
8836.00,1.27
8835.00,1.27
8834.00,1.27
8833.00,1.28
8832.00,1.28
8831.00,1.28
8830.00,1.28
8829.00,1.28
8828.00,1.28
8827.00,1.28
8826.00,1.28
8825.00,1.28
8824.00,1.28
8823.00,1.28
8822.00,1.28
8821.00,1.28
8820.00,1.28
8819.00,1.28
8818.00,1.28
8817.00,1.28
8816.00,1.28
8815.00,1.28
8814.00,1.27
8813.00,1.27
8812.00,1.27
8811.00,1.27
8810.00,1.27
8809.00,1.27
8808.00,1.27
8807.00,1.27
8806.00,1.27
8805.00,1.27
8804.00,1.26
8803.00,1.26
8802.00,1.26
8801.00,1.26
8800.00,1.26
8799.00,1.26
8798.00,1.26
8797.00,1.26
8796.00,1.26
8795.00,1.26
8794.00,1.26
8793.00,1.25
8792.00,1.25
8791.00,1.25
8790.00,1.25
8789.00,1.25
8788.00,1.25
8787.00,1.24
8786.00,1.24
8785.00,1.24
8784.00,1.24
8783.00,1.24
8782.00,1.24
8781.00,1.24
8780.00,1.24
8779.00,1.24
8778.00,1.24
8777.00,1.24
8776.00,1.24
8775.00,1.24
8774.00,1.24
8773.00,1.24
8772.00,1.24
8771.00,1.24
8770.00,1.24
8769.00,1.24
8768.00,1.24
8767.00,1.24
8766.00,1.24
8765.00,1.24
8764.00,1.24
8763.00,1.24
8762.00,1.24
8761.00,1.24
8760.00,1.24
8759.00,1.23
8758.00,1.23
8757.00,1.23
8756.00,1.23
8755.00,1.23
8754.00,1.23
8753.00,1.22
8752.00,1.22
8751.00,1.22
8750.00,1.22
8749.00,1.22
8748.00,1.21
8747.00,1.21
8746.00,1.21
8745.00,1.21
8744.00,1.21
8743.00,1.21
8742.00,1.21
8741.00,1.21
8740.00,1.21
8739.00,1.21
8738.00,1.21
8737.00,1.21
8736.00,1.21
8735.00,1.21
8734.00,1.21
8733.00,1.21
8732.00,1.21
8731.00,1.21
8730.00,1.21
8729.00,1.21
8728.00,1.21
8727.00,1.21
8726.00,1.22
8725.00,1.22
8724.00,1.22
8723.00,1.22
8722.00,1.22
8721.00,1.22
8720.00,1.22
8719.00,1.23
8718.00,1.23
8717.00,1.23
8716.00,1.23
8715.00,1.23
8714.00,1.23
8713.00,1.23
8712.00,1.23
8711.00,1.23
8710.00,1.23
8709.00,1.23
8708.00,1.23
8707.00,1.23
8706.00,1.23
8705.00,1.23
8704.00,1.23
8703.00,1.23
8702.00,1.22
8701.00,1.22
8700.00,1.22
8699.00,1.22
8698.00,1.22
8697.00,1.22
8696.00,1.22
8695.00,1.22
8694.00,1.22
8693.00,1.22
8692.00,1.22
8691.00,1.22
8690.00,1.22
8689.00,1.22
8688.00,1.22
8687.00,1.22
8686.00,1.22
8685.00,1.22
8684.00,1.22
8683.00,1.22
8682.00,1.22
8681.00,1.22
8680.00,1.22
8679.00,1.22
8678.00,1.22
8677.00,1.22
8676.00,1.22
8675.00,1.22
8674.00,1.22
8673.00,1.22
8672.00,1.22
8671.00,1.22
8670.00,1.22
8669.00,1.22
8668.00,1.22
8667.00,1.22
8666.00,1.22
8665.00,1.21
8664.00,1.21
8663.00,1.21
8662.00,1.21
8661.00,1.21
8660.00,1.21
8659.00,1.21
8658.00,1.21
8657.00,1.21
8656.00,1.21
8655.00,1.21
8654.00,1.21
8653.00,1.21
8652.00,1.21
8651.00,1.21
8650.00,1.22
8649.00,1.22
8648.00,1.22
8647.00,1.22
8646.00,1.22
8645.00,1.22
8644.00,1.22
8643.00,1.22
8642.00,1.22
8641.00,1.21
8640.00,1.21
8639.00,1.21
8638.00,1.21
8637.00,1.21
8636.00,1.21
8635.00,1.21
8634.00,1.21
8633.00,1.21
8632.00,1.21
8631.00,1.21
8630.00,1.21
8629.00,1.21
8628.00,1.21
8627.00,1.21
8626.00,1.21
8625.00,1.21
8624.00,1.21
8623.00,1.21
8622.00,1.20
8621.00,1.20
8620.00,1.20
8619.00,1.20
8618.00,1.20
8617.00,1.20
8616.00,1.19
8615.00,1.19
8614.00,1.19
8613.00,1.19
8612.00,1.18
8611.00,1.18
8610.00,1.18
8609.00,1.18
8608.00,1.18
8607.00,1.17
8606.00,1.17
8605.00,1.17
8604.00,1.17
8603.00,1.17
8602.00,1.17
8601.00,1.17
8600.00,1.17
8599.00,1.17
8598.00,1.17
8597.00,1.17
8596.00,1.18
8595.00,1.18
8594.00,1.18
8593.00,1.18
8592.00,1.18
8591.00,1.19
8590.00,1.19
8589.00,1.19
8588.00,1.19
8587.00,1.19
8586.00,1.19
8585.00,1.19
8584.00,1.19
8583.00,1.19
8582.00,1.20
8581.00,1.20
8580.00,1.20
8579.00,1.20
8578.00,1.20
8577.00,1.20
8576.00,1.20
8575.00,1.20
8574.00,1.20
8573.00,1.20
8572.00,1.20
8571.00,1.20
8570.00,1.19
8569.00,1.19
8568.00,1.19
8567.00,1.19
8566.00,1.19
8565.00,1.19
8564.00,1.19
8563.00,1.19
8562.00,1.19
8561.00,1.19
8560.00,1.19
8559.00,1.19
8558.00,1.19
8557.00,1.19
8556.00,1.19
8555.00,1.19
8554.00,1.19
8553.00,1.19
8552.00,1.19
8551.00,1.19
8550.00,1.19
8549.00,1.19
8548.00,1.19
8547.00,1.19
8546.00,1.19
8545.00,1.19
8544.00,1.19
8543.00,1.19
8542.00,1.18
8541.00,1.18
8540.00,1.18
8539.00,1.18
8538.00,1.18
8537.00,1.17
8536.00,1.17
8535.00,1.17
8534.00,1.17
8533.00,1.17
8532.00,1.17
8531.00,1.17
8530.00,1.17
8529.00,1.17
8528.00,1.17
8527.00,1.17
8526.00,1.17
8525.00,1.17
8524.00,1.17
8523.00,1.17
8522.00,1.17
8521.00,1.17
8520.00,1.17
8519.00,1.17
8518.00,1.17
8517.00,1.16
8516.00,1.16
8515.00,1.16
8514.00,1.16
8513.00,1.16
8512.00,1.16
8511.00,1.16
8510.00,1.16
8509.00,1.16
8508.00,1.16
8507.00,1.16
8506.00,1.16
8505.00,1.16
8504.00,1.16
8503.00,1.16
8502.00,1.16
8501.00,1.16
8500.00,1.16
8499.00,1.16
8498.00,1.16
8497.00,1.16
8496.00,1.16
8495.00,1.16
8494.00,1.16
8493.00,1.16
8492.00,1.16
8491.00,1.16
8490.00,1.16
8489.00,1.16
8488.00,1.16
8487.00,1.16
8486.00,1.16
8485.00,1.15
8484.00,1.15
8483.00,1.15
8482.00,1.15
8481.00,1.15
8480.00,1.15
8479.00,1.15
8478.00,1.15
8477.00,1.15
8476.00,1.15
8475.00,1.15
8474.00,1.15
8473.00,1.14
8472.00,1.14
8471.00,1.14
8470.00,1.14
8469.00,1.14
8468.00,1.14
8467.00,1.13
8466.00,1.13
8465.00,1.13
8464.00,1.13
8463.00,1.13
8462.00,1.12
8461.00,1.12
8460.00,1.12
8459.00,1.12
8458.00,1.12
8457.00,1.12
8456.00,1.12
8455.00,1.12
8454.00,1.11
8453.00,1.11
8452.00,1.11
8451.00,1.11
8450.00,1.11
8449.00,1.11
8448.00,1.11
8447.00,1.11
8446.00,1.11
8445.00,1.12
8444.00,1.12
8443.00,1.12
8442.00,1.12
8441.00,1.12
8440.00,1.12
8439.00,1.12
8438.00,1.12
8437.00,1.12
8436.00,1.12
8435.00,1.12
8434.00,1.12
8433.00,1.12
8432.00,1.12
8431.00,1.12
8430.00,1.12
8429.00,1.12
8428.00,1.12
8427.00,1.12
8426.00,1.12
8425.00,1.12
8424.00,1.12
8423.00,1.12
8422.00,1.12
8421.00,1.12
8420.00,1.12
8419.00,1.12
8418.00,1.12
8417.00,1.12
8416.00,1.12
8415.00,1.12
8414.00,1.12
8413.00,1.12
8412.00,1.12
8411.00,1.12
8410.00,1.12
8409.00,1.12
8408.00,1.12
8407.00,1.12
8406.00,1.12
8405.00,1.12
8404.00,1.12
8403.00,1.12
8402.00,1.13
8401.00,1.13
8400.00,1.13
8399.00,1.13
8398.00,1.13
8397.00,1.14
8396.00,1.14
8395.00,1.14
8394.00,1.14
8393.00,1.15
8392.00,1.15
8391.00,1.15
8390.00,1.15
8389.00,1.15
8388.00,1.15
8387.00,1.15
8386.00,1.16
8385.00,1.16
8384.00,1.16
8383.00,1.15
8382.00,1.15
8381.00,1.15
8380.00,1.15
8379.00,1.15
8378.00,1.15
8377.00,1.15
8376.00,1.15
8375.00,1.15
8374.00,1.15
8373.00,1.15
8372.00,1.15
8371.00,1.15
8370.00,1.15
8369.00,1.15
8368.00,1.15
8367.00,1.15
8366.00,1.15
8365.00,1.15
8364.00,1.16
8363.00,1.16
8362.00,1.16
8361.00,1.16
8360.00,1.16
8359.00,1.16
8358.00,1.16
8357.00,1.16
8356.00,1.16
8355.00,1.17
8354.00,1.17
8353.00,1.17
8352.00,1.17
8351.00,1.17
8350.00,1.17
8349.00,1.18
8348.00,1.18
8347.00,1.18
8346.00,1.18
8345.00,1.18
8344.00,1.18
8343.00,1.18
8342.00,1.18
8341.00,1.19
8340.00,1.19
8339.00,1.19
8338.00,1.18
8337.00,1.18
8336.00,1.18
8335.00,1.18
8334.00,1.18
8333.00,1.18
8332.00,1.18
8331.00,1.18
8330.00,1.17
8329.00,1.17
8328.00,1.17
8327.00,1.17
8326.00,1.17
8325.00,1.16
8324.00,1.16
8323.00,1.16
8322.00,1.16
8321.00,1.16
8320.00,1.15
8319.00,1.15
8318.00,1.15
8317.00,1.15
8316.00,1.15
8315.00,1.15
8314.00,1.15
8313.00,1.15
8312.00,1.15
8311.00,1.15
8310.00,1.15
8309.00,1.15
8308.00,1.15
8307.00,1.15
8306.00,1.15
8305.00,1.15
8304.00,1.16
8303.00,1.16
8302.00,1.16
8301.00,1.16
8300.00,1.16
8299.00,1.16
8298.00,1.16
8297.00,1.16
8296.00,1.16
8295.00,1.16
8294.00,1.16
8293.00,1.16
8292.00,1.16
8291.00,1.16
8290.00,1.16
8289.00,1.16
8288.00,1.16
8287.00,1.16
8286.00,1.16
8285.00,1.16
8284.00,1.16
8283.00,1.16
8282.00,1.16
8281.00,1.16
8280.00,1.16
8279.00,1.16
8278.00,1.17
8277.00,1.17
8276.00,1.17
8275.00,1.17
8274.00,1.17
8273.00,1.18
8272.00,1.18
8271.00,1.18
8270.00,1.18
8269.00,1.18
8268.00,1.19
8267.00,1.19
8266.00,1.19
8265.00,1.19
8264.00,1.19
8263.00,1.19
8262.00,1.19
8261.00,1.19
8260.00,1.19
8259.00,1.19
8258.00,1.20
8257.00,1.20
8256.00,1.20
8255.00,1.19
8254.00,1.19
8253.00,1.19
8252.00,1.19
8251.00,1.19
8250.00,1.19
8249.00,1.19
8248.00,1.19
8247.00,1.19
8246.00,1.18
8245.00,1.18
8244.00,1.18
8243.00,1.18
8242.00,1.17
8241.00,1.17
8240.00,1.17
8239.00,1.17
8238.00,1.17
8237.00,1.17
8236.00,1.17
8235.00,1.16
8234.00,1.16
8233.00,1.16
8232.00,1.16
8231.00,1.16
8230.00,1.17
8229.00,1.17
8228.00,1.17
8227.00,1.17
8226.00,1.17
8225.00,1.17
8224.00,1.18
8223.00,1.18
8222.00,1.18
8221.00,1.18
8220.00,1.18
8219.00,1.19
8218.00,1.19
8217.00,1.19
8216.00,1.19
8215.00,1.19
8214.00,1.19
8213.00,1.20
8212.00,1.20
8211.00,1.20
8210.00,1.20
8209.00,1.20
8208.00,1.20
8207.00,1.20
8206.00,1.20
8205.00,1.20
8204.00,1.20
8203.00,1.20
8202.00,1.20
8201.00,1.20
8200.00,1.20
8199.00,1.20
8198.00,1.20
8197.00,1.20
8196.00,1.20
8195.00,1.20
8194.00,1.20
8193.00,1.20
8192.00,1.20
8191.00,1.20
8190.00,1.20
8189.00,1.20
8188.00,1.20
8187.00,1.20
8186.00,1.20
8185.00,1.20
8184.00,1.20
8183.00,1.20
8182.00,1.20
8181.00,1.20
8180.00,1.20
8179.00,1.20
8178.00,1.20
8177.00,1.20
8176.00,1.20
8175.00,1.20
8174.00,1.19
8173.00,1.19
8172.00,1.19
8171.00,1.19
8170.00,1.19
8169.00,1.19
8168.00,1.19
8167.00,1.19
8166.00,1.19
8165.00,1.19
8164.00,1.20
8163.00,1.20
8162.00,1.20
8161.00,1.20
8160.00,1.20
8159.00,1.20
8158.00,1.21
8157.00,1.21
8156.00,1.21
8155.00,1.21
8154.00,1.21
8153.00,1.21
8152.00,1.21
8151.00,1.21
8150.00,1.21
8149.00,1.21
8148.00,1.21
8147.00,1.21
8146.00,1.21
8145.00,1.21
8144.00,1.22
8143.00,1.22
8142.00,1.22
8141.00,1.22
8140.00,1.22
8139.00,1.22
8138.00,1.21
8137.00,1.21
8136.00,1.21
8135.00,1.21
8134.00,1.21
8133.00,1.21
8132.00,1.21
8131.00,1.21
8130.00,1.21
8129.00,1.21
8128.00,1.21
8127.00,1.21
8126.00,1.21
8125.00,1.21
8124.00,1.21
8123.00,1.21
8122.00,1.21
8121.00,1.21
8120.00,1.21
8119.00,1.21
8118.00,1.21
8117.00,1.21
8116.00,1.22
8115.00,1.22
8114.00,1.22
8113.00,1.22
8112.00,1.22
8111.00,1.22
8110.00,1.22
8109.00,1.23
8108.00,1.23
8107.00,1.23
8106.00,1.23
8105.00,1.23
8104.00,1.23
8103.00,1.23
8102.00,1.23
8101.00,1.23
8100.00,1.23
8099.00,1.23
8098.00,1.23
8097.00,1.23
8096.00,1.23
8095.00,1.23
8094.00,1.23
8093.00,1.23
8092.00,1.23
8091.00,1.23
8090.00,1.23
8089.00,1.23
8088.00,1.23
8087.00,1.23
8086.00,1.23
8085.00,1.23
8084.00,1.23
8083.00,1.23
8082.00,1.23
8081.00,1.23
8080.00,1.23
8079.00,1.23
8078.00,1.23
8077.00,1.23
8076.00,1.23
8075.00,1.23
8074.00,1.23
8073.00,1.23
8072.00,1.23
8071.00,1.23
8070.00,1.23
8069.00,1.23
8068.00,1.23
8067.00,1.23
8066.00,1.23
8065.00,1.23
8064.00,1.22
8063.00,1.22
8062.00,1.22
8061.00,1.22
8060.00,1.22
8059.00,1.22
8058.00,1.22
8057.00,1.22
8056.00,1.22
8055.00,1.22
8054.00,1.22
8053.00,1.22
8052.00,1.22
8051.00,1.22
8050.00,1.22
8049.00,1.22
8048.00,1.22
8047.00,1.22
8046.00,1.23
8045.00,1.23
8044.00,1.23
8043.00,1.23
8042.00,1.23
8041.00,1.23
8040.00,1.23
8039.00,1.23
8038.00,1.23
8037.00,1.23
8036.00,1.23
8035.00,1.23
8034.00,1.23
8033.00,1.24
8032.00,1.24
8031.00,1.24
8030.00,1.24
8029.00,1.24
8028.00,1.24
8027.00,1.24
8026.00,1.24
8025.00,1.24
8024.00,1.24
8023.00,1.24
8022.00,1.24
8021.00,1.24
8020.00,1.24
8019.00,1.24
8018.00,1.24
8017.00,1.24
8016.00,1.24
8015.00,1.24
8014.00,1.24
8013.00,1.23
8012.00,1.23
8011.00,1.23
8010.00,1.23
8009.00,1.23
8008.00,1.23
8007.00,1.23
8006.00,1.23
8005.00,1.23
8004.00,1.23
8003.00,1.23
8002.00,1.23
8001.00,1.23
8000.00,1.23
7999.00,1.23
7998.00,1.24
7997.00,1.24
7996.00,1.24
7995.00,1.24
7994.00,1.24
7993.00,1.24
7992.00,1.24
7991.00,1.24
7990.00,1.24
7989.00,1.24
7988.00,1.24
7987.00,1.24
7986.00,1.24
7985.00,1.24
7984.00,1.24
7983.00,1.24
7982.00,1.24
7981.00,1.24
7980.00,1.24
7979.00,1.24
7978.00,1.24
7977.00,1.24
7976.00,1.24
7975.00,1.24
7974.00,1.24
7973.00,1.24
7972.00,1.24
7971.00,1.24
7970.00,1.24
7969.00,1.24
7968.00,1.24
7967.00,1.24
7966.00,1.24
7965.00,1.24
7964.00,1.24
7963.00,1.24
7962.00,1.24
7961.00,1.24
7960.00,1.25
7959.00,1.25
7958.00,1.25
7957.00,1.25
7956.00,1.25
7955.00,1.25
7954.00,1.25
7953.00,1.25
7952.00,1.25
7951.00,1.25
7950.00,1.25
7949.00,1.25
7948.00,1.25
7947.00,1.25
7946.00,1.25
7945.00,1.25
7944.00,1.25
7943.00,1.25
7942.00,1.25
7941.00,1.25
7940.00,1.25
7939.00,1.25
7938.00,1.25
7937.00,1.25
7936.00,1.25
7935.00,1.25
7934.00,1.25
7933.00,1.25
7932.00,1.25
7931.00,1.25
7930.00,1.25
7929.00,1.25
7928.00,1.25
7927.00,1.25
7926.00,1.25
7925.00,1.26
7924.00,1.26
7923.00,1.26
7922.00,1.26
7921.00,1.26
7920.00,1.26
7919.00,1.26
7918.00,1.26
7917.00,1.26
7916.00,1.26
7915.00,1.26
7914.00,1.26
7913.00,1.26
7912.00,1.26
7911.00,1.26
7910.00,1.26
7909.00,1.26
7908.00,1.26
7907.00,1.26
7906.00,1.26
7905.00,1.26
7904.00,1.26
7903.00,1.26
7902.00,1.26
7901.00,1.26
7900.00,1.26
7899.00,1.26
7898.00,1.26
7897.00,1.26
7896.00,1.26
7895.00,1.26
7894.00,1.26
7893.00,1.26
7892.00,1.26
7891.00,1.26
7890.00,1.26
7889.00,1.26
7888.00,1.26
7887.00,1.26
7886.00,1.26
7885.00,1.26
7884.00,1.26
7883.00,1.26
7882.00,1.26
7881.00,1.25
7880.00,1.25
7879.00,1.25
7878.00,1.25
7877.00,1.25
7876.00,1.25
7875.00,1.25
7874.00,1.25
7873.00,1.25
7872.00,1.25
7871.00,1.25
7870.00,1.25
7869.00,1.25
7868.00,1.25
7867.00,1.25
7866.00,1.25
7865.00,1.25
7864.00,1.25
7863.00,1.25
7862.00,1.26
7861.00,1.26
7860.00,1.26
7859.00,1.26
7858.00,1.26
7857.00,1.26
7856.00,1.26
7855.00,1.26
7854.00,1.26
7853.00,1.26
7852.00,1.26
7851.00,1.26
7850.00,1.26
7849.00,1.26
7848.00,1.26
7847.00,1.26
7846.00,1.26
7845.00,1.26
7844.00,1.26
7843.00,1.26
7842.00,1.26
7841.00,1.26
7840.00,1.26
7839.00,1.26
7838.00,1.26
7837.00,1.26
7836.00,1.26
7835.00,1.26
7834.00,1.27
7833.00,1.27
7832.00,1.27
7831.00,1.27
7830.00,1.27
7829.00,1.27
7828.00,1.28
7827.00,1.28
7826.00,1.28
7825.00,1.28
7824.00,1.28
7823.00,1.28
7822.00,1.29
7821.00,1.29
7820.00,1.29
7819.00,1.29
7818.00,1.29
7817.00,1.29
7816.00,1.29
7815.00,1.29
7814.00,1.29
7813.00,1.29
7812.00,1.29
7811.00,1.29
7810.00,1.29
7809.00,1.29
7808.00,1.29
7807.00,1.29
7806.00,1.28
7805.00,1.28
7804.00,1.28
7803.00,1.28
7802.00,1.28
7801.00,1.28
7800.00,1.28
7799.00,1.27
7798.00,1.27
7797.00,1.27
7796.00,1.27
7795.00,1.27
7794.00,1.27
7793.00,1.27
7792.00,1.27
7791.00,1.27
7790.00,1.27
7789.00,1.27
7788.00,1.27
7787.00,1.27
7786.00,1.27
7785.00,1.27
7784.00,1.27
7783.00,1.27
7782.00,1.27
7781.00,1.27
7780.00,1.27
7779.00,1.27
7778.00,1.27
7777.00,1.27
7776.00,1.27
7775.00,1.27
7774.00,1.27
7773.00,1.27
7772.00,1.27
7771.00,1.27
7770.00,1.28
7769.00,1.28
7768.00,1.28
7767.00,1.28
7766.00,1.28
7765.00,1.28
7764.00,1.28
7763.00,1.28
7762.00,1.28
7761.00,1.28
7760.00,1.28
7759.00,1.28
7758.00,1.28
7757.00,1.28
7756.00,1.28
7755.00,1.28
7754.00,1.28
7753.00,1.28
7752.00,1.28
7751.00,1.28
7750.00,1.28
7749.00,1.29
7748.00,1.29
7747.00,1.29
7746.00,1.29
7745.00,1.29
7744.00,1.29
7743.00,1.29
7742.00,1.29
7741.00,1.29
7740.00,1.29
7739.00,1.30
7738.00,1.30
7737.00,1.30
7736.00,1.30
7735.00,1.30
7734.00,1.30
7733.00,1.30
7732.00,1.30
7731.00,1.30
7730.00,1.29
7729.00,1.29
7728.00,1.29
7727.00,1.29
7726.00,1.29
7725.00,1.29
7724.00,1.29
7723.00,1.29
7722.00,1.29
7721.00,1.29
7720.00,1.29
7719.00,1.29
7718.00,1.29
7717.00,1.29
7716.00,1.29
7715.00,1.28
7714.00,1.28
7713.00,1.28
7712.00,1.28
7711.00,1.28
7710.00,1.28
7709.00,1.28
7708.00,1.28
7707.00,1.28
7706.00,1.28
7705.00,1.28
7704.00,1.28
7703.00,1.28
7702.00,1.28
7701.00,1.28
7700.00,1.28
7699.00,1.28
7698.00,1.28
7697.00,1.28
7696.00,1.28
7695.00,1.28
7694.00,1.28
7693.00,1.28
7692.00,1.28
7691.00,1.28
7690.00,1.28
7689.00,1.28
7688.00,1.29
7687.00,1.29
7686.00,1.29
7685.00,1.29
7684.00,1.29
7683.00,1.29
7682.00,1.29
7681.00,1.29
7680.00,1.29
7679.00,1.29
7678.00,1.29
7677.00,1.29
7676.00,1.29
7675.00,1.29
7674.00,1.29
7673.00,1.29
7672.00,1.29
7671.00,1.29
7670.00,1.29
7669.00,1.29
7668.00,1.29
7667.00,1.29
7666.00,1.29
7665.00,1.29
7664.00,1.29
7663.00,1.29
7662.00,1.29
7661.00,1.29
7660.00,1.29
7659.00,1.28
7658.00,1.28
7657.00,1.28
7656.00,1.28
7655.00,1.28
7654.00,1.28
7653.00,1.28
7652.00,1.28
7651.00,1.28
7650.00,1.28
7649.00,1.28
7648.00,1.28
7647.00,1.28
7646.00,1.28
7645.00,1.28
7644.00,1.28
7643.00,1.29
7642.00,1.29
7641.00,1.29
7640.00,1.29
7639.00,1.29
7638.00,1.29
7637.00,1.29
7636.00,1.29
7635.00,1.29
7634.00,1.29
7633.00,1.30
7632.00,1.30
7631.00,1.30
7630.00,1.30
7629.00,1.30
7628.00,1.29
7627.00,1.29
7626.00,1.29
7625.00,1.29
7624.00,1.29
7623.00,1.29
7622.00,1.29
7621.00,1.29
7620.00,1.29
7619.00,1.28
7618.00,1.28
7617.00,1.28
7616.00,1.28
7615.00,1.28
7614.00,1.28
7613.00,1.28
7612.00,1.28
7611.00,1.28
7610.00,1.28
7609.00,1.28
7608.00,1.28
7607.00,1.28
7606.00,1.28
7605.00,1.28
7604.00,1.28
7603.00,1.28
7602.00,1.28
7601.00,1.28
7600.00,1.28
7599.00,1.28
7598.00,1.28
7597.00,1.28
7596.00,1.28
7595.00,1.28
7594.00,1.28
7593.00,1.28
7592.00,1.28
7591.00,1.28
7590.00,1.28
7589.00,1.28
7588.00,1.28
7587.00,1.28
7586.00,1.28
7585.00,1.28
7584.00,1.29
7583.00,1.29
7582.00,1.29
7581.00,1.29
7580.00,1.29
7579.00,1.29
7578.00,1.29
7577.00,1.29
7576.00,1.29
7575.00,1.29
7574.00,1.29
7573.00,1.29
7572.00,1.29
7571.00,1.29
7570.00,1.29
7569.00,1.29
7568.00,1.29
7567.00,1.29
7566.00,1.29
7565.00,1.29
7564.00,1.28
7563.00,1.28
7562.00,1.28
7561.00,1.28
7560.00,1.28
7559.00,1.28
7558.00,1.28
7557.00,1.28
7556.00,1.28
7555.00,1.28
7554.00,1.28
7553.00,1.28
7552.00,1.28
7551.00,1.28
7550.00,1.28
7549.00,1.28
7548.00,1.28
7547.00,1.28
7546.00,1.28
7545.00,1.28
7544.00,1.28
7543.00,1.28
7542.00,1.28
7541.00,1.28
7540.00,1.28
7539.00,1.28
7538.00,1.28
7537.00,1.28
7536.00,1.28
7535.00,1.28
7534.00,1.28
7533.00,1.28
7532.00,1.28
7531.00,1.28
7530.00,1.28
7529.00,1.28
7528.00,1.28
7527.00,1.28
7526.00,1.28
7525.00,1.28
7524.00,1.28
7523.00,1.28
7522.00,1.28
7521.00,1.28
7520.00,1.28
7519.00,1.28
7518.00,1.28
7517.00,1.28
7516.00,1.28
7515.00,1.28
7514.00,1.28
7513.00,1.28
7512.00,1.28
7511.00,1.28
7510.00,1.28
7509.00,1.28
7508.00,1.28
7507.00,1.28
7506.00,1.28
7505.00,1.28
7504.00,1.28
7503.00,1.28
7502.00,1.28
7501.00,1.28
7500.00,1.28
7499.00,1.28
7498.00,1.28
7497.00,1.28
7496.00,1.28
7495.00,1.28
7494.00,1.28
7493.00,1.27
7492.00,1.27
7491.00,1.27
7490.00,1.27
7489.00,1.27
7488.00,1.27
7487.00,1.27
7486.00,1.27
7485.00,1.27
7484.00,1.27
7483.00,1.27
7482.00,1.27
7481.00,1.27
7480.00,1.27
7479.00,1.27
7478.00,1.27
7477.00,1.27
7476.00,1.27
7475.00,1.27
7474.00,1.27
7473.00,1.27
7472.00,1.27
7471.00,1.27
7470.00,1.27
7469.00,1.27
7468.00,1.27
7467.00,1.27
7466.00,1.27
7465.00,1.27
7464.00,1.27
7463.00,1.27
7462.00,1.27
7461.00,1.27
7460.00,1.27
7459.00,1.27
7458.00,1.27
7457.00,1.27
7456.00,1.27
7455.00,1.26
7454.00,1.26
7453.00,1.26
7452.00,1.26
7451.00,1.26
7450.00,1.26
7449.00,1.26
7448.00,1.26
7447.00,1.26
7446.00,1.26
7445.00,1.26
7444.00,1.26
7443.00,1.26
7442.00,1.26
7441.00,1.26
7440.00,1.26
7439.00,1.26
7438.00,1.26
7437.00,1.25
7436.00,1.25
7435.00,1.25
7434.00,1.25
7433.00,1.25
7432.00,1.25
7431.00,1.25
7430.00,1.25
7429.00,1.25
7428.00,1.24
7427.00,1.24
7426.00,1.24
7425.00,1.24
7424.00,1.24
7423.00,1.24
7422.00,1.24
7421.00,1.24
7420.00,1.24
7419.00,1.24
7418.00,1.24
7417.00,1.24
7416.00,1.24
7415.00,1.23
7414.00,1.23
7413.00,1.23
7412.00,1.23
7411.00,1.23
7410.00,1.23
7409.00,1.23
7408.00,1.22
7407.00,1.22
7406.00,1.22
7405.00,1.22
7404.00,1.22
7403.00,1.22
7402.00,1.22
7401.00,1.22
7400.00,1.21
7399.00,1.21
7398.00,1.21
7397.00,1.21
7396.00,1.21
7395.00,1.21
7394.00,1.21
7393.00,1.21
7392.00,1.21
7391.00,1.21
7390.00,1.21
7389.00,1.21
7388.00,1.20
7387.00,1.20
7386.00,1.20
7385.00,1.20
7384.00,1.20
7383.00,1.20
7382.00,1.20
7381.00,1.20
7380.00,1.20
7379.00,1.20
7378.00,1.20
7377.00,1.20
7376.00,1.20
7375.00,1.20
7374.00,1.20
7373.00,1.20
7372.00,1.20
7371.00,1.20
7370.00,1.20
7369.00,1.20
7368.00,1.20
7367.00,1.20
7366.00,1.20
7365.00,1.20
7364.00,1.20
7363.00,1.20
7362.00,1.20
7361.00,1.20
7360.00,1.19
7359.00,1.19
7358.00,1.19
7357.00,1.19
7356.00,1.19
7355.00,1.19
7354.00,1.19
7353.00,1.19
7352.00,1.19
7351.00,1.19
7350.00,1.19
7349.00,1.19
7348.00,1.19
7347.00,1.19
7346.00,1.19
7345.00,1.19
7344.00,1.19
7343.00,1.19
7342.00,1.19
7341.00,1.19
7340.00,1.19
7339.00,1.19
7338.00,1.19
7337.00,1.19
7336.00,1.19
7335.00,1.19
7334.00,1.19
7333.00,1.19
7332.00,1.19
7331.00,1.19
7330.00,1.18
7329.00,1.18
7328.00,1.18
7327.00,1.18
7326.00,1.18
7325.00,1.18
7324.00,1.18
7323.00,1.18
7322.00,1.18
7321.00,1.18
7320.00,1.18
7319.00,1.18
7318.00,1.18
7317.00,1.18
7316.00,1.18
7315.00,1.18
7314.00,1.18
7313.00,1.18
7312.00,1.17
7311.00,1.17
7310.00,1.17
7309.00,1.17
7308.00,1.17
7307.00,1.17
7306.00,1.17
7305.00,1.17
7304.00,1.17
7303.00,1.17
7302.00,1.16
7301.00,1.16
7300.00,1.16
7299.00,1.16
7298.00,1.16
7297.00,1.16
7296.00,1.16
7295.00,1.16
7294.00,1.16
7293.00,1.16
7292.00,1.15
7291.00,1.15
7290.00,1.15
7289.00,1.15
7288.00,1.15
7287.00,1.15
7286.00,1.15
7285.00,1.15
7284.00,1.14
7283.00,1.14
7282.00,1.14
7281.00,1.14
7280.00,1.14
7279.00,1.14
7278.00,1.14
7277.00,1.14
7276.00,1.14
7275.00,1.14
7274.00,1.14
7273.00,1.14
7272.00,1.14
7271.00,1.14
7270.00,1.14
7269.00,1.14
7268.00,1.14
7267.00,1.14
7266.00,1.14
7265.00,1.14
7264.00,1.13
7263.00,1.13
7262.00,1.13
7261.00,1.13
7260.00,1.13
7259.00,1.13
7258.00,1.13
7257.00,1.12
7256.00,1.12
7255.00,1.12
7254.00,1.12
7253.00,1.12
7252.00,1.11
7251.00,1.11
7250.00,1.11
7249.00,1.11
7248.00,1.10
7247.00,1.10
7246.00,1.10
7245.00,1.10
7244.00,1.09
7243.00,1.09
7242.00,1.09
7241.00,1.08
7240.00,1.08
7239.00,1.08
7238.00,1.08
7237.00,1.07
7236.00,1.07
7235.00,1.07
7234.00,1.07
7233.00,1.07
7232.00,1.06
7231.00,1.06
7230.00,1.06
7229.00,1.06
7228.00,1.05
7227.00,1.05
7226.00,1.05
7225.00,1.05
7224.00,1.05
7223.00,1.05
7222.00,1.04
7221.00,1.04
7220.00,1.04
7219.00,1.04
7218.00,1.04
7217.00,1.03
7216.00,1.03
7215.00,1.03
7214.00,1.03
7213.00,1.02
7212.00,1.02
7211.00,1.02
7210.00,1.01
7209.00,1.01
7208.00,1.01
7207.00,1.00
7206.00,1.00
7205.00,1.00
7204.00,0.99
7203.00,0.99
7202.00,0.99
7201.00,0.98
7200.00,0.98
7199.00,0.98
7198.00,0.97
7197.00,0.97
7196.00,0.97
7195.00,0.96
7194.00,0.96
7193.00,0.96
7192.00,0.96
7191.00,0.95
7190.00,0.95
7189.00,0.95
7188.00,0.95
7187.00,0.94
7186.00,0.94
7185.00,0.94
7184.00,0.94
7183.00,0.94
7182.00,0.94
7181.00,0.94
7180.00,0.93
7179.00,0.93
7178.00,0.93
7177.00,0.93
7176.00,0.93
7175.00,0.93
7174.00,0.93
7173.00,0.93
7172.00,0.93
7171.00,0.92
7170.00,0.92
7169.00,0.92
7168.00,0.92
7167.00,0.92
7166.00,0.92
7165.00,0.91
7164.00,0.91
7163.00,0.91
7162.00,0.91
7161.00,0.90
7160.00,0.90
7159.00,0.90
7158.00,0.90
7157.00,0.89
7156.00,0.89
7155.00,0.89
7154.00,0.89
7153.00,0.88
7152.00,0.88
7151.00,0.88
7150.00,0.88
7149.00,0.87
7148.00,0.87
7147.00,0.87
7146.00,0.86
7145.00,0.86
7144.00,0.86
7143.00,0.86
7142.00,0.85
7141.00,0.85
7140.00,0.85
7139.00,0.85
7138.00,0.84
7137.00,0.84
7136.00,0.84
7135.00,0.84
7134.00,0.84
7133.00,0.83
7132.00,0.83
7131.00,0.83
7130.00,0.83
7129.00,0.83
7128.00,0.82
7127.00,0.82
7126.00,0.82
7125.00,0.82
7124.00,0.81
7123.00,0.81
7122.00,0.81
7121.00,0.81
7120.00,0.80
7119.00,0.80
7118.00,0.80
7117.00,0.80
7116.00,0.79
7115.00,0.79
7114.00,0.79
7113.00,0.79
7112.00,0.78
7111.00,0.78
7110.00,0.78
7109.00,0.78
7108.00,0.78
7107.00,0.77
7106.00,0.77
7105.00,0.77
7104.00,0.77
7103.00,0.77
7102.00,0.76
7101.00,0.76
7100.00,0.76
7099.00,0.76
7098.00,0.76
7097.00,0.76
7096.00,0.75
7095.00,0.75
7094.00,0.75
7093.00,0.75
7092.00,0.75
7091.00,0.75
7090.00,0.74
7089.00,0.74
7088.00,0.74
7087.00,0.74
7086.00,0.74
7085.00,0.73
7084.00,0.73
7083.00,0.73
7082.00,0.73
7081.00,0.73
7080.00,0.72
7079.00,0.72
7078.00,0.72
7077.00,0.72
7076.00,0.72
7075.00,0.71
7074.00,0.71
7073.00,0.71
7072.00,0.71
7071.00,0.71
7070.00,0.70
7069.00,0.70
7068.00,0.70
7067.00,0.70
7066.00,0.70
7065.00,0.70
7064.00,0.69
7063.00,0.69
7062.00,0.69
7061.00,0.69
7060.00,0.69
7059.00,0.69
7058.00,0.69
7057.00,0.68
7056.00,0.68
7055.00,0.68
7054.00,0.68
7053.00,0.68
7052.00,0.68
7051.00,0.68
7050.00,0.68
7049.00,0.68
7048.00,0.67
7047.00,0.67
7046.00,0.67
7045.00,0.67
7044.00,0.67
7043.00,0.67
7042.00,0.67
7041.00,0.67
7040.00,0.66
7039.00,0.66
7038.00,0.66
7037.00,0.66
7036.00,0.66
7035.00,0.66
7034.00,0.65
7033.00,0.65
7032.00,0.65
7031.00,0.65
7030.00,0.65
7029.00,0.65
7028.00,0.65
7027.00,0.64
7026.00,0.64
7025.00,0.64
7024.00,0.64
7023.00,0.64
7022.00,0.64
7021.00,0.64
7020.00,0.64
7019.00,0.64
7018.00,0.64
7017.00,0.64
7016.00,0.64
7015.00,0.64
7014.00,0.64
7013.00,0.64
7012.00,0.64
7011.00,0.64
7010.00,0.64
7009.00,0.64
7008.00,0.63
7007.00,0.63
7006.00,0.63
7005.00,0.63
7004.00,0.63
7003.00,0.63
7002.00,0.63
7001.00,0.63
7000.00,0.62
6999.00,0.62
6998.00,0.62
6997.00,0.62
6996.00,0.62
6995.00,0.62
6994.00,0.62
6993.00,0.62
6992.00,0.62
6991.00,0.62
6990.00,0.62
6989.00,0.62
6988.00,0.61
6987.00,0.61
6986.00,0.61
6985.00,0.61
6984.00,0.61
6983.00,0.61
6982.00,0.61
6981.00,0.61
6980.00,0.61
6979.00,0.61
6978.00,0.61
6977.00,0.61
6976.00,0.61
6975.00,0.62
6974.00,0.62
6973.00,0.62
6972.00,0.62
6971.00,0.62
6970.00,0.62
6969.00,0.62
6968.00,0.62
6967.00,0.62
6966.00,0.62
6965.00,0.62
6964.00,0.62
6963.00,0.62
6962.00,0.62
6961.00,0.62
6960.00,0.62
6959.00,0.62
6958.00,0.61
6957.00,0.61
6956.00,0.61
6955.00,0.61
6954.00,0.61
6953.00,0.61
6952.00,0.61
6951.00,0.61
6950.00,0.61
6949.00,0.61
6948.00,0.60
6947.00,0.60
6946.00,0.60
6945.00,0.60
6944.00,0.60
6943.00,0.60
6942.00,0.60
6941.00,0.60
6940.00,0.60
6939.00,0.60
6938.00,0.60
6937.00,0.60
6936.00,0.60
6935.00,0.59
6934.00,0.59
6933.00,0.59
6932.00,0.59
6931.00,0.59
6930.00,0.59
6929.00,0.59
6928.00,0.59
6927.00,0.59
6926.00,0.59
6925.00,0.59
6924.00,0.59
6923.00,0.59
6922.00,0.59
6921.00,0.59
6920.00,0.58
6919.00,0.58
6918.00,0.58
6917.00,0.58
6916.00,0.58
6915.00,0.58
6914.00,0.58
6913.00,0.58
6912.00,0.58
6911.00,0.58
6910.00,0.58
6909.00,0.58
6908.00,0.58
6907.00,0.58
6906.00,0.58
6905.00,0.58
6904.00,0.58
6903.00,0.58
6902.00,0.58
6901.00,0.58
6900.00,0.58
6899.00,0.58
6898.00,0.58
6897.00,0.58
6896.00,0.57
6895.00,0.57
6894.00,0.58
6893.00,0.58
6892.00,0.58
6891.00,0.58
6890.00,0.58
6889.00,0.58
6888.00,0.58
6887.00,0.58
6886.00,0.58
6885.00,0.58
6884.00,0.58
6883.00,0.58
6882.00,0.58
6881.00,0.58
6880.00,0.59
6879.00,0.59
6878.00,0.59
6877.00,0.59
6876.00,0.59
6875.00,0.59
6874.00,0.59
6873.00,0.59
6872.00,0.59
6871.00,0.59
6870.00,0.59
6869.00,0.59
6868.00,0.59
6867.00,0.59
6866.00,0.59
6865.00,0.59
6864.00,0.59
6863.00,0.59
6862.00,0.59
6861.00,0.59
6860.00,0.59
6859.00,0.59
6858.00,0.58
6857.00,0.58
6856.00,0.58
6855.00,0.58
6854.00,0.58
6853.00,0.58
6852.00,0.58
6851.00,0.58
6850.00,0.58
6849.00,0.58
6848.00,0.58
6847.00,0.58
6846.00,0.58
6845.00,0.58
6844.00,0.58
6843.00,0.58
6842.00,0.58
6841.00,0.58
6840.00,0.58
6839.00,0.58
6838.00,0.58
6837.00,0.58
6836.00,0.58
6835.00,0.58
6834.00,0.58
6833.00,0.58
6832.00,0.58
6831.00,0.58
6830.00,0.58
6829.00,0.59
6828.00,0.59
6827.00,0.59
6826.00,0.59
6825.00,0.59
6824.00,0.59
6823.00,0.59
6822.00,0.59
6821.00,0.59
6820.00,0.59
6819.00,0.59
6818.00,0.59
6817.00,0.59
6816.00,0.59
6815.00,0.59
6814.00,0.59
6813.00,0.59
6812.00,0.59
6811.00,0.59
6810.00,0.59
6809.00,0.60
6808.00,0.60
6807.00,0.60
6806.00,0.60
6805.00,0.60
6804.00,0.60
6803.00,0.60
6802.00,0.60
6801.00,0.60
6800.00,0.60
6799.00,0.60
6798.00,0.60
6797.00,0.60
6796.00,0.60
6795.00,0.60
6794.00,0.60
6793.00,0.60
6792.00,0.60
6791.00,0.60
6790.00,0.60
6789.00,0.61
6788.00,0.61
6787.00,0.61
6786.00,0.61
6785.00,0.61
6784.00,0.61
6783.00,0.61
6782.00,0.61
6781.00,0.61
6780.00,0.61
6779.00,0.61
6778.00,0.61
6777.00,0.61
6776.00,0.61
6775.00,0.61
6774.00,0.61
6773.00,0.61
6772.00,0.61
6771.00,0.61
6770.00,0.61
6769.00,0.61
6768.00,0.61
6767.00,0.61
6766.00,0.61
6765.00,0.61
6764.00,0.61
6763.00,0.61
6762.00,0.61
6761.00,0.61
6760.00,0.61
6759.00,0.61
6758.00,0.61
6757.00,0.61
6756.00,0.61
6755.00,0.61
6754.00,0.62
6753.00,0.62
6752.00,0.62
6751.00,0.62
6750.00,0.62
6749.00,0.62
6748.00,0.62
6747.00,0.62
6746.00,0.62
6745.00,0.62
6744.00,0.62
6743.00,0.62
6742.00,0.62
6741.00,0.62
6740.00,0.63
6739.00,0.63
6738.00,0.63
6737.00,0.63
6736.00,0.63
6735.00,0.63
6734.00,0.63
6733.00,0.63
6732.00,0.63
6731.00,0.64
6730.00,0.64
6729.00,0.64
6728.00,0.64
6727.00,0.64
6726.00,0.64
6725.00,0.64
6724.00,0.64
6723.00,0.64
6722.00,0.64
6721.00,0.64
6720.00,0.65
6719.00,0.65
6718.00,0.65
6717.00,0.65
6716.00,0.65
6715.00,0.65
6714.00,0.65
6713.00,0.65
6712.00,0.65
6711.00,0.65
6710.00,0.65
6709.00,0.65
6708.00,0.65
6707.00,0.65
6706.00,0.65
6705.00,0.65
6704.00,0.65
6703.00,0.65
6702.00,0.65
6701.00,0.65
6700.00,0.65
6699.00,0.65
6698.00,0.66
6697.00,0.66
6696.00,0.66
6695.00,0.66
6694.00,0.66
6693.00,0.66
6692.00,0.67
6691.00,0.67
6690.00,0.67
6689.00,0.67
6688.00,0.67
6687.00,0.67
6686.00,0.67
6685.00,0.67
6684.00,0.68
6683.00,0.68
6682.00,0.68
6681.00,0.68
6680.00,0.68
6679.00,0.68
6678.00,0.68
6677.00,0.68
6676.00,0.68
6675.00,0.68
6674.00,0.68
6673.00,0.68
6672.00,0.68
6671.00,0.68
6670.00,0.68
6669.00,0.68
6668.00,0.68
6667.00,0.68
6666.00,0.68
6665.00,0.68
6664.00,0.68
6663.00,0.69
6662.00,0.69
6661.00,0.69
6660.00,0.69
6659.00,0.69
6658.00,0.69
6657.00,0.69
6656.00,0.70
6655.00,0.70
6654.00,0.70
6653.00,0.70
6652.00,0.70
6651.00,0.70
6650.00,0.70
6649.00,0.70
6648.00,0.70
6647.00,0.71
6646.00,0.71
6645.00,0.71
6644.00,0.71
6643.00,0.71
6642.00,0.71
6641.00,0.71
6640.00,0.71
6639.00,0.71
6638.00,0.71
6637.00,0.71
6636.00,0.71
6635.00,0.71
6634.00,0.71
6633.00,0.71
6632.00,0.71
6631.00,0.71
6630.00,0.71
6629.00,0.72
6628.00,0.72
6627.00,0.72
6626.00,0.72
6625.00,0.72
6624.00,0.72
6623.00,0.72
6622.00,0.72
6621.00,0.72
6620.00,0.72
6619.00,0.73
6618.00,0.73
6617.00,0.73
6616.00,0.73
6615.00,0.73
6614.00,0.73
6613.00,0.73
6612.00,0.73
6611.00,0.74
6610.00,0.74
6609.00,0.74
6608.00,0.74
6607.00,0.74
6606.00,0.74
6605.00,0.74
6604.00,0.74
6603.00,0.74
6602.00,0.75
6601.00,0.75
6600.00,0.75
6599.00,0.75
6598.00,0.75
6597.00,0.75
6596.00,0.75
6595.00,0.75
6594.00,0.75
6593.00,0.75
6592.00,0.76
6591.00,0.76
6590.00,0.76
6589.00,0.76
6588.00,0.76
6587.00,0.76
6586.00,0.76
6585.00,0.76
6584.00,0.76
6583.00,0.76
6582.00,0.76
6581.00,0.76
6580.00,0.76
6579.00,0.76
6578.00,0.76
6577.00,0.76
6576.00,0.76
6575.00,0.76
6574.00,0.76
6573.00,0.76
6572.00,0.76
6571.00,0.76
6570.00,0.76
6569.00,0.76
6568.00,0.76
6567.00,0.76
6566.00,0.76
6565.00,0.76
6564.00,0.76
6563.00,0.77
6562.00,0.77
6561.00,0.77
6560.00,0.77
6559.00,0.77
6558.00,0.77
6557.00,0.77
6556.00,0.77
6555.00,0.77
6554.00,0.77
6553.00,0.77
6552.00,0.78
6551.00,0.78
6550.00,0.78
6549.00,0.78
6548.00,0.78
6547.00,0.78
6546.00,0.78
6545.00,0.78
6544.00,0.78
6543.00,0.78
6542.00,0.78
6541.00,0.78
6540.00,0.78
6539.00,0.78
6538.00,0.78
6537.00,0.78
6536.00,0.78
6535.00,0.79
6534.00,0.79
6533.00,0.79
6532.00,0.79
6531.00,0.79
6530.00,0.79
6529.00,0.79
6528.00,0.79
6527.00,0.79
6526.00,0.79
6525.00,0.79
6524.00,0.79
6523.00,0.80
6522.00,0.80
6521.00,0.80
6520.00,0.80
6519.00,0.80
6518.00,0.80
6517.00,0.80
6516.00,0.80
6515.00,0.80
6514.00,0.80
6513.00,0.80
6512.00,0.80
6511.00,0.80
6510.00,0.80
6509.00,0.80
6508.00,0.80
6507.00,0.80
6506.00,0.80
6505.00,0.80
6504.00,0.80
6503.00,0.80
6502.00,0.80
6501.00,0.81
6500.00,0.81
6499.00,0.81
6498.00,0.81
6497.00,0.81
6496.00,0.81
6495.00,0.81
6494.00,0.81
6493.00,0.81
6492.00,0.81
6491.00,0.81
6490.00,0.81
6489.00,0.81
6488.00,0.81
6487.00,0.81
6486.00,0.81
6485.00,0.81
6484.00,0.81
6483.00,0.81
6482.00,0.81
6481.00,0.81
6480.00,0.82
6479.00,0.82
6478.00,0.82
6477.00,0.82
6476.00,0.82
6475.00,0.82
6474.00,0.82
6473.00,0.82
6472.00,0.82
6471.00,0.82
6470.00,0.82
6469.00,0.82
6468.00,0.83
6467.00,0.83
6466.00,0.83
6465.00,0.83
6464.00,0.83
6463.00,0.83
6462.00,0.83
6461.00,0.83
6460.00,0.83
6459.00,0.83
6458.00,0.83
6457.00,0.83
6456.00,0.83
6455.00,0.83
6454.00,0.83
6453.00,0.83
6452.00,0.83
6451.00,0.83
6450.00,0.83
6449.00,0.83
6448.00,0.83
6447.00,0.84
6446.00,0.84
6445.00,0.84
6444.00,0.84
6443.00,0.84
6442.00,0.84
6441.00,0.84
6440.00,0.84
6439.00,0.84
6438.00,0.84
6437.00,0.84
6436.00,0.84
6435.00,0.84
6434.00,0.84
6433.00,0.84
6432.00,0.84
6431.00,0.84
6430.00,0.84
6429.00,0.84
6428.00,0.84
6427.00,0.84
6426.00,0.84
6425.00,0.84
6424.00,0.84
6423.00,0.84
6422.00,0.84
6421.00,0.84
6420.00,0.84
6419.00,0.84
6418.00,0.84
6417.00,0.84
6416.00,0.84
6415.00,0.84
6414.00,0.84
6413.00,0.84
6412.00,0.84
6411.00,0.84
6410.00,0.84
6409.00,0.85
6408.00,0.85
6407.00,0.85
6406.00,0.85
6405.00,0.85
6404.00,0.85
6403.00,0.85
6402.00,0.85
6401.00,0.85
6400.00,0.85
6399.00,0.85
6398.00,0.85
6397.00,0.85
6396.00,0.85
6395.00,0.85
6394.00,0.85
6393.00,0.85
6392.00,0.85
6391.00,0.85
6390.00,0.85
6389.00,0.85
6388.00,0.85
6387.00,0.86
6386.00,0.86
6385.00,0.86
6384.00,0.86
6383.00,0.86
6382.00,0.86
6381.00,0.86
6380.00,0.86
6379.00,0.86
6378.00,0.86
6377.00,0.86
6376.00,0.86
6375.00,0.86
6374.00,0.86
6373.00,0.86
6372.00,0.86
6371.00,0.86
6370.00,0.86
6369.00,0.87
6368.00,0.87
6367.00,0.87
6366.00,0.87
6365.00,0.87
6364.00,0.87
6363.00,0.87
6362.00,0.87
6361.00,0.87
6360.00,0.87
6359.00,0.87
6358.00,0.87
6357.00,0.87
6356.00,0.87
6355.00,0.87
6354.00,0.87
6353.00,0.87
6352.00,0.87
6351.00,0.87
6350.00,0.87
6349.00,0.87
6348.00,0.87
6347.00,0.87
6346.00,0.88
6345.00,0.88
6344.00,0.88
6343.00,0.88
6342.00,0.88
6341.00,0.88
6340.00,0.88
6339.00,0.88
6338.00,0.88
6337.00,0.88
6336.00,0.88
6335.00,0.88
6334.00,0.88
6333.00,0.88
6332.00,0.89
6331.00,0.89
6330.00,0.89
6329.00,0.89
6328.00,0.89
6327.00,0.89
6326.00,0.89
6325.00,0.89
6324.00,0.89
6323.00,0.89
6322.00,0.89
6321.00,0.89
6320.00,0.89
6319.00,0.89
6318.00,0.89
6317.00,0.90
6316.00,0.90
6315.00,0.90
6314.00,0.90
6313.00,0.90
6312.00,0.90
6311.00,0.90
6310.00,0.90
6309.00,0.90
6308.00,0.90
6307.00,0.90
6306.00,0.90
6305.00,0.91
6304.00,0.91
6303.00,0.91
6302.00,0.91
6301.00,0.91
6300.00,0.91
6299.00,0.91
6298.00,0.91
6297.00,0.92
6296.00,0.92
6295.00,0.92
6294.00,0.92
6293.00,0.92
6292.00,0.92
6291.00,0.92
6290.00,0.93
6289.00,0.93
6288.00,0.93
6287.00,0.93
6286.00,0.93
6285.00,0.93
6284.00,0.93
6283.00,0.93
6282.00,0.93
6281.00,0.94
6280.00,0.94
6279.00,0.94
6278.00,0.94
6277.00,0.94
6276.00,0.94
6275.00,0.94
6274.00,0.94
6273.00,0.94
6272.00,0.94
6271.00,0.94
6270.00,0.94
6269.00,0.94
6268.00,0.94
6267.00,0.94
6266.00,0.94
6265.00,0.94
6264.00,0.95
6263.00,0.95
6262.00,0.95
6261.00,0.95
6260.00,0.95
6259.00,0.95
6258.00,0.95
6257.00,0.95
6256.00,0.95
6255.00,0.96
6254.00,0.96
6253.00,0.96
6252.00,0.96
6251.00,0.96
6250.00,0.96
6249.00,0.96
6248.00,0.96
6247.00,0.97
6246.00,0.97
6245.00,0.97
6244.00,0.97
6243.00,0.97
6242.00,0.97
6241.00,0.97
6240.00,0.97
6239.00,0.97
6238.00,0.97
6237.00,0.97
6236.00,0.98
6235.00,0.98
6234.00,0.98
6233.00,0.98
6232.00,0.98
6231.00,0.98
6230.00,0.98
6229.00,0.98
6228.00,0.98
6227.00,0.98
6226.00,0.98
6225.00,0.98
6224.00,0.99
6223.00,0.99
6222.00,0.99
6221.00,0.99
6220.00,0.99
6219.00,0.99
6218.00,0.99
6217.00,0.99
6216.00,0.99
6215.00,1.00
6214.00,1.00
6213.00,1.00
6212.00,1.00
6211.00,1.00
6210.00,1.00
6209.00,1.01
6208.00,1.01
6207.00,1.01
6206.00,1.01
6205.00,1.01
6204.00,1.02
6203.00,1.02
6202.00,1.02
6201.00,1.02
6200.00,1.02
6199.00,1.02
6198.00,1.03
6197.00,1.03
6196.00,1.03
6195.00,1.03
6194.00,1.03
6193.00,1.03
6192.00,1.03
6191.00,1.03
6190.00,1.04
6189.00,1.04
6188.00,1.04
6187.00,1.04
6186.00,1.04
6185.00,1.04
6184.00,1.04
6183.00,1.04
6182.00,1.05
6181.00,1.05
6180.00,1.05
6179.00,1.05
6178.00,1.05
6177.00,1.05
6176.00,1.05
6175.00,1.05
6174.00,1.05
6173.00,1.05
6172.00,1.05
6171.00,1.05
6170.00,1.05
6169.00,1.05
6168.00,1.05
6167.00,1.05
6166.00,1.05
6165.00,1.05
6164.00,1.05
6163.00,1.06
6162.00,1.06
6161.00,1.06
6160.00,1.06
6159.00,1.06
6158.00,1.06
6157.00,1.06
6156.00,1.06
6155.00,1.06
6154.00,1.07
6153.00,1.07
6152.00,1.07
6151.00,1.07
6150.00,1.07
6149.00,1.07
6148.00,1.08
6147.00,1.08
6146.00,1.08
6145.00,1.08
6144.00,1.08
6143.00,1.08
6142.00,1.09
6141.00,1.09
6140.00,1.09
6139.00,1.09
6138.00,1.09
6137.00,1.09
6136.00,1.10
6135.00,1.10
6134.00,1.10
6133.00,1.10
6132.00,1.10
6131.00,1.10
6130.00,1.11
6129.00,1.11
6128.00,1.11
6127.00,1.11
6126.00,1.11
6125.00,1.11
6124.00,1.11
6123.00,1.11
6122.00,1.12
6121.00,1.12
6120.00,1.12
6119.00,1.12
6118.00,1.12
6117.00,1.12
6116.00,1.12
6115.00,1.12
6114.00,1.12
6113.00,1.12
6112.00,1.13
6111.00,1.13
6110.00,1.13
6109.00,1.13
6108.00,1.13
6107.00,1.13
6106.00,1.14
6105.00,1.14
6104.00,1.14
6103.00,1.14
6102.00,1.14
6101.00,1.14
6100.00,1.15
6099.00,1.15
6098.00,1.15
6097.00,1.15
6096.00,1.15
6095.00,1.15
6094.00,1.15
6093.00,1.15
6092.00,1.15
6091.00,1.15
6090.00,1.15
6089.00,1.15
6088.00,1.16
6087.00,1.16
6086.00,1.16
6085.00,1.16
6084.00,1.16
6083.00,1.16
6082.00,1.16
6081.00,1.16
6080.00,1.16
6079.00,1.16
6078.00,1.16
6077.00,1.16
6076.00,1.16
6075.00,1.16
6074.00,1.17
6073.00,1.17
6072.00,1.17
6071.00,1.17
6070.00,1.17
6069.00,1.17
6068.00,1.17
6067.00,1.17
6066.00,1.17
6065.00,1.17
6064.00,1.17
6063.00,1.18
6062.00,1.18
6061.00,1.18
6060.00,1.18
6059.00,1.18
6058.00,1.18
6057.00,1.18
6056.00,1.18
6055.00,1.19
6054.00,1.19
6053.00,1.19
6052.00,1.19
6051.00,1.19
6050.00,1.19
6049.00,1.19
6048.00,1.19
6047.00,1.19
6046.00,1.19
6045.00,1.19
6044.00,1.19
6043.00,1.19
6042.00,1.19
6041.00,1.19
6040.00,1.19
6039.00,1.19
6038.00,1.19
6037.00,1.19
6036.00,1.19
6035.00,1.19
6034.00,1.19
6033.00,1.19
6032.00,1.19
6031.00,1.19
6030.00,1.19
6029.00,1.19
6028.00,1.20
6027.00,1.20
6026.00,1.20
6025.00,1.20
6024.00,1.20
6023.00,1.20
6022.00,1.20
6021.00,1.20
6020.00,1.20
6019.00,1.20
6018.00,1.20
6017.00,1.20
6016.00,1.20
6015.00,1.20
6014.00,1.19
6013.00,1.19
6012.00,1.19
6011.00,1.19
6010.00,1.19
6009.00,1.19
6008.00,1.19
6007.00,1.19
6006.00,1.19
6005.00,1.19
6004.00,1.19
6003.00,1.19
6002.00,1.19
6001.00,1.19
6000.00,1.19
5999.00,1.19
5998.00,1.19
5997.00,1.18
5996.00,1.18
5995.00,1.18
5994.00,1.18
5993.00,1.18
5992.00,1.18
5991.00,1.18
5990.00,1.18
5989.00,1.17
5988.00,1.17
5987.00,1.17
5986.00,1.17
5985.00,1.17
5984.00,1.17
5983.00,1.16
5982.00,1.16
5981.00,1.16
5980.00,1.16
5979.00,1.15
5978.00,1.15
5977.00,1.15
5976.00,1.15
5975.00,1.14
5974.00,1.14
5973.00,1.14
5972.00,1.13
5971.00,1.13
5970.00,1.12
5969.00,1.12
5968.00,1.11
5967.00,1.10
5966.00,1.10
5965.00,1.09
5964.00,1.08
5963.00,1.08
5962.00,1.07
5961.00,1.06
5960.00,1.05
5959.00,1.04
5958.00,1.03
5957.00,1.03
5956.00,1.02
5955.00,1.01
5954.00,1.00
5953.00,1.00
5952.00,0.99
5951.00,0.98
5950.00,0.98
5949.00,0.97
5948.00,0.97
5947.00,0.96
5946.00,0.96
5945.00,0.95
5944.00,0.95
5943.00,0.95
5942.00,0.94
5941.00,0.94
5940.00,0.94
5939.00,0.94
5938.00,0.94
5937.00,0.93
5936.00,0.93
5935.00,0.93
5934.00,0.93
5933.00,0.93
5932.00,0.93
5931.00,0.93
5930.00,0.93
5929.00,0.93
5928.00,0.93
5927.00,0.93
5926.00,0.93
5925.00,0.93
5924.00,0.92
5923.00,0.92
5922.00,0.92
5921.00,0.92
5920.00,0.92
5919.00,0.91
5918.00,0.91
5917.00,0.91
5916.00,0.91
5915.00,0.90
5914.00,0.90
5913.00,0.90
5912.00,0.89
5911.00,0.89
5910.00,0.89
5909.00,0.89
5908.00,0.88
5907.00,0.88
5906.00,0.88
5905.00,0.88
5904.00,0.88
5903.00,0.87
5902.00,0.87
5901.00,0.87
5900.00,0.87
5899.00,0.87
5898.00,0.87
5897.00,0.87
5896.00,0.87
5895.00,0.87
5894.00,0.88
5893.00,0.88
5892.00,0.88
5891.00,0.88
5890.00,0.88
5889.00,0.89
5888.00,0.89
5887.00,0.89
5886.00,0.90
5885.00,0.90
5884.00,0.90
5883.00,0.90
5882.00,0.91
5881.00,0.91
5880.00,0.91
5879.00,0.92
5878.00,0.92
5877.00,0.92
5876.00,0.92
5875.00,0.93
5874.00,0.93
5873.00,0.93
5872.00,0.93
5871.00,0.94
5870.00,0.94
5869.00,0.94
5868.00,0.94
5867.00,0.94
5866.00,0.95
5865.00,0.95
5864.00,0.95
5863.00,0.95
5862.00,0.95
5861.00,0.95
5860.00,0.95
5859.00,0.96
5858.00,0.96
5857.00,0.96
5856.00,0.96
5855.00,0.96
5854.00,0.96
5853.00,0.96
5852.00,0.97
5851.00,0.97
5850.00,0.97
5849.00,0.97
5848.00,0.97
5847.00,0.97
5846.00,0.97
5845.00,0.97
5844.00,0.97
5843.00,0.97
5842.00,0.97
5841.00,0.97
5840.00,0.97
5839.00,0.97
5838.00,0.97
5837.00,0.97
5836.00,0.97
5835.00,0.97
5834.00,0.97
5833.00,0.97
5832.00,0.97
5831.00,0.97
5830.00,0.97
5829.00,0.97
5828.00,0.97
5827.00,0.97
5826.00,0.97
5825.00,0.97
5824.00,0.97
5823.00,0.97
5822.00,0.97
5821.00,0.97
5820.00,0.97
5819.00,0.97
5818.00,0.97
5817.00,0.97
5816.00,0.97
5815.00,0.97
5814.00,0.97
5813.00,0.97
5812.00,0.97
5811.00,0.98
5810.00,0.98
5809.00,0.98
5808.00,0.98
5807.00,0.98
5806.00,0.98
5805.00,0.98
5804.00,0.97
5803.00,0.97
5802.00,0.97
5801.00,0.97
5800.00,0.97
5799.00,0.97
5798.00,0.97
5797.00,0.97
5796.00,0.96
5795.00,0.96
5794.00,0.96
5793.00,0.96
5792.00,0.96
5791.00,0.95
5790.00,0.95
5789.00,0.95
5788.00,0.95
5787.00,0.94
5786.00,0.94
5785.00,0.94
5784.00,0.94
5783.00,0.94
5782.00,0.93
5781.00,0.93
5780.00,0.93
5779.00,0.93
5778.00,0.93
5777.00,0.93
5776.00,0.92
5775.00,0.92
5774.00,0.92
5773.00,0.92
5772.00,0.92
5771.00,0.92
5770.00,0.92
5769.00,0.92
5768.00,0.92
5767.00,0.92
5766.00,0.92
5765.00,0.92
5764.00,0.93
5763.00,0.93
5762.00,0.93
5761.00,0.93
5760.00,0.94
5759.00,0.94
5758.00,0.94
5757.00,0.94
5756.00,0.95
5755.00,0.95
5754.00,0.95
5753.00,0.96
5752.00,0.96
5751.00,0.97
5750.00,0.97
5749.00,0.97
5748.00,0.98
5747.00,0.98
5746.00,0.99
5745.00,0.99
5744.00,0.99
5743.00,1.00
5742.00,1.00
5741.00,1.00
5740.00,1.01
5739.00,1.01
5738.00,1.01
5737.00,1.02
5736.00,1.02
5735.00,1.02
5734.00,1.02
5733.00,1.03
5732.00,1.03
5731.00,1.03
5730.00,1.03
5729.00,1.03
5728.00,1.03
5727.00,1.03
5726.00,1.04
5725.00,1.04
5724.00,1.04
5723.00,1.04
5722.00,1.04
5721.00,1.04
5720.00,1.04
5719.00,1.04
5718.00,1.04
5717.00,1.04
5716.00,1.04
5715.00,1.04
5714.00,1.04
5713.00,1.04
5712.00,1.04
5711.00,1.04
5710.00,1.04
5709.00,1.04
5708.00,1.04
5707.00,1.04
5706.00,1.04
5705.00,1.04
5704.00,1.04
5703.00,1.04
5702.00,1.04
5701.00,1.04
5700.00,1.03
5699.00,1.03
5698.00,1.03
5697.00,1.03
5696.00,1.03
5695.00,1.03
5694.00,1.03
5693.00,1.03
5692.00,1.03
5691.00,1.03
5690.00,1.02
5689.00,1.02
5688.00,1.02
5687.00,1.02
5686.00,1.02
5685.00,1.02
5684.00,1.02
5683.00,1.02
5682.00,1.02
5681.00,1.02
5680.00,1.02
5679.00,1.02
5678.00,1.02
5677.00,1.02
5676.00,1.02
5675.00,1.02
5674.00,1.02
5673.00,1.02
5672.00,1.02
5671.00,1.02
5670.00,1.01
5669.00,1.01
5668.00,1.02
5667.00,1.02
5666.00,1.02
5665.00,1.02
5664.00,1.02
5663.00,1.02
5662.00,1.02
5661.00,1.02
5660.00,1.02
5659.00,1.02
5658.00,1.02
5657.00,1.03
5656.00,1.03
5655.00,1.03
5654.00,1.03
5653.00,1.03
5652.00,1.03
5651.00,1.04
5650.00,1.04
5649.00,1.04
5648.00,1.04
5647.00,1.04
5646.00,1.05
5645.00,1.05
5644.00,1.05
5643.00,1.05
5642.00,1.05
5641.00,1.06
5640.00,1.06
5639.00,1.06
5638.00,1.06
5637.00,1.07
5636.00,1.07
5635.00,1.07
5634.00,1.07
5633.00,1.07
5632.00,1.08
5631.00,1.08
5630.00,1.08
5629.00,1.08
5628.00,1.08
5627.00,1.09
5626.00,1.09
5625.00,1.09
5624.00,1.09
5623.00,1.09
5622.00,1.09
5621.00,1.09
5620.00,1.10
5619.00,1.10
5618.00,1.10
5617.00,1.10
5616.00,1.10
5615.00,1.10
5614.00,1.10
5613.00,1.10
5612.00,1.11
5611.00,1.11
5610.00,1.11
5609.00,1.11
5608.00,1.11
5607.00,1.11
5606.00,1.12
5605.00,1.12
5604.00,1.12
5603.00,1.12
5602.00,1.12
5601.00,1.13
5600.00,1.13
5599.00,1.13
5598.00,1.13
5597.00,1.14
5596.00,1.14
5595.00,1.14
5594.00,1.14
5593.00,1.14
5592.00,1.15
5591.00,1.15
5590.00,1.15
5589.00,1.15
5588.00,1.15
5587.00,1.15
5586.00,1.16
5585.00,1.16
5584.00,1.16
5583.00,1.16
5582.00,1.16
5581.00,1.16
5580.00,1.16
5579.00,1.16
5578.00,1.16
5577.00,1.17
5576.00,1.17
5575.00,1.17
5574.00,1.17
5573.00,1.17
5572.00,1.17
5571.00,1.17
5570.00,1.17
5569.00,1.17
5568.00,1.18
5567.00,1.18
5566.00,1.18
5565.00,1.18
5564.00,1.18
5563.00,1.18
5562.00,1.18
5561.00,1.18
5560.00,1.18
5559.00,1.18
5558.00,1.18
5557.00,1.19
5556.00,1.19
5555.00,1.19
5554.00,1.19
5553.00,1.19
5552.00,1.19
5551.00,1.19
5550.00,1.19
5549.00,1.19
5548.00,1.20
5547.00,1.20
5546.00,1.20
5545.00,1.20
5544.00,1.20
5543.00,1.20
5542.00,1.20
5541.00,1.20
5540.00,1.20
5539.00,1.21
5538.00,1.21
5537.00,1.21
5536.00,1.21
5535.00,1.21
5534.00,1.21
5533.00,1.21
5532.00,1.21
5531.00,1.21
5530.00,1.21
5529.00,1.22
5528.00,1.22
5527.00,1.22
5526.00,1.22
5525.00,1.22
5524.00,1.22
5523.00,1.22
5522.00,1.22
5521.00,1.22
5520.00,1.22
5519.00,1.23
5518.00,1.23
5517.00,1.23
5516.00,1.23
5515.00,1.23
5514.00,1.23
5513.00,1.23
5512.00,1.23
5511.00,1.23
5510.00,1.23
5509.00,1.23
5508.00,1.23
5507.00,1.23
5506.00,1.23
5505.00,1.23
5504.00,1.23
5503.00,1.23
5502.00,1.23
5501.00,1.23
5500.00,1.23
5499.00,1.23
5498.00,1.23
5497.00,1.23
5496.00,1.23
5495.00,1.23
5494.00,1.23
5493.00,1.24
5492.00,1.24
5491.00,1.24
5490.00,1.24
5489.00,1.24
5488.00,1.24
5487.00,1.24
5486.00,1.24
5485.00,1.24
5484.00,1.25
5483.00,1.25
5482.00,1.25
5481.00,1.25
5480.00,1.25
5479.00,1.25
5478.00,1.25
5477.00,1.25
5476.00,1.26
5475.00,1.26
5474.00,1.26
5473.00,1.26
5472.00,1.26
5471.00,1.26
5470.00,1.26
5469.00,1.27
5468.00,1.27
5467.00,1.27
5466.00,1.27
5465.00,1.27
5464.00,1.27
5463.00,1.27
5462.00,1.27
5461.00,1.28
5460.00,1.28
5459.00,1.28
5458.00,1.28
5457.00,1.28
5456.00,1.28
5455.00,1.28
5454.00,1.28
5453.00,1.28
5452.00,1.28
5451.00,1.28
5450.00,1.28
5449.00,1.28
5448.00,1.28
5447.00,1.28
5446.00,1.28
5445.00,1.28
5444.00,1.28
5443.00,1.28
5442.00,1.28
5441.00,1.28
5440.00,1.28
5439.00,1.28
5438.00,1.28
5437.00,1.29
5436.00,1.29
5435.00,1.29
5434.00,1.29
5433.00,1.29
5432.00,1.29
5431.00,1.29
5430.00,1.29
5429.00,1.29
5428.00,1.29
5427.00,1.29
5426.00,1.30
5425.00,1.30
5424.00,1.30
5423.00,1.30
5422.00,1.30
5421.00,1.30
5420.00,1.30
5419.00,1.30
5418.00,1.30
5417.00,1.30
5416.00,1.30
5415.00,1.30
5414.00,1.29
5413.00,1.29
5412.00,1.29
5411.00,1.29
5410.00,1.29
5409.00,1.29
5408.00,1.29
5407.00,1.29
5406.00,1.29
5405.00,1.29
5404.00,1.30
5403.00,1.30
5402.00,1.30
5401.00,1.30
5400.00,1.30
5399.00,1.30
5398.00,1.30
5397.00,1.30
5396.00,1.30
5395.00,1.30
5394.00,1.30
5393.00,1.30
5392.00,1.29
5391.00,1.29
5390.00,1.29
5389.00,1.29
5388.00,1.29
5387.00,1.29
5386.00,1.29
5385.00,1.29
5384.00,1.28
5383.00,1.28
5382.00,1.28
5381.00,1.28
5380.00,1.28
5379.00,1.27
5378.00,1.27
5377.00,1.27
5376.00,1.27
5375.00,1.26
5374.00,1.26
5373.00,1.26
5372.00,1.26
5371.00,1.25
5370.00,1.25
5369.00,1.25
5368.00,1.24
5367.00,1.24
5366.00,1.24
5365.00,1.23
5364.00,1.23
5363.00,1.22
5362.00,1.22
5361.00,1.21
5360.00,1.21
5359.00,1.20
5358.00,1.20
5357.00,1.19
5356.00,1.18
5355.00,1.18
5354.00,1.17
5353.00,1.16
5352.00,1.16
5351.00,1.15
5350.00,1.14
5349.00,1.13
5348.00,1.12
5347.00,1.12
5346.00,1.11
5345.00,1.10
5344.00,1.09
5343.00,1.08
5342.00,1.07
5341.00,1.06
5340.00,1.06
5339.00,1.05
5338.00,1.04
5337.00,1.03
5336.00,1.02
5335.00,1.01
5334.00,1.00
5333.00,0.99
5332.00,0.99
5331.00,0.98
5330.00,0.97
5329.00,0.96
5328.00,0.95
5327.00,0.94
5326.00,0.93
5325.00,0.91
5324.00,0.90
5323.00,0.89
5322.00,0.88
5321.00,0.87
5320.00,0.86
5319.00,0.85
5318.00,0.84
5317.00,0.83
5316.00,0.82
5315.00,0.81
5314.00,0.79
5313.00,0.78
5312.00,0.77
5311.00,0.77
5310.00,0.76
5309.00,0.75
5308.00,0.74
5307.00,0.73
5306.00,0.72
5305.00,0.71
5304.00,0.71
5303.00,0.70
5302.00,0.69
5301.00,0.68
5300.00,0.68
5299.00,0.67
5298.00,0.67
5297.00,0.66
5296.00,0.66
5295.00,0.65
5294.00,0.65
5293.00,0.64
5292.00,0.64
5291.00,0.63
5290.00,0.63
5289.00,0.63
5288.00,0.62
5287.00,0.62
5286.00,0.62
5285.00,0.62
5284.00,0.61
5283.00,0.61
5282.00,0.61
5281.00,0.61
5280.00,0.60
5279.00,0.60
5278.00,0.60
5277.00,0.60
5276.00,0.60
5275.00,0.60
5274.00,0.59
5273.00,0.59
5272.00,0.59
5271.00,0.59
5270.00,0.59
5269.00,0.59
5268.00,0.59
5267.00,0.58
5266.00,0.58
5265.00,0.58
5264.00,0.58
5263.00,0.58
5262.00,0.58
5261.00,0.58
5260.00,0.58
5259.00,0.58
5258.00,0.58
5257.00,0.57
5256.00,0.57
5255.00,0.57
5254.00,0.57
5253.00,0.57
5252.00,0.57
5251.00,0.57
5250.00,0.57
5249.00,0.57
5248.00,0.57
5247.00,0.57
5246.00,0.57
5245.00,0.57
5244.00,0.57
5243.00,0.57
5242.00,0.57
5241.00,0.57
5240.00,0.57
5239.00,0.57
5238.00,0.57
5237.00,0.57
5236.00,0.57
5235.00,0.57
5234.00,0.57
5233.00,0.57
5232.00,0.57
5231.00,0.57
5230.00,0.57
5229.00,0.57
5228.00,0.57
5227.00,0.57
5226.00,0.57
5225.00,0.57
5224.00,0.57
5223.00,0.57
5222.00,0.57
5221.00,0.57
5220.00,0.57
5219.00,0.57
5218.00,0.57
5217.00,0.57
5216.00,0.57
5215.00,0.57
5214.00,0.57
5213.00,0.57
5212.00,0.57
5211.00,0.57
5210.00,0.57
5209.00,0.57
5208.00,0.57
5207.00,0.57
5206.00,0.57
5205.00,0.57
5204.00,0.57
5203.00,0.57
5202.00,0.57
5201.00,0.57
5200.00,0.57
5199.00,0.57
5198.00,0.57
5197.00,0.57
5196.00,0.57
5195.00,0.57
5194.00,0.57
5193.00,0.57
5192.00,0.57
5191.00,0.57
5190.00,0.58
5189.00,0.58
5188.00,0.58
5187.00,0.58
5186.00,0.58
5185.00,0.58
5184.00,0.58
5183.00,0.58
5182.00,0.58
5181.00,0.58
5180.00,0.58
5179.00,0.58
5178.00,0.58
5177.00,0.58
5176.00,0.58
5175.00,0.58
5174.00,0.58
5173.00,0.58
5172.00,0.58
5171.00,0.58
5170.00,0.59
5169.00,0.59
5168.00,0.59
5167.00,0.59
5166.00,0.59
5165.00,0.59
5164.00,0.59
5163.00,0.59
5162.00,0.59
5161.00,0.59
5160.00,0.59
5159.00,0.59
5158.00,0.59
5157.00,0.59
5156.00,0.59
5155.00,0.59
5154.00,0.59
5153.00,0.59
5152.00,0.59
5151.00,0.59
5150.00,0.59
5149.00,0.59
5148.00,0.59
5147.00,0.59
5146.00,0.59
5145.00,0.59
5144.00,0.60
5143.00,0.60
5142.00,0.60
5141.00,0.60
5140.00,0.60
5139.00,0.60
5138.00,0.60
5137.00,0.60
5136.00,0.60
5135.00,0.60
5134.00,0.60
5133.00,0.60
5132.00,0.60
5131.00,0.60
5130.00,0.61
5129.00,0.61
5128.00,0.61
5127.00,0.61
5126.00,0.61
5125.00,0.61
5124.00,0.61
5123.00,0.61
5122.00,0.61
5121.00,0.61
5120.00,0.61
5119.00,0.61
5118.00,0.61
5117.00,0.61
5116.00,0.61
5115.00,0.61
5114.00,0.61
5113.00,0.62
5112.00,0.62
5111.00,0.62
5110.00,0.62
5109.00,0.62
5108.00,0.62
5107.00,0.62
5106.00,0.62
5105.00,0.62
5104.00,0.62
5103.00,0.62
5102.00,0.62
5101.00,0.62
5100.00,0.62
5099.00,0.62
5098.00,0.63
5097.00,0.63
5096.00,0.63
5095.00,0.63
5094.00,0.63
5093.00,0.63
5092.00,0.63
5091.00,0.63
5090.00,0.63
5089.00,0.63
5088.00,0.63
5087.00,0.63
5086.00,0.63
5085.00,0.63
5084.00,0.63
5083.00,0.63
5082.00,0.64
5081.00,0.64
5080.00,0.64
5079.00,0.64
5078.00,0.64
5077.00,0.64
5076.00,0.64
5075.00,0.64
5074.00,0.64
5073.00,0.64
5072.00,0.64
5071.00,0.64
5070.00,0.64
5069.00,0.65
5068.00,0.65
5067.00,0.65
5066.00,0.65
5065.00,0.65
5064.00,0.65
5063.00,0.65
5062.00,0.65
5061.00,0.65
5060.00,0.65
5059.00,0.65
5058.00,0.65
5057.00,0.66
5056.00,0.66
5055.00,0.66
5054.00,0.66
5053.00,0.66
5052.00,0.66
5051.00,0.66
5050.00,0.66
5049.00,0.66
5048.00,0.66
5047.00,0.67
5046.00,0.67
5045.00,0.67
5044.00,0.67
5043.00,0.67
5042.00,0.67
5041.00,0.67
5040.00,0.67
5039.00,0.67
5038.00,0.68
5037.00,0.68
5036.00,0.68
5035.00,0.68
5034.00,0.68
5033.00,0.68
5032.00,0.68
5031.00,0.68
5030.00,0.68
5029.00,0.68
5028.00,0.68
5027.00,0.68
5026.00,0.68
5025.00,0.69
5024.00,0.69
5023.00,0.69
5022.00,0.69
5021.00,0.69
5020.00,0.69
5019.00,0.69
5018.00,0.69
5017.00,0.69
5016.00,0.69
5015.00,0.70
5014.00,0.70
5013.00,0.70
5012.00,0.70
5011.00,0.70
5010.00,0.70
5009.00,0.70
5008.00,0.71
5007.00,0.71
5006.00,0.71
5005.00,0.71
5004.00,0.71
5003.00,0.71
5002.00,0.71
5001.00,0.71
5000.00,0.71
4999.00,0.72
4998.00,0.72
4997.00,0.72
4996.00,0.72
4995.00,0.72
4994.00,0.72
4993.00,0.72
4992.00,0.72
4991.00,0.73
4990.00,0.73
4989.00,0.73
4988.00,0.73
4987.00,0.73
4986.00,0.73
4985.00,0.73
4984.00,0.73
4983.00,0.74
4982.00,0.74
4981.00,0.74
4980.00,0.74
4979.00,0.74
4978.00,0.74
4977.00,0.74
4976.00,0.74
4975.00,0.74
4974.00,0.74
4973.00,0.74
4972.00,0.75
4971.00,0.75
4970.00,0.75
4969.00,0.75
4968.00,0.75
4967.00,0.75
4966.00,0.75
4965.00,0.75
4964.00,0.76
4963.00,0.76
4962.00,0.76
4961.00,0.76
4960.00,0.76
4959.00,0.76
4958.00,0.76
4957.00,0.76
4956.00,0.76
4955.00,0.76
4954.00,0.77
4953.00,0.77
4952.00,0.77
4951.00,0.77
4950.00,0.77
4949.00,0.77
4948.00,0.77
4947.00,0.77
4946.00,0.77
4945.00,0.77
4944.00,0.77
4943.00,0.77
4942.00,0.77
4941.00,0.77
4940.00,0.78
4939.00,0.78
4938.00,0.78
4937.00,0.78
4936.00,0.78
4935.00,0.78
4934.00,0.78
4933.00,0.78
4932.00,0.78
4931.00,0.78
4930.00,0.78
4929.00,0.79
4928.00,0.79
4927.00,0.79
4926.00,0.79
4925.00,0.79
4924.00,0.79
4923.00,0.79
4922.00,0.79
4921.00,0.79
4920.00,0.79
4919.00,0.79
4918.00,0.79
4917.00,0.79
4916.00,0.79
4915.00,0.79
4914.00,0.79
4913.00,0.79
4912.00,0.79
4911.00,0.79
4910.00,0.79
4909.00,0.79
4908.00,0.79
4907.00,0.79
4906.00,0.79
4905.00,0.79
4904.00,0.79
4903.00,0.79
4902.00,0.79
4901.00,0.79
4900.00,0.79
4899.00,0.79
4898.00,0.79
4897.00,0.79
4896.00,0.80
4895.00,0.80
4894.00,0.80
4893.00,0.80
4892.00,0.80
4891.00,0.80
4890.00,0.80
4889.00,0.80
4888.00,0.80
4887.00,0.80
4886.00,0.80
4885.00,0.80
4884.00,0.80
4883.00,0.81
4882.00,0.81
4881.00,0.81
4880.00,0.81
4879.00,0.81
4878.00,0.81
4877.00,0.81
4876.00,0.81
4875.00,0.81
4874.00,0.81
4873.00,0.81
4872.00,0.81
4871.00,0.81
4870.00,0.81
4869.00,0.81
4868.00,0.81
4867.00,0.81
4866.00,0.81
4865.00,0.81
4864.00,0.81
4863.00,0.81
4862.00,0.81
4861.00,0.81
4860.00,0.81
4859.00,0.81
4858.00,0.81
4857.00,0.81
4856.00,0.81
4855.00,0.81
4854.00,0.81
4853.00,0.81
4852.00,0.81
4851.00,0.81
4850.00,0.81
4849.00,0.81
4848.00,0.81
4847.00,0.81
4846.00,0.81
4845.00,0.81
4844.00,0.81
4843.00,0.81
4842.00,0.81
4841.00,0.81
4840.00,0.81
4839.00,0.81
4838.00,0.82
4837.00,0.82
4836.00,0.82
4835.00,0.82
4834.00,0.82
4833.00,0.82
4832.00,0.83
4831.00,0.83
4830.00,0.83
4829.00,0.83
4828.00,0.83
4827.00,0.83
4826.00,0.83
4825.00,0.84
4824.00,0.84
4823.00,0.84
4822.00,0.84
4821.00,0.84
4820.00,0.84
4819.00,0.84
4818.00,0.84
4817.00,0.84
4816.00,0.84
4815.00,0.85
4814.00,0.85
4813.00,0.85
4812.00,0.85
4811.00,0.85
4810.00,0.85
4809.00,0.85
4808.00,0.85
4807.00,0.85
4806.00,0.85
4805.00,0.85
4804.00,0.85
4803.00,0.85
4802.00,0.85
4801.00,0.85
4800.00,0.85
4799.00,0.85
4798.00,0.85
4797.00,0.86
4796.00,0.86
4795.00,0.86
4794.00,0.86
4793.00,0.86
4792.00,0.86
4791.00,0.86
4790.00,0.86
4789.00,0.86
4788.00,0.86
4787.00,0.87
4786.00,0.87
4785.00,0.87
4784.00,0.87
4783.00,0.87
4782.00,0.87
4781.00,0.87
4780.00,0.88
4779.00,0.88
4778.00,0.88
4777.00,0.88
4776.00,0.88
4775.00,0.88
4774.00,0.88
4773.00,0.89
4772.00,0.89
4771.00,0.89
4770.00,0.89
4769.00,0.89
4768.00,0.89
4767.00,0.89
4766.00,0.90
4765.00,0.90
4764.00,0.90
4763.00,0.90
4762.00,0.90
4761.00,0.90
4760.00,0.91
4759.00,0.91
4758.00,0.91
4757.00,0.91
4756.00,0.91
4755.00,0.91
4754.00,0.92
4753.00,0.92
4752.00,0.92
4751.00,0.92
4750.00,0.92
4749.00,0.93
4748.00,0.93
4747.00,0.93
4746.00,0.93
4745.00,0.94
4744.00,0.94
4743.00,0.94
4742.00,0.94
4741.00,0.94
4740.00,0.95
4739.00,0.95
4738.00,0.95
4737.00,0.95
4736.00,0.95
4735.00,0.96
4734.00,0.96
4733.00,0.96
4732.00,0.96
4731.00,0.97
4730.00,0.97
4729.00,0.97
4728.00,0.97
4727.00,0.97
4726.00,0.98
4725.00,0.98
4724.00,0.98
4723.00,0.98
4722.00,0.98
4721.00,0.99
4720.00,0.99
4719.00,0.99
4718.00,0.99
4717.00,0.99
4716.00,0.99
4715.00,1.00
4714.00,1.00
4713.00,1.00
4712.00,1.00
4711.00,1.00
4710.00,1.00
4709.00,1.00
4708.00,1.00
4707.00,1.01
4706.00,1.01
4705.00,1.01
4704.00,1.01
4703.00,1.01
4702.00,1.01
4701.00,1.01
4700.00,1.01
4699.00,1.02
4698.00,1.02
4697.00,1.02
4696.00,1.02
4695.00,1.02
4694.00,1.02
4693.00,1.02
4692.00,1.03
4691.00,1.03
4690.00,1.03
4689.00,1.03
4688.00,1.03
4687.00,1.03
4686.00,1.03
4685.00,1.04
4684.00,1.04
4683.00,1.04
4682.00,1.04
4681.00,1.04
4680.00,1.04
4679.00,1.05
4678.00,1.05
4677.00,1.05
4676.00,1.05
4675.00,1.05
4674.00,1.06
4673.00,1.06
4672.00,1.06
4671.00,1.06
4670.00,1.06
4669.00,1.07
4668.00,1.07
4667.00,1.07
4666.00,1.07
4665.00,1.08
4664.00,1.08
4663.00,1.08
4662.00,1.08
4661.00,1.08
4660.00,1.09
4659.00,1.09
4658.00,1.09
4657.00,1.09
4656.00,1.09
4655.00,1.09
4654.00,1.10
4653.00,1.10
4652.00,1.10
4651.00,1.10
4650.00,1.10
4649.00,1.10
4648.00,1.10
4647.00,1.10
4646.00,1.10
4645.00,1.10
4644.00,1.11
4643.00,1.11
4642.00,1.11
4641.00,1.11
4640.00,1.11
4639.00,1.11
4638.00,1.11
4637.00,1.12
4636.00,1.12
4635.00,1.12
4634.00,1.12
4633.00,1.12
4632.00,1.13
4631.00,1.13
4630.00,1.13
4629.00,1.13
4628.00,1.13
4627.00,1.14
4626.00,1.14
4625.00,1.14
4624.00,1.14
4623.00,1.14
4622.00,1.14
4621.00,1.14
4620.00,1.14
4619.00,1.15
4618.00,1.15
4617.00,1.15
4616.00,1.15
4615.00,1.15
4614.00,1.15
4613.00,1.15
4612.00,1.15
4611.00,1.15
4610.00,1.15
4609.00,1.15
4608.00,1.15
4607.00,1.15
4606.00,1.15
4605.00,1.15
4604.00,1.15
4603.00,1.15
4602.00,1.15
4601.00,1.15
4600.00,1.15
4599.00,1.16
4598.00,1.16
4597.00,1.16
4596.00,1.16
4595.00,1.16
4594.00,1.16
4593.00,1.17
4592.00,1.17
4591.00,1.17
4590.00,1.17
4589.00,1.17
4588.00,1.17
4587.00,1.18
4586.00,1.18
4585.00,1.18
4584.00,1.18
4583.00,1.18
4582.00,1.18
4581.00,1.18
4580.00,1.18
4579.00,1.19
4578.00,1.19
4577.00,1.19
4576.00,1.19
4575.00,1.19
4574.00,1.19
4573.00,1.19
4572.00,1.20
4571.00,1.20
4570.00,1.20
4569.00,1.20
4568.00,1.20
4567.00,1.20
4566.00,1.20
4565.00,1.20
4564.00,1.20
4563.00,1.20
4562.00,1.21
4561.00,1.21
4560.00,1.21
4559.00,1.21
4558.00,1.21
4557.00,1.21
4556.00,1.21
4555.00,1.21
4554.00,1.21
4553.00,1.21
4552.00,1.21
4551.00,1.21
4550.00,1.21
4549.00,1.21
4548.00,1.21
4547.00,1.21
4546.00,1.21
4545.00,1.21
4544.00,1.21
4543.00,1.21
4542.00,1.21
4541.00,1.21
4540.00,1.21
4539.00,1.21
4538.00,1.21
4537.00,1.21
4536.00,1.21
4535.00,1.21
4534.00,1.21
4533.00,1.22
4532.00,1.22
4531.00,1.22
4530.00,1.22
4529.00,1.22
4528.00,1.22
4527.00,1.22
4526.00,1.22
4525.00,1.22
4524.00,1.22
4523.00,1.22
4522.00,1.22
4521.00,1.22
4520.00,1.22
4519.00,1.23
4518.00,1.23
4517.00,1.23
4516.00,1.23
4515.00,1.23
4514.00,1.23
4513.00,1.23
4512.00,1.23
4511.00,1.23
4510.00,1.23
4509.00,1.23
4508.00,1.23
4507.00,1.23
4506.00,1.23
4505.00,1.23
4504.00,1.22
4503.00,1.22
4502.00,1.22
4501.00,1.22
4500.00,1.22
4499.00,1.22
4498.00,1.22
4497.00,1.22
4496.00,1.21
4495.00,1.21
4494.00,1.21
4493.00,1.21
4492.00,1.21
4491.00,1.21
4490.00,1.21
4489.00,1.21
4488.00,1.21
4487.00,1.21
4486.00,1.20
4485.00,1.20
4484.00,1.20
4483.00,1.20
4482.00,1.20
4481.00,1.20
4480.00,1.19
4479.00,1.19
4478.00,1.19
4477.00,1.19
4476.00,1.18
4475.00,1.18
4474.00,1.18
4473.00,1.18
4472.00,1.17
4471.00,1.17
4470.00,1.17
4469.00,1.17
4468.00,1.16
4467.00,1.16
4466.00,1.16
4465.00,1.15
4464.00,1.15
4463.00,1.15
4462.00,1.15
4461.00,1.14
4460.00,1.14
4459.00,1.14
4458.00,1.13
4457.00,1.13
4456.00,1.12
4455.00,1.12
4454.00,1.11
4453.00,1.11
4452.00,1.11
4451.00,1.10
4450.00,1.10
4449.00,1.09
4448.00,1.09
4447.00,1.08
4446.00,1.08
4445.00,1.07
4444.00,1.06
4443.00,1.06
4442.00,1.05
4441.00,1.05
4440.00,1.04
4439.00,1.04
4438.00,1.03
4437.00,1.03
4436.00,1.02
4435.00,1.02
4434.00,1.01
4433.00,1.01
4432.00,1.01
4431.00,1.00
4430.00,1.00
4429.00,0.99
4428.00,0.99
4427.00,0.99
4426.00,0.98
4425.00,0.98
4424.00,0.98
4423.00,0.97
4422.00,0.97
4421.00,0.97
4420.00,0.97
4419.00,0.97
4418.00,0.96
4417.00,0.96
4416.00,0.96
4415.00,0.96
4414.00,0.96
4413.00,0.96
4412.00,0.96
4411.00,0.96
4410.00,0.96
4409.00,0.96
4408.00,0.96
4407.00,0.96
4406.00,0.96
4405.00,0.97
4404.00,0.97
4403.00,0.97
4402.00,0.97
4401.00,0.97
4400.00,0.97
4399.00,0.97
4398.00,0.97
4397.00,0.97
4396.00,0.97
4395.00,0.97
4394.00,0.97
4393.00,0.97
4392.00,0.97
4391.00,0.97
4390.00,0.98
4389.00,0.98
4388.00,0.98
4387.00,0.98
4386.00,0.98
4385.00,0.99
4384.00,0.99
4383.00,0.99
4382.00,1.00
4381.00,1.00
4380.00,1.00
4379.00,1.01
4378.00,1.01
4377.00,1.01
4376.00,1.01
4375.00,1.02
4374.00,1.02
4373.00,1.02
4372.00,1.02
4371.00,1.02
4370.00,1.02
4369.00,1.02
4368.00,1.02
4367.00,1.02
4366.00,1.02
4365.00,1.02
4364.00,1.02
4363.00,1.02
4362.00,1.02
4361.00,1.02
4360.00,1.01
4359.00,1.01
4358.00,1.01
4357.00,1.01
4356.00,1.01
4355.00,1.01
4354.00,1.01
4353.00,1.01
4352.00,1.00
4351.00,1.00
4350.00,1.00
4349.00,1.00
4348.00,1.00
4347.00,1.00
4346.00,1.00
4345.00,1.00
4344.00,1.00
4343.00,1.01
4342.00,1.01
4341.00,1.01
4340.00,1.01
4339.00,1.01
4338.00,1.01
4337.00,1.01
4336.00,1.01
4335.00,1.01
4334.00,1.01
4333.00,1.01
4332.00,1.01
4331.00,1.02
4330.00,1.02
4329.00,1.02
4328.00,1.02
4327.00,1.02
4326.00,1.02
4325.00,1.02
4324.00,1.02
4323.00,1.02
4322.00,1.03
4321.00,1.03
4320.00,1.03
4319.00,1.03
4318.00,1.03
4317.00,1.04
4316.00,1.04
4315.00,1.04
4314.00,1.04
4313.00,1.05
4312.00,1.05
4311.00,1.05
4310.00,1.05
4309.00,1.06
4308.00,1.06
4307.00,1.06
4306.00,1.06
4305.00,1.07
4304.00,1.07
4303.00,1.07
4302.00,1.07
4301.00,1.08
4300.00,1.08
4299.00,1.08
4298.00,1.08
4297.00,1.08
4296.00,1.09
4295.00,1.09
4294.00,1.09
4293.00,1.09
4292.00,1.09
4291.00,1.10
4290.00,1.10
4289.00,1.10
4288.00,1.10
4287.00,1.10
4286.00,1.10
4285.00,1.10
4284.00,1.11
4283.00,1.11
4282.00,1.11
4281.00,1.11
4280.00,1.11
4279.00,1.11
4278.00,1.11
4277.00,1.11
4276.00,1.11
4275.00,1.11
4274.00,1.11
4273.00,1.11
4272.00,1.11
4271.00,1.11
4270.00,1.10
4269.00,1.10
4268.00,1.10
4267.00,1.10
4266.00,1.10
4265.00,1.10
4264.00,1.09
4263.00,1.09
4262.00,1.09
4261.00,1.09
4260.00,1.09
4259.00,1.09
4258.00,1.09
4257.00,1.09
4256.00,1.09
4255.00,1.09
4254.00,1.09
4253.00,1.09
4252.00,1.09
4251.00,1.09
4250.00,1.10
4249.00,1.10
4248.00,1.10
4247.00,1.10
4246.00,1.11
4245.00,1.11
4244.00,1.11
4243.00,1.11
4242.00,1.12
4241.00,1.12
4240.00,1.12
4239.00,1.12
4238.00,1.12
4237.00,1.13
4236.00,1.13
4235.00,1.13
4234.00,1.13
4233.00,1.13
4232.00,1.13
4231.00,1.13
4230.00,1.13
4229.00,1.13
4228.00,1.14
4227.00,1.14
4226.00,1.14
4225.00,1.14
4224.00,1.14
4223.00,1.14
4222.00,1.14
4221.00,1.14
4220.00,1.14
4219.00,1.14
4218.00,1.14
4217.00,1.14
4216.00,1.14
4215.00,1.14
4214.00,1.14
4213.00,1.14
4212.00,1.14
4211.00,1.14
4210.00,1.14
4209.00,1.14
4208.00,1.15
4207.00,1.15
4206.00,1.15
4205.00,1.15
4204.00,1.15
4203.00,1.15
4202.00,1.15
4201.00,1.15
4200.00,1.15
4199.00,1.16
4198.00,1.16
4197.00,1.16
4196.00,1.16
4195.00,1.16
4194.00,1.16
4193.00,1.16
4192.00,1.16
4191.00,1.16
4190.00,1.16
4189.00,1.16
4188.00,1.17
4187.00,1.17
4186.00,1.17
4185.00,1.17
4184.00,1.17
4183.00,1.17
4182.00,1.17
4181.00,1.17
4180.00,1.17
4179.00,1.17
4178.00,1.17
4177.00,1.17
4176.00,1.17
4175.00,1.17
4174.00,1.17
4173.00,1.17
4172.00,1.17
4171.00,1.17
4170.00,1.17
4169.00,1.17
4168.00,1.17
4167.00,1.17
4166.00,1.17
4165.00,1.17
4164.00,1.17
4163.00,1.17
4162.00,1.17
4161.00,1.17
4160.00,1.17
4159.00,1.17
4158.00,1.17
4157.00,1.17
4156.00,1.17
4155.00,1.17
4154.00,1.17
4153.00,1.17
4152.00,1.17
4151.00,1.17
4150.00,1.17
4149.00,1.17
4148.00,1.17
4147.00,1.17
4146.00,1.17
4145.00,1.17
4144.00,1.17
4143.00,1.17
4142.00,1.18
4141.00,1.18
4140.00,1.18
4139.00,1.18
4138.00,1.18
4137.00,1.18
4136.00,1.18
4135.00,1.18
4134.00,1.18
4133.00,1.18
4132.00,1.18
4131.00,1.18
4130.00,1.18
4129.00,1.19
4128.00,1.19
4127.00,1.19
4126.00,1.19
4125.00,1.19
4124.00,1.19
4123.00,1.19
4122.00,1.19
4121.00,1.19
4120.00,1.19
4119.00,1.20
4118.00,1.20
4117.00,1.20
4116.00,1.20
4115.00,1.20
4114.00,1.20
4113.00,1.20
4112.00,1.20
4111.00,1.20
4110.00,1.20
4109.00,1.20
4108.00,1.20
4107.00,1.20
4106.00,1.20
4105.00,1.20
4104.00,1.20
4103.00,1.20
4102.00,1.20
4101.00,1.20
4100.00,1.20
4099.00,1.20
4098.00,1.20
4097.00,1.20
4096.00,1.20
4095.00,1.20
4094.00,1.20
4093.00,1.19
4092.00,1.19
4091.00,1.19
4090.00,1.19
4089.00,1.19
4088.00,1.19
4087.00,1.19
4086.00,1.19
4085.00,1.19
4084.00,1.19
4083.00,1.19
4082.00,1.19
4081.00,1.19
4080.00,1.19
4079.00,1.19
4078.00,1.19
4077.00,1.19
4076.00,1.19
4075.00,1.20
4074.00,1.20
4073.00,1.20
4072.00,1.20
4071.00,1.20
4070.00,1.20
4069.00,1.20
4068.00,1.20
4067.00,1.21
4066.00,1.21
4065.00,1.21
4064.00,1.21
4063.00,1.21
4062.00,1.21
4061.00,1.21
4060.00,1.22
4059.00,1.22
4058.00,1.22
4057.00,1.22
4056.00,1.22
4055.00,1.22
4054.00,1.22
4053.00,1.22
4052.00,1.22
4051.00,1.22
4050.00,1.22
4049.00,1.22
4048.00,1.22
4047.00,1.22
4046.00,1.22
4045.00,1.22
4044.00,1.22
4043.00,1.22
4042.00,1.22
4041.00,1.23
4040.00,1.23
4039.00,1.23
4038.00,1.23
4037.00,1.23
4036.00,1.23
4035.00,1.23
4034.00,1.24
4033.00,1.24
4032.00,1.24
4031.00,1.24
4030.00,1.24
4029.00,1.24
4028.00,1.24
4027.00,1.24
4026.00,1.24
4025.00,1.25
4024.00,1.25
4023.00,1.25
4022.00,1.25
4021.00,1.25
4020.00,1.25
4019.00,1.25
4018.00,1.26
4017.00,1.26
4016.00,1.26
4015.00,1.26
4014.00,1.26
4013.00,1.27
4012.00,1.27
4011.00,1.27
4010.00,1.27
4009.00,1.28
4008.00,1.28
4007.00,1.28
4006.00,1.28
4005.00,1.29
4004.00,1.29
4003.00,1.29
4002.00,1.29
4001.00,1.30
4000.00,1.30
