创建为新数据集,样品 1647 用户 Administrator 日期 星期一, 三月 13 2017
cm-1,%T
10000.00,1.19
9998.00,1.19
9996.00,1.19
9994.00,1.19
9992.00,1.19
9990.00,1.19
9988.00,1.19
9986.00,1.19
9984.00,1.18
9982.00,1.18
9980.00,1.18
9978.00,1.17
9976.00,1.17
9974.00,1.18
9972.00,1.18
9970.00,1.18
9968.00,1.19
9966.00,1.19
9964.00,1.20
9962.00,1.20
9960.00,1.20
9958.00,1.19
9956.00,1.19
9954.00,1.19
9952.00,1.18
9950.00,1.18
9948.00,1.17
9946.00,1.17
9944.00,1.17
9942.00,1.16
9940.00,1.16
9938.00,1.16
9936.00,1.17
9934.00,1.17
9932.00,1.17
9930.00,1.18
9928.00,1.18
9926.00,1.18
9924.00,1.18
9922.00,1.18
9920.00,1.18
9918.00,1.17
9916.00,1.17
9914.00,1.16
9912.00,1.16
9910.00,1.16
9908.00,1.17
9906.00,1.17
9904.00,1.18
9902.00,1.19
9900.00,1.19
9898.00,1.19
9896.00,1.19
9894.00,1.19
9892.00,1.18
9890.00,1.18
9888.00,1.18
9886.00,1.17
9884.00,1.17
9882.00,1.17
9880.00,1.17
9878.00,1.17
9876.00,1.17
9874.00,1.18
9872.00,1.18
9870.00,1.19
9868.00,1.19
9866.00,1.19
9864.00,1.19
9862.00,1.19
9860.00,1.19
9858.00,1.19
9856.00,1.18
9854.00,1.18
9852.00,1.18
9850.00,1.18
9848.00,1.18
9846.00,1.18
9844.00,1.18
9842.00,1.18
9840.00,1.18
9838.00,1.18
9836.00,1.18
9834.00,1.18
9832.00,1.18
9830.00,1.18
9828.00,1.17
9826.00,1.17
9824.00,1.17
9822.00,1.17
9820.00,1.17
9818.00,1.16
9816.00,1.16
9814.00,1.16
9812.00,1.16
9810.00,1.17
9808.00,1.17
9806.00,1.18
9804.00,1.18
9802.00,1.18
9800.00,1.18
9798.00,1.18
9796.00,1.18
9794.00,1.18
9792.00,1.18
9790.00,1.17
9788.00,1.17
9786.00,1.17
9784.00,1.17
9782.00,1.17
9780.00,1.17
9778.00,1.17
9776.00,1.17
9774.00,1.17
9772.00,1.17
9770.00,1.17
9768.00,1.17
9766.00,1.17
9764.00,1.17
9762.00,1.17
9760.00,1.17
9758.00,1.17
9756.00,1.17
9754.00,1.17
9752.00,1.17
9750.00,1.17
9748.00,1.16
9746.00,1.16
9744.00,1.16
9742.00,1.16
9740.00,1.16
9738.00,1.15
9736.00,1.16
9734.00,1.16
9732.00,1.16
9730.00,1.16
9728.00,1.15
9726.00,1.15
9724.00,1.14
9722.00,1.14
9720.00,1.14
9718.00,1.14
9716.00,1.14
9714.00,1.15
9712.00,1.16
9710.00,1.17
9708.00,1.18
9706.00,1.18
9704.00,1.19
9702.00,1.20
9700.00,1.20
9698.00,1.20
9696.00,1.20
9694.00,1.19
9692.00,1.19
9690.00,1.19
9688.00,1.18
9686.00,1.18
9684.00,1.17
9682.00,1.17
9680.00,1.17
9678.00,1.17
9676.00,1.17
9674.00,1.17
9672.00,1.17
9670.00,1.17
9668.00,1.17
9666.00,1.17
9664.00,1.17
9662.00,1.17
9660.00,1.17
9658.00,1.17
9656.00,1.17
9654.00,1.17
9652.00,1.16
9650.00,1.16
9648.00,1.16
9646.00,1.17
9644.00,1.17
9642.00,1.17
9640.00,1.17
9638.00,1.17
9636.00,1.17
9634.00,1.18
9632.00,1.18
9630.00,1.18
9628.00,1.18
9626.00,1.18
9624.00,1.18
9622.00,1.18
9620.00,1.18
9618.00,1.18
9616.00,1.18
9614.00,1.18
9612.00,1.18
9610.00,1.18
9608.00,1.17
9606.00,1.17
9604.00,1.16
9602.00,1.16
9600.00,1.16
9598.00,1.16
9596.00,1.16
9594.00,1.16
9592.00,1.16
9590.00,1.17
9588.00,1.17
9586.00,1.18
9584.00,1.19
9582.00,1.19
9580.00,1.19
9578.00,1.19
9576.00,1.19
9574.00,1.19
9572.00,1.19
9570.00,1.19
9568.00,1.19
9566.00,1.19
9564.00,1.19
9562.00,1.19
9560.00,1.19
9558.00,1.18
9556.00,1.18
9554.00,1.18
9552.00,1.18
9550.00,1.17
9548.00,1.17
9546.00,1.17
9544.00,1.16
9542.00,1.16
9540.00,1.15
9538.00,1.15
9536.00,1.15
9534.00,1.16
9532.00,1.16
9530.00,1.17
9528.00,1.17
9526.00,1.18
9524.00,1.18
9522.00,1.19
9520.00,1.19
9518.00,1.20
9516.00,1.20
9514.00,1.20
9512.00,1.21
9510.00,1.21
9508.00,1.20
9506.00,1.20
9504.00,1.20
9502.00,1.19
9500.00,1.19
9498.00,1.18
9496.00,1.18
9494.00,1.18
9492.00,1.17
9490.00,1.17
9488.00,1.16
9486.00,1.16
9484.00,1.16
9482.00,1.16
9480.00,1.16
9478.00,1.16
9476.00,1.16
9474.00,1.16
9472.00,1.16
9470.00,1.16
9468.00,1.16
9466.00,1.16
9464.00,1.16
9462.00,1.17
9460.00,1.17
9458.00,1.17
9456.00,1.17
9454.00,1.17
9452.00,1.17
9450.00,1.17
9448.00,1.16
9446.00,1.16
9444.00,1.16
9442.00,1.16
9440.00,1.16
9438.00,1.17
9436.00,1.18
9434.00,1.18
9432.00,1.19
9430.00,1.19
9428.00,1.19
9426.00,1.19
9424.00,1.19
9422.00,1.18
9420.00,1.18
9418.00,1.17
9416.00,1.17
9414.00,1.16
9412.00,1.16
9410.00,1.16
9408.00,1.17
9406.00,1.17
9404.00,1.18
9402.00,1.18
9400.00,1.18
9398.00,1.18
9396.00,1.19
9394.00,1.18
9392.00,1.18
9390.00,1.18
9388.00,1.18
9386.00,1.17
9384.00,1.16
9382.00,1.16
9380.00,1.15
9378.00,1.15
9376.00,1.15
9374.00,1.15
9372.00,1.16
9370.00,1.16
9368.00,1.17
9366.00,1.17
9364.00,1.17
9362.00,1.17
9360.00,1.17
9358.00,1.17
9356.00,1.17
9354.00,1.17
9352.00,1.17
9350.00,1.17
9348.00,1.17
9346.00,1.17
9344.00,1.17
9342.00,1.16
9340.00,1.16
9338.00,1.16
9336.00,1.16
9334.00,1.16
9332.00,1.16
9330.00,1.17
9328.00,1.17
9326.00,1.17
9324.00,1.17
9322.00,1.17
9320.00,1.17
9318.00,1.16
9316.00,1.16
9314.00,1.16
9312.00,1.16
9310.00,1.17
9308.00,1.17
9306.00,1.17
9304.00,1.18
9302.00,1.18
9300.00,1.19
9298.00,1.19
9296.00,1.18
9294.00,1.18
9292.00,1.18
9290.00,1.17
9288.00,1.17
9286.00,1.17
9284.00,1.16
9282.00,1.16
9280.00,1.16
9278.00,1.16
9276.00,1.16
9274.00,1.16
9272.00,1.17
9270.00,1.17
9268.00,1.17
9266.00,1.17
9264.00,1.17
9262.00,1.17
9260.00,1.16
9258.00,1.16
9256.00,1.15
9254.00,1.15
9252.00,1.14
9250.00,1.14
9248.00,1.14
9246.00,1.14
9244.00,1.14
9242.00,1.15
9240.00,1.15
9238.00,1.16
9236.00,1.16
9234.00,1.17
9232.00,1.17
9230.00,1.17
9228.00,1.18
9226.00,1.18
9224.00,1.18
9222.00,1.18
9220.00,1.18
9218.00,1.17
9216.00,1.17
9214.00,1.17
9212.00,1.17
9210.00,1.17
9208.00,1.17
9206.00,1.18
9204.00,1.18
9202.00,1.17
9200.00,1.17
9198.00,1.17
9196.00,1.16
9194.00,1.16
9192.00,1.15
9190.00,1.15
9188.00,1.15
9186.00,1.15
9184.00,1.15
9182.00,1.15
9180.00,1.15
9178.00,1.15
9176.00,1.15
9174.00,1.15
9172.00,1.15
9170.00,1.15
9168.00,1.15
9166.00,1.15
9164.00,1.16
9162.00,1.16
9160.00,1.16
9158.00,1.16
9156.00,1.16
9154.00,1.17
9152.00,1.17
9150.00,1.17
9148.00,1.17
9146.00,1.17
9144.00,1.17
9142.00,1.17
9140.00,1.17
9138.00,1.17
9136.00,1.17
9134.00,1.17
9132.00,1.16
9130.00,1.16
9128.00,1.16
9126.00,1.16
9124.00,1.16
9122.00,1.16
9120.00,1.16
9118.00,1.16
9116.00,1.16
9114.00,1.16
9112.00,1.16
9110.00,1.16
9108.00,1.16
9106.00,1.16
9104.00,1.16
9102.00,1.16
9100.00,1.16
9098.00,1.16
9096.00,1.16
9094.00,1.15
9092.00,1.15
9090.00,1.15
9088.00,1.15
9086.00,1.15
9084.00,1.15
9082.00,1.15
9080.00,1.15
9078.00,1.15
9076.00,1.15
9074.00,1.15
9072.00,1.15
9070.00,1.15
9068.00,1.15
9066.00,1.15
9064.00,1.15
9062.00,1.15
9060.00,1.15
9058.00,1.15
9056.00,1.15
9054.00,1.15
9052.00,1.15
9050.00,1.16
9048.00,1.16
9046.00,1.17
9044.00,1.17
9042.00,1.18
9040.00,1.18
9038.00,1.18
9036.00,1.18
9034.00,1.19
9032.00,1.19
9030.00,1.19
9028.00,1.19
9026.00,1.19
9024.00,1.19
9022.00,1.19
9020.00,1.19
9018.00,1.19
9016.00,1.19
9014.00,1.19
9012.00,1.19
9010.00,1.18
9008.00,1.18
9006.00,1.17
9004.00,1.17
9002.00,1.16
9000.00,1.16
8998.00,1.16
8996.00,1.16
8994.00,1.16
8992.00,1.16
8990.00,1.16
8988.00,1.16
8986.00,1.16
8984.00,1.16
8982.00,1.16
8980.00,1.16
8978.00,1.16
8976.00,1.16
8974.00,1.17
8972.00,1.17
8970.00,1.17
8968.00,1.17
8966.00,1.17
8964.00,1.17
8962.00,1.17
8960.00,1.17
8958.00,1.17
8956.00,1.16
8954.00,1.16
8952.00,1.16
8950.00,1.16
8948.00,1.16
8946.00,1.16
8944.00,1.16
8942.00,1.16
8940.00,1.17
8938.00,1.17
8936.00,1.17
8934.00,1.17
8932.00,1.17
8930.00,1.17
8928.00,1.17
8926.00,1.17
8924.00,1.16
8922.00,1.16
8920.00,1.16
8918.00,1.16
8916.00,1.17
8914.00,1.17
8912.00,1.17
8910.00,1.17
8908.00,1.18
8906.00,1.18
8904.00,1.18
8902.00,1.18
8900.00,1.18
8898.00,1.18
8896.00,1.18
8894.00,1.18
8892.00,1.18
8890.00,1.18
8888.00,1.18
8886.00,1.18
8884.00,1.18
8882.00,1.18
8880.00,1.17
8878.00,1.17
8876.00,1.17
8874.00,1.17
8872.00,1.16
8870.00,1.16
8868.00,1.16
8866.00,1.16
8864.00,1.16
8862.00,1.17
8860.00,1.17
8858.00,1.17
8856.00,1.18
8854.00,1.18
8852.00,1.18
8850.00,1.18
8848.00,1.18
8846.00,1.18
8844.00,1.18
8842.00,1.17
8840.00,1.17
8838.00,1.16
8836.00,1.16
8834.00,1.16
8832.00,1.16
8830.00,1.16
8828.00,1.16
8826.00,1.16
8824.00,1.17
8822.00,1.17
8820.00,1.18
8818.00,1.18
8816.00,1.18
8814.00,1.18
8812.00,1.18
8810.00,1.18
8808.00,1.17
8806.00,1.17
8804.00,1.17
8802.00,1.17
8800.00,1.17
8798.00,1.16
8796.00,1.16
8794.00,1.16
8792.00,1.16
8790.00,1.16
8788.00,1.16
8786.00,1.16
8784.00,1.17
8782.00,1.17
8780.00,1.17
8778.00,1.17
8776.00,1.17
8774.00,1.16
8772.00,1.16
8770.00,1.16
8768.00,1.16
8766.00,1.15
8764.00,1.15
8762.00,1.15
8760.00,1.15
8758.00,1.15
8756.00,1.15
8754.00,1.15
8752.00,1.15
8750.00,1.15
8748.00,1.15
8746.00,1.15
8744.00,1.15
8742.00,1.15
8740.00,1.15
8738.00,1.14
8736.00,1.14
8734.00,1.14
8732.00,1.14
8730.00,1.14
8728.00,1.14
8726.00,1.14
8724.00,1.14
8722.00,1.14
8720.00,1.14
8718.00,1.15
8716.00,1.15
8714.00,1.15
8712.00,1.15
8710.00,1.16
8708.00,1.16
8706.00,1.16
8704.00,1.16
8702.00,1.17
8700.00,1.17
8698.00,1.17
8696.00,1.17
8694.00,1.17
8692.00,1.17
8690.00,1.17
8688.00,1.17
8686.00,1.17
8684.00,1.17
8682.00,1.17
8680.00,1.16
8678.00,1.16
8676.00,1.16
8674.00,1.16
8672.00,1.16
8670.00,1.16
8668.00,1.16
8666.00,1.16
8664.00,1.16
8662.00,1.16
8660.00,1.16
8658.00,1.16
8656.00,1.16
8654.00,1.16
8652.00,1.16
8650.00,1.16
8648.00,1.16
8646.00,1.16
8644.00,1.16
8642.00,1.16
8640.00,1.16
8638.00,1.16
8636.00,1.16
8634.00,1.16
8632.00,1.16
8630.00,1.17
8628.00,1.17
8626.00,1.17
8624.00,1.17
8622.00,1.17
8620.00,1.17
8618.00,1.17
8616.00,1.17
8614.00,1.16
8612.00,1.16
8610.00,1.16
8608.00,1.16
8606.00,1.15
8604.00,1.15
8602.00,1.15
8600.00,1.15
8598.00,1.15
8596.00,1.15
8594.00,1.16
8592.00,1.16
8590.00,1.16
8588.00,1.16
8586.00,1.16
8584.00,1.16
8582.00,1.15
8580.00,1.15
8578.00,1.16
8576.00,1.16
8574.00,1.16
8572.00,1.16
8570.00,1.16
8568.00,1.16
8566.00,1.17
8564.00,1.17
8562.00,1.17
8560.00,1.17
8558.00,1.17
8556.00,1.17
8554.00,1.17
8552.00,1.17
8550.00,1.17
8548.00,1.16
8546.00,1.16
8544.00,1.16
8542.00,1.16
8540.00,1.16
8538.00,1.17
8536.00,1.17
8534.00,1.17
8532.00,1.17
8530.00,1.17
8528.00,1.17
8526.00,1.17
8524.00,1.16
8522.00,1.16
8520.00,1.16
8518.00,1.16
8516.00,1.16
8514.00,1.16
8512.00,1.15
8510.00,1.15
8508.00,1.15
8506.00,1.15
8504.00,1.15
8502.00,1.14
8500.00,1.14
8498.00,1.14
8496.00,1.15
8494.00,1.15
8492.00,1.15
8490.00,1.15
8488.00,1.15
8486.00,1.15
8484.00,1.15
8482.00,1.16
8480.00,1.15
8478.00,1.15
8476.00,1.15
8474.00,1.15
8472.00,1.15
8470.00,1.15
8468.00,1.15
8466.00,1.15
8464.00,1.16
8462.00,1.16
8460.00,1.16
8458.00,1.16
8456.00,1.16
8454.00,1.16
8452.00,1.16
8450.00,1.15
8448.00,1.15
8446.00,1.15
8444.00,1.14
8442.00,1.14
8440.00,1.14
8438.00,1.14
8436.00,1.14
8434.00,1.14
8432.00,1.14
8430.00,1.14
8428.00,1.14
8426.00,1.14
8424.00,1.14
8422.00,1.14
8420.00,1.14
8418.00,1.14
8416.00,1.13
8414.00,1.13
8412.00,1.13
8410.00,1.13
8408.00,1.14
8406.00,1.14
8404.00,1.14
8402.00,1.14
8400.00,1.15
8398.00,1.15
8396.00,1.15
8394.00,1.15
8392.00,1.15
8390.00,1.15
8388.00,1.16
8386.00,1.16
8384.00,1.16
8382.00,1.16
8380.00,1.16
8378.00,1.16
8376.00,1.16
8374.00,1.16
8372.00,1.16
8370.00,1.16
8368.00,1.16
8366.00,1.15
8364.00,1.15
8362.00,1.15
8360.00,1.15
8358.00,1.15
8356.00,1.15
8354.00,1.15
8352.00,1.15
8350.00,1.15
8348.00,1.15
8346.00,1.15
8344.00,1.15
8342.00,1.15
8340.00,1.15
8338.00,1.15
8336.00,1.15
8334.00,1.16
8332.00,1.16
8330.00,1.16
8328.00,1.16
8326.00,1.16
8324.00,1.16
8322.00,1.16
8320.00,1.15
8318.00,1.15
8316.00,1.15
8314.00,1.15
8312.00,1.15
8310.00,1.15
8308.00,1.15
8306.00,1.15
8304.00,1.15
8302.00,1.14
8300.00,1.14
8298.00,1.14
8296.00,1.14
8294.00,1.14
8292.00,1.14
8290.00,1.14
8288.00,1.14
8286.00,1.15
8284.00,1.15
8282.00,1.15
8280.00,1.15
8278.00,1.16
8276.00,1.16
8274.00,1.16
8272.00,1.16
8270.00,1.16
8268.00,1.16
8266.00,1.15
8264.00,1.15
8262.00,1.15
8260.00,1.15
8258.00,1.14
8256.00,1.14
8254.00,1.14
8252.00,1.15
8250.00,1.15
8248.00,1.15
8246.00,1.15
8244.00,1.15
8242.00,1.15
8240.00,1.15
8238.00,1.15
8236.00,1.15
8234.00,1.15
8232.00,1.15
8230.00,1.16
8228.00,1.16
8226.00,1.16
8224.00,1.16
8222.00,1.16
8220.00,1.16
8218.00,1.16
8216.00,1.16
8214.00,1.16
8212.00,1.16
8210.00,1.16
8208.00,1.16
8206.00,1.16
8204.00,1.16
8202.00,1.16
8200.00,1.16
8198.00,1.16
8196.00,1.16
8194.00,1.16
8192.00,1.16
8190.00,1.16
8188.00,1.16
8186.00,1.16
8184.00,1.16
8182.00,1.16
8180.00,1.16
8178.00,1.16
8176.00,1.16
8174.00,1.16
8172.00,1.16
8170.00,1.16
8168.00,1.16
8166.00,1.16
8164.00,1.16
8162.00,1.16
8160.00,1.16
8158.00,1.17
8156.00,1.17
8154.00,1.17
8152.00,1.17
8150.00,1.17
8148.00,1.17
8146.00,1.17
8144.00,1.17
8142.00,1.17
8140.00,1.17
8138.00,1.17
8136.00,1.17
8134.00,1.18
8132.00,1.18
8130.00,1.17
8128.00,1.17
8126.00,1.17
8124.00,1.17
8122.00,1.17
8120.00,1.17
8118.00,1.17
8116.00,1.17
8114.00,1.17
8112.00,1.17
8110.00,1.17
8108.00,1.17
8106.00,1.17
8104.00,1.17
8102.00,1.17
8100.00,1.17
8098.00,1.16
8096.00,1.16
8094.00,1.16
8092.00,1.16
8090.00,1.16
8088.00,1.17
8086.00,1.17
8084.00,1.17
8082.00,1.18
8080.00,1.18
8078.00,1.18
8076.00,1.18
8074.00,1.18
8072.00,1.18
8070.00,1.18
8068.00,1.17
8066.00,1.17
8064.00,1.17
8062.00,1.17
8060.00,1.17
8058.00,1.17
8056.00,1.17
8054.00,1.17
8052.00,1.17
8050.00,1.17
8048.00,1.16
8046.00,1.16
8044.00,1.16
8042.00,1.16
8040.00,1.16
8038.00,1.15
8036.00,1.15
8034.00,1.15
8032.00,1.15
8030.00,1.15
8028.00,1.15
8026.00,1.15
8024.00,1.15
8022.00,1.15
8020.00,1.15
8018.00,1.15
8016.00,1.16
8014.00,1.16
8012.00,1.16
8010.00,1.16
8008.00,1.16
8006.00,1.16
8004.00,1.16
8002.00,1.16
8000.00,1.16
7998.00,1.17
7996.00,1.17
7994.00,1.17
7992.00,1.17
7990.00,1.17
7988.00,1.17
7986.00,1.17
7984.00,1.17
7982.00,1.17
7980.00,1.17
7978.00,1.17
7976.00,1.17
7974.00,1.17
7972.00,1.17
7970.00,1.17
7968.00,1.17
7966.00,1.17
7964.00,1.17
7962.00,1.17
7960.00,1.17
7958.00,1.18
7956.00,1.18
7954.00,1.18
7952.00,1.18
7950.00,1.18
7948.00,1.18
7946.00,1.17
7944.00,1.17
7942.00,1.17
7940.00,1.17
7938.00,1.17
7936.00,1.16
7934.00,1.16
7932.00,1.16
7930.00,1.16
7928.00,1.16
7926.00,1.16
7924.00,1.16
7922.00,1.16
7920.00,1.16
7918.00,1.16
7916.00,1.17
7914.00,1.17
7912.00,1.17
7910.00,1.17
7908.00,1.17
7906.00,1.17
7904.00,1.18
7902.00,1.18
7900.00,1.18
7898.00,1.18
7896.00,1.18
7894.00,1.18
7892.00,1.18
7890.00,1.18
7888.00,1.18
7886.00,1.18
7884.00,1.18
7882.00,1.18
7880.00,1.18
7878.00,1.18
7876.00,1.18
7874.00,1.17
7872.00,1.17
7870.00,1.17
7868.00,1.17
7866.00,1.17
7864.00,1.17
7862.00,1.17
7860.00,1.17
7858.00,1.17
7856.00,1.17
7854.00,1.17
7852.00,1.17
7850.00,1.17
7848.00,1.17
7846.00,1.17
7844.00,1.17
7842.00,1.17
7840.00,1.17
7838.00,1.17
7836.00,1.17
7834.00,1.17
7832.00,1.17
7830.00,1.18
7828.00,1.18
7826.00,1.18
7824.00,1.18
7822.00,1.19
7820.00,1.19
7818.00,1.19
7816.00,1.19
7814.00,1.19
7812.00,1.18
7810.00,1.18
7808.00,1.18
7806.00,1.17
7804.00,1.17
7802.00,1.17
7800.00,1.18
7798.00,1.18
7796.00,1.18
7794.00,1.18
7792.00,1.18
7790.00,1.18
7788.00,1.18
7786.00,1.18
7784.00,1.18
7782.00,1.18
7780.00,1.17
7778.00,1.17
7776.00,1.17
7774.00,1.17
7772.00,1.17
7770.00,1.17
7768.00,1.17
7766.00,1.17
7764.00,1.17
7762.00,1.17
7760.00,1.17
7758.00,1.18
7756.00,1.18
7754.00,1.18
7752.00,1.18
7750.00,1.18
7748.00,1.18
7746.00,1.18
7744.00,1.18
7742.00,1.18
7740.00,1.18
7738.00,1.18
7736.00,1.17
7734.00,1.17
7732.00,1.17
7730.00,1.17
7728.00,1.17
7726.00,1.17
7724.00,1.17
7722.00,1.17
7720.00,1.17
7718.00,1.18
7716.00,1.18
7714.00,1.18
7712.00,1.18
7710.00,1.18
7708.00,1.18
7706.00,1.18
7704.00,1.18
7702.00,1.18
7700.00,1.18
7698.00,1.18
7696.00,1.18
7694.00,1.18
7692.00,1.18
7690.00,1.18
7688.00,1.18
7686.00,1.18
7684.00,1.18
7682.00,1.18
7680.00,1.18
7678.00,1.18
7676.00,1.18
7674.00,1.18
7672.00,1.18
7670.00,1.18
7668.00,1.18
7666.00,1.18
7664.00,1.18
7662.00,1.17
7660.00,1.17
7658.00,1.17
7656.00,1.17
7654.00,1.17
7652.00,1.17
7650.00,1.17
7648.00,1.18
7646.00,1.18
7644.00,1.18
7642.00,1.18
7640.00,1.18
7638.00,1.18
7636.00,1.17
7634.00,1.17
7632.00,1.17
7630.00,1.17
7628.00,1.18
7626.00,1.18
7624.00,1.18
7622.00,1.18
7620.00,1.19
7618.00,1.19
7616.00,1.19
7614.00,1.19
7612.00,1.19
7610.00,1.19
7608.00,1.19
7606.00,1.19
7604.00,1.19
7602.00,1.19
7600.00,1.19
7598.00,1.19
7596.00,1.19
7594.00,1.19
7592.00,1.18
7590.00,1.18
7588.00,1.18
7586.00,1.18
7584.00,1.18
7582.00,1.18
7580.00,1.18
7578.00,1.18
7576.00,1.18
7574.00,1.18
7572.00,1.18
7570.00,1.18
7568.00,1.18
7566.00,1.18
7564.00,1.18
7562.00,1.18
7560.00,1.18
7558.00,1.18
7556.00,1.18
7554.00,1.18
7552.00,1.18
7550.00,1.18
7548.00,1.18
7546.00,1.18
7544.00,1.18
7542.00,1.18
7540.00,1.18
7538.00,1.18
7536.00,1.19
7534.00,1.19
7532.00,1.19
7530.00,1.19
7528.00,1.18
7526.00,1.18
7524.00,1.18
7522.00,1.18
7520.00,1.17
7518.00,1.17
7516.00,1.17
7514.00,1.17
7512.00,1.17
7510.00,1.17
7508.00,1.17
7506.00,1.17
7504.00,1.17
7502.00,1.17
7500.00,1.17
7498.00,1.17
7496.00,1.17
7494.00,1.17
7492.00,1.17
7490.00,1.17
7488.00,1.17
7486.00,1.17
7484.00,1.16
7482.00,1.16
7480.00,1.16
7478.00,1.16
7476.00,1.16
7474.00,1.17
7472.00,1.17
7470.00,1.17
7468.00,1.17
7466.00,1.17
7464.00,1.17
7462.00,1.17
7460.00,1.17
7458.00,1.17
7456.00,1.17
7454.00,1.18
7452.00,1.18
7450.00,1.18
7448.00,1.18
7446.00,1.18
7444.00,1.17
7442.00,1.17
7440.00,1.17
7438.00,1.17
7436.00,1.18
7434.00,1.18
7432.00,1.17
7430.00,1.17
7428.00,1.17
7426.00,1.17
7424.00,1.17
7422.00,1.17
7420.00,1.17
7418.00,1.17
7416.00,1.17
7414.00,1.17
7412.00,1.17
7410.00,1.17
7408.00,1.17
7406.00,1.17
7404.00,1.17
7402.00,1.17
7400.00,1.16
7398.00,1.16
7396.00,1.16
7394.00,1.16
7392.00,1.16
7390.00,1.16
7388.00,1.16
7386.00,1.16
7384.00,1.16
7382.00,1.16
7380.00,1.16
7378.00,1.16
7376.00,1.16
7374.00,1.16
7372.00,1.16
7370.00,1.16
7368.00,1.16
7366.00,1.16
7364.00,1.16
7362.00,1.16
7360.00,1.16
7358.00,1.16
7356.00,1.16
7354.00,1.17
7352.00,1.17
7350.00,1.17
7348.00,1.17
7346.00,1.17
7344.00,1.17
7342.00,1.17
7340.00,1.17
7338.00,1.17
7336.00,1.17
7334.00,1.17
7332.00,1.16
7330.00,1.16
7328.00,1.17
7326.00,1.17
7324.00,1.17
7322.00,1.17
7320.00,1.17
7318.00,1.17
7316.00,1.17
7314.00,1.17
7312.00,1.17
7310.00,1.16
7308.00,1.16
7306.00,1.16
7304.00,1.16
7302.00,1.16
7300.00,1.16
7298.00,1.17
7296.00,1.17
7294.00,1.17
7292.00,1.17
7290.00,1.17
7288.00,1.17
7286.00,1.17
7284.00,1.17
7282.00,1.17
7280.00,1.17
7278.00,1.17
7276.00,1.17
7274.00,1.17
7272.00,1.17
7270.00,1.17
7268.00,1.16
7266.00,1.16
7264.00,1.16
7262.00,1.16
7260.00,1.16
7258.00,1.16
7256.00,1.16
7254.00,1.16
7252.00,1.15
7250.00,1.15
7248.00,1.15
7246.00,1.15
7244.00,1.15
7242.00,1.15
7240.00,1.15
7238.00,1.15
7236.00,1.15
7234.00,1.15
7232.00,1.15
7230.00,1.15
7228.00,1.15
7226.00,1.15
7224.00,1.15
7222.00,1.14
7220.00,1.14
7218.00,1.14
7216.00,1.13
7214.00,1.13
7212.00,1.13
7210.00,1.13
7208.00,1.13
7206.00,1.13
7204.00,1.12
7202.00,1.12
7200.00,1.12
7198.00,1.12
7196.00,1.12
7194.00,1.12
7192.00,1.12
7190.00,1.12
7188.00,1.12
7186.00,1.12
7184.00,1.12
7182.00,1.11
7180.00,1.11
7178.00,1.11
7176.00,1.11
7174.00,1.10
7172.00,1.10
7170.00,1.10
7168.00,1.10
7166.00,1.10
7164.00,1.10
7162.00,1.10
7160.00,1.10
7158.00,1.10
7156.00,1.10
7154.00,1.10
7152.00,1.10
7150.00,1.10
7148.00,1.10
7146.00,1.10
7144.00,1.10
7142.00,1.10
7140.00,1.10
7138.00,1.10
7136.00,1.10
7134.00,1.09
7132.00,1.09
7130.00,1.09
7128.00,1.09
7126.00,1.09
7124.00,1.08
7122.00,1.08
7120.00,1.08
7118.00,1.08
7116.00,1.08
7114.00,1.08
7112.00,1.08
7110.00,1.08
7108.00,1.08
7106.00,1.08
7104.00,1.08
7102.00,1.08
7100.00,1.07
7098.00,1.07
7096.00,1.07
7094.00,1.07
7092.00,1.07
7090.00,1.07
7088.00,1.07
7086.00,1.07
7084.00,1.07
7082.00,1.07
7080.00,1.07
7078.00,1.07
7076.00,1.07
7074.00,1.07
7072.00,1.07
7070.00,1.07
7068.00,1.07
7066.00,1.07
7064.00,1.07
7062.00,1.08
7060.00,1.08
7058.00,1.08
7056.00,1.07
7054.00,1.07
7052.00,1.07
7050.00,1.07
7048.00,1.06
7046.00,1.06
7044.00,1.06
7042.00,1.06
7040.00,1.05
7038.00,1.05
7036.00,1.05
7034.00,1.05
7032.00,1.05
7030.00,1.05
7028.00,1.06
7026.00,1.06
7024.00,1.06
7022.00,1.06
7020.00,1.06
7018.00,1.06
7016.00,1.05
7014.00,1.05
7012.00,1.05
7010.00,1.05
7008.00,1.05
7006.00,1.05
7004.00,1.05
7002.00,1.05
7000.00,1.05
6998.00,1.05
6996.00,1.05
6994.00,1.05
6992.00,1.05
6990.00,1.05
6988.00,1.05
6986.00,1.05
6984.00,1.05
6982.00,1.05
6980.00,1.05
6978.00,1.05
6976.00,1.04
6974.00,1.04
6972.00,1.04
6970.00,1.04
6968.00,1.04
6966.00,1.04
6964.00,1.04
6962.00,1.04
6960.00,1.04
6958.00,1.04
6956.00,1.04
6954.00,1.04
6952.00,1.04
6950.00,1.04
6948.00,1.04
6946.00,1.04
6944.00,1.04
6942.00,1.04
6940.00,1.04
6938.00,1.04
6936.00,1.04
6934.00,1.04
6932.00,1.04
6930.00,1.04
6928.00,1.04
6926.00,1.04
6924.00,1.04
6922.00,1.04
6920.00,1.03
6918.00,1.03
6916.00,1.03
6914.00,1.03
6912.00,1.03
6910.00,1.03
6908.00,1.03
6906.00,1.03
6904.00,1.03
6902.00,1.03
6900.00,1.03
6898.00,1.03
6896.00,1.03
6894.00,1.03
6892.00,1.03
6890.00,1.03
6888.00,1.03
6886.00,1.03
6884.00,1.03
6882.00,1.03
6880.00,1.03
6878.00,1.03
6876.00,1.03
6874.00,1.03
6872.00,1.03
6870.00,1.03
6868.00,1.03
6866.00,1.03
6864.00,1.03
6862.00,1.03
6860.00,1.02
6858.00,1.02
6856.00,1.02
6854.00,1.02
6852.00,1.02
6850.00,1.02
6848.00,1.02
6846.00,1.02
6844.00,1.02
6842.00,1.02
6840.00,1.02
6838.00,1.02
6836.00,1.02
6834.00,1.02
6832.00,1.02
6830.00,1.03
6828.00,1.03
6826.00,1.03
6824.00,1.03
6822.00,1.03
6820.00,1.03
6818.00,1.03
6816.00,1.03
6814.00,1.03
6812.00,1.03
6810.00,1.03
6808.00,1.03
6806.00,1.03
6804.00,1.03
6802.00,1.03
6800.00,1.04
6798.00,1.04
6796.00,1.04
6794.00,1.04
6792.00,1.04
6790.00,1.04
6788.00,1.04
6786.00,1.04
6784.00,1.04
6782.00,1.04
6780.00,1.04
6778.00,1.04
6776.00,1.04
6774.00,1.04
6772.00,1.04
6770.00,1.04
6768.00,1.04
6766.00,1.04
6764.00,1.04
6762.00,1.04
6760.00,1.04
6758.00,1.04
6756.00,1.05
6754.00,1.05
6752.00,1.05
6750.00,1.05
6748.00,1.05
6746.00,1.05
6744.00,1.05
6742.00,1.05
6740.00,1.05
6738.00,1.05
6736.00,1.05
6734.00,1.05
6732.00,1.05
6730.00,1.05
6728.00,1.05
6726.00,1.05
6724.00,1.05
6722.00,1.05
6720.00,1.05
6718.00,1.05
6716.00,1.05
6714.00,1.05
6712.00,1.05
6710.00,1.05
6708.00,1.06
6706.00,1.06
6704.00,1.06
6702.00,1.06
6700.00,1.06
6698.00,1.06
6696.00,1.06
6694.00,1.06
6692.00,1.06
6690.00,1.06
6688.00,1.06
6686.00,1.06
6684.00,1.06
6682.00,1.06
6680.00,1.06
6678.00,1.06
6676.00,1.06
6674.00,1.06
6672.00,1.07
6670.00,1.07
6668.00,1.07
6666.00,1.07
6664.00,1.07
6662.00,1.07
6660.00,1.07
6658.00,1.07
6656.00,1.07
6654.00,1.07
6652.00,1.07
6650.00,1.07
6648.00,1.07
6646.00,1.07
6644.00,1.06
6642.00,1.06
6640.00,1.06
6638.00,1.06
6636.00,1.06
6634.00,1.07
6632.00,1.07
6630.00,1.07
6628.00,1.07
6626.00,1.07
6624.00,1.07
6622.00,1.07
6620.00,1.07
6618.00,1.07
6616.00,1.07
6614.00,1.07
6612.00,1.07
6610.00,1.07
6608.00,1.07
6606.00,1.07
6604.00,1.07
6602.00,1.07
6600.00,1.07
6598.00,1.07
6596.00,1.07
6594.00,1.08
6592.00,1.08
6590.00,1.08
6588.00,1.08
6586.00,1.08
6584.00,1.08
6582.00,1.08
6580.00,1.08
6578.00,1.08
6576.00,1.08
6574.00,1.08
6572.00,1.08
6570.00,1.08
6568.00,1.08
6566.00,1.08
6564.00,1.09
6562.00,1.09
6560.00,1.09
6558.00,1.09
6556.00,1.09
6554.00,1.09
6552.00,1.09
6550.00,1.09
6548.00,1.09
6546.00,1.09
6544.00,1.09
6542.00,1.09
6540.00,1.09
6538.00,1.09
6536.00,1.09
6534.00,1.09
6532.00,1.09
6530.00,1.09
6528.00,1.09
6526.00,1.09
6524.00,1.09
6522.00,1.09
6520.00,1.09
6518.00,1.09
6516.00,1.09
6514.00,1.09
6512.00,1.09
6510.00,1.09
6508.00,1.09
6506.00,1.09
6504.00,1.09
6502.00,1.09
6500.00,1.09
6498.00,1.09
6496.00,1.10
6494.00,1.10
6492.00,1.10
6490.00,1.10
6488.00,1.10
6486.00,1.11
6484.00,1.11
6482.00,1.11
6480.00,1.11
6478.00,1.11
6476.00,1.11
6474.00,1.11
6472.00,1.11
6470.00,1.11
6468.00,1.11
6466.00,1.11
6464.00,1.11
6462.00,1.11
6460.00,1.11
6458.00,1.11
6456.00,1.11
6454.00,1.11
6452.00,1.11
6450.00,1.11
6448.00,1.11
6446.00,1.11
6444.00,1.11
6442.00,1.11
6440.00,1.11
6438.00,1.11
6436.00,1.11
6434.00,1.11
6432.00,1.11
6430.00,1.11
6428.00,1.11
6426.00,1.11
6424.00,1.11
6422.00,1.11
6420.00,1.11
6418.00,1.11
6416.00,1.11
6414.00,1.11
6412.00,1.11
6410.00,1.11
6408.00,1.11
6406.00,1.11
6404.00,1.11
6402.00,1.11
6400.00,1.11
6398.00,1.11
6396.00,1.11
6394.00,1.11
6392.00,1.11
6390.00,1.11
6388.00,1.11
6386.00,1.11
6384.00,1.11
6382.00,1.11
6380.00,1.11
6378.00,1.11
6376.00,1.11
6374.00,1.12
6372.00,1.12
6370.00,1.12
6368.00,1.12
6366.00,1.12
6364.00,1.12
6362.00,1.12
6360.00,1.12
6358.00,1.12
6356.00,1.12
6354.00,1.12
6352.00,1.12
6350.00,1.12
6348.00,1.12
6346.00,1.12
6344.00,1.12
6342.00,1.11
6340.00,1.11
6338.00,1.11
6336.00,1.11
6334.00,1.11
6332.00,1.11
6330.00,1.11
6328.00,1.11
6326.00,1.11
6324.00,1.11
6322.00,1.11
6320.00,1.11
6318.00,1.11
6316.00,1.11
6314.00,1.11
6312.00,1.12
6310.00,1.12
6308.00,1.12
6306.00,1.12
6304.00,1.12
6302.00,1.12
6300.00,1.12
6298.00,1.12
6296.00,1.12
6294.00,1.12
6292.00,1.12
6290.00,1.12
6288.00,1.12
6286.00,1.12
6284.00,1.12
6282.00,1.12
6280.00,1.12
6278.00,1.12
6276.00,1.12
6274.00,1.12
6272.00,1.12
6270.00,1.12
6268.00,1.12
6266.00,1.12
6264.00,1.12
6262.00,1.12
6260.00,1.12
6258.00,1.12
6256.00,1.12
6254.00,1.12
6252.00,1.12
6250.00,1.13
6248.00,1.13
6246.00,1.13
6244.00,1.13
6242.00,1.13
6240.00,1.14
6238.00,1.14
6236.00,1.14
6234.00,1.14
6232.00,1.14
6230.00,1.14
6228.00,1.14
6226.00,1.14
6224.00,1.14
6222.00,1.14
6220.00,1.14
6218.00,1.14
6216.00,1.14
6214.00,1.14
6212.00,1.14
6210.00,1.14
6208.00,1.14
6206.00,1.14
6204.00,1.14
6202.00,1.14
6200.00,1.15
6198.00,1.15
6196.00,1.15
6194.00,1.15
6192.00,1.15
6190.00,1.15
6188.00,1.15
6186.00,1.15
6184.00,1.15
6182.00,1.15
6180.00,1.15
6178.00,1.15
6176.00,1.15
6174.00,1.15
6172.00,1.15
6170.00,1.15
6168.00,1.15
6166.00,1.15
6164.00,1.15
6162.00,1.15
6160.00,1.15
6158.00,1.16
6156.00,1.16
6154.00,1.16
6152.00,1.16
6150.00,1.16
6148.00,1.16
6146.00,1.16
6144.00,1.16
6142.00,1.16
6140.00,1.16
6138.00,1.16
6136.00,1.16
6134.00,1.16
6132.00,1.16
6130.00,1.16
6128.00,1.16
6126.00,1.16
6124.00,1.16
6122.00,1.16
6120.00,1.17
6118.00,1.17
6116.00,1.17
6114.00,1.17
6112.00,1.17
6110.00,1.17
6108.00,1.17
6106.00,1.17
6104.00,1.17
6102.00,1.17
6100.00,1.17
6098.00,1.17
6096.00,1.17
6094.00,1.17
6092.00,1.17
6090.00,1.17
6088.00,1.17
6086.00,1.17
6084.00,1.17
6082.00,1.17
6080.00,1.17
6078.00,1.17
6076.00,1.17
6074.00,1.17
6072.00,1.17
6070.00,1.17
6068.00,1.18
6066.00,1.18
6064.00,1.18
6062.00,1.18
6060.00,1.18
6058.00,1.18
6056.00,1.18
6054.00,1.18
6052.00,1.18
6050.00,1.18
6048.00,1.18
6046.00,1.18
6044.00,1.18
6042.00,1.18
6040.00,1.18
6038.00,1.18
6036.00,1.17
6034.00,1.17
6032.00,1.17
6030.00,1.17
6028.00,1.17
6026.00,1.17
6024.00,1.18
6022.00,1.18
6020.00,1.18
6018.00,1.18
6016.00,1.18
6014.00,1.18
6012.00,1.18
6010.00,1.18
6008.00,1.18
6006.00,1.18
6004.00,1.17
6002.00,1.17
6000.00,1.17
5998.00,1.17
5996.00,1.17
5994.00,1.17
5992.00,1.17
5990.00,1.17
5988.00,1.17
5986.00,1.17
5984.00,1.17
5982.00,1.17
5980.00,1.17
5978.00,1.17
5976.00,1.16
5974.00,1.16
5972.00,1.16
5970.00,1.16
5968.00,1.15
5966.00,1.15
5964.00,1.15
5962.00,1.15
5960.00,1.15
5958.00,1.14
5956.00,1.14
5954.00,1.14
5952.00,1.14
5950.00,1.13
5948.00,1.13
5946.00,1.13
5944.00,1.13
5942.00,1.13
5940.00,1.13
5938.00,1.13
5936.00,1.13
5934.00,1.13
5932.00,1.13
5930.00,1.13
5928.00,1.13
5926.00,1.13
5924.00,1.13
5922.00,1.13
5920.00,1.13
5918.00,1.13
5916.00,1.13
5914.00,1.13
5912.00,1.12
5910.00,1.12
5908.00,1.12
5906.00,1.12
5904.00,1.12
5902.00,1.12
5900.00,1.12
5898.00,1.12
5896.00,1.12
5894.00,1.12
5892.00,1.12
5890.00,1.12
5888.00,1.12
5886.00,1.12
5884.00,1.13
5882.00,1.13
5880.00,1.13
5878.00,1.13
5876.00,1.13
5874.00,1.13
5872.00,1.13
5870.00,1.13
5868.00,1.13
5866.00,1.13
5864.00,1.13
5862.00,1.14
5860.00,1.14
5858.00,1.14
5856.00,1.14
5854.00,1.14
5852.00,1.14
5850.00,1.14
5848.00,1.14
5846.00,1.14
5844.00,1.14
5842.00,1.14
5840.00,1.14
5838.00,1.14
5836.00,1.14
5834.00,1.14
5832.00,1.14
5830.00,1.14
5828.00,1.14
5826.00,1.14
5824.00,1.14
5822.00,1.14
5820.00,1.14
5818.00,1.14
5816.00,1.14
5814.00,1.14
5812.00,1.14
5810.00,1.14
5808.00,1.14
5806.00,1.14
5804.00,1.14
5802.00,1.14
5800.00,1.14
5798.00,1.13
5796.00,1.13
5794.00,1.13
5792.00,1.13
5790.00,1.13
5788.00,1.13
5786.00,1.13
5784.00,1.13
5782.00,1.13
5780.00,1.13
5778.00,1.13
5776.00,1.13
5774.00,1.13
5772.00,1.13
5770.00,1.13
5768.00,1.13
5766.00,1.13
5764.00,1.13
5762.00,1.13
5760.00,1.13
5758.00,1.13
5756.00,1.13
5754.00,1.13
5752.00,1.13
5750.00,1.14
5748.00,1.14
5746.00,1.14
5744.00,1.14
5742.00,1.14
5740.00,1.14
5738.00,1.14
5736.00,1.14
5734.00,1.14
5732.00,1.14
5730.00,1.14
5728.00,1.14
5726.00,1.14
5724.00,1.14
5722.00,1.14
5720.00,1.15
5718.00,1.15
5716.00,1.15
5714.00,1.15
5712.00,1.15
5710.00,1.15
5708.00,1.15
5706.00,1.14
5704.00,1.14
5702.00,1.14
5700.00,1.14
5698.00,1.14
5696.00,1.14
5694.00,1.14
5692.00,1.14
5690.00,1.14
5688.00,1.14
5686.00,1.14
5684.00,1.14
5682.00,1.14
5680.00,1.14
5678.00,1.14
5676.00,1.14
5674.00,1.14
5672.00,1.13
5670.00,1.13
5668.00,1.13
5666.00,1.14
5664.00,1.14
5662.00,1.14
5660.00,1.14
5658.00,1.14
5656.00,1.14
5654.00,1.14
5652.00,1.14
5650.00,1.15
5648.00,1.15
5646.00,1.15
5644.00,1.15
5642.00,1.15
5640.00,1.15
5638.00,1.15
5636.00,1.15
5634.00,1.15
5632.00,1.15
5630.00,1.15
5628.00,1.15
5626.00,1.16
5624.00,1.16
5622.00,1.16
5620.00,1.16
5618.00,1.16
5616.00,1.16
5614.00,1.16
5612.00,1.16
5610.00,1.16
5608.00,1.16
5606.00,1.16
5604.00,1.16
5602.00,1.16
5600.00,1.16
5598.00,1.17
5596.00,1.17
5594.00,1.17
5592.00,1.17
5590.00,1.17
5588.00,1.17
5586.00,1.17
5584.00,1.17
5582.00,1.17
5580.00,1.17
5578.00,1.17
5576.00,1.17
5574.00,1.17
5572.00,1.17
5570.00,1.17
5568.00,1.17
5566.00,1.17
5564.00,1.18
5562.00,1.18
5560.00,1.18
5558.00,1.18
5556.00,1.18
5554.00,1.18
5552.00,1.18
5550.00,1.18
5548.00,1.18
5546.00,1.18
5544.00,1.18
5542.00,1.18
5540.00,1.18
5538.00,1.18
5536.00,1.18
5534.00,1.18
5532.00,1.18
5530.00,1.18
5528.00,1.18
5526.00,1.18
5524.00,1.18
5522.00,1.18
5520.00,1.18
5518.00,1.18
5516.00,1.18
5514.00,1.18
5512.00,1.18
5510.00,1.18
5508.00,1.18
5506.00,1.18
5504.00,1.18
5502.00,1.18
5500.00,1.18
5498.00,1.18
5496.00,1.18
5494.00,1.18
5492.00,1.18
5490.00,1.18
5488.00,1.18
5486.00,1.18
5484.00,1.19
5482.00,1.19
5480.00,1.19
5478.00,1.19
5476.00,1.18
5474.00,1.18
5472.00,1.19
5470.00,1.19
5468.00,1.19
5466.00,1.19
5464.00,1.19
5462.00,1.19
5460.00,1.19
5458.00,1.19
5456.00,1.19
5454.00,1.19
5452.00,1.19
5450.00,1.19
5448.00,1.19
5446.00,1.19
5444.00,1.19
5442.00,1.19
5440.00,1.19
5438.00,1.19
5436.00,1.19
5434.00,1.19
5432.00,1.19
5430.00,1.19
5428.00,1.19
5426.00,1.19
5424.00,1.19
5422.00,1.19
5420.00,1.19
5418.00,1.19
5416.00,1.19
5414.00,1.19
5412.00,1.19
5410.00,1.19
5408.00,1.19
5406.00,1.19
5404.00,1.19
5402.00,1.19
5400.00,1.19
5398.00,1.19
5396.00,1.19
5394.00,1.19
5392.00,1.19
5390.00,1.19
5388.00,1.19
5386.00,1.19
5384.00,1.19
5382.00,1.19
5380.00,1.19
5378.00,1.19
5376.00,1.19
5374.00,1.19
5372.00,1.19
5370.00,1.19
5368.00,1.19
5366.00,1.19
5364.00,1.18
5362.00,1.18
5360.00,1.18
5358.00,1.18
5356.00,1.18
5354.00,1.18
5352.00,1.17
5350.00,1.17
5348.00,1.17
5346.00,1.17
5344.00,1.17
5342.00,1.16
5340.00,1.16
5338.00,1.16
5336.00,1.15
5334.00,1.15
5332.00,1.14
5330.00,1.14
5328.00,1.14
5326.00,1.13
5324.00,1.13
5322.00,1.12
5320.00,1.12
5318.00,1.11
5316.00,1.11
5314.00,1.10
5312.00,1.09
5310.00,1.09
5308.00,1.08
5306.00,1.07
5304.00,1.07
5302.00,1.06
5300.00,1.05
5298.00,1.05
5296.00,1.04
5294.00,1.04
5292.00,1.03
5290.00,1.03
5288.00,1.02
5286.00,1.02
5284.00,1.01
5282.00,1.01
5280.00,1.00
5278.00,1.00
5276.00,1.00
5274.00,0.99
5272.00,0.99
5270.00,0.98
5268.00,0.98
5266.00,0.98
5264.00,0.97
5262.00,0.97
5260.00,0.96
5258.00,0.96
5256.00,0.96
5254.00,0.95
5252.00,0.95
5250.00,0.94
5248.00,0.94
5246.00,0.94
5244.00,0.93
5242.00,0.93
5240.00,0.93
5238.00,0.92
5236.00,0.92
5234.00,0.92
5232.00,0.92
5230.00,0.91
5228.00,0.91
5226.00,0.91
5224.00,0.90
5222.00,0.90
5220.00,0.90
5218.00,0.89
5216.00,0.89
5214.00,0.89
5212.00,0.89
5210.00,0.88
5208.00,0.88
5206.00,0.88
5204.00,0.88
5202.00,0.87
5200.00,0.87
5198.00,0.87
5196.00,0.87
5194.00,0.87
5192.00,0.86
5190.00,0.86
5188.00,0.86
5186.00,0.86
5184.00,0.86
5182.00,0.86
5180.00,0.86
5178.00,0.86
5176.00,0.86
5174.00,0.86
5172.00,0.86
5170.00,0.86
5168.00,0.86
5166.00,0.86
5164.00,0.86
5162.00,0.86
5160.00,0.86
5158.00,0.86
5156.00,0.86
5154.00,0.86
5152.00,0.86
5150.00,0.86
5148.00,0.86
5146.00,0.87
5144.00,0.87
5142.00,0.87
5140.00,0.87
5138.00,0.87
5136.00,0.87
5134.00,0.88
5132.00,0.88
5130.00,0.88
5128.00,0.88
5126.00,0.88
5124.00,0.88
5122.00,0.89
5120.00,0.89
5118.00,0.89
5116.00,0.89
5114.00,0.90
5112.00,0.90
5110.00,0.90
5108.00,0.90
5106.00,0.90
5104.00,0.90
5102.00,0.91
5100.00,0.91
5098.00,0.91
5096.00,0.91
5094.00,0.92
5092.00,0.92
5090.00,0.92
5088.00,0.92
5086.00,0.93
5084.00,0.93
5082.00,0.93
5080.00,0.93
5078.00,0.94
5076.00,0.94
5074.00,0.94
5072.00,0.94
5070.00,0.95
5068.00,0.95
5066.00,0.95
5064.00,0.95
5062.00,0.96
5060.00,0.96
5058.00,0.96
5056.00,0.96
5054.00,0.96
5052.00,0.97
5050.00,0.97
5048.00,0.97
5046.00,0.98
5044.00,0.98
5042.00,0.98
5040.00,0.98
5038.00,0.99
5036.00,0.99
5034.00,0.99
5032.00,0.99
5030.00,1.00
5028.00,1.00
5026.00,1.00
5024.00,1.00
5022.00,1.00
5020.00,1.01
5018.00,1.01
5016.00,1.01
5014.00,1.01
5012.00,1.02
5010.00,1.02
5008.00,1.02
5006.00,1.02
5004.00,1.02
5002.00,1.03
5000.00,1.03
4998.00,1.03
4996.00,1.03
4994.00,1.03
4992.00,1.03
4990.00,1.04
4988.00,1.04
4986.00,1.04
4984.00,1.04
4982.00,1.04
4980.00,1.04
4978.00,1.04
4976.00,1.04
4974.00,1.05
4972.00,1.05
4970.00,1.05
4968.00,1.05
4966.00,1.05
4964.00,1.05
4962.00,1.06
4960.00,1.06
4958.00,1.06
4956.00,1.06
4954.00,1.06
4952.00,1.06
4950.00,1.06
4948.00,1.06
4946.00,1.06
4944.00,1.06
4942.00,1.07
4940.00,1.07
4938.00,1.07
4936.00,1.07
4934.00,1.07
4932.00,1.07
4930.00,1.07
4928.00,1.07
4926.00,1.07
4924.00,1.07
4922.00,1.08
4920.00,1.08
4918.00,1.08
4916.00,1.08
4914.00,1.08
4912.00,1.08
4910.00,1.08
4908.00,1.08
4906.00,1.08
4904.00,1.08
4902.00,1.08
4900.00,1.08
4898.00,1.08
4896.00,1.08
4894.00,1.08
4892.00,1.08
4890.00,1.08
4888.00,1.08
4886.00,1.08
4884.00,1.08
4882.00,1.07
4880.00,1.07
4878.00,1.07
4876.00,1.07
4874.00,1.08
4872.00,1.08
4870.00,1.08
4868.00,1.08
4866.00,1.08
4864.00,1.08
4862.00,1.08
4860.00,1.08
4858.00,1.08
4856.00,1.08
4854.00,1.08
4852.00,1.09
4850.00,1.09
4848.00,1.09
4846.00,1.09
4844.00,1.09
4842.00,1.09
4840.00,1.09
4838.00,1.09
4836.00,1.09
4834.00,1.09
4832.00,1.09
4830.00,1.09
4828.00,1.09
4826.00,1.10
4824.00,1.10
4822.00,1.10
4820.00,1.10
4818.00,1.10
4816.00,1.10
4814.00,1.10
4812.00,1.11
4810.00,1.11
4808.00,1.11
4806.00,1.11
4804.00,1.11
4802.00,1.11
4800.00,1.11
4798.00,1.11
4796.00,1.12
4794.00,1.12
4792.00,1.12
4790.00,1.12
4788.00,1.12
4786.00,1.12
4784.00,1.13
4782.00,1.13
4780.00,1.13
4778.00,1.13
4776.00,1.13
4774.00,1.13
4772.00,1.13
4770.00,1.14
4768.00,1.14
4766.00,1.14
4764.00,1.14
4762.00,1.14
4760.00,1.14
4758.00,1.14
4756.00,1.14
4754.00,1.15
4752.00,1.15
4750.00,1.15
4748.00,1.15
4746.00,1.15
4744.00,1.15
4742.00,1.15
4740.00,1.15
4738.00,1.16
4736.00,1.16
4734.00,1.16
4732.00,1.16
4730.00,1.16
4728.00,1.16
4726.00,1.16
4724.00,1.17
4722.00,1.17
4720.00,1.17
4718.00,1.17
4716.00,1.17
4714.00,1.18
4712.00,1.18
4710.00,1.18
4708.00,1.18
4706.00,1.18
4704.00,1.18
4702.00,1.18
4700.00,1.19
4698.00,1.19
4696.00,1.19
4694.00,1.19
4692.00,1.19
4690.00,1.19
4688.00,1.19
4686.00,1.19
4684.00,1.19
4682.00,1.19
4680.00,1.19
4678.00,1.19
4676.00,1.19
4674.00,1.19
4672.00,1.19
4670.00,1.19
4668.00,1.19
4666.00,1.19
4664.00,1.19
4662.00,1.19
4660.00,1.19
4658.00,1.19
4656.00,1.19
4654.00,1.19
4652.00,1.19
4650.00,1.19
4648.00,1.19
4646.00,1.19
4644.00,1.19
4642.00,1.19
4640.00,1.19
4638.00,1.19
4636.00,1.19
4634.00,1.19
4632.00,1.19
4630.00,1.19
4628.00,1.19
4626.00,1.19
4624.00,1.19
4622.00,1.19
4620.00,1.19
4618.00,1.19
4616.00,1.19
4614.00,1.19
4612.00,1.19
4610.00,1.19
4608.00,1.19
4606.00,1.19
4604.00,1.19
4602.00,1.19
4600.00,1.19
4598.00,1.19
4596.00,1.19
4594.00,1.19
4592.00,1.19
4590.00,1.19
4588.00,1.19
4586.00,1.19
4584.00,1.19
4582.00,1.19
4580.00,1.19
4578.00,1.19
4576.00,1.18
4574.00,1.18
4572.00,1.18
4570.00,1.18
4568.00,1.18
4566.00,1.18
4564.00,1.18
4562.00,1.18
4560.00,1.18
4558.00,1.18
4556.00,1.18
4554.00,1.18
4552.00,1.18
4550.00,1.18
4548.00,1.18
4546.00,1.18
4544.00,1.18
4542.00,1.18
4540.00,1.18
4538.00,1.18
4536.00,1.18
4534.00,1.18
4532.00,1.18
4530.00,1.18
4528.00,1.18
4526.00,1.19
4524.00,1.19
4522.00,1.19
4520.00,1.19
4518.00,1.19
4516.00,1.19
4514.00,1.19
4512.00,1.19
4510.00,1.19
4508.00,1.19
4506.00,1.19
4504.00,1.19
4502.00,1.19
4500.00,1.19
4498.00,1.19
4496.00,1.19
4494.00,1.19
4492.00,1.19
4490.00,1.19
4488.00,1.19
4486.00,1.19
4484.00,1.19
4482.00,1.19
4480.00,1.19
4478.00,1.19
4476.00,1.19
4474.00,1.19
4472.00,1.19
4470.00,1.19
4468.00,1.19
4466.00,1.18
4464.00,1.18
4462.00,1.18
4460.00,1.18
4458.00,1.17
4456.00,1.17
4454.00,1.17
4452.00,1.16
4450.00,1.16
4448.00,1.16
4446.00,1.15
4444.00,1.15
4442.00,1.14
4440.00,1.13
4438.00,1.12
4436.00,1.12
4434.00,1.11
4432.00,1.10
4430.00,1.09
4428.00,1.08
4426.00,1.07
4424.00,1.06
4422.00,1.05
4420.00,1.05
4418.00,1.04
4416.00,1.04
4414.00,1.03
4412.00,1.03
4410.00,1.03
4408.00,1.02
4406.00,1.02
4404.00,1.02
4402.00,1.03
4400.00,1.03
4398.00,1.03
4396.00,1.04
4394.00,1.04
4392.00,1.05
4390.00,1.05
4388.00,1.06
4386.00,1.06
4384.00,1.07
4382.00,1.07
4380.00,1.08
4378.00,1.08
4376.00,1.08
4374.00,1.08
4372.00,1.08
4370.00,1.08
4368.00,1.08
4366.00,1.08
4364.00,1.08
4362.00,1.08
4360.00,1.07
4358.00,1.07
4356.00,1.06
4354.00,1.06
4352.00,1.06
4350.00,1.05
4348.00,1.05
4346.00,1.04
4344.00,1.04
4342.00,1.03
4340.00,1.03
4338.00,1.03
4336.00,1.03
4334.00,1.03
4332.00,1.03
4330.00,1.04
4328.00,1.04
4326.00,1.05
4324.00,1.06
4322.00,1.07
4320.00,1.08
4318.00,1.09
4316.00,1.09
4314.00,1.10
4312.00,1.11
4310.00,1.11
4308.00,1.12
4306.00,1.12
4304.00,1.13
4302.00,1.13
4300.00,1.14
4298.00,1.14
4296.00,1.15
4294.00,1.15
4292.00,1.15
4290.00,1.15
4288.00,1.16
4286.00,1.16
4284.00,1.16
4282.00,1.16
4280.00,1.16
4278.00,1.16
4276.00,1.16
4274.00,1.16
4272.00,1.16
4270.00,1.16
4268.00,1.15
4266.00,1.15
4264.00,1.15
4262.00,1.14
4260.00,1.14
4258.00,1.14
4256.00,1.14
4254.00,1.13
4252.00,1.13
4250.00,1.13
4248.00,1.14
4246.00,1.14
4244.00,1.14
4242.00,1.15
4240.00,1.15
4238.00,1.16
4236.00,1.16
4234.00,1.16
4232.00,1.17
4230.00,1.17
4228.00,1.17
4226.00,1.18
4224.00,1.18
4222.00,1.18
4220.00,1.18
4218.00,1.19
4216.00,1.19
4214.00,1.19
4212.00,1.19
4210.00,1.19
4208.00,1.19
4206.00,1.19
4204.00,1.19
4202.00,1.19
4200.00,1.19
4198.00,1.19
4196.00,1.19
4194.00,1.19
4192.00,1.19
4190.00,1.19
4188.00,1.19
4186.00,1.19
4184.00,1.19
4182.00,1.19
4180.00,1.19
4178.00,1.19
4176.00,1.19
4174.00,1.19
4172.00,1.19
4170.00,1.19
4168.00,1.18
4166.00,1.18
4164.00,1.18
4162.00,1.18
4160.00,1.18
4158.00,1.18
4156.00,1.18
4154.00,1.18
4152.00,1.18
4150.00,1.18
4148.00,1.18
4146.00,1.18
4144.00,1.19
4142.00,1.19
4140.00,1.19
4138.00,1.19
4136.00,1.19
4134.00,1.19
4132.00,1.19
4130.00,1.19
4128.00,1.19
4126.00,1.19
4124.00,1.19
4122.00,1.19
4120.00,1.19
4118.00,1.19
4116.00,1.19
4114.00,1.19
4112.00,1.19
4110.00,1.18
4108.00,1.18
4106.00,1.18
4104.00,1.17
4102.00,1.17
4100.00,1.17
4098.00,1.17
4096.00,1.17
4094.00,1.17
4092.00,1.17
4090.00,1.17
4088.00,1.17
4086.00,1.16
4084.00,1.16
4082.00,1.16
4080.00,1.15
4078.00,1.15
4076.00,1.14
4074.00,1.14
4072.00,1.14
4070.00,1.14
4068.00,1.14
4066.00,1.14
4064.00,1.14
4062.00,1.14
4060.00,1.14
4058.00,1.14
4056.00,1.14
4054.00,1.15
4052.00,1.15
4050.00,1.15
4048.00,1.15
4046.00,1.15
4044.00,1.16
4042.00,1.16
4040.00,1.16
4038.00,1.16
4036.00,1.16
4034.00,1.16
4032.00,1.16
4030.00,1.16
4028.00,1.16
4026.00,1.16
4024.00,1.16
4022.00,1.16
4020.00,1.16
4018.00,1.16
4016.00,1.17
4014.00,1.17
4012.00,1.17
4010.00,1.18
4008.00,1.18
4006.00,1.18
4004.00,1.19
4002.00,1.19
4000.00,1.19
