创建为新数据集,样品 1717 用户 Administrator 日期 星期三, 三月 15 2017
cm-1,%T
10000.00,1.05
9998.00,1.04
9996.00,1.04
9994.00,1.04
9992.00,1.03
9990.00,1.03
9988.00,1.03
9986.00,1.02
9984.00,1.02
9982.00,1.02
9980.00,1.03
9978.00,1.03
9976.00,1.03
9974.00,1.04
9972.00,1.04
9970.00,1.04
9968.00,1.05
9966.00,1.05
9964.00,1.05
9962.00,1.04
9960.00,1.04
9958.00,1.04
9956.00,1.03
9954.00,1.03
9952.00,1.03
9950.00,1.03
9948.00,1.03
9946.00,1.03
9944.00,1.03
9942.00,1.03
9940.00,1.03
9938.00,1.04
9936.00,1.04
9934.00,1.03
9932.00,1.03
9930.00,1.03
9928.00,1.02
9926.00,1.02
9924.00,1.02
9922.00,1.01
9920.00,1.01
9918.00,1.01
9916.00,1.01
9914.00,1.01
9912.00,1.01
9910.00,1.02
9908.00,1.02
9906.00,1.02
9904.00,1.03
9902.00,1.03
9900.00,1.03
9898.00,1.03
9896.00,1.02
9894.00,1.02
9892.00,1.02
9890.00,1.02
9888.00,1.02
9886.00,1.02
9884.00,1.02
9882.00,1.03
9880.00,1.03
9878.00,1.02
9876.00,1.02
9874.00,1.02
9872.00,1.02
9870.00,1.01
9868.00,1.01
9866.00,1.01
9864.00,1.02
9862.00,1.02
9860.00,1.02
9858.00,1.03
9856.00,1.04
9854.00,1.04
9852.00,1.05
9850.00,1.05
9848.00,1.05
9846.00,1.04
9844.00,1.04
9842.00,1.03
9840.00,1.02
9838.00,1.02
9836.00,1.01
9834.00,1.01
9832.00,1.01
9830.00,1.01
9828.00,1.01
9826.00,1.01
9824.00,1.00
9822.00,1.00
9820.00,1.00
9818.00,1.00
9816.00,1.00
9814.00,1.01
9812.00,1.01
9810.00,1.02
9808.00,1.03
9806.00,1.04
9804.00,1.04
9802.00,1.05
9800.00,1.05
9798.00,1.05
9796.00,1.05
9794.00,1.05
9792.00,1.04
9790.00,1.03
9788.00,1.02
9786.00,1.02
9784.00,1.01
9782.00,1.01
9780.00,1.01
9778.00,1.01
9776.00,1.02
9774.00,1.02
9772.00,1.02
9770.00,1.02
9768.00,1.01
9766.00,1.01
9764.00,1.01
9762.00,1.01
9760.00,1.01
9758.00,1.02
9756.00,1.02
9754.00,1.02
9752.00,1.02
9750.00,1.02
9748.00,1.02
9746.00,1.02
9744.00,1.02
9742.00,1.02
9740.00,1.02
9738.00,1.02
9736.00,1.02
9734.00,1.02
9732.00,1.02
9730.00,1.02
9728.00,1.02
9726.00,1.02
9724.00,1.02
9722.00,1.02
9720.00,1.02
9718.00,1.02
9716.00,1.02
9714.00,1.03
9712.00,1.03
9710.00,1.03
9708.00,1.03
9706.00,1.04
9704.00,1.04
9702.00,1.03
9700.00,1.03
9698.00,1.03
9696.00,1.03
9694.00,1.03
9692.00,1.03
9690.00,1.03
9688.00,1.02
9686.00,1.02
9684.00,1.02
9682.00,1.02
9680.00,1.02
9678.00,1.02
9676.00,1.02
9674.00,1.02
9672.00,1.03
9670.00,1.03
9668.00,1.03
9666.00,1.03
9664.00,1.02
9662.00,1.02
9660.00,1.02
9658.00,1.01
9656.00,1.01
9654.00,1.01
9652.00,1.00
9650.00,1.00
9648.00,1.00
9646.00,1.00
9644.00,1.00
9642.00,1.01
9640.00,1.01
9638.00,1.01
9636.00,1.02
9634.00,1.02
9632.00,1.02
9630.00,1.02
9628.00,1.02
9626.00,1.01
9624.00,1.01
9622.00,1.01
9620.00,1.01
9618.00,1.01
9616.00,1.01
9614.00,1.02
9612.00,1.02
9610.00,1.02
9608.00,1.02
9606.00,1.02
9604.00,1.02
9602.00,1.02
9600.00,1.02
9598.00,1.02
9596.00,1.02
9594.00,1.02
9592.00,1.02
9590.00,1.03
9588.00,1.03
9586.00,1.03
9584.00,1.03
9582.00,1.02
9580.00,1.02
9578.00,1.02
9576.00,1.01
9574.00,1.01
9572.00,1.01
9570.00,1.01
9568.00,1.01
9566.00,1.01
9564.00,1.02
9562.00,1.02
9560.00,1.02
9558.00,1.02
9556.00,1.03
9554.00,1.03
9552.00,1.03
9550.00,1.03
9548.00,1.02
9546.00,1.02
9544.00,1.02
9542.00,1.01
9540.00,1.01
9538.00,1.01
9536.00,1.01
9534.00,1.01
9532.00,1.01
9530.00,1.01
9528.00,1.01
9526.00,1.02
9524.00,1.02
9522.00,1.02
9520.00,1.02
9518.00,1.02
9516.00,1.02
9514.00,1.03
9512.00,1.03
9510.00,1.03
9508.00,1.03
9506.00,1.03
9504.00,1.03
9502.00,1.02
9500.00,1.02
9498.00,1.02
9496.00,1.02
9494.00,1.02
9492.00,1.02
9490.00,1.03
9488.00,1.03
9486.00,1.03
9484.00,1.04
9482.00,1.04
9480.00,1.04
9478.00,1.04
9476.00,1.04
9474.00,1.04
9472.00,1.04
9470.00,1.04
9468.00,1.04
9466.00,1.04
9464.00,1.04
9462.00,1.04
9460.00,1.04
9458.00,1.04
9456.00,1.04
9454.00,1.04
9452.00,1.04
9450.00,1.04
9448.00,1.04
9446.00,1.04
9444.00,1.04
9442.00,1.04
9440.00,1.04
9438.00,1.03
9436.00,1.03
9434.00,1.03
9432.00,1.02
9430.00,1.02
9428.00,1.02
9426.00,1.02
9424.00,1.02
9422.00,1.02
9420.00,1.03
9418.00,1.03
9416.00,1.03
9414.00,1.04
9412.00,1.04
9410.00,1.04
9408.00,1.04
9406.00,1.03
9404.00,1.03
9402.00,1.03
9400.00,1.03
9398.00,1.03
9396.00,1.03
9394.00,1.03
9392.00,1.02
9390.00,1.02
9388.00,1.02
9386.00,1.02
9384.00,1.01
9382.00,1.01
9380.00,1.01
9378.00,1.01
9376.00,1.01
9374.00,1.01
9372.00,1.01
9370.00,1.02
9368.00,1.02
9366.00,1.02
9364.00,1.02
9362.00,1.02
9360.00,1.02
9358.00,1.02
9356.00,1.02
9354.00,1.03
9352.00,1.03
9350.00,1.03
9348.00,1.04
9346.00,1.04
9344.00,1.04
9342.00,1.04
9340.00,1.04
9338.00,1.04
9336.00,1.04
9334.00,1.04
9332.00,1.04
9330.00,1.04
9328.00,1.04
9326.00,1.04
9324.00,1.04
9322.00,1.04
9320.00,1.04
9318.00,1.03
9316.00,1.03
9314.00,1.03
9312.00,1.03
9310.00,1.03
9308.00,1.03
9306.00,1.03
9304.00,1.03
9302.00,1.03
9300.00,1.02
9298.00,1.02
9296.00,1.02
9294.00,1.02
9292.00,1.02
9290.00,1.02
9288.00,1.02
9286.00,1.02
9284.00,1.02
9282.00,1.03
9280.00,1.03
9278.00,1.03
9276.00,1.03
9274.00,1.03
9272.00,1.03
9270.00,1.04
9268.00,1.04
9266.00,1.04
9264.00,1.04
9262.00,1.04
9260.00,1.03
9258.00,1.03
9256.00,1.03
9254.00,1.03
9252.00,1.02
9250.00,1.03
9248.00,1.03
9246.00,1.03
9244.00,1.03
9242.00,1.03
9240.00,1.03
9238.00,1.03
9236.00,1.02
9234.00,1.02
9232.00,1.01
9230.00,1.01
9228.00,1.01
9226.00,1.00
9224.00,1.00
9222.00,1.00
9220.00,1.00
9218.00,1.00
9216.00,1.00
9214.00,1.00
9212.00,1.00
9210.00,1.00
9208.00,1.00
9206.00,1.01
9204.00,1.01
9202.00,1.02
9200.00,1.02
9198.00,1.02
9196.00,1.03
9194.00,1.03
9192.00,1.03
9190.00,1.03
9188.00,1.02
9186.00,1.02
9184.00,1.02
9182.00,1.01
9180.00,1.01
9178.00,1.01
9176.00,1.01
9174.00,1.01
9172.00,1.01
9170.00,1.02
9168.00,1.02
9166.00,1.02
9164.00,1.02
9162.00,1.02
9160.00,1.02
9158.00,1.02
9156.00,1.01
9154.00,1.01
9152.00,1.01
9150.00,1.01
9148.00,1.01
9146.00,1.01
9144.00,1.01
9142.00,1.02
9140.00,1.02
9138.00,1.03
9136.00,1.03
9134.00,1.03
9132.00,1.03
9130.00,1.03
9128.00,1.03
9126.00,1.03
9124.00,1.03
9122.00,1.02
9120.00,1.02
9118.00,1.02
9116.00,1.02
9114.00,1.02
9112.00,1.02
9110.00,1.02
9108.00,1.02
9106.00,1.03
9104.00,1.03
9102.00,1.02
9100.00,1.02
9098.00,1.02
9096.00,1.02
9094.00,1.02
9092.00,1.03
9090.00,1.03
9088.00,1.03
9086.00,1.03
9084.00,1.03
9082.00,1.02
9080.00,1.02
9078.00,1.01
9076.00,1.01
9074.00,1.01
9072.00,1.00
9070.00,1.00
9068.00,1.01
9066.00,1.01
9064.00,1.01
9062.00,1.01
9060.00,1.02
9058.00,1.02
9056.00,1.02
9054.00,1.02
9052.00,1.03
9050.00,1.03
9048.00,1.03
9046.00,1.03
9044.00,1.03
9042.00,1.03
9040.00,1.03
9038.00,1.04
9036.00,1.04
9034.00,1.04
9032.00,1.04
9030.00,1.04
9028.00,1.04
9026.00,1.04
9024.00,1.04
9022.00,1.04
9020.00,1.04
9018.00,1.04
9016.00,1.04
9014.00,1.04
9012.00,1.03
9010.00,1.03
9008.00,1.03
9006.00,1.03
9004.00,1.03
9002.00,1.03
9000.00,1.03
8998.00,1.03
8996.00,1.03
8994.00,1.03
8992.00,1.03
8990.00,1.03
8988.00,1.03
8986.00,1.03
8984.00,1.03
8982.00,1.03
8980.00,1.03
8978.00,1.03
8976.00,1.03
8974.00,1.03
8972.00,1.03
8970.00,1.02
8968.00,1.02
8966.00,1.02
8964.00,1.01
8962.00,1.01
8960.00,1.01
8958.00,1.00
8956.00,1.00
8954.00,1.00
8952.00,1.00
8950.00,1.00
8948.00,1.01
8946.00,1.01
8944.00,1.01
8942.00,1.01
8940.00,1.01
8938.00,1.01
8936.00,1.01
8934.00,1.01
8932.00,1.01
8930.00,1.01
8928.00,1.01
8926.00,1.01
8924.00,1.02
8922.00,1.02
8920.00,1.02
8918.00,1.02
8916.00,1.02
8914.00,1.03
8912.00,1.03
8910.00,1.03
8908.00,1.03
8906.00,1.03
8904.00,1.03
8902.00,1.03
8900.00,1.03
8898.00,1.03
8896.00,1.03
8894.00,1.03
8892.00,1.02
8890.00,1.02
8888.00,1.02
8886.00,1.02
8884.00,1.02
8882.00,1.02
8880.00,1.02
8878.00,1.02
8876.00,1.02
8874.00,1.02
8872.00,1.02
8870.00,1.02
8868.00,1.02
8866.00,1.02
8864.00,1.01
8862.00,1.01
8860.00,1.01
8858.00,1.01
8856.00,1.01
8854.00,1.01
8852.00,1.01
8850.00,1.01
8848.00,1.01
8846.00,1.01
8844.00,1.01
8842.00,1.01
8840.00,1.01
8838.00,1.01
8836.00,1.01
8834.00,1.01
8832.00,1.01
8830.00,1.01
8828.00,1.02
8826.00,1.02
8824.00,1.02
8822.00,1.02
8820.00,1.02
8818.00,1.02
8816.00,1.02
8814.00,1.02
8812.00,1.01
8810.00,1.01
8808.00,1.01
8806.00,1.01
8804.00,1.02
8802.00,1.02
8800.00,1.02
8798.00,1.03
8796.00,1.03
8794.00,1.04
8792.00,1.04
8790.00,1.04
8788.00,1.04
8786.00,1.03
8784.00,1.03
8782.00,1.03
8780.00,1.03
8778.00,1.02
8776.00,1.02
8774.00,1.02
8772.00,1.02
8770.00,1.02
8768.00,1.02
8766.00,1.02
8764.00,1.02
8762.00,1.02
8760.00,1.02
8758.00,1.02
8756.00,1.02
8754.00,1.02
8752.00,1.02
8750.00,1.01
8748.00,1.01
8746.00,1.02
8744.00,1.02
8742.00,1.02
8740.00,1.02
8738.00,1.02
8736.00,1.01
8734.00,1.01
8732.00,1.01
8730.00,1.02
8728.00,1.02
8726.00,1.02
8724.00,1.02
8722.00,1.03
8720.00,1.03
8718.00,1.03
8716.00,1.03
8714.00,1.03
8712.00,1.03
8710.00,1.03
8708.00,1.03
8706.00,1.03
8704.00,1.02
8702.00,1.02
8700.00,1.02
8698.00,1.02
8696.00,1.01
8694.00,1.01
8692.00,1.01
8690.00,1.01
8688.00,1.01
8686.00,1.01
8684.00,1.02
8682.00,1.02
8680.00,1.03
8678.00,1.03
8676.00,1.03
8674.00,1.04
8672.00,1.04
8670.00,1.04
8668.00,1.04
8666.00,1.04
8664.00,1.03
8662.00,1.03
8660.00,1.02
8658.00,1.02
8656.00,1.01
8654.00,1.01
8652.00,1.01
8650.00,1.01
8648.00,1.01
8646.00,1.01
8644.00,1.01
8642.00,1.02
8640.00,1.02
8638.00,1.02
8636.00,1.03
8634.00,1.03
8632.00,1.03
8630.00,1.03
8628.00,1.03
8626.00,1.03
8624.00,1.03
8622.00,1.03
8620.00,1.03
8618.00,1.03
8616.00,1.03
8614.00,1.03
8612.00,1.03
8610.00,1.03
8608.00,1.03
8606.00,1.03
8604.00,1.03
8602.00,1.03
8600.00,1.03
8598.00,1.03
8596.00,1.03
8594.00,1.03
8592.00,1.03
8590.00,1.03
8588.00,1.03
8586.00,1.03
8584.00,1.03
8582.00,1.03
8580.00,1.03
8578.00,1.03
8576.00,1.02
8574.00,1.02
8572.00,1.02
8570.00,1.02
8568.00,1.02
8566.00,1.02
8564.00,1.02
8562.00,1.02
8560.00,1.02
8558.00,1.02
8556.00,1.02
8554.00,1.02
8552.00,1.02
8550.00,1.01
8548.00,1.01
8546.00,1.01
8544.00,1.01
8542.00,1.01
8540.00,1.01
8538.00,1.01
8536.00,1.01
8534.00,1.01
8532.00,1.01
8530.00,1.02
8528.00,1.02
8526.00,1.02
8524.00,1.02
8522.00,1.02
8520.00,1.02
8518.00,1.02
8516.00,1.01
8514.00,1.01
8512.00,1.01
8510.00,1.01
8508.00,1.01
8506.00,1.01
8504.00,1.02
8502.00,1.02
8500.00,1.02
8498.00,1.02
8496.00,1.02
8494.00,1.02
8492.00,1.02
8490.00,1.02
8488.00,1.02
8486.00,1.02
8484.00,1.01
8482.00,1.01
8480.00,1.01
8478.00,1.02
8476.00,1.02
8474.00,1.02
8472.00,1.02
8470.00,1.02
8468.00,1.03
8466.00,1.03
8464.00,1.03
8462.00,1.02
8460.00,1.02
8458.00,1.02
8456.00,1.02
8454.00,1.02
8452.00,1.02
8450.00,1.02
8448.00,1.02
8446.00,1.02
8444.00,1.02
8442.00,1.02
8440.00,1.02
8438.00,1.01
8436.00,1.01
8434.00,1.01
8432.00,1.00
8430.00,1.00
8428.00,1.00
8426.00,1.00
8424.00,1.01
8422.00,1.01
8420.00,1.01
8418.00,1.02
8416.00,1.02
8414.00,1.02
8412.00,1.02
8410.00,1.02
8408.00,1.02
8406.00,1.02
8404.00,1.02
8402.00,1.01
8400.00,1.01
8398.00,1.01
8396.00,1.00
8394.00,1.00
8392.00,1.00
8390.00,1.00
8388.00,1.00
8386.00,1.01
8384.00,1.01
8382.00,1.01
8380.00,1.01
8378.00,1.02
8376.00,1.02
8374.00,1.02
8372.00,1.02
8370.00,1.02
8368.00,1.02
8366.00,1.02
8364.00,1.02
8362.00,1.02
8360.00,1.01
8358.00,1.01
8356.00,1.01
8354.00,1.01
8352.00,1.01
8350.00,1.02
8348.00,1.02
8346.00,1.02
8344.00,1.02
8342.00,1.02
8340.00,1.02
8338.00,1.02
8336.00,1.02
8334.00,1.02
8332.00,1.02
8330.00,1.02
8328.00,1.02
8326.00,1.02
8324.00,1.02
8322.00,1.02
8320.00,1.02
8318.00,1.02
8316.00,1.02
8314.00,1.02
8312.00,1.02
8310.00,1.02
8308.00,1.02
8306.00,1.02
8304.00,1.02
8302.00,1.02
8300.00,1.02
8298.00,1.02
8296.00,1.02
8294.00,1.02
8292.00,1.01
8290.00,1.01
8288.00,1.01
8286.00,1.01
8284.00,1.01
8282.00,1.01
8280.00,1.01
8278.00,1.01
8276.00,1.01
8274.00,1.01
8272.00,1.01
8270.00,1.01
8268.00,1.01
8266.00,1.00
8264.00,1.00
8262.00,1.01
8260.00,1.01
8258.00,1.01
8256.00,1.01
8254.00,1.02
8252.00,1.02
8250.00,1.02
8248.00,1.02
8246.00,1.02
8244.00,1.02
8242.00,1.02
8240.00,1.02
8238.00,1.02
8236.00,1.02
8234.00,1.02
8232.00,1.02
8230.00,1.02
8228.00,1.02
8226.00,1.02
8224.00,1.02
8222.00,1.02
8220.00,1.02
8218.00,1.02
8216.00,1.02
8214.00,1.01
8212.00,1.01
8210.00,1.01
8208.00,1.01
8206.00,1.01
8204.00,1.01
8202.00,1.01
8200.00,1.01
8198.00,1.01
8196.00,1.01
8194.00,1.01
8192.00,1.01
8190.00,1.01
8188.00,1.02
8186.00,1.02
8184.00,1.02
8182.00,1.02
8180.00,1.02
8178.00,1.02
8176.00,1.02
8174.00,1.02
8172.00,1.02
8170.00,1.02
8168.00,1.02
8166.00,1.02
8164.00,1.01
8162.00,1.01
8160.00,1.01
8158.00,1.02
8156.00,1.02
8154.00,1.02
8152.00,1.02
8150.00,1.02
8148.00,1.02
8146.00,1.02
8144.00,1.02
8142.00,1.02
8140.00,1.02
8138.00,1.02
8136.00,1.02
8134.00,1.02
8132.00,1.02
8130.00,1.02
8128.00,1.02
8126.00,1.02
8124.00,1.02
8122.00,1.02
8120.00,1.02
8118.00,1.02
8116.00,1.02
8114.00,1.02
8112.00,1.02
8110.00,1.02
8108.00,1.02
8106.00,1.02
8104.00,1.02
8102.00,1.02
8100.00,1.02
8098.00,1.02
8096.00,1.02
8094.00,1.02
8092.00,1.02
8090.00,1.02
8088.00,1.03
8086.00,1.03
8084.00,1.03
8082.00,1.03
8080.00,1.03
8078.00,1.03
8076.00,1.03
8074.00,1.03
8072.00,1.03
8070.00,1.03
8068.00,1.03
8066.00,1.02
8064.00,1.02
8062.00,1.02
8060.00,1.02
8058.00,1.02
8056.00,1.02
8054.00,1.02
8052.00,1.02
8050.00,1.02
8048.00,1.03
8046.00,1.03
8044.00,1.03
8042.00,1.03
8040.00,1.03
8038.00,1.03
8036.00,1.03
8034.00,1.03
8032.00,1.03
8030.00,1.03
8028.00,1.03
8026.00,1.03
8024.00,1.03
8022.00,1.03
8020.00,1.03
8018.00,1.03
8016.00,1.03
8014.00,1.03
8012.00,1.03
8010.00,1.03
8008.00,1.03
8006.00,1.03
8004.00,1.04
8002.00,1.04
8000.00,1.04
7998.00,1.04
7996.00,1.04
7994.00,1.04
7992.00,1.04
7990.00,1.04
7988.00,1.03
7986.00,1.03
7984.00,1.03
7982.00,1.03
7980.00,1.03
7978.00,1.03
7976.00,1.04
7974.00,1.04
7972.00,1.03
7970.00,1.03
7968.00,1.03
7966.00,1.03
7964.00,1.03
7962.00,1.03
7960.00,1.03
7958.00,1.03
7956.00,1.04
7954.00,1.04
7952.00,1.04
7950.00,1.04
7948.00,1.03
7946.00,1.03
7944.00,1.03
7942.00,1.03
7940.00,1.03
7938.00,1.03
7936.00,1.03
7934.00,1.03
7932.00,1.03
7930.00,1.03
7928.00,1.03
7926.00,1.04
7924.00,1.04
7922.00,1.04
7920.00,1.04
7918.00,1.04
7916.00,1.04
7914.00,1.04
7912.00,1.04
7910.00,1.04
7908.00,1.03
7906.00,1.03
7904.00,1.03
7902.00,1.03
7900.00,1.03
7898.00,1.03
7896.00,1.03
7894.00,1.03
7892.00,1.03
7890.00,1.03
7888.00,1.03
7886.00,1.03
7884.00,1.03
7882.00,1.03
7880.00,1.03
7878.00,1.03
7876.00,1.03
7874.00,1.03
7872.00,1.04
7870.00,1.04
7868.00,1.04
7866.00,1.04
7864.00,1.04
7862.00,1.04
7860.00,1.04
7858.00,1.04
7856.00,1.04
7854.00,1.04
7852.00,1.04
7850.00,1.04
7848.00,1.04
7846.00,1.04
7844.00,1.04
7842.00,1.04
7840.00,1.04
7838.00,1.04
7836.00,1.04
7834.00,1.04
7832.00,1.04
7830.00,1.04
7828.00,1.04
7826.00,1.03
7824.00,1.03
7822.00,1.03
7820.00,1.03
7818.00,1.03
7816.00,1.03
7814.00,1.03
7812.00,1.03
7810.00,1.03
7808.00,1.03
7806.00,1.03
7804.00,1.03
7802.00,1.03
7800.00,1.03
7798.00,1.03
7796.00,1.03
7794.00,1.03
7792.00,1.03
7790.00,1.03
7788.00,1.03
7786.00,1.03
7784.00,1.03
7782.00,1.03
7780.00,1.03
7778.00,1.03
7776.00,1.03
7774.00,1.03
7772.00,1.03
7770.00,1.03
7768.00,1.03
7766.00,1.03
7764.00,1.03
7762.00,1.03
7760.00,1.03
7758.00,1.03
7756.00,1.02
7754.00,1.02
7752.00,1.02
7750.00,1.02
7748.00,1.02
7746.00,1.02
7744.00,1.02
7742.00,1.02
7740.00,1.02
7738.00,1.03
7736.00,1.03
7734.00,1.03
7732.00,1.03
7730.00,1.03
7728.00,1.03
7726.00,1.03
7724.00,1.03
7722.00,1.03
7720.00,1.03
7718.00,1.03
7716.00,1.03
7714.00,1.03
7712.00,1.03
7710.00,1.03
7708.00,1.03
7706.00,1.03
7704.00,1.03
7702.00,1.03
7700.00,1.04
7698.00,1.04
7696.00,1.04
7694.00,1.04
7692.00,1.04
7690.00,1.04
7688.00,1.04
7686.00,1.04
7684.00,1.04
7682.00,1.04
7680.00,1.04
7678.00,1.04
7676.00,1.04
7674.00,1.04
7672.00,1.04
7670.00,1.04
7668.00,1.04
7666.00,1.04
7664.00,1.04
7662.00,1.04
7660.00,1.04
7658.00,1.04
7656.00,1.04
7654.00,1.04
7652.00,1.04
7650.00,1.04
7648.00,1.04
7646.00,1.04
7644.00,1.04
7642.00,1.04
7640.00,1.04
7638.00,1.03
7636.00,1.03
7634.00,1.03
7632.00,1.03
7630.00,1.03
7628.00,1.03
7626.00,1.03
7624.00,1.03
7622.00,1.03
7620.00,1.03
7618.00,1.03
7616.00,1.03
7614.00,1.03
7612.00,1.03
7610.00,1.03
7608.00,1.03
7606.00,1.03
7604.00,1.03
7602.00,1.03
7600.00,1.03
7598.00,1.03
7596.00,1.02
7594.00,1.02
7592.00,1.02
7590.00,1.02
7588.00,1.02
7586.00,1.02
7584.00,1.02
7582.00,1.02
7580.00,1.03
7578.00,1.03
7576.00,1.03
7574.00,1.03
7572.00,1.03
7570.00,1.03
7568.00,1.03
7566.00,1.03
7564.00,1.03
7562.00,1.03
7560.00,1.03
7558.00,1.03
7556.00,1.03
7554.00,1.03
7552.00,1.03
7550.00,1.03
7548.00,1.04
7546.00,1.04
7544.00,1.04
7542.00,1.04
7540.00,1.04
7538.00,1.04
7536.00,1.04
7534.00,1.04
7532.00,1.03
7530.00,1.03
7528.00,1.03
7526.00,1.03
7524.00,1.03
7522.00,1.04
7520.00,1.04
7518.00,1.04
7516.00,1.04
7514.00,1.04
7512.00,1.04
7510.00,1.04
7508.00,1.04
7506.00,1.04
7504.00,1.04
7502.00,1.04
7500.00,1.04
7498.00,1.04
7496.00,1.04
7494.00,1.04
7492.00,1.04
7490.00,1.04
7488.00,1.04
7486.00,1.03
7484.00,1.03
7482.00,1.03
7480.00,1.03
7478.00,1.03
7476.00,1.03
7474.00,1.03
7472.00,1.03
7470.00,1.03
7468.00,1.03
7466.00,1.03
7464.00,1.03
7462.00,1.03
7460.00,1.03
7458.00,1.03
7456.00,1.03
7454.00,1.03
7452.00,1.03
7450.00,1.04
7448.00,1.04
7446.00,1.04
7444.00,1.04
7442.00,1.04
7440.00,1.03
7438.00,1.03
7436.00,1.03
7434.00,1.03
7432.00,1.03
7430.00,1.03
7428.00,1.02
7426.00,1.02
7424.00,1.02
7422.00,1.02
7420.00,1.02
7418.00,1.03
7416.00,1.03
7414.00,1.03
7412.00,1.03
7410.00,1.03
7408.00,1.03
7406.00,1.03
7404.00,1.03
7402.00,1.03
7400.00,1.02
7398.00,1.02
7396.00,1.02
7394.00,1.02
7392.00,1.02
7390.00,1.02
7388.00,1.02
7386.00,1.02
7384.00,1.02
7382.00,1.02
7380.00,1.02
7378.00,1.02
7376.00,1.02
7374.00,1.02
7372.00,1.02
7370.00,1.02
7368.00,1.02
7366.00,1.02
7364.00,1.02
7362.00,1.02
7360.00,1.02
7358.00,1.02
7356.00,1.02
7354.00,1.02
7352.00,1.02
7350.00,1.02
7348.00,1.02
7346.00,1.02
7344.00,1.02
7342.00,1.02
7340.00,1.01
7338.00,1.01
7336.00,1.01
7334.00,1.01
7332.00,1.01
7330.00,1.01
7328.00,1.01
7326.00,1.01
7324.00,1.01
7322.00,1.01
7320.00,1.01
7318.00,1.01
7316.00,1.01
7314.00,1.01
7312.00,1.01
7310.00,1.01
7308.00,1.01
7306.00,1.01
7304.00,1.01
7302.00,1.02
7300.00,1.02
7298.00,1.02
7296.00,1.02
7294.00,1.02
7292.00,1.02
7290.00,1.02
7288.00,1.02
7286.00,1.02
7284.00,1.02
7282.00,1.01
7280.00,1.01
7278.00,1.01
7276.00,1.01
7274.00,1.01
7272.00,1.01
7270.00,1.01
7268.00,1.01
7266.00,1.01
7264.00,1.02
7262.00,1.02
7260.00,1.02
7258.00,1.02
7256.00,1.02
7254.00,1.01
7252.00,1.01
7250.00,1.01
7248.00,1.00
7246.00,1.00
7244.00,1.00
7242.00,1.00
7240.00,1.00
7238.00,1.00
7236.00,1.00
7234.00,1.00
7232.00,1.00
7230.00,1.00
7228.00,1.00
7226.00,1.00
7224.00,1.00
7222.00,1.00
7220.00,1.00
7218.00,0.99
7216.00,0.99
7214.00,0.99
7212.00,0.99
7210.00,0.99
7208.00,0.99
7206.00,0.99
7204.00,0.99
7202.00,0.99
7200.00,0.99
7198.00,0.99
7196.00,0.99
7194.00,0.98
7192.00,0.98
7190.00,0.98
7188.00,0.98
7186.00,0.98
7184.00,0.97
7182.00,0.97
7180.00,0.97
7178.00,0.97
7176.00,0.97
7174.00,0.97
7172.00,0.97
7170.00,0.96
7168.00,0.96
7166.00,0.96
7164.00,0.96
7162.00,0.96
7160.00,0.96
7158.00,0.96
7156.00,0.96
7154.00,0.96
7152.00,0.96
7150.00,0.96
7148.00,0.96
7146.00,0.96
7144.00,0.96
7142.00,0.96
7140.00,0.95
7138.00,0.95
7136.00,0.95
7134.00,0.95
7132.00,0.95
7130.00,0.95
7128.00,0.95
7126.00,0.95
7124.00,0.95
7122.00,0.95
7120.00,0.95
7118.00,0.95
7116.00,0.95
7114.00,0.95
7112.00,0.95
7110.00,0.95
7108.00,0.95
7106.00,0.95
7104.00,0.95
7102.00,0.95
7100.00,0.94
7098.00,0.94
7096.00,0.94
7094.00,0.94
7092.00,0.94
7090.00,0.94
7088.00,0.94
7086.00,0.94
7084.00,0.94
7082.00,0.94
7080.00,0.93
7078.00,0.93
7076.00,0.93
7074.00,0.93
7072.00,0.93
7070.00,0.93
7068.00,0.93
7066.00,0.93
7064.00,0.93
7062.00,0.93
7060.00,0.93
7058.00,0.93
7056.00,0.93
7054.00,0.92
7052.00,0.92
7050.00,0.92
7048.00,0.92
7046.00,0.92
7044.00,0.92
7042.00,0.92
7040.00,0.92
7038.00,0.92
7036.00,0.92
7034.00,0.91
7032.00,0.91
7030.00,0.91
7028.00,0.91
7026.00,0.91
7024.00,0.91
7022.00,0.91
7020.00,0.92
7018.00,0.92
7016.00,0.92
7014.00,0.92
7012.00,0.92
7010.00,0.92
7008.00,0.92
7006.00,0.92
7004.00,0.92
7002.00,0.92
7000.00,0.92
6998.00,0.92
6996.00,0.92
6994.00,0.92
6992.00,0.92
6990.00,0.92
6988.00,0.91
6986.00,0.91
6984.00,0.91
6982.00,0.91
6980.00,0.91
6978.00,0.91
6976.00,0.91
6974.00,0.91
6972.00,0.91
6970.00,0.91
6968.00,0.91
6966.00,0.91
6964.00,0.91
6962.00,0.91
6960.00,0.91
6958.00,0.91
6956.00,0.91
6954.00,0.91
6952.00,0.91
6950.00,0.91
6948.00,0.91
6946.00,0.91
6944.00,0.91
6942.00,0.91
6940.00,0.91
6938.00,0.91
6936.00,0.91
6934.00,0.91
6932.00,0.91
6930.00,0.91
6928.00,0.90
6926.00,0.90
6924.00,0.90
6922.00,0.90
6920.00,0.90
6918.00,0.90
6916.00,0.90
6914.00,0.90
6912.00,0.90
6910.00,0.90
6908.00,0.90
6906.00,0.90
6904.00,0.90
6902.00,0.90
6900.00,0.90
6898.00,0.90
6896.00,0.90
6894.00,0.90
6892.00,0.90
6890.00,0.89
6888.00,0.89
6886.00,0.89
6884.00,0.89
6882.00,0.89
6880.00,0.89
6878.00,0.89
6876.00,0.89
6874.00,0.89
6872.00,0.89
6870.00,0.89
6868.00,0.90
6866.00,0.90
6864.00,0.90
6862.00,0.90
6860.00,0.90
6858.00,0.90
6856.00,0.90
6854.00,0.90
6852.00,0.90
6850.00,0.90
6848.00,0.90
6846.00,0.90
6844.00,0.90
6842.00,0.90
6840.00,0.90
6838.00,0.90
6836.00,0.90
6834.00,0.90
6832.00,0.90
6830.00,0.90
6828.00,0.90
6826.00,0.90
6824.00,0.90
6822.00,0.89
6820.00,0.89
6818.00,0.89
6816.00,0.89
6814.00,0.89
6812.00,0.89
6810.00,0.90
6808.00,0.90
6806.00,0.90
6804.00,0.90
6802.00,0.90
6800.00,0.90
6798.00,0.90
6796.00,0.90
6794.00,0.90
6792.00,0.90
6790.00,0.90
6788.00,0.90
6786.00,0.90
6784.00,0.90
6782.00,0.90
6780.00,0.90
6778.00,0.91
6776.00,0.91
6774.00,0.91
6772.00,0.91
6770.00,0.91
6768.00,0.91
6766.00,0.91
6764.00,0.91
6762.00,0.91
6760.00,0.91
6758.00,0.91
6756.00,0.91
6754.00,0.91
6752.00,0.91
6750.00,0.91
6748.00,0.91
6746.00,0.91
6744.00,0.91
6742.00,0.91
6740.00,0.91
6738.00,0.91
6736.00,0.91
6734.00,0.91
6732.00,0.91
6730.00,0.91
6728.00,0.91
6726.00,0.91
6724.00,0.91
6722.00,0.91
6720.00,0.91
6718.00,0.92
6716.00,0.92
6714.00,0.92
6712.00,0.92
6710.00,0.92
6708.00,0.92
6706.00,0.92
6704.00,0.92
6702.00,0.92
6700.00,0.92
6698.00,0.92
6696.00,0.93
6694.00,0.93
6692.00,0.93
6690.00,0.93
6688.00,0.93
6686.00,0.93
6684.00,0.93
6682.00,0.93
6680.00,0.93
6678.00,0.93
6676.00,0.93
6674.00,0.93
6672.00,0.93
6670.00,0.93
6668.00,0.93
6666.00,0.93
6664.00,0.93
6662.00,0.93
6660.00,0.93
6658.00,0.93
6656.00,0.93
6654.00,0.93
6652.00,0.93
6650.00,0.93
6648.00,0.93
6646.00,0.93
6644.00,0.93
6642.00,0.93
6640.00,0.93
6638.00,0.93
6636.00,0.93
6634.00,0.93
6632.00,0.93
6630.00,0.93
6628.00,0.93
6626.00,0.94
6624.00,0.94
6622.00,0.94
6620.00,0.94
6618.00,0.94
6616.00,0.94
6614.00,0.94
6612.00,0.94
6610.00,0.94
6608.00,0.94
6606.00,0.95
6604.00,0.95
6602.00,0.95
6600.00,0.95
6598.00,0.95
6596.00,0.95
6594.00,0.95
6592.00,0.95
6590.00,0.95
6588.00,0.95
6586.00,0.95
6584.00,0.95
6582.00,0.95
6580.00,0.95
6578.00,0.95
6576.00,0.95
6574.00,0.95
6572.00,0.95
6570.00,0.95
6568.00,0.95
6566.00,0.95
6564.00,0.95
6562.00,0.95
6560.00,0.95
6558.00,0.95
6556.00,0.95
6554.00,0.95
6552.00,0.95
6550.00,0.95
6548.00,0.95
6546.00,0.95
6544.00,0.95
6542.00,0.95
6540.00,0.95
6538.00,0.95
6536.00,0.95
6534.00,0.95
6532.00,0.95
6530.00,0.96
6528.00,0.96
6526.00,0.96
6524.00,0.96
6522.00,0.96
6520.00,0.96
6518.00,0.96
6516.00,0.96
6514.00,0.96
6512.00,0.96
6510.00,0.96
6508.00,0.96
6506.00,0.96
6504.00,0.96
6502.00,0.96
6500.00,0.96
6498.00,0.96
6496.00,0.96
6494.00,0.96
6492.00,0.96
6490.00,0.96
6488.00,0.96
6486.00,0.96
6484.00,0.96
6482.00,0.96
6480.00,0.96
6478.00,0.96
6476.00,0.96
6474.00,0.97
6472.00,0.97
6470.00,0.97
6468.00,0.97
6466.00,0.97
6464.00,0.97
6462.00,0.97
6460.00,0.97
6458.00,0.97
6456.00,0.97
6454.00,0.97
6452.00,0.97
6450.00,0.97
6448.00,0.97
6446.00,0.97
6444.00,0.97
6442.00,0.97
6440.00,0.97
6438.00,0.97
6436.00,0.97
6434.00,0.97
6432.00,0.97
6430.00,0.97
6428.00,0.97
6426.00,0.97
6424.00,0.97
6422.00,0.97
6420.00,0.97
6418.00,0.97
6416.00,0.97
6414.00,0.97
6412.00,0.97
6410.00,0.97
6408.00,0.97
6406.00,0.97
6404.00,0.97
6402.00,0.97
6400.00,0.97
6398.00,0.97
6396.00,0.97
6394.00,0.97
6392.00,0.97
6390.00,0.97
6388.00,0.97
6386.00,0.97
6384.00,0.97
6382.00,0.97
6380.00,0.97
6378.00,0.97
6376.00,0.97
6374.00,0.97
6372.00,0.97
6370.00,0.97
6368.00,0.97
6366.00,0.97
6364.00,0.97
6362.00,0.97
6360.00,0.98
6358.00,0.98
6356.00,0.98
6354.00,0.98
6352.00,0.98
6350.00,0.98
6348.00,0.98
6346.00,0.98
6344.00,0.98
6342.00,0.98
6340.00,0.98
6338.00,0.98
6336.00,0.98
6334.00,0.99
6332.00,0.99
6330.00,0.99
6328.00,0.98
6326.00,0.98
6324.00,0.98
6322.00,0.98
6320.00,0.98
6318.00,0.98
6316.00,0.98
6314.00,0.98
6312.00,0.98
6310.00,0.98
6308.00,0.98
6306.00,0.98
6304.00,0.98
6302.00,0.98
6300.00,0.98
6298.00,0.98
6296.00,0.98
6294.00,0.98
6292.00,0.98
6290.00,0.98
6288.00,0.99
6286.00,0.99
6284.00,0.99
6282.00,0.99
6280.00,0.99
6278.00,0.99
6276.00,0.99
6274.00,0.99
6272.00,0.99
6270.00,0.99
6268.00,0.99
6266.00,0.99
6264.00,0.99
6262.00,0.99
6260.00,0.99
6258.00,0.99
6256.00,0.99
6254.00,0.99
6252.00,0.99
6250.00,0.99
6248.00,0.99
6246.00,0.99
6244.00,0.99
6242.00,0.99
6240.00,0.99
6238.00,1.00
6236.00,1.00
6234.00,1.00
6232.00,1.00
6230.00,1.00
6228.00,1.00
6226.00,1.00
6224.00,1.00
6222.00,1.00
6220.00,1.00
6218.00,1.00
6216.00,1.00
6214.00,1.00
6212.00,1.00
6210.00,1.00
6208.00,1.00
6206.00,1.00
6204.00,1.00
6202.00,1.00
6200.00,1.00
6198.00,1.00
6196.00,1.00
6194.00,1.00
6192.00,1.00
6190.00,1.00
6188.00,1.00
6186.00,1.00
6184.00,1.00
6182.00,1.00
6180.00,1.00
6178.00,1.00
6176.00,1.00
6174.00,1.00
6172.00,1.00
6170.00,1.00
6168.00,1.00
6166.00,1.00
6164.00,1.00
6162.00,1.00
6160.00,1.01
6158.00,1.01
6156.00,1.01
6154.00,1.01
6152.00,1.01
6150.00,1.01
6148.00,1.01
6146.00,1.01
6144.00,1.01
6142.00,1.01
6140.00,1.01
6138.00,1.01
6136.00,1.01
6134.00,1.01
6132.00,1.01
6130.00,1.01
6128.00,1.01
6126.00,1.01
6124.00,1.01
6122.00,1.01
6120.00,1.01
6118.00,1.01
6116.00,1.01
6114.00,1.01
6112.00,1.01
6110.00,1.01
6108.00,1.01
6106.00,1.01
6104.00,1.01
6102.00,1.02
6100.00,1.02
6098.00,1.02
6096.00,1.02
6094.00,1.02
6092.00,1.02
6090.00,1.02
6088.00,1.02
6086.00,1.02
6084.00,1.02
6082.00,1.02
6080.00,1.02
6078.00,1.02
6076.00,1.02
6074.00,1.02
6072.00,1.02
6070.00,1.01
6068.00,1.01
6066.00,1.02
6064.00,1.02
6062.00,1.02
6060.00,1.02
6058.00,1.02
6056.00,1.02
6054.00,1.02
6052.00,1.02
6050.00,1.02
6048.00,1.02
6046.00,1.02
6044.00,1.02
6042.00,1.02
6040.00,1.02
6038.00,1.02
6036.00,1.02
6034.00,1.02
6032.00,1.02
6030.00,1.02
6028.00,1.02
6026.00,1.02
6024.00,1.02
6022.00,1.02
6020.00,1.02
6018.00,1.02
6016.00,1.02
6014.00,1.02
6012.00,1.03
6010.00,1.03
6008.00,1.03
6006.00,1.03
6004.00,1.03
6002.00,1.03
6000.00,1.03
5998.00,1.03
5996.00,1.03
5994.00,1.02
5992.00,1.02
5990.00,1.02
5988.00,1.02
5986.00,1.02
5984.00,1.02
5982.00,1.02
5980.00,1.02
5978.00,1.02
5976.00,1.02
5974.00,1.02
5972.00,1.02
5970.00,1.02
5968.00,1.01
5966.00,1.01
5964.00,1.01
5962.00,1.01
5960.00,1.01
5958.00,1.00
5956.00,1.00
5954.00,1.00
5952.00,1.00
5950.00,1.00
5948.00,1.00
5946.00,1.00
5944.00,1.00
5942.00,0.99
5940.00,0.99
5938.00,0.99
5936.00,0.99
5934.00,0.99
5932.00,0.99
5930.00,0.99
5928.00,0.99
5926.00,0.99
5924.00,0.99
5922.00,0.99
5920.00,0.99
5918.00,0.99
5916.00,0.99
5914.00,0.99
5912.00,0.99
5910.00,0.99
5908.00,0.99
5906.00,0.99
5904.00,0.99
5902.00,0.99
5900.00,0.99
5898.00,0.99
5896.00,0.99
5894.00,0.99
5892.00,0.99
5890.00,0.99
5888.00,0.99
5886.00,0.99
5884.00,0.99
5882.00,0.99
5880.00,0.99
5878.00,1.00
5876.00,1.00
5874.00,1.00
5872.00,1.00
5870.00,1.00
5868.00,1.00
5866.00,1.00
5864.00,1.00
5862.00,1.00
5860.00,1.00
5858.00,1.00
5856.00,1.00
5854.00,1.00
5852.00,1.00
5850.00,1.00
5848.00,1.00
5846.00,1.00
5844.00,1.00
5842.00,1.00
5840.00,1.00
5838.00,1.00
5836.00,1.00
5834.00,1.00
5832.00,1.00
5830.00,1.00
5828.00,1.00
5826.00,1.00
5824.00,1.01
5822.00,1.01
5820.00,1.00
5818.00,1.00
5816.00,1.00
5814.00,1.00
5812.00,1.00
5810.00,1.00
5808.00,1.00
5806.00,1.00
5804.00,1.00
5802.00,1.01
5800.00,1.01
5798.00,1.01
5796.00,1.01
5794.00,1.01
5792.00,1.01
5790.00,1.00
5788.00,1.00
5786.00,1.00
5784.00,1.00
5782.00,1.00
5780.00,1.00
5778.00,1.00
5776.00,1.00
5774.00,1.00
5772.00,1.00
5770.00,1.00
5768.00,1.00
5766.00,1.00
5764.00,1.00
5762.00,1.00
5760.00,1.00
5758.00,1.00
5756.00,1.00
5754.00,1.01
5752.00,1.01
5750.00,1.01
5748.00,1.01
5746.00,1.01
5744.00,1.01
5742.00,1.01
5740.00,1.01
5738.00,1.01
5736.00,1.01
5734.00,1.01
5732.00,1.01
5730.00,1.01
5728.00,1.01
5726.00,1.01
5724.00,1.01
5722.00,1.01
5720.00,1.01
5718.00,1.01
5716.00,1.01
5714.00,1.01
5712.00,1.02
5710.00,1.02
5708.00,1.02
5706.00,1.02
5704.00,1.02
5702.00,1.02
5700.00,1.02
5698.00,1.01
5696.00,1.01
5694.00,1.01
5692.00,1.01
5690.00,1.01
5688.00,1.01
5686.00,1.01
5684.00,1.01
5682.00,1.01
5680.00,1.01
5678.00,1.01
5676.00,1.01
5674.00,1.01
5672.00,1.01
5670.00,1.01
5668.00,1.01
5666.00,1.01
5664.00,1.01
5662.00,1.01
5660.00,1.01
5658.00,1.01
5656.00,1.01
5654.00,1.01
5652.00,1.01
5650.00,1.01
5648.00,1.01
5646.00,1.01
5644.00,1.02
5642.00,1.02
5640.00,1.02
5638.00,1.02
5636.00,1.02
5634.00,1.02
5632.00,1.02
5630.00,1.02
5628.00,1.02
5626.00,1.02
5624.00,1.02
5622.00,1.02
5620.00,1.02
5618.00,1.02
5616.00,1.02
5614.00,1.02
5612.00,1.02
5610.00,1.02
5608.00,1.02
5606.00,1.02
5604.00,1.02
5602.00,1.03
5600.00,1.03
5598.00,1.03
5596.00,1.03
5594.00,1.03
5592.00,1.03
5590.00,1.03
5588.00,1.03
5586.00,1.03
5584.00,1.03
5582.00,1.03
5580.00,1.03
5578.00,1.03
5576.00,1.03
5574.00,1.03
5572.00,1.03
5570.00,1.03
5568.00,1.03
5566.00,1.03
5564.00,1.03
5562.00,1.03
5560.00,1.03
5558.00,1.03
5556.00,1.03
5554.00,1.03
5552.00,1.03
5550.00,1.03
5548.00,1.04
5546.00,1.04
5544.00,1.04
5542.00,1.04
5540.00,1.04
5538.00,1.04
5536.00,1.04
5534.00,1.04
5532.00,1.04
5530.00,1.04
5528.00,1.04
5526.00,1.04
5524.00,1.04
5522.00,1.04
5520.00,1.04
5518.00,1.04
5516.00,1.04
5514.00,1.04
5512.00,1.04
5510.00,1.04
5508.00,1.04
5506.00,1.04
5504.00,1.04
5502.00,1.04
5500.00,1.04
5498.00,1.04
5496.00,1.04
5494.00,1.04
5492.00,1.04
5490.00,1.04
5488.00,1.04
5486.00,1.04
5484.00,1.04
5482.00,1.04
5480.00,1.04
5478.00,1.04
5476.00,1.04
5474.00,1.04
5472.00,1.04
5470.00,1.04
5468.00,1.04
5466.00,1.04
5464.00,1.04
5462.00,1.04
5460.00,1.04
5458.00,1.04
5456.00,1.04
5454.00,1.04
5452.00,1.04
5450.00,1.04
5448.00,1.04
5446.00,1.04
5444.00,1.04
5442.00,1.04
5440.00,1.04
5438.00,1.04
5436.00,1.04
5434.00,1.04
5432.00,1.04
5430.00,1.04
5428.00,1.04
5426.00,1.04
5424.00,1.04
5422.00,1.04
5420.00,1.04
5418.00,1.04
5416.00,1.04
5414.00,1.04
5412.00,1.04
5410.00,1.04
5408.00,1.04
5406.00,1.04
5404.00,1.04
5402.00,1.04
5400.00,1.04
5398.00,1.04
5396.00,1.04
5394.00,1.04
5392.00,1.04
5390.00,1.04
5388.00,1.04
5386.00,1.04
5384.00,1.04
5382.00,1.04
5380.00,1.04
5378.00,1.04
5376.00,1.04
5374.00,1.04
5372.00,1.04
5370.00,1.04
5368.00,1.04
5366.00,1.04
5364.00,1.03
5362.00,1.03
5360.00,1.03
5358.00,1.03
5356.00,1.02
5354.00,1.02
5352.00,1.02
5350.00,1.02
5348.00,1.02
5346.00,1.01
5344.00,1.01
5342.00,1.01
5340.00,1.01
5338.00,1.01
5336.00,1.00
5334.00,1.00
5332.00,1.00
5330.00,0.99
5328.00,0.99
5326.00,0.99
5324.00,0.99
5322.00,0.98
5320.00,0.98
5318.00,0.97
5316.00,0.97
5314.00,0.97
5312.00,0.96
5310.00,0.96
5308.00,0.95
5306.00,0.94
5304.00,0.94
5302.00,0.93
5300.00,0.93
5298.00,0.92
5296.00,0.92
5294.00,0.91
5292.00,0.91
5290.00,0.90
5288.00,0.90
5286.00,0.90
5284.00,0.89
5282.00,0.89
5280.00,0.88
5278.00,0.88
5276.00,0.88
5274.00,0.87
5272.00,0.87
5270.00,0.87
5268.00,0.86
5266.00,0.86
5264.00,0.86
5262.00,0.86
5260.00,0.85
5258.00,0.85
5256.00,0.85
5254.00,0.84
5252.00,0.84
5250.00,0.84
5248.00,0.84
5246.00,0.83
5244.00,0.83
5242.00,0.83
5240.00,0.83
5238.00,0.83
5236.00,0.82
5234.00,0.82
5232.00,0.82
5230.00,0.82
5228.00,0.81
5226.00,0.81
5224.00,0.81
5222.00,0.81
5220.00,0.80
5218.00,0.80
5216.00,0.80
5214.00,0.80
5212.00,0.80
5210.00,0.79
5208.00,0.79
5206.00,0.79
5204.00,0.79
5202.00,0.79
5200.00,0.78
5198.00,0.78
5196.00,0.78
5194.00,0.78
5192.00,0.78
5190.00,0.78
5188.00,0.78
5186.00,0.78
5184.00,0.78
5182.00,0.78
5180.00,0.78
5178.00,0.78
5176.00,0.78
5174.00,0.78
5172.00,0.78
5170.00,0.78
5168.00,0.78
5166.00,0.78
5164.00,0.78
5162.00,0.78
5160.00,0.78
5158.00,0.78
5156.00,0.78
5154.00,0.78
5152.00,0.78
5150.00,0.78
5148.00,0.78
5146.00,0.79
5144.00,0.79
5142.00,0.79
5140.00,0.79
5138.00,0.79
5136.00,0.79
5134.00,0.79
5132.00,0.80
5130.00,0.80
5128.00,0.80
5126.00,0.80
5124.00,0.80
5122.00,0.80
5120.00,0.80
5118.00,0.80
5116.00,0.81
5114.00,0.81
5112.00,0.81
5110.00,0.81
5108.00,0.81
5106.00,0.81
5104.00,0.81
5102.00,0.81
5100.00,0.81
5098.00,0.82
5096.00,0.82
5094.00,0.82
5092.00,0.82
5090.00,0.82
5088.00,0.83
5086.00,0.83
5084.00,0.83
5082.00,0.83
5080.00,0.83
5078.00,0.84
5076.00,0.84
5074.00,0.84
5072.00,0.84
5070.00,0.84
5068.00,0.85
5066.00,0.85
5064.00,0.85
5062.00,0.85
5060.00,0.85
5058.00,0.85
5056.00,0.85
5054.00,0.86
5052.00,0.86
5050.00,0.86
5048.00,0.86
5046.00,0.86
5044.00,0.86
5042.00,0.87
5040.00,0.87
5038.00,0.87
5036.00,0.87
5034.00,0.87
5032.00,0.87
5030.00,0.88
5028.00,0.88
5026.00,0.88
5024.00,0.88
5022.00,0.88
5020.00,0.88
5018.00,0.89
5016.00,0.89
5014.00,0.89
5012.00,0.89
5010.00,0.89
5008.00,0.89
5006.00,0.90
5004.00,0.90
5002.00,0.90
5000.00,0.90
4998.00,0.90
4996.00,0.90
4994.00,0.90
4992.00,0.91
4990.00,0.91
4988.00,0.91
4986.00,0.91
4984.00,0.91
4982.00,0.91
4980.00,0.91
4978.00,0.91
4976.00,0.91
4974.00,0.91
4972.00,0.92
4970.00,0.92
4968.00,0.92
4966.00,0.92
4964.00,0.92
4962.00,0.92
4960.00,0.92
4958.00,0.92
4956.00,0.92
4954.00,0.92
4952.00,0.93
4950.00,0.93
4948.00,0.93
4946.00,0.93
4944.00,0.93
4942.00,0.93
4940.00,0.93
4938.00,0.93
4936.00,0.94
4934.00,0.94
4932.00,0.94
4930.00,0.94
4928.00,0.94
4926.00,0.94
4924.00,0.94
4922.00,0.94
4920.00,0.94
4918.00,0.94
4916.00,0.94
4914.00,0.94
4912.00,0.94
4910.00,0.94
4908.00,0.94
4906.00,0.94
4904.00,0.94
4902.00,0.95
4900.00,0.95
4898.00,0.95
4896.00,0.95
4894.00,0.95
4892.00,0.95
4890.00,0.95
4888.00,0.95
4886.00,0.95
4884.00,0.95
4882.00,0.95
4880.00,0.95
4878.00,0.95
4876.00,0.95
4874.00,0.95
4872.00,0.95
4870.00,0.95
4868.00,0.95
4866.00,0.95
4864.00,0.95
4862.00,0.95
4860.00,0.95
4858.00,0.95
4856.00,0.95
4854.00,0.96
4852.00,0.96
4850.00,0.96
4848.00,0.96
4846.00,0.96
4844.00,0.96
4842.00,0.96
4840.00,0.96
4838.00,0.96
4836.00,0.96
4834.00,0.96
4832.00,0.96
4830.00,0.96
4828.00,0.96
4826.00,0.96
4824.00,0.96
4822.00,0.96
4820.00,0.96
4818.00,0.97
4816.00,0.97
4814.00,0.97
4812.00,0.97
4810.00,0.97
4808.00,0.97
4806.00,0.97
4804.00,0.97
4802.00,0.97
4800.00,0.97
4798.00,0.97
4796.00,0.98
4794.00,0.98
4792.00,0.98
4790.00,0.98
4788.00,0.98
4786.00,0.98
4784.00,0.98
4782.00,0.98
4780.00,0.99
4778.00,0.99
4776.00,0.99
4774.00,0.99
4772.00,0.99
4770.00,0.99
4768.00,0.99
4766.00,0.99
4764.00,0.99
4762.00,0.99
4760.00,0.99
4758.00,0.99
4756.00,0.99
4754.00,0.99
4752.00,0.99
4750.00,0.99
4748.00,0.99
4746.00,0.99
4744.00,0.99
4742.00,1.00
4740.00,1.00
4738.00,1.00
4736.00,1.00
4734.00,1.00
4732.00,1.00
4730.00,1.00
4728.00,1.00
4726.00,1.00
4724.00,1.00
4722.00,1.01
4720.00,1.01
4718.00,1.01
4716.00,1.01
4714.00,1.01
4712.00,1.01
4710.00,1.01
4708.00,1.01
4706.00,1.01
4704.00,1.01
4702.00,1.01
4700.00,1.01
4698.00,1.01
4696.00,1.01
4694.00,1.01
4692.00,1.01
4690.00,1.01
4688.00,1.01
4686.00,1.01
4684.00,1.01
4682.00,1.02
4680.00,1.02
4678.00,1.02
4676.00,1.02
4674.00,1.02
4672.00,1.02
4670.00,1.02
4668.00,1.02
4666.00,1.02
4664.00,1.02
4662.00,1.02
4660.00,1.02
4658.00,1.02
4656.00,1.02
4654.00,1.02
4652.00,1.03
4650.00,1.03
4648.00,1.03
4646.00,1.03
4644.00,1.03
4642.00,1.03
4640.00,1.03
4638.00,1.03
4636.00,1.03
4634.00,1.03
4632.00,1.03
4630.00,1.03
4628.00,1.03
4626.00,1.03
4624.00,1.03
4622.00,1.03
4620.00,1.03
4618.00,1.04
4616.00,1.04
4614.00,1.04
4612.00,1.04
4610.00,1.04
4608.00,1.04
4606.00,1.04
4604.00,1.04
4602.00,1.04
4600.00,1.03
4598.00,1.03
4596.00,1.03
4594.00,1.04
4592.00,1.04
4590.00,1.04
4588.00,1.04
4586.00,1.04
4584.00,1.04
4582.00,1.04
4580.00,1.04
4578.00,1.04
4576.00,1.04
4574.00,1.04
4572.00,1.04
4570.00,1.04
4568.00,1.04
4566.00,1.04
4564.00,1.04
4562.00,1.04
4560.00,1.04
4558.00,1.04
4556.00,1.04
4554.00,1.04
4552.00,1.04
4550.00,1.04
4548.00,1.04
4546.00,1.04
4544.00,1.04
4542.00,1.04
4540.00,1.04
4538.00,1.04
4536.00,1.04
4534.00,1.04
4532.00,1.04
4530.00,1.04
4528.00,1.04
4526.00,1.04
4524.00,1.04
4522.00,1.04
4520.00,1.04
4518.00,1.04
4516.00,1.04
4514.00,1.04
4512.00,1.04
4510.00,1.04
4508.00,1.04
4506.00,1.04
4504.00,1.04
4502.00,1.04
4500.00,1.04
4498.00,1.04
4496.00,1.04
4494.00,1.04
4492.00,1.04
4490.00,1.04
4488.00,1.04
4486.00,1.04
4484.00,1.04
4482.00,1.04
4480.00,1.04
4478.00,1.04
4476.00,1.04
4474.00,1.04
4472.00,1.04
4470.00,1.04
4468.00,1.04
4466.00,1.04
4464.00,1.04
4462.00,1.04
4460.00,1.04
4458.00,1.03
4456.00,1.03
4454.00,1.03
4452.00,1.03
4450.00,1.03
4448.00,1.02
4446.00,1.02
4444.00,1.02
4442.00,1.01
4440.00,1.01
4438.00,1.00
4436.00,1.00
4434.00,0.99
4432.00,0.99
4430.00,0.98
4428.00,0.97
4426.00,0.97
4424.00,0.97
4422.00,0.96
4420.00,0.96
4418.00,0.95
4416.00,0.95
4414.00,0.95
4412.00,0.95
4410.00,0.94
4408.00,0.94
4406.00,0.94
4404.00,0.94
4402.00,0.95
4400.00,0.95
4398.00,0.95
4396.00,0.95
4394.00,0.96
4392.00,0.96
4390.00,0.96
4388.00,0.97
4386.00,0.97
4384.00,0.98
4382.00,0.98
4380.00,0.98
4378.00,0.99
4376.00,0.99
4374.00,0.99
4372.00,0.99
4370.00,0.99
4368.00,0.99
4366.00,0.99
4364.00,0.99
4362.00,0.98
4360.00,0.98
4358.00,0.98
4356.00,0.97
4354.00,0.97
4352.00,0.97
4350.00,0.96
4348.00,0.96
4346.00,0.96
4344.00,0.96
4342.00,0.96
4340.00,0.96
4338.00,0.96
4336.00,0.96
4334.00,0.96
4332.00,0.96
4330.00,0.96
4328.00,0.97
4326.00,0.97
4324.00,0.98
4322.00,0.98
4320.00,0.99
4318.00,0.99
4316.00,1.00
4314.00,1.00
4312.00,1.01
4310.00,1.01
4308.00,1.02
4306.00,1.02
4304.00,1.02
4302.00,1.02
4300.00,1.03
4298.00,1.03
4296.00,1.03
4294.00,1.03
4292.00,1.03
4290.00,1.03
4288.00,1.03
4286.00,1.03
4284.00,1.04
4282.00,1.04
4280.00,1.04
4278.00,1.04
4276.00,1.04
4274.00,1.03
4272.00,1.03
4270.00,1.03
4268.00,1.03
4266.00,1.03
4264.00,1.02
4262.00,1.02
4260.00,1.02
4258.00,1.02
4256.00,1.02
4254.00,1.02
4252.00,1.02
4250.00,1.02
4248.00,1.02
4246.00,1.02
4244.00,1.02
4242.00,1.03
4240.00,1.03
4238.00,1.03
4236.00,1.03
4234.00,1.03
4232.00,1.03
4230.00,1.03
4228.00,1.04
4226.00,1.04
4224.00,1.04
4222.00,1.04
4220.00,1.04
4218.00,1.04
4216.00,1.04
4214.00,1.04
4212.00,1.04
4210.00,1.04
4208.00,1.04
4206.00,1.04
4204.00,1.04
4202.00,1.04
4200.00,1.04
4198.00,1.04
4196.00,1.04
4194.00,1.04
4192.00,1.04
4190.00,1.04
4188.00,1.04
4186.00,1.04
4184.00,1.04
4182.00,1.04
4180.00,1.03
4178.00,1.03
4176.00,1.03
4174.00,1.03
4172.00,1.03
4170.00,1.03
4168.00,1.03
4166.00,1.03
4164.00,1.03
4162.00,1.03
4160.00,1.03
4158.00,1.03
4156.00,1.03
4154.00,1.03
4152.00,1.03
4150.00,1.03
4148.00,1.03
4146.00,1.03
4144.00,1.03
4142.00,1.03
4140.00,1.03
4138.00,1.03
4136.00,1.03
4134.00,1.03
4132.00,1.03
4130.00,1.03
4128.00,1.03
4126.00,1.03
4124.00,1.03
4122.00,1.03
4120.00,1.03
4118.00,1.03
4116.00,1.03
4114.00,1.03
4112.00,1.03
4110.00,1.03
4108.00,1.03
4106.00,1.02
4104.00,1.02
4102.00,1.02
4100.00,1.02
4098.00,1.02
4096.00,1.02
4094.00,1.02
4092.00,1.02
4090.00,1.02
4088.00,1.02
4086.00,1.02
4084.00,1.01
4082.00,1.01
4080.00,1.01
4078.00,1.01
4076.00,1.00
4074.00,1.00
4072.00,1.00
4070.00,1.00
4068.00,1.00
4066.00,1.00
4064.00,1.00
4062.00,1.00
4060.00,1.01
4058.00,1.01
4056.00,1.01
4054.00,1.01
4052.00,1.01
4050.00,1.01
4048.00,1.01
4046.00,1.01
4044.00,1.01
4042.00,1.01
4040.00,1.01
4038.00,1.01
4036.00,1.01
4034.00,1.01
4032.00,1.01
4030.00,1.01
4028.00,1.01
4026.00,1.01
4024.00,1.01
4022.00,1.01
4020.00,1.01
4018.00,1.02
4016.00,1.02
4014.00,1.02
4012.00,1.03
4010.00,1.03
4008.00,1.03
4006.00,1.04
4004.00,1.04
4002.00,1.04
4000.00,1.05
