创建为新数据集,样品 659 用户 Administrator 日期 星期四, 七月 25 2019
cm-1,%T
10000.00,1.21
9999.00,1.21
9998.00,1.21
9997.00,1.20
9996.00,1.20
9995.00,1.20
9994.00,1.20
9993.00,1.20
9992.00,1.20
9991.00,1.20
9990.00,1.20
9989.00,1.21
9988.00,1.21
9987.00,1.21
9986.00,1.22
9985.00,1.22
9984.00,1.22
9983.00,1.22
9982.00,1.22
9981.00,1.22
9980.00,1.22
9979.00,1.22
9978.00,1.21
9977.00,1.20
9976.00,1.19
9975.00,1.19
9974.00,1.18
9973.00,1.16
9972.00,1.15
9971.00,1.14
9970.00,1.12
9969.00,1.11
9968.00,1.09
9967.00,1.08
9966.00,1.06
9965.00,1.05
9964.00,1.04
9963.00,1.03
9962.00,1.03
9961.00,1.02
9960.00,1.02
9959.00,1.03
9958.00,1.03
9957.00,1.03
9956.00,1.04
9955.00,1.05
9954.00,1.05
9953.00,1.06
9952.00,1.07
9951.00,1.08
9950.00,1.09
9949.00,1.09
9948.00,1.09
9947.00,1.10
9946.00,1.09
9945.00,1.09
9944.00,1.08
9943.00,1.07
9942.00,1.05
9941.00,1.04
9940.00,1.02
9939.00,1.00
9938.00,0.98
9937.00,0.96
9936.00,0.94
9935.00,0.92
9934.00,0.90
9933.00,0.89
9932.00,0.88
9931.00,0.87
9930.00,0.86
9929.00,0.85
9928.00,0.85
9927.00,0.85
9926.00,0.86
9925.00,0.86
9924.00,0.87
9923.00,0.88
9922.00,0.89
9921.00,0.90
9920.00,0.91
9919.00,0.92
9918.00,0.93
9917.00,0.94
9916.00,0.95
9915.00,0.95
9914.00,0.96
9913.00,0.96
9912.00,0.96
9911.00,0.97
9910.00,0.97
9909.00,0.97
9908.00,0.97
9907.00,0.97
9906.00,0.97
9905.00,0.97
9904.00,0.98
9903.00,0.98
9902.00,0.98
9901.00,0.98
9900.00,0.98
9899.00,0.99
9898.00,0.99
9897.00,0.99
9896.00,1.00
9895.00,1.00
9894.00,1.00
9893.00,1.00
9892.00,1.00
9891.00,1.00
9890.00,1.00
9889.00,0.99
9888.00,0.99
9887.00,0.99
9886.00,0.99
9885.00,0.98
9884.00,0.98
9883.00,0.97
9882.00,0.97
9881.00,0.97
9880.00,0.96
9879.00,0.96
9878.00,0.96
9877.00,0.95
9876.00,0.95
9875.00,0.95
9874.00,0.94
9873.00,0.94
9872.00,0.93
9871.00,0.93
9870.00,0.92
9869.00,0.91
9868.00,0.90
9867.00,0.89
9866.00,0.88
9865.00,0.88
9864.00,0.87
9863.00,0.86
9862.00,0.85
9861.00,0.85
9860.00,0.84
9859.00,0.84
9858.00,0.84
9857.00,0.84
9856.00,0.84
9855.00,0.84
9854.00,0.84
9853.00,0.85
9852.00,0.85
9851.00,0.86
9850.00,0.87
9849.00,0.88
9848.00,0.89
9847.00,0.90
9846.00,0.91
9845.00,0.92
9844.00,0.92
9843.00,0.93
9842.00,0.93
9841.00,0.93
9840.00,0.94
9839.00,0.94
9838.00,0.94
9837.00,0.94
9836.00,0.94
9835.00,0.95
9834.00,0.95
9833.00,0.95
9832.00,0.94
9831.00,0.94
9830.00,0.94
9829.00,0.94
9828.00,0.94
9827.00,0.94
9826.00,0.94
9825.00,0.94
9824.00,0.94
9823.00,0.94
9822.00,0.94
9821.00,0.94
9820.00,0.94
9819.00,0.94
9818.00,0.95
9817.00,0.95
9816.00,0.95
9815.00,0.95
9814.00,0.96
9813.00,0.96
9812.00,0.96
9811.00,0.97
9810.00,0.97
9809.00,0.97
9808.00,0.98
9807.00,0.98
9806.00,0.98
9805.00,0.98
9804.00,0.98
9803.00,0.98
9802.00,0.98
9801.00,0.98
9800.00,0.98
9799.00,0.97
9798.00,0.97
9797.00,0.97
9796.00,0.97
9795.00,0.97
9794.00,0.97
9793.00,0.97
9792.00,0.97
9791.00,0.97
9790.00,0.97
9789.00,0.97
9788.00,0.97
9787.00,0.97
9786.00,0.97
9785.00,0.97
9784.00,0.97
9783.00,0.97
9782.00,0.97
9781.00,0.97
9780.00,0.97
9779.00,0.97
9778.00,0.97
9777.00,0.97
9776.00,0.97
9775.00,0.97
9774.00,0.97
9773.00,0.97
9772.00,0.97
9771.00,0.97
9770.00,0.97
9769.00,0.97
9768.00,0.98
9767.00,0.98
9766.00,0.98
9765.00,0.98
9764.00,0.99
9763.00,0.99
9762.00,0.99
9761.00,1.00
9760.00,1.00
9759.00,1.00
9758.00,1.01
9757.00,1.01
9756.00,1.01
9755.00,1.01
9754.00,1.01
9753.00,1.01
9752.00,1.01
9751.00,1.01
9750.00,1.01
9749.00,1.00
9748.00,1.00
9747.00,0.99
9746.00,0.98
9745.00,0.97
9744.00,0.96
9743.00,0.95
9742.00,0.95
9741.00,0.94
9740.00,0.93
9739.00,0.93
9738.00,0.93
9737.00,0.92
9736.00,0.92
9735.00,0.92
9734.00,0.93
9733.00,0.93
9732.00,0.93
9731.00,0.94
9730.00,0.94
9729.00,0.95
9728.00,0.96
9727.00,0.96
9726.00,0.97
9725.00,0.98
9724.00,0.98
9723.00,0.98
9722.00,0.98
9721.00,0.98
9720.00,0.98
9719.00,0.97
9718.00,0.97
9717.00,0.96
9716.00,0.96
9715.00,0.95
9714.00,0.94
9713.00,0.94
9712.00,0.93
9711.00,0.93
9710.00,0.92
9709.00,0.91
9708.00,0.91
9707.00,0.90
9706.00,0.90
9705.00,0.90
9704.00,0.90
9703.00,0.90
9702.00,0.91
9701.00,0.91
9700.00,0.92
9699.00,0.93
9698.00,0.94
9697.00,0.95
9696.00,0.96
9695.00,0.97
9694.00,0.98
9693.00,0.99
9692.00,0.99
9691.00,1.00
9690.00,1.01
9689.00,1.02
9688.00,1.02
9687.00,1.02
9686.00,1.02
9685.00,1.02
9684.00,1.02
9683.00,1.01
9682.00,1.01
9681.00,1.00
9680.00,0.99
9679.00,0.99
9678.00,0.98
9677.00,0.97
9676.00,0.96
9675.00,0.96
9674.00,0.95
9673.00,0.95
9672.00,0.94
9671.00,0.94
9670.00,0.94
9669.00,0.94
9668.00,0.94
9667.00,0.95
9666.00,0.95
9665.00,0.95
9664.00,0.96
9663.00,0.97
9662.00,0.98
9661.00,0.98
9660.00,0.99
9659.00,1.00
9658.00,1.01
9657.00,1.02
9656.00,1.02
9655.00,1.03
9654.00,1.04
9653.00,1.04
9652.00,1.04
9651.00,1.04
9650.00,1.04
9649.00,1.04
9648.00,1.04
9647.00,1.04
9646.00,1.03
9645.00,1.03
9644.00,1.02
9643.00,1.01
9642.00,1.00
9641.00,1.00
9640.00,0.99
9639.00,0.98
9638.00,0.97
9637.00,0.95
9636.00,0.94
9635.00,0.93
9634.00,0.92
9633.00,0.91
9632.00,0.89
9631.00,0.88
9630.00,0.87
9629.00,0.85
9628.00,0.84
9627.00,0.83
9626.00,0.82
9625.00,0.81
9624.00,0.80
9623.00,0.79
9622.00,0.78
9621.00,0.77
9620.00,0.77
9619.00,0.77
9618.00,0.76
9617.00,0.76
9616.00,0.76
9615.00,0.76
9614.00,0.76
9613.00,0.77
9612.00,0.77
9611.00,0.77
9610.00,0.77
9609.00,0.78
9608.00,0.78
9607.00,0.78
9606.00,0.79
9605.00,0.79
9604.00,0.79
9603.00,0.80
9602.00,0.80
9601.00,0.80
9600.00,0.81
9599.00,0.81
9598.00,0.82
9597.00,0.83
9596.00,0.83
9595.00,0.84
9594.00,0.85
9593.00,0.86
9592.00,0.87
9591.00,0.88
9590.00,0.89
9589.00,0.90
9588.00,0.91
9587.00,0.92
9586.00,0.92
9585.00,0.93
9584.00,0.93
9583.00,0.93
9582.00,0.93
9581.00,0.93
9580.00,0.92
9579.00,0.91
9578.00,0.90
9577.00,0.89
9576.00,0.88
9575.00,0.87
9574.00,0.86
9573.00,0.85
9572.00,0.84
9571.00,0.83
9570.00,0.82
9569.00,0.82
9568.00,0.82
9567.00,0.82
9566.00,0.82
9565.00,0.83
9564.00,0.84
9563.00,0.84
9562.00,0.85
9561.00,0.87
9560.00,0.88
9559.00,0.89
9558.00,0.90
9557.00,0.91
9556.00,0.92
9555.00,0.92
9554.00,0.93
9553.00,0.93
9552.00,0.93
9551.00,0.93
9550.00,0.93
9549.00,0.93
9548.00,0.92
9547.00,0.92
9546.00,0.91
9545.00,0.91
9544.00,0.90
9543.00,0.90
9542.00,0.89
9541.00,0.89
9540.00,0.88
9539.00,0.88
9538.00,0.88
9537.00,0.88
9536.00,0.87
9535.00,0.87
9534.00,0.87
9533.00,0.87
9532.00,0.87
9531.00,0.87
9530.00,0.86
9529.00,0.86
9528.00,0.86
9527.00,0.85
9526.00,0.85
9525.00,0.85
9524.00,0.85
9523.00,0.85
9522.00,0.85
9521.00,0.85
9520.00,0.85
9519.00,0.85
9518.00,0.86
9517.00,0.86
9516.00,0.86
9515.00,0.87
9514.00,0.87
9513.00,0.87
9512.00,0.88
9511.00,0.88
9510.00,0.88
9509.00,0.87
9508.00,0.87
9507.00,0.86
9506.00,0.85
9505.00,0.84
9504.00,0.83
9503.00,0.82
9502.00,0.81
9501.00,0.80
9500.00,0.79
9499.00,0.78
9498.00,0.77
9497.00,0.77
9496.00,0.76
9495.00,0.76
9494.00,0.76
9493.00,0.76
9492.00,0.76
9491.00,0.76
9490.00,0.77
9489.00,0.77
9488.00,0.78
9487.00,0.78
9486.00,0.79
9485.00,0.80
9484.00,0.80
9483.00,0.81
9482.00,0.81
9481.00,0.81
9480.00,0.82
9479.00,0.82
9478.00,0.82
9477.00,0.83
9476.00,0.83
9475.00,0.84
9474.00,0.84
9473.00,0.85
9472.00,0.86
9471.00,0.86
9470.00,0.87
9469.00,0.88
9468.00,0.89
9467.00,0.89
9466.00,0.90
9465.00,0.91
9464.00,0.92
9463.00,0.93
9462.00,0.94
9461.00,0.95
9460.00,0.96
9459.00,0.96
9458.00,0.97
9457.00,0.98
9456.00,0.98
9455.00,0.99
9454.00,0.99
9453.00,1.00
9452.00,1.00
9451.00,1.01
9450.00,1.01
9449.00,1.01
9448.00,1.01
9447.00,1.02
9446.00,1.02
9445.00,1.02
9444.00,1.02
9443.00,1.03
9442.00,1.03
9441.00,1.03
9440.00,1.04
9439.00,1.04
9438.00,1.04
9437.00,1.05
9436.00,1.05
9435.00,1.05
9434.00,1.06
9433.00,1.06
9432.00,1.06
9431.00,1.06
9430.00,1.06
9429.00,1.06
9428.00,1.06
9427.00,1.05
9426.00,1.05
9425.00,1.05
9424.00,1.05
9423.00,1.04
9422.00,1.04
9421.00,1.04
9420.00,1.04
9419.00,1.03
9418.00,1.03
9417.00,1.03
9416.00,1.03
9415.00,1.03
9414.00,1.03
9413.00,1.03
9412.00,1.03
9411.00,1.03
9410.00,1.03
9409.00,1.02
9408.00,1.02
9407.00,1.02
9406.00,1.02
9405.00,1.01
9404.00,1.01
9403.00,1.00
9402.00,1.00
9401.00,1.00
9400.00,0.99
9399.00,0.99
9398.00,0.99
9397.00,0.98
9396.00,0.98
9395.00,0.98
9394.00,0.97
9393.00,0.97
9392.00,0.97
9391.00,0.96
9390.00,0.96
9389.00,0.95
9388.00,0.94
9387.00,0.94
9386.00,0.93
9385.00,0.92
9384.00,0.91
9383.00,0.90
9382.00,0.89
9381.00,0.87
9380.00,0.86
9379.00,0.86
9378.00,0.85
9377.00,0.85
9376.00,0.84
9375.00,0.84
9374.00,0.85
9373.00,0.85
9372.00,0.86
9371.00,0.88
9370.00,0.89
9369.00,0.91
9368.00,0.92
9367.00,0.94
9366.00,0.96
9365.00,0.98
9364.00,0.99
9363.00,1.01
9362.00,1.02
9361.00,1.03
9360.00,1.04
9359.00,1.04
9358.00,1.04
9357.00,1.04
9356.00,1.04
9355.00,1.03
9354.00,1.02
9353.00,1.01
9352.00,1.00
9351.00,0.99
9350.00,0.98
9349.00,0.97
9348.00,0.96
9347.00,0.96
9346.00,0.95
9345.00,0.95
9344.00,0.95
9343.00,0.95
9342.00,0.96
9341.00,0.96
9340.00,0.97
9339.00,0.98
9338.00,0.99
9337.00,1.00
9336.00,1.01
9335.00,1.02
9334.00,1.03
9333.00,1.04
9332.00,1.05
9331.00,1.06
9330.00,1.06
9329.00,1.06
9328.00,1.07
9327.00,1.07
9326.00,1.06
9325.00,1.06
9324.00,1.06
9323.00,1.05
9322.00,1.04
9321.00,1.04
9320.00,1.03
9319.00,1.02
9318.00,1.00
9317.00,0.99
9316.00,0.98
9315.00,0.97
9314.00,0.95
9313.00,0.94
9312.00,0.92
9311.00,0.91
9310.00,0.89
9309.00,0.88
9308.00,0.86
9307.00,0.85
9306.00,0.83
9305.00,0.82
9304.00,0.81
9303.00,0.80
9302.00,0.79
9301.00,0.79
9300.00,0.78
9299.00,0.78
9298.00,0.78
9297.00,0.77
9296.00,0.78
9295.00,0.78
9294.00,0.78
9293.00,0.79
9292.00,0.79
9291.00,0.80
9290.00,0.81
9289.00,0.81
9288.00,0.82
9287.00,0.83
9286.00,0.83
9285.00,0.84
9284.00,0.85
9283.00,0.86
9282.00,0.87
9281.00,0.88
9280.00,0.89
9279.00,0.90
9278.00,0.91
9277.00,0.92
9276.00,0.93
9275.00,0.94
9274.00,0.96
9273.00,0.97
9272.00,0.98
9271.00,0.99
9270.00,1.00
9269.00,1.01
9268.00,1.01
9267.00,1.02
9266.00,1.02
9265.00,1.02
9264.00,1.02
9263.00,1.01
9262.00,1.01
9261.00,1.00
9260.00,1.00
9259.00,0.99
9258.00,0.98
9257.00,0.98
9256.00,0.97
9255.00,0.96
9254.00,0.95
9253.00,0.95
9252.00,0.95
9251.00,0.94
9250.00,0.94
9249.00,0.94
9248.00,0.94
9247.00,0.94
9246.00,0.94
9245.00,0.94
9244.00,0.93
9243.00,0.93
9242.00,0.93
9241.00,0.93
9240.00,0.93
9239.00,0.92
9238.00,0.92
9237.00,0.92
9236.00,0.92
9235.00,0.91
9234.00,0.91
9233.00,0.91
9232.00,0.91
9231.00,0.91
9230.00,0.92
9229.00,0.92
9228.00,0.93
9227.00,0.94
9226.00,0.95
9225.00,0.96
9224.00,0.97
9223.00,0.98
9222.00,0.99
9221.00,1.00
9220.00,1.02
9219.00,1.03
9218.00,1.04
9217.00,1.06
9216.00,1.07
9215.00,1.08
9214.00,1.09
9213.00,1.10
9212.00,1.10
9211.00,1.11
9210.00,1.11
9209.00,1.11
9208.00,1.10
9207.00,1.10
9206.00,1.10
9205.00,1.09
9204.00,1.08
9203.00,1.07
9202.00,1.06
9201.00,1.05
9200.00,1.03
9199.00,1.02
9198.00,1.01
9197.00,0.99
9196.00,0.98
9195.00,0.96
9194.00,0.95
9193.00,0.94
9192.00,0.93
9191.00,0.92
9190.00,0.90
9189.00,0.90
9188.00,0.89
9187.00,0.88
9186.00,0.87
9185.00,0.87
9184.00,0.86
9183.00,0.86
9182.00,0.85
9181.00,0.85
9180.00,0.85
9179.00,0.85
9178.00,0.85
9177.00,0.85
9176.00,0.85
9175.00,0.86
9174.00,0.86
9173.00,0.87
9172.00,0.87
9171.00,0.88
9170.00,0.89
9169.00,0.90
9168.00,0.91
9167.00,0.92
9166.00,0.93
9165.00,0.94
9164.00,0.94
9163.00,0.95
9162.00,0.96
9161.00,0.97
9160.00,0.97
9159.00,0.98
9158.00,0.99
9157.00,0.99
9156.00,0.99
9155.00,0.99
9154.00,1.00
9153.00,1.00
9152.00,0.99
9151.00,0.99
9150.00,0.99
9149.00,0.99
9148.00,0.98
9147.00,0.98
9146.00,0.98
9145.00,0.98
9144.00,0.98
9143.00,0.98
9142.00,0.98
9141.00,0.98
9140.00,0.98
9139.00,0.99
9138.00,0.99
9137.00,0.99
9136.00,1.00
9135.00,1.00
9134.00,1.01
9133.00,1.01
9132.00,1.02
9131.00,1.02
9130.00,1.03
9129.00,1.03
9128.00,1.03
9127.00,1.03
9126.00,1.03
9125.00,1.02
9124.00,1.02
9123.00,1.01
9122.00,1.01
9121.00,1.00
9120.00,0.99
9119.00,0.98
9118.00,0.97
9117.00,0.96
9116.00,0.95
9115.00,0.94
9114.00,0.93
9113.00,0.92
9112.00,0.91
9111.00,0.90
9110.00,0.89
9109.00,0.88
9108.00,0.88
9107.00,0.87
9106.00,0.86
9105.00,0.86
9104.00,0.85
9103.00,0.85
9102.00,0.85
9101.00,0.85
9100.00,0.85
9099.00,0.85
9098.00,0.85
9097.00,0.86
9096.00,0.86
9095.00,0.87
9094.00,0.87
9093.00,0.88
9092.00,0.89
9091.00,0.89
9090.00,0.90
9089.00,0.90
9088.00,0.91
9087.00,0.91
9086.00,0.91
9085.00,0.91
9084.00,0.91
9083.00,0.90
9082.00,0.90
9081.00,0.89
9080.00,0.88
9079.00,0.87
9078.00,0.86
9077.00,0.85
9076.00,0.84
9075.00,0.83
9074.00,0.82
9073.00,0.81
9072.00,0.80
9071.00,0.80
9070.00,0.79
9069.00,0.79
9068.00,0.79
9067.00,0.80
9066.00,0.80
9065.00,0.80
9064.00,0.81
9063.00,0.82
9062.00,0.82
9061.00,0.83
9060.00,0.84
9059.00,0.85
9058.00,0.86
9057.00,0.87
9056.00,0.88
9055.00,0.89
9054.00,0.90
9053.00,0.91
9052.00,0.92
9051.00,0.93
9050.00,0.94
9049.00,0.95
9048.00,0.95
9047.00,0.96
9046.00,0.96
9045.00,0.97
9044.00,0.97
9043.00,0.97
9042.00,0.97
9041.00,0.97
9040.00,0.96
9039.00,0.96
9038.00,0.95
9037.00,0.94
9036.00,0.93
9035.00,0.92
9034.00,0.92
9033.00,0.91
9032.00,0.90
9031.00,0.90
9030.00,0.89
9029.00,0.89
9028.00,0.88
9027.00,0.88
9026.00,0.88
9025.00,0.88
9024.00,0.89
9023.00,0.89
9022.00,0.90
9021.00,0.90
9020.00,0.91
9019.00,0.92
9018.00,0.93
9017.00,0.93
9016.00,0.94
9015.00,0.95
9014.00,0.96
9013.00,0.97
9012.00,0.97
9011.00,0.98
9010.00,0.99
9009.00,1.00
9008.00,1.00
9007.00,1.01
9006.00,1.02
9005.00,1.03
9004.00,1.04
9003.00,1.05
9002.00,1.06
9001.00,1.08
9000.00,1.09
8999.00,1.10
8998.00,1.11
8997.00,1.12
8996.00,1.13
8995.00,1.14
8994.00,1.14
8993.00,1.15
8992.00,1.15
8991.00,1.14
8990.00,1.14
8989.00,1.13
8988.00,1.12
8987.00,1.11
8986.00,1.09
8985.00,1.08
8984.00,1.06
8983.00,1.04
8982.00,1.01
8981.00,0.99
8980.00,0.97
8979.00,0.95
8978.00,0.94
8977.00,0.92
8976.00,0.91
8975.00,0.90
8974.00,0.89
8973.00,0.88
8972.00,0.88
8971.00,0.88
8970.00,0.88
8969.00,0.88
8968.00,0.88
8967.00,0.89
8966.00,0.89
8965.00,0.90
8964.00,0.91
8963.00,0.92
8962.00,0.92
8961.00,0.93
8960.00,0.94
8959.00,0.94
8958.00,0.95
8957.00,0.95
8956.00,0.95
8955.00,0.95
8954.00,0.95
8953.00,0.95
8952.00,0.95
8951.00,0.94
8950.00,0.94
8949.00,0.94
8948.00,0.93
8947.00,0.93
8946.00,0.93
8945.00,0.92
8944.00,0.92
8943.00,0.91
8942.00,0.91
8941.00,0.91
8940.00,0.90
8939.00,0.90
8938.00,0.90
8937.00,0.90
8936.00,0.91
8935.00,0.91
8934.00,0.91
8933.00,0.91
8932.00,0.92
8931.00,0.92
8930.00,0.92
8929.00,0.92
8928.00,0.92
8927.00,0.93
8926.00,0.93
8925.00,0.93
8924.00,0.93
8923.00,0.94
8922.00,0.94
8921.00,0.94
8920.00,0.94
8919.00,0.94
8918.00,0.93
8917.00,0.93
8916.00,0.93
8915.00,0.93
8914.00,0.93
8913.00,0.92
8912.00,0.92
8911.00,0.91
8910.00,0.91
8909.00,0.90
8908.00,0.90
8907.00,0.89
8906.00,0.88
8905.00,0.87
8904.00,0.86
8903.00,0.85
8902.00,0.84
8901.00,0.83
8900.00,0.82
8899.00,0.81
8898.00,0.80
8897.00,0.79
8896.00,0.79
8895.00,0.78
8894.00,0.77
8893.00,0.77
8892.00,0.77
8891.00,0.77
8890.00,0.77
8889.00,0.77
8888.00,0.78
8887.00,0.78
8886.00,0.79
8885.00,0.79
8884.00,0.80
8883.00,0.80
8882.00,0.81
8881.00,0.82
8880.00,0.83
8879.00,0.84
8878.00,0.85
8877.00,0.86
8876.00,0.87
8875.00,0.88
8874.00,0.89
8873.00,0.89
8872.00,0.90
8871.00,0.91
8870.00,0.92
8869.00,0.93
8868.00,0.94
8867.00,0.95
8866.00,0.96
8865.00,0.97
8864.00,0.97
8863.00,0.98
8862.00,0.98
8861.00,0.99
8860.00,0.99
8859.00,0.99
8858.00,0.99
8857.00,0.99
8856.00,0.99
8855.00,1.00
8854.00,1.00
8853.00,1.00
8852.00,1.00
8851.00,1.00
8850.00,1.00
8849.00,1.00
8848.00,1.00
8847.00,1.00
8846.00,1.00
8845.00,1.00
8844.00,1.00
8843.00,1.00
8842.00,1.00
8841.00,1.00
8840.00,1.00
8839.00,1.00
8838.00,1.00
8837.00,1.00
8836.00,1.00
8835.00,0.99
8834.00,0.99
8833.00,0.99
8832.00,0.99
8831.00,0.98
8830.00,0.98
8829.00,0.98
8828.00,0.98
8827.00,0.97
8826.00,0.97
8825.00,0.97
8824.00,0.97
8823.00,0.97
8822.00,0.96
8821.00,0.96
8820.00,0.96
8819.00,0.96
8818.00,0.96
8817.00,0.96
8816.00,0.96
8815.00,0.97
8814.00,0.97
8813.00,0.97
8812.00,0.97
8811.00,0.98
8810.00,0.98
8809.00,0.98
8808.00,0.99
8807.00,0.99
8806.00,0.99
8805.00,0.99
8804.00,0.99
8803.00,1.00
8802.00,1.00
8801.00,1.00
8800.00,1.00
8799.00,1.00
8798.00,1.00
8797.00,1.00
8796.00,1.00
8795.00,1.00
8794.00,1.00
8793.00,0.99
8792.00,0.99
8791.00,0.99
8790.00,0.98
8789.00,0.98
8788.00,0.98
8787.00,0.97
8786.00,0.97
8785.00,0.97
8784.00,0.97
8783.00,0.96
8782.00,0.96
8781.00,0.96
8780.00,0.96
8779.00,0.96
8778.00,0.96
8777.00,0.96
8776.00,0.96
8775.00,0.96
8774.00,0.96
8773.00,0.96
8772.00,0.97
8771.00,0.97
8770.00,0.97
8769.00,0.97
8768.00,0.97
8767.00,0.97
8766.00,0.97
8765.00,0.97
8764.00,0.98
8763.00,0.98
8762.00,0.98
8761.00,0.98
8760.00,0.98
8759.00,0.98
8758.00,0.98
8757.00,0.98
8756.00,0.98
8755.00,0.98
8754.00,0.98
8753.00,0.98
8752.00,0.98
8751.00,0.98
8750.00,0.98
8749.00,0.99
8748.00,0.98
8747.00,0.98
8746.00,0.98
8745.00,0.98
8744.00,0.98
8743.00,0.98
8742.00,0.97
8741.00,0.97
8740.00,0.97
8739.00,0.97
8738.00,0.96
8737.00,0.96
8736.00,0.95
8735.00,0.95
8734.00,0.94
8733.00,0.94
8732.00,0.93
8731.00,0.92
8730.00,0.91
8729.00,0.91
8728.00,0.90
8727.00,0.89
8726.00,0.88
8725.00,0.88
8724.00,0.87
8723.00,0.86
8722.00,0.85
8721.00,0.85
8720.00,0.84
8719.00,0.84
8718.00,0.84
8717.00,0.84
8716.00,0.84
8715.00,0.84
8714.00,0.85
8713.00,0.85
8712.00,0.85
8711.00,0.86
8710.00,0.87
8709.00,0.87
8708.00,0.88
8707.00,0.89
8706.00,0.89
8705.00,0.90
8704.00,0.90
8703.00,0.91
8702.00,0.91
8701.00,0.91
8700.00,0.91
8699.00,0.92
8698.00,0.92
8697.00,0.92
8696.00,0.92
8695.00,0.92
8694.00,0.92
8693.00,0.93
8692.00,0.93
8691.00,0.93
8690.00,0.93
8689.00,0.92
8688.00,0.92
8687.00,0.92
8686.00,0.92
8685.00,0.92
8684.00,0.92
8683.00,0.92
8682.00,0.93
8681.00,0.93
8680.00,0.93
8679.00,0.93
8678.00,0.93
8677.00,0.93
8676.00,0.93
8675.00,0.93
8674.00,0.94
8673.00,0.94
8672.00,0.94
8671.00,0.95
8670.00,0.96
8669.00,0.96
8668.00,0.97
8667.00,0.97
8666.00,0.98
8665.00,0.98
8664.00,0.99
8663.00,0.99
8662.00,1.00
8661.00,1.00
8660.00,1.00
8659.00,1.01
8658.00,1.01
8657.00,1.01
8656.00,1.01
8655.00,1.01
8654.00,1.01
8653.00,1.01
8652.00,1.00
8651.00,1.00
8650.00,1.00
8649.00,0.99
8648.00,0.98
8647.00,0.98
8646.00,0.97
8645.00,0.96
8644.00,0.95
8643.00,0.95
8642.00,0.94
8641.00,0.93
8640.00,0.93
8639.00,0.92
8638.00,0.91
8637.00,0.91
8636.00,0.90
8635.00,0.89
8634.00,0.89
8633.00,0.88
8632.00,0.88
8631.00,0.87
8630.00,0.87
8629.00,0.87
8628.00,0.86
8627.00,0.85
8626.00,0.85
8625.00,0.84
8624.00,0.83
8623.00,0.82
8622.00,0.82
8621.00,0.81
8620.00,0.80
8619.00,0.80
8618.00,0.80
8617.00,0.79
8616.00,0.79
8615.00,0.79
8614.00,0.79
8613.00,0.79
8612.00,0.79
8611.00,0.79
8610.00,0.80
8609.00,0.80
8608.00,0.81
8607.00,0.82
8606.00,0.83
8605.00,0.84
8604.00,0.85
8603.00,0.86
8602.00,0.87
8601.00,0.88
8600.00,0.89
8599.00,0.91
8598.00,0.92
8597.00,0.93
8596.00,0.94
8595.00,0.95
8594.00,0.96
8593.00,0.97
8592.00,0.98
8591.00,0.99
8590.00,1.00
8589.00,1.01
8588.00,1.02
8587.00,1.02
8586.00,1.03
8585.00,1.04
8584.00,1.04
8583.00,1.05
8582.00,1.05
8581.00,1.05
8580.00,1.05
8579.00,1.05
8578.00,1.05
8577.00,1.05
8576.00,1.04
8575.00,1.03
8574.00,1.03
8573.00,1.02
8572.00,1.01
8571.00,1.00
8570.00,1.00
8569.00,0.99
8568.00,0.98
8567.00,0.98
8566.00,0.97
8565.00,0.97
8564.00,0.96
8563.00,0.96
8562.00,0.96
8561.00,0.96
8560.00,0.96
8559.00,0.96
8558.00,0.96
8557.00,0.96
8556.00,0.96
8555.00,0.96
8554.00,0.96
8553.00,0.96
8552.00,0.95
8551.00,0.95
8550.00,0.94
8549.00,0.94
8548.00,0.93
8547.00,0.92
8546.00,0.92
8545.00,0.91
8544.00,0.91
8543.00,0.90
8542.00,0.90
8541.00,0.90
8540.00,0.89
8539.00,0.89
8538.00,0.90
8537.00,0.90
8536.00,0.90
8535.00,0.90
8534.00,0.91
8533.00,0.91
8532.00,0.91
8531.00,0.92
8530.00,0.92
8529.00,0.92
8528.00,0.92
8527.00,0.92
8526.00,0.92
8525.00,0.92
8524.00,0.92
8523.00,0.91
8522.00,0.91
8521.00,0.91
8520.00,0.90
8519.00,0.90
8518.00,0.90
8517.00,0.89
8516.00,0.89
8515.00,0.89
8514.00,0.89
8513.00,0.89
8512.00,0.90
8511.00,0.90
8510.00,0.90
8509.00,0.91
8508.00,0.92
8507.00,0.93
8506.00,0.93
8505.00,0.94
8504.00,0.95
8503.00,0.95
8502.00,0.96
8501.00,0.96
8500.00,0.97
8499.00,0.97
8498.00,0.98
8497.00,0.98
8496.00,0.98
8495.00,0.99
8494.00,0.99
8493.00,0.99
8492.00,1.00
8491.00,1.00
8490.00,1.00
8489.00,1.00
8488.00,1.01
8487.00,1.01
8486.00,1.01
8485.00,1.02
8484.00,1.02
8483.00,1.03
8482.00,1.03
8481.00,1.03
8480.00,1.04
8479.00,1.04
8478.00,1.04
8477.00,1.05
8476.00,1.05
8475.00,1.05
8474.00,1.05
8473.00,1.05
8472.00,1.05
8471.00,1.04
8470.00,1.04
8469.00,1.04
8468.00,1.03
8467.00,1.03
8466.00,1.02
8465.00,1.02
8464.00,1.02
8463.00,1.01
8462.00,1.01
8461.00,1.00
8460.00,0.99
8459.00,0.99
8458.00,0.98
8457.00,0.98
8456.00,0.98
8455.00,0.97
8454.00,0.97
8453.00,0.97
8452.00,0.97
8451.00,0.96
8450.00,0.96
8449.00,0.96
8448.00,0.95
8447.00,0.95
8446.00,0.95
8445.00,0.94
8444.00,0.94
8443.00,0.94
8442.00,0.94
8441.00,0.94
8440.00,0.93
8439.00,0.93
8438.00,0.93
8437.00,0.93
8436.00,0.94
8435.00,0.94
8434.00,0.94
8433.00,0.94
8432.00,0.95
8431.00,0.95
8430.00,0.95
8429.00,0.96
8428.00,0.96
8427.00,0.97
8426.00,0.97
8425.00,0.97
8424.00,0.98
8423.00,0.98
8422.00,0.98
8421.00,0.98
8420.00,0.98
8419.00,0.98
8418.00,0.98
8417.00,0.98
8416.00,0.97
8415.00,0.97
8414.00,0.96
8413.00,0.96
8412.00,0.95
8411.00,0.95
8410.00,0.95
8409.00,0.94
8408.00,0.94
8407.00,0.94
8406.00,0.94
8405.00,0.93
8404.00,0.94
8403.00,0.94
8402.00,0.94
8401.00,0.94
8400.00,0.95
8399.00,0.95
8398.00,0.96
8397.00,0.96
8396.00,0.97
8395.00,0.97
8394.00,0.98
8393.00,0.98
8392.00,0.98
8391.00,0.99
8390.00,0.99
8389.00,1.00
8388.00,1.00
8387.00,1.00
8386.00,1.00
8385.00,1.01
8384.00,1.01
8383.00,1.01
8382.00,1.01
8381.00,1.01
8380.00,1.01
8379.00,1.02
8378.00,1.02
8377.00,1.02
8376.00,1.02
8375.00,1.02
8374.00,1.03
8373.00,1.03
8372.00,1.03
8371.00,1.03
8370.00,1.03
8369.00,1.03
8368.00,1.03
8367.00,1.03
8366.00,1.03
8365.00,1.02
8364.00,1.02
8363.00,1.01
8362.00,1.00
8361.00,1.00
8360.00,0.99
8359.00,0.98
8358.00,0.97
8357.00,0.96
8356.00,0.95
8355.00,0.94
8354.00,0.93
8353.00,0.92
8352.00,0.91
8351.00,0.91
8350.00,0.90
8349.00,0.90
8348.00,0.90
8347.00,0.90
8346.00,0.90
8345.00,0.90
8344.00,0.91
8343.00,0.91
8342.00,0.92
8341.00,0.93
8340.00,0.94
8339.00,0.95
8338.00,0.96
8337.00,0.96
8336.00,0.97
8335.00,0.98
8334.00,0.98
8333.00,0.99
8332.00,0.99
8331.00,0.99
8330.00,0.99
8329.00,0.99
8328.00,0.99
8327.00,0.99
8326.00,0.98
8325.00,0.98
8324.00,0.97
8323.00,0.97
8322.00,0.96
8321.00,0.96
8320.00,0.95
8319.00,0.95
8318.00,0.95
8317.00,0.95
8316.00,0.95
8315.00,0.95
8314.00,0.95
8313.00,0.95
8312.00,0.95
8311.00,0.96
8310.00,0.96
8309.00,0.97
8308.00,0.98
8307.00,0.98
8306.00,0.99
8305.00,1.00
8304.00,1.01
8303.00,1.01
8302.00,1.02
8301.00,1.02
8300.00,1.03
8299.00,1.03
8298.00,1.03
8297.00,1.03
8296.00,1.03
8295.00,1.03
8294.00,1.03
8293.00,1.03
8292.00,1.03
8291.00,1.02
8290.00,1.02
8289.00,1.02
8288.00,1.01
8287.00,1.01
8286.00,1.01
8285.00,1.00
8284.00,1.00
8283.00,0.99
8282.00,0.99
8281.00,0.99
8280.00,0.99
8279.00,0.98
8278.00,0.98
8277.00,0.98
8276.00,0.98
8275.00,0.98
8274.00,0.98
8273.00,0.98
8272.00,0.98
8271.00,0.99
8270.00,0.99
8269.00,0.99
8268.00,0.99
8267.00,1.00
8266.00,1.00
8265.00,1.00
8264.00,1.01
8263.00,1.01
8262.00,1.02
8261.00,1.02
8260.00,1.02
8259.00,1.03
8258.00,1.03
8257.00,1.04
8256.00,1.04
8255.00,1.04
8254.00,1.05
8253.00,1.05
8252.00,1.05
8251.00,1.05
8250.00,1.06
8249.00,1.06
8248.00,1.06
8247.00,1.06
8246.00,1.05
8245.00,1.05
8244.00,1.05
8243.00,1.04
8242.00,1.04
8241.00,1.04
8240.00,1.03
8239.00,1.02
8238.00,1.02
8237.00,1.01
8236.00,1.01
8235.00,1.00
8234.00,0.99
8233.00,0.99
8232.00,0.98
8231.00,0.98
8230.00,0.97
8229.00,0.97
8228.00,0.97
8227.00,0.96
8226.00,0.96
8225.00,0.96
8224.00,0.96
8223.00,0.96
8222.00,0.95
8221.00,0.95
8220.00,0.95
8219.00,0.95
8218.00,0.95
8217.00,0.94
8216.00,0.94
8215.00,0.94
8214.00,0.94
8213.00,0.94
8212.00,0.94
8211.00,0.94
8210.00,0.93
8209.00,0.93
8208.00,0.93
8207.00,0.93
8206.00,0.92
8205.00,0.92
8204.00,0.92
8203.00,0.92
8202.00,0.91
8201.00,0.91
8200.00,0.91
8199.00,0.91
8198.00,0.91
8197.00,0.91
8196.00,0.91
8195.00,0.91
8194.00,0.91
8193.00,0.92
8192.00,0.92
8191.00,0.92
8190.00,0.93
8189.00,0.93
8188.00,0.93
8187.00,0.94
8186.00,0.94
8185.00,0.95
8184.00,0.95
8183.00,0.95
8182.00,0.95
8181.00,0.96
8180.00,0.96
8179.00,0.96
8178.00,0.96
8177.00,0.96
8176.00,0.96
8175.00,0.96
8174.00,0.95
8173.00,0.95
8172.00,0.95
8171.00,0.95
8170.00,0.95
8169.00,0.95
8168.00,0.95
8167.00,0.96
8166.00,0.96
8165.00,0.96
8164.00,0.96
8163.00,0.96
8162.00,0.96
8161.00,0.97
8160.00,0.97
8159.00,0.98
8158.00,0.98
8157.00,0.99
8156.00,0.99
8155.00,1.00
8154.00,1.00
8153.00,1.01
8152.00,1.01
8151.00,1.01
8150.00,1.02
8149.00,1.02
8148.00,1.03
8147.00,1.03
8146.00,1.04
8145.00,1.04
8144.00,1.05
8143.00,1.05
8142.00,1.05
8141.00,1.05
8140.00,1.06
8139.00,1.06
8138.00,1.06
8137.00,1.06
8136.00,1.07
8135.00,1.07
8134.00,1.07
8133.00,1.08
8132.00,1.08
8131.00,1.08
8130.00,1.08
8129.00,1.09
8128.00,1.09
8127.00,1.08
8126.00,1.08
8125.00,1.08
8124.00,1.08
8123.00,1.08
8122.00,1.08
8121.00,1.08
8120.00,1.08
8119.00,1.08
8118.00,1.07
8117.00,1.07
8116.00,1.07
8115.00,1.07
8114.00,1.07
8113.00,1.06
8112.00,1.06
8111.00,1.06
8110.00,1.06
8109.00,1.06
8108.00,1.06
8107.00,1.06
8106.00,1.06
8105.00,1.06
8104.00,1.06
8103.00,1.06
8102.00,1.06
8101.00,1.05
8100.00,1.05
8099.00,1.05
8098.00,1.05
8097.00,1.04
8096.00,1.04
8095.00,1.04
8094.00,1.04
8093.00,1.04
8092.00,1.04
8091.00,1.04
8090.00,1.05
8089.00,1.05
8088.00,1.05
8087.00,1.05
8086.00,1.06
8085.00,1.06
8084.00,1.06
8083.00,1.07
8082.00,1.07
8081.00,1.08
8080.00,1.08
8079.00,1.08
8078.00,1.09
8077.00,1.09
8076.00,1.09
8075.00,1.09
8074.00,1.10
8073.00,1.10
8072.00,1.10
8071.00,1.10
8070.00,1.10
8069.00,1.10
8068.00,1.10
8067.00,1.09
8066.00,1.09
8065.00,1.09
8064.00,1.08
8063.00,1.08
8062.00,1.07
8061.00,1.06
8060.00,1.06
8059.00,1.05
8058.00,1.05
8057.00,1.04
8056.00,1.03
8055.00,1.02
8054.00,1.02
8053.00,1.01
8052.00,1.01
8051.00,1.00
8050.00,1.00
8049.00,0.99
8048.00,0.99
8047.00,0.99
8046.00,0.99
8045.00,0.99
8044.00,0.99
8043.00,1.00
8042.00,1.00
8041.00,1.00
8040.00,1.00
8039.00,1.00
8038.00,1.00
8037.00,1.00
8036.00,1.01
8035.00,1.01
8034.00,1.01
8033.00,1.01
8032.00,1.02
8031.00,1.02
8030.00,1.02
8029.00,1.02
8028.00,1.03
8027.00,1.03
8026.00,1.03
8025.00,1.03
8024.00,1.04
8023.00,1.04
8022.00,1.04
8021.00,1.04
8020.00,1.05
8019.00,1.05
8018.00,1.05
8017.00,1.04
8016.00,1.04
8015.00,1.04
8014.00,1.03
8013.00,1.03
8012.00,1.03
8011.00,1.02
8010.00,1.02
8009.00,1.02
8008.00,1.01
8007.00,1.01
8006.00,1.00
8005.00,1.00
8004.00,1.00
8003.00,0.99
8002.00,0.99
8001.00,0.99
8000.00,0.98
7999.00,0.98
7998.00,0.98
7997.00,0.98
7996.00,0.97
7995.00,0.97
7994.00,0.97
7993.00,0.97
7992.00,0.97
7991.00,0.96
7990.00,0.96
7989.00,0.96
7988.00,0.96
7987.00,0.96
7986.00,0.97
7985.00,0.97
7984.00,0.98
7983.00,0.98
7982.00,0.99
7981.00,0.99
7980.00,1.00
7979.00,1.00
7978.00,1.01
7977.00,1.01
7976.00,1.02
7975.00,1.02
7974.00,1.02
7973.00,1.03
7972.00,1.03
7971.00,1.03
7970.00,1.04
7969.00,1.04
7968.00,1.04
7967.00,1.04
7966.00,1.04
7965.00,1.04
7964.00,1.04
7963.00,1.04
7962.00,1.04
7961.00,1.04
7960.00,1.04
7959.00,1.04
7958.00,1.04
7957.00,1.05
7956.00,1.05
7955.00,1.05
7954.00,1.05
7953.00,1.06
7952.00,1.06
7951.00,1.06
7950.00,1.07
7949.00,1.07
7948.00,1.07
7947.00,1.08
7946.00,1.08
7945.00,1.08
7944.00,1.09
7943.00,1.09
7942.00,1.09
7941.00,1.09
7940.00,1.09
7939.00,1.09
7938.00,1.09
7937.00,1.08
7936.00,1.08
7935.00,1.08
7934.00,1.07
7933.00,1.07
7932.00,1.06
7931.00,1.06
7930.00,1.05
7929.00,1.05
7928.00,1.04
7927.00,1.03
7926.00,1.03
7925.00,1.02
7924.00,1.02
7923.00,1.01
7922.00,1.01
7921.00,1.01
7920.00,1.01
7919.00,1.00
7918.00,1.00
7917.00,1.00
7916.00,1.00
7915.00,1.00
7914.00,1.00
7913.00,1.01
7912.00,1.01
7911.00,1.01
7910.00,1.01
7909.00,1.01
7908.00,1.00
7907.00,1.00
7906.00,1.00
7905.00,1.00
7904.00,0.99
7903.00,0.99
7902.00,0.99
7901.00,0.98
7900.00,0.98
7899.00,0.97
7898.00,0.97
7897.00,0.96
7896.00,0.96
7895.00,0.95
7894.00,0.95
7893.00,0.95
7892.00,0.95
7891.00,0.95
7890.00,0.95
7889.00,0.95
7888.00,0.95
7887.00,0.96
7886.00,0.96
7885.00,0.97
7884.00,0.97
7883.00,0.98
7882.00,0.98
7881.00,0.99
7880.00,1.00
7879.00,1.01
7878.00,1.01
7877.00,1.02
7876.00,1.03
7875.00,1.03
7874.00,1.04
7873.00,1.04
7872.00,1.05
7871.00,1.05
7870.00,1.05
7869.00,1.05
7868.00,1.05
7867.00,1.05
7866.00,1.04
7865.00,1.04
7864.00,1.03
7863.00,1.03
7862.00,1.02
7861.00,1.02
7860.00,1.01
7859.00,1.00
7858.00,1.00
7857.00,0.99
7856.00,0.98
7855.00,0.98
7854.00,0.97
7853.00,0.97
7852.00,0.96
7851.00,0.96
7850.00,0.95
7849.00,0.95
7848.00,0.95
7847.00,0.95
7846.00,0.95
7845.00,0.95
7844.00,0.96
7843.00,0.96
7842.00,0.97
7841.00,0.97
7840.00,0.98
7839.00,0.99
7838.00,0.99
7837.00,1.00
7836.00,1.01
7835.00,1.01
7834.00,1.02
7833.00,1.03
7832.00,1.04
7831.00,1.04
7830.00,1.05
7829.00,1.05
7828.00,1.05
7827.00,1.06
7826.00,1.06
7825.00,1.06
7824.00,1.06
7823.00,1.06
7822.00,1.05
7821.00,1.05
7820.00,1.05
7819.00,1.05
7818.00,1.05
7817.00,1.05
7816.00,1.05
7815.00,1.05
7814.00,1.04
7813.00,1.04
7812.00,1.04
7811.00,1.04
7810.00,1.04
7809.00,1.04
7808.00,1.04
7807.00,1.04
7806.00,1.04
7805.00,1.04
7804.00,1.04
7803.00,1.04
7802.00,1.04
7801.00,1.05
7800.00,1.05
7799.00,1.05
7798.00,1.05
7797.00,1.05
7796.00,1.05
7795.00,1.05
7794.00,1.05
7793.00,1.05
7792.00,1.05
7791.00,1.05
7790.00,1.05
7789.00,1.05
7788.00,1.05
7787.00,1.05
7786.00,1.05
7785.00,1.04
7784.00,1.04
7783.00,1.04
7782.00,1.04
7781.00,1.03
7780.00,1.03
7779.00,1.03
7778.00,1.03
7777.00,1.03
7776.00,1.03
7775.00,1.03
7774.00,1.03
7773.00,1.03
7772.00,1.03
7771.00,1.03
7770.00,1.03
7769.00,1.03
7768.00,1.03
7767.00,1.03
7766.00,1.03
7765.00,1.03
7764.00,1.04
7763.00,1.04
7762.00,1.04
7761.00,1.04
7760.00,1.04
7759.00,1.04
7758.00,1.03
7757.00,1.03
7756.00,1.03
7755.00,1.03
7754.00,1.03
7753.00,1.03
7752.00,1.02
7751.00,1.02
7750.00,1.02
7749.00,1.02
7748.00,1.02
7747.00,1.01
7746.00,1.01
7745.00,1.02
7744.00,1.02
7743.00,1.02
7742.00,1.02
7741.00,1.03
7740.00,1.04
7739.00,1.04
7738.00,1.05
7737.00,1.05
7736.00,1.06
7735.00,1.07
7734.00,1.08
7733.00,1.08
7732.00,1.09
7731.00,1.10
7730.00,1.10
7729.00,1.11
7728.00,1.11
7727.00,1.11
7726.00,1.11
7725.00,1.11
7724.00,1.11
7723.00,1.11
7722.00,1.10
7721.00,1.10
7720.00,1.10
7719.00,1.09
7718.00,1.09
7717.00,1.09
7716.00,1.08
7715.00,1.08
7714.00,1.08
7713.00,1.08
7712.00,1.08
7711.00,1.08
7710.00,1.08
7709.00,1.08
7708.00,1.08
7707.00,1.08
7706.00,1.09
7705.00,1.09
7704.00,1.09
7703.00,1.09
7702.00,1.10
7701.00,1.10
7700.00,1.10
7699.00,1.10
7698.00,1.10
7697.00,1.10
7696.00,1.09
7695.00,1.09
7694.00,1.09
7693.00,1.09
7692.00,1.09
7691.00,1.09
7690.00,1.09
7689.00,1.09
7688.00,1.10
7687.00,1.10
7686.00,1.10
7685.00,1.10
7684.00,1.11
7683.00,1.11
7682.00,1.11
7681.00,1.11
7680.00,1.12
7679.00,1.12
7678.00,1.12
7677.00,1.12
7676.00,1.12
7675.00,1.12
7674.00,1.11
7673.00,1.11
7672.00,1.11
7671.00,1.10
7670.00,1.10
7669.00,1.09
7668.00,1.09
7667.00,1.08
7666.00,1.08
7665.00,1.08
7664.00,1.08
7663.00,1.08
7662.00,1.08
7661.00,1.08
7660.00,1.08
7659.00,1.08
7658.00,1.08
7657.00,1.08
7656.00,1.08
7655.00,1.08
7654.00,1.08
7653.00,1.08
7652.00,1.08
7651.00,1.09
7650.00,1.09
7649.00,1.09
7648.00,1.09
7647.00,1.09
7646.00,1.09
7645.00,1.09
7644.00,1.09
7643.00,1.09
7642.00,1.09
7641.00,1.09
7640.00,1.09
7639.00,1.09
7638.00,1.08
7637.00,1.08
7636.00,1.08
7635.00,1.08
7634.00,1.07
7633.00,1.07
7632.00,1.07
7631.00,1.06
7630.00,1.06
7629.00,1.06
7628.00,1.06
7627.00,1.06
7626.00,1.05
7625.00,1.05
7624.00,1.06
7623.00,1.06
7622.00,1.06
7621.00,1.06
7620.00,1.07
7619.00,1.07
7618.00,1.08
7617.00,1.08
7616.00,1.09
7615.00,1.10
7614.00,1.10
7613.00,1.10
7612.00,1.11
7611.00,1.11
7610.00,1.11
7609.00,1.11
7608.00,1.11
7607.00,1.10
7606.00,1.10
7605.00,1.09
7604.00,1.09
7603.00,1.08
7602.00,1.07
7601.00,1.07
7600.00,1.06
7599.00,1.05
7598.00,1.04
7597.00,1.04
7596.00,1.03
7595.00,1.03
7594.00,1.03
7593.00,1.02
7592.00,1.02
7591.00,1.02
7590.00,1.02
7589.00,1.02
7588.00,1.02
7587.00,1.03
7586.00,1.03
7585.00,1.03
7584.00,1.04
7583.00,1.04
7582.00,1.04
7581.00,1.04
7580.00,1.05
7579.00,1.05
7578.00,1.05
7577.00,1.05
7576.00,1.05
7575.00,1.05
7574.00,1.04
7573.00,1.04
7572.00,1.04
7571.00,1.04
7570.00,1.04
7569.00,1.04
7568.00,1.03
7567.00,1.03
7566.00,1.03
7565.00,1.03
7564.00,1.03
7563.00,1.02
7562.00,1.02
7561.00,1.02
7560.00,1.02
7559.00,1.03
7558.00,1.03
7557.00,1.03
7556.00,1.03
7555.00,1.03
7554.00,1.03
7553.00,1.03
7552.00,1.03
7551.00,1.03
7550.00,1.03
7549.00,1.03
7548.00,1.04
7547.00,1.04
7546.00,1.04
7545.00,1.04
7544.00,1.04
7543.00,1.04
7542.00,1.04
7541.00,1.04
7540.00,1.04
7539.00,1.04
7538.00,1.05
7537.00,1.05
7536.00,1.05
7535.00,1.06
7534.00,1.06
7533.00,1.07
7532.00,1.07
7531.00,1.08
7530.00,1.08
7529.00,1.08
7528.00,1.09
7527.00,1.09
7526.00,1.10
7525.00,1.10
7524.00,1.10
7523.00,1.10
7522.00,1.10
7521.00,1.10
7520.00,1.10
7519.00,1.10
7518.00,1.09
7517.00,1.09
7516.00,1.08
7515.00,1.07
7514.00,1.07
7513.00,1.06
7512.00,1.06
7511.00,1.05
7510.00,1.05
7509.00,1.05
7508.00,1.05
7507.00,1.05
7506.00,1.05
7505.00,1.05
7504.00,1.05
7503.00,1.05
7502.00,1.06
7501.00,1.06
7500.00,1.07
7499.00,1.07
7498.00,1.08
7497.00,1.08
7496.00,1.08
7495.00,1.09
7494.00,1.09
7493.00,1.09
7492.00,1.09
7491.00,1.09
7490.00,1.08
7489.00,1.08
7488.00,1.08
7487.00,1.07
7486.00,1.07
7485.00,1.06
7484.00,1.06
7483.00,1.05
7482.00,1.05
7481.00,1.04
7480.00,1.04
7479.00,1.04
7478.00,1.04
7477.00,1.04
7476.00,1.04
7475.00,1.04
7474.00,1.04
7473.00,1.04
7472.00,1.05
7471.00,1.05
7470.00,1.05
7469.00,1.06
7468.00,1.06
7467.00,1.06
7466.00,1.07
7465.00,1.07
7464.00,1.07
7463.00,1.08
7462.00,1.08
7461.00,1.08
7460.00,1.08
7459.00,1.09
7458.00,1.09
7457.00,1.09
7456.00,1.09
7455.00,1.09
7454.00,1.10
7453.00,1.10
7452.00,1.10
7451.00,1.10
7450.00,1.11
7449.00,1.11
7448.00,1.11
7447.00,1.11
7446.00,1.11
7445.00,1.11
7444.00,1.11
7443.00,1.11
7442.00,1.11
7441.00,1.11
7440.00,1.10
7439.00,1.10
7438.00,1.09
7437.00,1.09
7436.00,1.08
7435.00,1.07
7434.00,1.07
7433.00,1.06
7432.00,1.05
7431.00,1.05
7430.00,1.04
7429.00,1.03
7428.00,1.03
7427.00,1.03
7426.00,1.03
7425.00,1.03
7424.00,1.03
7423.00,1.03
7422.00,1.03
7421.00,1.04
7420.00,1.04
7419.00,1.05
7418.00,1.06
7417.00,1.06
7416.00,1.07
7415.00,1.07
7414.00,1.08
7413.00,1.08
7412.00,1.09
7411.00,1.09
7410.00,1.09
7409.00,1.09
7408.00,1.09
7407.00,1.09
7406.00,1.09
7405.00,1.08
7404.00,1.08
7403.00,1.07
7402.00,1.07
7401.00,1.06
7400.00,1.05
7399.00,1.05
7398.00,1.04
7397.00,1.03
7396.00,1.03
7395.00,1.02
7394.00,1.01
7393.00,1.01
7392.00,1.00
7391.00,0.99
7390.00,0.99
7389.00,0.99
7388.00,0.98
7387.00,0.98
7386.00,0.98
7385.00,0.98
7384.00,0.98
7383.00,0.98
7382.00,0.99
7381.00,0.99
7380.00,0.99
7379.00,1.00
7378.00,1.01
7377.00,1.01
7376.00,1.02
7375.00,1.03
7374.00,1.04
7373.00,1.04
7372.00,1.05
7371.00,1.06
7370.00,1.06
7369.00,1.07
7368.00,1.07
7367.00,1.07
7366.00,1.08
7365.00,1.08
7364.00,1.08
7363.00,1.07
7362.00,1.07
7361.00,1.07
7360.00,1.06
7359.00,1.06
7358.00,1.05
7357.00,1.05
7356.00,1.04
7355.00,1.04
7354.00,1.03
7353.00,1.03
7352.00,1.02
7351.00,1.02
7350.00,1.02
7349.00,1.02
7348.00,1.02
7347.00,1.02
7346.00,1.02
7345.00,1.02
7344.00,1.02
7343.00,1.03
7342.00,1.03
7341.00,1.03
7340.00,1.04
7339.00,1.04
7338.00,1.04
7337.00,1.04
7336.00,1.05
7335.00,1.05
7334.00,1.05
7333.00,1.05
7332.00,1.05
7331.00,1.05
7330.00,1.05
7329.00,1.05
7328.00,1.05
7327.00,1.05
7326.00,1.04
7325.00,1.04
7324.00,1.04
7323.00,1.04
7322.00,1.04
7321.00,1.04
7320.00,1.04
7319.00,1.04
7318.00,1.04
7317.00,1.04
7316.00,1.04
7315.00,1.04
7314.00,1.04
7313.00,1.04
7312.00,1.04
7311.00,1.04
7310.00,1.03
7309.00,1.03
7308.00,1.03
7307.00,1.02
7306.00,1.02
7305.00,1.01
7304.00,1.01
7303.00,1.00
7302.00,1.00
7301.00,0.99
7300.00,0.99
7299.00,0.98
7298.00,0.98
7297.00,0.98
7296.00,0.97
7295.00,0.97
7294.00,0.97
7293.00,0.97
7292.00,0.97
7291.00,0.97
7290.00,0.98
7289.00,0.98
7288.00,0.98
7287.00,0.99
7286.00,0.99
7285.00,1.00
7284.00,1.00
7283.00,1.00
7282.00,1.01
7281.00,1.01
7280.00,1.01
7279.00,1.01
7278.00,1.01
7277.00,1.01
7276.00,1.01
7275.00,1.01
7274.00,1.01
7273.00,1.00
7272.00,1.00
7271.00,0.99
7270.00,0.99
7269.00,0.98
7268.00,0.98
7267.00,0.97
7266.00,0.97
7265.00,0.96
7264.00,0.96
7263.00,0.95
7262.00,0.95
7261.00,0.95
7260.00,0.95
7259.00,0.95
7258.00,0.96
7257.00,0.96
7256.00,0.96
7255.00,0.97
7254.00,0.97
7253.00,0.98
7252.00,0.98
7251.00,0.99
7250.00,1.00
7249.00,1.00
7248.00,1.00
7247.00,1.01
7246.00,1.01
7245.00,1.01
7244.00,1.01
7243.00,1.01
7242.00,1.01
7241.00,1.01
7240.00,1.00
7239.00,1.00
7238.00,1.00
7237.00,0.99
7236.00,0.99
7235.00,0.99
7234.00,0.98
7233.00,0.98
7232.00,0.98
7231.00,0.98
7230.00,0.98
7229.00,0.97
7228.00,0.97
7227.00,0.97
7226.00,0.97
7225.00,0.97
7224.00,0.96
7223.00,0.96
7222.00,0.96
7221.00,0.96
7220.00,0.95
7219.00,0.95
7218.00,0.95
7217.00,0.94
7216.00,0.94
7215.00,0.94
7214.00,0.93
7213.00,0.93
7212.00,0.93
7211.00,0.93
7210.00,0.93
7209.00,0.93
7208.00,0.93
7207.00,0.93
7206.00,0.93
7205.00,0.93
7204.00,0.93
7203.00,0.93
7202.00,0.93
7201.00,0.93
7200.00,0.93
7199.00,0.93
7198.00,0.93
7197.00,0.93
7196.00,0.93
7195.00,0.93
7194.00,0.93
7193.00,0.93
7192.00,0.93
7191.00,0.92
7190.00,0.92
7189.00,0.91
7188.00,0.91
7187.00,0.90
7186.00,0.90
7185.00,0.89
7184.00,0.88
7183.00,0.88
7182.00,0.87
7181.00,0.87
7180.00,0.86
7179.00,0.86
7178.00,0.86
7177.00,0.85
7176.00,0.85
7175.00,0.85
7174.00,0.85
7173.00,0.85
7172.00,0.86
7171.00,0.86
7170.00,0.87
7169.00,0.87
7168.00,0.88
7167.00,0.88
7166.00,0.89
7165.00,0.90
7164.00,0.90
7163.00,0.91
7162.00,0.91
7161.00,0.92
7160.00,0.93
7159.00,0.93
7158.00,0.94
7157.00,0.94
7156.00,0.95
7155.00,0.95
7154.00,0.96
7153.00,0.96
7152.00,0.96
7151.00,0.97
7150.00,0.97
7149.00,0.97
7148.00,0.98
7147.00,0.98
7146.00,0.98
7145.00,0.98
7144.00,0.98
7143.00,0.98
7142.00,0.98
7141.00,0.98
7140.00,0.97
7139.00,0.97
7138.00,0.96
7137.00,0.96
7136.00,0.95
7135.00,0.95
7134.00,0.94
7133.00,0.93
7132.00,0.93
7131.00,0.93
7130.00,0.92
7129.00,0.92
7128.00,0.92
7127.00,0.92
7126.00,0.92
7125.00,0.92
7124.00,0.92
7123.00,0.92
7122.00,0.92
7121.00,0.92
7120.00,0.92
7119.00,0.92
7118.00,0.92
7117.00,0.93
7116.00,0.93
7115.00,0.92
7114.00,0.92
7113.00,0.92
7112.00,0.92
7111.00,0.91
7110.00,0.91
7109.00,0.90
7108.00,0.90
7107.00,0.90
7106.00,0.89
7105.00,0.89
7104.00,0.88
7103.00,0.88
7102.00,0.87
7101.00,0.87
7100.00,0.87
7099.00,0.86
7098.00,0.86
7097.00,0.86
7096.00,0.86
7095.00,0.86
7094.00,0.86
7093.00,0.87
7092.00,0.87
7091.00,0.87
7090.00,0.87
7089.00,0.88
7088.00,0.88
7087.00,0.89
7086.00,0.89
7085.00,0.89
7084.00,0.90
7083.00,0.90
7082.00,0.90
7081.00,0.90
7080.00,0.90
7079.00,0.90
7078.00,0.90
7077.00,0.90
7076.00,0.89
7075.00,0.89
7074.00,0.89
7073.00,0.89
7072.00,0.88
7071.00,0.88
7070.00,0.88
7069.00,0.87
7068.00,0.87
7067.00,0.87
7066.00,0.87
7065.00,0.86
7064.00,0.86
7063.00,0.86
7062.00,0.86
7061.00,0.86
7060.00,0.86
7059.00,0.86
7058.00,0.86
7057.00,0.86
7056.00,0.85
7055.00,0.85
7054.00,0.85
7053.00,0.85
7052.00,0.84
7051.00,0.84
7050.00,0.84
7049.00,0.83
7048.00,0.83
7047.00,0.83
7046.00,0.83
7045.00,0.83
7044.00,0.83
7043.00,0.83
7042.00,0.83
7041.00,0.83
7040.00,0.83
7039.00,0.83
7038.00,0.83
7037.00,0.84
7036.00,0.84
7035.00,0.84
7034.00,0.84
7033.00,0.84
7032.00,0.84
7031.00,0.85
7030.00,0.85
7029.00,0.85
7028.00,0.85
7027.00,0.85
7026.00,0.85
7025.00,0.85
7024.00,0.85
7023.00,0.85
7022.00,0.85
7021.00,0.85
7020.00,0.85
7019.00,0.86
7018.00,0.86
7017.00,0.86
7016.00,0.86
7015.00,0.87
7014.00,0.87
7013.00,0.87
7012.00,0.87
7011.00,0.88
7010.00,0.88
7009.00,0.88
7008.00,0.89
7007.00,0.89
7006.00,0.89
7005.00,0.89
7004.00,0.90
7003.00,0.90
7002.00,0.90
7001.00,0.90
7000.00,0.91
6999.00,0.91
6998.00,0.91
6997.00,0.91
6996.00,0.91
6995.00,0.91
6994.00,0.91
6993.00,0.90
6992.00,0.90
6991.00,0.90
6990.00,0.90
6989.00,0.89
6988.00,0.89
6987.00,0.88
6986.00,0.88
6985.00,0.87
6984.00,0.87
6983.00,0.86
6982.00,0.86
6981.00,0.85
6980.00,0.85
6979.00,0.85
6978.00,0.85
6977.00,0.85
6976.00,0.85
6975.00,0.85
6974.00,0.85
6973.00,0.85
6972.00,0.86
6971.00,0.86
6970.00,0.87
6969.00,0.87
6968.00,0.88
6967.00,0.88
6966.00,0.89
6965.00,0.89
6964.00,0.89
6963.00,0.89
6962.00,0.90
6961.00,0.90
6960.00,0.90
6959.00,0.90
6958.00,0.90
6957.00,0.90
6956.00,0.90
6955.00,0.90
6954.00,0.90
6953.00,0.90
6952.00,0.90
6951.00,0.90
6950.00,0.90
6949.00,0.90
6948.00,0.90
6947.00,0.90
6946.00,0.90
6945.00,0.90
6944.00,0.91
6943.00,0.91
6942.00,0.90
6941.00,0.90
6940.00,0.90
6939.00,0.90
6938.00,0.90
6937.00,0.90
6936.00,0.89
6935.00,0.89
6934.00,0.89
6933.00,0.89
6932.00,0.89
6931.00,0.89
6930.00,0.88
6929.00,0.88
6928.00,0.88
6927.00,0.88
6926.00,0.88
6925.00,0.87
6924.00,0.87
6923.00,0.87
6922.00,0.87
6921.00,0.87
6920.00,0.87
6919.00,0.87
6918.00,0.86
6917.00,0.86
6916.00,0.86
6915.00,0.85
6914.00,0.85
6913.00,0.85
6912.00,0.85
6911.00,0.85
6910.00,0.85
6909.00,0.85
6908.00,0.85
6907.00,0.85
6906.00,0.85
6905.00,0.85
6904.00,0.85
6903.00,0.85
6902.00,0.85
6901.00,0.86
6900.00,0.86
6899.00,0.86
6898.00,0.87
6897.00,0.87
6896.00,0.88
6895.00,0.88
6894.00,0.88
6893.00,0.89
6892.00,0.89
6891.00,0.89
6890.00,0.90
6889.00,0.90
6888.00,0.90
6887.00,0.91
6886.00,0.91
6885.00,0.91
6884.00,0.92
6883.00,0.92
6882.00,0.93
6881.00,0.93
6880.00,0.94
6879.00,0.94
6878.00,0.94
6877.00,0.94
6876.00,0.94
6875.00,0.95
6874.00,0.95
6873.00,0.95
6872.00,0.95
6871.00,0.95
6870.00,0.95
6869.00,0.95
6868.00,0.95
6867.00,0.94
6866.00,0.94
6865.00,0.94
6864.00,0.93
6863.00,0.93
6862.00,0.93
6861.00,0.92
6860.00,0.92
6859.00,0.92
6858.00,0.92
6857.00,0.92
6856.00,0.91
6855.00,0.91
6854.00,0.91
6853.00,0.91
6852.00,0.91
6851.00,0.91
6850.00,0.91
6849.00,0.92
6848.00,0.92
6847.00,0.93
6846.00,0.93
6845.00,0.94
6844.00,0.94
6843.00,0.94
6842.00,0.95
6841.00,0.95
6840.00,0.96
6839.00,0.96
6838.00,0.97
6837.00,0.97
6836.00,0.97
6835.00,0.97
6834.00,0.97
6833.00,0.97
6832.00,0.97
6831.00,0.97
6830.00,0.97
6829.00,0.96
6828.00,0.96
6827.00,0.96
6826.00,0.96
6825.00,0.95
6824.00,0.95
6823.00,0.95
6822.00,0.95
6821.00,0.95
6820.00,0.94
6819.00,0.94
6818.00,0.94
6817.00,0.94
6816.00,0.94
6815.00,0.95
6814.00,0.95
6813.00,0.95
6812.00,0.95
6811.00,0.95
6810.00,0.95
6809.00,0.95
6808.00,0.95
6807.00,0.95
6806.00,0.95
6805.00,0.95
6804.00,0.95
6803.00,0.95
6802.00,0.95
6801.00,0.94
6800.00,0.94
6799.00,0.94
6798.00,0.94
6797.00,0.93
6796.00,0.93
6795.00,0.93
6794.00,0.93
6793.00,0.92
6792.00,0.92
6791.00,0.92
6790.00,0.92
6789.00,0.92
6788.00,0.93
6787.00,0.93
6786.00,0.93
6785.00,0.93
6784.00,0.93
6783.00,0.94
6782.00,0.94
6781.00,0.94
6780.00,0.94
6779.00,0.94
6778.00,0.94
6777.00,0.94
6776.00,0.94
6775.00,0.94
6774.00,0.93
6773.00,0.93
6772.00,0.93
6771.00,0.93
6770.00,0.93
6769.00,0.93
6768.00,0.93
6767.00,0.92
6766.00,0.92
6765.00,0.92
6764.00,0.92
6763.00,0.92
6762.00,0.92
6761.00,0.92
6760.00,0.92
6759.00,0.92
6758.00,0.91
6757.00,0.91
6756.00,0.91
6755.00,0.91
6754.00,0.91
6753.00,0.91
6752.00,0.91
6751.00,0.91
6750.00,0.92
6749.00,0.92
6748.00,0.92
6747.00,0.92
6746.00,0.93
6745.00,0.93
6744.00,0.93
6743.00,0.94
6742.00,0.94
6741.00,0.94
6740.00,0.95
6739.00,0.95
6738.00,0.95
6737.00,0.96
6736.00,0.96
6735.00,0.96
6734.00,0.96
6733.00,0.97
6732.00,0.97
6731.00,0.97
6730.00,0.97
6729.00,0.98
6728.00,0.98
6727.00,0.98
6726.00,0.98
6725.00,0.98
6724.00,0.98
6723.00,0.98
6722.00,0.99
6721.00,0.99
6720.00,0.99
6719.00,0.99
6718.00,0.99
6717.00,0.99
6716.00,0.99
6715.00,0.99
6714.00,0.98
6713.00,0.98
6712.00,0.98
6711.00,0.98
6710.00,0.98
6709.00,0.97
6708.00,0.97
6707.00,0.97
6706.00,0.97
6705.00,0.96
6704.00,0.96
6703.00,0.96
6702.00,0.96
6701.00,0.96
6700.00,0.95
6699.00,0.95
6698.00,0.95
6697.00,0.95
6696.00,0.95
6695.00,0.95
6694.00,0.94
6693.00,0.94
6692.00,0.94
6691.00,0.94
6690.00,0.94
6689.00,0.94
6688.00,0.94
6687.00,0.94
6686.00,0.94
6685.00,0.94
6684.00,0.95
6683.00,0.95
6682.00,0.95
6681.00,0.95
6680.00,0.96
6679.00,0.96
6678.00,0.97
6677.00,0.97
6676.00,0.98
6675.00,0.98
6674.00,0.98
6673.00,0.99
6672.00,0.99
6671.00,0.99
6670.00,1.00
6669.00,1.00
6668.00,1.00
6667.00,1.00
6666.00,0.99
6665.00,0.99
6664.00,0.99
6663.00,0.98
6662.00,0.98
6661.00,0.98
6660.00,0.97
6659.00,0.97
6658.00,0.97
6657.00,0.97
6656.00,0.97
6655.00,0.96
6654.00,0.96
6653.00,0.97
6652.00,0.97
6651.00,0.97
6650.00,0.97
6649.00,0.98
6648.00,0.98
6647.00,0.99
6646.00,1.00
6645.00,1.00
6644.00,1.01
6643.00,1.01
6642.00,1.02
6641.00,1.02
6640.00,1.03
6639.00,1.03
6638.00,1.03
6637.00,1.04
6636.00,1.04
6635.00,1.04
6634.00,1.04
6633.00,1.04
6632.00,1.04
6631.00,1.04
6630.00,1.04
6629.00,1.03
6628.00,1.03
6627.00,1.03
6626.00,1.03
6625.00,1.03
6624.00,1.02
6623.00,1.02
6622.00,1.02
6621.00,1.02
6620.00,1.01
6619.00,1.01
6618.00,1.01
6617.00,1.00
6616.00,1.00
6615.00,0.99
6614.00,0.99
6613.00,0.98
6612.00,0.98
6611.00,0.97
6610.00,0.97
6609.00,0.96
6608.00,0.96
6607.00,0.96
6606.00,0.96
6605.00,0.95
6604.00,0.95
6603.00,0.95
6602.00,0.95
6601.00,0.96
6600.00,0.96
6599.00,0.96
6598.00,0.97
6597.00,0.97
6596.00,0.98
6595.00,0.98
6594.00,0.99
6593.00,0.99
6592.00,1.00
6591.00,1.00
6590.00,1.01
6589.00,1.01
6588.00,1.01
6587.00,1.02
6586.00,1.02
6585.00,1.02
6584.00,1.03
6583.00,1.03
6582.00,1.03
6581.00,1.03
6580.00,1.03
6579.00,1.02
6578.00,1.02
6577.00,1.02
6576.00,1.02
6575.00,1.02
6574.00,1.02
6573.00,1.02
6572.00,1.02
6571.00,1.02
6570.00,1.02
6569.00,1.02
6568.00,1.02
6567.00,1.02
6566.00,1.02
6565.00,1.02
6564.00,1.02
6563.00,1.02
6562.00,1.02
6561.00,1.03
6560.00,1.03
6559.00,1.03
6558.00,1.03
6557.00,1.03
6556.00,1.03
6555.00,1.03
6554.00,1.03
6553.00,1.03
6552.00,1.03
6551.00,1.03
6550.00,1.03
6549.00,1.03
6548.00,1.03
6547.00,1.03
6546.00,1.03
6545.00,1.03
6544.00,1.03
6543.00,1.03
6542.00,1.03
6541.00,1.03
6540.00,1.03
6539.00,1.03
6538.00,1.03
6537.00,1.03
6536.00,1.03
6535.00,1.03
6534.00,1.03
6533.00,1.03
6532.00,1.03
6531.00,1.03
6530.00,1.03
6529.00,1.03
6528.00,1.03
6527.00,1.02
6526.00,1.02
6525.00,1.02
6524.00,1.01
6523.00,1.01
6522.00,1.00
6521.00,1.00
6520.00,0.99
6519.00,0.99
6518.00,0.98
6517.00,0.98
6516.00,0.97
6515.00,0.97
6514.00,0.97
6513.00,0.96
6512.00,0.96
6511.00,0.96
6510.00,0.96
6509.00,0.95
6508.00,0.95
6507.00,0.95
6506.00,0.95
6505.00,0.95
6504.00,0.95
6503.00,0.95
6502.00,0.95
6501.00,0.95
6500.00,0.95
6499.00,0.96
6498.00,0.96
6497.00,0.96
6496.00,0.96
6495.00,0.96
6494.00,0.96
6493.00,0.96
6492.00,0.97
6491.00,0.97
6490.00,0.97
6489.00,0.97
6488.00,0.97
6487.00,0.98
6486.00,0.98
6485.00,0.98
6484.00,0.99
6483.00,0.99
6482.00,0.99
6481.00,0.99
6480.00,0.99
6479.00,1.00
6478.00,1.00
6477.00,1.00
6476.00,1.00
6475.00,1.00
6474.00,1.01
6473.00,1.01
6472.00,1.01
6471.00,1.01
6470.00,1.02
6469.00,1.02
6468.00,1.02
6467.00,1.03
6466.00,1.03
6465.00,1.03
6464.00,1.04
6463.00,1.04
6462.00,1.04
6461.00,1.05
6460.00,1.05
6459.00,1.05
6458.00,1.06
6457.00,1.06
6456.00,1.06
6455.00,1.06
6454.00,1.06
6453.00,1.06
6452.00,1.06
6451.00,1.06
6450.00,1.07
6449.00,1.07
6448.00,1.07
6447.00,1.07
6446.00,1.07
6445.00,1.07
6444.00,1.07
6443.00,1.07
6442.00,1.07
6441.00,1.07
6440.00,1.07
6439.00,1.07
6438.00,1.07
6437.00,1.07
6436.00,1.07
6435.00,1.07
6434.00,1.07
6433.00,1.07
6432.00,1.07
6431.00,1.07
6430.00,1.06
6429.00,1.06
6428.00,1.06
6427.00,1.06
6426.00,1.06
6425.00,1.06
6424.00,1.05
6423.00,1.05
6422.00,1.05
6421.00,1.05
6420.00,1.05
6419.00,1.05
6418.00,1.05
6417.00,1.05
6416.00,1.05
6415.00,1.05
6414.00,1.05
6413.00,1.06
6412.00,1.06
6411.00,1.06
6410.00,1.06
6409.00,1.06
6408.00,1.06
6407.00,1.05
6406.00,1.05
6405.00,1.05
6404.00,1.05
6403.00,1.05
6402.00,1.05
6401.00,1.05
6400.00,1.05
6399.00,1.05
6398.00,1.05
6397.00,1.05
6396.00,1.05
6395.00,1.05
6394.00,1.05
6393.00,1.05
6392.00,1.05
6391.00,1.05
6390.00,1.05
6389.00,1.05
6388.00,1.05
6387.00,1.05
6386.00,1.05
6385.00,1.05
6384.00,1.06
6383.00,1.06
6382.00,1.06
6381.00,1.06
6380.00,1.06
6379.00,1.06
6378.00,1.06
6377.00,1.06
6376.00,1.06
6375.00,1.06
6374.00,1.06
6373.00,1.06
6372.00,1.06
6371.00,1.06
6370.00,1.06
6369.00,1.06
6368.00,1.06
6367.00,1.06
6366.00,1.06
6365.00,1.06
6364.00,1.06
6363.00,1.06
6362.00,1.06
6361.00,1.06
6360.00,1.07
6359.00,1.07
6358.00,1.07
6357.00,1.07
6356.00,1.07
6355.00,1.07
6354.00,1.06
6353.00,1.06
6352.00,1.06
6351.00,1.06
6350.00,1.06
6349.00,1.06
6348.00,1.06
6347.00,1.06
6346.00,1.06
6345.00,1.06
6344.00,1.06
6343.00,1.06
6342.00,1.06
6341.00,1.06
6340.00,1.06
6339.00,1.06
6338.00,1.06
6337.00,1.06
6336.00,1.06
6335.00,1.06
6334.00,1.06
6333.00,1.06
6332.00,1.06
6331.00,1.06
6330.00,1.06
6329.00,1.06
6328.00,1.06
6327.00,1.06
6326.00,1.06
6325.00,1.06
6324.00,1.06
6323.00,1.06
6322.00,1.06
6321.00,1.06
6320.00,1.06
6319.00,1.06
6318.00,1.06
6317.00,1.07
6316.00,1.07
6315.00,1.07
6314.00,1.07
6313.00,1.08
6312.00,1.08
6311.00,1.08
6310.00,1.08
6309.00,1.09
6308.00,1.09
6307.00,1.09
6306.00,1.09
6305.00,1.09
6304.00,1.09
6303.00,1.09
6302.00,1.09
6301.00,1.09
6300.00,1.09
6299.00,1.09
6298.00,1.09
6297.00,1.09
6296.00,1.09
6295.00,1.08
6294.00,1.08
6293.00,1.08
6292.00,1.07
6291.00,1.07
6290.00,1.06
6289.00,1.06
6288.00,1.06
6287.00,1.06
6286.00,1.06
6285.00,1.06
6284.00,1.05
6283.00,1.05
6282.00,1.05
6281.00,1.06
6280.00,1.06
6279.00,1.06
6278.00,1.06
6277.00,1.07
6276.00,1.07
6275.00,1.08
6274.00,1.08
6273.00,1.09
6272.00,1.09
6271.00,1.09
6270.00,1.10
6269.00,1.10
6268.00,1.11
6267.00,1.11
6266.00,1.11
6265.00,1.11
6264.00,1.11
6263.00,1.11
6262.00,1.11
6261.00,1.11
6260.00,1.11
6259.00,1.11
6258.00,1.11
6257.00,1.11
6256.00,1.11
6255.00,1.11
6254.00,1.11
6253.00,1.11
6252.00,1.10
6251.00,1.10
6250.00,1.10
6249.00,1.10
6248.00,1.10
6247.00,1.10
6246.00,1.09
6245.00,1.09
6244.00,1.09
6243.00,1.09
6242.00,1.09
6241.00,1.09
6240.00,1.08
6239.00,1.08
6238.00,1.08
6237.00,1.08
6236.00,1.08
6235.00,1.09
6234.00,1.09
6233.00,1.09
6232.00,1.09
6231.00,1.10
6230.00,1.10
6229.00,1.10
6228.00,1.11
6227.00,1.11
6226.00,1.11
6225.00,1.11
6224.00,1.12
6223.00,1.12
6222.00,1.12
6221.00,1.12
6220.00,1.12
6219.00,1.13
6218.00,1.13
6217.00,1.13
6216.00,1.13
6215.00,1.13
6214.00,1.13
6213.00,1.13
6212.00,1.13
6211.00,1.13
6210.00,1.13
6209.00,1.13
6208.00,1.13
6207.00,1.13
6206.00,1.13
6205.00,1.13
6204.00,1.13
6203.00,1.13
6202.00,1.13
6201.00,1.13
6200.00,1.13
6199.00,1.12
6198.00,1.12
6197.00,1.12
6196.00,1.12
6195.00,1.12
6194.00,1.12
6193.00,1.12
6192.00,1.12
6191.00,1.12
6190.00,1.12
6189.00,1.12
6188.00,1.12
6187.00,1.12
6186.00,1.12
6185.00,1.13
6184.00,1.13
6183.00,1.13
6182.00,1.13
6181.00,1.14
6180.00,1.14
6179.00,1.15
6178.00,1.15
6177.00,1.16
6176.00,1.16
6175.00,1.17
6174.00,1.17
6173.00,1.17
6172.00,1.18
6171.00,1.18
6170.00,1.18
6169.00,1.18
6168.00,1.19
6167.00,1.19
6166.00,1.19
6165.00,1.19
6164.00,1.19
6163.00,1.19
6162.00,1.19
6161.00,1.19
6160.00,1.19
6159.00,1.19
6158.00,1.19
6157.00,1.19
6156.00,1.18
6155.00,1.18
6154.00,1.18
6153.00,1.17
6152.00,1.17
6151.00,1.17
6150.00,1.16
6149.00,1.16
6148.00,1.16
6147.00,1.15
6146.00,1.15
6145.00,1.15
6144.00,1.15
6143.00,1.14
6142.00,1.14
6141.00,1.14
6140.00,1.14
6139.00,1.14
6138.00,1.14
6137.00,1.14
6136.00,1.14
6135.00,1.15
6134.00,1.15
6133.00,1.15
6132.00,1.15
6131.00,1.16
6130.00,1.16
6129.00,1.16
6128.00,1.16
6127.00,1.16
6126.00,1.17
6125.00,1.17
6124.00,1.17
6123.00,1.17
6122.00,1.17
6121.00,1.17
6120.00,1.17
6119.00,1.17
6118.00,1.17
6117.00,1.17
6116.00,1.17
6115.00,1.17
6114.00,1.17
6113.00,1.17
6112.00,1.17
6111.00,1.17
6110.00,1.17
6109.00,1.17
6108.00,1.17
6107.00,1.17
6106.00,1.18
6105.00,1.18
6104.00,1.18
6103.00,1.18
6102.00,1.18
6101.00,1.18
6100.00,1.18
6099.00,1.18
6098.00,1.18
6097.00,1.18
6096.00,1.18
6095.00,1.17
6094.00,1.17
6093.00,1.17
6092.00,1.17
6091.00,1.17
6090.00,1.17
6089.00,1.17
6088.00,1.17
6087.00,1.17
6086.00,1.17
6085.00,1.16
6084.00,1.17
6083.00,1.17
6082.00,1.17
6081.00,1.17
6080.00,1.17
6079.00,1.18
6078.00,1.18
6077.00,1.18
6076.00,1.19
6075.00,1.19
6074.00,1.19
6073.00,1.20
6072.00,1.20
6071.00,1.20
6070.00,1.21
6069.00,1.21
6068.00,1.21
6067.00,1.21
6066.00,1.21
6065.00,1.21
6064.00,1.21
6063.00,1.21
6062.00,1.21
6061.00,1.21
6060.00,1.21
6059.00,1.21
6058.00,1.20
6057.00,1.20
6056.00,1.20
6055.00,1.20
6054.00,1.20
6053.00,1.19
6052.00,1.19
6051.00,1.19
6050.00,1.19
6049.00,1.19
6048.00,1.18
6047.00,1.18
6046.00,1.18
6045.00,1.18
6044.00,1.18
6043.00,1.18
6042.00,1.18
6041.00,1.18
6040.00,1.18
6039.00,1.18
6038.00,1.18
6037.00,1.18
6036.00,1.18
6035.00,1.18
6034.00,1.18
6033.00,1.18
6032.00,1.18
6031.00,1.19
6030.00,1.19
6029.00,1.19
6028.00,1.20
6027.00,1.20
6026.00,1.20
6025.00,1.21
6024.00,1.21
6023.00,1.21
6022.00,1.22
6021.00,1.22
6020.00,1.22
6019.00,1.23
6018.00,1.23
6017.00,1.23
6016.00,1.23
6015.00,1.23
6014.00,1.23
6013.00,1.23
6012.00,1.23
6011.00,1.23
6010.00,1.23
6009.00,1.22
6008.00,1.22
6007.00,1.22
6006.00,1.21
6005.00,1.21
6004.00,1.21
6003.00,1.20
6002.00,1.20
6001.00,1.20
6000.00,1.20
5999.00,1.20
5998.00,1.20
5997.00,1.20
5996.00,1.20
5995.00,1.20
5994.00,1.20
5993.00,1.20
5992.00,1.20
5991.00,1.21
5990.00,1.21
5989.00,1.21
5988.00,1.21
5987.00,1.21
5986.00,1.21
5985.00,1.21
5984.00,1.21
5983.00,1.21
5982.00,1.21
5981.00,1.21
5980.00,1.21
5979.00,1.21
5978.00,1.20
5977.00,1.20
5976.00,1.19
5975.00,1.19
5974.00,1.19
5973.00,1.19
5972.00,1.18
5971.00,1.18
5970.00,1.18
5969.00,1.18
5968.00,1.17
5967.00,1.17
5966.00,1.17
5965.00,1.17
5964.00,1.17
5963.00,1.17
5962.00,1.17
5961.00,1.17
5960.00,1.17
5959.00,1.17
5958.00,1.17
5957.00,1.18
5956.00,1.18
5955.00,1.18
5954.00,1.18
5953.00,1.18
5952.00,1.18
5951.00,1.18
5950.00,1.18
5949.00,1.18
5948.00,1.17
5947.00,1.17
5946.00,1.17
5945.00,1.17
5944.00,1.17
5943.00,1.16
5942.00,1.16
5941.00,1.16
5940.00,1.16
5939.00,1.15
5938.00,1.15
5937.00,1.15
5936.00,1.14
5935.00,1.14
5934.00,1.14
5933.00,1.14
5932.00,1.13
5931.00,1.13
5930.00,1.13
5929.00,1.13
5928.00,1.12
5927.00,1.12
5926.00,1.12
5925.00,1.12
5924.00,1.12
5923.00,1.12
5922.00,1.12
5921.00,1.12
5920.00,1.12
5919.00,1.12
5918.00,1.12
5917.00,1.12
5916.00,1.12
5915.00,1.12
5914.00,1.12
5913.00,1.12
5912.00,1.12
5911.00,1.12
5910.00,1.12
5909.00,1.12
5908.00,1.12
5907.00,1.12
5906.00,1.12
5905.00,1.12
5904.00,1.12
5903.00,1.12
5902.00,1.12
5901.00,1.12
5900.00,1.12
5899.00,1.12
5898.00,1.12
5897.00,1.12
5896.00,1.12
5895.00,1.12
5894.00,1.11
5893.00,1.11
5892.00,1.11
5891.00,1.11
5890.00,1.11
5889.00,1.10
5888.00,1.10
5887.00,1.10
5886.00,1.10
5885.00,1.10
5884.00,1.09
5883.00,1.09
5882.00,1.09
5881.00,1.09
5880.00,1.09
5879.00,1.09
5878.00,1.09
5877.00,1.10
5876.00,1.10
5875.00,1.10
5874.00,1.10
5873.00,1.10
5872.00,1.10
5871.00,1.11
5870.00,1.11
5869.00,1.11
5868.00,1.11
5867.00,1.12
5866.00,1.12
5865.00,1.12
5864.00,1.12
5863.00,1.13
5862.00,1.13
5861.00,1.13
5860.00,1.13
5859.00,1.14
5858.00,1.14
5857.00,1.14
5856.00,1.14
5855.00,1.14
5854.00,1.14
5853.00,1.14
5852.00,1.14
5851.00,1.14
5850.00,1.14
5849.00,1.14
5848.00,1.14
5847.00,1.14
5846.00,1.14
5845.00,1.14
5844.00,1.14
5843.00,1.14
5842.00,1.14
5841.00,1.14
5840.00,1.14
5839.00,1.14
5838.00,1.14
5837.00,1.14
5836.00,1.14
5835.00,1.14
5834.00,1.14
5833.00,1.14
5832.00,1.14
5831.00,1.14
5830.00,1.14
5829.00,1.14
5828.00,1.14
5827.00,1.14
5826.00,1.14
5825.00,1.14
5824.00,1.15
5823.00,1.15
5822.00,1.15
5821.00,1.15
5820.00,1.15
5819.00,1.15
5818.00,1.15
5817.00,1.15
5816.00,1.15
5815.00,1.15
5814.00,1.15
5813.00,1.15
5812.00,1.15
5811.00,1.15
5810.00,1.15
5809.00,1.15
5808.00,1.15
5807.00,1.14
5806.00,1.14
5805.00,1.14
5804.00,1.14
5803.00,1.14
5802.00,1.14
5801.00,1.14
5800.00,1.14
5799.00,1.14
5798.00,1.14
5797.00,1.14
5796.00,1.14
5795.00,1.14
5794.00,1.14
5793.00,1.14
5792.00,1.14
5791.00,1.14
5790.00,1.14
5789.00,1.14
5788.00,1.14
5787.00,1.14
5786.00,1.14
5785.00,1.14
5784.00,1.14
5783.00,1.14
5782.00,1.14
5781.00,1.14
5780.00,1.13
5779.00,1.13
5778.00,1.13
5777.00,1.13
5776.00,1.14
5775.00,1.14
5774.00,1.14
5773.00,1.14
5772.00,1.14
5771.00,1.14
5770.00,1.15
5769.00,1.15
5768.00,1.15
5767.00,1.15
5766.00,1.15
5765.00,1.16
5764.00,1.16
5763.00,1.16
5762.00,1.16
5761.00,1.16
5760.00,1.16
5759.00,1.15
5758.00,1.15
5757.00,1.15
5756.00,1.15
5755.00,1.15
5754.00,1.15
5753.00,1.15
5752.00,1.15
5751.00,1.15
5750.00,1.15
5749.00,1.15
5748.00,1.15
5747.00,1.15
5746.00,1.15
5745.00,1.15
5744.00,1.15
5743.00,1.15
5742.00,1.15
5741.00,1.16
5740.00,1.16
5739.00,1.16
5738.00,1.16
5737.00,1.16
5736.00,1.17
5735.00,1.17
5734.00,1.17
5733.00,1.17
5732.00,1.17
5731.00,1.17
5730.00,1.17
5729.00,1.17
5728.00,1.17
5727.00,1.17
5726.00,1.17
5725.00,1.17
5724.00,1.17
5723.00,1.17
5722.00,1.17
5721.00,1.17
5720.00,1.17
5719.00,1.17
5718.00,1.17
5717.00,1.17
5716.00,1.17
5715.00,1.16
5714.00,1.16
5713.00,1.16
5712.00,1.16
5711.00,1.16
5710.00,1.16
5709.00,1.16
5708.00,1.16
5707.00,1.15
5706.00,1.15
5705.00,1.15
5704.00,1.15
5703.00,1.15
5702.00,1.15
5701.00,1.15
5700.00,1.14
5699.00,1.14
5698.00,1.14
5697.00,1.14
5696.00,1.14
5695.00,1.14
5694.00,1.14
5693.00,1.14
5692.00,1.14
5691.00,1.15
5690.00,1.15
5689.00,1.15
5688.00,1.15
5687.00,1.15
5686.00,1.15
5685.00,1.15
5684.00,1.15
5683.00,1.15
5682.00,1.15
5681.00,1.15
5680.00,1.15
5679.00,1.15
5678.00,1.15
5677.00,1.15
5676.00,1.15
5675.00,1.15
5674.00,1.15
5673.00,1.15
5672.00,1.15
5671.00,1.15
5670.00,1.15
5669.00,1.15
5668.00,1.15
5667.00,1.15
5666.00,1.15
5665.00,1.15
5664.00,1.15
5663.00,1.15
5662.00,1.15
5661.00,1.15
5660.00,1.15
5659.00,1.15
5658.00,1.15
5657.00,1.15
5656.00,1.15
5655.00,1.15
5654.00,1.15
5653.00,1.15
5652.00,1.15
5651.00,1.15
5650.00,1.15
5649.00,1.15
5648.00,1.15
5647.00,1.15
5646.00,1.15
5645.00,1.15
5644.00,1.15
5643.00,1.15
5642.00,1.15
5641.00,1.15
5640.00,1.15
5639.00,1.15
5638.00,1.15
5637.00,1.15
5636.00,1.16
5635.00,1.16
5634.00,1.16
5633.00,1.16
5632.00,1.16
5631.00,1.16
5630.00,1.17
5629.00,1.17
5628.00,1.17
5627.00,1.17
5626.00,1.17
5625.00,1.17
5624.00,1.18
5623.00,1.18
5622.00,1.18
5621.00,1.18
5620.00,1.18
5619.00,1.18
5618.00,1.18
5617.00,1.18
5616.00,1.18
5615.00,1.19
5614.00,1.19
5613.00,1.19
5612.00,1.19
5611.00,1.19
5610.00,1.19
5609.00,1.19
5608.00,1.19
5607.00,1.19
5606.00,1.19
5605.00,1.19
5604.00,1.19
5603.00,1.20
5602.00,1.20
5601.00,1.20
5600.00,1.20
5599.00,1.20
5598.00,1.20
5597.00,1.20
5596.00,1.20
5595.00,1.20
5594.00,1.20
5593.00,1.20
5592.00,1.20
5591.00,1.20
5590.00,1.20
5589.00,1.20
5588.00,1.20
5587.00,1.20
5586.00,1.20
5585.00,1.20
5584.00,1.20
5583.00,1.20
5582.00,1.19
5581.00,1.19
5580.00,1.19
5579.00,1.19
5578.00,1.19
5577.00,1.19
5576.00,1.19
5575.00,1.20
5574.00,1.20
5573.00,1.20
5572.00,1.20
5571.00,1.20
5570.00,1.20
5569.00,1.20
5568.00,1.20
5567.00,1.20
5566.00,1.20
5565.00,1.20
5564.00,1.20
5563.00,1.20
5562.00,1.21
5561.00,1.21
5560.00,1.21
5559.00,1.21
5558.00,1.21
5557.00,1.21
5556.00,1.21
5555.00,1.21
5554.00,1.21
5553.00,1.21
5552.00,1.21
5551.00,1.21
5550.00,1.21
5549.00,1.21
5548.00,1.21
5547.00,1.21
5546.00,1.21
5545.00,1.20
5544.00,1.20
5543.00,1.20
5542.00,1.20
5541.00,1.20
5540.00,1.19
5539.00,1.19
5538.00,1.19
5537.00,1.19
5536.00,1.19
5535.00,1.19
5534.00,1.19
5533.00,1.19
5532.00,1.19
5531.00,1.19
5530.00,1.19
5529.00,1.19
5528.00,1.19
5527.00,1.19
5526.00,1.19
5525.00,1.19
5524.00,1.19
5523.00,1.19
5522.00,1.19
5521.00,1.19
5520.00,1.19
5519.00,1.19
5518.00,1.19
5517.00,1.19
5516.00,1.19
5515.00,1.19
5514.00,1.19
5513.00,1.19
5512.00,1.19
5511.00,1.19
5510.00,1.19
5509.00,1.19
5508.00,1.19
5507.00,1.19
5506.00,1.19
5505.00,1.19
5504.00,1.19
5503.00,1.19
5502.00,1.19
5501.00,1.19
5500.00,1.19
5499.00,1.19
5498.00,1.18
5497.00,1.18
5496.00,1.18
5495.00,1.18
5494.00,1.18
5493.00,1.18
5492.00,1.18
5491.00,1.19
5490.00,1.19
5489.00,1.19
5488.00,1.19
5487.00,1.19
5486.00,1.19
5485.00,1.20
5484.00,1.20
5483.00,1.20
5482.00,1.20
5481.00,1.21
5480.00,1.21
5479.00,1.21
5478.00,1.21
5477.00,1.22
5476.00,1.22
5475.00,1.22
5474.00,1.22
5473.00,1.22
5472.00,1.22
5471.00,1.22
5470.00,1.22
5469.00,1.22
5468.00,1.22
5467.00,1.22
5466.00,1.22
5465.00,1.22
5464.00,1.22
5463.00,1.22
5462.00,1.22
5461.00,1.22
5460.00,1.22
5459.00,1.21
5458.00,1.21
5457.00,1.21
5456.00,1.21
5455.00,1.20
5454.00,1.20
5453.00,1.20
5452.00,1.20
5451.00,1.19
5450.00,1.19
5449.00,1.19
5448.00,1.19
5447.00,1.19
5446.00,1.19
5445.00,1.19
5444.00,1.19
5443.00,1.19
5442.00,1.19
5441.00,1.20
5440.00,1.20
5439.00,1.20
5438.00,1.20
5437.00,1.20
5436.00,1.21
5435.00,1.21
5434.00,1.21
5433.00,1.21
5432.00,1.21
5431.00,1.21
5430.00,1.21
5429.00,1.21
5428.00,1.21
5427.00,1.20
5426.00,1.20
5425.00,1.20
5424.00,1.19
5423.00,1.19
5422.00,1.19
5421.00,1.19
5420.00,1.18
5419.00,1.18
5418.00,1.18
5417.00,1.18
5416.00,1.18
5415.00,1.18
5414.00,1.17
5413.00,1.17
5412.00,1.17
5411.00,1.17
5410.00,1.17
5409.00,1.17
5408.00,1.17
5407.00,1.17
5406.00,1.17
5405.00,1.17
5404.00,1.17
5403.00,1.17
5402.00,1.17
5401.00,1.18
5400.00,1.18
5399.00,1.18
5398.00,1.18
5397.00,1.18
5396.00,1.18
5395.00,1.18
5394.00,1.19
5393.00,1.19
5392.00,1.19
5391.00,1.19
5390.00,1.19
5389.00,1.19
5388.00,1.19
5387.00,1.19
5386.00,1.19
5385.00,1.19
5384.00,1.20
5383.00,1.20
5382.00,1.20
5381.00,1.20
5380.00,1.20
5379.00,1.20
5378.00,1.20
5377.00,1.20
5376.00,1.20
5375.00,1.20
5374.00,1.20
5373.00,1.20
5372.00,1.20
5371.00,1.20
5370.00,1.20
5369.00,1.20
5368.00,1.20
5367.00,1.20
5366.00,1.20
5365.00,1.20
5364.00,1.20
5363.00,1.20
5362.00,1.20
5361.00,1.20
5360.00,1.20
5359.00,1.20
5358.00,1.20
5357.00,1.20
5356.00,1.20
5355.00,1.19
5354.00,1.19
5353.00,1.19
5352.00,1.18
5351.00,1.18
5350.00,1.18
5349.00,1.17
5348.00,1.17
5347.00,1.16
5346.00,1.16
5345.00,1.15
5344.00,1.15
5343.00,1.14
5342.00,1.14
5341.00,1.14
5340.00,1.13
5339.00,1.13
5338.00,1.13
5337.00,1.12
5336.00,1.12
5335.00,1.12
5334.00,1.12
5333.00,1.12
5332.00,1.12
5331.00,1.12
5330.00,1.12
5329.00,1.12
5328.00,1.12
5327.00,1.12
5326.00,1.13
5325.00,1.13
5324.00,1.13
5323.00,1.13
5322.00,1.13
5321.00,1.13
5320.00,1.13
5319.00,1.14
5318.00,1.14
5317.00,1.14
5316.00,1.13
5315.00,1.13
5314.00,1.13
5313.00,1.13
5312.00,1.13
5311.00,1.13
5310.00,1.12
5309.00,1.12
5308.00,1.12
5307.00,1.11
5306.00,1.11
5305.00,1.10
5304.00,1.10
5303.00,1.09
5302.00,1.09
5301.00,1.08
5300.00,1.08
5299.00,1.08
5298.00,1.07
5297.00,1.07
5296.00,1.07
5295.00,1.06
5294.00,1.06
5293.00,1.06
5292.00,1.06
5291.00,1.06
5290.00,1.06
5289.00,1.06
5288.00,1.06
5287.00,1.06
5286.00,1.06
5285.00,1.06
5284.00,1.06
5283.00,1.06
5282.00,1.06
5281.00,1.06
5280.00,1.06
5279.00,1.06
5278.00,1.06
5277.00,1.06
5276.00,1.06
5275.00,1.05
5274.00,1.05
5273.00,1.05
5272.00,1.05
5271.00,1.04
5270.00,1.04
5269.00,1.04
5268.00,1.03
5267.00,1.03
5266.00,1.03
5265.00,1.02
5264.00,1.02
5263.00,1.01
5262.00,1.01
5261.00,1.01
5260.00,1.00
5259.00,1.00
5258.00,1.00
5257.00,0.99
5256.00,0.99
5255.00,0.98
5254.00,0.98
5253.00,0.98
5252.00,0.98
5251.00,0.97
5250.00,0.97
5249.00,0.97
5248.00,0.97
5247.00,0.96
5246.00,0.96
5245.00,0.96
5244.00,0.96
5243.00,0.97
5242.00,0.97
5241.00,0.97
5240.00,0.97
5239.00,0.97
5238.00,0.97
5237.00,0.97
5236.00,0.98
5235.00,0.98
5234.00,0.98
5233.00,0.98
5232.00,0.98
5231.00,0.98
5230.00,0.98
5229.00,0.98
5228.00,0.98
5227.00,0.98
5226.00,0.98
5225.00,0.99
5224.00,0.99
5223.00,0.99
5222.00,0.99
5221.00,0.99
5220.00,0.99
5219.00,0.99
5218.00,0.99
5217.00,0.99
5216.00,1.00
5215.00,1.00
5214.00,1.00
5213.00,1.00
5212.00,1.00
5211.00,1.00
5210.00,1.00
5209.00,1.00
5208.00,1.00
5207.00,1.00
5206.00,1.00
5205.00,1.00
5204.00,1.00
5203.00,1.00
5202.00,1.00
5201.00,1.00
5200.00,1.00
5199.00,1.00
5198.00,1.00
5197.00,1.00
5196.00,1.00
5195.00,1.00
5194.00,1.00
5193.00,1.00
5192.00,1.00
5191.00,1.00
5190.00,1.00
5189.00,1.00
5188.00,1.00
5187.00,1.00
5186.00,1.00
5185.00,1.00
5184.00,1.00
5183.00,1.00
5182.00,1.00
5181.00,1.00
5180.00,1.00
5179.00,1.00
5178.00,1.00
5177.00,1.01
5176.00,1.01
5175.00,1.01
5174.00,1.01
5173.00,1.01
5172.00,1.01
5171.00,1.01
5170.00,1.01
5169.00,1.01
5168.00,1.01
5167.00,1.02
5166.00,1.02
5165.00,1.02
5164.00,1.02
5163.00,1.02
5162.00,1.02
5161.00,1.02
5160.00,1.02
5159.00,1.02
5158.00,1.02
5157.00,1.02
5156.00,1.02
5155.00,1.02
5154.00,1.02
5153.00,1.02
5152.00,1.02
5151.00,1.03
5150.00,1.03
5149.00,1.03
5148.00,1.03
5147.00,1.03
5146.00,1.03
5145.00,1.03
5144.00,1.03
5143.00,1.03
5142.00,1.03
5141.00,1.04
5140.00,1.04
5139.00,1.04
5138.00,1.04
5137.00,1.04
5136.00,1.04
5135.00,1.05
5134.00,1.05
5133.00,1.05
5132.00,1.05
5131.00,1.05
5130.00,1.05
5129.00,1.05
5128.00,1.05
5127.00,1.05
5126.00,1.05
5125.00,1.06
5124.00,1.06
5123.00,1.05
5122.00,1.05
5121.00,1.05
5120.00,1.05
5119.00,1.05
5118.00,1.05
5117.00,1.05
5116.00,1.05
5115.00,1.05
5114.00,1.05
5113.00,1.05
5112.00,1.05
5111.00,1.05
5110.00,1.05
5109.00,1.05
5108.00,1.05
5107.00,1.06
5106.00,1.06
5105.00,1.06
5104.00,1.06
5103.00,1.06
5102.00,1.06
5101.00,1.07
5100.00,1.07
5099.00,1.07
5098.00,1.07
5097.00,1.07
5096.00,1.07
5095.00,1.07
5094.00,1.07
5093.00,1.07
5092.00,1.06
5091.00,1.06
5090.00,1.06
5089.00,1.06
5088.00,1.06
5087.00,1.06
5086.00,1.06
5085.00,1.06
5084.00,1.06
5083.00,1.05
5082.00,1.05
5081.00,1.05
5080.00,1.05
5079.00,1.06
5078.00,1.06
5077.00,1.06
5076.00,1.06
5075.00,1.06
5074.00,1.06
5073.00,1.06
5072.00,1.06
5071.00,1.07
5070.00,1.07
5069.00,1.07
5068.00,1.07
5067.00,1.07
5066.00,1.08
5065.00,1.08
5064.00,1.08
5063.00,1.08
5062.00,1.08
5061.00,1.08
5060.00,1.09
5059.00,1.09
5058.00,1.09
5057.00,1.09
5056.00,1.09
5055.00,1.09
5054.00,1.09
5053.00,1.09
5052.00,1.09
5051.00,1.09
5050.00,1.09
5049.00,1.09
5048.00,1.09
5047.00,1.09
5046.00,1.09
5045.00,1.09
5044.00,1.09
5043.00,1.09
5042.00,1.09
5041.00,1.10
5040.00,1.10
5039.00,1.10
5038.00,1.10
5037.00,1.10
5036.00,1.10
5035.00,1.10
5034.00,1.10
5033.00,1.11
5032.00,1.11
5031.00,1.11
5030.00,1.11
5029.00,1.11
5028.00,1.11
5027.00,1.11
5026.00,1.11
5025.00,1.10
5024.00,1.10
5023.00,1.10
5022.00,1.10
5021.00,1.10
5020.00,1.10
5019.00,1.10
5018.00,1.10
5017.00,1.10
5016.00,1.10
5015.00,1.10
5014.00,1.10
5013.00,1.10
5012.00,1.11
5011.00,1.11
5010.00,1.11
5009.00,1.11
5008.00,1.11
5007.00,1.11
5006.00,1.11
5005.00,1.11
5004.00,1.11
5003.00,1.12
5002.00,1.12
5001.00,1.12
5000.00,1.12
4999.00,1.13
4998.00,1.13
4997.00,1.13
4996.00,1.14
4995.00,1.14
4994.00,1.14
4993.00,1.14
4992.00,1.14
4991.00,1.14
4990.00,1.14
4989.00,1.14
4988.00,1.14
4987.00,1.14
4986.00,1.14
4985.00,1.14
4984.00,1.13
4983.00,1.13
4982.00,1.13
4981.00,1.12
4980.00,1.12
4979.00,1.12
4978.00,1.11
4977.00,1.11
4976.00,1.11
4975.00,1.11
4974.00,1.11
4973.00,1.11
4972.00,1.11
4971.00,1.11
4970.00,1.11
4969.00,1.11
4968.00,1.11
4967.00,1.12
4966.00,1.12
4965.00,1.12
4964.00,1.13
4963.00,1.13
4962.00,1.13
4961.00,1.13
4960.00,1.13
4959.00,1.13
4958.00,1.13
4957.00,1.13
4956.00,1.13
4955.00,1.13
4954.00,1.13
4953.00,1.13
4952.00,1.13
4951.00,1.13
4950.00,1.13
4949.00,1.12
4948.00,1.12
4947.00,1.12
4946.00,1.12
4945.00,1.12
4944.00,1.12
4943.00,1.12
4942.00,1.13
4941.00,1.13
4940.00,1.13
4939.00,1.14
4938.00,1.14
4937.00,1.14
4936.00,1.15
4935.00,1.15
4934.00,1.15
4933.00,1.15
4932.00,1.15
4931.00,1.16
4930.00,1.16
4929.00,1.16
4928.00,1.16
4927.00,1.16
4926.00,1.16
4925.00,1.16
4924.00,1.16
4923.00,1.16
4922.00,1.16
4921.00,1.16
4920.00,1.16
4919.00,1.15
4918.00,1.15
4917.00,1.15
4916.00,1.15
4915.00,1.15
4914.00,1.15
4913.00,1.14
4912.00,1.14
4911.00,1.14
4910.00,1.14
4909.00,1.14
4908.00,1.14
4907.00,1.14
4906.00,1.15
4905.00,1.15
4904.00,1.15
4903.00,1.15
4902.00,1.15
4901.00,1.16
4900.00,1.16
4899.00,1.16
4898.00,1.16
4897.00,1.17
4896.00,1.17
4895.00,1.17
4894.00,1.17
4893.00,1.18
4892.00,1.18
4891.00,1.18
4890.00,1.18
4889.00,1.18
4888.00,1.18
4887.00,1.18
4886.00,1.18
4885.00,1.19
4884.00,1.19
4883.00,1.19
4882.00,1.19
4881.00,1.19
4880.00,1.18
4879.00,1.18
4878.00,1.18
4877.00,1.18
4876.00,1.18
4875.00,1.18
4874.00,1.18
4873.00,1.18
4872.00,1.18
4871.00,1.18
4870.00,1.18
4869.00,1.18
4868.00,1.17
4867.00,1.17
4866.00,1.17
4865.00,1.17
4864.00,1.17
4863.00,1.17
4862.00,1.17
4861.00,1.17
4860.00,1.17
4859.00,1.17
4858.00,1.17
4857.00,1.17
4856.00,1.17
4855.00,1.17
4854.00,1.17
4853.00,1.18
4852.00,1.18
4851.00,1.18
4850.00,1.18
4849.00,1.18
4848.00,1.18
4847.00,1.18
4846.00,1.18
4845.00,1.18
4844.00,1.18
4843.00,1.18
4842.00,1.19
4841.00,1.19
4840.00,1.19
4839.00,1.19
4838.00,1.19
4837.00,1.19
4836.00,1.19
4835.00,1.20
4834.00,1.20
4833.00,1.19
4832.00,1.19
4831.00,1.19
4830.00,1.19
4829.00,1.19
4828.00,1.19
4827.00,1.19
4826.00,1.19
4825.00,1.19
4824.00,1.19
4823.00,1.19
4822.00,1.19
4821.00,1.19
4820.00,1.19
4819.00,1.19
4818.00,1.19
4817.00,1.19
4816.00,1.19
4815.00,1.19
4814.00,1.19
4813.00,1.19
4812.00,1.19
4811.00,1.19
4810.00,1.19
4809.00,1.19
4808.00,1.18
4807.00,1.18
4806.00,1.18
4805.00,1.18
4804.00,1.17
4803.00,1.17
4802.00,1.17
4801.00,1.16
4800.00,1.16
4799.00,1.16
4798.00,1.15
4797.00,1.15
4796.00,1.15
4795.00,1.15
4794.00,1.15
4793.00,1.15
4792.00,1.15
4791.00,1.15
4790.00,1.15
4789.00,1.15
4788.00,1.16
4787.00,1.16
4786.00,1.16
4785.00,1.16
4784.00,1.16
4783.00,1.17
4782.00,1.17
4781.00,1.17
4780.00,1.17
4779.00,1.17
4778.00,1.17
4777.00,1.17
4776.00,1.17
4775.00,1.17
4774.00,1.17
4773.00,1.17
4772.00,1.17
4771.00,1.17
4770.00,1.17
4769.00,1.17
4768.00,1.17
4767.00,1.17
4766.00,1.17
4765.00,1.17
4764.00,1.17
4763.00,1.17
4762.00,1.17
4761.00,1.17
4760.00,1.17
4759.00,1.17
4758.00,1.17
4757.00,1.17
4756.00,1.17
4755.00,1.17
4754.00,1.17
4753.00,1.17
4752.00,1.17
4751.00,1.18
4750.00,1.18
4749.00,1.18
4748.00,1.18
4747.00,1.18
4746.00,1.18
4745.00,1.18
4744.00,1.19
4743.00,1.19
4742.00,1.19
4741.00,1.19
4740.00,1.18
4739.00,1.18
4738.00,1.18
4737.00,1.18
4736.00,1.17
4735.00,1.17
4734.00,1.17
4733.00,1.16
4732.00,1.16
4731.00,1.16
4730.00,1.15
4729.00,1.15
4728.00,1.15
4727.00,1.14
4726.00,1.14
4725.00,1.14
4724.00,1.14
4723.00,1.14
4722.00,1.14
4721.00,1.15
4720.00,1.15
4719.00,1.15
4718.00,1.15
4717.00,1.16
4716.00,1.16
4715.00,1.16
4714.00,1.16
4713.00,1.17
4712.00,1.17
4711.00,1.17
4710.00,1.17
4709.00,1.17
4708.00,1.17
4707.00,1.17
4706.00,1.17
4705.00,1.17
4704.00,1.17
4703.00,1.17
4702.00,1.17
4701.00,1.17
4700.00,1.17
4699.00,1.17
4698.00,1.17
4697.00,1.17
4696.00,1.17
4695.00,1.17
4694.00,1.18
4693.00,1.18
4692.00,1.18
4691.00,1.18
4690.00,1.19
4689.00,1.19
4688.00,1.19
4687.00,1.19
4686.00,1.20
4685.00,1.20
4684.00,1.20
4683.00,1.20
4682.00,1.20
4681.00,1.20
4680.00,1.20
4679.00,1.20
4678.00,1.20
4677.00,1.20
4676.00,1.20
4675.00,1.20
4674.00,1.20
4673.00,1.19
4672.00,1.19
4671.00,1.19
4670.00,1.19
4669.00,1.18
4668.00,1.18
4667.00,1.18
4666.00,1.18
4665.00,1.18
4664.00,1.18
4663.00,1.18
4662.00,1.17
4661.00,1.17
4660.00,1.17
4659.00,1.17
4658.00,1.17
4657.00,1.17
4656.00,1.18
4655.00,1.18
4654.00,1.18
4653.00,1.18
4652.00,1.17
4651.00,1.17
4650.00,1.18
4649.00,1.18
4648.00,1.18
4647.00,1.18
4646.00,1.18
4645.00,1.18
4644.00,1.19
4643.00,1.19
4642.00,1.19
4641.00,1.19
4640.00,1.20
4639.00,1.20
4638.00,1.20
4637.00,1.20
4636.00,1.21
4635.00,1.21
4634.00,1.21
4633.00,1.21
4632.00,1.21
4631.00,1.21
4630.00,1.22
4629.00,1.22
4628.00,1.22
4627.00,1.22
4626.00,1.22
4625.00,1.22
4624.00,1.21
4623.00,1.21
4622.00,1.21
4621.00,1.21
4620.00,1.21
4619.00,1.22
4618.00,1.22
4617.00,1.22
4616.00,1.22
4615.00,1.22
4614.00,1.22
4613.00,1.22
4612.00,1.21
4611.00,1.21
4610.00,1.21
4609.00,1.21
4608.00,1.21
4607.00,1.20
4606.00,1.20
4605.00,1.20
4604.00,1.19
4603.00,1.19
4602.00,1.19
4601.00,1.18
4600.00,1.18
4599.00,1.17
4598.00,1.17
4597.00,1.17
4596.00,1.17
4595.00,1.17
4594.00,1.17
4593.00,1.17
4592.00,1.17
4591.00,1.17
4590.00,1.17
4589.00,1.17
4588.00,1.17
4587.00,1.17
4586.00,1.18
4585.00,1.18
4584.00,1.18
4583.00,1.18
4582.00,1.18
4581.00,1.19
4580.00,1.19
4579.00,1.19
4578.00,1.19
4577.00,1.19
4576.00,1.19
4575.00,1.19
4574.00,1.19
4573.00,1.19
4572.00,1.19
4571.00,1.19
4570.00,1.18
4569.00,1.18
4568.00,1.18
4567.00,1.18
4566.00,1.18
4565.00,1.18
4564.00,1.17
4563.00,1.17
4562.00,1.17
4561.00,1.17
4560.00,1.17
4559.00,1.16
4558.00,1.16
4557.00,1.16
4556.00,1.17
4555.00,1.17
4554.00,1.17
4553.00,1.17
4552.00,1.17
4551.00,1.18
4550.00,1.18
4549.00,1.18
4548.00,1.18
4547.00,1.19
4546.00,1.19
4545.00,1.19
4544.00,1.19
4543.00,1.20
4542.00,1.20
4541.00,1.20
4540.00,1.20
4539.00,1.20
4538.00,1.20
4537.00,1.20
4536.00,1.19
4535.00,1.19
4534.00,1.19
4533.00,1.19
4532.00,1.19
4531.00,1.19
4530.00,1.18
4529.00,1.18
4528.00,1.18
4527.00,1.18
4526.00,1.18
4525.00,1.18
4524.00,1.18
4523.00,1.18
4522.00,1.18
4521.00,1.18
4520.00,1.18
4519.00,1.18
4518.00,1.18
4517.00,1.18
4516.00,1.18
4515.00,1.19
4514.00,1.19
4513.00,1.19
4512.00,1.19
4511.00,1.19
4510.00,1.19
4509.00,1.20
4508.00,1.20
4507.00,1.20
4506.00,1.20
4505.00,1.20
4504.00,1.20
4503.00,1.20
4502.00,1.20
4501.00,1.19
4500.00,1.19
4499.00,1.19
4498.00,1.19
4497.00,1.19
4496.00,1.18
4495.00,1.18
4494.00,1.18
4493.00,1.17
4492.00,1.17
4491.00,1.16
4490.00,1.16
4489.00,1.16
4488.00,1.15
4487.00,1.15
4486.00,1.14
4485.00,1.14
4484.00,1.14
4483.00,1.14
4482.00,1.13
4481.00,1.13
4480.00,1.13
4479.00,1.13
4478.00,1.13
4477.00,1.13
4476.00,1.13
4475.00,1.13
4474.00,1.13
4473.00,1.13
4472.00,1.13
4471.00,1.14
4470.00,1.14
4469.00,1.14
4468.00,1.14
4467.00,1.15
4466.00,1.15
4465.00,1.15
4464.00,1.16
4463.00,1.16
4462.00,1.16
4461.00,1.16
4460.00,1.16
4459.00,1.17
4458.00,1.17
4457.00,1.17
4456.00,1.17
4455.00,1.17
4454.00,1.17
4453.00,1.17
4452.00,1.17
4451.00,1.17
4450.00,1.17
4449.00,1.17
4448.00,1.17
4447.00,1.17
4446.00,1.17
4445.00,1.17
4444.00,1.16
4443.00,1.16
4442.00,1.16
4441.00,1.15
4440.00,1.15
4439.00,1.14
4438.00,1.13
4437.00,1.13
4436.00,1.12
4435.00,1.11
4434.00,1.11
4433.00,1.10
4432.00,1.09
4431.00,1.09
4430.00,1.08
4429.00,1.07
4428.00,1.07
4427.00,1.06
4426.00,1.06
4425.00,1.06
4424.00,1.06
4423.00,1.06
4422.00,1.06
4421.00,1.06
4420.00,1.06
4419.00,1.07
4418.00,1.07
4417.00,1.07
4416.00,1.08
4415.00,1.08
4414.00,1.09
4413.00,1.09
4412.00,1.10
4411.00,1.10
4410.00,1.11
4409.00,1.11
4408.00,1.11
4407.00,1.11
4406.00,1.11
4405.00,1.12
4404.00,1.12
4403.00,1.12
4402.00,1.12
4401.00,1.12
4400.00,1.12
4399.00,1.12
4398.00,1.12
4397.00,1.12
4396.00,1.12
4395.00,1.12
4394.00,1.12
4393.00,1.12
4392.00,1.12
4391.00,1.12
4390.00,1.12
4389.00,1.11
4388.00,1.11
4387.00,1.11
4386.00,1.11
4385.00,1.10
4384.00,1.10
4383.00,1.10
4382.00,1.09
4381.00,1.09
4380.00,1.09
4379.00,1.09
4378.00,1.09
4377.00,1.09
4376.00,1.09
4375.00,1.09
4374.00,1.09
4373.00,1.09
4372.00,1.09
4371.00,1.09
4370.00,1.09
4369.00,1.09
4368.00,1.10
4367.00,1.10
4366.00,1.10
4365.00,1.10
4364.00,1.10
4363.00,1.10
4362.00,1.10
4361.00,1.10
4360.00,1.09
4359.00,1.09
4358.00,1.09
4357.00,1.09
4356.00,1.09
4355.00,1.09
4354.00,1.08
4353.00,1.08
4352.00,1.08
4351.00,1.08
4350.00,1.08
4349.00,1.07
4348.00,1.07
4347.00,1.07
4346.00,1.07
4345.00,1.06
4344.00,1.06
4343.00,1.06
4342.00,1.06
4341.00,1.06
4340.00,1.07
4339.00,1.07
4338.00,1.07
4337.00,1.07
4336.00,1.07
4335.00,1.07
4334.00,1.08
4333.00,1.08
4332.00,1.08
4331.00,1.08
4330.00,1.09
4329.00,1.09
4328.00,1.09
4327.00,1.09
4326.00,1.09
4325.00,1.09
4324.00,1.09
4323.00,1.10
4322.00,1.10
4321.00,1.10
4320.00,1.10
4319.00,1.10
4318.00,1.11
4317.00,1.11
4316.00,1.11
4315.00,1.11
4314.00,1.12
4313.00,1.12
4312.00,1.13
4311.00,1.13
4310.00,1.14
4309.00,1.14
4308.00,1.15
4307.00,1.15
4306.00,1.15
4305.00,1.15
4304.00,1.15
4303.00,1.15
4302.00,1.15
4301.00,1.15
4300.00,1.15
4299.00,1.15
4298.00,1.15
4297.00,1.15
4296.00,1.14
4295.00,1.14
4294.00,1.14
4293.00,1.13
4292.00,1.13
4291.00,1.13
4290.00,1.12
4289.00,1.12
4288.00,1.12
4287.00,1.12
4286.00,1.12
4285.00,1.12
4284.00,1.12
4283.00,1.12
4282.00,1.12
4281.00,1.12
4280.00,1.12
4279.00,1.12
4278.00,1.12
4277.00,1.13
4276.00,1.13
4275.00,1.13
4274.00,1.13
4273.00,1.13
4272.00,1.13
4271.00,1.13
4270.00,1.13
4269.00,1.13
4268.00,1.13
4267.00,1.13
4266.00,1.13
4265.00,1.13
4264.00,1.13
4263.00,1.13
4262.00,1.13
4261.00,1.13
4260.00,1.12
4259.00,1.12
4258.00,1.12
4257.00,1.12
4256.00,1.12
4255.00,1.12
4254.00,1.12
4253.00,1.12
4252.00,1.12
4251.00,1.12
4250.00,1.12
4249.00,1.13
4248.00,1.13
4247.00,1.13
4246.00,1.14
4245.00,1.14
4244.00,1.14
4243.00,1.15
4242.00,1.15
4241.00,1.15
4240.00,1.15
4239.00,1.16
4238.00,1.16
4237.00,1.16
4236.00,1.16
4235.00,1.16
4234.00,1.16
4233.00,1.16
4232.00,1.15
4231.00,1.15
4230.00,1.15
4229.00,1.15
4228.00,1.15
4227.00,1.15
4226.00,1.15
4225.00,1.15
4224.00,1.15
4223.00,1.15
4222.00,1.15
4221.00,1.15
4220.00,1.16
4219.00,1.16
4218.00,1.16
4217.00,1.17
4216.00,1.17
4215.00,1.17
4214.00,1.17
4213.00,1.18
4212.00,1.18
4211.00,1.18
4210.00,1.18
4209.00,1.19
4208.00,1.19
4207.00,1.19
4206.00,1.20
4205.00,1.20
4204.00,1.20
4203.00,1.20
4202.00,1.21
4201.00,1.21
4200.00,1.21
4199.00,1.21
4198.00,1.21
4197.00,1.21
4196.00,1.21
4195.00,1.21
4194.00,1.21
4193.00,1.21
4192.00,1.20
4191.00,1.20
4190.00,1.20
4189.00,1.19
4188.00,1.19
4187.00,1.18
4186.00,1.18
4185.00,1.17
4184.00,1.17
4183.00,1.17
4182.00,1.16
4181.00,1.15
4180.00,1.15
4179.00,1.14
4178.00,1.14
4177.00,1.13
4176.00,1.13
4175.00,1.12
4174.00,1.12
4173.00,1.12
4172.00,1.12
4171.00,1.12
4170.00,1.12
4169.00,1.12
4168.00,1.12
4167.00,1.12
4166.00,1.12
4165.00,1.12
4164.00,1.12
4163.00,1.13
4162.00,1.13
4161.00,1.13
4160.00,1.14
4159.00,1.14
4158.00,1.15
4157.00,1.15
4156.00,1.16
4155.00,1.16
4154.00,1.16
4153.00,1.17
4152.00,1.17
4151.00,1.17
4150.00,1.17
4149.00,1.18
4148.00,1.18
4147.00,1.19
4146.00,1.19
4145.00,1.19
4144.00,1.19
4143.00,1.20
4142.00,1.20
4141.00,1.20
4140.00,1.20
4139.00,1.20
4138.00,1.21
4137.00,1.21
4136.00,1.21
4135.00,1.21
4134.00,1.21
4133.00,1.21
4132.00,1.21
4131.00,1.21
4130.00,1.21
4129.00,1.20
4128.00,1.20
4127.00,1.20
4126.00,1.20
4125.00,1.20
4124.00,1.19
4123.00,1.19
4122.00,1.19
4121.00,1.18
4120.00,1.18
4119.00,1.18
4118.00,1.17
4117.00,1.17
4116.00,1.16
4115.00,1.16
4114.00,1.15
4113.00,1.15
4112.00,1.14
4111.00,1.13
4110.00,1.13
4109.00,1.12
4108.00,1.12
4107.00,1.12
4106.00,1.11
4105.00,1.11
4104.00,1.10
4103.00,1.10
4102.00,1.10
4101.00,1.10
4100.00,1.10
4099.00,1.10
4098.00,1.10
4097.00,1.10
4096.00,1.10
4095.00,1.10
4094.00,1.10
4093.00,1.10
4092.00,1.10
4091.00,1.10
4090.00,1.10
4089.00,1.10
4088.00,1.11
4087.00,1.11
4086.00,1.11
4085.00,1.12
4084.00,1.12
4083.00,1.13
4082.00,1.13
4081.00,1.14
4080.00,1.14
4079.00,1.15
4078.00,1.15
4077.00,1.16
4076.00,1.17
4075.00,1.17
4074.00,1.18
4073.00,1.18
4072.00,1.19
4071.00,1.19
4070.00,1.19
4069.00,1.19
4068.00,1.19
4067.00,1.19
4066.00,1.19
4065.00,1.18
4064.00,1.18
4063.00,1.18
4062.00,1.17
4061.00,1.17
4060.00,1.16
4059.00,1.15
4058.00,1.15
4057.00,1.14
4056.00,1.14
4055.00,1.14
4054.00,1.13
4053.00,1.13
4052.00,1.13
4051.00,1.13
4050.00,1.12
4049.00,1.12
4048.00,1.11
4047.00,1.11
4046.00,1.11
4045.00,1.11
4044.00,1.10
4043.00,1.10
4042.00,1.10
4041.00,1.10
4040.00,1.09
4039.00,1.09
4038.00,1.08
4037.00,1.08
4036.00,1.07
4035.00,1.07
4034.00,1.06
4033.00,1.05
4032.00,1.05
4031.00,1.05
4030.00,1.04
4029.00,1.04
4028.00,1.04
4027.00,1.04
4026.00,1.03
4025.00,1.03
4024.00,1.03
4023.00,1.03
4022.00,1.04
4021.00,1.04
4020.00,1.05
4019.00,1.05
4018.00,1.06
4017.00,1.07
4016.00,1.08
4015.00,1.09
4014.00,1.10
4013.00,1.11
4012.00,1.13
4011.00,1.14
4010.00,1.15
4009.00,1.16
4008.00,1.17
4007.00,1.18
4006.00,1.19
4005.00,1.20
4004.00,1.21
4003.00,1.22
4002.00,1.23
4001.00,1.23
4000.00,1.24
