创建为新数据集,样品 690 用户 Administrator 日期 星期四, 七月 25 2019
cm-1,%T
10000.00,2.33
9999.00,2.20
9998.00,2.08
9997.00,1.95
9996.00,1.83
9995.00,1.72
9994.00,1.61
9993.00,1.51
9992.00,1.41
9991.00,1.33
9990.00,1.27
9989.00,1.21
9988.00,1.17
9987.00,1.13
9986.00,1.11
9985.00,1.09
9984.00,1.08
9983.00,1.07
9982.00,1.07
9981.00,1.07
9980.00,1.08
9979.00,1.09
9978.00,1.10
9977.00,1.12
9976.00,1.13
9975.00,1.14
9974.00,1.15
9973.00,1.15
9972.00,1.15
9971.00,1.15
9970.00,1.14
9969.00,1.13
9968.00,1.11
9967.00,1.09
9966.00,1.07
9965.00,1.05
9964.00,1.03
9963.00,1.01
9962.00,0.99
9961.00,0.97
9960.00,0.95
9959.00,0.93
9958.00,0.91
9957.00,0.90
9956.00,0.89
9955.00,0.88
9954.00,0.87
9953.00,0.86
9952.00,0.86
9951.00,0.85
9950.00,0.85
9949.00,0.85
9948.00,0.85
9947.00,0.85
9946.00,0.85
9945.00,0.84
9944.00,0.84
9943.00,0.84
9942.00,0.84
9941.00,0.84
9940.00,0.84
9939.00,0.84
9938.00,0.84
9937.00,0.84
9936.00,0.85
9935.00,0.85
9934.00,0.85
9933.00,0.86
9932.00,0.86
9931.00,0.87
9930.00,0.87
9929.00,0.88
9928.00,0.88
9927.00,0.88
9926.00,0.89
9925.00,0.89
9924.00,0.89
9923.00,0.89
9922.00,0.89
9921.00,0.89
9920.00,0.89
9919.00,0.89
9918.00,0.89
9917.00,0.89
9916.00,0.89
9915.00,0.90
9914.00,0.90
9913.00,0.91
9912.00,0.91
9911.00,0.92
9910.00,0.92
9909.00,0.93
9908.00,0.93
9907.00,0.93
9906.00,0.93
9905.00,0.93
9904.00,0.92
9903.00,0.91
9902.00,0.90
9901.00,0.89
9900.00,0.87
9899.00,0.85
9898.00,0.83
9897.00,0.81
9896.00,0.78
9895.00,0.76
9894.00,0.74
9893.00,0.72
9892.00,0.70
9891.00,0.69
9890.00,0.67
9889.00,0.67
9888.00,0.66
9887.00,0.66
9886.00,0.67
9885.00,0.68
9884.00,0.70
9883.00,0.71
9882.00,0.74
9881.00,0.76
9880.00,0.79
9879.00,0.81
9878.00,0.84
9877.00,0.87
9876.00,0.89
9875.00,0.92
9874.00,0.94
9873.00,0.95
9872.00,0.96
9871.00,0.97
9870.00,0.98
9869.00,0.99
9868.00,0.99
9867.00,0.98
9866.00,0.98
9865.00,0.98
9864.00,0.97
9863.00,0.96
9862.00,0.95
9861.00,0.94
9860.00,0.93
9859.00,0.92
9858.00,0.91
9857.00,0.91
9856.00,0.90
9855.00,0.89
9854.00,0.89
9853.00,0.88
9852.00,0.88
9851.00,0.88
9850.00,0.87
9849.00,0.87
9848.00,0.87
9847.00,0.86
9846.00,0.86
9845.00,0.86
9844.00,0.86
9843.00,0.85
9842.00,0.85
9841.00,0.85
9840.00,0.85
9839.00,0.85
9838.00,0.84
9837.00,0.84
9836.00,0.83
9835.00,0.83
9834.00,0.82
9833.00,0.81
9832.00,0.80
9831.00,0.79
9830.00,0.78
9829.00,0.77
9828.00,0.76
9827.00,0.76
9826.00,0.75
9825.00,0.74
9824.00,0.74
9823.00,0.73
9822.00,0.73
9821.00,0.73
9820.00,0.73
9819.00,0.74
9818.00,0.75
9817.00,0.75
9816.00,0.76
9815.00,0.78
9814.00,0.79
9813.00,0.80
9812.00,0.81
9811.00,0.82
9810.00,0.83
9809.00,0.84
9808.00,0.84
9807.00,0.85
9806.00,0.85
9805.00,0.85
9804.00,0.85
9803.00,0.84
9802.00,0.84
9801.00,0.83
9800.00,0.82
9799.00,0.81
9798.00,0.80
9797.00,0.79
9796.00,0.78
9795.00,0.77
9794.00,0.76
9793.00,0.76
9792.00,0.75
9791.00,0.74
9790.00,0.74
9789.00,0.74
9788.00,0.74
9787.00,0.73
9786.00,0.73
9785.00,0.73
9784.00,0.72
9783.00,0.72
9782.00,0.72
9781.00,0.71
9780.00,0.70
9779.00,0.69
9778.00,0.68
9777.00,0.67
9776.00,0.66
9775.00,0.64
9774.00,0.63
9773.00,0.62
9772.00,0.61
9771.00,0.60
9770.00,0.59
9769.00,0.59
9768.00,0.59
9767.00,0.59
9766.00,0.59
9765.00,0.59
9764.00,0.60
9763.00,0.61
9762.00,0.63
9761.00,0.64
9760.00,0.66
9759.00,0.68
9758.00,0.70
9757.00,0.72
9756.00,0.74
9755.00,0.76
9754.00,0.78
9753.00,0.79
9752.00,0.81
9751.00,0.82
9750.00,0.84
9749.00,0.84
9748.00,0.85
9747.00,0.85
9746.00,0.86
9745.00,0.85
9744.00,0.85
9743.00,0.84
9742.00,0.84
9741.00,0.83
9740.00,0.82
9739.00,0.80
9738.00,0.79
9737.00,0.77
9736.00,0.76
9735.00,0.74
9734.00,0.73
9733.00,0.71
9732.00,0.69
9731.00,0.68
9730.00,0.66
9729.00,0.65
9728.00,0.63
9727.00,0.62
9726.00,0.61
9725.00,0.60
9724.00,0.59
9723.00,0.58
9722.00,0.58
9721.00,0.57
9720.00,0.57
9719.00,0.57
9718.00,0.57
9717.00,0.58
9716.00,0.58
9715.00,0.59
9714.00,0.60
9713.00,0.60
9712.00,0.61
9711.00,0.62
9710.00,0.63
9709.00,0.64
9708.00,0.64
9707.00,0.65
9706.00,0.65
9705.00,0.65
9704.00,0.65
9703.00,0.65
9702.00,0.65
9701.00,0.64
9700.00,0.64
9699.00,0.63
9698.00,0.63
9697.00,0.62
9696.00,0.61
9695.00,0.61
9694.00,0.61
9693.00,0.60
9692.00,0.60
9691.00,0.60
9690.00,0.60
9689.00,0.60
9688.00,0.60
9687.00,0.60
9686.00,0.60
9685.00,0.60
9684.00,0.60
9683.00,0.60
9682.00,0.59
9681.00,0.59
9680.00,0.58
9679.00,0.58
9678.00,0.57
9677.00,0.56
9676.00,0.55
9675.00,0.54
9674.00,0.54
9673.00,0.53
9672.00,0.53
9671.00,0.52
9670.00,0.52
9669.00,0.53
9668.00,0.53
9667.00,0.53
9666.00,0.54
9665.00,0.55
9664.00,0.56
9663.00,0.57
9662.00,0.59
9661.00,0.60
9660.00,0.62
9659.00,0.64
9658.00,0.65
9657.00,0.67
9656.00,0.69
9655.00,0.71
9654.00,0.74
9653.00,0.76
9652.00,0.78
9651.00,0.80
9650.00,0.82
9649.00,0.83
9648.00,0.85
9647.00,0.87
9646.00,0.88
9645.00,0.90
9644.00,0.91
9643.00,0.92
9642.00,0.92
9641.00,0.93
9640.00,0.93
9639.00,0.92
9638.00,0.92
9637.00,0.91
9636.00,0.90
9635.00,0.89
9634.00,0.87
9633.00,0.86
9632.00,0.84
9631.00,0.82
9630.00,0.80
9629.00,0.79
9628.00,0.77
9627.00,0.75
9626.00,0.74
9625.00,0.72
9624.00,0.71
9623.00,0.69
9622.00,0.68
9621.00,0.68
9620.00,0.67
9619.00,0.67
9618.00,0.66
9617.00,0.66
9616.00,0.67
9615.00,0.67
9614.00,0.68
9613.00,0.69
9612.00,0.71
9611.00,0.72
9610.00,0.73
9609.00,0.75
9608.00,0.76
9607.00,0.78
9606.00,0.79
9605.00,0.81
9604.00,0.82
9603.00,0.83
9602.00,0.83
9601.00,0.84
9600.00,0.84
9599.00,0.84
9598.00,0.83
9597.00,0.82
9596.00,0.81
9595.00,0.80
9594.00,0.78
9593.00,0.77
9592.00,0.75
9591.00,0.73
9590.00,0.72
9589.00,0.70
9588.00,0.69
9587.00,0.68
9586.00,0.67
9585.00,0.67
9584.00,0.66
9583.00,0.66
9582.00,0.67
9581.00,0.67
9580.00,0.68
9579.00,0.69
9578.00,0.70
9577.00,0.71
9576.00,0.73
9575.00,0.74
9574.00,0.75
9573.00,0.76
9572.00,0.77
9571.00,0.77
9570.00,0.78
9569.00,0.78
9568.00,0.78
9567.00,0.78
9566.00,0.78
9565.00,0.78
9564.00,0.78
9563.00,0.77
9562.00,0.77
9561.00,0.76
9560.00,0.76
9559.00,0.76
9558.00,0.76
9557.00,0.75
9556.00,0.76
9555.00,0.76
9554.00,0.76
9553.00,0.76
9552.00,0.77
9551.00,0.77
9550.00,0.78
9549.00,0.78
9548.00,0.79
9547.00,0.79
9546.00,0.80
9545.00,0.80
9544.00,0.80
9543.00,0.80
9542.00,0.79
9541.00,0.79
9540.00,0.78
9539.00,0.78
9538.00,0.77
9537.00,0.76
9536.00,0.76
9535.00,0.75
9534.00,0.74
9533.00,0.74
9532.00,0.73
9531.00,0.73
9530.00,0.72
9529.00,0.72
9528.00,0.72
9527.00,0.72
9526.00,0.72
9525.00,0.73
9524.00,0.73
9523.00,0.73
9522.00,0.74
9521.00,0.74
9520.00,0.74
9519.00,0.75
9518.00,0.75
9517.00,0.75
9516.00,0.75
9515.00,0.75
9514.00,0.75
9513.00,0.75
9512.00,0.75
9511.00,0.75
9510.00,0.75
9509.00,0.75
9508.00,0.75
9507.00,0.75
9506.00,0.75
9505.00,0.75
9504.00,0.76
9503.00,0.76
9502.00,0.76
9501.00,0.77
9500.00,0.77
9499.00,0.77
9498.00,0.78
9497.00,0.78
9496.00,0.78
9495.00,0.78
9494.00,0.78
9493.00,0.78
9492.00,0.78
9491.00,0.78
9490.00,0.77
9489.00,0.77
9488.00,0.77
9487.00,0.76
9486.00,0.76
9485.00,0.76
9484.00,0.75
9483.00,0.75
9482.00,0.75
9481.00,0.75
9480.00,0.74
9479.00,0.74
9478.00,0.74
9477.00,0.74
9476.00,0.74
9475.00,0.74
9474.00,0.74
9473.00,0.74
9472.00,0.74
9471.00,0.74
9470.00,0.75
9469.00,0.75
9468.00,0.75
9467.00,0.75
9466.00,0.75
9465.00,0.74
9464.00,0.74
9463.00,0.74
9462.00,0.74
9461.00,0.74
9460.00,0.74
9459.00,0.73
9458.00,0.73
9457.00,0.72
9456.00,0.72
9455.00,0.71
9454.00,0.71
9453.00,0.71
9452.00,0.70
9451.00,0.70
9450.00,0.69
9449.00,0.69
9448.00,0.69
9447.00,0.68
9446.00,0.68
9445.00,0.68
9444.00,0.68
9443.00,0.68
9442.00,0.68
9441.00,0.68
9440.00,0.68
9439.00,0.68
9438.00,0.68
9437.00,0.68
9436.00,0.68
9435.00,0.68
9434.00,0.68
9433.00,0.68
9432.00,0.68
9431.00,0.68
9430.00,0.68
9429.00,0.68
9428.00,0.68
9427.00,0.68
9426.00,0.68
9425.00,0.68
9424.00,0.69
9423.00,0.69
9422.00,0.69
9421.00,0.70
9420.00,0.70
9419.00,0.71
9418.00,0.72
9417.00,0.73
9416.00,0.74
9415.00,0.75
9414.00,0.76
9413.00,0.78
9412.00,0.79
9411.00,0.80
9410.00,0.81
9409.00,0.82
9408.00,0.83
9407.00,0.83
9406.00,0.84
9405.00,0.84
9404.00,0.84
9403.00,0.84
9402.00,0.84
9401.00,0.83
9400.00,0.82
9399.00,0.80
9398.00,0.79
9397.00,0.77
9396.00,0.76
9395.00,0.75
9394.00,0.73
9393.00,0.72
9392.00,0.71
9391.00,0.70
9390.00,0.69
9389.00,0.69
9388.00,0.68
9387.00,0.68
9386.00,0.68
9385.00,0.68
9384.00,0.67
9383.00,0.67
9382.00,0.67
9381.00,0.67
9380.00,0.67
9379.00,0.67
9378.00,0.67
9377.00,0.66
9376.00,0.65
9375.00,0.64
9374.00,0.63
9373.00,0.62
9372.00,0.61
9371.00,0.61
9370.00,0.60
9369.00,0.59
9368.00,0.59
9367.00,0.59
9366.00,0.59
9365.00,0.59
9364.00,0.60
9363.00,0.61
9362.00,0.62
9361.00,0.63
9360.00,0.64
9359.00,0.66
9358.00,0.67
9357.00,0.68
9356.00,0.70
9355.00,0.71
9354.00,0.72
9353.00,0.73
9352.00,0.74
9351.00,0.74
9350.00,0.75
9349.00,0.75
9348.00,0.75
9347.00,0.75
9346.00,0.75
9345.00,0.74
9344.00,0.74
9343.00,0.74
9342.00,0.73
9341.00,0.73
9340.00,0.73
9339.00,0.73
9338.00,0.73
9337.00,0.73
9336.00,0.74
9335.00,0.74
9334.00,0.75
9333.00,0.75
9332.00,0.76
9331.00,0.76
9330.00,0.76
9329.00,0.76
9328.00,0.76
9327.00,0.76
9326.00,0.75
9325.00,0.74
9324.00,0.74
9323.00,0.73
9322.00,0.72
9321.00,0.71
9320.00,0.70
9319.00,0.69
9318.00,0.68
9317.00,0.67
9316.00,0.66
9315.00,0.66
9314.00,0.65
9313.00,0.65
9312.00,0.65
9311.00,0.65
9310.00,0.65
9309.00,0.65
9308.00,0.66
9307.00,0.66
9306.00,0.67
9305.00,0.67
9304.00,0.68
9303.00,0.68
9302.00,0.68
9301.00,0.68
9300.00,0.68
9299.00,0.68
9298.00,0.68
9297.00,0.68
9296.00,0.67
9295.00,0.67
9294.00,0.67
9293.00,0.67
9292.00,0.67
9291.00,0.66
9290.00,0.66
9289.00,0.66
9288.00,0.66
9287.00,0.66
9286.00,0.66
9285.00,0.66
9284.00,0.66
9283.00,0.67
9282.00,0.67
9281.00,0.67
9280.00,0.68
9279.00,0.68
9278.00,0.69
9277.00,0.69
9276.00,0.70
9275.00,0.70
9274.00,0.71
9273.00,0.71
9272.00,0.72
9271.00,0.72
9270.00,0.73
9269.00,0.73
9268.00,0.74
9267.00,0.74
9266.00,0.74
9265.00,0.74
9264.00,0.74
9263.00,0.74
9262.00,0.74
9261.00,0.74
9260.00,0.74
9259.00,0.74
9258.00,0.74
9257.00,0.74
9256.00,0.75
9255.00,0.75
9254.00,0.75
9253.00,0.75
9252.00,0.75
9251.00,0.76
9250.00,0.76
9249.00,0.76
9248.00,0.76
9247.00,0.76
9246.00,0.77
9245.00,0.77
9244.00,0.77
9243.00,0.77
9242.00,0.77
9241.00,0.77
9240.00,0.76
9239.00,0.76
9238.00,0.76
9237.00,0.75
9236.00,0.75
9235.00,0.74
9234.00,0.73
9233.00,0.73
9232.00,0.72
9231.00,0.72
9230.00,0.71
9229.00,0.71
9228.00,0.70
9227.00,0.69
9226.00,0.68
9225.00,0.68
9224.00,0.67
9223.00,0.66
9222.00,0.65
9221.00,0.64
9220.00,0.63
9219.00,0.62
9218.00,0.62
9217.00,0.61
9216.00,0.60
9215.00,0.60
9214.00,0.60
9213.00,0.59
9212.00,0.59
9211.00,0.59
9210.00,0.59
9209.00,0.59
9208.00,0.60
9207.00,0.60
9206.00,0.61
9205.00,0.62
9204.00,0.63
9203.00,0.64
9202.00,0.65
9201.00,0.66
9200.00,0.67
9199.00,0.68
9198.00,0.69
9197.00,0.70
9196.00,0.71
9195.00,0.72
9194.00,0.72
9193.00,0.73
9192.00,0.74
9191.00,0.74
9190.00,0.74
9189.00,0.74
9188.00,0.74
9187.00,0.74
9186.00,0.74
9185.00,0.74
9184.00,0.73
9183.00,0.73
9182.00,0.73
9181.00,0.72
9180.00,0.72
9179.00,0.72
9178.00,0.72
9177.00,0.72
9176.00,0.72
9175.00,0.72
9174.00,0.72
9173.00,0.72
9172.00,0.72
9171.00,0.72
9170.00,0.72
9169.00,0.72
9168.00,0.72
9167.00,0.71
9166.00,0.71
9165.00,0.70
9164.00,0.69
9163.00,0.69
9162.00,0.68
9161.00,0.67
9160.00,0.66
9159.00,0.65
9158.00,0.64
9157.00,0.64
9156.00,0.63
9155.00,0.63
9154.00,0.63
9153.00,0.63
9152.00,0.63
9151.00,0.64
9150.00,0.64
9149.00,0.65
9148.00,0.67
9147.00,0.68
9146.00,0.69
9145.00,0.71
9144.00,0.72
9143.00,0.73
9142.00,0.75
9141.00,0.76
9140.00,0.77
9139.00,0.78
9138.00,0.78
9137.00,0.79
9136.00,0.79
9135.00,0.79
9134.00,0.79
9133.00,0.78
9132.00,0.78
9131.00,0.77
9130.00,0.76
9129.00,0.76
9128.00,0.75
9127.00,0.74
9126.00,0.73
9125.00,0.72
9124.00,0.71
9123.00,0.70
9122.00,0.69
9121.00,0.68
9120.00,0.67
9119.00,0.66
9118.00,0.66
9117.00,0.65
9116.00,0.65
9115.00,0.64
9114.00,0.64
9113.00,0.64
9112.00,0.63
9111.00,0.63
9110.00,0.63
9109.00,0.63
9108.00,0.63
9107.00,0.64
9106.00,0.64
9105.00,0.64
9104.00,0.65
9103.00,0.66
9102.00,0.66
9101.00,0.67
9100.00,0.68
9099.00,0.69
9098.00,0.70
9097.00,0.71
9096.00,0.72
9095.00,0.73
9094.00,0.74
9093.00,0.74
9092.00,0.75
9091.00,0.75
9090.00,0.75
9089.00,0.76
9088.00,0.76
9087.00,0.76
9086.00,0.76
9085.00,0.76
9084.00,0.75
9083.00,0.75
9082.00,0.75
9081.00,0.74
9080.00,0.74
9079.00,0.74
9078.00,0.73
9077.00,0.73
9076.00,0.73
9075.00,0.73
9074.00,0.73
9073.00,0.73
9072.00,0.73
9071.00,0.73
9070.00,0.73
9069.00,0.73
9068.00,0.73
9067.00,0.73
9066.00,0.73
9065.00,0.73
9064.00,0.73
9063.00,0.73
9062.00,0.74
9061.00,0.74
9060.00,0.74
9059.00,0.73
9058.00,0.73
9057.00,0.73
9056.00,0.72
9055.00,0.72
9054.00,0.71
9053.00,0.70
9052.00,0.70
9051.00,0.69
9050.00,0.68
9049.00,0.67
9048.00,0.67
9047.00,0.66
9046.00,0.65
9045.00,0.65
9044.00,0.64
9043.00,0.64
9042.00,0.64
9041.00,0.64
9040.00,0.64
9039.00,0.64
9038.00,0.64
9037.00,0.65
9036.00,0.65
9035.00,0.66
9034.00,0.66
9033.00,0.67
9032.00,0.67
9031.00,0.68
9030.00,0.68
9029.00,0.69
9028.00,0.69
9027.00,0.69
9026.00,0.70
9025.00,0.70
9024.00,0.71
9023.00,0.71
9022.00,0.72
9021.00,0.72
9020.00,0.72
9019.00,0.72
9018.00,0.72
9017.00,0.73
9016.00,0.73
9015.00,0.73
9014.00,0.73
9013.00,0.72
9012.00,0.72
9011.00,0.72
9010.00,0.71
9009.00,0.71
9008.00,0.70
9007.00,0.70
9006.00,0.69
9005.00,0.68
9004.00,0.67
9003.00,0.66
9002.00,0.66
9001.00,0.65
9000.00,0.64
8999.00,0.64
8998.00,0.64
8997.00,0.64
8996.00,0.63
8995.00,0.63
8994.00,0.63
8993.00,0.64
8992.00,0.64
8991.00,0.64
8990.00,0.64
8989.00,0.65
8988.00,0.65
8987.00,0.65
8986.00,0.66
8985.00,0.66
8984.00,0.66
8983.00,0.66
8982.00,0.66
8981.00,0.66
8980.00,0.66
8979.00,0.66
8978.00,0.66
8977.00,0.66
8976.00,0.66
8975.00,0.66
8974.00,0.67
8973.00,0.67
8972.00,0.67
8971.00,0.67
8970.00,0.68
8969.00,0.68
8968.00,0.68
8967.00,0.68
8966.00,0.69
8965.00,0.69
8964.00,0.69
8963.00,0.70
8962.00,0.70
8961.00,0.70
8960.00,0.70
8959.00,0.70
8958.00,0.70
8957.00,0.70
8956.00,0.70
8955.00,0.69
8954.00,0.69
8953.00,0.69
8952.00,0.69
8951.00,0.69
8950.00,0.69
8949.00,0.69
8948.00,0.69
8947.00,0.69
8946.00,0.69
8945.00,0.69
8944.00,0.69
8943.00,0.69
8942.00,0.70
8941.00,0.70
8940.00,0.71
8939.00,0.71
8938.00,0.72
8937.00,0.73
8936.00,0.74
8935.00,0.74
8934.00,0.75
8933.00,0.76
8932.00,0.77
8931.00,0.78
8930.00,0.79
8929.00,0.80
8928.00,0.81
8927.00,0.81
8926.00,0.82
8925.00,0.82
8924.00,0.83
8923.00,0.83
8922.00,0.83
8921.00,0.83
8920.00,0.83
8919.00,0.82
8918.00,0.82
8917.00,0.81
8916.00,0.81
8915.00,0.80
8914.00,0.80
8913.00,0.79
8912.00,0.79
8911.00,0.78
8910.00,0.78
8909.00,0.77
8908.00,0.77
8907.00,0.77
8906.00,0.77
8905.00,0.76
8904.00,0.76
8903.00,0.76
8902.00,0.76
8901.00,0.75
8900.00,0.75
8899.00,0.74
8898.00,0.74
8897.00,0.73
8896.00,0.73
8895.00,0.72
8894.00,0.72
8893.00,0.71
8892.00,0.71
8891.00,0.71
8890.00,0.71
8889.00,0.71
8888.00,0.71
8887.00,0.72
8886.00,0.73
8885.00,0.73
8884.00,0.74
8883.00,0.76
8882.00,0.77
8881.00,0.78
8880.00,0.79
8879.00,0.80
8878.00,0.81
8877.00,0.82
8876.00,0.82
8875.00,0.83
8874.00,0.83
8873.00,0.83
8872.00,0.83
8871.00,0.83
8870.00,0.82
8869.00,0.82
8868.00,0.81
8867.00,0.80
8866.00,0.79
8865.00,0.78
8864.00,0.77
8863.00,0.77
8862.00,0.76
8861.00,0.75
8860.00,0.74
8859.00,0.74
8858.00,0.73
8857.00,0.73
8856.00,0.72
8855.00,0.72
8854.00,0.72
8853.00,0.72
8852.00,0.72
8851.00,0.72
8850.00,0.72
8849.00,0.72
8848.00,0.72
8847.00,0.72
8846.00,0.73
8845.00,0.73
8844.00,0.73
8843.00,0.73
8842.00,0.73
8841.00,0.73
8840.00,0.73
8839.00,0.73
8838.00,0.73
8837.00,0.73
8836.00,0.72
8835.00,0.71
8834.00,0.70
8833.00,0.69
8832.00,0.68
8831.00,0.67
8830.00,0.66
8829.00,0.65
8828.00,0.64
8827.00,0.63
8826.00,0.62
8825.00,0.61
8824.00,0.60
8823.00,0.59
8822.00,0.59
8821.00,0.58
8820.00,0.57
8819.00,0.57
8818.00,0.56
8817.00,0.56
8816.00,0.55
8815.00,0.55
8814.00,0.55
8813.00,0.55
8812.00,0.55
8811.00,0.54
8810.00,0.54
8809.00,0.54
8808.00,0.55
8807.00,0.55
8806.00,0.55
8805.00,0.56
8804.00,0.56
8803.00,0.57
8802.00,0.58
8801.00,0.59
8800.00,0.60
8799.00,0.61
8798.00,0.62
8797.00,0.63
8796.00,0.64
8795.00,0.66
8794.00,0.67
8793.00,0.68
8792.00,0.69
8791.00,0.69
8790.00,0.70
8789.00,0.71
8788.00,0.71
8787.00,0.72
8786.00,0.72
8785.00,0.72
8784.00,0.72
8783.00,0.72
8782.00,0.72
8781.00,0.72
8780.00,0.72
8779.00,0.72
8778.00,0.71
8777.00,0.71
8776.00,0.71
8775.00,0.71
8774.00,0.71
8773.00,0.70
8772.00,0.70
8771.00,0.70
8770.00,0.69
8769.00,0.69
8768.00,0.69
8767.00,0.69
8766.00,0.68
8765.00,0.68
8764.00,0.68
8763.00,0.67
8762.00,0.67
8761.00,0.67
8760.00,0.66
8759.00,0.66
8758.00,0.65
8757.00,0.65
8756.00,0.64
8755.00,0.64
8754.00,0.63
8753.00,0.62
8752.00,0.62
8751.00,0.62
8750.00,0.61
8749.00,0.61
8748.00,0.61
8747.00,0.61
8746.00,0.62
8745.00,0.62
8744.00,0.62
8743.00,0.63
8742.00,0.64
8741.00,0.65
8740.00,0.66
8739.00,0.67
8738.00,0.68
8737.00,0.69
8736.00,0.70
8735.00,0.72
8734.00,0.73
8733.00,0.74
8732.00,0.75
8731.00,0.76
8730.00,0.77
8729.00,0.77
8728.00,0.78
8727.00,0.78
8726.00,0.79
8725.00,0.79
8724.00,0.79
8723.00,0.79
8722.00,0.79
8721.00,0.78
8720.00,0.78
8719.00,0.77
8718.00,0.77
8717.00,0.76
8716.00,0.75
8715.00,0.74
8714.00,0.74
8713.00,0.73
8712.00,0.73
8711.00,0.72
8710.00,0.71
8709.00,0.71
8708.00,0.71
8707.00,0.71
8706.00,0.71
8705.00,0.71
8704.00,0.71
8703.00,0.71
8702.00,0.71
8701.00,0.71
8700.00,0.71
8699.00,0.72
8698.00,0.72
8697.00,0.72
8696.00,0.72
8695.00,0.72
8694.00,0.71
8693.00,0.71
8692.00,0.71
8691.00,0.71
8690.00,0.70
8689.00,0.70
8688.00,0.70
8687.00,0.69
8686.00,0.69
8685.00,0.69
8684.00,0.69
8683.00,0.69
8682.00,0.69
8681.00,0.70
8680.00,0.70
8679.00,0.71
8678.00,0.71
8677.00,0.72
8676.00,0.72
8675.00,0.73
8674.00,0.73
8673.00,0.74
8672.00,0.74
8671.00,0.74
8670.00,0.75
8669.00,0.75
8668.00,0.75
8667.00,0.75
8666.00,0.75
8665.00,0.76
8664.00,0.76
8663.00,0.76
8662.00,0.76
8661.00,0.76
8660.00,0.76
8659.00,0.76
8658.00,0.76
8657.00,0.76
8656.00,0.76
8655.00,0.76
8654.00,0.77
8653.00,0.77
8652.00,0.77
8651.00,0.77
8650.00,0.77
8649.00,0.77
8648.00,0.76
8647.00,0.76
8646.00,0.76
8645.00,0.76
8644.00,0.75
8643.00,0.75
8642.00,0.75
8641.00,0.74
8640.00,0.74
8639.00,0.73
8638.00,0.73
8637.00,0.72
8636.00,0.72
8635.00,0.72
8634.00,0.71
8633.00,0.71
8632.00,0.71
8631.00,0.71
8630.00,0.71
8629.00,0.71
8628.00,0.72
8627.00,0.72
8626.00,0.72
8625.00,0.72
8624.00,0.72
8623.00,0.73
8622.00,0.73
8621.00,0.73
8620.00,0.73
8619.00,0.73
8618.00,0.72
8617.00,0.72
8616.00,0.71
8615.00,0.70
8614.00,0.70
8613.00,0.69
8612.00,0.68
8611.00,0.68
8610.00,0.67
8609.00,0.67
8608.00,0.66
8607.00,0.66
8606.00,0.66
8605.00,0.66
8604.00,0.66
8603.00,0.66
8602.00,0.66
8601.00,0.66
8600.00,0.67
8599.00,0.67
8598.00,0.67
8597.00,0.67
8596.00,0.67
8595.00,0.67
8594.00,0.67
8593.00,0.67
8592.00,0.66
8591.00,0.66
8590.00,0.65
8589.00,0.64
8588.00,0.64
8587.00,0.63
8586.00,0.62
8585.00,0.62
8584.00,0.61
8583.00,0.60
8582.00,0.60
8581.00,0.60
8580.00,0.59
8579.00,0.59
8578.00,0.59
8577.00,0.59
8576.00,0.59
8575.00,0.59
8574.00,0.59
8573.00,0.59
8572.00,0.59
8571.00,0.60
8570.00,0.60
8569.00,0.60
8568.00,0.61
8567.00,0.61
8566.00,0.61
8565.00,0.62
8564.00,0.62
8563.00,0.63
8562.00,0.63
8561.00,0.64
8560.00,0.65
8559.00,0.66
8558.00,0.66
8557.00,0.67
8556.00,0.68
8555.00,0.69
8554.00,0.70
8553.00,0.71
8552.00,0.72
8551.00,0.72
8550.00,0.73
8549.00,0.74
8548.00,0.75
8547.00,0.75
8546.00,0.76
8545.00,0.76
8544.00,0.77
8543.00,0.77
8542.00,0.77
8541.00,0.76
8540.00,0.76
8539.00,0.76
8538.00,0.75
8537.00,0.74
8536.00,0.73
8535.00,0.72
8534.00,0.71
8533.00,0.70
8532.00,0.69
8531.00,0.68
8530.00,0.67
8529.00,0.66
8528.00,0.65
8527.00,0.65
8526.00,0.64
8525.00,0.64
8524.00,0.64
8523.00,0.64
8522.00,0.63
8521.00,0.63
8520.00,0.64
8519.00,0.64
8518.00,0.64
8517.00,0.64
8516.00,0.65
8515.00,0.65
8514.00,0.65
8513.00,0.66
8512.00,0.66
8511.00,0.66
8510.00,0.66
8509.00,0.66
8508.00,0.67
8507.00,0.67
8506.00,0.67
8505.00,0.67
8504.00,0.68
8503.00,0.68
8502.00,0.69
8501.00,0.70
8500.00,0.70
8499.00,0.70
8498.00,0.71
8497.00,0.71
8496.00,0.72
8495.00,0.72
8494.00,0.72
8493.00,0.72
8492.00,0.72
8491.00,0.72
8490.00,0.72
8489.00,0.71
8488.00,0.71
8487.00,0.70
8486.00,0.69
8485.00,0.69
8484.00,0.68
8483.00,0.67
8482.00,0.66
8481.00,0.66
8480.00,0.65
8479.00,0.65
8478.00,0.65
8477.00,0.65
8476.00,0.64
8475.00,0.64
8474.00,0.64
8473.00,0.64
8472.00,0.65
8471.00,0.65
8470.00,0.65
8469.00,0.65
8468.00,0.66
8467.00,0.66
8466.00,0.66
8465.00,0.67
8464.00,0.67
8463.00,0.67
8462.00,0.68
8461.00,0.68
8460.00,0.68
8459.00,0.69
8458.00,0.69
8457.00,0.70
8456.00,0.70
8455.00,0.71
8454.00,0.72
8453.00,0.73
8452.00,0.74
8451.00,0.74
8450.00,0.75
8449.00,0.76
8448.00,0.76
8447.00,0.77
8446.00,0.77
8445.00,0.77
8444.00,0.77
8443.00,0.78
8442.00,0.78
8441.00,0.78
8440.00,0.78
8439.00,0.78
8438.00,0.77
8437.00,0.77
8436.00,0.77
8435.00,0.77
8434.00,0.77
8433.00,0.76
8432.00,0.76
8431.00,0.76
8430.00,0.76
8429.00,0.76
8428.00,0.76
8427.00,0.76
8426.00,0.76
8425.00,0.76
8424.00,0.75
8423.00,0.75
8422.00,0.75
8421.00,0.74
8420.00,0.74
8419.00,0.73
8418.00,0.72
8417.00,0.72
8416.00,0.71
8415.00,0.70
8414.00,0.70
8413.00,0.69
8412.00,0.68
8411.00,0.68
8410.00,0.68
8409.00,0.67
8408.00,0.67
8407.00,0.68
8406.00,0.68
8405.00,0.68
8404.00,0.69
8403.00,0.69
8402.00,0.70
8401.00,0.70
8400.00,0.71
8399.00,0.72
8398.00,0.72
8397.00,0.73
8396.00,0.74
8395.00,0.75
8394.00,0.75
8393.00,0.76
8392.00,0.76
8391.00,0.77
8390.00,0.77
8389.00,0.77
8388.00,0.78
8387.00,0.78
8386.00,0.78
8385.00,0.79
8384.00,0.79
8383.00,0.80
8382.00,0.80
8381.00,0.80
8380.00,0.81
8379.00,0.81
8378.00,0.81
8377.00,0.81
8376.00,0.81
8375.00,0.81
8374.00,0.81
8373.00,0.80
8372.00,0.80
8371.00,0.79
8370.00,0.78
8369.00,0.77
8368.00,0.76
8367.00,0.75
8366.00,0.74
8365.00,0.73
8364.00,0.71
8363.00,0.70
8362.00,0.69
8361.00,0.68
8360.00,0.68
8359.00,0.67
8358.00,0.66
8357.00,0.66
8356.00,0.66
8355.00,0.66
8354.00,0.66
8353.00,0.66
8352.00,0.67
8351.00,0.67
8350.00,0.68
8349.00,0.69
8348.00,0.69
8347.00,0.70
8346.00,0.71
8345.00,0.71
8344.00,0.72
8343.00,0.72
8342.00,0.73
8341.00,0.73
8340.00,0.73
8339.00,0.73
8338.00,0.73
8337.00,0.73
8336.00,0.73
8335.00,0.73
8334.00,0.73
8333.00,0.73
8332.00,0.73
8331.00,0.73
8330.00,0.73
8329.00,0.73
8328.00,0.73
8327.00,0.73
8326.00,0.73
8325.00,0.73
8324.00,0.73
8323.00,0.73
8322.00,0.73
8321.00,0.73
8320.00,0.72
8319.00,0.72
8318.00,0.71
8317.00,0.70
8316.00,0.70
8315.00,0.69
8314.00,0.68
8313.00,0.67
8312.00,0.67
8311.00,0.66
8310.00,0.65
8309.00,0.65
8308.00,0.65
8307.00,0.64
8306.00,0.64
8305.00,0.64
8304.00,0.64
8303.00,0.64
8302.00,0.64
8301.00,0.64
8300.00,0.65
8299.00,0.65
8298.00,0.65
8297.00,0.65
8296.00,0.66
8295.00,0.66
8294.00,0.67
8293.00,0.67
8292.00,0.68
8291.00,0.68
8290.00,0.69
8289.00,0.70
8288.00,0.70
8287.00,0.71
8286.00,0.72
8285.00,0.73
8284.00,0.73
8283.00,0.74
8282.00,0.75
8281.00,0.75
8280.00,0.76
8279.00,0.77
8278.00,0.77
8277.00,0.77
8276.00,0.77
8275.00,0.77
8274.00,0.77
8273.00,0.77
8272.00,0.76
8271.00,0.75
8270.00,0.75
8269.00,0.74
8268.00,0.73
8267.00,0.72
8266.00,0.72
8265.00,0.71
8264.00,0.70
8263.00,0.70
8262.00,0.69
8261.00,0.69
8260.00,0.68
8259.00,0.68
8258.00,0.68
8257.00,0.68
8256.00,0.68
8255.00,0.68
8254.00,0.69
8253.00,0.69
8252.00,0.70
8251.00,0.70
8250.00,0.70
8249.00,0.71
8248.00,0.71
8247.00,0.71
8246.00,0.72
8245.00,0.72
8244.00,0.72
8243.00,0.72
8242.00,0.72
8241.00,0.72
8240.00,0.72
8239.00,0.72
8238.00,0.71
8237.00,0.71
8236.00,0.70
8235.00,0.70
8234.00,0.69
8233.00,0.69
8232.00,0.69
8231.00,0.68
8230.00,0.68
8229.00,0.68
8228.00,0.68
8227.00,0.68
8226.00,0.68
8225.00,0.68
8224.00,0.69
8223.00,0.69
8222.00,0.70
8221.00,0.71
8220.00,0.72
8219.00,0.73
8218.00,0.74
8217.00,0.75
8216.00,0.77
8215.00,0.78
8214.00,0.79
8213.00,0.80
8212.00,0.81
8211.00,0.82
8210.00,0.82
8209.00,0.82
8208.00,0.82
8207.00,0.82
8206.00,0.82
8205.00,0.81
8204.00,0.80
8203.00,0.79
8202.00,0.78
8201.00,0.76
8200.00,0.75
8199.00,0.74
8198.00,0.73
8197.00,0.71
8196.00,0.71
8195.00,0.70
8194.00,0.69
8193.00,0.69
8192.00,0.69
8191.00,0.69
8190.00,0.69
8189.00,0.69
8188.00,0.69
8187.00,0.70
8186.00,0.70
8185.00,0.71
8184.00,0.71
8183.00,0.71
8182.00,0.72
8181.00,0.72
8180.00,0.72
8179.00,0.72
8178.00,0.72
8177.00,0.73
8176.00,0.73
8175.00,0.73
8174.00,0.73
8173.00,0.73
8172.00,0.73
8171.00,0.74
8170.00,0.74
8169.00,0.74
8168.00,0.75
8167.00,0.75
8166.00,0.76
8165.00,0.76
8164.00,0.76
8163.00,0.77
8162.00,0.77
8161.00,0.77
8160.00,0.77
8159.00,0.77
8158.00,0.77
8157.00,0.77
8156.00,0.76
8155.00,0.76
8154.00,0.76
8153.00,0.75
8152.00,0.75
8151.00,0.74
8150.00,0.74
8149.00,0.74
8148.00,0.73
8147.00,0.73
8146.00,0.73
8145.00,0.73
8144.00,0.73
8143.00,0.73
8142.00,0.73
8141.00,0.73
8140.00,0.73
8139.00,0.74
8138.00,0.74
8137.00,0.74
8136.00,0.74
8135.00,0.75
8134.00,0.75
8133.00,0.75
8132.00,0.75
8131.00,0.75
8130.00,0.76
8129.00,0.76
8128.00,0.76
8127.00,0.76
8126.00,0.76
8125.00,0.75
8124.00,0.75
8123.00,0.75
8122.00,0.75
8121.00,0.75
8120.00,0.74
8119.00,0.74
8118.00,0.74
8117.00,0.74
8116.00,0.74
8115.00,0.74
8114.00,0.73
8113.00,0.73
8112.00,0.73
8111.00,0.73
8110.00,0.73
8109.00,0.73
8108.00,0.73
8107.00,0.73
8106.00,0.74
8105.00,0.74
8104.00,0.74
8103.00,0.74
8102.00,0.75
8101.00,0.75
8100.00,0.75
8099.00,0.75
8098.00,0.75
8097.00,0.76
8096.00,0.76
8095.00,0.76
8094.00,0.76
8093.00,0.76
8092.00,0.76
8091.00,0.75
8090.00,0.75
8089.00,0.74
8088.00,0.74
8087.00,0.73
8086.00,0.73
8085.00,0.72
8084.00,0.72
8083.00,0.71
8082.00,0.71
8081.00,0.70
8080.00,0.70
8079.00,0.70
8078.00,0.70
8077.00,0.70
8076.00,0.70
8075.00,0.70
8074.00,0.70
8073.00,0.71
8072.00,0.71
8071.00,0.72
8070.00,0.73
8069.00,0.73
8068.00,0.74
8067.00,0.74
8066.00,0.75
8065.00,0.75
8064.00,0.76
8063.00,0.76
8062.00,0.76
8061.00,0.77
8060.00,0.77
8059.00,0.77
8058.00,0.77
8057.00,0.77
8056.00,0.77
8055.00,0.76
8054.00,0.76
8053.00,0.76
8052.00,0.76
8051.00,0.76
8050.00,0.75
8049.00,0.75
8048.00,0.75
8047.00,0.75
8046.00,0.75
8045.00,0.74
8044.00,0.74
8043.00,0.74
8042.00,0.74
8041.00,0.73
8040.00,0.73
8039.00,0.73
8038.00,0.73
8037.00,0.72
8036.00,0.72
8035.00,0.72
8034.00,0.71
8033.00,0.71
8032.00,0.71
8031.00,0.71
8030.00,0.70
8029.00,0.70
8028.00,0.70
8027.00,0.70
8026.00,0.69
8025.00,0.69
8024.00,0.69
8023.00,0.69
8022.00,0.69
8021.00,0.68
8020.00,0.68
8019.00,0.68
8018.00,0.68
8017.00,0.68
8016.00,0.68
8015.00,0.68
8014.00,0.68
8013.00,0.69
8012.00,0.69
8011.00,0.70
8010.00,0.70
8009.00,0.71
8008.00,0.72
8007.00,0.73
8006.00,0.74
8005.00,0.75
8004.00,0.76
8003.00,0.76
8002.00,0.77
8001.00,0.78
8000.00,0.78
7999.00,0.79
7998.00,0.79
7997.00,0.79
7996.00,0.79
7995.00,0.79
7994.00,0.79
7993.00,0.79
7992.00,0.78
7991.00,0.78
7990.00,0.77
7989.00,0.77
7988.00,0.76
7987.00,0.76
7986.00,0.75
7985.00,0.75
7984.00,0.75
7983.00,0.74
7982.00,0.74
7981.00,0.74
7980.00,0.74
7979.00,0.74
7978.00,0.75
7977.00,0.75
7976.00,0.75
7975.00,0.75
7974.00,0.76
7973.00,0.76
7972.00,0.77
7971.00,0.77
7970.00,0.77
7969.00,0.78
7968.00,0.78
7967.00,0.78
7966.00,0.78
7965.00,0.78
7964.00,0.77
7963.00,0.77
7962.00,0.76
7961.00,0.75
7960.00,0.75
7959.00,0.74
7958.00,0.73
7957.00,0.72
7956.00,0.71
7955.00,0.71
7954.00,0.70
7953.00,0.69
7952.00,0.69
7951.00,0.68
7950.00,0.68
7949.00,0.68
7948.00,0.68
7947.00,0.68
7946.00,0.68
7945.00,0.69
7944.00,0.69
7943.00,0.69
7942.00,0.70
7941.00,0.71
7940.00,0.71
7939.00,0.72
7938.00,0.72
7937.00,0.73
7936.00,0.73
7935.00,0.74
7934.00,0.74
7933.00,0.74
7932.00,0.74
7931.00,0.74
7930.00,0.74
7929.00,0.74
7928.00,0.74
7927.00,0.74
7926.00,0.74
7925.00,0.74
7924.00,0.74
7923.00,0.74
7922.00,0.74
7921.00,0.74
7920.00,0.74
7919.00,0.74
7918.00,0.75
7917.00,0.75
7916.00,0.75
7915.00,0.75
7914.00,0.75
7913.00,0.75
7912.00,0.76
7911.00,0.76
7910.00,0.76
7909.00,0.76
7908.00,0.75
7907.00,0.75
7906.00,0.75
7905.00,0.75
7904.00,0.74
7903.00,0.74
7902.00,0.73
7901.00,0.73
7900.00,0.72
7899.00,0.72
7898.00,0.71
7897.00,0.71
7896.00,0.70
7895.00,0.70
7894.00,0.70
7893.00,0.69
7892.00,0.69
7891.00,0.69
7890.00,0.68
7889.00,0.68
7888.00,0.68
7887.00,0.68
7886.00,0.67
7885.00,0.67
7884.00,0.67
7883.00,0.67
7882.00,0.67
7881.00,0.68
7880.00,0.68
7879.00,0.68
7878.00,0.68
7877.00,0.69
7876.00,0.69
7875.00,0.69
7874.00,0.70
7873.00,0.71
7872.00,0.71
7871.00,0.72
7870.00,0.73
7869.00,0.74
7868.00,0.75
7867.00,0.75
7866.00,0.76
7865.00,0.77
7864.00,0.77
7863.00,0.78
7862.00,0.78
7861.00,0.78
7860.00,0.78
7859.00,0.79
7858.00,0.79
7857.00,0.79
7856.00,0.78
7855.00,0.78
7854.00,0.78
7853.00,0.78
7852.00,0.77
7851.00,0.77
7850.00,0.76
7849.00,0.76
7848.00,0.76
7847.00,0.76
7846.00,0.76
7845.00,0.76
7844.00,0.76
7843.00,0.76
7842.00,0.76
7841.00,0.76
7840.00,0.76
7839.00,0.76
7838.00,0.76
7837.00,0.76
7836.00,0.76
7835.00,0.77
7834.00,0.77
7833.00,0.77
7832.00,0.77
7831.00,0.77
7830.00,0.76
7829.00,0.76
7828.00,0.76
7827.00,0.76
7826.00,0.76
7825.00,0.75
7824.00,0.75
7823.00,0.75
7822.00,0.75
7821.00,0.75
7820.00,0.75
7819.00,0.75
7818.00,0.74
7817.00,0.74
7816.00,0.74
7815.00,0.74
7814.00,0.74
7813.00,0.74
7812.00,0.74
7811.00,0.73
7810.00,0.73
7809.00,0.74
7808.00,0.74
7807.00,0.74
7806.00,0.74
7805.00,0.74
7804.00,0.74
7803.00,0.74
7802.00,0.74
7801.00,0.74
7800.00,0.75
7799.00,0.75
7798.00,0.75
7797.00,0.75
7796.00,0.76
7795.00,0.76
7794.00,0.76
7793.00,0.76
7792.00,0.75
7791.00,0.75
7790.00,0.75
7789.00,0.74
7788.00,0.74
7787.00,0.73
7786.00,0.73
7785.00,0.73
7784.00,0.72
7783.00,0.72
7782.00,0.71
7781.00,0.71
7780.00,0.71
7779.00,0.71
7778.00,0.70
7777.00,0.70
7776.00,0.71
7775.00,0.71
7774.00,0.71
7773.00,0.71
7772.00,0.71
7771.00,0.72
7770.00,0.72
7769.00,0.72
7768.00,0.72
7767.00,0.72
7766.00,0.73
7765.00,0.73
7764.00,0.73
7763.00,0.73
7762.00,0.73
7761.00,0.73
7760.00,0.73
7759.00,0.73
7758.00,0.74
7757.00,0.74
7756.00,0.74
7755.00,0.74
7754.00,0.74
7753.00,0.75
7752.00,0.75
7751.00,0.75
7750.00,0.75
7749.00,0.76
7748.00,0.76
7747.00,0.76
7746.00,0.76
7745.00,0.76
7744.00,0.76
7743.00,0.77
7742.00,0.77
7741.00,0.77
7740.00,0.77
7739.00,0.77
7738.00,0.78
7737.00,0.78
7736.00,0.78
7735.00,0.78
7734.00,0.78
7733.00,0.78
7732.00,0.78
7731.00,0.78
7730.00,0.78
7729.00,0.78
7728.00,0.78
7727.00,0.78
7726.00,0.78
7725.00,0.77
7724.00,0.77
7723.00,0.77
7722.00,0.77
7721.00,0.77
7720.00,0.76
7719.00,0.76
7718.00,0.76
7717.00,0.76
7716.00,0.76
7715.00,0.76
7714.00,0.77
7713.00,0.77
7712.00,0.77
7711.00,0.78
7710.00,0.78
7709.00,0.78
7708.00,0.79
7707.00,0.79
7706.00,0.79
7705.00,0.80
7704.00,0.80
7703.00,0.80
7702.00,0.80
7701.00,0.80
7700.00,0.80
7699.00,0.79
7698.00,0.79
7697.00,0.79
7696.00,0.78
7695.00,0.78
7694.00,0.77
7693.00,0.77
7692.00,0.76
7691.00,0.76
7690.00,0.76
7689.00,0.75
7688.00,0.75
7687.00,0.75
7686.00,0.74
7685.00,0.74
7684.00,0.74
7683.00,0.74
7682.00,0.74
7681.00,0.74
7680.00,0.74
7679.00,0.74
7678.00,0.74
7677.00,0.74
7676.00,0.74
7675.00,0.74
7674.00,0.75
7673.00,0.75
7672.00,0.75
7671.00,0.75
7670.00,0.75
7669.00,0.75
7668.00,0.76
7667.00,0.76
7666.00,0.76
7665.00,0.77
7664.00,0.77
7663.00,0.78
7662.00,0.78
7661.00,0.78
7660.00,0.79
7659.00,0.79
7658.00,0.79
7657.00,0.80
7656.00,0.80
7655.00,0.80
7654.00,0.80
7653.00,0.80
7652.00,0.80
7651.00,0.80
7650.00,0.80
7649.00,0.80
7648.00,0.79
7647.00,0.79
7646.00,0.79
7645.00,0.78
7644.00,0.78
7643.00,0.77
7642.00,0.77
7641.00,0.77
7640.00,0.76
7639.00,0.76
7638.00,0.76
7637.00,0.76
7636.00,0.76
7635.00,0.76
7634.00,0.77
7633.00,0.77
7632.00,0.77
7631.00,0.78
7630.00,0.78
7629.00,0.78
7628.00,0.79
7627.00,0.79
7626.00,0.79
7625.00,0.79
7624.00,0.79
7623.00,0.80
7622.00,0.80
7621.00,0.80
7620.00,0.80
7619.00,0.79
7618.00,0.79
7617.00,0.79
7616.00,0.79
7615.00,0.78
7614.00,0.78
7613.00,0.78
7612.00,0.78
7611.00,0.78
7610.00,0.78
7609.00,0.78
7608.00,0.78
7607.00,0.78
7606.00,0.78
7605.00,0.78
7604.00,0.78
7603.00,0.78
7602.00,0.78
7601.00,0.78
7600.00,0.77
7599.00,0.77
7598.00,0.77
7597.00,0.77
7596.00,0.76
7595.00,0.76
7594.00,0.75
7593.00,0.75
7592.00,0.74
7591.00,0.74
7590.00,0.73
7589.00,0.73
7588.00,0.72
7587.00,0.72
7586.00,0.71
7585.00,0.71
7584.00,0.71
7583.00,0.70
7582.00,0.70
7581.00,0.70
7580.00,0.70
7579.00,0.70
7578.00,0.70
7577.00,0.70
7576.00,0.70
7575.00,0.70
7574.00,0.70
7573.00,0.70
7572.00,0.71
7571.00,0.71
7570.00,0.71
7569.00,0.71
7568.00,0.71
7567.00,0.72
7566.00,0.72
7565.00,0.72
7564.00,0.72
7563.00,0.73
7562.00,0.73
7561.00,0.73
7560.00,0.73
7559.00,0.74
7558.00,0.74
7557.00,0.74
7556.00,0.74
7555.00,0.74
7554.00,0.74
7553.00,0.74
7552.00,0.74
7551.00,0.74
7550.00,0.74
7549.00,0.74
7548.00,0.74
7547.00,0.74
7546.00,0.74
7545.00,0.74
7544.00,0.74
7543.00,0.75
7542.00,0.75
7541.00,0.75
7540.00,0.75
7539.00,0.75
7538.00,0.75
7537.00,0.76
7536.00,0.76
7535.00,0.76
7534.00,0.76
7533.00,0.76
7532.00,0.76
7531.00,0.76
7530.00,0.76
7529.00,0.77
7528.00,0.77
7527.00,0.77
7526.00,0.77
7525.00,0.77
7524.00,0.77
7523.00,0.77
7522.00,0.77
7521.00,0.78
7520.00,0.78
7519.00,0.78
7518.00,0.78
7517.00,0.78
7516.00,0.78
7515.00,0.78
7514.00,0.78
7513.00,0.78
7512.00,0.77
7511.00,0.77
7510.00,0.77
7509.00,0.77
7508.00,0.77
7507.00,0.76
7506.00,0.76
7505.00,0.76
7504.00,0.76
7503.00,0.76
7502.00,0.76
7501.00,0.76
7500.00,0.76
7499.00,0.77
7498.00,0.77
7497.00,0.77
7496.00,0.78
7495.00,0.78
7494.00,0.79
7493.00,0.79
7492.00,0.80
7491.00,0.80
7490.00,0.81
7489.00,0.81
7488.00,0.82
7487.00,0.82
7486.00,0.82
7485.00,0.82
7484.00,0.83
7483.00,0.83
7482.00,0.83
7481.00,0.82
7480.00,0.82
7479.00,0.82
7478.00,0.82
7477.00,0.82
7476.00,0.82
7475.00,0.82
7474.00,0.81
7473.00,0.81
7472.00,0.81
7471.00,0.80
7470.00,0.80
7469.00,0.80
7468.00,0.79
7467.00,0.79
7466.00,0.79
7465.00,0.79
7464.00,0.78
7463.00,0.78
7462.00,0.78
7461.00,0.77
7460.00,0.77
7459.00,0.77
7458.00,0.77
7457.00,0.77
7456.00,0.77
7455.00,0.77
7454.00,0.77
7453.00,0.77
7452.00,0.77
7451.00,0.77
7450.00,0.77
7449.00,0.77
7448.00,0.77
7447.00,0.77
7446.00,0.77
7445.00,0.77
7444.00,0.77
7443.00,0.77
7442.00,0.77
7441.00,0.77
7440.00,0.76
7439.00,0.76
7438.00,0.76
7437.00,0.75
7436.00,0.75
7435.00,0.74
7434.00,0.74
7433.00,0.73
7432.00,0.73
7431.00,0.73
7430.00,0.72
7429.00,0.72
7428.00,0.72
7427.00,0.72
7426.00,0.72
7425.00,0.72
7424.00,0.72
7423.00,0.72
7422.00,0.73
7421.00,0.73
7420.00,0.73
7419.00,0.74
7418.00,0.74
7417.00,0.75
7416.00,0.75
7415.00,0.76
7414.00,0.76
7413.00,0.76
7412.00,0.77
7411.00,0.77
7410.00,0.77
7409.00,0.77
7408.00,0.77
7407.00,0.77
7406.00,0.78
7405.00,0.78
7404.00,0.78
7403.00,0.78
7402.00,0.78
7401.00,0.78
7400.00,0.78
7399.00,0.78
7398.00,0.78
7397.00,0.78
7396.00,0.78
7395.00,0.78
7394.00,0.78
7393.00,0.78
7392.00,0.78
7391.00,0.78
7390.00,0.78
7389.00,0.77
7388.00,0.77
7387.00,0.77
7386.00,0.77
7385.00,0.76
7384.00,0.76
7383.00,0.76
7382.00,0.75
7381.00,0.75
7380.00,0.75
7379.00,0.74
7378.00,0.74
7377.00,0.74
7376.00,0.74
7375.00,0.74
7374.00,0.74
7373.00,0.74
7372.00,0.74
7371.00,0.74
7370.00,0.74
7369.00,0.74
7368.00,0.75
7367.00,0.75
7366.00,0.75
7365.00,0.75
7364.00,0.76
7363.00,0.76
7362.00,0.76
7361.00,0.76
7360.00,0.76
7359.00,0.76
7358.00,0.75
7357.00,0.75
7356.00,0.75
7355.00,0.74
7354.00,0.74
7353.00,0.73
7352.00,0.73
7351.00,0.72
7350.00,0.71
7349.00,0.71
7348.00,0.70
7347.00,0.69
7346.00,0.69
7345.00,0.68
7344.00,0.68
7343.00,0.67
7342.00,0.67
7341.00,0.67
7340.00,0.67
7339.00,0.67
7338.00,0.67
7337.00,0.67
7336.00,0.68
7335.00,0.68
7334.00,0.68
7333.00,0.69
7332.00,0.69
7331.00,0.69
7330.00,0.70
7329.00,0.71
7328.00,0.71
7327.00,0.72
7326.00,0.72
7325.00,0.73
7324.00,0.73
7323.00,0.73
7322.00,0.74
7321.00,0.74
7320.00,0.74
7319.00,0.74
7318.00,0.74
7317.00,0.74
7316.00,0.74
7315.00,0.74
7314.00,0.73
7313.00,0.73
7312.00,0.73
7311.00,0.73
7310.00,0.73
7309.00,0.73
7308.00,0.73
7307.00,0.73
7306.00,0.72
7305.00,0.72
7304.00,0.72
7303.00,0.72
7302.00,0.72
7301.00,0.72
7300.00,0.73
7299.00,0.73
7298.00,0.73
7297.00,0.73
7296.00,0.73
7295.00,0.74
7294.00,0.74
7293.00,0.74
7292.00,0.74
7291.00,0.74
7290.00,0.75
7289.00,0.75
7288.00,0.75
7287.00,0.76
7286.00,0.76
7285.00,0.77
7284.00,0.77
7283.00,0.78
7282.00,0.78
7281.00,0.79
7280.00,0.79
7279.00,0.79
7278.00,0.79
7277.00,0.79
7276.00,0.79
7275.00,0.79
7274.00,0.79
7273.00,0.79
7272.00,0.79
7271.00,0.78
7270.00,0.77
7269.00,0.77
7268.00,0.76
7267.00,0.75
7266.00,0.74
7265.00,0.74
7264.00,0.73
7263.00,0.72
7262.00,0.72
7261.00,0.71
7260.00,0.70
7259.00,0.70
7258.00,0.70
7257.00,0.69
7256.00,0.69
7255.00,0.69
7254.00,0.69
7253.00,0.69
7252.00,0.69
7251.00,0.69
7250.00,0.69
7249.00,0.69
7248.00,0.69
7247.00,0.69
7246.00,0.69
7245.00,0.68
7244.00,0.68
7243.00,0.68
7242.00,0.67
7241.00,0.67
7240.00,0.66
7239.00,0.66
7238.00,0.65
7237.00,0.65
7236.00,0.64
7235.00,0.64
7234.00,0.64
7233.00,0.63
7232.00,0.63
7231.00,0.63
7230.00,0.64
7229.00,0.64
7228.00,0.64
7227.00,0.64
7226.00,0.65
7225.00,0.66
7224.00,0.66
7223.00,0.67
7222.00,0.68
7221.00,0.68
7220.00,0.69
7219.00,0.70
7218.00,0.70
7217.00,0.71
7216.00,0.71
7215.00,0.72
7214.00,0.72
7213.00,0.72
7212.00,0.72
7211.00,0.72
7210.00,0.72
7209.00,0.72
7208.00,0.72
7207.00,0.72
7206.00,0.72
7205.00,0.71
7204.00,0.71
7203.00,0.70
7202.00,0.70
7201.00,0.70
7200.00,0.69
7199.00,0.69
7198.00,0.68
7197.00,0.68
7196.00,0.67
7195.00,0.67
7194.00,0.67
7193.00,0.66
7192.00,0.66
7191.00,0.65
7190.00,0.65
7189.00,0.65
7188.00,0.65
7187.00,0.64
7186.00,0.64
7185.00,0.64
7184.00,0.64
7183.00,0.64
7182.00,0.64
7181.00,0.64
7180.00,0.64
7179.00,0.65
7178.00,0.65
7177.00,0.65
7176.00,0.66
7175.00,0.66
7174.00,0.67
7173.00,0.67
7172.00,0.68
7171.00,0.68
7170.00,0.68
7169.00,0.69
7168.00,0.69
7167.00,0.69
7166.00,0.69
7165.00,0.70
7164.00,0.70
7163.00,0.70
7162.00,0.70
7161.00,0.70
7160.00,0.70
7159.00,0.70
7158.00,0.70
7157.00,0.70
7156.00,0.70
7155.00,0.70
7154.00,0.69
7153.00,0.69
7152.00,0.70
7151.00,0.70
7150.00,0.70
7149.00,0.70
7148.00,0.70
7147.00,0.70
7146.00,0.70
7145.00,0.70
7144.00,0.70
7143.00,0.69
7142.00,0.69
7141.00,0.69
7140.00,0.69
7139.00,0.69
7138.00,0.68
7137.00,0.68
7136.00,0.68
7135.00,0.68
7134.00,0.67
7133.00,0.67
7132.00,0.67
7131.00,0.67
7130.00,0.67
7129.00,0.67
7128.00,0.67
7127.00,0.67
7126.00,0.67
7125.00,0.67
7124.00,0.67
7123.00,0.68
7122.00,0.68
7121.00,0.68
7120.00,0.68
7119.00,0.68
7118.00,0.68
7117.00,0.68
7116.00,0.68
7115.00,0.68
7114.00,0.68
7113.00,0.68
7112.00,0.68
7111.00,0.68
7110.00,0.67
7109.00,0.67
7108.00,0.67
7107.00,0.67
7106.00,0.67
7105.00,0.67
7104.00,0.67
7103.00,0.67
7102.00,0.67
7101.00,0.67
7100.00,0.67
7099.00,0.67
7098.00,0.66
7097.00,0.66
7096.00,0.66
7095.00,0.66
7094.00,0.66
7093.00,0.66
7092.00,0.66
7091.00,0.66
7090.00,0.66
7089.00,0.66
7088.00,0.66
7087.00,0.66
7086.00,0.66
7085.00,0.66
7084.00,0.67
7083.00,0.67
7082.00,0.67
7081.00,0.67
7080.00,0.67
7079.00,0.67
7078.00,0.68
7077.00,0.68
7076.00,0.68
7075.00,0.68
7074.00,0.68
7073.00,0.69
7072.00,0.69
7071.00,0.69
7070.00,0.68
7069.00,0.68
7068.00,0.68
7067.00,0.68
7066.00,0.68
7065.00,0.68
7064.00,0.68
7063.00,0.68
7062.00,0.68
7061.00,0.68
7060.00,0.68
7059.00,0.69
7058.00,0.69
7057.00,0.69
7056.00,0.69
7055.00,0.69
7054.00,0.70
7053.00,0.70
7052.00,0.70
7051.00,0.70
7050.00,0.70
7049.00,0.70
7048.00,0.70
7047.00,0.70
7046.00,0.70
7045.00,0.70
7044.00,0.70
7043.00,0.69
7042.00,0.69
7041.00,0.69
7040.00,0.68
7039.00,0.68
7038.00,0.68
7037.00,0.67
7036.00,0.67
7035.00,0.67
7034.00,0.66
7033.00,0.66
7032.00,0.66
7031.00,0.66
7030.00,0.66
7029.00,0.66
7028.00,0.66
7027.00,0.66
7026.00,0.66
7025.00,0.66
7024.00,0.66
7023.00,0.66
7022.00,0.66
7021.00,0.66
7020.00,0.66
7019.00,0.65
7018.00,0.65
7017.00,0.65
7016.00,0.65
7015.00,0.65
7014.00,0.64
7013.00,0.64
7012.00,0.64
7011.00,0.64
7010.00,0.64
7009.00,0.64
7008.00,0.64
7007.00,0.64
7006.00,0.64
7005.00,0.64
7004.00,0.65
7003.00,0.65
7002.00,0.66
7001.00,0.66
7000.00,0.67
6999.00,0.67
6998.00,0.68
6997.00,0.68
6996.00,0.69
6995.00,0.69
6994.00,0.70
6993.00,0.70
6992.00,0.71
6991.00,0.71
6990.00,0.71
6989.00,0.71
6988.00,0.72
6987.00,0.72
6986.00,0.72
6985.00,0.72
6984.00,0.72
6983.00,0.72
6982.00,0.72
6981.00,0.72
6980.00,0.72
6979.00,0.72
6978.00,0.72
6977.00,0.72
6976.00,0.72
6975.00,0.71
6974.00,0.71
6973.00,0.71
6972.00,0.71
6971.00,0.71
6970.00,0.70
6969.00,0.70
6968.00,0.70
6967.00,0.69
6966.00,0.69
6965.00,0.69
6964.00,0.69
6963.00,0.68
6962.00,0.68
6961.00,0.68
6960.00,0.68
6959.00,0.68
6958.00,0.67
6957.00,0.67
6956.00,0.67
6955.00,0.67
6954.00,0.67
6953.00,0.67
6952.00,0.68
6951.00,0.68
6950.00,0.68
6949.00,0.68
6948.00,0.68
6947.00,0.68
6946.00,0.68
6945.00,0.68
6944.00,0.68
6943.00,0.68
6942.00,0.68
6941.00,0.67
6940.00,0.67
6939.00,0.67
6938.00,0.67
6937.00,0.67
6936.00,0.67
6935.00,0.66
6934.00,0.66
6933.00,0.66
6932.00,0.66
6931.00,0.66
6930.00,0.66
6929.00,0.66
6928.00,0.66
6927.00,0.67
6926.00,0.67
6925.00,0.67
6924.00,0.67
6923.00,0.67
6922.00,0.68
6921.00,0.68
6920.00,0.68
6919.00,0.68
6918.00,0.68
6917.00,0.69
6916.00,0.69
6915.00,0.69
6914.00,0.69
6913.00,0.69
6912.00,0.69
6911.00,0.69
6910.00,0.70
6909.00,0.70
6908.00,0.70
6907.00,0.70
6906.00,0.70
6905.00,0.70
6904.00,0.70
6903.00,0.70
6902.00,0.70
6901.00,0.70
6900.00,0.70
6899.00,0.70
6898.00,0.70
6897.00,0.70
6896.00,0.70
6895.00,0.70
6894.00,0.71
6893.00,0.71
6892.00,0.71
6891.00,0.71
6890.00,0.71
6889.00,0.71
6888.00,0.71
6887.00,0.71
6886.00,0.71
6885.00,0.71
6884.00,0.71
6883.00,0.71
6882.00,0.71
6881.00,0.71
6880.00,0.71
6879.00,0.71
6878.00,0.70
6877.00,0.70
6876.00,0.70
6875.00,0.69
6874.00,0.69
6873.00,0.69
6872.00,0.69
6871.00,0.68
6870.00,0.68
6869.00,0.68
6868.00,0.68
6867.00,0.67
6866.00,0.67
6865.00,0.67
6864.00,0.67
6863.00,0.67
6862.00,0.66
6861.00,0.66
6860.00,0.66
6859.00,0.66
6858.00,0.66
6857.00,0.66
6856.00,0.65
6855.00,0.65
6854.00,0.65
6853.00,0.65
6852.00,0.64
6851.00,0.64
6850.00,0.64
6849.00,0.64
6848.00,0.64
6847.00,0.63
6846.00,0.63
6845.00,0.63
6844.00,0.63
6843.00,0.63
6842.00,0.63
6841.00,0.63
6840.00,0.63
6839.00,0.63
6838.00,0.63
6837.00,0.63
6836.00,0.63
6835.00,0.64
6834.00,0.64
6833.00,0.64
6832.00,0.64
6831.00,0.64
6830.00,0.64
6829.00,0.65
6828.00,0.65
6827.00,0.65
6826.00,0.65
6825.00,0.65
6824.00,0.65
6823.00,0.65
6822.00,0.65
6821.00,0.64
6820.00,0.64
6819.00,0.64
6818.00,0.64
6817.00,0.64
6816.00,0.64
6815.00,0.64
6814.00,0.64
6813.00,0.64
6812.00,0.64
6811.00,0.64
6810.00,0.64
6809.00,0.63
6808.00,0.63
6807.00,0.63
6806.00,0.63
6805.00,0.63
6804.00,0.64
6803.00,0.64
6802.00,0.64
6801.00,0.64
6800.00,0.64
6799.00,0.64
6798.00,0.65
6797.00,0.65
6796.00,0.65
6795.00,0.65
6794.00,0.66
6793.00,0.66
6792.00,0.67
6791.00,0.67
6790.00,0.67
6789.00,0.68
6788.00,0.68
6787.00,0.69
6786.00,0.69
6785.00,0.69
6784.00,0.69
6783.00,0.70
6782.00,0.70
6781.00,0.70
6780.00,0.70
6779.00,0.70
6778.00,0.70
6777.00,0.70
6776.00,0.70
6775.00,0.69
6774.00,0.69
6773.00,0.69
6772.00,0.69
6771.00,0.69
6770.00,0.69
6769.00,0.69
6768.00,0.69
6767.00,0.69
6766.00,0.69
6765.00,0.70
6764.00,0.70
6763.00,0.70
6762.00,0.70
6761.00,0.71
6760.00,0.71
6759.00,0.71
6758.00,0.72
6757.00,0.72
6756.00,0.72
6755.00,0.72
6754.00,0.72
6753.00,0.72
6752.00,0.72
6751.00,0.72
6750.00,0.72
6749.00,0.72
6748.00,0.72
6747.00,0.72
6746.00,0.71
6745.00,0.71
6744.00,0.70
6743.00,0.70
6742.00,0.69
6741.00,0.69
6740.00,0.68
6739.00,0.68
6738.00,0.68
6737.00,0.67
6736.00,0.67
6735.00,0.67
6734.00,0.67
6733.00,0.66
6732.00,0.66
6731.00,0.66
6730.00,0.66
6729.00,0.66
6728.00,0.66
6727.00,0.66
6726.00,0.67
6725.00,0.67
6724.00,0.67
6723.00,0.68
6722.00,0.68
6721.00,0.68
6720.00,0.69
6719.00,0.69
6718.00,0.69
6717.00,0.70
6716.00,0.70
6715.00,0.70
6714.00,0.70
6713.00,0.70
6712.00,0.70
6711.00,0.70
6710.00,0.70
6709.00,0.70
6708.00,0.70
6707.00,0.70
6706.00,0.70
6705.00,0.70
6704.00,0.69
6703.00,0.69
6702.00,0.69
6701.00,0.69
6700.00,0.68
6699.00,0.68
6698.00,0.68
6697.00,0.68
6696.00,0.67
6695.00,0.67
6694.00,0.67
6693.00,0.67
6692.00,0.67
6691.00,0.67
6690.00,0.67
6689.00,0.67
6688.00,0.67
6687.00,0.67
6686.00,0.67
6685.00,0.67
6684.00,0.67
6683.00,0.67
6682.00,0.67
6681.00,0.67
6680.00,0.67
6679.00,0.67
6678.00,0.67
6677.00,0.66
6676.00,0.66
6675.00,0.66
6674.00,0.66
6673.00,0.66
6672.00,0.66
6671.00,0.66
6670.00,0.66
6669.00,0.66
6668.00,0.66
6667.00,0.67
6666.00,0.67
6665.00,0.67
6664.00,0.68
6663.00,0.68
6662.00,0.69
6661.00,0.69
6660.00,0.70
6659.00,0.70
6658.00,0.71
6657.00,0.71
6656.00,0.71
6655.00,0.72
6654.00,0.72
6653.00,0.72
6652.00,0.72
6651.00,0.72
6650.00,0.72
6649.00,0.72
6648.00,0.72
6647.00,0.72
6646.00,0.71
6645.00,0.71
6644.00,0.71
6643.00,0.70
6642.00,0.70
6641.00,0.70
6640.00,0.70
6639.00,0.70
6638.00,0.70
6637.00,0.70
6636.00,0.70
6635.00,0.70
6634.00,0.70
6633.00,0.70
6632.00,0.70
6631.00,0.70
6630.00,0.70
6629.00,0.70
6628.00,0.70
6627.00,0.70
6626.00,0.70
6625.00,0.70
6624.00,0.70
6623.00,0.70
6622.00,0.70
6621.00,0.70
6620.00,0.70
6619.00,0.70
6618.00,0.69
6617.00,0.69
6616.00,0.69
6615.00,0.69
6614.00,0.69
6613.00,0.69
6612.00,0.69
6611.00,0.69
6610.00,0.69
6609.00,0.69
6608.00,0.69
6607.00,0.70
6606.00,0.70
6605.00,0.70
6604.00,0.70
6603.00,0.71
6602.00,0.71
6601.00,0.71
6600.00,0.71
6599.00,0.71
6598.00,0.72
6597.00,0.72
6596.00,0.72
6595.00,0.72
6594.00,0.72
6593.00,0.72
6592.00,0.72
6591.00,0.73
6590.00,0.73
6589.00,0.73
6588.00,0.73
6587.00,0.73
6586.00,0.73
6585.00,0.73
6584.00,0.73
6583.00,0.73
6582.00,0.73
6581.00,0.73
6580.00,0.73
6579.00,0.73
6578.00,0.73
6577.00,0.74
6576.00,0.74
6575.00,0.74
6574.00,0.74
6573.00,0.74
6572.00,0.74
6571.00,0.74
6570.00,0.74
6569.00,0.74
6568.00,0.74
6567.00,0.74
6566.00,0.75
6565.00,0.75
6564.00,0.75
6563.00,0.75
6562.00,0.75
6561.00,0.75
6560.00,0.75
6559.00,0.75
6558.00,0.75
6557.00,0.75
6556.00,0.75
6555.00,0.75
6554.00,0.75
6553.00,0.75
6552.00,0.74
6551.00,0.74
6550.00,0.74
6549.00,0.73
6548.00,0.73
6547.00,0.72
6546.00,0.72
6545.00,0.72
6544.00,0.72
6543.00,0.72
6542.00,0.71
6541.00,0.71
6540.00,0.71
6539.00,0.71
6538.00,0.71
6537.00,0.71
6536.00,0.71
6535.00,0.72
6534.00,0.72
6533.00,0.72
6532.00,0.72
6531.00,0.72
6530.00,0.72
6529.00,0.72
6528.00,0.72
6527.00,0.72
6526.00,0.72
6525.00,0.72
6524.00,0.72
6523.00,0.72
6522.00,0.72
6521.00,0.72
6520.00,0.72
6519.00,0.72
6518.00,0.72
6517.00,0.71
6516.00,0.71
6515.00,0.71
6514.00,0.71
6513.00,0.72
6512.00,0.72
6511.00,0.72
6510.00,0.73
6509.00,0.73
6508.00,0.73
6507.00,0.74
6506.00,0.74
6505.00,0.75
6504.00,0.75
6503.00,0.75
6502.00,0.76
6501.00,0.76
6500.00,0.76
6499.00,0.77
6498.00,0.77
6497.00,0.77
6496.00,0.77
6495.00,0.77
6494.00,0.76
6493.00,0.76
6492.00,0.76
6491.00,0.76
6490.00,0.75
6489.00,0.75
6488.00,0.75
6487.00,0.74
6486.00,0.74
6485.00,0.73
6484.00,0.73
6483.00,0.73
6482.00,0.73
6481.00,0.72
6480.00,0.72
6479.00,0.72
6478.00,0.72
6477.00,0.72
6476.00,0.72
6475.00,0.72
6474.00,0.72
6473.00,0.72
6472.00,0.72
6471.00,0.71
6470.00,0.71
6469.00,0.71
6468.00,0.71
6467.00,0.71
6466.00,0.71
6465.00,0.71
6464.00,0.71
6463.00,0.71
6462.00,0.70
6461.00,0.70
6460.00,0.70
6459.00,0.70
6458.00,0.70
6457.00,0.70
6456.00,0.70
6455.00,0.70
6454.00,0.70
6453.00,0.70
6452.00,0.70
6451.00,0.70
6450.00,0.70
6449.00,0.70
6448.00,0.70
6447.00,0.70
6446.00,0.70
6445.00,0.70
6444.00,0.71
6443.00,0.71
6442.00,0.71
6441.00,0.71
6440.00,0.71
6439.00,0.71
6438.00,0.71
6437.00,0.71
6436.00,0.72
6435.00,0.72
6434.00,0.72
6433.00,0.72
6432.00,0.72
6431.00,0.72
6430.00,0.72
6429.00,0.71
6428.00,0.71
6427.00,0.71
6426.00,0.71
6425.00,0.71
6424.00,0.71
6423.00,0.70
6422.00,0.70
6421.00,0.70
6420.00,0.70
6419.00,0.70
6418.00,0.70
6417.00,0.69
6416.00,0.69
6415.00,0.69
6414.00,0.70
6413.00,0.70
6412.00,0.70
6411.00,0.70
6410.00,0.70
6409.00,0.71
6408.00,0.71
6407.00,0.72
6406.00,0.72
6405.00,0.72
6404.00,0.73
6403.00,0.73
6402.00,0.74
6401.00,0.74
6400.00,0.74
6399.00,0.75
6398.00,0.75
6397.00,0.75
6396.00,0.75
6395.00,0.76
6394.00,0.76
6393.00,0.76
6392.00,0.76
6391.00,0.76
6390.00,0.76
6389.00,0.76
6388.00,0.75
6387.00,0.75
6386.00,0.75
6385.00,0.75
6384.00,0.75
6383.00,0.75
6382.00,0.75
6381.00,0.75
6380.00,0.75
6379.00,0.75
6378.00,0.75
6377.00,0.74
6376.00,0.74
6375.00,0.74
6374.00,0.74
6373.00,0.73
6372.00,0.73
6371.00,0.73
6370.00,0.73
6369.00,0.72
6368.00,0.72
6367.00,0.72
6366.00,0.72
6365.00,0.71
6364.00,0.71
6363.00,0.71
6362.00,0.71
6361.00,0.71
6360.00,0.71
6359.00,0.71
6358.00,0.72
6357.00,0.72
6356.00,0.72
6355.00,0.72
6354.00,0.73
6353.00,0.73
6352.00,0.74
6351.00,0.74
6350.00,0.74
6349.00,0.75
6348.00,0.75
6347.00,0.75
6346.00,0.75
6345.00,0.75
6344.00,0.75
6343.00,0.75
6342.00,0.75
6341.00,0.75
6340.00,0.75
6339.00,0.75
6338.00,0.75
6337.00,0.75
6336.00,0.75
6335.00,0.75
6334.00,0.74
6333.00,0.74
6332.00,0.74
6331.00,0.74
6330.00,0.74
6329.00,0.74
6328.00,0.74
6327.00,0.74
6326.00,0.75
6325.00,0.75
6324.00,0.75
6323.00,0.75
6322.00,0.75
6321.00,0.75
6320.00,0.76
6319.00,0.76
6318.00,0.76
6317.00,0.76
6316.00,0.76
6315.00,0.76
6314.00,0.76
6313.00,0.76
6312.00,0.76
6311.00,0.75
6310.00,0.75
6309.00,0.75
6308.00,0.75
6307.00,0.75
6306.00,0.74
6305.00,0.74
6304.00,0.74
6303.00,0.73
6302.00,0.73
6301.00,0.73
6300.00,0.72
6299.00,0.72
6298.00,0.72
6297.00,0.72
6296.00,0.72
6295.00,0.72
6294.00,0.72
6293.00,0.72
6292.00,0.72
6291.00,0.72
6290.00,0.72
6289.00,0.72
6288.00,0.72
6287.00,0.72
6286.00,0.73
6285.00,0.73
6284.00,0.73
6283.00,0.73
6282.00,0.73
6281.00,0.73
6280.00,0.74
6279.00,0.74
6278.00,0.74
6277.00,0.74
6276.00,0.74
6275.00,0.74
6274.00,0.75
6273.00,0.75
6272.00,0.75
6271.00,0.75
6270.00,0.75
6269.00,0.75
6268.00,0.75
6267.00,0.75
6266.00,0.76
6265.00,0.76
6264.00,0.76
6263.00,0.76
6262.00,0.76
6261.00,0.76
6260.00,0.76
6259.00,0.75
6258.00,0.75
6257.00,0.76
6256.00,0.76
6255.00,0.76
6254.00,0.76
6253.00,0.76
6252.00,0.76
6251.00,0.76
6250.00,0.76
6249.00,0.76
6248.00,0.76
6247.00,0.76
6246.00,0.76
6245.00,0.76
6244.00,0.76
6243.00,0.76
6242.00,0.76
6241.00,0.76
6240.00,0.76
6239.00,0.76
6238.00,0.76
6237.00,0.76
6236.00,0.76
6235.00,0.76
6234.00,0.76
6233.00,0.76
6232.00,0.76
6231.00,0.76
6230.00,0.76
6229.00,0.76
6228.00,0.76
6227.00,0.76
6226.00,0.76
6225.00,0.76
6224.00,0.75
6223.00,0.75
6222.00,0.75
6221.00,0.75
6220.00,0.75
6219.00,0.76
6218.00,0.76
6217.00,0.76
6216.00,0.76
6215.00,0.76
6214.00,0.76
6213.00,0.76
6212.00,0.76
6211.00,0.76
6210.00,0.77
6209.00,0.77
6208.00,0.77
6207.00,0.78
6206.00,0.78
6205.00,0.78
6204.00,0.79
6203.00,0.79
6202.00,0.79
6201.00,0.79
6200.00,0.79
6199.00,0.79
6198.00,0.79
6197.00,0.79
6196.00,0.79
6195.00,0.79
6194.00,0.79
6193.00,0.78
6192.00,0.78
6191.00,0.78
6190.00,0.77
6189.00,0.77
6188.00,0.77
6187.00,0.77
6186.00,0.77
6185.00,0.77
6184.00,0.76
6183.00,0.76
6182.00,0.76
6181.00,0.76
6180.00,0.76
6179.00,0.77
6178.00,0.77
6177.00,0.77
6176.00,0.77
6175.00,0.77
6174.00,0.77
6173.00,0.77
6172.00,0.77
6171.00,0.77
6170.00,0.77
6169.00,0.77
6168.00,0.77
6167.00,0.77
6166.00,0.77
6165.00,0.77
6164.00,0.77
6163.00,0.77
6162.00,0.77
6161.00,0.77
6160.00,0.77
6159.00,0.77
6158.00,0.77
6157.00,0.77
6156.00,0.77
6155.00,0.77
6154.00,0.77
6153.00,0.77
6152.00,0.77
6151.00,0.77
6150.00,0.77
6149.00,0.77
6148.00,0.77
6147.00,0.77
6146.00,0.77
6145.00,0.77
6144.00,0.77
6143.00,0.77
6142.00,0.77
6141.00,0.77
6140.00,0.77
6139.00,0.77
6138.00,0.77
6137.00,0.77
6136.00,0.76
6135.00,0.76
6134.00,0.76
6133.00,0.76
6132.00,0.75
6131.00,0.75
6130.00,0.75
6129.00,0.74
6128.00,0.74
6127.00,0.74
6126.00,0.74
6125.00,0.73
6124.00,0.73
6123.00,0.73
6122.00,0.73
6121.00,0.73
6120.00,0.73
6119.00,0.73
6118.00,0.73
6117.00,0.73
6116.00,0.73
6115.00,0.74
6114.00,0.74
6113.00,0.74
6112.00,0.75
6111.00,0.75
6110.00,0.76
6109.00,0.76
6108.00,0.77
6107.00,0.77
6106.00,0.77
6105.00,0.78
6104.00,0.78
6103.00,0.79
6102.00,0.79
6101.00,0.80
6100.00,0.80
6099.00,0.80
6098.00,0.80
6097.00,0.80
6096.00,0.80
6095.00,0.80
6094.00,0.80
6093.00,0.80
6092.00,0.80
6091.00,0.80
6090.00,0.80
6089.00,0.80
6088.00,0.79
6087.00,0.79
6086.00,0.79
6085.00,0.79
6084.00,0.78
6083.00,0.78
6082.00,0.78
6081.00,0.78
6080.00,0.78
6079.00,0.78
6078.00,0.78
6077.00,0.78
6076.00,0.78
6075.00,0.79
6074.00,0.79
6073.00,0.79
6072.00,0.79
6071.00,0.80
6070.00,0.80
6069.00,0.80
6068.00,0.80
6067.00,0.81
6066.00,0.81
6065.00,0.82
6064.00,0.82
6063.00,0.82
6062.00,0.83
6061.00,0.83
6060.00,0.83
6059.00,0.83
6058.00,0.83
6057.00,0.83
6056.00,0.83
6055.00,0.83
6054.00,0.83
6053.00,0.83
6052.00,0.83
6051.00,0.82
6050.00,0.82
6049.00,0.82
6048.00,0.81
6047.00,0.81
6046.00,0.81
6045.00,0.81
6044.00,0.80
6043.00,0.80
6042.00,0.80
6041.00,0.80
6040.00,0.80
6039.00,0.80
6038.00,0.80
6037.00,0.80
6036.00,0.79
6035.00,0.79
6034.00,0.79
6033.00,0.79
6032.00,0.79
6031.00,0.79
6030.00,0.78
6029.00,0.78
6028.00,0.78
6027.00,0.78
6026.00,0.78
6025.00,0.78
6024.00,0.78
6023.00,0.77
6022.00,0.77
6021.00,0.77
6020.00,0.77
6019.00,0.78
6018.00,0.78
6017.00,0.78
6016.00,0.78
6015.00,0.78
6014.00,0.78
6013.00,0.79
6012.00,0.79
6011.00,0.79
6010.00,0.79
6009.00,0.79
6008.00,0.79
6007.00,0.79
6006.00,0.80
6005.00,0.80
6004.00,0.80
6003.00,0.80
6002.00,0.79
6001.00,0.79
6000.00,0.79
5999.00,0.79
5998.00,0.79
5997.00,0.79
5996.00,0.79
5995.00,0.79
5994.00,0.79
5993.00,0.79
5992.00,0.79
5991.00,0.79
5990.00,0.79
5989.00,0.79
5988.00,0.79
5987.00,0.79
5986.00,0.79
5985.00,0.79
5984.00,0.79
5983.00,0.80
5982.00,0.80
5981.00,0.80
5980.00,0.80
5979.00,0.80
5978.00,0.80
5977.00,0.80
5976.00,0.80
5975.00,0.80
5974.00,0.80
5973.00,0.80
5972.00,0.80
5971.00,0.80
5970.00,0.79
5969.00,0.79
5968.00,0.79
5967.00,0.79
5966.00,0.79
5965.00,0.78
5964.00,0.78
5963.00,0.78
5962.00,0.78
5961.00,0.78
5960.00,0.78
5959.00,0.78
5958.00,0.78
5957.00,0.78
5956.00,0.78
5955.00,0.78
5954.00,0.78
5953.00,0.78
5952.00,0.78
5951.00,0.79
5950.00,0.79
5949.00,0.79
5948.00,0.79
5947.00,0.79
5946.00,0.79
5945.00,0.80
5944.00,0.80
5943.00,0.80
5942.00,0.80
5941.00,0.80
5940.00,0.80
5939.00,0.80
5938.00,0.80
5937.00,0.80
5936.00,0.79
5935.00,0.79
5934.00,0.79
5933.00,0.79
5932.00,0.79
5931.00,0.79
5930.00,0.78
5929.00,0.78
5928.00,0.78
5927.00,0.78
5926.00,0.78
5925.00,0.78
5924.00,0.78
5923.00,0.77
5922.00,0.77
5921.00,0.77
5920.00,0.77
5919.00,0.77
5918.00,0.77
5917.00,0.77
5916.00,0.77
5915.00,0.77
5914.00,0.77
5913.00,0.77
5912.00,0.77
5911.00,0.77
5910.00,0.77
5909.00,0.77
5908.00,0.77
5907.00,0.77
5906.00,0.77
5905.00,0.77
5904.00,0.77
5903.00,0.76
5902.00,0.76
5901.00,0.76
5900.00,0.76
5899.00,0.76
5898.00,0.76
5897.00,0.76
5896.00,0.76
5895.00,0.75
5894.00,0.75
5893.00,0.75
5892.00,0.75
5891.00,0.75
5890.00,0.75
5889.00,0.75
5888.00,0.75
5887.00,0.75
5886.00,0.75
5885.00,0.75
5884.00,0.75
5883.00,0.75
5882.00,0.75
5881.00,0.75
5880.00,0.75
5879.00,0.76
5878.00,0.76
5877.00,0.76
5876.00,0.76
5875.00,0.76
5874.00,0.76
5873.00,0.76
5872.00,0.77
5871.00,0.77
5870.00,0.77
5869.00,0.77
5868.00,0.77
5867.00,0.76
5866.00,0.76
5865.00,0.76
5864.00,0.76
5863.00,0.76
5862.00,0.76
5861.00,0.76
5860.00,0.75
5859.00,0.75
5858.00,0.75
5857.00,0.75
5856.00,0.75
5855.00,0.75
5854.00,0.75
5853.00,0.75
5852.00,0.75
5851.00,0.75
5850.00,0.75
5849.00,0.75
5848.00,0.75
5847.00,0.76
5846.00,0.76
5845.00,0.76
5844.00,0.76
5843.00,0.76
5842.00,0.76
5841.00,0.76
5840.00,0.76
5839.00,0.76
5838.00,0.76
5837.00,0.76
5836.00,0.76
5835.00,0.76
5834.00,0.76
5833.00,0.76
5832.00,0.76
5831.00,0.76
5830.00,0.76
5829.00,0.76
5828.00,0.76
5827.00,0.77
5826.00,0.77
5825.00,0.77
5824.00,0.77
5823.00,0.78
5822.00,0.78
5821.00,0.78
5820.00,0.78
5819.00,0.79
5818.00,0.79
5817.00,0.79
5816.00,0.79
5815.00,0.79
5814.00,0.79
5813.00,0.79
5812.00,0.79
5811.00,0.79
5810.00,0.79
5809.00,0.78
5808.00,0.78
5807.00,0.78
5806.00,0.78
5805.00,0.78
5804.00,0.78
5803.00,0.78
5802.00,0.78
5801.00,0.78
5800.00,0.78
5799.00,0.78
5798.00,0.78
5797.00,0.78
5796.00,0.77
5795.00,0.77
5794.00,0.77
5793.00,0.77
5792.00,0.77
5791.00,0.76
5790.00,0.76
5789.00,0.76
5788.00,0.76
5787.00,0.75
5786.00,0.75
5785.00,0.75
5784.00,0.75
5783.00,0.75
5782.00,0.74
5781.00,0.74
5780.00,0.74
5779.00,0.75
5778.00,0.75
5777.00,0.75
5776.00,0.75
5775.00,0.75
5774.00,0.75
5773.00,0.75
5772.00,0.75
5771.00,0.76
5770.00,0.76
5769.00,0.76
5768.00,0.76
5767.00,0.76
5766.00,0.76
5765.00,0.76
5764.00,0.77
5763.00,0.77
5762.00,0.77
5761.00,0.77
5760.00,0.77
5759.00,0.77
5758.00,0.77
5757.00,0.77
5756.00,0.78
5755.00,0.78
5754.00,0.78
5753.00,0.78
5752.00,0.78
5751.00,0.79
5750.00,0.79
5749.00,0.79
5748.00,0.79
5747.00,0.79
5746.00,0.79
5745.00,0.80
5744.00,0.80
5743.00,0.80
5742.00,0.80
5741.00,0.80
5740.00,0.79
5739.00,0.79
5738.00,0.79
5737.00,0.79
5736.00,0.79
5735.00,0.79
5734.00,0.79
5733.00,0.78
5732.00,0.78
5731.00,0.78
5730.00,0.78
5729.00,0.78
5728.00,0.78
5727.00,0.78
5726.00,0.78
5725.00,0.78
5724.00,0.78
5723.00,0.78
5722.00,0.78
5721.00,0.78
5720.00,0.78
5719.00,0.78
5718.00,0.78
5717.00,0.78
5716.00,0.78
5715.00,0.78
5714.00,0.78
5713.00,0.78
5712.00,0.78
5711.00,0.78
5710.00,0.78
5709.00,0.78
5708.00,0.78
5707.00,0.78
5706.00,0.79
5705.00,0.79
5704.00,0.79
5703.00,0.79
5702.00,0.79
5701.00,0.79
5700.00,0.79
5699.00,0.79
5698.00,0.80
5697.00,0.80
5696.00,0.80
5695.00,0.80
5694.00,0.80
5693.00,0.80
5692.00,0.80
5691.00,0.80
5690.00,0.80
5689.00,0.80
5688.00,0.79
5687.00,0.79
5686.00,0.79
5685.00,0.79
5684.00,0.79
5683.00,0.79
5682.00,0.79
5681.00,0.79
5680.00,0.79
5679.00,0.79
5678.00,0.79
5677.00,0.79
5676.00,0.78
5675.00,0.78
5674.00,0.78
5673.00,0.78
5672.00,0.78
5671.00,0.78
5670.00,0.78
5669.00,0.78
5668.00,0.78
5667.00,0.78
5666.00,0.78
5665.00,0.78
5664.00,0.78
5663.00,0.78
5662.00,0.78
5661.00,0.78
5660.00,0.79
5659.00,0.79
5658.00,0.79
5657.00,0.79
5656.00,0.79
5655.00,0.79
5654.00,0.79
5653.00,0.79
5652.00,0.79
5651.00,0.79
5650.00,0.79
5649.00,0.79
5648.00,0.79
5647.00,0.79
5646.00,0.79
5645.00,0.78
5644.00,0.78
5643.00,0.78
5642.00,0.78
5641.00,0.78
5640.00,0.78
5639.00,0.78
5638.00,0.78
5637.00,0.78
5636.00,0.78
5635.00,0.78
5634.00,0.78
5633.00,0.78
5632.00,0.78
5631.00,0.79
5630.00,0.79
5629.00,0.79
5628.00,0.79
5627.00,0.79
5626.00,0.79
5625.00,0.80
5624.00,0.80
5623.00,0.80
5622.00,0.80
5621.00,0.80
5620.00,0.80
5619.00,0.80
5618.00,0.80
5617.00,0.81
5616.00,0.81
5615.00,0.81
5614.00,0.81
5613.00,0.81
5612.00,0.81
5611.00,0.81
5610.00,0.81
5609.00,0.81
5608.00,0.81
5607.00,0.81
5606.00,0.81
5605.00,0.81
5604.00,0.82
5603.00,0.82
5602.00,0.82
5601.00,0.82
5600.00,0.82
5599.00,0.83
5598.00,0.83
5597.00,0.83
5596.00,0.83
5595.00,0.83
5594.00,0.83
5593.00,0.84
5592.00,0.84
5591.00,0.84
5590.00,0.84
5589.00,0.84
5588.00,0.84
5587.00,0.84
5586.00,0.84
5585.00,0.84
5584.00,0.84
5583.00,0.84
5582.00,0.83
5581.00,0.83
5580.00,0.83
5579.00,0.83
5578.00,0.83
5577.00,0.83
5576.00,0.82
5575.00,0.82
5574.00,0.82
5573.00,0.82
5572.00,0.81
5571.00,0.81
5570.00,0.81
5569.00,0.80
5568.00,0.80
5567.00,0.80
5566.00,0.80
5565.00,0.80
5564.00,0.80
5563.00,0.79
5562.00,0.79
5561.00,0.79
5560.00,0.79
5559.00,0.79
5558.00,0.79
5557.00,0.79
5556.00,0.79
5555.00,0.79
5554.00,0.79
5553.00,0.79
5552.00,0.79
5551.00,0.79
5550.00,0.79
5549.00,0.79
5548.00,0.79
5547.00,0.79
5546.00,0.79
5545.00,0.79
5544.00,0.79
5543.00,0.79
5542.00,0.79
5541.00,0.79
5540.00,0.79
5539.00,0.80
5538.00,0.80
5537.00,0.80
5536.00,0.80
5535.00,0.80
5534.00,0.80
5533.00,0.80
5532.00,0.81
5531.00,0.81
5530.00,0.81
5529.00,0.81
5528.00,0.81
5527.00,0.82
5526.00,0.82
5525.00,0.82
5524.00,0.82
5523.00,0.82
5522.00,0.82
5521.00,0.82
5520.00,0.82
5519.00,0.83
5518.00,0.83
5517.00,0.83
5516.00,0.83
5515.00,0.83
5514.00,0.83
5513.00,0.83
5512.00,0.82
5511.00,0.82
5510.00,0.82
5509.00,0.82
5508.00,0.82
5507.00,0.82
5506.00,0.81
5505.00,0.81
5504.00,0.81
5503.00,0.81
5502.00,0.80
5501.00,0.80
5500.00,0.80
5499.00,0.80
5498.00,0.80
5497.00,0.80
5496.00,0.79
5495.00,0.79
5494.00,0.79
5493.00,0.79
5492.00,0.80
5491.00,0.80
5490.00,0.80
5489.00,0.80
5488.00,0.80
5487.00,0.81
5486.00,0.81
5485.00,0.81
5484.00,0.82
5483.00,0.82
5482.00,0.82
5481.00,0.82
5480.00,0.82
5479.00,0.83
5478.00,0.83
5477.00,0.83
5476.00,0.83
5475.00,0.83
5474.00,0.83
5473.00,0.83
5472.00,0.82
5471.00,0.82
5470.00,0.82
5469.00,0.82
5468.00,0.82
5467.00,0.82
5466.00,0.82
5465.00,0.82
5464.00,0.82
5463.00,0.82
5462.00,0.82
5461.00,0.82
5460.00,0.82
5459.00,0.82
5458.00,0.82
5457.00,0.82
5456.00,0.82
5455.00,0.82
5454.00,0.82
5453.00,0.82
5452.00,0.83
5451.00,0.83
5450.00,0.83
5449.00,0.83
5448.00,0.83
5447.00,0.84
5446.00,0.84
5445.00,0.84
5444.00,0.84
5443.00,0.85
5442.00,0.85
5441.00,0.85
5440.00,0.85
5439.00,0.86
5438.00,0.86
5437.00,0.86
5436.00,0.86
5435.00,0.86
5434.00,0.86
5433.00,0.86
5432.00,0.86
5431.00,0.86
5430.00,0.85
5429.00,0.85
5428.00,0.85
5427.00,0.85
5426.00,0.84
5425.00,0.84
5424.00,0.83
5423.00,0.83
5422.00,0.83
5421.00,0.82
5420.00,0.82
5419.00,0.82
5418.00,0.82
5417.00,0.81
5416.00,0.81
5415.00,0.81
5414.00,0.81
5413.00,0.81
5412.00,0.81
5411.00,0.81
5410.00,0.81
5409.00,0.81
5408.00,0.82
5407.00,0.82
5406.00,0.82
5405.00,0.82
5404.00,0.82
5403.00,0.82
5402.00,0.82
5401.00,0.82
5400.00,0.82
5399.00,0.82
5398.00,0.82
5397.00,0.83
5396.00,0.83
5395.00,0.83
5394.00,0.83
5393.00,0.83
5392.00,0.83
5391.00,0.83
5390.00,0.82
5389.00,0.82
5388.00,0.82
5387.00,0.82
5386.00,0.82
5385.00,0.82
5384.00,0.82
5383.00,0.82
5382.00,0.82
5381.00,0.82
5380.00,0.82
5379.00,0.81
5378.00,0.81
5377.00,0.81
5376.00,0.81
5375.00,0.81
5374.00,0.82
5373.00,0.82
5372.00,0.82
5371.00,0.82
5370.00,0.82
5369.00,0.82
5368.00,0.82
5367.00,0.82
5366.00,0.82
5365.00,0.82
5364.00,0.82
5363.00,0.82
5362.00,0.82
5361.00,0.82
5360.00,0.82
5359.00,0.82
5358.00,0.81
5357.00,0.81
5356.00,0.81
5355.00,0.81
5354.00,0.81
5353.00,0.80
5352.00,0.80
5351.00,0.80
5350.00,0.80
5349.00,0.80
5348.00,0.79
5347.00,0.79
5346.00,0.79
5345.00,0.79
5344.00,0.78
5343.00,0.78
5342.00,0.78
5341.00,0.78
5340.00,0.78
5339.00,0.78
5338.00,0.78
5337.00,0.78
5336.00,0.78
5335.00,0.78
5334.00,0.78
5333.00,0.78
5332.00,0.78
5331.00,0.78
5330.00,0.78
5329.00,0.78
5328.00,0.79
5327.00,0.79
5326.00,0.79
5325.00,0.79
5324.00,0.79
5323.00,0.79
5322.00,0.79
5321.00,0.79
5320.00,0.79
5319.00,0.79
5318.00,0.79
5317.00,0.79
5316.00,0.78
5315.00,0.78
5314.00,0.78
5313.00,0.78
5312.00,0.77
5311.00,0.77
5310.00,0.77
5309.00,0.77
5308.00,0.77
5307.00,0.77
5306.00,0.76
5305.00,0.76
5304.00,0.76
5303.00,0.76
5302.00,0.76
5301.00,0.76
5300.00,0.76
5299.00,0.76
5298.00,0.76
5297.00,0.76
5296.00,0.76
5295.00,0.76
5294.00,0.76
5293.00,0.76
5292.00,0.76
5291.00,0.76
5290.00,0.76
5289.00,0.76
5288.00,0.76
5287.00,0.75
5286.00,0.75
5285.00,0.75
5284.00,0.75
5283.00,0.75
5282.00,0.75
5281.00,0.75
5280.00,0.75
5279.00,0.75
5278.00,0.75
5277.00,0.75
5276.00,0.75
5275.00,0.75
5274.00,0.75
5273.00,0.76
5272.00,0.76
5271.00,0.76
5270.00,0.77
5269.00,0.77
5268.00,0.77
5267.00,0.77
5266.00,0.77
5265.00,0.78
5264.00,0.78
5263.00,0.78
5262.00,0.78
5261.00,0.78
5260.00,0.78
5259.00,0.78
5258.00,0.78
5257.00,0.77
5256.00,0.77
5255.00,0.77
5254.00,0.77
5253.00,0.76
5252.00,0.76
5251.00,0.76
5250.00,0.75
5249.00,0.75
5248.00,0.75
5247.00,0.75
5246.00,0.75
5245.00,0.74
5244.00,0.74
5243.00,0.74
5242.00,0.74
5241.00,0.74
5240.00,0.74
5239.00,0.74
5238.00,0.74
5237.00,0.74
5236.00,0.74
5235.00,0.74
5234.00,0.75
5233.00,0.75
5232.00,0.75
5231.00,0.75
5230.00,0.75
5229.00,0.75
5228.00,0.74
5227.00,0.74
5226.00,0.74
5225.00,0.74
5224.00,0.74
5223.00,0.74
5222.00,0.74
5221.00,0.74
5220.00,0.74
5219.00,0.74
5218.00,0.74
5217.00,0.73
5216.00,0.73
5215.00,0.73
5214.00,0.73
5213.00,0.73
5212.00,0.73
5211.00,0.73
5210.00,0.73
5209.00,0.73
5208.00,0.73
5207.00,0.73
5206.00,0.73
5205.00,0.73
5204.00,0.73
5203.00,0.73
5202.00,0.73
5201.00,0.73
5200.00,0.73
5199.00,0.73
5198.00,0.74
5197.00,0.74
5196.00,0.74
5195.00,0.74
5194.00,0.75
5193.00,0.75
5192.00,0.75
5191.00,0.76
5190.00,0.76
5189.00,0.77
5188.00,0.77
5187.00,0.77
5186.00,0.78
5185.00,0.78
5184.00,0.79
5183.00,0.79
5182.00,0.79
5181.00,0.79
5180.00,0.80
5179.00,0.80
5178.00,0.80
5177.00,0.80
5176.00,0.80
5175.00,0.80
5174.00,0.79
5173.00,0.79
5172.00,0.79
5171.00,0.79
5170.00,0.79
5169.00,0.79
5168.00,0.79
5167.00,0.78
5166.00,0.78
5165.00,0.78
5164.00,0.78
5163.00,0.78
5162.00,0.78
5161.00,0.77
5160.00,0.77
5159.00,0.77
5158.00,0.77
5157.00,0.77
5156.00,0.77
5155.00,0.76
5154.00,0.76
5153.00,0.76
5152.00,0.76
5151.00,0.76
5150.00,0.76
5149.00,0.76
5148.00,0.75
5147.00,0.75
5146.00,0.75
5145.00,0.75
5144.00,0.75
5143.00,0.75
5142.00,0.75
5141.00,0.75
5140.00,0.75
5139.00,0.75
5138.00,0.75
5137.00,0.76
5136.00,0.76
5135.00,0.76
5134.00,0.75
5133.00,0.75
5132.00,0.75
5131.00,0.75
5130.00,0.75
5129.00,0.75
5128.00,0.75
5127.00,0.75
5126.00,0.74
5125.00,0.74
5124.00,0.74
5123.00,0.74
5122.00,0.74
5121.00,0.74
5120.00,0.74
5119.00,0.74
5118.00,0.74
5117.00,0.74
5116.00,0.74
5115.00,0.74
5114.00,0.74
5113.00,0.75
5112.00,0.75
5111.00,0.75
5110.00,0.75
5109.00,0.75
5108.00,0.76
5107.00,0.76
5106.00,0.76
5105.00,0.76
5104.00,0.76
5103.00,0.76
5102.00,0.76
5101.00,0.76
5100.00,0.76
5099.00,0.76
5098.00,0.76
5097.00,0.76
5096.00,0.76
5095.00,0.76
5094.00,0.76
5093.00,0.76
5092.00,0.76
5091.00,0.76
5090.00,0.76
5089.00,0.76
5088.00,0.76
5087.00,0.76
5086.00,0.76
5085.00,0.76
5084.00,0.76
5083.00,0.76
5082.00,0.76
5081.00,0.76
5080.00,0.76
5079.00,0.76
5078.00,0.76
5077.00,0.76
5076.00,0.76
5075.00,0.76
5074.00,0.76
5073.00,0.76
5072.00,0.76
5071.00,0.76
5070.00,0.76
5069.00,0.76
5068.00,0.76
5067.00,0.76
5066.00,0.76
5065.00,0.77
5064.00,0.77
5063.00,0.77
5062.00,0.77
5061.00,0.77
5060.00,0.77
5059.00,0.77
5058.00,0.77
5057.00,0.77
5056.00,0.77
5055.00,0.77
5054.00,0.77
5053.00,0.77
5052.00,0.77
5051.00,0.77
5050.00,0.77
5049.00,0.77
5048.00,0.76
5047.00,0.76
5046.00,0.76
5045.00,0.76
5044.00,0.76
5043.00,0.76
5042.00,0.76
5041.00,0.76
5040.00,0.76
5039.00,0.76
5038.00,0.76
5037.00,0.76
5036.00,0.76
5035.00,0.76
5034.00,0.76
5033.00,0.77
5032.00,0.77
5031.00,0.77
5030.00,0.77
5029.00,0.77
5028.00,0.77
5027.00,0.78
5026.00,0.78
5025.00,0.78
5024.00,0.78
5023.00,0.78
5022.00,0.79
5021.00,0.79
5020.00,0.79
5019.00,0.79
5018.00,0.80
5017.00,0.80
5016.00,0.80
5015.00,0.80
5014.00,0.80
5013.00,0.80
5012.00,0.80
5011.00,0.80
5010.00,0.80
5009.00,0.80
5008.00,0.79
5007.00,0.79
5006.00,0.79
5005.00,0.79
5004.00,0.78
5003.00,0.78
5002.00,0.78
5001.00,0.78
5000.00,0.77
4999.00,0.77
4998.00,0.77
4997.00,0.77
4996.00,0.77
4995.00,0.77
4994.00,0.77
4993.00,0.77
4992.00,0.77
4991.00,0.77
4990.00,0.77
4989.00,0.77
4988.00,0.78
4987.00,0.78
4986.00,0.78
4985.00,0.78
4984.00,0.78
4983.00,0.79
4982.00,0.79
4981.00,0.79
4980.00,0.79
4979.00,0.79
4978.00,0.79
4977.00,0.79
4976.00,0.79
4975.00,0.79
4974.00,0.79
4973.00,0.79
4972.00,0.80
4971.00,0.80
4970.00,0.80
4969.00,0.80
4968.00,0.80
4967.00,0.80
4966.00,0.80
4965.00,0.80
4964.00,0.80
4963.00,0.80
4962.00,0.80
4961.00,0.81
4960.00,0.81
4959.00,0.81
4958.00,0.81
4957.00,0.81
4956.00,0.81
4955.00,0.81
4954.00,0.81
4953.00,0.81
4952.00,0.82
4951.00,0.82
4950.00,0.82
4949.00,0.82
4948.00,0.82
4947.00,0.82
4946.00,0.82
4945.00,0.82
4944.00,0.82
4943.00,0.82
4942.00,0.82
4941.00,0.82
4940.00,0.82
4939.00,0.81
4938.00,0.81
4937.00,0.81
4936.00,0.81
4935.00,0.81
4934.00,0.81
4933.00,0.81
4932.00,0.81
4931.00,0.80
4930.00,0.80
4929.00,0.80
4928.00,0.80
4927.00,0.80
4926.00,0.79
4925.00,0.79
4924.00,0.79
4923.00,0.78
4922.00,0.78
4921.00,0.78
4920.00,0.78
4919.00,0.78
4918.00,0.78
4917.00,0.78
4916.00,0.78
4915.00,0.78
4914.00,0.78
4913.00,0.78
4912.00,0.78
4911.00,0.78
4910.00,0.79
4909.00,0.79
4908.00,0.79
4907.00,0.79
4906.00,0.79
4905.00,0.80
4904.00,0.80
4903.00,0.80
4902.00,0.80
4901.00,0.80
4900.00,0.80
4899.00,0.80
4898.00,0.80
4897.00,0.80
4896.00,0.80
4895.00,0.80
4894.00,0.80
4893.00,0.80
4892.00,0.80
4891.00,0.80
4890.00,0.80
4889.00,0.79
4888.00,0.79
4887.00,0.79
4886.00,0.79
4885.00,0.79
4884.00,0.79
4883.00,0.79
4882.00,0.80
4881.00,0.80
4880.00,0.80
4879.00,0.80
4878.00,0.80
4877.00,0.80
4876.00,0.80
4875.00,0.80
4874.00,0.80
4873.00,0.81
4872.00,0.81
4871.00,0.81
4870.00,0.81
4869.00,0.81
4868.00,0.81
4867.00,0.81
4866.00,0.81
4865.00,0.82
4864.00,0.82
4863.00,0.82
4862.00,0.82
4861.00,0.82
4860.00,0.82
4859.00,0.82
4858.00,0.82
4857.00,0.82
4856.00,0.82
4855.00,0.81
4854.00,0.81
4853.00,0.81
4852.00,0.81
4851.00,0.81
4850.00,0.81
4849.00,0.81
4848.00,0.81
4847.00,0.81
4846.00,0.81
4845.00,0.80
4844.00,0.80
4843.00,0.80
4842.00,0.80
4841.00,0.80
4840.00,0.80
4839.00,0.80
4838.00,0.80
4837.00,0.80
4836.00,0.80
4835.00,0.80
4834.00,0.80
4833.00,0.80
4832.00,0.81
4831.00,0.81
4830.00,0.81
4829.00,0.81
4828.00,0.81
4827.00,0.81
4826.00,0.81
4825.00,0.82
4824.00,0.82
4823.00,0.82
4822.00,0.82
4821.00,0.82
4820.00,0.82
4819.00,0.82
4818.00,0.82
4817.00,0.82
4816.00,0.82
4815.00,0.82
4814.00,0.82
4813.00,0.81
4812.00,0.81
4811.00,0.81
4810.00,0.81
4809.00,0.81
4808.00,0.80
4807.00,0.80
4806.00,0.80
4805.00,0.80
4804.00,0.80
4803.00,0.80
4802.00,0.80
4801.00,0.80
4800.00,0.80
4799.00,0.80
4798.00,0.80
4797.00,0.80
4796.00,0.81
4795.00,0.81
4794.00,0.81
4793.00,0.82
4792.00,0.82
4791.00,0.82
4790.00,0.82
4789.00,0.83
4788.00,0.83
4787.00,0.83
4786.00,0.84
4785.00,0.84
4784.00,0.84
4783.00,0.84
4782.00,0.84
4781.00,0.84
4780.00,0.84
4779.00,0.84
4778.00,0.84
4777.00,0.84
4776.00,0.84
4775.00,0.84
4774.00,0.84
4773.00,0.84
4772.00,0.84
4771.00,0.84
4770.00,0.84
4769.00,0.83
4768.00,0.83
4767.00,0.84
4766.00,0.84
4765.00,0.84
4764.00,0.84
4763.00,0.84
4762.00,0.84
4761.00,0.84
4760.00,0.84
4759.00,0.84
4758.00,0.84
4757.00,0.84
4756.00,0.84
4755.00,0.84
4754.00,0.84
4753.00,0.84
4752.00,0.83
4751.00,0.83
4750.00,0.83
4749.00,0.83
4748.00,0.83
4747.00,0.83
4746.00,0.83
4745.00,0.83
4744.00,0.83
4743.00,0.84
4742.00,0.84
4741.00,0.84
4740.00,0.84
4739.00,0.84
4738.00,0.85
4737.00,0.85
4736.00,0.85
4735.00,0.85
4734.00,0.85
4733.00,0.85
4732.00,0.85
4731.00,0.85
4730.00,0.85
4729.00,0.85
4728.00,0.85
4727.00,0.85
4726.00,0.85
4725.00,0.84
4724.00,0.84
4723.00,0.84
4722.00,0.84
4721.00,0.84
4720.00,0.84
4719.00,0.84
4718.00,0.84
4717.00,0.84
4716.00,0.84
4715.00,0.84
4714.00,0.84
4713.00,0.85
4712.00,0.85
4711.00,0.85
4710.00,0.85
4709.00,0.86
4708.00,0.86
4707.00,0.86
4706.00,0.86
4705.00,0.87
4704.00,0.87
4703.00,0.87
4702.00,0.87
4701.00,0.87
4700.00,0.87
4699.00,0.87
4698.00,0.86
4697.00,0.86
4696.00,0.86
4695.00,0.86
4694.00,0.86
4693.00,0.85
4692.00,0.85
4691.00,0.85
4690.00,0.84
4689.00,0.84
4688.00,0.84
4687.00,0.84
4686.00,0.83
4685.00,0.83
4684.00,0.83
4683.00,0.83
4682.00,0.83
4681.00,0.83
4680.00,0.83
4679.00,0.83
4678.00,0.83
4677.00,0.83
4676.00,0.82
4675.00,0.82
4674.00,0.82
4673.00,0.82
4672.00,0.82
4671.00,0.82
4670.00,0.82
4669.00,0.82
4668.00,0.82
4667.00,0.82
4666.00,0.82
4665.00,0.81
4664.00,0.81
4663.00,0.81
4662.00,0.81
4661.00,0.81
4660.00,0.81
4659.00,0.81
4658.00,0.81
4657.00,0.81
4656.00,0.81
4655.00,0.81
4654.00,0.81
4653.00,0.81
4652.00,0.81
4651.00,0.81
4650.00,0.81
4649.00,0.81
4648.00,0.81
4647.00,0.81
4646.00,0.81
4645.00,0.81
4644.00,0.82
4643.00,0.82
4642.00,0.82
4641.00,0.82
4640.00,0.82
4639.00,0.82
4638.00,0.82
4637.00,0.82
4636.00,0.83
4635.00,0.83
4634.00,0.83
4633.00,0.83
4632.00,0.83
4631.00,0.83
4630.00,0.83
4629.00,0.83
4628.00,0.82
4627.00,0.82
4626.00,0.82
4625.00,0.82
4624.00,0.82
4623.00,0.82
4622.00,0.81
4621.00,0.81
4620.00,0.81
4619.00,0.81
4618.00,0.81
4617.00,0.81
4616.00,0.81
4615.00,0.81
4614.00,0.82
4613.00,0.82
4612.00,0.82
4611.00,0.82
4610.00,0.82
4609.00,0.83
4608.00,0.83
4607.00,0.83
4606.00,0.84
4605.00,0.84
4604.00,0.84
4603.00,0.84
4602.00,0.84
4601.00,0.85
4600.00,0.85
4599.00,0.85
4598.00,0.84
4597.00,0.84
4596.00,0.84
4595.00,0.84
4594.00,0.84
4593.00,0.84
4592.00,0.83
4591.00,0.83
4590.00,0.83
4589.00,0.83
4588.00,0.82
4587.00,0.82
4586.00,0.82
4585.00,0.82
4584.00,0.82
4583.00,0.82
4582.00,0.82
4581.00,0.82
4580.00,0.82
4579.00,0.82
4578.00,0.82
4577.00,0.82
4576.00,0.81
4575.00,0.81
4574.00,0.81
4573.00,0.81
4572.00,0.81
4571.00,0.81
4570.00,0.81
4569.00,0.81
4568.00,0.81
4567.00,0.81
4566.00,0.80
4565.00,0.80
4564.00,0.80
4563.00,0.80
4562.00,0.80
4561.00,0.80
4560.00,0.80
4559.00,0.80
4558.00,0.80
4557.00,0.80
4556.00,0.80
4555.00,0.80
4554.00,0.80
4553.00,0.80
4552.00,0.80
4551.00,0.80
4550.00,0.80
4549.00,0.80
4548.00,0.80
4547.00,0.80
4546.00,0.80
4545.00,0.80
4544.00,0.80
4543.00,0.80
4542.00,0.80
4541.00,0.80
4540.00,0.80
4539.00,0.80
4538.00,0.80
4537.00,0.80
4536.00,0.80
4535.00,0.80
4534.00,0.80
4533.00,0.80
4532.00,0.80
4531.00,0.80
4530.00,0.80
4529.00,0.80
4528.00,0.80
4527.00,0.80
4526.00,0.80
4525.00,0.80
4524.00,0.81
4523.00,0.81
4522.00,0.81
4521.00,0.81
4520.00,0.81
4519.00,0.82
4518.00,0.82
4517.00,0.82
4516.00,0.82
4515.00,0.82
4514.00,0.82
4513.00,0.82
4512.00,0.82
4511.00,0.82
4510.00,0.82
4509.00,0.82
4508.00,0.81
4507.00,0.81
4506.00,0.81
4505.00,0.81
4504.00,0.81
4503.00,0.81
4502.00,0.81
4501.00,0.81
4500.00,0.81
4499.00,0.81
4498.00,0.81
4497.00,0.81
4496.00,0.82
4495.00,0.82
4494.00,0.82
4493.00,0.83
4492.00,0.83
4491.00,0.83
4490.00,0.84
4489.00,0.84
4488.00,0.84
4487.00,0.84
4486.00,0.84
4485.00,0.84
4484.00,0.84
4483.00,0.84
4482.00,0.84
4481.00,0.84
4480.00,0.84
4479.00,0.84
4478.00,0.84
4477.00,0.84
4476.00,0.84
4475.00,0.84
4474.00,0.84
4473.00,0.83
4472.00,0.83
4471.00,0.83
4470.00,0.83
4469.00,0.84
4468.00,0.84
4467.00,0.84
4466.00,0.84
4465.00,0.84
4464.00,0.84
4463.00,0.84
4462.00,0.84
4461.00,0.84
4460.00,0.84
4459.00,0.84
4458.00,0.85
4457.00,0.85
4456.00,0.85
4455.00,0.85
4454.00,0.85
4453.00,0.85
4452.00,0.84
4451.00,0.84
4450.00,0.84
4449.00,0.84
4448.00,0.84
4447.00,0.84
4446.00,0.84
4445.00,0.84
4444.00,0.83
4443.00,0.83
4442.00,0.83
4441.00,0.83
4440.00,0.82
4439.00,0.82
4438.00,0.82
4437.00,0.82
4436.00,0.81
4435.00,0.81
4434.00,0.81
4433.00,0.81
4432.00,0.81
4431.00,0.81
4430.00,0.80
4429.00,0.80
4428.00,0.80
4427.00,0.80
4426.00,0.80
4425.00,0.80
4424.00,0.80
4423.00,0.80
4422.00,0.80
4421.00,0.80
4420.00,0.80
4419.00,0.81
4418.00,0.81
4417.00,0.81
4416.00,0.81
4415.00,0.81
4414.00,0.81
4413.00,0.82
4412.00,0.82
4411.00,0.82
4410.00,0.82
4409.00,0.82
4408.00,0.82
4407.00,0.82
4406.00,0.82
4405.00,0.82
4404.00,0.82
4403.00,0.82
4402.00,0.82
4401.00,0.82
4400.00,0.82
4399.00,0.82
4398.00,0.82
4397.00,0.82
4396.00,0.82
4395.00,0.82
4394.00,0.82
4393.00,0.81
4392.00,0.81
4391.00,0.81
4390.00,0.81
4389.00,0.81
4388.00,0.81
4387.00,0.80
4386.00,0.80
4385.00,0.80
4384.00,0.80
4383.00,0.79
4382.00,0.79
4381.00,0.79
4380.00,0.79
4379.00,0.79
4378.00,0.78
4377.00,0.78
4376.00,0.78
4375.00,0.78
4374.00,0.78
4373.00,0.78
4372.00,0.78
4371.00,0.78
4370.00,0.79
4369.00,0.79
4368.00,0.79
4367.00,0.80
4366.00,0.80
4365.00,0.81
4364.00,0.81
4363.00,0.81
4362.00,0.82
4361.00,0.82
4360.00,0.82
4359.00,0.82
4358.00,0.83
4357.00,0.83
4356.00,0.83
4355.00,0.83
4354.00,0.83
4353.00,0.83
4352.00,0.83
4351.00,0.83
4350.00,0.83
4349.00,0.83
4348.00,0.83
4347.00,0.83
4346.00,0.83
4345.00,0.83
4344.00,0.83
4343.00,0.83
4342.00,0.83
4341.00,0.83
4340.00,0.83
4339.00,0.83
4338.00,0.83
4337.00,0.82
4336.00,0.82
4335.00,0.82
4334.00,0.82
4333.00,0.82
4332.00,0.82
4331.00,0.82
4330.00,0.82
4329.00,0.82
4328.00,0.82
4327.00,0.82
4326.00,0.82
4325.00,0.82
4324.00,0.82
4323.00,0.82
4322.00,0.82
4321.00,0.82
4320.00,0.82
4319.00,0.82
4318.00,0.83
4317.00,0.83
4316.00,0.83
4315.00,0.83
4314.00,0.83
4313.00,0.83
4312.00,0.84
4311.00,0.84
4310.00,0.84
4309.00,0.84
4308.00,0.84
4307.00,0.84
4306.00,0.84
4305.00,0.84
4304.00,0.84
4303.00,0.84
4302.00,0.84
4301.00,0.84
4300.00,0.84
4299.00,0.84
4298.00,0.84
4297.00,0.84
4296.00,0.83
4295.00,0.83
4294.00,0.83
4293.00,0.82
4292.00,0.82
4291.00,0.82
4290.00,0.82
4289.00,0.81
4288.00,0.81
4287.00,0.81
4286.00,0.81
4285.00,0.81
4284.00,0.80
4283.00,0.80
4282.00,0.80
4281.00,0.81
4280.00,0.81
4279.00,0.81
4278.00,0.81
4277.00,0.82
4276.00,0.82
4275.00,0.83
4274.00,0.83
4273.00,0.83
4272.00,0.84
4271.00,0.84
4270.00,0.85
4269.00,0.85
4268.00,0.85
4267.00,0.86
4266.00,0.86
4265.00,0.86
4264.00,0.86
4263.00,0.86
4262.00,0.86
4261.00,0.85
4260.00,0.85
4259.00,0.85
4258.00,0.84
4257.00,0.84
4256.00,0.84
4255.00,0.83
4254.00,0.83
4253.00,0.83
4252.00,0.83
4251.00,0.83
4250.00,0.83
4249.00,0.83
4248.00,0.83
4247.00,0.83
4246.00,0.84
4245.00,0.84
4244.00,0.84
4243.00,0.85
4242.00,0.85
4241.00,0.86
4240.00,0.86
4239.00,0.87
4238.00,0.87
4237.00,0.87
4236.00,0.88
4235.00,0.88
4234.00,0.88
4233.00,0.88
4232.00,0.88
4231.00,0.89
4230.00,0.89
4229.00,0.89
4228.00,0.89
4227.00,0.89
4226.00,0.89
4225.00,0.89
4224.00,0.88
4223.00,0.88
4222.00,0.88
4221.00,0.88
4220.00,0.88
4219.00,0.88
4218.00,0.88
4217.00,0.88
4216.00,0.87
4215.00,0.87
4214.00,0.87
4213.00,0.87
4212.00,0.87
4211.00,0.86
4210.00,0.86
4209.00,0.86
4208.00,0.86
4207.00,0.86
4206.00,0.85
4205.00,0.85
4204.00,0.85
4203.00,0.85
4202.00,0.85
4201.00,0.85
4200.00,0.85
4199.00,0.85
4198.00,0.85
4197.00,0.86
4196.00,0.86
4195.00,0.86
4194.00,0.86
4193.00,0.87
4192.00,0.87
4191.00,0.87
4190.00,0.87
4189.00,0.88
4188.00,0.88
4187.00,0.88
4186.00,0.88
4185.00,0.88
4184.00,0.89
4183.00,0.89
4182.00,0.88
4181.00,0.88
4180.00,0.88
4179.00,0.88
4178.00,0.88
4177.00,0.87
4176.00,0.87
4175.00,0.87
4174.00,0.87
4173.00,0.86
4172.00,0.86
4171.00,0.86
4170.00,0.86
4169.00,0.85
4168.00,0.85
4167.00,0.85
4166.00,0.86
4165.00,0.86
4164.00,0.86
4163.00,0.86
4162.00,0.87
4161.00,0.87
4160.00,0.87
4159.00,0.88
4158.00,0.88
4157.00,0.88
4156.00,0.89
4155.00,0.89
4154.00,0.89
4153.00,0.89
4152.00,0.89
4151.00,0.89
4150.00,0.88
4149.00,0.88
4148.00,0.87
4147.00,0.87
4146.00,0.86
4145.00,0.86
4144.00,0.85
4143.00,0.85
4142.00,0.84
4141.00,0.84
4140.00,0.83
4139.00,0.83
4138.00,0.83
4137.00,0.82
4136.00,0.82
4135.00,0.82
4134.00,0.82
4133.00,0.82
4132.00,0.82
4131.00,0.83
4130.00,0.83
4129.00,0.83
4128.00,0.84
4127.00,0.84
4126.00,0.84
4125.00,0.84
4124.00,0.84
4123.00,0.85
4122.00,0.85
4121.00,0.85
4120.00,0.85
4119.00,0.85
4118.00,0.84
4117.00,0.84
4116.00,0.83
4115.00,0.83
4114.00,0.82
4113.00,0.81
4112.00,0.81
4111.00,0.80
4110.00,0.80
4109.00,0.79
4108.00,0.79
4107.00,0.78
4106.00,0.78
4105.00,0.78
4104.00,0.78
4103.00,0.78
4102.00,0.78
4101.00,0.78
4100.00,0.79
4099.00,0.79
4098.00,0.80
4097.00,0.81
4096.00,0.81
4095.00,0.82
4094.00,0.83
4093.00,0.83
4092.00,0.84
4091.00,0.84
4090.00,0.84
4089.00,0.85
4088.00,0.85
4087.00,0.85
4086.00,0.85
4085.00,0.85
4084.00,0.85
4083.00,0.86
4082.00,0.86
4081.00,0.86
4080.00,0.85
4079.00,0.85
4078.00,0.86
4077.00,0.86
4076.00,0.86
4075.00,0.86
4074.00,0.87
4073.00,0.87
4072.00,0.88
4071.00,0.88
4070.00,0.88
4069.00,0.89
4068.00,0.89
4067.00,0.89
4066.00,0.89
4065.00,0.89
4064.00,0.90
4063.00,0.90
4062.00,0.90
4061.00,0.90
4060.00,0.89
4059.00,0.89
4058.00,0.89
4057.00,0.88
4056.00,0.88
4055.00,0.87
4054.00,0.87
4053.00,0.86
4052.00,0.86
4051.00,0.86
4050.00,0.86
4049.00,0.86
4048.00,0.86
4047.00,0.86
4046.00,0.86
4045.00,0.86
4044.00,0.86
4043.00,0.86
4042.00,0.87
4041.00,0.87
4040.00,0.88
4039.00,0.88
4038.00,0.88
4037.00,0.89
4036.00,0.89
4035.00,0.89
4034.00,0.89
4033.00,0.89
4032.00,0.89
4031.00,0.89
4030.00,0.89
4029.00,0.88
4028.00,0.88
4027.00,0.88
4026.00,0.88
4025.00,0.87
4024.00,0.87
4023.00,0.86
4022.00,0.86
4021.00,0.86
4020.00,0.86
4019.00,0.85
4018.00,0.85
4017.00,0.85
4016.00,0.85
4015.00,0.85
4014.00,0.85
4013.00,0.85
4012.00,0.86
4011.00,0.86
4010.00,0.87
4009.00,0.87
4008.00,0.88
4007.00,0.89
4006.00,0.90
4005.00,0.91
4004.00,0.92
4003.00,0.93
4002.00,0.94
4001.00,0.96
4000.00,0.97
