创建为新数据集,样品 304 用户 Administrator 日期 星期六, 七月 27 2019
cm-1,%T
10000.00,1.29
9999.00,1.29
9998.00,1.29
9997.00,1.29
9996.00,1.29
9995.00,1.29
9994.00,1.29
9993.00,1.29
9992.00,1.29
9991.00,1.29
9990.00,1.29
9989.00,1.29
9988.00,1.29
9987.00,1.29
9986.00,1.28
9985.00,1.28
9984.00,1.27
9983.00,1.27
9982.00,1.26
9981.00,1.26
9980.00,1.25
9979.00,1.24
9978.00,1.24
9977.00,1.23
9976.00,1.22
9975.00,1.21
9974.00,1.20
9973.00,1.19
9972.00,1.18
9971.00,1.17
9970.00,1.16
9969.00,1.15
9968.00,1.14
9967.00,1.13
9966.00,1.12
9965.00,1.11
9964.00,1.10
9963.00,1.10
9962.00,1.09
9961.00,1.09
9960.00,1.08
9959.00,1.08
9958.00,1.08
9957.00,1.08
9956.00,1.08
9955.00,1.09
9954.00,1.09
9953.00,1.09
9952.00,1.10
9951.00,1.10
9950.00,1.11
9949.00,1.11
9948.00,1.12
9947.00,1.12
9946.00,1.13
9945.00,1.14
9944.00,1.14
9943.00,1.15
9942.00,1.15
9941.00,1.15
9940.00,1.16
9939.00,1.16
9938.00,1.16
9937.00,1.16
9936.00,1.15
9935.00,1.15
9934.00,1.15
9933.00,1.14
9932.00,1.14
9931.00,1.13
9930.00,1.13
9929.00,1.12
9928.00,1.11
9927.00,1.11
9926.00,1.10
9925.00,1.10
9924.00,1.09
9923.00,1.09
9922.00,1.08
9921.00,1.08
9920.00,1.07
9919.00,1.07
9918.00,1.06
9917.00,1.06
9916.00,1.06
9915.00,1.06
9914.00,1.06
9913.00,1.06
9912.00,1.06
9911.00,1.06
9910.00,1.06
9909.00,1.07
9908.00,1.07
9907.00,1.07
9906.00,1.08
9905.00,1.08
9904.00,1.08
9903.00,1.08
9902.00,1.08
9901.00,1.09
9900.00,1.09
9899.00,1.09
9898.00,1.09
9897.00,1.09
9896.00,1.09
9895.00,1.09
9894.00,1.09
9893.00,1.08
9892.00,1.08
9891.00,1.08
9890.00,1.08
9889.00,1.08
9888.00,1.07
9887.00,1.07
9886.00,1.07
9885.00,1.06
9884.00,1.06
9883.00,1.06
9882.00,1.05
9881.00,1.05
9880.00,1.05
9879.00,1.04
9878.00,1.04
9877.00,1.04
9876.00,1.03
9875.00,1.03
9874.00,1.03
9873.00,1.02
9872.00,1.02
9871.00,1.01
9870.00,1.01
9869.00,1.01
9868.00,1.00
9867.00,1.00
9866.00,1.00
9865.00,0.99
9864.00,0.99
9863.00,0.99
9862.00,0.99
9861.00,1.00
9860.00,1.00
9859.00,1.00
9858.00,1.00
9857.00,1.01
9856.00,1.01
9855.00,1.02
9854.00,1.02
9853.00,1.02
9852.00,1.03
9851.00,1.03
9850.00,1.03
9849.00,1.04
9848.00,1.04
9847.00,1.05
9846.00,1.05
9845.00,1.06
9844.00,1.07
9843.00,1.07
9842.00,1.08
9841.00,1.09
9840.00,1.09
9839.00,1.10
9838.00,1.10
9837.00,1.11
9836.00,1.11
9835.00,1.11
9834.00,1.12
9833.00,1.12
9832.00,1.12
9831.00,1.11
9830.00,1.11
9829.00,1.11
9828.00,1.11
9827.00,1.11
9826.00,1.10
9825.00,1.10
9824.00,1.10
9823.00,1.10
9822.00,1.10
9821.00,1.09
9820.00,1.09
9819.00,1.09
9818.00,1.09
9817.00,1.08
9816.00,1.08
9815.00,1.07
9814.00,1.07
9813.00,1.06
9812.00,1.06
9811.00,1.05
9810.00,1.05
9809.00,1.04
9808.00,1.04
9807.00,1.03
9806.00,1.03
9805.00,1.02
9804.00,1.02
9803.00,1.02
9802.00,1.01
9801.00,1.01
9800.00,1.00
9799.00,1.00
9798.00,1.00
9797.00,0.99
9796.00,0.99
9795.00,0.99
9794.00,0.98
9793.00,0.98
9792.00,0.98
9791.00,0.98
9790.00,0.98
9789.00,0.99
9788.00,0.99
9787.00,0.99
9786.00,0.99
9785.00,1.00
9784.00,1.00
9783.00,1.00
9782.00,1.01
9781.00,1.01
9780.00,1.01
9779.00,1.02
9778.00,1.02
9777.00,1.03
9776.00,1.03
9775.00,1.04
9774.00,1.04
9773.00,1.05
9772.00,1.05
9771.00,1.06
9770.00,1.06
9769.00,1.06
9768.00,1.06
9767.00,1.06
9766.00,1.06
9765.00,1.05
9764.00,1.05
9763.00,1.04
9762.00,1.04
9761.00,1.03
9760.00,1.03
9759.00,1.02
9758.00,1.01
9757.00,1.01
9756.00,1.00
9755.00,0.99
9754.00,0.99
9753.00,0.98
9752.00,0.97
9751.00,0.96
9750.00,0.96
9749.00,0.95
9748.00,0.94
9747.00,0.94
9746.00,0.93
9745.00,0.93
9744.00,0.92
9743.00,0.92
9742.00,0.92
9741.00,0.92
9740.00,0.92
9739.00,0.92
9738.00,0.92
9737.00,0.92
9736.00,0.92
9735.00,0.93
9734.00,0.93
9733.00,0.93
9732.00,0.93
9731.00,0.94
9730.00,0.94
9729.00,0.95
9728.00,0.95
9727.00,0.96
9726.00,0.96
9725.00,0.97
9724.00,0.97
9723.00,0.98
9722.00,0.98
9721.00,0.99
9720.00,0.99
9719.00,1.00
9718.00,1.01
9717.00,1.01
9716.00,1.02
9715.00,1.02
9714.00,1.03
9713.00,1.04
9712.00,1.04
9711.00,1.05
9710.00,1.06
9709.00,1.06
9708.00,1.07
9707.00,1.08
9706.00,1.09
9705.00,1.09
9704.00,1.10
9703.00,1.11
9702.00,1.12
9701.00,1.12
9700.00,1.13
9699.00,1.14
9698.00,1.14
9697.00,1.15
9696.00,1.15
9695.00,1.15
9694.00,1.15
9693.00,1.16
9692.00,1.16
9691.00,1.16
9690.00,1.16
9689.00,1.16
9688.00,1.16
9687.00,1.15
9686.00,1.15
9685.00,1.15
9684.00,1.14
9683.00,1.14
9682.00,1.13
9681.00,1.12
9680.00,1.12
9679.00,1.11
9678.00,1.10
9677.00,1.09
9676.00,1.09
9675.00,1.08
9674.00,1.07
9673.00,1.07
9672.00,1.06
9671.00,1.06
9670.00,1.05
9669.00,1.05
9668.00,1.05
9667.00,1.05
9666.00,1.05
9665.00,1.04
9664.00,1.04
9663.00,1.05
9662.00,1.05
9661.00,1.05
9660.00,1.05
9659.00,1.05
9658.00,1.05
9657.00,1.06
9656.00,1.06
9655.00,1.06
9654.00,1.07
9653.00,1.07
9652.00,1.08
9651.00,1.08
9650.00,1.08
9649.00,1.09
9648.00,1.09
9647.00,1.09
9646.00,1.09
9645.00,1.09
9644.00,1.09
9643.00,1.09
9642.00,1.09
9641.00,1.09
9640.00,1.09
9639.00,1.08
9638.00,1.08
9637.00,1.08
9636.00,1.08
9635.00,1.08
9634.00,1.08
9633.00,1.08
9632.00,1.07
9631.00,1.07
9630.00,1.07
9629.00,1.07
9628.00,1.07
9627.00,1.07
9626.00,1.07
9625.00,1.06
9624.00,1.06
9623.00,1.06
9622.00,1.06
9621.00,1.06
9620.00,1.07
9619.00,1.07
9618.00,1.07
9617.00,1.07
9616.00,1.08
9615.00,1.08
9614.00,1.08
9613.00,1.09
9612.00,1.09
9611.00,1.09
9610.00,1.09
9609.00,1.09
9608.00,1.09
9607.00,1.09
9606.00,1.09
9605.00,1.09
9604.00,1.09
9603.00,1.09
9602.00,1.10
9601.00,1.10
9600.00,1.10
9599.00,1.10
9598.00,1.10
9597.00,1.10
9596.00,1.10
9595.00,1.10
9594.00,1.09
9593.00,1.09
9592.00,1.09
9591.00,1.09
9590.00,1.08
9589.00,1.08
9588.00,1.08
9587.00,1.07
9586.00,1.07
9585.00,1.07
9584.00,1.07
9583.00,1.06
9582.00,1.06
9581.00,1.06
9580.00,1.06
9579.00,1.06
9578.00,1.06
9577.00,1.06
9576.00,1.06
9575.00,1.05
9574.00,1.05
9573.00,1.05
9572.00,1.05
9571.00,1.05
9570.00,1.04
9569.00,1.04
9568.00,1.04
9567.00,1.04
9566.00,1.04
9565.00,1.04
9564.00,1.04
9563.00,1.04
9562.00,1.04
9561.00,1.04
9560.00,1.04
9559.00,1.05
9558.00,1.05
9557.00,1.05
9556.00,1.05
9555.00,1.05
9554.00,1.05
9553.00,1.05
9552.00,1.05
9551.00,1.05
9550.00,1.04
9549.00,1.04
9548.00,1.04
9547.00,1.04
9546.00,1.04
9545.00,1.03
9544.00,1.03
9543.00,1.03
9542.00,1.03
9541.00,1.02
9540.00,1.02
9539.00,1.02
9538.00,1.01
9537.00,1.01
9536.00,1.01
9535.00,1.00
9534.00,1.00
9533.00,0.99
9532.00,0.99
9531.00,0.99
9530.00,0.98
9529.00,0.98
9528.00,0.98
9527.00,0.98
9526.00,0.98
9525.00,0.98
9524.00,0.99
9523.00,0.99
9522.00,0.99
9521.00,1.00
9520.00,1.00
9519.00,1.01
9518.00,1.02
9517.00,1.02
9516.00,1.03
9515.00,1.04
9514.00,1.05
9513.00,1.06
9512.00,1.07
9511.00,1.08
9510.00,1.08
9509.00,1.09
9508.00,1.10
9507.00,1.11
9506.00,1.12
9505.00,1.12
9504.00,1.13
9503.00,1.14
9502.00,1.15
9501.00,1.15
9500.00,1.16
9499.00,1.17
9498.00,1.17
9497.00,1.18
9496.00,1.18
9495.00,1.18
9494.00,1.18
9493.00,1.18
9492.00,1.18
9491.00,1.18
9490.00,1.18
9489.00,1.18
9488.00,1.17
9487.00,1.17
9486.00,1.16
9485.00,1.16
9484.00,1.16
9483.00,1.15
9482.00,1.15
9481.00,1.15
9480.00,1.14
9479.00,1.14
9478.00,1.13
9477.00,1.13
9476.00,1.12
9475.00,1.11
9474.00,1.10
9473.00,1.09
9472.00,1.08
9471.00,1.07
9470.00,1.06
9469.00,1.05
9468.00,1.04
9467.00,1.03
9466.00,1.02
9465.00,1.01
9464.00,1.00
9463.00,0.99
9462.00,0.99
9461.00,0.98
9460.00,0.97
9459.00,0.96
9458.00,0.96
9457.00,0.95
9456.00,0.94
9455.00,0.93
9454.00,0.92
9453.00,0.92
9452.00,0.91
9451.00,0.90
9450.00,0.90
9449.00,0.89
9448.00,0.89
9447.00,0.89
9446.00,0.89
9445.00,0.89
9444.00,0.89
9443.00,0.90
9442.00,0.90
9441.00,0.90
9440.00,0.91
9439.00,0.91
9438.00,0.91
9437.00,0.92
9436.00,0.92
9435.00,0.93
9434.00,0.93
9433.00,0.94
9432.00,0.94
9431.00,0.95
9430.00,0.95
9429.00,0.96
9428.00,0.97
9427.00,0.98
9426.00,0.99
9425.00,1.00
9424.00,1.01
9423.00,1.01
9422.00,1.02
9421.00,1.03
9420.00,1.04
9419.00,1.04
9418.00,1.05
9417.00,1.06
9416.00,1.06
9415.00,1.07
9414.00,1.07
9413.00,1.08
9412.00,1.08
9411.00,1.09
9410.00,1.09
9409.00,1.10
9408.00,1.10
9407.00,1.11
9406.00,1.11
9405.00,1.11
9404.00,1.12
9403.00,1.12
9402.00,1.12
9401.00,1.12
9400.00,1.12
9399.00,1.12
9398.00,1.12
9397.00,1.11
9396.00,1.11
9395.00,1.11
9394.00,1.11
9393.00,1.11
9392.00,1.11
9391.00,1.10
9390.00,1.10
9389.00,1.10
9388.00,1.10
9387.00,1.10
9386.00,1.09
9385.00,1.09
9384.00,1.09
9383.00,1.09
9382.00,1.09
9381.00,1.08
9380.00,1.08
9379.00,1.08
9378.00,1.08
9377.00,1.08
9376.00,1.08
9375.00,1.08
9374.00,1.09
9373.00,1.09
9372.00,1.09
9371.00,1.09
9370.00,1.10
9369.00,1.10
9368.00,1.10
9367.00,1.10
9366.00,1.11
9365.00,1.11
9364.00,1.11
9363.00,1.11
9362.00,1.11
9361.00,1.11
9360.00,1.11
9359.00,1.11
9358.00,1.11
9357.00,1.11
9356.00,1.11
9355.00,1.11
9354.00,1.11
9353.00,1.11
9352.00,1.11
9351.00,1.11
9350.00,1.11
9349.00,1.11
9348.00,1.11
9347.00,1.11
9346.00,1.11
9345.00,1.11
9344.00,1.11
9343.00,1.10
9342.00,1.10
9341.00,1.10
9340.00,1.10
9339.00,1.10
9338.00,1.10
9337.00,1.10
9336.00,1.11
9335.00,1.11
9334.00,1.11
9333.00,1.11
9332.00,1.11
9331.00,1.12
9330.00,1.12
9329.00,1.12
9328.00,1.12
9327.00,1.12
9326.00,1.12
9325.00,1.12
9324.00,1.12
9323.00,1.12
9322.00,1.12
9321.00,1.12
9320.00,1.12
9319.00,1.12
9318.00,1.12
9317.00,1.12
9316.00,1.12
9315.00,1.12
9314.00,1.12
9313.00,1.12
9312.00,1.12
9311.00,1.12
9310.00,1.11
9309.00,1.11
9308.00,1.11
9307.00,1.11
9306.00,1.11
9305.00,1.10
9304.00,1.10
9303.00,1.10
9302.00,1.09
9301.00,1.09
9300.00,1.08
9299.00,1.08
9298.00,1.08
9297.00,1.07
9296.00,1.07
9295.00,1.07
9294.00,1.06
9293.00,1.06
9292.00,1.06
9291.00,1.05
9290.00,1.05
9289.00,1.05
9288.00,1.05
9287.00,1.05
9286.00,1.04
9285.00,1.04
9284.00,1.04
9283.00,1.04
9282.00,1.03
9281.00,1.03
9280.00,1.03
9279.00,1.03
9278.00,1.03
9277.00,1.03
9276.00,1.04
9275.00,1.04
9274.00,1.04
9273.00,1.04
9272.00,1.05
9271.00,1.05
9270.00,1.05
9269.00,1.05
9268.00,1.05
9267.00,1.05
9266.00,1.05
9265.00,1.05
9264.00,1.06
9263.00,1.06
9262.00,1.06
9261.00,1.06
9260.00,1.06
9259.00,1.06
9258.00,1.06
9257.00,1.06
9256.00,1.06
9255.00,1.06
9254.00,1.06
9253.00,1.06
9252.00,1.06
9251.00,1.06
9250.00,1.06
9249.00,1.05
9248.00,1.05
9247.00,1.05
9246.00,1.05
9245.00,1.04
9244.00,1.04
9243.00,1.04
9242.00,1.04
9241.00,1.04
9240.00,1.04
9239.00,1.04
9238.00,1.04
9237.00,1.04
9236.00,1.04
9235.00,1.04
9234.00,1.04
9233.00,1.04
9232.00,1.04
9231.00,1.04
9230.00,1.04
9229.00,1.05
9228.00,1.05
9227.00,1.05
9226.00,1.05
9225.00,1.05
9224.00,1.05
9223.00,1.05
9222.00,1.05
9221.00,1.05
9220.00,1.05
9219.00,1.05
9218.00,1.05
9217.00,1.05
9216.00,1.04
9215.00,1.04
9214.00,1.04
9213.00,1.03
9212.00,1.02
9211.00,1.02
9210.00,1.01
9209.00,1.01
9208.00,1.00
9207.00,1.00
9206.00,0.99
9205.00,0.98
9204.00,0.98
9203.00,0.97
9202.00,0.96
9201.00,0.95
9200.00,0.95
9199.00,0.94
9198.00,0.93
9197.00,0.93
9196.00,0.92
9195.00,0.92
9194.00,0.91
9193.00,0.91
9192.00,0.91
9191.00,0.91
9190.00,0.90
9189.00,0.91
9188.00,0.91
9187.00,0.91
9186.00,0.91
9185.00,0.92
9184.00,0.92
9183.00,0.93
9182.00,0.93
9181.00,0.94
9180.00,0.94
9179.00,0.95
9178.00,0.96
9177.00,0.97
9176.00,0.98
9175.00,0.98
9174.00,0.99
9173.00,1.00
9172.00,1.01
9171.00,1.02
9170.00,1.02
9169.00,1.03
9168.00,1.04
9167.00,1.04
9166.00,1.05
9165.00,1.06
9164.00,1.06
9163.00,1.07
9162.00,1.08
9161.00,1.08
9160.00,1.09
9159.00,1.09
9158.00,1.09
9157.00,1.10
9156.00,1.10
9155.00,1.10
9154.00,1.10
9153.00,1.09
9152.00,1.09
9151.00,1.09
9150.00,1.09
9149.00,1.09
9148.00,1.09
9147.00,1.08
9146.00,1.08
9145.00,1.08
9144.00,1.08
9143.00,1.08
9142.00,1.08
9141.00,1.08
9140.00,1.08
9139.00,1.08
9138.00,1.07
9137.00,1.07
9136.00,1.07
9135.00,1.06
9134.00,1.06
9133.00,1.06
9132.00,1.05
9131.00,1.05
9130.00,1.05
9129.00,1.05
9128.00,1.05
9127.00,1.05
9126.00,1.05
9125.00,1.05
9124.00,1.05
9123.00,1.05
9122.00,1.05
9121.00,1.06
9120.00,1.06
9119.00,1.06
9118.00,1.06
9117.00,1.06
9116.00,1.05
9115.00,1.05
9114.00,1.05
9113.00,1.05
9112.00,1.05
9111.00,1.05
9110.00,1.05
9109.00,1.05
9108.00,1.05
9107.00,1.05
9106.00,1.05
9105.00,1.05
9104.00,1.05
9103.00,1.05
9102.00,1.05
9101.00,1.04
9100.00,1.04
9099.00,1.04
9098.00,1.03
9097.00,1.03
9096.00,1.03
9095.00,1.02
9094.00,1.02
9093.00,1.02
9092.00,1.02
9091.00,1.01
9090.00,1.01
9089.00,1.01
9088.00,1.01
9087.00,1.01
9086.00,1.01
9085.00,1.01
9084.00,1.01
9083.00,1.01
9082.00,1.01
9081.00,1.01
9080.00,1.01
9079.00,1.01
9078.00,1.01
9077.00,1.02
9076.00,1.02
9075.00,1.02
9074.00,1.02
9073.00,1.02
9072.00,1.03
9071.00,1.03
9070.00,1.03
9069.00,1.03
9068.00,1.03
9067.00,1.03
9066.00,1.03
9065.00,1.03
9064.00,1.03
9063.00,1.03
9062.00,1.03
9061.00,1.03
9060.00,1.04
9059.00,1.04
9058.00,1.04
9057.00,1.04
9056.00,1.04
9055.00,1.04
9054.00,1.04
9053.00,1.04
9052.00,1.04
9051.00,1.04
9050.00,1.04
9049.00,1.05
9048.00,1.05
9047.00,1.05
9046.00,1.06
9045.00,1.06
9044.00,1.06
9043.00,1.07
9042.00,1.07
9041.00,1.08
9040.00,1.08
9039.00,1.08
9038.00,1.09
9037.00,1.09
9036.00,1.09
9035.00,1.09
9034.00,1.10
9033.00,1.10
9032.00,1.10
9031.00,1.10
9030.00,1.10
9029.00,1.10
9028.00,1.10
9027.00,1.10
9026.00,1.10
9025.00,1.10
9024.00,1.10
9023.00,1.10
9022.00,1.09
9021.00,1.09
9020.00,1.09
9019.00,1.09
9018.00,1.08
9017.00,1.08
9016.00,1.08
9015.00,1.08
9014.00,1.07
9013.00,1.07
9012.00,1.07
9011.00,1.07
9010.00,1.06
9009.00,1.06
9008.00,1.06
9007.00,1.05
9006.00,1.05
9005.00,1.05
9004.00,1.05
9003.00,1.04
9002.00,1.04
9001.00,1.04
9000.00,1.03
8999.00,1.03
8998.00,1.03
8997.00,1.03
8996.00,1.03
8995.00,1.02
8994.00,1.02
8993.00,1.02
8992.00,1.01
8991.00,1.01
8990.00,1.00
8989.00,1.00
8988.00,0.99
8987.00,0.98
8986.00,0.98
8985.00,0.97
8984.00,0.96
8983.00,0.96
8982.00,0.95
8981.00,0.95
8980.00,0.94
8979.00,0.94
8978.00,0.94
8977.00,0.93
8976.00,0.93
8975.00,0.93
8974.00,0.93
8973.00,0.93
8972.00,0.93
8971.00,0.93
8970.00,0.93
8969.00,0.93
8968.00,0.93
8967.00,0.93
8966.00,0.93
8965.00,0.94
8964.00,0.94
8963.00,0.95
8962.00,0.95
8961.00,0.96
8960.00,0.97
8959.00,0.97
8958.00,0.98
8957.00,0.99
8956.00,1.00
8955.00,1.00
8954.00,1.01
8953.00,1.02
8952.00,1.03
8951.00,1.03
8950.00,1.04
8949.00,1.05
8948.00,1.06
8947.00,1.06
8946.00,1.07
8945.00,1.08
8944.00,1.08
8943.00,1.09
8942.00,1.09
8941.00,1.10
8940.00,1.10
8939.00,1.11
8938.00,1.11
8937.00,1.12
8936.00,1.12
8935.00,1.13
8934.00,1.13
8933.00,1.13
8932.00,1.14
8931.00,1.14
8930.00,1.14
8929.00,1.14
8928.00,1.14
8927.00,1.14
8926.00,1.14
8925.00,1.14
8924.00,1.13
8923.00,1.13
8922.00,1.13
8921.00,1.12
8920.00,1.12
8919.00,1.12
8918.00,1.11
8917.00,1.11
8916.00,1.10
8915.00,1.10
8914.00,1.10
8913.00,1.09
8912.00,1.09
8911.00,1.09
8910.00,1.08
8909.00,1.08
8908.00,1.07
8907.00,1.07
8906.00,1.07
8905.00,1.06
8904.00,1.06
8903.00,1.06
8902.00,1.05
8901.00,1.05
8900.00,1.05
8899.00,1.05
8898.00,1.06
8897.00,1.06
8896.00,1.06
8895.00,1.06
8894.00,1.07
8893.00,1.07
8892.00,1.07
8891.00,1.08
8890.00,1.08
8889.00,1.08
8888.00,1.08
8887.00,1.08
8886.00,1.08
8885.00,1.09
8884.00,1.09
8883.00,1.09
8882.00,1.09
8881.00,1.10
8880.00,1.10
8879.00,1.10
8878.00,1.10
8877.00,1.11
8876.00,1.11
8875.00,1.11
8874.00,1.11
8873.00,1.11
8872.00,1.11
8871.00,1.11
8870.00,1.11
8869.00,1.11
8868.00,1.11
8867.00,1.11
8866.00,1.11
8865.00,1.11
8864.00,1.11
8863.00,1.11
8862.00,1.11
8861.00,1.11
8860.00,1.11
8859.00,1.11
8858.00,1.11
8857.00,1.11
8856.00,1.11
8855.00,1.11
8854.00,1.10
8853.00,1.10
8852.00,1.10
8851.00,1.09
8850.00,1.09
8849.00,1.09
8848.00,1.09
8847.00,1.08
8846.00,1.08
8845.00,1.08
8844.00,1.08
8843.00,1.08
8842.00,1.08
8841.00,1.08
8840.00,1.08
8839.00,1.08
8838.00,1.08
8837.00,1.08
8836.00,1.08
8835.00,1.08
8834.00,1.07
8833.00,1.07
8832.00,1.08
8831.00,1.08
8830.00,1.08
8829.00,1.08
8828.00,1.08
8827.00,1.08
8826.00,1.08
8825.00,1.08
8824.00,1.08
8823.00,1.08
8822.00,1.08
8821.00,1.08
8820.00,1.08
8819.00,1.08
8818.00,1.08
8817.00,1.08
8816.00,1.08
8815.00,1.08
8814.00,1.08
8813.00,1.08
8812.00,1.08
8811.00,1.07
8810.00,1.07
8809.00,1.07
8808.00,1.07
8807.00,1.07
8806.00,1.08
8805.00,1.08
8804.00,1.08
8803.00,1.08
8802.00,1.08
8801.00,1.08
8800.00,1.08
8799.00,1.08
8798.00,1.08
8797.00,1.08
8796.00,1.08
8795.00,1.09
8794.00,1.09
8793.00,1.09
8792.00,1.09
8791.00,1.09
8790.00,1.09
8789.00,1.09
8788.00,1.09
8787.00,1.08
8786.00,1.08
8785.00,1.08
8784.00,1.08
8783.00,1.07
8782.00,1.07
8781.00,1.07
8780.00,1.06
8779.00,1.06
8778.00,1.05
8777.00,1.05
8776.00,1.05
8775.00,1.04
8774.00,1.04
8773.00,1.03
8772.00,1.03
8771.00,1.03
8770.00,1.02
8769.00,1.02
8768.00,1.02
8767.00,1.02
8766.00,1.01
8765.00,1.01
8764.00,1.01
8763.00,1.01
8762.00,1.01
8761.00,1.01
8760.00,1.01
8759.00,1.01
8758.00,1.01
8757.00,1.01
8756.00,1.01
8755.00,1.01
8754.00,1.02
8753.00,1.02
8752.00,1.02
8751.00,1.02
8750.00,1.02
8749.00,1.02
8748.00,1.02
8747.00,1.02
8746.00,1.02
8745.00,1.01
8744.00,1.01
8743.00,1.01
8742.00,1.01
8741.00,1.01
8740.00,1.01
8739.00,1.01
8738.00,1.01
8737.00,1.01
8736.00,1.01
8735.00,1.01
8734.00,1.01
8733.00,1.01
8732.00,1.01
8731.00,1.01
8730.00,1.00
8729.00,1.00
8728.00,1.00
8727.00,1.00
8726.00,1.00
8725.00,1.00
8724.00,1.01
8723.00,1.01
8722.00,1.01
8721.00,1.01
8720.00,1.01
8719.00,1.01
8718.00,1.02
8717.00,1.02
8716.00,1.02
8715.00,1.02
8714.00,1.02
8713.00,1.02
8712.00,1.02
8711.00,1.02
8710.00,1.02
8709.00,1.01
8708.00,1.01
8707.00,1.01
8706.00,1.01
8705.00,1.01
8704.00,1.01
8703.00,1.01
8702.00,1.01
8701.00,1.01
8700.00,1.01
8699.00,1.01
8698.00,1.01
8697.00,1.01
8696.00,1.01
8695.00,1.00
8694.00,1.00
8693.00,1.00
8692.00,1.00
8691.00,1.00
8690.00,1.00
8689.00,1.00
8688.00,1.00
8687.00,1.00
8686.00,1.00
8685.00,1.00
8684.00,1.00
8683.00,1.00
8682.00,1.00
8681.00,1.01
8680.00,1.01
8679.00,1.01
8678.00,1.01
8677.00,1.01
8676.00,1.01
8675.00,1.01
8674.00,1.02
8673.00,1.02
8672.00,1.02
8671.00,1.02
8670.00,1.02
8669.00,1.02
8668.00,1.03
8667.00,1.03
8666.00,1.03
8665.00,1.03
8664.00,1.03
8663.00,1.04
8662.00,1.04
8661.00,1.04
8660.00,1.04
8659.00,1.04
8658.00,1.04
8657.00,1.04
8656.00,1.04
8655.00,1.04
8654.00,1.04
8653.00,1.04
8652.00,1.04
8651.00,1.04
8650.00,1.04
8649.00,1.04
8648.00,1.04
8647.00,1.04
8646.00,1.04
8645.00,1.04
8644.00,1.04
8643.00,1.04
8642.00,1.04
8641.00,1.04
8640.00,1.04
8639.00,1.04
8638.00,1.03
8637.00,1.03
8636.00,1.03
8635.00,1.03
8634.00,1.03
8633.00,1.03
8632.00,1.03
8631.00,1.03
8630.00,1.03
8629.00,1.03
8628.00,1.03
8627.00,1.03
8626.00,1.03
8625.00,1.03
8624.00,1.03
8623.00,1.03
8622.00,1.03
8621.00,1.03
8620.00,1.02
8619.00,1.02
8618.00,1.02
8617.00,1.02
8616.00,1.02
8615.00,1.01
8614.00,1.01
8613.00,1.01
8612.00,1.01
8611.00,1.00
8610.00,1.00
8609.00,1.00
8608.00,0.99
8607.00,0.99
8606.00,0.99
8605.00,0.98
8604.00,0.98
8603.00,0.97
8602.00,0.97
8601.00,0.97
8600.00,0.97
8599.00,0.97
8598.00,0.97
8597.00,0.97
8596.00,0.97
8595.00,0.97
8594.00,0.98
8593.00,0.98
8592.00,0.98
8591.00,0.99
8590.00,0.99
8589.00,1.00
8588.00,1.00
8587.00,1.01
8586.00,1.02
8585.00,1.02
8584.00,1.03
8583.00,1.04
8582.00,1.04
8581.00,1.05
8580.00,1.06
8579.00,1.07
8578.00,1.08
8577.00,1.09
8576.00,1.10
8575.00,1.10
8574.00,1.11
8573.00,1.11
8572.00,1.12
8571.00,1.12
8570.00,1.12
8569.00,1.12
8568.00,1.12
8567.00,1.12
8566.00,1.12
8565.00,1.12
8564.00,1.12
8563.00,1.12
8562.00,1.12
8561.00,1.12
8560.00,1.12
8559.00,1.12
8558.00,1.12
8557.00,1.12
8556.00,1.11
8555.00,1.11
8554.00,1.10
8553.00,1.10
8552.00,1.10
8551.00,1.09
8550.00,1.09
8549.00,1.09
8548.00,1.08
8547.00,1.08
8546.00,1.08
8545.00,1.08
8544.00,1.08
8543.00,1.08
8542.00,1.09
8541.00,1.09
8540.00,1.09
8539.00,1.09
8538.00,1.09
8537.00,1.09
8536.00,1.09
8535.00,1.10
8534.00,1.10
8533.00,1.10
8532.00,1.10
8531.00,1.10
8530.00,1.10
8529.00,1.11
8528.00,1.11
8527.00,1.11
8526.00,1.12
8525.00,1.12
8524.00,1.12
8523.00,1.13
8522.00,1.13
8521.00,1.13
8520.00,1.13
8519.00,1.13
8518.00,1.14
8517.00,1.14
8516.00,1.14
8515.00,1.14
8514.00,1.14
8513.00,1.14
8512.00,1.14
8511.00,1.14
8510.00,1.14
8509.00,1.14
8508.00,1.14
8507.00,1.14
8506.00,1.14
8505.00,1.13
8504.00,1.13
8503.00,1.13
8502.00,1.13
8501.00,1.13
8500.00,1.13
8499.00,1.12
8498.00,1.12
8497.00,1.12
8496.00,1.12
8495.00,1.11
8494.00,1.11
8493.00,1.11
8492.00,1.11
8491.00,1.11
8490.00,1.11
8489.00,1.10
8488.00,1.10
8487.00,1.10
8486.00,1.10
8485.00,1.10
8484.00,1.10
8483.00,1.10
8482.00,1.10
8481.00,1.10
8480.00,1.10
8479.00,1.10
8478.00,1.10
8477.00,1.10
8476.00,1.09
8475.00,1.09
8474.00,1.09
8473.00,1.09
8472.00,1.09
8471.00,1.09
8470.00,1.09
8469.00,1.09
8468.00,1.09
8467.00,1.09
8466.00,1.09
8465.00,1.09
8464.00,1.09
8463.00,1.09
8462.00,1.09
8461.00,1.08
8460.00,1.08
8459.00,1.08
8458.00,1.08
8457.00,1.08
8456.00,1.08
8455.00,1.08
8454.00,1.08
8453.00,1.08
8452.00,1.08
8451.00,1.09
8450.00,1.09
8449.00,1.09
8448.00,1.10
8447.00,1.10
8446.00,1.11
8445.00,1.11
8444.00,1.11
8443.00,1.12
8442.00,1.12
8441.00,1.13
8440.00,1.13
8439.00,1.13
8438.00,1.14
8437.00,1.14
8436.00,1.15
8435.00,1.15
8434.00,1.15
8433.00,1.16
8432.00,1.16
8431.00,1.16
8430.00,1.16
8429.00,1.17
8428.00,1.17
8427.00,1.16
8426.00,1.16
8425.00,1.16
8424.00,1.16
8423.00,1.15
8422.00,1.15
8421.00,1.14
8420.00,1.14
8419.00,1.13
8418.00,1.13
8417.00,1.13
8416.00,1.12
8415.00,1.12
8414.00,1.11
8413.00,1.11
8412.00,1.10
8411.00,1.10
8410.00,1.09
8409.00,1.09
8408.00,1.09
8407.00,1.08
8406.00,1.08
8405.00,1.08
8404.00,1.08
8403.00,1.08
8402.00,1.08
8401.00,1.08
8400.00,1.08
8399.00,1.08
8398.00,1.09
8397.00,1.09
8396.00,1.09
8395.00,1.09
8394.00,1.10
8393.00,1.10
8392.00,1.10
8391.00,1.10
8390.00,1.11
8389.00,1.11
8388.00,1.11
8387.00,1.12
8386.00,1.12
8385.00,1.12
8384.00,1.13
8383.00,1.13
8382.00,1.13
8381.00,1.13
8380.00,1.14
8379.00,1.14
8378.00,1.14
8377.00,1.14
8376.00,1.14
8375.00,1.14
8374.00,1.14
8373.00,1.14
8372.00,1.14
8371.00,1.14
8370.00,1.14
8369.00,1.14
8368.00,1.14
8367.00,1.14
8366.00,1.14
8365.00,1.14
8364.00,1.14
8363.00,1.14
8362.00,1.14
8361.00,1.14
8360.00,1.14
8359.00,1.13
8358.00,1.13
8357.00,1.13
8356.00,1.13
8355.00,1.12
8354.00,1.12
8353.00,1.11
8352.00,1.11
8351.00,1.11
8350.00,1.10
8349.00,1.10
8348.00,1.09
8347.00,1.09
8346.00,1.08
8345.00,1.08
8344.00,1.07
8343.00,1.07
8342.00,1.06
8341.00,1.06
8340.00,1.05
8339.00,1.05
8338.00,1.05
8337.00,1.04
8336.00,1.04
8335.00,1.03
8334.00,1.03
8333.00,1.03
8332.00,1.03
8331.00,1.02
8330.00,1.02
8329.00,1.02
8328.00,1.02
8327.00,1.02
8326.00,1.02
8325.00,1.02
8324.00,1.02
8323.00,1.02
8322.00,1.02
8321.00,1.02
8320.00,1.02
8319.00,1.02
8318.00,1.02
8317.00,1.02
8316.00,1.02
8315.00,1.02
8314.00,1.02
8313.00,1.02
8312.00,1.02
8311.00,1.02
8310.00,1.02
8309.00,1.02
8308.00,1.03
8307.00,1.03
8306.00,1.03
8305.00,1.03
8304.00,1.03
8303.00,1.04
8302.00,1.04
8301.00,1.04
8300.00,1.04
8299.00,1.04
8298.00,1.05
8297.00,1.05
8296.00,1.05
8295.00,1.05
8294.00,1.05
8293.00,1.05
8292.00,1.05
8291.00,1.05
8290.00,1.05
8289.00,1.05
8288.00,1.05
8287.00,1.05
8286.00,1.05
8285.00,1.05
8284.00,1.05
8283.00,1.05
8282.00,1.05
8281.00,1.04
8280.00,1.04
8279.00,1.04
8278.00,1.04
8277.00,1.03
8276.00,1.03
8275.00,1.03
8274.00,1.03
8273.00,1.03
8272.00,1.02
8271.00,1.02
8270.00,1.02
8269.00,1.02
8268.00,1.02
8267.00,1.02
8266.00,1.03
8265.00,1.03
8264.00,1.03
8263.00,1.03
8262.00,1.04
8261.00,1.04
8260.00,1.04
8259.00,1.05
8258.00,1.06
8257.00,1.06
8256.00,1.07
8255.00,1.07
8254.00,1.08
8253.00,1.08
8252.00,1.09
8251.00,1.09
8250.00,1.09
8249.00,1.10
8248.00,1.10
8247.00,1.10
8246.00,1.10
8245.00,1.10
8244.00,1.10
8243.00,1.10
8242.00,1.10
8241.00,1.10
8240.00,1.10
8239.00,1.10
8238.00,1.10
8237.00,1.09
8236.00,1.09
8235.00,1.08
8234.00,1.08
8233.00,1.07
8232.00,1.07
8231.00,1.06
8230.00,1.06
8229.00,1.05
8228.00,1.04
8227.00,1.04
8226.00,1.03
8225.00,1.03
8224.00,1.03
8223.00,1.02
8222.00,1.02
8221.00,1.02
8220.00,1.01
8219.00,1.01
8218.00,1.01
8217.00,1.01
8216.00,1.01
8215.00,1.01
8214.00,1.01
8213.00,1.01
8212.00,1.01
8211.00,1.02
8210.00,1.02
8209.00,1.02
8208.00,1.03
8207.00,1.03
8206.00,1.03
8205.00,1.04
8204.00,1.04
8203.00,1.05
8202.00,1.06
8201.00,1.06
8200.00,1.07
8199.00,1.07
8198.00,1.07
8197.00,1.08
8196.00,1.08
8195.00,1.09
8194.00,1.09
8193.00,1.09
8192.00,1.09
8191.00,1.10
8190.00,1.10
8189.00,1.10
8188.00,1.10
8187.00,1.10
8186.00,1.10
8185.00,1.09
8184.00,1.09
8183.00,1.09
8182.00,1.08
8181.00,1.08
8180.00,1.08
8179.00,1.07
8178.00,1.06
8177.00,1.06
8176.00,1.05
8175.00,1.05
8174.00,1.04
8173.00,1.04
8172.00,1.03
8171.00,1.03
8170.00,1.02
8169.00,1.02
8168.00,1.02
8167.00,1.01
8166.00,1.01
8165.00,1.00
8164.00,1.00
8163.00,1.00
8162.00,0.99
8161.00,0.99
8160.00,0.99
8159.00,0.99
8158.00,0.99
8157.00,0.99
8156.00,0.99
8155.00,0.99
8154.00,1.00
8153.00,1.00
8152.00,1.00
8151.00,1.00
8150.00,1.01
8149.00,1.01
8148.00,1.01
8147.00,1.02
8146.00,1.02
8145.00,1.02
8144.00,1.02
8143.00,1.03
8142.00,1.03
8141.00,1.03
8140.00,1.03
8139.00,1.04
8138.00,1.04
8137.00,1.04
8136.00,1.05
8135.00,1.05
8134.00,1.05
8133.00,1.05
8132.00,1.06
8131.00,1.06
8130.00,1.06
8129.00,1.06
8128.00,1.06
8127.00,1.06
8126.00,1.06
8125.00,1.06
8124.00,1.06
8123.00,1.06
8122.00,1.06
8121.00,1.06
8120.00,1.06
8119.00,1.06
8118.00,1.06
8117.00,1.06
8116.00,1.06
8115.00,1.06
8114.00,1.06
8113.00,1.06
8112.00,1.06
8111.00,1.06
8110.00,1.05
8109.00,1.05
8108.00,1.05
8107.00,1.05
8106.00,1.05
8105.00,1.05
8104.00,1.05
8103.00,1.05
8102.00,1.05
8101.00,1.05
8100.00,1.05
8099.00,1.06
8098.00,1.06
8097.00,1.06
8096.00,1.06
8095.00,1.07
8094.00,1.07
8093.00,1.07
8092.00,1.07
8091.00,1.08
8090.00,1.08
8089.00,1.08
8088.00,1.08
8087.00,1.09
8086.00,1.09
8085.00,1.09
8084.00,1.09
8083.00,1.09
8082.00,1.09
8081.00,1.10
8080.00,1.10
8079.00,1.10
8078.00,1.10
8077.00,1.10
8076.00,1.09
8075.00,1.09
8074.00,1.09
8073.00,1.09
8072.00,1.09
8071.00,1.09
8070.00,1.08
8069.00,1.08
8068.00,1.08
8067.00,1.08
8066.00,1.08
8065.00,1.07
8064.00,1.07
8063.00,1.07
8062.00,1.07
8061.00,1.07
8060.00,1.06
8059.00,1.06
8058.00,1.06
8057.00,1.06
8056.00,1.06
8055.00,1.06
8054.00,1.05
8053.00,1.05
8052.00,1.05
8051.00,1.05
8050.00,1.05
8049.00,1.05
8048.00,1.05
8047.00,1.05
8046.00,1.05
8045.00,1.05
8044.00,1.05
8043.00,1.05
8042.00,1.05
8041.00,1.05
8040.00,1.05
8039.00,1.05
8038.00,1.05
8037.00,1.05
8036.00,1.05
8035.00,1.06
8034.00,1.06
8033.00,1.06
8032.00,1.06
8031.00,1.07
8030.00,1.07
8029.00,1.07
8028.00,1.07
8027.00,1.07
8026.00,1.08
8025.00,1.08
8024.00,1.08
8023.00,1.08
8022.00,1.08
8021.00,1.08
8020.00,1.09
8019.00,1.09
8018.00,1.09
8017.00,1.09
8016.00,1.09
8015.00,1.09
8014.00,1.09
8013.00,1.09
8012.00,1.09
8011.00,1.09
8010.00,1.09
8009.00,1.09
8008.00,1.09
8007.00,1.09
8006.00,1.08
8005.00,1.08
8004.00,1.08
8003.00,1.08
8002.00,1.08
8001.00,1.08
8000.00,1.08
7999.00,1.08
7998.00,1.07
7997.00,1.07
7996.00,1.07
7995.00,1.07
7994.00,1.07
7993.00,1.07
7992.00,1.07
7991.00,1.07
7990.00,1.07
7989.00,1.07
7988.00,1.07
7987.00,1.07
7986.00,1.08
7985.00,1.08
7984.00,1.08
7983.00,1.08
7982.00,1.08
7981.00,1.08
7980.00,1.08
7979.00,1.09
7978.00,1.09
7977.00,1.09
7976.00,1.09
7975.00,1.09
7974.00,1.10
7973.00,1.10
7972.00,1.10
7971.00,1.10
7970.00,1.10
7969.00,1.10
7968.00,1.11
7967.00,1.11
7966.00,1.11
7965.00,1.11
7964.00,1.11
7963.00,1.11
7962.00,1.11
7961.00,1.11
7960.00,1.11
7959.00,1.11
7958.00,1.11
7957.00,1.11
7956.00,1.11
7955.00,1.11
7954.00,1.11
7953.00,1.11
7952.00,1.10
7951.00,1.10
7950.00,1.10
7949.00,1.10
7948.00,1.09
7947.00,1.09
7946.00,1.09
7945.00,1.09
7944.00,1.08
7943.00,1.08
7942.00,1.08
7941.00,1.07
7940.00,1.07
7939.00,1.07
7938.00,1.06
7937.00,1.06
7936.00,1.06
7935.00,1.06
7934.00,1.05
7933.00,1.05
7932.00,1.05
7931.00,1.05
7930.00,1.05
7929.00,1.05
7928.00,1.05
7927.00,1.05
7926.00,1.05
7925.00,1.05
7924.00,1.06
7923.00,1.06
7922.00,1.06
7921.00,1.06
7920.00,1.07
7919.00,1.07
7918.00,1.08
7917.00,1.08
7916.00,1.08
7915.00,1.09
7914.00,1.09
7913.00,1.10
7912.00,1.10
7911.00,1.11
7910.00,1.11
7909.00,1.12
7908.00,1.12
7907.00,1.13
7906.00,1.13
7905.00,1.14
7904.00,1.14
7903.00,1.14
7902.00,1.14
7901.00,1.14
7900.00,1.14
7899.00,1.14
7898.00,1.14
7897.00,1.14
7896.00,1.14
7895.00,1.14
7894.00,1.14
7893.00,1.14
7892.00,1.14
7891.00,1.13
7890.00,1.13
7889.00,1.13
7888.00,1.13
7887.00,1.12
7886.00,1.12
7885.00,1.11
7884.00,1.11
7883.00,1.10
7882.00,1.10
7881.00,1.10
7880.00,1.09
7879.00,1.09
7878.00,1.08
7877.00,1.08
7876.00,1.08
7875.00,1.08
7874.00,1.08
7873.00,1.08
7872.00,1.08
7871.00,1.08
7870.00,1.08
7869.00,1.08
7868.00,1.08
7867.00,1.08
7866.00,1.08
7865.00,1.08
7864.00,1.08
7863.00,1.08
7862.00,1.08
7861.00,1.08
7860.00,1.08
7859.00,1.09
7858.00,1.09
7857.00,1.09
7856.00,1.09
7855.00,1.10
7854.00,1.10
7853.00,1.10
7852.00,1.10
7851.00,1.11
7850.00,1.11
7849.00,1.11
7848.00,1.11
7847.00,1.11
7846.00,1.11
7845.00,1.11
7844.00,1.11
7843.00,1.11
7842.00,1.11
7841.00,1.11
7840.00,1.11
7839.00,1.11
7838.00,1.11
7837.00,1.11
7836.00,1.11
7835.00,1.11
7834.00,1.11
7833.00,1.11
7832.00,1.12
7831.00,1.12
7830.00,1.12
7829.00,1.12
7828.00,1.12
7827.00,1.12
7826.00,1.12
7825.00,1.12
7824.00,1.12
7823.00,1.12
7822.00,1.12
7821.00,1.12
7820.00,1.13
7819.00,1.13
7818.00,1.13
7817.00,1.13
7816.00,1.13
7815.00,1.13
7814.00,1.14
7813.00,1.14
7812.00,1.14
7811.00,1.14
7810.00,1.14
7809.00,1.14
7808.00,1.14
7807.00,1.14
7806.00,1.14
7805.00,1.14
7804.00,1.14
7803.00,1.14
7802.00,1.14
7801.00,1.14
7800.00,1.14
7799.00,1.14
7798.00,1.14
7797.00,1.14
7796.00,1.14
7795.00,1.14
7794.00,1.14
7793.00,1.14
7792.00,1.14
7791.00,1.14
7790.00,1.14
7789.00,1.14
7788.00,1.14
7787.00,1.14
7786.00,1.14
7785.00,1.14
7784.00,1.14
7783.00,1.14
7782.00,1.14
7781.00,1.14
7780.00,1.14
7779.00,1.14
7778.00,1.13
7777.00,1.13
7776.00,1.13
7775.00,1.13
7774.00,1.13
7773.00,1.13
7772.00,1.12
7771.00,1.12
7770.00,1.12
7769.00,1.12
7768.00,1.12
7767.00,1.11
7766.00,1.11
7765.00,1.11
7764.00,1.10
7763.00,1.10
7762.00,1.10
7761.00,1.09
7760.00,1.09
7759.00,1.09
7758.00,1.08
7757.00,1.08
7756.00,1.08
7755.00,1.08
7754.00,1.08
7753.00,1.08
7752.00,1.08
7751.00,1.08
7750.00,1.08
7749.00,1.08
7748.00,1.08
7747.00,1.08
7746.00,1.08
7745.00,1.09
7744.00,1.09
7743.00,1.09
7742.00,1.09
7741.00,1.09
7740.00,1.10
7739.00,1.10
7738.00,1.10
7737.00,1.11
7736.00,1.11
7735.00,1.12
7734.00,1.12
7733.00,1.12
7732.00,1.13
7731.00,1.13
7730.00,1.13
7729.00,1.14
7728.00,1.14
7727.00,1.14
7726.00,1.14
7725.00,1.14
7724.00,1.14
7723.00,1.14
7722.00,1.14
7721.00,1.14
7720.00,1.14
7719.00,1.14
7718.00,1.14
7717.00,1.14
7716.00,1.14
7715.00,1.14
7714.00,1.13
7713.00,1.13
7712.00,1.13
7711.00,1.13
7710.00,1.13
7709.00,1.13
7708.00,1.13
7707.00,1.12
7706.00,1.12
7705.00,1.12
7704.00,1.12
7703.00,1.12
7702.00,1.12
7701.00,1.13
7700.00,1.13
7699.00,1.13
7698.00,1.13
7697.00,1.13
7696.00,1.13
7695.00,1.14
7694.00,1.14
7693.00,1.14
7692.00,1.14
7691.00,1.15
7690.00,1.15
7689.00,1.15
7688.00,1.15
7687.00,1.16
7686.00,1.16
7685.00,1.16
7684.00,1.16
7683.00,1.16
7682.00,1.17
7681.00,1.17
7680.00,1.17
7679.00,1.17
7678.00,1.17
7677.00,1.17
7676.00,1.17
7675.00,1.17
7674.00,1.17
7673.00,1.17
7672.00,1.17
7671.00,1.17
7670.00,1.17
7669.00,1.17
7668.00,1.17
7667.00,1.17
7666.00,1.17
7665.00,1.17
7664.00,1.16
7663.00,1.16
7662.00,1.16
7661.00,1.16
7660.00,1.16
7659.00,1.16
7658.00,1.16
7657.00,1.16
7656.00,1.16
7655.00,1.16
7654.00,1.15
7653.00,1.15
7652.00,1.15
7651.00,1.15
7650.00,1.15
7649.00,1.15
7648.00,1.15
7647.00,1.14
7646.00,1.14
7645.00,1.14
7644.00,1.14
7643.00,1.13
7642.00,1.13
7641.00,1.13
7640.00,1.12
7639.00,1.12
7638.00,1.12
7637.00,1.12
7636.00,1.11
7635.00,1.11
7634.00,1.11
7633.00,1.11
7632.00,1.11
7631.00,1.11
7630.00,1.11
7629.00,1.11
7628.00,1.11
7627.00,1.11
7626.00,1.11
7625.00,1.11
7624.00,1.11
7623.00,1.11
7622.00,1.12
7621.00,1.12
7620.00,1.12
7619.00,1.12
7618.00,1.12
7617.00,1.13
7616.00,1.13
7615.00,1.13
7614.00,1.14
7613.00,1.14
7612.00,1.14
7611.00,1.15
7610.00,1.15
7609.00,1.15
7608.00,1.15
7607.00,1.16
7606.00,1.16
7605.00,1.16
7604.00,1.16
7603.00,1.16
7602.00,1.16
7601.00,1.16
7600.00,1.15
7599.00,1.15
7598.00,1.15
7597.00,1.15
7596.00,1.15
7595.00,1.14
7594.00,1.14
7593.00,1.14
7592.00,1.14
7591.00,1.14
7590.00,1.13
7589.00,1.13
7588.00,1.13
7587.00,1.13
7586.00,1.12
7585.00,1.12
7584.00,1.12
7583.00,1.12
7582.00,1.11
7581.00,1.11
7580.00,1.11
7579.00,1.11
7578.00,1.11
7577.00,1.10
7576.00,1.10
7575.00,1.10
7574.00,1.10
7573.00,1.10
7572.00,1.10
7571.00,1.10
7570.00,1.11
7569.00,1.11
7568.00,1.11
7567.00,1.11
7566.00,1.11
7565.00,1.11
7564.00,1.11
7563.00,1.11
7562.00,1.11
7561.00,1.11
7560.00,1.11
7559.00,1.11
7558.00,1.11
7557.00,1.11
7556.00,1.11
7555.00,1.11
7554.00,1.11
7553.00,1.11
7552.00,1.11
7551.00,1.11
7550.00,1.11
7549.00,1.11
7548.00,1.11
7547.00,1.11
7546.00,1.11
7545.00,1.11
7544.00,1.10
7543.00,1.10
7542.00,1.10
7541.00,1.10
7540.00,1.10
7539.00,1.09
7538.00,1.09
7537.00,1.09
7536.00,1.09
7535.00,1.09
7534.00,1.09
7533.00,1.09
7532.00,1.09
7531.00,1.08
7530.00,1.08
7529.00,1.08
7528.00,1.08
7527.00,1.08
7526.00,1.08
7525.00,1.08
7524.00,1.08
7523.00,1.09
7522.00,1.09
7521.00,1.09
7520.00,1.09
7519.00,1.09
7518.00,1.09
7517.00,1.09
7516.00,1.09
7515.00,1.09
7514.00,1.09
7513.00,1.10
7512.00,1.10
7511.00,1.10
7510.00,1.10
7509.00,1.10
7508.00,1.10
7507.00,1.10
7506.00,1.11
7505.00,1.11
7504.00,1.11
7503.00,1.11
7502.00,1.12
7501.00,1.12
7500.00,1.12
7499.00,1.12
7498.00,1.13
7497.00,1.13
7496.00,1.13
7495.00,1.13
7494.00,1.13
7493.00,1.13
7492.00,1.13
7491.00,1.13
7490.00,1.14
7489.00,1.14
7488.00,1.14
7487.00,1.14
7486.00,1.14
7485.00,1.14
7484.00,1.15
7483.00,1.15
7482.00,1.15
7481.00,1.15
7480.00,1.15
7479.00,1.15
7478.00,1.15
7477.00,1.14
7476.00,1.14
7475.00,1.14
7474.00,1.14
7473.00,1.14
7472.00,1.13
7471.00,1.13
7470.00,1.13
7469.00,1.12
7468.00,1.12
7467.00,1.12
7466.00,1.12
7465.00,1.12
7464.00,1.11
7463.00,1.11
7462.00,1.11
7461.00,1.10
7460.00,1.10
7459.00,1.10
7458.00,1.10
7457.00,1.09
7456.00,1.09
7455.00,1.09
7454.00,1.09
7453.00,1.09
7452.00,1.09
7451.00,1.09
7450.00,1.09
7449.00,1.09
7448.00,1.09
7447.00,1.09
7446.00,1.09
7445.00,1.09
7444.00,1.09
7443.00,1.09
7442.00,1.10
7441.00,1.10
7440.00,1.10
7439.00,1.10
7438.00,1.10
7437.00,1.11
7436.00,1.11
7435.00,1.11
7434.00,1.11
7433.00,1.12
7432.00,1.12
7431.00,1.12
7430.00,1.13
7429.00,1.13
7428.00,1.13
7427.00,1.13
7426.00,1.13
7425.00,1.14
7424.00,1.14
7423.00,1.14
7422.00,1.14
7421.00,1.14
7420.00,1.14
7419.00,1.14
7418.00,1.14
7417.00,1.14
7416.00,1.14
7415.00,1.14
7414.00,1.15
7413.00,1.15
7412.00,1.15
7411.00,1.15
7410.00,1.15
7409.00,1.14
7408.00,1.14
7407.00,1.14
7406.00,1.14
7405.00,1.14
7404.00,1.14
7403.00,1.14
7402.00,1.14
7401.00,1.13
7400.00,1.13
7399.00,1.13
7398.00,1.13
7397.00,1.13
7396.00,1.13
7395.00,1.13
7394.00,1.13
7393.00,1.13
7392.00,1.13
7391.00,1.13
7390.00,1.13
7389.00,1.13
7388.00,1.13
7387.00,1.13
7386.00,1.13
7385.00,1.13
7384.00,1.13
7383.00,1.13
7382.00,1.13
7381.00,1.13
7380.00,1.13
7379.00,1.13
7378.00,1.13
7377.00,1.13
7376.00,1.14
7375.00,1.14
7374.00,1.14
7373.00,1.14
7372.00,1.15
7371.00,1.15
7370.00,1.15
7369.00,1.15
7368.00,1.16
7367.00,1.16
7366.00,1.16
7365.00,1.16
7364.00,1.16
7363.00,1.16
7362.00,1.16
7361.00,1.17
7360.00,1.17
7359.00,1.17
7358.00,1.17
7357.00,1.17
7356.00,1.17
7355.00,1.17
7354.00,1.17
7353.00,1.17
7352.00,1.17
7351.00,1.17
7350.00,1.17
7349.00,1.17
7348.00,1.17
7347.00,1.17
7346.00,1.17
7345.00,1.16
7344.00,1.16
7343.00,1.16
7342.00,1.15
7341.00,1.15
7340.00,1.15
7339.00,1.14
7338.00,1.14
7337.00,1.14
7336.00,1.14
7335.00,1.13
7334.00,1.13
7333.00,1.13
7332.00,1.13
7331.00,1.13
7330.00,1.12
7329.00,1.12
7328.00,1.12
7327.00,1.12
7326.00,1.12
7325.00,1.11
7324.00,1.11
7323.00,1.11
7322.00,1.11
7321.00,1.11
7320.00,1.11
7319.00,1.11
7318.00,1.11
7317.00,1.11
7316.00,1.11
7315.00,1.11
7314.00,1.11
7313.00,1.12
7312.00,1.12
7311.00,1.12
7310.00,1.12
7309.00,1.12
7308.00,1.12
7307.00,1.12
7306.00,1.12
7305.00,1.12
7304.00,1.12
7303.00,1.12
7302.00,1.12
7301.00,1.12
7300.00,1.12
7299.00,1.12
7298.00,1.12
7297.00,1.12
7296.00,1.12
7295.00,1.12
7294.00,1.12
7293.00,1.12
7292.00,1.12
7291.00,1.11
7290.00,1.11
7289.00,1.11
7288.00,1.11
7287.00,1.10
7286.00,1.10
7285.00,1.10
7284.00,1.10
7283.00,1.10
7282.00,1.10
7281.00,1.10
7280.00,1.09
7279.00,1.09
7278.00,1.09
7277.00,1.09
7276.00,1.09
7275.00,1.09
7274.00,1.09
7273.00,1.09
7272.00,1.09
7271.00,1.09
7270.00,1.09
7269.00,1.09
7268.00,1.10
7267.00,1.10
7266.00,1.10
7265.00,1.10
7264.00,1.11
7263.00,1.11
7262.00,1.11
7261.00,1.12
7260.00,1.12
7259.00,1.12
7258.00,1.13
7257.00,1.13
7256.00,1.13
7255.00,1.14
7254.00,1.14
7253.00,1.14
7252.00,1.14
7251.00,1.14
7250.00,1.15
7249.00,1.15
7248.00,1.15
7247.00,1.15
7246.00,1.15
7245.00,1.15
7244.00,1.15
7243.00,1.15
7242.00,1.15
7241.00,1.15
7240.00,1.14
7239.00,1.14
7238.00,1.14
7237.00,1.14
7236.00,1.14
7235.00,1.14
7234.00,1.14
7233.00,1.13
7232.00,1.13
7231.00,1.13
7230.00,1.13
7229.00,1.12
7228.00,1.12
7227.00,1.12
7226.00,1.12
7225.00,1.11
7224.00,1.11
7223.00,1.11
7222.00,1.11
7221.00,1.11
7220.00,1.10
7219.00,1.10
7218.00,1.10
7217.00,1.10
7216.00,1.10
7215.00,1.10
7214.00,1.10
7213.00,1.10
7212.00,1.10
7211.00,1.10
7210.00,1.10
7209.00,1.10
7208.00,1.10
7207.00,1.10
7206.00,1.10
7205.00,1.09
7204.00,1.09
7203.00,1.09
7202.00,1.09
7201.00,1.09
7200.00,1.09
7199.00,1.09
7198.00,1.09
7197.00,1.09
7196.00,1.09
7195.00,1.09
7194.00,1.09
7193.00,1.09
7192.00,1.09
7191.00,1.09
7190.00,1.09
7189.00,1.09
7188.00,1.09
7187.00,1.09
7186.00,1.08
7185.00,1.08
7184.00,1.08
7183.00,1.08
7182.00,1.08
7181.00,1.08
7180.00,1.08
7179.00,1.08
7178.00,1.08
7177.00,1.07
7176.00,1.07
7175.00,1.07
7174.00,1.07
7173.00,1.07
7172.00,1.07
7171.00,1.07
7170.00,1.07
7169.00,1.07
7168.00,1.07
7167.00,1.07
7166.00,1.07
7165.00,1.07
7164.00,1.07
7163.00,1.07
7162.00,1.07
7161.00,1.07
7160.00,1.07
7159.00,1.07
7158.00,1.07
7157.00,1.07
7156.00,1.07
7155.00,1.07
7154.00,1.07
7153.00,1.07
7152.00,1.06
7151.00,1.06
7150.00,1.06
7149.00,1.06
7148.00,1.06
7147.00,1.06
7146.00,1.06
7145.00,1.06
7144.00,1.05
7143.00,1.05
7142.00,1.05
7141.00,1.05
7140.00,1.05
7139.00,1.05
7138.00,1.05
7137.00,1.05
7136.00,1.05
7135.00,1.05
7134.00,1.05
7133.00,1.05
7132.00,1.05
7131.00,1.05
7130.00,1.05
7129.00,1.05
7128.00,1.05
7127.00,1.05
7126.00,1.05
7125.00,1.05
7124.00,1.05
7123.00,1.06
7122.00,1.06
7121.00,1.06
7120.00,1.07
7119.00,1.07
7118.00,1.07
7117.00,1.07
7116.00,1.07
7115.00,1.08
7114.00,1.08
7113.00,1.08
7112.00,1.08
7111.00,1.08
7110.00,1.08
7109.00,1.08
7108.00,1.08
7107.00,1.08
7106.00,1.08
7105.00,1.08
7104.00,1.08
7103.00,1.08
7102.00,1.08
7101.00,1.08
7100.00,1.08
7099.00,1.08
7098.00,1.07
7097.00,1.07
7096.00,1.07
7095.00,1.07
7094.00,1.07
7093.00,1.07
7092.00,1.07
7091.00,1.07
7090.00,1.06
7089.00,1.06
7088.00,1.06
7087.00,1.06
7086.00,1.06
7085.00,1.06
7084.00,1.06
7083.00,1.06
7082.00,1.06
7081.00,1.06
7080.00,1.06
7079.00,1.06
7078.00,1.06
7077.00,1.05
7076.00,1.05
7075.00,1.05
7074.00,1.05
7073.00,1.05
7072.00,1.05
7071.00,1.05
7070.00,1.05
7069.00,1.05
7068.00,1.05
7067.00,1.05
7066.00,1.04
7065.00,1.04
7064.00,1.04
7063.00,1.04
7062.00,1.04
7061.00,1.04
7060.00,1.04
7059.00,1.03
7058.00,1.03
7057.00,1.03
7056.00,1.03
7055.00,1.03
7054.00,1.03
7053.00,1.03
7052.00,1.02
7051.00,1.02
7050.00,1.02
7049.00,1.02
7048.00,1.02
7047.00,1.02
7046.00,1.02
7045.00,1.02
7044.00,1.02
7043.00,1.02
7042.00,1.02
7041.00,1.02
7040.00,1.02
7039.00,1.02
7038.00,1.02
7037.00,1.02
7036.00,1.02
7035.00,1.02
7034.00,1.03
7033.00,1.03
7032.00,1.03
7031.00,1.03
7030.00,1.03
7029.00,1.04
7028.00,1.04
7027.00,1.04
7026.00,1.04
7025.00,1.04
7024.00,1.04
7023.00,1.05
7022.00,1.05
7021.00,1.05
7020.00,1.05
7019.00,1.05
7018.00,1.06
7017.00,1.06
7016.00,1.06
7015.00,1.06
7014.00,1.06
7013.00,1.06
7012.00,1.06
7011.00,1.07
7010.00,1.07
7009.00,1.07
7008.00,1.07
7007.00,1.07
7006.00,1.07
7005.00,1.07
7004.00,1.07
7003.00,1.07
7002.00,1.07
7001.00,1.07
7000.00,1.07
6999.00,1.07
6998.00,1.07
6997.00,1.07
6996.00,1.07
6995.00,1.07
6994.00,1.07
6993.00,1.07
6992.00,1.07
6991.00,1.07
6990.00,1.07
6989.00,1.07
6988.00,1.07
6987.00,1.07
6986.00,1.07
6985.00,1.06
6984.00,1.06
6983.00,1.06
6982.00,1.06
6981.00,1.06
6980.00,1.06
6979.00,1.06
6978.00,1.06
6977.00,1.06
6976.00,1.06
6975.00,1.06
6974.00,1.06
6973.00,1.06
6972.00,1.06
6971.00,1.06
6970.00,1.06
6969.00,1.06
6968.00,1.06
6967.00,1.06
6966.00,1.07
6965.00,1.07
6964.00,1.07
6963.00,1.07
6962.00,1.07
6961.00,1.07
6960.00,1.07
6959.00,1.07
6958.00,1.07
6957.00,1.07
6956.00,1.07
6955.00,1.07
6954.00,1.07
6953.00,1.07
6952.00,1.07
6951.00,1.08
6950.00,1.08
6949.00,1.08
6948.00,1.07
6947.00,1.07
6946.00,1.07
6945.00,1.07
6944.00,1.07
6943.00,1.07
6942.00,1.07
6941.00,1.07
6940.00,1.07
6939.00,1.07
6938.00,1.07
6937.00,1.07
6936.00,1.07
6935.00,1.07
6934.00,1.07
6933.00,1.07
6932.00,1.07
6931.00,1.08
6930.00,1.08
6929.00,1.08
6928.00,1.08
6927.00,1.08
6926.00,1.08
6925.00,1.08
6924.00,1.08
6923.00,1.08
6922.00,1.08
6921.00,1.08
6920.00,1.08
6919.00,1.08
6918.00,1.08
6917.00,1.08
6916.00,1.08
6915.00,1.08
6914.00,1.08
6913.00,1.09
6912.00,1.08
6911.00,1.08
6910.00,1.08
6909.00,1.08
6908.00,1.08
6907.00,1.08
6906.00,1.08
6905.00,1.08
6904.00,1.08
6903.00,1.08
6902.00,1.08
6901.00,1.08
6900.00,1.07
6899.00,1.07
6898.00,1.07
6897.00,1.07
6896.00,1.07
6895.00,1.07
6894.00,1.07
6893.00,1.07
6892.00,1.07
6891.00,1.07
6890.00,1.06
6889.00,1.06
6888.00,1.06
6887.00,1.06
6886.00,1.06
6885.00,1.06
6884.00,1.06
6883.00,1.06
6882.00,1.06
6881.00,1.06
6880.00,1.06
6879.00,1.05
6878.00,1.05
6877.00,1.05
6876.00,1.05
6875.00,1.05
6874.00,1.05
6873.00,1.05
6872.00,1.05
6871.00,1.05
6870.00,1.05
6869.00,1.05
6868.00,1.05
6867.00,1.05
6866.00,1.05
6865.00,1.05
6864.00,1.05
6863.00,1.06
6862.00,1.06
6861.00,1.06
6860.00,1.06
6859.00,1.06
6858.00,1.07
6857.00,1.07
6856.00,1.07
6855.00,1.07
6854.00,1.08
6853.00,1.08
6852.00,1.08
6851.00,1.08
6850.00,1.09
6849.00,1.09
6848.00,1.09
6847.00,1.09
6846.00,1.10
6845.00,1.10
6844.00,1.10
6843.00,1.10
6842.00,1.10
6841.00,1.11
6840.00,1.11
6839.00,1.11
6838.00,1.11
6837.00,1.11
6836.00,1.11
6835.00,1.11
6834.00,1.11
6833.00,1.11
6832.00,1.11
6831.00,1.11
6830.00,1.11
6829.00,1.11
6828.00,1.11
6827.00,1.10
6826.00,1.10
6825.00,1.10
6824.00,1.10
6823.00,1.10
6822.00,1.10
6821.00,1.10
6820.00,1.09
6819.00,1.09
6818.00,1.09
6817.00,1.09
6816.00,1.09
6815.00,1.09
6814.00,1.09
6813.00,1.08
6812.00,1.08
6811.00,1.08
6810.00,1.08
6809.00,1.08
6808.00,1.08
6807.00,1.08
6806.00,1.08
6805.00,1.08
6804.00,1.08
6803.00,1.08
6802.00,1.08
6801.00,1.08
6800.00,1.08
6799.00,1.08
6798.00,1.08
6797.00,1.09
6796.00,1.09
6795.00,1.09
6794.00,1.09
6793.00,1.09
6792.00,1.09
6791.00,1.09
6790.00,1.10
6789.00,1.10
6788.00,1.10
6787.00,1.10
6786.00,1.10
6785.00,1.10
6784.00,1.10
6783.00,1.11
6782.00,1.11
6781.00,1.11
6780.00,1.11
6779.00,1.11
6778.00,1.11
6777.00,1.11
6776.00,1.11
6775.00,1.12
6774.00,1.12
6773.00,1.12
6772.00,1.12
6771.00,1.12
6770.00,1.12
6769.00,1.12
6768.00,1.12
6767.00,1.12
6766.00,1.12
6765.00,1.12
6764.00,1.12
6763.00,1.12
6762.00,1.12
6761.00,1.12
6760.00,1.12
6759.00,1.12
6758.00,1.12
6757.00,1.12
6756.00,1.12
6755.00,1.13
6754.00,1.13
6753.00,1.13
6752.00,1.13
6751.00,1.12
6750.00,1.12
6749.00,1.12
6748.00,1.12
6747.00,1.12
6746.00,1.12
6745.00,1.12
6744.00,1.12
6743.00,1.12
6742.00,1.12
6741.00,1.11
6740.00,1.11
6739.00,1.11
6738.00,1.11
6737.00,1.11
6736.00,1.11
6735.00,1.11
6734.00,1.11
6733.00,1.11
6732.00,1.11
6731.00,1.10
6730.00,1.10
6729.00,1.10
6728.00,1.10
6727.00,1.10
6726.00,1.10
6725.00,1.10
6724.00,1.10
6723.00,1.10
6722.00,1.10
6721.00,1.10
6720.00,1.10
6719.00,1.10
6718.00,1.10
6717.00,1.10
6716.00,1.10
6715.00,1.10
6714.00,1.10
6713.00,1.10
6712.00,1.11
6711.00,1.11
6710.00,1.11
6709.00,1.11
6708.00,1.11
6707.00,1.11
6706.00,1.11
6705.00,1.11
6704.00,1.11
6703.00,1.11
6702.00,1.11
6701.00,1.11
6700.00,1.11
6699.00,1.11
6698.00,1.12
6697.00,1.12
6696.00,1.12
6695.00,1.12
6694.00,1.12
6693.00,1.12
6692.00,1.12
6691.00,1.12
6690.00,1.12
6689.00,1.13
6688.00,1.13
6687.00,1.13
6686.00,1.13
6685.00,1.13
6684.00,1.12
6683.00,1.12
6682.00,1.12
6681.00,1.12
6680.00,1.12
6679.00,1.12
6678.00,1.12
6677.00,1.11
6676.00,1.11
6675.00,1.11
6674.00,1.10
6673.00,1.10
6672.00,1.10
6671.00,1.09
6670.00,1.09
6669.00,1.09
6668.00,1.09
6667.00,1.08
6666.00,1.08
6665.00,1.08
6664.00,1.07
6663.00,1.07
6662.00,1.07
6661.00,1.07
6660.00,1.07
6659.00,1.07
6658.00,1.06
6657.00,1.06
6656.00,1.06
6655.00,1.06
6654.00,1.06
6653.00,1.06
6652.00,1.07
6651.00,1.07
6650.00,1.07
6649.00,1.07
6648.00,1.07
6647.00,1.08
6646.00,1.08
6645.00,1.08
6644.00,1.09
6643.00,1.09
6642.00,1.09
6641.00,1.09
6640.00,1.10
6639.00,1.10
6638.00,1.10
6637.00,1.10
6636.00,1.11
6635.00,1.11
6634.00,1.11
6633.00,1.11
6632.00,1.12
6631.00,1.12
6630.00,1.12
6629.00,1.12
6628.00,1.12
6627.00,1.13
6626.00,1.13
6625.00,1.13
6624.00,1.13
6623.00,1.13
6622.00,1.13
6621.00,1.13
6620.00,1.13
6619.00,1.13
6618.00,1.13
6617.00,1.13
6616.00,1.12
6615.00,1.12
6614.00,1.12
6613.00,1.12
6612.00,1.12
6611.00,1.12
6610.00,1.12
6609.00,1.12
6608.00,1.12
6607.00,1.12
6606.00,1.12
6605.00,1.12
6604.00,1.12
6603.00,1.12
6602.00,1.12
6601.00,1.12
6600.00,1.12
6599.00,1.12
6598.00,1.12
6597.00,1.12
6596.00,1.12
6595.00,1.12
6594.00,1.13
6593.00,1.13
6592.00,1.13
6591.00,1.13
6590.00,1.13
6589.00,1.13
6588.00,1.13
6587.00,1.14
6586.00,1.14
6585.00,1.14
6584.00,1.14
6583.00,1.14
6582.00,1.14
6581.00,1.14
6580.00,1.14
6579.00,1.14
6578.00,1.14
6577.00,1.14
6576.00,1.14
6575.00,1.14
6574.00,1.14
6573.00,1.14
6572.00,1.14
6571.00,1.14
6570.00,1.14
6569.00,1.14
6568.00,1.14
6567.00,1.13
6566.00,1.13
6565.00,1.13
6564.00,1.13
6563.00,1.13
6562.00,1.13
6561.00,1.13
6560.00,1.13
6559.00,1.13
6558.00,1.12
6557.00,1.12
6556.00,1.12
6555.00,1.12
6554.00,1.12
6553.00,1.12
6552.00,1.12
6551.00,1.12
6550.00,1.12
6549.00,1.12
6548.00,1.12
6547.00,1.12
6546.00,1.12
6545.00,1.12
6544.00,1.12
6543.00,1.12
6542.00,1.12
6541.00,1.12
6540.00,1.12
6539.00,1.12
6538.00,1.12
6537.00,1.12
6536.00,1.12
6535.00,1.12
6534.00,1.12
6533.00,1.12
6532.00,1.12
6531.00,1.12
6530.00,1.12
6529.00,1.12
6528.00,1.12
6527.00,1.12
6526.00,1.12
6525.00,1.12
6524.00,1.12
6523.00,1.12
6522.00,1.12
6521.00,1.12
6520.00,1.12
6519.00,1.13
6518.00,1.13
6517.00,1.13
6516.00,1.13
6515.00,1.13
6514.00,1.13
6513.00,1.13
6512.00,1.13
6511.00,1.13
6510.00,1.13
6509.00,1.14
6508.00,1.14
6507.00,1.14
6506.00,1.14
6505.00,1.14
6504.00,1.14
6503.00,1.14
6502.00,1.14
6501.00,1.14
6500.00,1.15
6499.00,1.15
6498.00,1.15
6497.00,1.15
6496.00,1.15
6495.00,1.15
6494.00,1.15
6493.00,1.15
6492.00,1.15
6491.00,1.15
6490.00,1.15
6489.00,1.15
6488.00,1.16
6487.00,1.16
6486.00,1.16
6485.00,1.16
6484.00,1.16
6483.00,1.16
6482.00,1.16
6481.00,1.16
6480.00,1.16
6479.00,1.16
6478.00,1.16
6477.00,1.16
6476.00,1.16
6475.00,1.16
6474.00,1.16
6473.00,1.16
6472.00,1.16
6471.00,1.16
6470.00,1.16
6469.00,1.16
6468.00,1.16
6467.00,1.16
6466.00,1.16
6465.00,1.16
6464.00,1.16
6463.00,1.16
6462.00,1.16
6461.00,1.15
6460.00,1.15
6459.00,1.15
6458.00,1.15
6457.00,1.15
6456.00,1.15
6455.00,1.15
6454.00,1.15
6453.00,1.15
6452.00,1.14
6451.00,1.14
6450.00,1.14
6449.00,1.14
6448.00,1.14
6447.00,1.14
6446.00,1.14
6445.00,1.14
6444.00,1.14
6443.00,1.14
6442.00,1.14
6441.00,1.14
6440.00,1.14
6439.00,1.14
6438.00,1.14
6437.00,1.14
6436.00,1.15
6435.00,1.15
6434.00,1.15
6433.00,1.15
6432.00,1.15
6431.00,1.15
6430.00,1.15
6429.00,1.15
6428.00,1.15
6427.00,1.15
6426.00,1.16
6425.00,1.16
6424.00,1.16
6423.00,1.16
6422.00,1.16
6421.00,1.16
6420.00,1.16
6419.00,1.17
6418.00,1.17
6417.00,1.17
6416.00,1.17
6415.00,1.17
6414.00,1.17
6413.00,1.17
6412.00,1.17
6411.00,1.17
6410.00,1.17
6409.00,1.17
6408.00,1.17
6407.00,1.17
6406.00,1.17
6405.00,1.17
6404.00,1.17
6403.00,1.17
6402.00,1.17
6401.00,1.18
6400.00,1.18
6399.00,1.18
6398.00,1.18
6397.00,1.18
6396.00,1.18
6395.00,1.18
6394.00,1.18
6393.00,1.18
6392.00,1.18
6391.00,1.18
6390.00,1.18
6389.00,1.18
6388.00,1.18
6387.00,1.18
6386.00,1.18
6385.00,1.18
6384.00,1.18
6383.00,1.19
6382.00,1.19
6381.00,1.19
6380.00,1.19
6379.00,1.19
6378.00,1.19
6377.00,1.20
6376.00,1.20
6375.00,1.20
6374.00,1.20
6373.00,1.20
6372.00,1.20
6371.00,1.20
6370.00,1.20
6369.00,1.21
6368.00,1.21
6367.00,1.21
6366.00,1.21
6365.00,1.21
6364.00,1.21
6363.00,1.21
6362.00,1.21
6361.00,1.21
6360.00,1.21
6359.00,1.21
6358.00,1.21
6357.00,1.21
6356.00,1.21
6355.00,1.21
6354.00,1.20
6353.00,1.20
6352.00,1.20
6351.00,1.20
6350.00,1.20
6349.00,1.20
6348.00,1.19
6347.00,1.19
6346.00,1.19
6345.00,1.19
6344.00,1.18
6343.00,1.18
6342.00,1.18
6341.00,1.17
6340.00,1.17
6339.00,1.17
6338.00,1.17
6337.00,1.17
6336.00,1.16
6335.00,1.16
6334.00,1.16
6333.00,1.16
6332.00,1.16
6331.00,1.16
6330.00,1.16
6329.00,1.15
6328.00,1.15
6327.00,1.15
6326.00,1.15
6325.00,1.15
6324.00,1.15
6323.00,1.15
6322.00,1.15
6321.00,1.16
6320.00,1.16
6319.00,1.16
6318.00,1.16
6317.00,1.16
6316.00,1.16
6315.00,1.17
6314.00,1.17
6313.00,1.17
6312.00,1.17
6311.00,1.17
6310.00,1.17
6309.00,1.18
6308.00,1.18
6307.00,1.18
6306.00,1.18
6305.00,1.18
6304.00,1.18
6303.00,1.18
6302.00,1.18
6301.00,1.18
6300.00,1.18
6299.00,1.18
6298.00,1.19
6297.00,1.19
6296.00,1.19
6295.00,1.19
6294.00,1.19
6293.00,1.19
6292.00,1.19
6291.00,1.19
6290.00,1.20
6289.00,1.20
6288.00,1.20
6287.00,1.20
6286.00,1.20
6285.00,1.20
6284.00,1.20
6283.00,1.20
6282.00,1.21
6281.00,1.21
6280.00,1.21
6279.00,1.21
6278.00,1.21
6277.00,1.21
6276.00,1.21
6275.00,1.22
6274.00,1.22
6273.00,1.22
6272.00,1.22
6271.00,1.22
6270.00,1.22
6269.00,1.22
6268.00,1.22
6267.00,1.22
6266.00,1.22
6265.00,1.22
6264.00,1.22
6263.00,1.22
6262.00,1.22
6261.00,1.21
6260.00,1.21
6259.00,1.21
6258.00,1.21
6257.00,1.21
6256.00,1.21
6255.00,1.21
6254.00,1.21
6253.00,1.21
6252.00,1.21
6251.00,1.21
6250.00,1.21
6249.00,1.21
6248.00,1.21
6247.00,1.21
6246.00,1.21
6245.00,1.21
6244.00,1.21
6243.00,1.20
6242.00,1.20
6241.00,1.20
6240.00,1.20
6239.00,1.20
6238.00,1.20
6237.00,1.20
6236.00,1.20
6235.00,1.20
6234.00,1.20
6233.00,1.20
6232.00,1.20
6231.00,1.20
6230.00,1.20
6229.00,1.20
6228.00,1.20
6227.00,1.20
6226.00,1.20
6225.00,1.20
6224.00,1.20
6223.00,1.20
6222.00,1.20
6221.00,1.20
6220.00,1.20
6219.00,1.20
6218.00,1.20
6217.00,1.20
6216.00,1.20
6215.00,1.20
6214.00,1.20
6213.00,1.20
6212.00,1.20
6211.00,1.20
6210.00,1.21
6209.00,1.21
6208.00,1.21
6207.00,1.21
6206.00,1.21
6205.00,1.21
6204.00,1.22
6203.00,1.22
6202.00,1.22
6201.00,1.22
6200.00,1.22
6199.00,1.23
6198.00,1.23
6197.00,1.23
6196.00,1.23
6195.00,1.23
6194.00,1.23
6193.00,1.23
6192.00,1.23
6191.00,1.23
6190.00,1.23
6189.00,1.23
6188.00,1.23
6187.00,1.23
6186.00,1.23
6185.00,1.23
6184.00,1.23
6183.00,1.23
6182.00,1.23
6181.00,1.23
6180.00,1.23
6179.00,1.23
6178.00,1.23
6177.00,1.23
6176.00,1.23
6175.00,1.23
6174.00,1.23
6173.00,1.23
6172.00,1.23
6171.00,1.23
6170.00,1.22
6169.00,1.22
6168.00,1.22
6167.00,1.22
6166.00,1.22
6165.00,1.22
6164.00,1.22
6163.00,1.22
6162.00,1.22
6161.00,1.22
6160.00,1.22
6159.00,1.22
6158.00,1.22
6157.00,1.22
6156.00,1.22
6155.00,1.22
6154.00,1.22
6153.00,1.22
6152.00,1.22
6151.00,1.22
6150.00,1.22
6149.00,1.22
6148.00,1.22
6147.00,1.22
6146.00,1.22
6145.00,1.21
6144.00,1.21
6143.00,1.21
6142.00,1.21
6141.00,1.21
6140.00,1.21
6139.00,1.21
6138.00,1.22
6137.00,1.22
6136.00,1.22
6135.00,1.22
6134.00,1.22
6133.00,1.22
6132.00,1.22
6131.00,1.22
6130.00,1.22
6129.00,1.22
6128.00,1.22
6127.00,1.23
6126.00,1.23
6125.00,1.23
6124.00,1.23
6123.00,1.23
6122.00,1.23
6121.00,1.24
6120.00,1.24
6119.00,1.24
6118.00,1.24
6117.00,1.24
6116.00,1.24
6115.00,1.25
6114.00,1.25
6113.00,1.25
6112.00,1.25
6111.00,1.25
6110.00,1.25
6109.00,1.25
6108.00,1.25
6107.00,1.25
6106.00,1.25
6105.00,1.25
6104.00,1.25
6103.00,1.25
6102.00,1.24
6101.00,1.24
6100.00,1.24
6099.00,1.24
6098.00,1.24
6097.00,1.24
6096.00,1.24
6095.00,1.23
6094.00,1.23
6093.00,1.23
6092.00,1.23
6091.00,1.23
6090.00,1.22
6089.00,1.22
6088.00,1.22
6087.00,1.22
6086.00,1.22
6085.00,1.21
6084.00,1.21
6083.00,1.21
6082.00,1.21
6081.00,1.21
6080.00,1.21
6079.00,1.21
6078.00,1.21
6077.00,1.21
6076.00,1.21
6075.00,1.21
6074.00,1.21
6073.00,1.21
6072.00,1.21
6071.00,1.21
6070.00,1.21
6069.00,1.21
6068.00,1.21
6067.00,1.21
6066.00,1.21
6065.00,1.21
6064.00,1.21
6063.00,1.21
6062.00,1.21
6061.00,1.21
6060.00,1.22
6059.00,1.22
6058.00,1.22
6057.00,1.22
6056.00,1.22
6055.00,1.22
6054.00,1.22
6053.00,1.23
6052.00,1.23
6051.00,1.23
6050.00,1.23
6049.00,1.23
6048.00,1.23
6047.00,1.23
6046.00,1.23
6045.00,1.23
6044.00,1.23
6043.00,1.23
6042.00,1.23
6041.00,1.24
6040.00,1.24
6039.00,1.24
6038.00,1.23
6037.00,1.23
6036.00,1.23
6035.00,1.23
6034.00,1.23
6033.00,1.23
6032.00,1.23
6031.00,1.23
6030.00,1.23
6029.00,1.23
6028.00,1.23
6027.00,1.23
6026.00,1.23
6025.00,1.23
6024.00,1.23
6023.00,1.23
6022.00,1.23
6021.00,1.23
6020.00,1.23
6019.00,1.23
6018.00,1.23
6017.00,1.23
6016.00,1.23
6015.00,1.23
6014.00,1.23
6013.00,1.23
6012.00,1.23
6011.00,1.23
6010.00,1.24
6009.00,1.24
6008.00,1.24
6007.00,1.24
6006.00,1.24
6005.00,1.24
6004.00,1.24
6003.00,1.24
6002.00,1.25
6001.00,1.25
6000.00,1.25
5999.00,1.25
5998.00,1.25
5997.00,1.25
5996.00,1.25
5995.00,1.25
5994.00,1.25
5993.00,1.25
5992.00,1.25
5991.00,1.25
5990.00,1.25
5989.00,1.25
5988.00,1.25
5987.00,1.25
5986.00,1.25
5985.00,1.25
5984.00,1.25
5983.00,1.25
5982.00,1.25
5981.00,1.25
5980.00,1.25
5979.00,1.25
5978.00,1.25
5977.00,1.25
5976.00,1.25
5975.00,1.25
5974.00,1.25
5973.00,1.25
5972.00,1.25
5971.00,1.25
5970.00,1.25
5969.00,1.25
5968.00,1.25
5967.00,1.25
5966.00,1.24
5965.00,1.24
5964.00,1.24
5963.00,1.24
5962.00,1.24
5961.00,1.24
5960.00,1.24
5959.00,1.24
5958.00,1.24
5957.00,1.24
5956.00,1.24
5955.00,1.24
5954.00,1.24
5953.00,1.24
5952.00,1.23
5951.00,1.23
5950.00,1.23
5949.00,1.23
5948.00,1.23
5947.00,1.23
5946.00,1.23
5945.00,1.23
5944.00,1.23
5943.00,1.23
5942.00,1.23
5941.00,1.22
5940.00,1.22
5939.00,1.22
5938.00,1.22
5937.00,1.22
5936.00,1.22
5935.00,1.22
5934.00,1.22
5933.00,1.22
5932.00,1.22
5931.00,1.22
5930.00,1.22
5929.00,1.22
5928.00,1.22
5927.00,1.22
5926.00,1.22
5925.00,1.22
5924.00,1.22
5923.00,1.22
5922.00,1.22
5921.00,1.22
5920.00,1.22
5919.00,1.22
5918.00,1.22
5917.00,1.22
5916.00,1.22
5915.00,1.22
5914.00,1.22
5913.00,1.22
5912.00,1.22
5911.00,1.22
5910.00,1.22
5909.00,1.22
5908.00,1.22
5907.00,1.22
5906.00,1.22
5905.00,1.22
5904.00,1.23
5903.00,1.23
5902.00,1.23
5901.00,1.23
5900.00,1.23
5899.00,1.23
5898.00,1.23
5897.00,1.23
5896.00,1.23
5895.00,1.23
5894.00,1.22
5893.00,1.22
5892.00,1.22
5891.00,1.22
5890.00,1.22
5889.00,1.22
5888.00,1.22
5887.00,1.22
5886.00,1.22
5885.00,1.22
5884.00,1.22
5883.00,1.22
5882.00,1.22
5881.00,1.22
5880.00,1.22
5879.00,1.22
5878.00,1.22
5877.00,1.22
5876.00,1.21
5875.00,1.21
5874.00,1.21
5873.00,1.21
5872.00,1.21
5871.00,1.21
5870.00,1.21
5869.00,1.21
5868.00,1.21
5867.00,1.22
5866.00,1.22
5865.00,1.22
5864.00,1.22
5863.00,1.22
5862.00,1.22
5861.00,1.22
5860.00,1.22
5859.00,1.22
5858.00,1.22
5857.00,1.22
5856.00,1.23
5855.00,1.23
5854.00,1.23
5853.00,1.23
5852.00,1.23
5851.00,1.23
5850.00,1.23
5849.00,1.23
5848.00,1.23
5847.00,1.23
5846.00,1.23
5845.00,1.23
5844.00,1.23
5843.00,1.23
5842.00,1.23
5841.00,1.23
5840.00,1.23
5839.00,1.22
5838.00,1.22
5837.00,1.22
5836.00,1.22
5835.00,1.22
5834.00,1.22
5833.00,1.22
5832.00,1.22
5831.00,1.22
5830.00,1.21
5829.00,1.21
5828.00,1.21
5827.00,1.21
5826.00,1.21
5825.00,1.21
5824.00,1.21
5823.00,1.21
5822.00,1.20
5821.00,1.20
5820.00,1.20
5819.00,1.20
5818.00,1.20
5817.00,1.20
5816.00,1.20
5815.00,1.20
5814.00,1.20
5813.00,1.20
5812.00,1.20
5811.00,1.20
5810.00,1.20
5809.00,1.20
5808.00,1.20
5807.00,1.20
5806.00,1.20
5805.00,1.20
5804.00,1.20
5803.00,1.20
5802.00,1.20
5801.00,1.20
5800.00,1.20
5799.00,1.20
5798.00,1.20
5797.00,1.20
5796.00,1.20
5795.00,1.20
5794.00,1.20
5793.00,1.20
5792.00,1.20
5791.00,1.20
5790.00,1.21
5789.00,1.21
5788.00,1.21
5787.00,1.21
5786.00,1.21
5785.00,1.21
5784.00,1.21
5783.00,1.21
5782.00,1.22
5781.00,1.22
5780.00,1.22
5779.00,1.22
5778.00,1.22
5777.00,1.22
5776.00,1.23
5775.00,1.23
5774.00,1.23
5773.00,1.23
5772.00,1.23
5771.00,1.23
5770.00,1.23
5769.00,1.24
5768.00,1.24
5767.00,1.24
5766.00,1.24
5765.00,1.24
5764.00,1.24
5763.00,1.24
5762.00,1.24
5761.00,1.24
5760.00,1.24
5759.00,1.24
5758.00,1.24
5757.00,1.24
5756.00,1.24
5755.00,1.24
5754.00,1.24
5753.00,1.24
5752.00,1.24
5751.00,1.24
5750.00,1.24
5749.00,1.24
5748.00,1.24
5747.00,1.24
5746.00,1.24
5745.00,1.24
5744.00,1.24
5743.00,1.24
5742.00,1.24
5741.00,1.24
5740.00,1.24
5739.00,1.24
5738.00,1.24
5737.00,1.24
5736.00,1.24
5735.00,1.24
5734.00,1.24
5733.00,1.24
5732.00,1.24
5731.00,1.24
5730.00,1.24
5729.00,1.24
5728.00,1.24
5727.00,1.24
5726.00,1.24
5725.00,1.24
5724.00,1.24
5723.00,1.24
5722.00,1.24
5721.00,1.24
5720.00,1.24
5719.00,1.24
5718.00,1.24
5717.00,1.24
5716.00,1.24
5715.00,1.24
5714.00,1.24
5713.00,1.24
5712.00,1.24
5711.00,1.24
5710.00,1.24
5709.00,1.24
5708.00,1.24
5707.00,1.24
5706.00,1.24
5705.00,1.24
5704.00,1.23
5703.00,1.23
5702.00,1.23
5701.00,1.23
5700.00,1.23
5699.00,1.23
5698.00,1.23
5697.00,1.23
5696.00,1.23
5695.00,1.23
5694.00,1.23
5693.00,1.23
5692.00,1.23
5691.00,1.23
5690.00,1.23
5689.00,1.23
5688.00,1.23
5687.00,1.23
5686.00,1.23
5685.00,1.23
5684.00,1.23
5683.00,1.23
5682.00,1.23
5681.00,1.23
5680.00,1.23
5679.00,1.23
5678.00,1.23
5677.00,1.23
5676.00,1.23
5675.00,1.23
5674.00,1.23
5673.00,1.23
5672.00,1.23
5671.00,1.22
5670.00,1.22
5669.00,1.22
5668.00,1.22
5667.00,1.22
5666.00,1.22
5665.00,1.22
5664.00,1.22
5663.00,1.22
5662.00,1.22
5661.00,1.22
5660.00,1.22
5659.00,1.22
5658.00,1.22
5657.00,1.22
5656.00,1.23
5655.00,1.23
5654.00,1.23
5653.00,1.23
5652.00,1.23
5651.00,1.23
5650.00,1.23
5649.00,1.23
5648.00,1.23
5647.00,1.24
5646.00,1.24
5645.00,1.24
5644.00,1.24
5643.00,1.24
5642.00,1.24
5641.00,1.24
5640.00,1.24
5639.00,1.24
5638.00,1.25
5637.00,1.25
5636.00,1.25
5635.00,1.25
5634.00,1.25
5633.00,1.25
5632.00,1.25
5631.00,1.25
5630.00,1.25
5629.00,1.25
5628.00,1.25
5627.00,1.25
5626.00,1.25
5625.00,1.25
5624.00,1.25
5623.00,1.25
5622.00,1.25
5621.00,1.25
5620.00,1.25
5619.00,1.25
5618.00,1.25
5617.00,1.25
5616.00,1.25
5615.00,1.25
5614.00,1.25
5613.00,1.25
5612.00,1.25
5611.00,1.25
5610.00,1.25
5609.00,1.25
5608.00,1.25
5607.00,1.25
5606.00,1.25
5605.00,1.25
5604.00,1.25
5603.00,1.25
5602.00,1.25
5601.00,1.25
5600.00,1.25
5599.00,1.25
5598.00,1.25
5597.00,1.25
5596.00,1.25
5595.00,1.25
5594.00,1.25
5593.00,1.24
5592.00,1.24
5591.00,1.24
5590.00,1.24
5589.00,1.24
5588.00,1.24
5587.00,1.24
5586.00,1.24
5585.00,1.24
5584.00,1.24
5583.00,1.24
5582.00,1.24
5581.00,1.24
5580.00,1.24
5579.00,1.23
5578.00,1.23
5577.00,1.23
5576.00,1.23
5575.00,1.23
5574.00,1.23
5573.00,1.23
5572.00,1.23
5571.00,1.23
5570.00,1.23
5569.00,1.23
5568.00,1.23
5567.00,1.23
5566.00,1.23
5565.00,1.23
5564.00,1.23
5563.00,1.23
5562.00,1.23
5561.00,1.23
5560.00,1.23
5559.00,1.23
5558.00,1.24
5557.00,1.24
5556.00,1.24
5555.00,1.24
5554.00,1.24
5553.00,1.24
5552.00,1.24
5551.00,1.24
5550.00,1.24
5549.00,1.24
5548.00,1.24
5547.00,1.24
5546.00,1.24
5545.00,1.24
5544.00,1.24
5543.00,1.24
5542.00,1.24
5541.00,1.24
5540.00,1.24
5539.00,1.24
5538.00,1.24
5537.00,1.24
5536.00,1.24
5535.00,1.24
5534.00,1.24
5533.00,1.24
5532.00,1.24
5531.00,1.24
5530.00,1.23
5529.00,1.23
5528.00,1.23
5527.00,1.23
5526.00,1.23
5525.00,1.23
5524.00,1.23
5523.00,1.23
5522.00,1.23
5521.00,1.23
5520.00,1.23
5519.00,1.22
5518.00,1.22
5517.00,1.22
5516.00,1.22
5515.00,1.22
5514.00,1.22
5513.00,1.22
5512.00,1.22
5511.00,1.23
5510.00,1.23
5509.00,1.23
5508.00,1.23
5507.00,1.23
5506.00,1.23
5505.00,1.23
5504.00,1.23
5503.00,1.23
5502.00,1.23
5501.00,1.24
5500.00,1.24
5499.00,1.24
5498.00,1.24
5497.00,1.24
5496.00,1.24
5495.00,1.24
5494.00,1.24
5493.00,1.24
5492.00,1.24
5491.00,1.24
5490.00,1.24
5489.00,1.24
5488.00,1.24
5487.00,1.24
5486.00,1.24
5485.00,1.24
5484.00,1.24
5483.00,1.24
5482.00,1.24
5481.00,1.23
5480.00,1.23
5479.00,1.23
5478.00,1.23
5477.00,1.23
5476.00,1.23
5475.00,1.23
5474.00,1.23
5473.00,1.22
5472.00,1.22
5471.00,1.22
5470.00,1.22
5469.00,1.22
5468.00,1.22
5467.00,1.22
5466.00,1.22
5465.00,1.22
5464.00,1.22
5463.00,1.22
5462.00,1.22
5461.00,1.22
5460.00,1.22
5459.00,1.23
5458.00,1.23
5457.00,1.23
5456.00,1.23
5455.00,1.23
5454.00,1.23
5453.00,1.23
5452.00,1.24
5451.00,1.24
5450.00,1.24
5449.00,1.24
5448.00,1.24
5447.00,1.24
5446.00,1.25
5445.00,1.25
5444.00,1.25
5443.00,1.25
5442.00,1.25
5441.00,1.25
5440.00,1.26
5439.00,1.26
5438.00,1.26
5437.00,1.26
5436.00,1.26
5435.00,1.26
5434.00,1.26
5433.00,1.26
5432.00,1.26
5431.00,1.26
5430.00,1.26
5429.00,1.26
5428.00,1.26
5427.00,1.27
5426.00,1.27
5425.00,1.27
5424.00,1.27
5423.00,1.27
5422.00,1.27
5421.00,1.27
5420.00,1.27
5419.00,1.27
5418.00,1.27
5417.00,1.27
5416.00,1.27
5415.00,1.27
5414.00,1.27
5413.00,1.27
5412.00,1.27
5411.00,1.27
5410.00,1.27
5409.00,1.27
5408.00,1.26
5407.00,1.26
5406.00,1.26
5405.00,1.26
5404.00,1.26
5403.00,1.26
5402.00,1.26
5401.00,1.26
5400.00,1.25
5399.00,1.25
5398.00,1.25
5397.00,1.25
5396.00,1.25
5395.00,1.25
5394.00,1.25
5393.00,1.24
5392.00,1.24
5391.00,1.24
5390.00,1.24
5389.00,1.24
5388.00,1.23
5387.00,1.23
5386.00,1.23
5385.00,1.23
5384.00,1.23
5383.00,1.23
5382.00,1.22
5381.00,1.22
5380.00,1.22
5379.00,1.22
5378.00,1.22
5377.00,1.22
5376.00,1.22
5375.00,1.22
5374.00,1.21
5373.00,1.21
5372.00,1.21
5371.00,1.21
5370.00,1.21
5369.00,1.21
5368.00,1.21
5367.00,1.21
5366.00,1.21
5365.00,1.20
5364.00,1.20
5363.00,1.20
5362.00,1.20
5361.00,1.20
5360.00,1.20
5359.00,1.20
5358.00,1.20
5357.00,1.20
5356.00,1.19
5355.00,1.19
5354.00,1.19
5353.00,1.19
5352.00,1.19
5351.00,1.19
5350.00,1.19
5349.00,1.19
5348.00,1.19
5347.00,1.19
5346.00,1.19
5345.00,1.19
5344.00,1.19
5343.00,1.19
5342.00,1.19
5341.00,1.19
5340.00,1.19
5339.00,1.19
5338.00,1.19
5337.00,1.19
5336.00,1.19
5335.00,1.20
5334.00,1.20
5333.00,1.20
5332.00,1.20
5331.00,1.20
5330.00,1.20
5329.00,1.20
5328.00,1.20
5327.00,1.20
5326.00,1.20
5325.00,1.20
5324.00,1.20
5323.00,1.20
5322.00,1.20
5321.00,1.20
5320.00,1.20
5319.00,1.20
5318.00,1.20
5317.00,1.20
5316.00,1.20
5315.00,1.20
5314.00,1.20
5313.00,1.20
5312.00,1.20
5311.00,1.19
5310.00,1.19
5309.00,1.19
5308.00,1.19
5307.00,1.19
5306.00,1.19
5305.00,1.19
5304.00,1.19
5303.00,1.18
5302.00,1.18
5301.00,1.18
5300.00,1.18
5299.00,1.18
5298.00,1.18
5297.00,1.18
5296.00,1.18
5295.00,1.18
5294.00,1.18
5293.00,1.18
5292.00,1.18
5291.00,1.18
5290.00,1.17
5289.00,1.17
5288.00,1.17
5287.00,1.17
5286.00,1.17
5285.00,1.17
5284.00,1.17
5283.00,1.17
5282.00,1.17
5281.00,1.17
5280.00,1.17
5279.00,1.17
5278.00,1.17
5277.00,1.17
5276.00,1.17
5275.00,1.17
5274.00,1.17
5273.00,1.17
5272.00,1.16
5271.00,1.16
5270.00,1.16
5269.00,1.16
5268.00,1.16
5267.00,1.16
5266.00,1.16
5265.00,1.16
5264.00,1.16
5263.00,1.16
5262.00,1.16
5261.00,1.15
5260.00,1.15
5259.00,1.15
5258.00,1.15
5257.00,1.15
5256.00,1.15
5255.00,1.15
5254.00,1.15
5253.00,1.15
5252.00,1.15
5251.00,1.15
5250.00,1.15
5249.00,1.15
5248.00,1.15
5247.00,1.15
5246.00,1.15
5245.00,1.15
5244.00,1.16
5243.00,1.16
5242.00,1.16
5241.00,1.16
5240.00,1.16
5239.00,1.16
5238.00,1.16
5237.00,1.16
5236.00,1.15
5235.00,1.15
5234.00,1.15
5233.00,1.15
5232.00,1.15
5231.00,1.15
5230.00,1.15
5229.00,1.15
5228.00,1.15
5227.00,1.15
5226.00,1.15
5225.00,1.15
5224.00,1.15
5223.00,1.14
5222.00,1.14
5221.00,1.14
5220.00,1.14
5219.00,1.14
5218.00,1.14
5217.00,1.14
5216.00,1.14
5215.00,1.14
5214.00,1.14
5213.00,1.14
5212.00,1.14
5211.00,1.14
5210.00,1.14
5209.00,1.14
5208.00,1.14
5207.00,1.14
5206.00,1.14
5205.00,1.14
5204.00,1.14
5203.00,1.14
5202.00,1.14
5201.00,1.15
5200.00,1.15
5199.00,1.15
5198.00,1.15
5197.00,1.15
5196.00,1.15
5195.00,1.15
5194.00,1.15
5193.00,1.15
5192.00,1.16
5191.00,1.16
5190.00,1.16
5189.00,1.16
5188.00,1.16
5187.00,1.16
5186.00,1.16
5185.00,1.16
5184.00,1.16
5183.00,1.16
5182.00,1.17
5181.00,1.17
5180.00,1.17
5179.00,1.17
5178.00,1.17
5177.00,1.17
5176.00,1.17
5175.00,1.17
5174.00,1.17
5173.00,1.17
5172.00,1.17
5171.00,1.17
5170.00,1.17
5169.00,1.17
5168.00,1.17
5167.00,1.17
5166.00,1.17
5165.00,1.17
5164.00,1.17
5163.00,1.17
5162.00,1.17
5161.00,1.17
5160.00,1.17
5159.00,1.17
5158.00,1.17
5157.00,1.17
5156.00,1.17
5155.00,1.17
5154.00,1.18
5153.00,1.18
5152.00,1.18
5151.00,1.18
5150.00,1.18
5149.00,1.18
5148.00,1.18
5147.00,1.18
5146.00,1.18
5145.00,1.18
5144.00,1.18
5143.00,1.18
5142.00,1.18
5141.00,1.18
5140.00,1.18
5139.00,1.18
5138.00,1.18
5137.00,1.18
5136.00,1.18
5135.00,1.18
5134.00,1.18
5133.00,1.18
5132.00,1.17
5131.00,1.17
5130.00,1.17
5129.00,1.17
5128.00,1.17
5127.00,1.17
5126.00,1.17
5125.00,1.17
5124.00,1.17
5123.00,1.17
5122.00,1.17
5121.00,1.17
5120.00,1.17
5119.00,1.17
5118.00,1.17
5117.00,1.17
5116.00,1.17
5115.00,1.17
5114.00,1.17
5113.00,1.17
5112.00,1.17
5111.00,1.17
5110.00,1.17
5109.00,1.17
5108.00,1.17
5107.00,1.17
5106.00,1.17
5105.00,1.17
5104.00,1.18
5103.00,1.18
5102.00,1.18
5101.00,1.18
5100.00,1.18
5099.00,1.18
5098.00,1.18
5097.00,1.18
5096.00,1.18
5095.00,1.18
5094.00,1.18
5093.00,1.18
5092.00,1.18
5091.00,1.18
5090.00,1.18
5089.00,1.18
5088.00,1.18
5087.00,1.18
5086.00,1.18
5085.00,1.18
5084.00,1.18
5083.00,1.18
5082.00,1.18
5081.00,1.18
5080.00,1.18
5079.00,1.18
5078.00,1.18
5077.00,1.18
5076.00,1.18
5075.00,1.18
5074.00,1.18
5073.00,1.18
5072.00,1.18
5071.00,1.18
5070.00,1.18
5069.00,1.18
5068.00,1.18
5067.00,1.18
5066.00,1.18
5065.00,1.18
5064.00,1.18
5063.00,1.18
5062.00,1.18
5061.00,1.18
5060.00,1.18
5059.00,1.18
5058.00,1.18
5057.00,1.18
5056.00,1.18
5055.00,1.18
5054.00,1.18
5053.00,1.18
5052.00,1.18
5051.00,1.18
5050.00,1.18
5049.00,1.18
5048.00,1.18
5047.00,1.18
5046.00,1.18
5045.00,1.18
5044.00,1.18
5043.00,1.18
5042.00,1.18
5041.00,1.18
5040.00,1.18
5039.00,1.18
5038.00,1.19
5037.00,1.19
5036.00,1.19
5035.00,1.19
5034.00,1.18
5033.00,1.18
5032.00,1.18
5031.00,1.19
5030.00,1.19
5029.00,1.19
5028.00,1.19
5027.00,1.19
5026.00,1.19
5025.00,1.19
5024.00,1.19
5023.00,1.19
5022.00,1.19
5021.00,1.19
5020.00,1.19
5019.00,1.19
5018.00,1.19
5017.00,1.19
5016.00,1.19
5015.00,1.20
5014.00,1.20
5013.00,1.20
5012.00,1.20
5011.00,1.20
5010.00,1.20
5009.00,1.20
5008.00,1.20
5007.00,1.20
5006.00,1.20
5005.00,1.20
5004.00,1.20
5003.00,1.20
5002.00,1.20
5001.00,1.20
5000.00,1.20
4999.00,1.20
4998.00,1.20
4997.00,1.20
4996.00,1.20
4995.00,1.20
4994.00,1.20
4993.00,1.20
4992.00,1.20
4991.00,1.20
4990.00,1.20
4989.00,1.20
4988.00,1.20
4987.00,1.20
4986.00,1.20
4985.00,1.20
4984.00,1.20
4983.00,1.20
4982.00,1.19
4981.00,1.19
4980.00,1.19
4979.00,1.19
4978.00,1.19
4977.00,1.19
4976.00,1.19
4975.00,1.19
4974.00,1.19
4973.00,1.19
4972.00,1.19
4971.00,1.19
4970.00,1.19
4969.00,1.19
4968.00,1.19
4967.00,1.19
4966.00,1.20
4965.00,1.20
4964.00,1.20
4963.00,1.20
4962.00,1.20
4961.00,1.20
4960.00,1.20
4959.00,1.20
4958.00,1.20
4957.00,1.20
4956.00,1.21
4955.00,1.21
4954.00,1.21
4953.00,1.21
4952.00,1.21
4951.00,1.21
4950.00,1.21
4949.00,1.21
4948.00,1.21
4947.00,1.22
4946.00,1.22
4945.00,1.22
4944.00,1.22
4943.00,1.22
4942.00,1.22
4941.00,1.22
4940.00,1.22
4939.00,1.22
4938.00,1.22
4937.00,1.22
4936.00,1.23
4935.00,1.23
4934.00,1.23
4933.00,1.23
4932.00,1.23
4931.00,1.23
4930.00,1.23
4929.00,1.23
4928.00,1.23
4927.00,1.23
4926.00,1.24
4925.00,1.24
4924.00,1.24
4923.00,1.24
4922.00,1.24
4921.00,1.24
4920.00,1.24
4919.00,1.24
4918.00,1.24
4917.00,1.24
4916.00,1.25
4915.00,1.25
4914.00,1.25
4913.00,1.25
4912.00,1.25
4911.00,1.25
4910.00,1.25
4909.00,1.25
4908.00,1.25
4907.00,1.25
4906.00,1.25
4905.00,1.25
4904.00,1.25
4903.00,1.25
4902.00,1.25
4901.00,1.25
4900.00,1.25
4899.00,1.25
4898.00,1.25
4897.00,1.25
4896.00,1.25
4895.00,1.25
4894.00,1.25
4893.00,1.25
4892.00,1.25
4891.00,1.25
4890.00,1.25
4889.00,1.25
4888.00,1.25
4887.00,1.25
4886.00,1.25
4885.00,1.25
4884.00,1.25
4883.00,1.24
4882.00,1.24
4881.00,1.24
4880.00,1.24
4879.00,1.24
4878.00,1.24
4877.00,1.24
4876.00,1.24
4875.00,1.24
4874.00,1.24
4873.00,1.24
4872.00,1.24
4871.00,1.24
4870.00,1.24
4869.00,1.24
4868.00,1.24
4867.00,1.24
4866.00,1.24
4865.00,1.24
4864.00,1.23
4863.00,1.23
4862.00,1.23
4861.00,1.23
4860.00,1.23
4859.00,1.23
4858.00,1.23
4857.00,1.22
4856.00,1.22
4855.00,1.22
4854.00,1.22
4853.00,1.22
4852.00,1.22
4851.00,1.22
4850.00,1.22
4849.00,1.22
4848.00,1.22
4847.00,1.22
4846.00,1.22
4845.00,1.22
4844.00,1.22
4843.00,1.22
4842.00,1.22
4841.00,1.22
4840.00,1.22
4839.00,1.22
4838.00,1.22
4837.00,1.22
4836.00,1.22
4835.00,1.23
4834.00,1.23
4833.00,1.23
4832.00,1.23
4831.00,1.23
4830.00,1.24
4829.00,1.24
4828.00,1.24
4827.00,1.24
4826.00,1.25
4825.00,1.25
4824.00,1.25
4823.00,1.25
4822.00,1.25
4821.00,1.25
4820.00,1.26
4819.00,1.26
4818.00,1.26
4817.00,1.26
4816.00,1.26
4815.00,1.26
4814.00,1.26
4813.00,1.26
4812.00,1.26
4811.00,1.26
4810.00,1.26
4809.00,1.26
4808.00,1.26
4807.00,1.26
4806.00,1.26
4805.00,1.26
4804.00,1.26
4803.00,1.26
4802.00,1.26
4801.00,1.26
4800.00,1.26
4799.00,1.26
4798.00,1.25
4797.00,1.25
4796.00,1.25
4795.00,1.25
4794.00,1.25
4793.00,1.25
4792.00,1.24
4791.00,1.24
4790.00,1.24
4789.00,1.24
4788.00,1.24
4787.00,1.24
4786.00,1.24
4785.00,1.24
4784.00,1.24
4783.00,1.24
4782.00,1.24
4781.00,1.23
4780.00,1.23
4779.00,1.23
4778.00,1.23
4777.00,1.23
4776.00,1.23
4775.00,1.23
4774.00,1.23
4773.00,1.23
4772.00,1.23
4771.00,1.23
4770.00,1.23
4769.00,1.23
4768.00,1.23
4767.00,1.23
4766.00,1.23
4765.00,1.23
4764.00,1.23
4763.00,1.23
4762.00,1.23
4761.00,1.23
4760.00,1.23
4759.00,1.23
4758.00,1.23
4757.00,1.24
4756.00,1.24
4755.00,1.24
4754.00,1.24
4753.00,1.24
4752.00,1.24
4751.00,1.24
4750.00,1.24
4749.00,1.25
4748.00,1.25
4747.00,1.25
4746.00,1.25
4745.00,1.25
4744.00,1.25
4743.00,1.25
4742.00,1.25
4741.00,1.25
4740.00,1.25
4739.00,1.25
4738.00,1.25
4737.00,1.25
4736.00,1.24
4735.00,1.24
4734.00,1.24
4733.00,1.24
4732.00,1.24
4731.00,1.24
4730.00,1.24
4729.00,1.24
4728.00,1.24
4727.00,1.24
4726.00,1.24
4725.00,1.24
4724.00,1.24
4723.00,1.24
4722.00,1.24
4721.00,1.24
4720.00,1.24
4719.00,1.24
4718.00,1.24
4717.00,1.24
4716.00,1.24
4715.00,1.25
4714.00,1.25
4713.00,1.25
4712.00,1.25
4711.00,1.25
4710.00,1.25
4709.00,1.25
4708.00,1.25
4707.00,1.25
4706.00,1.26
4705.00,1.26
4704.00,1.26
4703.00,1.26
4702.00,1.26
4701.00,1.26
4700.00,1.26
4699.00,1.26
4698.00,1.26
4697.00,1.26
4696.00,1.26
4695.00,1.27
4694.00,1.27
4693.00,1.27
4692.00,1.26
4691.00,1.26
4690.00,1.26
4689.00,1.26
4688.00,1.26
4687.00,1.26
4686.00,1.26
4685.00,1.26
4684.00,1.26
4683.00,1.26
4682.00,1.26
4681.00,1.26
4680.00,1.26
4679.00,1.26
4678.00,1.26
4677.00,1.26
4676.00,1.25
4675.00,1.25
4674.00,1.25
4673.00,1.25
4672.00,1.25
4671.00,1.25
4670.00,1.25
4669.00,1.25
4668.00,1.25
4667.00,1.24
4666.00,1.24
4665.00,1.24
4664.00,1.24
4663.00,1.24
4662.00,1.24
4661.00,1.24
4660.00,1.24
4659.00,1.24
4658.00,1.24
4657.00,1.24
4656.00,1.24
4655.00,1.24
4654.00,1.24
4653.00,1.24
4652.00,1.24
4651.00,1.24
4650.00,1.25
4649.00,1.25
4648.00,1.25
4647.00,1.25
4646.00,1.25
4645.00,1.25
4644.00,1.25
4643.00,1.26
4642.00,1.26
4641.00,1.26
4640.00,1.26
4639.00,1.26
4638.00,1.26
4637.00,1.26
4636.00,1.26
4635.00,1.26
4634.00,1.26
4633.00,1.26
4632.00,1.26
4631.00,1.26
4630.00,1.26
4629.00,1.26
4628.00,1.26
4627.00,1.26
4626.00,1.26
4625.00,1.26
4624.00,1.26
4623.00,1.25
4622.00,1.25
4621.00,1.25
4620.00,1.25
4619.00,1.25
4618.00,1.25
4617.00,1.25
4616.00,1.24
4615.00,1.24
4614.00,1.24
4613.00,1.24
4612.00,1.24
4611.00,1.24
4610.00,1.24
4609.00,1.24
4608.00,1.24
4607.00,1.24
4606.00,1.24
4605.00,1.24
4604.00,1.24
4603.00,1.24
4602.00,1.24
4601.00,1.24
4600.00,1.24
4599.00,1.24
4598.00,1.24
4597.00,1.24
4596.00,1.24
4595.00,1.24
4594.00,1.24
4593.00,1.24
4592.00,1.24
4591.00,1.24
4590.00,1.24
4589.00,1.23
4588.00,1.23
4587.00,1.23
4586.00,1.23
4585.00,1.23
4584.00,1.23
4583.00,1.22
4582.00,1.22
4581.00,1.22
4580.00,1.22
4579.00,1.22
4578.00,1.21
4577.00,1.21
4576.00,1.21
4575.00,1.21
4574.00,1.20
4573.00,1.20
4572.00,1.20
4571.00,1.20
4570.00,1.19
4569.00,1.19
4568.00,1.19
4567.00,1.19
4566.00,1.19
4565.00,1.19
4564.00,1.19
4563.00,1.19
4562.00,1.19
4561.00,1.19
4560.00,1.19
4559.00,1.19
4558.00,1.19
4557.00,1.19
4556.00,1.19
4555.00,1.19
4554.00,1.19
4553.00,1.19
4552.00,1.19
4551.00,1.19
4550.00,1.19
4549.00,1.20
4548.00,1.20
4547.00,1.20
4546.00,1.20
4545.00,1.20
4544.00,1.21
4543.00,1.21
4542.00,1.21
4541.00,1.21
4540.00,1.21
4539.00,1.22
4538.00,1.22
4537.00,1.22
4536.00,1.22
4535.00,1.22
4534.00,1.22
4533.00,1.22
4532.00,1.23
4531.00,1.23
4530.00,1.23
4529.00,1.23
4528.00,1.23
4527.00,1.23
4526.00,1.23
4525.00,1.23
4524.00,1.24
4523.00,1.24
4522.00,1.24
4521.00,1.24
4520.00,1.24
4519.00,1.24
4518.00,1.24
4517.00,1.24
4516.00,1.24
4515.00,1.24
4514.00,1.24
4513.00,1.24
4512.00,1.24
4511.00,1.24
4510.00,1.24
4509.00,1.24
4508.00,1.24
4507.00,1.24
4506.00,1.24
4505.00,1.24
4504.00,1.24
4503.00,1.24
4502.00,1.24
4501.00,1.24
4500.00,1.23
4499.00,1.23
4498.00,1.23
4497.00,1.23
4496.00,1.23
4495.00,1.23
4494.00,1.23
4493.00,1.23
4492.00,1.23
4491.00,1.23
4490.00,1.23
4489.00,1.23
4488.00,1.23
4487.00,1.23
4486.00,1.23
4485.00,1.23
4484.00,1.22
4483.00,1.22
4482.00,1.22
4481.00,1.22
4480.00,1.22
4479.00,1.22
4478.00,1.22
4477.00,1.22
4476.00,1.22
4475.00,1.21
4474.00,1.21
4473.00,1.21
4472.00,1.21
4471.00,1.21
4470.00,1.21
4469.00,1.21
4468.00,1.21
4467.00,1.21
4466.00,1.21
4465.00,1.21
4464.00,1.20
4463.00,1.20
4462.00,1.20
4461.00,1.20
4460.00,1.20
4459.00,1.20
4458.00,1.20
4457.00,1.20
4456.00,1.20
4455.00,1.20
4454.00,1.20
4453.00,1.20
4452.00,1.20
4451.00,1.20
4450.00,1.20
4449.00,1.20
4448.00,1.20
4447.00,1.20
4446.00,1.20
4445.00,1.20
4444.00,1.20
4443.00,1.20
4442.00,1.20
4441.00,1.20
4440.00,1.20
4439.00,1.20
4438.00,1.20
4437.00,1.20
4436.00,1.19
4435.00,1.19
4434.00,1.19
4433.00,1.19
4432.00,1.19
4431.00,1.19
4430.00,1.19
4429.00,1.19
4428.00,1.19
4427.00,1.19
4426.00,1.19
4425.00,1.19
4424.00,1.19
4423.00,1.19
4422.00,1.19
4421.00,1.19
4420.00,1.19
4419.00,1.19
4418.00,1.19
4417.00,1.19
4416.00,1.19
4415.00,1.19
4414.00,1.19
4413.00,1.19
4412.00,1.19
4411.00,1.19
4410.00,1.19
4409.00,1.20
4408.00,1.20
4407.00,1.20
4406.00,1.20
4405.00,1.20
4404.00,1.20
4403.00,1.20
4402.00,1.20
4401.00,1.21
4400.00,1.21
4399.00,1.21
4398.00,1.21
4397.00,1.21
4396.00,1.21
4395.00,1.21
4394.00,1.21
4393.00,1.22
4392.00,1.22
4391.00,1.22
4390.00,1.22
4389.00,1.22
4388.00,1.22
4387.00,1.22
4386.00,1.22
4385.00,1.22
4384.00,1.22
4383.00,1.22
4382.00,1.22
4381.00,1.22
4380.00,1.22
4379.00,1.22
4378.00,1.22
4377.00,1.22
4376.00,1.22
4375.00,1.23
4374.00,1.23
4373.00,1.22
4372.00,1.22
4371.00,1.22
4370.00,1.22
4369.00,1.22
4368.00,1.22
4367.00,1.22
4366.00,1.22
4365.00,1.22
4364.00,1.22
4363.00,1.22
4362.00,1.22
4361.00,1.22
4360.00,1.22
4359.00,1.22
4358.00,1.22
4357.00,1.22
4356.00,1.21
4355.00,1.21
4354.00,1.21
4353.00,1.21
4352.00,1.21
4351.00,1.21
4350.00,1.21
4349.00,1.21
4348.00,1.21
4347.00,1.20
4346.00,1.20
4345.00,1.20
4344.00,1.20
4343.00,1.20
4342.00,1.20
4341.00,1.20
4340.00,1.20
4339.00,1.20
4338.00,1.20
4337.00,1.20
4336.00,1.20
4335.00,1.20
4334.00,1.20
4333.00,1.21
4332.00,1.21
4331.00,1.21
4330.00,1.21
4329.00,1.21
4328.00,1.21
4327.00,1.21
4326.00,1.21
4325.00,1.22
4324.00,1.22
4323.00,1.22
4322.00,1.22
4321.00,1.22
4320.00,1.22
4319.00,1.23
4318.00,1.23
4317.00,1.23
4316.00,1.23
4315.00,1.23
4314.00,1.23
4313.00,1.23
4312.00,1.23
4311.00,1.23
4310.00,1.23
4309.00,1.24
4308.00,1.24
4307.00,1.24
4306.00,1.24
4305.00,1.24
4304.00,1.24
4303.00,1.24
4302.00,1.24
4301.00,1.24
4300.00,1.24
4299.00,1.24
4298.00,1.24
4297.00,1.24
4296.00,1.24
4295.00,1.24
4294.00,1.24
4293.00,1.24
4292.00,1.24
4291.00,1.24
4290.00,1.24
4289.00,1.24
4288.00,1.24
4287.00,1.24
4286.00,1.25
4285.00,1.25
4284.00,1.25
4283.00,1.25
4282.00,1.25
4281.00,1.25
4280.00,1.25
4279.00,1.25
4278.00,1.25
4277.00,1.25
4276.00,1.25
4275.00,1.25
4274.00,1.25
4273.00,1.25
4272.00,1.25
4271.00,1.25
4270.00,1.25
4269.00,1.25
4268.00,1.25
4267.00,1.25
4266.00,1.25
4265.00,1.25
4264.00,1.25
4263.00,1.25
4262.00,1.25
4261.00,1.25
4260.00,1.25
4259.00,1.25
4258.00,1.25
4257.00,1.25
4256.00,1.25
4255.00,1.25
4254.00,1.25
4253.00,1.25
4252.00,1.25
4251.00,1.25
4250.00,1.25
4249.00,1.25
4248.00,1.25
4247.00,1.25
4246.00,1.25
4245.00,1.25
4244.00,1.25
4243.00,1.25
4242.00,1.25
4241.00,1.25
4240.00,1.24
4239.00,1.24
4238.00,1.24
4237.00,1.24
4236.00,1.24
4235.00,1.24
4234.00,1.24
4233.00,1.24
4232.00,1.24
4231.00,1.23
4230.00,1.23
4229.00,1.23
4228.00,1.23
4227.00,1.23
4226.00,1.23
4225.00,1.23
4224.00,1.23
4223.00,1.23
4222.00,1.23
4221.00,1.23
4220.00,1.23
4219.00,1.23
4218.00,1.23
4217.00,1.23
4216.00,1.23
4215.00,1.23
4214.00,1.23
4213.00,1.24
4212.00,1.24
4211.00,1.24
4210.00,1.24
4209.00,1.24
4208.00,1.24
4207.00,1.25
4206.00,1.25
4205.00,1.25
4204.00,1.25
4203.00,1.25
4202.00,1.26
4201.00,1.26
4200.00,1.26
4199.00,1.26
4198.00,1.26
4197.00,1.26
4196.00,1.26
4195.00,1.26
4194.00,1.26
4193.00,1.26
4192.00,1.26
4191.00,1.26
4190.00,1.26
4189.00,1.26
4188.00,1.26
4187.00,1.26
4186.00,1.26
4185.00,1.26
4184.00,1.26
4183.00,1.26
4182.00,1.26
4181.00,1.26
4180.00,1.26
4179.00,1.26
4178.00,1.26
4177.00,1.26
4176.00,1.26
4175.00,1.26
4174.00,1.26
4173.00,1.26
4172.00,1.26
4171.00,1.26
4170.00,1.26
4169.00,1.26
4168.00,1.26
4167.00,1.26
4166.00,1.26
4165.00,1.26
4164.00,1.26
4163.00,1.26
4162.00,1.26
4161.00,1.26
4160.00,1.26
4159.00,1.26
4158.00,1.26
4157.00,1.26
4156.00,1.26
4155.00,1.26
4154.00,1.26
4153.00,1.26
4152.00,1.26
4151.00,1.26
4150.00,1.26
4149.00,1.26
4148.00,1.26
4147.00,1.26
4146.00,1.26
4145.00,1.26
4144.00,1.26
4143.00,1.25
4142.00,1.25
4141.00,1.25
4140.00,1.25
4139.00,1.25
4138.00,1.25
4137.00,1.25
4136.00,1.25
4135.00,1.24
4134.00,1.24
4133.00,1.24
4132.00,1.24
4131.00,1.24
4130.00,1.24
4129.00,1.24
4128.00,1.24
4127.00,1.24
4126.00,1.24
4125.00,1.23
4124.00,1.23
4123.00,1.23
4122.00,1.23
4121.00,1.23
4120.00,1.23
4119.00,1.23
4118.00,1.23
4117.00,1.23
4116.00,1.23
4115.00,1.23
4114.00,1.23
4113.00,1.23
4112.00,1.23
4111.00,1.23
4110.00,1.23
4109.00,1.23
4108.00,1.23
4107.00,1.23
4106.00,1.23
4105.00,1.23
4104.00,1.23
4103.00,1.23
4102.00,1.23
4101.00,1.23
4100.00,1.23
4099.00,1.23
4098.00,1.23
4097.00,1.23
4096.00,1.23
4095.00,1.23
4094.00,1.23
4093.00,1.23
4092.00,1.23
4091.00,1.23
4090.00,1.23
4089.00,1.23
4088.00,1.23
4087.00,1.23
4086.00,1.23
4085.00,1.23
4084.00,1.23
4083.00,1.23
4082.00,1.22
4081.00,1.22
4080.00,1.22
4079.00,1.22
4078.00,1.23
4077.00,1.23
4076.00,1.23
4075.00,1.23
4074.00,1.23
4073.00,1.23
4072.00,1.23
4071.00,1.23
4070.00,1.23
4069.00,1.24
4068.00,1.24
4067.00,1.24
4066.00,1.24
4065.00,1.24
4064.00,1.24
4063.00,1.25
4062.00,1.25
4061.00,1.25
4060.00,1.25
4059.00,1.25
4058.00,1.25
4057.00,1.25
4056.00,1.25
4055.00,1.25
4054.00,1.25
4053.00,1.25
4052.00,1.25
4051.00,1.25
4050.00,1.25
4049.00,1.25
4048.00,1.26
4047.00,1.26
4046.00,1.26
4045.00,1.26
4044.00,1.26
4043.00,1.26
4042.00,1.26
4041.00,1.26
4040.00,1.26
4039.00,1.26
4038.00,1.26
4037.00,1.26
4036.00,1.26
4035.00,1.26
4034.00,1.26
4033.00,1.26
4032.00,1.26
4031.00,1.26
4030.00,1.26
4029.00,1.26
4028.00,1.26
4027.00,1.27
4026.00,1.27
4025.00,1.27
4024.00,1.27
4023.00,1.27
4022.00,1.27
4021.00,1.27
4020.00,1.27
4019.00,1.27
4018.00,1.27
4017.00,1.27
4016.00,1.28
4015.00,1.28
4014.00,1.28
4013.00,1.28
4012.00,1.28
4011.00,1.28
4010.00,1.28
4009.00,1.29
4008.00,1.29
4007.00,1.29
4006.00,1.29
4005.00,1.29
4004.00,1.30
4003.00,1.30
4002.00,1.30
4001.00,1.31
4000.00,1.31
