创建为新数据集,样品 318 用户 Administrator 日期 星期六, 七月 27 2019
cm-1,%T
10000.00,1.20
9999.00,1.20
9998.00,1.20
9997.00,1.20
9996.00,1.20
9995.00,1.20
9994.00,1.20
9993.00,1.20
9992.00,1.20
9991.00,1.20
9990.00,1.19
9989.00,1.19
9988.00,1.19
9987.00,1.18
9986.00,1.17
9985.00,1.17
9984.00,1.16
9983.00,1.15
9982.00,1.14
9981.00,1.13
9980.00,1.12
9979.00,1.11
9978.00,1.09
9977.00,1.08
9976.00,1.07
9975.00,1.06
9974.00,1.04
9973.00,1.03
9972.00,1.02
9971.00,1.01
9970.00,1.00
9969.00,0.98
9968.00,0.97
9967.00,0.96
9966.00,0.95
9965.00,0.94
9964.00,0.93
9963.00,0.93
9962.00,0.92
9961.00,0.92
9960.00,0.91
9959.00,0.91
9958.00,0.91
9957.00,0.90
9956.00,0.90
9955.00,0.91
9954.00,0.91
9953.00,0.91
9952.00,0.91
9951.00,0.92
9950.00,0.92
9949.00,0.93
9948.00,0.94
9947.00,0.94
9946.00,0.95
9945.00,0.96
9944.00,0.96
9943.00,0.97
9942.00,0.98
9941.00,0.98
9940.00,0.99
9939.00,0.99
9938.00,1.00
9937.00,1.00
9936.00,1.01
9935.00,1.01
9934.00,1.02
9933.00,1.02
9932.00,1.02
9931.00,1.03
9930.00,1.03
9929.00,1.03
9928.00,1.03
9927.00,1.03
9926.00,1.03
9925.00,1.03
9924.00,1.02
9923.00,1.02
9922.00,1.02
9921.00,1.02
9920.00,1.02
9919.00,1.02
9918.00,1.01
9917.00,1.01
9916.00,1.01
9915.00,1.01
9914.00,1.01
9913.00,1.01
9912.00,1.01
9911.00,1.01
9910.00,1.01
9909.00,1.01
9908.00,1.01
9907.00,1.01
9906.00,1.02
9905.00,1.02
9904.00,1.02
9903.00,1.02
9902.00,1.02
9901.00,1.02
9900.00,1.02
9899.00,1.02
9898.00,1.02
9897.00,1.02
9896.00,1.02
9895.00,1.02
9894.00,1.02
9893.00,1.02
9892.00,1.02
9891.00,1.02
9890.00,1.01
9889.00,1.01
9888.00,1.01
9887.00,1.01
9886.00,1.01
9885.00,1.01
9884.00,1.01
9883.00,1.01
9882.00,1.01
9881.00,1.01
9880.00,1.02
9879.00,1.02
9878.00,1.02
9877.00,1.02
9876.00,1.03
9875.00,1.03
9874.00,1.04
9873.00,1.04
9872.00,1.05
9871.00,1.05
9870.00,1.06
9869.00,1.07
9868.00,1.07
9867.00,1.08
9866.00,1.09
9865.00,1.09
9864.00,1.10
9863.00,1.10
9862.00,1.10
9861.00,1.11
9860.00,1.11
9859.00,1.11
9858.00,1.11
9857.00,1.10
9856.00,1.10
9855.00,1.10
9854.00,1.09
9853.00,1.09
9852.00,1.08
9851.00,1.07
9850.00,1.07
9849.00,1.06
9848.00,1.05
9847.00,1.04
9846.00,1.04
9845.00,1.03
9844.00,1.02
9843.00,1.01
9842.00,1.00
9841.00,1.00
9840.00,0.99
9839.00,0.98
9838.00,0.97
9837.00,0.97
9836.00,0.96
9835.00,0.95
9834.00,0.95
9833.00,0.94
9832.00,0.94
9831.00,0.93
9830.00,0.93
9829.00,0.92
9828.00,0.92
9827.00,0.92
9826.00,0.92
9825.00,0.92
9824.00,0.92
9823.00,0.92
9822.00,0.92
9821.00,0.92
9820.00,0.93
9819.00,0.93
9818.00,0.93
9817.00,0.93
9816.00,0.94
9815.00,0.94
9814.00,0.95
9813.00,0.95
9812.00,0.95
9811.00,0.96
9810.00,0.97
9809.00,0.97
9808.00,0.98
9807.00,0.99
9806.00,0.99
9805.00,1.00
9804.00,1.01
9803.00,1.01
9802.00,1.02
9801.00,1.03
9800.00,1.03
9799.00,1.04
9798.00,1.04
9797.00,1.05
9796.00,1.06
9795.00,1.06
9794.00,1.07
9793.00,1.07
9792.00,1.08
9791.00,1.08
9790.00,1.08
9789.00,1.09
9788.00,1.09
9787.00,1.09
9786.00,1.09
9785.00,1.09
9784.00,1.09
9783.00,1.10
9782.00,1.10
9781.00,1.10
9780.00,1.10
9779.00,1.10
9778.00,1.11
9777.00,1.11
9776.00,1.11
9775.00,1.11
9774.00,1.11
9773.00,1.11
9772.00,1.11
9771.00,1.11
9770.00,1.11
9769.00,1.11
9768.00,1.10
9767.00,1.10
9766.00,1.10
9765.00,1.09
9764.00,1.09
9763.00,1.09
9762.00,1.08
9761.00,1.08
9760.00,1.08
9759.00,1.07
9758.00,1.07
9757.00,1.07
9756.00,1.06
9755.00,1.06
9754.00,1.05
9753.00,1.05
9752.00,1.05
9751.00,1.04
9750.00,1.04
9749.00,1.04
9748.00,1.04
9747.00,1.04
9746.00,1.04
9745.00,1.04
9744.00,1.04
9743.00,1.04
9742.00,1.04
9741.00,1.05
9740.00,1.05
9739.00,1.05
9738.00,1.06
9737.00,1.06
9736.00,1.06
9735.00,1.07
9734.00,1.07
9733.00,1.07
9732.00,1.08
9731.00,1.08
9730.00,1.08
9729.00,1.08
9728.00,1.08
9727.00,1.08
9726.00,1.08
9725.00,1.08
9724.00,1.08
9723.00,1.08
9722.00,1.07
9721.00,1.07
9720.00,1.06
9719.00,1.05
9718.00,1.04
9717.00,1.03
9716.00,1.02
9715.00,1.01
9714.00,1.00
9713.00,0.99
9712.00,0.98
9711.00,0.96
9710.00,0.95
9709.00,0.94
9708.00,0.93
9707.00,0.92
9706.00,0.91
9705.00,0.90
9704.00,0.89
9703.00,0.88
9702.00,0.87
9701.00,0.86
9700.00,0.86
9699.00,0.85
9698.00,0.85
9697.00,0.84
9696.00,0.84
9695.00,0.84
9694.00,0.84
9693.00,0.84
9692.00,0.84
9691.00,0.85
9690.00,0.85
9689.00,0.85
9688.00,0.86
9687.00,0.86
9686.00,0.87
9685.00,0.87
9684.00,0.88
9683.00,0.88
9682.00,0.89
9681.00,0.89
9680.00,0.90
9679.00,0.90
9678.00,0.90
9677.00,0.91
9676.00,0.91
9675.00,0.91
9674.00,0.91
9673.00,0.92
9672.00,0.92
9671.00,0.92
9670.00,0.92
9669.00,0.92
9668.00,0.93
9667.00,0.93
9666.00,0.93
9665.00,0.93
9664.00,0.93
9663.00,0.94
9662.00,0.94
9661.00,0.94
9660.00,0.95
9659.00,0.95
9658.00,0.95
9657.00,0.95
9656.00,0.96
9655.00,0.96
9654.00,0.96
9653.00,0.97
9652.00,0.97
9651.00,0.97
9650.00,0.97
9649.00,0.97
9648.00,0.97
9647.00,0.97
9646.00,0.98
9645.00,0.98
9644.00,0.97
9643.00,0.97
9642.00,0.97
9641.00,0.97
9640.00,0.97
9639.00,0.96
9638.00,0.96
9637.00,0.95
9636.00,0.95
9635.00,0.95
9634.00,0.94
9633.00,0.93
9632.00,0.93
9631.00,0.92
9630.00,0.92
9629.00,0.91
9628.00,0.91
9627.00,0.90
9626.00,0.90
9625.00,0.90
9624.00,0.90
9623.00,0.90
9622.00,0.90
9621.00,0.90
9620.00,0.91
9619.00,0.91
9618.00,0.92
9617.00,0.92
9616.00,0.93
9615.00,0.93
9614.00,0.94
9613.00,0.94
9612.00,0.95
9611.00,0.96
9610.00,0.96
9609.00,0.97
9608.00,0.97
9607.00,0.98
9606.00,0.98
9605.00,0.98
9604.00,0.99
9603.00,0.99
9602.00,0.99
9601.00,0.99
9600.00,0.99
9599.00,0.99
9598.00,0.99
9597.00,0.99
9596.00,0.99
9595.00,0.98
9594.00,0.98
9593.00,0.97
9592.00,0.96
9591.00,0.95
9590.00,0.94
9589.00,0.93
9588.00,0.92
9587.00,0.91
9586.00,0.90
9585.00,0.89
9584.00,0.88
9583.00,0.87
9582.00,0.86
9581.00,0.85
9580.00,0.85
9579.00,0.84
9578.00,0.83
9577.00,0.83
9576.00,0.82
9575.00,0.82
9574.00,0.81
9573.00,0.81
9572.00,0.80
9571.00,0.80
9570.00,0.80
9569.00,0.80
9568.00,0.80
9567.00,0.80
9566.00,0.80
9565.00,0.80
9564.00,0.80
9563.00,0.80
9562.00,0.80
9561.00,0.81
9560.00,0.81
9559.00,0.82
9558.00,0.82
9557.00,0.83
9556.00,0.83
9555.00,0.84
9554.00,0.84
9553.00,0.85
9552.00,0.86
9551.00,0.86
9550.00,0.87
9549.00,0.88
9548.00,0.88
9547.00,0.89
9546.00,0.90
9545.00,0.90
9544.00,0.91
9543.00,0.92
9542.00,0.92
9541.00,0.93
9540.00,0.94
9539.00,0.95
9538.00,0.96
9537.00,0.97
9536.00,0.98
9535.00,0.99
9534.00,1.00
9533.00,1.01
9532.00,1.02
9531.00,1.02
9530.00,1.03
9529.00,1.04
9528.00,1.04
9527.00,1.04
9526.00,1.05
9525.00,1.05
9524.00,1.05
9523.00,1.06
9522.00,1.06
9521.00,1.06
9520.00,1.06
9519.00,1.06
9518.00,1.06
9517.00,1.06
9516.00,1.06
9515.00,1.06
9514.00,1.06
9513.00,1.06
9512.00,1.06
9511.00,1.05
9510.00,1.05
9509.00,1.05
9508.00,1.05
9507.00,1.04
9506.00,1.04
9505.00,1.04
9504.00,1.04
9503.00,1.03
9502.00,1.03
9501.00,1.03
9500.00,1.03
9499.00,1.03
9498.00,1.03
9497.00,1.03
9496.00,1.04
9495.00,1.04
9494.00,1.04
9493.00,1.04
9492.00,1.04
9491.00,1.04
9490.00,1.03
9489.00,1.03
9488.00,1.03
9487.00,1.03
9486.00,1.02
9485.00,1.02
9484.00,1.02
9483.00,1.01
9482.00,1.01
9481.00,1.01
9480.00,1.00
9479.00,1.00
9478.00,0.99
9477.00,0.99
9476.00,0.98
9475.00,0.98
9474.00,0.97
9473.00,0.97
9472.00,0.96
9471.00,0.96
9470.00,0.95
9469.00,0.95
9468.00,0.94
9467.00,0.94
9466.00,0.94
9465.00,0.94
9464.00,0.93
9463.00,0.93
9462.00,0.93
9461.00,0.93
9460.00,0.94
9459.00,0.94
9458.00,0.94
9457.00,0.94
9456.00,0.94
9455.00,0.94
9454.00,0.94
9453.00,0.94
9452.00,0.94
9451.00,0.94
9450.00,0.94
9449.00,0.94
9448.00,0.94
9447.00,0.94
9446.00,0.94
9445.00,0.95
9444.00,0.95
9443.00,0.95
9442.00,0.95
9441.00,0.95
9440.00,0.95
9439.00,0.95
9438.00,0.95
9437.00,0.95
9436.00,0.95
9435.00,0.95
9434.00,0.94
9433.00,0.94
9432.00,0.94
9431.00,0.94
9430.00,0.94
9429.00,0.94
9428.00,0.95
9427.00,0.95
9426.00,0.95
9425.00,0.95
9424.00,0.95
9423.00,0.95
9422.00,0.94
9421.00,0.94
9420.00,0.94
9419.00,0.94
9418.00,0.93
9417.00,0.93
9416.00,0.92
9415.00,0.92
9414.00,0.92
9413.00,0.92
9412.00,0.91
9411.00,0.91
9410.00,0.91
9409.00,0.91
9408.00,0.90
9407.00,0.90
9406.00,0.90
9405.00,0.90
9404.00,0.89
9403.00,0.89
9402.00,0.89
9401.00,0.88
9400.00,0.88
9399.00,0.88
9398.00,0.88
9397.00,0.88
9396.00,0.88
9395.00,0.88
9394.00,0.89
9393.00,0.89
9392.00,0.89
9391.00,0.90
9390.00,0.90
9389.00,0.91
9388.00,0.91
9387.00,0.92
9386.00,0.93
9385.00,0.93
9384.00,0.94
9383.00,0.94
9382.00,0.95
9381.00,0.95
9380.00,0.96
9379.00,0.97
9378.00,0.97
9377.00,0.98
9376.00,0.98
9375.00,0.99
9374.00,1.00
9373.00,1.01
9372.00,1.01
9371.00,1.02
9370.00,1.02
9369.00,1.03
9368.00,1.03
9367.00,1.03
9366.00,1.04
9365.00,1.04
9364.00,1.04
9363.00,1.05
9362.00,1.05
9361.00,1.05
9360.00,1.05
9359.00,1.06
9358.00,1.06
9357.00,1.06
9356.00,1.07
9355.00,1.07
9354.00,1.07
9353.00,1.07
9352.00,1.07
9351.00,1.07
9350.00,1.07
9349.00,1.07
9348.00,1.06
9347.00,1.06
9346.00,1.06
9345.00,1.05
9344.00,1.05
9343.00,1.05
9342.00,1.04
9341.00,1.04
9340.00,1.04
9339.00,1.03
9338.00,1.03
9337.00,1.02
9336.00,1.02
9335.00,1.01
9334.00,1.00
9333.00,1.00
9332.00,0.99
9331.00,0.99
9330.00,0.98
9329.00,0.97
9328.00,0.97
9327.00,0.96
9326.00,0.95
9325.00,0.95
9324.00,0.94
9323.00,0.94
9322.00,0.93
9321.00,0.92
9320.00,0.92
9319.00,0.91
9318.00,0.91
9317.00,0.90
9316.00,0.90
9315.00,0.89
9314.00,0.89
9313.00,0.88
9312.00,0.88
9311.00,0.87
9310.00,0.87
9309.00,0.87
9308.00,0.86
9307.00,0.86
9306.00,0.86
9305.00,0.85
9304.00,0.85
9303.00,0.85
9302.00,0.85
9301.00,0.84
9300.00,0.84
9299.00,0.84
9298.00,0.84
9297.00,0.84
9296.00,0.84
9295.00,0.84
9294.00,0.84
9293.00,0.84
9292.00,0.84
9291.00,0.84
9290.00,0.84
9289.00,0.84
9288.00,0.84
9287.00,0.84
9286.00,0.84
9285.00,0.84
9284.00,0.84
9283.00,0.84
9282.00,0.84
9281.00,0.84
9280.00,0.84
9279.00,0.84
9278.00,0.84
9277.00,0.84
9276.00,0.84
9275.00,0.84
9274.00,0.84
9273.00,0.84
9272.00,0.84
9271.00,0.84
9270.00,0.85
9269.00,0.85
9268.00,0.85
9267.00,0.85
9266.00,0.86
9265.00,0.86
9264.00,0.86
9263.00,0.87
9262.00,0.87
9261.00,0.87
9260.00,0.87
9259.00,0.88
9258.00,0.88
9257.00,0.88
9256.00,0.89
9255.00,0.89
9254.00,0.90
9253.00,0.90
9252.00,0.91
9251.00,0.91
9250.00,0.92
9249.00,0.92
9248.00,0.93
9247.00,0.94
9246.00,0.94
9245.00,0.94
9244.00,0.95
9243.00,0.95
9242.00,0.95
9241.00,0.95
9240.00,0.95
9239.00,0.95
9238.00,0.95
9237.00,0.95
9236.00,0.95
9235.00,0.95
9234.00,0.95
9233.00,0.95
9232.00,0.95
9231.00,0.95
9230.00,0.95
9229.00,0.95
9228.00,0.95
9227.00,0.95
9226.00,0.94
9225.00,0.94
9224.00,0.94
9223.00,0.94
9222.00,0.94
9221.00,0.93
9220.00,0.93
9219.00,0.93
9218.00,0.93
9217.00,0.93
9216.00,0.93
9215.00,0.93
9214.00,0.93
9213.00,0.93
9212.00,0.93
9211.00,0.93
9210.00,0.93
9209.00,0.94
9208.00,0.94
9207.00,0.94
9206.00,0.94
9205.00,0.94
9204.00,0.95
9203.00,0.95
9202.00,0.95
9201.00,0.95
9200.00,0.96
9199.00,0.96
9198.00,0.96
9197.00,0.96
9196.00,0.96
9195.00,0.96
9194.00,0.97
9193.00,0.97
9192.00,0.97
9191.00,0.98
9190.00,0.98
9189.00,0.98
9188.00,0.99
9187.00,0.99
9186.00,1.00
9185.00,1.01
9184.00,1.01
9183.00,1.02
9182.00,1.02
9181.00,1.02
9180.00,1.03
9179.00,1.03
9178.00,1.04
9177.00,1.04
9176.00,1.04
9175.00,1.05
9174.00,1.05
9173.00,1.05
9172.00,1.05
9171.00,1.06
9170.00,1.06
9169.00,1.06
9168.00,1.06
9167.00,1.06
9166.00,1.06
9165.00,1.05
9164.00,1.05
9163.00,1.05
9162.00,1.04
9161.00,1.04
9160.00,1.03
9159.00,1.02
9158.00,1.02
9157.00,1.01
9156.00,1.01
9155.00,1.00
9154.00,1.00
9153.00,0.99
9152.00,0.99
9151.00,0.99
9150.00,0.98
9149.00,0.98
9148.00,0.98
9147.00,0.98
9146.00,0.98
9145.00,0.98
9144.00,0.98
9143.00,0.97
9142.00,0.97
9141.00,0.97
9140.00,0.97
9139.00,0.97
9138.00,0.97
9137.00,0.97
9136.00,0.97
9135.00,0.97
9134.00,0.97
9133.00,0.97
9132.00,0.97
9131.00,0.97
9130.00,0.97
9129.00,0.97
9128.00,0.97
9127.00,0.96
9126.00,0.96
9125.00,0.96
9124.00,0.96
9123.00,0.95
9122.00,0.95
9121.00,0.95
9120.00,0.95
9119.00,0.94
9118.00,0.94
9117.00,0.94
9116.00,0.94
9115.00,0.94
9114.00,0.94
9113.00,0.95
9112.00,0.95
9111.00,0.95
9110.00,0.95
9109.00,0.95
9108.00,0.96
9107.00,0.96
9106.00,0.96
9105.00,0.97
9104.00,0.97
9103.00,0.97
9102.00,0.98
9101.00,0.98
9100.00,0.98
9099.00,0.99
9098.00,0.99
9097.00,0.99
9096.00,0.99
9095.00,0.98
9094.00,0.98
9093.00,0.98
9092.00,0.98
9091.00,0.97
9090.00,0.97
9089.00,0.97
9088.00,0.96
9087.00,0.96
9086.00,0.95
9085.00,0.95
9084.00,0.94
9083.00,0.94
9082.00,0.94
9081.00,0.93
9080.00,0.93
9079.00,0.92
9078.00,0.92
9077.00,0.92
9076.00,0.91
9075.00,0.91
9074.00,0.91
9073.00,0.91
9072.00,0.91
9071.00,0.90
9070.00,0.90
9069.00,0.90
9068.00,0.90
9067.00,0.90
9066.00,0.90
9065.00,0.90
9064.00,0.90
9063.00,0.90
9062.00,0.90
9061.00,0.90
9060.00,0.90
9059.00,0.90
9058.00,0.90
9057.00,0.90
9056.00,0.90
9055.00,0.90
9054.00,0.90
9053.00,0.90
9052.00,0.90
9051.00,0.90
9050.00,0.90
9049.00,0.90
9048.00,0.89
9047.00,0.89
9046.00,0.89
9045.00,0.89
9044.00,0.89
9043.00,0.89
9042.00,0.89
9041.00,0.89
9040.00,0.89
9039.00,0.89
9038.00,0.89
9037.00,0.89
9036.00,0.89
9035.00,0.89
9034.00,0.88
9033.00,0.88
9032.00,0.88
9031.00,0.87
9030.00,0.87
9029.00,0.87
9028.00,0.86
9027.00,0.86
9026.00,0.85
9025.00,0.85
9024.00,0.84
9023.00,0.84
9022.00,0.83
9021.00,0.83
9020.00,0.83
9019.00,0.82
9018.00,0.82
9017.00,0.82
9016.00,0.81
9015.00,0.81
9014.00,0.81
9013.00,0.81
9012.00,0.81
9011.00,0.81
9010.00,0.81
9009.00,0.81
9008.00,0.81
9007.00,0.81
9006.00,0.82
9005.00,0.82
9004.00,0.83
9003.00,0.83
9002.00,0.84
9001.00,0.85
9000.00,0.85
8999.00,0.86
8998.00,0.86
8997.00,0.87
8996.00,0.88
8995.00,0.89
8994.00,0.89
8993.00,0.90
8992.00,0.91
8991.00,0.92
8990.00,0.92
8989.00,0.93
8988.00,0.94
8987.00,0.95
8986.00,0.95
8985.00,0.96
8984.00,0.97
8983.00,0.98
8982.00,0.98
8981.00,0.99
8980.00,0.99
8979.00,1.00
8978.00,1.01
8977.00,1.01
8976.00,1.01
8975.00,1.02
8974.00,1.02
8973.00,1.02
8972.00,1.03
8971.00,1.03
8970.00,1.03
8969.00,1.03
8968.00,1.03
8967.00,1.03
8966.00,1.03
8965.00,1.03
8964.00,1.03
8963.00,1.03
8962.00,1.02
8961.00,1.02
8960.00,1.02
8959.00,1.02
8958.00,1.02
8957.00,1.02
8956.00,1.01
8955.00,1.01
8954.00,1.01
8953.00,1.01
8952.00,1.01
8951.00,1.00
8950.00,1.00
8949.00,1.00
8948.00,1.00
8947.00,1.00
8946.00,1.00
8945.00,1.00
8944.00,1.00
8943.00,1.00
8942.00,1.00
8941.00,1.00
8940.00,1.00
8939.00,1.00
8938.00,1.00
8937.00,1.00
8936.00,1.00
8935.00,1.00
8934.00,0.99
8933.00,0.99
8932.00,0.99
8931.00,0.99
8930.00,0.99
8929.00,0.99
8928.00,0.99
8927.00,0.98
8926.00,0.98
8925.00,0.98
8924.00,0.98
8923.00,0.98
8922.00,0.97
8921.00,0.97
8920.00,0.97
8919.00,0.97
8918.00,0.96
8917.00,0.96
8916.00,0.96
8915.00,0.96
8914.00,0.96
8913.00,0.96
8912.00,0.96
8911.00,0.96
8910.00,0.96
8909.00,0.95
8908.00,0.95
8907.00,0.95
8906.00,0.95
8905.00,0.95
8904.00,0.95
8903.00,0.95
8902.00,0.95
8901.00,0.94
8900.00,0.94
8899.00,0.94
8898.00,0.94
8897.00,0.94
8896.00,0.94
8895.00,0.94
8894.00,0.94
8893.00,0.94
8892.00,0.94
8891.00,0.93
8890.00,0.93
8889.00,0.93
8888.00,0.93
8887.00,0.93
8886.00,0.93
8885.00,0.92
8884.00,0.92
8883.00,0.92
8882.00,0.92
8881.00,0.92
8880.00,0.92
8879.00,0.92
8878.00,0.92
8877.00,0.92
8876.00,0.92
8875.00,0.92
8874.00,0.92
8873.00,0.92
8872.00,0.92
8871.00,0.92
8870.00,0.92
8869.00,0.92
8868.00,0.92
8867.00,0.92
8866.00,0.92
8865.00,0.93
8864.00,0.93
8863.00,0.93
8862.00,0.93
8861.00,0.94
8860.00,0.94
8859.00,0.94
8858.00,0.94
8857.00,0.94
8856.00,0.95
8855.00,0.95
8854.00,0.95
8853.00,0.95
8852.00,0.96
8851.00,0.96
8850.00,0.96
8849.00,0.97
8848.00,0.97
8847.00,0.97
8846.00,0.98
8845.00,0.98
8844.00,0.99
8843.00,0.99
8842.00,0.99
8841.00,1.00
8840.00,1.00
8839.00,1.01
8838.00,1.01
8837.00,1.01
8836.00,1.01
8835.00,1.01
8834.00,1.02
8833.00,1.02
8832.00,1.02
8831.00,1.02
8830.00,1.02
8829.00,1.02
8828.00,1.01
8827.00,1.01
8826.00,1.01
8825.00,1.01
8824.00,1.01
8823.00,1.00
8822.00,1.00
8821.00,1.00
8820.00,0.99
8819.00,0.99
8818.00,0.98
8817.00,0.98
8816.00,0.97
8815.00,0.97
8814.00,0.96
8813.00,0.96
8812.00,0.95
8811.00,0.95
8810.00,0.94
8809.00,0.94
8808.00,0.93
8807.00,0.93
8806.00,0.93
8805.00,0.92
8804.00,0.92
8803.00,0.92
8802.00,0.92
8801.00,0.92
8800.00,0.92
8799.00,0.92
8798.00,0.92
8797.00,0.92
8796.00,0.92
8795.00,0.92
8794.00,0.92
8793.00,0.92
8792.00,0.93
8791.00,0.93
8790.00,0.93
8789.00,0.94
8788.00,0.94
8787.00,0.95
8786.00,0.95
8785.00,0.95
8784.00,0.96
8783.00,0.96
8782.00,0.97
8781.00,0.97
8780.00,0.98
8779.00,0.98
8778.00,0.98
8777.00,0.99
8776.00,0.99
8775.00,0.99
8774.00,0.99
8773.00,0.99
8772.00,1.00
8771.00,1.00
8770.00,1.00
8769.00,1.00
8768.00,1.00
8767.00,1.00
8766.00,1.00
8765.00,1.00
8764.00,1.00
8763.00,1.00
8762.00,1.00
8761.00,0.99
8760.00,0.99
8759.00,0.99
8758.00,0.99
8757.00,0.99
8756.00,0.98
8755.00,0.98
8754.00,0.98
8753.00,0.98
8752.00,0.98
8751.00,0.97
8750.00,0.97
8749.00,0.97
8748.00,0.96
8747.00,0.96
8746.00,0.96
8745.00,0.95
8744.00,0.95
8743.00,0.95
8742.00,0.95
8741.00,0.95
8740.00,0.95
8739.00,0.95
8738.00,0.95
8737.00,0.95
8736.00,0.95
8735.00,0.95
8734.00,0.95
8733.00,0.95
8732.00,0.95
8731.00,0.95
8730.00,0.95
8729.00,0.95
8728.00,0.96
8727.00,0.96
8726.00,0.96
8725.00,0.96
8724.00,0.97
8723.00,0.97
8722.00,0.97
8721.00,0.97
8720.00,0.97
8719.00,0.98
8718.00,0.98
8717.00,0.98
8716.00,0.98
8715.00,0.98
8714.00,0.98
8713.00,0.98
8712.00,0.98
8711.00,0.98
8710.00,0.98
8709.00,0.98
8708.00,0.98
8707.00,0.98
8706.00,0.98
8705.00,0.98
8704.00,0.97
8703.00,0.97
8702.00,0.97
8701.00,0.97
8700.00,0.97
8699.00,0.96
8698.00,0.96
8697.00,0.96
8696.00,0.96
8695.00,0.96
8694.00,0.96
8693.00,0.96
8692.00,0.97
8691.00,0.97
8690.00,0.97
8689.00,0.97
8688.00,0.98
8687.00,0.98
8686.00,0.98
8685.00,0.98
8684.00,0.98
8683.00,0.99
8682.00,0.99
8681.00,0.99
8680.00,0.99
8679.00,1.00
8678.00,1.00
8677.00,1.00
8676.00,1.00
8675.00,1.01
8674.00,1.01
8673.00,1.01
8672.00,1.02
8671.00,1.02
8670.00,1.02
8669.00,1.02
8668.00,1.02
8667.00,1.02
8666.00,1.02
8665.00,1.02
8664.00,1.02
8663.00,1.02
8662.00,1.01
8661.00,1.01
8660.00,1.01
8659.00,1.01
8658.00,1.01
8657.00,1.01
8656.00,1.01
8655.00,1.01
8654.00,1.01
8653.00,1.01
8652.00,1.01
8651.00,1.01
8650.00,1.01
8649.00,1.01
8648.00,1.01
8647.00,1.01
8646.00,1.01
8645.00,1.01
8644.00,1.00
8643.00,1.00
8642.00,1.00
8641.00,1.00
8640.00,1.00
8639.00,1.00
8638.00,1.00
8637.00,1.00
8636.00,1.00
8635.00,1.00
8634.00,1.00
8633.00,1.00
8632.00,1.00
8631.00,1.00
8630.00,1.00
8629.00,1.00
8628.00,1.00
8627.00,1.00
8626.00,0.99
8625.00,0.99
8624.00,0.99
8623.00,0.99
8622.00,0.98
8621.00,0.98
8620.00,0.98
8619.00,0.98
8618.00,0.97
8617.00,0.97
8616.00,0.97
8615.00,0.97
8614.00,0.96
8613.00,0.96
8612.00,0.95
8611.00,0.95
8610.00,0.95
8609.00,0.95
8608.00,0.94
8607.00,0.94
8606.00,0.94
8605.00,0.94
8604.00,0.93
8603.00,0.93
8602.00,0.93
8601.00,0.93
8600.00,0.92
8599.00,0.92
8598.00,0.92
8597.00,0.92
8596.00,0.92
8595.00,0.92
8594.00,0.92
8593.00,0.92
8592.00,0.92
8591.00,0.92
8590.00,0.92
8589.00,0.92
8588.00,0.93
8587.00,0.93
8586.00,0.94
8585.00,0.94
8584.00,0.94
8583.00,0.95
8582.00,0.95
8581.00,0.95
8580.00,0.95
8579.00,0.96
8578.00,0.96
8577.00,0.96
8576.00,0.96
8575.00,0.96
8574.00,0.96
8573.00,0.97
8572.00,0.97
8571.00,0.97
8570.00,0.98
8569.00,0.98
8568.00,0.98
8567.00,0.98
8566.00,0.98
8565.00,0.99
8564.00,0.99
8563.00,0.99
8562.00,0.98
8561.00,0.98
8560.00,0.98
8559.00,0.98
8558.00,0.98
8557.00,0.98
8556.00,0.97
8555.00,0.97
8554.00,0.97
8553.00,0.97
8552.00,0.97
8551.00,0.97
8550.00,0.98
8549.00,0.98
8548.00,0.98
8547.00,0.98
8546.00,0.98
8545.00,0.98
8544.00,0.98
8543.00,0.98
8542.00,0.98
8541.00,0.98
8540.00,0.98
8539.00,0.98
8538.00,0.98
8537.00,0.98
8536.00,0.98
8535.00,0.98
8534.00,0.99
8533.00,0.99
8532.00,0.99
8531.00,0.99
8530.00,0.99
8529.00,1.00
8528.00,1.00
8527.00,1.00
8526.00,1.00
8525.00,1.00
8524.00,1.00
8523.00,1.00
8522.00,1.00
8521.00,1.00
8520.00,1.00
8519.00,1.00
8518.00,1.00
8517.00,1.00
8516.00,1.00
8515.00,1.00
8514.00,1.00
8513.00,1.00
8512.00,1.00
8511.00,1.00
8510.00,1.00
8509.00,1.00
8508.00,1.00
8507.00,1.00
8506.00,0.99
8505.00,0.99
8504.00,0.99
8503.00,0.99
8502.00,0.99
8501.00,0.99
8500.00,0.99
8499.00,0.99
8498.00,0.99
8497.00,0.99
8496.00,0.98
8495.00,0.98
8494.00,0.98
8493.00,0.98
8492.00,0.98
8491.00,0.98
8490.00,0.98
8489.00,0.98
8488.00,0.98
8487.00,0.98
8486.00,0.97
8485.00,0.97
8484.00,0.97
8483.00,0.97
8482.00,0.97
8481.00,0.96
8480.00,0.96
8479.00,0.96
8478.00,0.95
8477.00,0.95
8476.00,0.94
8475.00,0.94
8474.00,0.93
8473.00,0.93
8472.00,0.92
8471.00,0.92
8470.00,0.91
8469.00,0.91
8468.00,0.90
8467.00,0.90
8466.00,0.90
8465.00,0.89
8464.00,0.89
8463.00,0.89
8462.00,0.88
8461.00,0.88
8460.00,0.88
8459.00,0.88
8458.00,0.88
8457.00,0.88
8456.00,0.88
8455.00,0.88
8454.00,0.89
8453.00,0.89
8452.00,0.89
8451.00,0.90
8450.00,0.91
8449.00,0.91
8448.00,0.92
8447.00,0.92
8446.00,0.93
8445.00,0.94
8444.00,0.95
8443.00,0.95
8442.00,0.96
8441.00,0.97
8440.00,0.98
8439.00,0.98
8438.00,0.99
8437.00,1.00
8436.00,1.00
8435.00,1.01
8434.00,1.02
8433.00,1.02
8432.00,1.03
8431.00,1.04
8430.00,1.04
8429.00,1.05
8428.00,1.05
8427.00,1.05
8426.00,1.05
8425.00,1.06
8424.00,1.06
8423.00,1.06
8422.00,1.05
8421.00,1.05
8420.00,1.05
8419.00,1.05
8418.00,1.04
8417.00,1.04
8416.00,1.04
8415.00,1.03
8414.00,1.03
8413.00,1.03
8412.00,1.02
8411.00,1.02
8410.00,1.01
8409.00,1.01
8408.00,1.00
8407.00,1.00
8406.00,0.99
8405.00,0.99
8404.00,0.98
8403.00,0.98
8402.00,0.98
8401.00,0.97
8400.00,0.97
8399.00,0.97
8398.00,0.96
8397.00,0.96
8396.00,0.96
8395.00,0.96
8394.00,0.95
8393.00,0.95
8392.00,0.95
8391.00,0.95
8390.00,0.95
8389.00,0.95
8388.00,0.95
8387.00,0.94
8386.00,0.95
8385.00,0.95
8384.00,0.95
8383.00,0.95
8382.00,0.95
8381.00,0.95
8380.00,0.95
8379.00,0.96
8378.00,0.96
8377.00,0.96
8376.00,0.96
8375.00,0.96
8374.00,0.97
8373.00,0.97
8372.00,0.97
8371.00,0.98
8370.00,0.98
8369.00,0.99
8368.00,0.99
8367.00,1.00
8366.00,1.00
8365.00,1.01
8364.00,1.01
8363.00,1.02
8362.00,1.02
8361.00,1.03
8360.00,1.03
8359.00,1.04
8358.00,1.04
8357.00,1.04
8356.00,1.05
8355.00,1.05
8354.00,1.05
8353.00,1.06
8352.00,1.06
8351.00,1.06
8350.00,1.06
8349.00,1.06
8348.00,1.06
8347.00,1.07
8346.00,1.07
8345.00,1.06
8344.00,1.06
8343.00,1.06
8342.00,1.06
8341.00,1.06
8340.00,1.06
8339.00,1.06
8338.00,1.06
8337.00,1.05
8336.00,1.05
8335.00,1.05
8334.00,1.05
8333.00,1.05
8332.00,1.04
8331.00,1.04
8330.00,1.04
8329.00,1.03
8328.00,1.03
8327.00,1.03
8326.00,1.02
8325.00,1.02
8324.00,1.02
8323.00,1.01
8322.00,1.01
8321.00,1.01
8320.00,1.00
8319.00,1.00
8318.00,1.00
8317.00,0.99
8316.00,0.99
8315.00,0.99
8314.00,0.99
8313.00,0.98
8312.00,0.98
8311.00,0.98
8310.00,0.97
8309.00,0.97
8308.00,0.97
8307.00,0.96
8306.00,0.96
8305.00,0.96
8304.00,0.96
8303.00,0.96
8302.00,0.96
8301.00,0.96
8300.00,0.96
8299.00,0.96
8298.00,0.96
8297.00,0.96
8296.00,0.96
8295.00,0.96
8294.00,0.96
8293.00,0.96
8292.00,0.96
8291.00,0.96
8290.00,0.96
8289.00,0.96
8288.00,0.96
8287.00,0.96
8286.00,0.96
8285.00,0.96
8284.00,0.96
8283.00,0.96
8282.00,0.96
8281.00,0.97
8280.00,0.97
8279.00,0.97
8278.00,0.97
8277.00,0.97
8276.00,0.97
8275.00,0.97
8274.00,0.97
8273.00,0.97
8272.00,0.97
8271.00,0.98
8270.00,0.98
8269.00,0.98
8268.00,0.98
8267.00,0.98
8266.00,0.99
8265.00,0.99
8264.00,0.99
8263.00,0.99
8262.00,1.00
8261.00,1.00
8260.00,1.00
8259.00,1.00
8258.00,1.00
8257.00,1.01
8256.00,1.01
8255.00,1.01
8254.00,1.01
8253.00,1.01
8252.00,1.01
8251.00,1.01
8250.00,1.01
8249.00,1.01
8248.00,1.00
8247.00,1.00
8246.00,1.00
8245.00,1.00
8244.00,1.00
8243.00,1.00
8242.00,1.00
8241.00,1.00
8240.00,0.99
8239.00,0.99
8238.00,0.99
8237.00,0.99
8236.00,0.99
8235.00,0.99
8234.00,0.98
8233.00,0.98
8232.00,0.98
8231.00,0.98
8230.00,0.98
8229.00,0.98
8228.00,0.98
8227.00,0.98
8226.00,0.98
8225.00,0.98
8224.00,0.99
8223.00,0.99
8222.00,0.99
8221.00,0.99
8220.00,0.99
8219.00,1.00
8218.00,1.00
8217.00,1.00
8216.00,1.00
8215.00,1.00
8214.00,1.00
8213.00,1.01
8212.00,1.01
8211.00,1.01
8210.00,1.01
8209.00,1.01
8208.00,1.01
8207.00,1.02
8206.00,1.02
8205.00,1.02
8204.00,1.02
8203.00,1.02
8202.00,1.02
8201.00,1.02
8200.00,1.03
8199.00,1.03
8198.00,1.03
8197.00,1.03
8196.00,1.03
8195.00,1.03
8194.00,1.03
8193.00,1.03
8192.00,1.03
8191.00,1.03
8190.00,1.03
8189.00,1.03
8188.00,1.03
8187.00,1.03
8186.00,1.03
8185.00,1.04
8184.00,1.04
8183.00,1.04
8182.00,1.04
8181.00,1.05
8180.00,1.05
8179.00,1.05
8178.00,1.05
8177.00,1.05
8176.00,1.05
8175.00,1.06
8174.00,1.06
8173.00,1.06
8172.00,1.06
8171.00,1.07
8170.00,1.07
8169.00,1.07
8168.00,1.07
8167.00,1.07
8166.00,1.07
8165.00,1.07
8164.00,1.07
8163.00,1.07
8162.00,1.06
8161.00,1.06
8160.00,1.06
8159.00,1.05
8158.00,1.05
8157.00,1.05
8156.00,1.04
8155.00,1.04
8154.00,1.03
8153.00,1.03
8152.00,1.03
8151.00,1.02
8150.00,1.02
8149.00,1.01
8148.00,1.01
8147.00,1.00
8146.00,1.00
8145.00,0.99
8144.00,0.99
8143.00,0.99
8142.00,0.98
8141.00,0.98
8140.00,0.98
8139.00,0.97
8138.00,0.97
8137.00,0.97
8136.00,0.97
8135.00,0.97
8134.00,0.97
8133.00,0.97
8132.00,0.97
8131.00,0.97
8130.00,0.96
8129.00,0.96
8128.00,0.96
8127.00,0.96
8126.00,0.96
8125.00,0.96
8124.00,0.96
8123.00,0.96
8122.00,0.95
8121.00,0.95
8120.00,0.95
8119.00,0.95
8118.00,0.95
8117.00,0.95
8116.00,0.95
8115.00,0.95
8114.00,0.95
8113.00,0.95
8112.00,0.95
8111.00,0.95
8110.00,0.95
8109.00,0.95
8108.00,0.95
8107.00,0.95
8106.00,0.95
8105.00,0.95
8104.00,0.95
8103.00,0.95
8102.00,0.94
8101.00,0.94
8100.00,0.94
8099.00,0.94
8098.00,0.94
8097.00,0.94
8096.00,0.94
8095.00,0.93
8094.00,0.93
8093.00,0.93
8092.00,0.93
8091.00,0.93
8090.00,0.93
8089.00,0.92
8088.00,0.92
8087.00,0.92
8086.00,0.92
8085.00,0.92
8084.00,0.92
8083.00,0.91
8082.00,0.91
8081.00,0.91
8080.00,0.91
8079.00,0.91
8078.00,0.91
8077.00,0.92
8076.00,0.92
8075.00,0.92
8074.00,0.92
8073.00,0.93
8072.00,0.93
8071.00,0.93
8070.00,0.94
8069.00,0.94
8068.00,0.94
8067.00,0.95
8066.00,0.95
8065.00,0.96
8064.00,0.96
8063.00,0.97
8062.00,0.97
8061.00,0.97
8060.00,0.98
8059.00,0.98
8058.00,0.98
8057.00,0.99
8056.00,0.99
8055.00,0.99
8054.00,0.99
8053.00,0.99
8052.00,0.99
8051.00,1.00
8050.00,1.00
8049.00,1.00
8048.00,1.00
8047.00,1.00
8046.00,1.00
8045.00,1.00
8044.00,1.00
8043.00,1.00
8042.00,1.00
8041.00,1.00
8040.00,1.01
8039.00,1.01
8038.00,1.01
8037.00,1.01
8036.00,1.01
8035.00,1.01
8034.00,1.01
8033.00,1.01
8032.00,1.01
8031.00,1.01
8030.00,1.01
8029.00,1.02
8028.00,1.02
8027.00,1.02
8026.00,1.02
8025.00,1.03
8024.00,1.03
8023.00,1.03
8022.00,1.03
8021.00,1.03
8020.00,1.03
8019.00,1.04
8018.00,1.04
8017.00,1.04
8016.00,1.04
8015.00,1.04
8014.00,1.04
8013.00,1.04
8012.00,1.04
8011.00,1.04
8010.00,1.04
8009.00,1.04
8008.00,1.04
8007.00,1.04
8006.00,1.03
8005.00,1.03
8004.00,1.03
8003.00,1.03
8002.00,1.03
8001.00,1.03
8000.00,1.03
7999.00,1.03
7998.00,1.02
7997.00,1.02
7996.00,1.02
7995.00,1.02
7994.00,1.02
7993.00,1.01
7992.00,1.01
7991.00,1.01
7990.00,1.01
7989.00,1.01
7988.00,1.01
7987.00,1.01
7986.00,1.00
7985.00,1.00
7984.00,1.00
7983.00,1.00
7982.00,1.00
7981.00,1.00
7980.00,1.00
7979.00,1.00
7978.00,1.00
7977.00,1.00
7976.00,0.99
7975.00,0.99
7974.00,0.99
7973.00,0.99
7972.00,0.99
7971.00,0.99
7970.00,0.99
7969.00,0.99
7968.00,0.98
7967.00,0.98
7966.00,0.98
7965.00,0.98
7964.00,0.98
7963.00,0.98
7962.00,0.98
7961.00,0.98
7960.00,0.98
7959.00,0.98
7958.00,0.98
7957.00,0.98
7956.00,0.98
7955.00,0.98
7954.00,0.98
7953.00,0.98
7952.00,0.98
7951.00,0.98
7950.00,0.98
7949.00,0.99
7948.00,0.99
7947.00,0.99
7946.00,0.99
7945.00,0.99
7944.00,1.00
7943.00,1.00
7942.00,1.00
7941.00,1.00
7940.00,1.00
7939.00,1.00
7938.00,1.01
7937.00,1.01
7936.00,1.01
7935.00,1.01
7934.00,1.01
7933.00,1.01
7932.00,1.01
7931.00,1.01
7930.00,1.01
7929.00,1.01
7928.00,1.01
7927.00,1.01
7926.00,1.01
7925.00,1.02
7924.00,1.02
7923.00,1.02
7922.00,1.02
7921.00,1.02
7920.00,1.02
7919.00,1.02
7918.00,1.02
7917.00,1.02
7916.00,1.02
7915.00,1.02
7914.00,1.02
7913.00,1.02
7912.00,1.02
7911.00,1.02
7910.00,1.02
7909.00,1.02
7908.00,1.02
7907.00,1.03
7906.00,1.03
7905.00,1.03
7904.00,1.03
7903.00,1.03
7902.00,1.03
7901.00,1.03
7900.00,1.04
7899.00,1.04
7898.00,1.04
7897.00,1.04
7896.00,1.04
7895.00,1.04
7894.00,1.04
7893.00,1.04
7892.00,1.04
7891.00,1.04
7890.00,1.04
7889.00,1.04
7888.00,1.04
7887.00,1.04
7886.00,1.04
7885.00,1.04
7884.00,1.05
7883.00,1.05
7882.00,1.05
7881.00,1.05
7880.00,1.05
7879.00,1.05
7878.00,1.05
7877.00,1.05
7876.00,1.04
7875.00,1.04
7874.00,1.04
7873.00,1.04
7872.00,1.04
7871.00,1.04
7870.00,1.04
7869.00,1.04
7868.00,1.04
7867.00,1.04
7866.00,1.04
7865.00,1.04
7864.00,1.05
7863.00,1.05
7862.00,1.05
7861.00,1.05
7860.00,1.05
7859.00,1.05
7858.00,1.05
7857.00,1.05
7856.00,1.05
7855.00,1.05
7854.00,1.05
7853.00,1.05
7852.00,1.05
7851.00,1.05
7850.00,1.05
7849.00,1.05
7848.00,1.05
7847.00,1.05
7846.00,1.05
7845.00,1.05
7844.00,1.05
7843.00,1.05
7842.00,1.05
7841.00,1.05
7840.00,1.05
7839.00,1.04
7838.00,1.04
7837.00,1.04
7836.00,1.04
7835.00,1.04
7834.00,1.04
7833.00,1.04
7832.00,1.04
7831.00,1.04
7830.00,1.04
7829.00,1.04
7828.00,1.03
7827.00,1.03
7826.00,1.03
7825.00,1.03
7824.00,1.03
7823.00,1.03
7822.00,1.03
7821.00,1.03
7820.00,1.03
7819.00,1.02
7818.00,1.02
7817.00,1.02
7816.00,1.02
7815.00,1.02
7814.00,1.01
7813.00,1.01
7812.00,1.01
7811.00,1.00
7810.00,1.00
7809.00,1.00
7808.00,1.00
7807.00,1.00
7806.00,0.99
7805.00,0.99
7804.00,0.99
7803.00,0.99
7802.00,0.99
7801.00,0.99
7800.00,0.99
7799.00,0.99
7798.00,0.98
7797.00,0.98
7796.00,0.98
7795.00,0.98
7794.00,0.98
7793.00,0.98
7792.00,0.98
7791.00,0.98
7790.00,0.98
7789.00,0.98
7788.00,0.98
7787.00,0.98
7786.00,0.98
7785.00,0.98
7784.00,0.98
7783.00,0.98
7782.00,0.98
7781.00,0.98
7780.00,0.98
7779.00,0.98
7778.00,0.98
7777.00,0.98
7776.00,0.98
7775.00,0.98
7774.00,0.98
7773.00,0.98
7772.00,0.98
7771.00,0.98
7770.00,0.98
7769.00,0.98
7768.00,0.98
7767.00,0.98
7766.00,0.98
7765.00,0.97
7764.00,0.97
7763.00,0.97
7762.00,0.97
7761.00,0.97
7760.00,0.97
7759.00,0.98
7758.00,0.98
7757.00,0.98
7756.00,0.98
7755.00,0.98
7754.00,0.98
7753.00,0.98
7752.00,0.98
7751.00,0.99
7750.00,0.99
7749.00,0.99
7748.00,0.99
7747.00,0.99
7746.00,1.00
7745.00,1.00
7744.00,1.00
7743.00,1.00
7742.00,1.00
7741.00,1.01
7740.00,1.01
7739.00,1.01
7738.00,1.01
7737.00,1.01
7736.00,1.02
7735.00,1.02
7734.00,1.02
7733.00,1.02
7732.00,1.02
7731.00,1.02
7730.00,1.03
7729.00,1.03
7728.00,1.03
7727.00,1.03
7726.00,1.03
7725.00,1.04
7724.00,1.04
7723.00,1.04
7722.00,1.04
7721.00,1.04
7720.00,1.05
7719.00,1.05
7718.00,1.05
7717.00,1.05
7716.00,1.05
7715.00,1.05
7714.00,1.05
7713.00,1.05
7712.00,1.06
7711.00,1.06
7710.00,1.06
7709.00,1.06
7708.00,1.06
7707.00,1.06
7706.00,1.06
7705.00,1.06
7704.00,1.07
7703.00,1.07
7702.00,1.07
7701.00,1.07
7700.00,1.07
7699.00,1.06
7698.00,1.06
7697.00,1.06
7696.00,1.06
7695.00,1.06
7694.00,1.06
7693.00,1.06
7692.00,1.06
7691.00,1.05
7690.00,1.05
7689.00,1.05
7688.00,1.05
7687.00,1.05
7686.00,1.05
7685.00,1.04
7684.00,1.04
7683.00,1.04
7682.00,1.04
7681.00,1.04
7680.00,1.04
7679.00,1.03
7678.00,1.03
7677.00,1.03
7676.00,1.03
7675.00,1.02
7674.00,1.02
7673.00,1.02
7672.00,1.02
7671.00,1.02
7670.00,1.01
7669.00,1.01
7668.00,1.01
7667.00,1.01
7666.00,1.01
7665.00,1.01
7664.00,1.01
7663.00,1.01
7662.00,1.01
7661.00,1.01
7660.00,1.01
7659.00,1.01
7658.00,1.01
7657.00,1.00
7656.00,1.00
7655.00,1.00
7654.00,1.00
7653.00,1.00
7652.00,1.00
7651.00,1.00
7650.00,1.00
7649.00,1.00
7648.00,1.00
7647.00,1.00
7646.00,1.00
7645.00,1.00
7644.00,1.00
7643.00,1.00
7642.00,1.00
7641.00,1.00
7640.00,1.00
7639.00,1.00
7638.00,1.00
7637.00,1.00
7636.00,1.00
7635.00,1.00
7634.00,1.01
7633.00,1.01
7632.00,1.01
7631.00,1.01
7630.00,1.01
7629.00,1.01
7628.00,1.01
7627.00,1.01
7626.00,1.01
7625.00,1.01
7624.00,1.01
7623.00,1.01
7622.00,1.01
7621.00,1.01
7620.00,1.01
7619.00,1.01
7618.00,1.01
7617.00,1.01
7616.00,1.01
7615.00,1.01
7614.00,1.01
7613.00,1.01
7612.00,1.01
7611.00,1.01
7610.00,1.01
7609.00,1.01
7608.00,1.01
7607.00,1.01
7606.00,1.01
7605.00,1.01
7604.00,1.01
7603.00,1.02
7602.00,1.02
7601.00,1.02
7600.00,1.02
7599.00,1.02
7598.00,1.03
7597.00,1.03
7596.00,1.03
7595.00,1.04
7594.00,1.04
7593.00,1.05
7592.00,1.05
7591.00,1.05
7590.00,1.06
7589.00,1.06
7588.00,1.07
7587.00,1.07
7586.00,1.07
7585.00,1.08
7584.00,1.08
7583.00,1.08
7582.00,1.09
7581.00,1.09
7580.00,1.09
7579.00,1.09
7578.00,1.10
7577.00,1.10
7576.00,1.10
7575.00,1.10
7574.00,1.10
7573.00,1.10
7572.00,1.10
7571.00,1.10
7570.00,1.10
7569.00,1.10
7568.00,1.10
7567.00,1.10
7566.00,1.10
7565.00,1.10
7564.00,1.09
7563.00,1.09
7562.00,1.09
7561.00,1.09
7560.00,1.08
7559.00,1.08
7558.00,1.08
7557.00,1.07
7556.00,1.07
7555.00,1.07
7554.00,1.06
7553.00,1.06
7552.00,1.06
7551.00,1.06
7550.00,1.05
7549.00,1.05
7548.00,1.05
7547.00,1.05
7546.00,1.05
7545.00,1.05
7544.00,1.05
7543.00,1.05
7542.00,1.05
7541.00,1.05
7540.00,1.05
7539.00,1.05
7538.00,1.05
7537.00,1.05
7536.00,1.05
7535.00,1.06
7534.00,1.06
7533.00,1.06
7532.00,1.06
7531.00,1.07
7530.00,1.07
7529.00,1.07
7528.00,1.08
7527.00,1.08
7526.00,1.08
7525.00,1.09
7524.00,1.09
7523.00,1.09
7522.00,1.09
7521.00,1.09
7520.00,1.09
7519.00,1.09
7518.00,1.09
7517.00,1.09
7516.00,1.09
7515.00,1.09
7514.00,1.09
7513.00,1.09
7512.00,1.09
7511.00,1.08
7510.00,1.08
7509.00,1.08
7508.00,1.07
7507.00,1.07
7506.00,1.06
7505.00,1.06
7504.00,1.05
7503.00,1.05
7502.00,1.04
7501.00,1.04
7500.00,1.03
7499.00,1.03
7498.00,1.02
7497.00,1.02
7496.00,1.02
7495.00,1.01
7494.00,1.01
7493.00,1.01
7492.00,1.01
7491.00,1.00
7490.00,1.00
7489.00,1.00
7488.00,1.00
7487.00,1.00
7486.00,1.01
7485.00,1.01
7484.00,1.01
7483.00,1.01
7482.00,1.02
7481.00,1.02
7480.00,1.02
7479.00,1.03
7478.00,1.03
7477.00,1.03
7476.00,1.04
7475.00,1.04
7474.00,1.05
7473.00,1.05
7472.00,1.06
7471.00,1.06
7470.00,1.06
7469.00,1.07
7468.00,1.07
7467.00,1.07
7466.00,1.08
7465.00,1.08
7464.00,1.08
7463.00,1.08
7462.00,1.08
7461.00,1.08
7460.00,1.09
7459.00,1.09
7458.00,1.09
7457.00,1.09
7456.00,1.09
7455.00,1.09
7454.00,1.08
7453.00,1.08
7452.00,1.08
7451.00,1.08
7450.00,1.08
7449.00,1.08
7448.00,1.08
7447.00,1.08
7446.00,1.08
7445.00,1.08
7444.00,1.08
7443.00,1.08
7442.00,1.07
7441.00,1.07
7440.00,1.07
7439.00,1.07
7438.00,1.07
7437.00,1.07
7436.00,1.07
7435.00,1.07
7434.00,1.07
7433.00,1.07
7432.00,1.07
7431.00,1.07
7430.00,1.07
7429.00,1.07
7428.00,1.07
7427.00,1.07
7426.00,1.07
7425.00,1.07
7424.00,1.07
7423.00,1.07
7422.00,1.07
7421.00,1.07
7420.00,1.07
7419.00,1.06
7418.00,1.06
7417.00,1.06
7416.00,1.06
7415.00,1.06
7414.00,1.06
7413.00,1.05
7412.00,1.05
7411.00,1.05
7410.00,1.04
7409.00,1.04
7408.00,1.04
7407.00,1.04
7406.00,1.03
7405.00,1.03
7404.00,1.03
7403.00,1.02
7402.00,1.02
7401.00,1.02
7400.00,1.01
7399.00,1.01
7398.00,1.01
7397.00,1.00
7396.00,1.00
7395.00,1.00
7394.00,1.00
7393.00,1.00
7392.00,0.99
7391.00,0.99
7390.00,0.99
7389.00,0.99
7388.00,0.99
7387.00,0.99
7386.00,0.99
7385.00,0.99
7384.00,1.00
7383.00,1.00
7382.00,1.00
7381.00,1.00
7380.00,1.00
7379.00,1.01
7378.00,1.01
7377.00,1.01
7376.00,1.02
7375.00,1.02
7374.00,1.02
7373.00,1.03
7372.00,1.03
7371.00,1.03
7370.00,1.04
7369.00,1.04
7368.00,1.05
7367.00,1.05
7366.00,1.05
7365.00,1.05
7364.00,1.06
7363.00,1.06
7362.00,1.06
7361.00,1.06
7360.00,1.06
7359.00,1.07
7358.00,1.07
7357.00,1.07
7356.00,1.07
7355.00,1.07
7354.00,1.08
7353.00,1.08
7352.00,1.08
7351.00,1.08
7350.00,1.08
7349.00,1.08
7348.00,1.08
7347.00,1.09
7346.00,1.09
7345.00,1.09
7344.00,1.09
7343.00,1.09
7342.00,1.10
7341.00,1.10
7340.00,1.10
7339.00,1.10
7338.00,1.10
7337.00,1.10
7336.00,1.10
7335.00,1.10
7334.00,1.11
7333.00,1.11
7332.00,1.11
7331.00,1.11
7330.00,1.11
7329.00,1.11
7328.00,1.11
7327.00,1.11
7326.00,1.11
7325.00,1.11
7324.00,1.10
7323.00,1.10
7322.00,1.10
7321.00,1.10
7320.00,1.10
7319.00,1.09
7318.00,1.09
7317.00,1.09
7316.00,1.09
7315.00,1.08
7314.00,1.08
7313.00,1.08
7312.00,1.07
7311.00,1.07
7310.00,1.07
7309.00,1.07
7308.00,1.06
7307.00,1.06
7306.00,1.06
7305.00,1.06
7304.00,1.05
7303.00,1.05
7302.00,1.05
7301.00,1.05
7300.00,1.04
7299.00,1.04
7298.00,1.04
7297.00,1.04
7296.00,1.04
7295.00,1.04
7294.00,1.03
7293.00,1.03
7292.00,1.03
7291.00,1.03
7290.00,1.03
7289.00,1.03
7288.00,1.03
7287.00,1.03
7286.00,1.03
7285.00,1.03
7284.00,1.03
7283.00,1.04
7282.00,1.04
7281.00,1.04
7280.00,1.04
7279.00,1.04
7278.00,1.04
7277.00,1.04
7276.00,1.04
7275.00,1.04
7274.00,1.04
7273.00,1.05
7272.00,1.05
7271.00,1.05
7270.00,1.05
7269.00,1.05
7268.00,1.05
7267.00,1.05
7266.00,1.06
7265.00,1.06
7264.00,1.06
7263.00,1.06
7262.00,1.06
7261.00,1.06
7260.00,1.06
7259.00,1.06
7258.00,1.07
7257.00,1.07
7256.00,1.07
7255.00,1.07
7254.00,1.07
7253.00,1.07
7252.00,1.07
7251.00,1.07
7250.00,1.08
7249.00,1.08
7248.00,1.08
7247.00,1.08
7246.00,1.08
7245.00,1.08
7244.00,1.08
7243.00,1.08
7242.00,1.09
7241.00,1.09
7240.00,1.09
7239.00,1.09
7238.00,1.09
7237.00,1.09
7236.00,1.09
7235.00,1.08
7234.00,1.08
7233.00,1.08
7232.00,1.08
7231.00,1.08
7230.00,1.07
7229.00,1.07
7228.00,1.07
7227.00,1.06
7226.00,1.06
7225.00,1.06
7224.00,1.05
7223.00,1.05
7222.00,1.04
7221.00,1.04
7220.00,1.04
7219.00,1.03
7218.00,1.03
7217.00,1.02
7216.00,1.02
7215.00,1.02
7214.00,1.01
7213.00,1.01
7212.00,1.00
7211.00,1.00
7210.00,1.00
7209.00,1.00
7208.00,1.00
7207.00,0.99
7206.00,0.99
7205.00,0.99
7204.00,0.99
7203.00,0.99
7202.00,0.99
7201.00,1.00
7200.00,1.00
7199.00,1.00
7198.00,1.00
7197.00,1.00
7196.00,1.00
7195.00,1.00
7194.00,1.00
7193.00,1.00
7192.00,1.00
7191.00,1.00
7190.00,1.00
7189.00,1.00
7188.00,1.00
7187.00,1.00
7186.00,1.00
7185.00,1.00
7184.00,1.00
7183.00,1.00
7182.00,1.00
7181.00,1.00
7180.00,1.00
7179.00,1.00
7178.00,1.00
7177.00,1.00
7176.00,1.00
7175.00,1.00
7174.00,1.00
7173.00,1.00
7172.00,1.00
7171.00,1.00
7170.00,1.00
7169.00,1.00
7168.00,1.00
7167.00,1.01
7166.00,1.01
7165.00,1.01
7164.00,1.01
7163.00,1.01
7162.00,1.01
7161.00,1.02
7160.00,1.02
7159.00,1.02
7158.00,1.02
7157.00,1.02
7156.00,1.02
7155.00,1.02
7154.00,1.02
7153.00,1.02
7152.00,1.02
7151.00,1.02
7150.00,1.02
7149.00,1.02
7148.00,1.02
7147.00,1.02
7146.00,1.02
7145.00,1.02
7144.00,1.02
7143.00,1.02
7142.00,1.02
7141.00,1.01
7140.00,1.01
7139.00,1.01
7138.00,1.01
7137.00,1.01
7136.00,1.01
7135.00,1.01
7134.00,1.01
7133.00,1.01
7132.00,1.01
7131.00,1.01
7130.00,1.01
7129.00,1.01
7128.00,1.01
7127.00,1.00
7126.00,1.00
7125.00,1.00
7124.00,1.00
7123.00,1.00
7122.00,1.00
7121.00,1.00
7120.00,1.00
7119.00,0.99
7118.00,0.99
7117.00,0.99
7116.00,0.99
7115.00,0.99
7114.00,0.99
7113.00,0.98
7112.00,0.98
7111.00,0.98
7110.00,0.97
7109.00,0.97
7108.00,0.97
7107.00,0.96
7106.00,0.96
7105.00,0.96
7104.00,0.95
7103.00,0.95
7102.00,0.95
7101.00,0.95
7100.00,0.95
7099.00,0.95
7098.00,0.94
7097.00,0.94
7096.00,0.94
7095.00,0.94
7094.00,0.94
7093.00,0.94
7092.00,0.93
7091.00,0.93
7090.00,0.93
7089.00,0.93
7088.00,0.93
7087.00,0.93
7086.00,0.93
7085.00,0.93
7084.00,0.93
7083.00,0.93
7082.00,0.93
7081.00,0.93
7080.00,0.93
7079.00,0.93
7078.00,0.93
7077.00,0.93
7076.00,0.93
7075.00,0.93
7074.00,0.93
7073.00,0.93
7072.00,0.93
7071.00,0.93
7070.00,0.93
7069.00,0.93
7068.00,0.93
7067.00,0.94
7066.00,0.94
7065.00,0.94
7064.00,0.94
7063.00,0.94
7062.00,0.94
7061.00,0.94
7060.00,0.94
7059.00,0.94
7058.00,0.94
7057.00,0.94
7056.00,0.94
7055.00,0.94
7054.00,0.94
7053.00,0.94
7052.00,0.94
7051.00,0.94
7050.00,0.94
7049.00,0.94
7048.00,0.94
7047.00,0.94
7046.00,0.93
7045.00,0.93
7044.00,0.93
7043.00,0.93
7042.00,0.93
7041.00,0.93
7040.00,0.92
7039.00,0.92
7038.00,0.92
7037.00,0.92
7036.00,0.92
7035.00,0.92
7034.00,0.91
7033.00,0.91
7032.00,0.91
7031.00,0.91
7030.00,0.92
7029.00,0.92
7028.00,0.92
7027.00,0.92
7026.00,0.92
7025.00,0.92
7024.00,0.92
7023.00,0.92
7022.00,0.92
7021.00,0.92
7020.00,0.93
7019.00,0.93
7018.00,0.93
7017.00,0.93
7016.00,0.93
7015.00,0.94
7014.00,0.94
7013.00,0.94
7012.00,0.95
7011.00,0.95
7010.00,0.95
7009.00,0.95
7008.00,0.96
7007.00,0.96
7006.00,0.96
7005.00,0.96
7004.00,0.96
7003.00,0.97
7002.00,0.97
7001.00,0.97
7000.00,0.97
6999.00,0.97
6998.00,0.97
6997.00,0.97
6996.00,0.97
6995.00,0.97
6994.00,0.97
6993.00,0.97
6992.00,0.97
6991.00,0.97
6990.00,0.97
6989.00,0.97
6988.00,0.97
6987.00,0.96
6986.00,0.96
6985.00,0.96
6984.00,0.96
6983.00,0.95
6982.00,0.95
6981.00,0.95
6980.00,0.95
6979.00,0.94
6978.00,0.94
6977.00,0.94
6976.00,0.94
6975.00,0.93
6974.00,0.93
6973.00,0.93
6972.00,0.93
6971.00,0.93
6970.00,0.92
6969.00,0.92
6968.00,0.92
6967.00,0.92
6966.00,0.92
6965.00,0.92
6964.00,0.92
6963.00,0.92
6962.00,0.92
6961.00,0.92
6960.00,0.92
6959.00,0.92
6958.00,0.92
6957.00,0.92
6956.00,0.92
6955.00,0.92
6954.00,0.92
6953.00,0.92
6952.00,0.92
6951.00,0.93
6950.00,0.93
6949.00,0.93
6948.00,0.93
6947.00,0.93
6946.00,0.93
6945.00,0.93
6944.00,0.93
6943.00,0.93
6942.00,0.93
6941.00,0.93
6940.00,0.93
6939.00,0.93
6938.00,0.93
6937.00,0.93
6936.00,0.93
6935.00,0.93
6934.00,0.93
6933.00,0.93
6932.00,0.93
6931.00,0.93
6930.00,0.92
6929.00,0.92
6928.00,0.92
6927.00,0.92
6926.00,0.92
6925.00,0.92
6924.00,0.92
6923.00,0.92
6922.00,0.92
6921.00,0.92
6920.00,0.92
6919.00,0.92
6918.00,0.92
6917.00,0.92
6916.00,0.92
6915.00,0.92
6914.00,0.92
6913.00,0.92
6912.00,0.92
6911.00,0.92
6910.00,0.92
6909.00,0.92
6908.00,0.92
6907.00,0.92
6906.00,0.92
6905.00,0.92
6904.00,0.92
6903.00,0.92
6902.00,0.92
6901.00,0.92
6900.00,0.92
6899.00,0.92
6898.00,0.92
6897.00,0.92
6896.00,0.92
6895.00,0.92
6894.00,0.92
6893.00,0.92
6892.00,0.92
6891.00,0.92
6890.00,0.92
6889.00,0.91
6888.00,0.91
6887.00,0.91
6886.00,0.91
6885.00,0.91
6884.00,0.91
6883.00,0.91
6882.00,0.91
6881.00,0.91
6880.00,0.92
6879.00,0.92
6878.00,0.92
6877.00,0.92
6876.00,0.92
6875.00,0.92
6874.00,0.92
6873.00,0.92
6872.00,0.92
6871.00,0.92
6870.00,0.92
6869.00,0.92
6868.00,0.92
6867.00,0.92
6866.00,0.92
6865.00,0.92
6864.00,0.92
6863.00,0.92
6862.00,0.92
6861.00,0.92
6860.00,0.92
6859.00,0.92
6858.00,0.92
6857.00,0.92
6856.00,0.93
6855.00,0.93
6854.00,0.93
6853.00,0.93
6852.00,0.93
6851.00,0.93
6850.00,0.93
6849.00,0.93
6848.00,0.94
6847.00,0.94
6846.00,0.94
6845.00,0.94
6844.00,0.94
6843.00,0.95
6842.00,0.95
6841.00,0.95
6840.00,0.95
6839.00,0.95
6838.00,0.95
6837.00,0.95
6836.00,0.96
6835.00,0.96
6834.00,0.96
6833.00,0.96
6832.00,0.96
6831.00,0.96
6830.00,0.96
6829.00,0.96
6828.00,0.96
6827.00,0.96
6826.00,0.96
6825.00,0.96
6824.00,0.95
6823.00,0.95
6822.00,0.95
6821.00,0.95
6820.00,0.95
6819.00,0.95
6818.00,0.95
6817.00,0.94
6816.00,0.94
6815.00,0.94
6814.00,0.94
6813.00,0.94
6812.00,0.94
6811.00,0.94
6810.00,0.94
6809.00,0.94
6808.00,0.94
6807.00,0.93
6806.00,0.93
6805.00,0.93
6804.00,0.93
6803.00,0.94
6802.00,0.94
6801.00,0.94
6800.00,0.94
6799.00,0.94
6798.00,0.94
6797.00,0.94
6796.00,0.94
6795.00,0.94
6794.00,0.94
6793.00,0.94
6792.00,0.94
6791.00,0.95
6790.00,0.95
6789.00,0.95
6788.00,0.95
6787.00,0.95
6786.00,0.95
6785.00,0.95
6784.00,0.95
6783.00,0.95
6782.00,0.95
6781.00,0.95
6780.00,0.95
6779.00,0.95
6778.00,0.95
6777.00,0.95
6776.00,0.95
6775.00,0.95
6774.00,0.95
6773.00,0.95
6772.00,0.95
6771.00,0.95
6770.00,0.95
6769.00,0.95
6768.00,0.95
6767.00,0.95
6766.00,0.95
6765.00,0.95
6764.00,0.95
6763.00,0.95
6762.00,0.95
6761.00,0.95
6760.00,0.95
6759.00,0.95
6758.00,0.95
6757.00,0.95
6756.00,0.95
6755.00,0.95
6754.00,0.96
6753.00,0.96
6752.00,0.96
6751.00,0.96
6750.00,0.96
6749.00,0.96
6748.00,0.96
6747.00,0.96
6746.00,0.96
6745.00,0.96
6744.00,0.96
6743.00,0.96
6742.00,0.96
6741.00,0.96
6740.00,0.96
6739.00,0.96
6738.00,0.96
6737.00,0.96
6736.00,0.96
6735.00,0.96
6734.00,0.96
6733.00,0.96
6732.00,0.96
6731.00,0.96
6730.00,0.96
6729.00,0.96
6728.00,0.96
6727.00,0.96
6726.00,0.96
6725.00,0.96
6724.00,0.96
6723.00,0.96
6722.00,0.96
6721.00,0.95
6720.00,0.95
6719.00,0.95
6718.00,0.95
6717.00,0.95
6716.00,0.95
6715.00,0.95
6714.00,0.95
6713.00,0.94
6712.00,0.94
6711.00,0.94
6710.00,0.94
6709.00,0.94
6708.00,0.94
6707.00,0.94
6706.00,0.94
6705.00,0.93
6704.00,0.93
6703.00,0.93
6702.00,0.93
6701.00,0.93
6700.00,0.93
6699.00,0.93
6698.00,0.93
6697.00,0.94
6696.00,0.94
6695.00,0.94
6694.00,0.94
6693.00,0.94
6692.00,0.94
6691.00,0.94
6690.00,0.94
6689.00,0.94
6688.00,0.94
6687.00,0.94
6686.00,0.94
6685.00,0.95
6684.00,0.95
6683.00,0.95
6682.00,0.95
6681.00,0.95
6680.00,0.95
6679.00,0.95
6678.00,0.96
6677.00,0.96
6676.00,0.96
6675.00,0.96
6674.00,0.96
6673.00,0.96
6672.00,0.96
6671.00,0.96
6670.00,0.96
6669.00,0.96
6668.00,0.96
6667.00,0.96
6666.00,0.96
6665.00,0.96
6664.00,0.96
6663.00,0.96
6662.00,0.96
6661.00,0.96
6660.00,0.96
6659.00,0.97
6658.00,0.97
6657.00,0.97
6656.00,0.97
6655.00,0.97
6654.00,0.97
6653.00,0.97
6652.00,0.97
6651.00,0.97
6650.00,0.97
6649.00,0.97
6648.00,0.97
6647.00,0.97
6646.00,0.97
6645.00,0.97
6644.00,0.97
6643.00,0.97
6642.00,0.97
6641.00,0.97
6640.00,0.97
6639.00,0.97
6638.00,0.97
6637.00,0.97
6636.00,0.97
6635.00,0.98
6634.00,0.98
6633.00,0.98
6632.00,0.98
6631.00,0.98
6630.00,0.98
6629.00,0.98
6628.00,0.98
6627.00,0.98
6626.00,0.98
6625.00,0.98
6624.00,0.98
6623.00,0.98
6622.00,0.98
6621.00,0.98
6620.00,0.98
6619.00,0.98
6618.00,0.98
6617.00,0.98
6616.00,0.98
6615.00,0.98
6614.00,0.98
6613.00,0.98
6612.00,0.98
6611.00,0.98
6610.00,0.98
6609.00,0.98
6608.00,0.98
6607.00,0.98
6606.00,0.98
6605.00,0.98
6604.00,0.99
6603.00,0.99
6602.00,0.99
6601.00,0.99
6600.00,0.99
6599.00,1.00
6598.00,1.00
6597.00,1.00
6596.00,1.00
6595.00,1.00
6594.00,1.01
6593.00,1.01
6592.00,1.01
6591.00,1.01
6590.00,1.01
6589.00,1.01
6588.00,1.02
6587.00,1.02
6586.00,1.02
6585.00,1.02
6584.00,1.02
6583.00,1.02
6582.00,1.02
6581.00,1.03
6580.00,1.03
6579.00,1.03
6578.00,1.03
6577.00,1.03
6576.00,1.03
6575.00,1.03
6574.00,1.03
6573.00,1.03
6572.00,1.03
6571.00,1.03
6570.00,1.03
6569.00,1.03
6568.00,1.03
6567.00,1.03
6566.00,1.03
6565.00,1.03
6564.00,1.03
6563.00,1.03
6562.00,1.03
6561.00,1.03
6560.00,1.03
6559.00,1.03
6558.00,1.03
6557.00,1.03
6556.00,1.03
6555.00,1.03
6554.00,1.03
6553.00,1.03
6552.00,1.03
6551.00,1.03
6550.00,1.03
6549.00,1.03
6548.00,1.03
6547.00,1.03
6546.00,1.02
6545.00,1.02
6544.00,1.02
6543.00,1.02
6542.00,1.02
6541.00,1.02
6540.00,1.02
6539.00,1.02
6538.00,1.02
6537.00,1.02
6536.00,1.02
6535.00,1.02
6534.00,1.02
6533.00,1.02
6532.00,1.02
6531.00,1.02
6530.00,1.02
6529.00,1.02
6528.00,1.02
6527.00,1.02
6526.00,1.02
6525.00,1.02
6524.00,1.02
6523.00,1.03
6522.00,1.03
6521.00,1.03
6520.00,1.03
6519.00,1.03
6518.00,1.03
6517.00,1.03
6516.00,1.04
6515.00,1.04
6514.00,1.04
6513.00,1.04
6512.00,1.04
6511.00,1.05
6510.00,1.05
6509.00,1.05
6508.00,1.05
6507.00,1.05
6506.00,1.05
6505.00,1.06
6504.00,1.06
6503.00,1.06
6502.00,1.06
6501.00,1.06
6500.00,1.06
6499.00,1.06
6498.00,1.06
6497.00,1.06
6496.00,1.06
6495.00,1.06
6494.00,1.06
6493.00,1.06
6492.00,1.06
6491.00,1.06
6490.00,1.06
6489.00,1.06
6488.00,1.06
6487.00,1.06
6486.00,1.05
6485.00,1.05
6484.00,1.05
6483.00,1.05
6482.00,1.05
6481.00,1.04
6480.00,1.04
6479.00,1.04
6478.00,1.04
6477.00,1.04
6476.00,1.03
6475.00,1.03
6474.00,1.03
6473.00,1.03
6472.00,1.03
6471.00,1.03
6470.00,1.03
6469.00,1.03
6468.00,1.03
6467.00,1.03
6466.00,1.03
6465.00,1.03
6464.00,1.03
6463.00,1.03
6462.00,1.03
6461.00,1.03
6460.00,1.03
6459.00,1.03
6458.00,1.03
6457.00,1.03
6456.00,1.03
6455.00,1.03
6454.00,1.04
6453.00,1.04
6452.00,1.04
6451.00,1.04
6450.00,1.04
6449.00,1.04
6448.00,1.04
6447.00,1.04
6446.00,1.04
6445.00,1.04
6444.00,1.04
6443.00,1.04
6442.00,1.04
6441.00,1.04
6440.00,1.04
6439.00,1.04
6438.00,1.04
6437.00,1.04
6436.00,1.04
6435.00,1.04
6434.00,1.04
6433.00,1.04
6432.00,1.04
6431.00,1.04
6430.00,1.04
6429.00,1.04
6428.00,1.04
6427.00,1.04
6426.00,1.04
6425.00,1.04
6424.00,1.04
6423.00,1.04
6422.00,1.04
6421.00,1.04
6420.00,1.04
6419.00,1.04
6418.00,1.04
6417.00,1.04
6416.00,1.04
6415.00,1.05
6414.00,1.05
6413.00,1.05
6412.00,1.04
6411.00,1.04
6410.00,1.04
6409.00,1.04
6408.00,1.04
6407.00,1.04
6406.00,1.04
6405.00,1.04
6404.00,1.04
6403.00,1.04
6402.00,1.04
6401.00,1.03
6400.00,1.03
6399.00,1.03
6398.00,1.03
6397.00,1.03
6396.00,1.03
6395.00,1.03
6394.00,1.03
6393.00,1.03
6392.00,1.03
6391.00,1.03
6390.00,1.03
6389.00,1.03
6388.00,1.03
6387.00,1.03
6386.00,1.03
6385.00,1.03
6384.00,1.03
6383.00,1.03
6382.00,1.04
6381.00,1.04
6380.00,1.04
6379.00,1.04
6378.00,1.04
6377.00,1.04
6376.00,1.04
6375.00,1.03
6374.00,1.03
6373.00,1.03
6372.00,1.03
6371.00,1.03
6370.00,1.03
6369.00,1.03
6368.00,1.03
6367.00,1.03
6366.00,1.03
6365.00,1.03
6364.00,1.03
6363.00,1.03
6362.00,1.02
6361.00,1.02
6360.00,1.02
6359.00,1.02
6358.00,1.02
6357.00,1.02
6356.00,1.02
6355.00,1.02
6354.00,1.02
6353.00,1.02
6352.00,1.02
6351.00,1.03
6350.00,1.03
6349.00,1.03
6348.00,1.03
6347.00,1.03
6346.00,1.04
6345.00,1.04
6344.00,1.04
6343.00,1.04
6342.00,1.05
6341.00,1.05
6340.00,1.05
6339.00,1.05
6338.00,1.05
6337.00,1.05
6336.00,1.06
6335.00,1.06
6334.00,1.06
6333.00,1.06
6332.00,1.06
6331.00,1.06
6330.00,1.07
6329.00,1.07
6328.00,1.07
6327.00,1.07
6326.00,1.07
6325.00,1.07
6324.00,1.07
6323.00,1.07
6322.00,1.07
6321.00,1.07
6320.00,1.07
6319.00,1.07
6318.00,1.07
6317.00,1.07
6316.00,1.07
6315.00,1.07
6314.00,1.07
6313.00,1.08
6312.00,1.08
6311.00,1.08
6310.00,1.08
6309.00,1.08
6308.00,1.08
6307.00,1.08
6306.00,1.08
6305.00,1.08
6304.00,1.08
6303.00,1.08
6302.00,1.08
6301.00,1.08
6300.00,1.07
6299.00,1.07
6298.00,1.07
6297.00,1.07
6296.00,1.07
6295.00,1.07
6294.00,1.07
6293.00,1.07
6292.00,1.07
6291.00,1.07
6290.00,1.07
6289.00,1.07
6288.00,1.07
6287.00,1.07
6286.00,1.07
6285.00,1.07
6284.00,1.07
6283.00,1.07
6282.00,1.07
6281.00,1.07
6280.00,1.07
6279.00,1.07
6278.00,1.07
6277.00,1.07
6276.00,1.07
6275.00,1.07
6274.00,1.07
6273.00,1.07
6272.00,1.07
6271.00,1.07
6270.00,1.07
6269.00,1.07
6268.00,1.07
6267.00,1.07
6266.00,1.07
6265.00,1.07
6264.00,1.07
6263.00,1.07
6262.00,1.07
6261.00,1.07
6260.00,1.07
6259.00,1.07
6258.00,1.07
6257.00,1.07
6256.00,1.07
6255.00,1.07
6254.00,1.07
6253.00,1.07
6252.00,1.07
6251.00,1.07
6250.00,1.07
6249.00,1.07
6248.00,1.07
6247.00,1.07
6246.00,1.07
6245.00,1.07
6244.00,1.06
6243.00,1.06
6242.00,1.06
6241.00,1.06
6240.00,1.06
6239.00,1.06
6238.00,1.06
6237.00,1.06
6236.00,1.06
6235.00,1.06
6234.00,1.06
6233.00,1.06
6232.00,1.06
6231.00,1.06
6230.00,1.06
6229.00,1.06
6228.00,1.06
6227.00,1.06
6226.00,1.06
6225.00,1.06
6224.00,1.06
6223.00,1.06
6222.00,1.06
6221.00,1.06
6220.00,1.07
6219.00,1.07
6218.00,1.07
6217.00,1.07
6216.00,1.07
6215.00,1.07
6214.00,1.07
6213.00,1.07
6212.00,1.07
6211.00,1.08
6210.00,1.08
6209.00,1.08
6208.00,1.08
6207.00,1.08
6206.00,1.08
6205.00,1.08
6204.00,1.08
6203.00,1.08
6202.00,1.08
6201.00,1.08
6200.00,1.08
6199.00,1.08
6198.00,1.08
6197.00,1.08
6196.00,1.08
6195.00,1.08
6194.00,1.08
6193.00,1.08
6192.00,1.08
6191.00,1.07
6190.00,1.07
6189.00,1.07
6188.00,1.07
6187.00,1.07
6186.00,1.07
6185.00,1.07
6184.00,1.07
6183.00,1.07
6182.00,1.07
6181.00,1.07
6180.00,1.07
6179.00,1.07
6178.00,1.07
6177.00,1.07
6176.00,1.07
6175.00,1.07
6174.00,1.07
6173.00,1.08
6172.00,1.08
6171.00,1.08
6170.00,1.08
6169.00,1.08
6168.00,1.08
6167.00,1.08
6166.00,1.09
6165.00,1.09
6164.00,1.09
6163.00,1.09
6162.00,1.09
6161.00,1.09
6160.00,1.10
6159.00,1.10
6158.00,1.10
6157.00,1.10
6156.00,1.10
6155.00,1.10
6154.00,1.10
6153.00,1.10
6152.00,1.10
6151.00,1.10
6150.00,1.10
6149.00,1.10
6148.00,1.10
6147.00,1.10
6146.00,1.10
6145.00,1.10
6144.00,1.10
6143.00,1.10
6142.00,1.10
6141.00,1.10
6140.00,1.10
6139.00,1.10
6138.00,1.09
6137.00,1.09
6136.00,1.09
6135.00,1.09
6134.00,1.09
6133.00,1.09
6132.00,1.09
6131.00,1.09
6130.00,1.08
6129.00,1.08
6128.00,1.08
6127.00,1.08
6126.00,1.08
6125.00,1.08
6124.00,1.08
6123.00,1.08
6122.00,1.08
6121.00,1.08
6120.00,1.08
6119.00,1.08
6118.00,1.09
6117.00,1.09
6116.00,1.09
6115.00,1.09
6114.00,1.09
6113.00,1.09
6112.00,1.09
6111.00,1.10
6110.00,1.10
6109.00,1.10
6108.00,1.10
6107.00,1.10
6106.00,1.11
6105.00,1.11
6104.00,1.11
6103.00,1.11
6102.00,1.11
6101.00,1.12
6100.00,1.12
6099.00,1.12
6098.00,1.12
6097.00,1.12
6096.00,1.12
6095.00,1.12
6094.00,1.12
6093.00,1.12
6092.00,1.12
6091.00,1.12
6090.00,1.12
6089.00,1.12
6088.00,1.12
6087.00,1.12
6086.00,1.12
6085.00,1.12
6084.00,1.12
6083.00,1.11
6082.00,1.11
6081.00,1.11
6080.00,1.11
6079.00,1.11
6078.00,1.10
6077.00,1.10
6076.00,1.10
6075.00,1.10
6074.00,1.10
6073.00,1.09
6072.00,1.09
6071.00,1.09
6070.00,1.09
6069.00,1.09
6068.00,1.09
6067.00,1.09
6066.00,1.08
6065.00,1.08
6064.00,1.08
6063.00,1.08
6062.00,1.08
6061.00,1.08
6060.00,1.08
6059.00,1.08
6058.00,1.08
6057.00,1.08
6056.00,1.09
6055.00,1.09
6054.00,1.09
6053.00,1.09
6052.00,1.09
6051.00,1.09
6050.00,1.09
6049.00,1.09
6048.00,1.10
6047.00,1.10
6046.00,1.10
6045.00,1.10
6044.00,1.10
6043.00,1.10
6042.00,1.11
6041.00,1.11
6040.00,1.11
6039.00,1.11
6038.00,1.11
6037.00,1.12
6036.00,1.12
6035.00,1.12
6034.00,1.12
6033.00,1.12
6032.00,1.12
6031.00,1.12
6030.00,1.12
6029.00,1.12
6028.00,1.12
6027.00,1.12
6026.00,1.12
6025.00,1.12
6024.00,1.12
6023.00,1.12
6022.00,1.12
6021.00,1.12
6020.00,1.12
6019.00,1.12
6018.00,1.12
6017.00,1.12
6016.00,1.12
6015.00,1.12
6014.00,1.12
6013.00,1.12
6012.00,1.12
6011.00,1.12
6010.00,1.12
6009.00,1.12
6008.00,1.12
6007.00,1.12
6006.00,1.12
6005.00,1.12
6004.00,1.12
6003.00,1.12
6002.00,1.12
6001.00,1.12
6000.00,1.12
5999.00,1.12
5998.00,1.12
5997.00,1.12
5996.00,1.12
5995.00,1.12
5994.00,1.12
5993.00,1.12
5992.00,1.12
5991.00,1.12
5990.00,1.12
5989.00,1.12
5988.00,1.12
5987.00,1.12
5986.00,1.12
5985.00,1.12
5984.00,1.12
5983.00,1.11
5982.00,1.11
5981.00,1.11
5980.00,1.11
5979.00,1.11
5978.00,1.11
5977.00,1.11
5976.00,1.11
5975.00,1.10
5974.00,1.10
5973.00,1.10
5972.00,1.10
5971.00,1.10
5970.00,1.10
5969.00,1.10
5968.00,1.10
5967.00,1.10
5966.00,1.10
5965.00,1.10
5964.00,1.09
5963.00,1.09
5962.00,1.09
5961.00,1.09
5960.00,1.09
5959.00,1.09
5958.00,1.09
5957.00,1.09
5956.00,1.09
5955.00,1.09
5954.00,1.09
5953.00,1.09
5952.00,1.09
5951.00,1.09
5950.00,1.09
5949.00,1.09
5948.00,1.09
5947.00,1.09
5946.00,1.09
5945.00,1.09
5944.00,1.09
5943.00,1.09
5942.00,1.09
5941.00,1.09
5940.00,1.09
5939.00,1.09
5938.00,1.09
5937.00,1.09
5936.00,1.09
5935.00,1.10
5934.00,1.10
5933.00,1.10
5932.00,1.10
5931.00,1.10
5930.00,1.10
5929.00,1.10
5928.00,1.10
5927.00,1.10
5926.00,1.10
5925.00,1.10
5924.00,1.10
5923.00,1.10
5922.00,1.10
5921.00,1.10
5920.00,1.10
5919.00,1.10
5918.00,1.10
5917.00,1.10
5916.00,1.10
5915.00,1.10
5914.00,1.10
5913.00,1.10
5912.00,1.10
5911.00,1.10
5910.00,1.10
5909.00,1.10
5908.00,1.10
5907.00,1.10
5906.00,1.10
5905.00,1.10
5904.00,1.10
5903.00,1.10
5902.00,1.10
5901.00,1.10
5900.00,1.10
5899.00,1.10
5898.00,1.10
5897.00,1.10
5896.00,1.10
5895.00,1.10
5894.00,1.10
5893.00,1.11
5892.00,1.11
5891.00,1.11
5890.00,1.11
5889.00,1.11
5888.00,1.11
5887.00,1.11
5886.00,1.11
5885.00,1.11
5884.00,1.11
5883.00,1.11
5882.00,1.11
5881.00,1.11
5880.00,1.11
5879.00,1.11
5878.00,1.11
5877.00,1.11
5876.00,1.11
5875.00,1.11
5874.00,1.11
5873.00,1.11
5872.00,1.12
5871.00,1.12
5870.00,1.12
5869.00,1.12
5868.00,1.12
5867.00,1.12
5866.00,1.12
5865.00,1.12
5864.00,1.12
5863.00,1.12
5862.00,1.12
5861.00,1.12
5860.00,1.12
5859.00,1.12
5858.00,1.12
5857.00,1.12
5856.00,1.12
5855.00,1.12
5854.00,1.12
5853.00,1.12
5852.00,1.12
5851.00,1.12
5850.00,1.12
5849.00,1.12
5848.00,1.12
5847.00,1.12
5846.00,1.12
5845.00,1.12
5844.00,1.12
5843.00,1.12
5842.00,1.12
5841.00,1.12
5840.00,1.12
5839.00,1.12
5838.00,1.12
5837.00,1.12
5836.00,1.12
5835.00,1.12
5834.00,1.12
5833.00,1.12
5832.00,1.12
5831.00,1.12
5830.00,1.12
5829.00,1.12
5828.00,1.12
5827.00,1.12
5826.00,1.12
5825.00,1.12
5824.00,1.12
5823.00,1.12
5822.00,1.12
5821.00,1.12
5820.00,1.12
5819.00,1.12
5818.00,1.12
5817.00,1.12
5816.00,1.12
5815.00,1.12
5814.00,1.12
5813.00,1.12
5812.00,1.12
5811.00,1.12
5810.00,1.12
5809.00,1.12
5808.00,1.12
5807.00,1.12
5806.00,1.12
5805.00,1.12
5804.00,1.12
5803.00,1.12
5802.00,1.12
5801.00,1.12
5800.00,1.12
5799.00,1.12
5798.00,1.12
5797.00,1.12
5796.00,1.12
5795.00,1.12
5794.00,1.12
5793.00,1.12
5792.00,1.12
5791.00,1.12
5790.00,1.12
5789.00,1.12
5788.00,1.12
5787.00,1.12
5786.00,1.12
5785.00,1.12
5784.00,1.12
5783.00,1.12
5782.00,1.12
5781.00,1.12
5780.00,1.11
5779.00,1.11
5778.00,1.11
5777.00,1.11
5776.00,1.11
5775.00,1.11
5774.00,1.11
5773.00,1.11
5772.00,1.11
5771.00,1.11
5770.00,1.11
5769.00,1.11
5768.00,1.11
5767.00,1.10
5766.00,1.10
5765.00,1.10
5764.00,1.10
5763.00,1.10
5762.00,1.10
5761.00,1.10
5760.00,1.10
5759.00,1.10
5758.00,1.11
5757.00,1.11
5756.00,1.11
5755.00,1.11
5754.00,1.11
5753.00,1.11
5752.00,1.11
5751.00,1.11
5750.00,1.12
5749.00,1.12
5748.00,1.12
5747.00,1.12
5746.00,1.12
5745.00,1.13
5744.00,1.13
5743.00,1.13
5742.00,1.13
5741.00,1.13
5740.00,1.13
5739.00,1.14
5738.00,1.14
5737.00,1.14
5736.00,1.14
5735.00,1.14
5734.00,1.14
5733.00,1.14
5732.00,1.14
5731.00,1.14
5730.00,1.14
5729.00,1.14
5728.00,1.14
5727.00,1.14
5726.00,1.14
5725.00,1.14
5724.00,1.14
5723.00,1.14
5722.00,1.14
5721.00,1.14
5720.00,1.14
5719.00,1.14
5718.00,1.13
5717.00,1.13
5716.00,1.13
5715.00,1.13
5714.00,1.13
5713.00,1.13
5712.00,1.13
5711.00,1.13
5710.00,1.12
5709.00,1.12
5708.00,1.12
5707.00,1.12
5706.00,1.12
5705.00,1.12
5704.00,1.12
5703.00,1.12
5702.00,1.12
5701.00,1.12
5700.00,1.12
5699.00,1.12
5698.00,1.12
5697.00,1.12
5696.00,1.12
5695.00,1.12
5694.00,1.12
5693.00,1.12
5692.00,1.12
5691.00,1.12
5690.00,1.12
5689.00,1.12
5688.00,1.12
5687.00,1.12
5686.00,1.12
5685.00,1.12
5684.00,1.12
5683.00,1.12
5682.00,1.13
5681.00,1.13
5680.00,1.13
5679.00,1.13
5678.00,1.13
5677.00,1.13
5676.00,1.13
5675.00,1.13
5674.00,1.13
5673.00,1.13
5672.00,1.13
5671.00,1.13
5670.00,1.13
5669.00,1.13
5668.00,1.13
5667.00,1.13
5666.00,1.13
5665.00,1.13
5664.00,1.12
5663.00,1.12
5662.00,1.12
5661.00,1.12
5660.00,1.12
5659.00,1.12
5658.00,1.12
5657.00,1.12
5656.00,1.12
5655.00,1.12
5654.00,1.11
5653.00,1.11
5652.00,1.11
5651.00,1.11
5650.00,1.11
5649.00,1.11
5648.00,1.10
5647.00,1.10
5646.00,1.10
5645.00,1.10
5644.00,1.10
5643.00,1.10
5642.00,1.10
5641.00,1.09
5640.00,1.09
5639.00,1.09
5638.00,1.09
5637.00,1.09
5636.00,1.09
5635.00,1.09
5634.00,1.09
5633.00,1.09
5632.00,1.09
5631.00,1.09
5630.00,1.09
5629.00,1.09
5628.00,1.09
5627.00,1.09
5626.00,1.09
5625.00,1.09
5624.00,1.09
5623.00,1.09
5622.00,1.09
5621.00,1.09
5620.00,1.09
5619.00,1.09
5618.00,1.09
5617.00,1.09
5616.00,1.09
5615.00,1.09
5614.00,1.09
5613.00,1.09
5612.00,1.09
5611.00,1.09
5610.00,1.09
5609.00,1.09
5608.00,1.10
5607.00,1.10
5606.00,1.10
5605.00,1.10
5604.00,1.10
5603.00,1.10
5602.00,1.10
5601.00,1.10
5600.00,1.10
5599.00,1.10
5598.00,1.10
5597.00,1.10
5596.00,1.10
5595.00,1.10
5594.00,1.10
5593.00,1.10
5592.00,1.10
5591.00,1.10
5590.00,1.11
5589.00,1.11
5588.00,1.11
5587.00,1.11
5586.00,1.11
5585.00,1.11
5584.00,1.11
5583.00,1.11
5582.00,1.11
5581.00,1.11
5580.00,1.11
5579.00,1.11
5578.00,1.11
5577.00,1.11
5576.00,1.12
5575.00,1.12
5574.00,1.12
5573.00,1.12
5572.00,1.12
5571.00,1.12
5570.00,1.12
5569.00,1.12
5568.00,1.12
5567.00,1.12
5566.00,1.12
5565.00,1.12
5564.00,1.12
5563.00,1.12
5562.00,1.12
5561.00,1.12
5560.00,1.12
5559.00,1.12
5558.00,1.12
5557.00,1.12
5556.00,1.12
5555.00,1.12
5554.00,1.12
5553.00,1.12
5552.00,1.12
5551.00,1.13
5550.00,1.13
5549.00,1.13
5548.00,1.13
5547.00,1.13
5546.00,1.13
5545.00,1.13
5544.00,1.13
5543.00,1.13
5542.00,1.13
5541.00,1.13
5540.00,1.14
5539.00,1.14
5538.00,1.14
5537.00,1.14
5536.00,1.14
5535.00,1.14
5534.00,1.14
5533.00,1.14
5532.00,1.14
5531.00,1.14
5530.00,1.14
5529.00,1.14
5528.00,1.15
5527.00,1.15
5526.00,1.15
5525.00,1.15
5524.00,1.15
5523.00,1.15
5522.00,1.15
5521.00,1.15
5520.00,1.15
5519.00,1.15
5518.00,1.15
5517.00,1.15
5516.00,1.15
5515.00,1.15
5514.00,1.15
5513.00,1.15
5512.00,1.15
5511.00,1.15
5510.00,1.15
5509.00,1.15
5508.00,1.15
5507.00,1.15
5506.00,1.15
5505.00,1.15
5504.00,1.15
5503.00,1.15
5502.00,1.15
5501.00,1.15
5500.00,1.15
5499.00,1.15
5498.00,1.15
5497.00,1.15
5496.00,1.15
5495.00,1.15
5494.00,1.15
5493.00,1.15
5492.00,1.15
5491.00,1.16
5490.00,1.16
5489.00,1.16
5488.00,1.16
5487.00,1.16
5486.00,1.16
5485.00,1.16
5484.00,1.16
5483.00,1.15
5482.00,1.15
5481.00,1.15
5480.00,1.15
5479.00,1.15
5478.00,1.15
5477.00,1.15
5476.00,1.15
5475.00,1.15
5474.00,1.15
5473.00,1.15
5472.00,1.15
5471.00,1.15
5470.00,1.15
5469.00,1.16
5468.00,1.16
5467.00,1.16
5466.00,1.16
5465.00,1.16
5464.00,1.16
5463.00,1.16
5462.00,1.16
5461.00,1.17
5460.00,1.17
5459.00,1.17
5458.00,1.17
5457.00,1.17
5456.00,1.17
5455.00,1.18
5454.00,1.18
5453.00,1.18
5452.00,1.18
5451.00,1.18
5450.00,1.18
5449.00,1.19
5448.00,1.19
5447.00,1.19
5446.00,1.19
5445.00,1.19
5444.00,1.19
5443.00,1.19
5442.00,1.19
5441.00,1.19
5440.00,1.19
5439.00,1.19
5438.00,1.19
5437.00,1.19
5436.00,1.19
5435.00,1.19
5434.00,1.19
5433.00,1.19
5432.00,1.19
5431.00,1.19
5430.00,1.19
5429.00,1.19
5428.00,1.19
5427.00,1.19
5426.00,1.19
5425.00,1.19
5424.00,1.19
5423.00,1.19
5422.00,1.19
5421.00,1.19
5420.00,1.19
5419.00,1.19
5418.00,1.18
5417.00,1.18
5416.00,1.18
5415.00,1.19
5414.00,1.19
5413.00,1.19
5412.00,1.19
5411.00,1.19
5410.00,1.19
5409.00,1.19
5408.00,1.19
5407.00,1.19
5406.00,1.19
5405.00,1.19
5404.00,1.19
5403.00,1.19
5402.00,1.19
5401.00,1.19
5400.00,1.19
5399.00,1.19
5398.00,1.19
5397.00,1.18
5396.00,1.18
5395.00,1.18
5394.00,1.18
5393.00,1.18
5392.00,1.18
5391.00,1.18
5390.00,1.18
5389.00,1.18
5388.00,1.18
5387.00,1.18
5386.00,1.17
5385.00,1.17
5384.00,1.17
5383.00,1.17
5382.00,1.16
5381.00,1.16
5380.00,1.16
5379.00,1.16
5378.00,1.16
5377.00,1.16
5376.00,1.15
5375.00,1.15
5374.00,1.15
5373.00,1.15
5372.00,1.15
5371.00,1.15
5370.00,1.15
5369.00,1.14
5368.00,1.14
5367.00,1.14
5366.00,1.14
5365.00,1.14
5364.00,1.14
5363.00,1.13
5362.00,1.13
5361.00,1.13
5360.00,1.13
5359.00,1.13
5358.00,1.13
5357.00,1.13
5356.00,1.13
5355.00,1.13
5354.00,1.13
5353.00,1.13
5352.00,1.13
5351.00,1.13
5350.00,1.13
5349.00,1.13
5348.00,1.13
5347.00,1.13
5346.00,1.13
5345.00,1.13
5344.00,1.13
5343.00,1.13
5342.00,1.13
5341.00,1.13
5340.00,1.13
5339.00,1.13
5338.00,1.13
5337.00,1.13
5336.00,1.13
5335.00,1.13
5334.00,1.12
5333.00,1.12
5332.00,1.12
5331.00,1.12
5330.00,1.11
5329.00,1.11
5328.00,1.11
5327.00,1.10
5326.00,1.10
5325.00,1.10
5324.00,1.09
5323.00,1.09
5322.00,1.08
5321.00,1.08
5320.00,1.07
5319.00,1.07
5318.00,1.06
5317.00,1.06
5316.00,1.06
5315.00,1.05
5314.00,1.04
5313.00,1.04
5312.00,1.03
5311.00,1.03
5310.00,1.02
5309.00,1.02
5308.00,1.01
5307.00,1.00
5306.00,1.00
5305.00,0.99
5304.00,0.99
5303.00,0.98
5302.00,0.98
5301.00,0.97
5300.00,0.97
5299.00,0.96
5298.00,0.96
5297.00,0.96
5296.00,0.95
5295.00,0.95
5294.00,0.95
5293.00,0.94
5292.00,0.94
5291.00,0.94
5290.00,0.93
5289.00,0.93
5288.00,0.93
5287.00,0.93
5286.00,0.92
5285.00,0.92
5284.00,0.92
5283.00,0.92
5282.00,0.92
5281.00,0.92
5280.00,0.91
5279.00,0.91
5278.00,0.91
5277.00,0.91
5276.00,0.91
5275.00,0.91
5274.00,0.91
5273.00,0.91
5272.00,0.90
5271.00,0.90
5270.00,0.90
5269.00,0.90
5268.00,0.90
5267.00,0.90
5266.00,0.90
5265.00,0.90
5264.00,0.90
5263.00,0.90
5262.00,0.90
5261.00,0.90
5260.00,0.89
5259.00,0.89
5258.00,0.89
5257.00,0.89
5256.00,0.89
5255.00,0.89
5254.00,0.89
5253.00,0.89
5252.00,0.89
5251.00,0.89
5250.00,0.89
5249.00,0.89
5248.00,0.89
5247.00,0.89
5246.00,0.89
5245.00,0.89
5244.00,0.89
5243.00,0.89
5242.00,0.89
5241.00,0.89
5240.00,0.89
5239.00,0.89
5238.00,0.88
5237.00,0.88
5236.00,0.88
5235.00,0.88
5234.00,0.88
5233.00,0.88
5232.00,0.88
5231.00,0.88
5230.00,0.88
5229.00,0.88
5228.00,0.88
5227.00,0.88
5226.00,0.88
5225.00,0.88
5224.00,0.87
5223.00,0.87
5222.00,0.87
5221.00,0.87
5220.00,0.87
5219.00,0.87
5218.00,0.87
5217.00,0.87
5216.00,0.87
5215.00,0.87
5214.00,0.86
5213.00,0.86
5212.00,0.86
5211.00,0.86
5210.00,0.86
5209.00,0.86
5208.00,0.86
5207.00,0.86
5206.00,0.86
5205.00,0.86
5204.00,0.86
5203.00,0.85
5202.00,0.85
5201.00,0.85
5200.00,0.85
5199.00,0.85
5198.00,0.85
5197.00,0.85
5196.00,0.85
5195.00,0.85
5194.00,0.85
5193.00,0.85
5192.00,0.85
5191.00,0.85
5190.00,0.85
5189.00,0.85
5188.00,0.85
5187.00,0.85
5186.00,0.85
5185.00,0.85
5184.00,0.85
5183.00,0.85
5182.00,0.85
5181.00,0.85
5180.00,0.85
5179.00,0.85
5178.00,0.85
5177.00,0.85
5176.00,0.85
5175.00,0.85
5174.00,0.85
5173.00,0.85
5172.00,0.84
5171.00,0.84
5170.00,0.84
5169.00,0.84
5168.00,0.84
5167.00,0.84
5166.00,0.84
5165.00,0.84
5164.00,0.84
5163.00,0.84
5162.00,0.84
5161.00,0.84
5160.00,0.84
5159.00,0.84
5158.00,0.84
5157.00,0.84
5156.00,0.84
5155.00,0.84
5154.00,0.84
5153.00,0.84
5152.00,0.84
5151.00,0.84
5150.00,0.84
5149.00,0.84
5148.00,0.84
5147.00,0.84
5146.00,0.84
5145.00,0.84
5144.00,0.84
5143.00,0.84
5142.00,0.84
5141.00,0.84
5140.00,0.84
5139.00,0.84
5138.00,0.84
5137.00,0.84
5136.00,0.84
5135.00,0.84
5134.00,0.84
5133.00,0.84
5132.00,0.84
5131.00,0.84
5130.00,0.84
5129.00,0.84
5128.00,0.84
5127.00,0.84
5126.00,0.84
5125.00,0.84
5124.00,0.84
5123.00,0.84
5122.00,0.84
5121.00,0.84
5120.00,0.84
5119.00,0.85
5118.00,0.85
5117.00,0.85
5116.00,0.85
5115.00,0.85
5114.00,0.85
5113.00,0.85
5112.00,0.86
5111.00,0.86
5110.00,0.86
5109.00,0.86
5108.00,0.86
5107.00,0.87
5106.00,0.87
5105.00,0.87
5104.00,0.87
5103.00,0.87
5102.00,0.87
5101.00,0.88
5100.00,0.88
5099.00,0.88
5098.00,0.88
5097.00,0.88
5096.00,0.88
5095.00,0.88
5094.00,0.89
5093.00,0.89
5092.00,0.89
5091.00,0.89
5090.00,0.89
5089.00,0.89
5088.00,0.89
5087.00,0.89
5086.00,0.89
5085.00,0.89
5084.00,0.90
5083.00,0.90
5082.00,0.90
5081.00,0.90
5080.00,0.90
5079.00,0.90
5078.00,0.90
5077.00,0.90
5076.00,0.90
5075.00,0.91
5074.00,0.91
5073.00,0.91
5072.00,0.91
5071.00,0.91
5070.00,0.91
5069.00,0.91
5068.00,0.91
5067.00,0.91
5066.00,0.91
5065.00,0.91
5064.00,0.91
5063.00,0.92
5062.00,0.92
5061.00,0.92
5060.00,0.92
5059.00,0.92
5058.00,0.92
5057.00,0.92
5056.00,0.92
5055.00,0.92
5054.00,0.92
5053.00,0.92
5052.00,0.92
5051.00,0.92
5050.00,0.92
5049.00,0.92
5048.00,0.92
5047.00,0.92
5046.00,0.92
5045.00,0.92
5044.00,0.92
5043.00,0.92
5042.00,0.92
5041.00,0.92
5040.00,0.92
5039.00,0.92
5038.00,0.92
5037.00,0.92
5036.00,0.92
5035.00,0.92
5034.00,0.92
5033.00,0.92
5032.00,0.92
5031.00,0.92
5030.00,0.92
5029.00,0.92
5028.00,0.92
5027.00,0.92
5026.00,0.92
5025.00,0.92
5024.00,0.92
5023.00,0.92
5022.00,0.92
5021.00,0.93
5020.00,0.93
5019.00,0.93
5018.00,0.93
5017.00,0.93
5016.00,0.93
5015.00,0.93
5014.00,0.93
5013.00,0.93
5012.00,0.94
5011.00,0.94
5010.00,0.94
5009.00,0.94
5008.00,0.94
5007.00,0.94
5006.00,0.95
5005.00,0.95
5004.00,0.95
5003.00,0.95
5002.00,0.95
5001.00,0.95
5000.00,0.96
4999.00,0.96
4998.00,0.96
4997.00,0.96
4996.00,0.96
4995.00,0.96
4994.00,0.96
4993.00,0.96
4992.00,0.96
4991.00,0.96
4990.00,0.96
4989.00,0.96
4988.00,0.96
4987.00,0.96
4986.00,0.96
4985.00,0.96
4984.00,0.96
4983.00,0.96
4982.00,0.96
4981.00,0.96
4980.00,0.96
4979.00,0.96
4978.00,0.96
4977.00,0.96
4976.00,0.96
4975.00,0.96
4974.00,0.96
4973.00,0.96
4972.00,0.96
4971.00,0.96
4970.00,0.96
4969.00,0.96
4968.00,0.96
4967.00,0.96
4966.00,0.96
4965.00,0.96
4964.00,0.96
4963.00,0.96
4962.00,0.96
4961.00,0.96
4960.00,0.96
4959.00,0.97
4958.00,0.97
4957.00,0.97
4956.00,0.97
4955.00,0.97
4954.00,0.98
4953.00,0.98
4952.00,0.98
4951.00,0.98
4950.00,0.98
4949.00,0.98
4948.00,0.98
4947.00,0.98
4946.00,0.99
4945.00,0.99
4944.00,0.99
4943.00,0.99
4942.00,0.99
4941.00,1.00
4940.00,1.00
4939.00,1.00
4938.00,1.00
4937.00,1.00
4936.00,1.00
4935.00,1.00
4934.00,1.00
4933.00,1.00
4932.00,1.00
4931.00,1.00
4930.00,1.00
4929.00,1.00
4928.00,1.00
4927.00,1.00
4926.00,1.00
4925.00,1.00
4924.00,1.00
4923.00,1.00
4922.00,1.01
4921.00,1.01
4920.00,1.01
4919.00,1.01
4918.00,1.01
4917.00,1.01
4916.00,1.01
4915.00,1.01
4914.00,1.01
4913.00,1.01
4912.00,1.01
4911.00,1.01
4910.00,1.01
4909.00,1.01
4908.00,1.02
4907.00,1.02
4906.00,1.02
4905.00,1.02
4904.00,1.02
4903.00,1.03
4902.00,1.03
4901.00,1.03
4900.00,1.03
4899.00,1.03
4898.00,1.04
4897.00,1.04
4896.00,1.04
4895.00,1.04
4894.00,1.04
4893.00,1.04
4892.00,1.04
4891.00,1.04
4890.00,1.04
4889.00,1.05
4888.00,1.05
4887.00,1.05
4886.00,1.05
4885.00,1.05
4884.00,1.05
4883.00,1.05
4882.00,1.05
4881.00,1.05
4880.00,1.05
4879.00,1.05
4878.00,1.04
4877.00,1.04
4876.00,1.04
4875.00,1.04
4874.00,1.04
4873.00,1.04
4872.00,1.04
4871.00,1.04
4870.00,1.04
4869.00,1.04
4868.00,1.04
4867.00,1.04
4866.00,1.04
4865.00,1.04
4864.00,1.04
4863.00,1.04
4862.00,1.04
4861.00,1.04
4860.00,1.04
4859.00,1.04
4858.00,1.04
4857.00,1.04
4856.00,1.04
4855.00,1.04
4854.00,1.04
4853.00,1.05
4852.00,1.05
4851.00,1.05
4850.00,1.05
4849.00,1.05
4848.00,1.06
4847.00,1.06
4846.00,1.06
4845.00,1.06
4844.00,1.06
4843.00,1.06
4842.00,1.07
4841.00,1.07
4840.00,1.07
4839.00,1.07
4838.00,1.07
4837.00,1.07
4836.00,1.07
4835.00,1.07
4834.00,1.08
4833.00,1.08
4832.00,1.08
4831.00,1.08
4830.00,1.08
4829.00,1.08
4828.00,1.08
4827.00,1.08
4826.00,1.08
4825.00,1.08
4824.00,1.08
4823.00,1.08
4822.00,1.08
4821.00,1.08
4820.00,1.08
4819.00,1.09
4818.00,1.09
4817.00,1.09
4816.00,1.09
4815.00,1.09
4814.00,1.09
4813.00,1.09
4812.00,1.09
4811.00,1.10
4810.00,1.10
4809.00,1.10
4808.00,1.10
4807.00,1.10
4806.00,1.10
4805.00,1.10
4804.00,1.10
4803.00,1.11
4802.00,1.11
4801.00,1.11
4800.00,1.11
4799.00,1.11
4798.00,1.11
4797.00,1.11
4796.00,1.11
4795.00,1.11
4794.00,1.11
4793.00,1.11
4792.00,1.11
4791.00,1.11
4790.00,1.11
4789.00,1.11
4788.00,1.11
4787.00,1.11
4786.00,1.11
4785.00,1.10
4784.00,1.10
4783.00,1.10
4782.00,1.10
4781.00,1.10
4780.00,1.10
4779.00,1.10
4778.00,1.10
4777.00,1.10
4776.00,1.10
4775.00,1.10
4774.00,1.10
4773.00,1.10
4772.00,1.10
4771.00,1.10
4770.00,1.10
4769.00,1.10
4768.00,1.10
4767.00,1.10
4766.00,1.10
4765.00,1.10
4764.00,1.10
4763.00,1.10
4762.00,1.10
4761.00,1.10
4760.00,1.10
4759.00,1.10
4758.00,1.10
4757.00,1.10
4756.00,1.10
4755.00,1.10
4754.00,1.10
4753.00,1.10
4752.00,1.09
4751.00,1.09
4750.00,1.09
4749.00,1.09
4748.00,1.09
4747.00,1.09
4746.00,1.09
4745.00,1.09
4744.00,1.09
4743.00,1.09
4742.00,1.10
4741.00,1.10
4740.00,1.10
4739.00,1.10
4738.00,1.10
4737.00,1.10
4736.00,1.10
4735.00,1.10
4734.00,1.10
4733.00,1.10
4732.00,1.11
4731.00,1.11
4730.00,1.11
4729.00,1.11
4728.00,1.11
4727.00,1.11
4726.00,1.12
4725.00,1.12
4724.00,1.12
4723.00,1.12
4722.00,1.12
4721.00,1.12
4720.00,1.12
4719.00,1.12
4718.00,1.13
4717.00,1.13
4716.00,1.13
4715.00,1.13
4714.00,1.13
4713.00,1.13
4712.00,1.13
4711.00,1.13
4710.00,1.13
4709.00,1.13
4708.00,1.12
4707.00,1.12
4706.00,1.12
4705.00,1.12
4704.00,1.12
4703.00,1.12
4702.00,1.12
4701.00,1.12
4700.00,1.12
4699.00,1.12
4698.00,1.12
4697.00,1.13
4696.00,1.13
4695.00,1.13
4694.00,1.13
4693.00,1.13
4692.00,1.13
4691.00,1.13
4690.00,1.13
4689.00,1.13
4688.00,1.13
4687.00,1.13
4686.00,1.13
4685.00,1.14
4684.00,1.14
4683.00,1.14
4682.00,1.14
4681.00,1.14
4680.00,1.14
4679.00,1.15
4678.00,1.15
4677.00,1.15
4676.00,1.15
4675.00,1.15
4674.00,1.15
4673.00,1.15
4672.00,1.15
4671.00,1.15
4670.00,1.15
4669.00,1.15
4668.00,1.15
4667.00,1.15
4666.00,1.15
4665.00,1.15
4664.00,1.15
4663.00,1.15
4662.00,1.15
4661.00,1.15
4660.00,1.15
4659.00,1.15
4658.00,1.15
4657.00,1.15
4656.00,1.15
4655.00,1.15
4654.00,1.16
4653.00,1.16
4652.00,1.16
4651.00,1.16
4650.00,1.16
4649.00,1.16
4648.00,1.16
4647.00,1.16
4646.00,1.16
4645.00,1.16
4644.00,1.16
4643.00,1.16
4642.00,1.16
4641.00,1.17
4640.00,1.17
4639.00,1.17
4638.00,1.17
4637.00,1.17
4636.00,1.17
4635.00,1.17
4634.00,1.17
4633.00,1.17
4632.00,1.17
4631.00,1.17
4630.00,1.17
4629.00,1.17
4628.00,1.17
4627.00,1.17
4626.00,1.17
4625.00,1.17
4624.00,1.17
4623.00,1.17
4622.00,1.17
4621.00,1.17
4620.00,1.17
4619.00,1.17
4618.00,1.17
4617.00,1.17
4616.00,1.17
4615.00,1.17
4614.00,1.16
4613.00,1.16
4612.00,1.16
4611.00,1.16
4610.00,1.16
4609.00,1.16
4608.00,1.16
4607.00,1.17
4606.00,1.17
4605.00,1.17
4604.00,1.17
4603.00,1.17
4602.00,1.17
4601.00,1.17
4600.00,1.17
4599.00,1.17
4598.00,1.17
4597.00,1.17
4596.00,1.17
4595.00,1.17
4594.00,1.18
4593.00,1.18
4592.00,1.18
4591.00,1.18
4590.00,1.18
4589.00,1.18
4588.00,1.18
4587.00,1.18
4586.00,1.19
4585.00,1.19
4584.00,1.19
4583.00,1.19
4582.00,1.19
4581.00,1.19
4580.00,1.19
4579.00,1.19
4578.00,1.19
4577.00,1.19
4576.00,1.19
4575.00,1.19
4574.00,1.19
4573.00,1.19
4572.00,1.19
4571.00,1.19
4570.00,1.19
4569.00,1.18
4568.00,1.18
4567.00,1.18
4566.00,1.18
4565.00,1.18
4564.00,1.18
4563.00,1.18
4562.00,1.18
4561.00,1.17
4560.00,1.17
4559.00,1.17
4558.00,1.17
4557.00,1.17
4556.00,1.17
4555.00,1.17
4554.00,1.17
4553.00,1.17
4552.00,1.17
4551.00,1.17
4550.00,1.17
4549.00,1.17
4548.00,1.17
4547.00,1.17
4546.00,1.17
4545.00,1.17
4544.00,1.17
4543.00,1.17
4542.00,1.17
4541.00,1.17
4540.00,1.17
4539.00,1.17
4538.00,1.17
4537.00,1.17
4536.00,1.17
4535.00,1.17
4534.00,1.17
4533.00,1.17
4532.00,1.17
4531.00,1.17
4530.00,1.17
4529.00,1.17
4528.00,1.17
4527.00,1.17
4526.00,1.17
4525.00,1.17
4524.00,1.17
4523.00,1.17
4522.00,1.17
4521.00,1.18
4520.00,1.18
4519.00,1.18
4518.00,1.18
4517.00,1.18
4516.00,1.18
4515.00,1.18
4514.00,1.18
4513.00,1.18
4512.00,1.18
4511.00,1.18
4510.00,1.18
4509.00,1.18
4508.00,1.18
4507.00,1.18
4506.00,1.18
4505.00,1.18
4504.00,1.18
4503.00,1.19
4502.00,1.19
4501.00,1.19
4500.00,1.19
4499.00,1.19
4498.00,1.19
4497.00,1.19
4496.00,1.19
4495.00,1.19
4494.00,1.19
4493.00,1.19
4492.00,1.19
4491.00,1.19
4490.00,1.19
4489.00,1.19
4488.00,1.19
4487.00,1.19
4486.00,1.19
4485.00,1.19
4484.00,1.19
4483.00,1.19
4482.00,1.19
4481.00,1.19
4480.00,1.19
4479.00,1.19
4478.00,1.19
4477.00,1.20
4476.00,1.20
4475.00,1.20
4474.00,1.19
4473.00,1.19
4472.00,1.19
4471.00,1.19
4470.00,1.19
4469.00,1.19
4468.00,1.19
4467.00,1.19
4466.00,1.19
4465.00,1.19
4464.00,1.19
4463.00,1.18
4462.00,1.18
4461.00,1.18
4460.00,1.18
4459.00,1.18
4458.00,1.18
4457.00,1.17
4456.00,1.17
4455.00,1.17
4454.00,1.17
4453.00,1.17
4452.00,1.17
4451.00,1.17
4450.00,1.17
4449.00,1.16
4448.00,1.16
4447.00,1.16
4446.00,1.16
4445.00,1.16
4444.00,1.16
4443.00,1.16
4442.00,1.16
4441.00,1.16
4440.00,1.16
4439.00,1.16
4438.00,1.15
4437.00,1.15
4436.00,1.15
4435.00,1.15
4434.00,1.15
4433.00,1.15
4432.00,1.15
4431.00,1.15
4430.00,1.15
4429.00,1.14
4428.00,1.14
4427.00,1.14
4426.00,1.14
4425.00,1.14
4424.00,1.14
4423.00,1.14
4422.00,1.14
4421.00,1.14
4420.00,1.14
4419.00,1.14
4418.00,1.13
4417.00,1.13
4416.00,1.13
4415.00,1.13
4414.00,1.13
4413.00,1.14
4412.00,1.14
4411.00,1.14
4410.00,1.14
4409.00,1.14
4408.00,1.14
4407.00,1.14
4406.00,1.14
4405.00,1.14
4404.00,1.14
4403.00,1.14
4402.00,1.14
4401.00,1.15
4400.00,1.15
4399.00,1.15
4398.00,1.15
4397.00,1.15
4396.00,1.15
4395.00,1.15
4394.00,1.15
4393.00,1.15
4392.00,1.15
4391.00,1.15
4390.00,1.14
4389.00,1.14
4388.00,1.14
4387.00,1.14
4386.00,1.14
4385.00,1.14
4384.00,1.14
4383.00,1.14
4382.00,1.14
4381.00,1.14
4380.00,1.13
4379.00,1.13
4378.00,1.13
4377.00,1.13
4376.00,1.13
4375.00,1.13
4374.00,1.13
4373.00,1.13
4372.00,1.13
4371.00,1.13
4370.00,1.13
4369.00,1.13
4368.00,1.13
4367.00,1.13
4366.00,1.13
4365.00,1.13
4364.00,1.13
4363.00,1.13
4362.00,1.14
4361.00,1.14
4360.00,1.14
4359.00,1.14
4358.00,1.14
4357.00,1.14
4356.00,1.14
4355.00,1.14
4354.00,1.14
4353.00,1.14
4352.00,1.14
4351.00,1.14
4350.00,1.14
4349.00,1.14
4348.00,1.14
4347.00,1.15
4346.00,1.15
4345.00,1.15
4344.00,1.15
4343.00,1.15
4342.00,1.15
4341.00,1.15
4340.00,1.15
4339.00,1.15
4338.00,1.15
4337.00,1.15
4336.00,1.15
4335.00,1.15
4334.00,1.15
4333.00,1.15
4332.00,1.15
4331.00,1.15
4330.00,1.15
4329.00,1.15
4328.00,1.15
4327.00,1.15
4326.00,1.16
4325.00,1.16
4324.00,1.16
4323.00,1.16
4322.00,1.16
4321.00,1.16
4320.00,1.16
4319.00,1.17
4318.00,1.17
4317.00,1.17
4316.00,1.17
4315.00,1.17
4314.00,1.17
4313.00,1.17
4312.00,1.18
4311.00,1.18
4310.00,1.18
4309.00,1.18
4308.00,1.18
4307.00,1.18
4306.00,1.18
4305.00,1.18
4304.00,1.18
4303.00,1.18
4302.00,1.18
4301.00,1.18
4300.00,1.18
4299.00,1.18
4298.00,1.18
4297.00,1.18
4296.00,1.18
4295.00,1.18
4294.00,1.18
4293.00,1.18
4292.00,1.18
4291.00,1.18
4290.00,1.18
4289.00,1.18
4288.00,1.18
4287.00,1.19
4286.00,1.19
4285.00,1.19
4284.00,1.19
4283.00,1.19
4282.00,1.19
4281.00,1.19
4280.00,1.19
4279.00,1.19
4278.00,1.19
4277.00,1.19
4276.00,1.19
4275.00,1.19
4274.00,1.19
4273.00,1.18
4272.00,1.18
4271.00,1.18
4270.00,1.18
4269.00,1.18
4268.00,1.18
4267.00,1.18
4266.00,1.18
4265.00,1.18
4264.00,1.18
4263.00,1.18
4262.00,1.17
4261.00,1.17
4260.00,1.17
4259.00,1.17
4258.00,1.17
4257.00,1.17
4256.00,1.17
4255.00,1.17
4254.00,1.17
4253.00,1.17
4252.00,1.17
4251.00,1.17
4250.00,1.17
4249.00,1.17
4248.00,1.17
4247.00,1.17
4246.00,1.17
4245.00,1.17
4244.00,1.17
4243.00,1.17
4242.00,1.16
4241.00,1.16
4240.00,1.16
4239.00,1.16
4238.00,1.16
4237.00,1.16
4236.00,1.16
4235.00,1.15
4234.00,1.15
4233.00,1.15
4232.00,1.15
4231.00,1.15
4230.00,1.15
4229.00,1.14
4228.00,1.14
4227.00,1.14
4226.00,1.14
4225.00,1.13
4224.00,1.13
4223.00,1.13
4222.00,1.13
4221.00,1.13
4220.00,1.12
4219.00,1.12
4218.00,1.12
4217.00,1.12
4216.00,1.12
4215.00,1.12
4214.00,1.12
4213.00,1.12
4212.00,1.12
4211.00,1.12
4210.00,1.11
4209.00,1.11
4208.00,1.11
4207.00,1.11
4206.00,1.11
4205.00,1.11
4204.00,1.11
4203.00,1.11
4202.00,1.11
4201.00,1.11
4200.00,1.11
4199.00,1.11
4198.00,1.11
4197.00,1.12
4196.00,1.12
4195.00,1.12
4194.00,1.12
4193.00,1.12
4192.00,1.13
4191.00,1.13
4190.00,1.13
4189.00,1.14
4188.00,1.14
4187.00,1.14
4186.00,1.15
4185.00,1.15
4184.00,1.15
4183.00,1.15
4182.00,1.16
4181.00,1.16
4180.00,1.16
4179.00,1.17
4178.00,1.17
4177.00,1.17
4176.00,1.17
4175.00,1.18
4174.00,1.18
4173.00,1.18
4172.00,1.18
4171.00,1.18
4170.00,1.18
4169.00,1.19
4168.00,1.19
4167.00,1.19
4166.00,1.19
4165.00,1.19
4164.00,1.19
4163.00,1.18
4162.00,1.18
4161.00,1.18
4160.00,1.18
4159.00,1.18
4158.00,1.18
4157.00,1.17
4156.00,1.17
4155.00,1.17
4154.00,1.17
4153.00,1.16
4152.00,1.16
4151.00,1.16
4150.00,1.16
4149.00,1.15
4148.00,1.15
4147.00,1.15
4146.00,1.14
4145.00,1.14
4144.00,1.14
4143.00,1.13
4142.00,1.13
4141.00,1.13
4140.00,1.12
4139.00,1.12
4138.00,1.12
4137.00,1.11
4136.00,1.11
4135.00,1.11
4134.00,1.11
4133.00,1.10
4132.00,1.10
4131.00,1.10
4130.00,1.10
4129.00,1.10
4128.00,1.10
4127.00,1.09
4126.00,1.09
4125.00,1.09
4124.00,1.09
4123.00,1.09
4122.00,1.09
4121.00,1.09
4120.00,1.09
4119.00,1.09
4118.00,1.09
4117.00,1.09
4116.00,1.09
4115.00,1.08
4114.00,1.08
4113.00,1.08
4112.00,1.08
4111.00,1.08
4110.00,1.08
4109.00,1.08
4108.00,1.08
4107.00,1.08
4106.00,1.08
4105.00,1.08
4104.00,1.07
4103.00,1.07
4102.00,1.07
4101.00,1.07
4100.00,1.07
4099.00,1.07
4098.00,1.08
4097.00,1.08
4096.00,1.08
4095.00,1.08
4094.00,1.08
4093.00,1.08
4092.00,1.08
4091.00,1.08
4090.00,1.08
4089.00,1.09
4088.00,1.09
4087.00,1.09
4086.00,1.09
4085.00,1.09
4084.00,1.10
4083.00,1.10
4082.00,1.10
4081.00,1.10
4080.00,1.10
4079.00,1.11
4078.00,1.11
4077.00,1.11
4076.00,1.11
4075.00,1.11
4074.00,1.11
4073.00,1.11
4072.00,1.11
4071.00,1.11
4070.00,1.11
4069.00,1.10
4068.00,1.10
4067.00,1.10
4066.00,1.10
4065.00,1.09
4064.00,1.09
4063.00,1.09
4062.00,1.09
4061.00,1.09
4060.00,1.08
4059.00,1.08
4058.00,1.08
4057.00,1.08
4056.00,1.08
4055.00,1.08
4054.00,1.08
4053.00,1.08
4052.00,1.08
4051.00,1.08
4050.00,1.08
4049.00,1.08
4048.00,1.09
4047.00,1.09
4046.00,1.09
4045.00,1.10
4044.00,1.10
4043.00,1.11
4042.00,1.11
4041.00,1.12
4040.00,1.13
4039.00,1.13
4038.00,1.14
4037.00,1.14
4036.00,1.15
4035.00,1.16
4034.00,1.16
4033.00,1.17
4032.00,1.17
4031.00,1.18
4030.00,1.18
4029.00,1.19
4028.00,1.19
4027.00,1.20
4026.00,1.20
4025.00,1.20
4024.00,1.21
4023.00,1.21
4022.00,1.21
4021.00,1.22
4020.00,1.22
4019.00,1.22
4018.00,1.22
4017.00,1.23
4016.00,1.23
4015.00,1.23
4014.00,1.23
4013.00,1.23
4012.00,1.23
4011.00,1.23
4010.00,1.23
4009.00,1.24
4008.00,1.24
4007.00,1.24
4006.00,1.24
4005.00,1.24
4004.00,1.24
4003.00,1.24
4002.00,1.24
4001.00,1.24
4000.00,1.24
