创建为新数据集,样品 1330 用户 Administrator 日期 星期六, 八月 17 2019
cm-1,%T
10000.00,1.06
9998.00,1.06
9996.00,1.06
9994.00,1.07
9992.00,1.07
9990.00,1.07
9988.00,1.07
9986.00,1.07
9984.00,1.07
9982.00,1.07
9980.00,1.07
9978.00,1.07
9976.00,1.07
9974.00,1.07
9972.00,1.07
9970.00,1.07
9968.00,1.07
9966.00,1.07
9964.00,1.07
9962.00,1.07
9960.00,1.06
9958.00,1.06
9956.00,1.06
9954.00,1.06
9952.00,1.05
9950.00,1.05
9948.00,1.05
9946.00,1.04
9944.00,1.04
9942.00,1.04
9940.00,1.03
9938.00,1.03
9936.00,1.03
9934.00,1.02
9932.00,1.02
9930.00,1.02
9928.00,1.02
9926.00,1.01
9924.00,1.01
9922.00,1.01
9920.00,1.01
9918.00,1.01
9916.00,1.01
9914.00,1.01
9912.00,1.01
9910.00,1.01
9908.00,1.01
9906.00,1.01
9904.00,1.01
9902.00,1.01
9900.00,1.01
9898.00,1.02
9896.00,1.02
9894.00,1.02
9892.00,1.02
9890.00,1.02
9888.00,1.02
9886.00,1.02
9884.00,1.02
9882.00,1.02
9880.00,1.02
9878.00,1.02
9876.00,1.02
9874.00,1.02
9872.00,1.02
9870.00,1.02
9868.00,1.02
9866.00,1.02
9864.00,1.02
9862.00,1.02
9860.00,1.02
9858.00,1.02
9856.00,1.02
9854.00,1.02
9852.00,1.02
9850.00,1.02
9848.00,1.02
9846.00,1.03
9844.00,1.03
9842.00,1.03
9840.00,1.03
9838.00,1.03
9836.00,1.03
9834.00,1.03
9832.00,1.03
9830.00,1.04
9828.00,1.04
9826.00,1.04
9824.00,1.04
9822.00,1.04
9820.00,1.04
9818.00,1.04
9816.00,1.04
9814.00,1.04
9812.00,1.04
9810.00,1.04
9808.00,1.05
9806.00,1.05
9804.00,1.05
9802.00,1.05
9800.00,1.05
9798.00,1.05
9796.00,1.05
9794.00,1.05
9792.00,1.05
9790.00,1.05
9788.00,1.05
9786.00,1.05
9784.00,1.05
9782.00,1.05
9780.00,1.05
9778.00,1.05
9776.00,1.05
9774.00,1.05
9772.00,1.05
9770.00,1.05
9768.00,1.05
9766.00,1.05
9764.00,1.05
9762.00,1.05
9760.00,1.05
9758.00,1.05
9756.00,1.05
9754.00,1.05
9752.00,1.05
9750.00,1.05
9748.00,1.05
9746.00,1.05
9744.00,1.05
9742.00,1.05
9740.00,1.05
9738.00,1.05
9736.00,1.05
9734.00,1.05
9732.00,1.05
9730.00,1.05
9728.00,1.05
9726.00,1.05
9724.00,1.05
9722.00,1.05
9720.00,1.05
9718.00,1.05
9716.00,1.05
9714.00,1.05
9712.00,1.05
9710.00,1.04
9708.00,1.04
9706.00,1.04
9704.00,1.04
9702.00,1.04
9700.00,1.04
9698.00,1.04
9696.00,1.04
9694.00,1.04
9692.00,1.04
9690.00,1.04
9688.00,1.04
9686.00,1.04
9684.00,1.04
9682.00,1.05
9680.00,1.05
9678.00,1.05
9676.00,1.05
9674.00,1.05
9672.00,1.05
9670.00,1.05
9668.00,1.05
9666.00,1.05
9664.00,1.05
9662.00,1.04
9660.00,1.04
9658.00,1.04
9656.00,1.04
9654.00,1.04
9652.00,1.04
9650.00,1.04
9648.00,1.04
9646.00,1.04
9644.00,1.04
9642.00,1.04
9640.00,1.03
9638.00,1.03
9636.00,1.03
9634.00,1.03
9632.00,1.03
9630.00,1.03
9628.00,1.03
9626.00,1.03
9624.00,1.03
9622.00,1.03
9620.00,1.04
9618.00,1.04
9616.00,1.04
9614.00,1.04
9612.00,1.04
9610.00,1.04
9608.00,1.04
9606.00,1.04
9604.00,1.04
9602.00,1.04
9600.00,1.05
9598.00,1.05
9596.00,1.05
9594.00,1.05
9592.00,1.05
9590.00,1.05
9588.00,1.05
9586.00,1.05
9584.00,1.05
9582.00,1.05
9580.00,1.05
9578.00,1.05
9576.00,1.05
9574.00,1.05
9572.00,1.05
9570.00,1.05
9568.00,1.05
9566.00,1.05
9564.00,1.05
9562.00,1.05
9560.00,1.05
9558.00,1.05
9556.00,1.05
9554.00,1.05
9552.00,1.05
9550.00,1.05
9548.00,1.05
9546.00,1.05
9544.00,1.05
9542.00,1.05
9540.00,1.05
9538.00,1.05
9536.00,1.05
9534.00,1.04
9532.00,1.04
9530.00,1.04
9528.00,1.04
9526.00,1.04
9524.00,1.04
9522.00,1.04
9520.00,1.04
9518.00,1.04
9516.00,1.04
9514.00,1.04
9512.00,1.04
9510.00,1.04
9508.00,1.04
9506.00,1.04
9504.00,1.03
9502.00,1.03
9500.00,1.03
9498.00,1.03
9496.00,1.03
9494.00,1.03
9492.00,1.03
9490.00,1.03
9488.00,1.03
9486.00,1.03
9484.00,1.03
9482.00,1.03
9480.00,1.03
9478.00,1.03
9476.00,1.03
9474.00,1.03
9472.00,1.03
9470.00,1.03
9468.00,1.03
9466.00,1.03
9464.00,1.03
9462.00,1.03
9460.00,1.03
9458.00,1.03
9456.00,1.03
9454.00,1.03
9452.00,1.03
9450.00,1.03
9448.00,1.03
9446.00,1.04
9444.00,1.04
9442.00,1.04
9440.00,1.04
9438.00,1.04
9436.00,1.04
9434.00,1.04
9432.00,1.05
9430.00,1.05
9428.00,1.05
9426.00,1.05
9424.00,1.05
9422.00,1.05
9420.00,1.05
9418.00,1.05
9416.00,1.05
9414.00,1.05
9412.00,1.05
9410.00,1.05
9408.00,1.05
9406.00,1.05
9404.00,1.05
9402.00,1.05
9400.00,1.06
9398.00,1.06
9396.00,1.06
9394.00,1.06
9392.00,1.06
9390.00,1.06
9388.00,1.06
9386.00,1.06
9384.00,1.06
9382.00,1.05
9380.00,1.05
9378.00,1.05
9376.00,1.05
9374.00,1.05
9372.00,1.05
9370.00,1.05
9368.00,1.05
9366.00,1.05
9364.00,1.05
9362.00,1.05
9360.00,1.04
9358.00,1.04
9356.00,1.04
9354.00,1.04
9352.00,1.04
9350.00,1.04
9348.00,1.04
9346.00,1.04
9344.00,1.04
9342.00,1.04
9340.00,1.04
9338.00,1.04
9336.00,1.04
9334.00,1.04
9332.00,1.03
9330.00,1.03
9328.00,1.03
9326.00,1.03
9324.00,1.03
9322.00,1.03
9320.00,1.03
9318.00,1.03
9316.00,1.03
9314.00,1.03
9312.00,1.04
9310.00,1.04
9308.00,1.04
9306.00,1.04
9304.00,1.04
9302.00,1.04
9300.00,1.04
9298.00,1.04
9296.00,1.04
9294.00,1.04
9292.00,1.04
9290.00,1.04
9288.00,1.04
9286.00,1.05
9284.00,1.05
9282.00,1.05
9280.00,1.05
9278.00,1.05
9276.00,1.05
9274.00,1.05
9272.00,1.05
9270.00,1.05
9268.00,1.05
9266.00,1.05
9264.00,1.05
9262.00,1.05
9260.00,1.05
9258.00,1.05
9256.00,1.05
9254.00,1.05
9252.00,1.05
9250.00,1.05
9248.00,1.05
9246.00,1.05
9244.00,1.05
9242.00,1.05
9240.00,1.05
9238.00,1.05
9236.00,1.05
9234.00,1.05
9232.00,1.04
9230.00,1.04
9228.00,1.04
9226.00,1.04
9224.00,1.04
9222.00,1.04
9220.00,1.04
9218.00,1.04
9216.00,1.04
9214.00,1.04
9212.00,1.03
9210.00,1.03
9208.00,1.03
9206.00,1.03
9204.00,1.03
9202.00,1.03
9200.00,1.03
9198.00,1.03
9196.00,1.03
9194.00,1.03
9192.00,1.04
9190.00,1.04
9188.00,1.04
9186.00,1.04
9184.00,1.04
9182.00,1.04
9180.00,1.04
9178.00,1.05
9176.00,1.05
9174.00,1.05
9172.00,1.05
9170.00,1.05
9168.00,1.05
9166.00,1.05
9164.00,1.05
9162.00,1.05
9160.00,1.05
9158.00,1.05
9156.00,1.05
9154.00,1.05
9152.00,1.05
9150.00,1.05
9148.00,1.05
9146.00,1.05
9144.00,1.05
9142.00,1.05
9140.00,1.05
9138.00,1.05
9136.00,1.05
9134.00,1.05
9132.00,1.05
9130.00,1.05
9128.00,1.05
9126.00,1.05
9124.00,1.05
9122.00,1.05
9120.00,1.05
9118.00,1.05
9116.00,1.05
9114.00,1.05
9112.00,1.05
9110.00,1.05
9108.00,1.05
9106.00,1.05
9104.00,1.05
9102.00,1.05
9100.00,1.05
9098.00,1.05
9096.00,1.04
9094.00,1.04
9092.00,1.04
9090.00,1.04
9088.00,1.04
9086.00,1.04
9084.00,1.04
9082.00,1.04
9080.00,1.04
9078.00,1.04
9076.00,1.04
9074.00,1.04
9072.00,1.04
9070.00,1.04
9068.00,1.04
9066.00,1.04
9064.00,1.04
9062.00,1.04
9060.00,1.04
9058.00,1.04
9056.00,1.04
9054.00,1.04
9052.00,1.04
9050.00,1.04
9048.00,1.04
9046.00,1.04
9044.00,1.04
9042.00,1.04
9040.00,1.04
9038.00,1.05
9036.00,1.05
9034.00,1.05
9032.00,1.05
9030.00,1.05
9028.00,1.05
9026.00,1.05
9024.00,1.05
9022.00,1.05
9020.00,1.05
9018.00,1.05
9016.00,1.04
9014.00,1.04
9012.00,1.04
9010.00,1.04
9008.00,1.04
9006.00,1.04
9004.00,1.04
9002.00,1.04
9000.00,1.04
8998.00,1.03
8996.00,1.03
8994.00,1.03
8992.00,1.03
8990.00,1.03
8988.00,1.03
8986.00,1.03
8984.00,1.03
8982.00,1.03
8980.00,1.03
8978.00,1.03
8976.00,1.03
8974.00,1.03
8972.00,1.04
8970.00,1.04
8968.00,1.04
8966.00,1.04
8964.00,1.04
8962.00,1.04
8960.00,1.04
8958.00,1.04
8956.00,1.04
8954.00,1.04
8952.00,1.04
8950.00,1.04
8948.00,1.04
8946.00,1.04
8944.00,1.04
8942.00,1.04
8940.00,1.04
8938.00,1.04
8936.00,1.04
8934.00,1.04
8932.00,1.04
8930.00,1.04
8928.00,1.04
8926.00,1.04
8924.00,1.04
8922.00,1.04
8920.00,1.04
8918.00,1.04
8916.00,1.04
8914.00,1.04
8912.00,1.05
8910.00,1.05
8908.00,1.05
8906.00,1.05
8904.00,1.05
8902.00,1.05
8900.00,1.05
8898.00,1.05
8896.00,1.05
8894.00,1.05
8892.00,1.05
8890.00,1.05
8888.00,1.05
8886.00,1.05
8884.00,1.05
8882.00,1.05
8880.00,1.05
8878.00,1.05
8876.00,1.05
8874.00,1.05
8872.00,1.05
8870.00,1.05
8868.00,1.05
8866.00,1.05
8864.00,1.05
8862.00,1.06
8860.00,1.06
8858.00,1.06
8856.00,1.06
8854.00,1.06
8852.00,1.06
8850.00,1.06
8848.00,1.06
8846.00,1.06
8844.00,1.06
8842.00,1.06
8840.00,1.06
8838.00,1.06
8836.00,1.06
8834.00,1.06
8832.00,1.06
8830.00,1.06
8828.00,1.06
8826.00,1.06
8824.00,1.06
8822.00,1.06
8820.00,1.05
8818.00,1.05
8816.00,1.05
8814.00,1.05
8812.00,1.05
8810.00,1.05
8808.00,1.05
8806.00,1.05
8804.00,1.05
8802.00,1.05
8800.00,1.05
8798.00,1.05
8796.00,1.05
8794.00,1.05
8792.00,1.05
8790.00,1.05
8788.00,1.05
8786.00,1.05
8784.00,1.05
8782.00,1.05
8780.00,1.05
8778.00,1.05
8776.00,1.05
8774.00,1.05
8772.00,1.05
8770.00,1.05
8768.00,1.05
8766.00,1.05
8764.00,1.05
8762.00,1.05
8760.00,1.05
8758.00,1.05
8756.00,1.05
8754.00,1.05
8752.00,1.04
8750.00,1.04
8748.00,1.04
8746.00,1.04
8744.00,1.04
8742.00,1.04
8740.00,1.04
8738.00,1.04
8736.00,1.04
8734.00,1.04
8732.00,1.04
8730.00,1.04
8728.00,1.04
8726.00,1.04
8724.00,1.04
8722.00,1.04
8720.00,1.04
8718.00,1.04
8716.00,1.04
8714.00,1.04
8712.00,1.04
8710.00,1.04
8708.00,1.04
8706.00,1.04
8704.00,1.04
8702.00,1.04
8700.00,1.04
8698.00,1.04
8696.00,1.04
8694.00,1.04
8692.00,1.04
8690.00,1.04
8688.00,1.04
8686.00,1.04
8684.00,1.04
8682.00,1.04
8680.00,1.04
8678.00,1.03
8676.00,1.03
8674.00,1.03
8672.00,1.03
8670.00,1.03
8668.00,1.03
8666.00,1.03
8664.00,1.03
8662.00,1.03
8660.00,1.03
8658.00,1.03
8656.00,1.03
8654.00,1.03
8652.00,1.03
8650.00,1.03
8648.00,1.03
8646.00,1.03
8644.00,1.03
8642.00,1.03
8640.00,1.03
8638.00,1.03
8636.00,1.03
8634.00,1.03
8632.00,1.03
8630.00,1.04
8628.00,1.04
8626.00,1.04
8624.00,1.04
8622.00,1.04
8620.00,1.04
8618.00,1.04
8616.00,1.04
8614.00,1.05
8612.00,1.05
8610.00,1.05
8608.00,1.05
8606.00,1.05
8604.00,1.05
8602.00,1.05
8600.00,1.05
8598.00,1.05
8596.00,1.06
8594.00,1.06
8592.00,1.06
8590.00,1.06
8588.00,1.06
8586.00,1.06
8584.00,1.06
8582.00,1.06
8580.00,1.06
8578.00,1.06
8576.00,1.06
8574.00,1.05
8572.00,1.05
8570.00,1.05
8568.00,1.05
8566.00,1.05
8564.00,1.05
8562.00,1.05
8560.00,1.05
8558.00,1.04
8556.00,1.04
8554.00,1.04
8552.00,1.04
8550.00,1.04
8548.00,1.04
8546.00,1.04
8544.00,1.03
8542.00,1.03
8540.00,1.03
8538.00,1.03
8536.00,1.03
8534.00,1.03
8532.00,1.03
8530.00,1.03
8528.00,1.03
8526.00,1.03
8524.00,1.03
8522.00,1.03
8520.00,1.03
8518.00,1.03
8516.00,1.03
8514.00,1.03
8512.00,1.03
8510.00,1.03
8508.00,1.03
8506.00,1.03
8504.00,1.03
8502.00,1.03
8500.00,1.04
8498.00,1.04
8496.00,1.04
8494.00,1.04
8492.00,1.04
8490.00,1.04
8488.00,1.04
8486.00,1.04
8484.00,1.04
8482.00,1.05
8480.00,1.05
8478.00,1.05
8476.00,1.05
8474.00,1.05
8472.00,1.04
8470.00,1.04
8468.00,1.04
8466.00,1.04
8464.00,1.04
8462.00,1.04
8460.00,1.04
8458.00,1.04
8456.00,1.04
8454.00,1.04
8452.00,1.04
8450.00,1.04
8448.00,1.04
8446.00,1.04
8444.00,1.04
8442.00,1.04
8440.00,1.04
8438.00,1.04
8436.00,1.04
8434.00,1.04
8432.00,1.04
8430.00,1.04
8428.00,1.04
8426.00,1.04
8424.00,1.04
8422.00,1.04
8420.00,1.04
8418.00,1.04
8416.00,1.04
8414.00,1.04
8412.00,1.04
8410.00,1.04
8408.00,1.04
8406.00,1.04
8404.00,1.04
8402.00,1.04
8400.00,1.04
8398.00,1.04
8396.00,1.04
8394.00,1.04
8392.00,1.04
8390.00,1.04
8388.00,1.04
8386.00,1.04
8384.00,1.04
8382.00,1.04
8380.00,1.04
8378.00,1.04
8376.00,1.04
8374.00,1.04
8372.00,1.04
8370.00,1.04
8368.00,1.04
8366.00,1.04
8364.00,1.04
8362.00,1.05
8360.00,1.05
8358.00,1.05
8356.00,1.05
8354.00,1.05
8352.00,1.05
8350.00,1.05
8348.00,1.05
8346.00,1.05
8344.00,1.05
8342.00,1.05
8340.00,1.05
8338.00,1.05
8336.00,1.04
8334.00,1.04
8332.00,1.04
8330.00,1.04
8328.00,1.04
8326.00,1.04
8324.00,1.04
8322.00,1.04
8320.00,1.04
8318.00,1.04
8316.00,1.04
8314.00,1.04
8312.00,1.04
8310.00,1.04
8308.00,1.04
8306.00,1.04
8304.00,1.04
8302.00,1.04
8300.00,1.04
8298.00,1.04
8296.00,1.04
8294.00,1.04
8292.00,1.04
8290.00,1.04
8288.00,1.04
8286.00,1.04
8284.00,1.04
8282.00,1.04
8280.00,1.04
8278.00,1.04
8276.00,1.04
8274.00,1.04
8272.00,1.04
8270.00,1.05
8268.00,1.05
8266.00,1.05
8264.00,1.05
8262.00,1.05
8260.00,1.05
8258.00,1.05
8256.00,1.05
8254.00,1.04
8252.00,1.04
8250.00,1.04
8248.00,1.04
8246.00,1.04
8244.00,1.04
8242.00,1.04
8240.00,1.04
8238.00,1.04
8236.00,1.04
8234.00,1.04
8232.00,1.04
8230.00,1.04
8228.00,1.04
8226.00,1.04
8224.00,1.04
8222.00,1.04
8220.00,1.04
8218.00,1.04
8216.00,1.04
8214.00,1.04
8212.00,1.04
8210.00,1.04
8208.00,1.04
8206.00,1.04
8204.00,1.04
8202.00,1.04
8200.00,1.04
8198.00,1.04
8196.00,1.04
8194.00,1.04
8192.00,1.04
8190.00,1.04
8188.00,1.04
8186.00,1.04
8184.00,1.04
8182.00,1.04
8180.00,1.04
8178.00,1.04
8176.00,1.04
8174.00,1.04
8172.00,1.04
8170.00,1.04
8168.00,1.04
8166.00,1.04
8164.00,1.04
8162.00,1.04
8160.00,1.04
8158.00,1.04
8156.00,1.04
8154.00,1.04
8152.00,1.04
8150.00,1.04
8148.00,1.05
8146.00,1.05
8144.00,1.05
8142.00,1.05
8140.00,1.05
8138.00,1.05
8136.00,1.05
8134.00,1.05
8132.00,1.06
8130.00,1.06
8128.00,1.06
8126.00,1.06
8124.00,1.06
8122.00,1.06
8120.00,1.06
8118.00,1.06
8116.00,1.06
8114.00,1.06
8112.00,1.06
8110.00,1.06
8108.00,1.06
8106.00,1.06
8104.00,1.06
8102.00,1.06
8100.00,1.06
8098.00,1.06
8096.00,1.06
8094.00,1.06
8092.00,1.06
8090.00,1.06
8088.00,1.06
8086.00,1.06
8084.00,1.06
8082.00,1.06
8080.00,1.06
8078.00,1.06
8076.00,1.06
8074.00,1.06
8072.00,1.06
8070.00,1.06
8068.00,1.06
8066.00,1.06
8064.00,1.06
8062.00,1.05
8060.00,1.05
8058.00,1.05
8056.00,1.05
8054.00,1.05
8052.00,1.05
8050.00,1.05
8048.00,1.05
8046.00,1.05
8044.00,1.05
8042.00,1.05
8040.00,1.05
8038.00,1.05
8036.00,1.05
8034.00,1.05
8032.00,1.05
8030.00,1.05
8028.00,1.05
8026.00,1.05
8024.00,1.05
8022.00,1.05
8020.00,1.05
8018.00,1.05
8016.00,1.05
8014.00,1.05
8012.00,1.05
8010.00,1.05
8008.00,1.05
8006.00,1.06
8004.00,1.06
8002.00,1.06
8000.00,1.06
7998.00,1.06
7996.00,1.06
7994.00,1.06
7992.00,1.06
7990.00,1.06
7988.00,1.06
7986.00,1.06
7984.00,1.06
7982.00,1.06
7980.00,1.06
7978.00,1.06
7976.00,1.06
7974.00,1.06
7972.00,1.06
7970.00,1.06
7968.00,1.06
7966.00,1.06
7964.00,1.06
7962.00,1.06
7960.00,1.06
7958.00,1.06
7956.00,1.06
7954.00,1.06
7952.00,1.06
7950.00,1.06
7948.00,1.06
7946.00,1.06
7944.00,1.06
7942.00,1.06
7940.00,1.06
7938.00,1.06
7936.00,1.06
7934.00,1.06
7932.00,1.06
7930.00,1.06
7928.00,1.06
7926.00,1.06
7924.00,1.06
7922.00,1.06
7920.00,1.06
7918.00,1.06
7916.00,1.06
7914.00,1.06
7912.00,1.06
7910.00,1.06
7908.00,1.06
7906.00,1.06
7904.00,1.06
7902.00,1.06
7900.00,1.06
7898.00,1.06
7896.00,1.06
7894.00,1.06
7892.00,1.06
7890.00,1.06
7888.00,1.06
7886.00,1.06
7884.00,1.06
7882.00,1.06
7880.00,1.06
7878.00,1.06
7876.00,1.06
7874.00,1.06
7872.00,1.06
7870.00,1.07
7868.00,1.07
7866.00,1.07
7864.00,1.07
7862.00,1.06
7860.00,1.06
7858.00,1.06
7856.00,1.06
7854.00,1.06
7852.00,1.06
7850.00,1.06
7848.00,1.06
7846.00,1.06
7844.00,1.06
7842.00,1.06
7840.00,1.06
7838.00,1.06
7836.00,1.06
7834.00,1.06
7832.00,1.06
7830.00,1.06
7828.00,1.06
7826.00,1.06
7824.00,1.06
7822.00,1.06
7820.00,1.06
7818.00,1.06
7816.00,1.06
7814.00,1.06
7812.00,1.06
7810.00,1.06
7808.00,1.06
7806.00,1.06
7804.00,1.06
7802.00,1.06
7800.00,1.06
7798.00,1.06
7796.00,1.06
7794.00,1.06
7792.00,1.06
7790.00,1.06
7788.00,1.06
7786.00,1.06
7784.00,1.07
7782.00,1.07
7780.00,1.07
7778.00,1.07
7776.00,1.07
7774.00,1.07
7772.00,1.07
7770.00,1.07
7768.00,1.07
7766.00,1.07
7764.00,1.07
7762.00,1.07
7760.00,1.07
7758.00,1.07
7756.00,1.07
7754.00,1.07
7752.00,1.07
7750.00,1.07
7748.00,1.07
7746.00,1.07
7744.00,1.07
7742.00,1.07
7740.00,1.07
7738.00,1.07
7736.00,1.07
7734.00,1.07
7732.00,1.06
7730.00,1.06
7728.00,1.06
7726.00,1.06
7724.00,1.06
7722.00,1.06
7720.00,1.06
7718.00,1.06
7716.00,1.06
7714.00,1.06
7712.00,1.06
7710.00,1.07
7708.00,1.07
7706.00,1.07
7704.00,1.07
7702.00,1.07
7700.00,1.07
7698.00,1.07
7696.00,1.07
7694.00,1.07
7692.00,1.07
7690.00,1.07
7688.00,1.07
7686.00,1.07
7684.00,1.07
7682.00,1.07
7680.00,1.07
7678.00,1.07
7676.00,1.07
7674.00,1.07
7672.00,1.07
7670.00,1.07
7668.00,1.07
7666.00,1.07
7664.00,1.07
7662.00,1.07
7660.00,1.07
7658.00,1.07
7656.00,1.07
7654.00,1.07
7652.00,1.07
7650.00,1.07
7648.00,1.07
7646.00,1.07
7644.00,1.07
7642.00,1.07
7640.00,1.07
7638.00,1.07
7636.00,1.07
7634.00,1.07
7632.00,1.07
7630.00,1.07
7628.00,1.07
7626.00,1.07
7624.00,1.07
7622.00,1.07
7620.00,1.07
7618.00,1.06
7616.00,1.06
7614.00,1.06
7612.00,1.06
7610.00,1.06
7608.00,1.06
7606.00,1.06
7604.00,1.06
7602.00,1.06
7600.00,1.06
7598.00,1.06
7596.00,1.06
7594.00,1.06
7592.00,1.06
7590.00,1.06
7588.00,1.06
7586.00,1.06
7584.00,1.06
7582.00,1.05
7580.00,1.05
7578.00,1.05
7576.00,1.05
7574.00,1.05
7572.00,1.06
7570.00,1.06
7568.00,1.06
7566.00,1.06
7564.00,1.06
7562.00,1.06
7560.00,1.06
7558.00,1.06
7556.00,1.06
7554.00,1.06
7552.00,1.06
7550.00,1.06
7548.00,1.06
7546.00,1.06
7544.00,1.06
7542.00,1.06
7540.00,1.06
7538.00,1.06
7536.00,1.06
7534.00,1.06
7532.00,1.06
7530.00,1.06
7528.00,1.06
7526.00,1.06
7524.00,1.06
7522.00,1.06
7520.00,1.06
7518.00,1.06
7516.00,1.06
7514.00,1.06
7512.00,1.06
7510.00,1.06
7508.00,1.07
7506.00,1.07
7504.00,1.07
7502.00,1.07
7500.00,1.07
7498.00,1.07
7496.00,1.06
7494.00,1.06
7492.00,1.06
7490.00,1.06
7488.00,1.06
7486.00,1.06
7484.00,1.06
7482.00,1.06
7480.00,1.06
7478.00,1.06
7476.00,1.06
7474.00,1.06
7472.00,1.06
7470.00,1.06
7468.00,1.06
7466.00,1.06
7464.00,1.06
7462.00,1.06
7460.00,1.06
7458.00,1.06
7456.00,1.06
7454.00,1.05
7452.00,1.05
7450.00,1.05
7448.00,1.05
7446.00,1.05
7444.00,1.05
7442.00,1.05
7440.00,1.05
7438.00,1.05
7436.00,1.05
7434.00,1.05
7432.00,1.05
7430.00,1.05
7428.00,1.05
7426.00,1.05
7424.00,1.05
7422.00,1.05
7420.00,1.05
7418.00,1.05
7416.00,1.05
7414.00,1.05
7412.00,1.05
7410.00,1.05
7408.00,1.05
7406.00,1.05
7404.00,1.05
7402.00,1.05
7400.00,1.05
7398.00,1.05
7396.00,1.05
7394.00,1.05
7392.00,1.05
7390.00,1.04
7388.00,1.04
7386.00,1.04
7384.00,1.04
7382.00,1.04
7380.00,1.04
7378.00,1.04
7376.00,1.04
7374.00,1.04
7372.00,1.04
7370.00,1.04
7368.00,1.04
7366.00,1.04
7364.00,1.04
7362.00,1.04
7360.00,1.04
7358.00,1.04
7356.00,1.04
7354.00,1.04
7352.00,1.04
7350.00,1.04
7348.00,1.04
7346.00,1.04
7344.00,1.04
7342.00,1.04
7340.00,1.04
7338.00,1.04
7336.00,1.04
7334.00,1.04
7332.00,1.04
7330.00,1.04
7328.00,1.04
7326.00,1.04
7324.00,1.04
7322.00,1.04
7320.00,1.04
7318.00,1.04
7316.00,1.04
7314.00,1.04
7312.00,1.04
7310.00,1.04
7308.00,1.04
7306.00,1.04
7304.00,1.04
7302.00,1.04
7300.00,1.04
7298.00,1.04
7296.00,1.04
7294.00,1.04
7292.00,1.04
7290.00,1.04
7288.00,1.04
7286.00,1.04
7284.00,1.04
7282.00,1.04
7280.00,1.04
7278.00,1.04
7276.00,1.04
7274.00,1.04
7272.00,1.04
7270.00,1.04
7268.00,1.03
7266.00,1.03
7264.00,1.03
7262.00,1.03
7260.00,1.03
7258.00,1.03
7256.00,1.03
7254.00,1.03
7252.00,1.02
7250.00,1.02
7248.00,1.02
7246.00,1.02
7244.00,1.02
7242.00,1.02
7240.00,1.02
7238.00,1.02
7236.00,1.01
7234.00,1.01
7232.00,1.01
7230.00,1.01
7228.00,1.01
7226.00,1.01
7224.00,1.01
7222.00,1.00
7220.00,1.00
7218.00,1.00
7216.00,1.00
7214.00,1.00
7212.00,1.00
7210.00,0.99
7208.00,0.99
7206.00,0.99
7204.00,0.99
7202.00,0.99
7200.00,0.99
7198.00,0.99
7196.00,0.98
7194.00,0.98
7192.00,0.98
7190.00,0.98
7188.00,0.98
7186.00,0.98
7184.00,0.98
7182.00,0.97
7180.00,0.97
7178.00,0.97
7176.00,0.97
7174.00,0.97
7172.00,0.97
7170.00,0.96
7168.00,0.96
7166.00,0.96
7164.00,0.96
7162.00,0.96
7160.00,0.96
7158.00,0.95
7156.00,0.95
7154.00,0.95
7152.00,0.95
7150.00,0.95
7148.00,0.94
7146.00,0.94
7144.00,0.94
7142.00,0.94
7140.00,0.94
7138.00,0.94
7136.00,0.93
7134.00,0.93
7132.00,0.93
7130.00,0.93
7128.00,0.93
7126.00,0.93
7124.00,0.93
7122.00,0.92
7120.00,0.92
7118.00,0.92
7116.00,0.92
7114.00,0.92
7112.00,0.92
7110.00,0.92
7108.00,0.91
7106.00,0.91
7104.00,0.91
7102.00,0.91
7100.00,0.91
7098.00,0.91
7096.00,0.91
7094.00,0.90
7092.00,0.90
7090.00,0.90
7088.00,0.90
7086.00,0.90
7084.00,0.90
7082.00,0.90
7080.00,0.89
7078.00,0.89
7076.00,0.89
7074.00,0.89
7072.00,0.89
7070.00,0.89
7068.00,0.89
7066.00,0.89
7064.00,0.89
7062.00,0.89
7060.00,0.89
7058.00,0.88
7056.00,0.88
7054.00,0.88
7052.00,0.88
7050.00,0.88
7048.00,0.88
7046.00,0.88
7044.00,0.88
7042.00,0.88
7040.00,0.88
7038.00,0.88
7036.00,0.87
7034.00,0.87
7032.00,0.87
7030.00,0.87
7028.00,0.87
7026.00,0.87
7024.00,0.87
7022.00,0.87
7020.00,0.87
7018.00,0.86
7016.00,0.86
7014.00,0.86
7012.00,0.86
7010.00,0.86
7008.00,0.86
7006.00,0.86
7004.00,0.86
7002.00,0.86
7000.00,0.85
6998.00,0.85
6996.00,0.85
6994.00,0.85
6992.00,0.85
6990.00,0.85
6988.00,0.85
6986.00,0.85
6984.00,0.85
6982.00,0.85
6980.00,0.85
6978.00,0.85
6976.00,0.85
6974.00,0.85
6972.00,0.85
6970.00,0.85
6968.00,0.85
6966.00,0.85
6964.00,0.85
6962.00,0.85
6960.00,0.85
6958.00,0.85
6956.00,0.85
6954.00,0.85
6952.00,0.85
6950.00,0.85
6948.00,0.85
6946.00,0.85
6944.00,0.85
6942.00,0.85
6940.00,0.85
6938.00,0.85
6936.00,0.85
6934.00,0.85
6932.00,0.85
6930.00,0.85
6928.00,0.85
6926.00,0.85
6924.00,0.85
6922.00,0.85
6920.00,0.85
6918.00,0.85
6916.00,0.85
6914.00,0.85
6912.00,0.85
6910.00,0.84
6908.00,0.84
6906.00,0.84
6904.00,0.84
6902.00,0.84
6900.00,0.84
6898.00,0.84
6896.00,0.84
6894.00,0.84
6892.00,0.84
6890.00,0.84
6888.00,0.84
6886.00,0.84
6884.00,0.84
6882.00,0.84
6880.00,0.84
6878.00,0.84
6876.00,0.84
6874.00,0.84
6872.00,0.84
6870.00,0.84
6868.00,0.84
6866.00,0.84
6864.00,0.84
6862.00,0.84
6860.00,0.84
6858.00,0.84
6856.00,0.84
6854.00,0.84
6852.00,0.84
6850.00,0.84
6848.00,0.84
6846.00,0.84
6844.00,0.84
6842.00,0.84
6840.00,0.84
6838.00,0.84
6836.00,0.84
6834.00,0.85
6832.00,0.85
6830.00,0.85
6828.00,0.85
6826.00,0.85
6824.00,0.85
6822.00,0.85
6820.00,0.85
6818.00,0.85
6816.00,0.85
6814.00,0.85
6812.00,0.85
6810.00,0.85
6808.00,0.85
6806.00,0.85
6804.00,0.85
6802.00,0.86
6800.00,0.86
6798.00,0.86
6796.00,0.86
6794.00,0.86
6792.00,0.86
6790.00,0.86
6788.00,0.86
6786.00,0.86
6784.00,0.86
6782.00,0.86
6780.00,0.86
6778.00,0.86
6776.00,0.86
6774.00,0.86
6772.00,0.86
6770.00,0.87
6768.00,0.87
6766.00,0.87
6764.00,0.87
6762.00,0.87
6760.00,0.87
6758.00,0.87
6756.00,0.87
6754.00,0.87
6752.00,0.87
6750.00,0.87
6748.00,0.87
6746.00,0.88
6744.00,0.88
6742.00,0.88
6740.00,0.88
6738.00,0.88
6736.00,0.88
6734.00,0.88
6732.00,0.88
6730.00,0.88
6728.00,0.88
6726.00,0.88
6724.00,0.89
6722.00,0.89
6720.00,0.89
6718.00,0.89
6716.00,0.89
6714.00,0.89
6712.00,0.89
6710.00,0.89
6708.00,0.89
6706.00,0.89
6704.00,0.89
6702.00,0.89
6700.00,0.89
6698.00,0.89
6696.00,0.89
6694.00,0.89
6692.00,0.89
6690.00,0.90
6688.00,0.90
6686.00,0.90
6684.00,0.90
6682.00,0.90
6680.00,0.90
6678.00,0.90
6676.00,0.90
6674.00,0.90
6672.00,0.90
6670.00,0.90
6668.00,0.90
6666.00,0.91
6664.00,0.91
6662.00,0.91
6660.00,0.91
6658.00,0.91
6656.00,0.91
6654.00,0.91
6652.00,0.91
6650.00,0.91
6648.00,0.91
6646.00,0.91
6644.00,0.92
6642.00,0.92
6640.00,0.92
6638.00,0.92
6636.00,0.92
6634.00,0.92
6632.00,0.92
6630.00,0.92
6628.00,0.92
6626.00,0.92
6624.00,0.92
6622.00,0.92
6620.00,0.93
6618.00,0.93
6616.00,0.93
6614.00,0.93
6612.00,0.93
6610.00,0.93
6608.00,0.93
6606.00,0.93
6604.00,0.93
6602.00,0.93
6600.00,0.94
6598.00,0.94
6596.00,0.94
6594.00,0.94
6592.00,0.94
6590.00,0.94
6588.00,0.94
6586.00,0.94
6584.00,0.94
6582.00,0.94
6580.00,0.94
6578.00,0.94
6576.00,0.94
6574.00,0.94
6572.00,0.94
6570.00,0.95
6568.00,0.95
6566.00,0.95
6564.00,0.95
6562.00,0.95
6560.00,0.95
6558.00,0.95
6556.00,0.95
6554.00,0.95
6552.00,0.95
6550.00,0.95
6548.00,0.96
6546.00,0.96
6544.00,0.96
6542.00,0.96
6540.00,0.96
6538.00,0.96
6536.00,0.96
6534.00,0.96
6532.00,0.96
6530.00,0.96
6528.00,0.96
6526.00,0.96
6524.00,0.96
6522.00,0.96
6520.00,0.96
6518.00,0.96
6516.00,0.96
6514.00,0.96
6512.00,0.96
6510.00,0.96
6508.00,0.96
6506.00,0.96
6504.00,0.96
6502.00,0.97
6500.00,0.97
6498.00,0.97
6496.00,0.97
6494.00,0.97
6492.00,0.97
6490.00,0.97
6488.00,0.97
6486.00,0.97
6484.00,0.97
6482.00,0.97
6480.00,0.97
6478.00,0.98
6476.00,0.98
6474.00,0.98
6472.00,0.98
6470.00,0.98
6468.00,0.98
6466.00,0.98
6464.00,0.98
6462.00,0.98
6460.00,0.98
6458.00,0.98
6456.00,0.98
6454.00,0.98
6452.00,0.98
6450.00,0.98
6448.00,0.98
6446.00,0.98
6444.00,0.98
6442.00,0.98
6440.00,0.98
6438.00,0.98
6436.00,0.98
6434.00,0.98
6432.00,0.98
6430.00,0.98
6428.00,0.98
6426.00,0.99
6424.00,0.99
6422.00,0.99
6420.00,0.99
6418.00,0.99
6416.00,0.99
6414.00,0.99
6412.00,0.99
6410.00,0.99
6408.00,0.99
6406.00,0.99
6404.00,0.99
6402.00,0.99
6400.00,0.99
6398.00,0.99
6396.00,0.99
6394.00,0.99
6392.00,0.99
6390.00,0.99
6388.00,0.99
6386.00,0.99
6384.00,0.99
6382.00,0.99
6380.00,0.99
6378.00,0.99
6376.00,0.99
6374.00,0.99
6372.00,0.99
6370.00,0.99
6368.00,1.00
6366.00,1.00
6364.00,1.00
6362.00,1.00
6360.00,1.00
6358.00,1.00
6356.00,1.00
6354.00,1.00
6352.00,1.00
6350.00,1.00
6348.00,1.00
6346.00,1.00
6344.00,1.00
6342.00,1.01
6340.00,1.01
6338.00,1.01
6336.00,1.01
6334.00,1.01
6332.00,1.01
6330.00,1.01
6328.00,1.01
6326.00,1.01
6324.00,1.01
6322.00,1.01
6320.00,1.01
6318.00,1.01
6316.00,1.01
6314.00,1.02
6312.00,1.02
6310.00,1.02
6308.00,1.02
6306.00,1.02
6304.00,1.02
6302.00,1.02
6300.00,1.02
6298.00,1.02
6296.00,1.02
6294.00,1.02
6292.00,1.02
6290.00,1.02
6288.00,1.02
6286.00,1.02
6284.00,1.02
6282.00,1.02
6280.00,1.02
6278.00,1.02
6276.00,1.02
6274.00,1.02
6272.00,1.02
6270.00,1.02
6268.00,1.02
6266.00,1.02
6264.00,1.02
6262.00,1.03
6260.00,1.03
6258.00,1.03
6256.00,1.03
6254.00,1.03
6252.00,1.03
6250.00,1.03
6248.00,1.03
6246.00,1.03
6244.00,1.03
6242.00,1.03
6240.00,1.03
6238.00,1.03
6236.00,1.03
6234.00,1.03
6232.00,1.03
6230.00,1.03
6228.00,1.03
6226.00,1.03
6224.00,1.03
6222.00,1.03
6220.00,1.03
6218.00,1.03
6216.00,1.03
6214.00,1.04
6212.00,1.04
6210.00,1.04
6208.00,1.04
6206.00,1.04
6204.00,1.04
6202.00,1.04
6200.00,1.04
6198.00,1.04
6196.00,1.04
6194.00,1.04
6192.00,1.04
6190.00,1.04
6188.00,1.04
6186.00,1.04
6184.00,1.04
6182.00,1.04
6180.00,1.04
6178.00,1.04
6176.00,1.04
6174.00,1.04
6172.00,1.04
6170.00,1.04
6168.00,1.05
6166.00,1.05
6164.00,1.05
6162.00,1.05
6160.00,1.05
6158.00,1.05
6156.00,1.05
6154.00,1.05
6152.00,1.05
6150.00,1.05
6148.00,1.05
6146.00,1.05
6144.00,1.05
6142.00,1.05
6140.00,1.05
6138.00,1.05
6136.00,1.05
6134.00,1.05
6132.00,1.05
6130.00,1.05
6128.00,1.05
6126.00,1.05
6124.00,1.05
6122.00,1.05
6120.00,1.06
6118.00,1.06
6116.00,1.06
6114.00,1.06
6112.00,1.06
6110.00,1.06
6108.00,1.06
6106.00,1.06
6104.00,1.06
6102.00,1.06
6100.00,1.06
6098.00,1.06
6096.00,1.06
6094.00,1.06
6092.00,1.06
6090.00,1.06
6088.00,1.06
6086.00,1.06
6084.00,1.06
6082.00,1.06
6080.00,1.06
6078.00,1.06
6076.00,1.06
6074.00,1.06
6072.00,1.06
6070.00,1.06
6068.00,1.06
6066.00,1.06
6064.00,1.07
6062.00,1.07
6060.00,1.07
6058.00,1.07
6056.00,1.07
6054.00,1.07
6052.00,1.07
6050.00,1.07
6048.00,1.07
6046.00,1.07
6044.00,1.07
6042.00,1.07
6040.00,1.07
6038.00,1.07
6036.00,1.07
6034.00,1.07
6032.00,1.07
6030.00,1.07
6028.00,1.07
6026.00,1.07
6024.00,1.07
6022.00,1.07
6020.00,1.07
6018.00,1.07
6016.00,1.07
6014.00,1.07
6012.00,1.07
6010.00,1.07
6008.00,1.07
6006.00,1.07
6004.00,1.07
6002.00,1.07
6000.00,1.07
5998.00,1.07
5996.00,1.07
5994.00,1.07
5992.00,1.07
5990.00,1.07
5988.00,1.07
5986.00,1.07
5984.00,1.07
5982.00,1.07
5980.00,1.07
5978.00,1.07
5976.00,1.06
5974.00,1.06
5972.00,1.06
5970.00,1.06
5968.00,1.06
5966.00,1.06
5964.00,1.06
5962.00,1.06
5960.00,1.06
5958.00,1.06
5956.00,1.05
5954.00,1.05
5952.00,1.05
5950.00,1.05
5948.00,1.05
5946.00,1.05
5944.00,1.05
5942.00,1.05
5940.00,1.05
5938.00,1.05
5936.00,1.04
5934.00,1.04
5932.00,1.04
5930.00,1.04
5928.00,1.04
5926.00,1.04
5924.00,1.04
5922.00,1.04
5920.00,1.04
5918.00,1.04
5916.00,1.04
5914.00,1.04
5912.00,1.04
5910.00,1.04
5908.00,1.04
5906.00,1.04
5904.00,1.04
5902.00,1.04
5900.00,1.04
5898.00,1.04
5896.00,1.04
5894.00,1.04
5892.00,1.04
5890.00,1.04
5888.00,1.04
5886.00,1.04
5884.00,1.04
5882.00,1.04
5880.00,1.04
5878.00,1.04
5876.00,1.04
5874.00,1.05
5872.00,1.05
5870.00,1.05
5868.00,1.05
5866.00,1.05
5864.00,1.05
5862.00,1.05
5860.00,1.05
5858.00,1.05
5856.00,1.05
5854.00,1.05
5852.00,1.05
5850.00,1.05
5848.00,1.05
5846.00,1.05
5844.00,1.05
5842.00,1.05
5840.00,1.05
5838.00,1.05
5836.00,1.05
5834.00,1.05
5832.00,1.05
5830.00,1.05
5828.00,1.05
5826.00,1.05
5824.00,1.05
5822.00,1.05
5820.00,1.05
5818.00,1.05
5816.00,1.05
5814.00,1.05
5812.00,1.05
5810.00,1.05
5808.00,1.05
5806.00,1.05
5804.00,1.05
5802.00,1.05
5800.00,1.05
5798.00,1.05
5796.00,1.05
5794.00,1.05
5792.00,1.05
5790.00,1.05
5788.00,1.05
5786.00,1.05
5784.00,1.05
5782.00,1.05
5780.00,1.05
5778.00,1.05
5776.00,1.05
5774.00,1.05
5772.00,1.05
5770.00,1.05
5768.00,1.05
5766.00,1.05
5764.00,1.05
5762.00,1.05
5760.00,1.05
5758.00,1.05
5756.00,1.05
5754.00,1.05
5752.00,1.05
5750.00,1.05
5748.00,1.05
5746.00,1.05
5744.00,1.05
5742.00,1.05
5740.00,1.05
5738.00,1.05
5736.00,1.05
5734.00,1.05
5732.00,1.05
5730.00,1.05
5728.00,1.06
5726.00,1.05
5724.00,1.05
5722.00,1.05
5720.00,1.05
5718.00,1.05
5716.00,1.05
5714.00,1.05
5712.00,1.05
5710.00,1.05
5708.00,1.05
5706.00,1.05
5704.00,1.05
5702.00,1.05
5700.00,1.05
5698.00,1.05
5696.00,1.05
5694.00,1.05
5692.00,1.05
5690.00,1.05
5688.00,1.05
5686.00,1.05
5684.00,1.05
5682.00,1.05
5680.00,1.05
5678.00,1.05
5676.00,1.05
5674.00,1.05
5672.00,1.05
5670.00,1.05
5668.00,1.05
5666.00,1.05
5664.00,1.05
5662.00,1.05
5660.00,1.05
5658.00,1.05
5656.00,1.05
5654.00,1.05
5652.00,1.05
5650.00,1.05
5648.00,1.05
5646.00,1.05
5644.00,1.05
5642.00,1.05
5640.00,1.05
5638.00,1.05
5636.00,1.05
5634.00,1.05
5632.00,1.05
5630.00,1.05
5628.00,1.05
5626.00,1.05
5624.00,1.05
5622.00,1.05
5620.00,1.06
5618.00,1.06
5616.00,1.06
5614.00,1.06
5612.00,1.06
5610.00,1.06
5608.00,1.06
5606.00,1.06
5604.00,1.06
5602.00,1.06
5600.00,1.06
5598.00,1.06
5596.00,1.06
5594.00,1.06
5592.00,1.06
5590.00,1.06
5588.00,1.06
5586.00,1.06
5584.00,1.06
5582.00,1.06
5580.00,1.06
5578.00,1.06
5576.00,1.06
5574.00,1.06
5572.00,1.06
5570.00,1.06
5568.00,1.06
5566.00,1.06
5564.00,1.06
5562.00,1.06
5560.00,1.06
5558.00,1.07
5556.00,1.07
5554.00,1.07
5552.00,1.07
5550.00,1.07
5548.00,1.07
5546.00,1.07
5544.00,1.07
5542.00,1.07
5540.00,1.07
5538.00,1.07
5536.00,1.07
5534.00,1.07
5532.00,1.07
5530.00,1.07
5528.00,1.07
5526.00,1.07
5524.00,1.07
5522.00,1.07
5520.00,1.07
5518.00,1.07
5516.00,1.07
5514.00,1.07
5512.00,1.07
5510.00,1.07
5508.00,1.07
5506.00,1.07
5504.00,1.07
5502.00,1.07
5500.00,1.07
5498.00,1.07
5496.00,1.07
5494.00,1.07
5492.00,1.07
5490.00,1.07
5488.00,1.07
5486.00,1.07
5484.00,1.07
5482.00,1.07
5480.00,1.07
5478.00,1.07
5476.00,1.07
5474.00,1.07
5472.00,1.07
5470.00,1.07
5468.00,1.07
5466.00,1.07
5464.00,1.07
5462.00,1.07
5460.00,1.07
5458.00,1.07
5456.00,1.07
5454.00,1.07
5452.00,1.07
5450.00,1.07
5448.00,1.07
5446.00,1.07
5444.00,1.07
5442.00,1.07
5440.00,1.07
5438.00,1.07
5436.00,1.07
5434.00,1.07
5432.00,1.07
5430.00,1.07
5428.00,1.07
5426.00,1.07
5424.00,1.07
5422.00,1.07
5420.00,1.07
5418.00,1.07
5416.00,1.07
5414.00,1.07
5412.00,1.07
5410.00,1.07
5408.00,1.07
5406.00,1.07
5404.00,1.07
5402.00,1.07
5400.00,1.07
5398.00,1.07
5396.00,1.07
5394.00,1.07
5392.00,1.07
5390.00,1.06
5388.00,1.06
5386.00,1.06
5384.00,1.06
5382.00,1.06
5380.00,1.06
5378.00,1.06
5376.00,1.05
5374.00,1.05
5372.00,1.05
5370.00,1.05
5368.00,1.04
5366.00,1.04
5364.00,1.04
5362.00,1.04
5360.00,1.03
5358.00,1.03
5356.00,1.02
5354.00,1.02
5352.00,1.02
5350.00,1.01
5348.00,1.01
5346.00,1.00
5344.00,1.00
5342.00,0.99
5340.00,0.99
5338.00,0.98
5336.00,0.98
5334.00,0.97
5332.00,0.97
5330.00,0.96
5328.00,0.95
5326.00,0.95
5324.00,0.94
5322.00,0.93
5320.00,0.93
5318.00,0.92
5316.00,0.91
5314.00,0.90
5312.00,0.89
5310.00,0.89
5308.00,0.88
5306.00,0.87
5304.00,0.86
5302.00,0.85
5300.00,0.84
5298.00,0.84
5296.00,0.83
5294.00,0.82
5292.00,0.81
5290.00,0.80
5288.00,0.79
5286.00,0.79
5284.00,0.78
5282.00,0.77
5280.00,0.76
5278.00,0.76
5276.00,0.75
5274.00,0.74
5272.00,0.74
5270.00,0.73
5268.00,0.73
5266.00,0.72
5264.00,0.72
5262.00,0.71
5260.00,0.71
5258.00,0.70
5256.00,0.70
5254.00,0.69
5252.00,0.69
5250.00,0.69
5248.00,0.68
5246.00,0.68
5244.00,0.67
5242.00,0.67
5240.00,0.67
5238.00,0.67
5236.00,0.66
5234.00,0.66
5232.00,0.66
5230.00,0.65
5228.00,0.65
5226.00,0.65
5224.00,0.65
5222.00,0.64
5220.00,0.64
5218.00,0.64
5216.00,0.64
5214.00,0.64
5212.00,0.64
5210.00,0.63
5208.00,0.63
5206.00,0.63
5204.00,0.63
5202.00,0.63
5200.00,0.63
5198.00,0.63
5196.00,0.63
5194.00,0.63
5192.00,0.62
5190.00,0.62
5188.00,0.62
5186.00,0.62
5184.00,0.62
5182.00,0.62
5180.00,0.62
5178.00,0.62
5176.00,0.62
5174.00,0.62
5172.00,0.62
5170.00,0.62
5168.00,0.62
5166.00,0.62
5164.00,0.62
5162.00,0.62
5160.00,0.62
5158.00,0.63
5156.00,0.63
5154.00,0.63
5152.00,0.63
5150.00,0.63
5148.00,0.63
5146.00,0.63
5144.00,0.63
5142.00,0.63
5140.00,0.64
5138.00,0.64
5136.00,0.64
5134.00,0.64
5132.00,0.64
5130.00,0.65
5128.00,0.65
5126.00,0.65
5124.00,0.65
5122.00,0.65
5120.00,0.66
5118.00,0.66
5116.00,0.66
5114.00,0.66
5112.00,0.66
5110.00,0.67
5108.00,0.67
5106.00,0.67
5104.00,0.67
5102.00,0.67
5100.00,0.67
5098.00,0.68
5096.00,0.68
5094.00,0.68
5092.00,0.68
5090.00,0.68
5088.00,0.69
5086.00,0.69
5084.00,0.69
5082.00,0.69
5080.00,0.70
5078.00,0.70
5076.00,0.70
5074.00,0.70
5072.00,0.71
5070.00,0.71
5068.00,0.71
5066.00,0.71
5064.00,0.72
5062.00,0.72
5060.00,0.72
5058.00,0.72
5056.00,0.73
5054.00,0.73
5052.00,0.73
5050.00,0.73
5048.00,0.73
5046.00,0.74
5044.00,0.74
5042.00,0.74
5040.00,0.74
5038.00,0.75
5036.00,0.75
5034.00,0.75
5032.00,0.75
5030.00,0.76
5028.00,0.76
5026.00,0.76
5024.00,0.76
5022.00,0.77
5020.00,0.77
5018.00,0.77
5016.00,0.77
5014.00,0.77
5012.00,0.78
5010.00,0.78
5008.00,0.78
5006.00,0.78
5004.00,0.79
5002.00,0.79
5000.00,0.79
4998.00,0.79
4996.00,0.79
4994.00,0.80
4992.00,0.80
4990.00,0.80
4988.00,0.80
4986.00,0.81
4984.00,0.81
4982.00,0.81
4980.00,0.81
4978.00,0.82
4976.00,0.82
4974.00,0.82
4972.00,0.82
4970.00,0.82
4968.00,0.83
4966.00,0.83
4964.00,0.83
4962.00,0.83
4960.00,0.83
4958.00,0.84
4956.00,0.84
4954.00,0.84
4952.00,0.84
4950.00,0.84
4948.00,0.84
4946.00,0.85
4944.00,0.85
4942.00,0.85
4940.00,0.85
4938.00,0.85
4936.00,0.86
4934.00,0.86
4932.00,0.86
4930.00,0.86
4928.00,0.86
4926.00,0.87
4924.00,0.87
4922.00,0.87
4920.00,0.87
4918.00,0.87
4916.00,0.88
4914.00,0.88
4912.00,0.88
4910.00,0.88
4908.00,0.88
4906.00,0.88
4904.00,0.88
4902.00,0.89
4900.00,0.89
4898.00,0.89
4896.00,0.89
4894.00,0.89
4892.00,0.89
4890.00,0.89
4888.00,0.89
4886.00,0.90
4884.00,0.90
4882.00,0.90
4880.00,0.90
4878.00,0.90
4876.00,0.90
4874.00,0.90
4872.00,0.90
4870.00,0.91
4868.00,0.91
4866.00,0.91
4864.00,0.91
4862.00,0.91
4860.00,0.91
4858.00,0.91
4856.00,0.91
4854.00,0.91
4852.00,0.91
4850.00,0.92
4848.00,0.92
4846.00,0.92
4844.00,0.92
4842.00,0.92
4840.00,0.92
4838.00,0.92
4836.00,0.93
4834.00,0.93
4832.00,0.93
4830.00,0.93
4828.00,0.93
4826.00,0.93
4824.00,0.94
4822.00,0.94
4820.00,0.94
4818.00,0.94
4816.00,0.94
4814.00,0.94
4812.00,0.95
4810.00,0.95
4808.00,0.95
4806.00,0.95
4804.00,0.95
4802.00,0.96
4800.00,0.96
4798.00,0.96
4796.00,0.96
4794.00,0.96
4792.00,0.96
4790.00,0.96
4788.00,0.97
4786.00,0.97
4784.00,0.97
4782.00,0.97
4780.00,0.97
4778.00,0.97
4776.00,0.97
4774.00,0.98
4772.00,0.98
4770.00,0.98
4768.00,0.98
4766.00,0.98
4764.00,0.98
4762.00,0.99
4760.00,0.99
4758.00,0.99
4756.00,0.99
4754.00,0.99
4752.00,0.99
4750.00,1.00
4748.00,1.00
4746.00,1.00
4744.00,1.00
4742.00,1.00
4740.00,1.00
4738.00,1.00
4736.00,1.00
4734.00,1.01
4732.00,1.01
4730.00,1.01
4728.00,1.01
4726.00,1.01
4724.00,1.01
4722.00,1.01
4720.00,1.01
4718.00,1.02
4716.00,1.02
4714.00,1.02
4712.00,1.02
4710.00,1.02
4708.00,1.02
4706.00,1.02
4704.00,1.02
4702.00,1.02
4700.00,1.03
4698.00,1.03
4696.00,1.03
4694.00,1.03
4692.00,1.03
4690.00,1.03
4688.00,1.03
4686.00,1.03
4684.00,1.03
4682.00,1.03
4680.00,1.04
4678.00,1.04
4676.00,1.04
4674.00,1.04
4672.00,1.04
4670.00,1.04
4668.00,1.04
4666.00,1.04
4664.00,1.04
4662.00,1.05
4660.00,1.05
4658.00,1.05
4656.00,1.05
4654.00,1.05
4652.00,1.05
4650.00,1.05
4648.00,1.05
4646.00,1.05
4644.00,1.05
4642.00,1.05
4640.00,1.05
4638.00,1.05
4636.00,1.05
4634.00,1.05
4632.00,1.06
4630.00,1.06
4628.00,1.06
4626.00,1.06
4624.00,1.06
4622.00,1.06
4620.00,1.06
4618.00,1.06
4616.00,1.06
4614.00,1.06
4612.00,1.06
4610.00,1.06
4608.00,1.06
4606.00,1.06
4604.00,1.06
4602.00,1.06
4600.00,1.06
4598.00,1.07
4596.00,1.07
4594.00,1.07
4592.00,1.07
4590.00,1.07
4588.00,1.07
4586.00,1.07
4584.00,1.07
4582.00,1.07
4580.00,1.07
4578.00,1.07
4576.00,1.07
4574.00,1.07
4572.00,1.07
4570.00,1.07
4568.00,1.07
4566.00,1.07
4564.00,1.07
4562.00,1.07
4560.00,1.07
4558.00,1.07
4556.00,1.07
4554.00,1.07
4552.00,1.07
4550.00,1.07
4548.00,1.07
4546.00,1.07
4544.00,1.07
4542.00,1.07
4540.00,1.07
4538.00,1.07
4536.00,1.07
4534.00,1.07
4532.00,1.07
4530.00,1.07
4528.00,1.07
4526.00,1.07
4524.00,1.07
4522.00,1.07
4520.00,1.07
4518.00,1.07
4516.00,1.07
4514.00,1.07
4512.00,1.07
4510.00,1.07
4508.00,1.07
4506.00,1.07
4504.00,1.07
4502.00,1.07
4500.00,1.07
4498.00,1.07
4496.00,1.07
4494.00,1.07
4492.00,1.07
4490.00,1.07
4488.00,1.07
4486.00,1.07
4484.00,1.07
4482.00,1.07
4480.00,1.07
4478.00,1.07
4476.00,1.07
4474.00,1.07
4472.00,1.07
4470.00,1.07
4468.00,1.07
4466.00,1.06
4464.00,1.06
4462.00,1.06
4460.00,1.06
4458.00,1.06
4456.00,1.05
4454.00,1.05
4452.00,1.05
4450.00,1.04
4448.00,1.04
4446.00,1.03
4444.00,1.03
4442.00,1.03
4440.00,1.02
4438.00,1.02
4436.00,1.01
4434.00,1.01
4432.00,1.00
4430.00,1.00
4428.00,0.99
4426.00,0.99
4424.00,0.98
4422.00,0.98
4420.00,0.98
4418.00,0.97
4416.00,0.97
4414.00,0.97
4412.00,0.97
4410.00,0.97
4408.00,0.97
4406.00,0.97
4404.00,0.97
4402.00,0.97
4400.00,0.97
4398.00,0.98
4396.00,0.98
4394.00,0.98
4392.00,0.98
4390.00,0.99
4388.00,0.99
4386.00,0.99
4384.00,1.00
4382.00,1.00
4380.00,1.00
4378.00,1.00
4376.00,1.00
4374.00,1.00
4372.00,1.00
4370.00,1.00
4368.00,1.00
4366.00,1.00
4364.00,1.00
4362.00,1.00
4360.00,1.00
4358.00,1.00
4356.00,1.00
4354.00,1.00
4352.00,0.99
4350.00,0.99
4348.00,0.99
4346.00,0.99
4344.00,0.99
4342.00,0.99
4340.00,0.99
4338.00,0.99
4336.00,0.99
4334.00,1.00
4332.00,1.00
4330.00,1.00
4328.00,1.00
4326.00,1.01
4324.00,1.01
4322.00,1.01
4320.00,1.02
4318.00,1.02
4316.00,1.03
4314.00,1.03
4312.00,1.04
4310.00,1.04
4308.00,1.04
4306.00,1.05
4304.00,1.05
4302.00,1.05
4300.00,1.06
4298.00,1.06
4296.00,1.06
4294.00,1.06
4292.00,1.06
4290.00,1.06
4288.00,1.07
4286.00,1.07
4284.00,1.07
4282.00,1.07
4280.00,1.06
4278.00,1.06
4276.00,1.06
4274.00,1.06
4272.00,1.06
4270.00,1.06
4268.00,1.06
4266.00,1.06
4264.00,1.06
4262.00,1.05
4260.00,1.05
4258.00,1.05
4256.00,1.05
4254.00,1.05
4252.00,1.05
4250.00,1.05
4248.00,1.05
4246.00,1.05
4244.00,1.05
4242.00,1.05
4240.00,1.05
4238.00,1.06
4236.00,1.06
4234.00,1.06
4232.00,1.06
4230.00,1.06
4228.00,1.06
4226.00,1.06
4224.00,1.06
4222.00,1.07
4220.00,1.07
4218.00,1.07
4216.00,1.07
4214.00,1.07
4212.00,1.07
4210.00,1.07
4208.00,1.07
4206.00,1.07
4204.00,1.07
4202.00,1.07
4200.00,1.07
4198.00,1.07
4196.00,1.07
4194.00,1.07
4192.00,1.07
4190.00,1.07
4188.00,1.07
4186.00,1.07
4184.00,1.07
4182.00,1.07
4180.00,1.07
4178.00,1.07
4176.00,1.07
4174.00,1.06
4172.00,1.06
4170.00,1.06
4168.00,1.06
4166.00,1.06
4164.00,1.06
4162.00,1.06
4160.00,1.06
4158.00,1.06
4156.00,1.06
4154.00,1.06
4152.00,1.06
4150.00,1.06
4148.00,1.06
4146.00,1.06
4144.00,1.06
4142.00,1.07
4140.00,1.07
4138.00,1.07
4136.00,1.07
4134.00,1.07
4132.00,1.07
4130.00,1.07
4128.00,1.07
4126.00,1.07
4124.00,1.07
4122.00,1.07
4120.00,1.07
4118.00,1.07
4116.00,1.07
4114.00,1.07
4112.00,1.07
4110.00,1.07
4108.00,1.07
4106.00,1.07
4104.00,1.07
4102.00,1.07
4100.00,1.07
4098.00,1.06
4096.00,1.06
4094.00,1.06
4092.00,1.06
4090.00,1.06
4088.00,1.06
4086.00,1.06
4084.00,1.05
4082.00,1.05
4080.00,1.05
4078.00,1.05
4076.00,1.05
4074.00,1.05
4072.00,1.04
4070.00,1.04
4068.00,1.04
4066.00,1.04
4064.00,1.04
4062.00,1.04
4060.00,1.04
4058.00,1.04
4056.00,1.04
4054.00,1.04
4052.00,1.04
4050.00,1.04
4048.00,1.04
4046.00,1.04
4044.00,1.04
4042.00,1.04
4040.00,1.04
4038.00,1.04
4036.00,1.04
4034.00,1.04
4032.00,1.04
4030.00,1.04
4028.00,1.05
4026.00,1.05
4024.00,1.05
4022.00,1.05
4020.00,1.05
4018.00,1.05
4016.00,1.06
4014.00,1.06
4012.00,1.06
4010.00,1.06
4008.00,1.06
4006.00,1.06
4004.00,1.07
4002.00,1.07
4000.00,1.07
