创建为新数据集,样品 213 用户 Administrator 日期 星期六, 七月 27 2019
cm-1,%T
10000.00,1.54
9999.00,1.53
9998.00,1.52
9997.00,1.52
9996.00,1.51
9995.00,1.51
9994.00,1.50
9993.00,1.50
9992.00,1.49
9991.00,1.49
9990.00,1.49
9989.00,1.48
9988.00,1.48
9987.00,1.48
9986.00,1.48
9985.00,1.47
9984.00,1.47
9983.00,1.47
9982.00,1.47
9981.00,1.47
9980.00,1.46
9979.00,1.46
9978.00,1.46
9977.00,1.45
9976.00,1.45
9975.00,1.45
9974.00,1.44
9973.00,1.44
9972.00,1.44
9971.00,1.44
9970.00,1.43
9969.00,1.43
9968.00,1.43
9967.00,1.43
9966.00,1.42
9965.00,1.42
9964.00,1.41
9963.00,1.41
9962.00,1.40
9961.00,1.40
9960.00,1.39
9959.00,1.38
9958.00,1.37
9957.00,1.36
9956.00,1.35
9955.00,1.34
9954.00,1.33
9953.00,1.32
9952.00,1.31
9951.00,1.30
9950.00,1.30
9949.00,1.29
9948.00,1.28
9947.00,1.28
9946.00,1.27
9945.00,1.26
9944.00,1.26
9943.00,1.25
9942.00,1.24
9941.00,1.24
9940.00,1.23
9939.00,1.23
9938.00,1.22
9937.00,1.22
9936.00,1.22
9935.00,1.21
9934.00,1.21
9933.00,1.21
9932.00,1.21
9931.00,1.21
9930.00,1.21
9929.00,1.22
9928.00,1.22
9927.00,1.22
9926.00,1.23
9925.00,1.24
9924.00,1.24
9923.00,1.25
9922.00,1.25
9921.00,1.26
9920.00,1.26
9919.00,1.27
9918.00,1.27
9917.00,1.27
9916.00,1.28
9915.00,1.28
9914.00,1.28
9913.00,1.29
9912.00,1.29
9911.00,1.30
9910.00,1.30
9909.00,1.31
9908.00,1.31
9907.00,1.32
9906.00,1.32
9905.00,1.33
9904.00,1.33
9903.00,1.33
9902.00,1.34
9901.00,1.34
9900.00,1.34
9899.00,1.34
9898.00,1.34
9897.00,1.34
9896.00,1.34
9895.00,1.34
9894.00,1.34
9893.00,1.34
9892.00,1.34
9891.00,1.34
9890.00,1.35
9889.00,1.35
9888.00,1.35
9887.00,1.35
9886.00,1.35
9885.00,1.35
9884.00,1.35
9883.00,1.35
9882.00,1.35
9881.00,1.35
9880.00,1.35
9879.00,1.35
9878.00,1.34
9877.00,1.34
9876.00,1.34
9875.00,1.34
9874.00,1.34
9873.00,1.34
9872.00,1.33
9871.00,1.33
9870.00,1.33
9869.00,1.33
9868.00,1.33
9867.00,1.32
9866.00,1.32
9865.00,1.32
9864.00,1.31
9863.00,1.31
9862.00,1.30
9861.00,1.30
9860.00,1.29
9859.00,1.29
9858.00,1.28
9857.00,1.27
9856.00,1.27
9855.00,1.26
9854.00,1.26
9853.00,1.25
9852.00,1.24
9851.00,1.24
9850.00,1.23
9849.00,1.22
9848.00,1.22
9847.00,1.21
9846.00,1.20
9845.00,1.19
9844.00,1.19
9843.00,1.18
9842.00,1.18
9841.00,1.17
9840.00,1.17
9839.00,1.17
9838.00,1.16
9837.00,1.16
9836.00,1.16
9835.00,1.16
9834.00,1.16
9833.00,1.16
9832.00,1.16
9831.00,1.17
9830.00,1.17
9829.00,1.17
9828.00,1.18
9827.00,1.18
9826.00,1.19
9825.00,1.19
9824.00,1.20
9823.00,1.21
9822.00,1.22
9821.00,1.23
9820.00,1.24
9819.00,1.25
9818.00,1.26
9817.00,1.27
9816.00,1.28
9815.00,1.28
9814.00,1.29
9813.00,1.30
9812.00,1.30
9811.00,1.31
9810.00,1.31
9809.00,1.32
9808.00,1.32
9807.00,1.32
9806.00,1.33
9805.00,1.33
9804.00,1.33
9803.00,1.34
9802.00,1.34
9801.00,1.34
9800.00,1.34
9799.00,1.34
9798.00,1.34
9797.00,1.34
9796.00,1.34
9795.00,1.34
9794.00,1.34
9793.00,1.34
9792.00,1.34
9791.00,1.34
9790.00,1.34
9789.00,1.34
9788.00,1.34
9787.00,1.34
9786.00,1.34
9785.00,1.35
9784.00,1.35
9783.00,1.35
9782.00,1.36
9781.00,1.36
9780.00,1.37
9779.00,1.37
9778.00,1.37
9777.00,1.38
9776.00,1.38
9775.00,1.38
9774.00,1.39
9773.00,1.39
9772.00,1.39
9771.00,1.39
9770.00,1.39
9769.00,1.39
9768.00,1.40
9767.00,1.40
9766.00,1.40
9765.00,1.40
9764.00,1.40
9763.00,1.40
9762.00,1.40
9761.00,1.40
9760.00,1.40
9759.00,1.40
9758.00,1.40
9757.00,1.39
9756.00,1.39
9755.00,1.38
9754.00,1.38
9753.00,1.37
9752.00,1.37
9751.00,1.36
9750.00,1.36
9749.00,1.36
9748.00,1.35
9747.00,1.35
9746.00,1.35
9745.00,1.34
9744.00,1.34
9743.00,1.34
9742.00,1.33
9741.00,1.33
9740.00,1.32
9739.00,1.32
9738.00,1.31
9737.00,1.30
9736.00,1.29
9735.00,1.29
9734.00,1.28
9733.00,1.27
9732.00,1.26
9731.00,1.25
9730.00,1.25
9729.00,1.24
9728.00,1.23
9727.00,1.22
9726.00,1.22
9725.00,1.21
9724.00,1.20
9723.00,1.19
9722.00,1.18
9721.00,1.17
9720.00,1.16
9719.00,1.15
9718.00,1.15
9717.00,1.14
9716.00,1.13
9715.00,1.13
9714.00,1.12
9713.00,1.12
9712.00,1.12
9711.00,1.11
9710.00,1.11
9709.00,1.11
9708.00,1.11
9707.00,1.11
9706.00,1.11
9705.00,1.11
9704.00,1.11
9703.00,1.11
9702.00,1.11
9701.00,1.11
9700.00,1.11
9699.00,1.11
9698.00,1.11
9697.00,1.11
9696.00,1.11
9695.00,1.11
9694.00,1.11
9693.00,1.11
9692.00,1.10
9691.00,1.10
9690.00,1.10
9689.00,1.10
9688.00,1.10
9687.00,1.10
9686.00,1.10
9685.00,1.10
9684.00,1.09
9683.00,1.09
9682.00,1.09
9681.00,1.09
9680.00,1.09
9679.00,1.09
9678.00,1.09
9677.00,1.08
9676.00,1.08
9675.00,1.08
9674.00,1.08
9673.00,1.08
9672.00,1.08
9671.00,1.08
9670.00,1.08
9669.00,1.08
9668.00,1.08
9667.00,1.08
9666.00,1.08
9665.00,1.08
9664.00,1.09
9663.00,1.09
9662.00,1.09
9661.00,1.09
9660.00,1.09
9659.00,1.09
9658.00,1.10
9657.00,1.10
9656.00,1.10
9655.00,1.10
9654.00,1.11
9653.00,1.11
9652.00,1.12
9651.00,1.12
9650.00,1.13
9649.00,1.13
9648.00,1.14
9647.00,1.14
9646.00,1.15
9645.00,1.15
9644.00,1.16
9643.00,1.16
9642.00,1.17
9641.00,1.17
9640.00,1.17
9639.00,1.18
9638.00,1.18
9637.00,1.18
9636.00,1.19
9635.00,1.19
9634.00,1.19
9633.00,1.19
9632.00,1.20
9631.00,1.20
9630.00,1.20
9629.00,1.20
9628.00,1.21
9627.00,1.21
9626.00,1.21
9625.00,1.21
9624.00,1.21
9623.00,1.21
9622.00,1.21
9621.00,1.21
9620.00,1.21
9619.00,1.21
9618.00,1.21
9617.00,1.21
9616.00,1.21
9615.00,1.21
9614.00,1.21
9613.00,1.21
9612.00,1.21
9611.00,1.21
9610.00,1.21
9609.00,1.21
9608.00,1.21
9607.00,1.21
9606.00,1.21
9605.00,1.21
9604.00,1.21
9603.00,1.20
9602.00,1.20
9601.00,1.20
9600.00,1.19
9599.00,1.19
9598.00,1.18
9597.00,1.18
9596.00,1.17
9595.00,1.17
9594.00,1.17
9593.00,1.16
9592.00,1.16
9591.00,1.16
9590.00,1.16
9589.00,1.16
9588.00,1.16
9587.00,1.16
9586.00,1.16
9585.00,1.16
9584.00,1.16
9583.00,1.16
9582.00,1.17
9581.00,1.17
9580.00,1.17
9579.00,1.17
9578.00,1.18
9577.00,1.18
9576.00,1.19
9575.00,1.19
9574.00,1.20
9573.00,1.20
9572.00,1.21
9571.00,1.22
9570.00,1.22
9569.00,1.23
9568.00,1.23
9567.00,1.24
9566.00,1.24
9565.00,1.25
9564.00,1.25
9563.00,1.25
9562.00,1.25
9561.00,1.25
9560.00,1.25
9559.00,1.25
9558.00,1.25
9557.00,1.25
9556.00,1.25
9555.00,1.25
9554.00,1.24
9553.00,1.24
9552.00,1.23
9551.00,1.23
9550.00,1.23
9549.00,1.22
9548.00,1.22
9547.00,1.21
9546.00,1.21
9545.00,1.20
9544.00,1.20
9543.00,1.19
9542.00,1.19
9541.00,1.19
9540.00,1.19
9539.00,1.19
9538.00,1.19
9537.00,1.19
9536.00,1.19
9535.00,1.19
9534.00,1.19
9533.00,1.19
9532.00,1.19
9531.00,1.20
9530.00,1.20
9529.00,1.20
9528.00,1.21
9527.00,1.21
9526.00,1.22
9525.00,1.22
9524.00,1.23
9523.00,1.23
9522.00,1.24
9521.00,1.24
9520.00,1.25
9519.00,1.25
9518.00,1.26
9517.00,1.26
9516.00,1.27
9515.00,1.27
9514.00,1.28
9513.00,1.28
9512.00,1.28
9511.00,1.29
9510.00,1.29
9509.00,1.29
9508.00,1.29
9507.00,1.29
9506.00,1.29
9505.00,1.29
9504.00,1.29
9503.00,1.29
9502.00,1.29
9501.00,1.29
9500.00,1.29
9499.00,1.28
9498.00,1.28
9497.00,1.28
9496.00,1.28
9495.00,1.28
9494.00,1.28
9493.00,1.27
9492.00,1.27
9491.00,1.27
9490.00,1.27
9489.00,1.27
9488.00,1.27
9487.00,1.26
9486.00,1.26
9485.00,1.26
9484.00,1.26
9483.00,1.26
9482.00,1.25
9481.00,1.25
9480.00,1.25
9479.00,1.25
9478.00,1.25
9477.00,1.25
9476.00,1.25
9475.00,1.25
9474.00,1.25
9473.00,1.25
9472.00,1.25
9471.00,1.26
9470.00,1.26
9469.00,1.26
9468.00,1.26
9467.00,1.26
9466.00,1.26
9465.00,1.26
9464.00,1.26
9463.00,1.25
9462.00,1.25
9461.00,1.25
9460.00,1.24
9459.00,1.24
9458.00,1.24
9457.00,1.23
9456.00,1.23
9455.00,1.23
9454.00,1.22
9453.00,1.22
9452.00,1.22
9451.00,1.21
9450.00,1.21
9449.00,1.20
9448.00,1.20
9447.00,1.19
9446.00,1.18
9445.00,1.18
9444.00,1.17
9443.00,1.17
9442.00,1.17
9441.00,1.16
9440.00,1.16
9439.00,1.16
9438.00,1.16
9437.00,1.15
9436.00,1.15
9435.00,1.15
9434.00,1.15
9433.00,1.16
9432.00,1.16
9431.00,1.16
9430.00,1.16
9429.00,1.16
9428.00,1.16
9427.00,1.16
9426.00,1.16
9425.00,1.16
9424.00,1.15
9423.00,1.15
9422.00,1.15
9421.00,1.15
9420.00,1.15
9419.00,1.15
9418.00,1.15
9417.00,1.15
9416.00,1.15
9415.00,1.15
9414.00,1.15
9413.00,1.14
9412.00,1.14
9411.00,1.14
9410.00,1.14
9409.00,1.14
9408.00,1.14
9407.00,1.15
9406.00,1.15
9405.00,1.15
9404.00,1.15
9403.00,1.15
9402.00,1.16
9401.00,1.16
9400.00,1.16
9399.00,1.17
9398.00,1.17
9397.00,1.18
9396.00,1.18
9395.00,1.19
9394.00,1.19
9393.00,1.20
9392.00,1.20
9391.00,1.21
9390.00,1.22
9389.00,1.22
9388.00,1.22
9387.00,1.23
9386.00,1.23
9385.00,1.24
9384.00,1.24
9383.00,1.24
9382.00,1.24
9381.00,1.24
9380.00,1.24
9379.00,1.24
9378.00,1.24
9377.00,1.24
9376.00,1.24
9375.00,1.24
9374.00,1.24
9373.00,1.24
9372.00,1.23
9371.00,1.23
9370.00,1.23
9369.00,1.23
9368.00,1.23
9367.00,1.23
9366.00,1.23
9365.00,1.23
9364.00,1.23
9363.00,1.23
9362.00,1.23
9361.00,1.23
9360.00,1.23
9359.00,1.23
9358.00,1.23
9357.00,1.23
9356.00,1.23
9355.00,1.23
9354.00,1.23
9353.00,1.24
9352.00,1.24
9351.00,1.25
9350.00,1.25
9349.00,1.25
9348.00,1.26
9347.00,1.26
9346.00,1.27
9345.00,1.27
9344.00,1.27
9343.00,1.27
9342.00,1.28
9341.00,1.28
9340.00,1.28
9339.00,1.28
9338.00,1.28
9337.00,1.27
9336.00,1.27
9335.00,1.27
9334.00,1.27
9333.00,1.27
9332.00,1.27
9331.00,1.26
9330.00,1.26
9329.00,1.25
9328.00,1.25
9327.00,1.24
9326.00,1.24
9325.00,1.23
9324.00,1.22
9323.00,1.21
9322.00,1.20
9321.00,1.19
9320.00,1.18
9319.00,1.17
9318.00,1.16
9317.00,1.16
9316.00,1.15
9315.00,1.14
9314.00,1.13
9313.00,1.13
9312.00,1.12
9311.00,1.12
9310.00,1.12
9309.00,1.11
9308.00,1.11
9307.00,1.11
9306.00,1.11
9305.00,1.11
9304.00,1.11
9303.00,1.11
9302.00,1.11
9301.00,1.12
9300.00,1.12
9299.00,1.13
9298.00,1.13
9297.00,1.14
9296.00,1.15
9295.00,1.16
9294.00,1.16
9293.00,1.17
9292.00,1.18
9291.00,1.19
9290.00,1.19
9289.00,1.20
9288.00,1.21
9287.00,1.22
9286.00,1.22
9285.00,1.23
9284.00,1.24
9283.00,1.25
9282.00,1.26
9281.00,1.26
9280.00,1.27
9279.00,1.28
9278.00,1.28
9277.00,1.29
9276.00,1.29
9275.00,1.29
9274.00,1.30
9273.00,1.30
9272.00,1.30
9271.00,1.30
9270.00,1.30
9269.00,1.30
9268.00,1.30
9267.00,1.30
9266.00,1.30
9265.00,1.30
9264.00,1.31
9263.00,1.31
9262.00,1.31
9261.00,1.31
9260.00,1.31
9259.00,1.31
9258.00,1.31
9257.00,1.32
9256.00,1.32
9255.00,1.32
9254.00,1.32
9253.00,1.32
9252.00,1.32
9251.00,1.32
9250.00,1.32
9249.00,1.32
9248.00,1.32
9247.00,1.33
9246.00,1.33
9245.00,1.33
9244.00,1.34
9243.00,1.34
9242.00,1.34
9241.00,1.35
9240.00,1.35
9239.00,1.35
9238.00,1.36
9237.00,1.36
9236.00,1.36
9235.00,1.36
9234.00,1.37
9233.00,1.37
9232.00,1.37
9231.00,1.37
9230.00,1.38
9229.00,1.38
9228.00,1.38
9227.00,1.38
9226.00,1.38
9225.00,1.39
9224.00,1.39
9223.00,1.39
9222.00,1.39
9221.00,1.39
9220.00,1.39
9219.00,1.38
9218.00,1.38
9217.00,1.38
9216.00,1.38
9215.00,1.38
9214.00,1.38
9213.00,1.38
9212.00,1.38
9211.00,1.37
9210.00,1.37
9209.00,1.37
9208.00,1.37
9207.00,1.37
9206.00,1.37
9205.00,1.37
9204.00,1.37
9203.00,1.37
9202.00,1.37
9201.00,1.37
9200.00,1.37
9199.00,1.37
9198.00,1.37
9197.00,1.37
9196.00,1.37
9195.00,1.38
9194.00,1.38
9193.00,1.38
9192.00,1.38
9191.00,1.38
9190.00,1.39
9189.00,1.39
9188.00,1.39
9187.00,1.39
9186.00,1.39
9185.00,1.39
9184.00,1.39
9183.00,1.39
9182.00,1.38
9181.00,1.38
9180.00,1.38
9179.00,1.38
9178.00,1.38
9177.00,1.38
9176.00,1.37
9175.00,1.37
9174.00,1.37
9173.00,1.36
9172.00,1.36
9171.00,1.35
9170.00,1.34
9169.00,1.34
9168.00,1.33
9167.00,1.33
9166.00,1.32
9165.00,1.32
9164.00,1.31
9163.00,1.31
9162.00,1.30
9161.00,1.30
9160.00,1.30
9159.00,1.29
9158.00,1.29
9157.00,1.29
9156.00,1.28
9155.00,1.28
9154.00,1.28
9153.00,1.28
9152.00,1.27
9151.00,1.27
9150.00,1.27
9149.00,1.27
9148.00,1.27
9147.00,1.26
9146.00,1.27
9145.00,1.27
9144.00,1.27
9143.00,1.27
9142.00,1.27
9141.00,1.27
9140.00,1.27
9139.00,1.27
9138.00,1.27
9137.00,1.27
9136.00,1.27
9135.00,1.27
9134.00,1.28
9133.00,1.28
9132.00,1.28
9131.00,1.28
9130.00,1.28
9129.00,1.29
9128.00,1.29
9127.00,1.29
9126.00,1.30
9125.00,1.30
9124.00,1.30
9123.00,1.31
9122.00,1.31
9121.00,1.31
9120.00,1.32
9119.00,1.32
9118.00,1.32
9117.00,1.32
9116.00,1.32
9115.00,1.32
9114.00,1.32
9113.00,1.32
9112.00,1.32
9111.00,1.32
9110.00,1.32
9109.00,1.32
9108.00,1.32
9107.00,1.32
9106.00,1.31
9105.00,1.31
9104.00,1.31
9103.00,1.31
9102.00,1.30
9101.00,1.30
9100.00,1.30
9099.00,1.29
9098.00,1.29
9097.00,1.29
9096.00,1.28
9095.00,1.28
9094.00,1.27
9093.00,1.27
9092.00,1.27
9091.00,1.26
9090.00,1.26
9089.00,1.26
9088.00,1.26
9087.00,1.26
9086.00,1.26
9085.00,1.26
9084.00,1.26
9083.00,1.25
9082.00,1.25
9081.00,1.25
9080.00,1.25
9079.00,1.25
9078.00,1.25
9077.00,1.25
9076.00,1.25
9075.00,1.25
9074.00,1.25
9073.00,1.25
9072.00,1.25
9071.00,1.26
9070.00,1.26
9069.00,1.26
9068.00,1.26
9067.00,1.27
9066.00,1.27
9065.00,1.27
9064.00,1.28
9063.00,1.28
9062.00,1.28
9061.00,1.28
9060.00,1.28
9059.00,1.28
9058.00,1.29
9057.00,1.29
9056.00,1.29
9055.00,1.29
9054.00,1.29
9053.00,1.29
9052.00,1.29
9051.00,1.29
9050.00,1.29
9049.00,1.29
9048.00,1.29
9047.00,1.29
9046.00,1.28
9045.00,1.28
9044.00,1.28
9043.00,1.27
9042.00,1.27
9041.00,1.26
9040.00,1.26
9039.00,1.25
9038.00,1.24
9037.00,1.24
9036.00,1.23
9035.00,1.23
9034.00,1.22
9033.00,1.22
9032.00,1.21
9031.00,1.21
9030.00,1.21
9029.00,1.20
9028.00,1.20
9027.00,1.20
9026.00,1.20
9025.00,1.20
9024.00,1.20
9023.00,1.20
9022.00,1.20
9021.00,1.21
9020.00,1.21
9019.00,1.21
9018.00,1.22
9017.00,1.22
9016.00,1.23
9015.00,1.23
9014.00,1.24
9013.00,1.24
9012.00,1.25
9011.00,1.25
9010.00,1.26
9009.00,1.26
9008.00,1.27
9007.00,1.28
9006.00,1.28
9005.00,1.29
9004.00,1.30
9003.00,1.30
9002.00,1.30
9001.00,1.31
9000.00,1.31
8999.00,1.31
8998.00,1.31
8997.00,1.31
8996.00,1.31
8995.00,1.31
8994.00,1.31
8993.00,1.30
8992.00,1.30
8991.00,1.30
8990.00,1.29
8989.00,1.29
8988.00,1.29
8987.00,1.28
8986.00,1.28
8985.00,1.27
8984.00,1.27
8983.00,1.26
8982.00,1.26
8981.00,1.25
8980.00,1.24
8979.00,1.23
8978.00,1.23
8977.00,1.22
8976.00,1.21
8975.00,1.21
8974.00,1.20
8973.00,1.20
8972.00,1.20
8971.00,1.19
8970.00,1.19
8969.00,1.19
8968.00,1.19
8967.00,1.19
8966.00,1.19
8965.00,1.19
8964.00,1.19
8963.00,1.19
8962.00,1.19
8961.00,1.19
8960.00,1.19
8959.00,1.19
8958.00,1.19
8957.00,1.19
8956.00,1.19
8955.00,1.19
8954.00,1.20
8953.00,1.20
8952.00,1.21
8951.00,1.21
8950.00,1.21
8949.00,1.22
8948.00,1.22
8947.00,1.22
8946.00,1.23
8945.00,1.23
8944.00,1.23
8943.00,1.23
8942.00,1.23
8941.00,1.23
8940.00,1.23
8939.00,1.24
8938.00,1.24
8937.00,1.24
8936.00,1.24
8935.00,1.25
8934.00,1.25
8933.00,1.25
8932.00,1.26
8931.00,1.26
8930.00,1.26
8929.00,1.26
8928.00,1.27
8927.00,1.27
8926.00,1.27
8925.00,1.27
8924.00,1.27
8923.00,1.27
8922.00,1.27
8921.00,1.27
8920.00,1.27
8919.00,1.27
8918.00,1.27
8917.00,1.27
8916.00,1.27
8915.00,1.27
8914.00,1.27
8913.00,1.26
8912.00,1.26
8911.00,1.26
8910.00,1.25
8909.00,1.25
8908.00,1.25
8907.00,1.24
8906.00,1.23
8905.00,1.23
8904.00,1.22
8903.00,1.21
8902.00,1.21
8901.00,1.20
8900.00,1.19
8899.00,1.19
8898.00,1.18
8897.00,1.17
8896.00,1.17
8895.00,1.16
8894.00,1.16
8893.00,1.16
8892.00,1.15
8891.00,1.15
8890.00,1.15
8889.00,1.15
8888.00,1.14
8887.00,1.14
8886.00,1.14
8885.00,1.14
8884.00,1.14
8883.00,1.14
8882.00,1.14
8881.00,1.14
8880.00,1.14
8879.00,1.15
8878.00,1.15
8877.00,1.15
8876.00,1.16
8875.00,1.16
8874.00,1.17
8873.00,1.17
8872.00,1.17
8871.00,1.18
8870.00,1.18
8869.00,1.18
8868.00,1.18
8867.00,1.18
8866.00,1.19
8865.00,1.19
8864.00,1.19
8863.00,1.19
8862.00,1.19
8861.00,1.19
8860.00,1.19
8859.00,1.19
8858.00,1.19
8857.00,1.19
8856.00,1.19
8855.00,1.19
8854.00,1.19
8853.00,1.19
8852.00,1.19
8851.00,1.19
8850.00,1.19
8849.00,1.19
8848.00,1.19
8847.00,1.19
8846.00,1.19
8845.00,1.19
8844.00,1.19
8843.00,1.19
8842.00,1.20
8841.00,1.20
8840.00,1.21
8839.00,1.21
8838.00,1.22
8837.00,1.22
8836.00,1.23
8835.00,1.23
8834.00,1.24
8833.00,1.24
8832.00,1.25
8831.00,1.25
8830.00,1.26
8829.00,1.26
8828.00,1.27
8827.00,1.27
8826.00,1.28
8825.00,1.28
8824.00,1.28
8823.00,1.29
8822.00,1.29
8821.00,1.29
8820.00,1.29
8819.00,1.29
8818.00,1.29
8817.00,1.29
8816.00,1.29
8815.00,1.29
8814.00,1.28
8813.00,1.28
8812.00,1.28
8811.00,1.27
8810.00,1.27
8809.00,1.27
8808.00,1.26
8807.00,1.26
8806.00,1.25
8805.00,1.25
8804.00,1.25
8803.00,1.25
8802.00,1.24
8801.00,1.24
8800.00,1.24
8799.00,1.24
8798.00,1.24
8797.00,1.23
8796.00,1.23
8795.00,1.23
8794.00,1.23
8793.00,1.23
8792.00,1.23
8791.00,1.23
8790.00,1.24
8789.00,1.24
8788.00,1.24
8787.00,1.24
8786.00,1.24
8785.00,1.25
8784.00,1.25
8783.00,1.25
8782.00,1.26
8781.00,1.26
8780.00,1.27
8779.00,1.27
8778.00,1.28
8777.00,1.28
8776.00,1.28
8775.00,1.29
8774.00,1.29
8773.00,1.30
8772.00,1.30
8771.00,1.30
8770.00,1.31
8769.00,1.31
8768.00,1.31
8767.00,1.32
8766.00,1.32
8765.00,1.32
8764.00,1.33
8763.00,1.33
8762.00,1.33
8761.00,1.33
8760.00,1.33
8759.00,1.33
8758.00,1.33
8757.00,1.33
8756.00,1.33
8755.00,1.33
8754.00,1.32
8753.00,1.32
8752.00,1.32
8751.00,1.32
8750.00,1.31
8749.00,1.31
8748.00,1.31
8747.00,1.30
8746.00,1.30
8745.00,1.30
8744.00,1.29
8743.00,1.29
8742.00,1.29
8741.00,1.28
8740.00,1.28
8739.00,1.28
8738.00,1.27
8737.00,1.27
8736.00,1.27
8735.00,1.27
8734.00,1.26
8733.00,1.26
8732.00,1.26
8731.00,1.26
8730.00,1.26
8729.00,1.26
8728.00,1.26
8727.00,1.26
8726.00,1.26
8725.00,1.26
8724.00,1.25
8723.00,1.25
8722.00,1.25
8721.00,1.25
8720.00,1.25
8719.00,1.25
8718.00,1.25
8717.00,1.25
8716.00,1.24
8715.00,1.24
8714.00,1.24
8713.00,1.24
8712.00,1.24
8711.00,1.24
8710.00,1.24
8709.00,1.23
8708.00,1.23
8707.00,1.23
8706.00,1.23
8705.00,1.23
8704.00,1.23
8703.00,1.23
8702.00,1.23
8701.00,1.23
8700.00,1.23
8699.00,1.22
8698.00,1.22
8697.00,1.22
8696.00,1.22
8695.00,1.22
8694.00,1.22
8693.00,1.22
8692.00,1.21
8691.00,1.21
8690.00,1.21
8689.00,1.21
8688.00,1.22
8687.00,1.22
8686.00,1.22
8685.00,1.22
8684.00,1.22
8683.00,1.22
8682.00,1.22
8681.00,1.22
8680.00,1.23
8679.00,1.23
8678.00,1.23
8677.00,1.24
8676.00,1.24
8675.00,1.24
8674.00,1.25
8673.00,1.25
8672.00,1.26
8671.00,1.26
8670.00,1.27
8669.00,1.27
8668.00,1.28
8667.00,1.28
8666.00,1.29
8665.00,1.29
8664.00,1.29
8663.00,1.30
8662.00,1.30
8661.00,1.30
8660.00,1.30
8659.00,1.31
8658.00,1.31
8657.00,1.31
8656.00,1.31
8655.00,1.30
8654.00,1.30
8653.00,1.30
8652.00,1.30
8651.00,1.30
8650.00,1.30
8649.00,1.29
8648.00,1.29
8647.00,1.28
8646.00,1.28
8645.00,1.28
8644.00,1.27
8643.00,1.27
8642.00,1.26
8641.00,1.26
8640.00,1.26
8639.00,1.25
8638.00,1.25
8637.00,1.25
8636.00,1.24
8635.00,1.24
8634.00,1.24
8633.00,1.24
8632.00,1.24
8631.00,1.23
8630.00,1.23
8629.00,1.23
8628.00,1.23
8627.00,1.23
8626.00,1.23
8625.00,1.23
8624.00,1.23
8623.00,1.23
8622.00,1.23
8621.00,1.24
8620.00,1.24
8619.00,1.24
8618.00,1.24
8617.00,1.24
8616.00,1.24
8615.00,1.24
8614.00,1.25
8613.00,1.25
8612.00,1.25
8611.00,1.25
8610.00,1.25
8609.00,1.26
8608.00,1.26
8607.00,1.26
8606.00,1.27
8605.00,1.27
8604.00,1.27
8603.00,1.27
8602.00,1.28
8601.00,1.28
8600.00,1.28
8599.00,1.28
8598.00,1.29
8597.00,1.29
8596.00,1.29
8595.00,1.30
8594.00,1.30
8593.00,1.30
8592.00,1.30
8591.00,1.31
8590.00,1.31
8589.00,1.31
8588.00,1.32
8587.00,1.32
8586.00,1.32
8585.00,1.32
8584.00,1.32
8583.00,1.32
8582.00,1.32
8581.00,1.32
8580.00,1.32
8579.00,1.32
8578.00,1.32
8577.00,1.31
8576.00,1.31
8575.00,1.31
8574.00,1.30
8573.00,1.30
8572.00,1.30
8571.00,1.29
8570.00,1.29
8569.00,1.28
8568.00,1.28
8567.00,1.27
8566.00,1.27
8565.00,1.27
8564.00,1.26
8563.00,1.26
8562.00,1.25
8561.00,1.25
8560.00,1.24
8559.00,1.24
8558.00,1.23
8557.00,1.23
8556.00,1.23
8555.00,1.23
8554.00,1.23
8553.00,1.22
8552.00,1.22
8551.00,1.22
8550.00,1.22
8549.00,1.22
8548.00,1.22
8547.00,1.23
8546.00,1.23
8545.00,1.23
8544.00,1.23
8543.00,1.23
8542.00,1.23
8541.00,1.24
8540.00,1.24
8539.00,1.24
8538.00,1.25
8537.00,1.25
8536.00,1.26
8535.00,1.26
8534.00,1.26
8533.00,1.27
8532.00,1.27
8531.00,1.27
8530.00,1.28
8529.00,1.28
8528.00,1.28
8527.00,1.28
8526.00,1.29
8525.00,1.29
8524.00,1.29
8523.00,1.30
8522.00,1.30
8521.00,1.30
8520.00,1.30
8519.00,1.30
8518.00,1.30
8517.00,1.30
8516.00,1.30
8515.00,1.30
8514.00,1.30
8513.00,1.30
8512.00,1.29
8511.00,1.29
8510.00,1.29
8509.00,1.28
8508.00,1.28
8507.00,1.27
8506.00,1.27
8505.00,1.26
8504.00,1.26
8503.00,1.25
8502.00,1.25
8501.00,1.24
8500.00,1.24
8499.00,1.23
8498.00,1.23
8497.00,1.22
8496.00,1.22
8495.00,1.22
8494.00,1.21
8493.00,1.21
8492.00,1.21
8491.00,1.21
8490.00,1.21
8489.00,1.21
8488.00,1.21
8487.00,1.21
8486.00,1.21
8485.00,1.21
8484.00,1.21
8483.00,1.22
8482.00,1.22
8481.00,1.22
8480.00,1.23
8479.00,1.23
8478.00,1.23
8477.00,1.24
8476.00,1.24
8475.00,1.25
8474.00,1.25
8473.00,1.26
8472.00,1.26
8471.00,1.27
8470.00,1.27
8469.00,1.27
8468.00,1.27
8467.00,1.28
8466.00,1.28
8465.00,1.28
8464.00,1.28
8463.00,1.28
8462.00,1.28
8461.00,1.28
8460.00,1.28
8459.00,1.29
8458.00,1.29
8457.00,1.29
8456.00,1.29
8455.00,1.29
8454.00,1.29
8453.00,1.29
8452.00,1.29
8451.00,1.29
8450.00,1.29
8449.00,1.29
8448.00,1.29
8447.00,1.29
8446.00,1.29
8445.00,1.29
8444.00,1.29
8443.00,1.29
8442.00,1.29
8441.00,1.29
8440.00,1.29
8439.00,1.29
8438.00,1.29
8437.00,1.29
8436.00,1.29
8435.00,1.29
8434.00,1.29
8433.00,1.29
8432.00,1.30
8431.00,1.30
8430.00,1.30
8429.00,1.30
8428.00,1.30
8427.00,1.30
8426.00,1.30
8425.00,1.30
8424.00,1.30
8423.00,1.30
8422.00,1.31
8421.00,1.31
8420.00,1.31
8419.00,1.31
8418.00,1.31
8417.00,1.31
8416.00,1.32
8415.00,1.32
8414.00,1.32
8413.00,1.32
8412.00,1.32
8411.00,1.32
8410.00,1.32
8409.00,1.32
8408.00,1.33
8407.00,1.33
8406.00,1.33
8405.00,1.33
8404.00,1.33
8403.00,1.33
8402.00,1.33
8401.00,1.33
8400.00,1.33
8399.00,1.34
8398.00,1.34
8397.00,1.34
8396.00,1.34
8395.00,1.34
8394.00,1.34
8393.00,1.34
8392.00,1.34
8391.00,1.34
8390.00,1.34
8389.00,1.34
8388.00,1.33
8387.00,1.33
8386.00,1.33
8385.00,1.33
8384.00,1.33
8383.00,1.32
8382.00,1.32
8381.00,1.31
8380.00,1.31
8379.00,1.31
8378.00,1.30
8377.00,1.30
8376.00,1.29
8375.00,1.29
8374.00,1.28
8373.00,1.28
8372.00,1.27
8371.00,1.27
8370.00,1.26
8369.00,1.26
8368.00,1.26
8367.00,1.25
8366.00,1.25
8365.00,1.25
8364.00,1.25
8363.00,1.25
8362.00,1.24
8361.00,1.24
8360.00,1.24
8359.00,1.24
8358.00,1.24
8357.00,1.24
8356.00,1.24
8355.00,1.25
8354.00,1.25
8353.00,1.25
8352.00,1.25
8351.00,1.25
8350.00,1.25
8349.00,1.26
8348.00,1.26
8347.00,1.26
8346.00,1.26
8345.00,1.26
8344.00,1.27
8343.00,1.27
8342.00,1.27
8341.00,1.27
8340.00,1.27
8339.00,1.27
8338.00,1.27
8337.00,1.27
8336.00,1.27
8335.00,1.27
8334.00,1.27
8333.00,1.28
8332.00,1.28
8331.00,1.28
8330.00,1.28
8329.00,1.28
8328.00,1.28
8327.00,1.28
8326.00,1.29
8325.00,1.29
8324.00,1.29
8323.00,1.29
8322.00,1.29
8321.00,1.29
8320.00,1.30
8319.00,1.30
8318.00,1.30
8317.00,1.30
8316.00,1.30
8315.00,1.30
8314.00,1.30
8313.00,1.30
8312.00,1.30
8311.00,1.30
8310.00,1.31
8309.00,1.31
8308.00,1.31
8307.00,1.31
8306.00,1.31
8305.00,1.30
8304.00,1.30
8303.00,1.30
8302.00,1.30
8301.00,1.30
8300.00,1.30
8299.00,1.30
8298.00,1.30
8297.00,1.29
8296.00,1.29
8295.00,1.29
8294.00,1.29
8293.00,1.29
8292.00,1.29
8291.00,1.28
8290.00,1.28
8289.00,1.28
8288.00,1.28
8287.00,1.28
8286.00,1.28
8285.00,1.28
8284.00,1.27
8283.00,1.27
8282.00,1.27
8281.00,1.27
8280.00,1.27
8279.00,1.27
8278.00,1.27
8277.00,1.26
8276.00,1.26
8275.00,1.26
8274.00,1.26
8273.00,1.26
8272.00,1.25
8271.00,1.25
8270.00,1.25
8269.00,1.25
8268.00,1.25
8267.00,1.25
8266.00,1.24
8265.00,1.24
8264.00,1.24
8263.00,1.24
8262.00,1.24
8261.00,1.24
8260.00,1.24
8259.00,1.24
8258.00,1.24
8257.00,1.24
8256.00,1.24
8255.00,1.24
8254.00,1.24
8253.00,1.24
8252.00,1.24
8251.00,1.24
8250.00,1.24
8249.00,1.24
8248.00,1.24
8247.00,1.24
8246.00,1.24
8245.00,1.24
8244.00,1.24
8243.00,1.24
8242.00,1.24
8241.00,1.24
8240.00,1.24
8239.00,1.24
8238.00,1.24
8237.00,1.24
8236.00,1.24
8235.00,1.24
8234.00,1.24
8233.00,1.24
8232.00,1.24
8231.00,1.24
8230.00,1.24
8229.00,1.24
8228.00,1.24
8227.00,1.24
8226.00,1.24
8225.00,1.24
8224.00,1.24
8223.00,1.24
8222.00,1.24
8221.00,1.24
8220.00,1.25
8219.00,1.25
8218.00,1.25
8217.00,1.25
8216.00,1.25
8215.00,1.25
8214.00,1.25
8213.00,1.26
8212.00,1.26
8211.00,1.26
8210.00,1.26
8209.00,1.27
8208.00,1.27
8207.00,1.27
8206.00,1.27
8205.00,1.27
8204.00,1.28
8203.00,1.28
8202.00,1.28
8201.00,1.28
8200.00,1.29
8199.00,1.29
8198.00,1.29
8197.00,1.30
8196.00,1.30
8195.00,1.31
8194.00,1.31
8193.00,1.31
8192.00,1.32
8191.00,1.32
8190.00,1.33
8189.00,1.33
8188.00,1.33
8187.00,1.34
8186.00,1.34
8185.00,1.34
8184.00,1.34
8183.00,1.34
8182.00,1.35
8181.00,1.35
8180.00,1.35
8179.00,1.35
8178.00,1.35
8177.00,1.35
8176.00,1.35
8175.00,1.35
8174.00,1.35
8173.00,1.35
8172.00,1.35
8171.00,1.35
8170.00,1.34
8169.00,1.34
8168.00,1.34
8167.00,1.34
8166.00,1.33
8165.00,1.33
8164.00,1.32
8163.00,1.32
8162.00,1.32
8161.00,1.31
8160.00,1.31
8159.00,1.30
8158.00,1.30
8157.00,1.30
8156.00,1.29
8155.00,1.29
8154.00,1.29
8153.00,1.28
8152.00,1.28
8151.00,1.28
8150.00,1.28
8149.00,1.27
8148.00,1.27
8147.00,1.27
8146.00,1.27
8145.00,1.27
8144.00,1.27
8143.00,1.27
8142.00,1.27
8141.00,1.27
8140.00,1.27
8139.00,1.27
8138.00,1.28
8137.00,1.28
8136.00,1.28
8135.00,1.28
8134.00,1.28
8133.00,1.28
8132.00,1.28
8131.00,1.28
8130.00,1.29
8129.00,1.29
8128.00,1.29
8127.00,1.29
8126.00,1.29
8125.00,1.29
8124.00,1.29
8123.00,1.29
8122.00,1.29
8121.00,1.29
8120.00,1.29
8119.00,1.29
8118.00,1.29
8117.00,1.29
8116.00,1.29
8115.00,1.29
8114.00,1.29
8113.00,1.29
8112.00,1.29
8111.00,1.29
8110.00,1.28
8109.00,1.28
8108.00,1.29
8107.00,1.29
8106.00,1.29
8105.00,1.29
8104.00,1.29
8103.00,1.29
8102.00,1.30
8101.00,1.30
8100.00,1.30
8099.00,1.31
8098.00,1.31
8097.00,1.31
8096.00,1.32
8095.00,1.32
8094.00,1.32
8093.00,1.33
8092.00,1.33
8091.00,1.34
8090.00,1.34
8089.00,1.35
8088.00,1.35
8087.00,1.36
8086.00,1.36
8085.00,1.37
8084.00,1.37
8083.00,1.38
8082.00,1.38
8081.00,1.38
8080.00,1.39
8079.00,1.39
8078.00,1.39
8077.00,1.39
8076.00,1.39
8075.00,1.39
8074.00,1.39
8073.00,1.39
8072.00,1.39
8071.00,1.39
8070.00,1.39
8069.00,1.39
8068.00,1.39
8067.00,1.38
8066.00,1.38
8065.00,1.38
8064.00,1.37
8063.00,1.37
8062.00,1.36
8061.00,1.36
8060.00,1.36
8059.00,1.35
8058.00,1.35
8057.00,1.34
8056.00,1.34
8055.00,1.34
8054.00,1.33
8053.00,1.33
8052.00,1.32
8051.00,1.32
8050.00,1.32
8049.00,1.32
8048.00,1.31
8047.00,1.31
8046.00,1.31
8045.00,1.31
8044.00,1.31
8043.00,1.30
8042.00,1.30
8041.00,1.30
8040.00,1.30
8039.00,1.30
8038.00,1.30
8037.00,1.31
8036.00,1.31
8035.00,1.31
8034.00,1.31
8033.00,1.31
8032.00,1.31
8031.00,1.31
8030.00,1.32
8029.00,1.32
8028.00,1.32
8027.00,1.32
8026.00,1.32
8025.00,1.33
8024.00,1.33
8023.00,1.33
8022.00,1.34
8021.00,1.34
8020.00,1.34
8019.00,1.35
8018.00,1.35
8017.00,1.35
8016.00,1.36
8015.00,1.36
8014.00,1.36
8013.00,1.37
8012.00,1.37
8011.00,1.37
8010.00,1.37
8009.00,1.38
8008.00,1.38
8007.00,1.38
8006.00,1.38
8005.00,1.39
8004.00,1.39
8003.00,1.39
8002.00,1.39
8001.00,1.39
8000.00,1.39
7999.00,1.39
7998.00,1.40
7997.00,1.40
7996.00,1.40
7995.00,1.39
7994.00,1.39
7993.00,1.39
7992.00,1.39
7991.00,1.39
7990.00,1.38
7989.00,1.38
7988.00,1.38
7987.00,1.38
7986.00,1.37
7985.00,1.37
7984.00,1.37
7983.00,1.36
7982.00,1.36
7981.00,1.36
7980.00,1.36
7979.00,1.35
7978.00,1.35
7977.00,1.35
7976.00,1.34
7975.00,1.34
7974.00,1.34
7973.00,1.34
7972.00,1.33
7971.00,1.33
7970.00,1.33
7969.00,1.33
7968.00,1.32
7967.00,1.32
7966.00,1.32
7965.00,1.32
7964.00,1.32
7963.00,1.32
7962.00,1.32
7961.00,1.32
7960.00,1.32
7959.00,1.32
7958.00,1.32
7957.00,1.32
7956.00,1.32
7955.00,1.32
7954.00,1.32
7953.00,1.32
7952.00,1.32
7951.00,1.32
7950.00,1.32
7949.00,1.32
7948.00,1.32
7947.00,1.32
7946.00,1.32
7945.00,1.32
7944.00,1.32
7943.00,1.32
7942.00,1.32
7941.00,1.32
7940.00,1.32
7939.00,1.32
7938.00,1.32
7937.00,1.32
7936.00,1.32
7935.00,1.32
7934.00,1.32
7933.00,1.32
7932.00,1.32
7931.00,1.32
7930.00,1.32
7929.00,1.32
7928.00,1.32
7927.00,1.32
7926.00,1.32
7925.00,1.32
7924.00,1.32
7923.00,1.33
7922.00,1.33
7921.00,1.33
7920.00,1.33
7919.00,1.34
7918.00,1.34
7917.00,1.34
7916.00,1.35
7915.00,1.35
7914.00,1.35
7913.00,1.36
7912.00,1.36
7911.00,1.36
7910.00,1.36
7909.00,1.37
7908.00,1.37
7907.00,1.37
7906.00,1.37
7905.00,1.37
7904.00,1.37
7903.00,1.37
7902.00,1.37
7901.00,1.37
7900.00,1.37
7899.00,1.37
7898.00,1.37
7897.00,1.37
7896.00,1.37
7895.00,1.37
7894.00,1.37
7893.00,1.37
7892.00,1.37
7891.00,1.37
7890.00,1.37
7889.00,1.37
7888.00,1.36
7887.00,1.36
7886.00,1.36
7885.00,1.36
7884.00,1.36
7883.00,1.36
7882.00,1.36
7881.00,1.36
7880.00,1.36
7879.00,1.35
7878.00,1.35
7877.00,1.35
7876.00,1.35
7875.00,1.35
7874.00,1.34
7873.00,1.34
7872.00,1.34
7871.00,1.33
7870.00,1.33
7869.00,1.32
7868.00,1.32
7867.00,1.31
7866.00,1.31
7865.00,1.30
7864.00,1.30
7863.00,1.29
7862.00,1.29
7861.00,1.29
7860.00,1.28
7859.00,1.28
7858.00,1.27
7857.00,1.27
7856.00,1.27
7855.00,1.26
7854.00,1.26
7853.00,1.26
7852.00,1.26
7851.00,1.26
7850.00,1.26
7849.00,1.26
7848.00,1.26
7847.00,1.26
7846.00,1.26
7845.00,1.26
7844.00,1.26
7843.00,1.27
7842.00,1.27
7841.00,1.28
7840.00,1.28
7839.00,1.28
7838.00,1.29
7837.00,1.29
7836.00,1.29
7835.00,1.30
7834.00,1.30
7833.00,1.31
7832.00,1.31
7831.00,1.31
7830.00,1.32
7829.00,1.32
7828.00,1.32
7827.00,1.33
7826.00,1.33
7825.00,1.33
7824.00,1.33
7823.00,1.33
7822.00,1.33
7821.00,1.33
7820.00,1.33
7819.00,1.33
7818.00,1.33
7817.00,1.33
7816.00,1.33
7815.00,1.33
7814.00,1.33
7813.00,1.33
7812.00,1.32
7811.00,1.32
7810.00,1.32
7809.00,1.32
7808.00,1.32
7807.00,1.32
7806.00,1.32
7805.00,1.31
7804.00,1.31
7803.00,1.31
7802.00,1.31
7801.00,1.31
7800.00,1.31
7799.00,1.30
7798.00,1.30
7797.00,1.30
7796.00,1.30
7795.00,1.30
7794.00,1.30
7793.00,1.30
7792.00,1.30
7791.00,1.30
7790.00,1.30
7789.00,1.30
7788.00,1.30
7787.00,1.30
7786.00,1.30
7785.00,1.30
7784.00,1.30
7783.00,1.30
7782.00,1.30
7781.00,1.30
7780.00,1.30
7779.00,1.30
7778.00,1.30
7777.00,1.30
7776.00,1.30
7775.00,1.30
7774.00,1.30
7773.00,1.30
7772.00,1.30
7771.00,1.30
7770.00,1.30
7769.00,1.30
7768.00,1.31
7767.00,1.31
7766.00,1.31
7765.00,1.31
7764.00,1.31
7763.00,1.31
7762.00,1.31
7761.00,1.31
7760.00,1.31
7759.00,1.31
7758.00,1.32
7757.00,1.32
7756.00,1.32
7755.00,1.32
7754.00,1.32
7753.00,1.32
7752.00,1.32
7751.00,1.32
7750.00,1.32
7749.00,1.32
7748.00,1.32
7747.00,1.32
7746.00,1.32
7745.00,1.32
7744.00,1.32
7743.00,1.33
7742.00,1.33
7741.00,1.33
7740.00,1.33
7739.00,1.33
7738.00,1.33
7737.00,1.33
7736.00,1.32
7735.00,1.32
7734.00,1.32
7733.00,1.32
7732.00,1.32
7731.00,1.32
7730.00,1.32
7729.00,1.32
7728.00,1.32
7727.00,1.32
7726.00,1.33
7725.00,1.33
7724.00,1.33
7723.00,1.33
7722.00,1.33
7721.00,1.33
7720.00,1.33
7719.00,1.33
7718.00,1.33
7717.00,1.33
7716.00,1.33
7715.00,1.33
7714.00,1.33
7713.00,1.33
7712.00,1.33
7711.00,1.33
7710.00,1.33
7709.00,1.33
7708.00,1.33
7707.00,1.33
7706.00,1.33
7705.00,1.33
7704.00,1.33
7703.00,1.33
7702.00,1.33
7701.00,1.33
7700.00,1.33
7699.00,1.33
7698.00,1.33
7697.00,1.33
7696.00,1.33
7695.00,1.34
7694.00,1.34
7693.00,1.34
7692.00,1.34
7691.00,1.34
7690.00,1.34
7689.00,1.34
7688.00,1.34
7687.00,1.34
7686.00,1.35
7685.00,1.35
7684.00,1.35
7683.00,1.35
7682.00,1.35
7681.00,1.35
7680.00,1.36
7679.00,1.36
7678.00,1.36
7677.00,1.36
7676.00,1.36
7675.00,1.36
7674.00,1.36
7673.00,1.35
7672.00,1.35
7671.00,1.35
7670.00,1.35
7669.00,1.35
7668.00,1.35
7667.00,1.35
7666.00,1.35
7665.00,1.35
7664.00,1.35
7663.00,1.35
7662.00,1.34
7661.00,1.34
7660.00,1.34
7659.00,1.34
7658.00,1.34
7657.00,1.34
7656.00,1.34
7655.00,1.33
7654.00,1.33
7653.00,1.33
7652.00,1.33
7651.00,1.33
7650.00,1.33
7649.00,1.33
7648.00,1.33
7647.00,1.33
7646.00,1.33
7645.00,1.33
7644.00,1.34
7643.00,1.34
7642.00,1.34
7641.00,1.34
7640.00,1.34
7639.00,1.34
7638.00,1.34
7637.00,1.34
7636.00,1.34
7635.00,1.33
7634.00,1.33
7633.00,1.33
7632.00,1.33
7631.00,1.33
7630.00,1.33
7629.00,1.33
7628.00,1.33
7627.00,1.33
7626.00,1.33
7625.00,1.32
7624.00,1.32
7623.00,1.32
7622.00,1.32
7621.00,1.31
7620.00,1.31
7619.00,1.31
7618.00,1.31
7617.00,1.31
7616.00,1.30
7615.00,1.30
7614.00,1.30
7613.00,1.30
7612.00,1.30
7611.00,1.30
7610.00,1.30
7609.00,1.30
7608.00,1.30
7607.00,1.30
7606.00,1.30
7605.00,1.30
7604.00,1.30
7603.00,1.30
7602.00,1.30
7601.00,1.30
7600.00,1.30
7599.00,1.30
7598.00,1.30
7597.00,1.30
7596.00,1.31
7595.00,1.31
7594.00,1.31
7593.00,1.31
7592.00,1.31
7591.00,1.31
7590.00,1.31
7589.00,1.31
7588.00,1.31
7587.00,1.31
7586.00,1.31
7585.00,1.31
7584.00,1.31
7583.00,1.31
7582.00,1.31
7581.00,1.31
7580.00,1.31
7579.00,1.31
7578.00,1.31
7577.00,1.31
7576.00,1.30
7575.00,1.30
7574.00,1.30
7573.00,1.30
7572.00,1.30
7571.00,1.30
7570.00,1.30
7569.00,1.30
7568.00,1.30
7567.00,1.30
7566.00,1.30
7565.00,1.30
7564.00,1.30
7563.00,1.30
7562.00,1.30
7561.00,1.30
7560.00,1.30
7559.00,1.31
7558.00,1.31
7557.00,1.31
7556.00,1.31
7555.00,1.31
7554.00,1.32
7553.00,1.32
7552.00,1.32
7551.00,1.33
7550.00,1.33
7549.00,1.33
7548.00,1.34
7547.00,1.34
7546.00,1.35
7545.00,1.35
7544.00,1.35
7543.00,1.35
7542.00,1.36
7541.00,1.36
7540.00,1.36
7539.00,1.36
7538.00,1.36
7537.00,1.36
7536.00,1.36
7535.00,1.36
7534.00,1.35
7533.00,1.35
7532.00,1.35
7531.00,1.35
7530.00,1.35
7529.00,1.35
7528.00,1.35
7527.00,1.34
7526.00,1.34
7525.00,1.34
7524.00,1.34
7523.00,1.33
7522.00,1.33
7521.00,1.33
7520.00,1.33
7519.00,1.33
7518.00,1.33
7517.00,1.33
7516.00,1.33
7515.00,1.33
7514.00,1.33
7513.00,1.33
7512.00,1.33
7511.00,1.33
7510.00,1.33
7509.00,1.33
7508.00,1.33
7507.00,1.33
7506.00,1.33
7505.00,1.33
7504.00,1.33
7503.00,1.34
7502.00,1.34
7501.00,1.34
7500.00,1.34
7499.00,1.34
7498.00,1.34
7497.00,1.34
7496.00,1.34
7495.00,1.34
7494.00,1.34
7493.00,1.34
7492.00,1.34
7491.00,1.34
7490.00,1.34
7489.00,1.34
7488.00,1.34
7487.00,1.34
7486.00,1.34
7485.00,1.34
7484.00,1.34
7483.00,1.34
7482.00,1.33
7481.00,1.33
7480.00,1.33
7479.00,1.33
7478.00,1.33
7477.00,1.33
7476.00,1.33
7475.00,1.33
7474.00,1.33
7473.00,1.33
7472.00,1.33
7471.00,1.33
7470.00,1.33
7469.00,1.33
7468.00,1.33
7467.00,1.33
7466.00,1.33
7465.00,1.34
7464.00,1.34
7463.00,1.34
7462.00,1.34
7461.00,1.34
7460.00,1.34
7459.00,1.34
7458.00,1.35
7457.00,1.35
7456.00,1.35
7455.00,1.35
7454.00,1.35
7453.00,1.36
7452.00,1.36
7451.00,1.36
7450.00,1.36
7449.00,1.36
7448.00,1.37
7447.00,1.37
7446.00,1.37
7445.00,1.37
7444.00,1.37
7443.00,1.37
7442.00,1.38
7441.00,1.38
7440.00,1.38
7439.00,1.38
7438.00,1.38
7437.00,1.39
7436.00,1.39
7435.00,1.39
7434.00,1.39
7433.00,1.39
7432.00,1.39
7431.00,1.39
7430.00,1.39
7429.00,1.39
7428.00,1.39
7427.00,1.39
7426.00,1.39
7425.00,1.39
7424.00,1.39
7423.00,1.39
7422.00,1.39
7421.00,1.39
7420.00,1.39
7419.00,1.39
7418.00,1.39
7417.00,1.39
7416.00,1.39
7415.00,1.38
7414.00,1.38
7413.00,1.38
7412.00,1.38
7411.00,1.38
7410.00,1.38
7409.00,1.38
7408.00,1.38
7407.00,1.38
7406.00,1.38
7405.00,1.37
7404.00,1.37
7403.00,1.37
7402.00,1.37
7401.00,1.37
7400.00,1.37
7399.00,1.37
7398.00,1.37
7397.00,1.37
7396.00,1.37
7395.00,1.37
7394.00,1.37
7393.00,1.37
7392.00,1.37
7391.00,1.37
7390.00,1.37
7389.00,1.37
7388.00,1.37
7387.00,1.37
7386.00,1.37
7385.00,1.37
7384.00,1.37
7383.00,1.37
7382.00,1.37
7381.00,1.37
7380.00,1.37
7379.00,1.37
7378.00,1.38
7377.00,1.38
7376.00,1.38
7375.00,1.38
7374.00,1.38
7373.00,1.38
7372.00,1.38
7371.00,1.38
7370.00,1.38
7369.00,1.38
7368.00,1.38
7367.00,1.39
7366.00,1.39
7365.00,1.39
7364.00,1.39
7363.00,1.39
7362.00,1.39
7361.00,1.39
7360.00,1.39
7359.00,1.39
7358.00,1.39
7357.00,1.40
7356.00,1.40
7355.00,1.40
7354.00,1.40
7353.00,1.40
7352.00,1.39
7351.00,1.39
7350.00,1.39
7349.00,1.39
7348.00,1.39
7347.00,1.39
7346.00,1.39
7345.00,1.38
7344.00,1.38
7343.00,1.38
7342.00,1.38
7341.00,1.38
7340.00,1.37
7339.00,1.37
7338.00,1.37
7337.00,1.36
7336.00,1.36
7335.00,1.36
7334.00,1.35
7333.00,1.35
7332.00,1.34
7331.00,1.34
7330.00,1.33
7329.00,1.33
7328.00,1.32
7327.00,1.32
7326.00,1.32
7325.00,1.31
7324.00,1.31
7323.00,1.31
7322.00,1.31
7321.00,1.31
7320.00,1.30
7319.00,1.30
7318.00,1.30
7317.00,1.30
7316.00,1.30
7315.00,1.30
7314.00,1.30
7313.00,1.30
7312.00,1.30
7311.00,1.30
7310.00,1.31
7309.00,1.31
7308.00,1.31
7307.00,1.31
7306.00,1.31
7305.00,1.32
7304.00,1.32
7303.00,1.32
7302.00,1.32
7301.00,1.32
7300.00,1.33
7299.00,1.33
7298.00,1.33
7297.00,1.33
7296.00,1.33
7295.00,1.33
7294.00,1.33
7293.00,1.33
7292.00,1.33
7291.00,1.33
7290.00,1.33
7289.00,1.33
7288.00,1.33
7287.00,1.33
7286.00,1.33
7285.00,1.32
7284.00,1.32
7283.00,1.32
7282.00,1.32
7281.00,1.32
7280.00,1.32
7279.00,1.32
7278.00,1.32
7277.00,1.32
7276.00,1.32
7275.00,1.32
7274.00,1.32
7273.00,1.32
7272.00,1.32
7271.00,1.31
7270.00,1.31
7269.00,1.31
7268.00,1.31
7267.00,1.31
7266.00,1.31
7265.00,1.31
7264.00,1.31
7263.00,1.30
7262.00,1.30
7261.00,1.30
7260.00,1.30
7259.00,1.30
7258.00,1.30
7257.00,1.30
7256.00,1.30
7255.00,1.30
7254.00,1.30
7253.00,1.30
7252.00,1.30
7251.00,1.30
7250.00,1.30
7249.00,1.30
7248.00,1.30
7247.00,1.30
7246.00,1.30
7245.00,1.30
7244.00,1.30
7243.00,1.31
7242.00,1.31
7241.00,1.31
7240.00,1.31
7239.00,1.32
7238.00,1.32
7237.00,1.32
7236.00,1.32
7235.00,1.32
7234.00,1.32
7233.00,1.33
7232.00,1.33
7231.00,1.33
7230.00,1.33
7229.00,1.33
7228.00,1.33
7227.00,1.33
7226.00,1.33
7225.00,1.33
7224.00,1.33
7223.00,1.33
7222.00,1.33
7221.00,1.32
7220.00,1.32
7219.00,1.32
7218.00,1.32
7217.00,1.31
7216.00,1.31
7215.00,1.31
7214.00,1.30
7213.00,1.30
7212.00,1.29
7211.00,1.29
7210.00,1.29
7209.00,1.29
7208.00,1.28
7207.00,1.28
7206.00,1.28
7205.00,1.28
7204.00,1.27
7203.00,1.27
7202.00,1.27
7201.00,1.27
7200.00,1.27
7199.00,1.27
7198.00,1.26
7197.00,1.26
7196.00,1.26
7195.00,1.26
7194.00,1.26
7193.00,1.26
7192.00,1.26
7191.00,1.26
7190.00,1.26
7189.00,1.26
7188.00,1.27
7187.00,1.27
7186.00,1.27
7185.00,1.27
7184.00,1.27
7183.00,1.27
7182.00,1.27
7181.00,1.27
7180.00,1.27
7179.00,1.28
7178.00,1.28
7177.00,1.28
7176.00,1.28
7175.00,1.28
7174.00,1.28
7173.00,1.28
7172.00,1.28
7171.00,1.28
7170.00,1.28
7169.00,1.28
7168.00,1.28
7167.00,1.28
7166.00,1.28
7165.00,1.28
7164.00,1.27
7163.00,1.27
7162.00,1.27
7161.00,1.27
7160.00,1.27
7159.00,1.26
7158.00,1.26
7157.00,1.26
7156.00,1.26
7155.00,1.25
7154.00,1.25
7153.00,1.25
7152.00,1.24
7151.00,1.24
7150.00,1.23
7149.00,1.23
7148.00,1.23
7147.00,1.22
7146.00,1.22
7145.00,1.22
7144.00,1.22
7143.00,1.22
7142.00,1.21
7141.00,1.21
7140.00,1.21
7139.00,1.21
7138.00,1.21
7137.00,1.21
7136.00,1.21
7135.00,1.21
7134.00,1.21
7133.00,1.21
7132.00,1.21
7131.00,1.22
7130.00,1.22
7129.00,1.22
7128.00,1.22
7127.00,1.22
7126.00,1.22
7125.00,1.22
7124.00,1.23
7123.00,1.23
7122.00,1.23
7121.00,1.23
7120.00,1.23
7119.00,1.24
7118.00,1.24
7117.00,1.24
7116.00,1.24
7115.00,1.23
7114.00,1.23
7113.00,1.23
7112.00,1.23
7111.00,1.23
7110.00,1.23
7109.00,1.23
7108.00,1.22
7107.00,1.22
7106.00,1.22
7105.00,1.22
7104.00,1.22
7103.00,1.22
7102.00,1.22
7101.00,1.21
7100.00,1.21
7099.00,1.21
7098.00,1.21
7097.00,1.21
7096.00,1.20
7095.00,1.20
7094.00,1.20
7093.00,1.20
7092.00,1.20
7091.00,1.20
7090.00,1.20
7089.00,1.20
7088.00,1.20
7087.00,1.20
7086.00,1.20
7085.00,1.20
7084.00,1.20
7083.00,1.20
7082.00,1.20
7081.00,1.20
7080.00,1.19
7079.00,1.19
7078.00,1.19
7077.00,1.19
7076.00,1.19
7075.00,1.19
7074.00,1.19
7073.00,1.19
7072.00,1.19
7071.00,1.19
7070.00,1.19
7069.00,1.19
7068.00,1.19
7067.00,1.18
7066.00,1.18
7065.00,1.18
7064.00,1.18
7063.00,1.17
7062.00,1.17
7061.00,1.17
7060.00,1.17
7059.00,1.17
7058.00,1.16
7057.00,1.16
7056.00,1.16
7055.00,1.16
7054.00,1.16
7053.00,1.16
7052.00,1.16
7051.00,1.16
7050.00,1.15
7049.00,1.15
7048.00,1.15
7047.00,1.15
7046.00,1.15
7045.00,1.15
7044.00,1.15
7043.00,1.15
7042.00,1.15
7041.00,1.15
7040.00,1.15
7039.00,1.15
7038.00,1.15
7037.00,1.15
7036.00,1.15
7035.00,1.15
7034.00,1.15
7033.00,1.15
7032.00,1.15
7031.00,1.15
7030.00,1.15
7029.00,1.16
7028.00,1.16
7027.00,1.16
7026.00,1.16
7025.00,1.16
7024.00,1.16
7023.00,1.16
7022.00,1.16
7021.00,1.16
7020.00,1.16
7019.00,1.17
7018.00,1.17
7017.00,1.17
7016.00,1.17
7015.00,1.17
7014.00,1.17
7013.00,1.16
7012.00,1.16
7011.00,1.16
7010.00,1.16
7009.00,1.16
7008.00,1.16
7007.00,1.15
7006.00,1.15
7005.00,1.15
7004.00,1.15
7003.00,1.15
7002.00,1.15
7001.00,1.15
7000.00,1.14
6999.00,1.14
6998.00,1.14
6997.00,1.14
6996.00,1.14
6995.00,1.13
6994.00,1.13
6993.00,1.13
6992.00,1.13
6991.00,1.13
6990.00,1.13
6989.00,1.13
6988.00,1.13
6987.00,1.13
6986.00,1.13
6985.00,1.13
6984.00,1.14
6983.00,1.14
6982.00,1.14
6981.00,1.14
6980.00,1.14
6979.00,1.14
6978.00,1.14
6977.00,1.15
6976.00,1.15
6975.00,1.15
6974.00,1.15
6973.00,1.15
6972.00,1.15
6971.00,1.16
6970.00,1.16
6969.00,1.16
6968.00,1.16
6967.00,1.17
6966.00,1.17
6965.00,1.17
6964.00,1.17
6963.00,1.17
6962.00,1.17
6961.00,1.18
6960.00,1.18
6959.00,1.18
6958.00,1.18
6957.00,1.18
6956.00,1.18
6955.00,1.18
6954.00,1.18
6953.00,1.18
6952.00,1.17
6951.00,1.17
6950.00,1.17
6949.00,1.17
6948.00,1.17
6947.00,1.17
6946.00,1.17
6945.00,1.16
6944.00,1.16
6943.00,1.16
6942.00,1.16
6941.00,1.15
6940.00,1.15
6939.00,1.15
6938.00,1.14
6937.00,1.14
6936.00,1.13
6935.00,1.13
6934.00,1.13
6933.00,1.13
6932.00,1.12
6931.00,1.12
6930.00,1.12
6929.00,1.12
6928.00,1.11
6927.00,1.11
6926.00,1.11
6925.00,1.11
6924.00,1.11
6923.00,1.11
6922.00,1.11
6921.00,1.11
6920.00,1.11
6919.00,1.12
6918.00,1.12
6917.00,1.12
6916.00,1.12
6915.00,1.12
6914.00,1.12
6913.00,1.12
6912.00,1.12
6911.00,1.13
6910.00,1.13
6909.00,1.13
6908.00,1.13
6907.00,1.13
6906.00,1.13
6905.00,1.14
6904.00,1.14
6903.00,1.14
6902.00,1.14
6901.00,1.14
6900.00,1.14
6899.00,1.14
6898.00,1.14
6897.00,1.14
6896.00,1.14
6895.00,1.14
6894.00,1.14
6893.00,1.14
6892.00,1.14
6891.00,1.14
6890.00,1.14
6889.00,1.14
6888.00,1.13
6887.00,1.13
6886.00,1.13
6885.00,1.13
6884.00,1.13
6883.00,1.13
6882.00,1.12
6881.00,1.12
6880.00,1.12
6879.00,1.12
6878.00,1.12
6877.00,1.12
6876.00,1.12
6875.00,1.12
6874.00,1.12
6873.00,1.12
6872.00,1.12
6871.00,1.12
6870.00,1.12
6869.00,1.11
6868.00,1.11
6867.00,1.11
6866.00,1.11
6865.00,1.11
6864.00,1.11
6863.00,1.11
6862.00,1.11
6861.00,1.11
6860.00,1.11
6859.00,1.11
6858.00,1.11
6857.00,1.12
6856.00,1.12
6855.00,1.12
6854.00,1.12
6853.00,1.12
6852.00,1.12
6851.00,1.12
6850.00,1.12
6849.00,1.12
6848.00,1.12
6847.00,1.12
6846.00,1.12
6845.00,1.12
6844.00,1.13
6843.00,1.13
6842.00,1.13
6841.00,1.13
6840.00,1.13
6839.00,1.13
6838.00,1.13
6837.00,1.14
6836.00,1.14
6835.00,1.14
6834.00,1.14
6833.00,1.14
6832.00,1.14
6831.00,1.15
6830.00,1.15
6829.00,1.15
6828.00,1.15
6827.00,1.15
6826.00,1.15
6825.00,1.15
6824.00,1.15
6823.00,1.16
6822.00,1.16
6821.00,1.16
6820.00,1.16
6819.00,1.16
6818.00,1.16
6817.00,1.16
6816.00,1.16
6815.00,1.17
6814.00,1.17
6813.00,1.17
6812.00,1.17
6811.00,1.17
6810.00,1.17
6809.00,1.17
6808.00,1.17
6807.00,1.17
6806.00,1.17
6805.00,1.16
6804.00,1.16
6803.00,1.16
6802.00,1.16
6801.00,1.16
6800.00,1.16
6799.00,1.16
6798.00,1.16
6797.00,1.16
6796.00,1.16
6795.00,1.15
6794.00,1.15
6793.00,1.15
6792.00,1.15
6791.00,1.15
6790.00,1.15
6789.00,1.14
6788.00,1.14
6787.00,1.14
6786.00,1.14
6785.00,1.14
6784.00,1.14
6783.00,1.14
6782.00,1.14
6781.00,1.14
6780.00,1.14
6779.00,1.14
6778.00,1.14
6777.00,1.14
6776.00,1.14
6775.00,1.14
6774.00,1.14
6773.00,1.14
6772.00,1.14
6771.00,1.14
6770.00,1.14
6769.00,1.14
6768.00,1.14
6767.00,1.14
6766.00,1.14
6765.00,1.14
6764.00,1.14
6763.00,1.15
6762.00,1.15
6761.00,1.15
6760.00,1.15
6759.00,1.15
6758.00,1.15
6757.00,1.15
6756.00,1.15
6755.00,1.15
6754.00,1.15
6753.00,1.15
6752.00,1.15
6751.00,1.15
6750.00,1.15
6749.00,1.16
6748.00,1.16
6747.00,1.16
6746.00,1.16
6745.00,1.16
6744.00,1.16
6743.00,1.16
6742.00,1.16
6741.00,1.17
6740.00,1.17
6739.00,1.17
6738.00,1.17
6737.00,1.17
6736.00,1.17
6735.00,1.18
6734.00,1.18
6733.00,1.18
6732.00,1.18
6731.00,1.18
6730.00,1.18
6729.00,1.18
6728.00,1.18
6727.00,1.18
6726.00,1.18
6725.00,1.18
6724.00,1.18
6723.00,1.18
6722.00,1.18
6721.00,1.18
6720.00,1.18
6719.00,1.18
6718.00,1.18
6717.00,1.18
6716.00,1.18
6715.00,1.18
6714.00,1.18
6713.00,1.18
6712.00,1.18
6711.00,1.18
6710.00,1.18
6709.00,1.18
6708.00,1.18
6707.00,1.18
6706.00,1.18
6705.00,1.18
6704.00,1.18
6703.00,1.18
6702.00,1.19
6701.00,1.19
6700.00,1.19
6699.00,1.19
6698.00,1.19
6697.00,1.19
6696.00,1.20
6695.00,1.20
6694.00,1.20
6693.00,1.20
6692.00,1.21
6691.00,1.21
6690.00,1.21
6689.00,1.22
6688.00,1.22
6687.00,1.22
6686.00,1.22
6685.00,1.23
6684.00,1.23
6683.00,1.23
6682.00,1.23
6681.00,1.24
6680.00,1.24
6679.00,1.24
6678.00,1.24
6677.00,1.24
6676.00,1.24
6675.00,1.24
6674.00,1.24
6673.00,1.23
6672.00,1.23
6671.00,1.23
6670.00,1.23
6669.00,1.23
6668.00,1.22
6667.00,1.22
6666.00,1.22
6665.00,1.22
6664.00,1.21
6663.00,1.21
6662.00,1.21
6661.00,1.21
6660.00,1.21
6659.00,1.20
6658.00,1.20
6657.00,1.20
6656.00,1.20
6655.00,1.20
6654.00,1.20
6653.00,1.20
6652.00,1.20
6651.00,1.20
6650.00,1.20
6649.00,1.20
6648.00,1.20
6647.00,1.20
6646.00,1.20
6645.00,1.21
6644.00,1.21
6643.00,1.21
6642.00,1.21
6641.00,1.21
6640.00,1.22
6639.00,1.22
6638.00,1.22
6637.00,1.22
6636.00,1.22
6635.00,1.22
6634.00,1.22
6633.00,1.22
6632.00,1.23
6631.00,1.23
6630.00,1.23
6629.00,1.23
6628.00,1.23
6627.00,1.23
6626.00,1.23
6625.00,1.23
6624.00,1.23
6623.00,1.23
6622.00,1.23
6621.00,1.23
6620.00,1.23
6619.00,1.23
6618.00,1.23
6617.00,1.23
6616.00,1.23
6615.00,1.23
6614.00,1.23
6613.00,1.23
6612.00,1.23
6611.00,1.23
6610.00,1.23
6609.00,1.23
6608.00,1.23
6607.00,1.23
6606.00,1.24
6605.00,1.24
6604.00,1.24
6603.00,1.24
6602.00,1.24
6601.00,1.24
6600.00,1.24
6599.00,1.25
6598.00,1.25
6597.00,1.25
6596.00,1.25
6595.00,1.25
6594.00,1.25
6593.00,1.25
6592.00,1.25
6591.00,1.25
6590.00,1.25
6589.00,1.25
6588.00,1.26
6587.00,1.26
6586.00,1.26
6585.00,1.26
6584.00,1.26
6583.00,1.26
6582.00,1.26
6581.00,1.26
6580.00,1.26
6579.00,1.26
6578.00,1.26
6577.00,1.26
6576.00,1.27
6575.00,1.27
6574.00,1.27
6573.00,1.27
6572.00,1.27
6571.00,1.27
6570.00,1.27
6569.00,1.28
6568.00,1.28
6567.00,1.28
6566.00,1.28
6565.00,1.28
6564.00,1.29
6563.00,1.29
6562.00,1.29
6561.00,1.29
6560.00,1.29
6559.00,1.29
6558.00,1.30
6557.00,1.30
6556.00,1.30
6555.00,1.30
6554.00,1.30
6553.00,1.30
6552.00,1.30
6551.00,1.31
6550.00,1.31
6549.00,1.31
6548.00,1.31
6547.00,1.31
6546.00,1.31
6545.00,1.31
6544.00,1.32
6543.00,1.32
6542.00,1.32
6541.00,1.32
6540.00,1.32
6539.00,1.32
6538.00,1.32
6537.00,1.32
6536.00,1.32
6535.00,1.32
6534.00,1.32
6533.00,1.32
6532.00,1.32
6531.00,1.32
6530.00,1.32
6529.00,1.32
6528.00,1.32
6527.00,1.32
6526.00,1.32
6525.00,1.32
6524.00,1.32
6523.00,1.31
6522.00,1.31
6521.00,1.31
6520.00,1.31
6519.00,1.31
6518.00,1.31
6517.00,1.31
6516.00,1.31
6515.00,1.31
6514.00,1.30
6513.00,1.30
6512.00,1.30
6511.00,1.30
6510.00,1.30
6509.00,1.30
6508.00,1.30
6507.00,1.30
6506.00,1.30
6505.00,1.30
6504.00,1.30
6503.00,1.30
6502.00,1.30
6501.00,1.30
6500.00,1.30
6499.00,1.29
6498.00,1.29
6497.00,1.29
6496.00,1.29
6495.00,1.29
6494.00,1.29
6493.00,1.29
6492.00,1.29
6491.00,1.29
6490.00,1.29
6489.00,1.29
6488.00,1.29
6487.00,1.29
6486.00,1.29
6485.00,1.29
6484.00,1.29
6483.00,1.29
6482.00,1.29
6481.00,1.29
6480.00,1.29
6479.00,1.29
6478.00,1.29
6477.00,1.30
6476.00,1.30
6475.00,1.30
6474.00,1.30
6473.00,1.30
6472.00,1.30
6471.00,1.30
6470.00,1.30
6469.00,1.31
6468.00,1.31
6467.00,1.31
6466.00,1.31
6465.00,1.31
6464.00,1.31
6463.00,1.31
6462.00,1.32
6461.00,1.32
6460.00,1.32
6459.00,1.32
6458.00,1.32
6457.00,1.32
6456.00,1.32
6455.00,1.32
6454.00,1.32
6453.00,1.32
6452.00,1.32
6451.00,1.33
6450.00,1.33
6449.00,1.33
6448.00,1.33
6447.00,1.33
6446.00,1.33
6445.00,1.33
6444.00,1.32
6443.00,1.32
6442.00,1.32
6441.00,1.32
6440.00,1.32
6439.00,1.32
6438.00,1.32
6437.00,1.32
6436.00,1.32
6435.00,1.32
6434.00,1.32
6433.00,1.32
6432.00,1.32
6431.00,1.32
6430.00,1.32
6429.00,1.32
6428.00,1.32
6427.00,1.32
6426.00,1.32
6425.00,1.32
6424.00,1.32
6423.00,1.32
6422.00,1.32
6421.00,1.32
6420.00,1.32
6419.00,1.32
6418.00,1.32
6417.00,1.32
6416.00,1.32
6415.00,1.32
6414.00,1.32
6413.00,1.32
6412.00,1.32
6411.00,1.32
6410.00,1.32
6409.00,1.32
6408.00,1.32
6407.00,1.32
6406.00,1.32
6405.00,1.32
6404.00,1.32
6403.00,1.32
6402.00,1.32
6401.00,1.32
6400.00,1.32
6399.00,1.32
6398.00,1.32
6397.00,1.32
6396.00,1.32
6395.00,1.32
6394.00,1.32
6393.00,1.33
6392.00,1.33
6391.00,1.33
6390.00,1.33
6389.00,1.33
6388.00,1.33
6387.00,1.33
6386.00,1.33
6385.00,1.33
6384.00,1.33
6383.00,1.33
6382.00,1.34
6381.00,1.34
6380.00,1.34
6379.00,1.34
6378.00,1.34
6377.00,1.34
6376.00,1.34
6375.00,1.34
6374.00,1.34
6373.00,1.34
6372.00,1.34
6371.00,1.34
6370.00,1.34
6369.00,1.34
6368.00,1.35
6367.00,1.35
6366.00,1.35
6365.00,1.35
6364.00,1.35
6363.00,1.35
6362.00,1.35
6361.00,1.35
6360.00,1.35
6359.00,1.35
6358.00,1.35
6357.00,1.35
6356.00,1.35
6355.00,1.35
6354.00,1.35
6353.00,1.36
6352.00,1.36
6351.00,1.36
6350.00,1.36
6349.00,1.36
6348.00,1.36
6347.00,1.36
6346.00,1.35
6345.00,1.35
6344.00,1.35
6343.00,1.35
6342.00,1.35
6341.00,1.35
6340.00,1.35
6339.00,1.35
6338.00,1.35
6337.00,1.35
6336.00,1.35
6335.00,1.35
6334.00,1.35
6333.00,1.34
6332.00,1.34
6331.00,1.34
6330.00,1.34
6329.00,1.34
6328.00,1.34
6327.00,1.34
6326.00,1.34
6325.00,1.34
6324.00,1.34
6323.00,1.35
6322.00,1.35
6321.00,1.35
6320.00,1.35
6319.00,1.35
6318.00,1.35
6317.00,1.36
6316.00,1.36
6315.00,1.36
6314.00,1.36
6313.00,1.37
6312.00,1.37
6311.00,1.37
6310.00,1.37
6309.00,1.37
6308.00,1.37
6307.00,1.37
6306.00,1.37
6305.00,1.38
6304.00,1.38
6303.00,1.38
6302.00,1.38
6301.00,1.38
6300.00,1.37
6299.00,1.37
6298.00,1.37
6297.00,1.37
6296.00,1.37
6295.00,1.37
6294.00,1.37
6293.00,1.37
6292.00,1.36
6291.00,1.36
6290.00,1.36
6289.00,1.36
6288.00,1.36
6287.00,1.35
6286.00,1.35
6285.00,1.35
6284.00,1.35
6283.00,1.35
6282.00,1.35
6281.00,1.35
6280.00,1.35
6279.00,1.35
6278.00,1.35
6277.00,1.35
6276.00,1.35
6275.00,1.35
6274.00,1.35
6273.00,1.35
6272.00,1.35
6271.00,1.35
6270.00,1.35
6269.00,1.35
6268.00,1.35
6267.00,1.35
6266.00,1.35
6265.00,1.35
6264.00,1.35
6263.00,1.35
6262.00,1.35
6261.00,1.35
6260.00,1.35
6259.00,1.35
6258.00,1.35
6257.00,1.35
6256.00,1.35
6255.00,1.35
6254.00,1.35
6253.00,1.35
6252.00,1.35
6251.00,1.35
6250.00,1.35
6249.00,1.35
6248.00,1.35
6247.00,1.35
6246.00,1.35
6245.00,1.35
6244.00,1.35
6243.00,1.35
6242.00,1.36
6241.00,1.36
6240.00,1.36
6239.00,1.36
6238.00,1.36
6237.00,1.36
6236.00,1.36
6235.00,1.36
6234.00,1.36
6233.00,1.36
6232.00,1.36
6231.00,1.36
6230.00,1.36
6229.00,1.37
6228.00,1.37
6227.00,1.37
6226.00,1.37
6225.00,1.37
6224.00,1.37
6223.00,1.37
6222.00,1.37
6221.00,1.37
6220.00,1.37
6219.00,1.37
6218.00,1.37
6217.00,1.37
6216.00,1.37
6215.00,1.37
6214.00,1.38
6213.00,1.38
6212.00,1.38
6211.00,1.38
6210.00,1.38
6209.00,1.38
6208.00,1.38
6207.00,1.38
6206.00,1.38
6205.00,1.39
6204.00,1.39
6203.00,1.39
6202.00,1.39
6201.00,1.39
6200.00,1.39
6199.00,1.39
6198.00,1.39
6197.00,1.39
6196.00,1.39
6195.00,1.40
6194.00,1.40
6193.00,1.40
6192.00,1.40
6191.00,1.40
6190.00,1.40
6189.00,1.40
6188.00,1.40
6187.00,1.40
6186.00,1.40
6185.00,1.40
6184.00,1.40
6183.00,1.40
6182.00,1.40
6181.00,1.40
6180.00,1.40
6179.00,1.40
6178.00,1.40
6177.00,1.40
6176.00,1.40
6175.00,1.40
6174.00,1.40
6173.00,1.40
6172.00,1.40
6171.00,1.41
6170.00,1.41
6169.00,1.41
6168.00,1.41
6167.00,1.41
6166.00,1.41
6165.00,1.41
6164.00,1.41
6163.00,1.41
6162.00,1.41
6161.00,1.41
6160.00,1.41
6159.00,1.41
6158.00,1.41
6157.00,1.41
6156.00,1.41
6155.00,1.41
6154.00,1.41
6153.00,1.41
6152.00,1.41
6151.00,1.41
6150.00,1.41
6149.00,1.41
6148.00,1.41
6147.00,1.41
6146.00,1.41
6145.00,1.41
6144.00,1.41
6143.00,1.41
6142.00,1.41
6141.00,1.41
6140.00,1.41
6139.00,1.40
6138.00,1.40
6137.00,1.40
6136.00,1.40
6135.00,1.40
6134.00,1.40
6133.00,1.40
6132.00,1.40
6131.00,1.40
6130.00,1.40
6129.00,1.40
6128.00,1.40
6127.00,1.40
6126.00,1.41
6125.00,1.41
6124.00,1.41
6123.00,1.41
6122.00,1.41
6121.00,1.41
6120.00,1.41
6119.00,1.41
6118.00,1.41
6117.00,1.42
6116.00,1.42
6115.00,1.42
6114.00,1.42
6113.00,1.42
6112.00,1.42
6111.00,1.42
6110.00,1.42
6109.00,1.42
6108.00,1.42
6107.00,1.43
6106.00,1.43
6105.00,1.43
6104.00,1.43
6103.00,1.43
6102.00,1.43
6101.00,1.44
6100.00,1.44
6099.00,1.44
6098.00,1.44
6097.00,1.44
6096.00,1.44
6095.00,1.44
6094.00,1.44
6093.00,1.45
6092.00,1.45
6091.00,1.45
6090.00,1.45
6089.00,1.45
6088.00,1.45
6087.00,1.45
6086.00,1.45
6085.00,1.45
6084.00,1.46
6083.00,1.46
6082.00,1.46
6081.00,1.46
6080.00,1.46
6079.00,1.46
6078.00,1.46
6077.00,1.46
6076.00,1.46
6075.00,1.46
6074.00,1.46
6073.00,1.46
6072.00,1.46
6071.00,1.46
6070.00,1.46
6069.00,1.46
6068.00,1.46
6067.00,1.46
6066.00,1.46
6065.00,1.46
6064.00,1.46
6063.00,1.46
6062.00,1.46
6061.00,1.46
6060.00,1.46
6059.00,1.46
6058.00,1.45
6057.00,1.45
6056.00,1.45
6055.00,1.45
6054.00,1.45
6053.00,1.45
6052.00,1.45
6051.00,1.45
6050.00,1.45
6049.00,1.45
6048.00,1.45
6047.00,1.45
6046.00,1.45
6045.00,1.45
6044.00,1.45
6043.00,1.44
6042.00,1.44
6041.00,1.44
6040.00,1.44
6039.00,1.44
6038.00,1.44
6037.00,1.44
6036.00,1.44
6035.00,1.43
6034.00,1.43
6033.00,1.43
6032.00,1.43
6031.00,1.43
6030.00,1.43
6029.00,1.43
6028.00,1.43
6027.00,1.43
6026.00,1.43
6025.00,1.43
6024.00,1.43
6023.00,1.43
6022.00,1.43
6021.00,1.43
6020.00,1.43
6019.00,1.44
6018.00,1.44
6017.00,1.44
6016.00,1.44
6015.00,1.44
6014.00,1.45
6013.00,1.45
6012.00,1.45
6011.00,1.45
6010.00,1.45
6009.00,1.45
6008.00,1.45
6007.00,1.46
6006.00,1.46
6005.00,1.46
6004.00,1.46
6003.00,1.46
6002.00,1.46
6001.00,1.46
6000.00,1.46
5999.00,1.46
5998.00,1.46
5997.00,1.47
5996.00,1.47
5995.00,1.47
5994.00,1.47
5993.00,1.47
5992.00,1.47
5991.00,1.47
5990.00,1.47
5989.00,1.47
5988.00,1.47
5987.00,1.47
5986.00,1.47
5985.00,1.46
5984.00,1.46
5983.00,1.46
5982.00,1.46
5981.00,1.46
5980.00,1.46
5979.00,1.46
5978.00,1.46
5977.00,1.46
5976.00,1.46
5975.00,1.46
5974.00,1.46
5973.00,1.46
5972.00,1.46
5971.00,1.46
5970.00,1.46
5969.00,1.46
5968.00,1.45
5967.00,1.45
5966.00,1.45
5965.00,1.45
5964.00,1.45
5963.00,1.45
5962.00,1.45
5961.00,1.45
5960.00,1.45
5959.00,1.45
5958.00,1.45
5957.00,1.44
5956.00,1.44
5955.00,1.44
5954.00,1.44
5953.00,1.44
5952.00,1.44
5951.00,1.44
5950.00,1.44
5949.00,1.44
5948.00,1.44
5947.00,1.44
5946.00,1.44
5945.00,1.44
5944.00,1.44
5943.00,1.44
5942.00,1.43
5941.00,1.43
5940.00,1.43
5939.00,1.43
5938.00,1.43
5937.00,1.43
5936.00,1.43
5935.00,1.43
5934.00,1.43
5933.00,1.43
5932.00,1.43
5931.00,1.43
5930.00,1.43
5929.00,1.43
5928.00,1.43
5927.00,1.42
5926.00,1.42
5925.00,1.42
5924.00,1.42
5923.00,1.42
5922.00,1.42
5921.00,1.42
5920.00,1.42
5919.00,1.42
5918.00,1.42
5917.00,1.42
5916.00,1.42
5915.00,1.42
5914.00,1.42
5913.00,1.42
5912.00,1.42
5911.00,1.42
5910.00,1.42
5909.00,1.42
5908.00,1.42
5907.00,1.42
5906.00,1.42
5905.00,1.42
5904.00,1.42
5903.00,1.42
5902.00,1.42
5901.00,1.42
5900.00,1.42
5899.00,1.42
5898.00,1.42
5897.00,1.42
5896.00,1.42
5895.00,1.42
5894.00,1.42
5893.00,1.42
5892.00,1.42
5891.00,1.42
5890.00,1.42
5889.00,1.42
5888.00,1.42
5887.00,1.42
5886.00,1.42
5885.00,1.42
5884.00,1.42
5883.00,1.42
5882.00,1.42
5881.00,1.42
5880.00,1.42
5879.00,1.42
5878.00,1.42
5877.00,1.42
5876.00,1.42
5875.00,1.42
5874.00,1.42
5873.00,1.42
5872.00,1.42
5871.00,1.42
5870.00,1.42
5869.00,1.42
5868.00,1.42
5867.00,1.42
5866.00,1.42
5865.00,1.42
5864.00,1.42
5863.00,1.42
5862.00,1.42
5861.00,1.42
5860.00,1.42
5859.00,1.42
5858.00,1.42
5857.00,1.42
5856.00,1.42
5855.00,1.42
5854.00,1.42
5853.00,1.42
5852.00,1.42
5851.00,1.42
5850.00,1.42
5849.00,1.42
5848.00,1.42
5847.00,1.42
5846.00,1.42
5845.00,1.42
5844.00,1.42
5843.00,1.42
5842.00,1.42
5841.00,1.42
5840.00,1.42
5839.00,1.42
5838.00,1.42
5837.00,1.41
5836.00,1.41
5835.00,1.41
5834.00,1.41
5833.00,1.41
5832.00,1.41
5831.00,1.41
5830.00,1.41
5829.00,1.41
5828.00,1.41
5827.00,1.41
5826.00,1.41
5825.00,1.41
5824.00,1.41
5823.00,1.41
5822.00,1.41
5821.00,1.41
5820.00,1.41
5819.00,1.41
5818.00,1.41
5817.00,1.42
5816.00,1.42
5815.00,1.42
5814.00,1.42
5813.00,1.42
5812.00,1.42
5811.00,1.42
5810.00,1.42
5809.00,1.42
5808.00,1.42
5807.00,1.42
5806.00,1.42
5805.00,1.42
5804.00,1.42
5803.00,1.42
5802.00,1.42
5801.00,1.42
5800.00,1.42
5799.00,1.42
5798.00,1.42
5797.00,1.42
5796.00,1.42
5795.00,1.42
5794.00,1.42
5793.00,1.42
5792.00,1.42
5791.00,1.42
5790.00,1.42
5789.00,1.42
5788.00,1.42
5787.00,1.42
5786.00,1.42
5785.00,1.42
5784.00,1.42
5783.00,1.42
5782.00,1.42
5781.00,1.42
5780.00,1.41
5779.00,1.41
5778.00,1.41
5777.00,1.41
5776.00,1.41
5775.00,1.42
5774.00,1.42
5773.00,1.42
5772.00,1.42
5771.00,1.42
5770.00,1.42
5769.00,1.42
5768.00,1.42
5767.00,1.42
5766.00,1.42
5765.00,1.42
5764.00,1.42
5763.00,1.42
5762.00,1.42
5761.00,1.42
5760.00,1.42
5759.00,1.42
5758.00,1.42
5757.00,1.42
5756.00,1.42
5755.00,1.42
5754.00,1.42
5753.00,1.42
5752.00,1.42
5751.00,1.42
5750.00,1.42
5749.00,1.42
5748.00,1.42
5747.00,1.42
5746.00,1.42
5745.00,1.42
5744.00,1.42
5743.00,1.42
5742.00,1.42
5741.00,1.42
5740.00,1.42
5739.00,1.42
5738.00,1.42
5737.00,1.42
5736.00,1.42
5735.00,1.42
5734.00,1.42
5733.00,1.42
5732.00,1.42
5731.00,1.42
5730.00,1.42
5729.00,1.42
5728.00,1.41
5727.00,1.41
5726.00,1.41
5725.00,1.41
5724.00,1.41
5723.00,1.41
5722.00,1.41
5721.00,1.41
5720.00,1.41
5719.00,1.41
5718.00,1.41
5717.00,1.41
5716.00,1.41
5715.00,1.41
5714.00,1.41
5713.00,1.41
5712.00,1.41
5711.00,1.41
5710.00,1.41
5709.00,1.41
5708.00,1.41
5707.00,1.41
5706.00,1.41
5705.00,1.42
5704.00,1.42
5703.00,1.42
5702.00,1.42
5701.00,1.42
5700.00,1.42
5699.00,1.42
5698.00,1.42
5697.00,1.42
5696.00,1.43
5695.00,1.43
5694.00,1.43
5693.00,1.43
5692.00,1.43
5691.00,1.43
5690.00,1.43
5689.00,1.43
5688.00,1.43
5687.00,1.43
5686.00,1.43
5685.00,1.43
5684.00,1.43
5683.00,1.43
5682.00,1.43
5681.00,1.43
5680.00,1.43
5679.00,1.43
5678.00,1.43
5677.00,1.43
5676.00,1.43
5675.00,1.43
5674.00,1.43
5673.00,1.43
5672.00,1.43
5671.00,1.42
5670.00,1.42
5669.00,1.42
5668.00,1.42
5667.00,1.42
5666.00,1.42
5665.00,1.42
5664.00,1.42
5663.00,1.42
5662.00,1.42
5661.00,1.42
5660.00,1.42
5659.00,1.42
5658.00,1.42
5657.00,1.42
5656.00,1.42
5655.00,1.42
5654.00,1.42
5653.00,1.43
5652.00,1.43
5651.00,1.43
5650.00,1.43
5649.00,1.43
5648.00,1.43
5647.00,1.43
5646.00,1.43
5645.00,1.43
5644.00,1.43
5643.00,1.44
5642.00,1.44
5641.00,1.44
5640.00,1.44
5639.00,1.44
5638.00,1.44
5637.00,1.44
5636.00,1.44
5635.00,1.44
5634.00,1.44
5633.00,1.44
5632.00,1.44
5631.00,1.44
5630.00,1.44
5629.00,1.44
5628.00,1.44
5627.00,1.44
5626.00,1.44
5625.00,1.44
5624.00,1.43
5623.00,1.43
5622.00,1.43
5621.00,1.43
5620.00,1.43
5619.00,1.43
5618.00,1.43
5617.00,1.43
5616.00,1.43
5615.00,1.43
5614.00,1.43
5613.00,1.43
5612.00,1.43
5611.00,1.43
5610.00,1.43
5609.00,1.43
5608.00,1.43
5607.00,1.43
5606.00,1.43
5605.00,1.43
5604.00,1.43
5603.00,1.43
5602.00,1.44
5601.00,1.44
5600.00,1.44
5599.00,1.44
5598.00,1.44
5597.00,1.44
5596.00,1.44
5595.00,1.44
5594.00,1.44
5593.00,1.44
5592.00,1.44
5591.00,1.44
5590.00,1.44
5589.00,1.44
5588.00,1.44
5587.00,1.44
5586.00,1.44
5585.00,1.44
5584.00,1.44
5583.00,1.44
5582.00,1.44
5581.00,1.44
5580.00,1.44
5579.00,1.44
5578.00,1.44
5577.00,1.44
5576.00,1.44
5575.00,1.44
5574.00,1.44
5573.00,1.44
5572.00,1.44
5571.00,1.44
5570.00,1.44
5569.00,1.44
5568.00,1.44
5567.00,1.44
5566.00,1.44
5565.00,1.44
5564.00,1.44
5563.00,1.44
5562.00,1.44
5561.00,1.45
5560.00,1.45
5559.00,1.45
5558.00,1.45
5557.00,1.45
5556.00,1.45
5555.00,1.45
5554.00,1.45
5553.00,1.45
5552.00,1.45
5551.00,1.45
5550.00,1.45
5549.00,1.45
5548.00,1.45
5547.00,1.45
5546.00,1.45
5545.00,1.45
5544.00,1.45
5543.00,1.45
5542.00,1.45
5541.00,1.45
5540.00,1.45
5539.00,1.45
5538.00,1.45
5537.00,1.45
5536.00,1.45
5535.00,1.45
5534.00,1.45
5533.00,1.45
5532.00,1.45
5531.00,1.45
5530.00,1.45
5529.00,1.45
5528.00,1.44
5527.00,1.44
5526.00,1.44
5525.00,1.44
5524.00,1.44
5523.00,1.44
5522.00,1.44
5521.00,1.44
5520.00,1.44
5519.00,1.44
5518.00,1.44
5517.00,1.44
5516.00,1.44
5515.00,1.44
5514.00,1.44
5513.00,1.44
5512.00,1.44
5511.00,1.44
5510.00,1.44
5509.00,1.44
5508.00,1.44
5507.00,1.44
5506.00,1.44
5505.00,1.44
5504.00,1.44
5503.00,1.44
5502.00,1.45
5501.00,1.45
5500.00,1.45
5499.00,1.45
5498.00,1.45
5497.00,1.45
5496.00,1.45
5495.00,1.45
5494.00,1.45
5493.00,1.45
5492.00,1.45
5491.00,1.45
5490.00,1.45
5489.00,1.45
5488.00,1.45
5487.00,1.45
5486.00,1.45
5485.00,1.45
5484.00,1.45
5483.00,1.45
5482.00,1.45
5481.00,1.46
5480.00,1.46
5479.00,1.46
5478.00,1.46
5477.00,1.46
5476.00,1.46
5475.00,1.46
5474.00,1.46
5473.00,1.46
5472.00,1.46
5471.00,1.46
5470.00,1.46
5469.00,1.46
5468.00,1.46
5467.00,1.46
5466.00,1.46
5465.00,1.46
5464.00,1.46
5463.00,1.46
5462.00,1.46
5461.00,1.46
5460.00,1.46
5459.00,1.46
5458.00,1.46
5457.00,1.46
5456.00,1.46
5455.00,1.46
5454.00,1.46
5453.00,1.46
5452.00,1.46
5451.00,1.46
5450.00,1.46
5449.00,1.46
5448.00,1.46
5447.00,1.46
5446.00,1.46
5445.00,1.46
5444.00,1.46
5443.00,1.46
5442.00,1.46
5441.00,1.46
5440.00,1.46
5439.00,1.46
5438.00,1.46
5437.00,1.46
5436.00,1.46
5435.00,1.46
5434.00,1.47
5433.00,1.47
5432.00,1.47
5431.00,1.47
5430.00,1.47
5429.00,1.47
5428.00,1.47
5427.00,1.47
5426.00,1.47
5425.00,1.47
5424.00,1.47
5423.00,1.47
5422.00,1.47
5421.00,1.47
5420.00,1.47
5419.00,1.47
5418.00,1.47
5417.00,1.47
5416.00,1.47
5415.00,1.47
5414.00,1.47
5413.00,1.47
5412.00,1.47
5411.00,1.47
5410.00,1.47
5409.00,1.47
5408.00,1.46
5407.00,1.46
5406.00,1.46
5405.00,1.46
5404.00,1.46
5403.00,1.46
5402.00,1.46
5401.00,1.46
5400.00,1.46
5399.00,1.46
5398.00,1.46
5397.00,1.46
5396.00,1.46
5395.00,1.45
5394.00,1.45
5393.00,1.45
5392.00,1.45
5391.00,1.45
5390.00,1.45
5389.00,1.45
5388.00,1.45
5387.00,1.45
5386.00,1.45
5385.00,1.45
5384.00,1.45
5383.00,1.45
5382.00,1.45
5381.00,1.45
5380.00,1.45
5379.00,1.45
5378.00,1.45
5377.00,1.45
5376.00,1.45
5375.00,1.45
5374.00,1.45
5373.00,1.45
5372.00,1.45
5371.00,1.45
5370.00,1.45
5369.00,1.45
5368.00,1.45
5367.00,1.45
5366.00,1.44
5365.00,1.44
5364.00,1.44
5363.00,1.44
5362.00,1.44
5361.00,1.44
5360.00,1.44
5359.00,1.44
5358.00,1.44
5357.00,1.44
5356.00,1.44
5355.00,1.44
5354.00,1.44
5353.00,1.43
5352.00,1.43
5351.00,1.43
5350.00,1.43
5349.00,1.43
5348.00,1.42
5347.00,1.42
5346.00,1.42
5345.00,1.42
5344.00,1.41
5343.00,1.41
5342.00,1.41
5341.00,1.40
5340.00,1.40
5339.00,1.40
5338.00,1.39
5337.00,1.39
5336.00,1.38
5335.00,1.38
5334.00,1.37
5333.00,1.37
5332.00,1.36
5331.00,1.36
5330.00,1.35
5329.00,1.35
5328.00,1.34
5327.00,1.34
5326.00,1.33
5325.00,1.33
5324.00,1.32
5323.00,1.32
5322.00,1.31
5321.00,1.31
5320.00,1.30
5319.00,1.30
5318.00,1.29
5317.00,1.29
5316.00,1.28
5315.00,1.28
5314.00,1.27
5313.00,1.27
5312.00,1.26
5311.00,1.26
5310.00,1.26
5309.00,1.25
5308.00,1.25
5307.00,1.24
5306.00,1.24
5305.00,1.23
5304.00,1.23
5303.00,1.23
5302.00,1.22
5301.00,1.22
5300.00,1.21
5299.00,1.21
5298.00,1.20
5297.00,1.20
5296.00,1.19
5295.00,1.19
5294.00,1.18
5293.00,1.18
5292.00,1.17
5291.00,1.17
5290.00,1.17
5289.00,1.16
5288.00,1.16
5287.00,1.15
5286.00,1.15
5285.00,1.14
5284.00,1.14
5283.00,1.14
5282.00,1.13
5281.00,1.13
5280.00,1.12
5279.00,1.12
5278.00,1.12
5277.00,1.11
5276.00,1.11
5275.00,1.11
5274.00,1.11
5273.00,1.10
5272.00,1.10
5271.00,1.10
5270.00,1.10
5269.00,1.09
5268.00,1.09
5267.00,1.09
5266.00,1.09
5265.00,1.09
5264.00,1.09
5263.00,1.08
5262.00,1.08
5261.00,1.08
5260.00,1.08
5259.00,1.08
5258.00,1.07
5257.00,1.07
5256.00,1.07
5255.00,1.07
5254.00,1.07
5253.00,1.07
5252.00,1.07
5251.00,1.06
5250.00,1.06
5249.00,1.06
5248.00,1.06
5247.00,1.06
5246.00,1.05
5245.00,1.05
5244.00,1.05
5243.00,1.05
5242.00,1.05
5241.00,1.04
5240.00,1.04
5239.00,1.04
5238.00,1.04
5237.00,1.03
5236.00,1.03
5235.00,1.03
5234.00,1.03
5233.00,1.03
5232.00,1.02
5231.00,1.02
5230.00,1.02
5229.00,1.02
5228.00,1.01
5227.00,1.01
5226.00,1.01
5225.00,1.01
5224.00,1.00
5223.00,1.00
5222.00,1.00
5221.00,1.00
5220.00,1.00
5219.00,1.00
5218.00,0.99
5217.00,0.99
5216.00,0.99
5215.00,0.99
5214.00,0.99
5213.00,0.99
5212.00,0.99
5211.00,0.99
5210.00,0.99
5209.00,0.99
5208.00,0.99
5207.00,0.99
5206.00,0.99
5205.00,0.98
5204.00,0.98
5203.00,0.98
5202.00,0.98
5201.00,0.98
5200.00,0.98
5199.00,0.98
5198.00,0.98
5197.00,0.98
5196.00,0.98
5195.00,0.98
5194.00,0.98
5193.00,0.98
5192.00,0.98
5191.00,0.98
5190.00,0.97
5189.00,0.97
5188.00,0.97
5187.00,0.97
5186.00,0.97
5185.00,0.97
5184.00,0.97
5183.00,0.97
5182.00,0.97
5181.00,0.97
5180.00,0.97
5179.00,0.97
5178.00,0.97
5177.00,0.97
5176.00,0.97
5175.00,0.97
5174.00,0.97
5173.00,0.97
5172.00,0.97
5171.00,0.97
5170.00,0.97
5169.00,0.97
5168.00,0.97
5167.00,0.97
5166.00,0.97
5165.00,0.97
5164.00,0.97
5163.00,0.98
5162.00,0.98
5161.00,0.98
5160.00,0.98
5159.00,0.98
5158.00,0.98
5157.00,0.98
5156.00,0.98
5155.00,0.99
5154.00,0.99
5153.00,0.99
5152.00,0.99
5151.00,0.99
5150.00,0.99
5149.00,0.99
5148.00,0.99
5147.00,1.00
5146.00,1.00
5145.00,1.00
5144.00,1.00
5143.00,1.00
5142.00,1.00
5141.00,1.01
5140.00,1.01
5139.00,1.01
5138.00,1.01
5137.00,1.01
5136.00,1.01
5135.00,1.01
5134.00,1.01
5133.00,1.02
5132.00,1.02
5131.00,1.02
5130.00,1.02
5129.00,1.02
5128.00,1.02
5127.00,1.02
5126.00,1.02
5125.00,1.02
5124.00,1.02
5123.00,1.02
5122.00,1.02
5121.00,1.02
5120.00,1.03
5119.00,1.03
5118.00,1.03
5117.00,1.03
5116.00,1.03
5115.00,1.03
5114.00,1.03
5113.00,1.03
5112.00,1.03
5111.00,1.03
5110.00,1.03
5109.00,1.03
5108.00,1.03
5107.00,1.03
5106.00,1.03
5105.00,1.03
5104.00,1.03
5103.00,1.04
5102.00,1.04
5101.00,1.04
5100.00,1.04
5099.00,1.04
5098.00,1.04
5097.00,1.04
5096.00,1.05
5095.00,1.05
5094.00,1.05
5093.00,1.05
5092.00,1.05
5091.00,1.05
5090.00,1.06
5089.00,1.06
5088.00,1.06
5087.00,1.06
5086.00,1.06
5085.00,1.07
5084.00,1.07
5083.00,1.07
5082.00,1.07
5081.00,1.07
5080.00,1.08
5079.00,1.08
5078.00,1.08
5077.00,1.08
5076.00,1.09
5075.00,1.09
5074.00,1.09
5073.00,1.09
5072.00,1.09
5071.00,1.09
5070.00,1.10
5069.00,1.10
5068.00,1.10
5067.00,1.10
5066.00,1.10
5065.00,1.10
5064.00,1.10
5063.00,1.10
5062.00,1.10
5061.00,1.10
5060.00,1.10
5059.00,1.11
5058.00,1.11
5057.00,1.11
5056.00,1.11
5055.00,1.11
5054.00,1.11
5053.00,1.11
5052.00,1.11
5051.00,1.11
5050.00,1.11
5049.00,1.11
5048.00,1.11
5047.00,1.11
5046.00,1.11
5045.00,1.11
5044.00,1.11
5043.00,1.11
5042.00,1.11
5041.00,1.11
5040.00,1.11
5039.00,1.12
5038.00,1.12
5037.00,1.12
5036.00,1.12
5035.00,1.12
5034.00,1.12
5033.00,1.12
5032.00,1.12
5031.00,1.12
5030.00,1.12
5029.00,1.13
5028.00,1.13
5027.00,1.13
5026.00,1.13
5025.00,1.13
5024.00,1.14
5023.00,1.14
5022.00,1.14
5021.00,1.14
5020.00,1.15
5019.00,1.15
5018.00,1.15
5017.00,1.15
5016.00,1.15
5015.00,1.15
5014.00,1.16
5013.00,1.16
5012.00,1.16
5011.00,1.16
5010.00,1.16
5009.00,1.16
5008.00,1.16
5007.00,1.17
5006.00,1.17
5005.00,1.17
5004.00,1.17
5003.00,1.17
5002.00,1.17
5001.00,1.17
5000.00,1.17
4999.00,1.17
4998.00,1.17
4997.00,1.18
4996.00,1.18
4995.00,1.18
4994.00,1.18
4993.00,1.18
4992.00,1.18
4991.00,1.18
4990.00,1.18
4989.00,1.18
4988.00,1.18
4987.00,1.19
4986.00,1.19
4985.00,1.19
4984.00,1.19
4983.00,1.19
4982.00,1.20
4981.00,1.20
4980.00,1.20
4979.00,1.20
4978.00,1.20
4977.00,1.21
4976.00,1.21
4975.00,1.21
4974.00,1.21
4973.00,1.21
4972.00,1.21
4971.00,1.22
4970.00,1.22
4969.00,1.22
4968.00,1.22
4967.00,1.22
4966.00,1.22
4965.00,1.23
4964.00,1.23
4963.00,1.23
4962.00,1.23
4961.00,1.23
4960.00,1.23
4959.00,1.23
4958.00,1.24
4957.00,1.24
4956.00,1.24
4955.00,1.24
4954.00,1.24
4953.00,1.24
4952.00,1.24
4951.00,1.24
4950.00,1.24
4949.00,1.24
4948.00,1.24
4947.00,1.25
4946.00,1.25
4945.00,1.25
4944.00,1.25
4943.00,1.25
4942.00,1.25
4941.00,1.25
4940.00,1.25
4939.00,1.25
4938.00,1.25
4937.00,1.25
4936.00,1.25
4935.00,1.25
4934.00,1.25
4933.00,1.25
4932.00,1.25
4931.00,1.26
4930.00,1.26
4929.00,1.26
4928.00,1.26
4927.00,1.26
4926.00,1.26
4925.00,1.26
4924.00,1.26
4923.00,1.26
4922.00,1.26
4921.00,1.26
4920.00,1.27
4919.00,1.27
4918.00,1.27
4917.00,1.27
4916.00,1.27
4915.00,1.27
4914.00,1.27
4913.00,1.28
4912.00,1.28
4911.00,1.28
4910.00,1.28
4909.00,1.28
4908.00,1.28
4907.00,1.28
4906.00,1.29
4905.00,1.29
4904.00,1.29
4903.00,1.29
4902.00,1.29
4901.00,1.29
4900.00,1.30
4899.00,1.30
4898.00,1.30
4897.00,1.30
4896.00,1.30
4895.00,1.30
4894.00,1.30
4893.00,1.30
4892.00,1.31
4891.00,1.31
4890.00,1.31
4889.00,1.31
4888.00,1.31
4887.00,1.31
4886.00,1.31
4885.00,1.31
4884.00,1.31
4883.00,1.31
4882.00,1.31
4881.00,1.31
4880.00,1.31
4879.00,1.31
4878.00,1.31
4877.00,1.32
4876.00,1.32
4875.00,1.32
4874.00,1.32
4873.00,1.32
4872.00,1.32
4871.00,1.32
4870.00,1.32
4869.00,1.32
4868.00,1.32
4867.00,1.32
4866.00,1.32
4865.00,1.33
4864.00,1.33
4863.00,1.33
4862.00,1.33
4861.00,1.33
4860.00,1.34
4859.00,1.34
4858.00,1.34
4857.00,1.34
4856.00,1.34
4855.00,1.34
4854.00,1.35
4853.00,1.35
4852.00,1.35
4851.00,1.35
4850.00,1.35
4849.00,1.35
4848.00,1.35
4847.00,1.35
4846.00,1.35
4845.00,1.35
4844.00,1.35
4843.00,1.35
4842.00,1.35
4841.00,1.35
4840.00,1.35
4839.00,1.35
4838.00,1.35
4837.00,1.35
4836.00,1.35
4835.00,1.34
4834.00,1.34
4833.00,1.34
4832.00,1.34
4831.00,1.34
4830.00,1.34
4829.00,1.34
4828.00,1.34
4827.00,1.34
4826.00,1.34
4825.00,1.34
4824.00,1.34
4823.00,1.34
4822.00,1.34
4821.00,1.34
4820.00,1.35
4819.00,1.35
4818.00,1.35
4817.00,1.35
4816.00,1.35
4815.00,1.35
4814.00,1.36
4813.00,1.36
4812.00,1.36
4811.00,1.36
4810.00,1.36
4809.00,1.37
4808.00,1.37
4807.00,1.37
4806.00,1.37
4805.00,1.37
4804.00,1.37
4803.00,1.38
4802.00,1.38
4801.00,1.38
4800.00,1.38
4799.00,1.38
4798.00,1.38
4797.00,1.38
4796.00,1.38
4795.00,1.38
4794.00,1.38
4793.00,1.37
4792.00,1.37
4791.00,1.37
4790.00,1.37
4789.00,1.37
4788.00,1.37
4787.00,1.37
4786.00,1.37
4785.00,1.37
4784.00,1.37
4783.00,1.37
4782.00,1.38
4781.00,1.38
4780.00,1.38
4779.00,1.38
4778.00,1.38
4777.00,1.38
4776.00,1.38
4775.00,1.38
4774.00,1.38
4773.00,1.38
4772.00,1.39
4771.00,1.39
4770.00,1.39
4769.00,1.39
4768.00,1.39
4767.00,1.39
4766.00,1.39
4765.00,1.39
4764.00,1.40
4763.00,1.40
4762.00,1.40
4761.00,1.40
4760.00,1.40
4759.00,1.40
4758.00,1.40
4757.00,1.40
4756.00,1.40
4755.00,1.41
4754.00,1.41
4753.00,1.41
4752.00,1.41
4751.00,1.41
4750.00,1.41
4749.00,1.41
4748.00,1.41
4747.00,1.41
4746.00,1.41
4745.00,1.41
4744.00,1.41
4743.00,1.41
4742.00,1.41
4741.00,1.41
4740.00,1.41
4739.00,1.41
4738.00,1.41
4737.00,1.41
4736.00,1.41
4735.00,1.41
4734.00,1.41
4733.00,1.41
4732.00,1.41
4731.00,1.41
4730.00,1.41
4729.00,1.41
4728.00,1.41
4727.00,1.41
4726.00,1.41
4725.00,1.41
4724.00,1.40
4723.00,1.40
4722.00,1.40
4721.00,1.40
4720.00,1.40
4719.00,1.40
4718.00,1.40
4717.00,1.40
4716.00,1.40
4715.00,1.40
4714.00,1.40
4713.00,1.40
4712.00,1.40
4711.00,1.41
4710.00,1.41
4709.00,1.41
4708.00,1.41
4707.00,1.41
4706.00,1.41
4705.00,1.41
4704.00,1.41
4703.00,1.42
4702.00,1.42
4701.00,1.42
4700.00,1.42
4699.00,1.42
4698.00,1.42
4697.00,1.42
4696.00,1.42
4695.00,1.42
4694.00,1.42
4693.00,1.43
4692.00,1.43
4691.00,1.43
4690.00,1.43
4689.00,1.43
4688.00,1.43
4687.00,1.43
4686.00,1.44
4685.00,1.44
4684.00,1.44
4683.00,1.44
4682.00,1.44
4681.00,1.44
4680.00,1.44
4679.00,1.45
4678.00,1.45
4677.00,1.45
4676.00,1.45
4675.00,1.45
4674.00,1.45
4673.00,1.46
4672.00,1.46
4671.00,1.46
4670.00,1.46
4669.00,1.46
4668.00,1.46
4667.00,1.46
4666.00,1.46
4665.00,1.46
4664.00,1.46
4663.00,1.46
4662.00,1.46
4661.00,1.46
4660.00,1.46
4659.00,1.46
4658.00,1.46
4657.00,1.46
4656.00,1.46
4655.00,1.46
4654.00,1.46
4653.00,1.46
4652.00,1.46
4651.00,1.46
4650.00,1.46
4649.00,1.46
4648.00,1.46
4647.00,1.46
4646.00,1.46
4645.00,1.46
4644.00,1.46
4643.00,1.46
4642.00,1.46
4641.00,1.46
4640.00,1.46
4639.00,1.46
4638.00,1.46
4637.00,1.46
4636.00,1.46
4635.00,1.46
4634.00,1.46
4633.00,1.46
4632.00,1.46
4631.00,1.46
4630.00,1.46
4629.00,1.46
4628.00,1.46
4627.00,1.46
4626.00,1.46
4625.00,1.46
4624.00,1.46
4623.00,1.46
4622.00,1.46
4621.00,1.46
4620.00,1.46
4619.00,1.46
4618.00,1.46
4617.00,1.46
4616.00,1.46
4615.00,1.46
4614.00,1.46
4613.00,1.46
4612.00,1.47
4611.00,1.47
4610.00,1.47
4609.00,1.47
4608.00,1.47
4607.00,1.47
4606.00,1.47
4605.00,1.47
4604.00,1.48
4603.00,1.48
4602.00,1.48
4601.00,1.48
4600.00,1.48
4599.00,1.48
4598.00,1.48
4597.00,1.48
4596.00,1.48
4595.00,1.48
4594.00,1.48
4593.00,1.48
4592.00,1.48
4591.00,1.48
4590.00,1.48
4589.00,1.48
4588.00,1.48
4587.00,1.48
4586.00,1.48
4585.00,1.48
4584.00,1.47
4583.00,1.47
4582.00,1.47
4581.00,1.47
4580.00,1.47
4579.00,1.47
4578.00,1.47
4577.00,1.46
4576.00,1.46
4575.00,1.46
4574.00,1.46
4573.00,1.46
4572.00,1.46
4571.00,1.46
4570.00,1.46
4569.00,1.46
4568.00,1.46
4567.00,1.46
4566.00,1.45
4565.00,1.45
4564.00,1.45
4563.00,1.45
4562.00,1.45
4561.00,1.45
4560.00,1.45
4559.00,1.45
4558.00,1.45
4557.00,1.45
4556.00,1.44
4555.00,1.44
4554.00,1.44
4553.00,1.44
4552.00,1.44
4551.00,1.44
4550.00,1.44
4549.00,1.44
4548.00,1.44
4547.00,1.44
4546.00,1.44
4545.00,1.43
4544.00,1.43
4543.00,1.43
4542.00,1.43
4541.00,1.43
4540.00,1.43
4539.00,1.43
4538.00,1.43
4537.00,1.43
4536.00,1.43
4535.00,1.43
4534.00,1.43
4533.00,1.43
4532.00,1.43
4531.00,1.43
4530.00,1.43
4529.00,1.43
4528.00,1.44
4527.00,1.44
4526.00,1.44
4525.00,1.44
4524.00,1.44
4523.00,1.44
4522.00,1.44
4521.00,1.44
4520.00,1.44
4519.00,1.45
4518.00,1.45
4517.00,1.45
4516.00,1.45
4515.00,1.45
4514.00,1.45
4513.00,1.45
4512.00,1.45
4511.00,1.45
4510.00,1.46
4509.00,1.46
4508.00,1.46
4507.00,1.46
4506.00,1.46
4505.00,1.46
4504.00,1.46
4503.00,1.46
4502.00,1.46
4501.00,1.46
4500.00,1.46
4499.00,1.46
4498.00,1.46
4497.00,1.46
4496.00,1.46
4495.00,1.46
4494.00,1.46
4493.00,1.46
4492.00,1.46
4491.00,1.46
4490.00,1.46
4489.00,1.46
4488.00,1.46
4487.00,1.46
4486.00,1.46
4485.00,1.46
4484.00,1.46
4483.00,1.46
4482.00,1.46
4481.00,1.46
4480.00,1.46
4479.00,1.46
4478.00,1.46
4477.00,1.46
4476.00,1.46
4475.00,1.46
4474.00,1.46
4473.00,1.46
4472.00,1.46
4471.00,1.46
4470.00,1.46
4469.00,1.46
4468.00,1.46
4467.00,1.45
4466.00,1.45
4465.00,1.45
4464.00,1.45
4463.00,1.45
4462.00,1.45
4461.00,1.45
4460.00,1.44
4459.00,1.44
4458.00,1.44
4457.00,1.44
4456.00,1.43
4455.00,1.43
4454.00,1.43
4453.00,1.43
4452.00,1.43
4451.00,1.42
4450.00,1.42
4449.00,1.42
4448.00,1.42
4447.00,1.42
4446.00,1.42
4445.00,1.42
4444.00,1.42
4443.00,1.42
4442.00,1.42
4441.00,1.42
4440.00,1.42
4439.00,1.42
4438.00,1.42
4437.00,1.42
4436.00,1.42
4435.00,1.42
4434.00,1.42
4433.00,1.42
4432.00,1.42
4431.00,1.42
4430.00,1.42
4429.00,1.42
4428.00,1.42
4427.00,1.42
4426.00,1.42
4425.00,1.42
4424.00,1.42
4423.00,1.41
4422.00,1.41
4421.00,1.41
4420.00,1.41
4419.00,1.41
4418.00,1.41
4417.00,1.41
4416.00,1.41
4415.00,1.41
4414.00,1.41
4413.00,1.41
4412.00,1.41
4411.00,1.41
4410.00,1.41
4409.00,1.41
4408.00,1.41
4407.00,1.41
4406.00,1.41
4405.00,1.41
4404.00,1.41
4403.00,1.41
4402.00,1.41
4401.00,1.41
4400.00,1.41
4399.00,1.41
4398.00,1.41
4397.00,1.41
4396.00,1.42
4395.00,1.42
4394.00,1.42
4393.00,1.42
4392.00,1.42
4391.00,1.42
4390.00,1.42
4389.00,1.42
4388.00,1.42
4387.00,1.42
4386.00,1.42
4385.00,1.42
4384.00,1.42
4383.00,1.42
4382.00,1.42
4381.00,1.42
4380.00,1.42
4379.00,1.42
4378.00,1.42
4377.00,1.42
4376.00,1.42
4375.00,1.42
4374.00,1.41
4373.00,1.41
4372.00,1.41
4371.00,1.41
4370.00,1.41
4369.00,1.41
4368.00,1.41
4367.00,1.41
4366.00,1.40
4365.00,1.40
4364.00,1.40
4363.00,1.40
4362.00,1.40
4361.00,1.40
4360.00,1.40
4359.00,1.40
4358.00,1.40
4357.00,1.40
4356.00,1.40
4355.00,1.40
4354.00,1.40
4353.00,1.40
4352.00,1.40
4351.00,1.40
4350.00,1.40
4349.00,1.40
4348.00,1.40
4347.00,1.40
4346.00,1.40
4345.00,1.41
4344.00,1.41
4343.00,1.41
4342.00,1.41
4341.00,1.41
4340.00,1.41
4339.00,1.42
4338.00,1.42
4337.00,1.42
4336.00,1.42
4335.00,1.42
4334.00,1.42
4333.00,1.42
4332.00,1.43
4331.00,1.43
4330.00,1.43
4329.00,1.43
4328.00,1.43
4327.00,1.43
4326.00,1.43
4325.00,1.44
4324.00,1.44
4323.00,1.44
4322.00,1.44
4321.00,1.44
4320.00,1.44
4319.00,1.44
4318.00,1.44
4317.00,1.44
4316.00,1.44
4315.00,1.44
4314.00,1.44
4313.00,1.44
4312.00,1.44
4311.00,1.44
4310.00,1.44
4309.00,1.44
4308.00,1.44
4307.00,1.44
4306.00,1.44
4305.00,1.44
4304.00,1.44
4303.00,1.44
4302.00,1.44
4301.00,1.44
4300.00,1.44
4299.00,1.44
4298.00,1.44
4297.00,1.44
4296.00,1.44
4295.00,1.44
4294.00,1.44
4293.00,1.44
4292.00,1.44
4291.00,1.44
4290.00,1.44
4289.00,1.44
4288.00,1.44
4287.00,1.44
4286.00,1.44
4285.00,1.44
4284.00,1.44
4283.00,1.44
4282.00,1.44
4281.00,1.44
4280.00,1.44
4279.00,1.44
4278.00,1.44
4277.00,1.44
4276.00,1.44
4275.00,1.44
4274.00,1.44
4273.00,1.44
4272.00,1.44
4271.00,1.44
4270.00,1.44
4269.00,1.44
4268.00,1.44
4267.00,1.44
4266.00,1.44
4265.00,1.44
4264.00,1.44
4263.00,1.44
4262.00,1.44
4261.00,1.44
4260.00,1.44
4259.00,1.44
4258.00,1.44
4257.00,1.44
4256.00,1.44
4255.00,1.44
4254.00,1.44
4253.00,1.44
4252.00,1.44
4251.00,1.44
4250.00,1.44
4249.00,1.44
4248.00,1.44
4247.00,1.45
4246.00,1.45
4245.00,1.45
4244.00,1.45
4243.00,1.45
4242.00,1.45
4241.00,1.45
4240.00,1.45
4239.00,1.46
4238.00,1.46
4237.00,1.46
4236.00,1.46
4235.00,1.46
4234.00,1.46
4233.00,1.46
4232.00,1.46
4231.00,1.46
4230.00,1.46
4229.00,1.46
4228.00,1.46
4227.00,1.46
4226.00,1.46
4225.00,1.46
4224.00,1.46
4223.00,1.46
4222.00,1.46
4221.00,1.45
4220.00,1.45
4219.00,1.45
4218.00,1.45
4217.00,1.45
4216.00,1.45
4215.00,1.44
4214.00,1.44
4213.00,1.44
4212.00,1.44
4211.00,1.44
4210.00,1.44
4209.00,1.44
4208.00,1.44
4207.00,1.44
4206.00,1.44
4205.00,1.44
4204.00,1.44
4203.00,1.44
4202.00,1.44
4201.00,1.44
4200.00,1.44
4199.00,1.44
4198.00,1.44
4197.00,1.44
4196.00,1.44
4195.00,1.44
4194.00,1.45
4193.00,1.45
4192.00,1.45
4191.00,1.45
4190.00,1.45
4189.00,1.45
4188.00,1.46
4187.00,1.46
4186.00,1.46
4185.00,1.46
4184.00,1.46
4183.00,1.46
4182.00,1.46
4181.00,1.46
4180.00,1.47
4179.00,1.47
4178.00,1.47
4177.00,1.47
4176.00,1.47
4175.00,1.47
4174.00,1.47
4173.00,1.47
4172.00,1.47
4171.00,1.47
4170.00,1.47
4169.00,1.46
4168.00,1.46
4167.00,1.46
4166.00,1.46
4165.00,1.46
4164.00,1.46
4163.00,1.46
4162.00,1.45
4161.00,1.45
4160.00,1.45
4159.00,1.45
4158.00,1.45
4157.00,1.45
4156.00,1.45
4155.00,1.44
4154.00,1.44
4153.00,1.44
4152.00,1.44
4151.00,1.44
4150.00,1.44
4149.00,1.43
4148.00,1.43
4147.00,1.43
4146.00,1.43
4145.00,1.43
4144.00,1.43
4143.00,1.42
4142.00,1.42
4141.00,1.42
4140.00,1.42
4139.00,1.42
4138.00,1.42
4137.00,1.42
4136.00,1.42
4135.00,1.42
4134.00,1.42
4133.00,1.42
4132.00,1.42
4131.00,1.42
4130.00,1.42
4129.00,1.42
4128.00,1.42
4127.00,1.42
4126.00,1.42
4125.00,1.42
4124.00,1.42
4123.00,1.42
4122.00,1.42
4121.00,1.42
4120.00,1.42
4119.00,1.42
4118.00,1.42
4117.00,1.42
4116.00,1.42
4115.00,1.42
4114.00,1.42
4113.00,1.42
4112.00,1.42
4111.00,1.42
4110.00,1.42
4109.00,1.42
4108.00,1.42
4107.00,1.42
4106.00,1.42
4105.00,1.42
4104.00,1.42
4103.00,1.42
4102.00,1.42
4101.00,1.42
4100.00,1.42
4099.00,1.42
4098.00,1.42
4097.00,1.42
4096.00,1.42
4095.00,1.42
4094.00,1.42
4093.00,1.42
4092.00,1.42
4091.00,1.42
4090.00,1.42
4089.00,1.42
4088.00,1.42
4087.00,1.42
4086.00,1.42
4085.00,1.43
4084.00,1.43
4083.00,1.43
4082.00,1.43
4081.00,1.43
4080.00,1.43
4079.00,1.43
4078.00,1.43
4077.00,1.43
4076.00,1.43
4075.00,1.43
4074.00,1.44
4073.00,1.44
4072.00,1.44
4071.00,1.44
4070.00,1.44
4069.00,1.44
4068.00,1.44
4067.00,1.44
4066.00,1.44
4065.00,1.45
4064.00,1.45
4063.00,1.45
4062.00,1.45
4061.00,1.45
4060.00,1.45
4059.00,1.45
4058.00,1.45
4057.00,1.46
4056.00,1.46
4055.00,1.46
4054.00,1.46
4053.00,1.46
4052.00,1.46
4051.00,1.46
4050.00,1.46
4049.00,1.46
4048.00,1.47
4047.00,1.47
4046.00,1.47
4045.00,1.47
4044.00,1.47
4043.00,1.47
4042.00,1.47
4041.00,1.47
4040.00,1.47
4039.00,1.47
4038.00,1.47
4037.00,1.47
4036.00,1.47
4035.00,1.47
4034.00,1.47
4033.00,1.47
4032.00,1.47
4031.00,1.47
4030.00,1.47
4029.00,1.47
4028.00,1.47
4027.00,1.47
4026.00,1.47
4025.00,1.47
4024.00,1.47
4023.00,1.47
4022.00,1.47
4021.00,1.47
4020.00,1.47
4019.00,1.47
4018.00,1.47
4017.00,1.47
4016.00,1.47
4015.00,1.47
4014.00,1.47
4013.00,1.47
4012.00,1.47
4011.00,1.47
4010.00,1.47
4009.00,1.46
4008.00,1.46
4007.00,1.46
4006.00,1.46
4005.00,1.46
4004.00,1.45
4003.00,1.45
4002.00,1.45
4001.00,1.45
4000.00,1.44
