创建为新数据集,样品 228 用户 Administrator 日期 星期六, 七月 27 2019
cm-1,%T
10000.00,1.35
9999.00,1.34
9998.00,1.33
9997.00,1.33
9996.00,1.32
9995.00,1.31
9994.00,1.30
9993.00,1.30
9992.00,1.29
9991.00,1.28
9990.00,1.28
9989.00,1.27
9988.00,1.27
9987.00,1.26
9986.00,1.25
9985.00,1.25
9984.00,1.24
9983.00,1.23
9982.00,1.23
9981.00,1.22
9980.00,1.21
9979.00,1.21
9978.00,1.20
9977.00,1.19
9976.00,1.19
9975.00,1.18
9974.00,1.17
9973.00,1.17
9972.00,1.16
9971.00,1.16
9970.00,1.15
9969.00,1.15
9968.00,1.14
9967.00,1.13
9966.00,1.13
9965.00,1.12
9964.00,1.11
9963.00,1.10
9962.00,1.10
9961.00,1.09
9960.00,1.08
9959.00,1.07
9958.00,1.07
9957.00,1.06
9956.00,1.06
9955.00,1.06
9954.00,1.05
9953.00,1.05
9952.00,1.05
9951.00,1.05
9950.00,1.05
9949.00,1.05
9948.00,1.04
9947.00,1.04
9946.00,1.04
9945.00,1.04
9944.00,1.04
9943.00,1.04
9942.00,1.04
9941.00,1.04
9940.00,1.05
9939.00,1.05
9938.00,1.06
9937.00,1.06
9936.00,1.07
9935.00,1.08
9934.00,1.08
9933.00,1.09
9932.00,1.09
9931.00,1.10
9930.00,1.10
9929.00,1.11
9928.00,1.11
9927.00,1.12
9926.00,1.12
9925.00,1.12
9924.00,1.13
9923.00,1.13
9922.00,1.14
9921.00,1.14
9920.00,1.15
9919.00,1.16
9918.00,1.16
9917.00,1.17
9916.00,1.18
9915.00,1.18
9914.00,1.18
9913.00,1.19
9912.00,1.19
9911.00,1.19
9910.00,1.19
9909.00,1.18
9908.00,1.18
9907.00,1.17
9906.00,1.17
9905.00,1.16
9904.00,1.16
9903.00,1.15
9902.00,1.15
9901.00,1.14
9900.00,1.13
9899.00,1.13
9898.00,1.12
9897.00,1.12
9896.00,1.11
9895.00,1.10
9894.00,1.09
9893.00,1.09
9892.00,1.08
9891.00,1.07
9890.00,1.07
9889.00,1.06
9888.00,1.05
9887.00,1.05
9886.00,1.05
9885.00,1.05
9884.00,1.05
9883.00,1.05
9882.00,1.05
9881.00,1.05
9880.00,1.06
9879.00,1.06
9878.00,1.07
9877.00,1.08
9876.00,1.09
9875.00,1.09
9874.00,1.10
9873.00,1.11
9872.00,1.12
9871.00,1.12
9870.00,1.13
9869.00,1.14
9868.00,1.14
9867.00,1.15
9866.00,1.15
9865.00,1.15
9864.00,1.16
9863.00,1.16
9862.00,1.16
9861.00,1.16
9860.00,1.16
9859.00,1.16
9858.00,1.16
9857.00,1.16
9856.00,1.16
9855.00,1.16
9854.00,1.15
9853.00,1.15
9852.00,1.15
9851.00,1.15
9850.00,1.14
9849.00,1.14
9848.00,1.13
9847.00,1.13
9846.00,1.13
9845.00,1.12
9844.00,1.12
9843.00,1.12
9842.00,1.12
9841.00,1.12
9840.00,1.12
9839.00,1.12
9838.00,1.12
9837.00,1.12
9836.00,1.12
9835.00,1.12
9834.00,1.12
9833.00,1.12
9832.00,1.12
9831.00,1.12
9830.00,1.12
9829.00,1.12
9828.00,1.12
9827.00,1.12
9826.00,1.12
9825.00,1.12
9824.00,1.12
9823.00,1.12
9822.00,1.11
9821.00,1.11
9820.00,1.11
9819.00,1.11
9818.00,1.10
9817.00,1.10
9816.00,1.09
9815.00,1.09
9814.00,1.08
9813.00,1.08
9812.00,1.07
9811.00,1.07
9810.00,1.06
9809.00,1.06
9808.00,1.05
9807.00,1.04
9806.00,1.04
9805.00,1.03
9804.00,1.03
9803.00,1.02
9802.00,1.02
9801.00,1.01
9800.00,1.01
9799.00,1.00
9798.00,1.00
9797.00,1.00
9796.00,0.99
9795.00,0.99
9794.00,0.99
9793.00,0.98
9792.00,0.98
9791.00,0.98
9790.00,0.98
9789.00,0.98
9788.00,0.98
9787.00,0.99
9786.00,0.99
9785.00,0.99
9784.00,0.99
9783.00,0.99
9782.00,1.00
9781.00,1.00
9780.00,1.00
9779.00,1.01
9778.00,1.01
9777.00,1.02
9776.00,1.02
9775.00,1.03
9774.00,1.03
9773.00,1.04
9772.00,1.04
9771.00,1.05
9770.00,1.05
9769.00,1.06
9768.00,1.07
9767.00,1.07
9766.00,1.08
9765.00,1.08
9764.00,1.09
9763.00,1.10
9762.00,1.10
9761.00,1.11
9760.00,1.12
9759.00,1.12
9758.00,1.13
9757.00,1.14
9756.00,1.14
9755.00,1.15
9754.00,1.15
9753.00,1.16
9752.00,1.16
9751.00,1.17
9750.00,1.17
9749.00,1.17
9748.00,1.17
9747.00,1.18
9746.00,1.18
9745.00,1.18
9744.00,1.18
9743.00,1.18
9742.00,1.18
9741.00,1.17
9740.00,1.17
9739.00,1.17
9738.00,1.17
9737.00,1.17
9736.00,1.16
9735.00,1.16
9734.00,1.16
9733.00,1.15
9732.00,1.15
9731.00,1.14
9730.00,1.13
9729.00,1.13
9728.00,1.12
9727.00,1.12
9726.00,1.11
9725.00,1.11
9724.00,1.10
9723.00,1.10
9722.00,1.10
9721.00,1.10
9720.00,1.10
9719.00,1.10
9718.00,1.10
9717.00,1.10
9716.00,1.10
9715.00,1.10
9714.00,1.10
9713.00,1.10
9712.00,1.10
9711.00,1.10
9710.00,1.10
9709.00,1.09
9708.00,1.10
9707.00,1.10
9706.00,1.10
9705.00,1.10
9704.00,1.10
9703.00,1.11
9702.00,1.11
9701.00,1.12
9700.00,1.12
9699.00,1.12
9698.00,1.12
9697.00,1.12
9696.00,1.12
9695.00,1.12
9694.00,1.11
9693.00,1.11
9692.00,1.10
9691.00,1.10
9690.00,1.09
9689.00,1.09
9688.00,1.09
9687.00,1.08
9686.00,1.08
9685.00,1.08
9684.00,1.07
9683.00,1.07
9682.00,1.06
9681.00,1.06
9680.00,1.06
9679.00,1.05
9678.00,1.05
9677.00,1.04
9676.00,1.03
9675.00,1.03
9674.00,1.02
9673.00,1.02
9672.00,1.01
9671.00,1.01
9670.00,1.00
9669.00,1.00
9668.00,1.00
9667.00,1.00
9666.00,1.00
9665.00,1.00
9664.00,1.01
9663.00,1.01
9662.00,1.01
9661.00,1.01
9660.00,1.02
9659.00,1.02
9658.00,1.02
9657.00,1.03
9656.00,1.03
9655.00,1.03
9654.00,1.04
9653.00,1.04
9652.00,1.04
9651.00,1.05
9650.00,1.05
9649.00,1.05
9648.00,1.06
9647.00,1.06
9646.00,1.07
9645.00,1.07
9644.00,1.07
9643.00,1.08
9642.00,1.08
9641.00,1.08
9640.00,1.09
9639.00,1.09
9638.00,1.09
9637.00,1.09
9636.00,1.09
9635.00,1.09
9634.00,1.09
9633.00,1.10
9632.00,1.10
9631.00,1.10
9630.00,1.10
9629.00,1.10
9628.00,1.11
9627.00,1.11
9626.00,1.11
9625.00,1.12
9624.00,1.12
9623.00,1.13
9622.00,1.13
9621.00,1.13
9620.00,1.13
9619.00,1.13
9618.00,1.13
9617.00,1.13
9616.00,1.13
9615.00,1.13
9614.00,1.13
9613.00,1.14
9612.00,1.14
9611.00,1.14
9610.00,1.14
9609.00,1.14
9608.00,1.14
9607.00,1.14
9606.00,1.14
9605.00,1.14
9604.00,1.14
9603.00,1.14
9602.00,1.14
9601.00,1.14
9600.00,1.14
9599.00,1.14
9598.00,1.13
9597.00,1.13
9596.00,1.13
9595.00,1.13
9594.00,1.13
9593.00,1.13
9592.00,1.14
9591.00,1.14
9590.00,1.14
9589.00,1.14
9588.00,1.15
9587.00,1.15
9586.00,1.15
9585.00,1.15
9584.00,1.15
9583.00,1.15
9582.00,1.15
9581.00,1.15
9580.00,1.15
9579.00,1.15
9578.00,1.15
9577.00,1.15
9576.00,1.15
9575.00,1.15
9574.00,1.15
9573.00,1.15
9572.00,1.15
9571.00,1.15
9570.00,1.15
9569.00,1.14
9568.00,1.14
9567.00,1.14
9566.00,1.14
9565.00,1.13
9564.00,1.13
9563.00,1.13
9562.00,1.13
9561.00,1.13
9560.00,1.12
9559.00,1.12
9558.00,1.12
9557.00,1.12
9556.00,1.12
9555.00,1.12
9554.00,1.12
9553.00,1.13
9552.00,1.13
9551.00,1.13
9550.00,1.13
9549.00,1.14
9548.00,1.14
9547.00,1.15
9546.00,1.15
9545.00,1.16
9544.00,1.16
9543.00,1.17
9542.00,1.17
9541.00,1.18
9540.00,1.18
9539.00,1.18
9538.00,1.19
9537.00,1.19
9536.00,1.19
9535.00,1.19
9534.00,1.19
9533.00,1.20
9532.00,1.20
9531.00,1.19
9530.00,1.19
9529.00,1.19
9528.00,1.19
9527.00,1.18
9526.00,1.18
9525.00,1.17
9524.00,1.17
9523.00,1.16
9522.00,1.15
9521.00,1.14
9520.00,1.14
9519.00,1.13
9518.00,1.12
9517.00,1.11
9516.00,1.11
9515.00,1.10
9514.00,1.09
9513.00,1.08
9512.00,1.08
9511.00,1.07
9510.00,1.06
9509.00,1.06
9508.00,1.05
9507.00,1.05
9506.00,1.04
9505.00,1.04
9504.00,1.04
9503.00,1.04
9502.00,1.03
9501.00,1.03
9500.00,1.03
9499.00,1.04
9498.00,1.04
9497.00,1.04
9496.00,1.04
9495.00,1.05
9494.00,1.05
9493.00,1.05
9492.00,1.06
9491.00,1.06
9490.00,1.07
9489.00,1.07
9488.00,1.08
9487.00,1.08
9486.00,1.08
9485.00,1.09
9484.00,1.09
9483.00,1.10
9482.00,1.10
9481.00,1.10
9480.00,1.11
9479.00,1.11
9478.00,1.11
9477.00,1.11
9476.00,1.12
9475.00,1.12
9474.00,1.12
9473.00,1.12
9472.00,1.12
9471.00,1.12
9470.00,1.12
9469.00,1.12
9468.00,1.11
9467.00,1.11
9466.00,1.11
9465.00,1.10
9464.00,1.10
9463.00,1.09
9462.00,1.09
9461.00,1.08
9460.00,1.08
9459.00,1.07
9458.00,1.06
9457.00,1.05
9456.00,1.05
9455.00,1.04
9454.00,1.03
9453.00,1.02
9452.00,1.01
9451.00,1.00
9450.00,0.99
9449.00,0.98
9448.00,0.97
9447.00,0.96
9446.00,0.96
9445.00,0.95
9444.00,0.94
9443.00,0.93
9442.00,0.92
9441.00,0.92
9440.00,0.91
9439.00,0.90
9438.00,0.90
9437.00,0.90
9436.00,0.89
9435.00,0.89
9434.00,0.89
9433.00,0.89
9432.00,0.89
9431.00,0.90
9430.00,0.90
9429.00,0.91
9428.00,0.91
9427.00,0.92
9426.00,0.93
9425.00,0.94
9424.00,0.95
9423.00,0.96
9422.00,0.97
9421.00,0.98
9420.00,0.99
9419.00,1.00
9418.00,1.01
9417.00,1.02
9416.00,1.03
9415.00,1.04
9414.00,1.05
9413.00,1.06
9412.00,1.07
9411.00,1.07
9410.00,1.08
9409.00,1.09
9408.00,1.09
9407.00,1.10
9406.00,1.10
9405.00,1.11
9404.00,1.11
9403.00,1.11
9402.00,1.11
9401.00,1.10
9400.00,1.10
9399.00,1.10
9398.00,1.09
9397.00,1.09
9396.00,1.08
9395.00,1.08
9394.00,1.07
9393.00,1.06
9392.00,1.06
9391.00,1.05
9390.00,1.05
9389.00,1.04
9388.00,1.04
9387.00,1.03
9386.00,1.02
9385.00,1.02
9384.00,1.01
9383.00,1.00
9382.00,1.00
9381.00,0.99
9380.00,0.99
9379.00,0.98
9378.00,0.98
9377.00,0.98
9376.00,0.98
9375.00,0.98
9374.00,0.98
9373.00,0.98
9372.00,0.98
9371.00,0.99
9370.00,0.99
9369.00,1.00
9368.00,1.00
9367.00,1.00
9366.00,1.01
9365.00,1.02
9364.00,1.02
9363.00,1.03
9362.00,1.04
9361.00,1.04
9360.00,1.05
9359.00,1.06
9358.00,1.07
9357.00,1.08
9356.00,1.08
9355.00,1.09
9354.00,1.10
9353.00,1.10
9352.00,1.11
9351.00,1.11
9350.00,1.11
9349.00,1.12
9348.00,1.12
9347.00,1.12
9346.00,1.12
9345.00,1.12
9344.00,1.12
9343.00,1.12
9342.00,1.12
9341.00,1.11
9340.00,1.11
9339.00,1.11
9338.00,1.10
9337.00,1.10
9336.00,1.09
9335.00,1.09
9334.00,1.08
9333.00,1.08
9332.00,1.07
9331.00,1.06
9330.00,1.06
9329.00,1.05
9328.00,1.05
9327.00,1.04
9326.00,1.04
9325.00,1.03
9324.00,1.03
9323.00,1.02
9322.00,1.02
9321.00,1.02
9320.00,1.01
9319.00,1.01
9318.00,1.01
9317.00,1.01
9316.00,1.01
9315.00,1.01
9314.00,1.01
9313.00,1.01
9312.00,1.01
9311.00,1.01
9310.00,1.02
9309.00,1.02
9308.00,1.02
9307.00,1.03
9306.00,1.03
9305.00,1.04
9304.00,1.04
9303.00,1.05
9302.00,1.06
9301.00,1.06
9300.00,1.07
9299.00,1.07
9298.00,1.08
9297.00,1.09
9296.00,1.09
9295.00,1.10
9294.00,1.11
9293.00,1.11
9292.00,1.12
9291.00,1.12
9290.00,1.13
9289.00,1.13
9288.00,1.13
9287.00,1.14
9286.00,1.14
9285.00,1.14
9284.00,1.14
9283.00,1.14
9282.00,1.14
9281.00,1.14
9280.00,1.14
9279.00,1.14
9278.00,1.14
9277.00,1.14
9276.00,1.14
9275.00,1.14
9274.00,1.14
9273.00,1.14
9272.00,1.14
9271.00,1.14
9270.00,1.13
9269.00,1.13
9268.00,1.13
9267.00,1.13
9266.00,1.12
9265.00,1.12
9264.00,1.12
9263.00,1.12
9262.00,1.11
9261.00,1.11
9260.00,1.11
9259.00,1.11
9258.00,1.11
9257.00,1.10
9256.00,1.10
9255.00,1.09
9254.00,1.09
9253.00,1.08
9252.00,1.08
9251.00,1.07
9250.00,1.06
9249.00,1.06
9248.00,1.05
9247.00,1.04
9246.00,1.04
9245.00,1.03
9244.00,1.02
9243.00,1.01
9242.00,1.01
9241.00,1.00
9240.00,1.00
9239.00,0.99
9238.00,0.99
9237.00,0.99
9236.00,0.98
9235.00,0.98
9234.00,0.98
9233.00,0.98
9232.00,0.97
9231.00,0.97
9230.00,0.98
9229.00,0.98
9228.00,0.98
9227.00,0.98
9226.00,0.99
9225.00,0.99
9224.00,1.00
9223.00,1.00
9222.00,1.01
9221.00,1.01
9220.00,1.02
9219.00,1.02
9218.00,1.03
9217.00,1.04
9216.00,1.04
9215.00,1.05
9214.00,1.05
9213.00,1.06
9212.00,1.06
9211.00,1.07
9210.00,1.07
9209.00,1.07
9208.00,1.08
9207.00,1.08
9206.00,1.08
9205.00,1.08
9204.00,1.08
9203.00,1.08
9202.00,1.08
9201.00,1.07
9200.00,1.07
9199.00,1.07
9198.00,1.06
9197.00,1.06
9196.00,1.06
9195.00,1.05
9194.00,1.05
9193.00,1.05
9192.00,1.04
9191.00,1.04
9190.00,1.04
9189.00,1.03
9188.00,1.03
9187.00,1.02
9186.00,1.02
9185.00,1.02
9184.00,1.01
9183.00,1.01
9182.00,1.01
9181.00,1.01
9180.00,1.01
9179.00,1.01
9178.00,1.01
9177.00,1.01
9176.00,1.02
9175.00,1.02
9174.00,1.03
9173.00,1.03
9172.00,1.04
9171.00,1.04
9170.00,1.05
9169.00,1.05
9168.00,1.06
9167.00,1.06
9166.00,1.07
9165.00,1.07
9164.00,1.08
9163.00,1.08
9162.00,1.09
9161.00,1.09
9160.00,1.10
9159.00,1.10
9158.00,1.11
9157.00,1.11
9156.00,1.11
9155.00,1.12
9154.00,1.12
9153.00,1.12
9152.00,1.12
9151.00,1.12
9150.00,1.12
9149.00,1.12
9148.00,1.13
9147.00,1.13
9146.00,1.12
9145.00,1.12
9144.00,1.12
9143.00,1.12
9142.00,1.12
9141.00,1.12
9140.00,1.12
9139.00,1.12
9138.00,1.12
9137.00,1.12
9136.00,1.12
9135.00,1.12
9134.00,1.12
9133.00,1.11
9132.00,1.11
9131.00,1.11
9130.00,1.11
9129.00,1.11
9128.00,1.11
9127.00,1.11
9126.00,1.11
9125.00,1.11
9124.00,1.11
9123.00,1.11
9122.00,1.11
9121.00,1.10
9120.00,1.10
9119.00,1.10
9118.00,1.10
9117.00,1.10
9116.00,1.10
9115.00,1.10
9114.00,1.10
9113.00,1.10
9112.00,1.10
9111.00,1.10
9110.00,1.10
9109.00,1.10
9108.00,1.10
9107.00,1.10
9106.00,1.11
9105.00,1.11
9104.00,1.11
9103.00,1.11
9102.00,1.12
9101.00,1.12
9100.00,1.12
9099.00,1.13
9098.00,1.13
9097.00,1.13
9096.00,1.14
9095.00,1.14
9094.00,1.14
9093.00,1.15
9092.00,1.15
9091.00,1.16
9090.00,1.16
9089.00,1.16
9088.00,1.16
9087.00,1.17
9086.00,1.17
9085.00,1.17
9084.00,1.17
9083.00,1.17
9082.00,1.17
9081.00,1.18
9080.00,1.18
9079.00,1.18
9078.00,1.17
9077.00,1.17
9076.00,1.17
9075.00,1.17
9074.00,1.17
9073.00,1.17
9072.00,1.16
9071.00,1.16
9070.00,1.16
9069.00,1.16
9068.00,1.15
9067.00,1.15
9066.00,1.15
9065.00,1.15
9064.00,1.14
9063.00,1.14
9062.00,1.14
9061.00,1.13
9060.00,1.13
9059.00,1.13
9058.00,1.12
9057.00,1.12
9056.00,1.11
9055.00,1.11
9054.00,1.10
9053.00,1.10
9052.00,1.09
9051.00,1.09
9050.00,1.09
9049.00,1.08
9048.00,1.08
9047.00,1.08
9046.00,1.08
9045.00,1.08
9044.00,1.07
9043.00,1.07
9042.00,1.07
9041.00,1.07
9040.00,1.06
9039.00,1.06
9038.00,1.06
9037.00,1.05
9036.00,1.05
9035.00,1.05
9034.00,1.05
9033.00,1.04
9032.00,1.04
9031.00,1.04
9030.00,1.04
9029.00,1.05
9028.00,1.05
9027.00,1.05
9026.00,1.05
9025.00,1.05
9024.00,1.05
9023.00,1.05
9022.00,1.05
9021.00,1.05
9020.00,1.05
9019.00,1.05
9018.00,1.06
9017.00,1.06
9016.00,1.06
9015.00,1.06
9014.00,1.07
9013.00,1.07
9012.00,1.08
9011.00,1.08
9010.00,1.09
9009.00,1.09
9008.00,1.10
9007.00,1.10
9006.00,1.11
9005.00,1.11
9004.00,1.11
9003.00,1.12
9002.00,1.12
9001.00,1.12
9000.00,1.12
8999.00,1.13
8998.00,1.13
8997.00,1.14
8996.00,1.14
8995.00,1.14
8994.00,1.15
8993.00,1.15
8992.00,1.15
8991.00,1.15
8990.00,1.15
8989.00,1.15
8988.00,1.15
8987.00,1.15
8986.00,1.15
8985.00,1.15
8984.00,1.15
8983.00,1.16
8982.00,1.16
8981.00,1.16
8980.00,1.16
8979.00,1.16
8978.00,1.16
8977.00,1.16
8976.00,1.17
8975.00,1.17
8974.00,1.17
8973.00,1.17
8972.00,1.17
8971.00,1.17
8970.00,1.17
8969.00,1.17
8968.00,1.17
8967.00,1.17
8966.00,1.17
8965.00,1.17
8964.00,1.17
8963.00,1.17
8962.00,1.17
8961.00,1.17
8960.00,1.17
8959.00,1.17
8958.00,1.16
8957.00,1.16
8956.00,1.16
8955.00,1.15
8954.00,1.15
8953.00,1.14
8952.00,1.14
8951.00,1.13
8950.00,1.13
8949.00,1.12
8948.00,1.12
8947.00,1.11
8946.00,1.11
8945.00,1.11
8944.00,1.10
8943.00,1.10
8942.00,1.10
8941.00,1.10
8940.00,1.10
8939.00,1.10
8938.00,1.09
8937.00,1.09
8936.00,1.09
8935.00,1.09
8934.00,1.09
8933.00,1.09
8932.00,1.10
8931.00,1.10
8930.00,1.10
8929.00,1.11
8928.00,1.11
8927.00,1.12
8926.00,1.12
8925.00,1.13
8924.00,1.13
8923.00,1.14
8922.00,1.14
8921.00,1.15
8920.00,1.16
8919.00,1.16
8918.00,1.17
8917.00,1.17
8916.00,1.18
8915.00,1.18
8914.00,1.19
8913.00,1.19
8912.00,1.19
8911.00,1.20
8910.00,1.20
8909.00,1.20
8908.00,1.21
8907.00,1.21
8906.00,1.21
8905.00,1.21
8904.00,1.21
8903.00,1.21
8902.00,1.21
8901.00,1.22
8900.00,1.22
8899.00,1.22
8898.00,1.22
8897.00,1.22
8896.00,1.21
8895.00,1.21
8894.00,1.21
8893.00,1.21
8892.00,1.21
8891.00,1.21
8890.00,1.21
8889.00,1.21
8888.00,1.20
8887.00,1.20
8886.00,1.20
8885.00,1.20
8884.00,1.20
8883.00,1.20
8882.00,1.20
8881.00,1.20
8880.00,1.20
8879.00,1.21
8878.00,1.21
8877.00,1.21
8876.00,1.20
8875.00,1.20
8874.00,1.20
8873.00,1.20
8872.00,1.20
8871.00,1.20
8870.00,1.19
8869.00,1.19
8868.00,1.19
8867.00,1.19
8866.00,1.19
8865.00,1.18
8864.00,1.18
8863.00,1.18
8862.00,1.18
8861.00,1.18
8860.00,1.17
8859.00,1.17
8858.00,1.17
8857.00,1.16
8856.00,1.16
8855.00,1.15
8854.00,1.15
8853.00,1.15
8852.00,1.14
8851.00,1.14
8850.00,1.14
8849.00,1.14
8848.00,1.14
8847.00,1.14
8846.00,1.14
8845.00,1.15
8844.00,1.15
8843.00,1.15
8842.00,1.15
8841.00,1.16
8840.00,1.16
8839.00,1.16
8838.00,1.16
8837.00,1.17
8836.00,1.17
8835.00,1.17
8834.00,1.17
8833.00,1.17
8832.00,1.18
8831.00,1.18
8830.00,1.18
8829.00,1.18
8828.00,1.19
8827.00,1.19
8826.00,1.19
8825.00,1.19
8824.00,1.19
8823.00,1.19
8822.00,1.19
8821.00,1.19
8820.00,1.19
8819.00,1.19
8818.00,1.19
8817.00,1.19
8816.00,1.18
8815.00,1.18
8814.00,1.18
8813.00,1.18
8812.00,1.18
8811.00,1.17
8810.00,1.17
8809.00,1.17
8808.00,1.17
8807.00,1.17
8806.00,1.17
8805.00,1.16
8804.00,1.16
8803.00,1.16
8802.00,1.15
8801.00,1.15
8800.00,1.15
8799.00,1.14
8798.00,1.14
8797.00,1.14
8796.00,1.13
8795.00,1.13
8794.00,1.13
8793.00,1.12
8792.00,1.12
8791.00,1.12
8790.00,1.11
8789.00,1.11
8788.00,1.10
8787.00,1.10
8786.00,1.10
8785.00,1.09
8784.00,1.09
8783.00,1.08
8782.00,1.08
8781.00,1.08
8780.00,1.07
8779.00,1.07
8778.00,1.06
8777.00,1.06
8776.00,1.06
8775.00,1.06
8774.00,1.06
8773.00,1.05
8772.00,1.05
8771.00,1.05
8770.00,1.05
8769.00,1.05
8768.00,1.05
8767.00,1.05
8766.00,1.05
8765.00,1.05
8764.00,1.05
8763.00,1.05
8762.00,1.05
8761.00,1.05
8760.00,1.06
8759.00,1.06
8758.00,1.06
8757.00,1.06
8756.00,1.07
8755.00,1.07
8754.00,1.07
8753.00,1.07
8752.00,1.08
8751.00,1.08
8750.00,1.08
8749.00,1.09
8748.00,1.09
8747.00,1.09
8746.00,1.09
8745.00,1.09
8744.00,1.09
8743.00,1.09
8742.00,1.09
8741.00,1.09
8740.00,1.09
8739.00,1.09
8738.00,1.09
8737.00,1.09
8736.00,1.08
8735.00,1.08
8734.00,1.08
8733.00,1.08
8732.00,1.07
8731.00,1.07
8730.00,1.07
8729.00,1.06
8728.00,1.06
8727.00,1.06
8726.00,1.05
8725.00,1.05
8724.00,1.04
8723.00,1.04
8722.00,1.04
8721.00,1.03
8720.00,1.03
8719.00,1.03
8718.00,1.03
8717.00,1.03
8716.00,1.03
8715.00,1.03
8714.00,1.03
8713.00,1.04
8712.00,1.04
8711.00,1.04
8710.00,1.04
8709.00,1.04
8708.00,1.04
8707.00,1.05
8706.00,1.05
8705.00,1.06
8704.00,1.06
8703.00,1.06
8702.00,1.07
8701.00,1.07
8700.00,1.08
8699.00,1.08
8698.00,1.09
8697.00,1.09
8696.00,1.09
8695.00,1.10
8694.00,1.10
8693.00,1.10
8692.00,1.11
8691.00,1.11
8690.00,1.11
8689.00,1.11
8688.00,1.11
8687.00,1.11
8686.00,1.11
8685.00,1.11
8684.00,1.11
8683.00,1.11
8682.00,1.11
8681.00,1.11
8680.00,1.11
8679.00,1.11
8678.00,1.11
8677.00,1.11
8676.00,1.11
8675.00,1.11
8674.00,1.11
8673.00,1.11
8672.00,1.11
8671.00,1.10
8670.00,1.10
8669.00,1.10
8668.00,1.10
8667.00,1.10
8666.00,1.09
8665.00,1.09
8664.00,1.09
8663.00,1.09
8662.00,1.09
8661.00,1.09
8660.00,1.09
8659.00,1.09
8658.00,1.09
8657.00,1.09
8656.00,1.09
8655.00,1.09
8654.00,1.09
8653.00,1.09
8652.00,1.09
8651.00,1.09
8650.00,1.09
8649.00,1.09
8648.00,1.09
8647.00,1.09
8646.00,1.09
8645.00,1.09
8644.00,1.10
8643.00,1.10
8642.00,1.10
8641.00,1.10
8640.00,1.10
8639.00,1.10
8638.00,1.10
8637.00,1.10
8636.00,1.10
8635.00,1.11
8634.00,1.11
8633.00,1.11
8632.00,1.11
8631.00,1.11
8630.00,1.11
8629.00,1.11
8628.00,1.11
8627.00,1.10
8626.00,1.10
8625.00,1.10
8624.00,1.10
8623.00,1.10
8622.00,1.10
8621.00,1.10
8620.00,1.10
8619.00,1.10
8618.00,1.10
8617.00,1.10
8616.00,1.10
8615.00,1.10
8614.00,1.10
8613.00,1.10
8612.00,1.09
8611.00,1.09
8610.00,1.09
8609.00,1.09
8608.00,1.09
8607.00,1.09
8606.00,1.08
8605.00,1.08
8604.00,1.08
8603.00,1.08
8602.00,1.08
8601.00,1.07
8600.00,1.07
8599.00,1.07
8598.00,1.07
8597.00,1.07
8596.00,1.06
8595.00,1.06
8594.00,1.06
8593.00,1.06
8592.00,1.06
8591.00,1.06
8590.00,1.06
8589.00,1.06
8588.00,1.06
8587.00,1.06
8586.00,1.06
8585.00,1.06
8584.00,1.06
8583.00,1.06
8582.00,1.06
8581.00,1.06
8580.00,1.06
8579.00,1.06
8578.00,1.06
8577.00,1.07
8576.00,1.07
8575.00,1.07
8574.00,1.07
8573.00,1.07
8572.00,1.08
8571.00,1.08
8570.00,1.08
8569.00,1.08
8568.00,1.08
8567.00,1.08
8566.00,1.08
8565.00,1.09
8564.00,1.09
8563.00,1.09
8562.00,1.09
8561.00,1.09
8560.00,1.09
8559.00,1.09
8558.00,1.09
8557.00,1.10
8556.00,1.10
8555.00,1.10
8554.00,1.10
8553.00,1.10
8552.00,1.10
8551.00,1.10
8550.00,1.10
8549.00,1.10
8548.00,1.10
8547.00,1.10
8546.00,1.10
8545.00,1.10
8544.00,1.10
8543.00,1.10
8542.00,1.10
8541.00,1.10
8540.00,1.10
8539.00,1.10
8538.00,1.10
8537.00,1.09
8536.00,1.09
8535.00,1.09
8534.00,1.09
8533.00,1.09
8532.00,1.08
8531.00,1.08
8530.00,1.07
8529.00,1.07
8528.00,1.07
8527.00,1.06
8526.00,1.06
8525.00,1.05
8524.00,1.05
8523.00,1.05
8522.00,1.04
8521.00,1.04
8520.00,1.04
8519.00,1.03
8518.00,1.03
8517.00,1.03
8516.00,1.03
8515.00,1.03
8514.00,1.02
8513.00,1.02
8512.00,1.02
8511.00,1.02
8510.00,1.02
8509.00,1.01
8508.00,1.01
8507.00,1.01
8506.00,1.01
8505.00,1.01
8504.00,1.00
8503.00,1.00
8502.00,1.00
8501.00,1.00
8500.00,1.01
8499.00,1.01
8498.00,1.01
8497.00,1.01
8496.00,1.02
8495.00,1.02
8494.00,1.02
8493.00,1.02
8492.00,1.03
8491.00,1.03
8490.00,1.04
8489.00,1.04
8488.00,1.04
8487.00,1.05
8486.00,1.05
8485.00,1.06
8484.00,1.06
8483.00,1.07
8482.00,1.07
8481.00,1.08
8480.00,1.08
8479.00,1.09
8478.00,1.09
8477.00,1.10
8476.00,1.10
8475.00,1.10
8474.00,1.11
8473.00,1.11
8472.00,1.11
8471.00,1.11
8470.00,1.11
8469.00,1.11
8468.00,1.10
8467.00,1.10
8466.00,1.10
8465.00,1.10
8464.00,1.09
8463.00,1.09
8462.00,1.09
8461.00,1.08
8460.00,1.08
8459.00,1.08
8458.00,1.08
8457.00,1.07
8456.00,1.07
8455.00,1.07
8454.00,1.07
8453.00,1.07
8452.00,1.07
8451.00,1.06
8450.00,1.06
8449.00,1.06
8448.00,1.06
8447.00,1.06
8446.00,1.06
8445.00,1.06
8444.00,1.06
8443.00,1.06
8442.00,1.06
8441.00,1.06
8440.00,1.07
8439.00,1.07
8438.00,1.07
8437.00,1.07
8436.00,1.07
8435.00,1.07
8434.00,1.07
8433.00,1.07
8432.00,1.07
8431.00,1.08
8430.00,1.07
8429.00,1.07
8428.00,1.07
8427.00,1.07
8426.00,1.07
8425.00,1.07
8424.00,1.07
8423.00,1.07
8422.00,1.07
8421.00,1.07
8420.00,1.06
8419.00,1.06
8418.00,1.06
8417.00,1.06
8416.00,1.06
8415.00,1.05
8414.00,1.05
8413.00,1.05
8412.00,1.05
8411.00,1.05
8410.00,1.05
8409.00,1.05
8408.00,1.05
8407.00,1.05
8406.00,1.05
8405.00,1.05
8404.00,1.05
8403.00,1.05
8402.00,1.05
8401.00,1.06
8400.00,1.06
8399.00,1.06
8398.00,1.06
8397.00,1.07
8396.00,1.07
8395.00,1.07
8394.00,1.08
8393.00,1.08
8392.00,1.09
8391.00,1.09
8390.00,1.09
8389.00,1.10
8388.00,1.10
8387.00,1.11
8386.00,1.11
8385.00,1.11
8384.00,1.12
8383.00,1.12
8382.00,1.12
8381.00,1.12
8380.00,1.13
8379.00,1.13
8378.00,1.13
8377.00,1.13
8376.00,1.13
8375.00,1.13
8374.00,1.13
8373.00,1.13
8372.00,1.13
8371.00,1.13
8370.00,1.13
8369.00,1.13
8368.00,1.13
8367.00,1.12
8366.00,1.12
8365.00,1.12
8364.00,1.12
8363.00,1.11
8362.00,1.11
8361.00,1.11
8360.00,1.10
8359.00,1.10
8358.00,1.10
8357.00,1.10
8356.00,1.09
8355.00,1.09
8354.00,1.08
8353.00,1.08
8352.00,1.08
8351.00,1.07
8350.00,1.07
8349.00,1.07
8348.00,1.06
8347.00,1.06
8346.00,1.06
8345.00,1.06
8344.00,1.06
8343.00,1.05
8342.00,1.05
8341.00,1.05
8340.00,1.05
8339.00,1.05
8338.00,1.05
8337.00,1.05
8336.00,1.05
8335.00,1.05
8334.00,1.05
8333.00,1.05
8332.00,1.05
8331.00,1.05
8330.00,1.05
8329.00,1.05
8328.00,1.05
8327.00,1.05
8326.00,1.05
8325.00,1.05
8324.00,1.05
8323.00,1.05
8322.00,1.05
8321.00,1.05
8320.00,1.05
8319.00,1.05
8318.00,1.05
8317.00,1.05
8316.00,1.05
8315.00,1.05
8314.00,1.05
8313.00,1.04
8312.00,1.04
8311.00,1.04
8310.00,1.04
8309.00,1.04
8308.00,1.04
8307.00,1.04
8306.00,1.04
8305.00,1.04
8304.00,1.04
8303.00,1.05
8302.00,1.05
8301.00,1.05
8300.00,1.05
8299.00,1.06
8298.00,1.06
8297.00,1.06
8296.00,1.06
8295.00,1.06
8294.00,1.06
8293.00,1.06
8292.00,1.07
8291.00,1.07
8290.00,1.07
8289.00,1.07
8288.00,1.07
8287.00,1.08
8286.00,1.08
8285.00,1.09
8284.00,1.09
8283.00,1.09
8282.00,1.10
8281.00,1.10
8280.00,1.10
8279.00,1.10
8278.00,1.11
8277.00,1.11
8276.00,1.11
8275.00,1.11
8274.00,1.11
8273.00,1.11
8272.00,1.11
8271.00,1.11
8270.00,1.11
8269.00,1.11
8268.00,1.11
8267.00,1.11
8266.00,1.11
8265.00,1.11
8264.00,1.11
8263.00,1.11
8262.00,1.11
8261.00,1.11
8260.00,1.11
8259.00,1.11
8258.00,1.10
8257.00,1.10
8256.00,1.10
8255.00,1.10
8254.00,1.09
8253.00,1.09
8252.00,1.09
8251.00,1.09
8250.00,1.09
8249.00,1.09
8248.00,1.09
8247.00,1.08
8246.00,1.08
8245.00,1.08
8244.00,1.08
8243.00,1.08
8242.00,1.08
8241.00,1.08
8240.00,1.08
8239.00,1.08
8238.00,1.08
8237.00,1.09
8236.00,1.09
8235.00,1.09
8234.00,1.09
8233.00,1.10
8232.00,1.10
8231.00,1.10
8230.00,1.11
8229.00,1.11
8228.00,1.11
8227.00,1.12
8226.00,1.12
8225.00,1.12
8224.00,1.12
8223.00,1.13
8222.00,1.13
8221.00,1.13
8220.00,1.13
8219.00,1.13
8218.00,1.13
8217.00,1.13
8216.00,1.13
8215.00,1.13
8214.00,1.13
8213.00,1.13
8212.00,1.13
8211.00,1.13
8210.00,1.14
8209.00,1.14
8208.00,1.14
8207.00,1.14
8206.00,1.13
8205.00,1.13
8204.00,1.13
8203.00,1.13
8202.00,1.14
8201.00,1.14
8200.00,1.14
8199.00,1.14
8198.00,1.14
8197.00,1.14
8196.00,1.14
8195.00,1.14
8194.00,1.14
8193.00,1.14
8192.00,1.14
8191.00,1.15
8190.00,1.15
8189.00,1.15
8188.00,1.15
8187.00,1.15
8186.00,1.15
8185.00,1.15
8184.00,1.15
8183.00,1.15
8182.00,1.15
8181.00,1.15
8180.00,1.15
8179.00,1.15
8178.00,1.15
8177.00,1.15
8176.00,1.15
8175.00,1.15
8174.00,1.15
8173.00,1.15
8172.00,1.15
8171.00,1.15
8170.00,1.15
8169.00,1.15
8168.00,1.15
8167.00,1.15
8166.00,1.15
8165.00,1.15
8164.00,1.15
8163.00,1.15
8162.00,1.16
8161.00,1.16
8160.00,1.16
8159.00,1.16
8158.00,1.16
8157.00,1.17
8156.00,1.17
8155.00,1.17
8154.00,1.17
8153.00,1.17
8152.00,1.18
8151.00,1.18
8150.00,1.19
8149.00,1.19
8148.00,1.19
8147.00,1.20
8146.00,1.20
8145.00,1.21
8144.00,1.21
8143.00,1.21
8142.00,1.22
8141.00,1.22
8140.00,1.23
8139.00,1.23
8138.00,1.24
8137.00,1.24
8136.00,1.24
8135.00,1.25
8134.00,1.25
8133.00,1.26
8132.00,1.26
8131.00,1.26
8130.00,1.27
8129.00,1.27
8128.00,1.27
8127.00,1.27
8126.00,1.27
8125.00,1.27
8124.00,1.27
8123.00,1.27
8122.00,1.27
8121.00,1.27
8120.00,1.26
8119.00,1.26
8118.00,1.26
8117.00,1.26
8116.00,1.25
8115.00,1.25
8114.00,1.25
8113.00,1.24
8112.00,1.24
8111.00,1.24
8110.00,1.23
8109.00,1.23
8108.00,1.22
8107.00,1.22
8106.00,1.21
8105.00,1.21
8104.00,1.20
8103.00,1.20
8102.00,1.19
8101.00,1.19
8100.00,1.19
8099.00,1.18
8098.00,1.18
8097.00,1.18
8096.00,1.17
8095.00,1.17
8094.00,1.16
8093.00,1.16
8092.00,1.16
8091.00,1.15
8090.00,1.15
8089.00,1.15
8088.00,1.14
8087.00,1.14
8086.00,1.14
8085.00,1.13
8084.00,1.13
8083.00,1.13
8082.00,1.12
8081.00,1.12
8080.00,1.12
8079.00,1.11
8078.00,1.11
8077.00,1.10
8076.00,1.10
8075.00,1.10
8074.00,1.09
8073.00,1.09
8072.00,1.09
8071.00,1.08
8070.00,1.08
8069.00,1.08
8068.00,1.07
8067.00,1.07
8066.00,1.07
8065.00,1.06
8064.00,1.06
8063.00,1.05
8062.00,1.05
8061.00,1.05
8060.00,1.05
8059.00,1.04
8058.00,1.04
8057.00,1.04
8056.00,1.04
8055.00,1.04
8054.00,1.04
8053.00,1.04
8052.00,1.04
8051.00,1.05
8050.00,1.05
8049.00,1.05
8048.00,1.05
8047.00,1.06
8046.00,1.06
8045.00,1.06
8044.00,1.07
8043.00,1.07
8042.00,1.07
8041.00,1.08
8040.00,1.08
8039.00,1.09
8038.00,1.09
8037.00,1.10
8036.00,1.10
8035.00,1.11
8034.00,1.11
8033.00,1.11
8032.00,1.12
8031.00,1.12
8030.00,1.12
8029.00,1.13
8028.00,1.13
8027.00,1.13
8026.00,1.13
8025.00,1.13
8024.00,1.13
8023.00,1.14
8022.00,1.14
8021.00,1.14
8020.00,1.14
8019.00,1.14
8018.00,1.14
8017.00,1.14
8016.00,1.14
8015.00,1.14
8014.00,1.14
8013.00,1.13
8012.00,1.13
8011.00,1.13
8010.00,1.13
8009.00,1.13
8008.00,1.13
8007.00,1.13
8006.00,1.13
8005.00,1.12
8004.00,1.12
8003.00,1.12
8002.00,1.12
8001.00,1.12
8000.00,1.12
7999.00,1.13
7998.00,1.13
7997.00,1.13
7996.00,1.13
7995.00,1.13
7994.00,1.13
7993.00,1.13
7992.00,1.13
7991.00,1.13
7990.00,1.13
7989.00,1.13
7988.00,1.14
7987.00,1.14
7986.00,1.14
7985.00,1.14
7984.00,1.14
7983.00,1.15
7982.00,1.15
7981.00,1.15
7980.00,1.15
7979.00,1.16
7978.00,1.16
7977.00,1.16
7976.00,1.16
7975.00,1.16
7974.00,1.16
7973.00,1.16
7972.00,1.16
7971.00,1.16
7970.00,1.16
7969.00,1.16
7968.00,1.16
7967.00,1.16
7966.00,1.15
7965.00,1.15
7964.00,1.15
7963.00,1.15
7962.00,1.15
7961.00,1.15
7960.00,1.15
7959.00,1.15
7958.00,1.15
7957.00,1.15
7956.00,1.15
7955.00,1.14
7954.00,1.14
7953.00,1.14
7952.00,1.14
7951.00,1.14
7950.00,1.14
7949.00,1.14
7948.00,1.14
7947.00,1.15
7946.00,1.15
7945.00,1.15
7944.00,1.15
7943.00,1.16
7942.00,1.16
7941.00,1.16
7940.00,1.17
7939.00,1.17
7938.00,1.18
7937.00,1.18
7936.00,1.18
7935.00,1.19
7934.00,1.19
7933.00,1.19
7932.00,1.20
7931.00,1.20
7930.00,1.20
7929.00,1.20
7928.00,1.21
7927.00,1.21
7926.00,1.21
7925.00,1.21
7924.00,1.22
7923.00,1.22
7922.00,1.22
7921.00,1.22
7920.00,1.22
7919.00,1.23
7918.00,1.23
7917.00,1.23
7916.00,1.22
7915.00,1.22
7914.00,1.22
7913.00,1.22
7912.00,1.22
7911.00,1.22
7910.00,1.21
7909.00,1.21
7908.00,1.21
7907.00,1.21
7906.00,1.21
7905.00,1.20
7904.00,1.20
7903.00,1.20
7902.00,1.20
7901.00,1.19
7900.00,1.19
7899.00,1.19
7898.00,1.18
7897.00,1.18
7896.00,1.18
7895.00,1.17
7894.00,1.17
7893.00,1.17
7892.00,1.17
7891.00,1.17
7890.00,1.17
7889.00,1.17
7888.00,1.17
7887.00,1.17
7886.00,1.17
7885.00,1.17
7884.00,1.17
7883.00,1.17
7882.00,1.17
7881.00,1.17
7880.00,1.17
7879.00,1.17
7878.00,1.17
7877.00,1.17
7876.00,1.17
7875.00,1.17
7874.00,1.17
7873.00,1.17
7872.00,1.17
7871.00,1.17
7870.00,1.17
7869.00,1.17
7868.00,1.17
7867.00,1.17
7866.00,1.17
7865.00,1.17
7864.00,1.17
7863.00,1.17
7862.00,1.17
7861.00,1.17
7860.00,1.16
7859.00,1.16
7858.00,1.16
7857.00,1.16
7856.00,1.16
7855.00,1.16
7854.00,1.16
7853.00,1.15
7852.00,1.15
7851.00,1.15
7850.00,1.15
7849.00,1.15
7848.00,1.15
7847.00,1.15
7846.00,1.15
7845.00,1.15
7844.00,1.15
7843.00,1.15
7842.00,1.15
7841.00,1.15
7840.00,1.15
7839.00,1.15
7838.00,1.15
7837.00,1.15
7836.00,1.15
7835.00,1.14
7834.00,1.14
7833.00,1.14
7832.00,1.14
7831.00,1.14
7830.00,1.14
7829.00,1.14
7828.00,1.14
7827.00,1.14
7826.00,1.14
7825.00,1.14
7824.00,1.14
7823.00,1.14
7822.00,1.14
7821.00,1.14
7820.00,1.14
7819.00,1.14
7818.00,1.14
7817.00,1.14
7816.00,1.14
7815.00,1.14
7814.00,1.15
7813.00,1.15
7812.00,1.15
7811.00,1.15
7810.00,1.16
7809.00,1.16
7808.00,1.16
7807.00,1.17
7806.00,1.17
7805.00,1.17
7804.00,1.18
7803.00,1.18
7802.00,1.18
7801.00,1.19
7800.00,1.19
7799.00,1.19
7798.00,1.20
7797.00,1.20
7796.00,1.20
7795.00,1.20
7794.00,1.21
7793.00,1.21
7792.00,1.21
7791.00,1.21
7790.00,1.21
7789.00,1.21
7788.00,1.21
7787.00,1.21
7786.00,1.22
7785.00,1.21
7784.00,1.21
7783.00,1.21
7782.00,1.21
7781.00,1.21
7780.00,1.21
7779.00,1.21
7778.00,1.20
7777.00,1.20
7776.00,1.20
7775.00,1.20
7774.00,1.20
7773.00,1.19
7772.00,1.19
7771.00,1.19
7770.00,1.19
7769.00,1.19
7768.00,1.19
7767.00,1.19
7766.00,1.19
7765.00,1.19
7764.00,1.19
7763.00,1.19
7762.00,1.19
7761.00,1.19
7760.00,1.19
7759.00,1.19
7758.00,1.19
7757.00,1.19
7756.00,1.19
7755.00,1.19
7754.00,1.19
7753.00,1.19
7752.00,1.19
7751.00,1.19
7750.00,1.19
7749.00,1.19
7748.00,1.19
7747.00,1.19
7746.00,1.19
7745.00,1.19
7744.00,1.19
7743.00,1.19
7742.00,1.19
7741.00,1.19
7740.00,1.19
7739.00,1.19
7738.00,1.19
7737.00,1.19
7736.00,1.19
7735.00,1.19
7734.00,1.19
7733.00,1.19
7732.00,1.19
7731.00,1.19
7730.00,1.19
7729.00,1.19
7728.00,1.19
7727.00,1.19
7726.00,1.19
7725.00,1.19
7724.00,1.19
7723.00,1.19
7722.00,1.19
7721.00,1.19
7720.00,1.18
7719.00,1.18
7718.00,1.18
7717.00,1.18
7716.00,1.17
7715.00,1.17
7714.00,1.17
7713.00,1.17
7712.00,1.16
7711.00,1.16
7710.00,1.16
7709.00,1.16
7708.00,1.16
7707.00,1.15
7706.00,1.15
7705.00,1.15
7704.00,1.15
7703.00,1.15
7702.00,1.15
7701.00,1.16
7700.00,1.16
7699.00,1.16
7698.00,1.16
7697.00,1.16
7696.00,1.17
7695.00,1.17
7694.00,1.17
7693.00,1.17
7692.00,1.18
7691.00,1.18
7690.00,1.19
7689.00,1.19
7688.00,1.19
7687.00,1.20
7686.00,1.20
7685.00,1.21
7684.00,1.21
7683.00,1.21
7682.00,1.22
7681.00,1.22
7680.00,1.22
7679.00,1.22
7678.00,1.22
7677.00,1.22
7676.00,1.22
7675.00,1.22
7674.00,1.22
7673.00,1.22
7672.00,1.22
7671.00,1.22
7670.00,1.21
7669.00,1.21
7668.00,1.21
7667.00,1.21
7666.00,1.21
7665.00,1.21
7664.00,1.20
7663.00,1.20
7662.00,1.20
7661.00,1.20
7660.00,1.20
7659.00,1.20
7658.00,1.19
7657.00,1.19
7656.00,1.19
7655.00,1.19
7654.00,1.19
7653.00,1.19
7652.00,1.19
7651.00,1.19
7650.00,1.20
7649.00,1.20
7648.00,1.20
7647.00,1.20
7646.00,1.20
7645.00,1.21
7644.00,1.21
7643.00,1.21
7642.00,1.21
7641.00,1.21
7640.00,1.21
7639.00,1.21
7638.00,1.21
7637.00,1.21
7636.00,1.21
7635.00,1.21
7634.00,1.21
7633.00,1.20
7632.00,1.20
7631.00,1.20
7630.00,1.20
7629.00,1.20
7628.00,1.20
7627.00,1.20
7626.00,1.19
7625.00,1.19
7624.00,1.19
7623.00,1.19
7622.00,1.19
7621.00,1.18
7620.00,1.18
7619.00,1.18
7618.00,1.18
7617.00,1.17
7616.00,1.17
7615.00,1.17
7614.00,1.17
7613.00,1.17
7612.00,1.17
7611.00,1.17
7610.00,1.17
7609.00,1.17
7608.00,1.17
7607.00,1.17
7606.00,1.17
7605.00,1.17
7604.00,1.17
7603.00,1.17
7602.00,1.17
7601.00,1.17
7600.00,1.17
7599.00,1.17
7598.00,1.17
7597.00,1.17
7596.00,1.17
7595.00,1.17
7594.00,1.17
7593.00,1.17
7592.00,1.17
7591.00,1.17
7590.00,1.17
7589.00,1.17
7588.00,1.17
7587.00,1.17
7586.00,1.17
7585.00,1.17
7584.00,1.17
7583.00,1.17
7582.00,1.17
7581.00,1.17
7580.00,1.17
7579.00,1.17
7578.00,1.17
7577.00,1.17
7576.00,1.17
7575.00,1.17
7574.00,1.17
7573.00,1.17
7572.00,1.17
7571.00,1.17
7570.00,1.17
7569.00,1.17
7568.00,1.17
7567.00,1.17
7566.00,1.17
7565.00,1.17
7564.00,1.17
7563.00,1.17
7562.00,1.17
7561.00,1.17
7560.00,1.17
7559.00,1.17
7558.00,1.17
7557.00,1.17
7556.00,1.17
7555.00,1.17
7554.00,1.18
7553.00,1.18
7552.00,1.18
7551.00,1.18
7550.00,1.18
7549.00,1.18
7548.00,1.18
7547.00,1.18
7546.00,1.18
7545.00,1.18
7544.00,1.18
7543.00,1.18
7542.00,1.18
7541.00,1.18
7540.00,1.18
7539.00,1.18
7538.00,1.18
7537.00,1.18
7536.00,1.18
7535.00,1.18
7534.00,1.18
7533.00,1.18
7532.00,1.18
7531.00,1.18
7530.00,1.18
7529.00,1.18
7528.00,1.18
7527.00,1.18
7526.00,1.18
7525.00,1.18
7524.00,1.18
7523.00,1.18
7522.00,1.18
7521.00,1.18
7520.00,1.18
7519.00,1.18
7518.00,1.18
7517.00,1.18
7516.00,1.18
7515.00,1.18
7514.00,1.18
7513.00,1.18
7512.00,1.18
7511.00,1.18
7510.00,1.18
7509.00,1.18
7508.00,1.18
7507.00,1.19
7506.00,1.19
7505.00,1.19
7504.00,1.19
7503.00,1.19
7502.00,1.19
7501.00,1.20
7500.00,1.20
7499.00,1.20
7498.00,1.20
7497.00,1.20
7496.00,1.20
7495.00,1.20
7494.00,1.21
7493.00,1.21
7492.00,1.20
7491.00,1.20
7490.00,1.20
7489.00,1.20
7488.00,1.20
7487.00,1.20
7486.00,1.20
7485.00,1.20
7484.00,1.20
7483.00,1.19
7482.00,1.19
7481.00,1.19
7480.00,1.19
7479.00,1.19
7478.00,1.18
7477.00,1.18
7476.00,1.18
7475.00,1.17
7474.00,1.17
7473.00,1.16
7472.00,1.16
7471.00,1.15
7470.00,1.15
7469.00,1.14
7468.00,1.14
7467.00,1.14
7466.00,1.14
7465.00,1.13
7464.00,1.13
7463.00,1.13
7462.00,1.13
7461.00,1.13
7460.00,1.13
7459.00,1.12
7458.00,1.12
7457.00,1.12
7456.00,1.12
7455.00,1.12
7454.00,1.12
7453.00,1.12
7452.00,1.12
7451.00,1.12
7450.00,1.12
7449.00,1.12
7448.00,1.12
7447.00,1.12
7446.00,1.12
7445.00,1.12
7444.00,1.12
7443.00,1.13
7442.00,1.13
7441.00,1.13
7440.00,1.13
7439.00,1.13
7438.00,1.13
7437.00,1.14
7436.00,1.14
7435.00,1.14
7434.00,1.14
7433.00,1.14
7432.00,1.14
7431.00,1.14
7430.00,1.15
7429.00,1.15
7428.00,1.15
7427.00,1.15
7426.00,1.15
7425.00,1.15
7424.00,1.16
7423.00,1.16
7422.00,1.16
7421.00,1.16
7420.00,1.16
7419.00,1.17
7418.00,1.17
7417.00,1.17
7416.00,1.17
7415.00,1.17
7414.00,1.17
7413.00,1.17
7412.00,1.17
7411.00,1.17
7410.00,1.17
7409.00,1.17
7408.00,1.17
7407.00,1.17
7406.00,1.17
7405.00,1.17
7404.00,1.17
7403.00,1.17
7402.00,1.17
7401.00,1.17
7400.00,1.17
7399.00,1.17
7398.00,1.17
7397.00,1.17
7396.00,1.17
7395.00,1.17
7394.00,1.17
7393.00,1.17
7392.00,1.17
7391.00,1.17
7390.00,1.17
7389.00,1.17
7388.00,1.17
7387.00,1.17
7386.00,1.17
7385.00,1.18
7384.00,1.18
7383.00,1.18
7382.00,1.18
7381.00,1.18
7380.00,1.18
7379.00,1.18
7378.00,1.18
7377.00,1.18
7376.00,1.18
7375.00,1.18
7374.00,1.18
7373.00,1.18
7372.00,1.17
7371.00,1.17
7370.00,1.17
7369.00,1.17
7368.00,1.17
7367.00,1.17
7366.00,1.16
7365.00,1.16
7364.00,1.16
7363.00,1.16
7362.00,1.16
7361.00,1.15
7360.00,1.15
7359.00,1.15
7358.00,1.15
7357.00,1.14
7356.00,1.14
7355.00,1.14
7354.00,1.14
7353.00,1.13
7352.00,1.13
7351.00,1.13
7350.00,1.13
7349.00,1.13
7348.00,1.13
7347.00,1.13
7346.00,1.13
7345.00,1.13
7344.00,1.14
7343.00,1.14
7342.00,1.14
7341.00,1.14
7340.00,1.14
7339.00,1.15
7338.00,1.15
7337.00,1.15
7336.00,1.15
7335.00,1.16
7334.00,1.16
7333.00,1.16
7332.00,1.17
7331.00,1.17
7330.00,1.17
7329.00,1.18
7328.00,1.18
7327.00,1.18
7326.00,1.19
7325.00,1.19
7324.00,1.19
7323.00,1.20
7322.00,1.20
7321.00,1.20
7320.00,1.21
7319.00,1.21
7318.00,1.21
7317.00,1.21
7316.00,1.21
7315.00,1.22
7314.00,1.22
7313.00,1.22
7312.00,1.22
7311.00,1.22
7310.00,1.22
7309.00,1.22
7308.00,1.21
7307.00,1.21
7306.00,1.21
7305.00,1.21
7304.00,1.21
7303.00,1.21
7302.00,1.21
7301.00,1.21
7300.00,1.21
7299.00,1.21
7298.00,1.21
7297.00,1.20
7296.00,1.20
7295.00,1.20
7294.00,1.20
7293.00,1.20
7292.00,1.20
7291.00,1.20
7290.00,1.19
7289.00,1.19
7288.00,1.19
7287.00,1.19
7286.00,1.19
7285.00,1.20
7284.00,1.20
7283.00,1.20
7282.00,1.20
7281.00,1.20
7280.00,1.20
7279.00,1.20
7278.00,1.20
7277.00,1.20
7276.00,1.20
7275.00,1.20
7274.00,1.20
7273.00,1.20
7272.00,1.20
7271.00,1.20
7270.00,1.20
7269.00,1.20
7268.00,1.20
7267.00,1.20
7266.00,1.20
7265.00,1.20
7264.00,1.20
7263.00,1.20
7262.00,1.20
7261.00,1.20
7260.00,1.20
7259.00,1.20
7258.00,1.20
7257.00,1.20
7256.00,1.20
7255.00,1.20
7254.00,1.20
7253.00,1.20
7252.00,1.20
7251.00,1.20
7250.00,1.20
7249.00,1.20
7248.00,1.20
7247.00,1.20
7246.00,1.20
7245.00,1.20
7244.00,1.20
7243.00,1.19
7242.00,1.19
7241.00,1.19
7240.00,1.19
7239.00,1.19
7238.00,1.19
7237.00,1.19
7236.00,1.19
7235.00,1.18
7234.00,1.18
7233.00,1.18
7232.00,1.18
7231.00,1.17
7230.00,1.17
7229.00,1.17
7228.00,1.17
7227.00,1.16
7226.00,1.16
7225.00,1.16
7224.00,1.15
7223.00,1.15
7222.00,1.15
7221.00,1.14
7220.00,1.14
7219.00,1.13
7218.00,1.13
7217.00,1.12
7216.00,1.12
7215.00,1.11
7214.00,1.11
7213.00,1.10
7212.00,1.10
7211.00,1.09
7210.00,1.09
7209.00,1.09
7208.00,1.09
7207.00,1.08
7206.00,1.08
7205.00,1.08
7204.00,1.08
7203.00,1.07
7202.00,1.07
7201.00,1.07
7200.00,1.07
7199.00,1.07
7198.00,1.07
7197.00,1.07
7196.00,1.07
7195.00,1.07
7194.00,1.07
7193.00,1.07
7192.00,1.07
7191.00,1.08
7190.00,1.08
7189.00,1.08
7188.00,1.08
7187.00,1.08
7186.00,1.08
7185.00,1.08
7184.00,1.08
7183.00,1.08
7182.00,1.08
7181.00,1.08
7180.00,1.08
7179.00,1.07
7178.00,1.07
7177.00,1.07
7176.00,1.07
7175.00,1.06
7174.00,1.06
7173.00,1.06
7172.00,1.05
7171.00,1.05
7170.00,1.05
7169.00,1.04
7168.00,1.04
7167.00,1.04
7166.00,1.03
7165.00,1.03
7164.00,1.03
7163.00,1.03
7162.00,1.02
7161.00,1.02
7160.00,1.02
7159.00,1.02
7158.00,1.02
7157.00,1.02
7156.00,1.03
7155.00,1.03
7154.00,1.03
7153.00,1.03
7152.00,1.03
7151.00,1.03
7150.00,1.04
7149.00,1.04
7148.00,1.04
7147.00,1.05
7146.00,1.05
7145.00,1.05
7144.00,1.05
7143.00,1.06
7142.00,1.06
7141.00,1.06
7140.00,1.06
7139.00,1.07
7138.00,1.07
7137.00,1.07
7136.00,1.07
7135.00,1.07
7134.00,1.07
7133.00,1.07
7132.00,1.07
7131.00,1.07
7130.00,1.07
7129.00,1.07
7128.00,1.07
7127.00,1.07
7126.00,1.07
7125.00,1.07
7124.00,1.07
7123.00,1.07
7122.00,1.07
7121.00,1.07
7120.00,1.07
7119.00,1.06
7118.00,1.06
7117.00,1.06
7116.00,1.06
7115.00,1.06
7114.00,1.07
7113.00,1.07
7112.00,1.07
7111.00,1.07
7110.00,1.07
7109.00,1.07
7108.00,1.07
7107.00,1.07
7106.00,1.07
7105.00,1.07
7104.00,1.07
7103.00,1.07
7102.00,1.07
7101.00,1.08
7100.00,1.08
7099.00,1.08
7098.00,1.08
7097.00,1.08
7096.00,1.08
7095.00,1.08
7094.00,1.08
7093.00,1.08
7092.00,1.08
7091.00,1.08
7090.00,1.08
7089.00,1.08
7088.00,1.08
7087.00,1.08
7086.00,1.08
7085.00,1.08
7084.00,1.08
7083.00,1.08
7082.00,1.08
7081.00,1.08
7080.00,1.08
7079.00,1.08
7078.00,1.08
7077.00,1.08
7076.00,1.07
7075.00,1.07
7074.00,1.07
7073.00,1.07
7072.00,1.07
7071.00,1.07
7070.00,1.07
7069.00,1.07
7068.00,1.07
7067.00,1.07
7066.00,1.07
7065.00,1.07
7064.00,1.07
7063.00,1.07
7062.00,1.07
7061.00,1.07
7060.00,1.07
7059.00,1.07
7058.00,1.07
7057.00,1.07
7056.00,1.07
7055.00,1.07
7054.00,1.06
7053.00,1.06
7052.00,1.06
7051.00,1.06
7050.00,1.06
7049.00,1.06
7048.00,1.06
7047.00,1.05
7046.00,1.05
7045.00,1.05
7044.00,1.05
7043.00,1.04
7042.00,1.04
7041.00,1.04
7040.00,1.04
7039.00,1.03
7038.00,1.03
7037.00,1.03
7036.00,1.03
7035.00,1.02
7034.00,1.02
7033.00,1.02
7032.00,1.02
7031.00,1.02
7030.00,1.02
7029.00,1.01
7028.00,1.01
7027.00,1.01
7026.00,1.01
7025.00,1.01
7024.00,1.01
7023.00,1.01
7022.00,1.01
7021.00,1.01
7020.00,1.01
7019.00,1.01
7018.00,1.01
7017.00,1.01
7016.00,1.01
7015.00,1.01
7014.00,1.01
7013.00,1.01
7012.00,1.00
7011.00,1.00
7010.00,1.00
7009.00,1.00
7008.00,1.01
7007.00,1.01
7006.00,1.01
7005.00,1.01
7004.00,1.01
7003.00,1.00
7002.00,1.00
7001.00,1.00
7000.00,1.00
6999.00,1.00
6998.00,1.00
6997.00,1.00
6996.00,1.00
6995.00,1.00
6994.00,1.00
6993.00,1.00
6992.00,1.00
6991.00,1.00
6990.00,1.00
6989.00,1.00
6988.00,1.00
6987.00,1.00
6986.00,1.00
6985.00,1.00
6984.00,1.00
6983.00,1.00
6982.00,1.00
6981.00,1.00
6980.00,1.00
6979.00,1.00
6978.00,1.00
6977.00,1.00
6976.00,1.00
6975.00,1.00
6974.00,1.00
6973.00,1.00
6972.00,1.00
6971.00,1.00
6970.00,1.01
6969.00,1.01
6968.00,1.01
6967.00,1.01
6966.00,1.01
6965.00,1.01
6964.00,1.01
6963.00,1.01
6962.00,1.02
6961.00,1.02
6960.00,1.02
6959.00,1.02
6958.00,1.02
6957.00,1.02
6956.00,1.02
6955.00,1.02
6954.00,1.02
6953.00,1.02
6952.00,1.02
6951.00,1.02
6950.00,1.02
6949.00,1.02
6948.00,1.02
6947.00,1.02
6946.00,1.02
6945.00,1.02
6944.00,1.02
6943.00,1.02
6942.00,1.02
6941.00,1.02
6940.00,1.02
6939.00,1.02
6938.00,1.02
6937.00,1.02
6936.00,1.02
6935.00,1.02
6934.00,1.02
6933.00,1.02
6932.00,1.02
6931.00,1.02
6930.00,1.02
6929.00,1.02
6928.00,1.02
6927.00,1.02
6926.00,1.02
6925.00,1.02
6924.00,1.02
6923.00,1.02
6922.00,1.02
6921.00,1.02
6920.00,1.02
6919.00,1.02
6918.00,1.02
6917.00,1.02
6916.00,1.02
6915.00,1.02
6914.00,1.02
6913.00,1.02
6912.00,1.02
6911.00,1.02
6910.00,1.01
6909.00,1.01
6908.00,1.01
6907.00,1.01
6906.00,1.01
6905.00,1.01
6904.00,1.00
6903.00,1.00
6902.00,1.00
6901.00,1.00
6900.00,1.00
6899.00,1.00
6898.00,0.99
6897.00,0.99
6896.00,0.99
6895.00,0.99
6894.00,0.99
6893.00,0.99
6892.00,0.99
6891.00,0.99
6890.00,0.99
6889.00,0.99
6888.00,0.99
6887.00,0.99
6886.00,0.99
6885.00,0.99
6884.00,0.99
6883.00,0.99
6882.00,0.99
6881.00,0.99
6880.00,0.99
6879.00,0.99
6878.00,0.99
6877.00,0.99
6876.00,0.99
6875.00,0.99
6874.00,0.99
6873.00,0.99
6872.00,0.99
6871.00,0.99
6870.00,0.98
6869.00,0.98
6868.00,0.98
6867.00,0.98
6866.00,0.98
6865.00,0.98
6864.00,0.97
6863.00,0.97
6862.00,0.97
6861.00,0.97
6860.00,0.97
6859.00,0.97
6858.00,0.96
6857.00,0.96
6856.00,0.96
6855.00,0.96
6854.00,0.96
6853.00,0.96
6852.00,0.96
6851.00,0.96
6850.00,0.96
6849.00,0.96
6848.00,0.97
6847.00,0.97
6846.00,0.97
6845.00,0.97
6844.00,0.98
6843.00,0.98
6842.00,0.98
6841.00,0.99
6840.00,0.99
6839.00,0.99
6838.00,1.00
6837.00,1.00
6836.00,1.01
6835.00,1.01
6834.00,1.01
6833.00,1.02
6832.00,1.02
6831.00,1.02
6830.00,1.03
6829.00,1.03
6828.00,1.03
6827.00,1.04
6826.00,1.04
6825.00,1.04
6824.00,1.04
6823.00,1.04
6822.00,1.05
6821.00,1.05
6820.00,1.05
6819.00,1.05
6818.00,1.05
6817.00,1.05
6816.00,1.05
6815.00,1.05
6814.00,1.05
6813.00,1.05
6812.00,1.05
6811.00,1.05
6810.00,1.05
6809.00,1.05
6808.00,1.05
6807.00,1.05
6806.00,1.05
6805.00,1.05
6804.00,1.05
6803.00,1.05
6802.00,1.05
6801.00,1.05
6800.00,1.05
6799.00,1.05
6798.00,1.05
6797.00,1.05
6796.00,1.05
6795.00,1.05
6794.00,1.05
6793.00,1.05
6792.00,1.04
6791.00,1.04
6790.00,1.04
6789.00,1.04
6788.00,1.04
6787.00,1.04
6786.00,1.03
6785.00,1.03
6784.00,1.03
6783.00,1.03
6782.00,1.03
6781.00,1.03
6780.00,1.03
6779.00,1.02
6778.00,1.02
6777.00,1.02
6776.00,1.02
6775.00,1.02
6774.00,1.02
6773.00,1.02
6772.00,1.02
6771.00,1.02
6770.00,1.02
6769.00,1.02
6768.00,1.02
6767.00,1.02
6766.00,1.02
6765.00,1.02
6764.00,1.02
6763.00,1.02
6762.00,1.02
6761.00,1.02
6760.00,1.02
6759.00,1.02
6758.00,1.02
6757.00,1.03
6756.00,1.03
6755.00,1.03
6754.00,1.03
6753.00,1.03
6752.00,1.03
6751.00,1.03
6750.00,1.03
6749.00,1.04
6748.00,1.04
6747.00,1.04
6746.00,1.04
6745.00,1.04
6744.00,1.05
6743.00,1.05
6742.00,1.05
6741.00,1.05
6740.00,1.05
6739.00,1.05
6738.00,1.06
6737.00,1.06
6736.00,1.06
6735.00,1.06
6734.00,1.06
6733.00,1.06
6732.00,1.06
6731.00,1.06
6730.00,1.06
6729.00,1.07
6728.00,1.07
6727.00,1.07
6726.00,1.07
6725.00,1.07
6724.00,1.07
6723.00,1.07
6722.00,1.07
6721.00,1.07
6720.00,1.07
6719.00,1.07
6718.00,1.07
6717.00,1.07
6716.00,1.07
6715.00,1.07
6714.00,1.07
6713.00,1.07
6712.00,1.07
6711.00,1.08
6710.00,1.08
6709.00,1.08
6708.00,1.08
6707.00,1.08
6706.00,1.08
6705.00,1.08
6704.00,1.08
6703.00,1.08
6702.00,1.08
6701.00,1.08
6700.00,1.08
6699.00,1.08
6698.00,1.08
6697.00,1.08
6696.00,1.08
6695.00,1.08
6694.00,1.08
6693.00,1.08
6692.00,1.08
6691.00,1.08
6690.00,1.07
6689.00,1.07
6688.00,1.07
6687.00,1.07
6686.00,1.07
6685.00,1.07
6684.00,1.07
6683.00,1.07
6682.00,1.07
6681.00,1.07
6680.00,1.07
6679.00,1.07
6678.00,1.07
6677.00,1.07
6676.00,1.07
6675.00,1.07
6674.00,1.07
6673.00,1.07
6672.00,1.07
6671.00,1.07
6670.00,1.07
6669.00,1.07
6668.00,1.07
6667.00,1.07
6666.00,1.08
6665.00,1.08
6664.00,1.08
6663.00,1.08
6662.00,1.08
6661.00,1.08
6660.00,1.08
6659.00,1.08
6658.00,1.08
6657.00,1.08
6656.00,1.08
6655.00,1.08
6654.00,1.08
6653.00,1.07
6652.00,1.07
6651.00,1.07
6650.00,1.07
6649.00,1.07
6648.00,1.07
6647.00,1.07
6646.00,1.07
6645.00,1.07
6644.00,1.07
6643.00,1.07
6642.00,1.07
6641.00,1.07
6640.00,1.07
6639.00,1.07
6638.00,1.08
6637.00,1.08
6636.00,1.08
6635.00,1.08
6634.00,1.08
6633.00,1.08
6632.00,1.08
6631.00,1.08
6630.00,1.09
6629.00,1.09
6628.00,1.09
6627.00,1.09
6626.00,1.09
6625.00,1.10
6624.00,1.10
6623.00,1.10
6622.00,1.10
6621.00,1.11
6620.00,1.11
6619.00,1.11
6618.00,1.11
6617.00,1.11
6616.00,1.12
6615.00,1.12
6614.00,1.12
6613.00,1.12
6612.00,1.12
6611.00,1.12
6610.00,1.12
6609.00,1.13
6608.00,1.13
6607.00,1.13
6606.00,1.13
6605.00,1.13
6604.00,1.13
6603.00,1.13
6602.00,1.13
6601.00,1.13
6600.00,1.13
6599.00,1.13
6598.00,1.13
6597.00,1.13
6596.00,1.13
6595.00,1.13
6594.00,1.13
6593.00,1.13
6592.00,1.13
6591.00,1.13
6590.00,1.13
6589.00,1.13
6588.00,1.13
6587.00,1.13
6586.00,1.13
6585.00,1.14
6584.00,1.14
6583.00,1.14
6582.00,1.14
6581.00,1.14
6580.00,1.14
6579.00,1.14
6578.00,1.14
6577.00,1.14
6576.00,1.14
6575.00,1.14
6574.00,1.15
6573.00,1.15
6572.00,1.15
6571.00,1.15
6570.00,1.15
6569.00,1.15
6568.00,1.15
6567.00,1.15
6566.00,1.15
6565.00,1.15
6564.00,1.16
6563.00,1.16
6562.00,1.16
6561.00,1.16
6560.00,1.16
6559.00,1.16
6558.00,1.16
6557.00,1.16
6556.00,1.16
6555.00,1.16
6554.00,1.16
6553.00,1.16
6552.00,1.16
6551.00,1.16
6550.00,1.16
6549.00,1.17
6548.00,1.17
6547.00,1.17
6546.00,1.17
6545.00,1.17
6544.00,1.17
6543.00,1.17
6542.00,1.17
6541.00,1.17
6540.00,1.17
6539.00,1.17
6538.00,1.17
6537.00,1.17
6536.00,1.17
6535.00,1.17
6534.00,1.17
6533.00,1.17
6532.00,1.17
6531.00,1.17
6530.00,1.17
6529.00,1.17
6528.00,1.17
6527.00,1.17
6526.00,1.17
6525.00,1.17
6524.00,1.17
6523.00,1.17
6522.00,1.17
6521.00,1.17
6520.00,1.17
6519.00,1.17
6518.00,1.17
6517.00,1.17
6516.00,1.17
6515.00,1.17
6514.00,1.17
6513.00,1.17
6512.00,1.17
6511.00,1.17
6510.00,1.17
6509.00,1.17
6508.00,1.17
6507.00,1.17
6506.00,1.17
6505.00,1.17
6504.00,1.17
6503.00,1.17
6502.00,1.17
6501.00,1.17
6500.00,1.17
6499.00,1.17
6498.00,1.17
6497.00,1.17
6496.00,1.17
6495.00,1.16
6494.00,1.16
6493.00,1.16
6492.00,1.16
6491.00,1.16
6490.00,1.16
6489.00,1.16
6488.00,1.16
6487.00,1.16
6486.00,1.16
6485.00,1.16
6484.00,1.16
6483.00,1.17
6482.00,1.17
6481.00,1.17
6480.00,1.17
6479.00,1.17
6478.00,1.17
6477.00,1.17
6476.00,1.18
6475.00,1.18
6474.00,1.18
6473.00,1.18
6472.00,1.18
6471.00,1.18
6470.00,1.18
6469.00,1.18
6468.00,1.18
6467.00,1.18
6466.00,1.18
6465.00,1.18
6464.00,1.18
6463.00,1.18
6462.00,1.18
6461.00,1.18
6460.00,1.18
6459.00,1.18
6458.00,1.18
6457.00,1.18
6456.00,1.18
6455.00,1.18
6454.00,1.18
6453.00,1.18
6452.00,1.18
6451.00,1.18
6450.00,1.17
6449.00,1.17
6448.00,1.17
6447.00,1.17
6446.00,1.17
6445.00,1.17
6444.00,1.17
6443.00,1.17
6442.00,1.17
6441.00,1.17
6440.00,1.17
6439.00,1.17
6438.00,1.17
6437.00,1.17
6436.00,1.17
6435.00,1.17
6434.00,1.17
6433.00,1.17
6432.00,1.17
6431.00,1.17
6430.00,1.17
6429.00,1.18
6428.00,1.18
6427.00,1.18
6426.00,1.18
6425.00,1.18
6424.00,1.18
6423.00,1.18
6422.00,1.18
6421.00,1.18
6420.00,1.18
6419.00,1.18
6418.00,1.18
6417.00,1.18
6416.00,1.18
6415.00,1.18
6414.00,1.18
6413.00,1.18
6412.00,1.18
6411.00,1.18
6410.00,1.18
6409.00,1.18
6408.00,1.18
6407.00,1.18
6406.00,1.18
6405.00,1.18
6404.00,1.18
6403.00,1.19
6402.00,1.19
6401.00,1.19
6400.00,1.19
6399.00,1.19
6398.00,1.19
6397.00,1.19
6396.00,1.19
6395.00,1.19
6394.00,1.20
6393.00,1.20
6392.00,1.20
6391.00,1.20
6390.00,1.20
6389.00,1.20
6388.00,1.20
6387.00,1.20
6386.00,1.20
6385.00,1.21
6384.00,1.21
6383.00,1.21
6382.00,1.21
6381.00,1.21
6380.00,1.21
6379.00,1.21
6378.00,1.21
6377.00,1.21
6376.00,1.21
6375.00,1.21
6374.00,1.22
6373.00,1.22
6372.00,1.22
6371.00,1.22
6370.00,1.21
6369.00,1.21
6368.00,1.21
6367.00,1.21
6366.00,1.21
6365.00,1.21
6364.00,1.21
6363.00,1.21
6362.00,1.21
6361.00,1.21
6360.00,1.21
6359.00,1.21
6358.00,1.21
6357.00,1.20
6356.00,1.20
6355.00,1.20
6354.00,1.20
6353.00,1.20
6352.00,1.20
6351.00,1.19
6350.00,1.19
6349.00,1.19
6348.00,1.19
6347.00,1.19
6346.00,1.18
6345.00,1.18
6344.00,1.18
6343.00,1.18
6342.00,1.18
6341.00,1.18
6340.00,1.18
6339.00,1.18
6338.00,1.18
6337.00,1.18
6336.00,1.18
6335.00,1.18
6334.00,1.18
6333.00,1.18
6332.00,1.18
6331.00,1.18
6330.00,1.18
6329.00,1.18
6328.00,1.18
6327.00,1.19
6326.00,1.19
6325.00,1.19
6324.00,1.19
6323.00,1.19
6322.00,1.20
6321.00,1.20
6320.00,1.20
6319.00,1.20
6318.00,1.20
6317.00,1.21
6316.00,1.21
6315.00,1.21
6314.00,1.21
6313.00,1.21
6312.00,1.22
6311.00,1.22
6310.00,1.22
6309.00,1.22
6308.00,1.22
6307.00,1.22
6306.00,1.23
6305.00,1.23
6304.00,1.23
6303.00,1.23
6302.00,1.23
6301.00,1.23
6300.00,1.23
6299.00,1.23
6298.00,1.23
6297.00,1.23
6296.00,1.23
6295.00,1.23
6294.00,1.23
6293.00,1.23
6292.00,1.23
6291.00,1.23
6290.00,1.23
6289.00,1.23
6288.00,1.23
6287.00,1.23
6286.00,1.22
6285.00,1.22
6284.00,1.22
6283.00,1.22
6282.00,1.22
6281.00,1.22
6280.00,1.22
6279.00,1.21
6278.00,1.21
6277.00,1.21
6276.00,1.21
6275.00,1.21
6274.00,1.21
6273.00,1.21
6272.00,1.21
6271.00,1.21
6270.00,1.21
6269.00,1.22
6268.00,1.22
6267.00,1.22
6266.00,1.22
6265.00,1.22
6264.00,1.22
6263.00,1.22
6262.00,1.22
6261.00,1.22
6260.00,1.22
6259.00,1.22
6258.00,1.22
6257.00,1.22
6256.00,1.22
6255.00,1.22
6254.00,1.22
6253.00,1.22
6252.00,1.23
6251.00,1.23
6250.00,1.23
6249.00,1.23
6248.00,1.23
6247.00,1.23
6246.00,1.23
6245.00,1.23
6244.00,1.23
6243.00,1.23
6242.00,1.23
6241.00,1.23
6240.00,1.23
6239.00,1.23
6238.00,1.23
6237.00,1.23
6236.00,1.23
6235.00,1.23
6234.00,1.23
6233.00,1.23
6232.00,1.23
6231.00,1.23
6230.00,1.24
6229.00,1.24
6228.00,1.24
6227.00,1.24
6226.00,1.24
6225.00,1.24
6224.00,1.24
6223.00,1.24
6222.00,1.25
6221.00,1.25
6220.00,1.25
6219.00,1.25
6218.00,1.25
6217.00,1.25
6216.00,1.25
6215.00,1.25
6214.00,1.26
6213.00,1.26
6212.00,1.26
6211.00,1.26
6210.00,1.26
6209.00,1.26
6208.00,1.26
6207.00,1.26
6206.00,1.27
6205.00,1.27
6204.00,1.27
6203.00,1.27
6202.00,1.27
6201.00,1.27
6200.00,1.27
6199.00,1.27
6198.00,1.28
6197.00,1.28
6196.00,1.28
6195.00,1.28
6194.00,1.28
6193.00,1.28
6192.00,1.28
6191.00,1.28
6190.00,1.28
6189.00,1.28
6188.00,1.28
6187.00,1.29
6186.00,1.29
6185.00,1.29
6184.00,1.29
6183.00,1.29
6182.00,1.29
6181.00,1.29
6180.00,1.28
6179.00,1.28
6178.00,1.28
6177.00,1.28
6176.00,1.28
6175.00,1.28
6174.00,1.28
6173.00,1.28
6172.00,1.28
6171.00,1.28
6170.00,1.28
6169.00,1.28
6168.00,1.28
6167.00,1.28
6166.00,1.28
6165.00,1.28
6164.00,1.27
6163.00,1.27
6162.00,1.27
6161.00,1.27
6160.00,1.27
6159.00,1.27
6158.00,1.27
6157.00,1.27
6156.00,1.27
6155.00,1.27
6154.00,1.27
6153.00,1.27
6152.00,1.27
6151.00,1.28
6150.00,1.28
6149.00,1.28
6148.00,1.28
6147.00,1.28
6146.00,1.28
6145.00,1.28
6144.00,1.28
6143.00,1.28
6142.00,1.28
6141.00,1.28
6140.00,1.28
6139.00,1.28
6138.00,1.28
6137.00,1.28
6136.00,1.28
6135.00,1.28
6134.00,1.28
6133.00,1.28
6132.00,1.28
6131.00,1.28
6130.00,1.28
6129.00,1.28
6128.00,1.28
6127.00,1.28
6126.00,1.28
6125.00,1.28
6124.00,1.28
6123.00,1.28
6122.00,1.28
6121.00,1.29
6120.00,1.29
6119.00,1.29
6118.00,1.29
6117.00,1.29
6116.00,1.29
6115.00,1.29
6114.00,1.29
6113.00,1.29
6112.00,1.29
6111.00,1.29
6110.00,1.29
6109.00,1.29
6108.00,1.29
6107.00,1.29
6106.00,1.29
6105.00,1.29
6104.00,1.29
6103.00,1.30
6102.00,1.30
6101.00,1.30
6100.00,1.30
6099.00,1.30
6098.00,1.30
6097.00,1.30
6096.00,1.30
6095.00,1.30
6094.00,1.30
6093.00,1.30
6092.00,1.29
6091.00,1.29
6090.00,1.29
6089.00,1.29
6088.00,1.29
6087.00,1.29
6086.00,1.29
6085.00,1.29
6084.00,1.29
6083.00,1.29
6082.00,1.29
6081.00,1.29
6080.00,1.29
6079.00,1.29
6078.00,1.29
6077.00,1.29
6076.00,1.29
6075.00,1.29
6074.00,1.29
6073.00,1.29
6072.00,1.29
6071.00,1.29
6070.00,1.29
6069.00,1.29
6068.00,1.29
6067.00,1.29
6066.00,1.29
6065.00,1.29
6064.00,1.29
6063.00,1.29
6062.00,1.29
6061.00,1.29
6060.00,1.28
6059.00,1.28
6058.00,1.28
6057.00,1.28
6056.00,1.28
6055.00,1.28
6054.00,1.28
6053.00,1.28
6052.00,1.28
6051.00,1.28
6050.00,1.28
6049.00,1.28
6048.00,1.28
6047.00,1.28
6046.00,1.28
6045.00,1.28
6044.00,1.28
6043.00,1.28
6042.00,1.28
6041.00,1.28
6040.00,1.28
6039.00,1.28
6038.00,1.29
6037.00,1.29
6036.00,1.29
6035.00,1.29
6034.00,1.29
6033.00,1.29
6032.00,1.29
6031.00,1.29
6030.00,1.29
6029.00,1.29
6028.00,1.29
6027.00,1.29
6026.00,1.29
6025.00,1.29
6024.00,1.29
6023.00,1.29
6022.00,1.29
6021.00,1.30
6020.00,1.30
6019.00,1.30
6018.00,1.30
6017.00,1.29
6016.00,1.29
6015.00,1.29
6014.00,1.29
6013.00,1.29
6012.00,1.29
6011.00,1.29
6010.00,1.29
6009.00,1.29
6008.00,1.29
6007.00,1.29
6006.00,1.29
6005.00,1.29
6004.00,1.29
6003.00,1.29
6002.00,1.29
6001.00,1.29
6000.00,1.29
5999.00,1.29
5998.00,1.29
5997.00,1.29
5996.00,1.29
5995.00,1.29
5994.00,1.29
5993.00,1.29
5992.00,1.29
5991.00,1.29
5990.00,1.29
5989.00,1.29
5988.00,1.29
5987.00,1.29
5986.00,1.29
5985.00,1.29
5984.00,1.29
5983.00,1.29
5982.00,1.29
5981.00,1.29
5980.00,1.29
5979.00,1.29
5978.00,1.29
5977.00,1.29
5976.00,1.29
5975.00,1.29
5974.00,1.29
5973.00,1.29
5972.00,1.29
5971.00,1.29
5970.00,1.29
5969.00,1.29
5968.00,1.29
5967.00,1.29
5966.00,1.29
5965.00,1.29
5964.00,1.29
5963.00,1.29
5962.00,1.29
5961.00,1.29
5960.00,1.29
5959.00,1.29
5958.00,1.29
5957.00,1.29
5956.00,1.28
5955.00,1.28
5954.00,1.28
5953.00,1.28
5952.00,1.28
5951.00,1.28
5950.00,1.28
5949.00,1.28
5948.00,1.28
5947.00,1.28
5946.00,1.28
5945.00,1.28
5944.00,1.28
5943.00,1.28
5942.00,1.27
5941.00,1.27
5940.00,1.27
5939.00,1.27
5938.00,1.27
5937.00,1.27
5936.00,1.27
5935.00,1.27
5934.00,1.27
5933.00,1.26
5932.00,1.26
5931.00,1.26
5930.00,1.26
5929.00,1.26
5928.00,1.26
5927.00,1.26
5926.00,1.26
5925.00,1.26
5924.00,1.25
5923.00,1.25
5922.00,1.25
5921.00,1.25
5920.00,1.25
5919.00,1.25
5918.00,1.25
5917.00,1.25
5916.00,1.25
5915.00,1.25
5914.00,1.25
5913.00,1.25
5912.00,1.25
5911.00,1.25
5910.00,1.25
5909.00,1.25
5908.00,1.25
5907.00,1.25
5906.00,1.25
5905.00,1.25
5904.00,1.25
5903.00,1.25
5902.00,1.25
5901.00,1.25
5900.00,1.25
5899.00,1.26
5898.00,1.26
5897.00,1.26
5896.00,1.26
5895.00,1.26
5894.00,1.26
5893.00,1.26
5892.00,1.26
5891.00,1.26
5890.00,1.26
5889.00,1.26
5888.00,1.26
5887.00,1.26
5886.00,1.26
5885.00,1.26
5884.00,1.26
5883.00,1.26
5882.00,1.26
5881.00,1.26
5880.00,1.26
5879.00,1.26
5878.00,1.26
5877.00,1.26
5876.00,1.26
5875.00,1.26
5874.00,1.26
5873.00,1.26
5872.00,1.26
5871.00,1.26
5870.00,1.26
5869.00,1.26
5868.00,1.26
5867.00,1.26
5866.00,1.26
5865.00,1.26
5864.00,1.26
5863.00,1.26
5862.00,1.26
5861.00,1.25
5860.00,1.26
5859.00,1.26
5858.00,1.26
5857.00,1.26
5856.00,1.26
5855.00,1.26
5854.00,1.26
5853.00,1.26
5852.00,1.26
5851.00,1.26
5850.00,1.26
5849.00,1.26
5848.00,1.26
5847.00,1.26
5846.00,1.26
5845.00,1.26
5844.00,1.26
5843.00,1.26
5842.00,1.26
5841.00,1.27
5840.00,1.27
5839.00,1.27
5838.00,1.27
5837.00,1.27
5836.00,1.27
5835.00,1.27
5834.00,1.27
5833.00,1.27
5832.00,1.27
5831.00,1.28
5830.00,1.28
5829.00,1.28
5828.00,1.28
5827.00,1.28
5826.00,1.28
5825.00,1.28
5824.00,1.28
5823.00,1.28
5822.00,1.28
5821.00,1.28
5820.00,1.28
5819.00,1.28
5818.00,1.27
5817.00,1.27
5816.00,1.27
5815.00,1.27
5814.00,1.27
5813.00,1.27
5812.00,1.27
5811.00,1.27
5810.00,1.27
5809.00,1.27
5808.00,1.27
5807.00,1.27
5806.00,1.27
5805.00,1.27
5804.00,1.27
5803.00,1.27
5802.00,1.27
5801.00,1.27
5800.00,1.27
5799.00,1.27
5798.00,1.26
5797.00,1.26
5796.00,1.26
5795.00,1.26
5794.00,1.26
5793.00,1.26
5792.00,1.26
5791.00,1.26
5790.00,1.26
5789.00,1.26
5788.00,1.26
5787.00,1.26
5786.00,1.26
5785.00,1.26
5784.00,1.25
5783.00,1.25
5782.00,1.25
5781.00,1.25
5780.00,1.25
5779.00,1.24
5778.00,1.24
5777.00,1.24
5776.00,1.24
5775.00,1.24
5774.00,1.24
5773.00,1.24
5772.00,1.24
5771.00,1.24
5770.00,1.24
5769.00,1.24
5768.00,1.24
5767.00,1.23
5766.00,1.23
5765.00,1.23
5764.00,1.23
5763.00,1.23
5762.00,1.23
5761.00,1.23
5760.00,1.23
5759.00,1.23
5758.00,1.24
5757.00,1.24
5756.00,1.24
5755.00,1.24
5754.00,1.24
5753.00,1.24
5752.00,1.24
5751.00,1.24
5750.00,1.24
5749.00,1.25
5748.00,1.25
5747.00,1.25
5746.00,1.25
5745.00,1.25
5744.00,1.25
5743.00,1.25
5742.00,1.26
5741.00,1.26
5740.00,1.26
5739.00,1.26
5738.00,1.26
5737.00,1.26
5736.00,1.26
5735.00,1.26
5734.00,1.26
5733.00,1.26
5732.00,1.27
5731.00,1.27
5730.00,1.27
5729.00,1.27
5728.00,1.27
5727.00,1.27
5726.00,1.27
5725.00,1.27
5724.00,1.27
5723.00,1.27
5722.00,1.27
5721.00,1.27
5720.00,1.27
5719.00,1.27
5718.00,1.27
5717.00,1.27
5716.00,1.27
5715.00,1.27
5714.00,1.27
5713.00,1.27
5712.00,1.27
5711.00,1.27
5710.00,1.27
5709.00,1.27
5708.00,1.27
5707.00,1.27
5706.00,1.27
5705.00,1.27
5704.00,1.27
5703.00,1.27
5702.00,1.27
5701.00,1.27
5700.00,1.27
5699.00,1.27
5698.00,1.27
5697.00,1.27
5696.00,1.27
5695.00,1.27
5694.00,1.27
5693.00,1.27
5692.00,1.27
5691.00,1.27
5690.00,1.27
5689.00,1.27
5688.00,1.27
5687.00,1.27
5686.00,1.27
5685.00,1.28
5684.00,1.28
5683.00,1.28
5682.00,1.28
5681.00,1.28
5680.00,1.28
5679.00,1.28
5678.00,1.27
5677.00,1.27
5676.00,1.27
5675.00,1.27
5674.00,1.27
5673.00,1.27
5672.00,1.27
5671.00,1.27
5670.00,1.27
5669.00,1.27
5668.00,1.27
5667.00,1.27
5666.00,1.27
5665.00,1.27
5664.00,1.27
5663.00,1.26
5662.00,1.26
5661.00,1.26
5660.00,1.26
5659.00,1.26
5658.00,1.26
5657.00,1.26
5656.00,1.26
5655.00,1.26
5654.00,1.26
5653.00,1.26
5652.00,1.26
5651.00,1.26
5650.00,1.26
5649.00,1.26
5648.00,1.26
5647.00,1.26
5646.00,1.26
5645.00,1.26
5644.00,1.26
5643.00,1.27
5642.00,1.27
5641.00,1.27
5640.00,1.27
5639.00,1.27
5638.00,1.27
5637.00,1.27
5636.00,1.27
5635.00,1.27
5634.00,1.27
5633.00,1.27
5632.00,1.27
5631.00,1.28
5630.00,1.28
5629.00,1.28
5628.00,1.28
5627.00,1.28
5626.00,1.28
5625.00,1.28
5624.00,1.27
5623.00,1.27
5622.00,1.27
5621.00,1.27
5620.00,1.27
5619.00,1.27
5618.00,1.27
5617.00,1.27
5616.00,1.27
5615.00,1.27
5614.00,1.27
5613.00,1.27
5612.00,1.27
5611.00,1.27
5610.00,1.27
5609.00,1.27
5608.00,1.27
5607.00,1.27
5606.00,1.27
5605.00,1.26
5604.00,1.26
5603.00,1.26
5602.00,1.26
5601.00,1.26
5600.00,1.26
5599.00,1.26
5598.00,1.26
5597.00,1.26
5596.00,1.26
5595.00,1.26
5594.00,1.27
5593.00,1.27
5592.00,1.27
5591.00,1.27
5590.00,1.27
5589.00,1.27
5588.00,1.27
5587.00,1.27
5586.00,1.27
5585.00,1.27
5584.00,1.27
5583.00,1.27
5582.00,1.27
5581.00,1.27
5580.00,1.27
5579.00,1.27
5578.00,1.27
5577.00,1.27
5576.00,1.27
5575.00,1.28
5574.00,1.28
5573.00,1.28
5572.00,1.28
5571.00,1.28
5570.00,1.28
5569.00,1.28
5568.00,1.28
5567.00,1.28
5566.00,1.28
5565.00,1.28
5564.00,1.28
5563.00,1.29
5562.00,1.29
5561.00,1.29
5560.00,1.29
5559.00,1.29
5558.00,1.29
5557.00,1.29
5556.00,1.29
5555.00,1.29
5554.00,1.29
5553.00,1.29
5552.00,1.29
5551.00,1.29
5550.00,1.29
5549.00,1.29
5548.00,1.29
5547.00,1.29
5546.00,1.29
5545.00,1.29
5544.00,1.29
5543.00,1.29
5542.00,1.29
5541.00,1.29
5540.00,1.29
5539.00,1.29
5538.00,1.29
5537.00,1.29
5536.00,1.29
5535.00,1.29
5534.00,1.29
5533.00,1.29
5532.00,1.29
5531.00,1.29
5530.00,1.29
5529.00,1.29
5528.00,1.29
5527.00,1.29
5526.00,1.29
5525.00,1.29
5524.00,1.29
5523.00,1.29
5522.00,1.29
5521.00,1.29
5520.00,1.29
5519.00,1.28
5518.00,1.28
5517.00,1.28
5516.00,1.28
5515.00,1.28
5514.00,1.28
5513.00,1.28
5512.00,1.28
5511.00,1.28
5510.00,1.28
5509.00,1.28
5508.00,1.28
5507.00,1.28
5506.00,1.28
5505.00,1.28
5504.00,1.28
5503.00,1.28
5502.00,1.28
5501.00,1.27
5500.00,1.27
5499.00,1.28
5498.00,1.28
5497.00,1.28
5496.00,1.28
5495.00,1.28
5494.00,1.28
5493.00,1.28
5492.00,1.28
5491.00,1.28
5490.00,1.28
5489.00,1.28
5488.00,1.28
5487.00,1.28
5486.00,1.28
5485.00,1.28
5484.00,1.29
5483.00,1.29
5482.00,1.29
5481.00,1.29
5480.00,1.29
5479.00,1.29
5478.00,1.29
5477.00,1.30
5476.00,1.30
5475.00,1.30
5474.00,1.30
5473.00,1.30
5472.00,1.31
5471.00,1.31
5470.00,1.31
5469.00,1.31
5468.00,1.31
5467.00,1.31
5466.00,1.32
5465.00,1.32
5464.00,1.32
5463.00,1.32
5462.00,1.32
5461.00,1.32
5460.00,1.32
5459.00,1.32
5458.00,1.32
5457.00,1.31
5456.00,1.31
5455.00,1.31
5454.00,1.31
5453.00,1.31
5452.00,1.31
5451.00,1.31
5450.00,1.31
5449.00,1.31
5448.00,1.30
5447.00,1.30
5446.00,1.30
5445.00,1.30
5444.00,1.30
5443.00,1.30
5442.00,1.29
5441.00,1.29
5440.00,1.29
5439.00,1.29
5438.00,1.29
5437.00,1.29
5436.00,1.29
5435.00,1.29
5434.00,1.29
5433.00,1.29
5432.00,1.29
5431.00,1.29
5430.00,1.29
5429.00,1.29
5428.00,1.29
5427.00,1.29
5426.00,1.30
5425.00,1.30
5424.00,1.30
5423.00,1.30
5422.00,1.30
5421.00,1.30
5420.00,1.30
5419.00,1.30
5418.00,1.30
5417.00,1.31
5416.00,1.31
5415.00,1.31
5414.00,1.31
5413.00,1.31
5412.00,1.31
5411.00,1.31
5410.00,1.31
5409.00,1.31
5408.00,1.31
5407.00,1.31
5406.00,1.31
5405.00,1.31
5404.00,1.31
5403.00,1.30
5402.00,1.30
5401.00,1.30
5400.00,1.30
5399.00,1.30
5398.00,1.30
5397.00,1.30
5396.00,1.29
5395.00,1.29
5394.00,1.29
5393.00,1.29
5392.00,1.29
5391.00,1.29
5390.00,1.28
5389.00,1.28
5388.00,1.28
5387.00,1.28
5386.00,1.28
5385.00,1.28
5384.00,1.28
5383.00,1.27
5382.00,1.27
5381.00,1.27
5380.00,1.27
5379.00,1.27
5378.00,1.27
5377.00,1.27
5376.00,1.27
5375.00,1.27
5374.00,1.27
5373.00,1.27
5372.00,1.26
5371.00,1.26
5370.00,1.26
5369.00,1.26
5368.00,1.26
5367.00,1.26
5366.00,1.26
5365.00,1.26
5364.00,1.26
5363.00,1.26
5362.00,1.26
5361.00,1.26
5360.00,1.26
5359.00,1.26
5358.00,1.25
5357.00,1.25
5356.00,1.25
5355.00,1.25
5354.00,1.25
5353.00,1.25
5352.00,1.25
5351.00,1.24
5350.00,1.24
5349.00,1.24
5348.00,1.24
5347.00,1.24
5346.00,1.24
5345.00,1.23
5344.00,1.23
5343.00,1.23
5342.00,1.23
5341.00,1.23
5340.00,1.23
5339.00,1.23
5338.00,1.23
5337.00,1.23
5336.00,1.22
5335.00,1.22
5334.00,1.22
5333.00,1.22
5332.00,1.22
5331.00,1.22
5330.00,1.22
5329.00,1.22
5328.00,1.22
5327.00,1.22
5326.00,1.22
5325.00,1.21
5324.00,1.21
5323.00,1.21
5322.00,1.21
5321.00,1.21
5320.00,1.21
5319.00,1.20
5318.00,1.20
5317.00,1.20
5316.00,1.20
5315.00,1.19
5314.00,1.19
5313.00,1.19
5312.00,1.18
5311.00,1.18
5310.00,1.18
5309.00,1.17
5308.00,1.17
5307.00,1.16
5306.00,1.16
5305.00,1.15
5304.00,1.15
5303.00,1.14
5302.00,1.14
5301.00,1.13
5300.00,1.13
5299.00,1.12
5298.00,1.12
5297.00,1.11
5296.00,1.11
5295.00,1.10
5294.00,1.10
5293.00,1.09
5292.00,1.09
5291.00,1.08
5290.00,1.08
5289.00,1.07
5288.00,1.07
5287.00,1.06
5286.00,1.06
5285.00,1.05
5284.00,1.05
5283.00,1.05
5282.00,1.04
5281.00,1.04
5280.00,1.03
5279.00,1.03
5278.00,1.03
5277.00,1.02
5276.00,1.02
5275.00,1.01
5274.00,1.01
5273.00,1.01
5272.00,1.00
5271.00,1.00
5270.00,0.99
5269.00,0.99
5268.00,0.99
5267.00,0.98
5266.00,0.98
5265.00,0.98
5264.00,0.97
5263.00,0.97
5262.00,0.97
5261.00,0.97
5260.00,0.96
5259.00,0.96
5258.00,0.96
5257.00,0.96
5256.00,0.96
5255.00,0.95
5254.00,0.95
5253.00,0.95
5252.00,0.95
5251.00,0.95
5250.00,0.95
5249.00,0.95
5248.00,0.95
5247.00,0.95
5246.00,0.95
5245.00,0.95
5244.00,0.95
5243.00,0.95
5242.00,0.95
5241.00,0.95
5240.00,0.95
5239.00,0.95
5238.00,0.95
5237.00,0.95
5236.00,0.95
5235.00,0.95
5234.00,0.95
5233.00,0.95
5232.00,0.95
5231.00,0.95
5230.00,0.95
5229.00,0.95
5228.00,0.95
5227.00,0.95
5226.00,0.95
5225.00,0.95
5224.00,0.94
5223.00,0.94
5222.00,0.94
5221.00,0.94
5220.00,0.94
5219.00,0.94
5218.00,0.94
5217.00,0.94
5216.00,0.93
5215.00,0.93
5214.00,0.93
5213.00,0.93
5212.00,0.93
5211.00,0.93
5210.00,0.92
5209.00,0.92
5208.00,0.92
5207.00,0.92
5206.00,0.92
5205.00,0.92
5204.00,0.92
5203.00,0.92
5202.00,0.92
5201.00,0.92
5200.00,0.92
5199.00,0.92
5198.00,0.92
5197.00,0.92
5196.00,0.92
5195.00,0.92
5194.00,0.92
5193.00,0.92
5192.00,0.92
5191.00,0.92
5190.00,0.92
5189.00,0.92
5188.00,0.92
5187.00,0.92
5186.00,0.92
5185.00,0.92
5184.00,0.93
5183.00,0.93
5182.00,0.93
5181.00,0.93
5180.00,0.93
5179.00,0.93
5178.00,0.93
5177.00,0.93
5176.00,0.93
5175.00,0.93
5174.00,0.93
5173.00,0.93
5172.00,0.93
5171.00,0.93
5170.00,0.93
5169.00,0.93
5168.00,0.93
5167.00,0.93
5166.00,0.93
5165.00,0.93
5164.00,0.93
5163.00,0.92
5162.00,0.92
5161.00,0.92
5160.00,0.92
5159.00,0.92
5158.00,0.92
5157.00,0.92
5156.00,0.92
5155.00,0.92
5154.00,0.92
5153.00,0.92
5152.00,0.92
5151.00,0.92
5150.00,0.92
5149.00,0.92
5148.00,0.92
5147.00,0.92
5146.00,0.92
5145.00,0.92
5144.00,0.92
5143.00,0.92
5142.00,0.92
5141.00,0.92
5140.00,0.92
5139.00,0.92
5138.00,0.92
5137.00,0.92
5136.00,0.92
5135.00,0.92
5134.00,0.92
5133.00,0.92
5132.00,0.92
5131.00,0.92
5130.00,0.92
5129.00,0.92
5128.00,0.92
5127.00,0.92
5126.00,0.92
5125.00,0.93
5124.00,0.93
5123.00,0.93
5122.00,0.93
5121.00,0.93
5120.00,0.93
5119.00,0.93
5118.00,0.93
5117.00,0.93
5116.00,0.93
5115.00,0.93
5114.00,0.94
5113.00,0.94
5112.00,0.94
5111.00,0.94
5110.00,0.94
5109.00,0.94
5108.00,0.94
5107.00,0.95
5106.00,0.95
5105.00,0.95
5104.00,0.95
5103.00,0.95
5102.00,0.96
5101.00,0.96
5100.00,0.96
5099.00,0.96
5098.00,0.96
5097.00,0.96
5096.00,0.96
5095.00,0.96
5094.00,0.96
5093.00,0.96
5092.00,0.97
5091.00,0.97
5090.00,0.97
5089.00,0.97
5088.00,0.97
5087.00,0.97
5086.00,0.97
5085.00,0.97
5084.00,0.97
5083.00,0.97
5082.00,0.97
5081.00,0.97
5080.00,0.97
5079.00,0.97
5078.00,0.97
5077.00,0.98
5076.00,0.98
5075.00,0.98
5074.00,0.98
5073.00,0.98
5072.00,0.98
5071.00,0.98
5070.00,0.98
5069.00,0.98
5068.00,0.98
5067.00,0.98
5066.00,0.99
5065.00,0.99
5064.00,0.99
5063.00,0.99
5062.00,0.99
5061.00,0.99
5060.00,0.99
5059.00,1.00
5058.00,1.00
5057.00,1.00
5056.00,1.00
5055.00,1.00
5054.00,1.00
5053.00,1.01
5052.00,1.01
5051.00,1.01
5050.00,1.01
5049.00,1.01
5048.00,1.01
5047.00,1.01
5046.00,1.02
5045.00,1.02
5044.00,1.02
5043.00,1.02
5042.00,1.02
5041.00,1.02
5040.00,1.02
5039.00,1.03
5038.00,1.03
5037.00,1.03
5036.00,1.03
5035.00,1.03
5034.00,1.03
5033.00,1.03
5032.00,1.03
5031.00,1.03
5030.00,1.03
5029.00,1.04
5028.00,1.04
5027.00,1.04
5026.00,1.04
5025.00,1.04
5024.00,1.04
5023.00,1.04
5022.00,1.04
5021.00,1.04
5020.00,1.04
5019.00,1.04
5018.00,1.04
5017.00,1.04
5016.00,1.04
5015.00,1.04
5014.00,1.05
5013.00,1.05
5012.00,1.05
5011.00,1.05
5010.00,1.05
5009.00,1.05
5008.00,1.05
5007.00,1.05
5006.00,1.05
5005.00,1.05
5004.00,1.06
5003.00,1.06
5002.00,1.06
5001.00,1.06
5000.00,1.06
4999.00,1.06
4998.00,1.07
4997.00,1.07
4996.00,1.07
4995.00,1.07
4994.00,1.07
4993.00,1.07
4992.00,1.08
4991.00,1.08
4990.00,1.08
4989.00,1.08
4988.00,1.08
4987.00,1.08
4986.00,1.08
4985.00,1.08
4984.00,1.08
4983.00,1.09
4982.00,1.09
4981.00,1.09
4980.00,1.09
4979.00,1.09
4978.00,1.09
4977.00,1.10
4976.00,1.10
4975.00,1.10
4974.00,1.10
4973.00,1.10
4972.00,1.10
4971.00,1.10
4970.00,1.10
4969.00,1.10
4968.00,1.11
4967.00,1.11
4966.00,1.11
4965.00,1.11
4964.00,1.11
4963.00,1.11
4962.00,1.11
4961.00,1.11
4960.00,1.11
4959.00,1.12
4958.00,1.12
4957.00,1.12
4956.00,1.12
4955.00,1.12
4954.00,1.12
4953.00,1.12
4952.00,1.13
4951.00,1.13
4950.00,1.13
4949.00,1.13
4948.00,1.13
4947.00,1.13
4946.00,1.13
4945.00,1.13
4944.00,1.14
4943.00,1.14
4942.00,1.14
4941.00,1.14
4940.00,1.14
4939.00,1.15
4938.00,1.15
4937.00,1.15
4936.00,1.15
4935.00,1.15
4934.00,1.15
4933.00,1.16
4932.00,1.16
4931.00,1.16
4930.00,1.16
4929.00,1.16
4928.00,1.16
4927.00,1.16
4926.00,1.16
4925.00,1.16
4924.00,1.16
4923.00,1.16
4922.00,1.16
4921.00,1.16
4920.00,1.17
4919.00,1.17
4918.00,1.17
4917.00,1.17
4916.00,1.17
4915.00,1.17
4914.00,1.17
4913.00,1.17
4912.00,1.17
4911.00,1.17
4910.00,1.17
4909.00,1.17
4908.00,1.18
4907.00,1.18
4906.00,1.18
4905.00,1.18
4904.00,1.18
4903.00,1.18
4902.00,1.18
4901.00,1.19
4900.00,1.19
4899.00,1.19
4898.00,1.19
4897.00,1.19
4896.00,1.19
4895.00,1.19
4894.00,1.20
4893.00,1.20
4892.00,1.20
4891.00,1.20
4890.00,1.20
4889.00,1.20
4888.00,1.20
4887.00,1.20
4886.00,1.20
4885.00,1.20
4884.00,1.20
4883.00,1.20
4882.00,1.20
4881.00,1.20
4880.00,1.20
4879.00,1.20
4878.00,1.20
4877.00,1.20
4876.00,1.20
4875.00,1.20
4874.00,1.20
4873.00,1.20
4872.00,1.20
4871.00,1.20
4870.00,1.20
4869.00,1.20
4868.00,1.20
4867.00,1.19
4866.00,1.19
4865.00,1.19
4864.00,1.19
4863.00,1.19
4862.00,1.19
4861.00,1.19
4860.00,1.19
4859.00,1.19
4858.00,1.19
4857.00,1.19
4856.00,1.19
4855.00,1.19
4854.00,1.20
4853.00,1.20
4852.00,1.20
4851.00,1.20
4850.00,1.20
4849.00,1.20
4848.00,1.20
4847.00,1.20
4846.00,1.20
4845.00,1.20
4844.00,1.21
4843.00,1.21
4842.00,1.21
4841.00,1.21
4840.00,1.21
4839.00,1.21
4838.00,1.21
4837.00,1.21
4836.00,1.22
4835.00,1.22
4834.00,1.22
4833.00,1.22
4832.00,1.22
4831.00,1.22
4830.00,1.22
4829.00,1.23
4828.00,1.23
4827.00,1.23
4826.00,1.23
4825.00,1.23
4824.00,1.23
4823.00,1.23
4822.00,1.24
4821.00,1.24
4820.00,1.24
4819.00,1.24
4818.00,1.24
4817.00,1.24
4816.00,1.24
4815.00,1.24
4814.00,1.24
4813.00,1.24
4812.00,1.24
4811.00,1.24
4810.00,1.24
4809.00,1.24
4808.00,1.24
4807.00,1.24
4806.00,1.24
4805.00,1.24
4804.00,1.24
4803.00,1.24
4802.00,1.23
4801.00,1.23
4800.00,1.23
4799.00,1.23
4798.00,1.23
4797.00,1.22
4796.00,1.22
4795.00,1.22
4794.00,1.22
4793.00,1.22
4792.00,1.22
4791.00,1.22
4790.00,1.22
4789.00,1.22
4788.00,1.22
4787.00,1.22
4786.00,1.22
4785.00,1.22
4784.00,1.22
4783.00,1.22
4782.00,1.22
4781.00,1.22
4780.00,1.22
4779.00,1.22
4778.00,1.22
4777.00,1.22
4776.00,1.22
4775.00,1.22
4774.00,1.22
4773.00,1.22
4772.00,1.23
4771.00,1.23
4770.00,1.23
4769.00,1.23
4768.00,1.23
4767.00,1.23
4766.00,1.23
4765.00,1.23
4764.00,1.23
4763.00,1.23
4762.00,1.23
4761.00,1.23
4760.00,1.23
4759.00,1.23
4758.00,1.23
4757.00,1.23
4756.00,1.23
4755.00,1.23
4754.00,1.23
4753.00,1.23
4752.00,1.23
4751.00,1.23
4750.00,1.23
4749.00,1.23
4748.00,1.23
4747.00,1.23
4746.00,1.23
4745.00,1.24
4744.00,1.24
4743.00,1.24
4742.00,1.24
4741.00,1.24
4740.00,1.25
4739.00,1.25
4738.00,1.25
4737.00,1.25
4736.00,1.26
4735.00,1.26
4734.00,1.26
4733.00,1.26
4732.00,1.27
4731.00,1.27
4730.00,1.27
4729.00,1.27
4728.00,1.28
4727.00,1.28
4726.00,1.28
4725.00,1.28
4724.00,1.28
4723.00,1.28
4722.00,1.29
4721.00,1.29
4720.00,1.29
4719.00,1.29
4718.00,1.29
4717.00,1.29
4716.00,1.29
4715.00,1.29
4714.00,1.29
4713.00,1.29
4712.00,1.29
4711.00,1.29
4710.00,1.29
4709.00,1.29
4708.00,1.29
4707.00,1.29
4706.00,1.28
4705.00,1.28
4704.00,1.28
4703.00,1.28
4702.00,1.28
4701.00,1.28
4700.00,1.27
4699.00,1.27
4698.00,1.27
4697.00,1.27
4696.00,1.27
4695.00,1.27
4694.00,1.27
4693.00,1.27
4692.00,1.27
4691.00,1.27
4690.00,1.27
4689.00,1.27
4688.00,1.27
4687.00,1.27
4686.00,1.27
4685.00,1.27
4684.00,1.27
4683.00,1.27
4682.00,1.27
4681.00,1.27
4680.00,1.27
4679.00,1.27
4678.00,1.27
4677.00,1.27
4676.00,1.27
4675.00,1.28
4674.00,1.28
4673.00,1.28
4672.00,1.28
4671.00,1.28
4670.00,1.28
4669.00,1.28
4668.00,1.28
4667.00,1.28
4666.00,1.28
4665.00,1.28
4664.00,1.28
4663.00,1.28
4662.00,1.28
4661.00,1.28
4660.00,1.28
4659.00,1.28
4658.00,1.28
4657.00,1.28
4656.00,1.28
4655.00,1.28
4654.00,1.28
4653.00,1.28
4652.00,1.28
4651.00,1.28
4650.00,1.28
4649.00,1.28
4648.00,1.28
4647.00,1.28
4646.00,1.28
4645.00,1.28
4644.00,1.28
4643.00,1.28
4642.00,1.27
4641.00,1.27
4640.00,1.27
4639.00,1.27
4638.00,1.27
4637.00,1.27
4636.00,1.27
4635.00,1.27
4634.00,1.27
4633.00,1.27
4632.00,1.27
4631.00,1.27
4630.00,1.27
4629.00,1.27
4628.00,1.27
4627.00,1.27
4626.00,1.27
4625.00,1.27
4624.00,1.27
4623.00,1.27
4622.00,1.27
4621.00,1.27
4620.00,1.27
4619.00,1.27
4618.00,1.27
4617.00,1.28
4616.00,1.28
4615.00,1.28
4614.00,1.28
4613.00,1.28
4612.00,1.28
4611.00,1.29
4610.00,1.29
4609.00,1.29
4608.00,1.29
4607.00,1.29
4606.00,1.29
4605.00,1.29
4604.00,1.29
4603.00,1.30
4602.00,1.30
4601.00,1.30
4600.00,1.30
4599.00,1.30
4598.00,1.30
4597.00,1.30
4596.00,1.30
4595.00,1.30
4594.00,1.30
4593.00,1.30
4592.00,1.30
4591.00,1.30
4590.00,1.30
4589.00,1.30
4588.00,1.30
4587.00,1.30
4586.00,1.29
4585.00,1.29
4584.00,1.29
4583.00,1.29
4582.00,1.29
4581.00,1.29
4580.00,1.29
4579.00,1.29
4578.00,1.29
4577.00,1.29
4576.00,1.29
4575.00,1.29
4574.00,1.29
4573.00,1.29
4572.00,1.29
4571.00,1.29
4570.00,1.29
4569.00,1.29
4568.00,1.29
4567.00,1.29
4566.00,1.29
4565.00,1.29
4564.00,1.29
4563.00,1.29
4562.00,1.29
4561.00,1.29
4560.00,1.30
4559.00,1.30
4558.00,1.30
4557.00,1.30
4556.00,1.30
4555.00,1.30
4554.00,1.30
4553.00,1.30
4552.00,1.30
4551.00,1.30
4550.00,1.30
4549.00,1.30
4548.00,1.30
4547.00,1.30
4546.00,1.30
4545.00,1.30
4544.00,1.30
4543.00,1.30
4542.00,1.30
4541.00,1.30
4540.00,1.30
4539.00,1.29
4538.00,1.29
4537.00,1.29
4536.00,1.29
4535.00,1.29
4534.00,1.29
4533.00,1.29
4532.00,1.29
4531.00,1.29
4530.00,1.28
4529.00,1.28
4528.00,1.28
4527.00,1.28
4526.00,1.28
4525.00,1.28
4524.00,1.28
4523.00,1.28
4522.00,1.28
4521.00,1.27
4520.00,1.27
4519.00,1.27
4518.00,1.27
4517.00,1.27
4516.00,1.27
4515.00,1.27
4514.00,1.27
4513.00,1.27
4512.00,1.27
4511.00,1.27
4510.00,1.27
4509.00,1.27
4508.00,1.27
4507.00,1.27
4506.00,1.27
4505.00,1.27
4504.00,1.27
4503.00,1.28
4502.00,1.28
4501.00,1.28
4500.00,1.28
4499.00,1.28
4498.00,1.28
4497.00,1.28
4496.00,1.28
4495.00,1.28
4494.00,1.28
4493.00,1.28
4492.00,1.28
4491.00,1.28
4490.00,1.28
4489.00,1.28
4488.00,1.28
4487.00,1.29
4486.00,1.29
4485.00,1.28
4484.00,1.28
4483.00,1.28
4482.00,1.28
4481.00,1.28
4480.00,1.28
4479.00,1.28
4478.00,1.28
4477.00,1.28
4476.00,1.28
4475.00,1.27
4474.00,1.27
4473.00,1.27
4472.00,1.27
4471.00,1.27
4470.00,1.27
4469.00,1.27
4468.00,1.27
4467.00,1.27
4466.00,1.27
4465.00,1.27
4464.00,1.27
4463.00,1.27
4462.00,1.27
4461.00,1.27
4460.00,1.27
4459.00,1.27
4458.00,1.27
4457.00,1.27
4456.00,1.27
4455.00,1.27
4454.00,1.27
4453.00,1.27
4452.00,1.27
4451.00,1.27
4450.00,1.27
4449.00,1.27
4448.00,1.27
4447.00,1.28
4446.00,1.28
4445.00,1.28
4444.00,1.28
4443.00,1.28
4442.00,1.28
4441.00,1.28
4440.00,1.28
4439.00,1.28
4438.00,1.27
4437.00,1.27
4436.00,1.27
4435.00,1.27
4434.00,1.27
4433.00,1.27
4432.00,1.27
4431.00,1.26
4430.00,1.26
4429.00,1.26
4428.00,1.26
4427.00,1.26
4426.00,1.26
4425.00,1.26
4424.00,1.25
4423.00,1.25
4422.00,1.25
4421.00,1.25
4420.00,1.25
4419.00,1.24
4418.00,1.24
4417.00,1.24
4416.00,1.24
4415.00,1.23
4414.00,1.23
4413.00,1.23
4412.00,1.23
4411.00,1.23
4410.00,1.23
4409.00,1.23
4408.00,1.22
4407.00,1.22
4406.00,1.22
4405.00,1.22
4404.00,1.22
4403.00,1.22
4402.00,1.22
4401.00,1.22
4400.00,1.22
4399.00,1.22
4398.00,1.22
4397.00,1.22
4396.00,1.22
4395.00,1.21
4394.00,1.22
4393.00,1.22
4392.00,1.22
4391.00,1.22
4390.00,1.22
4389.00,1.22
4388.00,1.22
4387.00,1.22
4386.00,1.23
4385.00,1.23
4384.00,1.23
4383.00,1.23
4382.00,1.23
4381.00,1.23
4380.00,1.24
4379.00,1.24
4378.00,1.24
4377.00,1.24
4376.00,1.24
4375.00,1.24
4374.00,1.25
4373.00,1.25
4372.00,1.25
4371.00,1.25
4370.00,1.25
4369.00,1.25
4368.00,1.25
4367.00,1.26
4366.00,1.26
4365.00,1.26
4364.00,1.26
4363.00,1.26
4362.00,1.26
4361.00,1.26
4360.00,1.26
4359.00,1.26
4358.00,1.26
4357.00,1.26
4356.00,1.25
4355.00,1.25
4354.00,1.25
4353.00,1.25
4352.00,1.25
4351.00,1.25
4350.00,1.25
4349.00,1.25
4348.00,1.25
4347.00,1.25
4346.00,1.24
4345.00,1.24
4344.00,1.24
4343.00,1.24
4342.00,1.24
4341.00,1.24
4340.00,1.24
4339.00,1.24
4338.00,1.24
4337.00,1.24
4336.00,1.24
4335.00,1.24
4334.00,1.24
4333.00,1.24
4332.00,1.24
4331.00,1.24
4330.00,1.25
4329.00,1.25
4328.00,1.25
4327.00,1.25
4326.00,1.26
4325.00,1.26
4324.00,1.26
4323.00,1.26
4322.00,1.27
4321.00,1.27
4320.00,1.27
4319.00,1.27
4318.00,1.27
4317.00,1.28
4316.00,1.28
4315.00,1.28
4314.00,1.28
4313.00,1.28
4312.00,1.29
4311.00,1.29
4310.00,1.29
4309.00,1.29
4308.00,1.29
4307.00,1.29
4306.00,1.29
4305.00,1.29
4304.00,1.29
4303.00,1.29
4302.00,1.29
4301.00,1.29
4300.00,1.29
4299.00,1.29
4298.00,1.29
4297.00,1.29
4296.00,1.29
4295.00,1.29
4294.00,1.29
4293.00,1.29
4292.00,1.29
4291.00,1.29
4290.00,1.30
4289.00,1.30
4288.00,1.30
4287.00,1.30
4286.00,1.29
4285.00,1.29
4284.00,1.29
4283.00,1.29
4282.00,1.29
4281.00,1.29
4280.00,1.29
4279.00,1.29
4278.00,1.29
4277.00,1.29
4276.00,1.29
4275.00,1.29
4274.00,1.29
4273.00,1.29
4272.00,1.29
4271.00,1.29
4270.00,1.29
4269.00,1.29
4268.00,1.29
4267.00,1.29
4266.00,1.29
4265.00,1.28
4264.00,1.28
4263.00,1.28
4262.00,1.28
4261.00,1.28
4260.00,1.28
4259.00,1.28
4258.00,1.28
4257.00,1.28
4256.00,1.28
4255.00,1.28
4254.00,1.28
4253.00,1.28
4252.00,1.28
4251.00,1.28
4250.00,1.28
4249.00,1.28
4248.00,1.28
4247.00,1.28
4246.00,1.28
4245.00,1.28
4244.00,1.28
4243.00,1.28
4242.00,1.28
4241.00,1.27
4240.00,1.27
4239.00,1.27
4238.00,1.27
4237.00,1.27
4236.00,1.27
4235.00,1.27
4234.00,1.27
4233.00,1.27
4232.00,1.26
4231.00,1.26
4230.00,1.26
4229.00,1.26
4228.00,1.26
4227.00,1.26
4226.00,1.26
4225.00,1.26
4224.00,1.26
4223.00,1.26
4222.00,1.26
4221.00,1.26
4220.00,1.26
4219.00,1.26
4218.00,1.26
4217.00,1.27
4216.00,1.27
4215.00,1.27
4214.00,1.27
4213.00,1.27
4212.00,1.27
4211.00,1.27
4210.00,1.27
4209.00,1.27
4208.00,1.28
4207.00,1.28
4206.00,1.28
4205.00,1.28
4204.00,1.28
4203.00,1.28
4202.00,1.28
4201.00,1.28
4200.00,1.28
4199.00,1.28
4198.00,1.28
4197.00,1.28
4196.00,1.28
4195.00,1.28
4194.00,1.28
4193.00,1.28
4192.00,1.28
4191.00,1.28
4190.00,1.27
4189.00,1.27
4188.00,1.27
4187.00,1.27
4186.00,1.27
4185.00,1.27
4184.00,1.27
4183.00,1.27
4182.00,1.27
4181.00,1.27
4180.00,1.27
4179.00,1.27
4178.00,1.27
4177.00,1.27
4176.00,1.27
4175.00,1.27
4174.00,1.27
4173.00,1.27
4172.00,1.28
4171.00,1.28
4170.00,1.28
4169.00,1.28
4168.00,1.28
4167.00,1.28
4166.00,1.28
4165.00,1.29
4164.00,1.29
4163.00,1.29
4162.00,1.29
4161.00,1.29
4160.00,1.29
4159.00,1.30
4158.00,1.30
4157.00,1.30
4156.00,1.30
4155.00,1.30
4154.00,1.30
4153.00,1.30
4152.00,1.30
4151.00,1.30
4150.00,1.30
4149.00,1.30
4148.00,1.30
4147.00,1.30
4146.00,1.30
4145.00,1.30
4144.00,1.29
4143.00,1.29
4142.00,1.29
4141.00,1.29
4140.00,1.29
4139.00,1.28
4138.00,1.28
4137.00,1.28
4136.00,1.28
4135.00,1.28
4134.00,1.27
4133.00,1.27
4132.00,1.27
4131.00,1.27
4130.00,1.27
4129.00,1.27
4128.00,1.27
4127.00,1.27
4126.00,1.27
4125.00,1.27
4124.00,1.27
4123.00,1.27
4122.00,1.27
4121.00,1.27
4120.00,1.27
4119.00,1.27
4118.00,1.27
4117.00,1.27
4116.00,1.27
4115.00,1.28
4114.00,1.28
4113.00,1.28
4112.00,1.28
4111.00,1.28
4110.00,1.28
4109.00,1.29
4108.00,1.29
4107.00,1.29
4106.00,1.29
4105.00,1.29
4104.00,1.29
4103.00,1.29
4102.00,1.29
4101.00,1.29
4100.00,1.29
4099.00,1.28
4098.00,1.28
4097.00,1.28
4096.00,1.28
4095.00,1.28
4094.00,1.28
4093.00,1.28
4092.00,1.27
4091.00,1.27
4090.00,1.27
4089.00,1.27
4088.00,1.26
4087.00,1.26
4086.00,1.26
4085.00,1.25
4084.00,1.25
4083.00,1.25
4082.00,1.25
4081.00,1.25
4080.00,1.25
4079.00,1.24
4078.00,1.24
4077.00,1.24
4076.00,1.24
4075.00,1.24
4074.00,1.24
4073.00,1.24
4072.00,1.24
4071.00,1.24
4070.00,1.25
4069.00,1.25
4068.00,1.25
4067.00,1.25
4066.00,1.25
4065.00,1.25
4064.00,1.25
4063.00,1.25
4062.00,1.25
4061.00,1.26
4060.00,1.26
4059.00,1.26
4058.00,1.26
4057.00,1.26
4056.00,1.26
4055.00,1.26
4054.00,1.26
4053.00,1.26
4052.00,1.26
4051.00,1.26
4050.00,1.26
4049.00,1.26
4048.00,1.26
4047.00,1.26
4046.00,1.26
4045.00,1.26
4044.00,1.26
4043.00,1.26
4042.00,1.26
4041.00,1.25
4040.00,1.25
4039.00,1.25
4038.00,1.25
4037.00,1.25
4036.00,1.25
4035.00,1.25
4034.00,1.25
4033.00,1.25
4032.00,1.25
4031.00,1.25
4030.00,1.25
4029.00,1.25
4028.00,1.25
4027.00,1.25
4026.00,1.25
4025.00,1.25
4024.00,1.25
4023.00,1.25
4022.00,1.25
4021.00,1.25
4020.00,1.25
4019.00,1.25
4018.00,1.25
4017.00,1.25
4016.00,1.25
4015.00,1.24
4014.00,1.24
4013.00,1.24
4012.00,1.24
4011.00,1.24
4010.00,1.23
4009.00,1.23
4008.00,1.22
4007.00,1.22
4006.00,1.21
4005.00,1.20
4004.00,1.20
4003.00,1.19
4002.00,1.18
4001.00,1.17
4000.00,1.16
