创建为新数据集,样品 768 用户 Administrator 日期 星期一, 七月 29 2019
cm-1,%T
10000.00,1.45
9999.00,1.45
9998.00,1.45
9997.00,1.45
9996.00,1.44
9995.00,1.44
9994.00,1.44
9993.00,1.44
9992.00,1.43
9991.00,1.43
9990.00,1.43
9989.00,1.42
9988.00,1.42
9987.00,1.42
9986.00,1.42
9985.00,1.42
9984.00,1.42
9983.00,1.42
9982.00,1.42
9981.00,1.42
9980.00,1.42
9979.00,1.42
9978.00,1.42
9977.00,1.42
9976.00,1.42
9975.00,1.42
9974.00,1.42
9973.00,1.43
9972.00,1.43
9971.00,1.43
9970.00,1.43
9969.00,1.43
9968.00,1.44
9967.00,1.44
9966.00,1.44
9965.00,1.45
9964.00,1.45
9963.00,1.46
9962.00,1.46
9961.00,1.46
9960.00,1.47
9959.00,1.47
9958.00,1.48
9957.00,1.48
9956.00,1.49
9955.00,1.49
9954.00,1.49
9953.00,1.50
9952.00,1.50
9951.00,1.50
9950.00,1.50
9949.00,1.50
9948.00,1.51
9947.00,1.50
9946.00,1.50
9945.00,1.50
9944.00,1.50
9943.00,1.49
9942.00,1.49
9941.00,1.48
9940.00,1.48
9939.00,1.47
9938.00,1.46
9937.00,1.45
9936.00,1.44
9935.00,1.43
9934.00,1.42
9933.00,1.41
9932.00,1.40
9931.00,1.39
9930.00,1.38
9929.00,1.37
9928.00,1.36
9927.00,1.36
9926.00,1.35
9925.00,1.34
9924.00,1.33
9923.00,1.32
9922.00,1.31
9921.00,1.31
9920.00,1.30
9919.00,1.30
9918.00,1.29
9917.00,1.29
9916.00,1.29
9915.00,1.28
9914.00,1.28
9913.00,1.28
9912.00,1.28
9911.00,1.28
9910.00,1.28
9909.00,1.28
9908.00,1.29
9907.00,1.29
9906.00,1.29
9905.00,1.29
9904.00,1.30
9903.00,1.30
9902.00,1.30
9901.00,1.30
9900.00,1.30
9899.00,1.30
9898.00,1.31
9897.00,1.31
9896.00,1.31
9895.00,1.31
9894.00,1.31
9893.00,1.30
9892.00,1.30
9891.00,1.30
9890.00,1.30
9889.00,1.30
9888.00,1.30
9887.00,1.29
9886.00,1.29
9885.00,1.29
9884.00,1.29
9883.00,1.28
9882.00,1.28
9881.00,1.28
9880.00,1.27
9879.00,1.27
9878.00,1.26
9877.00,1.26
9876.00,1.26
9875.00,1.25
9874.00,1.25
9873.00,1.24
9872.00,1.24
9871.00,1.24
9870.00,1.23
9869.00,1.23
9868.00,1.23
9867.00,1.23
9866.00,1.23
9865.00,1.23
9864.00,1.23
9863.00,1.22
9862.00,1.22
9861.00,1.22
9860.00,1.22
9859.00,1.22
9858.00,1.22
9857.00,1.22
9856.00,1.23
9855.00,1.23
9854.00,1.23
9853.00,1.24
9852.00,1.24
9851.00,1.25
9850.00,1.26
9849.00,1.26
9848.00,1.27
9847.00,1.28
9846.00,1.29
9845.00,1.29
9844.00,1.30
9843.00,1.31
9842.00,1.31
9841.00,1.32
9840.00,1.33
9839.00,1.33
9838.00,1.34
9837.00,1.35
9836.00,1.35
9835.00,1.36
9834.00,1.37
9833.00,1.37
9832.00,1.38
9831.00,1.38
9830.00,1.38
9829.00,1.38
9828.00,1.38
9827.00,1.38
9826.00,1.38
9825.00,1.38
9824.00,1.37
9823.00,1.37
9822.00,1.36
9821.00,1.36
9820.00,1.35
9819.00,1.35
9818.00,1.34
9817.00,1.33
9816.00,1.33
9815.00,1.32
9814.00,1.32
9813.00,1.31
9812.00,1.30
9811.00,1.30
9810.00,1.29
9809.00,1.29
9808.00,1.28
9807.00,1.28
9806.00,1.27
9805.00,1.27
9804.00,1.27
9803.00,1.26
9802.00,1.26
9801.00,1.26
9800.00,1.26
9799.00,1.26
9798.00,1.26
9797.00,1.26
9796.00,1.26
9795.00,1.26
9794.00,1.26
9793.00,1.26
9792.00,1.26
9791.00,1.26
9790.00,1.26
9789.00,1.26
9788.00,1.26
9787.00,1.26
9786.00,1.26
9785.00,1.26
9784.00,1.26
9783.00,1.26
9782.00,1.25
9781.00,1.25
9780.00,1.25
9779.00,1.25
9778.00,1.24
9777.00,1.24
9776.00,1.23
9775.00,1.23
9774.00,1.22
9773.00,1.21
9772.00,1.21
9771.00,1.21
9770.00,1.20
9769.00,1.20
9768.00,1.20
9767.00,1.19
9766.00,1.19
9765.00,1.19
9764.00,1.19
9763.00,1.18
9762.00,1.18
9761.00,1.18
9760.00,1.18
9759.00,1.18
9758.00,1.18
9757.00,1.18
9756.00,1.18
9755.00,1.18
9754.00,1.18
9753.00,1.18
9752.00,1.19
9751.00,1.19
9750.00,1.20
9749.00,1.20
9748.00,1.21
9747.00,1.21
9746.00,1.21
9745.00,1.22
9744.00,1.22
9743.00,1.22
9742.00,1.22
9741.00,1.22
9740.00,1.22
9739.00,1.22
9738.00,1.22
9737.00,1.22
9736.00,1.22
9735.00,1.22
9734.00,1.22
9733.00,1.22
9732.00,1.22
9731.00,1.22
9730.00,1.22
9729.00,1.22
9728.00,1.22
9727.00,1.22
9726.00,1.21
9725.00,1.21
9724.00,1.21
9723.00,1.21
9722.00,1.20
9721.00,1.20
9720.00,1.20
9719.00,1.20
9718.00,1.20
9717.00,1.20
9716.00,1.20
9715.00,1.20
9714.00,1.20
9713.00,1.20
9712.00,1.21
9711.00,1.21
9710.00,1.21
9709.00,1.21
9708.00,1.22
9707.00,1.22
9706.00,1.22
9705.00,1.22
9704.00,1.23
9703.00,1.23
9702.00,1.24
9701.00,1.24
9700.00,1.25
9699.00,1.26
9698.00,1.26
9697.00,1.27
9696.00,1.28
9695.00,1.28
9694.00,1.29
9693.00,1.29
9692.00,1.30
9691.00,1.30
9690.00,1.30
9689.00,1.31
9688.00,1.31
9687.00,1.31
9686.00,1.32
9685.00,1.32
9684.00,1.32
9683.00,1.32
9682.00,1.32
9681.00,1.32
9680.00,1.32
9679.00,1.32
9678.00,1.31
9677.00,1.31
9676.00,1.30
9675.00,1.30
9674.00,1.29
9673.00,1.28
9672.00,1.27
9671.00,1.26
9670.00,1.25
9669.00,1.24
9668.00,1.23
9667.00,1.22
9666.00,1.21
9665.00,1.20
9664.00,1.19
9663.00,1.18
9662.00,1.17
9661.00,1.17
9660.00,1.16
9659.00,1.15
9658.00,1.14
9657.00,1.14
9656.00,1.13
9655.00,1.13
9654.00,1.13
9653.00,1.13
9652.00,1.13
9651.00,1.13
9650.00,1.13
9649.00,1.14
9648.00,1.14
9647.00,1.15
9646.00,1.16
9645.00,1.16
9644.00,1.17
9643.00,1.18
9642.00,1.19
9641.00,1.20
9640.00,1.21
9639.00,1.22
9638.00,1.23
9637.00,1.24
9636.00,1.25
9635.00,1.25
9634.00,1.26
9633.00,1.27
9632.00,1.27
9631.00,1.28
9630.00,1.29
9629.00,1.29
9628.00,1.30
9627.00,1.30
9626.00,1.30
9625.00,1.31
9624.00,1.31
9623.00,1.31
9622.00,1.31
9621.00,1.31
9620.00,1.31
9619.00,1.31
9618.00,1.31
9617.00,1.31
9616.00,1.31
9615.00,1.31
9614.00,1.30
9613.00,1.30
9612.00,1.30
9611.00,1.29
9610.00,1.29
9609.00,1.28
9608.00,1.28
9607.00,1.28
9606.00,1.27
9605.00,1.27
9604.00,1.26
9603.00,1.26
9602.00,1.25
9601.00,1.25
9600.00,1.24
9599.00,1.23
9598.00,1.23
9597.00,1.22
9596.00,1.21
9595.00,1.20
9594.00,1.19
9593.00,1.19
9592.00,1.18
9591.00,1.17
9590.00,1.16
9589.00,1.16
9588.00,1.15
9587.00,1.15
9586.00,1.15
9585.00,1.15
9584.00,1.14
9583.00,1.14
9582.00,1.14
9581.00,1.15
9580.00,1.15
9579.00,1.15
9578.00,1.16
9577.00,1.16
9576.00,1.17
9575.00,1.17
9574.00,1.18
9573.00,1.19
9572.00,1.19
9571.00,1.20
9570.00,1.21
9569.00,1.22
9568.00,1.23
9567.00,1.24
9566.00,1.25
9565.00,1.26
9564.00,1.27
9563.00,1.27
9562.00,1.28
9561.00,1.29
9560.00,1.29
9559.00,1.30
9558.00,1.30
9557.00,1.30
9556.00,1.30
9555.00,1.30
9554.00,1.29
9553.00,1.29
9552.00,1.29
9551.00,1.28
9550.00,1.28
9549.00,1.28
9548.00,1.27
9547.00,1.27
9546.00,1.27
9545.00,1.26
9544.00,1.26
9543.00,1.26
9542.00,1.26
9541.00,1.25
9540.00,1.25
9539.00,1.25
9538.00,1.25
9537.00,1.25
9536.00,1.25
9535.00,1.25
9534.00,1.25
9533.00,1.25
9532.00,1.26
9531.00,1.26
9530.00,1.26
9529.00,1.27
9528.00,1.28
9527.00,1.28
9526.00,1.29
9525.00,1.30
9524.00,1.30
9523.00,1.31
9522.00,1.31
9521.00,1.31
9520.00,1.32
9519.00,1.32
9518.00,1.32
9517.00,1.32
9516.00,1.32
9515.00,1.32
9514.00,1.32
9513.00,1.31
9512.00,1.31
9511.00,1.31
9510.00,1.30
9509.00,1.30
9508.00,1.30
9507.00,1.29
9506.00,1.28
9505.00,1.28
9504.00,1.27
9503.00,1.27
9502.00,1.26
9501.00,1.26
9500.00,1.25
9499.00,1.25
9498.00,1.24
9497.00,1.24
9496.00,1.23
9495.00,1.23
9494.00,1.23
9493.00,1.23
9492.00,1.23
9491.00,1.23
9490.00,1.23
9489.00,1.23
9488.00,1.23
9487.00,1.23
9486.00,1.23
9485.00,1.23
9484.00,1.23
9483.00,1.23
9482.00,1.23
9481.00,1.24
9480.00,1.24
9479.00,1.24
9478.00,1.24
9477.00,1.24
9476.00,1.23
9475.00,1.23
9474.00,1.23
9473.00,1.23
9472.00,1.22
9471.00,1.22
9470.00,1.21
9469.00,1.21
9468.00,1.20
9467.00,1.19
9466.00,1.19
9465.00,1.18
9464.00,1.18
9463.00,1.17
9462.00,1.17
9461.00,1.16
9460.00,1.16
9459.00,1.15
9458.00,1.15
9457.00,1.15
9456.00,1.14
9455.00,1.14
9454.00,1.14
9453.00,1.14
9452.00,1.13
9451.00,1.13
9450.00,1.13
9449.00,1.14
9448.00,1.14
9447.00,1.14
9446.00,1.15
9445.00,1.15
9444.00,1.16
9443.00,1.16
9442.00,1.17
9441.00,1.18
9440.00,1.19
9439.00,1.19
9438.00,1.20
9437.00,1.21
9436.00,1.22
9435.00,1.22
9434.00,1.23
9433.00,1.24
9432.00,1.24
9431.00,1.25
9430.00,1.26
9429.00,1.26
9428.00,1.27
9427.00,1.27
9426.00,1.28
9425.00,1.29
9424.00,1.29
9423.00,1.30
9422.00,1.31
9421.00,1.31
9420.00,1.31
9419.00,1.32
9418.00,1.32
9417.00,1.32
9416.00,1.32
9415.00,1.32
9414.00,1.32
9413.00,1.32
9412.00,1.31
9411.00,1.31
9410.00,1.31
9409.00,1.31
9408.00,1.30
9407.00,1.30
9406.00,1.30
9405.00,1.29
9404.00,1.29
9403.00,1.29
9402.00,1.28
9401.00,1.27
9400.00,1.27
9399.00,1.26
9398.00,1.25
9397.00,1.25
9396.00,1.24
9395.00,1.23
9394.00,1.23
9393.00,1.22
9392.00,1.21
9391.00,1.21
9390.00,1.20
9389.00,1.20
9388.00,1.20
9387.00,1.19
9386.00,1.19
9385.00,1.19
9384.00,1.18
9383.00,1.18
9382.00,1.18
9381.00,1.17
9380.00,1.17
9379.00,1.17
9378.00,1.17
9377.00,1.17
9376.00,1.16
9375.00,1.16
9374.00,1.16
9373.00,1.16
9372.00,1.17
9371.00,1.17
9370.00,1.17
9369.00,1.17
9368.00,1.17
9367.00,1.17
9366.00,1.17
9365.00,1.17
9364.00,1.17
9363.00,1.18
9362.00,1.18
9361.00,1.18
9360.00,1.18
9359.00,1.18
9358.00,1.19
9357.00,1.19
9356.00,1.19
9355.00,1.20
9354.00,1.20
9353.00,1.20
9352.00,1.21
9351.00,1.21
9350.00,1.21
9349.00,1.21
9348.00,1.21
9347.00,1.22
9346.00,1.22
9345.00,1.22
9344.00,1.22
9343.00,1.22
9342.00,1.22
9341.00,1.23
9340.00,1.23
9339.00,1.23
9338.00,1.23
9337.00,1.24
9336.00,1.24
9335.00,1.24
9334.00,1.24
9333.00,1.24
9332.00,1.24
9331.00,1.24
9330.00,1.24
9329.00,1.24
9328.00,1.24
9327.00,1.24
9326.00,1.23
9325.00,1.23
9324.00,1.24
9323.00,1.24
9322.00,1.24
9321.00,1.24
9320.00,1.24
9319.00,1.24
9318.00,1.24
9317.00,1.24
9316.00,1.24
9315.00,1.24
9314.00,1.23
9313.00,1.23
9312.00,1.23
9311.00,1.22
9310.00,1.22
9309.00,1.21
9308.00,1.21
9307.00,1.21
9306.00,1.21
9305.00,1.20
9304.00,1.20
9303.00,1.20
9302.00,1.20
9301.00,1.20
9300.00,1.20
9299.00,1.20
9298.00,1.19
9297.00,1.19
9296.00,1.19
9295.00,1.19
9294.00,1.18
9293.00,1.18
9292.00,1.18
9291.00,1.18
9290.00,1.18
9289.00,1.18
9288.00,1.18
9287.00,1.18
9286.00,1.18
9285.00,1.18
9284.00,1.18
9283.00,1.18
9282.00,1.18
9281.00,1.18
9280.00,1.19
9279.00,1.19
9278.00,1.19
9277.00,1.19
9276.00,1.19
9275.00,1.19
9274.00,1.20
9273.00,1.20
9272.00,1.20
9271.00,1.20
9270.00,1.20
9269.00,1.21
9268.00,1.21
9267.00,1.21
9266.00,1.21
9265.00,1.22
9264.00,1.22
9263.00,1.22
9262.00,1.23
9261.00,1.23
9260.00,1.23
9259.00,1.24
9258.00,1.24
9257.00,1.24
9256.00,1.25
9255.00,1.25
9254.00,1.25
9253.00,1.25
9252.00,1.26
9251.00,1.26
9250.00,1.26
9249.00,1.26
9248.00,1.27
9247.00,1.27
9246.00,1.27
9245.00,1.27
9244.00,1.27
9243.00,1.28
9242.00,1.28
9241.00,1.28
9240.00,1.28
9239.00,1.28
9238.00,1.28
9237.00,1.28
9236.00,1.27
9235.00,1.27
9234.00,1.27
9233.00,1.27
9232.00,1.27
9231.00,1.27
9230.00,1.26
9229.00,1.26
9228.00,1.26
9227.00,1.26
9226.00,1.26
9225.00,1.26
9224.00,1.26
9223.00,1.25
9222.00,1.25
9221.00,1.26
9220.00,1.26
9219.00,1.26
9218.00,1.26
9217.00,1.26
9216.00,1.26
9215.00,1.26
9214.00,1.26
9213.00,1.26
9212.00,1.26
9211.00,1.26
9210.00,1.26
9209.00,1.26
9208.00,1.27
9207.00,1.27
9206.00,1.27
9205.00,1.27
9204.00,1.27
9203.00,1.27
9202.00,1.27
9201.00,1.28
9200.00,1.28
9199.00,1.28
9198.00,1.28
9197.00,1.28
9196.00,1.28
9195.00,1.28
9194.00,1.28
9193.00,1.27
9192.00,1.27
9191.00,1.27
9190.00,1.27
9189.00,1.27
9188.00,1.27
9187.00,1.27
9186.00,1.27
9185.00,1.27
9184.00,1.27
9183.00,1.27
9182.00,1.27
9181.00,1.27
9180.00,1.27
9179.00,1.27
9178.00,1.27
9177.00,1.27
9176.00,1.27
9175.00,1.27
9174.00,1.26
9173.00,1.26
9172.00,1.26
9171.00,1.26
9170.00,1.26
9169.00,1.26
9168.00,1.26
9167.00,1.26
9166.00,1.26
9165.00,1.26
9164.00,1.26
9163.00,1.26
9162.00,1.26
9161.00,1.26
9160.00,1.26
9159.00,1.25
9158.00,1.25
9157.00,1.25
9156.00,1.25
9155.00,1.25
9154.00,1.25
9153.00,1.25
9152.00,1.25
9151.00,1.25
9150.00,1.25
9149.00,1.25
9148.00,1.25
9147.00,1.25
9146.00,1.25
9145.00,1.25
9144.00,1.25
9143.00,1.26
9142.00,1.26
9141.00,1.26
9140.00,1.26
9139.00,1.26
9138.00,1.27
9137.00,1.27
9136.00,1.27
9135.00,1.27
9134.00,1.27
9133.00,1.27
9132.00,1.27
9131.00,1.27
9130.00,1.27
9129.00,1.27
9128.00,1.27
9127.00,1.27
9126.00,1.27
9125.00,1.28
9124.00,1.28
9123.00,1.28
9122.00,1.28
9121.00,1.28
9120.00,1.28
9119.00,1.27
9118.00,1.27
9117.00,1.27
9116.00,1.27
9115.00,1.26
9114.00,1.26
9113.00,1.26
9112.00,1.25
9111.00,1.24
9110.00,1.24
9109.00,1.23
9108.00,1.23
9107.00,1.22
9106.00,1.22
9105.00,1.21
9104.00,1.21
9103.00,1.21
9102.00,1.21
9101.00,1.21
9100.00,1.21
9099.00,1.21
9098.00,1.21
9097.00,1.21
9096.00,1.21
9095.00,1.21
9094.00,1.21
9093.00,1.21
9092.00,1.22
9091.00,1.22
9090.00,1.22
9089.00,1.22
9088.00,1.23
9087.00,1.23
9086.00,1.24
9085.00,1.25
9084.00,1.25
9083.00,1.26
9082.00,1.27
9081.00,1.27
9080.00,1.28
9079.00,1.28
9078.00,1.29
9077.00,1.29
9076.00,1.30
9075.00,1.30
9074.00,1.30
9073.00,1.31
9072.00,1.31
9071.00,1.31
9070.00,1.31
9069.00,1.32
9068.00,1.32
9067.00,1.32
9066.00,1.32
9065.00,1.32
9064.00,1.32
9063.00,1.32
9062.00,1.33
9061.00,1.33
9060.00,1.32
9059.00,1.32
9058.00,1.32
9057.00,1.32
9056.00,1.32
9055.00,1.32
9054.00,1.31
9053.00,1.31
9052.00,1.31
9051.00,1.31
9050.00,1.30
9049.00,1.30
9048.00,1.30
9047.00,1.29
9046.00,1.29
9045.00,1.29
9044.00,1.28
9043.00,1.28
9042.00,1.27
9041.00,1.27
9040.00,1.27
9039.00,1.26
9038.00,1.26
9037.00,1.26
9036.00,1.25
9035.00,1.25
9034.00,1.25
9033.00,1.25
9032.00,1.24
9031.00,1.24
9030.00,1.24
9029.00,1.24
9028.00,1.24
9027.00,1.24
9026.00,1.24
9025.00,1.24
9024.00,1.23
9023.00,1.23
9022.00,1.23
9021.00,1.23
9020.00,1.23
9019.00,1.23
9018.00,1.23
9017.00,1.23
9016.00,1.23
9015.00,1.23
9014.00,1.23
9013.00,1.23
9012.00,1.23
9011.00,1.23
9010.00,1.23
9009.00,1.23
9008.00,1.23
9007.00,1.23
9006.00,1.23
9005.00,1.23
9004.00,1.23
9003.00,1.23
9002.00,1.23
9001.00,1.23
9000.00,1.23
8999.00,1.23
8998.00,1.23
8997.00,1.23
8996.00,1.23
8995.00,1.23
8994.00,1.23
8993.00,1.23
8992.00,1.24
8991.00,1.24
8990.00,1.24
8989.00,1.24
8988.00,1.24
8987.00,1.24
8986.00,1.24
8985.00,1.24
8984.00,1.24
8983.00,1.23
8982.00,1.23
8981.00,1.23
8980.00,1.23
8979.00,1.22
8978.00,1.22
8977.00,1.22
8976.00,1.22
8975.00,1.22
8974.00,1.22
8973.00,1.22
8972.00,1.22
8971.00,1.22
8970.00,1.22
8969.00,1.22
8968.00,1.22
8967.00,1.22
8966.00,1.22
8965.00,1.22
8964.00,1.22
8963.00,1.22
8962.00,1.22
8961.00,1.23
8960.00,1.23
8959.00,1.24
8958.00,1.24
8957.00,1.25
8956.00,1.25
8955.00,1.26
8954.00,1.26
8953.00,1.27
8952.00,1.27
8951.00,1.27
8950.00,1.28
8949.00,1.28
8948.00,1.28
8947.00,1.28
8946.00,1.28
8945.00,1.28
8944.00,1.28
8943.00,1.28
8942.00,1.28
8941.00,1.27
8940.00,1.27
8939.00,1.26
8938.00,1.26
8937.00,1.25
8936.00,1.25
8935.00,1.24
8934.00,1.23
8933.00,1.22
8932.00,1.21
8931.00,1.20
8930.00,1.20
8929.00,1.19
8928.00,1.18
8927.00,1.18
8926.00,1.17
8925.00,1.17
8924.00,1.16
8923.00,1.16
8922.00,1.16
8921.00,1.16
8920.00,1.16
8919.00,1.16
8918.00,1.16
8917.00,1.16
8916.00,1.17
8915.00,1.17
8914.00,1.17
8913.00,1.18
8912.00,1.19
8911.00,1.19
8910.00,1.20
8909.00,1.21
8908.00,1.21
8907.00,1.22
8906.00,1.23
8905.00,1.24
8904.00,1.24
8903.00,1.25
8902.00,1.26
8901.00,1.26
8900.00,1.27
8899.00,1.27
8898.00,1.28
8897.00,1.28
8896.00,1.28
8895.00,1.28
8894.00,1.28
8893.00,1.28
8892.00,1.28
8891.00,1.28
8890.00,1.28
8889.00,1.28
8888.00,1.27
8887.00,1.27
8886.00,1.27
8885.00,1.26
8884.00,1.26
8883.00,1.26
8882.00,1.25
8881.00,1.25
8880.00,1.25
8879.00,1.24
8878.00,1.24
8877.00,1.23
8876.00,1.23
8875.00,1.23
8874.00,1.22
8873.00,1.22
8872.00,1.22
8871.00,1.22
8870.00,1.21
8869.00,1.21
8868.00,1.21
8867.00,1.21
8866.00,1.21
8865.00,1.21
8864.00,1.21
8863.00,1.21
8862.00,1.21
8861.00,1.21
8860.00,1.21
8859.00,1.21
8858.00,1.21
8857.00,1.21
8856.00,1.20
8855.00,1.20
8854.00,1.20
8853.00,1.20
8852.00,1.19
8851.00,1.19
8850.00,1.19
8849.00,1.18
8848.00,1.18
8847.00,1.18
8846.00,1.17
8845.00,1.17
8844.00,1.16
8843.00,1.16
8842.00,1.16
8841.00,1.15
8840.00,1.15
8839.00,1.14
8838.00,1.14
8837.00,1.14
8836.00,1.13
8835.00,1.13
8834.00,1.13
8833.00,1.13
8832.00,1.12
8831.00,1.12
8830.00,1.12
8829.00,1.12
8828.00,1.12
8827.00,1.12
8826.00,1.13
8825.00,1.13
8824.00,1.13
8823.00,1.13
8822.00,1.13
8821.00,1.14
8820.00,1.14
8819.00,1.14
8818.00,1.14
8817.00,1.15
8816.00,1.15
8815.00,1.15
8814.00,1.15
8813.00,1.16
8812.00,1.16
8811.00,1.17
8810.00,1.17
8809.00,1.18
8808.00,1.18
8807.00,1.19
8806.00,1.19
8805.00,1.20
8804.00,1.20
8803.00,1.20
8802.00,1.21
8801.00,1.21
8800.00,1.21
8799.00,1.21
8798.00,1.22
8797.00,1.22
8796.00,1.22
8795.00,1.22
8794.00,1.23
8793.00,1.23
8792.00,1.23
8791.00,1.24
8790.00,1.24
8789.00,1.24
8788.00,1.24
8787.00,1.24
8786.00,1.24
8785.00,1.24
8784.00,1.24
8783.00,1.24
8782.00,1.23
8781.00,1.23
8780.00,1.23
8779.00,1.23
8778.00,1.22
8777.00,1.22
8776.00,1.22
8775.00,1.21
8774.00,1.21
8773.00,1.20
8772.00,1.20
8771.00,1.20
8770.00,1.19
8769.00,1.19
8768.00,1.18
8767.00,1.18
8766.00,1.18
8765.00,1.17
8764.00,1.17
8763.00,1.17
8762.00,1.16
8761.00,1.16
8760.00,1.16
8759.00,1.15
8758.00,1.15
8757.00,1.14
8756.00,1.14
8755.00,1.14
8754.00,1.14
8753.00,1.13
8752.00,1.13
8751.00,1.13
8750.00,1.13
8749.00,1.13
8748.00,1.13
8747.00,1.13
8746.00,1.13
8745.00,1.14
8744.00,1.14
8743.00,1.14
8742.00,1.14
8741.00,1.14
8740.00,1.14
8739.00,1.14
8738.00,1.14
8737.00,1.13
8736.00,1.13
8735.00,1.13
8734.00,1.13
8733.00,1.14
8732.00,1.14
8731.00,1.14
8730.00,1.14
8729.00,1.14
8728.00,1.14
8727.00,1.14
8726.00,1.15
8725.00,1.15
8724.00,1.15
8723.00,1.15
8722.00,1.15
8721.00,1.15
8720.00,1.15
8719.00,1.15
8718.00,1.16
8717.00,1.16
8716.00,1.16
8715.00,1.16
8714.00,1.16
8713.00,1.16
8712.00,1.16
8711.00,1.16
8710.00,1.17
8709.00,1.17
8708.00,1.17
8707.00,1.17
8706.00,1.17
8705.00,1.17
8704.00,1.18
8703.00,1.18
8702.00,1.18
8701.00,1.18
8700.00,1.18
8699.00,1.19
8698.00,1.19
8697.00,1.19
8696.00,1.19
8695.00,1.19
8694.00,1.19
8693.00,1.19
8692.00,1.19
8691.00,1.19
8690.00,1.18
8689.00,1.18
8688.00,1.18
8687.00,1.18
8686.00,1.18
8685.00,1.18
8684.00,1.18
8683.00,1.18
8682.00,1.17
8681.00,1.17
8680.00,1.17
8679.00,1.17
8678.00,1.17
8677.00,1.17
8676.00,1.16
8675.00,1.16
8674.00,1.16
8673.00,1.16
8672.00,1.16
8671.00,1.15
8670.00,1.15
8669.00,1.15
8668.00,1.15
8667.00,1.15
8666.00,1.15
8665.00,1.15
8664.00,1.16
8663.00,1.16
8662.00,1.16
8661.00,1.17
8660.00,1.17
8659.00,1.17
8658.00,1.18
8657.00,1.18
8656.00,1.19
8655.00,1.19
8654.00,1.20
8653.00,1.20
8652.00,1.21
8651.00,1.21
8650.00,1.22
8649.00,1.22
8648.00,1.23
8647.00,1.23
8646.00,1.24
8645.00,1.24
8644.00,1.25
8643.00,1.25
8642.00,1.26
8641.00,1.27
8640.00,1.27
8639.00,1.28
8638.00,1.29
8637.00,1.29
8636.00,1.30
8635.00,1.30
8634.00,1.31
8633.00,1.31
8632.00,1.32
8631.00,1.32
8630.00,1.32
8629.00,1.33
8628.00,1.33
8627.00,1.33
8626.00,1.34
8625.00,1.34
8624.00,1.34
8623.00,1.34
8622.00,1.34
8621.00,1.35
8620.00,1.35
8619.00,1.35
8618.00,1.35
8617.00,1.35
8616.00,1.34
8615.00,1.34
8614.00,1.34
8613.00,1.33
8612.00,1.33
8611.00,1.33
8610.00,1.32
8609.00,1.31
8608.00,1.31
8607.00,1.30
8606.00,1.29
8605.00,1.29
8604.00,1.28
8603.00,1.27
8602.00,1.26
8601.00,1.26
8600.00,1.25
8599.00,1.24
8598.00,1.24
8597.00,1.23
8596.00,1.23
8595.00,1.22
8594.00,1.21
8593.00,1.21
8592.00,1.20
8591.00,1.20
8590.00,1.20
8589.00,1.19
8588.00,1.19
8587.00,1.19
8586.00,1.19
8585.00,1.18
8584.00,1.18
8583.00,1.18
8582.00,1.18
8581.00,1.19
8580.00,1.19
8579.00,1.19
8578.00,1.19
8577.00,1.20
8576.00,1.20
8575.00,1.20
8574.00,1.20
8573.00,1.20
8572.00,1.21
8571.00,1.21
8570.00,1.21
8569.00,1.21
8568.00,1.21
8567.00,1.21
8566.00,1.21
8565.00,1.21
8564.00,1.21
8563.00,1.21
8562.00,1.22
8561.00,1.22
8560.00,1.22
8559.00,1.21
8558.00,1.21
8557.00,1.21
8556.00,1.21
8555.00,1.21
8554.00,1.21
8553.00,1.21
8552.00,1.20
8551.00,1.20
8550.00,1.20
8549.00,1.20
8548.00,1.20
8547.00,1.20
8546.00,1.20
8545.00,1.20
8544.00,1.20
8543.00,1.20
8542.00,1.20
8541.00,1.20
8540.00,1.20
8539.00,1.21
8538.00,1.21
8537.00,1.21
8536.00,1.21
8535.00,1.21
8534.00,1.22
8533.00,1.22
8532.00,1.22
8531.00,1.23
8530.00,1.23
8529.00,1.23
8528.00,1.24
8527.00,1.24
8526.00,1.24
8525.00,1.25
8524.00,1.25
8523.00,1.26
8522.00,1.26
8521.00,1.26
8520.00,1.26
8519.00,1.26
8518.00,1.27
8517.00,1.27
8516.00,1.27
8515.00,1.27
8514.00,1.27
8513.00,1.27
8512.00,1.26
8511.00,1.26
8510.00,1.26
8509.00,1.26
8508.00,1.26
8507.00,1.25
8506.00,1.25
8505.00,1.25
8504.00,1.25
8503.00,1.24
8502.00,1.24
8501.00,1.24
8500.00,1.24
8499.00,1.24
8498.00,1.23
8497.00,1.23
8496.00,1.23
8495.00,1.23
8494.00,1.23
8493.00,1.23
8492.00,1.23
8491.00,1.23
8490.00,1.24
8489.00,1.24
8488.00,1.24
8487.00,1.24
8486.00,1.25
8485.00,1.25
8484.00,1.25
8483.00,1.26
8482.00,1.26
8481.00,1.26
8480.00,1.27
8479.00,1.27
8478.00,1.28
8477.00,1.28
8476.00,1.29
8475.00,1.29
8474.00,1.30
8473.00,1.30
8472.00,1.31
8471.00,1.31
8470.00,1.31
8469.00,1.32
8468.00,1.32
8467.00,1.32
8466.00,1.32
8465.00,1.32
8464.00,1.32
8463.00,1.32
8462.00,1.33
8461.00,1.33
8460.00,1.33
8459.00,1.33
8458.00,1.33
8457.00,1.33
8456.00,1.33
8455.00,1.33
8454.00,1.33
8453.00,1.33
8452.00,1.32
8451.00,1.32
8450.00,1.32
8449.00,1.32
8448.00,1.32
8447.00,1.32
8446.00,1.32
8445.00,1.31
8444.00,1.31
8443.00,1.31
8442.00,1.31
8441.00,1.31
8440.00,1.31
8439.00,1.31
8438.00,1.31
8437.00,1.31
8436.00,1.31
8435.00,1.31
8434.00,1.31
8433.00,1.31
8432.00,1.31
8431.00,1.31
8430.00,1.31
8429.00,1.30
8428.00,1.30
8427.00,1.30
8426.00,1.30
8425.00,1.30
8424.00,1.30
8423.00,1.30
8422.00,1.30
8421.00,1.30
8420.00,1.29
8419.00,1.29
8418.00,1.29
8417.00,1.29
8416.00,1.28
8415.00,1.28
8414.00,1.28
8413.00,1.27
8412.00,1.27
8411.00,1.26
8410.00,1.26
8409.00,1.26
8408.00,1.25
8407.00,1.25
8406.00,1.25
8405.00,1.24
8404.00,1.24
8403.00,1.23
8402.00,1.23
8401.00,1.23
8400.00,1.22
8399.00,1.22
8398.00,1.22
8397.00,1.21
8396.00,1.21
8395.00,1.21
8394.00,1.20
8393.00,1.20
8392.00,1.20
8391.00,1.20
8390.00,1.19
8389.00,1.19
8388.00,1.19
8387.00,1.19
8386.00,1.19
8385.00,1.19
8384.00,1.19
8383.00,1.19
8382.00,1.19
8381.00,1.20
8380.00,1.20
8379.00,1.20
8378.00,1.21
8377.00,1.21
8376.00,1.21
8375.00,1.22
8374.00,1.22
8373.00,1.23
8372.00,1.23
8371.00,1.24
8370.00,1.24
8369.00,1.24
8368.00,1.25
8367.00,1.25
8366.00,1.25
8365.00,1.26
8364.00,1.26
8363.00,1.26
8362.00,1.26
8361.00,1.27
8360.00,1.27
8359.00,1.27
8358.00,1.27
8357.00,1.26
8356.00,1.26
8355.00,1.26
8354.00,1.26
8353.00,1.25
8352.00,1.25
8351.00,1.24
8350.00,1.23
8349.00,1.23
8348.00,1.22
8347.00,1.21
8346.00,1.21
8345.00,1.20
8344.00,1.20
8343.00,1.19
8342.00,1.19
8341.00,1.18
8340.00,1.18
8339.00,1.18
8338.00,1.18
8337.00,1.18
8336.00,1.17
8335.00,1.17
8334.00,1.17
8333.00,1.17
8332.00,1.17
8331.00,1.18
8330.00,1.18
8329.00,1.18
8328.00,1.18
8327.00,1.19
8326.00,1.19
8325.00,1.19
8324.00,1.20
8323.00,1.20
8322.00,1.20
8321.00,1.21
8320.00,1.21
8319.00,1.21
8318.00,1.21
8317.00,1.22
8316.00,1.22
8315.00,1.22
8314.00,1.22
8313.00,1.22
8312.00,1.22
8311.00,1.23
8310.00,1.23
8309.00,1.23
8308.00,1.23
8307.00,1.23
8306.00,1.23
8305.00,1.23
8304.00,1.23
8303.00,1.23
8302.00,1.23
8301.00,1.23
8300.00,1.23
8299.00,1.23
8298.00,1.23
8297.00,1.23
8296.00,1.23
8295.00,1.23
8294.00,1.23
8293.00,1.23
8292.00,1.23
8291.00,1.24
8290.00,1.24
8289.00,1.24
8288.00,1.24
8287.00,1.24
8286.00,1.24
8285.00,1.24
8284.00,1.25
8283.00,1.25
8282.00,1.25
8281.00,1.25
8280.00,1.26
8279.00,1.26
8278.00,1.26
8277.00,1.27
8276.00,1.27
8275.00,1.27
8274.00,1.28
8273.00,1.28
8272.00,1.28
8271.00,1.29
8270.00,1.29
8269.00,1.29
8268.00,1.30
8267.00,1.30
8266.00,1.30
8265.00,1.30
8264.00,1.31
8263.00,1.31
8262.00,1.31
8261.00,1.31
8260.00,1.31
8259.00,1.31
8258.00,1.31
8257.00,1.31
8256.00,1.31
8255.00,1.31
8254.00,1.31
8253.00,1.30
8252.00,1.30
8251.00,1.30
8250.00,1.30
8249.00,1.29
8248.00,1.29
8247.00,1.29
8246.00,1.29
8245.00,1.28
8244.00,1.28
8243.00,1.28
8242.00,1.28
8241.00,1.28
8240.00,1.27
8239.00,1.27
8238.00,1.27
8237.00,1.27
8236.00,1.27
8235.00,1.27
8234.00,1.27
8233.00,1.27
8232.00,1.27
8231.00,1.27
8230.00,1.27
8229.00,1.27
8228.00,1.28
8227.00,1.28
8226.00,1.28
8225.00,1.28
8224.00,1.29
8223.00,1.29
8222.00,1.29
8221.00,1.30
8220.00,1.30
8219.00,1.30
8218.00,1.31
8217.00,1.31
8216.00,1.31
8215.00,1.32
8214.00,1.32
8213.00,1.32
8212.00,1.33
8211.00,1.33
8210.00,1.33
8209.00,1.33
8208.00,1.33
8207.00,1.33
8206.00,1.33
8205.00,1.34
8204.00,1.34
8203.00,1.34
8202.00,1.34
8201.00,1.34
8200.00,1.34
8199.00,1.33
8198.00,1.33
8197.00,1.33
8196.00,1.33
8195.00,1.32
8194.00,1.32
8193.00,1.31
8192.00,1.31
8191.00,1.30
8190.00,1.30
8189.00,1.29
8188.00,1.29
8187.00,1.28
8186.00,1.28
8185.00,1.28
8184.00,1.27
8183.00,1.27
8182.00,1.26
8181.00,1.26
8180.00,1.26
8179.00,1.25
8178.00,1.25
8177.00,1.24
8176.00,1.24
8175.00,1.23
8174.00,1.23
8173.00,1.23
8172.00,1.22
8171.00,1.22
8170.00,1.22
8169.00,1.22
8168.00,1.22
8167.00,1.22
8166.00,1.22
8165.00,1.22
8164.00,1.22
8163.00,1.22
8162.00,1.22
8161.00,1.22
8160.00,1.22
8159.00,1.22
8158.00,1.22
8157.00,1.22
8156.00,1.22
8155.00,1.22
8154.00,1.23
8153.00,1.23
8152.00,1.23
8151.00,1.23
8150.00,1.23
8149.00,1.23
8148.00,1.24
8147.00,1.24
8146.00,1.24
8145.00,1.24
8144.00,1.25
8143.00,1.25
8142.00,1.25
8141.00,1.25
8140.00,1.25
8139.00,1.25
8138.00,1.25
8137.00,1.25
8136.00,1.25
8135.00,1.25
8134.00,1.25
8133.00,1.26
8132.00,1.26
8131.00,1.26
8130.00,1.26
8129.00,1.26
8128.00,1.26
8127.00,1.26
8126.00,1.25
8125.00,1.25
8124.00,1.25
8123.00,1.25
8122.00,1.25
8121.00,1.25
8120.00,1.25
8119.00,1.25
8118.00,1.25
8117.00,1.25
8116.00,1.24
8115.00,1.24
8114.00,1.24
8113.00,1.24
8112.00,1.24
8111.00,1.23
8110.00,1.23
8109.00,1.23
8108.00,1.23
8107.00,1.22
8106.00,1.22
8105.00,1.22
8104.00,1.22
8103.00,1.22
8102.00,1.22
8101.00,1.22
8100.00,1.22
8099.00,1.22
8098.00,1.22
8097.00,1.22
8096.00,1.22
8095.00,1.23
8094.00,1.23
8093.00,1.23
8092.00,1.23
8091.00,1.23
8090.00,1.24
8089.00,1.24
8088.00,1.24
8087.00,1.25
8086.00,1.25
8085.00,1.26
8084.00,1.26
8083.00,1.27
8082.00,1.27
8081.00,1.27
8080.00,1.28
8079.00,1.28
8078.00,1.29
8077.00,1.29
8076.00,1.29
8075.00,1.30
8074.00,1.30
8073.00,1.30
8072.00,1.31
8071.00,1.31
8070.00,1.31
8069.00,1.31
8068.00,1.32
8067.00,1.32
8066.00,1.32
8065.00,1.32
8064.00,1.32
8063.00,1.33
8062.00,1.33
8061.00,1.33
8060.00,1.33
8059.00,1.33
8058.00,1.33
8057.00,1.33
8056.00,1.33
8055.00,1.33
8054.00,1.33
8053.00,1.33
8052.00,1.32
8051.00,1.32
8050.00,1.32
8049.00,1.32
8048.00,1.32
8047.00,1.32
8046.00,1.32
8045.00,1.32
8044.00,1.31
8043.00,1.31
8042.00,1.31
8041.00,1.30
8040.00,1.30
8039.00,1.30
8038.00,1.30
8037.00,1.29
8036.00,1.29
8035.00,1.29
8034.00,1.29
8033.00,1.29
8032.00,1.29
8031.00,1.29
8030.00,1.29
8029.00,1.29
8028.00,1.28
8027.00,1.28
8026.00,1.28
8025.00,1.28
8024.00,1.28
8023.00,1.28
8022.00,1.28
8021.00,1.28
8020.00,1.28
8019.00,1.29
8018.00,1.29
8017.00,1.29
8016.00,1.29
8015.00,1.30
8014.00,1.30
8013.00,1.30
8012.00,1.31
8011.00,1.31
8010.00,1.31
8009.00,1.32
8008.00,1.32
8007.00,1.32
8006.00,1.32
8005.00,1.33
8004.00,1.33
8003.00,1.33
8002.00,1.33
8001.00,1.34
8000.00,1.34
7999.00,1.34
7998.00,1.34
7997.00,1.34
7996.00,1.35
7995.00,1.35
7994.00,1.35
7993.00,1.35
7992.00,1.35
7991.00,1.35
7990.00,1.35
7989.00,1.35
7988.00,1.35
7987.00,1.35
7986.00,1.35
7985.00,1.35
7984.00,1.34
7983.00,1.34
7982.00,1.34
7981.00,1.34
7980.00,1.34
7979.00,1.34
7978.00,1.33
7977.00,1.33
7976.00,1.33
7975.00,1.33
7974.00,1.33
7973.00,1.33
7972.00,1.33
7971.00,1.32
7970.00,1.32
7969.00,1.32
7968.00,1.32
7967.00,1.32
7966.00,1.32
7965.00,1.32
7964.00,1.32
7963.00,1.32
7962.00,1.31
7961.00,1.31
7960.00,1.31
7959.00,1.31
7958.00,1.31
7957.00,1.30
7956.00,1.30
7955.00,1.30
7954.00,1.30
7953.00,1.30
7952.00,1.29
7951.00,1.29
7950.00,1.29
7949.00,1.29
7948.00,1.29
7947.00,1.28
7946.00,1.28
7945.00,1.28
7944.00,1.28
7943.00,1.28
7942.00,1.27
7941.00,1.27
7940.00,1.27
7939.00,1.27
7938.00,1.26
7937.00,1.26
7936.00,1.26
7935.00,1.26
7934.00,1.26
7933.00,1.26
7932.00,1.26
7931.00,1.26
7930.00,1.26
7929.00,1.26
7928.00,1.26
7927.00,1.26
7926.00,1.26
7925.00,1.26
7924.00,1.26
7923.00,1.26
7922.00,1.26
7921.00,1.26
7920.00,1.27
7919.00,1.27
7918.00,1.27
7917.00,1.27
7916.00,1.27
7915.00,1.27
7914.00,1.27
7913.00,1.27
7912.00,1.27
7911.00,1.27
7910.00,1.27
7909.00,1.27
7908.00,1.27
7907.00,1.28
7906.00,1.28
7905.00,1.28
7904.00,1.28
7903.00,1.28
7902.00,1.28
7901.00,1.28
7900.00,1.28
7899.00,1.28
7898.00,1.28
7897.00,1.28
7896.00,1.28
7895.00,1.28
7894.00,1.28
7893.00,1.29
7892.00,1.29
7891.00,1.29
7890.00,1.29
7889.00,1.29
7888.00,1.30
7887.00,1.30
7886.00,1.30
7885.00,1.30
7884.00,1.30
7883.00,1.30
7882.00,1.30
7881.00,1.31
7880.00,1.31
7879.00,1.31
7878.00,1.31
7877.00,1.31
7876.00,1.31
7875.00,1.31
7874.00,1.31
7873.00,1.31
7872.00,1.31
7871.00,1.31
7870.00,1.31
7869.00,1.32
7868.00,1.32
7867.00,1.32
7866.00,1.32
7865.00,1.32
7864.00,1.32
7863.00,1.32
7862.00,1.32
7861.00,1.32
7860.00,1.32
7859.00,1.32
7858.00,1.32
7857.00,1.32
7856.00,1.32
7855.00,1.32
7854.00,1.33
7853.00,1.33
7852.00,1.33
7851.00,1.33
7850.00,1.33
7849.00,1.33
7848.00,1.34
7847.00,1.34
7846.00,1.34
7845.00,1.34
7844.00,1.35
7843.00,1.35
7842.00,1.35
7841.00,1.35
7840.00,1.36
7839.00,1.36
7838.00,1.36
7837.00,1.37
7836.00,1.37
7835.00,1.37
7834.00,1.37
7833.00,1.38
7832.00,1.38
7831.00,1.38
7830.00,1.38
7829.00,1.39
7828.00,1.39
7827.00,1.39
7826.00,1.39
7825.00,1.40
7824.00,1.40
7823.00,1.40
7822.00,1.40
7821.00,1.40
7820.00,1.41
7819.00,1.41
7818.00,1.41
7817.00,1.41
7816.00,1.41
7815.00,1.41
7814.00,1.41
7813.00,1.41
7812.00,1.41
7811.00,1.41
7810.00,1.41
7809.00,1.41
7808.00,1.41
7807.00,1.41
7806.00,1.41
7805.00,1.41
7804.00,1.41
7803.00,1.40
7802.00,1.40
7801.00,1.40
7800.00,1.40
7799.00,1.40
7798.00,1.40
7797.00,1.40
7796.00,1.40
7795.00,1.40
7794.00,1.39
7793.00,1.39
7792.00,1.39
7791.00,1.39
7790.00,1.38
7789.00,1.38
7788.00,1.38
7787.00,1.38
7786.00,1.38
7785.00,1.38
7784.00,1.38
7783.00,1.38
7782.00,1.38
7781.00,1.38
7780.00,1.37
7779.00,1.37
7778.00,1.37
7777.00,1.37
7776.00,1.37
7775.00,1.37
7774.00,1.37
7773.00,1.37
7772.00,1.36
7771.00,1.36
7770.00,1.36
7769.00,1.36
7768.00,1.36
7767.00,1.36
7766.00,1.36
7765.00,1.35
7764.00,1.35
7763.00,1.35
7762.00,1.35
7761.00,1.35
7760.00,1.35
7759.00,1.35
7758.00,1.35
7757.00,1.34
7756.00,1.34
7755.00,1.34
7754.00,1.34
7753.00,1.34
7752.00,1.34
7751.00,1.34
7750.00,1.34
7749.00,1.34
7748.00,1.34
7747.00,1.34
7746.00,1.34
7745.00,1.34
7744.00,1.34
7743.00,1.34
7742.00,1.34
7741.00,1.34
7740.00,1.34
7739.00,1.34
7738.00,1.34
7737.00,1.34
7736.00,1.34
7735.00,1.34
7734.00,1.34
7733.00,1.34
7732.00,1.34
7731.00,1.34
7730.00,1.34
7729.00,1.34
7728.00,1.34
7727.00,1.34
7726.00,1.34
7725.00,1.34
7724.00,1.34
7723.00,1.34
7722.00,1.34
7721.00,1.34
7720.00,1.34
7719.00,1.34
7718.00,1.34
7717.00,1.34
7716.00,1.34
7715.00,1.34
7714.00,1.34
7713.00,1.34
7712.00,1.34
7711.00,1.34
7710.00,1.34
7709.00,1.34
7708.00,1.34
7707.00,1.34
7706.00,1.34
7705.00,1.34
7704.00,1.34
7703.00,1.34
7702.00,1.34
7701.00,1.34
7700.00,1.34
7699.00,1.34
7698.00,1.34
7697.00,1.34
7696.00,1.34
7695.00,1.34
7694.00,1.34
7693.00,1.34
7692.00,1.34
7691.00,1.34
7690.00,1.34
7689.00,1.34
7688.00,1.34
7687.00,1.33
7686.00,1.33
7685.00,1.34
7684.00,1.34
7683.00,1.33
7682.00,1.33
7681.00,1.33
7680.00,1.33
7679.00,1.33
7678.00,1.33
7677.00,1.33
7676.00,1.34
7675.00,1.34
7674.00,1.34
7673.00,1.34
7672.00,1.34
7671.00,1.34
7670.00,1.35
7669.00,1.35
7668.00,1.35
7667.00,1.36
7666.00,1.36
7665.00,1.36
7664.00,1.37
7663.00,1.37
7662.00,1.37
7661.00,1.38
7660.00,1.38
7659.00,1.38
7658.00,1.39
7657.00,1.39
7656.00,1.39
7655.00,1.39
7654.00,1.40
7653.00,1.40
7652.00,1.40
7651.00,1.40
7650.00,1.40
7649.00,1.40
7648.00,1.40
7647.00,1.40
7646.00,1.40
7645.00,1.40
7644.00,1.40
7643.00,1.40
7642.00,1.40
7641.00,1.40
7640.00,1.40
7639.00,1.40
7638.00,1.40
7637.00,1.40
7636.00,1.40
7635.00,1.40
7634.00,1.40
7633.00,1.39
7632.00,1.39
7631.00,1.39
7630.00,1.39
7629.00,1.39
7628.00,1.39
7627.00,1.39
7626.00,1.39
7625.00,1.39
7624.00,1.39
7623.00,1.38
7622.00,1.38
7621.00,1.38
7620.00,1.38
7619.00,1.38
7618.00,1.38
7617.00,1.37
7616.00,1.37
7615.00,1.37
7614.00,1.37
7613.00,1.37
7612.00,1.36
7611.00,1.36
7610.00,1.36
7609.00,1.36
7608.00,1.36
7607.00,1.36
7606.00,1.36
7605.00,1.36
7604.00,1.36
7603.00,1.36
7602.00,1.36
7601.00,1.36
7600.00,1.36
7599.00,1.36
7598.00,1.35
7597.00,1.35
7596.00,1.35
7595.00,1.36
7594.00,1.36
7593.00,1.36
7592.00,1.36
7591.00,1.36
7590.00,1.36
7589.00,1.37
7588.00,1.37
7587.00,1.37
7586.00,1.37
7585.00,1.37
7584.00,1.37
7583.00,1.37
7582.00,1.37
7581.00,1.38
7580.00,1.38
7579.00,1.38
7578.00,1.38
7577.00,1.38
7576.00,1.38
7575.00,1.37
7574.00,1.37
7573.00,1.37
7572.00,1.37
7571.00,1.37
7570.00,1.37
7569.00,1.37
7568.00,1.37
7567.00,1.37
7566.00,1.36
7565.00,1.36
7564.00,1.36
7563.00,1.36
7562.00,1.35
7561.00,1.35
7560.00,1.35
7559.00,1.35
7558.00,1.34
7557.00,1.34
7556.00,1.34
7555.00,1.34
7554.00,1.34
7553.00,1.34
7552.00,1.34
7551.00,1.34
7550.00,1.34
7549.00,1.34
7548.00,1.34
7547.00,1.34
7546.00,1.34
7545.00,1.34
7544.00,1.34
7543.00,1.34
7542.00,1.34
7541.00,1.34
7540.00,1.34
7539.00,1.34
7538.00,1.34
7537.00,1.34
7536.00,1.34
7535.00,1.34
7534.00,1.34
7533.00,1.34
7532.00,1.34
7531.00,1.34
7530.00,1.34
7529.00,1.34
7528.00,1.35
7527.00,1.35
7526.00,1.35
7525.00,1.35
7524.00,1.35
7523.00,1.35
7522.00,1.35
7521.00,1.35
7520.00,1.35
7519.00,1.35
7518.00,1.35
7517.00,1.35
7516.00,1.36
7515.00,1.36
7514.00,1.36
7513.00,1.36
7512.00,1.36
7511.00,1.37
7510.00,1.37
7509.00,1.37
7508.00,1.37
7507.00,1.36
7506.00,1.36
7505.00,1.36
7504.00,1.36
7503.00,1.36
7502.00,1.36
7501.00,1.36
7500.00,1.35
7499.00,1.35
7498.00,1.35
7497.00,1.35
7496.00,1.35
7495.00,1.34
7494.00,1.34
7493.00,1.34
7492.00,1.34
7491.00,1.33
7490.00,1.33
7489.00,1.33
7488.00,1.33
7487.00,1.32
7486.00,1.32
7485.00,1.32
7484.00,1.32
7483.00,1.32
7482.00,1.32
7481.00,1.32
7480.00,1.32
7479.00,1.32
7478.00,1.32
7477.00,1.32
7476.00,1.32
7475.00,1.32
7474.00,1.32
7473.00,1.32
7472.00,1.32
7471.00,1.32
7470.00,1.32
7469.00,1.32
7468.00,1.32
7467.00,1.32
7466.00,1.32
7465.00,1.32
7464.00,1.32
7463.00,1.32
7462.00,1.32
7461.00,1.32
7460.00,1.32
7459.00,1.33
7458.00,1.33
7457.00,1.33
7456.00,1.33
7455.00,1.33
7454.00,1.33
7453.00,1.33
7452.00,1.34
7451.00,1.34
7450.00,1.34
7449.00,1.34
7448.00,1.34
7447.00,1.35
7446.00,1.35
7445.00,1.35
7444.00,1.35
7443.00,1.36
7442.00,1.36
7441.00,1.36
7440.00,1.36
7439.00,1.36
7438.00,1.36
7437.00,1.36
7436.00,1.36
7435.00,1.36
7434.00,1.36
7433.00,1.36
7432.00,1.36
7431.00,1.36
7430.00,1.36
7429.00,1.35
7428.00,1.35
7427.00,1.35
7426.00,1.35
7425.00,1.34
7424.00,1.34
7423.00,1.33
7422.00,1.33
7421.00,1.33
7420.00,1.32
7419.00,1.32
7418.00,1.32
7417.00,1.31
7416.00,1.31
7415.00,1.31
7414.00,1.31
7413.00,1.30
7412.00,1.30
7411.00,1.30
7410.00,1.30
7409.00,1.29
7408.00,1.29
7407.00,1.29
7406.00,1.29
7405.00,1.29
7404.00,1.28
7403.00,1.28
7402.00,1.28
7401.00,1.28
7400.00,1.28
7399.00,1.28
7398.00,1.28
7397.00,1.28
7396.00,1.29
7395.00,1.29
7394.00,1.29
7393.00,1.29
7392.00,1.29
7391.00,1.29
7390.00,1.29
7389.00,1.29
7388.00,1.29
7387.00,1.29
7386.00,1.30
7385.00,1.30
7384.00,1.30
7383.00,1.30
7382.00,1.30
7381.00,1.30
7380.00,1.30
7379.00,1.31
7378.00,1.31
7377.00,1.31
7376.00,1.31
7375.00,1.31
7374.00,1.31
7373.00,1.31
7372.00,1.31
7371.00,1.31
7370.00,1.31
7369.00,1.30
7368.00,1.30
7367.00,1.30
7366.00,1.30
7365.00,1.30
7364.00,1.30
7363.00,1.29
7362.00,1.29
7361.00,1.29
7360.00,1.29
7359.00,1.29
7358.00,1.29
7357.00,1.29
7356.00,1.29
7355.00,1.29
7354.00,1.29
7353.00,1.29
7352.00,1.29
7351.00,1.29
7350.00,1.29
7349.00,1.29
7348.00,1.29
7347.00,1.29
7346.00,1.29
7345.00,1.29
7344.00,1.29
7343.00,1.29
7342.00,1.29
7341.00,1.30
7340.00,1.30
7339.00,1.30
7338.00,1.30
7337.00,1.30
7336.00,1.31
7335.00,1.31
7334.00,1.31
7333.00,1.31
7332.00,1.31
7331.00,1.31
7330.00,1.31
7329.00,1.31
7328.00,1.31
7327.00,1.31
7326.00,1.30
7325.00,1.30
7324.00,1.30
7323.00,1.30
7322.00,1.30
7321.00,1.30
7320.00,1.30
7319.00,1.30
7318.00,1.30
7317.00,1.30
7316.00,1.30
7315.00,1.29
7314.00,1.29
7313.00,1.29
7312.00,1.29
7311.00,1.29
7310.00,1.29
7309.00,1.29
7308.00,1.28
7307.00,1.28
7306.00,1.28
7305.00,1.28
7304.00,1.28
7303.00,1.28
7302.00,1.28
7301.00,1.28
7300.00,1.28
7299.00,1.28
7298.00,1.29
7297.00,1.29
7296.00,1.29
7295.00,1.29
7294.00,1.29
7293.00,1.29
7292.00,1.29
7291.00,1.29
7290.00,1.29
7289.00,1.30
7288.00,1.30
7287.00,1.30
7286.00,1.30
7285.00,1.30
7284.00,1.30
7283.00,1.30
7282.00,1.30
7281.00,1.31
7280.00,1.31
7279.00,1.31
7278.00,1.31
7277.00,1.31
7276.00,1.31
7275.00,1.31
7274.00,1.31
7273.00,1.31
7272.00,1.31
7271.00,1.31
7270.00,1.31
7269.00,1.31
7268.00,1.31
7267.00,1.31
7266.00,1.31
7265.00,1.31
7264.00,1.30
7263.00,1.30
7262.00,1.30
7261.00,1.30
7260.00,1.30
7259.00,1.30
7258.00,1.29
7257.00,1.29
7256.00,1.29
7255.00,1.28
7254.00,1.28
7253.00,1.27
7252.00,1.27
7251.00,1.26
7250.00,1.26
7249.00,1.25
7248.00,1.25
7247.00,1.24
7246.00,1.24
7245.00,1.24
7244.00,1.23
7243.00,1.23
7242.00,1.22
7241.00,1.22
7240.00,1.22
7239.00,1.21
7238.00,1.21
7237.00,1.20
7236.00,1.20
7235.00,1.20
7234.00,1.19
7233.00,1.19
7232.00,1.19
7231.00,1.18
7230.00,1.18
7229.00,1.18
7228.00,1.18
7227.00,1.17
7226.00,1.17
7225.00,1.17
7224.00,1.17
7223.00,1.17
7222.00,1.17
7221.00,1.17
7220.00,1.17
7219.00,1.17
7218.00,1.16
7217.00,1.16
7216.00,1.16
7215.00,1.16
7214.00,1.16
7213.00,1.15
7212.00,1.15
7211.00,1.15
7210.00,1.14
7209.00,1.14
7208.00,1.14
7207.00,1.13
7206.00,1.13
7205.00,1.13
7204.00,1.12
7203.00,1.12
7202.00,1.11
7201.00,1.11
7200.00,1.11
7199.00,1.10
7198.00,1.10
7197.00,1.09
7196.00,1.09
7195.00,1.08
7194.00,1.08
7193.00,1.07
7192.00,1.07
7191.00,1.06
7190.00,1.06
7189.00,1.05
7188.00,1.05
7187.00,1.04
7186.00,1.04
7185.00,1.04
7184.00,1.03
7183.00,1.03
7182.00,1.02
7181.00,1.02
7180.00,1.02
7179.00,1.01
7178.00,1.01
7177.00,1.01
7176.00,1.00
7175.00,1.00
7174.00,1.00
7173.00,1.00
7172.00,0.99
7171.00,0.99
7170.00,0.99
7169.00,0.98
7168.00,0.98
7167.00,0.98
7166.00,0.97
7165.00,0.97
7164.00,0.97
7163.00,0.97
7162.00,0.96
7161.00,0.96
7160.00,0.96
7159.00,0.96
7158.00,0.96
7157.00,0.96
7156.00,0.96
7155.00,0.96
7154.00,0.95
7153.00,0.95
7152.00,0.95
7151.00,0.95
7150.00,0.95
7149.00,0.95
7148.00,0.94
7147.00,0.94
7146.00,0.94
7145.00,0.94
7144.00,0.94
7143.00,0.94
7142.00,0.93
7141.00,0.93
7140.00,0.93
7139.00,0.93
7138.00,0.93
7137.00,0.93
7136.00,0.93
7135.00,0.93
7134.00,0.93
7133.00,0.93
7132.00,0.93
7131.00,0.93
7130.00,0.93
7129.00,0.92
7128.00,0.92
7127.00,0.92
7126.00,0.92
7125.00,0.91
7124.00,0.91
7123.00,0.91
7122.00,0.91
7121.00,0.91
7120.00,0.91
7119.00,0.91
7118.00,0.90
7117.00,0.90
7116.00,0.90
7115.00,0.90
7114.00,0.90
7113.00,0.90
7112.00,0.89
7111.00,0.89
7110.00,0.89
7109.00,0.89
7108.00,0.88
7107.00,0.88
7106.00,0.88
7105.00,0.88
7104.00,0.87
7103.00,0.87
7102.00,0.87
7101.00,0.87
7100.00,0.86
7099.00,0.86
7098.00,0.86
7097.00,0.86
7096.00,0.85
7095.00,0.85
7094.00,0.85
7093.00,0.85
7092.00,0.84
7091.00,0.84
7090.00,0.84
7089.00,0.84
7088.00,0.83
7087.00,0.83
7086.00,0.83
7085.00,0.83
7084.00,0.83
7083.00,0.83
7082.00,0.83
7081.00,0.83
7080.00,0.83
7079.00,0.83
7078.00,0.83
7077.00,0.83
7076.00,0.83
7075.00,0.83
7074.00,0.83
7073.00,0.83
7072.00,0.83
7071.00,0.83
7070.00,0.83
7069.00,0.82
7068.00,0.82
7067.00,0.82
7066.00,0.82
7065.00,0.82
7064.00,0.82
7063.00,0.82
7062.00,0.82
7061.00,0.82
7060.00,0.81
7059.00,0.81
7058.00,0.81
7057.00,0.80
7056.00,0.80
7055.00,0.79
7054.00,0.79
7053.00,0.78
7052.00,0.78
7051.00,0.77
7050.00,0.77
7049.00,0.76
7048.00,0.76
7047.00,0.75
7046.00,0.75
7045.00,0.74
7044.00,0.74
7043.00,0.74
7042.00,0.73
7041.00,0.73
7040.00,0.72
7039.00,0.72
7038.00,0.72
7037.00,0.71
7036.00,0.71
7035.00,0.71
7034.00,0.71
7033.00,0.70
7032.00,0.70
7031.00,0.70
7030.00,0.70
7029.00,0.70
7028.00,0.70
7027.00,0.70
7026.00,0.70
7025.00,0.70
7024.00,0.70
7023.00,0.70
7022.00,0.70
7021.00,0.70
7020.00,0.70
7019.00,0.70
7018.00,0.70
7017.00,0.70
7016.00,0.70
7015.00,0.70
7014.00,0.70
7013.00,0.70
7012.00,0.70
7011.00,0.70
7010.00,0.70
7009.00,0.70
7008.00,0.70
7007.00,0.70
7006.00,0.70
7005.00,0.70
7004.00,0.70
7003.00,0.70
7002.00,0.70
7001.00,0.70
7000.00,0.70
6999.00,0.70
6998.00,0.70
6997.00,0.70
6996.00,0.71
6995.00,0.71
6994.00,0.71
6993.00,0.71
6992.00,0.70
6991.00,0.70
6990.00,0.70
6989.00,0.70
6988.00,0.70
6987.00,0.70
6986.00,0.70
6985.00,0.71
6984.00,0.71
6983.00,0.71
6982.00,0.71
6981.00,0.71
6980.00,0.71
6979.00,0.71
6978.00,0.71
6977.00,0.71
6976.00,0.71
6975.00,0.70
6974.00,0.70
6973.00,0.70
6972.00,0.70
6971.00,0.70
6970.00,0.70
6969.00,0.69
6968.00,0.69
6967.00,0.69
6966.00,0.69
6965.00,0.69
6964.00,0.69
6963.00,0.69
6962.00,0.69
6961.00,0.68
6960.00,0.68
6959.00,0.68
6958.00,0.68
6957.00,0.68
6956.00,0.68
6955.00,0.68
6954.00,0.67
6953.00,0.67
6952.00,0.67
6951.00,0.67
6950.00,0.67
6949.00,0.67
6948.00,0.67
6947.00,0.68
6946.00,0.68
6945.00,0.68
6944.00,0.68
6943.00,0.68
6942.00,0.68
6941.00,0.68
6940.00,0.68
6939.00,0.69
6938.00,0.69
6937.00,0.69
6936.00,0.69
6935.00,0.69
6934.00,0.69
6933.00,0.70
6932.00,0.70
6931.00,0.70
6930.00,0.70
6929.00,0.70
6928.00,0.70
6927.00,0.70
6926.00,0.71
6925.00,0.71
6924.00,0.71
6923.00,0.71
6922.00,0.71
6921.00,0.71
6920.00,0.71
6919.00,0.71
6918.00,0.71
6917.00,0.71
6916.00,0.71
6915.00,0.71
6914.00,0.71
6913.00,0.71
6912.00,0.71
6911.00,0.71
6910.00,0.70
6909.00,0.70
6908.00,0.70
6907.00,0.70
6906.00,0.70
6905.00,0.70
6904.00,0.70
6903.00,0.70
6902.00,0.70
6901.00,0.70
6900.00,0.70
6899.00,0.71
6898.00,0.71
6897.00,0.71
6896.00,0.71
6895.00,0.71
6894.00,0.71
6893.00,0.71
6892.00,0.70
6891.00,0.70
6890.00,0.70
6889.00,0.70
6888.00,0.70
6887.00,0.70
6886.00,0.70
6885.00,0.70
6884.00,0.70
6883.00,0.70
6882.00,0.70
6881.00,0.70
6880.00,0.70
6879.00,0.70
6878.00,0.70
6877.00,0.69
6876.00,0.69
6875.00,0.69
6874.00,0.69
6873.00,0.69
6872.00,0.68
6871.00,0.68
6870.00,0.68
6869.00,0.68
6868.00,0.68
6867.00,0.67
6866.00,0.67
6865.00,0.67
6864.00,0.67
6863.00,0.67
6862.00,0.67
6861.00,0.67
6860.00,0.67
6859.00,0.67
6858.00,0.67
6857.00,0.67
6856.00,0.67
6855.00,0.68
6854.00,0.68
6853.00,0.68
6852.00,0.68
6851.00,0.68
6850.00,0.68
6849.00,0.68
6848.00,0.68
6847.00,0.68
6846.00,0.68
6845.00,0.68
6844.00,0.68
6843.00,0.68
6842.00,0.68
6841.00,0.69
6840.00,0.69
6839.00,0.69
6838.00,0.69
6837.00,0.69
6836.00,0.69
6835.00,0.69
6834.00,0.69
6833.00,0.69
6832.00,0.69
6831.00,0.69
6830.00,0.69
6829.00,0.69
6828.00,0.69
6827.00,0.69
6826.00,0.69
6825.00,0.69
6824.00,0.69
6823.00,0.70
6822.00,0.70
6821.00,0.70
6820.00,0.70
6819.00,0.70
6818.00,0.70
6817.00,0.70
6816.00,0.70
6815.00,0.70
6814.00,0.70
6813.00,0.70
6812.00,0.70
6811.00,0.70
6810.00,0.70
6809.00,0.70
6808.00,0.70
6807.00,0.70
6806.00,0.70
6805.00,0.70
6804.00,0.70
6803.00,0.70
6802.00,0.70
6801.00,0.70
6800.00,0.70
6799.00,0.70
6798.00,0.70
6797.00,0.70
6796.00,0.70
6795.00,0.70
6794.00,0.69
6793.00,0.69
6792.00,0.69
6791.00,0.69
6790.00,0.69
6789.00,0.69
6788.00,0.68
6787.00,0.68
6786.00,0.68
6785.00,0.68
6784.00,0.68
6783.00,0.68
6782.00,0.68
6781.00,0.68
6780.00,0.68
6779.00,0.68
6778.00,0.68
6777.00,0.68
6776.00,0.68
6775.00,0.68
6774.00,0.68
6773.00,0.68
6772.00,0.68
6771.00,0.68
6770.00,0.68
6769.00,0.68
6768.00,0.69
6767.00,0.69
6766.00,0.69
6765.00,0.69
6764.00,0.69
6763.00,0.69
6762.00,0.70
6761.00,0.70
6760.00,0.70
6759.00,0.70
6758.00,0.70
6757.00,0.70
6756.00,0.71
6755.00,0.71
6754.00,0.71
6753.00,0.71
6752.00,0.72
6751.00,0.72
6750.00,0.72
6749.00,0.72
6748.00,0.72
6747.00,0.73
6746.00,0.73
6745.00,0.73
6744.00,0.73
6743.00,0.73
6742.00,0.74
6741.00,0.74
6740.00,0.74
6739.00,0.74
6738.00,0.74
6737.00,0.74
6736.00,0.74
6735.00,0.75
6734.00,0.75
6733.00,0.75
6732.00,0.75
6731.00,0.75
6730.00,0.74
6729.00,0.74
6728.00,0.74
6727.00,0.74
6726.00,0.74
6725.00,0.74
6724.00,0.74
6723.00,0.75
6722.00,0.75
6721.00,0.75
6720.00,0.75
6719.00,0.75
6718.00,0.75
6717.00,0.75
6716.00,0.75
6715.00,0.75
6714.00,0.76
6713.00,0.76
6712.00,0.76
6711.00,0.76
6710.00,0.76
6709.00,0.77
6708.00,0.77
6707.00,0.77
6706.00,0.78
6705.00,0.78
6704.00,0.78
6703.00,0.79
6702.00,0.79
6701.00,0.79
6700.00,0.80
6699.00,0.80
6698.00,0.80
6697.00,0.80
6696.00,0.80
6695.00,0.80
6694.00,0.80
6693.00,0.80
6692.00,0.80
6691.00,0.80
6690.00,0.81
6689.00,0.81
6688.00,0.81
6687.00,0.81
6686.00,0.81
6685.00,0.81
6684.00,0.81
6683.00,0.80
6682.00,0.80
6681.00,0.80
6680.00,0.80
6679.00,0.80
6678.00,0.80
6677.00,0.80
6676.00,0.80
6675.00,0.80
6674.00,0.80
6673.00,0.80
6672.00,0.80
6671.00,0.80
6670.00,0.80
6669.00,0.80
6668.00,0.80
6667.00,0.80
6666.00,0.81
6665.00,0.81
6664.00,0.81
6663.00,0.81
6662.00,0.82
6661.00,0.82
6660.00,0.82
6659.00,0.82
6658.00,0.83
6657.00,0.83
6656.00,0.83
6655.00,0.83
6654.00,0.83
6653.00,0.84
6652.00,0.84
6651.00,0.84
6650.00,0.84
6649.00,0.85
6648.00,0.85
6647.00,0.85
6646.00,0.85
6645.00,0.85
6644.00,0.85
6643.00,0.85
6642.00,0.85
6641.00,0.85
6640.00,0.85
6639.00,0.85
6638.00,0.85
6637.00,0.85
6636.00,0.85
6635.00,0.85
6634.00,0.85
6633.00,0.85
6632.00,0.85
6631.00,0.85
6630.00,0.85
6629.00,0.85
6628.00,0.85
6627.00,0.85
6626.00,0.85
6625.00,0.85
6624.00,0.85
6623.00,0.85
6622.00,0.85
6621.00,0.85
6620.00,0.85
6619.00,0.85
6618.00,0.86
6617.00,0.86
6616.00,0.86
6615.00,0.86
6614.00,0.86
6613.00,0.86
6612.00,0.86
6611.00,0.86
6610.00,0.87
6609.00,0.87
6608.00,0.87
6607.00,0.87
6606.00,0.87
6605.00,0.87
6604.00,0.88
6603.00,0.88
6602.00,0.88
6601.00,0.88
6600.00,0.89
6599.00,0.89
6598.00,0.89
6597.00,0.90
6596.00,0.90
6595.00,0.90
6594.00,0.90
6593.00,0.91
6592.00,0.91
6591.00,0.91
6590.00,0.91
6589.00,0.91
6588.00,0.92
6587.00,0.92
6586.00,0.92
6585.00,0.92
6584.00,0.92
6583.00,0.93
6582.00,0.93
6581.00,0.93
6580.00,0.93
6579.00,0.93
6578.00,0.93
6577.00,0.93
6576.00,0.93
6575.00,0.94
6574.00,0.94
6573.00,0.94
6572.00,0.94
6571.00,0.94
6570.00,0.94
6569.00,0.94
6568.00,0.94
6567.00,0.94
6566.00,0.93
6565.00,0.93
6564.00,0.93
6563.00,0.93
6562.00,0.94
6561.00,0.94
6560.00,0.94
6559.00,0.94
6558.00,0.94
6557.00,0.94
6556.00,0.94
6555.00,0.94
6554.00,0.94
6553.00,0.94
6552.00,0.94
6551.00,0.94
6550.00,0.94
6549.00,0.94
6548.00,0.94
6547.00,0.94
6546.00,0.94
6545.00,0.94
6544.00,0.94
6543.00,0.94
6542.00,0.94
6541.00,0.94
6540.00,0.94
6539.00,0.94
6538.00,0.94
6537.00,0.94
6536.00,0.94
6535.00,0.94
6534.00,0.94
6533.00,0.94
6532.00,0.93
6531.00,0.93
6530.00,0.93
6529.00,0.93
6528.00,0.93
6527.00,0.93
6526.00,0.93
6525.00,0.93
6524.00,0.93
6523.00,0.93
6522.00,0.93
6521.00,0.92
6520.00,0.92
6519.00,0.92
6518.00,0.92
6517.00,0.93
6516.00,0.93
6515.00,0.93
6514.00,0.93
6513.00,0.93
6512.00,0.93
6511.00,0.93
6510.00,0.93
6509.00,0.94
6508.00,0.94
6507.00,0.94
6506.00,0.94
6505.00,0.95
6504.00,0.95
6503.00,0.95
6502.00,0.95
6501.00,0.95
6500.00,0.96
6499.00,0.96
6498.00,0.96
6497.00,0.96
6496.00,0.97
6495.00,0.97
6494.00,0.97
6493.00,0.97
6492.00,0.97
6491.00,0.97
6490.00,0.97
6489.00,0.97
6488.00,0.97
6487.00,0.97
6486.00,0.97
6485.00,0.97
6484.00,0.98
6483.00,0.98
6482.00,0.98
6481.00,0.98
6480.00,0.98
6479.00,0.98
6478.00,0.98
6477.00,0.98
6476.00,0.98
6475.00,0.98
6474.00,0.98
6473.00,0.98
6472.00,0.99
6471.00,0.99
6470.00,0.99
6469.00,0.99
6468.00,0.99
6467.00,0.99
6466.00,0.99
6465.00,1.00
6464.00,1.00
6463.00,1.00
6462.00,1.00
6461.00,1.00
6460.00,1.00
6459.00,1.01
6458.00,1.01
6457.00,1.01
6456.00,1.01
6455.00,1.01
6454.00,1.01
6453.00,1.01
6452.00,1.01
6451.00,1.01
6450.00,1.01
6449.00,1.01
6448.00,1.01
6447.00,1.02
6446.00,1.02
6445.00,1.02
6444.00,1.02
6443.00,1.02
6442.00,1.02
6441.00,1.02
6440.00,1.02
6439.00,1.02
6438.00,1.02
6437.00,1.02
6436.00,1.02
6435.00,1.02
6434.00,1.02
6433.00,1.03
6432.00,1.03
6431.00,1.03
6430.00,1.03
6429.00,1.03
6428.00,1.03
6427.00,1.03
6426.00,1.03
6425.00,1.03
6424.00,1.03
6423.00,1.03
6422.00,1.03
6421.00,1.03
6420.00,1.03
6419.00,1.03
6418.00,1.03
6417.00,1.03
6416.00,1.03
6415.00,1.03
6414.00,1.03
6413.00,1.03
6412.00,1.03
6411.00,1.03
6410.00,1.03
6409.00,1.03
6408.00,1.03
6407.00,1.03
6406.00,1.03
6405.00,1.03
6404.00,1.03
6403.00,1.03
6402.00,1.03
6401.00,1.03
6400.00,1.03
6399.00,1.03
6398.00,1.03
6397.00,1.03
6396.00,1.03
6395.00,1.03
6394.00,1.03
6393.00,1.03
6392.00,1.03
6391.00,1.04
6390.00,1.04
6389.00,1.04
6388.00,1.04
6387.00,1.04
6386.00,1.04
6385.00,1.04
6384.00,1.05
6383.00,1.05
6382.00,1.05
6381.00,1.05
6380.00,1.05
6379.00,1.05
6378.00,1.05
6377.00,1.05
6376.00,1.05
6375.00,1.05
6374.00,1.06
6373.00,1.06
6372.00,1.06
6371.00,1.06
6370.00,1.06
6369.00,1.06
6368.00,1.07
6367.00,1.07
6366.00,1.07
6365.00,1.07
6364.00,1.07
6363.00,1.07
6362.00,1.07
6361.00,1.07
6360.00,1.07
6359.00,1.08
6358.00,1.08
6357.00,1.08
6356.00,1.08
6355.00,1.08
6354.00,1.08
6353.00,1.09
6352.00,1.09
6351.00,1.09
6350.00,1.09
6349.00,1.09
6348.00,1.09
6347.00,1.10
6346.00,1.10
6345.00,1.10
6344.00,1.10
6343.00,1.10
6342.00,1.10
6341.00,1.10
6340.00,1.10
6339.00,1.10
6338.00,1.11
6337.00,1.11
6336.00,1.11
6335.00,1.11
6334.00,1.11
6333.00,1.11
6332.00,1.11
6331.00,1.11
6330.00,1.11
6329.00,1.11
6328.00,1.11
6327.00,1.11
6326.00,1.11
6325.00,1.11
6324.00,1.11
6323.00,1.11
6322.00,1.11
6321.00,1.10
6320.00,1.10
6319.00,1.10
6318.00,1.10
6317.00,1.10
6316.00,1.10
6315.00,1.09
6314.00,1.09
6313.00,1.09
6312.00,1.09
6311.00,1.09
6310.00,1.09
6309.00,1.09
6308.00,1.09
6307.00,1.09
6306.00,1.09
6305.00,1.09
6304.00,1.09
6303.00,1.09
6302.00,1.09
6301.00,1.09
6300.00,1.09
6299.00,1.10
6298.00,1.10
6297.00,1.10
6296.00,1.10
6295.00,1.11
6294.00,1.11
6293.00,1.11
6292.00,1.12
6291.00,1.12
6290.00,1.12
6289.00,1.13
6288.00,1.13
6287.00,1.13
6286.00,1.14
6285.00,1.14
6284.00,1.14
6283.00,1.15
6282.00,1.15
6281.00,1.15
6280.00,1.15
6279.00,1.15
6278.00,1.15
6277.00,1.15
6276.00,1.16
6275.00,1.16
6274.00,1.16
6273.00,1.16
6272.00,1.16
6271.00,1.16
6270.00,1.16
6269.00,1.16
6268.00,1.16
6267.00,1.16
6266.00,1.16
6265.00,1.16
6264.00,1.16
6263.00,1.16
6262.00,1.16
6261.00,1.16
6260.00,1.16
6259.00,1.16
6258.00,1.16
6257.00,1.17
6256.00,1.17
6255.00,1.17
6254.00,1.17
6253.00,1.17
6252.00,1.17
6251.00,1.17
6250.00,1.18
6249.00,1.18
6248.00,1.18
6247.00,1.18
6246.00,1.18
6245.00,1.18
6244.00,1.18
6243.00,1.18
6242.00,1.18
6241.00,1.18
6240.00,1.18
6239.00,1.18
6238.00,1.18
6237.00,1.18
6236.00,1.18
6235.00,1.18
6234.00,1.18
6233.00,1.18
6232.00,1.18
6231.00,1.18
6230.00,1.18
6229.00,1.18
6228.00,1.18
6227.00,1.18
6226.00,1.18
6225.00,1.18
6224.00,1.18
6223.00,1.18
6222.00,1.18
6221.00,1.18
6220.00,1.18
6219.00,1.18
6218.00,1.18
6217.00,1.19
6216.00,1.19
6215.00,1.19
6214.00,1.20
6213.00,1.20
6212.00,1.20
6211.00,1.21
6210.00,1.21
6209.00,1.21
6208.00,1.21
6207.00,1.22
6206.00,1.22
6205.00,1.22
6204.00,1.23
6203.00,1.23
6202.00,1.23
6201.00,1.24
6200.00,1.24
6199.00,1.24
6198.00,1.25
6197.00,1.25
6196.00,1.25
6195.00,1.26
6194.00,1.26
6193.00,1.26
6192.00,1.26
6191.00,1.26
6190.00,1.26
6189.00,1.26
6188.00,1.27
6187.00,1.27
6186.00,1.27
6185.00,1.27
6184.00,1.27
6183.00,1.27
6182.00,1.27
6181.00,1.27
6180.00,1.27
6179.00,1.27
6178.00,1.27
6177.00,1.27
6176.00,1.27
6175.00,1.27
6174.00,1.27
6173.00,1.27
6172.00,1.26
6171.00,1.26
6170.00,1.26
6169.00,1.26
6168.00,1.26
6167.00,1.26
6166.00,1.27
6165.00,1.27
6164.00,1.27
6163.00,1.27
6162.00,1.27
6161.00,1.27
6160.00,1.27
6159.00,1.27
6158.00,1.27
6157.00,1.27
6156.00,1.27
6155.00,1.28
6154.00,1.28
6153.00,1.28
6152.00,1.28
6151.00,1.28
6150.00,1.28
6149.00,1.28
6148.00,1.28
6147.00,1.28
6146.00,1.29
6145.00,1.29
6144.00,1.29
6143.00,1.29
6142.00,1.29
6141.00,1.29
6140.00,1.29
6139.00,1.29
6138.00,1.29
6137.00,1.29
6136.00,1.29
6135.00,1.29
6134.00,1.29
6133.00,1.29
6132.00,1.29
6131.00,1.29
6130.00,1.29
6129.00,1.28
6128.00,1.28
6127.00,1.28
6126.00,1.29
6125.00,1.29
6124.00,1.29
6123.00,1.29
6122.00,1.29
6121.00,1.29
6120.00,1.29
6119.00,1.29
6118.00,1.29
6117.00,1.30
6116.00,1.30
6115.00,1.30
6114.00,1.30
6113.00,1.30
6112.00,1.30
6111.00,1.31
6110.00,1.31
6109.00,1.31
6108.00,1.31
6107.00,1.31
6106.00,1.31
6105.00,1.32
6104.00,1.32
6103.00,1.32
6102.00,1.32
6101.00,1.32
6100.00,1.32
6099.00,1.32
6098.00,1.32
6097.00,1.32
6096.00,1.32
6095.00,1.32
6094.00,1.32
6093.00,1.32
6092.00,1.32
6091.00,1.32
6090.00,1.32
6089.00,1.32
6088.00,1.32
6087.00,1.32
6086.00,1.32
6085.00,1.32
6084.00,1.32
6083.00,1.32
6082.00,1.32
6081.00,1.32
6080.00,1.32
6079.00,1.33
6078.00,1.33
6077.00,1.33
6076.00,1.33
6075.00,1.33
6074.00,1.33
6073.00,1.33
6072.00,1.33
6071.00,1.33
6070.00,1.33
6069.00,1.33
6068.00,1.33
6067.00,1.33
6066.00,1.33
6065.00,1.33
6064.00,1.33
6063.00,1.33
6062.00,1.33
6061.00,1.33
6060.00,1.33
6059.00,1.33
6058.00,1.33
6057.00,1.33
6056.00,1.33
6055.00,1.33
6054.00,1.34
6053.00,1.34
6052.00,1.34
6051.00,1.34
6050.00,1.34
6049.00,1.34
6048.00,1.34
6047.00,1.35
6046.00,1.35
6045.00,1.35
6044.00,1.35
6043.00,1.36
6042.00,1.36
6041.00,1.36
6040.00,1.36
6039.00,1.37
6038.00,1.37
6037.00,1.37
6036.00,1.38
6035.00,1.38
6034.00,1.38
6033.00,1.38
6032.00,1.39
6031.00,1.39
6030.00,1.39
6029.00,1.39
6028.00,1.39
6027.00,1.40
6026.00,1.40
6025.00,1.40
6024.00,1.40
6023.00,1.40
6022.00,1.40
6021.00,1.40
6020.00,1.40
6019.00,1.40
6018.00,1.40
6017.00,1.40
6016.00,1.40
6015.00,1.40
6014.00,1.40
6013.00,1.40
6012.00,1.40
6011.00,1.40
6010.00,1.40
6009.00,1.40
6008.00,1.40
6007.00,1.39
6006.00,1.39
6005.00,1.39
6004.00,1.39
6003.00,1.39
6002.00,1.39
6001.00,1.38
6000.00,1.38
5999.00,1.38
5998.00,1.38
5997.00,1.38
5996.00,1.37
5995.00,1.37
5994.00,1.37
5993.00,1.37
5992.00,1.37
5991.00,1.36
5990.00,1.36
5989.00,1.36
5988.00,1.36
5987.00,1.35
5986.00,1.35
5985.00,1.35
5984.00,1.34
5983.00,1.34
5982.00,1.34
5981.00,1.33
5980.00,1.33
5979.00,1.33
5978.00,1.32
5977.00,1.32
5976.00,1.32
5975.00,1.31
5974.00,1.31
5973.00,1.31
5972.00,1.30
5971.00,1.30
5970.00,1.30
5969.00,1.29
5968.00,1.29
5967.00,1.29
5966.00,1.28
5965.00,1.28
5964.00,1.28
5963.00,1.28
5962.00,1.27
5961.00,1.27
5960.00,1.27
5959.00,1.26
5958.00,1.26
5957.00,1.26
5956.00,1.25
5955.00,1.25
5954.00,1.25
5953.00,1.24
5952.00,1.24
5951.00,1.24
5950.00,1.24
5949.00,1.23
5948.00,1.23
5947.00,1.23
5946.00,1.22
5945.00,1.22
5944.00,1.22
5943.00,1.21
5942.00,1.21
5941.00,1.21
5940.00,1.21
5939.00,1.20
5938.00,1.20
5937.00,1.20
5936.00,1.20
5935.00,1.20
5934.00,1.20
5933.00,1.19
5932.00,1.19
5931.00,1.19
5930.00,1.19
5929.00,1.19
5928.00,1.19
5927.00,1.19
5926.00,1.19
5925.00,1.19
5924.00,1.18
5923.00,1.18
5922.00,1.18
5921.00,1.18
5920.00,1.18
5919.00,1.18
5918.00,1.18
5917.00,1.18
5916.00,1.18
5915.00,1.18
5914.00,1.18
5913.00,1.18
5912.00,1.18
5911.00,1.18
5910.00,1.17
5909.00,1.17
5908.00,1.17
5907.00,1.17
5906.00,1.17
5905.00,1.17
5904.00,1.17
5903.00,1.17
5902.00,1.17
5901.00,1.17
5900.00,1.17
5899.00,1.17
5898.00,1.17
5897.00,1.17
5896.00,1.17
5895.00,1.17
5894.00,1.17
5893.00,1.17
5892.00,1.17
5891.00,1.18
5890.00,1.18
5889.00,1.18
5888.00,1.18
5887.00,1.18
5886.00,1.18
5885.00,1.18
5884.00,1.19
5883.00,1.19
5882.00,1.19
5881.00,1.19
5880.00,1.20
5879.00,1.20
5878.00,1.20
5877.00,1.20
5876.00,1.20
5875.00,1.20
5874.00,1.21
5873.00,1.21
5872.00,1.21
5871.00,1.21
5870.00,1.21
5869.00,1.21
5868.00,1.21
5867.00,1.21
5866.00,1.21
5865.00,1.21
5864.00,1.21
5863.00,1.21
5862.00,1.21
5861.00,1.21
5860.00,1.21
5859.00,1.21
5858.00,1.21
5857.00,1.21
5856.00,1.21
5855.00,1.21
5854.00,1.21
5853.00,1.21
5852.00,1.21
5851.00,1.21
5850.00,1.21
5849.00,1.22
5848.00,1.22
5847.00,1.22
5846.00,1.22
5845.00,1.22
5844.00,1.22
5843.00,1.22
5842.00,1.22
5841.00,1.22
5840.00,1.22
5839.00,1.22
5838.00,1.22
5837.00,1.23
5836.00,1.23
5835.00,1.23
5834.00,1.23
5833.00,1.23
5832.00,1.23
5831.00,1.23
5830.00,1.23
5829.00,1.23
5828.00,1.23
5827.00,1.23
5826.00,1.23
5825.00,1.23
5824.00,1.23
5823.00,1.24
5822.00,1.24
5821.00,1.24
5820.00,1.24
5819.00,1.24
5818.00,1.24
5817.00,1.24
5816.00,1.24
5815.00,1.24
5814.00,1.24
5813.00,1.24
5812.00,1.24
5811.00,1.24
5810.00,1.24
5809.00,1.24
5808.00,1.24
5807.00,1.24
5806.00,1.24
5805.00,1.24
5804.00,1.24
5803.00,1.24
5802.00,1.24
5801.00,1.23
5800.00,1.23
5799.00,1.23
5798.00,1.23
5797.00,1.23
5796.00,1.22
5795.00,1.22
5794.00,1.22
5793.00,1.22
5792.00,1.22
5791.00,1.21
5790.00,1.21
5789.00,1.21
5788.00,1.21
5787.00,1.20
5786.00,1.20
5785.00,1.20
5784.00,1.20
5783.00,1.20
5782.00,1.19
5781.00,1.19
5780.00,1.19
5779.00,1.19
5778.00,1.19
5777.00,1.19
5776.00,1.19
5775.00,1.19
5774.00,1.19
5773.00,1.19
5772.00,1.19
5771.00,1.19
5770.00,1.19
5769.00,1.19
5768.00,1.20
5767.00,1.20
5766.00,1.20
5765.00,1.20
5764.00,1.20
5763.00,1.20
5762.00,1.21
5761.00,1.21
5760.00,1.21
5759.00,1.22
5758.00,1.22
5757.00,1.22
5756.00,1.22
5755.00,1.22
5754.00,1.23
5753.00,1.23
5752.00,1.23
5751.00,1.23
5750.00,1.23
5749.00,1.23
5748.00,1.23
5747.00,1.23
5746.00,1.24
5745.00,1.24
5744.00,1.24
5743.00,1.24
5742.00,1.24
5741.00,1.24
5740.00,1.24
5739.00,1.24
5738.00,1.24
5737.00,1.24
5736.00,1.24
5735.00,1.24
5734.00,1.24
5733.00,1.24
5732.00,1.24
5731.00,1.24
5730.00,1.24
5729.00,1.25
5728.00,1.25
5727.00,1.25
5726.00,1.25
5725.00,1.25
5724.00,1.25
5723.00,1.25
5722.00,1.25
5721.00,1.25
5720.00,1.25
5719.00,1.26
5718.00,1.26
5717.00,1.26
5716.00,1.26
5715.00,1.26
5714.00,1.26
5713.00,1.26
5712.00,1.26
5711.00,1.26
5710.00,1.27
5709.00,1.27
5708.00,1.26
5707.00,1.26
5706.00,1.26
5705.00,1.26
5704.00,1.26
5703.00,1.26
5702.00,1.26
5701.00,1.26
5700.00,1.25
5699.00,1.25
5698.00,1.25
5697.00,1.25
5696.00,1.25
5695.00,1.24
5694.00,1.24
5693.00,1.24
5692.00,1.24
5691.00,1.24
5690.00,1.23
5689.00,1.23
5688.00,1.23
5687.00,1.23
5686.00,1.23
5685.00,1.22
5684.00,1.22
5683.00,1.22
5682.00,1.22
5681.00,1.22
5680.00,1.22
5679.00,1.21
5678.00,1.21
5677.00,1.21
5676.00,1.21
5675.00,1.21
5674.00,1.21
5673.00,1.21
5672.00,1.21
5671.00,1.21
5670.00,1.21
5669.00,1.21
5668.00,1.21
5667.00,1.21
5666.00,1.21
5665.00,1.21
5664.00,1.21
5663.00,1.22
5662.00,1.22
5661.00,1.22
5660.00,1.22
5659.00,1.22
5658.00,1.23
5657.00,1.23
5656.00,1.23
5655.00,1.23
5654.00,1.23
5653.00,1.24
5652.00,1.24
5651.00,1.24
5650.00,1.24
5649.00,1.25
5648.00,1.25
5647.00,1.25
5646.00,1.25
5645.00,1.26
5644.00,1.26
5643.00,1.26
5642.00,1.26
5641.00,1.26
5640.00,1.26
5639.00,1.26
5638.00,1.26
5637.00,1.27
5636.00,1.27
5635.00,1.27
5634.00,1.27
5633.00,1.27
5632.00,1.27
5631.00,1.27
5630.00,1.27
5629.00,1.27
5628.00,1.27
5627.00,1.27
5626.00,1.27
5625.00,1.27
5624.00,1.28
5623.00,1.28
5622.00,1.28
5621.00,1.28
5620.00,1.28
5619.00,1.28
5618.00,1.28
5617.00,1.28
5616.00,1.28
5615.00,1.28
5614.00,1.28
5613.00,1.29
5612.00,1.29
5611.00,1.29
5610.00,1.29
5609.00,1.29
5608.00,1.29
5607.00,1.29
5606.00,1.30
5605.00,1.30
5604.00,1.30
5603.00,1.30
5602.00,1.30
5601.00,1.30
5600.00,1.30
5599.00,1.30
5598.00,1.30
5597.00,1.31
5596.00,1.31
5595.00,1.31
5594.00,1.31
5593.00,1.31
5592.00,1.32
5591.00,1.32
5590.00,1.32
5589.00,1.32
5588.00,1.32
5587.00,1.32
5586.00,1.33
5585.00,1.33
5584.00,1.33
5583.00,1.33
5582.00,1.33
5581.00,1.33
5580.00,1.34
5579.00,1.34
5578.00,1.34
5577.00,1.34
5576.00,1.34
5575.00,1.35
5574.00,1.35
5573.00,1.35
5572.00,1.35
5571.00,1.35
5570.00,1.35
5569.00,1.35
5568.00,1.35
5567.00,1.35
5566.00,1.35
5565.00,1.35
5564.00,1.35
5563.00,1.35
5562.00,1.36
5561.00,1.36
5560.00,1.36
5559.00,1.36
5558.00,1.36
5557.00,1.36
5556.00,1.36
5555.00,1.36
5554.00,1.36
5553.00,1.36
5552.00,1.36
5551.00,1.36
5550.00,1.36
5549.00,1.36
5548.00,1.36
5547.00,1.36
5546.00,1.36
5545.00,1.36
5544.00,1.36
5543.00,1.36
5542.00,1.36
5541.00,1.36
5540.00,1.36
5539.00,1.36
5538.00,1.37
5537.00,1.37
5536.00,1.37
5535.00,1.37
5534.00,1.37
5533.00,1.37
5532.00,1.37
5531.00,1.37
5530.00,1.37
5529.00,1.37
5528.00,1.37
5527.00,1.37
5526.00,1.37
5525.00,1.37
5524.00,1.37
5523.00,1.38
5522.00,1.38
5521.00,1.38
5520.00,1.38
5519.00,1.38
5518.00,1.38
5517.00,1.39
5516.00,1.39
5515.00,1.39
5514.00,1.39
5513.00,1.39
5512.00,1.39
5511.00,1.39
5510.00,1.40
5509.00,1.40
5508.00,1.40
5507.00,1.40
5506.00,1.41
5505.00,1.41
5504.00,1.41
5503.00,1.41
5502.00,1.41
5501.00,1.41
5500.00,1.42
5499.00,1.42
5498.00,1.42
5497.00,1.42
5496.00,1.42
5495.00,1.42
5494.00,1.42
5493.00,1.42
5492.00,1.43
5491.00,1.43
5490.00,1.43
5489.00,1.43
5488.00,1.43
5487.00,1.43
5486.00,1.43
5485.00,1.43
5484.00,1.43
5483.00,1.43
5482.00,1.43
5481.00,1.43
5480.00,1.43
5479.00,1.43
5478.00,1.43
5477.00,1.43
5476.00,1.43
5475.00,1.43
5474.00,1.43
5473.00,1.43
5472.00,1.43
5471.00,1.43
5470.00,1.43
5469.00,1.43
5468.00,1.43
5467.00,1.43
5466.00,1.43
5465.00,1.43
5464.00,1.43
5463.00,1.43
5462.00,1.43
5461.00,1.43
5460.00,1.43
5459.00,1.43
5458.00,1.43
5457.00,1.43
5456.00,1.43
5455.00,1.43
5454.00,1.43
5453.00,1.43
5452.00,1.42
5451.00,1.42
5450.00,1.42
5449.00,1.42
5448.00,1.42
5447.00,1.42
5446.00,1.42
5445.00,1.42
5444.00,1.42
5443.00,1.42
5442.00,1.42
5441.00,1.42
5440.00,1.43
5439.00,1.43
5438.00,1.43
5437.00,1.43
5436.00,1.43
5435.00,1.43
5434.00,1.43
5433.00,1.43
5432.00,1.43
5431.00,1.43
5430.00,1.43
5429.00,1.43
5428.00,1.43
5427.00,1.43
5426.00,1.43
5425.00,1.43
5424.00,1.43
5423.00,1.43
5422.00,1.43
5421.00,1.43
5420.00,1.43
5419.00,1.43
5418.00,1.43
5417.00,1.43
5416.00,1.42
5415.00,1.42
5414.00,1.42
5413.00,1.42
5412.00,1.42
5411.00,1.42
5410.00,1.42
5409.00,1.42
5408.00,1.42
5407.00,1.41
5406.00,1.41
5405.00,1.41
5404.00,1.41
5403.00,1.41
5402.00,1.41
5401.00,1.41
5400.00,1.40
5399.00,1.40
5398.00,1.40
5397.00,1.40
5396.00,1.40
5395.00,1.40
5394.00,1.40
5393.00,1.40
5392.00,1.40
5391.00,1.39
5390.00,1.39
5389.00,1.39
5388.00,1.39
5387.00,1.39
5386.00,1.39
5385.00,1.39
5384.00,1.39
5383.00,1.38
5382.00,1.38
5381.00,1.38
5380.00,1.38
5379.00,1.38
5378.00,1.38
5377.00,1.37
5376.00,1.37
5375.00,1.37
5374.00,1.37
5373.00,1.36
5372.00,1.36
5371.00,1.36
5370.00,1.35
5369.00,1.35
5368.00,1.35
5367.00,1.34
5366.00,1.34
5365.00,1.33
5364.00,1.33
5363.00,1.32
5362.00,1.32
5361.00,1.31
5360.00,1.31
5359.00,1.30
5358.00,1.29
5357.00,1.29
5356.00,1.28
5355.00,1.27
5354.00,1.27
5353.00,1.26
5352.00,1.25
5351.00,1.25
5350.00,1.24
5349.00,1.23
5348.00,1.23
5347.00,1.22
5346.00,1.21
5345.00,1.21
5344.00,1.20
5343.00,1.19
5342.00,1.19
5341.00,1.18
5340.00,1.17
5339.00,1.16
5338.00,1.16
5337.00,1.15
5336.00,1.14
5335.00,1.13
5334.00,1.13
5333.00,1.12
5332.00,1.11
5331.00,1.10
5330.00,1.10
5329.00,1.09
5328.00,1.08
5327.00,1.07
5326.00,1.06
5325.00,1.06
5324.00,1.05
5323.00,1.04
5322.00,1.03
5321.00,1.02
5320.00,1.02
5319.00,1.01
5318.00,1.00
5317.00,0.99
5316.00,0.98
5315.00,0.97
5314.00,0.97
5313.00,0.96
5312.00,0.95
5311.00,0.94
5310.00,0.93
5309.00,0.92
5308.00,0.92
5307.00,0.91
5306.00,0.90
5305.00,0.89
5304.00,0.88
5303.00,0.88
5302.00,0.87
5301.00,0.86
5300.00,0.85
5299.00,0.84
5298.00,0.84
5297.00,0.83
5296.00,0.82
5295.00,0.81
5294.00,0.81
5293.00,0.80
5292.00,0.79
5291.00,0.78
5290.00,0.78
5289.00,0.77
5288.00,0.76
5287.00,0.76
5286.00,0.75
5285.00,0.74
5284.00,0.74
5283.00,0.73
5282.00,0.73
5281.00,0.72
5280.00,0.72
5279.00,0.71
5278.00,0.71
5277.00,0.70
5276.00,0.70
5275.00,0.70
5274.00,0.69
5273.00,0.69
5272.00,0.69
5271.00,0.68
5270.00,0.68
5269.00,0.68
5268.00,0.68
5267.00,0.67
5266.00,0.67
5265.00,0.67
5264.00,0.67
5263.00,0.67
5262.00,0.67
5261.00,0.67
5260.00,0.67
5259.00,0.67
5258.00,0.67
5257.00,0.67
5256.00,0.67
5255.00,0.67
5254.00,0.67
5253.00,0.67
5252.00,0.67
5251.00,0.67
5250.00,0.67
5249.00,0.67
5248.00,0.67
5247.00,0.67
5246.00,0.67
5245.00,0.67
5244.00,0.67
5243.00,0.67
5242.00,0.67
5241.00,0.67
5240.00,0.67
5239.00,0.66
5238.00,0.66
5237.00,0.66
5236.00,0.66
5235.00,0.66
5234.00,0.66
5233.00,0.66
5232.00,0.66
5231.00,0.66
5230.00,0.66
5229.00,0.65
5228.00,0.65
5227.00,0.65
5226.00,0.65
5225.00,0.65
5224.00,0.65
5223.00,0.65
5222.00,0.65
5221.00,0.64
5220.00,0.64
5219.00,0.64
5218.00,0.64
5217.00,0.64
5216.00,0.64
5215.00,0.64
5214.00,0.64
5213.00,0.64
5212.00,0.63
5211.00,0.63
5210.00,0.63
5209.00,0.63
5208.00,0.63
5207.00,0.63
5206.00,0.63
5205.00,0.63
5204.00,0.63
5203.00,0.63
5202.00,0.63
5201.00,0.63
5200.00,0.63
5199.00,0.63
5198.00,0.63
5197.00,0.63
5196.00,0.63
5195.00,0.63
5194.00,0.63
5193.00,0.64
5192.00,0.64
5191.00,0.64
5190.00,0.64
5189.00,0.64
5188.00,0.64
5187.00,0.65
5186.00,0.65
5185.00,0.65
5184.00,0.65
5183.00,0.65
5182.00,0.65
5181.00,0.66
5180.00,0.66
5179.00,0.66
5178.00,0.66
5177.00,0.66
5176.00,0.66
5175.00,0.66
5174.00,0.66
5173.00,0.66
5172.00,0.67
5171.00,0.67
5170.00,0.67
5169.00,0.67
5168.00,0.67
5167.00,0.67
5166.00,0.67
5165.00,0.67
5164.00,0.67
5163.00,0.67
5162.00,0.67
5161.00,0.67
5160.00,0.67
5159.00,0.67
5158.00,0.67
5157.00,0.67
5156.00,0.67
5155.00,0.67
5154.00,0.67
5153.00,0.67
5152.00,0.67
5151.00,0.67
5150.00,0.67
5149.00,0.67
5148.00,0.67
5147.00,0.67
5146.00,0.67
5145.00,0.67
5144.00,0.67
5143.00,0.67
5142.00,0.67
5141.00,0.68
5140.00,0.68
5139.00,0.68
5138.00,0.68
5137.00,0.68
5136.00,0.68
5135.00,0.68
5134.00,0.68
5133.00,0.68
5132.00,0.68
5131.00,0.68
5130.00,0.68
5129.00,0.68
5128.00,0.68
5127.00,0.68
5126.00,0.68
5125.00,0.69
5124.00,0.69
5123.00,0.69
5122.00,0.69
5121.00,0.69
5120.00,0.69
5119.00,0.69
5118.00,0.69
5117.00,0.70
5116.00,0.70
5115.00,0.70
5114.00,0.70
5113.00,0.70
5112.00,0.70
5111.00,0.70
5110.00,0.70
5109.00,0.70
5108.00,0.71
5107.00,0.71
5106.00,0.71
5105.00,0.71
5104.00,0.71
5103.00,0.71
5102.00,0.71
5101.00,0.71
5100.00,0.71
5099.00,0.71
5098.00,0.71
5097.00,0.71
5096.00,0.71
5095.00,0.71
5094.00,0.71
5093.00,0.71
5092.00,0.71
5091.00,0.71
5090.00,0.71
5089.00,0.71
5088.00,0.71
5087.00,0.71
5086.00,0.71
5085.00,0.71
5084.00,0.71
5083.00,0.71
5082.00,0.71
5081.00,0.71
5080.00,0.71
5079.00,0.71
5078.00,0.71
5077.00,0.72
5076.00,0.72
5075.00,0.72
5074.00,0.72
5073.00,0.72
5072.00,0.73
5071.00,0.73
5070.00,0.73
5069.00,0.73
5068.00,0.73
5067.00,0.73
5066.00,0.74
5065.00,0.74
5064.00,0.74
5063.00,0.74
5062.00,0.74
5061.00,0.74
5060.00,0.75
5059.00,0.75
5058.00,0.75
5057.00,0.75
5056.00,0.75
5055.00,0.75
5054.00,0.75
5053.00,0.75
5052.00,0.76
5051.00,0.76
5050.00,0.76
5049.00,0.76
5048.00,0.76
5047.00,0.76
5046.00,0.76
5045.00,0.76
5044.00,0.76
5043.00,0.76
5042.00,0.76
5041.00,0.76
5040.00,0.76
5039.00,0.77
5038.00,0.77
5037.00,0.77
5036.00,0.77
5035.00,0.77
5034.00,0.77
5033.00,0.77
5032.00,0.77
5031.00,0.77
5030.00,0.78
5029.00,0.78
5028.00,0.78
5027.00,0.78
5026.00,0.78
5025.00,0.78
5024.00,0.78
5023.00,0.78
5022.00,0.78
5021.00,0.78
5020.00,0.78
5019.00,0.78
5018.00,0.79
5017.00,0.79
5016.00,0.79
5015.00,0.79
5014.00,0.79
5013.00,0.79
5012.00,0.79
5011.00,0.79
5010.00,0.79
5009.00,0.79
5008.00,0.79
5007.00,0.79
5006.00,0.79
5005.00,0.79
5004.00,0.79
5003.00,0.79
5002.00,0.79
5001.00,0.79
5000.00,0.79
4999.00,0.79
4998.00,0.79
4997.00,0.79
4996.00,0.80
4995.00,0.80
4994.00,0.80
4993.00,0.80
4992.00,0.80
4991.00,0.80
4990.00,0.80
4989.00,0.81
4988.00,0.81
4987.00,0.81
4986.00,0.81
4985.00,0.81
4984.00,0.82
4983.00,0.82
4982.00,0.82
4981.00,0.82
4980.00,0.83
4979.00,0.83
4978.00,0.83
4977.00,0.83
4976.00,0.84
4975.00,0.84
4974.00,0.84
4973.00,0.84
4972.00,0.84
4971.00,0.84
4970.00,0.85
4969.00,0.85
4968.00,0.85
4967.00,0.85
4966.00,0.85
4965.00,0.85
4964.00,0.85
4963.00,0.85
4962.00,0.85
4961.00,0.85
4960.00,0.85
4959.00,0.85
4958.00,0.85
4957.00,0.85
4956.00,0.85
4955.00,0.85
4954.00,0.85
4953.00,0.85
4952.00,0.85
4951.00,0.85
4950.00,0.85
4949.00,0.85
4948.00,0.85
4947.00,0.85
4946.00,0.85
4945.00,0.85
4944.00,0.85
4943.00,0.85
4942.00,0.85
4941.00,0.85
4940.00,0.85
4939.00,0.85
4938.00,0.85
4937.00,0.86
4936.00,0.86
4935.00,0.86
4934.00,0.86
4933.00,0.86
4932.00,0.87
4931.00,0.87
4930.00,0.87
4929.00,0.87
4928.00,0.87
4927.00,0.88
4926.00,0.88
4925.00,0.88
4924.00,0.88
4923.00,0.89
4922.00,0.89
4921.00,0.89
4920.00,0.90
4919.00,0.90
4918.00,0.90
4917.00,0.90
4916.00,0.91
4915.00,0.91
4914.00,0.91
4913.00,0.91
4912.00,0.91
4911.00,0.91
4910.00,0.91
4909.00,0.91
4908.00,0.92
4907.00,0.92
4906.00,0.92
4905.00,0.92
4904.00,0.92
4903.00,0.92
4902.00,0.92
4901.00,0.92
4900.00,0.92
4899.00,0.92
4898.00,0.92
4897.00,0.92
4896.00,0.92
4895.00,0.93
4894.00,0.93
4893.00,0.93
4892.00,0.93
4891.00,0.93
4890.00,0.93
4889.00,0.92
4888.00,0.92
4887.00,0.92
4886.00,0.92
4885.00,0.92
4884.00,0.92
4883.00,0.92
4882.00,0.92
4881.00,0.92
4880.00,0.92
4879.00,0.91
4878.00,0.91
4877.00,0.91
4876.00,0.91
4875.00,0.91
4874.00,0.91
4873.00,0.91
4872.00,0.91
4871.00,0.91
4870.00,0.91
4869.00,0.91
4868.00,0.90
4867.00,0.90
4866.00,0.90
4865.00,0.90
4864.00,0.90
4863.00,0.90
4862.00,0.90
4861.00,0.90
4860.00,0.90
4859.00,0.91
4858.00,0.91
4857.00,0.91
4856.00,0.91
4855.00,0.91
4854.00,0.92
4853.00,0.92
4852.00,0.92
4851.00,0.92
4850.00,0.92
4849.00,0.92
4848.00,0.92
4847.00,0.92
4846.00,0.93
4845.00,0.93
4844.00,0.93
4843.00,0.93
4842.00,0.93
4841.00,0.94
4840.00,0.94
4839.00,0.94
4838.00,0.95
4837.00,0.95
4836.00,0.95
4835.00,0.95
4834.00,0.95
4833.00,0.95
4832.00,0.96
4831.00,0.96
4830.00,0.96
4829.00,0.96
4828.00,0.96
4827.00,0.96
4826.00,0.96
4825.00,0.97
4824.00,0.97
4823.00,0.97
4822.00,0.97
4821.00,0.98
4820.00,0.98
4819.00,0.98
4818.00,0.98
4817.00,0.99
4816.00,0.99
4815.00,0.99
4814.00,0.99
4813.00,0.99
4812.00,0.99
4811.00,1.00
4810.00,1.00
4809.00,1.00
4808.00,1.00
4807.00,1.01
4806.00,1.01
4805.00,1.01
4804.00,1.01
4803.00,1.02
4802.00,1.02
4801.00,1.02
4800.00,1.02
4799.00,1.02
4798.00,1.03
4797.00,1.03
4796.00,1.03
4795.00,1.03
4794.00,1.03
4793.00,1.03
4792.00,1.03
4791.00,1.03
4790.00,1.04
4789.00,1.04
4788.00,1.04
4787.00,1.04
4786.00,1.04
4785.00,1.04
4784.00,1.05
4783.00,1.05
4782.00,1.05
4781.00,1.05
4780.00,1.05
4779.00,1.05
4778.00,1.05
4777.00,1.05
4776.00,1.05
4775.00,1.05
4774.00,1.06
4773.00,1.06
4772.00,1.06
4771.00,1.06
4770.00,1.06
4769.00,1.06
4768.00,1.06
4767.00,1.06
4766.00,1.07
4765.00,1.07
4764.00,1.07
4763.00,1.07
4762.00,1.07
4761.00,1.07
4760.00,1.07
4759.00,1.07
4758.00,1.07
4757.00,1.07
4756.00,1.07
4755.00,1.07
4754.00,1.07
4753.00,1.07
4752.00,1.07
4751.00,1.07
4750.00,1.08
4749.00,1.08
4748.00,1.08
4747.00,1.08
4746.00,1.08
4745.00,1.08
4744.00,1.08
4743.00,1.08
4742.00,1.08
4741.00,1.08
4740.00,1.08
4739.00,1.08
4738.00,1.08
4737.00,1.08
4736.00,1.08
4735.00,1.09
4734.00,1.09
4733.00,1.09
4732.00,1.09
4731.00,1.09
4730.00,1.09
4729.00,1.09
4728.00,1.09
4727.00,1.09
4726.00,1.09
4725.00,1.09
4724.00,1.09
4723.00,1.09
4722.00,1.09
4721.00,1.09
4720.00,1.10
4719.00,1.10
4718.00,1.10
4717.00,1.10
4716.00,1.10
4715.00,1.10
4714.00,1.11
4713.00,1.11
4712.00,1.11
4711.00,1.11
4710.00,1.11
4709.00,1.12
4708.00,1.12
4707.00,1.12
4706.00,1.12
4705.00,1.13
4704.00,1.13
4703.00,1.13
4702.00,1.13
4701.00,1.14
4700.00,1.14
4699.00,1.15
4698.00,1.15
4697.00,1.15
4696.00,1.16
4695.00,1.16
4694.00,1.16
4693.00,1.17
4692.00,1.17
4691.00,1.18
4690.00,1.18
4689.00,1.19
4688.00,1.19
4687.00,1.20
4686.00,1.20
4685.00,1.21
4684.00,1.21
4683.00,1.22
4682.00,1.22
4681.00,1.22
4680.00,1.23
4679.00,1.23
4678.00,1.24
4677.00,1.24
4676.00,1.25
4675.00,1.25
4674.00,1.25
4673.00,1.26
4672.00,1.26
4671.00,1.26
4670.00,1.27
4669.00,1.27
4668.00,1.27
4667.00,1.27
4666.00,1.28
4665.00,1.28
4664.00,1.28
4663.00,1.28
4662.00,1.28
4661.00,1.28
4660.00,1.28
4659.00,1.28
4658.00,1.28
4657.00,1.28
4656.00,1.28
4655.00,1.28
4654.00,1.28
4653.00,1.27
4652.00,1.27
4651.00,1.27
4650.00,1.27
4649.00,1.27
4648.00,1.27
4647.00,1.26
4646.00,1.26
4645.00,1.26
4644.00,1.26
4643.00,1.26
4642.00,1.26
4641.00,1.26
4640.00,1.25
4639.00,1.25
4638.00,1.25
4637.00,1.25
4636.00,1.25
4635.00,1.25
4634.00,1.25
4633.00,1.25
4632.00,1.25
4631.00,1.26
4630.00,1.26
4629.00,1.26
4628.00,1.26
4627.00,1.27
4626.00,1.27
4625.00,1.27
4624.00,1.28
4623.00,1.28
4622.00,1.29
4621.00,1.29
4620.00,1.29
4619.00,1.30
4618.00,1.30
4617.00,1.31
4616.00,1.31
4615.00,1.31
4614.00,1.32
4613.00,1.32
4612.00,1.33
4611.00,1.33
4610.00,1.33
4609.00,1.34
4608.00,1.34
4607.00,1.34
4606.00,1.34
4605.00,1.35
4604.00,1.35
4603.00,1.35
4602.00,1.35
4601.00,1.36
4600.00,1.36
4599.00,1.36
4598.00,1.36
4597.00,1.36
4596.00,1.36
4595.00,1.36
4594.00,1.36
4593.00,1.36
4592.00,1.36
4591.00,1.36
4590.00,1.36
4589.00,1.36
4588.00,1.36
4587.00,1.36
4586.00,1.35
4585.00,1.35
4584.00,1.35
4583.00,1.35
4582.00,1.35
4581.00,1.35
4580.00,1.35
4579.00,1.35
4578.00,1.35
4577.00,1.35
4576.00,1.35
4575.00,1.35
4574.00,1.35
4573.00,1.34
4572.00,1.34
4571.00,1.34
4570.00,1.34
4569.00,1.34
4568.00,1.35
4567.00,1.35
4566.00,1.35
4565.00,1.35
4564.00,1.35
4563.00,1.35
4562.00,1.36
4561.00,1.36
4560.00,1.36
4559.00,1.36
4558.00,1.36
4557.00,1.37
4556.00,1.37
4555.00,1.37
4554.00,1.37
4553.00,1.37
4552.00,1.38
4551.00,1.38
4550.00,1.38
4549.00,1.38
4548.00,1.39
4547.00,1.39
4546.00,1.39
4545.00,1.39
4544.00,1.39
4543.00,1.40
4542.00,1.40
4541.00,1.40
4540.00,1.40
4539.00,1.40
4538.00,1.40
4537.00,1.39
4536.00,1.39
4535.00,1.39
4534.00,1.39
4533.00,1.39
4532.00,1.39
4531.00,1.39
4530.00,1.38
4529.00,1.38
4528.00,1.38
4527.00,1.38
4526.00,1.38
4525.00,1.38
4524.00,1.37
4523.00,1.37
4522.00,1.37
4521.00,1.37
4520.00,1.37
4519.00,1.37
4518.00,1.37
4517.00,1.36
4516.00,1.36
4515.00,1.36
4514.00,1.36
4513.00,1.36
4512.00,1.36
4511.00,1.36
4510.00,1.36
4509.00,1.36
4508.00,1.36
4507.00,1.36
4506.00,1.36
4505.00,1.36
4504.00,1.36
4503.00,1.36
4502.00,1.36
4501.00,1.36
4500.00,1.36
4499.00,1.36
4498.00,1.36
4497.00,1.36
4496.00,1.36
4495.00,1.36
4494.00,1.36
4493.00,1.36
4492.00,1.36
4491.00,1.35
4490.00,1.35
4489.00,1.35
4488.00,1.35
4487.00,1.35
4486.00,1.35
4485.00,1.35
4484.00,1.35
4483.00,1.35
4482.00,1.35
4481.00,1.35
4480.00,1.35
4479.00,1.35
4478.00,1.35
4477.00,1.35
4476.00,1.35
4475.00,1.35
4474.00,1.35
4473.00,1.35
4472.00,1.35
4471.00,1.35
4470.00,1.34
4469.00,1.34
4468.00,1.34
4467.00,1.34
4466.00,1.34
4465.00,1.34
4464.00,1.34
4463.00,1.34
4462.00,1.33
4461.00,1.33
4460.00,1.33
4459.00,1.33
4458.00,1.32
4457.00,1.32
4456.00,1.32
4455.00,1.31
4454.00,1.31
4453.00,1.30
4452.00,1.30
4451.00,1.29
4450.00,1.29
4449.00,1.28
4448.00,1.28
4447.00,1.27
4446.00,1.26
4445.00,1.26
4444.00,1.25
4443.00,1.25
4442.00,1.24
4441.00,1.23
4440.00,1.23
4439.00,1.22
4438.00,1.21
4437.00,1.21
4436.00,1.20
4435.00,1.19
4434.00,1.19
4433.00,1.18
4432.00,1.17
4431.00,1.17
4430.00,1.16
4429.00,1.16
4428.00,1.15
4427.00,1.15
4426.00,1.15
4425.00,1.14
4424.00,1.14
4423.00,1.14
4422.00,1.13
4421.00,1.13
4420.00,1.13
4419.00,1.12
4418.00,1.12
4417.00,1.12
4416.00,1.11
4415.00,1.11
4414.00,1.11
4413.00,1.11
4412.00,1.10
4411.00,1.10
4410.00,1.10
4409.00,1.10
4408.00,1.09
4407.00,1.09
4406.00,1.09
4405.00,1.09
4404.00,1.09
4403.00,1.08
4402.00,1.08
4401.00,1.08
4400.00,1.08
4399.00,1.08
4398.00,1.08
4397.00,1.07
4396.00,1.07
4395.00,1.07
4394.00,1.07
4393.00,1.07
4392.00,1.07
4391.00,1.07
4390.00,1.08
4389.00,1.08
4388.00,1.08
4387.00,1.08
4386.00,1.08
4385.00,1.08
4384.00,1.08
4383.00,1.08
4382.00,1.09
4381.00,1.09
4380.00,1.09
4379.00,1.09
4378.00,1.09
4377.00,1.10
4376.00,1.10
4375.00,1.10
4374.00,1.10
4373.00,1.11
4372.00,1.11
4371.00,1.11
4370.00,1.11
4369.00,1.11
4368.00,1.11
4367.00,1.12
4366.00,1.12
4365.00,1.12
4364.00,1.12
4363.00,1.12
4362.00,1.12
4361.00,1.12
4360.00,1.12
4359.00,1.12
4358.00,1.12
4357.00,1.12
4356.00,1.12
4355.00,1.12
4354.00,1.12
4353.00,1.12
4352.00,1.12
4351.00,1.12
4350.00,1.12
4349.00,1.11
4348.00,1.11
4347.00,1.11
4346.00,1.11
4345.00,1.11
4344.00,1.11
4343.00,1.10
4342.00,1.10
4341.00,1.10
4340.00,1.10
4339.00,1.10
4338.00,1.10
4337.00,1.10
4336.00,1.10
4335.00,1.10
4334.00,1.10
4333.00,1.10
4332.00,1.10
4331.00,1.10
4330.00,1.11
4329.00,1.11
4328.00,1.11
4327.00,1.11
4326.00,1.12
4325.00,1.12
4324.00,1.13
4323.00,1.13
4322.00,1.14
4321.00,1.15
4320.00,1.15
4319.00,1.16
4318.00,1.17
4317.00,1.17
4316.00,1.18
4315.00,1.19
4314.00,1.20
4313.00,1.20
4312.00,1.21
4311.00,1.22
4310.00,1.22
4309.00,1.23
4308.00,1.24
4307.00,1.25
4306.00,1.25
4305.00,1.26
4304.00,1.26
4303.00,1.27
4302.00,1.27
4301.00,1.28
4300.00,1.28
4299.00,1.28
4298.00,1.29
4297.00,1.29
4296.00,1.29
4295.00,1.29
4294.00,1.29
4293.00,1.29
4292.00,1.29
4291.00,1.29
4290.00,1.29
4289.00,1.29
4288.00,1.29
4287.00,1.28
4286.00,1.28
4285.00,1.28
4284.00,1.28
4283.00,1.28
4282.00,1.27
4281.00,1.27
4280.00,1.27
4279.00,1.26
4278.00,1.26
4277.00,1.25
4276.00,1.25
4275.00,1.25
4274.00,1.25
4273.00,1.24
4272.00,1.24
4271.00,1.24
4270.00,1.24
4269.00,1.24
4268.00,1.24
4267.00,1.23
4266.00,1.23
4265.00,1.23
4264.00,1.23
4263.00,1.23
4262.00,1.23
4261.00,1.23
4260.00,1.22
4259.00,1.22
4258.00,1.22
4257.00,1.22
4256.00,1.21
4255.00,1.21
4254.00,1.21
4253.00,1.21
4252.00,1.21
4251.00,1.20
4250.00,1.20
4249.00,1.20
4248.00,1.20
4247.00,1.20
4246.00,1.19
4245.00,1.19
4244.00,1.19
4243.00,1.19
4242.00,1.19
4241.00,1.19
4240.00,1.19
4239.00,1.19
4238.00,1.19
4237.00,1.19
4236.00,1.19
4235.00,1.19
4234.00,1.19
4233.00,1.19
4232.00,1.20
4231.00,1.20
4230.00,1.20
4229.00,1.21
4228.00,1.21
4227.00,1.21
4226.00,1.22
4225.00,1.22
4224.00,1.23
4223.00,1.23
4222.00,1.24
4221.00,1.24
4220.00,1.24
4219.00,1.25
4218.00,1.25
4217.00,1.26
4216.00,1.26
4215.00,1.26
4214.00,1.26
4213.00,1.26
4212.00,1.26
4211.00,1.26
4210.00,1.26
4209.00,1.26
4208.00,1.26
4207.00,1.26
4206.00,1.26
4205.00,1.25
4204.00,1.25
4203.00,1.25
4202.00,1.25
4201.00,1.25
4200.00,1.25
4199.00,1.25
4198.00,1.25
4197.00,1.25
4196.00,1.25
4195.00,1.25
4194.00,1.25
4193.00,1.25
4192.00,1.25
4191.00,1.25
4190.00,1.25
4189.00,1.25
4188.00,1.25
4187.00,1.25
4186.00,1.25
4185.00,1.26
4184.00,1.26
4183.00,1.26
4182.00,1.26
4181.00,1.27
4180.00,1.27
4179.00,1.27
4178.00,1.27
4177.00,1.28
4176.00,1.28
4175.00,1.28
4174.00,1.28
4173.00,1.28
4172.00,1.28
4171.00,1.28
4170.00,1.27
4169.00,1.27
4168.00,1.27
4167.00,1.27
4166.00,1.26
4165.00,1.26
4164.00,1.26
4163.00,1.26
4162.00,1.25
4161.00,1.25
4160.00,1.25
4159.00,1.24
4158.00,1.24
4157.00,1.24
4156.00,1.23
4155.00,1.23
4154.00,1.23
4153.00,1.22
4152.00,1.22
4151.00,1.21
4150.00,1.21
4149.00,1.21
4148.00,1.21
4147.00,1.20
4146.00,1.20
4145.00,1.20
4144.00,1.20
4143.00,1.20
4142.00,1.20
4141.00,1.20
4140.00,1.19
4139.00,1.19
4138.00,1.19
4137.00,1.19
4136.00,1.19
4135.00,1.19
4134.00,1.19
4133.00,1.19
4132.00,1.19
4131.00,1.19
4130.00,1.19
4129.00,1.20
4128.00,1.20
4127.00,1.20
4126.00,1.20
4125.00,1.20
4124.00,1.20
4123.00,1.20
4122.00,1.21
4121.00,1.21
4120.00,1.21
4119.00,1.21
4118.00,1.21
4117.00,1.21
4116.00,1.21
4115.00,1.21
4114.00,1.21
4113.00,1.21
4112.00,1.22
4111.00,1.22
4110.00,1.22
4109.00,1.22
4108.00,1.22
4107.00,1.22
4106.00,1.22
4105.00,1.22
4104.00,1.21
4103.00,1.21
4102.00,1.21
4101.00,1.21
4100.00,1.21
4099.00,1.21
4098.00,1.21
4097.00,1.21
4096.00,1.21
4095.00,1.21
4094.00,1.21
4093.00,1.21
4092.00,1.21
4091.00,1.21
4090.00,1.21
4089.00,1.21
4088.00,1.21
4087.00,1.21
4086.00,1.21
4085.00,1.21
4084.00,1.21
4083.00,1.21
4082.00,1.21
4081.00,1.21
4080.00,1.22
4079.00,1.22
4078.00,1.22
4077.00,1.22
4076.00,1.23
4075.00,1.23
4074.00,1.24
4073.00,1.24
4072.00,1.25
4071.00,1.25
4070.00,1.26
4069.00,1.26
4068.00,1.26
4067.00,1.27
4066.00,1.27
4065.00,1.28
4064.00,1.29
4063.00,1.29
4062.00,1.30
4061.00,1.30
4060.00,1.31
4059.00,1.32
4058.00,1.32
4057.00,1.33
4056.00,1.33
4055.00,1.34
4054.00,1.34
4053.00,1.35
4052.00,1.35
4051.00,1.36
4050.00,1.36
4049.00,1.36
4048.00,1.36
4047.00,1.36
4046.00,1.37
4045.00,1.37
4044.00,1.37
4043.00,1.37
4042.00,1.37
4041.00,1.37
4040.00,1.37
4039.00,1.37
4038.00,1.37
4037.00,1.37
4036.00,1.37
4035.00,1.37
4034.00,1.37
4033.00,1.37
4032.00,1.37
4031.00,1.37
4030.00,1.38
4029.00,1.38
4028.00,1.38
4027.00,1.38
4026.00,1.38
4025.00,1.38
4024.00,1.39
4023.00,1.39
4022.00,1.39
4021.00,1.39
4020.00,1.39
4019.00,1.39
4018.00,1.39
4017.00,1.39
4016.00,1.39
4015.00,1.39
4014.00,1.38
4013.00,1.38
4012.00,1.38
4011.00,1.37
4010.00,1.37
4009.00,1.36
4008.00,1.36
4007.00,1.35
4006.00,1.34
4005.00,1.33
4004.00,1.33
4003.00,1.32
4002.00,1.31
4001.00,1.30
4000.00,1.29
