创建为新数据集,样品 405 用户 Administrator 日期 星期日, 七月 28 2019
cm-1,%T
10000.00,3.26
9999.00,3.24
9998.00,3.22
9997.00,3.20
9996.00,3.19
9995.00,3.17
9994.00,3.15
9993.00,3.13
9992.00,3.11
9991.00,3.10
9990.00,3.08
9989.00,3.06
9988.00,3.04
9987.00,3.02
9986.00,3.01
9985.00,2.99
9984.00,2.97
9983.00,2.95
9982.00,2.94
9981.00,2.92
9980.00,2.91
9979.00,2.89
9978.00,2.88
9977.00,2.86
9976.00,2.85
9975.00,2.83
9974.00,2.82
9973.00,2.80
9972.00,2.79
9971.00,2.77
9970.00,2.76
9969.00,2.74
9968.00,2.72
9967.00,2.71
9966.00,2.69
9965.00,2.68
9964.00,2.67
9963.00,2.66
9962.00,2.65
9961.00,2.64
9960.00,2.63
9959.00,2.63
9958.00,2.63
9957.00,2.62
9956.00,2.62
9955.00,2.62
9954.00,2.62
9953.00,2.61
9952.00,2.61
9951.00,2.61
9950.00,2.60
9949.00,2.60
9948.00,2.59
9947.00,2.59
9946.00,2.58
9945.00,2.58
9944.00,2.58
9943.00,2.58
9942.00,2.58
9941.00,2.58
9940.00,2.58
9939.00,2.58
9938.00,2.58
9937.00,2.58
9936.00,2.59
9935.00,2.59
9934.00,2.59
9933.00,2.59
9932.00,2.59
9931.00,2.59
9930.00,2.59
9929.00,2.59
9928.00,2.60
9927.00,2.60
9926.00,2.60
9925.00,2.61
9924.00,2.61
9923.00,2.62
9922.00,2.62
9921.00,2.63
9920.00,2.64
9919.00,2.65
9918.00,2.65
9917.00,2.66
9916.00,2.66
9915.00,2.67
9914.00,2.67
9913.00,2.68
9912.00,2.68
9911.00,2.68
9910.00,2.68
9909.00,2.68
9908.00,2.68
9907.00,2.68
9906.00,2.67
9905.00,2.67
9904.00,2.67
9903.00,2.66
9902.00,2.66
9901.00,2.66
9900.00,2.65
9899.00,2.65
9898.00,2.64
9897.00,2.64
9896.00,2.63
9895.00,2.63
9894.00,2.63
9893.00,2.62
9892.00,2.62
9891.00,2.62
9890.00,2.61
9889.00,2.61
9888.00,2.61
9887.00,2.61
9886.00,2.61
9885.00,2.61
9884.00,2.61
9883.00,2.61
9882.00,2.61
9881.00,2.61
9880.00,2.61
9879.00,2.61
9878.00,2.61
9877.00,2.61
9876.00,2.61
9875.00,2.62
9874.00,2.62
9873.00,2.62
9872.00,2.62
9871.00,2.61
9870.00,2.61
9869.00,2.61
9868.00,2.61
9867.00,2.61
9866.00,2.60
9865.00,2.60
9864.00,2.60
9863.00,2.60
9862.00,2.59
9861.00,2.59
9860.00,2.59
9859.00,2.59
9858.00,2.59
9857.00,2.59
9856.00,2.59
9855.00,2.59
9854.00,2.59
9853.00,2.59
9852.00,2.59
9851.00,2.59
9850.00,2.59
9849.00,2.60
9848.00,2.60
9847.00,2.60
9846.00,2.60
9845.00,2.61
9844.00,2.61
9843.00,2.61
9842.00,2.61
9841.00,2.62
9840.00,2.62
9839.00,2.62
9838.00,2.62
9837.00,2.62
9836.00,2.62
9835.00,2.62
9834.00,2.62
9833.00,2.61
9832.00,2.61
9831.00,2.61
9830.00,2.60
9829.00,2.60
9828.00,2.60
9827.00,2.59
9826.00,2.59
9825.00,2.59
9824.00,2.58
9823.00,2.58
9822.00,2.58
9821.00,2.58
9820.00,2.58
9819.00,2.58
9818.00,2.58
9817.00,2.58
9816.00,2.58
9815.00,2.58
9814.00,2.58
9813.00,2.59
9812.00,2.59
9811.00,2.59
9810.00,2.60
9809.00,2.60
9808.00,2.61
9807.00,2.61
9806.00,2.62
9805.00,2.62
9804.00,2.63
9803.00,2.63
9802.00,2.64
9801.00,2.64
9800.00,2.65
9799.00,2.65
9798.00,2.65
9797.00,2.65
9796.00,2.66
9795.00,2.66
9794.00,2.66
9793.00,2.66
9792.00,2.65
9791.00,2.65
9790.00,2.65
9789.00,2.65
9788.00,2.64
9787.00,2.64
9786.00,2.64
9785.00,2.63
9784.00,2.63
9783.00,2.62
9782.00,2.62
9781.00,2.61
9780.00,2.61
9779.00,2.60
9778.00,2.59
9777.00,2.59
9776.00,2.58
9775.00,2.57
9774.00,2.57
9773.00,2.56
9772.00,2.55
9771.00,2.55
9770.00,2.54
9769.00,2.54
9768.00,2.53
9767.00,2.53
9766.00,2.52
9765.00,2.52
9764.00,2.51
9763.00,2.51
9762.00,2.51
9761.00,2.51
9760.00,2.51
9759.00,2.51
9758.00,2.51
9757.00,2.51
9756.00,2.51
9755.00,2.51
9754.00,2.51
9753.00,2.52
9752.00,2.52
9751.00,2.52
9750.00,2.53
9749.00,2.53
9748.00,2.53
9747.00,2.54
9746.00,2.54
9745.00,2.54
9744.00,2.55
9743.00,2.55
9742.00,2.56
9741.00,2.56
9740.00,2.56
9739.00,2.57
9738.00,2.57
9737.00,2.57
9736.00,2.57
9735.00,2.57
9734.00,2.57
9733.00,2.57
9732.00,2.56
9731.00,2.56
9730.00,2.56
9729.00,2.56
9728.00,2.56
9727.00,2.56
9726.00,2.57
9725.00,2.57
9724.00,2.57
9723.00,2.57
9722.00,2.57
9721.00,2.58
9720.00,2.58
9719.00,2.58
9718.00,2.58
9717.00,2.58
9716.00,2.58
9715.00,2.58
9714.00,2.58
9713.00,2.59
9712.00,2.59
9711.00,2.59
9710.00,2.60
9709.00,2.61
9708.00,2.61
9707.00,2.62
9706.00,2.63
9705.00,2.64
9704.00,2.65
9703.00,2.65
9702.00,2.66
9701.00,2.66
9700.00,2.67
9699.00,2.67
9698.00,2.67
9697.00,2.67
9696.00,2.67
9695.00,2.68
9694.00,2.67
9693.00,2.67
9692.00,2.67
9691.00,2.67
9690.00,2.67
9689.00,2.67
9688.00,2.67
9687.00,2.67
9686.00,2.67
9685.00,2.66
9684.00,2.66
9683.00,2.66
9682.00,2.65
9681.00,2.64
9680.00,2.64
9679.00,2.63
9678.00,2.62
9677.00,2.61
9676.00,2.60
9675.00,2.59
9674.00,2.58
9673.00,2.58
9672.00,2.57
9671.00,2.56
9670.00,2.56
9669.00,2.55
9668.00,2.55
9667.00,2.55
9666.00,2.55
9665.00,2.55
9664.00,2.55
9663.00,2.55
9662.00,2.56
9661.00,2.56
9660.00,2.56
9659.00,2.57
9658.00,2.57
9657.00,2.57
9656.00,2.57
9655.00,2.57
9654.00,2.58
9653.00,2.58
9652.00,2.58
9651.00,2.58
9650.00,2.58
9649.00,2.58
9648.00,2.58
9647.00,2.58
9646.00,2.58
9645.00,2.58
9644.00,2.58
9643.00,2.57
9642.00,2.57
9641.00,2.57
9640.00,2.56
9639.00,2.56
9638.00,2.55
9637.00,2.54
9636.00,2.53
9635.00,2.53
9634.00,2.52
9633.00,2.51
9632.00,2.50
9631.00,2.49
9630.00,2.49
9629.00,2.48
9628.00,2.48
9627.00,2.48
9626.00,2.47
9625.00,2.47
9624.00,2.47
9623.00,2.48
9622.00,2.48
9621.00,2.48
9620.00,2.48
9619.00,2.48
9618.00,2.49
9617.00,2.49
9616.00,2.49
9615.00,2.49
9614.00,2.49
9613.00,2.49
9612.00,2.49
9611.00,2.49
9610.00,2.49
9609.00,2.49
9608.00,2.49
9607.00,2.50
9606.00,2.50
9605.00,2.50
9604.00,2.50
9603.00,2.50
9602.00,2.50
9601.00,2.50
9600.00,2.50
9599.00,2.50
9598.00,2.50
9597.00,2.50
9596.00,2.50
9595.00,2.50
9594.00,2.50
9593.00,2.50
9592.00,2.50
9591.00,2.50
9590.00,2.50
9589.00,2.50
9588.00,2.50
9587.00,2.50
9586.00,2.50
9585.00,2.50
9584.00,2.50
9583.00,2.50
9582.00,2.50
9581.00,2.51
9580.00,2.50
9579.00,2.50
9578.00,2.50
9577.00,2.50
9576.00,2.50
9575.00,2.50
9574.00,2.49
9573.00,2.49
9572.00,2.48
9571.00,2.48
9570.00,2.47
9569.00,2.47
9568.00,2.47
9567.00,2.46
9566.00,2.46
9565.00,2.45
9564.00,2.44
9563.00,2.44
9562.00,2.43
9561.00,2.43
9560.00,2.43
9559.00,2.42
9558.00,2.42
9557.00,2.42
9556.00,2.42
9555.00,2.42
9554.00,2.42
9553.00,2.42
9552.00,2.43
9551.00,2.43
9550.00,2.43
9549.00,2.44
9548.00,2.44
9547.00,2.45
9546.00,2.46
9545.00,2.47
9544.00,2.48
9543.00,2.49
9542.00,2.49
9541.00,2.50
9540.00,2.51
9539.00,2.52
9538.00,2.53
9537.00,2.53
9536.00,2.54
9535.00,2.55
9534.00,2.55
9533.00,2.56
9532.00,2.56
9531.00,2.57
9530.00,2.58
9529.00,2.58
9528.00,2.59
9527.00,2.59
9526.00,2.60
9525.00,2.60
9524.00,2.61
9523.00,2.61
9522.00,2.62
9521.00,2.62
9520.00,2.62
9519.00,2.62
9518.00,2.62
9517.00,2.62
9516.00,2.62
9515.00,2.62
9514.00,2.63
9513.00,2.63
9512.00,2.63
9511.00,2.64
9510.00,2.64
9509.00,2.65
9508.00,2.65
9507.00,2.66
9506.00,2.67
9505.00,2.67
9504.00,2.68
9503.00,2.69
9502.00,2.69
9501.00,2.70
9500.00,2.70
9499.00,2.70
9498.00,2.71
9497.00,2.71
9496.00,2.71
9495.00,2.72
9494.00,2.72
9493.00,2.73
9492.00,2.73
9491.00,2.73
9490.00,2.74
9489.00,2.74
9488.00,2.75
9487.00,2.75
9486.00,2.75
9485.00,2.75
9484.00,2.76
9483.00,2.76
9482.00,2.76
9481.00,2.76
9480.00,2.76
9479.00,2.76
9478.00,2.76
9477.00,2.76
9476.00,2.76
9475.00,2.76
9474.00,2.76
9473.00,2.76
9472.00,2.76
9471.00,2.75
9470.00,2.75
9469.00,2.75
9468.00,2.74
9467.00,2.74
9466.00,2.74
9465.00,2.73
9464.00,2.73
9463.00,2.72
9462.00,2.72
9461.00,2.71
9460.00,2.71
9459.00,2.70
9458.00,2.69
9457.00,2.69
9456.00,2.68
9455.00,2.67
9454.00,2.66
9453.00,2.65
9452.00,2.64
9451.00,2.63
9450.00,2.62
9449.00,2.61
9448.00,2.60
9447.00,2.59
9446.00,2.59
9445.00,2.58
9444.00,2.58
9443.00,2.57
9442.00,2.57
9441.00,2.56
9440.00,2.56
9439.00,2.55
9438.00,2.55
9437.00,2.54
9436.00,2.54
9435.00,2.54
9434.00,2.53
9433.00,2.53
9432.00,2.53
9431.00,2.52
9430.00,2.52
9429.00,2.52
9428.00,2.52
9427.00,2.52
9426.00,2.53
9425.00,2.53
9424.00,2.53
9423.00,2.53
9422.00,2.54
9421.00,2.54
9420.00,2.54
9419.00,2.53
9418.00,2.53
9417.00,2.53
9416.00,2.52
9415.00,2.52
9414.00,2.52
9413.00,2.51
9412.00,2.51
9411.00,2.51
9410.00,2.51
9409.00,2.50
9408.00,2.50
9407.00,2.50
9406.00,2.50
9405.00,2.50
9404.00,2.50
9403.00,2.49
9402.00,2.49
9401.00,2.49
9400.00,2.48
9399.00,2.48
9398.00,2.47
9397.00,2.47
9396.00,2.46
9395.00,2.46
9394.00,2.46
9393.00,2.46
9392.00,2.46
9391.00,2.46
9390.00,2.47
9389.00,2.47
9388.00,2.47
9387.00,2.47
9386.00,2.47
9385.00,2.47
9384.00,2.47
9383.00,2.47
9382.00,2.47
9381.00,2.47
9380.00,2.47
9379.00,2.47
9378.00,2.47
9377.00,2.47
9376.00,2.47
9375.00,2.47
9374.00,2.47
9373.00,2.48
9372.00,2.48
9371.00,2.48
9370.00,2.48
9369.00,2.49
9368.00,2.49
9367.00,2.49
9366.00,2.50
9365.00,2.50
9364.00,2.50
9363.00,2.51
9362.00,2.51
9361.00,2.52
9360.00,2.52
9359.00,2.53
9358.00,2.53
9357.00,2.54
9356.00,2.55
9355.00,2.55
9354.00,2.56
9353.00,2.57
9352.00,2.57
9351.00,2.58
9350.00,2.58
9349.00,2.59
9348.00,2.59
9347.00,2.59
9346.00,2.60
9345.00,2.60
9344.00,2.60
9343.00,2.60
9342.00,2.60
9341.00,2.60
9340.00,2.60
9339.00,2.59
9338.00,2.59
9337.00,2.58
9336.00,2.57
9335.00,2.57
9334.00,2.56
9333.00,2.55
9332.00,2.54
9331.00,2.53
9330.00,2.52
9329.00,2.51
9328.00,2.51
9327.00,2.50
9326.00,2.49
9325.00,2.49
9324.00,2.48
9323.00,2.48
9322.00,2.48
9321.00,2.47
9320.00,2.47
9319.00,2.47
9318.00,2.47
9317.00,2.47
9316.00,2.47
9315.00,2.47
9314.00,2.48
9313.00,2.48
9312.00,2.48
9311.00,2.49
9310.00,2.50
9309.00,2.51
9308.00,2.51
9307.00,2.52
9306.00,2.53
9305.00,2.54
9304.00,2.55
9303.00,2.56
9302.00,2.56
9301.00,2.57
9300.00,2.58
9299.00,2.58
9298.00,2.59
9297.00,2.59
9296.00,2.60
9295.00,2.60
9294.00,2.61
9293.00,2.61
9292.00,2.61
9291.00,2.62
9290.00,2.62
9289.00,2.62
9288.00,2.62
9287.00,2.63
9286.00,2.63
9285.00,2.63
9284.00,2.63
9283.00,2.63
9282.00,2.63
9281.00,2.63
9280.00,2.63
9279.00,2.63
9278.00,2.63
9277.00,2.63
9276.00,2.63
9275.00,2.63
9274.00,2.63
9273.00,2.63
9272.00,2.63
9271.00,2.63
9270.00,2.62
9269.00,2.62
9268.00,2.62
9267.00,2.62
9266.00,2.62
9265.00,2.62
9264.00,2.62
9263.00,2.62
9262.00,2.61
9261.00,2.61
9260.00,2.61
9259.00,2.61
9258.00,2.60
9257.00,2.60
9256.00,2.60
9255.00,2.60
9254.00,2.60
9253.00,2.60
9252.00,2.60
9251.00,2.60
9250.00,2.60
9249.00,2.60
9248.00,2.61
9247.00,2.61
9246.00,2.61
9245.00,2.61
9244.00,2.62
9243.00,2.62
9242.00,2.62
9241.00,2.62
9240.00,2.62
9239.00,2.62
9238.00,2.63
9237.00,2.63
9236.00,2.63
9235.00,2.63
9234.00,2.63
9233.00,2.63
9232.00,2.63
9231.00,2.63
9230.00,2.63
9229.00,2.63
9228.00,2.63
9227.00,2.63
9226.00,2.63
9225.00,2.63
9224.00,2.63
9223.00,2.63
9222.00,2.63
9221.00,2.63
9220.00,2.63
9219.00,2.63
9218.00,2.63
9217.00,2.64
9216.00,2.64
9215.00,2.64
9214.00,2.64
9213.00,2.65
9212.00,2.65
9211.00,2.65
9210.00,2.66
9209.00,2.66
9208.00,2.66
9207.00,2.67
9206.00,2.67
9205.00,2.67
9204.00,2.68
9203.00,2.68
9202.00,2.68
9201.00,2.68
9200.00,2.68
9199.00,2.68
9198.00,2.68
9197.00,2.68
9196.00,2.68
9195.00,2.68
9194.00,2.67
9193.00,2.67
9192.00,2.66
9191.00,2.65
9190.00,2.65
9189.00,2.64
9188.00,2.63
9187.00,2.62
9186.00,2.61
9185.00,2.60
9184.00,2.59
9183.00,2.58
9182.00,2.57
9181.00,2.56
9180.00,2.55
9179.00,2.53
9178.00,2.52
9177.00,2.51
9176.00,2.50
9175.00,2.49
9174.00,2.48
9173.00,2.47
9172.00,2.46
9171.00,2.45
9170.00,2.44
9169.00,2.43
9168.00,2.43
9167.00,2.42
9166.00,2.41
9165.00,2.41
9164.00,2.41
9163.00,2.41
9162.00,2.41
9161.00,2.41
9160.00,2.41
9159.00,2.41
9158.00,2.42
9157.00,2.42
9156.00,2.43
9155.00,2.43
9154.00,2.44
9153.00,2.44
9152.00,2.45
9151.00,2.46
9150.00,2.46
9149.00,2.47
9148.00,2.47
9147.00,2.48
9146.00,2.48
9145.00,2.49
9144.00,2.50
9143.00,2.50
9142.00,2.51
9141.00,2.52
9140.00,2.52
9139.00,2.53
9138.00,2.53
9137.00,2.53
9136.00,2.53
9135.00,2.53
9134.00,2.53
9133.00,2.53
9132.00,2.52
9131.00,2.52
9130.00,2.52
9129.00,2.51
9128.00,2.50
9127.00,2.50
9126.00,2.49
9125.00,2.49
9124.00,2.48
9123.00,2.48
9122.00,2.48
9121.00,2.47
9120.00,2.47
9119.00,2.47
9118.00,2.46
9117.00,2.46
9116.00,2.45
9115.00,2.45
9114.00,2.45
9113.00,2.44
9112.00,2.44
9111.00,2.44
9110.00,2.43
9109.00,2.43
9108.00,2.43
9107.00,2.44
9106.00,2.44
9105.00,2.44
9104.00,2.45
9103.00,2.45
9102.00,2.46
9101.00,2.47
9100.00,2.47
9099.00,2.48
9098.00,2.48
9097.00,2.49
9096.00,2.49
9095.00,2.50
9094.00,2.50
9093.00,2.51
9092.00,2.51
9091.00,2.51
9090.00,2.51
9089.00,2.52
9088.00,2.52
9087.00,2.52
9086.00,2.53
9085.00,2.53
9084.00,2.53
9083.00,2.53
9082.00,2.53
9081.00,2.53
9080.00,2.53
9079.00,2.53
9078.00,2.53
9077.00,2.53
9076.00,2.52
9075.00,2.52
9074.00,2.52
9073.00,2.51
9072.00,2.51
9071.00,2.50
9070.00,2.50
9069.00,2.50
9068.00,2.49
9067.00,2.49
9066.00,2.48
9065.00,2.48
9064.00,2.47
9063.00,2.47
9062.00,2.46
9061.00,2.46
9060.00,2.45
9059.00,2.45
9058.00,2.44
9057.00,2.44
9056.00,2.44
9055.00,2.43
9054.00,2.43
9053.00,2.42
9052.00,2.42
9051.00,2.42
9050.00,2.41
9049.00,2.41
9048.00,2.41
9047.00,2.41
9046.00,2.40
9045.00,2.40
9044.00,2.40
9043.00,2.41
9042.00,2.41
9041.00,2.41
9040.00,2.41
9039.00,2.42
9038.00,2.42
9037.00,2.42
9036.00,2.43
9035.00,2.43
9034.00,2.43
9033.00,2.44
9032.00,2.44
9031.00,2.44
9030.00,2.45
9029.00,2.45
9028.00,2.45
9027.00,2.45
9026.00,2.46
9025.00,2.46
9024.00,2.46
9023.00,2.46
9022.00,2.46
9021.00,2.47
9020.00,2.47
9019.00,2.47
9018.00,2.47
9017.00,2.47
9016.00,2.48
9015.00,2.48
9014.00,2.48
9013.00,2.49
9012.00,2.49
9011.00,2.49
9010.00,2.50
9009.00,2.50
9008.00,2.51
9007.00,2.51
9006.00,2.52
9005.00,2.52
9004.00,2.53
9003.00,2.53
9002.00,2.54
9001.00,2.55
9000.00,2.55
8999.00,2.56
8998.00,2.57
8997.00,2.58
8996.00,2.59
8995.00,2.60
8994.00,2.61
8993.00,2.61
8992.00,2.62
8991.00,2.63
8990.00,2.63
8989.00,2.64
8988.00,2.64
8987.00,2.65
8986.00,2.65
8985.00,2.66
8984.00,2.66
8983.00,2.66
8982.00,2.67
8981.00,2.67
8980.00,2.67
8979.00,2.67
8978.00,2.67
8977.00,2.67
8976.00,2.67
8975.00,2.67
8974.00,2.67
8973.00,2.67
8972.00,2.67
8971.00,2.67
8970.00,2.67
8969.00,2.67
8968.00,2.67
8967.00,2.67
8966.00,2.66
8965.00,2.66
8964.00,2.66
8963.00,2.66
8962.00,2.65
8961.00,2.65
8960.00,2.65
8959.00,2.65
8958.00,2.65
8957.00,2.65
8956.00,2.65
8955.00,2.65
8954.00,2.65
8953.00,2.65
8952.00,2.66
8951.00,2.66
8950.00,2.67
8949.00,2.67
8948.00,2.67
8947.00,2.68
8946.00,2.68
8945.00,2.69
8944.00,2.69
8943.00,2.69
8942.00,2.70
8941.00,2.70
8940.00,2.71
8939.00,2.71
8938.00,2.72
8937.00,2.72
8936.00,2.73
8935.00,2.74
8934.00,2.74
8933.00,2.75
8932.00,2.75
8931.00,2.75
8930.00,2.76
8929.00,2.76
8928.00,2.76
8927.00,2.76
8926.00,2.76
8925.00,2.76
8924.00,2.76
8923.00,2.76
8922.00,2.76
8921.00,2.76
8920.00,2.76
8919.00,2.76
8918.00,2.76
8917.00,2.76
8916.00,2.76
8915.00,2.76
8914.00,2.75
8913.00,2.75
8912.00,2.74
8911.00,2.74
8910.00,2.74
8909.00,2.73
8908.00,2.72
8907.00,2.72
8906.00,2.71
8905.00,2.70
8904.00,2.69
8903.00,2.69
8902.00,2.68
8901.00,2.67
8900.00,2.66
8899.00,2.65
8898.00,2.64
8897.00,2.63
8896.00,2.62
8895.00,2.61
8894.00,2.60
8893.00,2.59
8892.00,2.57
8891.00,2.56
8890.00,2.55
8889.00,2.54
8888.00,2.54
8887.00,2.53
8886.00,2.52
8885.00,2.52
8884.00,2.51
8883.00,2.51
8882.00,2.50
8881.00,2.50
8880.00,2.50
8879.00,2.50
8878.00,2.50
8877.00,2.50
8876.00,2.50
8875.00,2.50
8874.00,2.50
8873.00,2.50
8872.00,2.50
8871.00,2.51
8870.00,2.51
8869.00,2.51
8868.00,2.52
8867.00,2.52
8866.00,2.52
8865.00,2.53
8864.00,2.53
8863.00,2.54
8862.00,2.54
8861.00,2.54
8860.00,2.55
8859.00,2.55
8858.00,2.55
8857.00,2.56
8856.00,2.56
8855.00,2.56
8854.00,2.57
8853.00,2.57
8852.00,2.58
8851.00,2.58
8850.00,2.59
8849.00,2.59
8848.00,2.59
8847.00,2.60
8846.00,2.60
8845.00,2.61
8844.00,2.62
8843.00,2.62
8842.00,2.63
8841.00,2.63
8840.00,2.64
8839.00,2.65
8838.00,2.66
8837.00,2.66
8836.00,2.67
8835.00,2.67
8834.00,2.68
8833.00,2.68
8832.00,2.68
8831.00,2.68
8830.00,2.68
8829.00,2.68
8828.00,2.68
8827.00,2.68
8826.00,2.68
8825.00,2.68
8824.00,2.67
8823.00,2.67
8822.00,2.67
8821.00,2.66
8820.00,2.66
8819.00,2.65
8818.00,2.65
8817.00,2.64
8816.00,2.63
8815.00,2.63
8814.00,2.62
8813.00,2.61
8812.00,2.61
8811.00,2.60
8810.00,2.59
8809.00,2.59
8808.00,2.58
8807.00,2.57
8806.00,2.57
8805.00,2.56
8804.00,2.55
8803.00,2.55
8802.00,2.54
8801.00,2.54
8800.00,2.54
8799.00,2.53
8798.00,2.53
8797.00,2.53
8796.00,2.53
8795.00,2.53
8794.00,2.53
8793.00,2.53
8792.00,2.53
8791.00,2.52
8790.00,2.52
8789.00,2.52
8788.00,2.52
8787.00,2.52
8786.00,2.52
8785.00,2.52
8784.00,2.52
8783.00,2.52
8782.00,2.51
8781.00,2.51
8780.00,2.52
8779.00,2.52
8778.00,2.52
8777.00,2.52
8776.00,2.52
8775.00,2.52
8774.00,2.52
8773.00,2.52
8772.00,2.52
8771.00,2.52
8770.00,2.52
8769.00,2.52
8768.00,2.51
8767.00,2.51
8766.00,2.51
8765.00,2.51
8764.00,2.51
8763.00,2.51
8762.00,2.51
8761.00,2.51
8760.00,2.51
8759.00,2.51
8758.00,2.51
8757.00,2.51
8756.00,2.52
8755.00,2.52
8754.00,2.52
8753.00,2.52
8752.00,2.51
8751.00,2.51
8750.00,2.51
8749.00,2.51
8748.00,2.51
8747.00,2.51
8746.00,2.51
8745.00,2.51
8744.00,2.51
8743.00,2.51
8742.00,2.51
8741.00,2.51
8740.00,2.51
8739.00,2.51
8738.00,2.51
8737.00,2.51
8736.00,2.51
8735.00,2.51
8734.00,2.51
8733.00,2.51
8732.00,2.51
8731.00,2.51
8730.00,2.51
8729.00,2.51
8728.00,2.51
8727.00,2.51
8726.00,2.51
8725.00,2.52
8724.00,2.52
8723.00,2.52
8722.00,2.53
8721.00,2.53
8720.00,2.53
8719.00,2.54
8718.00,2.54
8717.00,2.54
8716.00,2.55
8715.00,2.55
8714.00,2.55
8713.00,2.56
8712.00,2.56
8711.00,2.56
8710.00,2.57
8709.00,2.57
8708.00,2.57
8707.00,2.57
8706.00,2.57
8705.00,2.58
8704.00,2.58
8703.00,2.58
8702.00,2.58
8701.00,2.58
8700.00,2.58
8699.00,2.58
8698.00,2.59
8697.00,2.59
8696.00,2.59
8695.00,2.59
8694.00,2.58
8693.00,2.58
8692.00,2.58
8691.00,2.58
8690.00,2.58
8689.00,2.58
8688.00,2.58
8687.00,2.58
8686.00,2.58
8685.00,2.58
8684.00,2.58
8683.00,2.58
8682.00,2.59
8681.00,2.59
8680.00,2.59
8679.00,2.60
8678.00,2.60
8677.00,2.61
8676.00,2.61
8675.00,2.62
8674.00,2.62
8673.00,2.63
8672.00,2.63
8671.00,2.63
8670.00,2.64
8669.00,2.64
8668.00,2.65
8667.00,2.65
8666.00,2.65
8665.00,2.65
8664.00,2.65
8663.00,2.65
8662.00,2.65
8661.00,2.65
8660.00,2.65
8659.00,2.65
8658.00,2.65
8657.00,2.64
8656.00,2.64
8655.00,2.64
8654.00,2.64
8653.00,2.63
8652.00,2.63
8651.00,2.62
8650.00,2.62
8649.00,2.61
8648.00,2.61
8647.00,2.60
8646.00,2.60
8645.00,2.59
8644.00,2.59
8643.00,2.58
8642.00,2.58
8641.00,2.58
8640.00,2.58
8639.00,2.57
8638.00,2.57
8637.00,2.58
8636.00,2.58
8635.00,2.58
8634.00,2.58
8633.00,2.58
8632.00,2.58
8631.00,2.58
8630.00,2.58
8629.00,2.58
8628.00,2.58
8627.00,2.58
8626.00,2.57
8625.00,2.57
8624.00,2.57
8623.00,2.57
8622.00,2.57
8621.00,2.57
8620.00,2.57
8619.00,2.56
8618.00,2.56
8617.00,2.56
8616.00,2.56
8615.00,2.56
8614.00,2.56
8613.00,2.56
8612.00,2.56
8611.00,2.55
8610.00,2.55
8609.00,2.55
8608.00,2.55
8607.00,2.55
8606.00,2.55
8605.00,2.55
8604.00,2.55
8603.00,2.55
8602.00,2.55
8601.00,2.55
8600.00,2.55
8599.00,2.55
8598.00,2.55
8597.00,2.55
8596.00,2.55
8595.00,2.55
8594.00,2.55
8593.00,2.55
8592.00,2.55
8591.00,2.55
8590.00,2.55
8589.00,2.55
8588.00,2.55
8587.00,2.55
8586.00,2.55
8585.00,2.55
8584.00,2.54
8583.00,2.54
8582.00,2.54
8581.00,2.53
8580.00,2.53
8579.00,2.53
8578.00,2.53
8577.00,2.52
8576.00,2.52
8575.00,2.52
8574.00,2.52
8573.00,2.52
8572.00,2.52
8571.00,2.52
8570.00,2.52
8569.00,2.52
8568.00,2.53
8567.00,2.53
8566.00,2.53
8565.00,2.53
8564.00,2.53
8563.00,2.53
8562.00,2.53
8561.00,2.53
8560.00,2.54
8559.00,2.54
8558.00,2.54
8557.00,2.55
8556.00,2.55
8555.00,2.56
8554.00,2.57
8553.00,2.57
8552.00,2.58
8551.00,2.58
8550.00,2.59
8549.00,2.59
8548.00,2.60
8547.00,2.60
8546.00,2.60
8545.00,2.60
8544.00,2.60
8543.00,2.60
8542.00,2.60
8541.00,2.60
8540.00,2.59
8539.00,2.59
8538.00,2.58
8537.00,2.58
8536.00,2.58
8535.00,2.57
8534.00,2.57
8533.00,2.56
8532.00,2.55
8531.00,2.54
8530.00,2.53
8529.00,2.52
8528.00,2.51
8527.00,2.50
8526.00,2.49
8525.00,2.48
8524.00,2.47
8523.00,2.46
8522.00,2.45
8521.00,2.44
8520.00,2.43
8519.00,2.42
8518.00,2.41
8517.00,2.41
8516.00,2.40
8515.00,2.40
8514.00,2.40
8513.00,2.40
8512.00,2.40
8511.00,2.39
8510.00,2.39
8509.00,2.40
8508.00,2.40
8507.00,2.40
8506.00,2.40
8505.00,2.40
8504.00,2.40
8503.00,2.41
8502.00,2.41
8501.00,2.41
8500.00,2.41
8499.00,2.42
8498.00,2.42
8497.00,2.42
8496.00,2.42
8495.00,2.42
8494.00,2.43
8493.00,2.43
8492.00,2.42
8491.00,2.42
8490.00,2.42
8489.00,2.42
8488.00,2.42
8487.00,2.42
8486.00,2.41
8485.00,2.41
8484.00,2.41
8483.00,2.40
8482.00,2.40
8481.00,2.39
8480.00,2.39
8479.00,2.38
8478.00,2.38
8477.00,2.38
8476.00,2.37
8475.00,2.37
8474.00,2.37
8473.00,2.36
8472.00,2.36
8471.00,2.36
8470.00,2.36
8469.00,2.36
8468.00,2.36
8467.00,2.36
8466.00,2.36
8465.00,2.36
8464.00,2.35
8463.00,2.35
8462.00,2.35
8461.00,2.35
8460.00,2.35
8459.00,2.35
8458.00,2.35
8457.00,2.35
8456.00,2.35
8455.00,2.35
8454.00,2.35
8453.00,2.35
8452.00,2.35
8451.00,2.36
8450.00,2.36
8449.00,2.36
8448.00,2.36
8447.00,2.36
8446.00,2.36
8445.00,2.36
8444.00,2.36
8443.00,2.36
8442.00,2.36
8441.00,2.36
8440.00,2.36
8439.00,2.36
8438.00,2.36
8437.00,2.36
8436.00,2.36
8435.00,2.36
8434.00,2.36
8433.00,2.36
8432.00,2.36
8431.00,2.36
8430.00,2.36
8429.00,2.36
8428.00,2.36
8427.00,2.36
8426.00,2.36
8425.00,2.36
8424.00,2.36
8423.00,2.36
8422.00,2.36
8421.00,2.36
8420.00,2.36
8419.00,2.36
8418.00,2.36
8417.00,2.36
8416.00,2.36
8415.00,2.36
8414.00,2.36
8413.00,2.36
8412.00,2.36
8411.00,2.36
8410.00,2.36
8409.00,2.36
8408.00,2.36
8407.00,2.36
8406.00,2.36
8405.00,2.36
8404.00,2.36
8403.00,2.37
8402.00,2.37
8401.00,2.37
8400.00,2.37
8399.00,2.38
8398.00,2.38
8397.00,2.39
8396.00,2.39
8395.00,2.40
8394.00,2.40
8393.00,2.41
8392.00,2.42
8391.00,2.42
8390.00,2.43
8389.00,2.44
8388.00,2.44
8387.00,2.45
8386.00,2.45
8385.00,2.46
8384.00,2.47
8383.00,2.47
8382.00,2.48
8381.00,2.48
8380.00,2.49
8379.00,2.49
8378.00,2.50
8377.00,2.50
8376.00,2.50
8375.00,2.51
8374.00,2.51
8373.00,2.51
8372.00,2.52
8371.00,2.52
8370.00,2.52
8369.00,2.53
8368.00,2.53
8367.00,2.53
8366.00,2.54
8365.00,2.54
8364.00,2.55
8363.00,2.55
8362.00,2.56
8361.00,2.56
8360.00,2.57
8359.00,2.57
8358.00,2.57
8357.00,2.58
8356.00,2.58
8355.00,2.59
8354.00,2.59
8353.00,2.59
8352.00,2.59
8351.00,2.60
8350.00,2.60
8349.00,2.60
8348.00,2.60
8347.00,2.61
8346.00,2.61
8345.00,2.61
8344.00,2.61
8343.00,2.61
8342.00,2.60
8341.00,2.60
8340.00,2.60
8339.00,2.59
8338.00,2.59
8337.00,2.58
8336.00,2.57
8335.00,2.57
8334.00,2.56
8333.00,2.56
8332.00,2.55
8331.00,2.54
8330.00,2.54
8329.00,2.53
8328.00,2.53
8327.00,2.52
8326.00,2.52
8325.00,2.52
8324.00,2.51
8323.00,2.51
8322.00,2.50
8321.00,2.50
8320.00,2.49
8319.00,2.49
8318.00,2.49
8317.00,2.49
8316.00,2.48
8315.00,2.48
8314.00,2.48
8313.00,2.48
8312.00,2.48
8311.00,2.49
8310.00,2.49
8309.00,2.49
8308.00,2.49
8307.00,2.49
8306.00,2.50
8305.00,2.50
8304.00,2.51
8303.00,2.51
8302.00,2.52
8301.00,2.52
8300.00,2.53
8299.00,2.53
8298.00,2.54
8297.00,2.54
8296.00,2.55
8295.00,2.55
8294.00,2.56
8293.00,2.57
8292.00,2.57
8291.00,2.58
8290.00,2.58
8289.00,2.59
8288.00,2.60
8287.00,2.60
8286.00,2.61
8285.00,2.61
8284.00,2.62
8283.00,2.62
8282.00,2.62
8281.00,2.63
8280.00,2.63
8279.00,2.62
8278.00,2.62
8277.00,2.62
8276.00,2.61
8275.00,2.61
8274.00,2.61
8273.00,2.60
8272.00,2.59
8271.00,2.59
8270.00,2.59
8269.00,2.58
8268.00,2.58
8267.00,2.57
8266.00,2.57
8265.00,2.56
8264.00,2.55
8263.00,2.55
8262.00,2.54
8261.00,2.54
8260.00,2.53
8259.00,2.53
8258.00,2.52
8257.00,2.52
8256.00,2.52
8255.00,2.52
8254.00,2.52
8253.00,2.52
8252.00,2.52
8251.00,2.53
8250.00,2.53
8249.00,2.54
8248.00,2.54
8247.00,2.55
8246.00,2.55
8245.00,2.56
8244.00,2.57
8243.00,2.57
8242.00,2.57
8241.00,2.58
8240.00,2.58
8239.00,2.59
8238.00,2.59
8237.00,2.60
8236.00,2.60
8235.00,2.60
8234.00,2.61
8233.00,2.61
8232.00,2.61
8231.00,2.61
8230.00,2.61
8229.00,2.62
8228.00,2.62
8227.00,2.62
8226.00,2.62
8225.00,2.62
8224.00,2.62
8223.00,2.62
8222.00,2.62
8221.00,2.61
8220.00,2.61
8219.00,2.61
8218.00,2.61
8217.00,2.61
8216.00,2.61
8215.00,2.61
8214.00,2.61
8213.00,2.61
8212.00,2.61
8211.00,2.61
8210.00,2.62
8209.00,2.62
8208.00,2.62
8207.00,2.62
8206.00,2.62
8205.00,2.62
8204.00,2.62
8203.00,2.62
8202.00,2.62
8201.00,2.62
8200.00,2.62
8199.00,2.62
8198.00,2.63
8197.00,2.63
8196.00,2.63
8195.00,2.63
8194.00,2.63
8193.00,2.63
8192.00,2.63
8191.00,2.63
8190.00,2.63
8189.00,2.63
8188.00,2.63
8187.00,2.63
8186.00,2.63
8185.00,2.63
8184.00,2.63
8183.00,2.63
8182.00,2.63
8181.00,2.63
8180.00,2.63
8179.00,2.63
8178.00,2.63
8177.00,2.63
8176.00,2.63
8175.00,2.63
8174.00,2.63
8173.00,2.62
8172.00,2.62
8171.00,2.62
8170.00,2.61
8169.00,2.61
8168.00,2.61
8167.00,2.60
8166.00,2.60
8165.00,2.59
8164.00,2.59
8163.00,2.59
8162.00,2.59
8161.00,2.59
8160.00,2.58
8159.00,2.58
8158.00,2.58
8157.00,2.58
8156.00,2.58
8155.00,2.58
8154.00,2.57
8153.00,2.57
8152.00,2.57
8151.00,2.57
8150.00,2.57
8149.00,2.56
8148.00,2.56
8147.00,2.56
8146.00,2.56
8145.00,2.56
8144.00,2.56
8143.00,2.57
8142.00,2.57
8141.00,2.57
8140.00,2.57
8139.00,2.57
8138.00,2.58
8137.00,2.58
8136.00,2.58
8135.00,2.58
8134.00,2.58
8133.00,2.58
8132.00,2.58
8131.00,2.58
8130.00,2.58
8129.00,2.58
8128.00,2.59
8127.00,2.59
8126.00,2.59
8125.00,2.59
8124.00,2.60
8123.00,2.60
8122.00,2.61
8121.00,2.61
8120.00,2.62
8119.00,2.62
8118.00,2.62
8117.00,2.63
8116.00,2.63
8115.00,2.63
8114.00,2.64
8113.00,2.64
8112.00,2.64
8111.00,2.65
8110.00,2.65
8109.00,2.66
8108.00,2.66
8107.00,2.66
8106.00,2.67
8105.00,2.67
8104.00,2.67
8103.00,2.68
8102.00,2.68
8101.00,2.68
8100.00,2.68
8099.00,2.68
8098.00,2.67
8097.00,2.67
8096.00,2.67
8095.00,2.67
8094.00,2.66
8093.00,2.66
8092.00,2.66
8091.00,2.65
8090.00,2.65
8089.00,2.64
8088.00,2.64
8087.00,2.63
8086.00,2.63
8085.00,2.62
8084.00,2.61
8083.00,2.61
8082.00,2.60
8081.00,2.59
8080.00,2.59
8079.00,2.58
8078.00,2.57
8077.00,2.57
8076.00,2.56
8075.00,2.56
8074.00,2.55
8073.00,2.55
8072.00,2.54
8071.00,2.54
8070.00,2.53
8069.00,2.53
8068.00,2.53
8067.00,2.53
8066.00,2.52
8065.00,2.52
8064.00,2.52
8063.00,2.52
8062.00,2.52
8061.00,2.52
8060.00,2.52
8059.00,2.52
8058.00,2.52
8057.00,2.53
8056.00,2.53
8055.00,2.53
8054.00,2.53
8053.00,2.54
8052.00,2.54
8051.00,2.54
8050.00,2.54
8049.00,2.55
8048.00,2.55
8047.00,2.55
8046.00,2.56
8045.00,2.56
8044.00,2.56
8043.00,2.56
8042.00,2.57
8041.00,2.57
8040.00,2.57
8039.00,2.57
8038.00,2.58
8037.00,2.58
8036.00,2.58
8035.00,2.58
8034.00,2.58
8033.00,2.58
8032.00,2.58
8031.00,2.58
8030.00,2.59
8029.00,2.59
8028.00,2.59
8027.00,2.59
8026.00,2.60
8025.00,2.60
8024.00,2.60
8023.00,2.60
8022.00,2.60
8021.00,2.60
8020.00,2.60
8019.00,2.60
8018.00,2.61
8017.00,2.61
8016.00,2.61
8015.00,2.61
8014.00,2.61
8013.00,2.61
8012.00,2.62
8011.00,2.62
8010.00,2.62
8009.00,2.62
8008.00,2.62
8007.00,2.62
8006.00,2.62
8005.00,2.62
8004.00,2.62
8003.00,2.62
8002.00,2.62
8001.00,2.62
8000.00,2.61
7999.00,2.61
7998.00,2.61
7997.00,2.61
7996.00,2.61
7995.00,2.61
7994.00,2.62
7993.00,2.62
7992.00,2.62
7991.00,2.62
7990.00,2.61
7989.00,2.61
7988.00,2.61
7987.00,2.61
7986.00,2.61
7985.00,2.61
7984.00,2.61
7983.00,2.61
7982.00,2.62
7981.00,2.62
7980.00,2.62
7979.00,2.62
7978.00,2.63
7977.00,2.63
7976.00,2.63
7975.00,2.64
7974.00,2.64
7973.00,2.64
7972.00,2.65
7971.00,2.65
7970.00,2.65
7969.00,2.65
7968.00,2.65
7967.00,2.66
7966.00,2.66
7965.00,2.66
7964.00,2.66
7963.00,2.67
7962.00,2.67
7961.00,2.67
7960.00,2.68
7959.00,2.68
7958.00,2.68
7957.00,2.68
7956.00,2.68
7955.00,2.68
7954.00,2.68
7953.00,2.68
7952.00,2.68
7951.00,2.68
7950.00,2.68
7949.00,2.68
7948.00,2.68
7947.00,2.68
7946.00,2.68
7945.00,2.67
7944.00,2.67
7943.00,2.67
7942.00,2.67
7941.00,2.66
7940.00,2.66
7939.00,2.66
7938.00,2.65
7937.00,2.65
7936.00,2.65
7935.00,2.64
7934.00,2.64
7933.00,2.64
7932.00,2.63
7931.00,2.63
7930.00,2.63
7929.00,2.62
7928.00,2.62
7927.00,2.62
7926.00,2.61
7925.00,2.61
7924.00,2.61
7923.00,2.60
7922.00,2.60
7921.00,2.60
7920.00,2.60
7919.00,2.60
7918.00,2.60
7917.00,2.60
7916.00,2.61
7915.00,2.61
7914.00,2.61
7913.00,2.61
7912.00,2.62
7911.00,2.62
7910.00,2.63
7909.00,2.63
7908.00,2.63
7907.00,2.64
7906.00,2.64
7905.00,2.65
7904.00,2.65
7903.00,2.65
7902.00,2.66
7901.00,2.66
7900.00,2.67
7899.00,2.67
7898.00,2.68
7897.00,2.68
7896.00,2.68
7895.00,2.69
7894.00,2.69
7893.00,2.69
7892.00,2.69
7891.00,2.69
7890.00,2.69
7889.00,2.69
7888.00,2.69
7887.00,2.69
7886.00,2.69
7885.00,2.69
7884.00,2.69
7883.00,2.69
7882.00,2.69
7881.00,2.69
7880.00,2.69
7879.00,2.68
7878.00,2.68
7877.00,2.68
7876.00,2.68
7875.00,2.68
7874.00,2.68
7873.00,2.68
7872.00,2.68
7871.00,2.68
7870.00,2.68
7869.00,2.68
7868.00,2.68
7867.00,2.69
7866.00,2.69
7865.00,2.69
7864.00,2.69
7863.00,2.70
7862.00,2.70
7861.00,2.70
7860.00,2.71
7859.00,2.71
7858.00,2.71
7857.00,2.72
7856.00,2.72
7855.00,2.72
7854.00,2.72
7853.00,2.73
7852.00,2.73
7851.00,2.73
7850.00,2.74
7849.00,2.74
7848.00,2.74
7847.00,2.74
7846.00,2.74
7845.00,2.74
7844.00,2.74
7843.00,2.74
7842.00,2.74
7841.00,2.74
7840.00,2.74
7839.00,2.74
7838.00,2.73
7837.00,2.73
7836.00,2.73
7835.00,2.73
7834.00,2.73
7833.00,2.72
7832.00,2.72
7831.00,2.72
7830.00,2.71
7829.00,2.71
7828.00,2.71
7827.00,2.70
7826.00,2.70
7825.00,2.70
7824.00,2.69
7823.00,2.69
7822.00,2.69
7821.00,2.68
7820.00,2.68
7819.00,2.68
7818.00,2.67
7817.00,2.67
7816.00,2.67
7815.00,2.67
7814.00,2.67
7813.00,2.67
7812.00,2.67
7811.00,2.67
7810.00,2.67
7809.00,2.67
7808.00,2.67
7807.00,2.67
7806.00,2.67
7805.00,2.67
7804.00,2.68
7803.00,2.68
7802.00,2.68
7801.00,2.69
7800.00,2.69
7799.00,2.69
7798.00,2.70
7797.00,2.70
7796.00,2.70
7795.00,2.71
7794.00,2.71
7793.00,2.71
7792.00,2.72
7791.00,2.72
7790.00,2.72
7789.00,2.72
7788.00,2.73
7787.00,2.73
7786.00,2.73
7785.00,2.73
7784.00,2.72
7783.00,2.72
7782.00,2.72
7781.00,2.72
7780.00,2.71
7779.00,2.71
7778.00,2.71
7777.00,2.70
7776.00,2.70
7775.00,2.69
7774.00,2.69
7773.00,2.68
7772.00,2.68
7771.00,2.67
7770.00,2.66
7769.00,2.66
7768.00,2.65
7767.00,2.64
7766.00,2.64
7765.00,2.63
7764.00,2.62
7763.00,2.62
7762.00,2.61
7761.00,2.61
7760.00,2.60
7759.00,2.60
7758.00,2.59
7757.00,2.59
7756.00,2.59
7755.00,2.59
7754.00,2.59
7753.00,2.59
7752.00,2.59
7751.00,2.59
7750.00,2.59
7749.00,2.59
7748.00,2.60
7747.00,2.60
7746.00,2.60
7745.00,2.61
7744.00,2.61
7743.00,2.61
7742.00,2.62
7741.00,2.62
7740.00,2.63
7739.00,2.63
7738.00,2.64
7737.00,2.65
7736.00,2.65
7735.00,2.66
7734.00,2.67
7733.00,2.67
7732.00,2.68
7731.00,2.69
7730.00,2.69
7729.00,2.70
7728.00,2.70
7727.00,2.70
7726.00,2.71
7725.00,2.71
7724.00,2.71
7723.00,2.71
7722.00,2.71
7721.00,2.71
7720.00,2.71
7719.00,2.71
7718.00,2.71
7717.00,2.71
7716.00,2.71
7715.00,2.71
7714.00,2.71
7713.00,2.71
7712.00,2.71
7711.00,2.71
7710.00,2.71
7709.00,2.71
7708.00,2.70
7707.00,2.70
7706.00,2.70
7705.00,2.70
7704.00,2.70
7703.00,2.69
7702.00,2.69
7701.00,2.69
7700.00,2.69
7699.00,2.70
7698.00,2.70
7697.00,2.70
7696.00,2.70
7695.00,2.70
7694.00,2.71
7693.00,2.71
7692.00,2.71
7691.00,2.71
7690.00,2.72
7689.00,2.72
7688.00,2.72
7687.00,2.72
7686.00,2.72
7685.00,2.72
7684.00,2.73
7683.00,2.73
7682.00,2.73
7681.00,2.73
7680.00,2.73
7679.00,2.74
7678.00,2.74
7677.00,2.74
7676.00,2.74
7675.00,2.74
7674.00,2.74
7673.00,2.73
7672.00,2.73
7671.00,2.73
7670.00,2.73
7669.00,2.73
7668.00,2.72
7667.00,2.72
7666.00,2.72
7665.00,2.72
7664.00,2.72
7663.00,2.71
7662.00,2.71
7661.00,2.71
7660.00,2.71
7659.00,2.71
7658.00,2.71
7657.00,2.70
7656.00,2.70
7655.00,2.70
7654.00,2.70
7653.00,2.69
7652.00,2.69
7651.00,2.69
7650.00,2.69
7649.00,2.69
7648.00,2.69
7647.00,2.69
7646.00,2.69
7645.00,2.69
7644.00,2.68
7643.00,2.68
7642.00,2.68
7641.00,2.68
7640.00,2.68
7639.00,2.68
7638.00,2.68
7637.00,2.68
7636.00,2.68
7635.00,2.68
7634.00,2.68
7633.00,2.68
7632.00,2.68
7631.00,2.68
7630.00,2.68
7629.00,2.69
7628.00,2.69
7627.00,2.69
7626.00,2.69
7625.00,2.69
7624.00,2.70
7623.00,2.70
7622.00,2.70
7621.00,2.70
7620.00,2.70
7619.00,2.70
7618.00,2.70
7617.00,2.70
7616.00,2.71
7615.00,2.71
7614.00,2.71
7613.00,2.71
7612.00,2.71
7611.00,2.70
7610.00,2.70
7609.00,2.70
7608.00,2.70
7607.00,2.70
7606.00,2.70
7605.00,2.70
7604.00,2.70
7603.00,2.70
7602.00,2.70
7601.00,2.70
7600.00,2.70
7599.00,2.70
7598.00,2.70
7597.00,2.70
7596.00,2.70
7595.00,2.70
7594.00,2.70
7593.00,2.71
7592.00,2.71
7591.00,2.71
7590.00,2.71
7589.00,2.71
7588.00,2.72
7587.00,2.72
7586.00,2.72
7585.00,2.72
7584.00,2.73
7583.00,2.73
7582.00,2.73
7581.00,2.73
7580.00,2.73
7579.00,2.73
7578.00,2.74
7577.00,2.74
7576.00,2.74
7575.00,2.74
7574.00,2.74
7573.00,2.74
7572.00,2.73
7571.00,2.73
7570.00,2.73
7569.00,2.73
7568.00,2.73
7567.00,2.73
7566.00,2.72
7565.00,2.72
7564.00,2.72
7563.00,2.72
7562.00,2.71
7561.00,2.71
7560.00,2.71
7559.00,2.71
7558.00,2.70
7557.00,2.70
7556.00,2.70
7555.00,2.70
7554.00,2.70
7553.00,2.70
7552.00,2.70
7551.00,2.70
7550.00,2.71
7549.00,2.71
7548.00,2.71
7547.00,2.71
7546.00,2.71
7545.00,2.71
7544.00,2.71
7543.00,2.71
7542.00,2.71
7541.00,2.71
7540.00,2.71
7539.00,2.71
7538.00,2.71
7537.00,2.72
7536.00,2.72
7535.00,2.72
7534.00,2.72
7533.00,2.72
7532.00,2.72
7531.00,2.72
7530.00,2.71
7529.00,2.71
7528.00,2.71
7527.00,2.71
7526.00,2.71
7525.00,2.70
7524.00,2.70
7523.00,2.70
7522.00,2.69
7521.00,2.69
7520.00,2.69
7519.00,2.68
7518.00,2.68
7517.00,2.68
7516.00,2.67
7515.00,2.67
7514.00,2.66
7513.00,2.66
7512.00,2.66
7511.00,2.65
7510.00,2.65
7509.00,2.64
7508.00,2.64
7507.00,2.64
7506.00,2.63
7505.00,2.63
7504.00,2.62
7503.00,2.62
7502.00,2.62
7501.00,2.61
7500.00,2.61
7499.00,2.61
7498.00,2.61
7497.00,2.61
7496.00,2.61
7495.00,2.61
7494.00,2.61
7493.00,2.62
7492.00,2.62
7491.00,2.62
7490.00,2.63
7489.00,2.63
7488.00,2.63
7487.00,2.64
7486.00,2.64
7485.00,2.65
7484.00,2.65
7483.00,2.66
7482.00,2.67
7481.00,2.67
7480.00,2.68
7479.00,2.68
7478.00,2.69
7477.00,2.70
7476.00,2.70
7475.00,2.71
7474.00,2.71
7473.00,2.72
7472.00,2.72
7471.00,2.72
7470.00,2.72
7469.00,2.73
7468.00,2.73
7467.00,2.73
7466.00,2.73
7465.00,2.73
7464.00,2.73
7463.00,2.72
7462.00,2.72
7461.00,2.72
7460.00,2.72
7459.00,2.71
7458.00,2.71
7457.00,2.71
7456.00,2.70
7455.00,2.70
7454.00,2.69
7453.00,2.69
7452.00,2.68
7451.00,2.68
7450.00,2.67
7449.00,2.67
7448.00,2.66
7447.00,2.65
7446.00,2.65
7445.00,2.64
7444.00,2.64
7443.00,2.63
7442.00,2.63
7441.00,2.62
7440.00,2.62
7439.00,2.61
7438.00,2.61
7437.00,2.61
7436.00,2.60
7435.00,2.60
7434.00,2.60
7433.00,2.60
7432.00,2.60
7431.00,2.60
7430.00,2.60
7429.00,2.60
7428.00,2.61
7427.00,2.61
7426.00,2.61
7425.00,2.61
7424.00,2.62
7423.00,2.62
7422.00,2.63
7421.00,2.63
7420.00,2.64
7419.00,2.65
7418.00,2.65
7417.00,2.66
7416.00,2.67
7415.00,2.67
7414.00,2.68
7413.00,2.69
7412.00,2.69
7411.00,2.70
7410.00,2.70
7409.00,2.71
7408.00,2.71
7407.00,2.71
7406.00,2.71
7405.00,2.71
7404.00,2.71
7403.00,2.71
7402.00,2.71
7401.00,2.71
7400.00,2.71
7399.00,2.71
7398.00,2.70
7397.00,2.70
7396.00,2.70
7395.00,2.69
7394.00,2.69
7393.00,2.68
7392.00,2.67
7391.00,2.67
7390.00,2.66
7389.00,2.65
7388.00,2.65
7387.00,2.64
7386.00,2.64
7385.00,2.63
7384.00,2.63
7383.00,2.62
7382.00,2.62
7381.00,2.62
7380.00,2.61
7379.00,2.61
7378.00,2.61
7377.00,2.61
7376.00,2.61
7375.00,2.60
7374.00,2.60
7373.00,2.60
7372.00,2.60
7371.00,2.60
7370.00,2.59
7369.00,2.59
7368.00,2.59
7367.00,2.59
7366.00,2.59
7365.00,2.59
7364.00,2.59
7363.00,2.59
7362.00,2.59
7361.00,2.59
7360.00,2.60
7359.00,2.60
7358.00,2.60
7357.00,2.60
7356.00,2.60
7355.00,2.60
7354.00,2.60
7353.00,2.61
7352.00,2.61
7351.00,2.61
7350.00,2.61
7349.00,2.61
7348.00,2.61
7347.00,2.62
7346.00,2.62
7345.00,2.62
7344.00,2.62
7343.00,2.63
7342.00,2.63
7341.00,2.63
7340.00,2.63
7339.00,2.63
7338.00,2.63
7337.00,2.63
7336.00,2.63
7335.00,2.63
7334.00,2.63
7333.00,2.63
7332.00,2.63
7331.00,2.63
7330.00,2.62
7329.00,2.62
7328.00,2.62
7327.00,2.62
7326.00,2.62
7325.00,2.62
7324.00,2.62
7323.00,2.61
7322.00,2.61
7321.00,2.61
7320.00,2.61
7319.00,2.61
7318.00,2.61
7317.00,2.61
7316.00,2.61
7315.00,2.61
7314.00,2.62
7313.00,2.62
7312.00,2.62
7311.00,2.62
7310.00,2.63
7309.00,2.63
7308.00,2.63
7307.00,2.64
7306.00,2.64
7305.00,2.64
7304.00,2.65
7303.00,2.65
7302.00,2.65
7301.00,2.66
7300.00,2.66
7299.00,2.66
7298.00,2.66
7297.00,2.66
7296.00,2.66
7295.00,2.66
7294.00,2.66
7293.00,2.66
7292.00,2.66
7291.00,2.66
7290.00,2.66
7289.00,2.66
7288.00,2.66
7287.00,2.65
7286.00,2.65
7285.00,2.65
7284.00,2.65
7283.00,2.64
7282.00,2.64
7281.00,2.64
7280.00,2.63
7279.00,2.63
7278.00,2.63
7277.00,2.62
7276.00,2.62
7275.00,2.62
7274.00,2.61
7273.00,2.61
7272.00,2.61
7271.00,2.60
7270.00,2.60
7269.00,2.59
7268.00,2.59
7267.00,2.59
7266.00,2.58
7265.00,2.58
7264.00,2.57
7263.00,2.57
7262.00,2.56
7261.00,2.56
7260.00,2.55
7259.00,2.55
7258.00,2.54
7257.00,2.53
7256.00,2.53
7255.00,2.52
7254.00,2.52
7253.00,2.51
7252.00,2.50
7251.00,2.50
7250.00,2.49
7249.00,2.48
7248.00,2.48
7247.00,2.47
7246.00,2.46
7245.00,2.45
7244.00,2.45
7243.00,2.44
7242.00,2.44
7241.00,2.43
7240.00,2.42
7239.00,2.42
7238.00,2.41
7237.00,2.41
7236.00,2.40
7235.00,2.40
7234.00,2.39
7233.00,2.39
7232.00,2.38
7231.00,2.38
7230.00,2.37
7229.00,2.37
7228.00,2.37
7227.00,2.36
7226.00,2.36
7225.00,2.36
7224.00,2.35
7223.00,2.35
7222.00,2.35
7221.00,2.35
7220.00,2.35
7219.00,2.34
7218.00,2.34
7217.00,2.34
7216.00,2.34
7215.00,2.34
7214.00,2.34
7213.00,2.34
7212.00,2.34
7211.00,2.34
7210.00,2.34
7209.00,2.33
7208.00,2.33
7207.00,2.33
7206.00,2.32
7205.00,2.32
7204.00,2.32
7203.00,2.31
7202.00,2.31
7201.00,2.30
7200.00,2.30
7199.00,2.29
7198.00,2.28
7197.00,2.28
7196.00,2.27
7195.00,2.26
7194.00,2.25
7193.00,2.25
7192.00,2.24
7191.00,2.23
7190.00,2.22
7189.00,2.21
7188.00,2.20
7187.00,2.19
7186.00,2.18
7185.00,2.17
7184.00,2.17
7183.00,2.16
7182.00,2.15
7181.00,2.14
7180.00,2.14
7179.00,2.13
7178.00,2.12
7177.00,2.12
7176.00,2.11
7175.00,2.10
7174.00,2.10
7173.00,2.09
7172.00,2.09
7171.00,2.08
7170.00,2.08
7169.00,2.07
7168.00,2.07
7167.00,2.07
7166.00,2.06
7165.00,2.06
7164.00,2.06
7163.00,2.05
7162.00,2.05
7161.00,2.05
7160.00,2.05
7159.00,2.04
7158.00,2.04
7157.00,2.04
7156.00,2.04
7155.00,2.03
7154.00,2.03
7153.00,2.03
7152.00,2.02
7151.00,2.02
7150.00,2.02
7149.00,2.02
7148.00,2.02
7147.00,2.01
7146.00,2.01
7145.00,2.01
7144.00,2.01
7143.00,2.00
7142.00,2.00
7141.00,2.00
7140.00,1.99
7139.00,1.99
7138.00,1.98
7137.00,1.98
7136.00,1.97
7135.00,1.96
7134.00,1.96
7133.00,1.95
7132.00,1.95
7131.00,1.94
7130.00,1.94
7129.00,1.93
7128.00,1.93
7127.00,1.92
7126.00,1.92
7125.00,1.91
7124.00,1.91
7123.00,1.90
7122.00,1.89
7121.00,1.89
7120.00,1.88
7119.00,1.88
7118.00,1.87
7117.00,1.87
7116.00,1.86
7115.00,1.86
7114.00,1.86
7113.00,1.85
7112.00,1.85
7111.00,1.85
7110.00,1.84
7109.00,1.84
7108.00,1.84
7107.00,1.83
7106.00,1.83
7105.00,1.83
7104.00,1.82
7103.00,1.82
7102.00,1.81
7101.00,1.81
7100.00,1.80
7099.00,1.80
7098.00,1.79
7097.00,1.79
7096.00,1.78
7095.00,1.78
7094.00,1.77
7093.00,1.77
7092.00,1.76
7091.00,1.75
7090.00,1.75
7089.00,1.74
7088.00,1.73
7087.00,1.73
7086.00,1.72
7085.00,1.71
7084.00,1.71
7083.00,1.70
7082.00,1.69
7081.00,1.69
7080.00,1.68
7079.00,1.68
7078.00,1.67
7077.00,1.66
7076.00,1.66
7075.00,1.65
7074.00,1.65
7073.00,1.64
7072.00,1.64
7071.00,1.64
7070.00,1.63
7069.00,1.63
7068.00,1.62
7067.00,1.62
7066.00,1.62
7065.00,1.62
7064.00,1.61
7063.00,1.61
7062.00,1.61
7061.00,1.61
7060.00,1.61
7059.00,1.61
7058.00,1.61
7057.00,1.61
7056.00,1.61
7055.00,1.60
7054.00,1.60
7053.00,1.60
7052.00,1.60
7051.00,1.60
7050.00,1.60
7049.00,1.60
7048.00,1.60
7047.00,1.60
7046.00,1.60
7045.00,1.60
7044.00,1.60
7043.00,1.60
7042.00,1.60
7041.00,1.60
7040.00,1.60
7039.00,1.59
7038.00,1.59
7037.00,1.59
7036.00,1.59
7035.00,1.58
7034.00,1.58
7033.00,1.58
7032.00,1.58
7031.00,1.57
7030.00,1.57
7029.00,1.57
7028.00,1.57
7027.00,1.56
7026.00,1.56
7025.00,1.56
7024.00,1.56
7023.00,1.55
7022.00,1.55
7021.00,1.55
7020.00,1.54
7019.00,1.54
7018.00,1.54
7017.00,1.53
7016.00,1.53
7015.00,1.53
7014.00,1.52
7013.00,1.52
7012.00,1.52
7011.00,1.51
7010.00,1.51
7009.00,1.51
7008.00,1.51
7007.00,1.51
7006.00,1.50
7005.00,1.50
7004.00,1.50
7003.00,1.50
7002.00,1.49
7001.00,1.49
7000.00,1.49
6999.00,1.48
6998.00,1.48
6997.00,1.48
6996.00,1.48
6995.00,1.48
6994.00,1.47
6993.00,1.47
6992.00,1.47
6991.00,1.47
6990.00,1.47
6989.00,1.47
6988.00,1.46
6987.00,1.46
6986.00,1.46
6985.00,1.45
6984.00,1.45
6983.00,1.45
6982.00,1.44
6981.00,1.44
6980.00,1.44
6979.00,1.44
6978.00,1.43
6977.00,1.43
6976.00,1.43
6975.00,1.43
6974.00,1.43
6973.00,1.42
6972.00,1.42
6971.00,1.42
6970.00,1.42
6969.00,1.42
6968.00,1.42
6967.00,1.42
6966.00,1.42
6965.00,1.42
6964.00,1.42
6963.00,1.42
6962.00,1.42
6961.00,1.42
6960.00,1.42
6959.00,1.42
6958.00,1.42
6957.00,1.42
6956.00,1.42
6955.00,1.42
6954.00,1.42
6953.00,1.42
6952.00,1.42
6951.00,1.42
6950.00,1.42
6949.00,1.42
6948.00,1.42
6947.00,1.42
6946.00,1.42
6945.00,1.42
6944.00,1.41
6943.00,1.41
6942.00,1.41
6941.00,1.41
6940.00,1.41
6939.00,1.41
6938.00,1.40
6937.00,1.40
6936.00,1.40
6935.00,1.40
6934.00,1.40
6933.00,1.40
6932.00,1.40
6931.00,1.40
6930.00,1.40
6929.00,1.40
6928.00,1.40
6927.00,1.40
6926.00,1.40
6925.00,1.40
6924.00,1.40
6923.00,1.40
6922.00,1.40
6921.00,1.40
6920.00,1.41
6919.00,1.41
6918.00,1.41
6917.00,1.41
6916.00,1.41
6915.00,1.41
6914.00,1.41
6913.00,1.42
6912.00,1.42
6911.00,1.42
6910.00,1.42
6909.00,1.42
6908.00,1.42
6907.00,1.42
6906.00,1.42
6905.00,1.42
6904.00,1.42
6903.00,1.42
6902.00,1.42
6901.00,1.42
6900.00,1.42
6899.00,1.42
6898.00,1.42
6897.00,1.42
6896.00,1.42
6895.00,1.42
6894.00,1.41
6893.00,1.41
6892.00,1.41
6891.00,1.41
6890.00,1.41
6889.00,1.41
6888.00,1.41
6887.00,1.41
6886.00,1.41
6885.00,1.41
6884.00,1.41
6883.00,1.41
6882.00,1.41
6881.00,1.40
6880.00,1.40
6879.00,1.40
6878.00,1.40
6877.00,1.40
6876.00,1.40
6875.00,1.39
6874.00,1.39
6873.00,1.39
6872.00,1.39
6871.00,1.39
6870.00,1.38
6869.00,1.38
6868.00,1.38
6867.00,1.38
6866.00,1.38
6865.00,1.37
6864.00,1.37
6863.00,1.37
6862.00,1.36
6861.00,1.36
6860.00,1.36
6859.00,1.35
6858.00,1.35
6857.00,1.35
6856.00,1.34
6855.00,1.34
6854.00,1.34
6853.00,1.34
6852.00,1.34
6851.00,1.34
6850.00,1.34
6849.00,1.34
6848.00,1.35
6847.00,1.35
6846.00,1.35
6845.00,1.35
6844.00,1.36
6843.00,1.36
6842.00,1.36
6841.00,1.37
6840.00,1.37
6839.00,1.37
6838.00,1.38
6837.00,1.38
6836.00,1.39
6835.00,1.39
6834.00,1.40
6833.00,1.40
6832.00,1.41
6831.00,1.41
6830.00,1.41
6829.00,1.42
6828.00,1.42
6827.00,1.42
6826.00,1.42
6825.00,1.43
6824.00,1.43
6823.00,1.43
6822.00,1.43
6821.00,1.43
6820.00,1.43
6819.00,1.43
6818.00,1.43
6817.00,1.43
6816.00,1.43
6815.00,1.43
6814.00,1.43
6813.00,1.42
6812.00,1.42
6811.00,1.42
6810.00,1.42
6809.00,1.42
6808.00,1.42
6807.00,1.42
6806.00,1.42
6805.00,1.42
6804.00,1.42
6803.00,1.42
6802.00,1.42
6801.00,1.42
6800.00,1.42
6799.00,1.42
6798.00,1.42
6797.00,1.42
6796.00,1.42
6795.00,1.42
6794.00,1.43
6793.00,1.43
6792.00,1.43
6791.00,1.43
6790.00,1.44
6789.00,1.44
6788.00,1.44
6787.00,1.44
6786.00,1.45
6785.00,1.45
6784.00,1.45
6783.00,1.46
6782.00,1.46
6781.00,1.47
6780.00,1.47
6779.00,1.48
6778.00,1.48
6777.00,1.49
6776.00,1.49
6775.00,1.49
6774.00,1.50
6773.00,1.50
6772.00,1.51
6771.00,1.51
6770.00,1.51
6769.00,1.52
6768.00,1.52
6767.00,1.52
6766.00,1.53
6765.00,1.53
6764.00,1.53
6763.00,1.53
6762.00,1.53
6761.00,1.53
6760.00,1.53
6759.00,1.53
6758.00,1.53
6757.00,1.53
6756.00,1.53
6755.00,1.53
6754.00,1.53
6753.00,1.53
6752.00,1.53
6751.00,1.53
6750.00,1.53
6749.00,1.52
6748.00,1.52
6747.00,1.52
6746.00,1.52
6745.00,1.52
6744.00,1.52
6743.00,1.52
6742.00,1.52
6741.00,1.52
6740.00,1.52
6739.00,1.52
6738.00,1.52
6737.00,1.52
6736.00,1.52
6735.00,1.52
6734.00,1.53
6733.00,1.53
6732.00,1.53
6731.00,1.53
6730.00,1.53
6729.00,1.53
6728.00,1.54
6727.00,1.54
6726.00,1.54
6725.00,1.54
6724.00,1.55
6723.00,1.55
6722.00,1.55
6721.00,1.55
6720.00,1.55
6719.00,1.56
6718.00,1.56
6717.00,1.56
6716.00,1.56
6715.00,1.57
6714.00,1.57
6713.00,1.57
6712.00,1.57
6711.00,1.58
6710.00,1.58
6709.00,1.58
6708.00,1.58
6707.00,1.58
6706.00,1.59
6705.00,1.59
6704.00,1.59
6703.00,1.59
6702.00,1.59
6701.00,1.59
6700.00,1.60
6699.00,1.60
6698.00,1.60
6697.00,1.60
6696.00,1.60
6695.00,1.60
6694.00,1.60
6693.00,1.60
6692.00,1.60
6691.00,1.60
6690.00,1.60
6689.00,1.60
6688.00,1.60
6687.00,1.60
6686.00,1.60
6685.00,1.60
6684.00,1.60
6683.00,1.60
6682.00,1.61
6681.00,1.61
6680.00,1.61
6679.00,1.61
6678.00,1.61
6677.00,1.62
6676.00,1.62
6675.00,1.62
6674.00,1.62
6673.00,1.62
6672.00,1.63
6671.00,1.63
6670.00,1.63
6669.00,1.64
6668.00,1.64
6667.00,1.65
6666.00,1.65
6665.00,1.66
6664.00,1.66
6663.00,1.67
6662.00,1.67
6661.00,1.68
6660.00,1.68
6659.00,1.68
6658.00,1.69
6657.00,1.69
6656.00,1.69
6655.00,1.69
6654.00,1.69
6653.00,1.69
6652.00,1.69
6651.00,1.70
6650.00,1.70
6649.00,1.70
6648.00,1.70
6647.00,1.70
6646.00,1.70
6645.00,1.70
6644.00,1.70
6643.00,1.70
6642.00,1.70
6641.00,1.70
6640.00,1.70
6639.00,1.69
6638.00,1.69
6637.00,1.69
6636.00,1.69
6635.00,1.69
6634.00,1.69
6633.00,1.69
6632.00,1.70
6631.00,1.70
6630.00,1.70
6629.00,1.70
6628.00,1.70
6627.00,1.71
6626.00,1.71
6625.00,1.71
6624.00,1.71
6623.00,1.71
6622.00,1.72
6621.00,1.72
6620.00,1.72
6619.00,1.72
6618.00,1.73
6617.00,1.73
6616.00,1.73
6615.00,1.74
6614.00,1.74
6613.00,1.75
6612.00,1.75
6611.00,1.75
6610.00,1.76
6609.00,1.76
6608.00,1.77
6607.00,1.77
6606.00,1.77
6605.00,1.78
6604.00,1.78
6603.00,1.78
6602.00,1.79
6601.00,1.79
6600.00,1.79
6599.00,1.80
6598.00,1.80
6597.00,1.81
6596.00,1.81
6595.00,1.81
6594.00,1.82
6593.00,1.82
6592.00,1.83
6591.00,1.83
6590.00,1.83
6589.00,1.83
6588.00,1.84
6587.00,1.84
6586.00,1.84
6585.00,1.84
6584.00,1.84
6583.00,1.84
6582.00,1.84
6581.00,1.85
6580.00,1.85
6579.00,1.85
6578.00,1.85
6577.00,1.85
6576.00,1.85
6575.00,1.85
6574.00,1.85
6573.00,1.86
6572.00,1.86
6571.00,1.86
6570.00,1.86
6569.00,1.86
6568.00,1.86
6567.00,1.86
6566.00,1.86
6565.00,1.86
6564.00,1.86
6563.00,1.86
6562.00,1.86
6561.00,1.86
6560.00,1.87
6559.00,1.87
6558.00,1.87
6557.00,1.87
6556.00,1.87
6555.00,1.87
6554.00,1.87
6553.00,1.87
6552.00,1.87
6551.00,1.87
6550.00,1.87
6549.00,1.87
6548.00,1.87
6547.00,1.88
6546.00,1.88
6545.00,1.88
6544.00,1.88
6543.00,1.88
6542.00,1.88
6541.00,1.88
6540.00,1.88
6539.00,1.88
6538.00,1.88
6537.00,1.88
6536.00,1.88
6535.00,1.88
6534.00,1.88
6533.00,1.88
6532.00,1.89
6531.00,1.89
6530.00,1.89
6529.00,1.89
6528.00,1.89
6527.00,1.89
6526.00,1.90
6525.00,1.90
6524.00,1.90
6523.00,1.90
6522.00,1.90
6521.00,1.91
6520.00,1.91
6519.00,1.91
6518.00,1.91
6517.00,1.92
6516.00,1.92
6515.00,1.92
6514.00,1.93
6513.00,1.93
6512.00,1.93
6511.00,1.93
6510.00,1.93
6509.00,1.94
6508.00,1.94
6507.00,1.94
6506.00,1.94
6505.00,1.95
6504.00,1.95
6503.00,1.95
6502.00,1.95
6501.00,1.95
6500.00,1.96
6499.00,1.96
6498.00,1.96
6497.00,1.96
6496.00,1.96
6495.00,1.97
6494.00,1.97
6493.00,1.97
6492.00,1.97
6491.00,1.97
6490.00,1.97
6489.00,1.97
6488.00,1.97
6487.00,1.97
6486.00,1.97
6485.00,1.97
6484.00,1.97
6483.00,1.97
6482.00,1.97
6481.00,1.97
6480.00,1.97
6479.00,1.97
6478.00,1.97
6477.00,1.97
6476.00,1.97
6475.00,1.97
6474.00,1.97
6473.00,1.97
6472.00,1.97
6471.00,1.97
6470.00,1.97
6469.00,1.97
6468.00,1.97
6467.00,1.97
6466.00,1.97
6465.00,1.97
6464.00,1.97
6463.00,1.97
6462.00,1.97
6461.00,1.97
6460.00,1.97
6459.00,1.98
6458.00,1.98
6457.00,1.98
6456.00,1.98
6455.00,1.98
6454.00,1.98
6453.00,1.98
6452.00,1.98
6451.00,1.98
6450.00,1.98
6449.00,1.98
6448.00,1.98
6447.00,1.99
6446.00,1.99
6445.00,1.99
6444.00,1.99
6443.00,2.00
6442.00,2.00
6441.00,2.00
6440.00,2.00
6439.00,2.01
6438.00,2.01
6437.00,2.01
6436.00,2.01
6435.00,2.01
6434.00,2.02
6433.00,2.02
6432.00,2.02
6431.00,2.03
6430.00,2.03
6429.00,2.04
6428.00,2.04
6427.00,2.05
6426.00,2.05
6425.00,2.05
6424.00,2.06
6423.00,2.06
6422.00,2.07
6421.00,2.07
6420.00,2.07
6419.00,2.07
6418.00,2.08
6417.00,2.08
6416.00,2.08
6415.00,2.08
6414.00,2.08
6413.00,2.08
6412.00,2.08
6411.00,2.08
6410.00,2.08
6409.00,2.08
6408.00,2.08
6407.00,2.08
6406.00,2.08
6405.00,2.08
6404.00,2.07
6403.00,2.07
6402.00,2.07
6401.00,2.07
6400.00,2.06
6399.00,2.06
6398.00,2.06
6397.00,2.05
6396.00,2.05
6395.00,2.05
6394.00,2.05
6393.00,2.05
6392.00,2.05
6391.00,2.05
6390.00,2.05
6389.00,2.05
6388.00,2.05
6387.00,2.05
6386.00,2.05
6385.00,2.05
6384.00,2.05
6383.00,2.06
6382.00,2.06
6381.00,2.06
6380.00,2.07
6379.00,2.07
6378.00,2.07
6377.00,2.08
6376.00,2.08
6375.00,2.08
6374.00,2.09
6373.00,2.09
6372.00,2.09
6371.00,2.09
6370.00,2.10
6369.00,2.10
6368.00,2.10
6367.00,2.10
6366.00,2.10
6365.00,2.10
6364.00,2.10
6363.00,2.10
6362.00,2.10
6361.00,2.10
6360.00,2.10
6359.00,2.09
6358.00,2.09
6357.00,2.09
6356.00,2.09
6355.00,2.09
6354.00,2.09
6353.00,2.09
6352.00,2.09
6351.00,2.09
6350.00,2.09
6349.00,2.09
6348.00,2.09
6347.00,2.09
6346.00,2.09
6345.00,2.10
6344.00,2.10
6343.00,2.10
6342.00,2.10
6341.00,2.11
6340.00,2.11
6339.00,2.11
6338.00,2.12
6337.00,2.12
6336.00,2.12
6335.00,2.13
6334.00,2.13
6333.00,2.13
6332.00,2.13
6331.00,2.14
6330.00,2.14
6329.00,2.14
6328.00,2.14
6327.00,2.14
6326.00,2.15
6325.00,2.15
6324.00,2.15
6323.00,2.15
6322.00,2.15
6321.00,2.15
6320.00,2.15
6319.00,2.16
6318.00,2.16
6317.00,2.16
6316.00,2.16
6315.00,2.16
6314.00,2.16
6313.00,2.16
6312.00,2.17
6311.00,2.17
6310.00,2.17
6309.00,2.17
6308.00,2.18
6307.00,2.18
6306.00,2.18
6305.00,2.19
6304.00,2.19
6303.00,2.20
6302.00,2.20
6301.00,2.20
6300.00,2.21
6299.00,2.21
6298.00,2.22
6297.00,2.22
6296.00,2.22
6295.00,2.23
6294.00,2.23
6293.00,2.24
6292.00,2.24
6291.00,2.24
6290.00,2.25
6289.00,2.25
6288.00,2.25
6287.00,2.26
6286.00,2.26
6285.00,2.26
6284.00,2.26
6283.00,2.27
6282.00,2.27
6281.00,2.27
6280.00,2.27
6279.00,2.27
6278.00,2.28
6277.00,2.28
6276.00,2.28
6275.00,2.28
6274.00,2.28
6273.00,2.28
6272.00,2.28
6271.00,2.29
6270.00,2.29
6269.00,2.29
6268.00,2.29
6267.00,2.29
6266.00,2.30
6265.00,2.30
6264.00,2.30
6263.00,2.30
6262.00,2.30
6261.00,2.30
6260.00,2.31
6259.00,2.31
6258.00,2.31
6257.00,2.31
6256.00,2.32
6255.00,2.32
6254.00,2.32
6253.00,2.32
6252.00,2.33
6251.00,2.33
6250.00,2.33
6249.00,2.33
6248.00,2.34
6247.00,2.34
6246.00,2.34
6245.00,2.34
6244.00,2.34
6243.00,2.35
6242.00,2.35
6241.00,2.35
6240.00,2.35
6239.00,2.35
6238.00,2.35
6237.00,2.35
6236.00,2.35
6235.00,2.35
6234.00,2.35
6233.00,2.35
6232.00,2.35
6231.00,2.35
6230.00,2.35
6229.00,2.35
6228.00,2.35
6227.00,2.35
6226.00,2.35
6225.00,2.35
6224.00,2.35
6223.00,2.35
6222.00,2.35
6221.00,2.35
6220.00,2.35
6219.00,2.35
6218.00,2.35
6217.00,2.35
6216.00,2.36
6215.00,2.36
6214.00,2.36
6213.00,2.36
6212.00,2.36
6211.00,2.36
6210.00,2.36
6209.00,2.36
6208.00,2.37
6207.00,2.37
6206.00,2.37
6205.00,2.37
6204.00,2.37
6203.00,2.38
6202.00,2.38
6201.00,2.38
6200.00,2.38
6199.00,2.38
6198.00,2.39
6197.00,2.39
6196.00,2.39
6195.00,2.39
6194.00,2.39
6193.00,2.40
6192.00,2.40
6191.00,2.40
6190.00,2.40
6189.00,2.40
6188.00,2.41
6187.00,2.41
6186.00,2.41
6185.00,2.41
6184.00,2.41
6183.00,2.42
6182.00,2.42
6181.00,2.42
6180.00,2.43
6179.00,2.43
6178.00,2.43
6177.00,2.44
6176.00,2.44
6175.00,2.44
6174.00,2.45
6173.00,2.45
6172.00,2.45
6171.00,2.46
6170.00,2.46
6169.00,2.46
6168.00,2.47
6167.00,2.47
6166.00,2.47
6165.00,2.48
6164.00,2.48
6163.00,2.48
6162.00,2.48
6161.00,2.49
6160.00,2.49
6159.00,2.49
6158.00,2.49
6157.00,2.50
6156.00,2.50
6155.00,2.50
6154.00,2.50
6153.00,2.50
6152.00,2.51
6151.00,2.51
6150.00,2.51
6149.00,2.51
6148.00,2.51
6147.00,2.51
6146.00,2.51
6145.00,2.51
6144.00,2.51
6143.00,2.51
6142.00,2.51
6141.00,2.51
6140.00,2.51
6139.00,2.52
6138.00,2.52
6137.00,2.52
6136.00,2.52
6135.00,2.52
6134.00,2.52
6133.00,2.52
6132.00,2.52
6131.00,2.52
6130.00,2.52
6129.00,2.52
6128.00,2.53
6127.00,2.53
6126.00,2.53
6125.00,2.53
6124.00,2.53
6123.00,2.53
6122.00,2.53
6121.00,2.54
6120.00,2.54
6119.00,2.54
6118.00,2.54
6117.00,2.55
6116.00,2.55
6115.00,2.55
6114.00,2.55
6113.00,2.56
6112.00,2.56
6111.00,2.56
6110.00,2.56
6109.00,2.57
6108.00,2.57
6107.00,2.57
6106.00,2.57
6105.00,2.58
6104.00,2.58
6103.00,2.58
6102.00,2.59
6101.00,2.59
6100.00,2.59
6099.00,2.60
6098.00,2.60
6097.00,2.60
6096.00,2.61
6095.00,2.61
6094.00,2.61
6093.00,2.61
6092.00,2.61
6091.00,2.61
6090.00,2.61
6089.00,2.61
6088.00,2.62
6087.00,2.62
6086.00,2.62
6085.00,2.62
6084.00,2.62
6083.00,2.62
6082.00,2.62
6081.00,2.62
6080.00,2.62
6079.00,2.62
6078.00,2.62
6077.00,2.61
6076.00,2.61
6075.00,2.61
6074.00,2.61
6073.00,2.61
6072.00,2.61
6071.00,2.61
6070.00,2.61
6069.00,2.61
6068.00,2.61
6067.00,2.61
6066.00,2.61
6065.00,2.61
6064.00,2.61
6063.00,2.61
6062.00,2.61
6061.00,2.61
6060.00,2.62
6059.00,2.62
6058.00,2.62
6057.00,2.62
6056.00,2.63
6055.00,2.63
6054.00,2.63
6053.00,2.63
6052.00,2.64
6051.00,2.64
6050.00,2.64
6049.00,2.65
6048.00,2.65
6047.00,2.65
6046.00,2.65
6045.00,2.66
6044.00,2.66
6043.00,2.66
6042.00,2.66
6041.00,2.66
6040.00,2.67
6039.00,2.67
6038.00,2.67
6037.00,2.67
6036.00,2.67
6035.00,2.67
6034.00,2.68
6033.00,2.68
6032.00,2.68
6031.00,2.68
6030.00,2.68
6029.00,2.68
6028.00,2.68
6027.00,2.68
6026.00,2.68
6025.00,2.68
6024.00,2.68
6023.00,2.68
6022.00,2.68
6021.00,2.68
6020.00,2.68
6019.00,2.68
6018.00,2.68
6017.00,2.68
6016.00,2.69
6015.00,2.69
6014.00,2.69
6013.00,2.69
6012.00,2.69
6011.00,2.69
6010.00,2.69
6009.00,2.69
6008.00,2.68
6007.00,2.68
6006.00,2.68
6005.00,2.68
6004.00,2.68
6003.00,2.68
6002.00,2.68
6001.00,2.68
6000.00,2.68
5999.00,2.68
5998.00,2.68
5997.00,2.68
5996.00,2.68
5995.00,2.67
5994.00,2.67
5993.00,2.67
5992.00,2.67
5991.00,2.66
5990.00,2.66
5989.00,2.66
5988.00,2.65
5987.00,2.65
5986.00,2.65
5985.00,2.65
5984.00,2.64
5983.00,2.64
5982.00,2.64
5981.00,2.63
5980.00,2.63
5979.00,2.63
5978.00,2.62
5977.00,2.62
5976.00,2.61
5975.00,2.61
5974.00,2.61
5973.00,2.60
5972.00,2.60
5971.00,2.59
5970.00,2.58
5969.00,2.58
5968.00,2.57
5967.00,2.57
5966.00,2.56
5965.00,2.55
5964.00,2.55
5963.00,2.54
5962.00,2.53
5961.00,2.53
5960.00,2.52
5959.00,2.51
5958.00,2.50
5957.00,2.50
5956.00,2.49
5955.00,2.48
5954.00,2.47
5953.00,2.47
5952.00,2.46
5951.00,2.45
5950.00,2.44
5949.00,2.44
5948.00,2.43
5947.00,2.42
5946.00,2.42
5945.00,2.41
5944.00,2.40
5943.00,2.40
5942.00,2.39
5941.00,2.38
5940.00,2.38
5939.00,2.37
5938.00,2.37
5937.00,2.36
5936.00,2.36
5935.00,2.36
5934.00,2.35
5933.00,2.35
5932.00,2.34
5931.00,2.34
5930.00,2.34
5929.00,2.33
5928.00,2.33
5927.00,2.33
5926.00,2.32
5925.00,2.32
5924.00,2.32
5923.00,2.31
5922.00,2.31
5921.00,2.31
5920.00,2.31
5919.00,2.30
5918.00,2.30
5917.00,2.30
5916.00,2.30
5915.00,2.29
5914.00,2.29
5913.00,2.29
5912.00,2.29
5911.00,2.29
5910.00,2.29
5909.00,2.29
5908.00,2.29
5907.00,2.29
5906.00,2.29
5905.00,2.29
5904.00,2.29
5903.00,2.29
5902.00,2.29
5901.00,2.30
5900.00,2.30
5899.00,2.30
5898.00,2.30
5897.00,2.31
5896.00,2.31
5895.00,2.31
5894.00,2.32
5893.00,2.32
5892.00,2.33
5891.00,2.33
5890.00,2.33
5889.00,2.34
5888.00,2.34
5887.00,2.35
5886.00,2.35
5885.00,2.35
5884.00,2.36
5883.00,2.36
5882.00,2.37
5881.00,2.37
5880.00,2.37
5879.00,2.38
5878.00,2.38
5877.00,2.38
5876.00,2.39
5875.00,2.39
5874.00,2.39
5873.00,2.39
5872.00,2.40
5871.00,2.40
5870.00,2.40
5869.00,2.40
5868.00,2.40
5867.00,2.40
5866.00,2.40
5865.00,2.40
5864.00,2.41
5863.00,2.41
5862.00,2.41
5861.00,2.41
5860.00,2.41
5859.00,2.41
5858.00,2.41
5857.00,2.41
5856.00,2.41
5855.00,2.41
5854.00,2.41
5853.00,2.42
5852.00,2.42
5851.00,2.42
5850.00,2.42
5849.00,2.42
5848.00,2.42
5847.00,2.42
5846.00,2.42
5845.00,2.42
5844.00,2.42
5843.00,2.42
5842.00,2.43
5841.00,2.43
5840.00,2.43
5839.00,2.43
5838.00,2.43
5837.00,2.43
5836.00,2.43
5835.00,2.43
5834.00,2.44
5833.00,2.44
5832.00,2.44
5831.00,2.44
5830.00,2.44
5829.00,2.44
5828.00,2.44
5827.00,2.44
5826.00,2.44
5825.00,2.44
5824.00,2.44
5823.00,2.44
5822.00,2.44
5821.00,2.44
5820.00,2.44
5819.00,2.44
5818.00,2.44
5817.00,2.43
5816.00,2.43
5815.00,2.43
5814.00,2.43
5813.00,2.43
5812.00,2.42
5811.00,2.42
5810.00,2.42
5809.00,2.41
5808.00,2.41
5807.00,2.41
5806.00,2.41
5805.00,2.40
5804.00,2.40
5803.00,2.40
5802.00,2.40
5801.00,2.39
5800.00,2.39
5799.00,2.39
5798.00,2.38
5797.00,2.38
5796.00,2.38
5795.00,2.38
5794.00,2.38
5793.00,2.37
5792.00,2.37
5791.00,2.37
5790.00,2.37
5789.00,2.37
5788.00,2.37
5787.00,2.37
5786.00,2.37
5785.00,2.37
5784.00,2.37
5783.00,2.37
5782.00,2.37
5781.00,2.37
5780.00,2.37
5779.00,2.37
5778.00,2.37
5777.00,2.37
5776.00,2.37
5775.00,2.37
5774.00,2.38
5773.00,2.38
5772.00,2.38
5771.00,2.38
5770.00,2.38
5769.00,2.38
5768.00,2.38
5767.00,2.38
5766.00,2.38
5765.00,2.38
5764.00,2.38
5763.00,2.39
5762.00,2.39
5761.00,2.39
5760.00,2.39
5759.00,2.39
5758.00,2.39
5757.00,2.39
5756.00,2.39
5755.00,2.39
5754.00,2.39
5753.00,2.39
5752.00,2.39
5751.00,2.39
5750.00,2.39
5749.00,2.39
5748.00,2.39
5747.00,2.39
5746.00,2.39
5745.00,2.39
5744.00,2.40
5743.00,2.40
5742.00,2.40
5741.00,2.40
5740.00,2.41
5739.00,2.41
5738.00,2.41
5737.00,2.41
5736.00,2.42
5735.00,2.42
5734.00,2.42
5733.00,2.43
5732.00,2.43
5731.00,2.43
5730.00,2.44
5729.00,2.44
5728.00,2.44
5727.00,2.45
5726.00,2.45
5725.00,2.45
5724.00,2.45
5723.00,2.46
5722.00,2.46
5721.00,2.46
5720.00,2.47
5719.00,2.47
5718.00,2.47
5717.00,2.47
5716.00,2.47
5715.00,2.47
5714.00,2.47
5713.00,2.47
5712.00,2.47
5711.00,2.47
5710.00,2.47
5709.00,2.47
5708.00,2.47
5707.00,2.47
5706.00,2.47
5705.00,2.47
5704.00,2.46
5703.00,2.46
5702.00,2.46
5701.00,2.46
5700.00,2.46
5699.00,2.46
5698.00,2.46
5697.00,2.45
5696.00,2.45
5695.00,2.45
5694.00,2.45
5693.00,2.44
5692.00,2.44
5691.00,2.44
5690.00,2.43
5689.00,2.43
5688.00,2.43
5687.00,2.43
5686.00,2.42
5685.00,2.42
5684.00,2.42
5683.00,2.42
5682.00,2.42
5681.00,2.41
5680.00,2.41
5679.00,2.41
5678.00,2.41
5677.00,2.41
5676.00,2.41
5675.00,2.40
5674.00,2.40
5673.00,2.40
5672.00,2.40
5671.00,2.40
5670.00,2.40
5669.00,2.40
5668.00,2.40
5667.00,2.40
5666.00,2.40
5665.00,2.40
5664.00,2.40
5663.00,2.40
5662.00,2.40
5661.00,2.40
5660.00,2.40
5659.00,2.41
5658.00,2.41
5657.00,2.41
5656.00,2.42
5655.00,2.42
5654.00,2.42
5653.00,2.43
5652.00,2.43
5651.00,2.44
5650.00,2.44
5649.00,2.44
5648.00,2.45
5647.00,2.45
5646.00,2.46
5645.00,2.46
5644.00,2.46
5643.00,2.47
5642.00,2.47
5641.00,2.48
5640.00,2.48
5639.00,2.49
5638.00,2.49
5637.00,2.50
5636.00,2.50
5635.00,2.50
5634.00,2.51
5633.00,2.51
5632.00,2.51
5631.00,2.52
5630.00,2.52
5629.00,2.52
5628.00,2.52
5627.00,2.53
5626.00,2.53
5625.00,2.53
5624.00,2.53
5623.00,2.53
5622.00,2.54
5621.00,2.54
5620.00,2.54
5619.00,2.54
5618.00,2.54
5617.00,2.54
5616.00,2.54
5615.00,2.54
5614.00,2.55
5613.00,2.55
5612.00,2.55
5611.00,2.55
5610.00,2.55
5609.00,2.55
5608.00,2.55
5607.00,2.55
5606.00,2.55
5605.00,2.55
5604.00,2.55
5603.00,2.55
5602.00,2.55
5601.00,2.55
5600.00,2.55
5599.00,2.55
5598.00,2.55
5597.00,2.55
5596.00,2.55
5595.00,2.55
5594.00,2.55
5593.00,2.55
5592.00,2.55
5591.00,2.55
5590.00,2.55
5589.00,2.55
5588.00,2.55
5587.00,2.55
5586.00,2.55
5585.00,2.55
5584.00,2.55
5583.00,2.56
5582.00,2.56
5581.00,2.56
5580.00,2.56
5579.00,2.56
5578.00,2.56
5577.00,2.57
5576.00,2.57
5575.00,2.57
5574.00,2.57
5573.00,2.58
5572.00,2.58
5571.00,2.58
5570.00,2.58
5569.00,2.59
5568.00,2.59
5567.00,2.59
5566.00,2.60
5565.00,2.60
5564.00,2.60
5563.00,2.61
5562.00,2.61
5561.00,2.61
5560.00,2.61
5559.00,2.62
5558.00,2.62
5557.00,2.62
5556.00,2.62
5555.00,2.63
5554.00,2.63
5553.00,2.63
5552.00,2.63
5551.00,2.64
5550.00,2.64
5549.00,2.64
5548.00,2.64
5547.00,2.65
5546.00,2.65
5545.00,2.65
5544.00,2.65
5543.00,2.66
5542.00,2.66
5541.00,2.66
5540.00,2.66
5539.00,2.67
5538.00,2.67
5537.00,2.67
5536.00,2.67
5535.00,2.68
5534.00,2.68
5533.00,2.68
5532.00,2.68
5531.00,2.68
5530.00,2.69
5529.00,2.69
5528.00,2.69
5527.00,2.69
5526.00,2.69
5525.00,2.69
5524.00,2.70
5523.00,2.70
5522.00,2.70
5521.00,2.70
5520.00,2.70
5519.00,2.70
5518.00,2.70
5517.00,2.70
5516.00,2.70
5515.00,2.70
5514.00,2.70
5513.00,2.70
5512.00,2.70
5511.00,2.70
5510.00,2.70
5509.00,2.70
5508.00,2.70
5507.00,2.70
5506.00,2.70
5505.00,2.70
5504.00,2.70
5503.00,2.70
5502.00,2.70
5501.00,2.70
5500.00,2.70
5499.00,2.70
5498.00,2.69
5497.00,2.69
5496.00,2.69
5495.00,2.69
5494.00,2.70
5493.00,2.70
5492.00,2.70
5491.00,2.70
5490.00,2.70
5489.00,2.70
5488.00,2.70
5487.00,2.70
5486.00,2.70
5485.00,2.70
5484.00,2.70
5483.00,2.70
5482.00,2.71
5481.00,2.71
5480.00,2.71
5479.00,2.71
5478.00,2.72
5477.00,2.72
5476.00,2.72
5475.00,2.73
5474.00,2.73
5473.00,2.74
5472.00,2.74
5471.00,2.74
5470.00,2.75
5469.00,2.75
5468.00,2.75
5467.00,2.76
5466.00,2.76
5465.00,2.76
5464.00,2.77
5463.00,2.77
5462.00,2.77
5461.00,2.78
5460.00,2.78
5459.00,2.78
5458.00,2.78
5457.00,2.79
5456.00,2.79
5455.00,2.79
5454.00,2.79
5453.00,2.79
5452.00,2.80
5451.00,2.80
5450.00,2.80
5449.00,2.80
5448.00,2.80
5447.00,2.80
5446.00,2.81
5445.00,2.81
5444.00,2.81
5443.00,2.81
5442.00,2.81
5441.00,2.81
5440.00,2.81
5439.00,2.81
5438.00,2.81
5437.00,2.81
5436.00,2.81
5435.00,2.81
5434.00,2.81
5433.00,2.81
5432.00,2.81
5431.00,2.81
5430.00,2.81
5429.00,2.81
5428.00,2.81
5427.00,2.81
5426.00,2.81
5425.00,2.81
5424.00,2.81
5423.00,2.81
5422.00,2.81
5421.00,2.81
5420.00,2.81
5419.00,2.81
5418.00,2.81
5417.00,2.81
5416.00,2.81
5415.00,2.81
5414.00,2.81
5413.00,2.81
5412.00,2.81
5411.00,2.81
5410.00,2.81
5409.00,2.81
5408.00,2.80
5407.00,2.80
5406.00,2.80
5405.00,2.80
5404.00,2.80
5403.00,2.79
5402.00,2.79
5401.00,2.79
5400.00,2.79
5399.00,2.79
5398.00,2.78
5397.00,2.78
5396.00,2.78
5395.00,2.77
5394.00,2.77
5393.00,2.76
5392.00,2.76
5391.00,2.75
5390.00,2.74
5389.00,2.74
5388.00,2.73
5387.00,2.73
5386.00,2.72
5385.00,2.71
5384.00,2.71
5383.00,2.70
5382.00,2.70
5381.00,2.69
5380.00,2.68
5379.00,2.68
5378.00,2.67
5377.00,2.66
5376.00,2.66
5375.00,2.65
5374.00,2.64
5373.00,2.64
5372.00,2.63
5371.00,2.62
5370.00,2.62
5369.00,2.61
5368.00,2.60
5367.00,2.60
5366.00,2.59
5365.00,2.59
5364.00,2.58
5363.00,2.57
5362.00,2.57
5361.00,2.56
5360.00,2.55
5359.00,2.54
5358.00,2.53
5357.00,2.53
5356.00,2.52
5355.00,2.51
5354.00,2.49
5353.00,2.48
5352.00,2.47
5351.00,2.46
5350.00,2.45
5349.00,2.43
5348.00,2.42
5347.00,2.40
5346.00,2.39
5345.00,2.37
5344.00,2.36
5343.00,2.34
5342.00,2.32
5341.00,2.31
5340.00,2.29
5339.00,2.27
5338.00,2.25
5337.00,2.23
5336.00,2.21
5335.00,2.18
5334.00,2.16
5333.00,2.14
5332.00,2.12
5331.00,2.10
5330.00,2.08
5329.00,2.05
5328.00,2.03
5327.00,2.01
5326.00,1.99
5325.00,1.97
5324.00,1.94
5323.00,1.92
5322.00,1.90
5321.00,1.88
5320.00,1.86
5319.00,1.83
5318.00,1.81
5317.00,1.79
5316.00,1.77
5315.00,1.75
5314.00,1.73
5313.00,1.71
5312.00,1.70
5311.00,1.68
5310.00,1.66
5309.00,1.64
5308.00,1.62
5307.00,1.61
5306.00,1.59
5305.00,1.57
5304.00,1.56
5303.00,1.54
5302.00,1.52
5301.00,1.51
5300.00,1.49
5299.00,1.48
5298.00,1.47
5297.00,1.45
5296.00,1.44
5295.00,1.43
5294.00,1.41
5293.00,1.40
5292.00,1.39
5291.00,1.37
5290.00,1.36
5289.00,1.35
5288.00,1.34
5287.00,1.33
5286.00,1.32
5285.00,1.30
5284.00,1.29
5283.00,1.28
5282.00,1.27
5281.00,1.26
5280.00,1.25
5279.00,1.24
5278.00,1.23
5277.00,1.23
5276.00,1.22
5275.00,1.21
5274.00,1.20
5273.00,1.20
5272.00,1.19
5271.00,1.18
5270.00,1.18
5269.00,1.17
5268.00,1.16
5267.00,1.16
5266.00,1.15
5265.00,1.15
5264.00,1.14
5263.00,1.14
5262.00,1.14
5261.00,1.13
5260.00,1.13
5259.00,1.13
5258.00,1.12
5257.00,1.12
5256.00,1.12
5255.00,1.12
5254.00,1.12
5253.00,1.12
5252.00,1.12
5251.00,1.11
5250.00,1.11
5249.00,1.11
5248.00,1.11
5247.00,1.11
5246.00,1.11
5245.00,1.11
5244.00,1.11
5243.00,1.11
5242.00,1.11
5241.00,1.11
5240.00,1.11
5239.00,1.11
5238.00,1.11
5237.00,1.11
5236.00,1.11
5235.00,1.11
5234.00,1.11
5233.00,1.11
5232.00,1.11
5231.00,1.11
5230.00,1.11
5229.00,1.11
5228.00,1.11
5227.00,1.11
5226.00,1.11
5225.00,1.11
5224.00,1.11
5223.00,1.11
5222.00,1.11
5221.00,1.11
5220.00,1.11
5219.00,1.11
5218.00,1.11
5217.00,1.11
5216.00,1.11
5215.00,1.10
5214.00,1.10
5213.00,1.10
5212.00,1.10
5211.00,1.10
5210.00,1.10
5209.00,1.10
5208.00,1.10
5207.00,1.10
5206.00,1.10
5205.00,1.09
5204.00,1.09
5203.00,1.09
5202.00,1.09
5201.00,1.09
5200.00,1.09
5199.00,1.08
5198.00,1.08
5197.00,1.08
5196.00,1.08
5195.00,1.08
5194.00,1.08
5193.00,1.08
5192.00,1.08
5191.00,1.08
5190.00,1.08
5189.00,1.08
5188.00,1.08
5187.00,1.08
5186.00,1.08
5185.00,1.08
5184.00,1.09
5183.00,1.09
5182.00,1.09
5181.00,1.09
5180.00,1.09
5179.00,1.09
5178.00,1.10
5177.00,1.10
5176.00,1.10
5175.00,1.11
5174.00,1.11
5173.00,1.11
5172.00,1.12
5171.00,1.12
5170.00,1.12
5169.00,1.12
5168.00,1.13
5167.00,1.13
5166.00,1.13
5165.00,1.13
5164.00,1.13
5163.00,1.13
5162.00,1.13
5161.00,1.13
5160.00,1.13
5159.00,1.13
5158.00,1.13
5157.00,1.13
5156.00,1.13
5155.00,1.13
5154.00,1.13
5153.00,1.12
5152.00,1.12
5151.00,1.12
5150.00,1.12
5149.00,1.12
5148.00,1.12
5147.00,1.12
5146.00,1.11
5145.00,1.11
5144.00,1.11
5143.00,1.11
5142.00,1.11
5141.00,1.11
5140.00,1.11
5139.00,1.11
5138.00,1.11
5137.00,1.11
5136.00,1.11
5135.00,1.11
5134.00,1.11
5133.00,1.11
5132.00,1.12
5131.00,1.12
5130.00,1.12
5129.00,1.12
5128.00,1.12
5127.00,1.13
5126.00,1.13
5125.00,1.13
5124.00,1.13
5123.00,1.13
5122.00,1.13
5121.00,1.14
5120.00,1.14
5119.00,1.14
5118.00,1.14
5117.00,1.14
5116.00,1.14
5115.00,1.14
5114.00,1.15
5113.00,1.15
5112.00,1.15
5111.00,1.15
5110.00,1.15
5109.00,1.15
5108.00,1.15
5107.00,1.15
5106.00,1.15
5105.00,1.16
5104.00,1.16
5103.00,1.16
5102.00,1.16
5101.00,1.16
5100.00,1.17
5099.00,1.17
5098.00,1.17
5097.00,1.17
5096.00,1.18
5095.00,1.18
5094.00,1.18
5093.00,1.18
5092.00,1.19
5091.00,1.19
5090.00,1.19
5089.00,1.20
5088.00,1.20
5087.00,1.20
5086.00,1.20
5085.00,1.21
5084.00,1.21
5083.00,1.21
5082.00,1.21
5081.00,1.21
5080.00,1.22
5079.00,1.22
5078.00,1.22
5077.00,1.22
5076.00,1.22
5075.00,1.22
5074.00,1.22
5073.00,1.23
5072.00,1.23
5071.00,1.23
5070.00,1.23
5069.00,1.23
5068.00,1.23
5067.00,1.23
5066.00,1.23
5065.00,1.23
5064.00,1.23
5063.00,1.23
5062.00,1.23
5061.00,1.24
5060.00,1.24
5059.00,1.24
5058.00,1.24
5057.00,1.24
5056.00,1.24
5055.00,1.24
5054.00,1.24
5053.00,1.24
5052.00,1.25
5051.00,1.25
5050.00,1.25
5049.00,1.25
5048.00,1.25
5047.00,1.25
5046.00,1.26
5045.00,1.26
5044.00,1.26
5043.00,1.26
5042.00,1.26
5041.00,1.27
5040.00,1.27
5039.00,1.27
5038.00,1.27
5037.00,1.28
5036.00,1.28
5035.00,1.28
5034.00,1.28
5033.00,1.29
5032.00,1.29
5031.00,1.29
5030.00,1.30
5029.00,1.30
5028.00,1.30
5027.00,1.31
5026.00,1.31
5025.00,1.32
5024.00,1.32
5023.00,1.32
5022.00,1.33
5021.00,1.33
5020.00,1.34
5019.00,1.34
5018.00,1.34
5017.00,1.35
5016.00,1.35
5015.00,1.36
5014.00,1.36
5013.00,1.36
5012.00,1.37
5011.00,1.37
5010.00,1.37
5009.00,1.38
5008.00,1.38
5007.00,1.38
5006.00,1.39
5005.00,1.39
5004.00,1.39
5003.00,1.40
5002.00,1.40
5001.00,1.40
5000.00,1.40
4999.00,1.41
4998.00,1.41
4997.00,1.41
4996.00,1.41
4995.00,1.42
4994.00,1.42
4993.00,1.42
4992.00,1.42
4991.00,1.42
4990.00,1.43
4989.00,1.43
4988.00,1.43
4987.00,1.43
4986.00,1.44
4985.00,1.44
4984.00,1.44
4983.00,1.44
4982.00,1.45
4981.00,1.45
4980.00,1.45
4979.00,1.46
4978.00,1.46
4977.00,1.46
4976.00,1.47
4975.00,1.47
4974.00,1.47
4973.00,1.48
4972.00,1.48
4971.00,1.48
4970.00,1.49
4969.00,1.49
4968.00,1.50
4967.00,1.50
4966.00,1.50
4965.00,1.51
4964.00,1.51
4963.00,1.52
4962.00,1.52
4961.00,1.52
4960.00,1.53
4959.00,1.53
4958.00,1.53
4957.00,1.54
4956.00,1.54
4955.00,1.54
4954.00,1.54
4953.00,1.54
4952.00,1.55
4951.00,1.55
4950.00,1.55
4949.00,1.55
4948.00,1.55
4947.00,1.55
4946.00,1.55
4945.00,1.55
4944.00,1.55
4943.00,1.55
4942.00,1.55
4941.00,1.55
4940.00,1.55
4939.00,1.55
4938.00,1.55
4937.00,1.55
4936.00,1.56
4935.00,1.56
4934.00,1.56
4933.00,1.56
4932.00,1.56
4931.00,1.56
4930.00,1.56
4929.00,1.56
4928.00,1.56
4927.00,1.56
4926.00,1.56
4925.00,1.57
4924.00,1.57
4923.00,1.57
4922.00,1.57
4921.00,1.58
4920.00,1.58
4919.00,1.59
4918.00,1.59
4917.00,1.59
4916.00,1.60
4915.00,1.60
4914.00,1.61
4913.00,1.61
4912.00,1.62
4911.00,1.62
4910.00,1.63
4909.00,1.63
4908.00,1.63
4907.00,1.64
4906.00,1.64
4905.00,1.64
4904.00,1.65
4903.00,1.65
4902.00,1.65
4901.00,1.66
4900.00,1.66
4899.00,1.66
4898.00,1.66
4897.00,1.66
4896.00,1.66
4895.00,1.66
4894.00,1.66
4893.00,1.66
4892.00,1.66
4891.00,1.66
4890.00,1.66
4889.00,1.66
4888.00,1.65
4887.00,1.65
4886.00,1.65
4885.00,1.65
4884.00,1.65
4883.00,1.65
4882.00,1.65
4881.00,1.65
4880.00,1.65
4879.00,1.64
4878.00,1.64
4877.00,1.64
4876.00,1.64
4875.00,1.64
4874.00,1.64
4873.00,1.64
4872.00,1.65
4871.00,1.65
4870.00,1.65
4869.00,1.65
4868.00,1.65
4867.00,1.66
4866.00,1.66
4865.00,1.66
4864.00,1.66
4863.00,1.67
4862.00,1.67
4861.00,1.67
4860.00,1.68
4859.00,1.68
4858.00,1.68
4857.00,1.69
4856.00,1.69
4855.00,1.70
4854.00,1.70
4853.00,1.70
4852.00,1.71
4851.00,1.71
4850.00,1.72
4849.00,1.72
4848.00,1.72
4847.00,1.73
4846.00,1.73
4845.00,1.73
4844.00,1.73
4843.00,1.74
4842.00,1.74
4841.00,1.74
4840.00,1.74
4839.00,1.75
4838.00,1.75
4837.00,1.75
4836.00,1.76
4835.00,1.76
4834.00,1.76
4833.00,1.76
4832.00,1.77
4831.00,1.77
4830.00,1.77
4829.00,1.77
4828.00,1.77
4827.00,1.77
4826.00,1.78
4825.00,1.78
4824.00,1.78
4823.00,1.78
4822.00,1.78
4821.00,1.78
4820.00,1.79
4819.00,1.79
4818.00,1.79
4817.00,1.79
4816.00,1.79
4815.00,1.79
4814.00,1.80
4813.00,1.80
4812.00,1.80
4811.00,1.80
4810.00,1.80
4809.00,1.80
4808.00,1.81
4807.00,1.81
4806.00,1.81
4805.00,1.82
4804.00,1.82
4803.00,1.82
4802.00,1.83
4801.00,1.83
4800.00,1.84
4799.00,1.85
4798.00,1.85
4797.00,1.86
4796.00,1.87
4795.00,1.87
4794.00,1.88
4793.00,1.89
4792.00,1.90
4791.00,1.90
4790.00,1.91
4789.00,1.92
4788.00,1.93
4787.00,1.94
4786.00,1.94
4785.00,1.95
4784.00,1.96
4783.00,1.97
4782.00,1.97
4781.00,1.98
4780.00,1.99
4779.00,2.00
4778.00,2.00
4777.00,2.01
4776.00,2.01
4775.00,2.02
4774.00,2.02
4773.00,2.03
4772.00,2.03
4771.00,2.03
4770.00,2.03
4769.00,2.04
4768.00,2.04
4767.00,2.04
4766.00,2.04
4765.00,2.05
4764.00,2.05
4763.00,2.05
4762.00,2.05
4761.00,2.05
4760.00,2.06
4759.00,2.06
4758.00,2.06
4757.00,2.06
4756.00,2.06
4755.00,2.07
4754.00,2.07
4753.00,2.07
4752.00,2.07
4751.00,2.08
4750.00,2.08
4749.00,2.08
4748.00,2.08
4747.00,2.09
4746.00,2.09
4745.00,2.09
4744.00,2.09
4743.00,2.10
4742.00,2.10
4741.00,2.10
4740.00,2.11
4739.00,2.11
4738.00,2.11
4737.00,2.11
4736.00,2.12
4735.00,2.12
4734.00,2.12
4733.00,2.12
4732.00,2.13
4731.00,2.13
4730.00,2.13
4729.00,2.13
4728.00,2.14
4727.00,2.14
4726.00,2.14
4725.00,2.14
4724.00,2.15
4723.00,2.15
4722.00,2.15
4721.00,2.16
4720.00,2.16
4719.00,2.17
4718.00,2.17
4717.00,2.18
4716.00,2.18
4715.00,2.19
4714.00,2.20
4713.00,2.20
4712.00,2.21
4711.00,2.22
4710.00,2.22
4709.00,2.23
4708.00,2.24
4707.00,2.25
4706.00,2.25
4705.00,2.26
4704.00,2.27
4703.00,2.28
4702.00,2.29
4701.00,2.30
4700.00,2.31
4699.00,2.32
4698.00,2.32
4697.00,2.33
4696.00,2.34
4695.00,2.35
4694.00,2.36
4693.00,2.37
4692.00,2.37
4691.00,2.38
4690.00,2.39
4689.00,2.39
4688.00,2.40
4687.00,2.40
4686.00,2.41
4685.00,2.42
4684.00,2.42
4683.00,2.43
4682.00,2.43
4681.00,2.44
4680.00,2.44
4679.00,2.45
4678.00,2.45
4677.00,2.45
4676.00,2.46
4675.00,2.46
4674.00,2.47
4673.00,2.47
4672.00,2.48
4671.00,2.48
4670.00,2.48
4669.00,2.49
4668.00,2.49
4667.00,2.50
4666.00,2.50
4665.00,2.51
4664.00,2.51
4663.00,2.52
4662.00,2.52
4661.00,2.53
4660.00,2.53
4659.00,2.54
4658.00,2.54
4657.00,2.55
4656.00,2.55
4655.00,2.55
4654.00,2.56
4653.00,2.56
4652.00,2.57
4651.00,2.57
4650.00,2.58
4649.00,2.58
4648.00,2.58
4647.00,2.58
4646.00,2.59
4645.00,2.59
4644.00,2.59
4643.00,2.59
4642.00,2.59
4641.00,2.60
4640.00,2.60
4639.00,2.60
4638.00,2.60
4637.00,2.60
4636.00,2.60
4635.00,2.60
4634.00,2.60
4633.00,2.60
4632.00,2.60
4631.00,2.60
4630.00,2.60
4629.00,2.60
4628.00,2.61
4627.00,2.61
4626.00,2.61
4625.00,2.61
4624.00,2.61
4623.00,2.61
4622.00,2.61
4621.00,2.61
4620.00,2.61
4619.00,2.61
4618.00,2.61
4617.00,2.61
4616.00,2.61
4615.00,2.61
4614.00,2.61
4613.00,2.61
4612.00,2.62
4611.00,2.62
4610.00,2.62
4609.00,2.62
4608.00,2.62
4607.00,2.62
4606.00,2.62
4605.00,2.62
4604.00,2.62
4603.00,2.63
4602.00,2.63
4601.00,2.63
4600.00,2.63
4599.00,2.63
4598.00,2.63
4597.00,2.63
4596.00,2.64
4595.00,2.64
4594.00,2.64
4593.00,2.64
4592.00,2.64
4591.00,2.64
4590.00,2.64
4589.00,2.64
4588.00,2.64
4587.00,2.64
4586.00,2.64
4585.00,2.65
4584.00,2.65
4583.00,2.65
4582.00,2.65
4581.00,2.65
4580.00,2.65
4579.00,2.65
4578.00,2.65
4577.00,2.65
4576.00,2.64
4575.00,2.64
4574.00,2.64
4573.00,2.64
4572.00,2.64
4571.00,2.64
4570.00,2.64
4569.00,2.65
4568.00,2.65
4567.00,2.65
4566.00,2.65
4565.00,2.66
4564.00,2.66
4563.00,2.66
4562.00,2.67
4561.00,2.67
4560.00,2.67
4559.00,2.68
4558.00,2.68
4557.00,2.68
4556.00,2.69
4555.00,2.69
4554.00,2.69
4553.00,2.70
4552.00,2.70
4551.00,2.70
4550.00,2.71
4549.00,2.71
4548.00,2.72
4547.00,2.72
4546.00,2.72
4545.00,2.73
4544.00,2.73
4543.00,2.73
4542.00,2.73
4541.00,2.74
4540.00,2.74
4539.00,2.74
4538.00,2.74
4537.00,2.74
4536.00,2.74
4535.00,2.74
4534.00,2.74
4533.00,2.74
4532.00,2.75
4531.00,2.75
4530.00,2.75
4529.00,2.75
4528.00,2.75
4527.00,2.76
4526.00,2.76
4525.00,2.76
4524.00,2.76
4523.00,2.77
4522.00,2.77
4521.00,2.77
4520.00,2.77
4519.00,2.77
4518.00,2.77
4517.00,2.78
4516.00,2.78
4515.00,2.78
4514.00,2.78
4513.00,2.78
4512.00,2.79
4511.00,2.79
4510.00,2.79
4509.00,2.79
4508.00,2.79
4507.00,2.79
4506.00,2.79
4505.00,2.79
4504.00,2.79
4503.00,2.79
4502.00,2.78
4501.00,2.78
4500.00,2.78
4499.00,2.77
4498.00,2.77
4497.00,2.77
4496.00,2.76
4495.00,2.76
4494.00,2.75
4493.00,2.75
4492.00,2.74
4491.00,2.74
4490.00,2.74
4489.00,2.73
4488.00,2.73
4487.00,2.72
4486.00,2.71
4485.00,2.71
4484.00,2.70
4483.00,2.70
4482.00,2.69
4481.00,2.69
4480.00,2.68
4479.00,2.67
4478.00,2.67
4477.00,2.66
4476.00,2.65
4475.00,2.65
4474.00,2.64
4473.00,2.63
4472.00,2.63
4471.00,2.62
4470.00,2.62
4469.00,2.61
4468.00,2.60
4467.00,2.60
4466.00,2.59
4465.00,2.58
4464.00,2.57
4463.00,2.57
4462.00,2.56
4461.00,2.55
4460.00,2.54
4459.00,2.53
4458.00,2.52
4457.00,2.50
4456.00,2.49
4455.00,2.48
4454.00,2.47
4453.00,2.46
4452.00,2.44
4451.00,2.43
4450.00,2.42
4449.00,2.41
4448.00,2.39
4447.00,2.38
4446.00,2.37
4445.00,2.35
4444.00,2.34
4443.00,2.32
4442.00,2.31
4441.00,2.29
4440.00,2.28
4439.00,2.26
4438.00,2.24
4437.00,2.23
4436.00,2.21
4435.00,2.20
4434.00,2.18
4433.00,2.17
4432.00,2.15
4431.00,2.14
4430.00,2.12
4429.00,2.11
4428.00,2.10
4427.00,2.08
4426.00,2.07
4425.00,2.06
4424.00,2.05
4423.00,2.04
4422.00,2.03
4421.00,2.02
4420.00,2.01
4419.00,2.01
4418.00,2.00
4417.00,1.99
4416.00,1.99
4415.00,1.98
4414.00,1.98
4413.00,1.98
4412.00,1.98
4411.00,1.97
4410.00,1.97
4409.00,1.98
4408.00,1.98
4407.00,1.98
4406.00,1.98
4405.00,1.99
4404.00,1.99
4403.00,2.00
4402.00,2.00
4401.00,2.01
4400.00,2.01
4399.00,2.02
4398.00,2.03
4397.00,2.03
4396.00,2.04
4395.00,2.05
4394.00,2.05
4393.00,2.06
4392.00,2.07
4391.00,2.07
4390.00,2.08
4389.00,2.09
4388.00,2.09
4387.00,2.10
4386.00,2.11
4385.00,2.11
4384.00,2.12
4383.00,2.12
4382.00,2.13
4381.00,2.13
4380.00,2.14
4379.00,2.14
4378.00,2.15
4377.00,2.15
4376.00,2.15
4375.00,2.16
4374.00,2.16
4373.00,2.16
4372.00,2.16
4371.00,2.16
4370.00,2.16
4369.00,2.16
4368.00,2.16
4367.00,2.16
4366.00,2.16
4365.00,2.16
4364.00,2.15
4363.00,2.15
4362.00,2.15
4361.00,2.15
4360.00,2.14
4359.00,2.14
4358.00,2.14
4357.00,2.13
4356.00,2.13
4355.00,2.12
4354.00,2.12
4353.00,2.11
4352.00,2.10
4351.00,2.10
4350.00,2.09
4349.00,2.08
4348.00,2.08
4347.00,2.07
4346.00,2.07
4345.00,2.06
4344.00,2.06
4343.00,2.06
4342.00,2.05
4341.00,2.05
4340.00,2.05
4339.00,2.05
4338.00,2.05
4337.00,2.05
4336.00,2.05
4335.00,2.05
4334.00,2.05
4333.00,2.05
4332.00,2.05
4331.00,2.06
4330.00,2.06
4329.00,2.07
4328.00,2.08
4327.00,2.09
4326.00,2.10
4325.00,2.11
4324.00,2.12
4323.00,2.13
4322.00,2.14
4321.00,2.15
4320.00,2.17
4319.00,2.18
4318.00,2.19
4317.00,2.20
4316.00,2.21
4315.00,2.22
4314.00,2.24
4313.00,2.25
4312.00,2.26
4311.00,2.27
4310.00,2.29
4309.00,2.30
4308.00,2.31
4307.00,2.33
4306.00,2.34
4305.00,2.35
4304.00,2.37
4303.00,2.38
4302.00,2.39
4301.00,2.40
4300.00,2.41
4299.00,2.42
4298.00,2.43
4297.00,2.43
4296.00,2.44
4295.00,2.44
4294.00,2.45
4293.00,2.46
4292.00,2.46
4291.00,2.47
4290.00,2.48
4289.00,2.48
4288.00,2.49
4287.00,2.50
4286.00,2.50
4285.00,2.51
4284.00,2.51
4283.00,2.52
4282.00,2.52
4281.00,2.52
4280.00,2.52
4279.00,2.52
4278.00,2.52
4277.00,2.52
4276.00,2.52
4275.00,2.52
4274.00,2.52
4273.00,2.52
4272.00,2.52
4271.00,2.52
4270.00,2.52
4269.00,2.52
4268.00,2.52
4267.00,2.51
4266.00,2.51
4265.00,2.51
4264.00,2.50
4263.00,2.49
4262.00,2.49
4261.00,2.48
4260.00,2.48
4259.00,2.47
4258.00,2.46
4257.00,2.45
4256.00,2.44
4255.00,2.44
4254.00,2.43
4253.00,2.42
4252.00,2.42
4251.00,2.41
4250.00,2.41
4249.00,2.40
4248.00,2.40
4247.00,2.39
4246.00,2.39
4245.00,2.39
4244.00,2.38
4243.00,2.38
4242.00,2.38
4241.00,2.38
4240.00,2.39
4239.00,2.39
4238.00,2.39
4237.00,2.40
4236.00,2.40
4235.00,2.41
4234.00,2.41
4233.00,2.42
4232.00,2.43
4231.00,2.43
4230.00,2.44
4229.00,2.45
4228.00,2.45
4227.00,2.46
4226.00,2.47
4225.00,2.48
4224.00,2.48
4223.00,2.49
4222.00,2.49
4221.00,2.50
4220.00,2.51
4219.00,2.51
4218.00,2.52
4217.00,2.52
4216.00,2.53
4215.00,2.53
4214.00,2.53
4213.00,2.53
4212.00,2.53
4211.00,2.53
4210.00,2.53
4209.00,2.53
4208.00,2.53
4207.00,2.52
4206.00,2.52
4205.00,2.52
4204.00,2.52
4203.00,2.52
4202.00,2.52
4201.00,2.52
4200.00,2.51
4199.00,2.51
4198.00,2.51
4197.00,2.51
4196.00,2.51
4195.00,2.52
4194.00,2.52
4193.00,2.52
4192.00,2.52
4191.00,2.52
4190.00,2.52
4189.00,2.52
4188.00,2.52
4187.00,2.52
4186.00,2.52
4185.00,2.52
4184.00,2.53
4183.00,2.53
4182.00,2.53
4181.00,2.54
4180.00,2.54
4179.00,2.55
4178.00,2.55
4177.00,2.56
4176.00,2.56
4175.00,2.57
4174.00,2.57
4173.00,2.57
4172.00,2.57
4171.00,2.57
4170.00,2.57
4169.00,2.57
4168.00,2.57
4167.00,2.57
4166.00,2.57
4165.00,2.57
4164.00,2.57
4163.00,2.57
4162.00,2.57
4161.00,2.57
4160.00,2.57
4159.00,2.57
4158.00,2.57
4157.00,2.56
4156.00,2.56
4155.00,2.56
4154.00,2.56
4153.00,2.55
4152.00,2.55
4151.00,2.55
4150.00,2.54
4149.00,2.54
4148.00,2.54
4147.00,2.53
4146.00,2.53
4145.00,2.53
4144.00,2.53
4143.00,2.53
4142.00,2.53
4141.00,2.54
4140.00,2.54
4139.00,2.54
4138.00,2.54
4137.00,2.54
4136.00,2.54
4135.00,2.54
4134.00,2.54
4133.00,2.55
4132.00,2.55
4131.00,2.55
4130.00,2.55
4129.00,2.55
4128.00,2.55
4127.00,2.55
4126.00,2.55
4125.00,2.56
4124.00,2.56
4123.00,2.56
4122.00,2.56
4121.00,2.57
4120.00,2.57
4119.00,2.58
4118.00,2.58
4117.00,2.58
4116.00,2.59
4115.00,2.59
4114.00,2.60
4113.00,2.60
4112.00,2.60
4111.00,2.61
4110.00,2.61
4109.00,2.62
4108.00,2.62
4107.00,2.63
4106.00,2.63
4105.00,2.63
4104.00,2.64
4103.00,2.64
4102.00,2.65
4101.00,2.65
4100.00,2.65
4099.00,2.65
4098.00,2.65
4097.00,2.65
4096.00,2.65
4095.00,2.65
4094.00,2.65
4093.00,2.65
4092.00,2.65
4091.00,2.64
4090.00,2.64
4089.00,2.64
4088.00,2.63
4087.00,2.62
4086.00,2.62
4085.00,2.61
4084.00,2.60
4083.00,2.60
4082.00,2.59
4081.00,2.58
4080.00,2.58
4079.00,2.57
4078.00,2.57
4077.00,2.56
4076.00,2.56
4075.00,2.55
4074.00,2.55
4073.00,2.54
4072.00,2.54
4071.00,2.54
4070.00,2.54
4069.00,2.54
4068.00,2.54
4067.00,2.54
4066.00,2.54
4065.00,2.54
4064.00,2.54
4063.00,2.54
4062.00,2.54
4061.00,2.54
4060.00,2.55
4059.00,2.55
4058.00,2.55
4057.00,2.55
4056.00,2.56
4055.00,2.56
4054.00,2.56
4053.00,2.56
4052.00,2.56
4051.00,2.56
4050.00,2.56
4049.00,2.56
4048.00,2.55
4047.00,2.55
4046.00,2.55
4045.00,2.55
4044.00,2.55
4043.00,2.54
4042.00,2.54
4041.00,2.54
4040.00,2.54
4039.00,2.54
4038.00,2.54
4037.00,2.54
4036.00,2.54
4035.00,2.54
4034.00,2.54
4033.00,2.54
4032.00,2.55
4031.00,2.55
4030.00,2.55
4029.00,2.56
4028.00,2.56
4027.00,2.57
4026.00,2.58
4025.00,2.59
4024.00,2.60
4023.00,2.61
4022.00,2.62
4021.00,2.63
4020.00,2.63
4019.00,2.64
4018.00,2.65
4017.00,2.66
4016.00,2.66
4015.00,2.67
4014.00,2.67
4013.00,2.68
4012.00,2.68
4011.00,2.68
4010.00,2.69
4009.00,2.69
4008.00,2.69
4007.00,2.69
4006.00,2.69
4005.00,2.69
4004.00,2.69
4003.00,2.68
4002.00,2.68
4001.00,2.67
4000.00,2.66
