创建为新数据集,样品 420 用户 Administrator 日期 星期日, 七月 28 2019
cm-1,%T
10000.00,3.08
9999.00,3.07
9998.00,3.07
9997.00,3.06
9996.00,3.06
9995.00,3.06
9994.00,3.05
9993.00,3.05
9992.00,3.05
9991.00,3.04
9990.00,3.04
9989.00,3.04
9988.00,3.04
9987.00,3.04
9986.00,3.04
9985.00,3.04
9984.00,3.04
9983.00,3.04
9982.00,3.04
9981.00,3.04
9980.00,3.03
9979.00,3.03
9978.00,3.03
9977.00,3.02
9976.00,3.02
9975.00,3.02
9974.00,3.02
9973.00,3.01
9972.00,3.01
9971.00,3.01
9970.00,3.02
9969.00,3.02
9968.00,3.02
9967.00,3.02
9966.00,3.02
9965.00,3.02
9964.00,3.03
9963.00,3.03
9962.00,3.03
9961.00,3.03
9960.00,3.03
9959.00,3.03
9958.00,3.03
9957.00,3.04
9956.00,3.04
9955.00,3.05
9954.00,3.05
9953.00,3.06
9952.00,3.06
9951.00,3.07
9950.00,3.08
9949.00,3.09
9948.00,3.10
9947.00,3.11
9946.00,3.12
9945.00,3.13
9944.00,3.14
9943.00,3.15
9942.00,3.16
9941.00,3.17
9940.00,3.18
9939.00,3.19
9938.00,3.20
9937.00,3.20
9936.00,3.21
9935.00,3.21
9934.00,3.22
9933.00,3.22
9932.00,3.22
9931.00,3.22
9930.00,3.22
9929.00,3.21
9928.00,3.21
9927.00,3.21
9926.00,3.21
9925.00,3.20
9924.00,3.20
9923.00,3.19
9922.00,3.18
9921.00,3.17
9920.00,3.16
9919.00,3.15
9918.00,3.14
9917.00,3.12
9916.00,3.11
9915.00,3.09
9914.00,3.07
9913.00,3.05
9912.00,3.04
9911.00,3.02
9910.00,3.01
9909.00,2.99
9908.00,2.98
9907.00,2.96
9906.00,2.95
9905.00,2.94
9904.00,2.92
9903.00,2.91
9902.00,2.90
9901.00,2.89
9900.00,2.88
9899.00,2.87
9898.00,2.87
9897.00,2.86
9896.00,2.85
9895.00,2.84
9894.00,2.83
9893.00,2.83
9892.00,2.82
9891.00,2.82
9890.00,2.82
9889.00,2.82
9888.00,2.82
9887.00,2.82
9886.00,2.82
9885.00,2.82
9884.00,2.82
9883.00,2.82
9882.00,2.82
9881.00,2.82
9880.00,2.83
9879.00,2.83
9878.00,2.83
9877.00,2.83
9876.00,2.84
9875.00,2.84
9874.00,2.84
9873.00,2.85
9872.00,2.85
9871.00,2.85
9870.00,2.85
9869.00,2.85
9868.00,2.85
9867.00,2.85
9866.00,2.85
9865.00,2.85
9864.00,2.85
9863.00,2.84
9862.00,2.84
9861.00,2.83
9860.00,2.83
9859.00,2.82
9858.00,2.82
9857.00,2.81
9856.00,2.81
9855.00,2.80
9854.00,2.80
9853.00,2.79
9852.00,2.79
9851.00,2.78
9850.00,2.78
9849.00,2.77
9848.00,2.77
9847.00,2.76
9846.00,2.76
9845.00,2.76
9844.00,2.76
9843.00,2.76
9842.00,2.76
9841.00,2.76
9840.00,2.76
9839.00,2.76
9838.00,2.77
9837.00,2.77
9836.00,2.77
9835.00,2.78
9834.00,2.78
9833.00,2.78
9832.00,2.79
9831.00,2.79
9830.00,2.79
9829.00,2.80
9828.00,2.80
9827.00,2.81
9826.00,2.81
9825.00,2.81
9824.00,2.81
9823.00,2.82
9822.00,2.82
9821.00,2.82
9820.00,2.82
9819.00,2.82
9818.00,2.82
9817.00,2.82
9816.00,2.81
9815.00,2.81
9814.00,2.81
9813.00,2.80
9812.00,2.80
9811.00,2.79
9810.00,2.79
9809.00,2.79
9808.00,2.79
9807.00,2.79
9806.00,2.79
9805.00,2.79
9804.00,2.79
9803.00,2.80
9802.00,2.80
9801.00,2.80
9800.00,2.79
9799.00,2.79
9798.00,2.79
9797.00,2.79
9796.00,2.79
9795.00,2.79
9794.00,2.78
9793.00,2.78
9792.00,2.78
9791.00,2.79
9790.00,2.79
9789.00,2.79
9788.00,2.79
9787.00,2.80
9786.00,2.80
9785.00,2.80
9784.00,2.81
9783.00,2.81
9782.00,2.81
9781.00,2.81
9780.00,2.81
9779.00,2.81
9778.00,2.81
9777.00,2.81
9776.00,2.81
9775.00,2.81
9774.00,2.81
9773.00,2.82
9772.00,2.82
9771.00,2.82
9770.00,2.82
9769.00,2.82
9768.00,2.83
9767.00,2.83
9766.00,2.83
9765.00,2.83
9764.00,2.83
9763.00,2.83
9762.00,2.83
9761.00,2.83
9760.00,2.84
9759.00,2.84
9758.00,2.84
9757.00,2.84
9756.00,2.84
9755.00,2.84
9754.00,2.84
9753.00,2.84
9752.00,2.85
9751.00,2.85
9750.00,2.85
9749.00,2.85
9748.00,2.85
9747.00,2.85
9746.00,2.85
9745.00,2.84
9744.00,2.84
9743.00,2.84
9742.00,2.84
9741.00,2.84
9740.00,2.83
9739.00,2.83
9738.00,2.82
9737.00,2.82
9736.00,2.81
9735.00,2.81
9734.00,2.80
9733.00,2.79
9732.00,2.78
9731.00,2.77
9730.00,2.77
9729.00,2.76
9728.00,2.75
9727.00,2.74
9726.00,2.73
9725.00,2.72
9724.00,2.71
9723.00,2.70
9722.00,2.69
9721.00,2.69
9720.00,2.68
9719.00,2.68
9718.00,2.67
9717.00,2.67
9716.00,2.66
9715.00,2.66
9714.00,2.66
9713.00,2.66
9712.00,2.66
9711.00,2.66
9710.00,2.67
9709.00,2.67
9708.00,2.67
9707.00,2.68
9706.00,2.69
9705.00,2.70
9704.00,2.71
9703.00,2.72
9702.00,2.73
9701.00,2.74
9700.00,2.75
9699.00,2.76
9698.00,2.77
9697.00,2.78
9696.00,2.79
9695.00,2.80
9694.00,2.81
9693.00,2.82
9692.00,2.83
9691.00,2.84
9690.00,2.84
9689.00,2.85
9688.00,2.85
9687.00,2.85
9686.00,2.85
9685.00,2.85
9684.00,2.85
9683.00,2.85
9682.00,2.85
9681.00,2.84
9680.00,2.84
9679.00,2.83
9678.00,2.82
9677.00,2.82
9676.00,2.81
9675.00,2.80
9674.00,2.79
9673.00,2.78
9672.00,2.77
9671.00,2.76
9670.00,2.75
9669.00,2.74
9668.00,2.73
9667.00,2.72
9666.00,2.71
9665.00,2.70
9664.00,2.69
9663.00,2.68
9662.00,2.67
9661.00,2.66
9660.00,2.65
9659.00,2.65
9658.00,2.64
9657.00,2.63
9656.00,2.63
9655.00,2.62
9654.00,2.61
9653.00,2.61
9652.00,2.60
9651.00,2.60
9650.00,2.59
9649.00,2.59
9648.00,2.59
9647.00,2.59
9646.00,2.59
9645.00,2.58
9644.00,2.58
9643.00,2.59
9642.00,2.59
9641.00,2.59
9640.00,2.59
9639.00,2.60
9638.00,2.61
9637.00,2.61
9636.00,2.62
9635.00,2.63
9634.00,2.64
9633.00,2.65
9632.00,2.66
9631.00,2.68
9630.00,2.69
9629.00,2.70
9628.00,2.71
9627.00,2.73
9626.00,2.74
9625.00,2.75
9624.00,2.76
9623.00,2.77
9622.00,2.78
9621.00,2.79
9620.00,2.79
9619.00,2.80
9618.00,2.80
9617.00,2.81
9616.00,2.81
9615.00,2.81
9614.00,2.81
9613.00,2.81
9612.00,2.81
9611.00,2.81
9610.00,2.80
9609.00,2.80
9608.00,2.79
9607.00,2.78
9606.00,2.78
9605.00,2.77
9604.00,2.76
9603.00,2.75
9602.00,2.75
9601.00,2.74
9600.00,2.73
9599.00,2.73
9598.00,2.72
9597.00,2.72
9596.00,2.72
9595.00,2.72
9594.00,2.72
9593.00,2.72
9592.00,2.72
9591.00,2.72
9590.00,2.72
9589.00,2.72
9588.00,2.72
9587.00,2.72
9586.00,2.72
9585.00,2.72
9584.00,2.72
9583.00,2.72
9582.00,2.72
9581.00,2.72
9580.00,2.72
9579.00,2.72
9578.00,2.73
9577.00,2.73
9576.00,2.73
9575.00,2.73
9574.00,2.73
9573.00,2.73
9572.00,2.74
9571.00,2.74
9570.00,2.74
9569.00,2.74
9568.00,2.74
9567.00,2.74
9566.00,2.75
9565.00,2.75
9564.00,2.75
9563.00,2.76
9562.00,2.76
9561.00,2.76
9560.00,2.77
9559.00,2.77
9558.00,2.78
9557.00,2.78
9556.00,2.79
9555.00,2.79
9554.00,2.80
9553.00,2.80
9552.00,2.81
9551.00,2.81
9550.00,2.82
9549.00,2.82
9548.00,2.82
9547.00,2.82
9546.00,2.82
9545.00,2.82
9544.00,2.81
9543.00,2.81
9542.00,2.81
9541.00,2.80
9540.00,2.80
9539.00,2.79
9538.00,2.79
9537.00,2.78
9536.00,2.78
9535.00,2.77
9534.00,2.77
9533.00,2.77
9532.00,2.76
9531.00,2.76
9530.00,2.75
9529.00,2.75
9528.00,2.74
9527.00,2.73
9526.00,2.73
9525.00,2.72
9524.00,2.71
9523.00,2.71
9522.00,2.71
9521.00,2.71
9520.00,2.71
9519.00,2.71
9518.00,2.71
9517.00,2.71
9516.00,2.71
9515.00,2.72
9514.00,2.72
9513.00,2.73
9512.00,2.73
9511.00,2.73
9510.00,2.74
9509.00,2.74
9508.00,2.74
9507.00,2.74
9506.00,2.75
9505.00,2.75
9504.00,2.75
9503.00,2.76
9502.00,2.76
9501.00,2.77
9500.00,2.78
9499.00,2.78
9498.00,2.79
9497.00,2.80
9496.00,2.80
9495.00,2.81
9494.00,2.81
9493.00,2.82
9492.00,2.82
9491.00,2.82
9490.00,2.83
9489.00,2.83
9488.00,2.83
9487.00,2.84
9486.00,2.84
9485.00,2.84
9484.00,2.85
9483.00,2.85
9482.00,2.85
9481.00,2.86
9480.00,2.86
9479.00,2.87
9478.00,2.87
9477.00,2.87
9476.00,2.87
9475.00,2.88
9474.00,2.88
9473.00,2.88
9472.00,2.88
9471.00,2.88
9470.00,2.88
9469.00,2.88
9468.00,2.88
9467.00,2.88
9466.00,2.88
9465.00,2.88
9464.00,2.88
9463.00,2.89
9462.00,2.89
9461.00,2.89
9460.00,2.89
9459.00,2.89
9458.00,2.89
9457.00,2.90
9456.00,2.90
9455.00,2.90
9454.00,2.90
9453.00,2.90
9452.00,2.90
9451.00,2.90
9450.00,2.90
9449.00,2.90
9448.00,2.91
9447.00,2.91
9446.00,2.91
9445.00,2.91
9444.00,2.91
9443.00,2.92
9442.00,2.92
9441.00,2.92
9440.00,2.92
9439.00,2.91
9438.00,2.91
9437.00,2.91
9436.00,2.90
9435.00,2.90
9434.00,2.89
9433.00,2.88
9432.00,2.87
9431.00,2.86
9430.00,2.86
9429.00,2.84
9428.00,2.83
9427.00,2.82
9426.00,2.81
9425.00,2.80
9424.00,2.79
9423.00,2.78
9422.00,2.77
9421.00,2.76
9420.00,2.75
9419.00,2.74
9418.00,2.73
9417.00,2.72
9416.00,2.71
9415.00,2.70
9414.00,2.69
9413.00,2.68
9412.00,2.68
9411.00,2.67
9410.00,2.67
9409.00,2.67
9408.00,2.67
9407.00,2.67
9406.00,2.67
9405.00,2.67
9404.00,2.67
9403.00,2.68
9402.00,2.68
9401.00,2.69
9400.00,2.69
9399.00,2.69
9398.00,2.70
9397.00,2.70
9396.00,2.70
9395.00,2.70
9394.00,2.71
9393.00,2.71
9392.00,2.71
9391.00,2.72
9390.00,2.72
9389.00,2.72
9388.00,2.73
9387.00,2.73
9386.00,2.73
9385.00,2.74
9384.00,2.74
9383.00,2.74
9382.00,2.74
9381.00,2.75
9380.00,2.75
9379.00,2.75
9378.00,2.75
9377.00,2.75
9376.00,2.76
9375.00,2.76
9374.00,2.77
9373.00,2.77
9372.00,2.78
9371.00,2.78
9370.00,2.79
9369.00,2.79
9368.00,2.80
9367.00,2.80
9366.00,2.81
9365.00,2.81
9364.00,2.82
9363.00,2.82
9362.00,2.82
9361.00,2.83
9360.00,2.83
9359.00,2.83
9358.00,2.83
9357.00,2.83
9356.00,2.83
9355.00,2.83
9354.00,2.84
9353.00,2.84
9352.00,2.83
9351.00,2.83
9350.00,2.83
9349.00,2.83
9348.00,2.82
9347.00,2.82
9346.00,2.81
9345.00,2.80
9344.00,2.79
9343.00,2.79
9342.00,2.78
9341.00,2.77
9340.00,2.76
9339.00,2.75
9338.00,2.74
9337.00,2.74
9336.00,2.73
9335.00,2.72
9334.00,2.72
9333.00,2.71
9332.00,2.70
9331.00,2.70
9330.00,2.69
9329.00,2.69
9328.00,2.68
9327.00,2.68
9326.00,2.67
9325.00,2.67
9324.00,2.67
9323.00,2.66
9322.00,2.66
9321.00,2.66
9320.00,2.66
9319.00,2.66
9318.00,2.66
9317.00,2.66
9316.00,2.67
9315.00,2.67
9314.00,2.67
9313.00,2.67
9312.00,2.67
9311.00,2.67
9310.00,2.68
9309.00,2.68
9308.00,2.68
9307.00,2.68
9306.00,2.68
9305.00,2.68
9304.00,2.68
9303.00,2.68
9302.00,2.68
9301.00,2.68
9300.00,2.68
9299.00,2.68
9298.00,2.68
9297.00,2.68
9296.00,2.68
9295.00,2.68
9294.00,2.68
9293.00,2.68
9292.00,2.68
9291.00,2.69
9290.00,2.69
9289.00,2.69
9288.00,2.70
9287.00,2.70
9286.00,2.70
9285.00,2.71
9284.00,2.71
9283.00,2.71
9282.00,2.71
9281.00,2.72
9280.00,2.72
9279.00,2.72
9278.00,2.72
9277.00,2.73
9276.00,2.73
9275.00,2.73
9274.00,2.73
9273.00,2.74
9272.00,2.74
9271.00,2.74
9270.00,2.74
9269.00,2.74
9268.00,2.74
9267.00,2.74
9266.00,2.74
9265.00,2.74
9264.00,2.74
9263.00,2.73
9262.00,2.73
9261.00,2.73
9260.00,2.72
9259.00,2.72
9258.00,2.72
9257.00,2.71
9256.00,2.71
9255.00,2.71
9254.00,2.71
9253.00,2.71
9252.00,2.70
9251.00,2.70
9250.00,2.70
9249.00,2.70
9248.00,2.69
9247.00,2.69
9246.00,2.69
9245.00,2.69
9244.00,2.69
9243.00,2.69
9242.00,2.69
9241.00,2.69
9240.00,2.69
9239.00,2.69
9238.00,2.69
9237.00,2.70
9236.00,2.70
9235.00,2.70
9234.00,2.71
9233.00,2.71
9232.00,2.71
9231.00,2.72
9230.00,2.72
9229.00,2.73
9228.00,2.73
9227.00,2.73
9226.00,2.74
9225.00,2.74
9224.00,2.75
9223.00,2.75
9222.00,2.76
9221.00,2.77
9220.00,2.77
9219.00,2.78
9218.00,2.78
9217.00,2.79
9216.00,2.79
9215.00,2.80
9214.00,2.80
9213.00,2.80
9212.00,2.81
9211.00,2.81
9210.00,2.81
9209.00,2.81
9208.00,2.81
9207.00,2.82
9206.00,2.82
9205.00,2.82
9204.00,2.82
9203.00,2.82
9202.00,2.82
9201.00,2.82
9200.00,2.82
9199.00,2.82
9198.00,2.81
9197.00,2.81
9196.00,2.80
9195.00,2.80
9194.00,2.79
9193.00,2.79
9192.00,2.78
9191.00,2.77
9190.00,2.76
9189.00,2.76
9188.00,2.75
9187.00,2.74
9186.00,2.73
9185.00,2.73
9184.00,2.72
9183.00,2.71
9182.00,2.71
9181.00,2.71
9180.00,2.70
9179.00,2.70
9178.00,2.70
9177.00,2.69
9176.00,2.69
9175.00,2.69
9174.00,2.69
9173.00,2.69
9172.00,2.69
9171.00,2.69
9170.00,2.70
9169.00,2.70
9168.00,2.70
9167.00,2.70
9166.00,2.70
9165.00,2.70
9164.00,2.70
9163.00,2.70
9162.00,2.70
9161.00,2.70
9160.00,2.70
9159.00,2.70
9158.00,2.70
9157.00,2.69
9156.00,2.69
9155.00,2.68
9154.00,2.68
9153.00,2.67
9152.00,2.66
9151.00,2.65
9150.00,2.64
9149.00,2.63
9148.00,2.62
9147.00,2.61
9146.00,2.60
9145.00,2.59
9144.00,2.58
9143.00,2.57
9142.00,2.57
9141.00,2.56
9140.00,2.55
9139.00,2.55
9138.00,2.55
9137.00,2.54
9136.00,2.54
9135.00,2.54
9134.00,2.54
9133.00,2.54
9132.00,2.54
9131.00,2.54
9130.00,2.55
9129.00,2.55
9128.00,2.56
9127.00,2.57
9126.00,2.58
9125.00,2.59
9124.00,2.60
9123.00,2.61
9122.00,2.62
9121.00,2.63
9120.00,2.64
9119.00,2.65
9118.00,2.66
9117.00,2.67
9116.00,2.68
9115.00,2.68
9114.00,2.69
9113.00,2.70
9112.00,2.71
9111.00,2.72
9110.00,2.72
9109.00,2.73
9108.00,2.74
9107.00,2.74
9106.00,2.75
9105.00,2.75
9104.00,2.75
9103.00,2.75
9102.00,2.75
9101.00,2.75
9100.00,2.75
9099.00,2.75
9098.00,2.75
9097.00,2.75
9096.00,2.75
9095.00,2.75
9094.00,2.75
9093.00,2.74
9092.00,2.74
9091.00,2.74
9090.00,2.74
9089.00,2.73
9088.00,2.73
9087.00,2.73
9086.00,2.72
9085.00,2.72
9084.00,2.71
9083.00,2.71
9082.00,2.70
9081.00,2.70
9080.00,2.70
9079.00,2.69
9078.00,2.69
9077.00,2.69
9076.00,2.69
9075.00,2.68
9074.00,2.68
9073.00,2.68
9072.00,2.68
9071.00,2.68
9070.00,2.68
9069.00,2.68
9068.00,2.68
9067.00,2.68
9066.00,2.68
9065.00,2.68
9064.00,2.69
9063.00,2.69
9062.00,2.70
9061.00,2.71
9060.00,2.71
9059.00,2.72
9058.00,2.73
9057.00,2.74
9056.00,2.74
9055.00,2.75
9054.00,2.76
9053.00,2.76
9052.00,2.77
9051.00,2.77
9050.00,2.77
9049.00,2.77
9048.00,2.77
9047.00,2.78
9046.00,2.77
9045.00,2.77
9044.00,2.77
9043.00,2.77
9042.00,2.77
9041.00,2.77
9040.00,2.76
9039.00,2.76
9038.00,2.75
9037.00,2.74
9036.00,2.74
9035.00,2.73
9034.00,2.72
9033.00,2.71
9032.00,2.70
9031.00,2.69
9030.00,2.68
9029.00,2.67
9028.00,2.67
9027.00,2.66
9026.00,2.65
9025.00,2.65
9024.00,2.65
9023.00,2.65
9022.00,2.65
9021.00,2.65
9020.00,2.65
9019.00,2.66
9018.00,2.66
9017.00,2.66
9016.00,2.67
9015.00,2.67
9014.00,2.68
9013.00,2.68
9012.00,2.69
9011.00,2.69
9010.00,2.70
9009.00,2.70
9008.00,2.71
9007.00,2.71
9006.00,2.71
9005.00,2.71
9004.00,2.72
9003.00,2.72
9002.00,2.72
9001.00,2.72
9000.00,2.71
8999.00,2.71
8998.00,2.71
8997.00,2.70
8996.00,2.70
8995.00,2.69
8994.00,2.68
8993.00,2.68
8992.00,2.67
8991.00,2.66
8990.00,2.65
8989.00,2.64
8988.00,2.63
8987.00,2.63
8986.00,2.62
8985.00,2.61
8984.00,2.61
8983.00,2.60
8982.00,2.60
8981.00,2.59
8980.00,2.59
8979.00,2.59
8978.00,2.59
8977.00,2.59
8976.00,2.59
8975.00,2.59
8974.00,2.59
8973.00,2.60
8972.00,2.60
8971.00,2.60
8970.00,2.61
8969.00,2.61
8968.00,2.61
8967.00,2.62
8966.00,2.62
8965.00,2.62
8964.00,2.63
8963.00,2.63
8962.00,2.63
8961.00,2.63
8960.00,2.64
8959.00,2.64
8958.00,2.64
8957.00,2.65
8956.00,2.65
8955.00,2.65
8954.00,2.65
8953.00,2.65
8952.00,2.65
8951.00,2.65
8950.00,2.66
8949.00,2.66
8948.00,2.66
8947.00,2.66
8946.00,2.66
8945.00,2.66
8944.00,2.67
8943.00,2.67
8942.00,2.68
8941.00,2.69
8940.00,2.69
8939.00,2.70
8938.00,2.71
8937.00,2.72
8936.00,2.73
8935.00,2.74
8934.00,2.75
8933.00,2.76
8932.00,2.77
8931.00,2.77
8930.00,2.78
8929.00,2.79
8928.00,2.80
8927.00,2.80
8926.00,2.81
8925.00,2.82
8924.00,2.83
8923.00,2.83
8922.00,2.84
8921.00,2.84
8920.00,2.84
8919.00,2.84
8918.00,2.85
8917.00,2.84
8916.00,2.84
8915.00,2.84
8914.00,2.84
8913.00,2.83
8912.00,2.83
8911.00,2.82
8910.00,2.82
8909.00,2.81
8908.00,2.80
8907.00,2.80
8906.00,2.79
8905.00,2.78
8904.00,2.78
8903.00,2.77
8902.00,2.76
8901.00,2.76
8900.00,2.75
8899.00,2.75
8898.00,2.74
8897.00,2.73
8896.00,2.73
8895.00,2.72
8894.00,2.72
8893.00,2.72
8892.00,2.71
8891.00,2.71
8890.00,2.71
8889.00,2.71
8888.00,2.71
8887.00,2.71
8886.00,2.71
8885.00,2.71
8884.00,2.71
8883.00,2.71
8882.00,2.71
8881.00,2.71
8880.00,2.71
8879.00,2.72
8878.00,2.72
8877.00,2.72
8876.00,2.72
8875.00,2.72
8874.00,2.72
8873.00,2.72
8872.00,2.73
8871.00,2.73
8870.00,2.73
8869.00,2.73
8868.00,2.74
8867.00,2.74
8866.00,2.74
8865.00,2.75
8864.00,2.75
8863.00,2.75
8862.00,2.75
8861.00,2.75
8860.00,2.75
8859.00,2.75
8858.00,2.75
8857.00,2.75
8856.00,2.75
8855.00,2.75
8854.00,2.75
8853.00,2.75
8852.00,2.75
8851.00,2.75
8850.00,2.74
8849.00,2.74
8848.00,2.74
8847.00,2.74
8846.00,2.74
8845.00,2.74
8844.00,2.74
8843.00,2.73
8842.00,2.73
8841.00,2.72
8840.00,2.72
8839.00,2.71
8838.00,2.71
8837.00,2.70
8836.00,2.70
8835.00,2.69
8834.00,2.69
8833.00,2.68
8832.00,2.68
8831.00,2.68
8830.00,2.67
8829.00,2.67
8828.00,2.67
8827.00,2.67
8826.00,2.66
8825.00,2.66
8824.00,2.66
8823.00,2.66
8822.00,2.65
8821.00,2.65
8820.00,2.65
8819.00,2.65
8818.00,2.64
8817.00,2.64
8816.00,2.64
8815.00,2.64
8814.00,2.64
8813.00,2.64
8812.00,2.64
8811.00,2.64
8810.00,2.64
8809.00,2.63
8808.00,2.63
8807.00,2.63
8806.00,2.63
8805.00,2.63
8804.00,2.63
8803.00,2.63
8802.00,2.63
8801.00,2.62
8800.00,2.62
8799.00,2.62
8798.00,2.62
8797.00,2.62
8796.00,2.62
8795.00,2.61
8794.00,2.61
8793.00,2.61
8792.00,2.61
8791.00,2.61
8790.00,2.61
8789.00,2.61
8788.00,2.61
8787.00,2.61
8786.00,2.61
8785.00,2.61
8784.00,2.62
8783.00,2.62
8782.00,2.62
8781.00,2.63
8780.00,2.63
8779.00,2.64
8778.00,2.64
8777.00,2.64
8776.00,2.65
8775.00,2.65
8774.00,2.65
8773.00,2.66
8772.00,2.66
8771.00,2.66
8770.00,2.67
8769.00,2.67
8768.00,2.68
8767.00,2.68
8766.00,2.69
8765.00,2.69
8764.00,2.70
8763.00,2.70
8762.00,2.70
8761.00,2.71
8760.00,2.71
8759.00,2.71
8758.00,2.70
8757.00,2.70
8756.00,2.70
8755.00,2.69
8754.00,2.69
8753.00,2.68
8752.00,2.68
8751.00,2.67
8750.00,2.67
8749.00,2.67
8748.00,2.66
8747.00,2.66
8746.00,2.66
8745.00,2.65
8744.00,2.65
8743.00,2.65
8742.00,2.64
8741.00,2.64
8740.00,2.64
8739.00,2.63
8738.00,2.63
8737.00,2.63
8736.00,2.63
8735.00,2.63
8734.00,2.63
8733.00,2.63
8732.00,2.63
8731.00,2.64
8730.00,2.64
8729.00,2.65
8728.00,2.66
8727.00,2.67
8726.00,2.67
8725.00,2.68
8724.00,2.69
8723.00,2.69
8722.00,2.70
8721.00,2.71
8720.00,2.71
8719.00,2.72
8718.00,2.72
8717.00,2.72
8716.00,2.72
8715.00,2.72
8714.00,2.72
8713.00,2.72
8712.00,2.72
8711.00,2.72
8710.00,2.72
8709.00,2.71
8708.00,2.71
8707.00,2.70
8706.00,2.70
8705.00,2.69
8704.00,2.68
8703.00,2.67
8702.00,2.66
8701.00,2.65
8700.00,2.64
8699.00,2.63
8698.00,2.62
8697.00,2.61
8696.00,2.60
8695.00,2.60
8694.00,2.59
8693.00,2.58
8692.00,2.58
8691.00,2.58
8690.00,2.57
8689.00,2.57
8688.00,2.57
8687.00,2.57
8686.00,2.57
8685.00,2.57
8684.00,2.57
8683.00,2.57
8682.00,2.57
8681.00,2.57
8680.00,2.58
8679.00,2.58
8678.00,2.58
8677.00,2.58
8676.00,2.59
8675.00,2.59
8674.00,2.60
8673.00,2.60
8672.00,2.60
8671.00,2.60
8670.00,2.61
8669.00,2.61
8668.00,2.61
8667.00,2.61
8666.00,2.61
8665.00,2.61
8664.00,2.61
8663.00,2.61
8662.00,2.61
8661.00,2.61
8660.00,2.61
8659.00,2.61
8658.00,2.61
8657.00,2.61
8656.00,2.61
8655.00,2.61
8654.00,2.61
8653.00,2.62
8652.00,2.62
8651.00,2.62
8650.00,2.62
8649.00,2.63
8648.00,2.63
8647.00,2.63
8646.00,2.64
8645.00,2.64
8644.00,2.65
8643.00,2.65
8642.00,2.66
8641.00,2.66
8640.00,2.67
8639.00,2.68
8638.00,2.68
8637.00,2.69
8636.00,2.70
8635.00,2.71
8634.00,2.71
8633.00,2.72
8632.00,2.73
8631.00,2.74
8630.00,2.75
8629.00,2.75
8628.00,2.76
8627.00,2.77
8626.00,2.77
8625.00,2.78
8624.00,2.78
8623.00,2.79
8622.00,2.79
8621.00,2.79
8620.00,2.80
8619.00,2.80
8618.00,2.80
8617.00,2.80
8616.00,2.80
8615.00,2.79
8614.00,2.79
8613.00,2.79
8612.00,2.78
8611.00,2.77
8610.00,2.77
8609.00,2.76
8608.00,2.75
8607.00,2.74
8606.00,2.73
8605.00,2.73
8604.00,2.72
8603.00,2.71
8602.00,2.70
8601.00,2.70
8600.00,2.69
8599.00,2.68
8598.00,2.68
8597.00,2.67
8596.00,2.67
8595.00,2.66
8594.00,2.66
8593.00,2.66
8592.00,2.65
8591.00,2.65
8590.00,2.65
8589.00,2.65
8588.00,2.65
8587.00,2.65
8586.00,2.65
8585.00,2.65
8584.00,2.66
8583.00,2.66
8582.00,2.66
8581.00,2.67
8580.00,2.67
8579.00,2.68
8578.00,2.68
8577.00,2.68
8576.00,2.69
8575.00,2.69
8574.00,2.69
8573.00,2.70
8572.00,2.70
8571.00,2.70
8570.00,2.70
8569.00,2.70
8568.00,2.70
8567.00,2.70
8566.00,2.70
8565.00,2.70
8564.00,2.70
8563.00,2.70
8562.00,2.70
8561.00,2.70
8560.00,2.70
8559.00,2.70
8558.00,2.70
8557.00,2.70
8556.00,2.70
8555.00,2.70
8554.00,2.70
8553.00,2.70
8552.00,2.70
8551.00,2.70
8550.00,2.70
8549.00,2.70
8548.00,2.69
8547.00,2.69
8546.00,2.69
8545.00,2.69
8544.00,2.69
8543.00,2.69
8542.00,2.69
8541.00,2.69
8540.00,2.69
8539.00,2.68
8538.00,2.68
8537.00,2.68
8536.00,2.68
8535.00,2.68
8534.00,2.67
8533.00,2.67
8532.00,2.66
8531.00,2.66
8530.00,2.66
8529.00,2.65
8528.00,2.65
8527.00,2.64
8526.00,2.64
8525.00,2.64
8524.00,2.63
8523.00,2.63
8522.00,2.63
8521.00,2.63
8520.00,2.62
8519.00,2.62
8518.00,2.62
8517.00,2.62
8516.00,2.62
8515.00,2.61
8514.00,2.61
8513.00,2.61
8512.00,2.61
8511.00,2.61
8510.00,2.61
8509.00,2.61
8508.00,2.61
8507.00,2.62
8506.00,2.62
8505.00,2.63
8504.00,2.63
8503.00,2.64
8502.00,2.64
8501.00,2.65
8500.00,2.66
8499.00,2.66
8498.00,2.67
8497.00,2.67
8496.00,2.68
8495.00,2.68
8494.00,2.69
8493.00,2.69
8492.00,2.69
8491.00,2.70
8490.00,2.70
8489.00,2.71
8488.00,2.71
8487.00,2.71
8486.00,2.71
8485.00,2.71
8484.00,2.71
8483.00,2.71
8482.00,2.71
8481.00,2.71
8480.00,2.71
8479.00,2.70
8478.00,2.70
8477.00,2.70
8476.00,2.69
8475.00,2.69
8474.00,2.68
8473.00,2.68
8472.00,2.67
8471.00,2.67
8470.00,2.67
8469.00,2.66
8468.00,2.66
8467.00,2.65
8466.00,2.65
8465.00,2.65
8464.00,2.64
8463.00,2.64
8462.00,2.64
8461.00,2.64
8460.00,2.64
8459.00,2.65
8458.00,2.65
8457.00,2.65
8456.00,2.65
8455.00,2.66
8454.00,2.66
8453.00,2.66
8452.00,2.66
8451.00,2.66
8450.00,2.67
8449.00,2.67
8448.00,2.67
8447.00,2.67
8446.00,2.67
8445.00,2.68
8444.00,2.68
8443.00,2.68
8442.00,2.68
8441.00,2.68
8440.00,2.69
8439.00,2.69
8438.00,2.69
8437.00,2.69
8436.00,2.69
8435.00,2.69
8434.00,2.69
8433.00,2.69
8432.00,2.69
8431.00,2.69
8430.00,2.68
8429.00,2.68
8428.00,2.68
8427.00,2.68
8426.00,2.68
8425.00,2.68
8424.00,2.68
8423.00,2.68
8422.00,2.68
8421.00,2.68
8420.00,2.68
8419.00,2.68
8418.00,2.68
8417.00,2.68
8416.00,2.68
8415.00,2.68
8414.00,2.68
8413.00,2.68
8412.00,2.68
8411.00,2.68
8410.00,2.68
8409.00,2.69
8408.00,2.69
8407.00,2.69
8406.00,2.69
8405.00,2.70
8404.00,2.70
8403.00,2.70
8402.00,2.70
8401.00,2.70
8400.00,2.70
8399.00,2.70
8398.00,2.70
8397.00,2.70
8396.00,2.70
8395.00,2.70
8394.00,2.70
8393.00,2.70
8392.00,2.70
8391.00,2.70
8390.00,2.70
8389.00,2.71
8388.00,2.71
8387.00,2.71
8386.00,2.71
8385.00,2.71
8384.00,2.71
8383.00,2.71
8382.00,2.70
8381.00,2.70
8380.00,2.70
8379.00,2.70
8378.00,2.70
8377.00,2.70
8376.00,2.69
8375.00,2.69
8374.00,2.69
8373.00,2.69
8372.00,2.69
8371.00,2.69
8370.00,2.69
8369.00,2.69
8368.00,2.69
8367.00,2.68
8366.00,2.68
8365.00,2.67
8364.00,2.67
8363.00,2.66
8362.00,2.66
8361.00,2.65
8360.00,2.64
8359.00,2.64
8358.00,2.63
8357.00,2.62
8356.00,2.62
8355.00,2.61
8354.00,2.60
8353.00,2.60
8352.00,2.59
8351.00,2.58
8350.00,2.58
8349.00,2.57
8348.00,2.56
8347.00,2.56
8346.00,2.55
8345.00,2.54
8344.00,2.54
8343.00,2.53
8342.00,2.53
8341.00,2.52
8340.00,2.52
8339.00,2.52
8338.00,2.52
8337.00,2.52
8336.00,2.52
8335.00,2.52
8334.00,2.52
8333.00,2.52
8332.00,2.52
8331.00,2.53
8330.00,2.53
8329.00,2.53
8328.00,2.53
8327.00,2.53
8326.00,2.54
8325.00,2.54
8324.00,2.54
8323.00,2.55
8322.00,2.55
8321.00,2.55
8320.00,2.56
8319.00,2.56
8318.00,2.57
8317.00,2.58
8316.00,2.58
8315.00,2.59
8314.00,2.60
8313.00,2.60
8312.00,2.61
8311.00,2.62
8310.00,2.62
8309.00,2.63
8308.00,2.64
8307.00,2.65
8306.00,2.65
8305.00,2.66
8304.00,2.67
8303.00,2.68
8302.00,2.69
8301.00,2.70
8300.00,2.70
8299.00,2.71
8298.00,2.72
8297.00,2.73
8296.00,2.73
8295.00,2.74
8294.00,2.75
8293.00,2.75
8292.00,2.75
8291.00,2.76
8290.00,2.76
8289.00,2.76
8288.00,2.76
8287.00,2.76
8286.00,2.76
8285.00,2.76
8284.00,2.76
8283.00,2.76
8282.00,2.76
8281.00,2.76
8280.00,2.75
8279.00,2.75
8278.00,2.75
8277.00,2.74
8276.00,2.74
8275.00,2.73
8274.00,2.73
8273.00,2.72
8272.00,2.72
8271.00,2.71
8270.00,2.71
8269.00,2.70
8268.00,2.70
8267.00,2.70
8266.00,2.69
8265.00,2.69
8264.00,2.68
8263.00,2.68
8262.00,2.68
8261.00,2.67
8260.00,2.67
8259.00,2.67
8258.00,2.67
8257.00,2.66
8256.00,2.66
8255.00,2.66
8254.00,2.66
8253.00,2.66
8252.00,2.66
8251.00,2.66
8250.00,2.67
8249.00,2.67
8248.00,2.67
8247.00,2.68
8246.00,2.68
8245.00,2.69
8244.00,2.69
8243.00,2.69
8242.00,2.70
8241.00,2.70
8240.00,2.71
8239.00,2.71
8238.00,2.72
8237.00,2.72
8236.00,2.73
8235.00,2.73
8234.00,2.74
8233.00,2.75
8232.00,2.75
8231.00,2.76
8230.00,2.77
8229.00,2.77
8228.00,2.78
8227.00,2.79
8226.00,2.79
8225.00,2.79
8224.00,2.80
8223.00,2.80
8222.00,2.80
8221.00,2.80
8220.00,2.80
8219.00,2.80
8218.00,2.80
8217.00,2.80
8216.00,2.80
8215.00,2.80
8214.00,2.80
8213.00,2.80
8212.00,2.79
8211.00,2.79
8210.00,2.79
8209.00,2.78
8208.00,2.78
8207.00,2.77
8206.00,2.76
8205.00,2.75
8204.00,2.75
8203.00,2.74
8202.00,2.73
8201.00,2.72
8200.00,2.71
8199.00,2.71
8198.00,2.70
8197.00,2.69
8196.00,2.69
8195.00,2.68
8194.00,2.68
8193.00,2.67
8192.00,2.67
8191.00,2.66
8190.00,2.66
8189.00,2.66
8188.00,2.66
8187.00,2.66
8186.00,2.66
8185.00,2.66
8184.00,2.66
8183.00,2.66
8182.00,2.66
8181.00,2.67
8180.00,2.67
8179.00,2.68
8178.00,2.68
8177.00,2.69
8176.00,2.70
8175.00,2.70
8174.00,2.71
8173.00,2.72
8172.00,2.73
8171.00,2.73
8170.00,2.74
8169.00,2.74
8168.00,2.75
8167.00,2.76
8166.00,2.76
8165.00,2.77
8164.00,2.77
8163.00,2.78
8162.00,2.78
8161.00,2.79
8160.00,2.79
8159.00,2.79
8158.00,2.80
8157.00,2.80
8156.00,2.80
8155.00,2.80
8154.00,2.80
8153.00,2.80
8152.00,2.80
8151.00,2.80
8150.00,2.80
8149.00,2.79
8148.00,2.79
8147.00,2.79
8146.00,2.79
8145.00,2.78
8144.00,2.78
8143.00,2.78
8142.00,2.77
8141.00,2.77
8140.00,2.77
8139.00,2.76
8138.00,2.76
8137.00,2.75
8136.00,2.75
8135.00,2.75
8134.00,2.74
8133.00,2.74
8132.00,2.74
8131.00,2.73
8130.00,2.73
8129.00,2.73
8128.00,2.73
8127.00,2.73
8126.00,2.73
8125.00,2.72
8124.00,2.72
8123.00,2.72
8122.00,2.72
8121.00,2.72
8120.00,2.71
8119.00,2.71
8118.00,2.71
8117.00,2.71
8116.00,2.71
8115.00,2.71
8114.00,2.71
8113.00,2.71
8112.00,2.71
8111.00,2.71
8110.00,2.71
8109.00,2.71
8108.00,2.71
8107.00,2.71
8106.00,2.70
8105.00,2.70
8104.00,2.70
8103.00,2.70
8102.00,2.70
8101.00,2.70
8100.00,2.70
8099.00,2.69
8098.00,2.69
8097.00,2.70
8096.00,2.70
8095.00,2.70
8094.00,2.70
8093.00,2.70
8092.00,2.70
8091.00,2.70
8090.00,2.70
8089.00,2.70
8088.00,2.70
8087.00,2.70
8086.00,2.70
8085.00,2.70
8084.00,2.70
8083.00,2.70
8082.00,2.70
8081.00,2.70
8080.00,2.70
8079.00,2.70
8078.00,2.71
8077.00,2.71
8076.00,2.71
8075.00,2.71
8074.00,2.72
8073.00,2.72
8072.00,2.73
8071.00,2.73
8070.00,2.73
8069.00,2.74
8068.00,2.74
8067.00,2.75
8066.00,2.75
8065.00,2.76
8064.00,2.76
8063.00,2.77
8062.00,2.77
8061.00,2.78
8060.00,2.78
8059.00,2.79
8058.00,2.80
8057.00,2.80
8056.00,2.81
8055.00,2.82
8054.00,2.83
8053.00,2.83
8052.00,2.84
8051.00,2.84
8050.00,2.85
8049.00,2.85
8048.00,2.86
8047.00,2.86
8046.00,2.86
8045.00,2.87
8044.00,2.87
8043.00,2.87
8042.00,2.87
8041.00,2.87
8040.00,2.87
8039.00,2.88
8038.00,2.88
8037.00,2.88
8036.00,2.88
8035.00,2.88
8034.00,2.88
8033.00,2.88
8032.00,2.87
8031.00,2.87
8030.00,2.87
8029.00,2.87
8028.00,2.87
8027.00,2.87
8026.00,2.86
8025.00,2.86
8024.00,2.86
8023.00,2.85
8022.00,2.85
8021.00,2.84
8020.00,2.84
8019.00,2.83
8018.00,2.83
8017.00,2.82
8016.00,2.82
8015.00,2.81
8014.00,2.81
8013.00,2.80
8012.00,2.79
8011.00,2.79
8010.00,2.78
8009.00,2.78
8008.00,2.77
8007.00,2.77
8006.00,2.76
8005.00,2.76
8004.00,2.75
8003.00,2.75
8002.00,2.74
8001.00,2.74
8000.00,2.74
7999.00,2.73
7998.00,2.73
7997.00,2.73
7996.00,2.73
7995.00,2.73
7994.00,2.74
7993.00,2.74
7992.00,2.74
7991.00,2.75
7990.00,2.75
7989.00,2.76
7988.00,2.76
7987.00,2.77
7986.00,2.78
7985.00,2.78
7984.00,2.79
7983.00,2.79
7982.00,2.80
7981.00,2.80
7980.00,2.81
7979.00,2.81
7978.00,2.82
7977.00,2.82
7976.00,2.83
7975.00,2.83
7974.00,2.84
7973.00,2.84
7972.00,2.84
7971.00,2.85
7970.00,2.85
7969.00,2.85
7968.00,2.85
7967.00,2.85
7966.00,2.85
7965.00,2.85
7964.00,2.85
7963.00,2.85
7962.00,2.85
7961.00,2.84
7960.00,2.84
7959.00,2.84
7958.00,2.84
7957.00,2.83
7956.00,2.83
7955.00,2.83
7954.00,2.83
7953.00,2.83
7952.00,2.83
7951.00,2.82
7950.00,2.82
7949.00,2.82
7948.00,2.82
7947.00,2.82
7946.00,2.81
7945.00,2.81
7944.00,2.81
7943.00,2.80
7942.00,2.80
7941.00,2.80
7940.00,2.79
7939.00,2.79
7938.00,2.78
7937.00,2.78
7936.00,2.78
7935.00,2.77
7934.00,2.77
7933.00,2.77
7932.00,2.77
7931.00,2.77
7930.00,2.77
7929.00,2.77
7928.00,2.76
7927.00,2.76
7926.00,2.76
7925.00,2.76
7924.00,2.76
7923.00,2.77
7922.00,2.77
7921.00,2.77
7920.00,2.77
7919.00,2.77
7918.00,2.77
7917.00,2.78
7916.00,2.78
7915.00,2.79
7914.00,2.79
7913.00,2.79
7912.00,2.80
7911.00,2.80
7910.00,2.81
7909.00,2.81
7908.00,2.82
7907.00,2.82
7906.00,2.82
7905.00,2.83
7904.00,2.83
7903.00,2.83
7902.00,2.83
7901.00,2.83
7900.00,2.83
7899.00,2.83
7898.00,2.83
7897.00,2.83
7896.00,2.82
7895.00,2.82
7894.00,2.82
7893.00,2.82
7892.00,2.82
7891.00,2.81
7890.00,2.81
7889.00,2.81
7888.00,2.81
7887.00,2.80
7886.00,2.80
7885.00,2.80
7884.00,2.80
7883.00,2.79
7882.00,2.79
7881.00,2.79
7880.00,2.79
7879.00,2.79
7878.00,2.79
7877.00,2.79
7876.00,2.79
7875.00,2.79
7874.00,2.79
7873.00,2.79
7872.00,2.79
7871.00,2.79
7870.00,2.79
7869.00,2.79
7868.00,2.80
7867.00,2.80
7866.00,2.80
7865.00,2.80
7864.00,2.80
7863.00,2.80
7862.00,2.80
7861.00,2.81
7860.00,2.81
7859.00,2.81
7858.00,2.81
7857.00,2.81
7856.00,2.80
7855.00,2.80
7854.00,2.80
7853.00,2.80
7852.00,2.80
7851.00,2.80
7850.00,2.79
7849.00,2.79
7848.00,2.79
7847.00,2.79
7846.00,2.78
7845.00,2.78
7844.00,2.78
7843.00,2.78
7842.00,2.78
7841.00,2.77
7840.00,2.77
7839.00,2.77
7838.00,2.77
7837.00,2.77
7836.00,2.76
7835.00,2.76
7834.00,2.76
7833.00,2.76
7832.00,2.76
7831.00,2.77
7830.00,2.77
7829.00,2.77
7828.00,2.77
7827.00,2.77
7826.00,2.77
7825.00,2.78
7824.00,2.78
7823.00,2.79
7822.00,2.79
7821.00,2.79
7820.00,2.80
7819.00,2.80
7818.00,2.81
7817.00,2.81
7816.00,2.81
7815.00,2.82
7814.00,2.82
7813.00,2.83
7812.00,2.83
7811.00,2.83
7810.00,2.84
7809.00,2.84
7808.00,2.84
7807.00,2.84
7806.00,2.84
7805.00,2.85
7804.00,2.85
7803.00,2.85
7802.00,2.85
7801.00,2.86
7800.00,2.86
7799.00,2.86
7798.00,2.86
7797.00,2.86
7796.00,2.87
7795.00,2.87
7794.00,2.87
7793.00,2.87
7792.00,2.87
7791.00,2.87
7790.00,2.87
7789.00,2.87
7788.00,2.87
7787.00,2.87
7786.00,2.87
7785.00,2.87
7784.00,2.87
7783.00,2.87
7782.00,2.87
7781.00,2.87
7780.00,2.87
7779.00,2.87
7778.00,2.87
7777.00,2.87
7776.00,2.87
7775.00,2.87
7774.00,2.87
7773.00,2.87
7772.00,2.87
7771.00,2.87
7770.00,2.86
7769.00,2.86
7768.00,2.86
7767.00,2.85
7766.00,2.85
7765.00,2.85
7764.00,2.85
7763.00,2.85
7762.00,2.85
7761.00,2.85
7760.00,2.85
7759.00,2.85
7758.00,2.85
7757.00,2.85
7756.00,2.85
7755.00,2.85
7754.00,2.85
7753.00,2.85
7752.00,2.86
7751.00,2.86
7750.00,2.86
7749.00,2.86
7748.00,2.86
7747.00,2.87
7746.00,2.87
7745.00,2.87
7744.00,2.88
7743.00,2.88
7742.00,2.89
7741.00,2.89
7740.00,2.89
7739.00,2.90
7738.00,2.90
7737.00,2.91
7736.00,2.91
7735.00,2.91
7734.00,2.92
7733.00,2.92
7732.00,2.92
7731.00,2.92
7730.00,2.92
7729.00,2.92
7728.00,2.92
7727.00,2.92
7726.00,2.92
7725.00,2.92
7724.00,2.92
7723.00,2.92
7722.00,2.91
7721.00,2.91
7720.00,2.91
7719.00,2.91
7718.00,2.91
7717.00,2.91
7716.00,2.90
7715.00,2.90
7714.00,2.90
7713.00,2.89
7712.00,2.89
7711.00,2.89
7710.00,2.88
7709.00,2.88
7708.00,2.88
7707.00,2.87
7706.00,2.87
7705.00,2.87
7704.00,2.87
7703.00,2.87
7702.00,2.87
7701.00,2.87
7700.00,2.87
7699.00,2.87
7698.00,2.87
7697.00,2.87
7696.00,2.87
7695.00,2.87
7694.00,2.87
7693.00,2.87
7692.00,2.87
7691.00,2.87
7690.00,2.87
7689.00,2.87
7688.00,2.87
7687.00,2.87
7686.00,2.87
7685.00,2.87
7684.00,2.87
7683.00,2.87
7682.00,2.87
7681.00,2.87
7680.00,2.88
7679.00,2.88
7678.00,2.88
7677.00,2.88
7676.00,2.88
7675.00,2.88
7674.00,2.88
7673.00,2.87
7672.00,2.87
7671.00,2.87
7670.00,2.87
7669.00,2.87
7668.00,2.87
7667.00,2.87
7666.00,2.87
7665.00,2.87
7664.00,2.88
7663.00,2.88
7662.00,2.88
7661.00,2.88
7660.00,2.88
7659.00,2.88
7658.00,2.88
7657.00,2.88
7656.00,2.88
7655.00,2.88
7654.00,2.88
7653.00,2.88
7652.00,2.88
7651.00,2.88
7650.00,2.88
7649.00,2.89
7648.00,2.89
7647.00,2.89
7646.00,2.89
7645.00,2.90
7644.00,2.90
7643.00,2.90
7642.00,2.90
7641.00,2.90
7640.00,2.91
7639.00,2.91
7638.00,2.91
7637.00,2.91
7636.00,2.91
7635.00,2.91
7634.00,2.91
7633.00,2.91
7632.00,2.91
7631.00,2.91
7630.00,2.91
7629.00,2.91
7628.00,2.91
7627.00,2.91
7626.00,2.91
7625.00,2.90
7624.00,2.90
7623.00,2.90
7622.00,2.89
7621.00,2.89
7620.00,2.88
7619.00,2.88
7618.00,2.87
7617.00,2.87
7616.00,2.86
7615.00,2.85
7614.00,2.85
7613.00,2.84
7612.00,2.84
7611.00,2.83
7610.00,2.83
7609.00,2.82
7608.00,2.82
7607.00,2.82
7606.00,2.81
7605.00,2.81
7604.00,2.81
7603.00,2.80
7602.00,2.80
7601.00,2.80
7600.00,2.80
7599.00,2.80
7598.00,2.80
7597.00,2.80
7596.00,2.80
7595.00,2.80
7594.00,2.81
7593.00,2.81
7592.00,2.81
7591.00,2.82
7590.00,2.82
7589.00,2.83
7588.00,2.83
7587.00,2.84
7586.00,2.84
7585.00,2.85
7584.00,2.86
7583.00,2.86
7582.00,2.87
7581.00,2.87
7580.00,2.88
7579.00,2.89
7578.00,2.89
7577.00,2.90
7576.00,2.90
7575.00,2.91
7574.00,2.91
7573.00,2.91
7572.00,2.92
7571.00,2.92
7570.00,2.93
7569.00,2.93
7568.00,2.93
7567.00,2.93
7566.00,2.94
7565.00,2.94
7564.00,2.94
7563.00,2.94
7562.00,2.94
7561.00,2.94
7560.00,2.93
7559.00,2.93
7558.00,2.93
7557.00,2.92
7556.00,2.92
7555.00,2.91
7554.00,2.91
7553.00,2.91
7552.00,2.90
7551.00,2.90
7550.00,2.89
7549.00,2.89
7548.00,2.88
7547.00,2.88
7546.00,2.87
7545.00,2.87
7544.00,2.87
7543.00,2.86
7542.00,2.86
7541.00,2.85
7540.00,2.85
7539.00,2.85
7538.00,2.85
7537.00,2.84
7536.00,2.84
7535.00,2.84
7534.00,2.84
7533.00,2.84
7532.00,2.84
7531.00,2.84
7530.00,2.84
7529.00,2.84
7528.00,2.84
7527.00,2.84
7526.00,2.84
7525.00,2.85
7524.00,2.85
7523.00,2.85
7522.00,2.85
7521.00,2.85
7520.00,2.85
7519.00,2.85
7518.00,2.85
7517.00,2.84
7516.00,2.84
7515.00,2.84
7514.00,2.84
7513.00,2.84
7512.00,2.84
7511.00,2.84
7510.00,2.84
7509.00,2.84
7508.00,2.84
7507.00,2.83
7506.00,2.83
7505.00,2.83
7504.00,2.83
7503.00,2.83
7502.00,2.83
7501.00,2.83
7500.00,2.83
7499.00,2.82
7498.00,2.82
7497.00,2.82
7496.00,2.82
7495.00,2.82
7494.00,2.82
7493.00,2.82
7492.00,2.82
7491.00,2.82
7490.00,2.82
7489.00,2.82
7488.00,2.82
7487.00,2.82
7486.00,2.82
7485.00,2.82
7484.00,2.82
7483.00,2.82
7482.00,2.82
7481.00,2.82
7480.00,2.81
7479.00,2.81
7478.00,2.81
7477.00,2.81
7476.00,2.81
7475.00,2.81
7474.00,2.81
7473.00,2.81
7472.00,2.81
7471.00,2.81
7470.00,2.81
7469.00,2.81
7468.00,2.81
7467.00,2.81
7466.00,2.80
7465.00,2.80
7464.00,2.80
7463.00,2.80
7462.00,2.80
7461.00,2.79
7460.00,2.79
7459.00,2.79
7458.00,2.79
7457.00,2.79
7456.00,2.79
7455.00,2.79
7454.00,2.79
7453.00,2.79
7452.00,2.79
7451.00,2.79
7450.00,2.78
7449.00,2.78
7448.00,2.78
7447.00,2.78
7446.00,2.78
7445.00,2.78
7444.00,2.78
7443.00,2.78
7442.00,2.78
7441.00,2.78
7440.00,2.79
7439.00,2.79
7438.00,2.79
7437.00,2.79
7436.00,2.80
7435.00,2.80
7434.00,2.80
7433.00,2.81
7432.00,2.81
7431.00,2.81
7430.00,2.81
7429.00,2.81
7428.00,2.82
7427.00,2.82
7426.00,2.82
7425.00,2.82
7424.00,2.82
7423.00,2.82
7422.00,2.82
7421.00,2.82
7420.00,2.82
7419.00,2.83
7418.00,2.83
7417.00,2.83
7416.00,2.83
7415.00,2.83
7414.00,2.83
7413.00,2.83
7412.00,2.83
7411.00,2.83
7410.00,2.83
7409.00,2.82
7408.00,2.82
7407.00,2.82
7406.00,2.82
7405.00,2.82
7404.00,2.81
7403.00,2.81
7402.00,2.81
7401.00,2.81
7400.00,2.81
7399.00,2.81
7398.00,2.81
7397.00,2.80
7396.00,2.80
7395.00,2.80
7394.00,2.80
7393.00,2.80
7392.00,2.80
7391.00,2.79
7390.00,2.79
7389.00,2.79
7388.00,2.78
7387.00,2.78
7386.00,2.78
7385.00,2.77
7384.00,2.77
7383.00,2.77
7382.00,2.77
7381.00,2.76
7380.00,2.76
7379.00,2.76
7378.00,2.76
7377.00,2.76
7376.00,2.75
7375.00,2.75
7374.00,2.75
7373.00,2.75
7372.00,2.74
7371.00,2.74
7370.00,2.74
7369.00,2.74
7368.00,2.73
7367.00,2.73
7366.00,2.73
7365.00,2.73
7364.00,2.72
7363.00,2.72
7362.00,2.72
7361.00,2.72
7360.00,2.72
7359.00,2.71
7358.00,2.71
7357.00,2.71
7356.00,2.71
7355.00,2.71
7354.00,2.70
7353.00,2.70
7352.00,2.69
7351.00,2.69
7350.00,2.68
7349.00,2.68
7348.00,2.67
7347.00,2.67
7346.00,2.66
7345.00,2.66
7344.00,2.65
7343.00,2.64
7342.00,2.64
7341.00,2.63
7340.00,2.63
7339.00,2.62
7338.00,2.62
7337.00,2.61
7336.00,2.61
7335.00,2.60
7334.00,2.60
7333.00,2.59
7332.00,2.59
7331.00,2.58
7330.00,2.58
7329.00,2.57
7328.00,2.57
7327.00,2.57
7326.00,2.57
7325.00,2.57
7324.00,2.57
7323.00,2.57
7322.00,2.57
7321.00,2.57
7320.00,2.57
7319.00,2.57
7318.00,2.58
7317.00,2.58
7316.00,2.58
7315.00,2.58
7314.00,2.58
7313.00,2.58
7312.00,2.59
7311.00,2.59
7310.00,2.59
7309.00,2.59
7308.00,2.59
7307.00,2.59
7306.00,2.59
7305.00,2.59
7304.00,2.59
7303.00,2.59
7302.00,2.59
7301.00,2.59
7300.00,2.59
7299.00,2.58
7298.00,2.58
7297.00,2.58
7296.00,2.58
7295.00,2.57
7294.00,2.57
7293.00,2.57
7292.00,2.57
7291.00,2.57
7290.00,2.57
7289.00,2.57
7288.00,2.57
7287.00,2.57
7286.00,2.57
7285.00,2.57
7284.00,2.57
7283.00,2.57
7282.00,2.57
7281.00,2.58
7280.00,2.58
7279.00,2.58
7278.00,2.58
7277.00,2.58
7276.00,2.59
7275.00,2.59
7274.00,2.59
7273.00,2.59
7272.00,2.60
7271.00,2.60
7270.00,2.60
7269.00,2.60
7268.00,2.61
7267.00,2.61
7266.00,2.61
7265.00,2.61
7264.00,2.60
7263.00,2.60
7262.00,2.60
7261.00,2.59
7260.00,2.59
7259.00,2.59
7258.00,2.58
7257.00,2.58
7256.00,2.57
7255.00,2.56
7254.00,2.56
7253.00,2.55
7252.00,2.55
7251.00,2.54
7250.00,2.53
7249.00,2.53
7248.00,2.52
7247.00,2.52
7246.00,2.51
7245.00,2.50
7244.00,2.49
7243.00,2.49
7242.00,2.48
7241.00,2.47
7240.00,2.47
7239.00,2.46
7238.00,2.46
7237.00,2.45
7236.00,2.45
7235.00,2.44
7234.00,2.44
7233.00,2.44
7232.00,2.43
7231.00,2.43
7230.00,2.43
7229.00,2.43
7228.00,2.42
7227.00,2.42
7226.00,2.42
7225.00,2.41
7224.00,2.41
7223.00,2.41
7222.00,2.40
7221.00,2.40
7220.00,2.39
7219.00,2.39
7218.00,2.38
7217.00,2.38
7216.00,2.37
7215.00,2.37
7214.00,2.36
7213.00,2.36
7212.00,2.35
7211.00,2.35
7210.00,2.34
7209.00,2.33
7208.00,2.33
7207.00,2.32
7206.00,2.32
7205.00,2.31
7204.00,2.30
7203.00,2.29
7202.00,2.29
7201.00,2.28
7200.00,2.27
7199.00,2.27
7198.00,2.26
7197.00,2.25
7196.00,2.25
7195.00,2.24
7194.00,2.23
7193.00,2.23
7192.00,2.22
7191.00,2.21
7190.00,2.21
7189.00,2.20
7188.00,2.19
7187.00,2.18
7186.00,2.18
7185.00,2.17
7184.00,2.16
7183.00,2.16
7182.00,2.15
7181.00,2.14
7180.00,2.14
7179.00,2.13
7178.00,2.12
7177.00,2.12
7176.00,2.11
7175.00,2.10
7174.00,2.09
7173.00,2.08
7172.00,2.07
7171.00,2.06
7170.00,2.06
7169.00,2.05
7168.00,2.04
7167.00,2.03
7166.00,2.02
7165.00,2.02
7164.00,2.01
7163.00,2.00
7162.00,1.99
7161.00,1.98
7160.00,1.97
7159.00,1.96
7158.00,1.95
7157.00,1.94
7156.00,1.93
7155.00,1.92
7154.00,1.91
7153.00,1.89
7152.00,1.88
7151.00,1.87
7150.00,1.86
7149.00,1.85
7148.00,1.84
7147.00,1.83
7146.00,1.82
7145.00,1.81
7144.00,1.81
7143.00,1.80
7142.00,1.79
7141.00,1.78
7140.00,1.78
7139.00,1.77
7138.00,1.76
7137.00,1.76
7136.00,1.75
7135.00,1.75
7134.00,1.74
7133.00,1.74
7132.00,1.73
7131.00,1.73
7130.00,1.72
7129.00,1.72
7128.00,1.71
7127.00,1.71
7126.00,1.71
7125.00,1.70
7124.00,1.70
7123.00,1.69
7122.00,1.69
7121.00,1.69
7120.00,1.68
7119.00,1.68
7118.00,1.67
7117.00,1.67
7116.00,1.66
7115.00,1.66
7114.00,1.65
7113.00,1.65
7112.00,1.64
7111.00,1.63
7110.00,1.63
7109.00,1.62
7108.00,1.62
7107.00,1.61
7106.00,1.61
7105.00,1.60
7104.00,1.60
7103.00,1.59
7102.00,1.59
7101.00,1.58
7100.00,1.58
7099.00,1.57
7098.00,1.57
7097.00,1.56
7096.00,1.56
7095.00,1.56
7094.00,1.55
7093.00,1.55
7092.00,1.54
7091.00,1.54
7090.00,1.53
7089.00,1.53
7088.00,1.52
7087.00,1.52
7086.00,1.51
7085.00,1.51
7084.00,1.50
7083.00,1.50
7082.00,1.50
7081.00,1.49
7080.00,1.49
7079.00,1.49
7078.00,1.48
7077.00,1.48
7076.00,1.48
7075.00,1.47
7074.00,1.47
7073.00,1.47
7072.00,1.47
7071.00,1.47
7070.00,1.46
7069.00,1.46
7068.00,1.46
7067.00,1.46
7066.00,1.46
7065.00,1.46
7064.00,1.46
7063.00,1.46
7062.00,1.46
7061.00,1.46
7060.00,1.47
7059.00,1.47
7058.00,1.46
7057.00,1.46
7056.00,1.46
7055.00,1.46
7054.00,1.46
7053.00,1.46
7052.00,1.46
7051.00,1.46
7050.00,1.45
7049.00,1.45
7048.00,1.45
7047.00,1.45
7046.00,1.44
7045.00,1.44
7044.00,1.43
7043.00,1.43
7042.00,1.42
7041.00,1.42
7040.00,1.41
7039.00,1.41
7038.00,1.40
7037.00,1.40
7036.00,1.39
7035.00,1.39
7034.00,1.38
7033.00,1.38
7032.00,1.37
7031.00,1.37
7030.00,1.36
7029.00,1.36
7028.00,1.35
7027.00,1.35
7026.00,1.34
7025.00,1.34
7024.00,1.34
7023.00,1.33
7022.00,1.33
7021.00,1.33
7020.00,1.33
7019.00,1.33
7018.00,1.33
7017.00,1.33
7016.00,1.33
7015.00,1.32
7014.00,1.32
7013.00,1.32
7012.00,1.32
7011.00,1.32
7010.00,1.32
7009.00,1.32
7008.00,1.32
7007.00,1.32
7006.00,1.32
7005.00,1.32
7004.00,1.32
7003.00,1.31
7002.00,1.31
7001.00,1.31
7000.00,1.31
6999.00,1.31
6998.00,1.31
6997.00,1.30
6996.00,1.30
6995.00,1.30
6994.00,1.30
6993.00,1.29
6992.00,1.29
6991.00,1.29
6990.00,1.29
6989.00,1.28
6988.00,1.28
6987.00,1.28
6986.00,1.28
6985.00,1.28
6984.00,1.28
6983.00,1.28
6982.00,1.28
6981.00,1.28
6980.00,1.28
6979.00,1.28
6978.00,1.28
6977.00,1.28
6976.00,1.28
6975.00,1.28
6974.00,1.28
6973.00,1.28
6972.00,1.28
6971.00,1.28
6970.00,1.28
6969.00,1.29
6968.00,1.29
6967.00,1.29
6966.00,1.29
6965.00,1.29
6964.00,1.29
6963.00,1.29
6962.00,1.29
6961.00,1.29
6960.00,1.29
6959.00,1.29
6958.00,1.29
6957.00,1.29
6956.00,1.29
6955.00,1.28
6954.00,1.28
6953.00,1.28
6952.00,1.27
6951.00,1.27
6950.00,1.27
6949.00,1.26
6948.00,1.26
6947.00,1.25
6946.00,1.25
6945.00,1.24
6944.00,1.24
6943.00,1.23
6942.00,1.23
6941.00,1.22
6940.00,1.22
6939.00,1.21
6938.00,1.21
6937.00,1.20
6936.00,1.20
6935.00,1.19
6934.00,1.19
6933.00,1.19
6932.00,1.18
6931.00,1.18
6930.00,1.18
6929.00,1.18
6928.00,1.18
6927.00,1.18
6926.00,1.18
6925.00,1.18
6924.00,1.18
6923.00,1.18
6922.00,1.18
6921.00,1.18
6920.00,1.18
6919.00,1.18
6918.00,1.18
6917.00,1.18
6916.00,1.19
6915.00,1.19
6914.00,1.19
6913.00,1.19
6912.00,1.19
6911.00,1.19
6910.00,1.19
6909.00,1.19
6908.00,1.19
6907.00,1.20
6906.00,1.20
6905.00,1.20
6904.00,1.20
6903.00,1.20
6902.00,1.20
6901.00,1.20
6900.00,1.21
6899.00,1.21
6898.00,1.21
6897.00,1.21
6896.00,1.21
6895.00,1.21
6894.00,1.21
6893.00,1.21
6892.00,1.21
6891.00,1.22
6890.00,1.22
6889.00,1.22
6888.00,1.22
6887.00,1.22
6886.00,1.23
6885.00,1.23
6884.00,1.23
6883.00,1.23
6882.00,1.23
6881.00,1.23
6880.00,1.24
6879.00,1.24
6878.00,1.24
6877.00,1.24
6876.00,1.23
6875.00,1.23
6874.00,1.23
6873.00,1.23
6872.00,1.23
6871.00,1.23
6870.00,1.23
6869.00,1.23
6868.00,1.23
6867.00,1.23
6866.00,1.23
6865.00,1.23
6864.00,1.23
6863.00,1.23
6862.00,1.23
6861.00,1.23
6860.00,1.23
6859.00,1.23
6858.00,1.23
6857.00,1.23
6856.00,1.23
6855.00,1.23
6854.00,1.23
6853.00,1.23
6852.00,1.23
6851.00,1.23
6850.00,1.24
6849.00,1.24
6848.00,1.24
6847.00,1.24
6846.00,1.24
6845.00,1.24
6844.00,1.24
6843.00,1.24
6842.00,1.24
6841.00,1.24
6840.00,1.24
6839.00,1.24
6838.00,1.24
6837.00,1.24
6836.00,1.24
6835.00,1.24
6834.00,1.24
6833.00,1.23
6832.00,1.23
6831.00,1.23
6830.00,1.23
6829.00,1.23
6828.00,1.22
6827.00,1.22
6826.00,1.22
6825.00,1.22
6824.00,1.22
6823.00,1.22
6822.00,1.22
6821.00,1.21
6820.00,1.21
6819.00,1.21
6818.00,1.21
6817.00,1.21
6816.00,1.21
6815.00,1.21
6814.00,1.21
6813.00,1.21
6812.00,1.21
6811.00,1.21
6810.00,1.21
6809.00,1.21
6808.00,1.21
6807.00,1.21
6806.00,1.22
6805.00,1.22
6804.00,1.22
6803.00,1.23
6802.00,1.23
6801.00,1.24
6800.00,1.24
6799.00,1.25
6798.00,1.25
6797.00,1.26
6796.00,1.26
6795.00,1.27
6794.00,1.27
6793.00,1.28
6792.00,1.28
6791.00,1.29
6790.00,1.30
6789.00,1.30
6788.00,1.31
6787.00,1.32
6786.00,1.32
6785.00,1.33
6784.00,1.34
6783.00,1.34
6782.00,1.35
6781.00,1.35
6780.00,1.36
6779.00,1.36
6778.00,1.36
6777.00,1.37
6776.00,1.37
6775.00,1.37
6774.00,1.37
6773.00,1.37
6772.00,1.37
6771.00,1.37
6770.00,1.37
6769.00,1.37
6768.00,1.37
6767.00,1.37
6766.00,1.37
6765.00,1.37
6764.00,1.37
6763.00,1.37
6762.00,1.37
6761.00,1.37
6760.00,1.37
6759.00,1.36
6758.00,1.36
6757.00,1.36
6756.00,1.36
6755.00,1.36
6754.00,1.36
6753.00,1.36
6752.00,1.36
6751.00,1.36
6750.00,1.36
6749.00,1.37
6748.00,1.37
6747.00,1.37
6746.00,1.37
6745.00,1.37
6744.00,1.37
6743.00,1.37
6742.00,1.37
6741.00,1.37
6740.00,1.37
6739.00,1.38
6738.00,1.38
6737.00,1.38
6736.00,1.38
6735.00,1.39
6734.00,1.39
6733.00,1.39
6732.00,1.39
6731.00,1.40
6730.00,1.40
6729.00,1.40
6728.00,1.41
6727.00,1.41
6726.00,1.41
6725.00,1.42
6724.00,1.42
6723.00,1.42
6722.00,1.43
6721.00,1.43
6720.00,1.43
6719.00,1.44
6718.00,1.44
6717.00,1.45
6716.00,1.45
6715.00,1.45
6714.00,1.46
6713.00,1.46
6712.00,1.46
6711.00,1.47
6710.00,1.47
6709.00,1.47
6708.00,1.47
6707.00,1.48
6706.00,1.48
6705.00,1.48
6704.00,1.48
6703.00,1.48
6702.00,1.49
6701.00,1.49
6700.00,1.49
6699.00,1.49
6698.00,1.49
6697.00,1.49
6696.00,1.49
6695.00,1.49
6694.00,1.49
6693.00,1.50
6692.00,1.50
6691.00,1.50
6690.00,1.50
6689.00,1.50
6688.00,1.50
6687.00,1.50
6686.00,1.51
6685.00,1.51
6684.00,1.51
6683.00,1.51
6682.00,1.52
6681.00,1.52
6680.00,1.52
6679.00,1.52
6678.00,1.52
6677.00,1.53
6676.00,1.53
6675.00,1.53
6674.00,1.53
6673.00,1.53
6672.00,1.53
6671.00,1.53
6670.00,1.54
6669.00,1.54
6668.00,1.54
6667.00,1.54
6666.00,1.55
6665.00,1.55
6664.00,1.55
6663.00,1.55
6662.00,1.56
6661.00,1.56
6660.00,1.56
6659.00,1.56
6658.00,1.56
6657.00,1.56
6656.00,1.56
6655.00,1.57
6654.00,1.57
6653.00,1.57
6652.00,1.57
6651.00,1.58
6650.00,1.58
6649.00,1.59
6648.00,1.59
6647.00,1.60
6646.00,1.60
6645.00,1.60
6644.00,1.61
6643.00,1.61
6642.00,1.62
6641.00,1.62
6640.00,1.62
6639.00,1.62
6638.00,1.63
6637.00,1.63
6636.00,1.63
6635.00,1.63
6634.00,1.64
6633.00,1.64
6632.00,1.64
6631.00,1.65
6630.00,1.65
6629.00,1.65
6628.00,1.66
6627.00,1.66
6626.00,1.66
6625.00,1.66
6624.00,1.66
6623.00,1.66
6622.00,1.66
6621.00,1.66
6620.00,1.66
6619.00,1.66
6618.00,1.66
6617.00,1.66
6616.00,1.66
6615.00,1.66
6614.00,1.66
6613.00,1.66
6612.00,1.66
6611.00,1.66
6610.00,1.66
6609.00,1.67
6608.00,1.67
6607.00,1.67
6606.00,1.67
6605.00,1.68
6604.00,1.68
6603.00,1.68
6602.00,1.68
6601.00,1.69
6600.00,1.69
6599.00,1.69
6598.00,1.70
6597.00,1.70
6596.00,1.71
6595.00,1.71
6594.00,1.71
6593.00,1.72
6592.00,1.72
6591.00,1.73
6590.00,1.73
6589.00,1.74
6588.00,1.74
6587.00,1.75
6586.00,1.75
6585.00,1.76
6584.00,1.76
6583.00,1.77
6582.00,1.77
6581.00,1.78
6580.00,1.78
6579.00,1.78
6578.00,1.79
6577.00,1.79
6576.00,1.79
6575.00,1.80
6574.00,1.80
6573.00,1.80
6572.00,1.81
6571.00,1.81
6570.00,1.81
6569.00,1.82
6568.00,1.82
6567.00,1.82
6566.00,1.82
6565.00,1.83
6564.00,1.83
6563.00,1.83
6562.00,1.83
6561.00,1.84
6560.00,1.84
6559.00,1.84
6558.00,1.84
6557.00,1.85
6556.00,1.85
6555.00,1.85
6554.00,1.86
6553.00,1.86
6552.00,1.86
6551.00,1.87
6550.00,1.87
6549.00,1.87
6548.00,1.88
6547.00,1.88
6546.00,1.88
6545.00,1.89
6544.00,1.89
6543.00,1.90
6542.00,1.90
6541.00,1.90
6540.00,1.91
6539.00,1.91
6538.00,1.92
6537.00,1.92
6536.00,1.93
6535.00,1.93
6534.00,1.93
6533.00,1.94
6532.00,1.94
6531.00,1.94
6530.00,1.94
6529.00,1.95
6528.00,1.95
6527.00,1.95
6526.00,1.95
6525.00,1.95
6524.00,1.96
6523.00,1.96
6522.00,1.96
6521.00,1.96
6520.00,1.96
6519.00,1.97
6518.00,1.97
6517.00,1.97
6516.00,1.97
6515.00,1.97
6514.00,1.97
6513.00,1.97
6512.00,1.97
6511.00,1.98
6510.00,1.98
6509.00,1.98
6508.00,1.98
6507.00,1.98
6506.00,1.98
6505.00,1.98
6504.00,1.99
6503.00,1.99
6502.00,1.99
6501.00,1.99
6500.00,1.99
6499.00,1.99
6498.00,1.99
6497.00,1.99
6496.00,1.99
6495.00,1.99
6494.00,1.99
6493.00,1.99
6492.00,1.99
6491.00,1.99
6490.00,1.99
6489.00,1.99
6488.00,1.99
6487.00,1.99
6486.00,1.99
6485.00,1.98
6484.00,1.98
6483.00,1.98
6482.00,1.98
6481.00,1.98
6480.00,1.98
6479.00,1.98
6478.00,1.98
6477.00,1.98
6476.00,1.98
6475.00,1.98
6474.00,1.99
6473.00,1.99
6472.00,1.99
6471.00,1.99
6470.00,1.99
6469.00,1.99
6468.00,1.99
6467.00,1.99
6466.00,2.00
6465.00,2.00
6464.00,2.00
6463.00,2.01
6462.00,2.01
6461.00,2.01
6460.00,2.02
6459.00,2.02
6458.00,2.03
6457.00,2.03
6456.00,2.04
6455.00,2.04
6454.00,2.05
6453.00,2.05
6452.00,2.06
6451.00,2.06
6450.00,2.07
6449.00,2.07
6448.00,2.08
6447.00,2.08
6446.00,2.09
6445.00,2.09
6444.00,2.10
6443.00,2.10
6442.00,2.11
6441.00,2.11
6440.00,2.12
6439.00,2.12
6438.00,2.13
6437.00,2.13
6436.00,2.13
6435.00,2.14
6434.00,2.14
6433.00,2.14
6432.00,2.14
6431.00,2.14
6430.00,2.14
6429.00,2.15
6428.00,2.15
6427.00,2.15
6426.00,2.15
6425.00,2.15
6424.00,2.15
6423.00,2.15
6422.00,2.15
6421.00,2.15
6420.00,2.15
6419.00,2.16
6418.00,2.16
6417.00,2.16
6416.00,2.16
6415.00,2.16
6414.00,2.16
6413.00,2.17
6412.00,2.17
6411.00,2.17
6410.00,2.17
6409.00,2.18
6408.00,2.18
6407.00,2.19
6406.00,2.19
6405.00,2.19
6404.00,2.20
6403.00,2.20
6402.00,2.21
6401.00,2.21
6400.00,2.21
6399.00,2.22
6398.00,2.22
6397.00,2.23
6396.00,2.23
6395.00,2.23
6394.00,2.24
6393.00,2.24
6392.00,2.24
6391.00,2.25
6390.00,2.25
6389.00,2.25
6388.00,2.26
6387.00,2.26
6386.00,2.26
6385.00,2.27
6384.00,2.27
6383.00,2.27
6382.00,2.27
6381.00,2.27
6380.00,2.27
6379.00,2.28
6378.00,2.28
6377.00,2.28
6376.00,2.28
6375.00,2.28
6374.00,2.28
6373.00,2.28
6372.00,2.29
6371.00,2.29
6370.00,2.29
6369.00,2.29
6368.00,2.29
6367.00,2.29
6366.00,2.29
6365.00,2.29
6364.00,2.29
6363.00,2.29
6362.00,2.29
6361.00,2.29
6360.00,2.29
6359.00,2.29
6358.00,2.29
6357.00,2.30
6356.00,2.30
6355.00,2.30
6354.00,2.30
6353.00,2.30
6352.00,2.31
6351.00,2.31
6350.00,2.31
6349.00,2.31
6348.00,2.32
6347.00,2.32
6346.00,2.32
6345.00,2.32
6344.00,2.33
6343.00,2.33
6342.00,2.33
6341.00,2.33
6340.00,2.34
6339.00,2.34
6338.00,2.34
6337.00,2.35
6336.00,2.35
6335.00,2.35
6334.00,2.36
6333.00,2.36
6332.00,2.36
6331.00,2.36
6330.00,2.36
6329.00,2.36
6328.00,2.37
6327.00,2.37
6326.00,2.37
6325.00,2.37
6324.00,2.37
6323.00,2.37
6322.00,2.37
6321.00,2.37
6320.00,2.37
6319.00,2.37
6318.00,2.37
6317.00,2.38
6316.00,2.38
6315.00,2.38
6314.00,2.38
6313.00,2.38
6312.00,2.38
6311.00,2.39
6310.00,2.39
6309.00,2.39
6308.00,2.39
6307.00,2.40
6306.00,2.40
6305.00,2.40
6304.00,2.40
6303.00,2.41
6302.00,2.41
6301.00,2.41
6300.00,2.42
6299.00,2.42
6298.00,2.42
6297.00,2.43
6296.00,2.43
6295.00,2.44
6294.00,2.44
6293.00,2.44
6292.00,2.44
6291.00,2.45
6290.00,2.45
6289.00,2.45
6288.00,2.46
6287.00,2.46
6286.00,2.46
6285.00,2.46
6284.00,2.47
6283.00,2.47
6282.00,2.47
6281.00,2.48
6280.00,2.48
6279.00,2.49
6278.00,2.49
6277.00,2.49
6276.00,2.50
6275.00,2.50
6274.00,2.50
6273.00,2.50
6272.00,2.51
6271.00,2.51
6270.00,2.51
6269.00,2.51
6268.00,2.51
6267.00,2.52
6266.00,2.52
6265.00,2.52
6264.00,2.52
6263.00,2.52
6262.00,2.53
6261.00,2.53
6260.00,2.53
6259.00,2.53
6258.00,2.53
6257.00,2.54
6256.00,2.54
6255.00,2.54
6254.00,2.54
6253.00,2.54
6252.00,2.54
6251.00,2.54
6250.00,2.54
6249.00,2.54
6248.00,2.55
6247.00,2.55
6246.00,2.55
6245.00,2.55
6244.00,2.55
6243.00,2.56
6242.00,2.56
6241.00,2.56
6240.00,2.56
6239.00,2.57
6238.00,2.57
6237.00,2.57
6236.00,2.58
6235.00,2.58
6234.00,2.58
6233.00,2.58
6232.00,2.59
6231.00,2.59
6230.00,2.59
6229.00,2.59
6228.00,2.60
6227.00,2.60
6226.00,2.60
6225.00,2.60
6224.00,2.61
6223.00,2.61
6222.00,2.61
6221.00,2.61
6220.00,2.61
6219.00,2.61
6218.00,2.62
6217.00,2.62
6216.00,2.62
6215.00,2.62
6214.00,2.62
6213.00,2.62
6212.00,2.62
6211.00,2.62
6210.00,2.62
6209.00,2.62
6208.00,2.62
6207.00,2.62
6206.00,2.62
6205.00,2.63
6204.00,2.63
6203.00,2.63
6202.00,2.63
6201.00,2.63
6200.00,2.63
6199.00,2.63
6198.00,2.63
6197.00,2.64
6196.00,2.64
6195.00,2.64
6194.00,2.64
6193.00,2.64
6192.00,2.64
6191.00,2.65
6190.00,2.65
6189.00,2.65
6188.00,2.65
6187.00,2.66
6186.00,2.66
6185.00,2.66
6184.00,2.66
6183.00,2.67
6182.00,2.67
6181.00,2.67
6180.00,2.67
6179.00,2.68
6178.00,2.68
6177.00,2.68
6176.00,2.69
6175.00,2.69
6174.00,2.69
6173.00,2.70
6172.00,2.70
6171.00,2.70
6170.00,2.70
6169.00,2.71
6168.00,2.71
6167.00,2.71
6166.00,2.71
6165.00,2.72
6164.00,2.72
6163.00,2.72
6162.00,2.73
6161.00,2.73
6160.00,2.73
6159.00,2.74
6158.00,2.74
6157.00,2.74
6156.00,2.75
6155.00,2.75
6154.00,2.75
6153.00,2.76
6152.00,2.76
6151.00,2.76
6150.00,2.76
6149.00,2.77
6148.00,2.77
6147.00,2.77
6146.00,2.77
6145.00,2.77
6144.00,2.78
6143.00,2.78
6142.00,2.78
6141.00,2.78
6140.00,2.78
6139.00,2.79
6138.00,2.79
6137.00,2.79
6136.00,2.79
6135.00,2.79
6134.00,2.79
6133.00,2.79
6132.00,2.79
6131.00,2.79
6130.00,2.79
6129.00,2.79
6128.00,2.79
6127.00,2.79
6126.00,2.79
6125.00,2.79
6124.00,2.79
6123.00,2.79
6122.00,2.79
6121.00,2.79
6120.00,2.79
6119.00,2.79
6118.00,2.79
6117.00,2.79
6116.00,2.79
6115.00,2.80
6114.00,2.80
6113.00,2.80
6112.00,2.80
6111.00,2.80
6110.00,2.80
6109.00,2.80
6108.00,2.80
6107.00,2.81
6106.00,2.81
6105.00,2.81
6104.00,2.81
6103.00,2.82
6102.00,2.82
6101.00,2.82
6100.00,2.83
6099.00,2.83
6098.00,2.83
6097.00,2.84
6096.00,2.84
6095.00,2.84
6094.00,2.84
6093.00,2.85
6092.00,2.85
6091.00,2.85
6090.00,2.85
6089.00,2.86
6088.00,2.86
6087.00,2.86
6086.00,2.86
6085.00,2.86
6084.00,2.86
6083.00,2.86
6082.00,2.87
6081.00,2.87
6080.00,2.87
6079.00,2.87
6078.00,2.87
6077.00,2.88
6076.00,2.88
6075.00,2.88
6074.00,2.88
6073.00,2.88
6072.00,2.89
6071.00,2.89
6070.00,2.89
6069.00,2.89
6068.00,2.89
6067.00,2.89
6066.00,2.90
6065.00,2.90
6064.00,2.90
6063.00,2.90
6062.00,2.91
6061.00,2.91
6060.00,2.92
6059.00,2.92
6058.00,2.92
6057.00,2.93
6056.00,2.93
6055.00,2.93
6054.00,2.94
6053.00,2.94
6052.00,2.94
6051.00,2.94
6050.00,2.95
6049.00,2.95
6048.00,2.95
6047.00,2.95
6046.00,2.96
6045.00,2.96
6044.00,2.96
6043.00,2.96
6042.00,2.97
6041.00,2.97
6040.00,2.97
6039.00,2.97
6038.00,2.98
6037.00,2.98
6036.00,2.98
6035.00,2.98
6034.00,2.98
6033.00,2.98
6032.00,2.98
6031.00,2.98
6030.00,2.98
6029.00,2.98
6028.00,2.99
6027.00,2.99
6026.00,2.99
6025.00,2.99
6024.00,2.99
6023.00,2.99
6022.00,2.99
6021.00,2.99
6020.00,2.99
6019.00,2.99
6018.00,2.99
6017.00,2.99
6016.00,2.99
6015.00,2.99
6014.00,2.99
6013.00,2.99
6012.00,2.99
6011.00,2.99
6010.00,2.99
6009.00,2.99
6008.00,2.99
6007.00,2.99
6006.00,2.99
6005.00,2.99
6004.00,2.99
6003.00,2.98
6002.00,2.98
6001.00,2.98
6000.00,2.98
5999.00,2.98
5998.00,2.98
5997.00,2.97
5996.00,2.97
5995.00,2.97
5994.00,2.97
5993.00,2.96
5992.00,2.96
5991.00,2.96
5990.00,2.95
5989.00,2.95
5988.00,2.95
5987.00,2.95
5986.00,2.94
5985.00,2.94
5984.00,2.94
5983.00,2.93
5982.00,2.93
5981.00,2.93
5980.00,2.92
5979.00,2.92
5978.00,2.91
5977.00,2.91
5976.00,2.91
5975.00,2.90
5974.00,2.90
5973.00,2.89
5972.00,2.89
5971.00,2.88
5970.00,2.88
5969.00,2.87
5968.00,2.87
5967.00,2.86
5966.00,2.86
5965.00,2.86
5964.00,2.85
5963.00,2.85
5962.00,2.84
5961.00,2.84
5960.00,2.83
5959.00,2.83
5958.00,2.83
5957.00,2.82
5956.00,2.82
5955.00,2.82
5954.00,2.82
5953.00,2.81
5952.00,2.81
5951.00,2.81
5950.00,2.81
5949.00,2.81
5948.00,2.80
5947.00,2.80
5946.00,2.80
5945.00,2.80
5944.00,2.80
5943.00,2.80
5942.00,2.80
5941.00,2.80
5940.00,2.80
5939.00,2.80
5938.00,2.80
5937.00,2.79
5936.00,2.79
5935.00,2.79
5934.00,2.79
5933.00,2.79
5932.00,2.79
5931.00,2.79
5930.00,2.78
5929.00,2.78
5928.00,2.78
5927.00,2.77
5926.00,2.77
5925.00,2.77
5924.00,2.77
5923.00,2.76
5922.00,2.76
5921.00,2.76
5920.00,2.75
5919.00,2.75
5918.00,2.75
5917.00,2.74
5916.00,2.74
5915.00,2.74
5914.00,2.73
5913.00,2.73
5912.00,2.73
5911.00,2.72
5910.00,2.72
5909.00,2.72
5908.00,2.72
5907.00,2.71
5906.00,2.71
5905.00,2.71
5904.00,2.72
5903.00,2.72
5902.00,2.72
5901.00,2.72
5900.00,2.72
5899.00,2.73
5898.00,2.73
5897.00,2.73
5896.00,2.73
5895.00,2.74
5894.00,2.74
5893.00,2.74
5892.00,2.75
5891.00,2.75
5890.00,2.76
5889.00,2.76
5888.00,2.77
5887.00,2.77
5886.00,2.78
5885.00,2.79
5884.00,2.79
5883.00,2.80
5882.00,2.80
5881.00,2.81
5880.00,2.81
5879.00,2.82
5878.00,2.82
5877.00,2.82
5876.00,2.83
5875.00,2.83
5874.00,2.83
5873.00,2.83
5872.00,2.84
5871.00,2.84
5870.00,2.84
5869.00,2.85
5868.00,2.85
5867.00,2.85
5866.00,2.85
5865.00,2.86
5864.00,2.86
5863.00,2.86
5862.00,2.86
5861.00,2.86
5860.00,2.86
5859.00,2.86
5858.00,2.86
5857.00,2.86
5856.00,2.86
5855.00,2.87
5854.00,2.87
5853.00,2.87
5852.00,2.87
5851.00,2.87
5850.00,2.87
5849.00,2.87
5848.00,2.87
5847.00,2.87
5846.00,2.87
5845.00,2.87
5844.00,2.87
5843.00,2.87
5842.00,2.87
5841.00,2.87
5840.00,2.87
5839.00,2.87
5838.00,2.87
5837.00,2.87
5836.00,2.87
5835.00,2.87
5834.00,2.87
5833.00,2.87
5832.00,2.87
5831.00,2.87
5830.00,2.87
5829.00,2.87
5828.00,2.87
5827.00,2.87
5826.00,2.87
5825.00,2.87
5824.00,2.87
5823.00,2.87
5822.00,2.87
5821.00,2.87
5820.00,2.87
5819.00,2.87
5818.00,2.87
5817.00,2.87
5816.00,2.87
5815.00,2.88
5814.00,2.88
5813.00,2.88
5812.00,2.88
5811.00,2.88
5810.00,2.87
5809.00,2.87
5808.00,2.87
5807.00,2.87
5806.00,2.87
5805.00,2.86
5804.00,2.86
5803.00,2.86
5802.00,2.85
5801.00,2.85
5800.00,2.85
5799.00,2.85
5798.00,2.84
5797.00,2.84
5796.00,2.84
5795.00,2.83
5794.00,2.83
5793.00,2.83
5792.00,2.82
5791.00,2.82
5790.00,2.82
5789.00,2.81
5788.00,2.81
5787.00,2.80
5786.00,2.80
5785.00,2.80
5784.00,2.79
5783.00,2.79
5782.00,2.79
5781.00,2.79
5780.00,2.79
5779.00,2.78
5778.00,2.78
5777.00,2.78
5776.00,2.78
5775.00,2.78
5774.00,2.78
5773.00,2.78
5772.00,2.78
5771.00,2.78
5770.00,2.77
5769.00,2.77
5768.00,2.77
5767.00,2.77
5766.00,2.77
5765.00,2.77
5764.00,2.78
5763.00,2.78
5762.00,2.78
5761.00,2.78
5760.00,2.78
5759.00,2.78
5758.00,2.78
5757.00,2.79
5756.00,2.79
5755.00,2.79
5754.00,2.79
5753.00,2.79
5752.00,2.79
5751.00,2.80
5750.00,2.80
5749.00,2.80
5748.00,2.81
5747.00,2.81
5746.00,2.81
5745.00,2.82
5744.00,2.82
5743.00,2.82
5742.00,2.83
5741.00,2.83
5740.00,2.83
5739.00,2.83
5738.00,2.84
5737.00,2.84
5736.00,2.84
5735.00,2.84
5734.00,2.84
5733.00,2.84
5732.00,2.84
5731.00,2.84
5730.00,2.85
5729.00,2.85
5728.00,2.85
5727.00,2.85
5726.00,2.85
5725.00,2.85
5724.00,2.85
5723.00,2.85
5722.00,2.84
5721.00,2.84
5720.00,2.84
5719.00,2.84
5718.00,2.83
5717.00,2.83
5716.00,2.83
5715.00,2.82
5714.00,2.82
5713.00,2.82
5712.00,2.82
5711.00,2.81
5710.00,2.81
5709.00,2.81
5708.00,2.81
5707.00,2.80
5706.00,2.80
5705.00,2.79
5704.00,2.79
5703.00,2.79
5702.00,2.78
5701.00,2.78
5700.00,2.78
5699.00,2.78
5698.00,2.77
5697.00,2.77
5696.00,2.77
5695.00,2.77
5694.00,2.77
5693.00,2.77
5692.00,2.76
5691.00,2.76
5690.00,2.76
5689.00,2.76
5688.00,2.76
5687.00,2.76
5686.00,2.76
5685.00,2.75
5684.00,2.75
5683.00,2.75
5682.00,2.75
5681.00,2.75
5680.00,2.75
5679.00,2.75
5678.00,2.75
5677.00,2.75
5676.00,2.75
5675.00,2.75
5674.00,2.75
5673.00,2.75
5672.00,2.75
5671.00,2.75
5670.00,2.75
5669.00,2.76
5668.00,2.76
5667.00,2.76
5666.00,2.76
5665.00,2.76
5664.00,2.76
5663.00,2.76
5662.00,2.76
5661.00,2.77
5660.00,2.77
5659.00,2.77
5658.00,2.77
5657.00,2.77
5656.00,2.77
5655.00,2.77
5654.00,2.77
5653.00,2.77
5652.00,2.77
5651.00,2.77
5650.00,2.77
5649.00,2.78
5648.00,2.78
5647.00,2.78
5646.00,2.78
5645.00,2.78
5644.00,2.78
5643.00,2.78
5642.00,2.78
5641.00,2.78
5640.00,2.78
5639.00,2.78
5638.00,2.78
5637.00,2.78
5636.00,2.78
5635.00,2.78
5634.00,2.78
5633.00,2.78
5632.00,2.78
5631.00,2.78
5630.00,2.78
5629.00,2.78
5628.00,2.78
5627.00,2.78
5626.00,2.78
5625.00,2.78
5624.00,2.78
5623.00,2.78
5622.00,2.78
5621.00,2.78
5620.00,2.78
5619.00,2.78
5618.00,2.78
5617.00,2.78
5616.00,2.78
5615.00,2.78
5614.00,2.78
5613.00,2.78
5612.00,2.78
5611.00,2.79
5610.00,2.79
5609.00,2.79
5608.00,2.79
5607.00,2.79
5606.00,2.80
5605.00,2.80
5604.00,2.80
5603.00,2.80
5602.00,2.80
5601.00,2.81
5600.00,2.81
5599.00,2.81
5598.00,2.81
5597.00,2.81
5596.00,2.81
5595.00,2.82
5594.00,2.82
5593.00,2.82
5592.00,2.82
5591.00,2.83
5590.00,2.83
5589.00,2.83
5588.00,2.83
5587.00,2.83
5586.00,2.84
5585.00,2.84
5584.00,2.84
5583.00,2.84
5582.00,2.84
5581.00,2.84
5580.00,2.84
5579.00,2.85
5578.00,2.85
5577.00,2.85
5576.00,2.85
5575.00,2.85
5574.00,2.85
5573.00,2.86
5572.00,2.86
5571.00,2.86
5570.00,2.86
5569.00,2.86
5568.00,2.86
5567.00,2.87
5566.00,2.87
5565.00,2.87
5564.00,2.87
5563.00,2.87
5562.00,2.87
5561.00,2.88
5560.00,2.88
5559.00,2.88
5558.00,2.88
5557.00,2.88
5556.00,2.89
5555.00,2.89
5554.00,2.89
5553.00,2.90
5552.00,2.90
5551.00,2.90
5550.00,2.90
5549.00,2.91
5548.00,2.91
5547.00,2.91
5546.00,2.91
5545.00,2.92
5544.00,2.92
5543.00,2.92
5542.00,2.92
5541.00,2.93
5540.00,2.93
5539.00,2.93
5538.00,2.93
5537.00,2.93
5536.00,2.93
5535.00,2.93
5534.00,2.93
5533.00,2.94
5532.00,2.94
5531.00,2.94
5530.00,2.94
5529.00,2.93
5528.00,2.93
5527.00,2.93
5526.00,2.93
5525.00,2.93
5524.00,2.93
5523.00,2.93
5522.00,2.93
5521.00,2.93
5520.00,2.93
5519.00,2.93
5518.00,2.93
5517.00,2.93
5516.00,2.93
5515.00,2.94
5514.00,2.94
5513.00,2.94
5512.00,2.94
5511.00,2.94
5510.00,2.95
5509.00,2.95
5508.00,2.95
5507.00,2.95
5506.00,2.96
5505.00,2.96
5504.00,2.97
5503.00,2.97
5502.00,2.97
5501.00,2.98
5500.00,2.98
5499.00,2.98
5498.00,2.99
5497.00,2.99
5496.00,2.99
5495.00,2.99
5494.00,3.00
5493.00,3.00
5492.00,3.00
5491.00,3.00
5490.00,3.00
5489.00,3.00
5488.00,3.00
5487.00,3.00
5486.00,3.00
5485.00,3.00
5484.00,3.00
5483.00,3.00
5482.00,3.00
5481.00,3.00
5480.00,3.00
5479.00,3.00
5478.00,3.00
5477.00,3.00
5476.00,3.00
5475.00,3.00
5474.00,3.00
5473.00,3.00
5472.00,2.99
5471.00,2.99
5470.00,2.99
5469.00,2.99
5468.00,2.99
5467.00,2.99
5466.00,2.99
5465.00,2.99
5464.00,2.99
5463.00,2.99
5462.00,2.99
5461.00,2.99
5460.00,2.99
5459.00,2.99
5458.00,2.99
5457.00,2.98
5456.00,2.98
5455.00,2.98
5454.00,2.98
5453.00,2.98
5452.00,2.98
5451.00,2.97
5450.00,2.97
5449.00,2.97
5448.00,2.97
5447.00,2.97
5446.00,2.97
5445.00,2.97
5444.00,2.97
5443.00,2.96
5442.00,2.96
5441.00,2.96
5440.00,2.95
5439.00,2.95
5438.00,2.95
5437.00,2.94
5436.00,2.94
5435.00,2.94
5434.00,2.93
5433.00,2.93
5432.00,2.93
5431.00,2.93
5430.00,2.92
5429.00,2.92
5428.00,2.92
5427.00,2.92
5426.00,2.91
5425.00,2.91
5424.00,2.91
5423.00,2.91
5422.00,2.90
5421.00,2.90
5420.00,2.90
5419.00,2.89
5418.00,2.89
5417.00,2.89
5416.00,2.88
5415.00,2.88
5414.00,2.88
5413.00,2.88
5412.00,2.88
5411.00,2.88
5410.00,2.88
5409.00,2.88
5408.00,2.87
5407.00,2.87
5406.00,2.87
5405.00,2.87
5404.00,2.87
5403.00,2.87
5402.00,2.86
5401.00,2.86
5400.00,2.86
5399.00,2.85
5398.00,2.85
5397.00,2.85
5396.00,2.85
5395.00,2.84
5394.00,2.84
5393.00,2.84
5392.00,2.84
5391.00,2.83
5390.00,2.83
5389.00,2.82
5388.00,2.82
5387.00,2.81
5386.00,2.81
5385.00,2.80
5384.00,2.80
5383.00,2.79
5382.00,2.78
5381.00,2.77
5380.00,2.77
5379.00,2.76
5378.00,2.75
5377.00,2.74
5376.00,2.74
5375.00,2.73
5374.00,2.72
5373.00,2.71
5372.00,2.70
5371.00,2.69
5370.00,2.68
5369.00,2.67
5368.00,2.66
5367.00,2.65
5366.00,2.63
5365.00,2.62
5364.00,2.60
5363.00,2.59
5362.00,2.57
5361.00,2.55
5360.00,2.54
5359.00,2.52
5358.00,2.50
5357.00,2.49
5356.00,2.47
5355.00,2.45
5354.00,2.43
5353.00,2.41
5352.00,2.39
5351.00,2.38
5350.00,2.36
5349.00,2.33
5348.00,2.31
5347.00,2.29
5346.00,2.27
5345.00,2.25
5344.00,2.23
5343.00,2.21
5342.00,2.19
5341.00,2.17
5340.00,2.15
5339.00,2.13
5338.00,2.12
5337.00,2.10
5336.00,2.08
5335.00,2.07
5334.00,2.05
5333.00,2.03
5332.00,2.01
5331.00,1.99
5330.00,1.98
5329.00,1.96
5328.00,1.94
5327.00,1.92
5326.00,1.90
5325.00,1.88
5324.00,1.86
5323.00,1.84
5322.00,1.83
5321.00,1.81
5320.00,1.79
5319.00,1.77
5318.00,1.75
5317.00,1.73
5316.00,1.71
5315.00,1.70
5314.00,1.68
5313.00,1.66
5312.00,1.64
5311.00,1.62
5310.00,1.60
5309.00,1.58
5308.00,1.56
5307.00,1.54
5306.00,1.53
5305.00,1.51
5304.00,1.49
5303.00,1.48
5302.00,1.46
5301.00,1.45
5300.00,1.43
5299.00,1.42
5298.00,1.41
5297.00,1.39
5296.00,1.38
5295.00,1.37
5294.00,1.36
5293.00,1.35
5292.00,1.34
5291.00,1.33
5290.00,1.32
5289.00,1.31
5288.00,1.30
5287.00,1.30
5286.00,1.29
5285.00,1.28
5284.00,1.28
5283.00,1.27
5282.00,1.27
5281.00,1.26
5280.00,1.26
5279.00,1.25
5278.00,1.25
5277.00,1.25
5276.00,1.24
5275.00,1.24
5274.00,1.24
5273.00,1.23
5272.00,1.23
5271.00,1.23
5270.00,1.22
5269.00,1.22
5268.00,1.22
5267.00,1.22
5266.00,1.22
5265.00,1.21
5264.00,1.21
5263.00,1.21
5262.00,1.20
5261.00,1.20
5260.00,1.20
5259.00,1.19
5258.00,1.19
5257.00,1.19
5256.00,1.18
5255.00,1.18
5254.00,1.18
5253.00,1.17
5252.00,1.17
5251.00,1.17
5250.00,1.16
5249.00,1.16
5248.00,1.16
5247.00,1.15
5246.00,1.15
5245.00,1.15
5244.00,1.14
5243.00,1.14
5242.00,1.14
5241.00,1.14
5240.00,1.14
5239.00,1.14
5238.00,1.14
5237.00,1.14
5236.00,1.14
5235.00,1.14
5234.00,1.14
5233.00,1.14
5232.00,1.14
5231.00,1.15
5230.00,1.15
5229.00,1.15
5228.00,1.15
5227.00,1.15
5226.00,1.16
5225.00,1.16
5224.00,1.16
5223.00,1.16
5222.00,1.16
5221.00,1.16
5220.00,1.17
5219.00,1.17
5218.00,1.17
5217.00,1.17
5216.00,1.17
5215.00,1.17
5214.00,1.17
5213.00,1.17
5212.00,1.17
5211.00,1.17
5210.00,1.17
5209.00,1.16
5208.00,1.16
5207.00,1.16
5206.00,1.16
5205.00,1.15
5204.00,1.15
5203.00,1.15
5202.00,1.15
5201.00,1.14
5200.00,1.14
5199.00,1.14
5198.00,1.14
5197.00,1.14
5196.00,1.14
5195.00,1.14
5194.00,1.13
5193.00,1.13
5192.00,1.13
5191.00,1.13
5190.00,1.13
5189.00,1.13
5188.00,1.13
5187.00,1.13
5186.00,1.13
5185.00,1.13
5184.00,1.13
5183.00,1.14
5182.00,1.14
5181.00,1.14
5180.00,1.14
5179.00,1.14
5178.00,1.14
5177.00,1.15
5176.00,1.15
5175.00,1.15
5174.00,1.15
5173.00,1.15
5172.00,1.16
5171.00,1.16
5170.00,1.16
5169.00,1.16
5168.00,1.16
5167.00,1.16
5166.00,1.16
5165.00,1.16
5164.00,1.17
5163.00,1.17
5162.00,1.17
5161.00,1.17
5160.00,1.17
5159.00,1.17
5158.00,1.18
5157.00,1.18
5156.00,1.18
5155.00,1.18
5154.00,1.18
5153.00,1.18
5152.00,1.19
5151.00,1.19
5150.00,1.19
5149.00,1.19
5148.00,1.19
5147.00,1.20
5146.00,1.20
5145.00,1.20
5144.00,1.20
5143.00,1.20
5142.00,1.20
5141.00,1.21
5140.00,1.21
5139.00,1.21
5138.00,1.21
5137.00,1.21
5136.00,1.22
5135.00,1.22
5134.00,1.22
5133.00,1.22
5132.00,1.22
5131.00,1.22
5130.00,1.22
5129.00,1.22
5128.00,1.22
5127.00,1.22
5126.00,1.22
5125.00,1.22
5124.00,1.22
5123.00,1.21
5122.00,1.21
5121.00,1.21
5120.00,1.21
5119.00,1.21
5118.00,1.21
5117.00,1.20
5116.00,1.20
5115.00,1.20
5114.00,1.20
5113.00,1.20
5112.00,1.20
5111.00,1.20
5110.00,1.20
5109.00,1.20
5108.00,1.20
5107.00,1.20
5106.00,1.20
5105.00,1.20
5104.00,1.21
5103.00,1.21
5102.00,1.21
5101.00,1.21
5100.00,1.22
5099.00,1.22
5098.00,1.23
5097.00,1.23
5096.00,1.23
5095.00,1.24
5094.00,1.24
5093.00,1.25
5092.00,1.25
5091.00,1.26
5090.00,1.26
5089.00,1.27
5088.00,1.27
5087.00,1.27
5086.00,1.28
5085.00,1.28
5084.00,1.29
5083.00,1.29
5082.00,1.29
5081.00,1.30
5080.00,1.30
5079.00,1.30
5078.00,1.30
5077.00,1.31
5076.00,1.31
5075.00,1.31
5074.00,1.31
5073.00,1.31
5072.00,1.32
5071.00,1.32
5070.00,1.32
5069.00,1.32
5068.00,1.32
5067.00,1.32
5066.00,1.32
5065.00,1.32
5064.00,1.32
5063.00,1.32
5062.00,1.31
5061.00,1.31
5060.00,1.31
5059.00,1.31
5058.00,1.31
5057.00,1.31
5056.00,1.30
5055.00,1.30
5054.00,1.30
5053.00,1.30
5052.00,1.30
5051.00,1.30
5050.00,1.30
5049.00,1.30
5048.00,1.30
5047.00,1.30
5046.00,1.30
5045.00,1.29
5044.00,1.29
5043.00,1.29
5042.00,1.29
5041.00,1.29
5040.00,1.29
5039.00,1.29
5038.00,1.29
5037.00,1.29
5036.00,1.29
5035.00,1.29
5034.00,1.29
5033.00,1.29
5032.00,1.30
5031.00,1.30
5030.00,1.30
5029.00,1.30
5028.00,1.30
5027.00,1.30
5026.00,1.30
5025.00,1.30
5024.00,1.30
5023.00,1.30
5022.00,1.30
5021.00,1.30
5020.00,1.30
5019.00,1.30
5018.00,1.30
5017.00,1.30
5016.00,1.30
5015.00,1.30
5014.00,1.31
5013.00,1.31
5012.00,1.31
5011.00,1.32
5010.00,1.32
5009.00,1.32
5008.00,1.32
5007.00,1.33
5006.00,1.33
5005.00,1.33
5004.00,1.33
5003.00,1.34
5002.00,1.34
5001.00,1.34
5000.00,1.35
4999.00,1.35
4998.00,1.36
4997.00,1.36
4996.00,1.37
4995.00,1.37
4994.00,1.38
4993.00,1.38
4992.00,1.39
4991.00,1.39
4990.00,1.40
4989.00,1.40
4988.00,1.41
4987.00,1.41
4986.00,1.41
4985.00,1.42
4984.00,1.42
4983.00,1.43
4982.00,1.43
4981.00,1.44
4980.00,1.44
4979.00,1.45
4978.00,1.45
4977.00,1.46
4976.00,1.46
4975.00,1.47
4974.00,1.48
4973.00,1.48
4972.00,1.48
4971.00,1.49
4970.00,1.49
4969.00,1.50
4968.00,1.50
4967.00,1.51
4966.00,1.51
4965.00,1.52
4964.00,1.52
4963.00,1.52
4962.00,1.53
4961.00,1.53
4960.00,1.53
4959.00,1.54
4958.00,1.54
4957.00,1.54
4956.00,1.55
4955.00,1.55
4954.00,1.55
4953.00,1.55
4952.00,1.56
4951.00,1.56
4950.00,1.56
4949.00,1.56
4948.00,1.57
4947.00,1.57
4946.00,1.57
4945.00,1.57
4944.00,1.58
4943.00,1.58
4942.00,1.58
4941.00,1.58
4940.00,1.59
4939.00,1.59
4938.00,1.59
4937.00,1.59
4936.00,1.60
4935.00,1.60
4934.00,1.60
4933.00,1.61
4932.00,1.61
4931.00,1.61
4930.00,1.62
4929.00,1.62
4928.00,1.62
4927.00,1.62
4926.00,1.62
4925.00,1.62
4924.00,1.62
4923.00,1.62
4922.00,1.62
4921.00,1.62
4920.00,1.62
4919.00,1.62
4918.00,1.62
4917.00,1.62
4916.00,1.61
4915.00,1.61
4914.00,1.61
4913.00,1.61
4912.00,1.61
4911.00,1.61
4910.00,1.61
4909.00,1.61
4908.00,1.61
4907.00,1.61
4906.00,1.61
4905.00,1.61
4904.00,1.61
4903.00,1.61
4902.00,1.61
4901.00,1.61
4900.00,1.61
4899.00,1.61
4898.00,1.62
4897.00,1.62
4896.00,1.63
4895.00,1.63
4894.00,1.64
4893.00,1.64
4892.00,1.65
4891.00,1.65
4890.00,1.66
4889.00,1.66
4888.00,1.67
4887.00,1.67
4886.00,1.68
4885.00,1.69
4884.00,1.69
4883.00,1.70
4882.00,1.70
4881.00,1.71
4880.00,1.71
4879.00,1.71
4878.00,1.72
4877.00,1.72
4876.00,1.72
4875.00,1.73
4874.00,1.73
4873.00,1.73
4872.00,1.73
4871.00,1.74
4870.00,1.74
4869.00,1.74
4868.00,1.74
4867.00,1.74
4866.00,1.74
4865.00,1.75
4864.00,1.75
4863.00,1.75
4862.00,1.75
4861.00,1.75
4860.00,1.75
4859.00,1.75
4858.00,1.76
4857.00,1.76
4856.00,1.76
4855.00,1.76
4854.00,1.76
4853.00,1.77
4852.00,1.77
4851.00,1.77
4850.00,1.78
4849.00,1.78
4848.00,1.79
4847.00,1.79
4846.00,1.80
4845.00,1.80
4844.00,1.81
4843.00,1.81
4842.00,1.82
4841.00,1.82
4840.00,1.83
4839.00,1.83
4838.00,1.84
4837.00,1.84
4836.00,1.85
4835.00,1.85
4834.00,1.86
4833.00,1.86
4832.00,1.87
4831.00,1.88
4830.00,1.88
4829.00,1.89
4828.00,1.89
4827.00,1.90
4826.00,1.90
4825.00,1.91
4824.00,1.92
4823.00,1.92
4822.00,1.93
4821.00,1.93
4820.00,1.94
4819.00,1.94
4818.00,1.95
4817.00,1.95
4816.00,1.95
4815.00,1.96
4814.00,1.96
4813.00,1.97
4812.00,1.97
4811.00,1.98
4810.00,1.98
4809.00,1.98
4808.00,1.99
4807.00,1.99
4806.00,1.99
4805.00,2.00
4804.00,2.00
4803.00,2.00
4802.00,2.01
4801.00,2.01
4800.00,2.02
4799.00,2.02
4798.00,2.02
4797.00,2.03
4796.00,2.03
4795.00,2.03
4794.00,2.04
4793.00,2.04
4792.00,2.04
4791.00,2.05
4790.00,2.05
4789.00,2.06
4788.00,2.06
4787.00,2.07
4786.00,2.07
4785.00,2.08
4784.00,2.09
4783.00,2.09
4782.00,2.10
4781.00,2.10
4780.00,2.11
4779.00,2.11
4778.00,2.12
4777.00,2.12
4776.00,2.13
4775.00,2.13
4774.00,2.14
4773.00,2.14
4772.00,2.15
4771.00,2.15
4770.00,2.16
4769.00,2.16
4768.00,2.17
4767.00,2.17
4766.00,2.18
4765.00,2.18
4764.00,2.18
4763.00,2.19
4762.00,2.19
4761.00,2.19
4760.00,2.20
4759.00,2.20
4758.00,2.20
4757.00,2.21
4756.00,2.21
4755.00,2.21
4754.00,2.22
4753.00,2.22
4752.00,2.22
4751.00,2.22
4750.00,2.23
4749.00,2.23
4748.00,2.23
4747.00,2.23
4746.00,2.23
4745.00,2.24
4744.00,2.24
4743.00,2.24
4742.00,2.25
4741.00,2.25
4740.00,2.25
4739.00,2.26
4738.00,2.26
4737.00,2.26
4736.00,2.27
4735.00,2.27
4734.00,2.27
4733.00,2.28
4732.00,2.28
4731.00,2.29
4730.00,2.29
4729.00,2.30
4728.00,2.30
4727.00,2.31
4726.00,2.31
4725.00,2.32
4724.00,2.32
4723.00,2.33
4722.00,2.33
4721.00,2.34
4720.00,2.35
4719.00,2.35
4718.00,2.36
4717.00,2.36
4716.00,2.37
4715.00,2.37
4714.00,2.38
4713.00,2.38
4712.00,2.39
4711.00,2.39
4710.00,2.40
4709.00,2.40
4708.00,2.41
4707.00,2.42
4706.00,2.42
4705.00,2.43
4704.00,2.43
4703.00,2.44
4702.00,2.44
4701.00,2.45
4700.00,2.46
4699.00,2.46
4698.00,2.47
4697.00,2.47
4696.00,2.48
4695.00,2.48
4694.00,2.49
4693.00,2.49
4692.00,2.50
4691.00,2.50
4690.00,2.51
4689.00,2.52
4688.00,2.52
4687.00,2.53
4686.00,2.53
4685.00,2.54
4684.00,2.54
4683.00,2.55
4682.00,2.55
4681.00,2.56
4680.00,2.56
4679.00,2.57
4678.00,2.57
4677.00,2.58
4676.00,2.58
4675.00,2.58
4674.00,2.59
4673.00,2.59
4672.00,2.60
4671.00,2.60
4670.00,2.61
4669.00,2.61
4668.00,2.62
4667.00,2.62
4666.00,2.63
4665.00,2.64
4664.00,2.64
4663.00,2.65
4662.00,2.65
4661.00,2.66
4660.00,2.67
4659.00,2.67
4658.00,2.68
4657.00,2.69
4656.00,2.69
4655.00,2.70
4654.00,2.70
4653.00,2.71
4652.00,2.71
4651.00,2.72
4650.00,2.72
4649.00,2.73
4648.00,2.73
4647.00,2.74
4646.00,2.74
4645.00,2.74
4644.00,2.75
4643.00,2.75
4642.00,2.75
4641.00,2.75
4640.00,2.75
4639.00,2.75
4638.00,2.75
4637.00,2.75
4636.00,2.75
4635.00,2.75
4634.00,2.75
4633.00,2.75
4632.00,2.75
4631.00,2.75
4630.00,2.76
4629.00,2.76
4628.00,2.76
4627.00,2.76
4626.00,2.77
4625.00,2.77
4624.00,2.77
4623.00,2.77
4622.00,2.78
4621.00,2.78
4620.00,2.79
4619.00,2.79
4618.00,2.80
4617.00,2.80
4616.00,2.81
4615.00,2.82
4614.00,2.82
4613.00,2.83
4612.00,2.84
4611.00,2.85
4610.00,2.86
4609.00,2.87
4608.00,2.87
4607.00,2.88
4606.00,2.89
4605.00,2.89
4604.00,2.90
4603.00,2.90
4602.00,2.91
4601.00,2.91
4600.00,2.91
4599.00,2.92
4598.00,2.92
4597.00,2.92
4596.00,2.92
4595.00,2.93
4594.00,2.93
4593.00,2.93
4592.00,2.93
4591.00,2.93
4590.00,2.93
4589.00,2.93
4588.00,2.93
4587.00,2.93
4586.00,2.92
4585.00,2.92
4584.00,2.92
4583.00,2.92
4582.00,2.92
4581.00,2.92
4580.00,2.92
4579.00,2.92
4578.00,2.92
4577.00,2.92
4576.00,2.92
4575.00,2.92
4574.00,2.92
4573.00,2.92
4572.00,2.92
4571.00,2.92
4570.00,2.93
4569.00,2.93
4568.00,2.93
4567.00,2.93
4566.00,2.94
4565.00,2.94
4564.00,2.94
4563.00,2.94
4562.00,2.95
4561.00,2.95
4560.00,2.95
4559.00,2.95
4558.00,2.95
4557.00,2.95
4556.00,2.95
4555.00,2.95
4554.00,2.95
4553.00,2.95
4552.00,2.95
4551.00,2.95
4550.00,2.94
4549.00,2.94
4548.00,2.94
4547.00,2.94
4546.00,2.94
4545.00,2.93
4544.00,2.93
4543.00,2.93
4542.00,2.93
4541.00,2.92
4540.00,2.92
4539.00,2.92
4538.00,2.92
4537.00,2.91
4536.00,2.91
4535.00,2.91
4534.00,2.91
4533.00,2.91
4532.00,2.91
4531.00,2.90
4530.00,2.90
4529.00,2.90
4528.00,2.90
4527.00,2.90
4526.00,2.90
4525.00,2.90
4524.00,2.91
4523.00,2.91
4522.00,2.91
4521.00,2.91
4520.00,2.91
4519.00,2.91
4518.00,2.91
4517.00,2.91
4516.00,2.91
4515.00,2.92
4514.00,2.92
4513.00,2.92
4512.00,2.93
4511.00,2.93
4510.00,2.93
4509.00,2.94
4508.00,2.94
4507.00,2.94
4506.00,2.95
4505.00,2.95
4504.00,2.95
4503.00,2.96
4502.00,2.96
4501.00,2.96
4500.00,2.96
4499.00,2.96
4498.00,2.97
4497.00,2.97
4496.00,2.97
4495.00,2.97
4494.00,2.98
4493.00,2.98
4492.00,2.98
4491.00,2.98
4490.00,2.98
4489.00,2.98
4488.00,2.98
4487.00,2.98
4486.00,2.98
4485.00,2.98
4484.00,2.97
4483.00,2.97
4482.00,2.97
4481.00,2.97
4480.00,2.96
4479.00,2.96
4478.00,2.96
4477.00,2.96
4476.00,2.95
4475.00,2.95
4474.00,2.95
4473.00,2.95
4472.00,2.94
4471.00,2.94
4470.00,2.93
4469.00,2.93
4468.00,2.92
4467.00,2.92
4466.00,2.91
4465.00,2.91
4464.00,2.90
4463.00,2.89
4462.00,2.89
4461.00,2.88
4460.00,2.87
4459.00,2.87
4458.00,2.86
4457.00,2.85
4456.00,2.84
4455.00,2.83
4454.00,2.82
4453.00,2.81
4452.00,2.80
4451.00,2.79
4450.00,2.78
4449.00,2.77
4448.00,2.76
4447.00,2.75
4446.00,2.74
4445.00,2.73
4444.00,2.71
4443.00,2.70
4442.00,2.69
4441.00,2.68
4440.00,2.67
4439.00,2.66
4438.00,2.64
4437.00,2.63
4436.00,2.62
4435.00,2.61
4434.00,2.60
4433.00,2.58
4432.00,2.57
4431.00,2.56
4430.00,2.55
4429.00,2.54
4428.00,2.53
4427.00,2.52
4426.00,2.51
4425.00,2.50
4424.00,2.50
4423.00,2.49
4422.00,2.48
4421.00,2.47
4420.00,2.47
4419.00,2.46
4418.00,2.46
4417.00,2.45
4416.00,2.45
4415.00,2.45
4414.00,2.44
4413.00,2.44
4412.00,2.44
4411.00,2.44
4410.00,2.44
4409.00,2.45
4408.00,2.45
4407.00,2.45
4406.00,2.45
4405.00,2.46
4404.00,2.46
4403.00,2.47
4402.00,2.48
4401.00,2.49
4400.00,2.50
4399.00,2.50
4398.00,2.51
4397.00,2.52
4396.00,2.53
4395.00,2.54
4394.00,2.55
4393.00,2.56
4392.00,2.57
4391.00,2.58
4390.00,2.59
4389.00,2.59
4388.00,2.60
4387.00,2.61
4386.00,2.62
4385.00,2.62
4384.00,2.63
4383.00,2.63
4382.00,2.64
4381.00,2.64
4380.00,2.64
4379.00,2.65
4378.00,2.65
4377.00,2.65
4376.00,2.65
4375.00,2.65
4374.00,2.65
4373.00,2.64
4372.00,2.64
4371.00,2.64
4370.00,2.63
4369.00,2.63
4368.00,2.62
4367.00,2.62
4366.00,2.61
4365.00,2.61
4364.00,2.60
4363.00,2.60
4362.00,2.59
4361.00,2.58
4360.00,2.58
4359.00,2.57
4358.00,2.56
4357.00,2.56
4356.00,2.55
4355.00,2.54
4354.00,2.54
4353.00,2.53
4352.00,2.53
4351.00,2.52
4350.00,2.52
4349.00,2.51
4348.00,2.51
4347.00,2.51
4346.00,2.50
4345.00,2.50
4344.00,2.50
4343.00,2.50
4342.00,2.50
4341.00,2.50
4340.00,2.50
4339.00,2.50
4338.00,2.50
4337.00,2.51
4336.00,2.51
4335.00,2.51
4334.00,2.52
4333.00,2.52
4332.00,2.53
4331.00,2.53
4330.00,2.54
4329.00,2.55
4328.00,2.55
4327.00,2.56
4326.00,2.57
4325.00,2.58
4324.00,2.58
4323.00,2.59
4322.00,2.60
4321.00,2.60
4320.00,2.61
4319.00,2.62
4318.00,2.62
4317.00,2.63
4316.00,2.63
4315.00,2.64
4314.00,2.64
4313.00,2.65
4312.00,2.65
4311.00,2.65
4310.00,2.65
4309.00,2.65
4308.00,2.65
4307.00,2.65
4306.00,2.65
4305.00,2.65
4304.00,2.65
4303.00,2.65
4302.00,2.65
4301.00,2.64
4300.00,2.64
4299.00,2.64
4298.00,2.64
4297.00,2.63
4296.00,2.63
4295.00,2.63
4294.00,2.63
4293.00,2.63
4292.00,2.62
4291.00,2.62
4290.00,2.62
4289.00,2.61
4288.00,2.61
4287.00,2.61
4286.00,2.61
4285.00,2.61
4284.00,2.61
4283.00,2.61
4282.00,2.61
4281.00,2.61
4280.00,2.62
4279.00,2.62
4278.00,2.62
4277.00,2.62
4276.00,2.63
4275.00,2.63
4274.00,2.63
4273.00,2.64
4272.00,2.64
4271.00,2.64
4270.00,2.65
4269.00,2.65
4268.00,2.66
4267.00,2.66
4266.00,2.67
4265.00,2.67
4264.00,2.68
4263.00,2.69
4262.00,2.69
4261.00,2.70
4260.00,2.71
4259.00,2.71
4258.00,2.72
4257.00,2.73
4256.00,2.74
4255.00,2.74
4254.00,2.75
4253.00,2.76
4252.00,2.77
4251.00,2.77
4250.00,2.78
4249.00,2.79
4248.00,2.79
4247.00,2.80
4246.00,2.81
4245.00,2.81
4244.00,2.82
4243.00,2.82
4242.00,2.83
4241.00,2.83
4240.00,2.84
4239.00,2.84
4238.00,2.85
4237.00,2.85
4236.00,2.85
4235.00,2.86
4234.00,2.86
4233.00,2.86
4232.00,2.86
4231.00,2.86
4230.00,2.86
4229.00,2.86
4228.00,2.86
4227.00,2.85
4226.00,2.85
4225.00,2.85
4224.00,2.84
4223.00,2.84
4222.00,2.84
4221.00,2.83
4220.00,2.83
4219.00,2.83
4218.00,2.82
4217.00,2.82
4216.00,2.82
4215.00,2.82
4214.00,2.81
4213.00,2.81
4212.00,2.81
4211.00,2.81
4210.00,2.81
4209.00,2.81
4208.00,2.81
4207.00,2.81
4206.00,2.81
4205.00,2.81
4204.00,2.82
4203.00,2.82
4202.00,2.82
4201.00,2.83
4200.00,2.83
4199.00,2.83
4198.00,2.84
4197.00,2.84
4196.00,2.84
4195.00,2.84
4194.00,2.85
4193.00,2.85
4192.00,2.85
4191.00,2.86
4190.00,2.86
4189.00,2.86
4188.00,2.86
4187.00,2.87
4186.00,2.87
4185.00,2.86
4184.00,2.86
4183.00,2.86
4182.00,2.86
4181.00,2.85
4180.00,2.84
4179.00,2.84
4178.00,2.83
4177.00,2.82
4176.00,2.81
4175.00,2.81
4174.00,2.80
4173.00,2.79
4172.00,2.78
4171.00,2.77
4170.00,2.76
4169.00,2.75
4168.00,2.74
4167.00,2.73
4166.00,2.72
4165.00,2.71
4164.00,2.70
4163.00,2.69
4162.00,2.68
4161.00,2.67
4160.00,2.66
4159.00,2.65
4158.00,2.64
4157.00,2.63
4156.00,2.63
4155.00,2.62
4154.00,2.62
4153.00,2.61
4152.00,2.61
4151.00,2.61
4150.00,2.60
4149.00,2.60
4148.00,2.60
4147.00,2.61
4146.00,2.61
4145.00,2.61
4144.00,2.62
4143.00,2.62
4142.00,2.62
4141.00,2.63
4140.00,2.63
4139.00,2.63
4138.00,2.64
4137.00,2.64
4136.00,2.65
4135.00,2.66
4134.00,2.67
4133.00,2.67
4132.00,2.68
4131.00,2.69
4130.00,2.69
4129.00,2.70
4128.00,2.70
4127.00,2.71
4126.00,2.72
4125.00,2.72
4124.00,2.73
4123.00,2.74
4122.00,2.75
4121.00,2.76
4120.00,2.76
4119.00,2.77
4118.00,2.77
4117.00,2.78
4116.00,2.78
4115.00,2.79
4114.00,2.79
4113.00,2.79
4112.00,2.80
4111.00,2.80
4110.00,2.80
4109.00,2.80
4108.00,2.80
4107.00,2.80
4106.00,2.80
4105.00,2.80
4104.00,2.79
4103.00,2.79
4102.00,2.79
4101.00,2.79
4100.00,2.78
4099.00,2.77
4098.00,2.76
4097.00,2.75
4096.00,2.74
4095.00,2.73
4094.00,2.72
4093.00,2.70
4092.00,2.69
4091.00,2.68
4090.00,2.67
4089.00,2.66
4088.00,2.66
4087.00,2.65
4086.00,2.64
4085.00,2.64
4084.00,2.63
4083.00,2.63
4082.00,2.63
4081.00,2.62
4080.00,2.62
4079.00,2.62
4078.00,2.63
4077.00,2.63
4076.00,2.63
4075.00,2.63
4074.00,2.64
4073.00,2.65
4072.00,2.66
4071.00,2.67
4070.00,2.68
4069.00,2.69
4068.00,2.71
4067.00,2.72
4066.00,2.73
4065.00,2.74
4064.00,2.75
4063.00,2.76
4062.00,2.77
4061.00,2.77
4060.00,2.78
4059.00,2.79
4058.00,2.79
4057.00,2.80
4056.00,2.81
4055.00,2.81
4054.00,2.82
4053.00,2.82
4052.00,2.82
4051.00,2.82
4050.00,2.82
4049.00,2.82
4048.00,2.82
4047.00,2.81
4046.00,2.81
4045.00,2.80
4044.00,2.80
4043.00,2.80
4042.00,2.79
4041.00,2.79
4040.00,2.78
4039.00,2.78
4038.00,2.77
4037.00,2.77
4036.00,2.77
4035.00,2.77
4034.00,2.76
4033.00,2.76
4032.00,2.75
4031.00,2.75
4030.00,2.75
4029.00,2.74
4028.00,2.74
4027.00,2.74
4026.00,2.74
4025.00,2.74
4024.00,2.74
4023.00,2.74
4022.00,2.74
4021.00,2.74
4020.00,2.75
4019.00,2.75
4018.00,2.75
4017.00,2.76
4016.00,2.76
4015.00,2.77
4014.00,2.78
4013.00,2.79
4012.00,2.80
4011.00,2.81
4010.00,2.82
4009.00,2.84
4008.00,2.85
4007.00,2.87
4006.00,2.89
4005.00,2.91
4004.00,2.92
4003.00,2.94
4002.00,2.96
4001.00,2.98
4000.00,2.99
