创建为新数据集,样品 011 用户 Administrator 日期 星期五, 七月 26 2019
cm-1,%T
10000.00,0.86
9999.00,0.87
9998.00,0.89
9997.00,0.90
9996.00,0.92
9995.00,0.93
9994.00,0.95
9993.00,0.97
9992.00,0.98
9991.00,0.99
9990.00,1.01
9989.00,1.02
9988.00,1.03
9987.00,1.04
9986.00,1.04
9985.00,1.05
9984.00,1.05
9983.00,1.05
9982.00,1.05
9981.00,1.05
9980.00,1.05
9979.00,1.05
9978.00,1.05
9977.00,1.05
9976.00,1.05
9975.00,1.06
9974.00,1.06
9973.00,1.06
9972.00,1.06
9971.00,1.07
9970.00,1.07
9969.00,1.07
9968.00,1.07
9967.00,1.07
9966.00,1.07
9965.00,1.07
9964.00,1.07
9963.00,1.07
9962.00,1.06
9961.00,1.06
9960.00,1.05
9959.00,1.05
9958.00,1.04
9957.00,1.04
9956.00,1.03
9955.00,1.02
9954.00,1.01
9953.00,1.00
9952.00,0.99
9951.00,0.98
9950.00,0.97
9949.00,0.95
9948.00,0.94
9947.00,0.93
9946.00,0.92
9945.00,0.90
9944.00,0.89
9943.00,0.88
9942.00,0.87
9941.00,0.86
9940.00,0.85
9939.00,0.84
9938.00,0.84
9937.00,0.83
9936.00,0.83
9935.00,0.82
9934.00,0.82
9933.00,0.82
9932.00,0.82
9931.00,0.82
9930.00,0.83
9929.00,0.83
9928.00,0.83
9927.00,0.84
9926.00,0.84
9925.00,0.85
9924.00,0.85
9923.00,0.86
9922.00,0.87
9921.00,0.87
9920.00,0.88
9919.00,0.88
9918.00,0.88
9917.00,0.89
9916.00,0.89
9915.00,0.89
9914.00,0.89
9913.00,0.89
9912.00,0.89
9911.00,0.89
9910.00,0.89
9909.00,0.89
9908.00,0.88
9907.00,0.88
9906.00,0.87
9905.00,0.87
9904.00,0.86
9903.00,0.86
9902.00,0.85
9901.00,0.84
9900.00,0.84
9899.00,0.83
9898.00,0.82
9897.00,0.82
9896.00,0.81
9895.00,0.81
9894.00,0.80
9893.00,0.80
9892.00,0.79
9891.00,0.79
9890.00,0.79
9889.00,0.79
9888.00,0.79
9887.00,0.78
9886.00,0.78
9885.00,0.78
9884.00,0.78
9883.00,0.78
9882.00,0.79
9881.00,0.79
9880.00,0.79
9879.00,0.79
9878.00,0.79
9877.00,0.80
9876.00,0.80
9875.00,0.80
9874.00,0.80
9873.00,0.80
9872.00,0.80
9871.00,0.80
9870.00,0.80
9869.00,0.80
9868.00,0.79
9867.00,0.79
9866.00,0.78
9865.00,0.77
9864.00,0.77
9863.00,0.76
9862.00,0.75
9861.00,0.74
9860.00,0.73
9859.00,0.72
9858.00,0.71
9857.00,0.70
9856.00,0.69
9855.00,0.68
9854.00,0.67
9853.00,0.66
9852.00,0.65
9851.00,0.64
9850.00,0.64
9849.00,0.63
9848.00,0.63
9847.00,0.62
9846.00,0.62
9845.00,0.62
9844.00,0.62
9843.00,0.62
9842.00,0.63
9841.00,0.63
9840.00,0.64
9839.00,0.64
9838.00,0.65
9837.00,0.66
9836.00,0.67
9835.00,0.68
9834.00,0.69
9833.00,0.70
9832.00,0.72
9831.00,0.73
9830.00,0.74
9829.00,0.75
9828.00,0.76
9827.00,0.77
9826.00,0.78
9825.00,0.79
9824.00,0.80
9823.00,0.81
9822.00,0.81
9821.00,0.82
9820.00,0.82
9819.00,0.83
9818.00,0.83
9817.00,0.83
9816.00,0.84
9815.00,0.84
9814.00,0.84
9813.00,0.84
9812.00,0.84
9811.00,0.84
9810.00,0.83
9809.00,0.83
9808.00,0.83
9807.00,0.82
9806.00,0.82
9805.00,0.82
9804.00,0.81
9803.00,0.81
9802.00,0.80
9801.00,0.80
9800.00,0.80
9799.00,0.80
9798.00,0.79
9797.00,0.79
9796.00,0.79
9795.00,0.78
9794.00,0.78
9793.00,0.78
9792.00,0.77
9791.00,0.77
9790.00,0.76
9789.00,0.76
9788.00,0.75
9787.00,0.75
9786.00,0.75
9785.00,0.74
9784.00,0.73
9783.00,0.73
9782.00,0.72
9781.00,0.72
9780.00,0.71
9779.00,0.70
9778.00,0.70
9777.00,0.69
9776.00,0.69
9775.00,0.68
9774.00,0.67
9773.00,0.67
9772.00,0.66
9771.00,0.66
9770.00,0.65
9769.00,0.65
9768.00,0.64
9767.00,0.64
9766.00,0.64
9765.00,0.64
9764.00,0.64
9763.00,0.64
9762.00,0.64
9761.00,0.64
9760.00,0.64
9759.00,0.65
9758.00,0.65
9757.00,0.66
9756.00,0.66
9755.00,0.67
9754.00,0.67
9753.00,0.68
9752.00,0.68
9751.00,0.69
9750.00,0.70
9749.00,0.70
9748.00,0.71
9747.00,0.72
9746.00,0.72
9745.00,0.73
9744.00,0.74
9743.00,0.75
9742.00,0.75
9741.00,0.76
9740.00,0.76
9739.00,0.77
9738.00,0.77
9737.00,0.78
9736.00,0.78
9735.00,0.78
9734.00,0.78
9733.00,0.78
9732.00,0.78
9731.00,0.78
9730.00,0.77
9729.00,0.77
9728.00,0.77
9727.00,0.77
9726.00,0.77
9725.00,0.77
9724.00,0.76
9723.00,0.76
9722.00,0.76
9721.00,0.75
9720.00,0.75
9719.00,0.75
9718.00,0.74
9717.00,0.74
9716.00,0.73
9715.00,0.73
9714.00,0.73
9713.00,0.72
9712.00,0.72
9711.00,0.72
9710.00,0.72
9709.00,0.72
9708.00,0.72
9707.00,0.72
9706.00,0.72
9705.00,0.73
9704.00,0.73
9703.00,0.73
9702.00,0.73
9701.00,0.73
9700.00,0.73
9699.00,0.73
9698.00,0.73
9697.00,0.74
9696.00,0.74
9695.00,0.74
9694.00,0.74
9693.00,0.74
9692.00,0.74
9691.00,0.74
9690.00,0.74
9689.00,0.74
9688.00,0.74
9687.00,0.74
9686.00,0.73
9685.00,0.73
9684.00,0.73
9683.00,0.72
9682.00,0.72
9681.00,0.71
9680.00,0.71
9679.00,0.70
9678.00,0.70
9677.00,0.69
9676.00,0.69
9675.00,0.68
9674.00,0.68
9673.00,0.68
9672.00,0.67
9671.00,0.67
9670.00,0.67
9669.00,0.66
9668.00,0.66
9667.00,0.65
9666.00,0.65
9665.00,0.64
9664.00,0.64
9663.00,0.64
9662.00,0.64
9661.00,0.64
9660.00,0.64
9659.00,0.64
9658.00,0.64
9657.00,0.65
9656.00,0.65
9655.00,0.65
9654.00,0.66
9653.00,0.66
9652.00,0.66
9651.00,0.67
9650.00,0.67
9649.00,0.68
9648.00,0.68
9647.00,0.68
9646.00,0.69
9645.00,0.69
9644.00,0.70
9643.00,0.71
9642.00,0.72
9641.00,0.72
9640.00,0.73
9639.00,0.74
9638.00,0.75
9637.00,0.76
9636.00,0.77
9635.00,0.78
9634.00,0.78
9633.00,0.79
9632.00,0.80
9631.00,0.80
9630.00,0.81
9629.00,0.81
9628.00,0.82
9627.00,0.82
9626.00,0.83
9625.00,0.83
9624.00,0.83
9623.00,0.84
9622.00,0.84
9621.00,0.85
9620.00,0.85
9619.00,0.86
9618.00,0.86
9617.00,0.87
9616.00,0.87
9615.00,0.87
9614.00,0.87
9613.00,0.87
9612.00,0.87
9611.00,0.87
9610.00,0.87
9609.00,0.87
9608.00,0.87
9607.00,0.87
9606.00,0.87
9605.00,0.87
9604.00,0.87
9603.00,0.87
9602.00,0.86
9601.00,0.86
9600.00,0.86
9599.00,0.86
9598.00,0.85
9597.00,0.85
9596.00,0.84
9595.00,0.84
9594.00,0.83
9593.00,0.82
9592.00,0.82
9591.00,0.81
9590.00,0.80
9589.00,0.79
9588.00,0.78
9587.00,0.77
9586.00,0.77
9585.00,0.76
9584.00,0.75
9583.00,0.75
9582.00,0.74
9581.00,0.73
9580.00,0.73
9579.00,0.72
9578.00,0.72
9577.00,0.71
9576.00,0.71
9575.00,0.70
9574.00,0.70
9573.00,0.69
9572.00,0.69
9571.00,0.69
9570.00,0.68
9569.00,0.68
9568.00,0.68
9567.00,0.68
9566.00,0.68
9565.00,0.68
9564.00,0.68
9563.00,0.68
9562.00,0.68
9561.00,0.68
9560.00,0.68
9559.00,0.69
9558.00,0.69
9557.00,0.69
9556.00,0.69
9555.00,0.69
9554.00,0.69
9553.00,0.69
9552.00,0.69
9551.00,0.69
9550.00,0.69
9549.00,0.69
9548.00,0.69
9547.00,0.69
9546.00,0.69
9545.00,0.69
9544.00,0.69
9543.00,0.69
9542.00,0.69
9541.00,0.68
9540.00,0.68
9539.00,0.68
9538.00,0.68
9537.00,0.68
9536.00,0.68
9535.00,0.68
9534.00,0.67
9533.00,0.67
9532.00,0.67
9531.00,0.67
9530.00,0.67
9529.00,0.66
9528.00,0.66
9527.00,0.66
9526.00,0.65
9525.00,0.65
9524.00,0.65
9523.00,0.65
9522.00,0.64
9521.00,0.64
9520.00,0.64
9519.00,0.64
9518.00,0.64
9517.00,0.64
9516.00,0.64
9515.00,0.64
9514.00,0.64
9513.00,0.65
9512.00,0.65
9511.00,0.65
9510.00,0.65
9509.00,0.65
9508.00,0.65
9507.00,0.65
9506.00,0.65
9505.00,0.65
9504.00,0.65
9503.00,0.65
9502.00,0.65
9501.00,0.65
9500.00,0.66
9499.00,0.66
9498.00,0.66
9497.00,0.66
9496.00,0.66
9495.00,0.66
9494.00,0.66
9493.00,0.66
9492.00,0.66
9491.00,0.66
9490.00,0.66
9489.00,0.65
9488.00,0.65
9487.00,0.65
9486.00,0.65
9485.00,0.65
9484.00,0.65
9483.00,0.65
9482.00,0.65
9481.00,0.65
9480.00,0.65
9479.00,0.65
9478.00,0.65
9477.00,0.65
9476.00,0.65
9475.00,0.65
9474.00,0.65
9473.00,0.65
9472.00,0.66
9471.00,0.66
9470.00,0.66
9469.00,0.66
9468.00,0.66
9467.00,0.66
9466.00,0.66
9465.00,0.67
9464.00,0.67
9463.00,0.67
9462.00,0.67
9461.00,0.67
9460.00,0.67
9459.00,0.67
9458.00,0.67
9457.00,0.67
9456.00,0.66
9455.00,0.66
9454.00,0.66
9453.00,0.66
9452.00,0.66
9451.00,0.65
9450.00,0.65
9449.00,0.65
9448.00,0.65
9447.00,0.65
9446.00,0.64
9445.00,0.64
9444.00,0.64
9443.00,0.64
9442.00,0.64
9441.00,0.64
9440.00,0.64
9439.00,0.64
9438.00,0.64
9437.00,0.64
9436.00,0.65
9435.00,0.65
9434.00,0.65
9433.00,0.66
9432.00,0.66
9431.00,0.67
9430.00,0.67
9429.00,0.68
9428.00,0.68
9427.00,0.69
9426.00,0.70
9425.00,0.70
9424.00,0.71
9423.00,0.71
9422.00,0.72
9421.00,0.72
9420.00,0.73
9419.00,0.73
9418.00,0.74
9417.00,0.74
9416.00,0.74
9415.00,0.74
9414.00,0.74
9413.00,0.74
9412.00,0.74
9411.00,0.74
9410.00,0.74
9409.00,0.74
9408.00,0.74
9407.00,0.73
9406.00,0.73
9405.00,0.73
9404.00,0.72
9403.00,0.72
9402.00,0.71
9401.00,0.71
9400.00,0.71
9399.00,0.70
9398.00,0.70
9397.00,0.70
9396.00,0.70
9395.00,0.70
9394.00,0.69
9393.00,0.69
9392.00,0.69
9391.00,0.69
9390.00,0.69
9389.00,0.69
9388.00,0.69
9387.00,0.69
9386.00,0.69
9385.00,0.69
9384.00,0.69
9383.00,0.69
9382.00,0.69
9381.00,0.69
9380.00,0.69
9379.00,0.69
9378.00,0.69
9377.00,0.69
9376.00,0.69
9375.00,0.69
9374.00,0.68
9373.00,0.68
9372.00,0.68
9371.00,0.68
9370.00,0.67
9369.00,0.67
9368.00,0.66
9367.00,0.66
9366.00,0.66
9365.00,0.65
9364.00,0.65
9363.00,0.65
9362.00,0.64
9361.00,0.64
9360.00,0.64
9359.00,0.64
9358.00,0.64
9357.00,0.64
9356.00,0.64
9355.00,0.64
9354.00,0.64
9353.00,0.64
9352.00,0.64
9351.00,0.65
9350.00,0.65
9349.00,0.65
9348.00,0.65
9347.00,0.65
9346.00,0.65
9345.00,0.65
9344.00,0.65
9343.00,0.65
9342.00,0.65
9341.00,0.65
9340.00,0.65
9339.00,0.66
9338.00,0.66
9337.00,0.66
9336.00,0.66
9335.00,0.66
9334.00,0.66
9333.00,0.66
9332.00,0.66
9331.00,0.66
9330.00,0.65
9329.00,0.65
9328.00,0.65
9327.00,0.65
9326.00,0.64
9325.00,0.64
9324.00,0.64
9323.00,0.64
9322.00,0.64
9321.00,0.64
9320.00,0.64
9319.00,0.64
9318.00,0.64
9317.00,0.65
9316.00,0.65
9315.00,0.65
9314.00,0.65
9313.00,0.65
9312.00,0.66
9311.00,0.66
9310.00,0.66
9309.00,0.66
9308.00,0.67
9307.00,0.67
9306.00,0.67
9305.00,0.68
9304.00,0.68
9303.00,0.68
9302.00,0.68
9301.00,0.69
9300.00,0.69
9299.00,0.69
9298.00,0.69
9297.00,0.70
9296.00,0.70
9295.00,0.70
9294.00,0.70
9293.00,0.71
9292.00,0.71
9291.00,0.71
9290.00,0.71
9289.00,0.71
9288.00,0.71
9287.00,0.71
9286.00,0.71
9285.00,0.71
9284.00,0.70
9283.00,0.70
9282.00,0.70
9281.00,0.70
9280.00,0.70
9279.00,0.70
9278.00,0.70
9277.00,0.69
9276.00,0.69
9275.00,0.69
9274.00,0.69
9273.00,0.69
9272.00,0.69
9271.00,0.69
9270.00,0.69
9269.00,0.69
9268.00,0.69
9267.00,0.69
9266.00,0.69
9265.00,0.69
9264.00,0.69
9263.00,0.69
9262.00,0.69
9261.00,0.69
9260.00,0.69
9259.00,0.69
9258.00,0.70
9257.00,0.70
9256.00,0.70
9255.00,0.70
9254.00,0.70
9253.00,0.71
9252.00,0.71
9251.00,0.71
9250.00,0.71
9249.00,0.71
9248.00,0.71
9247.00,0.72
9246.00,0.72
9245.00,0.72
9244.00,0.72
9243.00,0.71
9242.00,0.71
9241.00,0.71
9240.00,0.71
9239.00,0.71
9238.00,0.71
9237.00,0.71
9236.00,0.70
9235.00,0.70
9234.00,0.70
9233.00,0.70
9232.00,0.70
9231.00,0.70
9230.00,0.70
9229.00,0.70
9228.00,0.69
9227.00,0.69
9226.00,0.69
9225.00,0.69
9224.00,0.69
9223.00,0.69
9222.00,0.70
9221.00,0.70
9220.00,0.70
9219.00,0.70
9218.00,0.71
9217.00,0.72
9216.00,0.72
9215.00,0.73
9214.00,0.74
9213.00,0.74
9212.00,0.75
9211.00,0.76
9210.00,0.76
9209.00,0.77
9208.00,0.78
9207.00,0.78
9206.00,0.79
9205.00,0.79
9204.00,0.80
9203.00,0.80
9202.00,0.80
9201.00,0.80
9200.00,0.80
9199.00,0.81
9198.00,0.81
9197.00,0.81
9196.00,0.80
9195.00,0.80
9194.00,0.80
9193.00,0.80
9192.00,0.79
9191.00,0.79
9190.00,0.78
9189.00,0.78
9188.00,0.77
9187.00,0.76
9186.00,0.75
9185.00,0.75
9184.00,0.74
9183.00,0.73
9182.00,0.72
9181.00,0.71
9180.00,0.71
9179.00,0.70
9178.00,0.69
9177.00,0.69
9176.00,0.68
9175.00,0.68
9174.00,0.68
9173.00,0.67
9172.00,0.67
9171.00,0.67
9170.00,0.67
9169.00,0.67
9168.00,0.67
9167.00,0.67
9166.00,0.67
9165.00,0.67
9164.00,0.67
9163.00,0.67
9162.00,0.67
9161.00,0.67
9160.00,0.68
9159.00,0.68
9158.00,0.68
9157.00,0.69
9156.00,0.69
9155.00,0.70
9154.00,0.70
9153.00,0.70
9152.00,0.71
9151.00,0.71
9150.00,0.71
9149.00,0.72
9148.00,0.72
9147.00,0.72
9146.00,0.72
9145.00,0.72
9144.00,0.73
9143.00,0.73
9142.00,0.73
9141.00,0.73
9140.00,0.73
9139.00,0.73
9138.00,0.73
9137.00,0.73
9136.00,0.73
9135.00,0.73
9134.00,0.73
9133.00,0.73
9132.00,0.73
9131.00,0.73
9130.00,0.73
9129.00,0.73
9128.00,0.73
9127.00,0.74
9126.00,0.74
9125.00,0.74
9124.00,0.74
9123.00,0.74
9122.00,0.75
9121.00,0.75
9120.00,0.75
9119.00,0.76
9118.00,0.76
9117.00,0.76
9116.00,0.77
9115.00,0.77
9114.00,0.77
9113.00,0.78
9112.00,0.78
9111.00,0.78
9110.00,0.78
9109.00,0.79
9108.00,0.79
9107.00,0.79
9106.00,0.79
9105.00,0.80
9104.00,0.80
9103.00,0.80
9102.00,0.80
9101.00,0.80
9100.00,0.80
9099.00,0.80
9098.00,0.80
9097.00,0.80
9096.00,0.80
9095.00,0.80
9094.00,0.80
9093.00,0.80
9092.00,0.80
9091.00,0.80
9090.00,0.79
9089.00,0.79
9088.00,0.79
9087.00,0.79
9086.00,0.79
9085.00,0.79
9084.00,0.78
9083.00,0.78
9082.00,0.78
9081.00,0.78
9080.00,0.78
9079.00,0.78
9078.00,0.78
9077.00,0.78
9076.00,0.78
9075.00,0.78
9074.00,0.78
9073.00,0.78
9072.00,0.78
9071.00,0.78
9070.00,0.78
9069.00,0.78
9068.00,0.78
9067.00,0.78
9066.00,0.78
9065.00,0.78
9064.00,0.78
9063.00,0.78
9062.00,0.79
9061.00,0.79
9060.00,0.79
9059.00,0.79
9058.00,0.79
9057.00,0.79
9056.00,0.79
9055.00,0.79
9054.00,0.79
9053.00,0.79
9052.00,0.79
9051.00,0.79
9050.00,0.78
9049.00,0.78
9048.00,0.78
9047.00,0.78
9046.00,0.78
9045.00,0.78
9044.00,0.78
9043.00,0.78
9042.00,0.77
9041.00,0.77
9040.00,0.77
9039.00,0.77
9038.00,0.77
9037.00,0.77
9036.00,0.77
9035.00,0.77
9034.00,0.77
9033.00,0.76
9032.00,0.76
9031.00,0.76
9030.00,0.76
9029.00,0.75
9028.00,0.75
9027.00,0.75
9026.00,0.75
9025.00,0.75
9024.00,0.75
9023.00,0.75
9022.00,0.74
9021.00,0.74
9020.00,0.74
9019.00,0.74
9018.00,0.74
9017.00,0.74
9016.00,0.73
9015.00,0.73
9014.00,0.73
9013.00,0.73
9012.00,0.73
9011.00,0.73
9010.00,0.73
9009.00,0.73
9008.00,0.73
9007.00,0.73
9006.00,0.73
9005.00,0.73
9004.00,0.73
9003.00,0.73
9002.00,0.73
9001.00,0.73
9000.00,0.73
8999.00,0.74
8998.00,0.74
8997.00,0.74
8996.00,0.74
8995.00,0.74
8994.00,0.74
8993.00,0.74
8992.00,0.74
8991.00,0.74
8990.00,0.74
8989.00,0.74
8988.00,0.74
8987.00,0.74
8986.00,0.73
8985.00,0.73
8984.00,0.73
8983.00,0.72
8982.00,0.72
8981.00,0.72
8980.00,0.71
8979.00,0.71
8978.00,0.71
8977.00,0.70
8976.00,0.70
8975.00,0.70
8974.00,0.69
8973.00,0.69
8972.00,0.69
8971.00,0.68
8970.00,0.68
8969.00,0.68
8968.00,0.67
8967.00,0.67
8966.00,0.67
8965.00,0.67
8964.00,0.67
8963.00,0.67
8962.00,0.67
8961.00,0.67
8960.00,0.67
8959.00,0.67
8958.00,0.67
8957.00,0.67
8956.00,0.68
8955.00,0.68
8954.00,0.68
8953.00,0.68
8952.00,0.69
8951.00,0.69
8950.00,0.69
8949.00,0.69
8948.00,0.69
8947.00,0.69
8946.00,0.70
8945.00,0.70
8944.00,0.70
8943.00,0.70
8942.00,0.70
8941.00,0.70
8940.00,0.70
8939.00,0.70
8938.00,0.70
8937.00,0.70
8936.00,0.70
8935.00,0.70
8934.00,0.70
8933.00,0.70
8932.00,0.70
8931.00,0.70
8930.00,0.70
8929.00,0.70
8928.00,0.69
8927.00,0.69
8926.00,0.69
8925.00,0.70
8924.00,0.70
8923.00,0.70
8922.00,0.70
8921.00,0.70
8920.00,0.70
8919.00,0.71
8918.00,0.71
8917.00,0.71
8916.00,0.71
8915.00,0.72
8914.00,0.72
8913.00,0.72
8912.00,0.73
8911.00,0.73
8910.00,0.73
8909.00,0.73
8908.00,0.74
8907.00,0.74
8906.00,0.74
8905.00,0.74
8904.00,0.75
8903.00,0.75
8902.00,0.75
8901.00,0.75
8900.00,0.76
8899.00,0.76
8898.00,0.76
8897.00,0.76
8896.00,0.76
8895.00,0.76
8894.00,0.77
8893.00,0.77
8892.00,0.77
8891.00,0.77
8890.00,0.77
8889.00,0.77
8888.00,0.77
8887.00,0.77
8886.00,0.77
8885.00,0.77
8884.00,0.77
8883.00,0.78
8882.00,0.78
8881.00,0.78
8880.00,0.78
8879.00,0.78
8878.00,0.78
8877.00,0.78
8876.00,0.78
8875.00,0.78
8874.00,0.78
8873.00,0.79
8872.00,0.79
8871.00,0.79
8870.00,0.79
8869.00,0.79
8868.00,0.79
8867.00,0.79
8866.00,0.79
8865.00,0.79
8864.00,0.80
8863.00,0.80
8862.00,0.80
8861.00,0.80
8860.00,0.80
8859.00,0.80
8858.00,0.80
8857.00,0.80
8856.00,0.80
8855.00,0.80
8854.00,0.80
8853.00,0.80
8852.00,0.80
8851.00,0.80
8850.00,0.80
8849.00,0.79
8848.00,0.79
8847.00,0.79
8846.00,0.79
8845.00,0.78
8844.00,0.78
8843.00,0.78
8842.00,0.78
8841.00,0.78
8840.00,0.78
8839.00,0.78
8838.00,0.77
8837.00,0.77
8836.00,0.77
8835.00,0.77
8834.00,0.77
8833.00,0.77
8832.00,0.77
8831.00,0.77
8830.00,0.77
8829.00,0.77
8828.00,0.77
8827.00,0.77
8826.00,0.77
8825.00,0.77
8824.00,0.77
8823.00,0.78
8822.00,0.78
8821.00,0.79
8820.00,0.79
8819.00,0.79
8818.00,0.80
8817.00,0.80
8816.00,0.81
8815.00,0.81
8814.00,0.81
8813.00,0.82
8812.00,0.82
8811.00,0.82
8810.00,0.83
8809.00,0.83
8808.00,0.83
8807.00,0.83
8806.00,0.84
8805.00,0.84
8804.00,0.84
8803.00,0.85
8802.00,0.85
8801.00,0.85
8800.00,0.85
8799.00,0.86
8798.00,0.86
8797.00,0.86
8796.00,0.86
8795.00,0.85
8794.00,0.85
8793.00,0.85
8792.00,0.85
8791.00,0.85
8790.00,0.85
8789.00,0.84
8788.00,0.84
8787.00,0.84
8786.00,0.84
8785.00,0.84
8784.00,0.84
8783.00,0.83
8782.00,0.83
8781.00,0.83
8780.00,0.83
8779.00,0.83
8778.00,0.82
8777.00,0.82
8776.00,0.82
8775.00,0.82
8774.00,0.82
8773.00,0.81
8772.00,0.81
8771.00,0.81
8770.00,0.81
8769.00,0.81
8768.00,0.81
8767.00,0.81
8766.00,0.81
8765.00,0.81
8764.00,0.82
8763.00,0.82
8762.00,0.82
8761.00,0.81
8760.00,0.81
8759.00,0.81
8758.00,0.81
8757.00,0.81
8756.00,0.81
8755.00,0.80
8754.00,0.80
8753.00,0.80
8752.00,0.79
8751.00,0.79
8750.00,0.79
8749.00,0.79
8748.00,0.78
8747.00,0.78
8746.00,0.78
8745.00,0.78
8744.00,0.78
8743.00,0.77
8742.00,0.77
8741.00,0.77
8740.00,0.77
8739.00,0.76
8738.00,0.76
8737.00,0.76
8736.00,0.76
8735.00,0.76
8734.00,0.76
8733.00,0.76
8732.00,0.76
8731.00,0.76
8730.00,0.76
8729.00,0.76
8728.00,0.77
8727.00,0.77
8726.00,0.77
8725.00,0.77
8724.00,0.77
8723.00,0.78
8722.00,0.78
8721.00,0.78
8720.00,0.78
8719.00,0.78
8718.00,0.78
8717.00,0.78
8716.00,0.78
8715.00,0.78
8714.00,0.77
8713.00,0.77
8712.00,0.77
8711.00,0.77
8710.00,0.77
8709.00,0.77
8708.00,0.76
8707.00,0.76
8706.00,0.76
8705.00,0.76
8704.00,0.76
8703.00,0.76
8702.00,0.76
8701.00,0.76
8700.00,0.76
8699.00,0.76
8698.00,0.76
8697.00,0.76
8696.00,0.76
8695.00,0.76
8694.00,0.76
8693.00,0.76
8692.00,0.76
8691.00,0.76
8690.00,0.76
8689.00,0.77
8688.00,0.77
8687.00,0.77
8686.00,0.78
8685.00,0.78
8684.00,0.78
8683.00,0.78
8682.00,0.79
8681.00,0.79
8680.00,0.79
8679.00,0.79
8678.00,0.79
8677.00,0.79
8676.00,0.79
8675.00,0.79
8674.00,0.79
8673.00,0.79
8672.00,0.79
8671.00,0.78
8670.00,0.78
8669.00,0.78
8668.00,0.78
8667.00,0.78
8666.00,0.77
8665.00,0.77
8664.00,0.77
8663.00,0.77
8662.00,0.76
8661.00,0.76
8660.00,0.76
8659.00,0.76
8658.00,0.76
8657.00,0.75
8656.00,0.75
8655.00,0.75
8654.00,0.75
8653.00,0.75
8652.00,0.74
8651.00,0.74
8650.00,0.74
8649.00,0.74
8648.00,0.74
8647.00,0.74
8646.00,0.74
8645.00,0.74
8644.00,0.73
8643.00,0.73
8642.00,0.73
8641.00,0.73
8640.00,0.73
8639.00,0.73
8638.00,0.72
8637.00,0.72
8636.00,0.72
8635.00,0.72
8634.00,0.72
8633.00,0.71
8632.00,0.71
8631.00,0.71
8630.00,0.71
8629.00,0.71
8628.00,0.71
8627.00,0.71
8626.00,0.71
8625.00,0.71
8624.00,0.71
8623.00,0.71
8622.00,0.71
8621.00,0.71
8620.00,0.71
8619.00,0.71
8618.00,0.72
8617.00,0.72
8616.00,0.72
8615.00,0.72
8614.00,0.73
8613.00,0.73
8612.00,0.73
8611.00,0.73
8610.00,0.74
8609.00,0.74
8608.00,0.74
8607.00,0.74
8606.00,0.74
8605.00,0.75
8604.00,0.75
8603.00,0.75
8602.00,0.75
8601.00,0.75
8600.00,0.75
8599.00,0.75
8598.00,0.76
8597.00,0.76
8596.00,0.76
8595.00,0.76
8594.00,0.76
8593.00,0.76
8592.00,0.76
8591.00,0.76
8590.00,0.76
8589.00,0.76
8588.00,0.76
8587.00,0.76
8586.00,0.76
8585.00,0.76
8584.00,0.76
8583.00,0.77
8582.00,0.77
8581.00,0.77
8580.00,0.77
8579.00,0.78
8578.00,0.78
8577.00,0.78
8576.00,0.78
8575.00,0.79
8574.00,0.79
8573.00,0.79
8572.00,0.80
8571.00,0.80
8570.00,0.80
8569.00,0.80
8568.00,0.80
8567.00,0.80
8566.00,0.80
8565.00,0.80
8564.00,0.80
8563.00,0.79
8562.00,0.79
8561.00,0.79
8560.00,0.79
8559.00,0.79
8558.00,0.78
8557.00,0.78
8556.00,0.78
8555.00,0.77
8554.00,0.77
8553.00,0.77
8552.00,0.76
8551.00,0.76
8550.00,0.75
8549.00,0.75
8548.00,0.74
8547.00,0.74
8546.00,0.73
8545.00,0.73
8544.00,0.72
8543.00,0.72
8542.00,0.72
8541.00,0.71
8540.00,0.71
8539.00,0.71
8538.00,0.71
8537.00,0.71
8536.00,0.71
8535.00,0.71
8534.00,0.71
8533.00,0.71
8532.00,0.71
8531.00,0.71
8530.00,0.71
8529.00,0.70
8528.00,0.70
8527.00,0.70
8526.00,0.70
8525.00,0.70
8524.00,0.70
8523.00,0.70
8522.00,0.70
8521.00,0.70
8520.00,0.70
8519.00,0.70
8518.00,0.70
8517.00,0.70
8516.00,0.70
8515.00,0.70
8514.00,0.70
8513.00,0.70
8512.00,0.70
8511.00,0.70
8510.00,0.70
8509.00,0.70
8508.00,0.70
8507.00,0.70
8506.00,0.70
8505.00,0.70
8504.00,0.70
8503.00,0.70
8502.00,0.70
8501.00,0.70
8500.00,0.70
8499.00,0.70
8498.00,0.70
8497.00,0.71
8496.00,0.71
8495.00,0.71
8494.00,0.71
8493.00,0.71
8492.00,0.71
8491.00,0.72
8490.00,0.72
8489.00,0.72
8488.00,0.72
8487.00,0.73
8486.00,0.73
8485.00,0.73
8484.00,0.74
8483.00,0.74
8482.00,0.74
8481.00,0.75
8480.00,0.75
8479.00,0.75
8478.00,0.75
8477.00,0.76
8476.00,0.76
8475.00,0.76
8474.00,0.76
8473.00,0.77
8472.00,0.77
8471.00,0.77
8470.00,0.77
8469.00,0.77
8468.00,0.77
8467.00,0.77
8466.00,0.77
8465.00,0.76
8464.00,0.76
8463.00,0.76
8462.00,0.75
8461.00,0.75
8460.00,0.74
8459.00,0.74
8458.00,0.74
8457.00,0.73
8456.00,0.73
8455.00,0.73
8454.00,0.72
8453.00,0.72
8452.00,0.72
8451.00,0.71
8450.00,0.71
8449.00,0.71
8448.00,0.70
8447.00,0.70
8446.00,0.70
8445.00,0.70
8444.00,0.70
8443.00,0.70
8442.00,0.70
8441.00,0.70
8440.00,0.70
8439.00,0.70
8438.00,0.71
8437.00,0.71
8436.00,0.72
8435.00,0.72
8434.00,0.72
8433.00,0.73
8432.00,0.73
8431.00,0.73
8430.00,0.73
8429.00,0.74
8428.00,0.74
8427.00,0.74
8426.00,0.74
8425.00,0.74
8424.00,0.74
8423.00,0.74
8422.00,0.74
8421.00,0.74
8420.00,0.75
8419.00,0.75
8418.00,0.75
8417.00,0.75
8416.00,0.75
8415.00,0.75
8414.00,0.76
8413.00,0.76
8412.00,0.76
8411.00,0.76
8410.00,0.76
8409.00,0.76
8408.00,0.76
8407.00,0.76
8406.00,0.76
8405.00,0.76
8404.00,0.77
8403.00,0.77
8402.00,0.77
8401.00,0.77
8400.00,0.77
8399.00,0.78
8398.00,0.78
8397.00,0.78
8396.00,0.78
8395.00,0.78
8394.00,0.78
8393.00,0.78
8392.00,0.78
8391.00,0.78
8390.00,0.78
8389.00,0.78
8388.00,0.78
8387.00,0.77
8386.00,0.77
8385.00,0.77
8384.00,0.76
8383.00,0.76
8382.00,0.75
8381.00,0.75
8380.00,0.75
8379.00,0.74
8378.00,0.74
8377.00,0.74
8376.00,0.73
8375.00,0.73
8374.00,0.73
8373.00,0.72
8372.00,0.72
8371.00,0.72
8370.00,0.71
8369.00,0.71
8368.00,0.71
8367.00,0.71
8366.00,0.71
8365.00,0.70
8364.00,0.70
8363.00,0.70
8362.00,0.70
8361.00,0.70
8360.00,0.70
8359.00,0.70
8358.00,0.71
8357.00,0.71
8356.00,0.71
8355.00,0.71
8354.00,0.71
8353.00,0.71
8352.00,0.72
8351.00,0.72
8350.00,0.72
8349.00,0.72
8348.00,0.73
8347.00,0.73
8346.00,0.73
8345.00,0.73
8344.00,0.74
8343.00,0.74
8342.00,0.74
8341.00,0.74
8340.00,0.74
8339.00,0.75
8338.00,0.75
8337.00,0.75
8336.00,0.75
8335.00,0.75
8334.00,0.75
8333.00,0.75
8332.00,0.75
8331.00,0.76
8330.00,0.76
8329.00,0.76
8328.00,0.76
8327.00,0.76
8326.00,0.76
8325.00,0.76
8324.00,0.76
8323.00,0.76
8322.00,0.75
8321.00,0.75
8320.00,0.75
8319.00,0.75
8318.00,0.75
8317.00,0.75
8316.00,0.75
8315.00,0.75
8314.00,0.75
8313.00,0.75
8312.00,0.75
8311.00,0.75
8310.00,0.75
8309.00,0.75
8308.00,0.75
8307.00,0.75
8306.00,0.75
8305.00,0.75
8304.00,0.75
8303.00,0.75
8302.00,0.75
8301.00,0.75
8300.00,0.75
8299.00,0.75
8298.00,0.75
8297.00,0.75
8296.00,0.75
8295.00,0.75
8294.00,0.76
8293.00,0.76
8292.00,0.76
8291.00,0.76
8290.00,0.76
8289.00,0.77
8288.00,0.77
8287.00,0.77
8286.00,0.77
8285.00,0.77
8284.00,0.77
8283.00,0.77
8282.00,0.77
8281.00,0.77
8280.00,0.78
8279.00,0.78
8278.00,0.78
8277.00,0.78
8276.00,0.78
8275.00,0.78
8274.00,0.78
8273.00,0.78
8272.00,0.78
8271.00,0.78
8270.00,0.78
8269.00,0.78
8268.00,0.78
8267.00,0.78
8266.00,0.78
8265.00,0.78
8264.00,0.78
8263.00,0.78
8262.00,0.78
8261.00,0.77
8260.00,0.77
8259.00,0.77
8258.00,0.77
8257.00,0.77
8256.00,0.77
8255.00,0.77
8254.00,0.77
8253.00,0.77
8252.00,0.76
8251.00,0.76
8250.00,0.76
8249.00,0.76
8248.00,0.76
8247.00,0.76
8246.00,0.75
8245.00,0.75
8244.00,0.75
8243.00,0.75
8242.00,0.75
8241.00,0.74
8240.00,0.74
8239.00,0.74
8238.00,0.74
8237.00,0.74
8236.00,0.73
8235.00,0.73
8234.00,0.73
8233.00,0.73
8232.00,0.73
8231.00,0.72
8230.00,0.72
8229.00,0.72
8228.00,0.72
8227.00,0.72
8226.00,0.72
8225.00,0.72
8224.00,0.72
8223.00,0.72
8222.00,0.73
8221.00,0.73
8220.00,0.73
8219.00,0.73
8218.00,0.74
8217.00,0.74
8216.00,0.74
8215.00,0.75
8214.00,0.75
8213.00,0.75
8212.00,0.76
8211.00,0.76
8210.00,0.77
8209.00,0.77
8208.00,0.78
8207.00,0.78
8206.00,0.79
8205.00,0.79
8204.00,0.79
8203.00,0.80
8202.00,0.80
8201.00,0.81
8200.00,0.81
8199.00,0.82
8198.00,0.82
8197.00,0.82
8196.00,0.82
8195.00,0.83
8194.00,0.83
8193.00,0.83
8192.00,0.84
8191.00,0.84
8190.00,0.84
8189.00,0.84
8188.00,0.84
8187.00,0.84
8186.00,0.84
8185.00,0.84
8184.00,0.84
8183.00,0.84
8182.00,0.84
8181.00,0.84
8180.00,0.84
8179.00,0.84
8178.00,0.83
8177.00,0.83
8176.00,0.83
8175.00,0.83
8174.00,0.83
8173.00,0.82
8172.00,0.82
8171.00,0.82
8170.00,0.82
8169.00,0.82
8168.00,0.82
8167.00,0.82
8166.00,0.82
8165.00,0.82
8164.00,0.82
8163.00,0.82
8162.00,0.82
8161.00,0.82
8160.00,0.82
8159.00,0.82
8158.00,0.82
8157.00,0.82
8156.00,0.82
8155.00,0.82
8154.00,0.83
8153.00,0.83
8152.00,0.83
8151.00,0.83
8150.00,0.84
8149.00,0.84
8148.00,0.84
8147.00,0.84
8146.00,0.84
8145.00,0.84
8144.00,0.84
8143.00,0.84
8142.00,0.84
8141.00,0.83
8140.00,0.83
8139.00,0.83
8138.00,0.83
8137.00,0.83
8136.00,0.82
8135.00,0.82
8134.00,0.82
8133.00,0.82
8132.00,0.82
8131.00,0.81
8130.00,0.81
8129.00,0.81
8128.00,0.81
8127.00,0.81
8126.00,0.80
8125.00,0.80
8124.00,0.80
8123.00,0.80
8122.00,0.80
8121.00,0.80
8120.00,0.80
8119.00,0.80
8118.00,0.80
8117.00,0.81
8116.00,0.81
8115.00,0.81
8114.00,0.81
8113.00,0.81
8112.00,0.82
8111.00,0.82
8110.00,0.82
8109.00,0.82
8108.00,0.82
8107.00,0.82
8106.00,0.82
8105.00,0.82
8104.00,0.82
8103.00,0.82
8102.00,0.82
8101.00,0.82
8100.00,0.82
8099.00,0.81
8098.00,0.81
8097.00,0.81
8096.00,0.81
8095.00,0.81
8094.00,0.81
8093.00,0.81
8092.00,0.80
8091.00,0.80
8090.00,0.80
8089.00,0.80
8088.00,0.80
8087.00,0.80
8086.00,0.80
8085.00,0.80
8084.00,0.80
8083.00,0.80
8082.00,0.80
8081.00,0.80
8080.00,0.80
8079.00,0.80
8078.00,0.80
8077.00,0.80
8076.00,0.80
8075.00,0.80
8074.00,0.81
8073.00,0.81
8072.00,0.81
8071.00,0.81
8070.00,0.81
8069.00,0.81
8068.00,0.82
8067.00,0.82
8066.00,0.82
8065.00,0.82
8064.00,0.82
8063.00,0.82
8062.00,0.82
8061.00,0.83
8060.00,0.83
8059.00,0.83
8058.00,0.83
8057.00,0.83
8056.00,0.83
8055.00,0.83
8054.00,0.83
8053.00,0.83
8052.00,0.83
8051.00,0.84
8050.00,0.84
8049.00,0.84
8048.00,0.84
8047.00,0.84
8046.00,0.84
8045.00,0.84
8044.00,0.84
8043.00,0.85
8042.00,0.85
8041.00,0.85
8040.00,0.85
8039.00,0.85
8038.00,0.85
8037.00,0.85
8036.00,0.85
8035.00,0.85
8034.00,0.85
8033.00,0.85
8032.00,0.85
8031.00,0.86
8030.00,0.86
8029.00,0.86
8028.00,0.86
8027.00,0.86
8026.00,0.86
8025.00,0.86
8024.00,0.86
8023.00,0.86
8022.00,0.86
8021.00,0.86
8020.00,0.86
8019.00,0.85
8018.00,0.85
8017.00,0.85
8016.00,0.85
8015.00,0.85
8014.00,0.85
8013.00,0.85
8012.00,0.84
8011.00,0.84
8010.00,0.84
8009.00,0.84
8008.00,0.84
8007.00,0.84
8006.00,0.83
8005.00,0.83
8004.00,0.83
8003.00,0.83
8002.00,0.82
8001.00,0.82
8000.00,0.82
7999.00,0.82
7998.00,0.82
7997.00,0.81
7996.00,0.81
7995.00,0.81
7994.00,0.81
7993.00,0.81
7992.00,0.81
7991.00,0.81
7990.00,0.81
7989.00,0.81
7988.00,0.81
7987.00,0.81
7986.00,0.81
7985.00,0.81
7984.00,0.81
7983.00,0.81
7982.00,0.81
7981.00,0.82
7980.00,0.82
7979.00,0.82
7978.00,0.82
7977.00,0.82
7976.00,0.82
7975.00,0.82
7974.00,0.82
7973.00,0.83
7972.00,0.83
7971.00,0.83
7970.00,0.83
7969.00,0.83
7968.00,0.83
7967.00,0.83
7966.00,0.83
7965.00,0.83
7964.00,0.83
7963.00,0.83
7962.00,0.83
7961.00,0.83
7960.00,0.83
7959.00,0.83
7958.00,0.83
7957.00,0.83
7956.00,0.83
7955.00,0.83
7954.00,0.83
7953.00,0.83
7952.00,0.83
7951.00,0.83
7950.00,0.83
7949.00,0.83
7948.00,0.83
7947.00,0.83
7946.00,0.83
7945.00,0.83
7944.00,0.83
7943.00,0.83
7942.00,0.83
7941.00,0.84
7940.00,0.84
7939.00,0.84
7938.00,0.84
7937.00,0.84
7936.00,0.84
7935.00,0.84
7934.00,0.85
7933.00,0.85
7932.00,0.85
7931.00,0.85
7930.00,0.85
7929.00,0.85
7928.00,0.85
7927.00,0.85
7926.00,0.86
7925.00,0.86
7924.00,0.86
7923.00,0.86
7922.00,0.86
7921.00,0.86
7920.00,0.86
7919.00,0.86
7918.00,0.86
7917.00,0.86
7916.00,0.86
7915.00,0.86
7914.00,0.85
7913.00,0.85
7912.00,0.85
7911.00,0.85
7910.00,0.85
7909.00,0.85
7908.00,0.85
7907.00,0.85
7906.00,0.85
7905.00,0.85
7904.00,0.84
7903.00,0.84
7902.00,0.84
7901.00,0.84
7900.00,0.84
7899.00,0.84
7898.00,0.84
7897.00,0.84
7896.00,0.83
7895.00,0.83
7894.00,0.83
7893.00,0.83
7892.00,0.83
7891.00,0.83
7890.00,0.83
7889.00,0.83
7888.00,0.82
7887.00,0.82
7886.00,0.82
7885.00,0.82
7884.00,0.82
7883.00,0.82
7882.00,0.82
7881.00,0.82
7880.00,0.82
7879.00,0.82
7878.00,0.82
7877.00,0.82
7876.00,0.82
7875.00,0.82
7874.00,0.82
7873.00,0.82
7872.00,0.82
7871.00,0.82
7870.00,0.82
7869.00,0.82
7868.00,0.82
7867.00,0.82
7866.00,0.82
7865.00,0.82
7864.00,0.83
7863.00,0.83
7862.00,0.83
7861.00,0.83
7860.00,0.83
7859.00,0.83
7858.00,0.83
7857.00,0.83
7856.00,0.83
7855.00,0.83
7854.00,0.83
7853.00,0.83
7852.00,0.83
7851.00,0.83
7850.00,0.83
7849.00,0.83
7848.00,0.83
7847.00,0.83
7846.00,0.83
7845.00,0.83
7844.00,0.83
7843.00,0.83
7842.00,0.83
7841.00,0.83
7840.00,0.83
7839.00,0.83
7838.00,0.83
7837.00,0.83
7836.00,0.84
7835.00,0.84
7834.00,0.84
7833.00,0.84
7832.00,0.84
7831.00,0.85
7830.00,0.85
7829.00,0.85
7828.00,0.85
7827.00,0.85
7826.00,0.86
7825.00,0.86
7824.00,0.86
7823.00,0.86
7822.00,0.86
7821.00,0.87
7820.00,0.87
7819.00,0.87
7818.00,0.87
7817.00,0.87
7816.00,0.87
7815.00,0.87
7814.00,0.87
7813.00,0.87
7812.00,0.87
7811.00,0.87
7810.00,0.87
7809.00,0.87
7808.00,0.86
7807.00,0.86
7806.00,0.86
7805.00,0.86
7804.00,0.86
7803.00,0.86
7802.00,0.86
7801.00,0.86
7800.00,0.86
7799.00,0.86
7798.00,0.86
7797.00,0.86
7796.00,0.86
7795.00,0.86
7794.00,0.86
7793.00,0.86
7792.00,0.86
7791.00,0.87
7790.00,0.87
7789.00,0.87
7788.00,0.87
7787.00,0.87
7786.00,0.88
7785.00,0.88
7784.00,0.88
7783.00,0.88
7782.00,0.89
7781.00,0.89
7780.00,0.89
7779.00,0.89
7778.00,0.89
7777.00,0.89
7776.00,0.89
7775.00,0.89
7774.00,0.89
7773.00,0.89
7772.00,0.89
7771.00,0.89
7770.00,0.88
7769.00,0.88
7768.00,0.88
7767.00,0.88
7766.00,0.88
7765.00,0.88
7764.00,0.88
7763.00,0.87
7762.00,0.87
7761.00,0.87
7760.00,0.87
7759.00,0.87
7758.00,0.87
7757.00,0.86
7756.00,0.86
7755.00,0.86
7754.00,0.86
7753.00,0.86
7752.00,0.86
7751.00,0.86
7750.00,0.86
7749.00,0.86
7748.00,0.86
7747.00,0.87
7746.00,0.87
7745.00,0.87
7744.00,0.87
7743.00,0.87
7742.00,0.87
7741.00,0.87
7740.00,0.87
7739.00,0.88
7738.00,0.88
7737.00,0.88
7736.00,0.88
7735.00,0.88
7734.00,0.88
7733.00,0.88
7732.00,0.88
7731.00,0.88
7730.00,0.89
7729.00,0.89
7728.00,0.89
7727.00,0.89
7726.00,0.89
7725.00,0.89
7724.00,0.89
7723.00,0.89
7722.00,0.89
7721.00,0.89
7720.00,0.89
7719.00,0.89
7718.00,0.89
7717.00,0.89
7716.00,0.89
7715.00,0.89
7714.00,0.89
7713.00,0.89
7712.00,0.90
7711.00,0.90
7710.00,0.90
7709.00,0.90
7708.00,0.90
7707.00,0.90
7706.00,0.90
7705.00,0.90
7704.00,0.90
7703.00,0.90
7702.00,0.90
7701.00,0.90
7700.00,0.90
7699.00,0.90
7698.00,0.90
7697.00,0.90
7696.00,0.90
7695.00,0.90
7694.00,0.90
7693.00,0.90
7692.00,0.90
7691.00,0.90
7690.00,0.90
7689.00,0.90
7688.00,0.90
7687.00,0.90
7686.00,0.90
7685.00,0.90
7684.00,0.90
7683.00,0.90
7682.00,0.90
7681.00,0.90
7680.00,0.90
7679.00,0.90
7678.00,0.90
7677.00,0.90
7676.00,0.90
7675.00,0.90
7674.00,0.90
7673.00,0.90
7672.00,0.90
7671.00,0.90
7670.00,0.90
7669.00,0.90
7668.00,0.89
7667.00,0.89
7666.00,0.89
7665.00,0.89
7664.00,0.89
7663.00,0.89
7662.00,0.89
7661.00,0.89
7660.00,0.89
7659.00,0.89
7658.00,0.89
7657.00,0.89
7656.00,0.88
7655.00,0.88
7654.00,0.88
7653.00,0.88
7652.00,0.88
7651.00,0.88
7650.00,0.88
7649.00,0.88
7648.00,0.88
7647.00,0.88
7646.00,0.87
7645.00,0.87
7644.00,0.87
7643.00,0.87
7642.00,0.87
7641.00,0.87
7640.00,0.87
7639.00,0.87
7638.00,0.87
7637.00,0.87
7636.00,0.87
7635.00,0.87
7634.00,0.87
7633.00,0.87
7632.00,0.87
7631.00,0.87
7630.00,0.87
7629.00,0.87
7628.00,0.87
7627.00,0.87
7626.00,0.87
7625.00,0.88
7624.00,0.88
7623.00,0.88
7622.00,0.88
7621.00,0.88
7620.00,0.88
7619.00,0.88
7618.00,0.89
7617.00,0.89
7616.00,0.89
7615.00,0.89
7614.00,0.89
7613.00,0.89
7612.00,0.89
7611.00,0.89
7610.00,0.89
7609.00,0.89
7608.00,0.89
7607.00,0.89
7606.00,0.89
7605.00,0.89
7604.00,0.89
7603.00,0.89
7602.00,0.89
7601.00,0.89
7600.00,0.89
7599.00,0.89
7598.00,0.88
7597.00,0.88
7596.00,0.88
7595.00,0.88
7594.00,0.88
7593.00,0.88
7592.00,0.87
7591.00,0.87
7590.00,0.87
7589.00,0.87
7588.00,0.87
7587.00,0.87
7586.00,0.87
7585.00,0.87
7584.00,0.86
7583.00,0.86
7582.00,0.86
7581.00,0.86
7580.00,0.86
7579.00,0.86
7578.00,0.86
7577.00,0.86
7576.00,0.86
7575.00,0.86
7574.00,0.86
7573.00,0.86
7572.00,0.86
7571.00,0.86
7570.00,0.86
7569.00,0.86
7568.00,0.86
7567.00,0.86
7566.00,0.86
7565.00,0.86
7564.00,0.86
7563.00,0.86
7562.00,0.86
7561.00,0.86
7560.00,0.85
7559.00,0.85
7558.00,0.85
7557.00,0.85
7556.00,0.85
7555.00,0.85
7554.00,0.85
7553.00,0.85
7552.00,0.85
7551.00,0.85
7550.00,0.85
7549.00,0.85
7548.00,0.85
7547.00,0.85
7546.00,0.85
7545.00,0.85
7544.00,0.85
7543.00,0.85
7542.00,0.85
7541.00,0.85
7540.00,0.85
7539.00,0.85
7538.00,0.85
7537.00,0.85
7536.00,0.84
7535.00,0.84
7534.00,0.84
7533.00,0.84
7532.00,0.84
7531.00,0.84
7530.00,0.85
7529.00,0.85
7528.00,0.85
7527.00,0.85
7526.00,0.85
7525.00,0.85
7524.00,0.85
7523.00,0.85
7522.00,0.85
7521.00,0.86
7520.00,0.86
7519.00,0.86
7518.00,0.86
7517.00,0.86
7516.00,0.86
7515.00,0.86
7514.00,0.86
7513.00,0.86
7512.00,0.86
7511.00,0.87
7510.00,0.87
7509.00,0.87
7508.00,0.87
7507.00,0.87
7506.00,0.87
7505.00,0.87
7504.00,0.87
7503.00,0.87
7502.00,0.87
7501.00,0.87
7500.00,0.87
7499.00,0.87
7498.00,0.87
7497.00,0.87
7496.00,0.86
7495.00,0.86
7494.00,0.86
7493.00,0.86
7492.00,0.86
7491.00,0.85
7490.00,0.85
7489.00,0.85
7488.00,0.85
7487.00,0.85
7486.00,0.84
7485.00,0.84
7484.00,0.84
7483.00,0.84
7482.00,0.84
7481.00,0.84
7480.00,0.84
7479.00,0.84
7478.00,0.84
7477.00,0.84
7476.00,0.84
7475.00,0.84
7474.00,0.84
7473.00,0.84
7472.00,0.84
7471.00,0.84
7470.00,0.84
7469.00,0.84
7468.00,0.84
7467.00,0.85
7466.00,0.85
7465.00,0.85
7464.00,0.85
7463.00,0.86
7462.00,0.86
7461.00,0.86
7460.00,0.86
7459.00,0.86
7458.00,0.86
7457.00,0.86
7456.00,0.86
7455.00,0.86
7454.00,0.87
7453.00,0.87
7452.00,0.87
7451.00,0.87
7450.00,0.87
7449.00,0.87
7448.00,0.87
7447.00,0.87
7446.00,0.87
7445.00,0.87
7444.00,0.87
7443.00,0.87
7442.00,0.87
7441.00,0.87
7440.00,0.87
7439.00,0.87
7438.00,0.87
7437.00,0.87
7436.00,0.87
7435.00,0.86
7434.00,0.86
7433.00,0.86
7432.00,0.86
7431.00,0.86
7430.00,0.86
7429.00,0.86
7428.00,0.86
7427.00,0.86
7426.00,0.86
7425.00,0.86
7424.00,0.85
7423.00,0.85
7422.00,0.85
7421.00,0.85
7420.00,0.85
7419.00,0.85
7418.00,0.84
7417.00,0.84
7416.00,0.84
7415.00,0.84
7414.00,0.84
7413.00,0.84
7412.00,0.84
7411.00,0.83
7410.00,0.83
7409.00,0.83
7408.00,0.83
7407.00,0.83
7406.00,0.84
7405.00,0.84
7404.00,0.84
7403.00,0.84
7402.00,0.84
7401.00,0.84
7400.00,0.84
7399.00,0.84
7398.00,0.84
7397.00,0.84
7396.00,0.84
7395.00,0.84
7394.00,0.84
7393.00,0.84
7392.00,0.84
7391.00,0.84
7390.00,0.84
7389.00,0.84
7388.00,0.84
7387.00,0.84
7386.00,0.84
7385.00,0.83
7384.00,0.83
7383.00,0.83
7382.00,0.83
7381.00,0.83
7380.00,0.83
7379.00,0.83
7378.00,0.82
7377.00,0.82
7376.00,0.82
7375.00,0.82
7374.00,0.82
7373.00,0.82
7372.00,0.82
7371.00,0.82
7370.00,0.82
7369.00,0.83
7368.00,0.83
7367.00,0.83
7366.00,0.83
7365.00,0.83
7364.00,0.83
7363.00,0.84
7362.00,0.84
7361.00,0.84
7360.00,0.85
7359.00,0.85
7358.00,0.85
7357.00,0.86
7356.00,0.86
7355.00,0.86
7354.00,0.87
7353.00,0.87
7352.00,0.87
7351.00,0.87
7350.00,0.88
7349.00,0.88
7348.00,0.88
7347.00,0.88
7346.00,0.88
7345.00,0.88
7344.00,0.88
7343.00,0.88
7342.00,0.88
7341.00,0.88
7340.00,0.88
7339.00,0.88
7338.00,0.88
7337.00,0.88
7336.00,0.88
7335.00,0.87
7334.00,0.87
7333.00,0.87
7332.00,0.87
7331.00,0.87
7330.00,0.87
7329.00,0.87
7328.00,0.87
7327.00,0.86
7326.00,0.86
7325.00,0.86
7324.00,0.86
7323.00,0.86
7322.00,0.86
7321.00,0.86
7320.00,0.86
7319.00,0.86
7318.00,0.86
7317.00,0.86
7316.00,0.86
7315.00,0.86
7314.00,0.86
7313.00,0.86
7312.00,0.86
7311.00,0.86
7310.00,0.86
7309.00,0.86
7308.00,0.86
7307.00,0.86
7306.00,0.86
7305.00,0.85
7304.00,0.85
7303.00,0.85
7302.00,0.85
7301.00,0.85
7300.00,0.85
7299.00,0.85
7298.00,0.85
7297.00,0.85
7296.00,0.84
7295.00,0.84
7294.00,0.84
7293.00,0.84
7292.00,0.84
7291.00,0.83
7290.00,0.83
7289.00,0.83
7288.00,0.82
7287.00,0.82
7286.00,0.82
7285.00,0.81
7284.00,0.81
7283.00,0.81
7282.00,0.81
7281.00,0.81
7280.00,0.80
7279.00,0.80
7278.00,0.80
7277.00,0.80
7276.00,0.80
7275.00,0.80
7274.00,0.80
7273.00,0.80
7272.00,0.80
7271.00,0.80
7270.00,0.80
7269.00,0.80
7268.00,0.80
7267.00,0.80
7266.00,0.80
7265.00,0.80
7264.00,0.81
7263.00,0.81
7262.00,0.81
7261.00,0.81
7260.00,0.81
7259.00,0.81
7258.00,0.81
7257.00,0.82
7256.00,0.82
7255.00,0.82
7254.00,0.82
7253.00,0.82
7252.00,0.82
7251.00,0.82
7250.00,0.81
7249.00,0.81
7248.00,0.81
7247.00,0.81
7246.00,0.80
7245.00,0.80
7244.00,0.80
7243.00,0.79
7242.00,0.79
7241.00,0.78
7240.00,0.78
7239.00,0.77
7238.00,0.77
7237.00,0.77
7236.00,0.76
7235.00,0.75
7234.00,0.75
7233.00,0.74
7232.00,0.74
7231.00,0.73
7230.00,0.73
7229.00,0.72
7228.00,0.72
7227.00,0.71
7226.00,0.71
7225.00,0.70
7224.00,0.70
7223.00,0.70
7222.00,0.70
7221.00,0.69
7220.00,0.69
7219.00,0.69
7218.00,0.69
7217.00,0.69
7216.00,0.69
7215.00,0.69
7214.00,0.69
7213.00,0.69
7212.00,0.69
7211.00,0.69
7210.00,0.69
7209.00,0.69
7208.00,0.69
7207.00,0.69
7206.00,0.69
7205.00,0.69
7204.00,0.69
7203.00,0.69
7202.00,0.69
7201.00,0.69
7200.00,0.69
7199.00,0.69
7198.00,0.69
7197.00,0.69
7196.00,0.68
7195.00,0.68
7194.00,0.68
7193.00,0.68
7192.00,0.68
7191.00,0.68
7190.00,0.67
7189.00,0.67
7188.00,0.67
7187.00,0.67
7186.00,0.67
7185.00,0.67
7184.00,0.67
7183.00,0.66
7182.00,0.66
7181.00,0.66
7180.00,0.66
7179.00,0.66
7178.00,0.66
7177.00,0.65
7176.00,0.65
7175.00,0.65
7174.00,0.65
7173.00,0.65
7172.00,0.65
7171.00,0.65
7170.00,0.65
7169.00,0.65
7168.00,0.65
7167.00,0.65
7166.00,0.65
7165.00,0.65
7164.00,0.65
7163.00,0.65
7162.00,0.65
7161.00,0.65
7160.00,0.65
7159.00,0.65
7158.00,0.65
7157.00,0.64
7156.00,0.64
7155.00,0.64
7154.00,0.64
7153.00,0.64
7152.00,0.64
7151.00,0.63
7150.00,0.63
7149.00,0.63
7148.00,0.63
7147.00,0.63
7146.00,0.63
7145.00,0.62
7144.00,0.62
7143.00,0.62
7142.00,0.62
7141.00,0.61
7140.00,0.61
7139.00,0.61
7138.00,0.60
7137.00,0.60
7136.00,0.60
7135.00,0.59
7134.00,0.59
7133.00,0.58
7132.00,0.58
7131.00,0.58
7130.00,0.57
7129.00,0.57
7128.00,0.56
7127.00,0.56
7126.00,0.56
7125.00,0.55
7124.00,0.55
7123.00,0.54
7122.00,0.54
7121.00,0.53
7120.00,0.53
7119.00,0.53
7118.00,0.52
7117.00,0.52
7116.00,0.51
7115.00,0.51
7114.00,0.50
7113.00,0.50
7112.00,0.50
7111.00,0.49
7110.00,0.49
7109.00,0.49
7108.00,0.48
7107.00,0.48
7106.00,0.48
7105.00,0.48
7104.00,0.48
7103.00,0.47
7102.00,0.47
7101.00,0.47
7100.00,0.47
7099.00,0.47
7098.00,0.47
7097.00,0.47
7096.00,0.47
7095.00,0.47
7094.00,0.47
7093.00,0.47
7092.00,0.47
7091.00,0.47
7090.00,0.47
7089.00,0.47
7088.00,0.46
7087.00,0.46
7086.00,0.46
7085.00,0.46
7084.00,0.46
7083.00,0.46
7082.00,0.46
7081.00,0.46
7080.00,0.46
7079.00,0.46
7078.00,0.46
7077.00,0.46
7076.00,0.45
7075.00,0.45
7074.00,0.45
7073.00,0.45
7072.00,0.45
7071.00,0.45
7070.00,0.45
7069.00,0.45
7068.00,0.45
7067.00,0.45
7066.00,0.45
7065.00,0.45
7064.00,0.45
7063.00,0.45
7062.00,0.45
7061.00,0.45
7060.00,0.45
7059.00,0.45
7058.00,0.45
7057.00,0.45
7056.00,0.45
7055.00,0.45
7054.00,0.45
7053.00,0.46
7052.00,0.46
7051.00,0.46
7050.00,0.46
7049.00,0.46
7048.00,0.46
7047.00,0.46
7046.00,0.46
7045.00,0.47
7044.00,0.47
7043.00,0.47
7042.00,0.47
7041.00,0.47
7040.00,0.47
7039.00,0.47
7038.00,0.47
7037.00,0.47
7036.00,0.46
7035.00,0.46
7034.00,0.46
7033.00,0.46
7032.00,0.46
7031.00,0.46
7030.00,0.46
7029.00,0.46
7028.00,0.46
7027.00,0.46
7026.00,0.46
7025.00,0.46
7024.00,0.45
7023.00,0.45
7022.00,0.45
7021.00,0.45
7020.00,0.45
7019.00,0.44
7018.00,0.44
7017.00,0.44
7016.00,0.44
7015.00,0.44
7014.00,0.43
7013.00,0.43
7012.00,0.43
7011.00,0.43
7010.00,0.43
7009.00,0.43
7008.00,0.42
7007.00,0.42
7006.00,0.42
7005.00,0.42
7004.00,0.42
7003.00,0.41
7002.00,0.41
7001.00,0.41
7000.00,0.41
6999.00,0.41
6998.00,0.40
6997.00,0.40
6996.00,0.40
6995.00,0.40
6994.00,0.40
6993.00,0.40
6992.00,0.40
6991.00,0.40
6990.00,0.40
6989.00,0.40
6988.00,0.40
6987.00,0.40
6986.00,0.40
6985.00,0.40
6984.00,0.40
6983.00,0.40
6982.00,0.40
6981.00,0.40
6980.00,0.41
6979.00,0.41
6978.00,0.41
6977.00,0.41
6976.00,0.41
6975.00,0.41
6974.00,0.41
6973.00,0.41
6972.00,0.41
6971.00,0.41
6970.00,0.42
6969.00,0.42
6968.00,0.42
6967.00,0.42
6966.00,0.42
6965.00,0.42
6964.00,0.42
6963.00,0.42
6962.00,0.42
6961.00,0.42
6960.00,0.42
6959.00,0.42
6958.00,0.42
6957.00,0.42
6956.00,0.42
6955.00,0.42
6954.00,0.42
6953.00,0.42
6952.00,0.42
6951.00,0.42
6950.00,0.42
6949.00,0.42
6948.00,0.42
6947.00,0.42
6946.00,0.42
6945.00,0.42
6944.00,0.42
6943.00,0.42
6942.00,0.42
6941.00,0.42
6940.00,0.42
6939.00,0.42
6938.00,0.42
6937.00,0.42
6936.00,0.42
6935.00,0.42
6934.00,0.42
6933.00,0.42
6932.00,0.41
6931.00,0.41
6930.00,0.41
6929.00,0.41
6928.00,0.41
6927.00,0.41
6926.00,0.41
6925.00,0.41
6924.00,0.41
6923.00,0.41
6922.00,0.41
6921.00,0.41
6920.00,0.41
6919.00,0.41
6918.00,0.41
6917.00,0.41
6916.00,0.40
6915.00,0.40
6914.00,0.40
6913.00,0.40
6912.00,0.40
6911.00,0.40
6910.00,0.40
6909.00,0.40
6908.00,0.40
6907.00,0.40
6906.00,0.40
6905.00,0.40
6904.00,0.40
6903.00,0.40
6902.00,0.40
6901.00,0.40
6900.00,0.40
6899.00,0.39
6898.00,0.39
6897.00,0.39
6896.00,0.39
6895.00,0.39
6894.00,0.39
6893.00,0.39
6892.00,0.39
6891.00,0.39
6890.00,0.39
6889.00,0.39
6888.00,0.39
6887.00,0.39
6886.00,0.38
6885.00,0.38
6884.00,0.38
6883.00,0.38
6882.00,0.38
6881.00,0.38
6880.00,0.38
6879.00,0.38
6878.00,0.38
6877.00,0.38
6876.00,0.38
6875.00,0.38
6874.00,0.38
6873.00,0.38
6872.00,0.38
6871.00,0.38
6870.00,0.38
6869.00,0.38
6868.00,0.38
6867.00,0.39
6866.00,0.39
6865.00,0.39
6864.00,0.39
6863.00,0.39
6862.00,0.39
6861.00,0.39
6860.00,0.40
6859.00,0.40
6858.00,0.40
6857.00,0.40
6856.00,0.40
6855.00,0.41
6854.00,0.41
6853.00,0.41
6852.00,0.41
6851.00,0.41
6850.00,0.41
6849.00,0.41
6848.00,0.41
6847.00,0.41
6846.00,0.41
6845.00,0.41
6844.00,0.41
6843.00,0.41
6842.00,0.41
6841.00,0.41
6840.00,0.41
6839.00,0.41
6838.00,0.41
6837.00,0.41
6836.00,0.41
6835.00,0.41
6834.00,0.41
6833.00,0.41
6832.00,0.41
6831.00,0.40
6830.00,0.40
6829.00,0.40
6828.00,0.40
6827.00,0.40
6826.00,0.40
6825.00,0.40
6824.00,0.40
6823.00,0.40
6822.00,0.40
6821.00,0.40
6820.00,0.40
6819.00,0.40
6818.00,0.40
6817.00,0.40
6816.00,0.40
6815.00,0.40
6814.00,0.40
6813.00,0.40
6812.00,0.40
6811.00,0.40
6810.00,0.40
6809.00,0.40
6808.00,0.40
6807.00,0.40
6806.00,0.40
6805.00,0.40
6804.00,0.40
6803.00,0.40
6802.00,0.40
6801.00,0.40
6800.00,0.40
6799.00,0.40
6798.00,0.40
6797.00,0.40
6796.00,0.40
6795.00,0.40
6794.00,0.40
6793.00,0.40
6792.00,0.40
6791.00,0.40
6790.00,0.40
6789.00,0.40
6788.00,0.40
6787.00,0.40
6786.00,0.40
6785.00,0.40
6784.00,0.40
6783.00,0.41
6782.00,0.41
6781.00,0.41
6780.00,0.41
6779.00,0.41
6778.00,0.42
6777.00,0.42
6776.00,0.42
6775.00,0.42
6774.00,0.42
6773.00,0.42
6772.00,0.43
6771.00,0.43
6770.00,0.43
6769.00,0.43
6768.00,0.43
6767.00,0.43
6766.00,0.43
6765.00,0.43
6764.00,0.43
6763.00,0.44
6762.00,0.44
6761.00,0.44
6760.00,0.44
6759.00,0.44
6758.00,0.44
6757.00,0.44
6756.00,0.44
6755.00,0.44
6754.00,0.44
6753.00,0.44
6752.00,0.44
6751.00,0.44
6750.00,0.44
6749.00,0.44
6748.00,0.44
6747.00,0.44
6746.00,0.44
6745.00,0.44
6744.00,0.45
6743.00,0.45
6742.00,0.45
6741.00,0.45
6740.00,0.45
6739.00,0.45
6738.00,0.45
6737.00,0.46
6736.00,0.46
6735.00,0.46
6734.00,0.46
6733.00,0.46
6732.00,0.46
6731.00,0.46
6730.00,0.46
6729.00,0.46
6728.00,0.46
6727.00,0.46
6726.00,0.46
6725.00,0.46
6724.00,0.46
6723.00,0.46
6722.00,0.46
6721.00,0.46
6720.00,0.46
6719.00,0.46
6718.00,0.46
6717.00,0.46
6716.00,0.46
6715.00,0.46
6714.00,0.46
6713.00,0.46
6712.00,0.46
6711.00,0.46
6710.00,0.46
6709.00,0.46
6708.00,0.46
6707.00,0.46
6706.00,0.46
6705.00,0.46
6704.00,0.46
6703.00,0.46
6702.00,0.46
6701.00,0.46
6700.00,0.46
6699.00,0.46
6698.00,0.46
6697.00,0.46
6696.00,0.46
6695.00,0.46
6694.00,0.46
6693.00,0.46
6692.00,0.46
6691.00,0.46
6690.00,0.47
6689.00,0.47
6688.00,0.47
6687.00,0.47
6686.00,0.47
6685.00,0.47
6684.00,0.47
6683.00,0.47
6682.00,0.47
6681.00,0.47
6680.00,0.47
6679.00,0.47
6678.00,0.48
6677.00,0.48
6676.00,0.48
6675.00,0.48
6674.00,0.48
6673.00,0.48
6672.00,0.48
6671.00,0.48
6670.00,0.49
6669.00,0.49
6668.00,0.49
6667.00,0.49
6666.00,0.49
6665.00,0.49
6664.00,0.49
6663.00,0.49
6662.00,0.49
6661.00,0.49
6660.00,0.49
6659.00,0.49
6658.00,0.49
6657.00,0.49
6656.00,0.49
6655.00,0.49
6654.00,0.49
6653.00,0.49
6652.00,0.49
6651.00,0.49
6650.00,0.49
6649.00,0.49
6648.00,0.49
6647.00,0.49
6646.00,0.49
6645.00,0.49
6644.00,0.49
6643.00,0.49
6642.00,0.49
6641.00,0.49
6640.00,0.49
6639.00,0.49
6638.00,0.49
6637.00,0.50
6636.00,0.50
6635.00,0.50
6634.00,0.50
6633.00,0.50
6632.00,0.50
6631.00,0.50
6630.00,0.50
6629.00,0.50
6628.00,0.50
6627.00,0.51
6626.00,0.51
6625.00,0.51
6624.00,0.51
6623.00,0.51
6622.00,0.51
6621.00,0.52
6620.00,0.52
6619.00,0.52
6618.00,0.52
6617.00,0.52
6616.00,0.52
6615.00,0.52
6614.00,0.53
6613.00,0.53
6612.00,0.53
6611.00,0.53
6610.00,0.53
6609.00,0.53
6608.00,0.53
6607.00,0.53
6606.00,0.53
6605.00,0.53
6604.00,0.53
6603.00,0.53
6602.00,0.53
6601.00,0.53
6600.00,0.53
6599.00,0.53
6598.00,0.54
6597.00,0.54
6596.00,0.54
6595.00,0.54
6594.00,0.54
6593.00,0.54
6592.00,0.54
6591.00,0.54
6590.00,0.54
6589.00,0.54
6588.00,0.54
6587.00,0.54
6586.00,0.54
6585.00,0.55
6584.00,0.55
6583.00,0.55
6582.00,0.55
6581.00,0.55
6580.00,0.55
6579.00,0.55
6578.00,0.55
6577.00,0.55
6576.00,0.55
6575.00,0.55
6574.00,0.55
6573.00,0.55
6572.00,0.55
6571.00,0.55
6570.00,0.55
6569.00,0.54
6568.00,0.54
6567.00,0.54
6566.00,0.54
6565.00,0.54
6564.00,0.54
6563.00,0.54
6562.00,0.54
6561.00,0.54
6560.00,0.54
6559.00,0.54
6558.00,0.54
6557.00,0.54
6556.00,0.54
6555.00,0.54
6554.00,0.54
6553.00,0.54
6552.00,0.54
6551.00,0.54
6550.00,0.54
6549.00,0.54
6548.00,0.54
6547.00,0.54
6546.00,0.54
6545.00,0.54
6544.00,0.54
6543.00,0.55
6542.00,0.55
6541.00,0.55
6540.00,0.55
6539.00,0.55
6538.00,0.55
6537.00,0.55
6536.00,0.56
6535.00,0.56
6534.00,0.56
6533.00,0.56
6532.00,0.56
6531.00,0.56
6530.00,0.56
6529.00,0.57
6528.00,0.57
6527.00,0.57
6526.00,0.57
6525.00,0.57
6524.00,0.57
6523.00,0.57
6522.00,0.57
6521.00,0.58
6520.00,0.58
6519.00,0.58
6518.00,0.58
6517.00,0.58
6516.00,0.58
6515.00,0.58
6514.00,0.58
6513.00,0.58
6512.00,0.58
6511.00,0.58
6510.00,0.58
6509.00,0.58
6508.00,0.58
6507.00,0.58
6506.00,0.58
6505.00,0.58
6504.00,0.58
6503.00,0.58
6502.00,0.58
6501.00,0.58
6500.00,0.58
6499.00,0.58
6498.00,0.58
6497.00,0.59
6496.00,0.59
6495.00,0.59
6494.00,0.59
6493.00,0.59
6492.00,0.59
6491.00,0.59
6490.00,0.59
6489.00,0.60
6488.00,0.60
6487.00,0.60
6486.00,0.60
6485.00,0.60
6484.00,0.61
6483.00,0.61
6482.00,0.61
6481.00,0.61
6480.00,0.61
6479.00,0.61
6478.00,0.62
6477.00,0.62
6476.00,0.62
6475.00,0.62
6474.00,0.62
6473.00,0.62
6472.00,0.62
6471.00,0.62
6470.00,0.63
6469.00,0.63
6468.00,0.63
6467.00,0.63
6466.00,0.63
6465.00,0.63
6464.00,0.63
6463.00,0.63
6462.00,0.63
6461.00,0.63
6460.00,0.63
6459.00,0.63
6458.00,0.63
6457.00,0.63
6456.00,0.63
6455.00,0.63
6454.00,0.63
6453.00,0.62
6452.00,0.62
6451.00,0.62
6450.00,0.62
6449.00,0.62
6448.00,0.62
6447.00,0.62
6446.00,0.62
6445.00,0.62
6444.00,0.62
6443.00,0.62
6442.00,0.62
6441.00,0.62
6440.00,0.62
6439.00,0.62
6438.00,0.62
6437.00,0.63
6436.00,0.63
6435.00,0.63
6434.00,0.63
6433.00,0.63
6432.00,0.63
6431.00,0.63
6430.00,0.63
6429.00,0.63
6428.00,0.63
6427.00,0.63
6426.00,0.63
6425.00,0.63
6424.00,0.63
6423.00,0.64
6422.00,0.64
6421.00,0.64
6420.00,0.64
6419.00,0.64
6418.00,0.64
6417.00,0.64
6416.00,0.64
6415.00,0.64
6414.00,0.64
6413.00,0.64
6412.00,0.64
6411.00,0.64
6410.00,0.64
6409.00,0.64
6408.00,0.64
6407.00,0.64
6406.00,0.64
6405.00,0.65
6404.00,0.65
6403.00,0.65
6402.00,0.65
6401.00,0.65
6400.00,0.65
6399.00,0.65
6398.00,0.65
6397.00,0.66
6396.00,0.66
6395.00,0.66
6394.00,0.66
6393.00,0.66
6392.00,0.66
6391.00,0.66
6390.00,0.66
6389.00,0.66
6388.00,0.66
6387.00,0.66
6386.00,0.66
6385.00,0.65
6384.00,0.65
6383.00,0.65
6382.00,0.65
6381.00,0.65
6380.00,0.65
6379.00,0.65
6378.00,0.65
6377.00,0.65
6376.00,0.65
6375.00,0.65
6374.00,0.65
6373.00,0.65
6372.00,0.65
6371.00,0.65
6370.00,0.65
6369.00,0.65
6368.00,0.65
6367.00,0.65
6366.00,0.65
6365.00,0.66
6364.00,0.66
6363.00,0.66
6362.00,0.66
6361.00,0.67
6360.00,0.67
6359.00,0.67
6358.00,0.67
6357.00,0.68
6356.00,0.68
6355.00,0.68
6354.00,0.68
6353.00,0.68
6352.00,0.69
6351.00,0.69
6350.00,0.69
6349.00,0.69
6348.00,0.69
6347.00,0.69
6346.00,0.69
6345.00,0.69
6344.00,0.69
6343.00,0.69
6342.00,0.69
6341.00,0.69
6340.00,0.68
6339.00,0.68
6338.00,0.68
6337.00,0.68
6336.00,0.68
6335.00,0.68
6334.00,0.67
6333.00,0.67
6332.00,0.67
6331.00,0.67
6330.00,0.67
6329.00,0.67
6328.00,0.67
6327.00,0.67
6326.00,0.67
6325.00,0.67
6324.00,0.67
6323.00,0.67
6322.00,0.67
6321.00,0.67
6320.00,0.67
6319.00,0.67
6318.00,0.67
6317.00,0.67
6316.00,0.67
6315.00,0.67
6314.00,0.68
6313.00,0.68
6312.00,0.68
6311.00,0.68
6310.00,0.68
6309.00,0.69
6308.00,0.69
6307.00,0.69
6306.00,0.69
6305.00,0.70
6304.00,0.70
6303.00,0.70
6302.00,0.70
6301.00,0.70
6300.00,0.71
6299.00,0.71
6298.00,0.71
6297.00,0.71
6296.00,0.71
6295.00,0.71
6294.00,0.71
6293.00,0.72
6292.00,0.72
6291.00,0.72
6290.00,0.72
6289.00,0.72
6288.00,0.72
6287.00,0.72
6286.00,0.72
6285.00,0.72
6284.00,0.73
6283.00,0.73
6282.00,0.73
6281.00,0.73
6280.00,0.73
6279.00,0.73
6278.00,0.73
6277.00,0.73
6276.00,0.73
6275.00,0.73
6274.00,0.73
6273.00,0.73
6272.00,0.73
6271.00,0.73
6270.00,0.73
6269.00,0.73
6268.00,0.73
6267.00,0.74
6266.00,0.74
6265.00,0.74
6264.00,0.74
6263.00,0.74
6262.00,0.74
6261.00,0.74
6260.00,0.74
6259.00,0.74
6258.00,0.75
6257.00,0.75
6256.00,0.75
6255.00,0.75
6254.00,0.75
6253.00,0.75
6252.00,0.75
6251.00,0.75
6250.00,0.75
6249.00,0.75
6248.00,0.76
6247.00,0.76
6246.00,0.76
6245.00,0.76
6244.00,0.76
6243.00,0.76
6242.00,0.76
6241.00,0.76
6240.00,0.76
6239.00,0.76
6238.00,0.76
6237.00,0.76
6236.00,0.77
6235.00,0.77
6234.00,0.77
6233.00,0.77
6232.00,0.77
6231.00,0.77
6230.00,0.77
6229.00,0.77
6228.00,0.77
6227.00,0.77
6226.00,0.77
6225.00,0.77
6224.00,0.77
6223.00,0.77
6222.00,0.77
6221.00,0.77
6220.00,0.77
6219.00,0.77
6218.00,0.77
6217.00,0.77
6216.00,0.77
6215.00,0.77
6214.00,0.77
6213.00,0.77
6212.00,0.77
6211.00,0.77
6210.00,0.77
6209.00,0.77
6208.00,0.77
6207.00,0.77
6206.00,0.77
6205.00,0.77
6204.00,0.77
6203.00,0.77
6202.00,0.77
6201.00,0.77
6200.00,0.77
6199.00,0.77
6198.00,0.77
6197.00,0.77
6196.00,0.77
6195.00,0.77
6194.00,0.77
6193.00,0.77
6192.00,0.77
6191.00,0.77
6190.00,0.77
6189.00,0.78
6188.00,0.78
6187.00,0.78
6186.00,0.78
6185.00,0.78
6184.00,0.78
6183.00,0.78
6182.00,0.79
6181.00,0.79
6180.00,0.79
6179.00,0.79
6178.00,0.79
6177.00,0.79
6176.00,0.79
6175.00,0.79
6174.00,0.80
6173.00,0.80
6172.00,0.80
6171.00,0.80
6170.00,0.80
6169.00,0.80
6168.00,0.80
6167.00,0.81
6166.00,0.81
6165.00,0.81
6164.00,0.81
6163.00,0.81
6162.00,0.82
6161.00,0.82
6160.00,0.82
6159.00,0.82
6158.00,0.82
6157.00,0.83
6156.00,0.83
6155.00,0.83
6154.00,0.83
6153.00,0.83
6152.00,0.83
6151.00,0.83
6150.00,0.83
6149.00,0.83
6148.00,0.84
6147.00,0.84
6146.00,0.84
6145.00,0.84
6144.00,0.84
6143.00,0.84
6142.00,0.83
6141.00,0.83
6140.00,0.83
6139.00,0.83
6138.00,0.83
6137.00,0.83
6136.00,0.83
6135.00,0.83
6134.00,0.82
6133.00,0.82
6132.00,0.82
6131.00,0.82
6130.00,0.82
6129.00,0.82
6128.00,0.82
6127.00,0.82
6126.00,0.81
6125.00,0.81
6124.00,0.81
6123.00,0.81
6122.00,0.81
6121.00,0.81
6120.00,0.81
6119.00,0.81
6118.00,0.81
6117.00,0.82
6116.00,0.82
6115.00,0.82
6114.00,0.82
6113.00,0.82
6112.00,0.82
6111.00,0.82
6110.00,0.83
6109.00,0.83
6108.00,0.83
6107.00,0.83
6106.00,0.84
6105.00,0.84
6104.00,0.84
6103.00,0.84
6102.00,0.85
6101.00,0.85
6100.00,0.85
6099.00,0.85
6098.00,0.86
6097.00,0.86
6096.00,0.86
6095.00,0.86
6094.00,0.87
6093.00,0.87
6092.00,0.87
6091.00,0.87
6090.00,0.88
6089.00,0.88
6088.00,0.88
6087.00,0.88
6086.00,0.88
6085.00,0.88
6084.00,0.88
6083.00,0.89
6082.00,0.89
6081.00,0.89
6080.00,0.89
6079.00,0.89
6078.00,0.89
6077.00,0.89
6076.00,0.89
6075.00,0.89
6074.00,0.89
6073.00,0.89
6072.00,0.89
6071.00,0.89
6070.00,0.88
6069.00,0.88
6068.00,0.88
6067.00,0.88
6066.00,0.88
6065.00,0.88
6064.00,0.88
6063.00,0.88
6062.00,0.88
6061.00,0.87
6060.00,0.87
6059.00,0.87
6058.00,0.87
6057.00,0.87
6056.00,0.87
6055.00,0.87
6054.00,0.87
6053.00,0.87
6052.00,0.87
6051.00,0.87
6050.00,0.87
6049.00,0.87
6048.00,0.87
6047.00,0.87
6046.00,0.87
6045.00,0.87
6044.00,0.87
6043.00,0.87
6042.00,0.87
6041.00,0.87
6040.00,0.87
6039.00,0.87
6038.00,0.88
6037.00,0.88
6036.00,0.88
6035.00,0.88
6034.00,0.88
6033.00,0.88
6032.00,0.88
6031.00,0.88
6030.00,0.88
6029.00,0.88
6028.00,0.88
6027.00,0.88
6026.00,0.88
6025.00,0.88
6024.00,0.88
6023.00,0.88
6022.00,0.88
6021.00,0.88
6020.00,0.88
6019.00,0.88
6018.00,0.87
6017.00,0.87
6016.00,0.87
6015.00,0.87
6014.00,0.87
6013.00,0.87
6012.00,0.87
6011.00,0.87
6010.00,0.87
6009.00,0.87
6008.00,0.87
6007.00,0.87
6006.00,0.87
6005.00,0.87
6004.00,0.87
6003.00,0.87
6002.00,0.87
6001.00,0.87
6000.00,0.87
5999.00,0.87
5998.00,0.87
5997.00,0.87
5996.00,0.87
5995.00,0.87
5994.00,0.88
5993.00,0.88
5992.00,0.88
5991.00,0.88
5990.00,0.88
5989.00,0.88
5988.00,0.88
5987.00,0.88
5986.00,0.88
5985.00,0.88
5984.00,0.88
5983.00,0.88
5982.00,0.88
5981.00,0.88
5980.00,0.87
5979.00,0.87
5978.00,0.87
5977.00,0.87
5976.00,0.87
5975.00,0.87
5974.00,0.87
5973.00,0.87
5972.00,0.87
5971.00,0.86
5970.00,0.86
5969.00,0.86
5968.00,0.86
5967.00,0.86
5966.00,0.85
5965.00,0.85
5964.00,0.85
5963.00,0.85
5962.00,0.85
5961.00,0.84
5960.00,0.84
5959.00,0.84
5958.00,0.84
5957.00,0.84
5956.00,0.83
5955.00,0.83
5954.00,0.83
5953.00,0.83
5952.00,0.83
5951.00,0.82
5950.00,0.82
5949.00,0.82
5948.00,0.82
5947.00,0.82
5946.00,0.81
5945.00,0.81
5944.00,0.81
5943.00,0.81
5942.00,0.81
5941.00,0.81
5940.00,0.81
5939.00,0.80
5938.00,0.80
5937.00,0.80
5936.00,0.80
5935.00,0.80
5934.00,0.80
5933.00,0.80
5932.00,0.80
5931.00,0.79
5930.00,0.79
5929.00,0.79
5928.00,0.79
5927.00,0.79
5926.00,0.78
5925.00,0.78
5924.00,0.78
5923.00,0.78
5922.00,0.78
5921.00,0.78
5920.00,0.77
5919.00,0.77
5918.00,0.77
5917.00,0.77
5916.00,0.77
5915.00,0.76
5914.00,0.76
5913.00,0.76
5912.00,0.76
5911.00,0.76
5910.00,0.76
5909.00,0.76
5908.00,0.76
5907.00,0.76
5906.00,0.75
5905.00,0.75
5904.00,0.76
5903.00,0.76
5902.00,0.76
5901.00,0.76
5900.00,0.76
5899.00,0.76
5898.00,0.76
5897.00,0.76
5896.00,0.76
5895.00,0.76
5894.00,0.76
5893.00,0.77
5892.00,0.77
5891.00,0.77
5890.00,0.77
5889.00,0.77
5888.00,0.77
5887.00,0.77
5886.00,0.78
5885.00,0.78
5884.00,0.78
5883.00,0.78
5882.00,0.78
5881.00,0.78
5880.00,0.78
5879.00,0.78
5878.00,0.79
5877.00,0.79
5876.00,0.79
5875.00,0.79
5874.00,0.79
5873.00,0.79
5872.00,0.79
5871.00,0.79
5870.00,0.80
5869.00,0.80
5868.00,0.80
5867.00,0.80
5866.00,0.80
5865.00,0.80
5864.00,0.80
5863.00,0.80
5862.00,0.80
5861.00,0.80
5860.00,0.80
5859.00,0.80
5858.00,0.80
5857.00,0.81
5856.00,0.81
5855.00,0.81
5854.00,0.81
5853.00,0.81
5852.00,0.81
5851.00,0.81
5850.00,0.81
5849.00,0.81
5848.00,0.81
5847.00,0.81
5846.00,0.81
5845.00,0.81
5844.00,0.81
5843.00,0.81
5842.00,0.81
5841.00,0.81
5840.00,0.81
5839.00,0.81
5838.00,0.81
5837.00,0.81
5836.00,0.81
5835.00,0.81
5834.00,0.81
5833.00,0.81
5832.00,0.81
5831.00,0.81
5830.00,0.81
5829.00,0.81
5828.00,0.81
5827.00,0.81
5826.00,0.81
5825.00,0.81
5824.00,0.81
5823.00,0.81
5822.00,0.81
5821.00,0.81
5820.00,0.81
5819.00,0.81
5818.00,0.81
5817.00,0.81
5816.00,0.81
5815.00,0.81
5814.00,0.80
5813.00,0.80
5812.00,0.80
5811.00,0.80
5810.00,0.80
5809.00,0.80
5808.00,0.80
5807.00,0.80
5806.00,0.79
5805.00,0.79
5804.00,0.79
5803.00,0.79
5802.00,0.79
5801.00,0.79
5800.00,0.79
5799.00,0.78
5798.00,0.78
5797.00,0.78
5796.00,0.78
5795.00,0.78
5794.00,0.78
5793.00,0.78
5792.00,0.77
5791.00,0.77
5790.00,0.77
5789.00,0.77
5788.00,0.77
5787.00,0.77
5786.00,0.77
5785.00,0.77
5784.00,0.77
5783.00,0.77
5782.00,0.77
5781.00,0.77
5780.00,0.77
5779.00,0.77
5778.00,0.77
5777.00,0.78
5776.00,0.78
5775.00,0.78
5774.00,0.78
5773.00,0.78
5772.00,0.78
5771.00,0.79
5770.00,0.79
5769.00,0.79
5768.00,0.79
5767.00,0.79
5766.00,0.79
5765.00,0.80
5764.00,0.80
5763.00,0.80
5762.00,0.80
5761.00,0.80
5760.00,0.81
5759.00,0.81
5758.00,0.81
5757.00,0.81
5756.00,0.81
5755.00,0.81
5754.00,0.81
5753.00,0.81
5752.00,0.81
5751.00,0.81
5750.00,0.81
5749.00,0.81
5748.00,0.81
5747.00,0.81
5746.00,0.82
5745.00,0.82
5744.00,0.82
5743.00,0.81
5742.00,0.81
5741.00,0.81
5740.00,0.81
5739.00,0.81
5738.00,0.81
5737.00,0.81
5736.00,0.81
5735.00,0.81
5734.00,0.81
5733.00,0.81
5732.00,0.81
5731.00,0.81
5730.00,0.81
5729.00,0.81
5728.00,0.81
5727.00,0.81
5726.00,0.81
5725.00,0.81
5724.00,0.81
5723.00,0.81
5722.00,0.81
5721.00,0.81
5720.00,0.81
5719.00,0.81
5718.00,0.81
5717.00,0.81
5716.00,0.81
5715.00,0.81
5714.00,0.81
5713.00,0.81
5712.00,0.81
5711.00,0.81
5710.00,0.81
5709.00,0.81
5708.00,0.81
5707.00,0.81
5706.00,0.81
5705.00,0.81
5704.00,0.81
5703.00,0.81
5702.00,0.81
5701.00,0.81
5700.00,0.81
5699.00,0.81
5698.00,0.81
5697.00,0.81
5696.00,0.81
5695.00,0.81
5694.00,0.81
5693.00,0.81
5692.00,0.81
5691.00,0.81
5690.00,0.81
5689.00,0.81
5688.00,0.81
5687.00,0.81
5686.00,0.81
5685.00,0.81
5684.00,0.81
5683.00,0.81
5682.00,0.81
5681.00,0.81
5680.00,0.81
5679.00,0.81
5678.00,0.80
5677.00,0.80
5676.00,0.80
5675.00,0.80
5674.00,0.80
5673.00,0.80
5672.00,0.80
5671.00,0.80
5670.00,0.80
5669.00,0.80
5668.00,0.80
5667.00,0.80
5666.00,0.79
5665.00,0.79
5664.00,0.79
5663.00,0.79
5662.00,0.79
5661.00,0.79
5660.00,0.79
5659.00,0.79
5658.00,0.79
5657.00,0.79
5656.00,0.79
5655.00,0.79
5654.00,0.79
5653.00,0.79
5652.00,0.79
5651.00,0.78
5650.00,0.78
5649.00,0.78
5648.00,0.78
5647.00,0.78
5646.00,0.78
5645.00,0.78
5644.00,0.79
5643.00,0.79
5642.00,0.79
5641.00,0.79
5640.00,0.79
5639.00,0.79
5638.00,0.79
5637.00,0.79
5636.00,0.79
5635.00,0.79
5634.00,0.79
5633.00,0.80
5632.00,0.80
5631.00,0.80
5630.00,0.80
5629.00,0.80
5628.00,0.80
5627.00,0.81
5626.00,0.81
5625.00,0.81
5624.00,0.81
5623.00,0.81
5622.00,0.81
5621.00,0.81
5620.00,0.81
5619.00,0.82
5618.00,0.82
5617.00,0.82
5616.00,0.82
5615.00,0.82
5614.00,0.82
5613.00,0.82
5612.00,0.82
5611.00,0.82
5610.00,0.82
5609.00,0.82
5608.00,0.82
5607.00,0.82
5606.00,0.82
5605.00,0.82
5604.00,0.82
5603.00,0.82
5602.00,0.82
5601.00,0.82
5600.00,0.82
5599.00,0.82
5598.00,0.82
5597.00,0.83
5596.00,0.83
5595.00,0.83
5594.00,0.83
5593.00,0.83
5592.00,0.83
5591.00,0.83
5590.00,0.83
5589.00,0.84
5588.00,0.84
5587.00,0.84
5586.00,0.84
5585.00,0.84
5584.00,0.84
5583.00,0.85
5582.00,0.85
5581.00,0.85
5580.00,0.85
5579.00,0.85
5578.00,0.85
5577.00,0.85
5576.00,0.85
5575.00,0.85
5574.00,0.85
5573.00,0.85
5572.00,0.86
5571.00,0.86
5570.00,0.86
5569.00,0.86
5568.00,0.86
5567.00,0.86
5566.00,0.86
5565.00,0.86
5564.00,0.86
5563.00,0.86
5562.00,0.86
5561.00,0.86
5560.00,0.86
5559.00,0.86
5558.00,0.86
5557.00,0.86
5556.00,0.86
5555.00,0.86
5554.00,0.86
5553.00,0.86
5552.00,0.86
5551.00,0.86
5550.00,0.86
5549.00,0.87
5548.00,0.87
5547.00,0.87
5546.00,0.87
5545.00,0.87
5544.00,0.87
5543.00,0.87
5542.00,0.87
5541.00,0.88
5540.00,0.88
5539.00,0.88
5538.00,0.88
5537.00,0.88
5536.00,0.88
5535.00,0.89
5534.00,0.89
5533.00,0.89
5532.00,0.89
5531.00,0.89
5530.00,0.89
5529.00,0.89
5528.00,0.89
5527.00,0.89
5526.00,0.89
5525.00,0.89
5524.00,0.90
5523.00,0.90
5522.00,0.90
5521.00,0.90
5520.00,0.90
5519.00,0.90
5518.00,0.90
5517.00,0.90
5516.00,0.90
5515.00,0.90
5514.00,0.90
5513.00,0.90
5512.00,0.90
5511.00,0.90
5510.00,0.90
5509.00,0.90
5508.00,0.90
5507.00,0.90
5506.00,0.90
5505.00,0.90
5504.00,0.90
5503.00,0.90
5502.00,0.90
5501.00,0.90
5500.00,0.90
5499.00,0.90
5498.00,0.90
5497.00,0.90
5496.00,0.90
5495.00,0.90
5494.00,0.90
5493.00,0.90
5492.00,0.90
5491.00,0.90
5490.00,0.90
5489.00,0.90
5488.00,0.90
5487.00,0.90
5486.00,0.91
5485.00,0.91
5484.00,0.91
5483.00,0.91
5482.00,0.91
5481.00,0.91
5480.00,0.91
5479.00,0.91
5478.00,0.91
5477.00,0.91
5476.00,0.91
5475.00,0.91
5474.00,0.91
5473.00,0.92
5472.00,0.92
5471.00,0.92
5470.00,0.92
5469.00,0.92
5468.00,0.92
5467.00,0.92
5466.00,0.92
5465.00,0.92
5464.00,0.92
5463.00,0.92
5462.00,0.92
5461.00,0.92
5460.00,0.92
5459.00,0.92
5458.00,0.93
5457.00,0.93
5456.00,0.93
5455.00,0.93
5454.00,0.93
5453.00,0.93
5452.00,0.93
5451.00,0.93
5450.00,0.93
5449.00,0.93
5448.00,0.93
5447.00,0.93
5446.00,0.93
5445.00,0.93
5444.00,0.93
5443.00,0.93
5442.00,0.93
5441.00,0.93
5440.00,0.93
5439.00,0.93
5438.00,0.93
5437.00,0.93
5436.00,0.93
5435.00,0.93
5434.00,0.93
5433.00,0.93
5432.00,0.93
5431.00,0.93
5430.00,0.93
5429.00,0.93
5428.00,0.93
5427.00,0.93
5426.00,0.93
5425.00,0.93
5424.00,0.92
5423.00,0.92
5422.00,0.92
5421.00,0.92
5420.00,0.92
5419.00,0.92
5418.00,0.92
5417.00,0.92
5416.00,0.92
5415.00,0.91
5414.00,0.91
5413.00,0.91
5412.00,0.91
5411.00,0.91
5410.00,0.91
5409.00,0.91
5408.00,0.90
5407.00,0.90
5406.00,0.90
5405.00,0.90
5404.00,0.90
5403.00,0.90
5402.00,0.90
5401.00,0.90
5400.00,0.90
5399.00,0.90
5398.00,0.89
5397.00,0.89
5396.00,0.89
5395.00,0.89
5394.00,0.89
5393.00,0.89
5392.00,0.89
5391.00,0.89
5390.00,0.89
5389.00,0.88
5388.00,0.88
5387.00,0.88
5386.00,0.88
5385.00,0.88
5384.00,0.88
5383.00,0.88
5382.00,0.87
5381.00,0.87
5380.00,0.87
5379.00,0.87
5378.00,0.87
5377.00,0.87
5376.00,0.87
5375.00,0.87
5374.00,0.86
5373.00,0.86
5372.00,0.86
5371.00,0.86
5370.00,0.86
5369.00,0.85
5368.00,0.85
5367.00,0.85
5366.00,0.85
5365.00,0.85
5364.00,0.84
5363.00,0.84
5362.00,0.84
5361.00,0.84
5360.00,0.83
5359.00,0.83
5358.00,0.83
5357.00,0.82
5356.00,0.82
5355.00,0.82
5354.00,0.81
5353.00,0.81
5352.00,0.80
5351.00,0.80
5350.00,0.79
5349.00,0.79
5348.00,0.78
5347.00,0.78
5346.00,0.77
5345.00,0.76
5344.00,0.76
5343.00,0.75
5342.00,0.74
5341.00,0.74
5340.00,0.73
5339.00,0.72
5338.00,0.72
5337.00,0.71
5336.00,0.70
5335.00,0.70
5334.00,0.69
5333.00,0.68
5332.00,0.68
5331.00,0.67
5330.00,0.67
5329.00,0.66
5328.00,0.65
5327.00,0.65
5326.00,0.64
5325.00,0.63
5324.00,0.63
5323.00,0.62
5322.00,0.62
5321.00,0.61
5320.00,0.60
5319.00,0.60
5318.00,0.59
5317.00,0.59
5316.00,0.58
5315.00,0.57
5314.00,0.57
5313.00,0.56
5312.00,0.55
5311.00,0.55
5310.00,0.54
5309.00,0.54
5308.00,0.53
5307.00,0.52
5306.00,0.52
5305.00,0.51
5304.00,0.51
5303.00,0.50
5302.00,0.50
5301.00,0.49
5300.00,0.49
5299.00,0.48
5298.00,0.48
5297.00,0.47
5296.00,0.47
5295.00,0.46
5294.00,0.46
5293.00,0.46
5292.00,0.45
5291.00,0.45
5290.00,0.45
5289.00,0.45
5288.00,0.44
5287.00,0.44
5286.00,0.44
5285.00,0.44
5284.00,0.44
5283.00,0.44
5282.00,0.43
5281.00,0.43
5280.00,0.43
5279.00,0.43
5278.00,0.43
5277.00,0.43
5276.00,0.43
5275.00,0.43
5274.00,0.42
5273.00,0.42
5272.00,0.42
5271.00,0.42
5270.00,0.42
5269.00,0.42
5268.00,0.42
5267.00,0.42
5266.00,0.42
5265.00,0.41
5264.00,0.41
5263.00,0.41
5262.00,0.41
5261.00,0.41
5260.00,0.41
5259.00,0.41
5258.00,0.41
5257.00,0.41
5256.00,0.41
5255.00,0.41
5254.00,0.41
5253.00,0.41
5252.00,0.41
5251.00,0.41
5250.00,0.41
5249.00,0.41
5248.00,0.41
5247.00,0.41
5246.00,0.41
5245.00,0.41
5244.00,0.41
5243.00,0.41
5242.00,0.42
5241.00,0.42
5240.00,0.42
5239.00,0.42
5238.00,0.42
5237.00,0.42
5236.00,0.42
5235.00,0.42
5234.00,0.42
5233.00,0.43
5232.00,0.43
5231.00,0.43
5230.00,0.43
5229.00,0.43
5228.00,0.43
5227.00,0.43
5226.00,0.43
5225.00,0.43
5224.00,0.43
5223.00,0.43
5222.00,0.43
5221.00,0.43
5220.00,0.43
5219.00,0.43
5218.00,0.43
5217.00,0.43
5216.00,0.43
5215.00,0.43
5214.00,0.43
5213.00,0.43
5212.00,0.43
5211.00,0.43
5210.00,0.43
5209.00,0.42
5208.00,0.42
5207.00,0.42
5206.00,0.42
5205.00,0.42
5204.00,0.42
5203.00,0.42
5202.00,0.42
5201.00,0.42
5200.00,0.42
5199.00,0.42
5198.00,0.42
5197.00,0.42
5196.00,0.42
5195.00,0.42
5194.00,0.42
5193.00,0.42
5192.00,0.42
5191.00,0.42
5190.00,0.42
5189.00,0.42
5188.00,0.42
5187.00,0.42
5186.00,0.42
5185.00,0.43
5184.00,0.43
5183.00,0.43
5182.00,0.43
5181.00,0.43
5180.00,0.43
5179.00,0.43
5178.00,0.43
5177.00,0.43
5176.00,0.44
5175.00,0.44
5174.00,0.44
5173.00,0.44
5172.00,0.44
5171.00,0.44
5170.00,0.44
5169.00,0.44
5168.00,0.44
5167.00,0.44
5166.00,0.44
5165.00,0.44
5164.00,0.44
5163.00,0.44
5162.00,0.44
5161.00,0.44
5160.00,0.44
5159.00,0.44
5158.00,0.44
5157.00,0.44
5156.00,0.44
5155.00,0.44
5154.00,0.44
5153.00,0.44
5152.00,0.44
5151.00,0.44
5150.00,0.43
5149.00,0.43
5148.00,0.43
5147.00,0.43
5146.00,0.43
5145.00,0.43
5144.00,0.43
5143.00,0.44
5142.00,0.44
5141.00,0.44
5140.00,0.44
5139.00,0.44
5138.00,0.44
5137.00,0.44
5136.00,0.44
5135.00,0.44
5134.00,0.44
5133.00,0.44
5132.00,0.43
5131.00,0.43
5130.00,0.43
5129.00,0.43
5128.00,0.43
5127.00,0.43
5126.00,0.43
5125.00,0.43
5124.00,0.44
5123.00,0.44
5122.00,0.44
5121.00,0.44
5120.00,0.44
5119.00,0.44
5118.00,0.44
5117.00,0.44
5116.00,0.44
5115.00,0.44
5114.00,0.44
5113.00,0.44
5112.00,0.44
5111.00,0.44
5110.00,0.44
5109.00,0.44
5108.00,0.44
5107.00,0.44
5106.00,0.44
5105.00,0.44
5104.00,0.44
5103.00,0.44
5102.00,0.44
5101.00,0.44
5100.00,0.44
5099.00,0.44
5098.00,0.44
5097.00,0.44
5096.00,0.44
5095.00,0.44
5094.00,0.45
5093.00,0.45
5092.00,0.45
5091.00,0.45
5090.00,0.45
5089.00,0.45
5088.00,0.45
5087.00,0.45
5086.00,0.45
5085.00,0.45
5084.00,0.45
5083.00,0.45
5082.00,0.45
5081.00,0.45
5080.00,0.45
5079.00,0.45
5078.00,0.46
5077.00,0.46
5076.00,0.46
5075.00,0.46
5074.00,0.46
5073.00,0.46
5072.00,0.46
5071.00,0.46
5070.00,0.46
5069.00,0.46
5068.00,0.46
5067.00,0.46
5066.00,0.46
5065.00,0.46
5064.00,0.46
5063.00,0.47
5062.00,0.47
5061.00,0.47
5060.00,0.47
5059.00,0.47
5058.00,0.47
5057.00,0.47
5056.00,0.47
5055.00,0.47
5054.00,0.47
5053.00,0.47
5052.00,0.47
5051.00,0.47
5050.00,0.47
5049.00,0.47
5048.00,0.47
5047.00,0.47
5046.00,0.47
5045.00,0.47
5044.00,0.47
5043.00,0.47
5042.00,0.48
5041.00,0.48
5040.00,0.48
5039.00,0.48
5038.00,0.48
5037.00,0.48
5036.00,0.48
5035.00,0.48
5034.00,0.48
5033.00,0.48
5032.00,0.48
5031.00,0.49
5030.00,0.49
5029.00,0.49
5028.00,0.49
5027.00,0.49
5026.00,0.49
5025.00,0.49
5024.00,0.49
5023.00,0.50
5022.00,0.50
5021.00,0.50
5020.00,0.50
5019.00,0.50
5018.00,0.50
5017.00,0.50
5016.00,0.50
5015.00,0.50
5014.00,0.51
5013.00,0.51
5012.00,0.51
5011.00,0.51
5010.00,0.51
5009.00,0.51
5008.00,0.51
5007.00,0.51
5006.00,0.51
5005.00,0.51
5004.00,0.51
5003.00,0.51
5002.00,0.51
5001.00,0.51
5000.00,0.51
4999.00,0.51
4998.00,0.51
4997.00,0.51
4996.00,0.52
4995.00,0.52
4994.00,0.52
4993.00,0.52
4992.00,0.52
4991.00,0.52
4990.00,0.52
4989.00,0.52
4988.00,0.52
4987.00,0.52
4986.00,0.52
4985.00,0.52
4984.00,0.52
4983.00,0.52
4982.00,0.52
4981.00,0.52
4980.00,0.52
4979.00,0.52
4978.00,0.52
4977.00,0.52
4976.00,0.52
4975.00,0.52
4974.00,0.52
4973.00,0.52
4972.00,0.52
4971.00,0.52
4970.00,0.52
4969.00,0.52
4968.00,0.53
4967.00,0.53
4966.00,0.53
4965.00,0.53
4964.00,0.53
4963.00,0.53
4962.00,0.53
4961.00,0.53
4960.00,0.53
4959.00,0.53
4958.00,0.54
4957.00,0.54
4956.00,0.54
4955.00,0.54
4954.00,0.54
4953.00,0.54
4952.00,0.54
4951.00,0.54
4950.00,0.54
4949.00,0.54
4948.00,0.54
4947.00,0.55
4946.00,0.55
4945.00,0.55
4944.00,0.55
4943.00,0.55
4942.00,0.55
4941.00,0.55
4940.00,0.55
4939.00,0.55
4938.00,0.55
4937.00,0.55
4936.00,0.55
4935.00,0.55
4934.00,0.55
4933.00,0.55
4932.00,0.55
4931.00,0.55
4930.00,0.55
4929.00,0.55
4928.00,0.55
4927.00,0.55
4926.00,0.55
4925.00,0.55
4924.00,0.55
4923.00,0.55
4922.00,0.55
4921.00,0.55
4920.00,0.55
4919.00,0.55
4918.00,0.55
4917.00,0.55
4916.00,0.55
4915.00,0.55
4914.00,0.55
4913.00,0.55
4912.00,0.55
4911.00,0.55
4910.00,0.55
4909.00,0.55
4908.00,0.55
4907.00,0.55
4906.00,0.56
4905.00,0.56
4904.00,0.56
4903.00,0.56
4902.00,0.56
4901.00,0.56
4900.00,0.56
4899.00,0.56
4898.00,0.56
4897.00,0.56
4896.00,0.56
4895.00,0.56
4894.00,0.56
4893.00,0.56
4892.00,0.56
4891.00,0.56
4890.00,0.56
4889.00,0.56
4888.00,0.56
4887.00,0.56
4886.00,0.56
4885.00,0.56
4884.00,0.56
4883.00,0.56
4882.00,0.56
4881.00,0.56
4880.00,0.56
4879.00,0.56
4878.00,0.56
4877.00,0.56
4876.00,0.56
4875.00,0.56
4874.00,0.56
4873.00,0.56
4872.00,0.56
4871.00,0.57
4870.00,0.57
4869.00,0.57
4868.00,0.57
4867.00,0.57
4866.00,0.57
4865.00,0.57
4864.00,0.57
4863.00,0.58
4862.00,0.58
4861.00,0.58
4860.00,0.58
4859.00,0.58
4858.00,0.58
4857.00,0.58
4856.00,0.58
4855.00,0.58
4854.00,0.58
4853.00,0.59
4852.00,0.59
4851.00,0.59
4850.00,0.59
4849.00,0.59
4848.00,0.59
4847.00,0.60
4846.00,0.60
4845.00,0.60
4844.00,0.60
4843.00,0.60
4842.00,0.60
4841.00,0.60
4840.00,0.60
4839.00,0.60
4838.00,0.60
4837.00,0.60
4836.00,0.61
4835.00,0.61
4834.00,0.61
4833.00,0.61
4832.00,0.61
4831.00,0.61
4830.00,0.61
4829.00,0.61
4828.00,0.61
4827.00,0.61
4826.00,0.61
4825.00,0.61
4824.00,0.61
4823.00,0.61
4822.00,0.61
4821.00,0.61
4820.00,0.61
4819.00,0.61
4818.00,0.61
4817.00,0.60
4816.00,0.60
4815.00,0.60
4814.00,0.60
4813.00,0.60
4812.00,0.60
4811.00,0.61
4810.00,0.61
4809.00,0.61
4808.00,0.61
4807.00,0.61
4806.00,0.61
4805.00,0.61
4804.00,0.61
4803.00,0.62
4802.00,0.62
4801.00,0.62
4800.00,0.62
4799.00,0.62
4798.00,0.63
4797.00,0.63
4796.00,0.63
4795.00,0.64
4794.00,0.64
4793.00,0.64
4792.00,0.64
4791.00,0.65
4790.00,0.65
4789.00,0.65
4788.00,0.65
4787.00,0.66
4786.00,0.66
4785.00,0.66
4784.00,0.66
4783.00,0.66
4782.00,0.66
4781.00,0.67
4780.00,0.67
4779.00,0.67
4778.00,0.67
4777.00,0.67
4776.00,0.67
4775.00,0.67
4774.00,0.67
4773.00,0.67
4772.00,0.67
4771.00,0.67
4770.00,0.67
4769.00,0.67
4768.00,0.67
4767.00,0.67
4766.00,0.67
4765.00,0.67
4764.00,0.67
4763.00,0.67
4762.00,0.67
4761.00,0.67
4760.00,0.67
4759.00,0.67
4758.00,0.66
4757.00,0.66
4756.00,0.66
4755.00,0.66
4754.00,0.66
4753.00,0.66
4752.00,0.66
4751.00,0.66
4750.00,0.66
4749.00,0.66
4748.00,0.66
4747.00,0.66
4746.00,0.66
4745.00,0.66
4744.00,0.66
4743.00,0.67
4742.00,0.67
4741.00,0.67
4740.00,0.67
4739.00,0.67
4738.00,0.67
4737.00,0.67
4736.00,0.67
4735.00,0.68
4734.00,0.68
4733.00,0.68
4732.00,0.68
4731.00,0.68
4730.00,0.68
4729.00,0.69
4728.00,0.69
4727.00,0.69
4726.00,0.69
4725.00,0.70
4724.00,0.70
4723.00,0.70
4722.00,0.70
4721.00,0.70
4720.00,0.70
4719.00,0.70
4718.00,0.71
4717.00,0.71
4716.00,0.71
4715.00,0.71
4714.00,0.71
4713.00,0.71
4712.00,0.71
4711.00,0.71
4710.00,0.71
4709.00,0.71
4708.00,0.71
4707.00,0.72
4706.00,0.72
4705.00,0.72
4704.00,0.72
4703.00,0.72
4702.00,0.72
4701.00,0.72
4700.00,0.72
4699.00,0.73
4698.00,0.73
4697.00,0.73
4696.00,0.73
4695.00,0.73
4694.00,0.73
4693.00,0.73
4692.00,0.74
4691.00,0.74
4690.00,0.74
4689.00,0.74
4688.00,0.75
4687.00,0.75
4686.00,0.75
4685.00,0.75
4684.00,0.76
4683.00,0.76
4682.00,0.76
4681.00,0.76
4680.00,0.76
4679.00,0.76
4678.00,0.77
4677.00,0.77
4676.00,0.77
4675.00,0.77
4674.00,0.77
4673.00,0.77
4672.00,0.77
4671.00,0.77
4670.00,0.77
4669.00,0.78
4668.00,0.78
4667.00,0.78
4666.00,0.78
4665.00,0.78
4664.00,0.78
4663.00,0.78
4662.00,0.78
4661.00,0.78
4660.00,0.78
4659.00,0.78
4658.00,0.78
4657.00,0.78
4656.00,0.78
4655.00,0.78
4654.00,0.78
4653.00,0.78
4652.00,0.78
4651.00,0.78
4650.00,0.78
4649.00,0.78
4648.00,0.78
4647.00,0.78
4646.00,0.78
4645.00,0.78
4644.00,0.78
4643.00,0.78
4642.00,0.78
4641.00,0.78
4640.00,0.78
4639.00,0.78
4638.00,0.78
4637.00,0.78
4636.00,0.78
4635.00,0.78
4634.00,0.78
4633.00,0.78
4632.00,0.78
4631.00,0.78
4630.00,0.78
4629.00,0.78
4628.00,0.79
4627.00,0.79
4626.00,0.79
4625.00,0.79
4624.00,0.79
4623.00,0.79
4622.00,0.80
4621.00,0.80
4620.00,0.80
4619.00,0.80
4618.00,0.81
4617.00,0.81
4616.00,0.81
4615.00,0.81
4614.00,0.81
4613.00,0.81
4612.00,0.82
4611.00,0.82
4610.00,0.82
4609.00,0.82
4608.00,0.82
4607.00,0.82
4606.00,0.82
4605.00,0.83
4604.00,0.83
4603.00,0.83
4602.00,0.83
4601.00,0.83
4600.00,0.83
4599.00,0.83
4598.00,0.83
4597.00,0.83
4596.00,0.83
4595.00,0.83
4594.00,0.83
4593.00,0.83
4592.00,0.84
4591.00,0.84
4590.00,0.84
4589.00,0.84
4588.00,0.84
4587.00,0.84
4586.00,0.84
4585.00,0.84
4584.00,0.84
4583.00,0.84
4582.00,0.84
4581.00,0.84
4580.00,0.84
4579.00,0.84
4578.00,0.84
4577.00,0.84
4576.00,0.84
4575.00,0.84
4574.00,0.84
4573.00,0.84
4572.00,0.84
4571.00,0.84
4570.00,0.84
4569.00,0.84
4568.00,0.84
4567.00,0.84
4566.00,0.84
4565.00,0.84
4564.00,0.84
4563.00,0.84
4562.00,0.84
4561.00,0.84
4560.00,0.84
4559.00,0.84
4558.00,0.84
4557.00,0.84
4556.00,0.84
4555.00,0.85
4554.00,0.85
4553.00,0.85
4552.00,0.85
4551.00,0.85
4550.00,0.85
4549.00,0.85
4548.00,0.85
4547.00,0.85
4546.00,0.85
4545.00,0.85
4544.00,0.85
4543.00,0.85
4542.00,0.86
4541.00,0.86
4540.00,0.86
4539.00,0.86
4538.00,0.86
4537.00,0.86
4536.00,0.86
4535.00,0.86
4534.00,0.86
4533.00,0.86
4532.00,0.86
4531.00,0.86
4530.00,0.86
4529.00,0.86
4528.00,0.86
4527.00,0.87
4526.00,0.87
4525.00,0.87
4524.00,0.87
4523.00,0.87
4522.00,0.87
4521.00,0.87
4520.00,0.87
4519.00,0.88
4518.00,0.88
4517.00,0.88
4516.00,0.88
4515.00,0.88
4514.00,0.88
4513.00,0.88
4512.00,0.89
4511.00,0.89
4510.00,0.89
4509.00,0.89
4508.00,0.89
4507.00,0.89
4506.00,0.90
4505.00,0.90
4504.00,0.90
4503.00,0.90
4502.00,0.90
4501.00,0.90
4500.00,0.90
4499.00,0.90
4498.00,0.90
4497.00,0.90
4496.00,0.90
4495.00,0.90
4494.00,0.90
4493.00,0.90
4492.00,0.89
4491.00,0.89
4490.00,0.89
4489.00,0.89
4488.00,0.89
4487.00,0.88
4486.00,0.88
4485.00,0.88
4484.00,0.88
4483.00,0.88
4482.00,0.87
4481.00,0.87
4480.00,0.87
4479.00,0.87
4478.00,0.86
4477.00,0.86
4476.00,0.86
4475.00,0.86
4474.00,0.86
4473.00,0.85
4472.00,0.85
4471.00,0.85
4470.00,0.85
4469.00,0.85
4468.00,0.85
4467.00,0.84
4466.00,0.84
4465.00,0.84
4464.00,0.84
4463.00,0.83
4462.00,0.83
4461.00,0.83
4460.00,0.83
4459.00,0.82
4458.00,0.82
4457.00,0.82
4456.00,0.82
4455.00,0.81
4454.00,0.81
4453.00,0.81
4452.00,0.81
4451.00,0.80
4450.00,0.80
4449.00,0.80
4448.00,0.80
4447.00,0.79
4446.00,0.79
4445.00,0.79
4444.00,0.78
4443.00,0.78
4442.00,0.78
4441.00,0.78
4440.00,0.77
4439.00,0.77
4438.00,0.77
4437.00,0.77
4436.00,0.76
4435.00,0.76
4434.00,0.76
4433.00,0.76
4432.00,0.75
4431.00,0.75
4430.00,0.75
4429.00,0.74
4428.00,0.74
4427.00,0.74
4426.00,0.73
4425.00,0.73
4424.00,0.73
4423.00,0.72
4422.00,0.72
4421.00,0.72
4420.00,0.72
4419.00,0.71
4418.00,0.71
4417.00,0.71
4416.00,0.71
4415.00,0.71
4414.00,0.70
4413.00,0.70
4412.00,0.70
4411.00,0.70
4410.00,0.70
4409.00,0.70
4408.00,0.69
4407.00,0.69
4406.00,0.69
4405.00,0.69
4404.00,0.69
4403.00,0.69
4402.00,0.70
4401.00,0.70
4400.00,0.70
4399.00,0.70
4398.00,0.70
4397.00,0.70
4396.00,0.70
4395.00,0.70
4394.00,0.70
4393.00,0.71
4392.00,0.71
4391.00,0.71
4390.00,0.71
4389.00,0.71
4388.00,0.71
4387.00,0.71
4386.00,0.72
4385.00,0.72
4384.00,0.72
4383.00,0.72
4382.00,0.72
4381.00,0.72
4380.00,0.72
4379.00,0.73
4378.00,0.73
4377.00,0.73
4376.00,0.73
4375.00,0.73
4374.00,0.74
4373.00,0.74
4372.00,0.74
4371.00,0.74
4370.00,0.74
4369.00,0.74
4368.00,0.75
4367.00,0.75
4366.00,0.75
4365.00,0.75
4364.00,0.75
4363.00,0.75
4362.00,0.75
4361.00,0.76
4360.00,0.76
4359.00,0.76
4358.00,0.76
4357.00,0.76
4356.00,0.76
4355.00,0.76
4354.00,0.77
4353.00,0.77
4352.00,0.77
4351.00,0.77
4350.00,0.77
4349.00,0.77
4348.00,0.77
4347.00,0.77
4346.00,0.77
4345.00,0.77
4344.00,0.77
4343.00,0.77
4342.00,0.77
4341.00,0.77
4340.00,0.77
4339.00,0.77
4338.00,0.77
4337.00,0.77
4336.00,0.78
4335.00,0.78
4334.00,0.78
4333.00,0.78
4332.00,0.78
4331.00,0.78
4330.00,0.78
4329.00,0.78
4328.00,0.78
4327.00,0.78
4326.00,0.78
4325.00,0.78
4324.00,0.78
4323.00,0.78
4322.00,0.78
4321.00,0.78
4320.00,0.78
4319.00,0.78
4318.00,0.78
4317.00,0.78
4316.00,0.78
4315.00,0.78
4314.00,0.78
4313.00,0.78
4312.00,0.78
4311.00,0.78
4310.00,0.78
4309.00,0.78
4308.00,0.78
4307.00,0.78
4306.00,0.78
4305.00,0.78
4304.00,0.78
4303.00,0.78
4302.00,0.78
4301.00,0.78
4300.00,0.78
4299.00,0.78
4298.00,0.78
4297.00,0.78
4296.00,0.78
4295.00,0.78
4294.00,0.78
4293.00,0.78
4292.00,0.78
4291.00,0.78
4290.00,0.78
4289.00,0.78
4288.00,0.78
4287.00,0.79
4286.00,0.79
4285.00,0.79
4284.00,0.79
4283.00,0.79
4282.00,0.79
4281.00,0.80
4280.00,0.80
4279.00,0.80
4278.00,0.80
4277.00,0.80
4276.00,0.80
4275.00,0.80
4274.00,0.80
4273.00,0.80
4272.00,0.80
4271.00,0.80
4270.00,0.80
4269.00,0.80
4268.00,0.80
4267.00,0.80
4266.00,0.80
4265.00,0.80
4264.00,0.80
4263.00,0.80
4262.00,0.80
4261.00,0.80
4260.00,0.80
4259.00,0.80
4258.00,0.80
4257.00,0.80
4256.00,0.80
4255.00,0.80
4254.00,0.80
4253.00,0.80
4252.00,0.80
4251.00,0.80
4250.00,0.80
4249.00,0.80
4248.00,0.80
4247.00,0.80
4246.00,0.80
4245.00,0.80
4244.00,0.80
4243.00,0.81
4242.00,0.81
4241.00,0.81
4240.00,0.81
4239.00,0.82
4238.00,0.82
4237.00,0.82
4236.00,0.82
4235.00,0.83
4234.00,0.83
4233.00,0.83
4232.00,0.84
4231.00,0.84
4230.00,0.84
4229.00,0.84
4228.00,0.85
4227.00,0.85
4226.00,0.85
4225.00,0.86
4224.00,0.86
4223.00,0.86
4222.00,0.87
4221.00,0.87
4220.00,0.87
4219.00,0.87
4218.00,0.87
4217.00,0.87
4216.00,0.87
4215.00,0.87
4214.00,0.87
4213.00,0.87
4212.00,0.87
4211.00,0.87
4210.00,0.87
4209.00,0.87
4208.00,0.87
4207.00,0.86
4206.00,0.86
4205.00,0.86
4204.00,0.86
4203.00,0.86
4202.00,0.86
4201.00,0.85
4200.00,0.85
4199.00,0.85
4198.00,0.85
4197.00,0.84
4196.00,0.84
4195.00,0.84
4194.00,0.84
4193.00,0.83
4192.00,0.83
4191.00,0.83
4190.00,0.83
4189.00,0.83
4188.00,0.83
4187.00,0.83
4186.00,0.83
4185.00,0.83
4184.00,0.82
4183.00,0.82
4182.00,0.82
4181.00,0.82
4180.00,0.82
4179.00,0.82
4178.00,0.82
4177.00,0.82
4176.00,0.82
4175.00,0.83
4174.00,0.83
4173.00,0.83
4172.00,0.83
4171.00,0.83
4170.00,0.83
4169.00,0.83
4168.00,0.83
4167.00,0.83
4166.00,0.84
4165.00,0.84
4164.00,0.84
4163.00,0.84
4162.00,0.84
4161.00,0.84
4160.00,0.84
4159.00,0.84
4158.00,0.84
4157.00,0.84
4156.00,0.84
4155.00,0.84
4154.00,0.84
4153.00,0.84
4152.00,0.84
4151.00,0.84
4150.00,0.84
4149.00,0.83
4148.00,0.83
4147.00,0.83
4146.00,0.83
4145.00,0.83
4144.00,0.83
4143.00,0.82
4142.00,0.82
4141.00,0.82
4140.00,0.82
4139.00,0.82
4138.00,0.82
4137.00,0.82
4136.00,0.82
4135.00,0.81
4134.00,0.81
4133.00,0.81
4132.00,0.81
4131.00,0.81
4130.00,0.81
4129.00,0.81
4128.00,0.81
4127.00,0.81
4126.00,0.81
4125.00,0.82
4124.00,0.82
4123.00,0.82
4122.00,0.82
4121.00,0.82
4120.00,0.82
4119.00,0.82
4118.00,0.82
4117.00,0.82
4116.00,0.83
4115.00,0.83
4114.00,0.83
4113.00,0.83
4112.00,0.83
4111.00,0.83
4110.00,0.83
4109.00,0.83
4108.00,0.83
4107.00,0.83
4106.00,0.83
4105.00,0.83
4104.00,0.83
4103.00,0.84
4102.00,0.84
4101.00,0.84
4100.00,0.84
4099.00,0.84
4098.00,0.84
4097.00,0.84
4096.00,0.84
4095.00,0.84
4094.00,0.84
4093.00,0.84
4092.00,0.84
4091.00,0.84
4090.00,0.84
4089.00,0.84
4088.00,0.84
4087.00,0.84
4086.00,0.84
4085.00,0.84
4084.00,0.84
4083.00,0.84
4082.00,0.84
4081.00,0.84
4080.00,0.85
4079.00,0.85
4078.00,0.85
4077.00,0.85
4076.00,0.85
4075.00,0.85
4074.00,0.85
4073.00,0.85
4072.00,0.85
4071.00,0.85
4070.00,0.85
4069.00,0.85
4068.00,0.85
4067.00,0.85
4066.00,0.85
4065.00,0.85
4064.00,0.86
4063.00,0.86
4062.00,0.86
4061.00,0.86
4060.00,0.86
4059.00,0.86
4058.00,0.87
4057.00,0.87
4056.00,0.87
4055.00,0.87
4054.00,0.87
4053.00,0.87
4052.00,0.88
4051.00,0.88
4050.00,0.88
4049.00,0.88
4048.00,0.89
4047.00,0.89
4046.00,0.89
4045.00,0.89
4044.00,0.89
4043.00,0.90
4042.00,0.90
4041.00,0.90
4040.00,0.91
4039.00,0.91
4038.00,0.91
4037.00,0.91
4036.00,0.91
4035.00,0.91
4034.00,0.92
4033.00,0.92
4032.00,0.92
4031.00,0.92
4030.00,0.92
4029.00,0.92
4028.00,0.92
4027.00,0.92
4026.00,0.92
4025.00,0.93
4024.00,0.93
4023.00,0.93
4022.00,0.93
4021.00,0.93
4020.00,0.93
4019.00,0.93
4018.00,0.93
4017.00,0.93
4016.00,0.93
4015.00,0.93
4014.00,0.93
4013.00,0.93
4012.00,0.93
4011.00,0.93
4010.00,0.93
4009.00,0.94
4008.00,0.94
4007.00,0.94
4006.00,0.94
4005.00,0.94
4004.00,0.94
4003.00,0.94
4002.00,0.94
4001.00,0.94
4000.00,0.95
