创建为新数据集,样品 034 用户 Administrator 日期 星期五, 七月 26 2019
cm-1,%T
10000.00,0.41
9999.00,0.43
9998.00,0.46
9997.00,0.49
9996.00,0.52
9995.00,0.55
9994.00,0.57
9993.00,0.60
9992.00,0.63
9991.00,0.65
9990.00,0.68
9989.00,0.70
9988.00,0.72
9987.00,0.74
9986.00,0.76
9985.00,0.78
9984.00,0.79
9983.00,0.81
9982.00,0.82
9981.00,0.83
9980.00,0.85
9979.00,0.86
9978.00,0.87
9977.00,0.88
9976.00,0.89
9975.00,0.90
9974.00,0.90
9973.00,0.91
9972.00,0.92
9971.00,0.92
9970.00,0.93
9969.00,0.93
9968.00,0.94
9967.00,0.94
9966.00,0.94
9965.00,0.95
9964.00,0.95
9963.00,0.95
9962.00,0.95
9961.00,0.95
9960.00,0.95
9959.00,0.95
9958.00,0.95
9957.00,0.95
9956.00,0.94
9955.00,0.94
9954.00,0.94
9953.00,0.93
9952.00,0.93
9951.00,0.92
9950.00,0.92
9949.00,0.91
9948.00,0.90
9947.00,0.89
9946.00,0.89
9945.00,0.88
9944.00,0.87
9943.00,0.86
9942.00,0.85
9941.00,0.85
9940.00,0.84
9939.00,0.83
9938.00,0.83
9937.00,0.82
9936.00,0.81
9935.00,0.81
9934.00,0.80
9933.00,0.79
9932.00,0.79
9931.00,0.78
9930.00,0.78
9929.00,0.77
9928.00,0.77
9927.00,0.76
9926.00,0.76
9925.00,0.75
9924.00,0.75
9923.00,0.75
9922.00,0.75
9921.00,0.75
9920.00,0.75
9919.00,0.75
9918.00,0.75
9917.00,0.76
9916.00,0.76
9915.00,0.76
9914.00,0.77
9913.00,0.77
9912.00,0.77
9911.00,0.78
9910.00,0.78
9909.00,0.78
9908.00,0.79
9907.00,0.79
9906.00,0.80
9905.00,0.80
9904.00,0.81
9903.00,0.81
9902.00,0.82
9901.00,0.82
9900.00,0.83
9899.00,0.83
9898.00,0.84
9897.00,0.84
9896.00,0.84
9895.00,0.84
9894.00,0.84
9893.00,0.84
9892.00,0.84
9891.00,0.84
9890.00,0.84
9889.00,0.84
9888.00,0.83
9887.00,0.83
9886.00,0.83
9885.00,0.83
9884.00,0.83
9883.00,0.83
9882.00,0.82
9881.00,0.82
9880.00,0.82
9879.00,0.82
9878.00,0.81
9877.00,0.81
9876.00,0.80
9875.00,0.80
9874.00,0.80
9873.00,0.79
9872.00,0.79
9871.00,0.78
9870.00,0.78
9869.00,0.78
9868.00,0.78
9867.00,0.77
9866.00,0.77
9865.00,0.77
9864.00,0.77
9863.00,0.77
9862.00,0.77
9861.00,0.77
9860.00,0.77
9859.00,0.77
9858.00,0.77
9857.00,0.77
9856.00,0.76
9855.00,0.76
9854.00,0.76
9853.00,0.76
9852.00,0.76
9851.00,0.76
9850.00,0.76
9849.00,0.76
9848.00,0.76
9847.00,0.76
9846.00,0.76
9845.00,0.76
9844.00,0.76
9843.00,0.76
9842.00,0.76
9841.00,0.76
9840.00,0.76
9839.00,0.76
9838.00,0.76
9837.00,0.76
9836.00,0.76
9835.00,0.76
9834.00,0.76
9833.00,0.76
9832.00,0.76
9831.00,0.76
9830.00,0.75
9829.00,0.75
9828.00,0.75
9827.00,0.75
9826.00,0.75
9825.00,0.75
9824.00,0.75
9823.00,0.75
9822.00,0.75
9821.00,0.75
9820.00,0.75
9819.00,0.75
9818.00,0.75
9817.00,0.75
9816.00,0.75
9815.00,0.75
9814.00,0.75
9813.00,0.74
9812.00,0.74
9811.00,0.74
9810.00,0.74
9809.00,0.74
9808.00,0.73
9807.00,0.73
9806.00,0.73
9805.00,0.73
9804.00,0.73
9803.00,0.72
9802.00,0.72
9801.00,0.72
9800.00,0.72
9799.00,0.72
9798.00,0.72
9797.00,0.72
9796.00,0.72
9795.00,0.72
9794.00,0.72
9793.00,0.72
9792.00,0.72
9791.00,0.71
9790.00,0.71
9789.00,0.71
9788.00,0.71
9787.00,0.71
9786.00,0.71
9785.00,0.71
9784.00,0.71
9783.00,0.71
9782.00,0.71
9781.00,0.71
9780.00,0.71
9779.00,0.71
9778.00,0.71
9777.00,0.71
9776.00,0.71
9775.00,0.71
9774.00,0.70
9773.00,0.70
9772.00,0.69
9771.00,0.69
9770.00,0.68
9769.00,0.68
9768.00,0.67
9767.00,0.67
9766.00,0.66
9765.00,0.66
9764.00,0.66
9763.00,0.65
9762.00,0.65
9761.00,0.65
9760.00,0.64
9759.00,0.64
9758.00,0.64
9757.00,0.63
9756.00,0.63
9755.00,0.63
9754.00,0.62
9753.00,0.62
9752.00,0.62
9751.00,0.61
9750.00,0.61
9749.00,0.61
9748.00,0.61
9747.00,0.61
9746.00,0.62
9745.00,0.62
9744.00,0.62
9743.00,0.63
9742.00,0.63
9741.00,0.64
9740.00,0.64
9739.00,0.64
9738.00,0.65
9737.00,0.65
9736.00,0.65
9735.00,0.65
9734.00,0.65
9733.00,0.66
9732.00,0.66
9731.00,0.66
9730.00,0.66
9729.00,0.67
9728.00,0.67
9727.00,0.67
9726.00,0.67
9725.00,0.68
9724.00,0.68
9723.00,0.68
9722.00,0.69
9721.00,0.69
9720.00,0.69
9719.00,0.70
9718.00,0.70
9717.00,0.70
9716.00,0.70
9715.00,0.71
9714.00,0.71
9713.00,0.72
9712.00,0.72
9711.00,0.72
9710.00,0.73
9709.00,0.73
9708.00,0.74
9707.00,0.74
9706.00,0.74
9705.00,0.75
9704.00,0.75
9703.00,0.75
9702.00,0.75
9701.00,0.76
9700.00,0.76
9699.00,0.76
9698.00,0.76
9697.00,0.76
9696.00,0.76
9695.00,0.77
9694.00,0.77
9693.00,0.77
9692.00,0.77
9691.00,0.77
9690.00,0.76
9689.00,0.76
9688.00,0.76
9687.00,0.76
9686.00,0.76
9685.00,0.75
9684.00,0.75
9683.00,0.75
9682.00,0.75
9681.00,0.74
9680.00,0.74
9679.00,0.74
9678.00,0.74
9677.00,0.73
9676.00,0.73
9675.00,0.73
9674.00,0.72
9673.00,0.72
9672.00,0.72
9671.00,0.71
9670.00,0.71
9669.00,0.70
9668.00,0.70
9667.00,0.70
9666.00,0.69
9665.00,0.69
9664.00,0.69
9663.00,0.69
9662.00,0.68
9661.00,0.68
9660.00,0.68
9659.00,0.68
9658.00,0.68
9657.00,0.68
9656.00,0.68
9655.00,0.68
9654.00,0.68
9653.00,0.69
9652.00,0.69
9651.00,0.69
9650.00,0.69
9649.00,0.70
9648.00,0.70
9647.00,0.71
9646.00,0.71
9645.00,0.72
9644.00,0.72
9643.00,0.73
9642.00,0.73
9641.00,0.73
9640.00,0.74
9639.00,0.74
9638.00,0.75
9637.00,0.75
9636.00,0.75
9635.00,0.75
9634.00,0.75
9633.00,0.75
9632.00,0.75
9631.00,0.75
9630.00,0.75
9629.00,0.75
9628.00,0.75
9627.00,0.74
9626.00,0.74
9625.00,0.74
9624.00,0.74
9623.00,0.73
9622.00,0.73
9621.00,0.72
9620.00,0.72
9619.00,0.71
9618.00,0.71
9617.00,0.70
9616.00,0.70
9615.00,0.69
9614.00,0.68
9613.00,0.68
9612.00,0.67
9611.00,0.67
9610.00,0.66
9609.00,0.66
9608.00,0.66
9607.00,0.65
9606.00,0.65
9605.00,0.65
9604.00,0.65
9603.00,0.65
9602.00,0.65
9601.00,0.64
9600.00,0.64
9599.00,0.64
9598.00,0.64
9597.00,0.64
9596.00,0.64
9595.00,0.64
9594.00,0.65
9593.00,0.65
9592.00,0.65
9591.00,0.66
9590.00,0.66
9589.00,0.67
9588.00,0.67
9587.00,0.68
9586.00,0.69
9585.00,0.69
9584.00,0.70
9583.00,0.71
9582.00,0.71
9581.00,0.72
9580.00,0.73
9579.00,0.74
9578.00,0.74
9577.00,0.75
9576.00,0.76
9575.00,0.77
9574.00,0.77
9573.00,0.78
9572.00,0.79
9571.00,0.79
9570.00,0.80
9569.00,0.80
9568.00,0.81
9567.00,0.81
9566.00,0.81
9565.00,0.81
9564.00,0.82
9563.00,0.82
9562.00,0.82
9561.00,0.81
9560.00,0.81
9559.00,0.81
9558.00,0.80
9557.00,0.80
9556.00,0.79
9555.00,0.79
9554.00,0.78
9553.00,0.77
9552.00,0.76
9551.00,0.75
9550.00,0.74
9549.00,0.73
9548.00,0.72
9547.00,0.71
9546.00,0.70
9545.00,0.69
9544.00,0.68
9543.00,0.68
9542.00,0.67
9541.00,0.66
9540.00,0.65
9539.00,0.65
9538.00,0.64
9537.00,0.63
9536.00,0.63
9535.00,0.62
9534.00,0.62
9533.00,0.61
9532.00,0.61
9531.00,0.61
9530.00,0.61
9529.00,0.61
9528.00,0.61
9527.00,0.61
9526.00,0.61
9525.00,0.62
9524.00,0.62
9523.00,0.63
9522.00,0.63
9521.00,0.64
9520.00,0.65
9519.00,0.65
9518.00,0.66
9517.00,0.66
9516.00,0.67
9515.00,0.67
9514.00,0.68
9513.00,0.68
9512.00,0.68
9511.00,0.69
9510.00,0.69
9509.00,0.69
9508.00,0.70
9507.00,0.70
9506.00,0.70
9505.00,0.71
9504.00,0.71
9503.00,0.71
9502.00,0.71
9501.00,0.71
9500.00,0.71
9499.00,0.71
9498.00,0.70
9497.00,0.70
9496.00,0.70
9495.00,0.69
9494.00,0.69
9493.00,0.68
9492.00,0.68
9491.00,0.67
9490.00,0.67
9489.00,0.66
9488.00,0.66
9487.00,0.66
9486.00,0.66
9485.00,0.66
9484.00,0.66
9483.00,0.66
9482.00,0.66
9481.00,0.66
9480.00,0.66
9479.00,0.66
9478.00,0.66
9477.00,0.66
9476.00,0.66
9475.00,0.66
9474.00,0.66
9473.00,0.66
9472.00,0.67
9471.00,0.67
9470.00,0.68
9469.00,0.68
9468.00,0.68
9467.00,0.69
9466.00,0.69
9465.00,0.70
9464.00,0.71
9463.00,0.71
9462.00,0.72
9461.00,0.72
9460.00,0.72
9459.00,0.73
9458.00,0.73
9457.00,0.73
9456.00,0.74
9455.00,0.74
9454.00,0.74
9453.00,0.74
9452.00,0.74
9451.00,0.74
9450.00,0.74
9449.00,0.75
9448.00,0.75
9447.00,0.75
9446.00,0.75
9445.00,0.76
9444.00,0.76
9443.00,0.76
9442.00,0.76
9441.00,0.77
9440.00,0.77
9439.00,0.77
9438.00,0.77
9437.00,0.77
9436.00,0.77
9435.00,0.77
9434.00,0.77
9433.00,0.77
9432.00,0.77
9431.00,0.77
9430.00,0.78
9429.00,0.78
9428.00,0.78
9427.00,0.78
9426.00,0.79
9425.00,0.79
9424.00,0.79
9423.00,0.79
9422.00,0.79
9421.00,0.79
9420.00,0.79
9419.00,0.79
9418.00,0.79
9417.00,0.79
9416.00,0.79
9415.00,0.79
9414.00,0.79
9413.00,0.79
9412.00,0.79
9411.00,0.79
9410.00,0.79
9409.00,0.78
9408.00,0.78
9407.00,0.78
9406.00,0.78
9405.00,0.78
9404.00,0.78
9403.00,0.79
9402.00,0.79
9401.00,0.79
9400.00,0.79
9399.00,0.79
9398.00,0.79
9397.00,0.79
9396.00,0.80
9395.00,0.80
9394.00,0.80
9393.00,0.80
9392.00,0.81
9391.00,0.81
9390.00,0.81
9389.00,0.82
9388.00,0.82
9387.00,0.82
9386.00,0.83
9385.00,0.83
9384.00,0.83
9383.00,0.84
9382.00,0.84
9381.00,0.84
9380.00,0.84
9379.00,0.84
9378.00,0.84
9377.00,0.84
9376.00,0.83
9375.00,0.83
9374.00,0.83
9373.00,0.82
9372.00,0.81
9371.00,0.81
9370.00,0.80
9369.00,0.80
9368.00,0.79
9367.00,0.79
9366.00,0.78
9365.00,0.78
9364.00,0.77
9363.00,0.77
9362.00,0.76
9361.00,0.75
9360.00,0.75
9359.00,0.74
9358.00,0.73
9357.00,0.73
9356.00,0.72
9355.00,0.71
9354.00,0.71
9353.00,0.70
9352.00,0.70
9351.00,0.69
9350.00,0.69
9349.00,0.69
9348.00,0.69
9347.00,0.69
9346.00,0.68
9345.00,0.68
9344.00,0.68
9343.00,0.68
9342.00,0.68
9341.00,0.67
9340.00,0.67
9339.00,0.67
9338.00,0.66
9337.00,0.66
9336.00,0.66
9335.00,0.66
9334.00,0.65
9333.00,0.65
9332.00,0.65
9331.00,0.65
9330.00,0.64
9329.00,0.64
9328.00,0.64
9327.00,0.64
9326.00,0.64
9325.00,0.64
9324.00,0.64
9323.00,0.63
9322.00,0.63
9321.00,0.63
9320.00,0.63
9319.00,0.63
9318.00,0.64
9317.00,0.64
9316.00,0.64
9315.00,0.64
9314.00,0.65
9313.00,0.65
9312.00,0.66
9311.00,0.66
9310.00,0.67
9309.00,0.68
9308.00,0.68
9307.00,0.69
9306.00,0.70
9305.00,0.71
9304.00,0.72
9303.00,0.73
9302.00,0.74
9301.00,0.75
9300.00,0.75
9299.00,0.76
9298.00,0.77
9297.00,0.78
9296.00,0.79
9295.00,0.80
9294.00,0.80
9293.00,0.81
9292.00,0.82
9291.00,0.82
9290.00,0.82
9289.00,0.83
9288.00,0.83
9287.00,0.83
9286.00,0.83
9285.00,0.83
9284.00,0.83
9283.00,0.83
9282.00,0.83
9281.00,0.82
9280.00,0.82
9279.00,0.82
9278.00,0.81
9277.00,0.81
9276.00,0.80
9275.00,0.80
9274.00,0.79
9273.00,0.78
9272.00,0.78
9271.00,0.77
9270.00,0.76
9269.00,0.76
9268.00,0.75
9267.00,0.75
9266.00,0.74
9265.00,0.74
9264.00,0.74
9263.00,0.73
9262.00,0.73
9261.00,0.73
9260.00,0.72
9259.00,0.72
9258.00,0.72
9257.00,0.72
9256.00,0.72
9255.00,0.72
9254.00,0.72
9253.00,0.71
9252.00,0.71
9251.00,0.71
9250.00,0.71
9249.00,0.71
9248.00,0.71
9247.00,0.71
9246.00,0.71
9245.00,0.70
9244.00,0.70
9243.00,0.70
9242.00,0.70
9241.00,0.70
9240.00,0.70
9239.00,0.69
9238.00,0.69
9237.00,0.69
9236.00,0.69
9235.00,0.68
9234.00,0.68
9233.00,0.68
9232.00,0.67
9231.00,0.67
9230.00,0.67
9229.00,0.67
9228.00,0.66
9227.00,0.66
9226.00,0.66
9225.00,0.66
9224.00,0.66
9223.00,0.65
9222.00,0.65
9221.00,0.65
9220.00,0.65
9219.00,0.65
9218.00,0.65
9217.00,0.65
9216.00,0.66
9215.00,0.66
9214.00,0.66
9213.00,0.67
9212.00,0.67
9211.00,0.67
9210.00,0.68
9209.00,0.68
9208.00,0.69
9207.00,0.69
9206.00,0.70
9205.00,0.70
9204.00,0.71
9203.00,0.71
9202.00,0.72
9201.00,0.72
9200.00,0.73
9199.00,0.73
9198.00,0.73
9197.00,0.74
9196.00,0.74
9195.00,0.74
9194.00,0.75
9193.00,0.75
9192.00,0.75
9191.00,0.75
9190.00,0.75
9189.00,0.75
9188.00,0.75
9187.00,0.75
9186.00,0.75
9185.00,0.75
9184.00,0.75
9183.00,0.74
9182.00,0.74
9181.00,0.74
9180.00,0.74
9179.00,0.74
9178.00,0.74
9177.00,0.74
9176.00,0.74
9175.00,0.74
9174.00,0.74
9173.00,0.74
9172.00,0.74
9171.00,0.74
9170.00,0.74
9169.00,0.74
9168.00,0.74
9167.00,0.74
9166.00,0.74
9165.00,0.74
9164.00,0.74
9163.00,0.75
9162.00,0.75
9161.00,0.75
9160.00,0.75
9159.00,0.75
9158.00,0.76
9157.00,0.76
9156.00,0.76
9155.00,0.76
9154.00,0.76
9153.00,0.76
9152.00,0.76
9151.00,0.76
9150.00,0.76
9149.00,0.76
9148.00,0.76
9147.00,0.76
9146.00,0.76
9145.00,0.76
9144.00,0.77
9143.00,0.77
9142.00,0.77
9141.00,0.77
9140.00,0.78
9139.00,0.78
9138.00,0.78
9137.00,0.78
9136.00,0.78
9135.00,0.78
9134.00,0.78
9133.00,0.78
9132.00,0.78
9131.00,0.78
9130.00,0.78
9129.00,0.78
9128.00,0.78
9127.00,0.78
9126.00,0.78
9125.00,0.78
9124.00,0.78
9123.00,0.77
9122.00,0.77
9121.00,0.77
9120.00,0.77
9119.00,0.76
9118.00,0.76
9117.00,0.75
9116.00,0.75
9115.00,0.74
9114.00,0.74
9113.00,0.73
9112.00,0.73
9111.00,0.73
9110.00,0.72
9109.00,0.72
9108.00,0.72
9107.00,0.72
9106.00,0.72
9105.00,0.72
9104.00,0.72
9103.00,0.72
9102.00,0.72
9101.00,0.73
9100.00,0.73
9099.00,0.73
9098.00,0.73
9097.00,0.73
9096.00,0.74
9095.00,0.74
9094.00,0.75
9093.00,0.75
9092.00,0.76
9091.00,0.76
9090.00,0.76
9089.00,0.77
9088.00,0.77
9087.00,0.78
9086.00,0.78
9085.00,0.78
9084.00,0.79
9083.00,0.79
9082.00,0.79
9081.00,0.79
9080.00,0.79
9079.00,0.79
9078.00,0.79
9077.00,0.79
9076.00,0.79
9075.00,0.79
9074.00,0.79
9073.00,0.79
9072.00,0.79
9071.00,0.79
9070.00,0.79
9069.00,0.79
9068.00,0.79
9067.00,0.79
9066.00,0.79
9065.00,0.79
9064.00,0.78
9063.00,0.78
9062.00,0.78
9061.00,0.77
9060.00,0.77
9059.00,0.76
9058.00,0.76
9057.00,0.75
9056.00,0.75
9055.00,0.74
9054.00,0.74
9053.00,0.73
9052.00,0.73
9051.00,0.72
9050.00,0.71
9049.00,0.70
9048.00,0.70
9047.00,0.69
9046.00,0.68
9045.00,0.67
9044.00,0.66
9043.00,0.65
9042.00,0.65
9041.00,0.64
9040.00,0.63
9039.00,0.63
9038.00,0.62
9037.00,0.62
9036.00,0.62
9035.00,0.61
9034.00,0.61
9033.00,0.61
9032.00,0.61
9031.00,0.61
9030.00,0.61
9029.00,0.61
9028.00,0.61
9027.00,0.62
9026.00,0.62
9025.00,0.63
9024.00,0.63
9023.00,0.64
9022.00,0.65
9021.00,0.66
9020.00,0.66
9019.00,0.67
9018.00,0.68
9017.00,0.69
9016.00,0.69
9015.00,0.70
9014.00,0.71
9013.00,0.72
9012.00,0.73
9011.00,0.74
9010.00,0.75
9009.00,0.76
9008.00,0.77
9007.00,0.78
9006.00,0.79
9005.00,0.79
9004.00,0.80
9003.00,0.81
9002.00,0.81
9001.00,0.82
9000.00,0.82
8999.00,0.83
8998.00,0.83
8997.00,0.83
8996.00,0.83
8995.00,0.84
8994.00,0.84
8993.00,0.84
8992.00,0.85
8991.00,0.85
8990.00,0.85
8989.00,0.85
8988.00,0.86
8987.00,0.86
8986.00,0.86
8985.00,0.86
8984.00,0.86
8983.00,0.86
8982.00,0.85
8981.00,0.85
8980.00,0.85
8979.00,0.85
8978.00,0.85
8977.00,0.84
8976.00,0.84
8975.00,0.84
8974.00,0.84
8973.00,0.84
8972.00,0.84
8971.00,0.83
8970.00,0.83
8969.00,0.83
8968.00,0.83
8967.00,0.82
8966.00,0.82
8965.00,0.81
8964.00,0.81
8963.00,0.81
8962.00,0.80
8961.00,0.80
8960.00,0.79
8959.00,0.79
8958.00,0.79
8957.00,0.79
8956.00,0.79
8955.00,0.78
8954.00,0.78
8953.00,0.78
8952.00,0.78
8951.00,0.78
8950.00,0.78
8949.00,0.78
8948.00,0.78
8947.00,0.78
8946.00,0.78
8945.00,0.78
8944.00,0.78
8943.00,0.78
8942.00,0.78
8941.00,0.78
8940.00,0.78
8939.00,0.78
8938.00,0.78
8937.00,0.78
8936.00,0.78
8935.00,0.78
8934.00,0.78
8933.00,0.78
8932.00,0.77
8931.00,0.77
8930.00,0.77
8929.00,0.77
8928.00,0.77
8927.00,0.77
8926.00,0.77
8925.00,0.76
8924.00,0.76
8923.00,0.76
8922.00,0.76
8921.00,0.76
8920.00,0.75
8919.00,0.75
8918.00,0.75
8917.00,0.75
8916.00,0.75
8915.00,0.75
8914.00,0.75
8913.00,0.75
8912.00,0.75
8911.00,0.75
8910.00,0.75
8909.00,0.75
8908.00,0.75
8907.00,0.75
8906.00,0.75
8905.00,0.76
8904.00,0.76
8903.00,0.76
8902.00,0.76
8901.00,0.76
8900.00,0.76
8899.00,0.76
8898.00,0.77
8897.00,0.77
8896.00,0.77
8895.00,0.77
8894.00,0.77
8893.00,0.77
8892.00,0.77
8891.00,0.77
8890.00,0.77
8889.00,0.77
8888.00,0.77
8887.00,0.78
8886.00,0.78
8885.00,0.78
8884.00,0.78
8883.00,0.78
8882.00,0.78
8881.00,0.78
8880.00,0.79
8879.00,0.79
8878.00,0.79
8877.00,0.79
8876.00,0.78
8875.00,0.78
8874.00,0.78
8873.00,0.78
8872.00,0.78
8871.00,0.78
8870.00,0.77
8869.00,0.77
8868.00,0.77
8867.00,0.77
8866.00,0.77
8865.00,0.77
8864.00,0.76
8863.00,0.76
8862.00,0.76
8861.00,0.76
8860.00,0.75
8859.00,0.75
8858.00,0.75
8857.00,0.74
8856.00,0.74
8855.00,0.74
8854.00,0.73
8853.00,0.73
8852.00,0.73
8851.00,0.72
8850.00,0.72
8849.00,0.72
8848.00,0.72
8847.00,0.72
8846.00,0.72
8845.00,0.72
8844.00,0.72
8843.00,0.72
8842.00,0.72
8841.00,0.72
8840.00,0.72
8839.00,0.72
8838.00,0.72
8837.00,0.72
8836.00,0.72
8835.00,0.72
8834.00,0.73
8833.00,0.73
8832.00,0.73
8831.00,0.73
8830.00,0.73
8829.00,0.74
8828.00,0.74
8827.00,0.74
8826.00,0.75
8825.00,0.75
8824.00,0.75
8823.00,0.76
8822.00,0.76
8821.00,0.76
8820.00,0.76
8819.00,0.77
8818.00,0.77
8817.00,0.77
8816.00,0.77
8815.00,0.78
8814.00,0.78
8813.00,0.78
8812.00,0.78
8811.00,0.78
8810.00,0.79
8809.00,0.79
8808.00,0.79
8807.00,0.79
8806.00,0.79
8805.00,0.80
8804.00,0.80
8803.00,0.80
8802.00,0.80
8801.00,0.80
8800.00,0.80
8799.00,0.80
8798.00,0.80
8797.00,0.79
8796.00,0.79
8795.00,0.79
8794.00,0.79
8793.00,0.79
8792.00,0.78
8791.00,0.78
8790.00,0.78
8789.00,0.78
8788.00,0.78
8787.00,0.78
8786.00,0.78
8785.00,0.77
8784.00,0.77
8783.00,0.77
8782.00,0.77
8781.00,0.77
8780.00,0.76
8779.00,0.76
8778.00,0.76
8777.00,0.76
8776.00,0.76
8775.00,0.76
8774.00,0.76
8773.00,0.76
8772.00,0.76
8771.00,0.76
8770.00,0.76
8769.00,0.76
8768.00,0.76
8767.00,0.76
8766.00,0.76
8765.00,0.76
8764.00,0.76
8763.00,0.76
8762.00,0.76
8761.00,0.76
8760.00,0.76
8759.00,0.76
8758.00,0.77
8757.00,0.77
8756.00,0.77
8755.00,0.77
8754.00,0.77
8753.00,0.78
8752.00,0.78
8751.00,0.78
8750.00,0.78
8749.00,0.79
8748.00,0.79
8747.00,0.79
8746.00,0.79
8745.00,0.79
8744.00,0.79
8743.00,0.80
8742.00,0.80
8741.00,0.80
8740.00,0.80
8739.00,0.80
8738.00,0.80
8737.00,0.81
8736.00,0.81
8735.00,0.81
8734.00,0.81
8733.00,0.81
8732.00,0.82
8731.00,0.82
8730.00,0.82
8729.00,0.82
8728.00,0.81
8727.00,0.81
8726.00,0.81
8725.00,0.81
8724.00,0.81
8723.00,0.81
8722.00,0.80
8721.00,0.80
8720.00,0.80
8719.00,0.80
8718.00,0.80
8717.00,0.80
8716.00,0.80
8715.00,0.80
8714.00,0.79
8713.00,0.79
8712.00,0.79
8711.00,0.79
8710.00,0.78
8709.00,0.78
8708.00,0.78
8707.00,0.78
8706.00,0.77
8705.00,0.77
8704.00,0.77
8703.00,0.77
8702.00,0.76
8701.00,0.76
8700.00,0.76
8699.00,0.76
8698.00,0.76
8697.00,0.76
8696.00,0.75
8695.00,0.75
8694.00,0.75
8693.00,0.75
8692.00,0.75
8691.00,0.75
8690.00,0.74
8689.00,0.74
8688.00,0.74
8687.00,0.74
8686.00,0.75
8685.00,0.75
8684.00,0.75
8683.00,0.75
8682.00,0.75
8681.00,0.76
8680.00,0.76
8679.00,0.76
8678.00,0.77
8677.00,0.77
8676.00,0.78
8675.00,0.78
8674.00,0.78
8673.00,0.79
8672.00,0.79
8671.00,0.79
8670.00,0.80
8669.00,0.80
8668.00,0.81
8667.00,0.81
8666.00,0.82
8665.00,0.82
8664.00,0.82
8663.00,0.83
8662.00,0.83
8661.00,0.83
8660.00,0.83
8659.00,0.83
8658.00,0.83
8657.00,0.83
8656.00,0.83
8655.00,0.83
8654.00,0.83
8653.00,0.82
8652.00,0.82
8651.00,0.81
8650.00,0.81
8649.00,0.81
8648.00,0.80
8647.00,0.80
8646.00,0.79
8645.00,0.79
8644.00,0.78
8643.00,0.78
8642.00,0.78
8641.00,0.77
8640.00,0.77
8639.00,0.77
8638.00,0.76
8637.00,0.76
8636.00,0.76
8635.00,0.75
8634.00,0.75
8633.00,0.75
8632.00,0.75
8631.00,0.75
8630.00,0.75
8629.00,0.75
8628.00,0.75
8627.00,0.75
8626.00,0.75
8625.00,0.75
8624.00,0.75
8623.00,0.75
8622.00,0.75
8621.00,0.76
8620.00,0.76
8619.00,0.76
8618.00,0.76
8617.00,0.76
8616.00,0.76
8615.00,0.76
8614.00,0.76
8613.00,0.76
8612.00,0.76
8611.00,0.75
8610.00,0.75
8609.00,0.75
8608.00,0.75
8607.00,0.75
8606.00,0.75
8605.00,0.75
8604.00,0.75
8603.00,0.75
8602.00,0.75
8601.00,0.75
8600.00,0.75
8599.00,0.75
8598.00,0.74
8597.00,0.74
8596.00,0.74
8595.00,0.74
8594.00,0.74
8593.00,0.74
8592.00,0.75
8591.00,0.75
8590.00,0.75
8589.00,0.75
8588.00,0.75
8587.00,0.76
8586.00,0.76
8585.00,0.76
8584.00,0.76
8583.00,0.77
8582.00,0.77
8581.00,0.77
8580.00,0.77
8579.00,0.77
8578.00,0.78
8577.00,0.78
8576.00,0.78
8575.00,0.79
8574.00,0.79
8573.00,0.79
8572.00,0.80
8571.00,0.80
8570.00,0.81
8569.00,0.81
8568.00,0.82
8567.00,0.82
8566.00,0.83
8565.00,0.83
8564.00,0.83
8563.00,0.84
8562.00,0.84
8561.00,0.84
8560.00,0.85
8559.00,0.85
8558.00,0.85
8557.00,0.85
8556.00,0.86
8555.00,0.86
8554.00,0.86
8553.00,0.87
8552.00,0.87
8551.00,0.87
8550.00,0.87
8549.00,0.87
8548.00,0.87
8547.00,0.87
8546.00,0.87
8545.00,0.87
8544.00,0.87
8543.00,0.87
8542.00,0.87
8541.00,0.86
8540.00,0.86
8539.00,0.86
8538.00,0.86
8537.00,0.86
8536.00,0.86
8535.00,0.86
8534.00,0.85
8533.00,0.85
8532.00,0.85
8531.00,0.85
8530.00,0.85
8529.00,0.85
8528.00,0.84
8527.00,0.84
8526.00,0.84
8525.00,0.84
8524.00,0.84
8523.00,0.83
8522.00,0.83
8521.00,0.83
8520.00,0.83
8519.00,0.82
8518.00,0.82
8517.00,0.82
8516.00,0.82
8515.00,0.81
8514.00,0.81
8513.00,0.81
8512.00,0.80
8511.00,0.80
8510.00,0.79
8509.00,0.79
8508.00,0.78
8507.00,0.78
8506.00,0.77
8505.00,0.76
8504.00,0.76
8503.00,0.75
8502.00,0.75
8501.00,0.74
8500.00,0.74
8499.00,0.73
8498.00,0.73
8497.00,0.72
8496.00,0.72
8495.00,0.72
8494.00,0.71
8493.00,0.71
8492.00,0.71
8491.00,0.70
8490.00,0.70
8489.00,0.70
8488.00,0.69
8487.00,0.69
8486.00,0.69
8485.00,0.69
8484.00,0.69
8483.00,0.69
8482.00,0.69
8481.00,0.69
8480.00,0.69
8479.00,0.69
8478.00,0.69
8477.00,0.69
8476.00,0.69
8475.00,0.70
8474.00,0.70
8473.00,0.70
8472.00,0.70
8471.00,0.71
8470.00,0.71
8469.00,0.71
8468.00,0.71
8467.00,0.72
8466.00,0.72
8465.00,0.72
8464.00,0.72
8463.00,0.73
8462.00,0.73
8461.00,0.73
8460.00,0.74
8459.00,0.74
8458.00,0.75
8457.00,0.75
8456.00,0.76
8455.00,0.76
8454.00,0.77
8453.00,0.77
8452.00,0.78
8451.00,0.78
8450.00,0.78
8449.00,0.78
8448.00,0.79
8447.00,0.79
8446.00,0.79
8445.00,0.79
8444.00,0.79
8443.00,0.79
8442.00,0.79
8441.00,0.79
8440.00,0.78
8439.00,0.78
8438.00,0.78
8437.00,0.78
8436.00,0.78
8435.00,0.77
8434.00,0.77
8433.00,0.76
8432.00,0.76
8431.00,0.75
8430.00,0.75
8429.00,0.74
8428.00,0.73
8427.00,0.73
8426.00,0.72
8425.00,0.71
8424.00,0.71
8423.00,0.71
8422.00,0.70
8421.00,0.70
8420.00,0.70
8419.00,0.70
8418.00,0.70
8417.00,0.70
8416.00,0.70
8415.00,0.70
8414.00,0.70
8413.00,0.70
8412.00,0.70
8411.00,0.70
8410.00,0.70
8409.00,0.71
8408.00,0.71
8407.00,0.71
8406.00,0.71
8405.00,0.71
8404.00,0.71
8403.00,0.71
8402.00,0.71
8401.00,0.71
8400.00,0.71
8399.00,0.72
8398.00,0.72
8397.00,0.71
8396.00,0.71
8395.00,0.71
8394.00,0.71
8393.00,0.71
8392.00,0.70
8391.00,0.70
8390.00,0.69
8389.00,0.69
8388.00,0.68
8387.00,0.68
8386.00,0.68
8385.00,0.67
8384.00,0.67
8383.00,0.67
8382.00,0.66
8381.00,0.66
8380.00,0.66
8379.00,0.66
8378.00,0.65
8377.00,0.65
8376.00,0.65
8375.00,0.65
8374.00,0.65
8373.00,0.65
8372.00,0.65
8371.00,0.65
8370.00,0.65
8369.00,0.65
8368.00,0.66
8367.00,0.66
8366.00,0.66
8365.00,0.67
8364.00,0.67
8363.00,0.68
8362.00,0.68
8361.00,0.68
8360.00,0.69
8359.00,0.69
8358.00,0.70
8357.00,0.70
8356.00,0.71
8355.00,0.71
8354.00,0.71
8353.00,0.72
8352.00,0.72
8351.00,0.73
8350.00,0.73
8349.00,0.74
8348.00,0.74
8347.00,0.75
8346.00,0.75
8345.00,0.75
8344.00,0.76
8343.00,0.76
8342.00,0.76
8341.00,0.76
8340.00,0.76
8339.00,0.76
8338.00,0.76
8337.00,0.76
8336.00,0.76
8335.00,0.76
8334.00,0.76
8333.00,0.76
8332.00,0.76
8331.00,0.77
8330.00,0.77
8329.00,0.77
8328.00,0.77
8327.00,0.77
8326.00,0.77
8325.00,0.77
8324.00,0.77
8323.00,0.78
8322.00,0.78
8321.00,0.78
8320.00,0.78
8319.00,0.78
8318.00,0.78
8317.00,0.79
8316.00,0.79
8315.00,0.79
8314.00,0.79
8313.00,0.79
8312.00,0.80
8311.00,0.80
8310.00,0.80
8309.00,0.80
8308.00,0.81
8307.00,0.81
8306.00,0.81
8305.00,0.81
8304.00,0.81
8303.00,0.81
8302.00,0.81
8301.00,0.81
8300.00,0.81
8299.00,0.81
8298.00,0.81
8297.00,0.81
8296.00,0.81
8295.00,0.81
8294.00,0.81
8293.00,0.80
8292.00,0.80
8291.00,0.80
8290.00,0.80
8289.00,0.79
8288.00,0.79
8287.00,0.79
8286.00,0.79
8285.00,0.78
8284.00,0.78
8283.00,0.78
8282.00,0.78
8281.00,0.78
8280.00,0.77
8279.00,0.77
8278.00,0.77
8277.00,0.77
8276.00,0.76
8275.00,0.76
8274.00,0.76
8273.00,0.76
8272.00,0.76
8271.00,0.75
8270.00,0.75
8269.00,0.75
8268.00,0.75
8267.00,0.75
8266.00,0.75
8265.00,0.75
8264.00,0.74
8263.00,0.74
8262.00,0.74
8261.00,0.74
8260.00,0.74
8259.00,0.74
8258.00,0.74
8257.00,0.74
8256.00,0.74
8255.00,0.74
8254.00,0.74
8253.00,0.74
8252.00,0.74
8251.00,0.74
8250.00,0.74
8249.00,0.74
8248.00,0.74
8247.00,0.74
8246.00,0.74
8245.00,0.74
8244.00,0.74
8243.00,0.74
8242.00,0.74
8241.00,0.75
8240.00,0.75
8239.00,0.75
8238.00,0.75
8237.00,0.75
8236.00,0.75
8235.00,0.75
8234.00,0.75
8233.00,0.75
8232.00,0.75
8231.00,0.75
8230.00,0.75
8229.00,0.75
8228.00,0.75
8227.00,0.75
8226.00,0.76
8225.00,0.76
8224.00,0.76
8223.00,0.76
8222.00,0.76
8221.00,0.76
8220.00,0.76
8219.00,0.76
8218.00,0.76
8217.00,0.77
8216.00,0.77
8215.00,0.76
8214.00,0.76
8213.00,0.76
8212.00,0.76
8211.00,0.76
8210.00,0.76
8209.00,0.76
8208.00,0.76
8207.00,0.76
8206.00,0.76
8205.00,0.76
8204.00,0.77
8203.00,0.77
8202.00,0.77
8201.00,0.77
8200.00,0.77
8199.00,0.77
8198.00,0.78
8197.00,0.78
8196.00,0.78
8195.00,0.78
8194.00,0.78
8193.00,0.78
8192.00,0.78
8191.00,0.79
8190.00,0.79
8189.00,0.79
8188.00,0.79
8187.00,0.79
8186.00,0.79
8185.00,0.80
8184.00,0.80
8183.00,0.80
8182.00,0.80
8181.00,0.81
8180.00,0.81
8179.00,0.81
8178.00,0.81
8177.00,0.81
8176.00,0.81
8175.00,0.81
8174.00,0.81
8173.00,0.81
8172.00,0.81
8171.00,0.81
8170.00,0.81
8169.00,0.81
8168.00,0.81
8167.00,0.81
8166.00,0.81
8165.00,0.81
8164.00,0.81
8163.00,0.81
8162.00,0.81
8161.00,0.81
8160.00,0.81
8159.00,0.81
8158.00,0.81
8157.00,0.81
8156.00,0.81
8155.00,0.80
8154.00,0.80
8153.00,0.80
8152.00,0.80
8151.00,0.80
8150.00,0.80
8149.00,0.80
8148.00,0.80
8147.00,0.80
8146.00,0.80
8145.00,0.80
8144.00,0.80
8143.00,0.80
8142.00,0.80
8141.00,0.80
8140.00,0.80
8139.00,0.81
8138.00,0.81
8137.00,0.81
8136.00,0.81
8135.00,0.81
8134.00,0.81
8133.00,0.81
8132.00,0.81
8131.00,0.81
8130.00,0.82
8129.00,0.82
8128.00,0.82
8127.00,0.82
8126.00,0.82
8125.00,0.83
8124.00,0.83
8123.00,0.83
8122.00,0.83
8121.00,0.83
8120.00,0.83
8119.00,0.83
8118.00,0.84
8117.00,0.84
8116.00,0.84
8115.00,0.84
8114.00,0.84
8113.00,0.84
8112.00,0.84
8111.00,0.84
8110.00,0.84
8109.00,0.84
8108.00,0.84
8107.00,0.84
8106.00,0.84
8105.00,0.84
8104.00,0.84
8103.00,0.84
8102.00,0.83
8101.00,0.83
8100.00,0.83
8099.00,0.83
8098.00,0.83
8097.00,0.82
8096.00,0.82
8095.00,0.82
8094.00,0.82
8093.00,0.82
8092.00,0.82
8091.00,0.82
8090.00,0.81
8089.00,0.81
8088.00,0.81
8087.00,0.81
8086.00,0.81
8085.00,0.80
8084.00,0.80
8083.00,0.80
8082.00,0.79
8081.00,0.79
8080.00,0.79
8079.00,0.79
8078.00,0.78
8077.00,0.78
8076.00,0.78
8075.00,0.78
8074.00,0.78
8073.00,0.78
8072.00,0.78
8071.00,0.78
8070.00,0.78
8069.00,0.78
8068.00,0.78
8067.00,0.78
8066.00,0.78
8065.00,0.78
8064.00,0.78
8063.00,0.78
8062.00,0.78
8061.00,0.78
8060.00,0.78
8059.00,0.79
8058.00,0.79
8057.00,0.79
8056.00,0.79
8055.00,0.80
8054.00,0.80
8053.00,0.80
8052.00,0.80
8051.00,0.80
8050.00,0.80
8049.00,0.81
8048.00,0.81
8047.00,0.81
8046.00,0.81
8045.00,0.81
8044.00,0.81
8043.00,0.81
8042.00,0.81
8041.00,0.81
8040.00,0.81
8039.00,0.81
8038.00,0.81
8037.00,0.81
8036.00,0.81
8035.00,0.81
8034.00,0.81
8033.00,0.81
8032.00,0.81
8031.00,0.81
8030.00,0.81
8029.00,0.80
8028.00,0.80
8027.00,0.80
8026.00,0.80
8025.00,0.80
8024.00,0.79
8023.00,0.79
8022.00,0.79
8021.00,0.79
8020.00,0.79
8019.00,0.78
8018.00,0.78
8017.00,0.78
8016.00,0.78
8015.00,0.77
8014.00,0.77
8013.00,0.77
8012.00,0.77
8011.00,0.77
8010.00,0.76
8009.00,0.76
8008.00,0.76
8007.00,0.76
8006.00,0.77
8005.00,0.77
8004.00,0.77
8003.00,0.77
8002.00,0.77
8001.00,0.77
8000.00,0.77
7999.00,0.78
7998.00,0.78
7997.00,0.78
7996.00,0.78
7995.00,0.78
7994.00,0.79
7993.00,0.79
7992.00,0.79
7991.00,0.79
7990.00,0.79
7989.00,0.79
7988.00,0.80
7987.00,0.80
7986.00,0.80
7985.00,0.80
7984.00,0.80
7983.00,0.80
7982.00,0.80
7981.00,0.80
7980.00,0.80
7979.00,0.80
7978.00,0.79
7977.00,0.79
7976.00,0.79
7975.00,0.79
7974.00,0.79
7973.00,0.79
7972.00,0.79
7971.00,0.79
7970.00,0.78
7969.00,0.79
7968.00,0.79
7967.00,0.79
7966.00,0.79
7965.00,0.79
7964.00,0.79
7963.00,0.79
7962.00,0.79
7961.00,0.79
7960.00,0.79
7959.00,0.80
7958.00,0.80
7957.00,0.80
7956.00,0.80
7955.00,0.81
7954.00,0.81
7953.00,0.81
7952.00,0.81
7951.00,0.82
7950.00,0.82
7949.00,0.82
7948.00,0.82
7947.00,0.82
7946.00,0.83
7945.00,0.83
7944.00,0.83
7943.00,0.83
7942.00,0.83
7941.00,0.83
7940.00,0.83
7939.00,0.83
7938.00,0.83
7937.00,0.83
7936.00,0.83
7935.00,0.83
7934.00,0.83
7933.00,0.83
7932.00,0.83
7931.00,0.83
7930.00,0.83
7929.00,0.83
7928.00,0.83
7927.00,0.82
7926.00,0.82
7925.00,0.82
7924.00,0.82
7923.00,0.82
7922.00,0.82
7921.00,0.82
7920.00,0.82
7919.00,0.82
7918.00,0.82
7917.00,0.82
7916.00,0.81
7915.00,0.81
7914.00,0.81
7913.00,0.81
7912.00,0.81
7911.00,0.81
7910.00,0.81
7909.00,0.81
7908.00,0.81
7907.00,0.81
7906.00,0.80
7905.00,0.80
7904.00,0.80
7903.00,0.80
7902.00,0.80
7901.00,0.80
7900.00,0.80
7899.00,0.80
7898.00,0.80
7897.00,0.80
7896.00,0.80
7895.00,0.80
7894.00,0.80
7893.00,0.80
7892.00,0.80
7891.00,0.80
7890.00,0.80
7889.00,0.80
7888.00,0.80
7887.00,0.80
7886.00,0.80
7885.00,0.80
7884.00,0.80
7883.00,0.80
7882.00,0.80
7881.00,0.80
7880.00,0.80
7879.00,0.80
7878.00,0.80
7877.00,0.81
7876.00,0.81
7875.00,0.81
7874.00,0.81
7873.00,0.81
7872.00,0.81
7871.00,0.81
7870.00,0.81
7869.00,0.81
7868.00,0.81
7867.00,0.81
7866.00,0.81
7865.00,0.81
7864.00,0.81
7863.00,0.81
7862.00,0.81
7861.00,0.81
7860.00,0.81
7859.00,0.81
7858.00,0.81
7857.00,0.81
7856.00,0.81
7855.00,0.81
7854.00,0.81
7853.00,0.81
7852.00,0.81
7851.00,0.81
7850.00,0.81
7849.00,0.81
7848.00,0.81
7847.00,0.81
7846.00,0.81
7845.00,0.81
7844.00,0.81
7843.00,0.81
7842.00,0.81
7841.00,0.81
7840.00,0.82
7839.00,0.82
7838.00,0.82
7837.00,0.82
7836.00,0.82
7835.00,0.82
7834.00,0.82
7833.00,0.82
7832.00,0.82
7831.00,0.82
7830.00,0.82
7829.00,0.83
7828.00,0.83
7827.00,0.83
7826.00,0.83
7825.00,0.83
7824.00,0.83
7823.00,0.84
7822.00,0.84
7821.00,0.84
7820.00,0.84
7819.00,0.84
7818.00,0.84
7817.00,0.83
7816.00,0.83
7815.00,0.83
7814.00,0.83
7813.00,0.83
7812.00,0.83
7811.00,0.83
7810.00,0.83
7809.00,0.83
7808.00,0.83
7807.00,0.83
7806.00,0.83
7805.00,0.83
7804.00,0.83
7803.00,0.83
7802.00,0.82
7801.00,0.82
7800.00,0.82
7799.00,0.82
7798.00,0.82
7797.00,0.82
7796.00,0.82
7795.00,0.82
7794.00,0.82
7793.00,0.82
7792.00,0.82
7791.00,0.82
7790.00,0.82
7789.00,0.82
7788.00,0.82
7787.00,0.82
7786.00,0.82
7785.00,0.82
7784.00,0.82
7783.00,0.82
7782.00,0.82
7781.00,0.82
7780.00,0.82
7779.00,0.82
7778.00,0.82
7777.00,0.82
7776.00,0.82
7775.00,0.83
7774.00,0.83
7773.00,0.83
7772.00,0.83
7771.00,0.83
7770.00,0.83
7769.00,0.84
7768.00,0.84
7767.00,0.84
7766.00,0.84
7765.00,0.84
7764.00,0.84
7763.00,0.84
7762.00,0.85
7761.00,0.85
7760.00,0.85
7759.00,0.85
7758.00,0.86
7757.00,0.86
7756.00,0.86
7755.00,0.86
7754.00,0.86
7753.00,0.87
7752.00,0.87
7751.00,0.87
7750.00,0.87
7749.00,0.87
7748.00,0.87
7747.00,0.88
7746.00,0.88
7745.00,0.88
7744.00,0.88
7743.00,0.88
7742.00,0.88
7741.00,0.88
7740.00,0.88
7739.00,0.88
7738.00,0.89
7737.00,0.89
7736.00,0.89
7735.00,0.89
7734.00,0.89
7733.00,0.89
7732.00,0.89
7731.00,0.89
7730.00,0.89
7729.00,0.89
7728.00,0.89
7727.00,0.89
7726.00,0.89
7725.00,0.88
7724.00,0.88
7723.00,0.88
7722.00,0.88
7721.00,0.88
7720.00,0.88
7719.00,0.88
7718.00,0.87
7717.00,0.87
7716.00,0.87
7715.00,0.87
7714.00,0.87
7713.00,0.87
7712.00,0.86
7711.00,0.86
7710.00,0.86
7709.00,0.86
7708.00,0.86
7707.00,0.85
7706.00,0.85
7705.00,0.85
7704.00,0.85
7703.00,0.85
7702.00,0.85
7701.00,0.85
7700.00,0.85
7699.00,0.84
7698.00,0.84
7697.00,0.84
7696.00,0.84
7695.00,0.84
7694.00,0.84
7693.00,0.84
7692.00,0.84
7691.00,0.84
7690.00,0.84
7689.00,0.84
7688.00,0.84
7687.00,0.84
7686.00,0.84
7685.00,0.84
7684.00,0.84
7683.00,0.84
7682.00,0.84
7681.00,0.84
7680.00,0.84
7679.00,0.84
7678.00,0.84
7677.00,0.85
7676.00,0.85
7675.00,0.85
7674.00,0.85
7673.00,0.85
7672.00,0.85
7671.00,0.85
7670.00,0.85
7669.00,0.85
7668.00,0.85
7667.00,0.85
7666.00,0.85
7665.00,0.85
7664.00,0.85
7663.00,0.85
7662.00,0.85
7661.00,0.85
7660.00,0.85
7659.00,0.85
7658.00,0.85
7657.00,0.85
7656.00,0.85
7655.00,0.84
7654.00,0.84
7653.00,0.84
7652.00,0.84
7651.00,0.83
7650.00,0.83
7649.00,0.83
7648.00,0.83
7647.00,0.82
7646.00,0.82
7645.00,0.82
7644.00,0.82
7643.00,0.81
7642.00,0.81
7641.00,0.81
7640.00,0.80
7639.00,0.80
7638.00,0.80
7637.00,0.79
7636.00,0.79
7635.00,0.79
7634.00,0.79
7633.00,0.78
7632.00,0.78
7631.00,0.78
7630.00,0.78
7629.00,0.78
7628.00,0.78
7627.00,0.78
7626.00,0.78
7625.00,0.78
7624.00,0.78
7623.00,0.78
7622.00,0.78
7621.00,0.78
7620.00,0.78
7619.00,0.78
7618.00,0.78
7617.00,0.78
7616.00,0.78
7615.00,0.78
7614.00,0.78
7613.00,0.78
7612.00,0.78
7611.00,0.78
7610.00,0.78
7609.00,0.78
7608.00,0.78
7607.00,0.78
7606.00,0.78
7605.00,0.78
7604.00,0.78
7603.00,0.79
7602.00,0.79
7601.00,0.79
7600.00,0.79
7599.00,0.79
7598.00,0.79
7597.00,0.79
7596.00,0.79
7595.00,0.79
7594.00,0.79
7593.00,0.79
7592.00,0.80
7591.00,0.80
7590.00,0.80
7589.00,0.80
7588.00,0.80
7587.00,0.80
7586.00,0.80
7585.00,0.81
7584.00,0.81
7583.00,0.81
7582.00,0.81
7581.00,0.81
7580.00,0.81
7579.00,0.82
7578.00,0.82
7577.00,0.82
7576.00,0.82
7575.00,0.82
7574.00,0.82
7573.00,0.82
7572.00,0.83
7571.00,0.83
7570.00,0.83
7569.00,0.83
7568.00,0.83
7567.00,0.83
7566.00,0.84
7565.00,0.84
7564.00,0.84
7563.00,0.84
7562.00,0.84
7561.00,0.84
7560.00,0.85
7559.00,0.85
7558.00,0.85
7557.00,0.85
7556.00,0.85
7555.00,0.85
7554.00,0.85
7553.00,0.85
7552.00,0.85
7551.00,0.85
7550.00,0.85
7549.00,0.84
7548.00,0.84
7547.00,0.84
7546.00,0.84
7545.00,0.84
7544.00,0.84
7543.00,0.84
7542.00,0.84
7541.00,0.83
7540.00,0.83
7539.00,0.83
7538.00,0.83
7537.00,0.82
7536.00,0.82
7535.00,0.82
7534.00,0.82
7533.00,0.81
7532.00,0.81
7531.00,0.81
7530.00,0.80
7529.00,0.80
7528.00,0.80
7527.00,0.79
7526.00,0.79
7525.00,0.79
7524.00,0.79
7523.00,0.78
7522.00,0.78
7521.00,0.78
7520.00,0.78
7519.00,0.78
7518.00,0.77
7517.00,0.77
7516.00,0.77
7515.00,0.77
7514.00,0.77
7513.00,0.77
7512.00,0.77
7511.00,0.76
7510.00,0.76
7509.00,0.76
7508.00,0.76
7507.00,0.76
7506.00,0.76
7505.00,0.77
7504.00,0.77
7503.00,0.77
7502.00,0.77
7501.00,0.77
7500.00,0.77
7499.00,0.77
7498.00,0.77
7497.00,0.77
7496.00,0.77
7495.00,0.78
7494.00,0.78
7493.00,0.78
7492.00,0.78
7491.00,0.78
7490.00,0.78
7489.00,0.78
7488.00,0.78
7487.00,0.78
7486.00,0.78
7485.00,0.78
7484.00,0.78
7483.00,0.78
7482.00,0.78
7481.00,0.78
7480.00,0.78
7479.00,0.78
7478.00,0.78
7477.00,0.78
7476.00,0.78
7475.00,0.78
7474.00,0.78
7473.00,0.78
7472.00,0.78
7471.00,0.77
7470.00,0.77
7469.00,0.77
7468.00,0.77
7467.00,0.77
7466.00,0.77
7465.00,0.76
7464.00,0.76
7463.00,0.76
7462.00,0.76
7461.00,0.76
7460.00,0.76
7459.00,0.76
7458.00,0.76
7457.00,0.76
7456.00,0.76
7455.00,0.76
7454.00,0.76
7453.00,0.76
7452.00,0.76
7451.00,0.76
7450.00,0.76
7449.00,0.76
7448.00,0.77
7447.00,0.77
7446.00,0.77
7445.00,0.77
7444.00,0.77
7443.00,0.78
7442.00,0.78
7441.00,0.78
7440.00,0.79
7439.00,0.79
7438.00,0.79
7437.00,0.80
7436.00,0.80
7435.00,0.80
7434.00,0.80
7433.00,0.81
7432.00,0.81
7431.00,0.81
7430.00,0.81
7429.00,0.82
7428.00,0.82
7427.00,0.82
7426.00,0.82
7425.00,0.82
7424.00,0.82
7423.00,0.83
7422.00,0.83
7421.00,0.83
7420.00,0.83
7419.00,0.83
7418.00,0.83
7417.00,0.83
7416.00,0.83
7415.00,0.83
7414.00,0.83
7413.00,0.83
7412.00,0.83
7411.00,0.83
7410.00,0.83
7409.00,0.83
7408.00,0.83
7407.00,0.83
7406.00,0.83
7405.00,0.83
7404.00,0.83
7403.00,0.83
7402.00,0.83
7401.00,0.83
7400.00,0.83
7399.00,0.83
7398.00,0.83
7397.00,0.83
7396.00,0.84
7395.00,0.84
7394.00,0.84
7393.00,0.84
7392.00,0.84
7391.00,0.84
7390.00,0.84
7389.00,0.84
7388.00,0.84
7387.00,0.84
7386.00,0.84
7385.00,0.84
7384.00,0.83
7383.00,0.83
7382.00,0.83
7381.00,0.83
7380.00,0.83
7379.00,0.82
7378.00,0.82
7377.00,0.82
7376.00,0.82
7375.00,0.81
7374.00,0.81
7373.00,0.81
7372.00,0.80
7371.00,0.80
7370.00,0.80
7369.00,0.79
7368.00,0.79
7367.00,0.79
7366.00,0.79
7365.00,0.78
7364.00,0.78
7363.00,0.78
7362.00,0.78
7361.00,0.77
7360.00,0.77
7359.00,0.77
7358.00,0.77
7357.00,0.77
7356.00,0.77
7355.00,0.77
7354.00,0.77
7353.00,0.77
7352.00,0.77
7351.00,0.78
7350.00,0.78
7349.00,0.78
7348.00,0.78
7347.00,0.78
7346.00,0.78
7345.00,0.79
7344.00,0.79
7343.00,0.79
7342.00,0.79
7341.00,0.79
7340.00,0.79
7339.00,0.79
7338.00,0.80
7337.00,0.80
7336.00,0.80
7335.00,0.80
7334.00,0.80
7333.00,0.80
7332.00,0.80
7331.00,0.80
7330.00,0.80
7329.00,0.81
7328.00,0.81
7327.00,0.81
7326.00,0.81
7325.00,0.81
7324.00,0.81
7323.00,0.81
7322.00,0.81
7321.00,0.81
7320.00,0.81
7319.00,0.81
7318.00,0.81
7317.00,0.81
7316.00,0.81
7315.00,0.82
7314.00,0.82
7313.00,0.82
7312.00,0.82
7311.00,0.82
7310.00,0.82
7309.00,0.82
7308.00,0.82
7307.00,0.82
7306.00,0.82
7305.00,0.82
7304.00,0.82
7303.00,0.82
7302.00,0.82
7301.00,0.82
7300.00,0.82
7299.00,0.82
7298.00,0.82
7297.00,0.82
7296.00,0.81
7295.00,0.81
7294.00,0.81
7293.00,0.81
7292.00,0.81
7291.00,0.80
7290.00,0.80
7289.00,0.80
7288.00,0.80
7287.00,0.80
7286.00,0.79
7285.00,0.79
7284.00,0.79
7283.00,0.79
7282.00,0.79
7281.00,0.79
7280.00,0.78
7279.00,0.78
7278.00,0.78
7277.00,0.78
7276.00,0.78
7275.00,0.78
7274.00,0.77
7273.00,0.77
7272.00,0.77
7271.00,0.77
7270.00,0.77
7269.00,0.77
7268.00,0.77
7267.00,0.77
7266.00,0.77
7265.00,0.77
7264.00,0.77
7263.00,0.76
7262.00,0.76
7261.00,0.76
7260.00,0.76
7259.00,0.76
7258.00,0.76
7257.00,0.76
7256.00,0.76
7255.00,0.76
7254.00,0.76
7253.00,0.76
7252.00,0.76
7251.00,0.76
7250.00,0.76
7249.00,0.76
7248.00,0.76
7247.00,0.77
7246.00,0.77
7245.00,0.77
7244.00,0.77
7243.00,0.77
7242.00,0.77
7241.00,0.77
7240.00,0.77
7239.00,0.77
7238.00,0.78
7237.00,0.78
7236.00,0.78
7235.00,0.78
7234.00,0.78
7233.00,0.78
7232.00,0.78
7231.00,0.78
7230.00,0.78
7229.00,0.78
7228.00,0.78
7227.00,0.78
7226.00,0.78
7225.00,0.78
7224.00,0.78
7223.00,0.77
7222.00,0.77
7221.00,0.77
7220.00,0.77
7219.00,0.77
7218.00,0.76
7217.00,0.76
7216.00,0.76
7215.00,0.76
7214.00,0.75
7213.00,0.75
7212.00,0.75
7211.00,0.74
7210.00,0.74
7209.00,0.74
7208.00,0.74
7207.00,0.73
7206.00,0.73
7205.00,0.73
7204.00,0.73
7203.00,0.72
7202.00,0.72
7201.00,0.72
7200.00,0.71
7199.00,0.71
7198.00,0.71
7197.00,0.70
7196.00,0.70
7195.00,0.70
7194.00,0.69
7193.00,0.69
7192.00,0.69
7191.00,0.68
7190.00,0.68
7189.00,0.68
7188.00,0.67
7187.00,0.67
7186.00,0.67
7185.00,0.66
7184.00,0.66
7183.00,0.66
7182.00,0.65
7181.00,0.65
7180.00,0.65
7179.00,0.64
7178.00,0.64
7177.00,0.64
7176.00,0.63
7175.00,0.63
7174.00,0.63
7173.00,0.63
7172.00,0.63
7171.00,0.62
7170.00,0.62
7169.00,0.62
7168.00,0.62
7167.00,0.62
7166.00,0.62
7165.00,0.61
7164.00,0.61
7163.00,0.61
7162.00,0.61
7161.00,0.61
7160.00,0.61
7159.00,0.61
7158.00,0.61
7157.00,0.60
7156.00,0.60
7155.00,0.60
7154.00,0.60
7153.00,0.60
7152.00,0.60
7151.00,0.60
7150.00,0.60
7149.00,0.59
7148.00,0.59
7147.00,0.59
7146.00,0.59
7145.00,0.59
7144.00,0.59
7143.00,0.59
7142.00,0.59
7141.00,0.59
7140.00,0.59
7139.00,0.59
7138.00,0.59
7137.00,0.59
7136.00,0.59
7135.00,0.59
7134.00,0.59
7133.00,0.59
7132.00,0.59
7131.00,0.59
7130.00,0.59
7129.00,0.59
7128.00,0.59
7127.00,0.59
7126.00,0.59
7125.00,0.59
7124.00,0.59
7123.00,0.59
7122.00,0.59
7121.00,0.59
7120.00,0.59
7119.00,0.59
7118.00,0.59
7117.00,0.58
7116.00,0.58
7115.00,0.58
7114.00,0.58
7113.00,0.57
7112.00,0.57
7111.00,0.56
7110.00,0.56
7109.00,0.56
7108.00,0.55
7107.00,0.55
7106.00,0.55
7105.00,0.54
7104.00,0.54
7103.00,0.54
7102.00,0.54
7101.00,0.53
7100.00,0.53
7099.00,0.53
7098.00,0.52
7097.00,0.52
7096.00,0.52
7095.00,0.51
7094.00,0.51
7093.00,0.51
7092.00,0.51
7091.00,0.51
7090.00,0.51
7089.00,0.51
7088.00,0.51
7087.00,0.51
7086.00,0.51
7085.00,0.51
7084.00,0.51
7083.00,0.51
7082.00,0.51
7081.00,0.51
7080.00,0.51
7079.00,0.51
7078.00,0.51
7077.00,0.51
7076.00,0.51
7075.00,0.51
7074.00,0.51
7073.00,0.52
7072.00,0.52
7071.00,0.52
7070.00,0.52
7069.00,0.52
7068.00,0.52
7067.00,0.52
7066.00,0.52
7065.00,0.52
7064.00,0.52
7063.00,0.52
7062.00,0.52
7061.00,0.52
7060.00,0.52
7059.00,0.52
7058.00,0.51
7057.00,0.51
7056.00,0.51
7055.00,0.51
7054.00,0.51
7053.00,0.51
7052.00,0.51
7051.00,0.51
7050.00,0.51
7049.00,0.51
7048.00,0.51
7047.00,0.51
7046.00,0.51
7045.00,0.51
7044.00,0.50
7043.00,0.50
7042.00,0.50
7041.00,0.50
7040.00,0.50
7039.00,0.50
7038.00,0.50
7037.00,0.50
7036.00,0.50
7035.00,0.50
7034.00,0.49
7033.00,0.49
7032.00,0.49
7031.00,0.49
7030.00,0.49
7029.00,0.48
7028.00,0.48
7027.00,0.48
7026.00,0.48
7025.00,0.47
7024.00,0.47
7023.00,0.47
7022.00,0.46
7021.00,0.46
7020.00,0.46
7019.00,0.46
7018.00,0.45
7017.00,0.45
7016.00,0.45
7015.00,0.44
7014.00,0.44
7013.00,0.44
7012.00,0.44
7011.00,0.43
7010.00,0.43
7009.00,0.43
7008.00,0.43
7007.00,0.42
7006.00,0.42
7005.00,0.42
7004.00,0.42
7003.00,0.42
7002.00,0.42
7001.00,0.42
7000.00,0.42
6999.00,0.42
6998.00,0.42
6997.00,0.42
6996.00,0.42
6995.00,0.42
6994.00,0.42
6993.00,0.42
6992.00,0.42
6991.00,0.42
6990.00,0.42
6989.00,0.42
6988.00,0.42
6987.00,0.42
6986.00,0.43
6985.00,0.43
6984.00,0.43
6983.00,0.43
6982.00,0.43
6981.00,0.43
6980.00,0.43
6979.00,0.44
6978.00,0.44
6977.00,0.44
6976.00,0.44
6975.00,0.44
6974.00,0.44
6973.00,0.44
6972.00,0.44
6971.00,0.44
6970.00,0.44
6969.00,0.44
6968.00,0.44
6967.00,0.44
6966.00,0.44
6965.00,0.44
6964.00,0.44
6963.00,0.44
6962.00,0.44
6961.00,0.43
6960.00,0.43
6959.00,0.43
6958.00,0.43
6957.00,0.43
6956.00,0.43
6955.00,0.43
6954.00,0.42
6953.00,0.42
6952.00,0.42
6951.00,0.42
6950.00,0.42
6949.00,0.42
6948.00,0.42
6947.00,0.42
6946.00,0.42
6945.00,0.42
6944.00,0.42
6943.00,0.42
6942.00,0.42
6941.00,0.42
6940.00,0.42
6939.00,0.42
6938.00,0.42
6937.00,0.42
6936.00,0.42
6935.00,0.42
6934.00,0.42
6933.00,0.42
6932.00,0.42
6931.00,0.42
6930.00,0.43
6929.00,0.43
6928.00,0.43
6927.00,0.43
6926.00,0.43
6925.00,0.43
6924.00,0.43
6923.00,0.43
6922.00,0.43
6921.00,0.43
6920.00,0.43
6919.00,0.43
6918.00,0.43
6917.00,0.43
6916.00,0.43
6915.00,0.43
6914.00,0.43
6913.00,0.43
6912.00,0.43
6911.00,0.43
6910.00,0.43
6909.00,0.43
6908.00,0.43
6907.00,0.43
6906.00,0.43
6905.00,0.43
6904.00,0.43
6903.00,0.43
6902.00,0.43
6901.00,0.43
6900.00,0.43
6899.00,0.43
6898.00,0.43
6897.00,0.43
6896.00,0.43
6895.00,0.43
6894.00,0.43
6893.00,0.43
6892.00,0.43
6891.00,0.43
6890.00,0.43
6889.00,0.44
6888.00,0.44
6887.00,0.44
6886.00,0.44
6885.00,0.44
6884.00,0.44
6883.00,0.45
6882.00,0.45
6881.00,0.45
6880.00,0.45
6879.00,0.45
6878.00,0.46
6877.00,0.46
6876.00,0.46
6875.00,0.46
6874.00,0.46
6873.00,0.46
6872.00,0.46
6871.00,0.46
6870.00,0.46
6869.00,0.46
6868.00,0.46
6867.00,0.46
6866.00,0.46
6865.00,0.46
6864.00,0.46
6863.00,0.46
6862.00,0.46
6861.00,0.46
6860.00,0.46
6859.00,0.46
6858.00,0.46
6857.00,0.45
6856.00,0.45
6855.00,0.45
6854.00,0.45
6853.00,0.45
6852.00,0.45
6851.00,0.44
6850.00,0.44
6849.00,0.44
6848.00,0.44
6847.00,0.44
6846.00,0.44
6845.00,0.43
6844.00,0.43
6843.00,0.43
6842.00,0.43
6841.00,0.43
6840.00,0.43
6839.00,0.43
6838.00,0.43
6837.00,0.43
6836.00,0.43
6835.00,0.43
6834.00,0.42
6833.00,0.42
6832.00,0.42
6831.00,0.42
6830.00,0.42
6829.00,0.42
6828.00,0.42
6827.00,0.42
6826.00,0.42
6825.00,0.42
6824.00,0.42
6823.00,0.42
6822.00,0.42
6821.00,0.42
6820.00,0.42
6819.00,0.42
6818.00,0.42
6817.00,0.42
6816.00,0.42
6815.00,0.42
6814.00,0.42
6813.00,0.42
6812.00,0.42
6811.00,0.42
6810.00,0.42
6809.00,0.42
6808.00,0.42
6807.00,0.42
6806.00,0.42
6805.00,0.42
6804.00,0.42
6803.00,0.42
6802.00,0.42
6801.00,0.42
6800.00,0.42
6799.00,0.42
6798.00,0.42
6797.00,0.42
6796.00,0.42
6795.00,0.42
6794.00,0.42
6793.00,0.42
6792.00,0.42
6791.00,0.42
6790.00,0.42
6789.00,0.42
6788.00,0.42
6787.00,0.42
6786.00,0.42
6785.00,0.42
6784.00,0.42
6783.00,0.42
6782.00,0.42
6781.00,0.42
6780.00,0.42
6779.00,0.42
6778.00,0.42
6777.00,0.42
6776.00,0.42
6775.00,0.42
6774.00,0.42
6773.00,0.42
6772.00,0.42
6771.00,0.42
6770.00,0.42
6769.00,0.42
6768.00,0.43
6767.00,0.43
6766.00,0.43
6765.00,0.43
6764.00,0.43
6763.00,0.43
6762.00,0.43
6761.00,0.43
6760.00,0.43
6759.00,0.43
6758.00,0.43
6757.00,0.44
6756.00,0.44
6755.00,0.44
6754.00,0.44
6753.00,0.44
6752.00,0.45
6751.00,0.45
6750.00,0.45
6749.00,0.45
6748.00,0.45
6747.00,0.46
6746.00,0.46
6745.00,0.46
6744.00,0.46
6743.00,0.47
6742.00,0.47
6741.00,0.47
6740.00,0.47
6739.00,0.48
6738.00,0.48
6737.00,0.48
6736.00,0.48
6735.00,0.48
6734.00,0.48
6733.00,0.49
6732.00,0.49
6731.00,0.49
6730.00,0.49
6729.00,0.49
6728.00,0.49
6727.00,0.49
6726.00,0.49
6725.00,0.49
6724.00,0.49
6723.00,0.49
6722.00,0.49
6721.00,0.49
6720.00,0.49
6719.00,0.49
6718.00,0.49
6717.00,0.49
6716.00,0.49
6715.00,0.49
6714.00,0.49
6713.00,0.49
6712.00,0.48
6711.00,0.48
6710.00,0.48
6709.00,0.48
6708.00,0.48
6707.00,0.48
6706.00,0.49
6705.00,0.49
6704.00,0.49
6703.00,0.49
6702.00,0.49
6701.00,0.49
6700.00,0.49
6699.00,0.49
6698.00,0.49
6697.00,0.49
6696.00,0.50
6695.00,0.50
6694.00,0.50
6693.00,0.50
6692.00,0.50
6691.00,0.50
6690.00,0.50
6689.00,0.50
6688.00,0.50
6687.00,0.50
6686.00,0.50
6685.00,0.50
6684.00,0.51
6683.00,0.51
6682.00,0.51
6681.00,0.51
6680.00,0.51
6679.00,0.51
6678.00,0.51
6677.00,0.51
6676.00,0.51
6675.00,0.51
6674.00,0.51
6673.00,0.51
6672.00,0.51
6671.00,0.51
6670.00,0.51
6669.00,0.51
6668.00,0.51
6667.00,0.51
6666.00,0.51
6665.00,0.51
6664.00,0.51
6663.00,0.51
6662.00,0.51
6661.00,0.51
6660.00,0.51
6659.00,0.51
6658.00,0.51
6657.00,0.51
6656.00,0.51
6655.00,0.51
6654.00,0.51
6653.00,0.51
6652.00,0.51
6651.00,0.51
6650.00,0.51
6649.00,0.51
6648.00,0.51
6647.00,0.51
6646.00,0.51
6645.00,0.51
6644.00,0.51
6643.00,0.51
6642.00,0.51
6641.00,0.51
6640.00,0.51
6639.00,0.51
6638.00,0.51
6637.00,0.51
6636.00,0.51
6635.00,0.51
6634.00,0.51
6633.00,0.51
6632.00,0.51
6631.00,0.51
6630.00,0.51
6629.00,0.52
6628.00,0.52
6627.00,0.52
6626.00,0.52
6625.00,0.52
6624.00,0.52
6623.00,0.52
6622.00,0.53
6621.00,0.53
6620.00,0.53
6619.00,0.53
6618.00,0.53
6617.00,0.54
6616.00,0.54
6615.00,0.54
6614.00,0.54
6613.00,0.54
6612.00,0.55
6611.00,0.55
6610.00,0.55
6609.00,0.55
6608.00,0.55
6607.00,0.55
6606.00,0.56
6605.00,0.56
6604.00,0.56
6603.00,0.56
6602.00,0.56
6601.00,0.56
6600.00,0.56
6599.00,0.56
6598.00,0.56
6597.00,0.56
6596.00,0.56
6595.00,0.56
6594.00,0.56
6593.00,0.56
6592.00,0.56
6591.00,0.56
6590.00,0.56
6589.00,0.56
6588.00,0.55
6587.00,0.55
6586.00,0.55
6585.00,0.55
6584.00,0.55
6583.00,0.55
6582.00,0.55
6581.00,0.55
6580.00,0.55
6579.00,0.55
6578.00,0.55
6577.00,0.55
6576.00,0.55
6575.00,0.55
6574.00,0.55
6573.00,0.55
6572.00,0.55
6571.00,0.55
6570.00,0.55
6569.00,0.55
6568.00,0.55
6567.00,0.55
6566.00,0.55
6565.00,0.55
6564.00,0.55
6563.00,0.56
6562.00,0.56
6561.00,0.56
6560.00,0.56
6559.00,0.56
6558.00,0.57
6557.00,0.57
6556.00,0.57
6555.00,0.57
6554.00,0.57
6553.00,0.58
6552.00,0.58
6551.00,0.58
6550.00,0.58
6549.00,0.58
6548.00,0.59
6547.00,0.59
6546.00,0.59
6545.00,0.59
6544.00,0.59
6543.00,0.60
6542.00,0.60
6541.00,0.60
6540.00,0.60
6539.00,0.61
6538.00,0.61
6537.00,0.61
6536.00,0.61
6535.00,0.61
6534.00,0.62
6533.00,0.62
6532.00,0.62
6531.00,0.62
6530.00,0.62
6529.00,0.62
6528.00,0.63
6527.00,0.63
6526.00,0.63
6525.00,0.63
6524.00,0.63
6523.00,0.63
6522.00,0.63
6521.00,0.63
6520.00,0.63
6519.00,0.64
6518.00,0.64
6517.00,0.64
6516.00,0.64
6515.00,0.64
6514.00,0.64
6513.00,0.64
6512.00,0.64
6511.00,0.64
6510.00,0.64
6509.00,0.64
6508.00,0.64
6507.00,0.64
6506.00,0.64
6505.00,0.64
6504.00,0.64
6503.00,0.64
6502.00,0.64
6501.00,0.64
6500.00,0.64
6499.00,0.64
6498.00,0.64
6497.00,0.64
6496.00,0.64
6495.00,0.64
6494.00,0.64
6493.00,0.64
6492.00,0.64
6491.00,0.64
6490.00,0.64
6489.00,0.64
6488.00,0.64
6487.00,0.64
6486.00,0.64
6485.00,0.64
6484.00,0.64
6483.00,0.64
6482.00,0.64
6481.00,0.64
6480.00,0.63
6479.00,0.63
6478.00,0.63
6477.00,0.63
6476.00,0.63
6475.00,0.63
6474.00,0.63
6473.00,0.63
6472.00,0.63
6471.00,0.63
6470.00,0.63
6469.00,0.63
6468.00,0.63
6467.00,0.63
6466.00,0.63
6465.00,0.63
6464.00,0.63
6463.00,0.63
6462.00,0.63
6461.00,0.63
6460.00,0.63
6459.00,0.63
6458.00,0.63
6457.00,0.64
6456.00,0.64
6455.00,0.64
6454.00,0.64
6453.00,0.64
6452.00,0.65
6451.00,0.65
6450.00,0.65
6449.00,0.65
6448.00,0.66
6447.00,0.66
6446.00,0.66
6445.00,0.66
6444.00,0.66
6443.00,0.67
6442.00,0.67
6441.00,0.67
6440.00,0.67
6439.00,0.67
6438.00,0.67
6437.00,0.67
6436.00,0.67
6435.00,0.67
6434.00,0.67
6433.00,0.67
6432.00,0.67
6431.00,0.67
6430.00,0.67
6429.00,0.67
6428.00,0.67
6427.00,0.67
6426.00,0.67
6425.00,0.67
6424.00,0.66
6423.00,0.66
6422.00,0.66
6421.00,0.66
6420.00,0.66
6419.00,0.66
6418.00,0.66
6417.00,0.66
6416.00,0.66
6415.00,0.66
6414.00,0.66
6413.00,0.67
6412.00,0.67
6411.00,0.67
6410.00,0.67
6409.00,0.67
6408.00,0.67
6407.00,0.67
6406.00,0.67
6405.00,0.67
6404.00,0.67
6403.00,0.67
6402.00,0.67
6401.00,0.67
6400.00,0.67
6399.00,0.67
6398.00,0.67
6397.00,0.67
6396.00,0.67
6395.00,0.67
6394.00,0.67
6393.00,0.67
6392.00,0.67
6391.00,0.66
6390.00,0.66
6389.00,0.66
6388.00,0.66
6387.00,0.66
6386.00,0.66
6385.00,0.66
6384.00,0.66
6383.00,0.66
6382.00,0.66
6381.00,0.66
6380.00,0.66
6379.00,0.66
6378.00,0.66
6377.00,0.66
6376.00,0.66
6375.00,0.66
6374.00,0.66
6373.00,0.66
6372.00,0.66
6371.00,0.66
6370.00,0.66
6369.00,0.66
6368.00,0.66
6367.00,0.67
6366.00,0.67
6365.00,0.67
6364.00,0.67
6363.00,0.67
6362.00,0.67
6361.00,0.67
6360.00,0.67
6359.00,0.67
6358.00,0.67
6357.00,0.67
6356.00,0.67
6355.00,0.67
6354.00,0.67
6353.00,0.67
6352.00,0.67
6351.00,0.67
6350.00,0.67
6349.00,0.67
6348.00,0.67
6347.00,0.67
6346.00,0.67
6345.00,0.67
6344.00,0.67
6343.00,0.67
6342.00,0.67
6341.00,0.67
6340.00,0.67
6339.00,0.67
6338.00,0.67
6337.00,0.67
6336.00,0.67
6335.00,0.67
6334.00,0.67
6333.00,0.67
6332.00,0.67
6331.00,0.68
6330.00,0.68
6329.00,0.68
6328.00,0.68
6327.00,0.68
6326.00,0.68
6325.00,0.68
6324.00,0.68
6323.00,0.69
6322.00,0.69
6321.00,0.69
6320.00,0.69
6319.00,0.69
6318.00,0.69
6317.00,0.69
6316.00,0.70
6315.00,0.70
6314.00,0.70
6313.00,0.70
6312.00,0.70
6311.00,0.70
6310.00,0.70
6309.00,0.70
6308.00,0.70
6307.00,0.70
6306.00,0.70
6305.00,0.70
6304.00,0.70
6303.00,0.70
6302.00,0.70
6301.00,0.70
6300.00,0.70
6299.00,0.70
6298.00,0.70
6297.00,0.70
6296.00,0.70
6295.00,0.70
6294.00,0.70
6293.00,0.70
6292.00,0.70
6291.00,0.70
6290.00,0.70
6289.00,0.70
6288.00,0.70
6287.00,0.70
6286.00,0.70
6285.00,0.70
6284.00,0.70
6283.00,0.70
6282.00,0.71
6281.00,0.71
6280.00,0.71
6279.00,0.71
6278.00,0.71
6277.00,0.71
6276.00,0.71
6275.00,0.71
6274.00,0.71
6273.00,0.71
6272.00,0.71
6271.00,0.71
6270.00,0.71
6269.00,0.71
6268.00,0.71
6267.00,0.71
6266.00,0.71
6265.00,0.71
6264.00,0.72
6263.00,0.72
6262.00,0.72
6261.00,0.72
6260.00,0.72
6259.00,0.72
6258.00,0.72
6257.00,0.72
6256.00,0.73
6255.00,0.73
6254.00,0.73
6253.00,0.73
6252.00,0.73
6251.00,0.73
6250.00,0.73
6249.00,0.74
6248.00,0.74
6247.00,0.74
6246.00,0.74
6245.00,0.74
6244.00,0.74
6243.00,0.75
6242.00,0.75
6241.00,0.75
6240.00,0.75
6239.00,0.75
6238.00,0.75
6237.00,0.75
6236.00,0.75
6235.00,0.75
6234.00,0.75
6233.00,0.75
6232.00,0.75
6231.00,0.75
6230.00,0.75
6229.00,0.75
6228.00,0.75
6227.00,0.75
6226.00,0.75
6225.00,0.75
6224.00,0.75
6223.00,0.75
6222.00,0.75
6221.00,0.75
6220.00,0.75
6219.00,0.75
6218.00,0.75
6217.00,0.75
6216.00,0.75
6215.00,0.75
6214.00,0.75
6213.00,0.75
6212.00,0.75
6211.00,0.75
6210.00,0.75
6209.00,0.75
6208.00,0.76
6207.00,0.76
6206.00,0.76
6205.00,0.76
6204.00,0.76
6203.00,0.77
6202.00,0.77
6201.00,0.77
6200.00,0.77
6199.00,0.77
6198.00,0.77
6197.00,0.78
6196.00,0.78
6195.00,0.78
6194.00,0.78
6193.00,0.78
6192.00,0.78
6191.00,0.78
6190.00,0.78
6189.00,0.79
6188.00,0.79
6187.00,0.79
6186.00,0.79
6185.00,0.79
6184.00,0.79
6183.00,0.79
6182.00,0.79
6181.00,0.79
6180.00,0.79
6179.00,0.79
6178.00,0.79
6177.00,0.79
6176.00,0.79
6175.00,0.79
6174.00,0.79
6173.00,0.79
6172.00,0.79
6171.00,0.79
6170.00,0.79
6169.00,0.79
6168.00,0.79
6167.00,0.79
6166.00,0.79
6165.00,0.79
6164.00,0.79
6163.00,0.79
6162.00,0.79
6161.00,0.79
6160.00,0.79
6159.00,0.79
6158.00,0.79
6157.00,0.79
6156.00,0.79
6155.00,0.79
6154.00,0.79
6153.00,0.79
6152.00,0.79
6151.00,0.79
6150.00,0.79
6149.00,0.79
6148.00,0.79
6147.00,0.79
6146.00,0.79
6145.00,0.79
6144.00,0.79
6143.00,0.79
6142.00,0.79
6141.00,0.79
6140.00,0.79
6139.00,0.79
6138.00,0.79
6137.00,0.79
6136.00,0.79
6135.00,0.79
6134.00,0.79
6133.00,0.79
6132.00,0.79
6131.00,0.80
6130.00,0.80
6129.00,0.80
6128.00,0.80
6127.00,0.80
6126.00,0.80
6125.00,0.80
6124.00,0.80
6123.00,0.80
6122.00,0.80
6121.00,0.80
6120.00,0.80
6119.00,0.80
6118.00,0.81
6117.00,0.81
6116.00,0.81
6115.00,0.81
6114.00,0.81
6113.00,0.81
6112.00,0.81
6111.00,0.81
6110.00,0.81
6109.00,0.82
6108.00,0.82
6107.00,0.82
6106.00,0.82
6105.00,0.82
6104.00,0.82
6103.00,0.82
6102.00,0.82
6101.00,0.82
6100.00,0.82
6099.00,0.83
6098.00,0.83
6097.00,0.83
6096.00,0.83
6095.00,0.83
6094.00,0.83
6093.00,0.83
6092.00,0.83
6091.00,0.83
6090.00,0.83
6089.00,0.83
6088.00,0.83
6087.00,0.84
6086.00,0.84
6085.00,0.84
6084.00,0.84
6083.00,0.84
6082.00,0.84
6081.00,0.84
6080.00,0.84
6079.00,0.84
6078.00,0.84
6077.00,0.84
6076.00,0.84
6075.00,0.84
6074.00,0.84
6073.00,0.84
6072.00,0.84
6071.00,0.84
6070.00,0.84
6069.00,0.84
6068.00,0.84
6067.00,0.84
6066.00,0.84
6065.00,0.84
6064.00,0.84
6063.00,0.84
6062.00,0.84
6061.00,0.84
6060.00,0.84
6059.00,0.84
6058.00,0.84
6057.00,0.84
6056.00,0.84
6055.00,0.84
6054.00,0.84
6053.00,0.84
6052.00,0.84
6051.00,0.84
6050.00,0.84
6049.00,0.84
6048.00,0.84
6047.00,0.84
6046.00,0.84
6045.00,0.84
6044.00,0.84
6043.00,0.84
6042.00,0.85
6041.00,0.85
6040.00,0.85
6039.00,0.85
6038.00,0.85
6037.00,0.85
6036.00,0.85
6035.00,0.85
6034.00,0.85
6033.00,0.85
6032.00,0.85
6031.00,0.85
6030.00,0.85
6029.00,0.85
6028.00,0.85
6027.00,0.85
6026.00,0.85
6025.00,0.85
6024.00,0.85
6023.00,0.85
6022.00,0.85
6021.00,0.85
6020.00,0.85
6019.00,0.85
6018.00,0.85
6017.00,0.85
6016.00,0.85
6015.00,0.85
6014.00,0.85
6013.00,0.85
6012.00,0.85
6011.00,0.85
6010.00,0.85
6009.00,0.85
6008.00,0.85
6007.00,0.85
6006.00,0.85
6005.00,0.85
6004.00,0.85
6003.00,0.86
6002.00,0.86
6001.00,0.86
6000.00,0.86
5999.00,0.86
5998.00,0.86
5997.00,0.86
5996.00,0.86
5995.00,0.86
5994.00,0.86
5993.00,0.86
5992.00,0.86
5991.00,0.86
5990.00,0.86
5989.00,0.86
5988.00,0.86
5987.00,0.86
5986.00,0.86
5985.00,0.86
5984.00,0.86
5983.00,0.86
5982.00,0.86
5981.00,0.86
5980.00,0.86
5979.00,0.86
5978.00,0.86
5977.00,0.86
5976.00,0.85
5975.00,0.85
5974.00,0.85
5973.00,0.85
5972.00,0.85
5971.00,0.84
5970.00,0.84
5969.00,0.84
5968.00,0.84
5967.00,0.83
5966.00,0.83
5965.00,0.83
5964.00,0.83
5963.00,0.83
5962.00,0.82
5961.00,0.82
5960.00,0.82
5959.00,0.82
5958.00,0.82
5957.00,0.82
5956.00,0.81
5955.00,0.81
5954.00,0.81
5953.00,0.81
5952.00,0.81
5951.00,0.81
5950.00,0.81
5949.00,0.81
5948.00,0.81
5947.00,0.81
5946.00,0.81
5945.00,0.81
5944.00,0.81
5943.00,0.81
5942.00,0.81
5941.00,0.81
5940.00,0.80
5939.00,0.80
5938.00,0.80
5937.00,0.80
5936.00,0.80
5935.00,0.80
5934.00,0.80
5933.00,0.80
5932.00,0.80
5931.00,0.80
5930.00,0.80
5929.00,0.80
5928.00,0.79
5927.00,0.79
5926.00,0.79
5925.00,0.79
5924.00,0.79
5923.00,0.79
5922.00,0.79
5921.00,0.78
5920.00,0.78
5919.00,0.78
5918.00,0.78
5917.00,0.78
5916.00,0.78
5915.00,0.78
5914.00,0.78
5913.00,0.78
5912.00,0.78
5911.00,0.78
5910.00,0.78
5909.00,0.78
5908.00,0.78
5907.00,0.78
5906.00,0.78
5905.00,0.78
5904.00,0.78
5903.00,0.78
5902.00,0.78
5901.00,0.79
5900.00,0.79
5899.00,0.79
5898.00,0.79
5897.00,0.79
5896.00,0.79
5895.00,0.80
5894.00,0.80
5893.00,0.80
5892.00,0.80
5891.00,0.80
5890.00,0.80
5889.00,0.80
5888.00,0.81
5887.00,0.81
5886.00,0.81
5885.00,0.81
5884.00,0.81
5883.00,0.81
5882.00,0.81
5881.00,0.81
5880.00,0.81
5879.00,0.81
5878.00,0.82
5877.00,0.82
5876.00,0.81
5875.00,0.81
5874.00,0.81
5873.00,0.81
5872.00,0.81
5871.00,0.81
5870.00,0.81
5869.00,0.81
5868.00,0.81
5867.00,0.81
5866.00,0.81
5865.00,0.81
5864.00,0.81
5863.00,0.81
5862.00,0.80
5861.00,0.80
5860.00,0.80
5859.00,0.80
5858.00,0.80
5857.00,0.80
5856.00,0.80
5855.00,0.80
5854.00,0.80
5853.00,0.79
5852.00,0.79
5851.00,0.79
5850.00,0.79
5849.00,0.79
5848.00,0.79
5847.00,0.79
5846.00,0.79
5845.00,0.79
5844.00,0.79
5843.00,0.79
5842.00,0.79
5841.00,0.79
5840.00,0.79
5839.00,0.79
5838.00,0.79
5837.00,0.79
5836.00,0.79
5835.00,0.79
5834.00,0.79
5833.00,0.79
5832.00,0.79
5831.00,0.79
5830.00,0.79
5829.00,0.79
5828.00,0.79
5827.00,0.80
5826.00,0.80
5825.00,0.80
5824.00,0.80
5823.00,0.80
5822.00,0.80
5821.00,0.80
5820.00,0.80
5819.00,0.80
5818.00,0.80
5817.00,0.80
5816.00,0.80
5815.00,0.80
5814.00,0.80
5813.00,0.80
5812.00,0.80
5811.00,0.80
5810.00,0.80
5809.00,0.80
5808.00,0.80
5807.00,0.80
5806.00,0.80
5805.00,0.80
5804.00,0.80
5803.00,0.80
5802.00,0.80
5801.00,0.80
5800.00,0.80
5799.00,0.80
5798.00,0.80
5797.00,0.80
5796.00,0.80
5795.00,0.80
5794.00,0.80
5793.00,0.80
5792.00,0.80
5791.00,0.80
5790.00,0.80
5789.00,0.80
5788.00,0.80
5787.00,0.80
5786.00,0.80
5785.00,0.80
5784.00,0.80
5783.00,0.80
5782.00,0.80
5781.00,0.80
5780.00,0.80
5779.00,0.80
5778.00,0.80
5777.00,0.80
5776.00,0.80
5775.00,0.80
5774.00,0.80
5773.00,0.80
5772.00,0.80
5771.00,0.80
5770.00,0.80
5769.00,0.80
5768.00,0.80
5767.00,0.80
5766.00,0.80
5765.00,0.80
5764.00,0.80
5763.00,0.80
5762.00,0.80
5761.00,0.80
5760.00,0.80
5759.00,0.81
5758.00,0.81
5757.00,0.81
5756.00,0.81
5755.00,0.81
5754.00,0.81
5753.00,0.81
5752.00,0.81
5751.00,0.81
5750.00,0.81
5749.00,0.81
5748.00,0.81
5747.00,0.82
5746.00,0.82
5745.00,0.82
5744.00,0.82
5743.00,0.82
5742.00,0.82
5741.00,0.82
5740.00,0.82
5739.00,0.82
5738.00,0.82
5737.00,0.82
5736.00,0.82
5735.00,0.82
5734.00,0.82
5733.00,0.82
5732.00,0.82
5731.00,0.82
5730.00,0.82
5729.00,0.82
5728.00,0.82
5727.00,0.82
5726.00,0.82
5725.00,0.82
5724.00,0.82
5723.00,0.82
5722.00,0.82
5721.00,0.82
5720.00,0.82
5719.00,0.82
5718.00,0.82
5717.00,0.82
5716.00,0.82
5715.00,0.82
5714.00,0.82
5713.00,0.82
5712.00,0.82
5711.00,0.82
5710.00,0.82
5709.00,0.82
5708.00,0.82
5707.00,0.82
5706.00,0.82
5705.00,0.82
5704.00,0.82
5703.00,0.82
5702.00,0.81
5701.00,0.81
5700.00,0.81
5699.00,0.81
5698.00,0.81
5697.00,0.81
5696.00,0.81
5695.00,0.81
5694.00,0.81
5693.00,0.81
5692.00,0.81
5691.00,0.80
5690.00,0.80
5689.00,0.80
5688.00,0.80
5687.00,0.80
5686.00,0.80
5685.00,0.80
5684.00,0.80
5683.00,0.80
5682.00,0.80
5681.00,0.79
5680.00,0.79
5679.00,0.79
5678.00,0.79
5677.00,0.79
5676.00,0.79
5675.00,0.79
5674.00,0.79
5673.00,0.79
5672.00,0.79
5671.00,0.79
5670.00,0.79
5669.00,0.79
5668.00,0.79
5667.00,0.79
5666.00,0.79
5665.00,0.79
5664.00,0.79
5663.00,0.79
5662.00,0.79
5661.00,0.79
5660.00,0.79
5659.00,0.79
5658.00,0.80
5657.00,0.80
5656.00,0.80
5655.00,0.80
5654.00,0.80
5653.00,0.80
5652.00,0.80
5651.00,0.80
5650.00,0.80
5649.00,0.80
5648.00,0.81
5647.00,0.81
5646.00,0.81
5645.00,0.81
5644.00,0.81
5643.00,0.81
5642.00,0.81
5641.00,0.81
5640.00,0.81
5639.00,0.81
5638.00,0.81
5637.00,0.81
5636.00,0.81
5635.00,0.81
5634.00,0.81
5633.00,0.81
5632.00,0.81
5631.00,0.81
5630.00,0.81
5629.00,0.81
5628.00,0.81
5627.00,0.81
5626.00,0.81
5625.00,0.81
5624.00,0.81
5623.00,0.81
5622.00,0.81
5621.00,0.81
5620.00,0.81
5619.00,0.81
5618.00,0.81
5617.00,0.81
5616.00,0.81
5615.00,0.81
5614.00,0.81
5613.00,0.81
5612.00,0.81
5611.00,0.81
5610.00,0.81
5609.00,0.81
5608.00,0.82
5607.00,0.82
5606.00,0.82
5605.00,0.82
5604.00,0.82
5603.00,0.82
5602.00,0.82
5601.00,0.82
5600.00,0.82
5599.00,0.82
5598.00,0.82
5597.00,0.82
5596.00,0.82
5595.00,0.82
5594.00,0.82
5593.00,0.82
5592.00,0.82
5591.00,0.82
5590.00,0.82
5589.00,0.83
5588.00,0.83
5587.00,0.83
5586.00,0.83
5585.00,0.83
5584.00,0.83
5583.00,0.83
5582.00,0.83
5581.00,0.83
5580.00,0.83
5579.00,0.83
5578.00,0.83
5577.00,0.83
5576.00,0.83
5575.00,0.83
5574.00,0.83
5573.00,0.83
5572.00,0.83
5571.00,0.83
5570.00,0.84
5569.00,0.84
5568.00,0.84
5567.00,0.84
5566.00,0.84
5565.00,0.84
5564.00,0.84
5563.00,0.84
5562.00,0.84
5561.00,0.84
5560.00,0.84
5559.00,0.84
5558.00,0.84
5557.00,0.84
5556.00,0.84
5555.00,0.84
5554.00,0.84
5553.00,0.84
5552.00,0.85
5551.00,0.85
5550.00,0.85
5549.00,0.85
5548.00,0.85
5547.00,0.85
5546.00,0.85
5545.00,0.85
5544.00,0.85
5543.00,0.85
5542.00,0.85
5541.00,0.85
5540.00,0.85
5539.00,0.85
5538.00,0.85
5537.00,0.85
5536.00,0.85
5535.00,0.85
5534.00,0.86
5533.00,0.86
5532.00,0.86
5531.00,0.86
5530.00,0.86
5529.00,0.86
5528.00,0.86
5527.00,0.86
5526.00,0.86
5525.00,0.86
5524.00,0.86
5523.00,0.86
5522.00,0.86
5521.00,0.86
5520.00,0.87
5519.00,0.87
5518.00,0.87
5517.00,0.87
5516.00,0.87
5515.00,0.87
5514.00,0.87
5513.00,0.88
5512.00,0.88
5511.00,0.88
5510.00,0.88
5509.00,0.88
5508.00,0.88
5507.00,0.89
5506.00,0.89
5505.00,0.89
5504.00,0.89
5503.00,0.89
5502.00,0.89
5501.00,0.89
5500.00,0.89
5499.00,0.89
5498.00,0.90
5497.00,0.90
5496.00,0.90
5495.00,0.90
5494.00,0.90
5493.00,0.90
5492.00,0.89
5491.00,0.89
5490.00,0.89
5489.00,0.89
5488.00,0.89
5487.00,0.89
5486.00,0.89
5485.00,0.89
5484.00,0.89
5483.00,0.89
5482.00,0.89
5481.00,0.88
5480.00,0.88
5479.00,0.88
5478.00,0.88
5477.00,0.88
5476.00,0.88
5475.00,0.88
5474.00,0.88
5473.00,0.88
5472.00,0.88
5471.00,0.88
5470.00,0.88
5469.00,0.88
5468.00,0.88
5467.00,0.88
5466.00,0.88
5465.00,0.88
5464.00,0.88
5463.00,0.88
5462.00,0.88
5461.00,0.88
5460.00,0.88
5459.00,0.88
5458.00,0.88
5457.00,0.88
5456.00,0.88
5455.00,0.88
5454.00,0.88
5453.00,0.88
5452.00,0.88
5451.00,0.88
5450.00,0.88
5449.00,0.88
5448.00,0.89
5447.00,0.89
5446.00,0.89
5445.00,0.89
5444.00,0.89
5443.00,0.89
5442.00,0.89
5441.00,0.89
5440.00,0.89
5439.00,0.89
5438.00,0.89
5437.00,0.89
5436.00,0.89
5435.00,0.89
5434.00,0.89
5433.00,0.89
5432.00,0.89
5431.00,0.89
5430.00,0.89
5429.00,0.89
5428.00,0.89
5427.00,0.89
5426.00,0.89
5425.00,0.89
5424.00,0.89
5423.00,0.89
5422.00,0.89
5421.00,0.89
5420.00,0.89
5419.00,0.89
5418.00,0.89
5417.00,0.89
5416.00,0.89
5415.00,0.89
5414.00,0.89
5413.00,0.88
5412.00,0.88
5411.00,0.88
5410.00,0.88
5409.00,0.88
5408.00,0.88
5407.00,0.87
5406.00,0.87
5405.00,0.87
5404.00,0.87
5403.00,0.87
5402.00,0.87
5401.00,0.87
5400.00,0.87
5399.00,0.87
5398.00,0.87
5397.00,0.86
5396.00,0.86
5395.00,0.86
5394.00,0.86
5393.00,0.86
5392.00,0.86
5391.00,0.86
5390.00,0.86
5389.00,0.86
5388.00,0.86
5387.00,0.86
5386.00,0.86
5385.00,0.85
5384.00,0.85
5383.00,0.85
5382.00,0.85
5381.00,0.85
5380.00,0.85
5379.00,0.85
5378.00,0.85
5377.00,0.85
5376.00,0.84
5375.00,0.84
5374.00,0.84
5373.00,0.84
5372.00,0.84
5371.00,0.84
5370.00,0.83
5369.00,0.83
5368.00,0.83
5367.00,0.83
5366.00,0.83
5365.00,0.82
5364.00,0.82
5363.00,0.82
5362.00,0.82
5361.00,0.81
5360.00,0.81
5359.00,0.81
5358.00,0.80
5357.00,0.80
5356.00,0.80
5355.00,0.79
5354.00,0.79
5353.00,0.78
5352.00,0.78
5351.00,0.78
5350.00,0.77
5349.00,0.77
5348.00,0.76
5347.00,0.76
5346.00,0.75
5345.00,0.75
5344.00,0.74
5343.00,0.74
5342.00,0.73
5341.00,0.72
5340.00,0.72
5339.00,0.71
5338.00,0.71
5337.00,0.70
5336.00,0.70
5335.00,0.69
5334.00,0.68
5333.00,0.68
5332.00,0.67
5331.00,0.67
5330.00,0.66
5329.00,0.65
5328.00,0.65
5327.00,0.64
5326.00,0.64
5325.00,0.63
5324.00,0.62
5323.00,0.62
5322.00,0.61
5321.00,0.61
5320.00,0.60
5319.00,0.59
5318.00,0.59
5317.00,0.58
5316.00,0.58
5315.00,0.57
5314.00,0.57
5313.00,0.56
5312.00,0.56
5311.00,0.55
5310.00,0.54
5309.00,0.54
5308.00,0.53
5307.00,0.53
5306.00,0.52
5305.00,0.52
5304.00,0.51
5303.00,0.51
5302.00,0.51
5301.00,0.50
5300.00,0.50
5299.00,0.49
5298.00,0.49
5297.00,0.49
5296.00,0.48
5295.00,0.48
5294.00,0.48
5293.00,0.47
5292.00,0.47
5291.00,0.47
5290.00,0.46
5289.00,0.46
5288.00,0.46
5287.00,0.46
5286.00,0.45
5285.00,0.45
5284.00,0.45
5283.00,0.45
5282.00,0.45
5281.00,0.45
5280.00,0.44
5279.00,0.44
5278.00,0.44
5277.00,0.44
5276.00,0.44
5275.00,0.44
5274.00,0.44
5273.00,0.44
5272.00,0.43
5271.00,0.43
5270.00,0.43
5269.00,0.43
5268.00,0.43
5267.00,0.43
5266.00,0.43
5265.00,0.43
5264.00,0.43
5263.00,0.43
5262.00,0.43
5261.00,0.43
5260.00,0.43
5259.00,0.43
5258.00,0.43
5257.00,0.43
5256.00,0.43
5255.00,0.43
5254.00,0.43
5253.00,0.43
5252.00,0.43
5251.00,0.43
5250.00,0.43
5249.00,0.43
5248.00,0.43
5247.00,0.43
5246.00,0.43
5245.00,0.43
5244.00,0.43
5243.00,0.43
5242.00,0.43
5241.00,0.43
5240.00,0.43
5239.00,0.43
5238.00,0.43
5237.00,0.43
5236.00,0.43
5235.00,0.43
5234.00,0.43
5233.00,0.43
5232.00,0.43
5231.00,0.43
5230.00,0.43
5229.00,0.43
5228.00,0.43
5227.00,0.43
5226.00,0.43
5225.00,0.43
5224.00,0.43
5223.00,0.43
5222.00,0.43
5221.00,0.43
5220.00,0.43
5219.00,0.43
5218.00,0.43
5217.00,0.43
5216.00,0.43
5215.00,0.43
5214.00,0.43
5213.00,0.43
5212.00,0.43
5211.00,0.43
5210.00,0.43
5209.00,0.43
5208.00,0.43
5207.00,0.43
5206.00,0.43
5205.00,0.43
5204.00,0.43
5203.00,0.43
5202.00,0.43
5201.00,0.43
5200.00,0.43
5199.00,0.43
5198.00,0.43
5197.00,0.43
5196.00,0.43
5195.00,0.43
5194.00,0.43
5193.00,0.43
5192.00,0.43
5191.00,0.43
5190.00,0.44
5189.00,0.44
5188.00,0.44
5187.00,0.44
5186.00,0.44
5185.00,0.44
5184.00,0.44
5183.00,0.44
5182.00,0.44
5181.00,0.44
5180.00,0.44
5179.00,0.44
5178.00,0.44
5177.00,0.44
5176.00,0.44
5175.00,0.44
5174.00,0.44
5173.00,0.44
5172.00,0.44
5171.00,0.44
5170.00,0.44
5169.00,0.44
5168.00,0.44
5167.00,0.44
5166.00,0.44
5165.00,0.44
5164.00,0.44
5163.00,0.44
5162.00,0.44
5161.00,0.44
5160.00,0.44
5159.00,0.44
5158.00,0.44
5157.00,0.44
5156.00,0.44
5155.00,0.44
5154.00,0.44
5153.00,0.44
5152.00,0.44
5151.00,0.44
5150.00,0.44
5149.00,0.44
5148.00,0.44
5147.00,0.44
5146.00,0.44
5145.00,0.44
5144.00,0.44
5143.00,0.44
5142.00,0.44
5141.00,0.44
5140.00,0.44
5139.00,0.44
5138.00,0.44
5137.00,0.44
5136.00,0.44
5135.00,0.44
5134.00,0.44
5133.00,0.44
5132.00,0.44
5131.00,0.44
5130.00,0.44
5129.00,0.44
5128.00,0.44
5127.00,0.44
5126.00,0.44
5125.00,0.44
5124.00,0.44
5123.00,0.44
5122.00,0.44
5121.00,0.44
5120.00,0.44
5119.00,0.44
5118.00,0.44
5117.00,0.44
5116.00,0.45
5115.00,0.45
5114.00,0.45
5113.00,0.45
5112.00,0.45
5111.00,0.45
5110.00,0.45
5109.00,0.45
5108.00,0.45
5107.00,0.46
5106.00,0.46
5105.00,0.46
5104.00,0.46
5103.00,0.46
5102.00,0.46
5101.00,0.46
5100.00,0.46
5099.00,0.46
5098.00,0.46
5097.00,0.46
5096.00,0.46
5095.00,0.46
5094.00,0.46
5093.00,0.45
5092.00,0.45
5091.00,0.45
5090.00,0.45
5089.00,0.45
5088.00,0.45
5087.00,0.45
5086.00,0.45
5085.00,0.44
5084.00,0.44
5083.00,0.44
5082.00,0.44
5081.00,0.44
5080.00,0.44
5079.00,0.44
5078.00,0.44
5077.00,0.44
5076.00,0.44
5075.00,0.44
5074.00,0.44
5073.00,0.44
5072.00,0.44
5071.00,0.44
5070.00,0.44
5069.00,0.44
5068.00,0.44
5067.00,0.44
5066.00,0.44
5065.00,0.44
5064.00,0.45
5063.00,0.45
5062.00,0.45
5061.00,0.45
5060.00,0.45
5059.00,0.45
5058.00,0.45
5057.00,0.45
5056.00,0.45
5055.00,0.45
5054.00,0.45
5053.00,0.45
5052.00,0.45
5051.00,0.45
5050.00,0.45
5049.00,0.45
5048.00,0.45
5047.00,0.45
5046.00,0.45
5045.00,0.45
5044.00,0.45
5043.00,0.45
5042.00,0.45
5041.00,0.45
5040.00,0.45
5039.00,0.45
5038.00,0.45
5037.00,0.45
5036.00,0.45
5035.00,0.45
5034.00,0.46
5033.00,0.46
5032.00,0.46
5031.00,0.46
5030.00,0.46
5029.00,0.47
5028.00,0.47
5027.00,0.47
5026.00,0.47
5025.00,0.47
5024.00,0.48
5023.00,0.48
5022.00,0.48
5021.00,0.48
5020.00,0.48
5019.00,0.48
5018.00,0.49
5017.00,0.49
5016.00,0.49
5015.00,0.49
5014.00,0.49
5013.00,0.49
5012.00,0.49
5011.00,0.49
5010.00,0.49
5009.00,0.49
5008.00,0.49
5007.00,0.49
5006.00,0.50
5005.00,0.50
5004.00,0.49
5003.00,0.49
5002.00,0.49
5001.00,0.49
5000.00,0.49
4999.00,0.49
4998.00,0.49
4997.00,0.49
4996.00,0.49
4995.00,0.49
4994.00,0.49
4993.00,0.49
4992.00,0.50
4991.00,0.50
4990.00,0.50
4989.00,0.50
4988.00,0.50
4987.00,0.50
4986.00,0.50
4985.00,0.50
4984.00,0.50
4983.00,0.50
4982.00,0.50
4981.00,0.50
4980.00,0.50
4979.00,0.50
4978.00,0.50
4977.00,0.50
4976.00,0.50
4975.00,0.50
4974.00,0.51
4973.00,0.51
4972.00,0.51
4971.00,0.51
4970.00,0.51
4969.00,0.51
4968.00,0.51
4967.00,0.51
4966.00,0.51
4965.00,0.51
4964.00,0.51
4963.00,0.51
4962.00,0.51
4961.00,0.51
4960.00,0.51
4959.00,0.51
4958.00,0.51
4957.00,0.51
4956.00,0.51
4955.00,0.51
4954.00,0.51
4953.00,0.51
4952.00,0.51
4951.00,0.52
4950.00,0.52
4949.00,0.52
4948.00,0.52
4947.00,0.52
4946.00,0.52
4945.00,0.52
4944.00,0.52
4943.00,0.52
4942.00,0.52
4941.00,0.52
4940.00,0.52
4939.00,0.53
4938.00,0.53
4937.00,0.53
4936.00,0.53
4935.00,0.53
4934.00,0.53
4933.00,0.53
4932.00,0.53
4931.00,0.54
4930.00,0.54
4929.00,0.54
4928.00,0.54
4927.00,0.54
4926.00,0.54
4925.00,0.54
4924.00,0.54
4923.00,0.54
4922.00,0.54
4921.00,0.55
4920.00,0.55
4919.00,0.55
4918.00,0.55
4917.00,0.55
4916.00,0.55
4915.00,0.55
4914.00,0.55
4913.00,0.55
4912.00,0.55
4911.00,0.55
4910.00,0.56
4909.00,0.56
4908.00,0.56
4907.00,0.56
4906.00,0.56
4905.00,0.56
4904.00,0.56
4903.00,0.56
4902.00,0.57
4901.00,0.57
4900.00,0.57
4899.00,0.57
4898.00,0.57
4897.00,0.57
4896.00,0.57
4895.00,0.58
4894.00,0.58
4893.00,0.58
4892.00,0.58
4891.00,0.58
4890.00,0.58
4889.00,0.58
4888.00,0.58
4887.00,0.58
4886.00,0.58
4885.00,0.58
4884.00,0.58
4883.00,0.58
4882.00,0.58
4881.00,0.58
4880.00,0.58
4879.00,0.58
4878.00,0.58
4877.00,0.58
4876.00,0.58
4875.00,0.58
4874.00,0.58
4873.00,0.58
4872.00,0.58
4871.00,0.58
4870.00,0.58
4869.00,0.58
4868.00,0.58
4867.00,0.58
4866.00,0.58
4865.00,0.57
4864.00,0.57
4863.00,0.57
4862.00,0.57
4861.00,0.57
4860.00,0.57
4859.00,0.57
4858.00,0.57
4857.00,0.57
4856.00,0.57
4855.00,0.57
4854.00,0.57
4853.00,0.57
4852.00,0.57
4851.00,0.58
4850.00,0.58
4849.00,0.58
4848.00,0.58
4847.00,0.58
4846.00,0.58
4845.00,0.58
4844.00,0.58
4843.00,0.58
4842.00,0.58
4841.00,0.59
4840.00,0.59
4839.00,0.59
4838.00,0.59
4837.00,0.59
4836.00,0.60
4835.00,0.60
4834.00,0.60
4833.00,0.60
4832.00,0.60
4831.00,0.61
4830.00,0.61
4829.00,0.61
4828.00,0.61
4827.00,0.62
4826.00,0.62
4825.00,0.62
4824.00,0.62
4823.00,0.62
4822.00,0.63
4821.00,0.63
4820.00,0.63
4819.00,0.63
4818.00,0.63
4817.00,0.64
4816.00,0.64
4815.00,0.64
4814.00,0.64
4813.00,0.64
4812.00,0.64
4811.00,0.65
4810.00,0.65
4809.00,0.65
4808.00,0.65
4807.00,0.65
4806.00,0.65
4805.00,0.65
4804.00,0.66
4803.00,0.66
4802.00,0.66
4801.00,0.66
4800.00,0.66
4799.00,0.66
4798.00,0.66
4797.00,0.67
4796.00,0.67
4795.00,0.67
4794.00,0.67
4793.00,0.67
4792.00,0.67
4791.00,0.67
4790.00,0.67
4789.00,0.67
4788.00,0.68
4787.00,0.68
4786.00,0.68
4785.00,0.68
4784.00,0.68
4783.00,0.68
4782.00,0.68
4781.00,0.68
4780.00,0.68
4779.00,0.68
4778.00,0.68
4777.00,0.68
4776.00,0.68
4775.00,0.68
4774.00,0.68
4773.00,0.68
4772.00,0.68
4771.00,0.68
4770.00,0.68
4769.00,0.68
4768.00,0.68
4767.00,0.69
4766.00,0.69
4765.00,0.69
4764.00,0.69
4763.00,0.69
4762.00,0.69
4761.00,0.69
4760.00,0.69
4759.00,0.69
4758.00,0.69
4757.00,0.69
4756.00,0.69
4755.00,0.69
4754.00,0.69
4753.00,0.70
4752.00,0.70
4751.00,0.70
4750.00,0.70
4749.00,0.70
4748.00,0.70
4747.00,0.70
4746.00,0.70
4745.00,0.70
4744.00,0.70
4743.00,0.70
4742.00,0.70
4741.00,0.70
4740.00,0.70
4739.00,0.70
4738.00,0.70
4737.00,0.70
4736.00,0.70
4735.00,0.70
4734.00,0.70
4733.00,0.70
4732.00,0.70
4731.00,0.70
4730.00,0.71
4729.00,0.71
4728.00,0.71
4727.00,0.71
4726.00,0.71
4725.00,0.71
4724.00,0.71
4723.00,0.71
4722.00,0.71
4721.00,0.71
4720.00,0.72
4719.00,0.72
4718.00,0.72
4717.00,0.72
4716.00,0.72
4715.00,0.72
4714.00,0.72
4713.00,0.73
4712.00,0.73
4711.00,0.73
4710.00,0.73
4709.00,0.73
4708.00,0.74
4707.00,0.74
4706.00,0.74
4705.00,0.74
4704.00,0.74
4703.00,0.75
4702.00,0.75
4701.00,0.75
4700.00,0.75
4699.00,0.75
4698.00,0.76
4697.00,0.76
4696.00,0.76
4695.00,0.76
4694.00,0.76
4693.00,0.76
4692.00,0.76
4691.00,0.76
4690.00,0.77
4689.00,0.77
4688.00,0.77
4687.00,0.77
4686.00,0.77
4685.00,0.77
4684.00,0.77
4683.00,0.77
4682.00,0.77
4681.00,0.77
4680.00,0.77
4679.00,0.77
4678.00,0.76
4677.00,0.76
4676.00,0.76
4675.00,0.76
4674.00,0.76
4673.00,0.76
4672.00,0.76
4671.00,0.76
4670.00,0.76
4669.00,0.76
4668.00,0.76
4667.00,0.76
4666.00,0.76
4665.00,0.76
4664.00,0.76
4663.00,0.76
4662.00,0.76
4661.00,0.76
4660.00,0.76
4659.00,0.76
4658.00,0.76
4657.00,0.77
4656.00,0.77
4655.00,0.77
4654.00,0.77
4653.00,0.77
4652.00,0.78
4651.00,0.78
4650.00,0.78
4649.00,0.78
4648.00,0.78
4647.00,0.79
4646.00,0.79
4645.00,0.79
4644.00,0.79
4643.00,0.79
4642.00,0.80
4641.00,0.80
4640.00,0.80
4639.00,0.80
4638.00,0.80
4637.00,0.81
4636.00,0.81
4635.00,0.81
4634.00,0.81
4633.00,0.81
4632.00,0.82
4631.00,0.82
4630.00,0.82
4629.00,0.82
4628.00,0.82
4627.00,0.82
4626.00,0.83
4625.00,0.83
4624.00,0.83
4623.00,0.83
4622.00,0.83
4621.00,0.83
4620.00,0.84
4619.00,0.84
4618.00,0.84
4617.00,0.84
4616.00,0.84
4615.00,0.84
4614.00,0.84
4613.00,0.85
4612.00,0.85
4611.00,0.85
4610.00,0.85
4609.00,0.85
4608.00,0.85
4607.00,0.85
4606.00,0.85
4605.00,0.85
4604.00,0.86
4603.00,0.86
4602.00,0.86
4601.00,0.86
4600.00,0.86
4599.00,0.86
4598.00,0.86
4597.00,0.86
4596.00,0.86
4595.00,0.86
4594.00,0.86
4593.00,0.86
4592.00,0.86
4591.00,0.86
4590.00,0.86
4589.00,0.86
4588.00,0.86
4587.00,0.86
4586.00,0.86
4585.00,0.87
4584.00,0.87
4583.00,0.87
4582.00,0.87
4581.00,0.87
4580.00,0.87
4579.00,0.87
4578.00,0.87
4577.00,0.87
4576.00,0.87
4575.00,0.87
4574.00,0.87
4573.00,0.87
4572.00,0.87
4571.00,0.87
4570.00,0.87
4569.00,0.87
4568.00,0.87
4567.00,0.87
4566.00,0.87
4565.00,0.87
4564.00,0.87
4563.00,0.87
4562.00,0.87
4561.00,0.87
4560.00,0.87
4559.00,0.87
4558.00,0.88
4557.00,0.88
4556.00,0.88
4555.00,0.88
4554.00,0.88
4553.00,0.88
4552.00,0.88
4551.00,0.88
4550.00,0.88
4549.00,0.89
4548.00,0.89
4547.00,0.89
4546.00,0.89
4545.00,0.89
4544.00,0.89
4543.00,0.89
4542.00,0.89
4541.00,0.90
4540.00,0.90
4539.00,0.90
4538.00,0.90
4537.00,0.90
4536.00,0.90
4535.00,0.90
4534.00,0.90
4533.00,0.90
4532.00,0.90
4531.00,0.90
4530.00,0.90
4529.00,0.90
4528.00,0.90
4527.00,0.90
4526.00,0.90
4525.00,0.90
4524.00,0.90
4523.00,0.90
4522.00,0.89
4521.00,0.89
4520.00,0.89
4519.00,0.89
4518.00,0.89
4517.00,0.89
4516.00,0.89
4515.00,0.89
4514.00,0.89
4513.00,0.89
4512.00,0.89
4511.00,0.89
4510.00,0.89
4509.00,0.89
4508.00,0.89
4507.00,0.89
4506.00,0.89
4505.00,0.89
4504.00,0.89
4503.00,0.89
4502.00,0.88
4501.00,0.88
4500.00,0.88
4499.00,0.88
4498.00,0.88
4497.00,0.88
4496.00,0.87
4495.00,0.87
4494.00,0.87
4493.00,0.87
4492.00,0.87
4491.00,0.86
4490.00,0.86
4489.00,0.86
4488.00,0.86
4487.00,0.86
4486.00,0.85
4485.00,0.85
4484.00,0.85
4483.00,0.85
4482.00,0.85
4481.00,0.85
4480.00,0.85
4479.00,0.85
4478.00,0.85
4477.00,0.85
4476.00,0.85
4475.00,0.85
4474.00,0.85
4473.00,0.85
4472.00,0.85
4471.00,0.85
4470.00,0.85
4469.00,0.85
4468.00,0.85
4467.00,0.85
4466.00,0.85
4465.00,0.85
4464.00,0.85
4463.00,0.85
4462.00,0.85
4461.00,0.85
4460.00,0.85
4459.00,0.86
4458.00,0.86
4457.00,0.86
4456.00,0.86
4455.00,0.85
4454.00,0.85
4453.00,0.85
4452.00,0.85
4451.00,0.85
4450.00,0.85
4449.00,0.84
4448.00,0.84
4447.00,0.84
4446.00,0.83
4445.00,0.83
4444.00,0.83
4443.00,0.82
4442.00,0.82
4441.00,0.81
4440.00,0.81
4439.00,0.81
4438.00,0.80
4437.00,0.80
4436.00,0.79
4435.00,0.79
4434.00,0.78
4433.00,0.78
4432.00,0.77
4431.00,0.77
4430.00,0.76
4429.00,0.76
4428.00,0.75
4427.00,0.75
4426.00,0.74
4425.00,0.74
4424.00,0.73
4423.00,0.73
4422.00,0.73
4421.00,0.72
4420.00,0.72
4419.00,0.71
4418.00,0.71
4417.00,0.71
4416.00,0.70
4415.00,0.70
4414.00,0.70
4413.00,0.70
4412.00,0.70
4411.00,0.70
4410.00,0.70
4409.00,0.70
4408.00,0.70
4407.00,0.70
4406.00,0.70
4405.00,0.70
4404.00,0.70
4403.00,0.70
4402.00,0.70
4401.00,0.71
4400.00,0.71
4399.00,0.71
4398.00,0.71
4397.00,0.72
4396.00,0.72
4395.00,0.72
4394.00,0.73
4393.00,0.73
4392.00,0.74
4391.00,0.74
4390.00,0.75
4389.00,0.75
4388.00,0.75
4387.00,0.76
4386.00,0.76
4385.00,0.76
4384.00,0.76
4383.00,0.77
4382.00,0.77
4381.00,0.77
4380.00,0.77
4379.00,0.78
4378.00,0.78
4377.00,0.78
4376.00,0.78
4375.00,0.78
4374.00,0.78
4373.00,0.78
4372.00,0.78
4371.00,0.78
4370.00,0.77
4369.00,0.77
4368.00,0.77
4367.00,0.77
4366.00,0.76
4365.00,0.76
4364.00,0.76
4363.00,0.75
4362.00,0.75
4361.00,0.75
4360.00,0.75
4359.00,0.74
4358.00,0.74
4357.00,0.74
4356.00,0.74
4355.00,0.73
4354.00,0.73
4353.00,0.73
4352.00,0.73
4351.00,0.73
4350.00,0.73
4349.00,0.72
4348.00,0.72
4347.00,0.72
4346.00,0.72
4345.00,0.72
4344.00,0.72
4343.00,0.73
4342.00,0.73
4341.00,0.73
4340.00,0.73
4339.00,0.73
4338.00,0.73
4337.00,0.74
4336.00,0.74
4335.00,0.74
4334.00,0.74
4333.00,0.74
4332.00,0.75
4331.00,0.75
4330.00,0.75
4329.00,0.75
4328.00,0.75
4327.00,0.75
4326.00,0.75
4325.00,0.76
4324.00,0.76
4323.00,0.76
4322.00,0.76
4321.00,0.76
4320.00,0.76
4319.00,0.76
4318.00,0.76
4317.00,0.76
4316.00,0.76
4315.00,0.76
4314.00,0.76
4313.00,0.76
4312.00,0.76
4311.00,0.76
4310.00,0.76
4309.00,0.77
4308.00,0.77
4307.00,0.77
4306.00,0.77
4305.00,0.77
4304.00,0.77
4303.00,0.77
4302.00,0.77
4301.00,0.77
4300.00,0.77
4299.00,0.78
4298.00,0.78
4297.00,0.78
4296.00,0.78
4295.00,0.78
4294.00,0.78
4293.00,0.78
4292.00,0.79
4291.00,0.79
4290.00,0.79
4289.00,0.79
4288.00,0.79
4287.00,0.79
4286.00,0.80
4285.00,0.80
4284.00,0.80
4283.00,0.80
4282.00,0.80
4281.00,0.80
4280.00,0.80
4279.00,0.80
4278.00,0.80
4277.00,0.80
4276.00,0.80
4275.00,0.80
4274.00,0.81
4273.00,0.81
4272.00,0.81
4271.00,0.81
4270.00,0.81
4269.00,0.81
4268.00,0.81
4267.00,0.81
4266.00,0.81
4265.00,0.81
4264.00,0.81
4263.00,0.82
4262.00,0.82
4261.00,0.82
4260.00,0.82
4259.00,0.82
4258.00,0.82
4257.00,0.82
4256.00,0.82
4255.00,0.82
4254.00,0.82
4253.00,0.82
4252.00,0.82
4251.00,0.82
4250.00,0.82
4249.00,0.82
4248.00,0.82
4247.00,0.82
4246.00,0.82
4245.00,0.82
4244.00,0.82
4243.00,0.82
4242.00,0.82
4241.00,0.82
4240.00,0.82
4239.00,0.82
4238.00,0.82
4237.00,0.82
4236.00,0.82
4235.00,0.82
4234.00,0.82
4233.00,0.82
4232.00,0.82
4231.00,0.82
4230.00,0.82
4229.00,0.82
4228.00,0.82
4227.00,0.82
4226.00,0.81
4225.00,0.81
4224.00,0.81
4223.00,0.81
4222.00,0.81
4221.00,0.81
4220.00,0.80
4219.00,0.80
4218.00,0.80
4217.00,0.80
4216.00,0.80
4215.00,0.80
4214.00,0.79
4213.00,0.79
4212.00,0.79
4211.00,0.79
4210.00,0.79
4209.00,0.79
4208.00,0.79
4207.00,0.79
4206.00,0.79
4205.00,0.79
4204.00,0.79
4203.00,0.79
4202.00,0.79
4201.00,0.79
4200.00,0.79
4199.00,0.79
4198.00,0.79
4197.00,0.80
4196.00,0.80
4195.00,0.80
4194.00,0.80
4193.00,0.80
4192.00,0.81
4191.00,0.81
4190.00,0.81
4189.00,0.81
4188.00,0.81
4187.00,0.82
4186.00,0.82
4185.00,0.82
4184.00,0.82
4183.00,0.82
4182.00,0.82
4181.00,0.83
4180.00,0.83
4179.00,0.83
4178.00,0.83
4177.00,0.83
4176.00,0.83
4175.00,0.83
4174.00,0.83
4173.00,0.82
4172.00,0.82
4171.00,0.82
4170.00,0.82
4169.00,0.82
4168.00,0.82
4167.00,0.82
4166.00,0.81
4165.00,0.81
4164.00,0.81
4163.00,0.81
4162.00,0.80
4161.00,0.80
4160.00,0.80
4159.00,0.80
4158.00,0.80
4157.00,0.80
4156.00,0.80
4155.00,0.79
4154.00,0.79
4153.00,0.79
4152.00,0.79
4151.00,0.79
4150.00,0.79
4149.00,0.79
4148.00,0.79
4147.00,0.79
4146.00,0.78
4145.00,0.78
4144.00,0.78
4143.00,0.78
4142.00,0.78
4141.00,0.78
4140.00,0.79
4139.00,0.79
4138.00,0.79
4137.00,0.79
4136.00,0.79
4135.00,0.79
4134.00,0.79
4133.00,0.79
4132.00,0.80
4131.00,0.80
4130.00,0.80
4129.00,0.80
4128.00,0.80
4127.00,0.80
4126.00,0.80
4125.00,0.80
4124.00,0.80
4123.00,0.80
4122.00,0.80
4121.00,0.80
4120.00,0.80
4119.00,0.80
4118.00,0.80
4117.00,0.80
4116.00,0.80
4115.00,0.80
4114.00,0.80
4113.00,0.80
4112.00,0.80
4111.00,0.80
4110.00,0.80
4109.00,0.79
4108.00,0.79
4107.00,0.79
4106.00,0.79
4105.00,0.79
4104.00,0.79
4103.00,0.79
4102.00,0.79
4101.00,0.79
4100.00,0.79
4099.00,0.79
4098.00,0.79
4097.00,0.79
4096.00,0.79
4095.00,0.79
4094.00,0.79
4093.00,0.79
4092.00,0.78
4091.00,0.78
4090.00,0.78
4089.00,0.78
4088.00,0.78
4087.00,0.78
4086.00,0.78
4085.00,0.78
4084.00,0.79
4083.00,0.79
4082.00,0.79
4081.00,0.79
4080.00,0.79
4079.00,0.79
4078.00,0.79
4077.00,0.79
4076.00,0.79
4075.00,0.80
4074.00,0.80
4073.00,0.80
4072.00,0.80
4071.00,0.80
4070.00,0.81
4069.00,0.81
4068.00,0.81
4067.00,0.81
4066.00,0.82
4065.00,0.82
4064.00,0.82
4063.00,0.83
4062.00,0.83
4061.00,0.83
4060.00,0.84
4059.00,0.84
4058.00,0.85
4057.00,0.85
4056.00,0.86
4055.00,0.86
4054.00,0.86
4053.00,0.87
4052.00,0.87
4051.00,0.87
4050.00,0.88
4049.00,0.88
4048.00,0.88
4047.00,0.88
4046.00,0.88
4045.00,0.88
4044.00,0.88
4043.00,0.88
4042.00,0.88
4041.00,0.88
4040.00,0.88
4039.00,0.88
4038.00,0.88
4037.00,0.88
4036.00,0.87
4035.00,0.87
4034.00,0.87
4033.00,0.87
4032.00,0.86
4031.00,0.86
4030.00,0.85
4029.00,0.85
4028.00,0.84
4027.00,0.84
4026.00,0.84
4025.00,0.83
4024.00,0.83
4023.00,0.83
4022.00,0.83
4021.00,0.83
4020.00,0.83
4019.00,0.83
4018.00,0.83
4017.00,0.83
4016.00,0.83
4015.00,0.84
4014.00,0.84
4013.00,0.84
4012.00,0.85
4011.00,0.86
4010.00,0.86
4009.00,0.87
4008.00,0.88
4007.00,0.89
4006.00,0.89
4005.00,0.90
4004.00,0.91
4003.00,0.93
4002.00,0.94
4001.00,0.95
4000.00,0.96
