创建为新数据集,样品 019 用户 Administrator 日期 星期五, 七月 26 2019
cm-1,%T
10000.00,0.90
9999.00,0.90
9998.00,0.90
9997.00,0.90
9996.00,0.90
9995.00,0.90
9994.00,0.89
9993.00,0.89
9992.00,0.89
9991.00,0.89
9990.00,0.89
9989.00,0.89
9988.00,0.88
9987.00,0.88
9986.00,0.88
9985.00,0.88
9984.00,0.88
9983.00,0.88
9982.00,0.88
9981.00,0.88
9980.00,0.87
9979.00,0.87
9978.00,0.87
9977.00,0.87
9976.00,0.86
9975.00,0.86
9974.00,0.85
9973.00,0.85
9972.00,0.84
9971.00,0.84
9970.00,0.84
9969.00,0.83
9968.00,0.82
9967.00,0.82
9966.00,0.81
9965.00,0.81
9964.00,0.80
9963.00,0.79
9962.00,0.78
9961.00,0.77
9960.00,0.76
9959.00,0.75
9958.00,0.75
9957.00,0.74
9956.00,0.73
9955.00,0.72
9954.00,0.71
9953.00,0.70
9952.00,0.70
9951.00,0.69
9950.00,0.69
9949.00,0.68
9948.00,0.68
9947.00,0.68
9946.00,0.68
9945.00,0.67
9944.00,0.67
9943.00,0.68
9942.00,0.68
9941.00,0.68
9940.00,0.68
9939.00,0.69
9938.00,0.69
9937.00,0.70
9936.00,0.70
9935.00,0.71
9934.00,0.72
9933.00,0.72
9932.00,0.73
9931.00,0.74
9930.00,0.74
9929.00,0.75
9928.00,0.75
9927.00,0.75
9926.00,0.75
9925.00,0.76
9924.00,0.76
9923.00,0.76
9922.00,0.76
9921.00,0.75
9920.00,0.75
9919.00,0.75
9918.00,0.74
9917.00,0.74
9916.00,0.73
9915.00,0.73
9914.00,0.72
9913.00,0.71
9912.00,0.70
9911.00,0.69
9910.00,0.68
9909.00,0.67
9908.00,0.66
9907.00,0.65
9906.00,0.64
9905.00,0.64
9904.00,0.63
9903.00,0.62
9902.00,0.62
9901.00,0.61
9900.00,0.61
9899.00,0.61
9898.00,0.61
9897.00,0.61
9896.00,0.61
9895.00,0.61
9894.00,0.61
9893.00,0.62
9892.00,0.62
9891.00,0.62
9890.00,0.62
9889.00,0.62
9888.00,0.62
9887.00,0.62
9886.00,0.62
9885.00,0.63
9884.00,0.63
9883.00,0.63
9882.00,0.63
9881.00,0.64
9880.00,0.64
9879.00,0.64
9878.00,0.64
9877.00,0.64
9876.00,0.63
9875.00,0.63
9874.00,0.63
9873.00,0.62
9872.00,0.61
9871.00,0.60
9870.00,0.60
9869.00,0.59
9868.00,0.58
9867.00,0.57
9866.00,0.56
9865.00,0.55
9864.00,0.55
9863.00,0.54
9862.00,0.53
9861.00,0.53
9860.00,0.52
9859.00,0.52
9858.00,0.51
9857.00,0.51
9856.00,0.50
9855.00,0.50
9854.00,0.50
9853.00,0.50
9852.00,0.50
9851.00,0.50
9850.00,0.50
9849.00,0.50
9848.00,0.50
9847.00,0.50
9846.00,0.50
9845.00,0.51
9844.00,0.51
9843.00,0.51
9842.00,0.52
9841.00,0.52
9840.00,0.53
9839.00,0.53
9838.00,0.54
9837.00,0.54
9836.00,0.55
9835.00,0.55
9834.00,0.55
9833.00,0.56
9832.00,0.56
9831.00,0.56
9830.00,0.56
9829.00,0.56
9828.00,0.56
9827.00,0.57
9826.00,0.57
9825.00,0.57
9824.00,0.57
9823.00,0.57
9822.00,0.57
9821.00,0.57
9820.00,0.57
9819.00,0.57
9818.00,0.57
9817.00,0.56
9816.00,0.56
9815.00,0.56
9814.00,0.56
9813.00,0.55
9812.00,0.55
9811.00,0.54
9810.00,0.54
9809.00,0.53
9808.00,0.53
9807.00,0.52
9806.00,0.51
9805.00,0.51
9804.00,0.50
9803.00,0.50
9802.00,0.49
9801.00,0.48
9800.00,0.48
9799.00,0.47
9798.00,0.46
9797.00,0.46
9796.00,0.45
9795.00,0.45
9794.00,0.45
9793.00,0.45
9792.00,0.45
9791.00,0.45
9790.00,0.45
9789.00,0.46
9788.00,0.46
9787.00,0.47
9786.00,0.47
9785.00,0.48
9784.00,0.49
9783.00,0.50
9782.00,0.50
9781.00,0.51
9780.00,0.52
9779.00,0.54
9778.00,0.55
9777.00,0.56
9776.00,0.57
9775.00,0.59
9774.00,0.60
9773.00,0.61
9772.00,0.62
9771.00,0.63
9770.00,0.64
9769.00,0.65
9768.00,0.66
9767.00,0.67
9766.00,0.67
9765.00,0.68
9764.00,0.68
9763.00,0.68
9762.00,0.68
9761.00,0.69
9760.00,0.68
9759.00,0.68
9758.00,0.68
9757.00,0.68
9756.00,0.67
9755.00,0.67
9754.00,0.66
9753.00,0.65
9752.00,0.65
9751.00,0.64
9750.00,0.63
9749.00,0.62
9748.00,0.60
9747.00,0.59
9746.00,0.58
9745.00,0.57
9744.00,0.56
9743.00,0.54
9742.00,0.53
9741.00,0.52
9740.00,0.51
9739.00,0.50
9738.00,0.49
9737.00,0.48
9736.00,0.47
9735.00,0.46
9734.00,0.45
9733.00,0.44
9732.00,0.44
9731.00,0.44
9730.00,0.43
9729.00,0.43
9728.00,0.43
9727.00,0.43
9726.00,0.43
9725.00,0.44
9724.00,0.44
9723.00,0.44
9722.00,0.45
9721.00,0.45
9720.00,0.46
9719.00,0.46
9718.00,0.47
9717.00,0.48
9716.00,0.49
9715.00,0.50
9714.00,0.51
9713.00,0.52
9712.00,0.53
9711.00,0.54
9710.00,0.56
9709.00,0.57
9708.00,0.58
9707.00,0.59
9706.00,0.60
9705.00,0.61
9704.00,0.62
9703.00,0.62
9702.00,0.63
9701.00,0.64
9700.00,0.64
9699.00,0.65
9698.00,0.66
9697.00,0.66
9696.00,0.67
9695.00,0.68
9694.00,0.68
9693.00,0.69
9692.00,0.69
9691.00,0.70
9690.00,0.70
9689.00,0.71
9688.00,0.71
9687.00,0.71
9686.00,0.71
9685.00,0.71
9684.00,0.71
9683.00,0.71
9682.00,0.71
9681.00,0.71
9680.00,0.71
9679.00,0.71
9678.00,0.71
9677.00,0.71
9676.00,0.71
9675.00,0.71
9674.00,0.71
9673.00,0.71
9672.00,0.71
9671.00,0.70
9670.00,0.70
9669.00,0.70
9668.00,0.70
9667.00,0.70
9666.00,0.69
9665.00,0.69
9664.00,0.69
9663.00,0.68
9662.00,0.68
9661.00,0.67
9660.00,0.67
9659.00,0.67
9658.00,0.67
9657.00,0.66
9656.00,0.66
9655.00,0.66
9654.00,0.65
9653.00,0.65
9652.00,0.65
9651.00,0.65
9650.00,0.64
9649.00,0.64
9648.00,0.64
9647.00,0.63
9646.00,0.63
9645.00,0.63
9644.00,0.62
9643.00,0.62
9642.00,0.62
9641.00,0.61
9640.00,0.61
9639.00,0.61
9638.00,0.61
9637.00,0.61
9636.00,0.60
9635.00,0.60
9634.00,0.60
9633.00,0.60
9632.00,0.60
9631.00,0.59
9630.00,0.59
9629.00,0.59
9628.00,0.58
9627.00,0.58
9626.00,0.58
9625.00,0.57
9624.00,0.57
9623.00,0.56
9622.00,0.56
9621.00,0.56
9620.00,0.56
9619.00,0.55
9618.00,0.55
9617.00,0.55
9616.00,0.54
9615.00,0.54
9614.00,0.54
9613.00,0.54
9612.00,0.54
9611.00,0.53
9610.00,0.53
9609.00,0.53
9608.00,0.53
9607.00,0.53
9606.00,0.53
9605.00,0.53
9604.00,0.54
9603.00,0.54
9602.00,0.54
9601.00,0.54
9600.00,0.54
9599.00,0.55
9598.00,0.55
9597.00,0.55
9596.00,0.55
9595.00,0.55
9594.00,0.55
9593.00,0.55
9592.00,0.55
9591.00,0.55
9590.00,0.54
9589.00,0.54
9588.00,0.54
9587.00,0.54
9586.00,0.54
9585.00,0.54
9584.00,0.54
9583.00,0.54
9582.00,0.54
9581.00,0.54
9580.00,0.54
9579.00,0.53
9578.00,0.53
9577.00,0.53
9576.00,0.52
9575.00,0.52
9574.00,0.52
9573.00,0.52
9572.00,0.52
9571.00,0.52
9570.00,0.52
9569.00,0.52
9568.00,0.53
9567.00,0.53
9566.00,0.53
9565.00,0.54
9564.00,0.54
9563.00,0.54
9562.00,0.54
9561.00,0.54
9560.00,0.55
9559.00,0.55
9558.00,0.55
9557.00,0.55
9556.00,0.55
9555.00,0.55
9554.00,0.55
9553.00,0.55
9552.00,0.56
9551.00,0.56
9550.00,0.56
9549.00,0.56
9548.00,0.56
9547.00,0.56
9546.00,0.57
9545.00,0.57
9544.00,0.57
9543.00,0.56
9542.00,0.56
9541.00,0.56
9540.00,0.56
9539.00,0.56
9538.00,0.56
9537.00,0.56
9536.00,0.56
9535.00,0.56
9534.00,0.56
9533.00,0.56
9532.00,0.56
9531.00,0.56
9530.00,0.56
9529.00,0.56
9528.00,0.56
9527.00,0.56
9526.00,0.57
9525.00,0.57
9524.00,0.57
9523.00,0.57
9522.00,0.57
9521.00,0.57
9520.00,0.57
9519.00,0.57
9518.00,0.57
9517.00,0.57
9516.00,0.57
9515.00,0.57
9514.00,0.56
9513.00,0.56
9512.00,0.56
9511.00,0.56
9510.00,0.57
9509.00,0.57
9508.00,0.57
9507.00,0.57
9506.00,0.57
9505.00,0.57
9504.00,0.56
9503.00,0.56
9502.00,0.56
9501.00,0.56
9500.00,0.55
9499.00,0.55
9498.00,0.55
9497.00,0.54
9496.00,0.54
9495.00,0.54
9494.00,0.53
9493.00,0.53
9492.00,0.53
9491.00,0.53
9490.00,0.52
9489.00,0.52
9488.00,0.52
9487.00,0.52
9486.00,0.52
9485.00,0.52
9484.00,0.52
9483.00,0.52
9482.00,0.52
9481.00,0.52
9480.00,0.52
9479.00,0.52
9478.00,0.52
9477.00,0.52
9476.00,0.53
9475.00,0.53
9474.00,0.54
9473.00,0.55
9472.00,0.56
9471.00,0.57
9470.00,0.58
9469.00,0.58
9468.00,0.59
9467.00,0.60
9466.00,0.61
9465.00,0.62
9464.00,0.63
9463.00,0.63
9462.00,0.64
9461.00,0.65
9460.00,0.65
9459.00,0.66
9458.00,0.66
9457.00,0.67
9456.00,0.67
9455.00,0.67
9454.00,0.67
9453.00,0.67
9452.00,0.67
9451.00,0.67
9450.00,0.67
9449.00,0.66
9448.00,0.66
9447.00,0.65
9446.00,0.65
9445.00,0.64
9444.00,0.63
9443.00,0.62
9442.00,0.62
9441.00,0.61
9440.00,0.60
9439.00,0.60
9438.00,0.59
9437.00,0.58
9436.00,0.58
9435.00,0.57
9434.00,0.57
9433.00,0.57
9432.00,0.56
9431.00,0.56
9430.00,0.56
9429.00,0.56
9428.00,0.56
9427.00,0.56
9426.00,0.56
9425.00,0.56
9424.00,0.56
9423.00,0.56
9422.00,0.56
9421.00,0.56
9420.00,0.56
9419.00,0.56
9418.00,0.56
9417.00,0.56
9416.00,0.56
9415.00,0.56
9414.00,0.57
9413.00,0.57
9412.00,0.57
9411.00,0.57
9410.00,0.57
9409.00,0.57
9408.00,0.57
9407.00,0.57
9406.00,0.58
9405.00,0.58
9404.00,0.58
9403.00,0.58
9402.00,0.58
9401.00,0.58
9400.00,0.57
9399.00,0.57
9398.00,0.57
9397.00,0.57
9396.00,0.58
9395.00,0.58
9394.00,0.58
9393.00,0.58
9392.00,0.58
9391.00,0.59
9390.00,0.59
9389.00,0.59
9388.00,0.59
9387.00,0.60
9386.00,0.60
9385.00,0.60
9384.00,0.60
9383.00,0.60
9382.00,0.60
9381.00,0.60
9380.00,0.60
9379.00,0.60
9378.00,0.60
9377.00,0.60
9376.00,0.60
9375.00,0.60
9374.00,0.60
9373.00,0.60
9372.00,0.60
9371.00,0.60
9370.00,0.60
9369.00,0.60
9368.00,0.60
9367.00,0.60
9366.00,0.60
9365.00,0.59
9364.00,0.59
9363.00,0.59
9362.00,0.59
9361.00,0.59
9360.00,0.59
9359.00,0.58
9358.00,0.58
9357.00,0.58
9356.00,0.58
9355.00,0.58
9354.00,0.58
9353.00,0.58
9352.00,0.58
9351.00,0.58
9350.00,0.57
9349.00,0.57
9348.00,0.57
9347.00,0.57
9346.00,0.57
9345.00,0.57
9344.00,0.56
9343.00,0.56
9342.00,0.56
9341.00,0.56
9340.00,0.56
9339.00,0.56
9338.00,0.56
9337.00,0.56
9336.00,0.57
9335.00,0.57
9334.00,0.57
9333.00,0.57
9332.00,0.57
9331.00,0.58
9330.00,0.58
9329.00,0.58
9328.00,0.59
9327.00,0.59
9326.00,0.60
9325.00,0.60
9324.00,0.61
9323.00,0.61
9322.00,0.62
9321.00,0.63
9320.00,0.63
9319.00,0.64
9318.00,0.64
9317.00,0.65
9316.00,0.65
9315.00,0.65
9314.00,0.65
9313.00,0.65
9312.00,0.66
9311.00,0.66
9310.00,0.66
9309.00,0.66
9308.00,0.66
9307.00,0.65
9306.00,0.65
9305.00,0.65
9304.00,0.65
9303.00,0.64
9302.00,0.64
9301.00,0.63
9300.00,0.63
9299.00,0.62
9298.00,0.62
9297.00,0.61
9296.00,0.61
9295.00,0.60
9294.00,0.60
9293.00,0.59
9292.00,0.59
9291.00,0.59
9290.00,0.58
9289.00,0.58
9288.00,0.58
9287.00,0.58
9286.00,0.58
9285.00,0.58
9284.00,0.58
9283.00,0.58
9282.00,0.57
9281.00,0.57
9280.00,0.57
9279.00,0.57
9278.00,0.57
9277.00,0.57
9276.00,0.56
9275.00,0.56
9274.00,0.57
9273.00,0.57
9272.00,0.57
9271.00,0.57
9270.00,0.57
9269.00,0.57
9268.00,0.57
9267.00,0.57
9266.00,0.57
9265.00,0.57
9264.00,0.56
9263.00,0.56
9262.00,0.56
9261.00,0.56
9260.00,0.56
9259.00,0.56
9258.00,0.55
9257.00,0.55
9256.00,0.56
9255.00,0.56
9254.00,0.56
9253.00,0.56
9252.00,0.57
9251.00,0.57
9250.00,0.57
9249.00,0.58
9248.00,0.58
9247.00,0.58
9246.00,0.59
9245.00,0.59
9244.00,0.59
9243.00,0.60
9242.00,0.60
9241.00,0.60
9240.00,0.61
9239.00,0.61
9238.00,0.61
9237.00,0.62
9236.00,0.62
9235.00,0.63
9234.00,0.63
9233.00,0.64
9232.00,0.65
9231.00,0.65
9230.00,0.66
9229.00,0.66
9228.00,0.66
9227.00,0.66
9226.00,0.67
9225.00,0.67
9224.00,0.67
9223.00,0.67
9222.00,0.67
9221.00,0.67
9220.00,0.67
9219.00,0.67
9218.00,0.67
9217.00,0.67
9216.00,0.67
9215.00,0.67
9214.00,0.67
9213.00,0.67
9212.00,0.67
9211.00,0.67
9210.00,0.67
9209.00,0.67
9208.00,0.67
9207.00,0.67
9206.00,0.67
9205.00,0.67
9204.00,0.67
9203.00,0.67
9202.00,0.67
9201.00,0.67
9200.00,0.67
9199.00,0.68
9198.00,0.68
9197.00,0.68
9196.00,0.68
9195.00,0.69
9194.00,0.69
9193.00,0.69
9192.00,0.70
9191.00,0.70
9190.00,0.70
9189.00,0.71
9188.00,0.71
9187.00,0.71
9186.00,0.72
9185.00,0.72
9184.00,0.72
9183.00,0.72
9182.00,0.72
9181.00,0.72
9180.00,0.72
9179.00,0.72
9178.00,0.72
9177.00,0.72
9176.00,0.72
9175.00,0.72
9174.00,0.72
9173.00,0.71
9172.00,0.71
9171.00,0.71
9170.00,0.71
9169.00,0.71
9168.00,0.70
9167.00,0.70
9166.00,0.70
9165.00,0.69
9164.00,0.69
9163.00,0.69
9162.00,0.68
9161.00,0.68
9160.00,0.67
9159.00,0.67
9158.00,0.66
9157.00,0.66
9156.00,0.65
9155.00,0.65
9154.00,0.65
9153.00,0.64
9152.00,0.64
9151.00,0.64
9150.00,0.64
9149.00,0.64
9148.00,0.64
9147.00,0.64
9146.00,0.64
9145.00,0.63
9144.00,0.63
9143.00,0.63
9142.00,0.63
9141.00,0.63
9140.00,0.63
9139.00,0.63
9138.00,0.63
9137.00,0.63
9136.00,0.64
9135.00,0.64
9134.00,0.64
9133.00,0.64
9132.00,0.64
9131.00,0.64
9130.00,0.64
9129.00,0.64
9128.00,0.65
9127.00,0.65
9126.00,0.65
9125.00,0.65
9124.00,0.65
9123.00,0.64
9122.00,0.64
9121.00,0.64
9120.00,0.64
9119.00,0.64
9118.00,0.63
9117.00,0.63
9116.00,0.63
9115.00,0.62
9114.00,0.62
9113.00,0.62
9112.00,0.61
9111.00,0.61
9110.00,0.60
9109.00,0.60
9108.00,0.60
9107.00,0.60
9106.00,0.59
9105.00,0.59
9104.00,0.59
9103.00,0.59
9102.00,0.58
9101.00,0.58
9100.00,0.58
9099.00,0.57
9098.00,0.57
9097.00,0.57
9096.00,0.57
9095.00,0.57
9094.00,0.57
9093.00,0.57
9092.00,0.57
9091.00,0.57
9090.00,0.57
9089.00,0.57
9088.00,0.57
9087.00,0.58
9086.00,0.58
9085.00,0.58
9084.00,0.59
9083.00,0.59
9082.00,0.60
9081.00,0.60
9080.00,0.60
9079.00,0.61
9078.00,0.61
9077.00,0.61
9076.00,0.62
9075.00,0.62
9074.00,0.63
9073.00,0.63
9072.00,0.64
9071.00,0.64
9070.00,0.64
9069.00,0.65
9068.00,0.65
9067.00,0.65
9066.00,0.66
9065.00,0.66
9064.00,0.66
9063.00,0.66
9062.00,0.67
9061.00,0.67
9060.00,0.67
9059.00,0.67
9058.00,0.67
9057.00,0.67
9056.00,0.67
9055.00,0.67
9054.00,0.67
9053.00,0.67
9052.00,0.67
9051.00,0.67
9050.00,0.67
9049.00,0.67
9048.00,0.67
9047.00,0.66
9046.00,0.66
9045.00,0.66
9044.00,0.66
9043.00,0.66
9042.00,0.66
9041.00,0.66
9040.00,0.65
9039.00,0.65
9038.00,0.65
9037.00,0.65
9036.00,0.64
9035.00,0.64
9034.00,0.64
9033.00,0.63
9032.00,0.63
9031.00,0.62
9030.00,0.62
9029.00,0.62
9028.00,0.62
9027.00,0.61
9026.00,0.61
9025.00,0.61
9024.00,0.61
9023.00,0.61
9022.00,0.61
9021.00,0.61
9020.00,0.61
9019.00,0.62
9018.00,0.62
9017.00,0.62
9016.00,0.62
9015.00,0.62
9014.00,0.63
9013.00,0.63
9012.00,0.63
9011.00,0.64
9010.00,0.64
9009.00,0.65
9008.00,0.65
9007.00,0.66
9006.00,0.66
9005.00,0.67
9004.00,0.67
9003.00,0.68
9002.00,0.68
9001.00,0.69
9000.00,0.69
8999.00,0.69
8998.00,0.70
8997.00,0.70
8996.00,0.70
8995.00,0.70
8994.00,0.71
8993.00,0.71
8992.00,0.71
8991.00,0.71
8990.00,0.71
8989.00,0.72
8988.00,0.72
8987.00,0.72
8986.00,0.73
8985.00,0.73
8984.00,0.73
8983.00,0.73
8982.00,0.73
8981.00,0.74
8980.00,0.74
8979.00,0.74
8978.00,0.74
8977.00,0.74
8976.00,0.74
8975.00,0.74
8974.00,0.74
8973.00,0.74
8972.00,0.74
8971.00,0.74
8970.00,0.75
8969.00,0.75
8968.00,0.75
8967.00,0.75
8966.00,0.75
8965.00,0.75
8964.00,0.75
8963.00,0.75
8962.00,0.75
8961.00,0.75
8960.00,0.75
8959.00,0.75
8958.00,0.75
8957.00,0.75
8956.00,0.75
8955.00,0.75
8954.00,0.74
8953.00,0.74
8952.00,0.74
8951.00,0.74
8950.00,0.74
8949.00,0.74
8948.00,0.74
8947.00,0.74
8946.00,0.74
8945.00,0.74
8944.00,0.74
8943.00,0.73
8942.00,0.73
8941.00,0.73
8940.00,0.73
8939.00,0.73
8938.00,0.73
8937.00,0.73
8936.00,0.72
8935.00,0.72
8934.00,0.72
8933.00,0.73
8932.00,0.73
8931.00,0.73
8930.00,0.73
8929.00,0.73
8928.00,0.74
8927.00,0.74
8926.00,0.74
8925.00,0.75
8924.00,0.75
8923.00,0.75
8922.00,0.76
8921.00,0.76
8920.00,0.77
8919.00,0.77
8918.00,0.77
8917.00,0.78
8916.00,0.78
8915.00,0.79
8914.00,0.79
8913.00,0.79
8912.00,0.79
8911.00,0.80
8910.00,0.80
8909.00,0.80
8908.00,0.80
8907.00,0.81
8906.00,0.81
8905.00,0.81
8904.00,0.81
8903.00,0.81
8902.00,0.81
8901.00,0.81
8900.00,0.80
8899.00,0.80
8898.00,0.80
8897.00,0.80
8896.00,0.79
8895.00,0.79
8894.00,0.79
8893.00,0.79
8892.00,0.78
8891.00,0.78
8890.00,0.78
8889.00,0.78
8888.00,0.77
8887.00,0.77
8886.00,0.77
8885.00,0.77
8884.00,0.77
8883.00,0.76
8882.00,0.76
8881.00,0.76
8880.00,0.75
8879.00,0.75
8878.00,0.75
8877.00,0.74
8876.00,0.74
8875.00,0.74
8874.00,0.73
8873.00,0.73
8872.00,0.73
8871.00,0.72
8870.00,0.72
8869.00,0.72
8868.00,0.71
8867.00,0.71
8866.00,0.71
8865.00,0.70
8864.00,0.70
8863.00,0.69
8862.00,0.69
8861.00,0.68
8860.00,0.68
8859.00,0.67
8858.00,0.67
8857.00,0.67
8856.00,0.67
8855.00,0.66
8854.00,0.66
8853.00,0.66
8852.00,0.66
8851.00,0.66
8850.00,0.66
8849.00,0.66
8848.00,0.66
8847.00,0.66
8846.00,0.67
8845.00,0.67
8844.00,0.67
8843.00,0.67
8842.00,0.67
8841.00,0.67
8840.00,0.67
8839.00,0.68
8838.00,0.68
8837.00,0.68
8836.00,0.69
8835.00,0.69
8834.00,0.69
8833.00,0.70
8832.00,0.70
8831.00,0.71
8830.00,0.71
8829.00,0.71
8828.00,0.72
8827.00,0.72
8826.00,0.72
8825.00,0.72
8824.00,0.72
8823.00,0.72
8822.00,0.73
8821.00,0.73
8820.00,0.73
8819.00,0.73
8818.00,0.72
8817.00,0.72
8816.00,0.72
8815.00,0.72
8814.00,0.72
8813.00,0.72
8812.00,0.72
8811.00,0.72
8810.00,0.72
8809.00,0.71
8808.00,0.71
8807.00,0.70
8806.00,0.70
8805.00,0.69
8804.00,0.69
8803.00,0.68
8802.00,0.68
8801.00,0.67
8800.00,0.67
8799.00,0.66
8798.00,0.65
8797.00,0.65
8796.00,0.64
8795.00,0.64
8794.00,0.63
8793.00,0.63
8792.00,0.62
8791.00,0.62
8790.00,0.62
8789.00,0.61
8788.00,0.61
8787.00,0.61
8786.00,0.61
8785.00,0.61
8784.00,0.61
8783.00,0.61
8782.00,0.61
8781.00,0.61
8780.00,0.61
8779.00,0.61
8778.00,0.61
8777.00,0.61
8776.00,0.62
8775.00,0.62
8774.00,0.62
8773.00,0.63
8772.00,0.63
8771.00,0.64
8770.00,0.64
8769.00,0.65
8768.00,0.66
8767.00,0.66
8766.00,0.67
8765.00,0.68
8764.00,0.68
8763.00,0.69
8762.00,0.69
8761.00,0.69
8760.00,0.70
8759.00,0.70
8758.00,0.70
8757.00,0.70
8756.00,0.70
8755.00,0.70
8754.00,0.71
8753.00,0.71
8752.00,0.71
8751.00,0.71
8750.00,0.71
8749.00,0.71
8748.00,0.71
8747.00,0.71
8746.00,0.71
8745.00,0.71
8744.00,0.71
8743.00,0.70
8742.00,0.70
8741.00,0.70
8740.00,0.69
8739.00,0.69
8738.00,0.69
8737.00,0.68
8736.00,0.68
8735.00,0.68
8734.00,0.68
8733.00,0.68
8732.00,0.68
8731.00,0.68
8730.00,0.68
8729.00,0.68
8728.00,0.67
8727.00,0.67
8726.00,0.67
8725.00,0.67
8724.00,0.67
8723.00,0.67
8722.00,0.67
8721.00,0.67
8720.00,0.66
8719.00,0.66
8718.00,0.66
8717.00,0.66
8716.00,0.66
8715.00,0.66
8714.00,0.66
8713.00,0.66
8712.00,0.66
8711.00,0.66
8710.00,0.66
8709.00,0.66
8708.00,0.66
8707.00,0.66
8706.00,0.65
8705.00,0.65
8704.00,0.65
8703.00,0.65
8702.00,0.65
8701.00,0.65
8700.00,0.65
8699.00,0.65
8698.00,0.65
8697.00,0.65
8696.00,0.65
8695.00,0.65
8694.00,0.65
8693.00,0.66
8692.00,0.66
8691.00,0.66
8690.00,0.66
8689.00,0.66
8688.00,0.67
8687.00,0.67
8686.00,0.67
8685.00,0.67
8684.00,0.68
8683.00,0.68
8682.00,0.68
8681.00,0.69
8680.00,0.69
8679.00,0.69
8678.00,0.70
8677.00,0.70
8676.00,0.70
8675.00,0.71
8674.00,0.71
8673.00,0.71
8672.00,0.72
8671.00,0.72
8670.00,0.72
8669.00,0.72
8668.00,0.72
8667.00,0.73
8666.00,0.73
8665.00,0.73
8664.00,0.73
8663.00,0.73
8662.00,0.73
8661.00,0.73
8660.00,0.73
8659.00,0.73
8658.00,0.73
8657.00,0.73
8656.00,0.73
8655.00,0.73
8654.00,0.73
8653.00,0.73
8652.00,0.73
8651.00,0.73
8650.00,0.72
8649.00,0.72
8648.00,0.72
8647.00,0.72
8646.00,0.72
8645.00,0.72
8644.00,0.71
8643.00,0.71
8642.00,0.71
8641.00,0.71
8640.00,0.71
8639.00,0.71
8638.00,0.70
8637.00,0.70
8636.00,0.70
8635.00,0.70
8634.00,0.70
8633.00,0.70
8632.00,0.70
8631.00,0.71
8630.00,0.71
8629.00,0.71
8628.00,0.71
8627.00,0.71
8626.00,0.72
8625.00,0.72
8624.00,0.72
8623.00,0.72
8622.00,0.73
8621.00,0.73
8620.00,0.73
8619.00,0.73
8618.00,0.73
8617.00,0.73
8616.00,0.73
8615.00,0.73
8614.00,0.73
8613.00,0.73
8612.00,0.73
8611.00,0.73
8610.00,0.73
8609.00,0.73
8608.00,0.73
8607.00,0.73
8606.00,0.73
8605.00,0.73
8604.00,0.73
8603.00,0.73
8602.00,0.73
8601.00,0.72
8600.00,0.72
8599.00,0.72
8598.00,0.71
8597.00,0.71
8596.00,0.71
8595.00,0.71
8594.00,0.70
8593.00,0.70
8592.00,0.70
8591.00,0.70
8590.00,0.69
8589.00,0.69
8588.00,0.69
8587.00,0.69
8586.00,0.69
8585.00,0.69
8584.00,0.68
8583.00,0.68
8582.00,0.68
8581.00,0.68
8580.00,0.68
8579.00,0.68
8578.00,0.68
8577.00,0.68
8576.00,0.68
8575.00,0.68
8574.00,0.68
8573.00,0.69
8572.00,0.69
8571.00,0.69
8570.00,0.70
8569.00,0.70
8568.00,0.70
8567.00,0.71
8566.00,0.71
8565.00,0.72
8564.00,0.72
8563.00,0.72
8562.00,0.73
8561.00,0.73
8560.00,0.74
8559.00,0.74
8558.00,0.74
8557.00,0.75
8556.00,0.75
8555.00,0.75
8554.00,0.76
8553.00,0.76
8552.00,0.76
8551.00,0.76
8550.00,0.76
8549.00,0.76
8548.00,0.76
8547.00,0.75
8546.00,0.75
8545.00,0.75
8544.00,0.75
8543.00,0.74
8542.00,0.74
8541.00,0.74
8540.00,0.74
8539.00,0.73
8538.00,0.73
8537.00,0.73
8536.00,0.73
8535.00,0.72
8534.00,0.72
8533.00,0.72
8532.00,0.72
8531.00,0.71
8530.00,0.71
8529.00,0.71
8528.00,0.70
8527.00,0.70
8526.00,0.70
8525.00,0.70
8524.00,0.70
8523.00,0.70
8522.00,0.70
8521.00,0.69
8520.00,0.69
8519.00,0.69
8518.00,0.69
8517.00,0.69
8516.00,0.69
8515.00,0.69
8514.00,0.68
8513.00,0.68
8512.00,0.68
8511.00,0.68
8510.00,0.68
8509.00,0.68
8508.00,0.68
8507.00,0.68
8506.00,0.68
8505.00,0.68
8504.00,0.68
8503.00,0.68
8502.00,0.68
8501.00,0.68
8500.00,0.68
8499.00,0.68
8498.00,0.68
8497.00,0.69
8496.00,0.69
8495.00,0.69
8494.00,0.69
8493.00,0.70
8492.00,0.70
8491.00,0.71
8490.00,0.71
8489.00,0.71
8488.00,0.72
8487.00,0.72
8486.00,0.73
8485.00,0.73
8484.00,0.73
8483.00,0.74
8482.00,0.74
8481.00,0.74
8480.00,0.74
8479.00,0.75
8478.00,0.75
8477.00,0.75
8476.00,0.75
8475.00,0.75
8474.00,0.75
8473.00,0.75
8472.00,0.75
8471.00,0.75
8470.00,0.75
8469.00,0.75
8468.00,0.75
8467.00,0.74
8466.00,0.74
8465.00,0.74
8464.00,0.73
8463.00,0.73
8462.00,0.73
8461.00,0.73
8460.00,0.72
8459.00,0.72
8458.00,0.71
8457.00,0.71
8456.00,0.71
8455.00,0.70
8454.00,0.70
8453.00,0.70
8452.00,0.69
8451.00,0.69
8450.00,0.69
8449.00,0.68
8448.00,0.68
8447.00,0.68
8446.00,0.68
8445.00,0.68
8444.00,0.68
8443.00,0.68
8442.00,0.68
8441.00,0.68
8440.00,0.68
8439.00,0.68
8438.00,0.68
8437.00,0.68
8436.00,0.68
8435.00,0.68
8434.00,0.68
8433.00,0.68
8432.00,0.68
8431.00,0.68
8430.00,0.68
8429.00,0.69
8428.00,0.69
8427.00,0.69
8426.00,0.69
8425.00,0.69
8424.00,0.69
8423.00,0.69
8422.00,0.69
8421.00,0.69
8420.00,0.69
8419.00,0.69
8418.00,0.69
8417.00,0.69
8416.00,0.68
8415.00,0.68
8414.00,0.68
8413.00,0.68
8412.00,0.68
8411.00,0.68
8410.00,0.67
8409.00,0.67
8408.00,0.67
8407.00,0.67
8406.00,0.67
8405.00,0.66
8404.00,0.66
8403.00,0.66
8402.00,0.66
8401.00,0.66
8400.00,0.66
8399.00,0.66
8398.00,0.66
8397.00,0.66
8396.00,0.66
8395.00,0.66
8394.00,0.66
8393.00,0.66
8392.00,0.66
8391.00,0.66
8390.00,0.66
8389.00,0.66
8388.00,0.67
8387.00,0.67
8386.00,0.67
8385.00,0.67
8384.00,0.68
8383.00,0.68
8382.00,0.68
8381.00,0.68
8380.00,0.69
8379.00,0.69
8378.00,0.69
8377.00,0.70
8376.00,0.70
8375.00,0.70
8374.00,0.70
8373.00,0.71
8372.00,0.71
8371.00,0.71
8370.00,0.71
8369.00,0.71
8368.00,0.71
8367.00,0.71
8366.00,0.71
8365.00,0.71
8364.00,0.71
8363.00,0.71
8362.00,0.71
8361.00,0.71
8360.00,0.71
8359.00,0.71
8358.00,0.71
8357.00,0.71
8356.00,0.71
8355.00,0.70
8354.00,0.70
8353.00,0.70
8352.00,0.70
8351.00,0.69
8350.00,0.69
8349.00,0.69
8348.00,0.69
8347.00,0.69
8346.00,0.69
8345.00,0.68
8344.00,0.68
8343.00,0.68
8342.00,0.68
8341.00,0.68
8340.00,0.68
8339.00,0.68
8338.00,0.68
8337.00,0.68
8336.00,0.68
8335.00,0.68
8334.00,0.69
8333.00,0.69
8332.00,0.69
8331.00,0.69
8330.00,0.69
8329.00,0.70
8328.00,0.70
8327.00,0.70
8326.00,0.70
8325.00,0.71
8324.00,0.71
8323.00,0.71
8322.00,0.71
8321.00,0.72
8320.00,0.72
8319.00,0.72
8318.00,0.72
8317.00,0.72
8316.00,0.72
8315.00,0.72
8314.00,0.72
8313.00,0.72
8312.00,0.72
8311.00,0.72
8310.00,0.72
8309.00,0.72
8308.00,0.71
8307.00,0.71
8306.00,0.71
8305.00,0.71
8304.00,0.70
8303.00,0.70
8302.00,0.70
8301.00,0.70
8300.00,0.69
8299.00,0.69
8298.00,0.69
8297.00,0.68
8296.00,0.68
8295.00,0.67
8294.00,0.67
8293.00,0.67
8292.00,0.66
8291.00,0.66
8290.00,0.66
8289.00,0.65
8288.00,0.65
8287.00,0.65
8286.00,0.65
8285.00,0.64
8284.00,0.64
8283.00,0.64
8282.00,0.64
8281.00,0.64
8280.00,0.64
8279.00,0.64
8278.00,0.64
8277.00,0.64
8276.00,0.64
8275.00,0.64
8274.00,0.64
8273.00,0.64
8272.00,0.64
8271.00,0.64
8270.00,0.65
8269.00,0.65
8268.00,0.65
8267.00,0.65
8266.00,0.66
8265.00,0.66
8264.00,0.67
8263.00,0.67
8262.00,0.67
8261.00,0.68
8260.00,0.68
8259.00,0.69
8258.00,0.69
8257.00,0.69
8256.00,0.70
8255.00,0.70
8254.00,0.70
8253.00,0.71
8252.00,0.71
8251.00,0.71
8250.00,0.71
8249.00,0.72
8248.00,0.72
8247.00,0.72
8246.00,0.73
8245.00,0.73
8244.00,0.73
8243.00,0.73
8242.00,0.73
8241.00,0.74
8240.00,0.74
8239.00,0.74
8238.00,0.74
8237.00,0.74
8236.00,0.74
8235.00,0.74
8234.00,0.74
8233.00,0.74
8232.00,0.74
8231.00,0.75
8230.00,0.75
8229.00,0.75
8228.00,0.75
8227.00,0.75
8226.00,0.75
8225.00,0.74
8224.00,0.74
8223.00,0.74
8222.00,0.74
8221.00,0.74
8220.00,0.74
8219.00,0.74
8218.00,0.74
8217.00,0.73
8216.00,0.73
8215.00,0.73
8214.00,0.73
8213.00,0.73
8212.00,0.73
8211.00,0.73
8210.00,0.73
8209.00,0.73
8208.00,0.72
8207.00,0.72
8206.00,0.72
8205.00,0.72
8204.00,0.72
8203.00,0.72
8202.00,0.72
8201.00,0.72
8200.00,0.72
8199.00,0.72
8198.00,0.72
8197.00,0.72
8196.00,0.72
8195.00,0.72
8194.00,0.72
8193.00,0.72
8192.00,0.72
8191.00,0.72
8190.00,0.71
8189.00,0.71
8188.00,0.71
8187.00,0.71
8186.00,0.71
8185.00,0.71
8184.00,0.71
8183.00,0.71
8182.00,0.71
8181.00,0.71
8180.00,0.71
8179.00,0.71
8178.00,0.71
8177.00,0.71
8176.00,0.71
8175.00,0.71
8174.00,0.71
8173.00,0.72
8172.00,0.72
8171.00,0.72
8170.00,0.72
8169.00,0.72
8168.00,0.72
8167.00,0.72
8166.00,0.72
8165.00,0.73
8164.00,0.73
8163.00,0.73
8162.00,0.73
8161.00,0.74
8160.00,0.74
8159.00,0.74
8158.00,0.75
8157.00,0.75
8156.00,0.75
8155.00,0.75
8154.00,0.75
8153.00,0.75
8152.00,0.75
8151.00,0.75
8150.00,0.75
8149.00,0.75
8148.00,0.74
8147.00,0.74
8146.00,0.74
8145.00,0.74
8144.00,0.74
8143.00,0.74
8142.00,0.74
8141.00,0.74
8140.00,0.74
8139.00,0.74
8138.00,0.74
8137.00,0.73
8136.00,0.73
8135.00,0.73
8134.00,0.73
8133.00,0.73
8132.00,0.72
8131.00,0.72
8130.00,0.72
8129.00,0.72
8128.00,0.72
8127.00,0.72
8126.00,0.72
8125.00,0.72
8124.00,0.72
8123.00,0.72
8122.00,0.72
8121.00,0.72
8120.00,0.72
8119.00,0.72
8118.00,0.72
8117.00,0.73
8116.00,0.73
8115.00,0.73
8114.00,0.73
8113.00,0.73
8112.00,0.73
8111.00,0.73
8110.00,0.73
8109.00,0.73
8108.00,0.73
8107.00,0.73
8106.00,0.73
8105.00,0.73
8104.00,0.73
8103.00,0.73
8102.00,0.73
8101.00,0.73
8100.00,0.73
8099.00,0.73
8098.00,0.73
8097.00,0.73
8096.00,0.73
8095.00,0.72
8094.00,0.72
8093.00,0.72
8092.00,0.72
8091.00,0.72
8090.00,0.72
8089.00,0.72
8088.00,0.72
8087.00,0.72
8086.00,0.72
8085.00,0.72
8084.00,0.71
8083.00,0.71
8082.00,0.71
8081.00,0.71
8080.00,0.71
8079.00,0.71
8078.00,0.72
8077.00,0.72
8076.00,0.72
8075.00,0.72
8074.00,0.72
8073.00,0.72
8072.00,0.73
8071.00,0.73
8070.00,0.73
8069.00,0.73
8068.00,0.73
8067.00,0.74
8066.00,0.74
8065.00,0.74
8064.00,0.75
8063.00,0.75
8062.00,0.75
8061.00,0.75
8060.00,0.76
8059.00,0.76
8058.00,0.76
8057.00,0.77
8056.00,0.77
8055.00,0.77
8054.00,0.77
8053.00,0.78
8052.00,0.78
8051.00,0.78
8050.00,0.78
8049.00,0.78
8048.00,0.78
8047.00,0.78
8046.00,0.78
8045.00,0.78
8044.00,0.78
8043.00,0.78
8042.00,0.78
8041.00,0.77
8040.00,0.77
8039.00,0.77
8038.00,0.77
8037.00,0.77
8036.00,0.77
8035.00,0.77
8034.00,0.76
8033.00,0.76
8032.00,0.76
8031.00,0.76
8030.00,0.76
8029.00,0.75
8028.00,0.75
8027.00,0.75
8026.00,0.75
8025.00,0.75
8024.00,0.75
8023.00,0.74
8022.00,0.74
8021.00,0.74
8020.00,0.74
8019.00,0.74
8018.00,0.74
8017.00,0.74
8016.00,0.74
8015.00,0.74
8014.00,0.73
8013.00,0.73
8012.00,0.73
8011.00,0.73
8010.00,0.73
8009.00,0.73
8008.00,0.73
8007.00,0.73
8006.00,0.73
8005.00,0.73
8004.00,0.73
8003.00,0.73
8002.00,0.73
8001.00,0.73
8000.00,0.73
7999.00,0.72
7998.00,0.72
7997.00,0.72
7996.00,0.72
7995.00,0.72
7994.00,0.72
7993.00,0.72
7992.00,0.72
7991.00,0.72
7990.00,0.72
7989.00,0.72
7988.00,0.72
7987.00,0.72
7986.00,0.73
7985.00,0.73
7984.00,0.73
7983.00,0.73
7982.00,0.73
7981.00,0.73
7980.00,0.73
7979.00,0.73
7978.00,0.73
7977.00,0.73
7976.00,0.73
7975.00,0.73
7974.00,0.74
7973.00,0.74
7972.00,0.74
7971.00,0.74
7970.00,0.74
7969.00,0.74
7968.00,0.74
7967.00,0.75
7966.00,0.75
7965.00,0.75
7964.00,0.75
7963.00,0.75
7962.00,0.75
7961.00,0.75
7960.00,0.76
7959.00,0.76
7958.00,0.76
7957.00,0.76
7956.00,0.76
7955.00,0.77
7954.00,0.77
7953.00,0.77
7952.00,0.77
7951.00,0.78
7950.00,0.78
7949.00,0.78
7948.00,0.78
7947.00,0.79
7946.00,0.79
7945.00,0.79
7944.00,0.79
7943.00,0.80
7942.00,0.80
7941.00,0.80
7940.00,0.80
7939.00,0.81
7938.00,0.81
7937.00,0.81
7936.00,0.81
7935.00,0.81
7934.00,0.81
7933.00,0.81
7932.00,0.81
7931.00,0.82
7930.00,0.82
7929.00,0.82
7928.00,0.82
7927.00,0.82
7926.00,0.82
7925.00,0.82
7924.00,0.82
7923.00,0.82
7922.00,0.82
7921.00,0.82
7920.00,0.82
7919.00,0.82
7918.00,0.82
7917.00,0.83
7916.00,0.83
7915.00,0.83
7914.00,0.83
7913.00,0.83
7912.00,0.83
7911.00,0.83
7910.00,0.83
7909.00,0.83
7908.00,0.83
7907.00,0.83
7906.00,0.84
7905.00,0.84
7904.00,0.84
7903.00,0.84
7902.00,0.84
7901.00,0.84
7900.00,0.84
7899.00,0.84
7898.00,0.84
7897.00,0.84
7896.00,0.84
7895.00,0.84
7894.00,0.84
7893.00,0.84
7892.00,0.84
7891.00,0.83
7890.00,0.83
7889.00,0.83
7888.00,0.83
7887.00,0.83
7886.00,0.82
7885.00,0.82
7884.00,0.82
7883.00,0.82
7882.00,0.82
7881.00,0.81
7880.00,0.81
7879.00,0.81
7878.00,0.81
7877.00,0.80
7876.00,0.80
7875.00,0.80
7874.00,0.79
7873.00,0.79
7872.00,0.79
7871.00,0.79
7870.00,0.78
7869.00,0.78
7868.00,0.78
7867.00,0.78
7866.00,0.78
7865.00,0.78
7864.00,0.78
7863.00,0.78
7862.00,0.78
7861.00,0.78
7860.00,0.78
7859.00,0.79
7858.00,0.79
7857.00,0.79
7856.00,0.79
7855.00,0.79
7854.00,0.79
7853.00,0.80
7852.00,0.80
7851.00,0.80
7850.00,0.80
7849.00,0.81
7848.00,0.81
7847.00,0.81
7846.00,0.81
7845.00,0.82
7844.00,0.82
7843.00,0.82
7842.00,0.82
7841.00,0.83
7840.00,0.83
7839.00,0.83
7838.00,0.83
7837.00,0.83
7836.00,0.83
7835.00,0.83
7834.00,0.83
7833.00,0.83
7832.00,0.83
7831.00,0.83
7830.00,0.83
7829.00,0.83
7828.00,0.83
7827.00,0.83
7826.00,0.83
7825.00,0.83
7824.00,0.83
7823.00,0.83
7822.00,0.83
7821.00,0.83
7820.00,0.83
7819.00,0.83
7818.00,0.83
7817.00,0.83
7816.00,0.83
7815.00,0.83
7814.00,0.83
7813.00,0.83
7812.00,0.83
7811.00,0.83
7810.00,0.83
7809.00,0.83
7808.00,0.83
7807.00,0.83
7806.00,0.83
7805.00,0.83
7804.00,0.83
7803.00,0.83
7802.00,0.83
7801.00,0.83
7800.00,0.83
7799.00,0.82
7798.00,0.82
7797.00,0.82
7796.00,0.82
7795.00,0.81
7794.00,0.81
7793.00,0.81
7792.00,0.81
7791.00,0.80
7790.00,0.80
7789.00,0.80
7788.00,0.80
7787.00,0.80
7786.00,0.79
7785.00,0.79
7784.00,0.79
7783.00,0.79
7782.00,0.79
7781.00,0.79
7780.00,0.79
7779.00,0.79
7778.00,0.79
7777.00,0.79
7776.00,0.80
7775.00,0.80
7774.00,0.80
7773.00,0.80
7772.00,0.80
7771.00,0.80
7770.00,0.81
7769.00,0.81
7768.00,0.81
7767.00,0.81
7766.00,0.82
7765.00,0.82
7764.00,0.82
7763.00,0.82
7762.00,0.82
7761.00,0.82
7760.00,0.82
7759.00,0.82
7758.00,0.82
7757.00,0.82
7756.00,0.82
7755.00,0.82
7754.00,0.82
7753.00,0.82
7752.00,0.82
7751.00,0.82
7750.00,0.82
7749.00,0.82
7748.00,0.81
7747.00,0.81
7746.00,0.81
7745.00,0.81
7744.00,0.81
7743.00,0.81
7742.00,0.81
7741.00,0.81
7740.00,0.81
7739.00,0.81
7738.00,0.81
7737.00,0.81
7736.00,0.81
7735.00,0.81
7734.00,0.82
7733.00,0.82
7732.00,0.82
7731.00,0.82
7730.00,0.82
7729.00,0.83
7728.00,0.83
7727.00,0.83
7726.00,0.83
7725.00,0.83
7724.00,0.83
7723.00,0.84
7722.00,0.84
7721.00,0.84
7720.00,0.84
7719.00,0.84
7718.00,0.84
7717.00,0.84
7716.00,0.84
7715.00,0.84
7714.00,0.84
7713.00,0.84
7712.00,0.84
7711.00,0.84
7710.00,0.84
7709.00,0.83
7708.00,0.83
7707.00,0.83
7706.00,0.83
7705.00,0.83
7704.00,0.83
7703.00,0.82
7702.00,0.82
7701.00,0.82
7700.00,0.82
7699.00,0.82
7698.00,0.82
7697.00,0.82
7696.00,0.82
7695.00,0.82
7694.00,0.82
7693.00,0.82
7692.00,0.82
7691.00,0.82
7690.00,0.81
7689.00,0.81
7688.00,0.81
7687.00,0.81
7686.00,0.81
7685.00,0.81
7684.00,0.81
7683.00,0.81
7682.00,0.81
7681.00,0.81
7680.00,0.81
7679.00,0.81
7678.00,0.81
7677.00,0.81
7676.00,0.81
7675.00,0.80
7674.00,0.80
7673.00,0.80
7672.00,0.80
7671.00,0.80
7670.00,0.80
7669.00,0.80
7668.00,0.80
7667.00,0.80
7666.00,0.80
7665.00,0.80
7664.00,0.80
7663.00,0.80
7662.00,0.80
7661.00,0.80
7660.00,0.80
7659.00,0.81
7658.00,0.81
7657.00,0.81
7656.00,0.81
7655.00,0.81
7654.00,0.82
7653.00,0.82
7652.00,0.82
7651.00,0.82
7650.00,0.82
7649.00,0.82
7648.00,0.83
7647.00,0.83
7646.00,0.83
7645.00,0.83
7644.00,0.83
7643.00,0.83
7642.00,0.83
7641.00,0.83
7640.00,0.83
7639.00,0.83
7638.00,0.83
7637.00,0.83
7636.00,0.83
7635.00,0.83
7634.00,0.83
7633.00,0.83
7632.00,0.83
7631.00,0.83
7630.00,0.83
7629.00,0.82
7628.00,0.82
7627.00,0.82
7626.00,0.82
7625.00,0.82
7624.00,0.82
7623.00,0.82
7622.00,0.81
7621.00,0.81
7620.00,0.81
7619.00,0.81
7618.00,0.81
7617.00,0.81
7616.00,0.81
7615.00,0.81
7614.00,0.81
7613.00,0.81
7612.00,0.81
7611.00,0.81
7610.00,0.81
7609.00,0.81
7608.00,0.81
7607.00,0.81
7606.00,0.81
7605.00,0.81
7604.00,0.81
7603.00,0.81
7602.00,0.81
7601.00,0.81
7600.00,0.81
7599.00,0.81
7598.00,0.81
7597.00,0.81
7596.00,0.81
7595.00,0.81
7594.00,0.80
7593.00,0.80
7592.00,0.80
7591.00,0.80
7590.00,0.80
7589.00,0.80
7588.00,0.80
7587.00,0.80
7586.00,0.80
7585.00,0.80
7584.00,0.80
7583.00,0.80
7582.00,0.80
7581.00,0.80
7580.00,0.80
7579.00,0.80
7578.00,0.80
7577.00,0.80
7576.00,0.80
7575.00,0.80
7574.00,0.81
7573.00,0.81
7572.00,0.81
7571.00,0.81
7570.00,0.81
7569.00,0.81
7568.00,0.82
7567.00,0.82
7566.00,0.82
7565.00,0.82
7564.00,0.82
7563.00,0.82
7562.00,0.82
7561.00,0.82
7560.00,0.82
7559.00,0.82
7558.00,0.82
7557.00,0.82
7556.00,0.82
7555.00,0.82
7554.00,0.82
7553.00,0.82
7552.00,0.82
7551.00,0.82
7550.00,0.82
7549.00,0.82
7548.00,0.81
7547.00,0.81
7546.00,0.81
7545.00,0.81
7544.00,0.81
7543.00,0.81
7542.00,0.81
7541.00,0.81
7540.00,0.81
7539.00,0.81
7538.00,0.81
7537.00,0.81
7536.00,0.81
7535.00,0.81
7534.00,0.81
7533.00,0.81
7532.00,0.81
7531.00,0.81
7530.00,0.81
7529.00,0.81
7528.00,0.81
7527.00,0.81
7526.00,0.81
7525.00,0.81
7524.00,0.81
7523.00,0.81
7522.00,0.81
7521.00,0.81
7520.00,0.80
7519.00,0.80
7518.00,0.80
7517.00,0.80
7516.00,0.80
7515.00,0.80
7514.00,0.80
7513.00,0.80
7512.00,0.79
7511.00,0.79
7510.00,0.79
7509.00,0.79
7508.00,0.79
7507.00,0.79
7506.00,0.79
7505.00,0.79
7504.00,0.79
7503.00,0.79
7502.00,0.79
7501.00,0.79
7500.00,0.79
7499.00,0.79
7498.00,0.80
7497.00,0.80
7496.00,0.80
7495.00,0.80
7494.00,0.80
7493.00,0.81
7492.00,0.81
7491.00,0.81
7490.00,0.81
7489.00,0.82
7488.00,0.82
7487.00,0.82
7486.00,0.82
7485.00,0.82
7484.00,0.83
7483.00,0.83
7482.00,0.83
7481.00,0.83
7480.00,0.83
7479.00,0.83
7478.00,0.83
7477.00,0.83
7476.00,0.83
7475.00,0.83
7474.00,0.83
7473.00,0.83
7472.00,0.83
7471.00,0.82
7470.00,0.82
7469.00,0.82
7468.00,0.82
7467.00,0.81
7466.00,0.81
7465.00,0.81
7464.00,0.81
7463.00,0.80
7462.00,0.80
7461.00,0.80
7460.00,0.79
7459.00,0.79
7458.00,0.79
7457.00,0.78
7456.00,0.78
7455.00,0.78
7454.00,0.78
7453.00,0.77
7452.00,0.77
7451.00,0.77
7450.00,0.77
7449.00,0.77
7448.00,0.77
7447.00,0.77
7446.00,0.77
7445.00,0.77
7444.00,0.77
7443.00,0.77
7442.00,0.77
7441.00,0.77
7440.00,0.77
7439.00,0.77
7438.00,0.77
7437.00,0.77
7436.00,0.77
7435.00,0.77
7434.00,0.77
7433.00,0.77
7432.00,0.77
7431.00,0.77
7430.00,0.77
7429.00,0.78
7428.00,0.78
7427.00,0.78
7426.00,0.78
7425.00,0.78
7424.00,0.78
7423.00,0.78
7422.00,0.79
7421.00,0.79
7420.00,0.79
7419.00,0.79
7418.00,0.80
7417.00,0.80
7416.00,0.80
7415.00,0.80
7414.00,0.80
7413.00,0.81
7412.00,0.81
7411.00,0.81
7410.00,0.81
7409.00,0.81
7408.00,0.82
7407.00,0.82
7406.00,0.82
7405.00,0.82
7404.00,0.82
7403.00,0.82
7402.00,0.83
7401.00,0.83
7400.00,0.83
7399.00,0.83
7398.00,0.83
7397.00,0.83
7396.00,0.83
7395.00,0.83
7394.00,0.82
7393.00,0.82
7392.00,0.82
7391.00,0.82
7390.00,0.82
7389.00,0.82
7388.00,0.82
7387.00,0.82
7386.00,0.82
7385.00,0.82
7384.00,0.81
7383.00,0.81
7382.00,0.81
7381.00,0.81
7380.00,0.81
7379.00,0.81
7378.00,0.81
7377.00,0.80
7376.00,0.80
7375.00,0.80
7374.00,0.80
7373.00,0.80
7372.00,0.80
7371.00,0.80
7370.00,0.80
7369.00,0.80
7368.00,0.80
7367.00,0.80
7366.00,0.80
7365.00,0.80
7364.00,0.80
7363.00,0.80
7362.00,0.80
7361.00,0.80
7360.00,0.80
7359.00,0.80
7358.00,0.80
7357.00,0.80
7356.00,0.79
7355.00,0.79
7354.00,0.79
7353.00,0.79
7352.00,0.79
7351.00,0.79
7350.00,0.78
7349.00,0.78
7348.00,0.78
7347.00,0.78
7346.00,0.78
7345.00,0.77
7344.00,0.77
7343.00,0.77
7342.00,0.76
7341.00,0.76
7340.00,0.76
7339.00,0.75
7338.00,0.75
7337.00,0.75
7336.00,0.75
7335.00,0.74
7334.00,0.74
7333.00,0.74
7332.00,0.74
7331.00,0.74
7330.00,0.74
7329.00,0.74
7328.00,0.74
7327.00,0.74
7326.00,0.74
7325.00,0.75
7324.00,0.75
7323.00,0.75
7322.00,0.75
7321.00,0.75
7320.00,0.75
7319.00,0.75
7318.00,0.75
7317.00,0.76
7316.00,0.76
7315.00,0.76
7314.00,0.76
7313.00,0.76
7312.00,0.76
7311.00,0.76
7310.00,0.77
7309.00,0.77
7308.00,0.77
7307.00,0.77
7306.00,0.77
7305.00,0.77
7304.00,0.77
7303.00,0.77
7302.00,0.77
7301.00,0.77
7300.00,0.77
7299.00,0.77
7298.00,0.77
7297.00,0.77
7296.00,0.77
7295.00,0.77
7294.00,0.77
7293.00,0.76
7292.00,0.76
7291.00,0.76
7290.00,0.76
7289.00,0.76
7288.00,0.76
7287.00,0.76
7286.00,0.76
7285.00,0.76
7284.00,0.76
7283.00,0.76
7282.00,0.76
7281.00,0.76
7280.00,0.76
7279.00,0.76
7278.00,0.76
7277.00,0.76
7276.00,0.76
7275.00,0.76
7274.00,0.76
7273.00,0.77
7272.00,0.77
7271.00,0.77
7270.00,0.77
7269.00,0.77
7268.00,0.77
7267.00,0.77
7266.00,0.77
7265.00,0.77
7264.00,0.77
7263.00,0.77
7262.00,0.76
7261.00,0.76
7260.00,0.76
7259.00,0.76
7258.00,0.76
7257.00,0.76
7256.00,0.76
7255.00,0.76
7254.00,0.76
7253.00,0.76
7252.00,0.76
7251.00,0.76
7250.00,0.75
7249.00,0.75
7248.00,0.75
7247.00,0.75
7246.00,0.75
7245.00,0.75
7244.00,0.74
7243.00,0.74
7242.00,0.74
7241.00,0.74
7240.00,0.74
7239.00,0.74
7238.00,0.73
7237.00,0.73
7236.00,0.73
7235.00,0.73
7234.00,0.73
7233.00,0.73
7232.00,0.73
7231.00,0.73
7230.00,0.73
7229.00,0.72
7228.00,0.72
7227.00,0.72
7226.00,0.72
7225.00,0.72
7224.00,0.72
7223.00,0.72
7222.00,0.72
7221.00,0.71
7220.00,0.71
7219.00,0.71
7218.00,0.71
7217.00,0.71
7216.00,0.71
7215.00,0.70
7214.00,0.70
7213.00,0.70
7212.00,0.70
7211.00,0.70
7210.00,0.69
7209.00,0.69
7208.00,0.69
7207.00,0.69
7206.00,0.68
7205.00,0.68
7204.00,0.68
7203.00,0.68
7202.00,0.67
7201.00,0.67
7200.00,0.67
7199.00,0.67
7198.00,0.67
7197.00,0.66
7196.00,0.66
7195.00,0.66
7194.00,0.66
7193.00,0.66
7192.00,0.66
7191.00,0.65
7190.00,0.65
7189.00,0.65
7188.00,0.65
7187.00,0.65
7186.00,0.65
7185.00,0.65
7184.00,0.65
7183.00,0.65
7182.00,0.65
7181.00,0.65
7180.00,0.65
7179.00,0.65
7178.00,0.65
7177.00,0.64
7176.00,0.64
7175.00,0.64
7174.00,0.64
7173.00,0.64
7172.00,0.64
7171.00,0.64
7170.00,0.64
7169.00,0.64
7168.00,0.64
7167.00,0.64
7166.00,0.64
7165.00,0.64
7164.00,0.64
7163.00,0.63
7162.00,0.63
7161.00,0.63
7160.00,0.63
7159.00,0.63
7158.00,0.63
7157.00,0.63
7156.00,0.63
7155.00,0.62
7154.00,0.62
7153.00,0.62
7152.00,0.62
7151.00,0.62
7150.00,0.62
7149.00,0.62
7148.00,0.62
7147.00,0.61
7146.00,0.61
7145.00,0.61
7144.00,0.61
7143.00,0.60
7142.00,0.60
7141.00,0.60
7140.00,0.60
7139.00,0.59
7138.00,0.59
7137.00,0.59
7136.00,0.58
7135.00,0.58
7134.00,0.58
7133.00,0.58
7132.00,0.57
7131.00,0.57
7130.00,0.57
7129.00,0.57
7128.00,0.57
7127.00,0.56
7126.00,0.56
7125.00,0.56
7124.00,0.56
7123.00,0.56
7122.00,0.56
7121.00,0.56
7120.00,0.55
7119.00,0.55
7118.00,0.55
7117.00,0.55
7116.00,0.55
7115.00,0.55
7114.00,0.55
7113.00,0.55
7112.00,0.55
7111.00,0.55
7110.00,0.55
7109.00,0.55
7108.00,0.55
7107.00,0.55
7106.00,0.55
7105.00,0.55
7104.00,0.55
7103.00,0.55
7102.00,0.55
7101.00,0.55
7100.00,0.54
7099.00,0.54
7098.00,0.54
7097.00,0.54
7096.00,0.54
7095.00,0.54
7094.00,0.54
7093.00,0.53
7092.00,0.53
7091.00,0.53
7090.00,0.53
7089.00,0.53
7088.00,0.53
7087.00,0.53
7086.00,0.52
7085.00,0.52
7084.00,0.52
7083.00,0.52
7082.00,0.52
7081.00,0.52
7080.00,0.52
7079.00,0.52
7078.00,0.52
7077.00,0.52
7076.00,0.52
7075.00,0.52
7074.00,0.52
7073.00,0.52
7072.00,0.52
7071.00,0.52
7070.00,0.52
7069.00,0.52
7068.00,0.52
7067.00,0.52
7066.00,0.52
7065.00,0.52
7064.00,0.52
7063.00,0.52
7062.00,0.52
7061.00,0.52
7060.00,0.52
7059.00,0.52
7058.00,0.52
7057.00,0.52
7056.00,0.52
7055.00,0.52
7054.00,0.52
7053.00,0.52
7052.00,0.52
7051.00,0.52
7050.00,0.52
7049.00,0.52
7048.00,0.52
7047.00,0.52
7046.00,0.52
7045.00,0.52
7044.00,0.52
7043.00,0.52
7042.00,0.52
7041.00,0.52
7040.00,0.52
7039.00,0.51
7038.00,0.51
7037.00,0.51
7036.00,0.51
7035.00,0.51
7034.00,0.51
7033.00,0.51
7032.00,0.50
7031.00,0.50
7030.00,0.50
7029.00,0.50
7028.00,0.50
7027.00,0.50
7026.00,0.49
7025.00,0.49
7024.00,0.49
7023.00,0.49
7022.00,0.48
7021.00,0.48
7020.00,0.48
7019.00,0.48
7018.00,0.48
7017.00,0.47
7016.00,0.47
7015.00,0.47
7014.00,0.47
7013.00,0.47
7012.00,0.46
7011.00,0.46
7010.00,0.46
7009.00,0.46
7008.00,0.46
7007.00,0.46
7006.00,0.46
7005.00,0.46
7004.00,0.46
7003.00,0.45
7002.00,0.45
7001.00,0.45
7000.00,0.45
6999.00,0.45
6998.00,0.45
6997.00,0.45
6996.00,0.45
6995.00,0.45
6994.00,0.45
6993.00,0.45
6992.00,0.45
6991.00,0.45
6990.00,0.45
6989.00,0.46
6988.00,0.46
6987.00,0.46
6986.00,0.46
6985.00,0.46
6984.00,0.46
6983.00,0.46
6982.00,0.46
6981.00,0.46
6980.00,0.47
6979.00,0.47
6978.00,0.47
6977.00,0.47
6976.00,0.47
6975.00,0.47
6974.00,0.48
6973.00,0.48
6972.00,0.48
6971.00,0.48
6970.00,0.48
6969.00,0.48
6968.00,0.48
6967.00,0.48
6966.00,0.48
6965.00,0.48
6964.00,0.48
6963.00,0.48
6962.00,0.48
6961.00,0.48
6960.00,0.48
6959.00,0.48
6958.00,0.48
6957.00,0.48
6956.00,0.48
6955.00,0.48
6954.00,0.48
6953.00,0.47
6952.00,0.47
6951.00,0.47
6950.00,0.47
6949.00,0.47
6948.00,0.46
6947.00,0.46
6946.00,0.46
6945.00,0.46
6944.00,0.46
6943.00,0.46
6942.00,0.45
6941.00,0.45
6940.00,0.45
6939.00,0.45
6938.00,0.45
6937.00,0.45
6936.00,0.45
6935.00,0.45
6934.00,0.45
6933.00,0.45
6932.00,0.45
6931.00,0.45
6930.00,0.45
6929.00,0.45
6928.00,0.45
6927.00,0.45
6926.00,0.45
6925.00,0.45
6924.00,0.45
6923.00,0.45
6922.00,0.45
6921.00,0.45
6920.00,0.45
6919.00,0.45
6918.00,0.45
6917.00,0.45
6916.00,0.45
6915.00,0.45
6914.00,0.45
6913.00,0.45
6912.00,0.44
6911.00,0.44
6910.00,0.44
6909.00,0.44
6908.00,0.44
6907.00,0.44
6906.00,0.43
6905.00,0.43
6904.00,0.43
6903.00,0.43
6902.00,0.43
6901.00,0.43
6900.00,0.43
6899.00,0.42
6898.00,0.42
6897.00,0.42
6896.00,0.42
6895.00,0.42
6894.00,0.42
6893.00,0.42
6892.00,0.42
6891.00,0.42
6890.00,0.42
6889.00,0.42
6888.00,0.42
6887.00,0.42
6886.00,0.42
6885.00,0.43
6884.00,0.43
6883.00,0.43
6882.00,0.43
6881.00,0.43
6880.00,0.44
6879.00,0.44
6878.00,0.44
6877.00,0.44
6876.00,0.44
6875.00,0.44
6874.00,0.45
6873.00,0.45
6872.00,0.45
6871.00,0.45
6870.00,0.45
6869.00,0.45
6868.00,0.46
6867.00,0.46
6866.00,0.46
6865.00,0.46
6864.00,0.46
6863.00,0.46
6862.00,0.46
6861.00,0.46
6860.00,0.46
6859.00,0.46
6858.00,0.46
6857.00,0.46
6856.00,0.46
6855.00,0.46
6854.00,0.46
6853.00,0.46
6852.00,0.46
6851.00,0.46
6850.00,0.46
6849.00,0.46
6848.00,0.46
6847.00,0.46
6846.00,0.46
6845.00,0.46
6844.00,0.46
6843.00,0.46
6842.00,0.46
6841.00,0.46
6840.00,0.46
6839.00,0.46
6838.00,0.46
6837.00,0.46
6836.00,0.46
6835.00,0.46
6834.00,0.46
6833.00,0.46
6832.00,0.45
6831.00,0.45
6830.00,0.45
6829.00,0.45
6828.00,0.45
6827.00,0.45
6826.00,0.45
6825.00,0.45
6824.00,0.45
6823.00,0.45
6822.00,0.45
6821.00,0.45
6820.00,0.45
6819.00,0.45
6818.00,0.45
6817.00,0.45
6816.00,0.45
6815.00,0.45
6814.00,0.45
6813.00,0.45
6812.00,0.45
6811.00,0.45
6810.00,0.45
6809.00,0.45
6808.00,0.45
6807.00,0.45
6806.00,0.45
6805.00,0.45
6804.00,0.46
6803.00,0.46
6802.00,0.46
6801.00,0.46
6800.00,0.46
6799.00,0.46
6798.00,0.46
6797.00,0.46
6796.00,0.46
6795.00,0.46
6794.00,0.47
6793.00,0.47
6792.00,0.47
6791.00,0.47
6790.00,0.47
6789.00,0.47
6788.00,0.47
6787.00,0.47
6786.00,0.47
6785.00,0.48
6784.00,0.48
6783.00,0.48
6782.00,0.48
6781.00,0.48
6780.00,0.48
6779.00,0.48
6778.00,0.48
6777.00,0.48
6776.00,0.48
6775.00,0.48
6774.00,0.48
6773.00,0.48
6772.00,0.48
6771.00,0.48
6770.00,0.49
6769.00,0.49
6768.00,0.49
6767.00,0.49
6766.00,0.49
6765.00,0.49
6764.00,0.50
6763.00,0.50
6762.00,0.50
6761.00,0.50
6760.00,0.50
6759.00,0.50
6758.00,0.51
6757.00,0.51
6756.00,0.51
6755.00,0.51
6754.00,0.51
6753.00,0.51
6752.00,0.51
6751.00,0.52
6750.00,0.52
6749.00,0.52
6748.00,0.52
6747.00,0.52
6746.00,0.52
6745.00,0.52
6744.00,0.52
6743.00,0.52
6742.00,0.52
6741.00,0.52
6740.00,0.52
6739.00,0.51
6738.00,0.51
6737.00,0.51
6736.00,0.51
6735.00,0.51
6734.00,0.51
6733.00,0.51
6732.00,0.51
6731.00,0.51
6730.00,0.51
6729.00,0.51
6728.00,0.51
6727.00,0.51
6726.00,0.51
6725.00,0.51
6724.00,0.51
6723.00,0.51
6722.00,0.51
6721.00,0.51
6720.00,0.51
6719.00,0.51
6718.00,0.52
6717.00,0.52
6716.00,0.52
6715.00,0.52
6714.00,0.52
6713.00,0.52
6712.00,0.52
6711.00,0.52
6710.00,0.52
6709.00,0.52
6708.00,0.52
6707.00,0.53
6706.00,0.53
6705.00,0.53
6704.00,0.53
6703.00,0.53
6702.00,0.53
6701.00,0.53
6700.00,0.53
6699.00,0.53
6698.00,0.53
6697.00,0.53
6696.00,0.53
6695.00,0.53
6694.00,0.53
6693.00,0.53
6692.00,0.53
6691.00,0.53
6690.00,0.53
6689.00,0.53
6688.00,0.53
6687.00,0.53
6686.00,0.53
6685.00,0.53
6684.00,0.53
6683.00,0.53
6682.00,0.53
6681.00,0.53
6680.00,0.53
6679.00,0.53
6678.00,0.53
6677.00,0.53
6676.00,0.53
6675.00,0.53
6674.00,0.54
6673.00,0.54
6672.00,0.54
6671.00,0.54
6670.00,0.54
6669.00,0.54
6668.00,0.54
6667.00,0.55
6666.00,0.55
6665.00,0.55
6664.00,0.55
6663.00,0.55
6662.00,0.55
6661.00,0.55
6660.00,0.55
6659.00,0.56
6658.00,0.56
6657.00,0.56
6656.00,0.56
6655.00,0.56
6654.00,0.56
6653.00,0.56
6652.00,0.57
6651.00,0.57
6650.00,0.57
6649.00,0.57
6648.00,0.57
6647.00,0.57
6646.00,0.57
6645.00,0.57
6644.00,0.57
6643.00,0.57
6642.00,0.57
6641.00,0.57
6640.00,0.57
6639.00,0.57
6638.00,0.57
6637.00,0.58
6636.00,0.58
6635.00,0.58
6634.00,0.58
6633.00,0.58
6632.00,0.58
6631.00,0.58
6630.00,0.57
6629.00,0.57
6628.00,0.57
6627.00,0.57
6626.00,0.57
6625.00,0.57
6624.00,0.57
6623.00,0.57
6622.00,0.57
6621.00,0.57
6620.00,0.57
6619.00,0.57
6618.00,0.57
6617.00,0.57
6616.00,0.57
6615.00,0.57
6614.00,0.57
6613.00,0.57
6612.00,0.57
6611.00,0.57
6610.00,0.57
6609.00,0.57
6608.00,0.57
6607.00,0.57
6606.00,0.57
6605.00,0.57
6604.00,0.57
6603.00,0.57
6602.00,0.57
6601.00,0.57
6600.00,0.57
6599.00,0.57
6598.00,0.57
6597.00,0.57
6596.00,0.57
6595.00,0.57
6594.00,0.57
6593.00,0.57
6592.00,0.57
6591.00,0.57
6590.00,0.57
6589.00,0.57
6588.00,0.57
6587.00,0.57
6586.00,0.57
6585.00,0.57
6584.00,0.57
6583.00,0.57
6582.00,0.57
6581.00,0.57
6580.00,0.57
6579.00,0.57
6578.00,0.57
6577.00,0.57
6576.00,0.57
6575.00,0.57
6574.00,0.57
6573.00,0.57
6572.00,0.58
6571.00,0.58
6570.00,0.58
6569.00,0.58
6568.00,0.58
6567.00,0.58
6566.00,0.58
6565.00,0.59
6564.00,0.59
6563.00,0.59
6562.00,0.59
6561.00,0.59
6560.00,0.60
6559.00,0.60
6558.00,0.60
6557.00,0.60
6556.00,0.60
6555.00,0.60
6554.00,0.61
6553.00,0.61
6552.00,0.61
6551.00,0.61
6550.00,0.61
6549.00,0.62
6548.00,0.62
6547.00,0.62
6546.00,0.62
6545.00,0.62
6544.00,0.62
6543.00,0.62
6542.00,0.63
6541.00,0.63
6540.00,0.63
6539.00,0.63
6538.00,0.63
6537.00,0.63
6536.00,0.63
6535.00,0.63
6534.00,0.63
6533.00,0.63
6532.00,0.64
6531.00,0.64
6530.00,0.64
6529.00,0.64
6528.00,0.64
6527.00,0.64
6526.00,0.64
6525.00,0.64
6524.00,0.64
6523.00,0.64
6522.00,0.64
6521.00,0.64
6520.00,0.65
6519.00,0.65
6518.00,0.65
6517.00,0.65
6516.00,0.65
6515.00,0.65
6514.00,0.65
6513.00,0.65
6512.00,0.65
6511.00,0.65
6510.00,0.65
6509.00,0.65
6508.00,0.65
6507.00,0.65
6506.00,0.65
6505.00,0.65
6504.00,0.65
6503.00,0.64
6502.00,0.64
6501.00,0.64
6500.00,0.64
6499.00,0.64
6498.00,0.64
6497.00,0.65
6496.00,0.65
6495.00,0.65
6494.00,0.65
6493.00,0.65
6492.00,0.65
6491.00,0.65
6490.00,0.65
6489.00,0.65
6488.00,0.65
6487.00,0.65
6486.00,0.65
6485.00,0.65
6484.00,0.65
6483.00,0.65
6482.00,0.66
6481.00,0.66
6480.00,0.66
6479.00,0.66
6478.00,0.66
6477.00,0.66
6476.00,0.66
6475.00,0.66
6474.00,0.66
6473.00,0.67
6472.00,0.67
6471.00,0.67
6470.00,0.67
6469.00,0.67
6468.00,0.67
6467.00,0.67
6466.00,0.67
6465.00,0.67
6464.00,0.67
6463.00,0.67
6462.00,0.68
6461.00,0.68
6460.00,0.68
6459.00,0.68
6458.00,0.68
6457.00,0.68
6456.00,0.68
6455.00,0.68
6454.00,0.68
6453.00,0.68
6452.00,0.68
6451.00,0.68
6450.00,0.68
6449.00,0.68
6448.00,0.68
6447.00,0.68
6446.00,0.68
6445.00,0.68
6444.00,0.68
6443.00,0.68
6442.00,0.68
6441.00,0.68
6440.00,0.68
6439.00,0.68
6438.00,0.68
6437.00,0.68
6436.00,0.68
6435.00,0.68
6434.00,0.68
6433.00,0.68
6432.00,0.68
6431.00,0.68
6430.00,0.68
6429.00,0.68
6428.00,0.68
6427.00,0.68
6426.00,0.68
6425.00,0.68
6424.00,0.68
6423.00,0.68
6422.00,0.68
6421.00,0.69
6420.00,0.69
6419.00,0.69
6418.00,0.69
6417.00,0.69
6416.00,0.69
6415.00,0.69
6414.00,0.69
6413.00,0.69
6412.00,0.69
6411.00,0.70
6410.00,0.70
6409.00,0.70
6408.00,0.70
6407.00,0.70
6406.00,0.70
6405.00,0.70
6404.00,0.71
6403.00,0.71
6402.00,0.71
6401.00,0.71
6400.00,0.71
6399.00,0.72
6398.00,0.72
6397.00,0.72
6396.00,0.72
6395.00,0.72
6394.00,0.72
6393.00,0.72
6392.00,0.73
6391.00,0.73
6390.00,0.73
6389.00,0.73
6388.00,0.73
6387.00,0.73
6386.00,0.73
6385.00,0.73
6384.00,0.73
6383.00,0.73
6382.00,0.74
6381.00,0.74
6380.00,0.74
6379.00,0.74
6378.00,0.74
6377.00,0.74
6376.00,0.74
6375.00,0.74
6374.00,0.74
6373.00,0.74
6372.00,0.74
6371.00,0.74
6370.00,0.74
6369.00,0.74
6368.00,0.74
6367.00,0.74
6366.00,0.74
6365.00,0.74
6364.00,0.74
6363.00,0.74
6362.00,0.74
6361.00,0.74
6360.00,0.74
6359.00,0.74
6358.00,0.74
6357.00,0.74
6356.00,0.74
6355.00,0.74
6354.00,0.74
6353.00,0.75
6352.00,0.75
6351.00,0.75
6350.00,0.75
6349.00,0.75
6348.00,0.75
6347.00,0.75
6346.00,0.75
6345.00,0.75
6344.00,0.75
6343.00,0.75
6342.00,0.75
6341.00,0.76
6340.00,0.76
6339.00,0.76
6338.00,0.76
6337.00,0.76
6336.00,0.76
6335.00,0.76
6334.00,0.76
6333.00,0.76
6332.00,0.76
6331.00,0.76
6330.00,0.76
6329.00,0.76
6328.00,0.76
6327.00,0.76
6326.00,0.76
6325.00,0.76
6324.00,0.76
6323.00,0.76
6322.00,0.76
6321.00,0.76
6320.00,0.76
6319.00,0.75
6318.00,0.75
6317.00,0.75
6316.00,0.75
6315.00,0.75
6314.00,0.75
6313.00,0.75
6312.00,0.75
6311.00,0.75
6310.00,0.75
6309.00,0.75
6308.00,0.75
6307.00,0.75
6306.00,0.75
6305.00,0.75
6304.00,0.75
6303.00,0.75
6302.00,0.75
6301.00,0.75
6300.00,0.75
6299.00,0.75
6298.00,0.75
6297.00,0.75
6296.00,0.75
6295.00,0.75
6294.00,0.75
6293.00,0.75
6292.00,0.75
6291.00,0.75
6290.00,0.76
6289.00,0.76
6288.00,0.76
6287.00,0.76
6286.00,0.76
6285.00,0.76
6284.00,0.76
6283.00,0.76
6282.00,0.76
6281.00,0.76
6280.00,0.76
6279.00,0.76
6278.00,0.76
6277.00,0.76
6276.00,0.76
6275.00,0.76
6274.00,0.76
6273.00,0.76
6272.00,0.76
6271.00,0.76
6270.00,0.76
6269.00,0.76
6268.00,0.76
6267.00,0.76
6266.00,0.76
6265.00,0.76
6264.00,0.76
6263.00,0.76
6262.00,0.76
6261.00,0.76
6260.00,0.76
6259.00,0.76
6258.00,0.76
6257.00,0.76
6256.00,0.76
6255.00,0.77
6254.00,0.77
6253.00,0.77
6252.00,0.77
6251.00,0.77
6250.00,0.77
6249.00,0.77
6248.00,0.77
6247.00,0.77
6246.00,0.77
6245.00,0.77
6244.00,0.77
6243.00,0.77
6242.00,0.77
6241.00,0.77
6240.00,0.77
6239.00,0.77
6238.00,0.77
6237.00,0.77
6236.00,0.77
6235.00,0.77
6234.00,0.77
6233.00,0.77
6232.00,0.77
6231.00,0.77
6230.00,0.77
6229.00,0.77
6228.00,0.77
6227.00,0.77
6226.00,0.77
6225.00,0.78
6224.00,0.78
6223.00,0.78
6222.00,0.78
6221.00,0.78
6220.00,0.78
6219.00,0.78
6218.00,0.79
6217.00,0.79
6216.00,0.79
6215.00,0.79
6214.00,0.79
6213.00,0.79
6212.00,0.79
6211.00,0.80
6210.00,0.80
6209.00,0.80
6208.00,0.80
6207.00,0.80
6206.00,0.80
6205.00,0.80
6204.00,0.81
6203.00,0.81
6202.00,0.81
6201.00,0.81
6200.00,0.81
6199.00,0.81
6198.00,0.81
6197.00,0.82
6196.00,0.82
6195.00,0.82
6194.00,0.82
6193.00,0.82
6192.00,0.82
6191.00,0.82
6190.00,0.82
6189.00,0.82
6188.00,0.83
6187.00,0.83
6186.00,0.83
6185.00,0.83
6184.00,0.83
6183.00,0.83
6182.00,0.83
6181.00,0.83
6180.00,0.83
6179.00,0.83
6178.00,0.83
6177.00,0.83
6176.00,0.83
6175.00,0.83
6174.00,0.83
6173.00,0.83
6172.00,0.83
6171.00,0.83
6170.00,0.83
6169.00,0.83
6168.00,0.83
6167.00,0.83
6166.00,0.83
6165.00,0.83
6164.00,0.83
6163.00,0.83
6162.00,0.83
6161.00,0.83
6160.00,0.83
6159.00,0.83
6158.00,0.83
6157.00,0.83
6156.00,0.83
6155.00,0.83
6154.00,0.83
6153.00,0.84
6152.00,0.84
6151.00,0.84
6150.00,0.84
6149.00,0.84
6148.00,0.84
6147.00,0.84
6146.00,0.84
6145.00,0.84
6144.00,0.84
6143.00,0.84
6142.00,0.84
6141.00,0.84
6140.00,0.84
6139.00,0.84
6138.00,0.84
6137.00,0.84
6136.00,0.84
6135.00,0.84
6134.00,0.84
6133.00,0.84
6132.00,0.84
6131.00,0.84
6130.00,0.84
6129.00,0.84
6128.00,0.84
6127.00,0.84
6126.00,0.84
6125.00,0.84
6124.00,0.84
6123.00,0.85
6122.00,0.85
6121.00,0.85
6120.00,0.85
6119.00,0.85
6118.00,0.85
6117.00,0.85
6116.00,0.86
6115.00,0.86
6114.00,0.86
6113.00,0.86
6112.00,0.86
6111.00,0.86
6110.00,0.86
6109.00,0.87
6108.00,0.87
6107.00,0.87
6106.00,0.87
6105.00,0.87
6104.00,0.87
6103.00,0.87
6102.00,0.87
6101.00,0.88
6100.00,0.88
6099.00,0.88
6098.00,0.88
6097.00,0.88
6096.00,0.88
6095.00,0.88
6094.00,0.88
6093.00,0.88
6092.00,0.88
6091.00,0.88
6090.00,0.88
6089.00,0.88
6088.00,0.88
6087.00,0.88
6086.00,0.88
6085.00,0.88
6084.00,0.88
6083.00,0.88
6082.00,0.89
6081.00,0.89
6080.00,0.89
6079.00,0.89
6078.00,0.89
6077.00,0.89
6076.00,0.89
6075.00,0.89
6074.00,0.89
6073.00,0.89
6072.00,0.89
6071.00,0.89
6070.00,0.89
6069.00,0.89
6068.00,0.89
6067.00,0.89
6066.00,0.89
6065.00,0.89
6064.00,0.89
6063.00,0.89
6062.00,0.89
6061.00,0.89
6060.00,0.89
6059.00,0.89
6058.00,0.89
6057.00,0.89
6056.00,0.88
6055.00,0.88
6054.00,0.88
6053.00,0.88
6052.00,0.88
6051.00,0.88
6050.00,0.88
6049.00,0.88
6048.00,0.88
6047.00,0.88
6046.00,0.88
6045.00,0.88
6044.00,0.88
6043.00,0.88
6042.00,0.88
6041.00,0.88
6040.00,0.88
6039.00,0.88
6038.00,0.88
6037.00,0.88
6036.00,0.88
6035.00,0.88
6034.00,0.88
6033.00,0.88
6032.00,0.88
6031.00,0.88
6030.00,0.88
6029.00,0.88
6028.00,0.88
6027.00,0.88
6026.00,0.88
6025.00,0.88
6024.00,0.88
6023.00,0.88
6022.00,0.88
6021.00,0.88
6020.00,0.88
6019.00,0.88
6018.00,0.87
6017.00,0.87
6016.00,0.87
6015.00,0.87
6014.00,0.87
6013.00,0.87
6012.00,0.87
6011.00,0.87
6010.00,0.87
6009.00,0.87
6008.00,0.87
6007.00,0.88
6006.00,0.88
6005.00,0.88
6004.00,0.88
6003.00,0.88
6002.00,0.88
6001.00,0.88
6000.00,0.88
5999.00,0.88
5998.00,0.88
5997.00,0.88
5996.00,0.88
5995.00,0.88
5994.00,0.88
5993.00,0.88
5992.00,0.88
5991.00,0.88
5990.00,0.88
5989.00,0.88
5988.00,0.88
5987.00,0.88
5986.00,0.88
5985.00,0.88
5984.00,0.88
5983.00,0.88
5982.00,0.88
5981.00,0.88
5980.00,0.88
5979.00,0.88
5978.00,0.88
5977.00,0.88
5976.00,0.88
5975.00,0.88
5974.00,0.88
5973.00,0.87
5972.00,0.87
5971.00,0.87
5970.00,0.87
5969.00,0.87
5968.00,0.87
5967.00,0.87
5966.00,0.86
5965.00,0.86
5964.00,0.86
5963.00,0.86
5962.00,0.86
5961.00,0.86
5960.00,0.85
5959.00,0.85
5958.00,0.85
5957.00,0.85
5956.00,0.84
5955.00,0.84
5954.00,0.84
5953.00,0.84
5952.00,0.84
5951.00,0.84
5950.00,0.83
5949.00,0.83
5948.00,0.83
5947.00,0.83
5946.00,0.83
5945.00,0.82
5944.00,0.82
5943.00,0.82
5942.00,0.82
5941.00,0.82
5940.00,0.82
5939.00,0.81
5938.00,0.81
5937.00,0.81
5936.00,0.81
5935.00,0.81
5934.00,0.81
5933.00,0.81
5932.00,0.81
5931.00,0.81
5930.00,0.81
5929.00,0.81
5928.00,0.81
5927.00,0.81
5926.00,0.80
5925.00,0.80
5924.00,0.80
5923.00,0.80
5922.00,0.80
5921.00,0.80
5920.00,0.80
5919.00,0.80
5918.00,0.80
5917.00,0.80
5916.00,0.80
5915.00,0.80
5914.00,0.80
5913.00,0.81
5912.00,0.81
5911.00,0.81
5910.00,0.81
5909.00,0.81
5908.00,0.81
5907.00,0.81
5906.00,0.81
5905.00,0.81
5904.00,0.81
5903.00,0.81
5902.00,0.82
5901.00,0.82
5900.00,0.82
5899.00,0.82
5898.00,0.82
5897.00,0.82
5896.00,0.83
5895.00,0.83
5894.00,0.83
5893.00,0.83
5892.00,0.83
5891.00,0.83
5890.00,0.83
5889.00,0.84
5888.00,0.84
5887.00,0.84
5886.00,0.84
5885.00,0.84
5884.00,0.84
5883.00,0.84
5882.00,0.84
5881.00,0.84
5880.00,0.85
5879.00,0.85
5878.00,0.85
5877.00,0.85
5876.00,0.85
5875.00,0.85
5874.00,0.85
5873.00,0.85
5872.00,0.85
5871.00,0.85
5870.00,0.85
5869.00,0.85
5868.00,0.85
5867.00,0.85
5866.00,0.85
5865.00,0.85
5864.00,0.85
5863.00,0.85
5862.00,0.85
5861.00,0.85
5860.00,0.85
5859.00,0.85
5858.00,0.85
5857.00,0.85
5856.00,0.85
5855.00,0.85
5854.00,0.85
5853.00,0.85
5852.00,0.85
5851.00,0.85
5850.00,0.85
5849.00,0.85
5848.00,0.85
5847.00,0.85
5846.00,0.85
5845.00,0.85
5844.00,0.85
5843.00,0.85
5842.00,0.85
5841.00,0.85
5840.00,0.85
5839.00,0.85
5838.00,0.85
5837.00,0.85
5836.00,0.85
5835.00,0.84
5834.00,0.84
5833.00,0.84
5832.00,0.84
5831.00,0.84
5830.00,0.84
5829.00,0.84
5828.00,0.84
5827.00,0.84
5826.00,0.84
5825.00,0.84
5824.00,0.84
5823.00,0.84
5822.00,0.84
5821.00,0.84
5820.00,0.84
5819.00,0.84
5818.00,0.85
5817.00,0.85
5816.00,0.85
5815.00,0.85
5814.00,0.85
5813.00,0.85
5812.00,0.85
5811.00,0.85
5810.00,0.85
5809.00,0.85
5808.00,0.85
5807.00,0.85
5806.00,0.85
5805.00,0.85
5804.00,0.85
5803.00,0.85
5802.00,0.85
5801.00,0.85
5800.00,0.85
5799.00,0.84
5798.00,0.84
5797.00,0.84
5796.00,0.84
5795.00,0.84
5794.00,0.84
5793.00,0.84
5792.00,0.84
5791.00,0.84
5790.00,0.84
5789.00,0.84
5788.00,0.84
5787.00,0.84
5786.00,0.84
5785.00,0.84
5784.00,0.84
5783.00,0.84
5782.00,0.84
5781.00,0.84
5780.00,0.84
5779.00,0.84
5778.00,0.84
5777.00,0.84
5776.00,0.84
5775.00,0.84
5774.00,0.84
5773.00,0.84
5772.00,0.84
5771.00,0.84
5770.00,0.84
5769.00,0.84
5768.00,0.84
5767.00,0.84
5766.00,0.84
5765.00,0.84
5764.00,0.85
5763.00,0.85
5762.00,0.85
5761.00,0.85
5760.00,0.85
5759.00,0.85
5758.00,0.85
5757.00,0.85
5756.00,0.85
5755.00,0.85
5754.00,0.85
5753.00,0.86
5752.00,0.86
5751.00,0.86
5750.00,0.86
5749.00,0.86
5748.00,0.86
5747.00,0.86
5746.00,0.86
5745.00,0.86
5744.00,0.86
5743.00,0.86
5742.00,0.85
5741.00,0.85
5740.00,0.85
5739.00,0.85
5738.00,0.85
5737.00,0.85
5736.00,0.85
5735.00,0.85
5734.00,0.85
5733.00,0.85
5732.00,0.84
5731.00,0.84
5730.00,0.84
5729.00,0.84
5728.00,0.84
5727.00,0.84
5726.00,0.84
5725.00,0.84
5724.00,0.84
5723.00,0.84
5722.00,0.84
5721.00,0.84
5720.00,0.84
5719.00,0.84
5718.00,0.84
5717.00,0.84
5716.00,0.84
5715.00,0.84
5714.00,0.84
5713.00,0.84
5712.00,0.84
5711.00,0.85
5710.00,0.85
5709.00,0.85
5708.00,0.85
5707.00,0.85
5706.00,0.85
5705.00,0.85
5704.00,0.85
5703.00,0.85
5702.00,0.85
5701.00,0.85
5700.00,0.85
5699.00,0.85
5698.00,0.85
5697.00,0.85
5696.00,0.85
5695.00,0.85
5694.00,0.85
5693.00,0.85
5692.00,0.85
5691.00,0.85
5690.00,0.85
5689.00,0.85
5688.00,0.85
5687.00,0.85
5686.00,0.85
5685.00,0.85
5684.00,0.85
5683.00,0.84
5682.00,0.84
5681.00,0.84
5680.00,0.84
5679.00,0.84
5678.00,0.84
5677.00,0.84
5676.00,0.84
5675.00,0.84
5674.00,0.84
5673.00,0.84
5672.00,0.84
5671.00,0.84
5670.00,0.84
5669.00,0.83
5668.00,0.83
5667.00,0.83
5666.00,0.83
5665.00,0.83
5664.00,0.83
5663.00,0.83
5662.00,0.83
5661.00,0.83
5660.00,0.83
5659.00,0.83
5658.00,0.83
5657.00,0.83
5656.00,0.83
5655.00,0.83
5654.00,0.83
5653.00,0.83
5652.00,0.83
5651.00,0.83
5650.00,0.83
5649.00,0.83
5648.00,0.83
5647.00,0.83
5646.00,0.83
5645.00,0.83
5644.00,0.83
5643.00,0.83
5642.00,0.83
5641.00,0.83
5640.00,0.83
5639.00,0.83
5638.00,0.83
5637.00,0.83
5636.00,0.83
5635.00,0.84
5634.00,0.84
5633.00,0.84
5632.00,0.84
5631.00,0.84
5630.00,0.84
5629.00,0.84
5628.00,0.84
5627.00,0.84
5626.00,0.84
5625.00,0.85
5624.00,0.85
5623.00,0.85
5622.00,0.85
5621.00,0.85
5620.00,0.85
5619.00,0.85
5618.00,0.86
5617.00,0.86
5616.00,0.86
5615.00,0.86
5614.00,0.86
5613.00,0.86
5612.00,0.86
5611.00,0.87
5610.00,0.87
5609.00,0.87
5608.00,0.87
5607.00,0.87
5606.00,0.87
5605.00,0.87
5604.00,0.87
5603.00,0.87
5602.00,0.87
5601.00,0.87
5600.00,0.87
5599.00,0.87
5598.00,0.87
5597.00,0.87
5596.00,0.87
5595.00,0.87
5594.00,0.87
5593.00,0.87
5592.00,0.87
5591.00,0.87
5590.00,0.87
5589.00,0.87
5588.00,0.87
5587.00,0.87
5586.00,0.87
5585.00,0.87
5584.00,0.87
5583.00,0.87
5582.00,0.87
5581.00,0.87
5580.00,0.87
5579.00,0.87
5578.00,0.88
5577.00,0.88
5576.00,0.88
5575.00,0.88
5574.00,0.88
5573.00,0.88
5572.00,0.88
5571.00,0.88
5570.00,0.88
5569.00,0.89
5568.00,0.89
5567.00,0.89
5566.00,0.89
5565.00,0.89
5564.00,0.89
5563.00,0.89
5562.00,0.89
5561.00,0.89
5560.00,0.89
5559.00,0.89
5558.00,0.89
5557.00,0.89
5556.00,0.89
5555.00,0.89
5554.00,0.89
5553.00,0.89
5552.00,0.89
5551.00,0.89
5550.00,0.89
5549.00,0.89
5548.00,0.89
5547.00,0.89
5546.00,0.89
5545.00,0.89
5544.00,0.89
5543.00,0.89
5542.00,0.89
5541.00,0.89
5540.00,0.89
5539.00,0.89
5538.00,0.89
5537.00,0.89
5536.00,0.89
5535.00,0.89
5534.00,0.89
5533.00,0.89
5532.00,0.89
5531.00,0.89
5530.00,0.89
5529.00,0.89
5528.00,0.89
5527.00,0.89
5526.00,0.89
5525.00,0.89
5524.00,0.89
5523.00,0.89
5522.00,0.89
5521.00,0.89
5520.00,0.89
5519.00,0.89
5518.00,0.89
5517.00,0.89
5516.00,0.89
5515.00,0.89
5514.00,0.89
5513.00,0.89
5512.00,0.89
5511.00,0.89
5510.00,0.88
5509.00,0.88
5508.00,0.88
5507.00,0.88
5506.00,0.88
5505.00,0.88
5504.00,0.88
5503.00,0.88
5502.00,0.88
5501.00,0.88
5500.00,0.88
5499.00,0.88
5498.00,0.88
5497.00,0.88
5496.00,0.88
5495.00,0.88
5494.00,0.88
5493.00,0.88
5492.00,0.88
5491.00,0.88
5490.00,0.88
5489.00,0.88
5488.00,0.88
5487.00,0.88
5486.00,0.88
5485.00,0.88
5484.00,0.88
5483.00,0.88
5482.00,0.88
5481.00,0.89
5480.00,0.89
5479.00,0.89
5478.00,0.89
5477.00,0.89
5476.00,0.89
5475.00,0.89
5474.00,0.89
5473.00,0.89
5472.00,0.89
5471.00,0.89
5470.00,0.89
5469.00,0.89
5468.00,0.90
5467.00,0.90
5466.00,0.90
5465.00,0.90
5464.00,0.90
5463.00,0.90
5462.00,0.90
5461.00,0.90
5460.00,0.90
5459.00,0.90
5458.00,0.90
5457.00,0.90
5456.00,0.90
5455.00,0.90
5454.00,0.90
5453.00,0.90
5452.00,0.90
5451.00,0.90
5450.00,0.90
5449.00,0.90
5448.00,0.90
5447.00,0.90
5446.00,0.90
5445.00,0.89
5444.00,0.89
5443.00,0.89
5442.00,0.89
5441.00,0.89
5440.00,0.89
5439.00,0.89
5438.00,0.89
5437.00,0.89
5436.00,0.89
5435.00,0.89
5434.00,0.89
5433.00,0.89
5432.00,0.89
5431.00,0.89
5430.00,0.89
5429.00,0.89
5428.00,0.89
5427.00,0.89
5426.00,0.89
5425.00,0.89
5424.00,0.89
5423.00,0.89
5422.00,0.89
5421.00,0.89
5420.00,0.89
5419.00,0.89
5418.00,0.89
5417.00,0.89
5416.00,0.89
5415.00,0.89
5414.00,0.89
5413.00,0.89
5412.00,0.89
5411.00,0.89
5410.00,0.89
5409.00,0.89
5408.00,0.89
5407.00,0.89
5406.00,0.89
5405.00,0.89
5404.00,0.89
5403.00,0.89
5402.00,0.89
5401.00,0.89
5400.00,0.89
5399.00,0.89
5398.00,0.89
5397.00,0.89
5396.00,0.89
5395.00,0.89
5394.00,0.89
5393.00,0.89
5392.00,0.89
5391.00,0.89
5390.00,0.89
5389.00,0.89
5388.00,0.89
5387.00,0.88
5386.00,0.88
5385.00,0.88
5384.00,0.88
5383.00,0.88
5382.00,0.88
5381.00,0.88
5380.00,0.87
5379.00,0.87
5378.00,0.87
5377.00,0.87
5376.00,0.87
5375.00,0.86
5374.00,0.86
5373.00,0.86
5372.00,0.86
5371.00,0.85
5370.00,0.85
5369.00,0.85
5368.00,0.85
5367.00,0.85
5366.00,0.84
5365.00,0.84
5364.00,0.84
5363.00,0.84
5362.00,0.83
5361.00,0.83
5360.00,0.83
5359.00,0.83
5358.00,0.82
5357.00,0.82
5356.00,0.81
5355.00,0.81
5354.00,0.81
5353.00,0.80
5352.00,0.80
5351.00,0.79
5350.00,0.79
5349.00,0.78
5348.00,0.78
5347.00,0.77
5346.00,0.77
5345.00,0.76
5344.00,0.76
5343.00,0.75
5342.00,0.75
5341.00,0.74
5340.00,0.73
5339.00,0.73
5338.00,0.72
5337.00,0.72
5336.00,0.71
5335.00,0.70
5334.00,0.70
5333.00,0.69
5332.00,0.69
5331.00,0.68
5330.00,0.68
5329.00,0.67
5328.00,0.66
5327.00,0.66
5326.00,0.65
5325.00,0.65
5324.00,0.64
5323.00,0.64
5322.00,0.63
5321.00,0.62
5320.00,0.62
5319.00,0.61
5318.00,0.61
5317.00,0.60
5316.00,0.60
5315.00,0.59
5314.00,0.59
5313.00,0.58
5312.00,0.58
5311.00,0.57
5310.00,0.57
5309.00,0.56
5308.00,0.55
5307.00,0.55
5306.00,0.54
5305.00,0.54
5304.00,0.53
5303.00,0.53
5302.00,0.52
5301.00,0.51
5300.00,0.51
5299.00,0.50
5298.00,0.50
5297.00,0.49
5296.00,0.49
5295.00,0.48
5294.00,0.48
5293.00,0.47
5292.00,0.47
5291.00,0.46
5290.00,0.46
5289.00,0.45
5288.00,0.45
5287.00,0.44
5286.00,0.44
5285.00,0.43
5284.00,0.43
5283.00,0.43
5282.00,0.42
5281.00,0.42
5280.00,0.41
5279.00,0.41
5278.00,0.41
5277.00,0.40
5276.00,0.40
5275.00,0.40
5274.00,0.40
5273.00,0.39
5272.00,0.39
5271.00,0.39
5270.00,0.38
5269.00,0.38
5268.00,0.38
5267.00,0.38
5266.00,0.37
5265.00,0.37
5264.00,0.37
5263.00,0.37
5262.00,0.37
5261.00,0.36
5260.00,0.36
5259.00,0.36
5258.00,0.36
5257.00,0.36
5256.00,0.36
5255.00,0.35
5254.00,0.35
5253.00,0.35
5252.00,0.35
5251.00,0.35
5250.00,0.35
5249.00,0.35
5248.00,0.34
5247.00,0.34
5246.00,0.34
5245.00,0.34
5244.00,0.34
5243.00,0.34
5242.00,0.34
5241.00,0.34
5240.00,0.33
5239.00,0.33
5238.00,0.33
5237.00,0.33
5236.00,0.33
5235.00,0.33
5234.00,0.33
5233.00,0.33
5232.00,0.33
5231.00,0.33
5230.00,0.33
5229.00,0.33
5228.00,0.32
5227.00,0.32
5226.00,0.32
5225.00,0.32
5224.00,0.32
5223.00,0.32
5222.00,0.32
5221.00,0.32
5220.00,0.32
5219.00,0.32
5218.00,0.32
5217.00,0.32
5216.00,0.32
5215.00,0.32
5214.00,0.32
5213.00,0.32
5212.00,0.32
5211.00,0.32
5210.00,0.32
5209.00,0.32
5208.00,0.32
5207.00,0.32
5206.00,0.32
5205.00,0.32
5204.00,0.32
5203.00,0.32
5202.00,0.32
5201.00,0.32
5200.00,0.32
5199.00,0.32
5198.00,0.32
5197.00,0.32
5196.00,0.32
5195.00,0.31
5194.00,0.31
5193.00,0.31
5192.00,0.31
5191.00,0.31
5190.00,0.31
5189.00,0.31
5188.00,0.31
5187.00,0.31
5186.00,0.31
5185.00,0.31
5184.00,0.31
5183.00,0.31
5182.00,0.31
5181.00,0.31
5180.00,0.31
5179.00,0.31
5178.00,0.31
5177.00,0.31
5176.00,0.31
5175.00,0.31
5174.00,0.31
5173.00,0.31
5172.00,0.31
5171.00,0.31
5170.00,0.31
5169.00,0.31
5168.00,0.31
5167.00,0.31
5166.00,0.31
5165.00,0.31
5164.00,0.31
5163.00,0.31
5162.00,0.31
5161.00,0.32
5160.00,0.32
5159.00,0.32
5158.00,0.32
5157.00,0.32
5156.00,0.32
5155.00,0.32
5154.00,0.33
5153.00,0.33
5152.00,0.33
5151.00,0.33
5150.00,0.33
5149.00,0.33
5148.00,0.34
5147.00,0.34
5146.00,0.34
5145.00,0.34
5144.00,0.34
5143.00,0.34
5142.00,0.34
5141.00,0.35
5140.00,0.35
5139.00,0.35
5138.00,0.35
5137.00,0.35
5136.00,0.35
5135.00,0.35
5134.00,0.35
5133.00,0.35
5132.00,0.36
5131.00,0.36
5130.00,0.36
5129.00,0.36
5128.00,0.36
5127.00,0.36
5126.00,0.36
5125.00,0.36
5124.00,0.36
5123.00,0.36
5122.00,0.36
5121.00,0.36
5120.00,0.36
5119.00,0.36
5118.00,0.36
5117.00,0.36
5116.00,0.36
5115.00,0.36
5114.00,0.36
5113.00,0.36
5112.00,0.36
5111.00,0.36
5110.00,0.36
5109.00,0.36
5108.00,0.36
5107.00,0.36
5106.00,0.36
5105.00,0.36
5104.00,0.36
5103.00,0.36
5102.00,0.36
5101.00,0.36
5100.00,0.36
5099.00,0.36
5098.00,0.36
5097.00,0.36
5096.00,0.36
5095.00,0.36
5094.00,0.36
5093.00,0.36
5092.00,0.36
5091.00,0.36
5090.00,0.36
5089.00,0.36
5088.00,0.36
5087.00,0.36
5086.00,0.36
5085.00,0.36
5084.00,0.36
5083.00,0.37
5082.00,0.37
5081.00,0.37
5080.00,0.37
5079.00,0.37
5078.00,0.37
5077.00,0.37
5076.00,0.37
5075.00,0.37
5074.00,0.38
5073.00,0.38
5072.00,0.38
5071.00,0.38
5070.00,0.38
5069.00,0.38
5068.00,0.38
5067.00,0.38
5066.00,0.38
5065.00,0.38
5064.00,0.38
5063.00,0.38
5062.00,0.38
5061.00,0.38
5060.00,0.39
5059.00,0.39
5058.00,0.39
5057.00,0.39
5056.00,0.39
5055.00,0.39
5054.00,0.39
5053.00,0.39
5052.00,0.39
5051.00,0.39
5050.00,0.39
5049.00,0.39
5048.00,0.39
5047.00,0.39
5046.00,0.39
5045.00,0.40
5044.00,0.40
5043.00,0.40
5042.00,0.40
5041.00,0.40
5040.00,0.40
5039.00,0.40
5038.00,0.41
5037.00,0.41
5036.00,0.41
5035.00,0.41
5034.00,0.41
5033.00,0.41
5032.00,0.41
5031.00,0.41
5030.00,0.41
5029.00,0.42
5028.00,0.42
5027.00,0.42
5026.00,0.42
5025.00,0.42
5024.00,0.42
5023.00,0.42
5022.00,0.42
5021.00,0.42
5020.00,0.42
5019.00,0.42
5018.00,0.42
5017.00,0.42
5016.00,0.42
5015.00,0.42
5014.00,0.42
5013.00,0.43
5012.00,0.43
5011.00,0.43
5010.00,0.43
5009.00,0.43
5008.00,0.43
5007.00,0.43
5006.00,0.43
5005.00,0.43
5004.00,0.43
5003.00,0.43
5002.00,0.43
5001.00,0.43
5000.00,0.43
4999.00,0.43
4998.00,0.43
4997.00,0.44
4996.00,0.44
4995.00,0.44
4994.00,0.44
4993.00,0.44
4992.00,0.44
4991.00,0.44
4990.00,0.44
4989.00,0.44
4988.00,0.44
4987.00,0.45
4986.00,0.45
4985.00,0.45
4984.00,0.45
4983.00,0.45
4982.00,0.45
4981.00,0.45
4980.00,0.45
4979.00,0.45
4978.00,0.45
4977.00,0.46
4976.00,0.46
4975.00,0.46
4974.00,0.46
4973.00,0.46
4972.00,0.46
4971.00,0.46
4970.00,0.47
4969.00,0.47
4968.00,0.47
4967.00,0.47
4966.00,0.47
4965.00,0.47
4964.00,0.47
4963.00,0.47
4962.00,0.47
4961.00,0.48
4960.00,0.48
4959.00,0.48
4958.00,0.48
4957.00,0.48
4956.00,0.48
4955.00,0.48
4954.00,0.48
4953.00,0.48
4952.00,0.48
4951.00,0.49
4950.00,0.49
4949.00,0.49
4948.00,0.49
4947.00,0.49
4946.00,0.49
4945.00,0.49
4944.00,0.49
4943.00,0.49
4942.00,0.49
4941.00,0.49
4940.00,0.50
4939.00,0.50
4938.00,0.50
4937.00,0.50
4936.00,0.50
4935.00,0.50
4934.00,0.50
4933.00,0.50
4932.00,0.50
4931.00,0.50
4930.00,0.50
4929.00,0.51
4928.00,0.51
4927.00,0.51
4926.00,0.51
4925.00,0.51
4924.00,0.51
4923.00,0.51
4922.00,0.51
4921.00,0.51
4920.00,0.51
4919.00,0.51
4918.00,0.51
4917.00,0.51
4916.00,0.52
4915.00,0.52
4914.00,0.52
4913.00,0.52
4912.00,0.52
4911.00,0.52
4910.00,0.52
4909.00,0.52
4908.00,0.52
4907.00,0.52
4906.00,0.53
4905.00,0.53
4904.00,0.53
4903.00,0.53
4902.00,0.53
4901.00,0.53
4900.00,0.53
4899.00,0.54
4898.00,0.54
4897.00,0.54
4896.00,0.54
4895.00,0.54
4894.00,0.54
4893.00,0.54
4892.00,0.54
4891.00,0.54
4890.00,0.55
4889.00,0.55
4888.00,0.55
4887.00,0.55
4886.00,0.55
4885.00,0.55
4884.00,0.55
4883.00,0.56
4882.00,0.56
4881.00,0.56
4880.00,0.56
4879.00,0.56
4878.00,0.56
4877.00,0.56
4876.00,0.57
4875.00,0.57
4874.00,0.57
4873.00,0.57
4872.00,0.57
4871.00,0.57
4870.00,0.57
4869.00,0.57
4868.00,0.57
4867.00,0.57
4866.00,0.57
4865.00,0.58
4864.00,0.58
4863.00,0.58
4862.00,0.58
4861.00,0.58
4860.00,0.58
4859.00,0.58
4858.00,0.58
4857.00,0.58
4856.00,0.58
4855.00,0.58
4854.00,0.58
4853.00,0.58
4852.00,0.58
4851.00,0.58
4850.00,0.58
4849.00,0.58
4848.00,0.59
4847.00,0.59
4846.00,0.59
4845.00,0.59
4844.00,0.59
4843.00,0.59
4842.00,0.59
4841.00,0.60
4840.00,0.60
4839.00,0.60
4838.00,0.60
4837.00,0.60
4836.00,0.60
4835.00,0.60
4834.00,0.61
4833.00,0.61
4832.00,0.61
4831.00,0.61
4830.00,0.61
4829.00,0.61
4828.00,0.61
4827.00,0.62
4826.00,0.62
4825.00,0.62
4824.00,0.62
4823.00,0.62
4822.00,0.62
4821.00,0.62
4820.00,0.62
4819.00,0.63
4818.00,0.63
4817.00,0.63
4816.00,0.63
4815.00,0.63
4814.00,0.63
4813.00,0.63
4812.00,0.63
4811.00,0.63
4810.00,0.64
4809.00,0.64
4808.00,0.64
4807.00,0.64
4806.00,0.64
4805.00,0.64
4804.00,0.64
4803.00,0.65
4802.00,0.65
4801.00,0.65
4800.00,0.65
4799.00,0.65
4798.00,0.65
4797.00,0.66
4796.00,0.66
4795.00,0.66
4794.00,0.66
4793.00,0.66
4792.00,0.66
4791.00,0.67
4790.00,0.67
4789.00,0.67
4788.00,0.67
4787.00,0.67
4786.00,0.68
4785.00,0.68
4784.00,0.68
4783.00,0.68
4782.00,0.68
4781.00,0.69
4780.00,0.69
4779.00,0.69
4778.00,0.69
4777.00,0.69
4776.00,0.69
4775.00,0.69
4774.00,0.70
4773.00,0.70
4772.00,0.70
4771.00,0.70
4770.00,0.70
4769.00,0.70
4768.00,0.70
4767.00,0.71
4766.00,0.71
4765.00,0.71
4764.00,0.71
4763.00,0.71
4762.00,0.71
4761.00,0.72
4760.00,0.72
4759.00,0.72
4758.00,0.72
4757.00,0.72
4756.00,0.72
4755.00,0.73
4754.00,0.73
4753.00,0.73
4752.00,0.73
4751.00,0.74
4750.00,0.74
4749.00,0.74
4748.00,0.74
4747.00,0.75
4746.00,0.75
4745.00,0.75
4744.00,0.75
4743.00,0.76
4742.00,0.76
4741.00,0.76
4740.00,0.76
4739.00,0.77
4738.00,0.77
4737.00,0.77
4736.00,0.77
4735.00,0.77
4734.00,0.78
4733.00,0.78
4732.00,0.78
4731.00,0.78
4730.00,0.78
4729.00,0.78
4728.00,0.78
4727.00,0.78
4726.00,0.78
4725.00,0.78
4724.00,0.78
4723.00,0.78
4722.00,0.78
4721.00,0.78
4720.00,0.78
4719.00,0.78
4718.00,0.78
4717.00,0.78
4716.00,0.78
4715.00,0.78
4714.00,0.78
4713.00,0.78
4712.00,0.78
4711.00,0.78
4710.00,0.78
4709.00,0.78
4708.00,0.78
4707.00,0.78
4706.00,0.78
4705.00,0.78
4704.00,0.78
4703.00,0.78
4702.00,0.78
4701.00,0.78
4700.00,0.78
4699.00,0.78
4698.00,0.78
4697.00,0.78
4696.00,0.78
4695.00,0.78
4694.00,0.79
4693.00,0.79
4692.00,0.79
4691.00,0.79
4690.00,0.79
4689.00,0.79
4688.00,0.79
4687.00,0.79
4686.00,0.79
4685.00,0.79
4684.00,0.79
4683.00,0.79
4682.00,0.79
4681.00,0.79
4680.00,0.80
4679.00,0.80
4678.00,0.80
4677.00,0.80
4676.00,0.80
4675.00,0.80
4674.00,0.80
4673.00,0.80
4672.00,0.80
4671.00,0.81
4670.00,0.81
4669.00,0.81
4668.00,0.81
4667.00,0.81
4666.00,0.81
4665.00,0.82
4664.00,0.82
4663.00,0.82
4662.00,0.82
4661.00,0.82
4660.00,0.82
4659.00,0.82
4658.00,0.82
4657.00,0.82
4656.00,0.83
4655.00,0.83
4654.00,0.83
4653.00,0.83
4652.00,0.83
4651.00,0.83
4650.00,0.84
4649.00,0.84
4648.00,0.84
4647.00,0.84
4646.00,0.84
4645.00,0.84
4644.00,0.84
4643.00,0.84
4642.00,0.85
4641.00,0.85
4640.00,0.85
4639.00,0.85
4638.00,0.85
4637.00,0.85
4636.00,0.85
4635.00,0.86
4634.00,0.86
4633.00,0.86
4632.00,0.86
4631.00,0.86
4630.00,0.86
4629.00,0.86
4628.00,0.86
4627.00,0.86
4626.00,0.86
4625.00,0.86
4624.00,0.86
4623.00,0.87
4622.00,0.87
4621.00,0.87
4620.00,0.87
4619.00,0.87
4618.00,0.87
4617.00,0.87
4616.00,0.87
4615.00,0.87
4614.00,0.87
4613.00,0.87
4612.00,0.87
4611.00,0.87
4610.00,0.87
4609.00,0.87
4608.00,0.87
4607.00,0.87
4606.00,0.87
4605.00,0.87
4604.00,0.87
4603.00,0.87
4602.00,0.87
4601.00,0.86
4600.00,0.86
4599.00,0.86
4598.00,0.86
4597.00,0.86
4596.00,0.86
4595.00,0.86
4594.00,0.86
4593.00,0.86
4592.00,0.86
4591.00,0.86
4590.00,0.86
4589.00,0.86
4588.00,0.86
4587.00,0.86
4586.00,0.86
4585.00,0.86
4584.00,0.86
4583.00,0.86
4582.00,0.86
4581.00,0.86
4580.00,0.86
4579.00,0.86
4578.00,0.86
4577.00,0.86
4576.00,0.86
4575.00,0.86
4574.00,0.86
4573.00,0.86
4572.00,0.86
4571.00,0.86
4570.00,0.86
4569.00,0.86
4568.00,0.86
4567.00,0.86
4566.00,0.87
4565.00,0.87
4564.00,0.87
4563.00,0.87
4562.00,0.87
4561.00,0.87
4560.00,0.87
4559.00,0.87
4558.00,0.87
4557.00,0.88
4556.00,0.88
4555.00,0.88
4554.00,0.88
4553.00,0.88
4552.00,0.88
4551.00,0.88
4550.00,0.88
4549.00,0.88
4548.00,0.88
4547.00,0.88
4546.00,0.88
4545.00,0.88
4544.00,0.88
4543.00,0.88
4542.00,0.88
4541.00,0.88
4540.00,0.88
4539.00,0.88
4538.00,0.88
4537.00,0.88
4536.00,0.88
4535.00,0.88
4534.00,0.88
4533.00,0.88
4532.00,0.88
4531.00,0.88
4530.00,0.88
4529.00,0.88
4528.00,0.88
4527.00,0.88
4526.00,0.88
4525.00,0.88
4524.00,0.87
4523.00,0.87
4522.00,0.87
4521.00,0.87
4520.00,0.87
4519.00,0.87
4518.00,0.87
4517.00,0.87
4516.00,0.87
4515.00,0.87
4514.00,0.87
4513.00,0.87
4512.00,0.87
4511.00,0.87
4510.00,0.87
4509.00,0.87
4508.00,0.87
4507.00,0.87
4506.00,0.87
4505.00,0.87
4504.00,0.87
4503.00,0.87
4502.00,0.87
4501.00,0.87
4500.00,0.87
4499.00,0.87
4498.00,0.87
4497.00,0.87
4496.00,0.87
4495.00,0.87
4494.00,0.87
4493.00,0.87
4492.00,0.87
4491.00,0.87
4490.00,0.87
4489.00,0.87
4488.00,0.87
4487.00,0.87
4486.00,0.87
4485.00,0.87
4484.00,0.87
4483.00,0.87
4482.00,0.87
4481.00,0.87
4480.00,0.87
4479.00,0.87
4478.00,0.87
4477.00,0.86
4476.00,0.86
4475.00,0.86
4474.00,0.86
4473.00,0.86
4472.00,0.86
4471.00,0.86
4470.00,0.86
4469.00,0.86
4468.00,0.86
4467.00,0.86
4466.00,0.85
4465.00,0.85
4464.00,0.85
4463.00,0.85
4462.00,0.85
4461.00,0.85
4460.00,0.84
4459.00,0.84
4458.00,0.84
4457.00,0.83
4456.00,0.83
4455.00,0.82
4454.00,0.82
4453.00,0.82
4452.00,0.81
4451.00,0.81
4450.00,0.80
4449.00,0.80
4448.00,0.79
4447.00,0.79
4446.00,0.78
4445.00,0.78
4444.00,0.78
4443.00,0.77
4442.00,0.77
4441.00,0.76
4440.00,0.76
4439.00,0.75
4438.00,0.75
4437.00,0.74
4436.00,0.74
4435.00,0.73
4434.00,0.73
4433.00,0.72
4432.00,0.72
4431.00,0.71
4430.00,0.71
4429.00,0.71
4428.00,0.70
4427.00,0.70
4426.00,0.70
4425.00,0.69
4424.00,0.69
4423.00,0.69
4422.00,0.69
4421.00,0.68
4420.00,0.68
4419.00,0.68
4418.00,0.68
4417.00,0.68
4416.00,0.68
4415.00,0.68
4414.00,0.68
4413.00,0.68
4412.00,0.68
4411.00,0.68
4410.00,0.68
4409.00,0.68
4408.00,0.68
4407.00,0.68
4406.00,0.69
4405.00,0.69
4404.00,0.69
4403.00,0.69
4402.00,0.69
4401.00,0.70
4400.00,0.70
4399.00,0.70
4398.00,0.71
4397.00,0.71
4396.00,0.71
4395.00,0.71
4394.00,0.72
4393.00,0.72
4392.00,0.72
4391.00,0.72
4390.00,0.72
4389.00,0.72
4388.00,0.73
4387.00,0.73
4386.00,0.73
4385.00,0.73
4384.00,0.73
4383.00,0.73
4382.00,0.73
4381.00,0.73
4380.00,0.73
4379.00,0.73
4378.00,0.73
4377.00,0.73
4376.00,0.73
4375.00,0.73
4374.00,0.73
4373.00,0.73
4372.00,0.72
4371.00,0.72
4370.00,0.72
4369.00,0.72
4368.00,0.72
4367.00,0.72
4366.00,0.72
4365.00,0.72
4364.00,0.72
4363.00,0.71
4362.00,0.71
4361.00,0.71
4360.00,0.71
4359.00,0.71
4358.00,0.71
4357.00,0.71
4356.00,0.71
4355.00,0.71
4354.00,0.71
4353.00,0.71
4352.00,0.71
4351.00,0.71
4350.00,0.71
4349.00,0.71
4348.00,0.71
4347.00,0.71
4346.00,0.71
4345.00,0.71
4344.00,0.71
4343.00,0.71
4342.00,0.72
4341.00,0.72
4340.00,0.72
4339.00,0.72
4338.00,0.72
4337.00,0.72
4336.00,0.72
4335.00,0.73
4334.00,0.73
4333.00,0.73
4332.00,0.73
4331.00,0.73
4330.00,0.74
4329.00,0.74
4328.00,0.74
4327.00,0.74
4326.00,0.75
4325.00,0.75
4324.00,0.75
4323.00,0.75
4322.00,0.75
4321.00,0.76
4320.00,0.76
4319.00,0.76
4318.00,0.76
4317.00,0.77
4316.00,0.77
4315.00,0.77
4314.00,0.78
4313.00,0.78
4312.00,0.78
4311.00,0.78
4310.00,0.79
4309.00,0.79
4308.00,0.79
4307.00,0.79
4306.00,0.79
4305.00,0.79
4304.00,0.80
4303.00,0.80
4302.00,0.80
4301.00,0.80
4300.00,0.80
4299.00,0.80
4298.00,0.80
4297.00,0.80
4296.00,0.80
4295.00,0.80
4294.00,0.79
4293.00,0.79
4292.00,0.79
4291.00,0.79
4290.00,0.79
4289.00,0.79
4288.00,0.78
4287.00,0.78
4286.00,0.78
4285.00,0.77
4284.00,0.77
4283.00,0.77
4282.00,0.77
4281.00,0.76
4280.00,0.76
4279.00,0.76
4278.00,0.76
4277.00,0.75
4276.00,0.75
4275.00,0.75
4274.00,0.75
4273.00,0.75
4272.00,0.75
4271.00,0.75
4270.00,0.75
4269.00,0.74
4268.00,0.74
4267.00,0.74
4266.00,0.75
4265.00,0.75
4264.00,0.75
4263.00,0.75
4262.00,0.75
4261.00,0.75
4260.00,0.75
4259.00,0.75
4258.00,0.75
4257.00,0.75
4256.00,0.76
4255.00,0.76
4254.00,0.76
4253.00,0.76
4252.00,0.76
4251.00,0.77
4250.00,0.77
4249.00,0.77
4248.00,0.77
4247.00,0.78
4246.00,0.78
4245.00,0.78
4244.00,0.79
4243.00,0.79
4242.00,0.79
4241.00,0.79
4240.00,0.79
4239.00,0.80
4238.00,0.80
4237.00,0.80
4236.00,0.80
4235.00,0.80
4234.00,0.81
4233.00,0.81
4232.00,0.81
4231.00,0.81
4230.00,0.82
4229.00,0.82
4228.00,0.82
4227.00,0.82
4226.00,0.83
4225.00,0.83
4224.00,0.83
4223.00,0.83
4222.00,0.83
4221.00,0.83
4220.00,0.83
4219.00,0.83
4218.00,0.83
4217.00,0.83
4216.00,0.83
4215.00,0.83
4214.00,0.83
4213.00,0.83
4212.00,0.83
4211.00,0.84
4210.00,0.83
4209.00,0.83
4208.00,0.83
4207.00,0.83
4206.00,0.83
4205.00,0.83
4204.00,0.83
4203.00,0.82
4202.00,0.82
4201.00,0.82
4200.00,0.82
4199.00,0.82
4198.00,0.82
4197.00,0.81
4196.00,0.81
4195.00,0.81
4194.00,0.81
4193.00,0.81
4192.00,0.81
4191.00,0.80
4190.00,0.80
4189.00,0.80
4188.00,0.80
4187.00,0.79
4186.00,0.79
4185.00,0.79
4184.00,0.79
4183.00,0.79
4182.00,0.79
4181.00,0.79
4180.00,0.78
4179.00,0.78
4178.00,0.78
4177.00,0.79
4176.00,0.79
4175.00,0.78
4174.00,0.78
4173.00,0.78
4172.00,0.78
4171.00,0.78
4170.00,0.78
4169.00,0.78
4168.00,0.78
4167.00,0.78
4166.00,0.78
4165.00,0.78
4164.00,0.78
4163.00,0.78
4162.00,0.78
4161.00,0.78
4160.00,0.78
4159.00,0.78
4158.00,0.78
4157.00,0.78
4156.00,0.78
4155.00,0.78
4154.00,0.78
4153.00,0.78
4152.00,0.78
4151.00,0.78
4150.00,0.78
4149.00,0.78
4148.00,0.78
4147.00,0.78
4146.00,0.78
4145.00,0.78
4144.00,0.79
4143.00,0.79
4142.00,0.79
4141.00,0.79
4140.00,0.79
4139.00,0.79
4138.00,0.79
4137.00,0.79
4136.00,0.79
4135.00,0.79
4134.00,0.79
4133.00,0.79
4132.00,0.78
4131.00,0.78
4130.00,0.78
4129.00,0.78
4128.00,0.78
4127.00,0.78
4126.00,0.78
4125.00,0.78
4124.00,0.77
4123.00,0.77
4122.00,0.77
4121.00,0.77
4120.00,0.76
4119.00,0.76
4118.00,0.76
4117.00,0.76
4116.00,0.75
4115.00,0.75
4114.00,0.74
4113.00,0.74
4112.00,0.74
4111.00,0.74
4110.00,0.73
4109.00,0.73
4108.00,0.73
4107.00,0.73
4106.00,0.73
4105.00,0.73
4104.00,0.72
4103.00,0.72
4102.00,0.72
4101.00,0.72
4100.00,0.72
4099.00,0.72
4098.00,0.72
4097.00,0.72
4096.00,0.72
4095.00,0.72
4094.00,0.72
4093.00,0.72
4092.00,0.72
4091.00,0.72
4090.00,0.72
4089.00,0.72
4088.00,0.72
4087.00,0.72
4086.00,0.72
4085.00,0.72
4084.00,0.72
4083.00,0.72
4082.00,0.72
4081.00,0.72
4080.00,0.72
4079.00,0.72
4078.00,0.73
4077.00,0.73
4076.00,0.73
4075.00,0.73
4074.00,0.73
4073.00,0.73
4072.00,0.73
4071.00,0.73
4070.00,0.73
4069.00,0.73
4068.00,0.73
4067.00,0.73
4066.00,0.73
4065.00,0.73
4064.00,0.73
4063.00,0.73
4062.00,0.73
4061.00,0.73
4060.00,0.73
4059.00,0.73
4058.00,0.73
4057.00,0.73
4056.00,0.73
4055.00,0.73
4054.00,0.73
4053.00,0.73
4052.00,0.73
4051.00,0.73
4050.00,0.73
4049.00,0.73
4048.00,0.73
4047.00,0.73
4046.00,0.73
4045.00,0.73
4044.00,0.73
4043.00,0.73
4042.00,0.73
4041.00,0.74
4040.00,0.74
4039.00,0.74
4038.00,0.74
4037.00,0.75
4036.00,0.75
4035.00,0.75
4034.00,0.75
4033.00,0.76
4032.00,0.76
4031.00,0.76
4030.00,0.76
4029.00,0.77
4028.00,0.77
4027.00,0.77
4026.00,0.77
4025.00,0.78
4024.00,0.78
4023.00,0.79
4022.00,0.79
4021.00,0.80
4020.00,0.80
4019.00,0.81
4018.00,0.81
4017.00,0.82
4016.00,0.82
4015.00,0.82
4014.00,0.83
4013.00,0.83
4012.00,0.83
4011.00,0.84
4010.00,0.84
4009.00,0.84
4008.00,0.85
4007.00,0.85
4006.00,0.85
4005.00,0.86
4004.00,0.86
4003.00,0.86
4002.00,0.87
4001.00,0.87
4000.00,0.87
