创建为新数据集,样品 1293 用户 Administrator 日期 星期六, 八月 17 2019
cm-1,%T
10000.00,0.49
9998.00,0.50
9996.00,0.50
9994.00,0.50
9992.00,0.51
9990.00,0.51
9988.00,0.51
9986.00,0.51
9984.00,0.52
9982.00,0.52
9980.00,0.52
9978.00,0.52
9976.00,0.52
9974.00,0.53
9972.00,0.53
9970.00,0.53
9968.00,0.53
9966.00,0.53
9964.00,0.53
9962.00,0.53
9960.00,0.53
9958.00,0.53
9956.00,0.53
9954.00,0.53
9952.00,0.53
9950.00,0.53
9948.00,0.52
9946.00,0.52
9944.00,0.52
9942.00,0.52
9940.00,0.52
9938.00,0.52
9936.00,0.52
9934.00,0.52
9932.00,0.52
9930.00,0.52
9928.00,0.52
9926.00,0.52
9924.00,0.52
9922.00,0.52
9920.00,0.52
9918.00,0.52
9916.00,0.52
9914.00,0.52
9912.00,0.52
9910.00,0.52
9908.00,0.52
9906.00,0.52
9904.00,0.52
9902.00,0.52
9900.00,0.52
9898.00,0.52
9896.00,0.52
9894.00,0.52
9892.00,0.52
9890.00,0.52
9888.00,0.53
9886.00,0.53
9884.00,0.53
9882.00,0.53
9880.00,0.53
9878.00,0.53
9876.00,0.53
9874.00,0.53
9872.00,0.53
9870.00,0.53
9868.00,0.53
9866.00,0.53
9864.00,0.53
9862.00,0.53
9860.00,0.53
9858.00,0.53
9856.00,0.53
9854.00,0.53
9852.00,0.53
9850.00,0.52
9848.00,0.52
9846.00,0.52
9844.00,0.52
9842.00,0.52
9840.00,0.52
9838.00,0.51
9836.00,0.51
9834.00,0.51
9832.00,0.51
9830.00,0.51
9828.00,0.51
9826.00,0.50
9824.00,0.50
9822.00,0.50
9820.00,0.50
9818.00,0.50
9816.00,0.50
9814.00,0.50
9812.00,0.50
9810.00,0.50
9808.00,0.50
9806.00,0.50
9804.00,0.50
9802.00,0.50
9800.00,0.50
9798.00,0.50
9796.00,0.50
9794.00,0.50
9792.00,0.50
9790.00,0.50
9788.00,0.50
9786.00,0.50
9784.00,0.50
9782.00,0.49
9780.00,0.49
9778.00,0.49
9776.00,0.49
9774.00,0.49
9772.00,0.49
9770.00,0.49
9768.00,0.49
9766.00,0.49
9764.00,0.49
9762.00,0.50
9760.00,0.50
9758.00,0.50
9756.00,0.50
9754.00,0.51
9752.00,0.51
9750.00,0.51
9748.00,0.51
9746.00,0.52
9744.00,0.52
9742.00,0.52
9740.00,0.52
9738.00,0.53
9736.00,0.53
9734.00,0.53
9732.00,0.53
9730.00,0.53
9728.00,0.53
9726.00,0.53
9724.00,0.53
9722.00,0.53
9720.00,0.53
9718.00,0.53
9716.00,0.53
9714.00,0.52
9712.00,0.52
9710.00,0.52
9708.00,0.52
9706.00,0.52
9704.00,0.52
9702.00,0.52
9700.00,0.52
9698.00,0.52
9696.00,0.52
9694.00,0.52
9692.00,0.52
9690.00,0.52
9688.00,0.52
9686.00,0.52
9684.00,0.52
9682.00,0.51
9680.00,0.51
9678.00,0.51
9676.00,0.51
9674.00,0.51
9672.00,0.51
9670.00,0.51
9668.00,0.51
9666.00,0.51
9664.00,0.51
9662.00,0.51
9660.00,0.50
9658.00,0.50
9656.00,0.50
9654.00,0.50
9652.00,0.51
9650.00,0.51
9648.00,0.51
9646.00,0.51
9644.00,0.51
9642.00,0.51
9640.00,0.51
9638.00,0.51
9636.00,0.51
9634.00,0.52
9632.00,0.52
9630.00,0.52
9628.00,0.52
9626.00,0.52
9624.00,0.52
9622.00,0.52
9620.00,0.52
9618.00,0.52
9616.00,0.52
9614.00,0.52
9612.00,0.52
9610.00,0.52
9608.00,0.52
9606.00,0.51
9604.00,0.51
9602.00,0.51
9600.00,0.51
9598.00,0.51
9596.00,0.50
9594.00,0.50
9592.00,0.50
9590.00,0.50
9588.00,0.50
9586.00,0.49
9584.00,0.49
9582.00,0.49
9580.00,0.49
9578.00,0.49
9576.00,0.50
9574.00,0.50
9572.00,0.50
9570.00,0.50
9568.00,0.50
9566.00,0.50
9564.00,0.51
9562.00,0.51
9560.00,0.51
9558.00,0.51
9556.00,0.51
9554.00,0.51
9552.00,0.51
9550.00,0.51
9548.00,0.51
9546.00,0.51
9544.00,0.51
9542.00,0.51
9540.00,0.51
9538.00,0.51
9536.00,0.50
9534.00,0.50
9532.00,0.50
9530.00,0.50
9528.00,0.50
9526.00,0.50
9524.00,0.50
9522.00,0.50
9520.00,0.50
9518.00,0.50
9516.00,0.50
9514.00,0.50
9512.00,0.50
9510.00,0.50
9508.00,0.50
9506.00,0.51
9504.00,0.51
9502.00,0.51
9500.00,0.51
9498.00,0.51
9496.00,0.51
9494.00,0.51
9492.00,0.51
9490.00,0.51
9488.00,0.51
9486.00,0.51
9484.00,0.51
9482.00,0.51
9480.00,0.51
9478.00,0.51
9476.00,0.51
9474.00,0.51
9472.00,0.51
9470.00,0.51
9468.00,0.51
9466.00,0.51
9464.00,0.51
9462.00,0.51
9460.00,0.51
9458.00,0.51
9456.00,0.51
9454.00,0.51
9452.00,0.51
9450.00,0.51
9448.00,0.51
9446.00,0.51
9444.00,0.51
9442.00,0.51
9440.00,0.52
9438.00,0.52
9436.00,0.52
9434.00,0.52
9432.00,0.52
9430.00,0.52
9428.00,0.52
9426.00,0.52
9424.00,0.52
9422.00,0.52
9420.00,0.52
9418.00,0.52
9416.00,0.52
9414.00,0.52
9412.00,0.52
9410.00,0.52
9408.00,0.52
9406.00,0.51
9404.00,0.51
9402.00,0.51
9400.00,0.51
9398.00,0.51
9396.00,0.51
9394.00,0.51
9392.00,0.51
9390.00,0.51
9388.00,0.51
9386.00,0.50
9384.00,0.50
9382.00,0.50
9380.00,0.50
9378.00,0.50
9376.00,0.50
9374.00,0.50
9372.00,0.50
9370.00,0.50
9368.00,0.50
9366.00,0.50
9364.00,0.50
9362.00,0.50
9360.00,0.50
9358.00,0.50
9356.00,0.51
9354.00,0.51
9352.00,0.51
9350.00,0.51
9348.00,0.51
9346.00,0.52
9344.00,0.52
9342.00,0.52
9340.00,0.52
9338.00,0.52
9336.00,0.53
9334.00,0.53
9332.00,0.53
9330.00,0.53
9328.00,0.53
9326.00,0.53
9324.00,0.53
9322.00,0.53
9320.00,0.53
9318.00,0.53
9316.00,0.53
9314.00,0.53
9312.00,0.53
9310.00,0.53
9308.00,0.53
9306.00,0.53
9304.00,0.53
9302.00,0.53
9300.00,0.53
9298.00,0.53
9296.00,0.52
9294.00,0.52
9292.00,0.52
9290.00,0.52
9288.00,0.52
9286.00,0.52
9284.00,0.52
9282.00,0.52
9280.00,0.52
9278.00,0.52
9276.00,0.52
9274.00,0.52
9272.00,0.52
9270.00,0.51
9268.00,0.51
9266.00,0.51
9264.00,0.51
9262.00,0.51
9260.00,0.51
9258.00,0.50
9256.00,0.50
9254.00,0.50
9252.00,0.50
9250.00,0.50
9248.00,0.50
9246.00,0.50
9244.00,0.50
9242.00,0.50
9240.00,0.50
9238.00,0.51
9236.00,0.51
9234.00,0.51
9232.00,0.51
9230.00,0.51
9228.00,0.52
9226.00,0.52
9224.00,0.52
9222.00,0.52
9220.00,0.52
9218.00,0.52
9216.00,0.52
9214.00,0.52
9212.00,0.53
9210.00,0.53
9208.00,0.53
9206.00,0.52
9204.00,0.52
9202.00,0.52
9200.00,0.52
9198.00,0.52
9196.00,0.52
9194.00,0.52
9192.00,0.51
9190.00,0.51
9188.00,0.51
9186.00,0.51
9184.00,0.51
9182.00,0.50
9180.00,0.50
9178.00,0.50
9176.00,0.50
9174.00,0.50
9172.00,0.50
9170.00,0.49
9168.00,0.49
9166.00,0.49
9164.00,0.49
9162.00,0.50
9160.00,0.50
9158.00,0.50
9156.00,0.50
9154.00,0.50
9152.00,0.51
9150.00,0.51
9148.00,0.51
9146.00,0.51
9144.00,0.52
9142.00,0.52
9140.00,0.52
9138.00,0.52
9136.00,0.52
9134.00,0.53
9132.00,0.53
9130.00,0.53
9128.00,0.53
9126.00,0.53
9124.00,0.53
9122.00,0.53
9120.00,0.53
9118.00,0.53
9116.00,0.53
9114.00,0.53
9112.00,0.53
9110.00,0.53
9108.00,0.53
9106.00,0.53
9104.00,0.53
9102.00,0.53
9100.00,0.52
9098.00,0.52
9096.00,0.52
9094.00,0.52
9092.00,0.52
9090.00,0.52
9088.00,0.52
9086.00,0.51
9084.00,0.51
9082.00,0.51
9080.00,0.51
9078.00,0.51
9076.00,0.51
9074.00,0.51
9072.00,0.51
9070.00,0.51
9068.00,0.51
9066.00,0.51
9064.00,0.51
9062.00,0.51
9060.00,0.51
9058.00,0.51
9056.00,0.51
9054.00,0.51
9052.00,0.51
9050.00,0.51
9048.00,0.51
9046.00,0.51
9044.00,0.51
9042.00,0.51
9040.00,0.51
9038.00,0.51
9036.00,0.51
9034.00,0.51
9032.00,0.52
9030.00,0.52
9028.00,0.52
9026.00,0.52
9024.00,0.52
9022.00,0.52
9020.00,0.52
9018.00,0.52
9016.00,0.52
9014.00,0.52
9012.00,0.52
9010.00,0.52
9008.00,0.52
9006.00,0.52
9004.00,0.52
9002.00,0.52
9000.00,0.52
8998.00,0.52
8996.00,0.52
8994.00,0.52
8992.00,0.52
8990.00,0.52
8988.00,0.51
8986.00,0.51
8984.00,0.51
8982.00,0.51
8980.00,0.51
8978.00,0.51
8976.00,0.51
8974.00,0.50
8972.00,0.50
8970.00,0.50
8968.00,0.50
8966.00,0.50
8964.00,0.50
8962.00,0.50
8960.00,0.50
8958.00,0.50
8956.00,0.50
8954.00,0.51
8952.00,0.51
8950.00,0.51
8948.00,0.51
8946.00,0.51
8944.00,0.51
8942.00,0.51
8940.00,0.51
8938.00,0.51
8936.00,0.51
8934.00,0.51
8932.00,0.51
8930.00,0.51
8928.00,0.51
8926.00,0.51
8924.00,0.51
8922.00,0.51
8920.00,0.51
8918.00,0.51
8916.00,0.51
8914.00,0.51
8912.00,0.51
8910.00,0.51
8908.00,0.51
8906.00,0.51
8904.00,0.51
8902.00,0.51
8900.00,0.52
8898.00,0.52
8896.00,0.52
8894.00,0.52
8892.00,0.52
8890.00,0.52
8888.00,0.52
8886.00,0.52
8884.00,0.52
8882.00,0.52
8880.00,0.52
8878.00,0.52
8876.00,0.51
8874.00,0.51
8872.00,0.51
8870.00,0.51
8868.00,0.51
8866.00,0.51
8864.00,0.51
8862.00,0.51
8860.00,0.51
8858.00,0.51
8856.00,0.50
8854.00,0.51
8852.00,0.51
8850.00,0.51
8848.00,0.51
8846.00,0.51
8844.00,0.51
8842.00,0.51
8840.00,0.51
8838.00,0.51
8836.00,0.52
8834.00,0.52
8832.00,0.52
8830.00,0.52
8828.00,0.52
8826.00,0.52
8824.00,0.52
8822.00,0.52
8820.00,0.52
8818.00,0.52
8816.00,0.53
8814.00,0.53
8812.00,0.52
8810.00,0.52
8808.00,0.52
8806.00,0.52
8804.00,0.52
8802.00,0.52
8800.00,0.52
8798.00,0.52
8796.00,0.52
8794.00,0.52
8792.00,0.52
8790.00,0.52
8788.00,0.52
8786.00,0.52
8784.00,0.52
8782.00,0.52
8780.00,0.52
8778.00,0.52
8776.00,0.51
8774.00,0.51
8772.00,0.51
8770.00,0.51
8768.00,0.51
8766.00,0.51
8764.00,0.51
8762.00,0.51
8760.00,0.51
8758.00,0.51
8756.00,0.51
8754.00,0.51
8752.00,0.51
8750.00,0.51
8748.00,0.51
8746.00,0.51
8744.00,0.51
8742.00,0.51
8740.00,0.51
8738.00,0.51
8736.00,0.51
8734.00,0.51
8732.00,0.51
8730.00,0.51
8728.00,0.51
8726.00,0.51
8724.00,0.51
8722.00,0.51
8720.00,0.51
8718.00,0.51
8716.00,0.51
8714.00,0.51
8712.00,0.51
8710.00,0.51
8708.00,0.51
8706.00,0.51
8704.00,0.51
8702.00,0.51
8700.00,0.51
8698.00,0.51
8696.00,0.51
8694.00,0.51
8692.00,0.51
8690.00,0.51
8688.00,0.51
8686.00,0.50
8684.00,0.50
8682.00,0.50
8680.00,0.50
8678.00,0.50
8676.00,0.50
8674.00,0.50
8672.00,0.50
8670.00,0.51
8668.00,0.51
8666.00,0.51
8664.00,0.51
8662.00,0.51
8660.00,0.51
8658.00,0.51
8656.00,0.51
8654.00,0.52
8652.00,0.52
8650.00,0.52
8648.00,0.52
8646.00,0.52
8644.00,0.52
8642.00,0.52
8640.00,0.52
8638.00,0.52
8636.00,0.52
8634.00,0.52
8632.00,0.52
8630.00,0.52
8628.00,0.52
8626.00,0.52
8624.00,0.52
8622.00,0.52
8620.00,0.51
8618.00,0.51
8616.00,0.51
8614.00,0.51
8612.00,0.51
8610.00,0.51
8608.00,0.51
8606.00,0.51
8604.00,0.51
8602.00,0.51
8600.00,0.51
8598.00,0.51
8596.00,0.51
8594.00,0.51
8592.00,0.51
8590.00,0.52
8588.00,0.52
8586.00,0.52
8584.00,0.52
8582.00,0.52
8580.00,0.52
8578.00,0.52
8576.00,0.52
8574.00,0.52
8572.00,0.53
8570.00,0.53
8568.00,0.53
8566.00,0.53
8564.00,0.53
8562.00,0.53
8560.00,0.53
8558.00,0.53
8556.00,0.53
8554.00,0.53
8552.00,0.53
8550.00,0.53
8548.00,0.53
8546.00,0.53
8544.00,0.52
8542.00,0.52
8540.00,0.52
8538.00,0.52
8536.00,0.52
8534.00,0.52
8532.00,0.52
8530.00,0.52
8528.00,0.52
8526.00,0.52
8524.00,0.52
8522.00,0.52
8520.00,0.52
8518.00,0.52
8516.00,0.52
8514.00,0.52
8512.00,0.52
8510.00,0.52
8508.00,0.52
8506.00,0.52
8504.00,0.52
8502.00,0.52
8500.00,0.52
8498.00,0.52
8496.00,0.52
8494.00,0.52
8492.00,0.52
8490.00,0.52
8488.00,0.52
8486.00,0.52
8484.00,0.52
8482.00,0.52
8480.00,0.52
8478.00,0.52
8476.00,0.52
8474.00,0.52
8472.00,0.52
8470.00,0.52
8468.00,0.52
8466.00,0.52
8464.00,0.52
8462.00,0.52
8460.00,0.52
8458.00,0.52
8456.00,0.51
8454.00,0.51
8452.00,0.51
8450.00,0.51
8448.00,0.51
8446.00,0.51
8444.00,0.51
8442.00,0.51
8440.00,0.51
8438.00,0.51
8436.00,0.50
8434.00,0.50
8432.00,0.50
8430.00,0.50
8428.00,0.50
8426.00,0.50
8424.00,0.50
8422.00,0.50
8420.00,0.50
8418.00,0.50
8416.00,0.50
8414.00,0.50
8412.00,0.50
8410.00,0.50
8408.00,0.50
8406.00,0.50
8404.00,0.50
8402.00,0.50
8400.00,0.50
8398.00,0.50
8396.00,0.50
8394.00,0.50
8392.00,0.51
8390.00,0.51
8388.00,0.51
8386.00,0.51
8384.00,0.51
8382.00,0.51
8380.00,0.51
8378.00,0.51
8376.00,0.51
8374.00,0.52
8372.00,0.52
8370.00,0.52
8368.00,0.52
8366.00,0.52
8364.00,0.52
8362.00,0.52
8360.00,0.52
8358.00,0.52
8356.00,0.52
8354.00,0.52
8352.00,0.52
8350.00,0.52
8348.00,0.52
8346.00,0.51
8344.00,0.51
8342.00,0.51
8340.00,0.51
8338.00,0.51
8336.00,0.51
8334.00,0.51
8332.00,0.51
8330.00,0.51
8328.00,0.51
8326.00,0.51
8324.00,0.51
8322.00,0.51
8320.00,0.51
8318.00,0.51
8316.00,0.51
8314.00,0.51
8312.00,0.51
8310.00,0.51
8308.00,0.51
8306.00,0.51
8304.00,0.51
8302.00,0.52
8300.00,0.52
8298.00,0.52
8296.00,0.52
8294.00,0.52
8292.00,0.52
8290.00,0.52
8288.00,0.52
8286.00,0.52
8284.00,0.52
8282.00,0.52
8280.00,0.52
8278.00,0.52
8276.00,0.52
8274.00,0.52
8272.00,0.52
8270.00,0.52
8268.00,0.52
8266.00,0.52
8264.00,0.52
8262.00,0.52
8260.00,0.52
8258.00,0.52
8256.00,0.52
8254.00,0.52
8252.00,0.52
8250.00,0.52
8248.00,0.52
8246.00,0.52
8244.00,0.52
8242.00,0.52
8240.00,0.52
8238.00,0.52
8236.00,0.52
8234.00,0.52
8232.00,0.52
8230.00,0.52
8228.00,0.52
8226.00,0.52
8224.00,0.52
8222.00,0.52
8220.00,0.52
8218.00,0.52
8216.00,0.52
8214.00,0.52
8212.00,0.52
8210.00,0.52
8208.00,0.52
8206.00,0.52
8204.00,0.52
8202.00,0.52
8200.00,0.52
8198.00,0.52
8196.00,0.52
8194.00,0.52
8192.00,0.52
8190.00,0.52
8188.00,0.52
8186.00,0.52
8184.00,0.52
8182.00,0.52
8180.00,0.52
8178.00,0.52
8176.00,0.52
8174.00,0.52
8172.00,0.52
8170.00,0.52
8168.00,0.52
8166.00,0.52
8164.00,0.52
8162.00,0.52
8160.00,0.52
8158.00,0.52
8156.00,0.52
8154.00,0.52
8152.00,0.52
8150.00,0.52
8148.00,0.52
8146.00,0.52
8144.00,0.52
8142.00,0.52
8140.00,0.52
8138.00,0.52
8136.00,0.52
8134.00,0.52
8132.00,0.53
8130.00,0.53
8128.00,0.53
8126.00,0.53
8124.00,0.53
8122.00,0.53
8120.00,0.53
8118.00,0.53
8116.00,0.53
8114.00,0.53
8112.00,0.53
8110.00,0.53
8108.00,0.53
8106.00,0.53
8104.00,0.53
8102.00,0.53
8100.00,0.53
8098.00,0.53
8096.00,0.53
8094.00,0.53
8092.00,0.53
8090.00,0.53
8088.00,0.53
8086.00,0.53
8084.00,0.53
8082.00,0.53
8080.00,0.53
8078.00,0.53
8076.00,0.53
8074.00,0.53
8072.00,0.53
8070.00,0.53
8068.00,0.53
8066.00,0.53
8064.00,0.53
8062.00,0.53
8060.00,0.53
8058.00,0.53
8056.00,0.53
8054.00,0.53
8052.00,0.53
8050.00,0.53
8048.00,0.53
8046.00,0.53
8044.00,0.52
8042.00,0.52
8040.00,0.52
8038.00,0.52
8036.00,0.52
8034.00,0.52
8032.00,0.52
8030.00,0.52
8028.00,0.52
8026.00,0.52
8024.00,0.52
8022.00,0.52
8020.00,0.52
8018.00,0.52
8016.00,0.52
8014.00,0.52
8012.00,0.52
8010.00,0.52
8008.00,0.52
8006.00,0.52
8004.00,0.52
8002.00,0.52
8000.00,0.52
7998.00,0.52
7996.00,0.52
7994.00,0.52
7992.00,0.52
7990.00,0.52
7988.00,0.52
7986.00,0.52
7984.00,0.52
7982.00,0.52
7980.00,0.52
7978.00,0.52
7976.00,0.52
7974.00,0.52
7972.00,0.52
7970.00,0.52
7968.00,0.52
7966.00,0.52
7964.00,0.52
7962.00,0.52
7960.00,0.52
7958.00,0.52
7956.00,0.52
7954.00,0.52
7952.00,0.52
7950.00,0.52
7948.00,0.52
7946.00,0.52
7944.00,0.52
7942.00,0.52
7940.00,0.52
7938.00,0.52
7936.00,0.52
7934.00,0.52
7932.00,0.52
7930.00,0.52
7928.00,0.52
7926.00,0.52
7924.00,0.52
7922.00,0.52
7920.00,0.52
7918.00,0.52
7916.00,0.52
7914.00,0.52
7912.00,0.52
7910.00,0.52
7908.00,0.52
7906.00,0.52
7904.00,0.52
7902.00,0.52
7900.00,0.51
7898.00,0.51
7896.00,0.51
7894.00,0.51
7892.00,0.51
7890.00,0.51
7888.00,0.51
7886.00,0.51
7884.00,0.51
7882.00,0.51
7880.00,0.52
7878.00,0.52
7876.00,0.52
7874.00,0.52
7872.00,0.52
7870.00,0.52
7868.00,0.52
7866.00,0.52
7864.00,0.52
7862.00,0.52
7860.00,0.52
7858.00,0.52
7856.00,0.52
7854.00,0.52
7852.00,0.52
7850.00,0.52
7848.00,0.52
7846.00,0.52
7844.00,0.52
7842.00,0.52
7840.00,0.52
7838.00,0.52
7836.00,0.52
7834.00,0.52
7832.00,0.52
7830.00,0.52
7828.00,0.52
7826.00,0.52
7824.00,0.52
7822.00,0.52
7820.00,0.52
7818.00,0.52
7816.00,0.52
7814.00,0.52
7812.00,0.52
7810.00,0.52
7808.00,0.52
7806.00,0.52
7804.00,0.52
7802.00,0.52
7800.00,0.52
7798.00,0.52
7796.00,0.52
7794.00,0.52
7792.00,0.52
7790.00,0.52
7788.00,0.52
7786.00,0.52
7784.00,0.52
7782.00,0.52
7780.00,0.52
7778.00,0.52
7776.00,0.52
7774.00,0.52
7772.00,0.52
7770.00,0.52
7768.00,0.52
7766.00,0.52
7764.00,0.52
7762.00,0.52
7760.00,0.52
7758.00,0.52
7756.00,0.52
7754.00,0.53
7752.00,0.53
7750.00,0.53
7748.00,0.53
7746.00,0.53
7744.00,0.53
7742.00,0.53
7740.00,0.53
7738.00,0.53
7736.00,0.53
7734.00,0.53
7732.00,0.53
7730.00,0.53
7728.00,0.53
7726.00,0.53
7724.00,0.53
7722.00,0.53
7720.00,0.53
7718.00,0.53
7716.00,0.53
7714.00,0.53
7712.00,0.52
7710.00,0.52
7708.00,0.52
7706.00,0.52
7704.00,0.52
7702.00,0.52
7700.00,0.52
7698.00,0.52
7696.00,0.52
7694.00,0.52
7692.00,0.52
7690.00,0.52
7688.00,0.52
7686.00,0.52
7684.00,0.52
7682.00,0.52
7680.00,0.52
7678.00,0.52
7676.00,0.52
7674.00,0.52
7672.00,0.52
7670.00,0.52
7668.00,0.52
7666.00,0.52
7664.00,0.52
7662.00,0.52
7660.00,0.52
7658.00,0.52
7656.00,0.52
7654.00,0.52
7652.00,0.52
7650.00,0.52
7648.00,0.52
7646.00,0.52
7644.00,0.52
7642.00,0.52
7640.00,0.52
7638.00,0.52
7636.00,0.52
7634.00,0.53
7632.00,0.53
7630.00,0.53
7628.00,0.53
7626.00,0.53
7624.00,0.53
7622.00,0.53
7620.00,0.53
7618.00,0.53
7616.00,0.53
7614.00,0.53
7612.00,0.53
7610.00,0.53
7608.00,0.53
7606.00,0.53
7604.00,0.53
7602.00,0.53
7600.00,0.53
7598.00,0.53
7596.00,0.53
7594.00,0.53
7592.00,0.53
7590.00,0.53
7588.00,0.53
7586.00,0.52
7584.00,0.52
7582.00,0.52
7580.00,0.52
7578.00,0.52
7576.00,0.52
7574.00,0.52
7572.00,0.52
7570.00,0.52
7568.00,0.52
7566.00,0.52
7564.00,0.52
7562.00,0.52
7560.00,0.52
7558.00,0.52
7556.00,0.52
7554.00,0.52
7552.00,0.52
7550.00,0.52
7548.00,0.52
7546.00,0.52
7544.00,0.52
7542.00,0.52
7540.00,0.52
7538.00,0.52
7536.00,0.52
7534.00,0.52
7532.00,0.52
7530.00,0.52
7528.00,0.52
7526.00,0.52
7524.00,0.52
7522.00,0.52
7520.00,0.52
7518.00,0.52
7516.00,0.52
7514.00,0.52
7512.00,0.52
7510.00,0.52
7508.00,0.52
7506.00,0.52
7504.00,0.52
7502.00,0.52
7500.00,0.52
7498.00,0.52
7496.00,0.52
7494.00,0.52
7492.00,0.52
7490.00,0.52
7488.00,0.52
7486.00,0.52
7484.00,0.52
7482.00,0.52
7480.00,0.52
7478.00,0.52
7476.00,0.52
7474.00,0.52
7472.00,0.52
7470.00,0.52
7468.00,0.52
7466.00,0.52
7464.00,0.52
7462.00,0.52
7460.00,0.52
7458.00,0.52
7456.00,0.52
7454.00,0.52
7452.00,0.53
7450.00,0.53
7448.00,0.53
7446.00,0.53
7444.00,0.53
7442.00,0.53
7440.00,0.53
7438.00,0.53
7436.00,0.53
7434.00,0.53
7432.00,0.53
7430.00,0.53
7428.00,0.53
7426.00,0.53
7424.00,0.53
7422.00,0.53
7420.00,0.53
7418.00,0.53
7416.00,0.53
7414.00,0.53
7412.00,0.53
7410.00,0.53
7408.00,0.53
7406.00,0.53
7404.00,0.53
7402.00,0.53
7400.00,0.52
7398.00,0.52
7396.00,0.52
7394.00,0.52
7392.00,0.52
7390.00,0.52
7388.00,0.52
7386.00,0.52
7384.00,0.52
7382.00,0.52
7380.00,0.52
7378.00,0.52
7376.00,0.52
7374.00,0.52
7372.00,0.52
7370.00,0.51
7368.00,0.51
7366.00,0.51
7364.00,0.51
7362.00,0.51
7360.00,0.51
7358.00,0.51
7356.00,0.51
7354.00,0.51
7352.00,0.51
7350.00,0.51
7348.00,0.51
7346.00,0.51
7344.00,0.51
7342.00,0.51
7340.00,0.51
7338.00,0.51
7336.00,0.51
7334.00,0.51
7332.00,0.51
7330.00,0.51
7328.00,0.51
7326.00,0.51
7324.00,0.51
7322.00,0.51
7320.00,0.51
7318.00,0.51
7316.00,0.51
7314.00,0.51
7312.00,0.52
7310.00,0.52
7308.00,0.52
7306.00,0.52
7304.00,0.52
7302.00,0.52
7300.00,0.52
7298.00,0.52
7296.00,0.52
7294.00,0.52
7292.00,0.52
7290.00,0.52
7288.00,0.52
7286.00,0.52
7284.00,0.51
7282.00,0.51
7280.00,0.51
7278.00,0.51
7276.00,0.51
7274.00,0.51
7272.00,0.51
7270.00,0.51
7268.00,0.51
7266.00,0.51
7264.00,0.51
7262.00,0.51
7260.00,0.51
7258.00,0.51
7256.00,0.51
7254.00,0.51
7252.00,0.51
7250.00,0.51
7248.00,0.51
7246.00,0.51
7244.00,0.51
7242.00,0.51
7240.00,0.51
7238.00,0.51
7236.00,0.51
7234.00,0.51
7232.00,0.51
7230.00,0.51
7228.00,0.51
7226.00,0.51
7224.00,0.51
7222.00,0.51
7220.00,0.51
7218.00,0.51
7216.00,0.51
7214.00,0.51
7212.00,0.51
7210.00,0.51
7208.00,0.51
7206.00,0.51
7204.00,0.51
7202.00,0.51
7200.00,0.50
7198.00,0.50
7196.00,0.50
7194.00,0.50
7192.00,0.50
7190.00,0.50
7188.00,0.50
7186.00,0.50
7184.00,0.50
7182.00,0.50
7180.00,0.50
7178.00,0.49
7176.00,0.49
7174.00,0.49
7172.00,0.49
7170.00,0.49
7168.00,0.49
7166.00,0.49
7164.00,0.49
7162.00,0.49
7160.00,0.49
7158.00,0.49
7156.00,0.49
7154.00,0.49
7152.00,0.49
7150.00,0.49
7148.00,0.49
7146.00,0.49
7144.00,0.49
7142.00,0.49
7140.00,0.49
7138.00,0.49
7136.00,0.49
7134.00,0.49
7132.00,0.49
7130.00,0.49
7128.00,0.49
7126.00,0.49
7124.00,0.49
7122.00,0.49
7120.00,0.49
7118.00,0.49
7116.00,0.49
7114.00,0.49
7112.00,0.49
7110.00,0.49
7108.00,0.49
7106.00,0.49
7104.00,0.49
7102.00,0.49
7100.00,0.49
7098.00,0.49
7096.00,0.49
7094.00,0.49
7092.00,0.49
7090.00,0.49
7088.00,0.49
7086.00,0.48
7084.00,0.48
7082.00,0.48
7080.00,0.48
7078.00,0.48
7076.00,0.48
7074.00,0.48
7072.00,0.48
7070.00,0.48
7068.00,0.48
7066.00,0.48
7064.00,0.48
7062.00,0.48
7060.00,0.48
7058.00,0.48
7056.00,0.48
7054.00,0.48
7052.00,0.48
7050.00,0.48
7048.00,0.48
7046.00,0.48
7044.00,0.48
7042.00,0.48
7040.00,0.48
7038.00,0.48
7036.00,0.48
7034.00,0.48
7032.00,0.48
7030.00,0.48
7028.00,0.48
7026.00,0.48
7024.00,0.48
7022.00,0.48
7020.00,0.48
7018.00,0.48
7016.00,0.48
7014.00,0.48
7012.00,0.48
7010.00,0.48
7008.00,0.48
7006.00,0.48
7004.00,0.48
7002.00,0.48
7000.00,0.48
6998.00,0.48
6996.00,0.48
6994.00,0.48
6992.00,0.48
6990.00,0.48
6988.00,0.48
6986.00,0.48
6984.00,0.48
6982.00,0.48
6980.00,0.48
6978.00,0.48
6976.00,0.48
6974.00,0.48
6972.00,0.48
6970.00,0.48
6968.00,0.48
6966.00,0.48
6964.00,0.48
6962.00,0.48
6960.00,0.48
6958.00,0.48
6956.00,0.48
6954.00,0.48
6952.00,0.48
6950.00,0.48
6948.00,0.48
6946.00,0.48
6944.00,0.48
6942.00,0.48
6940.00,0.48
6938.00,0.48
6936.00,0.48
6934.00,0.48
6932.00,0.48
6930.00,0.48
6928.00,0.48
6926.00,0.48
6924.00,0.48
6922.00,0.48
6920.00,0.48
6918.00,0.48
6916.00,0.48
6914.00,0.48
6912.00,0.48
6910.00,0.48
6908.00,0.48
6906.00,0.48
6904.00,0.48
6902.00,0.48
6900.00,0.48
6898.00,0.48
6896.00,0.48
6894.00,0.48
6892.00,0.48
6890.00,0.48
6888.00,0.48
6886.00,0.48
6884.00,0.48
6882.00,0.48
6880.00,0.48
6878.00,0.48
6876.00,0.48
6874.00,0.48
6872.00,0.48
6870.00,0.48
6868.00,0.48
6866.00,0.48
6864.00,0.48
6862.00,0.48
6860.00,0.48
6858.00,0.48
6856.00,0.48
6854.00,0.48
6852.00,0.48
6850.00,0.48
6848.00,0.48
6846.00,0.48
6844.00,0.48
6842.00,0.48
6840.00,0.48
6838.00,0.48
6836.00,0.48
6834.00,0.48
6832.00,0.48
6830.00,0.48
6828.00,0.48
6826.00,0.48
6824.00,0.48
6822.00,0.48
6820.00,0.48
6818.00,0.48
6816.00,0.48
6814.00,0.48
6812.00,0.48
6810.00,0.48
6808.00,0.48
6806.00,0.48
6804.00,0.48
6802.00,0.48
6800.00,0.48
6798.00,0.48
6796.00,0.48
6794.00,0.48
6792.00,0.49
6790.00,0.49
6788.00,0.49
6786.00,0.49
6784.00,0.49
6782.00,0.49
6780.00,0.49
6778.00,0.49
6776.00,0.49
6774.00,0.49
6772.00,0.49
6770.00,0.49
6768.00,0.49
6766.00,0.49
6764.00,0.49
6762.00,0.49
6760.00,0.49
6758.00,0.49
6756.00,0.49
6754.00,0.49
6752.00,0.49
6750.00,0.49
6748.00,0.49
6746.00,0.49
6744.00,0.49
6742.00,0.49
6740.00,0.49
6738.00,0.49
6736.00,0.49
6734.00,0.49
6732.00,0.49
6730.00,0.49
6728.00,0.49
6726.00,0.49
6724.00,0.49
6722.00,0.49
6720.00,0.49
6718.00,0.49
6716.00,0.49
6714.00,0.49
6712.00,0.49
6710.00,0.49
6708.00,0.49
6706.00,0.49
6704.00,0.49
6702.00,0.49
6700.00,0.49
6698.00,0.49
6696.00,0.49
6694.00,0.49
6692.00,0.49
6690.00,0.49
6688.00,0.49
6686.00,0.49
6684.00,0.49
6682.00,0.49
6680.00,0.49
6678.00,0.49
6676.00,0.49
6674.00,0.49
6672.00,0.49
6670.00,0.49
6668.00,0.49
6666.00,0.49
6664.00,0.49
6662.00,0.49
6660.00,0.49
6658.00,0.49
6656.00,0.49
6654.00,0.49
6652.00,0.49
6650.00,0.49
6648.00,0.49
6646.00,0.49
6644.00,0.49
6642.00,0.49
6640.00,0.49
6638.00,0.50
6636.00,0.50
6634.00,0.50
6632.00,0.50
6630.00,0.50
6628.00,0.50
6626.00,0.50
6624.00,0.50
6622.00,0.50
6620.00,0.50
6618.00,0.50
6616.00,0.50
6614.00,0.50
6612.00,0.50
6610.00,0.50
6608.00,0.50
6606.00,0.50
6604.00,0.50
6602.00,0.50
6600.00,0.50
6598.00,0.50
6596.00,0.50
6594.00,0.50
6592.00,0.50
6590.00,0.51
6588.00,0.51
6586.00,0.51
6584.00,0.51
6582.00,0.51
6580.00,0.51
6578.00,0.51
6576.00,0.51
6574.00,0.51
6572.00,0.51
6570.00,0.51
6568.00,0.51
6566.00,0.51
6564.00,0.51
6562.00,0.51
6560.00,0.51
6558.00,0.51
6556.00,0.51
6554.00,0.51
6552.00,0.51
6550.00,0.51
6548.00,0.50
6546.00,0.50
6544.00,0.50
6542.00,0.50
6540.00,0.51
6538.00,0.51
6536.00,0.51
6534.00,0.51
6532.00,0.51
6530.00,0.51
6528.00,0.51
6526.00,0.51
6524.00,0.51
6522.00,0.51
6520.00,0.51
6518.00,0.51
6516.00,0.51
6514.00,0.51
6512.00,0.51
6510.00,0.51
6508.00,0.51
6506.00,0.51
6504.00,0.51
6502.00,0.51
6500.00,0.51
6498.00,0.51
6496.00,0.51
6494.00,0.51
6492.00,0.51
6490.00,0.51
6488.00,0.51
6486.00,0.51
6484.00,0.51
6482.00,0.51
6480.00,0.51
6478.00,0.51
6476.00,0.51
6474.00,0.51
6472.00,0.51
6470.00,0.51
6468.00,0.51
6466.00,0.51
6464.00,0.51
6462.00,0.51
6460.00,0.51
6458.00,0.51
6456.00,0.51
6454.00,0.51
6452.00,0.51
6450.00,0.51
6448.00,0.52
6446.00,0.52
6444.00,0.52
6442.00,0.52
6440.00,0.52
6438.00,0.52
6436.00,0.52
6434.00,0.52
6432.00,0.52
6430.00,0.52
6428.00,0.52
6426.00,0.52
6424.00,0.52
6422.00,0.52
6420.00,0.52
6418.00,0.52
6416.00,0.52
6414.00,0.52
6412.00,0.52
6410.00,0.52
6408.00,0.52
6406.00,0.52
6404.00,0.52
6402.00,0.52
6400.00,0.52
6398.00,0.52
6396.00,0.52
6394.00,0.52
6392.00,0.52
6390.00,0.52
6388.00,0.52
6386.00,0.52
6384.00,0.52
6382.00,0.52
6380.00,0.52
6378.00,0.52
6376.00,0.52
6374.00,0.52
6372.00,0.52
6370.00,0.52
6368.00,0.52
6366.00,0.52
6364.00,0.52
6362.00,0.52
6360.00,0.52
6358.00,0.52
6356.00,0.52
6354.00,0.52
6352.00,0.52
6350.00,0.52
6348.00,0.52
6346.00,0.52
6344.00,0.52
6342.00,0.52
6340.00,0.52
6338.00,0.52
6336.00,0.52
6334.00,0.52
6332.00,0.52
6330.00,0.52
6328.00,0.52
6326.00,0.52
6324.00,0.52
6322.00,0.52
6320.00,0.52
6318.00,0.52
6316.00,0.52
6314.00,0.52
6312.00,0.52
6310.00,0.52
6308.00,0.52
6306.00,0.52
6304.00,0.52
6302.00,0.52
6300.00,0.52
6298.00,0.52
6296.00,0.52
6294.00,0.52
6292.00,0.52
6290.00,0.52
6288.00,0.52
6286.00,0.52
6284.00,0.52
6282.00,0.52
6280.00,0.52
6278.00,0.52
6276.00,0.52
6274.00,0.52
6272.00,0.52
6270.00,0.52
6268.00,0.52
6266.00,0.52
6264.00,0.52
6262.00,0.52
6260.00,0.52
6258.00,0.52
6256.00,0.52
6254.00,0.52
6252.00,0.52
6250.00,0.52
6248.00,0.53
6246.00,0.53
6244.00,0.53
6242.00,0.53
6240.00,0.53
6238.00,0.53
6236.00,0.53
6234.00,0.53
6232.00,0.53
6230.00,0.53
6228.00,0.53
6226.00,0.53
6224.00,0.53
6222.00,0.53
6220.00,0.53
6218.00,0.53
6216.00,0.53
6214.00,0.53
6212.00,0.53
6210.00,0.53
6208.00,0.53
6206.00,0.53
6204.00,0.53
6202.00,0.53
6200.00,0.53
6198.00,0.53
6196.00,0.53
6194.00,0.53
6192.00,0.53
6190.00,0.53
6188.00,0.53
6186.00,0.53
6184.00,0.53
6182.00,0.53
6180.00,0.53
6178.00,0.53
6176.00,0.53
6174.00,0.53
6172.00,0.53
6170.00,0.53
6168.00,0.53
6166.00,0.53
6164.00,0.53
6162.00,0.53
6160.00,0.53
6158.00,0.53
6156.00,0.53
6154.00,0.53
6152.00,0.53
6150.00,0.53
6148.00,0.53
6146.00,0.53
6144.00,0.53
6142.00,0.53
6140.00,0.53
6138.00,0.53
6136.00,0.53
6134.00,0.53
6132.00,0.53
6130.00,0.53
6128.00,0.54
6126.00,0.54
6124.00,0.54
6122.00,0.54
6120.00,0.54
6118.00,0.54
6116.00,0.54
6114.00,0.54
6112.00,0.54
6110.00,0.54
6108.00,0.54
6106.00,0.54
6104.00,0.54
6102.00,0.54
6100.00,0.54
6098.00,0.54
6096.00,0.54
6094.00,0.54
6092.00,0.54
6090.00,0.54
6088.00,0.54
6086.00,0.54
6084.00,0.54
6082.00,0.54
6080.00,0.54
6078.00,0.54
6076.00,0.54
6074.00,0.54
6072.00,0.54
6070.00,0.54
6068.00,0.54
6066.00,0.54
6064.00,0.54
6062.00,0.54
6060.00,0.54
6058.00,0.54
6056.00,0.54
6054.00,0.54
6052.00,0.54
6050.00,0.54
6048.00,0.54
6046.00,0.54
6044.00,0.54
6042.00,0.54
6040.00,0.54
6038.00,0.54
6036.00,0.54
6034.00,0.54
6032.00,0.54
6030.00,0.54
6028.00,0.54
6026.00,0.54
6024.00,0.54
6022.00,0.54
6020.00,0.54
6018.00,0.54
6016.00,0.54
6014.00,0.54
6012.00,0.54
6010.00,0.54
6008.00,0.54
6006.00,0.54
6004.00,0.54
6002.00,0.54
6000.00,0.54
5998.00,0.54
5996.00,0.54
5994.00,0.54
5992.00,0.54
5990.00,0.54
5988.00,0.54
5986.00,0.54
5984.00,0.54
5982.00,0.54
5980.00,0.54
5978.00,0.54
5976.00,0.54
5974.00,0.54
5972.00,0.54
5970.00,0.54
5968.00,0.54
5966.00,0.54
5964.00,0.54
5962.00,0.54
5960.00,0.54
5958.00,0.54
5956.00,0.54
5954.00,0.54
5952.00,0.54
5950.00,0.53
5948.00,0.53
5946.00,0.53
5944.00,0.53
5942.00,0.53
5940.00,0.53
5938.00,0.53
5936.00,0.53
5934.00,0.53
5932.00,0.53
5930.00,0.53
5928.00,0.53
5926.00,0.53
5924.00,0.53
5922.00,0.53
5920.00,0.53
5918.00,0.53
5916.00,0.53
5914.00,0.53
5912.00,0.53
5910.00,0.53
5908.00,0.53
5906.00,0.53
5904.00,0.53
5902.00,0.53
5900.00,0.53
5898.00,0.53
5896.00,0.53
5894.00,0.53
5892.00,0.53
5890.00,0.53
5888.00,0.53
5886.00,0.53
5884.00,0.53
5882.00,0.53
5880.00,0.53
5878.00,0.53
5876.00,0.53
5874.00,0.54
5872.00,0.54
5870.00,0.54
5868.00,0.54
5866.00,0.54
5864.00,0.54
5862.00,0.54
5860.00,0.54
5858.00,0.54
5856.00,0.54
5854.00,0.54
5852.00,0.54
5850.00,0.54
5848.00,0.54
5846.00,0.54
5844.00,0.54
5842.00,0.54
5840.00,0.54
5838.00,0.54
5836.00,0.54
5834.00,0.54
5832.00,0.54
5830.00,0.54
5828.00,0.54
5826.00,0.54
5824.00,0.54
5822.00,0.54
5820.00,0.54
5818.00,0.54
5816.00,0.54
5814.00,0.54
5812.00,0.54
5810.00,0.54
5808.00,0.54
5806.00,0.54
5804.00,0.54
5802.00,0.54
5800.00,0.54
5798.00,0.54
5796.00,0.54
5794.00,0.54
5792.00,0.54
5790.00,0.54
5788.00,0.54
5786.00,0.54
5784.00,0.54
5782.00,0.54
5780.00,0.54
5778.00,0.54
5776.00,0.54
5774.00,0.54
5772.00,0.54
5770.00,0.54
5768.00,0.54
5766.00,0.54
5764.00,0.54
5762.00,0.54
5760.00,0.54
5758.00,0.54
5756.00,0.54
5754.00,0.54
5752.00,0.54
5750.00,0.54
5748.00,0.54
5746.00,0.54
5744.00,0.54
5742.00,0.54
5740.00,0.54
5738.00,0.54
5736.00,0.54
5734.00,0.54
5732.00,0.54
5730.00,0.54
5728.00,0.54
5726.00,0.54
5724.00,0.54
5722.00,0.54
5720.00,0.54
5718.00,0.54
5716.00,0.54
5714.00,0.54
5712.00,0.54
5710.00,0.54
5708.00,0.54
5706.00,0.54
5704.00,0.54
5702.00,0.54
5700.00,0.54
5698.00,0.54
5696.00,0.54
5694.00,0.54
5692.00,0.54
5690.00,0.54
5688.00,0.54
5686.00,0.54
5684.00,0.54
5682.00,0.54
5680.00,0.54
5678.00,0.54
5676.00,0.54
5674.00,0.54
5672.00,0.54
5670.00,0.54
5668.00,0.54
5666.00,0.54
5664.00,0.54
5662.00,0.54
5660.00,0.54
5658.00,0.54
5656.00,0.54
5654.00,0.54
5652.00,0.54
5650.00,0.54
5648.00,0.54
5646.00,0.54
5644.00,0.54
5642.00,0.54
5640.00,0.54
5638.00,0.54
5636.00,0.54
5634.00,0.54
5632.00,0.54
5630.00,0.54
5628.00,0.54
5626.00,0.54
5624.00,0.54
5622.00,0.54
5620.00,0.54
5618.00,0.54
5616.00,0.54
5614.00,0.54
5612.00,0.54
5610.00,0.54
5608.00,0.54
5606.00,0.54
5604.00,0.54
5602.00,0.54
5600.00,0.54
5598.00,0.54
5596.00,0.54
5594.00,0.54
5592.00,0.54
5590.00,0.54
5588.00,0.54
5586.00,0.54
5584.00,0.54
5582.00,0.54
5580.00,0.54
5578.00,0.54
5576.00,0.54
5574.00,0.54
5572.00,0.54
5570.00,0.54
5568.00,0.54
5566.00,0.54
5564.00,0.54
5562.00,0.54
5560.00,0.54
5558.00,0.54
5556.00,0.54
5554.00,0.54
5552.00,0.54
5550.00,0.54
5548.00,0.54
5546.00,0.54
5544.00,0.54
5542.00,0.54
5540.00,0.54
5538.00,0.54
5536.00,0.54
5534.00,0.54
5532.00,0.54
5530.00,0.54
5528.00,0.54
5526.00,0.54
5524.00,0.54
5522.00,0.54
5520.00,0.54
5518.00,0.54
5516.00,0.54
5514.00,0.54
5512.00,0.54
5510.00,0.54
5508.00,0.54
5506.00,0.54
5504.00,0.54
5502.00,0.54
5500.00,0.54
5498.00,0.54
5496.00,0.54
5494.00,0.54
5492.00,0.54
5490.00,0.54
5488.00,0.54
5486.00,0.54
5484.00,0.54
5482.00,0.54
5480.00,0.54
5478.00,0.54
5476.00,0.54
5474.00,0.54
5472.00,0.54
5470.00,0.54
5468.00,0.54
5466.00,0.54
5464.00,0.54
5462.00,0.54
5460.00,0.54
5458.00,0.54
5456.00,0.54
5454.00,0.54
5452.00,0.54
5450.00,0.54
5448.00,0.54
5446.00,0.54
5444.00,0.54
5442.00,0.54
5440.00,0.54
5438.00,0.54
5436.00,0.54
5434.00,0.54
5432.00,0.54
5430.00,0.54
5428.00,0.54
5426.00,0.54
5424.00,0.54
5422.00,0.54
5420.00,0.54
5418.00,0.54
5416.00,0.54
5414.00,0.54
5412.00,0.54
5410.00,0.54
5408.00,0.54
5406.00,0.54
5404.00,0.54
5402.00,0.54
5400.00,0.54
5398.00,0.54
5396.00,0.54
5394.00,0.54
5392.00,0.54
5390.00,0.53
5388.00,0.53
5386.00,0.53
5384.00,0.53
5382.00,0.53
5380.00,0.53
5378.00,0.53
5376.00,0.53
5374.00,0.53
5372.00,0.53
5370.00,0.53
5368.00,0.53
5366.00,0.53
5364.00,0.53
5362.00,0.53
5360.00,0.53
5358.00,0.52
5356.00,0.52
5354.00,0.52
5352.00,0.52
5350.00,0.52
5348.00,0.52
5346.00,0.52
5344.00,0.52
5342.00,0.52
5340.00,0.52
5338.00,0.51
5336.00,0.51
5334.00,0.51
5332.00,0.51
5330.00,0.51
5328.00,0.51
5326.00,0.51
5324.00,0.51
5322.00,0.51
5320.00,0.51
5318.00,0.50
5316.00,0.50
5314.00,0.50
5312.00,0.50
5310.00,0.50
5308.00,0.50
5306.00,0.50
5304.00,0.49
5302.00,0.49
5300.00,0.49
5298.00,0.49
5296.00,0.49
5294.00,0.49
5292.00,0.48
5290.00,0.48
5288.00,0.48
5286.00,0.48
5284.00,0.48
5282.00,0.47
5280.00,0.47
5278.00,0.47
5276.00,0.47
5274.00,0.47
5272.00,0.46
5270.00,0.46
5268.00,0.46
5266.00,0.46
5264.00,0.46
5262.00,0.46
5260.00,0.45
5258.00,0.45
5256.00,0.45
5254.00,0.45
5252.00,0.45
5250.00,0.45
5248.00,0.45
5246.00,0.45
5244.00,0.44
5242.00,0.44
5240.00,0.44
5238.00,0.44
5236.00,0.44
5234.00,0.44
5232.00,0.44
5230.00,0.44
5228.00,0.44
5226.00,0.44
5224.00,0.44
5222.00,0.44
5220.00,0.44
5218.00,0.44
5216.00,0.44
5214.00,0.44
5212.00,0.44
5210.00,0.44
5208.00,0.44
5206.00,0.44
5204.00,0.44
5202.00,0.44
5200.00,0.44
5198.00,0.44
5196.00,0.44
5194.00,0.44
5192.00,0.44
5190.00,0.43
5188.00,0.43
5186.00,0.43
5184.00,0.43
5182.00,0.43
5180.00,0.43
5178.00,0.43
5176.00,0.43
5174.00,0.43
5172.00,0.43
5170.00,0.43
5168.00,0.43
5166.00,0.43
5164.00,0.43
5162.00,0.43
5160.00,0.43
5158.00,0.43
5156.00,0.44
5154.00,0.44
5152.00,0.44
5150.00,0.44
5148.00,0.44
5146.00,0.44
5144.00,0.44
5142.00,0.44
5140.00,0.44
5138.00,0.44
5136.00,0.44
5134.00,0.44
5132.00,0.44
5130.00,0.44
5128.00,0.44
5126.00,0.44
5124.00,0.44
5122.00,0.44
5120.00,0.45
5118.00,0.45
5116.00,0.45
5114.00,0.45
5112.00,0.45
5110.00,0.45
5108.00,0.45
5106.00,0.45
5104.00,0.45
5102.00,0.45
5100.00,0.45
5098.00,0.45
5096.00,0.45
5094.00,0.45
5092.00,0.45
5090.00,0.45
5088.00,0.46
5086.00,0.46
5084.00,0.46
5082.00,0.46
5080.00,0.46
5078.00,0.46
5076.00,0.46
5074.00,0.46
5072.00,0.46
5070.00,0.46
5068.00,0.46
5066.00,0.46
5064.00,0.46
5062.00,0.46
5060.00,0.46
5058.00,0.46
5056.00,0.47
5054.00,0.47
5052.00,0.47
5050.00,0.47
5048.00,0.47
5046.00,0.47
5044.00,0.47
5042.00,0.47
5040.00,0.47
5038.00,0.47
5036.00,0.47
5034.00,0.47
5032.00,0.47
5030.00,0.47
5028.00,0.48
5026.00,0.48
5024.00,0.48
5022.00,0.48
5020.00,0.48
5018.00,0.48
5016.00,0.48
5014.00,0.48
5012.00,0.48
5010.00,0.48
5008.00,0.48
5006.00,0.48
5004.00,0.48
5002.00,0.48
5000.00,0.49
4998.00,0.49
4996.00,0.49
4994.00,0.49
4992.00,0.49
4990.00,0.49
4988.00,0.49
4986.00,0.49
4984.00,0.49
4982.00,0.49
4980.00,0.49
4978.00,0.49
4976.00,0.49
4974.00,0.49
4972.00,0.49
4970.00,0.49
4968.00,0.49
4966.00,0.49
4964.00,0.49
4962.00,0.49
4960.00,0.50
4958.00,0.50
4956.00,0.50
4954.00,0.50
4952.00,0.50
4950.00,0.50
4948.00,0.50
4946.00,0.50
4944.00,0.50
4942.00,0.50
4940.00,0.50
4938.00,0.50
4936.00,0.50
4934.00,0.50
4932.00,0.50
4930.00,0.50
4928.00,0.50
4926.00,0.50
4924.00,0.50
4922.00,0.50
4920.00,0.50
4918.00,0.50
4916.00,0.50
4914.00,0.51
4912.00,0.51
4910.00,0.51
4908.00,0.51
4906.00,0.51
4904.00,0.51
4902.00,0.51
4900.00,0.51
4898.00,0.51
4896.00,0.51
4894.00,0.51
4892.00,0.51
4890.00,0.51
4888.00,0.51
4886.00,0.51
4884.00,0.51
4882.00,0.51
4880.00,0.51
4878.00,0.51
4876.00,0.51
4874.00,0.51
4872.00,0.51
4870.00,0.51
4868.00,0.51
4866.00,0.52
4864.00,0.52
4862.00,0.52
4860.00,0.52
4858.00,0.52
4856.00,0.52
4854.00,0.52
4852.00,0.52
4850.00,0.52
4848.00,0.52
4846.00,0.52
4844.00,0.52
4842.00,0.52
4840.00,0.52
4838.00,0.52
4836.00,0.52
4834.00,0.52
4832.00,0.52
4830.00,0.52
4828.00,0.52
4826.00,0.52
4824.00,0.52
4822.00,0.52
4820.00,0.52
4818.00,0.52
4816.00,0.52
4814.00,0.52
4812.00,0.52
4810.00,0.52
4808.00,0.52
4806.00,0.52
4804.00,0.52
4802.00,0.52
4800.00,0.52
4798.00,0.52
4796.00,0.52
4794.00,0.52
4792.00,0.52
4790.00,0.52
4788.00,0.53
4786.00,0.53
4784.00,0.53
4782.00,0.53
4780.00,0.53
4778.00,0.53
4776.00,0.53
4774.00,0.53
4772.00,0.53
4770.00,0.53
4768.00,0.53
4766.00,0.53
4764.00,0.53
4762.00,0.53
4760.00,0.53
4758.00,0.53
4756.00,0.53
4754.00,0.53
4752.00,0.53
4750.00,0.53
4748.00,0.53
4746.00,0.53
4744.00,0.53
4742.00,0.53
4740.00,0.53
4738.00,0.53
4736.00,0.53
4734.00,0.53
4732.00,0.53
4730.00,0.53
4728.00,0.53
4726.00,0.53
4724.00,0.53
4722.00,0.53
4720.00,0.53
4718.00,0.53
4716.00,0.53
4714.00,0.53
4712.00,0.53
4710.00,0.53
4708.00,0.53
4706.00,0.54
4704.00,0.54
4702.00,0.54
4700.00,0.54
4698.00,0.54
4696.00,0.54
4694.00,0.54
4692.00,0.54
4690.00,0.54
4688.00,0.54
4686.00,0.54
4684.00,0.54
4682.00,0.54
4680.00,0.54
4678.00,0.54
4676.00,0.54
4674.00,0.54
4672.00,0.54
4670.00,0.54
4668.00,0.54
4666.00,0.54
4664.00,0.54
4662.00,0.54
4660.00,0.54
4658.00,0.54
4656.00,0.54
4654.00,0.54
4652.00,0.54
4650.00,0.54
4648.00,0.54
4646.00,0.54
4644.00,0.54
4642.00,0.54
4640.00,0.54
4638.00,0.54
4636.00,0.54
4634.00,0.54
4632.00,0.54
4630.00,0.54
4628.00,0.54
4626.00,0.54
4624.00,0.54
4622.00,0.54
4620.00,0.54
4618.00,0.54
4616.00,0.54
4614.00,0.54
4612.00,0.54
4610.00,0.54
4608.00,0.54
4606.00,0.54
4604.00,0.54
4602.00,0.54
4600.00,0.54
4598.00,0.54
4596.00,0.54
4594.00,0.54
4592.00,0.54
4590.00,0.54
4588.00,0.54
4586.00,0.54
4584.00,0.54
4582.00,0.54
4580.00,0.54
4578.00,0.54
4576.00,0.54
4574.00,0.54
4572.00,0.54
4570.00,0.54
4568.00,0.54
4566.00,0.54
4564.00,0.54
4562.00,0.54
4560.00,0.54
4558.00,0.54
4556.00,0.54
4554.00,0.54
4552.00,0.54
4550.00,0.54
4548.00,0.54
4546.00,0.54
4544.00,0.54
4542.00,0.54
4540.00,0.54
4538.00,0.54
4536.00,0.54
4534.00,0.54
4532.00,0.54
4530.00,0.54
4528.00,0.54
4526.00,0.53
4524.00,0.53
4522.00,0.54
4520.00,0.54
4518.00,0.54
4516.00,0.54
4514.00,0.54
4512.00,0.54
4510.00,0.54
4508.00,0.54
4506.00,0.54
4504.00,0.54
4502.00,0.54
4500.00,0.54
4498.00,0.54
4496.00,0.54
4494.00,0.54
4492.00,0.54
4490.00,0.54
4488.00,0.54
4486.00,0.54
4484.00,0.54
4482.00,0.54
4480.00,0.54
4478.00,0.54
4476.00,0.54
4474.00,0.54
4472.00,0.54
4470.00,0.54
4468.00,0.54
4466.00,0.54
4464.00,0.54
4462.00,0.54
4460.00,0.54
4458.00,0.54
4456.00,0.54
4454.00,0.54
4452.00,0.54
4450.00,0.54
4448.00,0.53
4446.00,0.53
4444.00,0.53
4442.00,0.53
4440.00,0.53
4438.00,0.53
4436.00,0.53
4434.00,0.53
4432.00,0.53
4430.00,0.53
4428.00,0.53
4426.00,0.53
4424.00,0.53
4422.00,0.53
4420.00,0.53
4418.00,0.52
4416.00,0.52
4414.00,0.52
4412.00,0.52
4410.00,0.52
4408.00,0.52
4406.00,0.52
4404.00,0.52
4402.00,0.53
4400.00,0.53
4398.00,0.53
4396.00,0.53
4394.00,0.53
4392.00,0.53
4390.00,0.53
4388.00,0.53
4386.00,0.53
4384.00,0.53
4382.00,0.53
4380.00,0.53
4378.00,0.53
4376.00,0.53
4374.00,0.53
4372.00,0.53
4370.00,0.53
4368.00,0.53
4366.00,0.53
4364.00,0.53
4362.00,0.53
4360.00,0.53
4358.00,0.53
4356.00,0.53
4354.00,0.53
4352.00,0.53
4350.00,0.53
4348.00,0.53
4346.00,0.53
4344.00,0.53
4342.00,0.53
4340.00,0.53
4338.00,0.53
4336.00,0.53
4334.00,0.53
4332.00,0.53
4330.00,0.53
4328.00,0.53
4326.00,0.53
4324.00,0.53
4322.00,0.53
4320.00,0.53
4318.00,0.53
4316.00,0.53
4314.00,0.54
4312.00,0.54
4310.00,0.54
4308.00,0.54
4306.00,0.54
4304.00,0.54
4302.00,0.54
4300.00,0.54
4298.00,0.54
4296.00,0.54
4294.00,0.54
4292.00,0.54
4290.00,0.54
4288.00,0.54
4286.00,0.54
4284.00,0.54
4282.00,0.54
4280.00,0.54
4278.00,0.54
4276.00,0.54
4274.00,0.54
4272.00,0.54
4270.00,0.54
4268.00,0.54
4266.00,0.53
4264.00,0.53
4262.00,0.53
4260.00,0.53
4258.00,0.53
4256.00,0.53
4254.00,0.53
4252.00,0.53
4250.00,0.53
4248.00,0.53
4246.00,0.53
4244.00,0.53
4242.00,0.53
4240.00,0.53
4238.00,0.53
4236.00,0.53
4234.00,0.53
4232.00,0.53
4230.00,0.54
4228.00,0.54
4226.00,0.54
4224.00,0.54
4222.00,0.54
4220.00,0.54
4218.00,0.54
4216.00,0.54
4214.00,0.54
4212.00,0.54
4210.00,0.54
4208.00,0.54
4206.00,0.54
4204.00,0.54
4202.00,0.54
4200.00,0.54
4198.00,0.54
4196.00,0.54
4194.00,0.54
4192.00,0.54
4190.00,0.54
4188.00,0.54
4186.00,0.54
4184.00,0.54
4182.00,0.54
4180.00,0.54
4178.00,0.54
4176.00,0.54
4174.00,0.54
4172.00,0.54
4170.00,0.54
4168.00,0.54
4166.00,0.54
4164.00,0.54
4162.00,0.54
4160.00,0.53
4158.00,0.53
4156.00,0.53
4154.00,0.53
4152.00,0.53
4150.00,0.53
4148.00,0.53
4146.00,0.53
4144.00,0.53
4142.00,0.53
4140.00,0.53
4138.00,0.53
4136.00,0.53
4134.00,0.53
4132.00,0.54
4130.00,0.54
4128.00,0.54
4126.00,0.54
4124.00,0.54
4122.00,0.54
4120.00,0.54
4118.00,0.54
4116.00,0.54
4114.00,0.54
4112.00,0.54
4110.00,0.54
4108.00,0.54
4106.00,0.54
4104.00,0.54
4102.00,0.54
4100.00,0.54
4098.00,0.54
4096.00,0.54
4094.00,0.54
4092.00,0.54
4090.00,0.54
4088.00,0.54
4086.00,0.54
4084.00,0.53
4082.00,0.53
4080.00,0.53
4078.00,0.53
4076.00,0.53
4074.00,0.53
4072.00,0.53
4070.00,0.53
4068.00,0.53
4066.00,0.53
4064.00,0.53
4062.00,0.53
4060.00,0.53
4058.00,0.54
4056.00,0.54
4054.00,0.54
4052.00,0.54
4050.00,0.54
4048.00,0.54
4046.00,0.54
4044.00,0.54
4042.00,0.54
4040.00,0.54
4038.00,0.54
4036.00,0.54
4034.00,0.54
4032.00,0.54
4030.00,0.54
4028.00,0.54
4026.00,0.54
4024.00,0.54
4022.00,0.54
4020.00,0.54
4018.00,0.54
4016.00,0.54
4014.00,0.54
4012.00,0.54
4010.00,0.54
4008.00,0.54
4006.00,0.54
4004.00,0.54
4002.00,0.54
4000.00,0.54
