创建为新数据集,样品 123 用户 Administrator 日期 星期五, 七月 26 2019
cm-1,%T
10000.00,1.38
9999.00,1.37
9998.00,1.36
9997.00,1.35
9996.00,1.34
9995.00,1.33
9994.00,1.33
9993.00,1.32
9992.00,1.31
9991.00,1.31
9990.00,1.30
9989.00,1.30
9988.00,1.30
9987.00,1.29
9986.00,1.29
9985.00,1.29
9984.00,1.29
9983.00,1.29
9982.00,1.29
9981.00,1.29
9980.00,1.29
9979.00,1.29
9978.00,1.29
9977.00,1.29
9976.00,1.30
9975.00,1.30
9974.00,1.30
9973.00,1.30
9972.00,1.30
9971.00,1.30
9970.00,1.30
9969.00,1.30
9968.00,1.30
9967.00,1.30
9966.00,1.30
9965.00,1.29
9964.00,1.29
9963.00,1.28
9962.00,1.28
9961.00,1.27
9960.00,1.26
9959.00,1.25
9958.00,1.24
9957.00,1.24
9956.00,1.23
9955.00,1.22
9954.00,1.21
9953.00,1.20
9952.00,1.20
9951.00,1.19
9950.00,1.18
9949.00,1.18
9948.00,1.17
9947.00,1.17
9946.00,1.16
9945.00,1.16
9944.00,1.16
9943.00,1.16
9942.00,1.16
9941.00,1.16
9940.00,1.16
9939.00,1.16
9938.00,1.16
9937.00,1.16
9936.00,1.16
9935.00,1.17
9934.00,1.17
9933.00,1.17
9932.00,1.17
9931.00,1.18
9930.00,1.18
9929.00,1.18
9928.00,1.18
9927.00,1.19
9926.00,1.19
9925.00,1.19
9924.00,1.19
9923.00,1.19
9922.00,1.19
9921.00,1.19
9920.00,1.19
9919.00,1.19
9918.00,1.19
9917.00,1.19
9916.00,1.18
9915.00,1.18
9914.00,1.18
9913.00,1.17
9912.00,1.17
9911.00,1.16
9910.00,1.16
9909.00,1.16
9908.00,1.15
9907.00,1.15
9906.00,1.15
9905.00,1.14
9904.00,1.14
9903.00,1.14
9902.00,1.13
9901.00,1.13
9900.00,1.12
9899.00,1.12
9898.00,1.11
9897.00,1.11
9896.00,1.10
9895.00,1.10
9894.00,1.09
9893.00,1.09
9892.00,1.08
9891.00,1.08
9890.00,1.07
9889.00,1.07
9888.00,1.06
9887.00,1.06
9886.00,1.05
9885.00,1.05
9884.00,1.04
9883.00,1.04
9882.00,1.03
9881.00,1.03
9880.00,1.03
9879.00,1.02
9878.00,1.02
9877.00,1.02
9876.00,1.01
9875.00,1.01
9874.00,1.01
9873.00,1.01
9872.00,1.00
9871.00,1.00
9870.00,1.00
9869.00,1.00
9868.00,1.00
9867.00,1.00
9866.00,1.00
9865.00,1.00
9864.00,1.00
9863.00,1.00
9862.00,1.00
9861.00,1.01
9860.00,1.01
9859.00,1.01
9858.00,1.02
9857.00,1.02
9856.00,1.03
9855.00,1.03
9854.00,1.04
9853.00,1.04
9852.00,1.05
9851.00,1.05
9850.00,1.06
9849.00,1.07
9848.00,1.07
9847.00,1.08
9846.00,1.08
9845.00,1.09
9844.00,1.10
9843.00,1.10
9842.00,1.11
9841.00,1.11
9840.00,1.12
9839.00,1.13
9838.00,1.13
9837.00,1.14
9836.00,1.14
9835.00,1.14
9834.00,1.15
9833.00,1.15
9832.00,1.15
9831.00,1.15
9830.00,1.15
9829.00,1.15
9828.00,1.15
9827.00,1.15
9826.00,1.14
9825.00,1.14
9824.00,1.14
9823.00,1.13
9822.00,1.13
9821.00,1.13
9820.00,1.13
9819.00,1.13
9818.00,1.13
9817.00,1.13
9816.00,1.13
9815.00,1.13
9814.00,1.13
9813.00,1.13
9812.00,1.13
9811.00,1.13
9810.00,1.13
9809.00,1.13
9808.00,1.14
9807.00,1.14
9806.00,1.14
9805.00,1.15
9804.00,1.15
9803.00,1.15
9802.00,1.16
9801.00,1.17
9800.00,1.17
9799.00,1.18
9798.00,1.18
9797.00,1.19
9796.00,1.19
9795.00,1.20
9794.00,1.20
9793.00,1.20
9792.00,1.20
9791.00,1.21
9790.00,1.21
9789.00,1.21
9788.00,1.21
9787.00,1.21
9786.00,1.22
9785.00,1.22
9784.00,1.22
9783.00,1.22
9782.00,1.22
9781.00,1.23
9780.00,1.23
9779.00,1.23
9778.00,1.23
9777.00,1.23
9776.00,1.22
9775.00,1.22
9774.00,1.22
9773.00,1.22
9772.00,1.21
9771.00,1.21
9770.00,1.21
9769.00,1.20
9768.00,1.20
9767.00,1.20
9766.00,1.20
9765.00,1.20
9764.00,1.19
9763.00,1.19
9762.00,1.19
9761.00,1.18
9760.00,1.18
9759.00,1.18
9758.00,1.17
9757.00,1.17
9756.00,1.16
9755.00,1.16
9754.00,1.15
9753.00,1.15
9752.00,1.15
9751.00,1.14
9750.00,1.14
9749.00,1.14
9748.00,1.13
9747.00,1.13
9746.00,1.13
9745.00,1.13
9744.00,1.13
9743.00,1.12
9742.00,1.12
9741.00,1.12
9740.00,1.12
9739.00,1.12
9738.00,1.12
9737.00,1.12
9736.00,1.11
9735.00,1.11
9734.00,1.11
9733.00,1.11
9732.00,1.11
9731.00,1.11
9730.00,1.12
9729.00,1.12
9728.00,1.12
9727.00,1.12
9726.00,1.12
9725.00,1.12
9724.00,1.13
9723.00,1.13
9722.00,1.13
9721.00,1.13
9720.00,1.14
9719.00,1.14
9718.00,1.14
9717.00,1.15
9716.00,1.15
9715.00,1.16
9714.00,1.16
9713.00,1.16
9712.00,1.17
9711.00,1.17
9710.00,1.17
9709.00,1.17
9708.00,1.18
9707.00,1.18
9706.00,1.18
9705.00,1.18
9704.00,1.18
9703.00,1.18
9702.00,1.18
9701.00,1.18
9700.00,1.18
9699.00,1.18
9698.00,1.18
9697.00,1.17
9696.00,1.17
9695.00,1.17
9694.00,1.16
9693.00,1.16
9692.00,1.15
9691.00,1.15
9690.00,1.14
9689.00,1.14
9688.00,1.13
9687.00,1.13
9686.00,1.12
9685.00,1.12
9684.00,1.11
9683.00,1.10
9682.00,1.10
9681.00,1.09
9680.00,1.08
9679.00,1.08
9678.00,1.07
9677.00,1.07
9676.00,1.06
9675.00,1.06
9674.00,1.06
9673.00,1.06
9672.00,1.05
9671.00,1.05
9670.00,1.05
9669.00,1.06
9668.00,1.06
9667.00,1.06
9666.00,1.06
9665.00,1.06
9664.00,1.06
9663.00,1.07
9662.00,1.07
9661.00,1.07
9660.00,1.08
9659.00,1.08
9658.00,1.09
9657.00,1.09
9656.00,1.10
9655.00,1.11
9654.00,1.12
9653.00,1.13
9652.00,1.14
9651.00,1.14
9650.00,1.15
9649.00,1.16
9648.00,1.16
9647.00,1.17
9646.00,1.17
9645.00,1.18
9644.00,1.18
9643.00,1.18
9642.00,1.18
9641.00,1.18
9640.00,1.18
9639.00,1.19
9638.00,1.19
9637.00,1.19
9636.00,1.19
9635.00,1.19
9634.00,1.19
9633.00,1.19
9632.00,1.19
9631.00,1.18
9630.00,1.18
9629.00,1.18
9628.00,1.17
9627.00,1.17
9626.00,1.17
9625.00,1.16
9624.00,1.16
9623.00,1.16
9622.00,1.15
9621.00,1.15
9620.00,1.15
9619.00,1.15
9618.00,1.15
9617.00,1.15
9616.00,1.15
9615.00,1.15
9614.00,1.15
9613.00,1.15
9612.00,1.15
9611.00,1.16
9610.00,1.16
9609.00,1.16
9608.00,1.16
9607.00,1.16
9606.00,1.16
9605.00,1.16
9604.00,1.16
9603.00,1.17
9602.00,1.17
9601.00,1.17
9600.00,1.17
9599.00,1.17
9598.00,1.17
9597.00,1.17
9596.00,1.17
9595.00,1.17
9594.00,1.17
9593.00,1.17
9592.00,1.16
9591.00,1.16
9590.00,1.16
9589.00,1.16
9588.00,1.15
9587.00,1.15
9586.00,1.15
9585.00,1.14
9584.00,1.14
9583.00,1.13
9582.00,1.13
9581.00,1.13
9580.00,1.13
9579.00,1.12
9578.00,1.12
9577.00,1.12
9576.00,1.12
9575.00,1.12
9574.00,1.12
9573.00,1.12
9572.00,1.12
9571.00,1.12
9570.00,1.12
9569.00,1.12
9568.00,1.12
9567.00,1.12
9566.00,1.12
9565.00,1.12
9564.00,1.13
9563.00,1.13
9562.00,1.14
9561.00,1.14
9560.00,1.15
9559.00,1.16
9558.00,1.16
9557.00,1.17
9556.00,1.17
9555.00,1.18
9554.00,1.18
9553.00,1.19
9552.00,1.19
9551.00,1.19
9550.00,1.19
9549.00,1.20
9548.00,1.20
9547.00,1.20
9546.00,1.20
9545.00,1.20
9544.00,1.20
9543.00,1.20
9542.00,1.20
9541.00,1.20
9540.00,1.20
9539.00,1.20
9538.00,1.20
9537.00,1.20
9536.00,1.20
9535.00,1.20
9534.00,1.19
9533.00,1.19
9532.00,1.19
9531.00,1.18
9530.00,1.18
9529.00,1.18
9528.00,1.18
9527.00,1.17
9526.00,1.17
9525.00,1.17
9524.00,1.17
9523.00,1.17
9522.00,1.17
9521.00,1.17
9520.00,1.18
9519.00,1.18
9518.00,1.18
9517.00,1.18
9516.00,1.18
9515.00,1.18
9514.00,1.18
9513.00,1.18
9512.00,1.18
9511.00,1.18
9510.00,1.18
9509.00,1.18
9508.00,1.18
9507.00,1.18
9506.00,1.18
9505.00,1.18
9504.00,1.18
9503.00,1.19
9502.00,1.19
9501.00,1.19
9500.00,1.19
9499.00,1.19
9498.00,1.19
9497.00,1.19
9496.00,1.19
9495.00,1.19
9494.00,1.19
9493.00,1.19
9492.00,1.19
9491.00,1.19
9490.00,1.19
9489.00,1.19
9488.00,1.19
9487.00,1.19
9486.00,1.19
9485.00,1.19
9484.00,1.19
9483.00,1.20
9482.00,1.20
9481.00,1.20
9480.00,1.20
9479.00,1.20
9478.00,1.19
9477.00,1.19
9476.00,1.19
9475.00,1.19
9474.00,1.19
9473.00,1.19
9472.00,1.19
9471.00,1.19
9470.00,1.18
9469.00,1.18
9468.00,1.18
9467.00,1.18
9466.00,1.18
9465.00,1.18
9464.00,1.18
9463.00,1.18
9462.00,1.17
9461.00,1.17
9460.00,1.17
9459.00,1.17
9458.00,1.16
9457.00,1.16
9456.00,1.16
9455.00,1.16
9454.00,1.15
9453.00,1.15
9452.00,1.15
9451.00,1.15
9450.00,1.14
9449.00,1.14
9448.00,1.14
9447.00,1.14
9446.00,1.13
9445.00,1.13
9444.00,1.13
9443.00,1.13
9442.00,1.13
9441.00,1.12
9440.00,1.12
9439.00,1.12
9438.00,1.12
9437.00,1.12
9436.00,1.11
9435.00,1.11
9434.00,1.11
9433.00,1.11
9432.00,1.11
9431.00,1.11
9430.00,1.12
9429.00,1.12
9428.00,1.12
9427.00,1.12
9426.00,1.12
9425.00,1.12
9424.00,1.12
9423.00,1.12
9422.00,1.12
9421.00,1.12
9420.00,1.12
9419.00,1.12
9418.00,1.12
9417.00,1.12
9416.00,1.12
9415.00,1.13
9414.00,1.13
9413.00,1.13
9412.00,1.13
9411.00,1.13
9410.00,1.13
9409.00,1.14
9408.00,1.14
9407.00,1.13
9406.00,1.13
9405.00,1.13
9404.00,1.13
9403.00,1.13
9402.00,1.13
9401.00,1.13
9400.00,1.13
9399.00,1.13
9398.00,1.13
9397.00,1.13
9396.00,1.13
9395.00,1.13
9394.00,1.13
9393.00,1.13
9392.00,1.12
9391.00,1.12
9390.00,1.11
9389.00,1.11
9388.00,1.10
9387.00,1.09
9386.00,1.09
9385.00,1.08
9384.00,1.08
9383.00,1.07
9382.00,1.06
9381.00,1.06
9380.00,1.06
9379.00,1.05
9378.00,1.05
9377.00,1.04
9376.00,1.04
9375.00,1.04
9374.00,1.04
9373.00,1.04
9372.00,1.04
9371.00,1.04
9370.00,1.04
9369.00,1.04
9368.00,1.04
9367.00,1.05
9366.00,1.05
9365.00,1.06
9364.00,1.07
9363.00,1.08
9362.00,1.09
9361.00,1.09
9360.00,1.10
9359.00,1.11
9358.00,1.12
9357.00,1.13
9356.00,1.14
9355.00,1.15
9354.00,1.16
9353.00,1.17
9352.00,1.18
9351.00,1.19
9350.00,1.19
9349.00,1.20
9348.00,1.21
9347.00,1.21
9346.00,1.21
9345.00,1.22
9344.00,1.22
9343.00,1.22
9342.00,1.23
9341.00,1.23
9340.00,1.23
9339.00,1.23
9338.00,1.23
9337.00,1.23
9336.00,1.23
9335.00,1.22
9334.00,1.22
9333.00,1.22
9332.00,1.22
9331.00,1.22
9330.00,1.22
9329.00,1.21
9328.00,1.21
9327.00,1.21
9326.00,1.21
9325.00,1.21
9324.00,1.21
9323.00,1.21
9322.00,1.21
9321.00,1.21
9320.00,1.21
9319.00,1.21
9318.00,1.20
9317.00,1.20
9316.00,1.20
9315.00,1.20
9314.00,1.20
9313.00,1.20
9312.00,1.20
9311.00,1.19
9310.00,1.19
9309.00,1.19
9308.00,1.19
9307.00,1.19
9306.00,1.19
9305.00,1.19
9304.00,1.18
9303.00,1.18
9302.00,1.18
9301.00,1.17
9300.00,1.17
9299.00,1.17
9298.00,1.16
9297.00,1.16
9296.00,1.16
9295.00,1.16
9294.00,1.16
9293.00,1.15
9292.00,1.15
9291.00,1.15
9290.00,1.15
9289.00,1.15
9288.00,1.15
9287.00,1.15
9286.00,1.15
9285.00,1.15
9284.00,1.15
9283.00,1.15
9282.00,1.15
9281.00,1.15
9280.00,1.14
9279.00,1.14
9278.00,1.14
9277.00,1.14
9276.00,1.14
9275.00,1.14
9274.00,1.14
9273.00,1.15
9272.00,1.15
9271.00,1.15
9270.00,1.15
9269.00,1.15
9268.00,1.15
9267.00,1.15
9266.00,1.15
9265.00,1.15
9264.00,1.15
9263.00,1.14
9262.00,1.14
9261.00,1.14
9260.00,1.14
9259.00,1.14
9258.00,1.13
9257.00,1.13
9256.00,1.13
9255.00,1.12
9254.00,1.12
9253.00,1.12
9252.00,1.12
9251.00,1.11
9250.00,1.11
9249.00,1.10
9248.00,1.10
9247.00,1.10
9246.00,1.09
9245.00,1.09
9244.00,1.08
9243.00,1.08
9242.00,1.07
9241.00,1.07
9240.00,1.07
9239.00,1.06
9238.00,1.06
9237.00,1.05
9236.00,1.05
9235.00,1.05
9234.00,1.05
9233.00,1.05
9232.00,1.05
9231.00,1.05
9230.00,1.05
9229.00,1.05
9228.00,1.06
9227.00,1.06
9226.00,1.06
9225.00,1.06
9224.00,1.06
9223.00,1.07
9222.00,1.07
9221.00,1.07
9220.00,1.07
9219.00,1.07
9218.00,1.07
9217.00,1.08
9216.00,1.08
9215.00,1.08
9214.00,1.08
9213.00,1.08
9212.00,1.08
9211.00,1.08
9210.00,1.08
9209.00,1.08
9208.00,1.08
9207.00,1.08
9206.00,1.07
9205.00,1.07
9204.00,1.07
9203.00,1.06
9202.00,1.06
9201.00,1.05
9200.00,1.05
9199.00,1.05
9198.00,1.04
9197.00,1.04
9196.00,1.04
9195.00,1.04
9194.00,1.04
9193.00,1.03
9192.00,1.03
9191.00,1.03
9190.00,1.03
9189.00,1.03
9188.00,1.03
9187.00,1.04
9186.00,1.04
9185.00,1.04
9184.00,1.05
9183.00,1.05
9182.00,1.06
9181.00,1.06
9180.00,1.07
9179.00,1.07
9178.00,1.08
9177.00,1.09
9176.00,1.09
9175.00,1.10
9174.00,1.10
9173.00,1.11
9172.00,1.11
9171.00,1.12
9170.00,1.12
9169.00,1.12
9168.00,1.13
9167.00,1.13
9166.00,1.14
9165.00,1.14
9164.00,1.15
9163.00,1.15
9162.00,1.15
9161.00,1.16
9160.00,1.16
9159.00,1.16
9158.00,1.16
9157.00,1.17
9156.00,1.17
9155.00,1.17
9154.00,1.17
9153.00,1.17
9152.00,1.17
9151.00,1.17
9150.00,1.17
9149.00,1.17
9148.00,1.17
9147.00,1.17
9146.00,1.17
9145.00,1.17
9144.00,1.17
9143.00,1.17
9142.00,1.17
9141.00,1.17
9140.00,1.17
9139.00,1.17
9138.00,1.17
9137.00,1.16
9136.00,1.16
9135.00,1.16
9134.00,1.15
9133.00,1.15
9132.00,1.15
9131.00,1.14
9130.00,1.14
9129.00,1.13
9128.00,1.13
9127.00,1.12
9126.00,1.12
9125.00,1.11
9124.00,1.11
9123.00,1.10
9122.00,1.10
9121.00,1.09
9120.00,1.09
9119.00,1.08
9118.00,1.08
9117.00,1.08
9116.00,1.08
9115.00,1.07
9114.00,1.07
9113.00,1.07
9112.00,1.07
9111.00,1.07
9110.00,1.07
9109.00,1.07
9108.00,1.07
9107.00,1.07
9106.00,1.07
9105.00,1.07
9104.00,1.07
9103.00,1.07
9102.00,1.08
9101.00,1.08
9100.00,1.08
9099.00,1.09
9098.00,1.09
9097.00,1.09
9096.00,1.10
9095.00,1.10
9094.00,1.11
9093.00,1.11
9092.00,1.11
9091.00,1.12
9090.00,1.12
9089.00,1.12
9088.00,1.13
9087.00,1.13
9086.00,1.13
9085.00,1.14
9084.00,1.14
9083.00,1.14
9082.00,1.14
9081.00,1.15
9080.00,1.15
9079.00,1.15
9078.00,1.15
9077.00,1.15
9076.00,1.15
9075.00,1.15
9074.00,1.15
9073.00,1.15
9072.00,1.15
9071.00,1.14
9070.00,1.14
9069.00,1.14
9068.00,1.14
9067.00,1.14
9066.00,1.13
9065.00,1.13
9064.00,1.13
9063.00,1.12
9062.00,1.12
9061.00,1.11
9060.00,1.11
9059.00,1.11
9058.00,1.10
9057.00,1.10
9056.00,1.10
9055.00,1.09
9054.00,1.09
9053.00,1.09
9052.00,1.09
9051.00,1.09
9050.00,1.09
9049.00,1.09
9048.00,1.09
9047.00,1.09
9046.00,1.09
9045.00,1.09
9044.00,1.09
9043.00,1.10
9042.00,1.10
9041.00,1.10
9040.00,1.10
9039.00,1.10
9038.00,1.11
9037.00,1.11
9036.00,1.11
9035.00,1.12
9034.00,1.12
9033.00,1.13
9032.00,1.13
9031.00,1.13
9030.00,1.14
9029.00,1.14
9028.00,1.14
9027.00,1.14
9026.00,1.14
9025.00,1.13
9024.00,1.13
9023.00,1.13
9022.00,1.13
9021.00,1.12
9020.00,1.12
9019.00,1.12
9018.00,1.12
9017.00,1.11
9016.00,1.11
9015.00,1.11
9014.00,1.11
9013.00,1.11
9012.00,1.10
9011.00,1.10
9010.00,1.10
9009.00,1.10
9008.00,1.09
9007.00,1.09
9006.00,1.09
9005.00,1.09
9004.00,1.09
9003.00,1.08
9002.00,1.08
9001.00,1.09
9000.00,1.09
8999.00,1.09
8998.00,1.09
8997.00,1.10
8996.00,1.10
8995.00,1.10
8994.00,1.11
8993.00,1.11
8992.00,1.11
8991.00,1.12
8990.00,1.12
8989.00,1.12
8988.00,1.12
8987.00,1.13
8986.00,1.13
8985.00,1.13
8984.00,1.13
8983.00,1.13
8982.00,1.14
8981.00,1.14
8980.00,1.14
8979.00,1.14
8978.00,1.15
8977.00,1.15
8976.00,1.15
8975.00,1.15
8974.00,1.15
8973.00,1.15
8972.00,1.15
8971.00,1.15
8970.00,1.15
8969.00,1.15
8968.00,1.14
8967.00,1.14
8966.00,1.14
8965.00,1.13
8964.00,1.13
8963.00,1.13
8962.00,1.12
8961.00,1.12
8960.00,1.12
8959.00,1.12
8958.00,1.11
8957.00,1.11
8956.00,1.11
8955.00,1.10
8954.00,1.10
8953.00,1.09
8952.00,1.09
8951.00,1.09
8950.00,1.08
8949.00,1.08
8948.00,1.08
8947.00,1.07
8946.00,1.07
8945.00,1.07
8944.00,1.07
8943.00,1.07
8942.00,1.07
8941.00,1.07
8940.00,1.07
8939.00,1.07
8938.00,1.07
8937.00,1.08
8936.00,1.08
8935.00,1.08
8934.00,1.09
8933.00,1.09
8932.00,1.09
8931.00,1.10
8930.00,1.10
8929.00,1.10
8928.00,1.11
8927.00,1.11
8926.00,1.12
8925.00,1.12
8924.00,1.12
8923.00,1.13
8922.00,1.13
8921.00,1.14
8920.00,1.14
8919.00,1.14
8918.00,1.14
8917.00,1.15
8916.00,1.15
8915.00,1.15
8914.00,1.15
8913.00,1.15
8912.00,1.16
8911.00,1.16
8910.00,1.16
8909.00,1.16
8908.00,1.16
8907.00,1.16
8906.00,1.16
8905.00,1.17
8904.00,1.17
8903.00,1.17
8902.00,1.17
8901.00,1.17
8900.00,1.17
8899.00,1.17
8898.00,1.17
8897.00,1.17
8896.00,1.17
8895.00,1.18
8894.00,1.18
8893.00,1.18
8892.00,1.18
8891.00,1.18
8890.00,1.18
8889.00,1.18
8888.00,1.18
8887.00,1.18
8886.00,1.18
8885.00,1.18
8884.00,1.18
8883.00,1.18
8882.00,1.18
8881.00,1.18
8880.00,1.17
8879.00,1.17
8878.00,1.17
8877.00,1.16
8876.00,1.16
8875.00,1.15
8874.00,1.15
8873.00,1.14
8872.00,1.14
8871.00,1.13
8870.00,1.13
8869.00,1.12
8868.00,1.11
8867.00,1.11
8866.00,1.10
8865.00,1.10
8864.00,1.09
8863.00,1.09
8862.00,1.08
8861.00,1.08
8860.00,1.08
8859.00,1.08
8858.00,1.08
8857.00,1.07
8856.00,1.07
8855.00,1.07
8854.00,1.07
8853.00,1.07
8852.00,1.08
8851.00,1.08
8850.00,1.08
8849.00,1.09
8848.00,1.09
8847.00,1.10
8846.00,1.10
8845.00,1.11
8844.00,1.12
8843.00,1.12
8842.00,1.13
8841.00,1.14
8840.00,1.14
8839.00,1.15
8838.00,1.15
8837.00,1.15
8836.00,1.16
8835.00,1.16
8834.00,1.16
8833.00,1.16
8832.00,1.16
8831.00,1.17
8830.00,1.17
8829.00,1.17
8828.00,1.17
8827.00,1.17
8826.00,1.17
8825.00,1.17
8824.00,1.17
8823.00,1.17
8822.00,1.16
8821.00,1.16
8820.00,1.16
8819.00,1.15
8818.00,1.15
8817.00,1.14
8816.00,1.14
8815.00,1.13
8814.00,1.13
8813.00,1.12
8812.00,1.12
8811.00,1.12
8810.00,1.12
8809.00,1.11
8808.00,1.11
8807.00,1.11
8806.00,1.11
8805.00,1.11
8804.00,1.10
8803.00,1.10
8802.00,1.10
8801.00,1.10
8800.00,1.10
8799.00,1.09
8798.00,1.09
8797.00,1.09
8796.00,1.09
8795.00,1.09
8794.00,1.09
8793.00,1.09
8792.00,1.09
8791.00,1.09
8790.00,1.09
8789.00,1.10
8788.00,1.10
8787.00,1.10
8786.00,1.10
8785.00,1.10
8784.00,1.10
8783.00,1.10
8782.00,1.10
8781.00,1.10
8780.00,1.10
8779.00,1.10
8778.00,1.10
8777.00,1.10
8776.00,1.10
8775.00,1.10
8774.00,1.10
8773.00,1.10
8772.00,1.10
8771.00,1.10
8770.00,1.10
8769.00,1.10
8768.00,1.10
8767.00,1.10
8766.00,1.10
8765.00,1.10
8764.00,1.10
8763.00,1.10
8762.00,1.10
8761.00,1.10
8760.00,1.10
8759.00,1.10
8758.00,1.10
8757.00,1.10
8756.00,1.10
8755.00,1.10
8754.00,1.10
8753.00,1.10
8752.00,1.10
8751.00,1.09
8750.00,1.09
8749.00,1.09
8748.00,1.09
8747.00,1.09
8746.00,1.09
8745.00,1.09
8744.00,1.09
8743.00,1.09
8742.00,1.09
8741.00,1.09
8740.00,1.09
8739.00,1.09
8738.00,1.09
8737.00,1.09
8736.00,1.10
8735.00,1.10
8734.00,1.10
8733.00,1.10
8732.00,1.10
8731.00,1.10
8730.00,1.10
8729.00,1.10
8728.00,1.10
8727.00,1.10
8726.00,1.09
8725.00,1.09
8724.00,1.09
8723.00,1.09
8722.00,1.08
8721.00,1.08
8720.00,1.08
8719.00,1.08
8718.00,1.07
8717.00,1.07
8716.00,1.07
8715.00,1.06
8714.00,1.06
8713.00,1.05
8712.00,1.05
8711.00,1.04
8710.00,1.04
8709.00,1.03
8708.00,1.03
8707.00,1.03
8706.00,1.02
8705.00,1.02
8704.00,1.02
8703.00,1.02
8702.00,1.02
8701.00,1.02
8700.00,1.02
8699.00,1.03
8698.00,1.03
8697.00,1.03
8696.00,1.04
8695.00,1.04
8694.00,1.04
8693.00,1.05
8692.00,1.05
8691.00,1.06
8690.00,1.07
8689.00,1.07
8688.00,1.08
8687.00,1.09
8686.00,1.10
8685.00,1.11
8684.00,1.12
8683.00,1.12
8682.00,1.13
8681.00,1.14
8680.00,1.14
8679.00,1.15
8678.00,1.15
8677.00,1.16
8676.00,1.16
8675.00,1.16
8674.00,1.16
8673.00,1.17
8672.00,1.17
8671.00,1.17
8670.00,1.17
8669.00,1.17
8668.00,1.17
8667.00,1.17
8666.00,1.17
8665.00,1.17
8664.00,1.16
8663.00,1.16
8662.00,1.16
8661.00,1.16
8660.00,1.15
8659.00,1.15
8658.00,1.15
8657.00,1.15
8656.00,1.15
8655.00,1.14
8654.00,1.14
8653.00,1.14
8652.00,1.14
8651.00,1.14
8650.00,1.14
8649.00,1.14
8648.00,1.14
8647.00,1.14
8646.00,1.15
8645.00,1.15
8644.00,1.15
8643.00,1.15
8642.00,1.16
8641.00,1.16
8640.00,1.16
8639.00,1.17
8638.00,1.17
8637.00,1.18
8636.00,1.18
8635.00,1.18
8634.00,1.18
8633.00,1.19
8632.00,1.19
8631.00,1.19
8630.00,1.19
8629.00,1.19
8628.00,1.19
8627.00,1.19
8626.00,1.18
8625.00,1.18
8624.00,1.18
8623.00,1.18
8622.00,1.18
8621.00,1.18
8620.00,1.18
8619.00,1.17
8618.00,1.17
8617.00,1.17
8616.00,1.16
8615.00,1.16
8614.00,1.16
8613.00,1.15
8612.00,1.15
8611.00,1.15
8610.00,1.14
8609.00,1.14
8608.00,1.14
8607.00,1.14
8606.00,1.13
8605.00,1.13
8604.00,1.13
8603.00,1.13
8602.00,1.13
8601.00,1.14
8600.00,1.14
8599.00,1.14
8598.00,1.14
8597.00,1.14
8596.00,1.14
8595.00,1.15
8594.00,1.15
8593.00,1.15
8592.00,1.15
8591.00,1.15
8590.00,1.15
8589.00,1.16
8588.00,1.16
8587.00,1.16
8586.00,1.16
8585.00,1.16
8584.00,1.16
8583.00,1.16
8582.00,1.16
8581.00,1.16
8580.00,1.16
8579.00,1.16
8578.00,1.16
8577.00,1.16
8576.00,1.16
8575.00,1.16
8574.00,1.16
8573.00,1.16
8572.00,1.16
8571.00,1.16
8570.00,1.16
8569.00,1.15
8568.00,1.15
8567.00,1.15
8566.00,1.14
8565.00,1.14
8564.00,1.14
8563.00,1.13
8562.00,1.13
8561.00,1.12
8560.00,1.12
8559.00,1.12
8558.00,1.11
8557.00,1.11
8556.00,1.10
8555.00,1.10
8554.00,1.10
8553.00,1.09
8552.00,1.09
8551.00,1.08
8550.00,1.08
8549.00,1.07
8548.00,1.07
8547.00,1.07
8546.00,1.06
8545.00,1.06
8544.00,1.05
8543.00,1.05
8542.00,1.05
8541.00,1.05
8540.00,1.05
8539.00,1.05
8538.00,1.05
8537.00,1.05
8536.00,1.05
8535.00,1.06
8534.00,1.06
8533.00,1.07
8532.00,1.07
8531.00,1.08
8530.00,1.08
8529.00,1.08
8528.00,1.09
8527.00,1.09
8526.00,1.10
8525.00,1.10
8524.00,1.10
8523.00,1.11
8522.00,1.11
8521.00,1.11
8520.00,1.12
8519.00,1.12
8518.00,1.13
8517.00,1.13
8516.00,1.13
8515.00,1.14
8514.00,1.14
8513.00,1.14
8512.00,1.14
8511.00,1.14
8510.00,1.13
8509.00,1.13
8508.00,1.13
8507.00,1.13
8506.00,1.12
8505.00,1.12
8504.00,1.11
8503.00,1.11
8502.00,1.11
8501.00,1.11
8500.00,1.10
8499.00,1.10
8498.00,1.10
8497.00,1.10
8496.00,1.09
8495.00,1.09
8494.00,1.09
8493.00,1.09
8492.00,1.09
8491.00,1.09
8490.00,1.08
8489.00,1.08
8488.00,1.08
8487.00,1.08
8486.00,1.09
8485.00,1.09
8484.00,1.09
8483.00,1.09
8482.00,1.10
8481.00,1.10
8480.00,1.10
8479.00,1.11
8478.00,1.11
8477.00,1.11
8476.00,1.12
8475.00,1.12
8474.00,1.13
8473.00,1.13
8472.00,1.13
8471.00,1.14
8470.00,1.14
8469.00,1.14
8468.00,1.14
8467.00,1.14
8466.00,1.15
8465.00,1.15
8464.00,1.15
8463.00,1.15
8462.00,1.15
8461.00,1.15
8460.00,1.15
8459.00,1.15
8458.00,1.15
8457.00,1.15
8456.00,1.15
8455.00,1.14
8454.00,1.14
8453.00,1.14
8452.00,1.14
8451.00,1.14
8450.00,1.13
8449.00,1.13
8448.00,1.13
8447.00,1.13
8446.00,1.12
8445.00,1.12
8444.00,1.12
8443.00,1.11
8442.00,1.11
8441.00,1.11
8440.00,1.11
8439.00,1.10
8438.00,1.10
8437.00,1.10
8436.00,1.10
8435.00,1.10
8434.00,1.10
8433.00,1.10
8432.00,1.09
8431.00,1.09
8430.00,1.09
8429.00,1.09
8428.00,1.09
8427.00,1.09
8426.00,1.09
8425.00,1.09
8424.00,1.09
8423.00,1.09
8422.00,1.10
8421.00,1.10
8420.00,1.10
8419.00,1.11
8418.00,1.11
8417.00,1.12
8416.00,1.12
8415.00,1.13
8414.00,1.14
8413.00,1.14
8412.00,1.15
8411.00,1.15
8410.00,1.16
8409.00,1.17
8408.00,1.17
8407.00,1.18
8406.00,1.18
8405.00,1.19
8404.00,1.20
8403.00,1.20
8402.00,1.21
8401.00,1.21
8400.00,1.22
8399.00,1.22
8398.00,1.23
8397.00,1.23
8396.00,1.23
8395.00,1.23
8394.00,1.24
8393.00,1.24
8392.00,1.24
8391.00,1.24
8390.00,1.24
8389.00,1.23
8388.00,1.23
8387.00,1.23
8386.00,1.23
8385.00,1.22
8384.00,1.22
8383.00,1.22
8382.00,1.21
8381.00,1.21
8380.00,1.21
8379.00,1.20
8378.00,1.20
8377.00,1.19
8376.00,1.19
8375.00,1.19
8374.00,1.18
8373.00,1.18
8372.00,1.17
8371.00,1.17
8370.00,1.17
8369.00,1.16
8368.00,1.16
8367.00,1.15
8366.00,1.15
8365.00,1.14
8364.00,1.14
8363.00,1.14
8362.00,1.13
8361.00,1.13
8360.00,1.13
8359.00,1.13
8358.00,1.13
8357.00,1.13
8356.00,1.13
8355.00,1.13
8354.00,1.13
8353.00,1.13
8352.00,1.13
8351.00,1.13
8350.00,1.13
8349.00,1.13
8348.00,1.13
8347.00,1.14
8346.00,1.14
8345.00,1.14
8344.00,1.14
8343.00,1.15
8342.00,1.15
8341.00,1.16
8340.00,1.16
8339.00,1.16
8338.00,1.17
8337.00,1.17
8336.00,1.18
8335.00,1.18
8334.00,1.19
8333.00,1.19
8332.00,1.19
8331.00,1.20
8330.00,1.20
8329.00,1.20
8328.00,1.21
8327.00,1.21
8326.00,1.21
8325.00,1.21
8324.00,1.21
8323.00,1.21
8322.00,1.21
8321.00,1.21
8320.00,1.21
8319.00,1.21
8318.00,1.21
8317.00,1.21
8316.00,1.21
8315.00,1.21
8314.00,1.21
8313.00,1.20
8312.00,1.20
8311.00,1.20
8310.00,1.20
8309.00,1.19
8308.00,1.19
8307.00,1.19
8306.00,1.19
8305.00,1.18
8304.00,1.18
8303.00,1.18
8302.00,1.17
8301.00,1.17
8300.00,1.17
8299.00,1.16
8298.00,1.16
8297.00,1.16
8296.00,1.15
8295.00,1.15
8294.00,1.15
8293.00,1.15
8292.00,1.15
8291.00,1.14
8290.00,1.14
8289.00,1.14
8288.00,1.14
8287.00,1.14
8286.00,1.14
8285.00,1.14
8284.00,1.14
8283.00,1.13
8282.00,1.13
8281.00,1.13
8280.00,1.13
8279.00,1.13
8278.00,1.13
8277.00,1.13
8276.00,1.13
8275.00,1.13
8274.00,1.13
8273.00,1.13
8272.00,1.14
8271.00,1.14
8270.00,1.14
8269.00,1.14
8268.00,1.14
8267.00,1.14
8266.00,1.14
8265.00,1.14
8264.00,1.14
8263.00,1.14
8262.00,1.14
8261.00,1.15
8260.00,1.14
8259.00,1.14
8258.00,1.14
8257.00,1.14
8256.00,1.14
8255.00,1.14
8254.00,1.14
8253.00,1.14
8252.00,1.14
8251.00,1.14
8250.00,1.13
8249.00,1.13
8248.00,1.13
8247.00,1.13
8246.00,1.13
8245.00,1.13
8244.00,1.12
8243.00,1.12
8242.00,1.12
8241.00,1.12
8240.00,1.12
8239.00,1.12
8238.00,1.12
8237.00,1.12
8236.00,1.12
8235.00,1.12
8234.00,1.13
8233.00,1.13
8232.00,1.13
8231.00,1.14
8230.00,1.14
8229.00,1.14
8228.00,1.15
8227.00,1.16
8226.00,1.16
8225.00,1.17
8224.00,1.17
8223.00,1.18
8222.00,1.19
8221.00,1.19
8220.00,1.20
8219.00,1.20
8218.00,1.21
8217.00,1.21
8216.00,1.22
8215.00,1.22
8214.00,1.23
8213.00,1.23
8212.00,1.23
8211.00,1.24
8210.00,1.24
8209.00,1.24
8208.00,1.25
8207.00,1.25
8206.00,1.25
8205.00,1.25
8204.00,1.25
8203.00,1.26
8202.00,1.26
8201.00,1.26
8200.00,1.26
8199.00,1.26
8198.00,1.26
8197.00,1.26
8196.00,1.26
8195.00,1.27
8194.00,1.27
8193.00,1.27
8192.00,1.27
8191.00,1.27
8190.00,1.28
8189.00,1.28
8188.00,1.28
8187.00,1.29
8186.00,1.29
8185.00,1.29
8184.00,1.29
8183.00,1.29
8182.00,1.29
8181.00,1.29
8180.00,1.29
8179.00,1.29
8178.00,1.29
8177.00,1.29
8176.00,1.28
8175.00,1.28
8174.00,1.28
8173.00,1.27
8172.00,1.27
8171.00,1.27
8170.00,1.26
8169.00,1.26
8168.00,1.25
8167.00,1.25
8166.00,1.24
8165.00,1.23
8164.00,1.22
8163.00,1.22
8162.00,1.21
8161.00,1.20
8160.00,1.19
8159.00,1.19
8158.00,1.18
8157.00,1.17
8156.00,1.17
8155.00,1.16
8154.00,1.16
8153.00,1.16
8152.00,1.15
8151.00,1.15
8150.00,1.15
8149.00,1.14
8148.00,1.14
8147.00,1.14
8146.00,1.14
8145.00,1.13
8144.00,1.13
8143.00,1.13
8142.00,1.13
8141.00,1.13
8140.00,1.13
8139.00,1.12
8138.00,1.12
8137.00,1.12
8136.00,1.13
8135.00,1.13
8134.00,1.13
8133.00,1.13
8132.00,1.13
8131.00,1.13
8130.00,1.13
8129.00,1.14
8128.00,1.14
8127.00,1.14
8126.00,1.14
8125.00,1.14
8124.00,1.14
8123.00,1.14
8122.00,1.15
8121.00,1.15
8120.00,1.15
8119.00,1.15
8118.00,1.15
8117.00,1.15
8116.00,1.15
8115.00,1.15
8114.00,1.16
8113.00,1.16
8112.00,1.16
8111.00,1.16
8110.00,1.16
8109.00,1.16
8108.00,1.17
8107.00,1.17
8106.00,1.17
8105.00,1.17
8104.00,1.17
8103.00,1.17
8102.00,1.17
8101.00,1.18
8100.00,1.18
8099.00,1.18
8098.00,1.18
8097.00,1.19
8096.00,1.19
8095.00,1.19
8094.00,1.20
8093.00,1.20
8092.00,1.21
8091.00,1.21
8090.00,1.21
8089.00,1.22
8088.00,1.22
8087.00,1.22
8086.00,1.23
8085.00,1.23
8084.00,1.23
8083.00,1.23
8082.00,1.24
8081.00,1.24
8080.00,1.24
8079.00,1.24
8078.00,1.24
8077.00,1.24
8076.00,1.24
8075.00,1.24
8074.00,1.24
8073.00,1.24
8072.00,1.24
8071.00,1.23
8070.00,1.23
8069.00,1.23
8068.00,1.22
8067.00,1.22
8066.00,1.22
8065.00,1.21
8064.00,1.21
8063.00,1.20
8062.00,1.20
8061.00,1.20
8060.00,1.19
8059.00,1.19
8058.00,1.18
8057.00,1.18
8056.00,1.18
8055.00,1.17
8054.00,1.17
8053.00,1.17
8052.00,1.17
8051.00,1.17
8050.00,1.17
8049.00,1.17
8048.00,1.17
8047.00,1.17
8046.00,1.17
8045.00,1.17
8044.00,1.17
8043.00,1.17
8042.00,1.17
8041.00,1.17
8040.00,1.17
8039.00,1.17
8038.00,1.17
8037.00,1.17
8036.00,1.17
8035.00,1.17
8034.00,1.17
8033.00,1.17
8032.00,1.17
8031.00,1.17
8030.00,1.17
8029.00,1.17
8028.00,1.18
8027.00,1.18
8026.00,1.18
8025.00,1.18
8024.00,1.18
8023.00,1.18
8022.00,1.18
8021.00,1.18
8020.00,1.18
8019.00,1.19
8018.00,1.19
8017.00,1.19
8016.00,1.19
8015.00,1.19
8014.00,1.19
8013.00,1.20
8012.00,1.20
8011.00,1.20
8010.00,1.20
8009.00,1.21
8008.00,1.21
8007.00,1.21
8006.00,1.21
8005.00,1.21
8004.00,1.21
8003.00,1.22
8002.00,1.22
8001.00,1.22
8000.00,1.22
7999.00,1.22
7998.00,1.22
7997.00,1.22
7996.00,1.22
7995.00,1.22
7994.00,1.22
7993.00,1.22
7992.00,1.21
7991.00,1.21
7990.00,1.21
7989.00,1.21
7988.00,1.21
7987.00,1.20
7986.00,1.20
7985.00,1.20
7984.00,1.20
7983.00,1.20
7982.00,1.19
7981.00,1.19
7980.00,1.19
7979.00,1.19
7978.00,1.18
7977.00,1.18
7976.00,1.18
7975.00,1.18
7974.00,1.18
7973.00,1.17
7972.00,1.17
7971.00,1.17
7970.00,1.17
7969.00,1.17
7968.00,1.16
7967.00,1.16
7966.00,1.16
7965.00,1.16
7964.00,1.16
7963.00,1.16
7962.00,1.16
7961.00,1.16
7960.00,1.16
7959.00,1.15
7958.00,1.15
7957.00,1.15
7956.00,1.15
7955.00,1.15
7954.00,1.15
7953.00,1.15
7952.00,1.15
7951.00,1.14
7950.00,1.14
7949.00,1.14
7948.00,1.14
7947.00,1.14
7946.00,1.14
7945.00,1.14
7944.00,1.14
7943.00,1.14
7942.00,1.14
7941.00,1.14
7940.00,1.14
7939.00,1.14
7938.00,1.14
7937.00,1.14
7936.00,1.14
7935.00,1.14
7934.00,1.14
7933.00,1.14
7932.00,1.14
7931.00,1.14
7930.00,1.14
7929.00,1.14
7928.00,1.14
7927.00,1.15
7926.00,1.15
7925.00,1.15
7924.00,1.15
7923.00,1.15
7922.00,1.15
7921.00,1.15
7920.00,1.15
7919.00,1.16
7918.00,1.16
7917.00,1.16
7916.00,1.16
7915.00,1.16
7914.00,1.16
7913.00,1.16
7912.00,1.16
7911.00,1.16
7910.00,1.16
7909.00,1.16
7908.00,1.16
7907.00,1.16
7906.00,1.16
7905.00,1.16
7904.00,1.17
7903.00,1.17
7902.00,1.17
7901.00,1.17
7900.00,1.17
7899.00,1.17
7898.00,1.17
7897.00,1.18
7896.00,1.18
7895.00,1.18
7894.00,1.18
7893.00,1.18
7892.00,1.19
7891.00,1.19
7890.00,1.19
7889.00,1.20
7888.00,1.20
7887.00,1.20
7886.00,1.20
7885.00,1.21
7884.00,1.21
7883.00,1.21
7882.00,1.21
7881.00,1.21
7880.00,1.21
7879.00,1.21
7878.00,1.22
7877.00,1.22
7876.00,1.22
7875.00,1.22
7874.00,1.22
7873.00,1.22
7872.00,1.22
7871.00,1.23
7870.00,1.23
7869.00,1.23
7868.00,1.23
7867.00,1.23
7866.00,1.23
7865.00,1.23
7864.00,1.23
7863.00,1.23
7862.00,1.23
7861.00,1.23
7860.00,1.23
7859.00,1.23
7858.00,1.23
7857.00,1.23
7856.00,1.23
7855.00,1.23
7854.00,1.23
7853.00,1.23
7852.00,1.22
7851.00,1.22
7850.00,1.22
7849.00,1.22
7848.00,1.21
7847.00,1.21
7846.00,1.21
7845.00,1.20
7844.00,1.20
7843.00,1.19
7842.00,1.19
7841.00,1.19
7840.00,1.18
7839.00,1.18
7838.00,1.18
7837.00,1.17
7836.00,1.17
7835.00,1.17
7834.00,1.16
7833.00,1.16
7832.00,1.16
7831.00,1.16
7830.00,1.16
7829.00,1.16
7828.00,1.16
7827.00,1.16
7826.00,1.16
7825.00,1.16
7824.00,1.16
7823.00,1.16
7822.00,1.16
7821.00,1.16
7820.00,1.16
7819.00,1.16
7818.00,1.16
7817.00,1.17
7816.00,1.17
7815.00,1.17
7814.00,1.17
7813.00,1.18
7812.00,1.18
7811.00,1.18
7810.00,1.18
7809.00,1.19
7808.00,1.19
7807.00,1.19
7806.00,1.20
7805.00,1.20
7804.00,1.20
7803.00,1.21
7802.00,1.21
7801.00,1.21
7800.00,1.21
7799.00,1.22
7798.00,1.22
7797.00,1.22
7796.00,1.22
7795.00,1.22
7794.00,1.22
7793.00,1.22
7792.00,1.22
7791.00,1.22
7790.00,1.22
7789.00,1.22
7788.00,1.22
7787.00,1.22
7786.00,1.22
7785.00,1.22
7784.00,1.22
7783.00,1.21
7782.00,1.21
7781.00,1.21
7780.00,1.21
7779.00,1.20
7778.00,1.20
7777.00,1.20
7776.00,1.20
7775.00,1.19
7774.00,1.19
7773.00,1.19
7772.00,1.18
7771.00,1.18
7770.00,1.18
7769.00,1.18
7768.00,1.17
7767.00,1.17
7766.00,1.17
7765.00,1.17
7764.00,1.17
7763.00,1.17
7762.00,1.17
7761.00,1.17
7760.00,1.17
7759.00,1.17
7758.00,1.17
7757.00,1.17
7756.00,1.16
7755.00,1.16
7754.00,1.16
7753.00,1.16
7752.00,1.16
7751.00,1.16
7750.00,1.16
7749.00,1.16
7748.00,1.16
7747.00,1.16
7746.00,1.16
7745.00,1.16
7744.00,1.16
7743.00,1.16
7742.00,1.16
7741.00,1.16
7740.00,1.16
7739.00,1.17
7738.00,1.17
7737.00,1.17
7736.00,1.17
7735.00,1.17
7734.00,1.17
7733.00,1.17
7732.00,1.18
7731.00,1.18
7730.00,1.18
7729.00,1.18
7728.00,1.19
7727.00,1.19
7726.00,1.19
7725.00,1.19
7724.00,1.20
7723.00,1.20
7722.00,1.20
7721.00,1.21
7720.00,1.21
7719.00,1.21
7718.00,1.21
7717.00,1.21
7716.00,1.21
7715.00,1.21
7714.00,1.21
7713.00,1.21
7712.00,1.21
7711.00,1.21
7710.00,1.21
7709.00,1.21
7708.00,1.21
7707.00,1.20
7706.00,1.20
7705.00,1.20
7704.00,1.20
7703.00,1.19
7702.00,1.19
7701.00,1.19
7700.00,1.19
7699.00,1.19
7698.00,1.19
7697.00,1.19
7696.00,1.19
7695.00,1.19
7694.00,1.19
7693.00,1.19
7692.00,1.19
7691.00,1.19
7690.00,1.19
7689.00,1.19
7688.00,1.20
7687.00,1.20
7686.00,1.20
7685.00,1.20
7684.00,1.20
7683.00,1.20
7682.00,1.21
7681.00,1.21
7680.00,1.21
7679.00,1.21
7678.00,1.22
7677.00,1.22
7676.00,1.22
7675.00,1.22
7674.00,1.23
7673.00,1.23
7672.00,1.23
7671.00,1.23
7670.00,1.23
7669.00,1.23
7668.00,1.23
7667.00,1.23
7666.00,1.23
7665.00,1.23
7664.00,1.23
7663.00,1.23
7662.00,1.23
7661.00,1.23
7660.00,1.24
7659.00,1.24
7658.00,1.24
7657.00,1.24
7656.00,1.24
7655.00,1.24
7654.00,1.24
7653.00,1.24
7652.00,1.24
7651.00,1.24
7650.00,1.23
7649.00,1.23
7648.00,1.23
7647.00,1.23
7646.00,1.23
7645.00,1.22
7644.00,1.22
7643.00,1.22
7642.00,1.22
7641.00,1.22
7640.00,1.21
7639.00,1.21
7638.00,1.21
7637.00,1.20
7636.00,1.20
7635.00,1.20
7634.00,1.20
7633.00,1.19
7632.00,1.19
7631.00,1.19
7630.00,1.18
7629.00,1.18
7628.00,1.18
7627.00,1.18
7626.00,1.18
7625.00,1.18
7624.00,1.18
7623.00,1.18
7622.00,1.17
7621.00,1.17
7620.00,1.17
7619.00,1.17
7618.00,1.17
7617.00,1.17
7616.00,1.17
7615.00,1.18
7614.00,1.18
7613.00,1.18
7612.00,1.18
7611.00,1.18
7610.00,1.18
7609.00,1.18
7608.00,1.18
7607.00,1.19
7606.00,1.19
7605.00,1.19
7604.00,1.19
7603.00,1.19
7602.00,1.19
7601.00,1.19
7600.00,1.19
7599.00,1.19
7598.00,1.20
7597.00,1.20
7596.00,1.20
7595.00,1.20
7594.00,1.20
7593.00,1.20
7592.00,1.20
7591.00,1.20
7590.00,1.20
7589.00,1.21
7588.00,1.21
7587.00,1.21
7586.00,1.21
7585.00,1.21
7584.00,1.21
7583.00,1.21
7582.00,1.21
7581.00,1.21
7580.00,1.21
7579.00,1.21
7578.00,1.21
7577.00,1.21
7576.00,1.21
7575.00,1.20
7574.00,1.20
7573.00,1.20
7572.00,1.20
7571.00,1.20
7570.00,1.20
7569.00,1.20
7568.00,1.20
7567.00,1.20
7566.00,1.20
7565.00,1.20
7564.00,1.20
7563.00,1.19
7562.00,1.19
7561.00,1.19
7560.00,1.19
7559.00,1.19
7558.00,1.19
7557.00,1.19
7556.00,1.19
7555.00,1.19
7554.00,1.19
7553.00,1.19
7552.00,1.19
7551.00,1.19
7550.00,1.19
7549.00,1.19
7548.00,1.19
7547.00,1.19
7546.00,1.19
7545.00,1.19
7544.00,1.20
7543.00,1.20
7542.00,1.20
7541.00,1.20
7540.00,1.20
7539.00,1.20
7538.00,1.20
7537.00,1.20
7536.00,1.20
7535.00,1.20
7534.00,1.20
7533.00,1.20
7532.00,1.20
7531.00,1.21
7530.00,1.21
7529.00,1.21
7528.00,1.21
7527.00,1.21
7526.00,1.21
7525.00,1.21
7524.00,1.21
7523.00,1.21
7522.00,1.21
7521.00,1.21
7520.00,1.21
7519.00,1.21
7518.00,1.21
7517.00,1.21
7516.00,1.21
7515.00,1.20
7514.00,1.20
7513.00,1.20
7512.00,1.20
7511.00,1.20
7510.00,1.20
7509.00,1.20
7508.00,1.20
7507.00,1.20
7506.00,1.20
7505.00,1.20
7504.00,1.20
7503.00,1.19
7502.00,1.19
7501.00,1.19
7500.00,1.19
7499.00,1.19
7498.00,1.19
7497.00,1.19
7496.00,1.19
7495.00,1.19
7494.00,1.19
7493.00,1.19
7492.00,1.19
7491.00,1.19
7490.00,1.19
7489.00,1.19
7488.00,1.19
7487.00,1.19
7486.00,1.19
7485.00,1.19
7484.00,1.19
7483.00,1.19
7482.00,1.19
7481.00,1.19
7480.00,1.19
7479.00,1.19
7478.00,1.19
7477.00,1.19
7476.00,1.19
7475.00,1.19
7474.00,1.19
7473.00,1.19
7472.00,1.19
7471.00,1.19
7470.00,1.19
7469.00,1.19
7468.00,1.19
7467.00,1.19
7466.00,1.19
7465.00,1.20
7464.00,1.20
7463.00,1.20
7462.00,1.20
7461.00,1.20
7460.00,1.20
7459.00,1.20
7458.00,1.20
7457.00,1.20
7456.00,1.20
7455.00,1.20
7454.00,1.20
7453.00,1.20
7452.00,1.20
7451.00,1.20
7450.00,1.20
7449.00,1.20
7448.00,1.20
7447.00,1.20
7446.00,1.20
7445.00,1.20
7444.00,1.20
7443.00,1.20
7442.00,1.20
7441.00,1.20
7440.00,1.19
7439.00,1.19
7438.00,1.19
7437.00,1.19
7436.00,1.19
7435.00,1.19
7434.00,1.18
7433.00,1.18
7432.00,1.18
7431.00,1.18
7430.00,1.18
7429.00,1.18
7428.00,1.18
7427.00,1.18
7426.00,1.18
7425.00,1.18
7424.00,1.18
7423.00,1.18
7422.00,1.18
7421.00,1.18
7420.00,1.18
7419.00,1.18
7418.00,1.18
7417.00,1.18
7416.00,1.18
7415.00,1.18
7414.00,1.18
7413.00,1.18
7412.00,1.18
7411.00,1.18
7410.00,1.18
7409.00,1.18
7408.00,1.18
7407.00,1.19
7406.00,1.19
7405.00,1.19
7404.00,1.19
7403.00,1.19
7402.00,1.19
7401.00,1.19
7400.00,1.19
7399.00,1.19
7398.00,1.19
7397.00,1.19
7396.00,1.19
7395.00,1.19
7394.00,1.19
7393.00,1.20
7392.00,1.20
7391.00,1.20
7390.00,1.20
7389.00,1.20
7388.00,1.20
7387.00,1.20
7386.00,1.21
7385.00,1.21
7384.00,1.21
7383.00,1.21
7382.00,1.21
7381.00,1.21
7380.00,1.21
7379.00,1.21
7378.00,1.21
7377.00,1.21
7376.00,1.21
7375.00,1.21
7374.00,1.21
7373.00,1.20
7372.00,1.20
7371.00,1.20
7370.00,1.20
7369.00,1.20
7368.00,1.20
7367.00,1.20
7366.00,1.20
7365.00,1.19
7364.00,1.19
7363.00,1.19
7362.00,1.19
7361.00,1.19
7360.00,1.19
7359.00,1.19
7358.00,1.19
7357.00,1.19
7356.00,1.19
7355.00,1.19
7354.00,1.19
7353.00,1.19
7352.00,1.19
7351.00,1.19
7350.00,1.19
7349.00,1.19
7348.00,1.19
7347.00,1.19
7346.00,1.20
7345.00,1.20
7344.00,1.20
7343.00,1.20
7342.00,1.21
7341.00,1.21
7340.00,1.21
7339.00,1.21
7338.00,1.21
7337.00,1.22
7336.00,1.22
7335.00,1.22
7334.00,1.22
7333.00,1.22
7332.00,1.22
7331.00,1.22
7330.00,1.22
7329.00,1.22
7328.00,1.22
7327.00,1.22
7326.00,1.22
7325.00,1.22
7324.00,1.22
7323.00,1.22
7322.00,1.22
7321.00,1.22
7320.00,1.22
7319.00,1.22
7318.00,1.22
7317.00,1.22
7316.00,1.21
7315.00,1.21
7314.00,1.21
7313.00,1.21
7312.00,1.21
7311.00,1.20
7310.00,1.20
7309.00,1.20
7308.00,1.20
7307.00,1.20
7306.00,1.20
7305.00,1.19
7304.00,1.19
7303.00,1.19
7302.00,1.19
7301.00,1.19
7300.00,1.19
7299.00,1.19
7298.00,1.18
7297.00,1.18
7296.00,1.18
7295.00,1.18
7294.00,1.18
7293.00,1.18
7292.00,1.19
7291.00,1.19
7290.00,1.19
7289.00,1.19
7288.00,1.19
7287.00,1.19
7286.00,1.19
7285.00,1.19
7284.00,1.19
7283.00,1.19
7282.00,1.19
7281.00,1.19
7280.00,1.19
7279.00,1.19
7278.00,1.19
7277.00,1.19
7276.00,1.19
7275.00,1.19
7274.00,1.19
7273.00,1.19
7272.00,1.19
7271.00,1.19
7270.00,1.19
7269.00,1.19
7268.00,1.19
7267.00,1.18
7266.00,1.18
7265.00,1.18
7264.00,1.18
7263.00,1.18
7262.00,1.18
7261.00,1.18
7260.00,1.18
7259.00,1.18
7258.00,1.18
7257.00,1.18
7256.00,1.18
7255.00,1.18
7254.00,1.19
7253.00,1.19
7252.00,1.19
7251.00,1.19
7250.00,1.19
7249.00,1.19
7248.00,1.20
7247.00,1.20
7246.00,1.20
7245.00,1.21
7244.00,1.21
7243.00,1.22
7242.00,1.22
7241.00,1.22
7240.00,1.23
7239.00,1.23
7238.00,1.24
7237.00,1.24
7236.00,1.24
7235.00,1.24
7234.00,1.25
7233.00,1.25
7232.00,1.25
7231.00,1.25
7230.00,1.25
7229.00,1.25
7228.00,1.26
7227.00,1.26
7226.00,1.26
7225.00,1.26
7224.00,1.26
7223.00,1.26
7222.00,1.26
7221.00,1.26
7220.00,1.26
7219.00,1.25
7218.00,1.25
7217.00,1.25
7216.00,1.25
7215.00,1.24
7214.00,1.24
7213.00,1.24
7212.00,1.23
7211.00,1.23
7210.00,1.22
7209.00,1.22
7208.00,1.22
7207.00,1.21
7206.00,1.21
7205.00,1.21
7204.00,1.20
7203.00,1.20
7202.00,1.20
7201.00,1.20
7200.00,1.19
7199.00,1.19
7198.00,1.19
7197.00,1.18
7196.00,1.18
7195.00,1.17
7194.00,1.17
7193.00,1.17
7192.00,1.16
7191.00,1.16
7190.00,1.16
7189.00,1.16
7188.00,1.15
7187.00,1.15
7186.00,1.15
7185.00,1.15
7184.00,1.15
7183.00,1.15
7182.00,1.15
7181.00,1.15
7180.00,1.15
7179.00,1.15
7178.00,1.15
7177.00,1.15
7176.00,1.15
7175.00,1.15
7174.00,1.15
7173.00,1.15
7172.00,1.15
7171.00,1.15
7170.00,1.15
7169.00,1.15
7168.00,1.15
7167.00,1.15
7166.00,1.16
7165.00,1.16
7164.00,1.16
7163.00,1.16
7162.00,1.16
7161.00,1.16
7160.00,1.16
7159.00,1.16
7158.00,1.16
7157.00,1.16
7156.00,1.16
7155.00,1.16
7154.00,1.16
7153.00,1.16
7152.00,1.16
7151.00,1.16
7150.00,1.16
7149.00,1.16
7148.00,1.16
7147.00,1.16
7146.00,1.16
7145.00,1.16
7144.00,1.16
7143.00,1.16
7142.00,1.16
7141.00,1.15
7140.00,1.15
7139.00,1.15
7138.00,1.15
7137.00,1.15
7136.00,1.15
7135.00,1.15
7134.00,1.15
7133.00,1.16
7132.00,1.16
7131.00,1.16
7130.00,1.16
7129.00,1.16
7128.00,1.16
7127.00,1.16
7126.00,1.16
7125.00,1.16
7124.00,1.16
7123.00,1.16
7122.00,1.16
7121.00,1.16
7120.00,1.16
7119.00,1.16
7118.00,1.16
7117.00,1.16
7116.00,1.16
7115.00,1.16
7114.00,1.16
7113.00,1.16
7112.00,1.16
7111.00,1.16
7110.00,1.16
7109.00,1.16
7108.00,1.16
7107.00,1.16
7106.00,1.16
7105.00,1.15
7104.00,1.15
7103.00,1.15
7102.00,1.15
7101.00,1.15
7100.00,1.15
7099.00,1.14
7098.00,1.14
7097.00,1.14
7096.00,1.14
7095.00,1.14
7094.00,1.14
7093.00,1.14
7092.00,1.13
7091.00,1.13
7090.00,1.13
7089.00,1.13
7088.00,1.13
7087.00,1.13
7086.00,1.12
7085.00,1.12
7084.00,1.12
7083.00,1.12
7082.00,1.12
7081.00,1.12
7080.00,1.11
7079.00,1.11
7078.00,1.11
7077.00,1.11
7076.00,1.11
7075.00,1.11
7074.00,1.11
7073.00,1.10
7072.00,1.10
7071.00,1.10
7070.00,1.10
7069.00,1.10
7068.00,1.10
7067.00,1.09
7066.00,1.09
7065.00,1.09
7064.00,1.09
7063.00,1.09
7062.00,1.09
7061.00,1.08
7060.00,1.08
7059.00,1.08
7058.00,1.08
7057.00,1.08
7056.00,1.08
7055.00,1.08
7054.00,1.07
7053.00,1.07
7052.00,1.07
7051.00,1.07
7050.00,1.07
7049.00,1.07
7048.00,1.07
7047.00,1.07
7046.00,1.07
7045.00,1.06
7044.00,1.06
7043.00,1.06
7042.00,1.06
7041.00,1.06
7040.00,1.07
7039.00,1.07
7038.00,1.07
7037.00,1.07
7036.00,1.07
7035.00,1.07
7034.00,1.07
7033.00,1.07
7032.00,1.07
7031.00,1.07
7030.00,1.07
7029.00,1.07
7028.00,1.07
7027.00,1.07
7026.00,1.07
7025.00,1.07
7024.00,1.07
7023.00,1.07
7022.00,1.07
7021.00,1.07
7020.00,1.08
7019.00,1.08
7018.00,1.08
7017.00,1.08
7016.00,1.08
7015.00,1.08
7014.00,1.08
7013.00,1.08
7012.00,1.08
7011.00,1.08
7010.00,1.08
7009.00,1.08
7008.00,1.08
7007.00,1.08
7006.00,1.08
7005.00,1.08
7004.00,1.08
7003.00,1.08
7002.00,1.08
7001.00,1.08
7000.00,1.08
6999.00,1.08
6998.00,1.08
6997.00,1.08
6996.00,1.08
6995.00,1.08
6994.00,1.08
6993.00,1.08
6992.00,1.08
6991.00,1.08
6990.00,1.07
6989.00,1.07
6988.00,1.07
6987.00,1.07
6986.00,1.07
6985.00,1.07
6984.00,1.07
6983.00,1.07
6982.00,1.07
6981.00,1.07
6980.00,1.07
6979.00,1.07
6978.00,1.07
6977.00,1.07
6976.00,1.07
6975.00,1.07
6974.00,1.07
6973.00,1.07
6972.00,1.07
6971.00,1.07
6970.00,1.07
6969.00,1.07
6968.00,1.07
6967.00,1.07
6966.00,1.07
6965.00,1.07
6964.00,1.08
6963.00,1.08
6962.00,1.08
6961.00,1.08
6960.00,1.08
6959.00,1.08
6958.00,1.08
6957.00,1.08
6956.00,1.08
6955.00,1.09
6954.00,1.09
6953.00,1.09
6952.00,1.09
6951.00,1.09
6950.00,1.09
6949.00,1.09
6948.00,1.09
6947.00,1.09
6946.00,1.09
6945.00,1.09
6944.00,1.09
6943.00,1.09
6942.00,1.09
6941.00,1.09
6940.00,1.10
6939.00,1.10
6938.00,1.10
6937.00,1.10
6936.00,1.10
6935.00,1.10
6934.00,1.11
6933.00,1.11
6932.00,1.11
6931.00,1.11
6930.00,1.11
6929.00,1.11
6928.00,1.12
6927.00,1.12
6926.00,1.12
6925.00,1.12
6924.00,1.12
6923.00,1.12
6922.00,1.12
6921.00,1.12
6920.00,1.12
6919.00,1.12
6918.00,1.12
6917.00,1.12
6916.00,1.12
6915.00,1.12
6914.00,1.12
6913.00,1.12
6912.00,1.11
6911.00,1.11
6910.00,1.11
6909.00,1.11
6908.00,1.11
6907.00,1.10
6906.00,1.10
6905.00,1.10
6904.00,1.10
6903.00,1.09
6902.00,1.09
6901.00,1.09
6900.00,1.09
6899.00,1.09
6898.00,1.08
6897.00,1.08
6896.00,1.08
6895.00,1.08
6894.00,1.08
6893.00,1.08
6892.00,1.08
6891.00,1.08
6890.00,1.08
6889.00,1.08
6888.00,1.08
6887.00,1.08
6886.00,1.08
6885.00,1.08
6884.00,1.08
6883.00,1.08
6882.00,1.08
6881.00,1.08
6880.00,1.08
6879.00,1.08
6878.00,1.07
6877.00,1.07
6876.00,1.07
6875.00,1.07
6874.00,1.07
6873.00,1.07
6872.00,1.07
6871.00,1.07
6870.00,1.07
6869.00,1.07
6868.00,1.07
6867.00,1.07
6866.00,1.07
6865.00,1.06
6864.00,1.06
6863.00,1.06
6862.00,1.06
6861.00,1.06
6860.00,1.06
6859.00,1.06
6858.00,1.06
6857.00,1.06
6856.00,1.06
6855.00,1.06
6854.00,1.06
6853.00,1.06
6852.00,1.06
6851.00,1.06
6850.00,1.07
6849.00,1.07
6848.00,1.07
6847.00,1.07
6846.00,1.07
6845.00,1.07
6844.00,1.07
6843.00,1.07
6842.00,1.07
6841.00,1.07
6840.00,1.07
6839.00,1.07
6838.00,1.08
6837.00,1.08
6836.00,1.08
6835.00,1.08
6834.00,1.08
6833.00,1.08
6832.00,1.08
6831.00,1.08
6830.00,1.08
6829.00,1.08
6828.00,1.08
6827.00,1.08
6826.00,1.08
6825.00,1.08
6824.00,1.08
6823.00,1.08
6822.00,1.08
6821.00,1.08
6820.00,1.08
6819.00,1.08
6818.00,1.08
6817.00,1.08
6816.00,1.08
6815.00,1.07
6814.00,1.07
6813.00,1.07
6812.00,1.07
6811.00,1.07
6810.00,1.07
6809.00,1.07
6808.00,1.07
6807.00,1.07
6806.00,1.07
6805.00,1.07
6804.00,1.07
6803.00,1.07
6802.00,1.07
6801.00,1.07
6800.00,1.07
6799.00,1.07
6798.00,1.07
6797.00,1.07
6796.00,1.07
6795.00,1.07
6794.00,1.07
6793.00,1.08
6792.00,1.08
6791.00,1.08
6790.00,1.08
6789.00,1.08
6788.00,1.08
6787.00,1.08
6786.00,1.08
6785.00,1.08
6784.00,1.08
6783.00,1.08
6782.00,1.08
6781.00,1.08
6780.00,1.08
6779.00,1.08
6778.00,1.08
6777.00,1.08
6776.00,1.08
6775.00,1.08
6774.00,1.08
6773.00,1.08
6772.00,1.08
6771.00,1.08
6770.00,1.08
6769.00,1.07
6768.00,1.07
6767.00,1.07
6766.00,1.07
6765.00,1.07
6764.00,1.07
6763.00,1.07
6762.00,1.07
6761.00,1.06
6760.00,1.06
6759.00,1.06
6758.00,1.06
6757.00,1.06
6756.00,1.06
6755.00,1.06
6754.00,1.06
6753.00,1.06
6752.00,1.06
6751.00,1.06
6750.00,1.06
6749.00,1.06
6748.00,1.06
6747.00,1.06
6746.00,1.06
6745.00,1.06
6744.00,1.06
6743.00,1.06
6742.00,1.06
6741.00,1.06
6740.00,1.06
6739.00,1.06
6738.00,1.06
6737.00,1.07
6736.00,1.07
6735.00,1.07
6734.00,1.07
6733.00,1.07
6732.00,1.07
6731.00,1.07
6730.00,1.07
6729.00,1.07
6728.00,1.08
6727.00,1.08
6726.00,1.08
6725.00,1.08
6724.00,1.08
6723.00,1.08
6722.00,1.08
6721.00,1.08
6720.00,1.08
6719.00,1.08
6718.00,1.08
6717.00,1.07
6716.00,1.07
6715.00,1.07
6714.00,1.07
6713.00,1.07
6712.00,1.07
6711.00,1.07
6710.00,1.07
6709.00,1.07
6708.00,1.07
6707.00,1.07
6706.00,1.07
6705.00,1.07
6704.00,1.07
6703.00,1.07
6702.00,1.07
6701.00,1.07
6700.00,1.07
6699.00,1.07
6698.00,1.07
6697.00,1.07
6696.00,1.07
6695.00,1.08
6694.00,1.08
6693.00,1.08
6692.00,1.08
6691.00,1.09
6690.00,1.09
6689.00,1.09
6688.00,1.10
6687.00,1.10
6686.00,1.11
6685.00,1.11
6684.00,1.11
6683.00,1.12
6682.00,1.12
6681.00,1.12
6680.00,1.13
6679.00,1.13
6678.00,1.13
6677.00,1.13
6676.00,1.13
6675.00,1.13
6674.00,1.14
6673.00,1.14
6672.00,1.14
6671.00,1.14
6670.00,1.14
6669.00,1.14
6668.00,1.14
6667.00,1.14
6666.00,1.14
6665.00,1.14
6664.00,1.14
6663.00,1.14
6662.00,1.14
6661.00,1.14
6660.00,1.13
6659.00,1.13
6658.00,1.13
6657.00,1.13
6656.00,1.13
6655.00,1.13
6654.00,1.12
6653.00,1.12
6652.00,1.12
6651.00,1.12
6650.00,1.12
6649.00,1.12
6648.00,1.12
6647.00,1.12
6646.00,1.12
6645.00,1.12
6644.00,1.12
6643.00,1.12
6642.00,1.12
6641.00,1.13
6640.00,1.13
6639.00,1.13
6638.00,1.13
6637.00,1.13
6636.00,1.13
6635.00,1.13
6634.00,1.13
6633.00,1.13
6632.00,1.13
6631.00,1.13
6630.00,1.13
6629.00,1.13
6628.00,1.13
6627.00,1.13
6626.00,1.13
6625.00,1.13
6624.00,1.13
6623.00,1.13
6622.00,1.13
6621.00,1.13
6620.00,1.13
6619.00,1.13
6618.00,1.13
6617.00,1.13
6616.00,1.13
6615.00,1.13
6614.00,1.14
6613.00,1.14
6612.00,1.14
6611.00,1.14
6610.00,1.14
6609.00,1.14
6608.00,1.14
6607.00,1.15
6606.00,1.15
6605.00,1.15
6604.00,1.15
6603.00,1.15
6602.00,1.15
6601.00,1.16
6600.00,1.16
6599.00,1.16
6598.00,1.16
6597.00,1.16
6596.00,1.16
6595.00,1.16
6594.00,1.16
6593.00,1.16
6592.00,1.16
6591.00,1.16
6590.00,1.16
6589.00,1.16
6588.00,1.16
6587.00,1.16
6586.00,1.16
6585.00,1.16
6584.00,1.16
6583.00,1.16
6582.00,1.16
6581.00,1.16
6580.00,1.16
6579.00,1.15
6578.00,1.15
6577.00,1.15
6576.00,1.15
6575.00,1.15
6574.00,1.15
6573.00,1.15
6572.00,1.15
6571.00,1.15
6570.00,1.15
6569.00,1.15
6568.00,1.15
6567.00,1.15
6566.00,1.15
6565.00,1.15
6564.00,1.15
6563.00,1.15
6562.00,1.15
6561.00,1.15
6560.00,1.15
6559.00,1.15
6558.00,1.15
6557.00,1.15
6556.00,1.15
6555.00,1.15
6554.00,1.15
6553.00,1.15
6552.00,1.15
6551.00,1.15
6550.00,1.15
6549.00,1.15
6548.00,1.15
6547.00,1.15
6546.00,1.15
6545.00,1.15
6544.00,1.15
6543.00,1.15
6542.00,1.15
6541.00,1.15
6540.00,1.15
6539.00,1.15
6538.00,1.15
6537.00,1.15
6536.00,1.15
6535.00,1.15
6534.00,1.15
6533.00,1.15
6532.00,1.15
6531.00,1.15
6530.00,1.15
6529.00,1.15
6528.00,1.15
6527.00,1.15
6526.00,1.15
6525.00,1.15
6524.00,1.15
6523.00,1.15
6522.00,1.15
6521.00,1.15
6520.00,1.15
6519.00,1.15
6518.00,1.15
6517.00,1.15
6516.00,1.15
6515.00,1.15
6514.00,1.15
6513.00,1.15
6512.00,1.15
6511.00,1.15
6510.00,1.15
6509.00,1.15
6508.00,1.15
6507.00,1.15
6506.00,1.15
6505.00,1.15
6504.00,1.16
6503.00,1.16
6502.00,1.16
6501.00,1.16
6500.00,1.16
6499.00,1.16
6498.00,1.16
6497.00,1.16
6496.00,1.16
6495.00,1.16
6494.00,1.16
6493.00,1.16
6492.00,1.16
6491.00,1.16
6490.00,1.16
6489.00,1.16
6488.00,1.16
6487.00,1.16
6486.00,1.16
6485.00,1.16
6484.00,1.16
6483.00,1.17
6482.00,1.17
6481.00,1.17
6480.00,1.17
6479.00,1.17
6478.00,1.17
6477.00,1.17
6476.00,1.17
6475.00,1.17
6474.00,1.17
6473.00,1.17
6472.00,1.17
6471.00,1.17
6470.00,1.18
6469.00,1.18
6468.00,1.18
6467.00,1.18
6466.00,1.18
6465.00,1.18
6464.00,1.18
6463.00,1.18
6462.00,1.18
6461.00,1.18
6460.00,1.17
6459.00,1.17
6458.00,1.17
6457.00,1.17
6456.00,1.17
6455.00,1.17
6454.00,1.17
6453.00,1.17
6452.00,1.17
6451.00,1.17
6450.00,1.17
6449.00,1.17
6448.00,1.17
6447.00,1.17
6446.00,1.17
6445.00,1.17
6444.00,1.17
6443.00,1.17
6442.00,1.17
6441.00,1.17
6440.00,1.17
6439.00,1.17
6438.00,1.17
6437.00,1.18
6436.00,1.18
6435.00,1.18
6434.00,1.18
6433.00,1.18
6432.00,1.18
6431.00,1.18
6430.00,1.18
6429.00,1.18
6428.00,1.18
6427.00,1.18
6426.00,1.18
6425.00,1.18
6424.00,1.18
6423.00,1.18
6422.00,1.18
6421.00,1.18
6420.00,1.18
6419.00,1.18
6418.00,1.18
6417.00,1.18
6416.00,1.18
6415.00,1.18
6414.00,1.18
6413.00,1.18
6412.00,1.18
6411.00,1.18
6410.00,1.18
6409.00,1.18
6408.00,1.18
6407.00,1.18
6406.00,1.18
6405.00,1.18
6404.00,1.19
6403.00,1.19
6402.00,1.19
6401.00,1.19
6400.00,1.19
6399.00,1.19
6398.00,1.19
6397.00,1.19
6396.00,1.19
6395.00,1.19
6394.00,1.19
6393.00,1.19
6392.00,1.19
6391.00,1.20
6390.00,1.20
6389.00,1.20
6388.00,1.20
6387.00,1.20
6386.00,1.20
6385.00,1.20
6384.00,1.19
6383.00,1.19
6382.00,1.19
6381.00,1.19
6380.00,1.19
6379.00,1.19
6378.00,1.18
6377.00,1.18
6376.00,1.18
6375.00,1.18
6374.00,1.18
6373.00,1.18
6372.00,1.18
6371.00,1.18
6370.00,1.17
6369.00,1.17
6368.00,1.17
6367.00,1.17
6366.00,1.17
6365.00,1.17
6364.00,1.17
6363.00,1.17
6362.00,1.17
6361.00,1.17
6360.00,1.17
6359.00,1.17
6358.00,1.17
6357.00,1.18
6356.00,1.18
6355.00,1.18
6354.00,1.18
6353.00,1.19
6352.00,1.19
6351.00,1.19
6350.00,1.19
6349.00,1.20
6348.00,1.20
6347.00,1.20
6346.00,1.20
6345.00,1.21
6344.00,1.21
6343.00,1.21
6342.00,1.21
6341.00,1.22
6340.00,1.22
6339.00,1.22
6338.00,1.22
6337.00,1.23
6336.00,1.23
6335.00,1.23
6334.00,1.23
6333.00,1.23
6332.00,1.24
6331.00,1.24
6330.00,1.24
6329.00,1.24
6328.00,1.24
6327.00,1.24
6326.00,1.24
6325.00,1.24
6324.00,1.24
6323.00,1.24
6322.00,1.24
6321.00,1.24
6320.00,1.24
6319.00,1.24
6318.00,1.24
6317.00,1.24
6316.00,1.24
6315.00,1.23
6314.00,1.23
6313.00,1.23
6312.00,1.23
6311.00,1.23
6310.00,1.23
6309.00,1.23
6308.00,1.23
6307.00,1.23
6306.00,1.22
6305.00,1.22
6304.00,1.22
6303.00,1.22
6302.00,1.22
6301.00,1.22
6300.00,1.22
6299.00,1.22
6298.00,1.22
6297.00,1.22
6296.00,1.22
6295.00,1.22
6294.00,1.22
6293.00,1.22
6292.00,1.22
6291.00,1.22
6290.00,1.22
6289.00,1.22
6288.00,1.22
6287.00,1.22
6286.00,1.22
6285.00,1.22
6284.00,1.22
6283.00,1.22
6282.00,1.22
6281.00,1.23
6280.00,1.23
6279.00,1.23
6278.00,1.23
6277.00,1.23
6276.00,1.23
6275.00,1.23
6274.00,1.23
6273.00,1.23
6272.00,1.24
6271.00,1.24
6270.00,1.24
6269.00,1.24
6268.00,1.24
6267.00,1.24
6266.00,1.24
6265.00,1.23
6264.00,1.23
6263.00,1.23
6262.00,1.23
6261.00,1.23
6260.00,1.23
6259.00,1.23
6258.00,1.23
6257.00,1.22
6256.00,1.22
6255.00,1.22
6254.00,1.22
6253.00,1.22
6252.00,1.22
6251.00,1.21
6250.00,1.21
6249.00,1.21
6248.00,1.21
6247.00,1.21
6246.00,1.21
6245.00,1.20
6244.00,1.20
6243.00,1.20
6242.00,1.20
6241.00,1.20
6240.00,1.20
6239.00,1.20
6238.00,1.20
6237.00,1.20
6236.00,1.20
6235.00,1.20
6234.00,1.20
6233.00,1.20
6232.00,1.21
6231.00,1.21
6230.00,1.21
6229.00,1.21
6228.00,1.21
6227.00,1.21
6226.00,1.21
6225.00,1.21
6224.00,1.21
6223.00,1.21
6222.00,1.21
6221.00,1.21
6220.00,1.21
6219.00,1.21
6218.00,1.21
6217.00,1.22
6216.00,1.22
6215.00,1.22
6214.00,1.22
6213.00,1.22
6212.00,1.22
6211.00,1.22
6210.00,1.22
6209.00,1.22
6208.00,1.22
6207.00,1.22
6206.00,1.22
6205.00,1.22
6204.00,1.22
6203.00,1.22
6202.00,1.22
6201.00,1.22
6200.00,1.22
6199.00,1.22
6198.00,1.22
6197.00,1.22
6196.00,1.22
6195.00,1.22
6194.00,1.22
6193.00,1.22
6192.00,1.22
6191.00,1.22
6190.00,1.22
6189.00,1.22
6188.00,1.22
6187.00,1.23
6186.00,1.23
6185.00,1.23
6184.00,1.23
6183.00,1.23
6182.00,1.23
6181.00,1.23
6180.00,1.23
6179.00,1.23
6178.00,1.23
6177.00,1.23
6176.00,1.23
6175.00,1.23
6174.00,1.23
6173.00,1.23
6172.00,1.23
6171.00,1.23
6170.00,1.23
6169.00,1.23
6168.00,1.23
6167.00,1.23
6166.00,1.23
6165.00,1.23
6164.00,1.24
6163.00,1.24
6162.00,1.24
6161.00,1.23
6160.00,1.23
6159.00,1.23
6158.00,1.23
6157.00,1.23
6156.00,1.23
6155.00,1.24
6154.00,1.24
6153.00,1.24
6152.00,1.24
6151.00,1.24
6150.00,1.24
6149.00,1.24
6148.00,1.24
6147.00,1.24
6146.00,1.24
6145.00,1.24
6144.00,1.25
6143.00,1.25
6142.00,1.25
6141.00,1.25
6140.00,1.25
6139.00,1.25
6138.00,1.26
6137.00,1.26
6136.00,1.26
6135.00,1.26
6134.00,1.26
6133.00,1.27
6132.00,1.27
6131.00,1.27
6130.00,1.27
6129.00,1.27
6128.00,1.27
6127.00,1.28
6126.00,1.28
6125.00,1.28
6124.00,1.28
6123.00,1.28
6122.00,1.28
6121.00,1.28
6120.00,1.28
6119.00,1.28
6118.00,1.28
6117.00,1.28
6116.00,1.29
6115.00,1.29
6114.00,1.29
6113.00,1.28
6112.00,1.28
6111.00,1.28
6110.00,1.28
6109.00,1.28
6108.00,1.28
6107.00,1.28
6106.00,1.28
6105.00,1.28
6104.00,1.28
6103.00,1.28
6102.00,1.28
6101.00,1.28
6100.00,1.28
6099.00,1.28
6098.00,1.28
6097.00,1.28
6096.00,1.28
6095.00,1.28
6094.00,1.28
6093.00,1.28
6092.00,1.28
6091.00,1.28
6090.00,1.28
6089.00,1.28
6088.00,1.28
6087.00,1.28
6086.00,1.28
6085.00,1.28
6084.00,1.28
6083.00,1.28
6082.00,1.28
6081.00,1.28
6080.00,1.28
6079.00,1.28
6078.00,1.28
6077.00,1.28
6076.00,1.28
6075.00,1.28
6074.00,1.28
6073.00,1.28
6072.00,1.28
6071.00,1.28
6070.00,1.28
6069.00,1.28
6068.00,1.27
6067.00,1.27
6066.00,1.27
6065.00,1.27
6064.00,1.27
6063.00,1.27
6062.00,1.27
6061.00,1.27
6060.00,1.26
6059.00,1.26
6058.00,1.26
6057.00,1.26
6056.00,1.26
6055.00,1.26
6054.00,1.25
6053.00,1.25
6052.00,1.25
6051.00,1.25
6050.00,1.25
6049.00,1.25
6048.00,1.25
6047.00,1.25
6046.00,1.25
6045.00,1.25
6044.00,1.25
6043.00,1.25
6042.00,1.25
6041.00,1.25
6040.00,1.25
6039.00,1.25
6038.00,1.25
6037.00,1.25
6036.00,1.25
6035.00,1.25
6034.00,1.25
6033.00,1.25
6032.00,1.25
6031.00,1.25
6030.00,1.25
6029.00,1.25
6028.00,1.25
6027.00,1.26
6026.00,1.26
6025.00,1.26
6024.00,1.26
6023.00,1.26
6022.00,1.26
6021.00,1.26
6020.00,1.26
6019.00,1.26
6018.00,1.26
6017.00,1.26
6016.00,1.26
6015.00,1.26
6014.00,1.26
6013.00,1.26
6012.00,1.26
6011.00,1.26
6010.00,1.26
6009.00,1.26
6008.00,1.26
6007.00,1.26
6006.00,1.26
6005.00,1.26
6004.00,1.26
6003.00,1.26
6002.00,1.26
6001.00,1.25
6000.00,1.25
5999.00,1.25
5998.00,1.25
5997.00,1.25
5996.00,1.25
5995.00,1.25
5994.00,1.25
5993.00,1.25
5992.00,1.25
5991.00,1.25
5990.00,1.25
5989.00,1.25
5988.00,1.25
5987.00,1.25
5986.00,1.25
5985.00,1.25
5984.00,1.25
5983.00,1.25
5982.00,1.25
5981.00,1.26
5980.00,1.26
5979.00,1.26
5978.00,1.26
5977.00,1.26
5976.00,1.26
5975.00,1.26
5974.00,1.26
5973.00,1.26
5972.00,1.27
5971.00,1.27
5970.00,1.27
5969.00,1.27
5968.00,1.27
5967.00,1.27
5966.00,1.27
5965.00,1.27
5964.00,1.27
5963.00,1.27
5962.00,1.27
5961.00,1.27
5960.00,1.27
5959.00,1.27
5958.00,1.27
5957.00,1.27
5956.00,1.27
5955.00,1.27
5954.00,1.27
5953.00,1.27
5952.00,1.27
5951.00,1.27
5950.00,1.27
5949.00,1.27
5948.00,1.27
5947.00,1.27
5946.00,1.27
5945.00,1.27
5944.00,1.27
5943.00,1.27
5942.00,1.27
5941.00,1.27
5940.00,1.27
5939.00,1.27
5938.00,1.27
5937.00,1.27
5936.00,1.27
5935.00,1.27
5934.00,1.27
5933.00,1.27
5932.00,1.27
5931.00,1.27
5930.00,1.27
5929.00,1.27
5928.00,1.27
5927.00,1.28
5926.00,1.28
5925.00,1.28
5924.00,1.28
5923.00,1.28
5922.00,1.28
5921.00,1.28
5920.00,1.28
5919.00,1.28
5918.00,1.28
5917.00,1.28
5916.00,1.28
5915.00,1.28
5914.00,1.28
5913.00,1.28
5912.00,1.28
5911.00,1.28
5910.00,1.28
5909.00,1.28
5908.00,1.28
5907.00,1.28
5906.00,1.28
5905.00,1.27
5904.00,1.27
5903.00,1.27
5902.00,1.27
5901.00,1.27
5900.00,1.27
5899.00,1.27
5898.00,1.27
5897.00,1.27
5896.00,1.27
5895.00,1.27
5894.00,1.27
5893.00,1.27
5892.00,1.27
5891.00,1.27
5890.00,1.27
5889.00,1.27
5888.00,1.27
5887.00,1.27
5886.00,1.27
5885.00,1.27
5884.00,1.27
5883.00,1.28
5882.00,1.28
5881.00,1.28
5880.00,1.28
5879.00,1.28
5878.00,1.28
5877.00,1.28
5876.00,1.28
5875.00,1.28
5874.00,1.28
5873.00,1.28
5872.00,1.28
5871.00,1.28
5870.00,1.28
5869.00,1.28
5868.00,1.28
5867.00,1.28
5866.00,1.28
5865.00,1.28
5864.00,1.27
5863.00,1.27
5862.00,1.27
5861.00,1.27
5860.00,1.27
5859.00,1.26
5858.00,1.26
5857.00,1.26
5856.00,1.26
5855.00,1.26
5854.00,1.25
5853.00,1.25
5852.00,1.25
5851.00,1.25
5850.00,1.24
5849.00,1.24
5848.00,1.24
5847.00,1.24
5846.00,1.24
5845.00,1.23
5844.00,1.23
5843.00,1.23
5842.00,1.23
5841.00,1.23
5840.00,1.23
5839.00,1.23
5838.00,1.23
5837.00,1.23
5836.00,1.23
5835.00,1.22
5834.00,1.22
5833.00,1.22
5832.00,1.23
5831.00,1.23
5830.00,1.23
5829.00,1.23
5828.00,1.23
5827.00,1.23
5826.00,1.23
5825.00,1.23
5824.00,1.23
5823.00,1.23
5822.00,1.23
5821.00,1.23
5820.00,1.24
5819.00,1.24
5818.00,1.24
5817.00,1.24
5816.00,1.24
5815.00,1.24
5814.00,1.24
5813.00,1.24
5812.00,1.25
5811.00,1.25
5810.00,1.25
5809.00,1.25
5808.00,1.25
5807.00,1.25
5806.00,1.26
5805.00,1.26
5804.00,1.26
5803.00,1.26
5802.00,1.26
5801.00,1.26
5800.00,1.26
5799.00,1.26
5798.00,1.26
5797.00,1.26
5796.00,1.26
5795.00,1.26
5794.00,1.26
5793.00,1.26
5792.00,1.26
5791.00,1.26
5790.00,1.26
5789.00,1.26
5788.00,1.26
5787.00,1.26
5786.00,1.26
5785.00,1.26
5784.00,1.26
5783.00,1.26
5782.00,1.26
5781.00,1.26
5780.00,1.26
5779.00,1.26
5778.00,1.26
5777.00,1.26
5776.00,1.26
5775.00,1.26
5774.00,1.26
5773.00,1.26
5772.00,1.26
5771.00,1.26
5770.00,1.26
5769.00,1.26
5768.00,1.26
5767.00,1.26
5766.00,1.26
5765.00,1.26
5764.00,1.26
5763.00,1.26
5762.00,1.26
5761.00,1.26
5760.00,1.26
5759.00,1.26
5758.00,1.26
5757.00,1.26
5756.00,1.26
5755.00,1.26
5754.00,1.26
5753.00,1.26
5752.00,1.26
5751.00,1.26
5750.00,1.26
5749.00,1.26
5748.00,1.26
5747.00,1.26
5746.00,1.26
5745.00,1.26
5744.00,1.26
5743.00,1.26
5742.00,1.26
5741.00,1.26
5740.00,1.26
5739.00,1.26
5738.00,1.26
5737.00,1.26
5736.00,1.26
5735.00,1.26
5734.00,1.26
5733.00,1.26
5732.00,1.26
5731.00,1.26
5730.00,1.26
5729.00,1.26
5728.00,1.26
5727.00,1.26
5726.00,1.26
5725.00,1.26
5724.00,1.26
5723.00,1.27
5722.00,1.27
5721.00,1.27
5720.00,1.27
5719.00,1.27
5718.00,1.27
5717.00,1.27
5716.00,1.27
5715.00,1.27
5714.00,1.27
5713.00,1.27
5712.00,1.27
5711.00,1.27
5710.00,1.27
5709.00,1.27
5708.00,1.27
5707.00,1.27
5706.00,1.26
5705.00,1.26
5704.00,1.26
5703.00,1.26
5702.00,1.26
5701.00,1.26
5700.00,1.26
5699.00,1.26
5698.00,1.26
5697.00,1.26
5696.00,1.26
5695.00,1.26
5694.00,1.26
5693.00,1.26
5692.00,1.26
5691.00,1.26
5690.00,1.26
5689.00,1.26
5688.00,1.26
5687.00,1.26
5686.00,1.26
5685.00,1.26
5684.00,1.26
5683.00,1.26
5682.00,1.26
5681.00,1.27
5680.00,1.27
5679.00,1.27
5678.00,1.27
5677.00,1.27
5676.00,1.27
5675.00,1.27
5674.00,1.26
5673.00,1.26
5672.00,1.26
5671.00,1.26
5670.00,1.26
5669.00,1.27
5668.00,1.27
5667.00,1.27
5666.00,1.27
5665.00,1.26
5664.00,1.26
5663.00,1.26
5662.00,1.26
5661.00,1.26
5660.00,1.26
5659.00,1.26
5658.00,1.26
5657.00,1.26
5656.00,1.26
5655.00,1.26
5654.00,1.26
5653.00,1.26
5652.00,1.26
5651.00,1.26
5650.00,1.27
5649.00,1.27
5648.00,1.27
5647.00,1.27
5646.00,1.27
5645.00,1.27
5644.00,1.27
5643.00,1.27
5642.00,1.27
5641.00,1.26
5640.00,1.26
5639.00,1.26
5638.00,1.26
5637.00,1.26
5636.00,1.26
5635.00,1.26
5634.00,1.26
5633.00,1.26
5632.00,1.26
5631.00,1.26
5630.00,1.26
5629.00,1.26
5628.00,1.26
5627.00,1.26
5626.00,1.26
5625.00,1.26
5624.00,1.26
5623.00,1.26
5622.00,1.26
5621.00,1.26
5620.00,1.26
5619.00,1.26
5618.00,1.26
5617.00,1.26
5616.00,1.27
5615.00,1.27
5614.00,1.27
5613.00,1.27
5612.00,1.27
5611.00,1.27
5610.00,1.27
5609.00,1.27
5608.00,1.27
5607.00,1.27
5606.00,1.27
5605.00,1.27
5604.00,1.28
5603.00,1.28
5602.00,1.28
5601.00,1.28
5600.00,1.28
5599.00,1.28
5598.00,1.27
5597.00,1.27
5596.00,1.27
5595.00,1.27
5594.00,1.27
5593.00,1.27
5592.00,1.27
5591.00,1.27
5590.00,1.26
5589.00,1.26
5588.00,1.26
5587.00,1.26
5586.00,1.26
5585.00,1.26
5584.00,1.25
5583.00,1.25
5582.00,1.25
5581.00,1.25
5580.00,1.25
5579.00,1.24
5578.00,1.24
5577.00,1.24
5576.00,1.24
5575.00,1.24
5574.00,1.24
5573.00,1.24
5572.00,1.24
5571.00,1.24
5570.00,1.24
5569.00,1.24
5568.00,1.24
5567.00,1.24
5566.00,1.24
5565.00,1.24
5564.00,1.24
5563.00,1.24
5562.00,1.24
5561.00,1.24
5560.00,1.24
5559.00,1.24
5558.00,1.24
5557.00,1.24
5556.00,1.24
5555.00,1.24
5554.00,1.24
5553.00,1.24
5552.00,1.24
5551.00,1.24
5550.00,1.24
5549.00,1.25
5548.00,1.25
5547.00,1.25
5546.00,1.25
5545.00,1.25
5544.00,1.25
5543.00,1.25
5542.00,1.25
5541.00,1.25
5540.00,1.25
5539.00,1.26
5538.00,1.26
5537.00,1.26
5536.00,1.26
5535.00,1.26
5534.00,1.26
5533.00,1.26
5532.00,1.26
5531.00,1.26
5530.00,1.26
5529.00,1.26
5528.00,1.26
5527.00,1.26
5526.00,1.26
5525.00,1.27
5524.00,1.27
5523.00,1.27
5522.00,1.27
5521.00,1.27
5520.00,1.27
5519.00,1.27
5518.00,1.27
5517.00,1.27
5516.00,1.27
5515.00,1.27
5514.00,1.27
5513.00,1.27
5512.00,1.27
5511.00,1.27
5510.00,1.27
5509.00,1.27
5508.00,1.28
5507.00,1.28
5506.00,1.28
5505.00,1.28
5504.00,1.28
5503.00,1.28
5502.00,1.28
5501.00,1.28
5500.00,1.28
5499.00,1.28
5498.00,1.28
5497.00,1.28
5496.00,1.28
5495.00,1.28
5494.00,1.28
5493.00,1.28
5492.00,1.28
5491.00,1.28
5490.00,1.28
5489.00,1.28
5488.00,1.28
5487.00,1.28
5486.00,1.28
5485.00,1.28
5484.00,1.28
5483.00,1.28
5482.00,1.28
5481.00,1.28
5480.00,1.28
5479.00,1.28
5478.00,1.28
5477.00,1.28
5476.00,1.28
5475.00,1.28
5474.00,1.28
5473.00,1.28
5472.00,1.28
5471.00,1.28
5470.00,1.28
5469.00,1.28
5468.00,1.28
5467.00,1.28
5466.00,1.28
5465.00,1.28
5464.00,1.28
5463.00,1.28
5462.00,1.29
5461.00,1.29
5460.00,1.29
5459.00,1.29
5458.00,1.29
5457.00,1.29
5456.00,1.30
5455.00,1.30
5454.00,1.30
5453.00,1.30
5452.00,1.30
5451.00,1.31
5450.00,1.31
5449.00,1.31
5448.00,1.31
5447.00,1.31
5446.00,1.32
5445.00,1.32
5444.00,1.32
5443.00,1.32
5442.00,1.32
5441.00,1.32
5440.00,1.32
5439.00,1.32
5438.00,1.32
5437.00,1.33
5436.00,1.33
5435.00,1.33
5434.00,1.32
5433.00,1.32
5432.00,1.32
5431.00,1.32
5430.00,1.32
5429.00,1.32
5428.00,1.32
5427.00,1.32
5426.00,1.32
5425.00,1.31
5424.00,1.31
5423.00,1.31
5422.00,1.31
5421.00,1.31
5420.00,1.30
5419.00,1.30
5418.00,1.30
5417.00,1.30
5416.00,1.30
5415.00,1.30
5414.00,1.30
5413.00,1.30
5412.00,1.30
5411.00,1.30
5410.00,1.30
5409.00,1.30
5408.00,1.29
5407.00,1.29
5406.00,1.29
5405.00,1.29
5404.00,1.29
5403.00,1.29
5402.00,1.30
5401.00,1.30
5400.00,1.30
5399.00,1.30
5398.00,1.30
5397.00,1.30
5396.00,1.30
5395.00,1.30
5394.00,1.30
5393.00,1.30
5392.00,1.30
5391.00,1.30
5390.00,1.30
5389.00,1.30
5388.00,1.30
5387.00,1.30
5386.00,1.30
5385.00,1.30
5384.00,1.30
5383.00,1.30
5382.00,1.30
5381.00,1.30
5380.00,1.30
5379.00,1.30
5378.00,1.30
5377.00,1.30
5376.00,1.30
5375.00,1.30
5374.00,1.30
5373.00,1.30
5372.00,1.30
5371.00,1.29
5370.00,1.29
5369.00,1.29
5368.00,1.29
5367.00,1.29
5366.00,1.28
5365.00,1.28
5364.00,1.28
5363.00,1.28
5362.00,1.28
5361.00,1.27
5360.00,1.27
5359.00,1.27
5358.00,1.27
5357.00,1.27
5356.00,1.26
5355.00,1.26
5354.00,1.26
5353.00,1.26
5352.00,1.26
5351.00,1.26
5350.00,1.26
5349.00,1.26
5348.00,1.26
5347.00,1.26
5346.00,1.26
5345.00,1.26
5344.00,1.26
5343.00,1.26
5342.00,1.26
5341.00,1.26
5340.00,1.26
5339.00,1.26
5338.00,1.26
5337.00,1.26
5336.00,1.26
5335.00,1.26
5334.00,1.26
5333.00,1.26
5332.00,1.26
5331.00,1.26
5330.00,1.26
5329.00,1.26
5328.00,1.26
5327.00,1.26
5326.00,1.26
5325.00,1.26
5324.00,1.26
5323.00,1.25
5322.00,1.25
5321.00,1.25
5320.00,1.25
5319.00,1.24
5318.00,1.24
5317.00,1.24
5316.00,1.23
5315.00,1.23
5314.00,1.23
5313.00,1.22
5312.00,1.22
5311.00,1.21
5310.00,1.21
5309.00,1.21
5308.00,1.20
5307.00,1.20
5306.00,1.19
5305.00,1.19
5304.00,1.18
5303.00,1.17
5302.00,1.17
5301.00,1.16
5300.00,1.16
5299.00,1.15
5298.00,1.15
5297.00,1.14
5296.00,1.14
5295.00,1.13
5294.00,1.13
5293.00,1.13
5292.00,1.12
5291.00,1.12
5290.00,1.11
5289.00,1.11
5288.00,1.11
5287.00,1.10
5286.00,1.10
5285.00,1.10
5284.00,1.09
5283.00,1.09
5282.00,1.09
5281.00,1.09
5280.00,1.09
5279.00,1.09
5278.00,1.08
5277.00,1.08
5276.00,1.08
5275.00,1.08
5274.00,1.08
5273.00,1.08
5272.00,1.08
5271.00,1.08
5270.00,1.08
5269.00,1.08
5268.00,1.08
5267.00,1.07
5266.00,1.07
5265.00,1.07
5264.00,1.07
5263.00,1.07
5262.00,1.07
5261.00,1.07
5260.00,1.06
5259.00,1.06
5258.00,1.06
5257.00,1.06
5256.00,1.05
5255.00,1.05
5254.00,1.05
5253.00,1.04
5252.00,1.04
5251.00,1.04
5250.00,1.03
5249.00,1.03
5248.00,1.03
5247.00,1.03
5246.00,1.02
5245.00,1.02
5244.00,1.02
5243.00,1.02
5242.00,1.02
5241.00,1.01
5240.00,1.01
5239.00,1.01
5238.00,1.01
5237.00,1.01
5236.00,1.00
5235.00,1.00
5234.00,1.00
5233.00,1.00
5232.00,1.00
5231.00,1.00
5230.00,1.00
5229.00,1.00
5228.00,1.00
5227.00,0.99
5226.00,0.99
5225.00,0.99
5224.00,0.99
5223.00,0.99
5222.00,0.99
5221.00,0.99
5220.00,0.98
5219.00,0.98
5218.00,0.98
5217.00,0.98
5216.00,0.98
5215.00,0.98
5214.00,0.97
5213.00,0.97
5212.00,0.97
5211.00,0.97
5210.00,0.97
5209.00,0.96
5208.00,0.96
5207.00,0.96
5206.00,0.96
5205.00,0.95
5204.00,0.95
5203.00,0.95
5202.00,0.95
5201.00,0.95
5200.00,0.94
5199.00,0.94
5198.00,0.94
5197.00,0.94
5196.00,0.94
5195.00,0.94
5194.00,0.94
5193.00,0.93
5192.00,0.93
5191.00,0.93
5190.00,0.93
5189.00,0.93
5188.00,0.93
5187.00,0.93
5186.00,0.93
5185.00,0.92
5184.00,0.92
5183.00,0.92
5182.00,0.92
5181.00,0.92
5180.00,0.92
5179.00,0.92
5178.00,0.92
5177.00,0.92
5176.00,0.92
5175.00,0.92
5174.00,0.93
5173.00,0.93
5172.00,0.93
5171.00,0.93
5170.00,0.93
5169.00,0.93
5168.00,0.93
5167.00,0.93
5166.00,0.93
5165.00,0.93
5164.00,0.94
5163.00,0.94
5162.00,0.94
5161.00,0.94
5160.00,0.94
5159.00,0.94
5158.00,0.95
5157.00,0.95
5156.00,0.95
5155.00,0.95
5154.00,0.95
5153.00,0.95
5152.00,0.96
5151.00,0.96
5150.00,0.96
5149.00,0.96
5148.00,0.96
5147.00,0.96
5146.00,0.96
5145.00,0.96
5144.00,0.96
5143.00,0.96
5142.00,0.96
5141.00,0.97
5140.00,0.97
5139.00,0.97
5138.00,0.97
5137.00,0.97
5136.00,0.97
5135.00,0.97
5134.00,0.97
5133.00,0.97
5132.00,0.97
5131.00,0.98
5130.00,0.98
5129.00,0.98
5128.00,0.98
5127.00,0.98
5126.00,0.98
5125.00,0.98
5124.00,0.98
5123.00,0.98
5122.00,0.98
5121.00,0.99
5120.00,0.99
5119.00,0.99
5118.00,0.99
5117.00,0.99
5116.00,0.99
5115.00,0.99
5114.00,0.99
5113.00,0.99
5112.00,0.99
5111.00,0.99
5110.00,0.99
5109.00,1.00
5108.00,1.00
5107.00,1.00
5106.00,1.00
5105.00,1.00
5104.00,1.00
5103.00,1.00
5102.00,1.00
5101.00,1.00
5100.00,1.00
5099.00,1.00
5098.00,1.00
5097.00,1.00
5096.00,1.00
5095.00,1.00
5094.00,1.01
5093.00,1.01
5092.00,1.01
5091.00,1.01
5090.00,1.01
5089.00,1.01
5088.00,1.01
5087.00,1.02
5086.00,1.02
5085.00,1.02
5084.00,1.02
5083.00,1.02
5082.00,1.02
5081.00,1.02
5080.00,1.02
5079.00,1.02
5078.00,1.03
5077.00,1.03
5076.00,1.03
5075.00,1.03
5074.00,1.03
5073.00,1.03
5072.00,1.03
5071.00,1.03
5070.00,1.03
5069.00,1.03
5068.00,1.03
5067.00,1.03
5066.00,1.03
5065.00,1.03
5064.00,1.03
5063.00,1.03
5062.00,1.03
5061.00,1.04
5060.00,1.04
5059.00,1.04
5058.00,1.04
5057.00,1.04
5056.00,1.04
5055.00,1.04
5054.00,1.05
5053.00,1.05
5052.00,1.05
5051.00,1.05
5050.00,1.05
5049.00,1.06
5048.00,1.06
5047.00,1.06
5046.00,1.07
5045.00,1.07
5044.00,1.07
5043.00,1.07
5042.00,1.08
5041.00,1.08
5040.00,1.08
5039.00,1.09
5038.00,1.09
5037.00,1.09
5036.00,1.09
5035.00,1.09
5034.00,1.10
5033.00,1.10
5032.00,1.10
5031.00,1.10
5030.00,1.10
5029.00,1.10
5028.00,1.11
5027.00,1.11
5026.00,1.11
5025.00,1.11
5024.00,1.11
5023.00,1.11
5022.00,1.11
5021.00,1.11
5020.00,1.11
5019.00,1.11
5018.00,1.11
5017.00,1.11
5016.00,1.11
5015.00,1.11
5014.00,1.11
5013.00,1.11
5012.00,1.11
5011.00,1.11
5010.00,1.11
5009.00,1.11
5008.00,1.11
5007.00,1.11
5006.00,1.11
5005.00,1.11
5004.00,1.11
5003.00,1.11
5002.00,1.11
5001.00,1.11
5000.00,1.11
4999.00,1.11
4998.00,1.11
4997.00,1.11
4996.00,1.12
4995.00,1.12
4994.00,1.12
4993.00,1.12
4992.00,1.12
4991.00,1.12
4990.00,1.13
4989.00,1.13
4988.00,1.13
4987.00,1.13
4986.00,1.13
4985.00,1.13
4984.00,1.13
4983.00,1.14
4982.00,1.14
4981.00,1.14
4980.00,1.14
4979.00,1.14
4978.00,1.14
4977.00,1.14
4976.00,1.14
4975.00,1.14
4974.00,1.14
4973.00,1.14
4972.00,1.14
4971.00,1.14
4970.00,1.14
4969.00,1.14
4968.00,1.14
4967.00,1.14
4966.00,1.14
4965.00,1.14
4964.00,1.14
4963.00,1.14
4962.00,1.14
4961.00,1.14
4960.00,1.14
4959.00,1.14
4958.00,1.14
4957.00,1.14
4956.00,1.14
4955.00,1.14
4954.00,1.14
4953.00,1.14
4952.00,1.14
4951.00,1.14
4950.00,1.15
4949.00,1.15
4948.00,1.15
4947.00,1.15
4946.00,1.15
4945.00,1.15
4944.00,1.15
4943.00,1.16
4942.00,1.16
4941.00,1.16
4940.00,1.16
4939.00,1.16
4938.00,1.17
4937.00,1.17
4936.00,1.17
4935.00,1.17
4934.00,1.18
4933.00,1.18
4932.00,1.18
4931.00,1.18
4930.00,1.19
4929.00,1.19
4928.00,1.19
4927.00,1.19
4926.00,1.19
4925.00,1.20
4924.00,1.20
4923.00,1.20
4922.00,1.20
4921.00,1.20
4920.00,1.20
4919.00,1.20
4918.00,1.21
4917.00,1.21
4916.00,1.21
4915.00,1.21
4914.00,1.21
4913.00,1.21
4912.00,1.21
4911.00,1.21
4910.00,1.21
4909.00,1.21
4908.00,1.21
4907.00,1.21
4906.00,1.21
4905.00,1.21
4904.00,1.21
4903.00,1.21
4902.00,1.20
4901.00,1.20
4900.00,1.20
4899.00,1.20
4898.00,1.20
4897.00,1.20
4896.00,1.20
4895.00,1.20
4894.00,1.20
4893.00,1.20
4892.00,1.20
4891.00,1.20
4890.00,1.20
4889.00,1.20
4888.00,1.20
4887.00,1.20
4886.00,1.20
4885.00,1.20
4884.00,1.19
4883.00,1.19
4882.00,1.19
4881.00,1.19
4880.00,1.19
4879.00,1.19
4878.00,1.19
4877.00,1.19
4876.00,1.20
4875.00,1.20
4874.00,1.20
4873.00,1.20
4872.00,1.20
4871.00,1.20
4870.00,1.20
4869.00,1.20
4868.00,1.20
4867.00,1.20
4866.00,1.20
4865.00,1.20
4864.00,1.20
4863.00,1.20
4862.00,1.20
4861.00,1.20
4860.00,1.20
4859.00,1.20
4858.00,1.20
4857.00,1.20
4856.00,1.20
4855.00,1.20
4854.00,1.20
4853.00,1.20
4852.00,1.20
4851.00,1.20
4850.00,1.21
4849.00,1.21
4848.00,1.21
4847.00,1.21
4846.00,1.21
4845.00,1.21
4844.00,1.21
4843.00,1.21
4842.00,1.21
4841.00,1.21
4840.00,1.21
4839.00,1.21
4838.00,1.21
4837.00,1.21
4836.00,1.21
4835.00,1.21
4834.00,1.21
4833.00,1.21
4832.00,1.21
4831.00,1.21
4830.00,1.21
4829.00,1.21
4828.00,1.21
4827.00,1.21
4826.00,1.21
4825.00,1.21
4824.00,1.21
4823.00,1.21
4822.00,1.21
4821.00,1.21
4820.00,1.21
4819.00,1.21
4818.00,1.21
4817.00,1.21
4816.00,1.22
4815.00,1.22
4814.00,1.22
4813.00,1.22
4812.00,1.22
4811.00,1.22
4810.00,1.22
4809.00,1.23
4808.00,1.23
4807.00,1.23
4806.00,1.23
4805.00,1.23
4804.00,1.23
4803.00,1.23
4802.00,1.23
4801.00,1.23
4800.00,1.24
4799.00,1.24
4798.00,1.24
4797.00,1.24
4796.00,1.24
4795.00,1.24
4794.00,1.24
4793.00,1.24
4792.00,1.24
4791.00,1.24
4790.00,1.24
4789.00,1.24
4788.00,1.24
4787.00,1.24
4786.00,1.24
4785.00,1.25
4784.00,1.25
4783.00,1.25
4782.00,1.25
4781.00,1.25
4780.00,1.25
4779.00,1.25
4778.00,1.25
4777.00,1.25
4776.00,1.25
4775.00,1.25
4774.00,1.25
4773.00,1.25
4772.00,1.25
4771.00,1.25
4770.00,1.25
4769.00,1.25
4768.00,1.25
4767.00,1.25
4766.00,1.25
4765.00,1.25
4764.00,1.25
4763.00,1.25
4762.00,1.25
4761.00,1.25
4760.00,1.25
4759.00,1.26
4758.00,1.26
4757.00,1.26
4756.00,1.26
4755.00,1.26
4754.00,1.26
4753.00,1.26
4752.00,1.26
4751.00,1.26
4750.00,1.26
4749.00,1.26
4748.00,1.26
4747.00,1.26
4746.00,1.26
4745.00,1.26
4744.00,1.27
4743.00,1.27
4742.00,1.27
4741.00,1.27
4740.00,1.27
4739.00,1.27
4738.00,1.27
4737.00,1.27
4736.00,1.27
4735.00,1.27
4734.00,1.27
4733.00,1.27
4732.00,1.27
4731.00,1.27
4730.00,1.27
4729.00,1.27
4728.00,1.27
4727.00,1.27
4726.00,1.27
4725.00,1.27
4724.00,1.27
4723.00,1.28
4722.00,1.28
4721.00,1.28
4720.00,1.28
4719.00,1.28
4718.00,1.28
4717.00,1.28
4716.00,1.28
4715.00,1.28
4714.00,1.28
4713.00,1.29
4712.00,1.29
4711.00,1.29
4710.00,1.29
4709.00,1.29
4708.00,1.29
4707.00,1.29
4706.00,1.29
4705.00,1.30
4704.00,1.30
4703.00,1.30
4702.00,1.30
4701.00,1.30
4700.00,1.30
4699.00,1.30
4698.00,1.31
4697.00,1.31
4696.00,1.31
4695.00,1.31
4694.00,1.31
4693.00,1.31
4692.00,1.31
4691.00,1.31
4690.00,1.32
4689.00,1.32
4688.00,1.32
4687.00,1.32
4686.00,1.32
4685.00,1.32
4684.00,1.33
4683.00,1.33
4682.00,1.33
4681.00,1.33
4680.00,1.33
4679.00,1.33
4678.00,1.33
4677.00,1.33
4676.00,1.33
4675.00,1.34
4674.00,1.34
4673.00,1.34
4672.00,1.34
4671.00,1.34
4670.00,1.34
4669.00,1.34
4668.00,1.34
4667.00,1.34
4666.00,1.34
4665.00,1.34
4664.00,1.34
4663.00,1.34
4662.00,1.34
4661.00,1.34
4660.00,1.34
4659.00,1.34
4658.00,1.34
4657.00,1.34
4656.00,1.34
4655.00,1.33
4654.00,1.33
4653.00,1.33
4652.00,1.33
4651.00,1.33
4650.00,1.33
4649.00,1.33
4648.00,1.33
4647.00,1.33
4646.00,1.33
4645.00,1.33
4644.00,1.33
4643.00,1.33
4642.00,1.33
4641.00,1.33
4640.00,1.33
4639.00,1.33
4638.00,1.33
4637.00,1.33
4636.00,1.33
4635.00,1.33
4634.00,1.33
4633.00,1.33
4632.00,1.33
4631.00,1.33
4630.00,1.33
4629.00,1.33
4628.00,1.33
4627.00,1.32
4626.00,1.32
4625.00,1.32
4624.00,1.32
4623.00,1.32
4622.00,1.32
4621.00,1.32
4620.00,1.32
4619.00,1.32
4618.00,1.32
4617.00,1.32
4616.00,1.32
4615.00,1.32
4614.00,1.32
4613.00,1.32
4612.00,1.32
4611.00,1.32
4610.00,1.32
4609.00,1.33
4608.00,1.33
4607.00,1.33
4606.00,1.33
4605.00,1.33
4604.00,1.33
4603.00,1.33
4602.00,1.33
4601.00,1.33
4600.00,1.33
4599.00,1.33
4598.00,1.33
4597.00,1.33
4596.00,1.33
4595.00,1.33
4594.00,1.33
4593.00,1.33
4592.00,1.33
4591.00,1.33
4590.00,1.33
4589.00,1.33
4588.00,1.32
4587.00,1.32
4586.00,1.32
4585.00,1.32
4584.00,1.32
4583.00,1.32
4582.00,1.32
4581.00,1.32
4580.00,1.32
4579.00,1.32
4578.00,1.32
4577.00,1.32
4576.00,1.32
4575.00,1.32
4574.00,1.32
4573.00,1.32
4572.00,1.32
4571.00,1.32
4570.00,1.32
4569.00,1.32
4568.00,1.32
4567.00,1.32
4566.00,1.32
4565.00,1.32
4564.00,1.32
4563.00,1.32
4562.00,1.32
4561.00,1.32
4560.00,1.32
4559.00,1.33
4558.00,1.33
4557.00,1.33
4556.00,1.33
4555.00,1.33
4554.00,1.33
4553.00,1.33
4552.00,1.33
4551.00,1.33
4550.00,1.33
4549.00,1.33
4548.00,1.33
4547.00,1.32
4546.00,1.32
4545.00,1.32
4544.00,1.32
4543.00,1.32
4542.00,1.32
4541.00,1.32
4540.00,1.32
4539.00,1.32
4538.00,1.31
4537.00,1.31
4536.00,1.31
4535.00,1.31
4534.00,1.31
4533.00,1.31
4532.00,1.31
4531.00,1.31
4530.00,1.31
4529.00,1.30
4528.00,1.30
4527.00,1.30
4526.00,1.30
4525.00,1.30
4524.00,1.30
4523.00,1.30
4522.00,1.30
4521.00,1.30
4520.00,1.30
4519.00,1.30
4518.00,1.30
4517.00,1.30
4516.00,1.30
4515.00,1.30
4514.00,1.30
4513.00,1.30
4512.00,1.30
4511.00,1.30
4510.00,1.30
4509.00,1.30
4508.00,1.30
4507.00,1.30
4506.00,1.30
4505.00,1.30
4504.00,1.30
4503.00,1.30
4502.00,1.30
4501.00,1.30
4500.00,1.30
4499.00,1.30
4498.00,1.30
4497.00,1.30
4496.00,1.30
4495.00,1.30
4494.00,1.30
4493.00,1.30
4492.00,1.30
4491.00,1.30
4490.00,1.30
4489.00,1.30
4488.00,1.30
4487.00,1.30
4486.00,1.30
4485.00,1.30
4484.00,1.30
4483.00,1.30
4482.00,1.31
4481.00,1.31
4480.00,1.31
4479.00,1.31
4478.00,1.31
4477.00,1.31
4476.00,1.31
4475.00,1.31
4474.00,1.31
4473.00,1.31
4472.00,1.32
4471.00,1.32
4470.00,1.32
4469.00,1.32
4468.00,1.32
4467.00,1.32
4466.00,1.32
4465.00,1.32
4464.00,1.32
4463.00,1.32
4462.00,1.32
4461.00,1.32
4460.00,1.32
4459.00,1.32
4458.00,1.32
4457.00,1.32
4456.00,1.32
4455.00,1.32
4454.00,1.32
4453.00,1.31
4452.00,1.31
4451.00,1.31
4450.00,1.31
4449.00,1.31
4448.00,1.31
4447.00,1.30
4446.00,1.30
4445.00,1.30
4444.00,1.30
4443.00,1.30
4442.00,1.29
4441.00,1.29
4440.00,1.29
4439.00,1.29
4438.00,1.28
4437.00,1.28
4436.00,1.28
4435.00,1.28
4434.00,1.28
4433.00,1.28
4432.00,1.27
4431.00,1.27
4430.00,1.27
4429.00,1.27
4428.00,1.27
4427.00,1.26
4426.00,1.26
4425.00,1.26
4424.00,1.26
4423.00,1.26
4422.00,1.26
4421.00,1.26
4420.00,1.26
4419.00,1.26
4418.00,1.25
4417.00,1.25
4416.00,1.25
4415.00,1.25
4414.00,1.25
4413.00,1.25
4412.00,1.25
4411.00,1.25
4410.00,1.25
4409.00,1.25
4408.00,1.25
4407.00,1.25
4406.00,1.25
4405.00,1.25
4404.00,1.25
4403.00,1.25
4402.00,1.25
4401.00,1.25
4400.00,1.25
4399.00,1.25
4398.00,1.25
4397.00,1.25
4396.00,1.25
4395.00,1.25
4394.00,1.25
4393.00,1.25
4392.00,1.25
4391.00,1.25
4390.00,1.25
4389.00,1.24
4388.00,1.24
4387.00,1.24
4386.00,1.24
4385.00,1.24
4384.00,1.24
4383.00,1.24
4382.00,1.24
4381.00,1.24
4380.00,1.24
4379.00,1.24
4378.00,1.24
4377.00,1.24
4376.00,1.24
4375.00,1.24
4374.00,1.24
4373.00,1.24
4372.00,1.24
4371.00,1.24
4370.00,1.24
4369.00,1.24
4368.00,1.24
4367.00,1.23
4366.00,1.23
4365.00,1.23
4364.00,1.23
4363.00,1.23
4362.00,1.23
4361.00,1.23
4360.00,1.23
4359.00,1.23
4358.00,1.23
4357.00,1.23
4356.00,1.23
4355.00,1.23
4354.00,1.23
4353.00,1.23
4352.00,1.22
4351.00,1.22
4350.00,1.22
4349.00,1.22
4348.00,1.22
4347.00,1.22
4346.00,1.21
4345.00,1.21
4344.00,1.21
4343.00,1.21
4342.00,1.21
4341.00,1.21
4340.00,1.21
4339.00,1.21
4338.00,1.21
4337.00,1.21
4336.00,1.21
4335.00,1.21
4334.00,1.21
4333.00,1.21
4332.00,1.21
4331.00,1.21
4330.00,1.21
4329.00,1.21
4328.00,1.21
4327.00,1.22
4326.00,1.22
4325.00,1.22
4324.00,1.22
4323.00,1.23
4322.00,1.23
4321.00,1.23
4320.00,1.24
4319.00,1.24
4318.00,1.25
4317.00,1.25
4316.00,1.26
4315.00,1.26
4314.00,1.26
4313.00,1.27
4312.00,1.27
4311.00,1.28
4310.00,1.28
4309.00,1.29
4308.00,1.29
4307.00,1.29
4306.00,1.30
4305.00,1.30
4304.00,1.30
4303.00,1.31
4302.00,1.31
4301.00,1.31
4300.00,1.31
4299.00,1.31
4298.00,1.31
4297.00,1.32
4296.00,1.32
4295.00,1.32
4294.00,1.32
4293.00,1.31
4292.00,1.31
4291.00,1.31
4290.00,1.31
4289.00,1.31
4288.00,1.31
4287.00,1.31
4286.00,1.30
4285.00,1.30
4284.00,1.30
4283.00,1.30
4282.00,1.30
4281.00,1.30
4280.00,1.30
4279.00,1.30
4278.00,1.30
4277.00,1.30
4276.00,1.29
4275.00,1.29
4274.00,1.29
4273.00,1.29
4272.00,1.29
4271.00,1.29
4270.00,1.29
4269.00,1.29
4268.00,1.29
4267.00,1.29
4266.00,1.29
4265.00,1.29
4264.00,1.30
4263.00,1.30
4262.00,1.30
4261.00,1.30
4260.00,1.30
4259.00,1.30
4258.00,1.30
4257.00,1.30
4256.00,1.30
4255.00,1.30
4254.00,1.30
4253.00,1.30
4252.00,1.30
4251.00,1.30
4250.00,1.30
4249.00,1.30
4248.00,1.30
4247.00,1.30
4246.00,1.30
4245.00,1.30
4244.00,1.30
4243.00,1.30
4242.00,1.30
4241.00,1.30
4240.00,1.30
4239.00,1.30
4238.00,1.30
4237.00,1.30
4236.00,1.30
4235.00,1.30
4234.00,1.30
4233.00,1.31
4232.00,1.31
4231.00,1.31
4230.00,1.31
4229.00,1.31
4228.00,1.31
4227.00,1.31
4226.00,1.31
4225.00,1.31
4224.00,1.31
4223.00,1.31
4222.00,1.31
4221.00,1.31
4220.00,1.31
4219.00,1.31
4218.00,1.32
4217.00,1.32
4216.00,1.32
4215.00,1.32
4214.00,1.32
4213.00,1.32
4212.00,1.31
4211.00,1.31
4210.00,1.31
4209.00,1.31
4208.00,1.31
4207.00,1.31
4206.00,1.31
4205.00,1.30
4204.00,1.30
4203.00,1.30
4202.00,1.30
4201.00,1.30
4200.00,1.29
4199.00,1.29
4198.00,1.29
4197.00,1.29
4196.00,1.29
4195.00,1.29
4194.00,1.29
4193.00,1.29
4192.00,1.29
4191.00,1.29
4190.00,1.29
4189.00,1.29
4188.00,1.29
4187.00,1.29
4186.00,1.29
4185.00,1.29
4184.00,1.29
4183.00,1.29
4182.00,1.29
4181.00,1.29
4180.00,1.30
4179.00,1.30
4178.00,1.30
4177.00,1.30
4176.00,1.30
4175.00,1.30
4174.00,1.31
4173.00,1.31
4172.00,1.31
4171.00,1.31
4170.00,1.31
4169.00,1.31
4168.00,1.31
4167.00,1.31
4166.00,1.31
4165.00,1.31
4164.00,1.31
4163.00,1.31
4162.00,1.31
4161.00,1.31
4160.00,1.31
4159.00,1.31
4158.00,1.31
4157.00,1.31
4156.00,1.31
4155.00,1.31
4154.00,1.31
4153.00,1.31
4152.00,1.31
4151.00,1.31
4150.00,1.31
4149.00,1.31
4148.00,1.31
4147.00,1.30
4146.00,1.30
4145.00,1.30
4144.00,1.30
4143.00,1.30
4142.00,1.30
4141.00,1.30
4140.00,1.29
4139.00,1.29
4138.00,1.29
4137.00,1.29
4136.00,1.29
4135.00,1.28
4134.00,1.28
4133.00,1.28
4132.00,1.28
4131.00,1.28
4130.00,1.28
4129.00,1.27
4128.00,1.27
4127.00,1.27
4126.00,1.27
4125.00,1.27
4124.00,1.26
4123.00,1.26
4122.00,1.26
4121.00,1.26
4120.00,1.26
4119.00,1.26
4118.00,1.26
4117.00,1.26
4116.00,1.26
4115.00,1.26
4114.00,1.26
4113.00,1.26
4112.00,1.27
4111.00,1.27
4110.00,1.27
4109.00,1.27
4108.00,1.27
4107.00,1.27
4106.00,1.28
4105.00,1.28
4104.00,1.28
4103.00,1.28
4102.00,1.28
4101.00,1.29
4100.00,1.29
4099.00,1.29
4098.00,1.29
4097.00,1.29
4096.00,1.29
4095.00,1.29
4094.00,1.29
4093.00,1.29
4092.00,1.29
4091.00,1.29
4090.00,1.29
4089.00,1.29
4088.00,1.28
4087.00,1.28
4086.00,1.28
4085.00,1.28
4084.00,1.28
4083.00,1.27
4082.00,1.27
4081.00,1.27
4080.00,1.27
4079.00,1.27
4078.00,1.26
4077.00,1.26
4076.00,1.26
4075.00,1.26
4074.00,1.26
4073.00,1.25
4072.00,1.25
4071.00,1.25
4070.00,1.25
4069.00,1.25
4068.00,1.25
4067.00,1.25
4066.00,1.26
4065.00,1.26
4064.00,1.26
4063.00,1.26
4062.00,1.26
4061.00,1.27
4060.00,1.27
4059.00,1.27
4058.00,1.27
4057.00,1.27
4056.00,1.28
4055.00,1.28
4054.00,1.28
4053.00,1.29
4052.00,1.29
4051.00,1.29
4050.00,1.29
4049.00,1.30
4048.00,1.30
4047.00,1.30
4046.00,1.30
4045.00,1.30
4044.00,1.30
4043.00,1.31
4042.00,1.31
4041.00,1.31
4040.00,1.31
4039.00,1.31
4038.00,1.31
4037.00,1.31
4036.00,1.31
4035.00,1.31
4034.00,1.31
4033.00,1.32
4032.00,1.32
4031.00,1.32
4030.00,1.32
4029.00,1.32
4028.00,1.32
4027.00,1.32
4026.00,1.32
4025.00,1.33
4024.00,1.33
4023.00,1.33
4022.00,1.33
4021.00,1.34
4020.00,1.34
4019.00,1.34
4018.00,1.35
4017.00,1.36
4016.00,1.36
4015.00,1.37
4014.00,1.38
4013.00,1.38
4012.00,1.39
4011.00,1.40
4010.00,1.40
4009.00,1.41
4008.00,1.42
4007.00,1.43
4006.00,1.44
4005.00,1.44
4004.00,1.45
4003.00,1.46
4002.00,1.48
4001.00,1.49
4000.00,1.50
