创建为新数据集,样品 254 用户 Administrator 日期 星期六, 七月 27 2019
cm-1,%T
10000.00,1.24
9999.00,1.23
9998.00,1.22
9997.00,1.22
9996.00,1.21
9995.00,1.20
9994.00,1.19
9993.00,1.18
9992.00,1.17
9991.00,1.16
9990.00,1.15
9989.00,1.14
9988.00,1.13
9987.00,1.12
9986.00,1.11
9985.00,1.10
9984.00,1.09
9983.00,1.08
9982.00,1.07
9981.00,1.05
9980.00,1.04
9979.00,1.03
9978.00,1.01
9977.00,1.00
9976.00,0.99
9975.00,0.97
9974.00,0.96
9973.00,0.95
9972.00,0.93
9971.00,0.92
9970.00,0.91
9969.00,0.90
9968.00,0.89
9967.00,0.88
9966.00,0.87
9965.00,0.86
9964.00,0.86
9963.00,0.85
9962.00,0.84
9961.00,0.84
9960.00,0.83
9959.00,0.82
9958.00,0.82
9957.00,0.81
9956.00,0.80
9955.00,0.80
9954.00,0.79
9953.00,0.79
9952.00,0.78
9951.00,0.78
9950.00,0.78
9949.00,0.78
9948.00,0.77
9947.00,0.77
9946.00,0.77
9945.00,0.77
9944.00,0.77
9943.00,0.76
9942.00,0.76
9941.00,0.76
9940.00,0.76
9939.00,0.76
9938.00,0.75
9937.00,0.75
9936.00,0.75
9935.00,0.75
9934.00,0.75
9933.00,0.76
9932.00,0.76
9931.00,0.76
9930.00,0.76
9929.00,0.77
9928.00,0.77
9927.00,0.78
9926.00,0.78
9925.00,0.78
9924.00,0.79
9923.00,0.79
9922.00,0.80
9921.00,0.80
9920.00,0.81
9919.00,0.81
9918.00,0.82
9917.00,0.82
9916.00,0.83
9915.00,0.83
9914.00,0.84
9913.00,0.85
9912.00,0.85
9911.00,0.86
9910.00,0.86
9909.00,0.87
9908.00,0.87
9907.00,0.88
9906.00,0.89
9905.00,0.89
9904.00,0.90
9903.00,0.90
9902.00,0.91
9901.00,0.91
9900.00,0.92
9899.00,0.92
9898.00,0.93
9897.00,0.93
9896.00,0.93
9895.00,0.94
9894.00,0.94
9893.00,0.94
9892.00,0.94
9891.00,0.95
9890.00,0.95
9889.00,0.95
9888.00,0.95
9887.00,0.96
9886.00,0.96
9885.00,0.96
9884.00,0.96
9883.00,0.96
9882.00,0.96
9881.00,0.97
9880.00,0.97
9879.00,0.97
9878.00,0.96
9877.00,0.96
9876.00,0.96
9875.00,0.96
9874.00,0.96
9873.00,0.96
9872.00,0.96
9871.00,0.96
9870.00,0.96
9869.00,0.96
9868.00,0.97
9867.00,0.97
9866.00,0.97
9865.00,0.97
9864.00,0.97
9863.00,0.98
9862.00,0.98
9861.00,0.98
9860.00,0.98
9859.00,0.98
9858.00,0.98
9857.00,0.98
9856.00,0.98
9855.00,0.98
9854.00,0.99
9853.00,0.99
9852.00,0.99
9851.00,0.99
9850.00,0.99
9849.00,0.99
9848.00,0.99
9847.00,0.98
9846.00,0.98
9845.00,0.98
9844.00,0.98
9843.00,0.97
9842.00,0.97
9841.00,0.96
9840.00,0.96
9839.00,0.95
9838.00,0.95
9837.00,0.95
9836.00,0.94
9835.00,0.94
9834.00,0.93
9833.00,0.93
9832.00,0.92
9831.00,0.92
9830.00,0.91
9829.00,0.91
9828.00,0.90
9827.00,0.89
9826.00,0.89
9825.00,0.88
9824.00,0.88
9823.00,0.88
9822.00,0.88
9821.00,0.88
9820.00,0.88
9819.00,0.88
9818.00,0.88
9817.00,0.88
9816.00,0.88
9815.00,0.88
9814.00,0.88
9813.00,0.88
9812.00,0.88
9811.00,0.88
9810.00,0.88
9809.00,0.88
9808.00,0.87
9807.00,0.87
9806.00,0.87
9805.00,0.87
9804.00,0.87
9803.00,0.87
9802.00,0.87
9801.00,0.87
9800.00,0.87
9799.00,0.87
9798.00,0.87
9797.00,0.87
9796.00,0.87
9795.00,0.87
9794.00,0.87
9793.00,0.86
9792.00,0.86
9791.00,0.86
9790.00,0.86
9789.00,0.86
9788.00,0.87
9787.00,0.87
9786.00,0.87
9785.00,0.87
9784.00,0.88
9783.00,0.88
9782.00,0.89
9781.00,0.89
9780.00,0.90
9779.00,0.90
9778.00,0.91
9777.00,0.92
9776.00,0.92
9775.00,0.93
9774.00,0.93
9773.00,0.94
9772.00,0.94
9771.00,0.95
9770.00,0.95
9769.00,0.96
9768.00,0.96
9767.00,0.96
9766.00,0.97
9765.00,0.97
9764.00,0.97
9763.00,0.97
9762.00,0.98
9761.00,0.98
9760.00,0.98
9759.00,0.98
9758.00,0.99
9757.00,0.99
9756.00,0.99
9755.00,0.99
9754.00,0.99
9753.00,1.00
9752.00,1.00
9751.00,1.00
9750.00,1.00
9749.00,1.00
9748.00,1.00
9747.00,1.00
9746.00,1.01
9745.00,1.01
9744.00,1.01
9743.00,1.01
9742.00,1.01
9741.00,1.01
9740.00,1.01
9739.00,1.02
9738.00,1.01
9737.00,1.01
9736.00,1.01
9735.00,1.01
9734.00,1.00
9733.00,1.00
9732.00,0.99
9731.00,0.99
9730.00,0.98
9729.00,0.98
9728.00,0.97
9727.00,0.97
9726.00,0.97
9725.00,0.96
9724.00,0.96
9723.00,0.96
9722.00,0.95
9721.00,0.95
9720.00,0.95
9719.00,0.94
9718.00,0.94
9717.00,0.94
9716.00,0.94
9715.00,0.93
9714.00,0.93
9713.00,0.93
9712.00,0.93
9711.00,0.94
9710.00,0.94
9709.00,0.94
9708.00,0.95
9707.00,0.95
9706.00,0.96
9705.00,0.96
9704.00,0.97
9703.00,0.97
9702.00,0.98
9701.00,0.98
9700.00,0.98
9699.00,0.99
9698.00,0.99
9697.00,0.99
9696.00,0.99
9695.00,0.99
9694.00,0.99
9693.00,1.00
9692.00,1.00
9691.00,1.00
9690.00,1.00
9689.00,1.00
9688.00,0.99
9687.00,0.99
9686.00,0.99
9685.00,0.99
9684.00,0.99
9683.00,0.98
9682.00,0.98
9681.00,0.98
9680.00,0.97
9679.00,0.97
9678.00,0.97
9677.00,0.96
9676.00,0.96
9675.00,0.96
9674.00,0.95
9673.00,0.95
9672.00,0.95
9671.00,0.95
9670.00,0.95
9669.00,0.94
9668.00,0.94
9667.00,0.94
9666.00,0.94
9665.00,0.94
9664.00,0.94
9663.00,0.93
9662.00,0.93
9661.00,0.93
9660.00,0.93
9659.00,0.93
9658.00,0.93
9657.00,0.93
9656.00,0.93
9655.00,0.93
9654.00,0.92
9653.00,0.92
9652.00,0.92
9651.00,0.92
9650.00,0.92
9649.00,0.92
9648.00,0.92
9647.00,0.92
9646.00,0.92
9645.00,0.92
9644.00,0.92
9643.00,0.92
9642.00,0.92
9641.00,0.92
9640.00,0.92
9639.00,0.93
9638.00,0.93
9637.00,0.93
9636.00,0.93
9635.00,0.93
9634.00,0.94
9633.00,0.94
9632.00,0.94
9631.00,0.94
9630.00,0.94
9629.00,0.95
9628.00,0.95
9627.00,0.95
9626.00,0.95
9625.00,0.95
9624.00,0.95
9623.00,0.95
9622.00,0.95
9621.00,0.94
9620.00,0.94
9619.00,0.94
9618.00,0.94
9617.00,0.93
9616.00,0.93
9615.00,0.92
9614.00,0.92
9613.00,0.91
9612.00,0.91
9611.00,0.90
9610.00,0.90
9609.00,0.89
9608.00,0.89
9607.00,0.88
9606.00,0.88
9605.00,0.87
9604.00,0.87
9603.00,0.86
9602.00,0.86
9601.00,0.86
9600.00,0.85
9599.00,0.85
9598.00,0.85
9597.00,0.85
9596.00,0.85
9595.00,0.85
9594.00,0.85
9593.00,0.85
9592.00,0.85
9591.00,0.85
9590.00,0.86
9589.00,0.86
9588.00,0.87
9587.00,0.87
9586.00,0.88
9585.00,0.88
9584.00,0.89
9583.00,0.89
9582.00,0.90
9581.00,0.91
9580.00,0.91
9579.00,0.92
9578.00,0.92
9577.00,0.93
9576.00,0.94
9575.00,0.94
9574.00,0.95
9573.00,0.95
9572.00,0.96
9571.00,0.96
9570.00,0.97
9569.00,0.97
9568.00,0.98
9567.00,0.98
9566.00,0.99
9565.00,0.99
9564.00,0.99
9563.00,0.99
9562.00,1.00
9561.00,1.00
9560.00,1.00
9559.00,1.00
9558.00,1.00
9557.00,0.99
9556.00,0.99
9555.00,0.99
9554.00,0.99
9553.00,0.98
9552.00,0.98
9551.00,0.98
9550.00,0.98
9549.00,0.97
9548.00,0.97
9547.00,0.97
9546.00,0.96
9545.00,0.96
9544.00,0.96
9543.00,0.95
9542.00,0.95
9541.00,0.95
9540.00,0.94
9539.00,0.94
9538.00,0.94
9537.00,0.94
9536.00,0.94
9535.00,0.94
9534.00,0.94
9533.00,0.94
9532.00,0.94
9531.00,0.94
9530.00,0.94
9529.00,0.95
9528.00,0.95
9527.00,0.96
9526.00,0.96
9525.00,0.97
9524.00,0.98
9523.00,0.98
9522.00,0.99
9521.00,1.00
9520.00,1.00
9519.00,1.01
9518.00,1.01
9517.00,1.02
9516.00,1.02
9515.00,1.02
9514.00,1.03
9513.00,1.03
9512.00,1.03
9511.00,1.03
9510.00,1.03
9509.00,1.04
9508.00,1.04
9507.00,1.04
9506.00,1.04
9505.00,1.03
9504.00,1.03
9503.00,1.03
9502.00,1.03
9501.00,1.02
9500.00,1.02
9499.00,1.01
9498.00,1.01
9497.00,1.00
9496.00,1.00
9495.00,0.99
9494.00,0.98
9493.00,0.98
9492.00,0.97
9491.00,0.97
9490.00,0.96
9489.00,0.96
9488.00,0.95
9487.00,0.95
9486.00,0.94
9485.00,0.94
9484.00,0.94
9483.00,0.94
9482.00,0.93
9481.00,0.93
9480.00,0.93
9479.00,0.93
9478.00,0.92
9477.00,0.92
9476.00,0.92
9475.00,0.92
9474.00,0.92
9473.00,0.91
9472.00,0.91
9471.00,0.91
9470.00,0.92
9469.00,0.92
9468.00,0.92
9467.00,0.92
9466.00,0.93
9465.00,0.93
9464.00,0.93
9463.00,0.94
9462.00,0.94
9461.00,0.94
9460.00,0.95
9459.00,0.95
9458.00,0.95
9457.00,0.95
9456.00,0.96
9455.00,0.96
9454.00,0.96
9453.00,0.96
9452.00,0.97
9451.00,0.97
9450.00,0.98
9449.00,0.99
9448.00,0.99
9447.00,1.00
9446.00,1.00
9445.00,1.01
9444.00,1.01
9443.00,1.02
9442.00,1.02
9441.00,1.02
9440.00,1.02
9439.00,1.02
9438.00,1.02
9437.00,1.02
9436.00,1.02
9435.00,1.02
9434.00,1.02
9433.00,1.03
9432.00,1.03
9431.00,1.03
9430.00,1.03
9429.00,1.03
9428.00,1.03
9427.00,1.03
9426.00,1.03
9425.00,1.03
9424.00,1.03
9423.00,1.03
9422.00,1.02
9421.00,1.02
9420.00,1.01
9419.00,1.01
9418.00,1.01
9417.00,1.00
9416.00,1.00
9415.00,1.00
9414.00,1.00
9413.00,1.00
9412.00,1.00
9411.00,1.00
9410.00,0.99
9409.00,0.99
9408.00,0.99
9407.00,0.99
9406.00,0.99
9405.00,0.99
9404.00,0.98
9403.00,0.98
9402.00,0.98
9401.00,0.99
9400.00,0.99
9399.00,0.99
9398.00,0.99
9397.00,1.00
9396.00,1.00
9395.00,1.00
9394.00,1.01
9393.00,1.01
9392.00,1.01
9391.00,1.02
9390.00,1.02
9389.00,1.02
9388.00,1.02
9387.00,1.03
9386.00,1.03
9385.00,1.03
9384.00,1.03
9383.00,1.03
9382.00,1.03
9381.00,1.03
9380.00,1.03
9379.00,1.03
9378.00,1.03
9377.00,1.03
9376.00,1.03
9375.00,1.03
9374.00,1.03
9373.00,1.02
9372.00,1.02
9371.00,1.01
9370.00,1.01
9369.00,1.00
9368.00,1.00
9367.00,0.99
9366.00,0.99
9365.00,0.98
9364.00,0.98
9363.00,0.97
9362.00,0.97
9361.00,0.96
9360.00,0.96
9359.00,0.96
9358.00,0.95
9357.00,0.95
9356.00,0.95
9355.00,0.94
9354.00,0.94
9353.00,0.94
9352.00,0.93
9351.00,0.93
9350.00,0.93
9349.00,0.93
9348.00,0.93
9347.00,0.93
9346.00,0.93
9345.00,0.93
9344.00,0.93
9343.00,0.93
9342.00,0.93
9341.00,0.94
9340.00,0.94
9339.00,0.94
9338.00,0.94
9337.00,0.95
9336.00,0.95
9335.00,0.95
9334.00,0.95
9333.00,0.95
9332.00,0.95
9331.00,0.95
9330.00,0.95
9329.00,0.95
9328.00,0.95
9327.00,0.95
9326.00,0.95
9325.00,0.95
9324.00,0.95
9323.00,0.95
9322.00,0.95
9321.00,0.95
9320.00,0.95
9319.00,0.94
9318.00,0.94
9317.00,0.94
9316.00,0.94
9315.00,0.94
9314.00,0.94
9313.00,0.94
9312.00,0.94
9311.00,0.94
9310.00,0.94
9309.00,0.94
9308.00,0.94
9307.00,0.95
9306.00,0.95
9305.00,0.95
9304.00,0.96
9303.00,0.96
9302.00,0.97
9301.00,0.97
9300.00,0.97
9299.00,0.98
9298.00,0.98
9297.00,0.98
9296.00,0.98
9295.00,0.99
9294.00,0.99
9293.00,0.99
9292.00,1.00
9291.00,1.00
9290.00,1.00
9289.00,1.01
9288.00,1.01
9287.00,1.01
9286.00,1.01
9285.00,1.01
9284.00,1.01
9283.00,1.01
9282.00,1.01
9281.00,1.01
9280.00,1.01
9279.00,1.01
9278.00,1.01
9277.00,1.01
9276.00,1.01
9275.00,1.01
9274.00,1.01
9273.00,1.01
9272.00,1.01
9271.00,1.01
9270.00,1.01
9269.00,1.01
9268.00,1.01
9267.00,1.01
9266.00,1.01
9265.00,1.01
9264.00,1.01
9263.00,1.01
9262.00,1.01
9261.00,1.01
9260.00,1.01
9259.00,1.02
9258.00,1.02
9257.00,1.02
9256.00,1.02
9255.00,1.02
9254.00,1.02
9253.00,1.02
9252.00,1.01
9251.00,1.01
9250.00,1.01
9249.00,1.01
9248.00,1.00
9247.00,1.00
9246.00,1.00
9245.00,0.99
9244.00,0.99
9243.00,0.98
9242.00,0.98
9241.00,0.97
9240.00,0.97
9239.00,0.97
9238.00,0.96
9237.00,0.96
9236.00,0.96
9235.00,0.96
9234.00,0.95
9233.00,0.95
9232.00,0.95
9231.00,0.94
9230.00,0.94
9229.00,0.94
9228.00,0.94
9227.00,0.94
9226.00,0.94
9225.00,0.94
9224.00,0.94
9223.00,0.94
9222.00,0.94
9221.00,0.94
9220.00,0.94
9219.00,0.95
9218.00,0.95
9217.00,0.95
9216.00,0.96
9215.00,0.96
9214.00,0.96
9213.00,0.97
9212.00,0.97
9211.00,0.97
9210.00,0.97
9209.00,0.98
9208.00,0.98
9207.00,0.98
9206.00,0.98
9205.00,0.99
9204.00,0.99
9203.00,0.99
9202.00,0.99
9201.00,1.00
9200.00,1.00
9199.00,1.00
9198.00,1.00
9197.00,1.00
9196.00,1.00
9195.00,0.99
9194.00,0.99
9193.00,0.99
9192.00,0.99
9191.00,0.99
9190.00,0.99
9189.00,0.99
9188.00,0.99
9187.00,0.99
9186.00,0.99
9185.00,0.99
9184.00,0.99
9183.00,1.00
9182.00,1.00
9181.00,1.00
9180.00,1.00
9179.00,1.01
9178.00,1.01
9177.00,1.01
9176.00,1.01
9175.00,1.01
9174.00,1.02
9173.00,1.02
9172.00,1.02
9171.00,1.02
9170.00,1.03
9169.00,1.03
9168.00,1.03
9167.00,1.04
9166.00,1.04
9165.00,1.04
9164.00,1.04
9163.00,1.04
9162.00,1.05
9161.00,1.05
9160.00,1.05
9159.00,1.04
9158.00,1.04
9157.00,1.04
9156.00,1.04
9155.00,1.04
9154.00,1.03
9153.00,1.03
9152.00,1.02
9151.00,1.02
9150.00,1.02
9149.00,1.01
9148.00,1.01
9147.00,1.00
9146.00,1.00
9145.00,0.99
9144.00,0.99
9143.00,0.98
9142.00,0.98
9141.00,0.97
9140.00,0.97
9139.00,0.96
9138.00,0.96
9137.00,0.95
9136.00,0.94
9135.00,0.94
9134.00,0.93
9133.00,0.92
9132.00,0.92
9131.00,0.91
9130.00,0.91
9129.00,0.90
9128.00,0.90
9127.00,0.90
9126.00,0.89
9125.00,0.89
9124.00,0.89
9123.00,0.89
9122.00,0.88
9121.00,0.88
9120.00,0.88
9119.00,0.88
9118.00,0.88
9117.00,0.88
9116.00,0.88
9115.00,0.88
9114.00,0.88
9113.00,0.88
9112.00,0.89
9111.00,0.89
9110.00,0.89
9109.00,0.89
9108.00,0.90
9107.00,0.90
9106.00,0.90
9105.00,0.91
9104.00,0.91
9103.00,0.92
9102.00,0.92
9101.00,0.93
9100.00,0.93
9099.00,0.93
9098.00,0.94
9097.00,0.94
9096.00,0.94
9095.00,0.94
9094.00,0.94
9093.00,0.94
9092.00,0.94
9091.00,0.94
9090.00,0.94
9089.00,0.94
9088.00,0.94
9087.00,0.94
9086.00,0.94
9085.00,0.94
9084.00,0.94
9083.00,0.94
9082.00,0.94
9081.00,0.94
9080.00,0.94
9079.00,0.94
9078.00,0.94
9077.00,0.94
9076.00,0.94
9075.00,0.94
9074.00,0.94
9073.00,0.94
9072.00,0.94
9071.00,0.94
9070.00,0.94
9069.00,0.95
9068.00,0.95
9067.00,0.96
9066.00,0.96
9065.00,0.96
9064.00,0.97
9063.00,0.97
9062.00,0.98
9061.00,0.98
9060.00,0.99
9059.00,0.99
9058.00,1.00
9057.00,1.00
9056.00,1.01
9055.00,1.01
9054.00,1.02
9053.00,1.02
9052.00,1.03
9051.00,1.04
9050.00,1.04
9049.00,1.05
9048.00,1.06
9047.00,1.06
9046.00,1.07
9045.00,1.08
9044.00,1.08
9043.00,1.09
9042.00,1.09
9041.00,1.09
9040.00,1.09
9039.00,1.10
9038.00,1.10
9037.00,1.10
9036.00,1.10
9035.00,1.11
9034.00,1.11
9033.00,1.11
9032.00,1.11
9031.00,1.11
9030.00,1.11
9029.00,1.11
9028.00,1.10
9027.00,1.10
9026.00,1.10
9025.00,1.09
9024.00,1.09
9023.00,1.08
9022.00,1.07
9021.00,1.07
9020.00,1.06
9019.00,1.05
9018.00,1.05
9017.00,1.04
9016.00,1.04
9015.00,1.03
9014.00,1.03
9013.00,1.02
9012.00,1.02
9011.00,1.01
9010.00,1.01
9009.00,1.00
9008.00,1.00
9007.00,0.99
9006.00,0.99
9005.00,0.98
9004.00,0.98
9003.00,0.98
9002.00,0.97
9001.00,0.97
9000.00,0.97
8999.00,0.97
8998.00,0.97
8997.00,0.97
8996.00,0.97
8995.00,0.97
8994.00,0.98
8993.00,0.98
8992.00,0.98
8991.00,0.98
8990.00,0.98
8989.00,0.99
8988.00,0.99
8987.00,0.99
8986.00,1.00
8985.00,1.00
8984.00,1.01
8983.00,1.01
8982.00,1.02
8981.00,1.02
8980.00,1.03
8979.00,1.03
8978.00,1.04
8977.00,1.04
8976.00,1.04
8975.00,1.05
8974.00,1.05
8973.00,1.05
8972.00,1.06
8971.00,1.06
8970.00,1.06
8969.00,1.06
8968.00,1.06
8967.00,1.06
8966.00,1.06
8965.00,1.06
8964.00,1.06
8963.00,1.06
8962.00,1.05
8961.00,1.05
8960.00,1.05
8959.00,1.04
8958.00,1.04
8957.00,1.03
8956.00,1.03
8955.00,1.02
8954.00,1.01
8953.00,1.01
8952.00,1.00
8951.00,0.99
8950.00,0.99
8949.00,0.98
8948.00,0.98
8947.00,0.97
8946.00,0.96
8945.00,0.96
8944.00,0.95
8943.00,0.95
8942.00,0.94
8941.00,0.94
8940.00,0.94
8939.00,0.93
8938.00,0.93
8937.00,0.93
8936.00,0.93
8935.00,0.93
8934.00,0.92
8933.00,0.92
8932.00,0.92
8931.00,0.92
8930.00,0.92
8929.00,0.92
8928.00,0.92
8927.00,0.92
8926.00,0.92
8925.00,0.92
8924.00,0.91
8923.00,0.91
8922.00,0.91
8921.00,0.91
8920.00,0.91
8919.00,0.91
8918.00,0.91
8917.00,0.91
8916.00,0.91
8915.00,0.91
8914.00,0.90
8913.00,0.90
8912.00,0.90
8911.00,0.90
8910.00,0.89
8909.00,0.89
8908.00,0.89
8907.00,0.88
8906.00,0.88
8905.00,0.88
8904.00,0.87
8903.00,0.87
8902.00,0.87
8901.00,0.86
8900.00,0.86
8899.00,0.86
8898.00,0.85
8897.00,0.85
8896.00,0.85
8895.00,0.85
8894.00,0.85
8893.00,0.84
8892.00,0.84
8891.00,0.84
8890.00,0.84
8889.00,0.84
8888.00,0.84
8887.00,0.84
8886.00,0.84
8885.00,0.84
8884.00,0.84
8883.00,0.84
8882.00,0.85
8881.00,0.85
8880.00,0.86
8879.00,0.86
8878.00,0.86
8877.00,0.87
8876.00,0.88
8875.00,0.88
8874.00,0.89
8873.00,0.89
8872.00,0.90
8871.00,0.91
8870.00,0.91
8869.00,0.92
8868.00,0.92
8867.00,0.93
8866.00,0.93
8865.00,0.94
8864.00,0.94
8863.00,0.95
8862.00,0.95
8861.00,0.95
8860.00,0.96
8859.00,0.96
8858.00,0.96
8857.00,0.96
8856.00,0.97
8855.00,0.97
8854.00,0.97
8853.00,0.97
8852.00,0.97
8851.00,0.97
8850.00,0.97
8849.00,0.97
8848.00,0.97
8847.00,0.97
8846.00,0.96
8845.00,0.96
8844.00,0.96
8843.00,0.96
8842.00,0.96
8841.00,0.96
8840.00,0.96
8839.00,0.96
8838.00,0.96
8837.00,0.95
8836.00,0.95
8835.00,0.95
8834.00,0.94
8833.00,0.94
8832.00,0.94
8831.00,0.94
8830.00,0.93
8829.00,0.93
8828.00,0.93
8827.00,0.93
8826.00,0.92
8825.00,0.92
8824.00,0.92
8823.00,0.91
8822.00,0.91
8821.00,0.91
8820.00,0.90
8819.00,0.90
8818.00,0.90
8817.00,0.90
8816.00,0.89
8815.00,0.89
8814.00,0.89
8813.00,0.89
8812.00,0.89
8811.00,0.89
8810.00,0.89
8809.00,0.89
8808.00,0.89
8807.00,0.89
8806.00,0.89
8805.00,0.89
8804.00,0.89
8803.00,0.90
8802.00,0.90
8801.00,0.90
8800.00,0.91
8799.00,0.91
8798.00,0.91
8797.00,0.92
8796.00,0.92
8795.00,0.92
8794.00,0.93
8793.00,0.93
8792.00,0.93
8791.00,0.93
8790.00,0.94
8789.00,0.94
8788.00,0.94
8787.00,0.94
8786.00,0.94
8785.00,0.95
8784.00,0.95
8783.00,0.95
8782.00,0.96
8781.00,0.96
8780.00,0.96
8779.00,0.97
8778.00,0.97
8777.00,0.98
8776.00,0.98
8775.00,0.98
8774.00,0.99
8773.00,0.99
8772.00,0.99
8771.00,1.00
8770.00,1.00
8769.00,1.01
8768.00,1.01
8767.00,1.02
8766.00,1.03
8765.00,1.03
8764.00,1.04
8763.00,1.04
8762.00,1.05
8761.00,1.05
8760.00,1.06
8759.00,1.06
8758.00,1.06
8757.00,1.06
8756.00,1.07
8755.00,1.07
8754.00,1.07
8753.00,1.07
8752.00,1.06
8751.00,1.06
8750.00,1.06
8749.00,1.06
8748.00,1.05
8747.00,1.05
8746.00,1.05
8745.00,1.04
8744.00,1.04
8743.00,1.03
8742.00,1.03
8741.00,1.02
8740.00,1.02
8739.00,1.01
8738.00,1.01
8737.00,1.00
8736.00,0.99
8735.00,0.99
8734.00,0.99
8733.00,0.98
8732.00,0.98
8731.00,0.98
8730.00,0.97
8729.00,0.97
8728.00,0.97
8727.00,0.97
8726.00,0.97
8725.00,0.96
8724.00,0.96
8723.00,0.96
8722.00,0.96
8721.00,0.96
8720.00,0.96
8719.00,0.96
8718.00,0.95
8717.00,0.95
8716.00,0.95
8715.00,0.95
8714.00,0.95
8713.00,0.94
8712.00,0.94
8711.00,0.94
8710.00,0.94
8709.00,0.93
8708.00,0.93
8707.00,0.93
8706.00,0.93
8705.00,0.93
8704.00,0.92
8703.00,0.92
8702.00,0.92
8701.00,0.92
8700.00,0.91
8699.00,0.91
8698.00,0.91
8697.00,0.91
8696.00,0.91
8695.00,0.91
8694.00,0.90
8693.00,0.90
8692.00,0.90
8691.00,0.90
8690.00,0.91
8689.00,0.91
8688.00,0.91
8687.00,0.91
8686.00,0.91
8685.00,0.91
8684.00,0.91
8683.00,0.91
8682.00,0.91
8681.00,0.92
8680.00,0.92
8679.00,0.92
8678.00,0.92
8677.00,0.92
8676.00,0.92
8675.00,0.93
8674.00,0.93
8673.00,0.93
8672.00,0.93
8671.00,0.94
8670.00,0.94
8669.00,0.94
8668.00,0.94
8667.00,0.94
8666.00,0.94
8665.00,0.95
8664.00,0.95
8663.00,0.95
8662.00,0.95
8661.00,0.95
8660.00,0.96
8659.00,0.96
8658.00,0.96
8657.00,0.97
8656.00,0.97
8655.00,0.97
8654.00,0.98
8653.00,0.98
8652.00,0.98
8651.00,0.98
8650.00,0.99
8649.00,0.99
8648.00,0.99
8647.00,0.99
8646.00,0.99
8645.00,1.00
8644.00,1.00
8643.00,1.00
8642.00,1.00
8641.00,1.00
8640.00,1.01
8639.00,1.01
8638.00,1.01
8637.00,1.01
8636.00,1.01
8635.00,1.01
8634.00,1.01
8633.00,1.01
8632.00,1.01
8631.00,1.00
8630.00,1.00
8629.00,1.00
8628.00,0.99
8627.00,0.99
8626.00,0.99
8625.00,0.98
8624.00,0.98
8623.00,0.98
8622.00,0.98
8621.00,0.98
8620.00,0.98
8619.00,0.98
8618.00,0.97
8617.00,0.97
8616.00,0.97
8615.00,0.97
8614.00,0.97
8613.00,0.97
8612.00,0.96
8611.00,0.96
8610.00,0.96
8609.00,0.96
8608.00,0.96
8607.00,0.96
8606.00,0.96
8605.00,0.96
8604.00,0.96
8603.00,0.96
8602.00,0.96
8601.00,0.96
8600.00,0.96
8599.00,0.96
8598.00,0.97
8597.00,0.97
8596.00,0.97
8595.00,0.97
8594.00,0.97
8593.00,0.96
8592.00,0.96
8591.00,0.96
8590.00,0.96
8589.00,0.96
8588.00,0.96
8587.00,0.97
8586.00,0.97
8585.00,0.97
8584.00,0.97
8583.00,0.97
8582.00,0.97
8581.00,0.98
8580.00,0.98
8579.00,0.98
8578.00,0.98
8577.00,0.98
8576.00,0.98
8575.00,0.98
8574.00,0.98
8573.00,0.98
8572.00,0.98
8571.00,0.98
8570.00,0.98
8569.00,0.98
8568.00,0.98
8567.00,0.98
8566.00,0.98
8565.00,0.99
8564.00,0.99
8563.00,0.99
8562.00,0.99
8561.00,0.99
8560.00,0.98
8559.00,0.98
8558.00,0.98
8557.00,0.98
8556.00,0.98
8555.00,0.98
8554.00,0.98
8553.00,0.98
8552.00,0.98
8551.00,0.98
8550.00,0.98
8549.00,0.98
8548.00,0.98
8547.00,0.97
8546.00,0.97
8545.00,0.97
8544.00,0.97
8543.00,0.97
8542.00,0.97
8541.00,0.97
8540.00,0.97
8539.00,0.97
8538.00,0.97
8537.00,0.97
8536.00,0.97
8535.00,0.97
8534.00,0.97
8533.00,0.97
8532.00,0.97
8531.00,0.97
8530.00,0.97
8529.00,0.97
8528.00,0.97
8527.00,0.97
8526.00,0.97
8525.00,0.97
8524.00,0.98
8523.00,0.98
8522.00,0.98
8521.00,0.98
8520.00,0.98
8519.00,0.98
8518.00,0.99
8517.00,0.99
8516.00,0.99
8515.00,0.99
8514.00,0.99
8513.00,0.99
8512.00,0.99
8511.00,0.99
8510.00,1.00
8509.00,1.00
8508.00,1.00
8507.00,1.00
8506.00,1.00
8505.00,1.01
8504.00,1.01
8503.00,1.01
8502.00,1.01
8501.00,1.01
8500.00,1.01
8499.00,1.02
8498.00,1.02
8497.00,1.02
8496.00,1.02
8495.00,1.02
8494.00,1.02
8493.00,1.03
8492.00,1.03
8491.00,1.03
8490.00,1.04
8489.00,1.04
8488.00,1.05
8487.00,1.05
8486.00,1.06
8485.00,1.06
8484.00,1.06
8483.00,1.07
8482.00,1.07
8481.00,1.07
8480.00,1.08
8479.00,1.08
8478.00,1.08
8477.00,1.08
8476.00,1.09
8475.00,1.09
8474.00,1.09
8473.00,1.09
8472.00,1.09
8471.00,1.08
8470.00,1.08
8469.00,1.08
8468.00,1.07
8467.00,1.07
8466.00,1.06
8465.00,1.06
8464.00,1.05
8463.00,1.04
8462.00,1.04
8461.00,1.03
8460.00,1.02
8459.00,1.01
8458.00,1.00
8457.00,0.99
8456.00,0.98
8455.00,0.98
8454.00,0.97
8453.00,0.96
8452.00,0.95
8451.00,0.95
8450.00,0.94
8449.00,0.94
8448.00,0.93
8447.00,0.93
8446.00,0.93
8445.00,0.92
8444.00,0.92
8443.00,0.92
8442.00,0.92
8441.00,0.92
8440.00,0.92
8439.00,0.92
8438.00,0.93
8437.00,0.93
8436.00,0.93
8435.00,0.94
8434.00,0.94
8433.00,0.95
8432.00,0.95
8431.00,0.96
8430.00,0.96
8429.00,0.97
8428.00,0.97
8427.00,0.97
8426.00,0.98
8425.00,0.98
8424.00,0.98
8423.00,0.99
8422.00,0.99
8421.00,0.99
8420.00,0.99
8419.00,0.99
8418.00,1.00
8417.00,1.00
8416.00,1.00
8415.00,1.00
8414.00,1.00
8413.00,1.00
8412.00,1.00
8411.00,1.00
8410.00,1.00
8409.00,0.99
8408.00,0.99
8407.00,0.99
8406.00,0.98
8405.00,0.98
8404.00,0.98
8403.00,0.97
8402.00,0.97
8401.00,0.97
8400.00,0.97
8399.00,0.97
8398.00,0.97
8397.00,0.97
8396.00,0.97
8395.00,0.97
8394.00,0.97
8393.00,0.97
8392.00,0.97
8391.00,0.97
8390.00,0.97
8389.00,0.97
8388.00,0.97
8387.00,0.97
8386.00,0.98
8385.00,0.98
8384.00,0.98
8383.00,0.99
8382.00,0.99
8381.00,0.99
8380.00,1.00
8379.00,1.00
8378.00,1.01
8377.00,1.01
8376.00,1.02
8375.00,1.02
8374.00,1.03
8373.00,1.03
8372.00,1.04
8371.00,1.04
8370.00,1.05
8369.00,1.05
8368.00,1.05
8367.00,1.06
8366.00,1.06
8365.00,1.07
8364.00,1.07
8363.00,1.07
8362.00,1.08
8361.00,1.08
8360.00,1.09
8359.00,1.09
8358.00,1.10
8357.00,1.10
8356.00,1.10
8355.00,1.11
8354.00,1.11
8353.00,1.11
8352.00,1.11
8351.00,1.12
8350.00,1.12
8349.00,1.12
8348.00,1.12
8347.00,1.12
8346.00,1.12
8345.00,1.11
8344.00,1.11
8343.00,1.11
8342.00,1.11
8341.00,1.11
8340.00,1.10
8339.00,1.10
8338.00,1.10
8337.00,1.10
8336.00,1.09
8335.00,1.09
8334.00,1.08
8333.00,1.08
8332.00,1.08
8331.00,1.07
8330.00,1.07
8329.00,1.07
8328.00,1.06
8327.00,1.06
8326.00,1.05
8325.00,1.05
8324.00,1.05
8323.00,1.04
8322.00,1.04
8321.00,1.04
8320.00,1.04
8319.00,1.03
8318.00,1.03
8317.00,1.03
8316.00,1.03
8315.00,1.02
8314.00,1.02
8313.00,1.02
8312.00,1.02
8311.00,1.01
8310.00,1.01
8309.00,1.01
8308.00,1.00
8307.00,1.00
8306.00,1.00
8305.00,0.99
8304.00,0.99
8303.00,0.98
8302.00,0.98
8301.00,0.97
8300.00,0.97
8299.00,0.96
8298.00,0.96
8297.00,0.96
8296.00,0.95
8295.00,0.95
8294.00,0.95
8293.00,0.94
8292.00,0.94
8291.00,0.94
8290.00,0.94
8289.00,0.94
8288.00,0.93
8287.00,0.93
8286.00,0.93
8285.00,0.93
8284.00,0.93
8283.00,0.94
8282.00,0.94
8281.00,0.94
8280.00,0.94
8279.00,0.94
8278.00,0.95
8277.00,0.95
8276.00,0.95
8275.00,0.96
8274.00,0.96
8273.00,0.96
8272.00,0.97
8271.00,0.97
8270.00,0.98
8269.00,0.98
8268.00,0.99
8267.00,0.99
8266.00,0.99
8265.00,1.00
8264.00,1.00
8263.00,1.00
8262.00,1.00
8261.00,1.00
8260.00,1.01
8259.00,1.01
8258.00,1.01
8257.00,1.01
8256.00,1.02
8255.00,1.02
8254.00,1.02
8253.00,1.02
8252.00,1.03
8251.00,1.03
8250.00,1.03
8249.00,1.03
8248.00,1.04
8247.00,1.04
8246.00,1.04
8245.00,1.04
8244.00,1.04
8243.00,1.04
8242.00,1.04
8241.00,1.05
8240.00,1.05
8239.00,1.05
8238.00,1.05
8237.00,1.05
8236.00,1.06
8235.00,1.06
8234.00,1.06
8233.00,1.06
8232.00,1.06
8231.00,1.06
8230.00,1.05
8229.00,1.05
8228.00,1.05
8227.00,1.05
8226.00,1.04
8225.00,1.04
8224.00,1.04
8223.00,1.04
8222.00,1.03
8221.00,1.03
8220.00,1.03
8219.00,1.03
8218.00,1.03
8217.00,1.03
8216.00,1.02
8215.00,1.02
8214.00,1.02
8213.00,1.02
8212.00,1.01
8211.00,1.01
8210.00,1.01
8209.00,1.01
8208.00,1.01
8207.00,1.01
8206.00,1.01
8205.00,1.01
8204.00,1.01
8203.00,1.01
8202.00,1.02
8201.00,1.02
8200.00,1.02
8199.00,1.02
8198.00,1.03
8197.00,1.03
8196.00,1.03
8195.00,1.03
8194.00,1.03
8193.00,1.03
8192.00,1.03
8191.00,1.03
8190.00,1.03
8189.00,1.03
8188.00,1.03
8187.00,1.03
8186.00,1.03
8185.00,1.03
8184.00,1.03
8183.00,1.03
8182.00,1.03
8181.00,1.02
8180.00,1.02
8179.00,1.02
8178.00,1.02
8177.00,1.01
8176.00,1.01
8175.00,1.01
8174.00,1.01
8173.00,1.00
8172.00,1.00
8171.00,1.00
8170.00,0.99
8169.00,0.99
8168.00,0.99
8167.00,0.99
8166.00,0.98
8165.00,0.98
8164.00,0.98
8163.00,0.98
8162.00,0.98
8161.00,0.98
8160.00,0.98
8159.00,0.98
8158.00,0.98
8157.00,0.98
8156.00,0.98
8155.00,0.98
8154.00,0.98
8153.00,0.98
8152.00,0.98
8151.00,0.98
8150.00,0.98
8149.00,0.98
8148.00,0.98
8147.00,0.98
8146.00,0.98
8145.00,0.99
8144.00,0.99
8143.00,0.99
8142.00,1.00
8141.00,1.00
8140.00,1.00
8139.00,1.00
8138.00,1.01
8137.00,1.01
8136.00,1.01
8135.00,1.02
8134.00,1.02
8133.00,1.02
8132.00,1.03
8131.00,1.03
8130.00,1.03
8129.00,1.03
8128.00,1.03
8127.00,1.04
8126.00,1.04
8125.00,1.04
8124.00,1.04
8123.00,1.05
8122.00,1.05
8121.00,1.05
8120.00,1.05
8119.00,1.05
8118.00,1.05
8117.00,1.05
8116.00,1.05
8115.00,1.05
8114.00,1.05
8113.00,1.05
8112.00,1.05
8111.00,1.05
8110.00,1.04
8109.00,1.04
8108.00,1.04
8107.00,1.04
8106.00,1.04
8105.00,1.04
8104.00,1.04
8103.00,1.04
8102.00,1.04
8101.00,1.04
8100.00,1.04
8099.00,1.04
8098.00,1.04
8097.00,1.04
8096.00,1.04
8095.00,1.04
8094.00,1.04
8093.00,1.05
8092.00,1.05
8091.00,1.05
8090.00,1.05
8089.00,1.05
8088.00,1.05
8087.00,1.05
8086.00,1.05
8085.00,1.04
8084.00,1.04
8083.00,1.04
8082.00,1.04
8081.00,1.04
8080.00,1.04
8079.00,1.04
8078.00,1.04
8077.00,1.04
8076.00,1.04
8075.00,1.04
8074.00,1.04
8073.00,1.04
8072.00,1.04
8071.00,1.04
8070.00,1.04
8069.00,1.04
8068.00,1.04
8067.00,1.04
8066.00,1.04
8065.00,1.04
8064.00,1.04
8063.00,1.04
8062.00,1.04
8061.00,1.04
8060.00,1.04
8059.00,1.04
8058.00,1.05
8057.00,1.05
8056.00,1.05
8055.00,1.05
8054.00,1.05
8053.00,1.05
8052.00,1.05
8051.00,1.05
8050.00,1.05
8049.00,1.05
8048.00,1.05
8047.00,1.05
8046.00,1.05
8045.00,1.05
8044.00,1.05
8043.00,1.05
8042.00,1.04
8041.00,1.04
8040.00,1.04
8039.00,1.04
8038.00,1.04
8037.00,1.04
8036.00,1.04
8035.00,1.04
8034.00,1.04
8033.00,1.04
8032.00,1.04
8031.00,1.03
8030.00,1.03
8029.00,1.03
8028.00,1.03
8027.00,1.03
8026.00,1.03
8025.00,1.03
8024.00,1.03
8023.00,1.03
8022.00,1.03
8021.00,1.03
8020.00,1.03
8019.00,1.03
8018.00,1.03
8017.00,1.03
8016.00,1.03
8015.00,1.03
8014.00,1.03
8013.00,1.03
8012.00,1.03
8011.00,1.03
8010.00,1.03
8009.00,1.03
8008.00,1.03
8007.00,1.03
8006.00,1.03
8005.00,1.03
8004.00,1.03
8003.00,1.03
8002.00,1.03
8001.00,1.03
8000.00,1.03
7999.00,1.03
7998.00,1.03
7997.00,1.03
7996.00,1.03
7995.00,1.03
7994.00,1.03
7993.00,1.03
7992.00,1.03
7991.00,1.03
7990.00,1.03
7989.00,1.02
7988.00,1.02
7987.00,1.02
7986.00,1.02
7985.00,1.02
7984.00,1.02
7983.00,1.02
7982.00,1.02
7981.00,1.02
7980.00,1.02
7979.00,1.02
7978.00,1.02
7977.00,1.02
7976.00,1.02
7975.00,1.02
7974.00,1.02
7973.00,1.02
7972.00,1.02
7971.00,1.02
7970.00,1.02
7969.00,1.03
7968.00,1.03
7967.00,1.03
7966.00,1.03
7965.00,1.03
7964.00,1.03
7963.00,1.03
7962.00,1.03
7961.00,1.03
7960.00,1.03
7959.00,1.03
7958.00,1.03
7957.00,1.03
7956.00,1.04
7955.00,1.04
7954.00,1.04
7953.00,1.04
7952.00,1.04
7951.00,1.04
7950.00,1.04
7949.00,1.04
7948.00,1.04
7947.00,1.04
7946.00,1.04
7945.00,1.04
7944.00,1.04
7943.00,1.04
7942.00,1.04
7941.00,1.04
7940.00,1.04
7939.00,1.04
7938.00,1.04
7937.00,1.03
7936.00,1.03
7935.00,1.03
7934.00,1.03
7933.00,1.03
7932.00,1.03
7931.00,1.03
7930.00,1.02
7929.00,1.02
7928.00,1.02
7927.00,1.02
7926.00,1.02
7925.00,1.01
7924.00,1.01
7923.00,1.01
7922.00,1.01
7921.00,1.00
7920.00,1.00
7919.00,1.00
7918.00,1.00
7917.00,1.00
7916.00,1.00
7915.00,0.99
7914.00,0.99
7913.00,0.99
7912.00,0.99
7911.00,0.99
7910.00,0.99
7909.00,0.99
7908.00,0.99
7907.00,0.99
7906.00,0.99
7905.00,1.00
7904.00,1.00
7903.00,1.00
7902.00,1.00
7901.00,1.00
7900.00,1.00
7899.00,1.01
7898.00,1.01
7897.00,1.01
7896.00,1.01
7895.00,1.02
7894.00,1.02
7893.00,1.02
7892.00,1.02
7891.00,1.03
7890.00,1.03
7889.00,1.03
7888.00,1.03
7887.00,1.03
7886.00,1.04
7885.00,1.04
7884.00,1.04
7883.00,1.04
7882.00,1.04
7881.00,1.04
7880.00,1.04
7879.00,1.04
7878.00,1.04
7877.00,1.04
7876.00,1.04
7875.00,1.04
7874.00,1.03
7873.00,1.03
7872.00,1.03
7871.00,1.03
7870.00,1.03
7869.00,1.02
7868.00,1.02
7867.00,1.02
7866.00,1.02
7865.00,1.02
7864.00,1.01
7863.00,1.01
7862.00,1.01
7861.00,1.01
7860.00,1.00
7859.00,1.00
7858.00,1.00
7857.00,1.00
7856.00,0.99
7855.00,0.99
7854.00,0.99
7853.00,0.99
7852.00,0.99
7851.00,0.99
7850.00,0.99
7849.00,0.99
7848.00,0.99
7847.00,0.99
7846.00,0.99
7845.00,0.99
7844.00,0.99
7843.00,1.00
7842.00,1.00
7841.00,1.00
7840.00,1.00
7839.00,1.00
7838.00,1.00
7837.00,1.00
7836.00,1.00
7835.00,1.01
7834.00,1.01
7833.00,1.01
7832.00,1.01
7831.00,1.01
7830.00,1.02
7829.00,1.02
7828.00,1.02
7827.00,1.02
7826.00,1.02
7825.00,1.02
7824.00,1.02
7823.00,1.02
7822.00,1.02
7821.00,1.02
7820.00,1.02
7819.00,1.02
7818.00,1.02
7817.00,1.02
7816.00,1.02
7815.00,1.02
7814.00,1.02
7813.00,1.02
7812.00,1.02
7811.00,1.02
7810.00,1.02
7809.00,1.02
7808.00,1.02
7807.00,1.02
7806.00,1.02
7805.00,1.02
7804.00,1.02
7803.00,1.02
7802.00,1.02
7801.00,1.02
7800.00,1.02
7799.00,1.02
7798.00,1.02
7797.00,1.02
7796.00,1.02
7795.00,1.02
7794.00,1.02
7793.00,1.03
7792.00,1.03
7791.00,1.03
7790.00,1.03
7789.00,1.03
7788.00,1.03
7787.00,1.03
7786.00,1.03
7785.00,1.04
7784.00,1.04
7783.00,1.04
7782.00,1.04
7781.00,1.04
7780.00,1.04
7779.00,1.04
7778.00,1.04
7777.00,1.05
7776.00,1.05
7775.00,1.05
7774.00,1.05
7773.00,1.05
7772.00,1.05
7771.00,1.05
7770.00,1.05
7769.00,1.06
7768.00,1.06
7767.00,1.06
7766.00,1.06
7765.00,1.05
7764.00,1.05
7763.00,1.05
7762.00,1.05
7761.00,1.05
7760.00,1.05
7759.00,1.05
7758.00,1.05
7757.00,1.05
7756.00,1.05
7755.00,1.05
7754.00,1.04
7753.00,1.04
7752.00,1.04
7751.00,1.04
7750.00,1.04
7749.00,1.04
7748.00,1.04
7747.00,1.04
7746.00,1.03
7745.00,1.03
7744.00,1.03
7743.00,1.03
7742.00,1.03
7741.00,1.03
7740.00,1.03
7739.00,1.03
7738.00,1.02
7737.00,1.02
7736.00,1.02
7735.00,1.02
7734.00,1.03
7733.00,1.03
7732.00,1.03
7731.00,1.03
7730.00,1.03
7729.00,1.03
7728.00,1.03
7727.00,1.03
7726.00,1.03
7725.00,1.03
7724.00,1.03
7723.00,1.03
7722.00,1.03
7721.00,1.03
7720.00,1.03
7719.00,1.03
7718.00,1.03
7717.00,1.03
7716.00,1.03
7715.00,1.03
7714.00,1.03
7713.00,1.03
7712.00,1.03
7711.00,1.03
7710.00,1.03
7709.00,1.03
7708.00,1.03
7707.00,1.02
7706.00,1.02
7705.00,1.02
7704.00,1.02
7703.00,1.01
7702.00,1.01
7701.00,1.01
7700.00,1.01
7699.00,1.00
7698.00,1.00
7697.00,1.00
7696.00,1.00
7695.00,1.00
7694.00,1.00
7693.00,1.00
7692.00,1.00
7691.00,0.99
7690.00,0.99
7689.00,0.99
7688.00,0.99
7687.00,0.99
7686.00,0.99
7685.00,0.99
7684.00,0.99
7683.00,0.99
7682.00,0.98
7681.00,0.98
7680.00,0.98
7679.00,0.98
7678.00,0.99
7677.00,0.99
7676.00,0.99
7675.00,0.99
7674.00,0.99
7673.00,0.99
7672.00,0.99
7671.00,0.99
7670.00,0.99
7669.00,0.99
7668.00,0.99
7667.00,0.99
7666.00,0.99
7665.00,0.99
7664.00,0.98
7663.00,0.98
7662.00,0.99
7661.00,0.99
7660.00,0.99
7659.00,0.99
7658.00,0.99
7657.00,0.99
7656.00,0.99
7655.00,1.00
7654.00,1.00
7653.00,1.00
7652.00,1.00
7651.00,1.01
7650.00,1.01
7649.00,1.01
7648.00,1.02
7647.00,1.02
7646.00,1.02
7645.00,1.02
7644.00,1.03
7643.00,1.03
7642.00,1.03
7641.00,1.04
7640.00,1.04
7639.00,1.04
7638.00,1.05
7637.00,1.05
7636.00,1.05
7635.00,1.06
7634.00,1.06
7633.00,1.06
7632.00,1.06
7631.00,1.06
7630.00,1.07
7629.00,1.07
7628.00,1.07
7627.00,1.07
7626.00,1.07
7625.00,1.06
7624.00,1.06
7623.00,1.06
7622.00,1.06
7621.00,1.06
7620.00,1.06
7619.00,1.06
7618.00,1.06
7617.00,1.06
7616.00,1.05
7615.00,1.05
7614.00,1.05
7613.00,1.05
7612.00,1.05
7611.00,1.04
7610.00,1.04
7609.00,1.04
7608.00,1.04
7607.00,1.04
7606.00,1.04
7605.00,1.03
7604.00,1.03
7603.00,1.03
7602.00,1.03
7601.00,1.03
7600.00,1.03
7599.00,1.03
7598.00,1.03
7597.00,1.03
7596.00,1.03
7595.00,1.03
7594.00,1.03
7593.00,1.03
7592.00,1.03
7591.00,1.03
7590.00,1.04
7589.00,1.04
7588.00,1.04
7587.00,1.04
7586.00,1.04
7585.00,1.04
7584.00,1.04
7583.00,1.04
7582.00,1.04
7581.00,1.04
7580.00,1.04
7579.00,1.04
7578.00,1.04
7577.00,1.05
7576.00,1.05
7575.00,1.04
7574.00,1.04
7573.00,1.04
7572.00,1.04
7571.00,1.04
7570.00,1.04
7569.00,1.04
7568.00,1.03
7567.00,1.03
7566.00,1.03
7565.00,1.03
7564.00,1.02
7563.00,1.02
7562.00,1.01
7561.00,1.01
7560.00,1.01
7559.00,1.00
7558.00,1.00
7557.00,1.00
7556.00,0.99
7555.00,0.99
7554.00,0.99
7553.00,0.98
7552.00,0.98
7551.00,0.97
7550.00,0.97
7549.00,0.97
7548.00,0.97
7547.00,0.96
7546.00,0.96
7545.00,0.96
7544.00,0.96
7543.00,0.96
7542.00,0.96
7541.00,0.96
7540.00,0.96
7539.00,0.96
7538.00,0.96
7537.00,0.96
7536.00,0.97
7535.00,0.97
7534.00,0.97
7533.00,0.98
7532.00,0.98
7531.00,0.99
7530.00,0.99
7529.00,0.99
7528.00,1.00
7527.00,1.00
7526.00,1.01
7525.00,1.01
7524.00,1.02
7523.00,1.03
7522.00,1.03
7521.00,1.04
7520.00,1.04
7519.00,1.05
7518.00,1.05
7517.00,1.06
7516.00,1.06
7515.00,1.06
7514.00,1.07
7513.00,1.07
7512.00,1.07
7511.00,1.08
7510.00,1.08
7509.00,1.08
7508.00,1.08
7507.00,1.08
7506.00,1.09
7505.00,1.09
7504.00,1.09
7503.00,1.09
7502.00,1.09
7501.00,1.09
7500.00,1.09
7499.00,1.09
7498.00,1.09
7497.00,1.09
7496.00,1.08
7495.00,1.08
7494.00,1.08
7493.00,1.08
7492.00,1.07
7491.00,1.07
7490.00,1.07
7489.00,1.07
7488.00,1.06
7487.00,1.06
7486.00,1.06
7485.00,1.05
7484.00,1.05
7483.00,1.05
7482.00,1.04
7481.00,1.04
7480.00,1.04
7479.00,1.03
7478.00,1.03
7477.00,1.03
7476.00,1.02
7475.00,1.02
7474.00,1.02
7473.00,1.01
7472.00,1.01
7471.00,1.01
7470.00,1.01
7469.00,1.01
7468.00,1.01
7467.00,1.00
7466.00,1.00
7465.00,1.01
7464.00,1.01
7463.00,1.01
7462.00,1.01
7461.00,1.01
7460.00,1.01
7459.00,1.01
7458.00,1.01
7457.00,1.01
7456.00,1.01
7455.00,1.01
7454.00,1.01
7453.00,1.01
7452.00,1.01
7451.00,1.01
7450.00,1.01
7449.00,1.01
7448.00,1.01
7447.00,1.01
7446.00,1.01
7445.00,1.01
7444.00,1.01
7443.00,1.01
7442.00,1.01
7441.00,1.01
7440.00,1.01
7439.00,1.01
7438.00,1.01
7437.00,1.00
7436.00,1.00
7435.00,1.00
7434.00,1.00
7433.00,1.00
7432.00,1.00
7431.00,1.01
7430.00,1.01
7429.00,1.01
7428.00,1.01
7427.00,1.01
7426.00,1.01
7425.00,1.02
7424.00,1.02
7423.00,1.02
7422.00,1.03
7421.00,1.03
7420.00,1.03
7419.00,1.04
7418.00,1.04
7417.00,1.05
7416.00,1.05
7415.00,1.05
7414.00,1.05
7413.00,1.06
7412.00,1.06
7411.00,1.06
7410.00,1.06
7409.00,1.06
7408.00,1.07
7407.00,1.07
7406.00,1.07
7405.00,1.07
7404.00,1.07
7403.00,1.07
7402.00,1.07
7401.00,1.07
7400.00,1.07
7399.00,1.07
7398.00,1.07
7397.00,1.07
7396.00,1.06
7395.00,1.06
7394.00,1.06
7393.00,1.06
7392.00,1.06
7391.00,1.06
7390.00,1.06
7389.00,1.06
7388.00,1.06
7387.00,1.06
7386.00,1.06
7385.00,1.06
7384.00,1.07
7383.00,1.07
7382.00,1.07
7381.00,1.07
7380.00,1.07
7379.00,1.08
7378.00,1.08
7377.00,1.08
7376.00,1.08
7375.00,1.09
7374.00,1.09
7373.00,1.09
7372.00,1.09
7371.00,1.09
7370.00,1.10
7369.00,1.10
7368.00,1.10
7367.00,1.10
7366.00,1.10
7365.00,1.10
7364.00,1.10
7363.00,1.10
7362.00,1.10
7361.00,1.10
7360.00,1.10
7359.00,1.10
7358.00,1.10
7357.00,1.10
7356.00,1.10
7355.00,1.09
7354.00,1.09
7353.00,1.09
7352.00,1.09
7351.00,1.09
7350.00,1.09
7349.00,1.09
7348.00,1.09
7347.00,1.09
7346.00,1.09
7345.00,1.08
7344.00,1.08
7343.00,1.08
7342.00,1.08
7341.00,1.08
7340.00,1.08
7339.00,1.08
7338.00,1.08
7337.00,1.08
7336.00,1.08
7335.00,1.08
7334.00,1.08
7333.00,1.08
7332.00,1.08
7331.00,1.08
7330.00,1.08
7329.00,1.08
7328.00,1.07
7327.00,1.07
7326.00,1.07
7325.00,1.07
7324.00,1.07
7323.00,1.07
7322.00,1.07
7321.00,1.07
7320.00,1.07
7319.00,1.08
7318.00,1.08
7317.00,1.08
7316.00,1.08
7315.00,1.08
7314.00,1.08
7313.00,1.08
7312.00,1.08
7311.00,1.08
7310.00,1.08
7309.00,1.08
7308.00,1.08
7307.00,1.08
7306.00,1.08
7305.00,1.08
7304.00,1.08
7303.00,1.08
7302.00,1.08
7301.00,1.08
7300.00,1.08
7299.00,1.08
7298.00,1.08
7297.00,1.08
7296.00,1.08
7295.00,1.08
7294.00,1.07
7293.00,1.07
7292.00,1.07
7291.00,1.07
7290.00,1.07
7289.00,1.07
7288.00,1.07
7287.00,1.06
7286.00,1.06
7285.00,1.06
7284.00,1.06
7283.00,1.06
7282.00,1.06
7281.00,1.06
7280.00,1.06
7279.00,1.07
7278.00,1.07
7277.00,1.07
7276.00,1.07
7275.00,1.07
7274.00,1.07
7273.00,1.08
7272.00,1.08
7271.00,1.08
7270.00,1.08
7269.00,1.08
7268.00,1.08
7267.00,1.09
7266.00,1.09
7265.00,1.09
7264.00,1.10
7263.00,1.10
7262.00,1.10
7261.00,1.11
7260.00,1.11
7259.00,1.11
7258.00,1.12
7257.00,1.12
7256.00,1.12
7255.00,1.13
7254.00,1.13
7253.00,1.13
7252.00,1.13
7251.00,1.14
7250.00,1.14
7249.00,1.14
7248.00,1.14
7247.00,1.14
7246.00,1.15
7245.00,1.15
7244.00,1.15
7243.00,1.15
7242.00,1.16
7241.00,1.16
7240.00,1.16
7239.00,1.16
7238.00,1.16
7237.00,1.16
7236.00,1.16
7235.00,1.16
7234.00,1.16
7233.00,1.16
7232.00,1.15
7231.00,1.15
7230.00,1.15
7229.00,1.15
7228.00,1.15
7227.00,1.14
7226.00,1.14
7225.00,1.14
7224.00,1.14
7223.00,1.13
7222.00,1.13
7221.00,1.13
7220.00,1.12
7219.00,1.12
7218.00,1.11
7217.00,1.11
7216.00,1.10
7215.00,1.10
7214.00,1.10
7213.00,1.09
7212.00,1.09
7211.00,1.08
7210.00,1.08
7209.00,1.08
7208.00,1.07
7207.00,1.07
7206.00,1.07
7205.00,1.07
7204.00,1.06
7203.00,1.06
7202.00,1.06
7201.00,1.05
7200.00,1.05
7199.00,1.05
7198.00,1.05
7197.00,1.04
7196.00,1.04
7195.00,1.04
7194.00,1.04
7193.00,1.03
7192.00,1.03
7191.00,1.03
7190.00,1.03
7189.00,1.03
7188.00,1.02
7187.00,1.02
7186.00,1.02
7185.00,1.02
7184.00,1.02
7183.00,1.02
7182.00,1.02
7181.00,1.02
7180.00,1.02
7179.00,1.03
7178.00,1.03
7177.00,1.03
7176.00,1.03
7175.00,1.03
7174.00,1.03
7173.00,1.03
7172.00,1.03
7171.00,1.04
7170.00,1.04
7169.00,1.04
7168.00,1.04
7167.00,1.04
7166.00,1.04
7165.00,1.05
7164.00,1.05
7163.00,1.05
7162.00,1.05
7161.00,1.05
7160.00,1.05
7159.00,1.05
7158.00,1.05
7157.00,1.05
7156.00,1.05
7155.00,1.05
7154.00,1.05
7153.00,1.05
7152.00,1.04
7151.00,1.04
7150.00,1.04
7149.00,1.04
7148.00,1.04
7147.00,1.04
7146.00,1.04
7145.00,1.04
7144.00,1.04
7143.00,1.04
7142.00,1.04
7141.00,1.03
7140.00,1.03
7139.00,1.03
7138.00,1.03
7137.00,1.03
7136.00,1.03
7135.00,1.03
7134.00,1.03
7133.00,1.03
7132.00,1.03
7131.00,1.03
7130.00,1.03
7129.00,1.02
7128.00,1.02
7127.00,1.02
7126.00,1.02
7125.00,1.02
7124.00,1.02
7123.00,1.01
7122.00,1.01
7121.00,1.01
7120.00,1.01
7119.00,1.00
7118.00,1.00
7117.00,1.00
7116.00,0.99
7115.00,0.99
7114.00,0.99
7113.00,0.98
7112.00,0.98
7111.00,0.98
7110.00,0.97
7109.00,0.97
7108.00,0.97
7107.00,0.97
7106.00,0.97
7105.00,0.96
7104.00,0.96
7103.00,0.96
7102.00,0.96
7101.00,0.96
7100.00,0.96
7099.00,0.96
7098.00,0.96
7097.00,0.96
7096.00,0.96
7095.00,0.95
7094.00,0.95
7093.00,0.95
7092.00,0.95
7091.00,0.95
7090.00,0.95
7089.00,0.96
7088.00,0.96
7087.00,0.96
7086.00,0.96
7085.00,0.96
7084.00,0.96
7083.00,0.96
7082.00,0.96
7081.00,0.96
7080.00,0.96
7079.00,0.96
7078.00,0.96
7077.00,0.96
7076.00,0.96
7075.00,0.96
7074.00,0.96
7073.00,0.96
7072.00,0.96
7071.00,0.96
7070.00,0.97
7069.00,0.97
7068.00,0.97
7067.00,0.97
7066.00,0.97
7065.00,0.97
7064.00,0.97
7063.00,0.98
7062.00,0.98
7061.00,0.98
7060.00,0.98
7059.00,0.98
7058.00,0.98
7057.00,0.98
7056.00,0.98
7055.00,0.98
7054.00,0.98
7053.00,0.98
7052.00,0.98
7051.00,0.98
7050.00,0.99
7049.00,0.99
7048.00,0.99
7047.00,0.99
7046.00,0.99
7045.00,0.99
7044.00,0.99
7043.00,0.99
7042.00,0.99
7041.00,0.99
7040.00,0.99
7039.00,1.00
7038.00,1.00
7037.00,1.00
7036.00,1.00
7035.00,1.00
7034.00,1.00
7033.00,1.01
7032.00,1.01
7031.00,1.01
7030.00,1.01
7029.00,1.02
7028.00,1.02
7027.00,1.02
7026.00,1.02
7025.00,1.02
7024.00,1.02
7023.00,1.02
7022.00,1.02
7021.00,1.02
7020.00,1.03
7019.00,1.03
7018.00,1.03
7017.00,1.03
7016.00,1.03
7015.00,1.03
7014.00,1.03
7013.00,1.03
7012.00,1.03
7011.00,1.03
7010.00,1.03
7009.00,1.03
7008.00,1.03
7007.00,1.02
7006.00,1.02
7005.00,1.02
7004.00,1.02
7003.00,1.01
7002.00,1.01
7001.00,1.01
7000.00,1.01
6999.00,1.00
6998.00,1.00
6997.00,1.00
6996.00,1.00
6995.00,1.00
6994.00,1.00
6993.00,0.99
6992.00,0.99
6991.00,0.99
6990.00,0.99
6989.00,0.99
6988.00,0.98
6987.00,0.98
6986.00,0.98
6985.00,0.98
6984.00,0.98
6983.00,0.98
6982.00,0.98
6981.00,0.98
6980.00,0.98
6979.00,0.98
6978.00,0.98
6977.00,0.98
6976.00,0.98
6975.00,0.98
6974.00,0.98
6973.00,0.98
6972.00,0.98
6971.00,0.98
6970.00,0.98
6969.00,0.98
6968.00,0.98
6967.00,0.97
6966.00,0.97
6965.00,0.97
6964.00,0.97
6963.00,0.97
6962.00,0.97
6961.00,0.97
6960.00,0.97
6959.00,0.97
6958.00,0.97
6957.00,0.97
6956.00,0.97
6955.00,0.97
6954.00,0.97
6953.00,0.97
6952.00,0.97
6951.00,0.97
6950.00,0.96
6949.00,0.96
6948.00,0.96
6947.00,0.96
6946.00,0.96
6945.00,0.96
6944.00,0.96
6943.00,0.96
6942.00,0.96
6941.00,0.96
6940.00,0.96
6939.00,0.96
6938.00,0.96
6937.00,0.96
6936.00,0.96
6935.00,0.96
6934.00,0.96
6933.00,0.96
6932.00,0.96
6931.00,0.95
6930.00,0.95
6929.00,0.95
6928.00,0.95
6927.00,0.95
6926.00,0.95
6925.00,0.95
6924.00,0.95
6923.00,0.95
6922.00,0.95
6921.00,0.95
6920.00,0.96
6919.00,0.96
6918.00,0.96
6917.00,0.96
6916.00,0.96
6915.00,0.96
6914.00,0.96
6913.00,0.96
6912.00,0.96
6911.00,0.97
6910.00,0.97
6909.00,0.97
6908.00,0.97
6907.00,0.97
6906.00,0.97
6905.00,0.97
6904.00,0.98
6903.00,0.98
6902.00,0.98
6901.00,0.98
6900.00,0.99
6899.00,0.99
6898.00,0.99
6897.00,0.99
6896.00,0.99
6895.00,0.99
6894.00,1.00
6893.00,1.00
6892.00,1.00
6891.00,1.00
6890.00,1.00
6889.00,1.00
6888.00,1.00
6887.00,1.00
6886.00,1.00
6885.00,1.00
6884.00,1.00
6883.00,1.00
6882.00,1.00
6881.00,1.00
6880.00,1.00
6879.00,1.01
6878.00,1.01
6877.00,1.00
6876.00,1.00
6875.00,1.00
6874.00,1.00
6873.00,1.00
6872.00,1.00
6871.00,1.00
6870.00,1.00
6869.00,1.00
6868.00,0.99
6867.00,0.99
6866.00,0.99
6865.00,0.99
6864.00,0.99
6863.00,0.99
6862.00,0.99
6861.00,0.98
6860.00,0.98
6859.00,0.98
6858.00,0.98
6857.00,0.98
6856.00,0.98
6855.00,0.98
6854.00,0.98
6853.00,0.97
6852.00,0.97
6851.00,0.97
6850.00,0.97
6849.00,0.97
6848.00,0.97
6847.00,0.97
6846.00,0.97
6845.00,0.97
6844.00,0.97
6843.00,0.97
6842.00,0.97
6841.00,0.98
6840.00,0.98
6839.00,0.98
6838.00,0.98
6837.00,0.98
6836.00,0.98
6835.00,0.98
6834.00,0.98
6833.00,0.98
6832.00,0.98
6831.00,0.98
6830.00,0.98
6829.00,0.98
6828.00,0.97
6827.00,0.97
6826.00,0.97
6825.00,0.97
6824.00,0.97
6823.00,0.97
6822.00,0.97
6821.00,0.97
6820.00,0.97
6819.00,0.97
6818.00,0.97
6817.00,0.97
6816.00,0.96
6815.00,0.96
6814.00,0.96
6813.00,0.96
6812.00,0.96
6811.00,0.96
6810.00,0.96
6809.00,0.96
6808.00,0.96
6807.00,0.96
6806.00,0.96
6805.00,0.96
6804.00,0.97
6803.00,0.97
6802.00,0.97
6801.00,0.97
6800.00,0.97
6799.00,0.97
6798.00,0.97
6797.00,0.97
6796.00,0.97
6795.00,0.98
6794.00,0.98
6793.00,0.98
6792.00,0.98
6791.00,0.99
6790.00,0.99
6789.00,0.99
6788.00,0.99
6787.00,0.99
6786.00,1.00
6785.00,1.00
6784.00,1.00
6783.00,1.00
6782.00,1.01
6781.00,1.01
6780.00,1.01
6779.00,1.01
6778.00,1.01
6777.00,1.02
6776.00,1.02
6775.00,1.02
6774.00,1.02
6773.00,1.03
6772.00,1.03
6771.00,1.03
6770.00,1.03
6769.00,1.03
6768.00,1.03
6767.00,1.04
6766.00,1.04
6765.00,1.04
6764.00,1.04
6763.00,1.04
6762.00,1.04
6761.00,1.04
6760.00,1.04
6759.00,1.04
6758.00,1.04
6757.00,1.04
6756.00,1.04
6755.00,1.04
6754.00,1.04
6753.00,1.04
6752.00,1.04
6751.00,1.04
6750.00,1.04
6749.00,1.04
6748.00,1.04
6747.00,1.04
6746.00,1.04
6745.00,1.04
6744.00,1.04
6743.00,1.04
6742.00,1.04
6741.00,1.04
6740.00,1.04
6739.00,1.04
6738.00,1.04
6737.00,1.04
6736.00,1.04
6735.00,1.05
6734.00,1.05
6733.00,1.05
6732.00,1.05
6731.00,1.04
6730.00,1.04
6729.00,1.04
6728.00,1.04
6727.00,1.04
6726.00,1.04
6725.00,1.04
6724.00,1.04
6723.00,1.04
6722.00,1.04
6721.00,1.04
6720.00,1.04
6719.00,1.04
6718.00,1.04
6717.00,1.04
6716.00,1.04
6715.00,1.04
6714.00,1.04
6713.00,1.04
6712.00,1.04
6711.00,1.04
6710.00,1.04
6709.00,1.04
6708.00,1.04
6707.00,1.04
6706.00,1.04
6705.00,1.04
6704.00,1.04
6703.00,1.04
6702.00,1.04
6701.00,1.04
6700.00,1.04
6699.00,1.04
6698.00,1.04
6697.00,1.04
6696.00,1.04
6695.00,1.04
6694.00,1.04
6693.00,1.04
6692.00,1.04
6691.00,1.04
6690.00,1.04
6689.00,1.04
6688.00,1.04
6687.00,1.04
6686.00,1.04
6685.00,1.04
6684.00,1.03
6683.00,1.03
6682.00,1.03
6681.00,1.03
6680.00,1.03
6679.00,1.02
6678.00,1.02
6677.00,1.02
6676.00,1.02
6675.00,1.02
6674.00,1.01
6673.00,1.01
6672.00,1.01
6671.00,1.01
6670.00,1.01
6669.00,1.01
6668.00,1.01
6667.00,1.01
6666.00,1.01
6665.00,1.00
6664.00,1.00
6663.00,1.00
6662.00,1.00
6661.00,1.00
6660.00,1.00
6659.00,1.00
6658.00,1.00
6657.00,1.00
6656.00,1.00
6655.00,1.00
6654.00,1.00
6653.00,1.00
6652.00,1.00
6651.00,1.00
6650.00,1.00
6649.00,1.00
6648.00,1.00
6647.00,1.00
6646.00,1.00
6645.00,1.00
6644.00,1.00
6643.00,1.00
6642.00,1.00
6641.00,1.00
6640.00,1.00
6639.00,1.00
6638.00,1.00
6637.00,1.00
6636.00,1.00
6635.00,1.00
6634.00,1.00
6633.00,1.01
6632.00,1.01
6631.00,1.01
6630.00,1.01
6629.00,1.01
6628.00,1.01
6627.00,1.01
6626.00,1.01
6625.00,1.02
6624.00,1.02
6623.00,1.02
6622.00,1.02
6621.00,1.02
6620.00,1.02
6619.00,1.02
6618.00,1.02
6617.00,1.02
6616.00,1.02
6615.00,1.03
6614.00,1.03
6613.00,1.03
6612.00,1.03
6611.00,1.03
6610.00,1.03
6609.00,1.03
6608.00,1.03
6607.00,1.03
6606.00,1.04
6605.00,1.04
6604.00,1.04
6603.00,1.04
6602.00,1.04
6601.00,1.04
6600.00,1.04
6599.00,1.04
6598.00,1.04
6597.00,1.04
6596.00,1.04
6595.00,1.04
6594.00,1.04
6593.00,1.04
6592.00,1.04
6591.00,1.05
6590.00,1.05
6589.00,1.05
6588.00,1.05
6587.00,1.05
6586.00,1.05
6585.00,1.05
6584.00,1.05
6583.00,1.05
6582.00,1.05
6581.00,1.06
6580.00,1.06
6579.00,1.06
6578.00,1.06
6577.00,1.06
6576.00,1.06
6575.00,1.06
6574.00,1.06
6573.00,1.07
6572.00,1.07
6571.00,1.07
6570.00,1.07
6569.00,1.07
6568.00,1.07
6567.00,1.07
6566.00,1.07
6565.00,1.07
6564.00,1.07
6563.00,1.07
6562.00,1.07
6561.00,1.07
6560.00,1.07
6559.00,1.07
6558.00,1.07
6557.00,1.07
6556.00,1.07
6555.00,1.07
6554.00,1.07
6553.00,1.07
6552.00,1.07
6551.00,1.07
6550.00,1.07
6549.00,1.07
6548.00,1.07
6547.00,1.07
6546.00,1.07
6545.00,1.06
6544.00,1.06
6543.00,1.06
6542.00,1.06
6541.00,1.06
6540.00,1.06
6539.00,1.06
6538.00,1.06
6537.00,1.05
6536.00,1.05
6535.00,1.05
6534.00,1.05
6533.00,1.05
6532.00,1.05
6531.00,1.05
6530.00,1.05
6529.00,1.05
6528.00,1.05
6527.00,1.05
6526.00,1.05
6525.00,1.04
6524.00,1.04
6523.00,1.04
6522.00,1.04
6521.00,1.04
6520.00,1.04
6519.00,1.05
6518.00,1.05
6517.00,1.05
6516.00,1.05
6515.00,1.05
6514.00,1.05
6513.00,1.05
6512.00,1.05
6511.00,1.05
6510.00,1.06
6509.00,1.06
6508.00,1.06
6507.00,1.06
6506.00,1.06
6505.00,1.06
6504.00,1.06
6503.00,1.06
6502.00,1.06
6501.00,1.06
6500.00,1.06
6499.00,1.06
6498.00,1.06
6497.00,1.06
6496.00,1.06
6495.00,1.06
6494.00,1.06
6493.00,1.06
6492.00,1.06
6491.00,1.06
6490.00,1.06
6489.00,1.06
6488.00,1.05
6487.00,1.05
6486.00,1.05
6485.00,1.05
6484.00,1.05
6483.00,1.05
6482.00,1.04
6481.00,1.04
6480.00,1.04
6479.00,1.04
6478.00,1.04
6477.00,1.04
6476.00,1.04
6475.00,1.04
6474.00,1.04
6473.00,1.04
6472.00,1.04
6471.00,1.04
6470.00,1.04
6469.00,1.04
6468.00,1.04
6467.00,1.04
6466.00,1.04
6465.00,1.04
6464.00,1.04
6463.00,1.04
6462.00,1.04
6461.00,1.04
6460.00,1.04
6459.00,1.05
6458.00,1.05
6457.00,1.05
6456.00,1.05
6455.00,1.05
6454.00,1.05
6453.00,1.05
6452.00,1.05
6451.00,1.05
6450.00,1.05
6449.00,1.05
6448.00,1.05
6447.00,1.05
6446.00,1.05
6445.00,1.05
6444.00,1.05
6443.00,1.05
6442.00,1.05
6441.00,1.05
6440.00,1.05
6439.00,1.05
6438.00,1.05
6437.00,1.05
6436.00,1.05
6435.00,1.05
6434.00,1.05
6433.00,1.05
6432.00,1.05
6431.00,1.05
6430.00,1.05
6429.00,1.05
6428.00,1.05
6427.00,1.06
6426.00,1.06
6425.00,1.06
6424.00,1.06
6423.00,1.06
6422.00,1.06
6421.00,1.06
6420.00,1.06
6419.00,1.07
6418.00,1.07
6417.00,1.07
6416.00,1.07
6415.00,1.07
6414.00,1.07
6413.00,1.07
6412.00,1.07
6411.00,1.08
6410.00,1.08
6409.00,1.08
6408.00,1.08
6407.00,1.08
6406.00,1.08
6405.00,1.08
6404.00,1.09
6403.00,1.09
6402.00,1.09
6401.00,1.09
6400.00,1.09
6399.00,1.09
6398.00,1.09
6397.00,1.09
6396.00,1.09
6395.00,1.09
6394.00,1.09
6393.00,1.09
6392.00,1.09
6391.00,1.09
6390.00,1.09
6389.00,1.09
6388.00,1.09
6387.00,1.09
6386.00,1.08
6385.00,1.08
6384.00,1.08
6383.00,1.08
6382.00,1.08
6381.00,1.08
6380.00,1.08
6379.00,1.08
6378.00,1.08
6377.00,1.08
6376.00,1.08
6375.00,1.08
6374.00,1.08
6373.00,1.08
6372.00,1.08
6371.00,1.08
6370.00,1.08
6369.00,1.08
6368.00,1.08
6367.00,1.08
6366.00,1.08
6365.00,1.08
6364.00,1.08
6363.00,1.08
6362.00,1.09
6361.00,1.09
6360.00,1.09
6359.00,1.09
6358.00,1.09
6357.00,1.09
6356.00,1.09
6355.00,1.09
6354.00,1.09
6353.00,1.09
6352.00,1.09
6351.00,1.09
6350.00,1.09
6349.00,1.09
6348.00,1.09
6347.00,1.09
6346.00,1.09
6345.00,1.09
6344.00,1.09
6343.00,1.08
6342.00,1.08
6341.00,1.08
6340.00,1.08
6339.00,1.08
6338.00,1.08
6337.00,1.08
6336.00,1.07
6335.00,1.07
6334.00,1.07
6333.00,1.07
6332.00,1.07
6331.00,1.07
6330.00,1.07
6329.00,1.07
6328.00,1.07
6327.00,1.07
6326.00,1.07
6325.00,1.07
6324.00,1.07
6323.00,1.07
6322.00,1.08
6321.00,1.08
6320.00,1.08
6319.00,1.08
6318.00,1.08
6317.00,1.08
6316.00,1.08
6315.00,1.08
6314.00,1.08
6313.00,1.08
6312.00,1.08
6311.00,1.08
6310.00,1.09
6309.00,1.09
6308.00,1.09
6307.00,1.09
6306.00,1.09
6305.00,1.09
6304.00,1.09
6303.00,1.09
6302.00,1.09
6301.00,1.09
6300.00,1.09
6299.00,1.09
6298.00,1.09
6297.00,1.09
6296.00,1.09
6295.00,1.09
6294.00,1.09
6293.00,1.09
6292.00,1.09
6291.00,1.09
6290.00,1.09
6289.00,1.09
6288.00,1.09
6287.00,1.09
6286.00,1.09
6285.00,1.09
6284.00,1.09
6283.00,1.09
6282.00,1.09
6281.00,1.09
6280.00,1.09
6279.00,1.09
6278.00,1.08
6277.00,1.08
6276.00,1.08
6275.00,1.08
6274.00,1.08
6273.00,1.08
6272.00,1.08
6271.00,1.08
6270.00,1.08
6269.00,1.08
6268.00,1.08
6267.00,1.08
6266.00,1.08
6265.00,1.09
6264.00,1.09
6263.00,1.09
6262.00,1.09
6261.00,1.09
6260.00,1.09
6259.00,1.09
6258.00,1.09
6257.00,1.09
6256.00,1.09
6255.00,1.09
6254.00,1.09
6253.00,1.09
6252.00,1.10
6251.00,1.10
6250.00,1.10
6249.00,1.10
6248.00,1.10
6247.00,1.10
6246.00,1.10
6245.00,1.10
6244.00,1.11
6243.00,1.11
6242.00,1.11
6241.00,1.11
6240.00,1.11
6239.00,1.11
6238.00,1.11
6237.00,1.11
6236.00,1.11
6235.00,1.11
6234.00,1.11
6233.00,1.11
6232.00,1.11
6231.00,1.10
6230.00,1.10
6229.00,1.10
6228.00,1.10
6227.00,1.10
6226.00,1.10
6225.00,1.10
6224.00,1.10
6223.00,1.10
6222.00,1.10
6221.00,1.10
6220.00,1.09
6219.00,1.09
6218.00,1.09
6217.00,1.09
6216.00,1.09
6215.00,1.09
6214.00,1.09
6213.00,1.09
6212.00,1.08
6211.00,1.08
6210.00,1.08
6209.00,1.08
6208.00,1.08
6207.00,1.08
6206.00,1.08
6205.00,1.08
6204.00,1.08
6203.00,1.08
6202.00,1.08
6201.00,1.08
6200.00,1.08
6199.00,1.08
6198.00,1.08
6197.00,1.08
6196.00,1.08
6195.00,1.08
6194.00,1.08
6193.00,1.08
6192.00,1.09
6191.00,1.09
6190.00,1.09
6189.00,1.09
6188.00,1.09
6187.00,1.09
6186.00,1.10
6185.00,1.10
6184.00,1.10
6183.00,1.10
6182.00,1.11
6181.00,1.11
6180.00,1.11
6179.00,1.11
6178.00,1.12
6177.00,1.12
6176.00,1.12
6175.00,1.12
6174.00,1.13
6173.00,1.13
6172.00,1.13
6171.00,1.13
6170.00,1.13
6169.00,1.14
6168.00,1.14
6167.00,1.14
6166.00,1.14
6165.00,1.14
6164.00,1.14
6163.00,1.14
6162.00,1.14
6161.00,1.14
6160.00,1.14
6159.00,1.14
6158.00,1.14
6157.00,1.14
6156.00,1.13
6155.00,1.13
6154.00,1.13
6153.00,1.13
6152.00,1.13
6151.00,1.12
6150.00,1.12
6149.00,1.12
6148.00,1.12
6147.00,1.12
6146.00,1.11
6145.00,1.11
6144.00,1.11
6143.00,1.11
6142.00,1.11
6141.00,1.11
6140.00,1.11
6139.00,1.11
6138.00,1.11
6137.00,1.10
6136.00,1.10
6135.00,1.10
6134.00,1.10
6133.00,1.10
6132.00,1.10
6131.00,1.10
6130.00,1.11
6129.00,1.11
6128.00,1.11
6127.00,1.11
6126.00,1.11
6125.00,1.11
6124.00,1.11
6123.00,1.11
6122.00,1.11
6121.00,1.11
6120.00,1.11
6119.00,1.11
6118.00,1.12
6117.00,1.12
6116.00,1.12
6115.00,1.12
6114.00,1.12
6113.00,1.12
6112.00,1.12
6111.00,1.12
6110.00,1.12
6109.00,1.13
6108.00,1.13
6107.00,1.13
6106.00,1.13
6105.00,1.13
6104.00,1.13
6103.00,1.14
6102.00,1.14
6101.00,1.14
6100.00,1.14
6099.00,1.14
6098.00,1.14
6097.00,1.14
6096.00,1.14
6095.00,1.14
6094.00,1.14
6093.00,1.14
6092.00,1.14
6091.00,1.14
6090.00,1.14
6089.00,1.14
6088.00,1.14
6087.00,1.14
6086.00,1.14
6085.00,1.14
6084.00,1.14
6083.00,1.14
6082.00,1.14
6081.00,1.14
6080.00,1.13
6079.00,1.13
6078.00,1.13
6077.00,1.13
6076.00,1.13
6075.00,1.13
6074.00,1.13
6073.00,1.12
6072.00,1.12
6071.00,1.12
6070.00,1.12
6069.00,1.12
6068.00,1.12
6067.00,1.12
6066.00,1.12
6065.00,1.12
6064.00,1.12
6063.00,1.12
6062.00,1.12
6061.00,1.12
6060.00,1.13
6059.00,1.13
6058.00,1.13
6057.00,1.13
6056.00,1.13
6055.00,1.13
6054.00,1.13
6053.00,1.13
6052.00,1.13
6051.00,1.13
6050.00,1.13
6049.00,1.13
6048.00,1.13
6047.00,1.13
6046.00,1.14
6045.00,1.14
6044.00,1.14
6043.00,1.14
6042.00,1.14
6041.00,1.14
6040.00,1.14
6039.00,1.14
6038.00,1.14
6037.00,1.14
6036.00,1.14
6035.00,1.14
6034.00,1.14
6033.00,1.14
6032.00,1.14
6031.00,1.14
6030.00,1.14
6029.00,1.14
6028.00,1.14
6027.00,1.14
6026.00,1.14
6025.00,1.14
6024.00,1.14
6023.00,1.14
6022.00,1.14
6021.00,1.14
6020.00,1.14
6019.00,1.14
6018.00,1.14
6017.00,1.14
6016.00,1.14
6015.00,1.14
6014.00,1.14
6013.00,1.14
6012.00,1.13
6011.00,1.13
6010.00,1.13
6009.00,1.13
6008.00,1.13
6007.00,1.13
6006.00,1.13
6005.00,1.13
6004.00,1.13
6003.00,1.13
6002.00,1.13
6001.00,1.13
6000.00,1.13
5999.00,1.13
5998.00,1.13
5997.00,1.12
5996.00,1.12
5995.00,1.12
5994.00,1.12
5993.00,1.12
5992.00,1.13
5991.00,1.13
5990.00,1.13
5989.00,1.13
5988.00,1.13
5987.00,1.13
5986.00,1.13
5985.00,1.13
5984.00,1.13
5983.00,1.13
5982.00,1.13
5981.00,1.13
5980.00,1.13
5979.00,1.13
5978.00,1.13
5977.00,1.13
5976.00,1.13
5975.00,1.13
5974.00,1.13
5973.00,1.13
5972.00,1.13
5971.00,1.13
5970.00,1.13
5969.00,1.13
5968.00,1.13
5967.00,1.13
5966.00,1.13
5965.00,1.13
5964.00,1.12
5963.00,1.12
5962.00,1.12
5961.00,1.12
5960.00,1.12
5959.00,1.12
5958.00,1.12
5957.00,1.12
5956.00,1.12
5955.00,1.12
5954.00,1.12
5953.00,1.12
5952.00,1.12
5951.00,1.12
5950.00,1.12
5949.00,1.12
5948.00,1.12
5947.00,1.12
5946.00,1.12
5945.00,1.12
5944.00,1.12
5943.00,1.12
5942.00,1.12
5941.00,1.12
5940.00,1.12
5939.00,1.12
5938.00,1.12
5937.00,1.12
5936.00,1.12
5935.00,1.13
5934.00,1.13
5933.00,1.13
5932.00,1.13
5931.00,1.13
5930.00,1.13
5929.00,1.13
5928.00,1.13
5927.00,1.13
5926.00,1.13
5925.00,1.13
5924.00,1.13
5923.00,1.13
5922.00,1.13
5921.00,1.13
5920.00,1.13
5919.00,1.13
5918.00,1.13
5917.00,1.13
5916.00,1.13
5915.00,1.13
5914.00,1.13
5913.00,1.13
5912.00,1.13
5911.00,1.13
5910.00,1.13
5909.00,1.13
5908.00,1.13
5907.00,1.13
5906.00,1.13
5905.00,1.13
5904.00,1.13
5903.00,1.13
5902.00,1.13
5901.00,1.13
5900.00,1.12
5899.00,1.12
5898.00,1.12
5897.00,1.12
5896.00,1.12
5895.00,1.12
5894.00,1.12
5893.00,1.12
5892.00,1.12
5891.00,1.12
5890.00,1.11
5889.00,1.11
5888.00,1.11
5887.00,1.11
5886.00,1.11
5885.00,1.11
5884.00,1.11
5883.00,1.11
5882.00,1.11
5881.00,1.11
5880.00,1.11
5879.00,1.11
5878.00,1.11
5877.00,1.11
5876.00,1.11
5875.00,1.11
5874.00,1.11
5873.00,1.11
5872.00,1.11
5871.00,1.11
5870.00,1.11
5869.00,1.11
5868.00,1.11
5867.00,1.11
5866.00,1.11
5865.00,1.11
5864.00,1.11
5863.00,1.11
5862.00,1.11
5861.00,1.11
5860.00,1.11
5859.00,1.12
5858.00,1.12
5857.00,1.12
5856.00,1.12
5855.00,1.12
5854.00,1.12
5853.00,1.12
5852.00,1.12
5851.00,1.12
5850.00,1.12
5849.00,1.12
5848.00,1.12
5847.00,1.12
5846.00,1.12
5845.00,1.12
5844.00,1.12
5843.00,1.12
5842.00,1.12
5841.00,1.12
5840.00,1.12
5839.00,1.12
5838.00,1.12
5837.00,1.12
5836.00,1.12
5835.00,1.12
5834.00,1.12
5833.00,1.12
5832.00,1.11
5831.00,1.11
5830.00,1.11
5829.00,1.11
5828.00,1.11
5827.00,1.11
5826.00,1.10
5825.00,1.10
5824.00,1.10
5823.00,1.10
5822.00,1.10
5821.00,1.10
5820.00,1.10
5819.00,1.10
5818.00,1.10
5817.00,1.10
5816.00,1.10
5815.00,1.10
5814.00,1.10
5813.00,1.10
5812.00,1.10
5811.00,1.10
5810.00,1.10
5809.00,1.10
5808.00,1.10
5807.00,1.10
5806.00,1.10
5805.00,1.10
5804.00,1.10
5803.00,1.10
5802.00,1.11
5801.00,1.11
5800.00,1.11
5799.00,1.11
5798.00,1.11
5797.00,1.11
5796.00,1.11
5795.00,1.11
5794.00,1.11
5793.00,1.11
5792.00,1.11
5791.00,1.11
5790.00,1.11
5789.00,1.11
5788.00,1.11
5787.00,1.11
5786.00,1.11
5785.00,1.11
5784.00,1.11
5783.00,1.11
5782.00,1.11
5781.00,1.11
5780.00,1.11
5779.00,1.11
5778.00,1.11
5777.00,1.11
5776.00,1.11
5775.00,1.11
5774.00,1.11
5773.00,1.11
5772.00,1.11
5771.00,1.11
5770.00,1.11
5769.00,1.11
5768.00,1.11
5767.00,1.11
5766.00,1.11
5765.00,1.11
5764.00,1.11
5763.00,1.12
5762.00,1.12
5761.00,1.12
5760.00,1.12
5759.00,1.12
5758.00,1.12
5757.00,1.12
5756.00,1.12
5755.00,1.12
5754.00,1.12
5753.00,1.13
5752.00,1.13
5751.00,1.13
5750.00,1.13
5749.00,1.13
5748.00,1.13
5747.00,1.13
5746.00,1.13
5745.00,1.13
5744.00,1.13
5743.00,1.13
5742.00,1.13
5741.00,1.12
5740.00,1.12
5739.00,1.12
5738.00,1.12
5737.00,1.12
5736.00,1.12
5735.00,1.12
5734.00,1.12
5733.00,1.12
5732.00,1.12
5731.00,1.12
5730.00,1.12
5729.00,1.12
5728.00,1.12
5727.00,1.12
5726.00,1.12
5725.00,1.12
5724.00,1.12
5723.00,1.12
5722.00,1.12
5721.00,1.12
5720.00,1.12
5719.00,1.12
5718.00,1.12
5717.00,1.12
5716.00,1.12
5715.00,1.12
5714.00,1.12
5713.00,1.12
5712.00,1.12
5711.00,1.12
5710.00,1.12
5709.00,1.12
5708.00,1.12
5707.00,1.12
5706.00,1.12
5705.00,1.12
5704.00,1.12
5703.00,1.12
5702.00,1.12
5701.00,1.12
5700.00,1.13
5699.00,1.13
5698.00,1.13
5697.00,1.13
5696.00,1.13
5695.00,1.13
5694.00,1.13
5693.00,1.13
5692.00,1.13
5691.00,1.13
5690.00,1.13
5689.00,1.14
5688.00,1.14
5687.00,1.14
5686.00,1.14
5685.00,1.14
5684.00,1.14
5683.00,1.14
5682.00,1.14
5681.00,1.14
5680.00,1.14
5679.00,1.15
5678.00,1.15
5677.00,1.15
5676.00,1.15
5675.00,1.15
5674.00,1.15
5673.00,1.15
5672.00,1.15
5671.00,1.15
5670.00,1.15
5669.00,1.15
5668.00,1.15
5667.00,1.15
5666.00,1.15
5665.00,1.15
5664.00,1.15
5663.00,1.14
5662.00,1.14
5661.00,1.14
5660.00,1.14
5659.00,1.14
5658.00,1.14
5657.00,1.14
5656.00,1.14
5655.00,1.14
5654.00,1.13
5653.00,1.13
5652.00,1.13
5651.00,1.13
5650.00,1.13
5649.00,1.13
5648.00,1.13
5647.00,1.13
5646.00,1.12
5645.00,1.12
5644.00,1.12
5643.00,1.12
5642.00,1.12
5641.00,1.12
5640.00,1.12
5639.00,1.12
5638.00,1.12
5637.00,1.12
5636.00,1.12
5635.00,1.12
5634.00,1.12
5633.00,1.12
5632.00,1.12
5631.00,1.12
5630.00,1.12
5629.00,1.12
5628.00,1.12
5627.00,1.12
5626.00,1.12
5625.00,1.12
5624.00,1.12
5623.00,1.12
5622.00,1.13
5621.00,1.13
5620.00,1.13
5619.00,1.13
5618.00,1.13
5617.00,1.13
5616.00,1.12
5615.00,1.12
5614.00,1.12
5613.00,1.12
5612.00,1.12
5611.00,1.12
5610.00,1.12
5609.00,1.12
5608.00,1.12
5607.00,1.12
5606.00,1.12
5605.00,1.12
5604.00,1.12
5603.00,1.12
5602.00,1.12
5601.00,1.12
5600.00,1.12
5599.00,1.12
5598.00,1.12
5597.00,1.12
5596.00,1.12
5595.00,1.12
5594.00,1.12
5593.00,1.12
5592.00,1.12
5591.00,1.12
5590.00,1.12
5589.00,1.12
5588.00,1.13
5587.00,1.13
5586.00,1.13
5585.00,1.13
5584.00,1.13
5583.00,1.13
5582.00,1.13
5581.00,1.13
5580.00,1.13
5579.00,1.14
5578.00,1.14
5577.00,1.14
5576.00,1.14
5575.00,1.14
5574.00,1.13
5573.00,1.13
5572.00,1.13
5571.00,1.13
5570.00,1.13
5569.00,1.13
5568.00,1.13
5567.00,1.13
5566.00,1.13
5565.00,1.13
5564.00,1.12
5563.00,1.12
5562.00,1.12
5561.00,1.12
5560.00,1.12
5559.00,1.12
5558.00,1.12
5557.00,1.12
5556.00,1.12
5555.00,1.12
5554.00,1.11
5553.00,1.11
5552.00,1.11
5551.00,1.11
5550.00,1.11
5549.00,1.11
5548.00,1.11
5547.00,1.11
5546.00,1.11
5545.00,1.11
5544.00,1.11
5543.00,1.11
5542.00,1.12
5541.00,1.12
5540.00,1.12
5539.00,1.12
5538.00,1.12
5537.00,1.12
5536.00,1.12
5535.00,1.12
5534.00,1.12
5533.00,1.12
5532.00,1.12
5531.00,1.12
5530.00,1.12
5529.00,1.12
5528.00,1.12
5527.00,1.12
5526.00,1.12
5525.00,1.12
5524.00,1.12
5523.00,1.12
5522.00,1.12
5521.00,1.12
5520.00,1.12
5519.00,1.12
5518.00,1.12
5517.00,1.12
5516.00,1.12
5515.00,1.12
5514.00,1.12
5513.00,1.12
5512.00,1.12
5511.00,1.12
5510.00,1.12
5509.00,1.12
5508.00,1.13
5507.00,1.13
5506.00,1.13
5505.00,1.13
5504.00,1.13
5503.00,1.13
5502.00,1.13
5501.00,1.13
5500.00,1.14
5499.00,1.14
5498.00,1.14
5497.00,1.14
5496.00,1.14
5495.00,1.14
5494.00,1.14
5493.00,1.14
5492.00,1.15
5491.00,1.15
5490.00,1.15
5489.00,1.15
5488.00,1.15
5487.00,1.15
5486.00,1.15
5485.00,1.15
5484.00,1.15
5483.00,1.15
5482.00,1.15
5481.00,1.15
5480.00,1.15
5479.00,1.15
5478.00,1.15
5477.00,1.15
5476.00,1.15
5475.00,1.15
5474.00,1.15
5473.00,1.15
5472.00,1.15
5471.00,1.15
5470.00,1.15
5469.00,1.15
5468.00,1.15
5467.00,1.15
5466.00,1.15
5465.00,1.15
5464.00,1.15
5463.00,1.15
5462.00,1.15
5461.00,1.15
5460.00,1.15
5459.00,1.15
5458.00,1.15
5457.00,1.15
5456.00,1.15
5455.00,1.15
5454.00,1.15
5453.00,1.15
5452.00,1.15
5451.00,1.15
5450.00,1.15
5449.00,1.15
5448.00,1.15
5447.00,1.15
5446.00,1.15
5445.00,1.15
5444.00,1.15
5443.00,1.15
5442.00,1.16
5441.00,1.16
5440.00,1.16
5439.00,1.16
5438.00,1.16
5437.00,1.16
5436.00,1.16
5435.00,1.16
5434.00,1.16
5433.00,1.16
5432.00,1.16
5431.00,1.16
5430.00,1.16
5429.00,1.16
5428.00,1.16
5427.00,1.16
5426.00,1.16
5425.00,1.16
5424.00,1.16
5423.00,1.16
5422.00,1.16
5421.00,1.16
5420.00,1.16
5419.00,1.16
5418.00,1.16
5417.00,1.16
5416.00,1.15
5415.00,1.15
5414.00,1.15
5413.00,1.15
5412.00,1.15
5411.00,1.15
5410.00,1.15
5409.00,1.15
5408.00,1.15
5407.00,1.15
5406.00,1.15
5405.00,1.15
5404.00,1.15
5403.00,1.15
5402.00,1.15
5401.00,1.15
5400.00,1.15
5399.00,1.15
5398.00,1.15
5397.00,1.15
5396.00,1.15
5395.00,1.15
5394.00,1.15
5393.00,1.16
5392.00,1.16
5391.00,1.16
5390.00,1.16
5389.00,1.16
5388.00,1.16
5387.00,1.16
5386.00,1.16
5385.00,1.16
5384.00,1.16
5383.00,1.16
5382.00,1.16
5381.00,1.16
5380.00,1.15
5379.00,1.15
5378.00,1.15
5377.00,1.15
5376.00,1.15
5375.00,1.15
5374.00,1.15
5373.00,1.15
5372.00,1.15
5371.00,1.15
5370.00,1.15
5369.00,1.15
5368.00,1.15
5367.00,1.15
5366.00,1.15
5365.00,1.15
5364.00,1.15
5363.00,1.15
5362.00,1.15
5361.00,1.15
5360.00,1.15
5359.00,1.15
5358.00,1.15
5357.00,1.15
5356.00,1.15
5355.00,1.15
5354.00,1.15
5353.00,1.15
5352.00,1.15
5351.00,1.15
5350.00,1.15
5349.00,1.16
5348.00,1.16
5347.00,1.16
5346.00,1.16
5345.00,1.16
5344.00,1.16
5343.00,1.16
5342.00,1.16
5341.00,1.16
5340.00,1.16
5339.00,1.16
5338.00,1.15
5337.00,1.15
5336.00,1.15
5335.00,1.15
5334.00,1.15
5333.00,1.15
5332.00,1.15
5331.00,1.14
5330.00,1.14
5329.00,1.14
5328.00,1.14
5327.00,1.13
5326.00,1.13
5325.00,1.13
5324.00,1.13
5323.00,1.12
5322.00,1.12
5321.00,1.12
5320.00,1.11
5319.00,1.11
5318.00,1.10
5317.00,1.10
5316.00,1.10
5315.00,1.09
5314.00,1.09
5313.00,1.09
5312.00,1.08
5311.00,1.08
5310.00,1.08
5309.00,1.08
5308.00,1.07
5307.00,1.07
5306.00,1.07
5305.00,1.06
5304.00,1.06
5303.00,1.06
5302.00,1.06
5301.00,1.05
5300.00,1.05
5299.00,1.05
5298.00,1.05
5297.00,1.04
5296.00,1.04
5295.00,1.04
5294.00,1.04
5293.00,1.04
5292.00,1.04
5291.00,1.03
5290.00,1.03
5289.00,1.03
5288.00,1.03
5287.00,1.03
5286.00,1.03
5285.00,1.03
5284.00,1.03
5283.00,1.02
5282.00,1.02
5281.00,1.02
5280.00,1.02
5279.00,1.02
5278.00,1.01
5277.00,1.01
5276.00,1.01
5275.00,1.01
5274.00,1.01
5273.00,1.00
5272.00,1.00
5271.00,1.00
5270.00,1.00
5269.00,1.00
5268.00,0.99
5267.00,0.99
5266.00,0.99
5265.00,0.99
5264.00,0.98
5263.00,0.98
5262.00,0.98
5261.00,0.98
5260.00,0.98
5259.00,0.98
5258.00,0.98
5257.00,0.98
5256.00,0.97
5255.00,0.97
5254.00,0.97
5253.00,0.97
5252.00,0.97
5251.00,0.97
5250.00,0.97
5249.00,0.97
5248.00,0.97
5247.00,0.97
5246.00,0.97
5245.00,0.97
5244.00,0.97
5243.00,0.97
5242.00,0.98
5241.00,0.98
5240.00,0.98
5239.00,0.97
5238.00,0.97
5237.00,0.97
5236.00,0.97
5235.00,0.97
5234.00,0.97
5233.00,0.97
5232.00,0.97
5231.00,0.97
5230.00,0.97
5229.00,0.97
5228.00,0.97
5227.00,0.97
5226.00,0.97
5225.00,0.97
5224.00,0.96
5223.00,0.96
5222.00,0.96
5221.00,0.96
5220.00,0.96
5219.00,0.96
5218.00,0.96
5217.00,0.96
5216.00,0.96
5215.00,0.96
5214.00,0.96
5213.00,0.96
5212.00,0.96
5211.00,0.96
5210.00,0.96
5209.00,0.96
5208.00,0.96
5207.00,0.96
5206.00,0.96
5205.00,0.96
5204.00,0.96
5203.00,0.96
5202.00,0.96
5201.00,0.96
5200.00,0.96
5199.00,0.96
5198.00,0.96
5197.00,0.95
5196.00,0.95
5195.00,0.95
5194.00,0.95
5193.00,0.95
5192.00,0.95
5191.00,0.95
5190.00,0.94
5189.00,0.94
5188.00,0.94
5187.00,0.94
5186.00,0.94
5185.00,0.94
5184.00,0.94
5183.00,0.94
5182.00,0.94
5181.00,0.94
5180.00,0.94
5179.00,0.93
5178.00,0.93
5177.00,0.93
5176.00,0.93
5175.00,0.93
5174.00,0.93
5173.00,0.93
5172.00,0.93
5171.00,0.93
5170.00,0.93
5169.00,0.93
5168.00,0.93
5167.00,0.94
5166.00,0.94
5165.00,0.94
5164.00,0.94
5163.00,0.94
5162.00,0.94
5161.00,0.94
5160.00,0.94
5159.00,0.94
5158.00,0.94
5157.00,0.94
5156.00,0.94
5155.00,0.94
5154.00,0.94
5153.00,0.94
5152.00,0.94
5151.00,0.94
5150.00,0.94
5149.00,0.94
5148.00,0.95
5147.00,0.95
5146.00,0.95
5145.00,0.95
5144.00,0.95
5143.00,0.95
5142.00,0.95
5141.00,0.95
5140.00,0.95
5139.00,0.95
5138.00,0.95
5137.00,0.95
5136.00,0.95
5135.00,0.95
5134.00,0.95
5133.00,0.95
5132.00,0.95
5131.00,0.95
5130.00,0.95
5129.00,0.95
5128.00,0.95
5127.00,0.95
5126.00,0.95
5125.00,0.95
5124.00,0.95
5123.00,0.95
5122.00,0.95
5121.00,0.95
5120.00,0.95
5119.00,0.95
5118.00,0.95
5117.00,0.95
5116.00,0.95
5115.00,0.95
5114.00,0.95
5113.00,0.95
5112.00,0.95
5111.00,0.95
5110.00,0.95
5109.00,0.95
5108.00,0.95
5107.00,0.95
5106.00,0.95
5105.00,0.96
5104.00,0.96
5103.00,0.96
5102.00,0.96
5101.00,0.96
5100.00,0.96
5099.00,0.96
5098.00,0.96
5097.00,0.96
5096.00,0.96
5095.00,0.96
5094.00,0.96
5093.00,0.96
5092.00,0.96
5091.00,0.96
5090.00,0.96
5089.00,0.97
5088.00,0.97
5087.00,0.97
5086.00,0.97
5085.00,0.97
5084.00,0.97
5083.00,0.97
5082.00,0.97
5081.00,0.97
5080.00,0.97
5079.00,0.97
5078.00,0.98
5077.00,0.98
5076.00,0.98
5075.00,0.98
5074.00,0.98
5073.00,0.98
5072.00,0.98
5071.00,0.98
5070.00,0.99
5069.00,0.99
5068.00,0.99
5067.00,0.99
5066.00,0.99
5065.00,0.99
5064.00,1.00
5063.00,1.00
5062.00,1.00
5061.00,1.00
5060.00,1.00
5059.00,1.00
5058.00,1.01
5057.00,1.01
5056.00,1.01
5055.00,1.01
5054.00,1.01
5053.00,1.01
5052.00,1.01
5051.00,1.01
5050.00,1.02
5049.00,1.02
5048.00,1.02
5047.00,1.02
5046.00,1.02
5045.00,1.02
5044.00,1.02
5043.00,1.02
5042.00,1.02
5041.00,1.02
5040.00,1.02
5039.00,1.02
5038.00,1.02
5037.00,1.03
5036.00,1.03
5035.00,1.03
5034.00,1.03
5033.00,1.03
5032.00,1.03
5031.00,1.03
5030.00,1.03
5029.00,1.03
5028.00,1.03
5027.00,1.03
5026.00,1.03
5025.00,1.03
5024.00,1.02
5023.00,1.02
5022.00,1.02
5021.00,1.02
5020.00,1.02
5019.00,1.02
5018.00,1.02
5017.00,1.02
5016.00,1.02
5015.00,1.03
5014.00,1.03
5013.00,1.03
5012.00,1.03
5011.00,1.03
5010.00,1.03
5009.00,1.03
5008.00,1.03
5007.00,1.03
5006.00,1.03
5005.00,1.03
5004.00,1.03
5003.00,1.04
5002.00,1.04
5001.00,1.04
5000.00,1.04
4999.00,1.04
4998.00,1.04
4997.00,1.05
4996.00,1.05
4995.00,1.05
4994.00,1.05
4993.00,1.05
4992.00,1.05
4991.00,1.05
4990.00,1.06
4989.00,1.06
4988.00,1.06
4987.00,1.06
4986.00,1.06
4985.00,1.06
4984.00,1.06
4983.00,1.06
4982.00,1.06
4981.00,1.06
4980.00,1.06
4979.00,1.06
4978.00,1.06
4977.00,1.06
4976.00,1.07
4975.00,1.07
4974.00,1.07
4973.00,1.07
4972.00,1.07
4971.00,1.07
4970.00,1.07
4969.00,1.07
4968.00,1.07
4967.00,1.07
4966.00,1.07
4965.00,1.07
4964.00,1.07
4963.00,1.07
4962.00,1.07
4961.00,1.07
4960.00,1.07
4959.00,1.07
4958.00,1.07
4957.00,1.07
4956.00,1.07
4955.00,1.07
4954.00,1.07
4953.00,1.07
4952.00,1.07
4951.00,1.07
4950.00,1.07
4949.00,1.07
4948.00,1.07
4947.00,1.07
4946.00,1.07
4945.00,1.07
4944.00,1.07
4943.00,1.07
4942.00,1.07
4941.00,1.07
4940.00,1.07
4939.00,1.07
4938.00,1.07
4937.00,1.07
4936.00,1.07
4935.00,1.07
4934.00,1.07
4933.00,1.07
4932.00,1.07
4931.00,1.07
4930.00,1.07
4929.00,1.07
4928.00,1.08
4927.00,1.08
4926.00,1.08
4925.00,1.08
4924.00,1.08
4923.00,1.08
4922.00,1.08
4921.00,1.08
4920.00,1.09
4919.00,1.09
4918.00,1.09
4917.00,1.09
4916.00,1.09
4915.00,1.09
4914.00,1.09
4913.00,1.09
4912.00,1.09
4911.00,1.09
4910.00,1.09
4909.00,1.09
4908.00,1.09
4907.00,1.09
4906.00,1.09
4905.00,1.09
4904.00,1.09
4903.00,1.09
4902.00,1.09
4901.00,1.09
4900.00,1.09
4899.00,1.09
4898.00,1.09
4897.00,1.09
4896.00,1.09
4895.00,1.09
4894.00,1.09
4893.00,1.09
4892.00,1.08
4891.00,1.08
4890.00,1.08
4889.00,1.08
4888.00,1.08
4887.00,1.08
4886.00,1.08
4885.00,1.08
4884.00,1.09
4883.00,1.09
4882.00,1.09
4881.00,1.09
4880.00,1.09
4879.00,1.09
4878.00,1.09
4877.00,1.09
4876.00,1.09
4875.00,1.09
4874.00,1.09
4873.00,1.09
4872.00,1.09
4871.00,1.09
4870.00,1.09
4869.00,1.09
4868.00,1.09
4867.00,1.09
4866.00,1.09
4865.00,1.09
4864.00,1.09
4863.00,1.09
4862.00,1.09
4861.00,1.09
4860.00,1.09
4859.00,1.09
4858.00,1.09
4857.00,1.09
4856.00,1.09
4855.00,1.09
4854.00,1.09
4853.00,1.09
4852.00,1.09
4851.00,1.09
4850.00,1.09
4849.00,1.09
4848.00,1.10
4847.00,1.10
4846.00,1.10
4845.00,1.10
4844.00,1.10
4843.00,1.10
4842.00,1.10
4841.00,1.10
4840.00,1.10
4839.00,1.11
4838.00,1.11
4837.00,1.11
4836.00,1.11
4835.00,1.11
4834.00,1.11
4833.00,1.12
4832.00,1.12
4831.00,1.12
4830.00,1.12
4829.00,1.12
4828.00,1.12
4827.00,1.12
4826.00,1.12
4825.00,1.12
4824.00,1.12
4823.00,1.13
4822.00,1.13
4821.00,1.13
4820.00,1.13
4819.00,1.13
4818.00,1.13
4817.00,1.13
4816.00,1.13
4815.00,1.13
4814.00,1.13
4813.00,1.13
4812.00,1.13
4811.00,1.13
4810.00,1.13
4809.00,1.13
4808.00,1.13
4807.00,1.13
4806.00,1.13
4805.00,1.13
4804.00,1.13
4803.00,1.13
4802.00,1.13
4801.00,1.13
4800.00,1.13
4799.00,1.13
4798.00,1.13
4797.00,1.13
4796.00,1.13
4795.00,1.13
4794.00,1.12
4793.00,1.12
4792.00,1.12
4791.00,1.12
4790.00,1.12
4789.00,1.12
4788.00,1.12
4787.00,1.12
4786.00,1.12
4785.00,1.12
4784.00,1.12
4783.00,1.12
4782.00,1.12
4781.00,1.12
4780.00,1.12
4779.00,1.12
4778.00,1.12
4777.00,1.12
4776.00,1.12
4775.00,1.12
4774.00,1.12
4773.00,1.12
4772.00,1.12
4771.00,1.12
4770.00,1.12
4769.00,1.12
4768.00,1.12
4767.00,1.12
4766.00,1.12
4765.00,1.12
4764.00,1.12
4763.00,1.12
4762.00,1.12
4761.00,1.12
4760.00,1.12
4759.00,1.12
4758.00,1.12
4757.00,1.12
4756.00,1.12
4755.00,1.12
4754.00,1.12
4753.00,1.12
4752.00,1.12
4751.00,1.12
4750.00,1.12
4749.00,1.12
4748.00,1.12
4747.00,1.12
4746.00,1.12
4745.00,1.12
4744.00,1.12
4743.00,1.13
4742.00,1.13
4741.00,1.13
4740.00,1.13
4739.00,1.13
4738.00,1.13
4737.00,1.13
4736.00,1.13
4735.00,1.13
4734.00,1.13
4733.00,1.13
4732.00,1.13
4731.00,1.13
4730.00,1.13
4729.00,1.13
4728.00,1.13
4727.00,1.13
4726.00,1.13
4725.00,1.13
4724.00,1.14
4723.00,1.14
4722.00,1.14
4721.00,1.14
4720.00,1.14
4719.00,1.14
4718.00,1.14
4717.00,1.14
4716.00,1.15
4715.00,1.15
4714.00,1.15
4713.00,1.15
4712.00,1.15
4711.00,1.15
4710.00,1.15
4709.00,1.15
4708.00,1.16
4707.00,1.16
4706.00,1.16
4705.00,1.16
4704.00,1.16
4703.00,1.16
4702.00,1.16
4701.00,1.16
4700.00,1.16
4699.00,1.16
4698.00,1.16
4697.00,1.16
4696.00,1.17
4695.00,1.17
4694.00,1.17
4693.00,1.17
4692.00,1.17
4691.00,1.17
4690.00,1.17
4689.00,1.17
4688.00,1.17
4687.00,1.17
4686.00,1.17
4685.00,1.17
4684.00,1.17
4683.00,1.17
4682.00,1.17
4681.00,1.17
4680.00,1.17
4679.00,1.17
4678.00,1.17
4677.00,1.17
4676.00,1.17
4675.00,1.17
4674.00,1.17
4673.00,1.17
4672.00,1.17
4671.00,1.16
4670.00,1.16
4669.00,1.16
4668.00,1.16
4667.00,1.16
4666.00,1.15
4665.00,1.15
4664.00,1.15
4663.00,1.15
4662.00,1.14
4661.00,1.14
4660.00,1.14
4659.00,1.14
4658.00,1.14
4657.00,1.13
4656.00,1.13
4655.00,1.13
4654.00,1.13
4653.00,1.13
4652.00,1.13
4651.00,1.13
4650.00,1.12
4649.00,1.12
4648.00,1.12
4647.00,1.12
4646.00,1.12
4645.00,1.12
4644.00,1.12
4643.00,1.12
4642.00,1.12
4641.00,1.12
4640.00,1.12
4639.00,1.12
4638.00,1.12
4637.00,1.12
4636.00,1.12
4635.00,1.12
4634.00,1.12
4633.00,1.13
4632.00,1.13
4631.00,1.13
4630.00,1.13
4629.00,1.13
4628.00,1.13
4627.00,1.13
4626.00,1.13
4625.00,1.14
4624.00,1.14
4623.00,1.14
4622.00,1.14
4621.00,1.14
4620.00,1.14
4619.00,1.14
4618.00,1.15
4617.00,1.15
4616.00,1.15
4615.00,1.15
4614.00,1.15
4613.00,1.16
4612.00,1.16
4611.00,1.16
4610.00,1.16
4609.00,1.16
4608.00,1.16
4607.00,1.16
4606.00,1.16
4605.00,1.17
4604.00,1.17
4603.00,1.17
4602.00,1.17
4601.00,1.17
4600.00,1.17
4599.00,1.17
4598.00,1.17
4597.00,1.17
4596.00,1.17
4595.00,1.17
4594.00,1.16
4593.00,1.16
4592.00,1.16
4591.00,1.16
4590.00,1.16
4589.00,1.16
4588.00,1.15
4587.00,1.15
4586.00,1.15
4585.00,1.15
4584.00,1.14
4583.00,1.14
4582.00,1.14
4581.00,1.14
4580.00,1.14
4579.00,1.13
4578.00,1.13
4577.00,1.13
4576.00,1.13
4575.00,1.12
4574.00,1.12
4573.00,1.12
4572.00,1.12
4571.00,1.12
4570.00,1.11
4569.00,1.11
4568.00,1.11
4567.00,1.11
4566.00,1.11
4565.00,1.11
4564.00,1.12
4563.00,1.12
4562.00,1.12
4561.00,1.12
4560.00,1.12
4559.00,1.12
4558.00,1.13
4557.00,1.13
4556.00,1.13
4555.00,1.13
4554.00,1.13
4553.00,1.14
4552.00,1.14
4551.00,1.14
4550.00,1.14
4549.00,1.14
4548.00,1.15
4547.00,1.15
4546.00,1.15
4545.00,1.15
4544.00,1.15
4543.00,1.15
4542.00,1.16
4541.00,1.16
4540.00,1.16
4539.00,1.16
4538.00,1.16
4537.00,1.16
4536.00,1.16
4535.00,1.16
4534.00,1.16
4533.00,1.15
4532.00,1.15
4531.00,1.15
4530.00,1.15
4529.00,1.15
4528.00,1.15
4527.00,1.15
4526.00,1.15
4525.00,1.15
4524.00,1.14
4523.00,1.14
4522.00,1.14
4521.00,1.14
4520.00,1.14
4519.00,1.14
4518.00,1.14
4517.00,1.14
4516.00,1.14
4515.00,1.14
4514.00,1.14
4513.00,1.14
4512.00,1.14
4511.00,1.14
4510.00,1.14
4509.00,1.14
4508.00,1.14
4507.00,1.14
4506.00,1.14
4505.00,1.14
4504.00,1.14
4503.00,1.14
4502.00,1.14
4501.00,1.14
4500.00,1.14
4499.00,1.14
4498.00,1.14
4497.00,1.14
4496.00,1.14
4495.00,1.14
4494.00,1.14
4493.00,1.14
4492.00,1.14
4491.00,1.14
4490.00,1.14
4489.00,1.14
4488.00,1.14
4487.00,1.14
4486.00,1.14
4485.00,1.14
4484.00,1.14
4483.00,1.14
4482.00,1.14
4481.00,1.14
4480.00,1.14
4479.00,1.14
4478.00,1.14
4477.00,1.14
4476.00,1.14
4475.00,1.14
4474.00,1.14
4473.00,1.14
4472.00,1.14
4471.00,1.14
4470.00,1.14
4469.00,1.14
4468.00,1.14
4467.00,1.14
4466.00,1.15
4465.00,1.15
4464.00,1.15
4463.00,1.15
4462.00,1.15
4461.00,1.15
4460.00,1.15
4459.00,1.15
4458.00,1.15
4457.00,1.15
4456.00,1.15
4455.00,1.14
4454.00,1.14
4453.00,1.14
4452.00,1.14
4451.00,1.14
4450.00,1.14
4449.00,1.14
4448.00,1.14
4447.00,1.14
4446.00,1.14
4445.00,1.14
4444.00,1.13
4443.00,1.13
4442.00,1.13
4441.00,1.13
4440.00,1.13
4439.00,1.13
4438.00,1.13
4437.00,1.13
4436.00,1.13
4435.00,1.13
4434.00,1.13
4433.00,1.12
4432.00,1.12
4431.00,1.12
4430.00,1.12
4429.00,1.12
4428.00,1.12
4427.00,1.12
4426.00,1.12
4425.00,1.12
4424.00,1.12
4423.00,1.12
4422.00,1.12
4421.00,1.12
4420.00,1.12
4419.00,1.12
4418.00,1.12
4417.00,1.12
4416.00,1.12
4415.00,1.12
4414.00,1.12
4413.00,1.12
4412.00,1.12
4411.00,1.12
4410.00,1.12
4409.00,1.12
4408.00,1.12
4407.00,1.12
4406.00,1.12
4405.00,1.12
4404.00,1.12
4403.00,1.12
4402.00,1.12
4401.00,1.12
4400.00,1.11
4399.00,1.11
4398.00,1.11
4397.00,1.11
4396.00,1.11
4395.00,1.11
4394.00,1.12
4393.00,1.12
4392.00,1.12
4391.00,1.12
4390.00,1.12
4389.00,1.12
4388.00,1.12
4387.00,1.12
4386.00,1.12
4385.00,1.12
4384.00,1.13
4383.00,1.13
4382.00,1.13
4381.00,1.13
4380.00,1.13
4379.00,1.13
4378.00,1.13
4377.00,1.13
4376.00,1.13
4375.00,1.14
4374.00,1.14
4373.00,1.14
4372.00,1.14
4371.00,1.14
4370.00,1.14
4369.00,1.14
4368.00,1.14
4367.00,1.14
4366.00,1.14
4365.00,1.14
4364.00,1.14
4363.00,1.13
4362.00,1.13
4361.00,1.13
4360.00,1.13
4359.00,1.13
4358.00,1.13
4357.00,1.13
4356.00,1.13
4355.00,1.13
4354.00,1.13
4353.00,1.13
4352.00,1.12
4351.00,1.12
4350.00,1.12
4349.00,1.12
4348.00,1.12
4347.00,1.12
4346.00,1.12
4345.00,1.12
4344.00,1.12
4343.00,1.12
4342.00,1.12
4341.00,1.12
4340.00,1.12
4339.00,1.12
4338.00,1.12
4337.00,1.12
4336.00,1.12
4335.00,1.12
4334.00,1.12
4333.00,1.12
4332.00,1.12
4331.00,1.12
4330.00,1.12
4329.00,1.12
4328.00,1.12
4327.00,1.12
4326.00,1.12
4325.00,1.13
4324.00,1.13
4323.00,1.13
4322.00,1.13
4321.00,1.13
4320.00,1.13
4319.00,1.13
4318.00,1.14
4317.00,1.14
4316.00,1.14
4315.00,1.14
4314.00,1.14
4313.00,1.15
4312.00,1.15
4311.00,1.15
4310.00,1.15
4309.00,1.15
4308.00,1.15
4307.00,1.15
4306.00,1.16
4305.00,1.16
4304.00,1.16
4303.00,1.16
4302.00,1.16
4301.00,1.16
4300.00,1.16
4299.00,1.16
4298.00,1.16
4297.00,1.15
4296.00,1.15
4295.00,1.15
4294.00,1.15
4293.00,1.15
4292.00,1.15
4291.00,1.15
4290.00,1.14
4289.00,1.14
4288.00,1.14
4287.00,1.14
4286.00,1.13
4285.00,1.13
4284.00,1.13
4283.00,1.13
4282.00,1.13
4281.00,1.13
4280.00,1.13
4279.00,1.13
4278.00,1.13
4277.00,1.13
4276.00,1.13
4275.00,1.13
4274.00,1.13
4273.00,1.13
4272.00,1.13
4271.00,1.13
4270.00,1.13
4269.00,1.13
4268.00,1.13
4267.00,1.13
4266.00,1.13
4265.00,1.13
4264.00,1.13
4263.00,1.13
4262.00,1.13
4261.00,1.13
4260.00,1.13
4259.00,1.13
4258.00,1.13
4257.00,1.13
4256.00,1.13
4255.00,1.13
4254.00,1.13
4253.00,1.13
4252.00,1.13
4251.00,1.13
4250.00,1.13
4249.00,1.13
4248.00,1.12
4247.00,1.12
4246.00,1.12
4245.00,1.12
4244.00,1.12
4243.00,1.12
4242.00,1.12
4241.00,1.12
4240.00,1.12
4239.00,1.12
4238.00,1.12
4237.00,1.12
4236.00,1.12
4235.00,1.12
4234.00,1.12
4233.00,1.12
4232.00,1.12
4231.00,1.12
4230.00,1.13
4229.00,1.13
4228.00,1.13
4227.00,1.13
4226.00,1.13
4225.00,1.13
4224.00,1.14
4223.00,1.14
4222.00,1.14
4221.00,1.14
4220.00,1.14
4219.00,1.15
4218.00,1.15
4217.00,1.15
4216.00,1.15
4215.00,1.16
4214.00,1.16
4213.00,1.16
4212.00,1.16
4211.00,1.16
4210.00,1.17
4209.00,1.17
4208.00,1.17
4207.00,1.17
4206.00,1.17
4205.00,1.17
4204.00,1.17
4203.00,1.17
4202.00,1.17
4201.00,1.17
4200.00,1.17
4199.00,1.17
4198.00,1.16
4197.00,1.16
4196.00,1.16
4195.00,1.16
4194.00,1.15
4193.00,1.15
4192.00,1.15
4191.00,1.14
4190.00,1.14
4189.00,1.14
4188.00,1.13
4187.00,1.13
4186.00,1.13
4185.00,1.12
4184.00,1.12
4183.00,1.12
4182.00,1.11
4181.00,1.11
4180.00,1.11
4179.00,1.10
4178.00,1.10
4177.00,1.10
4176.00,1.10
4175.00,1.10
4174.00,1.09
4173.00,1.09
4172.00,1.10
4171.00,1.10
4170.00,1.10
4169.00,1.10
4168.00,1.10
4167.00,1.10
4166.00,1.10
4165.00,1.11
4164.00,1.11
4163.00,1.11
4162.00,1.11
4161.00,1.11
4160.00,1.11
4159.00,1.12
4158.00,1.12
4157.00,1.12
4156.00,1.12
4155.00,1.12
4154.00,1.13
4153.00,1.13
4152.00,1.13
4151.00,1.13
4150.00,1.14
4149.00,1.14
4148.00,1.14
4147.00,1.14
4146.00,1.14
4145.00,1.14
4144.00,1.14
4143.00,1.14
4142.00,1.14
4141.00,1.15
4140.00,1.15
4139.00,1.15
4138.00,1.15
4137.00,1.15
4136.00,1.15
4135.00,1.15
4134.00,1.15
4133.00,1.15
4132.00,1.15
4131.00,1.15
4130.00,1.15
4129.00,1.15
4128.00,1.15
4127.00,1.15
4126.00,1.15
4125.00,1.15
4124.00,1.15
4123.00,1.15
4122.00,1.15
4121.00,1.15
4120.00,1.16
4119.00,1.16
4118.00,1.16
4117.00,1.16
4116.00,1.16
4115.00,1.16
4114.00,1.16
4113.00,1.16
4112.00,1.16
4111.00,1.16
4110.00,1.16
4109.00,1.16
4108.00,1.16
4107.00,1.16
4106.00,1.16
4105.00,1.16
4104.00,1.16
4103.00,1.16
4102.00,1.16
4101.00,1.16
4100.00,1.16
4099.00,1.16
4098.00,1.16
4097.00,1.16
4096.00,1.17
4095.00,1.17
4094.00,1.17
4093.00,1.17
4092.00,1.17
4091.00,1.16
4090.00,1.16
4089.00,1.16
4088.00,1.16
4087.00,1.16
4086.00,1.16
4085.00,1.16
4084.00,1.16
4083.00,1.16
4082.00,1.16
4081.00,1.16
4080.00,1.16
4079.00,1.16
4078.00,1.16
4077.00,1.16
4076.00,1.16
4075.00,1.16
4074.00,1.16
4073.00,1.16
4072.00,1.16
4071.00,1.16
4070.00,1.16
4069.00,1.16
4068.00,1.16
4067.00,1.16
4066.00,1.17
4065.00,1.17
4064.00,1.17
4063.00,1.17
4062.00,1.17
4061.00,1.17
4060.00,1.17
4059.00,1.17
4058.00,1.17
4057.00,1.17
4056.00,1.18
4055.00,1.18
4054.00,1.18
4053.00,1.18
4052.00,1.18
4051.00,1.18
4050.00,1.18
4049.00,1.18
4048.00,1.18
4047.00,1.18
4046.00,1.18
4045.00,1.18
4044.00,1.18
4043.00,1.18
4042.00,1.18
4041.00,1.18
4040.00,1.18
4039.00,1.18
4038.00,1.18
4037.00,1.17
4036.00,1.17
4035.00,1.17
4034.00,1.17
4033.00,1.17
4032.00,1.17
4031.00,1.17
4030.00,1.17
4029.00,1.17
4028.00,1.17
4027.00,1.17
4026.00,1.17
4025.00,1.17
4024.00,1.18
4023.00,1.18
4022.00,1.18
4021.00,1.18
4020.00,1.18
4019.00,1.18
4018.00,1.18
4017.00,1.18
4016.00,1.18
4015.00,1.18
4014.00,1.18
4013.00,1.19
4012.00,1.19
4011.00,1.19
4010.00,1.19
4009.00,1.20
4008.00,1.20
4007.00,1.20
4006.00,1.20
4005.00,1.20
4004.00,1.21
4003.00,1.21
4002.00,1.21
4001.00,1.21
4000.00,1.21
