创建为新数据集,样品 275 用户 Administrator 日期 星期六, 七月 27 2019
cm-1,%T
10000.00,1.23
9999.00,1.22
9998.00,1.21
9997.00,1.20
9996.00,1.19
9995.00,1.18
9994.00,1.17
9993.00,1.16
9992.00,1.15
9991.00,1.14
9990.00,1.13
9989.00,1.12
9988.00,1.11
9987.00,1.11
9986.00,1.11
9985.00,1.10
9984.00,1.10
9983.00,1.11
9982.00,1.11
9981.00,1.11
9980.00,1.11
9979.00,1.12
9978.00,1.12
9977.00,1.12
9976.00,1.12
9975.00,1.12
9974.00,1.12
9973.00,1.12
9972.00,1.12
9971.00,1.12
9970.00,1.12
9969.00,1.12
9968.00,1.12
9967.00,1.13
9966.00,1.13
9965.00,1.13
9964.00,1.13
9963.00,1.13
9962.00,1.12
9961.00,1.12
9960.00,1.12
9959.00,1.12
9958.00,1.11
9957.00,1.11
9956.00,1.10
9955.00,1.10
9954.00,1.10
9953.00,1.09
9952.00,1.09
9951.00,1.09
9950.00,1.09
9949.00,1.09
9948.00,1.08
9947.00,1.08
9946.00,1.08
9945.00,1.08
9944.00,1.08
9943.00,1.07
9942.00,1.07
9941.00,1.07
9940.00,1.06
9939.00,1.06
9938.00,1.05
9937.00,1.05
9936.00,1.05
9935.00,1.04
9934.00,1.04
9933.00,1.03
9932.00,1.02
9931.00,1.01
9930.00,1.01
9929.00,1.00
9928.00,0.99
9927.00,0.98
9926.00,0.97
9925.00,0.96
9924.00,0.95
9923.00,0.94
9922.00,0.93
9921.00,0.92
9920.00,0.92
9919.00,0.91
9918.00,0.90
9917.00,0.90
9916.00,0.89
9915.00,0.88
9914.00,0.88
9913.00,0.88
9912.00,0.87
9911.00,0.87
9910.00,0.87
9909.00,0.86
9908.00,0.86
9907.00,0.86
9906.00,0.86
9905.00,0.87
9904.00,0.87
9903.00,0.87
9902.00,0.88
9901.00,0.88
9900.00,0.89
9899.00,0.90
9898.00,0.90
9897.00,0.91
9896.00,0.91
9895.00,0.92
9894.00,0.92
9893.00,0.93
9892.00,0.93
9891.00,0.94
9890.00,0.94
9889.00,0.95
9888.00,0.95
9887.00,0.96
9886.00,0.96
9885.00,0.97
9884.00,0.98
9883.00,0.98
9882.00,0.99
9881.00,1.00
9880.00,1.00
9879.00,1.01
9878.00,1.02
9877.00,1.03
9876.00,1.03
9875.00,1.04
9874.00,1.05
9873.00,1.05
9872.00,1.06
9871.00,1.07
9870.00,1.07
9869.00,1.08
9868.00,1.08
9867.00,1.09
9866.00,1.09
9865.00,1.10
9864.00,1.10
9863.00,1.10
9862.00,1.11
9861.00,1.11
9860.00,1.11
9859.00,1.11
9858.00,1.11
9857.00,1.11
9856.00,1.11
9855.00,1.11
9854.00,1.11
9853.00,1.11
9852.00,1.10
9851.00,1.10
9850.00,1.09
9849.00,1.09
9848.00,1.08
9847.00,1.08
9846.00,1.07
9845.00,1.07
9844.00,1.06
9843.00,1.06
9842.00,1.05
9841.00,1.05
9840.00,1.04
9839.00,1.04
9838.00,1.03
9837.00,1.03
9836.00,1.02
9835.00,1.02
9834.00,1.01
9833.00,1.01
9832.00,1.00
9831.00,1.00
9830.00,0.99
9829.00,0.99
9828.00,0.98
9827.00,0.98
9826.00,0.97
9825.00,0.97
9824.00,0.96
9823.00,0.96
9822.00,0.96
9821.00,0.95
9820.00,0.95
9819.00,0.94
9818.00,0.94
9817.00,0.94
9816.00,0.93
9815.00,0.93
9814.00,0.93
9813.00,0.93
9812.00,0.93
9811.00,0.93
9810.00,0.93
9809.00,0.93
9808.00,0.93
9807.00,0.93
9806.00,0.93
9805.00,0.93
9804.00,0.93
9803.00,0.93
9802.00,0.93
9801.00,0.93
9800.00,0.93
9799.00,0.93
9798.00,0.93
9797.00,0.93
9796.00,0.92
9795.00,0.92
9794.00,0.92
9793.00,0.92
9792.00,0.92
9791.00,0.92
9790.00,0.92
9789.00,0.92
9788.00,0.92
9787.00,0.92
9786.00,0.92
9785.00,0.92
9784.00,0.92
9783.00,0.92
9782.00,0.92
9781.00,0.92
9780.00,0.92
9779.00,0.92
9778.00,0.92
9777.00,0.92
9776.00,0.92
9775.00,0.92
9774.00,0.92
9773.00,0.93
9772.00,0.93
9771.00,0.94
9770.00,0.94
9769.00,0.95
9768.00,0.95
9767.00,0.96
9766.00,0.96
9765.00,0.96
9764.00,0.97
9763.00,0.97
9762.00,0.97
9761.00,0.97
9760.00,0.97
9759.00,0.98
9758.00,0.98
9757.00,0.98
9756.00,0.99
9755.00,0.99
9754.00,1.00
9753.00,1.00
9752.00,1.01
9751.00,1.01
9750.00,1.02
9749.00,1.02
9748.00,1.03
9747.00,1.03
9746.00,1.04
9745.00,1.04
9744.00,1.05
9743.00,1.06
9742.00,1.06
9741.00,1.07
9740.00,1.07
9739.00,1.08
9738.00,1.08
9737.00,1.09
9736.00,1.10
9735.00,1.10
9734.00,1.10
9733.00,1.11
9732.00,1.11
9731.00,1.11
9730.00,1.11
9729.00,1.11
9728.00,1.11
9727.00,1.11
9726.00,1.10
9725.00,1.10
9724.00,1.10
9723.00,1.09
9722.00,1.09
9721.00,1.08
9720.00,1.08
9719.00,1.07
9718.00,1.07
9717.00,1.06
9716.00,1.06
9715.00,1.05
9714.00,1.04
9713.00,1.04
9712.00,1.03
9711.00,1.02
9710.00,1.02
9709.00,1.02
9708.00,1.01
9707.00,1.01
9706.00,1.01
9705.00,1.00
9704.00,1.00
9703.00,1.00
9702.00,1.00
9701.00,1.00
9700.00,1.00
9699.00,1.00
9698.00,1.00
9697.00,1.00
9696.00,1.00
9695.00,1.00
9694.00,1.00
9693.00,1.00
9692.00,1.00
9691.00,1.00
9690.00,0.99
9689.00,0.99
9688.00,0.99
9687.00,0.99
9686.00,0.99
9685.00,0.98
9684.00,0.98
9683.00,0.98
9682.00,0.97
9681.00,0.97
9680.00,0.96
9679.00,0.96
9678.00,0.95
9677.00,0.95
9676.00,0.95
9675.00,0.94
9674.00,0.94
9673.00,0.94
9672.00,0.94
9671.00,0.94
9670.00,0.94
9669.00,0.94
9668.00,0.94
9667.00,0.94
9666.00,0.95
9665.00,0.95
9664.00,0.95
9663.00,0.96
9662.00,0.96
9661.00,0.97
9660.00,0.97
9659.00,0.98
9658.00,0.99
9657.00,0.99
9656.00,1.00
9655.00,1.00
9654.00,1.01
9653.00,1.01
9652.00,1.02
9651.00,1.02
9650.00,1.02
9649.00,1.02
9648.00,1.02
9647.00,1.02
9646.00,1.02
9645.00,1.01
9644.00,1.01
9643.00,1.01
9642.00,1.00
9641.00,1.00
9640.00,0.99
9639.00,0.98
9638.00,0.98
9637.00,0.97
9636.00,0.96
9635.00,0.96
9634.00,0.95
9633.00,0.95
9632.00,0.94
9631.00,0.94
9630.00,0.93
9629.00,0.93
9628.00,0.92
9627.00,0.92
9626.00,0.92
9625.00,0.92
9624.00,0.92
9623.00,0.92
9622.00,0.92
9621.00,0.92
9620.00,0.93
9619.00,0.93
9618.00,0.94
9617.00,0.94
9616.00,0.95
9615.00,0.95
9614.00,0.96
9613.00,0.97
9612.00,0.97
9611.00,0.98
9610.00,0.99
9609.00,0.99
9608.00,1.00
9607.00,1.00
9606.00,1.01
9605.00,1.01
9604.00,1.02
9603.00,1.02
9602.00,1.02
9601.00,1.02
9600.00,1.03
9599.00,1.03
9598.00,1.03
9597.00,1.03
9596.00,1.03
9595.00,1.03
9594.00,1.02
9593.00,1.02
9592.00,1.02
9591.00,1.01
9590.00,1.01
9589.00,1.00
9588.00,0.99
9587.00,0.99
9586.00,0.98
9585.00,0.97
9584.00,0.96
9583.00,0.95
9582.00,0.94
9581.00,0.93
9580.00,0.92
9579.00,0.91
9578.00,0.91
9577.00,0.90
9576.00,0.90
9575.00,0.89
9574.00,0.89
9573.00,0.88
9572.00,0.88
9571.00,0.87
9570.00,0.87
9569.00,0.87
9568.00,0.87
9567.00,0.87
9566.00,0.87
9565.00,0.87
9564.00,0.88
9563.00,0.88
9562.00,0.88
9561.00,0.89
9560.00,0.90
9559.00,0.91
9558.00,0.91
9557.00,0.92
9556.00,0.93
9555.00,0.94
9554.00,0.95
9553.00,0.95
9552.00,0.96
9551.00,0.96
9550.00,0.97
9549.00,0.97
9548.00,0.97
9547.00,0.97
9546.00,0.97
9545.00,0.97
9544.00,0.97
9543.00,0.97
9542.00,0.97
9541.00,0.96
9540.00,0.96
9539.00,0.95
9538.00,0.95
9537.00,0.94
9536.00,0.94
9535.00,0.93
9534.00,0.92
9533.00,0.91
9532.00,0.91
9531.00,0.90
9530.00,0.89
9529.00,0.88
9528.00,0.87
9527.00,0.87
9526.00,0.86
9525.00,0.85
9524.00,0.85
9523.00,0.85
9522.00,0.84
9521.00,0.84
9520.00,0.84
9519.00,0.84
9518.00,0.85
9517.00,0.85
9516.00,0.85
9515.00,0.86
9514.00,0.86
9513.00,0.87
9512.00,0.87
9511.00,0.88
9510.00,0.88
9509.00,0.89
9508.00,0.90
9507.00,0.91
9506.00,0.91
9505.00,0.92
9504.00,0.93
9503.00,0.94
9502.00,0.95
9501.00,0.96
9500.00,0.97
9499.00,0.98
9498.00,0.99
9497.00,1.00
9496.00,1.01
9495.00,1.02
9494.00,1.02
9493.00,1.03
9492.00,1.04
9491.00,1.04
9490.00,1.04
9489.00,1.04
9488.00,1.04
9487.00,1.04
9486.00,1.04
9485.00,1.04
9484.00,1.04
9483.00,1.04
9482.00,1.04
9481.00,1.03
9480.00,1.03
9479.00,1.03
9478.00,1.02
9477.00,1.02
9476.00,1.01
9475.00,1.00
9474.00,0.99
9473.00,0.99
9472.00,0.98
9471.00,0.97
9470.00,0.96
9469.00,0.95
9468.00,0.94
9467.00,0.94
9466.00,0.93
9465.00,0.93
9464.00,0.92
9463.00,0.92
9462.00,0.92
9461.00,0.92
9460.00,0.92
9459.00,0.91
9458.00,0.92
9457.00,0.92
9456.00,0.92
9455.00,0.92
9454.00,0.92
9453.00,0.92
9452.00,0.93
9451.00,0.93
9450.00,0.93
9449.00,0.94
9448.00,0.94
9447.00,0.95
9446.00,0.95
9445.00,0.96
9444.00,0.96
9443.00,0.97
9442.00,0.97
9441.00,0.98
9440.00,0.98
9439.00,0.98
9438.00,0.98
9437.00,0.98
9436.00,0.98
9435.00,0.99
9434.00,0.99
9433.00,0.99
9432.00,0.99
9431.00,0.98
9430.00,0.98
9429.00,0.98
9428.00,0.98
9427.00,0.98
9426.00,0.98
9425.00,0.97
9424.00,0.97
9423.00,0.96
9422.00,0.96
9421.00,0.95
9420.00,0.94
9419.00,0.94
9418.00,0.93
9417.00,0.92
9416.00,0.92
9415.00,0.91
9414.00,0.91
9413.00,0.91
9412.00,0.90
9411.00,0.90
9410.00,0.90
9409.00,0.89
9408.00,0.89
9407.00,0.88
9406.00,0.88
9405.00,0.88
9404.00,0.87
9403.00,0.87
9402.00,0.87
9401.00,0.87
9400.00,0.87
9399.00,0.87
9398.00,0.87
9397.00,0.87
9396.00,0.87
9395.00,0.87
9394.00,0.88
9393.00,0.88
9392.00,0.88
9391.00,0.88
9390.00,0.89
9389.00,0.89
9388.00,0.89
9387.00,0.89
9386.00,0.90
9385.00,0.90
9384.00,0.90
9383.00,0.90
9382.00,0.91
9381.00,0.91
9380.00,0.91
9379.00,0.92
9378.00,0.92
9377.00,0.93
9376.00,0.93
9375.00,0.93
9374.00,0.94
9373.00,0.94
9372.00,0.94
9371.00,0.95
9370.00,0.95
9369.00,0.95
9368.00,0.96
9367.00,0.96
9366.00,0.96
9365.00,0.97
9364.00,0.97
9363.00,0.97
9362.00,0.98
9361.00,0.98
9360.00,0.98
9359.00,0.98
9358.00,0.98
9357.00,0.99
9356.00,0.99
9355.00,0.99
9354.00,0.99
9353.00,0.99
9352.00,0.99
9351.00,0.99
9350.00,0.99
9349.00,0.99
9348.00,0.99
9347.00,0.99
9346.00,0.99
9345.00,0.98
9344.00,0.98
9343.00,0.98
9342.00,0.98
9341.00,0.97
9340.00,0.97
9339.00,0.96
9338.00,0.96
9337.00,0.95
9336.00,0.95
9335.00,0.94
9334.00,0.94
9333.00,0.93
9332.00,0.93
9331.00,0.92
9330.00,0.92
9329.00,0.92
9328.00,0.91
9327.00,0.91
9326.00,0.91
9325.00,0.90
9324.00,0.90
9323.00,0.89
9322.00,0.89
9321.00,0.89
9320.00,0.88
9319.00,0.88
9318.00,0.88
9317.00,0.88
9316.00,0.88
9315.00,0.88
9314.00,0.88
9313.00,0.88
9312.00,0.88
9311.00,0.89
9310.00,0.89
9309.00,0.90
9308.00,0.90
9307.00,0.91
9306.00,0.91
9305.00,0.91
9304.00,0.92
9303.00,0.92
9302.00,0.92
9301.00,0.93
9300.00,0.93
9299.00,0.93
9298.00,0.94
9297.00,0.94
9296.00,0.95
9295.00,0.95
9294.00,0.96
9293.00,0.96
9292.00,0.97
9291.00,0.97
9290.00,0.98
9289.00,0.98
9288.00,0.98
9287.00,0.99
9286.00,0.99
9285.00,0.99
9284.00,0.99
9283.00,1.00
9282.00,1.00
9281.00,1.00
9280.00,1.00
9279.00,1.00
9278.00,1.01
9277.00,1.01
9276.00,1.02
9275.00,1.02
9274.00,1.03
9273.00,1.03
9272.00,1.04
9271.00,1.04
9270.00,1.05
9269.00,1.05
9268.00,1.06
9267.00,1.06
9266.00,1.06
9265.00,1.07
9264.00,1.07
9263.00,1.07
9262.00,1.08
9261.00,1.08
9260.00,1.08
9259.00,1.08
9258.00,1.09
9257.00,1.09
9256.00,1.09
9255.00,1.09
9254.00,1.09
9253.00,1.09
9252.00,1.09
9251.00,1.09
9250.00,1.09
9249.00,1.09
9248.00,1.08
9247.00,1.08
9246.00,1.08
9245.00,1.07
9244.00,1.07
9243.00,1.07
9242.00,1.07
9241.00,1.06
9240.00,1.06
9239.00,1.06
9238.00,1.06
9237.00,1.06
9236.00,1.06
9235.00,1.06
9234.00,1.06
9233.00,1.06
9232.00,1.06
9231.00,1.06
9230.00,1.06
9229.00,1.06
9228.00,1.06
9227.00,1.07
9226.00,1.07
9225.00,1.07
9224.00,1.08
9223.00,1.08
9222.00,1.08
9221.00,1.09
9220.00,1.09
9219.00,1.09
9218.00,1.09
9217.00,1.10
9216.00,1.10
9215.00,1.10
9214.00,1.10
9213.00,1.10
9212.00,1.10
9211.00,1.10
9210.00,1.10
9209.00,1.11
9208.00,1.11
9207.00,1.11
9206.00,1.11
9205.00,1.10
9204.00,1.10
9203.00,1.10
9202.00,1.10
9201.00,1.10
9200.00,1.09
9199.00,1.09
9198.00,1.09
9197.00,1.09
9196.00,1.09
9195.00,1.09
9194.00,1.09
9193.00,1.09
9192.00,1.09
9191.00,1.09
9190.00,1.10
9189.00,1.10
9188.00,1.10
9187.00,1.10
9186.00,1.10
9185.00,1.10
9184.00,1.10
9183.00,1.10
9182.00,1.09
9181.00,1.09
9180.00,1.09
9179.00,1.09
9178.00,1.09
9177.00,1.09
9176.00,1.09
9175.00,1.09
9174.00,1.09
9173.00,1.09
9172.00,1.09
9171.00,1.08
9170.00,1.08
9169.00,1.08
9168.00,1.07
9167.00,1.07
9166.00,1.07
9165.00,1.06
9164.00,1.06
9163.00,1.05
9162.00,1.05
9161.00,1.05
9160.00,1.04
9159.00,1.04
9158.00,1.04
9157.00,1.03
9156.00,1.03
9155.00,1.02
9154.00,1.02
9153.00,1.02
9152.00,1.02
9151.00,1.01
9150.00,1.01
9149.00,1.00
9148.00,1.00
9147.00,1.00
9146.00,1.00
9145.00,0.99
9144.00,0.99
9143.00,0.99
9142.00,0.98
9141.00,0.98
9140.00,0.98
9139.00,0.98
9138.00,0.98
9137.00,0.97
9136.00,0.97
9135.00,0.97
9134.00,0.97
9133.00,0.97
9132.00,0.97
9131.00,0.97
9130.00,0.97
9129.00,0.98
9128.00,0.98
9127.00,0.98
9126.00,0.98
9125.00,0.98
9124.00,0.98
9123.00,0.98
9122.00,0.98
9121.00,0.98
9120.00,0.98
9119.00,0.98
9118.00,0.98
9117.00,0.98
9116.00,0.98
9115.00,0.99
9114.00,0.99
9113.00,0.99
9112.00,0.99
9111.00,0.99
9110.00,0.99
9109.00,1.00
9108.00,1.00
9107.00,1.00
9106.00,1.00
9105.00,1.00
9104.00,1.00
9103.00,1.00
9102.00,1.00
9101.00,1.00
9100.00,1.01
9099.00,1.01
9098.00,1.01
9097.00,1.01
9096.00,1.01
9095.00,1.01
9094.00,1.01
9093.00,1.01
9092.00,1.02
9091.00,1.02
9090.00,1.02
9089.00,1.02
9088.00,1.02
9087.00,1.03
9086.00,1.03
9085.00,1.03
9084.00,1.03
9083.00,1.03
9082.00,1.03
9081.00,1.03
9080.00,1.04
9079.00,1.04
9078.00,1.04
9077.00,1.04
9076.00,1.04
9075.00,1.04
9074.00,1.04
9073.00,1.04
9072.00,1.03
9071.00,1.03
9070.00,1.03
9069.00,1.03
9068.00,1.03
9067.00,1.02
9066.00,1.02
9065.00,1.02
9064.00,1.01
9063.00,1.01
9062.00,1.01
9061.00,1.00
9060.00,1.00
9059.00,0.99
9058.00,0.99
9057.00,0.99
9056.00,0.98
9055.00,0.98
9054.00,0.97
9053.00,0.97
9052.00,0.97
9051.00,0.97
9050.00,0.97
9049.00,0.97
9048.00,0.97
9047.00,0.97
9046.00,0.97
9045.00,0.98
9044.00,0.98
9043.00,0.99
9042.00,0.99
9041.00,1.00
9040.00,1.00
9039.00,1.01
9038.00,1.01
9037.00,1.02
9036.00,1.02
9035.00,1.03
9034.00,1.03
9033.00,1.04
9032.00,1.05
9031.00,1.05
9030.00,1.06
9029.00,1.06
9028.00,1.06
9027.00,1.07
9026.00,1.07
9025.00,1.07
9024.00,1.07
9023.00,1.07
9022.00,1.07
9021.00,1.07
9020.00,1.06
9019.00,1.06
9018.00,1.06
9017.00,1.05
9016.00,1.05
9015.00,1.05
9014.00,1.04
9013.00,1.04
9012.00,1.04
9011.00,1.03
9010.00,1.03
9009.00,1.02
9008.00,1.02
9007.00,1.02
9006.00,1.01
9005.00,1.01
9004.00,1.00
9003.00,1.00
9002.00,0.99
9001.00,0.99
9000.00,0.99
8999.00,0.98
8998.00,0.98
8997.00,0.98
8996.00,0.98
8995.00,0.98
8994.00,0.98
8993.00,0.98
8992.00,0.97
8991.00,0.97
8990.00,0.97
8989.00,0.97
8988.00,0.97
8987.00,0.98
8986.00,0.98
8985.00,0.98
8984.00,0.98
8983.00,0.98
8982.00,0.98
8981.00,0.98
8980.00,0.98
8979.00,0.99
8978.00,0.99
8977.00,0.99
8976.00,1.00
8975.00,1.00
8974.00,1.00
8973.00,1.01
8972.00,1.01
8971.00,1.01
8970.00,1.02
8969.00,1.02
8968.00,1.03
8967.00,1.03
8966.00,1.03
8965.00,1.04
8964.00,1.04
8963.00,1.04
8962.00,1.04
8961.00,1.04
8960.00,1.04
8959.00,1.04
8958.00,1.04
8957.00,1.04
8956.00,1.04
8955.00,1.04
8954.00,1.04
8953.00,1.04
8952.00,1.04
8951.00,1.03
8950.00,1.03
8949.00,1.03
8948.00,1.03
8947.00,1.03
8946.00,1.03
8945.00,1.03
8944.00,1.03
8943.00,1.03
8942.00,1.03
8941.00,1.03
8940.00,1.03
8939.00,1.03
8938.00,1.03
8937.00,1.02
8936.00,1.02
8935.00,1.03
8934.00,1.03
8933.00,1.03
8932.00,1.03
8931.00,1.03
8930.00,1.04
8929.00,1.04
8928.00,1.04
8927.00,1.04
8926.00,1.05
8925.00,1.05
8924.00,1.05
8923.00,1.05
8922.00,1.05
8921.00,1.05
8920.00,1.05
8919.00,1.05
8918.00,1.04
8917.00,1.04
8916.00,1.04
8915.00,1.04
8914.00,1.04
8913.00,1.04
8912.00,1.04
8911.00,1.04
8910.00,1.04
8909.00,1.03
8908.00,1.03
8907.00,1.03
8906.00,1.03
8905.00,1.02
8904.00,1.02
8903.00,1.02
8902.00,1.02
8901.00,1.02
8900.00,1.02
8899.00,1.01
8898.00,1.01
8897.00,1.02
8896.00,1.02
8895.00,1.02
8894.00,1.02
8893.00,1.02
8892.00,1.02
8891.00,1.03
8890.00,1.03
8889.00,1.03
8888.00,1.03
8887.00,1.04
8886.00,1.04
8885.00,1.04
8884.00,1.05
8883.00,1.05
8882.00,1.06
8881.00,1.06
8880.00,1.06
8879.00,1.06
8878.00,1.07
8877.00,1.07
8876.00,1.07
8875.00,1.08
8874.00,1.08
8873.00,1.08
8872.00,1.08
8871.00,1.08
8870.00,1.08
8869.00,1.09
8868.00,1.09
8867.00,1.09
8866.00,1.09
8865.00,1.09
8864.00,1.09
8863.00,1.09
8862.00,1.09
8861.00,1.09
8860.00,1.09
8859.00,1.09
8858.00,1.08
8857.00,1.08
8856.00,1.08
8855.00,1.08
8854.00,1.08
8853.00,1.08
8852.00,1.08
8851.00,1.08
8850.00,1.08
8849.00,1.08
8848.00,1.08
8847.00,1.08
8846.00,1.08
8845.00,1.07
8844.00,1.07
8843.00,1.07
8842.00,1.06
8841.00,1.06
8840.00,1.06
8839.00,1.05
8838.00,1.05
8837.00,1.05
8836.00,1.05
8835.00,1.04
8834.00,1.04
8833.00,1.04
8832.00,1.04
8831.00,1.04
8830.00,1.04
8829.00,1.04
8828.00,1.03
8827.00,1.03
8826.00,1.03
8825.00,1.03
8824.00,1.03
8823.00,1.03
8822.00,1.02
8821.00,1.02
8820.00,1.02
8819.00,1.02
8818.00,1.02
8817.00,1.02
8816.00,1.02
8815.00,1.02
8814.00,1.02
8813.00,1.03
8812.00,1.03
8811.00,1.03
8810.00,1.03
8809.00,1.03
8808.00,1.04
8807.00,1.04
8806.00,1.04
8805.00,1.04
8804.00,1.04
8803.00,1.04
8802.00,1.04
8801.00,1.04
8800.00,1.04
8799.00,1.04
8798.00,1.05
8797.00,1.05
8796.00,1.05
8795.00,1.05
8794.00,1.05
8793.00,1.05
8792.00,1.05
8791.00,1.05
8790.00,1.05
8789.00,1.05
8788.00,1.05
8787.00,1.05
8786.00,1.05
8785.00,1.05
8784.00,1.05
8783.00,1.05
8782.00,1.05
8781.00,1.05
8780.00,1.04
8779.00,1.04
8778.00,1.04
8777.00,1.04
8776.00,1.03
8775.00,1.03
8774.00,1.02
8773.00,1.02
8772.00,1.02
8771.00,1.01
8770.00,1.01
8769.00,1.00
8768.00,1.00
8767.00,0.99
8766.00,0.99
8765.00,0.98
8764.00,0.98
8763.00,0.98
8762.00,0.97
8761.00,0.97
8760.00,0.96
8759.00,0.96
8758.00,0.96
8757.00,0.95
8756.00,0.95
8755.00,0.95
8754.00,0.94
8753.00,0.94
8752.00,0.94
8751.00,0.94
8750.00,0.94
8749.00,0.94
8748.00,0.94
8747.00,0.94
8746.00,0.94
8745.00,0.94
8744.00,0.94
8743.00,0.94
8742.00,0.94
8741.00,0.94
8740.00,0.94
8739.00,0.94
8738.00,0.94
8737.00,0.94
8736.00,0.94
8735.00,0.94
8734.00,0.94
8733.00,0.95
8732.00,0.95
8731.00,0.95
8730.00,0.95
8729.00,0.95
8728.00,0.96
8727.00,0.96
8726.00,0.96
8725.00,0.96
8724.00,0.96
8723.00,0.97
8722.00,0.97
8721.00,0.97
8720.00,0.98
8719.00,0.98
8718.00,0.98
8717.00,0.99
8716.00,0.99
8715.00,1.00
8714.00,1.01
8713.00,1.01
8712.00,1.01
8711.00,1.02
8710.00,1.02
8709.00,1.03
8708.00,1.03
8707.00,1.03
8706.00,1.03
8705.00,1.03
8704.00,1.03
8703.00,1.04
8702.00,1.04
8701.00,1.04
8700.00,1.04
8699.00,1.04
8698.00,1.04
8697.00,1.04
8696.00,1.05
8695.00,1.05
8694.00,1.05
8693.00,1.05
8692.00,1.05
8691.00,1.05
8690.00,1.05
8689.00,1.05
8688.00,1.05
8687.00,1.05
8686.00,1.05
8685.00,1.05
8684.00,1.05
8683.00,1.05
8682.00,1.05
8681.00,1.04
8680.00,1.04
8679.00,1.04
8678.00,1.04
8677.00,1.04
8676.00,1.04
8675.00,1.04
8674.00,1.04
8673.00,1.04
8672.00,1.04
8671.00,1.04
8670.00,1.03
8669.00,1.03
8668.00,1.03
8667.00,1.03
8666.00,1.03
8665.00,1.02
8664.00,1.02
8663.00,1.02
8662.00,1.01
8661.00,1.01
8660.00,1.01
8659.00,1.00
8658.00,1.00
8657.00,1.00
8656.00,1.00
8655.00,1.00
8654.00,1.00
8653.00,1.00
8652.00,1.00
8651.00,1.00
8650.00,1.00
8649.00,1.01
8648.00,1.01
8647.00,1.01
8646.00,1.01
8645.00,1.01
8644.00,1.01
8643.00,1.02
8642.00,1.02
8641.00,1.02
8640.00,1.02
8639.00,1.02
8638.00,1.02
8637.00,1.02
8636.00,1.02
8635.00,1.02
8634.00,1.02
8633.00,1.02
8632.00,1.02
8631.00,1.02
8630.00,1.02
8629.00,1.02
8628.00,1.02
8627.00,1.02
8626.00,1.01
8625.00,1.01
8624.00,1.01
8623.00,1.01
8622.00,1.01
8621.00,1.01
8620.00,1.01
8619.00,1.00
8618.00,1.00
8617.00,1.00
8616.00,1.00
8615.00,1.00
8614.00,1.01
8613.00,1.01
8612.00,1.01
8611.00,1.01
8610.00,1.01
8609.00,1.01
8608.00,1.02
8607.00,1.02
8606.00,1.02
8605.00,1.02
8604.00,1.03
8603.00,1.03
8602.00,1.03
8601.00,1.03
8600.00,1.03
8599.00,1.03
8598.00,1.03
8597.00,1.03
8596.00,1.03
8595.00,1.03
8594.00,1.03
8593.00,1.03
8592.00,1.03
8591.00,1.02
8590.00,1.02
8589.00,1.02
8588.00,1.02
8587.00,1.02
8586.00,1.01
8585.00,1.01
8584.00,1.01
8583.00,1.01
8582.00,1.00
8581.00,1.00
8580.00,1.00
8579.00,0.99
8578.00,0.99
8577.00,0.99
8576.00,0.99
8575.00,0.98
8574.00,0.98
8573.00,0.98
8572.00,0.98
8571.00,0.98
8570.00,0.98
8569.00,0.98
8568.00,0.99
8567.00,0.99
8566.00,0.99
8565.00,0.99
8564.00,0.99
8563.00,0.99
8562.00,0.99
8561.00,0.99
8560.00,0.99
8559.00,0.99
8558.00,0.99
8557.00,0.99
8556.00,0.99
8555.00,0.99
8554.00,0.99
8553.00,0.99
8552.00,0.99
8551.00,0.99
8550.00,0.98
8549.00,0.98
8548.00,0.98
8547.00,0.98
8546.00,0.98
8545.00,0.97
8544.00,0.97
8543.00,0.97
8542.00,0.97
8541.00,0.97
8540.00,0.96
8539.00,0.96
8538.00,0.96
8537.00,0.96
8536.00,0.96
8535.00,0.95
8534.00,0.95
8533.00,0.95
8532.00,0.95
8531.00,0.96
8530.00,0.96
8529.00,0.96
8528.00,0.96
8527.00,0.96
8526.00,0.96
8525.00,0.96
8524.00,0.97
8523.00,0.97
8522.00,0.97
8521.00,0.97
8520.00,0.98
8519.00,0.98
8518.00,0.98
8517.00,0.98
8516.00,0.99
8515.00,0.99
8514.00,0.99
8513.00,0.99
8512.00,1.00
8511.00,1.00
8510.00,1.00
8509.00,1.00
8508.00,1.00
8507.00,1.00
8506.00,1.00
8505.00,1.01
8504.00,1.01
8503.00,1.01
8502.00,1.01
8501.00,1.01
8500.00,1.01
8499.00,1.01
8498.00,1.01
8497.00,1.01
8496.00,1.01
8495.00,1.01
8494.00,1.01
8493.00,1.01
8492.00,1.01
8491.00,1.01
8490.00,1.01
8489.00,1.01
8488.00,1.00
8487.00,1.00
8486.00,1.00
8485.00,1.00
8484.00,1.00
8483.00,1.00
8482.00,1.00
8481.00,1.00
8480.00,1.00
8479.00,1.00
8478.00,1.00
8477.00,1.00
8476.00,1.00
8475.00,0.99
8474.00,0.99
8473.00,0.99
8472.00,0.99
8471.00,0.99
8470.00,0.98
8469.00,0.98
8468.00,0.98
8467.00,0.98
8466.00,0.98
8465.00,0.98
8464.00,0.98
8463.00,0.98
8462.00,0.98
8461.00,0.98
8460.00,0.98
8459.00,0.98
8458.00,0.98
8457.00,0.98
8456.00,0.98
8455.00,0.98
8454.00,0.98
8453.00,0.98
8452.00,0.98
8451.00,0.99
8450.00,0.99
8449.00,0.99
8448.00,0.99
8447.00,1.00
8446.00,1.00
8445.00,1.00
8444.00,1.01
8443.00,1.01
8442.00,1.02
8441.00,1.02
8440.00,1.02
8439.00,1.03
8438.00,1.03
8437.00,1.03
8436.00,1.04
8435.00,1.04
8434.00,1.04
8433.00,1.04
8432.00,1.05
8431.00,1.05
8430.00,1.05
8429.00,1.05
8428.00,1.05
8427.00,1.05
8426.00,1.05
8425.00,1.06
8424.00,1.06
8423.00,1.06
8422.00,1.06
8421.00,1.06
8420.00,1.06
8419.00,1.05
8418.00,1.05
8417.00,1.05
8416.00,1.05
8415.00,1.05
8414.00,1.05
8413.00,1.05
8412.00,1.05
8411.00,1.04
8410.00,1.04
8409.00,1.04
8408.00,1.04
8407.00,1.04
8406.00,1.03
8405.00,1.03
8404.00,1.03
8403.00,1.03
8402.00,1.03
8401.00,1.03
8400.00,1.03
8399.00,1.03
8398.00,1.02
8397.00,1.02
8396.00,1.02
8395.00,1.02
8394.00,1.02
8393.00,1.02
8392.00,1.01
8391.00,1.01
8390.00,1.01
8389.00,1.01
8388.00,1.01
8387.00,1.01
8386.00,1.00
8385.00,1.00
8384.00,1.00
8383.00,1.00
8382.00,1.00
8381.00,1.00
8380.00,1.00
8379.00,1.00
8378.00,1.00
8377.00,1.00
8376.00,1.00
8375.00,1.00
8374.00,1.00
8373.00,1.00
8372.00,1.00
8371.00,1.00
8370.00,1.00
8369.00,1.00
8368.00,1.00
8367.00,1.00
8366.00,1.00
8365.00,1.00
8364.00,1.00
8363.00,1.00
8362.00,1.00
8361.00,1.00
8360.00,1.00
8359.00,1.00
8358.00,1.00
8357.00,1.00
8356.00,1.00
8355.00,1.00
8354.00,1.00
8353.00,1.00
8352.00,1.00
8351.00,1.00
8350.00,1.00
8349.00,1.00
8348.00,1.00
8347.00,1.00
8346.00,0.99
8345.00,0.99
8344.00,0.99
8343.00,0.99
8342.00,0.99
8341.00,0.99
8340.00,0.99
8339.00,0.99
8338.00,0.99
8337.00,0.99
8336.00,0.99
8335.00,0.99
8334.00,0.99
8333.00,0.99
8332.00,0.99
8331.00,0.99
8330.00,0.99
8329.00,0.99
8328.00,0.99
8327.00,0.99
8326.00,0.99
8325.00,0.99
8324.00,0.98
8323.00,0.98
8322.00,0.98
8321.00,0.98
8320.00,0.98
8319.00,0.98
8318.00,0.98
8317.00,0.97
8316.00,0.97
8315.00,0.97
8314.00,0.97
8313.00,0.97
8312.00,0.96
8311.00,0.96
8310.00,0.96
8309.00,0.96
8308.00,0.95
8307.00,0.95
8306.00,0.95
8305.00,0.95
8304.00,0.95
8303.00,0.95
8302.00,0.95
8301.00,0.95
8300.00,0.95
8299.00,0.95
8298.00,0.95
8297.00,0.96
8296.00,0.96
8295.00,0.96
8294.00,0.96
8293.00,0.97
8292.00,0.97
8291.00,0.97
8290.00,0.98
8289.00,0.98
8288.00,0.98
8287.00,0.99
8286.00,0.99
8285.00,0.99
8284.00,1.00
8283.00,1.00
8282.00,1.01
8281.00,1.02
8280.00,1.02
8279.00,1.03
8278.00,1.03
8277.00,1.04
8276.00,1.04
8275.00,1.04
8274.00,1.05
8273.00,1.05
8272.00,1.05
8271.00,1.05
8270.00,1.05
8269.00,1.05
8268.00,1.05
8267.00,1.05
8266.00,1.06
8265.00,1.06
8264.00,1.06
8263.00,1.06
8262.00,1.06
8261.00,1.07
8260.00,1.07
8259.00,1.07
8258.00,1.07
8257.00,1.07
8256.00,1.06
8255.00,1.06
8254.00,1.06
8253.00,1.06
8252.00,1.05
8251.00,1.05
8250.00,1.05
8249.00,1.04
8248.00,1.04
8247.00,1.04
8246.00,1.04
8245.00,1.04
8244.00,1.04
8243.00,1.04
8242.00,1.04
8241.00,1.04
8240.00,1.04
8239.00,1.04
8238.00,1.04
8237.00,1.04
8236.00,1.04
8235.00,1.04
8234.00,1.04
8233.00,1.04
8232.00,1.05
8231.00,1.05
8230.00,1.05
8229.00,1.06
8228.00,1.06
8227.00,1.06
8226.00,1.07
8225.00,1.07
8224.00,1.08
8223.00,1.08
8222.00,1.08
8221.00,1.09
8220.00,1.09
8219.00,1.09
8218.00,1.09
8217.00,1.09
8216.00,1.10
8215.00,1.10
8214.00,1.10
8213.00,1.10
8212.00,1.10
8211.00,1.10
8210.00,1.10
8209.00,1.10
8208.00,1.10
8207.00,1.10
8206.00,1.09
8205.00,1.09
8204.00,1.09
8203.00,1.09
8202.00,1.08
8201.00,1.08
8200.00,1.07
8199.00,1.07
8198.00,1.07
8197.00,1.07
8196.00,1.06
8195.00,1.06
8194.00,1.06
8193.00,1.06
8192.00,1.06
8191.00,1.05
8190.00,1.05
8189.00,1.05
8188.00,1.05
8187.00,1.05
8186.00,1.05
8185.00,1.05
8184.00,1.04
8183.00,1.04
8182.00,1.04
8181.00,1.04
8180.00,1.04
8179.00,1.05
8178.00,1.05
8177.00,1.05
8176.00,1.06
8175.00,1.06
8174.00,1.06
8173.00,1.07
8172.00,1.07
8171.00,1.07
8170.00,1.07
8169.00,1.08
8168.00,1.08
8167.00,1.08
8166.00,1.08
8165.00,1.08
8164.00,1.09
8163.00,1.09
8162.00,1.09
8161.00,1.09
8160.00,1.10
8159.00,1.10
8158.00,1.10
8157.00,1.10
8156.00,1.10
8155.00,1.10
8154.00,1.10
8153.00,1.10
8152.00,1.10
8151.00,1.10
8150.00,1.10
8149.00,1.10
8148.00,1.10
8147.00,1.10
8146.00,1.09
8145.00,1.09
8144.00,1.09
8143.00,1.09
8142.00,1.09
8141.00,1.09
8140.00,1.09
8139.00,1.09
8138.00,1.09
8137.00,1.09
8136.00,1.09
8135.00,1.09
8134.00,1.08
8133.00,1.08
8132.00,1.08
8131.00,1.08
8130.00,1.08
8129.00,1.08
8128.00,1.08
8127.00,1.08
8126.00,1.08
8125.00,1.08
8124.00,1.08
8123.00,1.07
8122.00,1.07
8121.00,1.07
8120.00,1.07
8119.00,1.07
8118.00,1.06
8117.00,1.06
8116.00,1.06
8115.00,1.06
8114.00,1.05
8113.00,1.05
8112.00,1.05
8111.00,1.04
8110.00,1.04
8109.00,1.04
8108.00,1.04
8107.00,1.03
8106.00,1.03
8105.00,1.03
8104.00,1.03
8103.00,1.03
8102.00,1.03
8101.00,1.03
8100.00,1.03
8099.00,1.03
8098.00,1.03
8097.00,1.03
8096.00,1.03
8095.00,1.03
8094.00,1.03
8093.00,1.03
8092.00,1.03
8091.00,1.03
8090.00,1.04
8089.00,1.04
8088.00,1.04
8087.00,1.05
8086.00,1.05
8085.00,1.05
8084.00,1.06
8083.00,1.06
8082.00,1.07
8081.00,1.07
8080.00,1.07
8079.00,1.08
8078.00,1.08
8077.00,1.08
8076.00,1.08
8075.00,1.09
8074.00,1.09
8073.00,1.09
8072.00,1.10
8071.00,1.10
8070.00,1.10
8069.00,1.10
8068.00,1.11
8067.00,1.11
8066.00,1.11
8065.00,1.11
8064.00,1.11
8063.00,1.11
8062.00,1.11
8061.00,1.11
8060.00,1.11
8059.00,1.10
8058.00,1.10
8057.00,1.10
8056.00,1.10
8055.00,1.09
8054.00,1.09
8053.00,1.09
8052.00,1.08
8051.00,1.08
8050.00,1.08
8049.00,1.07
8048.00,1.07
8047.00,1.07
8046.00,1.06
8045.00,1.06
8044.00,1.06
8043.00,1.06
8042.00,1.05
8041.00,1.05
8040.00,1.05
8039.00,1.05
8038.00,1.05
8037.00,1.05
8036.00,1.05
8035.00,1.05
8034.00,1.05
8033.00,1.05
8032.00,1.05
8031.00,1.05
8030.00,1.06
8029.00,1.06
8028.00,1.06
8027.00,1.06
8026.00,1.07
8025.00,1.07
8024.00,1.07
8023.00,1.07
8022.00,1.07
8021.00,1.07
8020.00,1.07
8019.00,1.07
8018.00,1.07
8017.00,1.07
8016.00,1.07
8015.00,1.07
8014.00,1.07
8013.00,1.07
8012.00,1.07
8011.00,1.07
8010.00,1.07
8009.00,1.07
8008.00,1.07
8007.00,1.07
8006.00,1.07
8005.00,1.07
8004.00,1.07
8003.00,1.06
8002.00,1.06
8001.00,1.06
8000.00,1.06
7999.00,1.06
7998.00,1.06
7997.00,1.06
7996.00,1.06
7995.00,1.06
7994.00,1.06
7993.00,1.06
7992.00,1.05
7991.00,1.05
7990.00,1.05
7989.00,1.05
7988.00,1.05
7987.00,1.04
7986.00,1.04
7985.00,1.04
7984.00,1.03
7983.00,1.03
7982.00,1.02
7981.00,1.02
7980.00,1.01
7979.00,1.01
7978.00,1.01
7977.00,1.00
7976.00,1.00
7975.00,1.00
7974.00,0.99
7973.00,0.99
7972.00,0.99
7971.00,0.99
7970.00,0.98
7969.00,0.98
7968.00,0.98
7967.00,0.98
7966.00,0.98
7965.00,0.98
7964.00,0.98
7963.00,0.98
7962.00,0.99
7961.00,0.99
7960.00,0.99
7959.00,1.00
7958.00,1.00
7957.00,1.01
7956.00,1.01
7955.00,1.02
7954.00,1.02
7953.00,1.03
7952.00,1.03
7951.00,1.04
7950.00,1.04
7949.00,1.05
7948.00,1.05
7947.00,1.06
7946.00,1.06
7945.00,1.06
7944.00,1.07
7943.00,1.07
7942.00,1.07
7941.00,1.07
7940.00,1.07
7939.00,1.07
7938.00,1.07
7937.00,1.07
7936.00,1.07
7935.00,1.06
7934.00,1.06
7933.00,1.06
7932.00,1.06
7931.00,1.05
7930.00,1.05
7929.00,1.05
7928.00,1.04
7927.00,1.04
7926.00,1.04
7925.00,1.03
7924.00,1.03
7923.00,1.02
7922.00,1.02
7921.00,1.02
7920.00,1.01
7919.00,1.01
7918.00,1.01
7917.00,1.00
7916.00,1.00
7915.00,1.00
7914.00,1.00
7913.00,1.00
7912.00,0.99
7911.00,0.99
7910.00,0.99
7909.00,0.99
7908.00,0.99
7907.00,0.99
7906.00,1.00
7905.00,1.00
7904.00,1.00
7903.00,1.00
7902.00,1.00
7901.00,1.01
7900.00,1.01
7899.00,1.01
7898.00,1.02
7897.00,1.02
7896.00,1.02
7895.00,1.03
7894.00,1.03
7893.00,1.03
7892.00,1.04
7891.00,1.04
7890.00,1.04
7889.00,1.05
7888.00,1.05
7887.00,1.05
7886.00,1.05
7885.00,1.06
7884.00,1.06
7883.00,1.06
7882.00,1.06
7881.00,1.06
7880.00,1.06
7879.00,1.07
7878.00,1.07
7877.00,1.07
7876.00,1.07
7875.00,1.07
7874.00,1.07
7873.00,1.06
7872.00,1.06
7871.00,1.06
7870.00,1.06
7869.00,1.06
7868.00,1.06
7867.00,1.06
7866.00,1.05
7865.00,1.05
7864.00,1.05
7863.00,1.05
7862.00,1.05
7861.00,1.05
7860.00,1.04
7859.00,1.04
7858.00,1.04
7857.00,1.04
7856.00,1.04
7855.00,1.04
7854.00,1.04
7853.00,1.03
7852.00,1.03
7851.00,1.03
7850.00,1.03
7849.00,1.03
7848.00,1.03
7847.00,1.03
7846.00,1.03
7845.00,1.03
7844.00,1.03
7843.00,1.03
7842.00,1.03
7841.00,1.04
7840.00,1.04
7839.00,1.04
7838.00,1.04
7837.00,1.04
7836.00,1.05
7835.00,1.05
7834.00,1.05
7833.00,1.05
7832.00,1.05
7831.00,1.05
7830.00,1.06
7829.00,1.06
7828.00,1.06
7827.00,1.06
7826.00,1.06
7825.00,1.06
7824.00,1.06
7823.00,1.06
7822.00,1.06
7821.00,1.06
7820.00,1.06
7819.00,1.06
7818.00,1.06
7817.00,1.06
7816.00,1.06
7815.00,1.06
7814.00,1.05
7813.00,1.05
7812.00,1.05
7811.00,1.05
7810.00,1.05
7809.00,1.05
7808.00,1.05
7807.00,1.05
7806.00,1.05
7805.00,1.05
7804.00,1.05
7803.00,1.05
7802.00,1.05
7801.00,1.05
7800.00,1.05
7799.00,1.05
7798.00,1.05
7797.00,1.05
7796.00,1.06
7795.00,1.06
7794.00,1.06
7793.00,1.06
7792.00,1.06
7791.00,1.06
7790.00,1.07
7789.00,1.07
7788.00,1.07
7787.00,1.07
7786.00,1.07
7785.00,1.07
7784.00,1.07
7783.00,1.07
7782.00,1.07
7781.00,1.07
7780.00,1.07
7779.00,1.07
7778.00,1.07
7777.00,1.07
7776.00,1.07
7775.00,1.07
7774.00,1.07
7773.00,1.07
7772.00,1.07
7771.00,1.07
7770.00,1.07
7769.00,1.07
7768.00,1.07
7767.00,1.07
7766.00,1.06
7765.00,1.06
7764.00,1.06
7763.00,1.06
7762.00,1.06
7761.00,1.06
7760.00,1.07
7759.00,1.07
7758.00,1.07
7757.00,1.07
7756.00,1.07
7755.00,1.07
7754.00,1.07
7753.00,1.07
7752.00,1.07
7751.00,1.07
7750.00,1.07
7749.00,1.07
7748.00,1.07
7747.00,1.07
7746.00,1.07
7745.00,1.07
7744.00,1.07
7743.00,1.07
7742.00,1.07
7741.00,1.08
7740.00,1.08
7739.00,1.08
7738.00,1.08
7737.00,1.08
7736.00,1.08
7735.00,1.08
7734.00,1.08
7733.00,1.07
7732.00,1.07
7731.00,1.07
7730.00,1.07
7729.00,1.07
7728.00,1.07
7727.00,1.07
7726.00,1.07
7725.00,1.07
7724.00,1.07
7723.00,1.07
7722.00,1.07
7721.00,1.07
7720.00,1.06
7719.00,1.06
7718.00,1.06
7717.00,1.06
7716.00,1.06
7715.00,1.05
7714.00,1.05
7713.00,1.05
7712.00,1.05
7711.00,1.05
7710.00,1.05
7709.00,1.05
7708.00,1.05
7707.00,1.05
7706.00,1.05
7705.00,1.05
7704.00,1.05
7703.00,1.05
7702.00,1.06
7701.00,1.06
7700.00,1.06
7699.00,1.06
7698.00,1.06
7697.00,1.06
7696.00,1.06
7695.00,1.06
7694.00,1.06
7693.00,1.06
7692.00,1.07
7691.00,1.07
7690.00,1.07
7689.00,1.08
7688.00,1.08
7687.00,1.08
7686.00,1.08
7685.00,1.08
7684.00,1.08
7683.00,1.08
7682.00,1.08
7681.00,1.08
7680.00,1.08
7679.00,1.08
7678.00,1.08
7677.00,1.07
7676.00,1.07
7675.00,1.07
7674.00,1.07
7673.00,1.07
7672.00,1.07
7671.00,1.07
7670.00,1.07
7669.00,1.06
7668.00,1.06
7667.00,1.06
7666.00,1.06
7665.00,1.06
7664.00,1.06
7663.00,1.06
7662.00,1.05
7661.00,1.05
7660.00,1.05
7659.00,1.05
7658.00,1.05
7657.00,1.05
7656.00,1.05
7655.00,1.05
7654.00,1.05
7653.00,1.05
7652.00,1.05
7651.00,1.05
7650.00,1.06
7649.00,1.06
7648.00,1.06
7647.00,1.06
7646.00,1.06
7645.00,1.06
7644.00,1.06
7643.00,1.05
7642.00,1.05
7641.00,1.05
7640.00,1.05
7639.00,1.05
7638.00,1.05
7637.00,1.05
7636.00,1.05
7635.00,1.05
7634.00,1.05
7633.00,1.05
7632.00,1.05
7631.00,1.05
7630.00,1.05
7629.00,1.05
7628.00,1.05
7627.00,1.05
7626.00,1.05
7625.00,1.05
7624.00,1.05
7623.00,1.05
7622.00,1.05
7621.00,1.05
7620.00,1.05
7619.00,1.05
7618.00,1.05
7617.00,1.05
7616.00,1.05
7615.00,1.05
7614.00,1.05
7613.00,1.05
7612.00,1.06
7611.00,1.06
7610.00,1.06
7609.00,1.06
7608.00,1.06
7607.00,1.06
7606.00,1.07
7605.00,1.07
7604.00,1.07
7603.00,1.07
7602.00,1.07
7601.00,1.07
7600.00,1.07
7599.00,1.07
7598.00,1.07
7597.00,1.07
7596.00,1.08
7595.00,1.08
7594.00,1.08
7593.00,1.08
7592.00,1.08
7591.00,1.08
7590.00,1.08
7589.00,1.08
7588.00,1.08
7587.00,1.08
7586.00,1.08
7585.00,1.08
7584.00,1.08
7583.00,1.08
7582.00,1.08
7581.00,1.08
7580.00,1.08
7579.00,1.08
7578.00,1.08
7577.00,1.08
7576.00,1.08
7575.00,1.08
7574.00,1.07
7573.00,1.07
7572.00,1.07
7571.00,1.07
7570.00,1.07
7569.00,1.07
7568.00,1.07
7567.00,1.07
7566.00,1.07
7565.00,1.06
7564.00,1.06
7563.00,1.06
7562.00,1.06
7561.00,1.06
7560.00,1.06
7559.00,1.06
7558.00,1.06
7557.00,1.05
7556.00,1.05
7555.00,1.05
7554.00,1.06
7553.00,1.06
7552.00,1.06
7551.00,1.06
7550.00,1.06
7549.00,1.06
7548.00,1.06
7547.00,1.06
7546.00,1.06
7545.00,1.06
7544.00,1.06
7543.00,1.06
7542.00,1.06
7541.00,1.06
7540.00,1.07
7539.00,1.07
7538.00,1.07
7537.00,1.07
7536.00,1.07
7535.00,1.07
7534.00,1.08
7533.00,1.08
7532.00,1.08
7531.00,1.08
7530.00,1.08
7529.00,1.08
7528.00,1.08
7527.00,1.08
7526.00,1.08
7525.00,1.08
7524.00,1.08
7523.00,1.08
7522.00,1.08
7521.00,1.08
7520.00,1.08
7519.00,1.08
7518.00,1.08
7517.00,1.08
7516.00,1.08
7515.00,1.08
7514.00,1.08
7513.00,1.08
7512.00,1.08
7511.00,1.07
7510.00,1.07
7509.00,1.07
7508.00,1.07
7507.00,1.07
7506.00,1.07
7505.00,1.07
7504.00,1.07
7503.00,1.07
7502.00,1.07
7501.00,1.07
7500.00,1.07
7499.00,1.07
7498.00,1.07
7497.00,1.07
7496.00,1.08
7495.00,1.08
7494.00,1.08
7493.00,1.08
7492.00,1.08
7491.00,1.08
7490.00,1.08
7489.00,1.08
7488.00,1.08
7487.00,1.08
7486.00,1.09
7485.00,1.09
7484.00,1.09
7483.00,1.09
7482.00,1.09
7481.00,1.09
7480.00,1.09
7479.00,1.09
7478.00,1.09
7477.00,1.09
7476.00,1.08
7475.00,1.08
7474.00,1.08
7473.00,1.08
7472.00,1.08
7471.00,1.08
7470.00,1.08
7469.00,1.08
7468.00,1.08
7467.00,1.08
7466.00,1.08
7465.00,1.07
7464.00,1.07
7463.00,1.07
7462.00,1.07
7461.00,1.07
7460.00,1.07
7459.00,1.07
7458.00,1.07
7457.00,1.07
7456.00,1.07
7455.00,1.07
7454.00,1.07
7453.00,1.07
7452.00,1.07
7451.00,1.07
7450.00,1.07
7449.00,1.07
7448.00,1.07
7447.00,1.07
7446.00,1.07
7445.00,1.07
7444.00,1.07
7443.00,1.07
7442.00,1.07
7441.00,1.07
7440.00,1.07
7439.00,1.07
7438.00,1.07
7437.00,1.07
7436.00,1.08
7435.00,1.08
7434.00,1.08
7433.00,1.08
7432.00,1.08
7431.00,1.08
7430.00,1.08
7429.00,1.09
7428.00,1.09
7427.00,1.09
7426.00,1.09
7425.00,1.09
7424.00,1.09
7423.00,1.09
7422.00,1.09
7421.00,1.09
7420.00,1.09
7419.00,1.09
7418.00,1.09
7417.00,1.09
7416.00,1.09
7415.00,1.09
7414.00,1.09
7413.00,1.09
7412.00,1.08
7411.00,1.08
7410.00,1.08
7409.00,1.08
7408.00,1.08
7407.00,1.07
7406.00,1.07
7405.00,1.07
7404.00,1.07
7403.00,1.07
7402.00,1.06
7401.00,1.06
7400.00,1.06
7399.00,1.06
7398.00,1.06
7397.00,1.06
7396.00,1.06
7395.00,1.06
7394.00,1.06
7393.00,1.06
7392.00,1.07
7391.00,1.07
7390.00,1.07
7389.00,1.07
7388.00,1.07
7387.00,1.07
7386.00,1.07
7385.00,1.07
7384.00,1.07
7383.00,1.07
7382.00,1.08
7381.00,1.08
7380.00,1.08
7379.00,1.08
7378.00,1.08
7377.00,1.08
7376.00,1.08
7375.00,1.08
7374.00,1.08
7373.00,1.08
7372.00,1.08
7371.00,1.07
7370.00,1.07
7369.00,1.07
7368.00,1.07
7367.00,1.07
7366.00,1.06
7365.00,1.06
7364.00,1.06
7363.00,1.06
7362.00,1.05
7361.00,1.05
7360.00,1.05
7359.00,1.04
7358.00,1.04
7357.00,1.04
7356.00,1.03
7355.00,1.03
7354.00,1.03
7353.00,1.02
7352.00,1.02
7351.00,1.02
7350.00,1.02
7349.00,1.02
7348.00,1.02
7347.00,1.01
7346.00,1.01
7345.00,1.01
7344.00,1.01
7343.00,1.01
7342.00,1.01
7341.00,1.01
7340.00,1.01
7339.00,1.00
7338.00,1.00
7337.00,1.00
7336.00,1.00
7335.00,1.00
7334.00,1.01
7333.00,1.01
7332.00,1.01
7331.00,1.01
7330.00,1.01
7329.00,1.01
7328.00,1.01
7327.00,1.01
7326.00,1.01
7325.00,1.02
7324.00,1.02
7323.00,1.02
7322.00,1.02
7321.00,1.02
7320.00,1.03
7319.00,1.03
7318.00,1.03
7317.00,1.04
7316.00,1.04
7315.00,1.05
7314.00,1.05
7313.00,1.06
7312.00,1.06
7311.00,1.06
7310.00,1.07
7309.00,1.07
7308.00,1.07
7307.00,1.08
7306.00,1.08
7305.00,1.09
7304.00,1.09
7303.00,1.09
7302.00,1.09
7301.00,1.10
7300.00,1.10
7299.00,1.10
7298.00,1.10
7297.00,1.10
7296.00,1.10
7295.00,1.10
7294.00,1.10
7293.00,1.10
7292.00,1.09
7291.00,1.09
7290.00,1.09
7289.00,1.09
7288.00,1.09
7287.00,1.08
7286.00,1.08
7285.00,1.08
7284.00,1.08
7283.00,1.07
7282.00,1.07
7281.00,1.07
7280.00,1.07
7279.00,1.07
7278.00,1.06
7277.00,1.06
7276.00,1.06
7275.00,1.06
7274.00,1.06
7273.00,1.05
7272.00,1.05
7271.00,1.05
7270.00,1.05
7269.00,1.05
7268.00,1.05
7267.00,1.05
7266.00,1.05
7265.00,1.05
7264.00,1.05
7263.00,1.05
7262.00,1.05
7261.00,1.05
7260.00,1.05
7259.00,1.05
7258.00,1.05
7257.00,1.05
7256.00,1.05
7255.00,1.05
7254.00,1.05
7253.00,1.05
7252.00,1.05
7251.00,1.05
7250.00,1.05
7249.00,1.05
7248.00,1.05
7247.00,1.05
7246.00,1.05
7245.00,1.05
7244.00,1.05
7243.00,1.05
7242.00,1.05
7241.00,1.05
7240.00,1.05
7239.00,1.05
7238.00,1.05
7237.00,1.05
7236.00,1.05
7235.00,1.05
7234.00,1.05
7233.00,1.05
7232.00,1.05
7231.00,1.05
7230.00,1.05
7229.00,1.05
7228.00,1.05
7227.00,1.05
7226.00,1.05
7225.00,1.05
7224.00,1.05
7223.00,1.05
7222.00,1.05
7221.00,1.04
7220.00,1.04
7219.00,1.04
7218.00,1.04
7217.00,1.04
7216.00,1.04
7215.00,1.04
7214.00,1.04
7213.00,1.04
7212.00,1.04
7211.00,1.04
7210.00,1.04
7209.00,1.04
7208.00,1.04
7207.00,1.04
7206.00,1.04
7205.00,1.04
7204.00,1.04
7203.00,1.04
7202.00,1.04
7201.00,1.05
7200.00,1.05
7199.00,1.05
7198.00,1.05
7197.00,1.05
7196.00,1.05
7195.00,1.05
7194.00,1.05
7193.00,1.05
7192.00,1.05
7191.00,1.05
7190.00,1.05
7189.00,1.05
7188.00,1.05
7187.00,1.05
7186.00,1.05
7185.00,1.05
7184.00,1.04
7183.00,1.04
7182.00,1.04
7181.00,1.04
7180.00,1.04
7179.00,1.04
7178.00,1.04
7177.00,1.04
7176.00,1.04
7175.00,1.04
7174.00,1.03
7173.00,1.03
7172.00,1.03
7171.00,1.03
7170.00,1.03
7169.00,1.03
7168.00,1.02
7167.00,1.02
7166.00,1.02
7165.00,1.02
7164.00,1.02
7163.00,1.01
7162.00,1.01
7161.00,1.01
7160.00,1.01
7159.00,1.00
7158.00,1.00
7157.00,1.00
7156.00,1.00
7155.00,1.00
7154.00,1.00
7153.00,1.00
7152.00,1.00
7151.00,1.00
7150.00,1.00
7149.00,1.00
7148.00,1.00
7147.00,1.00
7146.00,1.00
7145.00,1.00
7144.00,1.00
7143.00,1.00
7142.00,1.00
7141.00,1.00
7140.00,1.00
7139.00,1.00
7138.00,1.00
7137.00,1.00
7136.00,1.00
7135.00,1.00
7134.00,1.00
7133.00,1.00
7132.00,1.00
7131.00,0.99
7130.00,0.99
7129.00,0.99
7128.00,0.99
7127.00,0.99
7126.00,0.98
7125.00,0.98
7124.00,0.98
7123.00,0.97
7122.00,0.97
7121.00,0.97
7120.00,0.97
7119.00,0.96
7118.00,0.96
7117.00,0.96
7116.00,0.96
7115.00,0.95
7114.00,0.95
7113.00,0.95
7112.00,0.95
7111.00,0.95
7110.00,0.95
7109.00,0.95
7108.00,0.95
7107.00,0.95
7106.00,0.95
7105.00,0.95
7104.00,0.95
7103.00,0.95
7102.00,0.95
7101.00,0.94
7100.00,0.94
7099.00,0.94
7098.00,0.94
7097.00,0.94
7096.00,0.94
7095.00,0.94
7094.00,0.94
7093.00,0.94
7092.00,0.94
7091.00,0.94
7090.00,0.94
7089.00,0.94
7088.00,0.94
7087.00,0.94
7086.00,0.94
7085.00,0.94
7084.00,0.94
7083.00,0.94
7082.00,0.94
7081.00,0.94
7080.00,0.94
7079.00,0.95
7078.00,0.95
7077.00,0.95
7076.00,0.95
7075.00,0.95
7074.00,0.95
7073.00,0.95
7072.00,0.95
7071.00,0.95
7070.00,0.95
7069.00,0.95
7068.00,0.95
7067.00,0.95
7066.00,0.95
7065.00,0.95
7064.00,0.95
7063.00,0.94
7062.00,0.94
7061.00,0.94
7060.00,0.94
7059.00,0.94
7058.00,0.94
7057.00,0.93
7056.00,0.93
7055.00,0.93
7054.00,0.93
7053.00,0.93
7052.00,0.92
7051.00,0.92
7050.00,0.92
7049.00,0.92
7048.00,0.92
7047.00,0.91
7046.00,0.91
7045.00,0.91
7044.00,0.91
7043.00,0.91
7042.00,0.91
7041.00,0.91
7040.00,0.90
7039.00,0.90
7038.00,0.90
7037.00,0.90
7036.00,0.90
7035.00,0.90
7034.00,0.90
7033.00,0.91
7032.00,0.91
7031.00,0.91
7030.00,0.91
7029.00,0.91
7028.00,0.91
7027.00,0.91
7026.00,0.92
7025.00,0.92
7024.00,0.92
7023.00,0.92
7022.00,0.92
7021.00,0.93
7020.00,0.93
7019.00,0.93
7018.00,0.94
7017.00,0.94
7016.00,0.95
7015.00,0.95
7014.00,0.95
7013.00,0.96
7012.00,0.96
7011.00,0.96
7010.00,0.97
7009.00,0.97
7008.00,0.97
7007.00,0.98
7006.00,0.98
7005.00,0.98
7004.00,0.98
7003.00,0.98
7002.00,0.99
7001.00,0.99
7000.00,0.99
6999.00,0.99
6998.00,0.99
6997.00,0.99
6996.00,1.00
6995.00,1.00
6994.00,1.00
6993.00,1.00
6992.00,1.00
6991.00,1.00
6990.00,1.00
6989.00,1.00
6988.00,1.00
6987.00,0.99
6986.00,0.99
6985.00,0.99
6984.00,0.99
6983.00,0.99
6982.00,0.99
6981.00,0.99
6980.00,0.99
6979.00,0.99
6978.00,0.99
6977.00,0.99
6976.00,0.99
6975.00,0.99
6974.00,0.99
6973.00,0.99
6972.00,1.00
6971.00,1.00
6970.00,1.00
6969.00,1.00
6968.00,1.00
6967.00,1.00
6966.00,1.00
6965.00,1.01
6964.00,1.01
6963.00,1.01
6962.00,1.01
6961.00,1.01
6960.00,1.01
6959.00,1.01
6958.00,1.01
6957.00,1.01
6956.00,1.01
6955.00,1.01
6954.00,1.01
6953.00,1.01
6952.00,1.01
6951.00,1.02
6950.00,1.02
6949.00,1.01
6948.00,1.01
6947.00,1.01
6946.00,1.01
6945.00,1.01
6944.00,1.01
6943.00,1.00
6942.00,1.00
6941.00,1.00
6940.00,0.99
6939.00,0.99
6938.00,0.99
6937.00,0.98
6936.00,0.98
6935.00,0.98
6934.00,0.97
6933.00,0.97
6932.00,0.97
6931.00,0.96
6930.00,0.96
6929.00,0.96
6928.00,0.95
6927.00,0.95
6926.00,0.95
6925.00,0.94
6924.00,0.94
6923.00,0.94
6922.00,0.93
6921.00,0.93
6920.00,0.93
6919.00,0.93
6918.00,0.93
6917.00,0.92
6916.00,0.92
6915.00,0.92
6914.00,0.92
6913.00,0.92
6912.00,0.92
6911.00,0.92
6910.00,0.92
6909.00,0.92
6908.00,0.92
6907.00,0.92
6906.00,0.92
6905.00,0.92
6904.00,0.92
6903.00,0.92
6902.00,0.92
6901.00,0.92
6900.00,0.92
6899.00,0.93
6898.00,0.93
6897.00,0.93
6896.00,0.93
6895.00,0.93
6894.00,0.93
6893.00,0.93
6892.00,0.93
6891.00,0.94
6890.00,0.94
6889.00,0.94
6888.00,0.94
6887.00,0.94
6886.00,0.94
6885.00,0.94
6884.00,0.94
6883.00,0.94
6882.00,0.94
6881.00,0.95
6880.00,0.95
6879.00,0.95
6878.00,0.95
6877.00,0.95
6876.00,0.95
6875.00,0.95
6874.00,0.95
6873.00,0.95
6872.00,0.95
6871.00,0.95
6870.00,0.95
6869.00,0.95
6868.00,0.96
6867.00,0.96
6866.00,0.96
6865.00,0.96
6864.00,0.96
6863.00,0.96
6862.00,0.96
6861.00,0.96
6860.00,0.96
6859.00,0.96
6858.00,0.96
6857.00,0.96
6856.00,0.96
6855.00,0.96
6854.00,0.96
6853.00,0.96
6852.00,0.96
6851.00,0.96
6850.00,0.96
6849.00,0.96
6848.00,0.96
6847.00,0.96
6846.00,0.96
6845.00,0.97
6844.00,0.97
6843.00,0.97
6842.00,0.97
6841.00,0.97
6840.00,0.97
6839.00,0.97
6838.00,0.97
6837.00,0.97
6836.00,0.97
6835.00,0.97
6834.00,0.97
6833.00,0.97
6832.00,0.97
6831.00,0.98
6830.00,0.98
6829.00,0.98
6828.00,0.98
6827.00,0.98
6826.00,0.98
6825.00,0.99
6824.00,0.99
6823.00,0.99
6822.00,0.99
6821.00,0.99
6820.00,0.99
6819.00,0.99
6818.00,0.99
6817.00,0.99
6816.00,0.99
6815.00,0.99
6814.00,1.00
6813.00,1.00
6812.00,1.00
6811.00,1.00
6810.00,1.00
6809.00,1.01
6808.00,1.01
6807.00,1.01
6806.00,1.01
6805.00,1.01
6804.00,1.01
6803.00,1.01
6802.00,1.01
6801.00,1.01
6800.00,1.01
6799.00,1.01
6798.00,1.01
6797.00,1.01
6796.00,1.01
6795.00,1.01
6794.00,1.01
6793.00,1.01
6792.00,1.01
6791.00,1.01
6790.00,1.01
6789.00,1.01
6788.00,1.01
6787.00,1.01
6786.00,1.01
6785.00,1.01
6784.00,1.01
6783.00,1.01
6782.00,1.00
6781.00,1.00
6780.00,1.00
6779.00,1.00
6778.00,1.00
6777.00,1.00
6776.00,1.00
6775.00,1.00
6774.00,1.00
6773.00,1.00
6772.00,1.00
6771.00,1.00
6770.00,1.01
6769.00,1.01
6768.00,1.01
6767.00,1.01
6766.00,1.01
6765.00,1.01
6764.00,1.01
6763.00,1.02
6762.00,1.02
6761.00,1.02
6760.00,1.02
6759.00,1.02
6758.00,1.02
6757.00,1.03
6756.00,1.03
6755.00,1.03
6754.00,1.03
6753.00,1.03
6752.00,1.04
6751.00,1.04
6750.00,1.04
6749.00,1.04
6748.00,1.04
6747.00,1.04
6746.00,1.05
6745.00,1.05
6744.00,1.05
6743.00,1.05
6742.00,1.05
6741.00,1.05
6740.00,1.05
6739.00,1.06
6738.00,1.06
6737.00,1.06
6736.00,1.06
6735.00,1.06
6734.00,1.06
6733.00,1.06
6732.00,1.06
6731.00,1.06
6730.00,1.06
6729.00,1.06
6728.00,1.06
6727.00,1.06
6726.00,1.06
6725.00,1.06
6724.00,1.06
6723.00,1.06
6722.00,1.06
6721.00,1.06
6720.00,1.06
6719.00,1.05
6718.00,1.05
6717.00,1.05
6716.00,1.05
6715.00,1.05
6714.00,1.05
6713.00,1.05
6712.00,1.05
6711.00,1.04
6710.00,1.04
6709.00,1.04
6708.00,1.04
6707.00,1.04
6706.00,1.04
6705.00,1.03
6704.00,1.03
6703.00,1.03
6702.00,1.03
6701.00,1.03
6700.00,1.03
6699.00,1.03
6698.00,1.03
6697.00,1.02
6696.00,1.02
6695.00,1.02
6694.00,1.02
6693.00,1.02
6692.00,1.02
6691.00,1.02
6690.00,1.02
6689.00,1.01
6688.00,1.01
6687.00,1.01
6686.00,1.01
6685.00,1.01
6684.00,1.01
6683.00,1.01
6682.00,1.01
6681.00,1.01
6680.00,1.01
6679.00,1.01
6678.00,1.01
6677.00,1.01
6676.00,1.01
6675.00,1.01
6674.00,1.01
6673.00,1.01
6672.00,1.01
6671.00,1.01
6670.00,1.01
6669.00,1.01
6668.00,1.00
6667.00,1.00
6666.00,1.00
6665.00,1.00
6664.00,1.00
6663.00,1.00
6662.00,1.00
6661.00,1.00
6660.00,1.00
6659.00,1.00
6658.00,1.00
6657.00,1.00
6656.00,1.00
6655.00,1.00
6654.00,1.00
6653.00,1.00
6652.00,1.00
6651.00,1.00
6650.00,1.00
6649.00,1.00
6648.00,1.00
6647.00,1.00
6646.00,1.00
6645.00,1.00
6644.00,1.00
6643.00,1.00
6642.00,1.00
6641.00,1.00
6640.00,1.00
6639.00,1.00
6638.00,1.00
6637.00,1.00
6636.00,1.00
6635.00,1.00
6634.00,1.00
6633.00,1.00
6632.00,1.00
6631.00,1.00
6630.00,1.00
6629.00,1.00
6628.00,1.00
6627.00,1.00
6626.00,1.00
6625.00,1.00
6624.00,1.00
6623.00,1.00
6622.00,1.00
6621.00,1.00
6620.00,1.00
6619.00,1.01
6618.00,1.01
6617.00,1.01
6616.00,1.01
6615.00,1.01
6614.00,1.01
6613.00,1.01
6612.00,1.01
6611.00,1.01
6610.00,1.02
6609.00,1.02
6608.00,1.02
6607.00,1.02
6606.00,1.02
6605.00,1.03
6604.00,1.03
6603.00,1.03
6602.00,1.03
6601.00,1.04
6600.00,1.04
6599.00,1.04
6598.00,1.04
6597.00,1.05
6596.00,1.05
6595.00,1.05
6594.00,1.05
6593.00,1.05
6592.00,1.05
6591.00,1.06
6590.00,1.06
6589.00,1.06
6588.00,1.06
6587.00,1.06
6586.00,1.07
6585.00,1.07
6584.00,1.07
6583.00,1.07
6582.00,1.07
6581.00,1.07
6580.00,1.07
6579.00,1.07
6578.00,1.07
6577.00,1.07
6576.00,1.07
6575.00,1.07
6574.00,1.07
6573.00,1.07
6572.00,1.07
6571.00,1.07
6570.00,1.07
6569.00,1.07
6568.00,1.07
6567.00,1.07
6566.00,1.07
6565.00,1.07
6564.00,1.07
6563.00,1.07
6562.00,1.06
6561.00,1.06
6560.00,1.06
6559.00,1.06
6558.00,1.06
6557.00,1.06
6556.00,1.06
6555.00,1.06
6554.00,1.06
6553.00,1.06
6552.00,1.05
6551.00,1.05
6550.00,1.05
6549.00,1.05
6548.00,1.05
6547.00,1.05
6546.00,1.05
6545.00,1.05
6544.00,1.05
6543.00,1.05
6542.00,1.05
6541.00,1.04
6540.00,1.04
6539.00,1.04
6538.00,1.04
6537.00,1.04
6536.00,1.04
6535.00,1.04
6534.00,1.04
6533.00,1.04
6532.00,1.04
6531.00,1.04
6530.00,1.04
6529.00,1.04
6528.00,1.04
6527.00,1.04
6526.00,1.04
6525.00,1.04
6524.00,1.04
6523.00,1.04
6522.00,1.04
6521.00,1.04
6520.00,1.04
6519.00,1.04
6518.00,1.05
6517.00,1.05
6516.00,1.05
6515.00,1.05
6514.00,1.05
6513.00,1.05
6512.00,1.05
6511.00,1.05
6510.00,1.05
6509.00,1.06
6508.00,1.06
6507.00,1.06
6506.00,1.06
6505.00,1.06
6504.00,1.06
6503.00,1.06
6502.00,1.06
6501.00,1.06
6500.00,1.06
6499.00,1.06
6498.00,1.06
6497.00,1.06
6496.00,1.06
6495.00,1.06
6494.00,1.06
6493.00,1.06
6492.00,1.06
6491.00,1.06
6490.00,1.06
6489.00,1.06
6488.00,1.06
6487.00,1.06
6486.00,1.06
6485.00,1.06
6484.00,1.06
6483.00,1.06
6482.00,1.06
6481.00,1.06
6480.00,1.06
6479.00,1.06
6478.00,1.06
6477.00,1.06
6476.00,1.06
6475.00,1.06
6474.00,1.06
6473.00,1.06
6472.00,1.07
6471.00,1.07
6470.00,1.07
6469.00,1.07
6468.00,1.07
6467.00,1.07
6466.00,1.07
6465.00,1.07
6464.00,1.07
6463.00,1.08
6462.00,1.08
6461.00,1.08
6460.00,1.08
6459.00,1.08
6458.00,1.08
6457.00,1.08
6456.00,1.08
6455.00,1.08
6454.00,1.09
6453.00,1.09
6452.00,1.09
6451.00,1.09
6450.00,1.09
6449.00,1.09
6448.00,1.09
6447.00,1.09
6446.00,1.09
6445.00,1.09
6444.00,1.09
6443.00,1.09
6442.00,1.09
6441.00,1.08
6440.00,1.08
6439.00,1.08
6438.00,1.08
6437.00,1.08
6436.00,1.08
6435.00,1.08
6434.00,1.08
6433.00,1.08
6432.00,1.08
6431.00,1.08
6430.00,1.07
6429.00,1.07
6428.00,1.07
6427.00,1.07
6426.00,1.07
6425.00,1.07
6424.00,1.07
6423.00,1.07
6422.00,1.07
6421.00,1.07
6420.00,1.07
6419.00,1.07
6418.00,1.07
6417.00,1.07
6416.00,1.07
6415.00,1.07
6414.00,1.07
6413.00,1.07
6412.00,1.07
6411.00,1.08
6410.00,1.08
6409.00,1.08
6408.00,1.08
6407.00,1.08
6406.00,1.08
6405.00,1.08
6404.00,1.08
6403.00,1.08
6402.00,1.08
6401.00,1.08
6400.00,1.08
6399.00,1.08
6398.00,1.08
6397.00,1.08
6396.00,1.08
6395.00,1.08
6394.00,1.09
6393.00,1.09
6392.00,1.09
6391.00,1.09
6390.00,1.09
6389.00,1.09
6388.00,1.09
6387.00,1.09
6386.00,1.09
6385.00,1.09
6384.00,1.09
6383.00,1.09
6382.00,1.09
6381.00,1.09
6380.00,1.09
6379.00,1.09
6378.00,1.09
6377.00,1.09
6376.00,1.10
6375.00,1.10
6374.00,1.10
6373.00,1.10
6372.00,1.10
6371.00,1.09
6370.00,1.09
6369.00,1.09
6368.00,1.09
6367.00,1.09
6366.00,1.09
6365.00,1.09
6364.00,1.09
6363.00,1.09
6362.00,1.09
6361.00,1.09
6360.00,1.09
6359.00,1.09
6358.00,1.09
6357.00,1.09
6356.00,1.09
6355.00,1.09
6354.00,1.09
6353.00,1.09
6352.00,1.09
6351.00,1.09
6350.00,1.09
6349.00,1.09
6348.00,1.09
6347.00,1.09
6346.00,1.10
6345.00,1.10
6344.00,1.10
6343.00,1.10
6342.00,1.10
6341.00,1.10
6340.00,1.10
6339.00,1.10
6338.00,1.10
6337.00,1.10
6336.00,1.10
6335.00,1.10
6334.00,1.10
6333.00,1.10
6332.00,1.10
6331.00,1.10
6330.00,1.10
6329.00,1.10
6328.00,1.11
6327.00,1.11
6326.00,1.11
6325.00,1.11
6324.00,1.11
6323.00,1.11
6322.00,1.11
6321.00,1.11
6320.00,1.11
6319.00,1.11
6318.00,1.11
6317.00,1.11
6316.00,1.11
6315.00,1.11
6314.00,1.12
6313.00,1.12
6312.00,1.12
6311.00,1.12
6310.00,1.12
6309.00,1.12
6308.00,1.12
6307.00,1.12
6306.00,1.12
6305.00,1.13
6304.00,1.13
6303.00,1.13
6302.00,1.13
6301.00,1.13
6300.00,1.13
6299.00,1.13
6298.00,1.13
6297.00,1.12
6296.00,1.12
6295.00,1.12
6294.00,1.12
6293.00,1.12
6292.00,1.12
6291.00,1.12
6290.00,1.12
6289.00,1.12
6288.00,1.12
6287.00,1.12
6286.00,1.11
6285.00,1.11
6284.00,1.11
6283.00,1.11
6282.00,1.11
6281.00,1.11
6280.00,1.11
6279.00,1.11
6278.00,1.11
6277.00,1.11
6276.00,1.11
6275.00,1.11
6274.00,1.11
6273.00,1.11
6272.00,1.12
6271.00,1.12
6270.00,1.12
6269.00,1.12
6268.00,1.12
6267.00,1.12
6266.00,1.12
6265.00,1.12
6264.00,1.12
6263.00,1.13
6262.00,1.13
6261.00,1.13
6260.00,1.13
6259.00,1.13
6258.00,1.13
6257.00,1.13
6256.00,1.13
6255.00,1.13
6254.00,1.13
6253.00,1.13
6252.00,1.13
6251.00,1.13
6250.00,1.13
6249.00,1.13
6248.00,1.13
6247.00,1.13
6246.00,1.13
6245.00,1.13
6244.00,1.13
6243.00,1.13
6242.00,1.13
6241.00,1.13
6240.00,1.13
6239.00,1.13
6238.00,1.13
6237.00,1.13
6236.00,1.13
6235.00,1.13
6234.00,1.13
6233.00,1.13
6232.00,1.13
6231.00,1.13
6230.00,1.13
6229.00,1.13
6228.00,1.13
6227.00,1.13
6226.00,1.13
6225.00,1.13
6224.00,1.13
6223.00,1.13
6222.00,1.13
6221.00,1.13
6220.00,1.13
6219.00,1.13
6218.00,1.13
6217.00,1.13
6216.00,1.13
6215.00,1.14
6214.00,1.14
6213.00,1.14
6212.00,1.14
6211.00,1.14
6210.00,1.14
6209.00,1.14
6208.00,1.14
6207.00,1.14
6206.00,1.14
6205.00,1.14
6204.00,1.14
6203.00,1.14
6202.00,1.14
6201.00,1.14
6200.00,1.14
6199.00,1.13
6198.00,1.13
6197.00,1.13
6196.00,1.13
6195.00,1.13
6194.00,1.13
6193.00,1.13
6192.00,1.13
6191.00,1.13
6190.00,1.12
6189.00,1.12
6188.00,1.12
6187.00,1.12
6186.00,1.12
6185.00,1.12
6184.00,1.12
6183.00,1.12
6182.00,1.12
6181.00,1.12
6180.00,1.12
6179.00,1.12
6178.00,1.13
6177.00,1.13
6176.00,1.13
6175.00,1.13
6174.00,1.13
6173.00,1.13
6172.00,1.13
6171.00,1.13
6170.00,1.13
6169.00,1.13
6168.00,1.13
6167.00,1.14
6166.00,1.14
6165.00,1.14
6164.00,1.14
6163.00,1.14
6162.00,1.14
6161.00,1.14
6160.00,1.14
6159.00,1.14
6158.00,1.14
6157.00,1.14
6156.00,1.14
6155.00,1.14
6154.00,1.15
6153.00,1.15
6152.00,1.15
6151.00,1.15
6150.00,1.15
6149.00,1.15
6148.00,1.15
6147.00,1.15
6146.00,1.15
6145.00,1.15
6144.00,1.16
6143.00,1.16
6142.00,1.16
6141.00,1.16
6140.00,1.16
6139.00,1.17
6138.00,1.17
6137.00,1.17
6136.00,1.17
6135.00,1.17
6134.00,1.17
6133.00,1.17
6132.00,1.17
6131.00,1.18
6130.00,1.18
6129.00,1.18
6128.00,1.18
6127.00,1.18
6126.00,1.18
6125.00,1.18
6124.00,1.18
6123.00,1.18
6122.00,1.18
6121.00,1.18
6120.00,1.18
6119.00,1.18
6118.00,1.18
6117.00,1.18
6116.00,1.18
6115.00,1.18
6114.00,1.18
6113.00,1.18
6112.00,1.18
6111.00,1.18
6110.00,1.18
6109.00,1.18
6108.00,1.18
6107.00,1.18
6106.00,1.17
6105.00,1.17
6104.00,1.17
6103.00,1.17
6102.00,1.17
6101.00,1.17
6100.00,1.17
6099.00,1.17
6098.00,1.17
6097.00,1.17
6096.00,1.17
6095.00,1.17
6094.00,1.17
6093.00,1.17
6092.00,1.17
6091.00,1.17
6090.00,1.17
6089.00,1.17
6088.00,1.16
6087.00,1.16
6086.00,1.16
6085.00,1.16
6084.00,1.16
6083.00,1.16
6082.00,1.16
6081.00,1.16
6080.00,1.16
6079.00,1.16
6078.00,1.16
6077.00,1.16
6076.00,1.16
6075.00,1.15
6074.00,1.15
6073.00,1.15
6072.00,1.15
6071.00,1.15
6070.00,1.15
6069.00,1.15
6068.00,1.15
6067.00,1.15
6066.00,1.15
6065.00,1.15
6064.00,1.15
6063.00,1.15
6062.00,1.15
6061.00,1.15
6060.00,1.15
6059.00,1.15
6058.00,1.15
6057.00,1.15
6056.00,1.15
6055.00,1.15
6054.00,1.15
6053.00,1.16
6052.00,1.16
6051.00,1.16
6050.00,1.16
6049.00,1.16
6048.00,1.16
6047.00,1.16
6046.00,1.17
6045.00,1.17
6044.00,1.17
6043.00,1.17
6042.00,1.17
6041.00,1.17
6040.00,1.18
6039.00,1.18
6038.00,1.18
6037.00,1.18
6036.00,1.18
6035.00,1.18
6034.00,1.18
6033.00,1.18
6032.00,1.18
6031.00,1.18
6030.00,1.18
6029.00,1.18
6028.00,1.18
6027.00,1.18
6026.00,1.18
6025.00,1.18
6024.00,1.18
6023.00,1.18
6022.00,1.18
6021.00,1.18
6020.00,1.18
6019.00,1.18
6018.00,1.18
6017.00,1.17
6016.00,1.17
6015.00,1.17
6014.00,1.17
6013.00,1.17
6012.00,1.17
6011.00,1.17
6010.00,1.17
6009.00,1.17
6008.00,1.17
6007.00,1.17
6006.00,1.17
6005.00,1.17
6004.00,1.17
6003.00,1.17
6002.00,1.17
6001.00,1.17
6000.00,1.17
5999.00,1.17
5998.00,1.17
5997.00,1.17
5996.00,1.17
5995.00,1.17
5994.00,1.17
5993.00,1.17
5992.00,1.17
5991.00,1.17
5990.00,1.17
5989.00,1.18
5988.00,1.18
5987.00,1.18
5986.00,1.18
5985.00,1.18
5984.00,1.18
5983.00,1.18
5982.00,1.18
5981.00,1.18
5980.00,1.18
5979.00,1.18
5978.00,1.18
5977.00,1.18
5976.00,1.18
5975.00,1.18
5974.00,1.18
5973.00,1.18
5972.00,1.18
5971.00,1.18
5970.00,1.18
5969.00,1.18
5968.00,1.18
5967.00,1.18
5966.00,1.18
5965.00,1.18
5964.00,1.18
5963.00,1.18
5962.00,1.17
5961.00,1.17
5960.00,1.17
5959.00,1.17
5958.00,1.17
5957.00,1.17
5956.00,1.16
5955.00,1.16
5954.00,1.16
5953.00,1.16
5952.00,1.16
5951.00,1.15
5950.00,1.15
5949.00,1.15
5948.00,1.15
5947.00,1.15
5946.00,1.14
5945.00,1.14
5944.00,1.14
5943.00,1.14
5942.00,1.14
5941.00,1.14
5940.00,1.14
5939.00,1.14
5938.00,1.14
5937.00,1.14
5936.00,1.14
5935.00,1.14
5934.00,1.14
5933.00,1.14
5932.00,1.14
5931.00,1.15
5930.00,1.15
5929.00,1.15
5928.00,1.15
5927.00,1.15
5926.00,1.15
5925.00,1.16
5924.00,1.16
5923.00,1.16
5922.00,1.16
5921.00,1.16
5920.00,1.16
5919.00,1.16
5918.00,1.17
5917.00,1.17
5916.00,1.17
5915.00,1.17
5914.00,1.17
5913.00,1.17
5912.00,1.17
5911.00,1.17
5910.00,1.17
5909.00,1.16
5908.00,1.16
5907.00,1.16
5906.00,1.16
5905.00,1.16
5904.00,1.16
5903.00,1.16
5902.00,1.16
5901.00,1.16
5900.00,1.15
5899.00,1.15
5898.00,1.15
5897.00,1.15
5896.00,1.15
5895.00,1.15
5894.00,1.15
5893.00,1.15
5892.00,1.15
5891.00,1.15
5890.00,1.15
5889.00,1.15
5888.00,1.15
5887.00,1.15
5886.00,1.15
5885.00,1.15
5884.00,1.15
5883.00,1.15
5882.00,1.15
5881.00,1.15
5880.00,1.15
5879.00,1.15
5878.00,1.15
5877.00,1.15
5876.00,1.15
5875.00,1.15
5874.00,1.15
5873.00,1.15
5872.00,1.16
5871.00,1.16
5870.00,1.16
5869.00,1.16
5868.00,1.16
5867.00,1.16
5866.00,1.16
5865.00,1.16
5864.00,1.16
5863.00,1.16
5862.00,1.16
5861.00,1.16
5860.00,1.16
5859.00,1.16
5858.00,1.16
5857.00,1.16
5856.00,1.16
5855.00,1.16
5854.00,1.16
5853.00,1.16
5852.00,1.16
5851.00,1.17
5850.00,1.17
5849.00,1.17
5848.00,1.17
5847.00,1.17
5846.00,1.17
5845.00,1.17
5844.00,1.17
5843.00,1.17
5842.00,1.17
5841.00,1.17
5840.00,1.17
5839.00,1.17
5838.00,1.17
5837.00,1.17
5836.00,1.17
5835.00,1.17
5834.00,1.17
5833.00,1.17
5832.00,1.17
5831.00,1.17
5830.00,1.17
5829.00,1.16
5828.00,1.16
5827.00,1.16
5826.00,1.16
5825.00,1.16
5824.00,1.16
5823.00,1.15
5822.00,1.15
5821.00,1.15
5820.00,1.15
5819.00,1.15
5818.00,1.15
5817.00,1.14
5816.00,1.14
5815.00,1.14
5814.00,1.14
5813.00,1.14
5812.00,1.14
5811.00,1.14
5810.00,1.14
5809.00,1.14
5808.00,1.14
5807.00,1.13
5806.00,1.13
5805.00,1.13
5804.00,1.13
5803.00,1.13
5802.00,1.14
5801.00,1.14
5800.00,1.14
5799.00,1.14
5798.00,1.14
5797.00,1.14
5796.00,1.14
5795.00,1.14
5794.00,1.14
5793.00,1.15
5792.00,1.15
5791.00,1.15
5790.00,1.15
5789.00,1.15
5788.00,1.15
5787.00,1.15
5786.00,1.16
5785.00,1.16
5784.00,1.16
5783.00,1.16
5782.00,1.16
5781.00,1.16
5780.00,1.16
5779.00,1.17
5778.00,1.17
5777.00,1.17
5776.00,1.17
5775.00,1.17
5774.00,1.17
5773.00,1.17
5772.00,1.17
5771.00,1.17
5770.00,1.18
5769.00,1.18
5768.00,1.18
5767.00,1.18
5766.00,1.18
5765.00,1.18
5764.00,1.18
5763.00,1.18
5762.00,1.18
5761.00,1.18
5760.00,1.18
5759.00,1.18
5758.00,1.18
5757.00,1.18
5756.00,1.18
5755.00,1.18
5754.00,1.18
5753.00,1.18
5752.00,1.18
5751.00,1.18
5750.00,1.18
5749.00,1.18
5748.00,1.18
5747.00,1.18
5746.00,1.18
5745.00,1.18
5744.00,1.18
5743.00,1.18
5742.00,1.18
5741.00,1.18
5740.00,1.18
5739.00,1.18
5738.00,1.18
5737.00,1.18
5736.00,1.18
5735.00,1.18
5734.00,1.18
5733.00,1.18
5732.00,1.17
5731.00,1.17
5730.00,1.17
5729.00,1.17
5728.00,1.17
5727.00,1.17
5726.00,1.17
5725.00,1.17
5724.00,1.17
5723.00,1.17
5722.00,1.17
5721.00,1.17
5720.00,1.17
5719.00,1.17
5718.00,1.17
5717.00,1.17
5716.00,1.17
5715.00,1.17
5714.00,1.17
5713.00,1.17
5712.00,1.17
5711.00,1.17
5710.00,1.17
5709.00,1.17
5708.00,1.17
5707.00,1.16
5706.00,1.16
5705.00,1.16
5704.00,1.16
5703.00,1.16
5702.00,1.16
5701.00,1.16
5700.00,1.16
5699.00,1.16
5698.00,1.16
5697.00,1.16
5696.00,1.16
5695.00,1.17
5694.00,1.17
5693.00,1.17
5692.00,1.17
5691.00,1.17
5690.00,1.17
5689.00,1.17
5688.00,1.17
5687.00,1.17
5686.00,1.18
5685.00,1.18
5684.00,1.18
5683.00,1.18
5682.00,1.18
5681.00,1.19
5680.00,1.19
5679.00,1.19
5678.00,1.19
5677.00,1.19
5676.00,1.19
5675.00,1.20
5674.00,1.20
5673.00,1.20
5672.00,1.20
5671.00,1.20
5670.00,1.20
5669.00,1.20
5668.00,1.20
5667.00,1.20
5666.00,1.20
5665.00,1.20
5664.00,1.20
5663.00,1.20
5662.00,1.20
5661.00,1.19
5660.00,1.19
5659.00,1.19
5658.00,1.19
5657.00,1.19
5656.00,1.18
5655.00,1.18
5654.00,1.18
5653.00,1.18
5652.00,1.17
5651.00,1.17
5650.00,1.17
5649.00,1.17
5648.00,1.16
5647.00,1.16
5646.00,1.16
5645.00,1.16
5644.00,1.15
5643.00,1.15
5642.00,1.15
5641.00,1.15
5640.00,1.15
5639.00,1.14
5638.00,1.14
5637.00,1.14
5636.00,1.14
5635.00,1.14
5634.00,1.14
5633.00,1.14
5632.00,1.14
5631.00,1.14
5630.00,1.14
5629.00,1.14
5628.00,1.14
5627.00,1.14
5626.00,1.14
5625.00,1.14
5624.00,1.14
5623.00,1.14
5622.00,1.15
5621.00,1.15
5620.00,1.15
5619.00,1.15
5618.00,1.15
5617.00,1.15
5616.00,1.15
5615.00,1.16
5614.00,1.16
5613.00,1.16
5612.00,1.16
5611.00,1.16
5610.00,1.16
5609.00,1.17
5608.00,1.17
5607.00,1.17
5606.00,1.17
5605.00,1.17
5604.00,1.17
5603.00,1.17
5602.00,1.17
5601.00,1.17
5600.00,1.17
5599.00,1.17
5598.00,1.17
5597.00,1.17
5596.00,1.17
5595.00,1.17
5594.00,1.17
5593.00,1.17
5592.00,1.17
5591.00,1.17
5590.00,1.17
5589.00,1.17
5588.00,1.17
5587.00,1.17
5586.00,1.16
5585.00,1.16
5584.00,1.16
5583.00,1.16
5582.00,1.16
5581.00,1.16
5580.00,1.16
5579.00,1.16
5578.00,1.16
5577.00,1.16
5576.00,1.16
5575.00,1.16
5574.00,1.16
5573.00,1.16
5572.00,1.17
5571.00,1.17
5570.00,1.17
5569.00,1.17
5568.00,1.17
5567.00,1.17
5566.00,1.17
5565.00,1.17
5564.00,1.17
5563.00,1.17
5562.00,1.17
5561.00,1.17
5560.00,1.17
5559.00,1.17
5558.00,1.17
5557.00,1.17
5556.00,1.17
5555.00,1.17
5554.00,1.18
5553.00,1.18
5552.00,1.18
5551.00,1.18
5550.00,1.18
5549.00,1.18
5548.00,1.18
5547.00,1.18
5546.00,1.18
5545.00,1.18
5544.00,1.18
5543.00,1.17
5542.00,1.17
5541.00,1.17
5540.00,1.17
5539.00,1.17
5538.00,1.17
5537.00,1.17
5536.00,1.17
5535.00,1.17
5534.00,1.17
5533.00,1.17
5532.00,1.17
5531.00,1.17
5530.00,1.17
5529.00,1.17
5528.00,1.17
5527.00,1.17
5526.00,1.17
5525.00,1.17
5524.00,1.17
5523.00,1.17
5522.00,1.17
5521.00,1.17
5520.00,1.17
5519.00,1.17
5518.00,1.17
5517.00,1.17
5516.00,1.17
5515.00,1.17
5514.00,1.17
5513.00,1.17
5512.00,1.17
5511.00,1.17
5510.00,1.17
5509.00,1.17
5508.00,1.17
5507.00,1.17
5506.00,1.17
5505.00,1.17
5504.00,1.17
5503.00,1.18
5502.00,1.18
5501.00,1.18
5500.00,1.18
5499.00,1.18
5498.00,1.18
5497.00,1.18
5496.00,1.18
5495.00,1.18
5494.00,1.18
5493.00,1.18
5492.00,1.18
5491.00,1.18
5490.00,1.18
5489.00,1.18
5488.00,1.18
5487.00,1.18
5486.00,1.18
5485.00,1.18
5484.00,1.18
5483.00,1.18
5482.00,1.18
5481.00,1.18
5480.00,1.18
5479.00,1.18
5478.00,1.18
5477.00,1.18
5476.00,1.18
5475.00,1.18
5474.00,1.18
5473.00,1.18
5472.00,1.19
5471.00,1.19
5470.00,1.19
5469.00,1.19
5468.00,1.19
5467.00,1.19
5466.00,1.19
5465.00,1.19
5464.00,1.19
5463.00,1.19
5462.00,1.19
5461.00,1.19
5460.00,1.19
5459.00,1.19
5458.00,1.19
5457.00,1.19
5456.00,1.19
5455.00,1.19
5454.00,1.20
5453.00,1.20
5452.00,1.20
5451.00,1.20
5450.00,1.20
5449.00,1.20
5448.00,1.20
5447.00,1.20
5446.00,1.20
5445.00,1.20
5444.00,1.20
5443.00,1.20
5442.00,1.20
5441.00,1.20
5440.00,1.19
5439.00,1.19
5438.00,1.19
5437.00,1.19
5436.00,1.19
5435.00,1.19
5434.00,1.19
5433.00,1.19
5432.00,1.19
5431.00,1.19
5430.00,1.19
5429.00,1.19
5428.00,1.18
5427.00,1.18
5426.00,1.18
5425.00,1.18
5424.00,1.18
5423.00,1.18
5422.00,1.18
5421.00,1.18
5420.00,1.18
5419.00,1.18
5418.00,1.17
5417.00,1.17
5416.00,1.17
5415.00,1.18
5414.00,1.18
5413.00,1.18
5412.00,1.18
5411.00,1.18
5410.00,1.18
5409.00,1.18
5408.00,1.18
5407.00,1.18
5406.00,1.18
5405.00,1.18
5404.00,1.18
5403.00,1.19
5402.00,1.19
5401.00,1.19
5400.00,1.19
5399.00,1.19
5398.00,1.19
5397.00,1.19
5396.00,1.19
5395.00,1.19
5394.00,1.19
5393.00,1.19
5392.00,1.19
5391.00,1.20
5390.00,1.20
5389.00,1.20
5388.00,1.20
5387.00,1.19
5386.00,1.19
5385.00,1.19
5384.00,1.19
5383.00,1.19
5382.00,1.19
5381.00,1.19
5380.00,1.19
5379.00,1.19
5378.00,1.19
5377.00,1.19
5376.00,1.19
5375.00,1.19
5374.00,1.18
5373.00,1.18
5372.00,1.18
5371.00,1.18
5370.00,1.18
5369.00,1.18
5368.00,1.18
5367.00,1.18
5366.00,1.17
5365.00,1.17
5364.00,1.17
5363.00,1.17
5362.00,1.17
5361.00,1.17
5360.00,1.16
5359.00,1.16
5358.00,1.16
5357.00,1.16
5356.00,1.16
5355.00,1.16
5354.00,1.16
5353.00,1.16
5352.00,1.15
5351.00,1.15
5350.00,1.15
5349.00,1.15
5348.00,1.15
5347.00,1.15
5346.00,1.15
5345.00,1.15
5344.00,1.14
5343.00,1.14
5342.00,1.14
5341.00,1.14
5340.00,1.14
5339.00,1.14
5338.00,1.14
5337.00,1.14
5336.00,1.14
5335.00,1.13
5334.00,1.13
5333.00,1.13
5332.00,1.13
5331.00,1.13
5330.00,1.13
5329.00,1.13
5328.00,1.13
5327.00,1.12
5326.00,1.12
5325.00,1.12
5324.00,1.12
5323.00,1.11
5322.00,1.11
5321.00,1.11
5320.00,1.11
5319.00,1.10
5318.00,1.10
5317.00,1.10
5316.00,1.10
5315.00,1.10
5314.00,1.09
5313.00,1.09
5312.00,1.09
5311.00,1.08
5310.00,1.08
5309.00,1.08
5308.00,1.08
5307.00,1.07
5306.00,1.07
5305.00,1.07
5304.00,1.06
5303.00,1.06
5302.00,1.06
5301.00,1.06
5300.00,1.05
5299.00,1.05
5298.00,1.05
5297.00,1.05
5296.00,1.04
5295.00,1.04
5294.00,1.04
5293.00,1.03
5292.00,1.03
5291.00,1.02
5290.00,1.02
5289.00,1.02
5288.00,1.01
5287.00,1.01
5286.00,1.00
5285.00,1.00
5284.00,1.00
5283.00,0.99
5282.00,0.99
5281.00,0.99
5280.00,0.98
5279.00,0.98
5278.00,0.98
5277.00,0.97
5276.00,0.97
5275.00,0.97
5274.00,0.96
5273.00,0.96
5272.00,0.96
5271.00,0.96
5270.00,0.95
5269.00,0.95
5268.00,0.95
5267.00,0.95
5266.00,0.95
5265.00,0.95
5264.00,0.95
5263.00,0.95
5262.00,0.95
5261.00,0.96
5260.00,0.96
5259.00,0.96
5258.00,0.96
5257.00,0.96
5256.00,0.96
5255.00,0.96
5254.00,0.96
5253.00,0.96
5252.00,0.96
5251.00,0.96
5250.00,0.97
5249.00,0.97
5248.00,0.97
5247.00,0.97
5246.00,0.97
5245.00,0.97
5244.00,0.97
5243.00,0.97
5242.00,0.97
5241.00,0.97
5240.00,0.97
5239.00,0.96
5238.00,0.96
5237.00,0.96
5236.00,0.96
5235.00,0.96
5234.00,0.95
5233.00,0.95
5232.00,0.95
5231.00,0.94
5230.00,0.94
5229.00,0.94
5228.00,0.94
5227.00,0.94
5226.00,0.93
5225.00,0.93
5224.00,0.93
5223.00,0.93
5222.00,0.93
5221.00,0.92
5220.00,0.92
5219.00,0.92
5218.00,0.92
5217.00,0.92
5216.00,0.91
5215.00,0.91
5214.00,0.91
5213.00,0.91
5212.00,0.91
5211.00,0.91
5210.00,0.91
5209.00,0.91
5208.00,0.91
5207.00,0.91
5206.00,0.90
5205.00,0.90
5204.00,0.90
5203.00,0.90
5202.00,0.90
5201.00,0.90
5200.00,0.90
5199.00,0.90
5198.00,0.90
5197.00,0.90
5196.00,0.90
5195.00,0.90
5194.00,0.90
5193.00,0.90
5192.00,0.90
5191.00,0.90
5190.00,0.90
5189.00,0.90
5188.00,0.90
5187.00,0.90
5186.00,0.90
5185.00,0.90
5184.00,0.90
5183.00,0.90
5182.00,0.90
5181.00,0.90
5180.00,0.90
5179.00,0.90
5178.00,0.90
5177.00,0.90
5176.00,0.90
5175.00,0.90
5174.00,0.90
5173.00,0.90
5172.00,0.90
5171.00,0.90
5170.00,0.90
5169.00,0.90
5168.00,0.90
5167.00,0.90
5166.00,0.89
5165.00,0.89
5164.00,0.89
5163.00,0.89
5162.00,0.89
5161.00,0.89
5160.00,0.89
5159.00,0.89
5158.00,0.89
5157.00,0.89
5156.00,0.89
5155.00,0.89
5154.00,0.89
5153.00,0.89
5152.00,0.89
5151.00,0.89
5150.00,0.89
5149.00,0.89
5148.00,0.89
5147.00,0.90
5146.00,0.90
5145.00,0.90
5144.00,0.90
5143.00,0.90
5142.00,0.90
5141.00,0.90
5140.00,0.90
5139.00,0.90
5138.00,0.90
5137.00,0.90
5136.00,0.90
5135.00,0.90
5134.00,0.90
5133.00,0.90
5132.00,0.90
5131.00,0.90
5130.00,0.90
5129.00,0.90
5128.00,0.90
5127.00,0.90
5126.00,0.90
5125.00,0.90
5124.00,0.90
5123.00,0.90
5122.00,0.90
5121.00,0.90
5120.00,0.90
5119.00,0.90
5118.00,0.90
5117.00,0.90
5116.00,0.90
5115.00,0.91
5114.00,0.91
5113.00,0.91
5112.00,0.91
5111.00,0.91
5110.00,0.91
5109.00,0.91
5108.00,0.92
5107.00,0.92
5106.00,0.92
5105.00,0.92
5104.00,0.92
5103.00,0.92
5102.00,0.93
5101.00,0.93
5100.00,0.93
5099.00,0.93
5098.00,0.93
5097.00,0.93
5096.00,0.93
5095.00,0.94
5094.00,0.94
5093.00,0.94
5092.00,0.94
5091.00,0.94
5090.00,0.94
5089.00,0.94
5088.00,0.94
5087.00,0.95
5086.00,0.95
5085.00,0.95
5084.00,0.95
5083.00,0.95
5082.00,0.95
5081.00,0.95
5080.00,0.95
5079.00,0.95
5078.00,0.95
5077.00,0.96
5076.00,0.96
5075.00,0.96
5074.00,0.96
5073.00,0.96
5072.00,0.96
5071.00,0.96
5070.00,0.96
5069.00,0.96
5068.00,0.96
5067.00,0.96
5066.00,0.96
5065.00,0.96
5064.00,0.96
5063.00,0.96
5062.00,0.96
5061.00,0.97
5060.00,0.97
5059.00,0.97
5058.00,0.97
5057.00,0.97
5056.00,0.97
5055.00,0.97
5054.00,0.97
5053.00,0.97
5052.00,0.97
5051.00,0.97
5050.00,0.97
5049.00,0.98
5048.00,0.98
5047.00,0.98
5046.00,0.98
5045.00,0.98
5044.00,0.98
5043.00,0.98
5042.00,0.98
5041.00,0.98
5040.00,0.99
5039.00,0.99
5038.00,0.99
5037.00,0.99
5036.00,0.99
5035.00,0.99
5034.00,1.00
5033.00,1.00
5032.00,1.00
5031.00,1.00
5030.00,1.00
5029.00,1.00
5028.00,1.00
5027.00,1.00
5026.00,1.01
5025.00,1.01
5024.00,1.01
5023.00,1.01
5022.00,1.01
5021.00,1.01
5020.00,1.01
5019.00,1.01
5018.00,1.01
5017.00,1.01
5016.00,1.01
5015.00,1.02
5014.00,1.02
5013.00,1.02
5012.00,1.02
5011.00,1.02
5010.00,1.02
5009.00,1.02
5008.00,1.02
5007.00,1.02
5006.00,1.02
5005.00,1.02
5004.00,1.02
5003.00,1.02
5002.00,1.02
5001.00,1.03
5000.00,1.03
4999.00,1.03
4998.00,1.03
4997.00,1.03
4996.00,1.03
4995.00,1.03
4994.00,1.03
4993.00,1.04
4992.00,1.04
4991.00,1.04
4990.00,1.04
4989.00,1.04
4988.00,1.04
4987.00,1.04
4986.00,1.04
4985.00,1.04
4984.00,1.05
4983.00,1.05
4982.00,1.05
4981.00,1.05
4980.00,1.05
4979.00,1.05
4978.00,1.05
4977.00,1.05
4976.00,1.05
4975.00,1.05
4974.00,1.05
4973.00,1.05
4972.00,1.05
4971.00,1.05
4970.00,1.05
4969.00,1.05
4968.00,1.05
4967.00,1.05
4966.00,1.05
4965.00,1.06
4964.00,1.06
4963.00,1.06
4962.00,1.06
4961.00,1.06
4960.00,1.06
4959.00,1.06
4958.00,1.06
4957.00,1.06
4956.00,1.06
4955.00,1.06
4954.00,1.07
4953.00,1.07
4952.00,1.07
4951.00,1.07
4950.00,1.07
4949.00,1.07
4948.00,1.08
4947.00,1.08
4946.00,1.08
4945.00,1.08
4944.00,1.08
4943.00,1.08
4942.00,1.08
4941.00,1.09
4940.00,1.09
4939.00,1.09
4938.00,1.09
4937.00,1.09
4936.00,1.09
4935.00,1.09
4934.00,1.09
4933.00,1.09
4932.00,1.09
4931.00,1.09
4930.00,1.09
4929.00,1.09
4928.00,1.09
4927.00,1.09
4926.00,1.09
4925.00,1.09
4924.00,1.09
4923.00,1.09
4922.00,1.09
4921.00,1.09
4920.00,1.09
4919.00,1.09
4918.00,1.09
4917.00,1.09
4916.00,1.09
4915.00,1.09
4914.00,1.09
4913.00,1.08
4912.00,1.08
4911.00,1.08
4910.00,1.08
4909.00,1.08
4908.00,1.08
4907.00,1.08
4906.00,1.08
4905.00,1.08
4904.00,1.08
4903.00,1.08
4902.00,1.09
4901.00,1.09
4900.00,1.09
4899.00,1.09
4898.00,1.09
4897.00,1.09
4896.00,1.09
4895.00,1.09
4894.00,1.10
4893.00,1.10
4892.00,1.10
4891.00,1.10
4890.00,1.10
4889.00,1.11
4888.00,1.11
4887.00,1.11
4886.00,1.11
4885.00,1.12
4884.00,1.12
4883.00,1.12
4882.00,1.12
4881.00,1.12
4880.00,1.12
4879.00,1.12
4878.00,1.12
4877.00,1.12
4876.00,1.12
4875.00,1.13
4874.00,1.13
4873.00,1.13
4872.00,1.13
4871.00,1.13
4870.00,1.12
4869.00,1.12
4868.00,1.12
4867.00,1.12
4866.00,1.12
4865.00,1.12
4864.00,1.12
4863.00,1.12
4862.00,1.12
4861.00,1.12
4860.00,1.12
4859.00,1.12
4858.00,1.12
4857.00,1.12
4856.00,1.12
4855.00,1.12
4854.00,1.12
4853.00,1.12
4852.00,1.12
4851.00,1.12
4850.00,1.12
4849.00,1.12
4848.00,1.12
4847.00,1.12
4846.00,1.12
4845.00,1.12
4844.00,1.12
4843.00,1.12
4842.00,1.13
4841.00,1.13
4840.00,1.13
4839.00,1.13
4838.00,1.13
4837.00,1.13
4836.00,1.13
4835.00,1.13
4834.00,1.13
4833.00,1.13
4832.00,1.13
4831.00,1.13
4830.00,1.14
4829.00,1.14
4828.00,1.14
4827.00,1.14
4826.00,1.14
4825.00,1.14
4824.00,1.14
4823.00,1.14
4822.00,1.14
4821.00,1.14
4820.00,1.14
4819.00,1.14
4818.00,1.14
4817.00,1.14
4816.00,1.14
4815.00,1.14
4814.00,1.14
4813.00,1.14
4812.00,1.14
4811.00,1.14
4810.00,1.14
4809.00,1.14
4808.00,1.14
4807.00,1.14
4806.00,1.14
4805.00,1.14
4804.00,1.14
4803.00,1.14
4802.00,1.14
4801.00,1.14
4800.00,1.14
4799.00,1.14
4798.00,1.15
4797.00,1.15
4796.00,1.15
4795.00,1.15
4794.00,1.15
4793.00,1.15
4792.00,1.15
4791.00,1.15
4790.00,1.15
4789.00,1.15
4788.00,1.16
4787.00,1.16
4786.00,1.16
4785.00,1.16
4784.00,1.16
4783.00,1.16
4782.00,1.16
4781.00,1.16
4780.00,1.16
4779.00,1.16
4778.00,1.17
4777.00,1.17
4776.00,1.17
4775.00,1.17
4774.00,1.17
4773.00,1.17
4772.00,1.16
4771.00,1.16
4770.00,1.16
4769.00,1.16
4768.00,1.16
4767.00,1.16
4766.00,1.16
4765.00,1.16
4764.00,1.15
4763.00,1.15
4762.00,1.15
4761.00,1.15
4760.00,1.15
4759.00,1.15
4758.00,1.15
4757.00,1.15
4756.00,1.15
4755.00,1.15
4754.00,1.15
4753.00,1.15
4752.00,1.15
4751.00,1.15
4750.00,1.15
4749.00,1.15
4748.00,1.15
4747.00,1.15
4746.00,1.15
4745.00,1.15
4744.00,1.15
4743.00,1.15
4742.00,1.15
4741.00,1.15
4740.00,1.15
4739.00,1.15
4738.00,1.15
4737.00,1.15
4736.00,1.16
4735.00,1.15
4734.00,1.15
4733.00,1.15
4732.00,1.15
4731.00,1.15
4730.00,1.15
4729.00,1.15
4728.00,1.15
4727.00,1.15
4726.00,1.15
4725.00,1.15
4724.00,1.15
4723.00,1.15
4722.00,1.15
4721.00,1.15
4720.00,1.15
4719.00,1.15
4718.00,1.15
4717.00,1.14
4716.00,1.14
4715.00,1.14
4714.00,1.14
4713.00,1.14
4712.00,1.14
4711.00,1.14
4710.00,1.14
4709.00,1.14
4708.00,1.14
4707.00,1.14
4706.00,1.14
4705.00,1.14
4704.00,1.14
4703.00,1.14
4702.00,1.14
4701.00,1.14
4700.00,1.14
4699.00,1.14
4698.00,1.14
4697.00,1.14
4696.00,1.14
4695.00,1.14
4694.00,1.14
4693.00,1.14
4692.00,1.14
4691.00,1.14
4690.00,1.14
4689.00,1.14
4688.00,1.14
4687.00,1.14
4686.00,1.14
4685.00,1.14
4684.00,1.14
4683.00,1.14
4682.00,1.14
4681.00,1.14
4680.00,1.14
4679.00,1.14
4678.00,1.14
4677.00,1.14
4676.00,1.14
4675.00,1.14
4674.00,1.15
4673.00,1.15
4672.00,1.15
4671.00,1.15
4670.00,1.15
4669.00,1.15
4668.00,1.15
4667.00,1.15
4666.00,1.15
4665.00,1.15
4664.00,1.15
4663.00,1.16
4662.00,1.16
4661.00,1.16
4660.00,1.16
4659.00,1.16
4658.00,1.16
4657.00,1.16
4656.00,1.16
4655.00,1.16
4654.00,1.16
4653.00,1.16
4652.00,1.16
4651.00,1.17
4650.00,1.17
4649.00,1.17
4648.00,1.17
4647.00,1.17
4646.00,1.17
4645.00,1.17
4644.00,1.17
4643.00,1.16
4642.00,1.16
4641.00,1.16
4640.00,1.16
4639.00,1.16
4638.00,1.16
4637.00,1.17
4636.00,1.17
4635.00,1.17
4634.00,1.17
4633.00,1.17
4632.00,1.17
4631.00,1.17
4630.00,1.17
4629.00,1.17
4628.00,1.17
4627.00,1.17
4626.00,1.17
4625.00,1.17
4624.00,1.17
4623.00,1.17
4622.00,1.17
4621.00,1.17
4620.00,1.17
4619.00,1.16
4618.00,1.16
4617.00,1.16
4616.00,1.16
4615.00,1.17
4614.00,1.17
4613.00,1.17
4612.00,1.17
4611.00,1.17
4610.00,1.17
4609.00,1.17
4608.00,1.16
4607.00,1.16
4606.00,1.16
4605.00,1.16
4604.00,1.17
4603.00,1.17
4602.00,1.17
4601.00,1.17
4600.00,1.17
4599.00,1.17
4598.00,1.17
4597.00,1.17
4596.00,1.17
4595.00,1.17
4594.00,1.18
4593.00,1.18
4592.00,1.18
4591.00,1.18
4590.00,1.18
4589.00,1.18
4588.00,1.18
4587.00,1.18
4586.00,1.18
4585.00,1.18
4584.00,1.18
4583.00,1.18
4582.00,1.18
4581.00,1.18
4580.00,1.18
4579.00,1.18
4578.00,1.18
4577.00,1.18
4576.00,1.18
4575.00,1.18
4574.00,1.18
4573.00,1.18
4572.00,1.18
4571.00,1.18
4570.00,1.18
4569.00,1.18
4568.00,1.18
4567.00,1.18
4566.00,1.18
4565.00,1.18
4564.00,1.18
4563.00,1.18
4562.00,1.18
4561.00,1.18
4560.00,1.18
4559.00,1.18
4558.00,1.18
4557.00,1.18
4556.00,1.18
4555.00,1.18
4554.00,1.18
4553.00,1.18
4552.00,1.18
4551.00,1.17
4550.00,1.17
4549.00,1.17
4548.00,1.17
4547.00,1.17
4546.00,1.17
4545.00,1.17
4544.00,1.17
4543.00,1.17
4542.00,1.17
4541.00,1.17
4540.00,1.17
4539.00,1.17
4538.00,1.17
4537.00,1.17
4536.00,1.17
4535.00,1.17
4534.00,1.17
4533.00,1.17
4532.00,1.17
4531.00,1.16
4530.00,1.16
4529.00,1.16
4528.00,1.16
4527.00,1.16
4526.00,1.16
4525.00,1.16
4524.00,1.16
4523.00,1.16
4522.00,1.16
4521.00,1.16
4520.00,1.16
4519.00,1.16
4518.00,1.16
4517.00,1.16
4516.00,1.16
4515.00,1.16
4514.00,1.16
4513.00,1.17
4512.00,1.17
4511.00,1.17
4510.00,1.17
4509.00,1.17
4508.00,1.17
4507.00,1.17
4506.00,1.17
4505.00,1.17
4504.00,1.18
4503.00,1.18
4502.00,1.18
4501.00,1.18
4500.00,1.18
4499.00,1.18
4498.00,1.18
4497.00,1.19
4496.00,1.19
4495.00,1.19
4494.00,1.19
4493.00,1.19
4492.00,1.19
4491.00,1.19
4490.00,1.19
4489.00,1.19
4488.00,1.19
4487.00,1.19
4486.00,1.19
4485.00,1.19
4484.00,1.18
4483.00,1.18
4482.00,1.18
4481.00,1.18
4480.00,1.18
4479.00,1.18
4478.00,1.17
4477.00,1.17
4476.00,1.17
4475.00,1.17
4474.00,1.16
4473.00,1.16
4472.00,1.16
4471.00,1.15
4470.00,1.15
4469.00,1.15
4468.00,1.14
4467.00,1.14
4466.00,1.14
4465.00,1.13
4464.00,1.13
4463.00,1.13
4462.00,1.13
4461.00,1.12
4460.00,1.12
4459.00,1.12
4458.00,1.12
4457.00,1.12
4456.00,1.12
4455.00,1.11
4454.00,1.11
4453.00,1.11
4452.00,1.11
4451.00,1.11
4450.00,1.11
4449.00,1.11
4448.00,1.10
4447.00,1.10
4446.00,1.10
4445.00,1.10
4444.00,1.10
4443.00,1.10
4442.00,1.10
4441.00,1.10
4440.00,1.10
4439.00,1.10
4438.00,1.10
4437.00,1.10
4436.00,1.10
4435.00,1.10
4434.00,1.10
4433.00,1.10
4432.00,1.10
4431.00,1.10
4430.00,1.10
4429.00,1.10
4428.00,1.10
4427.00,1.10
4426.00,1.10
4425.00,1.10
4424.00,1.11
4423.00,1.11
4422.00,1.11
4421.00,1.11
4420.00,1.11
4419.00,1.11
4418.00,1.11
4417.00,1.12
4416.00,1.12
4415.00,1.12
4414.00,1.12
4413.00,1.12
4412.00,1.12
4411.00,1.12
4410.00,1.12
4409.00,1.13
4408.00,1.13
4407.00,1.13
4406.00,1.13
4405.00,1.13
4404.00,1.13
4403.00,1.13
4402.00,1.13
4401.00,1.13
4400.00,1.13
4399.00,1.13
4398.00,1.13
4397.00,1.13
4396.00,1.13
4395.00,1.13
4394.00,1.13
4393.00,1.13
4392.00,1.13
4391.00,1.13
4390.00,1.13
4389.00,1.13
4388.00,1.13
4387.00,1.13
4386.00,1.13
4385.00,1.13
4384.00,1.13
4383.00,1.13
4382.00,1.13
4381.00,1.13
4380.00,1.13
4379.00,1.13
4378.00,1.14
4377.00,1.14
4376.00,1.14
4375.00,1.14
4374.00,1.14
4373.00,1.14
4372.00,1.14
4371.00,1.14
4370.00,1.15
4369.00,1.15
4368.00,1.15
4367.00,1.15
4366.00,1.15
4365.00,1.15
4364.00,1.15
4363.00,1.15
4362.00,1.15
4361.00,1.15
4360.00,1.15
4359.00,1.15
4358.00,1.15
4357.00,1.15
4356.00,1.15
4355.00,1.15
4354.00,1.15
4353.00,1.15
4352.00,1.15
4351.00,1.15
4350.00,1.15
4349.00,1.15
4348.00,1.15
4347.00,1.15
4346.00,1.15
4345.00,1.15
4344.00,1.14
4343.00,1.14
4342.00,1.14
4341.00,1.14
4340.00,1.14
4339.00,1.14
4338.00,1.14
4337.00,1.14
4336.00,1.13
4335.00,1.13
4334.00,1.13
4333.00,1.13
4332.00,1.13
4331.00,1.13
4330.00,1.13
4329.00,1.13
4328.00,1.13
4327.00,1.13
4326.00,1.13
4325.00,1.13
4324.00,1.13
4323.00,1.13
4322.00,1.13
4321.00,1.13
4320.00,1.13
4319.00,1.13
4318.00,1.13
4317.00,1.13
4316.00,1.13
4315.00,1.13
4314.00,1.13
4313.00,1.13
4312.00,1.13
4311.00,1.13
4310.00,1.13
4309.00,1.13
4308.00,1.13
4307.00,1.13
4306.00,1.12
4305.00,1.12
4304.00,1.12
4303.00,1.12
4302.00,1.12
4301.00,1.12
4300.00,1.12
4299.00,1.12
4298.00,1.12
4297.00,1.12
4296.00,1.12
4295.00,1.12
4294.00,1.12
4293.00,1.11
4292.00,1.11
4291.00,1.11
4290.00,1.12
4289.00,1.12
4288.00,1.12
4287.00,1.12
4286.00,1.12
4285.00,1.12
4284.00,1.12
4283.00,1.12
4282.00,1.12
4281.00,1.12
4280.00,1.12
4279.00,1.12
4278.00,1.12
4277.00,1.12
4276.00,1.12
4275.00,1.12
4274.00,1.12
4273.00,1.12
4272.00,1.12
4271.00,1.12
4270.00,1.12
4269.00,1.12
4268.00,1.12
4267.00,1.12
4266.00,1.12
4265.00,1.12
4264.00,1.12
4263.00,1.12
4262.00,1.12
4261.00,1.12
4260.00,1.13
4259.00,1.13
4258.00,1.13
4257.00,1.13
4256.00,1.13
4255.00,1.13
4254.00,1.13
4253.00,1.13
4252.00,1.13
4251.00,1.13
4250.00,1.13
4249.00,1.14
4248.00,1.14
4247.00,1.14
4246.00,1.14
4245.00,1.14
4244.00,1.14
4243.00,1.14
4242.00,1.14
4241.00,1.14
4240.00,1.13
4239.00,1.13
4238.00,1.13
4237.00,1.13
4236.00,1.13
4235.00,1.13
4234.00,1.13
4233.00,1.13
4232.00,1.13
4231.00,1.13
4230.00,1.13
4229.00,1.13
4228.00,1.13
4227.00,1.13
4226.00,1.13
4225.00,1.13
4224.00,1.13
4223.00,1.13
4222.00,1.13
4221.00,1.13
4220.00,1.13
4219.00,1.13
4218.00,1.13
4217.00,1.13
4216.00,1.13
4215.00,1.13
4214.00,1.13
4213.00,1.13
4212.00,1.13
4211.00,1.14
4210.00,1.14
4209.00,1.14
4208.00,1.14
4207.00,1.14
4206.00,1.14
4205.00,1.14
4204.00,1.14
4203.00,1.14
4202.00,1.14
4201.00,1.14
4200.00,1.14
4199.00,1.14
4198.00,1.13
4197.00,1.13
4196.00,1.13
4195.00,1.13
4194.00,1.13
4193.00,1.12
4192.00,1.12
4191.00,1.12
4190.00,1.12
4189.00,1.11
4188.00,1.11
4187.00,1.11
4186.00,1.11
4185.00,1.11
4184.00,1.11
4183.00,1.11
4182.00,1.11
4181.00,1.11
4180.00,1.11
4179.00,1.11
4178.00,1.11
4177.00,1.11
4176.00,1.11
4175.00,1.11
4174.00,1.11
4173.00,1.11
4172.00,1.11
4171.00,1.11
4170.00,1.11
4169.00,1.12
4168.00,1.12
4167.00,1.12
4166.00,1.13
4165.00,1.13
4164.00,1.13
4163.00,1.13
4162.00,1.14
4161.00,1.14
4160.00,1.14
4159.00,1.14
4158.00,1.14
4157.00,1.14
4156.00,1.14
4155.00,1.14
4154.00,1.14
4153.00,1.14
4152.00,1.14
4151.00,1.14
4150.00,1.13
4149.00,1.13
4148.00,1.13
4147.00,1.13
4146.00,1.13
4145.00,1.13
4144.00,1.13
4143.00,1.12
4142.00,1.12
4141.00,1.12
4140.00,1.12
4139.00,1.11
4138.00,1.11
4137.00,1.11
4136.00,1.11
4135.00,1.11
4134.00,1.11
4133.00,1.10
4132.00,1.10
4131.00,1.10
4130.00,1.10
4129.00,1.11
4128.00,1.11
4127.00,1.11
4126.00,1.11
4125.00,1.11
4124.00,1.11
4123.00,1.11
4122.00,1.11
4121.00,1.11
4120.00,1.11
4119.00,1.11
4118.00,1.11
4117.00,1.12
4116.00,1.12
4115.00,1.12
4114.00,1.12
4113.00,1.12
4112.00,1.12
4111.00,1.12
4110.00,1.12
4109.00,1.12
4108.00,1.12
4107.00,1.12
4106.00,1.12
4105.00,1.12
4104.00,1.12
4103.00,1.12
4102.00,1.12
4101.00,1.12
4100.00,1.12
4099.00,1.12
4098.00,1.12
4097.00,1.12
4096.00,1.12
4095.00,1.12
4094.00,1.13
4093.00,1.13
4092.00,1.13
4091.00,1.13
4090.00,1.13
4089.00,1.13
4088.00,1.13
4087.00,1.13
4086.00,1.13
4085.00,1.13
4084.00,1.13
4083.00,1.13
4082.00,1.13
4081.00,1.13
4080.00,1.13
4079.00,1.13
4078.00,1.13
4077.00,1.12
4076.00,1.12
4075.00,1.12
4074.00,1.12
4073.00,1.12
4072.00,1.12
4071.00,1.12
4070.00,1.12
4069.00,1.13
4068.00,1.13
4067.00,1.13
4066.00,1.13
4065.00,1.13
4064.00,1.13
4063.00,1.13
4062.00,1.13
4061.00,1.13
4060.00,1.13
4059.00,1.13
4058.00,1.13
4057.00,1.13
4056.00,1.14
4055.00,1.14
4054.00,1.14
4053.00,1.14
4052.00,1.14
4051.00,1.15
4050.00,1.15
4049.00,1.15
4048.00,1.16
4047.00,1.16
4046.00,1.16
4045.00,1.16
4044.00,1.17
4043.00,1.17
4042.00,1.17
4041.00,1.17
4040.00,1.17
4039.00,1.17
4038.00,1.18
4037.00,1.18
4036.00,1.18
4035.00,1.19
4034.00,1.19
4033.00,1.19
4032.00,1.19
4031.00,1.20
4030.00,1.20
4029.00,1.20
4028.00,1.20
4027.00,1.20
4026.00,1.21
4025.00,1.21
4024.00,1.21
4023.00,1.21
4022.00,1.21
4021.00,1.22
4020.00,1.22
4019.00,1.22
4018.00,1.23
4017.00,1.23
4016.00,1.24
4015.00,1.24
4014.00,1.25
4013.00,1.25
4012.00,1.26
4011.00,1.26
4010.00,1.27
4009.00,1.27
4008.00,1.28
4007.00,1.28
4006.00,1.29
4005.00,1.29
4004.00,1.30
4003.00,1.31
4002.00,1.32
4001.00,1.32
4000.00,1.33
