创建为新数据集,样品 408 用户 Administrator 日期 星期日, 七月 28 2019
cm-1,%T
10000.00,2.63
9999.00,2.62
9998.00,2.62
9997.00,2.61
9996.00,2.60
9995.00,2.59
9994.00,2.58
9993.00,2.57
9992.00,2.56
9991.00,2.54
9990.00,2.53
9989.00,2.52
9988.00,2.51
9987.00,2.50
9986.00,2.48
9985.00,2.47
9984.00,2.46
9983.00,2.45
9982.00,2.44
9981.00,2.43
9980.00,2.43
9979.00,2.42
9978.00,2.41
9977.00,2.40
9976.00,2.39
9975.00,2.39
9974.00,2.38
9973.00,2.38
9972.00,2.37
9971.00,2.37
9970.00,2.36
9969.00,2.36
9968.00,2.36
9967.00,2.36
9966.00,2.36
9965.00,2.36
9964.00,2.36
9963.00,2.36
9962.00,2.36
9961.00,2.36
9960.00,2.36
9959.00,2.36
9958.00,2.36
9957.00,2.36
9956.00,2.36
9955.00,2.36
9954.00,2.36
9953.00,2.35
9952.00,2.35
9951.00,2.35
9950.00,2.34
9949.00,2.34
9948.00,2.33
9947.00,2.33
9946.00,2.32
9945.00,2.32
9944.00,2.32
9943.00,2.32
9942.00,2.32
9941.00,2.32
9940.00,2.31
9939.00,2.31
9938.00,2.31
9937.00,2.31
9936.00,2.31
9935.00,2.31
9934.00,2.31
9933.00,2.31
9932.00,2.31
9931.00,2.30
9930.00,2.30
9929.00,2.30
9928.00,2.30
9927.00,2.29
9926.00,2.29
9925.00,2.29
9924.00,2.28
9923.00,2.28
9922.00,2.28
9921.00,2.27
9920.00,2.27
9919.00,2.26
9918.00,2.26
9917.00,2.25
9916.00,2.24
9915.00,2.23
9914.00,2.22
9913.00,2.21
9912.00,2.20
9911.00,2.19
9910.00,2.18
9909.00,2.17
9908.00,2.16
9907.00,2.16
9906.00,2.15
9905.00,2.15
9904.00,2.15
9903.00,2.14
9902.00,2.14
9901.00,2.14
9900.00,2.14
9899.00,2.14
9898.00,2.15
9897.00,2.15
9896.00,2.16
9895.00,2.17
9894.00,2.17
9893.00,2.18
9892.00,2.19
9891.00,2.20
9890.00,2.21
9889.00,2.23
9888.00,2.24
9887.00,2.25
9886.00,2.26
9885.00,2.27
9884.00,2.28
9883.00,2.29
9882.00,2.30
9881.00,2.31
9880.00,2.32
9879.00,2.32
9878.00,2.33
9877.00,2.33
9876.00,2.34
9875.00,2.34
9874.00,2.34
9873.00,2.34
9872.00,2.34
9871.00,2.34
9870.00,2.34
9869.00,2.33
9868.00,2.32
9867.00,2.32
9866.00,2.31
9865.00,2.30
9864.00,2.29
9863.00,2.29
9862.00,2.28
9861.00,2.27
9860.00,2.26
9859.00,2.26
9858.00,2.25
9857.00,2.24
9856.00,2.23
9855.00,2.23
9854.00,2.22
9853.00,2.21
9852.00,2.21
9851.00,2.20
9850.00,2.20
9849.00,2.20
9848.00,2.19
9847.00,2.19
9846.00,2.19
9845.00,2.19
9844.00,2.19
9843.00,2.20
9842.00,2.20
9841.00,2.20
9840.00,2.20
9839.00,2.20
9838.00,2.21
9837.00,2.21
9836.00,2.21
9835.00,2.22
9834.00,2.22
9833.00,2.22
9832.00,2.23
9831.00,2.23
9830.00,2.24
9829.00,2.25
9828.00,2.25
9827.00,2.26
9826.00,2.26
9825.00,2.27
9824.00,2.27
9823.00,2.28
9822.00,2.28
9821.00,2.28
9820.00,2.28
9819.00,2.29
9818.00,2.29
9817.00,2.29
9816.00,2.29
9815.00,2.30
9814.00,2.30
9813.00,2.30
9812.00,2.30
9811.00,2.31
9810.00,2.31
9809.00,2.31
9808.00,2.31
9807.00,2.31
9806.00,2.31
9805.00,2.31
9804.00,2.31
9803.00,2.30
9802.00,2.30
9801.00,2.29
9800.00,2.29
9799.00,2.28
9798.00,2.28
9797.00,2.27
9796.00,2.26
9795.00,2.26
9794.00,2.25
9793.00,2.25
9792.00,2.25
9791.00,2.24
9790.00,2.24
9789.00,2.23
9788.00,2.23
9787.00,2.22
9786.00,2.21
9785.00,2.21
9784.00,2.20
9783.00,2.20
9782.00,2.19
9781.00,2.19
9780.00,2.18
9779.00,2.18
9778.00,2.18
9777.00,2.18
9776.00,2.18
9775.00,2.18
9774.00,2.19
9773.00,2.19
9772.00,2.19
9771.00,2.20
9770.00,2.20
9769.00,2.21
9768.00,2.21
9767.00,2.21
9766.00,2.21
9765.00,2.22
9764.00,2.22
9763.00,2.22
9762.00,2.22
9761.00,2.22
9760.00,2.23
9759.00,2.23
9758.00,2.23
9757.00,2.23
9756.00,2.24
9755.00,2.24
9754.00,2.25
9753.00,2.25
9752.00,2.25
9751.00,2.25
9750.00,2.26
9749.00,2.26
9748.00,2.26
9747.00,2.26
9746.00,2.26
9745.00,2.27
9744.00,2.27
9743.00,2.27
9742.00,2.28
9741.00,2.28
9740.00,2.29
9739.00,2.30
9738.00,2.30
9737.00,2.31
9736.00,2.32
9735.00,2.32
9734.00,2.33
9733.00,2.34
9732.00,2.34
9731.00,2.35
9730.00,2.35
9729.00,2.35
9728.00,2.36
9727.00,2.36
9726.00,2.36
9725.00,2.36
9724.00,2.36
9723.00,2.37
9722.00,2.37
9721.00,2.37
9720.00,2.37
9719.00,2.37
9718.00,2.37
9717.00,2.37
9716.00,2.36
9715.00,2.36
9714.00,2.36
9713.00,2.36
9712.00,2.35
9711.00,2.35
9710.00,2.35
9709.00,2.35
9708.00,2.35
9707.00,2.35
9706.00,2.35
9705.00,2.34
9704.00,2.34
9703.00,2.34
9702.00,2.34
9701.00,2.33
9700.00,2.33
9699.00,2.33
9698.00,2.32
9697.00,2.32
9696.00,2.32
9695.00,2.32
9694.00,2.31
9693.00,2.31
9692.00,2.31
9691.00,2.30
9690.00,2.30
9689.00,2.29
9688.00,2.29
9687.00,2.28
9686.00,2.27
9685.00,2.26
9684.00,2.25
9683.00,2.24
9682.00,2.23
9681.00,2.22
9680.00,2.22
9679.00,2.21
9678.00,2.20
9677.00,2.20
9676.00,2.20
9675.00,2.20
9674.00,2.20
9673.00,2.20
9672.00,2.20
9671.00,2.20
9670.00,2.20
9669.00,2.21
9668.00,2.21
9667.00,2.21
9666.00,2.22
9665.00,2.22
9664.00,2.23
9663.00,2.24
9662.00,2.25
9661.00,2.26
9660.00,2.27
9659.00,2.28
9658.00,2.30
9657.00,2.31
9656.00,2.32
9655.00,2.34
9654.00,2.35
9653.00,2.37
9652.00,2.38
9651.00,2.39
9650.00,2.40
9649.00,2.41
9648.00,2.42
9647.00,2.43
9646.00,2.43
9645.00,2.44
9644.00,2.45
9643.00,2.45
9642.00,2.46
9641.00,2.47
9640.00,2.47
9639.00,2.48
9638.00,2.48
9637.00,2.48
9636.00,2.48
9635.00,2.49
9634.00,2.49
9633.00,2.49
9632.00,2.49
9631.00,2.49
9630.00,2.48
9629.00,2.48
9628.00,2.48
9627.00,2.47
9626.00,2.47
9625.00,2.46
9624.00,2.46
9623.00,2.45
9622.00,2.45
9621.00,2.44
9620.00,2.43
9619.00,2.43
9618.00,2.42
9617.00,2.42
9616.00,2.41
9615.00,2.40
9614.00,2.39
9613.00,2.39
9612.00,2.38
9611.00,2.37
9610.00,2.36
9609.00,2.35
9608.00,2.34
9607.00,2.34
9606.00,2.33
9605.00,2.32
9604.00,2.32
9603.00,2.32
9602.00,2.31
9601.00,2.31
9600.00,2.31
9599.00,2.30
9598.00,2.30
9597.00,2.30
9596.00,2.30
9595.00,2.30
9594.00,2.29
9593.00,2.29
9592.00,2.29
9591.00,2.29
9590.00,2.30
9589.00,2.30
9588.00,2.30
9587.00,2.31
9586.00,2.32
9585.00,2.33
9584.00,2.33
9583.00,2.34
9582.00,2.35
9581.00,2.36
9580.00,2.37
9579.00,2.38
9578.00,2.38
9577.00,2.39
9576.00,2.40
9575.00,2.40
9574.00,2.41
9573.00,2.42
9572.00,2.43
9571.00,2.43
9570.00,2.44
9569.00,2.45
9568.00,2.45
9567.00,2.46
9566.00,2.46
9565.00,2.47
9564.00,2.47
9563.00,2.47
9562.00,2.46
9561.00,2.46
9560.00,2.45
9559.00,2.44
9558.00,2.44
9557.00,2.43
9556.00,2.42
9555.00,2.41
9554.00,2.40
9553.00,2.39
9552.00,2.38
9551.00,2.38
9550.00,2.37
9549.00,2.36
9548.00,2.35
9547.00,2.34
9546.00,2.33
9545.00,2.32
9544.00,2.31
9543.00,2.31
9542.00,2.30
9541.00,2.29
9540.00,2.28
9539.00,2.28
9538.00,2.28
9537.00,2.27
9536.00,2.27
9535.00,2.27
9534.00,2.27
9533.00,2.27
9532.00,2.27
9531.00,2.27
9530.00,2.27
9529.00,2.27
9528.00,2.27
9527.00,2.27
9526.00,2.27
9525.00,2.27
9524.00,2.27
9523.00,2.27
9522.00,2.27
9521.00,2.27
9520.00,2.26
9519.00,2.26
9518.00,2.26
9517.00,2.26
9516.00,2.26
9515.00,2.26
9514.00,2.25
9513.00,2.25
9512.00,2.25
9511.00,2.25
9510.00,2.25
9509.00,2.24
9508.00,2.24
9507.00,2.24
9506.00,2.23
9505.00,2.23
9504.00,2.22
9503.00,2.22
9502.00,2.21
9501.00,2.21
9500.00,2.20
9499.00,2.20
9498.00,2.20
9497.00,2.19
9496.00,2.19
9495.00,2.19
9494.00,2.18
9493.00,2.18
9492.00,2.18
9491.00,2.18
9490.00,2.17
9489.00,2.17
9488.00,2.17
9487.00,2.17
9486.00,2.17
9485.00,2.16
9484.00,2.16
9483.00,2.16
9482.00,2.16
9481.00,2.17
9480.00,2.17
9479.00,2.17
9478.00,2.18
9477.00,2.18
9476.00,2.19
9475.00,2.20
9474.00,2.20
9473.00,2.21
9472.00,2.22
9471.00,2.23
9470.00,2.24
9469.00,2.25
9468.00,2.26
9467.00,2.27
9466.00,2.28
9465.00,2.28
9464.00,2.29
9463.00,2.29
9462.00,2.30
9461.00,2.30
9460.00,2.31
9459.00,2.31
9458.00,2.32
9457.00,2.32
9456.00,2.32
9455.00,2.33
9454.00,2.33
9453.00,2.33
9452.00,2.34
9451.00,2.34
9450.00,2.34
9449.00,2.35
9448.00,2.35
9447.00,2.35
9446.00,2.35
9445.00,2.35
9444.00,2.35
9443.00,2.35
9442.00,2.35
9441.00,2.35
9440.00,2.36
9439.00,2.36
9438.00,2.36
9437.00,2.37
9436.00,2.37
9435.00,2.38
9434.00,2.39
9433.00,2.40
9432.00,2.41
9431.00,2.42
9430.00,2.43
9429.00,2.44
9428.00,2.45
9427.00,2.46
9426.00,2.47
9425.00,2.47
9424.00,2.48
9423.00,2.48
9422.00,2.49
9421.00,2.50
9420.00,2.50
9419.00,2.51
9418.00,2.51
9417.00,2.52
9416.00,2.53
9415.00,2.53
9414.00,2.53
9413.00,2.54
9412.00,2.54
9411.00,2.54
9410.00,2.54
9409.00,2.54
9408.00,2.53
9407.00,2.52
9406.00,2.52
9405.00,2.51
9404.00,2.50
9403.00,2.49
9402.00,2.48
9401.00,2.47
9400.00,2.46
9399.00,2.45
9398.00,2.44
9397.00,2.43
9396.00,2.42
9395.00,2.41
9394.00,2.40
9393.00,2.39
9392.00,2.38
9391.00,2.37
9390.00,2.36
9389.00,2.35
9388.00,2.34
9387.00,2.33
9386.00,2.33
9385.00,2.32
9384.00,2.32
9383.00,2.32
9382.00,2.31
9381.00,2.31
9380.00,2.31
9379.00,2.32
9378.00,2.32
9377.00,2.32
9376.00,2.32
9375.00,2.33
9374.00,2.33
9373.00,2.34
9372.00,2.34
9371.00,2.35
9370.00,2.35
9369.00,2.36
9368.00,2.36
9367.00,2.37
9366.00,2.38
9365.00,2.38
9364.00,2.39
9363.00,2.39
9362.00,2.39
9361.00,2.40
9360.00,2.40
9359.00,2.40
9358.00,2.40
9357.00,2.40
9356.00,2.40
9355.00,2.40
9354.00,2.40
9353.00,2.40
9352.00,2.40
9351.00,2.40
9350.00,2.40
9349.00,2.39
9348.00,2.39
9347.00,2.39
9346.00,2.39
9345.00,2.38
9344.00,2.38
9343.00,2.38
9342.00,2.38
9341.00,2.38
9340.00,2.38
9339.00,2.38
9338.00,2.39
9337.00,2.39
9336.00,2.39
9335.00,2.39
9334.00,2.39
9333.00,2.40
9332.00,2.40
9331.00,2.40
9330.00,2.40
9329.00,2.41
9328.00,2.41
9327.00,2.41
9326.00,2.42
9325.00,2.42
9324.00,2.43
9323.00,2.43
9322.00,2.44
9321.00,2.45
9320.00,2.45
9319.00,2.46
9318.00,2.46
9317.00,2.47
9316.00,2.47
9315.00,2.48
9314.00,2.48
9313.00,2.48
9312.00,2.48
9311.00,2.48
9310.00,2.48
9309.00,2.49
9308.00,2.49
9307.00,2.49
9306.00,2.49
9305.00,2.50
9304.00,2.50
9303.00,2.50
9302.00,2.50
9301.00,2.51
9300.00,2.51
9299.00,2.51
9298.00,2.50
9297.00,2.50
9296.00,2.50
9295.00,2.49
9294.00,2.48
9293.00,2.48
9292.00,2.47
9291.00,2.46
9290.00,2.45
9289.00,2.44
9288.00,2.43
9287.00,2.41
9286.00,2.40
9285.00,2.39
9284.00,2.38
9283.00,2.37
9282.00,2.36
9281.00,2.35
9280.00,2.35
9279.00,2.34
9278.00,2.33
9277.00,2.32
9276.00,2.31
9275.00,2.30
9274.00,2.29
9273.00,2.29
9272.00,2.28
9271.00,2.27
9270.00,2.26
9269.00,2.26
9268.00,2.25
9267.00,2.24
9266.00,2.24
9265.00,2.24
9264.00,2.24
9263.00,2.24
9262.00,2.24
9261.00,2.24
9260.00,2.24
9259.00,2.25
9258.00,2.25
9257.00,2.25
9256.00,2.25
9255.00,2.25
9254.00,2.25
9253.00,2.25
9252.00,2.25
9251.00,2.24
9250.00,2.24
9249.00,2.24
9248.00,2.23
9247.00,2.23
9246.00,2.23
9245.00,2.24
9244.00,2.24
9243.00,2.24
9242.00,2.25
9241.00,2.26
9240.00,2.26
9239.00,2.27
9238.00,2.27
9237.00,2.28
9236.00,2.28
9235.00,2.28
9234.00,2.28
9233.00,2.28
9232.00,2.28
9231.00,2.28
9230.00,2.28
9229.00,2.28
9228.00,2.28
9227.00,2.28
9226.00,2.28
9225.00,2.28
9224.00,2.29
9223.00,2.29
9222.00,2.29
9221.00,2.29
9220.00,2.29
9219.00,2.28
9218.00,2.28
9217.00,2.27
9216.00,2.27
9215.00,2.26
9214.00,2.26
9213.00,2.25
9212.00,2.24
9211.00,2.24
9210.00,2.24
9209.00,2.23
9208.00,2.23
9207.00,2.23
9206.00,2.23
9205.00,2.23
9204.00,2.23
9203.00,2.24
9202.00,2.24
9201.00,2.24
9200.00,2.24
9199.00,2.24
9198.00,2.25
9197.00,2.25
9196.00,2.26
9195.00,2.27
9194.00,2.27
9193.00,2.28
9192.00,2.29
9191.00,2.30
9190.00,2.31
9189.00,2.32
9188.00,2.33
9187.00,2.34
9186.00,2.35
9185.00,2.36
9184.00,2.37
9183.00,2.38
9182.00,2.39
9181.00,2.40
9180.00,2.41
9179.00,2.42
9178.00,2.42
9177.00,2.43
9176.00,2.44
9175.00,2.44
9174.00,2.45
9173.00,2.45
9172.00,2.46
9171.00,2.46
9170.00,2.46
9169.00,2.46
9168.00,2.46
9167.00,2.46
9166.00,2.45
9165.00,2.45
9164.00,2.45
9163.00,2.44
9162.00,2.44
9161.00,2.43
9160.00,2.43
9159.00,2.42
9158.00,2.42
9157.00,2.41
9156.00,2.41
9155.00,2.40
9154.00,2.39
9153.00,2.39
9152.00,2.38
9151.00,2.38
9150.00,2.37
9149.00,2.36
9148.00,2.36
9147.00,2.35
9146.00,2.35
9145.00,2.35
9144.00,2.34
9143.00,2.34
9142.00,2.34
9141.00,2.34
9140.00,2.34
9139.00,2.34
9138.00,2.34
9137.00,2.34
9136.00,2.34
9135.00,2.34
9134.00,2.34
9133.00,2.35
9132.00,2.35
9131.00,2.35
9130.00,2.35
9129.00,2.35
9128.00,2.35
9127.00,2.36
9126.00,2.36
9125.00,2.36
9124.00,2.37
9123.00,2.37
9122.00,2.38
9121.00,2.38
9120.00,2.39
9119.00,2.40
9118.00,2.40
9117.00,2.41
9116.00,2.41
9115.00,2.42
9114.00,2.42
9113.00,2.43
9112.00,2.43
9111.00,2.44
9110.00,2.44
9109.00,2.44
9108.00,2.44
9107.00,2.44
9106.00,2.45
9105.00,2.45
9104.00,2.45
9103.00,2.45
9102.00,2.45
9101.00,2.45
9100.00,2.46
9099.00,2.46
9098.00,2.46
9097.00,2.46
9096.00,2.45
9095.00,2.45
9094.00,2.45
9093.00,2.45
9092.00,2.45
9091.00,2.44
9090.00,2.44
9089.00,2.43
9088.00,2.43
9087.00,2.43
9086.00,2.42
9085.00,2.42
9084.00,2.41
9083.00,2.41
9082.00,2.41
9081.00,2.41
9080.00,2.40
9079.00,2.40
9078.00,2.40
9077.00,2.40
9076.00,2.40
9075.00,2.40
9074.00,2.40
9073.00,2.40
9072.00,2.40
9071.00,2.40
9070.00,2.39
9069.00,2.39
9068.00,2.39
9067.00,2.39
9066.00,2.39
9065.00,2.39
9064.00,2.39
9063.00,2.40
9062.00,2.40
9061.00,2.40
9060.00,2.41
9059.00,2.41
9058.00,2.42
9057.00,2.42
9056.00,2.42
9055.00,2.42
9054.00,2.42
9053.00,2.42
9052.00,2.41
9051.00,2.41
9050.00,2.40
9049.00,2.40
9048.00,2.39
9047.00,2.38
9046.00,2.38
9045.00,2.37
9044.00,2.36
9043.00,2.35
9042.00,2.35
9041.00,2.34
9040.00,2.33
9039.00,2.32
9038.00,2.30
9037.00,2.29
9036.00,2.28
9035.00,2.26
9034.00,2.25
9033.00,2.23
9032.00,2.22
9031.00,2.21
9030.00,2.20
9029.00,2.19
9028.00,2.18
9027.00,2.17
9026.00,2.17
9025.00,2.17
9024.00,2.16
9023.00,2.16
9022.00,2.16
9021.00,2.17
9020.00,2.17
9019.00,2.17
9018.00,2.18
9017.00,2.18
9016.00,2.19
9015.00,2.19
9014.00,2.20
9013.00,2.20
9012.00,2.21
9011.00,2.22
9010.00,2.23
9009.00,2.23
9008.00,2.24
9007.00,2.25
9006.00,2.26
9005.00,2.26
9004.00,2.27
9003.00,2.28
9002.00,2.28
9001.00,2.29
9000.00,2.29
8999.00,2.30
8998.00,2.30
8997.00,2.30
8996.00,2.30
8995.00,2.30
8994.00,2.30
8993.00,2.30
8992.00,2.30
8991.00,2.30
8990.00,2.30
8989.00,2.30
8988.00,2.30
8987.00,2.30
8986.00,2.31
8985.00,2.31
8984.00,2.31
8983.00,2.31
8982.00,2.31
8981.00,2.31
8980.00,2.31
8979.00,2.31
8978.00,2.31
8977.00,2.31
8976.00,2.31
8975.00,2.31
8974.00,2.31
8973.00,2.31
8972.00,2.31
8971.00,2.31
8970.00,2.31
8969.00,2.31
8968.00,2.31
8967.00,2.31
8966.00,2.31
8965.00,2.31
8964.00,2.31
8963.00,2.31
8962.00,2.31
8961.00,2.31
8960.00,2.31
8959.00,2.31
8958.00,2.31
8957.00,2.31
8956.00,2.32
8955.00,2.32
8954.00,2.32
8953.00,2.32
8952.00,2.33
8951.00,2.33
8950.00,2.33
8949.00,2.34
8948.00,2.34
8947.00,2.34
8946.00,2.35
8945.00,2.35
8944.00,2.35
8943.00,2.35
8942.00,2.36
8941.00,2.36
8940.00,2.37
8939.00,2.37
8938.00,2.38
8937.00,2.38
8936.00,2.39
8935.00,2.40
8934.00,2.40
8933.00,2.41
8932.00,2.41
8931.00,2.41
8930.00,2.41
8929.00,2.41
8928.00,2.41
8927.00,2.41
8926.00,2.41
8925.00,2.40
8924.00,2.40
8923.00,2.40
8922.00,2.40
8921.00,2.39
8920.00,2.39
8919.00,2.39
8918.00,2.39
8917.00,2.38
8916.00,2.38
8915.00,2.38
8914.00,2.38
8913.00,2.38
8912.00,2.37
8911.00,2.37
8910.00,2.36
8909.00,2.36
8908.00,2.36
8907.00,2.36
8906.00,2.36
8905.00,2.36
8904.00,2.36
8903.00,2.36
8902.00,2.37
8901.00,2.38
8900.00,2.38
8899.00,2.39
8898.00,2.40
8897.00,2.41
8896.00,2.42
8895.00,2.43
8894.00,2.44
8893.00,2.45
8892.00,2.46
8891.00,2.46
8890.00,2.47
8889.00,2.48
8888.00,2.49
8887.00,2.50
8886.00,2.51
8885.00,2.51
8884.00,2.52
8883.00,2.53
8882.00,2.54
8881.00,2.55
8880.00,2.56
8879.00,2.56
8878.00,2.57
8877.00,2.57
8876.00,2.57
8875.00,2.57
8874.00,2.57
8873.00,2.57
8872.00,2.57
8871.00,2.57
8870.00,2.56
8869.00,2.56
8868.00,2.56
8867.00,2.56
8866.00,2.55
8865.00,2.55
8864.00,2.54
8863.00,2.54
8862.00,2.54
8861.00,2.53
8860.00,2.53
8859.00,2.52
8858.00,2.52
8857.00,2.51
8856.00,2.50
8855.00,2.49
8854.00,2.48
8853.00,2.47
8852.00,2.47
8851.00,2.46
8850.00,2.45
8849.00,2.44
8848.00,2.44
8847.00,2.43
8846.00,2.43
8845.00,2.42
8844.00,2.42
8843.00,2.41
8842.00,2.41
8841.00,2.40
8840.00,2.39
8839.00,2.39
8838.00,2.38
8837.00,2.37
8836.00,2.36
8835.00,2.35
8834.00,2.35
8833.00,2.34
8832.00,2.33
8831.00,2.32
8830.00,2.32
8829.00,2.31
8828.00,2.31
8827.00,2.31
8826.00,2.30
8825.00,2.30
8824.00,2.30
8823.00,2.29
8822.00,2.29
8821.00,2.28
8820.00,2.28
8819.00,2.27
8818.00,2.27
8817.00,2.27
8816.00,2.26
8815.00,2.26
8814.00,2.26
8813.00,2.26
8812.00,2.26
8811.00,2.26
8810.00,2.26
8809.00,2.27
8808.00,2.27
8807.00,2.27
8806.00,2.28
8805.00,2.28
8804.00,2.28
8803.00,2.29
8802.00,2.29
8801.00,2.29
8800.00,2.29
8799.00,2.29
8798.00,2.29
8797.00,2.29
8796.00,2.30
8795.00,2.30
8794.00,2.30
8793.00,2.31
8792.00,2.31
8791.00,2.31
8790.00,2.31
8789.00,2.31
8788.00,2.31
8787.00,2.31
8786.00,2.31
8785.00,2.31
8784.00,2.31
8783.00,2.31
8782.00,2.30
8781.00,2.30
8780.00,2.30
8779.00,2.30
8778.00,2.30
8777.00,2.30
8776.00,2.31
8775.00,2.31
8774.00,2.31
8773.00,2.31
8772.00,2.32
8771.00,2.32
8770.00,2.33
8769.00,2.33
8768.00,2.33
8767.00,2.34
8766.00,2.34
8765.00,2.34
8764.00,2.35
8763.00,2.35
8762.00,2.36
8761.00,2.36
8760.00,2.37
8759.00,2.38
8758.00,2.38
8757.00,2.39
8756.00,2.39
8755.00,2.40
8754.00,2.40
8753.00,2.40
8752.00,2.41
8751.00,2.41
8750.00,2.41
8749.00,2.41
8748.00,2.41
8747.00,2.41
8746.00,2.41
8745.00,2.41
8744.00,2.41
8743.00,2.41
8742.00,2.41
8741.00,2.41
8740.00,2.41
8739.00,2.40
8738.00,2.40
8737.00,2.40
8736.00,2.40
8735.00,2.40
8734.00,2.39
8733.00,2.39
8732.00,2.39
8731.00,2.38
8730.00,2.38
8729.00,2.38
8728.00,2.37
8727.00,2.37
8726.00,2.37
8725.00,2.36
8724.00,2.36
8723.00,2.35
8722.00,2.35
8721.00,2.34
8720.00,2.34
8719.00,2.33
8718.00,2.32
8717.00,2.32
8716.00,2.31
8715.00,2.30
8714.00,2.29
8713.00,2.29
8712.00,2.28
8711.00,2.27
8710.00,2.27
8709.00,2.26
8708.00,2.26
8707.00,2.25
8706.00,2.24
8705.00,2.24
8704.00,2.23
8703.00,2.23
8702.00,2.22
8701.00,2.22
8700.00,2.21
8699.00,2.21
8698.00,2.21
8697.00,2.21
8696.00,2.21
8695.00,2.21
8694.00,2.21
8693.00,2.21
8692.00,2.21
8691.00,2.22
8690.00,2.22
8689.00,2.23
8688.00,2.23
8687.00,2.23
8686.00,2.24
8685.00,2.24
8684.00,2.24
8683.00,2.25
8682.00,2.25
8681.00,2.25
8680.00,2.25
8679.00,2.25
8678.00,2.26
8677.00,2.26
8676.00,2.26
8675.00,2.26
8674.00,2.25
8673.00,2.25
8672.00,2.25
8671.00,2.25
8670.00,2.25
8669.00,2.24
8668.00,2.24
8667.00,2.23
8666.00,2.23
8665.00,2.22
8664.00,2.22
8663.00,2.21
8662.00,2.20
8661.00,2.20
8660.00,2.19
8659.00,2.19
8658.00,2.18
8657.00,2.18
8656.00,2.18
8655.00,2.17
8654.00,2.17
8653.00,2.17
8652.00,2.17
8651.00,2.18
8650.00,2.18
8649.00,2.18
8648.00,2.19
8647.00,2.20
8646.00,2.20
8645.00,2.21
8644.00,2.22
8643.00,2.23
8642.00,2.23
8641.00,2.24
8640.00,2.25
8639.00,2.26
8638.00,2.27
8637.00,2.28
8636.00,2.29
8635.00,2.30
8634.00,2.31
8633.00,2.32
8632.00,2.33
8631.00,2.34
8630.00,2.35
8629.00,2.35
8628.00,2.36
8627.00,2.37
8626.00,2.38
8625.00,2.38
8624.00,2.39
8623.00,2.39
8622.00,2.39
8621.00,2.40
8620.00,2.40
8619.00,2.40
8618.00,2.40
8617.00,2.40
8616.00,2.41
8615.00,2.41
8614.00,2.41
8613.00,2.41
8612.00,2.41
8611.00,2.41
8610.00,2.41
8609.00,2.41
8608.00,2.40
8607.00,2.40
8606.00,2.40
8605.00,2.39
8604.00,2.39
8603.00,2.38
8602.00,2.38
8601.00,2.37
8600.00,2.36
8599.00,2.36
8598.00,2.35
8597.00,2.35
8596.00,2.34
8595.00,2.34
8594.00,2.33
8593.00,2.33
8592.00,2.32
8591.00,2.31
8590.00,2.31
8589.00,2.30
8588.00,2.29
8587.00,2.28
8586.00,2.28
8585.00,2.27
8584.00,2.26
8583.00,2.26
8582.00,2.25
8581.00,2.25
8580.00,2.25
8579.00,2.24
8578.00,2.24
8577.00,2.23
8576.00,2.23
8575.00,2.23
8574.00,2.22
8573.00,2.22
8572.00,2.21
8571.00,2.20
8570.00,2.19
8569.00,2.19
8568.00,2.18
8567.00,2.18
8566.00,2.17
8565.00,2.17
8564.00,2.16
8563.00,2.16
8562.00,2.16
8561.00,2.16
8560.00,2.16
8559.00,2.16
8558.00,2.16
8557.00,2.16
8556.00,2.16
8555.00,2.16
8554.00,2.16
8553.00,2.16
8552.00,2.16
8551.00,2.16
8550.00,2.16
8549.00,2.16
8548.00,2.17
8547.00,2.17
8546.00,2.18
8545.00,2.18
8544.00,2.19
8543.00,2.20
8542.00,2.20
8541.00,2.21
8540.00,2.21
8539.00,2.22
8538.00,2.22
8537.00,2.22
8536.00,2.23
8535.00,2.23
8534.00,2.23
8533.00,2.23
8532.00,2.23
8531.00,2.23
8530.00,2.23
8529.00,2.23
8528.00,2.23
8527.00,2.23
8526.00,2.23
8525.00,2.23
8524.00,2.22
8523.00,2.22
8522.00,2.22
8521.00,2.22
8520.00,2.21
8519.00,2.21
8518.00,2.21
8517.00,2.21
8516.00,2.20
8515.00,2.20
8514.00,2.20
8513.00,2.20
8512.00,2.20
8511.00,2.19
8510.00,2.19
8509.00,2.19
8508.00,2.19
8507.00,2.19
8506.00,2.18
8505.00,2.18
8504.00,2.18
8503.00,2.17
8502.00,2.17
8501.00,2.17
8500.00,2.17
8499.00,2.17
8498.00,2.17
8497.00,2.17
8496.00,2.16
8495.00,2.16
8494.00,2.16
8493.00,2.16
8492.00,2.16
8491.00,2.16
8490.00,2.16
8489.00,2.16
8488.00,2.15
8487.00,2.15
8486.00,2.15
8485.00,2.14
8484.00,2.14
8483.00,2.14
8482.00,2.14
8481.00,2.14
8480.00,2.14
8479.00,2.14
8478.00,2.14
8477.00,2.14
8476.00,2.14
8475.00,2.14
8474.00,2.14
8473.00,2.15
8472.00,2.15
8471.00,2.15
8470.00,2.15
8469.00,2.15
8468.00,2.15
8467.00,2.15
8466.00,2.15
8465.00,2.15
8464.00,2.15
8463.00,2.15
8462.00,2.15
8461.00,2.16
8460.00,2.16
8459.00,2.17
8458.00,2.17
8457.00,2.18
8456.00,2.19
8455.00,2.20
8454.00,2.20
8453.00,2.21
8452.00,2.22
8451.00,2.23
8450.00,2.23
8449.00,2.24
8448.00,2.25
8447.00,2.25
8446.00,2.25
8445.00,2.26
8444.00,2.26
8443.00,2.26
8442.00,2.27
8441.00,2.27
8440.00,2.27
8439.00,2.28
8438.00,2.28
8437.00,2.29
8436.00,2.29
8435.00,2.29
8434.00,2.29
8433.00,2.29
8432.00,2.29
8431.00,2.28
8430.00,2.28
8429.00,2.27
8428.00,2.26
8427.00,2.25
8426.00,2.24
8425.00,2.23
8424.00,2.22
8423.00,2.21
8422.00,2.20
8421.00,2.20
8420.00,2.19
8419.00,2.18
8418.00,2.17
8417.00,2.17
8416.00,2.16
8415.00,2.16
8414.00,2.15
8413.00,2.15
8412.00,2.14
8411.00,2.14
8410.00,2.14
8409.00,2.13
8408.00,2.13
8407.00,2.13
8406.00,2.13
8405.00,2.13
8404.00,2.13
8403.00,2.13
8402.00,2.13
8401.00,2.13
8400.00,2.14
8399.00,2.14
8398.00,2.15
8397.00,2.16
8396.00,2.16
8395.00,2.17
8394.00,2.18
8393.00,2.18
8392.00,2.19
8391.00,2.19
8390.00,2.20
8389.00,2.20
8388.00,2.21
8387.00,2.21
8386.00,2.22
8385.00,2.22
8384.00,2.23
8383.00,2.23
8382.00,2.24
8381.00,2.24
8380.00,2.24
8379.00,2.25
8378.00,2.25
8377.00,2.25
8376.00,2.26
8375.00,2.26
8374.00,2.26
8373.00,2.26
8372.00,2.26
8371.00,2.26
8370.00,2.26
8369.00,2.26
8368.00,2.26
8367.00,2.26
8366.00,2.26
8365.00,2.26
8364.00,2.26
8363.00,2.26
8362.00,2.26
8361.00,2.26
8360.00,2.25
8359.00,2.25
8358.00,2.25
8357.00,2.24
8356.00,2.24
8355.00,2.24
8354.00,2.23
8353.00,2.23
8352.00,2.23
8351.00,2.22
8350.00,2.22
8349.00,2.22
8348.00,2.22
8347.00,2.21
8346.00,2.21
8345.00,2.21
8344.00,2.21
8343.00,2.21
8342.00,2.21
8341.00,2.21
8340.00,2.21
8339.00,2.21
8338.00,2.21
8337.00,2.21
8336.00,2.21
8335.00,2.22
8334.00,2.22
8333.00,2.22
8332.00,2.23
8331.00,2.23
8330.00,2.24
8329.00,2.24
8328.00,2.25
8327.00,2.25
8326.00,2.26
8325.00,2.26
8324.00,2.26
8323.00,2.27
8322.00,2.27
8321.00,2.27
8320.00,2.27
8319.00,2.28
8318.00,2.28
8317.00,2.28
8316.00,2.28
8315.00,2.28
8314.00,2.27
8313.00,2.27
8312.00,2.27
8311.00,2.27
8310.00,2.27
8309.00,2.27
8308.00,2.26
8307.00,2.26
8306.00,2.25
8305.00,2.25
8304.00,2.24
8303.00,2.24
8302.00,2.23
8301.00,2.23
8300.00,2.22
8299.00,2.21
8298.00,2.21
8297.00,2.20
8296.00,2.20
8295.00,2.19
8294.00,2.19
8293.00,2.19
8292.00,2.19
8291.00,2.19
8290.00,2.18
8289.00,2.18
8288.00,2.18
8287.00,2.18
8286.00,2.18
8285.00,2.18
8284.00,2.18
8283.00,2.18
8282.00,2.18
8281.00,2.19
8280.00,2.19
8279.00,2.19
8278.00,2.20
8277.00,2.20
8276.00,2.21
8275.00,2.21
8274.00,2.22
8273.00,2.22
8272.00,2.23
8271.00,2.23
8270.00,2.24
8269.00,2.24
8268.00,2.24
8267.00,2.25
8266.00,2.25
8265.00,2.25
8264.00,2.25
8263.00,2.26
8262.00,2.26
8261.00,2.26
8260.00,2.27
8259.00,2.27
8258.00,2.27
8257.00,2.28
8256.00,2.28
8255.00,2.29
8254.00,2.29
8253.00,2.29
8252.00,2.30
8251.00,2.30
8250.00,2.30
8249.00,2.31
8248.00,2.31
8247.00,2.31
8246.00,2.32
8245.00,2.32
8244.00,2.33
8243.00,2.33
8242.00,2.34
8241.00,2.34
8240.00,2.34
8239.00,2.35
8238.00,2.35
8237.00,2.35
8236.00,2.35
8235.00,2.35
8234.00,2.35
8233.00,2.35
8232.00,2.35
8231.00,2.35
8230.00,2.35
8229.00,2.35
8228.00,2.34
8227.00,2.34
8226.00,2.33
8225.00,2.33
8224.00,2.32
8223.00,2.31
8222.00,2.31
8221.00,2.30
8220.00,2.29
8219.00,2.28
8218.00,2.28
8217.00,2.27
8216.00,2.26
8215.00,2.26
8214.00,2.25
8213.00,2.25
8212.00,2.24
8211.00,2.24
8210.00,2.23
8209.00,2.23
8208.00,2.23
8207.00,2.22
8206.00,2.22
8205.00,2.22
8204.00,2.22
8203.00,2.21
8202.00,2.21
8201.00,2.21
8200.00,2.21
8199.00,2.22
8198.00,2.22
8197.00,2.22
8196.00,2.22
8195.00,2.23
8194.00,2.23
8193.00,2.24
8192.00,2.24
8191.00,2.25
8190.00,2.26
8189.00,2.27
8188.00,2.27
8187.00,2.28
8186.00,2.29
8185.00,2.29
8184.00,2.30
8183.00,2.31
8182.00,2.32
8181.00,2.32
8180.00,2.33
8179.00,2.34
8178.00,2.35
8177.00,2.35
8176.00,2.36
8175.00,2.37
8174.00,2.37
8173.00,2.38
8172.00,2.38
8171.00,2.39
8170.00,2.39
8169.00,2.39
8168.00,2.39
8167.00,2.39
8166.00,2.39
8165.00,2.39
8164.00,2.38
8163.00,2.38
8162.00,2.37
8161.00,2.36
8160.00,2.36
8159.00,2.35
8158.00,2.34
8157.00,2.34
8156.00,2.33
8155.00,2.32
8154.00,2.32
8153.00,2.31
8152.00,2.31
8151.00,2.30
8150.00,2.30
8149.00,2.29
8148.00,2.29
8147.00,2.28
8146.00,2.28
8145.00,2.27
8144.00,2.27
8143.00,2.27
8142.00,2.27
8141.00,2.26
8140.00,2.26
8139.00,2.26
8138.00,2.27
8137.00,2.27
8136.00,2.27
8135.00,2.28
8134.00,2.28
8133.00,2.29
8132.00,2.29
8131.00,2.30
8130.00,2.30
8129.00,2.31
8128.00,2.31
8127.00,2.31
8126.00,2.31
8125.00,2.31
8124.00,2.32
8123.00,2.32
8122.00,2.32
8121.00,2.33
8120.00,2.33
8119.00,2.34
8118.00,2.34
8117.00,2.35
8116.00,2.35
8115.00,2.36
8114.00,2.36
8113.00,2.36
8112.00,2.37
8111.00,2.37
8110.00,2.38
8109.00,2.38
8108.00,2.38
8107.00,2.39
8106.00,2.39
8105.00,2.39
8104.00,2.40
8103.00,2.40
8102.00,2.41
8101.00,2.41
8100.00,2.42
8099.00,2.43
8098.00,2.43
8097.00,2.44
8096.00,2.44
8095.00,2.45
8094.00,2.45
8093.00,2.45
8092.00,2.45
8091.00,2.45
8090.00,2.46
8089.00,2.46
8088.00,2.46
8087.00,2.46
8086.00,2.46
8085.00,2.46
8084.00,2.46
8083.00,2.46
8082.00,2.46
8081.00,2.46
8080.00,2.46
8079.00,2.46
8078.00,2.46
8077.00,2.46
8076.00,2.46
8075.00,2.46
8074.00,2.45
8073.00,2.45
8072.00,2.45
8071.00,2.45
8070.00,2.45
8069.00,2.45
8068.00,2.45
8067.00,2.45
8066.00,2.45
8065.00,2.45
8064.00,2.45
8063.00,2.46
8062.00,2.46
8061.00,2.46
8060.00,2.47
8059.00,2.47
8058.00,2.47
8057.00,2.47
8056.00,2.48
8055.00,2.48
8054.00,2.48
8053.00,2.48
8052.00,2.48
8051.00,2.48
8050.00,2.48
8049.00,2.48
8048.00,2.47
8047.00,2.47
8046.00,2.47
8045.00,2.47
8044.00,2.47
8043.00,2.47
8042.00,2.47
8041.00,2.46
8040.00,2.46
8039.00,2.46
8038.00,2.45
8037.00,2.45
8036.00,2.44
8035.00,2.44
8034.00,2.43
8033.00,2.42
8032.00,2.42
8031.00,2.41
8030.00,2.40
8029.00,2.40
8028.00,2.39
8027.00,2.39
8026.00,2.38
8025.00,2.38
8024.00,2.37
8023.00,2.37
8022.00,2.36
8021.00,2.36
8020.00,2.35
8019.00,2.35
8018.00,2.34
8017.00,2.34
8016.00,2.33
8015.00,2.33
8014.00,2.33
8013.00,2.32
8012.00,2.32
8011.00,2.32
8010.00,2.31
8009.00,2.31
8008.00,2.31
8007.00,2.31
8006.00,2.31
8005.00,2.31
8004.00,2.31
8003.00,2.31
8002.00,2.31
8001.00,2.31
8000.00,2.31
7999.00,2.31
7998.00,2.31
7997.00,2.31
7996.00,2.31
7995.00,2.32
7994.00,2.32
7993.00,2.32
7992.00,2.33
7991.00,2.33
7990.00,2.33
7989.00,2.34
7988.00,2.34
7987.00,2.34
7986.00,2.35
7985.00,2.35
7984.00,2.35
7983.00,2.36
7982.00,2.36
7981.00,2.37
7980.00,2.37
7979.00,2.38
7978.00,2.38
7977.00,2.38
7976.00,2.39
7975.00,2.39
7974.00,2.39
7973.00,2.40
7972.00,2.40
7971.00,2.41
7970.00,2.41
7969.00,2.41
7968.00,2.42
7967.00,2.42
7966.00,2.42
7965.00,2.42
7964.00,2.42
7963.00,2.43
7962.00,2.43
7961.00,2.43
7960.00,2.43
7959.00,2.43
7958.00,2.43
7957.00,2.43
7956.00,2.42
7955.00,2.42
7954.00,2.42
7953.00,2.42
7952.00,2.42
7951.00,2.42
7950.00,2.42
7949.00,2.42
7948.00,2.42
7947.00,2.41
7946.00,2.41
7945.00,2.41
7944.00,2.41
7943.00,2.41
7942.00,2.41
7941.00,2.41
7940.00,2.41
7939.00,2.41
7938.00,2.41
7937.00,2.41
7936.00,2.41
7935.00,2.42
7934.00,2.42
7933.00,2.42
7932.00,2.43
7931.00,2.43
7930.00,2.43
7929.00,2.43
7928.00,2.44
7927.00,2.44
7926.00,2.44
7925.00,2.44
7924.00,2.44
7923.00,2.45
7922.00,2.45
7921.00,2.45
7920.00,2.45
7919.00,2.44
7918.00,2.44
7917.00,2.44
7916.00,2.44
7915.00,2.44
7914.00,2.43
7913.00,2.43
7912.00,2.42
7911.00,2.42
7910.00,2.41
7909.00,2.41
7908.00,2.40
7907.00,2.40
7906.00,2.39
7905.00,2.38
7904.00,2.38
7903.00,2.38
7902.00,2.37
7901.00,2.37
7900.00,2.37
7899.00,2.37
7898.00,2.37
7897.00,2.37
7896.00,2.37
7895.00,2.37
7894.00,2.37
7893.00,2.37
7892.00,2.37
7891.00,2.38
7890.00,2.38
7889.00,2.38
7888.00,2.38
7887.00,2.39
7886.00,2.39
7885.00,2.39
7884.00,2.40
7883.00,2.40
7882.00,2.41
7881.00,2.41
7880.00,2.42
7879.00,2.42
7878.00,2.42
7877.00,2.43
7876.00,2.43
7875.00,2.44
7874.00,2.44
7873.00,2.44
7872.00,2.45
7871.00,2.45
7870.00,2.45
7869.00,2.45
7868.00,2.45
7867.00,2.45
7866.00,2.45
7865.00,2.45
7864.00,2.45
7863.00,2.45
7862.00,2.46
7861.00,2.46
7860.00,2.46
7859.00,2.46
7858.00,2.46
7857.00,2.47
7856.00,2.47
7855.00,2.47
7854.00,2.47
7853.00,2.47
7852.00,2.47
7851.00,2.47
7850.00,2.47
7849.00,2.47
7848.00,2.47
7847.00,2.46
7846.00,2.46
7845.00,2.46
7844.00,2.46
7843.00,2.45
7842.00,2.45
7841.00,2.45
7840.00,2.44
7839.00,2.44
7838.00,2.44
7837.00,2.44
7836.00,2.43
7835.00,2.43
7834.00,2.42
7833.00,2.42
7832.00,2.41
7831.00,2.41
7830.00,2.40
7829.00,2.40
7828.00,2.39
7827.00,2.39
7826.00,2.38
7825.00,2.38
7824.00,2.37
7823.00,2.37
7822.00,2.37
7821.00,2.36
7820.00,2.36
7819.00,2.36
7818.00,2.36
7817.00,2.35
7816.00,2.35
7815.00,2.35
7814.00,2.35
7813.00,2.35
7812.00,2.35
7811.00,2.34
7810.00,2.34
7809.00,2.34
7808.00,2.34
7807.00,2.35
7806.00,2.35
7805.00,2.35
7804.00,2.35
7803.00,2.35
7802.00,2.36
7801.00,2.36
7800.00,2.36
7799.00,2.36
7798.00,2.37
7797.00,2.37
7796.00,2.37
7795.00,2.38
7794.00,2.38
7793.00,2.38
7792.00,2.39
7791.00,2.39
7790.00,2.40
7789.00,2.40
7788.00,2.40
7787.00,2.41
7786.00,2.41
7785.00,2.42
7784.00,2.42
7783.00,2.43
7782.00,2.43
7781.00,2.43
7780.00,2.44
7779.00,2.44
7778.00,2.44
7777.00,2.44
7776.00,2.44
7775.00,2.44
7774.00,2.44
7773.00,2.44
7772.00,2.44
7771.00,2.44
7770.00,2.44
7769.00,2.44
7768.00,2.44
7767.00,2.44
7766.00,2.43
7765.00,2.43
7764.00,2.43
7763.00,2.43
7762.00,2.43
7761.00,2.43
7760.00,2.42
7759.00,2.42
7758.00,2.42
7757.00,2.42
7756.00,2.41
7755.00,2.41
7754.00,2.40
7753.00,2.40
7752.00,2.39
7751.00,2.39
7750.00,2.39
7749.00,2.38
7748.00,2.38
7747.00,2.38
7746.00,2.38
7745.00,2.38
7744.00,2.38
7743.00,2.38
7742.00,2.38
7741.00,2.38
7740.00,2.38
7739.00,2.38
7738.00,2.38
7737.00,2.38
7736.00,2.38
7735.00,2.38
7734.00,2.38
7733.00,2.38
7732.00,2.38
7731.00,2.38
7730.00,2.38
7729.00,2.39
7728.00,2.39
7727.00,2.39
7726.00,2.39
7725.00,2.40
7724.00,2.40
7723.00,2.40
7722.00,2.41
7721.00,2.41
7720.00,2.41
7719.00,2.42
7718.00,2.42
7717.00,2.42
7716.00,2.42
7715.00,2.42
7714.00,2.42
7713.00,2.43
7712.00,2.43
7711.00,2.43
7710.00,2.43
7709.00,2.43
7708.00,2.43
7707.00,2.43
7706.00,2.43
7705.00,2.43
7704.00,2.43
7703.00,2.44
7702.00,2.44
7701.00,2.44
7700.00,2.44
7699.00,2.45
7698.00,2.45
7697.00,2.45
7696.00,2.45
7695.00,2.45
7694.00,2.45
7693.00,2.45
7692.00,2.45
7691.00,2.45
7690.00,2.45
7689.00,2.45
7688.00,2.45
7687.00,2.45
7686.00,2.46
7685.00,2.46
7684.00,2.46
7683.00,2.47
7682.00,2.47
7681.00,2.47
7680.00,2.48
7679.00,2.48
7678.00,2.49
7677.00,2.49
7676.00,2.49
7675.00,2.50
7674.00,2.50
7673.00,2.51
7672.00,2.51
7671.00,2.51
7670.00,2.52
7669.00,2.52
7668.00,2.53
7667.00,2.53
7666.00,2.54
7665.00,2.55
7664.00,2.55
7663.00,2.56
7662.00,2.56
7661.00,2.57
7660.00,2.57
7659.00,2.58
7658.00,2.58
7657.00,2.58
7656.00,2.59
7655.00,2.59
7654.00,2.59
7653.00,2.59
7652.00,2.59
7651.00,2.59
7650.00,2.59
7649.00,2.59
7648.00,2.59
7647.00,2.59
7646.00,2.59
7645.00,2.58
7644.00,2.58
7643.00,2.58
7642.00,2.58
7641.00,2.57
7640.00,2.57
7639.00,2.56
7638.00,2.56
7637.00,2.55
7636.00,2.55
7635.00,2.54
7634.00,2.54
7633.00,2.54
7632.00,2.53
7631.00,2.53
7630.00,2.52
7629.00,2.52
7628.00,2.51
7627.00,2.51
7626.00,2.51
7625.00,2.50
7624.00,2.50
7623.00,2.50
7622.00,2.49
7621.00,2.49
7620.00,2.49
7619.00,2.49
7618.00,2.48
7617.00,2.48
7616.00,2.48
7615.00,2.47
7614.00,2.47
7613.00,2.47
7612.00,2.47
7611.00,2.46
7610.00,2.46
7609.00,2.46
7608.00,2.46
7607.00,2.46
7606.00,2.46
7605.00,2.45
7604.00,2.45
7603.00,2.45
7602.00,2.45
7601.00,2.45
7600.00,2.45
7599.00,2.45
7598.00,2.45
7597.00,2.44
7596.00,2.44
7595.00,2.44
7594.00,2.44
7593.00,2.44
7592.00,2.45
7591.00,2.45
7590.00,2.45
7589.00,2.45
7588.00,2.45
7587.00,2.45
7586.00,2.45
7585.00,2.45
7584.00,2.45
7583.00,2.45
7582.00,2.45
7581.00,2.44
7580.00,2.44
7579.00,2.44
7578.00,2.44
7577.00,2.44
7576.00,2.44
7575.00,2.44
7574.00,2.44
7573.00,2.44
7572.00,2.44
7571.00,2.43
7570.00,2.43
7569.00,2.43
7568.00,2.43
7567.00,2.43
7566.00,2.43
7565.00,2.42
7564.00,2.42
7563.00,2.42
7562.00,2.42
7561.00,2.42
7560.00,2.42
7559.00,2.42
7558.00,2.42
7557.00,2.42
7556.00,2.42
7555.00,2.43
7554.00,2.43
7553.00,2.43
7552.00,2.43
7551.00,2.44
7550.00,2.44
7549.00,2.44
7548.00,2.44
7547.00,2.44
7546.00,2.44
7545.00,2.44
7544.00,2.45
7543.00,2.45
7542.00,2.45
7541.00,2.46
7540.00,2.46
7539.00,2.46
7538.00,2.47
7537.00,2.47
7536.00,2.48
7535.00,2.48
7534.00,2.48
7533.00,2.49
7532.00,2.49
7531.00,2.49
7530.00,2.49
7529.00,2.49
7528.00,2.49
7527.00,2.49
7526.00,2.49
7525.00,2.49
7524.00,2.49
7523.00,2.49
7522.00,2.48
7521.00,2.48
7520.00,2.48
7519.00,2.48
7518.00,2.48
7517.00,2.47
7516.00,2.47
7515.00,2.47
7514.00,2.46
7513.00,2.46
7512.00,2.45
7511.00,2.45
7510.00,2.44
7509.00,2.43
7508.00,2.43
7507.00,2.42
7506.00,2.42
7505.00,2.41
7504.00,2.41
7503.00,2.41
7502.00,2.40
7501.00,2.40
7500.00,2.40
7499.00,2.40
7498.00,2.40
7497.00,2.40
7496.00,2.40
7495.00,2.40
7494.00,2.40
7493.00,2.40
7492.00,2.41
7491.00,2.41
7490.00,2.41
7489.00,2.41
7488.00,2.42
7487.00,2.42
7486.00,2.42
7485.00,2.43
7484.00,2.43
7483.00,2.43
7482.00,2.43
7481.00,2.43
7480.00,2.44
7479.00,2.44
7478.00,2.44
7477.00,2.44
7476.00,2.43
7475.00,2.43
7474.00,2.43
7473.00,2.43
7472.00,2.43
7471.00,2.43
7470.00,2.43
7469.00,2.42
7468.00,2.42
7467.00,2.42
7466.00,2.41
7465.00,2.41
7464.00,2.41
7463.00,2.40
7462.00,2.40
7461.00,2.39
7460.00,2.39
7459.00,2.38
7458.00,2.38
7457.00,2.37
7456.00,2.37
7455.00,2.37
7454.00,2.36
7453.00,2.36
7452.00,2.36
7451.00,2.35
7450.00,2.35
7449.00,2.35
7448.00,2.35
7447.00,2.34
7446.00,2.34
7445.00,2.34
7444.00,2.33
7443.00,2.33
7442.00,2.33
7441.00,2.33
7440.00,2.33
7439.00,2.33
7438.00,2.32
7437.00,2.32
7436.00,2.32
7435.00,2.32
7434.00,2.32
7433.00,2.32
7432.00,2.33
7431.00,2.33
7430.00,2.33
7429.00,2.33
7428.00,2.33
7427.00,2.33
7426.00,2.33
7425.00,2.33
7424.00,2.34
7423.00,2.34
7422.00,2.34
7421.00,2.35
7420.00,2.35
7419.00,2.35
7418.00,2.36
7417.00,2.36
7416.00,2.37
7415.00,2.37
7414.00,2.37
7413.00,2.37
7412.00,2.37
7411.00,2.38
7410.00,2.38
7409.00,2.38
7408.00,2.38
7407.00,2.38
7406.00,2.38
7405.00,2.38
7404.00,2.38
7403.00,2.38
7402.00,2.38
7401.00,2.38
7400.00,2.38
7399.00,2.38
7398.00,2.37
7397.00,2.37
7396.00,2.36
7395.00,2.36
7394.00,2.36
7393.00,2.35
7392.00,2.35
7391.00,2.34
7390.00,2.34
7389.00,2.33
7388.00,2.33
7387.00,2.33
7386.00,2.32
7385.00,2.32
7384.00,2.32
7383.00,2.31
7382.00,2.31
7381.00,2.31
7380.00,2.30
7379.00,2.30
7378.00,2.30
7377.00,2.30
7376.00,2.30
7375.00,2.30
7374.00,2.30
7373.00,2.30
7372.00,2.30
7371.00,2.30
7370.00,2.30
7369.00,2.30
7368.00,2.30
7367.00,2.30
7366.00,2.30
7365.00,2.30
7364.00,2.30
7363.00,2.30
7362.00,2.30
7361.00,2.30
7360.00,2.30
7359.00,2.30
7358.00,2.30
7357.00,2.30
7356.00,2.29
7355.00,2.29
7354.00,2.29
7353.00,2.28
7352.00,2.28
7351.00,2.28
7350.00,2.27
7349.00,2.27
7348.00,2.27
7347.00,2.26
7346.00,2.26
7345.00,2.25
7344.00,2.25
7343.00,2.24
7342.00,2.24
7341.00,2.23
7340.00,2.23
7339.00,2.23
7338.00,2.22
7337.00,2.22
7336.00,2.22
7335.00,2.21
7334.00,2.21
7333.00,2.21
7332.00,2.21
7331.00,2.21
7330.00,2.21
7329.00,2.21
7328.00,2.21
7327.00,2.21
7326.00,2.21
7325.00,2.21
7324.00,2.21
7323.00,2.21
7322.00,2.21
7321.00,2.21
7320.00,2.20
7319.00,2.20
7318.00,2.21
7317.00,2.21
7316.00,2.21
7315.00,2.21
7314.00,2.21
7313.00,2.21
7312.00,2.21
7311.00,2.20
7310.00,2.20
7309.00,2.20
7308.00,2.20
7307.00,2.19
7306.00,2.19
7305.00,2.18
7304.00,2.18
7303.00,2.18
7302.00,2.17
7301.00,2.17
7300.00,2.17
7299.00,2.17
7298.00,2.16
7297.00,2.16
7296.00,2.16
7295.00,2.16
7294.00,2.16
7293.00,2.16
7292.00,2.16
7291.00,2.16
7290.00,2.16
7289.00,2.16
7288.00,2.16
7287.00,2.16
7286.00,2.17
7285.00,2.17
7284.00,2.17
7283.00,2.18
7282.00,2.19
7281.00,2.19
7280.00,2.20
7279.00,2.21
7278.00,2.21
7277.00,2.22
7276.00,2.22
7275.00,2.23
7274.00,2.23
7273.00,2.24
7272.00,2.24
7271.00,2.24
7270.00,2.24
7269.00,2.24
7268.00,2.24
7267.00,2.24
7266.00,2.24
7265.00,2.24
7264.00,2.24
7263.00,2.23
7262.00,2.23
7261.00,2.23
7260.00,2.22
7259.00,2.22
7258.00,2.21
7257.00,2.20
7256.00,2.19
7255.00,2.18
7254.00,2.17
7253.00,2.16
7252.00,2.15
7251.00,2.14
7250.00,2.13
7249.00,2.11
7248.00,2.10
7247.00,2.09
7246.00,2.08
7245.00,2.07
7244.00,2.06
7243.00,2.05
7242.00,2.04
7241.00,2.03
7240.00,2.02
7239.00,2.02
7238.00,2.01
7237.00,2.00
7236.00,1.99
7235.00,1.99
7234.00,1.98
7233.00,1.97
7232.00,1.97
7231.00,1.96
7230.00,1.96
7229.00,1.95
7228.00,1.95
7227.00,1.95
7226.00,1.95
7225.00,1.94
7224.00,1.94
7223.00,1.94
7222.00,1.95
7221.00,1.95
7220.00,1.95
7219.00,1.95
7218.00,1.95
7217.00,1.96
7216.00,1.96
7215.00,1.96
7214.00,1.96
7213.00,1.97
7212.00,1.97
7211.00,1.97
7210.00,1.97
7209.00,1.97
7208.00,1.97
7207.00,1.97
7206.00,1.97
7205.00,1.97
7204.00,1.97
7203.00,1.97
7202.00,1.97
7201.00,1.96
7200.00,1.96
7199.00,1.96
7198.00,1.95
7197.00,1.95
7196.00,1.94
7195.00,1.94
7194.00,1.93
7193.00,1.92
7192.00,1.91
7191.00,1.90
7190.00,1.89
7189.00,1.89
7188.00,1.88
7187.00,1.87
7186.00,1.86
7185.00,1.85
7184.00,1.84
7183.00,1.83
7182.00,1.83
7181.00,1.82
7180.00,1.81
7179.00,1.80
7178.00,1.80
7177.00,1.79
7176.00,1.78
7175.00,1.78
7174.00,1.77
7173.00,1.76
7172.00,1.76
7171.00,1.75
7170.00,1.74
7169.00,1.74
7168.00,1.73
7167.00,1.73
7166.00,1.72
7165.00,1.72
7164.00,1.71
7163.00,1.71
7162.00,1.70
7161.00,1.70
7160.00,1.69
7159.00,1.68
7158.00,1.68
7157.00,1.67
7156.00,1.66
7155.00,1.66
7154.00,1.65
7153.00,1.64
7152.00,1.63
7151.00,1.63
7150.00,1.62
7149.00,1.62
7148.00,1.61
7147.00,1.61
7146.00,1.60
7145.00,1.60
7144.00,1.60
7143.00,1.59
7142.00,1.59
7141.00,1.58
7140.00,1.58
7139.00,1.58
7138.00,1.57
7137.00,1.57
7136.00,1.57
7135.00,1.57
7134.00,1.57
7133.00,1.57
7132.00,1.57
7131.00,1.57
7130.00,1.57
7129.00,1.57
7128.00,1.58
7127.00,1.58
7126.00,1.58
7125.00,1.58
7124.00,1.58
7123.00,1.58
7122.00,1.57
7121.00,1.57
7120.00,1.57
7119.00,1.57
7118.00,1.56
7117.00,1.56
7116.00,1.56
7115.00,1.56
7114.00,1.55
7113.00,1.55
7112.00,1.55
7111.00,1.55
7110.00,1.54
7109.00,1.54
7108.00,1.53
7107.00,1.53
7106.00,1.52
7105.00,1.52
7104.00,1.51
7103.00,1.50
7102.00,1.50
7101.00,1.49
7100.00,1.48
7099.00,1.48
7098.00,1.47
7097.00,1.47
7096.00,1.46
7095.00,1.46
7094.00,1.45
7093.00,1.45
7092.00,1.45
7091.00,1.44
7090.00,1.44
7089.00,1.43
7088.00,1.43
7087.00,1.42
7086.00,1.42
7085.00,1.41
7084.00,1.41
7083.00,1.40
7082.00,1.40
7081.00,1.39
7080.00,1.39
7079.00,1.39
7078.00,1.38
7077.00,1.38
7076.00,1.37
7075.00,1.37
7074.00,1.37
7073.00,1.36
7072.00,1.36
7071.00,1.36
7070.00,1.35
7069.00,1.35
7068.00,1.35
7067.00,1.34
7066.00,1.34
7065.00,1.34
7064.00,1.33
7063.00,1.33
7062.00,1.33
7061.00,1.33
7060.00,1.33
7059.00,1.32
7058.00,1.32
7057.00,1.32
7056.00,1.32
7055.00,1.32
7054.00,1.33
7053.00,1.33
7052.00,1.33
7051.00,1.33
7050.00,1.33
7049.00,1.33
7048.00,1.33
7047.00,1.33
7046.00,1.33
7045.00,1.33
7044.00,1.33
7043.00,1.33
7042.00,1.34
7041.00,1.34
7040.00,1.34
7039.00,1.34
7038.00,1.34
7037.00,1.34
7036.00,1.35
7035.00,1.35
7034.00,1.35
7033.00,1.35
7032.00,1.35
7031.00,1.35
7030.00,1.35
7029.00,1.34
7028.00,1.34
7027.00,1.34
7026.00,1.34
7025.00,1.33
7024.00,1.33
7023.00,1.33
7022.00,1.33
7021.00,1.33
7020.00,1.33
7019.00,1.33
7018.00,1.32
7017.00,1.32
7016.00,1.32
7015.00,1.32
7014.00,1.32
7013.00,1.31
7012.00,1.31
7011.00,1.31
7010.00,1.30
7009.00,1.30
7008.00,1.30
7007.00,1.29
7006.00,1.29
7005.00,1.29
7004.00,1.28
7003.00,1.28
7002.00,1.28
7001.00,1.28
7000.00,1.27
6999.00,1.27
6998.00,1.27
6997.00,1.27
6996.00,1.26
6995.00,1.26
6994.00,1.26
6993.00,1.25
6992.00,1.25
6991.00,1.25
6990.00,1.25
6989.00,1.25
6988.00,1.24
6987.00,1.24
6986.00,1.24
6985.00,1.24
6984.00,1.24
6983.00,1.24
6982.00,1.24
6981.00,1.24
6980.00,1.24
6979.00,1.24
6978.00,1.24
6977.00,1.24
6976.00,1.24
6975.00,1.25
6974.00,1.25
6973.00,1.25
6972.00,1.25
6971.00,1.25
6970.00,1.26
6969.00,1.26
6968.00,1.26
6967.00,1.26
6966.00,1.27
6965.00,1.27
6964.00,1.27
6963.00,1.27
6962.00,1.27
6961.00,1.27
6960.00,1.27
6959.00,1.27
6958.00,1.27
6957.00,1.27
6956.00,1.27
6955.00,1.27
6954.00,1.27
6953.00,1.27
6952.00,1.27
6951.00,1.27
6950.00,1.27
6949.00,1.27
6948.00,1.26
6947.00,1.26
6946.00,1.26
6945.00,1.25
6944.00,1.25
6943.00,1.25
6942.00,1.24
6941.00,1.24
6940.00,1.23
6939.00,1.23
6938.00,1.23
6937.00,1.22
6936.00,1.22
6935.00,1.22
6934.00,1.21
6933.00,1.21
6932.00,1.21
6931.00,1.21
6930.00,1.20
6929.00,1.20
6928.00,1.20
6927.00,1.20
6926.00,1.19
6925.00,1.19
6924.00,1.19
6923.00,1.19
6922.00,1.19
6921.00,1.19
6920.00,1.19
6919.00,1.19
6918.00,1.19
6917.00,1.20
6916.00,1.20
6915.00,1.20
6914.00,1.21
6913.00,1.21
6912.00,1.21
6911.00,1.22
6910.00,1.22
6909.00,1.23
6908.00,1.23
6907.00,1.23
6906.00,1.24
6905.00,1.24
6904.00,1.24
6903.00,1.25
6902.00,1.25
6901.00,1.25
6900.00,1.25
6899.00,1.26
6898.00,1.26
6897.00,1.26
6896.00,1.26
6895.00,1.27
6894.00,1.27
6893.00,1.26
6892.00,1.26
6891.00,1.26
6890.00,1.26
6889.00,1.25
6888.00,1.25
6887.00,1.24
6886.00,1.24
6885.00,1.23
6884.00,1.23
6883.00,1.22
6882.00,1.22
6881.00,1.21
6880.00,1.21
6879.00,1.20
6878.00,1.19
6877.00,1.19
6876.00,1.18
6875.00,1.18
6874.00,1.17
6873.00,1.17
6872.00,1.16
6871.00,1.16
6870.00,1.16
6869.00,1.15
6868.00,1.15
6867.00,1.15
6866.00,1.15
6865.00,1.15
6864.00,1.15
6863.00,1.15
6862.00,1.15
6861.00,1.15
6860.00,1.15
6859.00,1.15
6858.00,1.16
6857.00,1.16
6856.00,1.16
6855.00,1.16
6854.00,1.17
6853.00,1.17
6852.00,1.18
6851.00,1.18
6850.00,1.18
6849.00,1.19
6848.00,1.19
6847.00,1.20
6846.00,1.20
6845.00,1.21
6844.00,1.21
6843.00,1.22
6842.00,1.22
6841.00,1.23
6840.00,1.23
6839.00,1.24
6838.00,1.24
6837.00,1.24
6836.00,1.25
6835.00,1.25
6834.00,1.25
6833.00,1.25
6832.00,1.26
6831.00,1.26
6830.00,1.26
6829.00,1.26
6828.00,1.26
6827.00,1.26
6826.00,1.27
6825.00,1.27
6824.00,1.27
6823.00,1.27
6822.00,1.27
6821.00,1.27
6820.00,1.27
6819.00,1.27
6818.00,1.27
6817.00,1.27
6816.00,1.27
6815.00,1.27
6814.00,1.27
6813.00,1.27
6812.00,1.27
6811.00,1.28
6810.00,1.28
6809.00,1.28
6808.00,1.28
6807.00,1.28
6806.00,1.28
6805.00,1.29
6804.00,1.29
6803.00,1.29
6802.00,1.29
6801.00,1.30
6800.00,1.30
6799.00,1.30
6798.00,1.30
6797.00,1.31
6796.00,1.31
6795.00,1.31
6794.00,1.31
6793.00,1.31
6792.00,1.31
6791.00,1.31
6790.00,1.31
6789.00,1.31
6788.00,1.30
6787.00,1.30
6786.00,1.30
6785.00,1.30
6784.00,1.29
6783.00,1.29
6782.00,1.29
6781.00,1.28
6780.00,1.28
6779.00,1.27
6778.00,1.26
6777.00,1.26
6776.00,1.25
6775.00,1.25
6774.00,1.25
6773.00,1.24
6772.00,1.24
6771.00,1.23
6770.00,1.23
6769.00,1.23
6768.00,1.23
6767.00,1.22
6766.00,1.22
6765.00,1.22
6764.00,1.22
6763.00,1.22
6762.00,1.22
6761.00,1.22
6760.00,1.23
6759.00,1.23
6758.00,1.23
6757.00,1.24
6756.00,1.24
6755.00,1.25
6754.00,1.26
6753.00,1.26
6752.00,1.27
6751.00,1.27
6750.00,1.28
6749.00,1.28
6748.00,1.29
6747.00,1.29
6746.00,1.29
6745.00,1.29
6744.00,1.30
6743.00,1.30
6742.00,1.30
6741.00,1.31
6740.00,1.31
6739.00,1.31
6738.00,1.31
6737.00,1.32
6736.00,1.32
6735.00,1.32
6734.00,1.32
6733.00,1.32
6732.00,1.32
6731.00,1.32
6730.00,1.33
6729.00,1.33
6728.00,1.33
6727.00,1.33
6726.00,1.33
6725.00,1.33
6724.00,1.33
6723.00,1.33
6722.00,1.33
6721.00,1.34
6720.00,1.34
6719.00,1.35
6718.00,1.35
6717.00,1.35
6716.00,1.36
6715.00,1.36
6714.00,1.36
6713.00,1.37
6712.00,1.37
6711.00,1.38
6710.00,1.38
6709.00,1.38
6708.00,1.39
6707.00,1.39
6706.00,1.39
6705.00,1.39
6704.00,1.40
6703.00,1.40
6702.00,1.40
6701.00,1.40
6700.00,1.40
6699.00,1.40
6698.00,1.40
6697.00,1.40
6696.00,1.40
6695.00,1.40
6694.00,1.40
6693.00,1.40
6692.00,1.40
6691.00,1.40
6690.00,1.40
6689.00,1.40
6688.00,1.40
6687.00,1.40
6686.00,1.39
6685.00,1.39
6684.00,1.39
6683.00,1.39
6682.00,1.39
6681.00,1.39
6680.00,1.39
6679.00,1.39
6678.00,1.39
6677.00,1.39
6676.00,1.39
6675.00,1.39
6674.00,1.39
6673.00,1.39
6672.00,1.39
6671.00,1.39
6670.00,1.39
6669.00,1.40
6668.00,1.40
6667.00,1.40
6666.00,1.40
6665.00,1.40
6664.00,1.41
6663.00,1.41
6662.00,1.41
6661.00,1.41
6660.00,1.42
6659.00,1.42
6658.00,1.42
6657.00,1.42
6656.00,1.42
6655.00,1.43
6654.00,1.43
6653.00,1.43
6652.00,1.44
6651.00,1.44
6650.00,1.44
6649.00,1.45
6648.00,1.45
6647.00,1.45
6646.00,1.45
6645.00,1.46
6644.00,1.46
6643.00,1.46
6642.00,1.46
6641.00,1.47
6640.00,1.47
6639.00,1.47
6638.00,1.47
6637.00,1.48
6636.00,1.48
6635.00,1.48
6634.00,1.48
6633.00,1.48
6632.00,1.49
6631.00,1.49
6630.00,1.49
6629.00,1.49
6628.00,1.49
6627.00,1.50
6626.00,1.50
6625.00,1.50
6624.00,1.50
6623.00,1.50
6622.00,1.50
6621.00,1.50
6620.00,1.50
6619.00,1.50
6618.00,1.50
6617.00,1.50
6616.00,1.51
6615.00,1.51
6614.00,1.51
6613.00,1.51
6612.00,1.51
6611.00,1.51
6610.00,1.51
6609.00,1.51
6608.00,1.51
6607.00,1.52
6606.00,1.52
6605.00,1.52
6604.00,1.52
6603.00,1.52
6602.00,1.52
6601.00,1.52
6600.00,1.53
6599.00,1.53
6598.00,1.53
6597.00,1.53
6596.00,1.54
6595.00,1.54
6594.00,1.54
6593.00,1.55
6592.00,1.55
6591.00,1.55
6590.00,1.56
6589.00,1.56
6588.00,1.56
6587.00,1.57
6586.00,1.57
6585.00,1.57
6584.00,1.57
6583.00,1.58
6582.00,1.58
6581.00,1.58
6580.00,1.59
6579.00,1.59
6578.00,1.59
6577.00,1.59
6576.00,1.60
6575.00,1.60
6574.00,1.60
6573.00,1.60
6572.00,1.60
6571.00,1.60
6570.00,1.60
6569.00,1.60
6568.00,1.60
6567.00,1.60
6566.00,1.60
6565.00,1.60
6564.00,1.60
6563.00,1.60
6562.00,1.60
6561.00,1.59
6560.00,1.59
6559.00,1.59
6558.00,1.59
6557.00,1.59
6556.00,1.59
6555.00,1.59
6554.00,1.59
6553.00,1.60
6552.00,1.60
6551.00,1.60
6550.00,1.60
6549.00,1.60
6548.00,1.61
6547.00,1.61
6546.00,1.61
6545.00,1.61
6544.00,1.62
6543.00,1.62
6542.00,1.62
6541.00,1.63
6540.00,1.63
6539.00,1.64
6538.00,1.64
6537.00,1.65
6536.00,1.65
6535.00,1.65
6534.00,1.66
6533.00,1.66
6532.00,1.67
6531.00,1.67
6530.00,1.67
6529.00,1.67
6528.00,1.67
6527.00,1.67
6526.00,1.67
6525.00,1.67
6524.00,1.67
6523.00,1.67
6522.00,1.67
6521.00,1.67
6520.00,1.67
6519.00,1.67
6518.00,1.67
6517.00,1.67
6516.00,1.67
6515.00,1.67
6514.00,1.66
6513.00,1.66
6512.00,1.66
6511.00,1.66
6510.00,1.66
6509.00,1.66
6508.00,1.66
6507.00,1.65
6506.00,1.65
6505.00,1.65
6504.00,1.65
6503.00,1.65
6502.00,1.65
6501.00,1.65
6500.00,1.65
6499.00,1.65
6498.00,1.65
6497.00,1.66
6496.00,1.66
6495.00,1.66
6494.00,1.66
6493.00,1.66
6492.00,1.66
6491.00,1.66
6490.00,1.66
6489.00,1.66
6488.00,1.67
6487.00,1.67
6486.00,1.67
6485.00,1.67
6484.00,1.67
6483.00,1.68
6482.00,1.68
6481.00,1.68
6480.00,1.68
6479.00,1.69
6478.00,1.69
6477.00,1.69
6476.00,1.70
6475.00,1.70
6474.00,1.70
6473.00,1.70
6472.00,1.70
6471.00,1.71
6470.00,1.71
6469.00,1.71
6468.00,1.71
6467.00,1.71
6466.00,1.71
6465.00,1.71
6464.00,1.71
6463.00,1.72
6462.00,1.72
6461.00,1.72
6460.00,1.72
6459.00,1.72
6458.00,1.72
6457.00,1.72
6456.00,1.72
6455.00,1.72
6454.00,1.72
6453.00,1.72
6452.00,1.72
6451.00,1.72
6450.00,1.72
6449.00,1.72
6448.00,1.72
6447.00,1.72
6446.00,1.72
6445.00,1.72
6444.00,1.72
6443.00,1.72
6442.00,1.72
6441.00,1.72
6440.00,1.72
6439.00,1.72
6438.00,1.72
6437.00,1.73
6436.00,1.73
6435.00,1.73
6434.00,1.73
6433.00,1.74
6432.00,1.74
6431.00,1.74
6430.00,1.75
6429.00,1.75
6428.00,1.75
6427.00,1.76
6426.00,1.76
6425.00,1.76
6424.00,1.77
6423.00,1.77
6422.00,1.77
6421.00,1.78
6420.00,1.78
6419.00,1.78
6418.00,1.79
6417.00,1.79
6416.00,1.79
6415.00,1.80
6414.00,1.80
6413.00,1.80
6412.00,1.80
6411.00,1.80
6410.00,1.80
6409.00,1.80
6408.00,1.80
6407.00,1.80
6406.00,1.80
6405.00,1.80
6404.00,1.80
6403.00,1.80
6402.00,1.80
6401.00,1.80
6400.00,1.80
6399.00,1.80
6398.00,1.80
6397.00,1.80
6396.00,1.80
6395.00,1.80
6394.00,1.80
6393.00,1.80
6392.00,1.80
6391.00,1.80
6390.00,1.80
6389.00,1.80
6388.00,1.80
6387.00,1.80
6386.00,1.80
6385.00,1.80
6384.00,1.80
6383.00,1.80
6382.00,1.81
6381.00,1.81
6380.00,1.81
6379.00,1.81
6378.00,1.81
6377.00,1.82
6376.00,1.82
6375.00,1.82
6374.00,1.83
6373.00,1.83
6372.00,1.83
6371.00,1.83
6370.00,1.84
6369.00,1.84
6368.00,1.84
6367.00,1.84
6366.00,1.84
6365.00,1.84
6364.00,1.84
6363.00,1.84
6362.00,1.85
6361.00,1.85
6360.00,1.85
6359.00,1.85
6358.00,1.86
6357.00,1.86
6356.00,1.86
6355.00,1.87
6354.00,1.87
6353.00,1.87
6352.00,1.87
6351.00,1.88
6350.00,1.88
6349.00,1.88
6348.00,1.88
6347.00,1.88
6346.00,1.88
6345.00,1.89
6344.00,1.89
6343.00,1.89
6342.00,1.89
6341.00,1.89
6340.00,1.90
6339.00,1.90
6338.00,1.90
6337.00,1.91
6336.00,1.91
6335.00,1.91
6334.00,1.91
6333.00,1.92
6332.00,1.92
6331.00,1.92
6330.00,1.92
6329.00,1.92
6328.00,1.93
6327.00,1.93
6326.00,1.93
6325.00,1.93
6324.00,1.94
6323.00,1.94
6322.00,1.94
6321.00,1.95
6320.00,1.95
6319.00,1.95
6318.00,1.96
6317.00,1.96
6316.00,1.96
6315.00,1.97
6314.00,1.97
6313.00,1.97
6312.00,1.97
6311.00,1.98
6310.00,1.98
6309.00,1.98
6308.00,1.98
6307.00,1.99
6306.00,1.99
6305.00,1.99
6304.00,1.99
6303.00,1.99
6302.00,2.00
6301.00,2.00
6300.00,2.00
6299.00,2.00
6298.00,2.00
6297.00,2.00
6296.00,2.00
6295.00,2.00
6294.00,2.00
6293.00,2.00
6292.00,1.99
6291.00,1.99
6290.00,1.99
6289.00,1.99
6288.00,1.99
6287.00,1.99
6286.00,1.99
6285.00,1.99
6284.00,1.99
6283.00,1.98
6282.00,1.98
6281.00,1.98
6280.00,1.98
6279.00,1.98
6278.00,1.98
6277.00,1.98
6276.00,1.98
6275.00,1.98
6274.00,1.98
6273.00,1.98
6272.00,1.98
6271.00,1.98
6270.00,1.98
6269.00,1.98
6268.00,1.98
6267.00,1.99
6266.00,1.99
6265.00,1.99
6264.00,1.99
6263.00,2.00
6262.00,2.00
6261.00,2.01
6260.00,2.01
6259.00,2.01
6258.00,2.02
6257.00,2.02
6256.00,2.03
6255.00,2.03
6254.00,2.04
6253.00,2.04
6252.00,2.05
6251.00,2.06
6250.00,2.06
6249.00,2.07
6248.00,2.07
6247.00,2.08
6246.00,2.08
6245.00,2.09
6244.00,2.09
6243.00,2.10
6242.00,2.10
6241.00,2.11
6240.00,2.11
6239.00,2.12
6238.00,2.12
6237.00,2.13
6236.00,2.13
6235.00,2.13
6234.00,2.14
6233.00,2.14
6232.00,2.14
6231.00,2.14
6230.00,2.14
6229.00,2.14
6228.00,2.15
6227.00,2.15
6226.00,2.15
6225.00,2.15
6224.00,2.15
6223.00,2.15
6222.00,2.15
6221.00,2.15
6220.00,2.15
6219.00,2.15
6218.00,2.15
6217.00,2.15
6216.00,2.15
6215.00,2.15
6214.00,2.15
6213.00,2.15
6212.00,2.15
6211.00,2.15
6210.00,2.15
6209.00,2.15
6208.00,2.15
6207.00,2.15
6206.00,2.15
6205.00,2.15
6204.00,2.15
6203.00,2.15
6202.00,2.15
6201.00,2.15
6200.00,2.15
6199.00,2.15
6198.00,2.15
6197.00,2.15
6196.00,2.15
6195.00,2.15
6194.00,2.15
6193.00,2.15
6192.00,2.15
6191.00,2.15
6190.00,2.16
6189.00,2.16
6188.00,2.16
6187.00,2.16
6186.00,2.17
6185.00,2.17
6184.00,2.17
6183.00,2.17
6182.00,2.18
6181.00,2.18
6180.00,2.18
6179.00,2.18
6178.00,2.19
6177.00,2.19
6176.00,2.19
6175.00,2.19
6174.00,2.20
6173.00,2.20
6172.00,2.20
6171.00,2.20
6170.00,2.21
6169.00,2.21
6168.00,2.21
6167.00,2.21
6166.00,2.21
6165.00,2.21
6164.00,2.22
6163.00,2.22
6162.00,2.22
6161.00,2.22
6160.00,2.22
6159.00,2.22
6158.00,2.23
6157.00,2.23
6156.00,2.23
6155.00,2.23
6154.00,2.24
6153.00,2.24
6152.00,2.24
6151.00,2.24
6150.00,2.25
6149.00,2.25
6148.00,2.25
6147.00,2.26
6146.00,2.26
6145.00,2.26
6144.00,2.27
6143.00,2.27
6142.00,2.27
6141.00,2.27
6140.00,2.28
6139.00,2.28
6138.00,2.28
6137.00,2.28
6136.00,2.29
6135.00,2.29
6134.00,2.29
6133.00,2.29
6132.00,2.29
6131.00,2.29
6130.00,2.30
6129.00,2.30
6128.00,2.30
6127.00,2.30
6126.00,2.30
6125.00,2.30
6124.00,2.30
6123.00,2.30
6122.00,2.30
6121.00,2.31
6120.00,2.31
6119.00,2.31
6118.00,2.31
6117.00,2.31
6116.00,2.31
6115.00,2.31
6114.00,2.31
6113.00,2.32
6112.00,2.32
6111.00,2.32
6110.00,2.33
6109.00,2.33
6108.00,2.34
6107.00,2.34
6106.00,2.34
6105.00,2.35
6104.00,2.35
6103.00,2.35
6102.00,2.35
6101.00,2.36
6100.00,2.36
6099.00,2.36
6098.00,2.37
6097.00,2.37
6096.00,2.37
6095.00,2.37
6094.00,2.38
6093.00,2.38
6092.00,2.38
6091.00,2.39
6090.00,2.39
6089.00,2.39
6088.00,2.40
6087.00,2.40
6086.00,2.40
6085.00,2.40
6084.00,2.41
6083.00,2.41
6082.00,2.41
6081.00,2.41
6080.00,2.41
6079.00,2.42
6078.00,2.42
6077.00,2.42
6076.00,2.42
6075.00,2.43
6074.00,2.43
6073.00,2.43
6072.00,2.43
6071.00,2.43
6070.00,2.44
6069.00,2.44
6068.00,2.44
6067.00,2.44
6066.00,2.44
6065.00,2.44
6064.00,2.45
6063.00,2.45
6062.00,2.45
6061.00,2.45
6060.00,2.46
6059.00,2.46
6058.00,2.46
6057.00,2.46
6056.00,2.46
6055.00,2.47
6054.00,2.47
6053.00,2.47
6052.00,2.47
6051.00,2.48
6050.00,2.48
6049.00,2.48
6048.00,2.48
6047.00,2.48
6046.00,2.49
6045.00,2.49
6044.00,2.49
6043.00,2.49
6042.00,2.49
6041.00,2.50
6040.00,2.50
6039.00,2.50
6038.00,2.50
6037.00,2.50
6036.00,2.50
6035.00,2.50
6034.00,2.50
6033.00,2.50
6032.00,2.50
6031.00,2.51
6030.00,2.51
6029.00,2.51
6028.00,2.51
6027.00,2.51
6026.00,2.51
6025.00,2.51
6024.00,2.51
6023.00,2.51
6022.00,2.51
6021.00,2.51
6020.00,2.51
6019.00,2.51
6018.00,2.51
6017.00,2.51
6016.00,2.51
6015.00,2.51
6014.00,2.51
6013.00,2.51
6012.00,2.51
6011.00,2.51
6010.00,2.51
6009.00,2.51
6008.00,2.51
6007.00,2.50
6006.00,2.50
6005.00,2.50
6004.00,2.50
6003.00,2.50
6002.00,2.49
6001.00,2.49
6000.00,2.49
5999.00,2.49
5998.00,2.48
5997.00,2.48
5996.00,2.47
5995.00,2.47
5994.00,2.47
5993.00,2.46
5992.00,2.46
5991.00,2.45
5990.00,2.45
5989.00,2.45
5988.00,2.44
5987.00,2.44
5986.00,2.43
5985.00,2.42
5984.00,2.42
5983.00,2.41
5982.00,2.41
5981.00,2.40
5980.00,2.40
5979.00,2.39
5978.00,2.39
5977.00,2.38
5976.00,2.37
5975.00,2.37
5974.00,2.36
5973.00,2.35
5972.00,2.35
5971.00,2.34
5970.00,2.33
5969.00,2.32
5968.00,2.32
5967.00,2.31
5966.00,2.30
5965.00,2.29
5964.00,2.28
5963.00,2.27
5962.00,2.26
5961.00,2.26
5960.00,2.25
5959.00,2.24
5958.00,2.23
5957.00,2.22
5956.00,2.21
5955.00,2.21
5954.00,2.20
5953.00,2.19
5952.00,2.18
5951.00,2.17
5950.00,2.17
5949.00,2.16
5948.00,2.15
5947.00,2.15
5946.00,2.14
5945.00,2.14
5944.00,2.13
5943.00,2.13
5942.00,2.12
5941.00,2.12
5940.00,2.12
5939.00,2.11
5938.00,2.11
5937.00,2.11
5936.00,2.10
5935.00,2.10
5934.00,2.10
5933.00,2.10
5932.00,2.10
5931.00,2.10
5930.00,2.09
5929.00,2.09
5928.00,2.09
5927.00,2.09
5926.00,2.09
5925.00,2.09
5924.00,2.09
5923.00,2.09
5922.00,2.09
5921.00,2.09
5920.00,2.09
5919.00,2.09
5918.00,2.09
5917.00,2.08
5916.00,2.08
5915.00,2.08
5914.00,2.08
5913.00,2.08
5912.00,2.08
5911.00,2.08
5910.00,2.08
5909.00,2.08
5908.00,2.08
5907.00,2.08
5906.00,2.08
5905.00,2.08
5904.00,2.07
5903.00,2.07
5902.00,2.07
5901.00,2.07
5900.00,2.07
5899.00,2.07
5898.00,2.07
5897.00,2.07
5896.00,2.07
5895.00,2.07
5894.00,2.08
5893.00,2.08
5892.00,2.08
5891.00,2.08
5890.00,2.09
5889.00,2.09
5888.00,2.09
5887.00,2.09
5886.00,2.10
5885.00,2.10
5884.00,2.10
5883.00,2.11
5882.00,2.11
5881.00,2.11
5880.00,2.12
5879.00,2.12
5878.00,2.13
5877.00,2.13
5876.00,2.13
5875.00,2.14
5874.00,2.14
5873.00,2.14
5872.00,2.15
5871.00,2.15
5870.00,2.15
5869.00,2.16
5868.00,2.16
5867.00,2.16
5866.00,2.16
5865.00,2.16
5864.00,2.16
5863.00,2.17
5862.00,2.17
5861.00,2.17
5860.00,2.17
5859.00,2.17
5858.00,2.16
5857.00,2.16
5856.00,2.16
5855.00,2.16
5854.00,2.16
5853.00,2.16
5852.00,2.16
5851.00,2.15
5850.00,2.15
5849.00,2.15
5848.00,2.15
5847.00,2.15
5846.00,2.15
5845.00,2.14
5844.00,2.14
5843.00,2.14
5842.00,2.14
5841.00,2.14
5840.00,2.14
5839.00,2.14
5838.00,2.14
5837.00,2.14
5836.00,2.14
5835.00,2.14
5834.00,2.14
5833.00,2.14
5832.00,2.14
5831.00,2.14
5830.00,2.15
5829.00,2.15
5828.00,2.15
5827.00,2.15
5826.00,2.15
5825.00,2.15
5824.00,2.16
5823.00,2.16
5822.00,2.16
5821.00,2.16
5820.00,2.16
5819.00,2.17
5818.00,2.17
5817.00,2.17
5816.00,2.17
5815.00,2.17
5814.00,2.17
5813.00,2.17
5812.00,2.17
5811.00,2.17
5810.00,2.17
5809.00,2.17
5808.00,2.17
5807.00,2.17
5806.00,2.17
5805.00,2.17
5804.00,2.17
5803.00,2.17
5802.00,2.17
5801.00,2.17
5800.00,2.17
5799.00,2.17
5798.00,2.17
5797.00,2.16
5796.00,2.16
5795.00,2.16
5794.00,2.15
5793.00,2.15
5792.00,2.15
5791.00,2.14
5790.00,2.14
5789.00,2.14
5788.00,2.13
5787.00,2.13
5786.00,2.13
5785.00,2.12
5784.00,2.12
5783.00,2.12
5782.00,2.12
5781.00,2.11
5780.00,2.11
5779.00,2.11
5778.00,2.11
5777.00,2.11
5776.00,2.11
5775.00,2.11
5774.00,2.11
5773.00,2.11
5772.00,2.11
5771.00,2.11
5770.00,2.11
5769.00,2.11
5768.00,2.11
5767.00,2.12
5766.00,2.12
5765.00,2.12
5764.00,2.13
5763.00,2.13
5762.00,2.14
5761.00,2.14
5760.00,2.15
5759.00,2.16
5758.00,2.16
5757.00,2.17
5756.00,2.17
5755.00,2.17
5754.00,2.18
5753.00,2.18
5752.00,2.19
5751.00,2.19
5750.00,2.19
5749.00,2.20
5748.00,2.20
5747.00,2.21
5746.00,2.21
5745.00,2.21
5744.00,2.22
5743.00,2.22
5742.00,2.23
5741.00,2.23
5740.00,2.23
5739.00,2.23
5738.00,2.24
5737.00,2.24
5736.00,2.24
5735.00,2.24
5734.00,2.24
5733.00,2.25
5732.00,2.25
5731.00,2.25
5730.00,2.25
5729.00,2.25
5728.00,2.26
5727.00,2.26
5726.00,2.26
5725.00,2.27
5724.00,2.27
5723.00,2.27
5722.00,2.27
5721.00,2.27
5720.00,2.28
5719.00,2.28
5718.00,2.28
5717.00,2.28
5716.00,2.28
5715.00,2.28
5714.00,2.28
5713.00,2.28
5712.00,2.28
5711.00,2.27
5710.00,2.27
5709.00,2.27
5708.00,2.27
5707.00,2.27
5706.00,2.27
5705.00,2.27
5704.00,2.26
5703.00,2.26
5702.00,2.26
5701.00,2.26
5700.00,2.25
5699.00,2.25
5698.00,2.25
5697.00,2.24
5696.00,2.24
5695.00,2.24
5694.00,2.23
5693.00,2.23
5692.00,2.23
5691.00,2.23
5690.00,2.23
5689.00,2.22
5688.00,2.22
5687.00,2.22
5686.00,2.22
5685.00,2.22
5684.00,2.22
5683.00,2.21
5682.00,2.21
5681.00,2.21
5680.00,2.21
5679.00,2.21
5678.00,2.20
5677.00,2.20
5676.00,2.20
5675.00,2.20
5674.00,2.19
5673.00,2.19
5672.00,2.19
5671.00,2.19
5670.00,2.19
5669.00,2.19
5668.00,2.19
5667.00,2.19
5666.00,2.19
5665.00,2.19
5664.00,2.20
5663.00,2.20
5662.00,2.20
5661.00,2.20
5660.00,2.20
5659.00,2.21
5658.00,2.21
5657.00,2.21
5656.00,2.22
5655.00,2.22
5654.00,2.23
5653.00,2.23
5652.00,2.24
5651.00,2.24
5650.00,2.25
5649.00,2.25
5648.00,2.26
5647.00,2.26
5646.00,2.27
5645.00,2.27
5644.00,2.28
5643.00,2.28
5642.00,2.28
5641.00,2.29
5640.00,2.29
5639.00,2.29
5638.00,2.29
5637.00,2.29
5636.00,2.29
5635.00,2.30
5634.00,2.30
5633.00,2.30
5632.00,2.30
5631.00,2.30
5630.00,2.30
5629.00,2.30
5628.00,2.30
5627.00,2.30
5626.00,2.30
5625.00,2.30
5624.00,2.30
5623.00,2.30
5622.00,2.30
5621.00,2.30
5620.00,2.30
5619.00,2.30
5618.00,2.30
5617.00,2.31
5616.00,2.31
5615.00,2.31
5614.00,2.32
5613.00,2.32
5612.00,2.32
5611.00,2.33
5610.00,2.33
5609.00,2.34
5608.00,2.34
5607.00,2.35
5606.00,2.35
5605.00,2.35
5604.00,2.36
5603.00,2.36
5602.00,2.37
5601.00,2.37
5600.00,2.37
5599.00,2.37
5598.00,2.38
5597.00,2.38
5596.00,2.38
5595.00,2.38
5594.00,2.39
5593.00,2.39
5592.00,2.39
5591.00,2.39
5590.00,2.39
5589.00,2.39
5588.00,2.39
5587.00,2.39
5586.00,2.39
5585.00,2.39
5584.00,2.39
5583.00,2.39
5582.00,2.40
5581.00,2.40
5580.00,2.40
5579.00,2.40
5578.00,2.40
5577.00,2.40
5576.00,2.41
5575.00,2.41
5574.00,2.41
5573.00,2.41
5572.00,2.42
5571.00,2.42
5570.00,2.42
5569.00,2.42
5568.00,2.43
5567.00,2.43
5566.00,2.43
5565.00,2.43
5564.00,2.44
5563.00,2.44
5562.00,2.44
5561.00,2.44
5560.00,2.45
5559.00,2.45
5558.00,2.45
5557.00,2.45
5556.00,2.45
5555.00,2.45
5554.00,2.45
5553.00,2.45
5552.00,2.46
5551.00,2.46
5550.00,2.45
5549.00,2.45
5548.00,2.45
5547.00,2.45
5546.00,2.45
5545.00,2.45
5544.00,2.45
5543.00,2.45
5542.00,2.45
5541.00,2.45
5540.00,2.45
5539.00,2.45
5538.00,2.45
5537.00,2.45
5536.00,2.45
5535.00,2.46
5534.00,2.46
5533.00,2.46
5532.00,2.46
5531.00,2.46
5530.00,2.46
5529.00,2.46
5528.00,2.47
5527.00,2.47
5526.00,2.47
5525.00,2.47
5524.00,2.48
5523.00,2.48
5522.00,2.48
5521.00,2.49
5520.00,2.49
5519.00,2.49
5518.00,2.50
5517.00,2.50
5516.00,2.51
5515.00,2.51
5514.00,2.51
5513.00,2.52
5512.00,2.52
5511.00,2.52
5510.00,2.52
5509.00,2.52
5508.00,2.53
5507.00,2.53
5506.00,2.53
5505.00,2.53
5504.00,2.53
5503.00,2.53
5502.00,2.53
5501.00,2.53
5500.00,2.53
5499.00,2.53
5498.00,2.53
5497.00,2.53
5496.00,2.53
5495.00,2.53
5494.00,2.53
5493.00,2.53
5492.00,2.53
5491.00,2.53
5490.00,2.53
5489.00,2.53
5488.00,2.53
5487.00,2.53
5486.00,2.53
5485.00,2.53
5484.00,2.53
5483.00,2.53
5482.00,2.54
5481.00,2.54
5480.00,2.54
5479.00,2.54
5478.00,2.55
5477.00,2.55
5476.00,2.55
5475.00,2.56
5474.00,2.56
5473.00,2.56
5472.00,2.57
5471.00,2.57
5470.00,2.57
5469.00,2.57
5468.00,2.57
5467.00,2.58
5466.00,2.58
5465.00,2.58
5464.00,2.58
5463.00,2.58
5462.00,2.58
5461.00,2.58
5460.00,2.58
5459.00,2.58
5458.00,2.58
5457.00,2.58
5456.00,2.58
5455.00,2.57
5454.00,2.57
5453.00,2.56
5452.00,2.56
5451.00,2.55
5450.00,2.55
5449.00,2.54
5448.00,2.54
5447.00,2.53
5446.00,2.53
5445.00,2.52
5444.00,2.52
5443.00,2.52
5442.00,2.52
5441.00,2.51
5440.00,2.51
5439.00,2.51
5438.00,2.51
5437.00,2.51
5436.00,2.51
5435.00,2.51
5434.00,2.51
5433.00,2.51
5432.00,2.51
5431.00,2.51
5430.00,2.51
5429.00,2.52
5428.00,2.52
5427.00,2.52
5426.00,2.53
5425.00,2.53
5424.00,2.53
5423.00,2.54
5422.00,2.54
5421.00,2.54
5420.00,2.55
5419.00,2.55
5418.00,2.55
5417.00,2.55
5416.00,2.56
5415.00,2.56
5414.00,2.56
5413.00,2.56
5412.00,2.56
5411.00,2.55
5410.00,2.55
5409.00,2.55
5408.00,2.55
5407.00,2.55
5406.00,2.55
5405.00,2.55
5404.00,2.54
5403.00,2.54
5402.00,2.54
5401.00,2.54
5400.00,2.54
5399.00,2.53
5398.00,2.53
5397.00,2.52
5396.00,2.52
5395.00,2.51
5394.00,2.51
5393.00,2.50
5392.00,2.50
5391.00,2.49
5390.00,2.49
5389.00,2.48
5388.00,2.48
5387.00,2.48
5386.00,2.47
5385.00,2.47
5384.00,2.46
5383.00,2.46
5382.00,2.46
5381.00,2.45
5380.00,2.45
5379.00,2.44
5378.00,2.44
5377.00,2.44
5376.00,2.43
5375.00,2.43
5374.00,2.42
5373.00,2.42
5372.00,2.41
5371.00,2.41
5370.00,2.40
5369.00,2.40
5368.00,2.39
5367.00,2.39
5366.00,2.38
5365.00,2.38
5364.00,2.37
5363.00,2.37
5362.00,2.36
5361.00,2.35
5360.00,2.35
5359.00,2.34
5358.00,2.33
5357.00,2.32
5356.00,2.31
5355.00,2.30
5354.00,2.29
5353.00,2.28
5352.00,2.26
5351.00,2.25
5350.00,2.24
5349.00,2.22
5348.00,2.21
5347.00,2.20
5346.00,2.18
5345.00,2.17
5344.00,2.15
5343.00,2.14
5342.00,2.13
5341.00,2.11
5340.00,2.09
5339.00,2.08
5338.00,2.06
5337.00,2.05
5336.00,2.03
5335.00,2.01
5334.00,2.00
5333.00,1.98
5332.00,1.96
5331.00,1.95
5330.00,1.93
5329.00,1.91
5328.00,1.90
5327.00,1.88
5326.00,1.86
5325.00,1.85
5324.00,1.83
5323.00,1.82
5322.00,1.80
5321.00,1.79
5320.00,1.77
5319.00,1.76
5318.00,1.74
5317.00,1.73
5316.00,1.72
5315.00,1.70
5314.00,1.69
5313.00,1.67
5312.00,1.66
5311.00,1.65
5310.00,1.64
5309.00,1.62
5308.00,1.61
5307.00,1.60
5306.00,1.59
5305.00,1.58
5304.00,1.57
5303.00,1.56
5302.00,1.55
5301.00,1.54
5300.00,1.53
5299.00,1.52
5298.00,1.51
5297.00,1.50
5296.00,1.49
5295.00,1.48
5294.00,1.47
5293.00,1.46
5292.00,1.45
5291.00,1.44
5290.00,1.43
5289.00,1.43
5288.00,1.42
5287.00,1.41
5286.00,1.41
5285.00,1.40
5284.00,1.39
5283.00,1.39
5282.00,1.38
5281.00,1.38
5280.00,1.37
5279.00,1.37
5278.00,1.37
5277.00,1.36
5276.00,1.36
5275.00,1.36
5274.00,1.36
5273.00,1.36
5272.00,1.36
5271.00,1.36
5270.00,1.36
5269.00,1.36
5268.00,1.37
5267.00,1.37
5266.00,1.37
5265.00,1.37
5264.00,1.38
5263.00,1.38
5262.00,1.38
5261.00,1.38
5260.00,1.38
5259.00,1.39
5258.00,1.39
5257.00,1.39
5256.00,1.39
5255.00,1.39
5254.00,1.40
5253.00,1.40
5252.00,1.40
5251.00,1.40
5250.00,1.40
5249.00,1.40
5248.00,1.40
5247.00,1.40
5246.00,1.40
5245.00,1.39
5244.00,1.39
5243.00,1.39
5242.00,1.39
5241.00,1.39
5240.00,1.38
5239.00,1.38
5238.00,1.38
5237.00,1.38
5236.00,1.38
5235.00,1.37
5234.00,1.37
5233.00,1.37
5232.00,1.37
5231.00,1.37
5230.00,1.36
5229.00,1.36
5228.00,1.36
5227.00,1.36
5226.00,1.36
5225.00,1.36
5224.00,1.36
5223.00,1.36
5222.00,1.36
5221.00,1.36
5220.00,1.37
5219.00,1.37
5218.00,1.37
5217.00,1.37
5216.00,1.37
5215.00,1.37
5214.00,1.37
5213.00,1.37
5212.00,1.38
5211.00,1.38
5210.00,1.38
5209.00,1.38
5208.00,1.38
5207.00,1.38
5206.00,1.39
5205.00,1.39
5204.00,1.39
5203.00,1.39
5202.00,1.39
5201.00,1.39
5200.00,1.40
5199.00,1.40
5198.00,1.40
5197.00,1.40
5196.00,1.40
5195.00,1.40
5194.00,1.40
5193.00,1.40
5192.00,1.40
5191.00,1.40
5190.00,1.40
5189.00,1.40
5188.00,1.40
5187.00,1.40
5186.00,1.40
5185.00,1.40
5184.00,1.40
5183.00,1.40
5182.00,1.40
5181.00,1.40
5180.00,1.40
5179.00,1.40
5178.00,1.40
5177.00,1.39
5176.00,1.39
5175.00,1.39
5174.00,1.39
5173.00,1.39
5172.00,1.39
5171.00,1.39
5170.00,1.39
5169.00,1.39
5168.00,1.39
5167.00,1.39
5166.00,1.39
5165.00,1.39
5164.00,1.39
5163.00,1.39
5162.00,1.39
5161.00,1.39
5160.00,1.40
5159.00,1.40
5158.00,1.40
5157.00,1.40
5156.00,1.40
5155.00,1.40
5154.00,1.41
5153.00,1.41
5152.00,1.41
5151.00,1.41
5150.00,1.41
5149.00,1.41
5148.00,1.41
5147.00,1.42
5146.00,1.42
5145.00,1.42
5144.00,1.42
5143.00,1.42
5142.00,1.43
5141.00,1.43
5140.00,1.43
5139.00,1.43
5138.00,1.43
5137.00,1.44
5136.00,1.44
5135.00,1.44
5134.00,1.44
5133.00,1.44
5132.00,1.44
5131.00,1.44
5130.00,1.45
5129.00,1.45
5128.00,1.45
5127.00,1.45
5126.00,1.45
5125.00,1.45
5124.00,1.46
5123.00,1.46
5122.00,1.46
5121.00,1.46
5120.00,1.47
5119.00,1.47
5118.00,1.47
5117.00,1.47
5116.00,1.48
5115.00,1.48
5114.00,1.48
5113.00,1.48
5112.00,1.48
5111.00,1.48
5110.00,1.48
5109.00,1.49
5108.00,1.49
5107.00,1.49
5106.00,1.49
5105.00,1.49
5104.00,1.49
5103.00,1.49
5102.00,1.48
5101.00,1.48
5100.00,1.48
5099.00,1.48
5098.00,1.48
5097.00,1.48
5096.00,1.48
5095.00,1.48
5094.00,1.48
5093.00,1.47
5092.00,1.47
5091.00,1.47
5090.00,1.47
5089.00,1.47
5088.00,1.47
5087.00,1.47
5086.00,1.47
5085.00,1.47
5084.00,1.47
5083.00,1.47
5082.00,1.47
5081.00,1.47
5080.00,1.47
5079.00,1.47
5078.00,1.48
5077.00,1.48
5076.00,1.48
5075.00,1.48
5074.00,1.49
5073.00,1.49
5072.00,1.49
5071.00,1.49
5070.00,1.50
5069.00,1.50
5068.00,1.50
5067.00,1.51
5066.00,1.51
5065.00,1.51
5064.00,1.51
5063.00,1.51
5062.00,1.52
5061.00,1.52
5060.00,1.52
5059.00,1.52
5058.00,1.52
5057.00,1.52
5056.00,1.52
5055.00,1.52
5054.00,1.52
5053.00,1.52
5052.00,1.52
5051.00,1.52
5050.00,1.52
5049.00,1.52
5048.00,1.52
5047.00,1.52
5046.00,1.52
5045.00,1.52
5044.00,1.52
5043.00,1.51
5042.00,1.51
5041.00,1.51
5040.00,1.51
5039.00,1.51
5038.00,1.51
5037.00,1.51
5036.00,1.51
5035.00,1.52
5034.00,1.52
5033.00,1.52
5032.00,1.52
5031.00,1.52
5030.00,1.52
5029.00,1.53
5028.00,1.53
5027.00,1.53
5026.00,1.53
5025.00,1.53
5024.00,1.53
5023.00,1.53
5022.00,1.53
5021.00,1.53
5020.00,1.54
5019.00,1.54
5018.00,1.54
5017.00,1.54
5016.00,1.54
5015.00,1.54
5014.00,1.55
5013.00,1.55
5012.00,1.55
5011.00,1.55
5010.00,1.55
5009.00,1.55
5008.00,1.55
5007.00,1.55
5006.00,1.55
5005.00,1.55
5004.00,1.55
5003.00,1.55
5002.00,1.55
5001.00,1.55
5000.00,1.55
4999.00,1.55
4998.00,1.55
4997.00,1.56
4996.00,1.56
4995.00,1.56
4994.00,1.56
4993.00,1.57
4992.00,1.57
4991.00,1.57
4990.00,1.57
4989.00,1.58
4988.00,1.58
4987.00,1.58
4986.00,1.59
4985.00,1.59
4984.00,1.59
4983.00,1.59
4982.00,1.60
4981.00,1.60
4980.00,1.60
4979.00,1.60
4978.00,1.61
4977.00,1.61
4976.00,1.61
4975.00,1.61
4974.00,1.61
4973.00,1.62
4972.00,1.62
4971.00,1.62
4970.00,1.62
4969.00,1.62
4968.00,1.62
4967.00,1.62
4966.00,1.62
4965.00,1.62
4964.00,1.62
4963.00,1.62
4962.00,1.62
4961.00,1.62
4960.00,1.62
4959.00,1.62
4958.00,1.62
4957.00,1.62
4956.00,1.62
4955.00,1.62
4954.00,1.62
4953.00,1.62
4952.00,1.63
4951.00,1.63
4950.00,1.63
4949.00,1.63
4948.00,1.63
4947.00,1.63
4946.00,1.63
4945.00,1.63
4944.00,1.64
4943.00,1.64
4942.00,1.64
4941.00,1.64
4940.00,1.65
4939.00,1.65
4938.00,1.65
4937.00,1.66
4936.00,1.66
4935.00,1.66
4934.00,1.66
4933.00,1.67
4932.00,1.67
4931.00,1.67
4930.00,1.68
4929.00,1.68
4928.00,1.68
4927.00,1.68
4926.00,1.69
4925.00,1.69
4924.00,1.69
4923.00,1.70
4922.00,1.70
4921.00,1.70
4920.00,1.71
4919.00,1.71
4918.00,1.71
4917.00,1.71
4916.00,1.72
4915.00,1.72
4914.00,1.72
4913.00,1.73
4912.00,1.73
4911.00,1.73
4910.00,1.73
4909.00,1.74
4908.00,1.74
4907.00,1.74
4906.00,1.75
4905.00,1.75
4904.00,1.76
4903.00,1.76
4902.00,1.76
4901.00,1.76
4900.00,1.77
4899.00,1.77
4898.00,1.77
4897.00,1.77
4896.00,1.77
4895.00,1.77
4894.00,1.78
4893.00,1.78
4892.00,1.78
4891.00,1.78
4890.00,1.78
4889.00,1.79
4888.00,1.79
4887.00,1.79
4886.00,1.79
4885.00,1.80
4884.00,1.80
4883.00,1.80
4882.00,1.80
4881.00,1.80
4880.00,1.80
4879.00,1.80
4878.00,1.80
4877.00,1.80
4876.00,1.80
4875.00,1.80
4874.00,1.80
4873.00,1.80
4872.00,1.80
4871.00,1.80
4870.00,1.80
4869.00,1.80
4868.00,1.80
4867.00,1.80
4866.00,1.80
4865.00,1.80
4864.00,1.80
4863.00,1.79
4862.00,1.79
4861.00,1.79
4860.00,1.79
4859.00,1.79
4858.00,1.79
4857.00,1.79
4856.00,1.79
4855.00,1.79
4854.00,1.79
4853.00,1.79
4852.00,1.79
4851.00,1.79
4850.00,1.80
4849.00,1.80
4848.00,1.80
4847.00,1.80
4846.00,1.81
4845.00,1.81
4844.00,1.81
4843.00,1.82
4842.00,1.82
4841.00,1.82
4840.00,1.83
4839.00,1.83
4838.00,1.83
4837.00,1.84
4836.00,1.84
4835.00,1.85
4834.00,1.85
4833.00,1.85
4832.00,1.86
4831.00,1.86
4830.00,1.86
4829.00,1.86
4828.00,1.86
4827.00,1.87
4826.00,1.87
4825.00,1.87
4824.00,1.87
4823.00,1.87
4822.00,1.87
4821.00,1.87
4820.00,1.87
4819.00,1.87
4818.00,1.87
4817.00,1.87
4816.00,1.87
4815.00,1.86
4814.00,1.86
4813.00,1.86
4812.00,1.86
4811.00,1.85
4810.00,1.85
4809.00,1.84
4808.00,1.84
4807.00,1.84
4806.00,1.83
4805.00,1.83
4804.00,1.83
4803.00,1.82
4802.00,1.82
4801.00,1.82
4800.00,1.82
4799.00,1.82
4798.00,1.81
4797.00,1.81
4796.00,1.81
4795.00,1.81
4794.00,1.81
4793.00,1.81
4792.00,1.81
4791.00,1.81
4790.00,1.81
4789.00,1.82
4788.00,1.82
4787.00,1.82
4786.00,1.82
4785.00,1.83
4784.00,1.83
4783.00,1.84
4782.00,1.85
4781.00,1.85
4780.00,1.86
4779.00,1.87
4778.00,1.87
4777.00,1.88
4776.00,1.89
4775.00,1.90
4774.00,1.90
4773.00,1.91
4772.00,1.92
4771.00,1.92
4770.00,1.93
4769.00,1.93
4768.00,1.94
4767.00,1.94
4766.00,1.95
4765.00,1.95
4764.00,1.96
4763.00,1.96
4762.00,1.96
4761.00,1.97
4760.00,1.97
4759.00,1.97
4758.00,1.97
4757.00,1.97
4756.00,1.97
4755.00,1.97
4754.00,1.97
4753.00,1.97
4752.00,1.97
4751.00,1.97
4750.00,1.97
4749.00,1.97
4748.00,1.97
4747.00,1.97
4746.00,1.97
4745.00,1.97
4744.00,1.97
4743.00,1.97
4742.00,1.97
4741.00,1.98
4740.00,1.98
4739.00,1.98
4738.00,1.98
4737.00,1.99
4736.00,1.99
4735.00,2.00
4734.00,2.00
4733.00,2.01
4732.00,2.01
4731.00,2.02
4730.00,2.03
4729.00,2.03
4728.00,2.04
4727.00,2.04
4726.00,2.05
4725.00,2.06
4724.00,2.06
4723.00,2.07
4722.00,2.08
4721.00,2.08
4720.00,2.09
4719.00,2.10
4718.00,2.10
4717.00,2.11
4716.00,2.12
4715.00,2.13
4714.00,2.13
4713.00,2.14
4712.00,2.15
4711.00,2.15
4710.00,2.16
4709.00,2.16
4708.00,2.17
4707.00,2.17
4706.00,2.17
4705.00,2.18
4704.00,2.18
4703.00,2.19
4702.00,2.19
4701.00,2.19
4700.00,2.19
4699.00,2.20
4698.00,2.20
4697.00,2.20
4696.00,2.20
4695.00,2.20
4694.00,2.20
4693.00,2.20
4692.00,2.20
4691.00,2.19
4690.00,2.19
4689.00,2.18
4688.00,2.18
4687.00,2.17
4686.00,2.17
4685.00,2.16
4684.00,2.15
4683.00,2.15
4682.00,2.14
4681.00,2.14
4680.00,2.13
4679.00,2.13
4678.00,2.13
4677.00,2.12
4676.00,2.12
4675.00,2.12
4674.00,2.12
4673.00,2.11
4672.00,2.11
4671.00,2.11
4670.00,2.11
4669.00,2.11
4668.00,2.12
4667.00,2.12
4666.00,2.12
4665.00,2.13
4664.00,2.13
4663.00,2.14
4662.00,2.15
4661.00,2.16
4660.00,2.16
4659.00,2.17
4658.00,2.18
4657.00,2.19
4656.00,2.20
4655.00,2.21
4654.00,2.22
4653.00,2.23
4652.00,2.24
4651.00,2.25
4650.00,2.26
4649.00,2.27
4648.00,2.28
4647.00,2.29
4646.00,2.29
4645.00,2.30
4644.00,2.31
4643.00,2.31
4642.00,2.32
4641.00,2.33
4640.00,2.33
4639.00,2.34
4638.00,2.34
4637.00,2.34
4636.00,2.35
4635.00,2.35
4634.00,2.35
4633.00,2.35
4632.00,2.35
4631.00,2.35
4630.00,2.35
4629.00,2.35
4628.00,2.35
4627.00,2.35
4626.00,2.34
4625.00,2.34
4624.00,2.34
4623.00,2.33
4622.00,2.33
4621.00,2.33
4620.00,2.32
4619.00,2.32
4618.00,2.32
4617.00,2.32
4616.00,2.31
4615.00,2.31
4614.00,2.31
4613.00,2.31
4612.00,2.31
4611.00,2.31
4610.00,2.30
4609.00,2.30
4608.00,2.30
4607.00,2.30
4606.00,2.30
4605.00,2.30
4604.00,2.30
4603.00,2.30
4602.00,2.30
4601.00,2.31
4600.00,2.31
4599.00,2.31
4598.00,2.32
4597.00,2.32
4596.00,2.32
4595.00,2.33
4594.00,2.33
4593.00,2.34
4592.00,2.34
4591.00,2.34
4590.00,2.35
4589.00,2.35
4588.00,2.35
4587.00,2.35
4586.00,2.36
4585.00,2.36
4584.00,2.36
4583.00,2.36
4582.00,2.37
4581.00,2.37
4580.00,2.37
4579.00,2.37
4578.00,2.38
4577.00,2.38
4576.00,2.38
4575.00,2.38
4574.00,2.38
4573.00,2.38
4572.00,2.38
4571.00,2.38
4570.00,2.38
4569.00,2.38
4568.00,2.38
4567.00,2.38
4566.00,2.38
4565.00,2.38
4564.00,2.38
4563.00,2.38
4562.00,2.38
4561.00,2.38
4560.00,2.39
4559.00,2.39
4558.00,2.39
4557.00,2.39
4556.00,2.39
4555.00,2.39
4554.00,2.40
4553.00,2.40
4552.00,2.40
4551.00,2.40
4550.00,2.40
4549.00,2.40
4548.00,2.40
4547.00,2.40
4546.00,2.40
4545.00,2.41
4544.00,2.41
4543.00,2.41
4542.00,2.41
4541.00,2.42
4540.00,2.42
4539.00,2.42
4538.00,2.42
4537.00,2.42
4536.00,2.43
4535.00,2.43
4534.00,2.43
4533.00,2.43
4532.00,2.43
4531.00,2.43
4530.00,2.43
4529.00,2.43
4528.00,2.43
4527.00,2.43
4526.00,2.44
4525.00,2.44
4524.00,2.44
4523.00,2.45
4522.00,2.45
4521.00,2.45
4520.00,2.45
4519.00,2.45
4518.00,2.45
4517.00,2.46
4516.00,2.46
4515.00,2.46
4514.00,2.46
4513.00,2.46
4512.00,2.46
4511.00,2.47
4510.00,2.47
4509.00,2.47
4508.00,2.47
4507.00,2.47
4506.00,2.47
4505.00,2.47
4504.00,2.47
4503.00,2.47
4502.00,2.47
4501.00,2.46
4500.00,2.46
4499.00,2.46
4498.00,2.45
4497.00,2.45
4496.00,2.45
4495.00,2.44
4494.00,2.44
4493.00,2.44
4492.00,2.43
4491.00,2.43
4490.00,2.42
4489.00,2.42
4488.00,2.41
4487.00,2.41
4486.00,2.40
4485.00,2.40
4484.00,2.40
4483.00,2.39
4482.00,2.39
4481.00,2.39
4480.00,2.38
4479.00,2.38
4478.00,2.38
4477.00,2.37
4476.00,2.37
4475.00,2.37
4474.00,2.37
4473.00,2.36
4472.00,2.36
4471.00,2.36
4470.00,2.36
4469.00,2.35
4468.00,2.35
4467.00,2.35
4466.00,2.34
4465.00,2.34
4464.00,2.33
4463.00,2.33
4462.00,2.33
4461.00,2.32
4460.00,2.32
4459.00,2.31
4458.00,2.31
4457.00,2.30
4456.00,2.29
4455.00,2.29
4454.00,2.28
4453.00,2.27
4452.00,2.27
4451.00,2.26
4450.00,2.25
4449.00,2.24
4448.00,2.23
4447.00,2.23
4446.00,2.22
4445.00,2.21
4444.00,2.20
4443.00,2.19
4442.00,2.18
4441.00,2.18
4440.00,2.17
4439.00,2.16
4438.00,2.16
4437.00,2.15
4436.00,2.14
4435.00,2.13
4434.00,2.13
4433.00,2.12
4432.00,2.11
4431.00,2.11
4430.00,2.10
4429.00,2.09
4428.00,2.09
4427.00,2.08
4426.00,2.08
4425.00,2.07
4424.00,2.07
4423.00,2.07
4422.00,2.06
4421.00,2.06
4420.00,2.06
4419.00,2.06
4418.00,2.05
4417.00,2.05
4416.00,2.05
4415.00,2.05
4414.00,2.05
4413.00,2.05
4412.00,2.05
4411.00,2.05
4410.00,2.05
4409.00,2.06
4408.00,2.06
4407.00,2.06
4406.00,2.06
4405.00,2.07
4404.00,2.07
4403.00,2.07
4402.00,2.07
4401.00,2.08
4400.00,2.08
4399.00,2.09
4398.00,2.09
4397.00,2.09
4396.00,2.10
4395.00,2.10
4394.00,2.11
4393.00,2.11
4392.00,2.12
4391.00,2.12
4390.00,2.13
4389.00,2.13
4388.00,2.13
4387.00,2.14
4386.00,2.14
4385.00,2.14
4384.00,2.14
4383.00,2.14
4382.00,2.14
4381.00,2.15
4380.00,2.15
4379.00,2.15
4378.00,2.15
4377.00,2.15
4376.00,2.15
4375.00,2.15
4374.00,2.14
4373.00,2.14
4372.00,2.14
4371.00,2.13
4370.00,2.13
4369.00,2.13
4368.00,2.12
4367.00,2.12
4366.00,2.11
4365.00,2.11
4364.00,2.11
4363.00,2.10
4362.00,2.10
4361.00,2.10
4360.00,2.10
4359.00,2.10
4358.00,2.09
4357.00,2.09
4356.00,2.09
4355.00,2.09
4354.00,2.08
4353.00,2.08
4352.00,2.08
4351.00,2.08
4350.00,2.08
4349.00,2.08
4348.00,2.08
4347.00,2.08
4346.00,2.08
4345.00,2.08
4344.00,2.09
4343.00,2.09
4342.00,2.09
4341.00,2.10
4340.00,2.10
4339.00,2.10
4338.00,2.11
4337.00,2.11
4336.00,2.11
4335.00,2.11
4334.00,2.12
4333.00,2.12
4332.00,2.12
4331.00,2.12
4330.00,2.13
4329.00,2.13
4328.00,2.13
4327.00,2.14
4326.00,2.14
4325.00,2.14
4324.00,2.15
4323.00,2.15
4322.00,2.16
4321.00,2.16
4320.00,2.16
4319.00,2.17
4318.00,2.17
4317.00,2.17
4316.00,2.17
4315.00,2.18
4314.00,2.18
4313.00,2.18
4312.00,2.19
4311.00,2.19
4310.00,2.19
4309.00,2.20
4308.00,2.20
4307.00,2.21
4306.00,2.21
4305.00,2.22
4304.00,2.22
4303.00,2.23
4302.00,2.23
4301.00,2.24
4300.00,2.24
4299.00,2.25
4298.00,2.25
4297.00,2.25
4296.00,2.26
4295.00,2.26
4294.00,2.26
4293.00,2.27
4292.00,2.27
4291.00,2.27
4290.00,2.28
4289.00,2.28
4288.00,2.28
4287.00,2.28
4286.00,2.28
4285.00,2.29
4284.00,2.29
4283.00,2.29
4282.00,2.29
4281.00,2.29
4280.00,2.29
4279.00,2.29
4278.00,2.30
4277.00,2.29
4276.00,2.29
4275.00,2.29
4274.00,2.29
4273.00,2.29
4272.00,2.29
4271.00,2.29
4270.00,2.28
4269.00,2.28
4268.00,2.28
4267.00,2.29
4266.00,2.29
4265.00,2.29
4264.00,2.29
4263.00,2.29
4262.00,2.29
4261.00,2.30
4260.00,2.30
4259.00,2.30
4258.00,2.30
4257.00,2.30
4256.00,2.30
4255.00,2.30
4254.00,2.30
4253.00,2.30
4252.00,2.29
4251.00,2.29
4250.00,2.29
4249.00,2.29
4248.00,2.30
4247.00,2.30
4246.00,2.30
4245.00,2.30
4244.00,2.31
4243.00,2.31
4242.00,2.31
4241.00,2.31
4240.00,2.31
4239.00,2.31
4238.00,2.31
4237.00,2.31
4236.00,2.32
4235.00,2.31
4234.00,2.31
4233.00,2.31
4232.00,2.31
4231.00,2.31
4230.00,2.31
4229.00,2.32
4228.00,2.32
4227.00,2.32
4226.00,2.32
4225.00,2.33
4224.00,2.33
4223.00,2.33
4222.00,2.33
4221.00,2.34
4220.00,2.34
4219.00,2.34
4218.00,2.34
4217.00,2.34
4216.00,2.34
4215.00,2.35
4214.00,2.35
4213.00,2.35
4212.00,2.35
4211.00,2.36
4210.00,2.36
4209.00,2.36
4208.00,2.37
4207.00,2.38
4206.00,2.38
4205.00,2.39
4204.00,2.40
4203.00,2.41
4202.00,2.42
4201.00,2.43
4200.00,2.43
4199.00,2.44
4198.00,2.45
4197.00,2.45
4196.00,2.46
4195.00,2.47
4194.00,2.47
4193.00,2.48
4192.00,2.49
4191.00,2.49
4190.00,2.50
4189.00,2.51
4188.00,2.51
4187.00,2.52
4186.00,2.52
4185.00,2.52
4184.00,2.52
4183.00,2.53
4182.00,2.53
4181.00,2.53
4180.00,2.52
4179.00,2.52
4178.00,2.52
4177.00,2.51
4176.00,2.51
4175.00,2.50
4174.00,2.50
4173.00,2.49
4172.00,2.49
4171.00,2.49
4170.00,2.48
4169.00,2.48
4168.00,2.48
4167.00,2.47
4166.00,2.47
4165.00,2.46
4164.00,2.46
4163.00,2.45
4162.00,2.45
4161.00,2.44
4160.00,2.44
4159.00,2.44
4158.00,2.43
4157.00,2.43
4156.00,2.43
4155.00,2.43
4154.00,2.43
4153.00,2.43
4152.00,2.43
4151.00,2.43
4150.00,2.43
4149.00,2.43
4148.00,2.42
4147.00,2.42
4146.00,2.42
4145.00,2.41
4144.00,2.41
4143.00,2.41
4142.00,2.40
4141.00,2.40
4140.00,2.40
4139.00,2.40
4138.00,2.40
4137.00,2.40
4136.00,2.40
4135.00,2.40
4134.00,2.40
4133.00,2.40
4132.00,2.39
4131.00,2.39
4130.00,2.39
4129.00,2.39
4128.00,2.39
4127.00,2.39
4126.00,2.39
4125.00,2.39
4124.00,2.39
4123.00,2.39
4122.00,2.39
4121.00,2.39
4120.00,2.40
4119.00,2.40
4118.00,2.41
4117.00,2.41
4116.00,2.42
4115.00,2.42
4114.00,2.43
4113.00,2.43
4112.00,2.43
4111.00,2.44
4110.00,2.44
4109.00,2.44
4108.00,2.45
4107.00,2.45
4106.00,2.46
4105.00,2.46
4104.00,2.47
4103.00,2.47
4102.00,2.48
4101.00,2.48
4100.00,2.48
4099.00,2.49
4098.00,2.49
4097.00,2.50
4096.00,2.50
4095.00,2.51
4094.00,2.51
4093.00,2.51
4092.00,2.52
4091.00,2.52
4090.00,2.52
4089.00,2.52
4088.00,2.52
4087.00,2.52
4086.00,2.52
4085.00,2.52
4084.00,2.52
4083.00,2.52
4082.00,2.53
4081.00,2.53
4080.00,2.53
4079.00,2.53
4078.00,2.54
4077.00,2.54
4076.00,2.54
4075.00,2.54
4074.00,2.54
4073.00,2.54
4072.00,2.54
4071.00,2.54
4070.00,2.53
4069.00,2.53
4068.00,2.53
4067.00,2.53
4066.00,2.52
4065.00,2.52
4064.00,2.52
4063.00,2.52
4062.00,2.52
4061.00,2.52
4060.00,2.52
4059.00,2.52
4058.00,2.52
4057.00,2.52
4056.00,2.52
4055.00,2.51
4054.00,2.51
4053.00,2.51
4052.00,2.50
4051.00,2.50
4050.00,2.50
4049.00,2.50
4048.00,2.50
4047.00,2.50
4046.00,2.50
4045.00,2.50
4044.00,2.50
4043.00,2.50
4042.00,2.50
4041.00,2.51
4040.00,2.51
4039.00,2.51
4038.00,2.51
4037.00,2.51
4036.00,2.52
4035.00,2.52
4034.00,2.52
4033.00,2.51
4032.00,2.51
4031.00,2.51
4030.00,2.51
4029.00,2.51
4028.00,2.52
4027.00,2.52
4026.00,2.51
4025.00,2.51
4024.00,2.51
4023.00,2.51
4022.00,2.51
4021.00,2.51
4020.00,2.51
4019.00,2.51
4018.00,2.51
4017.00,2.51
4016.00,2.52
4015.00,2.52
4014.00,2.52
4013.00,2.53
4012.00,2.54
4011.00,2.55
4010.00,2.55
4009.00,2.57
4008.00,2.58
4007.00,2.59
4006.00,2.60
4005.00,2.61
4004.00,2.63
4003.00,2.64
4002.00,2.66
4001.00,2.67
4000.00,2.69
