创建为新数据集,样品 294 用户 Administrator 日期 星期六, 七月 27 2019
cm-1,%T
10000.00,1.08
9999.00,1.09
9998.00,1.10
9997.00,1.10
9996.00,1.11
9995.00,1.12
9994.00,1.12
9993.00,1.13
9992.00,1.13
9991.00,1.13
9990.00,1.14
9989.00,1.14
9988.00,1.14
9987.00,1.14
9986.00,1.14
9985.00,1.14
9984.00,1.14
9983.00,1.14
9982.00,1.14
9981.00,1.14
9980.00,1.13
9979.00,1.13
9978.00,1.13
9977.00,1.12
9976.00,1.12
9975.00,1.12
9974.00,1.11
9973.00,1.11
9972.00,1.11
9971.00,1.10
9970.00,1.10
9969.00,1.10
9968.00,1.10
9967.00,1.10
9966.00,1.10
9965.00,1.10
9964.00,1.11
9963.00,1.11
9962.00,1.11
9961.00,1.12
9960.00,1.12
9959.00,1.12
9958.00,1.13
9957.00,1.13
9956.00,1.14
9955.00,1.14
9954.00,1.14
9953.00,1.15
9952.00,1.15
9951.00,1.16
9950.00,1.16
9949.00,1.16
9948.00,1.17
9947.00,1.17
9946.00,1.17
9945.00,1.17
9944.00,1.18
9943.00,1.18
9942.00,1.18
9941.00,1.17
9940.00,1.17
9939.00,1.17
9938.00,1.17
9937.00,1.17
9936.00,1.16
9935.00,1.16
9934.00,1.15
9933.00,1.15
9932.00,1.15
9931.00,1.14
9930.00,1.14
9929.00,1.13
9928.00,1.12
9927.00,1.11
9926.00,1.11
9925.00,1.10
9924.00,1.10
9923.00,1.09
9922.00,1.08
9921.00,1.08
9920.00,1.08
9919.00,1.07
9918.00,1.07
9917.00,1.07
9916.00,1.06
9915.00,1.06
9914.00,1.05
9913.00,1.05
9912.00,1.05
9911.00,1.04
9910.00,1.04
9909.00,1.03
9908.00,1.03
9907.00,1.03
9906.00,1.03
9905.00,1.02
9904.00,1.02
9903.00,1.02
9902.00,1.03
9901.00,1.03
9900.00,1.03
9899.00,1.03
9898.00,1.03
9897.00,1.03
9896.00,1.03
9895.00,1.03
9894.00,1.02
9893.00,1.02
9892.00,1.02
9891.00,1.01
9890.00,1.01
9889.00,1.00
9888.00,1.00
9887.00,1.00
9886.00,0.99
9885.00,0.99
9884.00,0.99
9883.00,0.98
9882.00,0.98
9881.00,0.97
9880.00,0.97
9879.00,0.96
9878.00,0.95
9877.00,0.95
9876.00,0.94
9875.00,0.93
9874.00,0.92
9873.00,0.92
9872.00,0.91
9871.00,0.91
9870.00,0.90
9869.00,0.90
9868.00,0.90
9867.00,0.90
9866.00,0.90
9865.00,0.90
9864.00,0.90
9863.00,0.91
9862.00,0.91
9861.00,0.91
9860.00,0.91
9859.00,0.92
9858.00,0.92
9857.00,0.92
9856.00,0.93
9855.00,0.93
9854.00,0.94
9853.00,0.95
9852.00,0.95
9851.00,0.96
9850.00,0.96
9849.00,0.97
9848.00,0.98
9847.00,0.98
9846.00,0.99
9845.00,0.99
9844.00,0.99
9843.00,0.99
9842.00,0.99
9841.00,0.99
9840.00,0.99
9839.00,0.99
9838.00,0.98
9837.00,0.98
9836.00,0.98
9835.00,0.98
9834.00,0.98
9833.00,0.97
9832.00,0.97
9831.00,0.97
9830.00,0.97
9829.00,0.96
9828.00,0.96
9827.00,0.96
9826.00,0.96
9825.00,0.96
9824.00,0.96
9823.00,0.96
9822.00,0.96
9821.00,0.96
9820.00,0.96
9819.00,0.97
9818.00,0.97
9817.00,0.97
9816.00,0.98
9815.00,0.98
9814.00,0.99
9813.00,1.00
9812.00,1.00
9811.00,1.01
9810.00,1.02
9809.00,1.03
9808.00,1.04
9807.00,1.04
9806.00,1.05
9805.00,1.06
9804.00,1.07
9803.00,1.07
9802.00,1.08
9801.00,1.09
9800.00,1.09
9799.00,1.09
9798.00,1.10
9797.00,1.10
9796.00,1.10
9795.00,1.10
9794.00,1.11
9793.00,1.11
9792.00,1.11
9791.00,1.11
9790.00,1.11
9789.00,1.10
9788.00,1.10
9787.00,1.10
9786.00,1.10
9785.00,1.09
9784.00,1.09
9783.00,1.08
9782.00,1.08
9781.00,1.07
9780.00,1.06
9779.00,1.06
9778.00,1.05
9777.00,1.05
9776.00,1.04
9775.00,1.03
9774.00,1.03
9773.00,1.02
9772.00,1.02
9771.00,1.01
9770.00,1.01
9769.00,1.01
9768.00,1.00
9767.00,1.00
9766.00,1.00
9765.00,0.99
9764.00,0.99
9763.00,0.99
9762.00,0.99
9761.00,0.99
9760.00,0.99
9759.00,0.98
9758.00,0.98
9757.00,0.98
9756.00,0.98
9755.00,0.99
9754.00,0.99
9753.00,0.99
9752.00,0.99
9751.00,0.99
9750.00,0.99
9749.00,0.99
9748.00,0.99
9747.00,1.00
9746.00,1.00
9745.00,1.00
9744.00,1.01
9743.00,1.01
9742.00,1.01
9741.00,1.02
9740.00,1.02
9739.00,1.02
9738.00,1.03
9737.00,1.03
9736.00,1.03
9735.00,1.04
9734.00,1.04
9733.00,1.05
9732.00,1.05
9731.00,1.06
9730.00,1.06
9729.00,1.06
9728.00,1.07
9727.00,1.07
9726.00,1.08
9725.00,1.08
9724.00,1.08
9723.00,1.08
9722.00,1.09
9721.00,1.09
9720.00,1.09
9719.00,1.09
9718.00,1.08
9717.00,1.08
9716.00,1.08
9715.00,1.08
9714.00,1.08
9713.00,1.07
9712.00,1.07
9711.00,1.07
9710.00,1.06
9709.00,1.06
9708.00,1.05
9707.00,1.05
9706.00,1.04
9705.00,1.03
9704.00,1.02
9703.00,1.02
9702.00,1.01
9701.00,1.00
9700.00,0.99
9699.00,0.99
9698.00,0.98
9697.00,0.98
9696.00,0.97
9695.00,0.97
9694.00,0.96
9693.00,0.96
9692.00,0.96
9691.00,0.96
9690.00,0.95
9689.00,0.95
9688.00,0.95
9687.00,0.95
9686.00,0.95
9685.00,0.95
9684.00,0.95
9683.00,0.95
9682.00,0.95
9681.00,0.95
9680.00,0.95
9679.00,0.96
9678.00,0.96
9677.00,0.97
9676.00,0.97
9675.00,0.98
9674.00,0.99
9673.00,1.00
9672.00,1.00
9671.00,1.01
9670.00,1.02
9669.00,1.03
9668.00,1.04
9667.00,1.04
9666.00,1.05
9665.00,1.06
9664.00,1.06
9663.00,1.07
9662.00,1.08
9661.00,1.09
9660.00,1.09
9659.00,1.10
9658.00,1.11
9657.00,1.12
9656.00,1.13
9655.00,1.14
9654.00,1.15
9653.00,1.15
9652.00,1.16
9651.00,1.17
9650.00,1.17
9649.00,1.18
9648.00,1.18
9647.00,1.18
9646.00,1.18
9645.00,1.18
9644.00,1.18
9643.00,1.18
9642.00,1.17
9641.00,1.17
9640.00,1.17
9639.00,1.16
9638.00,1.16
9637.00,1.16
9636.00,1.15
9635.00,1.15
9634.00,1.14
9633.00,1.13
9632.00,1.13
9631.00,1.12
9630.00,1.11
9629.00,1.10
9628.00,1.08
9627.00,1.07
9626.00,1.06
9625.00,1.04
9624.00,1.03
9623.00,1.02
9622.00,1.01
9621.00,1.00
9620.00,0.98
9619.00,0.98
9618.00,0.97
9617.00,0.96
9616.00,0.95
9615.00,0.95
9614.00,0.94
9613.00,0.94
9612.00,0.93
9611.00,0.93
9610.00,0.92
9609.00,0.92
9608.00,0.92
9607.00,0.92
9606.00,0.91
9605.00,0.91
9604.00,0.92
9603.00,0.92
9602.00,0.92
9601.00,0.93
9600.00,0.93
9599.00,0.94
9598.00,0.95
9597.00,0.96
9596.00,0.97
9595.00,0.98
9594.00,0.99
9593.00,1.00
9592.00,1.01
9591.00,1.02
9590.00,1.03
9589.00,1.04
9588.00,1.05
9587.00,1.06
9586.00,1.07
9585.00,1.07
9584.00,1.08
9583.00,1.09
9582.00,1.10
9581.00,1.11
9580.00,1.12
9579.00,1.13
9578.00,1.14
9577.00,1.15
9576.00,1.15
9575.00,1.16
9574.00,1.17
9573.00,1.17
9572.00,1.18
9571.00,1.18
9570.00,1.18
9569.00,1.18
9568.00,1.19
9567.00,1.19
9566.00,1.19
9565.00,1.18
9564.00,1.18
9563.00,1.18
9562.00,1.18
9561.00,1.17
9560.00,1.17
9559.00,1.17
9558.00,1.16
9557.00,1.16
9556.00,1.15
9555.00,1.15
9554.00,1.15
9553.00,1.14
9552.00,1.14
9551.00,1.13
9550.00,1.13
9549.00,1.12
9548.00,1.12
9547.00,1.11
9546.00,1.11
9545.00,1.11
9544.00,1.10
9543.00,1.10
9542.00,1.10
9541.00,1.10
9540.00,1.09
9539.00,1.09
9538.00,1.09
9537.00,1.09
9536.00,1.09
9535.00,1.09
9534.00,1.10
9533.00,1.10
9532.00,1.10
9531.00,1.10
9530.00,1.10
9529.00,1.10
9528.00,1.10
9527.00,1.10
9526.00,1.10
9525.00,1.10
9524.00,1.10
9523.00,1.09
9522.00,1.09
9521.00,1.09
9520.00,1.09
9519.00,1.08
9518.00,1.08
9517.00,1.08
9516.00,1.08
9515.00,1.08
9514.00,1.08
9513.00,1.08
9512.00,1.08
9511.00,1.08
9510.00,1.08
9509.00,1.08
9508.00,1.07
9507.00,1.07
9506.00,1.07
9505.00,1.07
9504.00,1.07
9503.00,1.07
9502.00,1.06
9501.00,1.06
9500.00,1.06
9499.00,1.07
9498.00,1.07
9497.00,1.07
9496.00,1.07
9495.00,1.07
9494.00,1.07
9493.00,1.08
9492.00,1.08
9491.00,1.08
9490.00,1.08
9489.00,1.08
9488.00,1.08
9487.00,1.08
9486.00,1.08
9485.00,1.08
9484.00,1.07
9483.00,1.07
9482.00,1.07
9481.00,1.07
9480.00,1.07
9479.00,1.06
9478.00,1.06
9477.00,1.06
9476.00,1.06
9475.00,1.06
9474.00,1.06
9473.00,1.06
9472.00,1.05
9471.00,1.05
9470.00,1.05
9469.00,1.05
9468.00,1.05
9467.00,1.04
9466.00,1.04
9465.00,1.04
9464.00,1.04
9463.00,1.04
9462.00,1.04
9461.00,1.04
9460.00,1.04
9459.00,1.04
9458.00,1.03
9457.00,1.03
9456.00,1.03
9455.00,1.04
9454.00,1.04
9453.00,1.04
9452.00,1.04
9451.00,1.04
9450.00,1.04
9449.00,1.04
9448.00,1.04
9447.00,1.03
9446.00,1.03
9445.00,1.03
9444.00,1.03
9443.00,1.03
9442.00,1.02
9441.00,1.02
9440.00,1.02
9439.00,1.02
9438.00,1.01
9437.00,1.01
9436.00,1.01
9435.00,1.00
9434.00,1.00
9433.00,1.00
9432.00,1.00
9431.00,0.99
9430.00,0.99
9429.00,0.99
9428.00,0.99
9427.00,0.98
9426.00,0.98
9425.00,0.98
9424.00,0.98
9423.00,0.98
9422.00,0.98
9421.00,0.98
9420.00,0.98
9419.00,0.98
9418.00,0.98
9417.00,0.98
9416.00,0.98
9415.00,0.98
9414.00,0.98
9413.00,0.98
9412.00,0.98
9411.00,0.98
9410.00,0.99
9409.00,0.99
9408.00,0.99
9407.00,0.98
9406.00,0.98
9405.00,0.98
9404.00,0.98
9403.00,0.98
9402.00,0.98
9401.00,0.98
9400.00,0.98
9399.00,0.98
9398.00,0.98
9397.00,0.98
9396.00,0.98
9395.00,0.98
9394.00,0.98
9393.00,0.98
9392.00,0.98
9391.00,0.98
9390.00,0.98
9389.00,0.98
9388.00,0.98
9387.00,0.98
9386.00,0.98
9385.00,0.98
9384.00,0.98
9383.00,0.98
9382.00,0.98
9381.00,0.98
9380.00,0.99
9379.00,0.99
9378.00,0.99
9377.00,0.99
9376.00,1.00
9375.00,1.00
9374.00,1.00
9373.00,1.00
9372.00,1.01
9371.00,1.01
9370.00,1.01
9369.00,1.02
9368.00,1.02
9367.00,1.02
9366.00,1.03
9365.00,1.03
9364.00,1.04
9363.00,1.04
9362.00,1.05
9361.00,1.05
9360.00,1.06
9359.00,1.06
9358.00,1.07
9357.00,1.07
9356.00,1.08
9355.00,1.08
9354.00,1.08
9353.00,1.08
9352.00,1.09
9351.00,1.09
9350.00,1.09
9349.00,1.09
9348.00,1.09
9347.00,1.09
9346.00,1.09
9345.00,1.10
9344.00,1.10
9343.00,1.10
9342.00,1.10
9341.00,1.10
9340.00,1.10
9339.00,1.10
9338.00,1.10
9337.00,1.10
9336.00,1.10
9335.00,1.10
9334.00,1.10
9333.00,1.09
9332.00,1.09
9331.00,1.09
9330.00,1.09
9329.00,1.08
9328.00,1.08
9327.00,1.08
9326.00,1.08
9325.00,1.08
9324.00,1.08
9323.00,1.08
9322.00,1.08
9321.00,1.08
9320.00,1.08
9319.00,1.07
9318.00,1.07
9317.00,1.07
9316.00,1.07
9315.00,1.06
9314.00,1.06
9313.00,1.05
9312.00,1.05
9311.00,1.05
9310.00,1.04
9309.00,1.04
9308.00,1.04
9307.00,1.04
9306.00,1.04
9305.00,1.03
9304.00,1.03
9303.00,1.03
9302.00,1.03
9301.00,1.03
9300.00,1.03
9299.00,1.03
9298.00,1.03
9297.00,1.03
9296.00,1.03
9295.00,1.03
9294.00,1.03
9293.00,1.03
9292.00,1.03
9291.00,1.03
9290.00,1.03
9289.00,1.03
9288.00,1.04
9287.00,1.04
9286.00,1.04
9285.00,1.04
9284.00,1.04
9283.00,1.04
9282.00,1.04
9281.00,1.04
9280.00,1.04
9279.00,1.04
9278.00,1.03
9277.00,1.03
9276.00,1.03
9275.00,1.03
9274.00,1.02
9273.00,1.02
9272.00,1.02
9271.00,1.01
9270.00,1.01
9269.00,1.01
9268.00,1.00
9267.00,1.00
9266.00,1.00
9265.00,0.99
9264.00,0.99
9263.00,0.98
9262.00,0.98
9261.00,0.98
9260.00,0.97
9259.00,0.97
9258.00,0.97
9257.00,0.97
9256.00,0.96
9255.00,0.96
9254.00,0.96
9253.00,0.97
9252.00,0.97
9251.00,0.97
9250.00,0.97
9249.00,0.97
9248.00,0.97
9247.00,0.97
9246.00,0.97
9245.00,0.97
9244.00,0.97
9243.00,0.97
9242.00,0.97
9241.00,0.97
9240.00,0.97
9239.00,0.96
9238.00,0.96
9237.00,0.96
9236.00,0.96
9235.00,0.96
9234.00,0.96
9233.00,0.96
9232.00,0.96
9231.00,0.96
9230.00,0.95
9229.00,0.95
9228.00,0.95
9227.00,0.95
9226.00,0.94
9225.00,0.94
9224.00,0.94
9223.00,0.93
9222.00,0.93
9221.00,0.93
9220.00,0.93
9219.00,0.93
9218.00,0.93
9217.00,0.93
9216.00,0.94
9215.00,0.94
9214.00,0.94
9213.00,0.95
9212.00,0.96
9211.00,0.96
9210.00,0.97
9209.00,0.97
9208.00,0.98
9207.00,0.99
9206.00,0.99
9205.00,1.00
9204.00,1.01
9203.00,1.02
9202.00,1.03
9201.00,1.03
9200.00,1.04
9199.00,1.05
9198.00,1.06
9197.00,1.07
9196.00,1.08
9195.00,1.09
9194.00,1.10
9193.00,1.11
9192.00,1.12
9191.00,1.12
9190.00,1.13
9189.00,1.13
9188.00,1.13
9187.00,1.13
9186.00,1.13
9185.00,1.13
9184.00,1.13
9183.00,1.13
9182.00,1.13
9181.00,1.13
9180.00,1.12
9179.00,1.12
9178.00,1.12
9177.00,1.11
9176.00,1.11
9175.00,1.10
9174.00,1.10
9173.00,1.09
9172.00,1.09
9171.00,1.08
9170.00,1.08
9169.00,1.08
9168.00,1.08
9167.00,1.07
9166.00,1.07
9165.00,1.07
9164.00,1.07
9163.00,1.07
9162.00,1.07
9161.00,1.07
9160.00,1.07
9159.00,1.07
9158.00,1.07
9157.00,1.07
9156.00,1.08
9155.00,1.08
9154.00,1.08
9153.00,1.08
9152.00,1.08
9151.00,1.09
9150.00,1.09
9149.00,1.09
9148.00,1.09
9147.00,1.09
9146.00,1.09
9145.00,1.09
9144.00,1.09
9143.00,1.09
9142.00,1.08
9141.00,1.08
9140.00,1.07
9139.00,1.07
9138.00,1.06
9137.00,1.06
9136.00,1.06
9135.00,1.05
9134.00,1.05
9133.00,1.05
9132.00,1.04
9131.00,1.04
9130.00,1.04
9129.00,1.03
9128.00,1.03
9127.00,1.03
9126.00,1.03
9125.00,1.03
9124.00,1.03
9123.00,1.03
9122.00,1.03
9121.00,1.03
9120.00,1.03
9119.00,1.03
9118.00,1.03
9117.00,1.04
9116.00,1.04
9115.00,1.05
9114.00,1.05
9113.00,1.06
9112.00,1.06
9111.00,1.06
9110.00,1.07
9109.00,1.07
9108.00,1.08
9107.00,1.08
9106.00,1.08
9105.00,1.08
9104.00,1.08
9103.00,1.09
9102.00,1.09
9101.00,1.09
9100.00,1.09
9099.00,1.09
9098.00,1.08
9097.00,1.08
9096.00,1.08
9095.00,1.08
9094.00,1.08
9093.00,1.08
9092.00,1.07
9091.00,1.07
9090.00,1.07
9089.00,1.07
9088.00,1.07
9087.00,1.07
9086.00,1.06
9085.00,1.06
9084.00,1.06
9083.00,1.06
9082.00,1.06
9081.00,1.06
9080.00,1.06
9079.00,1.06
9078.00,1.06
9077.00,1.05
9076.00,1.05
9075.00,1.05
9074.00,1.05
9073.00,1.05
9072.00,1.05
9071.00,1.05
9070.00,1.05
9069.00,1.05
9068.00,1.06
9067.00,1.06
9066.00,1.06
9065.00,1.06
9064.00,1.06
9063.00,1.06
9062.00,1.07
9061.00,1.07
9060.00,1.07
9059.00,1.07
9058.00,1.07
9057.00,1.08
9056.00,1.08
9055.00,1.08
9054.00,1.08
9053.00,1.08
9052.00,1.09
9051.00,1.09
9050.00,1.09
9049.00,1.09
9048.00,1.09
9047.00,1.09
9046.00,1.09
9045.00,1.09
9044.00,1.09
9043.00,1.09
9042.00,1.08
9041.00,1.08
9040.00,1.08
9039.00,1.08
9038.00,1.08
9037.00,1.07
9036.00,1.07
9035.00,1.07
9034.00,1.06
9033.00,1.06
9032.00,1.05
9031.00,1.05
9030.00,1.05
9029.00,1.04
9028.00,1.04
9027.00,1.04
9026.00,1.04
9025.00,1.04
9024.00,1.04
9023.00,1.04
9022.00,1.04
9021.00,1.04
9020.00,1.04
9019.00,1.04
9018.00,1.04
9017.00,1.04
9016.00,1.04
9015.00,1.04
9014.00,1.04
9013.00,1.04
9012.00,1.04
9011.00,1.04
9010.00,1.05
9009.00,1.05
9008.00,1.05
9007.00,1.05
9006.00,1.05
9005.00,1.05
9004.00,1.06
9003.00,1.06
9002.00,1.06
9001.00,1.06
9000.00,1.06
8999.00,1.06
8998.00,1.05
8997.00,1.05
8996.00,1.05
8995.00,1.05
8994.00,1.05
8993.00,1.05
8992.00,1.05
8991.00,1.06
8990.00,1.06
8989.00,1.06
8988.00,1.07
8987.00,1.07
8986.00,1.07
8985.00,1.07
8984.00,1.08
8983.00,1.08
8982.00,1.08
8981.00,1.08
8980.00,1.08
8979.00,1.09
8978.00,1.09
8977.00,1.09
8976.00,1.09
8975.00,1.09
8974.00,1.10
8973.00,1.10
8972.00,1.10
8971.00,1.10
8970.00,1.10
8969.00,1.10
8968.00,1.10
8967.00,1.10
8966.00,1.10
8965.00,1.10
8964.00,1.09
8963.00,1.09
8962.00,1.08
8961.00,1.08
8960.00,1.07
8959.00,1.07
8958.00,1.06
8957.00,1.06
8956.00,1.05
8955.00,1.05
8954.00,1.04
8953.00,1.04
8952.00,1.03
8951.00,1.03
8950.00,1.03
8949.00,1.02
8948.00,1.02
8947.00,1.02
8946.00,1.02
8945.00,1.02
8944.00,1.01
8943.00,1.01
8942.00,1.01
8941.00,1.01
8940.00,1.02
8939.00,1.02
8938.00,1.02
8937.00,1.02
8936.00,1.03
8935.00,1.03
8934.00,1.04
8933.00,1.04
8932.00,1.05
8931.00,1.05
8930.00,1.06
8929.00,1.07
8928.00,1.07
8927.00,1.08
8926.00,1.08
8925.00,1.09
8924.00,1.09
8923.00,1.10
8922.00,1.10
8921.00,1.10
8920.00,1.10
8919.00,1.11
8918.00,1.11
8917.00,1.11
8916.00,1.11
8915.00,1.12
8914.00,1.12
8913.00,1.12
8912.00,1.12
8911.00,1.12
8910.00,1.11
8909.00,1.11
8908.00,1.11
8907.00,1.10
8906.00,1.10
8905.00,1.09
8904.00,1.09
8903.00,1.09
8902.00,1.08
8901.00,1.08
8900.00,1.07
8899.00,1.07
8898.00,1.06
8897.00,1.06
8896.00,1.06
8895.00,1.05
8894.00,1.05
8893.00,1.05
8892.00,1.04
8891.00,1.04
8890.00,1.04
8889.00,1.03
8888.00,1.03
8887.00,1.03
8886.00,1.03
8885.00,1.02
8884.00,1.02
8883.00,1.02
8882.00,1.02
8881.00,1.02
8880.00,1.02
8879.00,1.02
8878.00,1.02
8877.00,1.03
8876.00,1.03
8875.00,1.03
8874.00,1.03
8873.00,1.03
8872.00,1.03
8871.00,1.03
8870.00,1.04
8869.00,1.04
8868.00,1.04
8867.00,1.04
8866.00,1.04
8865.00,1.04
8864.00,1.04
8863.00,1.04
8862.00,1.04
8861.00,1.04
8860.00,1.04
8859.00,1.05
8858.00,1.05
8857.00,1.05
8856.00,1.05
8855.00,1.05
8854.00,1.05
8853.00,1.06
8852.00,1.06
8851.00,1.06
8850.00,1.06
8849.00,1.06
8848.00,1.06
8847.00,1.06
8846.00,1.06
8845.00,1.06
8844.00,1.07
8843.00,1.07
8842.00,1.07
8841.00,1.07
8840.00,1.07
8839.00,1.08
8838.00,1.08
8837.00,1.08
8836.00,1.09
8835.00,1.09
8834.00,1.09
8833.00,1.09
8832.00,1.10
8831.00,1.10
8830.00,1.10
8829.00,1.10
8828.00,1.10
8827.00,1.10
8826.00,1.11
8825.00,1.11
8824.00,1.11
8823.00,1.10
8822.00,1.10
8821.00,1.10
8820.00,1.10
8819.00,1.10
8818.00,1.09
8817.00,1.09
8816.00,1.09
8815.00,1.08
8814.00,1.08
8813.00,1.07
8812.00,1.07
8811.00,1.06
8810.00,1.06
8809.00,1.05
8808.00,1.05
8807.00,1.04
8806.00,1.04
8805.00,1.03
8804.00,1.03
8803.00,1.02
8802.00,1.02
8801.00,1.02
8800.00,1.02
8799.00,1.01
8798.00,1.01
8797.00,1.01
8796.00,1.01
8795.00,1.01
8794.00,1.02
8793.00,1.02
8792.00,1.02
8791.00,1.03
8790.00,1.03
8789.00,1.03
8788.00,1.04
8787.00,1.04
8786.00,1.05
8785.00,1.06
8784.00,1.06
8783.00,1.07
8782.00,1.08
8781.00,1.08
8780.00,1.09
8779.00,1.10
8778.00,1.10
8777.00,1.11
8776.00,1.11
8775.00,1.12
8774.00,1.12
8773.00,1.13
8772.00,1.13
8771.00,1.13
8770.00,1.14
8769.00,1.14
8768.00,1.14
8767.00,1.15
8766.00,1.15
8765.00,1.15
8764.00,1.15
8763.00,1.15
8762.00,1.15
8761.00,1.15
8760.00,1.15
8759.00,1.15
8758.00,1.14
8757.00,1.14
8756.00,1.14
8755.00,1.14
8754.00,1.14
8753.00,1.13
8752.00,1.13
8751.00,1.13
8750.00,1.13
8749.00,1.12
8748.00,1.12
8747.00,1.11
8746.00,1.11
8745.00,1.11
8744.00,1.10
8743.00,1.10
8742.00,1.09
8741.00,1.09
8740.00,1.09
8739.00,1.08
8738.00,1.08
8737.00,1.08
8736.00,1.08
8735.00,1.08
8734.00,1.08
8733.00,1.08
8732.00,1.08
8731.00,1.07
8730.00,1.07
8729.00,1.07
8728.00,1.07
8727.00,1.07
8726.00,1.07
8725.00,1.07
8724.00,1.07
8723.00,1.07
8722.00,1.06
8721.00,1.06
8720.00,1.06
8719.00,1.06
8718.00,1.06
8717.00,1.05
8716.00,1.05
8715.00,1.05
8714.00,1.04
8713.00,1.04
8712.00,1.03
8711.00,1.03
8710.00,1.02
8709.00,1.01
8708.00,1.01
8707.00,1.00
8706.00,1.00
8705.00,0.99
8704.00,0.99
8703.00,0.98
8702.00,0.98
8701.00,0.98
8700.00,0.97
8699.00,0.97
8698.00,0.97
8697.00,0.97
8696.00,0.97
8695.00,0.97
8694.00,0.97
8693.00,0.97
8692.00,0.98
8691.00,0.98
8690.00,0.99
8689.00,0.99
8688.00,1.00
8687.00,1.01
8686.00,1.02
8685.00,1.03
8684.00,1.04
8683.00,1.04
8682.00,1.05
8681.00,1.06
8680.00,1.07
8679.00,1.07
8678.00,1.08
8677.00,1.09
8676.00,1.09
8675.00,1.10
8674.00,1.10
8673.00,1.11
8672.00,1.11
8671.00,1.12
8670.00,1.12
8669.00,1.12
8668.00,1.12
8667.00,1.12
8666.00,1.12
8665.00,1.12
8664.00,1.12
8663.00,1.12
8662.00,1.12
8661.00,1.11
8660.00,1.11
8659.00,1.10
8658.00,1.10
8657.00,1.09
8656.00,1.09
8655.00,1.08
8654.00,1.08
8653.00,1.07
8652.00,1.07
8651.00,1.06
8650.00,1.06
8649.00,1.06
8648.00,1.05
8647.00,1.05
8646.00,1.05
8645.00,1.04
8644.00,1.04
8643.00,1.04
8642.00,1.03
8641.00,1.03
8640.00,1.03
8639.00,1.03
8638.00,1.03
8637.00,1.02
8636.00,1.02
8635.00,1.02
8634.00,1.02
8633.00,1.03
8632.00,1.03
8631.00,1.03
8630.00,1.03
8629.00,1.03
8628.00,1.04
8627.00,1.04
8626.00,1.04
8625.00,1.04
8624.00,1.04
8623.00,1.04
8622.00,1.04
8621.00,1.04
8620.00,1.05
8619.00,1.05
8618.00,1.05
8617.00,1.05
8616.00,1.05
8615.00,1.05
8614.00,1.05
8613.00,1.05
8612.00,1.05
8611.00,1.05
8610.00,1.05
8609.00,1.04
8608.00,1.04
8607.00,1.04
8606.00,1.04
8605.00,1.04
8604.00,1.03
8603.00,1.03
8602.00,1.03
8601.00,1.02
8600.00,1.02
8599.00,1.02
8598.00,1.02
8597.00,1.01
8596.00,1.01
8595.00,1.01
8594.00,1.01
8593.00,1.00
8592.00,1.00
8591.00,1.00
8590.00,0.99
8589.00,0.99
8588.00,0.99
8587.00,0.99
8586.00,0.98
8585.00,0.98
8584.00,0.98
8583.00,0.97
8582.00,0.97
8581.00,0.97
8580.00,0.97
8579.00,0.97
8578.00,0.97
8577.00,0.97
8576.00,0.97
8575.00,0.97
8574.00,0.97
8573.00,0.97
8572.00,0.97
8571.00,0.97
8570.00,0.97
8569.00,0.97
8568.00,0.97
8567.00,0.97
8566.00,0.97
8565.00,0.97
8564.00,0.97
8563.00,0.97
8562.00,0.98
8561.00,0.98
8560.00,0.98
8559.00,0.98
8558.00,0.99
8557.00,0.99
8556.00,0.99
8555.00,0.99
8554.00,0.99
8553.00,0.99
8552.00,0.99
8551.00,0.99
8550.00,0.99
8549.00,0.99
8548.00,0.99
8547.00,0.99
8546.00,0.99
8545.00,0.99
8544.00,0.99
8543.00,1.00
8542.00,1.00
8541.00,1.00
8540.00,1.00
8539.00,1.00
8538.00,1.00
8537.00,1.01
8536.00,1.01
8535.00,1.01
8534.00,1.01
8533.00,1.01
8532.00,1.01
8531.00,1.01
8530.00,1.01
8529.00,1.02
8528.00,1.02
8527.00,1.02
8526.00,1.02
8525.00,1.02
8524.00,1.02
8523.00,1.02
8522.00,1.02
8521.00,1.02
8520.00,1.02
8519.00,1.02
8518.00,1.02
8517.00,1.02
8516.00,1.02
8515.00,1.02
8514.00,1.02
8513.00,1.02
8512.00,1.02
8511.00,1.01
8510.00,1.01
8509.00,1.01
8508.00,1.02
8507.00,1.02
8506.00,1.02
8505.00,1.02
8504.00,1.02
8503.00,1.02
8502.00,1.02
8501.00,1.02
8500.00,1.03
8499.00,1.03
8498.00,1.03
8497.00,1.03
8496.00,1.04
8495.00,1.04
8494.00,1.04
8493.00,1.04
8492.00,1.05
8491.00,1.05
8490.00,1.05
8489.00,1.05
8488.00,1.06
8487.00,1.06
8486.00,1.06
8485.00,1.06
8484.00,1.06
8483.00,1.06
8482.00,1.06
8481.00,1.06
8480.00,1.06
8479.00,1.06
8478.00,1.05
8477.00,1.05
8476.00,1.05
8475.00,1.05
8474.00,1.05
8473.00,1.05
8472.00,1.05
8471.00,1.05
8470.00,1.05
8469.00,1.05
8468.00,1.05
8467.00,1.05
8466.00,1.05
8465.00,1.05
8464.00,1.05
8463.00,1.05
8462.00,1.05
8461.00,1.05
8460.00,1.05
8459.00,1.05
8458.00,1.05
8457.00,1.05
8456.00,1.05
8455.00,1.06
8454.00,1.06
8453.00,1.06
8452.00,1.06
8451.00,1.06
8450.00,1.07
8449.00,1.07
8448.00,1.07
8447.00,1.07
8446.00,1.07
8445.00,1.06
8444.00,1.06
8443.00,1.06
8442.00,1.06
8441.00,1.06
8440.00,1.05
8439.00,1.05
8438.00,1.05
8437.00,1.05
8436.00,1.04
8435.00,1.04
8434.00,1.04
8433.00,1.03
8432.00,1.03
8431.00,1.03
8430.00,1.02
8429.00,1.02
8428.00,1.02
8427.00,1.02
8426.00,1.01
8425.00,1.01
8424.00,1.01
8423.00,1.01
8422.00,1.01
8421.00,1.01
8420.00,1.02
8419.00,1.02
8418.00,1.02
8417.00,1.02
8416.00,1.03
8415.00,1.03
8414.00,1.03
8413.00,1.04
8412.00,1.04
8411.00,1.05
8410.00,1.05
8409.00,1.06
8408.00,1.06
8407.00,1.07
8406.00,1.07
8405.00,1.08
8404.00,1.08
8403.00,1.09
8402.00,1.09
8401.00,1.09
8400.00,1.09
8399.00,1.10
8398.00,1.10
8397.00,1.10
8396.00,1.10
8395.00,1.10
8394.00,1.09
8393.00,1.09
8392.00,1.09
8391.00,1.09
8390.00,1.08
8389.00,1.08
8388.00,1.07
8387.00,1.07
8386.00,1.07
8385.00,1.06
8384.00,1.06
8383.00,1.05
8382.00,1.05
8381.00,1.05
8380.00,1.04
8379.00,1.04
8378.00,1.04
8377.00,1.04
8376.00,1.04
8375.00,1.04
8374.00,1.04
8373.00,1.04
8372.00,1.04
8371.00,1.04
8370.00,1.04
8369.00,1.04
8368.00,1.04
8367.00,1.04
8366.00,1.05
8365.00,1.05
8364.00,1.05
8363.00,1.06
8362.00,1.06
8361.00,1.07
8360.00,1.07
8359.00,1.07
8358.00,1.08
8357.00,1.08
8356.00,1.09
8355.00,1.09
8354.00,1.10
8353.00,1.10
8352.00,1.10
8351.00,1.11
8350.00,1.11
8349.00,1.11
8348.00,1.11
8347.00,1.12
8346.00,1.12
8345.00,1.12
8344.00,1.12
8343.00,1.13
8342.00,1.13
8341.00,1.13
8340.00,1.13
8339.00,1.14
8338.00,1.14
8337.00,1.14
8336.00,1.14
8335.00,1.14
8334.00,1.14
8333.00,1.14
8332.00,1.14
8331.00,1.13
8330.00,1.13
8329.00,1.13
8328.00,1.12
8327.00,1.12
8326.00,1.11
8325.00,1.11
8324.00,1.10
8323.00,1.10
8322.00,1.10
8321.00,1.09
8320.00,1.09
8319.00,1.08
8318.00,1.08
8317.00,1.07
8316.00,1.07
8315.00,1.06
8314.00,1.06
8313.00,1.05
8312.00,1.05
8311.00,1.05
8310.00,1.04
8309.00,1.04
8308.00,1.04
8307.00,1.04
8306.00,1.04
8305.00,1.04
8304.00,1.04
8303.00,1.04
8302.00,1.04
8301.00,1.05
8300.00,1.05
8299.00,1.06
8298.00,1.06
8297.00,1.07
8296.00,1.07
8295.00,1.08
8294.00,1.08
8293.00,1.09
8292.00,1.09
8291.00,1.10
8290.00,1.10
8289.00,1.11
8288.00,1.11
8287.00,1.11
8286.00,1.12
8285.00,1.12
8284.00,1.12
8283.00,1.12
8282.00,1.12
8281.00,1.12
8280.00,1.12
8279.00,1.12
8278.00,1.12
8277.00,1.11
8276.00,1.11
8275.00,1.11
8274.00,1.10
8273.00,1.10
8272.00,1.09
8271.00,1.09
8270.00,1.09
8269.00,1.08
8268.00,1.08
8267.00,1.07
8266.00,1.07
8265.00,1.06
8264.00,1.06
8263.00,1.06
8262.00,1.05
8261.00,1.05
8260.00,1.05
8259.00,1.04
8258.00,1.04
8257.00,1.04
8256.00,1.04
8255.00,1.04
8254.00,1.04
8253.00,1.04
8252.00,1.04
8251.00,1.04
8250.00,1.05
8249.00,1.05
8248.00,1.05
8247.00,1.05
8246.00,1.05
8245.00,1.05
8244.00,1.05
8243.00,1.05
8242.00,1.06
8241.00,1.06
8240.00,1.06
8239.00,1.06
8238.00,1.06
8237.00,1.06
8236.00,1.06
8235.00,1.06
8234.00,1.06
8233.00,1.06
8232.00,1.06
8231.00,1.06
8230.00,1.06
8229.00,1.06
8228.00,1.06
8227.00,1.06
8226.00,1.06
8225.00,1.06
8224.00,1.06
8223.00,1.06
8222.00,1.06
8221.00,1.06
8220.00,1.05
8219.00,1.05
8218.00,1.05
8217.00,1.05
8216.00,1.05
8215.00,1.05
8214.00,1.05
8213.00,1.05
8212.00,1.05
8211.00,1.05
8210.00,1.05
8209.00,1.05
8208.00,1.05
8207.00,1.05
8206.00,1.05
8205.00,1.05
8204.00,1.05
8203.00,1.05
8202.00,1.05
8201.00,1.05
8200.00,1.05
8199.00,1.05
8198.00,1.05
8197.00,1.05
8196.00,1.05
8195.00,1.05
8194.00,1.05
8193.00,1.06
8192.00,1.06
8191.00,1.06
8190.00,1.06
8189.00,1.06
8188.00,1.06
8187.00,1.06
8186.00,1.06
8185.00,1.06
8184.00,1.06
8183.00,1.07
8182.00,1.07
8181.00,1.07
8180.00,1.07
8179.00,1.07
8178.00,1.06
8177.00,1.06
8176.00,1.06
8175.00,1.06
8174.00,1.06
8173.00,1.06
8172.00,1.06
8171.00,1.06
8170.00,1.06
8169.00,1.06
8168.00,1.06
8167.00,1.06
8166.00,1.06
8165.00,1.07
8164.00,1.07
8163.00,1.07
8162.00,1.07
8161.00,1.07
8160.00,1.07
8159.00,1.07
8158.00,1.07
8157.00,1.07
8156.00,1.07
8155.00,1.07
8154.00,1.07
8153.00,1.07
8152.00,1.08
8151.00,1.08
8150.00,1.08
8149.00,1.08
8148.00,1.08
8147.00,1.08
8146.00,1.09
8145.00,1.09
8144.00,1.09
8143.00,1.09
8142.00,1.09
8141.00,1.09
8140.00,1.09
8139.00,1.09
8138.00,1.08
8137.00,1.08
8136.00,1.08
8135.00,1.08
8134.00,1.08
8133.00,1.08
8132.00,1.07
8131.00,1.07
8130.00,1.07
8129.00,1.07
8128.00,1.07
8127.00,1.07
8126.00,1.06
8125.00,1.06
8124.00,1.06
8123.00,1.06
8122.00,1.06
8121.00,1.06
8120.00,1.06
8119.00,1.05
8118.00,1.05
8117.00,1.05
8116.00,1.05
8115.00,1.05
8114.00,1.05
8113.00,1.05
8112.00,1.05
8111.00,1.05
8110.00,1.05
8109.00,1.05
8108.00,1.05
8107.00,1.06
8106.00,1.06
8105.00,1.06
8104.00,1.06
8103.00,1.06
8102.00,1.06
8101.00,1.06
8100.00,1.06
8099.00,1.06
8098.00,1.06
8097.00,1.05
8096.00,1.05
8095.00,1.05
8094.00,1.05
8093.00,1.05
8092.00,1.05
8091.00,1.05
8090.00,1.04
8089.00,1.04
8088.00,1.04
8087.00,1.04
8086.00,1.04
8085.00,1.04
8084.00,1.04
8083.00,1.03
8082.00,1.03
8081.00,1.03
8080.00,1.03
8079.00,1.03
8078.00,1.03
8077.00,1.03
8076.00,1.03
8075.00,1.03
8074.00,1.04
8073.00,1.04
8072.00,1.04
8071.00,1.04
8070.00,1.04
8069.00,1.05
8068.00,1.05
8067.00,1.05
8066.00,1.05
8065.00,1.06
8064.00,1.06
8063.00,1.06
8062.00,1.06
8061.00,1.07
8060.00,1.07
8059.00,1.07
8058.00,1.07
8057.00,1.07
8056.00,1.07
8055.00,1.07
8054.00,1.07
8053.00,1.07
8052.00,1.07
8051.00,1.06
8050.00,1.06
8049.00,1.06
8048.00,1.06
8047.00,1.06
8046.00,1.06
8045.00,1.05
8044.00,1.05
8043.00,1.05
8042.00,1.05
8041.00,1.05
8040.00,1.05
8039.00,1.04
8038.00,1.04
8037.00,1.04
8036.00,1.04
8035.00,1.04
8034.00,1.04
8033.00,1.04
8032.00,1.04
8031.00,1.04
8030.00,1.04
8029.00,1.04
8028.00,1.04
8027.00,1.04
8026.00,1.05
8025.00,1.05
8024.00,1.05
8023.00,1.05
8022.00,1.05
8021.00,1.06
8020.00,1.06
8019.00,1.06
8018.00,1.06
8017.00,1.06
8016.00,1.07
8015.00,1.07
8014.00,1.07
8013.00,1.07
8012.00,1.07
8011.00,1.07
8010.00,1.07
8009.00,1.07
8008.00,1.07
8007.00,1.07
8006.00,1.07
8005.00,1.07
8004.00,1.07
8003.00,1.07
8002.00,1.07
8001.00,1.06
8000.00,1.06
7999.00,1.06
7998.00,1.06
7997.00,1.06
7996.00,1.05
7995.00,1.05
7994.00,1.05
7993.00,1.05
7992.00,1.05
7991.00,1.04
7990.00,1.04
7989.00,1.04
7988.00,1.04
7987.00,1.03
7986.00,1.03
7985.00,1.03
7984.00,1.03
7983.00,1.02
7982.00,1.02
7981.00,1.02
7980.00,1.02
7979.00,1.02
7978.00,1.02
7977.00,1.01
7976.00,1.01
7975.00,1.01
7974.00,1.01
7973.00,1.01
7972.00,1.01
7971.00,1.01
7970.00,1.01
7969.00,1.01
7968.00,1.01
7967.00,1.01
7966.00,1.01
7965.00,1.01
7964.00,1.01
7963.00,1.01
7962.00,1.01
7961.00,1.01
7960.00,1.01
7959.00,1.01
7958.00,1.01
7957.00,1.01
7956.00,1.01
7955.00,1.01
7954.00,1.01
7953.00,1.02
7952.00,1.02
7951.00,1.02
7950.00,1.02
7949.00,1.02
7948.00,1.02
7947.00,1.02
7946.00,1.02
7945.00,1.02
7944.00,1.02
7943.00,1.03
7942.00,1.03
7941.00,1.03
7940.00,1.03
7939.00,1.03
7938.00,1.03
7937.00,1.03
7936.00,1.04
7935.00,1.04
7934.00,1.04
7933.00,1.04
7932.00,1.04
7931.00,1.04
7930.00,1.05
7929.00,1.05
7928.00,1.05
7927.00,1.05
7926.00,1.05
7925.00,1.05
7924.00,1.05
7923.00,1.06
7922.00,1.06
7921.00,1.06
7920.00,1.06
7919.00,1.06
7918.00,1.06
7917.00,1.06
7916.00,1.06
7915.00,1.06
7914.00,1.06
7913.00,1.06
7912.00,1.06
7911.00,1.06
7910.00,1.07
7909.00,1.07
7908.00,1.07
7907.00,1.07
7906.00,1.07
7905.00,1.07
7904.00,1.07
7903.00,1.07
7902.00,1.07
7901.00,1.07
7900.00,1.07
7899.00,1.07
7898.00,1.06
7897.00,1.06
7896.00,1.06
7895.00,1.06
7894.00,1.06
7893.00,1.06
7892.00,1.06
7891.00,1.06
7890.00,1.06
7889.00,1.06
7888.00,1.06
7887.00,1.06
7886.00,1.06
7885.00,1.06
7884.00,1.06
7883.00,1.06
7882.00,1.05
7881.00,1.05
7880.00,1.05
7879.00,1.05
7878.00,1.05
7877.00,1.05
7876.00,1.05
7875.00,1.05
7874.00,1.05
7873.00,1.05
7872.00,1.05
7871.00,1.05
7870.00,1.05
7869.00,1.05
7868.00,1.05
7867.00,1.06
7866.00,1.06
7865.00,1.06
7864.00,1.06
7863.00,1.06
7862.00,1.06
7861.00,1.06
7860.00,1.06
7859.00,1.06
7858.00,1.07
7857.00,1.07
7856.00,1.07
7855.00,1.07
7854.00,1.07
7853.00,1.08
7852.00,1.08
7851.00,1.08
7850.00,1.08
7849.00,1.09
7848.00,1.09
7847.00,1.09
7846.00,1.09
7845.00,1.09
7844.00,1.09
7843.00,1.09
7842.00,1.09
7841.00,1.09
7840.00,1.09
7839.00,1.09
7838.00,1.09
7837.00,1.09
7836.00,1.09
7835.00,1.09
7834.00,1.09
7833.00,1.09
7832.00,1.08
7831.00,1.08
7830.00,1.08
7829.00,1.08
7828.00,1.08
7827.00,1.07
7826.00,1.07
7825.00,1.07
7824.00,1.07
7823.00,1.06
7822.00,1.06
7821.00,1.06
7820.00,1.06
7819.00,1.06
7818.00,1.06
7817.00,1.06
7816.00,1.06
7815.00,1.07
7814.00,1.07
7813.00,1.07
7812.00,1.07
7811.00,1.07
7810.00,1.07
7809.00,1.07
7808.00,1.07
7807.00,1.07
7806.00,1.08
7805.00,1.08
7804.00,1.08
7803.00,1.08
7802.00,1.08
7801.00,1.08
7800.00,1.08
7799.00,1.09
7798.00,1.09
7797.00,1.09
7796.00,1.09
7795.00,1.09
7794.00,1.09
7793.00,1.09
7792.00,1.09
7791.00,1.08
7790.00,1.08
7789.00,1.08
7788.00,1.08
7787.00,1.08
7786.00,1.07
7785.00,1.07
7784.00,1.07
7783.00,1.07
7782.00,1.06
7781.00,1.06
7780.00,1.06
7779.00,1.06
7778.00,1.06
7777.00,1.06
7776.00,1.05
7775.00,1.05
7774.00,1.05
7773.00,1.05
7772.00,1.05
7771.00,1.05
7770.00,1.05
7769.00,1.05
7768.00,1.05
7767.00,1.05
7766.00,1.04
7765.00,1.04
7764.00,1.04
7763.00,1.04
7762.00,1.04
7761.00,1.04
7760.00,1.04
7759.00,1.04
7758.00,1.04
7757.00,1.04
7756.00,1.04
7755.00,1.04
7754.00,1.04
7753.00,1.03
7752.00,1.03
7751.00,1.03
7750.00,1.03
7749.00,1.03
7748.00,1.03
7747.00,1.03
7746.00,1.03
7745.00,1.03
7744.00,1.02
7743.00,1.02
7742.00,1.02
7741.00,1.02
7740.00,1.02
7739.00,1.02
7738.00,1.02
7737.00,1.02
7736.00,1.02
7735.00,1.02
7734.00,1.02
7733.00,1.02
7732.00,1.02
7731.00,1.02
7730.00,1.02
7729.00,1.02
7728.00,1.02
7727.00,1.03
7726.00,1.03
7725.00,1.03
7724.00,1.03
7723.00,1.03
7722.00,1.03
7721.00,1.03
7720.00,1.03
7719.00,1.03
7718.00,1.03
7717.00,1.04
7716.00,1.04
7715.00,1.04
7714.00,1.04
7713.00,1.05
7712.00,1.05
7711.00,1.05
7710.00,1.05
7709.00,1.05
7708.00,1.06
7707.00,1.06
7706.00,1.06
7705.00,1.07
7704.00,1.07
7703.00,1.07
7702.00,1.07
7701.00,1.08
7700.00,1.08
7699.00,1.08
7698.00,1.09
7697.00,1.09
7696.00,1.09
7695.00,1.10
7694.00,1.10
7693.00,1.10
7692.00,1.10
7691.00,1.11
7690.00,1.11
7689.00,1.11
7688.00,1.11
7687.00,1.11
7686.00,1.11
7685.00,1.11
7684.00,1.11
7683.00,1.11
7682.00,1.11
7681.00,1.11
7680.00,1.11
7679.00,1.11
7678.00,1.11
7677.00,1.11
7676.00,1.11
7675.00,1.11
7674.00,1.11
7673.00,1.10
7672.00,1.10
7671.00,1.10
7670.00,1.10
7669.00,1.10
7668.00,1.10
7667.00,1.10
7666.00,1.10
7665.00,1.10
7664.00,1.10
7663.00,1.10
7662.00,1.10
7661.00,1.10
7660.00,1.10
7659.00,1.10
7658.00,1.10
7657.00,1.10
7656.00,1.10
7655.00,1.10
7654.00,1.11
7653.00,1.11
7652.00,1.11
7651.00,1.11
7650.00,1.11
7649.00,1.11
7648.00,1.11
7647.00,1.11
7646.00,1.12
7645.00,1.12
7644.00,1.12
7643.00,1.12
7642.00,1.12
7641.00,1.12
7640.00,1.13
7639.00,1.13
7638.00,1.13
7637.00,1.13
7636.00,1.13
7635.00,1.12
7634.00,1.12
7633.00,1.12
7632.00,1.12
7631.00,1.12
7630.00,1.11
7629.00,1.11
7628.00,1.11
7627.00,1.11
7626.00,1.11
7625.00,1.10
7624.00,1.10
7623.00,1.10
7622.00,1.10
7621.00,1.09
7620.00,1.09
7619.00,1.09
7618.00,1.09
7617.00,1.08
7616.00,1.08
7615.00,1.08
7614.00,1.08
7613.00,1.07
7612.00,1.07
7611.00,1.07
7610.00,1.07
7609.00,1.07
7608.00,1.07
7607.00,1.07
7606.00,1.07
7605.00,1.07
7604.00,1.07
7603.00,1.07
7602.00,1.07
7601.00,1.07
7600.00,1.07
7599.00,1.08
7598.00,1.08
7597.00,1.08
7596.00,1.08
7595.00,1.08
7594.00,1.08
7593.00,1.09
7592.00,1.09
7591.00,1.09
7590.00,1.09
7589.00,1.09
7588.00,1.09
7587.00,1.10
7586.00,1.10
7585.00,1.10
7584.00,1.10
7583.00,1.10
7582.00,1.10
7581.00,1.10
7580.00,1.10
7579.00,1.10
7578.00,1.10
7577.00,1.10
7576.00,1.10
7575.00,1.10
7574.00,1.10
7573.00,1.10
7572.00,1.10
7571.00,1.10
7570.00,1.10
7569.00,1.10
7568.00,1.10
7567.00,1.10
7566.00,1.10
7565.00,1.09
7564.00,1.09
7563.00,1.09
7562.00,1.09
7561.00,1.09
7560.00,1.08
7559.00,1.08
7558.00,1.08
7557.00,1.08
7556.00,1.08
7555.00,1.08
7554.00,1.08
7553.00,1.07
7552.00,1.07
7551.00,1.07
7550.00,1.07
7549.00,1.07
7548.00,1.07
7547.00,1.07
7546.00,1.07
7545.00,1.07
7544.00,1.07
7543.00,1.07
7542.00,1.07
7541.00,1.07
7540.00,1.07
7539.00,1.07
7538.00,1.07
7537.00,1.07
7536.00,1.07
7535.00,1.07
7534.00,1.07
7533.00,1.07
7532.00,1.07
7531.00,1.07
7530.00,1.07
7529.00,1.07
7528.00,1.07
7527.00,1.07
7526.00,1.07
7525.00,1.07
7524.00,1.07
7523.00,1.07
7522.00,1.07
7521.00,1.06
7520.00,1.06
7519.00,1.06
7518.00,1.06
7517.00,1.06
7516.00,1.06
7515.00,1.06
7514.00,1.06
7513.00,1.06
7512.00,1.06
7511.00,1.06
7510.00,1.06
7509.00,1.06
7508.00,1.06
7507.00,1.06
7506.00,1.06
7505.00,1.06
7504.00,1.06
7503.00,1.06
7502.00,1.06
7501.00,1.06
7500.00,1.06
7499.00,1.06
7498.00,1.06
7497.00,1.06
7496.00,1.06
7495.00,1.07
7494.00,1.07
7493.00,1.07
7492.00,1.07
7491.00,1.07
7490.00,1.07
7489.00,1.07
7488.00,1.07
7487.00,1.08
7486.00,1.08
7485.00,1.08
7484.00,1.08
7483.00,1.09
7482.00,1.09
7481.00,1.09
7480.00,1.09
7479.00,1.09
7478.00,1.09
7477.00,1.10
7476.00,1.10
7475.00,1.10
7474.00,1.10
7473.00,1.10
7472.00,1.10
7471.00,1.10
7470.00,1.10
7469.00,1.10
7468.00,1.10
7467.00,1.09
7466.00,1.09
7465.00,1.09
7464.00,1.09
7463.00,1.09
7462.00,1.08
7461.00,1.08
7460.00,1.08
7459.00,1.08
7458.00,1.08
7457.00,1.07
7456.00,1.07
7455.00,1.07
7454.00,1.07
7453.00,1.07
7452.00,1.07
7451.00,1.07
7450.00,1.06
7449.00,1.06
7448.00,1.06
7447.00,1.07
7446.00,1.07
7445.00,1.07
7444.00,1.07
7443.00,1.07
7442.00,1.07
7441.00,1.07
7440.00,1.07
7439.00,1.07
7438.00,1.07
7437.00,1.07
7436.00,1.07
7435.00,1.07
7434.00,1.07
7433.00,1.07
7432.00,1.07
7431.00,1.07
7430.00,1.07
7429.00,1.07
7428.00,1.07
7427.00,1.07
7426.00,1.07
7425.00,1.07
7424.00,1.07
7423.00,1.07
7422.00,1.07
7421.00,1.07
7420.00,1.07
7419.00,1.07
7418.00,1.07
7417.00,1.07
7416.00,1.07
7415.00,1.07
7414.00,1.07
7413.00,1.07
7412.00,1.07
7411.00,1.07
7410.00,1.07
7409.00,1.07
7408.00,1.08
7407.00,1.08
7406.00,1.08
7405.00,1.08
7404.00,1.09
7403.00,1.09
7402.00,1.09
7401.00,1.09
7400.00,1.09
7399.00,1.10
7398.00,1.10
7397.00,1.10
7396.00,1.10
7395.00,1.10
7394.00,1.10
7393.00,1.10
7392.00,1.10
7391.00,1.10
7390.00,1.11
7389.00,1.11
7388.00,1.11
7387.00,1.11
7386.00,1.11
7385.00,1.11
7384.00,1.10
7383.00,1.10
7382.00,1.10
7381.00,1.10
7380.00,1.10
7379.00,1.10
7378.00,1.10
7377.00,1.10
7376.00,1.10
7375.00,1.09
7374.00,1.09
7373.00,1.09
7372.00,1.09
7371.00,1.09
7370.00,1.09
7369.00,1.09
7368.00,1.09
7367.00,1.09
7366.00,1.09
7365.00,1.09
7364.00,1.09
7363.00,1.10
7362.00,1.10
7361.00,1.10
7360.00,1.10
7359.00,1.10
7358.00,1.11
7357.00,1.11
7356.00,1.11
7355.00,1.11
7354.00,1.11
7353.00,1.12
7352.00,1.12
7351.00,1.12
7350.00,1.12
7349.00,1.12
7348.00,1.13
7347.00,1.13
7346.00,1.13
7345.00,1.13
7344.00,1.13
7343.00,1.14
7342.00,1.14
7341.00,1.14
7340.00,1.14
7339.00,1.14
7338.00,1.15
7337.00,1.15
7336.00,1.15
7335.00,1.15
7334.00,1.16
7333.00,1.16
7332.00,1.16
7331.00,1.16
7330.00,1.16
7329.00,1.17
7328.00,1.17
7327.00,1.17
7326.00,1.17
7325.00,1.18
7324.00,1.18
7323.00,1.18
7322.00,1.19
7321.00,1.19
7320.00,1.19
7319.00,1.19
7318.00,1.19
7317.00,1.20
7316.00,1.20
7315.00,1.20
7314.00,1.20
7313.00,1.19
7312.00,1.19
7311.00,1.19
7310.00,1.19
7309.00,1.18
7308.00,1.18
7307.00,1.18
7306.00,1.17
7305.00,1.17
7304.00,1.17
7303.00,1.16
7302.00,1.16
7301.00,1.15
7300.00,1.15
7299.00,1.14
7298.00,1.14
7297.00,1.13
7296.00,1.13
7295.00,1.12
7294.00,1.12
7293.00,1.11
7292.00,1.11
7291.00,1.10
7290.00,1.10
7289.00,1.09
7288.00,1.09
7287.00,1.09
7286.00,1.09
7285.00,1.08
7284.00,1.08
7283.00,1.08
7282.00,1.08
7281.00,1.08
7280.00,1.08
7279.00,1.08
7278.00,1.08
7277.00,1.08
7276.00,1.09
7275.00,1.09
7274.00,1.09
7273.00,1.10
7272.00,1.10
7271.00,1.10
7270.00,1.11
7269.00,1.11
7268.00,1.12
7267.00,1.12
7266.00,1.12
7265.00,1.13
7264.00,1.13
7263.00,1.14
7262.00,1.14
7261.00,1.14
7260.00,1.15
7259.00,1.15
7258.00,1.15
7257.00,1.16
7256.00,1.16
7255.00,1.16
7254.00,1.16
7253.00,1.17
7252.00,1.17
7251.00,1.17
7250.00,1.17
7249.00,1.17
7248.00,1.17
7247.00,1.16
7246.00,1.16
7245.00,1.16
7244.00,1.16
7243.00,1.15
7242.00,1.15
7241.00,1.15
7240.00,1.14
7239.00,1.14
7238.00,1.14
7237.00,1.14
7236.00,1.13
7235.00,1.13
7234.00,1.13
7233.00,1.13
7232.00,1.12
7231.00,1.12
7230.00,1.12
7229.00,1.11
7228.00,1.11
7227.00,1.11
7226.00,1.10
7225.00,1.10
7224.00,1.10
7223.00,1.10
7222.00,1.09
7221.00,1.09
7220.00,1.09
7219.00,1.09
7218.00,1.09
7217.00,1.09
7216.00,1.09
7215.00,1.09
7214.00,1.09
7213.00,1.09
7212.00,1.09
7211.00,1.08
7210.00,1.08
7209.00,1.08
7208.00,1.08
7207.00,1.08
7206.00,1.08
7205.00,1.08
7204.00,1.08
7203.00,1.08
7202.00,1.08
7201.00,1.08
7200.00,1.08
7199.00,1.08
7198.00,1.08
7197.00,1.08
7196.00,1.08
7195.00,1.08
7194.00,1.08
7193.00,1.08
7192.00,1.08
7191.00,1.08
7190.00,1.08
7189.00,1.08
7188.00,1.08
7187.00,1.08
7186.00,1.08
7185.00,1.08
7184.00,1.08
7183.00,1.08
7182.00,1.08
7181.00,1.08
7180.00,1.08
7179.00,1.08
7178.00,1.08
7177.00,1.08
7176.00,1.08
7175.00,1.08
7174.00,1.09
7173.00,1.09
7172.00,1.09
7171.00,1.09
7170.00,1.09
7169.00,1.09
7168.00,1.10
7167.00,1.10
7166.00,1.10
7165.00,1.10
7164.00,1.10
7163.00,1.11
7162.00,1.11
7161.00,1.11
7160.00,1.11
7159.00,1.11
7158.00,1.11
7157.00,1.11
7156.00,1.11
7155.00,1.11
7154.00,1.11
7153.00,1.11
7152.00,1.11
7151.00,1.11
7150.00,1.11
7149.00,1.11
7148.00,1.11
7147.00,1.11
7146.00,1.11
7145.00,1.11
7144.00,1.11
7143.00,1.11
7142.00,1.11
7141.00,1.11
7140.00,1.10
7139.00,1.10
7138.00,1.10
7137.00,1.10
7136.00,1.09
7135.00,1.09
7134.00,1.09
7133.00,1.09
7132.00,1.08
7131.00,1.08
7130.00,1.08
7129.00,1.08
7128.00,1.08
7127.00,1.08
7126.00,1.08
7125.00,1.07
7124.00,1.07
7123.00,1.07
7122.00,1.07
7121.00,1.07
7120.00,1.07
7119.00,1.07
7118.00,1.07
7117.00,1.07
7116.00,1.07
7115.00,1.07
7114.00,1.07
7113.00,1.07
7112.00,1.07
7111.00,1.06
7110.00,1.06
7109.00,1.06
7108.00,1.06
7107.00,1.06
7106.00,1.06
7105.00,1.06
7104.00,1.06
7103.00,1.06
7102.00,1.06
7101.00,1.06
7100.00,1.06
7099.00,1.05
7098.00,1.05
7097.00,1.05
7096.00,1.05
7095.00,1.05
7094.00,1.04
7093.00,1.04
7092.00,1.04
7091.00,1.03
7090.00,1.03
7089.00,1.03
7088.00,1.02
7087.00,1.02
7086.00,1.02
7085.00,1.01
7084.00,1.01
7083.00,1.01
7082.00,1.01
7081.00,1.01
7080.00,1.00
7079.00,1.00
7078.00,1.00
7077.00,1.00
7076.00,1.00
7075.00,1.00
7074.00,0.99
7073.00,0.99
7072.00,0.99
7071.00,0.99
7070.00,0.99
7069.00,0.99
7068.00,0.99
7067.00,0.99
7066.00,0.99
7065.00,1.00
7064.00,1.00
7063.00,1.00
7062.00,1.00
7061.00,1.00
7060.00,1.00
7059.00,1.01
7058.00,1.01
7057.00,1.01
7056.00,1.01
7055.00,1.01
7054.00,1.01
7053.00,1.01
7052.00,1.01
7051.00,1.01
7050.00,1.01
7049.00,1.01
7048.00,1.01
7047.00,1.01
7046.00,1.01
7045.00,1.01
7044.00,1.01
7043.00,1.01
7042.00,1.01
7041.00,1.00
7040.00,1.00
7039.00,1.00
7038.00,1.00
7037.00,0.99
7036.00,0.99
7035.00,0.99
7034.00,0.99
7033.00,0.99
7032.00,0.98
7031.00,0.98
7030.00,0.98
7029.00,0.98
7028.00,0.98
7027.00,0.98
7026.00,0.97
7025.00,0.97
7024.00,0.97
7023.00,0.97
7022.00,0.97
7021.00,0.97
7020.00,0.97
7019.00,0.97
7018.00,0.97
7017.00,0.97
7016.00,0.98
7015.00,0.98
7014.00,0.98
7013.00,0.98
7012.00,0.99
7011.00,0.99
7010.00,0.99
7009.00,0.99
7008.00,0.99
7007.00,1.00
7006.00,1.00
7005.00,1.00
7004.00,1.00
7003.00,1.01
7002.00,1.01
7001.00,1.01
7000.00,1.02
6999.00,1.02
6998.00,1.02
6997.00,1.02
6996.00,1.03
6995.00,1.03
6994.00,1.03
6993.00,1.03
6992.00,1.04
6991.00,1.04
6990.00,1.04
6989.00,1.04
6988.00,1.04
6987.00,1.04
6986.00,1.04
6985.00,1.04
6984.00,1.05
6983.00,1.05
6982.00,1.05
6981.00,1.05
6980.00,1.05
6979.00,1.05
6978.00,1.05
6977.00,1.05
6976.00,1.05
6975.00,1.05
6974.00,1.05
6973.00,1.05
6972.00,1.05
6971.00,1.05
6970.00,1.05
6969.00,1.05
6968.00,1.05
6967.00,1.05
6966.00,1.05
6965.00,1.05
6964.00,1.05
6963.00,1.05
6962.00,1.05
6961.00,1.05
6960.00,1.05
6959.00,1.05
6958.00,1.05
6957.00,1.04
6956.00,1.04
6955.00,1.04
6954.00,1.04
6953.00,1.04
6952.00,1.04
6951.00,1.04
6950.00,1.04
6949.00,1.04
6948.00,1.04
6947.00,1.04
6946.00,1.04
6945.00,1.04
6944.00,1.05
6943.00,1.05
6942.00,1.04
6941.00,1.04
6940.00,1.04
6939.00,1.04
6938.00,1.04
6937.00,1.04
6936.00,1.04
6935.00,1.04
6934.00,1.04
6933.00,1.04
6932.00,1.04
6931.00,1.04
6930.00,1.04
6929.00,1.04
6928.00,1.04
6927.00,1.04
6926.00,1.04
6925.00,1.04
6924.00,1.04
6923.00,1.04
6922.00,1.03
6921.00,1.03
6920.00,1.03
6919.00,1.03
6918.00,1.03
6917.00,1.03
6916.00,1.03
6915.00,1.03
6914.00,1.04
6913.00,1.04
6912.00,1.04
6911.00,1.04
6910.00,1.04
6909.00,1.04
6908.00,1.04
6907.00,1.04
6906.00,1.04
6905.00,1.04
6904.00,1.05
6903.00,1.05
6902.00,1.05
6901.00,1.05
6900.00,1.06
6899.00,1.06
6898.00,1.06
6897.00,1.06
6896.00,1.06
6895.00,1.06
6894.00,1.06
6893.00,1.06
6892.00,1.06
6891.00,1.07
6890.00,1.07
6889.00,1.07
6888.00,1.07
6887.00,1.07
6886.00,1.06
6885.00,1.06
6884.00,1.06
6883.00,1.06
6882.00,1.06
6881.00,1.06
6880.00,1.06
6879.00,1.06
6878.00,1.06
6877.00,1.06
6876.00,1.06
6875.00,1.06
6874.00,1.06
6873.00,1.06
6872.00,1.06
6871.00,1.06
6870.00,1.06
6869.00,1.06
6868.00,1.06
6867.00,1.06
6866.00,1.06
6865.00,1.06
6864.00,1.06
6863.00,1.06
6862.00,1.06
6861.00,1.06
6860.00,1.06
6859.00,1.06
6858.00,1.06
6857.00,1.06
6856.00,1.06
6855.00,1.06
6854.00,1.06
6853.00,1.06
6852.00,1.06
6851.00,1.06
6850.00,1.06
6849.00,1.05
6848.00,1.05
6847.00,1.05
6846.00,1.05
6845.00,1.05
6844.00,1.05
6843.00,1.05
6842.00,1.05
6841.00,1.05
6840.00,1.05
6839.00,1.05
6838.00,1.05
6837.00,1.05
6836.00,1.05
6835.00,1.04
6834.00,1.04
6833.00,1.04
6832.00,1.04
6831.00,1.04
6830.00,1.04
6829.00,1.04
6828.00,1.04
6827.00,1.04
6826.00,1.04
6825.00,1.04
6824.00,1.04
6823.00,1.04
6822.00,1.04
6821.00,1.04
6820.00,1.04
6819.00,1.04
6818.00,1.04
6817.00,1.04
6816.00,1.04
6815.00,1.04
6814.00,1.05
6813.00,1.05
6812.00,1.05
6811.00,1.05
6810.00,1.05
6809.00,1.05
6808.00,1.05
6807.00,1.05
6806.00,1.05
6805.00,1.05
6804.00,1.05
6803.00,1.05
6802.00,1.05
6801.00,1.06
6800.00,1.06
6799.00,1.06
6798.00,1.06
6797.00,1.06
6796.00,1.06
6795.00,1.06
6794.00,1.06
6793.00,1.06
6792.00,1.06
6791.00,1.07
6790.00,1.07
6789.00,1.07
6788.00,1.07
6787.00,1.07
6786.00,1.07
6785.00,1.07
6784.00,1.07
6783.00,1.07
6782.00,1.07
6781.00,1.07
6780.00,1.07
6779.00,1.07
6778.00,1.07
6777.00,1.07
6776.00,1.07
6775.00,1.07
6774.00,1.07
6773.00,1.07
6772.00,1.07
6771.00,1.07
6770.00,1.07
6769.00,1.06
6768.00,1.06
6767.00,1.06
6766.00,1.06
6765.00,1.06
6764.00,1.06
6763.00,1.06
6762.00,1.06
6761.00,1.06
6760.00,1.05
6759.00,1.05
6758.00,1.05
6757.00,1.05
6756.00,1.05
6755.00,1.05
6754.00,1.05
6753.00,1.05
6752.00,1.05
6751.00,1.05
6750.00,1.05
6749.00,1.05
6748.00,1.05
6747.00,1.05
6746.00,1.05
6745.00,1.05
6744.00,1.04
6743.00,1.04
6742.00,1.04
6741.00,1.04
6740.00,1.04
6739.00,1.04
6738.00,1.04
6737.00,1.04
6736.00,1.04
6735.00,1.04
6734.00,1.05
6733.00,1.05
6732.00,1.05
6731.00,1.05
6730.00,1.05
6729.00,1.05
6728.00,1.05
6727.00,1.05
6726.00,1.05
6725.00,1.05
6724.00,1.05
6723.00,1.05
6722.00,1.05
6721.00,1.05
6720.00,1.05
6719.00,1.05
6718.00,1.05
6717.00,1.05
6716.00,1.05
6715.00,1.05
6714.00,1.05
6713.00,1.05
6712.00,1.05
6711.00,1.05
6710.00,1.05
6709.00,1.05
6708.00,1.05
6707.00,1.05
6706.00,1.05
6705.00,1.05
6704.00,1.05
6703.00,1.05
6702.00,1.05
6701.00,1.04
6700.00,1.04
6699.00,1.04
6698.00,1.04
6697.00,1.04
6696.00,1.04
6695.00,1.04
6694.00,1.04
6693.00,1.04
6692.00,1.05
6691.00,1.05
6690.00,1.05
6689.00,1.05
6688.00,1.05
6687.00,1.05
6686.00,1.05
6685.00,1.05
6684.00,1.05
6683.00,1.05
6682.00,1.05
6681.00,1.05
6680.00,1.05
6679.00,1.05
6678.00,1.05
6677.00,1.05
6676.00,1.06
6675.00,1.06
6674.00,1.06
6673.00,1.06
6672.00,1.06
6671.00,1.06
6670.00,1.06
6669.00,1.06
6668.00,1.06
6667.00,1.06
6666.00,1.06
6665.00,1.05
6664.00,1.05
6663.00,1.05
6662.00,1.05
6661.00,1.05
6660.00,1.05
6659.00,1.05
6658.00,1.05
6657.00,1.05
6656.00,1.05
6655.00,1.05
6654.00,1.05
6653.00,1.05
6652.00,1.05
6651.00,1.05
6650.00,1.05
6649.00,1.05
6648.00,1.05
6647.00,1.05
6646.00,1.05
6645.00,1.05
6644.00,1.05
6643.00,1.05
6642.00,1.05
6641.00,1.05
6640.00,1.05
6639.00,1.05
6638.00,1.05
6637.00,1.05
6636.00,1.06
6635.00,1.06
6634.00,1.06
6633.00,1.06
6632.00,1.06
6631.00,1.06
6630.00,1.06
6629.00,1.06
6628.00,1.06
6627.00,1.06
6626.00,1.07
6625.00,1.07
6624.00,1.07
6623.00,1.07
6622.00,1.07
6621.00,1.07
6620.00,1.08
6619.00,1.08
6618.00,1.08
6617.00,1.08
6616.00,1.08
6615.00,1.08
6614.00,1.08
6613.00,1.08
6612.00,1.08
6611.00,1.08
6610.00,1.08
6609.00,1.08
6608.00,1.08
6607.00,1.08
6606.00,1.08
6605.00,1.08
6604.00,1.08
6603.00,1.08
6602.00,1.08
6601.00,1.08
6600.00,1.08
6599.00,1.08
6598.00,1.07
6597.00,1.07
6596.00,1.07
6595.00,1.07
6594.00,1.07
6593.00,1.07
6592.00,1.07
6591.00,1.07
6590.00,1.07
6589.00,1.07
6588.00,1.07
6587.00,1.07
6586.00,1.07
6585.00,1.08
6584.00,1.08
6583.00,1.08
6582.00,1.08
6581.00,1.08
6580.00,1.08
6579.00,1.09
6578.00,1.09
6577.00,1.09
6576.00,1.09
6575.00,1.09
6574.00,1.09
6573.00,1.09
6572.00,1.09
6571.00,1.09
6570.00,1.09
6569.00,1.09
6568.00,1.09
6567.00,1.09
6566.00,1.09
6565.00,1.09
6564.00,1.09
6563.00,1.09
6562.00,1.09
6561.00,1.09
6560.00,1.09
6559.00,1.09
6558.00,1.09
6557.00,1.09
6556.00,1.09
6555.00,1.09
6554.00,1.09
6553.00,1.09
6552.00,1.09
6551.00,1.09
6550.00,1.09
6549.00,1.09
6548.00,1.09
6547.00,1.09
6546.00,1.09
6545.00,1.09
6544.00,1.09
6543.00,1.09
6542.00,1.09
6541.00,1.09
6540.00,1.09
6539.00,1.09
6538.00,1.09
6537.00,1.08
6536.00,1.08
6535.00,1.08
6534.00,1.08
6533.00,1.08
6532.00,1.08
6531.00,1.08
6530.00,1.08
6529.00,1.07
6528.00,1.07
6527.00,1.07
6526.00,1.07
6525.00,1.07
6524.00,1.07
6523.00,1.07
6522.00,1.07
6521.00,1.07
6520.00,1.07
6519.00,1.07
6518.00,1.07
6517.00,1.07
6516.00,1.07
6515.00,1.07
6514.00,1.07
6513.00,1.07
6512.00,1.07
6511.00,1.08
6510.00,1.08
6509.00,1.08
6508.00,1.08
6507.00,1.09
6506.00,1.09
6505.00,1.09
6504.00,1.09
6503.00,1.10
6502.00,1.10
6501.00,1.10
6500.00,1.10
6499.00,1.11
6498.00,1.11
6497.00,1.11
6496.00,1.11
6495.00,1.12
6494.00,1.12
6493.00,1.12
6492.00,1.12
6491.00,1.13
6490.00,1.13
6489.00,1.13
6488.00,1.13
6487.00,1.14
6486.00,1.14
6485.00,1.14
6484.00,1.14
6483.00,1.14
6482.00,1.14
6481.00,1.14
6480.00,1.14
6479.00,1.15
6478.00,1.15
6477.00,1.15
6476.00,1.15
6475.00,1.15
6474.00,1.15
6473.00,1.15
6472.00,1.15
6471.00,1.15
6470.00,1.15
6469.00,1.14
6468.00,1.14
6467.00,1.14
6466.00,1.14
6465.00,1.14
6464.00,1.14
6463.00,1.13
6462.00,1.13
6461.00,1.13
6460.00,1.13
6459.00,1.13
6458.00,1.13
6457.00,1.12
6456.00,1.12
6455.00,1.12
6454.00,1.12
6453.00,1.12
6452.00,1.12
6451.00,1.12
6450.00,1.12
6449.00,1.12
6448.00,1.12
6447.00,1.12
6446.00,1.12
6445.00,1.12
6444.00,1.12
6443.00,1.12
6442.00,1.12
6441.00,1.12
6440.00,1.12
6439.00,1.12
6438.00,1.12
6437.00,1.12
6436.00,1.12
6435.00,1.12
6434.00,1.12
6433.00,1.12
6432.00,1.12
6431.00,1.12
6430.00,1.12
6429.00,1.12
6428.00,1.13
6427.00,1.13
6426.00,1.13
6425.00,1.13
6424.00,1.13
6423.00,1.13
6422.00,1.13
6421.00,1.13
6420.00,1.13
6419.00,1.13
6418.00,1.13
6417.00,1.13
6416.00,1.14
6415.00,1.14
6414.00,1.14
6413.00,1.14
6412.00,1.14
6411.00,1.15
6410.00,1.15
6409.00,1.15
6408.00,1.15
6407.00,1.15
6406.00,1.16
6405.00,1.16
6404.00,1.16
6403.00,1.16
6402.00,1.16
6401.00,1.16
6400.00,1.16
6399.00,1.16
6398.00,1.16
6397.00,1.16
6396.00,1.16
6395.00,1.16
6394.00,1.16
6393.00,1.16
6392.00,1.16
6391.00,1.16
6390.00,1.16
6389.00,1.16
6388.00,1.16
6387.00,1.16
6386.00,1.16
6385.00,1.16
6384.00,1.16
6383.00,1.16
6382.00,1.15
6381.00,1.15
6380.00,1.15
6379.00,1.15
6378.00,1.15
6377.00,1.15
6376.00,1.15
6375.00,1.15
6374.00,1.15
6373.00,1.15
6372.00,1.15
6371.00,1.15
6370.00,1.15
6369.00,1.15
6368.00,1.15
6367.00,1.15
6366.00,1.15
6365.00,1.15
6364.00,1.15
6363.00,1.15
6362.00,1.15
6361.00,1.15
6360.00,1.15
6359.00,1.16
6358.00,1.16
6357.00,1.16
6356.00,1.16
6355.00,1.16
6354.00,1.16
6353.00,1.16
6352.00,1.16
6351.00,1.16
6350.00,1.16
6349.00,1.16
6348.00,1.16
6347.00,1.16
6346.00,1.15
6345.00,1.15
6344.00,1.15
6343.00,1.15
6342.00,1.15
6341.00,1.15
6340.00,1.15
6339.00,1.15
6338.00,1.15
6337.00,1.15
6336.00,1.15
6335.00,1.15
6334.00,1.15
6333.00,1.14
6332.00,1.14
6331.00,1.14
6330.00,1.14
6329.00,1.14
6328.00,1.14
6327.00,1.14
6326.00,1.14
6325.00,1.14
6324.00,1.14
6323.00,1.14
6322.00,1.14
6321.00,1.14
6320.00,1.13
6319.00,1.13
6318.00,1.13
6317.00,1.13
6316.00,1.13
6315.00,1.13
6314.00,1.13
6313.00,1.13
6312.00,1.13
6311.00,1.13
6310.00,1.13
6309.00,1.13
6308.00,1.13
6307.00,1.14
6306.00,1.14
6305.00,1.14
6304.00,1.14
6303.00,1.14
6302.00,1.14
6301.00,1.14
6300.00,1.14
6299.00,1.15
6298.00,1.15
6297.00,1.15
6296.00,1.15
6295.00,1.15
6294.00,1.15
6293.00,1.16
6292.00,1.16
6291.00,1.16
6290.00,1.16
6289.00,1.16
6288.00,1.16
6287.00,1.17
6286.00,1.17
6285.00,1.17
6284.00,1.17
6283.00,1.17
6282.00,1.17
6281.00,1.17
6280.00,1.17
6279.00,1.17
6278.00,1.17
6277.00,1.18
6276.00,1.18
6275.00,1.18
6274.00,1.18
6273.00,1.18
6272.00,1.18
6271.00,1.17
6270.00,1.17
6269.00,1.17
6268.00,1.17
6267.00,1.17
6266.00,1.17
6265.00,1.17
6264.00,1.17
6263.00,1.17
6262.00,1.17
6261.00,1.16
6260.00,1.16
6259.00,1.16
6258.00,1.16
6257.00,1.16
6256.00,1.16
6255.00,1.16
6254.00,1.16
6253.00,1.16
6252.00,1.16
6251.00,1.16
6250.00,1.16
6249.00,1.15
6248.00,1.15
6247.00,1.15
6246.00,1.15
6245.00,1.15
6244.00,1.15
6243.00,1.15
6242.00,1.15
6241.00,1.15
6240.00,1.15
6239.00,1.15
6238.00,1.15
6237.00,1.15
6236.00,1.15
6235.00,1.15
6234.00,1.15
6233.00,1.15
6232.00,1.15
6231.00,1.14
6230.00,1.14
6229.00,1.14
6228.00,1.14
6227.00,1.14
6226.00,1.14
6225.00,1.14
6224.00,1.14
6223.00,1.14
6222.00,1.14
6221.00,1.14
6220.00,1.14
6219.00,1.14
6218.00,1.14
6217.00,1.15
6216.00,1.15
6215.00,1.15
6214.00,1.15
6213.00,1.15
6212.00,1.15
6211.00,1.15
6210.00,1.15
6209.00,1.15
6208.00,1.15
6207.00,1.15
6206.00,1.16
6205.00,1.16
6204.00,1.16
6203.00,1.16
6202.00,1.16
6201.00,1.16
6200.00,1.16
6199.00,1.16
6198.00,1.16
6197.00,1.16
6196.00,1.16
6195.00,1.16
6194.00,1.17
6193.00,1.17
6192.00,1.17
6191.00,1.17
6190.00,1.17
6189.00,1.17
6188.00,1.17
6187.00,1.17
6186.00,1.17
6185.00,1.17
6184.00,1.17
6183.00,1.17
6182.00,1.17
6181.00,1.17
6180.00,1.17
6179.00,1.17
6178.00,1.17
6177.00,1.17
6176.00,1.17
6175.00,1.17
6174.00,1.17
6173.00,1.17
6172.00,1.17
6171.00,1.18
6170.00,1.18
6169.00,1.18
6168.00,1.18
6167.00,1.18
6166.00,1.18
6165.00,1.18
6164.00,1.18
6163.00,1.18
6162.00,1.18
6161.00,1.18
6160.00,1.18
6159.00,1.18
6158.00,1.18
6157.00,1.18
6156.00,1.18
6155.00,1.18
6154.00,1.18
6153.00,1.18
6152.00,1.18
6151.00,1.18
6150.00,1.18
6149.00,1.18
6148.00,1.18
6147.00,1.18
6146.00,1.18
6145.00,1.18
6144.00,1.18
6143.00,1.18
6142.00,1.18
6141.00,1.18
6140.00,1.18
6139.00,1.18
6138.00,1.18
6137.00,1.18
6136.00,1.18
6135.00,1.18
6134.00,1.18
6133.00,1.18
6132.00,1.18
6131.00,1.18
6130.00,1.18
6129.00,1.18
6128.00,1.18
6127.00,1.18
6126.00,1.18
6125.00,1.18
6124.00,1.17
6123.00,1.17
6122.00,1.17
6121.00,1.17
6120.00,1.17
6119.00,1.17
6118.00,1.17
6117.00,1.17
6116.00,1.17
6115.00,1.17
6114.00,1.17
6113.00,1.17
6112.00,1.17
6111.00,1.16
6110.00,1.16
6109.00,1.16
6108.00,1.16
6107.00,1.16
6106.00,1.16
6105.00,1.16
6104.00,1.16
6103.00,1.15
6102.00,1.15
6101.00,1.15
6100.00,1.15
6099.00,1.15
6098.00,1.15
6097.00,1.15
6096.00,1.15
6095.00,1.15
6094.00,1.15
6093.00,1.15
6092.00,1.15
6091.00,1.15
6090.00,1.15
6089.00,1.16
6088.00,1.16
6087.00,1.16
6086.00,1.16
6085.00,1.16
6084.00,1.16
6083.00,1.16
6082.00,1.17
6081.00,1.17
6080.00,1.17
6079.00,1.17
6078.00,1.18
6077.00,1.18
6076.00,1.18
6075.00,1.18
6074.00,1.18
6073.00,1.19
6072.00,1.19
6071.00,1.19
6070.00,1.19
6069.00,1.19
6068.00,1.19
6067.00,1.20
6066.00,1.20
6065.00,1.20
6064.00,1.20
6063.00,1.20
6062.00,1.20
6061.00,1.20
6060.00,1.21
6059.00,1.21
6058.00,1.21
6057.00,1.21
6056.00,1.21
6055.00,1.21
6054.00,1.21
6053.00,1.21
6052.00,1.21
6051.00,1.21
6050.00,1.21
6049.00,1.20
6048.00,1.20
6047.00,1.20
6046.00,1.20
6045.00,1.20
6044.00,1.20
6043.00,1.20
6042.00,1.20
6041.00,1.20
6040.00,1.20
6039.00,1.20
6038.00,1.20
6037.00,1.20
6036.00,1.19
6035.00,1.19
6034.00,1.19
6033.00,1.19
6032.00,1.19
6031.00,1.19
6030.00,1.19
6029.00,1.19
6028.00,1.19
6027.00,1.19
6026.00,1.19
6025.00,1.19
6024.00,1.19
6023.00,1.18
6022.00,1.18
6021.00,1.18
6020.00,1.18
6019.00,1.18
6018.00,1.18
6017.00,1.18
6016.00,1.18
6015.00,1.18
6014.00,1.18
6013.00,1.18
6012.00,1.18
6011.00,1.18
6010.00,1.18
6009.00,1.17
6008.00,1.17
6007.00,1.17
6006.00,1.17
6005.00,1.17
6004.00,1.17
6003.00,1.17
6002.00,1.17
6001.00,1.17
6000.00,1.17
5999.00,1.17
5998.00,1.17
5997.00,1.18
5996.00,1.18
5995.00,1.18
5994.00,1.18
5993.00,1.18
5992.00,1.18
5991.00,1.18
5990.00,1.18
5989.00,1.18
5988.00,1.18
5987.00,1.18
5986.00,1.18
5985.00,1.18
5984.00,1.18
5983.00,1.18
5982.00,1.18
5981.00,1.18
5980.00,1.18
5979.00,1.18
5978.00,1.18
5977.00,1.18
5976.00,1.18
5975.00,1.18
5974.00,1.18
5973.00,1.18
5972.00,1.18
5971.00,1.18
5970.00,1.19
5969.00,1.19
5968.00,1.19
5967.00,1.19
5966.00,1.19
5965.00,1.19
5964.00,1.19
5963.00,1.19
5962.00,1.19
5961.00,1.20
5960.00,1.20
5959.00,1.20
5958.00,1.20
5957.00,1.20
5956.00,1.20
5955.00,1.20
5954.00,1.20
5953.00,1.21
5952.00,1.21
5951.00,1.21
5950.00,1.21
5949.00,1.21
5948.00,1.21
5947.00,1.21
5946.00,1.21
5945.00,1.21
5944.00,1.21
5943.00,1.21
5942.00,1.21
5941.00,1.21
5940.00,1.21
5939.00,1.21
5938.00,1.21
5937.00,1.21
5936.00,1.21
5935.00,1.21
5934.00,1.21
5933.00,1.21
5932.00,1.21
5931.00,1.21
5930.00,1.21
5929.00,1.21
5928.00,1.21
5927.00,1.21
5926.00,1.21
5925.00,1.21
5924.00,1.21
5923.00,1.21
5922.00,1.21
5921.00,1.21
5920.00,1.21
5919.00,1.21
5918.00,1.21
5917.00,1.21
5916.00,1.21
5915.00,1.21
5914.00,1.21
5913.00,1.21
5912.00,1.21
5911.00,1.21
5910.00,1.21
5909.00,1.21
5908.00,1.21
5907.00,1.21
5906.00,1.21
5905.00,1.21
5904.00,1.21
5903.00,1.21
5902.00,1.21
5901.00,1.21
5900.00,1.21
5899.00,1.20
5898.00,1.20
5897.00,1.20
5896.00,1.20
5895.00,1.20
5894.00,1.20
5893.00,1.20
5892.00,1.20
5891.00,1.20
5890.00,1.20
5889.00,1.19
5888.00,1.19
5887.00,1.19
5886.00,1.19
5885.00,1.19
5884.00,1.19
5883.00,1.19
5882.00,1.18
5881.00,1.18
5880.00,1.18
5879.00,1.18
5878.00,1.18
5877.00,1.18
5876.00,1.18
5875.00,1.18
5874.00,1.18
5873.00,1.18
5872.00,1.18
5871.00,1.18
5870.00,1.18
5869.00,1.18
5868.00,1.18
5867.00,1.18
5866.00,1.18
5865.00,1.18
5864.00,1.18
5863.00,1.18
5862.00,1.18
5861.00,1.18
5860.00,1.18
5859.00,1.18
5858.00,1.18
5857.00,1.18
5856.00,1.18
5855.00,1.18
5854.00,1.18
5853.00,1.18
5852.00,1.18
5851.00,1.18
5850.00,1.19
5849.00,1.19
5848.00,1.19
5847.00,1.19
5846.00,1.19
5845.00,1.19
5844.00,1.19
5843.00,1.19
5842.00,1.20
5841.00,1.20
5840.00,1.20
5839.00,1.20
5838.00,1.20
5837.00,1.20
5836.00,1.20
5835.00,1.20
5834.00,1.20
5833.00,1.21
5832.00,1.21
5831.00,1.21
5830.00,1.21
5829.00,1.21
5828.00,1.21
5827.00,1.21
5826.00,1.21
5825.00,1.21
5824.00,1.21
5823.00,1.21
5822.00,1.21
5821.00,1.21
5820.00,1.21
5819.00,1.21
5818.00,1.21
5817.00,1.21
5816.00,1.21
5815.00,1.21
5814.00,1.20
5813.00,1.20
5812.00,1.20
5811.00,1.20
5810.00,1.20
5809.00,1.20
5808.00,1.20
5807.00,1.20
5806.00,1.20
5805.00,1.21
5804.00,1.21
5803.00,1.21
5802.00,1.21
5801.00,1.21
5800.00,1.21
5799.00,1.21
5798.00,1.21
5797.00,1.21
5796.00,1.21
5795.00,1.21
5794.00,1.22
5793.00,1.22
5792.00,1.22
5791.00,1.22
5790.00,1.22
5789.00,1.22
5788.00,1.22
5787.00,1.22
5786.00,1.22
5785.00,1.22
5784.00,1.22
5783.00,1.22
5782.00,1.22
5781.00,1.22
5780.00,1.22
5779.00,1.22
5778.00,1.21
5777.00,1.21
5776.00,1.21
5775.00,1.21
5774.00,1.21
5773.00,1.21
5772.00,1.20
5771.00,1.20
5770.00,1.20
5769.00,1.20
5768.00,1.20
5767.00,1.20
5766.00,1.19
5765.00,1.19
5764.00,1.19
5763.00,1.19
5762.00,1.19
5761.00,1.19
5760.00,1.18
5759.00,1.18
5758.00,1.18
5757.00,1.18
5756.00,1.18
5755.00,1.18
5754.00,1.18
5753.00,1.18
5752.00,1.18
5751.00,1.18
5750.00,1.18
5749.00,1.18
5748.00,1.18
5747.00,1.18
5746.00,1.18
5745.00,1.18
5744.00,1.18
5743.00,1.18
5742.00,1.18
5741.00,1.18
5740.00,1.18
5739.00,1.18
5738.00,1.18
5737.00,1.18
5736.00,1.18
5735.00,1.18
5734.00,1.18
5733.00,1.19
5732.00,1.19
5731.00,1.19
5730.00,1.19
5729.00,1.19
5728.00,1.19
5727.00,1.19
5726.00,1.19
5725.00,1.19
5724.00,1.19
5723.00,1.19
5722.00,1.19
5721.00,1.19
5720.00,1.19
5719.00,1.19
5718.00,1.19
5717.00,1.19
5716.00,1.19
5715.00,1.19
5714.00,1.19
5713.00,1.19
5712.00,1.20
5711.00,1.20
5710.00,1.20
5709.00,1.20
5708.00,1.20
5707.00,1.20
5706.00,1.20
5705.00,1.20
5704.00,1.20
5703.00,1.20
5702.00,1.20
5701.00,1.20
5700.00,1.20
5699.00,1.20
5698.00,1.20
5697.00,1.20
5696.00,1.20
5695.00,1.20
5694.00,1.20
5693.00,1.20
5692.00,1.20
5691.00,1.20
5690.00,1.20
5689.00,1.20
5688.00,1.20
5687.00,1.20
5686.00,1.20
5685.00,1.20
5684.00,1.20
5683.00,1.20
5682.00,1.20
5681.00,1.20
5680.00,1.20
5679.00,1.20
5678.00,1.20
5677.00,1.20
5676.00,1.20
5675.00,1.20
5674.00,1.20
5673.00,1.20
5672.00,1.21
5671.00,1.21
5670.00,1.21
5669.00,1.21
5668.00,1.21
5667.00,1.21
5666.00,1.21
5665.00,1.21
5664.00,1.21
5663.00,1.21
5662.00,1.21
5661.00,1.21
5660.00,1.21
5659.00,1.21
5658.00,1.21
5657.00,1.21
5656.00,1.21
5655.00,1.21
5654.00,1.21
5653.00,1.21
5652.00,1.21
5651.00,1.21
5650.00,1.21
5649.00,1.21
5648.00,1.21
5647.00,1.21
5646.00,1.21
5645.00,1.21
5644.00,1.21
5643.00,1.21
5642.00,1.21
5641.00,1.21
5640.00,1.21
5639.00,1.21
5638.00,1.21
5637.00,1.21
5636.00,1.21
5635.00,1.21
5634.00,1.21
5633.00,1.21
5632.00,1.21
5631.00,1.21
5630.00,1.21
5629.00,1.21
5628.00,1.21
5627.00,1.21
5626.00,1.21
5625.00,1.21
5624.00,1.21
5623.00,1.21
5622.00,1.21
5621.00,1.21
5620.00,1.21
5619.00,1.21
5618.00,1.21
5617.00,1.21
5616.00,1.22
5615.00,1.22
5614.00,1.22
5613.00,1.22
5612.00,1.22
5611.00,1.22
5610.00,1.23
5609.00,1.23
5608.00,1.23
5607.00,1.23
5606.00,1.23
5605.00,1.23
5604.00,1.24
5603.00,1.24
5602.00,1.24
5601.00,1.24
5600.00,1.24
5599.00,1.24
5598.00,1.24
5597.00,1.24
5596.00,1.24
5595.00,1.24
5594.00,1.24
5593.00,1.24
5592.00,1.24
5591.00,1.24
5590.00,1.24
5589.00,1.24
5588.00,1.24
5587.00,1.24
5586.00,1.23
5585.00,1.23
5584.00,1.23
5583.00,1.23
5582.00,1.23
5581.00,1.23
5580.00,1.23
5579.00,1.22
5578.00,1.22
5577.00,1.22
5576.00,1.22
5575.00,1.22
5574.00,1.22
5573.00,1.22
5572.00,1.22
5571.00,1.22
5570.00,1.22
5569.00,1.22
5568.00,1.22
5567.00,1.22
5566.00,1.22
5565.00,1.22
5564.00,1.22
5563.00,1.22
5562.00,1.22
5561.00,1.22
5560.00,1.22
5559.00,1.22
5558.00,1.22
5557.00,1.22
5556.00,1.22
5555.00,1.22
5554.00,1.22
5553.00,1.22
5552.00,1.22
5551.00,1.22
5550.00,1.22
5549.00,1.22
5548.00,1.22
5547.00,1.22
5546.00,1.22
5545.00,1.22
5544.00,1.22
5543.00,1.22
5542.00,1.22
5541.00,1.22
5540.00,1.22
5539.00,1.22
5538.00,1.22
5537.00,1.22
5536.00,1.23
5535.00,1.23
5534.00,1.23
5533.00,1.23
5532.00,1.23
5531.00,1.23
5530.00,1.23
5529.00,1.23
5528.00,1.23
5527.00,1.24
5526.00,1.24
5525.00,1.24
5524.00,1.24
5523.00,1.24
5522.00,1.24
5521.00,1.24
5520.00,1.24
5519.00,1.24
5518.00,1.24
5517.00,1.24
5516.00,1.25
5515.00,1.25
5514.00,1.25
5513.00,1.25
5512.00,1.25
5511.00,1.24
5510.00,1.24
5509.00,1.24
5508.00,1.24
5507.00,1.24
5506.00,1.24
5505.00,1.24
5504.00,1.24
5503.00,1.24
5502.00,1.24
5501.00,1.24
5500.00,1.24
5499.00,1.24
5498.00,1.24
5497.00,1.24
5496.00,1.24
5495.00,1.24
5494.00,1.24
5493.00,1.24
5492.00,1.24
5491.00,1.24
5490.00,1.24
5489.00,1.24
5488.00,1.24
5487.00,1.24
5486.00,1.24
5485.00,1.24
5484.00,1.24
5483.00,1.24
5482.00,1.24
5481.00,1.24
5480.00,1.25
5479.00,1.25
5478.00,1.25
5477.00,1.25
5476.00,1.25
5475.00,1.25
5474.00,1.25
5473.00,1.25
5472.00,1.25
5471.00,1.25
5470.00,1.25
5469.00,1.25
5468.00,1.25
5467.00,1.25
5466.00,1.25
5465.00,1.25
5464.00,1.25
5463.00,1.25
5462.00,1.25
5461.00,1.25
5460.00,1.25
5459.00,1.25
5458.00,1.25
5457.00,1.25
5456.00,1.25
5455.00,1.25
5454.00,1.25
5453.00,1.25
5452.00,1.24
5451.00,1.24
5450.00,1.24
5449.00,1.24
5448.00,1.24
5447.00,1.24
5446.00,1.24
5445.00,1.24
5444.00,1.24
5443.00,1.25
5442.00,1.25
5441.00,1.25
5440.00,1.25
5439.00,1.25
5438.00,1.25
5437.00,1.25
5436.00,1.26
5435.00,1.26
5434.00,1.26
5433.00,1.26
5432.00,1.26
5431.00,1.26
5430.00,1.26
5429.00,1.26
5428.00,1.26
5427.00,1.26
5426.00,1.26
5425.00,1.26
5424.00,1.26
5423.00,1.26
5422.00,1.26
5421.00,1.26
5420.00,1.26
5419.00,1.26
5418.00,1.26
5417.00,1.26
5416.00,1.26
5415.00,1.26
5414.00,1.25
5413.00,1.25
5412.00,1.25
5411.00,1.25
5410.00,1.25
5409.00,1.25
5408.00,1.24
5407.00,1.24
5406.00,1.24
5405.00,1.24
5404.00,1.24
5403.00,1.24
5402.00,1.24
5401.00,1.24
5400.00,1.24
5399.00,1.24
5398.00,1.24
5397.00,1.24
5396.00,1.24
5395.00,1.24
5394.00,1.24
5393.00,1.23
5392.00,1.23
5391.00,1.23
5390.00,1.23
5389.00,1.23
5388.00,1.23
5387.00,1.23
5386.00,1.23
5385.00,1.23
5384.00,1.23
5383.00,1.23
5382.00,1.23
5381.00,1.23
5380.00,1.23
5379.00,1.23
5378.00,1.23
5377.00,1.23
5376.00,1.23
5375.00,1.23
5374.00,1.23
5373.00,1.23
5372.00,1.23
5371.00,1.23
5370.00,1.23
5369.00,1.23
5368.00,1.23
5367.00,1.23
5366.00,1.23
5365.00,1.23
5364.00,1.23
5363.00,1.23
5362.00,1.23
5361.00,1.24
5360.00,1.24
5359.00,1.24
5358.00,1.24
5357.00,1.24
5356.00,1.24
5355.00,1.24
5354.00,1.24
5353.00,1.24
5352.00,1.24
5351.00,1.24
5350.00,1.24
5349.00,1.24
5348.00,1.24
5347.00,1.24
5346.00,1.24
5345.00,1.24
5344.00,1.24
5343.00,1.24
5342.00,1.24
5341.00,1.24
5340.00,1.24
5339.00,1.24
5338.00,1.23
5337.00,1.23
5336.00,1.23
5335.00,1.23
5334.00,1.23
5333.00,1.22
5332.00,1.22
5331.00,1.22
5330.00,1.21
5329.00,1.21
5328.00,1.21
5327.00,1.20
5326.00,1.20
5325.00,1.20
5324.00,1.20
5323.00,1.20
5322.00,1.19
5321.00,1.19
5320.00,1.19
5319.00,1.19
5318.00,1.19
5317.00,1.18
5316.00,1.18
5315.00,1.18
5314.00,1.18
5313.00,1.17
5312.00,1.17
5311.00,1.17
5310.00,1.17
5309.00,1.16
5308.00,1.16
5307.00,1.16
5306.00,1.16
5305.00,1.16
5304.00,1.15
5303.00,1.15
5302.00,1.15
5301.00,1.15
5300.00,1.14
5299.00,1.14
5298.00,1.14
5297.00,1.13
5296.00,1.13
5295.00,1.13
5294.00,1.12
5293.00,1.12
5292.00,1.12
5291.00,1.11
5290.00,1.11
5289.00,1.11
5288.00,1.10
5287.00,1.10
5286.00,1.10
5285.00,1.09
5284.00,1.09
5283.00,1.08
5282.00,1.08
5281.00,1.08
5280.00,1.07
5279.00,1.07
5278.00,1.07
5277.00,1.06
5276.00,1.06
5275.00,1.06
5274.00,1.06
5273.00,1.05
5272.00,1.05
5271.00,1.05
5270.00,1.05
5269.00,1.04
5268.00,1.04
5267.00,1.04
5266.00,1.04
5265.00,1.04
5264.00,1.04
5263.00,1.03
5262.00,1.03
5261.00,1.03
5260.00,1.03
5259.00,1.03
5258.00,1.03
5257.00,1.03
5256.00,1.03
5255.00,1.03
5254.00,1.03
5253.00,1.03
5252.00,1.03
5251.00,1.03
5250.00,1.03
5249.00,1.03
5248.00,1.03
5247.00,1.03
5246.00,1.03
5245.00,1.03
5244.00,1.03
5243.00,1.03
5242.00,1.03
5241.00,1.03
5240.00,1.03
5239.00,1.03
5238.00,1.03
5237.00,1.03
5236.00,1.03
5235.00,1.03
5234.00,1.03
5233.00,1.03
5232.00,1.03
5231.00,1.02
5230.00,1.02
5229.00,1.02
5228.00,1.02
5227.00,1.02
5226.00,1.02
5225.00,1.02
5224.00,1.01
5223.00,1.01
5222.00,1.01
5221.00,1.01
5220.00,1.01
5219.00,1.00
5218.00,1.00
5217.00,1.00
5216.00,1.00
5215.00,1.00
5214.00,1.00
5213.00,0.99
5212.00,0.99
5211.00,0.99
5210.00,0.99
5209.00,0.99
5208.00,0.99
5207.00,0.99
5206.00,0.99
5205.00,0.98
5204.00,0.98
5203.00,0.98
5202.00,0.98
5201.00,0.98
5200.00,0.98
5199.00,0.98
5198.00,0.98
5197.00,0.98
5196.00,0.98
5195.00,0.98
5194.00,0.98
5193.00,0.98
5192.00,0.98
5191.00,0.98
5190.00,0.98
5189.00,0.97
5188.00,0.97
5187.00,0.98
5186.00,0.98
5185.00,0.98
5184.00,0.98
5183.00,0.98
5182.00,0.98
5181.00,0.98
5180.00,0.98
5179.00,0.98
5178.00,0.98
5177.00,0.98
5176.00,0.98
5175.00,0.98
5174.00,0.98
5173.00,0.98
5172.00,0.98
5171.00,0.98
5170.00,0.98
5169.00,0.98
5168.00,0.98
5167.00,0.98
5166.00,0.98
5165.00,0.98
5164.00,0.98
5163.00,0.98
5162.00,0.98
5161.00,0.98
5160.00,0.98
5159.00,0.98
5158.00,0.98
5157.00,0.98
5156.00,0.98
5155.00,0.98
5154.00,0.98
5153.00,0.98
5152.00,0.98
5151.00,0.97
5150.00,0.97
5149.00,0.97
5148.00,0.97
5147.00,0.97
5146.00,0.97
5145.00,0.97
5144.00,0.97
5143.00,0.97
5142.00,0.98
5141.00,0.98
5140.00,0.98
5139.00,0.98
5138.00,0.98
5137.00,0.98
5136.00,0.98
5135.00,0.98
5134.00,0.98
5133.00,0.98
5132.00,0.98
5131.00,0.98
5130.00,0.99
5129.00,0.99
5128.00,0.99
5127.00,0.99
5126.00,0.99
5125.00,0.99
5124.00,0.99
5123.00,0.99
5122.00,0.99
5121.00,1.00
5120.00,1.00
5119.00,1.00
5118.00,1.00
5117.00,1.00
5116.00,1.00
5115.00,1.00
5114.00,1.00
5113.00,1.00
5112.00,1.00
5111.00,1.00
5110.00,1.00
5109.00,1.00
5108.00,1.00
5107.00,1.00
5106.00,1.00
5105.00,1.01
5104.00,1.01
5103.00,1.01
5102.00,1.01
5101.00,1.01
5100.00,1.01
5099.00,1.01
5098.00,1.01
5097.00,1.01
5096.00,1.02
5095.00,1.02
5094.00,1.02
5093.00,1.02
5092.00,1.02
5091.00,1.02
5090.00,1.02
5089.00,1.03
5088.00,1.03
5087.00,1.03
5086.00,1.03
5085.00,1.03
5084.00,1.03
5083.00,1.03
5082.00,1.04
5081.00,1.04
5080.00,1.04
5079.00,1.04
5078.00,1.04
5077.00,1.04
5076.00,1.04
5075.00,1.04
5074.00,1.04
5073.00,1.04
5072.00,1.04
5071.00,1.04
5070.00,1.04
5069.00,1.04
5068.00,1.04
5067.00,1.04
5066.00,1.04
5065.00,1.04
5064.00,1.04
5063.00,1.04
5062.00,1.04
5061.00,1.04
5060.00,1.04
5059.00,1.04
5058.00,1.04
5057.00,1.04
5056.00,1.05
5055.00,1.05
5054.00,1.05
5053.00,1.05
5052.00,1.05
5051.00,1.05
5050.00,1.05
5049.00,1.05
5048.00,1.05
5047.00,1.05
5046.00,1.05
5045.00,1.05
5044.00,1.05
5043.00,1.05
5042.00,1.05
5041.00,1.06
5040.00,1.06
5039.00,1.06
5038.00,1.06
5037.00,1.06
5036.00,1.06
5035.00,1.06
5034.00,1.06
5033.00,1.06
5032.00,1.06
5031.00,1.06
5030.00,1.06
5029.00,1.06
5028.00,1.06
5027.00,1.06
5026.00,1.06
5025.00,1.06
5024.00,1.06
5023.00,1.06
5022.00,1.06
5021.00,1.06
5020.00,1.06
5019.00,1.06
5018.00,1.06
5017.00,1.07
5016.00,1.07
5015.00,1.07
5014.00,1.07
5013.00,1.07
5012.00,1.07
5011.00,1.07
5010.00,1.07
5009.00,1.07
5008.00,1.07
5007.00,1.07
5006.00,1.07
5005.00,1.07
5004.00,1.07
5003.00,1.08
5002.00,1.08
5001.00,1.08
5000.00,1.08
4999.00,1.08
4998.00,1.08
4997.00,1.08
4996.00,1.08
4995.00,1.09
4994.00,1.09
4993.00,1.09
4992.00,1.09
4991.00,1.09
4990.00,1.09
4989.00,1.09
4988.00,1.10
4987.00,1.10
4986.00,1.10
4985.00,1.10
4984.00,1.10
4983.00,1.10
4982.00,1.11
4981.00,1.11
4980.00,1.11
4979.00,1.11
4978.00,1.11
4977.00,1.11
4976.00,1.12
4975.00,1.12
4974.00,1.12
4973.00,1.12
4972.00,1.12
4971.00,1.12
4970.00,1.13
4969.00,1.13
4968.00,1.13
4967.00,1.13
4966.00,1.13
4965.00,1.13
4964.00,1.13
4963.00,1.14
4962.00,1.14
4961.00,1.14
4960.00,1.14
4959.00,1.14
4958.00,1.14
4957.00,1.14
4956.00,1.14
4955.00,1.15
4954.00,1.15
4953.00,1.15
4952.00,1.15
4951.00,1.15
4950.00,1.15
4949.00,1.15
4948.00,1.15
4947.00,1.15
4946.00,1.15
4945.00,1.15
4944.00,1.15
4943.00,1.15
4942.00,1.15
4941.00,1.15
4940.00,1.15
4939.00,1.15
4938.00,1.15
4937.00,1.15
4936.00,1.15
4935.00,1.15
4934.00,1.15
4933.00,1.15
4932.00,1.15
4931.00,1.15
4930.00,1.15
4929.00,1.15
4928.00,1.15
4927.00,1.15
4926.00,1.15
4925.00,1.15
4924.00,1.16
4923.00,1.16
4922.00,1.16
4921.00,1.16
4920.00,1.16
4919.00,1.16
4918.00,1.16
4917.00,1.16
4916.00,1.16
4915.00,1.16
4914.00,1.16
4913.00,1.17
4912.00,1.17
4911.00,1.17
4910.00,1.17
4909.00,1.17
4908.00,1.17
4907.00,1.17
4906.00,1.17
4905.00,1.18
4904.00,1.18
4903.00,1.18
4902.00,1.18
4901.00,1.18
4900.00,1.18
4899.00,1.18
4898.00,1.18
4897.00,1.18
4896.00,1.18
4895.00,1.18
4894.00,1.18
4893.00,1.18
4892.00,1.18
4891.00,1.17
4890.00,1.17
4889.00,1.17
4888.00,1.17
4887.00,1.17
4886.00,1.17
4885.00,1.17
4884.00,1.17
4883.00,1.17
4882.00,1.17
4881.00,1.17
4880.00,1.16
4879.00,1.16
4878.00,1.16
4877.00,1.16
4876.00,1.16
4875.00,1.16
4874.00,1.16
4873.00,1.16
4872.00,1.16
4871.00,1.16
4870.00,1.16
4869.00,1.16
4868.00,1.16
4867.00,1.16
4866.00,1.16
4865.00,1.16
4864.00,1.16
4863.00,1.16
4862.00,1.16
4861.00,1.16
4860.00,1.16
4859.00,1.17
4858.00,1.17
4857.00,1.17
4856.00,1.17
4855.00,1.17
4854.00,1.17
4853.00,1.18
4852.00,1.18
4851.00,1.18
4850.00,1.18
4849.00,1.18
4848.00,1.18
4847.00,1.18
4846.00,1.18
4845.00,1.19
4844.00,1.19
4843.00,1.19
4842.00,1.19
4841.00,1.19
4840.00,1.19
4839.00,1.19
4838.00,1.19
4837.00,1.19
4836.00,1.19
4835.00,1.19
4834.00,1.19
4833.00,1.19
4832.00,1.19
4831.00,1.18
4830.00,1.18
4829.00,1.18
4828.00,1.18
4827.00,1.18
4826.00,1.18
4825.00,1.18
4824.00,1.18
4823.00,1.18
4822.00,1.17
4821.00,1.17
4820.00,1.17
4819.00,1.17
4818.00,1.17
4817.00,1.17
4816.00,1.17
4815.00,1.17
4814.00,1.17
4813.00,1.17
4812.00,1.17
4811.00,1.17
4810.00,1.18
4809.00,1.18
4808.00,1.18
4807.00,1.18
4806.00,1.18
4805.00,1.18
4804.00,1.18
4803.00,1.18
4802.00,1.18
4801.00,1.18
4800.00,1.18
4799.00,1.18
4798.00,1.19
4797.00,1.19
4796.00,1.19
4795.00,1.19
4794.00,1.19
4793.00,1.19
4792.00,1.19
4791.00,1.20
4790.00,1.20
4789.00,1.20
4788.00,1.20
4787.00,1.20
4786.00,1.20
4785.00,1.20
4784.00,1.20
4783.00,1.20
4782.00,1.20
4781.00,1.20
4780.00,1.20
4779.00,1.21
4778.00,1.21
4777.00,1.21
4776.00,1.21
4775.00,1.21
4774.00,1.21
4773.00,1.21
4772.00,1.21
4771.00,1.21
4770.00,1.21
4769.00,1.21
4768.00,1.21
4767.00,1.21
4766.00,1.21
4765.00,1.21
4764.00,1.21
4763.00,1.21
4762.00,1.21
4761.00,1.21
4760.00,1.21
4759.00,1.21
4758.00,1.20
4757.00,1.20
4756.00,1.20
4755.00,1.20
4754.00,1.20
4753.00,1.20
4752.00,1.20
4751.00,1.20
4750.00,1.20
4749.00,1.20
4748.00,1.20
4747.00,1.20
4746.00,1.20
4745.00,1.21
4744.00,1.21
4743.00,1.21
4742.00,1.21
4741.00,1.21
4740.00,1.21
4739.00,1.21
4738.00,1.21
4737.00,1.21
4736.00,1.21
4735.00,1.22
4734.00,1.22
4733.00,1.22
4732.00,1.22
4731.00,1.22
4730.00,1.22
4729.00,1.22
4728.00,1.22
4727.00,1.22
4726.00,1.22
4725.00,1.22
4724.00,1.23
4723.00,1.23
4722.00,1.23
4721.00,1.23
4720.00,1.23
4719.00,1.23
4718.00,1.23
4717.00,1.22
4716.00,1.22
4715.00,1.22
4714.00,1.22
4713.00,1.22
4712.00,1.22
4711.00,1.22
4710.00,1.22
4709.00,1.22
4708.00,1.22
4707.00,1.22
4706.00,1.22
4705.00,1.22
4704.00,1.23
4703.00,1.23
4702.00,1.23
4701.00,1.23
4700.00,1.23
4699.00,1.23
4698.00,1.23
4697.00,1.23
4696.00,1.23
4695.00,1.24
4694.00,1.24
4693.00,1.24
4692.00,1.24
4691.00,1.24
4690.00,1.25
4689.00,1.25
4688.00,1.25
4687.00,1.25
4686.00,1.25
4685.00,1.25
4684.00,1.26
4683.00,1.26
4682.00,1.26
4681.00,1.26
4680.00,1.26
4679.00,1.26
4678.00,1.26
4677.00,1.26
4676.00,1.26
4675.00,1.26
4674.00,1.26
4673.00,1.26
4672.00,1.26
4671.00,1.26
4670.00,1.26
4669.00,1.26
4668.00,1.26
4667.00,1.26
4666.00,1.26
4665.00,1.25
4664.00,1.25
4663.00,1.25
4662.00,1.25
4661.00,1.25
4660.00,1.25
4659.00,1.25
4658.00,1.24
4657.00,1.24
4656.00,1.24
4655.00,1.24
4654.00,1.24
4653.00,1.24
4652.00,1.24
4651.00,1.24
4650.00,1.24
4649.00,1.24
4648.00,1.24
4647.00,1.24
4646.00,1.24
4645.00,1.24
4644.00,1.24
4643.00,1.24
4642.00,1.24
4641.00,1.24
4640.00,1.24
4639.00,1.24
4638.00,1.24
4637.00,1.24
4636.00,1.24
4635.00,1.24
4634.00,1.24
4633.00,1.24
4632.00,1.24
4631.00,1.24
4630.00,1.24
4629.00,1.24
4628.00,1.25
4627.00,1.25
4626.00,1.25
4625.00,1.25
4624.00,1.25
4623.00,1.25
4622.00,1.25
4621.00,1.25
4620.00,1.25
4619.00,1.25
4618.00,1.25
4617.00,1.25
4616.00,1.25
4615.00,1.25
4614.00,1.25
4613.00,1.25
4612.00,1.25
4611.00,1.25
4610.00,1.25
4609.00,1.25
4608.00,1.25
4607.00,1.25
4606.00,1.25
4605.00,1.25
4604.00,1.25
4603.00,1.25
4602.00,1.25
4601.00,1.25
4600.00,1.25
4599.00,1.25
4598.00,1.24
4597.00,1.24
4596.00,1.24
4595.00,1.24
4594.00,1.24
4593.00,1.24
4592.00,1.24
4591.00,1.24
4590.00,1.24
4589.00,1.24
4588.00,1.24
4587.00,1.24
4586.00,1.24
4585.00,1.24
4584.00,1.24
4583.00,1.24
4582.00,1.24
4581.00,1.24
4580.00,1.24
4579.00,1.24
4578.00,1.24
4577.00,1.24
4576.00,1.24
4575.00,1.24
4574.00,1.24
4573.00,1.24
4572.00,1.24
4571.00,1.24
4570.00,1.23
4569.00,1.23
4568.00,1.23
4567.00,1.23
4566.00,1.23
4565.00,1.23
4564.00,1.23
4563.00,1.23
4562.00,1.23
4561.00,1.23
4560.00,1.23
4559.00,1.23
4558.00,1.23
4557.00,1.23
4556.00,1.23
4555.00,1.23
4554.00,1.23
4553.00,1.23
4552.00,1.22
4551.00,1.22
4550.00,1.22
4549.00,1.22
4548.00,1.22
4547.00,1.22
4546.00,1.21
4545.00,1.21
4544.00,1.21
4543.00,1.21
4542.00,1.21
4541.00,1.21
4540.00,1.21
4539.00,1.21
4538.00,1.21
4537.00,1.21
4536.00,1.21
4535.00,1.21
4534.00,1.21
4533.00,1.21
4532.00,1.21
4531.00,1.21
4530.00,1.21
4529.00,1.21
4528.00,1.21
4527.00,1.21
4526.00,1.21
4525.00,1.21
4524.00,1.22
4523.00,1.22
4522.00,1.22
4521.00,1.22
4520.00,1.22
4519.00,1.22
4518.00,1.22
4517.00,1.23
4516.00,1.23
4515.00,1.23
4514.00,1.23
4513.00,1.23
4512.00,1.23
4511.00,1.23
4510.00,1.23
4509.00,1.23
4508.00,1.24
4507.00,1.24
4506.00,1.24
4505.00,1.24
4504.00,1.24
4503.00,1.24
4502.00,1.24
4501.00,1.24
4500.00,1.24
4499.00,1.24
4498.00,1.24
4497.00,1.24
4496.00,1.24
4495.00,1.24
4494.00,1.24
4493.00,1.24
4492.00,1.23
4491.00,1.23
4490.00,1.23
4489.00,1.23
4488.00,1.23
4487.00,1.23
4486.00,1.23
4485.00,1.23
4484.00,1.23
4483.00,1.23
4482.00,1.23
4481.00,1.22
4480.00,1.22
4479.00,1.22
4478.00,1.22
4477.00,1.22
4476.00,1.22
4475.00,1.22
4474.00,1.22
4473.00,1.22
4472.00,1.22
4471.00,1.22
4470.00,1.22
4469.00,1.22
4468.00,1.22
4467.00,1.22
4466.00,1.22
4465.00,1.22
4464.00,1.22
4463.00,1.22
4462.00,1.22
4461.00,1.22
4460.00,1.22
4459.00,1.22
4458.00,1.22
4457.00,1.22
4456.00,1.22
4455.00,1.22
4454.00,1.22
4453.00,1.22
4452.00,1.22
4451.00,1.22
4450.00,1.22
4449.00,1.22
4448.00,1.22
4447.00,1.23
4446.00,1.23
4445.00,1.23
4444.00,1.23
4443.00,1.23
4442.00,1.23
4441.00,1.23
4440.00,1.23
4439.00,1.23
4438.00,1.24
4437.00,1.24
4436.00,1.24
4435.00,1.24
4434.00,1.24
4433.00,1.24
4432.00,1.24
4431.00,1.24
4430.00,1.24
4429.00,1.24
4428.00,1.24
4427.00,1.24
4426.00,1.24
4425.00,1.23
4424.00,1.23
4423.00,1.23
4422.00,1.23
4421.00,1.23
4420.00,1.23
4419.00,1.23
4418.00,1.23
4417.00,1.23
4416.00,1.23
4415.00,1.23
4414.00,1.23
4413.00,1.23
4412.00,1.22
4411.00,1.22
4410.00,1.22
4409.00,1.22
4408.00,1.22
4407.00,1.22
4406.00,1.22
4405.00,1.23
4404.00,1.23
4403.00,1.23
4402.00,1.23
4401.00,1.23
4400.00,1.23
4399.00,1.23
4398.00,1.23
4397.00,1.23
4396.00,1.23
4395.00,1.23
4394.00,1.23
4393.00,1.23
4392.00,1.23
4391.00,1.24
4390.00,1.24
4389.00,1.24
4388.00,1.24
4387.00,1.24
4386.00,1.24
4385.00,1.24
4384.00,1.24
4383.00,1.23
4382.00,1.23
4381.00,1.23
4380.00,1.23
4379.00,1.23
4378.00,1.23
4377.00,1.23
4376.00,1.23
4375.00,1.22
4374.00,1.22
4373.00,1.22
4372.00,1.22
4371.00,1.22
4370.00,1.22
4369.00,1.22
4368.00,1.21
4367.00,1.21
4366.00,1.21
4365.00,1.21
4364.00,1.21
4363.00,1.21
4362.00,1.21
4361.00,1.21
4360.00,1.20
4359.00,1.20
4358.00,1.20
4357.00,1.20
4356.00,1.20
4355.00,1.20
4354.00,1.20
4353.00,1.20
4352.00,1.20
4351.00,1.20
4350.00,1.21
4349.00,1.21
4348.00,1.21
4347.00,1.21
4346.00,1.21
4345.00,1.21
4344.00,1.21
4343.00,1.21
4342.00,1.21
4341.00,1.21
4340.00,1.21
4339.00,1.21
4338.00,1.21
4337.00,1.21
4336.00,1.21
4335.00,1.21
4334.00,1.21
4333.00,1.21
4332.00,1.21
4331.00,1.21
4330.00,1.22
4329.00,1.22
4328.00,1.22
4327.00,1.22
4326.00,1.22
4325.00,1.22
4324.00,1.22
4323.00,1.22
4322.00,1.21
4321.00,1.21
4320.00,1.21
4319.00,1.21
4318.00,1.22
4317.00,1.22
4316.00,1.22
4315.00,1.22
4314.00,1.22
4313.00,1.22
4312.00,1.23
4311.00,1.23
4310.00,1.23
4309.00,1.23
4308.00,1.23
4307.00,1.23
4306.00,1.23
4305.00,1.23
4304.00,1.23
4303.00,1.23
4302.00,1.23
4301.00,1.23
4300.00,1.23
4299.00,1.24
4298.00,1.24
4297.00,1.24
4296.00,1.24
4295.00,1.24
4294.00,1.24
4293.00,1.24
4292.00,1.24
4291.00,1.24
4290.00,1.24
4289.00,1.24
4288.00,1.24
4287.00,1.24
4286.00,1.24
4285.00,1.23
4284.00,1.23
4283.00,1.23
4282.00,1.23
4281.00,1.23
4280.00,1.23
4279.00,1.23
4278.00,1.23
4277.00,1.23
4276.00,1.23
4275.00,1.22
4274.00,1.22
4273.00,1.22
4272.00,1.22
4271.00,1.22
4270.00,1.21
4269.00,1.21
4268.00,1.21
4267.00,1.20
4266.00,1.20
4265.00,1.20
4264.00,1.19
4263.00,1.19
4262.00,1.19
4261.00,1.18
4260.00,1.18
4259.00,1.18
4258.00,1.17
4257.00,1.17
4256.00,1.16
4255.00,1.16
4254.00,1.16
4253.00,1.16
4252.00,1.15
4251.00,1.15
4250.00,1.15
4249.00,1.15
4248.00,1.15
4247.00,1.15
4246.00,1.15
4245.00,1.15
4244.00,1.15
4243.00,1.15
4242.00,1.15
4241.00,1.16
4240.00,1.16
4239.00,1.16
4238.00,1.17
4237.00,1.17
4236.00,1.17
4235.00,1.18
4234.00,1.18
4233.00,1.18
4232.00,1.19
4231.00,1.19
4230.00,1.20
4229.00,1.20
4228.00,1.20
4227.00,1.21
4226.00,1.21
4225.00,1.21
4224.00,1.21
4223.00,1.22
4222.00,1.22
4221.00,1.22
4220.00,1.22
4219.00,1.22
4218.00,1.22
4217.00,1.22
4216.00,1.22
4215.00,1.22
4214.00,1.22
4213.00,1.22
4212.00,1.22
4211.00,1.22
4210.00,1.22
4209.00,1.22
4208.00,1.22
4207.00,1.22
4206.00,1.22
4205.00,1.22
4204.00,1.22
4203.00,1.21
4202.00,1.21
4201.00,1.21
4200.00,1.21
4199.00,1.21
4198.00,1.21
4197.00,1.21
4196.00,1.21
4195.00,1.21
4194.00,1.21
4193.00,1.21
4192.00,1.21
4191.00,1.21
4190.00,1.21
4189.00,1.21
4188.00,1.21
4187.00,1.21
4186.00,1.21
4185.00,1.21
4184.00,1.21
4183.00,1.21
4182.00,1.21
4181.00,1.21
4180.00,1.21
4179.00,1.21
4178.00,1.21
4177.00,1.21
4176.00,1.21
4175.00,1.22
4174.00,1.22
4173.00,1.22
4172.00,1.22
4171.00,1.22
4170.00,1.22
4169.00,1.22
4168.00,1.22
4167.00,1.22
4166.00,1.22
4165.00,1.22
4164.00,1.22
4163.00,1.22
4162.00,1.22
4161.00,1.22
4160.00,1.22
4159.00,1.22
4158.00,1.22
4157.00,1.22
4156.00,1.22
4155.00,1.22
4154.00,1.22
4153.00,1.22
4152.00,1.22
4151.00,1.22
4150.00,1.22
4149.00,1.22
4148.00,1.22
4147.00,1.22
4146.00,1.22
4145.00,1.22
4144.00,1.22
4143.00,1.22
4142.00,1.22
4141.00,1.22
4140.00,1.22
4139.00,1.22
4138.00,1.22
4137.00,1.22
4136.00,1.22
4135.00,1.22
4134.00,1.22
4133.00,1.21
4132.00,1.21
4131.00,1.21
4130.00,1.21
4129.00,1.21
4128.00,1.21
4127.00,1.21
4126.00,1.21
4125.00,1.21
4124.00,1.21
4123.00,1.21
4122.00,1.21
4121.00,1.21
4120.00,1.21
4119.00,1.21
4118.00,1.21
4117.00,1.21
4116.00,1.21
4115.00,1.21
4114.00,1.20
4113.00,1.20
4112.00,1.20
4111.00,1.20
4110.00,1.20
4109.00,1.20
4108.00,1.20
4107.00,1.20
4106.00,1.20
4105.00,1.19
4104.00,1.19
4103.00,1.19
4102.00,1.19
4101.00,1.19
4100.00,1.19
4099.00,1.20
4098.00,1.20
4097.00,1.20
4096.00,1.20
4095.00,1.20
4094.00,1.20
4093.00,1.20
4092.00,1.20
4091.00,1.19
4090.00,1.19
4089.00,1.19
4088.00,1.19
4087.00,1.19
4086.00,1.19
4085.00,1.19
4084.00,1.19
4083.00,1.19
4082.00,1.19
4081.00,1.19
4080.00,1.19
4079.00,1.19
4078.00,1.19
4077.00,1.19
4076.00,1.19
4075.00,1.19
4074.00,1.18
4073.00,1.18
4072.00,1.18
4071.00,1.17
4070.00,1.17
4069.00,1.17
4068.00,1.16
4067.00,1.16
4066.00,1.16
4065.00,1.16
4064.00,1.16
4063.00,1.16
4062.00,1.15
4061.00,1.15
4060.00,1.15
4059.00,1.15
4058.00,1.15
4057.00,1.15
4056.00,1.15
4055.00,1.15
4054.00,1.15
4053.00,1.15
4052.00,1.14
4051.00,1.14
4050.00,1.15
4049.00,1.15
4048.00,1.15
4047.00,1.15
4046.00,1.15
4045.00,1.15
4044.00,1.16
4043.00,1.16
4042.00,1.16
4041.00,1.17
4040.00,1.17
4039.00,1.17
4038.00,1.18
4037.00,1.18
4036.00,1.18
4035.00,1.19
4034.00,1.19
4033.00,1.20
4032.00,1.20
4031.00,1.20
4030.00,1.21
4029.00,1.21
4028.00,1.22
4027.00,1.22
4026.00,1.23
4025.00,1.23
4024.00,1.24
4023.00,1.24
4022.00,1.24
4021.00,1.25
4020.00,1.25
4019.00,1.26
4018.00,1.26
4017.00,1.27
4016.00,1.27
4015.00,1.27
4014.00,1.27
4013.00,1.28
4012.00,1.28
4011.00,1.28
4010.00,1.28
4009.00,1.28
4008.00,1.28
4007.00,1.28
4006.00,1.28
4005.00,1.28
4004.00,1.28
4003.00,1.28
4002.00,1.28
4001.00,1.28
4000.00,1.28
