创建为新数据集,样品 037 用户 Administrator 日期 星期五, 七月 26 2019
cm-1,%T
10000.00,1.42
9999.00,1.39
9998.00,1.37
9997.00,1.35
9996.00,1.33
9995.00,1.31
9994.00,1.29
9993.00,1.28
9992.00,1.26
9991.00,1.24
9990.00,1.23
9989.00,1.22
9988.00,1.21
9987.00,1.20
9986.00,1.19
9985.00,1.18
9984.00,1.17
9983.00,1.16
9982.00,1.16
9981.00,1.15
9980.00,1.15
9979.00,1.15
9978.00,1.14
9977.00,1.14
9976.00,1.14
9975.00,1.15
9974.00,1.15
9973.00,1.15
9972.00,1.16
9971.00,1.16
9970.00,1.16
9969.00,1.17
9968.00,1.17
9967.00,1.17
9966.00,1.18
9965.00,1.18
9964.00,1.18
9963.00,1.18
9962.00,1.17
9961.00,1.17
9960.00,1.17
9959.00,1.16
9958.00,1.16
9957.00,1.15
9956.00,1.15
9955.00,1.14
9954.00,1.14
9953.00,1.13
9952.00,1.12
9951.00,1.12
9950.00,1.11
9949.00,1.10
9948.00,1.09
9947.00,1.09
9946.00,1.08
9945.00,1.07
9944.00,1.06
9943.00,1.05
9942.00,1.05
9941.00,1.04
9940.00,1.03
9939.00,1.03
9938.00,1.02
9937.00,1.01
9936.00,1.01
9935.00,1.00
9934.00,1.00
9933.00,0.99
9932.00,0.99
9931.00,0.98
9930.00,0.98
9929.00,0.97
9928.00,0.97
9927.00,0.97
9926.00,0.96
9925.00,0.96
9924.00,0.96
9923.00,0.95
9922.00,0.95
9921.00,0.95
9920.00,0.94
9919.00,0.94
9918.00,0.93
9917.00,0.93
9916.00,0.93
9915.00,0.92
9914.00,0.92
9913.00,0.91
9912.00,0.91
9911.00,0.91
9910.00,0.91
9909.00,0.91
9908.00,0.91
9907.00,0.91
9906.00,0.91
9905.00,0.91
9904.00,0.91
9903.00,0.91
9902.00,0.91
9901.00,0.91
9900.00,0.91
9899.00,0.91
9898.00,0.91
9897.00,0.91
9896.00,0.91
9895.00,0.92
9894.00,0.92
9893.00,0.92
9892.00,0.92
9891.00,0.92
9890.00,0.92
9889.00,0.92
9888.00,0.92
9887.00,0.92
9886.00,0.91
9885.00,0.91
9884.00,0.91
9883.00,0.91
9882.00,0.90
9881.00,0.90
9880.00,0.90
9879.00,0.89
9878.00,0.89
9877.00,0.89
9876.00,0.88
9875.00,0.88
9874.00,0.88
9873.00,0.87
9872.00,0.87
9871.00,0.87
9870.00,0.87
9869.00,0.87
9868.00,0.87
9867.00,0.87
9866.00,0.87
9865.00,0.87
9864.00,0.88
9863.00,0.88
9862.00,0.89
9861.00,0.89
9860.00,0.90
9859.00,0.91
9858.00,0.92
9857.00,0.93
9856.00,0.94
9855.00,0.95
9854.00,0.96
9853.00,0.97
9852.00,0.98
9851.00,0.99
9850.00,1.01
9849.00,1.02
9848.00,1.03
9847.00,1.04
9846.00,1.05
9845.00,1.06
9844.00,1.07
9843.00,1.08
9842.00,1.09
9841.00,1.10
9840.00,1.11
9839.00,1.11
9838.00,1.12
9837.00,1.12
9836.00,1.13
9835.00,1.13
9834.00,1.13
9833.00,1.13
9832.00,1.13
9831.00,1.13
9830.00,1.13
9829.00,1.12
9828.00,1.12
9827.00,1.11
9826.00,1.11
9825.00,1.10
9824.00,1.09
9823.00,1.09
9822.00,1.08
9821.00,1.07
9820.00,1.06
9819.00,1.04
9818.00,1.03
9817.00,1.02
9816.00,1.01
9815.00,1.00
9814.00,0.99
9813.00,0.97
9812.00,0.96
9811.00,0.95
9810.00,0.94
9809.00,0.93
9808.00,0.92
9807.00,0.91
9806.00,0.90
9805.00,0.89
9804.00,0.89
9803.00,0.88
9802.00,0.87
9801.00,0.87
9800.00,0.86
9799.00,0.86
9798.00,0.85
9797.00,0.85
9796.00,0.85
9795.00,0.84
9794.00,0.84
9793.00,0.84
9792.00,0.84
9791.00,0.84
9790.00,0.84
9789.00,0.84
9788.00,0.84
9787.00,0.84
9786.00,0.84
9785.00,0.84
9784.00,0.85
9783.00,0.85
9782.00,0.85
9781.00,0.85
9780.00,0.85
9779.00,0.85
9778.00,0.85
9777.00,0.85
9776.00,0.85
9775.00,0.85
9774.00,0.85
9773.00,0.85
9772.00,0.85
9771.00,0.85
9770.00,0.85
9769.00,0.86
9768.00,0.86
9767.00,0.86
9766.00,0.86
9765.00,0.87
9764.00,0.87
9763.00,0.88
9762.00,0.88
9761.00,0.88
9760.00,0.89
9759.00,0.89
9758.00,0.90
9757.00,0.90
9756.00,0.91
9755.00,0.91
9754.00,0.92
9753.00,0.92
9752.00,0.93
9751.00,0.93
9750.00,0.94
9749.00,0.94
9748.00,0.95
9747.00,0.95
9746.00,0.95
9745.00,0.96
9744.00,0.96
9743.00,0.96
9742.00,0.97
9741.00,0.97
9740.00,0.97
9739.00,0.97
9738.00,0.97
9737.00,0.97
9736.00,0.97
9735.00,0.97
9734.00,0.97
9733.00,0.96
9732.00,0.96
9731.00,0.96
9730.00,0.96
9729.00,0.95
9728.00,0.95
9727.00,0.95
9726.00,0.94
9725.00,0.94
9724.00,0.94
9723.00,0.93
9722.00,0.93
9721.00,0.93
9720.00,0.92
9719.00,0.92
9718.00,0.91
9717.00,0.91
9716.00,0.90
9715.00,0.89
9714.00,0.89
9713.00,0.88
9712.00,0.87
9711.00,0.87
9710.00,0.86
9709.00,0.85
9708.00,0.84
9707.00,0.84
9706.00,0.83
9705.00,0.82
9704.00,0.82
9703.00,0.81
9702.00,0.81
9701.00,0.80
9700.00,0.80
9699.00,0.79
9698.00,0.79
9697.00,0.79
9696.00,0.78
9695.00,0.78
9694.00,0.78
9693.00,0.78
9692.00,0.78
9691.00,0.78
9690.00,0.78
9689.00,0.79
9688.00,0.79
9687.00,0.79
9686.00,0.80
9685.00,0.81
9684.00,0.81
9683.00,0.82
9682.00,0.83
9681.00,0.84
9680.00,0.84
9679.00,0.85
9678.00,0.86
9677.00,0.86
9676.00,0.87
9675.00,0.87
9674.00,0.88
9673.00,0.88
9672.00,0.89
9671.00,0.89
9670.00,0.90
9669.00,0.90
9668.00,0.90
9667.00,0.90
9666.00,0.91
9665.00,0.91
9664.00,0.91
9663.00,0.91
9662.00,0.90
9661.00,0.90
9660.00,0.90
9659.00,0.90
9658.00,0.90
9657.00,0.90
9656.00,0.89
9655.00,0.89
9654.00,0.89
9653.00,0.89
9652.00,0.89
9651.00,0.89
9650.00,0.89
9649.00,0.89
9648.00,0.89
9647.00,0.89
9646.00,0.89
9645.00,0.89
9644.00,0.89
9643.00,0.89
9642.00,0.89
9641.00,0.90
9640.00,0.90
9639.00,0.90
9638.00,0.90
9637.00,0.90
9636.00,0.91
9635.00,0.91
9634.00,0.91
9633.00,0.91
9632.00,0.91
9631.00,0.91
9630.00,0.91
9629.00,0.91
9628.00,0.91
9627.00,0.91
9626.00,0.91
9625.00,0.91
9624.00,0.91
9623.00,0.91
9622.00,0.91
9621.00,0.91
9620.00,0.91
9619.00,0.91
9618.00,0.90
9617.00,0.90
9616.00,0.90
9615.00,0.90
9614.00,0.90
9613.00,0.91
9612.00,0.91
9611.00,0.91
9610.00,0.91
9609.00,0.91
9608.00,0.91
9607.00,0.91
9606.00,0.91
9605.00,0.91
9604.00,0.90
9603.00,0.90
9602.00,0.90
9601.00,0.90
9600.00,0.90
9599.00,0.90
9598.00,0.90
9597.00,0.90
9596.00,0.90
9595.00,0.90
9594.00,0.90
9593.00,0.90
9592.00,0.90
9591.00,0.90
9590.00,0.89
9589.00,0.89
9588.00,0.89
9587.00,0.89
9586.00,0.89
9585.00,0.89
9584.00,0.89
9583.00,0.88
9582.00,0.88
9581.00,0.88
9580.00,0.88
9579.00,0.88
9578.00,0.88
9577.00,0.88
9576.00,0.88
9575.00,0.88
9574.00,0.88
9573.00,0.88
9572.00,0.89
9571.00,0.89
9570.00,0.89
9569.00,0.89
9568.00,0.89
9567.00,0.89
9566.00,0.89
9565.00,0.89
9564.00,0.89
9563.00,0.88
9562.00,0.88
9561.00,0.88
9560.00,0.88
9559.00,0.88
9558.00,0.88
9557.00,0.88
9556.00,0.88
9555.00,0.88
9554.00,0.88
9553.00,0.88
9552.00,0.88
9551.00,0.88
9550.00,0.88
9549.00,0.88
9548.00,0.88
9547.00,0.88
9546.00,0.88
9545.00,0.89
9544.00,0.89
9543.00,0.89
9542.00,0.90
9541.00,0.90
9540.00,0.90
9539.00,0.91
9538.00,0.91
9537.00,0.91
9536.00,0.92
9535.00,0.92
9534.00,0.92
9533.00,0.93
9532.00,0.93
9531.00,0.93
9530.00,0.93
9529.00,0.94
9528.00,0.94
9527.00,0.94
9526.00,0.95
9525.00,0.95
9524.00,0.95
9523.00,0.95
9522.00,0.96
9521.00,0.96
9520.00,0.96
9519.00,0.95
9518.00,0.95
9517.00,0.95
9516.00,0.95
9515.00,0.95
9514.00,0.94
9513.00,0.94
9512.00,0.94
9511.00,0.94
9510.00,0.94
9509.00,0.94
9508.00,0.95
9507.00,0.95
9506.00,0.95
9505.00,0.95
9504.00,0.96
9503.00,0.96
9502.00,0.96
9501.00,0.97
9500.00,0.97
9499.00,0.97
9498.00,0.98
9497.00,0.98
9496.00,0.99
9495.00,0.99
9494.00,0.99
9493.00,1.00
9492.00,1.01
9491.00,1.01
9490.00,1.02
9489.00,1.02
9488.00,1.03
9487.00,1.04
9486.00,1.04
9485.00,1.05
9484.00,1.05
9483.00,1.06
9482.00,1.06
9481.00,1.06
9480.00,1.07
9479.00,1.07
9478.00,1.07
9477.00,1.07
9476.00,1.07
9475.00,1.08
9474.00,1.08
9473.00,1.08
9472.00,1.08
9471.00,1.08
9470.00,1.08
9469.00,1.08
9468.00,1.08
9467.00,1.08
9466.00,1.08
9465.00,1.09
9464.00,1.09
9463.00,1.09
9462.00,1.09
9461.00,1.09
9460.00,1.09
9459.00,1.09
9458.00,1.09
9457.00,1.08
9456.00,1.08
9455.00,1.08
9454.00,1.08
9453.00,1.08
9452.00,1.08
9451.00,1.08
9450.00,1.07
9449.00,1.07
9448.00,1.07
9447.00,1.06
9446.00,1.06
9445.00,1.06
9444.00,1.05
9443.00,1.05
9442.00,1.04
9441.00,1.04
9440.00,1.03
9439.00,1.03
9438.00,1.02
9437.00,1.01
9436.00,1.01
9435.00,1.00
9434.00,1.00
9433.00,1.00
9432.00,0.99
9431.00,0.99
9430.00,0.98
9429.00,0.98
9428.00,0.98
9427.00,0.98
9426.00,0.97
9425.00,0.97
9424.00,0.97
9423.00,0.97
9422.00,0.97
9421.00,0.97
9420.00,0.97
9419.00,0.97
9418.00,0.97
9417.00,0.97
9416.00,0.97
9415.00,0.98
9414.00,0.98
9413.00,0.98
9412.00,0.98
9411.00,0.98
9410.00,0.99
9409.00,0.99
9408.00,0.99
9407.00,0.99
9406.00,0.99
9405.00,0.99
9404.00,0.99
9403.00,0.99
9402.00,0.99
9401.00,0.99
9400.00,0.99
9399.00,0.99
9398.00,0.99
9397.00,0.98
9396.00,0.98
9395.00,0.98
9394.00,0.98
9393.00,0.98
9392.00,0.98
9391.00,0.98
9390.00,0.98
9389.00,0.98
9388.00,0.98
9387.00,0.98
9386.00,0.99
9385.00,0.99
9384.00,0.99
9383.00,0.99
9382.00,0.99
9381.00,0.99
9380.00,0.99
9379.00,1.00
9378.00,1.00
9377.00,1.00
9376.00,1.00
9375.00,1.00
9374.00,1.01
9373.00,1.01
9372.00,1.01
9371.00,1.01
9370.00,1.02
9369.00,1.02
9368.00,1.02
9367.00,1.02
9366.00,1.02
9365.00,1.02
9364.00,1.03
9363.00,1.03
9362.00,1.03
9361.00,1.03
9360.00,1.03
9359.00,1.03
9358.00,1.03
9357.00,1.03
9356.00,1.03
9355.00,1.03
9354.00,1.03
9353.00,1.03
9352.00,1.03
9351.00,1.03
9350.00,1.03
9349.00,1.03
9348.00,1.03
9347.00,1.03
9346.00,1.03
9345.00,1.03
9344.00,1.03
9343.00,1.03
9342.00,1.03
9341.00,1.03
9340.00,1.03
9339.00,1.03
9338.00,1.03
9337.00,1.03
9336.00,1.03
9335.00,1.03
9334.00,1.02
9333.00,1.02
9332.00,1.02
9331.00,1.02
9330.00,1.02
9329.00,1.02
9328.00,1.01
9327.00,1.01
9326.00,1.01
9325.00,1.00
9324.00,1.00
9323.00,1.00
9322.00,1.00
9321.00,1.00
9320.00,0.99
9319.00,0.99
9318.00,0.99
9317.00,0.99
9316.00,0.99
9315.00,0.99
9314.00,0.99
9313.00,1.00
9312.00,1.00
9311.00,1.00
9310.00,1.00
9309.00,1.00
9308.00,1.00
9307.00,1.00
9306.00,1.00
9305.00,1.00
9304.00,1.01
9303.00,1.01
9302.00,1.01
9301.00,1.01
9300.00,1.01
9299.00,1.02
9298.00,1.02
9297.00,1.02
9296.00,1.02
9295.00,1.01
9294.00,1.01
9293.00,1.01
9292.00,1.01
9291.00,1.00
9290.00,1.00
9289.00,1.00
9288.00,0.99
9287.00,0.99
9286.00,0.99
9285.00,0.98
9284.00,0.98
9283.00,0.98
9282.00,0.98
9281.00,0.97
9280.00,0.97
9279.00,0.97
9278.00,0.96
9277.00,0.96
9276.00,0.95
9275.00,0.95
9274.00,0.94
9273.00,0.94
9272.00,0.94
9271.00,0.94
9270.00,0.94
9269.00,0.94
9268.00,0.94
9267.00,0.94
9266.00,0.94
9265.00,0.94
9264.00,0.94
9263.00,0.94
9262.00,0.94
9261.00,0.94
9260.00,0.94
9259.00,0.95
9258.00,0.95
9257.00,0.95
9256.00,0.95
9255.00,0.95
9254.00,0.95
9253.00,0.95
9252.00,0.95
9251.00,0.95
9250.00,0.95
9249.00,0.95
9248.00,0.96
9247.00,0.96
9246.00,0.96
9245.00,0.96
9244.00,0.96
9243.00,0.96
9242.00,0.96
9241.00,0.96
9240.00,0.96
9239.00,0.96
9238.00,0.96
9237.00,0.96
9236.00,0.97
9235.00,0.97
9234.00,0.97
9233.00,0.97
9232.00,0.97
9231.00,0.97
9230.00,0.97
9229.00,0.97
9228.00,0.97
9227.00,0.97
9226.00,0.97
9225.00,0.97
9224.00,0.97
9223.00,0.97
9222.00,0.97
9221.00,0.96
9220.00,0.96
9219.00,0.96
9218.00,0.96
9217.00,0.96
9216.00,0.96
9215.00,0.96
9214.00,0.96
9213.00,0.96
9212.00,0.95
9211.00,0.95
9210.00,0.95
9209.00,0.95
9208.00,0.95
9207.00,0.95
9206.00,0.94
9205.00,0.94
9204.00,0.95
9203.00,0.95
9202.00,0.95
9201.00,0.95
9200.00,0.95
9199.00,0.95
9198.00,0.95
9197.00,0.95
9196.00,0.95
9195.00,0.96
9194.00,0.96
9193.00,0.96
9192.00,0.96
9191.00,0.96
9190.00,0.96
9189.00,0.96
9188.00,0.96
9187.00,0.96
9186.00,0.96
9185.00,0.96
9184.00,0.96
9183.00,0.97
9182.00,0.97
9181.00,0.97
9180.00,0.97
9179.00,0.97
9178.00,0.97
9177.00,0.97
9176.00,0.97
9175.00,0.97
9174.00,0.97
9173.00,0.97
9172.00,0.97
9171.00,0.97
9170.00,0.96
9169.00,0.96
9168.00,0.96
9167.00,0.96
9166.00,0.96
9165.00,0.96
9164.00,0.96
9163.00,0.96
9162.00,0.95
9161.00,0.95
9160.00,0.95
9159.00,0.94
9158.00,0.94
9157.00,0.93
9156.00,0.93
9155.00,0.93
9154.00,0.92
9153.00,0.92
9152.00,0.92
9151.00,0.92
9150.00,0.91
9149.00,0.91
9148.00,0.91
9147.00,0.91
9146.00,0.91
9145.00,0.91
9144.00,0.91
9143.00,0.91
9142.00,0.91
9141.00,0.91
9140.00,0.91
9139.00,0.91
9138.00,0.92
9137.00,0.92
9136.00,0.92
9135.00,0.93
9134.00,0.93
9133.00,0.93
9132.00,0.94
9131.00,0.94
9130.00,0.94
9129.00,0.94
9128.00,0.95
9127.00,0.95
9126.00,0.95
9125.00,0.95
9124.00,0.95
9123.00,0.95
9122.00,0.95
9121.00,0.96
9120.00,0.96
9119.00,0.96
9118.00,0.96
9117.00,0.96
9116.00,0.96
9115.00,0.96
9114.00,0.96
9113.00,0.96
9112.00,0.96
9111.00,0.96
9110.00,0.96
9109.00,0.96
9108.00,0.96
9107.00,0.97
9106.00,0.97
9105.00,0.98
9104.00,0.98
9103.00,0.99
9102.00,0.99
9101.00,1.00
9100.00,1.00
9099.00,1.01
9098.00,1.02
9097.00,1.02
9096.00,1.03
9095.00,1.04
9094.00,1.05
9093.00,1.05
9092.00,1.06
9091.00,1.07
9090.00,1.07
9089.00,1.08
9088.00,1.09
9087.00,1.09
9086.00,1.10
9085.00,1.10
9084.00,1.10
9083.00,1.11
9082.00,1.11
9081.00,1.11
9080.00,1.11
9079.00,1.11
9078.00,1.10
9077.00,1.10
9076.00,1.10
9075.00,1.09
9074.00,1.09
9073.00,1.08
9072.00,1.08
9071.00,1.07
9070.00,1.06
9069.00,1.06
9068.00,1.05
9067.00,1.04
9066.00,1.04
9065.00,1.03
9064.00,1.02
9063.00,1.01
9062.00,1.01
9061.00,1.00
9060.00,0.99
9059.00,0.98
9058.00,0.98
9057.00,0.97
9056.00,0.97
9055.00,0.96
9054.00,0.96
9053.00,0.95
9052.00,0.95
9051.00,0.95
9050.00,0.95
9049.00,0.95
9048.00,0.95
9047.00,0.95
9046.00,0.95
9045.00,0.95
9044.00,0.95
9043.00,0.95
9042.00,0.95
9041.00,0.96
9040.00,0.96
9039.00,0.96
9038.00,0.96
9037.00,0.96
9036.00,0.97
9035.00,0.97
9034.00,0.97
9033.00,0.98
9032.00,0.98
9031.00,0.98
9030.00,0.99
9029.00,0.99
9028.00,0.99
9027.00,1.00
9026.00,1.00
9025.00,1.00
9024.00,1.00
9023.00,1.00
9022.00,1.00
9021.00,1.00
9020.00,1.00
9019.00,1.00
9018.00,1.00
9017.00,1.00
9016.00,1.00
9015.00,1.00
9014.00,1.00
9013.00,1.00
9012.00,1.00
9011.00,1.00
9010.00,1.00
9009.00,1.00
9008.00,1.00
9007.00,1.00
9006.00,1.00
9005.00,1.00
9004.00,1.00
9003.00,1.00
9002.00,1.00
9001.00,1.00
9000.00,1.01
8999.00,1.01
8998.00,1.01
8997.00,1.01
8996.00,1.01
8995.00,1.02
8994.00,1.02
8993.00,1.02
8992.00,1.02
8991.00,1.03
8990.00,1.03
8989.00,1.03
8988.00,1.04
8987.00,1.04
8986.00,1.04
8985.00,1.05
8984.00,1.05
8983.00,1.05
8982.00,1.05
8981.00,1.05
8980.00,1.05
8979.00,1.05
8978.00,1.05
8977.00,1.05
8976.00,1.05
8975.00,1.05
8974.00,1.05
8973.00,1.04
8972.00,1.04
8971.00,1.04
8970.00,1.04
8969.00,1.04
8968.00,1.04
8967.00,1.04
8966.00,1.04
8965.00,1.03
8964.00,1.03
8963.00,1.03
8962.00,1.02
8961.00,1.02
8960.00,1.02
8959.00,1.02
8958.00,1.01
8957.00,1.01
8956.00,1.01
8955.00,1.01
8954.00,1.01
8953.00,1.00
8952.00,1.00
8951.00,1.00
8950.00,1.00
8949.00,1.00
8948.00,0.99
8947.00,0.99
8946.00,0.99
8945.00,0.99
8944.00,0.99
8943.00,0.99
8942.00,0.99
8941.00,0.99
8940.00,0.99
8939.00,0.99
8938.00,0.99
8937.00,0.99
8936.00,0.99
8935.00,0.99
8934.00,0.99
8933.00,0.99
8932.00,0.99
8931.00,0.99
8930.00,0.99
8929.00,0.99
8928.00,1.00
8927.00,1.00
8926.00,1.00
8925.00,1.00
8924.00,1.00
8923.00,1.00
8922.00,1.00
8921.00,1.00
8920.00,1.00
8919.00,1.00
8918.00,0.99
8917.00,0.99
8916.00,0.99
8915.00,0.99
8914.00,0.98
8913.00,0.98
8912.00,0.98
8911.00,0.98
8910.00,0.97
8909.00,0.97
8908.00,0.97
8907.00,0.97
8906.00,0.97
8905.00,0.97
8904.00,0.97
8903.00,0.97
8902.00,0.97
8901.00,0.97
8900.00,0.97
8899.00,0.96
8898.00,0.96
8897.00,0.96
8896.00,0.96
8895.00,0.96
8894.00,0.96
8893.00,0.96
8892.00,0.96
8891.00,0.96
8890.00,0.96
8889.00,0.96
8888.00,0.96
8887.00,0.96
8886.00,0.95
8885.00,0.95
8884.00,0.95
8883.00,0.95
8882.00,0.94
8881.00,0.94
8880.00,0.94
8879.00,0.93
8878.00,0.93
8877.00,0.93
8876.00,0.92
8875.00,0.92
8874.00,0.92
8873.00,0.91
8872.00,0.91
8871.00,0.91
8870.00,0.90
8869.00,0.90
8868.00,0.90
8867.00,0.90
8866.00,0.89
8865.00,0.89
8864.00,0.89
8863.00,0.89
8862.00,0.89
8861.00,0.89
8860.00,0.89
8859.00,0.89
8858.00,0.89
8857.00,0.89
8856.00,0.89
8855.00,0.89
8854.00,0.89
8853.00,0.89
8852.00,0.89
8851.00,0.90
8850.00,0.90
8849.00,0.90
8848.00,0.90
8847.00,0.90
8846.00,0.90
8845.00,0.90
8844.00,0.91
8843.00,0.91
8842.00,0.91
8841.00,0.91
8840.00,0.92
8839.00,0.92
8838.00,0.93
8837.00,0.93
8836.00,0.94
8835.00,0.94
8834.00,0.95
8833.00,0.95
8832.00,0.96
8831.00,0.96
8830.00,0.97
8829.00,0.97
8828.00,0.98
8827.00,0.98
8826.00,0.99
8825.00,0.99
8824.00,0.99
8823.00,1.00
8822.00,1.00
8821.00,1.01
8820.00,1.01
8819.00,1.02
8818.00,1.02
8817.00,1.02
8816.00,1.03
8815.00,1.03
8814.00,1.03
8813.00,1.03
8812.00,1.04
8811.00,1.04
8810.00,1.04
8809.00,1.04
8808.00,1.04
8807.00,1.04
8806.00,1.05
8805.00,1.05
8804.00,1.05
8803.00,1.05
8802.00,1.05
8801.00,1.05
8800.00,1.05
8799.00,1.05
8798.00,1.05
8797.00,1.05
8796.00,1.05
8795.00,1.05
8794.00,1.05
8793.00,1.05
8792.00,1.05
8791.00,1.05
8790.00,1.05
8789.00,1.04
8788.00,1.04
8787.00,1.04
8786.00,1.04
8785.00,1.04
8784.00,1.03
8783.00,1.03
8782.00,1.03
8781.00,1.02
8780.00,1.02
8779.00,1.01
8778.00,1.01
8777.00,1.00
8776.00,1.00
8775.00,1.00
8774.00,0.99
8773.00,0.99
8772.00,0.99
8771.00,0.99
8770.00,0.98
8769.00,0.98
8768.00,0.98
8767.00,0.98
8766.00,0.98
8765.00,0.98
8764.00,0.98
8763.00,0.98
8762.00,0.98
8761.00,0.98
8760.00,0.98
8759.00,0.98
8758.00,0.98
8757.00,0.98
8756.00,0.98
8755.00,0.98
8754.00,0.99
8753.00,0.99
8752.00,0.99
8751.00,0.99
8750.00,0.99
8749.00,0.99
8748.00,0.99
8747.00,0.99
8746.00,0.99
8745.00,0.99
8744.00,0.99
8743.00,0.99
8742.00,1.00
8741.00,1.00
8740.00,1.00
8739.00,1.00
8738.00,1.00
8737.00,1.00
8736.00,1.00
8735.00,1.01
8734.00,1.01
8733.00,1.01
8732.00,1.01
8731.00,1.01
8730.00,1.02
8729.00,1.02
8728.00,1.02
8727.00,1.02
8726.00,1.02
8725.00,1.03
8724.00,1.03
8723.00,1.03
8722.00,1.03
8721.00,1.04
8720.00,1.04
8719.00,1.04
8718.00,1.05
8717.00,1.05
8716.00,1.05
8715.00,1.06
8714.00,1.06
8713.00,1.06
8712.00,1.07
8711.00,1.07
8710.00,1.07
8709.00,1.07
8708.00,1.07
8707.00,1.07
8706.00,1.08
8705.00,1.08
8704.00,1.08
8703.00,1.08
8702.00,1.09
8701.00,1.09
8700.00,1.09
8699.00,1.09
8698.00,1.09
8697.00,1.09
8696.00,1.09
8695.00,1.09
8694.00,1.08
8693.00,1.08
8692.00,1.08
8691.00,1.07
8690.00,1.07
8689.00,1.06
8688.00,1.05
8687.00,1.05
8686.00,1.04
8685.00,1.04
8684.00,1.03
8683.00,1.03
8682.00,1.02
8681.00,1.01
8680.00,1.01
8679.00,1.00
8678.00,1.00
8677.00,0.99
8676.00,0.98
8675.00,0.98
8674.00,0.97
8673.00,0.97
8672.00,0.96
8671.00,0.96
8670.00,0.96
8669.00,0.95
8668.00,0.95
8667.00,0.95
8666.00,0.95
8665.00,0.95
8664.00,0.95
8663.00,0.95
8662.00,0.95
8661.00,0.95
8660.00,0.95
8659.00,0.95
8658.00,0.95
8657.00,0.96
8656.00,0.96
8655.00,0.96
8654.00,0.96
8653.00,0.96
8652.00,0.96
8651.00,0.96
8650.00,0.96
8649.00,0.96
8648.00,0.96
8647.00,0.97
8646.00,0.97
8645.00,0.97
8644.00,0.97
8643.00,0.96
8642.00,0.96
8641.00,0.96
8640.00,0.96
8639.00,0.96
8638.00,0.96
8637.00,0.96
8636.00,0.96
8635.00,0.96
8634.00,0.96
8633.00,0.96
8632.00,0.95
8631.00,0.95
8630.00,0.95
8629.00,0.94
8628.00,0.94
8627.00,0.94
8626.00,0.93
8625.00,0.93
8624.00,0.93
8623.00,0.92
8622.00,0.92
8621.00,0.92
8620.00,0.91
8619.00,0.91
8618.00,0.91
8617.00,0.91
8616.00,0.90
8615.00,0.90
8614.00,0.90
8613.00,0.90
8612.00,0.90
8611.00,0.89
8610.00,0.89
8609.00,0.89
8608.00,0.89
8607.00,0.89
8606.00,0.89
8605.00,0.89
8604.00,0.90
8603.00,0.90
8602.00,0.90
8601.00,0.90
8600.00,0.91
8599.00,0.91
8598.00,0.91
8597.00,0.92
8596.00,0.92
8595.00,0.92
8594.00,0.92
8593.00,0.93
8592.00,0.93
8591.00,0.93
8590.00,0.94
8589.00,0.94
8588.00,0.94
8587.00,0.94
8586.00,0.94
8585.00,0.95
8584.00,0.95
8583.00,0.95
8582.00,0.95
8581.00,0.96
8580.00,0.96
8579.00,0.96
8578.00,0.97
8577.00,0.97
8576.00,0.97
8575.00,0.97
8574.00,0.98
8573.00,0.98
8572.00,0.98
8571.00,0.98
8570.00,0.99
8569.00,0.99
8568.00,0.99
8567.00,1.00
8566.00,1.00
8565.00,1.00
8564.00,1.01
8563.00,1.01
8562.00,1.01
8561.00,1.02
8560.00,1.02
8559.00,1.03
8558.00,1.03
8557.00,1.03
8556.00,1.04
8555.00,1.04
8554.00,1.04
8553.00,1.04
8552.00,1.04
8551.00,1.05
8550.00,1.05
8549.00,1.05
8548.00,1.05
8547.00,1.05
8546.00,1.05
8545.00,1.05
8544.00,1.05
8543.00,1.05
8542.00,1.05
8541.00,1.05
8540.00,1.05
8539.00,1.04
8538.00,1.04
8537.00,1.04
8536.00,1.04
8535.00,1.04
8534.00,1.03
8533.00,1.03
8532.00,1.03
8531.00,1.02
8530.00,1.02
8529.00,1.02
8528.00,1.01
8527.00,1.01
8526.00,1.01
8525.00,1.00
8524.00,1.00
8523.00,1.00
8522.00,0.99
8521.00,0.99
8520.00,0.98
8519.00,0.98
8518.00,0.97
8517.00,0.97
8516.00,0.97
8515.00,0.96
8514.00,0.96
8513.00,0.96
8512.00,0.95
8511.00,0.95
8510.00,0.95
8509.00,0.95
8508.00,0.95
8507.00,0.95
8506.00,0.95
8505.00,0.94
8504.00,0.94
8503.00,0.94
8502.00,0.94
8501.00,0.94
8500.00,0.94
8499.00,0.95
8498.00,0.95
8497.00,0.95
8496.00,0.95
8495.00,0.96
8494.00,0.96
8493.00,0.97
8492.00,0.97
8491.00,0.98
8490.00,0.98
8489.00,0.99
8488.00,0.99
8487.00,0.99
8486.00,1.00
8485.00,1.00
8484.00,1.01
8483.00,1.01
8482.00,1.02
8481.00,1.02
8480.00,1.02
8479.00,1.03
8478.00,1.03
8477.00,1.04
8476.00,1.04
8475.00,1.04
8474.00,1.05
8473.00,1.05
8472.00,1.05
8471.00,1.05
8470.00,1.05
8469.00,1.05
8468.00,1.05
8467.00,1.05
8466.00,1.05
8465.00,1.05
8464.00,1.04
8463.00,1.04
8462.00,1.04
8461.00,1.04
8460.00,1.04
8459.00,1.04
8458.00,1.04
8457.00,1.03
8456.00,1.03
8455.00,1.03
8454.00,1.03
8453.00,1.03
8452.00,1.03
8451.00,1.03
8450.00,1.03
8449.00,1.02
8448.00,1.02
8447.00,1.02
8446.00,1.02
8445.00,1.02
8444.00,1.02
8443.00,1.02
8442.00,1.02
8441.00,1.02
8440.00,1.02
8439.00,1.02
8438.00,1.02
8437.00,1.01
8436.00,1.01
8435.00,1.01
8434.00,1.01
8433.00,1.01
8432.00,1.01
8431.00,1.01
8430.00,1.00
8429.00,1.00
8428.00,1.00
8427.00,1.00
8426.00,0.99
8425.00,0.99
8424.00,0.99
8423.00,0.99
8422.00,0.98
8421.00,0.98
8420.00,0.98
8419.00,0.98
8418.00,0.97
8417.00,0.97
8416.00,0.97
8415.00,0.97
8414.00,0.97
8413.00,0.96
8412.00,0.96
8411.00,0.96
8410.00,0.96
8409.00,0.96
8408.00,0.96
8407.00,0.95
8406.00,0.95
8405.00,0.95
8404.00,0.95
8403.00,0.95
8402.00,0.95
8401.00,0.95
8400.00,0.95
8399.00,0.95
8398.00,0.94
8397.00,0.94
8396.00,0.94
8395.00,0.94
8394.00,0.94
8393.00,0.94
8392.00,0.94
8391.00,0.94
8390.00,0.94
8389.00,0.94
8388.00,0.94
8387.00,0.94
8386.00,0.94
8385.00,0.94
8384.00,0.94
8383.00,0.94
8382.00,0.94
8381.00,0.94
8380.00,0.94
8379.00,0.94
8378.00,0.94
8377.00,0.94
8376.00,0.94
8375.00,0.94
8374.00,0.94
8373.00,0.94
8372.00,0.94
8371.00,0.94
8370.00,0.94
8369.00,0.94
8368.00,0.94
8367.00,0.93
8366.00,0.93
8365.00,0.93
8364.00,0.93
8363.00,0.93
8362.00,0.93
8361.00,0.93
8360.00,0.93
8359.00,0.93
8358.00,0.93
8357.00,0.93
8356.00,0.93
8355.00,0.93
8354.00,0.93
8353.00,0.93
8352.00,0.93
8351.00,0.93
8350.00,0.93
8349.00,0.93
8348.00,0.93
8347.00,0.93
8346.00,0.93
8345.00,0.94
8344.00,0.94
8343.00,0.94
8342.00,0.94
8341.00,0.94
8340.00,0.94
8339.00,0.94
8338.00,0.94
8337.00,0.94
8336.00,0.95
8335.00,0.95
8334.00,0.95
8333.00,0.95
8332.00,0.95
8331.00,0.95
8330.00,0.96
8329.00,0.96
8328.00,0.96
8327.00,0.96
8326.00,0.96
8325.00,0.96
8324.00,0.97
8323.00,0.97
8322.00,0.97
8321.00,0.97
8320.00,0.97
8319.00,0.98
8318.00,0.98
8317.00,0.98
8316.00,0.99
8315.00,0.99
8314.00,0.99
8313.00,1.00
8312.00,1.00
8311.00,1.00
8310.00,1.01
8309.00,1.01
8308.00,1.01
8307.00,1.01
8306.00,1.02
8305.00,1.02
8304.00,1.02
8303.00,1.02
8302.00,1.02
8301.00,1.02
8300.00,1.02
8299.00,1.02
8298.00,1.02
8297.00,1.01
8296.00,1.01
8295.00,1.01
8294.00,1.01
8293.00,1.01
8292.00,1.01
8291.00,1.01
8290.00,1.01
8289.00,1.01
8288.00,1.01
8287.00,1.01
8286.00,1.01
8285.00,1.01
8284.00,1.01
8283.00,1.01
8282.00,1.00
8281.00,1.00
8280.00,1.00
8279.00,1.01
8278.00,1.01
8277.00,1.01
8276.00,1.01
8275.00,1.01
8274.00,1.01
8273.00,1.02
8272.00,1.02
8271.00,1.02
8270.00,1.02
8269.00,1.02
8268.00,1.02
8267.00,1.02
8266.00,1.02
8265.00,1.02
8264.00,1.02
8263.00,1.02
8262.00,1.01
8261.00,1.01
8260.00,1.01
8259.00,1.01
8258.00,1.01
8257.00,1.01
8256.00,1.01
8255.00,1.01
8254.00,1.00
8253.00,1.00
8252.00,1.00
8251.00,1.00
8250.00,1.00
8249.00,1.00
8248.00,1.00
8247.00,0.99
8246.00,0.99
8245.00,0.99
8244.00,0.99
8243.00,0.99
8242.00,0.99
8241.00,0.99
8240.00,0.99
8239.00,0.99
8238.00,0.99
8237.00,0.99
8236.00,0.99
8235.00,0.99
8234.00,1.00
8233.00,1.00
8232.00,1.00
8231.00,1.00
8230.00,1.00
8229.00,1.00
8228.00,1.01
8227.00,1.01
8226.00,1.01
8225.00,1.01
8224.00,1.01
8223.00,1.01
8222.00,1.01
8221.00,1.01
8220.00,1.01
8219.00,1.02
8218.00,1.02
8217.00,1.02
8216.00,1.02
8215.00,1.02
8214.00,1.02
8213.00,1.02
8212.00,1.02
8211.00,1.03
8210.00,1.03
8209.00,1.03
8208.00,1.03
8207.00,1.03
8206.00,1.03
8205.00,1.03
8204.00,1.04
8203.00,1.04
8202.00,1.04
8201.00,1.04
8200.00,1.04
8199.00,1.04
8198.00,1.05
8197.00,1.05
8196.00,1.05
8195.00,1.05
8194.00,1.05
8193.00,1.05
8192.00,1.05
8191.00,1.05
8190.00,1.05
8189.00,1.05
8188.00,1.05
8187.00,1.05
8186.00,1.05
8185.00,1.05
8184.00,1.05
8183.00,1.05
8182.00,1.05
8181.00,1.05
8180.00,1.05
8179.00,1.05
8178.00,1.05
8177.00,1.05
8176.00,1.04
8175.00,1.04
8174.00,1.04
8173.00,1.04
8172.00,1.04
8171.00,1.04
8170.00,1.04
8169.00,1.04
8168.00,1.04
8167.00,1.04
8166.00,1.04
8165.00,1.04
8164.00,1.04
8163.00,1.04
8162.00,1.04
8161.00,1.04
8160.00,1.04
8159.00,1.04
8158.00,1.04
8157.00,1.04
8156.00,1.03
8155.00,1.03
8154.00,1.03
8153.00,1.03
8152.00,1.03
8151.00,1.03
8150.00,1.03
8149.00,1.03
8148.00,1.03
8147.00,1.03
8146.00,1.02
8145.00,1.02
8144.00,1.02
8143.00,1.02
8142.00,1.02
8141.00,1.02
8140.00,1.02
8139.00,1.02
8138.00,1.01
8137.00,1.01
8136.00,1.01
8135.00,1.01
8134.00,1.01
8133.00,1.02
8132.00,1.02
8131.00,1.02
8130.00,1.02
8129.00,1.03
8128.00,1.03
8127.00,1.03
8126.00,1.04
8125.00,1.04
8124.00,1.05
8123.00,1.05
8122.00,1.05
8121.00,1.06
8120.00,1.06
8119.00,1.07
8118.00,1.07
8117.00,1.08
8116.00,1.08
8115.00,1.08
8114.00,1.09
8113.00,1.09
8112.00,1.09
8111.00,1.09
8110.00,1.10
8109.00,1.10
8108.00,1.10
8107.00,1.10
8106.00,1.10
8105.00,1.10
8104.00,1.10
8103.00,1.10
8102.00,1.10
8101.00,1.10
8100.00,1.10
8099.00,1.10
8098.00,1.10
8097.00,1.10
8096.00,1.10
8095.00,1.10
8094.00,1.10
8093.00,1.10
8092.00,1.10
8091.00,1.10
8090.00,1.10
8089.00,1.10
8088.00,1.10
8087.00,1.10
8086.00,1.09
8085.00,1.09
8084.00,1.09
8083.00,1.09
8082.00,1.09
8081.00,1.09
8080.00,1.09
8079.00,1.09
8078.00,1.09
8077.00,1.08
8076.00,1.08
8075.00,1.08
8074.00,1.08
8073.00,1.07
8072.00,1.07
8071.00,1.07
8070.00,1.06
8069.00,1.06
8068.00,1.06
8067.00,1.05
8066.00,1.05
8065.00,1.05
8064.00,1.04
8063.00,1.04
8062.00,1.04
8061.00,1.04
8060.00,1.04
8059.00,1.03
8058.00,1.03
8057.00,1.03
8056.00,1.03
8055.00,1.03
8054.00,1.03
8053.00,1.03
8052.00,1.03
8051.00,1.03
8050.00,1.03
8049.00,1.03
8048.00,1.03
8047.00,1.03
8046.00,1.03
8045.00,1.04
8044.00,1.04
8043.00,1.04
8042.00,1.04
8041.00,1.04
8040.00,1.04
8039.00,1.04
8038.00,1.04
8037.00,1.05
8036.00,1.05
8035.00,1.05
8034.00,1.05
8033.00,1.05
8032.00,1.05
8031.00,1.05
8030.00,1.05
8029.00,1.05
8028.00,1.05
8027.00,1.05
8026.00,1.05
8025.00,1.05
8024.00,1.05
8023.00,1.05
8022.00,1.05
8021.00,1.05
8020.00,1.05
8019.00,1.05
8018.00,1.05
8017.00,1.05
8016.00,1.05
8015.00,1.05
8014.00,1.05
8013.00,1.06
8012.00,1.06
8011.00,1.06
8010.00,1.06
8009.00,1.06
8008.00,1.06
8007.00,1.06
8006.00,1.06
8005.00,1.06
8004.00,1.06
8003.00,1.06
8002.00,1.06
8001.00,1.06
8000.00,1.06
7999.00,1.07
7998.00,1.07
7997.00,1.07
7996.00,1.07
7995.00,1.07
7994.00,1.07
7993.00,1.07
7992.00,1.07
7991.00,1.07
7990.00,1.07
7989.00,1.07
7988.00,1.07
7987.00,1.07
7986.00,1.07
7985.00,1.07
7984.00,1.07
7983.00,1.07
7982.00,1.07
7981.00,1.06
7980.00,1.06
7979.00,1.06
7978.00,1.06
7977.00,1.06
7976.00,1.06
7975.00,1.06
7974.00,1.06
7973.00,1.06
7972.00,1.06
7971.00,1.06
7970.00,1.06
7969.00,1.06
7968.00,1.06
7967.00,1.06
7966.00,1.06
7965.00,1.06
7964.00,1.07
7963.00,1.07
7962.00,1.07
7961.00,1.07
7960.00,1.07
7959.00,1.07
7958.00,1.07
7957.00,1.07
7956.00,1.07
7955.00,1.07
7954.00,1.08
7953.00,1.08
7952.00,1.08
7951.00,1.08
7950.00,1.08
7949.00,1.08
7948.00,1.08
7947.00,1.08
7946.00,1.08
7945.00,1.08
7944.00,1.08
7943.00,1.08
7942.00,1.08
7941.00,1.08
7940.00,1.08
7939.00,1.08
7938.00,1.08
7937.00,1.08
7936.00,1.08
7935.00,1.08
7934.00,1.08
7933.00,1.08
7932.00,1.08
7931.00,1.08
7930.00,1.08
7929.00,1.08
7928.00,1.08
7927.00,1.08
7926.00,1.08
7925.00,1.08
7924.00,1.08
7923.00,1.08
7922.00,1.08
7921.00,1.09
7920.00,1.09
7919.00,1.09
7918.00,1.09
7917.00,1.09
7916.00,1.09
7915.00,1.09
7914.00,1.09
7913.00,1.09
7912.00,1.09
7911.00,1.09
7910.00,1.09
7909.00,1.09
7908.00,1.09
7907.00,1.09
7906.00,1.09
7905.00,1.09
7904.00,1.09
7903.00,1.08
7902.00,1.08
7901.00,1.08
7900.00,1.08
7899.00,1.08
7898.00,1.08
7897.00,1.07
7896.00,1.07
7895.00,1.07
7894.00,1.07
7893.00,1.07
7892.00,1.07
7891.00,1.06
7890.00,1.06
7889.00,1.06
7888.00,1.06
7887.00,1.06
7886.00,1.05
7885.00,1.05
7884.00,1.05
7883.00,1.05
7882.00,1.05
7881.00,1.05
7880.00,1.05
7879.00,1.05
7878.00,1.05
7877.00,1.05
7876.00,1.05
7875.00,1.05
7874.00,1.05
7873.00,1.05
7872.00,1.05
7871.00,1.05
7870.00,1.05
7869.00,1.06
7868.00,1.06
7867.00,1.06
7866.00,1.06
7865.00,1.07
7864.00,1.07
7863.00,1.07
7862.00,1.07
7861.00,1.08
7860.00,1.08
7859.00,1.08
7858.00,1.08
7857.00,1.09
7856.00,1.09
7855.00,1.09
7854.00,1.10
7853.00,1.10
7852.00,1.10
7851.00,1.11
7850.00,1.11
7849.00,1.11
7848.00,1.11
7847.00,1.12
7846.00,1.12
7845.00,1.12
7844.00,1.12
7843.00,1.12
7842.00,1.12
7841.00,1.12
7840.00,1.12
7839.00,1.12
7838.00,1.12
7837.00,1.12
7836.00,1.12
7835.00,1.12
7834.00,1.12
7833.00,1.12
7832.00,1.12
7831.00,1.12
7830.00,1.12
7829.00,1.12
7828.00,1.12
7827.00,1.12
7826.00,1.12
7825.00,1.12
7824.00,1.12
7823.00,1.12
7822.00,1.12
7821.00,1.12
7820.00,1.12
7819.00,1.12
7818.00,1.12
7817.00,1.12
7816.00,1.12
7815.00,1.12
7814.00,1.12
7813.00,1.12
7812.00,1.12
7811.00,1.12
7810.00,1.12
7809.00,1.12
7808.00,1.12
7807.00,1.12
7806.00,1.12
7805.00,1.12
7804.00,1.12
7803.00,1.12
7802.00,1.12
7801.00,1.12
7800.00,1.12
7799.00,1.12
7798.00,1.12
7797.00,1.12
7796.00,1.12
7795.00,1.12
7794.00,1.12
7793.00,1.12
7792.00,1.12
7791.00,1.12
7790.00,1.12
7789.00,1.12
7788.00,1.11
7787.00,1.11
7786.00,1.11
7785.00,1.11
7784.00,1.11
7783.00,1.11
7782.00,1.11
7781.00,1.11
7780.00,1.11
7779.00,1.11
7778.00,1.11
7777.00,1.11
7776.00,1.11
7775.00,1.11
7774.00,1.11
7773.00,1.12
7772.00,1.12
7771.00,1.12
7770.00,1.12
7769.00,1.12
7768.00,1.12
7767.00,1.12
7766.00,1.12
7765.00,1.12
7764.00,1.12
7763.00,1.12
7762.00,1.12
7761.00,1.12
7760.00,1.12
7759.00,1.12
7758.00,1.13
7757.00,1.13
7756.00,1.13
7755.00,1.13
7754.00,1.13
7753.00,1.13
7752.00,1.14
7751.00,1.14
7750.00,1.14
7749.00,1.14
7748.00,1.14
7747.00,1.15
7746.00,1.15
7745.00,1.15
7744.00,1.15
7743.00,1.15
7742.00,1.15
7741.00,1.15
7740.00,1.15
7739.00,1.15
7738.00,1.15
7737.00,1.16
7736.00,1.16
7735.00,1.16
7734.00,1.16
7733.00,1.16
7732.00,1.16
7731.00,1.16
7730.00,1.16
7729.00,1.16
7728.00,1.16
7727.00,1.16
7726.00,1.16
7725.00,1.16
7724.00,1.15
7723.00,1.15
7722.00,1.15
7721.00,1.15
7720.00,1.15
7719.00,1.15
7718.00,1.15
7717.00,1.15
7716.00,1.14
7715.00,1.14
7714.00,1.14
7713.00,1.14
7712.00,1.14
7711.00,1.14
7710.00,1.13
7709.00,1.13
7708.00,1.13
7707.00,1.13
7706.00,1.13
7705.00,1.12
7704.00,1.12
7703.00,1.12
7702.00,1.12
7701.00,1.12
7700.00,1.11
7699.00,1.11
7698.00,1.11
7697.00,1.11
7696.00,1.11
7695.00,1.11
7694.00,1.11
7693.00,1.11
7692.00,1.11
7691.00,1.11
7690.00,1.11
7689.00,1.11
7688.00,1.11
7687.00,1.11
7686.00,1.11
7685.00,1.11
7684.00,1.11
7683.00,1.11
7682.00,1.11
7681.00,1.11
7680.00,1.11
7679.00,1.11
7678.00,1.11
7677.00,1.11
7676.00,1.11
7675.00,1.11
7674.00,1.11
7673.00,1.11
7672.00,1.11
7671.00,1.11
7670.00,1.11
7669.00,1.11
7668.00,1.11
7667.00,1.11
7666.00,1.11
7665.00,1.11
7664.00,1.11
7663.00,1.11
7662.00,1.11
7661.00,1.11
7660.00,1.11
7659.00,1.11
7658.00,1.11
7657.00,1.11
7656.00,1.11
7655.00,1.11
7654.00,1.11
7653.00,1.12
7652.00,1.12
7651.00,1.12
7650.00,1.12
7649.00,1.12
7648.00,1.12
7647.00,1.13
7646.00,1.13
7645.00,1.13
7644.00,1.13
7643.00,1.13
7642.00,1.13
7641.00,1.14
7640.00,1.14
7639.00,1.14
7638.00,1.14
7637.00,1.14
7636.00,1.14
7635.00,1.14
7634.00,1.15
7633.00,1.15
7632.00,1.15
7631.00,1.15
7630.00,1.15
7629.00,1.15
7628.00,1.15
7627.00,1.15
7626.00,1.15
7625.00,1.15
7624.00,1.15
7623.00,1.14
7622.00,1.14
7621.00,1.14
7620.00,1.14
7619.00,1.14
7618.00,1.13
7617.00,1.13
7616.00,1.13
7615.00,1.13
7614.00,1.13
7613.00,1.12
7612.00,1.12
7611.00,1.12
7610.00,1.12
7609.00,1.11
7608.00,1.11
7607.00,1.11
7606.00,1.11
7605.00,1.11
7604.00,1.11
7603.00,1.10
7602.00,1.10
7601.00,1.10
7600.00,1.10
7599.00,1.10
7598.00,1.10
7597.00,1.11
7596.00,1.11
7595.00,1.11
7594.00,1.11
7593.00,1.11
7592.00,1.11
7591.00,1.12
7590.00,1.12
7589.00,1.12
7588.00,1.12
7587.00,1.12
7586.00,1.12
7585.00,1.12
7584.00,1.12
7583.00,1.13
7582.00,1.13
7581.00,1.13
7580.00,1.13
7579.00,1.13
7578.00,1.13
7577.00,1.13
7576.00,1.13
7575.00,1.13
7574.00,1.13
7573.00,1.13
7572.00,1.13
7571.00,1.13
7570.00,1.12
7569.00,1.12
7568.00,1.12
7567.00,1.12
7566.00,1.12
7565.00,1.12
7564.00,1.12
7563.00,1.12
7562.00,1.12
7561.00,1.11
7560.00,1.11
7559.00,1.11
7558.00,1.11
7557.00,1.11
7556.00,1.11
7555.00,1.11
7554.00,1.11
7553.00,1.11
7552.00,1.11
7551.00,1.11
7550.00,1.11
7549.00,1.11
7548.00,1.12
7547.00,1.12
7546.00,1.12
7545.00,1.12
7544.00,1.12
7543.00,1.12
7542.00,1.12
7541.00,1.12
7540.00,1.12
7539.00,1.13
7538.00,1.13
7537.00,1.13
7536.00,1.13
7535.00,1.13
7534.00,1.13
7533.00,1.14
7532.00,1.14
7531.00,1.14
7530.00,1.14
7529.00,1.14
7528.00,1.14
7527.00,1.14
7526.00,1.14
7525.00,1.15
7524.00,1.15
7523.00,1.15
7522.00,1.15
7521.00,1.15
7520.00,1.15
7519.00,1.15
7518.00,1.15
7517.00,1.15
7516.00,1.15
7515.00,1.15
7514.00,1.15
7513.00,1.15
7512.00,1.15
7511.00,1.15
7510.00,1.15
7509.00,1.15
7508.00,1.15
7507.00,1.15
7506.00,1.15
7505.00,1.15
7504.00,1.14
7503.00,1.14
7502.00,1.14
7501.00,1.14
7500.00,1.14
7499.00,1.14
7498.00,1.14
7497.00,1.13
7496.00,1.13
7495.00,1.13
7494.00,1.13
7493.00,1.13
7492.00,1.13
7491.00,1.13
7490.00,1.13
7489.00,1.13
7488.00,1.12
7487.00,1.12
7486.00,1.12
7485.00,1.12
7484.00,1.12
7483.00,1.12
7482.00,1.12
7481.00,1.12
7480.00,1.12
7479.00,1.12
7478.00,1.12
7477.00,1.12
7476.00,1.12
7475.00,1.12
7474.00,1.12
7473.00,1.12
7472.00,1.11
7471.00,1.11
7470.00,1.11
7469.00,1.11
7468.00,1.11
7467.00,1.11
7466.00,1.11
7465.00,1.11
7464.00,1.11
7463.00,1.11
7462.00,1.11
7461.00,1.11
7460.00,1.11
7459.00,1.11
7458.00,1.11
7457.00,1.11
7456.00,1.11
7455.00,1.11
7454.00,1.11
7453.00,1.11
7452.00,1.11
7451.00,1.12
7450.00,1.12
7449.00,1.12
7448.00,1.12
7447.00,1.12
7446.00,1.13
7445.00,1.13
7444.00,1.13
7443.00,1.13
7442.00,1.14
7441.00,1.14
7440.00,1.14
7439.00,1.14
7438.00,1.14
7437.00,1.14
7436.00,1.14
7435.00,1.15
7434.00,1.15
7433.00,1.15
7432.00,1.15
7431.00,1.15
7430.00,1.15
7429.00,1.15
7428.00,1.15
7427.00,1.15
7426.00,1.15
7425.00,1.15
7424.00,1.15
7423.00,1.15
7422.00,1.15
7421.00,1.14
7420.00,1.14
7419.00,1.14
7418.00,1.14
7417.00,1.13
7416.00,1.13
7415.00,1.13
7414.00,1.13
7413.00,1.12
7412.00,1.12
7411.00,1.12
7410.00,1.11
7409.00,1.11
7408.00,1.11
7407.00,1.11
7406.00,1.10
7405.00,1.10
7404.00,1.10
7403.00,1.09
7402.00,1.09
7401.00,1.09
7400.00,1.08
7399.00,1.08
7398.00,1.08
7397.00,1.07
7396.00,1.07
7395.00,1.06
7394.00,1.06
7393.00,1.06
7392.00,1.05
7391.00,1.05
7390.00,1.05
7389.00,1.05
7388.00,1.05
7387.00,1.05
7386.00,1.04
7385.00,1.04
7384.00,1.04
7383.00,1.04
7382.00,1.04
7381.00,1.04
7380.00,1.04
7379.00,1.04
7378.00,1.04
7377.00,1.04
7376.00,1.04
7375.00,1.04
7374.00,1.05
7373.00,1.05
7372.00,1.05
7371.00,1.05
7370.00,1.05
7369.00,1.05
7368.00,1.05
7367.00,1.06
7366.00,1.06
7365.00,1.06
7364.00,1.06
7363.00,1.06
7362.00,1.07
7361.00,1.07
7360.00,1.07
7359.00,1.07
7358.00,1.07
7357.00,1.07
7356.00,1.07
7355.00,1.08
7354.00,1.08
7353.00,1.08
7352.00,1.08
7351.00,1.08
7350.00,1.08
7349.00,1.08
7348.00,1.08
7347.00,1.08
7346.00,1.08
7345.00,1.08
7344.00,1.08
7343.00,1.08
7342.00,1.08
7341.00,1.08
7340.00,1.08
7339.00,1.08
7338.00,1.08
7337.00,1.08
7336.00,1.08
7335.00,1.07
7334.00,1.07
7333.00,1.07
7332.00,1.07
7331.00,1.06
7330.00,1.06
7329.00,1.06
7328.00,1.06
7327.00,1.06
7326.00,1.05
7325.00,1.05
7324.00,1.05
7323.00,1.05
7322.00,1.05
7321.00,1.05
7320.00,1.05
7319.00,1.04
7318.00,1.04
7317.00,1.04
7316.00,1.04
7315.00,1.04
7314.00,1.04
7313.00,1.04
7312.00,1.04
7311.00,1.04
7310.00,1.04
7309.00,1.04
7308.00,1.04
7307.00,1.04
7306.00,1.04
7305.00,1.04
7304.00,1.04
7303.00,1.04
7302.00,1.04
7301.00,1.04
7300.00,1.04
7299.00,1.05
7298.00,1.05
7297.00,1.04
7296.00,1.04
7295.00,1.04
7294.00,1.04
7293.00,1.04
7292.00,1.04
7291.00,1.04
7290.00,1.04
7289.00,1.04
7288.00,1.04
7287.00,1.04
7286.00,1.04
7285.00,1.04
7284.00,1.03
7283.00,1.03
7282.00,1.03
7281.00,1.03
7280.00,1.03
7279.00,1.03
7278.00,1.03
7277.00,1.02
7276.00,1.02
7275.00,1.02
7274.00,1.02
7273.00,1.02
7272.00,1.02
7271.00,1.02
7270.00,1.02
7269.00,1.02
7268.00,1.01
7267.00,1.01
7266.00,1.01
7265.00,1.01
7264.00,1.01
7263.00,1.01
7262.00,1.01
7261.00,1.01
7260.00,1.01
7259.00,1.00
7258.00,1.00
7257.00,1.00
7256.00,1.00
7255.00,1.00
7254.00,1.00
7253.00,0.99
7252.00,0.99
7251.00,0.99
7250.00,0.98
7249.00,0.98
7248.00,0.98
7247.00,0.98
7246.00,0.97
7245.00,0.97
7244.00,0.97
7243.00,0.96
7242.00,0.96
7241.00,0.96
7240.00,0.95
7239.00,0.95
7238.00,0.94
7237.00,0.94
7236.00,0.94
7235.00,0.93
7234.00,0.93
7233.00,0.93
7232.00,0.92
7231.00,0.92
7230.00,0.92
7229.00,0.92
7228.00,0.92
7227.00,0.91
7226.00,0.91
7225.00,0.91
7224.00,0.91
7223.00,0.91
7222.00,0.91
7221.00,0.90
7220.00,0.90
7219.00,0.90
7218.00,0.90
7217.00,0.90
7216.00,0.90
7215.00,0.90
7214.00,0.90
7213.00,0.90
7212.00,0.90
7211.00,0.90
7210.00,0.90
7209.00,0.90
7208.00,0.90
7207.00,0.89
7206.00,0.89
7205.00,0.89
7204.00,0.89
7203.00,0.89
7202.00,0.89
7201.00,0.89
7200.00,0.89
7199.00,0.89
7198.00,0.89
7197.00,0.89
7196.00,0.89
7195.00,0.88
7194.00,0.88
7193.00,0.88
7192.00,0.88
7191.00,0.88
7190.00,0.88
7189.00,0.88
7188.00,0.87
7187.00,0.87
7186.00,0.87
7185.00,0.87
7184.00,0.87
7183.00,0.86
7182.00,0.86
7181.00,0.86
7180.00,0.86
7179.00,0.85
7178.00,0.85
7177.00,0.85
7176.00,0.84
7175.00,0.84
7174.00,0.84
7173.00,0.84
7172.00,0.83
7171.00,0.83
7170.00,0.83
7169.00,0.82
7168.00,0.82
7167.00,0.82
7166.00,0.81
7165.00,0.81
7164.00,0.81
7163.00,0.81
7162.00,0.80
7161.00,0.80
7160.00,0.80
7159.00,0.80
7158.00,0.80
7157.00,0.79
7156.00,0.79
7155.00,0.79
7154.00,0.79
7153.00,0.78
7152.00,0.78
7151.00,0.78
7150.00,0.78
7149.00,0.78
7148.00,0.77
7147.00,0.77
7146.00,0.77
7145.00,0.77
7144.00,0.76
7143.00,0.76
7142.00,0.76
7141.00,0.76
7140.00,0.75
7139.00,0.75
7138.00,0.75
7137.00,0.75
7136.00,0.74
7135.00,0.74
7134.00,0.74
7133.00,0.73
7132.00,0.73
7131.00,0.73
7130.00,0.72
7129.00,0.72
7128.00,0.72
7127.00,0.71
7126.00,0.71
7125.00,0.71
7124.00,0.70
7123.00,0.70
7122.00,0.70
7121.00,0.69
7120.00,0.69
7119.00,0.69
7118.00,0.68
7117.00,0.68
7116.00,0.68
7115.00,0.67
7114.00,0.67
7113.00,0.67
7112.00,0.67
7111.00,0.66
7110.00,0.66
7109.00,0.66
7108.00,0.66
7107.00,0.65
7106.00,0.65
7105.00,0.65
7104.00,0.65
7103.00,0.65
7102.00,0.64
7101.00,0.64
7100.00,0.64
7099.00,0.64
7098.00,0.64
7097.00,0.64
7096.00,0.64
7095.00,0.64
7094.00,0.64
7093.00,0.64
7092.00,0.64
7091.00,0.64
7090.00,0.64
7089.00,0.64
7088.00,0.64
7087.00,0.64
7086.00,0.64
7085.00,0.64
7084.00,0.64
7083.00,0.64
7082.00,0.64
7081.00,0.64
7080.00,0.64
7079.00,0.64
7078.00,0.64
7077.00,0.64
7076.00,0.64
7075.00,0.64
7074.00,0.64
7073.00,0.64
7072.00,0.64
7071.00,0.64
7070.00,0.64
7069.00,0.64
7068.00,0.64
7067.00,0.63
7066.00,0.63
7065.00,0.63
7064.00,0.63
7063.00,0.63
7062.00,0.62
7061.00,0.62
7060.00,0.62
7059.00,0.62
7058.00,0.62
7057.00,0.61
7056.00,0.61
7055.00,0.61
7054.00,0.61
7053.00,0.61
7052.00,0.60
7051.00,0.60
7050.00,0.60
7049.00,0.60
7048.00,0.59
7047.00,0.59
7046.00,0.59
7045.00,0.59
7044.00,0.59
7043.00,0.58
7042.00,0.58
7041.00,0.58
7040.00,0.58
7039.00,0.58
7038.00,0.58
7037.00,0.58
7036.00,0.58
7035.00,0.58
7034.00,0.58
7033.00,0.58
7032.00,0.58
7031.00,0.58
7030.00,0.58
7029.00,0.58
7028.00,0.58
7027.00,0.58
7026.00,0.58
7025.00,0.58
7024.00,0.58
7023.00,0.58
7022.00,0.58
7021.00,0.58
7020.00,0.58
7019.00,0.59
7018.00,0.59
7017.00,0.59
7016.00,0.59
7015.00,0.59
7014.00,0.59
7013.00,0.60
7012.00,0.60
7011.00,0.60
7010.00,0.60
7009.00,0.60
7008.00,0.60
7007.00,0.60
7006.00,0.61
7005.00,0.61
7004.00,0.61
7003.00,0.61
7002.00,0.61
7001.00,0.60
7000.00,0.60
6999.00,0.60
6998.00,0.60
6997.00,0.60
6996.00,0.59
6995.00,0.59
6994.00,0.59
6993.00,0.59
6992.00,0.58
6991.00,0.58
6990.00,0.58
6989.00,0.57
6988.00,0.57
6987.00,0.57
6986.00,0.56
6985.00,0.56
6984.00,0.56
6983.00,0.55
6982.00,0.55
6981.00,0.55
6980.00,0.54
6979.00,0.54
6978.00,0.54
6977.00,0.53
6976.00,0.53
6975.00,0.53
6974.00,0.53
6973.00,0.53
6972.00,0.53
6971.00,0.52
6970.00,0.52
6969.00,0.52
6968.00,0.52
6967.00,0.52
6966.00,0.52
6965.00,0.52
6964.00,0.52
6963.00,0.52
6962.00,0.52
6961.00,0.52
6960.00,0.52
6959.00,0.52
6958.00,0.52
6957.00,0.52
6956.00,0.52
6955.00,0.52
6954.00,0.52
6953.00,0.52
6952.00,0.53
6951.00,0.53
6950.00,0.53
6949.00,0.53
6948.00,0.54
6947.00,0.54
6946.00,0.54
6945.00,0.54
6944.00,0.55
6943.00,0.55
6942.00,0.55
6941.00,0.56
6940.00,0.56
6939.00,0.56
6938.00,0.56
6937.00,0.57
6936.00,0.57
6935.00,0.57
6934.00,0.57
6933.00,0.58
6932.00,0.58
6931.00,0.58
6930.00,0.58
6929.00,0.58
6928.00,0.58
6927.00,0.58
6926.00,0.58
6925.00,0.58
6924.00,0.58
6923.00,0.58
6922.00,0.58
6921.00,0.58
6920.00,0.58
6919.00,0.57
6918.00,0.57
6917.00,0.57
6916.00,0.57
6915.00,0.57
6914.00,0.56
6913.00,0.56
6912.00,0.56
6911.00,0.56
6910.00,0.55
6909.00,0.55
6908.00,0.55
6907.00,0.55
6906.00,0.55
6905.00,0.54
6904.00,0.54
6903.00,0.54
6902.00,0.54
6901.00,0.54
6900.00,0.54
6899.00,0.54
6898.00,0.54
6897.00,0.54
6896.00,0.53
6895.00,0.53
6894.00,0.53
6893.00,0.53
6892.00,0.53
6891.00,0.53
6890.00,0.53
6889.00,0.53
6888.00,0.53
6887.00,0.53
6886.00,0.53
6885.00,0.53
6884.00,0.53
6883.00,0.53
6882.00,0.53
6881.00,0.53
6880.00,0.53
6879.00,0.54
6878.00,0.54
6877.00,0.54
6876.00,0.54
6875.00,0.54
6874.00,0.54
6873.00,0.54
6872.00,0.54
6871.00,0.55
6870.00,0.55
6869.00,0.55
6868.00,0.55
6867.00,0.55
6866.00,0.55
6865.00,0.56
6864.00,0.56
6863.00,0.56
6862.00,0.56
6861.00,0.56
6860.00,0.56
6859.00,0.56
6858.00,0.57
6857.00,0.57
6856.00,0.57
6855.00,0.57
6854.00,0.57
6853.00,0.57
6852.00,0.57
6851.00,0.56
6850.00,0.56
6849.00,0.56
6848.00,0.56
6847.00,0.56
6846.00,0.56
6845.00,0.56
6844.00,0.56
6843.00,0.56
6842.00,0.56
6841.00,0.55
6840.00,0.55
6839.00,0.55
6838.00,0.55
6837.00,0.55
6836.00,0.55
6835.00,0.55
6834.00,0.55
6833.00,0.55
6832.00,0.54
6831.00,0.54
6830.00,0.54
6829.00,0.54
6828.00,0.54
6827.00,0.54
6826.00,0.54
6825.00,0.54
6824.00,0.54
6823.00,0.54
6822.00,0.55
6821.00,0.55
6820.00,0.55
6819.00,0.55
6818.00,0.55
6817.00,0.55
6816.00,0.55
6815.00,0.55
6814.00,0.55
6813.00,0.55
6812.00,0.55
6811.00,0.56
6810.00,0.56
6809.00,0.56
6808.00,0.56
6807.00,0.56
6806.00,0.56
6805.00,0.56
6804.00,0.56
6803.00,0.56
6802.00,0.56
6801.00,0.56
6800.00,0.56
6799.00,0.56
6798.00,0.56
6797.00,0.56
6796.00,0.56
6795.00,0.55
6794.00,0.55
6793.00,0.55
6792.00,0.55
6791.00,0.55
6790.00,0.55
6789.00,0.55
6788.00,0.55
6787.00,0.55
6786.00,0.55
6785.00,0.55
6784.00,0.55
6783.00,0.55
6782.00,0.55
6781.00,0.55
6780.00,0.55
6779.00,0.55
6778.00,0.55
6777.00,0.56
6776.00,0.56
6775.00,0.56
6774.00,0.56
6773.00,0.56
6772.00,0.57
6771.00,0.57
6770.00,0.57
6769.00,0.57
6768.00,0.57
6767.00,0.58
6766.00,0.58
6765.00,0.58
6764.00,0.58
6763.00,0.58
6762.00,0.59
6761.00,0.59
6760.00,0.59
6759.00,0.59
6758.00,0.59
6757.00,0.59
6756.00,0.59
6755.00,0.59
6754.00,0.60
6753.00,0.60
6752.00,0.60
6751.00,0.60
6750.00,0.60
6749.00,0.60
6748.00,0.60
6747.00,0.60
6746.00,0.60
6745.00,0.60
6744.00,0.60
6743.00,0.60
6742.00,0.60
6741.00,0.60
6740.00,0.60
6739.00,0.60
6738.00,0.60
6737.00,0.60
6736.00,0.60
6735.00,0.60
6734.00,0.60
6733.00,0.60
6732.00,0.60
6731.00,0.60
6730.00,0.61
6729.00,0.61
6728.00,0.61
6727.00,0.61
6726.00,0.61
6725.00,0.61
6724.00,0.61
6723.00,0.61
6722.00,0.61
6721.00,0.62
6720.00,0.62
6719.00,0.62
6718.00,0.62
6717.00,0.62
6716.00,0.63
6715.00,0.63
6714.00,0.63
6713.00,0.63
6712.00,0.63
6711.00,0.63
6710.00,0.63
6709.00,0.63
6708.00,0.63
6707.00,0.63
6706.00,0.64
6705.00,0.64
6704.00,0.64
6703.00,0.64
6702.00,0.64
6701.00,0.64
6700.00,0.64
6699.00,0.64
6698.00,0.64
6697.00,0.64
6696.00,0.64
6695.00,0.64
6694.00,0.64
6693.00,0.64
6692.00,0.64
6691.00,0.63
6690.00,0.63
6689.00,0.63
6688.00,0.63
6687.00,0.63
6686.00,0.63
6685.00,0.63
6684.00,0.63
6683.00,0.63
6682.00,0.63
6681.00,0.63
6680.00,0.63
6679.00,0.63
6678.00,0.63
6677.00,0.63
6676.00,0.63
6675.00,0.64
6674.00,0.64
6673.00,0.64
6672.00,0.64
6671.00,0.64
6670.00,0.64
6669.00,0.64
6668.00,0.65
6667.00,0.65
6666.00,0.65
6665.00,0.65
6664.00,0.65
6663.00,0.65
6662.00,0.66
6661.00,0.66
6660.00,0.66
6659.00,0.66
6658.00,0.66
6657.00,0.67
6656.00,0.67
6655.00,0.67
6654.00,0.67
6653.00,0.67
6652.00,0.67
6651.00,0.67
6650.00,0.67
6649.00,0.67
6648.00,0.67
6647.00,0.67
6646.00,0.67
6645.00,0.67
6644.00,0.67
6643.00,0.67
6642.00,0.67
6641.00,0.67
6640.00,0.67
6639.00,0.67
6638.00,0.67
6637.00,0.68
6636.00,0.68
6635.00,0.68
6634.00,0.68
6633.00,0.68
6632.00,0.68
6631.00,0.68
6630.00,0.68
6629.00,0.68
6628.00,0.68
6627.00,0.68
6626.00,0.68
6625.00,0.68
6624.00,0.68
6623.00,0.68
6622.00,0.68
6621.00,0.68
6620.00,0.68
6619.00,0.68
6618.00,0.68
6617.00,0.69
6616.00,0.69
6615.00,0.69
6614.00,0.69
6613.00,0.69
6612.00,0.69
6611.00,0.69
6610.00,0.69
6609.00,0.69
6608.00,0.69
6607.00,0.69
6606.00,0.69
6605.00,0.70
6604.00,0.70
6603.00,0.70
6602.00,0.70
6601.00,0.70
6600.00,0.70
6599.00,0.70
6598.00,0.70
6597.00,0.70
6596.00,0.70
6595.00,0.70
6594.00,0.70
6593.00,0.70
6592.00,0.70
6591.00,0.71
6590.00,0.71
6589.00,0.71
6588.00,0.71
6587.00,0.71
6586.00,0.71
6585.00,0.71
6584.00,0.71
6583.00,0.71
6582.00,0.71
6581.00,0.71
6580.00,0.71
6579.00,0.71
6578.00,0.72
6577.00,0.72
6576.00,0.72
6575.00,0.72
6574.00,0.72
6573.00,0.72
6572.00,0.73
6571.00,0.73
6570.00,0.73
6569.00,0.73
6568.00,0.73
6567.00,0.73
6566.00,0.73
6565.00,0.73
6564.00,0.73
6563.00,0.73
6562.00,0.74
6561.00,0.74
6560.00,0.74
6559.00,0.74
6558.00,0.74
6557.00,0.74
6556.00,0.74
6555.00,0.75
6554.00,0.75
6553.00,0.75
6552.00,0.75
6551.00,0.75
6550.00,0.75
6549.00,0.75
6548.00,0.75
6547.00,0.76
6546.00,0.76
6545.00,0.76
6544.00,0.76
6543.00,0.76
6542.00,0.77
6541.00,0.77
6540.00,0.77
6539.00,0.78
6538.00,0.78
6537.00,0.78
6536.00,0.78
6535.00,0.79
6534.00,0.79
6533.00,0.79
6532.00,0.79
6531.00,0.80
6530.00,0.80
6529.00,0.80
6528.00,0.80
6527.00,0.80
6526.00,0.80
6525.00,0.81
6524.00,0.81
6523.00,0.81
6522.00,0.81
6521.00,0.81
6520.00,0.81
6519.00,0.82
6518.00,0.82
6517.00,0.82
6516.00,0.82
6515.00,0.82
6514.00,0.82
6513.00,0.82
6512.00,0.82
6511.00,0.82
6510.00,0.82
6509.00,0.82
6508.00,0.82
6507.00,0.82
6506.00,0.82
6505.00,0.82
6504.00,0.82
6503.00,0.83
6502.00,0.83
6501.00,0.83
6500.00,0.83
6499.00,0.83
6498.00,0.83
6497.00,0.83
6496.00,0.83
6495.00,0.83
6494.00,0.83
6493.00,0.83
6492.00,0.83
6491.00,0.83
6490.00,0.83
6489.00,0.83
6488.00,0.83
6487.00,0.83
6486.00,0.83
6485.00,0.83
6484.00,0.82
6483.00,0.82
6482.00,0.82
6481.00,0.82
6480.00,0.82
6479.00,0.82
6478.00,0.82
6477.00,0.82
6476.00,0.82
6475.00,0.82
6474.00,0.82
6473.00,0.82
6472.00,0.82
6471.00,0.82
6470.00,0.82
6469.00,0.82
6468.00,0.82
6467.00,0.83
6466.00,0.83
6465.00,0.83
6464.00,0.83
6463.00,0.83
6462.00,0.83
6461.00,0.83
6460.00,0.83
6459.00,0.83
6458.00,0.84
6457.00,0.84
6456.00,0.84
6455.00,0.84
6454.00,0.84
6453.00,0.84
6452.00,0.85
6451.00,0.85
6450.00,0.85
6449.00,0.85
6448.00,0.85
6447.00,0.85
6446.00,0.85
6445.00,0.85
6444.00,0.85
6443.00,0.85
6442.00,0.85
6441.00,0.85
6440.00,0.85
6439.00,0.85
6438.00,0.85
6437.00,0.85
6436.00,0.85
6435.00,0.85
6434.00,0.85
6433.00,0.85
6432.00,0.85
6431.00,0.85
6430.00,0.85
6429.00,0.85
6428.00,0.85
6427.00,0.85
6426.00,0.85
6425.00,0.85
6424.00,0.85
6423.00,0.85
6422.00,0.85
6421.00,0.85
6420.00,0.85
6419.00,0.85
6418.00,0.85
6417.00,0.85
6416.00,0.85
6415.00,0.85
6414.00,0.85
6413.00,0.85
6412.00,0.85
6411.00,0.85
6410.00,0.85
6409.00,0.85
6408.00,0.85
6407.00,0.85
6406.00,0.85
6405.00,0.85
6404.00,0.85
6403.00,0.86
6402.00,0.86
6401.00,0.86
6400.00,0.86
6399.00,0.86
6398.00,0.87
6397.00,0.87
6396.00,0.87
6395.00,0.87
6394.00,0.87
6393.00,0.88
6392.00,0.88
6391.00,0.88
6390.00,0.88
6389.00,0.88
6388.00,0.88
6387.00,0.88
6386.00,0.88
6385.00,0.89
6384.00,0.89
6383.00,0.89
6382.00,0.89
6381.00,0.89
6380.00,0.89
6379.00,0.89
6378.00,0.89
6377.00,0.89
6376.00,0.89
6375.00,0.89
6374.00,0.89
6373.00,0.89
6372.00,0.89
6371.00,0.89
6370.00,0.89
6369.00,0.89
6368.00,0.89
6367.00,0.89
6366.00,0.89
6365.00,0.89
6364.00,0.89
6363.00,0.89
6362.00,0.89
6361.00,0.89
6360.00,0.89
6359.00,0.89
6358.00,0.89
6357.00,0.89
6356.00,0.89
6355.00,0.89
6354.00,0.89
6353.00,0.89
6352.00,0.89
6351.00,0.89
6350.00,0.89
6349.00,0.89
6348.00,0.89
6347.00,0.89
6346.00,0.90
6345.00,0.90
6344.00,0.90
6343.00,0.90
6342.00,0.90
6341.00,0.90
6340.00,0.90
6339.00,0.90
6338.00,0.90
6337.00,0.90
6336.00,0.90
6335.00,0.90
6334.00,0.90
6333.00,0.90
6332.00,0.90
6331.00,0.90
6330.00,0.90
6329.00,0.90
6328.00,0.90
6327.00,0.90
6326.00,0.90
6325.00,0.90
6324.00,0.90
6323.00,0.90
6322.00,0.90
6321.00,0.90
6320.00,0.90
6319.00,0.90
6318.00,0.90
6317.00,0.90
6316.00,0.90
6315.00,0.90
6314.00,0.89
6313.00,0.89
6312.00,0.89
6311.00,0.89
6310.00,0.89
6309.00,0.89
6308.00,0.89
6307.00,0.89
6306.00,0.89
6305.00,0.90
6304.00,0.90
6303.00,0.90
6302.00,0.90
6301.00,0.90
6300.00,0.90
6299.00,0.90
6298.00,0.90
6297.00,0.91
6296.00,0.91
6295.00,0.91
6294.00,0.91
6293.00,0.92
6292.00,0.92
6291.00,0.92
6290.00,0.92
6289.00,0.93
6288.00,0.93
6287.00,0.93
6286.00,0.94
6285.00,0.94
6284.00,0.94
6283.00,0.94
6282.00,0.94
6281.00,0.95
6280.00,0.95
6279.00,0.95
6278.00,0.95
6277.00,0.95
6276.00,0.95
6275.00,0.95
6274.00,0.95
6273.00,0.95
6272.00,0.96
6271.00,0.96
6270.00,0.96
6269.00,0.96
6268.00,0.96
6267.00,0.96
6266.00,0.96
6265.00,0.96
6264.00,0.96
6263.00,0.96
6262.00,0.96
6261.00,0.96
6260.00,0.96
6259.00,0.96
6258.00,0.96
6257.00,0.96
6256.00,0.96
6255.00,0.96
6254.00,0.96
6253.00,0.96
6252.00,0.96
6251.00,0.97
6250.00,0.97
6249.00,0.97
6248.00,0.97
6247.00,0.97
6246.00,0.97
6245.00,0.97
6244.00,0.97
6243.00,0.98
6242.00,0.98
6241.00,0.98
6240.00,0.98
6239.00,0.98
6238.00,0.98
6237.00,0.98
6236.00,0.99
6235.00,0.99
6234.00,0.99
6233.00,0.99
6232.00,0.99
6231.00,0.99
6230.00,0.99
6229.00,0.99
6228.00,0.99
6227.00,0.99
6226.00,0.99
6225.00,0.99
6224.00,0.99
6223.00,0.99
6222.00,0.99
6221.00,0.99
6220.00,1.00
6219.00,1.00
6218.00,1.00
6217.00,1.00
6216.00,1.00
6215.00,1.00
6214.00,1.00
6213.00,1.00
6212.00,1.00
6211.00,1.00
6210.00,1.00
6209.00,1.00
6208.00,1.00
6207.00,1.00
6206.00,1.00
6205.00,1.00
6204.00,1.00
6203.00,1.00
6202.00,1.00
6201.00,1.00
6200.00,1.00
6199.00,1.00
6198.00,1.00
6197.00,1.00
6196.00,1.00
6195.00,1.00
6194.00,1.00
6193.00,1.01
6192.00,1.01
6191.00,1.01
6190.00,1.01
6189.00,1.01
6188.00,1.01
6187.00,1.01
6186.00,1.01
6185.00,1.02
6184.00,1.02
6183.00,1.02
6182.00,1.02
6181.00,1.02
6180.00,1.02
6179.00,1.02
6178.00,1.03
6177.00,1.03
6176.00,1.03
6175.00,1.03
6174.00,1.03
6173.00,1.03
6172.00,1.03
6171.00,1.04
6170.00,1.04
6169.00,1.04
6168.00,1.04
6167.00,1.04
6166.00,1.04
6165.00,1.04
6164.00,1.04
6163.00,1.04
6162.00,1.04
6161.00,1.04
6160.00,1.04
6159.00,1.04
6158.00,1.04
6157.00,1.04
6156.00,1.05
6155.00,1.05
6154.00,1.05
6153.00,1.05
6152.00,1.05
6151.00,1.05
6150.00,1.05
6149.00,1.05
6148.00,1.05
6147.00,1.05
6146.00,1.05
6145.00,1.06
6144.00,1.06
6143.00,1.06
6142.00,1.06
6141.00,1.06
6140.00,1.06
6139.00,1.06
6138.00,1.07
6137.00,1.07
6136.00,1.07
6135.00,1.07
6134.00,1.07
6133.00,1.07
6132.00,1.07
6131.00,1.08
6130.00,1.08
6129.00,1.08
6128.00,1.08
6127.00,1.08
6126.00,1.08
6125.00,1.08
6124.00,1.08
6123.00,1.08
6122.00,1.08
6121.00,1.08
6120.00,1.08
6119.00,1.08
6118.00,1.08
6117.00,1.08
6116.00,1.08
6115.00,1.08
6114.00,1.08
6113.00,1.08
6112.00,1.08
6111.00,1.08
6110.00,1.09
6109.00,1.09
6108.00,1.09
6107.00,1.09
6106.00,1.09
6105.00,1.09
6104.00,1.09
6103.00,1.09
6102.00,1.09
6101.00,1.09
6100.00,1.09
6099.00,1.09
6098.00,1.09
6097.00,1.09
6096.00,1.10
6095.00,1.10
6094.00,1.10
6093.00,1.10
6092.00,1.10
6091.00,1.10
6090.00,1.10
6089.00,1.10
6088.00,1.10
6087.00,1.10
6086.00,1.10
6085.00,1.10
6084.00,1.10
6083.00,1.10
6082.00,1.10
6081.00,1.11
6080.00,1.11
6079.00,1.11
6078.00,1.11
6077.00,1.11
6076.00,1.11
6075.00,1.11
6074.00,1.11
6073.00,1.11
6072.00,1.11
6071.00,1.11
6070.00,1.12
6069.00,1.12
6068.00,1.12
6067.00,1.12
6066.00,1.12
6065.00,1.12
6064.00,1.12
6063.00,1.12
6062.00,1.13
6061.00,1.13
6060.00,1.13
6059.00,1.13
6058.00,1.13
6057.00,1.13
6056.00,1.13
6055.00,1.14
6054.00,1.14
6053.00,1.14
6052.00,1.14
6051.00,1.14
6050.00,1.14
6049.00,1.14
6048.00,1.14
6047.00,1.14
6046.00,1.15
6045.00,1.15
6044.00,1.15
6043.00,1.15
6042.00,1.15
6041.00,1.15
6040.00,1.15
6039.00,1.15
6038.00,1.15
6037.00,1.15
6036.00,1.15
6035.00,1.15
6034.00,1.16
6033.00,1.16
6032.00,1.16
6031.00,1.16
6030.00,1.16
6029.00,1.16
6028.00,1.16
6027.00,1.16
6026.00,1.16
6025.00,1.16
6024.00,1.16
6023.00,1.16
6022.00,1.16
6021.00,1.16
6020.00,1.16
6019.00,1.16
6018.00,1.16
6017.00,1.16
6016.00,1.16
6015.00,1.16
6014.00,1.16
6013.00,1.16
6012.00,1.16
6011.00,1.16
6010.00,1.16
6009.00,1.16
6008.00,1.15
6007.00,1.15
6006.00,1.15
6005.00,1.15
6004.00,1.15
6003.00,1.15
6002.00,1.15
6001.00,1.15
6000.00,1.15
5999.00,1.15
5998.00,1.14
5997.00,1.14
5996.00,1.14
5995.00,1.14
5994.00,1.14
5993.00,1.14
5992.00,1.14
5991.00,1.14
5990.00,1.14
5989.00,1.14
5988.00,1.14
5987.00,1.14
5986.00,1.14
5985.00,1.14
5984.00,1.14
5983.00,1.14
5982.00,1.14
5981.00,1.14
5980.00,1.13
5979.00,1.13
5978.00,1.13
5977.00,1.13
5976.00,1.12
5975.00,1.12
5974.00,1.12
5973.00,1.11
5972.00,1.11
5971.00,1.11
5970.00,1.10
5969.00,1.10
5968.00,1.09
5967.00,1.09
5966.00,1.08
5965.00,1.08
5964.00,1.07
5963.00,1.06
5962.00,1.06
5961.00,1.05
5960.00,1.05
5959.00,1.04
5958.00,1.04
5957.00,1.03
5956.00,1.03
5955.00,1.03
5954.00,1.02
5953.00,1.02
5952.00,1.02
5951.00,1.01
5950.00,1.01
5949.00,1.01
5948.00,1.01
5947.00,1.01
5946.00,1.01
5945.00,1.01
5944.00,1.01
5943.00,1.01
5942.00,1.01
5941.00,1.01
5940.00,1.01
5939.00,1.01
5938.00,1.01
5937.00,1.01
5936.00,1.01
5935.00,1.01
5934.00,1.01
5933.00,1.01
5932.00,1.01
5931.00,1.01
5930.00,1.01
5929.00,1.01
5928.00,1.01
5927.00,1.01
5926.00,1.01
5925.00,1.01
5924.00,1.01
5923.00,1.00
5922.00,1.00
5921.00,1.00
5920.00,1.00
5919.00,1.00
5918.00,0.99
5917.00,0.99
5916.00,0.99
5915.00,0.98
5914.00,0.98
5913.00,0.98
5912.00,0.97
5911.00,0.97
5910.00,0.97
5909.00,0.97
5908.00,0.96
5907.00,0.96
5906.00,0.96
5905.00,0.96
5904.00,0.95
5903.00,0.95
5902.00,0.95
5901.00,0.95
5900.00,0.95
5899.00,0.95
5898.00,0.95
5897.00,0.95
5896.00,0.95
5895.00,0.95
5894.00,0.95
5893.00,0.95
5892.00,0.95
5891.00,0.95
5890.00,0.95
5889.00,0.96
5888.00,0.96
5887.00,0.96
5886.00,0.96
5885.00,0.96
5884.00,0.96
5883.00,0.97
5882.00,0.97
5881.00,0.97
5880.00,0.97
5879.00,0.98
5878.00,0.98
5877.00,0.98
5876.00,0.98
5875.00,0.99
5874.00,0.99
5873.00,0.99
5872.00,0.99
5871.00,1.00
5870.00,1.00
5869.00,1.00
5868.00,1.01
5867.00,1.01
5866.00,1.01
5865.00,1.01
5864.00,1.02
5863.00,1.02
5862.00,1.02
5861.00,1.02
5860.00,1.03
5859.00,1.03
5858.00,1.03
5857.00,1.03
5856.00,1.03
5855.00,1.03
5854.00,1.03
5853.00,1.04
5852.00,1.04
5851.00,1.04
5850.00,1.04
5849.00,1.04
5848.00,1.04
5847.00,1.04
5846.00,1.04
5845.00,1.04
5844.00,1.04
5843.00,1.04
5842.00,1.04
5841.00,1.04
5840.00,1.04
5839.00,1.04
5838.00,1.03
5837.00,1.03
5836.00,1.03
5835.00,1.03
5834.00,1.03
5833.00,1.03
5832.00,1.03
5831.00,1.03
5830.00,1.03
5829.00,1.03
5828.00,1.03
5827.00,1.03
5826.00,1.04
5825.00,1.04
5824.00,1.04
5823.00,1.04
5822.00,1.04
5821.00,1.04
5820.00,1.04
5819.00,1.04
5818.00,1.04
5817.00,1.04
5816.00,1.04
5815.00,1.04
5814.00,1.04
5813.00,1.04
5812.00,1.04
5811.00,1.04
5810.00,1.04
5809.00,1.04
5808.00,1.04
5807.00,1.04
5806.00,1.04
5805.00,1.04
5804.00,1.04
5803.00,1.04
5802.00,1.04
5801.00,1.04
5800.00,1.04
5799.00,1.04
5798.00,1.04
5797.00,1.04
5796.00,1.03
5795.00,1.03
5794.00,1.03
5793.00,1.03
5792.00,1.03
5791.00,1.03
5790.00,1.03
5789.00,1.03
5788.00,1.03
5787.00,1.03
5786.00,1.03
5785.00,1.03
5784.00,1.03
5783.00,1.02
5782.00,1.02
5781.00,1.02
5780.00,1.02
5779.00,1.02
5778.00,1.02
5777.00,1.02
5776.00,1.02
5775.00,1.02
5774.00,1.02
5773.00,1.02
5772.00,1.02
5771.00,1.02
5770.00,1.02
5769.00,1.02
5768.00,1.02
5767.00,1.02
5766.00,1.02
5765.00,1.03
5764.00,1.03
5763.00,1.03
5762.00,1.03
5761.00,1.03
5760.00,1.03
5759.00,1.03
5758.00,1.03
5757.00,1.03
5756.00,1.03
5755.00,1.04
5754.00,1.04
5753.00,1.04
5752.00,1.04
5751.00,1.04
5750.00,1.04
5749.00,1.04
5748.00,1.05
5747.00,1.05
5746.00,1.05
5745.00,1.05
5744.00,1.05
5743.00,1.05
5742.00,1.06
5741.00,1.06
5740.00,1.06
5739.00,1.06
5738.00,1.06
5737.00,1.06
5736.00,1.07
5735.00,1.07
5734.00,1.07
5733.00,1.07
5732.00,1.07
5731.00,1.07
5730.00,1.07
5729.00,1.07
5728.00,1.07
5727.00,1.07
5726.00,1.07
5725.00,1.08
5724.00,1.08
5723.00,1.08
5722.00,1.08
5721.00,1.08
5720.00,1.08
5719.00,1.08
5718.00,1.08
5717.00,1.07
5716.00,1.07
5715.00,1.07
5714.00,1.07
5713.00,1.07
5712.00,1.07
5711.00,1.07
5710.00,1.07
5709.00,1.07
5708.00,1.07
5707.00,1.06
5706.00,1.06
5705.00,1.06
5704.00,1.06
5703.00,1.06
5702.00,1.06
5701.00,1.05
5700.00,1.05
5699.00,1.05
5698.00,1.05
5697.00,1.05
5696.00,1.05
5695.00,1.04
5694.00,1.04
5693.00,1.04
5692.00,1.04
5691.00,1.04
5690.00,1.04
5689.00,1.03
5688.00,1.03
5687.00,1.03
5686.00,1.03
5685.00,1.03
5684.00,1.03
5683.00,1.03
5682.00,1.03
5681.00,1.03
5680.00,1.03
5679.00,1.03
5678.00,1.03
5677.00,1.03
5676.00,1.03
5675.00,1.03
5674.00,1.03
5673.00,1.03
5672.00,1.03
5671.00,1.03
5670.00,1.04
5669.00,1.04
5668.00,1.04
5667.00,1.04
5666.00,1.04
5665.00,1.04
5664.00,1.05
5663.00,1.05
5662.00,1.05
5661.00,1.05
5660.00,1.05
5659.00,1.05
5658.00,1.05
5657.00,1.06
5656.00,1.06
5655.00,1.06
5654.00,1.06
5653.00,1.06
5652.00,1.06
5651.00,1.06
5650.00,1.06
5649.00,1.06
5648.00,1.06
5647.00,1.07
5646.00,1.07
5645.00,1.07
5644.00,1.07
5643.00,1.07
5642.00,1.07
5641.00,1.07
5640.00,1.07
5639.00,1.07
5638.00,1.07
5637.00,1.07
5636.00,1.07
5635.00,1.07
5634.00,1.07
5633.00,1.07
5632.00,1.07
5631.00,1.07
5630.00,1.08
5629.00,1.08
5628.00,1.08
5627.00,1.08
5626.00,1.08
5625.00,1.08
5624.00,1.08
5623.00,1.08
5622.00,1.08
5621.00,1.09
5620.00,1.09
5619.00,1.09
5618.00,1.09
5617.00,1.09
5616.00,1.09
5615.00,1.09
5614.00,1.09
5613.00,1.09
5612.00,1.09
5611.00,1.09
5610.00,1.09
5609.00,1.09
5608.00,1.09
5607.00,1.09
5606.00,1.09
5605.00,1.09
5604.00,1.09
5603.00,1.09
5602.00,1.09
5601.00,1.10
5600.00,1.10
5599.00,1.10
5598.00,1.10
5597.00,1.10
5596.00,1.10
5595.00,1.10
5594.00,1.10
5593.00,1.10
5592.00,1.10
5591.00,1.10
5590.00,1.10
5589.00,1.11
5588.00,1.11
5587.00,1.11
5586.00,1.11
5585.00,1.11
5584.00,1.11
5583.00,1.12
5582.00,1.12
5581.00,1.12
5580.00,1.12
5579.00,1.12
5578.00,1.12
5577.00,1.12
5576.00,1.12
5575.00,1.12
5574.00,1.12
5573.00,1.12
5572.00,1.12
5571.00,1.12
5570.00,1.12
5569.00,1.13
5568.00,1.13
5567.00,1.13
5566.00,1.13
5565.00,1.13
5564.00,1.13
5563.00,1.13
5562.00,1.13
5561.00,1.13
5560.00,1.13
5559.00,1.13
5558.00,1.13
5557.00,1.13
5556.00,1.13
5555.00,1.13
5554.00,1.13
5553.00,1.13
5552.00,1.13
5551.00,1.13
5550.00,1.14
5549.00,1.14
5548.00,1.14
5547.00,1.14
5546.00,1.14
5545.00,1.14
5544.00,1.14
5543.00,1.14
5542.00,1.14
5541.00,1.14
5540.00,1.15
5539.00,1.15
5538.00,1.15
5537.00,1.15
5536.00,1.15
5535.00,1.15
5534.00,1.15
5533.00,1.15
5532.00,1.15
5531.00,1.16
5530.00,1.16
5529.00,1.16
5528.00,1.16
5527.00,1.16
5526.00,1.16
5525.00,1.16
5524.00,1.16
5523.00,1.16
5522.00,1.16
5521.00,1.16
5520.00,1.16
5519.00,1.16
5518.00,1.16
5517.00,1.16
5516.00,1.16
5515.00,1.16
5514.00,1.16
5513.00,1.16
5512.00,1.16
5511.00,1.16
5510.00,1.16
5509.00,1.16
5508.00,1.16
5507.00,1.15
5506.00,1.15
5505.00,1.15
5504.00,1.15
5503.00,1.15
5502.00,1.15
5501.00,1.15
5500.00,1.15
5499.00,1.15
5498.00,1.14
5497.00,1.14
5496.00,1.14
5495.00,1.14
5494.00,1.14
5493.00,1.14
5492.00,1.14
5491.00,1.14
5490.00,1.14
5489.00,1.14
5488.00,1.14
5487.00,1.14
5486.00,1.15
5485.00,1.15
5484.00,1.15
5483.00,1.15
5482.00,1.15
5481.00,1.15
5480.00,1.15
5479.00,1.15
5478.00,1.15
5477.00,1.15
5476.00,1.15
5475.00,1.15
5474.00,1.15
5473.00,1.15
5472.00,1.15
5471.00,1.15
5470.00,1.15
5469.00,1.15
5468.00,1.15
5467.00,1.15
5466.00,1.16
5465.00,1.16
5464.00,1.16
5463.00,1.16
5462.00,1.16
5461.00,1.16
5460.00,1.16
5459.00,1.16
5458.00,1.16
5457.00,1.16
5456.00,1.16
5455.00,1.16
5454.00,1.16
5453.00,1.16
5452.00,1.16
5451.00,1.16
5450.00,1.16
5449.00,1.16
5448.00,1.16
5447.00,1.16
5446.00,1.16
5445.00,1.16
5444.00,1.16
5443.00,1.16
5442.00,1.16
5441.00,1.16
5440.00,1.16
5439.00,1.16
5438.00,1.17
5437.00,1.17
5436.00,1.17
5435.00,1.17
5434.00,1.17
5433.00,1.17
5432.00,1.17
5431.00,1.17
5430.00,1.17
5429.00,1.17
5428.00,1.17
5427.00,1.17
5426.00,1.17
5425.00,1.18
5424.00,1.18
5423.00,1.18
5422.00,1.18
5421.00,1.18
5420.00,1.18
5419.00,1.18
5418.00,1.18
5417.00,1.18
5416.00,1.18
5415.00,1.18
5414.00,1.18
5413.00,1.18
5412.00,1.18
5411.00,1.18
5410.00,1.18
5409.00,1.17
5408.00,1.17
5407.00,1.17
5406.00,1.17
5405.00,1.17
5404.00,1.17
5403.00,1.17
5402.00,1.17
5401.00,1.17
5400.00,1.17
5399.00,1.17
5398.00,1.17
5397.00,1.17
5396.00,1.17
5395.00,1.17
5394.00,1.17
5393.00,1.17
5392.00,1.17
5391.00,1.17
5390.00,1.17
5389.00,1.17
5388.00,1.16
5387.00,1.16
5386.00,1.16
5385.00,1.16
5384.00,1.16
5383.00,1.16
5382.00,1.15
5381.00,1.15
5380.00,1.15
5379.00,1.15
5378.00,1.14
5377.00,1.14
5376.00,1.14
5375.00,1.13
5374.00,1.13
5373.00,1.12
5372.00,1.12
5371.00,1.12
5370.00,1.11
5369.00,1.11
5368.00,1.10
5367.00,1.09
5366.00,1.09
5365.00,1.08
5364.00,1.08
5363.00,1.07
5362.00,1.06
5361.00,1.06
5360.00,1.05
5359.00,1.04
5358.00,1.04
5357.00,1.03
5356.00,1.02
5355.00,1.02
5354.00,1.01
5353.00,1.00
5352.00,1.00
5351.00,0.99
5350.00,0.98
5349.00,0.97
5348.00,0.97
5347.00,0.96
5346.00,0.95
5345.00,0.95
5344.00,0.94
5343.00,0.93
5342.00,0.93
5341.00,0.92
5340.00,0.91
5339.00,0.91
5338.00,0.90
5337.00,0.89
5336.00,0.89
5335.00,0.88
5334.00,0.87
5333.00,0.87
5332.00,0.86
5331.00,0.85
5330.00,0.85
5329.00,0.84
5328.00,0.83
5327.00,0.83
5326.00,0.82
5325.00,0.81
5324.00,0.81
5323.00,0.80
5322.00,0.79
5321.00,0.78
5320.00,0.78
5319.00,0.77
5318.00,0.76
5317.00,0.75
5316.00,0.74
5315.00,0.74
5314.00,0.73
5313.00,0.72
5312.00,0.71
5311.00,0.71
5310.00,0.70
5309.00,0.69
5308.00,0.68
5307.00,0.68
5306.00,0.67
5305.00,0.66
5304.00,0.66
5303.00,0.65
5302.00,0.64
5301.00,0.64
5300.00,0.63
5299.00,0.63
5298.00,0.62
5297.00,0.62
5296.00,0.61
5295.00,0.61
5294.00,0.60
5293.00,0.60
5292.00,0.60
5291.00,0.59
5290.00,0.59
5289.00,0.59
5288.00,0.58
5287.00,0.58
5286.00,0.58
5285.00,0.57
5284.00,0.57
5283.00,0.57
5282.00,0.57
5281.00,0.56
5280.00,0.56
5279.00,0.56
5278.00,0.56
5277.00,0.56
5276.00,0.55
5275.00,0.55
5274.00,0.55
5273.00,0.55
5272.00,0.54
5271.00,0.54
5270.00,0.54
5269.00,0.54
5268.00,0.53
5267.00,0.53
5266.00,0.53
5265.00,0.53
5264.00,0.53
5263.00,0.53
5262.00,0.52
5261.00,0.52
5260.00,0.52
5259.00,0.52
5258.00,0.52
5257.00,0.52
5256.00,0.52
5255.00,0.52
5254.00,0.51
5253.00,0.51
5252.00,0.51
5251.00,0.51
5250.00,0.51
5249.00,0.51
5248.00,0.51
5247.00,0.51
5246.00,0.51
5245.00,0.51
5244.00,0.51
5243.00,0.51
5242.00,0.51
5241.00,0.51
5240.00,0.51
5239.00,0.51
5238.00,0.51
5237.00,0.51
5236.00,0.51
5235.00,0.51
5234.00,0.51
5233.00,0.51
5232.00,0.51
5231.00,0.51
5230.00,0.51
5229.00,0.51
5228.00,0.51
5227.00,0.51
5226.00,0.51
5225.00,0.51
5224.00,0.51
5223.00,0.51
5222.00,0.51
5221.00,0.51
5220.00,0.51
5219.00,0.51
5218.00,0.51
5217.00,0.51
5216.00,0.51
5215.00,0.51
5214.00,0.51
5213.00,0.51
5212.00,0.50
5211.00,0.50
5210.00,0.50
5209.00,0.50
5208.00,0.50
5207.00,0.50
5206.00,0.50
5205.00,0.50
5204.00,0.51
5203.00,0.51
5202.00,0.51
5201.00,0.51
5200.00,0.51
5199.00,0.51
5198.00,0.51
5197.00,0.51
5196.00,0.51
5195.00,0.51
5194.00,0.51
5193.00,0.51
5192.00,0.51
5191.00,0.51
5190.00,0.51
5189.00,0.51
5188.00,0.51
5187.00,0.52
5186.00,0.52
5185.00,0.52
5184.00,0.52
5183.00,0.52
5182.00,0.52
5181.00,0.52
5180.00,0.52
5179.00,0.52
5178.00,0.52
5177.00,0.52
5176.00,0.53
5175.00,0.53
5174.00,0.53
5173.00,0.53
5172.00,0.53
5171.00,0.53
5170.00,0.53
5169.00,0.53
5168.00,0.53
5167.00,0.53
5166.00,0.53
5165.00,0.53
5164.00,0.53
5163.00,0.53
5162.00,0.54
5161.00,0.54
5160.00,0.54
5159.00,0.54
5158.00,0.54
5157.00,0.54
5156.00,0.54
5155.00,0.54
5154.00,0.54
5153.00,0.55
5152.00,0.55
5151.00,0.55
5150.00,0.55
5149.00,0.55
5148.00,0.55
5147.00,0.55
5146.00,0.55
5145.00,0.55
5144.00,0.55
5143.00,0.55
5142.00,0.55
5141.00,0.56
5140.00,0.56
5139.00,0.56
5138.00,0.56
5137.00,0.56
5136.00,0.56
5135.00,0.56
5134.00,0.56
5133.00,0.56
5132.00,0.56
5131.00,0.56
5130.00,0.56
5129.00,0.56
5128.00,0.56
5127.00,0.56
5126.00,0.56
5125.00,0.56
5124.00,0.56
5123.00,0.56
5122.00,0.56
5121.00,0.56
5120.00,0.56
5119.00,0.55
5118.00,0.55
5117.00,0.55
5116.00,0.55
5115.00,0.55
5114.00,0.55
5113.00,0.55
5112.00,0.55
5111.00,0.55
5110.00,0.55
5109.00,0.55
5108.00,0.55
5107.00,0.55
5106.00,0.55
5105.00,0.55
5104.00,0.55
5103.00,0.55
5102.00,0.55
5101.00,0.55
5100.00,0.55
5099.00,0.55
5098.00,0.55
5097.00,0.55
5096.00,0.55
5095.00,0.55
5094.00,0.55
5093.00,0.55
5092.00,0.55
5091.00,0.55
5090.00,0.55
5089.00,0.55
5088.00,0.55
5087.00,0.55
5086.00,0.55
5085.00,0.55
5084.00,0.55
5083.00,0.55
5082.00,0.56
5081.00,0.56
5080.00,0.56
5079.00,0.56
5078.00,0.56
5077.00,0.56
5076.00,0.56
5075.00,0.56
5074.00,0.56
5073.00,0.56
5072.00,0.56
5071.00,0.56
5070.00,0.57
5069.00,0.57
5068.00,0.57
5067.00,0.57
5066.00,0.57
5065.00,0.57
5064.00,0.57
5063.00,0.57
5062.00,0.58
5061.00,0.58
5060.00,0.58
5059.00,0.58
5058.00,0.58
5057.00,0.58
5056.00,0.58
5055.00,0.58
5054.00,0.58
5053.00,0.58
5052.00,0.58
5051.00,0.58
5050.00,0.58
5049.00,0.58
5048.00,0.58
5047.00,0.58
5046.00,0.58
5045.00,0.58
5044.00,0.58
5043.00,0.58
5042.00,0.58
5041.00,0.58
5040.00,0.58
5039.00,0.58
5038.00,0.59
5037.00,0.59
5036.00,0.59
5035.00,0.59
5034.00,0.59
5033.00,0.59
5032.00,0.59
5031.00,0.59
5030.00,0.59
5029.00,0.59
5028.00,0.59
5027.00,0.60
5026.00,0.60
5025.00,0.60
5024.00,0.60
5023.00,0.60
5022.00,0.60
5021.00,0.60
5020.00,0.60
5019.00,0.61
5018.00,0.61
5017.00,0.61
5016.00,0.61
5015.00,0.61
5014.00,0.61
5013.00,0.61
5012.00,0.61
5011.00,0.61
5010.00,0.61
5009.00,0.62
5008.00,0.62
5007.00,0.62
5006.00,0.62
5005.00,0.62
5004.00,0.62
5003.00,0.62
5002.00,0.62
5001.00,0.62
5000.00,0.62
4999.00,0.63
4998.00,0.63
4997.00,0.63
4996.00,0.63
4995.00,0.63
4994.00,0.63
4993.00,0.63
4992.00,0.63
4991.00,0.63
4990.00,0.63
4989.00,0.63
4988.00,0.63
4987.00,0.64
4986.00,0.64
4985.00,0.64
4984.00,0.64
4983.00,0.64
4982.00,0.64
4981.00,0.64
4980.00,0.64
4979.00,0.64
4978.00,0.65
4977.00,0.65
4976.00,0.65
4975.00,0.65
4974.00,0.65
4973.00,0.65
4972.00,0.65
4971.00,0.65
4970.00,0.65
4969.00,0.66
4968.00,0.66
4967.00,0.66
4966.00,0.66
4965.00,0.66
4964.00,0.67
4963.00,0.67
4962.00,0.67
4961.00,0.67
4960.00,0.67
4959.00,0.67
4958.00,0.68
4957.00,0.68
4956.00,0.68
4955.00,0.68
4954.00,0.68
4953.00,0.68
4952.00,0.69
4951.00,0.69
4950.00,0.69
4949.00,0.69
4948.00,0.69
4947.00,0.69
4946.00,0.69
4945.00,0.69
4944.00,0.70
4943.00,0.70
4942.00,0.70
4941.00,0.70
4940.00,0.70
4939.00,0.70
4938.00,0.70
4937.00,0.70
4936.00,0.70
4935.00,0.70
4934.00,0.70
4933.00,0.70
4932.00,0.70
4931.00,0.70
4930.00,0.70
4929.00,0.70
4928.00,0.70
4927.00,0.70
4926.00,0.70
4925.00,0.70
4924.00,0.70
4923.00,0.70
4922.00,0.70
4921.00,0.70
4920.00,0.70
4919.00,0.70
4918.00,0.70
4917.00,0.70
4916.00,0.70
4915.00,0.70
4914.00,0.70
4913.00,0.70
4912.00,0.70
4911.00,0.70
4910.00,0.69
4909.00,0.69
4908.00,0.69
4907.00,0.69
4906.00,0.69
4905.00,0.69
4904.00,0.69
4903.00,0.69
4902.00,0.69
4901.00,0.69
4900.00,0.69
4899.00,0.69
4898.00,0.70
4897.00,0.70
4896.00,0.70
4895.00,0.70
4894.00,0.70
4893.00,0.70
4892.00,0.70
4891.00,0.70
4890.00,0.70
4889.00,0.70
4888.00,0.70
4887.00,0.70
4886.00,0.70
4885.00,0.71
4884.00,0.71
4883.00,0.71
4882.00,0.71
4881.00,0.71
4880.00,0.71
4879.00,0.71
4878.00,0.71
4877.00,0.71
4876.00,0.71
4875.00,0.71
4874.00,0.71
4873.00,0.72
4872.00,0.72
4871.00,0.72
4870.00,0.72
4869.00,0.72
4868.00,0.72
4867.00,0.72
4866.00,0.72
4865.00,0.73
4864.00,0.73
4863.00,0.73
4862.00,0.73
4861.00,0.73
4860.00,0.73
4859.00,0.74
4858.00,0.74
4857.00,0.74
4856.00,0.74
4855.00,0.75
4854.00,0.75
4853.00,0.75
4852.00,0.75
4851.00,0.75
4850.00,0.76
4849.00,0.76
4848.00,0.76
4847.00,0.76
4846.00,0.76
4845.00,0.77
4844.00,0.77
4843.00,0.77
4842.00,0.77
4841.00,0.77
4840.00,0.78
4839.00,0.78
4838.00,0.78
4837.00,0.78
4836.00,0.78
4835.00,0.78
4834.00,0.78
4833.00,0.78
4832.00,0.78
4831.00,0.78
4830.00,0.78
4829.00,0.78
4828.00,0.78
4827.00,0.78
4826.00,0.79
4825.00,0.79
4824.00,0.79
4823.00,0.79
4822.00,0.79
4821.00,0.79
4820.00,0.79
4819.00,0.79
4818.00,0.79
4817.00,0.79
4816.00,0.79
4815.00,0.79
4814.00,0.79
4813.00,0.79
4812.00,0.79
4811.00,0.79
4810.00,0.79
4809.00,0.79
4808.00,0.79
4807.00,0.79
4806.00,0.80
4805.00,0.80
4804.00,0.80
4803.00,0.80
4802.00,0.81
4801.00,0.81
4800.00,0.81
4799.00,0.81
4798.00,0.82
4797.00,0.82
4796.00,0.82
4795.00,0.83
4794.00,0.83
4793.00,0.83
4792.00,0.84
4791.00,0.84
4790.00,0.84
4789.00,0.85
4788.00,0.85
4787.00,0.85
4786.00,0.86
4785.00,0.86
4784.00,0.86
4783.00,0.87
4782.00,0.87
4781.00,0.87
4780.00,0.88
4779.00,0.88
4778.00,0.88
4777.00,0.88
4776.00,0.89
4775.00,0.89
4774.00,0.89
4773.00,0.89
4772.00,0.89
4771.00,0.89
4770.00,0.90
4769.00,0.90
4768.00,0.90
4767.00,0.90
4766.00,0.90
4765.00,0.90
4764.00,0.90
4763.00,0.90
4762.00,0.90
4761.00,0.90
4760.00,0.90
4759.00,0.90
4758.00,0.90
4757.00,0.90
4756.00,0.90
4755.00,0.90
4754.00,0.90
4753.00,0.90
4752.00,0.90
4751.00,0.90
4750.00,0.90
4749.00,0.90
4748.00,0.90
4747.00,0.90
4746.00,0.90
4745.00,0.90
4744.00,0.90
4743.00,0.90
4742.00,0.91
4741.00,0.91
4740.00,0.91
4739.00,0.91
4738.00,0.91
4737.00,0.91
4736.00,0.91
4735.00,0.92
4734.00,0.92
4733.00,0.92
4732.00,0.92
4731.00,0.92
4730.00,0.93
4729.00,0.93
4728.00,0.93
4727.00,0.93
4726.00,0.93
4725.00,0.93
4724.00,0.94
4723.00,0.94
4722.00,0.94
4721.00,0.94
4720.00,0.94
4719.00,0.94
4718.00,0.95
4717.00,0.95
4716.00,0.95
4715.00,0.95
4714.00,0.95
4713.00,0.96
4712.00,0.96
4711.00,0.96
4710.00,0.96
4709.00,0.96
4708.00,0.96
4707.00,0.97
4706.00,0.97
4705.00,0.97
4704.00,0.97
4703.00,0.97
4702.00,0.98
4701.00,0.98
4700.00,0.98
4699.00,0.99
4698.00,0.99
4697.00,0.99
4696.00,1.00
4695.00,1.00
4694.00,1.00
4693.00,1.01
4692.00,1.01
4691.00,1.01
4690.00,1.02
4689.00,1.02
4688.00,1.03
4687.00,1.03
4686.00,1.04
4685.00,1.04
4684.00,1.05
4683.00,1.05
4682.00,1.05
4681.00,1.06
4680.00,1.06
4679.00,1.07
4678.00,1.07
4677.00,1.07
4676.00,1.08
4675.00,1.08
4674.00,1.08
4673.00,1.09
4672.00,1.09
4671.00,1.09
4670.00,1.10
4669.00,1.10
4668.00,1.10
4667.00,1.11
4666.00,1.11
4665.00,1.11
4664.00,1.11
4663.00,1.12
4662.00,1.12
4661.00,1.12
4660.00,1.12
4659.00,1.12
4658.00,1.12
4657.00,1.12
4656.00,1.13
4655.00,1.13
4654.00,1.13
4653.00,1.13
4652.00,1.13
4651.00,1.13
4650.00,1.13
4649.00,1.13
4648.00,1.13
4647.00,1.13
4646.00,1.13
4645.00,1.13
4644.00,1.13
4643.00,1.13
4642.00,1.13
4641.00,1.14
4640.00,1.14
4639.00,1.14
4638.00,1.14
4637.00,1.14
4636.00,1.14
4635.00,1.14
4634.00,1.14
4633.00,1.14
4632.00,1.14
4631.00,1.14
4630.00,1.14
4629.00,1.14
4628.00,1.14
4627.00,1.14
4626.00,1.14
4625.00,1.14
4624.00,1.14
4623.00,1.14
4622.00,1.14
4621.00,1.14
4620.00,1.14
4619.00,1.14
4618.00,1.14
4617.00,1.14
4616.00,1.14
4615.00,1.15
4614.00,1.15
4613.00,1.15
4612.00,1.15
4611.00,1.15
4610.00,1.15
4609.00,1.15
4608.00,1.15
4607.00,1.14
4606.00,1.14
4605.00,1.14
4604.00,1.14
4603.00,1.14
4602.00,1.14
4601.00,1.14
4600.00,1.14
4599.00,1.14
4598.00,1.14
4597.00,1.14
4596.00,1.14
4595.00,1.14
4594.00,1.13
4593.00,1.13
4592.00,1.13
4591.00,1.13
4590.00,1.13
4589.00,1.13
4588.00,1.13
4587.00,1.13
4586.00,1.13
4585.00,1.13
4584.00,1.13
4583.00,1.13
4582.00,1.13
4581.00,1.13
4580.00,1.13
4579.00,1.13
4578.00,1.13
4577.00,1.13
4576.00,1.13
4575.00,1.13
4574.00,1.13
4573.00,1.13
4572.00,1.13
4571.00,1.14
4570.00,1.14
4569.00,1.14
4568.00,1.14
4567.00,1.14
4566.00,1.14
4565.00,1.14
4564.00,1.14
4563.00,1.14
4562.00,1.14
4561.00,1.14
4560.00,1.15
4559.00,1.15
4558.00,1.15
4557.00,1.15
4556.00,1.15
4555.00,1.15
4554.00,1.16
4553.00,1.16
4552.00,1.16
4551.00,1.16
4550.00,1.16
4549.00,1.16
4548.00,1.16
4547.00,1.16
4546.00,1.16
4545.00,1.16
4544.00,1.16
4543.00,1.16
4542.00,1.16
4541.00,1.16
4540.00,1.17
4539.00,1.17
4538.00,1.17
4537.00,1.17
4536.00,1.17
4535.00,1.17
4534.00,1.17
4533.00,1.16
4532.00,1.16
4531.00,1.16
4530.00,1.16
4529.00,1.16
4528.00,1.16
4527.00,1.16
4526.00,1.16
4525.00,1.16
4524.00,1.16
4523.00,1.16
4522.00,1.16
4521.00,1.16
4520.00,1.16
4519.00,1.16
4518.00,1.16
4517.00,1.16
4516.00,1.16
4515.00,1.16
4514.00,1.16
4513.00,1.16
4512.00,1.16
4511.00,1.16
4510.00,1.16
4509.00,1.16
4508.00,1.16
4507.00,1.16
4506.00,1.16
4505.00,1.16
4504.00,1.16
4503.00,1.17
4502.00,1.17
4501.00,1.17
4500.00,1.17
4499.00,1.17
4498.00,1.16
4497.00,1.16
4496.00,1.16
4495.00,1.16
4494.00,1.16
4493.00,1.16
4492.00,1.16
4491.00,1.16
4490.00,1.16
4489.00,1.16
4488.00,1.16
4487.00,1.15
4486.00,1.15
4485.00,1.15
4484.00,1.15
4483.00,1.15
4482.00,1.15
4481.00,1.15
4480.00,1.15
4479.00,1.14
4478.00,1.14
4477.00,1.14
4476.00,1.14
4475.00,1.14
4474.00,1.13
4473.00,1.13
4472.00,1.13
4471.00,1.13
4470.00,1.12
4469.00,1.12
4468.00,1.12
4467.00,1.12
4466.00,1.11
4465.00,1.11
4464.00,1.10
4463.00,1.10
4462.00,1.10
4461.00,1.09
4460.00,1.09
4459.00,1.08
4458.00,1.08
4457.00,1.07
4456.00,1.07
4455.00,1.07
4454.00,1.06
4453.00,1.06
4452.00,1.05
4451.00,1.05
4450.00,1.04
4449.00,1.03
4448.00,1.03
4447.00,1.02
4446.00,1.02
4445.00,1.01
4444.00,1.01
4443.00,1.00
4442.00,1.00
4441.00,0.99
4440.00,0.99
4439.00,0.98
4438.00,0.98
4437.00,0.98
4436.00,0.97
4435.00,0.97
4434.00,0.96
4433.00,0.96
4432.00,0.95
4431.00,0.95
4430.00,0.94
4429.00,0.94
4428.00,0.93
4427.00,0.93
4426.00,0.92
4425.00,0.92
4424.00,0.91
4423.00,0.91
4422.00,0.90
4421.00,0.90
4420.00,0.89
4419.00,0.89
4418.00,0.88
4417.00,0.88
4416.00,0.87
4415.00,0.87
4414.00,0.87
4413.00,0.86
4412.00,0.86
4411.00,0.86
4410.00,0.85
4409.00,0.85
4408.00,0.85
4407.00,0.85
4406.00,0.85
4405.00,0.85
4404.00,0.85
4403.00,0.85
4402.00,0.85
4401.00,0.85
4400.00,0.85
4399.00,0.85
4398.00,0.85
4397.00,0.85
4396.00,0.85
4395.00,0.86
4394.00,0.86
4393.00,0.86
4392.00,0.86
4391.00,0.87
4390.00,0.87
4389.00,0.88
4388.00,0.88
4387.00,0.88
4386.00,0.89
4385.00,0.89
4384.00,0.90
4383.00,0.90
4382.00,0.90
4381.00,0.90
4380.00,0.91
4379.00,0.91
4378.00,0.91
4377.00,0.91
4376.00,0.91
4375.00,0.91
4374.00,0.91
4373.00,0.91
4372.00,0.91
4371.00,0.91
4370.00,0.91
4369.00,0.91
4368.00,0.91
4367.00,0.91
4366.00,0.91
4365.00,0.91
4364.00,0.90
4363.00,0.90
4362.00,0.90
4361.00,0.90
4360.00,0.90
4359.00,0.89
4358.00,0.89
4357.00,0.89
4356.00,0.89
4355.00,0.89
4354.00,0.89
4353.00,0.89
4352.00,0.89
4351.00,0.89
4350.00,0.89
4349.00,0.89
4348.00,0.89
4347.00,0.89
4346.00,0.89
4345.00,0.89
4344.00,0.90
4343.00,0.90
4342.00,0.90
4341.00,0.90
4340.00,0.90
4339.00,0.90
4338.00,0.91
4337.00,0.91
4336.00,0.91
4335.00,0.91
4334.00,0.92
4333.00,0.92
4332.00,0.92
4331.00,0.92
4330.00,0.93
4329.00,0.93
4328.00,0.93
4327.00,0.93
4326.00,0.94
4325.00,0.94
4324.00,0.94
4323.00,0.94
4322.00,0.94
4321.00,0.95
4320.00,0.95
4319.00,0.95
4318.00,0.95
4317.00,0.96
4316.00,0.96
4315.00,0.96
4314.00,0.96
4313.00,0.97
4312.00,0.97
4311.00,0.97
4310.00,0.98
4309.00,0.98
4308.00,0.98
4307.00,0.99
4306.00,0.99
4305.00,0.99
4304.00,1.00
4303.00,1.00
4302.00,1.01
4301.00,1.01
4300.00,1.02
4299.00,1.02
4298.00,1.02
4297.00,1.03
4296.00,1.03
4295.00,1.03
4294.00,1.04
4293.00,1.04
4292.00,1.04
4291.00,1.05
4290.00,1.05
4289.00,1.05
4288.00,1.05
4287.00,1.05
4286.00,1.06
4285.00,1.06
4284.00,1.06
4283.00,1.06
4282.00,1.06
4281.00,1.06
4280.00,1.06
4279.00,1.06
4278.00,1.06
4277.00,1.06
4276.00,1.06
4275.00,1.06
4274.00,1.06
4273.00,1.06
4272.00,1.06
4271.00,1.06
4270.00,1.06
4269.00,1.06
4268.00,1.06
4267.00,1.06
4266.00,1.06
4265.00,1.06
4264.00,1.06
4263.00,1.06
4262.00,1.06
4261.00,1.06
4260.00,1.06
4259.00,1.06
4258.00,1.06
4257.00,1.06
4256.00,1.06
4255.00,1.07
4254.00,1.07
4253.00,1.07
4252.00,1.07
4251.00,1.07
4250.00,1.07
4249.00,1.07
4248.00,1.07
4247.00,1.07
4246.00,1.07
4245.00,1.07
4244.00,1.07
4243.00,1.06
4242.00,1.06
4241.00,1.06
4240.00,1.06
4239.00,1.06
4238.00,1.06
4237.00,1.06
4236.00,1.05
4235.00,1.05
4234.00,1.05
4233.00,1.05
4232.00,1.05
4231.00,1.05
4230.00,1.05
4229.00,1.05
4228.00,1.05
4227.00,1.05
4226.00,1.05
4225.00,1.05
4224.00,1.05
4223.00,1.05
4222.00,1.05
4221.00,1.05
4220.00,1.05
4219.00,1.06
4218.00,1.06
4217.00,1.06
4216.00,1.06
4215.00,1.06
4214.00,1.07
4213.00,1.07
4212.00,1.07
4211.00,1.07
4210.00,1.07
4209.00,1.07
4208.00,1.08
4207.00,1.08
4206.00,1.08
4205.00,1.08
4204.00,1.08
4203.00,1.08
4202.00,1.08
4201.00,1.09
4200.00,1.09
4199.00,1.09
4198.00,1.09
4197.00,1.09
4196.00,1.09
4195.00,1.09
4194.00,1.09
4193.00,1.09
4192.00,1.09
4191.00,1.09
4190.00,1.09
4189.00,1.09
4188.00,1.09
4187.00,1.09
4186.00,1.09
4185.00,1.09
4184.00,1.09
4183.00,1.09
4182.00,1.09
4181.00,1.09
4180.00,1.09
4179.00,1.09
4178.00,1.09
4177.00,1.09
4176.00,1.09
4175.00,1.09
4174.00,1.09
4173.00,1.09
4172.00,1.09
4171.00,1.09
4170.00,1.09
4169.00,1.09
4168.00,1.09
4167.00,1.09
4166.00,1.09
4165.00,1.10
4164.00,1.10
4163.00,1.10
4162.00,1.10
4161.00,1.10
4160.00,1.09
4159.00,1.09
4158.00,1.09
4157.00,1.09
4156.00,1.09
4155.00,1.09
4154.00,1.09
4153.00,1.08
4152.00,1.08
4151.00,1.08
4150.00,1.07
4149.00,1.07
4148.00,1.07
4147.00,1.06
4146.00,1.06
4145.00,1.05
4144.00,1.05
4143.00,1.04
4142.00,1.04
4141.00,1.03
4140.00,1.03
4139.00,1.02
4138.00,1.02
4137.00,1.01
4136.00,1.01
4135.00,1.00
4134.00,1.00
4133.00,0.99
4132.00,0.99
4131.00,0.98
4130.00,0.98
4129.00,0.98
4128.00,0.98
4127.00,0.98
4126.00,0.98
4125.00,0.98
4124.00,0.98
4123.00,0.98
4122.00,0.98
4121.00,0.98
4120.00,0.99
4119.00,0.99
4118.00,0.99
4117.00,1.00
4116.00,1.00
4115.00,1.01
4114.00,1.01
4113.00,1.01
4112.00,1.02
4111.00,1.02
4110.00,1.03
4109.00,1.03
4108.00,1.03
4107.00,1.04
4106.00,1.04
4105.00,1.05
4104.00,1.05
4103.00,1.05
4102.00,1.06
4101.00,1.06
4100.00,1.06
4099.00,1.06
4098.00,1.07
4097.00,1.07
4096.00,1.07
4095.00,1.07
4094.00,1.07
4093.00,1.07
4092.00,1.08
4091.00,1.08
4090.00,1.08
4089.00,1.08
4088.00,1.08
4087.00,1.08
4086.00,1.09
4085.00,1.09
4084.00,1.09
4083.00,1.09
4082.00,1.09
4081.00,1.09
4080.00,1.10
4079.00,1.10
4078.00,1.10
4077.00,1.10
4076.00,1.10
4075.00,1.10
4074.00,1.10
4073.00,1.09
4072.00,1.09
4071.00,1.09
4070.00,1.09
4069.00,1.08
4068.00,1.08
4067.00,1.08
4066.00,1.08
4065.00,1.07
4064.00,1.07
4063.00,1.07
4062.00,1.07
4061.00,1.06
4060.00,1.06
4059.00,1.06
4058.00,1.06
4057.00,1.06
4056.00,1.06
4055.00,1.06
4054.00,1.05
4053.00,1.05
4052.00,1.05
4051.00,1.06
4050.00,1.06
4049.00,1.06
4048.00,1.06
4047.00,1.06
4046.00,1.06
4045.00,1.07
4044.00,1.07
4043.00,1.08
4042.00,1.08
4041.00,1.09
4040.00,1.09
4039.00,1.10
4038.00,1.10
4037.00,1.10
4036.00,1.11
4035.00,1.11
4034.00,1.11
4033.00,1.12
4032.00,1.12
4031.00,1.12
4030.00,1.12
4029.00,1.13
4028.00,1.13
4027.00,1.13
4026.00,1.13
4025.00,1.14
4024.00,1.14
4023.00,1.14
4022.00,1.14
4021.00,1.15
4020.00,1.15
4019.00,1.15
4018.00,1.15
4017.00,1.15
4016.00,1.15
4015.00,1.15
4014.00,1.15
4013.00,1.16
4012.00,1.16
4011.00,1.16
4010.00,1.16
4009.00,1.16
4008.00,1.16
4007.00,1.16
4006.00,1.16
4005.00,1.17
4004.00,1.17
4003.00,1.17
4002.00,1.17
4001.00,1.17
4000.00,1.17
