创建为新数据集,样品 015 用户 Administrator 日期 星期五, 七月 26 2019
cm-1,%T
10000.00,0.76
9999.00,0.75
9998.00,0.75
9997.00,0.74
9996.00,0.73
9995.00,0.73
9994.00,0.72
9993.00,0.72
9992.00,0.72
9991.00,0.71
9990.00,0.71
9989.00,0.71
9988.00,0.70
9987.00,0.70
9986.00,0.70
9985.00,0.70
9984.00,0.69
9983.00,0.69
9982.00,0.69
9981.00,0.69
9980.00,0.70
9979.00,0.70
9978.00,0.70
9977.00,0.71
9976.00,0.71
9975.00,0.71
9974.00,0.72
9973.00,0.72
9972.00,0.72
9971.00,0.72
9970.00,0.72
9969.00,0.72
9968.00,0.72
9967.00,0.72
9966.00,0.71
9965.00,0.71
9964.00,0.71
9963.00,0.70
9962.00,0.70
9961.00,0.70
9960.00,0.70
9959.00,0.70
9958.00,0.70
9957.00,0.70
9956.00,0.70
9955.00,0.70
9954.00,0.70
9953.00,0.70
9952.00,0.70
9951.00,0.69
9950.00,0.69
9949.00,0.68
9948.00,0.68
9947.00,0.67
9946.00,0.66
9945.00,0.66
9944.00,0.65
9943.00,0.65
9942.00,0.65
9941.00,0.65
9940.00,0.65
9939.00,0.65
9938.00,0.65
9937.00,0.65
9936.00,0.65
9935.00,0.64
9934.00,0.64
9933.00,0.64
9932.00,0.64
9931.00,0.63
9930.00,0.63
9929.00,0.62
9928.00,0.62
9927.00,0.61
9926.00,0.61
9925.00,0.60
9924.00,0.60
9923.00,0.60
9922.00,0.60
9921.00,0.59
9920.00,0.59
9919.00,0.59
9918.00,0.59
9917.00,0.59
9916.00,0.59
9915.00,0.59
9914.00,0.59
9913.00,0.58
9912.00,0.58
9911.00,0.58
9910.00,0.57
9909.00,0.57
9908.00,0.57
9907.00,0.56
9906.00,0.56
9905.00,0.56
9904.00,0.56
9903.00,0.56
9902.00,0.56
9901.00,0.56
9900.00,0.56
9899.00,0.56
9898.00,0.56
9897.00,0.56
9896.00,0.56
9895.00,0.56
9894.00,0.56
9893.00,0.56
9892.00,0.56
9891.00,0.56
9890.00,0.56
9889.00,0.56
9888.00,0.56
9887.00,0.56
9886.00,0.56
9885.00,0.57
9884.00,0.57
9883.00,0.57
9882.00,0.57
9881.00,0.57
9880.00,0.57
9879.00,0.57
9878.00,0.57
9877.00,0.57
9876.00,0.57
9875.00,0.57
9874.00,0.57
9873.00,0.56
9872.00,0.56
9871.00,0.56
9870.00,0.55
9869.00,0.55
9868.00,0.55
9867.00,0.55
9866.00,0.54
9865.00,0.54
9864.00,0.54
9863.00,0.54
9862.00,0.54
9861.00,0.54
9860.00,0.54
9859.00,0.54
9858.00,0.54
9857.00,0.54
9856.00,0.54
9855.00,0.54
9854.00,0.54
9853.00,0.54
9852.00,0.54
9851.00,0.54
9850.00,0.54
9849.00,0.54
9848.00,0.54
9847.00,0.54
9846.00,0.54
9845.00,0.54
9844.00,0.54
9843.00,0.54
9842.00,0.54
9841.00,0.54
9840.00,0.54
9839.00,0.55
9838.00,0.55
9837.00,0.55
9836.00,0.55
9835.00,0.54
9834.00,0.54
9833.00,0.54
9832.00,0.54
9831.00,0.54
9830.00,0.55
9829.00,0.55
9828.00,0.55
9827.00,0.55
9826.00,0.56
9825.00,0.56
9824.00,0.56
9823.00,0.57
9822.00,0.57
9821.00,0.58
9820.00,0.58
9819.00,0.59
9818.00,0.59
9817.00,0.60
9816.00,0.60
9815.00,0.61
9814.00,0.62
9813.00,0.62
9812.00,0.63
9811.00,0.64
9810.00,0.64
9809.00,0.65
9808.00,0.66
9807.00,0.67
9806.00,0.67
9805.00,0.68
9804.00,0.68
9803.00,0.69
9802.00,0.69
9801.00,0.70
9800.00,0.70
9799.00,0.71
9798.00,0.71
9797.00,0.71
9796.00,0.71
9795.00,0.71
9794.00,0.71
9793.00,0.71
9792.00,0.71
9791.00,0.71
9790.00,0.71
9789.00,0.71
9788.00,0.71
9787.00,0.70
9786.00,0.70
9785.00,0.69
9784.00,0.68
9783.00,0.68
9782.00,0.67
9781.00,0.66
9780.00,0.66
9779.00,0.65
9778.00,0.64
9777.00,0.63
9776.00,0.62
9775.00,0.61
9774.00,0.60
9773.00,0.59
9772.00,0.58
9771.00,0.57
9770.00,0.56
9769.00,0.55
9768.00,0.54
9767.00,0.54
9766.00,0.53
9765.00,0.52
9764.00,0.52
9763.00,0.51
9762.00,0.51
9761.00,0.51
9760.00,0.50
9759.00,0.50
9758.00,0.50
9757.00,0.50
9756.00,0.50
9755.00,0.50
9754.00,0.50
9753.00,0.51
9752.00,0.51
9751.00,0.51
9750.00,0.52
9749.00,0.52
9748.00,0.53
9747.00,0.54
9746.00,0.54
9745.00,0.55
9744.00,0.56
9743.00,0.56
9742.00,0.56
9741.00,0.57
9740.00,0.57
9739.00,0.57
9738.00,0.57
9737.00,0.58
9736.00,0.58
9735.00,0.58
9734.00,0.58
9733.00,0.58
9732.00,0.58
9731.00,0.58
9730.00,0.58
9729.00,0.58
9728.00,0.58
9727.00,0.58
9726.00,0.58
9725.00,0.58
9724.00,0.58
9723.00,0.57
9722.00,0.57
9721.00,0.57
9720.00,0.57
9719.00,0.57
9718.00,0.56
9717.00,0.56
9716.00,0.57
9715.00,0.57
9714.00,0.57
9713.00,0.57
9712.00,0.58
9711.00,0.58
9710.00,0.59
9709.00,0.60
9708.00,0.60
9707.00,0.61
9706.00,0.61
9705.00,0.62
9704.00,0.62
9703.00,0.63
9702.00,0.63
9701.00,0.64
9700.00,0.64
9699.00,0.65
9698.00,0.66
9697.00,0.66
9696.00,0.67
9695.00,0.67
9694.00,0.68
9693.00,0.69
9692.00,0.69
9691.00,0.70
9690.00,0.70
9689.00,0.71
9688.00,0.71
9687.00,0.71
9686.00,0.71
9685.00,0.71
9684.00,0.71
9683.00,0.71
9682.00,0.71
9681.00,0.71
9680.00,0.71
9679.00,0.70
9678.00,0.70
9677.00,0.70
9676.00,0.69
9675.00,0.69
9674.00,0.69
9673.00,0.68
9672.00,0.68
9671.00,0.68
9670.00,0.68
9669.00,0.67
9668.00,0.67
9667.00,0.67
9666.00,0.66
9665.00,0.66
9664.00,0.65
9663.00,0.65
9662.00,0.65
9661.00,0.64
9660.00,0.64
9659.00,0.63
9658.00,0.63
9657.00,0.63
9656.00,0.62
9655.00,0.62
9654.00,0.62
9653.00,0.62
9652.00,0.62
9651.00,0.62
9650.00,0.62
9649.00,0.62
9648.00,0.63
9647.00,0.63
9646.00,0.63
9645.00,0.63
9644.00,0.63
9643.00,0.64
9642.00,0.64
9641.00,0.64
9640.00,0.64
9639.00,0.65
9638.00,0.65
9637.00,0.65
9636.00,0.66
9635.00,0.66
9634.00,0.66
9633.00,0.67
9632.00,0.67
9631.00,0.67
9630.00,0.67
9629.00,0.67
9628.00,0.67
9627.00,0.67
9626.00,0.67
9625.00,0.67
9624.00,0.67
9623.00,0.67
9622.00,0.66
9621.00,0.66
9620.00,0.66
9619.00,0.65
9618.00,0.65
9617.00,0.64
9616.00,0.64
9615.00,0.63
9614.00,0.62
9613.00,0.62
9612.00,0.61
9611.00,0.60
9610.00,0.59
9609.00,0.58
9608.00,0.57
9607.00,0.57
9606.00,0.56
9605.00,0.55
9604.00,0.54
9603.00,0.53
9602.00,0.53
9601.00,0.52
9600.00,0.51
9599.00,0.51
9598.00,0.50
9597.00,0.50
9596.00,0.49
9595.00,0.49
9594.00,0.48
9593.00,0.48
9592.00,0.48
9591.00,0.47
9590.00,0.47
9589.00,0.47
9588.00,0.46
9587.00,0.46
9586.00,0.46
9585.00,0.46
9584.00,0.46
9583.00,0.46
9582.00,0.47
9581.00,0.47
9580.00,0.47
9579.00,0.47
9578.00,0.48
9577.00,0.48
9576.00,0.49
9575.00,0.49
9574.00,0.50
9573.00,0.50
9572.00,0.51
9571.00,0.51
9570.00,0.52
9569.00,0.52
9568.00,0.53
9567.00,0.53
9566.00,0.54
9565.00,0.54
9564.00,0.55
9563.00,0.55
9562.00,0.55
9561.00,0.56
9560.00,0.56
9559.00,0.56
9558.00,0.56
9557.00,0.56
9556.00,0.56
9555.00,0.56
9554.00,0.56
9553.00,0.55
9552.00,0.55
9551.00,0.55
9550.00,0.55
9549.00,0.54
9548.00,0.54
9547.00,0.54
9546.00,0.53
9545.00,0.53
9544.00,0.53
9543.00,0.53
9542.00,0.52
9541.00,0.52
9540.00,0.52
9539.00,0.52
9538.00,0.52
9537.00,0.52
9536.00,0.52
9535.00,0.52
9534.00,0.53
9533.00,0.53
9532.00,0.53
9531.00,0.54
9530.00,0.54
9529.00,0.55
9528.00,0.55
9527.00,0.56
9526.00,0.57
9525.00,0.57
9524.00,0.58
9523.00,0.58
9522.00,0.59
9521.00,0.60
9520.00,0.60
9519.00,0.60
9518.00,0.61
9517.00,0.61
9516.00,0.61
9515.00,0.62
9514.00,0.62
9513.00,0.62
9512.00,0.62
9511.00,0.62
9510.00,0.62
9509.00,0.63
9508.00,0.63
9507.00,0.63
9506.00,0.63
9505.00,0.63
9504.00,0.63
9503.00,0.63
9502.00,0.63
9501.00,0.63
9500.00,0.63
9499.00,0.63
9498.00,0.63
9497.00,0.63
9496.00,0.63
9495.00,0.63
9494.00,0.63
9493.00,0.63
9492.00,0.63
9491.00,0.64
9490.00,0.64
9489.00,0.64
9488.00,0.64
9487.00,0.64
9486.00,0.64
9485.00,0.64
9484.00,0.64
9483.00,0.64
9482.00,0.64
9481.00,0.64
9480.00,0.63
9479.00,0.63
9478.00,0.63
9477.00,0.63
9476.00,0.62
9475.00,0.62
9474.00,0.62
9473.00,0.62
9472.00,0.62
9471.00,0.62
9470.00,0.62
9469.00,0.61
9468.00,0.61
9467.00,0.61
9466.00,0.61
9465.00,0.60
9464.00,0.60
9463.00,0.60
9462.00,0.59
9461.00,0.59
9460.00,0.59
9459.00,0.59
9458.00,0.59
9457.00,0.59
9456.00,0.59
9455.00,0.59
9454.00,0.59
9453.00,0.59
9452.00,0.59
9451.00,0.59
9450.00,0.60
9449.00,0.60
9448.00,0.60
9447.00,0.60
9446.00,0.60
9445.00,0.60
9444.00,0.60
9443.00,0.60
9442.00,0.60
9441.00,0.61
9440.00,0.61
9439.00,0.61
9438.00,0.61
9437.00,0.62
9436.00,0.62
9435.00,0.62
9434.00,0.63
9433.00,0.63
9432.00,0.63
9431.00,0.64
9430.00,0.64
9429.00,0.65
9428.00,0.65
9427.00,0.65
9426.00,0.66
9425.00,0.66
9424.00,0.67
9423.00,0.67
9422.00,0.67
9421.00,0.67
9420.00,0.68
9419.00,0.68
9418.00,0.68
9417.00,0.68
9416.00,0.68
9415.00,0.68
9414.00,0.68
9413.00,0.68
9412.00,0.68
9411.00,0.68
9410.00,0.67
9409.00,0.67
9408.00,0.67
9407.00,0.67
9406.00,0.66
9405.00,0.66
9404.00,0.65
9403.00,0.64
9402.00,0.63
9401.00,0.63
9400.00,0.62
9399.00,0.61
9398.00,0.60
9397.00,0.59
9396.00,0.59
9395.00,0.58
9394.00,0.58
9393.00,0.57
9392.00,0.57
9391.00,0.56
9390.00,0.56
9389.00,0.56
9388.00,0.56
9387.00,0.55
9386.00,0.55
9385.00,0.55
9384.00,0.55
9383.00,0.55
9382.00,0.55
9381.00,0.55
9380.00,0.55
9379.00,0.56
9378.00,0.56
9377.00,0.56
9376.00,0.57
9375.00,0.58
9374.00,0.58
9373.00,0.59
9372.00,0.59
9371.00,0.60
9370.00,0.60
9369.00,0.61
9368.00,0.61
9367.00,0.62
9366.00,0.62
9365.00,0.63
9364.00,0.63
9363.00,0.63
9362.00,0.63
9361.00,0.64
9360.00,0.64
9359.00,0.64
9358.00,0.64
9357.00,0.64
9356.00,0.64
9355.00,0.64
9354.00,0.64
9353.00,0.64
9352.00,0.64
9351.00,0.64
9350.00,0.64
9349.00,0.63
9348.00,0.63
9347.00,0.63
9346.00,0.63
9345.00,0.62
9344.00,0.62
9343.00,0.62
9342.00,0.62
9341.00,0.61
9340.00,0.61
9339.00,0.61
9338.00,0.61
9337.00,0.61
9336.00,0.61
9335.00,0.60
9334.00,0.60
9333.00,0.60
9332.00,0.61
9331.00,0.61
9330.00,0.61
9329.00,0.61
9328.00,0.61
9327.00,0.61
9326.00,0.61
9325.00,0.61
9324.00,0.61
9323.00,0.61
9322.00,0.61
9321.00,0.61
9320.00,0.62
9319.00,0.62
9318.00,0.62
9317.00,0.62
9316.00,0.62
9315.00,0.62
9314.00,0.62
9313.00,0.62
9312.00,0.62
9311.00,0.62
9310.00,0.62
9309.00,0.62
9308.00,0.62
9307.00,0.61
9306.00,0.61
9305.00,0.61
9304.00,0.60
9303.00,0.60
9302.00,0.60
9301.00,0.59
9300.00,0.59
9299.00,0.58
9298.00,0.58
9297.00,0.58
9296.00,0.57
9295.00,0.57
9294.00,0.57
9293.00,0.56
9292.00,0.56
9291.00,0.56
9290.00,0.55
9289.00,0.55
9288.00,0.55
9287.00,0.54
9286.00,0.54
9285.00,0.54
9284.00,0.54
9283.00,0.53
9282.00,0.53
9281.00,0.53
9280.00,0.53
9279.00,0.53
9278.00,0.54
9277.00,0.54
9276.00,0.54
9275.00,0.54
9274.00,0.54
9273.00,0.54
9272.00,0.55
9271.00,0.55
9270.00,0.55
9269.00,0.55
9268.00,0.55
9267.00,0.55
9266.00,0.56
9265.00,0.56
9264.00,0.56
9263.00,0.56
9262.00,0.56
9261.00,0.56
9260.00,0.57
9259.00,0.57
9258.00,0.57
9257.00,0.57
9256.00,0.57
9255.00,0.58
9254.00,0.58
9253.00,0.58
9252.00,0.58
9251.00,0.59
9250.00,0.59
9249.00,0.59
9248.00,0.60
9247.00,0.60
9246.00,0.60
9245.00,0.61
9244.00,0.61
9243.00,0.62
9242.00,0.62
9241.00,0.63
9240.00,0.63
9239.00,0.64
9238.00,0.64
9237.00,0.65
9236.00,0.66
9235.00,0.66
9234.00,0.66
9233.00,0.67
9232.00,0.67
9231.00,0.68
9230.00,0.68
9229.00,0.68
9228.00,0.68
9227.00,0.68
9226.00,0.68
9225.00,0.68
9224.00,0.68
9223.00,0.67
9222.00,0.67
9221.00,0.67
9220.00,0.66
9219.00,0.66
9218.00,0.65
9217.00,0.65
9216.00,0.64
9215.00,0.63
9214.00,0.62
9213.00,0.61
9212.00,0.61
9211.00,0.60
9210.00,0.59
9209.00,0.58
9208.00,0.57
9207.00,0.56
9206.00,0.56
9205.00,0.55
9204.00,0.54
9203.00,0.54
9202.00,0.53
9201.00,0.53
9200.00,0.52
9199.00,0.52
9198.00,0.52
9197.00,0.52
9196.00,0.52
9195.00,0.52
9194.00,0.53
9193.00,0.53
9192.00,0.53
9191.00,0.54
9190.00,0.54
9189.00,0.54
9188.00,0.55
9187.00,0.55
9186.00,0.56
9185.00,0.56
9184.00,0.57
9183.00,0.57
9182.00,0.58
9181.00,0.58
9180.00,0.59
9179.00,0.59
9178.00,0.60
9177.00,0.60
9176.00,0.60
9175.00,0.61
9174.00,0.61
9173.00,0.61
9172.00,0.61
9171.00,0.62
9170.00,0.62
9169.00,0.62
9168.00,0.62
9167.00,0.62
9166.00,0.62
9165.00,0.62
9164.00,0.62
9163.00,0.61
9162.00,0.61
9161.00,0.61
9160.00,0.61
9159.00,0.61
9158.00,0.61
9157.00,0.61
9156.00,0.61
9155.00,0.61
9154.00,0.61
9153.00,0.61
9152.00,0.61
9151.00,0.61
9150.00,0.61
9149.00,0.61
9148.00,0.61
9147.00,0.61
9146.00,0.62
9145.00,0.62
9144.00,0.62
9143.00,0.62
9142.00,0.63
9141.00,0.63
9140.00,0.63
9139.00,0.63
9138.00,0.63
9137.00,0.63
9136.00,0.63
9135.00,0.63
9134.00,0.63
9133.00,0.63
9132.00,0.63
9131.00,0.63
9130.00,0.64
9129.00,0.64
9128.00,0.64
9127.00,0.64
9126.00,0.64
9125.00,0.64
9124.00,0.64
9123.00,0.63
9122.00,0.63
9121.00,0.63
9120.00,0.62
9119.00,0.62
9118.00,0.62
9117.00,0.61
9116.00,0.61
9115.00,0.61
9114.00,0.60
9113.00,0.60
9112.00,0.60
9111.00,0.60
9110.00,0.60
9109.00,0.60
9108.00,0.60
9107.00,0.60
9106.00,0.60
9105.00,0.60
9104.00,0.60
9103.00,0.60
9102.00,0.60
9101.00,0.60
9100.00,0.60
9099.00,0.60
9098.00,0.60
9097.00,0.60
9096.00,0.60
9095.00,0.60
9094.00,0.60
9093.00,0.61
9092.00,0.61
9091.00,0.61
9090.00,0.61
9089.00,0.61
9088.00,0.61
9087.00,0.62
9086.00,0.62
9085.00,0.62
9084.00,0.62
9083.00,0.62
9082.00,0.62
9081.00,0.62
9080.00,0.62
9079.00,0.63
9078.00,0.63
9077.00,0.63
9076.00,0.63
9075.00,0.63
9074.00,0.63
9073.00,0.64
9072.00,0.64
9071.00,0.64
9070.00,0.64
9069.00,0.64
9068.00,0.64
9067.00,0.64
9066.00,0.64
9065.00,0.65
9064.00,0.65
9063.00,0.65
9062.00,0.65
9061.00,0.65
9060.00,0.65
9059.00,0.64
9058.00,0.64
9057.00,0.64
9056.00,0.64
9055.00,0.63
9054.00,0.63
9053.00,0.62
9052.00,0.62
9051.00,0.61
9050.00,0.60
9049.00,0.60
9048.00,0.59
9047.00,0.58
9046.00,0.58
9045.00,0.57
9044.00,0.56
9043.00,0.55
9042.00,0.55
9041.00,0.54
9040.00,0.53
9039.00,0.53
9038.00,0.52
9037.00,0.51
9036.00,0.51
9035.00,0.50
9034.00,0.50
9033.00,0.49
9032.00,0.49
9031.00,0.49
9030.00,0.49
9029.00,0.49
9028.00,0.49
9027.00,0.49
9026.00,0.49
9025.00,0.50
9024.00,0.50
9023.00,0.51
9022.00,0.51
9021.00,0.52
9020.00,0.53
9019.00,0.53
9018.00,0.54
9017.00,0.55
9016.00,0.55
9015.00,0.56
9014.00,0.57
9013.00,0.58
9012.00,0.58
9011.00,0.59
9010.00,0.59
9009.00,0.60
9008.00,0.61
9007.00,0.61
9006.00,0.62
9005.00,0.62
9004.00,0.63
9003.00,0.63
9002.00,0.63
9001.00,0.64
9000.00,0.64
8999.00,0.64
8998.00,0.64
8997.00,0.64
8996.00,0.64
8995.00,0.64
8994.00,0.64
8993.00,0.64
8992.00,0.64
8991.00,0.64
8990.00,0.64
8989.00,0.64
8988.00,0.64
8987.00,0.63
8986.00,0.63
8985.00,0.63
8984.00,0.63
8983.00,0.62
8982.00,0.62
8981.00,0.61
8980.00,0.61
8979.00,0.60
8978.00,0.60
8977.00,0.59
8976.00,0.59
8975.00,0.58
8974.00,0.58
8973.00,0.57
8972.00,0.56
8971.00,0.56
8970.00,0.55
8969.00,0.55
8968.00,0.55
8967.00,0.54
8966.00,0.54
8965.00,0.53
8964.00,0.53
8963.00,0.53
8962.00,0.53
8961.00,0.52
8960.00,0.52
8959.00,0.52
8958.00,0.52
8957.00,0.52
8956.00,0.52
8955.00,0.52
8954.00,0.52
8953.00,0.52
8952.00,0.52
8951.00,0.53
8950.00,0.53
8949.00,0.53
8948.00,0.53
8947.00,0.54
8946.00,0.54
8945.00,0.54
8944.00,0.55
8943.00,0.55
8942.00,0.55
8941.00,0.55
8940.00,0.55
8939.00,0.55
8938.00,0.55
8937.00,0.55
8936.00,0.55
8935.00,0.55
8934.00,0.55
8933.00,0.55
8932.00,0.55
8931.00,0.55
8930.00,0.55
8929.00,0.55
8928.00,0.55
8927.00,0.55
8926.00,0.55
8925.00,0.55
8924.00,0.55
8923.00,0.55
8922.00,0.55
8921.00,0.55
8920.00,0.55
8919.00,0.56
8918.00,0.56
8917.00,0.56
8916.00,0.56
8915.00,0.56
8914.00,0.56
8913.00,0.56
8912.00,0.56
8911.00,0.56
8910.00,0.57
8909.00,0.57
8908.00,0.57
8907.00,0.57
8906.00,0.58
8905.00,0.58
8904.00,0.58
8903.00,0.58
8902.00,0.58
8901.00,0.58
8900.00,0.58
8899.00,0.58
8898.00,0.58
8897.00,0.58
8896.00,0.58
8895.00,0.58
8894.00,0.58
8893.00,0.58
8892.00,0.58
8891.00,0.58
8890.00,0.58
8889.00,0.58
8888.00,0.58
8887.00,0.58
8886.00,0.58
8885.00,0.58
8884.00,0.57
8883.00,0.57
8882.00,0.57
8881.00,0.57
8880.00,0.57
8879.00,0.57
8878.00,0.57
8877.00,0.57
8876.00,0.57
8875.00,0.57
8874.00,0.57
8873.00,0.57
8872.00,0.57
8871.00,0.57
8870.00,0.57
8869.00,0.57
8868.00,0.57
8867.00,0.57
8866.00,0.56
8865.00,0.56
8864.00,0.56
8863.00,0.56
8862.00,0.57
8861.00,0.57
8860.00,0.57
8859.00,0.57
8858.00,0.57
8857.00,0.58
8856.00,0.58
8855.00,0.58
8854.00,0.59
8853.00,0.59
8852.00,0.60
8851.00,0.60
8850.00,0.61
8849.00,0.61
8848.00,0.61
8847.00,0.62
8846.00,0.62
8845.00,0.63
8844.00,0.63
8843.00,0.63
8842.00,0.64
8841.00,0.64
8840.00,0.64
8839.00,0.65
8838.00,0.65
8837.00,0.65
8836.00,0.66
8835.00,0.66
8834.00,0.66
8833.00,0.66
8832.00,0.66
8831.00,0.66
8830.00,0.66
8829.00,0.65
8828.00,0.65
8827.00,0.65
8826.00,0.64
8825.00,0.64
8824.00,0.64
8823.00,0.63
8822.00,0.63
8821.00,0.63
8820.00,0.63
8819.00,0.63
8818.00,0.63
8817.00,0.62
8816.00,0.62
8815.00,0.62
8814.00,0.62
8813.00,0.62
8812.00,0.62
8811.00,0.62
8810.00,0.62
8809.00,0.62
8808.00,0.62
8807.00,0.61
8806.00,0.61
8805.00,0.61
8804.00,0.61
8803.00,0.61
8802.00,0.61
8801.00,0.61
8800.00,0.61
8799.00,0.61
8798.00,0.61
8797.00,0.61
8796.00,0.61
8795.00,0.60
8794.00,0.60
8793.00,0.60
8792.00,0.59
8791.00,0.59
8790.00,0.58
8789.00,0.58
8788.00,0.57
8787.00,0.57
8786.00,0.56
8785.00,0.56
8784.00,0.55
8783.00,0.55
8782.00,0.54
8781.00,0.54
8780.00,0.54
8779.00,0.53
8778.00,0.53
8777.00,0.53
8776.00,0.52
8775.00,0.52
8774.00,0.51
8773.00,0.51
8772.00,0.51
8771.00,0.51
8770.00,0.50
8769.00,0.50
8768.00,0.50
8767.00,0.50
8766.00,0.50
8765.00,0.50
8764.00,0.50
8763.00,0.50
8762.00,0.51
8761.00,0.51
8760.00,0.51
8759.00,0.51
8758.00,0.51
8757.00,0.52
8756.00,0.52
8755.00,0.52
8754.00,0.52
8753.00,0.53
8752.00,0.53
8751.00,0.53
8750.00,0.53
8749.00,0.53
8748.00,0.53
8747.00,0.53
8746.00,0.54
8745.00,0.54
8744.00,0.54
8743.00,0.54
8742.00,0.54
8741.00,0.54
8740.00,0.54
8739.00,0.54
8738.00,0.54
8737.00,0.54
8736.00,0.54
8735.00,0.54
8734.00,0.54
8733.00,0.54
8732.00,0.54
8731.00,0.54
8730.00,0.54
8729.00,0.54
8728.00,0.54
8727.00,0.54
8726.00,0.54
8725.00,0.54
8724.00,0.54
8723.00,0.54
8722.00,0.54
8721.00,0.54
8720.00,0.55
8719.00,0.55
8718.00,0.55
8717.00,0.55
8716.00,0.55
8715.00,0.55
8714.00,0.55
8713.00,0.55
8712.00,0.56
8711.00,0.56
8710.00,0.56
8709.00,0.56
8708.00,0.56
8707.00,0.57
8706.00,0.57
8705.00,0.57
8704.00,0.57
8703.00,0.58
8702.00,0.58
8701.00,0.58
8700.00,0.58
8699.00,0.58
8698.00,0.58
8697.00,0.58
8696.00,0.58
8695.00,0.58
8694.00,0.58
8693.00,0.57
8692.00,0.57
8691.00,0.57
8690.00,0.57
8689.00,0.57
8688.00,0.57
8687.00,0.57
8686.00,0.56
8685.00,0.56
8684.00,0.56
8683.00,0.56
8682.00,0.55
8681.00,0.55
8680.00,0.55
8679.00,0.55
8678.00,0.55
8677.00,0.54
8676.00,0.54
8675.00,0.54
8674.00,0.54
8673.00,0.54
8672.00,0.54
8671.00,0.54
8670.00,0.54
8669.00,0.54
8668.00,0.54
8667.00,0.55
8666.00,0.55
8665.00,0.55
8664.00,0.55
8663.00,0.55
8662.00,0.56
8661.00,0.56
8660.00,0.56
8659.00,0.56
8658.00,0.56
8657.00,0.57
8656.00,0.57
8655.00,0.57
8654.00,0.57
8653.00,0.57
8652.00,0.57
8651.00,0.57
8650.00,0.58
8649.00,0.58
8648.00,0.58
8647.00,0.58
8646.00,0.58
8645.00,0.57
8644.00,0.57
8643.00,0.57
8642.00,0.57
8641.00,0.57
8640.00,0.57
8639.00,0.57
8638.00,0.57
8637.00,0.56
8636.00,0.56
8635.00,0.56
8634.00,0.56
8633.00,0.56
8632.00,0.56
8631.00,0.56
8630.00,0.56
8629.00,0.56
8628.00,0.56
8627.00,0.56
8626.00,0.56
8625.00,0.56
8624.00,0.56
8623.00,0.56
8622.00,0.57
8621.00,0.57
8620.00,0.57
8619.00,0.57
8618.00,0.57
8617.00,0.57
8616.00,0.58
8615.00,0.58
8614.00,0.58
8613.00,0.58
8612.00,0.58
8611.00,0.58
8610.00,0.58
8609.00,0.58
8608.00,0.58
8607.00,0.58
8606.00,0.58
8605.00,0.58
8604.00,0.58
8603.00,0.58
8602.00,0.58
8601.00,0.58
8600.00,0.58
8599.00,0.58
8598.00,0.58
8597.00,0.58
8596.00,0.58
8595.00,0.58
8594.00,0.58
8593.00,0.57
8592.00,0.57
8591.00,0.57
8590.00,0.57
8589.00,0.57
8588.00,0.57
8587.00,0.57
8586.00,0.57
8585.00,0.57
8584.00,0.57
8583.00,0.57
8582.00,0.57
8581.00,0.57
8580.00,0.56
8579.00,0.56
8578.00,0.56
8577.00,0.56
8576.00,0.56
8575.00,0.55
8574.00,0.55
8573.00,0.55
8572.00,0.54
8571.00,0.54
8570.00,0.54
8569.00,0.53
8568.00,0.53
8567.00,0.52
8566.00,0.52
8565.00,0.51
8564.00,0.51
8563.00,0.51
8562.00,0.50
8561.00,0.50
8560.00,0.50
8559.00,0.50
8558.00,0.49
8557.00,0.49
8556.00,0.49
8555.00,0.49
8554.00,0.49
8553.00,0.49
8552.00,0.49
8551.00,0.50
8550.00,0.50
8549.00,0.50
8548.00,0.50
8547.00,0.51
8546.00,0.51
8545.00,0.51
8544.00,0.52
8543.00,0.52
8542.00,0.52
8541.00,0.53
8540.00,0.53
8539.00,0.54
8538.00,0.54
8537.00,0.55
8536.00,0.55
8535.00,0.56
8534.00,0.56
8533.00,0.57
8532.00,0.57
8531.00,0.58
8530.00,0.58
8529.00,0.58
8528.00,0.59
8527.00,0.59
8526.00,0.59
8525.00,0.60
8524.00,0.60
8523.00,0.60
8522.00,0.60
8521.00,0.61
8520.00,0.61
8519.00,0.61
8518.00,0.61
8517.00,0.61
8516.00,0.62
8515.00,0.62
8514.00,0.62
8513.00,0.62
8512.00,0.62
8511.00,0.62
8510.00,0.62
8509.00,0.62
8508.00,0.62
8507.00,0.62
8506.00,0.63
8505.00,0.63
8504.00,0.63
8503.00,0.63
8502.00,0.63
8501.00,0.63
8500.00,0.63
8499.00,0.63
8498.00,0.63
8497.00,0.63
8496.00,0.63
8495.00,0.63
8494.00,0.62
8493.00,0.62
8492.00,0.62
8491.00,0.62
8490.00,0.62
8489.00,0.62
8488.00,0.62
8487.00,0.62
8486.00,0.62
8485.00,0.62
8484.00,0.62
8483.00,0.62
8482.00,0.62
8481.00,0.62
8480.00,0.62
8479.00,0.62
8478.00,0.61
8477.00,0.61
8476.00,0.61
8475.00,0.61
8474.00,0.61
8473.00,0.61
8472.00,0.61
8471.00,0.61
8470.00,0.61
8469.00,0.61
8468.00,0.61
8467.00,0.61
8466.00,0.61
8465.00,0.61
8464.00,0.61
8463.00,0.61
8462.00,0.60
8461.00,0.60
8460.00,0.60
8459.00,0.60
8458.00,0.60
8457.00,0.59
8456.00,0.59
8455.00,0.59
8454.00,0.59
8453.00,0.58
8452.00,0.58
8451.00,0.58
8450.00,0.57
8449.00,0.57
8448.00,0.57
8447.00,0.57
8446.00,0.56
8445.00,0.56
8444.00,0.56
8443.00,0.55
8442.00,0.55
8441.00,0.55
8440.00,0.55
8439.00,0.54
8438.00,0.54
8437.00,0.54
8436.00,0.54
8435.00,0.53
8434.00,0.53
8433.00,0.53
8432.00,0.53
8431.00,0.53
8430.00,0.52
8429.00,0.52
8428.00,0.52
8427.00,0.52
8426.00,0.52
8425.00,0.52
8424.00,0.52
8423.00,0.53
8422.00,0.53
8421.00,0.53
8420.00,0.53
8419.00,0.53
8418.00,0.53
8417.00,0.53
8416.00,0.54
8415.00,0.54
8414.00,0.54
8413.00,0.54
8412.00,0.54
8411.00,0.54
8410.00,0.55
8409.00,0.55
8408.00,0.55
8407.00,0.56
8406.00,0.56
8405.00,0.56
8404.00,0.57
8403.00,0.57
8402.00,0.57
8401.00,0.57
8400.00,0.57
8399.00,0.57
8398.00,0.57
8397.00,0.57
8396.00,0.57
8395.00,0.57
8394.00,0.57
8393.00,0.57
8392.00,0.56
8391.00,0.56
8390.00,0.56
8389.00,0.56
8388.00,0.56
8387.00,0.56
8386.00,0.55
8385.00,0.55
8384.00,0.55
8383.00,0.55
8382.00,0.54
8381.00,0.54
8380.00,0.54
8379.00,0.53
8378.00,0.53
8377.00,0.53
8376.00,0.52
8375.00,0.52
8374.00,0.52
8373.00,0.52
8372.00,0.51
8371.00,0.51
8370.00,0.51
8369.00,0.51
8368.00,0.51
8367.00,0.51
8366.00,0.51
8365.00,0.51
8364.00,0.51
8363.00,0.51
8362.00,0.51
8361.00,0.52
8360.00,0.52
8359.00,0.52
8358.00,0.52
8357.00,0.52
8356.00,0.53
8355.00,0.53
8354.00,0.53
8353.00,0.53
8352.00,0.53
8351.00,0.53
8350.00,0.54
8349.00,0.54
8348.00,0.54
8347.00,0.54
8346.00,0.55
8345.00,0.55
8344.00,0.55
8343.00,0.55
8342.00,0.55
8341.00,0.56
8340.00,0.56
8339.00,0.56
8338.00,0.56
8337.00,0.57
8336.00,0.57
8335.00,0.57
8334.00,0.57
8333.00,0.57
8332.00,0.57
8331.00,0.57
8330.00,0.57
8329.00,0.57
8328.00,0.57
8327.00,0.57
8326.00,0.57
8325.00,0.57
8324.00,0.57
8323.00,0.57
8322.00,0.58
8321.00,0.58
8320.00,0.58
8319.00,0.58
8318.00,0.58
8317.00,0.58
8316.00,0.58
8315.00,0.58
8314.00,0.58
8313.00,0.58
8312.00,0.57
8311.00,0.57
8310.00,0.57
8309.00,0.57
8308.00,0.57
8307.00,0.58
8306.00,0.58
8305.00,0.58
8304.00,0.58
8303.00,0.58
8302.00,0.58
8301.00,0.58
8300.00,0.58
8299.00,0.58
8298.00,0.58
8297.00,0.58
8296.00,0.58
8295.00,0.58
8294.00,0.58
8293.00,0.58
8292.00,0.58
8291.00,0.58
8290.00,0.58
8289.00,0.58
8288.00,0.58
8287.00,0.58
8286.00,0.58
8285.00,0.58
8284.00,0.58
8283.00,0.58
8282.00,0.58
8281.00,0.58
8280.00,0.58
8279.00,0.58
8278.00,0.58
8277.00,0.58
8276.00,0.58
8275.00,0.58
8274.00,0.57
8273.00,0.57
8272.00,0.57
8271.00,0.57
8270.00,0.57
8269.00,0.57
8268.00,0.56
8267.00,0.56
8266.00,0.56
8265.00,0.56
8264.00,0.56
8263.00,0.56
8262.00,0.56
8261.00,0.56
8260.00,0.56
8259.00,0.56
8258.00,0.56
8257.00,0.56
8256.00,0.56
8255.00,0.56
8254.00,0.56
8253.00,0.57
8252.00,0.57
8251.00,0.57
8250.00,0.57
8249.00,0.57
8248.00,0.57
8247.00,0.57
8246.00,0.58
8245.00,0.58
8244.00,0.58
8243.00,0.58
8242.00,0.58
8241.00,0.58
8240.00,0.58
8239.00,0.58
8238.00,0.58
8237.00,0.58
8236.00,0.58
8235.00,0.58
8234.00,0.58
8233.00,0.58
8232.00,0.58
8231.00,0.58
8230.00,0.58
8229.00,0.58
8228.00,0.58
8227.00,0.58
8226.00,0.58
8225.00,0.58
8224.00,0.57
8223.00,0.58
8222.00,0.58
8221.00,0.58
8220.00,0.58
8219.00,0.58
8218.00,0.58
8217.00,0.58
8216.00,0.59
8215.00,0.59
8214.00,0.59
8213.00,0.60
8212.00,0.60
8211.00,0.60
8210.00,0.60
8209.00,0.60
8208.00,0.61
8207.00,0.61
8206.00,0.61
8205.00,0.61
8204.00,0.62
8203.00,0.62
8202.00,0.62
8201.00,0.63
8200.00,0.63
8199.00,0.63
8198.00,0.63
8197.00,0.63
8196.00,0.63
8195.00,0.63
8194.00,0.63
8193.00,0.63
8192.00,0.63
8191.00,0.63
8190.00,0.63
8189.00,0.63
8188.00,0.63
8187.00,0.63
8186.00,0.62
8185.00,0.62
8184.00,0.62
8183.00,0.62
8182.00,0.62
8181.00,0.62
8180.00,0.62
8179.00,0.62
8178.00,0.62
8177.00,0.62
8176.00,0.61
8175.00,0.61
8174.00,0.61
8173.00,0.61
8172.00,0.61
8171.00,0.61
8170.00,0.61
8169.00,0.60
8168.00,0.60
8167.00,0.60
8166.00,0.60
8165.00,0.60
8164.00,0.60
8163.00,0.60
8162.00,0.60
8161.00,0.60
8160.00,0.60
8159.00,0.59
8158.00,0.59
8157.00,0.59
8156.00,0.59
8155.00,0.59
8154.00,0.59
8153.00,0.59
8152.00,0.59
8151.00,0.59
8150.00,0.59
8149.00,0.59
8148.00,0.59
8147.00,0.59
8146.00,0.59
8145.00,0.59
8144.00,0.59
8143.00,0.59
8142.00,0.59
8141.00,0.59
8140.00,0.59
8139.00,0.59
8138.00,0.59
8137.00,0.60
8136.00,0.60
8135.00,0.60
8134.00,0.60
8133.00,0.60
8132.00,0.60
8131.00,0.60
8130.00,0.60
8129.00,0.60
8128.00,0.60
8127.00,0.60
8126.00,0.60
8125.00,0.60
8124.00,0.59
8123.00,0.59
8122.00,0.59
8121.00,0.59
8120.00,0.59
8119.00,0.59
8118.00,0.59
8117.00,0.59
8116.00,0.58
8115.00,0.58
8114.00,0.58
8113.00,0.58
8112.00,0.58
8111.00,0.58
8110.00,0.57
8109.00,0.57
8108.00,0.57
8107.00,0.57
8106.00,0.57
8105.00,0.57
8104.00,0.57
8103.00,0.57
8102.00,0.57
8101.00,0.57
8100.00,0.57
8099.00,0.57
8098.00,0.57
8097.00,0.57
8096.00,0.57
8095.00,0.57
8094.00,0.57
8093.00,0.57
8092.00,0.57
8091.00,0.57
8090.00,0.57
8089.00,0.58
8088.00,0.58
8087.00,0.58
8086.00,0.58
8085.00,0.58
8084.00,0.59
8083.00,0.59
8082.00,0.59
8081.00,0.59
8080.00,0.60
8079.00,0.60
8078.00,0.60
8077.00,0.61
8076.00,0.61
8075.00,0.61
8074.00,0.62
8073.00,0.62
8072.00,0.62
8071.00,0.62
8070.00,0.62
8069.00,0.63
8068.00,0.63
8067.00,0.63
8066.00,0.63
8065.00,0.64
8064.00,0.64
8063.00,0.64
8062.00,0.64
8061.00,0.65
8060.00,0.65
8059.00,0.65
8058.00,0.65
8057.00,0.65
8056.00,0.65
8055.00,0.65
8054.00,0.65
8053.00,0.65
8052.00,0.65
8051.00,0.64
8050.00,0.64
8049.00,0.64
8048.00,0.64
8047.00,0.64
8046.00,0.64
8045.00,0.64
8044.00,0.64
8043.00,0.63
8042.00,0.63
8041.00,0.63
8040.00,0.63
8039.00,0.62
8038.00,0.62
8037.00,0.62
8036.00,0.62
8035.00,0.61
8034.00,0.61
8033.00,0.61
8032.00,0.60
8031.00,0.60
8030.00,0.60
8029.00,0.59
8028.00,0.59
8027.00,0.59
8026.00,0.59
8025.00,0.59
8024.00,0.58
8023.00,0.58
8022.00,0.58
8021.00,0.58
8020.00,0.58
8019.00,0.58
8018.00,0.58
8017.00,0.58
8016.00,0.58
8015.00,0.58
8014.00,0.58
8013.00,0.58
8012.00,0.58
8011.00,0.58
8010.00,0.58
8009.00,0.58
8008.00,0.59
8007.00,0.59
8006.00,0.59
8005.00,0.59
8004.00,0.60
8003.00,0.60
8002.00,0.60
8001.00,0.60
8000.00,0.61
7999.00,0.61
7998.00,0.61
7997.00,0.62
7996.00,0.62
7995.00,0.63
7994.00,0.63
7993.00,0.63
7992.00,0.64
7991.00,0.64
7990.00,0.64
7989.00,0.64
7988.00,0.65
7987.00,0.65
7986.00,0.65
7985.00,0.66
7984.00,0.66
7983.00,0.66
7982.00,0.66
7981.00,0.66
7980.00,0.67
7979.00,0.67
7978.00,0.67
7977.00,0.67
7976.00,0.67
7975.00,0.67
7974.00,0.67
7973.00,0.67
7972.00,0.67
7971.00,0.67
7970.00,0.67
7969.00,0.67
7968.00,0.66
7967.00,0.66
7966.00,0.66
7965.00,0.65
7964.00,0.65
7963.00,0.65
7962.00,0.64
7961.00,0.64
7960.00,0.64
7959.00,0.63
7958.00,0.63
7957.00,0.63
7956.00,0.62
7955.00,0.62
7954.00,0.62
7953.00,0.61
7952.00,0.61
7951.00,0.61
7950.00,0.61
7949.00,0.60
7948.00,0.60
7947.00,0.60
7946.00,0.60
7945.00,0.60
7944.00,0.60
7943.00,0.60
7942.00,0.60
7941.00,0.60
7940.00,0.60
7939.00,0.60
7938.00,0.60
7937.00,0.60
7936.00,0.61
7935.00,0.61
7934.00,0.61
7933.00,0.61
7932.00,0.61
7931.00,0.62
7930.00,0.62
7929.00,0.62
7928.00,0.62
7927.00,0.63
7926.00,0.63
7925.00,0.63
7924.00,0.63
7923.00,0.64
7922.00,0.64
7921.00,0.64
7920.00,0.64
7919.00,0.64
7918.00,0.65
7917.00,0.65
7916.00,0.65
7915.00,0.65
7914.00,0.65
7913.00,0.66
7912.00,0.66
7911.00,0.66
7910.00,0.66
7909.00,0.66
7908.00,0.66
7907.00,0.67
7906.00,0.67
7905.00,0.67
7904.00,0.67
7903.00,0.67
7902.00,0.67
7901.00,0.67
7900.00,0.67
7899.00,0.67
7898.00,0.67
7897.00,0.67
7896.00,0.67
7895.00,0.67
7894.00,0.67
7893.00,0.67
7892.00,0.67
7891.00,0.67
7890.00,0.67
7889.00,0.67
7888.00,0.67
7887.00,0.67
7886.00,0.66
7885.00,0.66
7884.00,0.66
7883.00,0.66
7882.00,0.65
7881.00,0.65
7880.00,0.65
7879.00,0.65
7878.00,0.64
7877.00,0.64
7876.00,0.64
7875.00,0.63
7874.00,0.63
7873.00,0.63
7872.00,0.63
7871.00,0.62
7870.00,0.62
7869.00,0.62
7868.00,0.62
7867.00,0.61
7866.00,0.61
7865.00,0.61
7864.00,0.61
7863.00,0.61
7862.00,0.61
7861.00,0.61
7860.00,0.61
7859.00,0.61
7858.00,0.61
7857.00,0.61
7856.00,0.61
7855.00,0.62
7854.00,0.62
7853.00,0.62
7852.00,0.62
7851.00,0.62
7850.00,0.62
7849.00,0.62
7848.00,0.62
7847.00,0.63
7846.00,0.63
7845.00,0.63
7844.00,0.63
7843.00,0.63
7842.00,0.63
7841.00,0.64
7840.00,0.64
7839.00,0.64
7838.00,0.64
7837.00,0.64
7836.00,0.64
7835.00,0.64
7834.00,0.64
7833.00,0.64
7832.00,0.64
7831.00,0.64
7830.00,0.64
7829.00,0.64
7828.00,0.64
7827.00,0.64
7826.00,0.64
7825.00,0.63
7824.00,0.63
7823.00,0.63
7822.00,0.63
7821.00,0.63
7820.00,0.63
7819.00,0.63
7818.00,0.63
7817.00,0.63
7816.00,0.63
7815.00,0.62
7814.00,0.62
7813.00,0.62
7812.00,0.62
7811.00,0.62
7810.00,0.62
7809.00,0.62
7808.00,0.62
7807.00,0.62
7806.00,0.62
7805.00,0.62
7804.00,0.62
7803.00,0.62
7802.00,0.62
7801.00,0.62
7800.00,0.62
7799.00,0.62
7798.00,0.63
7797.00,0.63
7796.00,0.63
7795.00,0.63
7794.00,0.63
7793.00,0.64
7792.00,0.64
7791.00,0.64
7790.00,0.64
7789.00,0.64
7788.00,0.65
7787.00,0.65
7786.00,0.65
7785.00,0.65
7784.00,0.65
7783.00,0.65
7782.00,0.66
7781.00,0.66
7780.00,0.66
7779.00,0.66
7778.00,0.66
7777.00,0.66
7776.00,0.66
7775.00,0.66
7774.00,0.66
7773.00,0.66
7772.00,0.66
7771.00,0.66
7770.00,0.66
7769.00,0.66
7768.00,0.66
7767.00,0.66
7766.00,0.66
7765.00,0.65
7764.00,0.65
7763.00,0.65
7762.00,0.65
7761.00,0.65
7760.00,0.65
7759.00,0.65
7758.00,0.65
7757.00,0.65
7756.00,0.65
7755.00,0.65
7754.00,0.65
7753.00,0.65
7752.00,0.65
7751.00,0.65
7750.00,0.65
7749.00,0.65
7748.00,0.65
7747.00,0.65
7746.00,0.65
7745.00,0.65
7744.00,0.65
7743.00,0.65
7742.00,0.65
7741.00,0.66
7740.00,0.66
7739.00,0.66
7738.00,0.66
7737.00,0.66
7736.00,0.66
7735.00,0.66
7734.00,0.67
7733.00,0.67
7732.00,0.67
7731.00,0.67
7730.00,0.67
7729.00,0.67
7728.00,0.67
7727.00,0.67
7726.00,0.67
7725.00,0.67
7724.00,0.67
7723.00,0.67
7722.00,0.67
7721.00,0.67
7720.00,0.67
7719.00,0.67
7718.00,0.67
7717.00,0.67
7716.00,0.66
7715.00,0.66
7714.00,0.66
7713.00,0.66
7712.00,0.66
7711.00,0.65
7710.00,0.65
7709.00,0.65
7708.00,0.65
7707.00,0.65
7706.00,0.65
7705.00,0.64
7704.00,0.64
7703.00,0.64
7702.00,0.64
7701.00,0.64
7700.00,0.64
7699.00,0.64
7698.00,0.63
7697.00,0.63
7696.00,0.63
7695.00,0.63
7694.00,0.63
7693.00,0.63
7692.00,0.63
7691.00,0.63
7690.00,0.63
7689.00,0.63
7688.00,0.64
7687.00,0.64
7686.00,0.64
7685.00,0.64
7684.00,0.64
7683.00,0.64
7682.00,0.65
7681.00,0.65
7680.00,0.65
7679.00,0.65
7678.00,0.65
7677.00,0.65
7676.00,0.66
7675.00,0.66
7674.00,0.66
7673.00,0.66
7672.00,0.66
7671.00,0.67
7670.00,0.67
7669.00,0.67
7668.00,0.67
7667.00,0.68
7666.00,0.68
7665.00,0.68
7664.00,0.68
7663.00,0.68
7662.00,0.68
7661.00,0.68
7660.00,0.68
7659.00,0.68
7658.00,0.68
7657.00,0.68
7656.00,0.68
7655.00,0.68
7654.00,0.68
7653.00,0.67
7652.00,0.67
7651.00,0.67
7650.00,0.67
7649.00,0.67
7648.00,0.66
7647.00,0.66
7646.00,0.66
7645.00,0.66
7644.00,0.66
7643.00,0.65
7642.00,0.65
7641.00,0.65
7640.00,0.65
7639.00,0.65
7638.00,0.64
7637.00,0.64
7636.00,0.64
7635.00,0.64
7634.00,0.64
7633.00,0.64
7632.00,0.64
7631.00,0.64
7630.00,0.64
7629.00,0.64
7628.00,0.64
7627.00,0.64
7626.00,0.64
7625.00,0.64
7624.00,0.64
7623.00,0.64
7622.00,0.64
7621.00,0.64
7620.00,0.64
7619.00,0.65
7618.00,0.65
7617.00,0.65
7616.00,0.65
7615.00,0.65
7614.00,0.65
7613.00,0.65
7612.00,0.65
7611.00,0.65
7610.00,0.65
7609.00,0.65
7608.00,0.65
7607.00,0.65
7606.00,0.65
7605.00,0.65
7604.00,0.65
7603.00,0.65
7602.00,0.65
7601.00,0.65
7600.00,0.66
7599.00,0.66
7598.00,0.66
7597.00,0.66
7596.00,0.66
7595.00,0.66
7594.00,0.66
7593.00,0.66
7592.00,0.67
7591.00,0.67
7590.00,0.67
7589.00,0.67
7588.00,0.67
7587.00,0.67
7586.00,0.67
7585.00,0.67
7584.00,0.68
7583.00,0.68
7582.00,0.68
7581.00,0.68
7580.00,0.68
7579.00,0.68
7578.00,0.68
7577.00,0.68
7576.00,0.68
7575.00,0.68
7574.00,0.68
7573.00,0.68
7572.00,0.68
7571.00,0.68
7570.00,0.68
7569.00,0.68
7568.00,0.68
7567.00,0.68
7566.00,0.68
7565.00,0.68
7564.00,0.68
7563.00,0.68
7562.00,0.68
7561.00,0.68
7560.00,0.68
7559.00,0.68
7558.00,0.68
7557.00,0.69
7556.00,0.69
7555.00,0.69
7554.00,0.69
7553.00,0.69
7552.00,0.69
7551.00,0.70
7550.00,0.70
7549.00,0.70
7548.00,0.70
7547.00,0.70
7546.00,0.70
7545.00,0.71
7544.00,0.71
7543.00,0.71
7542.00,0.71
7541.00,0.71
7540.00,0.71
7539.00,0.71
7538.00,0.71
7537.00,0.71
7536.00,0.71
7535.00,0.71
7534.00,0.71
7533.00,0.70
7532.00,0.70
7531.00,0.70
7530.00,0.70
7529.00,0.69
7528.00,0.69
7527.00,0.69
7526.00,0.68
7525.00,0.68
7524.00,0.68
7523.00,0.67
7522.00,0.67
7521.00,0.66
7520.00,0.66
7519.00,0.66
7518.00,0.66
7517.00,0.65
7516.00,0.65
7515.00,0.65
7514.00,0.65
7513.00,0.64
7512.00,0.64
7511.00,0.64
7510.00,0.64
7509.00,0.64
7508.00,0.64
7507.00,0.64
7506.00,0.64
7505.00,0.63
7504.00,0.63
7503.00,0.63
7502.00,0.63
7501.00,0.63
7500.00,0.63
7499.00,0.64
7498.00,0.64
7497.00,0.64
7496.00,0.64
7495.00,0.64
7494.00,0.64
7493.00,0.64
7492.00,0.64
7491.00,0.64
7490.00,0.64
7489.00,0.64
7488.00,0.64
7487.00,0.64
7486.00,0.64
7485.00,0.64
7484.00,0.64
7483.00,0.64
7482.00,0.64
7481.00,0.64
7480.00,0.64
7479.00,0.63
7478.00,0.63
7477.00,0.63
7476.00,0.63
7475.00,0.63
7474.00,0.63
7473.00,0.63
7472.00,0.63
7471.00,0.63
7470.00,0.63
7469.00,0.63
7468.00,0.63
7467.00,0.63
7466.00,0.63
7465.00,0.63
7464.00,0.63
7463.00,0.63
7462.00,0.63
7461.00,0.63
7460.00,0.63
7459.00,0.63
7458.00,0.63
7457.00,0.63
7456.00,0.63
7455.00,0.63
7454.00,0.63
7453.00,0.63
7452.00,0.63
7451.00,0.63
7450.00,0.63
7449.00,0.63
7448.00,0.63
7447.00,0.63
7446.00,0.64
7445.00,0.64
7444.00,0.64
7443.00,0.64
7442.00,0.64
7441.00,0.64
7440.00,0.64
7439.00,0.64
7438.00,0.64
7437.00,0.64
7436.00,0.64
7435.00,0.64
7434.00,0.64
7433.00,0.64
7432.00,0.64
7431.00,0.64
7430.00,0.65
7429.00,0.65
7428.00,0.65
7427.00,0.65
7426.00,0.65
7425.00,0.66
7424.00,0.66
7423.00,0.66
7422.00,0.66
7421.00,0.66
7420.00,0.66
7419.00,0.67
7418.00,0.67
7417.00,0.67
7416.00,0.67
7415.00,0.67
7414.00,0.67
7413.00,0.68
7412.00,0.68
7411.00,0.68
7410.00,0.68
7409.00,0.68
7408.00,0.68
7407.00,0.68
7406.00,0.68
7405.00,0.68
7404.00,0.68
7403.00,0.68
7402.00,0.68
7401.00,0.68
7400.00,0.68
7399.00,0.68
7398.00,0.68
7397.00,0.68
7396.00,0.68
7395.00,0.67
7394.00,0.67
7393.00,0.67
7392.00,0.67
7391.00,0.67
7390.00,0.67
7389.00,0.67
7388.00,0.67
7387.00,0.67
7386.00,0.66
7385.00,0.66
7384.00,0.66
7383.00,0.66
7382.00,0.66
7381.00,0.66
7380.00,0.66
7379.00,0.66
7378.00,0.66
7377.00,0.66
7376.00,0.66
7375.00,0.66
7374.00,0.66
7373.00,0.66
7372.00,0.66
7371.00,0.66
7370.00,0.66
7369.00,0.66
7368.00,0.66
7367.00,0.67
7366.00,0.67
7365.00,0.67
7364.00,0.67
7363.00,0.67
7362.00,0.67
7361.00,0.67
7360.00,0.68
7359.00,0.68
7358.00,0.68
7357.00,0.68
7356.00,0.68
7355.00,0.68
7354.00,0.69
7353.00,0.69
7352.00,0.69
7351.00,0.69
7350.00,0.69
7349.00,0.69
7348.00,0.69
7347.00,0.69
7346.00,0.68
7345.00,0.68
7344.00,0.68
7343.00,0.68
7342.00,0.67
7341.00,0.67
7340.00,0.67
7339.00,0.67
7338.00,0.66
7337.00,0.66
7336.00,0.65
7335.00,0.65
7334.00,0.65
7333.00,0.64
7332.00,0.64
7331.00,0.64
7330.00,0.63
7329.00,0.63
7328.00,0.63
7327.00,0.63
7326.00,0.62
7325.00,0.62
7324.00,0.62
7323.00,0.62
7322.00,0.62
7321.00,0.62
7320.00,0.61
7319.00,0.61
7318.00,0.61
7317.00,0.61
7316.00,0.61
7315.00,0.61
7314.00,0.61
7313.00,0.62
7312.00,0.62
7311.00,0.62
7310.00,0.62
7309.00,0.62
7308.00,0.62
7307.00,0.62
7306.00,0.62
7305.00,0.63
7304.00,0.63
7303.00,0.63
7302.00,0.63
7301.00,0.63
7300.00,0.63
7299.00,0.63
7298.00,0.63
7297.00,0.63
7296.00,0.63
7295.00,0.63
7294.00,0.63
7293.00,0.63
7292.00,0.63
7291.00,0.63
7290.00,0.63
7289.00,0.63
7288.00,0.63
7287.00,0.63
7286.00,0.62
7285.00,0.62
7284.00,0.62
7283.00,0.62
7282.00,0.62
7281.00,0.62
7280.00,0.62
7279.00,0.62
7278.00,0.62
7277.00,0.62
7276.00,0.62
7275.00,0.61
7274.00,0.61
7273.00,0.61
7272.00,0.61
7271.00,0.61
7270.00,0.61
7269.00,0.61
7268.00,0.61
7267.00,0.61
7266.00,0.61
7265.00,0.61
7264.00,0.61
7263.00,0.61
7262.00,0.61
7261.00,0.61
7260.00,0.61
7259.00,0.61
7258.00,0.61
7257.00,0.61
7256.00,0.61
7255.00,0.60
7254.00,0.60
7253.00,0.60
7252.00,0.60
7251.00,0.60
7250.00,0.60
7249.00,0.60
7248.00,0.60
7247.00,0.60
7246.00,0.60
7245.00,0.59
7244.00,0.59
7243.00,0.59
7242.00,0.59
7241.00,0.59
7240.00,0.59
7239.00,0.59
7238.00,0.58
7237.00,0.58
7236.00,0.58
7235.00,0.58
7234.00,0.58
7233.00,0.58
7232.00,0.58
7231.00,0.58
7230.00,0.58
7229.00,0.58
7228.00,0.58
7227.00,0.58
7226.00,0.57
7225.00,0.57
7224.00,0.57
7223.00,0.57
7222.00,0.57
7221.00,0.57
7220.00,0.56
7219.00,0.56
7218.00,0.56
7217.00,0.56
7216.00,0.56
7215.00,0.55
7214.00,0.55
7213.00,0.55
7212.00,0.55
7211.00,0.55
7210.00,0.54
7209.00,0.54
7208.00,0.54
7207.00,0.53
7206.00,0.53
7205.00,0.53
7204.00,0.52
7203.00,0.52
7202.00,0.52
7201.00,0.51
7200.00,0.51
7199.00,0.51
7198.00,0.51
7197.00,0.50
7196.00,0.50
7195.00,0.50
7194.00,0.50
7193.00,0.50
7192.00,0.50
7191.00,0.49
7190.00,0.49
7189.00,0.49
7188.00,0.49
7187.00,0.49
7186.00,0.49
7185.00,0.49
7184.00,0.49
7183.00,0.49
7182.00,0.49
7181.00,0.49
7180.00,0.49
7179.00,0.49
7178.00,0.49
7177.00,0.50
7176.00,0.50
7175.00,0.50
7174.00,0.50
7173.00,0.50
7172.00,0.50
7171.00,0.50
7170.00,0.50
7169.00,0.50
7168.00,0.50
7167.00,0.50
7166.00,0.50
7165.00,0.50
7164.00,0.50
7163.00,0.50
7162.00,0.50
7161.00,0.50
7160.00,0.50
7159.00,0.50
7158.00,0.49
7157.00,0.49
7156.00,0.49
7155.00,0.49
7154.00,0.49
7153.00,0.49
7152.00,0.49
7151.00,0.49
7150.00,0.48
7149.00,0.48
7148.00,0.48
7147.00,0.48
7146.00,0.48
7145.00,0.48
7144.00,0.48
7143.00,0.48
7142.00,0.47
7141.00,0.47
7140.00,0.47
7139.00,0.47
7138.00,0.47
7137.00,0.47
7136.00,0.47
7135.00,0.47
7134.00,0.47
7133.00,0.47
7132.00,0.47
7131.00,0.47
7130.00,0.47
7129.00,0.47
7128.00,0.47
7127.00,0.47
7126.00,0.47
7125.00,0.47
7124.00,0.47
7123.00,0.47
7122.00,0.46
7121.00,0.46
7120.00,0.46
7119.00,0.46
7118.00,0.46
7117.00,0.46
7116.00,0.46
7115.00,0.46
7114.00,0.46
7113.00,0.45
7112.00,0.45
7111.00,0.45
7110.00,0.45
7109.00,0.45
7108.00,0.45
7107.00,0.44
7106.00,0.44
7105.00,0.44
7104.00,0.44
7103.00,0.44
7102.00,0.44
7101.00,0.43
7100.00,0.43
7099.00,0.43
7098.00,0.43
7097.00,0.43
7096.00,0.43
7095.00,0.43
7094.00,0.42
7093.00,0.42
7092.00,0.42
7091.00,0.42
7090.00,0.42
7089.00,0.42
7088.00,0.42
7087.00,0.41
7086.00,0.41
7085.00,0.41
7084.00,0.41
7083.00,0.41
7082.00,0.40
7081.00,0.40
7080.00,0.40
7079.00,0.40
7078.00,0.40
7077.00,0.39
7076.00,0.39
7075.00,0.39
7074.00,0.38
7073.00,0.38
7072.00,0.38
7071.00,0.38
7070.00,0.37
7069.00,0.37
7068.00,0.37
7067.00,0.37
7066.00,0.36
7065.00,0.36
7064.00,0.36
7063.00,0.36
7062.00,0.36
7061.00,0.35
7060.00,0.35
7059.00,0.35
7058.00,0.35
7057.00,0.35
7056.00,0.35
7055.00,0.35
7054.00,0.35
7053.00,0.35
7052.00,0.35
7051.00,0.35
7050.00,0.35
7049.00,0.35
7048.00,0.35
7047.00,0.36
7046.00,0.36
7045.00,0.36
7044.00,0.36
7043.00,0.36
7042.00,0.37
7041.00,0.37
7040.00,0.37
7039.00,0.37
7038.00,0.38
7037.00,0.38
7036.00,0.38
7035.00,0.38
7034.00,0.38
7033.00,0.38
7032.00,0.38
7031.00,0.38
7030.00,0.39
7029.00,0.39
7028.00,0.39
7027.00,0.39
7026.00,0.39
7025.00,0.39
7024.00,0.39
7023.00,0.38
7022.00,0.38
7021.00,0.38
7020.00,0.38
7019.00,0.38
7018.00,0.38
7017.00,0.37
7016.00,0.37
7015.00,0.37
7014.00,0.37
7013.00,0.36
7012.00,0.36
7011.00,0.36
7010.00,0.36
7009.00,0.36
7008.00,0.35
7007.00,0.35
7006.00,0.35
7005.00,0.35
7004.00,0.35
7003.00,0.34
7002.00,0.34
7001.00,0.34
7000.00,0.34
6999.00,0.34
6998.00,0.34
6997.00,0.34
6996.00,0.34
6995.00,0.34
6994.00,0.34
6993.00,0.34
6992.00,0.34
6991.00,0.34
6990.00,0.34
6989.00,0.34
6988.00,0.34
6987.00,0.34
6986.00,0.34
6985.00,0.34
6984.00,0.34
6983.00,0.34
6982.00,0.34
6981.00,0.34
6980.00,0.35
6979.00,0.35
6978.00,0.35
6977.00,0.35
6976.00,0.35
6975.00,0.35
6974.00,0.35
6973.00,0.35
6972.00,0.35
6971.00,0.34
6970.00,0.34
6969.00,0.34
6968.00,0.34
6967.00,0.34
6966.00,0.34
6965.00,0.34
6964.00,0.34
6963.00,0.34
6962.00,0.34
6961.00,0.34
6960.00,0.33
6959.00,0.33
6958.00,0.33
6957.00,0.33
6956.00,0.33
6955.00,0.33
6954.00,0.32
6953.00,0.32
6952.00,0.32
6951.00,0.32
6950.00,0.32
6949.00,0.32
6948.00,0.32
6947.00,0.32
6946.00,0.32
6945.00,0.32
6944.00,0.32
6943.00,0.32
6942.00,0.32
6941.00,0.32
6940.00,0.32
6939.00,0.32
6938.00,0.32
6937.00,0.32
6936.00,0.32
6935.00,0.32
6934.00,0.32
6933.00,0.32
6932.00,0.32
6931.00,0.32
6930.00,0.32
6929.00,0.32
6928.00,0.32
6927.00,0.32
6926.00,0.32
6925.00,0.32
6924.00,0.32
6923.00,0.33
6922.00,0.33
6921.00,0.33
6920.00,0.33
6919.00,0.33
6918.00,0.33
6917.00,0.33
6916.00,0.33
6915.00,0.33
6914.00,0.33
6913.00,0.33
6912.00,0.33
6911.00,0.33
6910.00,0.33
6909.00,0.33
6908.00,0.33
6907.00,0.33
6906.00,0.33
6905.00,0.33
6904.00,0.33
6903.00,0.33
6902.00,0.33
6901.00,0.33
6900.00,0.33
6899.00,0.33
6898.00,0.33
6897.00,0.33
6896.00,0.33
6895.00,0.33
6894.00,0.33
6893.00,0.33
6892.00,0.33
6891.00,0.33
6890.00,0.33
6889.00,0.33
6888.00,0.33
6887.00,0.33
6886.00,0.33
6885.00,0.33
6884.00,0.33
6883.00,0.33
6882.00,0.33
6881.00,0.33
6880.00,0.33
6879.00,0.33
6878.00,0.33
6877.00,0.33
6876.00,0.33
6875.00,0.33
6874.00,0.33
6873.00,0.33
6872.00,0.33
6871.00,0.33
6870.00,0.33
6869.00,0.33
6868.00,0.33
6867.00,0.33
6866.00,0.33
6865.00,0.33
6864.00,0.32
6863.00,0.32
6862.00,0.32
6861.00,0.32
6860.00,0.32
6859.00,0.32
6858.00,0.32
6857.00,0.32
6856.00,0.32
6855.00,0.32
6854.00,0.32
6853.00,0.32
6852.00,0.32
6851.00,0.32
6850.00,0.32
6849.00,0.32
6848.00,0.32
6847.00,0.32
6846.00,0.32
6845.00,0.32
6844.00,0.32
6843.00,0.32
6842.00,0.32
6841.00,0.32
6840.00,0.32
6839.00,0.32
6838.00,0.32
6837.00,0.32
6836.00,0.32
6835.00,0.32
6834.00,0.32
6833.00,0.32
6832.00,0.33
6831.00,0.33
6830.00,0.33
6829.00,0.33
6828.00,0.33
6827.00,0.33
6826.00,0.33
6825.00,0.33
6824.00,0.34
6823.00,0.34
6822.00,0.34
6821.00,0.34
6820.00,0.34
6819.00,0.34
6818.00,0.34
6817.00,0.34
6816.00,0.35
6815.00,0.35
6814.00,0.35
6813.00,0.35
6812.00,0.35
6811.00,0.35
6810.00,0.35
6809.00,0.36
6808.00,0.36
6807.00,0.36
6806.00,0.36
6805.00,0.36
6804.00,0.36
6803.00,0.36
6802.00,0.36
6801.00,0.36
6800.00,0.36
6799.00,0.36
6798.00,0.36
6797.00,0.36
6796.00,0.36
6795.00,0.36
6794.00,0.36
6793.00,0.36
6792.00,0.36
6791.00,0.36
6790.00,0.36
6789.00,0.36
6788.00,0.36
6787.00,0.36
6786.00,0.36
6785.00,0.36
6784.00,0.36
6783.00,0.36
6782.00,0.36
6781.00,0.36
6780.00,0.36
6779.00,0.36
6778.00,0.36
6777.00,0.36
6776.00,0.36
6775.00,0.36
6774.00,0.36
6773.00,0.37
6772.00,0.37
6771.00,0.37
6770.00,0.37
6769.00,0.37
6768.00,0.37
6767.00,0.37
6766.00,0.37
6765.00,0.38
6764.00,0.38
6763.00,0.38
6762.00,0.38
6761.00,0.38
6760.00,0.38
6759.00,0.38
6758.00,0.38
6757.00,0.38
6756.00,0.38
6755.00,0.38
6754.00,0.38
6753.00,0.37
6752.00,0.37
6751.00,0.37
6750.00,0.37
6749.00,0.37
6748.00,0.37
6747.00,0.36
6746.00,0.36
6745.00,0.36
6744.00,0.36
6743.00,0.36
6742.00,0.35
6741.00,0.35
6740.00,0.35
6739.00,0.35
6738.00,0.35
6737.00,0.35
6736.00,0.34
6735.00,0.34
6734.00,0.34
6733.00,0.34
6732.00,0.34
6731.00,0.34
6730.00,0.34
6729.00,0.34
6728.00,0.34
6727.00,0.34
6726.00,0.34
6725.00,0.34
6724.00,0.34
6723.00,0.34
6722.00,0.35
6721.00,0.35
6720.00,0.35
6719.00,0.35
6718.00,0.35
6717.00,0.35
6716.00,0.35
6715.00,0.35
6714.00,0.35
6713.00,0.35
6712.00,0.35
6711.00,0.35
6710.00,0.35
6709.00,0.35
6708.00,0.35
6707.00,0.35
6706.00,0.35
6705.00,0.35
6704.00,0.35
6703.00,0.36
6702.00,0.36
6701.00,0.36
6700.00,0.36
6699.00,0.36
6698.00,0.36
6697.00,0.36
6696.00,0.36
6695.00,0.36
6694.00,0.36
6693.00,0.36
6692.00,0.36
6691.00,0.37
6690.00,0.37
6689.00,0.37
6688.00,0.37
6687.00,0.37
6686.00,0.38
6685.00,0.38
6684.00,0.38
6683.00,0.38
6682.00,0.38
6681.00,0.38
6680.00,0.39
6679.00,0.39
6678.00,0.39
6677.00,0.39
6676.00,0.39
6675.00,0.39
6674.00,0.39
6673.00,0.39
6672.00,0.39
6671.00,0.39
6670.00,0.39
6669.00,0.39
6668.00,0.39
6667.00,0.39
6666.00,0.39
6665.00,0.39
6664.00,0.39
6663.00,0.39
6662.00,0.39
6661.00,0.39
6660.00,0.39
6659.00,0.39
6658.00,0.39
6657.00,0.39
6656.00,0.39
6655.00,0.39
6654.00,0.39
6653.00,0.39
6652.00,0.39
6651.00,0.39
6650.00,0.39
6649.00,0.39
6648.00,0.39
6647.00,0.39
6646.00,0.40
6645.00,0.40
6644.00,0.40
6643.00,0.40
6642.00,0.40
6641.00,0.40
6640.00,0.40
6639.00,0.40
6638.00,0.40
6637.00,0.41
6636.00,0.41
6635.00,0.41
6634.00,0.41
6633.00,0.41
6632.00,0.41
6631.00,0.42
6630.00,0.42
6629.00,0.42
6628.00,0.42
6627.00,0.42
6626.00,0.42
6625.00,0.42
6624.00,0.42
6623.00,0.42
6622.00,0.42
6621.00,0.43
6620.00,0.43
6619.00,0.43
6618.00,0.43
6617.00,0.43
6616.00,0.43
6615.00,0.43
6614.00,0.43
6613.00,0.43
6612.00,0.43
6611.00,0.43
6610.00,0.43
6609.00,0.44
6608.00,0.44
6607.00,0.44
6606.00,0.44
6605.00,0.44
6604.00,0.44
6603.00,0.44
6602.00,0.44
6601.00,0.44
6600.00,0.44
6599.00,0.44
6598.00,0.44
6597.00,0.44
6596.00,0.44
6595.00,0.43
6594.00,0.43
6593.00,0.43
6592.00,0.43
6591.00,0.43
6590.00,0.43
6589.00,0.43
6588.00,0.43
6587.00,0.42
6586.00,0.42
6585.00,0.42
6584.00,0.42
6583.00,0.42
6582.00,0.42
6581.00,0.42
6580.00,0.42
6579.00,0.42
6578.00,0.42
6577.00,0.42
6576.00,0.42
6575.00,0.42
6574.00,0.41
6573.00,0.41
6572.00,0.41
6571.00,0.41
6570.00,0.41
6569.00,0.41
6568.00,0.41
6567.00,0.41
6566.00,0.42
6565.00,0.42
6564.00,0.42
6563.00,0.42
6562.00,0.42
6561.00,0.42
6560.00,0.42
6559.00,0.42
6558.00,0.43
6557.00,0.43
6556.00,0.43
6555.00,0.43
6554.00,0.43
6553.00,0.43
6552.00,0.44
6551.00,0.44
6550.00,0.44
6549.00,0.44
6548.00,0.44
6547.00,0.44
6546.00,0.44
6545.00,0.44
6544.00,0.45
6543.00,0.45
6542.00,0.45
6541.00,0.45
6540.00,0.45
6539.00,0.45
6538.00,0.45
6537.00,0.45
6536.00,0.46
6535.00,0.46
6534.00,0.46
6533.00,0.46
6532.00,0.46
6531.00,0.46
6530.00,0.46
6529.00,0.46
6528.00,0.46
6527.00,0.46
6526.00,0.46
6525.00,0.47
6524.00,0.47
6523.00,0.47
6522.00,0.47
6521.00,0.47
6520.00,0.47
6519.00,0.47
6518.00,0.47
6517.00,0.47
6516.00,0.47
6515.00,0.47
6514.00,0.47
6513.00,0.47
6512.00,0.48
6511.00,0.48
6510.00,0.48
6509.00,0.48
6508.00,0.47
6507.00,0.47
6506.00,0.47
6505.00,0.47
6504.00,0.47
6503.00,0.47
6502.00,0.48
6501.00,0.48
6500.00,0.48
6499.00,0.48
6498.00,0.48
6497.00,0.48
6496.00,0.48
6495.00,0.48
6494.00,0.48
6493.00,0.48
6492.00,0.48
6491.00,0.48
6490.00,0.48
6489.00,0.48
6488.00,0.48
6487.00,0.48
6486.00,0.48
6485.00,0.49
6484.00,0.49
6483.00,0.49
6482.00,0.49
6481.00,0.49
6480.00,0.49
6479.00,0.49
6478.00,0.49
6477.00,0.49
6476.00,0.49
6475.00,0.49
6474.00,0.49
6473.00,0.49
6472.00,0.49
6471.00,0.49
6470.00,0.48
6469.00,0.48
6468.00,0.48
6467.00,0.48
6466.00,0.48
6465.00,0.48
6464.00,0.48
6463.00,0.48
6462.00,0.48
6461.00,0.48
6460.00,0.48
6459.00,0.48
6458.00,0.48
6457.00,0.47
6456.00,0.47
6455.00,0.47
6454.00,0.48
6453.00,0.48
6452.00,0.48
6451.00,0.48
6450.00,0.48
6449.00,0.48
6448.00,0.48
6447.00,0.48
6446.00,0.48
6445.00,0.48
6444.00,0.48
6443.00,0.49
6442.00,0.49
6441.00,0.49
6440.00,0.49
6439.00,0.49
6438.00,0.49
6437.00,0.49
6436.00,0.49
6435.00,0.50
6434.00,0.50
6433.00,0.50
6432.00,0.50
6431.00,0.50
6430.00,0.50
6429.00,0.50
6428.00,0.50
6427.00,0.50
6426.00,0.50
6425.00,0.50
6424.00,0.50
6423.00,0.50
6422.00,0.50
6421.00,0.50
6420.00,0.50
6419.00,0.50
6418.00,0.50
6417.00,0.50
6416.00,0.50
6415.00,0.50
6414.00,0.50
6413.00,0.50
6412.00,0.50
6411.00,0.50
6410.00,0.50
6409.00,0.50
6408.00,0.50
6407.00,0.50
6406.00,0.50
6405.00,0.50
6404.00,0.50
6403.00,0.50
6402.00,0.50
6401.00,0.50
6400.00,0.50
6399.00,0.50
6398.00,0.50
6397.00,0.50
6396.00,0.50
6395.00,0.50
6394.00,0.50
6393.00,0.50
6392.00,0.50
6391.00,0.50
6390.00,0.50
6389.00,0.50
6388.00,0.50
6387.00,0.50
6386.00,0.50
6385.00,0.50
6384.00,0.50
6383.00,0.50
6382.00,0.50
6381.00,0.51
6380.00,0.51
6379.00,0.51
6378.00,0.51
6377.00,0.51
6376.00,0.51
6375.00,0.51
6374.00,0.51
6373.00,0.51
6372.00,0.51
6371.00,0.51
6370.00,0.51
6369.00,0.51
6368.00,0.51
6367.00,0.52
6366.00,0.52
6365.00,0.52
6364.00,0.52
6363.00,0.52
6362.00,0.52
6361.00,0.52
6360.00,0.52
6359.00,0.52
6358.00,0.52
6357.00,0.52
6356.00,0.52
6355.00,0.53
6354.00,0.53
6353.00,0.53
6352.00,0.53
6351.00,0.53
6350.00,0.53
6349.00,0.53
6348.00,0.53
6347.00,0.53
6346.00,0.53
6345.00,0.54
6344.00,0.54
6343.00,0.54
6342.00,0.54
6341.00,0.54
6340.00,0.54
6339.00,0.54
6338.00,0.54
6337.00,0.55
6336.00,0.55
6335.00,0.55
6334.00,0.55
6333.00,0.55
6332.00,0.55
6331.00,0.55
6330.00,0.55
6329.00,0.55
6328.00,0.55
6327.00,0.55
6326.00,0.55
6325.00,0.55
6324.00,0.55
6323.00,0.55
6322.00,0.55
6321.00,0.55
6320.00,0.55
6319.00,0.54
6318.00,0.54
6317.00,0.54
6316.00,0.54
6315.00,0.54
6314.00,0.54
6313.00,0.54
6312.00,0.54
6311.00,0.54
6310.00,0.54
6309.00,0.53
6308.00,0.53
6307.00,0.53
6306.00,0.53
6305.00,0.53
6304.00,0.53
6303.00,0.53
6302.00,0.53
6301.00,0.53
6300.00,0.54
6299.00,0.54
6298.00,0.54
6297.00,0.54
6296.00,0.54
6295.00,0.54
6294.00,0.54
6293.00,0.54
6292.00,0.55
6291.00,0.55
6290.00,0.55
6289.00,0.55
6288.00,0.55
6287.00,0.55
6286.00,0.56
6285.00,0.56
6284.00,0.56
6283.00,0.56
6282.00,0.56
6281.00,0.56
6280.00,0.56
6279.00,0.57
6278.00,0.57
6277.00,0.57
6276.00,0.57
6275.00,0.57
6274.00,0.57
6273.00,0.57
6272.00,0.57
6271.00,0.57
6270.00,0.57
6269.00,0.57
6268.00,0.57
6267.00,0.58
6266.00,0.58
6265.00,0.58
6264.00,0.58
6263.00,0.58
6262.00,0.58
6261.00,0.58
6260.00,0.58
6259.00,0.58
6258.00,0.58
6257.00,0.58
6256.00,0.58
6255.00,0.58
6254.00,0.58
6253.00,0.58
6252.00,0.58
6251.00,0.58
6250.00,0.58
6249.00,0.58
6248.00,0.58
6247.00,0.58
6246.00,0.58
6245.00,0.58
6244.00,0.58
6243.00,0.58
6242.00,0.58
6241.00,0.58
6240.00,0.58
6239.00,0.58
6238.00,0.59
6237.00,0.59
6236.00,0.59
6235.00,0.59
6234.00,0.59
6233.00,0.59
6232.00,0.59
6231.00,0.59
6230.00,0.59
6229.00,0.59
6228.00,0.59
6227.00,0.59
6226.00,0.59
6225.00,0.59
6224.00,0.59
6223.00,0.60
6222.00,0.60
6221.00,0.60
6220.00,0.60
6219.00,0.60
6218.00,0.60
6217.00,0.60
6216.00,0.60
6215.00,0.60
6214.00,0.60
6213.00,0.60
6212.00,0.60
6211.00,0.60
6210.00,0.60
6209.00,0.60
6208.00,0.60
6207.00,0.60
6206.00,0.60
6205.00,0.60
6204.00,0.60
6203.00,0.60
6202.00,0.60
6201.00,0.60
6200.00,0.60
6199.00,0.60
6198.00,0.60
6197.00,0.60
6196.00,0.60
6195.00,0.60
6194.00,0.60
6193.00,0.60
6192.00,0.60
6191.00,0.60
6190.00,0.60
6189.00,0.60
6188.00,0.60
6187.00,0.60
6186.00,0.60
6185.00,0.60
6184.00,0.61
6183.00,0.61
6182.00,0.61
6181.00,0.61
6180.00,0.61
6179.00,0.61
6178.00,0.61
6177.00,0.61
6176.00,0.61
6175.00,0.61
6174.00,0.61
6173.00,0.61
6172.00,0.61
6171.00,0.61
6170.00,0.61
6169.00,0.61
6168.00,0.61
6167.00,0.61
6166.00,0.61
6165.00,0.61
6164.00,0.61
6163.00,0.61
6162.00,0.61
6161.00,0.62
6160.00,0.62
6159.00,0.62
6158.00,0.62
6157.00,0.62
6156.00,0.62
6155.00,0.62
6154.00,0.62
6153.00,0.62
6152.00,0.62
6151.00,0.62
6150.00,0.63
6149.00,0.63
6148.00,0.63
6147.00,0.63
6146.00,0.63
6145.00,0.63
6144.00,0.63
6143.00,0.63
6142.00,0.63
6141.00,0.63
6140.00,0.63
6139.00,0.63
6138.00,0.63
6137.00,0.63
6136.00,0.63
6135.00,0.63
6134.00,0.63
6133.00,0.63
6132.00,0.63
6131.00,0.63
6130.00,0.63
6129.00,0.63
6128.00,0.63
6127.00,0.63
6126.00,0.63
6125.00,0.63
6124.00,0.63
6123.00,0.63
6122.00,0.64
6121.00,0.64
6120.00,0.64
6119.00,0.64
6118.00,0.64
6117.00,0.64
6116.00,0.64
6115.00,0.64
6114.00,0.64
6113.00,0.65
6112.00,0.65
6111.00,0.65
6110.00,0.65
6109.00,0.65
6108.00,0.65
6107.00,0.65
6106.00,0.65
6105.00,0.65
6104.00,0.65
6103.00,0.65
6102.00,0.65
6101.00,0.65
6100.00,0.65
6099.00,0.65
6098.00,0.65
6097.00,0.65
6096.00,0.65
6095.00,0.65
6094.00,0.64
6093.00,0.64
6092.00,0.64
6091.00,0.64
6090.00,0.64
6089.00,0.64
6088.00,0.64
6087.00,0.64
6086.00,0.64
6085.00,0.64
6084.00,0.64
6083.00,0.64
6082.00,0.64
6081.00,0.64
6080.00,0.64
6079.00,0.64
6078.00,0.64
6077.00,0.64
6076.00,0.64
6075.00,0.64
6074.00,0.64
6073.00,0.65
6072.00,0.65
6071.00,0.65
6070.00,0.65
6069.00,0.65
6068.00,0.66
6067.00,0.66
6066.00,0.66
6065.00,0.66
6064.00,0.67
6063.00,0.67
6062.00,0.67
6061.00,0.67
6060.00,0.67
6059.00,0.68
6058.00,0.68
6057.00,0.68
6056.00,0.68
6055.00,0.68
6054.00,0.68
6053.00,0.68
6052.00,0.69
6051.00,0.69
6050.00,0.69
6049.00,0.69
6048.00,0.69
6047.00,0.69
6046.00,0.69
6045.00,0.69
6044.00,0.69
6043.00,0.69
6042.00,0.69
6041.00,0.69
6040.00,0.69
6039.00,0.69
6038.00,0.69
6037.00,0.69
6036.00,0.69
6035.00,0.69
6034.00,0.69
6033.00,0.69
6032.00,0.69
6031.00,0.69
6030.00,0.69
6029.00,0.69
6028.00,0.69
6027.00,0.69
6026.00,0.69
6025.00,0.69
6024.00,0.69
6023.00,0.69
6022.00,0.69
6021.00,0.69
6020.00,0.69
6019.00,0.69
6018.00,0.69
6017.00,0.69
6016.00,0.69
6015.00,0.69
6014.00,0.69
6013.00,0.69
6012.00,0.69
6011.00,0.69
6010.00,0.69
6009.00,0.69
6008.00,0.69
6007.00,0.69
6006.00,0.69
6005.00,0.69
6004.00,0.68
6003.00,0.68
6002.00,0.68
6001.00,0.68
6000.00,0.68
5999.00,0.68
5998.00,0.68
5997.00,0.68
5996.00,0.68
5995.00,0.67
5994.00,0.67
5993.00,0.67
5992.00,0.67
5991.00,0.67
5990.00,0.67
5989.00,0.67
5988.00,0.66
5987.00,0.66
5986.00,0.66
5985.00,0.66
5984.00,0.66
5983.00,0.66
5982.00,0.66
5981.00,0.66
5980.00,0.65
5979.00,0.65
5978.00,0.65
5977.00,0.65
5976.00,0.65
5975.00,0.65
5974.00,0.65
5973.00,0.64
5972.00,0.64
5971.00,0.64
5970.00,0.64
5969.00,0.64
5968.00,0.64
5967.00,0.64
5966.00,0.64
5965.00,0.63
5964.00,0.63
5963.00,0.63
5962.00,0.63
5961.00,0.63
5960.00,0.63
5959.00,0.62
5958.00,0.62
5957.00,0.62
5956.00,0.62
5955.00,0.62
5954.00,0.61
5953.00,0.61
5952.00,0.61
5951.00,0.61
5950.00,0.61
5949.00,0.60
5948.00,0.60
5947.00,0.60
5946.00,0.60
5945.00,0.60
5944.00,0.60
5943.00,0.59
5942.00,0.59
5941.00,0.59
5940.00,0.59
5939.00,0.59
5938.00,0.59
5937.00,0.59
5936.00,0.59
5935.00,0.59
5934.00,0.59
5933.00,0.59
5932.00,0.59
5931.00,0.59
5930.00,0.59
5929.00,0.59
5928.00,0.59
5927.00,0.58
5926.00,0.58
5925.00,0.58
5924.00,0.58
5923.00,0.58
5922.00,0.58
5921.00,0.58
5920.00,0.58
5919.00,0.58
5918.00,0.58
5917.00,0.58
5916.00,0.58
5915.00,0.58
5914.00,0.58
5913.00,0.57
5912.00,0.57
5911.00,0.57
5910.00,0.57
5909.00,0.57
5908.00,0.57
5907.00,0.57
5906.00,0.57
5905.00,0.57
5904.00,0.57
5903.00,0.57
5902.00,0.57
5901.00,0.57
5900.00,0.57
5899.00,0.57
5898.00,0.57
5897.00,0.57
5896.00,0.57
5895.00,0.57
5894.00,0.57
5893.00,0.58
5892.00,0.58
5891.00,0.58
5890.00,0.58
5889.00,0.58
5888.00,0.58
5887.00,0.58
5886.00,0.58
5885.00,0.59
5884.00,0.59
5883.00,0.59
5882.00,0.59
5881.00,0.59
5880.00,0.59
5879.00,0.59
5878.00,0.59
5877.00,0.60
5876.00,0.60
5875.00,0.60
5874.00,0.59
5873.00,0.59
5872.00,0.59
5871.00,0.59
5870.00,0.59
5869.00,0.59
5868.00,0.59
5867.00,0.59
5866.00,0.59
5865.00,0.59
5864.00,0.59
5863.00,0.59
5862.00,0.59
5861.00,0.59
5860.00,0.59
5859.00,0.59
5858.00,0.59
5857.00,0.59
5856.00,0.59
5855.00,0.59
5854.00,0.59
5853.00,0.59
5852.00,0.59
5851.00,0.59
5850.00,0.59
5849.00,0.59
5848.00,0.60
5847.00,0.60
5846.00,0.60
5845.00,0.60
5844.00,0.60
5843.00,0.60
5842.00,0.60
5841.00,0.60
5840.00,0.60
5839.00,0.61
5838.00,0.61
5837.00,0.61
5836.00,0.61
5835.00,0.61
5834.00,0.61
5833.00,0.61
5832.00,0.61
5831.00,0.61
5830.00,0.61
5829.00,0.61
5828.00,0.61
5827.00,0.61
5826.00,0.61
5825.00,0.61
5824.00,0.61
5823.00,0.61
5822.00,0.61
5821.00,0.61
5820.00,0.61
5819.00,0.61
5818.00,0.61
5817.00,0.61
5816.00,0.61
5815.00,0.61
5814.00,0.61
5813.00,0.61
5812.00,0.61
5811.00,0.61
5810.00,0.61
5809.00,0.61
5808.00,0.61
5807.00,0.61
5806.00,0.61
5805.00,0.61
5804.00,0.61
5803.00,0.61
5802.00,0.61
5801.00,0.61
5800.00,0.61
5799.00,0.61
5798.00,0.61
5797.00,0.61
5796.00,0.60
5795.00,0.60
5794.00,0.60
5793.00,0.60
5792.00,0.60
5791.00,0.60
5790.00,0.60
5789.00,0.60
5788.00,0.60
5787.00,0.60
5786.00,0.60
5785.00,0.60
5784.00,0.60
5783.00,0.60
5782.00,0.60
5781.00,0.60
5780.00,0.60
5779.00,0.60
5778.00,0.60
5777.00,0.60
5776.00,0.60
5775.00,0.60
5774.00,0.60
5773.00,0.60
5772.00,0.60
5771.00,0.60
5770.00,0.60
5769.00,0.60
5768.00,0.60
5767.00,0.61
5766.00,0.61
5765.00,0.61
5764.00,0.61
5763.00,0.61
5762.00,0.61
5761.00,0.62
5760.00,0.62
5759.00,0.62
5758.00,0.62
5757.00,0.62
5756.00,0.62
5755.00,0.63
5754.00,0.63
5753.00,0.63
5752.00,0.63
5751.00,0.63
5750.00,0.63
5749.00,0.63
5748.00,0.63
5747.00,0.64
5746.00,0.64
5745.00,0.64
5744.00,0.64
5743.00,0.64
5742.00,0.64
5741.00,0.64
5740.00,0.64
5739.00,0.64
5738.00,0.64
5737.00,0.64
5736.00,0.64
5735.00,0.64
5734.00,0.64
5733.00,0.64
5732.00,0.64
5731.00,0.64
5730.00,0.64
5729.00,0.64
5728.00,0.64
5727.00,0.64
5726.00,0.63
5725.00,0.63
5724.00,0.63
5723.00,0.63
5722.00,0.63
5721.00,0.63
5720.00,0.63
5719.00,0.62
5718.00,0.62
5717.00,0.62
5716.00,0.62
5715.00,0.62
5714.00,0.62
5713.00,0.62
5712.00,0.61
5711.00,0.61
5710.00,0.61
5709.00,0.61
5708.00,0.61
5707.00,0.61
5706.00,0.60
5705.00,0.60
5704.00,0.60
5703.00,0.60
5702.00,0.60
5701.00,0.60
5700.00,0.60
5699.00,0.60
5698.00,0.59
5697.00,0.59
5696.00,0.59
5695.00,0.59
5694.00,0.59
5693.00,0.59
5692.00,0.59
5691.00,0.59
5690.00,0.59
5689.00,0.59
5688.00,0.59
5687.00,0.59
5686.00,0.59
5685.00,0.59
5684.00,0.59
5683.00,0.59
5682.00,0.59
5681.00,0.59
5680.00,0.59
5679.00,0.60
5678.00,0.60
5677.00,0.60
5676.00,0.60
5675.00,0.60
5674.00,0.60
5673.00,0.60
5672.00,0.60
5671.00,0.60
5670.00,0.61
5669.00,0.61
5668.00,0.61
5667.00,0.61
5666.00,0.61
5665.00,0.61
5664.00,0.61
5663.00,0.61
5662.00,0.61
5661.00,0.61
5660.00,0.62
5659.00,0.62
5658.00,0.62
5657.00,0.62
5656.00,0.62
5655.00,0.62
5654.00,0.62
5653.00,0.62
5652.00,0.62
5651.00,0.62
5650.00,0.62
5649.00,0.62
5648.00,0.62
5647.00,0.62
5646.00,0.62
5645.00,0.62
5644.00,0.62
5643.00,0.62
5642.00,0.62
5641.00,0.62
5640.00,0.62
5639.00,0.62
5638.00,0.62
5637.00,0.62
5636.00,0.62
5635.00,0.62
5634.00,0.62
5633.00,0.63
5632.00,0.63
5631.00,0.63
5630.00,0.63
5629.00,0.63
5628.00,0.63
5627.00,0.63
5626.00,0.63
5625.00,0.63
5624.00,0.63
5623.00,0.63
5622.00,0.63
5621.00,0.63
5620.00,0.63
5619.00,0.63
5618.00,0.63
5617.00,0.63
5616.00,0.63
5615.00,0.63
5614.00,0.63
5613.00,0.63
5612.00,0.63
5611.00,0.63
5610.00,0.63
5609.00,0.64
5608.00,0.64
5607.00,0.64
5606.00,0.64
5605.00,0.64
5604.00,0.64
5603.00,0.64
5602.00,0.64
5601.00,0.64
5600.00,0.64
5599.00,0.65
5598.00,0.65
5597.00,0.65
5596.00,0.65
5595.00,0.65
5594.00,0.65
5593.00,0.66
5592.00,0.66
5591.00,0.66
5590.00,0.66
5589.00,0.66
5588.00,0.66
5587.00,0.67
5586.00,0.67
5585.00,0.67
5584.00,0.67
5583.00,0.67
5582.00,0.67
5581.00,0.67
5580.00,0.67
5579.00,0.67
5578.00,0.67
5577.00,0.67
5576.00,0.68
5575.00,0.68
5574.00,0.68
5573.00,0.68
5572.00,0.68
5571.00,0.68
5570.00,0.68
5569.00,0.68
5568.00,0.68
5567.00,0.68
5566.00,0.68
5565.00,0.68
5564.00,0.68
5563.00,0.68
5562.00,0.68
5561.00,0.68
5560.00,0.68
5559.00,0.68
5558.00,0.68
5557.00,0.68
5556.00,0.68
5555.00,0.68
5554.00,0.68
5553.00,0.68
5552.00,0.68
5551.00,0.68
5550.00,0.68
5549.00,0.68
5548.00,0.68
5547.00,0.68
5546.00,0.68
5545.00,0.68
5544.00,0.68
5543.00,0.68
5542.00,0.68
5541.00,0.68
5540.00,0.68
5539.00,0.68
5538.00,0.68
5537.00,0.68
5536.00,0.68
5535.00,0.68
5534.00,0.68
5533.00,0.68
5532.00,0.68
5531.00,0.68
5530.00,0.68
5529.00,0.68
5528.00,0.69
5527.00,0.69
5526.00,0.69
5525.00,0.69
5524.00,0.69
5523.00,0.69
5522.00,0.69
5521.00,0.69
5520.00,0.70
5519.00,0.70
5518.00,0.70
5517.00,0.70
5516.00,0.70
5515.00,0.70
5514.00,0.70
5513.00,0.70
5512.00,0.70
5511.00,0.71
5510.00,0.71
5509.00,0.71
5508.00,0.71
5507.00,0.71
5506.00,0.71
5505.00,0.71
5504.00,0.71
5503.00,0.71
5502.00,0.72
5501.00,0.72
5500.00,0.72
5499.00,0.72
5498.00,0.72
5497.00,0.72
5496.00,0.72
5495.00,0.72
5494.00,0.72
5493.00,0.72
5492.00,0.72
5491.00,0.72
5490.00,0.72
5489.00,0.72
5488.00,0.72
5487.00,0.72
5486.00,0.72
5485.00,0.72
5484.00,0.72
5483.00,0.72
5482.00,0.72
5481.00,0.72
5480.00,0.72
5479.00,0.72
5478.00,0.72
5477.00,0.72
5476.00,0.72
5475.00,0.72
5474.00,0.72
5473.00,0.72
5472.00,0.72
5471.00,0.72
5470.00,0.72
5469.00,0.72
5468.00,0.72
5467.00,0.72
5466.00,0.72
5465.00,0.72
5464.00,0.72
5463.00,0.72
5462.00,0.72
5461.00,0.72
5460.00,0.72
5459.00,0.72
5458.00,0.72
5457.00,0.72
5456.00,0.72
5455.00,0.72
5454.00,0.72
5453.00,0.72
5452.00,0.72
5451.00,0.72
5450.00,0.72
5449.00,0.72
5448.00,0.72
5447.00,0.72
5446.00,0.72
5445.00,0.72
5444.00,0.72
5443.00,0.71
5442.00,0.71
5441.00,0.71
5440.00,0.71
5439.00,0.71
5438.00,0.71
5437.00,0.71
5436.00,0.71
5435.00,0.70
5434.00,0.70
5433.00,0.70
5432.00,0.70
5431.00,0.70
5430.00,0.70
5429.00,0.70
5428.00,0.70
5427.00,0.70
5426.00,0.70
5425.00,0.70
5424.00,0.70
5423.00,0.70
5422.00,0.70
5421.00,0.70
5420.00,0.70
5419.00,0.70
5418.00,0.70
5417.00,0.70
5416.00,0.71
5415.00,0.71
5414.00,0.71
5413.00,0.71
5412.00,0.71
5411.00,0.71
5410.00,0.71
5409.00,0.71
5408.00,0.72
5407.00,0.72
5406.00,0.72
5405.00,0.72
5404.00,0.72
5403.00,0.72
5402.00,0.72
5401.00,0.72
5400.00,0.72
5399.00,0.72
5398.00,0.72
5397.00,0.72
5396.00,0.72
5395.00,0.72
5394.00,0.72
5393.00,0.72
5392.00,0.72
5391.00,0.72
5390.00,0.72
5389.00,0.72
5388.00,0.71
5387.00,0.71
5386.00,0.71
5385.00,0.71
5384.00,0.71
5383.00,0.71
5382.00,0.71
5381.00,0.71
5380.00,0.71
5379.00,0.71
5378.00,0.70
5377.00,0.70
5376.00,0.70
5375.00,0.70
5374.00,0.70
5373.00,0.70
5372.00,0.70
5371.00,0.70
5370.00,0.70
5369.00,0.69
5368.00,0.69
5367.00,0.69
5366.00,0.69
5365.00,0.69
5364.00,0.69
5363.00,0.69
5362.00,0.68
5361.00,0.68
5360.00,0.68
5359.00,0.68
5358.00,0.68
5357.00,0.67
5356.00,0.67
5355.00,0.67
5354.00,0.67
5353.00,0.66
5352.00,0.66
5351.00,0.66
5350.00,0.65
5349.00,0.65
5348.00,0.65
5347.00,0.64
5346.00,0.64
5345.00,0.63
5344.00,0.63
5343.00,0.62
5342.00,0.62
5341.00,0.61
5340.00,0.61
5339.00,0.60
5338.00,0.60
5337.00,0.59
5336.00,0.59
5335.00,0.58
5334.00,0.58
5333.00,0.57
5332.00,0.56
5331.00,0.56
5330.00,0.55
5329.00,0.55
5328.00,0.54
5327.00,0.53
5326.00,0.53
5325.00,0.52
5324.00,0.51
5323.00,0.51
5322.00,0.50
5321.00,0.50
5320.00,0.49
5319.00,0.48
5318.00,0.48
5317.00,0.47
5316.00,0.47
5315.00,0.46
5314.00,0.46
5313.00,0.45
5312.00,0.45
5311.00,0.44
5310.00,0.44
5309.00,0.43
5308.00,0.43
5307.00,0.43
5306.00,0.42
5305.00,0.42
5304.00,0.42
5303.00,0.41
5302.00,0.41
5301.00,0.41
5300.00,0.41
5299.00,0.41
5298.00,0.40
5297.00,0.40
5296.00,0.40
5295.00,0.40
5294.00,0.40
5293.00,0.40
5292.00,0.39
5291.00,0.39
5290.00,0.39
5289.00,0.39
5288.00,0.39
5287.00,0.39
5286.00,0.38
5285.00,0.38
5284.00,0.38
5283.00,0.38
5282.00,0.38
5281.00,0.38
5280.00,0.37
5279.00,0.37
5278.00,0.37
5277.00,0.37
5276.00,0.37
5275.00,0.36
5274.00,0.36
5273.00,0.36
5272.00,0.36
5271.00,0.36
5270.00,0.35
5269.00,0.35
5268.00,0.35
5267.00,0.35
5266.00,0.35
5265.00,0.35
5264.00,0.34
5263.00,0.34
5262.00,0.34
5261.00,0.34
5260.00,0.34
5259.00,0.34
5258.00,0.34
5257.00,0.34
5256.00,0.33
5255.00,0.33
5254.00,0.33
5253.00,0.33
5252.00,0.33
5251.00,0.33
5250.00,0.33
5249.00,0.33
5248.00,0.33
5247.00,0.33
5246.00,0.33
5245.00,0.33
5244.00,0.32
5243.00,0.32
5242.00,0.32
5241.00,0.32
5240.00,0.32
5239.00,0.32
5238.00,0.32
5237.00,0.32
5236.00,0.32
5235.00,0.32
5234.00,0.32
5233.00,0.32
5232.00,0.32
5231.00,0.32
5230.00,0.32
5229.00,0.32
5228.00,0.32
5227.00,0.32
5226.00,0.32
5225.00,0.32
5224.00,0.32
5223.00,0.32
5222.00,0.32
5221.00,0.32
5220.00,0.32
5219.00,0.32
5218.00,0.32
5217.00,0.32
5216.00,0.33
5215.00,0.33
5214.00,0.33
5213.00,0.33
5212.00,0.33
5211.00,0.33
5210.00,0.33
5209.00,0.33
5208.00,0.33
5207.00,0.33
5206.00,0.33
5205.00,0.34
5204.00,0.34
5203.00,0.34
5202.00,0.34
5201.00,0.34
5200.00,0.34
5199.00,0.34
5198.00,0.34
5197.00,0.34
5196.00,0.34
5195.00,0.34
5194.00,0.34
5193.00,0.34
5192.00,0.34
5191.00,0.34
5190.00,0.34
5189.00,0.34
5188.00,0.34
5187.00,0.33
5186.00,0.33
5185.00,0.33
5184.00,0.33
5183.00,0.33
5182.00,0.33
5181.00,0.33
5180.00,0.33
5179.00,0.33
5178.00,0.33
5177.00,0.32
5176.00,0.32
5175.00,0.32
5174.00,0.32
5173.00,0.32
5172.00,0.32
5171.00,0.32
5170.00,0.32
5169.00,0.32
5168.00,0.32
5167.00,0.32
5166.00,0.32
5165.00,0.32
5164.00,0.32
5163.00,0.32
5162.00,0.32
5161.00,0.32
5160.00,0.32
5159.00,0.32
5158.00,0.33
5157.00,0.33
5156.00,0.33
5155.00,0.33
5154.00,0.33
5153.00,0.33
5152.00,0.33
5151.00,0.33
5150.00,0.33
5149.00,0.33
5148.00,0.33
5147.00,0.34
5146.00,0.34
5145.00,0.34
5144.00,0.34
5143.00,0.34
5142.00,0.34
5141.00,0.34
5140.00,0.34
5139.00,0.34
5138.00,0.34
5137.00,0.34
5136.00,0.34
5135.00,0.34
5134.00,0.34
5133.00,0.34
5132.00,0.34
5131.00,0.34
5130.00,0.34
5129.00,0.34
5128.00,0.34
5127.00,0.34
5126.00,0.34
5125.00,0.34
5124.00,0.34
5123.00,0.34
5122.00,0.34
5121.00,0.34
5120.00,0.34
5119.00,0.34
5118.00,0.34
5117.00,0.34
5116.00,0.34
5115.00,0.34
5114.00,0.34
5113.00,0.34
5112.00,0.34
5111.00,0.34
5110.00,0.34
5109.00,0.34
5108.00,0.34
5107.00,0.35
5106.00,0.35
5105.00,0.35
5104.00,0.35
5103.00,0.35
5102.00,0.35
5101.00,0.35
5100.00,0.35
5099.00,0.35
5098.00,0.35
5097.00,0.35
5096.00,0.35
5095.00,0.36
5094.00,0.36
5093.00,0.36
5092.00,0.36
5091.00,0.36
5090.00,0.36
5089.00,0.36
5088.00,0.36
5087.00,0.36
5086.00,0.36
5085.00,0.36
5084.00,0.36
5083.00,0.36
5082.00,0.36
5081.00,0.36
5080.00,0.36
5079.00,0.36
5078.00,0.36
5077.00,0.36
5076.00,0.36
5075.00,0.36
5074.00,0.36
5073.00,0.36
5072.00,0.36
5071.00,0.36
5070.00,0.36
5069.00,0.37
5068.00,0.37
5067.00,0.37
5066.00,0.37
5065.00,0.37
5064.00,0.37
5063.00,0.37
5062.00,0.37
5061.00,0.37
5060.00,0.37
5059.00,0.37
5058.00,0.37
5057.00,0.37
5056.00,0.37
5055.00,0.37
5054.00,0.37
5053.00,0.37
5052.00,0.37
5051.00,0.37
5050.00,0.37
5049.00,0.37
5048.00,0.37
5047.00,0.37
5046.00,0.37
5045.00,0.37
5044.00,0.37
5043.00,0.37
5042.00,0.37
5041.00,0.37
5040.00,0.37
5039.00,0.37
5038.00,0.37
5037.00,0.37
5036.00,0.37
5035.00,0.37
5034.00,0.37
5033.00,0.37
5032.00,0.37
5031.00,0.37
5030.00,0.37
5029.00,0.37
5028.00,0.37
5027.00,0.37
5026.00,0.37
5025.00,0.37
5024.00,0.37
5023.00,0.37
5022.00,0.37
5021.00,0.36
5020.00,0.36
5019.00,0.36
5018.00,0.36
5017.00,0.36
5016.00,0.36
5015.00,0.36
5014.00,0.36
5013.00,0.36
5012.00,0.36
5011.00,0.36
5010.00,0.36
5009.00,0.37
5008.00,0.37
5007.00,0.37
5006.00,0.37
5005.00,0.37
5004.00,0.37
5003.00,0.37
5002.00,0.37
5001.00,0.37
5000.00,0.37
4999.00,0.38
4998.00,0.38
4997.00,0.38
4996.00,0.38
4995.00,0.38
4994.00,0.38
4993.00,0.38
4992.00,0.38
4991.00,0.38
4990.00,0.39
4989.00,0.39
4988.00,0.39
4987.00,0.39
4986.00,0.39
4985.00,0.39
4984.00,0.39
4983.00,0.39
4982.00,0.39
4981.00,0.39
4980.00,0.39
4979.00,0.39
4978.00,0.39
4977.00,0.39
4976.00,0.39
4975.00,0.39
4974.00,0.39
4973.00,0.39
4972.00,0.39
4971.00,0.39
4970.00,0.39
4969.00,0.39
4968.00,0.39
4967.00,0.40
4966.00,0.40
4965.00,0.40
4964.00,0.40
4963.00,0.40
4962.00,0.40
4961.00,0.40
4960.00,0.41
4959.00,0.41
4958.00,0.41
4957.00,0.41
4956.00,0.41
4955.00,0.41
4954.00,0.41
4953.00,0.41
4952.00,0.42
4951.00,0.42
4950.00,0.42
4949.00,0.42
4948.00,0.42
4947.00,0.42
4946.00,0.42
4945.00,0.42
4944.00,0.42
4943.00,0.42
4942.00,0.42
4941.00,0.42
4940.00,0.42
4939.00,0.42
4938.00,0.42
4937.00,0.42
4936.00,0.42
4935.00,0.42
4934.00,0.42
4933.00,0.42
4932.00,0.42
4931.00,0.42
4930.00,0.42
4929.00,0.42
4928.00,0.42
4927.00,0.42
4926.00,0.42
4925.00,0.42
4924.00,0.42
4923.00,0.42
4922.00,0.42
4921.00,0.42
4920.00,0.42
4919.00,0.42
4918.00,0.42
4917.00,0.42
4916.00,0.42
4915.00,0.42
4914.00,0.42
4913.00,0.42
4912.00,0.42
4911.00,0.42
4910.00,0.42
4909.00,0.42
4908.00,0.43
4907.00,0.43
4906.00,0.43
4905.00,0.43
4904.00,0.43
4903.00,0.43
4902.00,0.43
4901.00,0.43
4900.00,0.43
4899.00,0.43
4898.00,0.43
4897.00,0.43
4896.00,0.43
4895.00,0.43
4894.00,0.43
4893.00,0.43
4892.00,0.43
4891.00,0.43
4890.00,0.43
4889.00,0.43
4888.00,0.43
4887.00,0.43
4886.00,0.43
4885.00,0.43
4884.00,0.43
4883.00,0.43
4882.00,0.43
4881.00,0.43
4880.00,0.43
4879.00,0.43
4878.00,0.43
4877.00,0.43
4876.00,0.43
4875.00,0.43
4874.00,0.43
4873.00,0.43
4872.00,0.44
4871.00,0.44
4870.00,0.44
4869.00,0.44
4868.00,0.44
4867.00,0.44
4866.00,0.44
4865.00,0.44
4864.00,0.44
4863.00,0.44
4862.00,0.44
4861.00,0.45
4860.00,0.45
4859.00,0.45
4858.00,0.45
4857.00,0.45
4856.00,0.45
4855.00,0.45
4854.00,0.45
4853.00,0.45
4852.00,0.45
4851.00,0.45
4850.00,0.45
4849.00,0.45
4848.00,0.45
4847.00,0.45
4846.00,0.45
4845.00,0.45
4844.00,0.45
4843.00,0.45
4842.00,0.46
4841.00,0.46
4840.00,0.46
4839.00,0.46
4838.00,0.46
4837.00,0.46
4836.00,0.46
4835.00,0.46
4834.00,0.46
4833.00,0.46
4832.00,0.46
4831.00,0.46
4830.00,0.46
4829.00,0.46
4828.00,0.46
4827.00,0.46
4826.00,0.46
4825.00,0.46
4824.00,0.46
4823.00,0.47
4822.00,0.47
4821.00,0.47
4820.00,0.47
4819.00,0.47
4818.00,0.47
4817.00,0.47
4816.00,0.47
4815.00,0.47
4814.00,0.47
4813.00,0.47
4812.00,0.47
4811.00,0.47
4810.00,0.47
4809.00,0.47
4808.00,0.48
4807.00,0.48
4806.00,0.48
4805.00,0.48
4804.00,0.48
4803.00,0.48
4802.00,0.48
4801.00,0.48
4800.00,0.48
4799.00,0.48
4798.00,0.48
4797.00,0.49
4796.00,0.49
4795.00,0.49
4794.00,0.49
4793.00,0.49
4792.00,0.49
4791.00,0.49
4790.00,0.49
4789.00,0.49
4788.00,0.49
4787.00,0.49
4786.00,0.49
4785.00,0.49
4784.00,0.49
4783.00,0.49
4782.00,0.49
4781.00,0.49
4780.00,0.49
4779.00,0.49
4778.00,0.49
4777.00,0.49
4776.00,0.49
4775.00,0.49
4774.00,0.49
4773.00,0.49
4772.00,0.49
4771.00,0.49
4770.00,0.49
4769.00,0.50
4768.00,0.50
4767.00,0.50
4766.00,0.50
4765.00,0.50
4764.00,0.50
4763.00,0.51
4762.00,0.51
4761.00,0.51
4760.00,0.51
4759.00,0.51
4758.00,0.52
4757.00,0.52
4756.00,0.52
4755.00,0.52
4754.00,0.52
4753.00,0.52
4752.00,0.53
4751.00,0.53
4750.00,0.53
4749.00,0.53
4748.00,0.53
4747.00,0.53
4746.00,0.53
4745.00,0.54
4744.00,0.54
4743.00,0.54
4742.00,0.54
4741.00,0.54
4740.00,0.54
4739.00,0.54
4738.00,0.54
4737.00,0.54
4736.00,0.55
4735.00,0.55
4734.00,0.55
4733.00,0.55
4732.00,0.55
4731.00,0.55
4730.00,0.55
4729.00,0.55
4728.00,0.56
4727.00,0.56
4726.00,0.56
4725.00,0.56
4724.00,0.56
4723.00,0.56
4722.00,0.56
4721.00,0.56
4720.00,0.56
4719.00,0.57
4718.00,0.57
4717.00,0.57
4716.00,0.57
4715.00,0.57
4714.00,0.57
4713.00,0.57
4712.00,0.57
4711.00,0.57
4710.00,0.57
4709.00,0.57
4708.00,0.57
4707.00,0.57
4706.00,0.57
4705.00,0.57
4704.00,0.57
4703.00,0.58
4702.00,0.58
4701.00,0.58
4700.00,0.58
4699.00,0.58
4698.00,0.58
4697.00,0.58
4696.00,0.58
4695.00,0.58
4694.00,0.58
4693.00,0.58
4692.00,0.58
4691.00,0.58
4690.00,0.58
4689.00,0.58
4688.00,0.58
4687.00,0.58
4686.00,0.59
4685.00,0.59
4684.00,0.59
4683.00,0.59
4682.00,0.59
4681.00,0.59
4680.00,0.59
4679.00,0.59
4678.00,0.59
4677.00,0.59
4676.00,0.59
4675.00,0.59
4674.00,0.59
4673.00,0.59
4672.00,0.59
4671.00,0.59
4670.00,0.59
4669.00,0.59
4668.00,0.59
4667.00,0.59
4666.00,0.59
4665.00,0.59
4664.00,0.59
4663.00,0.59
4662.00,0.59
4661.00,0.59
4660.00,0.60
4659.00,0.60
4658.00,0.60
4657.00,0.60
4656.00,0.60
4655.00,0.60
4654.00,0.60
4653.00,0.60
4652.00,0.60
4651.00,0.61
4650.00,0.61
4649.00,0.61
4648.00,0.61
4647.00,0.61
4646.00,0.61
4645.00,0.61
4644.00,0.62
4643.00,0.62
4642.00,0.62
4641.00,0.62
4640.00,0.62
4639.00,0.62
4638.00,0.62
4637.00,0.62
4636.00,0.62
4635.00,0.62
4634.00,0.63
4633.00,0.63
4632.00,0.63
4631.00,0.63
4630.00,0.63
4629.00,0.63
4628.00,0.63
4627.00,0.63
4626.00,0.63
4625.00,0.63
4624.00,0.63
4623.00,0.63
4622.00,0.63
4621.00,0.63
4620.00,0.63
4619.00,0.63
4618.00,0.63
4617.00,0.63
4616.00,0.63
4615.00,0.63
4614.00,0.63
4613.00,0.63
4612.00,0.64
4611.00,0.64
4610.00,0.64
4609.00,0.64
4608.00,0.64
4607.00,0.64
4606.00,0.65
4605.00,0.65
4604.00,0.65
4603.00,0.65
4602.00,0.65
4601.00,0.65
4600.00,0.65
4599.00,0.66
4598.00,0.66
4597.00,0.66
4596.00,0.66
4595.00,0.66
4594.00,0.66
4593.00,0.66
4592.00,0.66
4591.00,0.66
4590.00,0.66
4589.00,0.66
4588.00,0.66
4587.00,0.66
4586.00,0.66
4585.00,0.66
4584.00,0.66
4583.00,0.66
4582.00,0.65
4581.00,0.65
4580.00,0.65
4579.00,0.65
4578.00,0.65
4577.00,0.65
4576.00,0.65
4575.00,0.65
4574.00,0.65
4573.00,0.65
4572.00,0.65
4571.00,0.65
4570.00,0.65
4569.00,0.65
4568.00,0.65
4567.00,0.65
4566.00,0.65
4565.00,0.65
4564.00,0.65
4563.00,0.65
4562.00,0.65
4561.00,0.65
4560.00,0.65
4559.00,0.65
4558.00,0.65
4557.00,0.66
4556.00,0.66
4555.00,0.66
4554.00,0.66
4553.00,0.66
4552.00,0.66
4551.00,0.67
4550.00,0.67
4549.00,0.67
4548.00,0.67
4547.00,0.67
4546.00,0.67
4545.00,0.67
4544.00,0.67
4543.00,0.67
4542.00,0.67
4541.00,0.67
4540.00,0.67
4539.00,0.67
4538.00,0.67
4537.00,0.68
4536.00,0.68
4535.00,0.68
4534.00,0.68
4533.00,0.68
4532.00,0.68
4531.00,0.68
4530.00,0.68
4529.00,0.68
4528.00,0.68
4527.00,0.68
4526.00,0.68
4525.00,0.68
4524.00,0.68
4523.00,0.68
4522.00,0.68
4521.00,0.68
4520.00,0.68
4519.00,0.68
4518.00,0.68
4517.00,0.68
4516.00,0.68
4515.00,0.68
4514.00,0.68
4513.00,0.68
4512.00,0.68
4511.00,0.68
4510.00,0.68
4509.00,0.68
4508.00,0.68
4507.00,0.68
4506.00,0.68
4505.00,0.68
4504.00,0.68
4503.00,0.68
4502.00,0.68
4501.00,0.68
4500.00,0.68
4499.00,0.68
4498.00,0.68
4497.00,0.67
4496.00,0.67
4495.00,0.67
4494.00,0.67
4493.00,0.67
4492.00,0.67
4491.00,0.67
4490.00,0.66
4489.00,0.66
4488.00,0.66
4487.00,0.66
4486.00,0.66
4485.00,0.65
4484.00,0.65
4483.00,0.65
4482.00,0.65
4481.00,0.65
4480.00,0.65
4479.00,0.64
4478.00,0.64
4477.00,0.64
4476.00,0.64
4475.00,0.64
4474.00,0.63
4473.00,0.63
4472.00,0.63
4471.00,0.63
4470.00,0.63
4469.00,0.62
4468.00,0.62
4467.00,0.62
4466.00,0.62
4465.00,0.62
4464.00,0.62
4463.00,0.61
4462.00,0.61
4461.00,0.61
4460.00,0.61
4459.00,0.61
4458.00,0.60
4457.00,0.60
4456.00,0.60
4455.00,0.60
4454.00,0.60
4453.00,0.59
4452.00,0.59
4451.00,0.59
4450.00,0.59
4449.00,0.58
4448.00,0.58
4447.00,0.58
4446.00,0.58
4445.00,0.57
4444.00,0.57
4443.00,0.57
4442.00,0.57
4441.00,0.56
4440.00,0.56
4439.00,0.56
4438.00,0.55
4437.00,0.55
4436.00,0.55
4435.00,0.55
4434.00,0.54
4433.00,0.54
4432.00,0.54
4431.00,0.54
4430.00,0.54
4429.00,0.53
4428.00,0.53
4427.00,0.53
4426.00,0.53
4425.00,0.53
4424.00,0.53
4423.00,0.52
4422.00,0.52
4421.00,0.52
4420.00,0.52
4419.00,0.52
4418.00,0.52
4417.00,0.52
4416.00,0.52
4415.00,0.52
4414.00,0.52
4413.00,0.52
4412.00,0.52
4411.00,0.52
4410.00,0.52
4409.00,0.52
4408.00,0.52
4407.00,0.52
4406.00,0.52
4405.00,0.52
4404.00,0.52
4403.00,0.52
4402.00,0.52
4401.00,0.52
4400.00,0.52
4399.00,0.52
4398.00,0.52
4397.00,0.52
4396.00,0.52
4395.00,0.52
4394.00,0.53
4393.00,0.53
4392.00,0.53
4391.00,0.53
4390.00,0.53
4389.00,0.53
4388.00,0.53
4387.00,0.53
4386.00,0.53
4385.00,0.53
4384.00,0.53
4383.00,0.53
4382.00,0.53
4381.00,0.53
4380.00,0.53
4379.00,0.53
4378.00,0.53
4377.00,0.53
4376.00,0.53
4375.00,0.53
4374.00,0.53
4373.00,0.53
4372.00,0.53
4371.00,0.53
4370.00,0.53
4369.00,0.53
4368.00,0.53
4367.00,0.53
4366.00,0.53
4365.00,0.52
4364.00,0.52
4363.00,0.52
4362.00,0.52
4361.00,0.52
4360.00,0.52
4359.00,0.52
4358.00,0.51
4357.00,0.51
4356.00,0.51
4355.00,0.51
4354.00,0.51
4353.00,0.51
4352.00,0.51
4351.00,0.50
4350.00,0.50
4349.00,0.50
4348.00,0.50
4347.00,0.50
4346.00,0.50
4345.00,0.50
4344.00,0.50
4343.00,0.50
4342.00,0.50
4341.00,0.50
4340.00,0.50
4339.00,0.50
4338.00,0.50
4337.00,0.50
4336.00,0.50
4335.00,0.51
4334.00,0.51
4333.00,0.51
4332.00,0.51
4331.00,0.51
4330.00,0.52
4329.00,0.52
4328.00,0.52
4327.00,0.52
4326.00,0.52
4325.00,0.53
4324.00,0.53
4323.00,0.53
4322.00,0.54
4321.00,0.54
4320.00,0.54
4319.00,0.55
4318.00,0.55
4317.00,0.55
4316.00,0.55
4315.00,0.56
4314.00,0.56
4313.00,0.56
4312.00,0.56
4311.00,0.57
4310.00,0.57
4309.00,0.57
4308.00,0.57
4307.00,0.58
4306.00,0.58
4305.00,0.58
4304.00,0.58
4303.00,0.58
4302.00,0.58
4301.00,0.58
4300.00,0.59
4299.00,0.59
4298.00,0.59
4297.00,0.59
4296.00,0.59
4295.00,0.59
4294.00,0.59
4293.00,0.59
4292.00,0.59
4291.00,0.59
4290.00,0.59
4289.00,0.59
4288.00,0.59
4287.00,0.59
4286.00,0.59
4285.00,0.59
4284.00,0.59
4283.00,0.59
4282.00,0.59
4281.00,0.59
4280.00,0.59
4279.00,0.59
4278.00,0.59
4277.00,0.59
4276.00,0.59
4275.00,0.59
4274.00,0.58
4273.00,0.58
4272.00,0.58
4271.00,0.58
4270.00,0.58
4269.00,0.58
4268.00,0.58
4267.00,0.58
4266.00,0.58
4265.00,0.58
4264.00,0.58
4263.00,0.57
4262.00,0.57
4261.00,0.57
4260.00,0.57
4259.00,0.57
4258.00,0.57
4257.00,0.57
4256.00,0.57
4255.00,0.57
4254.00,0.57
4253.00,0.57
4252.00,0.57
4251.00,0.57
4250.00,0.57
4249.00,0.57
4248.00,0.57
4247.00,0.57
4246.00,0.57
4245.00,0.57
4244.00,0.57
4243.00,0.57
4242.00,0.57
4241.00,0.57
4240.00,0.57
4239.00,0.58
4238.00,0.58
4237.00,0.58
4236.00,0.58
4235.00,0.58
4234.00,0.59
4233.00,0.59
4232.00,0.59
4231.00,0.60
4230.00,0.60
4229.00,0.60
4228.00,0.61
4227.00,0.61
4226.00,0.61
4225.00,0.61
4224.00,0.62
4223.00,0.62
4222.00,0.62
4221.00,0.62
4220.00,0.62
4219.00,0.62
4218.00,0.62
4217.00,0.62
4216.00,0.63
4215.00,0.63
4214.00,0.63
4213.00,0.63
4212.00,0.62
4211.00,0.62
4210.00,0.62
4209.00,0.62
4208.00,0.62
4207.00,0.62
4206.00,0.61
4205.00,0.61
4204.00,0.61
4203.00,0.61
4202.00,0.60
4201.00,0.60
4200.00,0.60
4199.00,0.59
4198.00,0.59
4197.00,0.59
4196.00,0.59
4195.00,0.58
4194.00,0.58
4193.00,0.58
4192.00,0.58
4191.00,0.58
4190.00,0.58
4189.00,0.57
4188.00,0.57
4187.00,0.57
4186.00,0.57
4185.00,0.57
4184.00,0.57
4183.00,0.57
4182.00,0.57
4181.00,0.57
4180.00,0.57
4179.00,0.57
4178.00,0.57
4177.00,0.57
4176.00,0.57
4175.00,0.57
4174.00,0.58
4173.00,0.58
4172.00,0.58
4171.00,0.58
4170.00,0.58
4169.00,0.58
4168.00,0.58
4167.00,0.58
4166.00,0.59
4165.00,0.59
4164.00,0.59
4163.00,0.59
4162.00,0.59
4161.00,0.59
4160.00,0.59
4159.00,0.59
4158.00,0.59
4157.00,0.59
4156.00,0.59
4155.00,0.59
4154.00,0.59
4153.00,0.59
4152.00,0.59
4151.00,0.59
4150.00,0.59
4149.00,0.59
4148.00,0.59
4147.00,0.59
4146.00,0.59
4145.00,0.59
4144.00,0.59
4143.00,0.59
4142.00,0.59
4141.00,0.59
4140.00,0.59
4139.00,0.59
4138.00,0.59
4137.00,0.59
4136.00,0.59
4135.00,0.59
4134.00,0.59
4133.00,0.59
4132.00,0.59
4131.00,0.59
4130.00,0.59
4129.00,0.59
4128.00,0.59
4127.00,0.59
4126.00,0.59
4125.00,0.60
4124.00,0.60
4123.00,0.60
4122.00,0.60
4121.00,0.59
4120.00,0.59
4119.00,0.59
4118.00,0.59
4117.00,0.59
4116.00,0.59
4115.00,0.59
4114.00,0.59
4113.00,0.59
4112.00,0.58
4111.00,0.58
4110.00,0.58
4109.00,0.58
4108.00,0.58
4107.00,0.58
4106.00,0.58
4105.00,0.58
4104.00,0.57
4103.00,0.57
4102.00,0.57
4101.00,0.57
4100.00,0.57
4099.00,0.57
4098.00,0.57
4097.00,0.57
4096.00,0.57
4095.00,0.57
4094.00,0.57
4093.00,0.57
4092.00,0.57
4091.00,0.58
4090.00,0.58
4089.00,0.58
4088.00,0.58
4087.00,0.58
4086.00,0.59
4085.00,0.59
4084.00,0.59
4083.00,0.59
4082.00,0.59
4081.00,0.60
4080.00,0.60
4079.00,0.60
4078.00,0.60
4077.00,0.60
4076.00,0.60
4075.00,0.60
4074.00,0.61
4073.00,0.61
4072.00,0.61
4071.00,0.61
4070.00,0.61
4069.00,0.61
4068.00,0.61
4067.00,0.61
4066.00,0.61
4065.00,0.61
4064.00,0.61
4063.00,0.61
4062.00,0.61
4061.00,0.61
4060.00,0.61
4059.00,0.61
4058.00,0.60
4057.00,0.60
4056.00,0.60
4055.00,0.60
4054.00,0.60
4053.00,0.60
4052.00,0.60
4051.00,0.60
4050.00,0.60
4049.00,0.60
4048.00,0.60
4047.00,0.60
4046.00,0.60
4045.00,0.59
4044.00,0.59
4043.00,0.59
4042.00,0.59
4041.00,0.59
4040.00,0.59
4039.00,0.59
4038.00,0.59
4037.00,0.59
4036.00,0.59
4035.00,0.58
4034.00,0.58
4033.00,0.58
4032.00,0.58
4031.00,0.58
4030.00,0.58
4029.00,0.58
4028.00,0.58
4027.00,0.58
4026.00,0.58
4025.00,0.58
4024.00,0.58
4023.00,0.58
4022.00,0.59
4021.00,0.59
4020.00,0.59
4019.00,0.60
4018.00,0.60
4017.00,0.61
4016.00,0.62
4015.00,0.62
4014.00,0.63
4013.00,0.64
4012.00,0.64
4011.00,0.65
4010.00,0.66
4009.00,0.67
4008.00,0.68
4007.00,0.69
4006.00,0.70
4005.00,0.72
4004.00,0.73
4003.00,0.74
4002.00,0.75
4001.00,0.77
4000.00,0.78
