创建为新数据集,样品 008 用户 Administrator 日期 星期五, 七月 26 2019
cm-1,%T
10000.00,0.07
9999.00,0.12
9998.00,0.16
9997.00,0.21
9996.00,0.25
9995.00,0.30
9994.00,0.34
9993.00,0.38
9992.00,0.42
9991.00,0.46
9990.00,0.49
9989.00,0.52
9988.00,0.56
9987.00,0.58
9986.00,0.61
9985.00,0.63
9984.00,0.66
9983.00,0.68
9982.00,0.69
9981.00,0.71
9980.00,0.72
9979.00,0.73
9978.00,0.74
9977.00,0.75
9976.00,0.76
9975.00,0.77
9974.00,0.77
9973.00,0.78
9972.00,0.78
9971.00,0.78
9970.00,0.78
9969.00,0.79
9968.00,0.79
9967.00,0.79
9966.00,0.79
9965.00,0.79
9964.00,0.79
9963.00,0.79
9962.00,0.79
9961.00,0.79
9960.00,0.79
9959.00,0.80
9958.00,0.80
9957.00,0.80
9956.00,0.80
9955.00,0.80
9954.00,0.81
9953.00,0.81
9952.00,0.81
9951.00,0.81
9950.00,0.80
9949.00,0.80
9948.00,0.80
9947.00,0.80
9946.00,0.79
9945.00,0.79
9944.00,0.78
9943.00,0.78
9942.00,0.78
9941.00,0.78
9940.00,0.77
9939.00,0.77
9938.00,0.77
9937.00,0.77
9936.00,0.77
9935.00,0.77
9934.00,0.77
9933.00,0.77
9932.00,0.77
9931.00,0.77
9930.00,0.76
9929.00,0.77
9928.00,0.77
9927.00,0.77
9926.00,0.77
9925.00,0.77
9924.00,0.78
9923.00,0.78
9922.00,0.79
9921.00,0.80
9920.00,0.80
9919.00,0.81
9918.00,0.82
9917.00,0.82
9916.00,0.83
9915.00,0.83
9914.00,0.84
9913.00,0.84
9912.00,0.84
9911.00,0.85
9910.00,0.85
9909.00,0.85
9908.00,0.85
9907.00,0.85
9906.00,0.85
9905.00,0.85
9904.00,0.85
9903.00,0.85
9902.00,0.85
9901.00,0.85
9900.00,0.85
9899.00,0.85
9898.00,0.84
9897.00,0.84
9896.00,0.83
9895.00,0.82
9894.00,0.82
9893.00,0.81
9892.00,0.80
9891.00,0.80
9890.00,0.79
9889.00,0.79
9888.00,0.78
9887.00,0.78
9886.00,0.77
9885.00,0.77
9884.00,0.76
9883.00,0.76
9882.00,0.75
9881.00,0.75
9880.00,0.74
9879.00,0.74
9878.00,0.73
9877.00,0.73
9876.00,0.73
9875.00,0.72
9874.00,0.72
9873.00,0.72
9872.00,0.72
9871.00,0.72
9870.00,0.72
9869.00,0.73
9868.00,0.73
9867.00,0.73
9866.00,0.73
9865.00,0.73
9864.00,0.74
9863.00,0.74
9862.00,0.74
9861.00,0.74
9860.00,0.75
9859.00,0.75
9858.00,0.75
9857.00,0.76
9856.00,0.76
9855.00,0.77
9854.00,0.77
9853.00,0.78
9852.00,0.79
9851.00,0.79
9850.00,0.80
9849.00,0.80
9848.00,0.80
9847.00,0.81
9846.00,0.81
9845.00,0.82
9844.00,0.82
9843.00,0.83
9842.00,0.83
9841.00,0.84
9840.00,0.84
9839.00,0.85
9838.00,0.85
9837.00,0.86
9836.00,0.86
9835.00,0.87
9834.00,0.88
9833.00,0.88
9832.00,0.89
9831.00,0.89
9830.00,0.90
9829.00,0.90
9828.00,0.91
9827.00,0.92
9826.00,0.92
9825.00,0.93
9824.00,0.93
9823.00,0.93
9822.00,0.94
9821.00,0.94
9820.00,0.95
9819.00,0.95
9818.00,0.95
9817.00,0.96
9816.00,0.96
9815.00,0.96
9814.00,0.96
9813.00,0.97
9812.00,0.97
9811.00,0.97
9810.00,0.97
9809.00,0.97
9808.00,0.97
9807.00,0.97
9806.00,0.97
9805.00,0.96
9804.00,0.96
9803.00,0.96
9802.00,0.95
9801.00,0.95
9800.00,0.94
9799.00,0.94
9798.00,0.93
9797.00,0.93
9796.00,0.92
9795.00,0.92
9794.00,0.92
9793.00,0.92
9792.00,0.91
9791.00,0.91
9790.00,0.91
9789.00,0.90
9788.00,0.90
9787.00,0.89
9786.00,0.89
9785.00,0.88
9784.00,0.88
9783.00,0.87
9782.00,0.87
9781.00,0.86
9780.00,0.86
9779.00,0.86
9778.00,0.85
9777.00,0.85
9776.00,0.85
9775.00,0.85
9774.00,0.85
9773.00,0.85
9772.00,0.84
9771.00,0.84
9770.00,0.84
9769.00,0.83
9768.00,0.83
9767.00,0.83
9766.00,0.82
9765.00,0.82
9764.00,0.82
9763.00,0.81
9762.00,0.81
9761.00,0.81
9760.00,0.81
9759.00,0.81
9758.00,0.81
9757.00,0.81
9756.00,0.81
9755.00,0.81
9754.00,0.80
9753.00,0.80
9752.00,0.80
9751.00,0.80
9750.00,0.80
9749.00,0.80
9748.00,0.80
9747.00,0.79
9746.00,0.79
9745.00,0.79
9744.00,0.79
9743.00,0.79
9742.00,0.79
9741.00,0.79
9740.00,0.80
9739.00,0.80
9738.00,0.80
9737.00,0.80
9736.00,0.80
9735.00,0.80
9734.00,0.80
9733.00,0.80
9732.00,0.80
9731.00,0.80
9730.00,0.80
9729.00,0.81
9728.00,0.81
9727.00,0.81
9726.00,0.82
9725.00,0.82
9724.00,0.83
9723.00,0.83
9722.00,0.84
9721.00,0.84
9720.00,0.84
9719.00,0.85
9718.00,0.85
9717.00,0.85
9716.00,0.85
9715.00,0.86
9714.00,0.86
9713.00,0.86
9712.00,0.86
9711.00,0.86
9710.00,0.87
9709.00,0.87
9708.00,0.87
9707.00,0.87
9706.00,0.87
9705.00,0.87
9704.00,0.87
9703.00,0.87
9702.00,0.86
9701.00,0.86
9700.00,0.85
9699.00,0.85
9698.00,0.85
9697.00,0.84
9696.00,0.84
9695.00,0.83
9694.00,0.83
9693.00,0.82
9692.00,0.82
9691.00,0.82
9690.00,0.81
9689.00,0.81
9688.00,0.81
9687.00,0.81
9686.00,0.81
9685.00,0.80
9684.00,0.80
9683.00,0.80
9682.00,0.80
9681.00,0.79
9680.00,0.79
9679.00,0.79
9678.00,0.79
9677.00,0.79
9676.00,0.79
9675.00,0.79
9674.00,0.79
9673.00,0.79
9672.00,0.79
9671.00,0.80
9670.00,0.80
9669.00,0.80
9668.00,0.80
9667.00,0.80
9666.00,0.80
9665.00,0.80
9664.00,0.79
9663.00,0.79
9662.00,0.79
9661.00,0.78
9660.00,0.78
9659.00,0.78
9658.00,0.77
9657.00,0.77
9656.00,0.76
9655.00,0.76
9654.00,0.76
9653.00,0.75
9652.00,0.75
9651.00,0.74
9650.00,0.74
9649.00,0.73
9648.00,0.73
9647.00,0.72
9646.00,0.71
9645.00,0.71
9644.00,0.70
9643.00,0.70
9642.00,0.70
9641.00,0.69
9640.00,0.69
9639.00,0.69
9638.00,0.69
9637.00,0.69
9636.00,0.69
9635.00,0.69
9634.00,0.70
9633.00,0.70
9632.00,0.70
9631.00,0.71
9630.00,0.71
9629.00,0.71
9628.00,0.72
9627.00,0.72
9626.00,0.73
9625.00,0.73
9624.00,0.73
9623.00,0.74
9622.00,0.74
9621.00,0.75
9620.00,0.75
9619.00,0.75
9618.00,0.76
9617.00,0.76
9616.00,0.77
9615.00,0.77
9614.00,0.77
9613.00,0.77
9612.00,0.77
9611.00,0.78
9610.00,0.78
9609.00,0.78
9608.00,0.78
9607.00,0.77
9606.00,0.77
9605.00,0.77
9604.00,0.77
9603.00,0.77
9602.00,0.77
9601.00,0.77
9600.00,0.76
9599.00,0.76
9598.00,0.76
9597.00,0.76
9596.00,0.76
9595.00,0.76
9594.00,0.76
9593.00,0.76
9592.00,0.76
9591.00,0.75
9590.00,0.75
9589.00,0.75
9588.00,0.76
9587.00,0.76
9586.00,0.76
9585.00,0.76
9584.00,0.76
9583.00,0.77
9582.00,0.77
9581.00,0.77
9580.00,0.77
9579.00,0.78
9578.00,0.78
9577.00,0.78
9576.00,0.78
9575.00,0.78
9574.00,0.79
9573.00,0.79
9572.00,0.79
9571.00,0.79
9570.00,0.79
9569.00,0.79
9568.00,0.79
9567.00,0.79
9566.00,0.79
9565.00,0.79
9564.00,0.79
9563.00,0.79
9562.00,0.79
9561.00,0.79
9560.00,0.79
9559.00,0.78
9558.00,0.78
9557.00,0.78
9556.00,0.77
9555.00,0.77
9554.00,0.77
9553.00,0.77
9552.00,0.76
9551.00,0.76
9550.00,0.76
9549.00,0.76
9548.00,0.76
9547.00,0.76
9546.00,0.76
9545.00,0.76
9544.00,0.76
9543.00,0.76
9542.00,0.76
9541.00,0.75
9540.00,0.75
9539.00,0.75
9538.00,0.75
9537.00,0.75
9536.00,0.75
9535.00,0.75
9534.00,0.75
9533.00,0.75
9532.00,0.75
9531.00,0.75
9530.00,0.76
9529.00,0.76
9528.00,0.76
9527.00,0.76
9526.00,0.76
9525.00,0.76
9524.00,0.77
9523.00,0.77
9522.00,0.77
9521.00,0.77
9520.00,0.78
9519.00,0.78
9518.00,0.78
9517.00,0.79
9516.00,0.79
9515.00,0.80
9514.00,0.80
9513.00,0.81
9512.00,0.81
9511.00,0.81
9510.00,0.82
9509.00,0.82
9508.00,0.82
9507.00,0.82
9506.00,0.82
9505.00,0.82
9504.00,0.82
9503.00,0.82
9502.00,0.81
9501.00,0.81
9500.00,0.81
9499.00,0.81
9498.00,0.81
9497.00,0.80
9496.00,0.80
9495.00,0.80
9494.00,0.79
9493.00,0.79
9492.00,0.78
9491.00,0.77
9490.00,0.77
9489.00,0.76
9488.00,0.75
9487.00,0.75
9486.00,0.74
9485.00,0.74
9484.00,0.73
9483.00,0.73
9482.00,0.73
9481.00,0.73
9480.00,0.72
9479.00,0.72
9478.00,0.72
9477.00,0.72
9476.00,0.72
9475.00,0.72
9474.00,0.72
9473.00,0.72
9472.00,0.72
9471.00,0.73
9470.00,0.73
9469.00,0.73
9468.00,0.73
9467.00,0.73
9466.00,0.74
9465.00,0.74
9464.00,0.74
9463.00,0.75
9462.00,0.75
9461.00,0.76
9460.00,0.77
9459.00,0.78
9458.00,0.78
9457.00,0.79
9456.00,0.79
9455.00,0.80
9454.00,0.81
9453.00,0.81
9452.00,0.82
9451.00,0.82
9450.00,0.82
9449.00,0.83
9448.00,0.83
9447.00,0.84
9446.00,0.84
9445.00,0.84
9444.00,0.85
9443.00,0.85
9442.00,0.85
9441.00,0.85
9440.00,0.86
9439.00,0.86
9438.00,0.86
9437.00,0.86
9436.00,0.85
9435.00,0.85
9434.00,0.85
9433.00,0.85
9432.00,0.84
9431.00,0.84
9430.00,0.84
9429.00,0.83
9428.00,0.83
9427.00,0.82
9426.00,0.82
9425.00,0.81
9424.00,0.81
9423.00,0.81
9422.00,0.80
9421.00,0.80
9420.00,0.79
9419.00,0.79
9418.00,0.78
9417.00,0.78
9416.00,0.77
9415.00,0.77
9414.00,0.77
9413.00,0.76
9412.00,0.76
9411.00,0.76
9410.00,0.75
9409.00,0.75
9408.00,0.75
9407.00,0.74
9406.00,0.74
9405.00,0.74
9404.00,0.73
9403.00,0.73
9402.00,0.73
9401.00,0.73
9400.00,0.72
9399.00,0.72
9398.00,0.72
9397.00,0.72
9396.00,0.71
9395.00,0.71
9394.00,0.71
9393.00,0.71
9392.00,0.71
9391.00,0.70
9390.00,0.70
9389.00,0.70
9388.00,0.70
9387.00,0.70
9386.00,0.70
9385.00,0.70
9384.00,0.70
9383.00,0.69
9382.00,0.69
9381.00,0.69
9380.00,0.69
9379.00,0.69
9378.00,0.69
9377.00,0.69
9376.00,0.69
9375.00,0.69
9374.00,0.69
9373.00,0.69
9372.00,0.69
9371.00,0.69
9370.00,0.70
9369.00,0.70
9368.00,0.70
9367.00,0.70
9366.00,0.71
9365.00,0.71
9364.00,0.71
9363.00,0.72
9362.00,0.72
9361.00,0.72
9360.00,0.72
9359.00,0.73
9358.00,0.73
9357.00,0.73
9356.00,0.74
9355.00,0.74
9354.00,0.74
9353.00,0.75
9352.00,0.75
9351.00,0.76
9350.00,0.76
9349.00,0.77
9348.00,0.77
9347.00,0.78
9346.00,0.79
9345.00,0.79
9344.00,0.80
9343.00,0.80
9342.00,0.81
9341.00,0.82
9340.00,0.82
9339.00,0.83
9338.00,0.83
9337.00,0.83
9336.00,0.84
9335.00,0.84
9334.00,0.85
9333.00,0.85
9332.00,0.85
9331.00,0.86
9330.00,0.86
9329.00,0.86
9328.00,0.87
9327.00,0.87
9326.00,0.87
9325.00,0.87
9324.00,0.88
9323.00,0.88
9322.00,0.88
9321.00,0.88
9320.00,0.88
9319.00,0.87
9318.00,0.87
9317.00,0.87
9316.00,0.87
9315.00,0.86
9314.00,0.86
9313.00,0.86
9312.00,0.85
9311.00,0.85
9310.00,0.85
9309.00,0.84
9308.00,0.84
9307.00,0.84
9306.00,0.83
9305.00,0.83
9304.00,0.83
9303.00,0.82
9302.00,0.82
9301.00,0.82
9300.00,0.81
9299.00,0.81
9298.00,0.80
9297.00,0.80
9296.00,0.79
9295.00,0.79
9294.00,0.79
9293.00,0.79
9292.00,0.79
9291.00,0.79
9290.00,0.79
9289.00,0.79
9288.00,0.79
9287.00,0.79
9286.00,0.79
9285.00,0.79
9284.00,0.80
9283.00,0.80
9282.00,0.80
9281.00,0.80
9280.00,0.80
9279.00,0.81
9278.00,0.81
9277.00,0.81
9276.00,0.82
9275.00,0.82
9274.00,0.83
9273.00,0.83
9272.00,0.83
9271.00,0.84
9270.00,0.84
9269.00,0.85
9268.00,0.85
9267.00,0.85
9266.00,0.86
9265.00,0.86
9264.00,0.86
9263.00,0.86
9262.00,0.86
9261.00,0.86
9260.00,0.86
9259.00,0.85
9258.00,0.85
9257.00,0.85
9256.00,0.85
9255.00,0.85
9254.00,0.84
9253.00,0.84
9252.00,0.84
9251.00,0.83
9250.00,0.83
9249.00,0.83
9248.00,0.82
9247.00,0.82
9246.00,0.81
9245.00,0.80
9244.00,0.80
9243.00,0.79
9242.00,0.79
9241.00,0.78
9240.00,0.78
9239.00,0.77
9238.00,0.77
9237.00,0.76
9236.00,0.76
9235.00,0.75
9234.00,0.75
9233.00,0.75
9232.00,0.74
9231.00,0.74
9230.00,0.74
9229.00,0.74
9228.00,0.73
9227.00,0.73
9226.00,0.73
9225.00,0.73
9224.00,0.72
9223.00,0.72
9222.00,0.72
9221.00,0.72
9220.00,0.72
9219.00,0.72
9218.00,0.72
9217.00,0.72
9216.00,0.72
9215.00,0.73
9214.00,0.73
9213.00,0.73
9212.00,0.73
9211.00,0.73
9210.00,0.73
9209.00,0.73
9208.00,0.73
9207.00,0.73
9206.00,0.73
9205.00,0.73
9204.00,0.73
9203.00,0.73
9202.00,0.73
9201.00,0.72
9200.00,0.72
9199.00,0.72
9198.00,0.72
9197.00,0.72
9196.00,0.72
9195.00,0.71
9194.00,0.71
9193.00,0.71
9192.00,0.71
9191.00,0.70
9190.00,0.70
9189.00,0.70
9188.00,0.69
9187.00,0.69
9186.00,0.68
9185.00,0.68
9184.00,0.67
9183.00,0.67
9182.00,0.67
9181.00,0.66
9180.00,0.66
9179.00,0.66
9178.00,0.66
9177.00,0.66
9176.00,0.66
9175.00,0.66
9174.00,0.66
9173.00,0.66
9172.00,0.66
9171.00,0.66
9170.00,0.66
9169.00,0.66
9168.00,0.66
9167.00,0.66
9166.00,0.66
9165.00,0.66
9164.00,0.66
9163.00,0.67
9162.00,0.67
9161.00,0.67
9160.00,0.68
9159.00,0.68
9158.00,0.68
9157.00,0.69
9156.00,0.69
9155.00,0.70
9154.00,0.70
9153.00,0.70
9152.00,0.71
9151.00,0.71
9150.00,0.71
9149.00,0.72
9148.00,0.72
9147.00,0.72
9146.00,0.73
9145.00,0.73
9144.00,0.73
9143.00,0.73
9142.00,0.73
9141.00,0.73
9140.00,0.73
9139.00,0.74
9138.00,0.74
9137.00,0.74
9136.00,0.74
9135.00,0.74
9134.00,0.74
9133.00,0.74
9132.00,0.74
9131.00,0.74
9130.00,0.74
9129.00,0.74
9128.00,0.74
9127.00,0.74
9126.00,0.74
9125.00,0.74
9124.00,0.74
9123.00,0.75
9122.00,0.75
9121.00,0.75
9120.00,0.75
9119.00,0.75
9118.00,0.75
9117.00,0.76
9116.00,0.76
9115.00,0.76
9114.00,0.76
9113.00,0.76
9112.00,0.77
9111.00,0.77
9110.00,0.77
9109.00,0.77
9108.00,0.77
9107.00,0.77
9106.00,0.77
9105.00,0.77
9104.00,0.77
9103.00,0.77
9102.00,0.76
9101.00,0.76
9100.00,0.76
9099.00,0.76
9098.00,0.75
9097.00,0.75
9096.00,0.75
9095.00,0.74
9094.00,0.74
9093.00,0.74
9092.00,0.73
9091.00,0.73
9090.00,0.73
9089.00,0.72
9088.00,0.72
9087.00,0.72
9086.00,0.71
9085.00,0.71
9084.00,0.71
9083.00,0.71
9082.00,0.71
9081.00,0.71
9080.00,0.71
9079.00,0.71
9078.00,0.71
9077.00,0.71
9076.00,0.71
9075.00,0.71
9074.00,0.71
9073.00,0.71
9072.00,0.72
9071.00,0.72
9070.00,0.72
9069.00,0.72
9068.00,0.73
9067.00,0.73
9066.00,0.73
9065.00,0.73
9064.00,0.74
9063.00,0.74
9062.00,0.74
9061.00,0.74
9060.00,0.75
9059.00,0.75
9058.00,0.75
9057.00,0.75
9056.00,0.75
9055.00,0.75
9054.00,0.75
9053.00,0.75
9052.00,0.75
9051.00,0.76
9050.00,0.76
9049.00,0.76
9048.00,0.76
9047.00,0.76
9046.00,0.76
9045.00,0.76
9044.00,0.76
9043.00,0.75
9042.00,0.75
9041.00,0.75
9040.00,0.75
9039.00,0.75
9038.00,0.74
9037.00,0.74
9036.00,0.74
9035.00,0.74
9034.00,0.73
9033.00,0.73
9032.00,0.73
9031.00,0.73
9030.00,0.73
9029.00,0.73
9028.00,0.73
9027.00,0.73
9026.00,0.73
9025.00,0.73
9024.00,0.73
9023.00,0.73
9022.00,0.73
9021.00,0.73
9020.00,0.73
9019.00,0.73
9018.00,0.73
9017.00,0.74
9016.00,0.74
9015.00,0.74
9014.00,0.74
9013.00,0.74
9012.00,0.75
9011.00,0.75
9010.00,0.75
9009.00,0.76
9008.00,0.76
9007.00,0.77
9006.00,0.77
9005.00,0.77
9004.00,0.78
9003.00,0.78
9002.00,0.78
9001.00,0.78
9000.00,0.78
8999.00,0.79
8998.00,0.79
8997.00,0.79
8996.00,0.79
8995.00,0.79
8994.00,0.79
8993.00,0.79
8992.00,0.80
8991.00,0.80
8990.00,0.80
8989.00,0.80
8988.00,0.80
8987.00,0.81
8986.00,0.81
8985.00,0.81
8984.00,0.81
8983.00,0.81
8982.00,0.81
8981.00,0.81
8980.00,0.80
8979.00,0.80
8978.00,0.80
8977.00,0.80
8976.00,0.80
8975.00,0.80
8974.00,0.79
8973.00,0.79
8972.00,0.79
8971.00,0.79
8970.00,0.78
8969.00,0.78
8968.00,0.78
8967.00,0.77
8966.00,0.77
8965.00,0.77
8964.00,0.76
8963.00,0.76
8962.00,0.75
8961.00,0.75
8960.00,0.74
8959.00,0.74
8958.00,0.73
8957.00,0.73
8956.00,0.72
8955.00,0.72
8954.00,0.72
8953.00,0.71
8952.00,0.71
8951.00,0.70
8950.00,0.70
8949.00,0.70
8948.00,0.70
8947.00,0.70
8946.00,0.70
8945.00,0.70
8944.00,0.70
8943.00,0.70
8942.00,0.70
8941.00,0.70
8940.00,0.70
8939.00,0.70
8938.00,0.71
8937.00,0.71
8936.00,0.71
8935.00,0.71
8934.00,0.71
8933.00,0.72
8932.00,0.72
8931.00,0.72
8930.00,0.73
8929.00,0.73
8928.00,0.74
8927.00,0.74
8926.00,0.74
8925.00,0.75
8924.00,0.75
8923.00,0.76
8922.00,0.76
8921.00,0.76
8920.00,0.76
8919.00,0.76
8918.00,0.76
8917.00,0.76
8916.00,0.76
8915.00,0.76
8914.00,0.76
8913.00,0.76
8912.00,0.76
8911.00,0.76
8910.00,0.76
8909.00,0.76
8908.00,0.76
8907.00,0.76
8906.00,0.76
8905.00,0.76
8904.00,0.76
8903.00,0.76
8902.00,0.75
8901.00,0.75
8900.00,0.75
8899.00,0.74
8898.00,0.74
8897.00,0.73
8896.00,0.73
8895.00,0.73
8894.00,0.72
8893.00,0.72
8892.00,0.72
8891.00,0.71
8890.00,0.71
8889.00,0.71
8888.00,0.70
8887.00,0.70
8886.00,0.70
8885.00,0.69
8884.00,0.69
8883.00,0.68
8882.00,0.68
8881.00,0.68
8880.00,0.67
8879.00,0.67
8878.00,0.67
8877.00,0.67
8876.00,0.66
8875.00,0.66
8874.00,0.66
8873.00,0.66
8872.00,0.66
8871.00,0.66
8870.00,0.66
8869.00,0.66
8868.00,0.66
8867.00,0.66
8866.00,0.66
8865.00,0.66
8864.00,0.66
8863.00,0.66
8862.00,0.66
8861.00,0.67
8860.00,0.67
8859.00,0.67
8858.00,0.67
8857.00,0.67
8856.00,0.68
8855.00,0.68
8854.00,0.68
8853.00,0.68
8852.00,0.68
8851.00,0.68
8850.00,0.69
8849.00,0.69
8848.00,0.69
8847.00,0.69
8846.00,0.69
8845.00,0.69
8844.00,0.69
8843.00,0.70
8842.00,0.70
8841.00,0.70
8840.00,0.70
8839.00,0.71
8838.00,0.71
8837.00,0.71
8836.00,0.72
8835.00,0.72
8834.00,0.72
8833.00,0.73
8832.00,0.73
8831.00,0.73
8830.00,0.73
8829.00,0.74
8828.00,0.74
8827.00,0.74
8826.00,0.74
8825.00,0.75
8824.00,0.75
8823.00,0.75
8822.00,0.76
8821.00,0.76
8820.00,0.77
8819.00,0.77
8818.00,0.77
8817.00,0.78
8816.00,0.78
8815.00,0.78
8814.00,0.79
8813.00,0.79
8812.00,0.79
8811.00,0.79
8810.00,0.79
8809.00,0.79
8808.00,0.79
8807.00,0.80
8806.00,0.80
8805.00,0.80
8804.00,0.80
8803.00,0.80
8802.00,0.81
8801.00,0.81
8800.00,0.81
8799.00,0.81
8798.00,0.81
8797.00,0.82
8796.00,0.82
8795.00,0.82
8794.00,0.82
8793.00,0.81
8792.00,0.81
8791.00,0.81
8790.00,0.81
8789.00,0.81
8788.00,0.80
8787.00,0.80
8786.00,0.80
8785.00,0.80
8784.00,0.79
8783.00,0.79
8782.00,0.79
8781.00,0.79
8780.00,0.78
8779.00,0.78
8778.00,0.78
8777.00,0.77
8776.00,0.77
8775.00,0.76
8774.00,0.76
8773.00,0.75
8772.00,0.75
8771.00,0.74
8770.00,0.74
8769.00,0.73
8768.00,0.73
8767.00,0.72
8766.00,0.72
8765.00,0.71
8764.00,0.71
8763.00,0.71
8762.00,0.71
8761.00,0.70
8760.00,0.70
8759.00,0.70
8758.00,0.70
8757.00,0.70
8756.00,0.70
8755.00,0.70
8754.00,0.70
8753.00,0.70
8752.00,0.70
8751.00,0.70
8750.00,0.70
8749.00,0.70
8748.00,0.70
8747.00,0.70
8746.00,0.70
8745.00,0.71
8744.00,0.71
8743.00,0.71
8742.00,0.72
8741.00,0.72
8740.00,0.72
8739.00,0.73
8738.00,0.73
8737.00,0.73
8736.00,0.73
8735.00,0.73
8734.00,0.73
8733.00,0.73
8732.00,0.74
8731.00,0.74
8730.00,0.74
8729.00,0.74
8728.00,0.74
8727.00,0.74
8726.00,0.74
8725.00,0.74
8724.00,0.74
8723.00,0.74
8722.00,0.74
8721.00,0.74
8720.00,0.74
8719.00,0.74
8718.00,0.74
8717.00,0.74
8716.00,0.74
8715.00,0.74
8714.00,0.74
8713.00,0.74
8712.00,0.74
8711.00,0.74
8710.00,0.74
8709.00,0.74
8708.00,0.74
8707.00,0.74
8706.00,0.74
8705.00,0.74
8704.00,0.74
8703.00,0.74
8702.00,0.74
8701.00,0.74
8700.00,0.74
8699.00,0.74
8698.00,0.74
8697.00,0.74
8696.00,0.74
8695.00,0.74
8694.00,0.74
8693.00,0.74
8692.00,0.73
8691.00,0.73
8690.00,0.73
8689.00,0.73
8688.00,0.73
8687.00,0.73
8686.00,0.72
8685.00,0.72
8684.00,0.72
8683.00,0.72
8682.00,0.72
8681.00,0.72
8680.00,0.72
8679.00,0.72
8678.00,0.72
8677.00,0.72
8676.00,0.72
8675.00,0.72
8674.00,0.72
8673.00,0.72
8672.00,0.72
8671.00,0.72
8670.00,0.72
8669.00,0.72
8668.00,0.71
8667.00,0.71
8666.00,0.71
8665.00,0.71
8664.00,0.71
8663.00,0.71
8662.00,0.71
8661.00,0.71
8660.00,0.71
8659.00,0.72
8658.00,0.72
8657.00,0.72
8656.00,0.72
8655.00,0.72
8654.00,0.72
8653.00,0.73
8652.00,0.73
8651.00,0.73
8650.00,0.73
8649.00,0.74
8648.00,0.74
8647.00,0.74
8646.00,0.75
8645.00,0.75
8644.00,0.75
8643.00,0.76
8642.00,0.76
8641.00,0.76
8640.00,0.77
8639.00,0.77
8638.00,0.77
8637.00,0.77
8636.00,0.78
8635.00,0.78
8634.00,0.78
8633.00,0.78
8632.00,0.78
8631.00,0.78
8630.00,0.78
8629.00,0.78
8628.00,0.78
8627.00,0.78
8626.00,0.78
8625.00,0.78
8624.00,0.78
8623.00,0.78
8622.00,0.77
8621.00,0.77
8620.00,0.77
8619.00,0.77
8618.00,0.77
8617.00,0.77
8616.00,0.77
8615.00,0.76
8614.00,0.76
8613.00,0.76
8612.00,0.76
8611.00,0.76
8610.00,0.76
8609.00,0.75
8608.00,0.75
8607.00,0.75
8606.00,0.75
8605.00,0.75
8604.00,0.75
8603.00,0.75
8602.00,0.75
8601.00,0.75
8600.00,0.75
8599.00,0.76
8598.00,0.76
8597.00,0.76
8596.00,0.76
8595.00,0.76
8594.00,0.76
8593.00,0.76
8592.00,0.77
8591.00,0.77
8590.00,0.77
8589.00,0.77
8588.00,0.77
8587.00,0.77
8586.00,0.77
8585.00,0.77
8584.00,0.77
8583.00,0.78
8582.00,0.78
8581.00,0.78
8580.00,0.78
8579.00,0.78
8578.00,0.78
8577.00,0.78
8576.00,0.78
8575.00,0.78
8574.00,0.78
8573.00,0.78
8572.00,0.77
8571.00,0.77
8570.00,0.77
8569.00,0.77
8568.00,0.76
8567.00,0.76
8566.00,0.76
8565.00,0.75
8564.00,0.75
8563.00,0.75
8562.00,0.74
8561.00,0.74
8560.00,0.74
8559.00,0.74
8558.00,0.74
8557.00,0.73
8556.00,0.73
8555.00,0.73
8554.00,0.73
8553.00,0.73
8552.00,0.73
8551.00,0.73
8550.00,0.73
8549.00,0.73
8548.00,0.72
8547.00,0.72
8546.00,0.72
8545.00,0.72
8544.00,0.72
8543.00,0.72
8542.00,0.72
8541.00,0.72
8540.00,0.73
8539.00,0.73
8538.00,0.73
8537.00,0.73
8536.00,0.73
8535.00,0.73
8534.00,0.74
8533.00,0.74
8532.00,0.74
8531.00,0.74
8530.00,0.74
8529.00,0.73
8528.00,0.73
8527.00,0.73
8526.00,0.73
8525.00,0.73
8524.00,0.73
8523.00,0.73
8522.00,0.72
8521.00,0.72
8520.00,0.72
8519.00,0.72
8518.00,0.72
8517.00,0.72
8516.00,0.71
8515.00,0.71
8514.00,0.71
8513.00,0.71
8512.00,0.71
8511.00,0.70
8510.00,0.70
8509.00,0.70
8508.00,0.70
8507.00,0.70
8506.00,0.69
8505.00,0.69
8504.00,0.69
8503.00,0.69
8502.00,0.69
8501.00,0.69
8500.00,0.70
8499.00,0.70
8498.00,0.70
8497.00,0.70
8496.00,0.70
8495.00,0.70
8494.00,0.71
8493.00,0.71
8492.00,0.71
8491.00,0.71
8490.00,0.72
8489.00,0.72
8488.00,0.72
8487.00,0.72
8486.00,0.72
8485.00,0.73
8484.00,0.73
8483.00,0.73
8482.00,0.73
8481.00,0.73
8480.00,0.74
8479.00,0.74
8478.00,0.74
8477.00,0.74
8476.00,0.74
8475.00,0.74
8474.00,0.74
8473.00,0.74
8472.00,0.74
8471.00,0.73
8470.00,0.73
8469.00,0.73
8468.00,0.73
8467.00,0.73
8466.00,0.72
8465.00,0.72
8464.00,0.72
8463.00,0.72
8462.00,0.72
8461.00,0.72
8460.00,0.72
8459.00,0.72
8458.00,0.72
8457.00,0.72
8456.00,0.72
8455.00,0.72
8454.00,0.72
8453.00,0.72
8452.00,0.72
8451.00,0.72
8450.00,0.72
8449.00,0.72
8448.00,0.72
8447.00,0.72
8446.00,0.72
8445.00,0.73
8444.00,0.73
8443.00,0.73
8442.00,0.74
8441.00,0.74
8440.00,0.74
8439.00,0.74
8438.00,0.75
8437.00,0.75
8436.00,0.75
8435.00,0.75
8434.00,0.75
8433.00,0.75
8432.00,0.75
8431.00,0.75
8430.00,0.75
8429.00,0.75
8428.00,0.75
8427.00,0.75
8426.00,0.75
8425.00,0.74
8424.00,0.74
8423.00,0.74
8422.00,0.74
8421.00,0.74
8420.00,0.74
8419.00,0.73
8418.00,0.73
8417.00,0.73
8416.00,0.72
8415.00,0.72
8414.00,0.72
8413.00,0.72
8412.00,0.71
8411.00,0.71
8410.00,0.71
8409.00,0.71
8408.00,0.71
8407.00,0.71
8406.00,0.71
8405.00,0.71
8404.00,0.71
8403.00,0.71
8402.00,0.71
8401.00,0.70
8400.00,0.70
8399.00,0.70
8398.00,0.70
8397.00,0.70
8396.00,0.70
8395.00,0.70
8394.00,0.70
8393.00,0.70
8392.00,0.70
8391.00,0.70
8390.00,0.70
8389.00,0.71
8388.00,0.71
8387.00,0.71
8386.00,0.71
8385.00,0.71
8384.00,0.71
8383.00,0.71
8382.00,0.71
8381.00,0.71
8380.00,0.71
8379.00,0.71
8378.00,0.71
8377.00,0.71
8376.00,0.71
8375.00,0.71
8374.00,0.71
8373.00,0.72
8372.00,0.72
8371.00,0.72
8370.00,0.73
8369.00,0.73
8368.00,0.73
8367.00,0.74
8366.00,0.74
8365.00,0.74
8364.00,0.74
8363.00,0.75
8362.00,0.75
8361.00,0.75
8360.00,0.75
8359.00,0.76
8358.00,0.76
8357.00,0.76
8356.00,0.76
8355.00,0.77
8354.00,0.77
8353.00,0.77
8352.00,0.77
8351.00,0.77
8350.00,0.78
8349.00,0.78
8348.00,0.78
8347.00,0.78
8346.00,0.78
8345.00,0.78
8344.00,0.77
8343.00,0.77
8342.00,0.77
8341.00,0.77
8340.00,0.77
8339.00,0.77
8338.00,0.77
8337.00,0.76
8336.00,0.76
8335.00,0.76
8334.00,0.76
8333.00,0.76
8332.00,0.76
8331.00,0.76
8330.00,0.76
8329.00,0.76
8328.00,0.76
8327.00,0.76
8326.00,0.76
8325.00,0.76
8324.00,0.76
8323.00,0.76
8322.00,0.76
8321.00,0.75
8320.00,0.75
8319.00,0.75
8318.00,0.75
8317.00,0.75
8316.00,0.75
8315.00,0.74
8314.00,0.74
8313.00,0.74
8312.00,0.74
8311.00,0.74
8310.00,0.73
8309.00,0.73
8308.00,0.73
8307.00,0.73
8306.00,0.72
8305.00,0.72
8304.00,0.72
8303.00,0.71
8302.00,0.71
8301.00,0.71
8300.00,0.70
8299.00,0.70
8298.00,0.70
8297.00,0.69
8296.00,0.69
8295.00,0.69
8294.00,0.69
8293.00,0.69
8292.00,0.69
8291.00,0.68
8290.00,0.68
8289.00,0.68
8288.00,0.68
8287.00,0.68
8286.00,0.68
8285.00,0.68
8284.00,0.69
8283.00,0.69
8282.00,0.69
8281.00,0.69
8280.00,0.69
8279.00,0.69
8278.00,0.69
8277.00,0.69
8276.00,0.70
8275.00,0.70
8274.00,0.70
8273.00,0.70
8272.00,0.70
8271.00,0.71
8270.00,0.71
8269.00,0.71
8268.00,0.71
8267.00,0.72
8266.00,0.72
8265.00,0.72
8264.00,0.72
8263.00,0.72
8262.00,0.72
8261.00,0.72
8260.00,0.72
8259.00,0.72
8258.00,0.72
8257.00,0.72
8256.00,0.72
8255.00,0.72
8254.00,0.72
8253.00,0.72
8252.00,0.72
8251.00,0.72
8250.00,0.72
8249.00,0.72
8248.00,0.72
8247.00,0.72
8246.00,0.72
8245.00,0.72
8244.00,0.72
8243.00,0.72
8242.00,0.71
8241.00,0.71
8240.00,0.71
8239.00,0.71
8238.00,0.72
8237.00,0.72
8236.00,0.72
8235.00,0.72
8234.00,0.72
8233.00,0.72
8232.00,0.72
8231.00,0.73
8230.00,0.73
8229.00,0.73
8228.00,0.73
8227.00,0.74
8226.00,0.74
8225.00,0.74
8224.00,0.74
8223.00,0.75
8222.00,0.75
8221.00,0.75
8220.00,0.75
8219.00,0.75
8218.00,0.75
8217.00,0.75
8216.00,0.76
8215.00,0.76
8214.00,0.76
8213.00,0.76
8212.00,0.76
8211.00,0.76
8210.00,0.76
8209.00,0.76
8208.00,0.76
8207.00,0.76
8206.00,0.75
8205.00,0.75
8204.00,0.75
8203.00,0.75
8202.00,0.75
8201.00,0.75
8200.00,0.75
8199.00,0.75
8198.00,0.75
8197.00,0.75
8196.00,0.75
8195.00,0.75
8194.00,0.75
8193.00,0.75
8192.00,0.75
8191.00,0.76
8190.00,0.76
8189.00,0.76
8188.00,0.76
8187.00,0.77
8186.00,0.77
8185.00,0.77
8184.00,0.77
8183.00,0.77
8182.00,0.78
8181.00,0.78
8180.00,0.78
8179.00,0.78
8178.00,0.78
8177.00,0.78
8176.00,0.78
8175.00,0.78
8174.00,0.79
8173.00,0.79
8172.00,0.79
8171.00,0.79
8170.00,0.79
8169.00,0.79
8168.00,0.79
8167.00,0.79
8166.00,0.79
8165.00,0.79
8164.00,0.79
8163.00,0.78
8162.00,0.78
8161.00,0.78
8160.00,0.78
8159.00,0.78
8158.00,0.78
8157.00,0.78
8156.00,0.78
8155.00,0.77
8154.00,0.77
8153.00,0.77
8152.00,0.77
8151.00,0.77
8150.00,0.77
8149.00,0.77
8148.00,0.76
8147.00,0.76
8146.00,0.76
8145.00,0.76
8144.00,0.76
8143.00,0.75
8142.00,0.75
8141.00,0.75
8140.00,0.75
8139.00,0.75
8138.00,0.75
8137.00,0.75
8136.00,0.75
8135.00,0.75
8134.00,0.75
8133.00,0.75
8132.00,0.75
8131.00,0.74
8130.00,0.74
8129.00,0.74
8128.00,0.74
8127.00,0.74
8126.00,0.74
8125.00,0.74
8124.00,0.74
8123.00,0.74
8122.00,0.74
8121.00,0.75
8120.00,0.75
8119.00,0.75
8118.00,0.75
8117.00,0.75
8116.00,0.75
8115.00,0.75
8114.00,0.75
8113.00,0.75
8112.00,0.76
8111.00,0.76
8110.00,0.76
8109.00,0.76
8108.00,0.76
8107.00,0.76
8106.00,0.76
8105.00,0.76
8104.00,0.76
8103.00,0.77
8102.00,0.77
8101.00,0.77
8100.00,0.77
8099.00,0.77
8098.00,0.77
8097.00,0.77
8096.00,0.78
8095.00,0.78
8094.00,0.78
8093.00,0.78
8092.00,0.78
8091.00,0.78
8090.00,0.78
8089.00,0.78
8088.00,0.78
8087.00,0.79
8086.00,0.79
8085.00,0.79
8084.00,0.79
8083.00,0.80
8082.00,0.80
8081.00,0.80
8080.00,0.80
8079.00,0.80
8078.00,0.80
8077.00,0.80
8076.00,0.80
8075.00,0.80
8074.00,0.80
8073.00,0.80
8072.00,0.80
8071.00,0.80
8070.00,0.80
8069.00,0.80
8068.00,0.80
8067.00,0.80
8066.00,0.80
8065.00,0.80
8064.00,0.79
8063.00,0.79
8062.00,0.79
8061.00,0.78
8060.00,0.78
8059.00,0.78
8058.00,0.77
8057.00,0.77
8056.00,0.76
8055.00,0.75
8054.00,0.75
8053.00,0.74
8052.00,0.74
8051.00,0.73
8050.00,0.73
8049.00,0.72
8048.00,0.72
8047.00,0.71
8046.00,0.71
8045.00,0.71
8044.00,0.70
8043.00,0.70
8042.00,0.70
8041.00,0.69
8040.00,0.69
8039.00,0.69
8038.00,0.68
8037.00,0.68
8036.00,0.68
8035.00,0.68
8034.00,0.68
8033.00,0.68
8032.00,0.68
8031.00,0.69
8030.00,0.69
8029.00,0.69
8028.00,0.70
8027.00,0.70
8026.00,0.70
8025.00,0.71
8024.00,0.71
8023.00,0.72
8022.00,0.72
8021.00,0.72
8020.00,0.73
8019.00,0.73
8018.00,0.74
8017.00,0.74
8016.00,0.74
8015.00,0.75
8014.00,0.75
8013.00,0.76
8012.00,0.76
8011.00,0.77
8010.00,0.77
8009.00,0.77
8008.00,0.78
8007.00,0.78
8006.00,0.78
8005.00,0.79
8004.00,0.79
8003.00,0.79
8002.00,0.80
8001.00,0.80
8000.00,0.80
7999.00,0.80
7998.00,0.81
7997.00,0.81
7996.00,0.81
7995.00,0.81
7994.00,0.82
7993.00,0.82
7992.00,0.82
7991.00,0.82
7990.00,0.82
7989.00,0.82
7988.00,0.82
7987.00,0.82
7986.00,0.82
7985.00,0.82
7984.00,0.82
7983.00,0.82
7982.00,0.82
7981.00,0.82
7980.00,0.82
7979.00,0.82
7978.00,0.82
7977.00,0.82
7976.00,0.82
7975.00,0.82
7974.00,0.82
7973.00,0.82
7972.00,0.82
7971.00,0.82
7970.00,0.82
7969.00,0.82
7968.00,0.82
7967.00,0.82
7966.00,0.82
7965.00,0.82
7964.00,0.82
7963.00,0.82
7962.00,0.82
7961.00,0.82
7960.00,0.82
7959.00,0.82
7958.00,0.82
7957.00,0.82
7956.00,0.82
7955.00,0.82
7954.00,0.82
7953.00,0.82
7952.00,0.82
7951.00,0.82
7950.00,0.82
7949.00,0.82
7948.00,0.82
7947.00,0.81
7946.00,0.81
7945.00,0.81
7944.00,0.81
7943.00,0.80
7942.00,0.80
7941.00,0.80
7940.00,0.79
7939.00,0.79
7938.00,0.79
7937.00,0.78
7936.00,0.78
7935.00,0.78
7934.00,0.77
7933.00,0.77
7932.00,0.77
7931.00,0.76
7930.00,0.76
7929.00,0.76
7928.00,0.76
7927.00,0.76
7926.00,0.75
7925.00,0.75
7924.00,0.75
7923.00,0.75
7922.00,0.75
7921.00,0.75
7920.00,0.75
7919.00,0.75
7918.00,0.75
7917.00,0.75
7916.00,0.75
7915.00,0.75
7914.00,0.76
7913.00,0.76
7912.00,0.76
7911.00,0.76
7910.00,0.76
7909.00,0.77
7908.00,0.77
7907.00,0.77
7906.00,0.78
7905.00,0.78
7904.00,0.78
7903.00,0.78
7902.00,0.79
7901.00,0.79
7900.00,0.79
7899.00,0.79
7898.00,0.79
7897.00,0.80
7896.00,0.80
7895.00,0.80
7894.00,0.80
7893.00,0.81
7892.00,0.81
7891.00,0.81
7890.00,0.82
7889.00,0.82
7888.00,0.82
7887.00,0.82
7886.00,0.82
7885.00,0.83
7884.00,0.83
7883.00,0.83
7882.00,0.83
7881.00,0.83
7880.00,0.83
7879.00,0.84
7878.00,0.84
7877.00,0.84
7876.00,0.84
7875.00,0.84
7874.00,0.84
7873.00,0.84
7872.00,0.84
7871.00,0.84
7870.00,0.84
7869.00,0.84
7868.00,0.84
7867.00,0.84
7866.00,0.84
7865.00,0.84
7864.00,0.84
7863.00,0.84
7862.00,0.84
7861.00,0.84
7860.00,0.84
7859.00,0.84
7858.00,0.83
7857.00,0.83
7856.00,0.83
7855.00,0.83
7854.00,0.83
7853.00,0.82
7852.00,0.82
7851.00,0.82
7850.00,0.81
7849.00,0.81
7848.00,0.81
7847.00,0.81
7846.00,0.81
7845.00,0.80
7844.00,0.80
7843.00,0.80
7842.00,0.80
7841.00,0.80
7840.00,0.80
7839.00,0.79
7838.00,0.79
7837.00,0.79
7836.00,0.79
7835.00,0.79
7834.00,0.79
7833.00,0.79
7832.00,0.79
7831.00,0.79
7830.00,0.79
7829.00,0.79
7828.00,0.79
7827.00,0.80
7826.00,0.80
7825.00,0.80
7824.00,0.80
7823.00,0.80
7822.00,0.80
7821.00,0.80
7820.00,0.81
7819.00,0.81
7818.00,0.81
7817.00,0.81
7816.00,0.81
7815.00,0.81
7814.00,0.81
7813.00,0.81
7812.00,0.81
7811.00,0.82
7810.00,0.82
7809.00,0.82
7808.00,0.82
7807.00,0.82
7806.00,0.82
7805.00,0.82
7804.00,0.83
7803.00,0.83
7802.00,0.83
7801.00,0.83
7800.00,0.83
7799.00,0.83
7798.00,0.83
7797.00,0.83
7796.00,0.83
7795.00,0.83
7794.00,0.83
7793.00,0.84
7792.00,0.84
7791.00,0.84
7790.00,0.84
7789.00,0.84
7788.00,0.84
7787.00,0.84
7786.00,0.84
7785.00,0.84
7784.00,0.84
7783.00,0.84
7782.00,0.84
7781.00,0.84
7780.00,0.83
7779.00,0.83
7778.00,0.83
7777.00,0.83
7776.00,0.83
7775.00,0.83
7774.00,0.82
7773.00,0.82
7772.00,0.82
7771.00,0.82
7770.00,0.82
7769.00,0.82
7768.00,0.82
7767.00,0.81
7766.00,0.81
7765.00,0.81
7764.00,0.81
7763.00,0.81
7762.00,0.81
7761.00,0.81
7760.00,0.81
7759.00,0.81
7758.00,0.81
7757.00,0.81
7756.00,0.81
7755.00,0.81
7754.00,0.81
7753.00,0.81
7752.00,0.81
7751.00,0.81
7750.00,0.81
7749.00,0.82
7748.00,0.82
7747.00,0.82
7746.00,0.82
7745.00,0.82
7744.00,0.82
7743.00,0.82
7742.00,0.82
7741.00,0.82
7740.00,0.83
7739.00,0.83
7738.00,0.83
7737.00,0.83
7736.00,0.83
7735.00,0.83
7734.00,0.83
7733.00,0.83
7732.00,0.83
7731.00,0.83
7730.00,0.83
7729.00,0.83
7728.00,0.83
7727.00,0.83
7726.00,0.83
7725.00,0.83
7724.00,0.82
7723.00,0.82
7722.00,0.82
7721.00,0.82
7720.00,0.82
7719.00,0.82
7718.00,0.82
7717.00,0.82
7716.00,0.82
7715.00,0.81
7714.00,0.81
7713.00,0.81
7712.00,0.81
7711.00,0.81
7710.00,0.81
7709.00,0.81
7708.00,0.81
7707.00,0.81
7706.00,0.80
7705.00,0.80
7704.00,0.80
7703.00,0.80
7702.00,0.80
7701.00,0.80
7700.00,0.80
7699.00,0.79
7698.00,0.79
7697.00,0.79
7696.00,0.79
7695.00,0.79
7694.00,0.79
7693.00,0.79
7692.00,0.79
7691.00,0.79
7690.00,0.79
7689.00,0.79
7688.00,0.79
7687.00,0.79
7686.00,0.79
7685.00,0.80
7684.00,0.80
7683.00,0.80
7682.00,0.80
7681.00,0.80
7680.00,0.81
7679.00,0.81
7678.00,0.81
7677.00,0.82
7676.00,0.82
7675.00,0.83
7674.00,0.83
7673.00,0.84
7672.00,0.84
7671.00,0.84
7670.00,0.85
7669.00,0.85
7668.00,0.85
7667.00,0.85
7666.00,0.86
7665.00,0.86
7664.00,0.86
7663.00,0.86
7662.00,0.86
7661.00,0.86
7660.00,0.86
7659.00,0.86
7658.00,0.86
7657.00,0.86
7656.00,0.85
7655.00,0.85
7654.00,0.85
7653.00,0.85
7652.00,0.85
7651.00,0.84
7650.00,0.84
7649.00,0.84
7648.00,0.84
7647.00,0.83
7646.00,0.83
7645.00,0.83
7644.00,0.83
7643.00,0.82
7642.00,0.82
7641.00,0.82
7640.00,0.82
7639.00,0.82
7638.00,0.82
7637.00,0.82
7636.00,0.82
7635.00,0.82
7634.00,0.82
7633.00,0.82
7632.00,0.82
7631.00,0.82
7630.00,0.82
7629.00,0.82
7628.00,0.82
7627.00,0.82
7626.00,0.82
7625.00,0.82
7624.00,0.82
7623.00,0.82
7622.00,0.82
7621.00,0.82
7620.00,0.83
7619.00,0.82
7618.00,0.82
7617.00,0.82
7616.00,0.82
7615.00,0.82
7614.00,0.82
7613.00,0.82
7612.00,0.82
7611.00,0.82
7610.00,0.81
7609.00,0.81
7608.00,0.81
7607.00,0.81
7606.00,0.81
7605.00,0.81
7604.00,0.81
7603.00,0.81
7602.00,0.81
7601.00,0.81
7600.00,0.81
7599.00,0.81
7598.00,0.81
7597.00,0.81
7596.00,0.81
7595.00,0.81
7594.00,0.81
7593.00,0.81
7592.00,0.81
7591.00,0.81
7590.00,0.81
7589.00,0.81
7588.00,0.81
7587.00,0.81
7586.00,0.81
7585.00,0.81
7584.00,0.81
7583.00,0.81
7582.00,0.81
7581.00,0.81
7580.00,0.81
7579.00,0.81
7578.00,0.81
7577.00,0.81
7576.00,0.81
7575.00,0.81
7574.00,0.81
7573.00,0.81
7572.00,0.81
7571.00,0.81
7570.00,0.81
7569.00,0.82
7568.00,0.82
7567.00,0.82
7566.00,0.82
7565.00,0.82
7564.00,0.82
7563.00,0.82
7562.00,0.82
7561.00,0.82
7560.00,0.82
7559.00,0.82
7558.00,0.82
7557.00,0.82
7556.00,0.82
7555.00,0.82
7554.00,0.83
7553.00,0.83
7552.00,0.83
7551.00,0.83
7550.00,0.83
7549.00,0.83
7548.00,0.83
7547.00,0.83
7546.00,0.83
7545.00,0.83
7544.00,0.84
7543.00,0.84
7542.00,0.84
7541.00,0.84
7540.00,0.84
7539.00,0.83
7538.00,0.83
7537.00,0.83
7536.00,0.83
7535.00,0.83
7534.00,0.83
7533.00,0.83
7532.00,0.83
7531.00,0.83
7530.00,0.83
7529.00,0.83
7528.00,0.83
7527.00,0.83
7526.00,0.83
7525.00,0.83
7524.00,0.83
7523.00,0.83
7522.00,0.83
7521.00,0.83
7520.00,0.83
7519.00,0.83
7518.00,0.83
7517.00,0.83
7516.00,0.82
7515.00,0.82
7514.00,0.82
7513.00,0.82
7512.00,0.82
7511.00,0.82
7510.00,0.82
7509.00,0.82
7508.00,0.82
7507.00,0.82
7506.00,0.81
7505.00,0.81
7504.00,0.81
7503.00,0.81
7502.00,0.80
7501.00,0.80
7500.00,0.80
7499.00,0.79
7498.00,0.79
7497.00,0.79
7496.00,0.79
7495.00,0.78
7494.00,0.78
7493.00,0.78
7492.00,0.78
7491.00,0.77
7490.00,0.77
7489.00,0.77
7488.00,0.77
7487.00,0.77
7486.00,0.77
7485.00,0.77
7484.00,0.77
7483.00,0.77
7482.00,0.77
7481.00,0.77
7480.00,0.77
7479.00,0.77
7478.00,0.77
7477.00,0.78
7476.00,0.78
7475.00,0.78
7474.00,0.78
7473.00,0.78
7472.00,0.79
7471.00,0.79
7470.00,0.79
7469.00,0.80
7468.00,0.80
7467.00,0.80
7466.00,0.80
7465.00,0.81
7464.00,0.81
7463.00,0.81
7462.00,0.81
7461.00,0.81
7460.00,0.81
7459.00,0.82
7458.00,0.82
7457.00,0.82
7456.00,0.82
7455.00,0.82
7454.00,0.82
7453.00,0.82
7452.00,0.82
7451.00,0.82
7450.00,0.82
7449.00,0.82
7448.00,0.82
7447.00,0.82
7446.00,0.82
7445.00,0.82
7444.00,0.82
7443.00,0.82
7442.00,0.82
7441.00,0.82
7440.00,0.82
7439.00,0.82
7438.00,0.81
7437.00,0.81
7436.00,0.81
7435.00,0.81
7434.00,0.81
7433.00,0.81
7432.00,0.81
7431.00,0.81
7430.00,0.81
7429.00,0.81
7428.00,0.81
7427.00,0.81
7426.00,0.81
7425.00,0.81
7424.00,0.81
7423.00,0.81
7422.00,0.81
7421.00,0.81
7420.00,0.81
7419.00,0.81
7418.00,0.81
7417.00,0.81
7416.00,0.81
7415.00,0.81
7414.00,0.81
7413.00,0.81
7412.00,0.81
7411.00,0.81
7410.00,0.81
7409.00,0.81
7408.00,0.81
7407.00,0.81
7406.00,0.81
7405.00,0.81
7404.00,0.81
7403.00,0.81
7402.00,0.81
7401.00,0.81
7400.00,0.81
7399.00,0.81
7398.00,0.81
7397.00,0.81
7396.00,0.81
7395.00,0.81
7394.00,0.81
7393.00,0.81
7392.00,0.81
7391.00,0.81
7390.00,0.81
7389.00,0.81
7388.00,0.81
7387.00,0.81
7386.00,0.81
7385.00,0.81
7384.00,0.81
7383.00,0.81
7382.00,0.81
7381.00,0.81
7380.00,0.80
7379.00,0.80
7378.00,0.80
7377.00,0.80
7376.00,0.80
7375.00,0.80
7374.00,0.80
7373.00,0.80
7372.00,0.79
7371.00,0.79
7370.00,0.79
7369.00,0.79
7368.00,0.79
7367.00,0.79
7366.00,0.79
7365.00,0.78
7364.00,0.78
7363.00,0.78
7362.00,0.78
7361.00,0.78
7360.00,0.78
7359.00,0.77
7358.00,0.77
7357.00,0.77
7356.00,0.77
7355.00,0.77
7354.00,0.77
7353.00,0.77
7352.00,0.77
7351.00,0.77
7350.00,0.77
7349.00,0.78
7348.00,0.78
7347.00,0.78
7346.00,0.78
7345.00,0.78
7344.00,0.78
7343.00,0.78
7342.00,0.78
7341.00,0.78
7340.00,0.79
7339.00,0.79
7338.00,0.79
7337.00,0.79
7336.00,0.79
7335.00,0.79
7334.00,0.79
7333.00,0.79
7332.00,0.80
7331.00,0.80
7330.00,0.80
7329.00,0.80
7328.00,0.80
7327.00,0.80
7326.00,0.80
7325.00,0.80
7324.00,0.80
7323.00,0.80
7322.00,0.80
7321.00,0.80
7320.00,0.80
7319.00,0.79
7318.00,0.79
7317.00,0.79
7316.00,0.79
7315.00,0.79
7314.00,0.79
7313.00,0.79
7312.00,0.79
7311.00,0.78
7310.00,0.78
7309.00,0.78
7308.00,0.78
7307.00,0.78
7306.00,0.78
7305.00,0.77
7304.00,0.77
7303.00,0.77
7302.00,0.77
7301.00,0.77
7300.00,0.76
7299.00,0.76
7298.00,0.76
7297.00,0.76
7296.00,0.75
7295.00,0.75
7294.00,0.75
7293.00,0.75
7292.00,0.75
7291.00,0.75
7290.00,0.75
7289.00,0.75
7288.00,0.75
7287.00,0.75
7286.00,0.74
7285.00,0.74
7284.00,0.74
7283.00,0.74
7282.00,0.74
7281.00,0.74
7280.00,0.73
7279.00,0.73
7278.00,0.73
7277.00,0.73
7276.00,0.73
7275.00,0.73
7274.00,0.73
7273.00,0.73
7272.00,0.73
7271.00,0.73
7270.00,0.73
7269.00,0.73
7268.00,0.73
7267.00,0.73
7266.00,0.73
7265.00,0.73
7264.00,0.73
7263.00,0.73
7262.00,0.73
7261.00,0.73
7260.00,0.73
7259.00,0.73
7258.00,0.73
7257.00,0.73
7256.00,0.73
7255.00,0.73
7254.00,0.73
7253.00,0.73
7252.00,0.73
7251.00,0.73
7250.00,0.73
7249.00,0.73
7248.00,0.73
7247.00,0.73
7246.00,0.73
7245.00,0.73
7244.00,0.73
7243.00,0.73
7242.00,0.73
7241.00,0.73
7240.00,0.72
7239.00,0.72
7238.00,0.72
7237.00,0.72
7236.00,0.72
7235.00,0.72
7234.00,0.72
7233.00,0.72
7232.00,0.72
7231.00,0.72
7230.00,0.72
7229.00,0.72
7228.00,0.72
7227.00,0.72
7226.00,0.71
7225.00,0.71
7224.00,0.71
7223.00,0.71
7222.00,0.71
7221.00,0.70
7220.00,0.70
7219.00,0.70
7218.00,0.70
7217.00,0.70
7216.00,0.69
7215.00,0.69
7214.00,0.69
7213.00,0.69
7212.00,0.68
7211.00,0.68
7210.00,0.68
7209.00,0.68
7208.00,0.67
7207.00,0.67
7206.00,0.67
7205.00,0.66
7204.00,0.66
7203.00,0.66
7202.00,0.65
7201.00,0.65
7200.00,0.65
7199.00,0.65
7198.00,0.64
7197.00,0.64
7196.00,0.64
7195.00,0.63
7194.00,0.63
7193.00,0.63
7192.00,0.63
7191.00,0.63
7190.00,0.63
7189.00,0.62
7188.00,0.62
7187.00,0.62
7186.00,0.62
7185.00,0.62
7184.00,0.62
7183.00,0.62
7182.00,0.62
7181.00,0.62
7180.00,0.62
7179.00,0.62
7178.00,0.62
7177.00,0.61
7176.00,0.61
7175.00,0.61
7174.00,0.61
7173.00,0.61
7172.00,0.61
7171.00,0.61
7170.00,0.61
7169.00,0.61
7168.00,0.61
7167.00,0.61
7166.00,0.60
7165.00,0.60
7164.00,0.60
7163.00,0.60
7162.00,0.59
7161.00,0.59
7160.00,0.59
7159.00,0.59
7158.00,0.58
7157.00,0.58
7156.00,0.58
7155.00,0.58
7154.00,0.58
7153.00,0.57
7152.00,0.57
7151.00,0.57
7150.00,0.57
7149.00,0.57
7148.00,0.57
7147.00,0.56
7146.00,0.56
7145.00,0.56
7144.00,0.56
7143.00,0.56
7142.00,0.56
7141.00,0.56
7140.00,0.56
7139.00,0.56
7138.00,0.56
7137.00,0.56
7136.00,0.56
7135.00,0.56
7134.00,0.56
7133.00,0.56
7132.00,0.56
7131.00,0.56
7130.00,0.56
7129.00,0.56
7128.00,0.56
7127.00,0.56
7126.00,0.56
7125.00,0.56
7124.00,0.56
7123.00,0.56
7122.00,0.56
7121.00,0.56
7120.00,0.56
7119.00,0.56
7118.00,0.56
7117.00,0.56
7116.00,0.56
7115.00,0.56
7114.00,0.56
7113.00,0.56
7112.00,0.56
7111.00,0.56
7110.00,0.56
7109.00,0.56
7108.00,0.56
7107.00,0.56
7106.00,0.56
7105.00,0.56
7104.00,0.56
7103.00,0.55
7102.00,0.55
7101.00,0.55
7100.00,0.55
7099.00,0.55
7098.00,0.54
7097.00,0.54
7096.00,0.54
7095.00,0.53
7094.00,0.53
7093.00,0.53
7092.00,0.52
7091.00,0.52
7090.00,0.52
7089.00,0.51
7088.00,0.51
7087.00,0.51
7086.00,0.50
7085.00,0.50
7084.00,0.50
7083.00,0.49
7082.00,0.49
7081.00,0.49
7080.00,0.49
7079.00,0.48
7078.00,0.48
7077.00,0.48
7076.00,0.47
7075.00,0.47
7074.00,0.47
7073.00,0.47
7072.00,0.47
7071.00,0.46
7070.00,0.46
7069.00,0.46
7068.00,0.46
7067.00,0.46
7066.00,0.46
7065.00,0.46
7064.00,0.46
7063.00,0.46
7062.00,0.46
7061.00,0.46
7060.00,0.45
7059.00,0.45
7058.00,0.45
7057.00,0.45
7056.00,0.45
7055.00,0.45
7054.00,0.45
7053.00,0.44
7052.00,0.44
7051.00,0.44
7050.00,0.44
7049.00,0.44
7048.00,0.44
7047.00,0.44
7046.00,0.44
7045.00,0.43
7044.00,0.43
7043.00,0.43
7042.00,0.43
7041.00,0.43
7040.00,0.43
7039.00,0.43
7038.00,0.43
7037.00,0.43
7036.00,0.43
7035.00,0.43
7034.00,0.43
7033.00,0.43
7032.00,0.43
7031.00,0.43
7030.00,0.43
7029.00,0.43
7028.00,0.43
7027.00,0.43
7026.00,0.44
7025.00,0.44
7024.00,0.44
7023.00,0.44
7022.00,0.44
7021.00,0.44
7020.00,0.44
7019.00,0.44
7018.00,0.44
7017.00,0.44
7016.00,0.44
7015.00,0.44
7014.00,0.43
7013.00,0.43
7012.00,0.43
7011.00,0.43
7010.00,0.43
7009.00,0.43
7008.00,0.43
7007.00,0.43
7006.00,0.43
7005.00,0.42
7004.00,0.42
7003.00,0.42
7002.00,0.42
7001.00,0.42
7000.00,0.42
6999.00,0.42
6998.00,0.41
6997.00,0.41
6996.00,0.41
6995.00,0.41
6994.00,0.41
6993.00,0.41
6992.00,0.41
6991.00,0.41
6990.00,0.41
6989.00,0.41
6988.00,0.41
6987.00,0.41
6986.00,0.41
6985.00,0.41
6984.00,0.41
6983.00,0.41
6982.00,0.41
6981.00,0.41
6980.00,0.41
6979.00,0.41
6978.00,0.41
6977.00,0.41
6976.00,0.41
6975.00,0.41
6974.00,0.41
6973.00,0.41
6972.00,0.41
6971.00,0.41
6970.00,0.41
6969.00,0.41
6968.00,0.41
6967.00,0.41
6966.00,0.41
6965.00,0.41
6964.00,0.41
6963.00,0.40
6962.00,0.40
6961.00,0.40
6960.00,0.40
6959.00,0.40
6958.00,0.40
6957.00,0.40
6956.00,0.40
6955.00,0.40
6954.00,0.39
6953.00,0.39
6952.00,0.39
6951.00,0.39
6950.00,0.39
6949.00,0.39
6948.00,0.39
6947.00,0.39
6946.00,0.39
6945.00,0.39
6944.00,0.39
6943.00,0.39
6942.00,0.39
6941.00,0.39
6940.00,0.39
6939.00,0.39
6938.00,0.39
6937.00,0.39
6936.00,0.39
6935.00,0.39
6934.00,0.39
6933.00,0.39
6932.00,0.39
6931.00,0.39
6930.00,0.39
6929.00,0.39
6928.00,0.39
6927.00,0.39
6926.00,0.39
6925.00,0.39
6924.00,0.39
6923.00,0.39
6922.00,0.39
6921.00,0.39
6920.00,0.39
6919.00,0.39
6918.00,0.39
6917.00,0.39
6916.00,0.39
6915.00,0.39
6914.00,0.39
6913.00,0.39
6912.00,0.39
6911.00,0.39
6910.00,0.39
6909.00,0.39
6908.00,0.39
6907.00,0.39
6906.00,0.39
6905.00,0.39
6904.00,0.39
6903.00,0.39
6902.00,0.39
6901.00,0.39
6900.00,0.39
6899.00,0.39
6898.00,0.39
6897.00,0.39
6896.00,0.39
6895.00,0.39
6894.00,0.39
6893.00,0.39
6892.00,0.39
6891.00,0.39
6890.00,0.39
6889.00,0.38
6888.00,0.38
6887.00,0.38
6886.00,0.38
6885.00,0.38
6884.00,0.38
6883.00,0.38
6882.00,0.38
6881.00,0.37
6880.00,0.37
6879.00,0.37
6878.00,0.37
6877.00,0.37
6876.00,0.37
6875.00,0.37
6874.00,0.37
6873.00,0.37
6872.00,0.37
6871.00,0.37
6870.00,0.37
6869.00,0.37
6868.00,0.37
6867.00,0.37
6866.00,0.37
6865.00,0.37
6864.00,0.37
6863.00,0.37
6862.00,0.38
6861.00,0.38
6860.00,0.38
6859.00,0.38
6858.00,0.38
6857.00,0.38
6856.00,0.39
6855.00,0.39
6854.00,0.39
6853.00,0.39
6852.00,0.40
6851.00,0.40
6850.00,0.40
6849.00,0.40
6848.00,0.40
6847.00,0.40
6846.00,0.41
6845.00,0.41
6844.00,0.41
6843.00,0.41
6842.00,0.41
6841.00,0.41
6840.00,0.41
6839.00,0.41
6838.00,0.41
6837.00,0.41
6836.00,0.41
6835.00,0.41
6834.00,0.41
6833.00,0.41
6832.00,0.41
6831.00,0.41
6830.00,0.41
6829.00,0.41
6828.00,0.41
6827.00,0.41
6826.00,0.41
6825.00,0.40
6824.00,0.40
6823.00,0.40
6822.00,0.40
6821.00,0.40
6820.00,0.40
6819.00,0.40
6818.00,0.40
6817.00,0.40
6816.00,0.40
6815.00,0.40
6814.00,0.40
6813.00,0.40
6812.00,0.40
6811.00,0.40
6810.00,0.40
6809.00,0.40
6808.00,0.40
6807.00,0.40
6806.00,0.40
6805.00,0.40
6804.00,0.40
6803.00,0.40
6802.00,0.40
6801.00,0.40
6800.00,0.40
6799.00,0.40
6798.00,0.40
6797.00,0.40
6796.00,0.40
6795.00,0.40
6794.00,0.40
6793.00,0.40
6792.00,0.41
6791.00,0.41
6790.00,0.41
6789.00,0.41
6788.00,0.41
6787.00,0.41
6786.00,0.41
6785.00,0.41
6784.00,0.41
6783.00,0.41
6782.00,0.41
6781.00,0.42
6780.00,0.42
6779.00,0.42
6778.00,0.42
6777.00,0.42
6776.00,0.42
6775.00,0.43
6774.00,0.43
6773.00,0.43
6772.00,0.43
6771.00,0.43
6770.00,0.44
6769.00,0.44
6768.00,0.44
6767.00,0.44
6766.00,0.44
6765.00,0.44
6764.00,0.44
6763.00,0.44
6762.00,0.44
6761.00,0.44
6760.00,0.44
6759.00,0.44
6758.00,0.44
6757.00,0.44
6756.00,0.45
6755.00,0.45
6754.00,0.45
6753.00,0.45
6752.00,0.45
6751.00,0.45
6750.00,0.45
6749.00,0.44
6748.00,0.44
6747.00,0.44
6746.00,0.44
6745.00,0.44
6744.00,0.44
6743.00,0.44
6742.00,0.44
6741.00,0.44
6740.00,0.44
6739.00,0.44
6738.00,0.44
6737.00,0.44
6736.00,0.44
6735.00,0.44
6734.00,0.44
6733.00,0.44
6732.00,0.44
6731.00,0.44
6730.00,0.44
6729.00,0.44
6728.00,0.44
6727.00,0.44
6726.00,0.44
6725.00,0.44
6724.00,0.44
6723.00,0.44
6722.00,0.44
6721.00,0.44
6720.00,0.44
6719.00,0.44
6718.00,0.45
6717.00,0.45
6716.00,0.45
6715.00,0.45
6714.00,0.45
6713.00,0.45
6712.00,0.45
6711.00,0.45
6710.00,0.45
6709.00,0.45
6708.00,0.45
6707.00,0.44
6706.00,0.44
6705.00,0.44
6704.00,0.44
6703.00,0.44
6702.00,0.44
6701.00,0.44
6700.00,0.44
6699.00,0.44
6698.00,0.44
6697.00,0.44
6696.00,0.44
6695.00,0.44
6694.00,0.44
6693.00,0.44
6692.00,0.44
6691.00,0.44
6690.00,0.44
6689.00,0.44
6688.00,0.45
6687.00,0.45
6686.00,0.45
6685.00,0.45
6684.00,0.45
6683.00,0.45
6682.00,0.46
6681.00,0.46
6680.00,0.46
6679.00,0.46
6678.00,0.47
6677.00,0.47
6676.00,0.47
6675.00,0.48
6674.00,0.48
6673.00,0.48
6672.00,0.49
6671.00,0.49
6670.00,0.49
6669.00,0.50
6668.00,0.50
6667.00,0.50
6666.00,0.50
6665.00,0.51
6664.00,0.51
6663.00,0.51
6662.00,0.52
6661.00,0.52
6660.00,0.52
6659.00,0.52
6658.00,0.52
6657.00,0.52
6656.00,0.52
6655.00,0.52
6654.00,0.52
6653.00,0.52
6652.00,0.52
6651.00,0.52
6650.00,0.52
6649.00,0.52
6648.00,0.52
6647.00,0.52
6646.00,0.52
6645.00,0.51
6644.00,0.51
6643.00,0.51
6642.00,0.51
6641.00,0.51
6640.00,0.51
6639.00,0.51
6638.00,0.50
6637.00,0.50
6636.00,0.50
6635.00,0.50
6634.00,0.50
6633.00,0.50
6632.00,0.49
6631.00,0.49
6630.00,0.49
6629.00,0.49
6628.00,0.49
6627.00,0.49
6626.00,0.49
6625.00,0.49
6624.00,0.48
6623.00,0.48
6622.00,0.48
6621.00,0.48
6620.00,0.48
6619.00,0.48
6618.00,0.48
6617.00,0.48
6616.00,0.48
6615.00,0.48
6614.00,0.48
6613.00,0.48
6612.00,0.48
6611.00,0.48
6610.00,0.48
6609.00,0.48
6608.00,0.48
6607.00,0.48
6606.00,0.48
6605.00,0.48
6604.00,0.48
6603.00,0.48
6602.00,0.48
6601.00,0.48
6600.00,0.49
6599.00,0.49
6598.00,0.49
6597.00,0.49
6596.00,0.49
6595.00,0.50
6594.00,0.50
6593.00,0.50
6592.00,0.50
6591.00,0.51
6590.00,0.51
6589.00,0.51
6588.00,0.51
6587.00,0.52
6586.00,0.52
6585.00,0.52
6584.00,0.52
6583.00,0.53
6582.00,0.53
6581.00,0.53
6580.00,0.53
6579.00,0.54
6578.00,0.54
6577.00,0.54
6576.00,0.54
6575.00,0.54
6574.00,0.54
6573.00,0.55
6572.00,0.55
6571.00,0.55
6570.00,0.55
6569.00,0.55
6568.00,0.55
6567.00,0.55
6566.00,0.55
6565.00,0.55
6564.00,0.55
6563.00,0.56
6562.00,0.56
6561.00,0.56
6560.00,0.56
6559.00,0.56
6558.00,0.56
6557.00,0.56
6556.00,0.56
6555.00,0.56
6554.00,0.56
6553.00,0.56
6552.00,0.56
6551.00,0.56
6550.00,0.56
6549.00,0.56
6548.00,0.56
6547.00,0.56
6546.00,0.56
6545.00,0.56
6544.00,0.56
6543.00,0.56
6542.00,0.56
6541.00,0.56
6540.00,0.56
6539.00,0.56
6538.00,0.56
6537.00,0.56
6536.00,0.56
6535.00,0.56
6534.00,0.56
6533.00,0.56
6532.00,0.56
6531.00,0.56
6530.00,0.56
6529.00,0.56
6528.00,0.56
6527.00,0.56
6526.00,0.56
6525.00,0.56
6524.00,0.56
6523.00,0.57
6522.00,0.57
6521.00,0.57
6520.00,0.57
6519.00,0.57
6518.00,0.57
6517.00,0.58
6516.00,0.58
6515.00,0.58
6514.00,0.58
6513.00,0.58
6512.00,0.58
6511.00,0.59
6510.00,0.59
6509.00,0.59
6508.00,0.59
6507.00,0.59
6506.00,0.59
6505.00,0.59
6504.00,0.59
6503.00,0.59
6502.00,0.59
6501.00,0.59
6500.00,0.59
6499.00,0.59
6498.00,0.58
6497.00,0.58
6496.00,0.58
6495.00,0.58
6494.00,0.58
6493.00,0.58
6492.00,0.58
6491.00,0.57
6490.00,0.57
6489.00,0.57
6488.00,0.57
6487.00,0.56
6486.00,0.56
6485.00,0.56
6484.00,0.56
6483.00,0.56
6482.00,0.55
6481.00,0.55
6480.00,0.55
6479.00,0.55
6478.00,0.55
6477.00,0.55
6476.00,0.55
6475.00,0.55
6474.00,0.55
6473.00,0.56
6472.00,0.56
6471.00,0.56
6470.00,0.56
6469.00,0.56
6468.00,0.56
6467.00,0.57
6466.00,0.57
6465.00,0.57
6464.00,0.57
6463.00,0.58
6462.00,0.58
6461.00,0.58
6460.00,0.58
6459.00,0.59
6458.00,0.59
6457.00,0.59
6456.00,0.59
6455.00,0.60
6454.00,0.60
6453.00,0.60
6452.00,0.60
6451.00,0.60
6450.00,0.60
6449.00,0.60
6448.00,0.60
6447.00,0.60
6446.00,0.60
6445.00,0.60
6444.00,0.60
6443.00,0.60
6442.00,0.60
6441.00,0.59
6440.00,0.59
6439.00,0.59
6438.00,0.59
6437.00,0.59
6436.00,0.59
6435.00,0.59
6434.00,0.59
6433.00,0.59
6432.00,0.59
6431.00,0.59
6430.00,0.59
6429.00,0.59
6428.00,0.59
6427.00,0.59
6426.00,0.59
6425.00,0.59
6424.00,0.59
6423.00,0.59
6422.00,0.59
6421.00,0.60
6420.00,0.60
6419.00,0.60
6418.00,0.60
6417.00,0.61
6416.00,0.61
6415.00,0.61
6414.00,0.61
6413.00,0.62
6412.00,0.62
6411.00,0.62
6410.00,0.62
6409.00,0.62
6408.00,0.63
6407.00,0.63
6406.00,0.63
6405.00,0.63
6404.00,0.63
6403.00,0.63
6402.00,0.63
6401.00,0.63
6400.00,0.63
6399.00,0.63
6398.00,0.64
6397.00,0.64
6396.00,0.64
6395.00,0.64
6394.00,0.64
6393.00,0.64
6392.00,0.64
6391.00,0.64
6390.00,0.64
6389.00,0.64
6388.00,0.64
6387.00,0.64
6386.00,0.64
6385.00,0.64
6384.00,0.64
6383.00,0.64
6382.00,0.64
6381.00,0.64
6380.00,0.64
6379.00,0.64
6378.00,0.64
6377.00,0.64
6376.00,0.64
6375.00,0.64
6374.00,0.64
6373.00,0.64
6372.00,0.64
6371.00,0.64
6370.00,0.64
6369.00,0.64
6368.00,0.64
6367.00,0.64
6366.00,0.64
6365.00,0.64
6364.00,0.64
6363.00,0.64
6362.00,0.64
6361.00,0.64
6360.00,0.64
6359.00,0.64
6358.00,0.63
6357.00,0.63
6356.00,0.63
6355.00,0.63
6354.00,0.63
6353.00,0.63
6352.00,0.63
6351.00,0.63
6350.00,0.63
6349.00,0.63
6348.00,0.63
6347.00,0.63
6346.00,0.63
6345.00,0.63
6344.00,0.63
6343.00,0.63
6342.00,0.63
6341.00,0.62
6340.00,0.62
6339.00,0.62
6338.00,0.62
6337.00,0.62
6336.00,0.62
6335.00,0.62
6334.00,0.62
6333.00,0.63
6332.00,0.63
6331.00,0.63
6330.00,0.63
6329.00,0.63
6328.00,0.63
6327.00,0.63
6326.00,0.63
6325.00,0.63
6324.00,0.63
6323.00,0.64
6322.00,0.64
6321.00,0.64
6320.00,0.64
6319.00,0.64
6318.00,0.64
6317.00,0.64
6316.00,0.64
6315.00,0.64
6314.00,0.64
6313.00,0.65
6312.00,0.65
6311.00,0.65
6310.00,0.65
6309.00,0.65
6308.00,0.66
6307.00,0.66
6306.00,0.66
6305.00,0.66
6304.00,0.66
6303.00,0.67
6302.00,0.67
6301.00,0.67
6300.00,0.67
6299.00,0.67
6298.00,0.67
6297.00,0.68
6296.00,0.68
6295.00,0.68
6294.00,0.68
6293.00,0.68
6292.00,0.68
6291.00,0.68
6290.00,0.69
6289.00,0.69
6288.00,0.69
6287.00,0.69
6286.00,0.69
6285.00,0.69
6284.00,0.69
6283.00,0.69
6282.00,0.69
6281.00,0.69
6280.00,0.69
6279.00,0.69
6278.00,0.69
6277.00,0.68
6276.00,0.68
6275.00,0.68
6274.00,0.68
6273.00,0.68
6272.00,0.68
6271.00,0.68
6270.00,0.68
6269.00,0.68
6268.00,0.68
6267.00,0.68
6266.00,0.68
6265.00,0.68
6264.00,0.68
6263.00,0.68
6262.00,0.68
6261.00,0.68
6260.00,0.68
6259.00,0.68
6258.00,0.68
6257.00,0.68
6256.00,0.68
6255.00,0.68
6254.00,0.68
6253.00,0.68
6252.00,0.68
6251.00,0.68
6250.00,0.68
6249.00,0.68
6248.00,0.68
6247.00,0.69
6246.00,0.69
6245.00,0.69
6244.00,0.69
6243.00,0.69
6242.00,0.69
6241.00,0.69
6240.00,0.69
6239.00,0.69
6238.00,0.69
6237.00,0.69
6236.00,0.69
6235.00,0.70
6234.00,0.70
6233.00,0.70
6232.00,0.70
6231.00,0.70
6230.00,0.70
6229.00,0.70
6228.00,0.70
6227.00,0.70
6226.00,0.70
6225.00,0.70
6224.00,0.70
6223.00,0.70
6222.00,0.71
6221.00,0.71
6220.00,0.71
6219.00,0.71
6218.00,0.71
6217.00,0.71
6216.00,0.71
6215.00,0.72
6214.00,0.72
6213.00,0.72
6212.00,0.72
6211.00,0.72
6210.00,0.72
6209.00,0.72
6208.00,0.73
6207.00,0.73
6206.00,0.73
6205.00,0.73
6204.00,0.73
6203.00,0.73
6202.00,0.74
6201.00,0.74
6200.00,0.74
6199.00,0.74
6198.00,0.74
6197.00,0.74
6196.00,0.74
6195.00,0.74
6194.00,0.74
6193.00,0.75
6192.00,0.75
6191.00,0.75
6190.00,0.75
6189.00,0.74
6188.00,0.74
6187.00,0.74
6186.00,0.74
6185.00,0.75
6184.00,0.75
6183.00,0.75
6182.00,0.75
6181.00,0.75
6180.00,0.75
6179.00,0.75
6178.00,0.75
6177.00,0.75
6176.00,0.75
6175.00,0.75
6174.00,0.75
6173.00,0.75
6172.00,0.75
6171.00,0.75
6170.00,0.75
6169.00,0.75
6168.00,0.75
6167.00,0.75
6166.00,0.75
6165.00,0.75
6164.00,0.75
6163.00,0.76
6162.00,0.76
6161.00,0.76
6160.00,0.76
6159.00,0.76
6158.00,0.76
6157.00,0.76
6156.00,0.76
6155.00,0.76
6154.00,0.76
6153.00,0.76
6152.00,0.76
6151.00,0.76
6150.00,0.76
6149.00,0.76
6148.00,0.76
6147.00,0.77
6146.00,0.77
6145.00,0.77
6144.00,0.77
6143.00,0.77
6142.00,0.77
6141.00,0.77
6140.00,0.77
6139.00,0.77
6138.00,0.77
6137.00,0.77
6136.00,0.77
6135.00,0.77
6134.00,0.77
6133.00,0.77
6132.00,0.77
6131.00,0.77
6130.00,0.77
6129.00,0.77
6128.00,0.77
6127.00,0.77
6126.00,0.77
6125.00,0.77
6124.00,0.77
6123.00,0.77
6122.00,0.77
6121.00,0.78
6120.00,0.78
6119.00,0.78
6118.00,0.78
6117.00,0.78
6116.00,0.78
6115.00,0.78
6114.00,0.78
6113.00,0.79
6112.00,0.79
6111.00,0.79
6110.00,0.79
6109.00,0.79
6108.00,0.79
6107.00,0.79
6106.00,0.79
6105.00,0.80
6104.00,0.80
6103.00,0.80
6102.00,0.80
6101.00,0.80
6100.00,0.80
6099.00,0.80
6098.00,0.80
6097.00,0.80
6096.00,0.81
6095.00,0.81
6094.00,0.81
6093.00,0.81
6092.00,0.81
6091.00,0.81
6090.00,0.81
6089.00,0.81
6088.00,0.81
6087.00,0.81
6086.00,0.81
6085.00,0.81
6084.00,0.81
6083.00,0.81
6082.00,0.81
6081.00,0.81
6080.00,0.81
6079.00,0.81
6078.00,0.81
6077.00,0.81
6076.00,0.81
6075.00,0.81
6074.00,0.81
6073.00,0.82
6072.00,0.82
6071.00,0.82
6070.00,0.82
6069.00,0.82
6068.00,0.82
6067.00,0.82
6066.00,0.82
6065.00,0.82
6064.00,0.82
6063.00,0.82
6062.00,0.82
6061.00,0.82
6060.00,0.82
6059.00,0.82
6058.00,0.82
6057.00,0.82
6056.00,0.82
6055.00,0.82
6054.00,0.82
6053.00,0.82
6052.00,0.82
6051.00,0.82
6050.00,0.82
6049.00,0.82
6048.00,0.83
6047.00,0.83
6046.00,0.83
6045.00,0.83
6044.00,0.83
6043.00,0.83
6042.00,0.83
6041.00,0.84
6040.00,0.84
6039.00,0.84
6038.00,0.84
6037.00,0.84
6036.00,0.84
6035.00,0.85
6034.00,0.85
6033.00,0.85
6032.00,0.85
6031.00,0.85
6030.00,0.85
6029.00,0.85
6028.00,0.85
6027.00,0.85
6026.00,0.85
6025.00,0.85
6024.00,0.85
6023.00,0.85
6022.00,0.85
6021.00,0.85
6020.00,0.85
6019.00,0.85
6018.00,0.85
6017.00,0.85
6016.00,0.85
6015.00,0.85
6014.00,0.85
6013.00,0.85
6012.00,0.85
6011.00,0.85
6010.00,0.85
6009.00,0.85
6008.00,0.85
6007.00,0.85
6006.00,0.85
6005.00,0.85
6004.00,0.85
6003.00,0.85
6002.00,0.85
6001.00,0.85
6000.00,0.85
5999.00,0.85
5998.00,0.85
5997.00,0.85
5996.00,0.85
5995.00,0.85
5994.00,0.85
5993.00,0.85
5992.00,0.85
5991.00,0.85
5990.00,0.85
5989.00,0.85
5988.00,0.84
5987.00,0.84
5986.00,0.84
5985.00,0.84
5984.00,0.84
5983.00,0.84
5982.00,0.83
5981.00,0.83
5980.00,0.83
5979.00,0.83
5978.00,0.82
5977.00,0.82
5976.00,0.82
5975.00,0.81
5974.00,0.81
5973.00,0.81
5972.00,0.81
5971.00,0.80
5970.00,0.80
5969.00,0.80
5968.00,0.79
5967.00,0.79
5966.00,0.79
5965.00,0.78
5964.00,0.78
5963.00,0.78
5962.00,0.77
5961.00,0.77
5960.00,0.77
5959.00,0.76
5958.00,0.76
5957.00,0.76
5956.00,0.75
5955.00,0.75
5954.00,0.75
5953.00,0.75
5952.00,0.74
5951.00,0.74
5950.00,0.74
5949.00,0.74
5948.00,0.73
5947.00,0.73
5946.00,0.73
5945.00,0.73
5944.00,0.72
5943.00,0.72
5942.00,0.72
5941.00,0.72
5940.00,0.72
5939.00,0.71
5938.00,0.71
5937.00,0.71
5936.00,0.71
5935.00,0.71
5934.00,0.71
5933.00,0.71
5932.00,0.71
5931.00,0.71
5930.00,0.71
5929.00,0.71
5928.00,0.71
5927.00,0.71
5926.00,0.71
5925.00,0.71
5924.00,0.71
5923.00,0.71
5922.00,0.71
5921.00,0.71
5920.00,0.71
5919.00,0.71
5918.00,0.71
5917.00,0.72
5916.00,0.72
5915.00,0.71
5914.00,0.71
5913.00,0.71
5912.00,0.71
5911.00,0.71
5910.00,0.71
5909.00,0.71
5908.00,0.71
5907.00,0.71
5906.00,0.71
5905.00,0.71
5904.00,0.71
5903.00,0.70
5902.00,0.70
5901.00,0.70
5900.00,0.70
5899.00,0.70
5898.00,0.70
5897.00,0.70
5896.00,0.69
5895.00,0.69
5894.00,0.69
5893.00,0.69
5892.00,0.69
5891.00,0.69
5890.00,0.69
5889.00,0.69
5888.00,0.69
5887.00,0.69
5886.00,0.69
5885.00,0.69
5884.00,0.69
5883.00,0.69
5882.00,0.69
5881.00,0.69
5880.00,0.69
5879.00,0.69
5878.00,0.69
5877.00,0.69
5876.00,0.69
5875.00,0.69
5874.00,0.69
5873.00,0.70
5872.00,0.70
5871.00,0.70
5870.00,0.70
5869.00,0.70
5868.00,0.70
5867.00,0.71
5866.00,0.71
5865.00,0.71
5864.00,0.71
5863.00,0.71
5862.00,0.71
5861.00,0.72
5860.00,0.72
5859.00,0.72
5858.00,0.72
5857.00,0.72
5856.00,0.72
5855.00,0.72
5854.00,0.72
5853.00,0.73
5852.00,0.73
5851.00,0.73
5850.00,0.73
5849.00,0.73
5848.00,0.73
5847.00,0.73
5846.00,0.73
5845.00,0.73
5844.00,0.73
5843.00,0.74
5842.00,0.74
5841.00,0.74
5840.00,0.74
5839.00,0.74
5838.00,0.74
5837.00,0.74
5836.00,0.74
5835.00,0.74
5834.00,0.74
5833.00,0.74
5832.00,0.74
5831.00,0.74
5830.00,0.75
5829.00,0.75
5828.00,0.75
5827.00,0.75
5826.00,0.75
5825.00,0.75
5824.00,0.75
5823.00,0.75
5822.00,0.75
5821.00,0.75
5820.00,0.75
5819.00,0.75
5818.00,0.75
5817.00,0.75
5816.00,0.75
5815.00,0.75
5814.00,0.75
5813.00,0.75
5812.00,0.75
5811.00,0.75
5810.00,0.75
5809.00,0.74
5808.00,0.74
5807.00,0.74
5806.00,0.74
5805.00,0.74
5804.00,0.74
5803.00,0.74
5802.00,0.74
5801.00,0.74
5800.00,0.74
5799.00,0.74
5798.00,0.73
5797.00,0.73
5796.00,0.73
5795.00,0.73
5794.00,0.73
5793.00,0.73
5792.00,0.73
5791.00,0.73
5790.00,0.73
5789.00,0.73
5788.00,0.73
5787.00,0.72
5786.00,0.72
5785.00,0.72
5784.00,0.72
5783.00,0.72
5782.00,0.72
5781.00,0.72
5780.00,0.72
5779.00,0.72
5778.00,0.72
5777.00,0.72
5776.00,0.72
5775.00,0.72
5774.00,0.72
5773.00,0.72
5772.00,0.72
5771.00,0.72
5770.00,0.72
5769.00,0.72
5768.00,0.72
5767.00,0.72
5766.00,0.72
5765.00,0.72
5764.00,0.72
5763.00,0.72
5762.00,0.72
5761.00,0.73
5760.00,0.73
5759.00,0.73
5758.00,0.73
5757.00,0.73
5756.00,0.73
5755.00,0.73
5754.00,0.74
5753.00,0.74
5752.00,0.74
5751.00,0.74
5750.00,0.74
5749.00,0.74
5748.00,0.74
5747.00,0.75
5746.00,0.75
5745.00,0.75
5744.00,0.75
5743.00,0.75
5742.00,0.75
5741.00,0.75
5740.00,0.75
5739.00,0.75
5738.00,0.75
5737.00,0.76
5736.00,0.76
5735.00,0.76
5734.00,0.76
5733.00,0.76
5732.00,0.76
5731.00,0.76
5730.00,0.76
5729.00,0.76
5728.00,0.76
5727.00,0.76
5726.00,0.76
5725.00,0.76
5724.00,0.76
5723.00,0.76
5722.00,0.77
5721.00,0.77
5720.00,0.77
5719.00,0.77
5718.00,0.77
5717.00,0.77
5716.00,0.77
5715.00,0.77
5714.00,0.77
5713.00,0.77
5712.00,0.77
5711.00,0.77
5710.00,0.77
5709.00,0.77
5708.00,0.76
5707.00,0.76
5706.00,0.76
5705.00,0.76
5704.00,0.76
5703.00,0.76
5702.00,0.76
5701.00,0.76
5700.00,0.76
5699.00,0.76
5698.00,0.75
5697.00,0.75
5696.00,0.75
5695.00,0.75
5694.00,0.75
5693.00,0.75
5692.00,0.75
5691.00,0.75
5690.00,0.74
5689.00,0.74
5688.00,0.74
5687.00,0.74
5686.00,0.74
5685.00,0.74
5684.00,0.74
5683.00,0.74
5682.00,0.74
5681.00,0.74
5680.00,0.74
5679.00,0.74
5678.00,0.74
5677.00,0.74
5676.00,0.75
5675.00,0.75
5674.00,0.75
5673.00,0.75
5672.00,0.75
5671.00,0.75
5670.00,0.75
5669.00,0.75
5668.00,0.75
5667.00,0.75
5666.00,0.75
5665.00,0.75
5664.00,0.75
5663.00,0.75
5662.00,0.75
5661.00,0.76
5660.00,0.76
5659.00,0.76
5658.00,0.76
5657.00,0.76
5656.00,0.76
5655.00,0.76
5654.00,0.76
5653.00,0.76
5652.00,0.76
5651.00,0.76
5650.00,0.76
5649.00,0.76
5648.00,0.77
5647.00,0.77
5646.00,0.77
5645.00,0.77
5644.00,0.77
5643.00,0.77
5642.00,0.77
5641.00,0.78
5640.00,0.78
5639.00,0.78
5638.00,0.78
5637.00,0.78
5636.00,0.78
5635.00,0.78
5634.00,0.79
5633.00,0.79
5632.00,0.79
5631.00,0.79
5630.00,0.79
5629.00,0.79
5628.00,0.79
5627.00,0.79
5626.00,0.79
5625.00,0.79
5624.00,0.79
5623.00,0.79
5622.00,0.79
5621.00,0.79
5620.00,0.79
5619.00,0.79
5618.00,0.79
5617.00,0.79
5616.00,0.79
5615.00,0.79
5614.00,0.79
5613.00,0.79
5612.00,0.79
5611.00,0.79
5610.00,0.79
5609.00,0.79
5608.00,0.79
5607.00,0.79
5606.00,0.79
5605.00,0.79
5604.00,0.79
5603.00,0.79
5602.00,0.80
5601.00,0.80
5600.00,0.80
5599.00,0.80
5598.00,0.80
5597.00,0.80
5596.00,0.80
5595.00,0.80
5594.00,0.80
5593.00,0.80
5592.00,0.80
5591.00,0.80
5590.00,0.80
5589.00,0.81
5588.00,0.81
5587.00,0.81
5586.00,0.81
5585.00,0.81
5584.00,0.81
5583.00,0.81
5582.00,0.81
5581.00,0.81
5580.00,0.81
5579.00,0.81
5578.00,0.81
5577.00,0.81
5576.00,0.81
5575.00,0.81
5574.00,0.81
5573.00,0.81
5572.00,0.81
5571.00,0.81
5570.00,0.81
5569.00,0.81
5568.00,0.81
5567.00,0.81
5566.00,0.81
5565.00,0.81
5564.00,0.81
5563.00,0.81
5562.00,0.81
5561.00,0.81
5560.00,0.81
5559.00,0.81
5558.00,0.81
5557.00,0.81
5556.00,0.81
5555.00,0.82
5554.00,0.82
5553.00,0.82
5552.00,0.82
5551.00,0.82
5550.00,0.82
5549.00,0.82
5548.00,0.82
5547.00,0.82
5546.00,0.82
5545.00,0.82
5544.00,0.83
5543.00,0.83
5542.00,0.83
5541.00,0.83
5540.00,0.83
5539.00,0.83
5538.00,0.83
5537.00,0.83
5536.00,0.83
5535.00,0.83
5534.00,0.83
5533.00,0.83
5532.00,0.83
5531.00,0.83
5530.00,0.83
5529.00,0.83
5528.00,0.84
5527.00,0.84
5526.00,0.84
5525.00,0.84
5524.00,0.84
5523.00,0.84
5522.00,0.84
5521.00,0.84
5520.00,0.84
5519.00,0.84
5518.00,0.84
5517.00,0.84
5516.00,0.84
5515.00,0.84
5514.00,0.84
5513.00,0.84
5512.00,0.84
5511.00,0.84
5510.00,0.84
5509.00,0.84
5508.00,0.84
5507.00,0.84
5506.00,0.85
5505.00,0.85
5504.00,0.85
5503.00,0.85
5502.00,0.85
5501.00,0.85
5500.00,0.85
5499.00,0.85
5498.00,0.85
5497.00,0.85
5496.00,0.85
5495.00,0.85
5494.00,0.85
5493.00,0.86
5492.00,0.86
5491.00,0.86
5490.00,0.86
5489.00,0.86
5488.00,0.86
5487.00,0.86
5486.00,0.86
5485.00,0.87
5484.00,0.87
5483.00,0.87
5482.00,0.87
5481.00,0.87
5480.00,0.87
5479.00,0.88
5478.00,0.88
5477.00,0.88
5476.00,0.88
5475.00,0.88
5474.00,0.88
5473.00,0.89
5472.00,0.89
5471.00,0.89
5470.00,0.89
5469.00,0.89
5468.00,0.89
5467.00,0.89
5466.00,0.89
5465.00,0.89
5464.00,0.89
5463.00,0.89
5462.00,0.90
5461.00,0.90
5460.00,0.90
5459.00,0.90
5458.00,0.90
5457.00,0.90
5456.00,0.90
5455.00,0.90
5454.00,0.90
5453.00,0.90
5452.00,0.90
5451.00,0.90
5450.00,0.90
5449.00,0.90
5448.00,0.89
5447.00,0.89
5446.00,0.89
5445.00,0.89
5444.00,0.89
5443.00,0.89
5442.00,0.89
5441.00,0.89
5440.00,0.89
5439.00,0.89
5438.00,0.89
5437.00,0.89
5436.00,0.89
5435.00,0.89
5434.00,0.89
5433.00,0.88
5432.00,0.88
5431.00,0.88
5430.00,0.88
5429.00,0.88
5428.00,0.88
5427.00,0.88
5426.00,0.88
5425.00,0.88
5424.00,0.88
5423.00,0.88
5422.00,0.88
5421.00,0.88
5420.00,0.88
5419.00,0.88
5418.00,0.89
5417.00,0.89
5416.00,0.89
5415.00,0.89
5414.00,0.89
5413.00,0.89
5412.00,0.89
5411.00,0.90
5410.00,0.90
5409.00,0.90
5408.00,0.90
5407.00,0.90
5406.00,0.90
5405.00,0.90
5404.00,0.91
5403.00,0.91
5402.00,0.91
5401.00,0.91
5400.00,0.91
5399.00,0.91
5398.00,0.91
5397.00,0.91
5396.00,0.91
5395.00,0.91
5394.00,0.91
5393.00,0.91
5392.00,0.91
5391.00,0.91
5390.00,0.91
5389.00,0.91
5388.00,0.91
5387.00,0.91
5386.00,0.90
5385.00,0.90
5384.00,0.90
5383.00,0.90
5382.00,0.90
5381.00,0.90
5380.00,0.89
5379.00,0.89
5378.00,0.89
5377.00,0.89
5376.00,0.89
5375.00,0.88
5374.00,0.88
5373.00,0.88
5372.00,0.88
5371.00,0.88
5370.00,0.87
5369.00,0.87
5368.00,0.87
5367.00,0.87
5366.00,0.86
5365.00,0.86
5364.00,0.86
5363.00,0.85
5362.00,0.85
5361.00,0.85
5360.00,0.84
5359.00,0.84
5358.00,0.84
5357.00,0.84
5356.00,0.83
5355.00,0.83
5354.00,0.83
5353.00,0.82
5352.00,0.82
5351.00,0.81
5350.00,0.81
5349.00,0.81
5348.00,0.80
5347.00,0.80
5346.00,0.79
5345.00,0.79
5344.00,0.78
5343.00,0.78
5342.00,0.78
5341.00,0.77
5340.00,0.77
5339.00,0.76
5338.00,0.76
5337.00,0.75
5336.00,0.74
5335.00,0.74
5334.00,0.73
5333.00,0.73
5332.00,0.72
5331.00,0.71
5330.00,0.70
5329.00,0.70
5328.00,0.69
5327.00,0.68
5326.00,0.67
5325.00,0.67
5324.00,0.66
5323.00,0.65
5322.00,0.64
5321.00,0.64
5320.00,0.63
5319.00,0.62
5318.00,0.61
5317.00,0.60
5316.00,0.59
5315.00,0.59
5314.00,0.58
5313.00,0.57
5312.00,0.56
5311.00,0.56
5310.00,0.55
5309.00,0.54
5308.00,0.54
5307.00,0.53
5306.00,0.52
5305.00,0.52
5304.00,0.51
5303.00,0.51
5302.00,0.50
5301.00,0.50
5300.00,0.49
5299.00,0.49
5298.00,0.49
5297.00,0.48
5296.00,0.48
5295.00,0.48
5294.00,0.47
5293.00,0.47
5292.00,0.47
5291.00,0.47
5290.00,0.46
5289.00,0.46
5288.00,0.46
5287.00,0.46
5286.00,0.46
5285.00,0.45
5284.00,0.45
5283.00,0.45
5282.00,0.45
5281.00,0.45
5280.00,0.45
5279.00,0.44
5278.00,0.44
5277.00,0.44
5276.00,0.44
5275.00,0.44
5274.00,0.44
5273.00,0.44
5272.00,0.43
5271.00,0.43
5270.00,0.43
5269.00,0.43
5268.00,0.43
5267.00,0.43
5266.00,0.43
5265.00,0.42
5264.00,0.42
5263.00,0.42
5262.00,0.42
5261.00,0.42
5260.00,0.42
5259.00,0.42
5258.00,0.41
5257.00,0.41
5256.00,0.41
5255.00,0.41
5254.00,0.41
5253.00,0.41
5252.00,0.41
5251.00,0.41
5250.00,0.41
5249.00,0.41
5248.00,0.41
5247.00,0.40
5246.00,0.40
5245.00,0.40
5244.00,0.40
5243.00,0.40
5242.00,0.40
5241.00,0.40
5240.00,0.40
5239.00,0.40
5238.00,0.40
5237.00,0.40
5236.00,0.40
5235.00,0.41
5234.00,0.41
5233.00,0.41
5232.00,0.41
5231.00,0.41
5230.00,0.41
5229.00,0.41
5228.00,0.41
5227.00,0.41
5226.00,0.41
5225.00,0.41
5224.00,0.41
5223.00,0.41
5222.00,0.41
5221.00,0.41
5220.00,0.41
5219.00,0.41
5218.00,0.41
5217.00,0.41
5216.00,0.41
5215.00,0.41
5214.00,0.41
5213.00,0.41
5212.00,0.41
5211.00,0.41
5210.00,0.41
5209.00,0.41
5208.00,0.41
5207.00,0.41
5206.00,0.41
5205.00,0.41
5204.00,0.41
5203.00,0.41
5202.00,0.41
5201.00,0.41
5200.00,0.41
5199.00,0.41
5198.00,0.41
5197.00,0.41
5196.00,0.41
5195.00,0.41
5194.00,0.41
5193.00,0.41
5192.00,0.41
5191.00,0.41
5190.00,0.41
5189.00,0.41
5188.00,0.41
5187.00,0.41
5186.00,0.41
5185.00,0.41
5184.00,0.41
5183.00,0.41
5182.00,0.41
5181.00,0.41
5180.00,0.41
5179.00,0.41
5178.00,0.41
5177.00,0.41
5176.00,0.41
5175.00,0.41
5174.00,0.41
5173.00,0.41
5172.00,0.41
5171.00,0.42
5170.00,0.42
5169.00,0.42
5168.00,0.42
5167.00,0.42
5166.00,0.42
5165.00,0.42
5164.00,0.42
5163.00,0.42
5162.00,0.42
5161.00,0.42
5160.00,0.42
5159.00,0.42
5158.00,0.42
5157.00,0.42
5156.00,0.43
5155.00,0.43
5154.00,0.43
5153.00,0.43
5152.00,0.43
5151.00,0.43
5150.00,0.43
5149.00,0.43
5148.00,0.43
5147.00,0.43
5146.00,0.43
5145.00,0.43
5144.00,0.43
5143.00,0.43
5142.00,0.43
5141.00,0.43
5140.00,0.43
5139.00,0.43
5138.00,0.43
5137.00,0.43
5136.00,0.43
5135.00,0.43
5134.00,0.43
5133.00,0.43
5132.00,0.43
5131.00,0.43
5130.00,0.43
5129.00,0.43
5128.00,0.43
5127.00,0.43
5126.00,0.43
5125.00,0.43
5124.00,0.43
5123.00,0.43
5122.00,0.43
5121.00,0.43
5120.00,0.43
5119.00,0.43
5118.00,0.43
5117.00,0.43
5116.00,0.43
5115.00,0.43
5114.00,0.43
5113.00,0.43
5112.00,0.43
5111.00,0.43
5110.00,0.43
5109.00,0.43
5108.00,0.43
5107.00,0.43
5106.00,0.43
5105.00,0.43
5104.00,0.43
5103.00,0.43
5102.00,0.43
5101.00,0.43
5100.00,0.43
5099.00,0.43
5098.00,0.43
5097.00,0.44
5096.00,0.44
5095.00,0.44
5094.00,0.44
5093.00,0.44
5092.00,0.45
5091.00,0.45
5090.00,0.45
5089.00,0.45
5088.00,0.45
5087.00,0.46
5086.00,0.46
5085.00,0.46
5084.00,0.46
5083.00,0.46
5082.00,0.46
5081.00,0.47
5080.00,0.47
5079.00,0.47
5078.00,0.47
5077.00,0.47
5076.00,0.47
5075.00,0.47
5074.00,0.48
5073.00,0.48
5072.00,0.48
5071.00,0.48
5070.00,0.48
5069.00,0.48
5068.00,0.48
5067.00,0.48
5066.00,0.48
5065.00,0.48
5064.00,0.48
5063.00,0.48
5062.00,0.48
5061.00,0.48
5060.00,0.48
5059.00,0.48
5058.00,0.48
5057.00,0.48
5056.00,0.48
5055.00,0.48
5054.00,0.48
5053.00,0.48
5052.00,0.48
5051.00,0.48
5050.00,0.48
5049.00,0.48
5048.00,0.48
5047.00,0.49
5046.00,0.49
5045.00,0.49
5044.00,0.49
5043.00,0.49
5042.00,0.49
5041.00,0.49
5040.00,0.49
5039.00,0.49
5038.00,0.49
5037.00,0.49
5036.00,0.49
5035.00,0.49
5034.00,0.49
5033.00,0.49
5032.00,0.49
5031.00,0.49
5030.00,0.49
5029.00,0.49
5028.00,0.49
5027.00,0.49
5026.00,0.49
5025.00,0.49
5024.00,0.49
5023.00,0.49
5022.00,0.49
5021.00,0.49
5020.00,0.49
5019.00,0.49
5018.00,0.50
5017.00,0.50
5016.00,0.50
5015.00,0.50
5014.00,0.50
5013.00,0.50
5012.00,0.50
5011.00,0.50
5010.00,0.50
5009.00,0.50
5008.00,0.50
5007.00,0.51
5006.00,0.51
5005.00,0.51
5004.00,0.51
5003.00,0.51
5002.00,0.51
5001.00,0.51
5000.00,0.51
4999.00,0.51
4998.00,0.51
4997.00,0.51
4996.00,0.51
4995.00,0.51
4994.00,0.52
4993.00,0.52
4992.00,0.52
4991.00,0.52
4990.00,0.52
4989.00,0.52
4988.00,0.52
4987.00,0.52
4986.00,0.52
4985.00,0.52
4984.00,0.52
4983.00,0.52
4982.00,0.52
4981.00,0.52
4980.00,0.52
4979.00,0.52
4978.00,0.52
4977.00,0.52
4976.00,0.52
4975.00,0.53
4974.00,0.53
4973.00,0.53
4972.00,0.53
4971.00,0.53
4970.00,0.53
4969.00,0.53
4968.00,0.53
4967.00,0.53
4966.00,0.53
4965.00,0.53
4964.00,0.53
4963.00,0.53
4962.00,0.53
4961.00,0.53
4960.00,0.53
4959.00,0.53
4958.00,0.53
4957.00,0.53
4956.00,0.53
4955.00,0.53
4954.00,0.54
4953.00,0.54
4952.00,0.54
4951.00,0.54
4950.00,0.54
4949.00,0.54
4948.00,0.54
4947.00,0.54
4946.00,0.55
4945.00,0.55
4944.00,0.55
4943.00,0.55
4942.00,0.55
4941.00,0.55
4940.00,0.55
4939.00,0.56
4938.00,0.56
4937.00,0.56
4936.00,0.56
4935.00,0.56
4934.00,0.56
4933.00,0.56
4932.00,0.56
4931.00,0.56
4930.00,0.56
4929.00,0.56
4928.00,0.56
4927.00,0.56
4926.00,0.56
4925.00,0.56
4924.00,0.56
4923.00,0.56
4922.00,0.56
4921.00,0.56
4920.00,0.56
4919.00,0.56
4918.00,0.56
4917.00,0.56
4916.00,0.56
4915.00,0.56
4914.00,0.56
4913.00,0.56
4912.00,0.56
4911.00,0.55
4910.00,0.55
4909.00,0.55
4908.00,0.55
4907.00,0.55
4906.00,0.55
4905.00,0.56
4904.00,0.56
4903.00,0.56
4902.00,0.56
4901.00,0.56
4900.00,0.56
4899.00,0.56
4898.00,0.56
4897.00,0.56
4896.00,0.56
4895.00,0.57
4894.00,0.57
4893.00,0.57
4892.00,0.57
4891.00,0.57
4890.00,0.57
4889.00,0.57
4888.00,0.57
4887.00,0.57
4886.00,0.58
4885.00,0.58
4884.00,0.58
4883.00,0.58
4882.00,0.58
4881.00,0.58
4880.00,0.58
4879.00,0.58
4878.00,0.58
4877.00,0.58
4876.00,0.58
4875.00,0.58
4874.00,0.58
4873.00,0.58
4872.00,0.59
4871.00,0.59
4870.00,0.59
4869.00,0.59
4868.00,0.59
4867.00,0.59
4866.00,0.59
4865.00,0.59
4864.00,0.59
4863.00,0.59
4862.00,0.59
4861.00,0.60
4860.00,0.60
4859.00,0.60
4858.00,0.60
4857.00,0.60
4856.00,0.60
4855.00,0.60
4854.00,0.60
4853.00,0.60
4852.00,0.60
4851.00,0.60
4850.00,0.60
4849.00,0.60
4848.00,0.60
4847.00,0.60
4846.00,0.60
4845.00,0.60
4844.00,0.60
4843.00,0.60
4842.00,0.60
4841.00,0.59
4840.00,0.59
4839.00,0.59
4838.00,0.59
4837.00,0.59
4836.00,0.59
4835.00,0.59
4834.00,0.59
4833.00,0.59
4832.00,0.59
4831.00,0.59
4830.00,0.59
4829.00,0.59
4828.00,0.59
4827.00,0.59
4826.00,0.59
4825.00,0.59
4824.00,0.59
4823.00,0.59
4822.00,0.59
4821.00,0.59
4820.00,0.59
4819.00,0.59
4818.00,0.59
4817.00,0.59
4816.00,0.59
4815.00,0.60
4814.00,0.60
4813.00,0.60
4812.00,0.60
4811.00,0.60
4810.00,0.60
4809.00,0.60
4808.00,0.60
4807.00,0.60
4806.00,0.61
4805.00,0.61
4804.00,0.61
4803.00,0.61
4802.00,0.61
4801.00,0.61
4800.00,0.61
4799.00,0.61
4798.00,0.61
4797.00,0.62
4796.00,0.62
4795.00,0.62
4794.00,0.62
4793.00,0.62
4792.00,0.62
4791.00,0.62
4790.00,0.62
4789.00,0.63
4788.00,0.63
4787.00,0.63
4786.00,0.63
4785.00,0.63
4784.00,0.64
4783.00,0.64
4782.00,0.64
4781.00,0.64
4780.00,0.65
4779.00,0.65
4778.00,0.65
4777.00,0.65
4776.00,0.66
4775.00,0.66
4774.00,0.66
4773.00,0.66
4772.00,0.67
4771.00,0.67
4770.00,0.67
4769.00,0.67
4768.00,0.68
4767.00,0.68
4766.00,0.68
4765.00,0.68
4764.00,0.68
4763.00,0.69
4762.00,0.69
4761.00,0.69
4760.00,0.69
4759.00,0.69
4758.00,0.69
4757.00,0.69
4756.00,0.69
4755.00,0.69
4754.00,0.70
4753.00,0.70
4752.00,0.70
4751.00,0.70
4750.00,0.70
4749.00,0.70
4748.00,0.70
4747.00,0.70
4746.00,0.70
4745.00,0.70
4744.00,0.70
4743.00,0.70
4742.00,0.70
4741.00,0.71
4740.00,0.71
4739.00,0.71
4738.00,0.71
4737.00,0.71
4736.00,0.71
4735.00,0.71
4734.00,0.72
4733.00,0.72
4732.00,0.72
4731.00,0.72
4730.00,0.72
4729.00,0.72
4728.00,0.72
4727.00,0.73
4726.00,0.73
4725.00,0.73
4724.00,0.73
4723.00,0.73
4722.00,0.73
4721.00,0.73
4720.00,0.74
4719.00,0.74
4718.00,0.74
4717.00,0.74
4716.00,0.74
4715.00,0.74
4714.00,0.74
4713.00,0.74
4712.00,0.74
4711.00,0.74
4710.00,0.75
4709.00,0.75
4708.00,0.75
4707.00,0.75
4706.00,0.75
4705.00,0.75
4704.00,0.75
4703.00,0.75
4702.00,0.75
4701.00,0.76
4700.00,0.76
4699.00,0.76
4698.00,0.76
4697.00,0.76
4696.00,0.76
4695.00,0.76
4694.00,0.76
4693.00,0.76
4692.00,0.76
4691.00,0.76
4690.00,0.76
4689.00,0.76
4688.00,0.77
4687.00,0.77
4686.00,0.77
4685.00,0.77
4684.00,0.77
4683.00,0.77
4682.00,0.76
4681.00,0.76
4680.00,0.76
4679.00,0.76
4678.00,0.76
4677.00,0.76
4676.00,0.76
4675.00,0.76
4674.00,0.76
4673.00,0.76
4672.00,0.76
4671.00,0.76
4670.00,0.76
4669.00,0.76
4668.00,0.76
4667.00,0.77
4666.00,0.77
4665.00,0.77
4664.00,0.77
4663.00,0.77
4662.00,0.77
4661.00,0.77
4660.00,0.77
4659.00,0.78
4658.00,0.78
4657.00,0.78
4656.00,0.78
4655.00,0.79
4654.00,0.79
4653.00,0.79
4652.00,0.79
4651.00,0.79
4650.00,0.80
4649.00,0.80
4648.00,0.80
4647.00,0.80
4646.00,0.80
4645.00,0.81
4644.00,0.81
4643.00,0.81
4642.00,0.81
4641.00,0.81
4640.00,0.81
4639.00,0.81
4638.00,0.81
4637.00,0.81
4636.00,0.81
4635.00,0.81
4634.00,0.81
4633.00,0.81
4632.00,0.81
4631.00,0.81
4630.00,0.81
4629.00,0.81
4628.00,0.81
4627.00,0.81
4626.00,0.81
4625.00,0.81
4624.00,0.81
4623.00,0.81
4622.00,0.81
4621.00,0.81
4620.00,0.81
4619.00,0.81
4618.00,0.81
4617.00,0.81
4616.00,0.81
4615.00,0.81
4614.00,0.81
4613.00,0.82
4612.00,0.82
4611.00,0.82
4610.00,0.82
4609.00,0.82
4608.00,0.82
4607.00,0.82
4606.00,0.83
4605.00,0.83
4604.00,0.83
4603.00,0.83
4602.00,0.83
4601.00,0.84
4600.00,0.84
4599.00,0.84
4598.00,0.84
4597.00,0.85
4596.00,0.85
4595.00,0.85
4594.00,0.85
4593.00,0.85
4592.00,0.86
4591.00,0.86
4590.00,0.86
4589.00,0.86
4588.00,0.86
4587.00,0.86
4586.00,0.86
4585.00,0.86
4584.00,0.86
4583.00,0.86
4582.00,0.86
4581.00,0.86
4580.00,0.86
4579.00,0.86
4578.00,0.86
4577.00,0.86
4576.00,0.86
4575.00,0.87
4574.00,0.87
4573.00,0.87
4572.00,0.86
4571.00,0.86
4570.00,0.86
4569.00,0.86
4568.00,0.86
4567.00,0.86
4566.00,0.86
4565.00,0.86
4564.00,0.86
4563.00,0.86
4562.00,0.86
4561.00,0.87
4560.00,0.87
4559.00,0.87
4558.00,0.87
4557.00,0.87
4556.00,0.87
4555.00,0.87
4554.00,0.87
4553.00,0.87
4552.00,0.87
4551.00,0.87
4550.00,0.87
4549.00,0.87
4548.00,0.88
4547.00,0.88
4546.00,0.88
4545.00,0.88
4544.00,0.88
4543.00,0.88
4542.00,0.88
4541.00,0.88
4540.00,0.88
4539.00,0.88
4538.00,0.88
4537.00,0.88
4536.00,0.88
4535.00,0.88
4534.00,0.88
4533.00,0.88
4532.00,0.88
4531.00,0.88
4530.00,0.88
4529.00,0.88
4528.00,0.88
4527.00,0.88
4526.00,0.88
4525.00,0.88
4524.00,0.88
4523.00,0.88
4522.00,0.88
4521.00,0.88
4520.00,0.88
4519.00,0.88
4518.00,0.88
4517.00,0.88
4516.00,0.88
4515.00,0.88
4514.00,0.88
4513.00,0.88
4512.00,0.88
4511.00,0.88
4510.00,0.88
4509.00,0.88
4508.00,0.88
4507.00,0.88
4506.00,0.87
4505.00,0.87
4504.00,0.87
4503.00,0.87
4502.00,0.87
4501.00,0.87
4500.00,0.87
4499.00,0.87
4498.00,0.87
4497.00,0.87
4496.00,0.87
4495.00,0.86
4494.00,0.86
4493.00,0.86
4492.00,0.86
4491.00,0.86
4490.00,0.86
4489.00,0.85
4488.00,0.85
4487.00,0.85
4486.00,0.85
4485.00,0.85
4484.00,0.85
4483.00,0.84
4482.00,0.84
4481.00,0.84
4480.00,0.84
4479.00,0.84
4478.00,0.84
4477.00,0.84
4476.00,0.84
4475.00,0.84
4474.00,0.84
4473.00,0.84
4472.00,0.83
4471.00,0.83
4470.00,0.83
4469.00,0.83
4468.00,0.83
4467.00,0.83
4466.00,0.82
4465.00,0.82
4464.00,0.82
4463.00,0.82
4462.00,0.82
4461.00,0.82
4460.00,0.81
4459.00,0.81
4458.00,0.81
4457.00,0.81
4456.00,0.80
4455.00,0.80
4454.00,0.80
4453.00,0.79
4452.00,0.79
4451.00,0.79
4450.00,0.78
4449.00,0.78
4448.00,0.78
4447.00,0.77
4446.00,0.77
4445.00,0.76
4444.00,0.76
4443.00,0.76
4442.00,0.75
4441.00,0.75
4440.00,0.74
4439.00,0.74
4438.00,0.74
4437.00,0.73
4436.00,0.73
4435.00,0.72
4434.00,0.72
4433.00,0.71
4432.00,0.71
4431.00,0.70
4430.00,0.70
4429.00,0.70
4428.00,0.69
4427.00,0.69
4426.00,0.69
4425.00,0.68
4424.00,0.68
4423.00,0.68
4422.00,0.67
4421.00,0.67
4420.00,0.67
4419.00,0.67
4418.00,0.66
4417.00,0.66
4416.00,0.66
4415.00,0.66
4414.00,0.66
4413.00,0.66
4412.00,0.66
4411.00,0.66
4410.00,0.66
4409.00,0.66
4408.00,0.66
4407.00,0.66
4406.00,0.66
4405.00,0.67
4404.00,0.67
4403.00,0.67
4402.00,0.67
4401.00,0.67
4400.00,0.67
4399.00,0.68
4398.00,0.68
4397.00,0.68
4396.00,0.68
4395.00,0.68
4394.00,0.69
4393.00,0.69
4392.00,0.69
4391.00,0.69
4390.00,0.69
4389.00,0.69
4388.00,0.69
4387.00,0.69
4386.00,0.70
4385.00,0.70
4384.00,0.70
4383.00,0.70
4382.00,0.70
4381.00,0.70
4380.00,0.70
4379.00,0.70
4378.00,0.70
4377.00,0.70
4376.00,0.70
4375.00,0.70
4374.00,0.70
4373.00,0.70
4372.00,0.70
4371.00,0.70
4370.00,0.69
4369.00,0.69
4368.00,0.69
4367.00,0.69
4366.00,0.69
4365.00,0.69
4364.00,0.69
4363.00,0.69
4362.00,0.69
4361.00,0.69
4360.00,0.69
4359.00,0.69
4358.00,0.69
4357.00,0.69
4356.00,0.69
4355.00,0.69
4354.00,0.69
4353.00,0.69
4352.00,0.69
4351.00,0.69
4350.00,0.69
4349.00,0.69
4348.00,0.69
4347.00,0.69
4346.00,0.69
4345.00,0.69
4344.00,0.69
4343.00,0.69
4342.00,0.69
4341.00,0.70
4340.00,0.70
4339.00,0.70
4338.00,0.70
4337.00,0.70
4336.00,0.71
4335.00,0.71
4334.00,0.71
4333.00,0.71
4332.00,0.71
4331.00,0.72
4330.00,0.72
4329.00,0.72
4328.00,0.73
4327.00,0.73
4326.00,0.73
4325.00,0.73
4324.00,0.74
4323.00,0.74
4322.00,0.74
4321.00,0.74
4320.00,0.74
4319.00,0.75
4318.00,0.75
4317.00,0.75
4316.00,0.75
4315.00,0.75
4314.00,0.76
4313.00,0.76
4312.00,0.76
4311.00,0.76
4310.00,0.76
4309.00,0.76
4308.00,0.77
4307.00,0.77
4306.00,0.77
4305.00,0.77
4304.00,0.77
4303.00,0.77
4302.00,0.77
4301.00,0.77
4300.00,0.78
4299.00,0.78
4298.00,0.78
4297.00,0.78
4296.00,0.78
4295.00,0.78
4294.00,0.78
4293.00,0.78
4292.00,0.78
4291.00,0.78
4290.00,0.78
4289.00,0.78
4288.00,0.78
4287.00,0.78
4286.00,0.78
4285.00,0.78
4284.00,0.78
4283.00,0.78
4282.00,0.78
4281.00,0.78
4280.00,0.78
4279.00,0.78
4278.00,0.78
4277.00,0.78
4276.00,0.78
4275.00,0.77
4274.00,0.77
4273.00,0.77
4272.00,0.77
4271.00,0.77
4270.00,0.77
4269.00,0.77
4268.00,0.77
4267.00,0.77
4266.00,0.77
4265.00,0.77
4264.00,0.77
4263.00,0.77
4262.00,0.77
4261.00,0.77
4260.00,0.77
4259.00,0.77
4258.00,0.77
4257.00,0.77
4256.00,0.77
4255.00,0.78
4254.00,0.78
4253.00,0.78
4252.00,0.78
4251.00,0.78
4250.00,0.78
4249.00,0.78
4248.00,0.78
4247.00,0.78
4246.00,0.78
4245.00,0.79
4244.00,0.79
4243.00,0.79
4242.00,0.79
4241.00,0.79
4240.00,0.79
4239.00,0.79
4238.00,0.79
4237.00,0.79
4236.00,0.79
4235.00,0.79
4234.00,0.79
4233.00,0.79
4232.00,0.79
4231.00,0.78
4230.00,0.78
4229.00,0.78
4228.00,0.78
4227.00,0.78
4226.00,0.78
4225.00,0.78
4224.00,0.78
4223.00,0.78
4222.00,0.78
4221.00,0.79
4220.00,0.79
4219.00,0.79
4218.00,0.79
4217.00,0.79
4216.00,0.79
4215.00,0.80
4214.00,0.80
4213.00,0.80
4212.00,0.80
4211.00,0.80
4210.00,0.81
4209.00,0.81
4208.00,0.81
4207.00,0.81
4206.00,0.81
4205.00,0.81
4204.00,0.82
4203.00,0.82
4202.00,0.82
4201.00,0.82
4200.00,0.82
4199.00,0.82
4198.00,0.82
4197.00,0.82
4196.00,0.82
4195.00,0.82
4194.00,0.82
4193.00,0.82
4192.00,0.82
4191.00,0.82
4190.00,0.82
4189.00,0.82
4188.00,0.81
4187.00,0.81
4186.00,0.81
4185.00,0.81
4184.00,0.81
4183.00,0.81
4182.00,0.81
4181.00,0.81
4180.00,0.80
4179.00,0.80
4178.00,0.80
4177.00,0.80
4176.00,0.80
4175.00,0.80
4174.00,0.80
4173.00,0.80
4172.00,0.80
4171.00,0.80
4170.00,0.80
4169.00,0.80
4168.00,0.80
4167.00,0.80
4166.00,0.80
4165.00,0.80
4164.00,0.80
4163.00,0.80
4162.00,0.80
4161.00,0.80
4160.00,0.80
4159.00,0.80
4158.00,0.80
4157.00,0.80
4156.00,0.80
4155.00,0.80
4154.00,0.80
4153.00,0.80
4152.00,0.80
4151.00,0.80
4150.00,0.80
4149.00,0.80
4148.00,0.80
4147.00,0.80
4146.00,0.80
4145.00,0.80
4144.00,0.80
4143.00,0.80
4142.00,0.79
4141.00,0.79
4140.00,0.79
4139.00,0.79
4138.00,0.79
4137.00,0.79
4136.00,0.79
4135.00,0.79
4134.00,0.78
4133.00,0.78
4132.00,0.78
4131.00,0.78
4130.00,0.78
4129.00,0.78
4128.00,0.78
4127.00,0.78
4126.00,0.78
4125.00,0.78
4124.00,0.78
4123.00,0.78
4122.00,0.78
4121.00,0.78
4120.00,0.78
4119.00,0.78
4118.00,0.78
4117.00,0.78
4116.00,0.78
4115.00,0.79
4114.00,0.79
4113.00,0.79
4112.00,0.79
4111.00,0.80
4110.00,0.80
4109.00,0.80
4108.00,0.80
4107.00,0.81
4106.00,0.81
4105.00,0.81
4104.00,0.81
4103.00,0.82
4102.00,0.82
4101.00,0.82
4100.00,0.82
4099.00,0.82
4098.00,0.82
4097.00,0.82
4096.00,0.83
4095.00,0.83
4094.00,0.83
4093.00,0.83
4092.00,0.83
4091.00,0.83
4090.00,0.82
4089.00,0.82
4088.00,0.82
4087.00,0.82
4086.00,0.82
4085.00,0.82
4084.00,0.81
4083.00,0.81
4082.00,0.81
4081.00,0.81
4080.00,0.81
4079.00,0.81
4078.00,0.81
4077.00,0.80
4076.00,0.80
4075.00,0.80
4074.00,0.80
4073.00,0.80
4072.00,0.80
4071.00,0.80
4070.00,0.80
4069.00,0.80
4068.00,0.80
4067.00,0.80
4066.00,0.81
4065.00,0.81
4064.00,0.81
4063.00,0.81
4062.00,0.81
4061.00,0.81
4060.00,0.81
4059.00,0.81
4058.00,0.81
4057.00,0.82
4056.00,0.82
4055.00,0.82
4054.00,0.82
4053.00,0.81
4052.00,0.81
4051.00,0.81
4050.00,0.81
4049.00,0.81
4048.00,0.81
4047.00,0.81
4046.00,0.81
4045.00,0.81
4044.00,0.81
4043.00,0.81
4042.00,0.81
4041.00,0.81
4040.00,0.81
4039.00,0.81
4038.00,0.81
4037.00,0.81
4036.00,0.81
4035.00,0.81
4034.00,0.81
4033.00,0.81
4032.00,0.81
4031.00,0.81
4030.00,0.82
4029.00,0.82
4028.00,0.82
4027.00,0.82
4026.00,0.82
4025.00,0.83
4024.00,0.83
4023.00,0.83
4022.00,0.83
4021.00,0.84
4020.00,0.84
4019.00,0.84
4018.00,0.85
4017.00,0.86
4016.00,0.86
4015.00,0.87
4014.00,0.87
4013.00,0.88
4012.00,0.88
4011.00,0.89
4010.00,0.89
4009.00,0.90
4008.00,0.91
4007.00,0.91
4006.00,0.92
4005.00,0.93
4004.00,0.94
4003.00,0.94
4002.00,0.95
4001.00,0.96
4000.00,0.97
