创建为新数据集,样品 1321 用户 Administrator 日期 星期六, 八月 17 2019
cm-1,%T
10000.00,1.09
9998.00,1.09
9996.00,1.09
9994.00,1.09
9992.00,1.09
9990.00,1.09
9988.00,1.08
9986.00,1.08
9984.00,1.08
9982.00,1.08
9980.00,1.08
9978.00,1.07
9976.00,1.07
9974.00,1.07
9972.00,1.07
9970.00,1.07
9968.00,1.06
9966.00,1.06
9964.00,1.06
9962.00,1.06
9960.00,1.06
9958.00,1.06
9956.00,1.06
9954.00,1.06
9952.00,1.06
9950.00,1.06
9948.00,1.06
9946.00,1.06
9944.00,1.06
9942.00,1.06
9940.00,1.06
9938.00,1.06
9936.00,1.06
9934.00,1.06
9932.00,1.06
9930.00,1.06
9928.00,1.06
9926.00,1.06
9924.00,1.06
9922.00,1.05
9920.00,1.05
9918.00,1.05
9916.00,1.05
9914.00,1.05
9912.00,1.05
9910.00,1.05
9908.00,1.05
9906.00,1.05
9904.00,1.05
9902.00,1.04
9900.00,1.04
9898.00,1.04
9896.00,1.04
9894.00,1.04
9892.00,1.04
9890.00,1.04
9888.00,1.04
9886.00,1.05
9884.00,1.05
9882.00,1.05
9880.00,1.05
9878.00,1.05
9876.00,1.05
9874.00,1.05
9872.00,1.05
9870.00,1.05
9868.00,1.05
9866.00,1.05
9864.00,1.05
9862.00,1.05
9860.00,1.05
9858.00,1.05
9856.00,1.05
9854.00,1.05
9852.00,1.05
9850.00,1.05
9848.00,1.05
9846.00,1.05
9844.00,1.05
9842.00,1.05
9840.00,1.05
9838.00,1.05
9836.00,1.05
9834.00,1.05
9832.00,1.05
9830.00,1.05
9828.00,1.05
9826.00,1.05
9824.00,1.05
9822.00,1.05
9820.00,1.05
9818.00,1.06
9816.00,1.06
9814.00,1.06
9812.00,1.06
9810.00,1.06
9808.00,1.06
9806.00,1.06
9804.00,1.06
9802.00,1.07
9800.00,1.07
9798.00,1.07
9796.00,1.07
9794.00,1.07
9792.00,1.07
9790.00,1.07
9788.00,1.07
9786.00,1.07
9784.00,1.07
9782.00,1.07
9780.00,1.06
9778.00,1.06
9776.00,1.06
9774.00,1.06
9772.00,1.05
9770.00,1.05
9768.00,1.05
9766.00,1.05
9764.00,1.05
9762.00,1.04
9760.00,1.04
9758.00,1.04
9756.00,1.04
9754.00,1.04
9752.00,1.04
9750.00,1.04
9748.00,1.04
9746.00,1.04
9744.00,1.04
9742.00,1.04
9740.00,1.04
9738.00,1.05
9736.00,1.05
9734.00,1.05
9732.00,1.05
9730.00,1.05
9728.00,1.05
9726.00,1.05
9724.00,1.06
9722.00,1.06
9720.00,1.06
9718.00,1.06
9716.00,1.06
9714.00,1.06
9712.00,1.06
9710.00,1.06
9708.00,1.06
9706.00,1.06
9704.00,1.06
9702.00,1.06
9700.00,1.06
9698.00,1.06
9696.00,1.06
9694.00,1.06
9692.00,1.06
9690.00,1.06
9688.00,1.06
9686.00,1.06
9684.00,1.06
9682.00,1.06
9680.00,1.06
9678.00,1.06
9676.00,1.06
9674.00,1.06
9672.00,1.06
9670.00,1.06
9668.00,1.06
9666.00,1.06
9664.00,1.06
9662.00,1.06
9660.00,1.06
9658.00,1.06
9656.00,1.06
9654.00,1.06
9652.00,1.06
9650.00,1.06
9648.00,1.06
9646.00,1.06
9644.00,1.06
9642.00,1.06
9640.00,1.06
9638.00,1.06
9636.00,1.06
9634.00,1.06
9632.00,1.06
9630.00,1.06
9628.00,1.06
9626.00,1.06
9624.00,1.06
9622.00,1.06
9620.00,1.06
9618.00,1.06
9616.00,1.06
9614.00,1.06
9612.00,1.06
9610.00,1.07
9608.00,1.07
9606.00,1.07
9604.00,1.07
9602.00,1.07
9600.00,1.07
9598.00,1.07
9596.00,1.07
9594.00,1.07
9592.00,1.07
9590.00,1.07
9588.00,1.07
9586.00,1.07
9584.00,1.07
9582.00,1.07
9580.00,1.07
9578.00,1.07
9576.00,1.07
9574.00,1.07
9572.00,1.07
9570.00,1.07
9568.00,1.07
9566.00,1.07
9564.00,1.07
9562.00,1.07
9560.00,1.06
9558.00,1.06
9556.00,1.06
9554.00,1.06
9552.00,1.06
9550.00,1.06
9548.00,1.06
9546.00,1.06
9544.00,1.07
9542.00,1.07
9540.00,1.07
9538.00,1.07
9536.00,1.07
9534.00,1.07
9532.00,1.07
9530.00,1.07
9528.00,1.07
9526.00,1.07
9524.00,1.07
9522.00,1.07
9520.00,1.07
9518.00,1.07
9516.00,1.07
9514.00,1.07
9512.00,1.07
9510.00,1.07
9508.00,1.07
9506.00,1.07
9504.00,1.07
9502.00,1.07
9500.00,1.07
9498.00,1.07
9496.00,1.07
9494.00,1.07
9492.00,1.06
9490.00,1.06
9488.00,1.06
9486.00,1.06
9484.00,1.06
9482.00,1.06
9480.00,1.06
9478.00,1.06
9476.00,1.06
9474.00,1.06
9472.00,1.06
9470.00,1.06
9468.00,1.06
9466.00,1.06
9464.00,1.06
9462.00,1.06
9460.00,1.06
9458.00,1.06
9456.00,1.06
9454.00,1.06
9452.00,1.06
9450.00,1.06
9448.00,1.05
9446.00,1.05
9444.00,1.05
9442.00,1.05
9440.00,1.05
9438.00,1.05
9436.00,1.04
9434.00,1.04
9432.00,1.04
9430.00,1.04
9428.00,1.04
9426.00,1.04
9424.00,1.04
9422.00,1.04
9420.00,1.04
9418.00,1.05
9416.00,1.05
9414.00,1.05
9412.00,1.05
9410.00,1.05
9408.00,1.06
9406.00,1.06
9404.00,1.06
9402.00,1.06
9400.00,1.06
9398.00,1.06
9396.00,1.07
9394.00,1.07
9392.00,1.07
9390.00,1.07
9388.00,1.07
9386.00,1.07
9384.00,1.07
9382.00,1.07
9380.00,1.07
9378.00,1.07
9376.00,1.07
9374.00,1.07
9372.00,1.07
9370.00,1.07
9368.00,1.07
9366.00,1.06
9364.00,1.06
9362.00,1.06
9360.00,1.06
9358.00,1.07
9356.00,1.07
9354.00,1.07
9352.00,1.07
9350.00,1.07
9348.00,1.07
9346.00,1.07
9344.00,1.07
9342.00,1.07
9340.00,1.07
9338.00,1.07
9336.00,1.07
9334.00,1.07
9332.00,1.07
9330.00,1.07
9328.00,1.07
9326.00,1.07
9324.00,1.07
9322.00,1.07
9320.00,1.07
9318.00,1.07
9316.00,1.07
9314.00,1.07
9312.00,1.07
9310.00,1.07
9308.00,1.07
9306.00,1.07
9304.00,1.07
9302.00,1.07
9300.00,1.07
9298.00,1.07
9296.00,1.08
9294.00,1.08
9292.00,1.08
9290.00,1.08
9288.00,1.08
9286.00,1.08
9284.00,1.08
9282.00,1.08
9280.00,1.08
9278.00,1.08
9276.00,1.08
9274.00,1.08
9272.00,1.08
9270.00,1.08
9268.00,1.08
9266.00,1.08
9264.00,1.08
9262.00,1.08
9260.00,1.08
9258.00,1.08
9256.00,1.07
9254.00,1.07
9252.00,1.07
9250.00,1.07
9248.00,1.07
9246.00,1.07
9244.00,1.06
9242.00,1.06
9240.00,1.06
9238.00,1.06
9236.00,1.06
9234.00,1.06
9232.00,1.06
9230.00,1.05
9228.00,1.05
9226.00,1.05
9224.00,1.05
9222.00,1.05
9220.00,1.05
9218.00,1.05
9216.00,1.05
9214.00,1.05
9212.00,1.05
9210.00,1.05
9208.00,1.05
9206.00,1.05
9204.00,1.05
9202.00,1.05
9200.00,1.05
9198.00,1.05
9196.00,1.05
9194.00,1.05
9192.00,1.05
9190.00,1.05
9188.00,1.05
9186.00,1.05
9184.00,1.05
9182.00,1.05
9180.00,1.05
9178.00,1.05
9176.00,1.05
9174.00,1.05
9172.00,1.06
9170.00,1.06
9168.00,1.06
9166.00,1.06
9164.00,1.06
9162.00,1.06
9160.00,1.06
9158.00,1.06
9156.00,1.07
9154.00,1.07
9152.00,1.07
9150.00,1.07
9148.00,1.07
9146.00,1.07
9144.00,1.07
9142.00,1.08
9140.00,1.08
9138.00,1.08
9136.00,1.08
9134.00,1.08
9132.00,1.08
9130.00,1.08
9128.00,1.08
9126.00,1.08
9124.00,1.08
9122.00,1.08
9120.00,1.08
9118.00,1.08
9116.00,1.07
9114.00,1.07
9112.00,1.07
9110.00,1.07
9108.00,1.07
9106.00,1.07
9104.00,1.07
9102.00,1.07
9100.00,1.07
9098.00,1.07
9096.00,1.07
9094.00,1.07
9092.00,1.07
9090.00,1.07
9088.00,1.07
9086.00,1.07
9084.00,1.07
9082.00,1.07
9080.00,1.07
9078.00,1.07
9076.00,1.07
9074.00,1.07
9072.00,1.07
9070.00,1.07
9068.00,1.07
9066.00,1.07
9064.00,1.07
9062.00,1.07
9060.00,1.07
9058.00,1.07
9056.00,1.07
9054.00,1.07
9052.00,1.07
9050.00,1.07
9048.00,1.07
9046.00,1.07
9044.00,1.07
9042.00,1.07
9040.00,1.07
9038.00,1.07
9036.00,1.07
9034.00,1.07
9032.00,1.07
9030.00,1.07
9028.00,1.07
9026.00,1.07
9024.00,1.06
9022.00,1.06
9020.00,1.06
9018.00,1.06
9016.00,1.06
9014.00,1.06
9012.00,1.06
9010.00,1.06
9008.00,1.06
9006.00,1.06
9004.00,1.06
9002.00,1.07
9000.00,1.07
8998.00,1.07
8996.00,1.07
8994.00,1.07
8992.00,1.07
8990.00,1.07
8988.00,1.07
8986.00,1.07
8984.00,1.08
8982.00,1.08
8980.00,1.08
8978.00,1.08
8976.00,1.08
8974.00,1.08
8972.00,1.08
8970.00,1.08
8968.00,1.08
8966.00,1.08
8964.00,1.08
8962.00,1.08
8960.00,1.07
8958.00,1.07
8956.00,1.07
8954.00,1.07
8952.00,1.07
8950.00,1.07
8948.00,1.07
8946.00,1.07
8944.00,1.06
8942.00,1.06
8940.00,1.06
8938.00,1.06
8936.00,1.06
8934.00,1.06
8932.00,1.06
8930.00,1.06
8928.00,1.06
8926.00,1.06
8924.00,1.06
8922.00,1.05
8920.00,1.05
8918.00,1.05
8916.00,1.05
8914.00,1.05
8912.00,1.05
8910.00,1.05
8908.00,1.05
8906.00,1.05
8904.00,1.05
8902.00,1.05
8900.00,1.04
8898.00,1.04
8896.00,1.04
8894.00,1.04
8892.00,1.04
8890.00,1.04
8888.00,1.04
8886.00,1.04
8884.00,1.04
8882.00,1.05
8880.00,1.05
8878.00,1.05
8876.00,1.05
8874.00,1.05
8872.00,1.05
8870.00,1.05
8868.00,1.05
8866.00,1.05
8864.00,1.05
8862.00,1.05
8860.00,1.05
8858.00,1.05
8856.00,1.06
8854.00,1.06
8852.00,1.06
8850.00,1.06
8848.00,1.06
8846.00,1.06
8844.00,1.06
8842.00,1.06
8840.00,1.06
8838.00,1.06
8836.00,1.06
8834.00,1.06
8832.00,1.06
8830.00,1.06
8828.00,1.06
8826.00,1.06
8824.00,1.06
8822.00,1.06
8820.00,1.06
8818.00,1.06
8816.00,1.06
8814.00,1.06
8812.00,1.06
8810.00,1.07
8808.00,1.07
8806.00,1.07
8804.00,1.07
8802.00,1.07
8800.00,1.07
8798.00,1.07
8796.00,1.07
8794.00,1.07
8792.00,1.07
8790.00,1.07
8788.00,1.06
8786.00,1.06
8784.00,1.06
8782.00,1.06
8780.00,1.06
8778.00,1.06
8776.00,1.06
8774.00,1.06
8772.00,1.06
8770.00,1.06
8768.00,1.06
8766.00,1.06
8764.00,1.06
8762.00,1.06
8760.00,1.06
8758.00,1.06
8756.00,1.06
8754.00,1.06
8752.00,1.06
8750.00,1.06
8748.00,1.06
8746.00,1.06
8744.00,1.06
8742.00,1.06
8740.00,1.06
8738.00,1.06
8736.00,1.06
8734.00,1.06
8732.00,1.06
8730.00,1.06
8728.00,1.06
8726.00,1.06
8724.00,1.06
8722.00,1.06
8720.00,1.07
8718.00,1.07
8716.00,1.07
8714.00,1.07
8712.00,1.07
8710.00,1.07
8708.00,1.07
8706.00,1.07
8704.00,1.07
8702.00,1.07
8700.00,1.07
8698.00,1.07
8696.00,1.07
8694.00,1.07
8692.00,1.07
8690.00,1.06
8688.00,1.06
8686.00,1.06
8684.00,1.06
8682.00,1.06
8680.00,1.06
8678.00,1.06
8676.00,1.06
8674.00,1.06
8672.00,1.06
8670.00,1.06
8668.00,1.06
8666.00,1.06
8664.00,1.06
8662.00,1.06
8660.00,1.06
8658.00,1.06
8656.00,1.06
8654.00,1.06
8652.00,1.06
8650.00,1.06
8648.00,1.06
8646.00,1.06
8644.00,1.06
8642.00,1.06
8640.00,1.06
8638.00,1.06
8636.00,1.06
8634.00,1.06
8632.00,1.06
8630.00,1.06
8628.00,1.06
8626.00,1.06
8624.00,1.06
8622.00,1.06
8620.00,1.06
8618.00,1.06
8616.00,1.06
8614.00,1.06
8612.00,1.06
8610.00,1.06
8608.00,1.06
8606.00,1.06
8604.00,1.05
8602.00,1.05
8600.00,1.05
8598.00,1.05
8596.00,1.05
8594.00,1.05
8592.00,1.05
8590.00,1.05
8588.00,1.05
8586.00,1.05
8584.00,1.05
8582.00,1.05
8580.00,1.04
8578.00,1.04
8576.00,1.04
8574.00,1.04
8572.00,1.04
8570.00,1.04
8568.00,1.04
8566.00,1.04
8564.00,1.04
8562.00,1.04
8560.00,1.04
8558.00,1.04
8556.00,1.04
8554.00,1.04
8552.00,1.04
8550.00,1.04
8548.00,1.04
8546.00,1.04
8544.00,1.04
8542.00,1.04
8540.00,1.04
8538.00,1.04
8536.00,1.04
8534.00,1.04
8532.00,1.05
8530.00,1.05
8528.00,1.05
8526.00,1.05
8524.00,1.05
8522.00,1.05
8520.00,1.05
8518.00,1.05
8516.00,1.05
8514.00,1.05
8512.00,1.05
8510.00,1.05
8508.00,1.05
8506.00,1.05
8504.00,1.05
8502.00,1.05
8500.00,1.06
8498.00,1.06
8496.00,1.06
8494.00,1.06
8492.00,1.06
8490.00,1.06
8488.00,1.06
8486.00,1.06
8484.00,1.06
8482.00,1.06
8480.00,1.06
8478.00,1.06
8476.00,1.06
8474.00,1.06
8472.00,1.06
8470.00,1.06
8468.00,1.06
8466.00,1.06
8464.00,1.06
8462.00,1.06
8460.00,1.06
8458.00,1.06
8456.00,1.06
8454.00,1.06
8452.00,1.05
8450.00,1.05
8448.00,1.05
8446.00,1.05
8444.00,1.05
8442.00,1.05
8440.00,1.05
8438.00,1.04
8436.00,1.04
8434.00,1.04
8432.00,1.04
8430.00,1.04
8428.00,1.04
8426.00,1.04
8424.00,1.04
8422.00,1.04
8420.00,1.04
8418.00,1.04
8416.00,1.04
8414.00,1.04
8412.00,1.04
8410.00,1.05
8408.00,1.05
8406.00,1.05
8404.00,1.05
8402.00,1.05
8400.00,1.05
8398.00,1.06
8396.00,1.06
8394.00,1.06
8392.00,1.06
8390.00,1.06
8388.00,1.06
8386.00,1.06
8384.00,1.06
8382.00,1.06
8380.00,1.06
8378.00,1.06
8376.00,1.06
8374.00,1.06
8372.00,1.06
8370.00,1.06
8368.00,1.06
8366.00,1.06
8364.00,1.06
8362.00,1.06
8360.00,1.06
8358.00,1.06
8356.00,1.06
8354.00,1.05
8352.00,1.05
8350.00,1.05
8348.00,1.05
8346.00,1.05
8344.00,1.05
8342.00,1.05
8340.00,1.05
8338.00,1.05
8336.00,1.05
8334.00,1.05
8332.00,1.05
8330.00,1.05
8328.00,1.05
8326.00,1.05
8324.00,1.05
8322.00,1.05
8320.00,1.05
8318.00,1.05
8316.00,1.05
8314.00,1.05
8312.00,1.05
8310.00,1.05
8308.00,1.05
8306.00,1.05
8304.00,1.05
8302.00,1.05
8300.00,1.05
8298.00,1.05
8296.00,1.05
8294.00,1.05
8292.00,1.05
8290.00,1.05
8288.00,1.06
8286.00,1.06
8284.00,1.06
8282.00,1.06
8280.00,1.06
8278.00,1.06
8276.00,1.06
8274.00,1.06
8272.00,1.06
8270.00,1.06
8268.00,1.06
8266.00,1.06
8264.00,1.06
8262.00,1.06
8260.00,1.06
8258.00,1.06
8256.00,1.06
8254.00,1.07
8252.00,1.07
8250.00,1.07
8248.00,1.07
8246.00,1.07
8244.00,1.07
8242.00,1.07
8240.00,1.07
8238.00,1.07
8236.00,1.07
8234.00,1.07
8232.00,1.07
8230.00,1.07
8228.00,1.07
8226.00,1.07
8224.00,1.07
8222.00,1.07
8220.00,1.07
8218.00,1.07
8216.00,1.07
8214.00,1.07
8212.00,1.07
8210.00,1.07
8208.00,1.07
8206.00,1.07
8204.00,1.07
8202.00,1.07
8200.00,1.07
8198.00,1.07
8196.00,1.07
8194.00,1.07
8192.00,1.07
8190.00,1.07
8188.00,1.07
8186.00,1.07
8184.00,1.07
8182.00,1.07
8180.00,1.07
8178.00,1.07
8176.00,1.08
8174.00,1.08
8172.00,1.08
8170.00,1.07
8168.00,1.07
8166.00,1.07
8164.00,1.07
8162.00,1.07
8160.00,1.07
8158.00,1.07
8156.00,1.07
8154.00,1.07
8152.00,1.07
8150.00,1.07
8148.00,1.07
8146.00,1.07
8144.00,1.07
8142.00,1.07
8140.00,1.07
8138.00,1.07
8136.00,1.06
8134.00,1.06
8132.00,1.06
8130.00,1.06
8128.00,1.06
8126.00,1.06
8124.00,1.07
8122.00,1.07
8120.00,1.07
8118.00,1.07
8116.00,1.07
8114.00,1.07
8112.00,1.07
8110.00,1.07
8108.00,1.07
8106.00,1.07
8104.00,1.07
8102.00,1.07
8100.00,1.07
8098.00,1.07
8096.00,1.07
8094.00,1.07
8092.00,1.07
8090.00,1.07
8088.00,1.07
8086.00,1.07
8084.00,1.07
8082.00,1.07
8080.00,1.07
8078.00,1.07
8076.00,1.07
8074.00,1.07
8072.00,1.07
8070.00,1.07
8068.00,1.07
8066.00,1.07
8064.00,1.07
8062.00,1.07
8060.00,1.07
8058.00,1.07
8056.00,1.08
8054.00,1.08
8052.00,1.08
8050.00,1.08
8048.00,1.08
8046.00,1.08
8044.00,1.08
8042.00,1.08
8040.00,1.08
8038.00,1.08
8036.00,1.08
8034.00,1.08
8032.00,1.08
8030.00,1.08
8028.00,1.07
8026.00,1.07
8024.00,1.07
8022.00,1.07
8020.00,1.07
8018.00,1.07
8016.00,1.07
8014.00,1.07
8012.00,1.07
8010.00,1.07
8008.00,1.07
8006.00,1.07
8004.00,1.07
8002.00,1.07
8000.00,1.07
7998.00,1.07
7996.00,1.07
7994.00,1.07
7992.00,1.07
7990.00,1.07
7988.00,1.07
7986.00,1.07
7984.00,1.07
7982.00,1.07
7980.00,1.07
7978.00,1.07
7976.00,1.07
7974.00,1.07
7972.00,1.07
7970.00,1.07
7968.00,1.07
7966.00,1.07
7964.00,1.07
7962.00,1.07
7960.00,1.07
7958.00,1.07
7956.00,1.07
7954.00,1.07
7952.00,1.07
7950.00,1.07
7948.00,1.07
7946.00,1.08
7944.00,1.08
7942.00,1.08
7940.00,1.08
7938.00,1.08
7936.00,1.08
7934.00,1.08
7932.00,1.08
7930.00,1.08
7928.00,1.08
7926.00,1.08
7924.00,1.08
7922.00,1.08
7920.00,1.08
7918.00,1.08
7916.00,1.08
7914.00,1.08
7912.00,1.08
7910.00,1.08
7908.00,1.08
7906.00,1.08
7904.00,1.08
7902.00,1.08
7900.00,1.08
7898.00,1.08
7896.00,1.08
7894.00,1.08
7892.00,1.08
7890.00,1.08
7888.00,1.08
7886.00,1.08
7884.00,1.08
7882.00,1.08
7880.00,1.08
7878.00,1.08
7876.00,1.08
7874.00,1.08
7872.00,1.08
7870.00,1.08
7868.00,1.08
7866.00,1.08
7864.00,1.08
7862.00,1.08
7860.00,1.08
7858.00,1.08
7856.00,1.08
7854.00,1.08
7852.00,1.08
7850.00,1.08
7848.00,1.08
7846.00,1.08
7844.00,1.08
7842.00,1.08
7840.00,1.08
7838.00,1.08
7836.00,1.08
7834.00,1.08
7832.00,1.08
7830.00,1.08
7828.00,1.08
7826.00,1.08
7824.00,1.08
7822.00,1.08
7820.00,1.08
7818.00,1.08
7816.00,1.08
7814.00,1.08
7812.00,1.08
7810.00,1.08
7808.00,1.08
7806.00,1.08
7804.00,1.08
7802.00,1.08
7800.00,1.08
7798.00,1.08
7796.00,1.08
7794.00,1.08
7792.00,1.08
7790.00,1.08
7788.00,1.08
7786.00,1.08
7784.00,1.08
7782.00,1.08
7780.00,1.08
7778.00,1.08
7776.00,1.08
7774.00,1.08
7772.00,1.08
7770.00,1.08
7768.00,1.08
7766.00,1.08
7764.00,1.08
7762.00,1.08
7760.00,1.08
7758.00,1.08
7756.00,1.08
7754.00,1.08
7752.00,1.08
7750.00,1.08
7748.00,1.08
7746.00,1.08
7744.00,1.08
7742.00,1.08
7740.00,1.08
7738.00,1.08
7736.00,1.08
7734.00,1.08
7732.00,1.08
7730.00,1.08
7728.00,1.08
7726.00,1.08
7724.00,1.08
7722.00,1.08
7720.00,1.08
7718.00,1.08
7716.00,1.08
7714.00,1.08
7712.00,1.08
7710.00,1.08
7708.00,1.08
7706.00,1.08
7704.00,1.08
7702.00,1.08
7700.00,1.08
7698.00,1.08
7696.00,1.08
7694.00,1.08
7692.00,1.09
7690.00,1.09
7688.00,1.09
7686.00,1.09
7684.00,1.09
7682.00,1.09
7680.00,1.09
7678.00,1.09
7676.00,1.09
7674.00,1.09
7672.00,1.09
7670.00,1.09
7668.00,1.09
7666.00,1.09
7664.00,1.09
7662.00,1.09
7660.00,1.09
7658.00,1.09
7656.00,1.09
7654.00,1.09
7652.00,1.09
7650.00,1.09
7648.00,1.09
7646.00,1.09
7644.00,1.09
7642.00,1.09
7640.00,1.09
7638.00,1.09
7636.00,1.09
7634.00,1.09
7632.00,1.09
7630.00,1.09
7628.00,1.09
7626.00,1.09
7624.00,1.09
7622.00,1.09
7620.00,1.09
7618.00,1.09
7616.00,1.09
7614.00,1.09
7612.00,1.09
7610.00,1.09
7608.00,1.09
7606.00,1.09
7604.00,1.09
7602.00,1.09
7600.00,1.09
7598.00,1.09
7596.00,1.09
7594.00,1.09
7592.00,1.09
7590.00,1.09
7588.00,1.09
7586.00,1.09
7584.00,1.09
7582.00,1.09
7580.00,1.09
7578.00,1.09
7576.00,1.09
7574.00,1.09
7572.00,1.09
7570.00,1.09
7568.00,1.09
7566.00,1.08
7564.00,1.08
7562.00,1.08
7560.00,1.08
7558.00,1.08
7556.00,1.08
7554.00,1.08
7552.00,1.08
7550.00,1.08
7548.00,1.08
7546.00,1.08
7544.00,1.08
7542.00,1.08
7540.00,1.08
7538.00,1.08
7536.00,1.08
7534.00,1.08
7532.00,1.08
7530.00,1.08
7528.00,1.08
7526.00,1.08
7524.00,1.08
7522.00,1.08
7520.00,1.09
7518.00,1.09
7516.00,1.09
7514.00,1.08
7512.00,1.08
7510.00,1.08
7508.00,1.08
7506.00,1.08
7504.00,1.08
7502.00,1.08
7500.00,1.08
7498.00,1.08
7496.00,1.08
7494.00,1.08
7492.00,1.08
7490.00,1.08
7488.00,1.08
7486.00,1.08
7484.00,1.08
7482.00,1.08
7480.00,1.08
7478.00,1.08
7476.00,1.08
7474.00,1.08
7472.00,1.08
7470.00,1.08
7468.00,1.08
7466.00,1.08
7464.00,1.08
7462.00,1.08
7460.00,1.08
7458.00,1.08
7456.00,1.08
7454.00,1.08
7452.00,1.08
7450.00,1.08
7448.00,1.08
7446.00,1.08
7444.00,1.08
7442.00,1.08
7440.00,1.08
7438.00,1.08
7436.00,1.08
7434.00,1.08
7432.00,1.08
7430.00,1.08
7428.00,1.08
7426.00,1.08
7424.00,1.08
7422.00,1.08
7420.00,1.08
7418.00,1.08
7416.00,1.08
7414.00,1.08
7412.00,1.08
7410.00,1.08
7408.00,1.08
7406.00,1.08
7404.00,1.08
7402.00,1.08
7400.00,1.08
7398.00,1.07
7396.00,1.07
7394.00,1.07
7392.00,1.07
7390.00,1.07
7388.00,1.07
7386.00,1.07
7384.00,1.07
7382.00,1.07
7380.00,1.07
7378.00,1.07
7376.00,1.07
7374.00,1.07
7372.00,1.07
7370.00,1.07
7368.00,1.07
7366.00,1.07
7364.00,1.07
7362.00,1.07
7360.00,1.07
7358.00,1.07
7356.00,1.07
7354.00,1.07
7352.00,1.07
7350.00,1.07
7348.00,1.07
7346.00,1.07
7344.00,1.07
7342.00,1.07
7340.00,1.07
7338.00,1.07
7336.00,1.07
7334.00,1.07
7332.00,1.07
7330.00,1.07
7328.00,1.07
7326.00,1.07
7324.00,1.07
7322.00,1.07
7320.00,1.07
7318.00,1.07
7316.00,1.07
7314.00,1.07
7312.00,1.07
7310.00,1.07
7308.00,1.07
7306.00,1.07
7304.00,1.07
7302.00,1.07
7300.00,1.07
7298.00,1.06
7296.00,1.06
7294.00,1.06
7292.00,1.06
7290.00,1.06
7288.00,1.06
7286.00,1.06
7284.00,1.06
7282.00,1.06
7280.00,1.06
7278.00,1.06
7276.00,1.06
7274.00,1.06
7272.00,1.06
7270.00,1.06
7268.00,1.06
7266.00,1.06
7264.00,1.06
7262.00,1.06
7260.00,1.06
7258.00,1.06
7256.00,1.06
7254.00,1.06
7252.00,1.06
7250.00,1.05
7248.00,1.05
7246.00,1.05
7244.00,1.05
7242.00,1.05
7240.00,1.05
7238.00,1.05
7236.00,1.05
7234.00,1.04
7232.00,1.04
7230.00,1.04
7228.00,1.04
7226.00,1.04
7224.00,1.04
7222.00,1.03
7220.00,1.03
7218.00,1.03
7216.00,1.03
7214.00,1.03
7212.00,1.03
7210.00,1.03
7208.00,1.02
7206.00,1.02
7204.00,1.02
7202.00,1.02
7200.00,1.02
7198.00,1.02
7196.00,1.01
7194.00,1.01
7192.00,1.01
7190.00,1.01
7188.00,1.01
7186.00,1.00
7184.00,1.00
7182.00,1.00
7180.00,1.00
7178.00,1.00
7176.00,1.00
7174.00,0.99
7172.00,0.99
7170.00,0.99
7168.00,0.99
7166.00,0.99
7164.00,0.99
7162.00,0.99
7160.00,0.98
7158.00,0.98
7156.00,0.98
7154.00,0.98
7152.00,0.98
7150.00,0.98
7148.00,0.98
7146.00,0.98
7144.00,0.98
7142.00,0.98
7140.00,0.98
7138.00,0.98
7136.00,0.98
7134.00,0.98
7132.00,0.98
7130.00,0.97
7128.00,0.97
7126.00,0.97
7124.00,0.97
7122.00,0.97
7120.00,0.97
7118.00,0.97
7116.00,0.97
7114.00,0.97
7112.00,0.96
7110.00,0.96
7108.00,0.96
7106.00,0.96
7104.00,0.96
7102.00,0.96
7100.00,0.95
7098.00,0.95
7096.00,0.95
7094.00,0.95
7092.00,0.95
7090.00,0.94
7088.00,0.94
7086.00,0.94
7084.00,0.94
7082.00,0.94
7080.00,0.94
7078.00,0.94
7076.00,0.93
7074.00,0.93
7072.00,0.93
7070.00,0.93
7068.00,0.93
7066.00,0.93
7064.00,0.93
7062.00,0.93
7060.00,0.93
7058.00,0.92
7056.00,0.92
7054.00,0.92
7052.00,0.92
7050.00,0.92
7048.00,0.92
7046.00,0.92
7044.00,0.92
7042.00,0.92
7040.00,0.92
7038.00,0.92
7036.00,0.92
7034.00,0.91
7032.00,0.91
7030.00,0.91
7028.00,0.91
7026.00,0.91
7024.00,0.91
7022.00,0.91
7020.00,0.91
7018.00,0.91
7016.00,0.91
7014.00,0.91
7012.00,0.91
7010.00,0.91
7008.00,0.91
7006.00,0.91
7004.00,0.91
7002.00,0.91
7000.00,0.91
6998.00,0.91
6996.00,0.91
6994.00,0.91
6992.00,0.91
6990.00,0.91
6988.00,0.91
6986.00,0.91
6984.00,0.91
6982.00,0.91
6980.00,0.91
6978.00,0.91
6976.00,0.91
6974.00,0.91
6972.00,0.91
6970.00,0.91
6968.00,0.91
6966.00,0.91
6964.00,0.91
6962.00,0.91
6960.00,0.90
6958.00,0.90
6956.00,0.90
6954.00,0.90
6952.00,0.90
6950.00,0.90
6948.00,0.90
6946.00,0.90
6944.00,0.90
6942.00,0.90
6940.00,0.90
6938.00,0.90
6936.00,0.90
6934.00,0.90
6932.00,0.90
6930.00,0.90
6928.00,0.89
6926.00,0.89
6924.00,0.89
6922.00,0.89
6920.00,0.89
6918.00,0.89
6916.00,0.89
6914.00,0.89
6912.00,0.89
6910.00,0.89
6908.00,0.89
6906.00,0.89
6904.00,0.89
6902.00,0.89
6900.00,0.89
6898.00,0.89
6896.00,0.89
6894.00,0.89
6892.00,0.89
6890.00,0.89
6888.00,0.89
6886.00,0.89
6884.00,0.89
6882.00,0.89
6880.00,0.89
6878.00,0.89
6876.00,0.89
6874.00,0.89
6872.00,0.89
6870.00,0.89
6868.00,0.89
6866.00,0.89
6864.00,0.89
6862.00,0.89
6860.00,0.89
6858.00,0.89
6856.00,0.89
6854.00,0.89
6852.00,0.89
6850.00,0.89
6848.00,0.89
6846.00,0.89
6844.00,0.89
6842.00,0.89
6840.00,0.90
6838.00,0.90
6836.00,0.90
6834.00,0.90
6832.00,0.90
6830.00,0.90
6828.00,0.90
6826.00,0.90
6824.00,0.90
6822.00,0.90
6820.00,0.90
6818.00,0.90
6816.00,0.90
6814.00,0.90
6812.00,0.90
6810.00,0.90
6808.00,0.90
6806.00,0.90
6804.00,0.90
6802.00,0.90
6800.00,0.91
6798.00,0.91
6796.00,0.91
6794.00,0.91
6792.00,0.91
6790.00,0.91
6788.00,0.91
6786.00,0.91
6784.00,0.91
6782.00,0.91
6780.00,0.91
6778.00,0.91
6776.00,0.91
6774.00,0.91
6772.00,0.91
6770.00,0.91
6768.00,0.91
6766.00,0.91
6764.00,0.91
6762.00,0.92
6760.00,0.92
6758.00,0.92
6756.00,0.92
6754.00,0.92
6752.00,0.92
6750.00,0.92
6748.00,0.92
6746.00,0.92
6744.00,0.92
6742.00,0.92
6740.00,0.92
6738.00,0.92
6736.00,0.92
6734.00,0.92
6732.00,0.92
6730.00,0.92
6728.00,0.92
6726.00,0.93
6724.00,0.93
6722.00,0.93
6720.00,0.93
6718.00,0.93
6716.00,0.93
6714.00,0.93
6712.00,0.93
6710.00,0.93
6708.00,0.93
6706.00,0.93
6704.00,0.93
6702.00,0.93
6700.00,0.94
6698.00,0.94
6696.00,0.94
6694.00,0.94
6692.00,0.94
6690.00,0.94
6688.00,0.94
6686.00,0.94
6684.00,0.94
6682.00,0.94
6680.00,0.94
6678.00,0.95
6676.00,0.95
6674.00,0.95
6672.00,0.95
6670.00,0.95
6668.00,0.95
6666.00,0.95
6664.00,0.95
6662.00,0.95
6660.00,0.95
6658.00,0.95
6656.00,0.95
6654.00,0.96
6652.00,0.96
6650.00,0.96
6648.00,0.96
6646.00,0.96
6644.00,0.96
6642.00,0.96
6640.00,0.96
6638.00,0.96
6636.00,0.96
6634.00,0.96
6632.00,0.96
6630.00,0.96
6628.00,0.96
6626.00,0.96
6624.00,0.96
6622.00,0.96
6620.00,0.96
6618.00,0.96
6616.00,0.96
6614.00,0.96
6612.00,0.97
6610.00,0.97
6608.00,0.97
6606.00,0.97
6604.00,0.97
6602.00,0.97
6600.00,0.97
6598.00,0.97
6596.00,0.97
6594.00,0.97
6592.00,0.97
6590.00,0.97
6588.00,0.97
6586.00,0.98
6584.00,0.98
6582.00,0.98
6580.00,0.98
6578.00,0.98
6576.00,0.98
6574.00,0.98
6572.00,0.98
6570.00,0.98
6568.00,0.98
6566.00,0.98
6564.00,0.98
6562.00,0.98
6560.00,0.98
6558.00,0.99
6556.00,0.99
6554.00,0.99
6552.00,0.99
6550.00,0.99
6548.00,0.99
6546.00,0.99
6544.00,0.99
6542.00,0.99
6540.00,0.99
6538.00,0.99
6536.00,0.99
6534.00,0.99
6532.00,0.99
6530.00,0.99
6528.00,0.99
6526.00,0.99
6524.00,0.99
6522.00,0.99
6520.00,0.99
6518.00,0.99
6516.00,0.99
6514.00,0.99
6512.00,0.99
6510.00,0.99
6508.00,1.00
6506.00,1.00
6504.00,1.00
6502.00,1.00
6500.00,1.00
6498.00,1.00
6496.00,1.00
6494.00,1.00
6492.00,1.00
6490.00,1.00
6488.00,1.00
6486.00,1.00
6484.00,1.00
6482.00,1.00
6480.00,1.01
6478.00,1.01
6476.00,1.01
6474.00,1.01
6472.00,1.01
6470.00,1.01
6468.00,1.01
6466.00,1.01
6464.00,1.01
6462.00,1.01
6460.00,1.01
6458.00,1.01
6456.00,1.01
6454.00,1.01
6452.00,1.01
6450.00,1.01
6448.00,1.01
6446.00,1.01
6444.00,1.01
6442.00,1.01
6440.00,1.01
6438.00,1.01
6436.00,1.01
6434.00,1.01
6432.00,1.01
6430.00,1.01
6428.00,1.01
6426.00,1.01
6424.00,1.01
6422.00,1.01
6420.00,1.01
6418.00,1.01
6416.00,1.02
6414.00,1.02
6412.00,1.02
6410.00,1.02
6408.00,1.02
6406.00,1.02
6404.00,1.02
6402.00,1.02
6400.00,1.02
6398.00,1.02
6396.00,1.02
6394.00,1.02
6392.00,1.02
6390.00,1.02
6388.00,1.02
6386.00,1.02
6384.00,1.02
6382.00,1.02
6380.00,1.02
6378.00,1.02
6376.00,1.02
6374.00,1.02
6372.00,1.02
6370.00,1.02
6368.00,1.02
6366.00,1.02
6364.00,1.02
6362.00,1.02
6360.00,1.02
6358.00,1.02
6356.00,1.03
6354.00,1.03
6352.00,1.03
6350.00,1.03
6348.00,1.03
6346.00,1.03
6344.00,1.03
6342.00,1.03
6340.00,1.03
6338.00,1.03
6336.00,1.03
6334.00,1.03
6332.00,1.03
6330.00,1.03
6328.00,1.03
6326.00,1.03
6324.00,1.03
6322.00,1.03
6320.00,1.03
6318.00,1.03
6316.00,1.03
6314.00,1.03
6312.00,1.03
6310.00,1.04
6308.00,1.04
6306.00,1.04
6304.00,1.04
6302.00,1.04
6300.00,1.04
6298.00,1.04
6296.00,1.04
6294.00,1.04
6292.00,1.04
6290.00,1.04
6288.00,1.04
6286.00,1.04
6284.00,1.04
6282.00,1.05
6280.00,1.05
6278.00,1.05
6276.00,1.05
6274.00,1.05
6272.00,1.05
6270.00,1.05
6268.00,1.05
6266.00,1.05
6264.00,1.05
6262.00,1.05
6260.00,1.05
6258.00,1.05
6256.00,1.05
6254.00,1.05
6252.00,1.05
6250.00,1.05
6248.00,1.05
6246.00,1.05
6244.00,1.05
6242.00,1.05
6240.00,1.05
6238.00,1.05
6236.00,1.06
6234.00,1.06
6232.00,1.06
6230.00,1.06
6228.00,1.06
6226.00,1.06
6224.00,1.06
6222.00,1.06
6220.00,1.06
6218.00,1.06
6216.00,1.06
6214.00,1.06
6212.00,1.06
6210.00,1.06
6208.00,1.06
6206.00,1.06
6204.00,1.06
6202.00,1.06
6200.00,1.06
6198.00,1.06
6196.00,1.07
6194.00,1.07
6192.00,1.07
6190.00,1.07
6188.00,1.07
6186.00,1.07
6184.00,1.07
6182.00,1.07
6180.00,1.07
6178.00,1.07
6176.00,1.07
6174.00,1.07
6172.00,1.07
6170.00,1.07
6168.00,1.07
6166.00,1.07
6164.00,1.07
6162.00,1.07
6160.00,1.07
6158.00,1.07
6156.00,1.07
6154.00,1.07
6152.00,1.07
6150.00,1.07
6148.00,1.07
6146.00,1.07
6144.00,1.07
6142.00,1.08
6140.00,1.08
6138.00,1.08
6136.00,1.08
6134.00,1.08
6132.00,1.08
6130.00,1.08
6128.00,1.08
6126.00,1.08
6124.00,1.08
6122.00,1.08
6120.00,1.08
6118.00,1.08
6116.00,1.08
6114.00,1.08
6112.00,1.08
6110.00,1.08
6108.00,1.08
6106.00,1.08
6104.00,1.08
6102.00,1.08
6100.00,1.09
6098.00,1.09
6096.00,1.09
6094.00,1.09
6092.00,1.09
6090.00,1.09
6088.00,1.09
6086.00,1.09
6084.00,1.09
6082.00,1.09
6080.00,1.09
6078.00,1.09
6076.00,1.09
6074.00,1.09
6072.00,1.09
6070.00,1.09
6068.00,1.09
6066.00,1.09
6064.00,1.09
6062.00,1.09
6060.00,1.09
6058.00,1.09
6056.00,1.09
6054.00,1.09
6052.00,1.09
6050.00,1.09
6048.00,1.09
6046.00,1.09
6044.00,1.09
6042.00,1.09
6040.00,1.09
6038.00,1.09
6036.00,1.09
6034.00,1.09
6032.00,1.09
6030.00,1.09
6028.00,1.09
6026.00,1.09
6024.00,1.09
6022.00,1.09
6020.00,1.09
6018.00,1.09
6016.00,1.09
6014.00,1.09
6012.00,1.09
6010.00,1.09
6008.00,1.09
6006.00,1.09
6004.00,1.09
6002.00,1.09
6000.00,1.09
5998.00,1.09
5996.00,1.09
5994.00,1.09
5992.00,1.09
5990.00,1.09
5988.00,1.09
5986.00,1.09
5984.00,1.09
5982.00,1.09
5980.00,1.09
5978.00,1.09
5976.00,1.09
5974.00,1.09
5972.00,1.08
5970.00,1.08
5968.00,1.08
5966.00,1.08
5964.00,1.08
5962.00,1.08
5960.00,1.08
5958.00,1.08
5956.00,1.07
5954.00,1.07
5952.00,1.07
5950.00,1.07
5948.00,1.07
5946.00,1.07
5944.00,1.07
5942.00,1.07
5940.00,1.06
5938.00,1.06
5936.00,1.06
5934.00,1.06
5932.00,1.06
5930.00,1.06
5928.00,1.06
5926.00,1.06
5924.00,1.06
5922.00,1.06
5920.00,1.06
5918.00,1.06
5916.00,1.06
5914.00,1.06
5912.00,1.05
5910.00,1.05
5908.00,1.05
5906.00,1.05
5904.00,1.05
5902.00,1.05
5900.00,1.05
5898.00,1.05
5896.00,1.05
5894.00,1.06
5892.00,1.06
5890.00,1.06
5888.00,1.06
5886.00,1.06
5884.00,1.06
5882.00,1.06
5880.00,1.06
5878.00,1.06
5876.00,1.06
5874.00,1.06
5872.00,1.06
5870.00,1.06
5868.00,1.06
5866.00,1.06
5864.00,1.06
5862.00,1.06
5860.00,1.06
5858.00,1.07
5856.00,1.07
5854.00,1.07
5852.00,1.07
5850.00,1.07
5848.00,1.07
5846.00,1.07
5844.00,1.07
5842.00,1.07
5840.00,1.07
5838.00,1.07
5836.00,1.07
5834.00,1.07
5832.00,1.07
5830.00,1.07
5828.00,1.07
5826.00,1.07
5824.00,1.07
5822.00,1.07
5820.00,1.07
5818.00,1.07
5816.00,1.07
5814.00,1.07
5812.00,1.07
5810.00,1.07
5808.00,1.07
5806.00,1.07
5804.00,1.07
5802.00,1.07
5800.00,1.07
5798.00,1.07
5796.00,1.06
5794.00,1.06
5792.00,1.06
5790.00,1.06
5788.00,1.06
5786.00,1.06
5784.00,1.06
5782.00,1.06
5780.00,1.06
5778.00,1.06
5776.00,1.06
5774.00,1.06
5772.00,1.06
5770.00,1.06
5768.00,1.06
5766.00,1.06
5764.00,1.06
5762.00,1.06
5760.00,1.06
5758.00,1.07
5756.00,1.07
5754.00,1.07
5752.00,1.07
5750.00,1.07
5748.00,1.07
5746.00,1.07
5744.00,1.07
5742.00,1.07
5740.00,1.07
5738.00,1.07
5736.00,1.07
5734.00,1.07
5732.00,1.07
5730.00,1.07
5728.00,1.07
5726.00,1.07
5724.00,1.07
5722.00,1.07
5720.00,1.07
5718.00,1.07
5716.00,1.07
5714.00,1.07
5712.00,1.07
5710.00,1.07
5708.00,1.07
5706.00,1.07
5704.00,1.07
5702.00,1.07
5700.00,1.07
5698.00,1.07
5696.00,1.07
5694.00,1.07
5692.00,1.07
5690.00,1.07
5688.00,1.07
5686.00,1.07
5684.00,1.07
5682.00,1.07
5680.00,1.07
5678.00,1.07
5676.00,1.07
5674.00,1.07
5672.00,1.07
5670.00,1.07
5668.00,1.07
5666.00,1.07
5664.00,1.07
5662.00,1.07
5660.00,1.07
5658.00,1.07
5656.00,1.07
5654.00,1.07
5652.00,1.07
5650.00,1.07
5648.00,1.07
5646.00,1.07
5644.00,1.07
5642.00,1.07
5640.00,1.07
5638.00,1.07
5636.00,1.07
5634.00,1.07
5632.00,1.07
5630.00,1.07
5628.00,1.07
5626.00,1.07
5624.00,1.07
5622.00,1.07
5620.00,1.07
5618.00,1.07
5616.00,1.08
5614.00,1.08
5612.00,1.08
5610.00,1.08
5608.00,1.08
5606.00,1.08
5604.00,1.08
5602.00,1.08
5600.00,1.08
5598.00,1.08
5596.00,1.08
5594.00,1.08
5592.00,1.08
5590.00,1.08
5588.00,1.08
5586.00,1.08
5584.00,1.08
5582.00,1.08
5580.00,1.08
5578.00,1.08
5576.00,1.08
5574.00,1.08
5572.00,1.08
5570.00,1.08
5568.00,1.08
5566.00,1.08
5564.00,1.08
5562.00,1.08
5560.00,1.09
5558.00,1.09
5556.00,1.09
5554.00,1.09
5552.00,1.09
5550.00,1.09
5548.00,1.09
5546.00,1.09
5544.00,1.09
5542.00,1.09
5540.00,1.09
5538.00,1.09
5536.00,1.09
5534.00,1.09
5532.00,1.09
5530.00,1.09
5528.00,1.09
5526.00,1.09
5524.00,1.09
5522.00,1.09
5520.00,1.09
5518.00,1.09
5516.00,1.09
5514.00,1.09
5512.00,1.09
5510.00,1.09
5508.00,1.09
5506.00,1.09
5504.00,1.09
5502.00,1.09
5500.00,1.09
5498.00,1.09
5496.00,1.09
5494.00,1.09
5492.00,1.09
5490.00,1.09
5488.00,1.09
5486.00,1.09
5484.00,1.09
5482.00,1.09
5480.00,1.09
5478.00,1.09
5476.00,1.09
5474.00,1.09
5472.00,1.09
5470.00,1.09
5468.00,1.09
5466.00,1.09
5464.00,1.09
5462.00,1.09
5460.00,1.09
5458.00,1.09
5456.00,1.09
5454.00,1.09
5452.00,1.09
5450.00,1.09
5448.00,1.09
5446.00,1.09
5444.00,1.09
5442.00,1.09
5440.00,1.09
5438.00,1.09
5436.00,1.09
5434.00,1.09
5432.00,1.09
5430.00,1.09
5428.00,1.09
5426.00,1.09
5424.00,1.09
5422.00,1.09
5420.00,1.09
5418.00,1.09
5416.00,1.09
5414.00,1.09
5412.00,1.09
5410.00,1.09
5408.00,1.09
5406.00,1.09
5404.00,1.09
5402.00,1.09
5400.00,1.09
5398.00,1.09
5396.00,1.09
5394.00,1.09
5392.00,1.09
5390.00,1.09
5388.00,1.09
5386.00,1.09
5384.00,1.09
5382.00,1.09
5380.00,1.08
5378.00,1.08
5376.00,1.08
5374.00,1.08
5372.00,1.08
5370.00,1.08
5368.00,1.07
5366.00,1.07
5364.00,1.07
5362.00,1.07
5360.00,1.06
5358.00,1.06
5356.00,1.06
5354.00,1.05
5352.00,1.05
5350.00,1.05
5348.00,1.04
5346.00,1.04
5344.00,1.03
5342.00,1.03
5340.00,1.02
5338.00,1.02
5336.00,1.01
5334.00,1.01
5332.00,1.00
5330.00,1.00
5328.00,0.99
5326.00,0.99
5324.00,0.98
5322.00,0.98
5320.00,0.97
5318.00,0.96
5316.00,0.96
5314.00,0.95
5312.00,0.94
5310.00,0.94
5308.00,0.93
5306.00,0.92
5304.00,0.91
5302.00,0.91
5300.00,0.90
5298.00,0.89
5296.00,0.89
5294.00,0.88
5292.00,0.87
5290.00,0.86
5288.00,0.86
5286.00,0.85
5284.00,0.84
5282.00,0.84
5280.00,0.83
5278.00,0.83
5276.00,0.82
5274.00,0.81
5272.00,0.81
5270.00,0.80
5268.00,0.80
5266.00,0.79
5264.00,0.79
5262.00,0.78
5260.00,0.78
5258.00,0.77
5256.00,0.77
5254.00,0.77
5252.00,0.76
5250.00,0.76
5248.00,0.76
5246.00,0.75
5244.00,0.75
5242.00,0.75
5240.00,0.74
5238.00,0.74
5236.00,0.74
5234.00,0.73
5232.00,0.73
5230.00,0.73
5228.00,0.73
5226.00,0.72
5224.00,0.72
5222.00,0.72
5220.00,0.72
5218.00,0.72
5216.00,0.71
5214.00,0.71
5212.00,0.71
5210.00,0.71
5208.00,0.71
5206.00,0.71
5204.00,0.71
5202.00,0.70
5200.00,0.70
5198.00,0.70
5196.00,0.70
5194.00,0.70
5192.00,0.70
5190.00,0.70
5188.00,0.70
5186.00,0.70
5184.00,0.70
5182.00,0.70
5180.00,0.70
5178.00,0.70
5176.00,0.70
5174.00,0.70
5172.00,0.70
5170.00,0.70
5168.00,0.70
5166.00,0.70
5164.00,0.70
5162.00,0.70
5160.00,0.70
5158.00,0.70
5156.00,0.70
5154.00,0.70
5152.00,0.70
5150.00,0.70
5148.00,0.71
5146.00,0.71
5144.00,0.71
5142.00,0.71
5140.00,0.71
5138.00,0.71
5136.00,0.71
5134.00,0.71
5132.00,0.72
5130.00,0.72
5128.00,0.72
5126.00,0.72
5124.00,0.72
5122.00,0.72
5120.00,0.73
5118.00,0.73
5116.00,0.73
5114.00,0.73
5112.00,0.73
5110.00,0.74
5108.00,0.74
5106.00,0.74
5104.00,0.74
5102.00,0.74
5100.00,0.75
5098.00,0.75
5096.00,0.75
5094.00,0.75
5092.00,0.76
5090.00,0.76
5088.00,0.76
5086.00,0.76
5084.00,0.77
5082.00,0.77
5080.00,0.77
5078.00,0.77
5076.00,0.77
5074.00,0.78
5072.00,0.78
5070.00,0.78
5068.00,0.78
5066.00,0.79
5064.00,0.79
5062.00,0.79
5060.00,0.79
5058.00,0.80
5056.00,0.80
5054.00,0.80
5052.00,0.80
5050.00,0.80
5048.00,0.81
5046.00,0.81
5044.00,0.81
5042.00,0.81
5040.00,0.82
5038.00,0.82
5036.00,0.82
5034.00,0.82
5032.00,0.83
5030.00,0.83
5028.00,0.83
5026.00,0.83
5024.00,0.83
5022.00,0.84
5020.00,0.84
5018.00,0.84
5016.00,0.84
5014.00,0.85
5012.00,0.85
5010.00,0.85
5008.00,0.85
5006.00,0.85
5004.00,0.86
5002.00,0.86
5000.00,0.86
4998.00,0.86
4996.00,0.86
4994.00,0.87
4992.00,0.87
4990.00,0.87
4988.00,0.87
4986.00,0.87
4984.00,0.87
4982.00,0.88
4980.00,0.88
4978.00,0.88
4976.00,0.88
4974.00,0.88
4972.00,0.89
4970.00,0.89
4968.00,0.89
4966.00,0.89
4964.00,0.89
4962.00,0.89
4960.00,0.90
4958.00,0.90
4956.00,0.90
4954.00,0.90
4952.00,0.90
4950.00,0.90
4948.00,0.90
4946.00,0.91
4944.00,0.91
4942.00,0.91
4940.00,0.91
4938.00,0.91
4936.00,0.91
4934.00,0.91
4932.00,0.92
4930.00,0.92
4928.00,0.92
4926.00,0.92
4924.00,0.92
4922.00,0.92
4920.00,0.92
4918.00,0.93
4916.00,0.93
4914.00,0.93
4912.00,0.93
4910.00,0.93
4908.00,0.93
4906.00,0.93
4904.00,0.93
4902.00,0.94
4900.00,0.94
4898.00,0.94
4896.00,0.94
4894.00,0.94
4892.00,0.94
4890.00,0.94
4888.00,0.94
4886.00,0.94
4884.00,0.94
4882.00,0.95
4880.00,0.95
4878.00,0.95
4876.00,0.95
4874.00,0.95
4872.00,0.95
4870.00,0.95
4868.00,0.95
4866.00,0.95
4864.00,0.95
4862.00,0.95
4860.00,0.96
4858.00,0.96
4856.00,0.96
4854.00,0.96
4852.00,0.96
4850.00,0.96
4848.00,0.96
4846.00,0.97
4844.00,0.97
4842.00,0.97
4840.00,0.97
4838.00,0.97
4836.00,0.97
4834.00,0.97
4832.00,0.98
4830.00,0.98
4828.00,0.98
4826.00,0.98
4824.00,0.98
4822.00,0.98
4820.00,0.98
4818.00,0.98
4816.00,0.98
4814.00,0.99
4812.00,0.99
4810.00,0.99
4808.00,0.99
4806.00,0.99
4804.00,0.99
4802.00,0.99
4800.00,0.99
4798.00,0.99
4796.00,1.00
4794.00,1.00
4792.00,1.00
4790.00,1.00
4788.00,1.00
4786.00,1.00
4784.00,1.00
4782.00,1.00
4780.00,1.01
4778.00,1.01
4776.00,1.01
4774.00,1.01
4772.00,1.01
4770.00,1.01
4768.00,1.01
4766.00,1.02
4764.00,1.02
4762.00,1.02
4760.00,1.02
4758.00,1.02
4756.00,1.02
4754.00,1.03
4752.00,1.03
4750.00,1.03
4748.00,1.03
4746.00,1.03
4744.00,1.03
4742.00,1.04
4740.00,1.04
4738.00,1.04
4736.00,1.04
4734.00,1.04
4732.00,1.04
4730.00,1.04
4728.00,1.04
4726.00,1.05
4724.00,1.05
4722.00,1.05
4720.00,1.05
4718.00,1.05
4716.00,1.05
4714.00,1.05
4712.00,1.05
4710.00,1.05
4708.00,1.06
4706.00,1.06
4704.00,1.06
4702.00,1.06
4700.00,1.06
4698.00,1.06
4696.00,1.06
4694.00,1.06
4692.00,1.06
4690.00,1.06
4688.00,1.06
4686.00,1.07
4684.00,1.07
4682.00,1.07
4680.00,1.07
4678.00,1.07
4676.00,1.07
4674.00,1.07
4672.00,1.07
4670.00,1.07
4668.00,1.07
4666.00,1.07
4664.00,1.07
4662.00,1.08
4660.00,1.08
4658.00,1.08
4656.00,1.08
4654.00,1.08
4652.00,1.08
4650.00,1.08
4648.00,1.08
4646.00,1.08
4644.00,1.08
4642.00,1.08
4640.00,1.08
4638.00,1.08
4636.00,1.08
4634.00,1.08
4632.00,1.08
4630.00,1.08
4628.00,1.08
4626.00,1.08
4624.00,1.08
4622.00,1.08
4620.00,1.08
4618.00,1.08
4616.00,1.08
4614.00,1.08
4612.00,1.09
4610.00,1.09
4608.00,1.09
4606.00,1.09
4604.00,1.09
4602.00,1.09
4600.00,1.09
4598.00,1.09
4596.00,1.09
4594.00,1.09
4592.00,1.09
4590.00,1.09
4588.00,1.09
4586.00,1.09
4584.00,1.09
4582.00,1.09
4580.00,1.09
4578.00,1.09
4576.00,1.09
4574.00,1.09
4572.00,1.09
4570.00,1.09
4568.00,1.09
4566.00,1.09
4564.00,1.09
4562.00,1.09
4560.00,1.09
4558.00,1.09
4556.00,1.09
4554.00,1.09
4552.00,1.09
4550.00,1.09
4548.00,1.09
4546.00,1.09
4544.00,1.09
4542.00,1.09
4540.00,1.09
4538.00,1.09
4536.00,1.09
4534.00,1.09
4532.00,1.09
4530.00,1.09
4528.00,1.09
4526.00,1.09
4524.00,1.09
4522.00,1.09
4520.00,1.09
4518.00,1.09
4516.00,1.09
4514.00,1.09
4512.00,1.09
4510.00,1.09
4508.00,1.09
4506.00,1.09
4504.00,1.09
4502.00,1.09
4500.00,1.09
4498.00,1.09
4496.00,1.09
4494.00,1.09
4492.00,1.09
4490.00,1.09
4488.00,1.09
4486.00,1.09
4484.00,1.09
4482.00,1.09
4480.00,1.09
4478.00,1.09
4476.00,1.09
4474.00,1.09
4472.00,1.09
4470.00,1.09
4468.00,1.09
4466.00,1.08
4464.00,1.08
4462.00,1.08
4460.00,1.08
4458.00,1.08
4456.00,1.07
4454.00,1.07
4452.00,1.07
4450.00,1.06
4448.00,1.06
4446.00,1.05
4444.00,1.05
4442.00,1.05
4440.00,1.04
4438.00,1.04
4436.00,1.03
4434.00,1.03
4432.00,1.02
4430.00,1.02
4428.00,1.01
4426.00,1.01
4424.00,1.00
4422.00,1.00
4420.00,1.00
4418.00,1.00
4416.00,0.99
4414.00,0.99
4412.00,0.99
4410.00,0.99
4408.00,0.99
4406.00,0.99
4404.00,0.99
4402.00,0.99
4400.00,0.99
4398.00,1.00
4396.00,1.00
4394.00,1.00
4392.00,1.00
4390.00,1.01
4388.00,1.01
4386.00,1.01
4384.00,1.01
4382.00,1.02
4380.00,1.02
4378.00,1.02
4376.00,1.02
4374.00,1.02
4372.00,1.02
4370.00,1.02
4368.00,1.02
4366.00,1.02
4364.00,1.02
4362.00,1.02
4360.00,1.02
4358.00,1.01
4356.00,1.01
4354.00,1.01
4352.00,1.01
4350.00,1.01
4348.00,1.01
4346.00,1.01
4344.00,1.01
4342.00,1.01
4340.00,1.01
4338.00,1.01
4336.00,1.01
4334.00,1.01
4332.00,1.01
4330.00,1.02
4328.00,1.02
4326.00,1.02
4324.00,1.03
4322.00,1.03
4320.00,1.03
4318.00,1.04
4316.00,1.04
4314.00,1.05
4312.00,1.05
4310.00,1.05
4308.00,1.06
4306.00,1.06
4304.00,1.07
4302.00,1.07
4300.00,1.07
4298.00,1.08
4296.00,1.08
4294.00,1.08
4292.00,1.08
4290.00,1.08
4288.00,1.09
4286.00,1.09
4284.00,1.09
4282.00,1.09
4280.00,1.09
4278.00,1.09
4276.00,1.08
4274.00,1.08
4272.00,1.08
4270.00,1.08
4268.00,1.08
4266.00,1.08
4264.00,1.08
4262.00,1.08
4260.00,1.08
4258.00,1.08
4256.00,1.08
4254.00,1.08
4252.00,1.08
4250.00,1.08
4248.00,1.08
4246.00,1.08
4244.00,1.08
4242.00,1.08
4240.00,1.08
4238.00,1.08
4236.00,1.08
4234.00,1.09
4232.00,1.09
4230.00,1.09
4228.00,1.09
4226.00,1.09
4224.00,1.09
4222.00,1.09
4220.00,1.09
4218.00,1.09
4216.00,1.09
4214.00,1.09
4212.00,1.09
4210.00,1.09
4208.00,1.09
4206.00,1.09
4204.00,1.09
4202.00,1.09
4200.00,1.09
4198.00,1.09
4196.00,1.09
4194.00,1.09
4192.00,1.09
4190.00,1.09
4188.00,1.09
4186.00,1.09
4184.00,1.09
4182.00,1.09
4180.00,1.09
4178.00,1.09
4176.00,1.09
4174.00,1.09
4172.00,1.09
4170.00,1.09
4168.00,1.09
4166.00,1.09
4164.00,1.09
4162.00,1.09
4160.00,1.09
4158.00,1.09
4156.00,1.09
4154.00,1.09
4152.00,1.09
4150.00,1.09
4148.00,1.09
4146.00,1.09
4144.00,1.09
4142.00,1.09
4140.00,1.09
4138.00,1.09
4136.00,1.09
4134.00,1.09
4132.00,1.09
4130.00,1.09
4128.00,1.09
4126.00,1.09
4124.00,1.09
4122.00,1.09
4120.00,1.09
4118.00,1.09
4116.00,1.09
4114.00,1.09
4112.00,1.09
4110.00,1.09
4108.00,1.09
4106.00,1.09
4104.00,1.08
4102.00,1.08
4100.00,1.08
4098.00,1.08
4096.00,1.08
4094.00,1.08
4092.00,1.08
4090.00,1.07
4088.00,1.07
4086.00,1.07
4084.00,1.07
4082.00,1.07
4080.00,1.07
4078.00,1.07
4076.00,1.06
4074.00,1.06
4072.00,1.06
4070.00,1.06
4068.00,1.06
4066.00,1.06
4064.00,1.06
4062.00,1.06
4060.00,1.06
4058.00,1.06
4056.00,1.06
4054.00,1.06
4052.00,1.06
4050.00,1.06
4048.00,1.06
4046.00,1.06
4044.00,1.06
4042.00,1.06
4040.00,1.06
4038.00,1.06
4036.00,1.06
4034.00,1.06
4032.00,1.06
4030.00,1.07
4028.00,1.07
4026.00,1.07
4024.00,1.07
4022.00,1.07
4020.00,1.07
4018.00,1.07
4016.00,1.08
4014.00,1.08
4012.00,1.08
4010.00,1.08
4008.00,1.08
4006.00,1.09
4004.00,1.09
4002.00,1.09
4000.00,1.09
