创建为新数据集,样品 028 用户 Administrator 日期 星期五, 七月 26 2019
cm-1,%T
10000.00,0.92
9999.00,0.90
9998.00,0.87
9997.00,0.85
9996.00,0.83
9995.00,0.81
9994.00,0.79
9993.00,0.77
9992.00,0.75
9991.00,0.73
9990.00,0.72
9989.00,0.71
9988.00,0.70
9987.00,0.70
9986.00,0.69
9985.00,0.69
9984.00,0.69
9983.00,0.69
9982.00,0.70
9981.00,0.70
9980.00,0.71
9979.00,0.72
9978.00,0.72
9977.00,0.73
9976.00,0.74
9975.00,0.75
9974.00,0.75
9973.00,0.76
9972.00,0.77
9971.00,0.78
9970.00,0.79
9969.00,0.80
9968.00,0.81
9967.00,0.82
9966.00,0.83
9965.00,0.83
9964.00,0.83
9963.00,0.83
9962.00,0.83
9961.00,0.83
9960.00,0.82
9959.00,0.81
9958.00,0.80
9957.00,0.78
9956.00,0.77
9955.00,0.75
9954.00,0.74
9953.00,0.72
9952.00,0.71
9951.00,0.69
9950.00,0.68
9949.00,0.67
9948.00,0.65
9947.00,0.64
9946.00,0.63
9945.00,0.62
9944.00,0.61
9943.00,0.60
9942.00,0.59
9941.00,0.58
9940.00,0.58
9939.00,0.57
9938.00,0.57
9937.00,0.56
9936.00,0.56
9935.00,0.56
9934.00,0.56
9933.00,0.56
9932.00,0.57
9931.00,0.57
9930.00,0.57
9929.00,0.58
9928.00,0.58
9927.00,0.58
9926.00,0.58
9925.00,0.58
9924.00,0.58
9923.00,0.58
9922.00,0.58
9921.00,0.58
9920.00,0.58
9919.00,0.58
9918.00,0.58
9917.00,0.57
9916.00,0.57
9915.00,0.57
9914.00,0.57
9913.00,0.57
9912.00,0.56
9911.00,0.56
9910.00,0.56
9909.00,0.55
9908.00,0.55
9907.00,0.54
9906.00,0.54
9905.00,0.54
9904.00,0.54
9903.00,0.54
9902.00,0.54
9901.00,0.54
9900.00,0.54
9899.00,0.54
9898.00,0.55
9897.00,0.55
9896.00,0.56
9895.00,0.56
9894.00,0.57
9893.00,0.57
9892.00,0.58
9891.00,0.59
9890.00,0.59
9889.00,0.60
9888.00,0.61
9887.00,0.61
9886.00,0.62
9885.00,0.63
9884.00,0.64
9883.00,0.64
9882.00,0.65
9881.00,0.66
9880.00,0.67
9879.00,0.67
9878.00,0.68
9877.00,0.69
9876.00,0.69
9875.00,0.70
9874.00,0.70
9873.00,0.71
9872.00,0.71
9871.00,0.71
9870.00,0.71
9869.00,0.72
9868.00,0.72
9867.00,0.72
9866.00,0.72
9865.00,0.72
9864.00,0.72
9863.00,0.71
9862.00,0.71
9861.00,0.71
9860.00,0.70
9859.00,0.70
9858.00,0.69
9857.00,0.69
9856.00,0.68
9855.00,0.68
9854.00,0.67
9853.00,0.67
9852.00,0.66
9851.00,0.66
9850.00,0.65
9849.00,0.65
9848.00,0.64
9847.00,0.64
9846.00,0.63
9845.00,0.62
9844.00,0.62
9843.00,0.61
9842.00,0.61
9841.00,0.60
9840.00,0.60
9839.00,0.59
9838.00,0.59
9837.00,0.58
9836.00,0.58
9835.00,0.57
9834.00,0.57
9833.00,0.56
9832.00,0.56
9831.00,0.55
9830.00,0.54
9829.00,0.54
9828.00,0.53
9827.00,0.53
9826.00,0.52
9825.00,0.52
9824.00,0.51
9823.00,0.51
9822.00,0.50
9821.00,0.50
9820.00,0.50
9819.00,0.49
9818.00,0.49
9817.00,0.48
9816.00,0.48
9815.00,0.48
9814.00,0.47
9813.00,0.47
9812.00,0.47
9811.00,0.46
9810.00,0.46
9809.00,0.46
9808.00,0.46
9807.00,0.46
9806.00,0.45
9805.00,0.45
9804.00,0.45
9803.00,0.45
9802.00,0.46
9801.00,0.46
9800.00,0.46
9799.00,0.46
9798.00,0.46
9797.00,0.46
9796.00,0.46
9795.00,0.46
9794.00,0.46
9793.00,0.46
9792.00,0.46
9791.00,0.46
9790.00,0.47
9789.00,0.47
9788.00,0.47
9787.00,0.47
9786.00,0.47
9785.00,0.47
9784.00,0.48
9783.00,0.48
9782.00,0.48
9781.00,0.48
9780.00,0.49
9779.00,0.49
9778.00,0.49
9777.00,0.49
9776.00,0.50
9775.00,0.50
9774.00,0.50
9773.00,0.50
9772.00,0.51
9771.00,0.51
9770.00,0.51
9769.00,0.52
9768.00,0.52
9767.00,0.53
9766.00,0.53
9765.00,0.53
9764.00,0.54
9763.00,0.54
9762.00,0.54
9761.00,0.54
9760.00,0.54
9759.00,0.55
9758.00,0.55
9757.00,0.54
9756.00,0.54
9755.00,0.54
9754.00,0.54
9753.00,0.54
9752.00,0.54
9751.00,0.53
9750.00,0.53
9749.00,0.53
9748.00,0.52
9747.00,0.52
9746.00,0.51
9745.00,0.51
9744.00,0.50
9743.00,0.50
9742.00,0.49
9741.00,0.48
9740.00,0.48
9739.00,0.47
9738.00,0.47
9737.00,0.46
9736.00,0.46
9735.00,0.46
9734.00,0.45
9733.00,0.45
9732.00,0.45
9731.00,0.45
9730.00,0.45
9729.00,0.45
9728.00,0.45
9727.00,0.45
9726.00,0.45
9725.00,0.45
9724.00,0.45
9723.00,0.45
9722.00,0.45
9721.00,0.45
9720.00,0.46
9719.00,0.46
9718.00,0.46
9717.00,0.46
9716.00,0.47
9715.00,0.47
9714.00,0.47
9713.00,0.48
9712.00,0.48
9711.00,0.48
9710.00,0.49
9709.00,0.49
9708.00,0.49
9707.00,0.49
9706.00,0.50
9705.00,0.50
9704.00,0.50
9703.00,0.51
9702.00,0.51
9701.00,0.52
9700.00,0.52
9699.00,0.53
9698.00,0.53
9697.00,0.54
9696.00,0.54
9695.00,0.54
9694.00,0.55
9693.00,0.55
9692.00,0.55
9691.00,0.55
9690.00,0.56
9689.00,0.56
9688.00,0.56
9687.00,0.56
9686.00,0.57
9685.00,0.57
9684.00,0.57
9683.00,0.58
9682.00,0.58
9681.00,0.58
9680.00,0.58
9679.00,0.59
9678.00,0.59
9677.00,0.59
9676.00,0.59
9675.00,0.59
9674.00,0.58
9673.00,0.58
9672.00,0.58
9671.00,0.58
9670.00,0.58
9669.00,0.58
9668.00,0.58
9667.00,0.58
9666.00,0.58
9665.00,0.59
9664.00,0.59
9663.00,0.59
9662.00,0.59
9661.00,0.59
9660.00,0.60
9659.00,0.60
9658.00,0.60
9657.00,0.60
9656.00,0.60
9655.00,0.60
9654.00,0.60
9653.00,0.60
9652.00,0.60
9651.00,0.60
9650.00,0.60
9649.00,0.60
9648.00,0.60
9647.00,0.60
9646.00,0.60
9645.00,0.60
9644.00,0.59
9643.00,0.59
9642.00,0.59
9641.00,0.59
9640.00,0.59
9639.00,0.59
9638.00,0.59
9637.00,0.59
9636.00,0.59
9635.00,0.59
9634.00,0.60
9633.00,0.60
9632.00,0.60
9631.00,0.60
9630.00,0.60
9629.00,0.60
9628.00,0.61
9627.00,0.61
9626.00,0.61
9625.00,0.61
9624.00,0.61
9623.00,0.62
9622.00,0.62
9621.00,0.63
9620.00,0.63
9619.00,0.63
9618.00,0.64
9617.00,0.64
9616.00,0.65
9615.00,0.65
9614.00,0.65
9613.00,0.66
9612.00,0.66
9611.00,0.66
9610.00,0.66
9609.00,0.65
9608.00,0.65
9607.00,0.65
9606.00,0.64
9605.00,0.64
9604.00,0.63
9603.00,0.63
9602.00,0.63
9601.00,0.62
9600.00,0.62
9599.00,0.62
9598.00,0.62
9597.00,0.61
9596.00,0.61
9595.00,0.61
9594.00,0.60
9593.00,0.60
9592.00,0.60
9591.00,0.60
9590.00,0.59
9589.00,0.59
9588.00,0.59
9587.00,0.59
9586.00,0.58
9585.00,0.58
9584.00,0.58
9583.00,0.58
9582.00,0.58
9581.00,0.58
9580.00,0.58
9579.00,0.58
9578.00,0.58
9577.00,0.58
9576.00,0.58
9575.00,0.58
9574.00,0.58
9573.00,0.58
9572.00,0.58
9571.00,0.58
9570.00,0.57
9569.00,0.57
9568.00,0.57
9567.00,0.56
9566.00,0.56
9565.00,0.55
9564.00,0.54
9563.00,0.54
9562.00,0.53
9561.00,0.53
9560.00,0.52
9559.00,0.52
9558.00,0.52
9557.00,0.51
9556.00,0.51
9555.00,0.51
9554.00,0.51
9553.00,0.51
9552.00,0.51
9551.00,0.50
9550.00,0.50
9549.00,0.50
9548.00,0.50
9547.00,0.50
9546.00,0.51
9545.00,0.51
9544.00,0.51
9543.00,0.51
9542.00,0.52
9541.00,0.52
9540.00,0.53
9539.00,0.54
9538.00,0.54
9537.00,0.55
9536.00,0.56
9535.00,0.57
9534.00,0.58
9533.00,0.59
9532.00,0.60
9531.00,0.61
9530.00,0.62
9529.00,0.63
9528.00,0.64
9527.00,0.65
9526.00,0.65
9525.00,0.66
9524.00,0.67
9523.00,0.67
9522.00,0.68
9521.00,0.68
9520.00,0.69
9519.00,0.69
9518.00,0.69
9517.00,0.70
9516.00,0.70
9515.00,0.70
9514.00,0.71
9513.00,0.71
9512.00,0.71
9511.00,0.71
9510.00,0.70
9509.00,0.70
9508.00,0.69
9507.00,0.68
9506.00,0.67
9505.00,0.66
9504.00,0.65
9503.00,0.64
9502.00,0.63
9501.00,0.62
9500.00,0.61
9499.00,0.60
9498.00,0.59
9497.00,0.58
9496.00,0.57
9495.00,0.56
9494.00,0.55
9493.00,0.54
9492.00,0.54
9491.00,0.53
9490.00,0.52
9489.00,0.51
9488.00,0.50
9487.00,0.49
9486.00,0.48
9485.00,0.47
9484.00,0.47
9483.00,0.46
9482.00,0.45
9481.00,0.45
9480.00,0.45
9479.00,0.44
9478.00,0.44
9477.00,0.44
9476.00,0.44
9475.00,0.44
9474.00,0.44
9473.00,0.44
9472.00,0.44
9471.00,0.44
9470.00,0.44
9469.00,0.44
9468.00,0.44
9467.00,0.44
9466.00,0.44
9465.00,0.44
9464.00,0.44
9463.00,0.44
9462.00,0.44
9461.00,0.45
9460.00,0.45
9459.00,0.45
9458.00,0.45
9457.00,0.45
9456.00,0.45
9455.00,0.45
9454.00,0.46
9453.00,0.46
9452.00,0.46
9451.00,0.47
9450.00,0.47
9449.00,0.47
9448.00,0.47
9447.00,0.48
9446.00,0.48
9445.00,0.48
9444.00,0.48
9443.00,0.48
9442.00,0.48
9441.00,0.48
9440.00,0.48
9439.00,0.48
9438.00,0.47
9437.00,0.47
9436.00,0.48
9435.00,0.48
9434.00,0.48
9433.00,0.48
9432.00,0.48
9431.00,0.49
9430.00,0.49
9429.00,0.49
9428.00,0.49
9427.00,0.50
9426.00,0.50
9425.00,0.50
9424.00,0.50
9423.00,0.50
9422.00,0.50
9421.00,0.50
9420.00,0.50
9419.00,0.50
9418.00,0.50
9417.00,0.51
9416.00,0.51
9415.00,0.52
9414.00,0.52
9413.00,0.53
9412.00,0.54
9411.00,0.54
9410.00,0.55
9409.00,0.55
9408.00,0.55
9407.00,0.56
9406.00,0.56
9405.00,0.56
9404.00,0.56
9403.00,0.56
9402.00,0.56
9401.00,0.56
9400.00,0.56
9399.00,0.56
9398.00,0.56
9397.00,0.56
9396.00,0.56
9395.00,0.56
9394.00,0.56
9393.00,0.56
9392.00,0.56
9391.00,0.56
9390.00,0.56
9389.00,0.56
9388.00,0.55
9387.00,0.55
9386.00,0.55
9385.00,0.55
9384.00,0.55
9383.00,0.55
9382.00,0.55
9381.00,0.55
9380.00,0.55
9379.00,0.55
9378.00,0.55
9377.00,0.56
9376.00,0.56
9375.00,0.57
9374.00,0.57
9373.00,0.58
9372.00,0.58
9371.00,0.58
9370.00,0.59
9369.00,0.59
9368.00,0.60
9367.00,0.60
9366.00,0.61
9365.00,0.61
9364.00,0.62
9363.00,0.62
9362.00,0.63
9361.00,0.63
9360.00,0.63
9359.00,0.64
9358.00,0.64
9357.00,0.64
9356.00,0.64
9355.00,0.64
9354.00,0.64
9353.00,0.64
9352.00,0.64
9351.00,0.64
9350.00,0.64
9349.00,0.64
9348.00,0.63
9347.00,0.63
9346.00,0.63
9345.00,0.63
9344.00,0.62
9343.00,0.62
9342.00,0.61
9341.00,0.61
9340.00,0.60
9339.00,0.60
9338.00,0.59
9337.00,0.59
9336.00,0.58
9335.00,0.58
9334.00,0.57
9333.00,0.56
9332.00,0.56
9331.00,0.56
9330.00,0.55
9329.00,0.55
9328.00,0.55
9327.00,0.54
9326.00,0.54
9325.00,0.54
9324.00,0.54
9323.00,0.54
9322.00,0.54
9321.00,0.54
9320.00,0.54
9319.00,0.54
9318.00,0.53
9317.00,0.53
9316.00,0.53
9315.00,0.53
9314.00,0.54
9313.00,0.54
9312.00,0.54
9311.00,0.54
9310.00,0.54
9309.00,0.54
9308.00,0.54
9307.00,0.54
9306.00,0.55
9305.00,0.55
9304.00,0.55
9303.00,0.55
9302.00,0.55
9301.00,0.55
9300.00,0.54
9299.00,0.54
9298.00,0.54
9297.00,0.54
9296.00,0.54
9295.00,0.54
9294.00,0.54
9293.00,0.54
9292.00,0.54
9291.00,0.54
9290.00,0.54
9289.00,0.54
9288.00,0.53
9287.00,0.53
9286.00,0.53
9285.00,0.53
9284.00,0.52
9283.00,0.52
9282.00,0.52
9281.00,0.51
9280.00,0.51
9279.00,0.50
9278.00,0.50
9277.00,0.49
9276.00,0.49
9275.00,0.49
9274.00,0.48
9273.00,0.48
9272.00,0.47
9271.00,0.47
9270.00,0.47
9269.00,0.46
9268.00,0.46
9267.00,0.46
9266.00,0.45
9265.00,0.45
9264.00,0.45
9263.00,0.45
9262.00,0.45
9261.00,0.45
9260.00,0.46
9259.00,0.46
9258.00,0.46
9257.00,0.46
9256.00,0.47
9255.00,0.47
9254.00,0.48
9253.00,0.48
9252.00,0.49
9251.00,0.49
9250.00,0.50
9249.00,0.50
9248.00,0.51
9247.00,0.52
9246.00,0.53
9245.00,0.53
9244.00,0.54
9243.00,0.55
9242.00,0.56
9241.00,0.56
9240.00,0.57
9239.00,0.57
9238.00,0.58
9237.00,0.58
9236.00,0.58
9235.00,0.59
9234.00,0.59
9233.00,0.59
9232.00,0.59
9231.00,0.60
9230.00,0.60
9229.00,0.60
9228.00,0.61
9227.00,0.61
9226.00,0.61
9225.00,0.61
9224.00,0.61
9223.00,0.61
9222.00,0.61
9221.00,0.61
9220.00,0.61
9219.00,0.61
9218.00,0.60
9217.00,0.60
9216.00,0.59
9215.00,0.59
9214.00,0.58
9213.00,0.58
9212.00,0.58
9211.00,0.57
9210.00,0.57
9209.00,0.56
9208.00,0.56
9207.00,0.55
9206.00,0.54
9205.00,0.54
9204.00,0.53
9203.00,0.52
9202.00,0.52
9201.00,0.51
9200.00,0.50
9199.00,0.50
9198.00,0.49
9197.00,0.48
9196.00,0.48
9195.00,0.48
9194.00,0.47
9193.00,0.47
9192.00,0.47
9191.00,0.47
9190.00,0.47
9189.00,0.47
9188.00,0.47
9187.00,0.47
9186.00,0.47
9185.00,0.48
9184.00,0.48
9183.00,0.48
9182.00,0.49
9181.00,0.49
9180.00,0.50
9179.00,0.51
9178.00,0.51
9177.00,0.52
9176.00,0.52
9175.00,0.52
9174.00,0.53
9173.00,0.53
9172.00,0.54
9171.00,0.54
9170.00,0.54
9169.00,0.55
9168.00,0.55
9167.00,0.55
9166.00,0.55
9165.00,0.56
9164.00,0.56
9163.00,0.56
9162.00,0.56
9161.00,0.56
9160.00,0.56
9159.00,0.56
9158.00,0.56
9157.00,0.56
9156.00,0.56
9155.00,0.56
9154.00,0.56
9153.00,0.55
9152.00,0.55
9151.00,0.55
9150.00,0.56
9149.00,0.56
9148.00,0.56
9147.00,0.56
9146.00,0.56
9145.00,0.56
9144.00,0.57
9143.00,0.57
9142.00,0.57
9141.00,0.57
9140.00,0.57
9139.00,0.57
9138.00,0.57
9137.00,0.57
9136.00,0.57
9135.00,0.57
9134.00,0.56
9133.00,0.56
9132.00,0.56
9131.00,0.55
9130.00,0.55
9129.00,0.55
9128.00,0.54
9127.00,0.54
9126.00,0.54
9125.00,0.53
9124.00,0.53
9123.00,0.53
9122.00,0.52
9121.00,0.52
9120.00,0.52
9119.00,0.51
9118.00,0.51
9117.00,0.51
9116.00,0.50
9115.00,0.50
9114.00,0.50
9113.00,0.50
9112.00,0.50
9111.00,0.50
9110.00,0.50
9109.00,0.50
9108.00,0.50
9107.00,0.51
9106.00,0.51
9105.00,0.52
9104.00,0.52
9103.00,0.53
9102.00,0.54
9101.00,0.54
9100.00,0.55
9099.00,0.55
9098.00,0.56
9097.00,0.56
9096.00,0.56
9095.00,0.57
9094.00,0.57
9093.00,0.58
9092.00,0.58
9091.00,0.58
9090.00,0.58
9089.00,0.58
9088.00,0.59
9087.00,0.59
9086.00,0.59
9085.00,0.59
9084.00,0.59
9083.00,0.59
9082.00,0.59
9081.00,0.59
9080.00,0.58
9079.00,0.58
9078.00,0.58
9077.00,0.57
9076.00,0.57
9075.00,0.56
9074.00,0.56
9073.00,0.55
9072.00,0.55
9071.00,0.54
9070.00,0.53
9069.00,0.53
9068.00,0.52
9067.00,0.51
9066.00,0.51
9065.00,0.50
9064.00,0.49
9063.00,0.49
9062.00,0.48
9061.00,0.48
9060.00,0.47
9059.00,0.46
9058.00,0.46
9057.00,0.45
9056.00,0.45
9055.00,0.44
9054.00,0.43
9053.00,0.43
9052.00,0.43
9051.00,0.42
9050.00,0.42
9049.00,0.42
9048.00,0.42
9047.00,0.42
9046.00,0.42
9045.00,0.42
9044.00,0.42
9043.00,0.43
9042.00,0.43
9041.00,0.43
9040.00,0.44
9039.00,0.44
9038.00,0.45
9037.00,0.46
9036.00,0.47
9035.00,0.47
9034.00,0.48
9033.00,0.49
9032.00,0.50
9031.00,0.51
9030.00,0.52
9029.00,0.53
9028.00,0.54
9027.00,0.55
9026.00,0.57
9025.00,0.58
9024.00,0.59
9023.00,0.60
9022.00,0.61
9021.00,0.62
9020.00,0.63
9019.00,0.64
9018.00,0.65
9017.00,0.66
9016.00,0.67
9015.00,0.68
9014.00,0.68
9013.00,0.69
9012.00,0.69
9011.00,0.69
9010.00,0.70
9009.00,0.70
9008.00,0.70
9007.00,0.70
9006.00,0.69
9005.00,0.69
9004.00,0.69
9003.00,0.69
9002.00,0.68
9001.00,0.68
9000.00,0.67
8999.00,0.67
8998.00,0.66
8997.00,0.65
8996.00,0.64
8995.00,0.63
8994.00,0.62
8993.00,0.62
8992.00,0.61
8991.00,0.60
8990.00,0.59
8989.00,0.59
8988.00,0.59
8987.00,0.58
8986.00,0.58
8985.00,0.58
8984.00,0.58
8983.00,0.58
8982.00,0.58
8981.00,0.57
8980.00,0.57
8979.00,0.57
8978.00,0.57
8977.00,0.57
8976.00,0.57
8975.00,0.57
8974.00,0.57
8973.00,0.57
8972.00,0.57
8971.00,0.57
8970.00,0.57
8969.00,0.58
8968.00,0.58
8967.00,0.58
8966.00,0.59
8965.00,0.59
8964.00,0.60
8963.00,0.60
8962.00,0.60
8961.00,0.60
8960.00,0.60
8959.00,0.61
8958.00,0.60
8957.00,0.60
8956.00,0.60
8955.00,0.60
8954.00,0.61
8953.00,0.61
8952.00,0.61
8951.00,0.61
8950.00,0.61
8949.00,0.62
8948.00,0.62
8947.00,0.62
8946.00,0.63
8945.00,0.63
8944.00,0.63
8943.00,0.63
8942.00,0.63
8941.00,0.63
8940.00,0.63
8939.00,0.62
8938.00,0.62
8937.00,0.62
8936.00,0.62
8935.00,0.62
8934.00,0.62
8933.00,0.62
8932.00,0.62
8931.00,0.62
8930.00,0.62
8929.00,0.63
8928.00,0.63
8927.00,0.63
8926.00,0.63
8925.00,0.63
8924.00,0.63
8923.00,0.63
8922.00,0.63
8921.00,0.63
8920.00,0.63
8919.00,0.63
8918.00,0.63
8917.00,0.63
8916.00,0.64
8915.00,0.64
8914.00,0.64
8913.00,0.64
8912.00,0.64
8911.00,0.64
8910.00,0.64
8909.00,0.64
8908.00,0.64
8907.00,0.64
8906.00,0.64
8905.00,0.64
8904.00,0.64
8903.00,0.64
8902.00,0.63
8901.00,0.63
8900.00,0.63
8899.00,0.63
8898.00,0.63
8897.00,0.63
8896.00,0.62
8895.00,0.62
8894.00,0.62
8893.00,0.62
8892.00,0.62
8891.00,0.62
8890.00,0.61
8889.00,0.61
8888.00,0.61
8887.00,0.61
8886.00,0.61
8885.00,0.60
8884.00,0.60
8883.00,0.60
8882.00,0.61
8881.00,0.61
8880.00,0.61
8879.00,0.61
8878.00,0.61
8877.00,0.61
8876.00,0.61
8875.00,0.61
8874.00,0.61
8873.00,0.61
8872.00,0.61
8871.00,0.61
8870.00,0.61
8869.00,0.61
8868.00,0.61
8867.00,0.61
8866.00,0.61
8865.00,0.61
8864.00,0.60
8863.00,0.60
8862.00,0.60
8861.00,0.59
8860.00,0.59
8859.00,0.59
8858.00,0.58
8857.00,0.58
8856.00,0.57
8855.00,0.57
8854.00,0.56
8853.00,0.56
8852.00,0.55
8851.00,0.55
8850.00,0.54
8849.00,0.54
8848.00,0.53
8847.00,0.53
8846.00,0.53
8845.00,0.52
8844.00,0.52
8843.00,0.52
8842.00,0.52
8841.00,0.51
8840.00,0.51
8839.00,0.51
8838.00,0.51
8837.00,0.51
8836.00,0.51
8835.00,0.51
8834.00,0.51
8833.00,0.51
8832.00,0.52
8831.00,0.52
8830.00,0.52
8829.00,0.52
8828.00,0.52
8827.00,0.53
8826.00,0.53
8825.00,0.53
8824.00,0.54
8823.00,0.54
8822.00,0.54
8821.00,0.55
8820.00,0.55
8819.00,0.55
8818.00,0.56
8817.00,0.56
8816.00,0.56
8815.00,0.56
8814.00,0.57
8813.00,0.57
8812.00,0.57
8811.00,0.57
8810.00,0.58
8809.00,0.58
8808.00,0.58
8807.00,0.59
8806.00,0.59
8805.00,0.59
8804.00,0.59
8803.00,0.59
8802.00,0.59
8801.00,0.59
8800.00,0.59
8799.00,0.59
8798.00,0.59
8797.00,0.59
8796.00,0.59
8795.00,0.58
8794.00,0.58
8793.00,0.58
8792.00,0.58
8791.00,0.58
8790.00,0.58
8789.00,0.58
8788.00,0.58
8787.00,0.58
8786.00,0.58
8785.00,0.58
8784.00,0.58
8783.00,0.58
8782.00,0.57
8781.00,0.57
8780.00,0.57
8779.00,0.57
8778.00,0.57
8777.00,0.57
8776.00,0.57
8775.00,0.57
8774.00,0.57
8773.00,0.57
8772.00,0.58
8771.00,0.58
8770.00,0.58
8769.00,0.58
8768.00,0.57
8767.00,0.57
8766.00,0.57
8765.00,0.57
8764.00,0.57
8763.00,0.57
8762.00,0.57
8761.00,0.57
8760.00,0.57
8759.00,0.57
8758.00,0.57
8757.00,0.56
8756.00,0.56
8755.00,0.56
8754.00,0.56
8753.00,0.55
8752.00,0.55
8751.00,0.55
8750.00,0.55
8749.00,0.55
8748.00,0.54
8747.00,0.54
8746.00,0.54
8745.00,0.54
8744.00,0.54
8743.00,0.54
8742.00,0.54
8741.00,0.54
8740.00,0.54
8739.00,0.54
8738.00,0.54
8737.00,0.54
8736.00,0.54
8735.00,0.53
8734.00,0.53
8733.00,0.53
8732.00,0.53
8731.00,0.53
8730.00,0.53
8729.00,0.53
8728.00,0.54
8727.00,0.54
8726.00,0.54
8725.00,0.54
8724.00,0.54
8723.00,0.54
8722.00,0.54
8721.00,0.54
8720.00,0.54
8719.00,0.54
8718.00,0.54
8717.00,0.54
8716.00,0.54
8715.00,0.54
8714.00,0.54
8713.00,0.54
8712.00,0.54
8711.00,0.54
8710.00,0.53
8709.00,0.53
8708.00,0.53
8707.00,0.53
8706.00,0.53
8705.00,0.53
8704.00,0.53
8703.00,0.53
8702.00,0.53
8701.00,0.53
8700.00,0.53
8699.00,0.52
8698.00,0.52
8697.00,0.52
8696.00,0.52
8695.00,0.52
8694.00,0.52
8693.00,0.52
8692.00,0.52
8691.00,0.52
8690.00,0.52
8689.00,0.52
8688.00,0.52
8687.00,0.52
8686.00,0.53
8685.00,0.53
8684.00,0.53
8683.00,0.54
8682.00,0.54
8681.00,0.55
8680.00,0.56
8679.00,0.56
8678.00,0.57
8677.00,0.58
8676.00,0.58
8675.00,0.59
8674.00,0.60
8673.00,0.61
8672.00,0.61
8671.00,0.62
8670.00,0.63
8669.00,0.64
8668.00,0.64
8667.00,0.65
8666.00,0.66
8665.00,0.66
8664.00,0.67
8663.00,0.67
8662.00,0.68
8661.00,0.68
8660.00,0.68
8659.00,0.68
8658.00,0.68
8657.00,0.68
8656.00,0.68
8655.00,0.68
8654.00,0.68
8653.00,0.68
8652.00,0.67
8651.00,0.67
8650.00,0.67
8649.00,0.66
8648.00,0.66
8647.00,0.66
8646.00,0.65
8645.00,0.65
8644.00,0.64
8643.00,0.64
8642.00,0.64
8641.00,0.63
8640.00,0.63
8639.00,0.63
8638.00,0.62
8637.00,0.62
8636.00,0.62
8635.00,0.62
8634.00,0.62
8633.00,0.62
8632.00,0.62
8631.00,0.62
8630.00,0.62
8629.00,0.62
8628.00,0.61
8627.00,0.61
8626.00,0.61
8625.00,0.61
8624.00,0.61
8623.00,0.61
8622.00,0.61
8621.00,0.62
8620.00,0.62
8619.00,0.62
8618.00,0.62
8617.00,0.62
8616.00,0.62
8615.00,0.62
8614.00,0.62
8613.00,0.62
8612.00,0.62
8611.00,0.61
8610.00,0.61
8609.00,0.61
8608.00,0.61
8607.00,0.60
8606.00,0.60
8605.00,0.60
8604.00,0.60
8603.00,0.60
8602.00,0.60
8601.00,0.60
8600.00,0.60
8599.00,0.60
8598.00,0.59
8597.00,0.59
8596.00,0.59
8595.00,0.59
8594.00,0.58
8593.00,0.58
8592.00,0.57
8591.00,0.57
8590.00,0.56
8589.00,0.56
8588.00,0.56
8587.00,0.55
8586.00,0.55
8585.00,0.54
8584.00,0.54
8583.00,0.53
8582.00,0.53
8581.00,0.52
8580.00,0.51
8579.00,0.51
8578.00,0.50
8577.00,0.49
8576.00,0.49
8575.00,0.48
8574.00,0.47
8573.00,0.47
8572.00,0.46
8571.00,0.46
8570.00,0.46
8569.00,0.45
8568.00,0.45
8567.00,0.45
8566.00,0.45
8565.00,0.45
8564.00,0.45
8563.00,0.45
8562.00,0.45
8561.00,0.45
8560.00,0.45
8559.00,0.45
8558.00,0.45
8557.00,0.46
8556.00,0.46
8555.00,0.47
8554.00,0.47
8553.00,0.48
8552.00,0.48
8551.00,0.49
8550.00,0.49
8549.00,0.49
8548.00,0.50
8547.00,0.50
8546.00,0.51
8545.00,0.51
8544.00,0.51
8543.00,0.51
8542.00,0.52
8541.00,0.52
8540.00,0.52
8539.00,0.52
8538.00,0.53
8537.00,0.53
8536.00,0.53
8535.00,0.53
8534.00,0.53
8533.00,0.54
8532.00,0.54
8531.00,0.54
8530.00,0.54
8529.00,0.54
8528.00,0.54
8527.00,0.55
8526.00,0.55
8525.00,0.55
8524.00,0.55
8523.00,0.56
8522.00,0.56
8521.00,0.56
8520.00,0.57
8519.00,0.57
8518.00,0.57
8517.00,0.58
8516.00,0.58
8515.00,0.58
8514.00,0.59
8513.00,0.59
8512.00,0.59
8511.00,0.60
8510.00,0.60
8509.00,0.60
8508.00,0.60
8507.00,0.60
8506.00,0.60
8505.00,0.60
8504.00,0.60
8503.00,0.60
8502.00,0.60
8501.00,0.60
8500.00,0.60
8499.00,0.59
8498.00,0.59
8497.00,0.59
8496.00,0.59
8495.00,0.58
8494.00,0.58
8493.00,0.58
8492.00,0.57
8491.00,0.57
8490.00,0.56
8489.00,0.56
8488.00,0.55
8487.00,0.55
8486.00,0.54
8485.00,0.54
8484.00,0.53
8483.00,0.53
8482.00,0.53
8481.00,0.53
8480.00,0.52
8479.00,0.52
8478.00,0.52
8477.00,0.52
8476.00,0.52
8475.00,0.52
8474.00,0.51
8473.00,0.51
8472.00,0.51
8471.00,0.51
8470.00,0.51
8469.00,0.50
8468.00,0.50
8467.00,0.50
8466.00,0.50
8465.00,0.50
8464.00,0.50
8463.00,0.50
8462.00,0.50
8461.00,0.50
8460.00,0.50
8459.00,0.50
8458.00,0.50
8457.00,0.50
8456.00,0.50
8455.00,0.50
8454.00,0.50
8453.00,0.50
8452.00,0.50
8451.00,0.50
8450.00,0.50
8449.00,0.50
8448.00,0.50
8447.00,0.50
8446.00,0.50
8445.00,0.50
8444.00,0.51
8443.00,0.51
8442.00,0.51
8441.00,0.52
8440.00,0.52
8439.00,0.52
8438.00,0.53
8437.00,0.53
8436.00,0.53
8435.00,0.54
8434.00,0.54
8433.00,0.55
8432.00,0.55
8431.00,0.55
8430.00,0.56
8429.00,0.56
8428.00,0.57
8427.00,0.57
8426.00,0.58
8425.00,0.58
8424.00,0.59
8423.00,0.59
8422.00,0.60
8421.00,0.60
8420.00,0.61
8419.00,0.61
8418.00,0.61
8417.00,0.62
8416.00,0.62
8415.00,0.62
8414.00,0.63
8413.00,0.63
8412.00,0.63
8411.00,0.64
8410.00,0.64
8409.00,0.64
8408.00,0.64
8407.00,0.65
8406.00,0.65
8405.00,0.65
8404.00,0.65
8403.00,0.65
8402.00,0.64
8401.00,0.64
8400.00,0.64
8399.00,0.64
8398.00,0.64
8397.00,0.63
8396.00,0.63
8395.00,0.63
8394.00,0.62
8393.00,0.62
8392.00,0.62
8391.00,0.61
8390.00,0.61
8389.00,0.61
8388.00,0.60
8387.00,0.60
8386.00,0.60
8385.00,0.60
8384.00,0.59
8383.00,0.59
8382.00,0.59
8381.00,0.59
8380.00,0.59
8379.00,0.59
8378.00,0.59
8377.00,0.59
8376.00,0.59
8375.00,0.59
8374.00,0.59
8373.00,0.60
8372.00,0.60
8371.00,0.60
8370.00,0.61
8369.00,0.61
8368.00,0.62
8367.00,0.62
8366.00,0.63
8365.00,0.63
8364.00,0.63
8363.00,0.64
8362.00,0.64
8361.00,0.65
8360.00,0.65
8359.00,0.65
8358.00,0.65
8357.00,0.66
8356.00,0.66
8355.00,0.66
8354.00,0.66
8353.00,0.66
8352.00,0.66
8351.00,0.66
8350.00,0.66
8349.00,0.66
8348.00,0.66
8347.00,0.66
8346.00,0.66
8345.00,0.65
8344.00,0.65
8343.00,0.65
8342.00,0.65
8341.00,0.64
8340.00,0.64
8339.00,0.63
8338.00,0.63
8337.00,0.63
8336.00,0.62
8335.00,0.62
8334.00,0.62
8333.00,0.62
8332.00,0.62
8331.00,0.62
8330.00,0.62
8329.00,0.62
8328.00,0.62
8327.00,0.62
8326.00,0.62
8325.00,0.62
8324.00,0.62
8323.00,0.62
8322.00,0.62
8321.00,0.62
8320.00,0.62
8319.00,0.63
8318.00,0.63
8317.00,0.63
8316.00,0.63
8315.00,0.63
8314.00,0.63
8313.00,0.63
8312.00,0.63
8311.00,0.63
8310.00,0.62
8309.00,0.62
8308.00,0.62
8307.00,0.62
8306.00,0.61
8305.00,0.61
8304.00,0.60
8303.00,0.60
8302.00,0.60
8301.00,0.59
8300.00,0.59
8299.00,0.58
8298.00,0.58
8297.00,0.58
8296.00,0.57
8295.00,0.57
8294.00,0.57
8293.00,0.56
8292.00,0.56
8291.00,0.56
8290.00,0.56
8289.00,0.56
8288.00,0.56
8287.00,0.56
8286.00,0.56
8285.00,0.56
8284.00,0.56
8283.00,0.56
8282.00,0.56
8281.00,0.56
8280.00,0.57
8279.00,0.57
8278.00,0.57
8277.00,0.57
8276.00,0.57
8275.00,0.57
8274.00,0.57
8273.00,0.58
8272.00,0.58
8271.00,0.58
8270.00,0.58
8269.00,0.58
8268.00,0.58
8267.00,0.58
8266.00,0.58
8265.00,0.58
8264.00,0.58
8263.00,0.58
8262.00,0.58
8261.00,0.58
8260.00,0.58
8259.00,0.58
8258.00,0.58
8257.00,0.58
8256.00,0.58
8255.00,0.58
8254.00,0.58
8253.00,0.58
8252.00,0.58
8251.00,0.58
8250.00,0.58
8249.00,0.58
8248.00,0.58
8247.00,0.58
8246.00,0.58
8245.00,0.58
8244.00,0.58
8243.00,0.58
8242.00,0.58
8241.00,0.58
8240.00,0.58
8239.00,0.58
8238.00,0.58
8237.00,0.58
8236.00,0.58
8235.00,0.58
8234.00,0.58
8233.00,0.58
8232.00,0.57
8231.00,0.57
8230.00,0.57
8229.00,0.57
8228.00,0.57
8227.00,0.57
8226.00,0.57
8225.00,0.57
8224.00,0.57
8223.00,0.57
8222.00,0.57
8221.00,0.57
8220.00,0.57
8219.00,0.57
8218.00,0.57
8217.00,0.57
8216.00,0.57
8215.00,0.57
8214.00,0.57
8213.00,0.57
8212.00,0.57
8211.00,0.57
8210.00,0.57
8209.00,0.57
8208.00,0.57
8207.00,0.57
8206.00,0.57
8205.00,0.56
8204.00,0.56
8203.00,0.56
8202.00,0.56
8201.00,0.56
8200.00,0.55
8199.00,0.55
8198.00,0.55
8197.00,0.55
8196.00,0.54
8195.00,0.54
8194.00,0.54
8193.00,0.54
8192.00,0.54
8191.00,0.53
8190.00,0.53
8189.00,0.53
8188.00,0.53
8187.00,0.53
8186.00,0.53
8185.00,0.53
8184.00,0.53
8183.00,0.53
8182.00,0.53
8181.00,0.53
8180.00,0.54
8179.00,0.54
8178.00,0.54
8177.00,0.54
8176.00,0.55
8175.00,0.55
8174.00,0.55
8173.00,0.55
8172.00,0.56
8171.00,0.56
8170.00,0.56
8169.00,0.56
8168.00,0.56
8167.00,0.57
8166.00,0.57
8165.00,0.57
8164.00,0.57
8163.00,0.57
8162.00,0.57
8161.00,0.58
8160.00,0.58
8159.00,0.58
8158.00,0.58
8157.00,0.58
8156.00,0.59
8155.00,0.59
8154.00,0.59
8153.00,0.59
8152.00,0.59
8151.00,0.59
8150.00,0.59
8149.00,0.59
8148.00,0.59
8147.00,0.59
8146.00,0.60
8145.00,0.60
8144.00,0.60
8143.00,0.60
8142.00,0.60
8141.00,0.61
8140.00,0.61
8139.00,0.61
8138.00,0.61
8137.00,0.61
8136.00,0.61
8135.00,0.61
8134.00,0.61
8133.00,0.61
8132.00,0.61
8131.00,0.60
8130.00,0.60
8129.00,0.60
8128.00,0.59
8127.00,0.59
8126.00,0.59
8125.00,0.58
8124.00,0.58
8123.00,0.58
8122.00,0.57
8121.00,0.57
8120.00,0.57
8119.00,0.56
8118.00,0.56
8117.00,0.55
8116.00,0.55
8115.00,0.55
8114.00,0.54
8113.00,0.54
8112.00,0.54
8111.00,0.53
8110.00,0.53
8109.00,0.53
8108.00,0.53
8107.00,0.53
8106.00,0.54
8105.00,0.54
8104.00,0.54
8103.00,0.55
8102.00,0.55
8101.00,0.55
8100.00,0.56
8099.00,0.56
8098.00,0.56
8097.00,0.57
8096.00,0.57
8095.00,0.57
8094.00,0.57
8093.00,0.58
8092.00,0.58
8091.00,0.58
8090.00,0.58
8089.00,0.59
8088.00,0.59
8087.00,0.59
8086.00,0.59
8085.00,0.59
8084.00,0.59
8083.00,0.59
8082.00,0.59
8081.00,0.59
8080.00,0.59
8079.00,0.59
8078.00,0.58
8077.00,0.58
8076.00,0.58
8075.00,0.58
8074.00,0.58
8073.00,0.57
8072.00,0.57
8071.00,0.57
8070.00,0.57
8069.00,0.57
8068.00,0.57
8067.00,0.56
8066.00,0.56
8065.00,0.56
8064.00,0.56
8063.00,0.56
8062.00,0.56
8061.00,0.56
8060.00,0.56
8059.00,0.56
8058.00,0.56
8057.00,0.56
8056.00,0.57
8055.00,0.57
8054.00,0.57
8053.00,0.57
8052.00,0.58
8051.00,0.58
8050.00,0.58
8049.00,0.59
8048.00,0.59
8047.00,0.59
8046.00,0.60
8045.00,0.60
8044.00,0.60
8043.00,0.61
8042.00,0.61
8041.00,0.61
8040.00,0.62
8039.00,0.62
8038.00,0.62
8037.00,0.62
8036.00,0.63
8035.00,0.63
8034.00,0.63
8033.00,0.63
8032.00,0.63
8031.00,0.63
8030.00,0.63
8029.00,0.63
8028.00,0.62
8027.00,0.62
8026.00,0.62
8025.00,0.61
8024.00,0.61
8023.00,0.60
8022.00,0.60
8021.00,0.60
8020.00,0.59
8019.00,0.59
8018.00,0.58
8017.00,0.58
8016.00,0.58
8015.00,0.57
8014.00,0.57
8013.00,0.56
8012.00,0.56
8011.00,0.56
8010.00,0.55
8009.00,0.55
8008.00,0.55
8007.00,0.55
8006.00,0.54
8005.00,0.54
8004.00,0.54
8003.00,0.54
8002.00,0.54
8001.00,0.54
8000.00,0.55
7999.00,0.55
7998.00,0.55
7997.00,0.55
7996.00,0.56
7995.00,0.56
7994.00,0.56
7993.00,0.56
7992.00,0.56
7991.00,0.56
7990.00,0.56
7989.00,0.56
7988.00,0.56
7987.00,0.56
7986.00,0.57
7985.00,0.57
7984.00,0.57
7983.00,0.57
7982.00,0.57
7981.00,0.57
7980.00,0.57
7979.00,0.57
7978.00,0.57
7977.00,0.57
7976.00,0.57
7975.00,0.57
7974.00,0.57
7973.00,0.56
7972.00,0.56
7971.00,0.56
7970.00,0.56
7969.00,0.57
7968.00,0.57
7967.00,0.57
7966.00,0.57
7965.00,0.57
7964.00,0.57
7963.00,0.58
7962.00,0.58
7961.00,0.58
7960.00,0.58
7959.00,0.59
7958.00,0.59
7957.00,0.59
7956.00,0.60
7955.00,0.60
7954.00,0.60
7953.00,0.61
7952.00,0.61
7951.00,0.62
7950.00,0.62
7949.00,0.62
7948.00,0.63
7947.00,0.63
7946.00,0.63
7945.00,0.64
7944.00,0.64
7943.00,0.64
7942.00,0.65
7941.00,0.65
7940.00,0.65
7939.00,0.65
7938.00,0.65
7937.00,0.65
7936.00,0.66
7935.00,0.66
7934.00,0.66
7933.00,0.66
7932.00,0.66
7931.00,0.66
7930.00,0.66
7929.00,0.66
7928.00,0.66
7927.00,0.65
7926.00,0.65
7925.00,0.65
7924.00,0.65
7923.00,0.65
7922.00,0.65
7921.00,0.64
7920.00,0.64
7919.00,0.64
7918.00,0.64
7917.00,0.63
7916.00,0.63
7915.00,0.62
7914.00,0.62
7913.00,0.62
7912.00,0.61
7911.00,0.61
7910.00,0.61
7909.00,0.61
7908.00,0.60
7907.00,0.60
7906.00,0.60
7905.00,0.60
7904.00,0.60
7903.00,0.60
7902.00,0.60
7901.00,0.59
7900.00,0.59
7899.00,0.59
7898.00,0.59
7897.00,0.59
7896.00,0.59
7895.00,0.60
7894.00,0.60
7893.00,0.60
7892.00,0.60
7891.00,0.60
7890.00,0.61
7889.00,0.61
7888.00,0.61
7887.00,0.62
7886.00,0.62
7885.00,0.62
7884.00,0.63
7883.00,0.63
7882.00,0.63
7881.00,0.64
7880.00,0.64
7879.00,0.64
7878.00,0.65
7877.00,0.65
7876.00,0.65
7875.00,0.65
7874.00,0.65
7873.00,0.65
7872.00,0.65
7871.00,0.65
7870.00,0.65
7869.00,0.65
7868.00,0.65
7867.00,0.65
7866.00,0.65
7865.00,0.65
7864.00,0.65
7863.00,0.65
7862.00,0.65
7861.00,0.65
7860.00,0.65
7859.00,0.64
7858.00,0.64
7857.00,0.64
7856.00,0.64
7855.00,0.64
7854.00,0.64
7853.00,0.64
7852.00,0.64
7851.00,0.64
7850.00,0.64
7849.00,0.64
7848.00,0.64
7847.00,0.65
7846.00,0.65
7845.00,0.65
7844.00,0.65
7843.00,0.65
7842.00,0.65
7841.00,0.65
7840.00,0.66
7839.00,0.66
7838.00,0.66
7837.00,0.66
7836.00,0.67
7835.00,0.67
7834.00,0.67
7833.00,0.67
7832.00,0.68
7831.00,0.68
7830.00,0.68
7829.00,0.68
7828.00,0.68
7827.00,0.68
7826.00,0.68
7825.00,0.68
7824.00,0.68
7823.00,0.68
7822.00,0.68
7821.00,0.68
7820.00,0.68
7819.00,0.68
7818.00,0.68
7817.00,0.68
7816.00,0.68
7815.00,0.68
7814.00,0.68
7813.00,0.68
7812.00,0.68
7811.00,0.68
7810.00,0.68
7809.00,0.68
7808.00,0.68
7807.00,0.68
7806.00,0.68
7805.00,0.68
7804.00,0.68
7803.00,0.68
7802.00,0.67
7801.00,0.67
7800.00,0.67
7799.00,0.67
7798.00,0.67
7797.00,0.67
7796.00,0.67
7795.00,0.67
7794.00,0.66
7793.00,0.66
7792.00,0.66
7791.00,0.66
7790.00,0.66
7789.00,0.66
7788.00,0.66
7787.00,0.66
7786.00,0.65
7785.00,0.65
7784.00,0.65
7783.00,0.65
7782.00,0.65
7781.00,0.65
7780.00,0.65
7779.00,0.66
7778.00,0.66
7777.00,0.66
7776.00,0.66
7775.00,0.66
7774.00,0.66
7773.00,0.66
7772.00,0.66
7771.00,0.66
7770.00,0.66
7769.00,0.67
7768.00,0.67
7767.00,0.67
7766.00,0.67
7765.00,0.67
7764.00,0.67
7763.00,0.67
7762.00,0.67
7761.00,0.67
7760.00,0.66
7759.00,0.66
7758.00,0.66
7757.00,0.66
7756.00,0.66
7755.00,0.65
7754.00,0.65
7753.00,0.65
7752.00,0.65
7751.00,0.65
7750.00,0.64
7749.00,0.64
7748.00,0.64
7747.00,0.64
7746.00,0.64
7745.00,0.63
7744.00,0.63
7743.00,0.63
7742.00,0.63
7741.00,0.63
7740.00,0.63
7739.00,0.63
7738.00,0.63
7737.00,0.63
7736.00,0.63
7735.00,0.63
7734.00,0.63
7733.00,0.64
7732.00,0.64
7731.00,0.64
7730.00,0.65
7729.00,0.65
7728.00,0.66
7727.00,0.66
7726.00,0.67
7725.00,0.67
7724.00,0.67
7723.00,0.68
7722.00,0.68
7721.00,0.69
7720.00,0.69
7719.00,0.70
7718.00,0.70
7717.00,0.71
7716.00,0.71
7715.00,0.72
7714.00,0.72
7713.00,0.73
7712.00,0.73
7711.00,0.73
7710.00,0.74
7709.00,0.74
7708.00,0.74
7707.00,0.74
7706.00,0.74
7705.00,0.74
7704.00,0.74
7703.00,0.74
7702.00,0.74
7701.00,0.74
7700.00,0.74
7699.00,0.73
7698.00,0.73
7697.00,0.73
7696.00,0.73
7695.00,0.72
7694.00,0.72
7693.00,0.72
7692.00,0.71
7691.00,0.71
7690.00,0.71
7689.00,0.70
7688.00,0.70
7687.00,0.70
7686.00,0.69
7685.00,0.69
7684.00,0.69
7683.00,0.68
7682.00,0.68
7681.00,0.68
7680.00,0.68
7679.00,0.67
7678.00,0.67
7677.00,0.67
7676.00,0.67
7675.00,0.67
7674.00,0.67
7673.00,0.67
7672.00,0.67
7671.00,0.67
7670.00,0.67
7669.00,0.67
7668.00,0.67
7667.00,0.67
7666.00,0.67
7665.00,0.67
7664.00,0.67
7663.00,0.67
7662.00,0.68
7661.00,0.68
7660.00,0.68
7659.00,0.68
7658.00,0.68
7657.00,0.68
7656.00,0.68
7655.00,0.68
7654.00,0.68
7653.00,0.68
7652.00,0.68
7651.00,0.68
7650.00,0.68
7649.00,0.68
7648.00,0.68
7647.00,0.68
7646.00,0.68
7645.00,0.68
7644.00,0.67
7643.00,0.67
7642.00,0.67
7641.00,0.67
7640.00,0.67
7639.00,0.67
7638.00,0.66
7637.00,0.66
7636.00,0.66
7635.00,0.66
7634.00,0.66
7633.00,0.66
7632.00,0.66
7631.00,0.65
7630.00,0.65
7629.00,0.65
7628.00,0.65
7627.00,0.64
7626.00,0.64
7625.00,0.64
7624.00,0.64
7623.00,0.64
7622.00,0.64
7621.00,0.64
7620.00,0.64
7619.00,0.64
7618.00,0.64
7617.00,0.64
7616.00,0.64
7615.00,0.64
7614.00,0.64
7613.00,0.63
7612.00,0.63
7611.00,0.63
7610.00,0.63
7609.00,0.63
7608.00,0.63
7607.00,0.63
7606.00,0.63
7605.00,0.63
7604.00,0.63
7603.00,0.63
7602.00,0.63
7601.00,0.63
7600.00,0.64
7599.00,0.64
7598.00,0.64
7597.00,0.64
7596.00,0.64
7595.00,0.64
7594.00,0.64
7593.00,0.64
7592.00,0.64
7591.00,0.64
7590.00,0.64
7589.00,0.64
7588.00,0.64
7587.00,0.64
7586.00,0.64
7585.00,0.64
7584.00,0.64
7583.00,0.65
7582.00,0.65
7581.00,0.65
7580.00,0.65
7579.00,0.65
7578.00,0.65
7577.00,0.66
7576.00,0.66
7575.00,0.66
7574.00,0.66
7573.00,0.66
7572.00,0.66
7571.00,0.66
7570.00,0.67
7569.00,0.67
7568.00,0.67
7567.00,0.67
7566.00,0.67
7565.00,0.68
7564.00,0.68
7563.00,0.68
7562.00,0.69
7561.00,0.69
7560.00,0.70
7559.00,0.70
7558.00,0.70
7557.00,0.71
7556.00,0.71
7555.00,0.71
7554.00,0.71
7553.00,0.72
7552.00,0.72
7551.00,0.72
7550.00,0.72
7549.00,0.73
7548.00,0.73
7547.00,0.73
7546.00,0.73
7545.00,0.73
7544.00,0.73
7543.00,0.74
7542.00,0.74
7541.00,0.74
7540.00,0.74
7539.00,0.74
7538.00,0.74
7537.00,0.74
7536.00,0.73
7535.00,0.73
7534.00,0.73
7533.00,0.73
7532.00,0.72
7531.00,0.72
7530.00,0.72
7529.00,0.71
7528.00,0.71
7527.00,0.71
7526.00,0.70
7525.00,0.70
7524.00,0.69
7523.00,0.69
7522.00,0.69
7521.00,0.68
7520.00,0.68
7519.00,0.67
7518.00,0.67
7517.00,0.66
7516.00,0.66
7515.00,0.66
7514.00,0.65
7513.00,0.65
7512.00,0.64
7511.00,0.64
7510.00,0.64
7509.00,0.64
7508.00,0.64
7507.00,0.64
7506.00,0.64
7505.00,0.63
7504.00,0.63
7503.00,0.63
7502.00,0.63
7501.00,0.63
7500.00,0.63
7499.00,0.63
7498.00,0.63
7497.00,0.63
7496.00,0.63
7495.00,0.63
7494.00,0.63
7493.00,0.63
7492.00,0.63
7491.00,0.63
7490.00,0.64
7489.00,0.64
7488.00,0.64
7487.00,0.64
7486.00,0.64
7485.00,0.64
7484.00,0.64
7483.00,0.64
7482.00,0.64
7481.00,0.64
7480.00,0.64
7479.00,0.64
7478.00,0.64
7477.00,0.64
7476.00,0.64
7475.00,0.64
7474.00,0.64
7473.00,0.64
7472.00,0.64
7471.00,0.64
7470.00,0.65
7469.00,0.65
7468.00,0.65
7467.00,0.65
7466.00,0.65
7465.00,0.65
7464.00,0.65
7463.00,0.66
7462.00,0.66
7461.00,0.66
7460.00,0.66
7459.00,0.66
7458.00,0.66
7457.00,0.67
7456.00,0.67
7455.00,0.67
7454.00,0.67
7453.00,0.67
7452.00,0.67
7451.00,0.67
7450.00,0.67
7449.00,0.67
7448.00,0.68
7447.00,0.68
7446.00,0.68
7445.00,0.68
7444.00,0.68
7443.00,0.68
7442.00,0.68
7441.00,0.67
7440.00,0.67
7439.00,0.67
7438.00,0.67
7437.00,0.67
7436.00,0.67
7435.00,0.67
7434.00,0.67
7433.00,0.67
7432.00,0.67
7431.00,0.66
7430.00,0.66
7429.00,0.66
7428.00,0.66
7427.00,0.66
7426.00,0.66
7425.00,0.66
7424.00,0.66
7423.00,0.66
7422.00,0.66
7421.00,0.66
7420.00,0.66
7419.00,0.66
7418.00,0.66
7417.00,0.66
7416.00,0.66
7415.00,0.66
7414.00,0.66
7413.00,0.67
7412.00,0.67
7411.00,0.67
7410.00,0.67
7409.00,0.67
7408.00,0.67
7407.00,0.67
7406.00,0.67
7405.00,0.67
7404.00,0.67
7403.00,0.67
7402.00,0.67
7401.00,0.67
7400.00,0.67
7399.00,0.67
7398.00,0.67
7397.00,0.67
7396.00,0.67
7395.00,0.67
7394.00,0.67
7393.00,0.67
7392.00,0.67
7391.00,0.67
7390.00,0.67
7389.00,0.66
7388.00,0.66
7387.00,0.66
7386.00,0.66
7385.00,0.66
7384.00,0.65
7383.00,0.65
7382.00,0.65
7381.00,0.64
7380.00,0.64
7379.00,0.64
7378.00,0.64
7377.00,0.63
7376.00,0.63
7375.00,0.63
7374.00,0.63
7373.00,0.62
7372.00,0.62
7371.00,0.62
7370.00,0.62
7369.00,0.62
7368.00,0.62
7367.00,0.62
7366.00,0.61
7365.00,0.61
7364.00,0.61
7363.00,0.61
7362.00,0.61
7361.00,0.61
7360.00,0.61
7359.00,0.61
7358.00,0.61
7357.00,0.62
7356.00,0.62
7355.00,0.62
7354.00,0.62
7353.00,0.62
7352.00,0.62
7351.00,0.63
7350.00,0.63
7349.00,0.63
7348.00,0.63
7347.00,0.63
7346.00,0.63
7345.00,0.64
7344.00,0.64
7343.00,0.64
7342.00,0.64
7341.00,0.64
7340.00,0.64
7339.00,0.64
7338.00,0.64
7337.00,0.65
7336.00,0.65
7335.00,0.65
7334.00,0.65
7333.00,0.65
7332.00,0.65
7331.00,0.65
7330.00,0.65
7329.00,0.65
7328.00,0.65
7327.00,0.66
7326.00,0.66
7325.00,0.66
7324.00,0.66
7323.00,0.66
7322.00,0.66
7321.00,0.66
7320.00,0.66
7319.00,0.66
7318.00,0.66
7317.00,0.66
7316.00,0.66
7315.00,0.66
7314.00,0.66
7313.00,0.66
7312.00,0.66
7311.00,0.66
7310.00,0.66
7309.00,0.66
7308.00,0.65
7307.00,0.65
7306.00,0.65
7305.00,0.65
7304.00,0.65
7303.00,0.65
7302.00,0.64
7301.00,0.64
7300.00,0.64
7299.00,0.64
7298.00,0.64
7297.00,0.64
7296.00,0.64
7295.00,0.64
7294.00,0.63
7293.00,0.63
7292.00,0.63
7291.00,0.64
7290.00,0.64
7289.00,0.64
7288.00,0.64
7287.00,0.64
7286.00,0.64
7285.00,0.64
7284.00,0.64
7283.00,0.64
7282.00,0.64
7281.00,0.64
7280.00,0.64
7279.00,0.64
7278.00,0.65
7277.00,0.65
7276.00,0.65
7275.00,0.65
7274.00,0.65
7273.00,0.65
7272.00,0.65
7271.00,0.65
7270.00,0.65
7269.00,0.65
7268.00,0.65
7267.00,0.66
7266.00,0.66
7265.00,0.66
7264.00,0.65
7263.00,0.65
7262.00,0.65
7261.00,0.65
7260.00,0.65
7259.00,0.65
7258.00,0.65
7257.00,0.65
7256.00,0.65
7255.00,0.65
7254.00,0.65
7253.00,0.65
7252.00,0.65
7251.00,0.65
7250.00,0.65
7249.00,0.65
7248.00,0.65
7247.00,0.65
7246.00,0.65
7245.00,0.64
7244.00,0.64
7243.00,0.64
7242.00,0.64
7241.00,0.64
7240.00,0.64
7239.00,0.63
7238.00,0.63
7237.00,0.63
7236.00,0.63
7235.00,0.63
7234.00,0.63
7233.00,0.63
7232.00,0.62
7231.00,0.62
7230.00,0.62
7229.00,0.62
7228.00,0.61
7227.00,0.61
7226.00,0.61
7225.00,0.61
7224.00,0.61
7223.00,0.60
7222.00,0.60
7221.00,0.60
7220.00,0.60
7219.00,0.60
7218.00,0.60
7217.00,0.60
7216.00,0.60
7215.00,0.60
7214.00,0.60
7213.00,0.60
7212.00,0.59
7211.00,0.59
7210.00,0.59
7209.00,0.59
7208.00,0.58
7207.00,0.58
7206.00,0.58
7205.00,0.58
7204.00,0.57
7203.00,0.57
7202.00,0.57
7201.00,0.56
7200.00,0.56
7199.00,0.56
7198.00,0.55
7197.00,0.55
7196.00,0.54
7195.00,0.54
7194.00,0.54
7193.00,0.53
7192.00,0.53
7191.00,0.52
7190.00,0.52
7189.00,0.52
7188.00,0.51
7187.00,0.51
7186.00,0.51
7185.00,0.51
7184.00,0.50
7183.00,0.50
7182.00,0.50
7181.00,0.50
7180.00,0.50
7179.00,0.50
7178.00,0.50
7177.00,0.50
7176.00,0.50
7175.00,0.50
7174.00,0.50
7173.00,0.50
7172.00,0.50
7171.00,0.50
7170.00,0.50
7169.00,0.50
7168.00,0.50
7167.00,0.50
7166.00,0.50
7165.00,0.50
7164.00,0.50
7163.00,0.50
7162.00,0.50
7161.00,0.50
7160.00,0.50
7159.00,0.49
7158.00,0.49
7157.00,0.49
7156.00,0.49
7155.00,0.49
7154.00,0.48
7153.00,0.48
7152.00,0.48
7151.00,0.48
7150.00,0.48
7149.00,0.47
7148.00,0.47
7147.00,0.47
7146.00,0.47
7145.00,0.47
7144.00,0.46
7143.00,0.46
7142.00,0.46
7141.00,0.46
7140.00,0.46
7139.00,0.46
7138.00,0.46
7137.00,0.46
7136.00,0.46
7135.00,0.46
7134.00,0.46
7133.00,0.46
7132.00,0.46
7131.00,0.46
7130.00,0.46
7129.00,0.46
7128.00,0.47
7127.00,0.47
7126.00,0.47
7125.00,0.47
7124.00,0.47
7123.00,0.47
7122.00,0.48
7121.00,0.48
7120.00,0.48
7119.00,0.48
7118.00,0.48
7117.00,0.48
7116.00,0.49
7115.00,0.49
7114.00,0.49
7113.00,0.49
7112.00,0.49
7111.00,0.49
7110.00,0.49
7109.00,0.49
7108.00,0.49
7107.00,0.49
7106.00,0.49
7105.00,0.49
7104.00,0.49
7103.00,0.49
7102.00,0.48
7101.00,0.48
7100.00,0.48
7099.00,0.48
7098.00,0.48
7097.00,0.48
7096.00,0.48
7095.00,0.48
7094.00,0.47
7093.00,0.47
7092.00,0.47
7091.00,0.47
7090.00,0.47
7089.00,0.47
7088.00,0.47
7087.00,0.46
7086.00,0.46
7085.00,0.46
7084.00,0.46
7083.00,0.46
7082.00,0.46
7081.00,0.46
7080.00,0.46
7079.00,0.45
7078.00,0.45
7077.00,0.45
7076.00,0.45
7075.00,0.45
7074.00,0.45
7073.00,0.45
7072.00,0.45
7071.00,0.45
7070.00,0.45
7069.00,0.45
7068.00,0.45
7067.00,0.45
7066.00,0.45
7065.00,0.45
7064.00,0.45
7063.00,0.45
7062.00,0.45
7061.00,0.45
7060.00,0.45
7059.00,0.45
7058.00,0.45
7057.00,0.45
7056.00,0.44
7055.00,0.44
7054.00,0.44
7053.00,0.44
7052.00,0.44
7051.00,0.43
7050.00,0.43
7049.00,0.43
7048.00,0.43
7047.00,0.42
7046.00,0.42
7045.00,0.42
7044.00,0.42
7043.00,0.42
7042.00,0.42
7041.00,0.41
7040.00,0.41
7039.00,0.41
7038.00,0.41
7037.00,0.41
7036.00,0.40
7035.00,0.40
7034.00,0.40
7033.00,0.40
7032.00,0.40
7031.00,0.40
7030.00,0.40
7029.00,0.40
7028.00,0.40
7027.00,0.40
7026.00,0.40
7025.00,0.40
7024.00,0.40
7023.00,0.40
7022.00,0.41
7021.00,0.41
7020.00,0.41
7019.00,0.41
7018.00,0.41
7017.00,0.41
7016.00,0.41
7015.00,0.41
7014.00,0.41
7013.00,0.41
7012.00,0.41
7011.00,0.41
7010.00,0.41
7009.00,0.41
7008.00,0.41
7007.00,0.41
7006.00,0.41
7005.00,0.41
7004.00,0.41
7003.00,0.41
7002.00,0.41
7001.00,0.41
7000.00,0.41
6999.00,0.41
6998.00,0.41
6997.00,0.41
6996.00,0.41
6995.00,0.40
6994.00,0.40
6993.00,0.40
6992.00,0.40
6991.00,0.40
6990.00,0.39
6989.00,0.39
6988.00,0.39
6987.00,0.39
6986.00,0.39
6985.00,0.39
6984.00,0.38
6983.00,0.38
6982.00,0.38
6981.00,0.38
6980.00,0.37
6979.00,0.37
6978.00,0.37
6977.00,0.37
6976.00,0.36
6975.00,0.36
6974.00,0.36
6973.00,0.36
6972.00,0.36
6971.00,0.35
6970.00,0.35
6969.00,0.35
6968.00,0.35
6967.00,0.35
6966.00,0.35
6965.00,0.34
6964.00,0.34
6963.00,0.34
6962.00,0.34
6961.00,0.34
6960.00,0.34
6959.00,0.34
6958.00,0.34
6957.00,0.34
6956.00,0.34
6955.00,0.34
6954.00,0.34
6953.00,0.34
6952.00,0.35
6951.00,0.35
6950.00,0.35
6949.00,0.35
6948.00,0.35
6947.00,0.35
6946.00,0.35
6945.00,0.36
6944.00,0.36
6943.00,0.36
6942.00,0.36
6941.00,0.37
6940.00,0.37
6939.00,0.37
6938.00,0.37
6937.00,0.38
6936.00,0.38
6935.00,0.38
6934.00,0.38
6933.00,0.38
6932.00,0.38
6931.00,0.38
6930.00,0.38
6929.00,0.38
6928.00,0.38
6927.00,0.38
6926.00,0.38
6925.00,0.38
6924.00,0.38
6923.00,0.38
6922.00,0.38
6921.00,0.38
6920.00,0.38
6919.00,0.38
6918.00,0.38
6917.00,0.37
6916.00,0.37
6915.00,0.37
6914.00,0.37
6913.00,0.37
6912.00,0.36
6911.00,0.36
6910.00,0.36
6909.00,0.36
6908.00,0.36
6907.00,0.35
6906.00,0.35
6905.00,0.35
6904.00,0.35
6903.00,0.35
6902.00,0.35
6901.00,0.36
6900.00,0.36
6899.00,0.36
6898.00,0.36
6897.00,0.36
6896.00,0.36
6895.00,0.36
6894.00,0.36
6893.00,0.36
6892.00,0.36
6891.00,0.36
6890.00,0.37
6889.00,0.37
6888.00,0.37
6887.00,0.37
6886.00,0.37
6885.00,0.37
6884.00,0.38
6883.00,0.38
6882.00,0.38
6881.00,0.38
6880.00,0.38
6879.00,0.39
6878.00,0.39
6877.00,0.39
6876.00,0.39
6875.00,0.39
6874.00,0.39
6873.00,0.39
6872.00,0.39
6871.00,0.39
6870.00,0.39
6869.00,0.40
6868.00,0.40
6867.00,0.40
6866.00,0.40
6865.00,0.40
6864.00,0.40
6863.00,0.40
6862.00,0.40
6861.00,0.40
6860.00,0.40
6859.00,0.40
6858.00,0.40
6857.00,0.40
6856.00,0.40
6855.00,0.40
6854.00,0.40
6853.00,0.40
6852.00,0.41
6851.00,0.41
6850.00,0.41
6849.00,0.41
6848.00,0.41
6847.00,0.41
6846.00,0.41
6845.00,0.41
6844.00,0.41
6843.00,0.41
6842.00,0.40
6841.00,0.40
6840.00,0.40
6839.00,0.40
6838.00,0.40
6837.00,0.40
6836.00,0.40
6835.00,0.40
6834.00,0.40
6833.00,0.40
6832.00,0.40
6831.00,0.40
6830.00,0.40
6829.00,0.40
6828.00,0.40
6827.00,0.40
6826.00,0.40
6825.00,0.40
6824.00,0.40
6823.00,0.41
6822.00,0.41
6821.00,0.41
6820.00,0.41
6819.00,0.41
6818.00,0.41
6817.00,0.41
6816.00,0.42
6815.00,0.42
6814.00,0.42
6813.00,0.42
6812.00,0.43
6811.00,0.43
6810.00,0.43
6809.00,0.43
6808.00,0.44
6807.00,0.44
6806.00,0.44
6805.00,0.44
6804.00,0.44
6803.00,0.44
6802.00,0.44
6801.00,0.44
6800.00,0.44
6799.00,0.44
6798.00,0.44
6797.00,0.44
6796.00,0.44
6795.00,0.44
6794.00,0.44
6793.00,0.43
6792.00,0.43
6791.00,0.43
6790.00,0.43
6789.00,0.43
6788.00,0.43
6787.00,0.43
6786.00,0.43
6785.00,0.42
6784.00,0.42
6783.00,0.42
6782.00,0.42
6781.00,0.42
6780.00,0.41
6779.00,0.41
6778.00,0.41
6777.00,0.41
6776.00,0.41
6775.00,0.41
6774.00,0.41
6773.00,0.41
6772.00,0.40
6771.00,0.40
6770.00,0.40
6769.00,0.40
6768.00,0.40
6767.00,0.40
6766.00,0.39
6765.00,0.39
6764.00,0.39
6763.00,0.39
6762.00,0.39
6761.00,0.39
6760.00,0.39
6759.00,0.39
6758.00,0.39
6757.00,0.39
6756.00,0.39
6755.00,0.39
6754.00,0.39
6753.00,0.39
6752.00,0.39
6751.00,0.39
6750.00,0.39
6749.00,0.39
6748.00,0.39
6747.00,0.39
6746.00,0.39
6745.00,0.40
6744.00,0.40
6743.00,0.40
6742.00,0.40
6741.00,0.40
6740.00,0.40
6739.00,0.40
6738.00,0.41
6737.00,0.41
6736.00,0.41
6735.00,0.41
6734.00,0.41
6733.00,0.42
6732.00,0.42
6731.00,0.42
6730.00,0.42
6729.00,0.42
6728.00,0.43
6727.00,0.43
6726.00,0.43
6725.00,0.43
6724.00,0.43
6723.00,0.43
6722.00,0.43
6721.00,0.43
6720.00,0.44
6719.00,0.44
6718.00,0.44
6717.00,0.44
6716.00,0.44
6715.00,0.44
6714.00,0.45
6713.00,0.45
6712.00,0.45
6711.00,0.45
6710.00,0.45
6709.00,0.45
6708.00,0.45
6707.00,0.45
6706.00,0.45
6705.00,0.45
6704.00,0.45
6703.00,0.45
6702.00,0.45
6701.00,0.45
6700.00,0.45
6699.00,0.45
6698.00,0.45
6697.00,0.45
6696.00,0.45
6695.00,0.45
6694.00,0.45
6693.00,0.45
6692.00,0.45
6691.00,0.45
6690.00,0.45
6689.00,0.45
6688.00,0.45
6687.00,0.45
6686.00,0.45
6685.00,0.45
6684.00,0.45
6683.00,0.45
6682.00,0.45
6681.00,0.45
6680.00,0.45
6679.00,0.45
6678.00,0.45
6677.00,0.45
6676.00,0.45
6675.00,0.45
6674.00,0.45
6673.00,0.45
6672.00,0.45
6671.00,0.45
6670.00,0.45
6669.00,0.45
6668.00,0.45
6667.00,0.45
6666.00,0.45
6665.00,0.45
6664.00,0.44
6663.00,0.44
6662.00,0.44
6661.00,0.44
6660.00,0.44
6659.00,0.44
6658.00,0.44
6657.00,0.44
6656.00,0.44
6655.00,0.44
6654.00,0.44
6653.00,0.44
6652.00,0.44
6651.00,0.44
6650.00,0.44
6649.00,0.44
6648.00,0.44
6647.00,0.44
6646.00,0.44
6645.00,0.44
6644.00,0.44
6643.00,0.45
6642.00,0.45
6641.00,0.45
6640.00,0.45
6639.00,0.45
6638.00,0.45
6637.00,0.45
6636.00,0.45
6635.00,0.45
6634.00,0.45
6633.00,0.45
6632.00,0.45
6631.00,0.45
6630.00,0.45
6629.00,0.45
6628.00,0.46
6627.00,0.46
6626.00,0.46
6625.00,0.46
6624.00,0.46
6623.00,0.46
6622.00,0.46
6621.00,0.46
6620.00,0.46
6619.00,0.46
6618.00,0.46
6617.00,0.46
6616.00,0.46
6615.00,0.46
6614.00,0.46
6613.00,0.46
6612.00,0.47
6611.00,0.47
6610.00,0.47
6609.00,0.47
6608.00,0.47
6607.00,0.47
6606.00,0.47
6605.00,0.47
6604.00,0.47
6603.00,0.47
6602.00,0.47
6601.00,0.47
6600.00,0.47
6599.00,0.48
6598.00,0.48
6597.00,0.48
6596.00,0.48
6595.00,0.48
6594.00,0.48
6593.00,0.48
6592.00,0.48
6591.00,0.48
6590.00,0.48
6589.00,0.48
6588.00,0.48
6587.00,0.47
6586.00,0.47
6585.00,0.47
6584.00,0.47
6583.00,0.47
6582.00,0.47
6581.00,0.47
6580.00,0.47
6579.00,0.48
6578.00,0.48
6577.00,0.48
6576.00,0.48
6575.00,0.48
6574.00,0.48
6573.00,0.48
6572.00,0.48
6571.00,0.48
6570.00,0.48
6569.00,0.49
6568.00,0.49
6567.00,0.49
6566.00,0.49
6565.00,0.49
6564.00,0.50
6563.00,0.50
6562.00,0.50
6561.00,0.51
6560.00,0.51
6559.00,0.51
6558.00,0.51
6557.00,0.52
6556.00,0.52
6555.00,0.52
6554.00,0.52
6553.00,0.52
6552.00,0.52
6551.00,0.52
6550.00,0.52
6549.00,0.52
6548.00,0.52
6547.00,0.52
6546.00,0.52
6545.00,0.52
6544.00,0.52
6543.00,0.52
6542.00,0.52
6541.00,0.52
6540.00,0.52
6539.00,0.52
6538.00,0.52
6537.00,0.52
6536.00,0.51
6535.00,0.51
6534.00,0.51
6533.00,0.51
6532.00,0.51
6531.00,0.51
6530.00,0.51
6529.00,0.51
6528.00,0.51
6527.00,0.51
6526.00,0.51
6525.00,0.51
6524.00,0.51
6523.00,0.51
6522.00,0.51
6521.00,0.51
6520.00,0.51
6519.00,0.51
6518.00,0.52
6517.00,0.52
6516.00,0.52
6515.00,0.52
6514.00,0.52
6513.00,0.52
6512.00,0.52
6511.00,0.53
6510.00,0.53
6509.00,0.53
6508.00,0.53
6507.00,0.53
6506.00,0.53
6505.00,0.53
6504.00,0.53
6503.00,0.53
6502.00,0.53
6501.00,0.53
6500.00,0.53
6499.00,0.53
6498.00,0.53
6497.00,0.53
6496.00,0.53
6495.00,0.53
6494.00,0.53
6493.00,0.53
6492.00,0.53
6491.00,0.53
6490.00,0.53
6489.00,0.52
6488.00,0.52
6487.00,0.52
6486.00,0.52
6485.00,0.52
6484.00,0.52
6483.00,0.52
6482.00,0.52
6481.00,0.52
6480.00,0.52
6479.00,0.52
6478.00,0.52
6477.00,0.52
6476.00,0.52
6475.00,0.52
6474.00,0.52
6473.00,0.52
6472.00,0.52
6471.00,0.53
6470.00,0.53
6469.00,0.53
6468.00,0.53
6467.00,0.53
6466.00,0.53
6465.00,0.53
6464.00,0.53
6463.00,0.53
6462.00,0.53
6461.00,0.53
6460.00,0.54
6459.00,0.54
6458.00,0.54
6457.00,0.54
6456.00,0.54
6455.00,0.54
6454.00,0.54
6453.00,0.53
6452.00,0.53
6451.00,0.53
6450.00,0.53
6449.00,0.53
6448.00,0.53
6447.00,0.53
6446.00,0.53
6445.00,0.53
6444.00,0.53
6443.00,0.53
6442.00,0.53
6441.00,0.53
6440.00,0.53
6439.00,0.53
6438.00,0.53
6437.00,0.52
6436.00,0.52
6435.00,0.52
6434.00,0.52
6433.00,0.52
6432.00,0.52
6431.00,0.52
6430.00,0.52
6429.00,0.52
6428.00,0.52
6427.00,0.52
6426.00,0.52
6425.00,0.52
6424.00,0.52
6423.00,0.52
6422.00,0.52
6421.00,0.52
6420.00,0.52
6419.00,0.52
6418.00,0.52
6417.00,0.52
6416.00,0.52
6415.00,0.52
6414.00,0.52
6413.00,0.52
6412.00,0.52
6411.00,0.52
6410.00,0.53
6409.00,0.53
6408.00,0.53
6407.00,0.53
6406.00,0.53
6405.00,0.54
6404.00,0.54
6403.00,0.54
6402.00,0.55
6401.00,0.55
6400.00,0.55
6399.00,0.56
6398.00,0.56
6397.00,0.56
6396.00,0.57
6395.00,0.57
6394.00,0.58
6393.00,0.58
6392.00,0.58
6391.00,0.59
6390.00,0.59
6389.00,0.59
6388.00,0.60
6387.00,0.60
6386.00,0.60
6385.00,0.60
6384.00,0.60
6383.00,0.60
6382.00,0.60
6381.00,0.61
6380.00,0.61
6379.00,0.61
6378.00,0.60
6377.00,0.60
6376.00,0.60
6375.00,0.60
6374.00,0.60
6373.00,0.60
6372.00,0.60
6371.00,0.60
6370.00,0.60
6369.00,0.60
6368.00,0.59
6367.00,0.59
6366.00,0.59
6365.00,0.59
6364.00,0.59
6363.00,0.59
6362.00,0.59
6361.00,0.59
6360.00,0.58
6359.00,0.58
6358.00,0.58
6357.00,0.58
6356.00,0.58
6355.00,0.58
6354.00,0.58
6353.00,0.58
6352.00,0.58
6351.00,0.58
6350.00,0.58
6349.00,0.59
6348.00,0.59
6347.00,0.59
6346.00,0.59
6345.00,0.59
6344.00,0.59
6343.00,0.59
6342.00,0.59
6341.00,0.60
6340.00,0.60
6339.00,0.60
6338.00,0.60
6337.00,0.60
6336.00,0.60
6335.00,0.60
6334.00,0.60
6333.00,0.61
6332.00,0.61
6331.00,0.61
6330.00,0.61
6329.00,0.61
6328.00,0.60
6327.00,0.60
6326.00,0.60
6325.00,0.60
6324.00,0.60
6323.00,0.60
6322.00,0.60
6321.00,0.60
6320.00,0.60
6319.00,0.60
6318.00,0.60
6317.00,0.60
6316.00,0.59
6315.00,0.59
6314.00,0.59
6313.00,0.59
6312.00,0.59
6311.00,0.59
6310.00,0.59
6309.00,0.59
6308.00,0.59
6307.00,0.59
6306.00,0.59
6305.00,0.59
6304.00,0.59
6303.00,0.59
6302.00,0.59
6301.00,0.60
6300.00,0.60
6299.00,0.60
6298.00,0.60
6297.00,0.60
6296.00,0.61
6295.00,0.61
6294.00,0.61
6293.00,0.61
6292.00,0.61
6291.00,0.62
6290.00,0.62
6289.00,0.62
6288.00,0.62
6287.00,0.62
6286.00,0.63
6285.00,0.63
6284.00,0.63
6283.00,0.63
6282.00,0.63
6281.00,0.63
6280.00,0.63
6279.00,0.64
6278.00,0.64
6277.00,0.64
6276.00,0.64
6275.00,0.64
6274.00,0.64
6273.00,0.64
6272.00,0.64
6271.00,0.64
6270.00,0.64
6269.00,0.64
6268.00,0.64
6267.00,0.64
6266.00,0.64
6265.00,0.64
6264.00,0.64
6263.00,0.64
6262.00,0.64
6261.00,0.64
6260.00,0.64
6259.00,0.64
6258.00,0.64
6257.00,0.64
6256.00,0.64
6255.00,0.64
6254.00,0.64
6253.00,0.64
6252.00,0.64
6251.00,0.64
6250.00,0.64
6249.00,0.64
6248.00,0.64
6247.00,0.64
6246.00,0.64
6245.00,0.64
6244.00,0.64
6243.00,0.64
6242.00,0.64
6241.00,0.64
6240.00,0.64
6239.00,0.64
6238.00,0.64
6237.00,0.64
6236.00,0.64
6235.00,0.64
6234.00,0.64
6233.00,0.64
6232.00,0.64
6231.00,0.64
6230.00,0.64
6229.00,0.64
6228.00,0.64
6227.00,0.64
6226.00,0.65
6225.00,0.65
6224.00,0.65
6223.00,0.65
6222.00,0.66
6221.00,0.66
6220.00,0.66
6219.00,0.66
6218.00,0.67
6217.00,0.67
6216.00,0.67
6215.00,0.67
6214.00,0.68
6213.00,0.68
6212.00,0.68
6211.00,0.69
6210.00,0.69
6209.00,0.69
6208.00,0.69
6207.00,0.70
6206.00,0.70
6205.00,0.70
6204.00,0.70
6203.00,0.70
6202.00,0.70
6201.00,0.70
6200.00,0.70
6199.00,0.70
6198.00,0.70
6197.00,0.70
6196.00,0.70
6195.00,0.70
6194.00,0.70
6193.00,0.70
6192.00,0.70
6191.00,0.70
6190.00,0.70
6189.00,0.70
6188.00,0.70
6187.00,0.70
6186.00,0.70
6185.00,0.70
6184.00,0.70
6183.00,0.70
6182.00,0.70
6181.00,0.70
6180.00,0.70
6179.00,0.70
6178.00,0.70
6177.00,0.70
6176.00,0.70
6175.00,0.70
6174.00,0.69
6173.00,0.69
6172.00,0.69
6171.00,0.69
6170.00,0.69
6169.00,0.69
6168.00,0.69
6167.00,0.69
6166.00,0.69
6165.00,0.69
6164.00,0.69
6163.00,0.69
6162.00,0.69
6161.00,0.68
6160.00,0.68
6159.00,0.68
6158.00,0.68
6157.00,0.68
6156.00,0.68
6155.00,0.69
6154.00,0.69
6153.00,0.69
6152.00,0.69
6151.00,0.69
6150.00,0.69
6149.00,0.69
6148.00,0.69
6147.00,0.70
6146.00,0.70
6145.00,0.70
6144.00,0.70
6143.00,0.70
6142.00,0.70
6141.00,0.71
6140.00,0.71
6139.00,0.71
6138.00,0.71
6137.00,0.71
6136.00,0.71
6135.00,0.72
6134.00,0.72
6133.00,0.72
6132.00,0.72
6131.00,0.72
6130.00,0.73
6129.00,0.73
6128.00,0.73
6127.00,0.73
6126.00,0.73
6125.00,0.74
6124.00,0.74
6123.00,0.74
6122.00,0.74
6121.00,0.75
6120.00,0.75
6119.00,0.75
6118.00,0.75
6117.00,0.76
6116.00,0.76
6115.00,0.76
6114.00,0.76
6113.00,0.77
6112.00,0.77
6111.00,0.77
6110.00,0.77
6109.00,0.77
6108.00,0.78
6107.00,0.78
6106.00,0.78
6105.00,0.78
6104.00,0.78
6103.00,0.78
6102.00,0.78
6101.00,0.78
6100.00,0.78
6099.00,0.78
6098.00,0.78
6097.00,0.78
6096.00,0.77
6095.00,0.77
6094.00,0.77
6093.00,0.77
6092.00,0.77
6091.00,0.77
6090.00,0.77
6089.00,0.77
6088.00,0.76
6087.00,0.76
6086.00,0.76
6085.00,0.76
6084.00,0.76
6083.00,0.75
6082.00,0.75
6081.00,0.75
6080.00,0.75
6079.00,0.75
6078.00,0.75
6077.00,0.75
6076.00,0.75
6075.00,0.74
6074.00,0.74
6073.00,0.74
6072.00,0.74
6071.00,0.74
6070.00,0.74
6069.00,0.74
6068.00,0.74
6067.00,0.74
6066.00,0.74
6065.00,0.74
6064.00,0.74
6063.00,0.74
6062.00,0.74
6061.00,0.74
6060.00,0.74
6059.00,0.74
6058.00,0.74
6057.00,0.74
6056.00,0.74
6055.00,0.74
6054.00,0.75
6053.00,0.75
6052.00,0.75
6051.00,0.75
6050.00,0.75
6049.00,0.75
6048.00,0.75
6047.00,0.75
6046.00,0.75
6045.00,0.75
6044.00,0.75
6043.00,0.75
6042.00,0.75
6041.00,0.75
6040.00,0.75
6039.00,0.75
6038.00,0.75
6037.00,0.75
6036.00,0.75
6035.00,0.75
6034.00,0.75
6033.00,0.75
6032.00,0.75
6031.00,0.75
6030.00,0.75
6029.00,0.75
6028.00,0.75
6027.00,0.75
6026.00,0.75
6025.00,0.75
6024.00,0.75
6023.00,0.76
6022.00,0.76
6021.00,0.76
6020.00,0.76
6019.00,0.76
6018.00,0.76
6017.00,0.77
6016.00,0.77
6015.00,0.77
6014.00,0.77
6013.00,0.77
6012.00,0.78
6011.00,0.78
6010.00,0.78
6009.00,0.78
6008.00,0.78
6007.00,0.78
6006.00,0.78
6005.00,0.79
6004.00,0.79
6003.00,0.79
6002.00,0.79
6001.00,0.79
6000.00,0.79
5999.00,0.79
5998.00,0.79
5997.00,0.79
5996.00,0.79
5995.00,0.78
5994.00,0.78
5993.00,0.78
5992.00,0.78
5991.00,0.78
5990.00,0.77
5989.00,0.77
5988.00,0.77
5987.00,0.77
5986.00,0.76
5985.00,0.76
5984.00,0.76
5983.00,0.76
5982.00,0.75
5981.00,0.75
5980.00,0.75
5979.00,0.75
5978.00,0.74
5977.00,0.74
5976.00,0.74
5975.00,0.74
5974.00,0.74
5973.00,0.74
5972.00,0.74
5971.00,0.73
5970.00,0.73
5969.00,0.73
5968.00,0.73
5967.00,0.73
5966.00,0.73
5965.00,0.73
5964.00,0.73
5963.00,0.73
5962.00,0.73
5961.00,0.73
5960.00,0.73
5959.00,0.73
5958.00,0.73
5957.00,0.73
5956.00,0.73
5955.00,0.73
5954.00,0.73
5953.00,0.73
5952.00,0.73
5951.00,0.72
5950.00,0.72
5949.00,0.72
5948.00,0.72
5947.00,0.72
5946.00,0.72
5945.00,0.72
5944.00,0.72
5943.00,0.72
5942.00,0.71
5941.00,0.71
5940.00,0.71
5939.00,0.71
5938.00,0.71
5937.00,0.71
5936.00,0.71
5935.00,0.71
5934.00,0.71
5933.00,0.71
5932.00,0.70
5931.00,0.70
5930.00,0.70
5929.00,0.70
5928.00,0.70
5927.00,0.70
5926.00,0.70
5925.00,0.70
5924.00,0.70
5923.00,0.70
5922.00,0.70
5921.00,0.70
5920.00,0.70
5919.00,0.70
5918.00,0.70
5917.00,0.70
5916.00,0.70
5915.00,0.70
5914.00,0.70
5913.00,0.70
5912.00,0.70
5911.00,0.70
5910.00,0.70
5909.00,0.70
5908.00,0.70
5907.00,0.70
5906.00,0.70
5905.00,0.70
5904.00,0.70
5903.00,0.69
5902.00,0.69
5901.00,0.69
5900.00,0.69
5899.00,0.69
5898.00,0.69
5897.00,0.69
5896.00,0.69
5895.00,0.69
5894.00,0.69
5893.00,0.69
5892.00,0.69
5891.00,0.70
5890.00,0.70
5889.00,0.70
5888.00,0.70
5887.00,0.70
5886.00,0.70
5885.00,0.70
5884.00,0.70
5883.00,0.70
5882.00,0.70
5881.00,0.70
5880.00,0.70
5879.00,0.70
5878.00,0.71
5877.00,0.71
5876.00,0.71
5875.00,0.71
5874.00,0.71
5873.00,0.71
5872.00,0.71
5871.00,0.72
5870.00,0.72
5869.00,0.72
5868.00,0.72
5867.00,0.72
5866.00,0.72
5865.00,0.73
5864.00,0.73
5863.00,0.73
5862.00,0.73
5861.00,0.73
5860.00,0.73
5859.00,0.73
5858.00,0.73
5857.00,0.74
5856.00,0.74
5855.00,0.74
5854.00,0.74
5853.00,0.74
5852.00,0.74
5851.00,0.74
5850.00,0.74
5849.00,0.74
5848.00,0.74
5847.00,0.74
5846.00,0.74
5845.00,0.74
5844.00,0.74
5843.00,0.75
5842.00,0.75
5841.00,0.75
5840.00,0.75
5839.00,0.75
5838.00,0.75
5837.00,0.74
5836.00,0.74
5835.00,0.74
5834.00,0.74
5833.00,0.74
5832.00,0.74
5831.00,0.74
5830.00,0.74
5829.00,0.74
5828.00,0.74
5827.00,0.74
5826.00,0.74
5825.00,0.74
5824.00,0.74
5823.00,0.74
5822.00,0.74
5821.00,0.73
5820.00,0.73
5819.00,0.73
5818.00,0.73
5817.00,0.73
5816.00,0.73
5815.00,0.73
5814.00,0.73
5813.00,0.72
5812.00,0.72
5811.00,0.72
5810.00,0.72
5809.00,0.72
5808.00,0.72
5807.00,0.72
5806.00,0.72
5805.00,0.72
5804.00,0.72
5803.00,0.72
5802.00,0.72
5801.00,0.72
5800.00,0.72
5799.00,0.72
5798.00,0.71
5797.00,0.71
5796.00,0.71
5795.00,0.71
5794.00,0.71
5793.00,0.71
5792.00,0.71
5791.00,0.71
5790.00,0.71
5789.00,0.71
5788.00,0.71
5787.00,0.71
5786.00,0.71
5785.00,0.71
5784.00,0.71
5783.00,0.71
5782.00,0.71
5781.00,0.71
5780.00,0.71
5779.00,0.71
5778.00,0.71
5777.00,0.71
5776.00,0.71
5775.00,0.71
5774.00,0.71
5773.00,0.71
5772.00,0.71
5771.00,0.71
5770.00,0.71
5769.00,0.71
5768.00,0.71
5767.00,0.71
5766.00,0.71
5765.00,0.71
5764.00,0.71
5763.00,0.71
5762.00,0.71
5761.00,0.71
5760.00,0.71
5759.00,0.71
5758.00,0.71
5757.00,0.71
5756.00,0.71
5755.00,0.71
5754.00,0.71
5753.00,0.72
5752.00,0.72
5751.00,0.72
5750.00,0.72
5749.00,0.72
5748.00,0.72
5747.00,0.72
5746.00,0.72
5745.00,0.72
5744.00,0.72
5743.00,0.73
5742.00,0.73
5741.00,0.73
5740.00,0.73
5739.00,0.73
5738.00,0.73
5737.00,0.73
5736.00,0.73
5735.00,0.73
5734.00,0.72
5733.00,0.72
5732.00,0.72
5731.00,0.72
5730.00,0.72
5729.00,0.72
5728.00,0.72
5727.00,0.72
5726.00,0.72
5725.00,0.71
5724.00,0.71
5723.00,0.71
5722.00,0.71
5721.00,0.71
5720.00,0.71
5719.00,0.71
5718.00,0.70
5717.00,0.70
5716.00,0.70
5715.00,0.70
5714.00,0.70
5713.00,0.70
5712.00,0.70
5711.00,0.70
5710.00,0.70
5709.00,0.70
5708.00,0.70
5707.00,0.70
5706.00,0.70
5705.00,0.70
5704.00,0.70
5703.00,0.70
5702.00,0.70
5701.00,0.70
5700.00,0.71
5699.00,0.71
5698.00,0.71
5697.00,0.71
5696.00,0.71
5695.00,0.71
5694.00,0.71
5693.00,0.71
5692.00,0.71
5691.00,0.72
5690.00,0.72
5689.00,0.72
5688.00,0.72
5687.00,0.72
5686.00,0.72
5685.00,0.73
5684.00,0.73
5683.00,0.73
5682.00,0.73
5681.00,0.73
5680.00,0.73
5679.00,0.73
5678.00,0.73
5677.00,0.73
5676.00,0.73
5675.00,0.74
5674.00,0.74
5673.00,0.74
5672.00,0.74
5671.00,0.74
5670.00,0.74
5669.00,0.74
5668.00,0.74
5667.00,0.74
5666.00,0.74
5665.00,0.74
5664.00,0.74
5663.00,0.74
5662.00,0.74
5661.00,0.75
5660.00,0.75
5659.00,0.75
5658.00,0.74
5657.00,0.74
5656.00,0.74
5655.00,0.74
5654.00,0.74
5653.00,0.74
5652.00,0.74
5651.00,0.74
5650.00,0.74
5649.00,0.74
5648.00,0.74
5647.00,0.74
5646.00,0.74
5645.00,0.74
5644.00,0.74
5643.00,0.74
5642.00,0.74
5641.00,0.74
5640.00,0.74
5639.00,0.74
5638.00,0.74
5637.00,0.74
5636.00,0.73
5635.00,0.73
5634.00,0.73
5633.00,0.73
5632.00,0.73
5631.00,0.73
5630.00,0.74
5629.00,0.74
5628.00,0.74
5627.00,0.74
5626.00,0.74
5625.00,0.74
5624.00,0.74
5623.00,0.74
5622.00,0.74
5621.00,0.74
5620.00,0.74
5619.00,0.74
5618.00,0.74
5617.00,0.75
5616.00,0.75
5615.00,0.75
5614.00,0.75
5613.00,0.75
5612.00,0.75
5611.00,0.75
5610.00,0.75
5609.00,0.76
5608.00,0.76
5607.00,0.76
5606.00,0.76
5605.00,0.76
5604.00,0.76
5603.00,0.76
5602.00,0.76
5601.00,0.76
5600.00,0.76
5599.00,0.76
5598.00,0.76
5597.00,0.77
5596.00,0.77
5595.00,0.77
5594.00,0.77
5593.00,0.77
5592.00,0.77
5591.00,0.77
5590.00,0.77
5589.00,0.77
5588.00,0.77
5587.00,0.77
5586.00,0.77
5585.00,0.77
5584.00,0.77
5583.00,0.77
5582.00,0.77
5581.00,0.78
5580.00,0.78
5579.00,0.78
5578.00,0.78
5577.00,0.78
5576.00,0.78
5575.00,0.78
5574.00,0.78
5573.00,0.78
5572.00,0.78
5571.00,0.78
5570.00,0.78
5569.00,0.78
5568.00,0.78
5567.00,0.78
5566.00,0.78
5565.00,0.78
5564.00,0.79
5563.00,0.79
5562.00,0.79
5561.00,0.79
5560.00,0.79
5559.00,0.79
5558.00,0.79
5557.00,0.79
5556.00,0.79
5555.00,0.79
5554.00,0.79
5553.00,0.79
5552.00,0.79
5551.00,0.79
5550.00,0.79
5549.00,0.79
5548.00,0.79
5547.00,0.79
5546.00,0.79
5545.00,0.79
5544.00,0.79
5543.00,0.79
5542.00,0.79
5541.00,0.79
5540.00,0.79
5539.00,0.79
5538.00,0.79
5537.00,0.79
5536.00,0.79
5535.00,0.79
5534.00,0.79
5533.00,0.79
5532.00,0.79
5531.00,0.79
5530.00,0.79
5529.00,0.79
5528.00,0.79
5527.00,0.80
5526.00,0.80
5525.00,0.80
5524.00,0.80
5523.00,0.80
5522.00,0.80
5521.00,0.80
5520.00,0.80
5519.00,0.81
5518.00,0.81
5517.00,0.81
5516.00,0.81
5515.00,0.81
5514.00,0.81
5513.00,0.81
5512.00,0.81
5511.00,0.82
5510.00,0.82
5509.00,0.82
5508.00,0.82
5507.00,0.82
5506.00,0.82
5505.00,0.82
5504.00,0.82
5503.00,0.82
5502.00,0.82
5501.00,0.82
5500.00,0.82
5499.00,0.83
5498.00,0.83
5497.00,0.83
5496.00,0.83
5495.00,0.83
5494.00,0.83
5493.00,0.83
5492.00,0.83
5491.00,0.82
5490.00,0.82
5489.00,0.82
5488.00,0.82
5487.00,0.82
5486.00,0.82
5485.00,0.82
5484.00,0.82
5483.00,0.82
5482.00,0.82
5481.00,0.82
5480.00,0.82
5479.00,0.82
5478.00,0.82
5477.00,0.82
5476.00,0.81
5475.00,0.81
5474.00,0.81
5473.00,0.81
5472.00,0.81
5471.00,0.81
5470.00,0.81
5469.00,0.81
5468.00,0.81
5467.00,0.81
5466.00,0.81
5465.00,0.81
5464.00,0.81
5463.00,0.81
5462.00,0.82
5461.00,0.82
5460.00,0.82
5459.00,0.82
5458.00,0.82
5457.00,0.82
5456.00,0.82
5455.00,0.82
5454.00,0.82
5453.00,0.82
5452.00,0.82
5451.00,0.82
5450.00,0.82
5449.00,0.82
5448.00,0.83
5447.00,0.83
5446.00,0.83
5445.00,0.83
5444.00,0.83
5443.00,0.83
5442.00,0.83
5441.00,0.83
5440.00,0.83
5439.00,0.83
5438.00,0.83
5437.00,0.83
5436.00,0.83
5435.00,0.83
5434.00,0.83
5433.00,0.83
5432.00,0.83
5431.00,0.83
5430.00,0.83
5429.00,0.83
5428.00,0.83
5427.00,0.83
5426.00,0.83
5425.00,0.83
5424.00,0.83
5423.00,0.83
5422.00,0.83
5421.00,0.82
5420.00,0.82
5419.00,0.82
5418.00,0.82
5417.00,0.82
5416.00,0.82
5415.00,0.82
5414.00,0.82
5413.00,0.82
5412.00,0.81
5411.00,0.81
5410.00,0.81
5409.00,0.81
5408.00,0.81
5407.00,0.81
5406.00,0.81
5405.00,0.81
5404.00,0.80
5403.00,0.80
5402.00,0.80
5401.00,0.80
5400.00,0.80
5399.00,0.80
5398.00,0.80
5397.00,0.80
5396.00,0.80
5395.00,0.80
5394.00,0.80
5393.00,0.80
5392.00,0.80
5391.00,0.79
5390.00,0.79
5389.00,0.79
5388.00,0.79
5387.00,0.79
5386.00,0.79
5385.00,0.79
5384.00,0.79
5383.00,0.79
5382.00,0.79
5381.00,0.79
5380.00,0.79
5379.00,0.79
5378.00,0.79
5377.00,0.78
5376.00,0.78
5375.00,0.78
5374.00,0.78
5373.00,0.78
5372.00,0.78
5371.00,0.78
5370.00,0.77
5369.00,0.77
5368.00,0.77
5367.00,0.77
5366.00,0.77
5365.00,0.76
5364.00,0.76
5363.00,0.76
5362.00,0.76
5361.00,0.75
5360.00,0.75
5359.00,0.75
5358.00,0.74
5357.00,0.74
5356.00,0.74
5355.00,0.73
5354.00,0.73
5353.00,0.73
5352.00,0.72
5351.00,0.72
5350.00,0.71
5349.00,0.71
5348.00,0.71
5347.00,0.70
5346.00,0.70
5345.00,0.69
5344.00,0.69
5343.00,0.69
5342.00,0.68
5341.00,0.68
5340.00,0.67
5339.00,0.67
5338.00,0.67
5337.00,0.66
5336.00,0.66
5335.00,0.65
5334.00,0.65
5333.00,0.65
5332.00,0.64
5331.00,0.64
5330.00,0.63
5329.00,0.63
5328.00,0.62
5327.00,0.62
5326.00,0.61
5325.00,0.61
5324.00,0.60
5323.00,0.60
5322.00,0.59
5321.00,0.59
5320.00,0.59
5319.00,0.58
5318.00,0.58
5317.00,0.57
5316.00,0.57
5315.00,0.56
5314.00,0.56
5313.00,0.56
5312.00,0.55
5311.00,0.55
5310.00,0.55
5309.00,0.54
5308.00,0.54
5307.00,0.54
5306.00,0.53
5305.00,0.53
5304.00,0.53
5303.00,0.53
5302.00,0.53
5301.00,0.53
5300.00,0.53
5299.00,0.52
5298.00,0.52
5297.00,0.52
5296.00,0.52
5295.00,0.52
5294.00,0.52
5293.00,0.52
5292.00,0.52
5291.00,0.52
5290.00,0.52
5289.00,0.52
5288.00,0.52
5287.00,0.52
5286.00,0.52
5285.00,0.52
5284.00,0.52
5283.00,0.52
5282.00,0.52
5281.00,0.52
5280.00,0.52
5279.00,0.52
5278.00,0.52
5277.00,0.52
5276.00,0.52
5275.00,0.52
5274.00,0.52
5273.00,0.52
5272.00,0.52
5271.00,0.52
5270.00,0.52
5269.00,0.52
5268.00,0.52
5267.00,0.51
5266.00,0.51
5265.00,0.51
5264.00,0.51
5263.00,0.51
5262.00,0.51
5261.00,0.51
5260.00,0.51
5259.00,0.51
5258.00,0.50
5257.00,0.50
5256.00,0.50
5255.00,0.50
5254.00,0.50
5253.00,0.50
5252.00,0.50
5251.00,0.50
5250.00,0.50
5249.00,0.50
5248.00,0.50
5247.00,0.50
5246.00,0.50
5245.00,0.50
5244.00,0.50
5243.00,0.50
5242.00,0.49
5241.00,0.49
5240.00,0.49
5239.00,0.49
5238.00,0.49
5237.00,0.49
5236.00,0.49
5235.00,0.50
5234.00,0.50
5233.00,0.50
5232.00,0.50
5231.00,0.50
5230.00,0.50
5229.00,0.50
5228.00,0.50
5227.00,0.50
5226.00,0.50
5225.00,0.50
5224.00,0.50
5223.00,0.50
5222.00,0.49
5221.00,0.49
5220.00,0.49
5219.00,0.49
5218.00,0.49
5217.00,0.49
5216.00,0.49
5215.00,0.49
5214.00,0.49
5213.00,0.49
5212.00,0.49
5211.00,0.49
5210.00,0.49
5209.00,0.49
5208.00,0.49
5207.00,0.49
5206.00,0.49
5205.00,0.49
5204.00,0.49
5203.00,0.49
5202.00,0.49
5201.00,0.49
5200.00,0.49
5199.00,0.49
5198.00,0.49
5197.00,0.50
5196.00,0.50
5195.00,0.50
5194.00,0.50
5193.00,0.50
5192.00,0.50
5191.00,0.50
5190.00,0.50
5189.00,0.51
5188.00,0.51
5187.00,0.51
5186.00,0.51
5185.00,0.51
5184.00,0.51
5183.00,0.51
5182.00,0.51
5181.00,0.51
5180.00,0.51
5179.00,0.51
5178.00,0.51
5177.00,0.51
5176.00,0.51
5175.00,0.51
5174.00,0.51
5173.00,0.51
5172.00,0.51
5171.00,0.51
5170.00,0.51
5169.00,0.50
5168.00,0.50
5167.00,0.50
5166.00,0.50
5165.00,0.50
5164.00,0.50
5163.00,0.50
5162.00,0.50
5161.00,0.50
5160.00,0.50
5159.00,0.50
5158.00,0.49
5157.00,0.49
5156.00,0.49
5155.00,0.49
5154.00,0.49
5153.00,0.49
5152.00,0.50
5151.00,0.50
5150.00,0.50
5149.00,0.50
5148.00,0.50
5147.00,0.50
5146.00,0.50
5145.00,0.50
5144.00,0.50
5143.00,0.50
5142.00,0.50
5141.00,0.50
5140.00,0.50
5139.00,0.50
5138.00,0.51
5137.00,0.51
5136.00,0.51
5135.00,0.51
5134.00,0.51
5133.00,0.51
5132.00,0.52
5131.00,0.52
5130.00,0.52
5129.00,0.52
5128.00,0.52
5127.00,0.52
5126.00,0.52
5125.00,0.53
5124.00,0.53
5123.00,0.53
5122.00,0.53
5121.00,0.53
5120.00,0.53
5119.00,0.53
5118.00,0.53
5117.00,0.53
5116.00,0.53
5115.00,0.53
5114.00,0.53
5113.00,0.53
5112.00,0.53
5111.00,0.53
5110.00,0.53
5109.00,0.53
5108.00,0.53
5107.00,0.53
5106.00,0.53
5105.00,0.53
5104.00,0.53
5103.00,0.52
5102.00,0.52
5101.00,0.52
5100.00,0.52
5099.00,0.52
5098.00,0.52
5097.00,0.52
5096.00,0.52
5095.00,0.52
5094.00,0.52
5093.00,0.52
5092.00,0.52
5091.00,0.52
5090.00,0.53
5089.00,0.52
5088.00,0.52
5087.00,0.52
5086.00,0.52
5085.00,0.52
5084.00,0.52
5083.00,0.52
5082.00,0.52
5081.00,0.52
5080.00,0.52
5079.00,0.52
5078.00,0.52
5077.00,0.52
5076.00,0.52
5075.00,0.52
5074.00,0.52
5073.00,0.52
5072.00,0.52
5071.00,0.52
5070.00,0.52
5069.00,0.52
5068.00,0.52
5067.00,0.52
5066.00,0.52
5065.00,0.52
5064.00,0.52
5063.00,0.52
5062.00,0.52
5061.00,0.52
5060.00,0.52
5059.00,0.52
5058.00,0.52
5057.00,0.52
5056.00,0.52
5055.00,0.52
5054.00,0.52
5053.00,0.52
5052.00,0.52
5051.00,0.52
5050.00,0.52
5049.00,0.52
5048.00,0.52
5047.00,0.52
5046.00,0.52
5045.00,0.52
5044.00,0.53
5043.00,0.53
5042.00,0.53
5041.00,0.53
5040.00,0.53
5039.00,0.53
5038.00,0.53
5037.00,0.53
5036.00,0.53
5035.00,0.53
5034.00,0.53
5033.00,0.53
5032.00,0.53
5031.00,0.53
5030.00,0.54
5029.00,0.54
5028.00,0.54
5027.00,0.54
5026.00,0.54
5025.00,0.54
5024.00,0.54
5023.00,0.54
5022.00,0.55
5021.00,0.55
5020.00,0.55
5019.00,0.55
5018.00,0.55
5017.00,0.55
5016.00,0.55
5015.00,0.55
5014.00,0.55
5013.00,0.56
5012.00,0.56
5011.00,0.56
5010.00,0.56
5009.00,0.56
5008.00,0.56
5007.00,0.56
5006.00,0.56
5005.00,0.56
5004.00,0.56
5003.00,0.56
5002.00,0.56
5001.00,0.56
5000.00,0.56
4999.00,0.56
4998.00,0.56
4997.00,0.56
4996.00,0.56
4995.00,0.56
4994.00,0.56
4993.00,0.55
4992.00,0.55
4991.00,0.55
4990.00,0.55
4989.00,0.55
4988.00,0.55
4987.00,0.55
4986.00,0.55
4985.00,0.55
4984.00,0.55
4983.00,0.55
4982.00,0.55
4981.00,0.55
4980.00,0.55
4979.00,0.55
4978.00,0.55
4977.00,0.55
4976.00,0.55
4975.00,0.55
4974.00,0.55
4973.00,0.55
4972.00,0.55
4971.00,0.55
4970.00,0.55
4969.00,0.55
4968.00,0.55
4967.00,0.55
4966.00,0.55
4965.00,0.55
4964.00,0.56
4963.00,0.56
4962.00,0.56
4961.00,0.56
4960.00,0.56
4959.00,0.56
4958.00,0.56
4957.00,0.56
4956.00,0.56
4955.00,0.56
4954.00,0.56
4953.00,0.56
4952.00,0.56
4951.00,0.56
4950.00,0.56
4949.00,0.56
4948.00,0.56
4947.00,0.56
4946.00,0.57
4945.00,0.57
4944.00,0.57
4943.00,0.57
4942.00,0.57
4941.00,0.57
4940.00,0.57
4939.00,0.57
4938.00,0.57
4937.00,0.57
4936.00,0.57
4935.00,0.57
4934.00,0.57
4933.00,0.57
4932.00,0.57
4931.00,0.57
4930.00,0.57
4929.00,0.57
4928.00,0.57
4927.00,0.57
4926.00,0.57
4925.00,0.57
4924.00,0.57
4923.00,0.57
4922.00,0.57
4921.00,0.57
4920.00,0.57
4919.00,0.57
4918.00,0.57
4917.00,0.57
4916.00,0.57
4915.00,0.57
4914.00,0.57
4913.00,0.57
4912.00,0.57
4911.00,0.57
4910.00,0.57
4909.00,0.57
4908.00,0.57
4907.00,0.57
4906.00,0.57
4905.00,0.57
4904.00,0.57
4903.00,0.57
4902.00,0.57
4901.00,0.57
4900.00,0.57
4899.00,0.57
4898.00,0.57
4897.00,0.57
4896.00,0.57
4895.00,0.58
4894.00,0.58
4893.00,0.58
4892.00,0.58
4891.00,0.58
4890.00,0.58
4889.00,0.58
4888.00,0.58
4887.00,0.58
4886.00,0.58
4885.00,0.58
4884.00,0.58
4883.00,0.58
4882.00,0.58
4881.00,0.58
4880.00,0.58
4879.00,0.58
4878.00,0.58
4877.00,0.58
4876.00,0.58
4875.00,0.58
4874.00,0.58
4873.00,0.59
4872.00,0.59
4871.00,0.59
4870.00,0.59
4869.00,0.59
4868.00,0.59
4867.00,0.59
4866.00,0.59
4865.00,0.59
4864.00,0.59
4863.00,0.59
4862.00,0.59
4861.00,0.59
4860.00,0.59
4859.00,0.59
4858.00,0.59
4857.00,0.59
4856.00,0.59
4855.00,0.59
4854.00,0.59
4853.00,0.59
4852.00,0.59
4851.00,0.58
4850.00,0.58
4849.00,0.58
4848.00,0.58
4847.00,0.58
4846.00,0.58
4845.00,0.58
4844.00,0.58
4843.00,0.58
4842.00,0.58
4841.00,0.58
4840.00,0.58
4839.00,0.58
4838.00,0.58
4837.00,0.59
4836.00,0.59
4835.00,0.59
4834.00,0.59
4833.00,0.59
4832.00,0.59
4831.00,0.59
4830.00,0.59
4829.00,0.59
4828.00,0.58
4827.00,0.58
4826.00,0.58
4825.00,0.58
4824.00,0.58
4823.00,0.58
4822.00,0.58
4821.00,0.59
4820.00,0.59
4819.00,0.59
4818.00,0.59
4817.00,0.59
4816.00,0.59
4815.00,0.59
4814.00,0.59
4813.00,0.59
4812.00,0.59
4811.00,0.59
4810.00,0.59
4809.00,0.59
4808.00,0.60
4807.00,0.60
4806.00,0.60
4805.00,0.60
4804.00,0.60
4803.00,0.60
4802.00,0.61
4801.00,0.61
4800.00,0.61
4799.00,0.61
4798.00,0.61
4797.00,0.62
4796.00,0.62
4795.00,0.62
4794.00,0.62
4793.00,0.62
4792.00,0.62
4791.00,0.62
4790.00,0.62
4789.00,0.62
4788.00,0.62
4787.00,0.62
4786.00,0.62
4785.00,0.62
4784.00,0.62
4783.00,0.62
4782.00,0.62
4781.00,0.62
4780.00,0.62
4779.00,0.62
4778.00,0.62
4777.00,0.62
4776.00,0.62
4775.00,0.62
4774.00,0.62
4773.00,0.62
4772.00,0.62
4771.00,0.61
4770.00,0.61
4769.00,0.61
4768.00,0.61
4767.00,0.61
4766.00,0.61
4765.00,0.61
4764.00,0.61
4763.00,0.61
4762.00,0.61
4761.00,0.61
4760.00,0.61
4759.00,0.61
4758.00,0.61
4757.00,0.61
4756.00,0.61
4755.00,0.61
4754.00,0.61
4753.00,0.61
4752.00,0.61
4751.00,0.61
4750.00,0.61
4749.00,0.62
4748.00,0.62
4747.00,0.62
4746.00,0.62
4745.00,0.62
4744.00,0.62
4743.00,0.62
4742.00,0.62
4741.00,0.62
4740.00,0.62
4739.00,0.62
4738.00,0.62
4737.00,0.62
4736.00,0.62
4735.00,0.62
4734.00,0.62
4733.00,0.62
4732.00,0.62
4731.00,0.62
4730.00,0.62
4729.00,0.62
4728.00,0.62
4727.00,0.62
4726.00,0.62
4725.00,0.62
4724.00,0.62
4723.00,0.62
4722.00,0.62
4721.00,0.62
4720.00,0.62
4719.00,0.62
4718.00,0.62
4717.00,0.62
4716.00,0.62
4715.00,0.62
4714.00,0.62
4713.00,0.62
4712.00,0.62
4711.00,0.62
4710.00,0.62
4709.00,0.62
4708.00,0.62
4707.00,0.62
4706.00,0.62
4705.00,0.62
4704.00,0.62
4703.00,0.63
4702.00,0.63
4701.00,0.63
4700.00,0.63
4699.00,0.64
4698.00,0.64
4697.00,0.64
4696.00,0.64
4695.00,0.65
4694.00,0.65
4693.00,0.65
4692.00,0.65
4691.00,0.66
4690.00,0.66
4689.00,0.66
4688.00,0.66
4687.00,0.66
4686.00,0.67
4685.00,0.67
4684.00,0.67
4683.00,0.67
4682.00,0.67
4681.00,0.68
4680.00,0.68
4679.00,0.68
4678.00,0.68
4677.00,0.68
4676.00,0.68
4675.00,0.69
4674.00,0.69
4673.00,0.69
4672.00,0.69
4671.00,0.69
4670.00,0.69
4669.00,0.69
4668.00,0.69
4667.00,0.70
4666.00,0.70
4665.00,0.70
4664.00,0.70
4663.00,0.70
4662.00,0.70
4661.00,0.70
4660.00,0.70
4659.00,0.70
4658.00,0.71
4657.00,0.71
4656.00,0.71
4655.00,0.71
4654.00,0.71
4653.00,0.71
4652.00,0.71
4651.00,0.71
4650.00,0.71
4649.00,0.71
4648.00,0.71
4647.00,0.71
4646.00,0.71
4645.00,0.71
4644.00,0.71
4643.00,0.71
4642.00,0.71
4641.00,0.71
4640.00,0.71
4639.00,0.71
4638.00,0.71
4637.00,0.71
4636.00,0.71
4635.00,0.71
4634.00,0.71
4633.00,0.71
4632.00,0.71
4631.00,0.71
4630.00,0.71
4629.00,0.71
4628.00,0.71
4627.00,0.71
4626.00,0.71
4625.00,0.71
4624.00,0.72
4623.00,0.72
4622.00,0.72
4621.00,0.72
4620.00,0.72
4619.00,0.72
4618.00,0.72
4617.00,0.72
4616.00,0.72
4615.00,0.72
4614.00,0.72
4613.00,0.72
4612.00,0.73
4611.00,0.73
4610.00,0.73
4609.00,0.73
4608.00,0.73
4607.00,0.73
4606.00,0.73
4605.00,0.72
4604.00,0.72
4603.00,0.72
4602.00,0.72
4601.00,0.72
4600.00,0.72
4599.00,0.72
4598.00,0.71
4597.00,0.71
4596.00,0.71
4595.00,0.71
4594.00,0.71
4593.00,0.71
4592.00,0.71
4591.00,0.71
4590.00,0.70
4589.00,0.70
4588.00,0.70
4587.00,0.70
4586.00,0.70
4585.00,0.70
4584.00,0.70
4583.00,0.69
4582.00,0.69
4581.00,0.69
4580.00,0.69
4579.00,0.69
4578.00,0.69
4577.00,0.69
4576.00,0.69
4575.00,0.69
4574.00,0.69
4573.00,0.69
4572.00,0.69
4571.00,0.69
4570.00,0.69
4569.00,0.68
4568.00,0.68
4567.00,0.68
4566.00,0.68
4565.00,0.68
4564.00,0.68
4563.00,0.68
4562.00,0.68
4561.00,0.68
4560.00,0.68
4559.00,0.68
4558.00,0.68
4557.00,0.68
4556.00,0.68
4555.00,0.68
4554.00,0.68
4553.00,0.68
4552.00,0.68
4551.00,0.68
4550.00,0.68
4549.00,0.68
4548.00,0.68
4547.00,0.68
4546.00,0.69
4545.00,0.69
4544.00,0.69
4543.00,0.69
4542.00,0.69
4541.00,0.69
4540.00,0.70
4539.00,0.70
4538.00,0.70
4537.00,0.70
4536.00,0.70
4535.00,0.70
4534.00,0.71
4533.00,0.71
4532.00,0.71
4531.00,0.71
4530.00,0.71
4529.00,0.72
4528.00,0.72
4527.00,0.72
4526.00,0.72
4525.00,0.72
4524.00,0.72
4523.00,0.72
4522.00,0.72
4521.00,0.72
4520.00,0.72
4519.00,0.72
4518.00,0.72
4517.00,0.71
4516.00,0.71
4515.00,0.71
4514.00,0.71
4513.00,0.71
4512.00,0.71
4511.00,0.71
4510.00,0.71
4509.00,0.70
4508.00,0.70
4507.00,0.70
4506.00,0.70
4505.00,0.70
4504.00,0.70
4503.00,0.69
4502.00,0.69
4501.00,0.69
4500.00,0.69
4499.00,0.69
4498.00,0.69
4497.00,0.69
4496.00,0.69
4495.00,0.69
4494.00,0.69
4493.00,0.69
4492.00,0.69
4491.00,0.69
4490.00,0.69
4489.00,0.69
4488.00,0.69
4487.00,0.69
4486.00,0.69
4485.00,0.69
4484.00,0.69
4483.00,0.69
4482.00,0.69
4481.00,0.69
4480.00,0.69
4479.00,0.69
4478.00,0.69
4477.00,0.69
4476.00,0.69
4475.00,0.69
4474.00,0.69
4473.00,0.69
4472.00,0.69
4471.00,0.69
4470.00,0.69
4469.00,0.69
4468.00,0.69
4467.00,0.69
4466.00,0.69
4465.00,0.69
4464.00,0.69
4463.00,0.69
4462.00,0.68
4461.00,0.68
4460.00,0.68
4459.00,0.68
4458.00,0.68
4457.00,0.68
4456.00,0.68
4455.00,0.68
4454.00,0.68
4453.00,0.67
4452.00,0.67
4451.00,0.67
4450.00,0.67
4449.00,0.67
4448.00,0.67
4447.00,0.67
4446.00,0.66
4445.00,0.66
4444.00,0.66
4443.00,0.66
4442.00,0.66
4441.00,0.66
4440.00,0.65
4439.00,0.65
4438.00,0.65
4437.00,0.65
4436.00,0.64
4435.00,0.64
4434.00,0.64
4433.00,0.64
4432.00,0.64
4431.00,0.64
4430.00,0.63
4429.00,0.63
4428.00,0.63
4427.00,0.63
4426.00,0.63
4425.00,0.63
4424.00,0.63
4423.00,0.63
4422.00,0.63
4421.00,0.63
4420.00,0.63
4419.00,0.63
4418.00,0.63
4417.00,0.63
4416.00,0.63
4415.00,0.63
4414.00,0.63
4413.00,0.63
4412.00,0.63
4411.00,0.63
4410.00,0.63
4409.00,0.63
4408.00,0.63
4407.00,0.63
4406.00,0.64
4405.00,0.64
4404.00,0.64
4403.00,0.64
4402.00,0.64
4401.00,0.64
4400.00,0.64
4399.00,0.64
4398.00,0.64
4397.00,0.64
4396.00,0.64
4395.00,0.64
4394.00,0.64
4393.00,0.64
4392.00,0.64
4391.00,0.64
4390.00,0.64
4389.00,0.64
4388.00,0.64
4387.00,0.64
4386.00,0.64
4385.00,0.64
4384.00,0.64
4383.00,0.64
4382.00,0.64
4381.00,0.64
4380.00,0.64
4379.00,0.64
4378.00,0.64
4377.00,0.64
4376.00,0.64
4375.00,0.65
4374.00,0.65
4373.00,0.65
4372.00,0.65
4371.00,0.65
4370.00,0.66
4369.00,0.66
4368.00,0.66
4367.00,0.66
4366.00,0.66
4365.00,0.66
4364.00,0.67
4363.00,0.67
4362.00,0.67
4361.00,0.67
4360.00,0.67
4359.00,0.67
4358.00,0.67
4357.00,0.67
4356.00,0.68
4355.00,0.67
4354.00,0.67
4353.00,0.67
4352.00,0.67
4351.00,0.67
4350.00,0.67
4349.00,0.67
4348.00,0.67
4347.00,0.66
4346.00,0.66
4345.00,0.66
4344.00,0.66
4343.00,0.66
4342.00,0.66
4341.00,0.66
4340.00,0.66
4339.00,0.66
4338.00,0.66
4337.00,0.66
4336.00,0.66
4335.00,0.66
4334.00,0.65
4333.00,0.65
4332.00,0.65
4331.00,0.65
4330.00,0.66
4329.00,0.66
4328.00,0.66
4327.00,0.66
4326.00,0.67
4325.00,0.67
4324.00,0.67
4323.00,0.68
4322.00,0.68
4321.00,0.68
4320.00,0.68
4319.00,0.68
4318.00,0.69
4317.00,0.69
4316.00,0.69
4315.00,0.69
4314.00,0.70
4313.00,0.70
4312.00,0.70
4311.00,0.70
4310.00,0.71
4309.00,0.71
4308.00,0.71
4307.00,0.71
4306.00,0.72
4305.00,0.72
4304.00,0.72
4303.00,0.71
4302.00,0.71
4301.00,0.71
4300.00,0.71
4299.00,0.71
4298.00,0.70
4297.00,0.70
4296.00,0.70
4295.00,0.70
4294.00,0.69
4293.00,0.69
4292.00,0.69
4291.00,0.69
4290.00,0.69
4289.00,0.68
4288.00,0.68
4287.00,0.68
4286.00,0.68
4285.00,0.68
4284.00,0.67
4283.00,0.67
4282.00,0.67
4281.00,0.67
4280.00,0.67
4279.00,0.67
4278.00,0.66
4277.00,0.66
4276.00,0.66
4275.00,0.66
4274.00,0.66
4273.00,0.66
4272.00,0.66
4271.00,0.66
4270.00,0.66
4269.00,0.66
4268.00,0.66
4267.00,0.66
4266.00,0.66
4265.00,0.66
4264.00,0.66
4263.00,0.66
4262.00,0.66
4261.00,0.66
4260.00,0.66
4259.00,0.66
4258.00,0.66
4257.00,0.66
4256.00,0.65
4255.00,0.65
4254.00,0.65
4253.00,0.65
4252.00,0.65
4251.00,0.65
4250.00,0.65
4249.00,0.65
4248.00,0.65
4247.00,0.65
4246.00,0.65
4245.00,0.65
4244.00,0.65
4243.00,0.65
4242.00,0.65
4241.00,0.65
4240.00,0.65
4239.00,0.65
4238.00,0.65
4237.00,0.65
4236.00,0.66
4235.00,0.66
4234.00,0.66
4233.00,0.66
4232.00,0.66
4231.00,0.66
4230.00,0.66
4229.00,0.67
4228.00,0.67
4227.00,0.67
4226.00,0.67
4225.00,0.67
4224.00,0.67
4223.00,0.67
4222.00,0.67
4221.00,0.67
4220.00,0.67
4219.00,0.67
4218.00,0.67
4217.00,0.67
4216.00,0.67
4215.00,0.67
4214.00,0.67
4213.00,0.67
4212.00,0.67
4211.00,0.67
4210.00,0.66
4209.00,0.66
4208.00,0.66
4207.00,0.66
4206.00,0.66
4205.00,0.66
4204.00,0.66
4203.00,0.66
4202.00,0.66
4201.00,0.67
4200.00,0.67
4199.00,0.67
4198.00,0.67
4197.00,0.67
4196.00,0.67
4195.00,0.67
4194.00,0.68
4193.00,0.68
4192.00,0.68
4191.00,0.68
4190.00,0.68
4189.00,0.69
4188.00,0.69
4187.00,0.69
4186.00,0.69
4185.00,0.69
4184.00,0.70
4183.00,0.70
4182.00,0.70
4181.00,0.70
4180.00,0.70
4179.00,0.71
4178.00,0.71
4177.00,0.71
4176.00,0.71
4175.00,0.71
4174.00,0.72
4173.00,0.72
4172.00,0.72
4171.00,0.72
4170.00,0.72
4169.00,0.72
4168.00,0.72
4167.00,0.72
4166.00,0.73
4165.00,0.73
4164.00,0.73
4163.00,0.73
4162.00,0.73
4161.00,0.73
4160.00,0.73
4159.00,0.73
4158.00,0.73
4157.00,0.73
4156.00,0.73
4155.00,0.73
4154.00,0.73
4153.00,0.73
4152.00,0.73
4151.00,0.73
4150.00,0.73
4149.00,0.73
4148.00,0.73
4147.00,0.72
4146.00,0.72
4145.00,0.72
4144.00,0.72
4143.00,0.72
4142.00,0.72
4141.00,0.72
4140.00,0.71
4139.00,0.71
4138.00,0.71
4137.00,0.71
4136.00,0.70
4135.00,0.70
4134.00,0.70
4133.00,0.70
4132.00,0.70
4131.00,0.70
4130.00,0.69
4129.00,0.69
4128.00,0.68
4127.00,0.68
4126.00,0.68
4125.00,0.67
4124.00,0.67
4123.00,0.66
4122.00,0.66
4121.00,0.66
4120.00,0.65
4119.00,0.65
4118.00,0.64
4117.00,0.64
4116.00,0.64
4115.00,0.63
4114.00,0.63
4113.00,0.63
4112.00,0.62
4111.00,0.62
4110.00,0.62
4109.00,0.61
4108.00,0.61
4107.00,0.60
4106.00,0.60
4105.00,0.60
4104.00,0.60
4103.00,0.60
4102.00,0.60
4101.00,0.60
4100.00,0.60
4099.00,0.60
4098.00,0.61
4097.00,0.61
4096.00,0.61
4095.00,0.61
4094.00,0.61
4093.00,0.62
4092.00,0.62
4091.00,0.62
4090.00,0.62
4089.00,0.63
4088.00,0.63
4087.00,0.63
4086.00,0.64
4085.00,0.64
4084.00,0.64
4083.00,0.65
4082.00,0.65
4081.00,0.66
4080.00,0.66
4079.00,0.66
4078.00,0.67
4077.00,0.67
4076.00,0.67
4075.00,0.68
4074.00,0.68
4073.00,0.68
4072.00,0.68
4071.00,0.68
4070.00,0.68
4069.00,0.68
4068.00,0.68
4067.00,0.69
4066.00,0.69
4065.00,0.69
4064.00,0.69
4063.00,0.69
4062.00,0.69
4061.00,0.69
4060.00,0.69
4059.00,0.69
4058.00,0.70
4057.00,0.70
4056.00,0.70
4055.00,0.70
4054.00,0.70
4053.00,0.70
4052.00,0.70
4051.00,0.70
4050.00,0.70
4049.00,0.70
4048.00,0.70
4047.00,0.69
4046.00,0.69
4045.00,0.69
4044.00,0.69
4043.00,0.69
4042.00,0.69
4041.00,0.69
4040.00,0.69
4039.00,0.69
4038.00,0.69
4037.00,0.69
4036.00,0.69
4035.00,0.68
4034.00,0.68
4033.00,0.68
4032.00,0.68
4031.00,0.68
4030.00,0.68
4029.00,0.68
4028.00,0.68
4027.00,0.69
4026.00,0.69
4025.00,0.69
4024.00,0.69
4023.00,0.69
4022.00,0.69
4021.00,0.70
4020.00,0.70
4019.00,0.70
4018.00,0.71
4017.00,0.71
4016.00,0.72
4015.00,0.72
4014.00,0.73
4013.00,0.73
4012.00,0.74
4011.00,0.75
4010.00,0.75
4009.00,0.76
4008.00,0.77
4007.00,0.78
4006.00,0.79
4005.00,0.79
4004.00,0.80
4003.00,0.81
4002.00,0.82
4001.00,0.82
4000.00,0.83
