创建为新数据集,样品 423 用户 Administrator 日期 星期日, 七月 28 2019
cm-1,%T
10000.00,2.95
9999.00,2.94
9998.00,2.94
9997.00,2.93
9996.00,2.93
9995.00,2.93
9994.00,2.92
9993.00,2.92
9992.00,2.92
9991.00,2.92
9990.00,2.92
9989.00,2.92
9988.00,2.92
9987.00,2.92
9986.00,2.91
9985.00,2.91
9984.00,2.91
9983.00,2.91
9982.00,2.90
9981.00,2.90
9980.00,2.89
9979.00,2.89
9978.00,2.89
9977.00,2.88
9976.00,2.88
9975.00,2.88
9974.00,2.88
9973.00,2.88
9972.00,2.87
9971.00,2.87
9970.00,2.87
9969.00,2.86
9968.00,2.86
9967.00,2.85
9966.00,2.85
9965.00,2.84
9964.00,2.83
9963.00,2.82
9962.00,2.81
9961.00,2.80
9960.00,2.79
9959.00,2.78
9958.00,2.77
9957.00,2.76
9956.00,2.75
9955.00,2.74
9954.00,2.73
9953.00,2.72
9952.00,2.71
9951.00,2.69
9950.00,2.68
9949.00,2.67
9948.00,2.66
9947.00,2.65
9946.00,2.64
9945.00,2.62
9944.00,2.61
9943.00,2.60
9942.00,2.59
9941.00,2.58
9940.00,2.58
9939.00,2.57
9938.00,2.56
9937.00,2.56
9936.00,2.55
9935.00,2.55
9934.00,2.55
9933.00,2.55
9932.00,2.54
9931.00,2.54
9930.00,2.54
9929.00,2.54
9928.00,2.54
9927.00,2.54
9926.00,2.54
9925.00,2.54
9924.00,2.54
9923.00,2.54
9922.00,2.54
9921.00,2.54
9920.00,2.54
9919.00,2.54
9918.00,2.54
9917.00,2.54
9916.00,2.53
9915.00,2.53
9914.00,2.53
9913.00,2.53
9912.00,2.52
9911.00,2.52
9910.00,2.51
9909.00,2.51
9908.00,2.50
9907.00,2.49
9906.00,2.48
9905.00,2.47
9904.00,2.46
9903.00,2.46
9902.00,2.45
9901.00,2.44
9900.00,2.43
9899.00,2.43
9898.00,2.42
9897.00,2.41
9896.00,2.41
9895.00,2.40
9894.00,2.40
9893.00,2.40
9892.00,2.39
9891.00,2.39
9890.00,2.39
9889.00,2.39
9888.00,2.39
9887.00,2.39
9886.00,2.39
9885.00,2.39
9884.00,2.40
9883.00,2.40
9882.00,2.40
9881.00,2.41
9880.00,2.41
9879.00,2.41
9878.00,2.42
9877.00,2.42
9876.00,2.43
9875.00,2.43
9874.00,2.44
9873.00,2.44
9872.00,2.45
9871.00,2.46
9870.00,2.46
9869.00,2.47
9868.00,2.47
9867.00,2.48
9866.00,2.48
9865.00,2.48
9864.00,2.49
9863.00,2.49
9862.00,2.49
9861.00,2.50
9860.00,2.50
9859.00,2.50
9858.00,2.50
9857.00,2.51
9856.00,2.51
9855.00,2.52
9854.00,2.52
9853.00,2.53
9852.00,2.53
9851.00,2.54
9850.00,2.55
9849.00,2.55
9848.00,2.56
9847.00,2.56
9846.00,2.57
9845.00,2.57
9844.00,2.57
9843.00,2.57
9842.00,2.58
9841.00,2.58
9840.00,2.58
9839.00,2.58
9838.00,2.58
9837.00,2.58
9836.00,2.59
9835.00,2.59
9834.00,2.59
9833.00,2.59
9832.00,2.59
9831.00,2.59
9830.00,2.59
9829.00,2.59
9828.00,2.59
9827.00,2.58
9826.00,2.58
9825.00,2.58
9824.00,2.58
9823.00,2.58
9822.00,2.58
9821.00,2.58
9820.00,2.58
9819.00,2.59
9818.00,2.59
9817.00,2.60
9816.00,2.60
9815.00,2.61
9814.00,2.62
9813.00,2.63
9812.00,2.64
9811.00,2.65
9810.00,2.66
9809.00,2.67
9808.00,2.68
9807.00,2.69
9806.00,2.70
9805.00,2.71
9804.00,2.72
9803.00,2.72
9802.00,2.73
9801.00,2.74
9800.00,2.75
9799.00,2.75
9798.00,2.76
9797.00,2.76
9796.00,2.77
9795.00,2.77
9794.00,2.77
9793.00,2.78
9792.00,2.78
9791.00,2.78
9790.00,2.78
9789.00,2.78
9788.00,2.78
9787.00,2.78
9786.00,2.78
9785.00,2.77
9784.00,2.77
9783.00,2.77
9782.00,2.77
9781.00,2.77
9780.00,2.77
9779.00,2.77
9778.00,2.77
9777.00,2.77
9776.00,2.77
9775.00,2.77
9774.00,2.77
9773.00,2.77
9772.00,2.76
9771.00,2.76
9770.00,2.76
9769.00,2.75
9768.00,2.75
9767.00,2.75
9766.00,2.74
9765.00,2.74
9764.00,2.73
9763.00,2.73
9762.00,2.72
9761.00,2.71
9760.00,2.70
9759.00,2.69
9758.00,2.68
9757.00,2.67
9756.00,2.65
9755.00,2.64
9754.00,2.62
9753.00,2.61
9752.00,2.59
9751.00,2.58
9750.00,2.56
9749.00,2.55
9748.00,2.54
9747.00,2.53
9746.00,2.52
9745.00,2.52
9744.00,2.51
9743.00,2.50
9742.00,2.50
9741.00,2.50
9740.00,2.49
9739.00,2.49
9738.00,2.49
9737.00,2.49
9736.00,2.50
9735.00,2.50
9734.00,2.51
9733.00,2.51
9732.00,2.52
9731.00,2.53
9730.00,2.55
9729.00,2.56
9728.00,2.57
9727.00,2.59
9726.00,2.60
9725.00,2.62
9724.00,2.64
9723.00,2.65
9722.00,2.67
9721.00,2.68
9720.00,2.69
9719.00,2.70
9718.00,2.72
9717.00,2.73
9716.00,2.73
9715.00,2.74
9714.00,2.75
9713.00,2.76
9712.00,2.76
9711.00,2.77
9710.00,2.77
9709.00,2.78
9708.00,2.78
9707.00,2.78
9706.00,2.78
9705.00,2.78
9704.00,2.78
9703.00,2.78
9702.00,2.77
9701.00,2.76
9700.00,2.75
9699.00,2.74
9698.00,2.73
9697.00,2.72
9696.00,2.71
9695.00,2.70
9694.00,2.69
9693.00,2.67
9692.00,2.66
9691.00,2.65
9690.00,2.64
9689.00,2.63
9688.00,2.62
9687.00,2.61
9686.00,2.60
9685.00,2.58
9684.00,2.57
9683.00,2.55
9682.00,2.54
9681.00,2.52
9680.00,2.50
9679.00,2.49
9678.00,2.47
9677.00,2.46
9676.00,2.44
9675.00,2.43
9674.00,2.42
9673.00,2.41
9672.00,2.40
9671.00,2.39
9670.00,2.38
9669.00,2.37
9668.00,2.37
9667.00,2.36
9666.00,2.36
9665.00,2.35
9664.00,2.34
9663.00,2.34
9662.00,2.33
9661.00,2.32
9660.00,2.32
9659.00,2.31
9658.00,2.31
9657.00,2.30
9656.00,2.30
9655.00,2.30
9654.00,2.30
9653.00,2.30
9652.00,2.30
9651.00,2.31
9650.00,2.31
9649.00,2.31
9648.00,2.32
9647.00,2.32
9646.00,2.32
9645.00,2.32
9644.00,2.32
9643.00,2.32
9642.00,2.33
9641.00,2.33
9640.00,2.33
9639.00,2.33
9638.00,2.33
9637.00,2.34
9636.00,2.34
9635.00,2.35
9634.00,2.35
9633.00,2.36
9632.00,2.36
9631.00,2.37
9630.00,2.38
9629.00,2.39
9628.00,2.39
9627.00,2.40
9626.00,2.41
9625.00,2.41
9624.00,2.42
9623.00,2.42
9622.00,2.43
9621.00,2.44
9620.00,2.44
9619.00,2.45
9618.00,2.45
9617.00,2.46
9616.00,2.47
9615.00,2.47
9614.00,2.48
9613.00,2.49
9612.00,2.49
9611.00,2.50
9610.00,2.50
9609.00,2.51
9608.00,2.51
9607.00,2.51
9606.00,2.52
9605.00,2.52
9604.00,2.52
9603.00,2.53
9602.00,2.53
9601.00,2.53
9600.00,2.54
9599.00,2.54
9598.00,2.54
9597.00,2.55
9596.00,2.55
9595.00,2.56
9594.00,2.56
9593.00,2.57
9592.00,2.57
9591.00,2.57
9590.00,2.58
9589.00,2.58
9588.00,2.58
9587.00,2.59
9586.00,2.59
9585.00,2.60
9584.00,2.60
9583.00,2.61
9582.00,2.62
9581.00,2.62
9580.00,2.63
9579.00,2.63
9578.00,2.63
9577.00,2.64
9576.00,2.64
9575.00,2.64
9574.00,2.65
9573.00,2.65
9572.00,2.65
9571.00,2.65
9570.00,2.65
9569.00,2.65
9568.00,2.65
9567.00,2.65
9566.00,2.65
9565.00,2.64
9564.00,2.64
9563.00,2.63
9562.00,2.63
9561.00,2.62
9560.00,2.62
9559.00,2.61
9558.00,2.61
9557.00,2.60
9556.00,2.60
9555.00,2.59
9554.00,2.59
9553.00,2.58
9552.00,2.58
9551.00,2.57
9550.00,2.57
9549.00,2.56
9548.00,2.56
9547.00,2.56
9546.00,2.56
9545.00,2.56
9544.00,2.56
9543.00,2.56
9542.00,2.56
9541.00,2.56
9540.00,2.57
9539.00,2.58
9538.00,2.58
9537.00,2.59
9536.00,2.60
9535.00,2.61
9534.00,2.62
9533.00,2.63
9532.00,2.64
9531.00,2.65
9530.00,2.66
9529.00,2.67
9528.00,2.67
9527.00,2.68
9526.00,2.69
9525.00,2.70
9524.00,2.71
9523.00,2.72
9522.00,2.73
9521.00,2.73
9520.00,2.74
9519.00,2.74
9518.00,2.75
9517.00,2.75
9516.00,2.76
9515.00,2.76
9514.00,2.76
9513.00,2.76
9512.00,2.76
9511.00,2.76
9510.00,2.76
9509.00,2.76
9508.00,2.76
9507.00,2.75
9506.00,2.75
9505.00,2.75
9504.00,2.74
9503.00,2.74
9502.00,2.73
9501.00,2.73
9500.00,2.73
9499.00,2.72
9498.00,2.72
9497.00,2.72
9496.00,2.71
9495.00,2.71
9494.00,2.71
9493.00,2.71
9492.00,2.71
9491.00,2.70
9490.00,2.70
9489.00,2.70
9488.00,2.69
9487.00,2.69
9486.00,2.68
9485.00,2.67
9484.00,2.67
9483.00,2.66
9482.00,2.65
9481.00,2.64
9480.00,2.64
9479.00,2.63
9478.00,2.62
9477.00,2.61
9476.00,2.61
9475.00,2.60
9474.00,2.59
9473.00,2.59
9472.00,2.58
9471.00,2.57
9470.00,2.56
9469.00,2.55
9468.00,2.54
9467.00,2.54
9466.00,2.53
9465.00,2.52
9464.00,2.52
9463.00,2.52
9462.00,2.52
9461.00,2.52
9460.00,2.52
9459.00,2.53
9458.00,2.54
9457.00,2.54
9456.00,2.55
9455.00,2.56
9454.00,2.57
9453.00,2.58
9452.00,2.59
9451.00,2.60
9450.00,2.61
9449.00,2.62
9448.00,2.63
9447.00,2.64
9446.00,2.65
9445.00,2.66
9444.00,2.66
9443.00,2.67
9442.00,2.68
9441.00,2.69
9440.00,2.70
9439.00,2.70
9438.00,2.71
9437.00,2.71
9436.00,2.71
9435.00,2.71
9434.00,2.71
9433.00,2.71
9432.00,2.71
9431.00,2.71
9430.00,2.70
9429.00,2.70
9428.00,2.70
9427.00,2.69
9426.00,2.69
9425.00,2.68
9424.00,2.68
9423.00,2.67
9422.00,2.67
9421.00,2.66
9420.00,2.66
9419.00,2.65
9418.00,2.65
9417.00,2.64
9416.00,2.63
9415.00,2.63
9414.00,2.62
9413.00,2.61
9412.00,2.60
9411.00,2.59
9410.00,2.58
9409.00,2.57
9408.00,2.56
9407.00,2.55
9406.00,2.54
9405.00,2.53
9404.00,2.52
9403.00,2.51
9402.00,2.51
9401.00,2.50
9400.00,2.49
9399.00,2.49
9398.00,2.48
9397.00,2.47
9396.00,2.47
9395.00,2.47
9394.00,2.46
9393.00,2.46
9392.00,2.46
9391.00,2.46
9390.00,2.46
9389.00,2.47
9388.00,2.47
9387.00,2.48
9386.00,2.49
9385.00,2.50
9384.00,2.50
9383.00,2.51
9382.00,2.52
9381.00,2.53
9380.00,2.54
9379.00,2.54
9378.00,2.55
9377.00,2.56
9376.00,2.56
9375.00,2.57
9374.00,2.57
9373.00,2.58
9372.00,2.58
9371.00,2.59
9370.00,2.59
9369.00,2.59
9368.00,2.60
9367.00,2.60
9366.00,2.60
9365.00,2.60
9364.00,2.60
9363.00,2.60
9362.00,2.60
9361.00,2.60
9360.00,2.59
9359.00,2.59
9358.00,2.58
9357.00,2.58
9356.00,2.58
9355.00,2.57
9354.00,2.57
9353.00,2.57
9352.00,2.56
9351.00,2.56
9350.00,2.56
9349.00,2.55
9348.00,2.55
9347.00,2.55
9346.00,2.55
9345.00,2.54
9344.00,2.54
9343.00,2.54
9342.00,2.54
9341.00,2.53
9340.00,2.53
9339.00,2.53
9338.00,2.52
9337.00,2.52
9336.00,2.52
9335.00,2.51
9334.00,2.51
9333.00,2.51
9332.00,2.51
9331.00,2.51
9330.00,2.50
9329.00,2.50
9328.00,2.50
9327.00,2.50
9326.00,2.50
9325.00,2.50
9324.00,2.50
9323.00,2.50
9322.00,2.50
9321.00,2.50
9320.00,2.50
9319.00,2.50
9318.00,2.50
9317.00,2.50
9316.00,2.49
9315.00,2.49
9314.00,2.49
9313.00,2.49
9312.00,2.49
9311.00,2.49
9310.00,2.49
9309.00,2.49
9308.00,2.49
9307.00,2.49
9306.00,2.50
9305.00,2.50
9304.00,2.50
9303.00,2.50
9302.00,2.51
9301.00,2.51
9300.00,2.51
9299.00,2.52
9298.00,2.52
9297.00,2.52
9296.00,2.53
9295.00,2.53
9294.00,2.54
9293.00,2.55
9292.00,2.55
9291.00,2.56
9290.00,2.56
9289.00,2.57
9288.00,2.58
9287.00,2.58
9286.00,2.59
9285.00,2.59
9284.00,2.60
9283.00,2.60
9282.00,2.60
9281.00,2.60
9280.00,2.60
9279.00,2.61
9278.00,2.60
9277.00,2.60
9276.00,2.60
9275.00,2.60
9274.00,2.60
9273.00,2.60
9272.00,2.59
9271.00,2.59
9270.00,2.59
9269.00,2.59
9268.00,2.59
9267.00,2.58
9266.00,2.58
9265.00,2.58
9264.00,2.58
9263.00,2.58
9262.00,2.57
9261.00,2.57
9260.00,2.57
9259.00,2.57
9258.00,2.57
9257.00,2.57
9256.00,2.58
9255.00,2.58
9254.00,2.58
9253.00,2.59
9252.00,2.60
9251.00,2.60
9250.00,2.61
9249.00,2.62
9248.00,2.62
9247.00,2.63
9246.00,2.64
9245.00,2.64
9244.00,2.65
9243.00,2.66
9242.00,2.66
9241.00,2.67
9240.00,2.68
9239.00,2.68
9238.00,2.69
9237.00,2.70
9236.00,2.70
9235.00,2.71
9234.00,2.72
9233.00,2.72
9232.00,2.73
9231.00,2.73
9230.00,2.74
9229.00,2.74
9228.00,2.74
9227.00,2.74
9226.00,2.74
9225.00,2.74
9224.00,2.74
9223.00,2.74
9222.00,2.73
9221.00,2.73
9220.00,2.72
9219.00,2.72
9218.00,2.72
9217.00,2.71
9216.00,2.71
9215.00,2.71
9214.00,2.70
9213.00,2.70
9212.00,2.70
9211.00,2.70
9210.00,2.69
9209.00,2.69
9208.00,2.68
9207.00,2.68
9206.00,2.68
9205.00,2.67
9204.00,2.67
9203.00,2.66
9202.00,2.66
9201.00,2.66
9200.00,2.66
9199.00,2.66
9198.00,2.66
9197.00,2.66
9196.00,2.66
9195.00,2.66
9194.00,2.66
9193.00,2.66
9192.00,2.66
9191.00,2.66
9190.00,2.66
9189.00,2.66
9188.00,2.65
9187.00,2.65
9186.00,2.64
9185.00,2.64
9184.00,2.64
9183.00,2.63
9182.00,2.63
9181.00,2.62
9180.00,2.62
9179.00,2.62
9178.00,2.62
9177.00,2.62
9176.00,2.62
9175.00,2.62
9174.00,2.62
9173.00,2.62
9172.00,2.62
9171.00,2.62
9170.00,2.62
9169.00,2.62
9168.00,2.63
9167.00,2.63
9166.00,2.63
9165.00,2.63
9164.00,2.64
9163.00,2.64
9162.00,2.64
9161.00,2.65
9160.00,2.65
9159.00,2.66
9158.00,2.66
9157.00,2.67
9156.00,2.67
9155.00,2.68
9154.00,2.68
9153.00,2.69
9152.00,2.69
9151.00,2.69
9150.00,2.69
9149.00,2.69
9148.00,2.69
9147.00,2.69
9146.00,2.69
9145.00,2.69
9144.00,2.69
9143.00,2.69
9142.00,2.69
9141.00,2.68
9140.00,2.68
9139.00,2.68
9138.00,2.68
9137.00,2.68
9136.00,2.68
9135.00,2.68
9134.00,2.68
9133.00,2.68
9132.00,2.68
9131.00,2.67
9130.00,2.67
9129.00,2.67
9128.00,2.66
9127.00,2.66
9126.00,2.65
9125.00,2.65
9124.00,2.65
9123.00,2.64
9122.00,2.64
9121.00,2.64
9120.00,2.63
9119.00,2.63
9118.00,2.63
9117.00,2.62
9116.00,2.62
9115.00,2.61
9114.00,2.61
9113.00,2.60
9112.00,2.60
9111.00,2.59
9110.00,2.59
9109.00,2.58
9108.00,2.58
9107.00,2.58
9106.00,2.57
9105.00,2.57
9104.00,2.57
9103.00,2.57
9102.00,2.57
9101.00,2.57
9100.00,2.57
9099.00,2.57
9098.00,2.57
9097.00,2.57
9096.00,2.57
9095.00,2.57
9094.00,2.57
9093.00,2.57
9092.00,2.57
9091.00,2.57
9090.00,2.57
9089.00,2.57
9088.00,2.57
9087.00,2.57
9086.00,2.56
9085.00,2.56
9084.00,2.56
9083.00,2.56
9082.00,2.56
9081.00,2.55
9080.00,2.55
9079.00,2.54
9078.00,2.54
9077.00,2.53
9076.00,2.52
9075.00,2.52
9074.00,2.51
9073.00,2.51
9072.00,2.50
9071.00,2.49
9070.00,2.49
9069.00,2.49
9068.00,2.48
9067.00,2.48
9066.00,2.48
9065.00,2.48
9064.00,2.48
9063.00,2.48
9062.00,2.48
9061.00,2.48
9060.00,2.49
9059.00,2.49
9058.00,2.49
9057.00,2.49
9056.00,2.49
9055.00,2.49
9054.00,2.50
9053.00,2.50
9052.00,2.50
9051.00,2.51
9050.00,2.51
9049.00,2.52
9048.00,2.52
9047.00,2.53
9046.00,2.53
9045.00,2.54
9044.00,2.54
9043.00,2.54
9042.00,2.54
9041.00,2.54
9040.00,2.53
9039.00,2.53
9038.00,2.53
9037.00,2.53
9036.00,2.53
9035.00,2.52
9034.00,2.52
9033.00,2.52
9032.00,2.52
9031.00,2.52
9030.00,2.52
9029.00,2.52
9028.00,2.52
9027.00,2.52
9026.00,2.52
9025.00,2.52
9024.00,2.52
9023.00,2.52
9022.00,2.52
9021.00,2.51
9020.00,2.51
9019.00,2.51
9018.00,2.52
9017.00,2.52
9016.00,2.52
9015.00,2.53
9014.00,2.53
9013.00,2.54
9012.00,2.54
9011.00,2.55
9010.00,2.55
9009.00,2.56
9008.00,2.56
9007.00,2.56
9006.00,2.57
9005.00,2.57
9004.00,2.57
9003.00,2.57
9002.00,2.58
9001.00,2.58
9000.00,2.59
8999.00,2.59
8998.00,2.60
8997.00,2.60
8996.00,2.61
8995.00,2.61
8994.00,2.62
8993.00,2.63
8992.00,2.63
8991.00,2.64
8990.00,2.65
8989.00,2.65
8988.00,2.65
8987.00,2.66
8986.00,2.66
8985.00,2.66
8984.00,2.67
8983.00,2.67
8982.00,2.67
8981.00,2.68
8980.00,2.68
8979.00,2.68
8978.00,2.69
8977.00,2.69
8976.00,2.69
8975.00,2.69
8974.00,2.69
8973.00,2.69
8972.00,2.69
8971.00,2.69
8970.00,2.69
8969.00,2.68
8968.00,2.68
8967.00,2.67
8966.00,2.66
8965.00,2.66
8964.00,2.65
8963.00,2.64
8962.00,2.64
8961.00,2.63
8960.00,2.62
8959.00,2.62
8958.00,2.61
8957.00,2.61
8956.00,2.60
8955.00,2.60
8954.00,2.60
8953.00,2.59
8952.00,2.59
8951.00,2.58
8950.00,2.58
8949.00,2.58
8948.00,2.58
8947.00,2.58
8946.00,2.59
8945.00,2.59
8944.00,2.59
8943.00,2.60
8942.00,2.61
8941.00,2.61
8940.00,2.62
8939.00,2.63
8938.00,2.64
8937.00,2.65
8936.00,2.65
8935.00,2.66
8934.00,2.67
8933.00,2.68
8932.00,2.69
8931.00,2.69
8930.00,2.70
8929.00,2.71
8928.00,2.72
8927.00,2.73
8926.00,2.73
8925.00,2.74
8924.00,2.74
8923.00,2.75
8922.00,2.75
8921.00,2.75
8920.00,2.76
8919.00,2.76
8918.00,2.75
8917.00,2.75
8916.00,2.75
8915.00,2.75
8914.00,2.74
8913.00,2.74
8912.00,2.74
8911.00,2.73
8910.00,2.73
8909.00,2.73
8908.00,2.72
8907.00,2.72
8906.00,2.71
8905.00,2.71
8904.00,2.71
8903.00,2.70
8902.00,2.70
8901.00,2.69
8900.00,2.69
8899.00,2.68
8898.00,2.68
8897.00,2.68
8896.00,2.67
8895.00,2.67
8894.00,2.67
8893.00,2.67
8892.00,2.66
8891.00,2.66
8890.00,2.66
8889.00,2.66
8888.00,2.67
8887.00,2.67
8886.00,2.67
8885.00,2.67
8884.00,2.67
8883.00,2.68
8882.00,2.68
8881.00,2.68
8880.00,2.68
8879.00,2.68
8878.00,2.68
8877.00,2.68
8876.00,2.68
8875.00,2.69
8874.00,2.69
8873.00,2.69
8872.00,2.69
8871.00,2.69
8870.00,2.69
8869.00,2.69
8868.00,2.69
8867.00,2.69
8866.00,2.69
8865.00,2.69
8864.00,2.69
8863.00,2.69
8862.00,2.68
8861.00,2.68
8860.00,2.68
8859.00,2.67
8858.00,2.67
8857.00,2.66
8856.00,2.66
8855.00,2.66
8854.00,2.65
8853.00,2.65
8852.00,2.64
8851.00,2.64
8850.00,2.64
8849.00,2.63
8848.00,2.63
8847.00,2.63
8846.00,2.63
8845.00,2.62
8844.00,2.62
8843.00,2.62
8842.00,2.62
8841.00,2.62
8840.00,2.61
8839.00,2.61
8838.00,2.61
8837.00,2.61
8836.00,2.61
8835.00,2.61
8834.00,2.60
8833.00,2.60
8832.00,2.60
8831.00,2.60
8830.00,2.60
8829.00,2.60
8828.00,2.60
8827.00,2.60
8826.00,2.60
8825.00,2.60
8824.00,2.60
8823.00,2.60
8822.00,2.60
8821.00,2.60
8820.00,2.60
8819.00,2.60
8818.00,2.60
8817.00,2.60
8816.00,2.60
8815.00,2.60
8814.00,2.60
8813.00,2.60
8812.00,2.60
8811.00,2.60
8810.00,2.60
8809.00,2.60
8808.00,2.60
8807.00,2.59
8806.00,2.59
8805.00,2.59
8804.00,2.59
8803.00,2.60
8802.00,2.60
8801.00,2.60
8800.00,2.60
8799.00,2.60
8798.00,2.59
8797.00,2.59
8796.00,2.59
8795.00,2.59
8794.00,2.58
8793.00,2.58
8792.00,2.58
8791.00,2.57
8790.00,2.57
8789.00,2.57
8788.00,2.56
8787.00,2.56
8786.00,2.56
8785.00,2.56
8784.00,2.56
8783.00,2.56
8782.00,2.56
8781.00,2.56
8780.00,2.56
8779.00,2.55
8778.00,2.55
8777.00,2.55
8776.00,2.55
8775.00,2.54
8774.00,2.54
8773.00,2.54
8772.00,2.54
8771.00,2.54
8770.00,2.54
8769.00,2.54
8768.00,2.54
8767.00,2.54
8766.00,2.54
8765.00,2.54
8764.00,2.54
8763.00,2.54
8762.00,2.54
8761.00,2.53
8760.00,2.53
8759.00,2.53
8758.00,2.53
8757.00,2.53
8756.00,2.53
8755.00,2.53
8754.00,2.53
8753.00,2.53
8752.00,2.53
8751.00,2.53
8750.00,2.53
8749.00,2.53
8748.00,2.53
8747.00,2.53
8746.00,2.53
8745.00,2.53
8744.00,2.53
8743.00,2.53
8742.00,2.52
8741.00,2.52
8740.00,2.52
8739.00,2.52
8738.00,2.52
8737.00,2.52
8736.00,2.52
8735.00,2.52
8734.00,2.52
8733.00,2.52
8732.00,2.52
8731.00,2.51
8730.00,2.51
8729.00,2.51
8728.00,2.51
8727.00,2.51
8726.00,2.51
8725.00,2.51
8724.00,2.51
8723.00,2.51
8722.00,2.52
8721.00,2.52
8720.00,2.52
8719.00,2.52
8718.00,2.53
8717.00,2.53
8716.00,2.53
8715.00,2.54
8714.00,2.54
8713.00,2.54
8712.00,2.55
8711.00,2.55
8710.00,2.55
8709.00,2.55
8708.00,2.55
8707.00,2.55
8706.00,2.55
8705.00,2.55
8704.00,2.55
8703.00,2.55
8702.00,2.55
8701.00,2.55
8700.00,2.55
8699.00,2.55
8698.00,2.55
8697.00,2.55
8696.00,2.55
8695.00,2.55
8694.00,2.55
8693.00,2.55
8692.00,2.55
8691.00,2.55
8690.00,2.55
8689.00,2.54
8688.00,2.54
8687.00,2.54
8686.00,2.54
8685.00,2.54
8684.00,2.54
8683.00,2.54
8682.00,2.54
8681.00,2.54
8680.00,2.54
8679.00,2.54
8678.00,2.54
8677.00,2.54
8676.00,2.54
8675.00,2.54
8674.00,2.54
8673.00,2.54
8672.00,2.54
8671.00,2.54
8670.00,2.54
8669.00,2.54
8668.00,2.54
8667.00,2.54
8666.00,2.54
8665.00,2.54
8664.00,2.54
8663.00,2.54
8662.00,2.54
8661.00,2.55
8660.00,2.55
8659.00,2.55
8658.00,2.55
8657.00,2.55
8656.00,2.56
8655.00,2.56
8654.00,2.56
8653.00,2.56
8652.00,2.56
8651.00,2.56
8650.00,2.56
8649.00,2.56
8648.00,2.56
8647.00,2.56
8646.00,2.56
8645.00,2.56
8644.00,2.56
8643.00,2.56
8642.00,2.56
8641.00,2.56
8640.00,2.55
8639.00,2.55
8638.00,2.55
8637.00,2.54
8636.00,2.54
8635.00,2.54
8634.00,2.53
8633.00,2.53
8632.00,2.52
8631.00,2.52
8630.00,2.51
8629.00,2.50
8628.00,2.50
8627.00,2.50
8626.00,2.49
8625.00,2.49
8624.00,2.49
8623.00,2.48
8622.00,2.48
8621.00,2.48
8620.00,2.48
8619.00,2.47
8618.00,2.47
8617.00,2.47
8616.00,2.47
8615.00,2.47
8614.00,2.47
8613.00,2.46
8612.00,2.46
8611.00,2.46
8610.00,2.46
8609.00,2.46
8608.00,2.46
8607.00,2.46
8606.00,2.46
8605.00,2.46
8604.00,2.46
8603.00,2.46
8602.00,2.46
8601.00,2.46
8600.00,2.45
8599.00,2.45
8598.00,2.45
8597.00,2.45
8596.00,2.45
8595.00,2.45
8594.00,2.44
8593.00,2.44
8592.00,2.44
8591.00,2.44
8590.00,2.45
8589.00,2.45
8588.00,2.45
8587.00,2.46
8586.00,2.46
8585.00,2.46
8584.00,2.47
8583.00,2.47
8582.00,2.48
8581.00,2.48
8580.00,2.49
8579.00,2.49
8578.00,2.49
8577.00,2.50
8576.00,2.50
8575.00,2.51
8574.00,2.51
8573.00,2.51
8572.00,2.52
8571.00,2.52
8570.00,2.52
8569.00,2.52
8568.00,2.53
8567.00,2.53
8566.00,2.53
8565.00,2.53
8564.00,2.53
8563.00,2.52
8562.00,2.52
8561.00,2.52
8560.00,2.51
8559.00,2.51
8558.00,2.50
8557.00,2.50
8556.00,2.49
8555.00,2.49
8554.00,2.48
8553.00,2.48
8552.00,2.48
8551.00,2.47
8550.00,2.47
8549.00,2.47
8548.00,2.46
8547.00,2.46
8546.00,2.46
8545.00,2.46
8544.00,2.46
8543.00,2.45
8542.00,2.45
8541.00,2.45
8540.00,2.45
8539.00,2.45
8538.00,2.45
8537.00,2.46
8536.00,2.46
8535.00,2.46
8534.00,2.47
8533.00,2.47
8532.00,2.48
8531.00,2.48
8530.00,2.49
8529.00,2.49
8528.00,2.50
8527.00,2.50
8526.00,2.51
8525.00,2.51
8524.00,2.52
8523.00,2.52
8522.00,2.53
8521.00,2.53
8520.00,2.54
8519.00,2.55
8518.00,2.55
8517.00,2.56
8516.00,2.57
8515.00,2.57
8514.00,2.58
8513.00,2.58
8512.00,2.59
8511.00,2.59
8510.00,2.59
8509.00,2.59
8508.00,2.60
8507.00,2.60
8506.00,2.60
8505.00,2.60
8504.00,2.60
8503.00,2.60
8502.00,2.59
8501.00,2.59
8500.00,2.59
8499.00,2.59
8498.00,2.58
8497.00,2.58
8496.00,2.57
8495.00,2.57
8494.00,2.56
8493.00,2.55
8492.00,2.55
8491.00,2.54
8490.00,2.53
8489.00,2.53
8488.00,2.52
8487.00,2.51
8486.00,2.51
8485.00,2.50
8484.00,2.50
8483.00,2.49
8482.00,2.49
8481.00,2.48
8480.00,2.48
8479.00,2.47
8478.00,2.47
8477.00,2.47
8476.00,2.46
8475.00,2.46
8474.00,2.46
8473.00,2.47
8472.00,2.47
8471.00,2.47
8470.00,2.48
8469.00,2.49
8468.00,2.49
8467.00,2.50
8466.00,2.51
8465.00,2.52
8464.00,2.52
8463.00,2.53
8462.00,2.54
8461.00,2.55
8460.00,2.56
8459.00,2.56
8458.00,2.57
8457.00,2.58
8456.00,2.59
8455.00,2.60
8454.00,2.61
8453.00,2.61
8452.00,2.62
8451.00,2.63
8450.00,2.63
8449.00,2.64
8448.00,2.64
8447.00,2.65
8446.00,2.65
8445.00,2.65
8444.00,2.65
8443.00,2.65
8442.00,2.65
8441.00,2.65
8440.00,2.65
8439.00,2.64
8438.00,2.64
8437.00,2.64
8436.00,2.64
8435.00,2.64
8434.00,2.63
8433.00,2.63
8432.00,2.63
8431.00,2.62
8430.00,2.62
8429.00,2.62
8428.00,2.62
8427.00,2.61
8426.00,2.61
8425.00,2.61
8424.00,2.61
8423.00,2.61
8422.00,2.61
8421.00,2.62
8420.00,2.62
8419.00,2.62
8418.00,2.62
8417.00,2.62
8416.00,2.63
8415.00,2.63
8414.00,2.63
8413.00,2.63
8412.00,2.64
8411.00,2.64
8410.00,2.64
8409.00,2.64
8408.00,2.64
8407.00,2.64
8406.00,2.64
8405.00,2.65
8404.00,2.65
8403.00,2.65
8402.00,2.65
8401.00,2.65
8400.00,2.65
8399.00,2.64
8398.00,2.64
8397.00,2.64
8396.00,2.64
8395.00,2.63
8394.00,2.63
8393.00,2.62
8392.00,2.62
8391.00,2.62
8390.00,2.61
8389.00,2.61
8388.00,2.60
8387.00,2.59
8386.00,2.59
8385.00,2.58
8384.00,2.58
8383.00,2.57
8382.00,2.57
8381.00,2.56
8380.00,2.56
8379.00,2.55
8378.00,2.55
8377.00,2.55
8376.00,2.54
8375.00,2.54
8374.00,2.53
8373.00,2.53
8372.00,2.53
8371.00,2.52
8370.00,2.52
8369.00,2.52
8368.00,2.51
8367.00,2.51
8366.00,2.51
8365.00,2.50
8364.00,2.50
8363.00,2.50
8362.00,2.50
8361.00,2.50
8360.00,2.50
8359.00,2.50
8358.00,2.50
8357.00,2.50
8356.00,2.50
8355.00,2.50
8354.00,2.50
8353.00,2.50
8352.00,2.50
8351.00,2.50
8350.00,2.50
8349.00,2.50
8348.00,2.50
8347.00,2.50
8346.00,2.50
8345.00,2.50
8344.00,2.50
8343.00,2.50
8342.00,2.50
8341.00,2.50
8340.00,2.50
8339.00,2.51
8338.00,2.51
8337.00,2.51
8336.00,2.51
8335.00,2.51
8334.00,2.51
8333.00,2.51
8332.00,2.51
8331.00,2.51
8330.00,2.51
8329.00,2.51
8328.00,2.51
8327.00,2.51
8326.00,2.50
8325.00,2.50
8324.00,2.50
8323.00,2.50
8322.00,2.50
8321.00,2.50
8320.00,2.51
8319.00,2.51
8318.00,2.51
8317.00,2.51
8316.00,2.51
8315.00,2.51
8314.00,2.52
8313.00,2.52
8312.00,2.52
8311.00,2.52
8310.00,2.53
8309.00,2.53
8308.00,2.53
8307.00,2.53
8306.00,2.53
8305.00,2.54
8304.00,2.54
8303.00,2.54
8302.00,2.54
8301.00,2.54
8300.00,2.54
8299.00,2.54
8298.00,2.54
8297.00,2.54
8296.00,2.54
8295.00,2.54
8294.00,2.54
8293.00,2.53
8292.00,2.53
8291.00,2.53
8290.00,2.53
8289.00,2.52
8288.00,2.52
8287.00,2.52
8286.00,2.51
8285.00,2.51
8284.00,2.51
8283.00,2.50
8282.00,2.50
8281.00,2.50
8280.00,2.50
8279.00,2.50
8278.00,2.50
8277.00,2.50
8276.00,2.50
8275.00,2.50
8274.00,2.50
8273.00,2.51
8272.00,2.51
8271.00,2.51
8270.00,2.51
8269.00,2.52
8268.00,2.52
8267.00,2.52
8266.00,2.52
8265.00,2.53
8264.00,2.53
8263.00,2.53
8262.00,2.52
8261.00,2.52
8260.00,2.52
8259.00,2.52
8258.00,2.52
8257.00,2.52
8256.00,2.52
8255.00,2.51
8254.00,2.51
8253.00,2.51
8252.00,2.51
8251.00,2.50
8250.00,2.50
8249.00,2.50
8248.00,2.49
8247.00,2.49
8246.00,2.49
8245.00,2.48
8244.00,2.48
8243.00,2.48
8242.00,2.48
8241.00,2.48
8240.00,2.48
8239.00,2.48
8238.00,2.48
8237.00,2.49
8236.00,2.49
8235.00,2.50
8234.00,2.50
8233.00,2.51
8232.00,2.52
8231.00,2.52
8230.00,2.53
8229.00,2.54
8228.00,2.55
8227.00,2.55
8226.00,2.56
8225.00,2.57
8224.00,2.58
8223.00,2.59
8222.00,2.59
8221.00,2.60
8220.00,2.60
8219.00,2.61
8218.00,2.61
8217.00,2.61
8216.00,2.61
8215.00,2.62
8214.00,2.62
8213.00,2.62
8212.00,2.62
8211.00,2.62
8210.00,2.62
8209.00,2.62
8208.00,2.61
8207.00,2.61
8206.00,2.61
8205.00,2.61
8204.00,2.60
8203.00,2.60
8202.00,2.59
8201.00,2.59
8200.00,2.58
8199.00,2.58
8198.00,2.57
8197.00,2.56
8196.00,2.56
8195.00,2.55
8194.00,2.55
8193.00,2.55
8192.00,2.55
8191.00,2.54
8190.00,2.54
8189.00,2.54
8188.00,2.54
8187.00,2.54
8186.00,2.54
8185.00,2.54
8184.00,2.54
8183.00,2.54
8182.00,2.55
8181.00,2.55
8180.00,2.55
8179.00,2.55
8178.00,2.56
8177.00,2.56
8176.00,2.57
8175.00,2.57
8174.00,2.58
8173.00,2.59
8172.00,2.59
8171.00,2.60
8170.00,2.61
8169.00,2.62
8168.00,2.63
8167.00,2.64
8166.00,2.64
8165.00,2.65
8164.00,2.66
8163.00,2.67
8162.00,2.68
8161.00,2.69
8160.00,2.70
8159.00,2.70
8158.00,2.71
8157.00,2.72
8156.00,2.72
8155.00,2.73
8154.00,2.74
8153.00,2.74
8152.00,2.75
8151.00,2.75
8150.00,2.75
8149.00,2.76
8148.00,2.76
8147.00,2.76
8146.00,2.76
8145.00,2.76
8144.00,2.76
8143.00,2.76
8142.00,2.76
8141.00,2.76
8140.00,2.76
8139.00,2.75
8138.00,2.75
8137.00,2.74
8136.00,2.74
8135.00,2.73
8134.00,2.72
8133.00,2.72
8132.00,2.71
8131.00,2.71
8130.00,2.70
8129.00,2.70
8128.00,2.69
8127.00,2.69
8126.00,2.68
8125.00,2.68
8124.00,2.68
8123.00,2.67
8122.00,2.67
8121.00,2.67
8120.00,2.66
8119.00,2.66
8118.00,2.66
8117.00,2.66
8116.00,2.66
8115.00,2.65
8114.00,2.65
8113.00,2.65
8112.00,2.66
8111.00,2.66
8110.00,2.66
8109.00,2.66
8108.00,2.66
8107.00,2.66
8106.00,2.66
8105.00,2.66
8104.00,2.66
8103.00,2.66
8102.00,2.66
8101.00,2.66
8100.00,2.66
8099.00,2.65
8098.00,2.65
8097.00,2.65
8096.00,2.65
8095.00,2.64
8094.00,2.64
8093.00,2.64
8092.00,2.63
8091.00,2.63
8090.00,2.63
8089.00,2.63
8088.00,2.62
8087.00,2.62
8086.00,2.62
8085.00,2.62
8084.00,2.61
8083.00,2.61
8082.00,2.61
8081.00,2.61
8080.00,2.61
8079.00,2.61
8078.00,2.61
8077.00,2.62
8076.00,2.62
8075.00,2.62
8074.00,2.62
8073.00,2.62
8072.00,2.62
8071.00,2.63
8070.00,2.63
8069.00,2.63
8068.00,2.63
8067.00,2.64
8066.00,2.64
8065.00,2.64
8064.00,2.64
8063.00,2.64
8062.00,2.65
8061.00,2.65
8060.00,2.65
8059.00,2.65
8058.00,2.65
8057.00,2.65
8056.00,2.65
8055.00,2.65
8054.00,2.65
8053.00,2.66
8052.00,2.66
8051.00,2.66
8050.00,2.66
8049.00,2.66
8048.00,2.66
8047.00,2.66
8046.00,2.66
8045.00,2.66
8044.00,2.66
8043.00,2.66
8042.00,2.66
8041.00,2.66
8040.00,2.66
8039.00,2.65
8038.00,2.65
8037.00,2.65
8036.00,2.65
8035.00,2.66
8034.00,2.66
8033.00,2.66
8032.00,2.66
8031.00,2.66
8030.00,2.66
8029.00,2.66
8028.00,2.66
8027.00,2.67
8026.00,2.67
8025.00,2.67
8024.00,2.67
8023.00,2.67
8022.00,2.67
8021.00,2.67
8020.00,2.67
8019.00,2.67
8018.00,2.67
8017.00,2.67
8016.00,2.67
8015.00,2.67
8014.00,2.68
8013.00,2.68
8012.00,2.68
8011.00,2.68
8010.00,2.68
8009.00,2.68
8008.00,2.68
8007.00,2.69
8006.00,2.69
8005.00,2.69
8004.00,2.69
8003.00,2.69
8002.00,2.69
8001.00,2.69
8000.00,2.69
7999.00,2.69
7998.00,2.70
7997.00,2.70
7996.00,2.70
7995.00,2.70
7994.00,2.70
7993.00,2.71
7992.00,2.71
7991.00,2.71
7990.00,2.71
7989.00,2.72
7988.00,2.72
7987.00,2.72
7986.00,2.72
7985.00,2.72
7984.00,2.72
7983.00,2.72
7982.00,2.72
7981.00,2.72
7980.00,2.73
7979.00,2.72
7978.00,2.72
7977.00,2.72
7976.00,2.72
7975.00,2.72
7974.00,2.72
7973.00,2.71
7972.00,2.71
7971.00,2.70
7970.00,2.70
7969.00,2.70
7968.00,2.70
7967.00,2.69
7966.00,2.69
7965.00,2.69
7964.00,2.68
7963.00,2.68
7962.00,2.68
7961.00,2.68
7960.00,2.68
7959.00,2.67
7958.00,2.67
7957.00,2.67
7956.00,2.67
7955.00,2.67
7954.00,2.67
7953.00,2.67
7952.00,2.66
7951.00,2.66
7950.00,2.66
7949.00,2.66
7948.00,2.67
7947.00,2.67
7946.00,2.67
7945.00,2.67
7944.00,2.67
7943.00,2.68
7942.00,2.68
7941.00,2.68
7940.00,2.68
7939.00,2.68
7938.00,2.69
7937.00,2.69
7936.00,2.69
7935.00,2.69
7934.00,2.69
7933.00,2.69
7932.00,2.69
7931.00,2.69
7930.00,2.69
7929.00,2.69
7928.00,2.69
7927.00,2.69
7926.00,2.69
7925.00,2.69
7924.00,2.69
7923.00,2.69
7922.00,2.70
7921.00,2.70
7920.00,2.70
7919.00,2.70
7918.00,2.70
7917.00,2.70
7916.00,2.70
7915.00,2.70
7914.00,2.70
7913.00,2.70
7912.00,2.70
7911.00,2.70
7910.00,2.70
7909.00,2.70
7908.00,2.70
7907.00,2.70
7906.00,2.70
7905.00,2.70
7904.00,2.70
7903.00,2.71
7902.00,2.71
7901.00,2.71
7900.00,2.71
7899.00,2.71
7898.00,2.71
7897.00,2.71
7896.00,2.71
7895.00,2.71
7894.00,2.71
7893.00,2.71
7892.00,2.71
7891.00,2.71
7890.00,2.71
7889.00,2.71
7888.00,2.71
7887.00,2.71
7886.00,2.71
7885.00,2.71
7884.00,2.71
7883.00,2.71
7882.00,2.72
7881.00,2.72
7880.00,2.72
7879.00,2.73
7878.00,2.73
7877.00,2.73
7876.00,2.73
7875.00,2.74
7874.00,2.74
7873.00,2.74
7872.00,2.75
7871.00,2.75
7870.00,2.75
7869.00,2.75
7868.00,2.76
7867.00,2.76
7866.00,2.76
7865.00,2.77
7864.00,2.77
7863.00,2.77
7862.00,2.78
7861.00,2.78
7860.00,2.78
7859.00,2.78
7858.00,2.78
7857.00,2.79
7856.00,2.79
7855.00,2.79
7854.00,2.78
7853.00,2.78
7852.00,2.78
7851.00,2.78
7850.00,2.78
7849.00,2.77
7848.00,2.77
7847.00,2.77
7846.00,2.76
7845.00,2.76
7844.00,2.76
7843.00,2.75
7842.00,2.75
7841.00,2.75
7840.00,2.74
7839.00,2.74
7838.00,2.74
7837.00,2.74
7836.00,2.73
7835.00,2.73
7834.00,2.73
7833.00,2.73
7832.00,2.73
7831.00,2.72
7830.00,2.72
7829.00,2.72
7828.00,2.71
7827.00,2.71
7826.00,2.71
7825.00,2.71
7824.00,2.71
7823.00,2.70
7822.00,2.70
7821.00,2.70
7820.00,2.70
7819.00,2.70
7818.00,2.70
7817.00,2.70
7816.00,2.70
7815.00,2.70
7814.00,2.70
7813.00,2.70
7812.00,2.70
7811.00,2.70
7810.00,2.70
7809.00,2.70
7808.00,2.70
7807.00,2.70
7806.00,2.70
7805.00,2.70
7804.00,2.70
7803.00,2.70
7802.00,2.70
7801.00,2.70
7800.00,2.71
7799.00,2.71
7798.00,2.71
7797.00,2.71
7796.00,2.71
7795.00,2.71
7794.00,2.72
7793.00,2.72
7792.00,2.72
7791.00,2.72
7790.00,2.72
7789.00,2.72
7788.00,2.72
7787.00,2.73
7786.00,2.73
7785.00,2.73
7784.00,2.73
7783.00,2.74
7782.00,2.74
7781.00,2.74
7780.00,2.74
7779.00,2.74
7778.00,2.75
7777.00,2.75
7776.00,2.75
7775.00,2.75
7774.00,2.75
7773.00,2.75
7772.00,2.75
7771.00,2.74
7770.00,2.74
7769.00,2.74
7768.00,2.74
7767.00,2.74
7766.00,2.74
7765.00,2.74
7764.00,2.74
7763.00,2.74
7762.00,2.74
7761.00,2.74
7760.00,2.74
7759.00,2.74
7758.00,2.74
7757.00,2.74
7756.00,2.73
7755.00,2.73
7754.00,2.73
7753.00,2.72
7752.00,2.72
7751.00,2.72
7750.00,2.72
7749.00,2.72
7748.00,2.72
7747.00,2.72
7746.00,2.72
7745.00,2.72
7744.00,2.72
7743.00,2.72
7742.00,2.72
7741.00,2.71
7740.00,2.71
7739.00,2.71
7738.00,2.71
7737.00,2.71
7736.00,2.71
7735.00,2.71
7734.00,2.71
7733.00,2.71
7732.00,2.71
7731.00,2.71
7730.00,2.71
7729.00,2.71
7728.00,2.71
7727.00,2.72
7726.00,2.72
7725.00,2.72
7724.00,2.72
7723.00,2.72
7722.00,2.72
7721.00,2.73
7720.00,2.73
7719.00,2.73
7718.00,2.73
7717.00,2.73
7716.00,2.73
7715.00,2.73
7714.00,2.73
7713.00,2.73
7712.00,2.74
7711.00,2.74
7710.00,2.74
7709.00,2.75
7708.00,2.75
7707.00,2.75
7706.00,2.76
7705.00,2.76
7704.00,2.76
7703.00,2.77
7702.00,2.77
7701.00,2.77
7700.00,2.77
7699.00,2.77
7698.00,2.77
7697.00,2.78
7696.00,2.78
7695.00,2.78
7694.00,2.78
7693.00,2.79
7692.00,2.79
7691.00,2.79
7690.00,2.79
7689.00,2.80
7688.00,2.80
7687.00,2.80
7686.00,2.80
7685.00,2.79
7684.00,2.79
7683.00,2.79
7682.00,2.79
7681.00,2.78
7680.00,2.78
7679.00,2.78
7678.00,2.77
7677.00,2.77
7676.00,2.76
7675.00,2.76
7674.00,2.76
7673.00,2.75
7672.00,2.75
7671.00,2.74
7670.00,2.74
7669.00,2.73
7668.00,2.73
7667.00,2.73
7666.00,2.72
7665.00,2.72
7664.00,2.72
7663.00,2.72
7662.00,2.71
7661.00,2.71
7660.00,2.71
7659.00,2.71
7658.00,2.71
7657.00,2.71
7656.00,2.71
7655.00,2.72
7654.00,2.72
7653.00,2.72
7652.00,2.73
7651.00,2.73
7650.00,2.74
7649.00,2.74
7648.00,2.75
7647.00,2.76
7646.00,2.76
7645.00,2.77
7644.00,2.78
7643.00,2.78
7642.00,2.79
7641.00,2.80
7640.00,2.80
7639.00,2.81
7638.00,2.82
7637.00,2.82
7636.00,2.83
7635.00,2.83
7634.00,2.84
7633.00,2.84
7632.00,2.85
7631.00,2.85
7630.00,2.86
7629.00,2.86
7628.00,2.86
7627.00,2.87
7626.00,2.87
7625.00,2.87
7624.00,2.87
7623.00,2.87
7622.00,2.87
7621.00,2.87
7620.00,2.87
7619.00,2.87
7618.00,2.87
7617.00,2.87
7616.00,2.87
7615.00,2.87
7614.00,2.86
7613.00,2.86
7612.00,2.86
7611.00,2.86
7610.00,2.85
7609.00,2.85
7608.00,2.85
7607.00,2.85
7606.00,2.84
7605.00,2.84
7604.00,2.84
7603.00,2.83
7602.00,2.83
7601.00,2.82
7600.00,2.82
7599.00,2.81
7598.00,2.81
7597.00,2.80
7596.00,2.80
7595.00,2.79
7594.00,2.79
7593.00,2.78
7592.00,2.78
7591.00,2.77
7590.00,2.77
7589.00,2.77
7588.00,2.76
7587.00,2.76
7586.00,2.76
7585.00,2.75
7584.00,2.75
7583.00,2.74
7582.00,2.74
7581.00,2.74
7580.00,2.73
7579.00,2.73
7578.00,2.73
7577.00,2.72
7576.00,2.72
7575.00,2.72
7574.00,2.72
7573.00,2.72
7572.00,2.72
7571.00,2.73
7570.00,2.73
7569.00,2.73
7568.00,2.73
7567.00,2.73
7566.00,2.73
7565.00,2.73
7564.00,2.73
7563.00,2.73
7562.00,2.73
7561.00,2.73
7560.00,2.73
7559.00,2.73
7558.00,2.73
7557.00,2.73
7556.00,2.73
7555.00,2.72
7554.00,2.72
7553.00,2.72
7552.00,2.72
7551.00,2.72
7550.00,2.71
7549.00,2.71
7548.00,2.70
7547.00,2.70
7546.00,2.70
7545.00,2.69
7544.00,2.69
7543.00,2.68
7542.00,2.68
7541.00,2.67
7540.00,2.67
7539.00,2.67
7538.00,2.66
7537.00,2.66
7536.00,2.65
7535.00,2.65
7534.00,2.65
7533.00,2.64
7532.00,2.64
7531.00,2.64
7530.00,2.64
7529.00,2.63
7528.00,2.63
7527.00,2.63
7526.00,2.63
7525.00,2.63
7524.00,2.63
7523.00,2.63
7522.00,2.63
7521.00,2.64
7520.00,2.64
7519.00,2.64
7518.00,2.64
7517.00,2.64
7516.00,2.64
7515.00,2.65
7514.00,2.65
7513.00,2.65
7512.00,2.65
7511.00,2.66
7510.00,2.66
7509.00,2.66
7508.00,2.67
7507.00,2.67
7506.00,2.67
7505.00,2.68
7504.00,2.68
7503.00,2.68
7502.00,2.68
7501.00,2.68
7500.00,2.69
7499.00,2.69
7498.00,2.69
7497.00,2.69
7496.00,2.69
7495.00,2.69
7494.00,2.69
7493.00,2.70
7492.00,2.70
7491.00,2.70
7490.00,2.70
7489.00,2.70
7488.00,2.70
7487.00,2.70
7486.00,2.70
7485.00,2.70
7484.00,2.70
7483.00,2.70
7482.00,2.70
7481.00,2.70
7480.00,2.69
7479.00,2.69
7478.00,2.69
7477.00,2.69
7476.00,2.69
7475.00,2.69
7474.00,2.69
7473.00,2.69
7472.00,2.69
7471.00,2.68
7470.00,2.68
7469.00,2.68
7468.00,2.68
7467.00,2.68
7466.00,2.67
7465.00,2.67
7464.00,2.67
7463.00,2.67
7462.00,2.67
7461.00,2.66
7460.00,2.66
7459.00,2.66
7458.00,2.66
7457.00,2.66
7456.00,2.65
7455.00,2.65
7454.00,2.65
7453.00,2.65
7452.00,2.65
7451.00,2.65
7450.00,2.64
7449.00,2.64
7448.00,2.64
7447.00,2.64
7446.00,2.64
7445.00,2.64
7444.00,2.64
7443.00,2.64
7442.00,2.64
7441.00,2.64
7440.00,2.64
7439.00,2.64
7438.00,2.64
7437.00,2.64
7436.00,2.64
7435.00,2.64
7434.00,2.64
7433.00,2.64
7432.00,2.64
7431.00,2.64
7430.00,2.64
7429.00,2.64
7428.00,2.64
7427.00,2.64
7426.00,2.64
7425.00,2.63
7424.00,2.63
7423.00,2.63
7422.00,2.63
7421.00,2.63
7420.00,2.62
7419.00,2.62
7418.00,2.62
7417.00,2.61
7416.00,2.61
7415.00,2.61
7414.00,2.61
7413.00,2.61
7412.00,2.61
7411.00,2.61
7410.00,2.61
7409.00,2.61
7408.00,2.61
7407.00,2.61
7406.00,2.61
7405.00,2.61
7404.00,2.61
7403.00,2.61
7402.00,2.61
7401.00,2.61
7400.00,2.61
7399.00,2.61
7398.00,2.61
7397.00,2.61
7396.00,2.61
7395.00,2.61
7394.00,2.61
7393.00,2.61
7392.00,2.61
7391.00,2.61
7390.00,2.62
7389.00,2.62
7388.00,2.62
7387.00,2.62
7386.00,2.61
7385.00,2.61
7384.00,2.61
7383.00,2.61
7382.00,2.60
7381.00,2.60
7380.00,2.60
7379.00,2.59
7378.00,2.59
7377.00,2.59
7376.00,2.58
7375.00,2.58
7374.00,2.57
7373.00,2.57
7372.00,2.57
7371.00,2.56
7370.00,2.56
7369.00,2.56
7368.00,2.55
7367.00,2.55
7366.00,2.54
7365.00,2.54
7364.00,2.53
7363.00,2.53
7362.00,2.52
7361.00,2.52
7360.00,2.51
7359.00,2.51
7358.00,2.50
7357.00,2.50
7356.00,2.50
7355.00,2.49
7354.00,2.49
7353.00,2.48
7352.00,2.48
7351.00,2.48
7350.00,2.48
7349.00,2.47
7348.00,2.47
7347.00,2.47
7346.00,2.47
7345.00,2.47
7344.00,2.47
7343.00,2.47
7342.00,2.47
7341.00,2.48
7340.00,2.48
7339.00,2.48
7338.00,2.49
7337.00,2.49
7336.00,2.49
7335.00,2.50
7334.00,2.50
7333.00,2.51
7332.00,2.51
7331.00,2.52
7330.00,2.52
7329.00,2.53
7328.00,2.53
7327.00,2.54
7326.00,2.55
7325.00,2.55
7324.00,2.56
7323.00,2.56
7322.00,2.57
7321.00,2.57
7320.00,2.57
7319.00,2.57
7318.00,2.58
7317.00,2.58
7316.00,2.58
7315.00,2.58
7314.00,2.58
7313.00,2.57
7312.00,2.57
7311.00,2.57
7310.00,2.57
7309.00,2.57
7308.00,2.57
7307.00,2.57
7306.00,2.57
7305.00,2.57
7304.00,2.56
7303.00,2.56
7302.00,2.56
7301.00,2.56
7300.00,2.55
7299.00,2.55
7298.00,2.55
7297.00,2.55
7296.00,2.55
7295.00,2.55
7294.00,2.55
7293.00,2.55
7292.00,2.55
7291.00,2.55
7290.00,2.55
7289.00,2.55
7288.00,2.55
7287.00,2.55
7286.00,2.54
7285.00,2.54
7284.00,2.54
7283.00,2.54
7282.00,2.54
7281.00,2.54
7280.00,2.54
7279.00,2.54
7278.00,2.53
7277.00,2.53
7276.00,2.53
7275.00,2.53
7274.00,2.53
7273.00,2.53
7272.00,2.52
7271.00,2.52
7270.00,2.52
7269.00,2.51
7268.00,2.51
7267.00,2.50
7266.00,2.50
7265.00,2.49
7264.00,2.49
7263.00,2.48
7262.00,2.48
7261.00,2.47
7260.00,2.47
7259.00,2.46
7258.00,2.46
7257.00,2.45
7256.00,2.45
7255.00,2.44
7254.00,2.43
7253.00,2.42
7252.00,2.42
7251.00,2.41
7250.00,2.40
7249.00,2.39
7248.00,2.38
7247.00,2.37
7246.00,2.36
7245.00,2.36
7244.00,2.35
7243.00,2.34
7242.00,2.33
7241.00,2.33
7240.00,2.32
7239.00,2.31
7238.00,2.31
7237.00,2.30
7236.00,2.30
7235.00,2.29
7234.00,2.29
7233.00,2.28
7232.00,2.28
7231.00,2.28
7230.00,2.27
7229.00,2.27
7228.00,2.26
7227.00,2.26
7226.00,2.25
7225.00,2.25
7224.00,2.25
7223.00,2.24
7222.00,2.24
7221.00,2.23
7220.00,2.23
7219.00,2.23
7218.00,2.22
7217.00,2.22
7216.00,2.21
7215.00,2.21
7214.00,2.20
7213.00,2.19
7212.00,2.19
7211.00,2.18
7210.00,2.17
7209.00,2.16
7208.00,2.16
7207.00,2.15
7206.00,2.14
7205.00,2.13
7204.00,2.12
7203.00,2.11
7202.00,2.10
7201.00,2.10
7200.00,2.09
7199.00,2.08
7198.00,2.07
7197.00,2.07
7196.00,2.06
7195.00,2.05
7194.00,2.04
7193.00,2.03
7192.00,2.03
7191.00,2.02
7190.00,2.01
7189.00,2.00
7188.00,1.99
7187.00,1.98
7186.00,1.98
7185.00,1.97
7184.00,1.96
7183.00,1.96
7182.00,1.95
7181.00,1.94
7180.00,1.94
7179.00,1.93
7178.00,1.93
7177.00,1.92
7176.00,1.91
7175.00,1.91
7174.00,1.90
7173.00,1.89
7172.00,1.89
7171.00,1.88
7170.00,1.87
7169.00,1.87
7168.00,1.86
7167.00,1.85
7166.00,1.85
7165.00,1.84
7164.00,1.83
7163.00,1.83
7162.00,1.82
7161.00,1.82
7160.00,1.81
7159.00,1.80
7158.00,1.80
7157.00,1.79
7156.00,1.78
7155.00,1.78
7154.00,1.77
7153.00,1.76
7152.00,1.76
7151.00,1.75
7150.00,1.74
7149.00,1.74
7148.00,1.73
7147.00,1.72
7146.00,1.72
7145.00,1.71
7144.00,1.71
7143.00,1.70
7142.00,1.70
7141.00,1.69
7140.00,1.69
7139.00,1.69
7138.00,1.68
7137.00,1.68
7136.00,1.68
7135.00,1.68
7134.00,1.67
7133.00,1.67
7132.00,1.67
7131.00,1.67
7130.00,1.67
7129.00,1.67
7128.00,1.67
7127.00,1.67
7126.00,1.67
7125.00,1.67
7124.00,1.67
7123.00,1.66
7122.00,1.66
7121.00,1.66
7120.00,1.66
7119.00,1.66
7118.00,1.65
7117.00,1.65
7116.00,1.64
7115.00,1.64
7114.00,1.63
7113.00,1.63
7112.00,1.62
7111.00,1.61
7110.00,1.61
7109.00,1.60
7108.00,1.59
7107.00,1.58
7106.00,1.57
7105.00,1.56
7104.00,1.55
7103.00,1.54
7102.00,1.53
7101.00,1.52
7100.00,1.51
7099.00,1.50
7098.00,1.49
7097.00,1.48
7096.00,1.47
7095.00,1.46
7094.00,1.46
7093.00,1.45
7092.00,1.44
7091.00,1.43
7090.00,1.43
7089.00,1.42
7088.00,1.41
7087.00,1.41
7086.00,1.40
7085.00,1.40
7084.00,1.40
7083.00,1.39
7082.00,1.39
7081.00,1.39
7080.00,1.38
7079.00,1.38
7078.00,1.38
7077.00,1.38
7076.00,1.38
7075.00,1.38
7074.00,1.38
7073.00,1.38
7072.00,1.38
7071.00,1.38
7070.00,1.38
7069.00,1.37
7068.00,1.37
7067.00,1.37
7066.00,1.37
7065.00,1.37
7064.00,1.37
7063.00,1.37
7062.00,1.37
7061.00,1.37
7060.00,1.37
7059.00,1.37
7058.00,1.37
7057.00,1.37
7056.00,1.37
7055.00,1.37
7054.00,1.37
7053.00,1.37
7052.00,1.37
7051.00,1.37
7050.00,1.37
7049.00,1.36
7048.00,1.36
7047.00,1.36
7046.00,1.36
7045.00,1.36
7044.00,1.36
7043.00,1.36
7042.00,1.36
7041.00,1.36
7040.00,1.36
7039.00,1.36
7038.00,1.36
7037.00,1.36
7036.00,1.36
7035.00,1.36
7034.00,1.36
7033.00,1.36
7032.00,1.35
7031.00,1.35
7030.00,1.35
7029.00,1.35
7028.00,1.34
7027.00,1.34
7026.00,1.34
7025.00,1.33
7024.00,1.33
7023.00,1.33
7022.00,1.33
7021.00,1.32
7020.00,1.32
7019.00,1.32
7018.00,1.31
7017.00,1.31
7016.00,1.30
7015.00,1.30
7014.00,1.29
7013.00,1.29
7012.00,1.28
7011.00,1.27
7010.00,1.27
7009.00,1.26
7008.00,1.26
7007.00,1.25
7006.00,1.24
7005.00,1.24
7004.00,1.23
7003.00,1.23
7002.00,1.23
7001.00,1.22
7000.00,1.22
6999.00,1.21
6998.00,1.21
6997.00,1.20
6996.00,1.20
6995.00,1.19
6994.00,1.19
6993.00,1.19
6992.00,1.19
6991.00,1.18
6990.00,1.18
6989.00,1.18
6988.00,1.18
6987.00,1.18
6986.00,1.18
6985.00,1.18
6984.00,1.18
6983.00,1.18
6982.00,1.18
6981.00,1.18
6980.00,1.18
6979.00,1.18
6978.00,1.19
6977.00,1.19
6976.00,1.19
6975.00,1.19
6974.00,1.19
6973.00,1.20
6972.00,1.20
6971.00,1.20
6970.00,1.20
6969.00,1.20
6968.00,1.21
6967.00,1.21
6966.00,1.21
6965.00,1.21
6964.00,1.21
6963.00,1.21
6962.00,1.22
6961.00,1.22
6960.00,1.22
6959.00,1.22
6958.00,1.22
6957.00,1.23
6956.00,1.23
6955.00,1.23
6954.00,1.24
6953.00,1.24
6952.00,1.24
6951.00,1.25
6950.00,1.25
6949.00,1.25
6948.00,1.26
6947.00,1.26
6946.00,1.26
6945.00,1.27
6944.00,1.27
6943.00,1.27
6942.00,1.27
6941.00,1.28
6940.00,1.28
6939.00,1.28
6938.00,1.28
6937.00,1.28
6936.00,1.28
6935.00,1.29
6934.00,1.29
6933.00,1.29
6932.00,1.28
6931.00,1.28
6930.00,1.28
6929.00,1.28
6928.00,1.28
6927.00,1.27
6926.00,1.27
6925.00,1.27
6924.00,1.26
6923.00,1.26
6922.00,1.25
6921.00,1.25
6920.00,1.24
6919.00,1.24
6918.00,1.24
6917.00,1.23
6916.00,1.23
6915.00,1.23
6914.00,1.23
6913.00,1.23
6912.00,1.23
6911.00,1.22
6910.00,1.22
6909.00,1.22
6908.00,1.22
6907.00,1.22
6906.00,1.22
6905.00,1.22
6904.00,1.22
6903.00,1.22
6902.00,1.23
6901.00,1.23
6900.00,1.23
6899.00,1.23
6898.00,1.24
6897.00,1.24
6896.00,1.24
6895.00,1.24
6894.00,1.25
6893.00,1.25
6892.00,1.25
6891.00,1.25
6890.00,1.26
6889.00,1.26
6888.00,1.26
6887.00,1.26
6886.00,1.26
6885.00,1.26
6884.00,1.26
6883.00,1.26
6882.00,1.26
6881.00,1.26
6880.00,1.26
6879.00,1.26
6878.00,1.26
6877.00,1.26
6876.00,1.26
6875.00,1.26
6874.00,1.26
6873.00,1.26
6872.00,1.26
6871.00,1.26
6870.00,1.26
6869.00,1.26
6868.00,1.26
6867.00,1.26
6866.00,1.26
6865.00,1.26
6864.00,1.25
6863.00,1.25
6862.00,1.25
6861.00,1.25
6860.00,1.25
6859.00,1.24
6858.00,1.24
6857.00,1.24
6856.00,1.24
6855.00,1.24
6854.00,1.23
6853.00,1.23
6852.00,1.23
6851.00,1.23
6850.00,1.22
6849.00,1.22
6848.00,1.22
6847.00,1.22
6846.00,1.22
6845.00,1.22
6844.00,1.21
6843.00,1.21
6842.00,1.21
6841.00,1.21
6840.00,1.21
6839.00,1.21
6838.00,1.21
6837.00,1.21
6836.00,1.21
6835.00,1.21
6834.00,1.20
6833.00,1.20
6832.00,1.20
6831.00,1.20
6830.00,1.20
6829.00,1.20
6828.00,1.20
6827.00,1.20
6826.00,1.20
6825.00,1.20
6824.00,1.20
6823.00,1.20
6822.00,1.20
6821.00,1.20
6820.00,1.20
6819.00,1.20
6818.00,1.20
6817.00,1.20
6816.00,1.20
6815.00,1.20
6814.00,1.20
6813.00,1.20
6812.00,1.20
6811.00,1.20
6810.00,1.21
6809.00,1.21
6808.00,1.21
6807.00,1.21
6806.00,1.21
6805.00,1.22
6804.00,1.22
6803.00,1.22
6802.00,1.23
6801.00,1.23
6800.00,1.23
6799.00,1.23
6798.00,1.24
6797.00,1.24
6796.00,1.24
6795.00,1.24
6794.00,1.24
6793.00,1.25
6792.00,1.25
6791.00,1.25
6790.00,1.25
6789.00,1.25
6788.00,1.26
6787.00,1.26
6786.00,1.26
6785.00,1.26
6784.00,1.26
6783.00,1.26
6782.00,1.26
6781.00,1.27
6780.00,1.27
6779.00,1.27
6778.00,1.27
6777.00,1.27
6776.00,1.27
6775.00,1.27
6774.00,1.28
6773.00,1.28
6772.00,1.28
6771.00,1.28
6770.00,1.29
6769.00,1.29
6768.00,1.29
6767.00,1.30
6766.00,1.30
6765.00,1.31
6764.00,1.31
6763.00,1.32
6762.00,1.32
6761.00,1.33
6760.00,1.34
6759.00,1.34
6758.00,1.35
6757.00,1.35
6756.00,1.36
6755.00,1.36
6754.00,1.37
6753.00,1.37
6752.00,1.38
6751.00,1.38
6750.00,1.38
6749.00,1.38
6748.00,1.39
6747.00,1.39
6746.00,1.39
6745.00,1.39
6744.00,1.39
6743.00,1.39
6742.00,1.39
6741.00,1.39
6740.00,1.39
6739.00,1.39
6738.00,1.39
6737.00,1.39
6736.00,1.39
6735.00,1.39
6734.00,1.38
6733.00,1.38
6732.00,1.38
6731.00,1.38
6730.00,1.38
6729.00,1.38
6728.00,1.38
6727.00,1.37
6726.00,1.37
6725.00,1.37
6724.00,1.37
6723.00,1.37
6722.00,1.37
6721.00,1.37
6720.00,1.38
6719.00,1.38
6718.00,1.38
6717.00,1.38
6716.00,1.38
6715.00,1.38
6714.00,1.38
6713.00,1.38
6712.00,1.38
6711.00,1.38
6710.00,1.38
6709.00,1.38
6708.00,1.38
6707.00,1.39
6706.00,1.39
6705.00,1.39
6704.00,1.39
6703.00,1.39
6702.00,1.39
6701.00,1.40
6700.00,1.40
6699.00,1.40
6698.00,1.41
6697.00,1.41
6696.00,1.41
6695.00,1.42
6694.00,1.42
6693.00,1.42
6692.00,1.43
6691.00,1.43
6690.00,1.44
6689.00,1.44
6688.00,1.44
6687.00,1.45
6686.00,1.45
6685.00,1.46
6684.00,1.46
6683.00,1.47
6682.00,1.47
6681.00,1.47
6680.00,1.48
6679.00,1.48
6678.00,1.48
6677.00,1.49
6676.00,1.49
6675.00,1.49
6674.00,1.49
6673.00,1.49
6672.00,1.49
6671.00,1.49
6670.00,1.49
6669.00,1.49
6668.00,1.49
6667.00,1.49
6666.00,1.49
6665.00,1.49
6664.00,1.49
6663.00,1.49
6662.00,1.49
6661.00,1.49
6660.00,1.49
6659.00,1.49
6658.00,1.49
6657.00,1.49
6656.00,1.49
6655.00,1.49
6654.00,1.49
6653.00,1.49
6652.00,1.49
6651.00,1.50
6650.00,1.50
6649.00,1.50
6648.00,1.51
6647.00,1.51
6646.00,1.51
6645.00,1.52
6644.00,1.52
6643.00,1.52
6642.00,1.53
6641.00,1.53
6640.00,1.53
6639.00,1.54
6638.00,1.54
6637.00,1.54
6636.00,1.54
6635.00,1.55
6634.00,1.55
6633.00,1.55
6632.00,1.55
6631.00,1.56
6630.00,1.56
6629.00,1.56
6628.00,1.56
6627.00,1.56
6626.00,1.56
6625.00,1.57
6624.00,1.57
6623.00,1.57
6622.00,1.57
6621.00,1.57
6620.00,1.57
6619.00,1.57
6618.00,1.57
6617.00,1.57
6616.00,1.57
6615.00,1.57
6614.00,1.58
6613.00,1.58
6612.00,1.58
6611.00,1.58
6610.00,1.59
6609.00,1.59
6608.00,1.59
6607.00,1.60
6606.00,1.60
6605.00,1.60
6604.00,1.60
6603.00,1.61
6602.00,1.61
6601.00,1.61
6600.00,1.61
6599.00,1.62
6598.00,1.62
6597.00,1.63
6596.00,1.63
6595.00,1.64
6594.00,1.64
6593.00,1.65
6592.00,1.65
6591.00,1.66
6590.00,1.66
6589.00,1.66
6588.00,1.67
6587.00,1.67
6586.00,1.67
6585.00,1.67
6584.00,1.68
6583.00,1.68
6582.00,1.68
6581.00,1.69
6580.00,1.69
6579.00,1.69
6578.00,1.70
6577.00,1.70
6576.00,1.70
6575.00,1.71
6574.00,1.71
6573.00,1.72
6572.00,1.72
6571.00,1.72
6570.00,1.73
6569.00,1.73
6568.00,1.73
6567.00,1.73
6566.00,1.74
6565.00,1.74
6564.00,1.74
6563.00,1.74
6562.00,1.74
6561.00,1.75
6560.00,1.75
6559.00,1.75
6558.00,1.75
6557.00,1.76
6556.00,1.76
6555.00,1.76
6554.00,1.76
6553.00,1.76
6552.00,1.76
6551.00,1.77
6550.00,1.77
6549.00,1.77
6548.00,1.77
6547.00,1.77
6546.00,1.77
6545.00,1.77
6544.00,1.77
6543.00,1.77
6542.00,1.76
6541.00,1.76
6540.00,1.76
6539.00,1.76
6538.00,1.77
6537.00,1.77
6536.00,1.77
6535.00,1.77
6534.00,1.77
6533.00,1.77
6532.00,1.77
6531.00,1.78
6530.00,1.78
6529.00,1.78
6528.00,1.79
6527.00,1.79
6526.00,1.80
6525.00,1.80
6524.00,1.81
6523.00,1.81
6522.00,1.82
6521.00,1.82
6520.00,1.83
6519.00,1.83
6518.00,1.84
6517.00,1.84
6516.00,1.85
6515.00,1.85
6514.00,1.86
6513.00,1.86
6512.00,1.87
6511.00,1.87
6510.00,1.88
6509.00,1.88
6508.00,1.89
6507.00,1.89
6506.00,1.89
6505.00,1.89
6504.00,1.89
6503.00,1.89
6502.00,1.89
6501.00,1.89
6500.00,1.89
6499.00,1.89
6498.00,1.89
6497.00,1.89
6496.00,1.90
6495.00,1.90
6494.00,1.90
6493.00,1.90
6492.00,1.90
6491.00,1.90
6490.00,1.91
6489.00,1.91
6488.00,1.91
6487.00,1.91
6486.00,1.91
6485.00,1.92
6484.00,1.92
6483.00,1.92
6482.00,1.93
6481.00,1.93
6480.00,1.93
6479.00,1.94
6478.00,1.94
6477.00,1.95
6476.00,1.95
6475.00,1.96
6474.00,1.96
6473.00,1.97
6472.00,1.97
6471.00,1.97
6470.00,1.98
6469.00,1.98
6468.00,1.98
6467.00,1.98
6466.00,1.99
6465.00,1.99
6464.00,1.99
6463.00,1.99
6462.00,1.99
6461.00,1.99
6460.00,2.00
6459.00,2.00
6458.00,2.00
6457.00,2.00
6456.00,2.00
6455.00,2.00
6454.00,2.00
6453.00,2.00
6452.00,2.00
6451.00,2.00
6450.00,2.00
6449.00,2.00
6448.00,1.99
6447.00,1.99
6446.00,1.99
6445.00,1.99
6444.00,1.99
6443.00,1.99
6442.00,1.99
6441.00,1.99
6440.00,1.99
6439.00,1.99
6438.00,1.99
6437.00,1.99
6436.00,1.99
6435.00,1.99
6434.00,1.99
6433.00,1.99
6432.00,2.00
6431.00,2.00
6430.00,2.00
6429.00,2.00
6428.00,2.00
6427.00,2.01
6426.00,2.01
6425.00,2.01
6424.00,2.01
6423.00,2.02
6422.00,2.02
6421.00,2.03
6420.00,2.03
6419.00,2.03
6418.00,2.04
6417.00,2.04
6416.00,2.05
6415.00,2.05
6414.00,2.05
6413.00,2.06
6412.00,2.06
6411.00,2.06
6410.00,2.07
6409.00,2.07
6408.00,2.07
6407.00,2.07
6406.00,2.08
6405.00,2.08
6404.00,2.08
6403.00,2.08
6402.00,2.09
6401.00,2.09
6400.00,2.09
6399.00,2.10
6398.00,2.10
6397.00,2.10
6396.00,2.11
6395.00,2.11
6394.00,2.11
6393.00,2.11
6392.00,2.11
6391.00,2.12
6390.00,2.12
6389.00,2.12
6388.00,2.12
6387.00,2.13
6386.00,2.13
6385.00,2.13
6384.00,2.14
6383.00,2.14
6382.00,2.14
6381.00,2.15
6380.00,2.15
6379.00,2.16
6378.00,2.16
6377.00,2.16
6376.00,2.17
6375.00,2.17
6374.00,2.17
6373.00,2.18
6372.00,2.18
6371.00,2.18
6370.00,2.19
6369.00,2.19
6368.00,2.19
6367.00,2.20
6366.00,2.20
6365.00,2.20
6364.00,2.21
6363.00,2.21
6362.00,2.22
6361.00,2.22
6360.00,2.22
6359.00,2.23
6358.00,2.23
6357.00,2.23
6356.00,2.23
6355.00,2.23
6354.00,2.24
6353.00,2.24
6352.00,2.24
6351.00,2.24
6350.00,2.24
6349.00,2.24
6348.00,2.24
6347.00,2.25
6346.00,2.25
6345.00,2.25
6344.00,2.25
6343.00,2.25
6342.00,2.25
6341.00,2.25
6340.00,2.26
6339.00,2.26
6338.00,2.26
6337.00,2.26
6336.00,2.26
6335.00,2.26
6334.00,2.26
6333.00,2.26
6332.00,2.26
6331.00,2.26
6330.00,2.26
6329.00,2.26
6328.00,2.26
6327.00,2.26
6326.00,2.26
6325.00,2.26
6324.00,2.26
6323.00,2.26
6322.00,2.26
6321.00,2.26
6320.00,2.26
6319.00,2.26
6318.00,2.25
6317.00,2.25
6316.00,2.25
6315.00,2.25
6314.00,2.25
6313.00,2.25
6312.00,2.25
6311.00,2.25
6310.00,2.25
6309.00,2.25
6308.00,2.25
6307.00,2.24
6306.00,2.24
6305.00,2.24
6304.00,2.24
6303.00,2.24
6302.00,2.24
6301.00,2.24
6300.00,2.24
6299.00,2.25
6298.00,2.25
6297.00,2.25
6296.00,2.25
6295.00,2.25
6294.00,2.25
6293.00,2.26
6292.00,2.26
6291.00,2.26
6290.00,2.27
6289.00,2.27
6288.00,2.27
6287.00,2.28
6286.00,2.28
6285.00,2.29
6284.00,2.29
6283.00,2.30
6282.00,2.30
6281.00,2.31
6280.00,2.31
6279.00,2.31
6278.00,2.32
6277.00,2.32
6276.00,2.33
6275.00,2.33
6274.00,2.34
6273.00,2.34
6272.00,2.35
6271.00,2.35
6270.00,2.35
6269.00,2.36
6268.00,2.36
6267.00,2.37
6266.00,2.37
6265.00,2.37
6264.00,2.37
6263.00,2.38
6262.00,2.38
6261.00,2.38
6260.00,2.38
6259.00,2.38
6258.00,2.38
6257.00,2.38
6256.00,2.38
6255.00,2.38
6254.00,2.38
6253.00,2.38
6252.00,2.38
6251.00,2.38
6250.00,2.38
6249.00,2.38
6248.00,2.38
6247.00,2.38
6246.00,2.38
6245.00,2.38
6244.00,2.38
6243.00,2.38
6242.00,2.38
6241.00,2.38
6240.00,2.39
6239.00,2.39
6238.00,2.39
6237.00,2.39
6236.00,2.40
6235.00,2.40
6234.00,2.40
6233.00,2.41
6232.00,2.41
6231.00,2.42
6230.00,2.42
6229.00,2.43
6228.00,2.44
6227.00,2.44
6226.00,2.45
6225.00,2.46
6224.00,2.46
6223.00,2.47
6222.00,2.48
6221.00,2.48
6220.00,2.49
6219.00,2.50
6218.00,2.50
6217.00,2.51
6216.00,2.51
6215.00,2.52
6214.00,2.52
6213.00,2.53
6212.00,2.53
6211.00,2.53
6210.00,2.54
6209.00,2.54
6208.00,2.54
6207.00,2.55
6206.00,2.55
6205.00,2.55
6204.00,2.55
6203.00,2.56
6202.00,2.56
6201.00,2.56
6200.00,2.56
6199.00,2.56
6198.00,2.57
6197.00,2.57
6196.00,2.57
6195.00,2.57
6194.00,2.57
6193.00,2.58
6192.00,2.58
6191.00,2.58
6190.00,2.58
6189.00,2.59
6188.00,2.59
6187.00,2.59
6186.00,2.60
6185.00,2.60
6184.00,2.60
6183.00,2.61
6182.00,2.61
6181.00,2.61
6180.00,2.61
6179.00,2.62
6178.00,2.62
6177.00,2.62
6176.00,2.62
6175.00,2.62
6174.00,2.63
6173.00,2.63
6172.00,2.63
6171.00,2.63
6170.00,2.63
6169.00,2.63
6168.00,2.63
6167.00,2.63
6166.00,2.63
6165.00,2.64
6164.00,2.64
6163.00,2.64
6162.00,2.64
6161.00,2.64
6160.00,2.64
6159.00,2.64
6158.00,2.63
6157.00,2.63
6156.00,2.63
6155.00,2.64
6154.00,2.64
6153.00,2.64
6152.00,2.64
6151.00,2.64
6150.00,2.64
6149.00,2.64
6148.00,2.64
6147.00,2.64
6146.00,2.64
6145.00,2.64
6144.00,2.64
6143.00,2.65
6142.00,2.65
6141.00,2.65
6140.00,2.65
6139.00,2.65
6138.00,2.65
6137.00,2.65
6136.00,2.66
6135.00,2.66
6134.00,2.66
6133.00,2.66
6132.00,2.66
6131.00,2.66
6130.00,2.66
6129.00,2.66
6128.00,2.66
6127.00,2.66
6126.00,2.66
6125.00,2.66
6124.00,2.66
6123.00,2.66
6122.00,2.66
6121.00,2.66
6120.00,2.67
6119.00,2.67
6118.00,2.67
6117.00,2.67
6116.00,2.67
6115.00,2.67
6114.00,2.67
6113.00,2.67
6112.00,2.67
6111.00,2.68
6110.00,2.68
6109.00,2.68
6108.00,2.69
6107.00,2.69
6106.00,2.69
6105.00,2.70
6104.00,2.70
6103.00,2.71
6102.00,2.71
6101.00,2.72
6100.00,2.73
6099.00,2.73
6098.00,2.74
6097.00,2.75
6096.00,2.75
6095.00,2.76
6094.00,2.77
6093.00,2.77
6092.00,2.78
6091.00,2.79
6090.00,2.79
6089.00,2.80
6088.00,2.80
6087.00,2.81
6086.00,2.81
6085.00,2.82
6084.00,2.82
6083.00,2.82
6082.00,2.82
6081.00,2.83
6080.00,2.83
6079.00,2.83
6078.00,2.83
6077.00,2.83
6076.00,2.83
6075.00,2.83
6074.00,2.83
6073.00,2.83
6072.00,2.83
6071.00,2.82
6070.00,2.82
6069.00,2.82
6068.00,2.82
6067.00,2.81
6066.00,2.81
6065.00,2.81
6064.00,2.81
6063.00,2.81
6062.00,2.81
6061.00,2.80
6060.00,2.80
6059.00,2.80
6058.00,2.80
6057.00,2.80
6056.00,2.80
6055.00,2.81
6054.00,2.81
6053.00,2.81
6052.00,2.81
6051.00,2.82
6050.00,2.82
6049.00,2.82
6048.00,2.82
6047.00,2.83
6046.00,2.83
6045.00,2.83
6044.00,2.84
6043.00,2.84
6042.00,2.84
6041.00,2.85
6040.00,2.85
6039.00,2.85
6038.00,2.86
6037.00,2.86
6036.00,2.86
6035.00,2.86
6034.00,2.86
6033.00,2.86
6032.00,2.86
6031.00,2.86
6030.00,2.86
6029.00,2.86
6028.00,2.86
6027.00,2.86
6026.00,2.86
6025.00,2.85
6024.00,2.85
6023.00,2.85
6022.00,2.85
6021.00,2.85
6020.00,2.85
6019.00,2.85
6018.00,2.84
6017.00,2.84
6016.00,2.84
6015.00,2.84
6014.00,2.84
6013.00,2.83
6012.00,2.83
6011.00,2.83
6010.00,2.83
6009.00,2.83
6008.00,2.83
6007.00,2.83
6006.00,2.83
6005.00,2.83
6004.00,2.83
6003.00,2.83
6002.00,2.83
6001.00,2.83
6000.00,2.83
5999.00,2.83
5998.00,2.83
5997.00,2.83
5996.00,2.83
5995.00,2.83
5994.00,2.83
5993.00,2.83
5992.00,2.83
5991.00,2.83
5990.00,2.83
5989.00,2.83
5988.00,2.83
5987.00,2.83
5986.00,2.83
5985.00,2.84
5984.00,2.84
5983.00,2.84
5982.00,2.84
5981.00,2.84
5980.00,2.84
5979.00,2.84
5978.00,2.83
5977.00,2.83
5976.00,2.83
5975.00,2.83
5974.00,2.83
5973.00,2.83
5972.00,2.83
5971.00,2.82
5970.00,2.82
5969.00,2.82
5968.00,2.82
5967.00,2.81
5966.00,2.81
5965.00,2.81
5964.00,2.80
5963.00,2.80
5962.00,2.80
5961.00,2.79
5960.00,2.79
5959.00,2.78
5958.00,2.78
5957.00,2.77
5956.00,2.77
5955.00,2.76
5954.00,2.76
5953.00,2.75
5952.00,2.75
5951.00,2.74
5950.00,2.74
5949.00,2.73
5948.00,2.73
5947.00,2.73
5946.00,2.72
5945.00,2.72
5944.00,2.72
5943.00,2.72
5942.00,2.71
5941.00,2.71
5940.00,2.71
5939.00,2.71
5938.00,2.71
5937.00,2.70
5936.00,2.70
5935.00,2.70
5934.00,2.70
5933.00,2.70
5932.00,2.70
5931.00,2.69
5930.00,2.69
5929.00,2.69
5928.00,2.69
5927.00,2.69
5926.00,2.69
5925.00,2.69
5924.00,2.69
5923.00,2.69
5922.00,2.69
5921.00,2.69
5920.00,2.68
5919.00,2.68
5918.00,2.68
5917.00,2.68
5916.00,2.68
5915.00,2.68
5914.00,2.68
5913.00,2.68
5912.00,2.68
5911.00,2.68
5910.00,2.68
5909.00,2.68
5908.00,2.68
5907.00,2.68
5906.00,2.69
5905.00,2.69
5904.00,2.69
5903.00,2.69
5902.00,2.69
5901.00,2.70
5900.00,2.70
5899.00,2.70
5898.00,2.70
5897.00,2.71
5896.00,2.71
5895.00,2.71
5894.00,2.71
5893.00,2.72
5892.00,2.72
5891.00,2.72
5890.00,2.72
5889.00,2.72
5888.00,2.73
5887.00,2.73
5886.00,2.73
5885.00,2.73
5884.00,2.73
5883.00,2.73
5882.00,2.74
5881.00,2.74
5880.00,2.74
5879.00,2.74
5878.00,2.74
5877.00,2.74
5876.00,2.74
5875.00,2.74
5874.00,2.74
5873.00,2.74
5872.00,2.75
5871.00,2.75
5870.00,2.75
5869.00,2.75
5868.00,2.75
5867.00,2.75
5866.00,2.75
5865.00,2.75
5864.00,2.75
5863.00,2.75
5862.00,2.75
5861.00,2.75
5860.00,2.75
5859.00,2.76
5858.00,2.76
5857.00,2.76
5856.00,2.76
5855.00,2.76
5854.00,2.76
5853.00,2.76
5852.00,2.76
5851.00,2.77
5850.00,2.77
5849.00,2.77
5848.00,2.77
5847.00,2.77
5846.00,2.77
5845.00,2.77
5844.00,2.77
5843.00,2.77
5842.00,2.77
5841.00,2.77
5840.00,2.77
5839.00,2.77
5838.00,2.77
5837.00,2.77
5836.00,2.77
5835.00,2.76
5834.00,2.76
5833.00,2.76
5832.00,2.76
5831.00,2.76
5830.00,2.76
5829.00,2.76
5828.00,2.76
5827.00,2.76
5826.00,2.76
5825.00,2.76
5824.00,2.76
5823.00,2.76
5822.00,2.76
5821.00,2.76
5820.00,2.76
5819.00,2.76
5818.00,2.76
5817.00,2.76
5816.00,2.76
5815.00,2.76
5814.00,2.76
5813.00,2.76
5812.00,2.76
5811.00,2.76
5810.00,2.76
5809.00,2.76
5808.00,2.76
5807.00,2.76
5806.00,2.76
5805.00,2.76
5804.00,2.76
5803.00,2.76
5802.00,2.76
5801.00,2.76
5800.00,2.76
5799.00,2.76
5798.00,2.75
5797.00,2.75
5796.00,2.75
5795.00,2.75
5794.00,2.75
5793.00,2.75
5792.00,2.75
5791.00,2.74
5790.00,2.74
5789.00,2.74
5788.00,2.74
5787.00,2.74
5786.00,2.74
5785.00,2.74
5784.00,2.74
5783.00,2.74
5782.00,2.74
5781.00,2.74
5780.00,2.74
5779.00,2.74
5778.00,2.74
5777.00,2.74
5776.00,2.74
5775.00,2.74
5774.00,2.75
5773.00,2.75
5772.00,2.75
5771.00,2.75
5770.00,2.75
5769.00,2.75
5768.00,2.76
5767.00,2.76
5766.00,2.76
5765.00,2.76
5764.00,2.76
5763.00,2.77
5762.00,2.77
5761.00,2.77
5760.00,2.77
5759.00,2.77
5758.00,2.78
5757.00,2.78
5756.00,2.78
5755.00,2.78
5754.00,2.78
5753.00,2.78
5752.00,2.78
5751.00,2.78
5750.00,2.78
5749.00,2.78
5748.00,2.78
5747.00,2.78
5746.00,2.78
5745.00,2.77
5744.00,2.77
5743.00,2.77
5742.00,2.77
5741.00,2.77
5740.00,2.76
5739.00,2.76
5738.00,2.76
5737.00,2.76
5736.00,2.76
5735.00,2.75
5734.00,2.75
5733.00,2.75
5732.00,2.75
5731.00,2.74
5730.00,2.74
5729.00,2.74
5728.00,2.74
5727.00,2.74
5726.00,2.74
5725.00,2.74
5724.00,2.74
5723.00,2.74
5722.00,2.74
5721.00,2.74
5720.00,2.73
5719.00,2.73
5718.00,2.73
5717.00,2.73
5716.00,2.73
5715.00,2.73
5714.00,2.73
5713.00,2.73
5712.00,2.73
5711.00,2.73
5710.00,2.73
5709.00,2.73
5708.00,2.73
5707.00,2.73
5706.00,2.72
5705.00,2.72
5704.00,2.72
5703.00,2.72
5702.00,2.72
5701.00,2.71
5700.00,2.71
5699.00,2.71
5698.00,2.70
5697.00,2.70
5696.00,2.70
5695.00,2.70
5694.00,2.70
5693.00,2.70
5692.00,2.69
5691.00,2.69
5690.00,2.69
5689.00,2.69
5688.00,2.69
5687.00,2.69
5686.00,2.69
5685.00,2.69
5684.00,2.69
5683.00,2.69
5682.00,2.69
5681.00,2.70
5680.00,2.70
5679.00,2.70
5678.00,2.70
5677.00,2.70
5676.00,2.70
5675.00,2.70
5674.00,2.70
5673.00,2.71
5672.00,2.71
5671.00,2.71
5670.00,2.71
5669.00,2.71
5668.00,2.71
5667.00,2.71
5666.00,2.71
5665.00,2.71
5664.00,2.71
5663.00,2.71
5662.00,2.71
5661.00,2.71
5660.00,2.70
5659.00,2.70
5658.00,2.70
5657.00,2.70
5656.00,2.70
5655.00,2.70
5654.00,2.70
5653.00,2.70
5652.00,2.70
5651.00,2.70
5650.00,2.69
5649.00,2.69
5648.00,2.69
5647.00,2.69
5646.00,2.69
5645.00,2.69
5644.00,2.69
5643.00,2.69
5642.00,2.69
5641.00,2.69
5640.00,2.69
5639.00,2.69
5638.00,2.69
5637.00,2.69
5636.00,2.69
5635.00,2.69
5634.00,2.69
5633.00,2.69
5632.00,2.69
5631.00,2.69
5630.00,2.69
5629.00,2.69
5628.00,2.69
5627.00,2.70
5626.00,2.70
5625.00,2.70
5624.00,2.70
5623.00,2.70
5622.00,2.70
5621.00,2.70
5620.00,2.70
5619.00,2.70
5618.00,2.70
5617.00,2.70
5616.00,2.70
5615.00,2.70
5614.00,2.70
5613.00,2.70
5612.00,2.70
5611.00,2.71
5610.00,2.71
5609.00,2.71
5608.00,2.71
5607.00,2.71
5606.00,2.71
5605.00,2.71
5604.00,2.71
5603.00,2.71
5602.00,2.71
5601.00,2.71
5600.00,2.71
5599.00,2.71
5598.00,2.71
5597.00,2.71
5596.00,2.71
5595.00,2.71
5594.00,2.71
5593.00,2.71
5592.00,2.71
5591.00,2.71
5590.00,2.71
5589.00,2.71
5588.00,2.71
5587.00,2.72
5586.00,2.72
5585.00,2.72
5584.00,2.72
5583.00,2.73
5582.00,2.73
5581.00,2.73
5580.00,2.73
5579.00,2.74
5578.00,2.74
5577.00,2.74
5576.00,2.75
5575.00,2.75
5574.00,2.75
5573.00,2.76
5572.00,2.76
5571.00,2.77
5570.00,2.77
5569.00,2.77
5568.00,2.77
5567.00,2.78
5566.00,2.78
5565.00,2.78
5564.00,2.78
5563.00,2.78
5562.00,2.78
5561.00,2.78
5560.00,2.78
5559.00,2.78
5558.00,2.78
5557.00,2.78
5556.00,2.78
5555.00,2.78
5554.00,2.78
5553.00,2.78
5552.00,2.78
5551.00,2.77
5550.00,2.77
5549.00,2.77
5548.00,2.77
5547.00,2.77
5546.00,2.77
5545.00,2.77
5544.00,2.77
5543.00,2.77
5542.00,2.77
5541.00,2.77
5540.00,2.77
5539.00,2.77
5538.00,2.77
5537.00,2.77
5536.00,2.77
5535.00,2.78
5534.00,2.78
5533.00,2.78
5532.00,2.78
5531.00,2.78
5530.00,2.78
5529.00,2.78
5528.00,2.78
5527.00,2.79
5526.00,2.79
5525.00,2.79
5524.00,2.79
5523.00,2.79
5522.00,2.79
5521.00,2.79
5520.00,2.79
5519.00,2.79
5518.00,2.79
5517.00,2.79
5516.00,2.79
5515.00,2.79
5514.00,2.78
5513.00,2.78
5512.00,2.78
5511.00,2.78
5510.00,2.78
5509.00,2.78
5508.00,2.78
5507.00,2.78
5506.00,2.77
5505.00,2.77
5504.00,2.77
5503.00,2.77
5502.00,2.77
5501.00,2.77
5500.00,2.77
5499.00,2.77
5498.00,2.76
5497.00,2.76
5496.00,2.76
5495.00,2.76
5494.00,2.76
5493.00,2.76
5492.00,2.76
5491.00,2.76
5490.00,2.76
5489.00,2.77
5488.00,2.77
5487.00,2.77
5486.00,2.77
5485.00,2.77
5484.00,2.77
5483.00,2.77
5482.00,2.78
5481.00,2.78
5480.00,2.78
5479.00,2.78
5478.00,2.78
5477.00,2.78
5476.00,2.78
5475.00,2.79
5474.00,2.79
5473.00,2.79
5472.00,2.79
5471.00,2.79
5470.00,2.80
5469.00,2.80
5468.00,2.80
5467.00,2.80
5466.00,2.80
5465.00,2.80
5464.00,2.80
5463.00,2.80
5462.00,2.80
5461.00,2.80
5460.00,2.80
5459.00,2.80
5458.00,2.80
5457.00,2.80
5456.00,2.80
5455.00,2.80
5454.00,2.80
5453.00,2.80
5452.00,2.81
5451.00,2.81
5450.00,2.81
5449.00,2.81
5448.00,2.81
5447.00,2.81
5446.00,2.82
5445.00,2.82
5444.00,2.82
5443.00,2.82
5442.00,2.83
5441.00,2.83
5440.00,2.83
5439.00,2.84
5438.00,2.84
5437.00,2.85
5436.00,2.85
5435.00,2.85
5434.00,2.85
5433.00,2.86
5432.00,2.86
5431.00,2.86
5430.00,2.86
5429.00,2.86
5428.00,2.86
5427.00,2.86
5426.00,2.86
5425.00,2.86
5424.00,2.86
5423.00,2.86
5422.00,2.86
5421.00,2.85
5420.00,2.85
5419.00,2.85
5418.00,2.85
5417.00,2.85
5416.00,2.84
5415.00,2.84
5414.00,2.84
5413.00,2.84
5412.00,2.83
5411.00,2.83
5410.00,2.83
5409.00,2.82
5408.00,2.82
5407.00,2.82
5406.00,2.81
5405.00,2.81
5404.00,2.81
5403.00,2.80
5402.00,2.80
5401.00,2.80
5400.00,2.80
5399.00,2.79
5398.00,2.79
5397.00,2.79
5396.00,2.78
5395.00,2.78
5394.00,2.77
5393.00,2.77
5392.00,2.76
5391.00,2.76
5390.00,2.75
5389.00,2.74
5388.00,2.74
5387.00,2.73
5386.00,2.72
5385.00,2.71
5384.00,2.70
5383.00,2.69
5382.00,2.68
5381.00,2.67
5380.00,2.66
5379.00,2.65
5378.00,2.63
5377.00,2.62
5376.00,2.61
5375.00,2.59
5374.00,2.58
5373.00,2.57
5372.00,2.55
5371.00,2.54
5370.00,2.52
5369.00,2.51
5368.00,2.49
5367.00,2.48
5366.00,2.46
5365.00,2.45
5364.00,2.43
5363.00,2.42
5362.00,2.40
5361.00,2.39
5360.00,2.38
5359.00,2.36
5358.00,2.35
5357.00,2.33
5356.00,2.32
5355.00,2.31
5354.00,2.29
5353.00,2.28
5352.00,2.27
5351.00,2.25
5350.00,2.24
5349.00,2.23
5348.00,2.21
5347.00,2.20
5346.00,2.18
5345.00,2.17
5344.00,2.15
5343.00,2.14
5342.00,2.12
5341.00,2.11
5340.00,2.09
5339.00,2.08
5338.00,2.06
5337.00,2.05
5336.00,2.03
5335.00,2.01
5334.00,2.00
5333.00,1.98
5332.00,1.96
5331.00,1.95
5330.00,1.93
5329.00,1.91
5328.00,1.90
5327.00,1.88
5326.00,1.86
5325.00,1.84
5324.00,1.83
5323.00,1.81
5322.00,1.79
5321.00,1.78
5320.00,1.76
5319.00,1.75
5318.00,1.73
5317.00,1.72
5316.00,1.70
5315.00,1.69
5314.00,1.68
5313.00,1.66
5312.00,1.65
5311.00,1.64
5310.00,1.63
5309.00,1.61
5308.00,1.60
5307.00,1.59
5306.00,1.58
5305.00,1.57
5304.00,1.55
5303.00,1.54
5302.00,1.53
5301.00,1.52
5300.00,1.51
5299.00,1.50
5298.00,1.49
5297.00,1.48
5296.00,1.47
5295.00,1.46
5294.00,1.45
5293.00,1.44
5292.00,1.44
5291.00,1.43
5290.00,1.42
5289.00,1.41
5288.00,1.40
5287.00,1.39
5286.00,1.39
5285.00,1.38
5284.00,1.37
5283.00,1.36
5282.00,1.36
5281.00,1.35
5280.00,1.34
5279.00,1.34
5278.00,1.33
5277.00,1.33
5276.00,1.32
5275.00,1.31
5274.00,1.31
5273.00,1.31
5272.00,1.30
5271.00,1.30
5270.00,1.29
5269.00,1.29
5268.00,1.29
5267.00,1.28
5266.00,1.28
5265.00,1.28
5264.00,1.28
5263.00,1.27
5262.00,1.27
5261.00,1.27
5260.00,1.27
5259.00,1.27
5258.00,1.27
5257.00,1.27
5256.00,1.27
5255.00,1.28
5254.00,1.28
5253.00,1.28
5252.00,1.28
5251.00,1.29
5250.00,1.29
5249.00,1.29
5248.00,1.30
5247.00,1.30
5246.00,1.30
5245.00,1.31
5244.00,1.31
5243.00,1.31
5242.00,1.32
5241.00,1.32
5240.00,1.32
5239.00,1.32
5238.00,1.33
5237.00,1.33
5236.00,1.33
5235.00,1.33
5234.00,1.33
5233.00,1.33
5232.00,1.33
5231.00,1.33
5230.00,1.33
5229.00,1.33
5228.00,1.33
5227.00,1.33
5226.00,1.33
5225.00,1.33
5224.00,1.32
5223.00,1.32
5222.00,1.32
5221.00,1.32
5220.00,1.32
5219.00,1.32
5218.00,1.32
5217.00,1.31
5216.00,1.31
5215.00,1.31
5214.00,1.31
5213.00,1.31
5212.00,1.31
5211.00,1.31
5210.00,1.31
5209.00,1.31
5208.00,1.31
5207.00,1.31
5206.00,1.31
5205.00,1.31
5204.00,1.31
5203.00,1.31
5202.00,1.31
5201.00,1.32
5200.00,1.32
5199.00,1.32
5198.00,1.32
5197.00,1.32
5196.00,1.32
5195.00,1.32
5194.00,1.32
5193.00,1.32
5192.00,1.32
5191.00,1.33
5190.00,1.33
5189.00,1.33
5188.00,1.33
5187.00,1.33
5186.00,1.33
5185.00,1.33
5184.00,1.33
5183.00,1.33
5182.00,1.33
5181.00,1.33
5180.00,1.32
5179.00,1.32
5178.00,1.32
5177.00,1.32
5176.00,1.32
5175.00,1.32
5174.00,1.32
5173.00,1.32
5172.00,1.32
5171.00,1.32
5170.00,1.32
5169.00,1.32
5168.00,1.32
5167.00,1.32
5166.00,1.32
5165.00,1.32
5164.00,1.32
5163.00,1.32
5162.00,1.32
5161.00,1.32
5160.00,1.32
5159.00,1.32
5158.00,1.33
5157.00,1.33
5156.00,1.33
5155.00,1.33
5154.00,1.33
5153.00,1.33
5152.00,1.33
5151.00,1.34
5150.00,1.34
5149.00,1.34
5148.00,1.34
5147.00,1.34
5146.00,1.35
5145.00,1.35
5144.00,1.35
5143.00,1.35
5142.00,1.35
5141.00,1.36
5140.00,1.36
5139.00,1.36
5138.00,1.36
5137.00,1.37
5136.00,1.37
5135.00,1.37
5134.00,1.37
5133.00,1.37
5132.00,1.38
5131.00,1.38
5130.00,1.38
5129.00,1.38
5128.00,1.38
5127.00,1.39
5126.00,1.39
5125.00,1.39
5124.00,1.39
5123.00,1.39
5122.00,1.39
5121.00,1.40
5120.00,1.40
5119.00,1.40
5118.00,1.40
5117.00,1.40
5116.00,1.41
5115.00,1.41
5114.00,1.41
5113.00,1.41
5112.00,1.41
5111.00,1.41
5110.00,1.42
5109.00,1.42
5108.00,1.42
5107.00,1.42
5106.00,1.42
5105.00,1.42
5104.00,1.42
5103.00,1.42
5102.00,1.42
5101.00,1.42
5100.00,1.42
5099.00,1.42
5098.00,1.43
5097.00,1.43
5096.00,1.43
5095.00,1.43
5094.00,1.43
5093.00,1.43
5092.00,1.43
5091.00,1.43
5090.00,1.43
5089.00,1.43
5088.00,1.44
5087.00,1.44
5086.00,1.44
5085.00,1.44
5084.00,1.44
5083.00,1.44
5082.00,1.44
5081.00,1.44
5080.00,1.44
5079.00,1.44
5078.00,1.45
5077.00,1.45
5076.00,1.45
5075.00,1.45
5074.00,1.45
5073.00,1.45
5072.00,1.46
5071.00,1.46
5070.00,1.46
5069.00,1.46
5068.00,1.46
5067.00,1.46
5066.00,1.46
5065.00,1.46
5064.00,1.46
5063.00,1.47
5062.00,1.47
5061.00,1.47
5060.00,1.47
5059.00,1.47
5058.00,1.47
5057.00,1.47
5056.00,1.47
5055.00,1.47
5054.00,1.47
5053.00,1.47
5052.00,1.47
5051.00,1.47
5050.00,1.47
5049.00,1.47
5048.00,1.47
5047.00,1.47
5046.00,1.47
5045.00,1.47
5044.00,1.47
5043.00,1.47
5042.00,1.47
5041.00,1.47
5040.00,1.47
5039.00,1.47
5038.00,1.47
5037.00,1.47
5036.00,1.47
5035.00,1.47
5034.00,1.47
5033.00,1.48
5032.00,1.48
5031.00,1.48
5030.00,1.48
5029.00,1.48
5028.00,1.48
5027.00,1.48
5026.00,1.48
5025.00,1.49
5024.00,1.49
5023.00,1.49
5022.00,1.49
5021.00,1.49
5020.00,1.50
5019.00,1.50
5018.00,1.50
5017.00,1.50
5016.00,1.50
5015.00,1.51
5014.00,1.51
5013.00,1.51
5012.00,1.51
5011.00,1.51
5010.00,1.51
5009.00,1.52
5008.00,1.52
5007.00,1.52
5006.00,1.52
5005.00,1.52
5004.00,1.52
5003.00,1.52
5002.00,1.52
5001.00,1.52
5000.00,1.53
4999.00,1.53
4998.00,1.53
4997.00,1.53
4996.00,1.53
4995.00,1.53
4994.00,1.53
4993.00,1.53
4992.00,1.53
4991.00,1.53
4990.00,1.53
4989.00,1.53
4988.00,1.53
4987.00,1.53
4986.00,1.53
4985.00,1.53
4984.00,1.53
4983.00,1.54
4982.00,1.54
4981.00,1.54
4980.00,1.54
4979.00,1.54
4978.00,1.54
4977.00,1.54
4976.00,1.54
4975.00,1.54
4974.00,1.54
4973.00,1.54
4972.00,1.54
4971.00,1.54
4970.00,1.54
4969.00,1.54
4968.00,1.54
4967.00,1.54
4966.00,1.54
4965.00,1.54
4964.00,1.54
4963.00,1.54
4962.00,1.54
4961.00,1.54
4960.00,1.54
4959.00,1.55
4958.00,1.55
4957.00,1.55
4956.00,1.55
4955.00,1.55
4954.00,1.55
4953.00,1.56
4952.00,1.56
4951.00,1.56
4950.00,1.57
4949.00,1.57
4948.00,1.58
4947.00,1.58
4946.00,1.59
4945.00,1.59
4944.00,1.60
4943.00,1.60
4942.00,1.60
4941.00,1.61
4940.00,1.62
4939.00,1.62
4938.00,1.63
4937.00,1.63
4936.00,1.64
4935.00,1.65
4934.00,1.65
4933.00,1.66
4932.00,1.66
4931.00,1.67
4930.00,1.67
4929.00,1.68
4928.00,1.68
4927.00,1.68
4926.00,1.68
4925.00,1.69
4924.00,1.69
4923.00,1.69
4922.00,1.69
4921.00,1.69
4920.00,1.69
4919.00,1.69
4918.00,1.70
4917.00,1.70
4916.00,1.70
4915.00,1.70
4914.00,1.70
4913.00,1.70
4912.00,1.70
4911.00,1.70
4910.00,1.71
4909.00,1.71
4908.00,1.71
4907.00,1.71
4906.00,1.71
4905.00,1.71
4904.00,1.71
4903.00,1.71
4902.00,1.72
4901.00,1.72
4900.00,1.72
4899.00,1.73
4898.00,1.73
4897.00,1.73
4896.00,1.74
4895.00,1.74
4894.00,1.74
4893.00,1.74
4892.00,1.74
4891.00,1.75
4890.00,1.75
4889.00,1.75
4888.00,1.75
4887.00,1.75
4886.00,1.76
4885.00,1.76
4884.00,1.76
4883.00,1.76
4882.00,1.76
4881.00,1.76
4880.00,1.76
4879.00,1.76
4878.00,1.76
4877.00,1.76
4876.00,1.76
4875.00,1.76
4874.00,1.76
4873.00,1.76
4872.00,1.76
4871.00,1.76
4870.00,1.75
4869.00,1.75
4868.00,1.75
4867.00,1.75
4866.00,1.75
4865.00,1.75
4864.00,1.75
4863.00,1.75
4862.00,1.75
4861.00,1.75
4860.00,1.75
4859.00,1.75
4858.00,1.75
4857.00,1.75
4856.00,1.75
4855.00,1.75
4854.00,1.76
4853.00,1.76
4852.00,1.77
4851.00,1.77
4850.00,1.78
4849.00,1.78
4848.00,1.79
4847.00,1.79
4846.00,1.80
4845.00,1.80
4844.00,1.81
4843.00,1.81
4842.00,1.82
4841.00,1.83
4840.00,1.83
4839.00,1.84
4838.00,1.85
4837.00,1.86
4836.00,1.86
4835.00,1.87
4834.00,1.88
4833.00,1.88
4832.00,1.89
4831.00,1.90
4830.00,1.90
4829.00,1.91
4828.00,1.91
4827.00,1.91
4826.00,1.92
4825.00,1.92
4824.00,1.92
4823.00,1.92
4822.00,1.93
4821.00,1.93
4820.00,1.93
4819.00,1.94
4818.00,1.94
4817.00,1.94
4816.00,1.95
4815.00,1.95
4814.00,1.95
4813.00,1.95
4812.00,1.96
4811.00,1.96
4810.00,1.96
4809.00,1.97
4808.00,1.97
4807.00,1.97
4806.00,1.97
4805.00,1.98
4804.00,1.98
4803.00,1.98
4802.00,1.99
4801.00,1.99
4800.00,2.00
4799.00,2.00
4798.00,2.01
4797.00,2.02
4796.00,2.02
4795.00,2.03
4794.00,2.04
4793.00,2.04
4792.00,2.05
4791.00,2.05
4790.00,2.06
4789.00,2.06
4788.00,2.07
4787.00,2.08
4786.00,2.08
4785.00,2.09
4784.00,2.09
4783.00,2.10
4782.00,2.11
4781.00,2.11
4780.00,2.12
4779.00,2.13
4778.00,2.14
4777.00,2.14
4776.00,2.15
4775.00,2.15
4774.00,2.16
4773.00,2.16
4772.00,2.16
4771.00,2.17
4770.00,2.17
4769.00,2.18
4768.00,2.18
4767.00,2.18
4766.00,2.18
4765.00,2.19
4764.00,2.19
4763.00,2.19
4762.00,2.20
4761.00,2.20
4760.00,2.20
4759.00,2.21
4758.00,2.21
4757.00,2.21
4756.00,2.21
4755.00,2.21
4754.00,2.22
4753.00,2.22
4752.00,2.22
4751.00,2.22
4750.00,2.22
4749.00,2.23
4748.00,2.23
4747.00,2.23
4746.00,2.23
4745.00,2.24
4744.00,2.24
4743.00,2.24
4742.00,2.24
4741.00,2.25
4740.00,2.25
4739.00,2.25
4738.00,2.25
4737.00,2.26
4736.00,2.26
4735.00,2.26
4734.00,2.26
4733.00,2.26
4732.00,2.27
4731.00,2.27
4730.00,2.27
4729.00,2.27
4728.00,2.27
4727.00,2.28
4726.00,2.28
4725.00,2.28
4724.00,2.28
4723.00,2.28
4722.00,2.29
4721.00,2.29
4720.00,2.29
4719.00,2.29
4718.00,2.30
4717.00,2.30
4716.00,2.30
4715.00,2.31
4714.00,2.31
4713.00,2.31
4712.00,2.32
4711.00,2.32
4710.00,2.33
4709.00,2.34
4708.00,2.34
4707.00,2.35
4706.00,2.36
4705.00,2.36
4704.00,2.37
4703.00,2.38
4702.00,2.39
4701.00,2.39
4700.00,2.40
4699.00,2.41
4698.00,2.42
4697.00,2.43
4696.00,2.43
4695.00,2.44
4694.00,2.45
4693.00,2.46
4692.00,2.46
4691.00,2.47
4690.00,2.48
4689.00,2.48
4688.00,2.49
4687.00,2.50
4686.00,2.50
4685.00,2.51
4684.00,2.51
4683.00,2.51
4682.00,2.52
4681.00,2.52
4680.00,2.52
4679.00,2.52
4678.00,2.52
4677.00,2.53
4676.00,2.53
4675.00,2.53
4674.00,2.53
4673.00,2.53
4672.00,2.54
4671.00,2.54
4670.00,2.54
4669.00,2.54
4668.00,2.54
4667.00,2.54
4666.00,2.54
4665.00,2.54
4664.00,2.55
4663.00,2.55
4662.00,2.55
4661.00,2.55
4660.00,2.55
4659.00,2.56
4658.00,2.56
4657.00,2.56
4656.00,2.56
4655.00,2.57
4654.00,2.57
4653.00,2.57
4652.00,2.57
4651.00,2.57
4650.00,2.58
4649.00,2.58
4648.00,2.58
4647.00,2.58
4646.00,2.58
4645.00,2.58
4644.00,2.58
4643.00,2.58
4642.00,2.58
4641.00,2.58
4640.00,2.59
4639.00,2.59
4638.00,2.59
4637.00,2.59
4636.00,2.59
4635.00,2.59
4634.00,2.60
4633.00,2.60
4632.00,2.60
4631.00,2.60
4630.00,2.60
4629.00,2.61
4628.00,2.61
4627.00,2.61
4626.00,2.62
4625.00,2.62
4624.00,2.63
4623.00,2.63
4622.00,2.64
4621.00,2.64
4620.00,2.65
4619.00,2.65
4618.00,2.66
4617.00,2.66
4616.00,2.67
4615.00,2.67
4614.00,2.68
4613.00,2.68
4612.00,2.69
4611.00,2.69
4610.00,2.70
4609.00,2.70
4608.00,2.71
4607.00,2.71
4606.00,2.71
4605.00,2.72
4604.00,2.72
4603.00,2.72
4602.00,2.73
4601.00,2.73
4600.00,2.73
4599.00,2.73
4598.00,2.74
4597.00,2.74
4596.00,2.74
4595.00,2.74
4594.00,2.75
4593.00,2.75
4592.00,2.75
4591.00,2.75
4590.00,2.76
4589.00,2.76
4588.00,2.76
4587.00,2.76
4586.00,2.77
4585.00,2.77
4584.00,2.77
4583.00,2.77
4582.00,2.78
4581.00,2.78
4580.00,2.78
4579.00,2.78
4578.00,2.78
4577.00,2.79
4576.00,2.79
4575.00,2.79
4574.00,2.79
4573.00,2.79
4572.00,2.79
4571.00,2.79
4570.00,2.79
4569.00,2.79
4568.00,2.79
4567.00,2.79
4566.00,2.79
4565.00,2.79
4564.00,2.79
4563.00,2.78
4562.00,2.78
4561.00,2.78
4560.00,2.78
4559.00,2.77
4558.00,2.77
4557.00,2.77
4556.00,2.77
4555.00,2.76
4554.00,2.76
4553.00,2.76
4552.00,2.76
4551.00,2.76
4550.00,2.76
4549.00,2.76
4548.00,2.76
4547.00,2.76
4546.00,2.76
4545.00,2.76
4544.00,2.76
4543.00,2.76
4542.00,2.76
4541.00,2.76
4540.00,2.76
4539.00,2.76
4538.00,2.76
4537.00,2.77
4536.00,2.77
4535.00,2.77
4534.00,2.78
4533.00,2.78
4532.00,2.78
4531.00,2.79
4530.00,2.79
4529.00,2.79
4528.00,2.80
4527.00,2.80
4526.00,2.81
4525.00,2.81
4524.00,2.81
4523.00,2.82
4522.00,2.82
4521.00,2.82
4520.00,2.83
4519.00,2.83
4518.00,2.83
4517.00,2.83
4516.00,2.84
4515.00,2.84
4514.00,2.84
4513.00,2.84
4512.00,2.84
4511.00,2.84
4510.00,2.84
4509.00,2.84
4508.00,2.84
4507.00,2.84
4506.00,2.83
4505.00,2.83
4504.00,2.83
4503.00,2.83
4502.00,2.83
4501.00,2.83
4500.00,2.83
4499.00,2.82
4498.00,2.82
4497.00,2.82
4496.00,2.81
4495.00,2.81
4494.00,2.81
4493.00,2.80
4492.00,2.80
4491.00,2.80
4490.00,2.79
4489.00,2.79
4488.00,2.79
4487.00,2.79
4486.00,2.79
4485.00,2.79
4484.00,2.79
4483.00,2.79
4482.00,2.79
4481.00,2.79
4480.00,2.79
4479.00,2.79
4478.00,2.79
4477.00,2.79
4476.00,2.79
4475.00,2.79
4474.00,2.79
4473.00,2.79
4472.00,2.80
4471.00,2.80
4470.00,2.80
4469.00,2.80
4468.00,2.81
4467.00,2.81
4466.00,2.81
4465.00,2.81
4464.00,2.82
4463.00,2.82
4462.00,2.81
4461.00,2.81
4460.00,2.81
4459.00,2.81
4458.00,2.80
4457.00,2.80
4456.00,2.79
4455.00,2.79
4454.00,2.78
4453.00,2.77
4452.00,2.76
4451.00,2.76
4450.00,2.75
4449.00,2.74
4448.00,2.73
4447.00,2.71
4446.00,2.70
4445.00,2.69
4444.00,2.68
4443.00,2.66
4442.00,2.65
4441.00,2.63
4440.00,2.62
4439.00,2.60
4438.00,2.59
4437.00,2.57
4436.00,2.56
4435.00,2.54
4434.00,2.53
4433.00,2.52
4432.00,2.51
4431.00,2.49
4430.00,2.48
4429.00,2.48
4428.00,2.47
4427.00,2.46
4426.00,2.45
4425.00,2.44
4424.00,2.44
4423.00,2.43
4422.00,2.42
4421.00,2.42
4420.00,2.41
4419.00,2.41
4418.00,2.40
4417.00,2.40
4416.00,2.40
4415.00,2.40
4414.00,2.40
4413.00,2.40
4412.00,2.40
4411.00,2.40
4410.00,2.40
4409.00,2.41
4408.00,2.41
4407.00,2.42
4406.00,2.42
4405.00,2.43
4404.00,2.43
4403.00,2.44
4402.00,2.44
4401.00,2.45
4400.00,2.45
4399.00,2.46
4398.00,2.47
4397.00,2.47
4396.00,2.48
4395.00,2.49
4394.00,2.49
4393.00,2.50
4392.00,2.51
4391.00,2.51
4390.00,2.52
4389.00,2.53
4388.00,2.53
4387.00,2.54
4386.00,2.54
4385.00,2.55
4384.00,2.55
4383.00,2.55
4382.00,2.56
4381.00,2.56
4380.00,2.56
4379.00,2.56
4378.00,2.56
4377.00,2.56
4376.00,2.56
4375.00,2.56
4374.00,2.56
4373.00,2.55
4372.00,2.55
4371.00,2.55
4370.00,2.55
4369.00,2.55
4368.00,2.54
4367.00,2.54
4366.00,2.54
4365.00,2.54
4364.00,2.54
4363.00,2.54
4362.00,2.53
4361.00,2.53
4360.00,2.53
4359.00,2.53
4358.00,2.53
4357.00,2.53
4356.00,2.52
4355.00,2.52
4354.00,2.52
4353.00,2.51
4352.00,2.51
4351.00,2.51
4350.00,2.51
4349.00,2.51
4348.00,2.51
4347.00,2.50
4346.00,2.50
4345.00,2.50
4344.00,2.50
4343.00,2.50
4342.00,2.50
4341.00,2.50
4340.00,2.50
4339.00,2.50
4338.00,2.50
4337.00,2.50
4336.00,2.49
4335.00,2.49
4334.00,2.49
4333.00,2.49
4332.00,2.49
4331.00,2.49
4330.00,2.49
4329.00,2.50
4328.00,2.50
4327.00,2.50
4326.00,2.51
4325.00,2.51
4324.00,2.52
4323.00,2.52
4322.00,2.53
4321.00,2.53
4320.00,2.54
4319.00,2.54
4318.00,2.55
4317.00,2.55
4316.00,2.56
4315.00,2.57
4314.00,2.57
4313.00,2.58
4312.00,2.58
4311.00,2.59
4310.00,2.60
4309.00,2.60
4308.00,2.61
4307.00,2.61
4306.00,2.62
4305.00,2.62
4304.00,2.63
4303.00,2.63
4302.00,2.64
4301.00,2.64
4300.00,2.64
4299.00,2.64
4298.00,2.64
4297.00,2.64
4296.00,2.64
4295.00,2.63
4294.00,2.63
4293.00,2.63
4292.00,2.62
4291.00,2.62
4290.00,2.62
4289.00,2.61
4288.00,2.61
4287.00,2.61
4286.00,2.60
4285.00,2.60
4284.00,2.59
4283.00,2.58
4282.00,2.58
4281.00,2.57
4280.00,2.57
4279.00,2.56
4278.00,2.55
4277.00,2.55
4276.00,2.54
4275.00,2.54
4274.00,2.54
4273.00,2.53
4272.00,2.53
4271.00,2.53
4270.00,2.53
4269.00,2.53
4268.00,2.54
4267.00,2.54
4266.00,2.54
4265.00,2.54
4264.00,2.54
4263.00,2.55
4262.00,2.55
4261.00,2.55
4260.00,2.55
4259.00,2.55
4258.00,2.56
4257.00,2.56
4256.00,2.56
4255.00,2.57
4254.00,2.57
4253.00,2.58
4252.00,2.59
4251.00,2.59
4250.00,2.60
4249.00,2.60
4248.00,2.60
4247.00,2.60
4246.00,2.60
4245.00,2.60
4244.00,2.60
4243.00,2.60
4242.00,2.60
4241.00,2.60
4240.00,2.60
4239.00,2.59
4238.00,2.59
4237.00,2.59
4236.00,2.59
4235.00,2.58
4234.00,2.58
4233.00,2.58
4232.00,2.58
4231.00,2.58
4230.00,2.58
4229.00,2.57
4228.00,2.57
4227.00,2.57
4226.00,2.57
4225.00,2.57
4224.00,2.56
4223.00,2.56
4222.00,2.56
4221.00,2.57
4220.00,2.57
4219.00,2.57
4218.00,2.57
4217.00,2.58
4216.00,2.58
4215.00,2.59
4214.00,2.59
4213.00,2.59
4212.00,2.59
4211.00,2.60
4210.00,2.60
4209.00,2.60
4208.00,2.60
4207.00,2.61
4206.00,2.61
4205.00,2.61
4204.00,2.61
4203.00,2.61
4202.00,2.60
4201.00,2.60
4200.00,2.60
4199.00,2.60
4198.00,2.59
4197.00,2.59
4196.00,2.58
4195.00,2.58
4194.00,2.57
4193.00,2.57
4192.00,2.56
4191.00,2.55
4190.00,2.55
4189.00,2.54
4188.00,2.54
4187.00,2.53
4186.00,2.52
4185.00,2.52
4184.00,2.51
4183.00,2.51
4182.00,2.50
4181.00,2.49
4180.00,2.49
4179.00,2.48
4178.00,2.48
4177.00,2.47
4176.00,2.47
4175.00,2.47
4174.00,2.47
4173.00,2.46
4172.00,2.46
4171.00,2.46
4170.00,2.46
4169.00,2.46
4168.00,2.46
4167.00,2.45
4166.00,2.45
4165.00,2.45
4164.00,2.45
4163.00,2.45
4162.00,2.45
4161.00,2.44
4160.00,2.44
4159.00,2.44
4158.00,2.44
4157.00,2.43
4156.00,2.43
4155.00,2.43
4154.00,2.43
4153.00,2.42
4152.00,2.42
4151.00,2.42
4150.00,2.41
4149.00,2.41
4148.00,2.40
4147.00,2.39
4146.00,2.39
4145.00,2.38
4144.00,2.38
4143.00,2.37
4142.00,2.37
4141.00,2.36
4140.00,2.36
4139.00,2.36
4138.00,2.35
4137.00,2.35
4136.00,2.34
4135.00,2.34
4134.00,2.34
4133.00,2.33
4132.00,2.33
4131.00,2.33
4130.00,2.33
4129.00,2.33
4128.00,2.33
4127.00,2.33
4126.00,2.33
4125.00,2.34
4124.00,2.34
4123.00,2.34
4122.00,2.35
4121.00,2.35
4120.00,2.36
4119.00,2.36
4118.00,2.36
4117.00,2.37
4116.00,2.37
4115.00,2.38
4114.00,2.39
4113.00,2.39
4112.00,2.40
4111.00,2.40
4110.00,2.41
4109.00,2.41
4108.00,2.41
4107.00,2.42
4106.00,2.42
4105.00,2.43
4104.00,2.43
4103.00,2.44
4102.00,2.44
4101.00,2.45
4100.00,2.46
4099.00,2.46
4098.00,2.47
4097.00,2.47
4096.00,2.48
4095.00,2.48
4094.00,2.49
4093.00,2.49
4092.00,2.50
4091.00,2.50
4090.00,2.50
4089.00,2.51
4088.00,2.51
4087.00,2.51
4086.00,2.51
4085.00,2.51
4084.00,2.51
4083.00,2.52
4082.00,2.52
4081.00,2.52
4080.00,2.52
4079.00,2.52
4078.00,2.52
4077.00,2.52
4076.00,2.52
4075.00,2.52
4074.00,2.52
4073.00,2.52
4072.00,2.52
4071.00,2.51
4070.00,2.51
4069.00,2.51
4068.00,2.50
4067.00,2.50
4066.00,2.49
4065.00,2.49
4064.00,2.49
4063.00,2.49
4062.00,2.48
4061.00,2.48
4060.00,2.48
4059.00,2.48
4058.00,2.48
4057.00,2.47
4056.00,2.47
4055.00,2.47
4054.00,2.47
4053.00,2.47
4052.00,2.47
4051.00,2.47
4050.00,2.47
4049.00,2.47
4048.00,2.47
4047.00,2.46
4046.00,2.46
4045.00,2.46
4044.00,2.46
4043.00,2.46
4042.00,2.46
4041.00,2.47
4040.00,2.47
4039.00,2.46
4038.00,2.46
4037.00,2.46
4036.00,2.46
4035.00,2.45
4034.00,2.45
4033.00,2.45
4032.00,2.45
4031.00,2.44
4030.00,2.44
4029.00,2.43
4028.00,2.43
4027.00,2.43
4026.00,2.43
4025.00,2.43
4024.00,2.43
4023.00,2.43
4022.00,2.43
4021.00,2.43
4020.00,2.44
4019.00,2.45
4018.00,2.46
4017.00,2.47
4016.00,2.48
4015.00,2.50
4014.00,2.52
4013.00,2.54
4012.00,2.57
4011.00,2.59
4010.00,2.63
4009.00,2.66
4008.00,2.70
4007.00,2.73
4006.00,2.78
4005.00,2.82
4004.00,2.86
4003.00,2.91
4002.00,2.95
4001.00,3.00
4000.00,3.05
