创建为新数据集,样品 403 用户 Administrator 日期 星期日, 七月 28 2019
cm-1,%T
10000.00,2.99
9999.00,2.98
9998.00,2.96
9997.00,2.95
9996.00,2.93
9995.00,2.92
9994.00,2.91
9993.00,2.90
9992.00,2.89
9991.00,2.88
9990.00,2.87
9989.00,2.86
9988.00,2.86
9987.00,2.85
9986.00,2.84
9985.00,2.83
9984.00,2.82
9983.00,2.81
9982.00,2.80
9981.00,2.79
9980.00,2.78
9979.00,2.78
9978.00,2.77
9977.00,2.77
9976.00,2.77
9975.00,2.77
9974.00,2.77
9973.00,2.78
9972.00,2.78
9971.00,2.79
9970.00,2.80
9969.00,2.80
9968.00,2.81
9967.00,2.81
9966.00,2.82
9965.00,2.82
9964.00,2.82
9963.00,2.82
9962.00,2.82
9961.00,2.83
9960.00,2.83
9959.00,2.83
9958.00,2.83
9957.00,2.82
9956.00,2.82
9955.00,2.82
9954.00,2.82
9953.00,2.82
9952.00,2.82
9951.00,2.81
9950.00,2.81
9949.00,2.81
9948.00,2.80
9947.00,2.79
9946.00,2.79
9945.00,2.78
9944.00,2.77
9943.00,2.76
9942.00,2.75
9941.00,2.74
9940.00,2.74
9939.00,2.73
9938.00,2.72
9937.00,2.71
9936.00,2.71
9935.00,2.70
9934.00,2.70
9933.00,2.70
9932.00,2.70
9931.00,2.70
9930.00,2.70
9929.00,2.70
9928.00,2.70
9927.00,2.71
9926.00,2.70
9925.00,2.70
9924.00,2.70
9923.00,2.70
9922.00,2.69
9921.00,2.69
9920.00,2.68
9919.00,2.68
9918.00,2.68
9917.00,2.68
9916.00,2.68
9915.00,2.68
9914.00,2.68
9913.00,2.68
9912.00,2.68
9911.00,2.68
9910.00,2.68
9909.00,2.68
9908.00,2.67
9907.00,2.67
9906.00,2.66
9905.00,2.66
9904.00,2.65
9903.00,2.64
9902.00,2.63
9901.00,2.63
9900.00,2.62
9899.00,2.62
9898.00,2.61
9897.00,2.61
9896.00,2.61
9895.00,2.61
9894.00,2.61
9893.00,2.61
9892.00,2.61
9891.00,2.61
9890.00,2.62
9889.00,2.62
9888.00,2.62
9887.00,2.62
9886.00,2.62
9885.00,2.62
9884.00,2.62
9883.00,2.62
9882.00,2.63
9881.00,2.63
9880.00,2.63
9879.00,2.64
9878.00,2.64
9877.00,2.64
9876.00,2.65
9875.00,2.66
9874.00,2.66
9873.00,2.67
9872.00,2.67
9871.00,2.68
9870.00,2.68
9869.00,2.68
9868.00,2.68
9867.00,2.68
9866.00,2.68
9865.00,2.68
9864.00,2.68
9863.00,2.68
9862.00,2.67
9861.00,2.67
9860.00,2.66
9859.00,2.66
9858.00,2.66
9857.00,2.65
9856.00,2.65
9855.00,2.64
9854.00,2.64
9853.00,2.63
9852.00,2.63
9851.00,2.62
9850.00,2.61
9849.00,2.60
9848.00,2.59
9847.00,2.58
9846.00,2.56
9845.00,2.55
9844.00,2.54
9843.00,2.53
9842.00,2.51
9841.00,2.50
9840.00,2.49
9839.00,2.48
9838.00,2.47
9837.00,2.46
9836.00,2.46
9835.00,2.45
9834.00,2.44
9833.00,2.43
9832.00,2.42
9831.00,2.42
9830.00,2.41
9829.00,2.40
9828.00,2.39
9827.00,2.38
9826.00,2.37
9825.00,2.37
9824.00,2.36
9823.00,2.36
9822.00,2.36
9821.00,2.36
9820.00,2.36
9819.00,2.36
9818.00,2.37
9817.00,2.37
9816.00,2.37
9815.00,2.37
9814.00,2.37
9813.00,2.37
9812.00,2.37
9811.00,2.37
9810.00,2.37
9809.00,2.37
9808.00,2.37
9807.00,2.38
9806.00,2.38
9805.00,2.39
9804.00,2.39
9803.00,2.40
9802.00,2.41
9801.00,2.42
9800.00,2.44
9799.00,2.45
9798.00,2.46
9797.00,2.47
9796.00,2.48
9795.00,2.49
9794.00,2.50
9793.00,2.51
9792.00,2.51
9791.00,2.52
9790.00,2.53
9789.00,2.55
9788.00,2.56
9787.00,2.57
9786.00,2.58
9785.00,2.60
9784.00,2.61
9783.00,2.62
9782.00,2.63
9781.00,2.64
9780.00,2.65
9779.00,2.66
9778.00,2.66
9777.00,2.67
9776.00,2.67
9775.00,2.67
9774.00,2.67
9773.00,2.67
9772.00,2.67
9771.00,2.66
9770.00,2.66
9769.00,2.66
9768.00,2.66
9767.00,2.66
9766.00,2.65
9765.00,2.65
9764.00,2.65
9763.00,2.65
9762.00,2.65
9761.00,2.65
9760.00,2.65
9759.00,2.65
9758.00,2.65
9757.00,2.65
9756.00,2.65
9755.00,2.65
9754.00,2.65
9753.00,2.65
9752.00,2.65
9751.00,2.66
9750.00,2.66
9749.00,2.66
9748.00,2.67
9747.00,2.67
9746.00,2.68
9745.00,2.68
9744.00,2.68
9743.00,2.69
9742.00,2.69
9741.00,2.69
9740.00,2.69
9739.00,2.69
9738.00,2.69
9737.00,2.69
9736.00,2.69
9735.00,2.69
9734.00,2.68
9733.00,2.68
9732.00,2.67
9731.00,2.67
9730.00,2.66
9729.00,2.66
9728.00,2.65
9727.00,2.64
9726.00,2.64
9725.00,2.63
9724.00,2.62
9723.00,2.61
9722.00,2.60
9721.00,2.60
9720.00,2.59
9719.00,2.59
9718.00,2.58
9717.00,2.58
9716.00,2.57
9715.00,2.57
9714.00,2.57
9713.00,2.57
9712.00,2.57
9711.00,2.57
9710.00,2.57
9709.00,2.57
9708.00,2.57
9707.00,2.57
9706.00,2.57
9705.00,2.57
9704.00,2.57
9703.00,2.58
9702.00,2.59
9701.00,2.59
9700.00,2.60
9699.00,2.61
9698.00,2.62
9697.00,2.63
9696.00,2.64
9695.00,2.65
9694.00,2.66
9693.00,2.67
9692.00,2.67
9691.00,2.68
9690.00,2.69
9689.00,2.69
9688.00,2.70
9687.00,2.71
9686.00,2.71
9685.00,2.72
9684.00,2.72
9683.00,2.72
9682.00,2.72
9681.00,2.73
9680.00,2.73
9679.00,2.72
9678.00,2.72
9677.00,2.72
9676.00,2.71
9675.00,2.71
9674.00,2.70
9673.00,2.69
9672.00,2.68
9671.00,2.67
9670.00,2.66
9669.00,2.65
9668.00,2.64
9667.00,2.63
9666.00,2.62
9665.00,2.61
9664.00,2.60
9663.00,2.59
9662.00,2.57
9661.00,2.57
9660.00,2.56
9659.00,2.55
9658.00,2.54
9657.00,2.54
9656.00,2.54
9655.00,2.54
9654.00,2.54
9653.00,2.54
9652.00,2.55
9651.00,2.55
9650.00,2.56
9649.00,2.57
9648.00,2.58
9647.00,2.59
9646.00,2.60
9645.00,2.61
9644.00,2.62
9643.00,2.63
9642.00,2.65
9641.00,2.66
9640.00,2.67
9639.00,2.68
9638.00,2.69
9637.00,2.70
9636.00,2.71
9635.00,2.72
9634.00,2.73
9633.00,2.73
9632.00,2.73
9631.00,2.73
9630.00,2.73
9629.00,2.73
9628.00,2.72
9627.00,2.72
9626.00,2.71
9625.00,2.70
9624.00,2.69
9623.00,2.68
9622.00,2.67
9621.00,2.66
9620.00,2.65
9619.00,2.65
9618.00,2.64
9617.00,2.63
9616.00,2.62
9615.00,2.61
9614.00,2.60
9613.00,2.60
9612.00,2.59
9611.00,2.59
9610.00,2.58
9609.00,2.58
9608.00,2.57
9607.00,2.57
9606.00,2.57
9605.00,2.57
9604.00,2.57
9603.00,2.57
9602.00,2.57
9601.00,2.57
9600.00,2.58
9599.00,2.58
9598.00,2.58
9597.00,2.58
9596.00,2.58
9595.00,2.58
9594.00,2.58
9593.00,2.58
9592.00,2.57
9591.00,2.57
9590.00,2.56
9589.00,2.56
9588.00,2.55
9587.00,2.54
9586.00,2.53
9585.00,2.53
9584.00,2.52
9583.00,2.51
9582.00,2.50
9581.00,2.49
9580.00,2.48
9579.00,2.47
9578.00,2.46
9577.00,2.45
9576.00,2.45
9575.00,2.44
9574.00,2.43
9573.00,2.42
9572.00,2.42
9571.00,2.41
9570.00,2.41
9569.00,2.41
9568.00,2.41
9567.00,2.41
9566.00,2.41
9565.00,2.41
9564.00,2.42
9563.00,2.43
9562.00,2.44
9561.00,2.45
9560.00,2.46
9559.00,2.47
9558.00,2.49
9557.00,2.50
9556.00,2.51
9555.00,2.53
9554.00,2.54
9553.00,2.56
9552.00,2.57
9551.00,2.58
9550.00,2.60
9549.00,2.61
9548.00,2.62
9547.00,2.64
9546.00,2.65
9545.00,2.66
9544.00,2.67
9543.00,2.68
9542.00,2.69
9541.00,2.70
9540.00,2.71
9539.00,2.72
9538.00,2.72
9537.00,2.73
9536.00,2.73
9535.00,2.73
9534.00,2.73
9533.00,2.73
9532.00,2.73
9531.00,2.73
9530.00,2.72
9529.00,2.72
9528.00,2.72
9527.00,2.72
9526.00,2.72
9525.00,2.72
9524.00,2.72
9523.00,2.72
9522.00,2.72
9521.00,2.72
9520.00,2.72
9519.00,2.72
9518.00,2.72
9517.00,2.72
9516.00,2.72
9515.00,2.72
9514.00,2.71
9513.00,2.71
9512.00,2.71
9511.00,2.70
9510.00,2.70
9509.00,2.70
9508.00,2.70
9507.00,2.70
9506.00,2.70
9505.00,2.70
9504.00,2.70
9503.00,2.70
9502.00,2.70
9501.00,2.69
9500.00,2.69
9499.00,2.69
9498.00,2.69
9497.00,2.68
9496.00,2.68
9495.00,2.67
9494.00,2.67
9493.00,2.66
9492.00,2.66
9491.00,2.66
9490.00,2.66
9489.00,2.66
9488.00,2.66
9487.00,2.66
9486.00,2.66
9485.00,2.67
9484.00,2.67
9483.00,2.68
9482.00,2.68
9481.00,2.69
9480.00,2.70
9479.00,2.70
9478.00,2.71
9477.00,2.71
9476.00,2.72
9475.00,2.72
9474.00,2.73
9473.00,2.73
9472.00,2.74
9471.00,2.74
9470.00,2.74
9469.00,2.74
9468.00,2.75
9467.00,2.75
9466.00,2.75
9465.00,2.75
9464.00,2.74
9463.00,2.74
9462.00,2.74
9461.00,2.73
9460.00,2.73
9459.00,2.72
9458.00,2.72
9457.00,2.71
9456.00,2.70
9455.00,2.70
9454.00,2.69
9453.00,2.68
9452.00,2.67
9451.00,2.66
9450.00,2.66
9449.00,2.65
9448.00,2.64
9447.00,2.63
9446.00,2.62
9445.00,2.61
9444.00,2.61
9443.00,2.60
9442.00,2.59
9441.00,2.58
9440.00,2.58
9439.00,2.57
9438.00,2.57
9437.00,2.56
9436.00,2.56
9435.00,2.55
9434.00,2.55
9433.00,2.55
9432.00,2.54
9431.00,2.54
9430.00,2.54
9429.00,2.54
9428.00,2.54
9427.00,2.54
9426.00,2.54
9425.00,2.54
9424.00,2.54
9423.00,2.54
9422.00,2.54
9421.00,2.54
9420.00,2.54
9419.00,2.55
9418.00,2.55
9417.00,2.56
9416.00,2.56
9415.00,2.57
9414.00,2.57
9413.00,2.58
9412.00,2.58
9411.00,2.59
9410.00,2.59
9409.00,2.60
9408.00,2.60
9407.00,2.60
9406.00,2.61
9405.00,2.61
9404.00,2.61
9403.00,2.61
9402.00,2.62
9401.00,2.62
9400.00,2.62
9399.00,2.62
9398.00,2.62
9397.00,2.63
9396.00,2.63
9395.00,2.63
9394.00,2.64
9393.00,2.64
9392.00,2.65
9391.00,2.65
9390.00,2.66
9389.00,2.67
9388.00,2.68
9387.00,2.68
9386.00,2.69
9385.00,2.70
9384.00,2.71
9383.00,2.72
9382.00,2.73
9381.00,2.74
9380.00,2.75
9379.00,2.76
9378.00,2.77
9377.00,2.77
9376.00,2.78
9375.00,2.79
9374.00,2.80
9373.00,2.80
9372.00,2.81
9371.00,2.81
9370.00,2.81
9369.00,2.81
9368.00,2.81
9367.00,2.81
9366.00,2.81
9365.00,2.81
9364.00,2.80
9363.00,2.79
9362.00,2.79
9361.00,2.78
9360.00,2.77
9359.00,2.76
9358.00,2.75
9357.00,2.73
9356.00,2.72
9355.00,2.71
9354.00,2.70
9353.00,2.68
9352.00,2.67
9351.00,2.66
9350.00,2.65
9349.00,2.64
9348.00,2.63
9347.00,2.62
9346.00,2.62
9345.00,2.61
9344.00,2.60
9343.00,2.59
9342.00,2.59
9341.00,2.58
9340.00,2.58
9339.00,2.57
9338.00,2.57
9337.00,2.57
9336.00,2.57
9335.00,2.57
9334.00,2.57
9333.00,2.58
9332.00,2.58
9331.00,2.59
9330.00,2.59
9329.00,2.60
9328.00,2.60
9327.00,2.61
9326.00,2.61
9325.00,2.62
9324.00,2.62
9323.00,2.63
9322.00,2.64
9321.00,2.64
9320.00,2.65
9319.00,2.65
9318.00,2.66
9317.00,2.66
9316.00,2.67
9315.00,2.67
9314.00,2.68
9313.00,2.68
9312.00,2.68
9311.00,2.69
9310.00,2.69
9309.00,2.69
9308.00,2.69
9307.00,2.70
9306.00,2.70
9305.00,2.70
9304.00,2.70
9303.00,2.71
9302.00,2.71
9301.00,2.71
9300.00,2.71
9299.00,2.72
9298.00,2.72
9297.00,2.72
9296.00,2.72
9295.00,2.73
9294.00,2.73
9293.00,2.73
9292.00,2.74
9291.00,2.74
9290.00,2.75
9289.00,2.76
9288.00,2.76
9287.00,2.77
9286.00,2.78
9285.00,2.79
9284.00,2.80
9283.00,2.81
9282.00,2.82
9281.00,2.83
9280.00,2.83
9279.00,2.84
9278.00,2.84
9277.00,2.85
9276.00,2.85
9275.00,2.85
9274.00,2.85
9273.00,2.86
9272.00,2.86
9271.00,2.86
9270.00,2.85
9269.00,2.85
9268.00,2.85
9267.00,2.85
9266.00,2.85
9265.00,2.84
9264.00,2.84
9263.00,2.84
9262.00,2.83
9261.00,2.82
9260.00,2.82
9259.00,2.81
9258.00,2.80
9257.00,2.79
9256.00,2.78
9255.00,2.76
9254.00,2.75
9253.00,2.74
9252.00,2.74
9251.00,2.73
9250.00,2.72
9249.00,2.72
9248.00,2.71
9247.00,2.71
9246.00,2.70
9245.00,2.70
9244.00,2.70
9243.00,2.69
9242.00,2.69
9241.00,2.68
9240.00,2.68
9239.00,2.67
9238.00,2.67
9237.00,2.66
9236.00,2.66
9235.00,2.65
9234.00,2.65
9233.00,2.65
9232.00,2.65
9231.00,2.65
9230.00,2.65
9229.00,2.65
9228.00,2.66
9227.00,2.66
9226.00,2.67
9225.00,2.67
9224.00,2.68
9223.00,2.68
9222.00,2.68
9221.00,2.69
9220.00,2.69
9219.00,2.70
9218.00,2.70
9217.00,2.71
9216.00,2.72
9215.00,2.73
9214.00,2.74
9213.00,2.75
9212.00,2.76
9211.00,2.77
9210.00,2.78
9209.00,2.79
9208.00,2.81
9207.00,2.82
9206.00,2.82
9205.00,2.83
9204.00,2.84
9203.00,2.84
9202.00,2.84
9201.00,2.85
9200.00,2.85
9199.00,2.84
9198.00,2.84
9197.00,2.84
9196.00,2.84
9195.00,2.84
9194.00,2.84
9193.00,2.83
9192.00,2.83
9191.00,2.82
9190.00,2.82
9189.00,2.81
9188.00,2.80
9187.00,2.79
9186.00,2.78
9185.00,2.77
9184.00,2.76
9183.00,2.75
9182.00,2.74
9181.00,2.73
9180.00,2.72
9179.00,2.71
9178.00,2.70
9177.00,2.69
9176.00,2.69
9175.00,2.68
9174.00,2.67
9173.00,2.67
9172.00,2.66
9171.00,2.66
9170.00,2.65
9169.00,2.65
9168.00,2.64
9167.00,2.64
9166.00,2.63
9165.00,2.63
9164.00,2.63
9163.00,2.62
9162.00,2.62
9161.00,2.62
9160.00,2.62
9159.00,2.62
9158.00,2.62
9157.00,2.62
9156.00,2.62
9155.00,2.62
9154.00,2.62
9153.00,2.62
9152.00,2.62
9151.00,2.62
9150.00,2.63
9149.00,2.63
9148.00,2.63
9147.00,2.63
9146.00,2.63
9145.00,2.63
9144.00,2.63
9143.00,2.63
9142.00,2.63
9141.00,2.64
9140.00,2.64
9139.00,2.64
9138.00,2.64
9137.00,2.64
9136.00,2.64
9135.00,2.64
9134.00,2.64
9133.00,2.64
9132.00,2.64
9131.00,2.64
9130.00,2.64
9129.00,2.63
9128.00,2.63
9127.00,2.63
9126.00,2.62
9125.00,2.62
9124.00,2.61
9123.00,2.61
9122.00,2.60
9121.00,2.60
9120.00,2.60
9119.00,2.59
9118.00,2.59
9117.00,2.59
9116.00,2.59
9115.00,2.58
9114.00,2.58
9113.00,2.58
9112.00,2.58
9111.00,2.58
9110.00,2.58
9109.00,2.58
9108.00,2.58
9107.00,2.58
9106.00,2.59
9105.00,2.59
9104.00,2.59
9103.00,2.60
9102.00,2.61
9101.00,2.61
9100.00,2.62
9099.00,2.63
9098.00,2.63
9097.00,2.64
9096.00,2.65
9095.00,2.66
9094.00,2.67
9093.00,2.68
9092.00,2.69
9091.00,2.70
9090.00,2.71
9089.00,2.71
9088.00,2.72
9087.00,2.73
9086.00,2.74
9085.00,2.75
9084.00,2.76
9083.00,2.76
9082.00,2.77
9081.00,2.77
9080.00,2.78
9079.00,2.78
9078.00,2.78
9077.00,2.79
9076.00,2.79
9075.00,2.79
9074.00,2.79
9073.00,2.80
9072.00,2.80
9071.00,2.80
9070.00,2.80
9069.00,2.80
9068.00,2.79
9067.00,2.79
9066.00,2.79
9065.00,2.78
9064.00,2.78
9063.00,2.77
9062.00,2.77
9061.00,2.77
9060.00,2.76
9059.00,2.76
9058.00,2.76
9057.00,2.75
9056.00,2.75
9055.00,2.75
9054.00,2.75
9053.00,2.74
9052.00,2.74
9051.00,2.74
9050.00,2.73
9049.00,2.73
9048.00,2.72
9047.00,2.72
9046.00,2.71
9045.00,2.71
9044.00,2.70
9043.00,2.70
9042.00,2.69
9041.00,2.69
9040.00,2.68
9039.00,2.68
9038.00,2.67
9037.00,2.67
9036.00,2.66
9035.00,2.65
9034.00,2.64
9033.00,2.63
9032.00,2.62
9031.00,2.61
9030.00,2.60
9029.00,2.59
9028.00,2.58
9027.00,2.57
9026.00,2.56
9025.00,2.55
9024.00,2.54
9023.00,2.53
9022.00,2.52
9021.00,2.51
9020.00,2.51
9019.00,2.50
9018.00,2.49
9017.00,2.48
9016.00,2.48
9015.00,2.47
9014.00,2.47
9013.00,2.46
9012.00,2.46
9011.00,2.46
9010.00,2.46
9009.00,2.46
9008.00,2.46
9007.00,2.47
9006.00,2.47
9005.00,2.48
9004.00,2.48
9003.00,2.49
9002.00,2.49
9001.00,2.50
9000.00,2.51
8999.00,2.52
8998.00,2.53
8997.00,2.53
8996.00,2.54
8995.00,2.55
8994.00,2.56
8993.00,2.57
8992.00,2.59
8991.00,2.60
8990.00,2.61
8989.00,2.62
8988.00,2.63
8987.00,2.64
8986.00,2.65
8985.00,2.66
8984.00,2.66
8983.00,2.67
8982.00,2.68
8981.00,2.68
8980.00,2.69
8979.00,2.69
8978.00,2.70
8977.00,2.70
8976.00,2.70
8975.00,2.71
8974.00,2.71
8973.00,2.71
8972.00,2.71
8971.00,2.72
8970.00,2.72
8969.00,2.72
8968.00,2.72
8967.00,2.72
8966.00,2.72
8965.00,2.72
8964.00,2.72
8963.00,2.72
8962.00,2.72
8961.00,2.72
8960.00,2.72
8959.00,2.72
8958.00,2.72
8957.00,2.72
8956.00,2.72
8955.00,2.71
8954.00,2.71
8953.00,2.71
8952.00,2.71
8951.00,2.71
8950.00,2.71
8949.00,2.71
8948.00,2.71
8947.00,2.71
8946.00,2.71
8945.00,2.71
8944.00,2.71
8943.00,2.71
8942.00,2.70
8941.00,2.70
8940.00,2.70
8939.00,2.70
8938.00,2.70
8937.00,2.70
8936.00,2.70
8935.00,2.70
8934.00,2.70
8933.00,2.70
8932.00,2.70
8931.00,2.70
8930.00,2.70
8929.00,2.70
8928.00,2.70
8927.00,2.70
8926.00,2.70
8925.00,2.70
8924.00,2.70
8923.00,2.70
8922.00,2.70
8921.00,2.70
8920.00,2.71
8919.00,2.71
8918.00,2.71
8917.00,2.71
8916.00,2.71
8915.00,2.71
8914.00,2.71
8913.00,2.71
8912.00,2.71
8911.00,2.71
8910.00,2.71
8909.00,2.71
8908.00,2.71
8907.00,2.72
8906.00,2.72
8905.00,2.72
8904.00,2.72
8903.00,2.72
8902.00,2.72
8901.00,2.72
8900.00,2.72
8899.00,2.72
8898.00,2.72
8897.00,2.72
8896.00,2.72
8895.00,2.72
8894.00,2.72
8893.00,2.72
8892.00,2.72
8891.00,2.72
8890.00,2.72
8889.00,2.72
8888.00,2.72
8887.00,2.72
8886.00,2.72
8885.00,2.72
8884.00,2.72
8883.00,2.72
8882.00,2.71
8881.00,2.71
8880.00,2.71
8879.00,2.70
8878.00,2.70
8877.00,2.70
8876.00,2.69
8875.00,2.69
8874.00,2.68
8873.00,2.68
8872.00,2.67
8871.00,2.67
8870.00,2.67
8869.00,2.66
8868.00,2.66
8867.00,2.65
8866.00,2.65
8865.00,2.64
8864.00,2.64
8863.00,2.63
8862.00,2.63
8861.00,2.62
8860.00,2.62
8859.00,2.62
8858.00,2.62
8857.00,2.61
8856.00,2.61
8855.00,2.61
8854.00,2.61
8853.00,2.61
8852.00,2.61
8851.00,2.60
8850.00,2.60
8849.00,2.60
8848.00,2.60
8847.00,2.60
8846.00,2.60
8845.00,2.60
8844.00,2.60
8843.00,2.60
8842.00,2.59
8841.00,2.59
8840.00,2.59
8839.00,2.59
8838.00,2.59
8837.00,2.60
8836.00,2.60
8835.00,2.60
8834.00,2.60
8833.00,2.60
8832.00,2.61
8831.00,2.61
8830.00,2.62
8829.00,2.62
8828.00,2.62
8827.00,2.63
8826.00,2.63
8825.00,2.64
8824.00,2.65
8823.00,2.65
8822.00,2.66
8821.00,2.66
8820.00,2.67
8819.00,2.67
8818.00,2.68
8817.00,2.68
8816.00,2.68
8815.00,2.69
8814.00,2.69
8813.00,2.69
8812.00,2.69
8811.00,2.69
8810.00,2.69
8809.00,2.68
8808.00,2.68
8807.00,2.67
8806.00,2.67
8805.00,2.66
8804.00,2.66
8803.00,2.65
8802.00,2.65
8801.00,2.64
8800.00,2.63
8799.00,2.63
8798.00,2.62
8797.00,2.61
8796.00,2.61
8795.00,2.60
8794.00,2.59
8793.00,2.59
8792.00,2.58
8791.00,2.57
8790.00,2.57
8789.00,2.57
8788.00,2.56
8787.00,2.56
8786.00,2.56
8785.00,2.56
8784.00,2.56
8783.00,2.56
8782.00,2.57
8781.00,2.57
8780.00,2.57
8779.00,2.57
8778.00,2.58
8777.00,2.58
8776.00,2.58
8775.00,2.59
8774.00,2.59
8773.00,2.59
8772.00,2.59
8771.00,2.60
8770.00,2.60
8769.00,2.60
8768.00,2.60
8767.00,2.61
8766.00,2.61
8765.00,2.61
8764.00,2.62
8763.00,2.62
8762.00,2.62
8761.00,2.62
8760.00,2.62
8759.00,2.62
8758.00,2.62
8757.00,2.62
8756.00,2.62
8755.00,2.61
8754.00,2.61
8753.00,2.61
8752.00,2.60
8751.00,2.60
8750.00,2.59
8749.00,2.59
8748.00,2.59
8747.00,2.58
8746.00,2.58
8745.00,2.57
8744.00,2.56
8743.00,2.56
8742.00,2.55
8741.00,2.55
8740.00,2.54
8739.00,2.53
8738.00,2.52
8737.00,2.52
8736.00,2.51
8735.00,2.50
8734.00,2.49
8733.00,2.49
8732.00,2.48
8731.00,2.47
8730.00,2.47
8729.00,2.46
8728.00,2.46
8727.00,2.45
8726.00,2.45
8725.00,2.45
8724.00,2.44
8723.00,2.44
8722.00,2.44
8721.00,2.44
8720.00,2.44
8719.00,2.44
8718.00,2.44
8717.00,2.44
8716.00,2.44
8715.00,2.44
8714.00,2.45
8713.00,2.45
8712.00,2.45
8711.00,2.46
8710.00,2.46
8709.00,2.47
8708.00,2.47
8707.00,2.47
8706.00,2.48
8705.00,2.48
8704.00,2.48
8703.00,2.49
8702.00,2.49
8701.00,2.49
8700.00,2.49
8699.00,2.49
8698.00,2.49
8697.00,2.49
8696.00,2.49
8695.00,2.48
8694.00,2.48
8693.00,2.48
8692.00,2.48
8691.00,2.48
8690.00,2.47
8689.00,2.47
8688.00,2.47
8687.00,2.46
8686.00,2.46
8685.00,2.46
8684.00,2.45
8683.00,2.45
8682.00,2.45
8681.00,2.44
8680.00,2.44
8679.00,2.44
8678.00,2.43
8677.00,2.43
8676.00,2.43
8675.00,2.43
8674.00,2.43
8673.00,2.43
8672.00,2.43
8671.00,2.43
8670.00,2.43
8669.00,2.43
8668.00,2.43
8667.00,2.43
8666.00,2.44
8665.00,2.44
8664.00,2.44
8663.00,2.44
8662.00,2.44
8661.00,2.44
8660.00,2.45
8659.00,2.45
8658.00,2.45
8657.00,2.45
8656.00,2.46
8655.00,2.46
8654.00,2.46
8653.00,2.47
8652.00,2.47
8651.00,2.47
8650.00,2.47
8649.00,2.48
8648.00,2.48
8647.00,2.48
8646.00,2.48
8645.00,2.48
8644.00,2.49
8643.00,2.49
8642.00,2.49
8641.00,2.49
8640.00,2.49
8639.00,2.50
8638.00,2.50
8637.00,2.50
8636.00,2.50
8635.00,2.50
8634.00,2.50
8633.00,2.50
8632.00,2.50
8631.00,2.50
8630.00,2.50
8629.00,2.50
8628.00,2.50
8627.00,2.50
8626.00,2.50
8625.00,2.50
8624.00,2.50
8623.00,2.50
8622.00,2.50
8621.00,2.50
8620.00,2.50
8619.00,2.50
8618.00,2.50
8617.00,2.50
8616.00,2.50
8615.00,2.50
8614.00,2.50
8613.00,2.50
8612.00,2.50
8611.00,2.50
8610.00,2.51
8609.00,2.51
8608.00,2.51
8607.00,2.51
8606.00,2.51
8605.00,2.52
8604.00,2.52
8603.00,2.52
8602.00,2.53
8601.00,2.53
8600.00,2.54
8599.00,2.54
8598.00,2.55
8597.00,2.55
8596.00,2.55
8595.00,2.56
8594.00,2.56
8593.00,2.56
8592.00,2.56
8591.00,2.57
8590.00,2.57
8589.00,2.57
8588.00,2.57
8587.00,2.57
8586.00,2.58
8585.00,2.58
8584.00,2.58
8583.00,2.58
8582.00,2.59
8581.00,2.59
8580.00,2.59
8579.00,2.60
8578.00,2.60
8577.00,2.60
8576.00,2.60
8575.00,2.61
8574.00,2.61
8573.00,2.61
8572.00,2.61
8571.00,2.61
8570.00,2.61
8569.00,2.61
8568.00,2.61
8567.00,2.61
8566.00,2.61
8565.00,2.61
8564.00,2.61
8563.00,2.61
8562.00,2.61
8561.00,2.61
8560.00,2.61
8559.00,2.61
8558.00,2.61
8557.00,2.61
8556.00,2.61
8555.00,2.61
8554.00,2.61
8553.00,2.60
8552.00,2.60
8551.00,2.60
8550.00,2.60
8549.00,2.60
8548.00,2.60
8547.00,2.59
8546.00,2.59
8545.00,2.59
8544.00,2.59
8543.00,2.59
8542.00,2.59
8541.00,2.59
8540.00,2.59
8539.00,2.59
8538.00,2.59
8537.00,2.59
8536.00,2.59
8535.00,2.59
8534.00,2.60
8533.00,2.60
8532.00,2.60
8531.00,2.60
8530.00,2.60
8529.00,2.60
8528.00,2.60
8527.00,2.60
8526.00,2.60
8525.00,2.59
8524.00,2.59
8523.00,2.59
8522.00,2.59
8521.00,2.58
8520.00,2.58
8519.00,2.58
8518.00,2.58
8517.00,2.57
8516.00,2.57
8515.00,2.57
8514.00,2.57
8513.00,2.57
8512.00,2.57
8511.00,2.57
8510.00,2.57
8509.00,2.57
8508.00,2.57
8507.00,2.57
8506.00,2.57
8505.00,2.56
8504.00,2.56
8503.00,2.56
8502.00,2.56
8501.00,2.56
8500.00,2.56
8499.00,2.56
8498.00,2.57
8497.00,2.57
8496.00,2.57
8495.00,2.58
8494.00,2.58
8493.00,2.59
8492.00,2.59
8491.00,2.60
8490.00,2.60
8489.00,2.61
8488.00,2.61
8487.00,2.61
8486.00,2.62
8485.00,2.62
8484.00,2.62
8483.00,2.62
8482.00,2.62
8481.00,2.62
8480.00,2.62
8479.00,2.62
8478.00,2.62
8477.00,2.61
8476.00,2.61
8475.00,2.61
8474.00,2.61
8473.00,2.60
8472.00,2.60
8471.00,2.60
8470.00,2.59
8469.00,2.58
8468.00,2.58
8467.00,2.57
8466.00,2.56
8465.00,2.55
8464.00,2.54
8463.00,2.52
8462.00,2.51
8461.00,2.50
8460.00,2.49
8459.00,2.48
8458.00,2.47
8457.00,2.46
8456.00,2.46
8455.00,2.45
8454.00,2.44
8453.00,2.43
8452.00,2.43
8451.00,2.42
8450.00,2.41
8449.00,2.41
8448.00,2.40
8447.00,2.40
8446.00,2.39
8445.00,2.39
8444.00,2.39
8443.00,2.38
8442.00,2.38
8441.00,2.38
8440.00,2.38
8439.00,2.38
8438.00,2.38
8437.00,2.38
8436.00,2.38
8435.00,2.39
8434.00,2.39
8433.00,2.39
8432.00,2.39
8431.00,2.39
8430.00,2.39
8429.00,2.39
8428.00,2.40
8427.00,2.40
8426.00,2.40
8425.00,2.40
8424.00,2.40
8423.00,2.40
8422.00,2.40
8421.00,2.40
8420.00,2.40
8419.00,2.41
8418.00,2.41
8417.00,2.41
8416.00,2.41
8415.00,2.41
8414.00,2.41
8413.00,2.41
8412.00,2.41
8411.00,2.41
8410.00,2.41
8409.00,2.42
8408.00,2.42
8407.00,2.42
8406.00,2.42
8405.00,2.42
8404.00,2.42
8403.00,2.42
8402.00,2.43
8401.00,2.43
8400.00,2.43
8399.00,2.44
8398.00,2.44
8397.00,2.45
8396.00,2.45
8395.00,2.46
8394.00,2.46
8393.00,2.47
8392.00,2.47
8391.00,2.47
8390.00,2.48
8389.00,2.48
8388.00,2.49
8387.00,2.50
8386.00,2.50
8385.00,2.51
8384.00,2.51
8383.00,2.52
8382.00,2.52
8381.00,2.53
8380.00,2.54
8379.00,2.54
8378.00,2.55
8377.00,2.55
8376.00,2.55
8375.00,2.56
8374.00,2.56
8373.00,2.56
8372.00,2.56
8371.00,2.56
8370.00,2.56
8369.00,2.56
8368.00,2.56
8367.00,2.56
8366.00,2.56
8365.00,2.56
8364.00,2.56
8363.00,2.56
8362.00,2.56
8361.00,2.56
8360.00,2.55
8359.00,2.55
8358.00,2.55
8357.00,2.54
8356.00,2.54
8355.00,2.53
8354.00,2.53
8353.00,2.52
8352.00,2.52
8351.00,2.52
8350.00,2.51
8349.00,2.51
8348.00,2.51
8347.00,2.51
8346.00,2.50
8345.00,2.50
8344.00,2.50
8343.00,2.50
8342.00,2.49
8341.00,2.49
8340.00,2.49
8339.00,2.48
8338.00,2.48
8337.00,2.47
8336.00,2.47
8335.00,2.46
8334.00,2.46
8333.00,2.46
8332.00,2.46
8331.00,2.45
8330.00,2.45
8329.00,2.45
8328.00,2.45
8327.00,2.45
8326.00,2.46
8325.00,2.46
8324.00,2.46
8323.00,2.46
8322.00,2.47
8321.00,2.47
8320.00,2.47
8319.00,2.47
8318.00,2.47
8317.00,2.47
8316.00,2.48
8315.00,2.48
8314.00,2.48
8313.00,2.48
8312.00,2.49
8311.00,2.49
8310.00,2.50
8309.00,2.51
8308.00,2.51
8307.00,2.52
8306.00,2.53
8305.00,2.53
8304.00,2.54
8303.00,2.54
8302.00,2.55
8301.00,2.55
8300.00,2.55
8299.00,2.55
8298.00,2.56
8297.00,2.56
8296.00,2.56
8295.00,2.56
8294.00,2.56
8293.00,2.56
8292.00,2.56
8291.00,2.56
8290.00,2.56
8289.00,2.56
8288.00,2.56
8287.00,2.57
8286.00,2.57
8285.00,2.57
8284.00,2.57
8283.00,2.57
8282.00,2.57
8281.00,2.57
8280.00,2.57
8279.00,2.56
8278.00,2.56
8277.00,2.56
8276.00,2.56
8275.00,2.56
8274.00,2.56
8273.00,2.56
8272.00,2.56
8271.00,2.56
8270.00,2.56
8269.00,2.57
8268.00,2.57
8267.00,2.57
8266.00,2.57
8265.00,2.57
8264.00,2.57
8263.00,2.57
8262.00,2.57
8261.00,2.57
8260.00,2.57
8259.00,2.57
8258.00,2.57
8257.00,2.57
8256.00,2.57
8255.00,2.57
8254.00,2.57
8253.00,2.57
8252.00,2.57
8251.00,2.57
8250.00,2.58
8249.00,2.58
8248.00,2.58
8247.00,2.58
8246.00,2.58
8245.00,2.58
8244.00,2.58
8243.00,2.57
8242.00,2.57
8241.00,2.57
8240.00,2.57
8239.00,2.56
8238.00,2.56
8237.00,2.56
8236.00,2.56
8235.00,2.55
8234.00,2.55
8233.00,2.55
8232.00,2.55
8231.00,2.55
8230.00,2.55
8229.00,2.55
8228.00,2.55
8227.00,2.55
8226.00,2.54
8225.00,2.54
8224.00,2.54
8223.00,2.54
8222.00,2.53
8221.00,2.53
8220.00,2.53
8219.00,2.53
8218.00,2.53
8217.00,2.53
8216.00,2.53
8215.00,2.53
8214.00,2.54
8213.00,2.54
8212.00,2.55
8211.00,2.56
8210.00,2.56
8209.00,2.57
8208.00,2.58
8207.00,2.58
8206.00,2.59
8205.00,2.60
8204.00,2.61
8203.00,2.61
8202.00,2.62
8201.00,2.63
8200.00,2.64
8199.00,2.65
8198.00,2.66
8197.00,2.67
8196.00,2.67
8195.00,2.68
8194.00,2.69
8193.00,2.70
8192.00,2.70
8191.00,2.71
8190.00,2.72
8189.00,2.72
8188.00,2.72
8187.00,2.73
8186.00,2.73
8185.00,2.73
8184.00,2.73
8183.00,2.73
8182.00,2.73
8181.00,2.74
8180.00,2.74
8179.00,2.73
8178.00,2.73
8177.00,2.73
8176.00,2.73
8175.00,2.73
8174.00,2.73
8173.00,2.72
8172.00,2.72
8171.00,2.72
8170.00,2.71
8169.00,2.71
8168.00,2.70
8167.00,2.70
8166.00,2.70
8165.00,2.69
8164.00,2.69
8163.00,2.69
8162.00,2.68
8161.00,2.68
8160.00,2.67
8159.00,2.67
8158.00,2.67
8157.00,2.66
8156.00,2.65
8155.00,2.65
8154.00,2.64
8153.00,2.64
8152.00,2.63
8151.00,2.63
8150.00,2.62
8149.00,2.62
8148.00,2.61
8147.00,2.61
8146.00,2.61
8145.00,2.60
8144.00,2.60
8143.00,2.60
8142.00,2.60
8141.00,2.60
8140.00,2.60
8139.00,2.60
8138.00,2.59
8137.00,2.59
8136.00,2.59
8135.00,2.59
8134.00,2.59
8133.00,2.59
8132.00,2.60
8131.00,2.60
8130.00,2.60
8129.00,2.60
8128.00,2.60
8127.00,2.60
8126.00,2.60
8125.00,2.60
8124.00,2.60
8123.00,2.60
8122.00,2.60
8121.00,2.60
8120.00,2.60
8119.00,2.60
8118.00,2.60
8117.00,2.60
8116.00,2.60
8115.00,2.60
8114.00,2.60
8113.00,2.60
8112.00,2.60
8111.00,2.59
8110.00,2.59
8109.00,2.59
8108.00,2.59
8107.00,2.59
8106.00,2.59
8105.00,2.59
8104.00,2.59
8103.00,2.59
8102.00,2.59
8101.00,2.60
8100.00,2.60
8099.00,2.60
8098.00,2.61
8097.00,2.61
8096.00,2.62
8095.00,2.63
8094.00,2.63
8093.00,2.64
8092.00,2.65
8091.00,2.65
8090.00,2.66
8089.00,2.67
8088.00,2.67
8087.00,2.68
8086.00,2.69
8085.00,2.69
8084.00,2.70
8083.00,2.70
8082.00,2.71
8081.00,2.71
8080.00,2.72
8079.00,2.72
8078.00,2.72
8077.00,2.73
8076.00,2.73
8075.00,2.73
8074.00,2.74
8073.00,2.74
8072.00,2.74
8071.00,2.74
8070.00,2.73
8069.00,2.73
8068.00,2.73
8067.00,2.72
8066.00,2.72
8065.00,2.71
8064.00,2.71
8063.00,2.71
8062.00,2.70
8061.00,2.70
8060.00,2.69
8059.00,2.69
8058.00,2.69
8057.00,2.69
8056.00,2.69
8055.00,2.68
8054.00,2.68
8053.00,2.68
8052.00,2.68
8051.00,2.68
8050.00,2.68
8049.00,2.68
8048.00,2.68
8047.00,2.68
8046.00,2.68
8045.00,2.68
8044.00,2.68
8043.00,2.68
8042.00,2.68
8041.00,2.68
8040.00,2.69
8039.00,2.69
8038.00,2.69
8037.00,2.70
8036.00,2.70
8035.00,2.70
8034.00,2.70
8033.00,2.71
8032.00,2.71
8031.00,2.71
8030.00,2.71
8029.00,2.71
8028.00,2.71
8027.00,2.71
8026.00,2.71
8025.00,2.71
8024.00,2.71
8023.00,2.71
8022.00,2.71
8021.00,2.70
8020.00,2.70
8019.00,2.70
8018.00,2.70
8017.00,2.70
8016.00,2.70
8015.00,2.70
8014.00,2.69
8013.00,2.69
8012.00,2.69
8011.00,2.69
8010.00,2.68
8009.00,2.68
8008.00,2.68
8007.00,2.68
8006.00,2.68
8005.00,2.68
8004.00,2.68
8003.00,2.67
8002.00,2.67
8001.00,2.67
8000.00,2.67
7999.00,2.67
7998.00,2.66
7997.00,2.66
7996.00,2.66
7995.00,2.66
7994.00,2.66
7993.00,2.66
7992.00,2.65
7991.00,2.65
7990.00,2.65
7989.00,2.65
7988.00,2.65
7987.00,2.65
7986.00,2.65
7985.00,2.65
7984.00,2.65
7983.00,2.65
7982.00,2.65
7981.00,2.65
7980.00,2.64
7979.00,2.64
7978.00,2.64
7977.00,2.64
7976.00,2.65
7975.00,2.65
7974.00,2.65
7973.00,2.65
7972.00,2.66
7971.00,2.66
7970.00,2.67
7969.00,2.67
7968.00,2.68
7967.00,2.68
7966.00,2.69
7965.00,2.69
7964.00,2.70
7963.00,2.70
7962.00,2.70
7961.00,2.71
7960.00,2.71
7959.00,2.72
7958.00,2.72
7957.00,2.72
7956.00,2.73
7955.00,2.73
7954.00,2.74
7953.00,2.74
7952.00,2.74
7951.00,2.75
7950.00,2.75
7949.00,2.75
7948.00,2.75
7947.00,2.75
7946.00,2.75
7945.00,2.75
7944.00,2.74
7943.00,2.74
7942.00,2.74
7941.00,2.74
7940.00,2.73
7939.00,2.73
7938.00,2.73
7937.00,2.73
7936.00,2.73
7935.00,2.73
7934.00,2.73
7933.00,2.73
7932.00,2.73
7931.00,2.73
7930.00,2.73
7929.00,2.73
7928.00,2.73
7927.00,2.72
7926.00,2.72
7925.00,2.72
7924.00,2.72
7923.00,2.72
7922.00,2.72
7921.00,2.72
7920.00,2.73
7919.00,2.73
7918.00,2.73
7917.00,2.73
7916.00,2.73
7915.00,2.73
7914.00,2.73
7913.00,2.73
7912.00,2.74
7911.00,2.74
7910.00,2.74
7909.00,2.74
7908.00,2.74
7907.00,2.73
7906.00,2.73
7905.00,2.73
7904.00,2.73
7903.00,2.73
7902.00,2.73
7901.00,2.73
7900.00,2.73
7899.00,2.73
7898.00,2.73
7897.00,2.73
7896.00,2.73
7895.00,2.73
7894.00,2.73
7893.00,2.73
7892.00,2.73
7891.00,2.74
7890.00,2.74
7889.00,2.74
7888.00,2.74
7887.00,2.74
7886.00,2.74
7885.00,2.74
7884.00,2.74
7883.00,2.74
7882.00,2.73
7881.00,2.73
7880.00,2.73
7879.00,2.73
7878.00,2.73
7877.00,2.73
7876.00,2.73
7875.00,2.73
7874.00,2.72
7873.00,2.72
7872.00,2.72
7871.00,2.72
7870.00,2.72
7869.00,2.72
7868.00,2.72
7867.00,2.72
7866.00,2.72
7865.00,2.72
7864.00,2.72
7863.00,2.72
7862.00,2.72
7861.00,2.72
7860.00,2.72
7859.00,2.72
7858.00,2.73
7857.00,2.73
7856.00,2.73
7855.00,2.74
7854.00,2.74
7853.00,2.74
7852.00,2.75
7851.00,2.75
7850.00,2.75
7849.00,2.76
7848.00,2.76
7847.00,2.77
7846.00,2.77
7845.00,2.78
7844.00,2.78
7843.00,2.78
7842.00,2.79
7841.00,2.79
7840.00,2.79
7839.00,2.79
7838.00,2.79
7837.00,2.80
7836.00,2.80
7835.00,2.80
7834.00,2.80
7833.00,2.80
7832.00,2.80
7831.00,2.79
7830.00,2.79
7829.00,2.79
7828.00,2.79
7827.00,2.79
7826.00,2.79
7825.00,2.79
7824.00,2.79
7823.00,2.79
7822.00,2.78
7821.00,2.78
7820.00,2.78
7819.00,2.78
7818.00,2.78
7817.00,2.78
7816.00,2.78
7815.00,2.77
7814.00,2.77
7813.00,2.77
7812.00,2.77
7811.00,2.77
7810.00,2.78
7809.00,2.78
7808.00,2.78
7807.00,2.78
7806.00,2.78
7805.00,2.78
7804.00,2.79
7803.00,2.79
7802.00,2.79
7801.00,2.79
7800.00,2.79
7799.00,2.79
7798.00,2.79
7797.00,2.79
7796.00,2.79
7795.00,2.80
7794.00,2.80
7793.00,2.80
7792.00,2.80
7791.00,2.80
7790.00,2.80
7789.00,2.80
7788.00,2.80
7787.00,2.80
7786.00,2.80
7785.00,2.79
7784.00,2.79
7783.00,2.79
7782.00,2.79
7781.00,2.79
7780.00,2.79
7779.00,2.79
7778.00,2.78
7777.00,2.78
7776.00,2.78
7775.00,2.78
7774.00,2.78
7773.00,2.77
7772.00,2.77
7771.00,2.77
7770.00,2.77
7769.00,2.76
7768.00,2.76
7767.00,2.76
7766.00,2.76
7765.00,2.75
7764.00,2.75
7763.00,2.75
7762.00,2.75
7761.00,2.75
7760.00,2.75
7759.00,2.74
7758.00,2.74
7757.00,2.74
7756.00,2.74
7755.00,2.74
7754.00,2.73
7753.00,2.73
7752.00,2.73
7751.00,2.73
7750.00,2.73
7749.00,2.73
7748.00,2.73
7747.00,2.73
7746.00,2.73
7745.00,2.73
7744.00,2.73
7743.00,2.73
7742.00,2.74
7741.00,2.74
7740.00,2.74
7739.00,2.74
7738.00,2.75
7737.00,2.75
7736.00,2.76
7735.00,2.76
7734.00,2.77
7733.00,2.77
7732.00,2.78
7731.00,2.78
7730.00,2.79
7729.00,2.79
7728.00,2.80
7727.00,2.80
7726.00,2.81
7725.00,2.81
7724.00,2.82
7723.00,2.82
7722.00,2.82
7721.00,2.83
7720.00,2.83
7719.00,2.83
7718.00,2.83
7717.00,2.83
7716.00,2.83
7715.00,2.83
7714.00,2.83
7713.00,2.83
7712.00,2.82
7711.00,2.82
7710.00,2.81
7709.00,2.81
7708.00,2.80
7707.00,2.79
7706.00,2.79
7705.00,2.78
7704.00,2.77
7703.00,2.76
7702.00,2.76
7701.00,2.75
7700.00,2.74
7699.00,2.74
7698.00,2.73
7697.00,2.73
7696.00,2.73
7695.00,2.72
7694.00,2.72
7693.00,2.72
7692.00,2.72
7691.00,2.72
7690.00,2.72
7689.00,2.72
7688.00,2.73
7687.00,2.73
7686.00,2.73
7685.00,2.74
7684.00,2.74
7683.00,2.75
7682.00,2.75
7681.00,2.76
7680.00,2.77
7679.00,2.78
7678.00,2.78
7677.00,2.79
7676.00,2.80
7675.00,2.81
7674.00,2.81
7673.00,2.82
7672.00,2.82
7671.00,2.83
7670.00,2.83
7669.00,2.84
7668.00,2.84
7667.00,2.84
7666.00,2.84
7665.00,2.84
7664.00,2.84
7663.00,2.84
7662.00,2.84
7661.00,2.84
7660.00,2.84
7659.00,2.84
7658.00,2.83
7657.00,2.83
7656.00,2.83
7655.00,2.83
7654.00,2.83
7653.00,2.82
7652.00,2.82
7651.00,2.82
7650.00,2.82
7649.00,2.82
7648.00,2.82
7647.00,2.81
7646.00,2.81
7645.00,2.81
7644.00,2.81
7643.00,2.82
7642.00,2.82
7641.00,2.82
7640.00,2.82
7639.00,2.82
7638.00,2.82
7637.00,2.82
7636.00,2.82
7635.00,2.82
7634.00,2.82
7633.00,2.82
7632.00,2.82
7631.00,2.82
7630.00,2.82
7629.00,2.82
7628.00,2.82
7627.00,2.82
7626.00,2.82
7625.00,2.82
7624.00,2.82
7623.00,2.81
7622.00,2.81
7621.00,2.81
7620.00,2.81
7619.00,2.80
7618.00,2.80
7617.00,2.80
7616.00,2.79
7615.00,2.79
7614.00,2.78
7613.00,2.78
7612.00,2.78
7611.00,2.77
7610.00,2.77
7609.00,2.77
7608.00,2.76
7607.00,2.76
7606.00,2.76
7605.00,2.76
7604.00,2.75
7603.00,2.75
7602.00,2.75
7601.00,2.75
7600.00,2.75
7599.00,2.74
7598.00,2.74
7597.00,2.74
7596.00,2.74
7595.00,2.75
7594.00,2.75
7593.00,2.75
7592.00,2.75
7591.00,2.75
7590.00,2.75
7589.00,2.76
7588.00,2.76
7587.00,2.76
7586.00,2.76
7585.00,2.76
7584.00,2.77
7583.00,2.77
7582.00,2.77
7581.00,2.77
7580.00,2.77
7579.00,2.78
7578.00,2.78
7577.00,2.78
7576.00,2.78
7575.00,2.78
7574.00,2.79
7573.00,2.79
7572.00,2.79
7571.00,2.79
7570.00,2.79
7569.00,2.79
7568.00,2.79
7567.00,2.78
7566.00,2.78
7565.00,2.78
7564.00,2.78
7563.00,2.77
7562.00,2.77
7561.00,2.77
7560.00,2.77
7559.00,2.76
7558.00,2.76
7557.00,2.76
7556.00,2.76
7555.00,2.75
7554.00,2.75
7553.00,2.75
7552.00,2.75
7551.00,2.75
7550.00,2.75
7549.00,2.75
7548.00,2.74
7547.00,2.74
7546.00,2.74
7545.00,2.74
7544.00,2.74
7543.00,2.74
7542.00,2.73
7541.00,2.73
7540.00,2.73
7539.00,2.73
7538.00,2.73
7537.00,2.73
7536.00,2.73
7535.00,2.72
7534.00,2.72
7533.00,2.72
7532.00,2.72
7531.00,2.72
7530.00,2.72
7529.00,2.71
7528.00,2.71
7527.00,2.71
7526.00,2.71
7525.00,2.71
7524.00,2.70
7523.00,2.70
7522.00,2.70
7521.00,2.70
7520.00,2.70
7519.00,2.69
7518.00,2.69
7517.00,2.69
7516.00,2.69
7515.00,2.70
7514.00,2.70
7513.00,2.70
7512.00,2.70
7511.00,2.70
7510.00,2.70
7509.00,2.70
7508.00,2.70
7507.00,2.70
7506.00,2.70
7505.00,2.70
7504.00,2.71
7503.00,2.71
7502.00,2.71
7501.00,2.71
7500.00,2.71
7499.00,2.71
7498.00,2.71
7497.00,2.71
7496.00,2.71
7495.00,2.72
7494.00,2.72
7493.00,2.72
7492.00,2.72
7491.00,2.72
7490.00,2.72
7489.00,2.72
7488.00,2.72
7487.00,2.73
7486.00,2.73
7485.00,2.73
7484.00,2.73
7483.00,2.73
7482.00,2.73
7481.00,2.73
7480.00,2.74
7479.00,2.74
7478.00,2.74
7477.00,2.74
7476.00,2.75
7475.00,2.75
7474.00,2.75
7473.00,2.76
7472.00,2.76
7471.00,2.76
7470.00,2.76
7469.00,2.76
7468.00,2.76
7467.00,2.77
7466.00,2.77
7465.00,2.77
7464.00,2.77
7463.00,2.77
7462.00,2.76
7461.00,2.76
7460.00,2.76
7459.00,2.76
7458.00,2.76
7457.00,2.75
7456.00,2.75
7455.00,2.75
7454.00,2.74
7453.00,2.74
7452.00,2.73
7451.00,2.73
7450.00,2.73
7449.00,2.72
7448.00,2.72
7447.00,2.72
7446.00,2.71
7445.00,2.71
7444.00,2.71
7443.00,2.70
7442.00,2.70
7441.00,2.70
7440.00,2.70
7439.00,2.69
7438.00,2.69
7437.00,2.69
7436.00,2.69
7435.00,2.69
7434.00,2.69
7433.00,2.69
7432.00,2.69
7431.00,2.69
7430.00,2.70
7429.00,2.70
7428.00,2.70
7427.00,2.70
7426.00,2.70
7425.00,2.70
7424.00,2.70
7423.00,2.70
7422.00,2.70
7421.00,2.70
7420.00,2.70
7419.00,2.70
7418.00,2.70
7417.00,2.70
7416.00,2.70
7415.00,2.69
7414.00,2.69
7413.00,2.69
7412.00,2.69
7411.00,2.68
7410.00,2.68
7409.00,2.68
7408.00,2.67
7407.00,2.67
7406.00,2.66
7405.00,2.65
7404.00,2.65
7403.00,2.64
7402.00,2.63
7401.00,2.63
7400.00,2.62
7399.00,2.61
7398.00,2.60
7397.00,2.60
7396.00,2.59
7395.00,2.58
7394.00,2.58
7393.00,2.57
7392.00,2.56
7391.00,2.56
7390.00,2.55
7389.00,2.55
7388.00,2.54
7387.00,2.54
7386.00,2.53
7385.00,2.53
7384.00,2.53
7383.00,2.52
7382.00,2.52
7381.00,2.52
7380.00,2.52
7379.00,2.52
7378.00,2.52
7377.00,2.52
7376.00,2.52
7375.00,2.52
7374.00,2.52
7373.00,2.52
7372.00,2.52
7371.00,2.53
7370.00,2.53
7369.00,2.53
7368.00,2.53
7367.00,2.53
7366.00,2.53
7365.00,2.53
7364.00,2.53
7363.00,2.53
7362.00,2.53
7361.00,2.53
7360.00,2.53
7359.00,2.53
7358.00,2.52
7357.00,2.52
7356.00,2.52
7355.00,2.51
7354.00,2.51
7353.00,2.50
7352.00,2.50
7351.00,2.49
7350.00,2.49
7349.00,2.48
7348.00,2.47
7347.00,2.47
7346.00,2.46
7345.00,2.45
7344.00,2.45
7343.00,2.44
7342.00,2.43
7341.00,2.43
7340.00,2.42
7339.00,2.42
7338.00,2.41
7337.00,2.41
7336.00,2.41
7335.00,2.40
7334.00,2.40
7333.00,2.40
7332.00,2.39
7331.00,2.39
7330.00,2.39
7329.00,2.38
7328.00,2.38
7327.00,2.37
7326.00,2.37
7325.00,2.37
7324.00,2.36
7323.00,2.36
7322.00,2.35
7321.00,2.35
7320.00,2.34
7319.00,2.34
7318.00,2.33
7317.00,2.33
7316.00,2.32
7315.00,2.32
7314.00,2.31
7313.00,2.30
7312.00,2.30
7311.00,2.29
7310.00,2.28
7309.00,2.28
7308.00,2.27
7307.00,2.27
7306.00,2.27
7305.00,2.26
7304.00,2.26
7303.00,2.26
7302.00,2.26
7301.00,2.26
7300.00,2.26
7299.00,2.27
7298.00,2.27
7297.00,2.27
7296.00,2.28
7295.00,2.28
7294.00,2.29
7293.00,2.29
7292.00,2.30
7291.00,2.31
7290.00,2.32
7289.00,2.32
7288.00,2.33
7287.00,2.34
7286.00,2.35
7285.00,2.36
7284.00,2.37
7283.00,2.38
7282.00,2.39
7281.00,2.39
7280.00,2.40
7279.00,2.41
7278.00,2.41
7277.00,2.42
7276.00,2.43
7275.00,2.43
7274.00,2.43
7273.00,2.44
7272.00,2.44
7271.00,2.44
7270.00,2.44
7269.00,2.44
7268.00,2.44
7267.00,2.44
7266.00,2.44
7265.00,2.43
7264.00,2.43
7263.00,2.42
7262.00,2.42
7261.00,2.41
7260.00,2.40
7259.00,2.40
7258.00,2.39
7257.00,2.38
7256.00,2.37
7255.00,2.37
7254.00,2.36
7253.00,2.35
7252.00,2.34
7251.00,2.33
7250.00,2.32
7249.00,2.31
7248.00,2.30
7247.00,2.29
7246.00,2.28
7245.00,2.28
7244.00,2.27
7243.00,2.26
7242.00,2.25
7241.00,2.24
7240.00,2.23
7239.00,2.23
7238.00,2.22
7237.00,2.21
7236.00,2.21
7235.00,2.20
7234.00,2.20
7233.00,2.19
7232.00,2.18
7231.00,2.18
7230.00,2.17
7229.00,2.16
7228.00,2.16
7227.00,2.15
7226.00,2.14
7225.00,2.14
7224.00,2.13
7223.00,2.12
7222.00,2.12
7221.00,2.11
7220.00,2.11
7219.00,2.10
7218.00,2.09
7217.00,2.09
7216.00,2.08
7215.00,2.08
7214.00,2.07
7213.00,2.06
7212.00,2.06
7211.00,2.05
7210.00,2.04
7209.00,2.04
7208.00,2.03
7207.00,2.02
7206.00,2.01
7205.00,2.01
7204.00,2.00
7203.00,1.99
7202.00,1.99
7201.00,1.98
7200.00,1.98
7199.00,1.97
7198.00,1.96
7197.00,1.95
7196.00,1.95
7195.00,1.94
7194.00,1.93
7193.00,1.92
7192.00,1.91
7191.00,1.90
7190.00,1.89
7189.00,1.88
7188.00,1.88
7187.00,1.87
7186.00,1.86
7185.00,1.85
7184.00,1.84
7183.00,1.83
7182.00,1.82
7181.00,1.81
7180.00,1.80
7179.00,1.79
7178.00,1.78
7177.00,1.77
7176.00,1.76
7175.00,1.75
7174.00,1.74
7173.00,1.73
7172.00,1.73
7171.00,1.72
7170.00,1.71
7169.00,1.71
7168.00,1.70
7167.00,1.70
7166.00,1.69
7165.00,1.69
7164.00,1.68
7163.00,1.68
7162.00,1.67
7161.00,1.67
7160.00,1.66
7159.00,1.66
7158.00,1.65
7157.00,1.65
7156.00,1.64
7155.00,1.64
7154.00,1.64
7153.00,1.64
7152.00,1.63
7151.00,1.63
7150.00,1.63
7149.00,1.62
7148.00,1.62
7147.00,1.62
7146.00,1.61
7145.00,1.61
7144.00,1.60
7143.00,1.60
7142.00,1.59
7141.00,1.58
7140.00,1.58
7139.00,1.57
7138.00,1.57
7137.00,1.56
7136.00,1.56
7135.00,1.55
7134.00,1.55
7133.00,1.55
7132.00,1.54
7131.00,1.54
7130.00,1.54
7129.00,1.53
7128.00,1.53
7127.00,1.52
7126.00,1.52
7125.00,1.51
7124.00,1.51
7123.00,1.50
7122.00,1.49
7121.00,1.49
7120.00,1.48
7119.00,1.48
7118.00,1.47
7117.00,1.46
7116.00,1.46
7115.00,1.45
7114.00,1.45
7113.00,1.44
7112.00,1.43
7111.00,1.43
7110.00,1.42
7109.00,1.41
7108.00,1.41
7107.00,1.40
7106.00,1.39
7105.00,1.38
7104.00,1.38
7103.00,1.37
7102.00,1.36
7101.00,1.35
7100.00,1.35
7099.00,1.34
7098.00,1.33
7097.00,1.33
7096.00,1.32
7095.00,1.32
7094.00,1.32
7093.00,1.31
7092.00,1.31
7091.00,1.30
7090.00,1.30
7089.00,1.30
7088.00,1.29
7087.00,1.29
7086.00,1.28
7085.00,1.28
7084.00,1.27
7083.00,1.27
7082.00,1.26
7081.00,1.26
7080.00,1.25
7079.00,1.24
7078.00,1.24
7077.00,1.24
7076.00,1.23
7075.00,1.23
7074.00,1.22
7073.00,1.22
7072.00,1.21
7071.00,1.21
7070.00,1.20
7069.00,1.19
7068.00,1.19
7067.00,1.18
7066.00,1.18
7065.00,1.17
7064.00,1.17
7063.00,1.16
7062.00,1.16
7061.00,1.15
7060.00,1.15
7059.00,1.15
7058.00,1.15
7057.00,1.14
7056.00,1.14
7055.00,1.14
7054.00,1.14
7053.00,1.14
7052.00,1.14
7051.00,1.14
7050.00,1.14
7049.00,1.14
7048.00,1.14
7047.00,1.14
7046.00,1.14
7045.00,1.14
7044.00,1.14
7043.00,1.13
7042.00,1.13
7041.00,1.13
7040.00,1.13
7039.00,1.13
7038.00,1.13
7037.00,1.13
7036.00,1.13
7035.00,1.13
7034.00,1.13
7033.00,1.13
7032.00,1.13
7031.00,1.13
7030.00,1.12
7029.00,1.12
7028.00,1.12
7027.00,1.12
7026.00,1.11
7025.00,1.11
7024.00,1.11
7023.00,1.10
7022.00,1.10
7021.00,1.10
7020.00,1.10
7019.00,1.09
7018.00,1.09
7017.00,1.09
7016.00,1.09
7015.00,1.09
7014.00,1.09
7013.00,1.09
7012.00,1.08
7011.00,1.08
7010.00,1.08
7009.00,1.08
7008.00,1.08
7007.00,1.08
7006.00,1.08
7005.00,1.08
7004.00,1.08
7003.00,1.09
7002.00,1.09
7001.00,1.09
7000.00,1.09
6999.00,1.10
6998.00,1.10
6997.00,1.10
6996.00,1.10
6995.00,1.11
6994.00,1.11
6993.00,1.11
6992.00,1.11
6991.00,1.11
6990.00,1.11
6989.00,1.12
6988.00,1.12
6987.00,1.12
6986.00,1.12
6985.00,1.12
6984.00,1.12
6983.00,1.12
6982.00,1.12
6981.00,1.12
6980.00,1.12
6979.00,1.12
6978.00,1.11
6977.00,1.11
6976.00,1.11
6975.00,1.11
6974.00,1.11
6973.00,1.11
6972.00,1.10
6971.00,1.10
6970.00,1.10
6969.00,1.10
6968.00,1.09
6967.00,1.09
6966.00,1.09
6965.00,1.09
6964.00,1.09
6963.00,1.08
6962.00,1.08
6961.00,1.08
6960.00,1.08
6959.00,1.07
6958.00,1.07
6957.00,1.07
6956.00,1.07
6955.00,1.07
6954.00,1.07
6953.00,1.07
6952.00,1.07
6951.00,1.07
6950.00,1.07
6949.00,1.06
6948.00,1.06
6947.00,1.06
6946.00,1.06
6945.00,1.06
6944.00,1.06
6943.00,1.06
6942.00,1.06
6941.00,1.06
6940.00,1.06
6939.00,1.06
6938.00,1.06
6937.00,1.06
6936.00,1.06
6935.00,1.06
6934.00,1.06
6933.00,1.05
6932.00,1.05
6931.00,1.05
6930.00,1.05
6929.00,1.05
6928.00,1.05
6927.00,1.04
6926.00,1.04
6925.00,1.04
6924.00,1.04
6923.00,1.03
6922.00,1.03
6921.00,1.03
6920.00,1.03
6919.00,1.02
6918.00,1.02
6917.00,1.02
6916.00,1.01
6915.00,1.01
6914.00,1.01
6913.00,1.01
6912.00,1.00
6911.00,1.00
6910.00,1.00
6909.00,1.00
6908.00,1.00
6907.00,1.00
6906.00,1.00
6905.00,1.00
6904.00,1.00
6903.00,1.00
6902.00,1.00
6901.00,1.00
6900.00,1.00
6899.00,1.00
6898.00,1.00
6897.00,1.00
6896.00,1.00
6895.00,1.00
6894.00,1.01
6893.00,1.01
6892.00,1.01
6891.00,1.01
6890.00,1.01
6889.00,1.01
6888.00,1.01
6887.00,1.02
6886.00,1.02
6885.00,1.02
6884.00,1.02
6883.00,1.02
6882.00,1.02
6881.00,1.02
6880.00,1.02
6879.00,1.02
6878.00,1.02
6877.00,1.02
6876.00,1.02
6875.00,1.02
6874.00,1.02
6873.00,1.02
6872.00,1.03
6871.00,1.03
6870.00,1.03
6869.00,1.03
6868.00,1.03
6867.00,1.03
6866.00,1.03
6865.00,1.03
6864.00,1.03
6863.00,1.03
6862.00,1.03
6861.00,1.03
6860.00,1.03
6859.00,1.03
6858.00,1.03
6857.00,1.03
6856.00,1.03
6855.00,1.03
6854.00,1.03
6853.00,1.03
6852.00,1.03
6851.00,1.04
6850.00,1.04
6849.00,1.04
6848.00,1.04
6847.00,1.05
6846.00,1.05
6845.00,1.05
6844.00,1.05
6843.00,1.06
6842.00,1.06
6841.00,1.06
6840.00,1.07
6839.00,1.07
6838.00,1.07
6837.00,1.08
6836.00,1.08
6835.00,1.09
6834.00,1.09
6833.00,1.09
6832.00,1.09
6831.00,1.10
6830.00,1.10
6829.00,1.10
6828.00,1.10
6827.00,1.10
6826.00,1.10
6825.00,1.10
6824.00,1.10
6823.00,1.10
6822.00,1.10
6821.00,1.10
6820.00,1.10
6819.00,1.10
6818.00,1.10
6817.00,1.09
6816.00,1.09
6815.00,1.09
6814.00,1.09
6813.00,1.08
6812.00,1.08
6811.00,1.08
6810.00,1.08
6809.00,1.07
6808.00,1.07
6807.00,1.07
6806.00,1.07
6805.00,1.07
6804.00,1.07
6803.00,1.06
6802.00,1.06
6801.00,1.06
6800.00,1.06
6799.00,1.06
6798.00,1.06
6797.00,1.06
6796.00,1.06
6795.00,1.06
6794.00,1.07
6793.00,1.07
6792.00,1.07
6791.00,1.07
6790.00,1.07
6789.00,1.07
6788.00,1.08
6787.00,1.08
6786.00,1.08
6785.00,1.08
6784.00,1.08
6783.00,1.08
6782.00,1.08
6781.00,1.08
6780.00,1.08
6779.00,1.09
6778.00,1.09
6777.00,1.09
6776.00,1.09
6775.00,1.09
6774.00,1.10
6773.00,1.10
6772.00,1.10
6771.00,1.10
6770.00,1.10
6769.00,1.11
6768.00,1.11
6767.00,1.11
6766.00,1.11
6765.00,1.11
6764.00,1.12
6763.00,1.12
6762.00,1.12
6761.00,1.12
6760.00,1.13
6759.00,1.13
6758.00,1.13
6757.00,1.13
6756.00,1.14
6755.00,1.14
6754.00,1.14
6753.00,1.15
6752.00,1.15
6751.00,1.15
6750.00,1.15
6749.00,1.15
6748.00,1.15
6747.00,1.15
6746.00,1.15
6745.00,1.15
6744.00,1.15
6743.00,1.16
6742.00,1.16
6741.00,1.16
6740.00,1.16
6739.00,1.15
6738.00,1.15
6737.00,1.15
6736.00,1.15
6735.00,1.15
6734.00,1.15
6733.00,1.15
6732.00,1.15
6731.00,1.15
6730.00,1.14
6729.00,1.14
6728.00,1.14
6727.00,1.14
6726.00,1.14
6725.00,1.14
6724.00,1.14
6723.00,1.14
6722.00,1.14
6721.00,1.14
6720.00,1.14
6719.00,1.14
6718.00,1.14
6717.00,1.14
6716.00,1.14
6715.00,1.14
6714.00,1.14
6713.00,1.14
6712.00,1.14
6711.00,1.14
6710.00,1.15
6709.00,1.15
6708.00,1.15
6707.00,1.16
6706.00,1.16
6705.00,1.16
6704.00,1.16
6703.00,1.17
6702.00,1.17
6701.00,1.17
6700.00,1.18
6699.00,1.18
6698.00,1.18
6697.00,1.19
6696.00,1.19
6695.00,1.19
6694.00,1.19
6693.00,1.20
6692.00,1.20
6691.00,1.20
6690.00,1.20
6689.00,1.21
6688.00,1.21
6687.00,1.21
6686.00,1.21
6685.00,1.21
6684.00,1.21
6683.00,1.21
6682.00,1.22
6681.00,1.22
6680.00,1.22
6679.00,1.22
6678.00,1.23
6677.00,1.23
6676.00,1.23
6675.00,1.23
6674.00,1.24
6673.00,1.24
6672.00,1.24
6671.00,1.24
6670.00,1.25
6669.00,1.25
6668.00,1.25
6667.00,1.26
6666.00,1.26
6665.00,1.27
6664.00,1.27
6663.00,1.27
6662.00,1.28
6661.00,1.28
6660.00,1.28
6659.00,1.29
6658.00,1.29
6657.00,1.29
6656.00,1.29
6655.00,1.30
6654.00,1.30
6653.00,1.30
6652.00,1.30
6651.00,1.30
6650.00,1.30
6649.00,1.31
6648.00,1.31
6647.00,1.31
6646.00,1.31
6645.00,1.31
6644.00,1.31
6643.00,1.32
6642.00,1.32
6641.00,1.32
6640.00,1.32
6639.00,1.32
6638.00,1.32
6637.00,1.32
6636.00,1.32
6635.00,1.33
6634.00,1.33
6633.00,1.33
6632.00,1.34
6631.00,1.34
6630.00,1.35
6629.00,1.35
6628.00,1.35
6627.00,1.36
6626.00,1.36
6625.00,1.37
6624.00,1.37
6623.00,1.38
6622.00,1.38
6621.00,1.38
6620.00,1.39
6619.00,1.39
6618.00,1.40
6617.00,1.40
6616.00,1.41
6615.00,1.41
6614.00,1.42
6613.00,1.42
6612.00,1.43
6611.00,1.43
6610.00,1.44
6609.00,1.44
6608.00,1.44
6607.00,1.45
6606.00,1.45
6605.00,1.45
6604.00,1.45
6603.00,1.45
6602.00,1.46
6601.00,1.46
6600.00,1.46
6599.00,1.46
6598.00,1.46
6597.00,1.46
6596.00,1.46
6595.00,1.46
6594.00,1.46
6593.00,1.46
6592.00,1.47
6591.00,1.47
6590.00,1.47
6589.00,1.47
6588.00,1.47
6587.00,1.47
6586.00,1.47
6585.00,1.47
6584.00,1.47
6583.00,1.47
6582.00,1.47
6581.00,1.47
6580.00,1.47
6579.00,1.47
6578.00,1.48
6577.00,1.48
6576.00,1.48
6575.00,1.49
6574.00,1.49
6573.00,1.49
6572.00,1.50
6571.00,1.50
6570.00,1.50
6569.00,1.51
6568.00,1.51
6567.00,1.51
6566.00,1.52
6565.00,1.52
6564.00,1.52
6563.00,1.53
6562.00,1.53
6561.00,1.53
6560.00,1.54
6559.00,1.54
6558.00,1.54
6557.00,1.55
6556.00,1.55
6555.00,1.55
6554.00,1.55
6553.00,1.55
6552.00,1.55
6551.00,1.56
6550.00,1.56
6549.00,1.56
6548.00,1.56
6547.00,1.56
6546.00,1.56
6545.00,1.56
6544.00,1.56
6543.00,1.56
6542.00,1.56
6541.00,1.56
6540.00,1.56
6539.00,1.56
6538.00,1.56
6537.00,1.57
6536.00,1.57
6535.00,1.57
6534.00,1.57
6533.00,1.57
6532.00,1.57
6531.00,1.58
6530.00,1.58
6529.00,1.58
6528.00,1.59
6527.00,1.59
6526.00,1.59
6525.00,1.60
6524.00,1.60
6523.00,1.61
6522.00,1.61
6521.00,1.62
6520.00,1.62
6519.00,1.63
6518.00,1.63
6517.00,1.64
6516.00,1.64
6515.00,1.65
6514.00,1.65
6513.00,1.66
6512.00,1.66
6511.00,1.67
6510.00,1.67
6509.00,1.68
6508.00,1.68
6507.00,1.69
6506.00,1.69
6505.00,1.70
6504.00,1.70
6503.00,1.71
6502.00,1.71
6501.00,1.72
6500.00,1.72
6499.00,1.73
6498.00,1.73
6497.00,1.73
6496.00,1.74
6495.00,1.74
6494.00,1.74
6493.00,1.75
6492.00,1.75
6491.00,1.75
6490.00,1.75
6489.00,1.75
6488.00,1.75
6487.00,1.75
6486.00,1.76
6485.00,1.76
6484.00,1.76
6483.00,1.76
6482.00,1.76
6481.00,1.76
6480.00,1.77
6479.00,1.77
6478.00,1.77
6477.00,1.77
6476.00,1.77
6475.00,1.77
6474.00,1.77
6473.00,1.78
6472.00,1.78
6471.00,1.78
6470.00,1.78
6469.00,1.78
6468.00,1.78
6467.00,1.78
6466.00,1.78
6465.00,1.79
6464.00,1.79
6463.00,1.79
6462.00,1.80
6461.00,1.80
6460.00,1.80
6459.00,1.80
6458.00,1.80
6457.00,1.81
6456.00,1.81
6455.00,1.81
6454.00,1.81
6453.00,1.81
6452.00,1.81
6451.00,1.81
6450.00,1.82
6449.00,1.82
6448.00,1.82
6447.00,1.82
6446.00,1.82
6445.00,1.82
6444.00,1.83
6443.00,1.83
6442.00,1.83
6441.00,1.84
6440.00,1.84
6439.00,1.84
6438.00,1.85
6437.00,1.85
6436.00,1.85
6435.00,1.85
6434.00,1.85
6433.00,1.86
6432.00,1.86
6431.00,1.86
6430.00,1.87
6429.00,1.87
6428.00,1.87
6427.00,1.88
6426.00,1.88
6425.00,1.89
6424.00,1.89
6423.00,1.90
6422.00,1.90
6421.00,1.91
6420.00,1.91
6419.00,1.91
6418.00,1.92
6417.00,1.92
6416.00,1.92
6415.00,1.93
6414.00,1.93
6413.00,1.93
6412.00,1.94
6411.00,1.94
6410.00,1.94
6409.00,1.94
6408.00,1.95
6407.00,1.95
6406.00,1.95
6405.00,1.95
6404.00,1.95
6403.00,1.95
6402.00,1.95
6401.00,1.95
6400.00,1.95
6399.00,1.95
6398.00,1.95
6397.00,1.95
6396.00,1.95
6395.00,1.95
6394.00,1.95
6393.00,1.95
6392.00,1.95
6391.00,1.95
6390.00,1.95
6389.00,1.95
6388.00,1.95
6387.00,1.95
6386.00,1.95
6385.00,1.95
6384.00,1.95
6383.00,1.95
6382.00,1.96
6381.00,1.96
6380.00,1.96
6379.00,1.96
6378.00,1.97
6377.00,1.97
6376.00,1.97
6375.00,1.97
6374.00,1.98
6373.00,1.98
6372.00,1.98
6371.00,1.99
6370.00,1.99
6369.00,1.99
6368.00,2.00
6367.00,2.00
6366.00,2.00
6365.00,2.00
6364.00,2.01
6363.00,2.01
6362.00,2.01
6361.00,2.01
6360.00,2.01
6359.00,2.01
6358.00,2.02
6357.00,2.02
6356.00,2.02
6355.00,2.02
6354.00,2.02
6353.00,2.02
6352.00,2.03
6351.00,2.03
6350.00,2.03
6349.00,2.03
6348.00,2.03
6347.00,2.04
6346.00,2.04
6345.00,2.04
6344.00,2.05
6343.00,2.05
6342.00,2.05
6341.00,2.05
6340.00,2.06
6339.00,2.06
6338.00,2.06
6337.00,2.07
6336.00,2.07
6335.00,2.07
6334.00,2.08
6333.00,2.08
6332.00,2.09
6331.00,2.09
6330.00,2.09
6329.00,2.09
6328.00,2.10
6327.00,2.10
6326.00,2.10
6325.00,2.11
6324.00,2.11
6323.00,2.11
6322.00,2.11
6321.00,2.12
6320.00,2.12
6319.00,2.12
6318.00,2.12
6317.00,2.13
6316.00,2.13
6315.00,2.13
6314.00,2.13
6313.00,2.13
6312.00,2.14
6311.00,2.14
6310.00,2.14
6309.00,2.14
6308.00,2.14
6307.00,2.14
6306.00,2.15
6305.00,2.15
6304.00,2.15
6303.00,2.16
6302.00,2.16
6301.00,2.16
6300.00,2.16
6299.00,2.17
6298.00,2.17
6297.00,2.17
6296.00,2.18
6295.00,2.18
6294.00,2.18
6293.00,2.19
6292.00,2.19
6291.00,2.20
6290.00,2.20
6289.00,2.20
6288.00,2.21
6287.00,2.21
6286.00,2.22
6285.00,2.22
6284.00,2.23
6283.00,2.23
6282.00,2.24
6281.00,2.25
6280.00,2.25
6279.00,2.26
6278.00,2.26
6277.00,2.27
6276.00,2.28
6275.00,2.28
6274.00,2.29
6273.00,2.30
6272.00,2.30
6271.00,2.31
6270.00,2.32
6269.00,2.32
6268.00,2.33
6267.00,2.34
6266.00,2.34
6265.00,2.35
6264.00,2.35
6263.00,2.36
6262.00,2.36
6261.00,2.37
6260.00,2.37
6259.00,2.38
6258.00,2.38
6257.00,2.38
6256.00,2.38
6255.00,2.39
6254.00,2.39
6253.00,2.39
6252.00,2.39
6251.00,2.39
6250.00,2.39
6249.00,2.39
6248.00,2.39
6247.00,2.39
6246.00,2.39
6245.00,2.39
6244.00,2.39
6243.00,2.39
6242.00,2.39
6241.00,2.39
6240.00,2.39
6239.00,2.39
6238.00,2.39
6237.00,2.39
6236.00,2.39
6235.00,2.39
6234.00,2.40
6233.00,2.40
6232.00,2.40
6231.00,2.40
6230.00,2.41
6229.00,2.41
6228.00,2.41
6227.00,2.42
6226.00,2.42
6225.00,2.42
6224.00,2.43
6223.00,2.43
6222.00,2.44
6221.00,2.44
6220.00,2.44
6219.00,2.44
6218.00,2.45
6217.00,2.45
6216.00,2.45
6215.00,2.45
6214.00,2.45
6213.00,2.45
6212.00,2.45
6211.00,2.45
6210.00,2.45
6209.00,2.45
6208.00,2.45
6207.00,2.45
6206.00,2.45
6205.00,2.45
6204.00,2.45
6203.00,2.45
6202.00,2.45
6201.00,2.44
6200.00,2.44
6199.00,2.44
6198.00,2.44
6197.00,2.44
6196.00,2.43
6195.00,2.43
6194.00,2.43
6193.00,2.43
6192.00,2.43
6191.00,2.43
6190.00,2.44
6189.00,2.44
6188.00,2.44
6187.00,2.45
6186.00,2.45
6185.00,2.45
6184.00,2.46
6183.00,2.46
6182.00,2.47
6181.00,2.47
6180.00,2.48
6179.00,2.48
6178.00,2.49
6177.00,2.49
6176.00,2.50
6175.00,2.51
6174.00,2.51
6173.00,2.52
6172.00,2.53
6171.00,2.53
6170.00,2.54
6169.00,2.54
6168.00,2.55
6167.00,2.56
6166.00,2.56
6165.00,2.57
6164.00,2.57
6163.00,2.58
6162.00,2.58
6161.00,2.58
6160.00,2.59
6159.00,2.59
6158.00,2.60
6157.00,2.60
6156.00,2.60
6155.00,2.61
6154.00,2.61
6153.00,2.61
6152.00,2.62
6151.00,2.62
6150.00,2.62
6149.00,2.63
6148.00,2.63
6147.00,2.63
6146.00,2.64
6145.00,2.64
6144.00,2.65
6143.00,2.66
6142.00,2.66
6141.00,2.67
6140.00,2.67
6139.00,2.68
6138.00,2.68
6137.00,2.69
6136.00,2.70
6135.00,2.70
6134.00,2.71
6133.00,2.71
6132.00,2.72
6131.00,2.72
6130.00,2.73
6129.00,2.73
6128.00,2.74
6127.00,2.74
6126.00,2.74
6125.00,2.75
6124.00,2.75
6123.00,2.75
6122.00,2.75
6121.00,2.76
6120.00,2.76
6119.00,2.76
6118.00,2.76
6117.00,2.76
6116.00,2.76
6115.00,2.75
6114.00,2.75
6113.00,2.75
6112.00,2.75
6111.00,2.75
6110.00,2.75
6109.00,2.75
6108.00,2.75
6107.00,2.74
6106.00,2.74
6105.00,2.74
6104.00,2.74
6103.00,2.74
6102.00,2.74
6101.00,2.74
6100.00,2.74
6099.00,2.74
6098.00,2.74
6097.00,2.74
6096.00,2.74
6095.00,2.74
6094.00,2.74
6093.00,2.74
6092.00,2.75
6091.00,2.75
6090.00,2.75
6089.00,2.75
6088.00,2.76
6087.00,2.76
6086.00,2.76
6085.00,2.76
6084.00,2.76
6083.00,2.77
6082.00,2.77
6081.00,2.77
6080.00,2.77
6079.00,2.77
6078.00,2.78
6077.00,2.78
6076.00,2.78
6075.00,2.78
6074.00,2.79
6073.00,2.79
6072.00,2.79
6071.00,2.79
6070.00,2.80
6069.00,2.80
6068.00,2.80
6067.00,2.80
6066.00,2.81
6065.00,2.81
6064.00,2.81
6063.00,2.82
6062.00,2.82
6061.00,2.82
6060.00,2.82
6059.00,2.83
6058.00,2.83
6057.00,2.83
6056.00,2.84
6055.00,2.84
6054.00,2.84
6053.00,2.85
6052.00,2.85
6051.00,2.86
6050.00,2.86
6049.00,2.86
6048.00,2.86
6047.00,2.87
6046.00,2.87
6045.00,2.87
6044.00,2.88
6043.00,2.88
6042.00,2.88
6041.00,2.88
6040.00,2.89
6039.00,2.89
6038.00,2.89
6037.00,2.89
6036.00,2.89
6035.00,2.90
6034.00,2.90
6033.00,2.90
6032.00,2.90
6031.00,2.91
6030.00,2.91
6029.00,2.91
6028.00,2.91
6027.00,2.92
6026.00,2.92
6025.00,2.92
6024.00,2.92
6023.00,2.92
6022.00,2.92
6021.00,2.92
6020.00,2.92
6019.00,2.92
6018.00,2.92
6017.00,2.92
6016.00,2.92
6015.00,2.92
6014.00,2.92
6013.00,2.92
6012.00,2.92
6011.00,2.92
6010.00,2.91
6009.00,2.91
6008.00,2.91
6007.00,2.91
6006.00,2.91
6005.00,2.90
6004.00,2.90
6003.00,2.90
6002.00,2.90
6001.00,2.89
6000.00,2.89
5999.00,2.89
5998.00,2.89
5997.00,2.89
5996.00,2.89
5995.00,2.89
5994.00,2.89
5993.00,2.88
5992.00,2.88
5991.00,2.88
5990.00,2.88
5989.00,2.88
5988.00,2.88
5987.00,2.88
5986.00,2.88
5985.00,2.88
5984.00,2.88
5983.00,2.88
5982.00,2.88
5981.00,2.88
5980.00,2.88
5979.00,2.88
5978.00,2.88
5977.00,2.88
5976.00,2.88
5975.00,2.87
5974.00,2.87
5973.00,2.87
5972.00,2.86
5971.00,2.86
5970.00,2.85
5969.00,2.85
5968.00,2.84
5967.00,2.84
5966.00,2.83
5965.00,2.83
5964.00,2.82
5963.00,2.82
5962.00,2.81
5961.00,2.81
5960.00,2.80
5959.00,2.79
5958.00,2.79
5957.00,2.78
5956.00,2.78
5955.00,2.77
5954.00,2.76
5953.00,2.76
5952.00,2.75
5951.00,2.74
5950.00,2.74
5949.00,2.73
5948.00,2.73
5947.00,2.72
5946.00,2.72
5945.00,2.71
5944.00,2.71
5943.00,2.71
5942.00,2.70
5941.00,2.70
5940.00,2.70
5939.00,2.69
5938.00,2.69
5937.00,2.69
5936.00,2.69
5935.00,2.68
5934.00,2.68
5933.00,2.68
5932.00,2.68
5931.00,2.68
5930.00,2.68
5929.00,2.68
5928.00,2.67
5927.00,2.67
5926.00,2.67
5925.00,2.67
5924.00,2.67
5923.00,2.67
5922.00,2.66
5921.00,2.66
5920.00,2.66
5919.00,2.66
5918.00,2.66
5917.00,2.66
5916.00,2.66
5915.00,2.65
5914.00,2.65
5913.00,2.65
5912.00,2.65
5911.00,2.65
5910.00,2.65
5909.00,2.64
5908.00,2.64
5907.00,2.64
5906.00,2.63
5905.00,2.63
5904.00,2.63
5903.00,2.63
5902.00,2.63
5901.00,2.62
5900.00,2.62
5899.00,2.62
5898.00,2.62
5897.00,2.62
5896.00,2.62
5895.00,2.62
5894.00,2.62
5893.00,2.62
5892.00,2.62
5891.00,2.62
5890.00,2.63
5889.00,2.63
5888.00,2.63
5887.00,2.63
5886.00,2.63
5885.00,2.63
5884.00,2.64
5883.00,2.64
5882.00,2.64
5881.00,2.65
5880.00,2.65
5879.00,2.65
5878.00,2.66
5877.00,2.66
5876.00,2.67
5875.00,2.67
5874.00,2.68
5873.00,2.68
5872.00,2.69
5871.00,2.69
5870.00,2.70
5869.00,2.70
5868.00,2.71
5867.00,2.71
5866.00,2.72
5865.00,2.72
5864.00,2.73
5863.00,2.73
5862.00,2.74
5861.00,2.74
5860.00,2.75
5859.00,2.75
5858.00,2.76
5857.00,2.76
5856.00,2.77
5855.00,2.77
5854.00,2.77
5853.00,2.78
5852.00,2.78
5851.00,2.78
5850.00,2.79
5849.00,2.79
5848.00,2.79
5847.00,2.79
5846.00,2.79
5845.00,2.79
5844.00,2.79
5843.00,2.79
5842.00,2.79
5841.00,2.79
5840.00,2.79
5839.00,2.79
5838.00,2.79
5837.00,2.78
5836.00,2.78
5835.00,2.78
5834.00,2.78
5833.00,2.78
5832.00,2.78
5831.00,2.78
5830.00,2.77
5829.00,2.77
5828.00,2.77
5827.00,2.77
5826.00,2.76
5825.00,2.76
5824.00,2.76
5823.00,2.76
5822.00,2.76
5821.00,2.75
5820.00,2.75
5819.00,2.75
5818.00,2.75
5817.00,2.75
5816.00,2.75
5815.00,2.75
5814.00,2.75
5813.00,2.74
5812.00,2.74
5811.00,2.74
5810.00,2.74
5809.00,2.74
5808.00,2.74
5807.00,2.73
5806.00,2.73
5805.00,2.73
5804.00,2.73
5803.00,2.72
5802.00,2.72
5801.00,2.72
5800.00,2.72
5799.00,2.72
5798.00,2.72
5797.00,2.71
5796.00,2.71
5795.00,2.71
5794.00,2.71
5793.00,2.70
5792.00,2.70
5791.00,2.70
5790.00,2.70
5789.00,2.70
5788.00,2.70
5787.00,2.70
5786.00,2.69
5785.00,2.69
5784.00,2.69
5783.00,2.69
5782.00,2.69
5781.00,2.69
5780.00,2.69
5779.00,2.70
5778.00,2.70
5777.00,2.70
5776.00,2.70
5775.00,2.70
5774.00,2.70
5773.00,2.70
5772.00,2.70
5771.00,2.70
5770.00,2.70
5769.00,2.71
5768.00,2.71
5767.00,2.71
5766.00,2.71
5765.00,2.71
5764.00,2.72
5763.00,2.72
5762.00,2.72
5761.00,2.72
5760.00,2.72
5759.00,2.72
5758.00,2.72
5757.00,2.72
5756.00,2.72
5755.00,2.72
5754.00,2.72
5753.00,2.72
5752.00,2.72
5751.00,2.72
5750.00,2.72
5749.00,2.72
5748.00,2.72
5747.00,2.72
5746.00,2.72
5745.00,2.72
5744.00,2.72
5743.00,2.72
5742.00,2.72
5741.00,2.72
5740.00,2.72
5739.00,2.72
5738.00,2.72
5737.00,2.72
5736.00,2.72
5735.00,2.72
5734.00,2.72
5733.00,2.72
5732.00,2.72
5731.00,2.71
5730.00,2.71
5729.00,2.71
5728.00,2.71
5727.00,2.70
5726.00,2.70
5725.00,2.70
5724.00,2.70
5723.00,2.70
5722.00,2.69
5721.00,2.69
5720.00,2.69
5719.00,2.69
5718.00,2.68
5717.00,2.68
5716.00,2.68
5715.00,2.68
5714.00,2.68
5713.00,2.67
5712.00,2.67
5711.00,2.67
5710.00,2.67
5709.00,2.67
5708.00,2.67
5707.00,2.66
5706.00,2.66
5705.00,2.66
5704.00,2.66
5703.00,2.66
5702.00,2.66
5701.00,2.66
5700.00,2.66
5699.00,2.66
5698.00,2.66
5697.00,2.66
5696.00,2.66
5695.00,2.66
5694.00,2.66
5693.00,2.66
5692.00,2.66
5691.00,2.66
5690.00,2.66
5689.00,2.66
5688.00,2.66
5687.00,2.66
5686.00,2.66
5685.00,2.66
5684.00,2.66
5683.00,2.66
5682.00,2.66
5681.00,2.66
5680.00,2.66
5679.00,2.66
5678.00,2.65
5677.00,2.65
5676.00,2.65
5675.00,2.65
5674.00,2.65
5673.00,2.65
5672.00,2.65
5671.00,2.65
5670.00,2.65
5669.00,2.65
5668.00,2.65
5667.00,2.65
5666.00,2.65
5665.00,2.65
5664.00,2.65
5663.00,2.65
5662.00,2.65
5661.00,2.65
5660.00,2.65
5659.00,2.65
5658.00,2.66
5657.00,2.66
5656.00,2.66
5655.00,2.66
5654.00,2.66
5653.00,2.66
5652.00,2.66
5651.00,2.66
5650.00,2.66
5649.00,2.66
5648.00,2.66
5647.00,2.66
5646.00,2.66
5645.00,2.66
5644.00,2.66
5643.00,2.66
5642.00,2.66
5641.00,2.66
5640.00,2.66
5639.00,2.66
5638.00,2.66
5637.00,2.66
5636.00,2.66
5635.00,2.66
5634.00,2.66
5633.00,2.66
5632.00,2.67
5631.00,2.67
5630.00,2.67
5629.00,2.67
5628.00,2.67
5627.00,2.67
5626.00,2.67
5625.00,2.67
5624.00,2.68
5623.00,2.68
5622.00,2.68
5621.00,2.68
5620.00,2.68
5619.00,2.68
5618.00,2.69
5617.00,2.69
5616.00,2.69
5615.00,2.69
5614.00,2.69
5613.00,2.70
5612.00,2.70
5611.00,2.70
5610.00,2.71
5609.00,2.71
5608.00,2.71
5607.00,2.71
5606.00,2.72
5605.00,2.72
5604.00,2.72
5603.00,2.72
5602.00,2.73
5601.00,2.73
5600.00,2.73
5599.00,2.73
5598.00,2.74
5597.00,2.74
5596.00,2.74
5595.00,2.75
5594.00,2.75
5593.00,2.75
5592.00,2.76
5591.00,2.76
5590.00,2.76
5589.00,2.77
5588.00,2.77
5587.00,2.77
5586.00,2.77
5585.00,2.77
5584.00,2.78
5583.00,2.78
5582.00,2.78
5581.00,2.78
5580.00,2.79
5579.00,2.79
5578.00,2.79
5577.00,2.79
5576.00,2.79
5575.00,2.79
5574.00,2.80
5573.00,2.80
5572.00,2.80
5571.00,2.80
5570.00,2.80
5569.00,2.80
5568.00,2.80
5567.00,2.80
5566.00,2.80
5565.00,2.80
5564.00,2.80
5563.00,2.80
5562.00,2.81
5561.00,2.81
5560.00,2.81
5559.00,2.81
5558.00,2.81
5557.00,2.81
5556.00,2.81
5555.00,2.82
5554.00,2.82
5553.00,2.82
5552.00,2.82
5551.00,2.82
5550.00,2.82
5549.00,2.83
5548.00,2.83
5547.00,2.83
5546.00,2.83
5545.00,2.83
5544.00,2.84
5543.00,2.84
5542.00,2.84
5541.00,2.84
5540.00,2.85
5539.00,2.85
5538.00,2.85
5537.00,2.85
5536.00,2.85
5535.00,2.85
5534.00,2.85
5533.00,2.85
5532.00,2.85
5531.00,2.86
5530.00,2.86
5529.00,2.86
5528.00,2.86
5527.00,2.86
5526.00,2.86
5525.00,2.86
5524.00,2.86
5523.00,2.86
5522.00,2.87
5521.00,2.87
5520.00,2.87
5519.00,2.87
5518.00,2.87
5517.00,2.87
5516.00,2.88
5515.00,2.88
5514.00,2.88
5513.00,2.88
5512.00,2.88
5511.00,2.89
5510.00,2.89
5509.00,2.89
5508.00,2.90
5507.00,2.90
5506.00,2.90
5505.00,2.90
5504.00,2.90
5503.00,2.90
5502.00,2.91
5501.00,2.91
5500.00,2.91
5499.00,2.91
5498.00,2.91
5497.00,2.91
5496.00,2.91
5495.00,2.91
5494.00,2.91
5493.00,2.91
5492.00,2.91
5491.00,2.91
5490.00,2.91
5489.00,2.91
5488.00,2.91
5487.00,2.91
5486.00,2.91
5485.00,2.91
5484.00,2.91
5483.00,2.91
5482.00,2.91
5481.00,2.91
5480.00,2.91
5479.00,2.91
5478.00,2.91
5477.00,2.91
5476.00,2.91
5475.00,2.91
5474.00,2.91
5473.00,2.91
5472.00,2.91
5471.00,2.91
5470.00,2.92
5469.00,2.92
5468.00,2.92
5467.00,2.92
5466.00,2.92
5465.00,2.92
5464.00,2.92
5463.00,2.92
5462.00,2.91
5461.00,2.91
5460.00,2.91
5459.00,2.91
5458.00,2.91
5457.00,2.91
5456.00,2.91
5455.00,2.91
5454.00,2.90
5453.00,2.90
5452.00,2.90
5451.00,2.90
5450.00,2.89
5449.00,2.89
5448.00,2.89
5447.00,2.88
5446.00,2.88
5445.00,2.87
5444.00,2.87
5443.00,2.87
5442.00,2.86
5441.00,2.86
5440.00,2.86
5439.00,2.85
5438.00,2.85
5437.00,2.85
5436.00,2.85
5435.00,2.84
5434.00,2.84
5433.00,2.84
5432.00,2.83
5431.00,2.83
5430.00,2.83
5429.00,2.82
5428.00,2.82
5427.00,2.82
5426.00,2.82
5425.00,2.82
5424.00,2.81
5423.00,2.81
5422.00,2.81
5421.00,2.81
5420.00,2.81
5419.00,2.81
5418.00,2.81
5417.00,2.81
5416.00,2.81
5415.00,2.81
5414.00,2.81
5413.00,2.81
5412.00,2.80
5411.00,2.80
5410.00,2.80
5409.00,2.80
5408.00,2.80
5407.00,2.80
5406.00,2.79
5405.00,2.79
5404.00,2.79
5403.00,2.79
5402.00,2.79
5401.00,2.78
5400.00,2.78
5399.00,2.77
5398.00,2.77
5397.00,2.76
5396.00,2.76
5395.00,2.75
5394.00,2.74
5393.00,2.73
5392.00,2.73
5391.00,2.72
5390.00,2.71
5389.00,2.70
5388.00,2.70
5387.00,2.69
5386.00,2.68
5385.00,2.67
5384.00,2.66
5383.00,2.65
5382.00,2.65
5381.00,2.64
5380.00,2.63
5379.00,2.62
5378.00,2.60
5377.00,2.59
5376.00,2.58
5375.00,2.57
5374.00,2.56
5373.00,2.55
5372.00,2.54
5371.00,2.53
5370.00,2.51
5369.00,2.50
5368.00,2.49
5367.00,2.48
5366.00,2.47
5365.00,2.45
5364.00,2.44
5363.00,2.43
5362.00,2.41
5361.00,2.40
5360.00,2.38
5359.00,2.36
5358.00,2.34
5357.00,2.32
5356.00,2.31
5355.00,2.29
5354.00,2.27
5353.00,2.25
5352.00,2.23
5351.00,2.21
5350.00,2.19
5349.00,2.17
5348.00,2.14
5347.00,2.12
5346.00,2.10
5345.00,2.08
5344.00,2.06
5343.00,2.04
5342.00,2.02
5341.00,1.99
5340.00,1.97
5339.00,1.95
5338.00,1.93
5337.00,1.91
5336.00,1.89
5335.00,1.87
5334.00,1.85
5333.00,1.83
5332.00,1.81
5331.00,1.79
5330.00,1.78
5329.00,1.76
5328.00,1.74
5327.00,1.73
5326.00,1.71
5325.00,1.70
5324.00,1.68
5323.00,1.67
5322.00,1.65
5321.00,1.64
5320.00,1.62
5319.00,1.61
5318.00,1.59
5317.00,1.58
5316.00,1.57
5315.00,1.55
5314.00,1.54
5313.00,1.53
5312.00,1.51
5311.00,1.50
5310.00,1.49
5309.00,1.48
5308.00,1.46
5307.00,1.45
5306.00,1.44
5305.00,1.43
5304.00,1.41
5303.00,1.40
5302.00,1.39
5301.00,1.38
5300.00,1.37
5299.00,1.36
5298.00,1.35
5297.00,1.34
5296.00,1.34
5295.00,1.33
5294.00,1.32
5293.00,1.31
5292.00,1.31
5291.00,1.30
5290.00,1.30
5289.00,1.29
5288.00,1.28
5287.00,1.28
5286.00,1.28
5285.00,1.27
5284.00,1.27
5283.00,1.26
5282.00,1.26
5281.00,1.26
5280.00,1.25
5279.00,1.25
5278.00,1.25
5277.00,1.24
5276.00,1.24
5275.00,1.24
5274.00,1.24
5273.00,1.23
5272.00,1.23
5271.00,1.23
5270.00,1.22
5269.00,1.22
5268.00,1.21
5267.00,1.21
5266.00,1.20
5265.00,1.20
5264.00,1.20
5263.00,1.19
5262.00,1.19
5261.00,1.19
5260.00,1.18
5259.00,1.18
5258.00,1.18
5257.00,1.17
5256.00,1.17
5255.00,1.17
5254.00,1.17
5253.00,1.16
5252.00,1.16
5251.00,1.16
5250.00,1.16
5249.00,1.16
5248.00,1.16
5247.00,1.16
5246.00,1.16
5245.00,1.16
5244.00,1.16
5243.00,1.16
5242.00,1.16
5241.00,1.17
5240.00,1.17
5239.00,1.17
5238.00,1.17
5237.00,1.17
5236.00,1.18
5235.00,1.18
5234.00,1.18
5233.00,1.18
5232.00,1.18
5231.00,1.19
5230.00,1.19
5229.00,1.19
5228.00,1.19
5227.00,1.19
5226.00,1.19
5225.00,1.19
5224.00,1.19
5223.00,1.19
5222.00,1.19
5221.00,1.19
5220.00,1.19
5219.00,1.19
5218.00,1.19
5217.00,1.19
5216.00,1.19
5215.00,1.19
5214.00,1.19
5213.00,1.19
5212.00,1.19
5211.00,1.19
5210.00,1.19
5209.00,1.19
5208.00,1.19
5207.00,1.20
5206.00,1.20
5205.00,1.20
5204.00,1.20
5203.00,1.21
5202.00,1.21
5201.00,1.21
5200.00,1.22
5199.00,1.22
5198.00,1.22
5197.00,1.23
5196.00,1.23
5195.00,1.24
5194.00,1.24
5193.00,1.25
5192.00,1.25
5191.00,1.25
5190.00,1.26
5189.00,1.26
5188.00,1.26
5187.00,1.27
5186.00,1.27
5185.00,1.27
5184.00,1.27
5183.00,1.27
5182.00,1.27
5181.00,1.27
5180.00,1.27
5179.00,1.27
5178.00,1.27
5177.00,1.27
5176.00,1.27
5175.00,1.27
5174.00,1.27
5173.00,1.27
5172.00,1.27
5171.00,1.26
5170.00,1.26
5169.00,1.26
5168.00,1.26
5167.00,1.26
5166.00,1.25
5165.00,1.25
5164.00,1.25
5163.00,1.25
5162.00,1.25
5161.00,1.25
5160.00,1.25
5159.00,1.25
5158.00,1.25
5157.00,1.25
5156.00,1.26
5155.00,1.26
5154.00,1.26
5153.00,1.26
5152.00,1.26
5151.00,1.27
5150.00,1.27
5149.00,1.27
5148.00,1.28
5147.00,1.28
5146.00,1.29
5145.00,1.29
5144.00,1.29
5143.00,1.30
5142.00,1.30
5141.00,1.30
5140.00,1.31
5139.00,1.31
5138.00,1.31
5137.00,1.31
5136.00,1.32
5135.00,1.32
5134.00,1.32
5133.00,1.32
5132.00,1.32
5131.00,1.33
5130.00,1.33
5129.00,1.33
5128.00,1.33
5127.00,1.33
5126.00,1.33
5125.00,1.34
5124.00,1.34
5123.00,1.34
5122.00,1.34
5121.00,1.34
5120.00,1.34
5119.00,1.34
5118.00,1.34
5117.00,1.34
5116.00,1.35
5115.00,1.35
5114.00,1.35
5113.00,1.35
5112.00,1.35
5111.00,1.35
5110.00,1.35
5109.00,1.35
5108.00,1.35
5107.00,1.35
5106.00,1.35
5105.00,1.35
5104.00,1.35
5103.00,1.35
5102.00,1.35
5101.00,1.35
5100.00,1.35
5099.00,1.34
5098.00,1.34
5097.00,1.34
5096.00,1.34
5095.00,1.34
5094.00,1.34
5093.00,1.34
5092.00,1.34
5091.00,1.34
5090.00,1.34
5089.00,1.34
5088.00,1.35
5087.00,1.35
5086.00,1.35
5085.00,1.36
5084.00,1.36
5083.00,1.36
5082.00,1.37
5081.00,1.37
5080.00,1.37
5079.00,1.38
5078.00,1.38
5077.00,1.38
5076.00,1.38
5075.00,1.39
5074.00,1.39
5073.00,1.39
5072.00,1.39
5071.00,1.39
5070.00,1.39
5069.00,1.40
5068.00,1.40
5067.00,1.40
5066.00,1.40
5065.00,1.40
5064.00,1.40
5063.00,1.40
5062.00,1.40
5061.00,1.40
5060.00,1.39
5059.00,1.39
5058.00,1.39
5057.00,1.39
5056.00,1.38
5055.00,1.38
5054.00,1.38
5053.00,1.37
5052.00,1.37
5051.00,1.37
5050.00,1.37
5049.00,1.37
5048.00,1.36
5047.00,1.36
5046.00,1.36
5045.00,1.36
5044.00,1.36
5043.00,1.36
5042.00,1.36
5041.00,1.36
5040.00,1.36
5039.00,1.37
5038.00,1.37
5037.00,1.37
5036.00,1.37
5035.00,1.37
5034.00,1.37
5033.00,1.38
5032.00,1.38
5031.00,1.38
5030.00,1.38
5029.00,1.39
5028.00,1.39
5027.00,1.39
5026.00,1.40
5025.00,1.40
5024.00,1.40
5023.00,1.41
5022.00,1.41
5021.00,1.41
5020.00,1.42
5019.00,1.42
5018.00,1.42
5017.00,1.43
5016.00,1.43
5015.00,1.43
5014.00,1.43
5013.00,1.43
5012.00,1.43
5011.00,1.44
5010.00,1.44
5009.00,1.44
5008.00,1.44
5007.00,1.44
5006.00,1.44
5005.00,1.44
5004.00,1.44
5003.00,1.44
5002.00,1.44
5001.00,1.44
5000.00,1.44
4999.00,1.44
4998.00,1.44
4997.00,1.44
4996.00,1.44
4995.00,1.44
4994.00,1.44
4993.00,1.44
4992.00,1.44
4991.00,1.44
4990.00,1.44
4989.00,1.45
4988.00,1.45
4987.00,1.45
4986.00,1.46
4985.00,1.46
4984.00,1.46
4983.00,1.47
4982.00,1.47
4981.00,1.48
4980.00,1.48
4979.00,1.49
4978.00,1.49
4977.00,1.50
4976.00,1.50
4975.00,1.51
4974.00,1.51
4973.00,1.51
4972.00,1.52
4971.00,1.52
4970.00,1.52
4969.00,1.53
4968.00,1.53
4967.00,1.53
4966.00,1.53
4965.00,1.53
4964.00,1.53
4963.00,1.53
4962.00,1.53
4961.00,1.53
4960.00,1.53
4959.00,1.53
4958.00,1.53
4957.00,1.53
4956.00,1.53
4955.00,1.53
4954.00,1.53
4953.00,1.53
4952.00,1.53
4951.00,1.53
4950.00,1.53
4949.00,1.53
4948.00,1.53
4947.00,1.54
4946.00,1.54
4945.00,1.54
4944.00,1.54
4943.00,1.55
4942.00,1.55
4941.00,1.55
4940.00,1.56
4939.00,1.56
4938.00,1.57
4937.00,1.57
4936.00,1.58
4935.00,1.58
4934.00,1.59
4933.00,1.59
4932.00,1.60
4931.00,1.60
4930.00,1.61
4929.00,1.61
4928.00,1.61
4927.00,1.62
4926.00,1.62
4925.00,1.62
4924.00,1.63
4923.00,1.63
4922.00,1.63
4921.00,1.63
4920.00,1.64
4919.00,1.64
4918.00,1.64
4917.00,1.64
4916.00,1.64
4915.00,1.64
4914.00,1.64
4913.00,1.64
4912.00,1.64
4911.00,1.64
4910.00,1.64
4909.00,1.64
4908.00,1.64
4907.00,1.64
4906.00,1.64
4905.00,1.64
4904.00,1.64
4903.00,1.64
4902.00,1.64
4901.00,1.64
4900.00,1.64
4899.00,1.64
4898.00,1.64
4897.00,1.64
4896.00,1.64
4895.00,1.64
4894.00,1.64
4893.00,1.64
4892.00,1.64
4891.00,1.64
4890.00,1.64
4889.00,1.64
4888.00,1.64
4887.00,1.64
4886.00,1.64
4885.00,1.64
4884.00,1.64
4883.00,1.64
4882.00,1.64
4881.00,1.64
4880.00,1.64
4879.00,1.64
4878.00,1.64
4877.00,1.64
4876.00,1.64
4875.00,1.64
4874.00,1.64
4873.00,1.64
4872.00,1.65
4871.00,1.65
4870.00,1.65
4869.00,1.65
4868.00,1.65
4867.00,1.66
4866.00,1.66
4865.00,1.66
4864.00,1.66
4863.00,1.67
4862.00,1.67
4861.00,1.67
4860.00,1.68
4859.00,1.68
4858.00,1.69
4857.00,1.69
4856.00,1.70
4855.00,1.70
4854.00,1.71
4853.00,1.71
4852.00,1.72
4851.00,1.72
4850.00,1.73
4849.00,1.73
4848.00,1.74
4847.00,1.74
4846.00,1.74
4845.00,1.75
4844.00,1.75
4843.00,1.76
4842.00,1.76
4841.00,1.76
4840.00,1.77
4839.00,1.77
4838.00,1.78
4837.00,1.78
4836.00,1.79
4835.00,1.79
4834.00,1.79
4833.00,1.79
4832.00,1.80
4831.00,1.80
4830.00,1.80
4829.00,1.81
4828.00,1.81
4827.00,1.81
4826.00,1.81
4825.00,1.82
4824.00,1.82
4823.00,1.82
4822.00,1.82
4821.00,1.82
4820.00,1.83
4819.00,1.83
4818.00,1.83
4817.00,1.83
4816.00,1.83
4815.00,1.84
4814.00,1.84
4813.00,1.84
4812.00,1.84
4811.00,1.85
4810.00,1.85
4809.00,1.85
4808.00,1.85
4807.00,1.86
4806.00,1.86
4805.00,1.86
4804.00,1.86
4803.00,1.87
4802.00,1.87
4801.00,1.87
4800.00,1.87
4799.00,1.88
4798.00,1.88
4797.00,1.89
4796.00,1.89
4795.00,1.90
4794.00,1.90
4793.00,1.91
4792.00,1.91
4791.00,1.92
4790.00,1.93
4789.00,1.93
4788.00,1.94
4787.00,1.95
4786.00,1.95
4785.00,1.96
4784.00,1.97
4783.00,1.97
4782.00,1.98
4781.00,1.99
4780.00,2.00
4779.00,2.00
4778.00,2.01
4777.00,2.02
4776.00,2.03
4775.00,2.03
4774.00,2.04
4773.00,2.05
4772.00,2.05
4771.00,2.06
4770.00,2.06
4769.00,2.07
4768.00,2.07
4767.00,2.07
4766.00,2.07
4765.00,2.08
4764.00,2.08
4763.00,2.08
4762.00,2.08
4761.00,2.08
4760.00,2.09
4759.00,2.09
4758.00,2.09
4757.00,2.09
4756.00,2.09
4755.00,2.10
4754.00,2.10
4753.00,2.10
4752.00,2.10
4751.00,2.10
4750.00,2.10
4749.00,2.11
4748.00,2.11
4747.00,2.11
4746.00,2.12
4745.00,2.12
4744.00,2.13
4743.00,2.13
4742.00,2.13
4741.00,2.14
4740.00,2.14
4739.00,2.15
4738.00,2.15
4737.00,2.15
4736.00,2.16
4735.00,2.16
4734.00,2.17
4733.00,2.17
4732.00,2.17
4731.00,2.18
4730.00,2.18
4729.00,2.18
4728.00,2.18
4727.00,2.19
4726.00,2.19
4725.00,2.19
4724.00,2.19
4723.00,2.19
4722.00,2.19
4721.00,2.19
4720.00,2.19
4719.00,2.19
4718.00,2.19
4717.00,2.19
4716.00,2.19
4715.00,2.19
4714.00,2.19
4713.00,2.19
4712.00,2.19
4711.00,2.20
4710.00,2.20
4709.00,2.20
4708.00,2.20
4707.00,2.20
4706.00,2.20
4705.00,2.20
4704.00,2.20
4703.00,2.21
4702.00,2.21
4701.00,2.21
4700.00,2.21
4699.00,2.22
4698.00,2.22
4697.00,2.22
4696.00,2.23
4695.00,2.23
4694.00,2.24
4693.00,2.24
4692.00,2.25
4691.00,2.25
4690.00,2.26
4689.00,2.26
4688.00,2.27
4687.00,2.27
4686.00,2.28
4685.00,2.28
4684.00,2.29
4683.00,2.29
4682.00,2.30
4681.00,2.30
4680.00,2.31
4679.00,2.32
4678.00,2.33
4677.00,2.33
4676.00,2.34
4675.00,2.35
4674.00,2.35
4673.00,2.36
4672.00,2.37
4671.00,2.37
4670.00,2.38
4669.00,2.39
4668.00,2.39
4667.00,2.40
4666.00,2.41
4665.00,2.41
4664.00,2.42
4663.00,2.43
4662.00,2.43
4661.00,2.44
4660.00,2.44
4659.00,2.45
4658.00,2.45
4657.00,2.46
4656.00,2.46
4655.00,2.47
4654.00,2.47
4653.00,2.47
4652.00,2.47
4651.00,2.48
4650.00,2.48
4649.00,2.48
4648.00,2.49
4647.00,2.49
4646.00,2.49
4645.00,2.49
4644.00,2.49
4643.00,2.50
4642.00,2.50
4641.00,2.50
4640.00,2.50
4639.00,2.51
4638.00,2.51
4637.00,2.51
4636.00,2.51
4635.00,2.51
4634.00,2.51
4633.00,2.52
4632.00,2.52
4631.00,2.52
4630.00,2.52
4629.00,2.53
4628.00,2.53
4627.00,2.53
4626.00,2.53
4625.00,2.53
4624.00,2.54
4623.00,2.54
4622.00,2.54
4621.00,2.54
4620.00,2.54
4619.00,2.54
4618.00,2.54
4617.00,2.54
4616.00,2.54
4615.00,2.54
4614.00,2.54
4613.00,2.54
4612.00,2.54
4611.00,2.54
4610.00,2.54
4609.00,2.54
4608.00,2.54
4607.00,2.55
4606.00,2.55
4605.00,2.55
4604.00,2.55
4603.00,2.55
4602.00,2.55
4601.00,2.55
4600.00,2.55
4599.00,2.55
4598.00,2.55
4597.00,2.56
4596.00,2.56
4595.00,2.56
4594.00,2.57
4593.00,2.57
4592.00,2.57
4591.00,2.58
4590.00,2.58
4589.00,2.58
4588.00,2.59
4587.00,2.59
4586.00,2.59
4585.00,2.60
4584.00,2.60
4583.00,2.61
4582.00,2.61
4581.00,2.61
4580.00,2.61
4579.00,2.62
4578.00,2.62
4577.00,2.62
4576.00,2.63
4575.00,2.63
4574.00,2.63
4573.00,2.63
4572.00,2.64
4571.00,2.64
4570.00,2.64
4569.00,2.64
4568.00,2.64
4567.00,2.64
4566.00,2.64
4565.00,2.64
4564.00,2.64
4563.00,2.65
4562.00,2.65
4561.00,2.65
4560.00,2.65
4559.00,2.65
4558.00,2.66
4557.00,2.66
4556.00,2.66
4555.00,2.66
4554.00,2.67
4553.00,2.67
4552.00,2.67
4551.00,2.68
4550.00,2.68
4549.00,2.68
4548.00,2.69
4547.00,2.69
4546.00,2.69
4545.00,2.70
4544.00,2.70
4543.00,2.71
4542.00,2.71
4541.00,2.72
4540.00,2.72
4539.00,2.73
4538.00,2.73
4537.00,2.73
4536.00,2.74
4535.00,2.74
4534.00,2.74
4533.00,2.74
4532.00,2.75
4531.00,2.75
4530.00,2.75
4529.00,2.75
4528.00,2.75
4527.00,2.76
4526.00,2.76
4525.00,2.76
4524.00,2.76
4523.00,2.76
4522.00,2.76
4521.00,2.76
4520.00,2.76
4519.00,2.76
4518.00,2.76
4517.00,2.76
4516.00,2.75
4515.00,2.75
4514.00,2.75
4513.00,2.75
4512.00,2.74
4511.00,2.74
4510.00,2.74
4509.00,2.73
4508.00,2.73
4507.00,2.72
4506.00,2.72
4505.00,2.72
4504.00,2.71
4503.00,2.71
4502.00,2.70
4501.00,2.70
4500.00,2.69
4499.00,2.69
4498.00,2.68
4497.00,2.68
4496.00,2.68
4495.00,2.67
4494.00,2.67
4493.00,2.67
4492.00,2.67
4491.00,2.66
4490.00,2.66
4489.00,2.66
4488.00,2.66
4487.00,2.66
4486.00,2.66
4485.00,2.65
4484.00,2.65
4483.00,2.65
4482.00,2.65
4481.00,2.65
4480.00,2.64
4479.00,2.64
4478.00,2.64
4477.00,2.64
4476.00,2.64
4475.00,2.64
4474.00,2.64
4473.00,2.64
4472.00,2.64
4471.00,2.64
4470.00,2.64
4469.00,2.64
4468.00,2.64
4467.00,2.63
4466.00,2.63
4465.00,2.63
4464.00,2.63
4463.00,2.62
4462.00,2.62
4461.00,2.62
4460.00,2.62
4459.00,2.61
4458.00,2.61
4457.00,2.61
4456.00,2.61
4455.00,2.60
4454.00,2.60
4453.00,2.60
4452.00,2.59
4451.00,2.59
4450.00,2.58
4449.00,2.58
4448.00,2.57
4447.00,2.56
4446.00,2.56
4445.00,2.55
4444.00,2.54
4443.00,2.53
4442.00,2.52
4441.00,2.51
4440.00,2.49
4439.00,2.48
4438.00,2.47
4437.00,2.46
4436.00,2.45
4435.00,2.43
4434.00,2.42
4433.00,2.41
4432.00,2.40
4431.00,2.38
4430.00,2.37
4429.00,2.36
4428.00,2.34
4427.00,2.33
4426.00,2.32
4425.00,2.30
4424.00,2.29
4423.00,2.28
4422.00,2.27
4421.00,2.26
4420.00,2.25
4419.00,2.25
4418.00,2.24
4417.00,2.23
4416.00,2.23
4415.00,2.23
4414.00,2.22
4413.00,2.22
4412.00,2.22
4411.00,2.22
4410.00,2.22
4409.00,2.22
4408.00,2.22
4407.00,2.22
4406.00,2.22
4405.00,2.23
4404.00,2.23
4403.00,2.23
4402.00,2.23
4401.00,2.24
4400.00,2.24
4399.00,2.24
4398.00,2.25
4397.00,2.25
4396.00,2.26
4395.00,2.26
4394.00,2.27
4393.00,2.27
4392.00,2.28
4391.00,2.28
4390.00,2.29
4389.00,2.29
4388.00,2.30
4387.00,2.30
4386.00,2.30
4385.00,2.31
4384.00,2.31
4383.00,2.31
4382.00,2.32
4381.00,2.32
4380.00,2.33
4379.00,2.33
4378.00,2.33
4377.00,2.34
4376.00,2.34
4375.00,2.34
4374.00,2.34
4373.00,2.35
4372.00,2.35
4371.00,2.35
4370.00,2.35
4369.00,2.34
4368.00,2.34
4367.00,2.34
4366.00,2.34
4365.00,2.34
4364.00,2.33
4363.00,2.33
4362.00,2.32
4361.00,2.32
4360.00,2.31
4359.00,2.30
4358.00,2.30
4357.00,2.29
4356.00,2.28
4355.00,2.27
4354.00,2.27
4353.00,2.26
4352.00,2.25
4351.00,2.24
4350.00,2.24
4349.00,2.23
4348.00,2.23
4347.00,2.22
4346.00,2.22
4345.00,2.21
4344.00,2.21
4343.00,2.21
4342.00,2.20
4341.00,2.20
4340.00,2.20
4339.00,2.20
4338.00,2.20
4337.00,2.20
4336.00,2.20
4335.00,2.21
4334.00,2.21
4333.00,2.21
4332.00,2.21
4331.00,2.22
4330.00,2.22
4329.00,2.23
4328.00,2.23
4327.00,2.23
4326.00,2.24
4325.00,2.24
4324.00,2.25
4323.00,2.25
4322.00,2.26
4321.00,2.26
4320.00,2.27
4319.00,2.27
4318.00,2.28
4317.00,2.28
4316.00,2.29
4315.00,2.29
4314.00,2.30
4313.00,2.30
4312.00,2.31
4311.00,2.31
4310.00,2.31
4309.00,2.32
4308.00,2.32
4307.00,2.33
4306.00,2.33
4305.00,2.34
4304.00,2.34
4303.00,2.35
4302.00,2.36
4301.00,2.36
4300.00,2.37
4299.00,2.37
4298.00,2.38
4297.00,2.38
4296.00,2.39
4295.00,2.39
4294.00,2.40
4293.00,2.40
4292.00,2.41
4291.00,2.42
4290.00,2.42
4289.00,2.42
4288.00,2.43
4287.00,2.43
4286.00,2.44
4285.00,2.44
4284.00,2.45
4283.00,2.45
4282.00,2.46
4281.00,2.46
4280.00,2.46
4279.00,2.46
4278.00,2.46
4277.00,2.47
4276.00,2.47
4275.00,2.47
4274.00,2.47
4273.00,2.47
4272.00,2.47
4271.00,2.47
4270.00,2.47
4269.00,2.47
4268.00,2.47
4267.00,2.47
4266.00,2.47
4265.00,2.47
4264.00,2.47
4263.00,2.47
4262.00,2.47
4261.00,2.47
4260.00,2.47
4259.00,2.47
4258.00,2.47
4257.00,2.47
4256.00,2.47
4255.00,2.48
4254.00,2.48
4253.00,2.48
4252.00,2.48
4251.00,2.48
4250.00,2.48
4249.00,2.48
4248.00,2.48
4247.00,2.48
4246.00,2.48
4245.00,2.48
4244.00,2.47
4243.00,2.47
4242.00,2.47
4241.00,2.47
4240.00,2.47
4239.00,2.46
4238.00,2.46
4237.00,2.46
4236.00,2.46
4235.00,2.46
4234.00,2.45
4233.00,2.45
4232.00,2.45
4231.00,2.45
4230.00,2.44
4229.00,2.44
4228.00,2.44
4227.00,2.43
4226.00,2.43
4225.00,2.43
4224.00,2.43
4223.00,2.42
4222.00,2.42
4221.00,2.42
4220.00,2.42
4219.00,2.42
4218.00,2.42
4217.00,2.42
4216.00,2.42
4215.00,2.42
4214.00,2.42
4213.00,2.42
4212.00,2.43
4211.00,2.43
4210.00,2.43
4209.00,2.43
4208.00,2.43
4207.00,2.43
4206.00,2.42
4205.00,2.42
4204.00,2.42
4203.00,2.42
4202.00,2.42
4201.00,2.43
4200.00,2.43
4199.00,2.43
4198.00,2.44
4197.00,2.44
4196.00,2.45
4195.00,2.45
4194.00,2.46
4193.00,2.46
4192.00,2.47
4191.00,2.47
4190.00,2.47
4189.00,2.48
4188.00,2.48
4187.00,2.49
4186.00,2.49
4185.00,2.50
4184.00,2.50
4183.00,2.51
4182.00,2.51
4181.00,2.52
4180.00,2.52
4179.00,2.53
4178.00,2.53
4177.00,2.53
4176.00,2.54
4175.00,2.54
4174.00,2.54
4173.00,2.54
4172.00,2.54
4171.00,2.54
4170.00,2.54
4169.00,2.54
4168.00,2.54
4167.00,2.54
4166.00,2.53
4165.00,2.53
4164.00,2.52
4163.00,2.51
4162.00,2.51
4161.00,2.50
4160.00,2.49
4159.00,2.49
4158.00,2.48
4157.00,2.47
4156.00,2.46
4155.00,2.45
4154.00,2.45
4153.00,2.44
4152.00,2.43
4151.00,2.42
4150.00,2.42
4149.00,2.41
4148.00,2.40
4147.00,2.39
4146.00,2.38
4145.00,2.37
4144.00,2.36
4143.00,2.35
4142.00,2.35
4141.00,2.34
4140.00,2.33
4139.00,2.33
4138.00,2.32
4137.00,2.32
4136.00,2.32
4135.00,2.32
4134.00,2.31
4133.00,2.31
4132.00,2.31
4131.00,2.31
4130.00,2.31
4129.00,2.31
4128.00,2.31
4127.00,2.31
4126.00,2.31
4125.00,2.31
4124.00,2.31
4123.00,2.31
4122.00,2.31
4121.00,2.31
4120.00,2.32
4119.00,2.32
4118.00,2.32
4117.00,2.32
4116.00,2.32
4115.00,2.32
4114.00,2.31
4113.00,2.31
4112.00,2.31
4111.00,2.31
4110.00,2.31
4109.00,2.30
4108.00,2.30
4107.00,2.30
4106.00,2.30
4105.00,2.29
4104.00,2.29
4103.00,2.29
4102.00,2.29
4101.00,2.29
4100.00,2.29
4099.00,2.29
4098.00,2.30
4097.00,2.30
4096.00,2.30
4095.00,2.31
4094.00,2.31
4093.00,2.31
4092.00,2.32
4091.00,2.32
4090.00,2.33
4089.00,2.34
4088.00,2.35
4087.00,2.35
4086.00,2.36
4085.00,2.37
4084.00,2.38
4083.00,2.39
4082.00,2.39
4081.00,2.40
4080.00,2.41
4079.00,2.41
4078.00,2.42
4077.00,2.43
4076.00,2.43
4075.00,2.44
4074.00,2.44
4073.00,2.44
4072.00,2.44
4071.00,2.44
4070.00,2.44
4069.00,2.44
4068.00,2.43
4067.00,2.43
4066.00,2.43
4065.00,2.42
4064.00,2.42
4063.00,2.41
4062.00,2.41
4061.00,2.40
4060.00,2.40
4059.00,2.39
4058.00,2.39
4057.00,2.38
4056.00,2.38
4055.00,2.38
4054.00,2.37
4053.00,2.37
4052.00,2.37
4051.00,2.36
4050.00,2.36
4049.00,2.36
4048.00,2.35
4047.00,2.35
4046.00,2.35
4045.00,2.35
4044.00,2.35
4043.00,2.36
4042.00,2.36
4041.00,2.36
4040.00,2.37
4039.00,2.37
4038.00,2.38
4037.00,2.38
4036.00,2.39
4035.00,2.39
4034.00,2.40
4033.00,2.41
4032.00,2.41
4031.00,2.42
4030.00,2.43
4029.00,2.44
4028.00,2.45
4027.00,2.46
4026.00,2.47
4025.00,2.48
4024.00,2.50
4023.00,2.51
4022.00,2.52
4021.00,2.53
4020.00,2.54
4019.00,2.55
4018.00,2.56
4017.00,2.57
4016.00,2.58
4015.00,2.59
4014.00,2.61
4013.00,2.62
4012.00,2.63
4011.00,2.65
4010.00,2.67
4009.00,2.68
4008.00,2.70
4007.00,2.72
4006.00,2.73
4005.00,2.75
4004.00,2.76
4003.00,2.78
4002.00,2.79
4001.00,2.80
4000.00,2.81
