创建为新数据集,样品 417 用户 Administrator 日期 星期日, 七月 28 2019
cm-1,%T
10000.00,3.19
9999.00,3.24
9998.00,3.30
9997.00,3.35
9996.00,3.40
9995.00,3.45
9994.00,3.50
9993.00,3.54
9992.00,3.58
9991.00,3.62
9990.00,3.66
9989.00,3.69
9988.00,3.71
9987.00,3.73
9986.00,3.75
9985.00,3.76
9984.00,3.76
9983.00,3.76
9982.00,3.75
9981.00,3.74
9980.00,3.72
9979.00,3.70
9978.00,3.67
9977.00,3.64
9976.00,3.61
9975.00,3.58
9974.00,3.54
9973.00,3.49
9972.00,3.45
9971.00,3.40
9970.00,3.36
9969.00,3.31
9968.00,3.26
9967.00,3.21
9966.00,3.16
9965.00,3.11
9964.00,3.06
9963.00,3.01
9962.00,2.97
9961.00,2.92
9960.00,2.88
9959.00,2.83
9958.00,2.79
9957.00,2.76
9956.00,2.72
9955.00,2.69
9954.00,2.66
9953.00,2.63
9952.00,2.61
9951.00,2.59
9950.00,2.57
9949.00,2.55
9948.00,2.53
9947.00,2.52
9946.00,2.51
9945.00,2.50
9944.00,2.49
9943.00,2.48
9942.00,2.47
9941.00,2.46
9940.00,2.46
9939.00,2.45
9938.00,2.45
9937.00,2.45
9936.00,2.45
9935.00,2.45
9934.00,2.45
9933.00,2.45
9932.00,2.46
9931.00,2.46
9930.00,2.46
9929.00,2.46
9928.00,2.47
9927.00,2.47
9926.00,2.47
9925.00,2.47
9924.00,2.47
9923.00,2.47
9922.00,2.47
9921.00,2.48
9920.00,2.48
9919.00,2.48
9918.00,2.48
9917.00,2.48
9916.00,2.48
9915.00,2.49
9914.00,2.49
9913.00,2.49
9912.00,2.49
9911.00,2.49
9910.00,2.50
9909.00,2.50
9908.00,2.50
9907.00,2.50
9906.00,2.50
9905.00,2.50
9904.00,2.50
9903.00,2.50
9902.00,2.50
9901.00,2.49
9900.00,2.49
9899.00,2.49
9898.00,2.48
9897.00,2.48
9896.00,2.47
9895.00,2.47
9894.00,2.46
9893.00,2.45
9892.00,2.44
9891.00,2.43
9890.00,2.42
9889.00,2.41
9888.00,2.40
9887.00,2.39
9886.00,2.37
9885.00,2.35
9884.00,2.34
9883.00,2.32
9882.00,2.30
9881.00,2.27
9880.00,2.25
9879.00,2.23
9878.00,2.21
9877.00,2.18
9876.00,2.16
9875.00,2.14
9874.00,2.12
9873.00,2.11
9872.00,2.09
9871.00,2.07
9870.00,2.06
9869.00,2.04
9868.00,2.03
9867.00,2.02
9866.00,2.00
9865.00,1.99
9864.00,1.98
9863.00,1.97
9862.00,1.96
9861.00,1.95
9860.00,1.94
9859.00,1.94
9858.00,1.93
9857.00,1.93
9856.00,1.93
9855.00,1.94
9854.00,1.94
9853.00,1.95
9852.00,1.95
9851.00,1.96
9850.00,1.97
9849.00,1.97
9848.00,1.98
9847.00,1.99
9846.00,1.99
9845.00,2.00
9844.00,2.01
9843.00,2.02
9842.00,2.03
9841.00,2.03
9840.00,2.05
9839.00,2.06
9838.00,2.07
9837.00,2.08
9836.00,2.09
9835.00,2.11
9834.00,2.12
9833.00,2.13
9832.00,2.14
9831.00,2.16
9830.00,2.17
9829.00,2.18
9828.00,2.19
9827.00,2.20
9826.00,2.21
9825.00,2.22
9824.00,2.23
9823.00,2.24
9822.00,2.25
9821.00,2.26
9820.00,2.27
9819.00,2.29
9818.00,2.30
9817.00,2.31
9816.00,2.33
9815.00,2.34
9814.00,2.35
9813.00,2.36
9812.00,2.37
9811.00,2.38
9810.00,2.39
9809.00,2.40
9808.00,2.41
9807.00,2.41
9806.00,2.42
9805.00,2.43
9804.00,2.43
9803.00,2.44
9802.00,2.44
9801.00,2.45
9800.00,2.45
9799.00,2.45
9798.00,2.45
9797.00,2.45
9796.00,2.45
9795.00,2.45
9794.00,2.44
9793.00,2.43
9792.00,2.42
9791.00,2.41
9790.00,2.40
9789.00,2.39
9788.00,2.37
9787.00,2.36
9786.00,2.34
9785.00,2.33
9784.00,2.31
9783.00,2.30
9782.00,2.28
9781.00,2.27
9780.00,2.25
9779.00,2.24
9778.00,2.23
9777.00,2.21
9776.00,2.20
9775.00,2.19
9774.00,2.17
9773.00,2.16
9772.00,2.15
9771.00,2.14
9770.00,2.14
9769.00,2.13
9768.00,2.12
9767.00,2.12
9766.00,2.11
9765.00,2.11
9764.00,2.11
9763.00,2.11
9762.00,2.11
9761.00,2.11
9760.00,2.12
9759.00,2.12
9758.00,2.12
9757.00,2.13
9756.00,2.13
9755.00,2.13
9754.00,2.13
9753.00,2.13
9752.00,2.13
9751.00,2.13
9750.00,2.12
9749.00,2.12
9748.00,2.12
9747.00,2.11
9746.00,2.10
9745.00,2.10
9744.00,2.09
9743.00,2.08
9742.00,2.07
9741.00,2.06
9740.00,2.05
9739.00,2.03
9738.00,2.02
9737.00,2.01
9736.00,2.00
9735.00,1.99
9734.00,1.98
9733.00,1.97
9732.00,1.96
9731.00,1.95
9730.00,1.94
9729.00,1.94
9728.00,1.93
9727.00,1.92
9726.00,1.91
9725.00,1.90
9724.00,1.90
9723.00,1.89
9722.00,1.89
9721.00,1.89
9720.00,1.88
9719.00,1.88
9718.00,1.89
9717.00,1.89
9716.00,1.89
9715.00,1.89
9714.00,1.90
9713.00,1.90
9712.00,1.90
9711.00,1.91
9710.00,1.91
9709.00,1.91
9708.00,1.92
9707.00,1.92
9706.00,1.92
9705.00,1.92
9704.00,1.93
9703.00,1.93
9702.00,1.93
9701.00,1.94
9700.00,1.94
9699.00,1.95
9698.00,1.95
9697.00,1.96
9696.00,1.96
9695.00,1.97
9694.00,1.97
9693.00,1.98
9692.00,1.98
9691.00,1.99
9690.00,1.99
9689.00,2.00
9688.00,2.00
9687.00,2.01
9686.00,2.01
9685.00,2.02
9684.00,2.02
9683.00,2.02
9682.00,2.02
9681.00,2.03
9680.00,2.03
9679.00,2.04
9678.00,2.04
9677.00,2.05
9676.00,2.05
9675.00,2.06
9674.00,2.06
9673.00,2.07
9672.00,2.08
9671.00,2.09
9670.00,2.09
9669.00,2.10
9668.00,2.11
9667.00,2.11
9666.00,2.12
9665.00,2.12
9664.00,2.13
9663.00,2.13
9662.00,2.14
9661.00,2.14
9660.00,2.15
9659.00,2.15
9658.00,2.16
9657.00,2.17
9656.00,2.18
9655.00,2.18
9654.00,2.19
9653.00,2.20
9652.00,2.20
9651.00,2.21
9650.00,2.21
9649.00,2.21
9648.00,2.21
9647.00,2.21
9646.00,2.20
9645.00,2.20
9644.00,2.20
9643.00,2.19
9642.00,2.19
9641.00,2.18
9640.00,2.18
9639.00,2.18
9638.00,2.17
9637.00,2.17
9636.00,2.16
9635.00,2.16
9634.00,2.15
9633.00,2.15
9632.00,2.14
9631.00,2.13
9630.00,2.13
9629.00,2.12
9628.00,2.11
9627.00,2.11
9626.00,2.10
9625.00,2.10
9624.00,2.10
9623.00,2.10
9622.00,2.10
9621.00,2.10
9620.00,2.10
9619.00,2.10
9618.00,2.11
9617.00,2.11
9616.00,2.12
9615.00,2.12
9614.00,2.13
9613.00,2.13
9612.00,2.13
9611.00,2.13
9610.00,2.13
9609.00,2.14
9608.00,2.14
9607.00,2.14
9606.00,2.14
9605.00,2.14
9604.00,2.14
9603.00,2.14
9602.00,2.14
9601.00,2.14
9600.00,2.14
9599.00,2.14
9598.00,2.14
9597.00,2.13
9596.00,2.13
9595.00,2.12
9594.00,2.12
9593.00,2.11
9592.00,2.11
9591.00,2.10
9590.00,2.09
9589.00,2.09
9588.00,2.08
9587.00,2.07
9586.00,2.07
9585.00,2.06
9584.00,2.06
9583.00,2.05
9582.00,2.05
9581.00,2.05
9580.00,2.05
9579.00,2.05
9578.00,2.04
9577.00,2.04
9576.00,2.04
9575.00,2.04
9574.00,2.04
9573.00,2.05
9572.00,2.05
9571.00,2.05
9570.00,2.05
9569.00,2.06
9568.00,2.06
9567.00,2.07
9566.00,2.08
9565.00,2.09
9564.00,2.10
9563.00,2.11
9562.00,2.13
9561.00,2.14
9560.00,2.16
9559.00,2.17
9558.00,2.19
9557.00,2.21
9556.00,2.22
9555.00,2.24
9554.00,2.25
9553.00,2.27
9552.00,2.28
9551.00,2.30
9550.00,2.31
9549.00,2.32
9548.00,2.34
9547.00,2.35
9546.00,2.36
9545.00,2.37
9544.00,2.38
9543.00,2.39
9542.00,2.40
9541.00,2.41
9540.00,2.41
9539.00,2.41
9538.00,2.41
9537.00,2.41
9536.00,2.41
9535.00,2.40
9534.00,2.40
9533.00,2.39
9532.00,2.39
9531.00,2.38
9530.00,2.38
9529.00,2.37
9528.00,2.37
9527.00,2.36
9526.00,2.36
9525.00,2.35
9524.00,2.35
9523.00,2.35
9522.00,2.34
9521.00,2.34
9520.00,2.33
9519.00,2.33
9518.00,2.32
9517.00,2.32
9516.00,2.31
9515.00,2.31
9514.00,2.30
9513.00,2.30
9512.00,2.30
9511.00,2.29
9510.00,2.29
9509.00,2.29
9508.00,2.28
9507.00,2.28
9506.00,2.27
9505.00,2.27
9504.00,2.26
9503.00,2.25
9502.00,2.25
9501.00,2.24
9500.00,2.23
9499.00,2.22
9498.00,2.22
9497.00,2.21
9496.00,2.20
9495.00,2.19
9494.00,2.19
9493.00,2.18
9492.00,2.17
9491.00,2.17
9490.00,2.16
9489.00,2.15
9488.00,2.15
9487.00,2.14
9486.00,2.14
9485.00,2.14
9484.00,2.13
9483.00,2.13
9482.00,2.14
9481.00,2.14
9480.00,2.14
9479.00,2.14
9478.00,2.15
9477.00,2.15
9476.00,2.16
9475.00,2.16
9474.00,2.17
9473.00,2.17
9472.00,2.18
9471.00,2.18
9470.00,2.18
9469.00,2.19
9468.00,2.19
9467.00,2.19
9466.00,2.20
9465.00,2.20
9464.00,2.21
9463.00,2.21
9462.00,2.22
9461.00,2.23
9460.00,2.23
9459.00,2.24
9458.00,2.24
9457.00,2.25
9456.00,2.25
9455.00,2.25
9454.00,2.26
9453.00,2.26
9452.00,2.26
9451.00,2.27
9450.00,2.27
9449.00,2.28
9448.00,2.28
9447.00,2.28
9446.00,2.29
9445.00,2.29
9444.00,2.30
9443.00,2.30
9442.00,2.31
9441.00,2.31
9440.00,2.31
9439.00,2.32
9438.00,2.32
9437.00,2.32
9436.00,2.32
9435.00,2.32
9434.00,2.32
9433.00,2.32
9432.00,2.32
9431.00,2.31
9430.00,2.31
9429.00,2.31
9428.00,2.31
9427.00,2.30
9426.00,2.30
9425.00,2.29
9424.00,2.28
9423.00,2.27
9422.00,2.27
9421.00,2.26
9420.00,2.25
9419.00,2.24
9418.00,2.23
9417.00,2.22
9416.00,2.21
9415.00,2.21
9414.00,2.20
9413.00,2.19
9412.00,2.19
9411.00,2.18
9410.00,2.18
9409.00,2.18
9408.00,2.17
9407.00,2.17
9406.00,2.17
9405.00,2.17
9404.00,2.17
9403.00,2.17
9402.00,2.17
9401.00,2.18
9400.00,2.18
9399.00,2.19
9398.00,2.19
9397.00,2.20
9396.00,2.21
9395.00,2.22
9394.00,2.23
9393.00,2.24
9392.00,2.25
9391.00,2.25
9390.00,2.26
9389.00,2.27
9388.00,2.28
9387.00,2.28
9386.00,2.29
9385.00,2.29
9384.00,2.29
9383.00,2.30
9382.00,2.30
9381.00,2.30
9380.00,2.29
9379.00,2.29
9378.00,2.29
9377.00,2.28
9376.00,2.27
9375.00,2.26
9374.00,2.25
9373.00,2.24
9372.00,2.23
9371.00,2.22
9370.00,2.20
9369.00,2.19
9368.00,2.17
9367.00,2.16
9366.00,2.14
9365.00,2.13
9364.00,2.11
9363.00,2.09
9362.00,2.08
9361.00,2.06
9360.00,2.05
9359.00,2.04
9358.00,2.03
9357.00,2.02
9356.00,2.01
9355.00,2.00
9354.00,1.99
9353.00,1.98
9352.00,1.98
9351.00,1.97
9350.00,1.97
9349.00,1.97
9348.00,1.97
9347.00,1.97
9346.00,1.97
9345.00,1.97
9344.00,1.98
9343.00,1.98
9342.00,1.99
9341.00,1.99
9340.00,2.00
9339.00,2.01
9338.00,2.02
9337.00,2.03
9336.00,2.04
9335.00,2.05
9334.00,2.07
9333.00,2.08
9332.00,2.09
9331.00,2.10
9330.00,2.12
9329.00,2.13
9328.00,2.14
9327.00,2.15
9326.00,2.16
9325.00,2.17
9324.00,2.18
9323.00,2.19
9322.00,2.19
9321.00,2.20
9320.00,2.21
9319.00,2.22
9318.00,2.22
9317.00,2.23
9316.00,2.24
9315.00,2.24
9314.00,2.25
9313.00,2.25
9312.00,2.26
9311.00,2.26
9310.00,2.26
9309.00,2.27
9308.00,2.27
9307.00,2.27
9306.00,2.27
9305.00,2.26
9304.00,2.26
9303.00,2.26
9302.00,2.25
9301.00,2.25
9300.00,2.25
9299.00,2.24
9298.00,2.24
9297.00,2.23
9296.00,2.23
9295.00,2.22
9294.00,2.21
9293.00,2.21
9292.00,2.20
9291.00,2.19
9290.00,2.19
9289.00,2.18
9288.00,2.17
9287.00,2.16
9286.00,2.15
9285.00,2.14
9284.00,2.13
9283.00,2.12
9282.00,2.11
9281.00,2.10
9280.00,2.10
9279.00,2.09
9278.00,2.09
9277.00,2.08
9276.00,2.08
9275.00,2.08
9274.00,2.07
9273.00,2.07
9272.00,2.07
9271.00,2.07
9270.00,2.08
9269.00,2.08
9268.00,2.09
9267.00,2.09
9266.00,2.10
9265.00,2.10
9264.00,2.11
9263.00,2.12
9262.00,2.12
9261.00,2.13
9260.00,2.14
9259.00,2.15
9258.00,2.16
9257.00,2.17
9256.00,2.18
9255.00,2.19
9254.00,2.20
9253.00,2.22
9252.00,2.23
9251.00,2.24
9250.00,2.25
9249.00,2.26
9248.00,2.27
9247.00,2.27
9246.00,2.28
9245.00,2.29
9244.00,2.29
9243.00,2.30
9242.00,2.30
9241.00,2.30
9240.00,2.30
9239.00,2.31
9238.00,2.31
9237.00,2.31
9236.00,2.31
9235.00,2.31
9234.00,2.31
9233.00,2.31
9232.00,2.31
9231.00,2.30
9230.00,2.30
9229.00,2.30
9228.00,2.29
9227.00,2.29
9226.00,2.28
9225.00,2.27
9224.00,2.27
9223.00,2.26
9222.00,2.25
9221.00,2.25
9220.00,2.24
9219.00,2.23
9218.00,2.23
9217.00,2.22
9216.00,2.22
9215.00,2.21
9214.00,2.21
9213.00,2.21
9212.00,2.20
9211.00,2.20
9210.00,2.20
9209.00,2.19
9208.00,2.19
9207.00,2.19
9206.00,2.19
9205.00,2.18
9204.00,2.18
9203.00,2.18
9202.00,2.18
9201.00,2.18
9200.00,2.18
9199.00,2.18
9198.00,2.18
9197.00,2.18
9196.00,2.18
9195.00,2.18
9194.00,2.18
9193.00,2.19
9192.00,2.19
9191.00,2.19
9190.00,2.20
9189.00,2.20
9188.00,2.20
9187.00,2.20
9186.00,2.21
9185.00,2.21
9184.00,2.21
9183.00,2.21
9182.00,2.21
9181.00,2.22
9180.00,2.22
9179.00,2.22
9178.00,2.22
9177.00,2.22
9176.00,2.22
9175.00,2.22
9174.00,2.22
9173.00,2.22
9172.00,2.23
9171.00,2.23
9170.00,2.23
9169.00,2.23
9168.00,2.24
9167.00,2.24
9166.00,2.24
9165.00,2.24
9164.00,2.24
9163.00,2.24
9162.00,2.24
9161.00,2.24
9160.00,2.24
9159.00,2.24
9158.00,2.24
9157.00,2.24
9156.00,2.24
9155.00,2.24
9154.00,2.24
9153.00,2.23
9152.00,2.23
9151.00,2.23
9150.00,2.23
9149.00,2.23
9148.00,2.22
9147.00,2.22
9146.00,2.21
9145.00,2.21
9144.00,2.20
9143.00,2.20
9142.00,2.19
9141.00,2.18
9140.00,2.17
9139.00,2.16
9138.00,2.16
9137.00,2.15
9136.00,2.14
9135.00,2.13
9134.00,2.12
9133.00,2.12
9132.00,2.11
9131.00,2.11
9130.00,2.10
9129.00,2.10
9128.00,2.09
9127.00,2.09
9126.00,2.08
9125.00,2.08
9124.00,2.07
9123.00,2.07
9122.00,2.06
9121.00,2.05
9120.00,2.05
9119.00,2.05
9118.00,2.04
9117.00,2.04
9116.00,2.04
9115.00,2.04
9114.00,2.05
9113.00,2.05
9112.00,2.06
9111.00,2.06
9110.00,2.07
9109.00,2.08
9108.00,2.08
9107.00,2.09
9106.00,2.10
9105.00,2.11
9104.00,2.12
9103.00,2.13
9102.00,2.13
9101.00,2.14
9100.00,2.16
9099.00,2.17
9098.00,2.18
9097.00,2.19
9096.00,2.20
9095.00,2.21
9094.00,2.22
9093.00,2.23
9092.00,2.24
9091.00,2.25
9090.00,2.26
9089.00,2.26
9088.00,2.27
9087.00,2.27
9086.00,2.27
9085.00,2.27
9084.00,2.27
9083.00,2.26
9082.00,2.26
9081.00,2.26
9080.00,2.25
9079.00,2.25
9078.00,2.24
9077.00,2.23
9076.00,2.23
9075.00,2.22
9074.00,2.21
9073.00,2.21
9072.00,2.20
9071.00,2.19
9070.00,2.18
9069.00,2.18
9068.00,2.17
9067.00,2.16
9066.00,2.15
9065.00,2.14
9064.00,2.13
9063.00,2.13
9062.00,2.12
9061.00,2.11
9060.00,2.10
9059.00,2.10
9058.00,2.09
9057.00,2.09
9056.00,2.08
9055.00,2.08
9054.00,2.08
9053.00,2.07
9052.00,2.07
9051.00,2.07
9050.00,2.07
9049.00,2.07
9048.00,2.07
9047.00,2.08
9046.00,2.08
9045.00,2.08
9044.00,2.08
9043.00,2.09
9042.00,2.09
9041.00,2.10
9040.00,2.10
9039.00,2.11
9038.00,2.12
9037.00,2.13
9036.00,2.15
9035.00,2.16
9034.00,2.18
9033.00,2.19
9032.00,2.21
9031.00,2.23
9030.00,2.25
9029.00,2.27
9028.00,2.29
9027.00,2.31
9026.00,2.32
9025.00,2.34
9024.00,2.36
9023.00,2.37
9022.00,2.38
9021.00,2.40
9020.00,2.41
9019.00,2.42
9018.00,2.44
9017.00,2.45
9016.00,2.46
9015.00,2.47
9014.00,2.48
9013.00,2.49
9012.00,2.49
9011.00,2.50
9010.00,2.50
9009.00,2.50
9008.00,2.50
9007.00,2.50
9006.00,2.49
9005.00,2.49
9004.00,2.48
9003.00,2.47
9002.00,2.47
9001.00,2.46
9000.00,2.45
8999.00,2.44
8998.00,2.43
8997.00,2.42
8996.00,2.42
8995.00,2.41
8994.00,2.40
8993.00,2.38
8992.00,2.37
8991.00,2.36
8990.00,2.35
8989.00,2.34
8988.00,2.33
8987.00,2.32
8986.00,2.32
8985.00,2.31
8984.00,2.30
8983.00,2.30
8982.00,2.29
8981.00,2.29
8980.00,2.29
8979.00,2.28
8978.00,2.28
8977.00,2.28
8976.00,2.27
8975.00,2.27
8974.00,2.27
8973.00,2.26
8972.00,2.26
8971.00,2.26
8970.00,2.25
8969.00,2.25
8968.00,2.25
8967.00,2.25
8966.00,2.24
8965.00,2.24
8964.00,2.24
8963.00,2.23
8962.00,2.23
8961.00,2.22
8960.00,2.21
8959.00,2.20
8958.00,2.20
8957.00,2.19
8956.00,2.18
8955.00,2.17
8954.00,2.16
8953.00,2.15
8952.00,2.14
8951.00,2.14
8950.00,2.13
8949.00,2.13
8948.00,2.13
8947.00,2.12
8946.00,2.12
8945.00,2.12
8944.00,2.12
8943.00,2.12
8942.00,2.12
8941.00,2.13
8940.00,2.13
8939.00,2.13
8938.00,2.14
8937.00,2.15
8936.00,2.15
8935.00,2.16
8934.00,2.17
8933.00,2.18
8932.00,2.19
8931.00,2.20
8930.00,2.21
8929.00,2.22
8928.00,2.23
8927.00,2.24
8926.00,2.25
8925.00,2.26
8924.00,2.26
8923.00,2.27
8922.00,2.27
8921.00,2.27
8920.00,2.28
8919.00,2.28
8918.00,2.28
8917.00,2.28
8916.00,2.28
8915.00,2.28
8914.00,2.28
8913.00,2.28
8912.00,2.28
8911.00,2.27
8910.00,2.27
8909.00,2.27
8908.00,2.27
8907.00,2.27
8906.00,2.26
8905.00,2.26
8904.00,2.26
8903.00,2.25
8902.00,2.25
8901.00,2.25
8900.00,2.25
8899.00,2.24
8898.00,2.24
8897.00,2.24
8896.00,2.24
8895.00,2.24
8894.00,2.24
8893.00,2.24
8892.00,2.24
8891.00,2.24
8890.00,2.24
8889.00,2.24
8888.00,2.24
8887.00,2.24
8886.00,2.24
8885.00,2.24
8884.00,2.24
8883.00,2.23
8882.00,2.23
8881.00,2.23
8880.00,2.22
8879.00,2.22
8878.00,2.22
8877.00,2.22
8876.00,2.22
8875.00,2.21
8874.00,2.21
8873.00,2.21
8872.00,2.21
8871.00,2.21
8870.00,2.21
8869.00,2.21
8868.00,2.21
8867.00,2.21
8866.00,2.21
8865.00,2.21
8864.00,2.21
8863.00,2.21
8862.00,2.21
8861.00,2.21
8860.00,2.21
8859.00,2.21
8858.00,2.21
8857.00,2.22
8856.00,2.22
8855.00,2.23
8854.00,2.23
8853.00,2.23
8852.00,2.24
8851.00,2.24
8850.00,2.24
8849.00,2.25
8848.00,2.25
8847.00,2.25
8846.00,2.25
8845.00,2.25
8844.00,2.25
8843.00,2.25
8842.00,2.25
8841.00,2.25
8840.00,2.25
8839.00,2.26
8838.00,2.26
8837.00,2.26
8836.00,2.26
8835.00,2.26
8834.00,2.26
8833.00,2.26
8832.00,2.26
8831.00,2.26
8830.00,2.26
8829.00,2.26
8828.00,2.26
8827.00,2.26
8826.00,2.26
8825.00,2.26
8824.00,2.26
8823.00,2.25
8822.00,2.26
8821.00,2.26
8820.00,2.26
8819.00,2.26
8818.00,2.26
8817.00,2.26
8816.00,2.26
8815.00,2.26
8814.00,2.25
8813.00,2.25
8812.00,2.25
8811.00,2.24
8810.00,2.24
8809.00,2.23
8808.00,2.22
8807.00,2.22
8806.00,2.21
8805.00,2.20
8804.00,2.20
8803.00,2.19
8802.00,2.18
8801.00,2.18
8800.00,2.17
8799.00,2.17
8798.00,2.17
8797.00,2.16
8796.00,2.16
8795.00,2.16
8794.00,2.15
8793.00,2.15
8792.00,2.15
8791.00,2.15
8790.00,2.14
8789.00,2.14
8788.00,2.14
8787.00,2.14
8786.00,2.14
8785.00,2.14
8784.00,2.14
8783.00,2.14
8782.00,2.14
8781.00,2.14
8780.00,2.14
8779.00,2.15
8778.00,2.15
8777.00,2.15
8776.00,2.15
8775.00,2.15
8774.00,2.15
8773.00,2.15
8772.00,2.15
8771.00,2.15
8770.00,2.15
8769.00,2.15
8768.00,2.15
8767.00,2.15
8766.00,2.15
8765.00,2.15
8764.00,2.14
8763.00,2.14
8762.00,2.14
8761.00,2.14
8760.00,2.14
8759.00,2.14
8758.00,2.14
8757.00,2.15
8756.00,2.15
8755.00,2.15
8754.00,2.16
8753.00,2.16
8752.00,2.17
8751.00,2.17
8750.00,2.17
8749.00,2.18
8748.00,2.18
8747.00,2.18
8746.00,2.18
8745.00,2.18
8744.00,2.18
8743.00,2.18
8742.00,2.18
8741.00,2.19
8740.00,2.19
8739.00,2.19
8738.00,2.20
8737.00,2.20
8736.00,2.21
8735.00,2.21
8734.00,2.21
8733.00,2.22
8732.00,2.22
8731.00,2.22
8730.00,2.22
8729.00,2.22
8728.00,2.22
8727.00,2.22
8726.00,2.21
8725.00,2.21
8724.00,2.21
8723.00,2.21
8722.00,2.21
8721.00,2.21
8720.00,2.22
8719.00,2.22
8718.00,2.22
8717.00,2.23
8716.00,2.23
8715.00,2.23
8714.00,2.23
8713.00,2.23
8712.00,2.23
8711.00,2.23
8710.00,2.23
8709.00,2.23
8708.00,2.23
8707.00,2.22
8706.00,2.22
8705.00,2.22
8704.00,2.22
8703.00,2.22
8702.00,2.22
8701.00,2.22
8700.00,2.22
8699.00,2.23
8698.00,2.23
8697.00,2.23
8696.00,2.23
8695.00,2.23
8694.00,2.23
8693.00,2.23
8692.00,2.22
8691.00,2.22
8690.00,2.22
8689.00,2.21
8688.00,2.21
8687.00,2.21
8686.00,2.21
8685.00,2.21
8684.00,2.21
8683.00,2.20
8682.00,2.20
8681.00,2.21
8680.00,2.21
8679.00,2.21
8678.00,2.21
8677.00,2.21
8676.00,2.21
8675.00,2.21
8674.00,2.20
8673.00,2.20
8672.00,2.20
8671.00,2.20
8670.00,2.19
8669.00,2.19
8668.00,2.19
8667.00,2.19
8666.00,2.19
8665.00,2.19
8664.00,2.19
8663.00,2.19
8662.00,2.19
8661.00,2.19
8660.00,2.19
8659.00,2.19
8658.00,2.19
8657.00,2.19
8656.00,2.19
8655.00,2.19
8654.00,2.19
8653.00,2.19
8652.00,2.19
8651.00,2.19
8650.00,2.18
8649.00,2.18
8648.00,2.18
8647.00,2.18
8646.00,2.18
8645.00,2.18
8644.00,2.18
8643.00,2.18
8642.00,2.19
8641.00,2.19
8640.00,2.20
8639.00,2.21
8638.00,2.21
8637.00,2.22
8636.00,2.22
8635.00,2.23
8634.00,2.23
8633.00,2.24
8632.00,2.24
8631.00,2.25
8630.00,2.25
8629.00,2.26
8628.00,2.26
8627.00,2.27
8626.00,2.28
8625.00,2.28
8624.00,2.29
8623.00,2.30
8622.00,2.30
8621.00,2.31
8620.00,2.32
8619.00,2.33
8618.00,2.33
8617.00,2.34
8616.00,2.34
8615.00,2.35
8614.00,2.35
8613.00,2.35
8612.00,2.35
8611.00,2.36
8610.00,2.36
8609.00,2.36
8608.00,2.36
8607.00,2.36
8606.00,2.36
8605.00,2.36
8604.00,2.36
8603.00,2.37
8602.00,2.37
8601.00,2.37
8600.00,2.37
8599.00,2.37
8598.00,2.37
8597.00,2.37
8596.00,2.37
8595.00,2.37
8594.00,2.37
8593.00,2.37
8592.00,2.37
8591.00,2.36
8590.00,2.36
8589.00,2.35
8588.00,2.35
8587.00,2.35
8586.00,2.34
8585.00,2.34
8584.00,2.33
8583.00,2.33
8582.00,2.32
8581.00,2.32
8580.00,2.32
8579.00,2.31
8578.00,2.31
8577.00,2.30
8576.00,2.30
8575.00,2.29
8574.00,2.29
8573.00,2.29
8572.00,2.28
8571.00,2.28
8570.00,2.28
8569.00,2.27
8568.00,2.27
8567.00,2.27
8566.00,2.27
8565.00,2.27
8564.00,2.27
8563.00,2.27
8562.00,2.27
8561.00,2.27
8560.00,2.27
8559.00,2.27
8558.00,2.27
8557.00,2.27
8556.00,2.27
8555.00,2.27
8554.00,2.27
8553.00,2.27
8552.00,2.27
8551.00,2.27
8550.00,2.27
8549.00,2.27
8548.00,2.27
8547.00,2.27
8546.00,2.26
8545.00,2.26
8544.00,2.26
8543.00,2.25
8542.00,2.25
8541.00,2.24
8540.00,2.24
8539.00,2.23
8538.00,2.22
8537.00,2.22
8536.00,2.21
8535.00,2.20
8534.00,2.20
8533.00,2.19
8532.00,2.18
8531.00,2.18
8530.00,2.17
8529.00,2.16
8528.00,2.15
8527.00,2.15
8526.00,2.14
8525.00,2.13
8524.00,2.12
8523.00,2.12
8522.00,2.11
8521.00,2.11
8520.00,2.10
8519.00,2.10
8518.00,2.09
8517.00,2.09
8516.00,2.09
8515.00,2.09
8514.00,2.09
8513.00,2.09
8512.00,2.09
8511.00,2.09
8510.00,2.09
8509.00,2.10
8508.00,2.10
8507.00,2.11
8506.00,2.11
8505.00,2.11
8504.00,2.12
8503.00,2.12
8502.00,2.13
8501.00,2.13
8500.00,2.14
8499.00,2.14
8498.00,2.14
8497.00,2.15
8496.00,2.15
8495.00,2.16
8494.00,2.16
8493.00,2.16
8492.00,2.16
8491.00,2.17
8490.00,2.17
8489.00,2.17
8488.00,2.17
8487.00,2.17
8486.00,2.17
8485.00,2.17
8484.00,2.17
8483.00,2.17
8482.00,2.17
8481.00,2.17
8480.00,2.17
8479.00,2.18
8478.00,2.18
8477.00,2.18
8476.00,2.18
8475.00,2.19
8474.00,2.19
8473.00,2.19
8472.00,2.19
8471.00,2.19
8470.00,2.19
8469.00,2.19
8468.00,2.19
8467.00,2.20
8466.00,2.20
8465.00,2.20
8464.00,2.21
8463.00,2.21
8462.00,2.21
8461.00,2.22
8460.00,2.22
8459.00,2.22
8458.00,2.23
8457.00,2.23
8456.00,2.23
8455.00,2.22
8454.00,2.22
8453.00,2.22
8452.00,2.21
8451.00,2.21
8450.00,2.21
8449.00,2.20
8448.00,2.20
8447.00,2.20
8446.00,2.20
8445.00,2.20
8444.00,2.20
8443.00,2.20
8442.00,2.20
8441.00,2.20
8440.00,2.20
8439.00,2.20
8438.00,2.19
8437.00,2.19
8436.00,2.19
8435.00,2.19
8434.00,2.19
8433.00,2.19
8432.00,2.19
8431.00,2.19
8430.00,2.19
8429.00,2.19
8428.00,2.19
8427.00,2.19
8426.00,2.20
8425.00,2.20
8424.00,2.20
8423.00,2.20
8422.00,2.21
8421.00,2.21
8420.00,2.21
8419.00,2.21
8418.00,2.21
8417.00,2.21
8416.00,2.21
8415.00,2.21
8414.00,2.21
8413.00,2.21
8412.00,2.21
8411.00,2.21
8410.00,2.21
8409.00,2.21
8408.00,2.20
8407.00,2.20
8406.00,2.20
8405.00,2.20
8404.00,2.20
8403.00,2.20
8402.00,2.20
8401.00,2.20
8400.00,2.20
8399.00,2.20
8398.00,2.20
8397.00,2.20
8396.00,2.20
8395.00,2.20
8394.00,2.20
8393.00,2.20
8392.00,2.20
8391.00,2.20
8390.00,2.20
8389.00,2.20
8388.00,2.19
8387.00,2.19
8386.00,2.19
8385.00,2.19
8384.00,2.19
8383.00,2.18
8382.00,2.18
8381.00,2.18
8380.00,2.18
8379.00,2.18
8378.00,2.18
8377.00,2.17
8376.00,2.17
8375.00,2.17
8374.00,2.16
8373.00,2.16
8372.00,2.16
8371.00,2.15
8370.00,2.15
8369.00,2.14
8368.00,2.14
8367.00,2.13
8366.00,2.13
8365.00,2.13
8364.00,2.12
8363.00,2.12
8362.00,2.12
8361.00,2.12
8360.00,2.12
8359.00,2.12
8358.00,2.13
8357.00,2.13
8356.00,2.13
8355.00,2.13
8354.00,2.13
8353.00,2.13
8352.00,2.13
8351.00,2.14
8350.00,2.14
8349.00,2.14
8348.00,2.14
8347.00,2.14
8346.00,2.15
8345.00,2.15
8344.00,2.16
8343.00,2.16
8342.00,2.17
8341.00,2.17
8340.00,2.18
8339.00,2.18
8338.00,2.19
8337.00,2.20
8336.00,2.20
8335.00,2.20
8334.00,2.21
8333.00,2.21
8332.00,2.21
8331.00,2.22
8330.00,2.22
8329.00,2.22
8328.00,2.22
8327.00,2.23
8326.00,2.23
8325.00,2.23
8324.00,2.24
8323.00,2.24
8322.00,2.24
8321.00,2.25
8320.00,2.25
8319.00,2.26
8318.00,2.26
8317.00,2.26
8316.00,2.27
8315.00,2.27
8314.00,2.27
8313.00,2.28
8312.00,2.28
8311.00,2.29
8310.00,2.29
8309.00,2.29
8308.00,2.30
8307.00,2.30
8306.00,2.31
8305.00,2.31
8304.00,2.32
8303.00,2.32
8302.00,2.33
8301.00,2.33
8300.00,2.34
8299.00,2.34
8298.00,2.34
8297.00,2.34
8296.00,2.35
8295.00,2.35
8294.00,2.35
8293.00,2.35
8292.00,2.35
8291.00,2.35
8290.00,2.35
8289.00,2.35
8288.00,2.35
8287.00,2.35
8286.00,2.35
8285.00,2.34
8284.00,2.34
8283.00,2.34
8282.00,2.34
8281.00,2.34
8280.00,2.33
8279.00,2.33
8278.00,2.33
8277.00,2.33
8276.00,2.32
8275.00,2.32
8274.00,2.32
8273.00,2.32
8272.00,2.32
8271.00,2.32
8270.00,2.32
8269.00,2.33
8268.00,2.33
8267.00,2.33
8266.00,2.33
8265.00,2.33
8264.00,2.33
8263.00,2.33
8262.00,2.34
8261.00,2.34
8260.00,2.33
8259.00,2.33
8258.00,2.33
8257.00,2.33
8256.00,2.33
8255.00,2.33
8254.00,2.33
8253.00,2.33
8252.00,2.33
8251.00,2.33
8250.00,2.33
8249.00,2.33
8248.00,2.33
8247.00,2.32
8246.00,2.32
8245.00,2.31
8244.00,2.31
8243.00,2.30
8242.00,2.30
8241.00,2.29
8240.00,2.29
8239.00,2.28
8238.00,2.27
8237.00,2.27
8236.00,2.26
8235.00,2.26
8234.00,2.25
8233.00,2.25
8232.00,2.24
8231.00,2.24
8230.00,2.23
8229.00,2.23
8228.00,2.22
8227.00,2.22
8226.00,2.22
8225.00,2.21
8224.00,2.21
8223.00,2.20
8222.00,2.20
8221.00,2.20
8220.00,2.20
8219.00,2.20
8218.00,2.19
8217.00,2.19
8216.00,2.19
8215.00,2.19
8214.00,2.19
8213.00,2.19
8212.00,2.19
8211.00,2.19
8210.00,2.19
8209.00,2.19
8208.00,2.19
8207.00,2.19
8206.00,2.19
8205.00,2.20
8204.00,2.20
8203.00,2.20
8202.00,2.20
8201.00,2.21
8200.00,2.21
8199.00,2.21
8198.00,2.22
8197.00,2.22
8196.00,2.23
8195.00,2.23
8194.00,2.24
8193.00,2.24
8192.00,2.25
8191.00,2.25
8190.00,2.26
8189.00,2.27
8188.00,2.27
8187.00,2.28
8186.00,2.29
8185.00,2.30
8184.00,2.31
8183.00,2.32
8182.00,2.32
8181.00,2.33
8180.00,2.34
8179.00,2.35
8178.00,2.35
8177.00,2.36
8176.00,2.36
8175.00,2.36
8174.00,2.36
8173.00,2.37
8172.00,2.37
8171.00,2.37
8170.00,2.37
8169.00,2.36
8168.00,2.36
8167.00,2.36
8166.00,2.36
8165.00,2.36
8164.00,2.35
8163.00,2.35
8162.00,2.34
8161.00,2.34
8160.00,2.33
8159.00,2.33
8158.00,2.32
8157.00,2.32
8156.00,2.31
8155.00,2.31
8154.00,2.30
8153.00,2.30
8152.00,2.29
8151.00,2.29
8150.00,2.29
8149.00,2.29
8148.00,2.28
8147.00,2.28
8146.00,2.28
8145.00,2.28
8144.00,2.28
8143.00,2.28
8142.00,2.28
8141.00,2.28
8140.00,2.28
8139.00,2.27
8138.00,2.27
8137.00,2.27
8136.00,2.27
8135.00,2.27
8134.00,2.26
8133.00,2.26
8132.00,2.26
8131.00,2.26
8130.00,2.26
8129.00,2.26
8128.00,2.26
8127.00,2.26
8126.00,2.26
8125.00,2.26
8124.00,2.26
8123.00,2.26
8122.00,2.26
8121.00,2.27
8120.00,2.27
8119.00,2.27
8118.00,2.27
8117.00,2.28
8116.00,2.28
8115.00,2.29
8114.00,2.29
8113.00,2.30
8112.00,2.31
8111.00,2.32
8110.00,2.33
8109.00,2.33
8108.00,2.34
8107.00,2.35
8106.00,2.36
8105.00,2.36
8104.00,2.37
8103.00,2.38
8102.00,2.38
8101.00,2.38
8100.00,2.39
8099.00,2.39
8098.00,2.39
8097.00,2.39
8096.00,2.40
8095.00,2.40
8094.00,2.39
8093.00,2.39
8092.00,2.39
8091.00,2.39
8090.00,2.39
8089.00,2.38
8088.00,2.38
8087.00,2.37
8086.00,2.37
8085.00,2.37
8084.00,2.36
8083.00,2.36
8082.00,2.35
8081.00,2.35
8080.00,2.35
8079.00,2.34
8078.00,2.34
8077.00,2.34
8076.00,2.34
8075.00,2.34
8074.00,2.34
8073.00,2.34
8072.00,2.34
8071.00,2.34
8070.00,2.34
8069.00,2.35
8068.00,2.35
8067.00,2.35
8066.00,2.36
8065.00,2.36
8064.00,2.37
8063.00,2.37
8062.00,2.37
8061.00,2.38
8060.00,2.38
8059.00,2.38
8058.00,2.39
8057.00,2.39
8056.00,2.39
8055.00,2.39
8054.00,2.39
8053.00,2.39
8052.00,2.39
8051.00,2.39
8050.00,2.38
8049.00,2.38
8048.00,2.38
8047.00,2.37
8046.00,2.37
8045.00,2.36
8044.00,2.36
8043.00,2.35
8042.00,2.35
8041.00,2.34
8040.00,2.34
8039.00,2.33
8038.00,2.33
8037.00,2.32
8036.00,2.31
8035.00,2.31
8034.00,2.30
8033.00,2.30
8032.00,2.30
8031.00,2.29
8030.00,2.29
8029.00,2.29
8028.00,2.29
8027.00,2.29
8026.00,2.29
8025.00,2.30
8024.00,2.30
8023.00,2.30
8022.00,2.31
8021.00,2.31
8020.00,2.32
8019.00,2.32
8018.00,2.33
8017.00,2.33
8016.00,2.34
8015.00,2.35
8014.00,2.35
8013.00,2.36
8012.00,2.36
8011.00,2.37
8010.00,2.38
8009.00,2.38
8008.00,2.39
8007.00,2.39
8006.00,2.39
8005.00,2.40
8004.00,2.40
8003.00,2.40
8002.00,2.40
8001.00,2.40
8000.00,2.40
7999.00,2.40
7998.00,2.40
7997.00,2.40
7996.00,2.40
7995.00,2.39
7994.00,2.39
7993.00,2.39
7992.00,2.38
7991.00,2.38
7990.00,2.38
7989.00,2.37
7988.00,2.37
7987.00,2.36
7986.00,2.36
7985.00,2.36
7984.00,2.35
7983.00,2.35
7982.00,2.34
7981.00,2.34
7980.00,2.33
7979.00,2.33
7978.00,2.33
7977.00,2.32
7976.00,2.32
7975.00,2.32
7974.00,2.32
7973.00,2.32
7972.00,2.32
7971.00,2.32
7970.00,2.32
7969.00,2.32
7968.00,2.32
7967.00,2.32
7966.00,2.32
7965.00,2.33
7964.00,2.33
7963.00,2.33
7962.00,2.33
7961.00,2.34
7960.00,2.34
7959.00,2.34
7958.00,2.35
7957.00,2.35
7956.00,2.36
7955.00,2.36
7954.00,2.37
7953.00,2.37
7952.00,2.37
7951.00,2.38
7950.00,2.38
7949.00,2.38
7948.00,2.38
7947.00,2.39
7946.00,2.39
7945.00,2.39
7944.00,2.39
7943.00,2.39
7942.00,2.39
7941.00,2.39
7940.00,2.39
7939.00,2.38
7938.00,2.38
7937.00,2.38
7936.00,2.38
7935.00,2.38
7934.00,2.37
7933.00,2.37
7932.00,2.37
7931.00,2.37
7930.00,2.36
7929.00,2.36
7928.00,2.36
7927.00,2.35
7926.00,2.35
7925.00,2.35
7924.00,2.34
7923.00,2.34
7922.00,2.34
7921.00,2.34
7920.00,2.33
7919.00,2.33
7918.00,2.33
7917.00,2.32
7916.00,2.32
7915.00,2.32
7914.00,2.32
7913.00,2.31
7912.00,2.31
7911.00,2.31
7910.00,2.31
7909.00,2.31
7908.00,2.31
7907.00,2.31
7906.00,2.31
7905.00,2.31
7904.00,2.31
7903.00,2.31
7902.00,2.31
7901.00,2.31
7900.00,2.32
7899.00,2.32
7898.00,2.32
7897.00,2.33
7896.00,2.33
7895.00,2.34
7894.00,2.34
7893.00,2.35
7892.00,2.36
7891.00,2.36
7890.00,2.37
7889.00,2.37
7888.00,2.38
7887.00,2.38
7886.00,2.39
7885.00,2.39
7884.00,2.40
7883.00,2.40
7882.00,2.41
7881.00,2.41
7880.00,2.42
7879.00,2.42
7878.00,2.42
7877.00,2.43
7876.00,2.43
7875.00,2.43
7874.00,2.43
7873.00,2.43
7872.00,2.43
7871.00,2.43
7870.00,2.42
7869.00,2.42
7868.00,2.41
7867.00,2.41
7866.00,2.41
7865.00,2.40
7864.00,2.40
7863.00,2.39
7862.00,2.39
7861.00,2.38
7860.00,2.38
7859.00,2.38
7858.00,2.37
7857.00,2.37
7856.00,2.36
7855.00,2.36
7854.00,2.36
7853.00,2.36
7852.00,2.35
7851.00,2.35
7850.00,2.35
7849.00,2.35
7848.00,2.35
7847.00,2.35
7846.00,2.35
7845.00,2.36
7844.00,2.36
7843.00,2.37
7842.00,2.37
7841.00,2.38
7840.00,2.39
7839.00,2.39
7838.00,2.40
7837.00,2.41
7836.00,2.41
7835.00,2.42
7834.00,2.43
7833.00,2.43
7832.00,2.44
7831.00,2.44
7830.00,2.44
7829.00,2.45
7828.00,2.45
7827.00,2.45
7826.00,2.45
7825.00,2.45
7824.00,2.44
7823.00,2.44
7822.00,2.43
7821.00,2.43
7820.00,2.42
7819.00,2.41
7818.00,2.41
7817.00,2.40
7816.00,2.39
7815.00,2.38
7814.00,2.37
7813.00,2.36
7812.00,2.35
7811.00,2.34
7810.00,2.33
7809.00,2.32
7808.00,2.31
7807.00,2.30
7806.00,2.30
7805.00,2.29
7804.00,2.29
7803.00,2.28
7802.00,2.28
7801.00,2.28
7800.00,2.27
7799.00,2.27
7798.00,2.27
7797.00,2.28
7796.00,2.28
7795.00,2.28
7794.00,2.29
7793.00,2.29
7792.00,2.30
7791.00,2.31
7790.00,2.31
7789.00,2.32
7788.00,2.33
7787.00,2.33
7786.00,2.34
7785.00,2.35
7784.00,2.35
7783.00,2.35
7782.00,2.36
7781.00,2.36
7780.00,2.37
7779.00,2.37
7778.00,2.38
7777.00,2.38
7776.00,2.38
7775.00,2.39
7774.00,2.39
7773.00,2.39
7772.00,2.39
7771.00,2.40
7770.00,2.40
7769.00,2.40
7768.00,2.40
7767.00,2.39
7766.00,2.39
7765.00,2.39
7764.00,2.39
7763.00,2.39
7762.00,2.39
7761.00,2.40
7760.00,2.40
7759.00,2.40
7758.00,2.40
7757.00,2.41
7756.00,2.41
7755.00,2.41
7754.00,2.41
7753.00,2.42
7752.00,2.42
7751.00,2.42
7750.00,2.42
7749.00,2.43
7748.00,2.43
7747.00,2.43
7746.00,2.44
7745.00,2.44
7744.00,2.45
7743.00,2.45
7742.00,2.46
7741.00,2.46
7740.00,2.47
7739.00,2.47
7738.00,2.48
7737.00,2.48
7736.00,2.48
7735.00,2.49
7734.00,2.49
7733.00,2.49
7732.00,2.49
7731.00,2.49
7730.00,2.49
7729.00,2.49
7728.00,2.49
7727.00,2.48
7726.00,2.48
7725.00,2.48
7724.00,2.48
7723.00,2.48
7722.00,2.47
7721.00,2.47
7720.00,2.47
7719.00,2.47
7718.00,2.46
7717.00,2.46
7716.00,2.45
7715.00,2.45
7714.00,2.44
7713.00,2.44
7712.00,2.43
7711.00,2.43
7710.00,2.43
7709.00,2.42
7708.00,2.42
7707.00,2.42
7706.00,2.42
7705.00,2.41
7704.00,2.41
7703.00,2.41
7702.00,2.41
7701.00,2.41
7700.00,2.41
7699.00,2.42
7698.00,2.42
7697.00,2.42
7696.00,2.42
7695.00,2.42
7694.00,2.42
7693.00,2.42
7692.00,2.42
7691.00,2.42
7690.00,2.42
7689.00,2.42
7688.00,2.43
7687.00,2.43
7686.00,2.43
7685.00,2.43
7684.00,2.44
7683.00,2.44
7682.00,2.44
7681.00,2.44
7680.00,2.45
7679.00,2.45
7678.00,2.45
7677.00,2.45
7676.00,2.45
7675.00,2.45
7674.00,2.45
7673.00,2.45
7672.00,2.45
7671.00,2.45
7670.00,2.46
7669.00,2.46
7668.00,2.46
7667.00,2.46
7666.00,2.47
7665.00,2.47
7664.00,2.47
7663.00,2.48
7662.00,2.48
7661.00,2.48
7660.00,2.49
7659.00,2.49
7658.00,2.49
7657.00,2.49
7656.00,2.49
7655.00,2.49
7654.00,2.49
7653.00,2.49
7652.00,2.49
7651.00,2.49
7650.00,2.49
7649.00,2.49
7648.00,2.49
7647.00,2.49
7646.00,2.49
7645.00,2.48
7644.00,2.48
7643.00,2.48
7642.00,2.48
7641.00,2.47
7640.00,2.47
7639.00,2.46
7638.00,2.46
7637.00,2.45
7636.00,2.45
7635.00,2.44
7634.00,2.44
7633.00,2.43
7632.00,2.43
7631.00,2.42
7630.00,2.42
7629.00,2.42
7628.00,2.42
7627.00,2.42
7626.00,2.41
7625.00,2.41
7624.00,2.41
7623.00,2.41
7622.00,2.41
7621.00,2.41
7620.00,2.41
7619.00,2.41
7618.00,2.41
7617.00,2.41
7616.00,2.41
7615.00,2.41
7614.00,2.42
7613.00,2.42
7612.00,2.42
7611.00,2.42
7610.00,2.42
7609.00,2.43
7608.00,2.43
7607.00,2.43
7606.00,2.43
7605.00,2.43
7604.00,2.44
7603.00,2.44
7602.00,2.44
7601.00,2.44
7600.00,2.44
7599.00,2.44
7598.00,2.44
7597.00,2.44
7596.00,2.44
7595.00,2.44
7594.00,2.44
7593.00,2.44
7592.00,2.44
7591.00,2.44
7590.00,2.44
7589.00,2.44
7588.00,2.45
7587.00,2.45
7586.00,2.45
7585.00,2.45
7584.00,2.45
7583.00,2.45
7582.00,2.45
7581.00,2.46
7580.00,2.46
7579.00,2.46
7578.00,2.46
7577.00,2.46
7576.00,2.47
7575.00,2.47
7574.00,2.47
7573.00,2.47
7572.00,2.47
7571.00,2.48
7570.00,2.48
7569.00,2.48
7568.00,2.48
7567.00,2.48
7566.00,2.48
7565.00,2.48
7564.00,2.48
7563.00,2.48
7562.00,2.48
7561.00,2.47
7560.00,2.47
7559.00,2.47
7558.00,2.47
7557.00,2.46
7556.00,2.46
7555.00,2.45
7554.00,2.45
7553.00,2.44
7552.00,2.44
7551.00,2.43
7550.00,2.43
7549.00,2.42
7548.00,2.41
7547.00,2.41
7546.00,2.40
7545.00,2.40
7544.00,2.39
7543.00,2.39
7542.00,2.39
7541.00,2.38
7540.00,2.38
7539.00,2.38
7538.00,2.38
7537.00,2.38
7536.00,2.37
7535.00,2.37
7534.00,2.37
7533.00,2.37
7532.00,2.38
7531.00,2.38
7530.00,2.38
7529.00,2.38
7528.00,2.38
7527.00,2.39
7526.00,2.39
7525.00,2.40
7524.00,2.40
7523.00,2.41
7522.00,2.41
7521.00,2.42
7520.00,2.42
7519.00,2.43
7518.00,2.43
7517.00,2.44
7516.00,2.44
7515.00,2.45
7514.00,2.45
7513.00,2.45
7512.00,2.45
7511.00,2.45
7510.00,2.45
7509.00,2.46
7508.00,2.46
7507.00,2.46
7506.00,2.46
7505.00,2.46
7504.00,2.46
7503.00,2.46
7502.00,2.46
7501.00,2.45
7500.00,2.45
7499.00,2.45
7498.00,2.45
7497.00,2.45
7496.00,2.45
7495.00,2.44
7494.00,2.44
7493.00,2.44
7492.00,2.43
7491.00,2.43
7490.00,2.43
7489.00,2.43
7488.00,2.43
7487.00,2.42
7486.00,2.42
7485.00,2.42
7484.00,2.42
7483.00,2.42
7482.00,2.42
7481.00,2.42
7480.00,2.42
7479.00,2.42
7478.00,2.42
7477.00,2.41
7476.00,2.41
7475.00,2.41
7474.00,2.41
7473.00,2.40
7472.00,2.40
7471.00,2.40
7470.00,2.40
7469.00,2.40
7468.00,2.40
7467.00,2.40
7466.00,2.39
7465.00,2.39
7464.00,2.39
7463.00,2.39
7462.00,2.39
7461.00,2.39
7460.00,2.39
7459.00,2.39
7458.00,2.38
7457.00,2.38
7456.00,2.38
7455.00,2.38
7454.00,2.38
7453.00,2.38
7452.00,2.38
7451.00,2.38
7450.00,2.38
7449.00,2.38
7448.00,2.38
7447.00,2.38
7446.00,2.38
7445.00,2.38
7444.00,2.38
7443.00,2.38
7442.00,2.38
7441.00,2.38
7440.00,2.38
7439.00,2.37
7438.00,2.37
7437.00,2.37
7436.00,2.37
7435.00,2.36
7434.00,2.36
7433.00,2.36
7432.00,2.36
7431.00,2.35
7430.00,2.35
7429.00,2.35
7428.00,2.35
7427.00,2.34
7426.00,2.34
7425.00,2.34
7424.00,2.34
7423.00,2.33
7422.00,2.33
7421.00,2.33
7420.00,2.32
7419.00,2.32
7418.00,2.32
7417.00,2.32
7416.00,2.32
7415.00,2.32
7414.00,2.32
7413.00,2.32
7412.00,2.32
7411.00,2.32
7410.00,2.32
7409.00,2.32
7408.00,2.32
7407.00,2.32
7406.00,2.32
7405.00,2.32
7404.00,2.32
7403.00,2.32
7402.00,2.32
7401.00,2.32
7400.00,2.32
7399.00,2.32
7398.00,2.32
7397.00,2.33
7396.00,2.33
7395.00,2.33
7394.00,2.33
7393.00,2.33
7392.00,2.33
7391.00,2.33
7390.00,2.33
7389.00,2.33
7388.00,2.33
7387.00,2.33
7386.00,2.33
7385.00,2.33
7384.00,2.33
7383.00,2.33
7382.00,2.33
7381.00,2.33
7380.00,2.33
7379.00,2.33
7378.00,2.33
7377.00,2.33
7376.00,2.33
7375.00,2.33
7374.00,2.33
7373.00,2.33
7372.00,2.32
7371.00,2.32
7370.00,2.32
7369.00,2.32
7368.00,2.32
7367.00,2.32
7366.00,2.31
7365.00,2.31
7364.00,2.31
7363.00,2.31
7362.00,2.31
7361.00,2.31
7360.00,2.32
7359.00,2.32
7358.00,2.32
7357.00,2.32
7356.00,2.32
7355.00,2.32
7354.00,2.33
7353.00,2.33
7352.00,2.33
7351.00,2.33
7350.00,2.34
7349.00,2.34
7348.00,2.34
7347.00,2.34
7346.00,2.34
7345.00,2.34
7344.00,2.34
7343.00,2.35
7342.00,2.35
7341.00,2.35
7340.00,2.35
7339.00,2.35
7338.00,2.35
7337.00,2.35
7336.00,2.35
7335.00,2.35
7334.00,2.34
7333.00,2.34
7332.00,2.34
7331.00,2.34
7330.00,2.34
7329.00,2.33
7328.00,2.33
7327.00,2.33
7326.00,2.33
7325.00,2.33
7324.00,2.33
7323.00,2.32
7322.00,2.32
7321.00,2.32
7320.00,2.32
7319.00,2.32
7318.00,2.33
7317.00,2.33
7316.00,2.33
7315.00,2.33
7314.00,2.33
7313.00,2.33
7312.00,2.33
7311.00,2.34
7310.00,2.34
7309.00,2.34
7308.00,2.34
7307.00,2.34
7306.00,2.34
7305.00,2.34
7304.00,2.35
7303.00,2.35
7302.00,2.35
7301.00,2.35
7300.00,2.35
7299.00,2.35
7298.00,2.36
7297.00,2.36
7296.00,2.36
7295.00,2.36
7294.00,2.36
7293.00,2.36
7292.00,2.36
7291.00,2.36
7290.00,2.36
7289.00,2.36
7288.00,2.35
7287.00,2.35
7286.00,2.35
7285.00,2.35
7284.00,2.35
7283.00,2.35
7282.00,2.35
7281.00,2.35
7280.00,2.34
7279.00,2.34
7278.00,2.34
7277.00,2.34
7276.00,2.34
7275.00,2.33
7274.00,2.33
7273.00,2.33
7272.00,2.33
7271.00,2.32
7270.00,2.32
7269.00,2.32
7268.00,2.32
7267.00,2.32
7266.00,2.32
7265.00,2.31
7264.00,2.31
7263.00,2.31
7262.00,2.31
7261.00,2.31
7260.00,2.31
7259.00,2.31
7258.00,2.31
7257.00,2.31
7256.00,2.31
7255.00,2.31
7254.00,2.31
7253.00,2.31
7252.00,2.31
7251.00,2.31
7250.00,2.32
7249.00,2.32
7248.00,2.32
7247.00,2.32
7246.00,2.32
7245.00,2.33
7244.00,2.33
7243.00,2.33
7242.00,2.33
7241.00,2.33
7240.00,2.33
7239.00,2.33
7238.00,2.32
7237.00,2.32
7236.00,2.32
7235.00,2.32
7234.00,2.32
7233.00,2.32
7232.00,2.32
7231.00,2.31
7230.00,2.31
7229.00,2.31
7228.00,2.30
7227.00,2.30
7226.00,2.30
7225.00,2.29
7224.00,2.29
7223.00,2.28
7222.00,2.28
7221.00,2.27
7220.00,2.27
7219.00,2.26
7218.00,2.26
7217.00,2.26
7216.00,2.25
7215.00,2.25
7214.00,2.24
7213.00,2.24
7212.00,2.24
7211.00,2.23
7210.00,2.23
7209.00,2.23
7208.00,2.23
7207.00,2.23
7206.00,2.23
7205.00,2.22
7204.00,2.22
7203.00,2.22
7202.00,2.22
7201.00,2.22
7200.00,2.22
7199.00,2.22
7198.00,2.22
7197.00,2.22
7196.00,2.22
7195.00,2.22
7194.00,2.22
7193.00,2.22
7192.00,2.22
7191.00,2.22
7190.00,2.22
7189.00,2.22
7188.00,2.22
7187.00,2.21
7186.00,2.21
7185.00,2.21
7184.00,2.20
7183.00,2.20
7182.00,2.19
7181.00,2.19
7180.00,2.18
7179.00,2.18
7178.00,2.17
7177.00,2.16
7176.00,2.16
7175.00,2.15
7174.00,2.14
7173.00,2.13
7172.00,2.13
7171.00,2.12
7170.00,2.11
7169.00,2.11
7168.00,2.10
7167.00,2.09
7166.00,2.09
7165.00,2.08
7164.00,2.08
7163.00,2.07
7162.00,2.07
7161.00,2.06
7160.00,2.06
7159.00,2.06
7158.00,2.05
7157.00,2.05
7156.00,2.05
7155.00,2.05
7154.00,2.05
7153.00,2.05
7152.00,2.05
7151.00,2.05
7150.00,2.05
7149.00,2.05
7148.00,2.05
7147.00,2.05
7146.00,2.05
7145.00,2.05
7144.00,2.04
7143.00,2.04
7142.00,2.04
7141.00,2.04
7140.00,2.04
7139.00,2.04
7138.00,2.04
7137.00,2.03
7136.00,2.03
7135.00,2.03
7134.00,2.02
7133.00,2.02
7132.00,2.02
7131.00,2.01
7130.00,2.01
7129.00,2.01
7128.00,2.00
7127.00,2.00
7126.00,2.00
7125.00,1.99
7124.00,1.99
7123.00,1.99
7122.00,1.98
7121.00,1.98
7120.00,1.98
7119.00,1.97
7118.00,1.97
7117.00,1.97
7116.00,1.97
7115.00,1.97
7114.00,1.97
7113.00,1.97
7112.00,1.97
7111.00,1.97
7110.00,1.97
7109.00,1.97
7108.00,1.97
7107.00,1.97
7106.00,1.97
7105.00,1.97
7104.00,1.97
7103.00,1.98
7102.00,1.98
7101.00,1.98
7100.00,1.98
7099.00,1.98
7098.00,1.98
7097.00,1.98
7096.00,1.98
7095.00,1.98
7094.00,1.98
7093.00,1.98
7092.00,1.98
7091.00,1.98
7090.00,1.98
7089.00,1.97
7088.00,1.97
7087.00,1.97
7086.00,1.97
7085.00,1.97
7084.00,1.97
7083.00,1.96
7082.00,1.96
7081.00,1.96
7080.00,1.96
7079.00,1.95
7078.00,1.95
7077.00,1.95
7076.00,1.95
7075.00,1.95
7074.00,1.94
7073.00,1.94
7072.00,1.94
7071.00,1.94
7070.00,1.94
7069.00,1.94
7068.00,1.94
7067.00,1.94
7066.00,1.94
7065.00,1.94
7064.00,1.95
7063.00,1.95
7062.00,1.95
7061.00,1.95
7060.00,1.95
7059.00,1.95
7058.00,1.95
7057.00,1.95
7056.00,1.95
7055.00,1.95
7054.00,1.95
7053.00,1.95
7052.00,1.95
7051.00,1.95
7050.00,1.95
7049.00,1.95
7048.00,1.95
7047.00,1.95
7046.00,1.95
7045.00,1.95
7044.00,1.94
7043.00,1.94
7042.00,1.94
7041.00,1.94
7040.00,1.93
7039.00,1.93
7038.00,1.93
7037.00,1.92
7036.00,1.92
7035.00,1.92
7034.00,1.91
7033.00,1.91
7032.00,1.91
7031.00,1.91
7030.00,1.90
7029.00,1.90
7028.00,1.90
7027.00,1.89
7026.00,1.89
7025.00,1.88
7024.00,1.88
7023.00,1.88
7022.00,1.87
7021.00,1.87
7020.00,1.87
7019.00,1.87
7018.00,1.86
7017.00,1.86
7016.00,1.86
7015.00,1.86
7014.00,1.85
7013.00,1.85
7012.00,1.85
7011.00,1.85
7010.00,1.85
7009.00,1.85
7008.00,1.85
7007.00,1.85
7006.00,1.85
7005.00,1.84
7004.00,1.84
7003.00,1.84
7002.00,1.84
7001.00,1.84
7000.00,1.84
6999.00,1.84
6998.00,1.84
6997.00,1.84
6996.00,1.84
6995.00,1.84
6994.00,1.84
6993.00,1.84
6992.00,1.84
6991.00,1.84
6990.00,1.84
6989.00,1.84
6988.00,1.84
6987.00,1.85
6986.00,1.85
6985.00,1.85
6984.00,1.85
6983.00,1.85
6982.00,1.85
6981.00,1.85
6980.00,1.85
6979.00,1.84
6978.00,1.84
6977.00,1.84
6976.00,1.84
6975.00,1.84
6974.00,1.84
6973.00,1.84
6972.00,1.84
6971.00,1.84
6970.00,1.84
6969.00,1.84
6968.00,1.84
6967.00,1.84
6966.00,1.84
6965.00,1.83
6964.00,1.83
6963.00,1.83
6962.00,1.83
6961.00,1.83
6960.00,1.82
6959.00,1.82
6958.00,1.82
6957.00,1.81
6956.00,1.81
6955.00,1.81
6954.00,1.81
6953.00,1.81
6952.00,1.80
6951.00,1.80
6950.00,1.80
6949.00,1.80
6948.00,1.80
6947.00,1.80
6946.00,1.80
6945.00,1.80
6944.00,1.80
6943.00,1.79
6942.00,1.79
6941.00,1.79
6940.00,1.79
6939.00,1.79
6938.00,1.79
6937.00,1.78
6936.00,1.78
6935.00,1.78
6934.00,1.79
6933.00,1.79
6932.00,1.79
6931.00,1.79
6930.00,1.79
6929.00,1.79
6928.00,1.79
6927.00,1.79
6926.00,1.79
6925.00,1.78
6924.00,1.78
6923.00,1.78
6922.00,1.78
6921.00,1.78
6920.00,1.78
6919.00,1.78
6918.00,1.77
6917.00,1.77
6916.00,1.77
6915.00,1.77
6914.00,1.77
6913.00,1.77
6912.00,1.76
6911.00,1.76
6910.00,1.76
6909.00,1.76
6908.00,1.76
6907.00,1.76
6906.00,1.76
6905.00,1.76
6904.00,1.76
6903.00,1.76
6902.00,1.76
6901.00,1.76
6900.00,1.76
6899.00,1.76
6898.00,1.76
6897.00,1.76
6896.00,1.76
6895.00,1.76
6894.00,1.76
6893.00,1.76
6892.00,1.77
6891.00,1.77
6890.00,1.77
6889.00,1.77
6888.00,1.78
6887.00,1.78
6886.00,1.78
6885.00,1.78
6884.00,1.79
6883.00,1.79
6882.00,1.79
6881.00,1.79
6880.00,1.79
6879.00,1.79
6878.00,1.80
6877.00,1.80
6876.00,1.80
6875.00,1.80
6874.00,1.80
6873.00,1.80
6872.00,1.81
6871.00,1.81
6870.00,1.81
6869.00,1.81
6868.00,1.81
6867.00,1.81
6866.00,1.82
6865.00,1.82
6864.00,1.82
6863.00,1.82
6862.00,1.82
6861.00,1.82
6860.00,1.82
6859.00,1.82
6858.00,1.82
6857.00,1.82
6856.00,1.82
6855.00,1.82
6854.00,1.82
6853.00,1.82
6852.00,1.82
6851.00,1.82
6850.00,1.82
6849.00,1.82
6848.00,1.82
6847.00,1.82
6846.00,1.82
6845.00,1.82
6844.00,1.82
6843.00,1.82
6842.00,1.82
6841.00,1.82
6840.00,1.82
6839.00,1.83
6838.00,1.83
6837.00,1.83
6836.00,1.83
6835.00,1.83
6834.00,1.84
6833.00,1.84
6832.00,1.84
6831.00,1.84
6830.00,1.85
6829.00,1.85
6828.00,1.85
6827.00,1.86
6826.00,1.86
6825.00,1.86
6824.00,1.87
6823.00,1.87
6822.00,1.87
6821.00,1.87
6820.00,1.88
6819.00,1.88
6818.00,1.88
6817.00,1.88
6816.00,1.88
6815.00,1.88
6814.00,1.88
6813.00,1.88
6812.00,1.88
6811.00,1.88
6810.00,1.88
6809.00,1.88
6808.00,1.88
6807.00,1.88
6806.00,1.87
6805.00,1.87
6804.00,1.87
6803.00,1.87
6802.00,1.87
6801.00,1.87
6800.00,1.87
6799.00,1.86
6798.00,1.86
6797.00,1.86
6796.00,1.86
6795.00,1.86
6794.00,1.86
6793.00,1.86
6792.00,1.86
6791.00,1.86
6790.00,1.86
6789.00,1.86
6788.00,1.86
6787.00,1.86
6786.00,1.86
6785.00,1.86
6784.00,1.86
6783.00,1.86
6782.00,1.86
6781.00,1.86
6780.00,1.86
6779.00,1.86
6778.00,1.86
6777.00,1.86
6776.00,1.86
6775.00,1.86
6774.00,1.86
6773.00,1.86
6772.00,1.86
6771.00,1.87
6770.00,1.87
6769.00,1.87
6768.00,1.87
6767.00,1.87
6766.00,1.88
6765.00,1.88
6764.00,1.88
6763.00,1.88
6762.00,1.89
6761.00,1.89
6760.00,1.89
6759.00,1.90
6758.00,1.90
6757.00,1.91
6756.00,1.91
6755.00,1.91
6754.00,1.92
6753.00,1.92
6752.00,1.92
6751.00,1.93
6750.00,1.93
6749.00,1.93
6748.00,1.93
6747.00,1.93
6746.00,1.93
6745.00,1.94
6744.00,1.94
6743.00,1.94
6742.00,1.94
6741.00,1.94
6740.00,1.94
6739.00,1.94
6738.00,1.94
6737.00,1.93
6736.00,1.93
6735.00,1.93
6734.00,1.93
6733.00,1.92
6732.00,1.92
6731.00,1.91
6730.00,1.91
6729.00,1.91
6728.00,1.90
6727.00,1.90
6726.00,1.90
6725.00,1.90
6724.00,1.89
6723.00,1.89
6722.00,1.89
6721.00,1.89
6720.00,1.89
6719.00,1.89
6718.00,1.89
6717.00,1.89
6716.00,1.89
6715.00,1.89
6714.00,1.89
6713.00,1.89
6712.00,1.89
6711.00,1.89
6710.00,1.89
6709.00,1.89
6708.00,1.89
6707.00,1.90
6706.00,1.90
6705.00,1.90
6704.00,1.91
6703.00,1.91
6702.00,1.91
6701.00,1.91
6700.00,1.92
6699.00,1.92
6698.00,1.92
6697.00,1.93
6696.00,1.93
6695.00,1.93
6694.00,1.93
6693.00,1.93
6692.00,1.93
6691.00,1.93
6690.00,1.93
6689.00,1.94
6688.00,1.94
6687.00,1.94
6686.00,1.94
6685.00,1.94
6684.00,1.94
6683.00,1.94
6682.00,1.94
6681.00,1.95
6680.00,1.95
6679.00,1.95
6678.00,1.95
6677.00,1.95
6676.00,1.95
6675.00,1.95
6674.00,1.95
6673.00,1.95
6672.00,1.95
6671.00,1.95
6670.00,1.95
6669.00,1.95
6668.00,1.95
6667.00,1.95
6666.00,1.95
6665.00,1.96
6664.00,1.96
6663.00,1.96
6662.00,1.96
6661.00,1.96
6660.00,1.96
6659.00,1.96
6658.00,1.96
6657.00,1.96
6656.00,1.96
6655.00,1.96
6654.00,1.96
6653.00,1.96
6652.00,1.96
6651.00,1.96
6650.00,1.96
6649.00,1.96
6648.00,1.96
6647.00,1.96
6646.00,1.96
6645.00,1.96
6644.00,1.96
6643.00,1.96
6642.00,1.96
6641.00,1.97
6640.00,1.97
6639.00,1.97
6638.00,1.97
6637.00,1.97
6636.00,1.97
6635.00,1.98
6634.00,1.98
6633.00,1.98
6632.00,1.99
6631.00,1.99
6630.00,2.00
6629.00,2.00
6628.00,2.00
6627.00,2.01
6626.00,2.01
6625.00,2.02
6624.00,2.02
6623.00,2.02
6622.00,2.03
6621.00,2.03
6620.00,2.03
6619.00,2.04
6618.00,2.04
6617.00,2.05
6616.00,2.05
6615.00,2.05
6614.00,2.06
6613.00,2.06
6612.00,2.07
6611.00,2.07
6610.00,2.07
6609.00,2.08
6608.00,2.08
6607.00,2.08
6606.00,2.08
6605.00,2.09
6604.00,2.09
6603.00,2.09
6602.00,2.09
6601.00,2.09
6600.00,2.09
6599.00,2.09
6598.00,2.09
6597.00,2.09
6596.00,2.09
6595.00,2.10
6594.00,2.10
6593.00,2.10
6592.00,2.10
6591.00,2.10
6590.00,2.10
6589.00,2.10
6588.00,2.10
6587.00,2.10
6586.00,2.10
6585.00,2.10
6584.00,2.10
6583.00,2.10
6582.00,2.10
6581.00,2.10
6580.00,2.10
6579.00,2.10
6578.00,2.10
6577.00,2.11
6576.00,2.11
6575.00,2.11
6574.00,2.11
6573.00,2.11
6572.00,2.12
6571.00,2.12
6570.00,2.12
6569.00,2.13
6568.00,2.13
6567.00,2.13
6566.00,2.13
6565.00,2.14
6564.00,2.14
6563.00,2.14
6562.00,2.14
6561.00,2.14
6560.00,2.14
6559.00,2.15
6558.00,2.15
6557.00,2.15
6556.00,2.15
6555.00,2.15
6554.00,2.15
6553.00,2.15
6552.00,2.15
6551.00,2.15
6550.00,2.15
6549.00,2.15
6548.00,2.16
6547.00,2.16
6546.00,2.16
6545.00,2.16
6544.00,2.16
6543.00,2.16
6542.00,2.16
6541.00,2.16
6540.00,2.16
6539.00,2.16
6538.00,2.17
6537.00,2.17
6536.00,2.17
6535.00,2.17
6534.00,2.17
6533.00,2.17
6532.00,2.17
6531.00,2.18
6530.00,2.18
6529.00,2.18
6528.00,2.18
6527.00,2.18
6526.00,2.18
6525.00,2.18
6524.00,2.18
6523.00,2.18
6522.00,2.18
6521.00,2.18
6520.00,2.18
6519.00,2.18
6518.00,2.18
6517.00,2.18
6516.00,2.18
6515.00,2.18
6514.00,2.18
6513.00,2.18
6512.00,2.18
6511.00,2.18
6510.00,2.18
6509.00,2.18
6508.00,2.17
6507.00,2.17
6506.00,2.17
6505.00,2.17
6504.00,2.17
6503.00,2.16
6502.00,2.16
6501.00,2.16
6500.00,2.16
6499.00,2.16
6498.00,2.15
6497.00,2.15
6496.00,2.15
6495.00,2.15
6494.00,2.14
6493.00,2.14
6492.00,2.14
6491.00,2.14
6490.00,2.14
6489.00,2.14
6488.00,2.13
6487.00,2.13
6486.00,2.13
6485.00,2.13
6484.00,2.12
6483.00,2.12
6482.00,2.12
6481.00,2.12
6480.00,2.11
6479.00,2.11
6478.00,2.11
6477.00,2.11
6476.00,2.11
6475.00,2.11
6474.00,2.11
6473.00,2.11
6472.00,2.11
6471.00,2.11
6470.00,2.11
6469.00,2.12
6468.00,2.12
6467.00,2.12
6466.00,2.12
6465.00,2.12
6464.00,2.13
6463.00,2.13
6462.00,2.13
6461.00,2.14
6460.00,2.14
6459.00,2.14
6458.00,2.15
6457.00,2.15
6456.00,2.16
6455.00,2.16
6454.00,2.17
6453.00,2.17
6452.00,2.18
6451.00,2.18
6450.00,2.18
6449.00,2.19
6448.00,2.19
6447.00,2.19
6446.00,2.20
6445.00,2.20
6444.00,2.20
6443.00,2.21
6442.00,2.21
6441.00,2.21
6440.00,2.21
6439.00,2.22
6438.00,2.22
6437.00,2.22
6436.00,2.22
6435.00,2.22
6434.00,2.22
6433.00,2.22
6432.00,2.22
6431.00,2.21
6430.00,2.21
6429.00,2.21
6428.00,2.21
6427.00,2.21
6426.00,2.21
6425.00,2.21
6424.00,2.21
6423.00,2.21
6422.00,2.21
6421.00,2.21
6420.00,2.21
6419.00,2.21
6418.00,2.21
6417.00,2.21
6416.00,2.21
6415.00,2.21
6414.00,2.21
6413.00,2.20
6412.00,2.20
6411.00,2.21
6410.00,2.21
6409.00,2.21
6408.00,2.21
6407.00,2.21
6406.00,2.21
6405.00,2.22
6404.00,2.22
6403.00,2.22
6402.00,2.22
6401.00,2.22
6400.00,2.23
6399.00,2.23
6398.00,2.23
6397.00,2.23
6396.00,2.23
6395.00,2.23
6394.00,2.23
6393.00,2.24
6392.00,2.24
6391.00,2.24
6390.00,2.24
6389.00,2.24
6388.00,2.25
6387.00,2.25
6386.00,2.25
6385.00,2.25
6384.00,2.25
6383.00,2.25
6382.00,2.26
6381.00,2.26
6380.00,2.26
6379.00,2.26
6378.00,2.26
6377.00,2.26
6376.00,2.26
6375.00,2.26
6374.00,2.26
6373.00,2.26
6372.00,2.26
6371.00,2.27
6370.00,2.27
6369.00,2.27
6368.00,2.27
6367.00,2.27
6366.00,2.27
6365.00,2.28
6364.00,2.28
6363.00,2.28
6362.00,2.28
6361.00,2.28
6360.00,2.29
6359.00,2.29
6358.00,2.29
6357.00,2.29
6356.00,2.29
6355.00,2.29
6354.00,2.30
6353.00,2.30
6352.00,2.30
6351.00,2.30
6350.00,2.30
6349.00,2.30
6348.00,2.30
6347.00,2.30
6346.00,2.30
6345.00,2.30
6344.00,2.30
6343.00,2.30
6342.00,2.30
6341.00,2.30
6340.00,2.30
6339.00,2.29
6338.00,2.29
6337.00,2.29
6336.00,2.29
6335.00,2.29
6334.00,2.29
6333.00,2.29
6332.00,2.29
6331.00,2.29
6330.00,2.29
6329.00,2.29
6328.00,2.30
6327.00,2.30
6326.00,2.30
6325.00,2.30
6324.00,2.30
6323.00,2.31
6322.00,2.31
6321.00,2.31
6320.00,2.32
6319.00,2.32
6318.00,2.32
6317.00,2.32
6316.00,2.33
6315.00,2.33
6314.00,2.34
6313.00,2.34
6312.00,2.34
6311.00,2.35
6310.00,2.35
6309.00,2.35
6308.00,2.36
6307.00,2.36
6306.00,2.36
6305.00,2.36
6304.00,2.36
6303.00,2.36
6302.00,2.37
6301.00,2.37
6300.00,2.37
6299.00,2.36
6298.00,2.36
6297.00,2.36
6296.00,2.36
6295.00,2.36
6294.00,2.36
6293.00,2.36
6292.00,2.36
6291.00,2.36
6290.00,2.36
6289.00,2.35
6288.00,2.35
6287.00,2.35
6286.00,2.35
6285.00,2.34
6284.00,2.34
6283.00,2.34
6282.00,2.34
6281.00,2.33
6280.00,2.33
6279.00,2.33
6278.00,2.33
6277.00,2.33
6276.00,2.33
6275.00,2.33
6274.00,2.32
6273.00,2.32
6272.00,2.32
6271.00,2.32
6270.00,2.32
6269.00,2.32
6268.00,2.32
6267.00,2.32
6266.00,2.32
6265.00,2.32
6264.00,2.32
6263.00,2.32
6262.00,2.32
6261.00,2.32
6260.00,2.32
6259.00,2.32
6258.00,2.32
6257.00,2.32
6256.00,2.32
6255.00,2.32
6254.00,2.32
6253.00,2.32
6252.00,2.32
6251.00,2.33
6250.00,2.33
6249.00,2.33
6248.00,2.33
6247.00,2.33
6246.00,2.33
6245.00,2.33
6244.00,2.33
6243.00,2.34
6242.00,2.34
6241.00,2.34
6240.00,2.34
6239.00,2.35
6238.00,2.35
6237.00,2.35
6236.00,2.35
6235.00,2.36
6234.00,2.36
6233.00,2.36
6232.00,2.37
6231.00,2.37
6230.00,2.37
6229.00,2.38
6228.00,2.38
6227.00,2.38
6226.00,2.38
6225.00,2.38
6224.00,2.39
6223.00,2.39
6222.00,2.39
6221.00,2.39
6220.00,2.39
6219.00,2.39
6218.00,2.39
6217.00,2.39
6216.00,2.39
6215.00,2.39
6214.00,2.39
6213.00,2.39
6212.00,2.39
6211.00,2.38
6210.00,2.38
6209.00,2.38
6208.00,2.38
6207.00,2.38
6206.00,2.38
6205.00,2.37
6204.00,2.37
6203.00,2.37
6202.00,2.37
6201.00,2.37
6200.00,2.37
6199.00,2.36
6198.00,2.36
6197.00,2.36
6196.00,2.36
6195.00,2.36
6194.00,2.36
6193.00,2.36
6192.00,2.36
6191.00,2.36
6190.00,2.37
6189.00,2.37
6188.00,2.37
6187.00,2.37
6186.00,2.37
6185.00,2.38
6184.00,2.38
6183.00,2.38
6182.00,2.39
6181.00,2.39
6180.00,2.39
6179.00,2.40
6178.00,2.40
6177.00,2.40
6176.00,2.41
6175.00,2.41
6174.00,2.42
6173.00,2.42
6172.00,2.43
6171.00,2.43
6170.00,2.44
6169.00,2.44
6168.00,2.45
6167.00,2.45
6166.00,2.45
6165.00,2.46
6164.00,2.46
6163.00,2.47
6162.00,2.47
6161.00,2.47
6160.00,2.48
6159.00,2.48
6158.00,2.48
6157.00,2.49
6156.00,2.49
6155.00,2.49
6154.00,2.49
6153.00,2.49
6152.00,2.49
6151.00,2.49
6150.00,2.48
6149.00,2.48
6148.00,2.48
6147.00,2.48
6146.00,2.47
6145.00,2.47
6144.00,2.47
6143.00,2.46
6142.00,2.46
6141.00,2.46
6140.00,2.45
6139.00,2.45
6138.00,2.45
6137.00,2.45
6136.00,2.44
6135.00,2.44
6134.00,2.44
6133.00,2.43
6132.00,2.43
6131.00,2.43
6130.00,2.43
6129.00,2.43
6128.00,2.43
6127.00,2.43
6126.00,2.43
6125.00,2.43
6124.00,2.43
6123.00,2.44
6122.00,2.44
6121.00,2.44
6120.00,2.45
6119.00,2.45
6118.00,2.45
6117.00,2.46
6116.00,2.46
6115.00,2.46
6114.00,2.47
6113.00,2.47
6112.00,2.48
6111.00,2.48
6110.00,2.48
6109.00,2.48
6108.00,2.49
6107.00,2.49
6106.00,2.49
6105.00,2.49
6104.00,2.49
6103.00,2.49
6102.00,2.49
6101.00,2.49
6100.00,2.49
6099.00,2.49
6098.00,2.49
6097.00,2.49
6096.00,2.49
6095.00,2.49
6094.00,2.48
6093.00,2.48
6092.00,2.48
6091.00,2.48
6090.00,2.48
6089.00,2.48
6088.00,2.48
6087.00,2.48
6086.00,2.48
6085.00,2.48
6084.00,2.48
6083.00,2.48
6082.00,2.48
6081.00,2.49
6080.00,2.49
6079.00,2.49
6078.00,2.49
6077.00,2.50
6076.00,2.50
6075.00,2.50
6074.00,2.51
6073.00,2.51
6072.00,2.51
6071.00,2.52
6070.00,2.52
6069.00,2.52
6068.00,2.52
6067.00,2.53
6066.00,2.53
6065.00,2.53
6064.00,2.53
6063.00,2.54
6062.00,2.54
6061.00,2.54
6060.00,2.54
6059.00,2.54
6058.00,2.54
6057.00,2.54
6056.00,2.54
6055.00,2.54
6054.00,2.54
6053.00,2.54
6052.00,2.54
6051.00,2.54
6050.00,2.54
6049.00,2.54
6048.00,2.54
6047.00,2.54
6046.00,2.54
6045.00,2.54
6044.00,2.54
6043.00,2.54
6042.00,2.54
6041.00,2.54
6040.00,2.54
6039.00,2.54
6038.00,2.54
6037.00,2.54
6036.00,2.54
6035.00,2.54
6034.00,2.54
6033.00,2.54
6032.00,2.54
6031.00,2.54
6030.00,2.54
6029.00,2.54
6028.00,2.54
6027.00,2.54
6026.00,2.54
6025.00,2.54
6024.00,2.54
6023.00,2.54
6022.00,2.54
6021.00,2.54
6020.00,2.54
6019.00,2.53
6018.00,2.53
6017.00,2.53
6016.00,2.53
6015.00,2.52
6014.00,2.52
6013.00,2.52
6012.00,2.52
6011.00,2.52
6010.00,2.52
6009.00,2.52
6008.00,2.52
6007.00,2.52
6006.00,2.52
6005.00,2.52
6004.00,2.52
6003.00,2.52
6002.00,2.52
6001.00,2.52
6000.00,2.52
5999.00,2.52
5998.00,2.52
5997.00,2.52
5996.00,2.52
5995.00,2.52
5994.00,2.52
5993.00,2.52
5992.00,2.52
5991.00,2.53
5990.00,2.53
5989.00,2.53
5988.00,2.53
5987.00,2.53
5986.00,2.53
5985.00,2.53
5984.00,2.53
5983.00,2.53
5982.00,2.53
5981.00,2.53
5980.00,2.53
5979.00,2.53
5978.00,2.53
5977.00,2.53
5976.00,2.52
5975.00,2.52
5974.00,2.52
5973.00,2.51
5972.00,2.51
5971.00,2.51
5970.00,2.51
5969.00,2.50
5968.00,2.50
5967.00,2.50
5966.00,2.49
5965.00,2.49
5964.00,2.49
5963.00,2.49
5962.00,2.48
5961.00,2.48
5960.00,2.48
5959.00,2.47
5958.00,2.47
5957.00,2.47
5956.00,2.46
5955.00,2.46
5954.00,2.45
5953.00,2.45
5952.00,2.45
5951.00,2.44
5950.00,2.44
5949.00,2.44
5948.00,2.43
5947.00,2.43
5946.00,2.43
5945.00,2.43
5944.00,2.42
5943.00,2.42
5942.00,2.42
5941.00,2.42
5940.00,2.41
5939.00,2.41
5938.00,2.41
5937.00,2.40
5936.00,2.40
5935.00,2.40
5934.00,2.40
5933.00,2.39
5932.00,2.39
5931.00,2.39
5930.00,2.39
5929.00,2.38
5928.00,2.38
5927.00,2.38
5926.00,2.38
5925.00,2.38
5924.00,2.38
5923.00,2.37
5922.00,2.37
5921.00,2.37
5920.00,2.37
5919.00,2.37
5918.00,2.37
5917.00,2.37
5916.00,2.37
5915.00,2.37
5914.00,2.38
5913.00,2.38
5912.00,2.38
5911.00,2.38
5910.00,2.38
5909.00,2.39
5908.00,2.39
5907.00,2.39
5906.00,2.39
5905.00,2.40
5904.00,2.40
5903.00,2.40
5902.00,2.41
5901.00,2.41
5900.00,2.41
5899.00,2.42
5898.00,2.42
5897.00,2.42
5896.00,2.42
5895.00,2.43
5894.00,2.43
5893.00,2.43
5892.00,2.43
5891.00,2.43
5890.00,2.44
5889.00,2.44
5888.00,2.44
5887.00,2.44
5886.00,2.44
5885.00,2.44
5884.00,2.44
5883.00,2.45
5882.00,2.45
5881.00,2.45
5880.00,2.45
5879.00,2.45
5878.00,2.45
5877.00,2.45
5876.00,2.45
5875.00,2.45
5874.00,2.45
5873.00,2.45
5872.00,2.46
5871.00,2.46
5870.00,2.46
5869.00,2.46
5868.00,2.46
5867.00,2.46
5866.00,2.46
5865.00,2.46
5864.00,2.47
5863.00,2.47
5862.00,2.47
5861.00,2.47
5860.00,2.47
5859.00,2.47
5858.00,2.47
5857.00,2.47
5856.00,2.47
5855.00,2.47
5854.00,2.47
5853.00,2.47
5852.00,2.47
5851.00,2.47
5850.00,2.47
5849.00,2.47
5848.00,2.47
5847.00,2.47
5846.00,2.47
5845.00,2.47
5844.00,2.47
5843.00,2.47
5842.00,2.47
5841.00,2.47
5840.00,2.47
5839.00,2.47
5838.00,2.47
5837.00,2.47
5836.00,2.48
5835.00,2.48
5834.00,2.48
5833.00,2.48
5832.00,2.48
5831.00,2.48
5830.00,2.48
5829.00,2.48
5828.00,2.49
5827.00,2.49
5826.00,2.49
5825.00,2.49
5824.00,2.49
5823.00,2.49
5822.00,2.49
5821.00,2.49
5820.00,2.49
5819.00,2.49
5818.00,2.49
5817.00,2.49
5816.00,2.49
5815.00,2.49
5814.00,2.49
5813.00,2.49
5812.00,2.49
5811.00,2.49
5810.00,2.49
5809.00,2.49
5808.00,2.49
5807.00,2.49
5806.00,2.49
5805.00,2.48
5804.00,2.48
5803.00,2.48
5802.00,2.48
5801.00,2.48
5800.00,2.47
5799.00,2.47
5798.00,2.47
5797.00,2.47
5796.00,2.47
5795.00,2.47
5794.00,2.46
5793.00,2.46
5792.00,2.46
5791.00,2.46
5790.00,2.46
5789.00,2.46
5788.00,2.46
5787.00,2.46
5786.00,2.45
5785.00,2.45
5784.00,2.45
5783.00,2.45
5782.00,2.45
5781.00,2.45
5780.00,2.44
5779.00,2.44
5778.00,2.44
5777.00,2.44
5776.00,2.44
5775.00,2.44
5774.00,2.44
5773.00,2.44
5772.00,2.44
5771.00,2.44
5770.00,2.43
5769.00,2.43
5768.00,2.43
5767.00,2.43
5766.00,2.43
5765.00,2.42
5764.00,2.42
5763.00,2.42
5762.00,2.42
5761.00,2.42
5760.00,2.42
5759.00,2.42
5758.00,2.42
5757.00,2.42
5756.00,2.42
5755.00,2.42
5754.00,2.42
5753.00,2.42
5752.00,2.42
5751.00,2.42
5750.00,2.42
5749.00,2.43
5748.00,2.43
5747.00,2.43
5746.00,2.43
5745.00,2.43
5744.00,2.43
5743.00,2.43
5742.00,2.43
5741.00,2.43
5740.00,2.43
5739.00,2.44
5738.00,2.44
5737.00,2.44
5736.00,2.44
5735.00,2.44
5734.00,2.44
5733.00,2.44
5732.00,2.44
5731.00,2.44
5730.00,2.44
5729.00,2.44
5728.00,2.44
5727.00,2.44
5726.00,2.44
5725.00,2.44
5724.00,2.44
5723.00,2.44
5722.00,2.44
5721.00,2.44
5720.00,2.44
5719.00,2.44
5718.00,2.44
5717.00,2.44
5716.00,2.44
5715.00,2.44
5714.00,2.44
5713.00,2.44
5712.00,2.44
5711.00,2.44
5710.00,2.44
5709.00,2.44
5708.00,2.44
5707.00,2.44
5706.00,2.44
5705.00,2.44
5704.00,2.44
5703.00,2.44
5702.00,2.44
5701.00,2.44
5700.00,2.44
5699.00,2.44
5698.00,2.43
5697.00,2.43
5696.00,2.43
5695.00,2.43
5694.00,2.43
5693.00,2.43
5692.00,2.43
5691.00,2.43
5690.00,2.43
5689.00,2.43
5688.00,2.43
5687.00,2.43
5686.00,2.43
5685.00,2.43
5684.00,2.43
5683.00,2.43
5682.00,2.43
5681.00,2.43
5680.00,2.43
5679.00,2.43
5678.00,2.43
5677.00,2.43
5676.00,2.43
5675.00,2.43
5674.00,2.44
5673.00,2.44
5672.00,2.44
5671.00,2.44
5670.00,2.44
5669.00,2.44
5668.00,2.45
5667.00,2.45
5666.00,2.45
5665.00,2.45
5664.00,2.45
5663.00,2.46
5662.00,2.46
5661.00,2.46
5660.00,2.46
5659.00,2.46
5658.00,2.46
5657.00,2.46
5656.00,2.47
5655.00,2.47
5654.00,2.47
5653.00,2.47
5652.00,2.47
5651.00,2.47
5650.00,2.48
5649.00,2.48
5648.00,2.48
5647.00,2.48
5646.00,2.48
5645.00,2.48
5644.00,2.48
5643.00,2.48
5642.00,2.48
5641.00,2.48
5640.00,2.48
5639.00,2.48
5638.00,2.48
5637.00,2.48
5636.00,2.48
5635.00,2.48
5634.00,2.48
5633.00,2.48
5632.00,2.48
5631.00,2.48
5630.00,2.48
5629.00,2.48
5628.00,2.48
5627.00,2.48
5626.00,2.48
5625.00,2.48
5624.00,2.48
5623.00,2.48
5622.00,2.48
5621.00,2.48
5620.00,2.48
5619.00,2.49
5618.00,2.49
5617.00,2.49
5616.00,2.49
5615.00,2.49
5614.00,2.49
5613.00,2.49
5612.00,2.49
5611.00,2.49
5610.00,2.49
5609.00,2.49
5608.00,2.49
5607.00,2.50
5606.00,2.50
5605.00,2.50
5604.00,2.50
5603.00,2.50
5602.00,2.50
5601.00,2.50
5600.00,2.51
5599.00,2.51
5598.00,2.51
5597.00,2.51
5596.00,2.51
5595.00,2.51
5594.00,2.51
5593.00,2.52
5592.00,2.52
5591.00,2.52
5590.00,2.52
5589.00,2.52
5588.00,2.52
5587.00,2.53
5586.00,2.53
5585.00,2.53
5584.00,2.53
5583.00,2.53
5582.00,2.53
5581.00,2.53
5580.00,2.53
5579.00,2.53
5578.00,2.53
5577.00,2.53
5576.00,2.53
5575.00,2.53
5574.00,2.53
5573.00,2.53
5572.00,2.53
5571.00,2.53
5570.00,2.53
5569.00,2.53
5568.00,2.53
5567.00,2.53
5566.00,2.53
5565.00,2.54
5564.00,2.54
5563.00,2.54
5562.00,2.54
5561.00,2.54
5560.00,2.54
5559.00,2.54
5558.00,2.54
5557.00,2.54
5556.00,2.54
5555.00,2.54
5554.00,2.54
5553.00,2.55
5552.00,2.55
5551.00,2.55
5550.00,2.55
5549.00,2.55
5548.00,2.55
5547.00,2.56
5546.00,2.56
5545.00,2.56
5544.00,2.56
5543.00,2.56
5542.00,2.56
5541.00,2.56
5540.00,2.56
5539.00,2.56
5538.00,2.56
5537.00,2.56
5536.00,2.56
5535.00,2.56
5534.00,2.56
5533.00,2.56
5532.00,2.56
5531.00,2.56
5530.00,2.56
5529.00,2.56
5528.00,2.56
5527.00,2.56
5526.00,2.56
5525.00,2.56
5524.00,2.56
5523.00,2.56
5522.00,2.56
5521.00,2.55
5520.00,2.55
5519.00,2.55
5518.00,2.55
5517.00,2.55
5516.00,2.55
5515.00,2.55
5514.00,2.55
5513.00,2.55
5512.00,2.55
5511.00,2.55
5510.00,2.55
5509.00,2.55
5508.00,2.55
5507.00,2.55
5506.00,2.55
5505.00,2.55
5504.00,2.55
5503.00,2.55
5502.00,2.55
5501.00,2.56
5500.00,2.56
5499.00,2.56
5498.00,2.56
5497.00,2.56
5496.00,2.56
5495.00,2.56
5494.00,2.56
5493.00,2.56
5492.00,2.55
5491.00,2.55
5490.00,2.55
5489.00,2.55
5488.00,2.55
5487.00,2.55
5486.00,2.55
5485.00,2.55
5484.00,2.55
5483.00,2.55
5482.00,2.55
5481.00,2.55
5480.00,2.55
5479.00,2.55
5478.00,2.55
5477.00,2.55
5476.00,2.55
5475.00,2.54
5474.00,2.54
5473.00,2.54
5472.00,2.54
5471.00,2.54
5470.00,2.54
5469.00,2.54
5468.00,2.54
5467.00,2.54
5466.00,2.54
5465.00,2.54
5464.00,2.54
5463.00,2.55
5462.00,2.55
5461.00,2.55
5460.00,2.55
5459.00,2.55
5458.00,2.55
5457.00,2.54
5456.00,2.54
5455.00,2.54
5454.00,2.54
5453.00,2.54
5452.00,2.54
5451.00,2.54
5450.00,2.55
5449.00,2.55
5448.00,2.55
5447.00,2.55
5446.00,2.55
5445.00,2.55
5444.00,2.55
5443.00,2.55
5442.00,2.55
5441.00,2.55
5440.00,2.55
5439.00,2.55
5438.00,2.55
5437.00,2.56
5436.00,2.56
5435.00,2.56
5434.00,2.56
5433.00,2.56
5432.00,2.56
5431.00,2.56
5430.00,2.57
5429.00,2.57
5428.00,2.57
5427.00,2.57
5426.00,2.57
5425.00,2.57
5424.00,2.58
5423.00,2.58
5422.00,2.58
5421.00,2.58
5420.00,2.58
5419.00,2.58
5418.00,2.58
5417.00,2.58
5416.00,2.58
5415.00,2.58
5414.00,2.58
5413.00,2.58
5412.00,2.58
5411.00,2.58
5410.00,2.58
5409.00,2.58
5408.00,2.58
5407.00,2.58
5406.00,2.58
5405.00,2.58
5404.00,2.58
5403.00,2.58
5402.00,2.57
5401.00,2.57
5400.00,2.57
5399.00,2.57
5398.00,2.57
5397.00,2.57
5396.00,2.57
5395.00,2.57
5394.00,2.56
5393.00,2.56
5392.00,2.56
5391.00,2.56
5390.00,2.56
5389.00,2.56
5388.00,2.56
5387.00,2.56
5386.00,2.55
5385.00,2.55
5384.00,2.55
5383.00,2.55
5382.00,2.55
5381.00,2.54
5380.00,2.54
5379.00,2.54
5378.00,2.53
5377.00,2.53
5376.00,2.53
5375.00,2.53
5374.00,2.52
5373.00,2.52
5372.00,2.52
5371.00,2.51
5370.00,2.51
5369.00,2.51
5368.00,2.50
5367.00,2.50
5366.00,2.49
5365.00,2.49
5364.00,2.49
5363.00,2.48
5362.00,2.48
5361.00,2.47
5360.00,2.47
5359.00,2.47
5358.00,2.46
5357.00,2.46
5356.00,2.45
5355.00,2.44
5354.00,2.44
5353.00,2.43
5352.00,2.43
5351.00,2.42
5350.00,2.41
5349.00,2.41
5348.00,2.40
5347.00,2.39
5346.00,2.38
5345.00,2.38
5344.00,2.37
5343.00,2.36
5342.00,2.35
5341.00,2.34
5340.00,2.33
5339.00,2.32
5338.00,2.32
5337.00,2.31
5336.00,2.30
5335.00,2.29
5334.00,2.28
5333.00,2.27
5332.00,2.26
5331.00,2.25
5330.00,2.24
5329.00,2.23
5328.00,2.22
5327.00,2.21
5326.00,2.20
5325.00,2.19
5324.00,2.18
5323.00,2.17
5322.00,2.16
5321.00,2.15
5320.00,2.14
5319.00,2.12
5318.00,2.11
5317.00,2.10
5316.00,2.09
5315.00,2.08
5314.00,2.07
5313.00,2.06
5312.00,2.05
5311.00,2.04
5310.00,2.03
5309.00,2.01
5308.00,2.00
5307.00,1.99
5306.00,1.98
5305.00,1.97
5304.00,1.95
5303.00,1.94
5302.00,1.93
5301.00,1.92
5300.00,1.91
5299.00,1.89
5298.00,1.88
5297.00,1.87
5296.00,1.86
5295.00,1.85
5294.00,1.83
5293.00,1.82
5292.00,1.81
5291.00,1.80
5290.00,1.79
5289.00,1.78
5288.00,1.77
5287.00,1.76
5286.00,1.75
5285.00,1.74
5284.00,1.73
5283.00,1.72
5282.00,1.71
5281.00,1.70
5280.00,1.69
5279.00,1.68
5278.00,1.67
5277.00,1.66
5276.00,1.66
5275.00,1.65
5274.00,1.64
5273.00,1.63
5272.00,1.62
5271.00,1.62
5270.00,1.61
5269.00,1.60
5268.00,1.59
5267.00,1.59
5266.00,1.58
5265.00,1.57
5264.00,1.56
5263.00,1.56
5262.00,1.55
5261.00,1.54
5260.00,1.54
5259.00,1.53
5258.00,1.52
5257.00,1.52
5256.00,1.51
5255.00,1.50
5254.00,1.50
5253.00,1.49
5252.00,1.49
5251.00,1.48
5250.00,1.48
5249.00,1.47
5248.00,1.47
5247.00,1.46
5246.00,1.45
5245.00,1.45
5244.00,1.44
5243.00,1.44
5242.00,1.43
5241.00,1.43
5240.00,1.42
5239.00,1.42
5238.00,1.42
5237.00,1.41
5236.00,1.41
5235.00,1.40
5234.00,1.40
5233.00,1.40
5232.00,1.39
5231.00,1.39
5230.00,1.38
5229.00,1.38
5228.00,1.38
5227.00,1.37
5226.00,1.37
5225.00,1.37
5224.00,1.36
5223.00,1.36
5222.00,1.36
5221.00,1.36
5220.00,1.36
5219.00,1.35
5218.00,1.35
5217.00,1.35
5216.00,1.35
5215.00,1.35
5214.00,1.35
5213.00,1.35
5212.00,1.34
5211.00,1.34
5210.00,1.34
5209.00,1.34
5208.00,1.34
5207.00,1.34
5206.00,1.34
5205.00,1.33
5204.00,1.33
5203.00,1.33
5202.00,1.33
5201.00,1.33
5200.00,1.33
5199.00,1.33
5198.00,1.33
5197.00,1.33
5196.00,1.33
5195.00,1.32
5194.00,1.32
5193.00,1.32
5192.00,1.32
5191.00,1.32
5190.00,1.31
5189.00,1.31
5188.00,1.31
5187.00,1.31
5186.00,1.31
5185.00,1.31
5184.00,1.31
5183.00,1.31
5182.00,1.31
5181.00,1.31
5180.00,1.31
5179.00,1.31
5178.00,1.31
5177.00,1.31
5176.00,1.31
5175.00,1.31
5174.00,1.31
5173.00,1.31
5172.00,1.31
5171.00,1.31
5170.00,1.31
5169.00,1.31
5168.00,1.31
5167.00,1.31
5166.00,1.31
5165.00,1.31
5164.00,1.31
5163.00,1.32
5162.00,1.32
5161.00,1.32
5160.00,1.32
5159.00,1.32
5158.00,1.32
5157.00,1.32
5156.00,1.32
5155.00,1.32
5154.00,1.32
5153.00,1.32
5152.00,1.32
5151.00,1.32
5150.00,1.32
5149.00,1.33
5148.00,1.33
5147.00,1.33
5146.00,1.33
5145.00,1.33
5144.00,1.33
5143.00,1.33
5142.00,1.34
5141.00,1.34
5140.00,1.34
5139.00,1.34
5138.00,1.34
5137.00,1.34
5136.00,1.35
5135.00,1.35
5134.00,1.35
5133.00,1.36
5132.00,1.36
5131.00,1.36
5130.00,1.37
5129.00,1.37
5128.00,1.37
5127.00,1.37
5126.00,1.38
5125.00,1.38
5124.00,1.38
5123.00,1.38
5122.00,1.39
5121.00,1.39
5120.00,1.39
5119.00,1.40
5118.00,1.40
5117.00,1.40
5116.00,1.41
5115.00,1.41
5114.00,1.42
5113.00,1.42
5112.00,1.43
5111.00,1.43
5110.00,1.43
5109.00,1.44
5108.00,1.44
5107.00,1.44
5106.00,1.45
5105.00,1.45
5104.00,1.45
5103.00,1.45
5102.00,1.45
5101.00,1.46
5100.00,1.46
5099.00,1.46
5098.00,1.46
5097.00,1.46
5096.00,1.47
5095.00,1.47
5094.00,1.47
5093.00,1.47
5092.00,1.47
5091.00,1.47
5090.00,1.47
5089.00,1.47
5088.00,1.47
5087.00,1.47
5086.00,1.47
5085.00,1.47
5084.00,1.47
5083.00,1.47
5082.00,1.47
5081.00,1.47
5080.00,1.47
5079.00,1.47
5078.00,1.47
5077.00,1.48
5076.00,1.48
5075.00,1.48
5074.00,1.49
5073.00,1.49
5072.00,1.49
5071.00,1.50
5070.00,1.50
5069.00,1.51
5068.00,1.51
5067.00,1.52
5066.00,1.52
5065.00,1.53
5064.00,1.53
5063.00,1.54
5062.00,1.54
5061.00,1.55
5060.00,1.55
5059.00,1.56
5058.00,1.56
5057.00,1.57
5056.00,1.57
5055.00,1.58
5054.00,1.58
5053.00,1.59
5052.00,1.59
5051.00,1.60
5050.00,1.60
5049.00,1.60
5048.00,1.61
5047.00,1.61
5046.00,1.62
5045.00,1.62
5044.00,1.62
5043.00,1.63
5042.00,1.63
5041.00,1.63
5040.00,1.64
5039.00,1.64
5038.00,1.65
5037.00,1.65
5036.00,1.65
5035.00,1.66
5034.00,1.66
5033.00,1.66
5032.00,1.67
5031.00,1.67
5030.00,1.68
5029.00,1.68
5028.00,1.68
5027.00,1.69
5026.00,1.69
5025.00,1.70
5024.00,1.70
5023.00,1.70
5022.00,1.71
5021.00,1.71
5020.00,1.72
5019.00,1.72
5018.00,1.73
5017.00,1.73
5016.00,1.73
5015.00,1.74
5014.00,1.74
5013.00,1.74
5012.00,1.75
5011.00,1.75
5010.00,1.75
5009.00,1.75
5008.00,1.76
5007.00,1.76
5006.00,1.76
5005.00,1.76
5004.00,1.76
5003.00,1.77
5002.00,1.77
5001.00,1.77
5000.00,1.77
4999.00,1.77
4998.00,1.77
4997.00,1.77
4996.00,1.77
4995.00,1.77
4994.00,1.77
4993.00,1.77
4992.00,1.77
4991.00,1.77
4990.00,1.77
4989.00,1.77
4988.00,1.78
4987.00,1.78
4986.00,1.78
4985.00,1.78
4984.00,1.78
4983.00,1.79
4982.00,1.79
4981.00,1.79
4980.00,1.79
4979.00,1.80
4978.00,1.80
4977.00,1.80
4976.00,1.80
4975.00,1.81
4974.00,1.81
4973.00,1.81
4972.00,1.81
4971.00,1.82
4970.00,1.82
4969.00,1.82
4968.00,1.83
4967.00,1.83
4966.00,1.83
4965.00,1.83
4964.00,1.83
4963.00,1.84
4962.00,1.84
4961.00,1.84
4960.00,1.84
4959.00,1.84
4958.00,1.85
4957.00,1.85
4956.00,1.85
4955.00,1.85
4954.00,1.85
4953.00,1.86
4952.00,1.86
4951.00,1.86
4950.00,1.87
4949.00,1.87
4948.00,1.87
4947.00,1.87
4946.00,1.88
4945.00,1.88
4944.00,1.88
4943.00,1.89
4942.00,1.89
4941.00,1.90
4940.00,1.90
4939.00,1.90
4938.00,1.90
4937.00,1.91
4936.00,1.91
4935.00,1.91
4934.00,1.92
4933.00,1.92
4932.00,1.92
4931.00,1.92
4930.00,1.93
4929.00,1.93
4928.00,1.93
4927.00,1.93
4926.00,1.93
4925.00,1.93
4924.00,1.93
4923.00,1.94
4922.00,1.93
4921.00,1.93
4920.00,1.93
4919.00,1.93
4918.00,1.93
4917.00,1.93
4916.00,1.93
4915.00,1.93
4914.00,1.93
4913.00,1.93
4912.00,1.93
4911.00,1.93
4910.00,1.93
4909.00,1.93
4908.00,1.92
4907.00,1.92
4906.00,1.92
4905.00,1.92
4904.00,1.92
4903.00,1.92
4902.00,1.92
4901.00,1.92
4900.00,1.92
4899.00,1.92
4898.00,1.92
4897.00,1.92
4896.00,1.92
4895.00,1.92
4894.00,1.93
4893.00,1.93
4892.00,1.93
4891.00,1.93
4890.00,1.94
4889.00,1.94
4888.00,1.94
4887.00,1.94
4886.00,1.95
4885.00,1.95
4884.00,1.95
4883.00,1.95
4882.00,1.96
4881.00,1.96
4880.00,1.96
4879.00,1.96
4878.00,1.97
4877.00,1.97
4876.00,1.97
4875.00,1.98
4874.00,1.98
4873.00,1.98
4872.00,1.98
4871.00,1.99
4870.00,1.99
4869.00,1.99
4868.00,1.99
4867.00,2.00
4866.00,2.00
4865.00,2.00
4864.00,2.00
4863.00,2.00
4862.00,2.00
4861.00,2.01
4860.00,2.01
4859.00,2.01
4858.00,2.01
4857.00,2.01
4856.00,2.01
4855.00,2.01
4854.00,2.01
4853.00,2.02
4852.00,2.02
4851.00,2.02
4850.00,2.02
4849.00,2.02
4848.00,2.02
4847.00,2.02
4846.00,2.02
4845.00,2.02
4844.00,2.02
4843.00,2.02
4842.00,2.02
4841.00,2.03
4840.00,2.03
4839.00,2.03
4838.00,2.03
4837.00,2.03
4836.00,2.03
4835.00,2.03
4834.00,2.03
4833.00,2.03
4832.00,2.03
4831.00,2.03
4830.00,2.04
4829.00,2.04
4828.00,2.04
4827.00,2.05
4826.00,2.05
4825.00,2.05
4824.00,2.06
4823.00,2.06
4822.00,2.06
4821.00,2.07
4820.00,2.07
4819.00,2.08
4818.00,2.08
4817.00,2.09
4816.00,2.09
4815.00,2.10
4814.00,2.10
4813.00,2.11
4812.00,2.11
4811.00,2.11
4810.00,2.12
4809.00,2.12
4808.00,2.13
4807.00,2.13
4806.00,2.14
4805.00,2.14
4804.00,2.14
4803.00,2.15
4802.00,2.15
4801.00,2.15
4800.00,2.16
4799.00,2.16
4798.00,2.16
4797.00,2.16
4796.00,2.16
4795.00,2.16
4794.00,2.16
4793.00,2.17
4792.00,2.17
4791.00,2.17
4790.00,2.17
4789.00,2.17
4788.00,2.17
4787.00,2.18
4786.00,2.18
4785.00,2.18
4784.00,2.18
4783.00,2.18
4782.00,2.19
4781.00,2.19
4780.00,2.19
4779.00,2.19
4778.00,2.19
4777.00,2.19
4776.00,2.20
4775.00,2.20
4774.00,2.20
4773.00,2.21
4772.00,2.21
4771.00,2.21
4770.00,2.22
4769.00,2.22
4768.00,2.23
4767.00,2.23
4766.00,2.23
4765.00,2.24
4764.00,2.24
4763.00,2.24
4762.00,2.25
4761.00,2.25
4760.00,2.26
4759.00,2.26
4758.00,2.27
4757.00,2.27
4756.00,2.27
4755.00,2.28
4754.00,2.28
4753.00,2.28
4752.00,2.29
4751.00,2.29
4750.00,2.30
4749.00,2.30
4748.00,2.30
4747.00,2.30
4746.00,2.31
4745.00,2.31
4744.00,2.31
4743.00,2.31
4742.00,2.32
4741.00,2.32
4740.00,2.32
4739.00,2.32
4738.00,2.32
4737.00,2.32
4736.00,2.32
4735.00,2.32
4734.00,2.32
4733.00,2.32
4732.00,2.32
4731.00,2.32
4730.00,2.32
4729.00,2.32
4728.00,2.32
4727.00,2.32
4726.00,2.32
4725.00,2.32
4724.00,2.32
4723.00,2.32
4722.00,2.32
4721.00,2.32
4720.00,2.33
4719.00,2.33
4718.00,2.33
4717.00,2.33
4716.00,2.33
4715.00,2.33
4714.00,2.33
4713.00,2.34
4712.00,2.34
4711.00,2.34
4710.00,2.35
4709.00,2.35
4708.00,2.35
4707.00,2.36
4706.00,2.36
4705.00,2.36
4704.00,2.37
4703.00,2.37
4702.00,2.37
4701.00,2.38
4700.00,2.38
4699.00,2.38
4698.00,2.38
4697.00,2.38
4696.00,2.39
4695.00,2.39
4694.00,2.39
4693.00,2.39
4692.00,2.39
4691.00,2.39
4690.00,2.40
4689.00,2.40
4688.00,2.40
4687.00,2.40
4686.00,2.40
4685.00,2.40
4684.00,2.40
4683.00,2.41
4682.00,2.41
4681.00,2.41
4680.00,2.41
4679.00,2.41
4678.00,2.41
4677.00,2.41
4676.00,2.41
4675.00,2.41
4674.00,2.42
4673.00,2.42
4672.00,2.42
4671.00,2.43
4670.00,2.43
4669.00,2.43
4668.00,2.44
4667.00,2.44
4666.00,2.44
4665.00,2.44
4664.00,2.45
4663.00,2.45
4662.00,2.45
4661.00,2.45
4660.00,2.45
4659.00,2.45
4658.00,2.45
4657.00,2.46
4656.00,2.46
4655.00,2.46
4654.00,2.46
4653.00,2.47
4652.00,2.47
4651.00,2.47
4650.00,2.47
4649.00,2.47
4648.00,2.47
4647.00,2.47
4646.00,2.47
4645.00,2.47
4644.00,2.47
4643.00,2.47
4642.00,2.47
4641.00,2.47
4640.00,2.47
4639.00,2.47
4638.00,2.47
4637.00,2.47
4636.00,2.47
4635.00,2.48
4634.00,2.48
4633.00,2.48
4632.00,2.48
4631.00,2.48
4630.00,2.48
4629.00,2.48
4628.00,2.48
4627.00,2.48
4626.00,2.48
4625.00,2.48
4624.00,2.48
4623.00,2.48
4622.00,2.48
4621.00,2.48
4620.00,2.49
4619.00,2.49
4618.00,2.49
4617.00,2.49
4616.00,2.50
4615.00,2.50
4614.00,2.50
4613.00,2.50
4612.00,2.51
4611.00,2.51
4610.00,2.51
4609.00,2.51
4608.00,2.52
4607.00,2.52
4606.00,2.52
4605.00,2.52
4604.00,2.53
4603.00,2.53
4602.00,2.53
4601.00,2.53
4600.00,2.53
4599.00,2.53
4598.00,2.54
4597.00,2.54
4596.00,2.54
4595.00,2.54
4594.00,2.54
4593.00,2.54
4592.00,2.54
4591.00,2.54
4590.00,2.54
4589.00,2.55
4588.00,2.54
4587.00,2.54
4586.00,2.54
4585.00,2.54
4584.00,2.54
4583.00,2.54
4582.00,2.54
4581.00,2.54
4580.00,2.54
4579.00,2.54
4578.00,2.54
4577.00,2.54
4576.00,2.54
4575.00,2.54
4574.00,2.54
4573.00,2.54
4572.00,2.54
4571.00,2.54
4570.00,2.54
4569.00,2.54
4568.00,2.54
4567.00,2.54
4566.00,2.54
4565.00,2.54
4564.00,2.54
4563.00,2.54
4562.00,2.54
4561.00,2.54
4560.00,2.54
4559.00,2.54
4558.00,2.54
4557.00,2.54
4556.00,2.54
4555.00,2.54
4554.00,2.54
4553.00,2.54
4552.00,2.54
4551.00,2.54
4550.00,2.54
4549.00,2.54
4548.00,2.54
4547.00,2.54
4546.00,2.55
4545.00,2.55
4544.00,2.55
4543.00,2.55
4542.00,2.55
4541.00,2.55
4540.00,2.55
4539.00,2.55
4538.00,2.56
4537.00,2.56
4536.00,2.56
4535.00,2.56
4534.00,2.56
4533.00,2.56
4532.00,2.56
4531.00,2.56
4530.00,2.56
4529.00,2.57
4528.00,2.57
4527.00,2.57
4526.00,2.57
4525.00,2.57
4524.00,2.57
4523.00,2.58
4522.00,2.58
4521.00,2.58
4520.00,2.58
4519.00,2.58
4518.00,2.58
4517.00,2.58
4516.00,2.58
4515.00,2.59
4514.00,2.59
4513.00,2.59
4512.00,2.59
4511.00,2.59
4510.00,2.59
4509.00,2.59
4508.00,2.59
4507.00,2.59
4506.00,2.59
4505.00,2.58
4504.00,2.58
4503.00,2.58
4502.00,2.58
4501.00,2.58
4500.00,2.58
4499.00,2.57
4498.00,2.57
4497.00,2.57
4496.00,2.56
4495.00,2.56
4494.00,2.56
4493.00,2.56
4492.00,2.55
4491.00,2.55
4490.00,2.55
4489.00,2.54
4488.00,2.54
4487.00,2.54
4486.00,2.54
4485.00,2.54
4484.00,2.54
4483.00,2.54
4482.00,2.53
4481.00,2.53
4480.00,2.53
4479.00,2.53
4478.00,2.53
4477.00,2.53
4476.00,2.53
4475.00,2.53
4474.00,2.52
4473.00,2.52
4472.00,2.52
4471.00,2.52
4470.00,2.52
4469.00,2.52
4468.00,2.52
4467.00,2.52
4466.00,2.52
4465.00,2.52
4464.00,2.51
4463.00,2.51
4462.00,2.51
4461.00,2.51
4460.00,2.51
4459.00,2.50
4458.00,2.50
4457.00,2.49
4456.00,2.49
4455.00,2.48
4454.00,2.47
4453.00,2.47
4452.00,2.46
4451.00,2.46
4450.00,2.45
4449.00,2.44
4448.00,2.44
4447.00,2.43
4446.00,2.42
4445.00,2.41
4444.00,2.40
4443.00,2.39
4442.00,2.39
4441.00,2.38
4440.00,2.37
4439.00,2.36
4438.00,2.35
4437.00,2.34
4436.00,2.32
4435.00,2.31
4434.00,2.30
4433.00,2.29
4432.00,2.28
4431.00,2.27
4430.00,2.26
4429.00,2.25
4428.00,2.24
4427.00,2.23
4426.00,2.21
4425.00,2.20
4424.00,2.19
4423.00,2.18
4422.00,2.17
4421.00,2.17
4420.00,2.16
4419.00,2.15
4418.00,2.14
4417.00,2.14
4416.00,2.13
4415.00,2.13
4414.00,2.12
4413.00,2.12
4412.00,2.11
4411.00,2.11
4410.00,2.11
4409.00,2.11
4408.00,2.11
4407.00,2.11
4406.00,2.11
4405.00,2.11
4404.00,2.12
4403.00,2.12
4402.00,2.13
4401.00,2.14
4400.00,2.14
4399.00,2.15
4398.00,2.16
4397.00,2.17
4396.00,2.18
4395.00,2.18
4394.00,2.19
4393.00,2.20
4392.00,2.21
4391.00,2.22
4390.00,2.23
4389.00,2.24
4388.00,2.25
4387.00,2.25
4386.00,2.26
4385.00,2.27
4384.00,2.28
4383.00,2.28
4382.00,2.29
4381.00,2.29
4380.00,2.30
4379.00,2.30
4378.00,2.30
4377.00,2.31
4376.00,2.31
4375.00,2.31
4374.00,2.31
4373.00,2.30
4372.00,2.30
4371.00,2.30
4370.00,2.30
4369.00,2.30
4368.00,2.29
4367.00,2.29
4366.00,2.28
4365.00,2.28
4364.00,2.27
4363.00,2.27
4362.00,2.26
4361.00,2.26
4360.00,2.25
4359.00,2.24
4358.00,2.24
4357.00,2.23
4356.00,2.23
4355.00,2.22
4354.00,2.22
4353.00,2.21
4352.00,2.21
4351.00,2.20
4350.00,2.20
4349.00,2.20
4348.00,2.20
4347.00,2.19
4346.00,2.19
4345.00,2.19
4344.00,2.19
4343.00,2.19
4342.00,2.20
4341.00,2.20
4340.00,2.20
4339.00,2.20
4338.00,2.20
4337.00,2.21
4336.00,2.21
4335.00,2.21
4334.00,2.22
4333.00,2.22
4332.00,2.23
4331.00,2.24
4330.00,2.24
4329.00,2.25
4328.00,2.26
4327.00,2.26
4326.00,2.27
4325.00,2.28
4324.00,2.28
4323.00,2.29
4322.00,2.30
4321.00,2.30
4320.00,2.31
4319.00,2.32
4318.00,2.32
4317.00,2.33
4316.00,2.33
4315.00,2.34
4314.00,2.34
4313.00,2.35
4312.00,2.35
4311.00,2.36
4310.00,2.37
4309.00,2.37
4308.00,2.37
4307.00,2.38
4306.00,2.38
4305.00,2.39
4304.00,2.39
4303.00,2.39
4302.00,2.39
4301.00,2.40
4300.00,2.40
4299.00,2.40
4298.00,2.40
4297.00,2.41
4296.00,2.41
4295.00,2.41
4294.00,2.41
4293.00,2.41
4292.00,2.41
4291.00,2.42
4290.00,2.42
4289.00,2.42
4288.00,2.42
4287.00,2.42
4286.00,2.43
4285.00,2.43
4284.00,2.43
4283.00,2.43
4282.00,2.43
4281.00,2.43
4280.00,2.43
4279.00,2.43
4278.00,2.43
4277.00,2.43
4276.00,2.43
4275.00,2.43
4274.00,2.42
4273.00,2.42
4272.00,2.42
4271.00,2.42
4270.00,2.42
4269.00,2.42
4268.00,2.42
4267.00,2.42
4266.00,2.41
4265.00,2.41
4264.00,2.41
4263.00,2.40
4262.00,2.40
4261.00,2.40
4260.00,2.40
4259.00,2.40
4258.00,2.39
4257.00,2.39
4256.00,2.39
4255.00,2.39
4254.00,2.39
4253.00,2.39
4252.00,2.39
4251.00,2.39
4250.00,2.40
4249.00,2.40
4248.00,2.40
4247.00,2.40
4246.00,2.41
4245.00,2.41
4244.00,2.41
4243.00,2.41
4242.00,2.42
4241.00,2.42
4240.00,2.42
4239.00,2.43
4238.00,2.43
4237.00,2.43
4236.00,2.44
4235.00,2.44
4234.00,2.44
4233.00,2.44
4232.00,2.44
4231.00,2.45
4230.00,2.45
4229.00,2.45
4228.00,2.45
4227.00,2.45
4226.00,2.45
4225.00,2.45
4224.00,2.45
4223.00,2.44
4222.00,2.44
4221.00,2.44
4220.00,2.44
4219.00,2.44
4218.00,2.44
4217.00,2.43
4216.00,2.43
4215.00,2.43
4214.00,2.43
4213.00,2.43
4212.00,2.43
4211.00,2.43
4210.00,2.44
4209.00,2.44
4208.00,2.44
4207.00,2.44
4206.00,2.44
4205.00,2.44
4204.00,2.44
4203.00,2.45
4202.00,2.45
4201.00,2.45
4200.00,2.45
4199.00,2.45
4198.00,2.45
4197.00,2.45
4196.00,2.45
4195.00,2.45
4194.00,2.45
4193.00,2.45
4192.00,2.45
4191.00,2.45
4190.00,2.45
4189.00,2.45
4188.00,2.45
4187.00,2.45
4186.00,2.45
4185.00,2.45
4184.00,2.45
4183.00,2.44
4182.00,2.44
4181.00,2.44
4180.00,2.44
4179.00,2.43
4178.00,2.43
4177.00,2.43
4176.00,2.43
4175.00,2.42
4174.00,2.42
4173.00,2.42
4172.00,2.42
4171.00,2.42
4170.00,2.42
4169.00,2.42
4168.00,2.42
4167.00,2.42
4166.00,2.42
4165.00,2.42
4164.00,2.42
4163.00,2.42
4162.00,2.41
4161.00,2.41
4160.00,2.41
4159.00,2.41
4158.00,2.41
4157.00,2.41
4156.00,2.42
4155.00,2.42
4154.00,2.42
4153.00,2.42
4152.00,2.42
4151.00,2.42
4150.00,2.42
4149.00,2.42
4148.00,2.42
4147.00,2.42
4146.00,2.41
4145.00,2.41
4144.00,2.41
4143.00,2.41
4142.00,2.41
4141.00,2.40
4140.00,2.40
4139.00,2.40
4138.00,2.40
4137.00,2.40
4136.00,2.40
4135.00,2.39
4134.00,2.39
4133.00,2.38
4132.00,2.38
4131.00,2.37
4130.00,2.37
4129.00,2.36
4128.00,2.36
4127.00,2.35
4126.00,2.35
4125.00,2.34
4124.00,2.34
4123.00,2.34
4122.00,2.33
4121.00,2.33
4120.00,2.32
4119.00,2.32
4118.00,2.32
4117.00,2.31
4116.00,2.31
4115.00,2.31
4114.00,2.30
4113.00,2.30
4112.00,2.30
4111.00,2.29
4110.00,2.29
4109.00,2.28
4108.00,2.28
4107.00,2.28
4106.00,2.27
4105.00,2.27
4104.00,2.27
4103.00,2.27
4102.00,2.26
4101.00,2.26
4100.00,2.26
4099.00,2.25
4098.00,2.25
4097.00,2.24
4096.00,2.24
4095.00,2.24
4094.00,2.24
4093.00,2.24
4092.00,2.23
4091.00,2.23
4090.00,2.23
4089.00,2.23
4088.00,2.23
4087.00,2.23
4086.00,2.23
4085.00,2.22
4084.00,2.22
4083.00,2.22
4082.00,2.22
4081.00,2.22
4080.00,2.22
4079.00,2.23
4078.00,2.23
4077.00,2.23
4076.00,2.23
4075.00,2.23
4074.00,2.23
4073.00,2.24
4072.00,2.24
4071.00,2.24
4070.00,2.24
4069.00,2.24
4068.00,2.23
4067.00,2.23
4066.00,2.23
4065.00,2.23
4064.00,2.22
4063.00,2.22
4062.00,2.22
4061.00,2.22
4060.00,2.22
4059.00,2.21
4058.00,2.21
4057.00,2.21
4056.00,2.21
4055.00,2.21
4054.00,2.20
4053.00,2.20
4052.00,2.20
4051.00,2.19
4050.00,2.19
4049.00,2.19
4048.00,2.18
4047.00,2.18
4046.00,2.18
4045.00,2.18
4044.00,2.17
4043.00,2.17
4042.00,2.17
4041.00,2.17
4040.00,2.17
4039.00,2.17
4038.00,2.17
4037.00,2.17
4036.00,2.17
4035.00,2.16
4034.00,2.16
4033.00,2.16
4032.00,2.17
4031.00,2.17
4030.00,2.17
4029.00,2.18
4028.00,2.18
4027.00,2.19
4026.00,2.19
4025.00,2.20
4024.00,2.21
4023.00,2.21
4022.00,2.22
4021.00,2.23
4020.00,2.24
4019.00,2.25
4018.00,2.26
4017.00,2.28
4016.00,2.29
4015.00,2.30
4014.00,2.32
4013.00,2.33
4012.00,2.35
4011.00,2.37
4010.00,2.39
4009.00,2.41
4008.00,2.42
4007.00,2.44
4006.00,2.46
4005.00,2.48
4004.00,2.50
4003.00,2.52
4002.00,2.54
4001.00,2.56
4000.00,2.58
