创建为新数据集,样品 352 用户 Administrator 日期 星期日, 七月 28 2019
cm-1,%T
10000.00,1.34
9999.00,1.33
9998.00,1.31
9997.00,1.30
9996.00,1.29
9995.00,1.28
9994.00,1.27
9993.00,1.26
9992.00,1.25
9991.00,1.24
9990.00,1.23
9989.00,1.22
9988.00,1.21
9987.00,1.19
9986.00,1.18
9985.00,1.17
9984.00,1.15
9983.00,1.13
9982.00,1.12
9981.00,1.10
9980.00,1.08
9979.00,1.06
9978.00,1.05
9977.00,1.03
9976.00,1.02
9975.00,1.01
9974.00,0.99
9973.00,0.98
9972.00,0.97
9971.00,0.96
9970.00,0.95
9969.00,0.94
9968.00,0.93
9967.00,0.92
9966.00,0.91
9965.00,0.90
9964.00,0.89
9963.00,0.88
9962.00,0.87
9961.00,0.87
9960.00,0.86
9959.00,0.86
9958.00,0.85
9957.00,0.85
9956.00,0.86
9955.00,0.86
9954.00,0.86
9953.00,0.87
9952.00,0.88
9951.00,0.89
9950.00,0.89
9949.00,0.90
9948.00,0.91
9947.00,0.92
9946.00,0.93
9945.00,0.94
9944.00,0.95
9943.00,0.96
9942.00,0.98
9941.00,0.99
9940.00,1.00
9939.00,1.02
9938.00,1.03
9937.00,1.04
9936.00,1.06
9935.00,1.07
9934.00,1.08
9933.00,1.09
9932.00,1.10
9931.00,1.11
9930.00,1.11
9929.00,1.12
9928.00,1.12
9927.00,1.12
9926.00,1.12
9925.00,1.12
9924.00,1.11
9923.00,1.11
9922.00,1.11
9921.00,1.10
9920.00,1.09
9919.00,1.09
9918.00,1.08
9917.00,1.07
9916.00,1.06
9915.00,1.05
9914.00,1.04
9913.00,1.03
9912.00,1.02
9911.00,1.02
9910.00,1.01
9909.00,1.00
9908.00,0.99
9907.00,0.99
9906.00,0.98
9905.00,0.98
9904.00,0.98
9903.00,0.98
9902.00,0.98
9901.00,0.98
9900.00,0.98
9899.00,0.98
9898.00,0.99
9897.00,0.99
9896.00,1.00
9895.00,1.00
9894.00,1.01
9893.00,1.01
9892.00,1.02
9891.00,1.03
9890.00,1.03
9889.00,1.04
9888.00,1.04
9887.00,1.05
9886.00,1.05
9885.00,1.06
9884.00,1.06
9883.00,1.06
9882.00,1.06
9881.00,1.06
9880.00,1.06
9879.00,1.06
9878.00,1.05
9877.00,1.05
9876.00,1.04
9875.00,1.03
9874.00,1.02
9873.00,1.01
9872.00,1.00
9871.00,0.99
9870.00,0.98
9869.00,0.96
9868.00,0.95
9867.00,0.94
9866.00,0.92
9865.00,0.91
9864.00,0.90
9863.00,0.88
9862.00,0.87
9861.00,0.86
9860.00,0.85
9859.00,0.84
9858.00,0.83
9857.00,0.82
9856.00,0.81
9855.00,0.81
9854.00,0.80
9853.00,0.80
9852.00,0.80
9851.00,0.80
9850.00,0.80
9849.00,0.80
9848.00,0.80
9847.00,0.80
9846.00,0.80
9845.00,0.81
9844.00,0.81
9843.00,0.81
9842.00,0.82
9841.00,0.82
9840.00,0.82
9839.00,0.83
9838.00,0.83
9837.00,0.84
9836.00,0.84
9835.00,0.85
9834.00,0.85
9833.00,0.86
9832.00,0.86
9831.00,0.86
9830.00,0.87
9829.00,0.87
9828.00,0.87
9827.00,0.87
9826.00,0.88
9825.00,0.88
9824.00,0.88
9823.00,0.88
9822.00,0.89
9821.00,0.89
9820.00,0.90
9819.00,0.90
9818.00,0.90
9817.00,0.91
9816.00,0.91
9815.00,0.92
9814.00,0.92
9813.00,0.93
9812.00,0.94
9811.00,0.94
9810.00,0.95
9809.00,0.96
9808.00,0.96
9807.00,0.97
9806.00,0.98
9805.00,0.98
9804.00,0.99
9803.00,0.99
9802.00,1.00
9801.00,1.00
9800.00,1.00
9799.00,1.00
9798.00,1.00
9797.00,1.00
9796.00,1.00
9795.00,1.00
9794.00,1.00
9793.00,1.00
9792.00,1.00
9791.00,1.00
9790.00,1.00
9789.00,0.99
9788.00,0.99
9787.00,0.99
9786.00,0.99
9785.00,0.98
9784.00,0.98
9783.00,0.97
9782.00,0.96
9781.00,0.96
9780.00,0.95
9779.00,0.94
9778.00,0.93
9777.00,0.93
9776.00,0.92
9775.00,0.92
9774.00,0.91
9773.00,0.91
9772.00,0.90
9771.00,0.90
9770.00,0.89
9769.00,0.89
9768.00,0.88
9767.00,0.88
9766.00,0.87
9765.00,0.86
9764.00,0.85
9763.00,0.84
9762.00,0.84
9761.00,0.83
9760.00,0.82
9759.00,0.81
9758.00,0.80
9757.00,0.80
9756.00,0.79
9755.00,0.78
9754.00,0.77
9753.00,0.77
9752.00,0.76
9751.00,0.75
9750.00,0.75
9749.00,0.74
9748.00,0.74
9747.00,0.74
9746.00,0.73
9745.00,0.73
9744.00,0.73
9743.00,0.74
9742.00,0.74
9741.00,0.74
9740.00,0.75
9739.00,0.75
9738.00,0.76
9737.00,0.77
9736.00,0.78
9735.00,0.78
9734.00,0.79
9733.00,0.80
9732.00,0.81
9731.00,0.82
9730.00,0.83
9729.00,0.84
9728.00,0.86
9727.00,0.87
9726.00,0.88
9725.00,0.90
9724.00,0.91
9723.00,0.92
9722.00,0.93
9721.00,0.94
9720.00,0.95
9719.00,0.96
9718.00,0.96
9717.00,0.97
9716.00,0.97
9715.00,0.97
9714.00,0.97
9713.00,0.97
9712.00,0.97
9711.00,0.97
9710.00,0.97
9709.00,0.97
9708.00,0.97
9707.00,0.97
9706.00,0.97
9705.00,0.97
9704.00,0.96
9703.00,0.96
9702.00,0.96
9701.00,0.95
9700.00,0.94
9699.00,0.94
9698.00,0.93
9697.00,0.93
9696.00,0.92
9695.00,0.92
9694.00,0.92
9693.00,0.92
9692.00,0.92
9691.00,0.92
9690.00,0.92
9689.00,0.93
9688.00,0.93
9687.00,0.93
9686.00,0.93
9685.00,0.93
9684.00,0.94
9683.00,0.94
9682.00,0.94
9681.00,0.94
9680.00,0.94
9679.00,0.94
9678.00,0.95
9677.00,0.95
9676.00,0.95
9675.00,0.95
9674.00,0.95
9673.00,0.95
9672.00,0.95
9671.00,0.96
9670.00,0.96
9669.00,0.95
9668.00,0.95
9667.00,0.95
9666.00,0.95
9665.00,0.94
9664.00,0.94
9663.00,0.93
9662.00,0.93
9661.00,0.93
9660.00,0.92
9659.00,0.92
9658.00,0.92
9657.00,0.92
9656.00,0.91
9655.00,0.91
9654.00,0.91
9653.00,0.90
9652.00,0.90
9651.00,0.89
9650.00,0.89
9649.00,0.89
9648.00,0.89
9647.00,0.88
9646.00,0.88
9645.00,0.88
9644.00,0.87
9643.00,0.87
9642.00,0.87
9641.00,0.87
9640.00,0.86
9639.00,0.86
9638.00,0.86
9637.00,0.85
9636.00,0.85
9635.00,0.85
9634.00,0.84
9633.00,0.84
9632.00,0.84
9631.00,0.84
9630.00,0.83
9629.00,0.83
9628.00,0.83
9627.00,0.84
9626.00,0.84
9625.00,0.84
9624.00,0.84
9623.00,0.84
9622.00,0.84
9621.00,0.85
9620.00,0.85
9619.00,0.85
9618.00,0.85
9617.00,0.86
9616.00,0.86
9615.00,0.86
9614.00,0.87
9613.00,0.87
9612.00,0.88
9611.00,0.89
9610.00,0.89
9609.00,0.90
9608.00,0.91
9607.00,0.91
9606.00,0.92
9605.00,0.92
9604.00,0.93
9603.00,0.93
9602.00,0.94
9601.00,0.94
9600.00,0.94
9599.00,0.95
9598.00,0.95
9597.00,0.95
9596.00,0.95
9595.00,0.96
9594.00,0.96
9593.00,0.97
9592.00,0.97
9591.00,0.98
9590.00,0.98
9589.00,0.99
9588.00,1.00
9587.00,1.00
9586.00,1.01
9585.00,1.01
9584.00,1.02
9583.00,1.03
9582.00,1.03
9581.00,1.04
9580.00,1.04
9579.00,1.05
9578.00,1.05
9577.00,1.06
9576.00,1.07
9575.00,1.07
9574.00,1.08
9573.00,1.08
9572.00,1.09
9571.00,1.10
9570.00,1.10
9569.00,1.11
9568.00,1.11
9567.00,1.11
9566.00,1.12
9565.00,1.12
9564.00,1.12
9563.00,1.12
9562.00,1.11
9561.00,1.11
9560.00,1.11
9559.00,1.10
9558.00,1.10
9557.00,1.09
9556.00,1.08
9555.00,1.08
9554.00,1.07
9553.00,1.06
9552.00,1.06
9551.00,1.05
9550.00,1.04
9549.00,1.03
9548.00,1.02
9547.00,1.01
9546.00,1.00
9545.00,0.99
9544.00,0.98
9543.00,0.97
9542.00,0.96
9541.00,0.95
9540.00,0.94
9539.00,0.93
9538.00,0.92
9537.00,0.91
9536.00,0.90
9535.00,0.89
9534.00,0.88
9533.00,0.87
9532.00,0.86
9531.00,0.86
9530.00,0.85
9529.00,0.84
9528.00,0.83
9527.00,0.82
9526.00,0.81
9525.00,0.80
9524.00,0.79
9523.00,0.78
9522.00,0.78
9521.00,0.77
9520.00,0.77
9519.00,0.77
9518.00,0.76
9517.00,0.76
9516.00,0.76
9515.00,0.76
9514.00,0.76
9513.00,0.76
9512.00,0.76
9511.00,0.76
9510.00,0.77
9509.00,0.77
9508.00,0.77
9507.00,0.77
9506.00,0.78
9505.00,0.78
9504.00,0.79
9503.00,0.79
9502.00,0.80
9501.00,0.81
9500.00,0.81
9499.00,0.82
9498.00,0.83
9497.00,0.84
9496.00,0.85
9495.00,0.85
9494.00,0.86
9493.00,0.87
9492.00,0.88
9491.00,0.88
9490.00,0.89
9489.00,0.90
9488.00,0.90
9487.00,0.91
9486.00,0.91
9485.00,0.92
9484.00,0.92
9483.00,0.92
9482.00,0.93
9481.00,0.93
9480.00,0.94
9479.00,0.94
9478.00,0.94
9477.00,0.94
9476.00,0.95
9475.00,0.95
9474.00,0.95
9473.00,0.95
9472.00,0.95
9471.00,0.95
9470.00,0.95
9469.00,0.94
9468.00,0.94
9467.00,0.93
9466.00,0.93
9465.00,0.92
9464.00,0.92
9463.00,0.91
9462.00,0.91
9461.00,0.90
9460.00,0.90
9459.00,0.89
9458.00,0.89
9457.00,0.88
9456.00,0.88
9455.00,0.88
9454.00,0.87
9453.00,0.87
9452.00,0.87
9451.00,0.87
9450.00,0.87
9449.00,0.87
9448.00,0.87
9447.00,0.87
9446.00,0.88
9445.00,0.88
9444.00,0.88
9443.00,0.89
9442.00,0.89
9441.00,0.90
9440.00,0.90
9439.00,0.91
9438.00,0.92
9437.00,0.92
9436.00,0.93
9435.00,0.94
9434.00,0.95
9433.00,0.96
9432.00,0.97
9431.00,0.98
9430.00,0.99
9429.00,1.00
9428.00,1.00
9427.00,1.01
9426.00,1.01
9425.00,1.02
9424.00,1.02
9423.00,1.02
9422.00,1.03
9421.00,1.03
9420.00,1.03
9419.00,1.03
9418.00,1.04
9417.00,1.04
9416.00,1.04
9415.00,1.04
9414.00,1.04
9413.00,1.04
9412.00,1.04
9411.00,1.04
9410.00,1.04
9409.00,1.04
9408.00,1.03
9407.00,1.03
9406.00,1.03
9405.00,1.02
9404.00,1.02
9403.00,1.02
9402.00,1.01
9401.00,1.01
9400.00,1.01
9399.00,1.01
9398.00,1.01
9397.00,1.00
9396.00,1.00
9395.00,1.00
9394.00,1.00
9393.00,0.99
9392.00,0.99
9391.00,0.99
9390.00,0.98
9389.00,0.98
9388.00,0.98
9387.00,0.98
9386.00,0.98
9385.00,0.98
9384.00,0.98
9383.00,0.98
9382.00,0.99
9381.00,0.99
9380.00,0.99
9379.00,1.00
9378.00,1.00
9377.00,1.00
9376.00,1.01
9375.00,1.01
9374.00,1.02
9373.00,1.03
9372.00,1.03
9371.00,1.04
9370.00,1.04
9369.00,1.05
9368.00,1.06
9367.00,1.06
9366.00,1.07
9365.00,1.07
9364.00,1.08
9363.00,1.08
9362.00,1.09
9361.00,1.09
9360.00,1.09
9359.00,1.10
9358.00,1.10
9357.00,1.10
9356.00,1.10
9355.00,1.09
9354.00,1.09
9353.00,1.09
9352.00,1.08
9351.00,1.08
9350.00,1.08
9349.00,1.07
9348.00,1.07
9347.00,1.06
9346.00,1.06
9345.00,1.06
9344.00,1.05
9343.00,1.05
9342.00,1.05
9341.00,1.05
9340.00,1.04
9339.00,1.04
9338.00,1.04
9337.00,1.03
9336.00,1.03
9335.00,1.03
9334.00,1.03
9333.00,1.02
9332.00,1.02
9331.00,1.02
9330.00,1.02
9329.00,1.02
9328.00,1.02
9327.00,1.02
9326.00,1.02
9325.00,1.02
9324.00,1.02
9323.00,1.02
9322.00,1.02
9321.00,1.01
9320.00,1.01
9319.00,1.01
9318.00,1.00
9317.00,1.00
9316.00,1.00
9315.00,0.99
9314.00,0.99
9313.00,0.98
9312.00,0.98
9311.00,0.97
9310.00,0.97
9309.00,0.97
9308.00,0.96
9307.00,0.96
9306.00,0.96
9305.00,0.95
9304.00,0.95
9303.00,0.94
9302.00,0.94
9301.00,0.93
9300.00,0.93
9299.00,0.92
9298.00,0.92
9297.00,0.91
9296.00,0.91
9295.00,0.91
9294.00,0.90
9293.00,0.90
9292.00,0.90
9291.00,0.89
9290.00,0.89
9289.00,0.89
9288.00,0.88
9287.00,0.88
9286.00,0.88
9285.00,0.87
9284.00,0.87
9283.00,0.87
9282.00,0.86
9281.00,0.86
9280.00,0.86
9279.00,0.86
9278.00,0.85
9277.00,0.85
9276.00,0.85
9275.00,0.85
9274.00,0.85
9273.00,0.86
9272.00,0.86
9271.00,0.86
9270.00,0.86
9269.00,0.87
9268.00,0.87
9267.00,0.87
9266.00,0.88
9265.00,0.88
9264.00,0.88
9263.00,0.89
9262.00,0.89
9261.00,0.89
9260.00,0.90
9259.00,0.90
9258.00,0.90
9257.00,0.91
9256.00,0.91
9255.00,0.91
9254.00,0.92
9253.00,0.92
9252.00,0.92
9251.00,0.93
9250.00,0.93
9249.00,0.93
9248.00,0.93
9247.00,0.93
9246.00,0.93
9245.00,0.93
9244.00,0.93
9243.00,0.93
9242.00,0.93
9241.00,0.94
9240.00,0.94
9239.00,0.94
9238.00,0.94
9237.00,0.94
9236.00,0.93
9235.00,0.93
9234.00,0.93
9233.00,0.93
9232.00,0.93
9231.00,0.93
9230.00,0.93
9229.00,0.92
9228.00,0.92
9227.00,0.92
9226.00,0.92
9225.00,0.92
9224.00,0.92
9223.00,0.92
9222.00,0.92
9221.00,0.92
9220.00,0.91
9219.00,0.91
9218.00,0.91
9217.00,0.91
9216.00,0.91
9215.00,0.90
9214.00,0.90
9213.00,0.90
9212.00,0.90
9211.00,0.90
9210.00,0.90
9209.00,0.90
9208.00,0.90
9207.00,0.90
9206.00,0.90
9205.00,0.91
9204.00,0.91
9203.00,0.91
9202.00,0.92
9201.00,0.92
9200.00,0.93
9199.00,0.93
9198.00,0.93
9197.00,0.94
9196.00,0.94
9195.00,0.95
9194.00,0.95
9193.00,0.95
9192.00,0.95
9191.00,0.96
9190.00,0.96
9189.00,0.96
9188.00,0.96
9187.00,0.96
9186.00,0.96
9185.00,0.96
9184.00,0.96
9183.00,0.96
9182.00,0.96
9181.00,0.96
9180.00,0.96
9179.00,0.96
9178.00,0.96
9177.00,0.96
9176.00,0.96
9175.00,0.96
9174.00,0.95
9173.00,0.95
9172.00,0.95
9171.00,0.94
9170.00,0.94
9169.00,0.93
9168.00,0.93
9167.00,0.93
9166.00,0.93
9165.00,0.93
9164.00,0.92
9163.00,0.92
9162.00,0.92
9161.00,0.92
9160.00,0.92
9159.00,0.92
9158.00,0.92
9157.00,0.92
9156.00,0.91
9155.00,0.91
9154.00,0.91
9153.00,0.90
9152.00,0.90
9151.00,0.90
9150.00,0.89
9149.00,0.89
9148.00,0.89
9147.00,0.88
9146.00,0.88
9145.00,0.88
9144.00,0.88
9143.00,0.88
9142.00,0.88
9141.00,0.88
9140.00,0.88
9139.00,0.88
9138.00,0.88
9137.00,0.89
9136.00,0.89
9135.00,0.89
9134.00,0.89
9133.00,0.90
9132.00,0.90
9131.00,0.91
9130.00,0.91
9129.00,0.92
9128.00,0.93
9127.00,0.93
9126.00,0.94
9125.00,0.95
9124.00,0.95
9123.00,0.96
9122.00,0.97
9121.00,0.97
9120.00,0.98
9119.00,0.98
9118.00,0.99
9117.00,0.99
9116.00,1.00
9115.00,1.00
9114.00,1.01
9113.00,1.01
9112.00,1.01
9111.00,1.01
9110.00,1.02
9109.00,1.02
9108.00,1.02
9107.00,1.02
9106.00,1.02
9105.00,1.02
9104.00,1.03
9103.00,1.03
9102.00,1.03
9101.00,1.03
9100.00,1.03
9099.00,1.03
9098.00,1.04
9097.00,1.04
9096.00,1.04
9095.00,1.04
9094.00,1.04
9093.00,1.04
9092.00,1.04
9091.00,1.04
9090.00,1.03
9089.00,1.03
9088.00,1.03
9087.00,1.03
9086.00,1.03
9085.00,1.03
9084.00,1.02
9083.00,1.02
9082.00,1.02
9081.00,1.01
9080.00,1.00
9079.00,1.00
9078.00,0.99
9077.00,0.98
9076.00,0.97
9075.00,0.97
9074.00,0.96
9073.00,0.95
9072.00,0.94
9071.00,0.93
9070.00,0.92
9069.00,0.92
9068.00,0.91
9067.00,0.90
9066.00,0.89
9065.00,0.89
9064.00,0.88
9063.00,0.88
9062.00,0.88
9061.00,0.87
9060.00,0.87
9059.00,0.87
9058.00,0.87
9057.00,0.87
9056.00,0.87
9055.00,0.88
9054.00,0.88
9053.00,0.88
9052.00,0.89
9051.00,0.89
9050.00,0.90
9049.00,0.90
9048.00,0.91
9047.00,0.91
9046.00,0.92
9045.00,0.92
9044.00,0.93
9043.00,0.93
9042.00,0.94
9041.00,0.94
9040.00,0.95
9039.00,0.95
9038.00,0.95
9037.00,0.96
9036.00,0.96
9035.00,0.96
9034.00,0.96
9033.00,0.96
9032.00,0.96
9031.00,0.96
9030.00,0.96
9029.00,0.96
9028.00,0.95
9027.00,0.95
9026.00,0.95
9025.00,0.94
9024.00,0.94
9023.00,0.94
9022.00,0.93
9021.00,0.93
9020.00,0.93
9019.00,0.93
9018.00,0.93
9017.00,0.93
9016.00,0.93
9015.00,0.93
9014.00,0.93
9013.00,0.93
9012.00,0.94
9011.00,0.94
9010.00,0.94
9009.00,0.94
9008.00,0.95
9007.00,0.95
9006.00,0.95
9005.00,0.96
9004.00,0.96
9003.00,0.97
9002.00,0.97
9001.00,0.98
9000.00,0.98
8999.00,0.99
8998.00,1.00
8997.00,1.01
8996.00,1.02
8995.00,1.03
8994.00,1.03
8993.00,1.04
8992.00,1.05
8991.00,1.06
8990.00,1.06
8989.00,1.07
8988.00,1.07
8987.00,1.08
8986.00,1.08
8985.00,1.08
8984.00,1.09
8983.00,1.09
8982.00,1.10
8981.00,1.10
8980.00,1.10
8979.00,1.10
8978.00,1.10
8977.00,1.11
8976.00,1.11
8975.00,1.11
8974.00,1.10
8973.00,1.10
8972.00,1.10
8971.00,1.09
8970.00,1.09
8969.00,1.08
8968.00,1.08
8967.00,1.07
8966.00,1.07
8965.00,1.06
8964.00,1.05
8963.00,1.05
8962.00,1.04
8961.00,1.03
8960.00,1.03
8959.00,1.02
8958.00,1.01
8957.00,1.01
8956.00,1.00
8955.00,0.99
8954.00,0.99
8953.00,0.98
8952.00,0.97
8951.00,0.96
8950.00,0.96
8949.00,0.95
8948.00,0.94
8947.00,0.94
8946.00,0.93
8945.00,0.92
8944.00,0.92
8943.00,0.92
8942.00,0.91
8941.00,0.91
8940.00,0.90
8939.00,0.90
8938.00,0.90
8937.00,0.89
8936.00,0.89
8935.00,0.89
8934.00,0.89
8933.00,0.89
8932.00,0.88
8931.00,0.88
8930.00,0.88
8929.00,0.88
8928.00,0.88
8927.00,0.88
8926.00,0.89
8925.00,0.89
8924.00,0.89
8923.00,0.90
8922.00,0.91
8921.00,0.91
8920.00,0.92
8919.00,0.93
8918.00,0.94
8917.00,0.95
8916.00,0.95
8915.00,0.96
8914.00,0.97
8913.00,0.98
8912.00,0.99
8911.00,1.00
8910.00,1.01
8909.00,1.02
8908.00,1.03
8907.00,1.05
8906.00,1.06
8905.00,1.07
8904.00,1.08
8903.00,1.09
8902.00,1.10
8901.00,1.12
8900.00,1.13
8899.00,1.13
8898.00,1.14
8897.00,1.15
8896.00,1.15
8895.00,1.15
8894.00,1.16
8893.00,1.16
8892.00,1.16
8891.00,1.16
8890.00,1.16
8889.00,1.15
8888.00,1.15
8887.00,1.15
8886.00,1.14
8885.00,1.14
8884.00,1.13
8883.00,1.13
8882.00,1.12
8881.00,1.11
8880.00,1.10
8879.00,1.09
8878.00,1.09
8877.00,1.08
8876.00,1.07
8875.00,1.06
8874.00,1.05
8873.00,1.04
8872.00,1.03
8871.00,1.02
8870.00,1.02
8869.00,1.01
8868.00,1.01
8867.00,1.01
8866.00,1.00
8865.00,1.00
8864.00,1.00
8863.00,1.00
8862.00,1.00
8861.00,1.00
8860.00,1.01
8859.00,1.01
8858.00,1.01
8857.00,1.01
8856.00,1.01
8855.00,1.01
8854.00,1.01
8853.00,1.02
8852.00,1.02
8851.00,1.02
8850.00,1.03
8849.00,1.03
8848.00,1.04
8847.00,1.04
8846.00,1.04
8845.00,1.05
8844.00,1.05
8843.00,1.05
8842.00,1.05
8841.00,1.06
8840.00,1.06
8839.00,1.06
8838.00,1.06
8837.00,1.06
8836.00,1.06
8835.00,1.06
8834.00,1.06
8833.00,1.06
8832.00,1.07
8831.00,1.07
8830.00,1.07
8829.00,1.07
8828.00,1.07
8827.00,1.07
8826.00,1.07
8825.00,1.07
8824.00,1.07
8823.00,1.07
8822.00,1.06
8821.00,1.06
8820.00,1.05
8819.00,1.05
8818.00,1.04
8817.00,1.04
8816.00,1.03
8815.00,1.02
8814.00,1.02
8813.00,1.01
8812.00,1.00
8811.00,0.99
8810.00,0.99
8809.00,0.98
8808.00,0.97
8807.00,0.96
8806.00,0.95
8805.00,0.95
8804.00,0.94
8803.00,0.94
8802.00,0.93
8801.00,0.93
8800.00,0.93
8799.00,0.92
8798.00,0.92
8797.00,0.92
8796.00,0.93
8795.00,0.93
8794.00,0.93
8793.00,0.93
8792.00,0.94
8791.00,0.94
8790.00,0.95
8789.00,0.96
8788.00,0.97
8787.00,0.98
8786.00,0.98
8785.00,0.99
8784.00,1.00
8783.00,1.01
8782.00,1.02
8781.00,1.03
8780.00,1.03
8779.00,1.04
8778.00,1.04
8777.00,1.04
8776.00,1.05
8775.00,1.05
8774.00,1.05
8773.00,1.05
8772.00,1.05
8771.00,1.05
8770.00,1.05
8769.00,1.05
8768.00,1.05
8767.00,1.05
8766.00,1.04
8765.00,1.04
8764.00,1.04
8763.00,1.03
8762.00,1.03
8761.00,1.02
8760.00,1.02
8759.00,1.01
8758.00,1.01
8757.00,1.00
8756.00,1.00
8755.00,0.99
8754.00,0.99
8753.00,0.99
8752.00,0.99
8751.00,0.99
8750.00,0.99
8749.00,0.99
8748.00,0.99
8747.00,0.99
8746.00,0.99
8745.00,0.99
8744.00,0.99
8743.00,0.99
8742.00,0.99
8741.00,0.99
8740.00,0.99
8739.00,0.99
8738.00,0.99
8737.00,0.99
8736.00,0.99
8735.00,1.00
8734.00,1.00
8733.00,1.00
8732.00,1.00
8731.00,1.00
8730.00,1.00
8729.00,1.00
8728.00,1.00
8727.00,1.00
8726.00,1.00
8725.00,1.00
8724.00,1.00
8723.00,1.00
8722.00,1.00
8721.00,0.99
8720.00,0.99
8719.00,0.99
8718.00,0.99
8717.00,0.99
8716.00,0.98
8715.00,0.98
8714.00,0.98
8713.00,0.97
8712.00,0.97
8711.00,0.96
8710.00,0.95
8709.00,0.95
8708.00,0.94
8707.00,0.94
8706.00,0.93
8705.00,0.92
8704.00,0.92
8703.00,0.91
8702.00,0.90
8701.00,0.90
8700.00,0.89
8699.00,0.89
8698.00,0.88
8697.00,0.88
8696.00,0.88
8695.00,0.87
8694.00,0.87
8693.00,0.87
8692.00,0.87
8691.00,0.87
8690.00,0.87
8689.00,0.87
8688.00,0.87
8687.00,0.87
8686.00,0.87
8685.00,0.88
8684.00,0.88
8683.00,0.88
8682.00,0.89
8681.00,0.89
8680.00,0.90
8679.00,0.90
8678.00,0.90
8677.00,0.91
8676.00,0.91
8675.00,0.92
8674.00,0.92
8673.00,0.92
8672.00,0.93
8671.00,0.93
8670.00,0.93
8669.00,0.93
8668.00,0.93
8667.00,0.93
8666.00,0.93
8665.00,0.93
8664.00,0.93
8663.00,0.93
8662.00,0.93
8661.00,0.93
8660.00,0.93
8659.00,0.93
8658.00,0.93
8657.00,0.93
8656.00,0.93
8655.00,0.93
8654.00,0.92
8653.00,0.92
8652.00,0.92
8651.00,0.92
8650.00,0.92
8649.00,0.92
8648.00,0.92
8647.00,0.93
8646.00,0.93
8645.00,0.93
8644.00,0.94
8643.00,0.94
8642.00,0.95
8641.00,0.95
8640.00,0.96
8639.00,0.96
8638.00,0.96
8637.00,0.97
8636.00,0.97
8635.00,0.97
8634.00,0.98
8633.00,0.98
8632.00,0.99
8631.00,0.99
8630.00,1.00
8629.00,1.01
8628.00,1.02
8627.00,1.02
8626.00,1.03
8625.00,1.04
8624.00,1.05
8623.00,1.05
8622.00,1.06
8621.00,1.06
8620.00,1.07
8619.00,1.07
8618.00,1.07
8617.00,1.07
8616.00,1.07
8615.00,1.07
8614.00,1.07
8613.00,1.08
8612.00,1.08
8611.00,1.08
8610.00,1.08
8609.00,1.08
8608.00,1.08
8607.00,1.08
8606.00,1.08
8605.00,1.08
8604.00,1.08
8603.00,1.08
8602.00,1.07
8601.00,1.07
8600.00,1.06
8599.00,1.06
8598.00,1.05
8597.00,1.05
8596.00,1.04
8595.00,1.04
8594.00,1.03
8593.00,1.03
8592.00,1.03
8591.00,1.03
8590.00,1.02
8589.00,1.02
8588.00,1.02
8587.00,1.02
8586.00,1.02
8585.00,1.01
8584.00,1.01
8583.00,1.01
8582.00,1.01
8581.00,1.00
8580.00,1.00
8579.00,1.00
8578.00,1.00
8577.00,1.00
8576.00,1.00
8575.00,1.00
8574.00,1.00
8573.00,1.00
8572.00,1.00
8571.00,1.00
8570.00,1.00
8569.00,1.00
8568.00,1.00
8567.00,1.00
8566.00,1.00
8565.00,1.00
8564.00,1.00
8563.00,1.00
8562.00,1.00
8561.00,1.00
8560.00,1.00
8559.00,1.00
8558.00,1.00
8557.00,1.00
8556.00,1.00
8555.00,1.00
8554.00,1.00
8553.00,1.00
8552.00,1.00
8551.00,0.99
8550.00,0.99
8549.00,0.99
8548.00,0.99
8547.00,0.99
8546.00,0.99
8545.00,0.99
8544.00,1.00
8543.00,1.00
8542.00,1.00
8541.00,1.00
8540.00,1.00
8539.00,1.00
8538.00,1.00
8537.00,1.00
8536.00,1.00
8535.00,1.00
8534.00,1.00
8533.00,1.00
8532.00,1.00
8531.00,1.01
8530.00,1.01
8529.00,1.01
8528.00,1.01
8527.00,1.01
8526.00,1.01
8525.00,1.02
8524.00,1.02
8523.00,1.02
8522.00,1.02
8521.00,1.02
8520.00,1.03
8519.00,1.03
8518.00,1.03
8517.00,1.03
8516.00,1.02
8515.00,1.02
8514.00,1.02
8513.00,1.02
8512.00,1.02
8511.00,1.01
8510.00,1.01
8509.00,1.01
8508.00,1.01
8507.00,1.00
8506.00,1.00
8505.00,1.00
8504.00,1.00
8503.00,0.99
8502.00,0.99
8501.00,0.99
8500.00,0.99
8499.00,0.98
8498.00,0.98
8497.00,0.98
8496.00,0.97
8495.00,0.97
8494.00,0.97
8493.00,0.97
8492.00,0.97
8491.00,0.97
8490.00,0.97
8489.00,0.97
8488.00,0.97
8487.00,0.97
8486.00,0.97
8485.00,0.97
8484.00,0.97
8483.00,0.98
8482.00,0.98
8481.00,0.98
8480.00,0.99
8479.00,0.99
8478.00,1.00
8477.00,1.00
8476.00,1.00
8475.00,1.01
8474.00,1.01
8473.00,1.02
8472.00,1.02
8471.00,1.03
8470.00,1.03
8469.00,1.04
8468.00,1.04
8467.00,1.04
8466.00,1.05
8465.00,1.05
8464.00,1.05
8463.00,1.06
8462.00,1.06
8461.00,1.06
8460.00,1.07
8459.00,1.07
8458.00,1.07
8457.00,1.07
8456.00,1.07
8455.00,1.08
8454.00,1.08
8453.00,1.08
8452.00,1.08
8451.00,1.08
8450.00,1.08
8449.00,1.08
8448.00,1.07
8447.00,1.07
8446.00,1.07
8445.00,1.07
8444.00,1.06
8443.00,1.06
8442.00,1.06
8441.00,1.06
8440.00,1.05
8439.00,1.05
8438.00,1.05
8437.00,1.04
8436.00,1.04
8435.00,1.04
8434.00,1.04
8433.00,1.04
8432.00,1.04
8431.00,1.03
8430.00,1.03
8429.00,1.03
8428.00,1.03
8427.00,1.03
8426.00,1.02
8425.00,1.02
8424.00,1.02
8423.00,1.02
8422.00,1.03
8421.00,1.03
8420.00,1.03
8419.00,1.03
8418.00,1.04
8417.00,1.04
8416.00,1.05
8415.00,1.05
8414.00,1.06
8413.00,1.06
8412.00,1.07
8411.00,1.07
8410.00,1.08
8409.00,1.08
8408.00,1.09
8407.00,1.09
8406.00,1.09
8405.00,1.10
8404.00,1.10
8403.00,1.10
8402.00,1.11
8401.00,1.11
8400.00,1.11
8399.00,1.11
8398.00,1.11
8397.00,1.11
8396.00,1.11
8395.00,1.11
8394.00,1.11
8393.00,1.10
8392.00,1.10
8391.00,1.10
8390.00,1.09
8389.00,1.09
8388.00,1.08
8387.00,1.08
8386.00,1.07
8385.00,1.07
8384.00,1.06
8383.00,1.06
8382.00,1.05
8381.00,1.05
8380.00,1.05
8379.00,1.04
8378.00,1.04
8377.00,1.04
8376.00,1.04
8375.00,1.04
8374.00,1.04
8373.00,1.04
8372.00,1.04
8371.00,1.04
8370.00,1.04
8369.00,1.04
8368.00,1.04
8367.00,1.04
8366.00,1.05
8365.00,1.05
8364.00,1.05
8363.00,1.05
8362.00,1.05
8361.00,1.05
8360.00,1.05
8359.00,1.05
8358.00,1.05
8357.00,1.05
8356.00,1.05
8355.00,1.04
8354.00,1.04
8353.00,1.03
8352.00,1.03
8351.00,1.02
8350.00,1.02
8349.00,1.01
8348.00,1.00
8347.00,1.00
8346.00,0.99
8345.00,0.98
8344.00,0.98
8343.00,0.97
8342.00,0.97
8341.00,0.96
8340.00,0.95
8339.00,0.95
8338.00,0.94
8337.00,0.94
8336.00,0.94
8335.00,0.93
8334.00,0.93
8333.00,0.93
8332.00,0.93
8331.00,0.94
8330.00,0.94
8329.00,0.94
8328.00,0.94
8327.00,0.95
8326.00,0.95
8325.00,0.96
8324.00,0.96
8323.00,0.96
8322.00,0.97
8321.00,0.97
8320.00,0.98
8319.00,0.98
8318.00,0.98
8317.00,0.99
8316.00,0.99
8315.00,0.99
8314.00,0.99
8313.00,1.00
8312.00,1.00
8311.00,1.00
8310.00,1.00
8309.00,1.01
8308.00,1.01
8307.00,1.01
8306.00,1.01
8305.00,1.01
8304.00,1.01
8303.00,1.00
8302.00,1.00
8301.00,1.00
8300.00,1.00
8299.00,1.00
8298.00,1.00
8297.00,1.00
8296.00,1.00
8295.00,1.00
8294.00,1.00
8293.00,1.00
8292.00,1.00
8291.00,1.00
8290.00,1.00
8289.00,1.00
8288.00,1.01
8287.00,1.01
8286.00,1.01
8285.00,1.01
8284.00,1.02
8283.00,1.02
8282.00,1.02
8281.00,1.03
8280.00,1.03
8279.00,1.04
8278.00,1.04
8277.00,1.05
8276.00,1.06
8275.00,1.06
8274.00,1.07
8273.00,1.08
8272.00,1.08
8271.00,1.09
8270.00,1.09
8269.00,1.10
8268.00,1.11
8267.00,1.11
8266.00,1.11
8265.00,1.12
8264.00,1.12
8263.00,1.12
8262.00,1.13
8261.00,1.13
8260.00,1.13
8259.00,1.13
8258.00,1.13
8257.00,1.13
8256.00,1.12
8255.00,1.12
8254.00,1.12
8253.00,1.11
8252.00,1.11
8251.00,1.10
8250.00,1.10
8249.00,1.09
8248.00,1.09
8247.00,1.08
8246.00,1.07
8245.00,1.07
8244.00,1.06
8243.00,1.05
8242.00,1.05
8241.00,1.04
8240.00,1.03
8239.00,1.03
8238.00,1.02
8237.00,1.01
8236.00,1.01
8235.00,1.01
8234.00,1.00
8233.00,1.00
8232.00,1.00
8231.00,1.00
8230.00,1.00
8229.00,1.00
8228.00,1.00
8227.00,1.00
8226.00,1.01
8225.00,1.01
8224.00,1.01
8223.00,1.01
8222.00,1.02
8221.00,1.02
8220.00,1.02
8219.00,1.02
8218.00,1.03
8217.00,1.03
8216.00,1.04
8215.00,1.04
8214.00,1.04
8213.00,1.05
8212.00,1.05
8211.00,1.05
8210.00,1.06
8209.00,1.06
8208.00,1.06
8207.00,1.06
8206.00,1.06
8205.00,1.06
8204.00,1.06
8203.00,1.06
8202.00,1.07
8201.00,1.07
8200.00,1.07
8199.00,1.07
8198.00,1.07
8197.00,1.07
8196.00,1.07
8195.00,1.07
8194.00,1.07
8193.00,1.07
8192.00,1.06
8191.00,1.06
8190.00,1.06
8189.00,1.06
8188.00,1.06
8187.00,1.06
8186.00,1.05
8185.00,1.05
8184.00,1.05
8183.00,1.05
8182.00,1.05
8181.00,1.05
8180.00,1.05
8179.00,1.05
8178.00,1.05
8177.00,1.04
8176.00,1.04
8175.00,1.04
8174.00,1.04
8173.00,1.03
8172.00,1.03
8171.00,1.03
8170.00,1.02
8169.00,1.02
8168.00,1.02
8167.00,1.02
8166.00,1.01
8165.00,1.01
8164.00,1.01
8163.00,1.01
8162.00,1.01
8161.00,1.01
8160.00,1.01
8159.00,1.01
8158.00,1.01
8157.00,1.01
8156.00,1.01
8155.00,1.00
8154.00,1.00
8153.00,1.00
8152.00,1.00
8151.00,1.01
8150.00,1.01
8149.00,1.01
8148.00,1.01
8147.00,1.01
8146.00,1.02
8145.00,1.02
8144.00,1.03
8143.00,1.03
8142.00,1.04
8141.00,1.04
8140.00,1.04
8139.00,1.05
8138.00,1.05
8137.00,1.05
8136.00,1.06
8135.00,1.06
8134.00,1.07
8133.00,1.07
8132.00,1.08
8131.00,1.08
8130.00,1.09
8129.00,1.09
8128.00,1.09
8127.00,1.10
8126.00,1.10
8125.00,1.10
8124.00,1.10
8123.00,1.11
8122.00,1.11
8121.00,1.11
8120.00,1.11
8119.00,1.11
8118.00,1.11
8117.00,1.11
8116.00,1.11
8115.00,1.11
8114.00,1.11
8113.00,1.11
8112.00,1.11
8111.00,1.11
8110.00,1.11
8109.00,1.11
8108.00,1.11
8107.00,1.11
8106.00,1.11
8105.00,1.11
8104.00,1.11
8103.00,1.11
8102.00,1.11
8101.00,1.11
8100.00,1.11
8099.00,1.11
8098.00,1.12
8097.00,1.12
8096.00,1.12
8095.00,1.12
8094.00,1.12
8093.00,1.13
8092.00,1.13
8091.00,1.13
8090.00,1.13
8089.00,1.14
8088.00,1.14
8087.00,1.14
8086.00,1.14
8085.00,1.14
8084.00,1.15
8083.00,1.15
8082.00,1.15
8081.00,1.15
8080.00,1.15
8079.00,1.15
8078.00,1.15
8077.00,1.15
8076.00,1.14
8075.00,1.14
8074.00,1.14
8073.00,1.14
8072.00,1.14
8071.00,1.14
8070.00,1.13
8069.00,1.13
8068.00,1.13
8067.00,1.12
8066.00,1.12
8065.00,1.12
8064.00,1.11
8063.00,1.11
8062.00,1.11
8061.00,1.10
8060.00,1.10
8059.00,1.10
8058.00,1.09
8057.00,1.09
8056.00,1.09
8055.00,1.09
8054.00,1.09
8053.00,1.10
8052.00,1.10
8051.00,1.10
8050.00,1.10
8049.00,1.10
8048.00,1.10
8047.00,1.11
8046.00,1.11
8045.00,1.11
8044.00,1.12
8043.00,1.12
8042.00,1.12
8041.00,1.13
8040.00,1.13
8039.00,1.13
8038.00,1.13
8037.00,1.14
8036.00,1.14
8035.00,1.14
8034.00,1.15
8033.00,1.15
8032.00,1.15
8031.00,1.15
8030.00,1.16
8029.00,1.16
8028.00,1.16
8027.00,1.16
8026.00,1.16
8025.00,1.16
8024.00,1.16
8023.00,1.15
8022.00,1.15
8021.00,1.15
8020.00,1.15
8019.00,1.15
8018.00,1.15
8017.00,1.15
8016.00,1.15
8015.00,1.15
8014.00,1.15
8013.00,1.15
8012.00,1.16
8011.00,1.16
8010.00,1.16
8009.00,1.16
8008.00,1.16
8007.00,1.17
8006.00,1.17
8005.00,1.17
8004.00,1.17
8003.00,1.17
8002.00,1.17
8001.00,1.18
8000.00,1.18
7999.00,1.18
7998.00,1.18
7997.00,1.19
7996.00,1.19
7995.00,1.19
7994.00,1.19
7993.00,1.19
7992.00,1.19
7991.00,1.19
7990.00,1.19
7989.00,1.19
7988.00,1.19
7987.00,1.19
7986.00,1.19
7985.00,1.19
7984.00,1.18
7983.00,1.18
7982.00,1.18
7981.00,1.18
7980.00,1.18
7979.00,1.17
7978.00,1.17
7977.00,1.17
7976.00,1.17
7975.00,1.16
7974.00,1.16
7973.00,1.16
7972.00,1.16
7971.00,1.15
7970.00,1.15
7969.00,1.15
7968.00,1.15
7967.00,1.15
7966.00,1.15
7965.00,1.15
7964.00,1.15
7963.00,1.15
7962.00,1.15
7961.00,1.14
7960.00,1.14
7959.00,1.14
7958.00,1.14
7957.00,1.14
7956.00,1.14
7955.00,1.14
7954.00,1.14
7953.00,1.14
7952.00,1.14
7951.00,1.14
7950.00,1.14
7949.00,1.14
7948.00,1.14
7947.00,1.15
7946.00,1.15
7945.00,1.15
7944.00,1.15
7943.00,1.15
7942.00,1.15
7941.00,1.15
7940.00,1.15
7939.00,1.15
7938.00,1.15
7937.00,1.15
7936.00,1.15
7935.00,1.15
7934.00,1.15
7933.00,1.15
7932.00,1.15
7931.00,1.15
7930.00,1.15
7929.00,1.15
7928.00,1.14
7927.00,1.14
7926.00,1.14
7925.00,1.14
7924.00,1.14
7923.00,1.14
7922.00,1.14
7921.00,1.14
7920.00,1.14
7919.00,1.14
7918.00,1.14
7917.00,1.14
7916.00,1.14
7915.00,1.14
7914.00,1.14
7913.00,1.14
7912.00,1.13
7911.00,1.13
7910.00,1.13
7909.00,1.13
7908.00,1.13
7907.00,1.13
7906.00,1.13
7905.00,1.13
7904.00,1.13
7903.00,1.13
7902.00,1.13
7901.00,1.13
7900.00,1.13
7899.00,1.13
7898.00,1.13
7897.00,1.13
7896.00,1.13
7895.00,1.12
7894.00,1.12
7893.00,1.12
7892.00,1.12
7891.00,1.12
7890.00,1.12
7889.00,1.12
7888.00,1.12
7887.00,1.12
7886.00,1.12
7885.00,1.12
7884.00,1.12
7883.00,1.13
7882.00,1.13
7881.00,1.13
7880.00,1.13
7879.00,1.13
7878.00,1.13
7877.00,1.13
7876.00,1.13
7875.00,1.13
7874.00,1.13
7873.00,1.13
7872.00,1.13
7871.00,1.13
7870.00,1.13
7869.00,1.14
7868.00,1.14
7867.00,1.14
7866.00,1.14
7865.00,1.14
7864.00,1.14
7863.00,1.14
7862.00,1.14
7861.00,1.14
7860.00,1.14
7859.00,1.14
7858.00,1.14
7857.00,1.15
7856.00,1.15
7855.00,1.15
7854.00,1.15
7853.00,1.15
7852.00,1.15
7851.00,1.16
7850.00,1.16
7849.00,1.16
7848.00,1.16
7847.00,1.17
7846.00,1.17
7845.00,1.17
7844.00,1.17
7843.00,1.18
7842.00,1.18
7841.00,1.18
7840.00,1.18
7839.00,1.19
7838.00,1.19
7837.00,1.19
7836.00,1.20
7835.00,1.20
7834.00,1.20
7833.00,1.21
7832.00,1.21
7831.00,1.21
7830.00,1.22
7829.00,1.22
7828.00,1.22
7827.00,1.22
7826.00,1.22
7825.00,1.22
7824.00,1.22
7823.00,1.22
7822.00,1.21
7821.00,1.21
7820.00,1.21
7819.00,1.21
7818.00,1.21
7817.00,1.20
7816.00,1.20
7815.00,1.20
7814.00,1.20
7813.00,1.19
7812.00,1.19
7811.00,1.19
7810.00,1.18
7809.00,1.18
7808.00,1.17
7807.00,1.17
7806.00,1.16
7805.00,1.16
7804.00,1.15
7803.00,1.15
7802.00,1.14
7801.00,1.14
7800.00,1.13
7799.00,1.13
7798.00,1.13
7797.00,1.13
7796.00,1.12
7795.00,1.12
7794.00,1.12
7793.00,1.12
7792.00,1.11
7791.00,1.11
7790.00,1.11
7789.00,1.11
7788.00,1.11
7787.00,1.10
7786.00,1.10
7785.00,1.10
7784.00,1.10
7783.00,1.10
7782.00,1.10
7781.00,1.10
7780.00,1.10
7779.00,1.10
7778.00,1.10
7777.00,1.10
7776.00,1.10
7775.00,1.10
7774.00,1.10
7773.00,1.10
7772.00,1.10
7771.00,1.10
7770.00,1.10
7769.00,1.10
7768.00,1.11
7767.00,1.11
7766.00,1.11
7765.00,1.11
7764.00,1.11
7763.00,1.12
7762.00,1.12
7761.00,1.12
7760.00,1.12
7759.00,1.12
7758.00,1.13
7757.00,1.13
7756.00,1.13
7755.00,1.13
7754.00,1.13
7753.00,1.13
7752.00,1.13
7751.00,1.13
7750.00,1.13
7749.00,1.13
7748.00,1.14
7747.00,1.14
7746.00,1.14
7745.00,1.14
7744.00,1.14
7743.00,1.14
7742.00,1.15
7741.00,1.15
7740.00,1.15
7739.00,1.15
7738.00,1.15
7737.00,1.15
7736.00,1.15
7735.00,1.15
7734.00,1.15
7733.00,1.15
7732.00,1.15
7731.00,1.15
7730.00,1.15
7729.00,1.16
7728.00,1.16
7727.00,1.16
7726.00,1.16
7725.00,1.16
7724.00,1.16
7723.00,1.16
7722.00,1.16
7721.00,1.16
7720.00,1.16
7719.00,1.16
7718.00,1.16
7717.00,1.16
7716.00,1.16
7715.00,1.16
7714.00,1.16
7713.00,1.16
7712.00,1.15
7711.00,1.15
7710.00,1.15
7709.00,1.14
7708.00,1.14
7707.00,1.14
7706.00,1.14
7705.00,1.13
7704.00,1.13
7703.00,1.13
7702.00,1.12
7701.00,1.12
7700.00,1.12
7699.00,1.12
7698.00,1.11
7697.00,1.11
7696.00,1.11
7695.00,1.11
7694.00,1.10
7693.00,1.10
7692.00,1.10
7691.00,1.09
7690.00,1.09
7689.00,1.09
7688.00,1.09
7687.00,1.09
7686.00,1.09
7685.00,1.09
7684.00,1.09
7683.00,1.09
7682.00,1.09
7681.00,1.10
7680.00,1.10
7679.00,1.10
7678.00,1.10
7677.00,1.11
7676.00,1.11
7675.00,1.11
7674.00,1.11
7673.00,1.11
7672.00,1.12
7671.00,1.12
7670.00,1.12
7669.00,1.12
7668.00,1.13
7667.00,1.13
7666.00,1.14
7665.00,1.14
7664.00,1.14
7663.00,1.15
7662.00,1.15
7661.00,1.15
7660.00,1.15
7659.00,1.15
7658.00,1.16
7657.00,1.16
7656.00,1.16
7655.00,1.16
7654.00,1.16
7653.00,1.16
7652.00,1.16
7651.00,1.17
7650.00,1.17
7649.00,1.17
7648.00,1.17
7647.00,1.18
7646.00,1.18
7645.00,1.18
7644.00,1.19
7643.00,1.19
7642.00,1.19
7641.00,1.19
7640.00,1.20
7639.00,1.20
7638.00,1.20
7637.00,1.20
7636.00,1.21
7635.00,1.21
7634.00,1.21
7633.00,1.22
7632.00,1.22
7631.00,1.22
7630.00,1.22
7629.00,1.23
7628.00,1.23
7627.00,1.23
7626.00,1.23
7625.00,1.23
7624.00,1.23
7623.00,1.23
7622.00,1.23
7621.00,1.22
7620.00,1.22
7619.00,1.22
7618.00,1.22
7617.00,1.21
7616.00,1.21
7615.00,1.21
7614.00,1.20
7613.00,1.20
7612.00,1.20
7611.00,1.19
7610.00,1.19
7609.00,1.18
7608.00,1.18
7607.00,1.17
7606.00,1.17
7605.00,1.17
7604.00,1.16
7603.00,1.16
7602.00,1.16
7601.00,1.16
7600.00,1.15
7599.00,1.15
7598.00,1.15
7597.00,1.15
7596.00,1.15
7595.00,1.16
7594.00,1.16
7593.00,1.16
7592.00,1.16
7591.00,1.16
7590.00,1.16
7589.00,1.16
7588.00,1.17
7587.00,1.17
7586.00,1.17
7585.00,1.17
7584.00,1.17
7583.00,1.18
7582.00,1.18
7581.00,1.18
7580.00,1.18
7579.00,1.18
7578.00,1.19
7577.00,1.19
7576.00,1.19
7575.00,1.18
7574.00,1.18
7573.00,1.18
7572.00,1.18
7571.00,1.18
7570.00,1.18
7569.00,1.18
7568.00,1.18
7567.00,1.17
7566.00,1.17
7565.00,1.17
7564.00,1.17
7563.00,1.16
7562.00,1.16
7561.00,1.16
7560.00,1.16
7559.00,1.15
7558.00,1.15
7557.00,1.15
7556.00,1.15
7555.00,1.14
7554.00,1.14
7553.00,1.14
7552.00,1.14
7551.00,1.14
7550.00,1.14
7549.00,1.14
7548.00,1.14
7547.00,1.14
7546.00,1.14
7545.00,1.14
7544.00,1.14
7543.00,1.14
7542.00,1.14
7541.00,1.14
7540.00,1.14
7539.00,1.13
7538.00,1.13
7537.00,1.13
7536.00,1.13
7535.00,1.13
7534.00,1.13
7533.00,1.14
7532.00,1.14
7531.00,1.14
7530.00,1.14
7529.00,1.14
7528.00,1.14
7527.00,1.14
7526.00,1.14
7525.00,1.14
7524.00,1.14
7523.00,1.14
7522.00,1.14
7521.00,1.14
7520.00,1.14
7519.00,1.14
7518.00,1.15
7517.00,1.15
7516.00,1.15
7515.00,1.15
7514.00,1.15
7513.00,1.16
7512.00,1.16
7511.00,1.16
7510.00,1.16
7509.00,1.17
7508.00,1.17
7507.00,1.17
7506.00,1.17
7505.00,1.17
7504.00,1.17
7503.00,1.17
7502.00,1.17
7501.00,1.18
7500.00,1.18
7499.00,1.18
7498.00,1.18
7497.00,1.18
7496.00,1.18
7495.00,1.18
7494.00,1.18
7493.00,1.18
7492.00,1.18
7491.00,1.19
7490.00,1.19
7489.00,1.19
7488.00,1.19
7487.00,1.19
7486.00,1.19
7485.00,1.19
7484.00,1.19
7483.00,1.19
7482.00,1.19
7481.00,1.19
7480.00,1.19
7479.00,1.19
7478.00,1.19
7477.00,1.19
7476.00,1.19
7475.00,1.19
7474.00,1.19
7473.00,1.19
7472.00,1.19
7471.00,1.19
7470.00,1.19
7469.00,1.19
7468.00,1.19
7467.00,1.19
7466.00,1.19
7465.00,1.18
7464.00,1.18
7463.00,1.18
7462.00,1.18
7461.00,1.18
7460.00,1.18
7459.00,1.18
7458.00,1.18
7457.00,1.17
7456.00,1.17
7455.00,1.17
7454.00,1.17
7453.00,1.17
7452.00,1.17
7451.00,1.17
7450.00,1.17
7449.00,1.17
7448.00,1.17
7447.00,1.18
7446.00,1.18
7445.00,1.18
7444.00,1.18
7443.00,1.18
7442.00,1.18
7441.00,1.18
7440.00,1.18
7439.00,1.18
7438.00,1.18
7437.00,1.18
7436.00,1.18
7435.00,1.18
7434.00,1.18
7433.00,1.18
7432.00,1.18
7431.00,1.18
7430.00,1.17
7429.00,1.17
7428.00,1.17
7427.00,1.17
7426.00,1.17
7425.00,1.17
7424.00,1.17
7423.00,1.17
7422.00,1.16
7421.00,1.16
7420.00,1.16
7419.00,1.16
7418.00,1.15
7417.00,1.15
7416.00,1.15
7415.00,1.15
7414.00,1.15
7413.00,1.14
7412.00,1.14
7411.00,1.14
7410.00,1.14
7409.00,1.14
7408.00,1.14
7407.00,1.14
7406.00,1.13
7405.00,1.13
7404.00,1.13
7403.00,1.13
7402.00,1.13
7401.00,1.13
7400.00,1.13
7399.00,1.13
7398.00,1.13
7397.00,1.13
7396.00,1.13
7395.00,1.13
7394.00,1.13
7393.00,1.13
7392.00,1.13
7391.00,1.13
7390.00,1.13
7389.00,1.13
7388.00,1.13
7387.00,1.13
7386.00,1.14
7385.00,1.14
7384.00,1.14
7383.00,1.14
7382.00,1.14
7381.00,1.14
7380.00,1.14
7379.00,1.14
7378.00,1.14
7377.00,1.14
7376.00,1.14
7375.00,1.14
7374.00,1.14
7373.00,1.14
7372.00,1.14
7371.00,1.14
7370.00,1.14
7369.00,1.14
7368.00,1.14
7367.00,1.13
7366.00,1.13
7365.00,1.13
7364.00,1.13
7363.00,1.13
7362.00,1.13
7361.00,1.12
7360.00,1.12
7359.00,1.12
7358.00,1.12
7357.00,1.12
7356.00,1.12
7355.00,1.12
7354.00,1.12
7353.00,1.12
7352.00,1.12
7351.00,1.12
7350.00,1.12
7349.00,1.13
7348.00,1.13
7347.00,1.13
7346.00,1.13
7345.00,1.14
7344.00,1.14
7343.00,1.14
7342.00,1.14
7341.00,1.15
7340.00,1.15
7339.00,1.15
7338.00,1.15
7337.00,1.16
7336.00,1.16
7335.00,1.16
7334.00,1.16
7333.00,1.16
7332.00,1.17
7331.00,1.17
7330.00,1.17
7329.00,1.17
7328.00,1.17
7327.00,1.17
7326.00,1.18
7325.00,1.18
7324.00,1.18
7323.00,1.18
7322.00,1.18
7321.00,1.18
7320.00,1.18
7319.00,1.18
7318.00,1.18
7317.00,1.18
7316.00,1.18
7315.00,1.18
7314.00,1.18
7313.00,1.18
7312.00,1.18
7311.00,1.18
7310.00,1.18
7309.00,1.18
7308.00,1.18
7307.00,1.18
7306.00,1.18
7305.00,1.19
7304.00,1.19
7303.00,1.19
7302.00,1.19
7301.00,1.18
7300.00,1.18
7299.00,1.18
7298.00,1.18
7297.00,1.17
7296.00,1.17
7295.00,1.17
7294.00,1.17
7293.00,1.16
7292.00,1.16
7291.00,1.16
7290.00,1.16
7289.00,1.15
7288.00,1.15
7287.00,1.15
7286.00,1.15
7285.00,1.14
7284.00,1.14
7283.00,1.14
7282.00,1.13
7281.00,1.13
7280.00,1.13
7279.00,1.12
7278.00,1.12
7277.00,1.12
7276.00,1.11
7275.00,1.11
7274.00,1.11
7273.00,1.11
7272.00,1.11
7271.00,1.11
7270.00,1.11
7269.00,1.11
7268.00,1.11
7267.00,1.11
7266.00,1.11
7265.00,1.11
7264.00,1.11
7263.00,1.11
7262.00,1.11
7261.00,1.11
7260.00,1.10
7259.00,1.10
7258.00,1.10
7257.00,1.10
7256.00,1.10
7255.00,1.09
7254.00,1.09
7253.00,1.09
7252.00,1.09
7251.00,1.08
7250.00,1.08
7249.00,1.08
7248.00,1.07
7247.00,1.07
7246.00,1.06
7245.00,1.06
7244.00,1.05
7243.00,1.05
7242.00,1.05
7241.00,1.04
7240.00,1.04
7239.00,1.04
7238.00,1.04
7237.00,1.03
7236.00,1.03
7235.00,1.03
7234.00,1.03
7233.00,1.03
7232.00,1.03
7231.00,1.03
7230.00,1.03
7229.00,1.03
7228.00,1.03
7227.00,1.03
7226.00,1.03
7225.00,1.03
7224.00,1.03
7223.00,1.03
7222.00,1.03
7221.00,1.03
7220.00,1.03
7219.00,1.04
7218.00,1.04
7217.00,1.04
7216.00,1.04
7215.00,1.04
7214.00,1.04
7213.00,1.04
7212.00,1.04
7211.00,1.04
7210.00,1.04
7209.00,1.04
7208.00,1.04
7207.00,1.04
7206.00,1.03
7205.00,1.03
7204.00,1.03
7203.00,1.03
7202.00,1.02
7201.00,1.02
7200.00,1.02
7199.00,1.01
7198.00,1.01
7197.00,1.01
7196.00,1.01
7195.00,1.00
7194.00,1.00
7193.00,1.00
7192.00,0.99
7191.00,0.99
7190.00,0.98
7189.00,0.98
7188.00,0.97
7187.00,0.96
7186.00,0.96
7185.00,0.95
7184.00,0.95
7183.00,0.95
7182.00,0.94
7181.00,0.94
7180.00,0.94
7179.00,0.93
7178.00,0.93
7177.00,0.93
7176.00,0.93
7175.00,0.92
7174.00,0.92
7173.00,0.92
7172.00,0.91
7171.00,0.91
7170.00,0.90
7169.00,0.90
7168.00,0.90
7167.00,0.89
7166.00,0.89
7165.00,0.88
7164.00,0.88
7163.00,0.88
7162.00,0.88
7161.00,0.87
7160.00,0.87
7159.00,0.87
7158.00,0.87
7157.00,0.86
7156.00,0.86
7155.00,0.86
7154.00,0.85
7153.00,0.85
7152.00,0.84
7151.00,0.84
7150.00,0.83
7149.00,0.83
7148.00,0.83
7147.00,0.82
7146.00,0.82
7145.00,0.81
7144.00,0.81
7143.00,0.81
7142.00,0.80
7141.00,0.80
7140.00,0.80
7139.00,0.79
7138.00,0.79
7137.00,0.79
7136.00,0.79
7135.00,0.78
7134.00,0.78
7133.00,0.78
7132.00,0.77
7131.00,0.77
7130.00,0.77
7129.00,0.77
7128.00,0.77
7127.00,0.76
7126.00,0.76
7125.00,0.76
7124.00,0.76
7123.00,0.76
7122.00,0.76
7121.00,0.76
7120.00,0.76
7119.00,0.76
7118.00,0.76
7117.00,0.76
7116.00,0.76
7115.00,0.76
7114.00,0.76
7113.00,0.76
7112.00,0.76
7111.00,0.76
7110.00,0.76
7109.00,0.76
7108.00,0.76
7107.00,0.76
7106.00,0.76
7105.00,0.76
7104.00,0.76
7103.00,0.76
7102.00,0.77
7101.00,0.77
7100.00,0.77
7099.00,0.77
7098.00,0.77
7097.00,0.77
7096.00,0.77
7095.00,0.77
7094.00,0.77
7093.00,0.77
7092.00,0.77
7091.00,0.77
7090.00,0.77
7089.00,0.77
7088.00,0.77
7087.00,0.77
7086.00,0.77
7085.00,0.77
7084.00,0.77
7083.00,0.77
7082.00,0.77
7081.00,0.77
7080.00,0.77
7079.00,0.77
7078.00,0.77
7077.00,0.77
7076.00,0.77
7075.00,0.76
7074.00,0.76
7073.00,0.76
7072.00,0.76
7071.00,0.76
7070.00,0.76
7069.00,0.76
7068.00,0.76
7067.00,0.76
7066.00,0.76
7065.00,0.76
7064.00,0.76
7063.00,0.76
7062.00,0.75
7061.00,0.75
7060.00,0.75
7059.00,0.75
7058.00,0.75
7057.00,0.74
7056.00,0.74
7055.00,0.74
7054.00,0.74
7053.00,0.74
7052.00,0.74
7051.00,0.74
7050.00,0.73
7049.00,0.73
7048.00,0.73
7047.00,0.73
7046.00,0.73
7045.00,0.73
7044.00,0.72
7043.00,0.72
7042.00,0.72
7041.00,0.71
7040.00,0.71
7039.00,0.71
7038.00,0.70
7037.00,0.70
7036.00,0.70
7035.00,0.69
7034.00,0.69
7033.00,0.69
7032.00,0.69
7031.00,0.69
7030.00,0.69
7029.00,0.69
7028.00,0.68
7027.00,0.68
7026.00,0.68
7025.00,0.68
7024.00,0.67
7023.00,0.67
7022.00,0.67
7021.00,0.67
7020.00,0.66
7019.00,0.66
7018.00,0.66
7017.00,0.66
7016.00,0.65
7015.00,0.65
7014.00,0.65
7013.00,0.65
7012.00,0.65
7011.00,0.65
7010.00,0.65
7009.00,0.64
7008.00,0.64
7007.00,0.64
7006.00,0.64
7005.00,0.64
7004.00,0.64
7003.00,0.64
7002.00,0.64
7001.00,0.64
7000.00,0.64
6999.00,0.64
6998.00,0.64
6997.00,0.64
6996.00,0.64
6995.00,0.65
6994.00,0.65
6993.00,0.65
6992.00,0.65
6991.00,0.66
6990.00,0.66
6989.00,0.66
6988.00,0.66
6987.00,0.66
6986.00,0.67
6985.00,0.67
6984.00,0.67
6983.00,0.67
6982.00,0.68
6981.00,0.68
6980.00,0.68
6979.00,0.68
6978.00,0.68
6977.00,0.69
6976.00,0.69
6975.00,0.69
6974.00,0.69
6973.00,0.69
6972.00,0.69
6971.00,0.69
6970.00,0.68
6969.00,0.68
6968.00,0.68
6967.00,0.68
6966.00,0.68
6965.00,0.67
6964.00,0.67
6963.00,0.67
6962.00,0.66
6961.00,0.66
6960.00,0.65
6959.00,0.65
6958.00,0.65
6957.00,0.64
6956.00,0.64
6955.00,0.64
6954.00,0.63
6953.00,0.63
6952.00,0.62
6951.00,0.62
6950.00,0.62
6949.00,0.61
6948.00,0.61
6947.00,0.61
6946.00,0.61
6945.00,0.60
6944.00,0.60
6943.00,0.60
6942.00,0.60
6941.00,0.60
6940.00,0.60
6939.00,0.60
6938.00,0.60
6937.00,0.60
6936.00,0.60
6935.00,0.60
6934.00,0.60
6933.00,0.60
6932.00,0.60
6931.00,0.61
6930.00,0.61
6929.00,0.61
6928.00,0.61
6927.00,0.61
6926.00,0.61
6925.00,0.61
6924.00,0.61
6923.00,0.61
6922.00,0.61
6921.00,0.61
6920.00,0.61
6919.00,0.61
6918.00,0.61
6917.00,0.60
6916.00,0.60
6915.00,0.60
6914.00,0.60
6913.00,0.60
6912.00,0.60
6911.00,0.60
6910.00,0.60
6909.00,0.59
6908.00,0.59
6907.00,0.59
6906.00,0.59
6905.00,0.58
6904.00,0.58
6903.00,0.58
6902.00,0.58
6901.00,0.58
6900.00,0.58
6899.00,0.57
6898.00,0.57
6897.00,0.57
6896.00,0.57
6895.00,0.57
6894.00,0.57
6893.00,0.57
6892.00,0.58
6891.00,0.58
6890.00,0.58
6889.00,0.58
6888.00,0.58
6887.00,0.58
6886.00,0.58
6885.00,0.59
6884.00,0.59
6883.00,0.59
6882.00,0.59
6881.00,0.60
6880.00,0.60
6879.00,0.60
6878.00,0.60
6877.00,0.61
6876.00,0.61
6875.00,0.62
6874.00,0.62
6873.00,0.62
6872.00,0.62
6871.00,0.63
6870.00,0.63
6869.00,0.63
6868.00,0.63
6867.00,0.64
6866.00,0.64
6865.00,0.64
6864.00,0.64
6863.00,0.64
6862.00,0.64
6861.00,0.64
6860.00,0.65
6859.00,0.65
6858.00,0.65
6857.00,0.65
6856.00,0.65
6855.00,0.65
6854.00,0.65
6853.00,0.65
6852.00,0.65
6851.00,0.65
6850.00,0.64
6849.00,0.64
6848.00,0.64
6847.00,0.64
6846.00,0.64
6845.00,0.64
6844.00,0.64
6843.00,0.64
6842.00,0.64
6841.00,0.64
6840.00,0.64
6839.00,0.64
6838.00,0.64
6837.00,0.64
6836.00,0.64
6835.00,0.64
6834.00,0.64
6833.00,0.64
6832.00,0.64
6831.00,0.64
6830.00,0.64
6829.00,0.64
6828.00,0.64
6827.00,0.64
6826.00,0.64
6825.00,0.64
6824.00,0.64
6823.00,0.64
6822.00,0.64
6821.00,0.64
6820.00,0.64
6819.00,0.64
6818.00,0.64
6817.00,0.64
6816.00,0.64
6815.00,0.64
6814.00,0.64
6813.00,0.64
6812.00,0.64
6811.00,0.64
6810.00,0.64
6809.00,0.64
6808.00,0.64
6807.00,0.65
6806.00,0.65
6805.00,0.65
6804.00,0.65
6803.00,0.65
6802.00,0.66
6801.00,0.66
6800.00,0.66
6799.00,0.66
6798.00,0.66
6797.00,0.67
6796.00,0.67
6795.00,0.67
6794.00,0.67
6793.00,0.67
6792.00,0.67
6791.00,0.67
6790.00,0.67
6789.00,0.67
6788.00,0.68
6787.00,0.68
6786.00,0.68
6785.00,0.68
6784.00,0.68
6783.00,0.68
6782.00,0.69
6781.00,0.69
6780.00,0.69
6779.00,0.69
6778.00,0.69
6777.00,0.69
6776.00,0.69
6775.00,0.69
6774.00,0.69
6773.00,0.69
6772.00,0.70
6771.00,0.70
6770.00,0.70
6769.00,0.70
6768.00,0.70
6767.00,0.70
6766.00,0.70
6765.00,0.70
6764.00,0.70
6763.00,0.70
6762.00,0.70
6761.00,0.70
6760.00,0.70
6759.00,0.70
6758.00,0.70
6757.00,0.70
6756.00,0.70
6755.00,0.70
6754.00,0.70
6753.00,0.70
6752.00,0.70
6751.00,0.69
6750.00,0.69
6749.00,0.69
6748.00,0.69
6747.00,0.69
6746.00,0.69
6745.00,0.69
6744.00,0.69
6743.00,0.69
6742.00,0.69
6741.00,0.69
6740.00,0.70
6739.00,0.70
6738.00,0.70
6737.00,0.70
6736.00,0.71
6735.00,0.71
6734.00,0.71
6733.00,0.71
6732.00,0.72
6731.00,0.72
6730.00,0.72
6729.00,0.72
6728.00,0.72
6727.00,0.73
6726.00,0.73
6725.00,0.73
6724.00,0.74
6723.00,0.74
6722.00,0.74
6721.00,0.74
6720.00,0.74
6719.00,0.74
6718.00,0.74
6717.00,0.74
6716.00,0.74
6715.00,0.74
6714.00,0.74
6713.00,0.74
6712.00,0.74
6711.00,0.74
6710.00,0.74
6709.00,0.73
6708.00,0.73
6707.00,0.73
6706.00,0.73
6705.00,0.73
6704.00,0.73
6703.00,0.73
6702.00,0.73
6701.00,0.72
6700.00,0.72
6699.00,0.72
6698.00,0.72
6697.00,0.72
6696.00,0.72
6695.00,0.72
6694.00,0.72
6693.00,0.71
6692.00,0.71
6691.00,0.71
6690.00,0.71
6689.00,0.71
6688.00,0.71
6687.00,0.72
6686.00,0.72
6685.00,0.72
6684.00,0.72
6683.00,0.72
6682.00,0.72
6681.00,0.72
6680.00,0.72
6679.00,0.72
6678.00,0.72
6677.00,0.72
6676.00,0.72
6675.00,0.72
6674.00,0.72
6673.00,0.72
6672.00,0.72
6671.00,0.72
6670.00,0.73
6669.00,0.73
6668.00,0.73
6667.00,0.73
6666.00,0.73
6665.00,0.73
6664.00,0.73
6663.00,0.73
6662.00,0.73
6661.00,0.74
6660.00,0.74
6659.00,0.74
6658.00,0.74
6657.00,0.74
6656.00,0.74
6655.00,0.74
6654.00,0.75
6653.00,0.75
6652.00,0.75
6651.00,0.75
6650.00,0.75
6649.00,0.75
6648.00,0.75
6647.00,0.75
6646.00,0.75
6645.00,0.75
6644.00,0.75
6643.00,0.75
6642.00,0.75
6641.00,0.75
6640.00,0.75
6639.00,0.75
6638.00,0.76
6637.00,0.76
6636.00,0.76
6635.00,0.76
6634.00,0.76
6633.00,0.76
6632.00,0.76
6631.00,0.76
6630.00,0.76
6629.00,0.76
6628.00,0.77
6627.00,0.77
6626.00,0.77
6625.00,0.77
6624.00,0.77
6623.00,0.78
6622.00,0.78
6621.00,0.78
6620.00,0.78
6619.00,0.79
6618.00,0.79
6617.00,0.79
6616.00,0.79
6615.00,0.79
6614.00,0.79
6613.00,0.79
6612.00,0.79
6611.00,0.80
6610.00,0.80
6609.00,0.80
6608.00,0.80
6607.00,0.80
6606.00,0.80
6605.00,0.80
6604.00,0.80
6603.00,0.80
6602.00,0.80
6601.00,0.80
6600.00,0.80
6599.00,0.80
6598.00,0.80
6597.00,0.80
6596.00,0.80
6595.00,0.80
6594.00,0.80
6593.00,0.80
6592.00,0.80
6591.00,0.80
6590.00,0.81
6589.00,0.81
6588.00,0.81
6587.00,0.81
6586.00,0.81
6585.00,0.81
6584.00,0.81
6583.00,0.81
6582.00,0.81
6581.00,0.82
6580.00,0.82
6579.00,0.82
6578.00,0.82
6577.00,0.82
6576.00,0.82
6575.00,0.82
6574.00,0.82
6573.00,0.83
6572.00,0.83
6571.00,0.83
6570.00,0.83
6569.00,0.84
6568.00,0.84
6567.00,0.84
6566.00,0.84
6565.00,0.84
6564.00,0.84
6563.00,0.84
6562.00,0.84
6561.00,0.84
6560.00,0.84
6559.00,0.84
6558.00,0.84
6557.00,0.84
6556.00,0.84
6555.00,0.85
6554.00,0.85
6553.00,0.85
6552.00,0.85
6551.00,0.85
6550.00,0.85
6549.00,0.85
6548.00,0.85
6547.00,0.85
6546.00,0.85
6545.00,0.85
6544.00,0.85
6543.00,0.85
6542.00,0.85
6541.00,0.85
6540.00,0.85
6539.00,0.85
6538.00,0.85
6537.00,0.85
6536.00,0.85
6535.00,0.85
6534.00,0.85
6533.00,0.86
6532.00,0.86
6531.00,0.86
6530.00,0.86
6529.00,0.86
6528.00,0.87
6527.00,0.87
6526.00,0.87
6525.00,0.87
6524.00,0.87
6523.00,0.87
6522.00,0.87
6521.00,0.88
6520.00,0.88
6519.00,0.88
6518.00,0.88
6517.00,0.88
6516.00,0.89
6515.00,0.89
6514.00,0.89
6513.00,0.89
6512.00,0.90
6511.00,0.90
6510.00,0.90
6509.00,0.90
6508.00,0.90
6507.00,0.91
6506.00,0.91
6505.00,0.91
6504.00,0.91
6503.00,0.91
6502.00,0.91
6501.00,0.91
6500.00,0.91
6499.00,0.91
6498.00,0.91
6497.00,0.91
6496.00,0.92
6495.00,0.92
6494.00,0.92
6493.00,0.92
6492.00,0.92
6491.00,0.92
6490.00,0.92
6489.00,0.92
6488.00,0.92
6487.00,0.92
6486.00,0.92
6485.00,0.92
6484.00,0.92
6483.00,0.92
6482.00,0.92
6481.00,0.92
6480.00,0.92
6479.00,0.92
6478.00,0.92
6477.00,0.92
6476.00,0.92
6475.00,0.92
6474.00,0.92
6473.00,0.92
6472.00,0.92
6471.00,0.92
6470.00,0.92
6469.00,0.92
6468.00,0.92
6467.00,0.92
6466.00,0.92
6465.00,0.92
6464.00,0.92
6463.00,0.92
6462.00,0.92
6461.00,0.92
6460.00,0.92
6459.00,0.92
6458.00,0.92
6457.00,0.92
6456.00,0.92
6455.00,0.92
6454.00,0.92
6453.00,0.92
6452.00,0.92
6451.00,0.92
6450.00,0.92
6449.00,0.92
6448.00,0.92
6447.00,0.92
6446.00,0.91
6445.00,0.91
6444.00,0.91
6443.00,0.91
6442.00,0.91
6441.00,0.91
6440.00,0.91
6439.00,0.91
6438.00,0.91
6437.00,0.91
6436.00,0.91
6435.00,0.91
6434.00,0.91
6433.00,0.91
6432.00,0.91
6431.00,0.91
6430.00,0.91
6429.00,0.91
6428.00,0.91
6427.00,0.91
6426.00,0.91
6425.00,0.91
6424.00,0.91
6423.00,0.90
6422.00,0.90
6421.00,0.91
6420.00,0.91
6419.00,0.91
6418.00,0.91
6417.00,0.91
6416.00,0.91
6415.00,0.91
6414.00,0.91
6413.00,0.91
6412.00,0.91
6411.00,0.91
6410.00,0.91
6409.00,0.91
6408.00,0.91
6407.00,0.91
6406.00,0.91
6405.00,0.91
6404.00,0.91
6403.00,0.92
6402.00,0.92
6401.00,0.92
6400.00,0.92
6399.00,0.92
6398.00,0.92
6397.00,0.92
6396.00,0.92
6395.00,0.92
6394.00,0.92
6393.00,0.92
6392.00,0.93
6391.00,0.93
6390.00,0.93
6389.00,0.93
6388.00,0.93
6387.00,0.93
6386.00,0.93
6385.00,0.93
6384.00,0.93
6383.00,0.94
6382.00,0.94
6381.00,0.94
6380.00,0.94
6379.00,0.94
6378.00,0.94
6377.00,0.94
6376.00,0.94
6375.00,0.95
6374.00,0.95
6373.00,0.95
6372.00,0.95
6371.00,0.95
6370.00,0.95
6369.00,0.96
6368.00,0.96
6367.00,0.96
6366.00,0.96
6365.00,0.96
6364.00,0.96
6363.00,0.96
6362.00,0.97
6361.00,0.97
6360.00,0.97
6359.00,0.97
6358.00,0.97
6357.00,0.97
6356.00,0.97
6355.00,0.97
6354.00,0.97
6353.00,0.97
6352.00,0.97
6351.00,0.97
6350.00,0.97
6349.00,0.97
6348.00,0.97
6347.00,0.97
6346.00,0.97
6345.00,0.97
6344.00,0.97
6343.00,0.97
6342.00,0.97
6341.00,0.97
6340.00,0.97
6339.00,0.97
6338.00,0.97
6337.00,0.97
6336.00,0.97
6335.00,0.97
6334.00,0.97
6333.00,0.97
6332.00,0.97
6331.00,0.97
6330.00,0.98
6329.00,0.98
6328.00,0.98
6327.00,0.98
6326.00,0.98
6325.00,0.98
6324.00,0.99
6323.00,0.99
6322.00,0.99
6321.00,0.99
6320.00,0.99
6319.00,0.99
6318.00,1.00
6317.00,1.00
6316.00,1.00
6315.00,1.00
6314.00,1.00
6313.00,1.01
6312.00,1.01
6311.00,1.01
6310.00,1.01
6309.00,1.01
6308.00,1.01
6307.00,1.01
6306.00,1.01
6305.00,1.01
6304.00,1.01
6303.00,1.01
6302.00,1.01
6301.00,1.01
6300.00,1.01
6299.00,1.01
6298.00,1.01
6297.00,1.01
6296.00,1.01
6295.00,1.01
6294.00,1.01
6293.00,1.01
6292.00,1.01
6291.00,1.01
6290.00,1.01
6289.00,1.01
6288.00,1.01
6287.00,1.01
6286.00,1.01
6285.00,1.01
6284.00,1.01
6283.00,1.02
6282.00,1.02
6281.00,1.02
6280.00,1.02
6279.00,1.02
6278.00,1.03
6277.00,1.03
6276.00,1.03
6275.00,1.03
6274.00,1.03
6273.00,1.03
6272.00,1.04
6271.00,1.04
6270.00,1.04
6269.00,1.04
6268.00,1.04
6267.00,1.04
6266.00,1.05
6265.00,1.05
6264.00,1.05
6263.00,1.05
6262.00,1.05
6261.00,1.05
6260.00,1.05
6259.00,1.05
6258.00,1.05
6257.00,1.05
6256.00,1.05
6255.00,1.05
6254.00,1.05
6253.00,1.05
6252.00,1.05
6251.00,1.05
6250.00,1.05
6249.00,1.05
6248.00,1.05
6247.00,1.05
6246.00,1.05
6245.00,1.06
6244.00,1.06
6243.00,1.06
6242.00,1.06
6241.00,1.06
6240.00,1.06
6239.00,1.07
6238.00,1.07
6237.00,1.07
6236.00,1.08
6235.00,1.08
6234.00,1.08
6233.00,1.09
6232.00,1.09
6231.00,1.09
6230.00,1.10
6229.00,1.10
6228.00,1.10
6227.00,1.10
6226.00,1.11
6225.00,1.11
6224.00,1.11
6223.00,1.11
6222.00,1.11
6221.00,1.12
6220.00,1.12
6219.00,1.12
6218.00,1.12
6217.00,1.12
6216.00,1.12
6215.00,1.12
6214.00,1.12
6213.00,1.13
6212.00,1.13
6211.00,1.13
6210.00,1.13
6209.00,1.12
6208.00,1.12
6207.00,1.12
6206.00,1.12
6205.00,1.12
6204.00,1.12
6203.00,1.12
6202.00,1.12
6201.00,1.12
6200.00,1.12
6199.00,1.12
6198.00,1.12
6197.00,1.12
6196.00,1.12
6195.00,1.12
6194.00,1.12
6193.00,1.11
6192.00,1.11
6191.00,1.11
6190.00,1.11
6189.00,1.11
6188.00,1.11
6187.00,1.11
6186.00,1.11
6185.00,1.11
6184.00,1.11
6183.00,1.11
6182.00,1.10
6181.00,1.10
6180.00,1.10
6179.00,1.10
6178.00,1.10
6177.00,1.10
6176.00,1.10
6175.00,1.10
6174.00,1.10
6173.00,1.10
6172.00,1.11
6171.00,1.11
6170.00,1.11
6169.00,1.11
6168.00,1.11
6167.00,1.11
6166.00,1.11
6165.00,1.11
6164.00,1.12
6163.00,1.12
6162.00,1.12
6161.00,1.12
6160.00,1.12
6159.00,1.13
6158.00,1.13
6157.00,1.13
6156.00,1.13
6155.00,1.13
6154.00,1.13
6153.00,1.13
6152.00,1.14
6151.00,1.14
6150.00,1.14
6149.00,1.14
6148.00,1.14
6147.00,1.14
6146.00,1.14
6145.00,1.14
6144.00,1.13
6143.00,1.13
6142.00,1.13
6141.00,1.13
6140.00,1.13
6139.00,1.13
6138.00,1.13
6137.00,1.13
6136.00,1.13
6135.00,1.12
6134.00,1.12
6133.00,1.12
6132.00,1.12
6131.00,1.12
6130.00,1.12
6129.00,1.12
6128.00,1.12
6127.00,1.12
6126.00,1.12
6125.00,1.12
6124.00,1.13
6123.00,1.13
6122.00,1.13
6121.00,1.13
6120.00,1.13
6119.00,1.14
6118.00,1.14
6117.00,1.14
6116.00,1.14
6115.00,1.15
6114.00,1.15
6113.00,1.15
6112.00,1.15
6111.00,1.16
6110.00,1.16
6109.00,1.16
6108.00,1.16
6107.00,1.16
6106.00,1.17
6105.00,1.17
6104.00,1.17
6103.00,1.17
6102.00,1.17
6101.00,1.18
6100.00,1.18
6099.00,1.18
6098.00,1.18
6097.00,1.18
6096.00,1.18
6095.00,1.18
6094.00,1.18
6093.00,1.18
6092.00,1.18
6091.00,1.18
6090.00,1.18
6089.00,1.18
6088.00,1.19
6087.00,1.19
6086.00,1.19
6085.00,1.19
6084.00,1.19
6083.00,1.19
6082.00,1.19
6081.00,1.19
6080.00,1.20
6079.00,1.20
6078.00,1.20
6077.00,1.20
6076.00,1.20
6075.00,1.20
6074.00,1.20
6073.00,1.20
6072.00,1.20
6071.00,1.20
6070.00,1.20
6069.00,1.20
6068.00,1.20
6067.00,1.20
6066.00,1.20
6065.00,1.20
6064.00,1.20
6063.00,1.20
6062.00,1.20
6061.00,1.20
6060.00,1.20
6059.00,1.20
6058.00,1.20
6057.00,1.20
6056.00,1.20
6055.00,1.20
6054.00,1.20
6053.00,1.20
6052.00,1.20
6051.00,1.21
6050.00,1.21
6049.00,1.21
6048.00,1.21
6047.00,1.21
6046.00,1.21
6045.00,1.21
6044.00,1.22
6043.00,1.22
6042.00,1.22
6041.00,1.22
6040.00,1.22
6039.00,1.22
6038.00,1.22
6037.00,1.23
6036.00,1.23
6035.00,1.23
6034.00,1.23
6033.00,1.23
6032.00,1.23
6031.00,1.23
6030.00,1.23
6029.00,1.23
6028.00,1.23
6027.00,1.23
6026.00,1.24
6025.00,1.24
6024.00,1.24
6023.00,1.24
6022.00,1.24
6021.00,1.24
6020.00,1.24
6019.00,1.24
6018.00,1.24
6017.00,1.24
6016.00,1.25
6015.00,1.25
6014.00,1.25
6013.00,1.25
6012.00,1.25
6011.00,1.25
6010.00,1.25
6009.00,1.25
6008.00,1.25
6007.00,1.25
6006.00,1.25
6005.00,1.26
6004.00,1.26
6003.00,1.26
6002.00,1.26
6001.00,1.26
6000.00,1.26
5999.00,1.25
5998.00,1.25
5997.00,1.25
5996.00,1.25
5995.00,1.25
5994.00,1.25
5993.00,1.25
5992.00,1.25
5991.00,1.24
5990.00,1.24
5989.00,1.24
5988.00,1.24
5987.00,1.23
5986.00,1.23
5985.00,1.23
5984.00,1.23
5983.00,1.22
5982.00,1.22
5981.00,1.22
5980.00,1.21
5979.00,1.21
5978.00,1.21
5977.00,1.21
5976.00,1.20
5975.00,1.20
5974.00,1.20
5973.00,1.20
5972.00,1.19
5971.00,1.19
5970.00,1.19
5969.00,1.19
5968.00,1.18
5967.00,1.18
5966.00,1.18
5965.00,1.18
5964.00,1.18
5963.00,1.17
5962.00,1.17
5961.00,1.17
5960.00,1.17
5959.00,1.17
5958.00,1.17
5957.00,1.16
5956.00,1.16
5955.00,1.16
5954.00,1.16
5953.00,1.16
5952.00,1.16
5951.00,1.15
5950.00,1.15
5949.00,1.15
5948.00,1.15
5947.00,1.14
5946.00,1.14
5945.00,1.14
5944.00,1.14
5943.00,1.13
5942.00,1.13
5941.00,1.13
5940.00,1.13
5939.00,1.12
5938.00,1.12
5937.00,1.12
5936.00,1.12
5935.00,1.11
5934.00,1.11
5933.00,1.11
5932.00,1.11
5931.00,1.11
5930.00,1.10
5929.00,1.10
5928.00,1.10
5927.00,1.10
5926.00,1.10
5925.00,1.10
5924.00,1.09
5923.00,1.09
5922.00,1.09
5921.00,1.09
5920.00,1.09
5919.00,1.09
5918.00,1.09
5917.00,1.09
5916.00,1.09
5915.00,1.09
5914.00,1.10
5913.00,1.10
5912.00,1.10
5911.00,1.10
5910.00,1.10
5909.00,1.10
5908.00,1.11
5907.00,1.11
5906.00,1.11
5905.00,1.11
5904.00,1.11
5903.00,1.12
5902.00,1.12
5901.00,1.12
5900.00,1.13
5899.00,1.13
5898.00,1.13
5897.00,1.13
5896.00,1.14
5895.00,1.14
5894.00,1.14
5893.00,1.14
5892.00,1.15
5891.00,1.15
5890.00,1.15
5889.00,1.15
5888.00,1.15
5887.00,1.15
5886.00,1.15
5885.00,1.15
5884.00,1.15
5883.00,1.15
5882.00,1.15
5881.00,1.15
5880.00,1.15
5879.00,1.15
5878.00,1.15
5877.00,1.15
5876.00,1.15
5875.00,1.15
5874.00,1.15
5873.00,1.15
5872.00,1.15
5871.00,1.15
5870.00,1.15
5869.00,1.15
5868.00,1.15
5867.00,1.15
5866.00,1.15
5865.00,1.15
5864.00,1.15
5863.00,1.15
5862.00,1.15
5861.00,1.15
5860.00,1.15
5859.00,1.15
5858.00,1.15
5857.00,1.15
5856.00,1.15
5855.00,1.15
5854.00,1.15
5853.00,1.15
5852.00,1.15
5851.00,1.15
5850.00,1.15
5849.00,1.15
5848.00,1.15
5847.00,1.15
5846.00,1.15
5845.00,1.15
5844.00,1.15
5843.00,1.15
5842.00,1.16
5841.00,1.16
5840.00,1.16
5839.00,1.16
5838.00,1.16
5837.00,1.16
5836.00,1.16
5835.00,1.16
5834.00,1.17
5833.00,1.17
5832.00,1.17
5831.00,1.17
5830.00,1.17
5829.00,1.17
5828.00,1.17
5827.00,1.17
5826.00,1.17
5825.00,1.17
5824.00,1.17
5823.00,1.17
5822.00,1.17
5821.00,1.18
5820.00,1.18
5819.00,1.18
5818.00,1.18
5817.00,1.18
5816.00,1.18
5815.00,1.18
5814.00,1.18
5813.00,1.18
5812.00,1.18
5811.00,1.18
5810.00,1.18
5809.00,1.17
5808.00,1.17
5807.00,1.17
5806.00,1.17
5805.00,1.17
5804.00,1.17
5803.00,1.16
5802.00,1.16
5801.00,1.16
5800.00,1.16
5799.00,1.16
5798.00,1.16
5797.00,1.16
5796.00,1.15
5795.00,1.15
5794.00,1.15
5793.00,1.15
5792.00,1.14
5791.00,1.14
5790.00,1.14
5789.00,1.14
5788.00,1.13
5787.00,1.13
5786.00,1.13
5785.00,1.13
5784.00,1.13
5783.00,1.13
5782.00,1.12
5781.00,1.12
5780.00,1.12
5779.00,1.12
5778.00,1.12
5777.00,1.12
5776.00,1.12
5775.00,1.12
5774.00,1.12
5773.00,1.12
5772.00,1.12
5771.00,1.12
5770.00,1.12
5769.00,1.12
5768.00,1.12
5767.00,1.12
5766.00,1.12
5765.00,1.12
5764.00,1.12
5763.00,1.13
5762.00,1.13
5761.00,1.13
5760.00,1.13
5759.00,1.13
5758.00,1.13
5757.00,1.13
5756.00,1.14
5755.00,1.14
5754.00,1.14
5753.00,1.14
5752.00,1.14
5751.00,1.14
5750.00,1.14
5749.00,1.14
5748.00,1.14
5747.00,1.14
5746.00,1.14
5745.00,1.14
5744.00,1.14
5743.00,1.14
5742.00,1.14
5741.00,1.14
5740.00,1.14
5739.00,1.14
5738.00,1.14
5737.00,1.14
5736.00,1.14
5735.00,1.14
5734.00,1.14
5733.00,1.14
5732.00,1.14
5731.00,1.14
5730.00,1.14
5729.00,1.14
5728.00,1.14
5727.00,1.14
5726.00,1.14
5725.00,1.14
5724.00,1.14
5723.00,1.14
5722.00,1.14
5721.00,1.14
5720.00,1.14
5719.00,1.14
5718.00,1.14
5717.00,1.14
5716.00,1.15
5715.00,1.15
5714.00,1.15
5713.00,1.15
5712.00,1.15
5711.00,1.15
5710.00,1.15
5709.00,1.16
5708.00,1.16
5707.00,1.16
5706.00,1.16
5705.00,1.16
5704.00,1.16
5703.00,1.16
5702.00,1.16
5701.00,1.16
5700.00,1.16
5699.00,1.16
5698.00,1.16
5697.00,1.16
5696.00,1.16
5695.00,1.16
5694.00,1.16
5693.00,1.16
5692.00,1.16
5691.00,1.16
5690.00,1.16
5689.00,1.16
5688.00,1.16
5687.00,1.16
5686.00,1.16
5685.00,1.16
5684.00,1.16
5683.00,1.16
5682.00,1.16
5681.00,1.16
5680.00,1.16
5679.00,1.16
5678.00,1.16
5677.00,1.16
5676.00,1.16
5675.00,1.16
5674.00,1.16
5673.00,1.16
5672.00,1.16
5671.00,1.16
5670.00,1.16
5669.00,1.16
5668.00,1.16
5667.00,1.16
5666.00,1.16
5665.00,1.16
5664.00,1.16
5663.00,1.16
5662.00,1.16
5661.00,1.17
5660.00,1.17
5659.00,1.17
5658.00,1.17
5657.00,1.17
5656.00,1.17
5655.00,1.17
5654.00,1.17
5653.00,1.17
5652.00,1.17
5651.00,1.17
5650.00,1.17
5649.00,1.17
5648.00,1.17
5647.00,1.17
5646.00,1.17
5645.00,1.17
5644.00,1.17
5643.00,1.17
5642.00,1.17
5641.00,1.17
5640.00,1.17
5639.00,1.17
5638.00,1.17
5637.00,1.17
5636.00,1.17
5635.00,1.17
5634.00,1.17
5633.00,1.17
5632.00,1.17
5631.00,1.17
5630.00,1.17
5629.00,1.17
5628.00,1.18
5627.00,1.18
5626.00,1.18
5625.00,1.18
5624.00,1.18
5623.00,1.18
5622.00,1.18
5621.00,1.18
5620.00,1.18
5619.00,1.18
5618.00,1.18
5617.00,1.18
5616.00,1.18
5615.00,1.18
5614.00,1.18
5613.00,1.18
5612.00,1.18
5611.00,1.18
5610.00,1.18
5609.00,1.18
5608.00,1.18
5607.00,1.18
5606.00,1.18
5605.00,1.18
5604.00,1.18
5603.00,1.18
5602.00,1.18
5601.00,1.18
5600.00,1.18
5599.00,1.17
5598.00,1.17
5597.00,1.17
5596.00,1.17
5595.00,1.17
5594.00,1.17
5593.00,1.17
5592.00,1.17
5591.00,1.17
5590.00,1.17
5589.00,1.18
5588.00,1.18
5587.00,1.18
5586.00,1.18
5585.00,1.18
5584.00,1.18
5583.00,1.18
5582.00,1.18
5581.00,1.19
5580.00,1.19
5579.00,1.19
5578.00,1.19
5577.00,1.19
5576.00,1.20
5575.00,1.20
5574.00,1.20
5573.00,1.20
5572.00,1.20
5571.00,1.20
5570.00,1.20
5569.00,1.21
5568.00,1.21
5567.00,1.21
5566.00,1.21
5565.00,1.21
5564.00,1.21
5563.00,1.21
5562.00,1.21
5561.00,1.21
5560.00,1.22
5559.00,1.22
5558.00,1.22
5557.00,1.22
5556.00,1.22
5555.00,1.22
5554.00,1.22
5553.00,1.22
5552.00,1.22
5551.00,1.22
5550.00,1.22
5549.00,1.22
5548.00,1.23
5547.00,1.23
5546.00,1.23
5545.00,1.23
5544.00,1.23
5543.00,1.23
5542.00,1.23
5541.00,1.24
5540.00,1.24
5539.00,1.24
5538.00,1.24
5537.00,1.24
5536.00,1.24
5535.00,1.24
5534.00,1.24
5533.00,1.24
5532.00,1.24
5531.00,1.24
5530.00,1.24
5529.00,1.24
5528.00,1.24
5527.00,1.24
5526.00,1.24
5525.00,1.24
5524.00,1.24
5523.00,1.24
5522.00,1.24
5521.00,1.24
5520.00,1.24
5519.00,1.24
5518.00,1.24
5517.00,1.24
5516.00,1.24
5515.00,1.24
5514.00,1.24
5513.00,1.24
5512.00,1.24
5511.00,1.24
5510.00,1.24
5509.00,1.24
5508.00,1.24
5507.00,1.24
5506.00,1.24
5505.00,1.24
5504.00,1.24
5503.00,1.25
5502.00,1.25
5501.00,1.25
5500.00,1.25
5499.00,1.25
5498.00,1.25
5497.00,1.25
5496.00,1.25
5495.00,1.25
5494.00,1.25
5493.00,1.26
5492.00,1.26
5491.00,1.26
5490.00,1.26
5489.00,1.26
5488.00,1.26
5487.00,1.27
5486.00,1.27
5485.00,1.27
5484.00,1.27
5483.00,1.27
5482.00,1.27
5481.00,1.27
5480.00,1.27
5479.00,1.27
5478.00,1.28
5477.00,1.28
5476.00,1.28
5475.00,1.28
5474.00,1.28
5473.00,1.28
5472.00,1.28
5471.00,1.28
5470.00,1.29
5469.00,1.29
5468.00,1.29
5467.00,1.29
5466.00,1.29
5465.00,1.29
5464.00,1.29
5463.00,1.29
5462.00,1.29
5461.00,1.29
5460.00,1.29
5459.00,1.29
5458.00,1.29
5457.00,1.29
5456.00,1.29
5455.00,1.29
5454.00,1.29
5453.00,1.29
5452.00,1.28
5451.00,1.28
5450.00,1.28
5449.00,1.28
5448.00,1.28
5447.00,1.28
5446.00,1.28
5445.00,1.28
5444.00,1.27
5443.00,1.27
5442.00,1.27
5441.00,1.27
5440.00,1.27
5439.00,1.26
5438.00,1.26
5437.00,1.26
5436.00,1.26
5435.00,1.26
5434.00,1.26
5433.00,1.26
5432.00,1.26
5431.00,1.25
5430.00,1.25
5429.00,1.25
5428.00,1.25
5427.00,1.25
5426.00,1.25
5425.00,1.26
5424.00,1.26
5423.00,1.26
5422.00,1.26
5421.00,1.26
5420.00,1.26
5419.00,1.26
5418.00,1.26
5417.00,1.26
5416.00,1.27
5415.00,1.27
5414.00,1.27
5413.00,1.27
5412.00,1.27
5411.00,1.28
5410.00,1.28
5409.00,1.28
5408.00,1.28
5407.00,1.28
5406.00,1.28
5405.00,1.28
5404.00,1.28
5403.00,1.28
5402.00,1.28
5401.00,1.28
5400.00,1.28
5399.00,1.28
5398.00,1.28
5397.00,1.28
5396.00,1.28
5395.00,1.28
5394.00,1.28
5393.00,1.28
5392.00,1.28
5391.00,1.27
5390.00,1.27
5389.00,1.27
5388.00,1.27
5387.00,1.27
5386.00,1.27
5385.00,1.26
5384.00,1.26
5383.00,1.26
5382.00,1.26
5381.00,1.25
5380.00,1.25
5379.00,1.25
5378.00,1.24
5377.00,1.24
5376.00,1.24
5375.00,1.23
5374.00,1.23
5373.00,1.23
5372.00,1.22
5371.00,1.22
5370.00,1.22
5369.00,1.21
5368.00,1.21
5367.00,1.20
5366.00,1.20
5365.00,1.19
5364.00,1.19
5363.00,1.19
5362.00,1.18
5361.00,1.17
5360.00,1.17
5359.00,1.16
5358.00,1.16
5357.00,1.15
5356.00,1.15
5355.00,1.14
5354.00,1.13
5353.00,1.13
5352.00,1.12
5351.00,1.12
5350.00,1.11
5349.00,1.10
5348.00,1.10
5347.00,1.09
5346.00,1.08
5345.00,1.08
5344.00,1.07
5343.00,1.06
5342.00,1.06
5341.00,1.05
5340.00,1.04
5339.00,1.04
5338.00,1.03
5337.00,1.02
5336.00,1.02
5335.00,1.01
5334.00,1.00
5333.00,1.00
5332.00,0.99
5331.00,0.99
5330.00,0.98
5329.00,0.97
5328.00,0.97
5327.00,0.96
5326.00,0.95
5325.00,0.95
5324.00,0.94
5323.00,0.93
5322.00,0.93
5321.00,0.92
5320.00,0.91
5319.00,0.91
5318.00,0.90
5317.00,0.89
5316.00,0.89
5315.00,0.88
5314.00,0.87
5313.00,0.87
5312.00,0.86
5311.00,0.85
5310.00,0.85
5309.00,0.84
5308.00,0.83
5307.00,0.82
5306.00,0.82
5305.00,0.81
5304.00,0.80
5303.00,0.80
5302.00,0.79
5301.00,0.78
5300.00,0.78
5299.00,0.77
5298.00,0.77
5297.00,0.76
5296.00,0.76
5295.00,0.75
5294.00,0.75
5293.00,0.75
5292.00,0.74
5291.00,0.74
5290.00,0.74
5289.00,0.73
5288.00,0.73
5287.00,0.73
5286.00,0.73
5285.00,0.72
5284.00,0.72
5283.00,0.72
5282.00,0.72
5281.00,0.72
5280.00,0.71
5279.00,0.71
5278.00,0.71
5277.00,0.71
5276.00,0.71
5275.00,0.71
5274.00,0.71
5273.00,0.71
5272.00,0.71
5271.00,0.71
5270.00,0.71
5269.00,0.71
5268.00,0.71
5267.00,0.70
5266.00,0.70
5265.00,0.70
5264.00,0.70
5263.00,0.70
5262.00,0.70
5261.00,0.70
5260.00,0.69
5259.00,0.69
5258.00,0.69
5257.00,0.69
5256.00,0.69
5255.00,0.69
5254.00,0.69
5253.00,0.69
5252.00,0.68
5251.00,0.68
5250.00,0.68
5249.00,0.68
5248.00,0.68
5247.00,0.68
5246.00,0.68
5245.00,0.68
5244.00,0.67
5243.00,0.67
5242.00,0.67
5241.00,0.67
5240.00,0.67
5239.00,0.67
5238.00,0.67
5237.00,0.67
5236.00,0.67
5235.00,0.66
5234.00,0.66
5233.00,0.66
5232.00,0.66
5231.00,0.66
5230.00,0.66
5229.00,0.66
5228.00,0.66
5227.00,0.67
5226.00,0.67
5225.00,0.67
5224.00,0.67
5223.00,0.67
5222.00,0.67
5221.00,0.67
5220.00,0.67
5219.00,0.67
5218.00,0.67
5217.00,0.67
5216.00,0.67
5215.00,0.67
5214.00,0.67
5213.00,0.67
5212.00,0.67
5211.00,0.67
5210.00,0.67
5209.00,0.67
5208.00,0.67
5207.00,0.67
5206.00,0.67
5205.00,0.67
5204.00,0.67
5203.00,0.66
5202.00,0.66
5201.00,0.66
5200.00,0.66
5199.00,0.66
5198.00,0.66
5197.00,0.66
5196.00,0.66
5195.00,0.66
5194.00,0.65
5193.00,0.65
5192.00,0.65
5191.00,0.65
5190.00,0.65
5189.00,0.65
5188.00,0.65
5187.00,0.65
5186.00,0.65
5185.00,0.65
5184.00,0.65
5183.00,0.65
5182.00,0.65
5181.00,0.65
5180.00,0.65
5179.00,0.65
5178.00,0.65
5177.00,0.64
5176.00,0.64
5175.00,0.64
5174.00,0.64
5173.00,0.64
5172.00,0.64
5171.00,0.64
5170.00,0.64
5169.00,0.64
5168.00,0.64
5167.00,0.64
5166.00,0.64
5165.00,0.64
5164.00,0.64
5163.00,0.64
5162.00,0.64
5161.00,0.64
5160.00,0.64
5159.00,0.64
5158.00,0.65
5157.00,0.65
5156.00,0.65
5155.00,0.65
5154.00,0.65
5153.00,0.65
5152.00,0.65
5151.00,0.65
5150.00,0.65
5149.00,0.65
5148.00,0.65
5147.00,0.65
5146.00,0.66
5145.00,0.66
5144.00,0.66
5143.00,0.66
5142.00,0.66
5141.00,0.66
5140.00,0.66
5139.00,0.66
5138.00,0.66
5137.00,0.66
5136.00,0.66
5135.00,0.66
5134.00,0.67
5133.00,0.67
5132.00,0.67
5131.00,0.67
5130.00,0.67
5129.00,0.67
5128.00,0.68
5127.00,0.68
5126.00,0.68
5125.00,0.68
5124.00,0.68
5123.00,0.68
5122.00,0.68
5121.00,0.69
5120.00,0.69
5119.00,0.69
5118.00,0.69
5117.00,0.69
5116.00,0.70
5115.00,0.70
5114.00,0.70
5113.00,0.70
5112.00,0.70
5111.00,0.70
5110.00,0.71
5109.00,0.71
5108.00,0.71
5107.00,0.71
5106.00,0.71
5105.00,0.71
5104.00,0.71
5103.00,0.71
5102.00,0.71
5101.00,0.71
5100.00,0.71
5099.00,0.71
5098.00,0.71
5097.00,0.71
5096.00,0.71
5095.00,0.71
5094.00,0.71
5093.00,0.71
5092.00,0.71
5091.00,0.71
5090.00,0.71
5089.00,0.70
5088.00,0.70
5087.00,0.70
5086.00,0.70
5085.00,0.70
5084.00,0.70
5083.00,0.70
5082.00,0.70
5081.00,0.70
5080.00,0.70
5079.00,0.70
5078.00,0.71
5077.00,0.71
5076.00,0.71
5075.00,0.71
5074.00,0.71
5073.00,0.71
5072.00,0.71
5071.00,0.71
5070.00,0.72
5069.00,0.72
5068.00,0.72
5067.00,0.72
5066.00,0.72
5065.00,0.72
5064.00,0.73
5063.00,0.73
5062.00,0.73
5061.00,0.73
5060.00,0.73
5059.00,0.73
5058.00,0.73
5057.00,0.74
5056.00,0.74
5055.00,0.74
5054.00,0.74
5053.00,0.74
5052.00,0.74
5051.00,0.74
5050.00,0.74
5049.00,0.74
5048.00,0.74
5047.00,0.74
5046.00,0.74
5045.00,0.74
5044.00,0.74
5043.00,0.74
5042.00,0.74
5041.00,0.74
5040.00,0.74
5039.00,0.74
5038.00,0.74
5037.00,0.74
5036.00,0.74
5035.00,0.74
5034.00,0.74
5033.00,0.74
5032.00,0.74
5031.00,0.74
5030.00,0.74
5029.00,0.74
5028.00,0.74
5027.00,0.74
5026.00,0.75
5025.00,0.75
5024.00,0.75
5023.00,0.75
5022.00,0.75
5021.00,0.75
5020.00,0.75
5019.00,0.75
5018.00,0.75
5017.00,0.75
5016.00,0.75
5015.00,0.75
5014.00,0.75
5013.00,0.76
5012.00,0.76
5011.00,0.76
5010.00,0.76
5009.00,0.76
5008.00,0.76
5007.00,0.76
5006.00,0.76
5005.00,0.76
5004.00,0.76
5003.00,0.76
5002.00,0.76
5001.00,0.76
5000.00,0.76
4999.00,0.76
4998.00,0.75
4997.00,0.75
4996.00,0.75
4995.00,0.75
4994.00,0.75
4993.00,0.75
4992.00,0.75
4991.00,0.76
4990.00,0.76
4989.00,0.76
4988.00,0.76
4987.00,0.76
4986.00,0.76
4985.00,0.76
4984.00,0.76
4983.00,0.76
4982.00,0.76
4981.00,0.76
4980.00,0.77
4979.00,0.77
4978.00,0.77
4977.00,0.77
4976.00,0.77
4975.00,0.78
4974.00,0.78
4973.00,0.78
4972.00,0.78
4971.00,0.79
4970.00,0.79
4969.00,0.79
4968.00,0.79
4967.00,0.79
4966.00,0.80
4965.00,0.80
4964.00,0.80
4963.00,0.80
4962.00,0.80
4961.00,0.80
4960.00,0.80
4959.00,0.81
4958.00,0.81
4957.00,0.81
4956.00,0.81
4955.00,0.81
4954.00,0.81
4953.00,0.81
4952.00,0.81
4951.00,0.81
4950.00,0.81
4949.00,0.81
4948.00,0.80
4947.00,0.80
4946.00,0.80
4945.00,0.80
4944.00,0.80
4943.00,0.80
4942.00,0.80
4941.00,0.80
4940.00,0.80
4939.00,0.79
4938.00,0.79
4937.00,0.79
4936.00,0.79
4935.00,0.79
4934.00,0.79
4933.00,0.79
4932.00,0.79
4931.00,0.79
4930.00,0.80
4929.00,0.80
4928.00,0.80
4927.00,0.80
4926.00,0.80
4925.00,0.80
4924.00,0.81
4923.00,0.81
4922.00,0.81
4921.00,0.81
4920.00,0.82
4919.00,0.82
4918.00,0.82
4917.00,0.82
4916.00,0.83
4915.00,0.83
4914.00,0.83
4913.00,0.83
4912.00,0.84
4911.00,0.84
4910.00,0.84
4909.00,0.84
4908.00,0.85
4907.00,0.85
4906.00,0.85
4905.00,0.85
4904.00,0.85
4903.00,0.85
4902.00,0.85
4901.00,0.85
4900.00,0.86
4899.00,0.86
4898.00,0.85
4897.00,0.85
4896.00,0.85
4895.00,0.85
4894.00,0.85
4893.00,0.85
4892.00,0.85
4891.00,0.85
4890.00,0.85
4889.00,0.85
4888.00,0.85
4887.00,0.86
4886.00,0.86
4885.00,0.86
4884.00,0.86
4883.00,0.86
4882.00,0.86
4881.00,0.86
4880.00,0.86
4879.00,0.86
4878.00,0.86
4877.00,0.86
4876.00,0.86
4875.00,0.86
4874.00,0.86
4873.00,0.86
4872.00,0.86
4871.00,0.86
4870.00,0.86
4869.00,0.86
4868.00,0.87
4867.00,0.87
4866.00,0.87
4865.00,0.87
4864.00,0.87
4863.00,0.87
4862.00,0.87
4861.00,0.88
4860.00,0.88
4859.00,0.88
4858.00,0.88
4857.00,0.88
4856.00,0.88
4855.00,0.89
4854.00,0.89
4853.00,0.89
4852.00,0.89
4851.00,0.90
4850.00,0.90
4849.00,0.90
4848.00,0.90
4847.00,0.90
4846.00,0.91
4845.00,0.91
4844.00,0.91
4843.00,0.91
4842.00,0.91
4841.00,0.91
4840.00,0.91
4839.00,0.92
4838.00,0.92
4837.00,0.92
4836.00,0.92
4835.00,0.92
4834.00,0.92
4833.00,0.92
4832.00,0.92
4831.00,0.92
4830.00,0.92
4829.00,0.92
4828.00,0.92
4827.00,0.92
4826.00,0.92
4825.00,0.92
4824.00,0.92
4823.00,0.92
4822.00,0.92
4821.00,0.92
4820.00,0.92
4819.00,0.92
4818.00,0.92
4817.00,0.93
4816.00,0.93
4815.00,0.93
4814.00,0.93
4813.00,0.93
4812.00,0.93
4811.00,0.93
4810.00,0.93
4809.00,0.93
4808.00,0.93
4807.00,0.94
4806.00,0.94
4805.00,0.94
4804.00,0.94
4803.00,0.94
4802.00,0.94
4801.00,0.95
4800.00,0.95
4799.00,0.95
4798.00,0.95
4797.00,0.95
4796.00,0.95
4795.00,0.96
4794.00,0.96
4793.00,0.96
4792.00,0.96
4791.00,0.96
4790.00,0.96
4789.00,0.96
4788.00,0.96
4787.00,0.96
4786.00,0.96
4785.00,0.97
4784.00,0.97
4783.00,0.97
4782.00,0.97
4781.00,0.97
4780.00,0.97
4779.00,0.97
4778.00,0.97
4777.00,0.97
4776.00,0.97
4775.00,0.97
4774.00,0.97
4773.00,0.97
4772.00,0.97
4771.00,0.97
4770.00,0.97
4769.00,0.97
4768.00,0.97
4767.00,0.97
4766.00,0.97
4765.00,0.97
4764.00,0.97
4763.00,0.98
4762.00,0.98
4761.00,0.98
4760.00,0.98
4759.00,0.98
4758.00,0.98
4757.00,0.99
4756.00,0.99
4755.00,0.99
4754.00,0.99
4753.00,0.99
4752.00,0.99
4751.00,0.99
4750.00,1.00
4749.00,1.00
4748.00,1.00
4747.00,1.00
4746.00,1.00
4745.00,1.00
4744.00,1.00
4743.00,1.01
4742.00,1.01
4741.00,1.01
4740.00,1.01
4739.00,1.01
4738.00,1.01
4737.00,1.02
4736.00,1.02
4735.00,1.02
4734.00,1.02
4733.00,1.02
4732.00,1.02
4731.00,1.02
4730.00,1.02
4729.00,1.03
4728.00,1.03
4727.00,1.03
4726.00,1.03
4725.00,1.03
4724.00,1.04
4723.00,1.04
4722.00,1.04
4721.00,1.04
4720.00,1.05
4719.00,1.05
4718.00,1.05
4717.00,1.05
4716.00,1.05
4715.00,1.06
4714.00,1.06
4713.00,1.06
4712.00,1.06
4711.00,1.06
4710.00,1.06
4709.00,1.07
4708.00,1.07
4707.00,1.07
4706.00,1.07
4705.00,1.07
4704.00,1.08
4703.00,1.08
4702.00,1.08
4701.00,1.08
4700.00,1.08
4699.00,1.08
4698.00,1.08
4697.00,1.08
4696.00,1.09
4695.00,1.09
4694.00,1.09
4693.00,1.09
4692.00,1.09
4691.00,1.09
4690.00,1.09
4689.00,1.09
4688.00,1.09
4687.00,1.09
4686.00,1.10
4685.00,1.10
4684.00,1.10
4683.00,1.10
4682.00,1.10
4681.00,1.10
4680.00,1.10
4679.00,1.10
4678.00,1.10
4677.00,1.10
4676.00,1.10
4675.00,1.10
4674.00,1.10
4673.00,1.10
4672.00,1.10
4671.00,1.10
4670.00,1.10
4669.00,1.10
4668.00,1.11
4667.00,1.11
4666.00,1.11
4665.00,1.11
4664.00,1.11
4663.00,1.11
4662.00,1.12
4661.00,1.12
4660.00,1.12
4659.00,1.12
4658.00,1.13
4657.00,1.13
4656.00,1.13
4655.00,1.13
4654.00,1.13
4653.00,1.14
4652.00,1.14
4651.00,1.14
4650.00,1.14
4649.00,1.15
4648.00,1.15
4647.00,1.15
4646.00,1.15
4645.00,1.16
4644.00,1.16
4643.00,1.16
4642.00,1.16
4641.00,1.16
4640.00,1.16
4639.00,1.17
4638.00,1.17
4637.00,1.17
4636.00,1.17
4635.00,1.17
4634.00,1.17
4633.00,1.17
4632.00,1.17
4631.00,1.17
4630.00,1.17
4629.00,1.17
4628.00,1.17
4627.00,1.17
4626.00,1.17
4625.00,1.18
4624.00,1.18
4623.00,1.18
4622.00,1.18
4621.00,1.18
4620.00,1.18
4619.00,1.18
4618.00,1.18
4617.00,1.18
4616.00,1.18
4615.00,1.18
4614.00,1.18
4613.00,1.18
4612.00,1.18
4611.00,1.18
4610.00,1.18
4609.00,1.19
4608.00,1.19
4607.00,1.19
4606.00,1.19
4605.00,1.19
4604.00,1.19
4603.00,1.19
4602.00,1.19
4601.00,1.19
4600.00,1.19
4599.00,1.19
4598.00,1.19
4597.00,1.19
4596.00,1.19
4595.00,1.19
4594.00,1.19
4593.00,1.19
4592.00,1.19
4591.00,1.19
4590.00,1.19
4589.00,1.19
4588.00,1.20
4587.00,1.20
4586.00,1.20
4585.00,1.20
4584.00,1.20
4583.00,1.20
4582.00,1.20
4581.00,1.21
4580.00,1.21
4579.00,1.21
4578.00,1.21
4577.00,1.21
4576.00,1.21
4575.00,1.22
4574.00,1.22
4573.00,1.22
4572.00,1.22
4571.00,1.22
4570.00,1.22
4569.00,1.22
4568.00,1.22
4567.00,1.23
4566.00,1.23
4565.00,1.23
4564.00,1.23
4563.00,1.23
4562.00,1.23
4561.00,1.23
4560.00,1.23
4559.00,1.23
4558.00,1.22
4557.00,1.22
4556.00,1.22
4555.00,1.22
4554.00,1.22
4553.00,1.22
4552.00,1.22
4551.00,1.22
4550.00,1.21
4549.00,1.21
4548.00,1.21
4547.00,1.21
4546.00,1.21
4545.00,1.21
4544.00,1.21
4543.00,1.21
4542.00,1.21
4541.00,1.21
4540.00,1.21
4539.00,1.21
4538.00,1.21
4537.00,1.21
4536.00,1.21
4535.00,1.21
4534.00,1.21
4533.00,1.22
4532.00,1.22
4531.00,1.22
4530.00,1.22
4529.00,1.22
4528.00,1.22
4527.00,1.23
4526.00,1.23
4525.00,1.23
4524.00,1.23
4523.00,1.24
4522.00,1.24
4521.00,1.24
4520.00,1.24
4519.00,1.24
4518.00,1.24
4517.00,1.24
4516.00,1.24
4515.00,1.24
4514.00,1.24
4513.00,1.25
4512.00,1.25
4511.00,1.25
4510.00,1.25
4509.00,1.25
4508.00,1.25
4507.00,1.25
4506.00,1.25
4505.00,1.25
4504.00,1.25
4503.00,1.25
4502.00,1.25
4501.00,1.24
4500.00,1.24
4499.00,1.24
4498.00,1.24
4497.00,1.24
4496.00,1.24
4495.00,1.24
4494.00,1.24
4493.00,1.24
4492.00,1.24
4491.00,1.23
4490.00,1.23
4489.00,1.23
4488.00,1.23
4487.00,1.23
4486.00,1.23
4485.00,1.22
4484.00,1.22
4483.00,1.22
4482.00,1.22
4481.00,1.22
4480.00,1.21
4479.00,1.21
4478.00,1.21
4477.00,1.21
4476.00,1.21
4475.00,1.21
4474.00,1.20
4473.00,1.20
4472.00,1.20
4471.00,1.20
4470.00,1.20
4469.00,1.20
4468.00,1.20
4467.00,1.20
4466.00,1.19
4465.00,1.19
4464.00,1.19
4463.00,1.19
4462.00,1.19
4461.00,1.18
4460.00,1.18
4459.00,1.18
4458.00,1.18
4457.00,1.18
4456.00,1.18
4455.00,1.17
4454.00,1.17
4453.00,1.17
4452.00,1.16
4451.00,1.16
4450.00,1.16
4449.00,1.15
4448.00,1.15
4447.00,1.14
4446.00,1.14
4445.00,1.13
4444.00,1.13
4443.00,1.12
4442.00,1.12
4441.00,1.11
4440.00,1.11
4439.00,1.10
4438.00,1.10
4437.00,1.09
4436.00,1.09
4435.00,1.08
4434.00,1.08
4433.00,1.07
4432.00,1.06
4431.00,1.06
4430.00,1.05
4429.00,1.05
4428.00,1.04
4427.00,1.04
4426.00,1.03
4425.00,1.03
4424.00,1.03
4423.00,1.02
4422.00,1.02
4421.00,1.02
4420.00,1.02
4419.00,1.01
4418.00,1.01
4417.00,1.01
4416.00,1.01
4415.00,1.01
4414.00,1.01
4413.00,1.01
4412.00,1.01
4411.00,1.01
4410.00,1.01
4409.00,1.01
4408.00,1.01
4407.00,1.01
4406.00,1.02
4405.00,1.02
4404.00,1.02
4403.00,1.03
4402.00,1.03
4401.00,1.03
4400.00,1.04
4399.00,1.04
4398.00,1.04
4397.00,1.05
4396.00,1.05
4395.00,1.05
4394.00,1.06
4393.00,1.06
4392.00,1.06
4391.00,1.06
4390.00,1.07
4389.00,1.07
4388.00,1.07
4387.00,1.07
4386.00,1.08
4385.00,1.08
4384.00,1.08
4383.00,1.08
4382.00,1.08
4381.00,1.09
4380.00,1.09
4379.00,1.09
4378.00,1.09
4377.00,1.09
4376.00,1.09
4375.00,1.09
4374.00,1.09
4373.00,1.09
4372.00,1.09
4371.00,1.09
4370.00,1.09
4369.00,1.09
4368.00,1.08
4367.00,1.08
4366.00,1.08
4365.00,1.08
4364.00,1.08
4363.00,1.07
4362.00,1.07
4361.00,1.07
4360.00,1.07
4359.00,1.07
4358.00,1.07
4357.00,1.06
4356.00,1.06
4355.00,1.06
4354.00,1.06
4353.00,1.05
4352.00,1.05
4351.00,1.05
4350.00,1.05
4349.00,1.04
4348.00,1.04
4347.00,1.04
4346.00,1.04
4345.00,1.04
4344.00,1.04
4343.00,1.04
4342.00,1.04
4341.00,1.04
4340.00,1.04
4339.00,1.04
4338.00,1.04
4337.00,1.04
4336.00,1.04
4335.00,1.04
4334.00,1.04
4333.00,1.04
4332.00,1.04
4331.00,1.05
4330.00,1.05
4329.00,1.05
4328.00,1.05
4327.00,1.05
4326.00,1.06
4325.00,1.06
4324.00,1.06
4323.00,1.06
4322.00,1.06
4321.00,1.07
4320.00,1.07
4319.00,1.07
4318.00,1.07
4317.00,1.08
4316.00,1.08
4315.00,1.08
4314.00,1.09
4313.00,1.09
4312.00,1.09
4311.00,1.10
4310.00,1.10
4309.00,1.10
4308.00,1.11
4307.00,1.11
4306.00,1.11
4305.00,1.11
4304.00,1.12
4303.00,1.12
4302.00,1.12
4301.00,1.12
4300.00,1.12
4299.00,1.12
4298.00,1.13
4297.00,1.13
4296.00,1.13
4295.00,1.13
4294.00,1.14
4293.00,1.14
4292.00,1.14
4291.00,1.14
4290.00,1.14
4289.00,1.14
4288.00,1.15
4287.00,1.15
4286.00,1.15
4285.00,1.15
4284.00,1.15
4283.00,1.15
4282.00,1.15
4281.00,1.15
4280.00,1.15
4279.00,1.15
4278.00,1.15
4277.00,1.15
4276.00,1.15
4275.00,1.15
4274.00,1.15
4273.00,1.15
4272.00,1.15
4271.00,1.15
4270.00,1.15
4269.00,1.15
4268.00,1.14
4267.00,1.14
4266.00,1.14
4265.00,1.14
4264.00,1.14
4263.00,1.13
4262.00,1.13
4261.00,1.13
4260.00,1.13
4259.00,1.12
4258.00,1.12
4257.00,1.12
4256.00,1.11
4255.00,1.11
4254.00,1.11
4253.00,1.11
4252.00,1.11
4251.00,1.11
4250.00,1.11
4249.00,1.10
4248.00,1.10
4247.00,1.10
4246.00,1.10
4245.00,1.10
4244.00,1.10
4243.00,1.11
4242.00,1.11
4241.00,1.11
4240.00,1.11
4239.00,1.11
4238.00,1.11
4237.00,1.11
4236.00,1.11
4235.00,1.11
4234.00,1.11
4233.00,1.12
4232.00,1.12
4231.00,1.12
4230.00,1.12
4229.00,1.12
4228.00,1.12
4227.00,1.12
4226.00,1.12
4225.00,1.13
4224.00,1.13
4223.00,1.13
4222.00,1.13
4221.00,1.13
4220.00,1.13
4219.00,1.13
4218.00,1.13
4217.00,1.13
4216.00,1.12
4215.00,1.12
4214.00,1.12
4213.00,1.12
4212.00,1.11
4211.00,1.11
4210.00,1.11
4209.00,1.11
4208.00,1.11
4207.00,1.10
4206.00,1.10
4205.00,1.10
4204.00,1.10
4203.00,1.09
4202.00,1.09
4201.00,1.08
4200.00,1.08
4199.00,1.07
4198.00,1.07
4197.00,1.06
4196.00,1.06
4195.00,1.06
4194.00,1.05
4193.00,1.05
4192.00,1.05
4191.00,1.04
4190.00,1.04
4189.00,1.04
4188.00,1.04
4187.00,1.04
4186.00,1.04
4185.00,1.04
4184.00,1.04
4183.00,1.04
4182.00,1.04
4181.00,1.04
4180.00,1.04
4179.00,1.04
4178.00,1.04
4177.00,1.05
4176.00,1.05
4175.00,1.05
4174.00,1.06
4173.00,1.06
4172.00,1.07
4171.00,1.07
4170.00,1.08
4169.00,1.08
4168.00,1.09
4167.00,1.09
4166.00,1.09
4165.00,1.09
4164.00,1.10
4163.00,1.10
4162.00,1.10
4161.00,1.11
4160.00,1.11
4159.00,1.11
4158.00,1.11
4157.00,1.12
4156.00,1.12
4155.00,1.12
4154.00,1.12
4153.00,1.13
4152.00,1.13
4151.00,1.13
4150.00,1.13
4149.00,1.13
4148.00,1.13
4147.00,1.12
4146.00,1.12
4145.00,1.12
4144.00,1.12
4143.00,1.12
4142.00,1.12
4141.00,1.12
4140.00,1.12
4139.00,1.12
4138.00,1.12
4137.00,1.12
4136.00,1.12
4135.00,1.12
4134.00,1.12
4133.00,1.12
4132.00,1.12
4131.00,1.12
4130.00,1.11
4129.00,1.11
4128.00,1.11
4127.00,1.11
4126.00,1.11
4125.00,1.11
4124.00,1.11
4123.00,1.11
4122.00,1.11
4121.00,1.11
4120.00,1.11
4119.00,1.11
4118.00,1.11
4117.00,1.11
4116.00,1.11
4115.00,1.11
4114.00,1.11
4113.00,1.11
4112.00,1.12
4111.00,1.12
4110.00,1.12
4109.00,1.12
4108.00,1.12
4107.00,1.12
4106.00,1.12
4105.00,1.13
4104.00,1.13
4103.00,1.13
4102.00,1.13
4101.00,1.13
4100.00,1.14
4099.00,1.14
4098.00,1.14
4097.00,1.15
4096.00,1.15
4095.00,1.15
4094.00,1.15
4093.00,1.15
4092.00,1.15
4091.00,1.15
4090.00,1.15
4089.00,1.15
4088.00,1.15
4087.00,1.15
4086.00,1.15
4085.00,1.15
4084.00,1.15
4083.00,1.15
4082.00,1.15
4081.00,1.15
4080.00,1.15
4079.00,1.15
4078.00,1.16
4077.00,1.16
4076.00,1.16
4075.00,1.16
4074.00,1.16
4073.00,1.16
4072.00,1.16
4071.00,1.16
4070.00,1.16
4069.00,1.16
4068.00,1.16
4067.00,1.16
4066.00,1.17
4065.00,1.17
4064.00,1.17
4063.00,1.17
4062.00,1.18
4061.00,1.18
4060.00,1.19
4059.00,1.19
4058.00,1.19
4057.00,1.19
4056.00,1.20
4055.00,1.20
4054.00,1.20
4053.00,1.20
4052.00,1.20
4051.00,1.21
4050.00,1.21
4049.00,1.21
4048.00,1.21
4047.00,1.22
4046.00,1.22
4045.00,1.22
4044.00,1.22
4043.00,1.22
4042.00,1.23
4041.00,1.23
4040.00,1.23
4039.00,1.23
4038.00,1.22
4037.00,1.22
4036.00,1.22
4035.00,1.22
4034.00,1.22
4033.00,1.21
4032.00,1.21
4031.00,1.21
4030.00,1.21
4029.00,1.21
4028.00,1.22
4027.00,1.22
4026.00,1.22
4025.00,1.22
4024.00,1.22
4023.00,1.23
4022.00,1.23
4021.00,1.23
4020.00,1.23
4019.00,1.23
4018.00,1.23
4017.00,1.23
4016.00,1.24
4015.00,1.24
4014.00,1.24
4013.00,1.25
4012.00,1.26
4011.00,1.26
4010.00,1.27
4009.00,1.28
4008.00,1.29
4007.00,1.29
4006.00,1.30
4005.00,1.31
4004.00,1.32
4003.00,1.32
4002.00,1.33
4001.00,1.33
4000.00,1.34
