创建为新数据集,样品 000 用户 Administrator 日期 星期五, 七月 26 2019
cm-1,%T
10000.00,0.98
9999.00,1.00
9998.00,1.01
9997.00,1.03
9996.00,1.05
9995.00,1.06
9994.00,1.08
9993.00,1.09
9992.00,1.10
9991.00,1.12
9990.00,1.13
9989.00,1.14
9988.00,1.14
9987.00,1.15
9986.00,1.16
9985.00,1.16
9984.00,1.17
9983.00,1.17
9982.00,1.17
9981.00,1.17
9980.00,1.18
9979.00,1.18
9978.00,1.18
9977.00,1.17
9976.00,1.17
9975.00,1.17
9974.00,1.17
9973.00,1.16
9972.00,1.16
9971.00,1.15
9970.00,1.15
9969.00,1.15
9968.00,1.14
9967.00,1.14
9966.00,1.14
9965.00,1.13
9964.00,1.13
9963.00,1.13
9962.00,1.12
9961.00,1.12
9960.00,1.12
9959.00,1.11
9958.00,1.11
9957.00,1.11
9956.00,1.11
9955.00,1.11
9954.00,1.10
9953.00,1.10
9952.00,1.10
9951.00,1.10
9950.00,1.10
9949.00,1.09
9948.00,1.09
9947.00,1.08
9946.00,1.08
9945.00,1.07
9944.00,1.06
9943.00,1.06
9942.00,1.05
9941.00,1.04
9940.00,1.04
9939.00,1.03
9938.00,1.02
9937.00,1.02
9936.00,1.01
9935.00,1.01
9934.00,1.00
9933.00,0.99
9932.00,0.99
9931.00,0.98
9930.00,0.97
9929.00,0.96
9928.00,0.95
9927.00,0.94
9926.00,0.93
9925.00,0.92
9924.00,0.91
9923.00,0.91
9922.00,0.90
9921.00,0.89
9920.00,0.89
9919.00,0.88
9918.00,0.88
9917.00,0.87
9916.00,0.87
9915.00,0.87
9914.00,0.87
9913.00,0.86
9912.00,0.86
9911.00,0.86
9910.00,0.86
9909.00,0.86
9908.00,0.86
9907.00,0.86
9906.00,0.87
9905.00,0.87
9904.00,0.87
9903.00,0.88
9902.00,0.89
9901.00,0.89
9900.00,0.90
9899.00,0.91
9898.00,0.92
9897.00,0.93
9896.00,0.93
9895.00,0.94
9894.00,0.95
9893.00,0.96
9892.00,0.97
9891.00,0.98
9890.00,0.99
9889.00,1.00
9888.00,1.01
9887.00,1.02
9886.00,1.03
9885.00,1.04
9884.00,1.05
9883.00,1.05
9882.00,1.06
9881.00,1.07
9880.00,1.08
9879.00,1.09
9878.00,1.10
9877.00,1.10
9876.00,1.11
9875.00,1.12
9874.00,1.12
9873.00,1.12
9872.00,1.13
9871.00,1.13
9870.00,1.14
9869.00,1.14
9868.00,1.14
9867.00,1.14
9866.00,1.14
9865.00,1.14
9864.00,1.14
9863.00,1.14
9862.00,1.14
9861.00,1.14
9860.00,1.13
9859.00,1.13
9858.00,1.12
9857.00,1.11
9856.00,1.11
9855.00,1.10
9854.00,1.09
9853.00,1.08
9852.00,1.07
9851.00,1.06
9850.00,1.05
9849.00,1.05
9848.00,1.04
9847.00,1.03
9846.00,1.02
9845.00,1.01
9844.00,1.01
9843.00,1.00
9842.00,0.99
9841.00,0.98
9840.00,0.98
9839.00,0.97
9838.00,0.97
9837.00,0.96
9836.00,0.96
9835.00,0.95
9834.00,0.95
9833.00,0.94
9832.00,0.94
9831.00,0.94
9830.00,0.94
9829.00,0.94
9828.00,0.94
9827.00,0.95
9826.00,0.95
9825.00,0.95
9824.00,0.95
9823.00,0.96
9822.00,0.96
9821.00,0.96
9820.00,0.97
9819.00,0.97
9818.00,0.98
9817.00,0.98
9816.00,0.99
9815.00,0.99
9814.00,1.00
9813.00,1.00
9812.00,1.01
9811.00,1.02
9810.00,1.02
9809.00,1.03
9808.00,1.03
9807.00,1.04
9806.00,1.05
9805.00,1.05
9804.00,1.06
9803.00,1.06
9802.00,1.07
9801.00,1.07
9800.00,1.07
9799.00,1.08
9798.00,1.08
9797.00,1.08
9796.00,1.08
9795.00,1.08
9794.00,1.08
9793.00,1.08
9792.00,1.08
9791.00,1.08
9790.00,1.07
9789.00,1.07
9788.00,1.07
9787.00,1.07
9786.00,1.07
9785.00,1.07
9784.00,1.06
9783.00,1.06
9782.00,1.05
9781.00,1.05
9780.00,1.04
9779.00,1.04
9778.00,1.03
9777.00,1.03
9776.00,1.02
9775.00,1.02
9774.00,1.02
9773.00,1.02
9772.00,1.02
9771.00,1.01
9770.00,1.02
9769.00,1.02
9768.00,1.02
9767.00,1.02
9766.00,1.02
9765.00,1.02
9764.00,1.02
9763.00,1.02
9762.00,1.01
9761.00,1.01
9760.00,1.01
9759.00,1.01
9758.00,1.01
9757.00,1.00
9756.00,1.00
9755.00,1.00
9754.00,1.00
9753.00,1.00
9752.00,1.00
9751.00,1.00
9750.00,1.00
9749.00,1.00
9748.00,1.00
9747.00,1.00
9746.00,1.00
9745.00,0.99
9744.00,0.99
9743.00,0.99
9742.00,0.99
9741.00,0.99
9740.00,0.99
9739.00,0.99
9738.00,0.99
9737.00,0.99
9736.00,1.00
9735.00,1.00
9734.00,1.01
9733.00,1.01
9732.00,1.02
9731.00,1.02
9730.00,1.03
9729.00,1.03
9728.00,1.04
9727.00,1.04
9726.00,1.05
9725.00,1.05
9724.00,1.05
9723.00,1.06
9722.00,1.06
9721.00,1.06
9720.00,1.06
9719.00,1.06
9718.00,1.06
9717.00,1.06
9716.00,1.06
9715.00,1.06
9714.00,1.06
9713.00,1.06
9712.00,1.06
9711.00,1.06
9710.00,1.05
9709.00,1.05
9708.00,1.05
9707.00,1.04
9706.00,1.04
9705.00,1.03
9704.00,1.03
9703.00,1.02
9702.00,1.02
9701.00,1.01
9700.00,1.01
9699.00,1.01
9698.00,1.01
9697.00,1.00
9696.00,1.01
9695.00,1.01
9694.00,1.01
9693.00,1.01
9692.00,1.01
9691.00,1.02
9690.00,1.02
9689.00,1.02
9688.00,1.03
9687.00,1.03
9686.00,1.03
9685.00,1.04
9684.00,1.04
9683.00,1.05
9682.00,1.05
9681.00,1.06
9680.00,1.06
9679.00,1.07
9678.00,1.07
9677.00,1.08
9676.00,1.09
9675.00,1.10
9674.00,1.10
9673.00,1.11
9672.00,1.12
9671.00,1.12
9670.00,1.13
9669.00,1.13
9668.00,1.13
9667.00,1.13
9666.00,1.13
9665.00,1.13
9664.00,1.13
9663.00,1.13
9662.00,1.12
9661.00,1.12
9660.00,1.12
9659.00,1.11
9658.00,1.11
9657.00,1.11
9656.00,1.10
9655.00,1.10
9654.00,1.09
9653.00,1.09
9652.00,1.08
9651.00,1.08
9650.00,1.07
9649.00,1.06
9648.00,1.05
9647.00,1.04
9646.00,1.04
9645.00,1.03
9644.00,1.02
9643.00,1.01
9642.00,1.00
9641.00,0.99
9640.00,0.98
9639.00,0.97
9638.00,0.97
9637.00,0.96
9636.00,0.95
9635.00,0.94
9634.00,0.94
9633.00,0.93
9632.00,0.93
9631.00,0.92
9630.00,0.91
9629.00,0.91
9628.00,0.90
9627.00,0.90
9626.00,0.89
9625.00,0.88
9624.00,0.88
9623.00,0.87
9622.00,0.87
9621.00,0.86
9620.00,0.86
9619.00,0.86
9618.00,0.86
9617.00,0.85
9616.00,0.85
9615.00,0.85
9614.00,0.86
9613.00,0.86
9612.00,0.86
9611.00,0.86
9610.00,0.86
9609.00,0.87
9608.00,0.87
9607.00,0.87
9606.00,0.87
9605.00,0.88
9604.00,0.88
9603.00,0.88
9602.00,0.88
9601.00,0.88
9600.00,0.88
9599.00,0.88
9598.00,0.88
9597.00,0.88
9596.00,0.88
9595.00,0.88
9594.00,0.88
9593.00,0.88
9592.00,0.88
9591.00,0.87
9590.00,0.87
9589.00,0.87
9588.00,0.87
9587.00,0.87
9586.00,0.86
9585.00,0.86
9584.00,0.86
9583.00,0.86
9582.00,0.86
9581.00,0.86
9580.00,0.86
9579.00,0.86
9578.00,0.86
9577.00,0.87
9576.00,0.87
9575.00,0.87
9574.00,0.87
9573.00,0.88
9572.00,0.88
9571.00,0.88
9570.00,0.89
9569.00,0.89
9568.00,0.89
9567.00,0.90
9566.00,0.90
9565.00,0.91
9564.00,0.91
9563.00,0.92
9562.00,0.92
9561.00,0.92
9560.00,0.93
9559.00,0.93
9558.00,0.93
9557.00,0.93
9556.00,0.93
9555.00,0.93
9554.00,0.93
9553.00,0.93
9552.00,0.93
9551.00,0.92
9550.00,0.92
9549.00,0.93
9548.00,0.93
9547.00,0.93
9546.00,0.93
9545.00,0.93
9544.00,0.93
9543.00,0.94
9542.00,0.94
9541.00,0.94
9540.00,0.94
9539.00,0.95
9538.00,0.95
9537.00,0.95
9536.00,0.96
9535.00,0.96
9534.00,0.96
9533.00,0.97
9532.00,0.97
9531.00,0.98
9530.00,0.98
9529.00,0.99
9528.00,0.99
9527.00,1.00
9526.00,1.00
9525.00,1.01
9524.00,1.01
9523.00,1.01
9522.00,1.01
9521.00,1.01
9520.00,1.01
9519.00,1.01
9518.00,1.01
9517.00,1.01
9516.00,1.01
9515.00,1.01
9514.00,1.01
9513.00,1.01
9512.00,1.01
9511.00,1.01
9510.00,1.01
9509.00,1.01
9508.00,1.00
9507.00,1.00
9506.00,1.00
9505.00,0.99
9504.00,0.99
9503.00,0.99
9502.00,0.98
9501.00,0.98
9500.00,0.98
9499.00,0.98
9498.00,0.97
9497.00,0.97
9496.00,0.97
9495.00,0.97
9494.00,0.97
9493.00,0.97
9492.00,0.97
9491.00,0.97
9490.00,0.97
9489.00,0.96
9488.00,0.96
9487.00,0.96
9486.00,0.95
9485.00,0.95
9484.00,0.95
9483.00,0.94
9482.00,0.94
9481.00,0.94
9480.00,0.93
9479.00,0.93
9478.00,0.93
9477.00,0.92
9476.00,0.92
9475.00,0.92
9474.00,0.92
9473.00,0.91
9472.00,0.91
9471.00,0.91
9470.00,0.91
9469.00,0.90
9468.00,0.90
9467.00,0.90
9466.00,0.89
9465.00,0.89
9464.00,0.88
9463.00,0.88
9462.00,0.88
9461.00,0.88
9460.00,0.88
9459.00,0.87
9458.00,0.87
9457.00,0.88
9456.00,0.88
9455.00,0.88
9454.00,0.88
9453.00,0.88
9452.00,0.88
9451.00,0.88
9450.00,0.88
9449.00,0.88
9448.00,0.87
9447.00,0.87
9446.00,0.87
9445.00,0.87
9444.00,0.87
9443.00,0.86
9442.00,0.86
9441.00,0.86
9440.00,0.86
9439.00,0.86
9438.00,0.86
9437.00,0.85
9436.00,0.85
9435.00,0.85
9434.00,0.85
9433.00,0.84
9432.00,0.84
9431.00,0.84
9430.00,0.83
9429.00,0.83
9428.00,0.83
9427.00,0.83
9426.00,0.83
9425.00,0.83
9424.00,0.83
9423.00,0.83
9422.00,0.83
9421.00,0.84
9420.00,0.84
9419.00,0.85
9418.00,0.85
9417.00,0.86
9416.00,0.87
9415.00,0.87
9414.00,0.88
9413.00,0.89
9412.00,0.90
9411.00,0.91
9410.00,0.92
9409.00,0.92
9408.00,0.93
9407.00,0.94
9406.00,0.95
9405.00,0.96
9404.00,0.97
9403.00,0.98
9402.00,0.99
9401.00,1.00
9400.00,1.01
9399.00,1.02
9398.00,1.03
9397.00,1.03
9396.00,1.04
9395.00,1.04
9394.00,1.05
9393.00,1.05
9392.00,1.05
9391.00,1.06
9390.00,1.06
9389.00,1.06
9388.00,1.06
9387.00,1.07
9386.00,1.07
9385.00,1.07
9384.00,1.07
9383.00,1.07
9382.00,1.07
9381.00,1.07
9380.00,1.07
9379.00,1.07
9378.00,1.07
9377.00,1.07
9376.00,1.07
9375.00,1.07
9374.00,1.07
9373.00,1.07
9372.00,1.07
9371.00,1.07
9370.00,1.07
9369.00,1.06
9368.00,1.06
9367.00,1.06
9366.00,1.05
9365.00,1.05
9364.00,1.05
9363.00,1.05
9362.00,1.04
9361.00,1.04
9360.00,1.03
9359.00,1.03
9358.00,1.03
9357.00,1.02
9356.00,1.02
9355.00,1.01
9354.00,1.01
9353.00,1.00
9352.00,1.00
9351.00,0.99
9350.00,0.99
9349.00,0.98
9348.00,0.98
9347.00,0.98
9346.00,0.97
9345.00,0.97
9344.00,0.97
9343.00,0.96
9342.00,0.96
9341.00,0.96
9340.00,0.96
9339.00,0.96
9338.00,0.95
9337.00,0.95
9336.00,0.95
9335.00,0.95
9334.00,0.95
9333.00,0.95
9332.00,0.95
9331.00,0.95
9330.00,0.94
9329.00,0.94
9328.00,0.94
9327.00,0.94
9326.00,0.94
9325.00,0.94
9324.00,0.93
9323.00,0.93
9322.00,0.93
9321.00,0.93
9320.00,0.92
9319.00,0.92
9318.00,0.92
9317.00,0.91
9316.00,0.91
9315.00,0.90
9314.00,0.90
9313.00,0.89
9312.00,0.89
9311.00,0.88
9310.00,0.87
9309.00,0.87
9308.00,0.86
9307.00,0.85
9306.00,0.85
9305.00,0.84
9304.00,0.84
9303.00,0.84
9302.00,0.83
9301.00,0.83
9300.00,0.82
9299.00,0.82
9298.00,0.82
9297.00,0.82
9296.00,0.82
9295.00,0.81
9294.00,0.81
9293.00,0.81
9292.00,0.82
9291.00,0.82
9290.00,0.82
9289.00,0.82
9288.00,0.83
9287.00,0.83
9286.00,0.84
9285.00,0.84
9284.00,0.85
9283.00,0.85
9282.00,0.85
9281.00,0.86
9280.00,0.86
9279.00,0.87
9278.00,0.87
9277.00,0.87
9276.00,0.87
9275.00,0.87
9274.00,0.88
9273.00,0.88
9272.00,0.88
9271.00,0.88
9270.00,0.89
9269.00,0.89
9268.00,0.89
9267.00,0.89
9266.00,0.89
9265.00,0.90
9264.00,0.90
9263.00,0.90
9262.00,0.90
9261.00,0.90
9260.00,0.90
9259.00,0.90
9258.00,0.90
9257.00,0.91
9256.00,0.91
9255.00,0.91
9254.00,0.92
9253.00,0.92
9252.00,0.93
9251.00,0.94
9250.00,0.94
9249.00,0.95
9248.00,0.96
9247.00,0.97
9246.00,0.97
9245.00,0.98
9244.00,0.99
9243.00,1.00
9242.00,1.00
9241.00,1.01
9240.00,1.01
9239.00,1.02
9238.00,1.03
9237.00,1.03
9236.00,1.04
9235.00,1.05
9234.00,1.05
9233.00,1.06
9232.00,1.07
9231.00,1.07
9230.00,1.08
9229.00,1.08
9228.00,1.08
9227.00,1.09
9226.00,1.09
9225.00,1.09
9224.00,1.09
9223.00,1.09
9222.00,1.09
9221.00,1.09
9220.00,1.09
9219.00,1.09
9218.00,1.09
9217.00,1.09
9216.00,1.09
9215.00,1.09
9214.00,1.09
9213.00,1.08
9212.00,1.08
9211.00,1.08
9210.00,1.08
9209.00,1.07
9208.00,1.07
9207.00,1.07
9206.00,1.07
9205.00,1.06
9204.00,1.06
9203.00,1.06
9202.00,1.06
9201.00,1.06
9200.00,1.06
9199.00,1.06
9198.00,1.06
9197.00,1.05
9196.00,1.05
9195.00,1.05
9194.00,1.05
9193.00,1.04
9192.00,1.04
9191.00,1.04
9190.00,1.04
9189.00,1.03
9188.00,1.03
9187.00,1.03
9186.00,1.03
9185.00,1.03
9184.00,1.03
9183.00,1.04
9182.00,1.04
9181.00,1.04
9180.00,1.04
9179.00,1.04
9178.00,1.04
9177.00,1.05
9176.00,1.05
9175.00,1.05
9174.00,1.05
9173.00,1.05
9172.00,1.06
9171.00,1.06
9170.00,1.06
9169.00,1.07
9168.00,1.07
9167.00,1.08
9166.00,1.08
9165.00,1.08
9164.00,1.09
9163.00,1.09
9162.00,1.09
9161.00,1.09
9160.00,1.09
9159.00,1.09
9158.00,1.09
9157.00,1.09
9156.00,1.09
9155.00,1.09
9154.00,1.08
9153.00,1.08
9152.00,1.07
9151.00,1.07
9150.00,1.07
9149.00,1.06
9148.00,1.06
9147.00,1.05
9146.00,1.05
9145.00,1.04
9144.00,1.04
9143.00,1.03
9142.00,1.03
9141.00,1.02
9140.00,1.02
9139.00,1.02
9138.00,1.02
9137.00,1.01
9136.00,1.01
9135.00,1.01
9134.00,1.01
9133.00,1.01
9132.00,1.01
9131.00,1.01
9130.00,1.02
9129.00,1.02
9128.00,1.02
9127.00,1.03
9126.00,1.03
9125.00,1.04
9124.00,1.04
9123.00,1.04
9122.00,1.05
9121.00,1.05
9120.00,1.05
9119.00,1.06
9118.00,1.06
9117.00,1.06
9116.00,1.06
9115.00,1.06
9114.00,1.06
9113.00,1.06
9112.00,1.06
9111.00,1.06
9110.00,1.06
9109.00,1.05
9108.00,1.05
9107.00,1.05
9106.00,1.04
9105.00,1.04
9104.00,1.03
9103.00,1.03
9102.00,1.02
9101.00,1.01
9100.00,1.00
9099.00,1.00
9098.00,0.99
9097.00,0.98
9096.00,0.97
9095.00,0.97
9094.00,0.96
9093.00,0.95
9092.00,0.95
9091.00,0.94
9090.00,0.94
9089.00,0.94
9088.00,0.93
9087.00,0.93
9086.00,0.93
9085.00,0.93
9084.00,0.92
9083.00,0.92
9082.00,0.92
9081.00,0.92
9080.00,0.92
9079.00,0.92
9078.00,0.92
9077.00,0.92
9076.00,0.92
9075.00,0.93
9074.00,0.93
9073.00,0.93
9072.00,0.93
9071.00,0.93
9070.00,0.94
9069.00,0.94
9068.00,0.94
9067.00,0.94
9066.00,0.94
9065.00,0.94
9064.00,0.94
9063.00,0.94
9062.00,0.95
9061.00,0.95
9060.00,0.95
9059.00,0.95
9058.00,0.95
9057.00,0.95
9056.00,0.95
9055.00,0.95
9054.00,0.95
9053.00,0.95
9052.00,0.95
9051.00,0.95
9050.00,0.95
9049.00,0.95
9048.00,0.95
9047.00,0.95
9046.00,0.95
9045.00,0.95
9044.00,0.96
9043.00,0.96
9042.00,0.96
9041.00,0.96
9040.00,0.97
9039.00,0.97
9038.00,0.97
9037.00,0.97
9036.00,0.98
9035.00,0.98
9034.00,0.98
9033.00,0.98
9032.00,0.98
9031.00,0.98
9030.00,0.98
9029.00,0.98
9028.00,0.99
9027.00,0.99
9026.00,0.99
9025.00,0.99
9024.00,0.99
9023.00,0.99
9022.00,0.99
9021.00,0.99
9020.00,0.99
9019.00,0.98
9018.00,0.98
9017.00,0.98
9016.00,0.98
9015.00,0.97
9014.00,0.97
9013.00,0.97
9012.00,0.96
9011.00,0.96
9010.00,0.96
9009.00,0.96
9008.00,0.96
9007.00,0.95
9006.00,0.95
9005.00,0.95
9004.00,0.95
9003.00,0.95
9002.00,0.95
9001.00,0.94
9000.00,0.94
8999.00,0.94
8998.00,0.94
8997.00,0.94
8996.00,0.94
8995.00,0.94
8994.00,0.94
8993.00,0.94
8992.00,0.94
8991.00,0.94
8990.00,0.95
8989.00,0.95
8988.00,0.95
8987.00,0.96
8986.00,0.96
8985.00,0.96
8984.00,0.97
8983.00,0.97
8982.00,0.98
8981.00,0.98
8980.00,0.99
8979.00,0.99
8978.00,0.99
8977.00,1.00
8976.00,1.00
8975.00,1.01
8974.00,1.01
8973.00,1.02
8972.00,1.02
8971.00,1.03
8970.00,1.03
8969.00,1.04
8968.00,1.04
8967.00,1.05
8966.00,1.06
8965.00,1.06
8964.00,1.07
8963.00,1.07
8962.00,1.07
8961.00,1.08
8960.00,1.08
8959.00,1.08
8958.00,1.08
8957.00,1.09
8956.00,1.09
8955.00,1.09
8954.00,1.09
8953.00,1.09
8952.00,1.10
8951.00,1.10
8950.00,1.10
8949.00,1.10
8948.00,1.10
8947.00,1.10
8946.00,1.10
8945.00,1.10
8944.00,1.09
8943.00,1.09
8942.00,1.09
8941.00,1.08
8940.00,1.08
8939.00,1.07
8938.00,1.06
8937.00,1.06
8936.00,1.05
8935.00,1.05
8934.00,1.04
8933.00,1.04
8932.00,1.03
8931.00,1.03
8930.00,1.02
8929.00,1.02
8928.00,1.02
8927.00,1.01
8926.00,1.01
8925.00,1.01
8924.00,1.00
8923.00,1.00
8922.00,1.00
8921.00,0.99
8920.00,0.99
8919.00,0.99
8918.00,0.99
8917.00,0.99
8916.00,0.99
8915.00,0.98
8914.00,0.98
8913.00,0.98
8912.00,0.98
8911.00,0.98
8910.00,0.98
8909.00,0.98
8908.00,0.97
8907.00,0.97
8906.00,0.97
8905.00,0.96
8904.00,0.96
8903.00,0.95
8902.00,0.94
8901.00,0.94
8900.00,0.93
8899.00,0.93
8898.00,0.92
8897.00,0.91
8896.00,0.91
8895.00,0.90
8894.00,0.90
8893.00,0.90
8892.00,0.89
8891.00,0.89
8890.00,0.88
8889.00,0.88
8888.00,0.88
8887.00,0.88
8886.00,0.87
8885.00,0.87
8884.00,0.87
8883.00,0.87
8882.00,0.87
8881.00,0.87
8880.00,0.88
8879.00,0.88
8878.00,0.88
8877.00,0.89
8876.00,0.89
8875.00,0.90
8874.00,0.90
8873.00,0.91
8872.00,0.91
8871.00,0.92
8870.00,0.92
8869.00,0.93
8868.00,0.93
8867.00,0.94
8866.00,0.94
8865.00,0.94
8864.00,0.95
8863.00,0.95
8862.00,0.95
8861.00,0.95
8860.00,0.96
8859.00,0.96
8858.00,0.96
8857.00,0.96
8856.00,0.96
8855.00,0.96
8854.00,0.96
8853.00,0.96
8852.00,0.96
8851.00,0.96
8850.00,0.96
8849.00,0.95
8848.00,0.95
8847.00,0.94
8846.00,0.94
8845.00,0.93
8844.00,0.93
8843.00,0.93
8842.00,0.92
8841.00,0.92
8840.00,0.91
8839.00,0.91
8838.00,0.91
8837.00,0.90
8836.00,0.90
8835.00,0.90
8834.00,0.90
8833.00,0.90
8832.00,0.89
8831.00,0.89
8830.00,0.89
8829.00,0.89
8828.00,0.89
8827.00,0.89
8826.00,0.89
8825.00,0.89
8824.00,0.90
8823.00,0.90
8822.00,0.90
8821.00,0.91
8820.00,0.91
8819.00,0.91
8818.00,0.91
8817.00,0.92
8816.00,0.92
8815.00,0.92
8814.00,0.92
8813.00,0.92
8812.00,0.92
8811.00,0.92
8810.00,0.92
8809.00,0.92
8808.00,0.92
8807.00,0.93
8806.00,0.93
8805.00,0.93
8804.00,0.93
8803.00,0.93
8802.00,0.93
8801.00,0.93
8800.00,0.93
8799.00,0.93
8798.00,0.93
8797.00,0.93
8796.00,0.93
8795.00,0.93
8794.00,0.93
8793.00,0.93
8792.00,0.93
8791.00,0.93
8790.00,0.93
8789.00,0.93
8788.00,0.93
8787.00,0.94
8786.00,0.94
8785.00,0.94
8784.00,0.94
8783.00,0.94
8782.00,0.94
8781.00,0.95
8780.00,0.95
8779.00,0.95
8778.00,0.94
8777.00,0.94
8776.00,0.94
8775.00,0.94
8774.00,0.94
8773.00,0.94
8772.00,0.94
8771.00,0.94
8770.00,0.93
8769.00,0.93
8768.00,0.93
8767.00,0.93
8766.00,0.93
8765.00,0.93
8764.00,0.92
8763.00,0.92
8762.00,0.92
8761.00,0.92
8760.00,0.92
8759.00,0.91
8758.00,0.91
8757.00,0.91
8756.00,0.91
8755.00,0.91
8754.00,0.91
8753.00,0.91
8752.00,0.91
8751.00,0.91
8750.00,0.91
8749.00,0.91
8748.00,0.91
8747.00,0.92
8746.00,0.92
8745.00,0.92
8744.00,0.92
8743.00,0.93
8742.00,0.93
8741.00,0.93
8740.00,0.93
8739.00,0.93
8738.00,0.93
8737.00,0.94
8736.00,0.94
8735.00,0.94
8734.00,0.94
8733.00,0.95
8732.00,0.95
8731.00,0.95
8730.00,0.95
8729.00,0.96
8728.00,0.96
8727.00,0.96
8726.00,0.97
8725.00,0.97
8724.00,0.97
8723.00,0.97
8722.00,0.97
8721.00,0.98
8720.00,0.98
8719.00,0.98
8718.00,0.98
8717.00,0.98
8716.00,0.99
8715.00,0.99
8714.00,0.99
8713.00,0.99
8712.00,1.00
8711.00,1.00
8710.00,1.00
8709.00,1.01
8708.00,1.01
8707.00,1.01
8706.00,1.01
8705.00,1.01
8704.00,1.01
8703.00,1.02
8702.00,1.02
8701.00,1.02
8700.00,1.02
8699.00,1.02
8698.00,1.02
8697.00,1.02
8696.00,1.02
8695.00,1.03
8694.00,1.03
8693.00,1.03
8692.00,1.03
8691.00,1.03
8690.00,1.03
8689.00,1.03
8688.00,1.03
8687.00,1.03
8686.00,1.03
8685.00,1.02
8684.00,1.02
8683.00,1.02
8682.00,1.02
8681.00,1.01
8680.00,1.01
8679.00,1.01
8678.00,1.01
8677.00,1.00
8676.00,1.00
8675.00,1.00
8674.00,0.99
8673.00,0.99
8672.00,0.99
8671.00,0.99
8670.00,0.98
8669.00,0.98
8668.00,0.98
8667.00,0.98
8666.00,0.98
8665.00,0.97
8664.00,0.97
8663.00,0.97
8662.00,0.97
8661.00,0.97
8660.00,0.97
8659.00,0.97
8658.00,0.97
8657.00,0.98
8656.00,0.98
8655.00,0.98
8654.00,0.98
8653.00,0.98
8652.00,0.99
8651.00,0.99
8650.00,0.99
8649.00,0.99
8648.00,0.99
8647.00,0.99
8646.00,0.99
8645.00,0.99
8644.00,0.99
8643.00,0.99
8642.00,0.99
8641.00,0.99
8640.00,0.99
8639.00,0.98
8638.00,0.98
8637.00,0.98
8636.00,0.98
8635.00,0.97
8634.00,0.97
8633.00,0.96
8632.00,0.96
8631.00,0.96
8630.00,0.95
8629.00,0.95
8628.00,0.94
8627.00,0.94
8626.00,0.94
8625.00,0.93
8624.00,0.93
8623.00,0.93
8622.00,0.93
8621.00,0.93
8620.00,0.93
8619.00,0.93
8618.00,0.93
8617.00,0.93
8616.00,0.93
8615.00,0.93
8614.00,0.93
8613.00,0.93
8612.00,0.93
8611.00,0.93
8610.00,0.93
8609.00,0.94
8608.00,0.94
8607.00,0.94
8606.00,0.94
8605.00,0.94
8604.00,0.95
8603.00,0.95
8602.00,0.95
8601.00,0.95
8600.00,0.96
8599.00,0.96
8598.00,0.96
8597.00,0.96
8596.00,0.96
8595.00,0.96
8594.00,0.96
8593.00,0.96
8592.00,0.96
8591.00,0.96
8590.00,0.96
8589.00,0.96
8588.00,0.96
8587.00,0.96
8586.00,0.96
8585.00,0.96
8584.00,0.96
8583.00,0.96
8582.00,0.96
8581.00,0.96
8580.00,0.96
8579.00,0.96
8578.00,0.96
8577.00,0.96
8576.00,0.96
8575.00,0.96
8574.00,0.96
8573.00,0.96
8572.00,0.95
8571.00,0.95
8570.00,0.95
8569.00,0.95
8568.00,0.95
8567.00,0.95
8566.00,0.95
8565.00,0.96
8564.00,0.96
8563.00,0.96
8562.00,0.96
8561.00,0.96
8560.00,0.96
8559.00,0.96
8558.00,0.97
8557.00,0.97
8556.00,0.97
8555.00,0.97
8554.00,0.97
8553.00,0.98
8552.00,0.98
8551.00,0.98
8550.00,0.98
8549.00,0.98
8548.00,0.98
8547.00,0.99
8546.00,0.99
8545.00,0.99
8544.00,0.98
8543.00,0.98
8542.00,0.98
8541.00,0.98
8540.00,0.98
8539.00,0.97
8538.00,0.97
8537.00,0.96
8536.00,0.96
8535.00,0.96
8534.00,0.95
8533.00,0.95
8532.00,0.94
8531.00,0.94
8530.00,0.93
8529.00,0.93
8528.00,0.93
8527.00,0.92
8526.00,0.92
8525.00,0.92
8524.00,0.91
8523.00,0.91
8522.00,0.91
8521.00,0.91
8520.00,0.91
8519.00,0.91
8518.00,0.91
8517.00,0.91
8516.00,0.92
8515.00,0.92
8514.00,0.92
8513.00,0.93
8512.00,0.93
8511.00,0.94
8510.00,0.94
8509.00,0.94
8508.00,0.95
8507.00,0.95
8506.00,0.96
8505.00,0.96
8504.00,0.97
8503.00,0.97
8502.00,0.98
8501.00,0.98
8500.00,0.98
8499.00,0.99
8498.00,0.99
8497.00,0.99
8496.00,0.99
8495.00,0.99
8494.00,0.99
8493.00,0.99
8492.00,0.99
8491.00,0.98
8490.00,0.98
8489.00,0.98
8488.00,0.97
8487.00,0.97
8486.00,0.97
8485.00,0.96
8484.00,0.96
8483.00,0.95
8482.00,0.95
8481.00,0.95
8480.00,0.94
8479.00,0.94
8478.00,0.93
8477.00,0.93
8476.00,0.93
8475.00,0.92
8474.00,0.92
8473.00,0.92
8472.00,0.92
8471.00,0.91
8470.00,0.91
8469.00,0.91
8468.00,0.91
8467.00,0.91
8466.00,0.91
8465.00,0.91
8464.00,0.91
8463.00,0.91
8462.00,0.91
8461.00,0.92
8460.00,0.92
8459.00,0.92
8458.00,0.92
8457.00,0.92
8456.00,0.92
8455.00,0.92
8454.00,0.93
8453.00,0.93
8452.00,0.93
8451.00,0.93
8450.00,0.93
8449.00,0.93
8448.00,0.94
8447.00,0.94
8446.00,0.94
8445.00,0.94
8444.00,0.94
8443.00,0.94
8442.00,0.95
8441.00,0.95
8440.00,0.95
8439.00,0.95
8438.00,0.95
8437.00,0.95
8436.00,0.95
8435.00,0.95
8434.00,0.95
8433.00,0.95
8432.00,0.95
8431.00,0.95
8430.00,0.95
8429.00,0.95
8428.00,0.95
8427.00,0.95
8426.00,0.95
8425.00,0.95
8424.00,0.95
8423.00,0.95
8422.00,0.95
8421.00,0.95
8420.00,0.95
8419.00,0.95
8418.00,0.95
8417.00,0.94
8416.00,0.94
8415.00,0.94
8414.00,0.94
8413.00,0.94
8412.00,0.94
8411.00,0.94
8410.00,0.94
8409.00,0.95
8408.00,0.95
8407.00,0.95
8406.00,0.95
8405.00,0.95
8404.00,0.95
8403.00,0.95
8402.00,0.95
8401.00,0.95
8400.00,0.95
8399.00,0.95
8398.00,0.95
8397.00,0.95
8396.00,0.95
8395.00,0.95
8394.00,0.95
8393.00,0.95
8392.00,0.95
8391.00,0.95
8390.00,0.95
8389.00,0.95
8388.00,0.95
8387.00,0.95
8386.00,0.95
8385.00,0.94
8384.00,0.94
8383.00,0.94
8382.00,0.94
8381.00,0.94
8380.00,0.94
8379.00,0.94
8378.00,0.94
8377.00,0.93
8376.00,0.93
8375.00,0.93
8374.00,0.93
8373.00,0.93
8372.00,0.93
8371.00,0.93
8370.00,0.93
8369.00,0.94
8368.00,0.94
8367.00,0.94
8366.00,0.94
8365.00,0.94
8364.00,0.94
8363.00,0.94
8362.00,0.94
8361.00,0.95
8360.00,0.95
8359.00,0.95
8358.00,0.95
8357.00,0.96
8356.00,0.96
8355.00,0.96
8354.00,0.97
8353.00,0.97
8352.00,0.98
8351.00,0.98
8350.00,0.98
8349.00,0.98
8348.00,0.99
8347.00,0.99
8346.00,0.99
8345.00,1.00
8344.00,1.00
8343.00,1.00
8342.00,1.01
8341.00,1.01
8340.00,1.01
8339.00,1.01
8338.00,1.02
8337.00,1.02
8336.00,1.02
8335.00,1.02
8334.00,1.02
8333.00,1.02
8332.00,1.02
8331.00,1.02
8330.00,1.02
8329.00,1.02
8328.00,1.02
8327.00,1.02
8326.00,1.02
8325.00,1.02
8324.00,1.01
8323.00,1.01
8322.00,1.01
8321.00,1.01
8320.00,1.01
8319.00,1.01
8318.00,1.00
8317.00,1.00
8316.00,1.00
8315.00,1.00
8314.00,1.00
8313.00,1.00
8312.00,0.99
8311.00,0.99
8310.00,0.99
8309.00,0.99
8308.00,0.99
8307.00,0.99
8306.00,0.99
8305.00,0.99
8304.00,0.99
8303.00,0.99
8302.00,0.99
8301.00,0.99
8300.00,0.99
8299.00,0.99
8298.00,0.99
8297.00,0.98
8296.00,0.98
8295.00,0.98
8294.00,0.98
8293.00,0.98
8292.00,0.98
8291.00,0.98
8290.00,0.98
8289.00,0.98
8288.00,0.98
8287.00,0.98
8286.00,0.97
8285.00,0.97
8284.00,0.97
8283.00,0.97
8282.00,0.97
8281.00,0.97
8280.00,0.96
8279.00,0.96
8278.00,0.96
8277.00,0.96
8276.00,0.96
8275.00,0.96
8274.00,0.96
8273.00,0.96
8272.00,0.96
8271.00,0.96
8270.00,0.96
8269.00,0.96
8268.00,0.96
8267.00,0.96
8266.00,0.96
8265.00,0.96
8264.00,0.96
8263.00,0.96
8262.00,0.96
8261.00,0.96
8260.00,0.96
8259.00,0.96
8258.00,0.96
8257.00,0.96
8256.00,0.97
8255.00,0.97
8254.00,0.97
8253.00,0.97
8252.00,0.97
8251.00,0.97
8250.00,0.97
8249.00,0.98
8248.00,0.98
8247.00,0.98
8246.00,0.98
8245.00,0.98
8244.00,0.98
8243.00,0.99
8242.00,0.99
8241.00,0.99
8240.00,0.99
8239.00,0.99
8238.00,1.00
8237.00,1.00
8236.00,1.00
8235.00,1.00
8234.00,1.00
8233.00,1.00
8232.00,1.00
8231.00,1.00
8230.00,1.00
8229.00,1.00
8228.00,1.00
8227.00,0.99
8226.00,0.99
8225.00,0.99
8224.00,0.99
8223.00,0.99
8222.00,0.98
8221.00,0.98
8220.00,0.98
8219.00,0.98
8218.00,0.98
8217.00,0.98
8216.00,0.98
8215.00,0.98
8214.00,0.98
8213.00,0.98
8212.00,0.97
8211.00,0.97
8210.00,0.97
8209.00,0.97
8208.00,0.97
8207.00,0.97
8206.00,0.97
8205.00,0.98
8204.00,0.98
8203.00,0.98
8202.00,0.98
8201.00,0.98
8200.00,0.99
8199.00,0.99
8198.00,0.99
8197.00,0.99
8196.00,0.99
8195.00,1.00
8194.00,1.00
8193.00,1.00
8192.00,1.00
8191.00,1.00
8190.00,1.00
8189.00,1.01
8188.00,1.01
8187.00,1.01
8186.00,1.01
8185.00,1.01
8184.00,1.01
8183.00,1.01
8182.00,1.02
8181.00,1.02
8180.00,1.02
8179.00,1.02
8178.00,1.02
8177.00,1.02
8176.00,1.02
8175.00,1.02
8174.00,1.02
8173.00,1.02
8172.00,1.02
8171.00,1.02
8170.00,1.02
8169.00,1.02
8168.00,1.02
8167.00,1.02
8166.00,1.02
8165.00,1.02
8164.00,1.02
8163.00,1.02
8162.00,1.02
8161.00,1.02
8160.00,1.02
8159.00,1.02
8158.00,1.02
8157.00,1.02
8156.00,1.02
8155.00,1.02
8154.00,1.02
8153.00,1.02
8152.00,1.02
8151.00,1.02
8150.00,1.02
8149.00,1.02
8148.00,1.02
8147.00,1.03
8146.00,1.03
8145.00,1.03
8144.00,1.03
8143.00,1.03
8142.00,1.03
8141.00,1.03
8140.00,1.03
8139.00,1.03
8138.00,1.03
8137.00,1.03
8136.00,1.03
8135.00,1.03
8134.00,1.03
8133.00,1.03
8132.00,1.03
8131.00,1.03
8130.00,1.03
8129.00,1.03
8128.00,1.03
8127.00,1.03
8126.00,1.03
8125.00,1.03
8124.00,1.03
8123.00,1.03
8122.00,1.03
8121.00,1.03
8120.00,1.03
8119.00,1.02
8118.00,1.02
8117.00,1.02
8116.00,1.02
8115.00,1.02
8114.00,1.02
8113.00,1.01
8112.00,1.01
8111.00,1.01
8110.00,1.01
8109.00,1.01
8108.00,1.00
8107.00,1.00
8106.00,1.00
8105.00,0.99
8104.00,0.99
8103.00,0.98
8102.00,0.98
8101.00,0.98
8100.00,0.97
8099.00,0.97
8098.00,0.97
8097.00,0.97
8096.00,0.97
8095.00,0.96
8094.00,0.96
8093.00,0.96
8092.00,0.96
8091.00,0.96
8090.00,0.96
8089.00,0.96
8088.00,0.95
8087.00,0.95
8086.00,0.95
8085.00,0.95
8084.00,0.95
8083.00,0.94
8082.00,0.94
8081.00,0.94
8080.00,0.94
8079.00,0.94
8078.00,0.94
8077.00,0.94
8076.00,0.94
8075.00,0.94
8074.00,0.94
8073.00,0.94
8072.00,0.94
8071.00,0.94
8070.00,0.94
8069.00,0.93
8068.00,0.93
8067.00,0.93
8066.00,0.93
8065.00,0.93
8064.00,0.93
8063.00,0.93
8062.00,0.93
8061.00,0.94
8060.00,0.94
8059.00,0.94
8058.00,0.94
8057.00,0.94
8056.00,0.94
8055.00,0.95
8054.00,0.95
8053.00,0.95
8052.00,0.95
8051.00,0.96
8050.00,0.96
8049.00,0.96
8048.00,0.96
8047.00,0.97
8046.00,0.97
8045.00,0.97
8044.00,0.98
8043.00,0.98
8042.00,0.98
8041.00,0.98
8040.00,0.99
8039.00,0.99
8038.00,0.99
8037.00,0.99
8036.00,1.00
8035.00,1.00
8034.00,1.00
8033.00,1.00
8032.00,1.00
8031.00,1.01
8030.00,1.01
8029.00,1.01
8028.00,1.01
8027.00,1.01
8026.00,1.01
8025.00,1.01
8024.00,1.01
8023.00,1.01
8022.00,1.00
8021.00,1.00
8020.00,1.00
8019.00,1.00
8018.00,1.00
8017.00,0.99
8016.00,0.99
8015.00,0.99
8014.00,0.99
8013.00,0.98
8012.00,0.98
8011.00,0.98
8010.00,0.98
8009.00,0.97
8008.00,0.97
8007.00,0.96
8006.00,0.96
8005.00,0.95
8004.00,0.95
8003.00,0.94
8002.00,0.94
8001.00,0.94
8000.00,0.93
7999.00,0.93
7998.00,0.93
7997.00,0.92
7996.00,0.92
7995.00,0.92
7994.00,0.92
7993.00,0.92
7992.00,0.92
7991.00,0.92
7990.00,0.92
7989.00,0.92
7988.00,0.92
7987.00,0.92
7986.00,0.92
7985.00,0.92
7984.00,0.93
7983.00,0.93
7982.00,0.93
7981.00,0.94
7980.00,0.94
7979.00,0.94
7978.00,0.95
7977.00,0.95
7976.00,0.96
7975.00,0.96
7974.00,0.96
7973.00,0.97
7972.00,0.97
7971.00,0.97
7970.00,0.98
7969.00,0.98
7968.00,0.98
7967.00,0.99
7966.00,0.99
7965.00,0.99
7964.00,0.99
7963.00,0.99
7962.00,0.99
7961.00,0.99
7960.00,0.99
7959.00,0.99
7958.00,0.99
7957.00,0.99
7956.00,0.98
7955.00,0.98
7954.00,0.98
7953.00,0.98
7952.00,0.98
7951.00,0.98
7950.00,0.98
7949.00,0.98
7948.00,0.98
7947.00,0.98
7946.00,0.98
7945.00,0.98
7944.00,0.98
7943.00,0.98
7942.00,0.98
7941.00,0.98
7940.00,0.98
7939.00,0.98
7938.00,0.98
7937.00,0.98
7936.00,0.98
7935.00,0.98
7934.00,0.98
7933.00,0.99
7932.00,0.99
7931.00,0.99
7930.00,0.99
7929.00,0.99
7928.00,0.99
7927.00,0.99
7926.00,0.99
7925.00,1.00
7924.00,1.00
7923.00,1.00
7922.00,1.00
7921.00,1.00
7920.00,1.00
7919.00,1.00
7918.00,1.00
7917.00,1.00
7916.00,1.01
7915.00,1.01
7914.00,1.01
7913.00,1.01
7912.00,1.02
7911.00,1.02
7910.00,1.02
7909.00,1.02
7908.00,1.02
7907.00,1.02
7906.00,1.02
7905.00,1.02
7904.00,1.02
7903.00,1.02
7902.00,1.02
7901.00,1.02
7900.00,1.02
7899.00,1.02
7898.00,1.02
7897.00,1.02
7896.00,1.02
7895.00,1.02
7894.00,1.02
7893.00,1.02
7892.00,1.02
7891.00,1.01
7890.00,1.01
7889.00,1.01
7888.00,1.00
7887.00,1.00
7886.00,1.00
7885.00,0.99
7884.00,0.99
7883.00,0.99
7882.00,0.99
7881.00,0.98
7880.00,0.98
7879.00,0.98
7878.00,0.98
7877.00,0.98
7876.00,0.98
7875.00,0.98
7874.00,0.98
7873.00,0.98
7872.00,0.98
7871.00,0.98
7870.00,0.98
7869.00,0.98
7868.00,0.99
7867.00,0.99
7866.00,0.99
7865.00,0.99
7864.00,1.00
7863.00,1.00
7862.00,1.00
7861.00,1.00
7860.00,1.01
7859.00,1.01
7858.00,1.01
7857.00,1.02
7856.00,1.02
7855.00,1.02
7854.00,1.03
7853.00,1.03
7852.00,1.03
7851.00,1.03
7850.00,1.04
7849.00,1.04
7848.00,1.04
7847.00,1.04
7846.00,1.04
7845.00,1.04
7844.00,1.04
7843.00,1.04
7842.00,1.04
7841.00,1.04
7840.00,1.04
7839.00,1.04
7838.00,1.04
7837.00,1.04
7836.00,1.04
7835.00,1.04
7834.00,1.03
7833.00,1.03
7832.00,1.03
7831.00,1.03
7830.00,1.02
7829.00,1.02
7828.00,1.02
7827.00,1.02
7826.00,1.01
7825.00,1.01
7824.00,1.01
7823.00,1.01
7822.00,1.00
7821.00,1.00
7820.00,1.00
7819.00,1.00
7818.00,0.99
7817.00,0.99
7816.00,0.99
7815.00,0.99
7814.00,0.99
7813.00,0.99
7812.00,0.99
7811.00,0.99
7810.00,0.99
7809.00,0.99
7808.00,0.99
7807.00,0.99
7806.00,0.99
7805.00,0.99
7804.00,0.99
7803.00,0.99
7802.00,1.00
7801.00,1.00
7800.00,1.00
7799.00,1.00
7798.00,1.00
7797.00,1.00
7796.00,1.01
7795.00,1.01
7794.00,1.01
7793.00,1.02
7792.00,1.02
7791.00,1.02
7790.00,1.03
7789.00,1.03
7788.00,1.03
7787.00,1.03
7786.00,1.04
7785.00,1.04
7784.00,1.04
7783.00,1.04
7782.00,1.04
7781.00,1.04
7780.00,1.05
7779.00,1.05
7778.00,1.05
7777.00,1.05
7776.00,1.05
7775.00,1.05
7774.00,1.06
7773.00,1.06
7772.00,1.06
7771.00,1.06
7770.00,1.06
7769.00,1.06
7768.00,1.06
7767.00,1.06
7766.00,1.05
7765.00,1.05
7764.00,1.05
7763.00,1.05
7762.00,1.05
7761.00,1.05
7760.00,1.05
7759.00,1.05
7758.00,1.05
7757.00,1.05
7756.00,1.05
7755.00,1.04
7754.00,1.04
7753.00,1.04
7752.00,1.04
7751.00,1.04
7750.00,1.04
7749.00,1.04
7748.00,1.04
7747.00,1.03
7746.00,1.03
7745.00,1.03
7744.00,1.03
7743.00,1.03
7742.00,1.03
7741.00,1.03
7740.00,1.03
7739.00,1.03
7738.00,1.03
7737.00,1.03
7736.00,1.03
7735.00,1.03
7734.00,1.03
7733.00,1.03
7732.00,1.03
7731.00,1.03
7730.00,1.03
7729.00,1.03
7728.00,1.03
7727.00,1.03
7726.00,1.04
7725.00,1.04
7724.00,1.04
7723.00,1.04
7722.00,1.04
7721.00,1.04
7720.00,1.04
7719.00,1.05
7718.00,1.05
7717.00,1.05
7716.00,1.05
7715.00,1.05
7714.00,1.05
7713.00,1.06
7712.00,1.06
7711.00,1.06
7710.00,1.06
7709.00,1.06
7708.00,1.06
7707.00,1.06
7706.00,1.07
7705.00,1.07
7704.00,1.07
7703.00,1.07
7702.00,1.07
7701.00,1.07
7700.00,1.07
7699.00,1.07
7698.00,1.07
7697.00,1.07
7696.00,1.07
7695.00,1.07
7694.00,1.07
7693.00,1.07
7692.00,1.07
7691.00,1.07
7690.00,1.07
7689.00,1.07
7688.00,1.07
7687.00,1.07
7686.00,1.06
7685.00,1.06
7684.00,1.06
7683.00,1.06
7682.00,1.06
7681.00,1.06
7680.00,1.06
7679.00,1.06
7678.00,1.06
7677.00,1.06
7676.00,1.06
7675.00,1.06
7674.00,1.06
7673.00,1.06
7672.00,1.06
7671.00,1.06
7670.00,1.06
7669.00,1.05
7668.00,1.05
7667.00,1.05
7666.00,1.05
7665.00,1.05
7664.00,1.05
7663.00,1.05
7662.00,1.05
7661.00,1.05
7660.00,1.05
7659.00,1.05
7658.00,1.05
7657.00,1.05
7656.00,1.05
7655.00,1.04
7654.00,1.04
7653.00,1.04
7652.00,1.04
7651.00,1.04
7650.00,1.05
7649.00,1.05
7648.00,1.05
7647.00,1.05
7646.00,1.05
7645.00,1.05
7644.00,1.05
7643.00,1.05
7642.00,1.05
7641.00,1.05
7640.00,1.05
7639.00,1.05
7638.00,1.05
7637.00,1.05
7636.00,1.05
7635.00,1.05
7634.00,1.05
7633.00,1.05
7632.00,1.05
7631.00,1.05
7630.00,1.05
7629.00,1.05
7628.00,1.04
7627.00,1.04
7626.00,1.04
7625.00,1.04
7624.00,1.04
7623.00,1.03
7622.00,1.03
7621.00,1.03
7620.00,1.03
7619.00,1.02
7618.00,1.02
7617.00,1.02
7616.00,1.02
7615.00,1.01
7614.00,1.01
7613.00,1.01
7612.00,1.01
7611.00,1.00
7610.00,1.00
7609.00,1.00
7608.00,1.00
7607.00,1.00
7606.00,1.00
7605.00,1.00
7604.00,1.00
7603.00,1.00
7602.00,1.00
7601.00,1.00
7600.00,1.01
7599.00,1.01
7598.00,1.01
7597.00,1.01
7596.00,1.02
7595.00,1.02
7594.00,1.02
7593.00,1.02
7592.00,1.02
7591.00,1.03
7590.00,1.03
7589.00,1.03
7588.00,1.03
7587.00,1.03
7586.00,1.04
7585.00,1.04
7584.00,1.04
7583.00,1.04
7582.00,1.04
7581.00,1.05
7580.00,1.05
7579.00,1.05
7578.00,1.05
7577.00,1.05
7576.00,1.05
7575.00,1.05
7574.00,1.04
7573.00,1.04
7572.00,1.04
7571.00,1.04
7570.00,1.04
7569.00,1.03
7568.00,1.03
7567.00,1.03
7566.00,1.03
7565.00,1.03
7564.00,1.03
7563.00,1.03
7562.00,1.03
7561.00,1.03
7560.00,1.03
7559.00,1.02
7558.00,1.02
7557.00,1.02
7556.00,1.02
7555.00,1.02
7554.00,1.02
7553.00,1.02
7552.00,1.02
7551.00,1.02
7550.00,1.02
7549.00,1.02
7548.00,1.02
7547.00,1.02
7546.00,1.02
7545.00,1.02
7544.00,1.03
7543.00,1.03
7542.00,1.03
7541.00,1.03
7540.00,1.03
7539.00,1.03
7538.00,1.04
7537.00,1.04
7536.00,1.04
7535.00,1.04
7534.00,1.04
7533.00,1.04
7532.00,1.04
7531.00,1.04
7530.00,1.05
7529.00,1.05
7528.00,1.05
7527.00,1.05
7526.00,1.05
7525.00,1.05
7524.00,1.06
7523.00,1.06
7522.00,1.06
7521.00,1.06
7520.00,1.06
7519.00,1.06
7518.00,1.05
7517.00,1.05
7516.00,1.05
7515.00,1.05
7514.00,1.05
7513.00,1.05
7512.00,1.05
7511.00,1.05
7510.00,1.04
7509.00,1.04
7508.00,1.04
7507.00,1.04
7506.00,1.04
7505.00,1.04
7504.00,1.04
7503.00,1.04
7502.00,1.04
7501.00,1.03
7500.00,1.03
7499.00,1.03
7498.00,1.03
7497.00,1.03
7496.00,1.03
7495.00,1.03
7494.00,1.02
7493.00,1.02
7492.00,1.02
7491.00,1.02
7490.00,1.02
7489.00,1.02
7488.00,1.02
7487.00,1.02
7486.00,1.02
7485.00,1.02
7484.00,1.02
7483.00,1.02
7482.00,1.02
7481.00,1.02
7480.00,1.02
7479.00,1.02
7478.00,1.02
7477.00,1.02
7476.00,1.02
7475.00,1.02
7474.00,1.02
7473.00,1.02
7472.00,1.02
7471.00,1.02
7470.00,1.02
7469.00,1.02
7468.00,1.02
7467.00,1.02
7466.00,1.02
7465.00,1.02
7464.00,1.02
7463.00,1.02
7462.00,1.02
7461.00,1.02
7460.00,1.02
7459.00,1.03
7458.00,1.03
7457.00,1.03
7456.00,1.03
7455.00,1.03
7454.00,1.03
7453.00,1.03
7452.00,1.02
7451.00,1.02
7450.00,1.02
7449.00,1.02
7448.00,1.02
7447.00,1.02
7446.00,1.02
7445.00,1.02
7444.00,1.02
7443.00,1.02
7442.00,1.02
7441.00,1.02
7440.00,1.02
7439.00,1.02
7438.00,1.03
7437.00,1.03
7436.00,1.03
7435.00,1.03
7434.00,1.03
7433.00,1.03
7432.00,1.03
7431.00,1.03
7430.00,1.03
7429.00,1.03
7428.00,1.03
7427.00,1.03
7426.00,1.03
7425.00,1.03
7424.00,1.03
7423.00,1.03
7422.00,1.03
7421.00,1.03
7420.00,1.03
7419.00,1.03
7418.00,1.03
7417.00,1.03
7416.00,1.03
7415.00,1.03
7414.00,1.03
7413.00,1.03
7412.00,1.02
7411.00,1.02
7410.00,1.02
7409.00,1.02
7408.00,1.02
7407.00,1.01
7406.00,1.01
7405.00,1.01
7404.00,1.01
7403.00,1.01
7402.00,1.01
7401.00,1.01
7400.00,1.01
7399.00,1.00
7398.00,1.00
7397.00,1.00
7396.00,1.00
7395.00,1.00
7394.00,1.00
7393.00,1.00
7392.00,1.00
7391.00,1.00
7390.00,1.00
7389.00,1.00
7388.00,1.00
7387.00,1.00
7386.00,1.01
7385.00,1.01
7384.00,1.01
7383.00,1.01
7382.00,1.01
7381.00,1.01
7380.00,1.01
7379.00,1.02
7378.00,1.02
7377.00,1.02
7376.00,1.02
7375.00,1.03
7374.00,1.03
7373.00,1.03
7372.00,1.03
7371.00,1.03
7370.00,1.03
7369.00,1.04
7368.00,1.04
7367.00,1.04
7366.00,1.04
7365.00,1.04
7364.00,1.04
7363.00,1.05
7362.00,1.05
7361.00,1.05
7360.00,1.05
7359.00,1.05
7358.00,1.05
7357.00,1.06
7356.00,1.06
7355.00,1.06
7354.00,1.06
7353.00,1.07
7352.00,1.07
7351.00,1.07
7350.00,1.07
7349.00,1.07
7348.00,1.07
7347.00,1.07
7346.00,1.07
7345.00,1.07
7344.00,1.07
7343.00,1.08
7342.00,1.08
7341.00,1.08
7340.00,1.08
7339.00,1.08
7338.00,1.08
7337.00,1.08
7336.00,1.08
7335.00,1.08
7334.00,1.07
7333.00,1.07
7332.00,1.07
7331.00,1.07
7330.00,1.07
7329.00,1.07
7328.00,1.07
7327.00,1.06
7326.00,1.06
7325.00,1.06
7324.00,1.06
7323.00,1.05
7322.00,1.05
7321.00,1.05
7320.00,1.05
7319.00,1.04
7318.00,1.04
7317.00,1.04
7316.00,1.04
7315.00,1.03
7314.00,1.03
7313.00,1.03
7312.00,1.03
7311.00,1.03
7310.00,1.02
7309.00,1.02
7308.00,1.02
7307.00,1.02
7306.00,1.02
7305.00,1.01
7304.00,1.01
7303.00,1.01
7302.00,1.01
7301.00,1.01
7300.00,1.00
7299.00,1.00
7298.00,1.00
7297.00,1.00
7296.00,1.00
7295.00,1.00
7294.00,1.00
7293.00,1.00
7292.00,1.00
7291.00,1.00
7290.00,1.00
7289.00,1.00
7288.00,1.00
7287.00,1.00
7286.00,1.00
7285.00,1.00
7284.00,1.00
7283.00,1.00
7282.00,1.01
7281.00,1.01
7280.00,1.01
7279.00,1.01
7278.00,1.01
7277.00,1.02
7276.00,1.02
7275.00,1.02
7274.00,1.02
7273.00,1.02
7272.00,1.02
7271.00,1.02
7270.00,1.02
7269.00,1.02
7268.00,1.03
7267.00,1.03
7266.00,1.03
7265.00,1.03
7264.00,1.03
7263.00,1.03
7262.00,1.03
7261.00,1.03
7260.00,1.03
7259.00,1.03
7258.00,1.04
7257.00,1.04
7256.00,1.04
7255.00,1.04
7254.00,1.04
7253.00,1.04
7252.00,1.04
7251.00,1.04
7250.00,1.05
7249.00,1.05
7248.00,1.05
7247.00,1.06
7246.00,1.06
7245.00,1.06
7244.00,1.06
7243.00,1.07
7242.00,1.07
7241.00,1.07
7240.00,1.08
7239.00,1.08
7238.00,1.08
7237.00,1.08
7236.00,1.08
7235.00,1.09
7234.00,1.09
7233.00,1.09
7232.00,1.09
7231.00,1.09
7230.00,1.09
7229.00,1.09
7228.00,1.09
7227.00,1.09
7226.00,1.09
7225.00,1.09
7224.00,1.08
7223.00,1.08
7222.00,1.08
7221.00,1.08
7220.00,1.08
7219.00,1.07
7218.00,1.07
7217.00,1.07
7216.00,1.07
7215.00,1.07
7214.00,1.06
7213.00,1.06
7212.00,1.06
7211.00,1.06
7210.00,1.05
7209.00,1.05
7208.00,1.05
7207.00,1.05
7206.00,1.05
7205.00,1.05
7204.00,1.05
7203.00,1.05
7202.00,1.05
7201.00,1.05
7200.00,1.05
7199.00,1.05
7198.00,1.05
7197.00,1.05
7196.00,1.05
7195.00,1.05
7194.00,1.05
7193.00,1.04
7192.00,1.04
7191.00,1.04
7190.00,1.04
7189.00,1.04
7188.00,1.04
7187.00,1.04
7186.00,1.04
7185.00,1.04
7184.00,1.03
7183.00,1.03
7182.00,1.03
7181.00,1.03
7180.00,1.03
7179.00,1.03
7178.00,1.02
7177.00,1.02
7176.00,1.02
7175.00,1.02
7174.00,1.01
7173.00,1.01
7172.00,1.01
7171.00,1.01
7170.00,1.00
7169.00,1.00
7168.00,1.00
7167.00,1.00
7166.00,1.00
7165.00,0.99
7164.00,0.99
7163.00,0.99
7162.00,0.99
7161.00,0.99
7160.00,0.99
7159.00,0.99
7158.00,0.99
7157.00,0.99
7156.00,0.98
7155.00,0.98
7154.00,0.98
7153.00,0.98
7152.00,0.98
7151.00,0.98
7150.00,0.98
7149.00,0.98
7148.00,0.98
7147.00,0.98
7146.00,0.98
7145.00,0.98
7144.00,0.98
7143.00,0.98
7142.00,0.98
7141.00,0.98
7140.00,0.99
7139.00,0.99
7138.00,0.99
7137.00,0.99
7136.00,0.99
7135.00,0.99
7134.00,0.99
7133.00,0.99
7132.00,0.98
7131.00,0.98
7130.00,0.98
7129.00,0.98
7128.00,0.98
7127.00,0.98
7126.00,0.98
7125.00,0.98
7124.00,0.98
7123.00,0.98
7122.00,0.98
7121.00,0.98
7120.00,0.97
7119.00,0.97
7118.00,0.97
7117.00,0.97
7116.00,0.97
7115.00,0.97
7114.00,0.97
7113.00,0.97
7112.00,0.97
7111.00,0.97
7110.00,0.97
7109.00,0.97
7108.00,0.97
7107.00,0.97
7106.00,0.97
7105.00,0.97
7104.00,0.97
7103.00,0.97
7102.00,0.97
7101.00,0.97
7100.00,0.97
7099.00,0.97
7098.00,0.97
7097.00,0.97
7096.00,0.98
7095.00,0.98
7094.00,0.98
7093.00,0.98
7092.00,0.98
7091.00,0.99
7090.00,0.99
7089.00,0.99
7088.00,0.99
7087.00,0.99
7086.00,0.99
7085.00,0.99
7084.00,0.99
7083.00,0.99
7082.00,0.99
7081.00,0.99
7080.00,0.99
7079.00,0.99
7078.00,0.99
7077.00,0.99
7076.00,0.99
7075.00,0.99
7074.00,1.00
7073.00,1.00
7072.00,1.00
7071.00,1.00
7070.00,1.00
7069.00,1.00
7068.00,1.00
7067.00,1.00
7066.00,1.00
7065.00,1.00
7064.00,1.00
7063.00,1.00
7062.00,1.00
7061.00,1.00
7060.00,1.00
7059.00,1.00
7058.00,1.00
7057.00,0.99
7056.00,0.99
7055.00,0.99
7054.00,0.99
7053.00,0.99
7052.00,0.99
7051.00,0.99
7050.00,0.99
7049.00,0.99
7048.00,0.99
7047.00,0.99
7046.00,0.99
7045.00,0.99
7044.00,0.98
7043.00,0.98
7042.00,0.98
7041.00,0.98
7040.00,0.98
7039.00,0.98
7038.00,0.97
7037.00,0.97
7036.00,0.97
7035.00,0.97
7034.00,0.97
7033.00,0.97
7032.00,0.97
7031.00,0.97
7030.00,0.97
7029.00,0.96
7028.00,0.96
7027.00,0.96
7026.00,0.96
7025.00,0.96
7024.00,0.96
7023.00,0.96
7022.00,0.96
7021.00,0.96
7020.00,0.96
7019.00,0.96
7018.00,0.96
7017.00,0.95
7016.00,0.95
7015.00,0.95
7014.00,0.95
7013.00,0.95
7012.00,0.95
7011.00,0.95
7010.00,0.95
7009.00,0.95
7008.00,0.95
7007.00,0.95
7006.00,0.95
7005.00,0.95
7004.00,0.95
7003.00,0.95
7002.00,0.95
7001.00,0.95
7000.00,0.95
6999.00,0.96
6998.00,0.96
6997.00,0.96
6996.00,0.96
6995.00,0.96
6994.00,0.96
6993.00,0.96
6992.00,0.96
6991.00,0.97
6990.00,0.97
6989.00,0.97
6988.00,0.97
6987.00,0.97
6986.00,0.98
6985.00,0.98
6984.00,0.98
6983.00,0.98
6982.00,0.98
6981.00,0.98
6980.00,0.98
6979.00,0.98
6978.00,0.98
6977.00,0.98
6976.00,0.98
6975.00,0.98
6974.00,0.98
6973.00,0.98
6972.00,0.98
6971.00,0.98
6970.00,0.98
6969.00,0.97
6968.00,0.97
6967.00,0.97
6966.00,0.97
6965.00,0.97
6964.00,0.96
6963.00,0.96
6962.00,0.96
6961.00,0.96
6960.00,0.95
6959.00,0.95
6958.00,0.95
6957.00,0.95
6956.00,0.95
6955.00,0.95
6954.00,0.95
6953.00,0.94
6952.00,0.94
6951.00,0.94
6950.00,0.94
6949.00,0.94
6948.00,0.94
6947.00,0.95
6946.00,0.95
6945.00,0.95
6944.00,0.95
6943.00,0.95
6942.00,0.95
6941.00,0.95
6940.00,0.96
6939.00,0.96
6938.00,0.96
6937.00,0.96
6936.00,0.96
6935.00,0.96
6934.00,0.97
6933.00,0.97
6932.00,0.97
6931.00,0.97
6930.00,0.97
6929.00,0.97
6928.00,0.97
6927.00,0.97
6926.00,0.97
6925.00,0.97
6924.00,0.97
6923.00,0.97
6922.00,0.97
6921.00,0.97
6920.00,0.97
6919.00,0.97
6918.00,0.97
6917.00,0.97
6916.00,0.96
6915.00,0.96
6914.00,0.96
6913.00,0.96
6912.00,0.96
6911.00,0.96
6910.00,0.96
6909.00,0.96
6908.00,0.96
6907.00,0.96
6906.00,0.96
6905.00,0.96
6904.00,0.96
6903.00,0.96
6902.00,0.96
6901.00,0.96
6900.00,0.96
6899.00,0.96
6898.00,0.96
6897.00,0.97
6896.00,0.97
6895.00,0.97
6894.00,0.97
6893.00,0.97
6892.00,0.98
6891.00,0.98
6890.00,0.98
6889.00,0.98
6888.00,0.98
6887.00,0.98
6886.00,0.98
6885.00,0.98
6884.00,0.98
6883.00,0.98
6882.00,0.98
6881.00,0.98
6880.00,0.99
6879.00,0.99
6878.00,0.99
6877.00,0.99
6876.00,0.99
6875.00,0.99
6874.00,0.98
6873.00,0.98
6872.00,0.98
6871.00,0.98
6870.00,0.98
6869.00,0.98
6868.00,0.98
6867.00,0.98
6866.00,0.98
6865.00,0.98
6864.00,0.97
6863.00,0.97
6862.00,0.97
6861.00,0.97
6860.00,0.97
6859.00,0.97
6858.00,0.97
6857.00,0.97
6856.00,0.96
6855.00,0.96
6854.00,0.96
6853.00,0.96
6852.00,0.96
6851.00,0.96
6850.00,0.96
6849.00,0.96
6848.00,0.96
6847.00,0.96
6846.00,0.96
6845.00,0.96
6844.00,0.96
6843.00,0.95
6842.00,0.95
6841.00,0.95
6840.00,0.95
6839.00,0.95
6838.00,0.95
6837.00,0.95
6836.00,0.95
6835.00,0.95
6834.00,0.96
6833.00,0.96
6832.00,0.96
6831.00,0.96
6830.00,0.96
6829.00,0.96
6828.00,0.96
6827.00,0.96
6826.00,0.96
6825.00,0.96
6824.00,0.96
6823.00,0.96
6822.00,0.96
6821.00,0.96
6820.00,0.96
6819.00,0.96
6818.00,0.96
6817.00,0.96
6816.00,0.96
6815.00,0.96
6814.00,0.96
6813.00,0.96
6812.00,0.96
6811.00,0.96
6810.00,0.96
6809.00,0.96
6808.00,0.96
6807.00,0.96
6806.00,0.96
6805.00,0.97
6804.00,0.97
6803.00,0.97
6802.00,0.97
6801.00,0.97
6800.00,0.97
6799.00,0.97
6798.00,0.97
6797.00,0.98
6796.00,0.98
6795.00,0.98
6794.00,0.98
6793.00,0.98
6792.00,0.98
6791.00,0.98
6790.00,0.98
6789.00,0.98
6788.00,0.98
6787.00,0.98
6786.00,0.97
6785.00,0.97
6784.00,0.97
6783.00,0.97
6782.00,0.97
6781.00,0.97
6780.00,0.97
6779.00,0.97
6778.00,0.96
6777.00,0.96
6776.00,0.96
6775.00,0.96
6774.00,0.96
6773.00,0.96
6772.00,0.96
6771.00,0.96
6770.00,0.96
6769.00,0.96
6768.00,0.96
6767.00,0.96
6766.00,0.96
6765.00,0.96
6764.00,0.96
6763.00,0.96
6762.00,0.96
6761.00,0.97
6760.00,0.97
6759.00,0.97
6758.00,0.97
6757.00,0.97
6756.00,0.97
6755.00,0.97
6754.00,0.97
6753.00,0.97
6752.00,0.97
6751.00,0.97
6750.00,0.97
6749.00,0.97
6748.00,0.97
6747.00,0.97
6746.00,0.97
6745.00,0.97
6744.00,0.97
6743.00,0.97
6742.00,0.97
6741.00,0.97
6740.00,0.97
6739.00,0.97
6738.00,0.97
6737.00,0.97
6736.00,0.97
6735.00,0.97
6734.00,0.97
6733.00,0.97
6732.00,0.97
6731.00,0.97
6730.00,0.97
6729.00,0.98
6728.00,0.98
6727.00,0.98
6726.00,0.98
6725.00,0.98
6724.00,0.99
6723.00,0.99
6722.00,0.99
6721.00,0.99
6720.00,1.00
6719.00,1.00
6718.00,1.00
6717.00,1.00
6716.00,1.01
6715.00,1.01
6714.00,1.01
6713.00,1.01
6712.00,1.02
6711.00,1.02
6710.00,1.02
6709.00,1.02
6708.00,1.02
6707.00,1.02
6706.00,1.02
6705.00,1.02
6704.00,1.02
6703.00,1.02
6702.00,1.02
6701.00,1.02
6700.00,1.02
6699.00,1.02
6698.00,1.02
6697.00,1.02
6696.00,1.02
6695.00,1.02
6694.00,1.02
6693.00,1.02
6692.00,1.01
6691.00,1.01
6690.00,1.01
6689.00,1.01
6688.00,1.01
6687.00,1.01
6686.00,1.00
6685.00,1.00
6684.00,1.00
6683.00,1.00
6682.00,1.00
6681.00,1.00
6680.00,1.00
6679.00,1.00
6678.00,1.00
6677.00,1.00
6676.00,1.00
6675.00,1.00
6674.00,1.00
6673.00,1.00
6672.00,1.00
6671.00,1.00
6670.00,1.00
6669.00,1.00
6668.00,1.00
6667.00,1.00
6666.00,1.01
6665.00,1.01
6664.00,1.01
6663.00,1.01
6662.00,1.01
6661.00,1.01
6660.00,1.01
6659.00,1.01
6658.00,1.01
6657.00,1.01
6656.00,1.01
6655.00,1.02
6654.00,1.02
6653.00,1.02
6652.00,1.02
6651.00,1.02
6650.00,1.02
6649.00,1.02
6648.00,1.02
6647.00,1.02
6646.00,1.02
6645.00,1.02
6644.00,1.02
6643.00,1.02
6642.00,1.02
6641.00,1.02
6640.00,1.02
6639.00,1.01
6638.00,1.01
6637.00,1.01
6636.00,1.01
6635.00,1.01
6634.00,1.01
6633.00,1.01
6632.00,1.01
6631.00,1.01
6630.00,1.01
6629.00,1.01
6628.00,1.01
6627.00,1.01
6626.00,1.01
6625.00,1.01
6624.00,1.01
6623.00,1.01
6622.00,1.01
6621.00,1.01
6620.00,1.01
6619.00,1.01
6618.00,1.01
6617.00,1.01
6616.00,1.01
6615.00,1.01
6614.00,1.01
6613.00,1.02
6612.00,1.02
6611.00,1.02
6610.00,1.02
6609.00,1.02
6608.00,1.02
6607.00,1.02
6606.00,1.03
6605.00,1.03
6604.00,1.03
6603.00,1.03
6602.00,1.04
6601.00,1.04
6600.00,1.04
6599.00,1.04
6598.00,1.04
6597.00,1.04
6596.00,1.04
6595.00,1.05
6594.00,1.05
6593.00,1.05
6592.00,1.05
6591.00,1.05
6590.00,1.05
6589.00,1.05
6588.00,1.05
6587.00,1.05
6586.00,1.05
6585.00,1.04
6584.00,1.04
6583.00,1.04
6582.00,1.04
6581.00,1.04
6580.00,1.04
6579.00,1.04
6578.00,1.03
6577.00,1.03
6576.00,1.03
6575.00,1.03
6574.00,1.03
6573.00,1.03
6572.00,1.03
6571.00,1.03
6570.00,1.03
6569.00,1.03
6568.00,1.03
6567.00,1.03
6566.00,1.03
6565.00,1.03
6564.00,1.03
6563.00,1.03
6562.00,1.03
6561.00,1.03
6560.00,1.03
6559.00,1.03
6558.00,1.03
6557.00,1.03
6556.00,1.03
6555.00,1.04
6554.00,1.04
6553.00,1.04
6552.00,1.04
6551.00,1.04
6550.00,1.04
6549.00,1.04
6548.00,1.04
6547.00,1.04
6546.00,1.04
6545.00,1.04
6544.00,1.04
6543.00,1.04
6542.00,1.04
6541.00,1.04
6540.00,1.04
6539.00,1.04
6538.00,1.04
6537.00,1.04
6536.00,1.04
6535.00,1.04
6534.00,1.04
6533.00,1.04
6532.00,1.04
6531.00,1.04
6530.00,1.04
6529.00,1.05
6528.00,1.05
6527.00,1.05
6526.00,1.05
6525.00,1.05
6524.00,1.05
6523.00,1.05
6522.00,1.05
6521.00,1.05
6520.00,1.06
6519.00,1.06
6518.00,1.06
6517.00,1.06
6516.00,1.06
6515.00,1.07
6514.00,1.07
6513.00,1.07
6512.00,1.07
6511.00,1.07
6510.00,1.07
6509.00,1.08
6508.00,1.08
6507.00,1.08
6506.00,1.08
6505.00,1.08
6504.00,1.08
6503.00,1.08
6502.00,1.08
6501.00,1.09
6500.00,1.09
6499.00,1.09
6498.00,1.09
6497.00,1.09
6496.00,1.09
6495.00,1.09
6494.00,1.10
6493.00,1.10
6492.00,1.10
6491.00,1.10
6490.00,1.10
6489.00,1.10
6488.00,1.10
6487.00,1.10
6486.00,1.10
6485.00,1.10
6484.00,1.10
6483.00,1.11
6482.00,1.11
6481.00,1.11
6480.00,1.11
6479.00,1.11
6478.00,1.11
6477.00,1.11
6476.00,1.10
6475.00,1.10
6474.00,1.10
6473.00,1.10
6472.00,1.10
6471.00,1.10
6470.00,1.10
6469.00,1.10
6468.00,1.10
6467.00,1.09
6466.00,1.09
6465.00,1.09
6464.00,1.09
6463.00,1.09
6462.00,1.09
6461.00,1.08
6460.00,1.08
6459.00,1.08
6458.00,1.08
6457.00,1.08
6456.00,1.07
6455.00,1.07
6454.00,1.07
6453.00,1.07
6452.00,1.07
6451.00,1.07
6450.00,1.07
6449.00,1.06
6448.00,1.06
6447.00,1.06
6446.00,1.06
6445.00,1.06
6444.00,1.06
6443.00,1.06
6442.00,1.06
6441.00,1.05
6440.00,1.05
6439.00,1.05
6438.00,1.05
6437.00,1.05
6436.00,1.05
6435.00,1.05
6434.00,1.04
6433.00,1.04
6432.00,1.04
6431.00,1.04
6430.00,1.04
6429.00,1.04
6428.00,1.04
6427.00,1.04
6426.00,1.04
6425.00,1.04
6424.00,1.04
6423.00,1.04
6422.00,1.04
6421.00,1.04
6420.00,1.04
6419.00,1.04
6418.00,1.05
6417.00,1.05
6416.00,1.05
6415.00,1.05
6414.00,1.05
6413.00,1.05
6412.00,1.06
6411.00,1.06
6410.00,1.06
6409.00,1.06
6408.00,1.06
6407.00,1.06
6406.00,1.06
6405.00,1.07
6404.00,1.07
6403.00,1.07
6402.00,1.07
6401.00,1.07
6400.00,1.07
6399.00,1.07
6398.00,1.07
6397.00,1.07
6396.00,1.07
6395.00,1.07
6394.00,1.07
6393.00,1.07
6392.00,1.07
6391.00,1.07
6390.00,1.07
6389.00,1.07
6388.00,1.07
6387.00,1.07
6386.00,1.07
6385.00,1.07
6384.00,1.07
6383.00,1.07
6382.00,1.07
6381.00,1.07
6380.00,1.07
6379.00,1.07
6378.00,1.07
6377.00,1.07
6376.00,1.07
6375.00,1.07
6374.00,1.07
6373.00,1.07
6372.00,1.07
6371.00,1.07
6370.00,1.07
6369.00,1.07
6368.00,1.08
6367.00,1.08
6366.00,1.08
6365.00,1.08
6364.00,1.08
6363.00,1.08
6362.00,1.08
6361.00,1.08
6360.00,1.08
6359.00,1.08
6358.00,1.08
6357.00,1.09
6356.00,1.09
6355.00,1.09
6354.00,1.09
6353.00,1.09
6352.00,1.08
6351.00,1.08
6350.00,1.08
6349.00,1.08
6348.00,1.09
6347.00,1.09
6346.00,1.09
6345.00,1.09
6344.00,1.08
6343.00,1.08
6342.00,1.08
6341.00,1.08
6340.00,1.08
6339.00,1.08
6338.00,1.08
6337.00,1.08
6336.00,1.08
6335.00,1.08
6334.00,1.08
6333.00,1.08
6332.00,1.08
6331.00,1.08
6330.00,1.09
6329.00,1.09
6328.00,1.09
6327.00,1.09
6326.00,1.09
6325.00,1.09
6324.00,1.09
6323.00,1.10
6322.00,1.10
6321.00,1.10
6320.00,1.10
6319.00,1.10
6318.00,1.10
6317.00,1.10
6316.00,1.10
6315.00,1.10
6314.00,1.10
6313.00,1.10
6312.00,1.10
6311.00,1.10
6310.00,1.10
6309.00,1.10
6308.00,1.10
6307.00,1.10
6306.00,1.10
6305.00,1.10
6304.00,1.10
6303.00,1.10
6302.00,1.09
6301.00,1.09
6300.00,1.09
6299.00,1.09
6298.00,1.09
6297.00,1.09
6296.00,1.09
6295.00,1.09
6294.00,1.09
6293.00,1.09
6292.00,1.09
6291.00,1.09
6290.00,1.09
6289.00,1.09
6288.00,1.09
6287.00,1.09
6286.00,1.09
6285.00,1.09
6284.00,1.09
6283.00,1.09
6282.00,1.09
6281.00,1.09
6280.00,1.09
6279.00,1.09
6278.00,1.09
6277.00,1.09
6276.00,1.09
6275.00,1.10
6274.00,1.10
6273.00,1.10
6272.00,1.10
6271.00,1.10
6270.00,1.10
6269.00,1.10
6268.00,1.10
6267.00,1.10
6266.00,1.10
6265.00,1.10
6264.00,1.10
6263.00,1.10
6262.00,1.10
6261.00,1.10
6260.00,1.10
6259.00,1.10
6258.00,1.10
6257.00,1.10
6256.00,1.10
6255.00,1.10
6254.00,1.10
6253.00,1.10
6252.00,1.10
6251.00,1.09
6250.00,1.09
6249.00,1.09
6248.00,1.09
6247.00,1.09
6246.00,1.09
6245.00,1.09
6244.00,1.08
6243.00,1.08
6242.00,1.08
6241.00,1.08
6240.00,1.08
6239.00,1.08
6238.00,1.08
6237.00,1.08
6236.00,1.08
6235.00,1.08
6234.00,1.09
6233.00,1.09
6232.00,1.09
6231.00,1.09
6230.00,1.09
6229.00,1.09
6228.00,1.09
6227.00,1.09
6226.00,1.10
6225.00,1.10
6224.00,1.10
6223.00,1.10
6222.00,1.10
6221.00,1.10
6220.00,1.10
6219.00,1.10
6218.00,1.10
6217.00,1.10
6216.00,1.10
6215.00,1.10
6214.00,1.10
6213.00,1.10
6212.00,1.10
6211.00,1.10
6210.00,1.10
6209.00,1.10
6208.00,1.10
6207.00,1.10
6206.00,1.10
6205.00,1.10
6204.00,1.09
6203.00,1.09
6202.00,1.09
6201.00,1.09
6200.00,1.09
6199.00,1.09
6198.00,1.09
6197.00,1.09
6196.00,1.09
6195.00,1.09
6194.00,1.09
6193.00,1.09
6192.00,1.09
6191.00,1.10
6190.00,1.10
6189.00,1.10
6188.00,1.10
6187.00,1.10
6186.00,1.10
6185.00,1.10
6184.00,1.11
6183.00,1.11
6182.00,1.11
6181.00,1.11
6180.00,1.11
6179.00,1.11
6178.00,1.12
6177.00,1.12
6176.00,1.12
6175.00,1.12
6174.00,1.12
6173.00,1.13
6172.00,1.13
6171.00,1.13
6170.00,1.13
6169.00,1.13
6168.00,1.14
6167.00,1.14
6166.00,1.14
6165.00,1.14
6164.00,1.14
6163.00,1.14
6162.00,1.14
6161.00,1.15
6160.00,1.15
6159.00,1.15
6158.00,1.15
6157.00,1.15
6156.00,1.15
6155.00,1.15
6154.00,1.15
6153.00,1.15
6152.00,1.15
6151.00,1.15
6150.00,1.15
6149.00,1.15
6148.00,1.15
6147.00,1.15
6146.00,1.15
6145.00,1.15
6144.00,1.15
6143.00,1.15
6142.00,1.15
6141.00,1.15
6140.00,1.15
6139.00,1.15
6138.00,1.15
6137.00,1.15
6136.00,1.15
6135.00,1.15
6134.00,1.15
6133.00,1.15
6132.00,1.15
6131.00,1.15
6130.00,1.15
6129.00,1.15
6128.00,1.15
6127.00,1.15
6126.00,1.15
6125.00,1.15
6124.00,1.15
6123.00,1.15
6122.00,1.15
6121.00,1.15
6120.00,1.15
6119.00,1.15
6118.00,1.15
6117.00,1.15
6116.00,1.15
6115.00,1.15
6114.00,1.15
6113.00,1.15
6112.00,1.15
6111.00,1.15
6110.00,1.15
6109.00,1.15
6108.00,1.15
6107.00,1.15
6106.00,1.15
6105.00,1.15
6104.00,1.15
6103.00,1.15
6102.00,1.15
6101.00,1.15
6100.00,1.15
6099.00,1.15
6098.00,1.15
6097.00,1.15
6096.00,1.15
6095.00,1.15
6094.00,1.15
6093.00,1.15
6092.00,1.15
6091.00,1.15
6090.00,1.15
6089.00,1.16
6088.00,1.16
6087.00,1.16
6086.00,1.16
6085.00,1.16
6084.00,1.16
6083.00,1.16
6082.00,1.16
6081.00,1.16
6080.00,1.16
6079.00,1.16
6078.00,1.16
6077.00,1.16
6076.00,1.16
6075.00,1.16
6074.00,1.16
6073.00,1.16
6072.00,1.16
6071.00,1.16
6070.00,1.16
6069.00,1.16
6068.00,1.15
6067.00,1.15
6066.00,1.15
6065.00,1.15
6064.00,1.15
6063.00,1.15
6062.00,1.15
6061.00,1.15
6060.00,1.15
6059.00,1.15
6058.00,1.15
6057.00,1.15
6056.00,1.15
6055.00,1.15
6054.00,1.15
6053.00,1.15
6052.00,1.16
6051.00,1.16
6050.00,1.16
6049.00,1.16
6048.00,1.16
6047.00,1.16
6046.00,1.16
6045.00,1.16
6044.00,1.16
6043.00,1.16
6042.00,1.16
6041.00,1.16
6040.00,1.16
6039.00,1.16
6038.00,1.16
6037.00,1.16
6036.00,1.15
6035.00,1.15
6034.00,1.15
6033.00,1.15
6032.00,1.15
6031.00,1.15
6030.00,1.15
6029.00,1.15
6028.00,1.15
6027.00,1.15
6026.00,1.14
6025.00,1.14
6024.00,1.14
6023.00,1.14
6022.00,1.14
6021.00,1.14
6020.00,1.14
6019.00,1.14
6018.00,1.14
6017.00,1.14
6016.00,1.14
6015.00,1.14
6014.00,1.14
6013.00,1.14
6012.00,1.14
6011.00,1.14
6010.00,1.14
6009.00,1.14
6008.00,1.14
6007.00,1.14
6006.00,1.14
6005.00,1.14
6004.00,1.14
6003.00,1.14
6002.00,1.14
6001.00,1.14
6000.00,1.15
5999.00,1.15
5998.00,1.15
5997.00,1.15
5996.00,1.15
5995.00,1.15
5994.00,1.15
5993.00,1.15
5992.00,1.14
5991.00,1.14
5990.00,1.14
5989.00,1.14
5988.00,1.14
5987.00,1.14
5986.00,1.14
5985.00,1.14
5984.00,1.14
5983.00,1.14
5982.00,1.14
5981.00,1.14
5980.00,1.14
5979.00,1.14
5978.00,1.14
5977.00,1.13
5976.00,1.13
5975.00,1.13
5974.00,1.13
5973.00,1.13
5972.00,1.13
5971.00,1.14
5970.00,1.14
5969.00,1.14
5968.00,1.14
5967.00,1.14
5966.00,1.14
5965.00,1.14
5964.00,1.14
5963.00,1.14
5962.00,1.14
5961.00,1.14
5960.00,1.14
5959.00,1.14
5958.00,1.14
5957.00,1.14
5956.00,1.14
5955.00,1.14
5954.00,1.14
5953.00,1.14
5952.00,1.14
5951.00,1.14
5950.00,1.14
5949.00,1.14
5948.00,1.14
5947.00,1.14
5946.00,1.13
5945.00,1.13
5944.00,1.13
5943.00,1.13
5942.00,1.13
5941.00,1.13
5940.00,1.13
5939.00,1.13
5938.00,1.13
5937.00,1.12
5936.00,1.12
5935.00,1.12
5934.00,1.12
5933.00,1.12
5932.00,1.12
5931.00,1.12
5930.00,1.12
5929.00,1.12
5928.00,1.12
5927.00,1.12
5926.00,1.12
5925.00,1.12
5924.00,1.12
5923.00,1.12
5922.00,1.12
5921.00,1.12
5920.00,1.12
5919.00,1.12
5918.00,1.12
5917.00,1.12
5916.00,1.12
5915.00,1.12
5914.00,1.12
5913.00,1.13
5912.00,1.13
5911.00,1.13
5910.00,1.13
5909.00,1.13
5908.00,1.13
5907.00,1.13
5906.00,1.13
5905.00,1.13
5904.00,1.13
5903.00,1.13
5902.00,1.13
5901.00,1.13
5900.00,1.13
5899.00,1.13
5898.00,1.13
5897.00,1.13
5896.00,1.13
5895.00,1.13
5894.00,1.13
5893.00,1.13
5892.00,1.13
5891.00,1.13
5890.00,1.13
5889.00,1.13
5888.00,1.13
5887.00,1.13
5886.00,1.12
5885.00,1.12
5884.00,1.12
5883.00,1.12
5882.00,1.12
5881.00,1.12
5880.00,1.12
5879.00,1.12
5878.00,1.12
5877.00,1.12
5876.00,1.12
5875.00,1.12
5874.00,1.12
5873.00,1.13
5872.00,1.13
5871.00,1.13
5870.00,1.13
5869.00,1.13
5868.00,1.13
5867.00,1.13
5866.00,1.13
5865.00,1.13
5864.00,1.13
5863.00,1.13
5862.00,1.13
5861.00,1.13
5860.00,1.13
5859.00,1.13
5858.00,1.13
5857.00,1.13
5856.00,1.13
5855.00,1.13
5854.00,1.13
5853.00,1.13
5852.00,1.13
5851.00,1.13
5850.00,1.13
5849.00,1.13
5848.00,1.13
5847.00,1.13
5846.00,1.13
5845.00,1.13
5844.00,1.13
5843.00,1.13
5842.00,1.13
5841.00,1.13
5840.00,1.13
5839.00,1.13
5838.00,1.13
5837.00,1.13
5836.00,1.13
5835.00,1.13
5834.00,1.13
5833.00,1.13
5832.00,1.13
5831.00,1.13
5830.00,1.13
5829.00,1.13
5828.00,1.13
5827.00,1.13
5826.00,1.13
5825.00,1.13
5824.00,1.13
5823.00,1.13
5822.00,1.13
5821.00,1.13
5820.00,1.13
5819.00,1.13
5818.00,1.13
5817.00,1.13
5816.00,1.13
5815.00,1.13
5814.00,1.13
5813.00,1.13
5812.00,1.13
5811.00,1.13
5810.00,1.13
5809.00,1.13
5808.00,1.13
5807.00,1.13
5806.00,1.13
5805.00,1.13
5804.00,1.13
5803.00,1.13
5802.00,1.13
5801.00,1.13
5800.00,1.13
5799.00,1.13
5798.00,1.13
5797.00,1.13
5796.00,1.13
5795.00,1.13
5794.00,1.13
5793.00,1.13
5792.00,1.13
5791.00,1.13
5790.00,1.13
5789.00,1.13
5788.00,1.13
5787.00,1.13
5786.00,1.13
5785.00,1.13
5784.00,1.13
5783.00,1.13
5782.00,1.13
5781.00,1.13
5780.00,1.13
5779.00,1.13
5778.00,1.13
5777.00,1.13
5776.00,1.13
5775.00,1.13
5774.00,1.14
5773.00,1.14
5772.00,1.14
5771.00,1.14
5770.00,1.14
5769.00,1.14
5768.00,1.14
5767.00,1.14
5766.00,1.14
5765.00,1.14
5764.00,1.14
5763.00,1.15
5762.00,1.15
5761.00,1.15
5760.00,1.15
5759.00,1.15
5758.00,1.15
5757.00,1.15
5756.00,1.16
5755.00,1.16
5754.00,1.16
5753.00,1.16
5752.00,1.16
5751.00,1.16
5750.00,1.16
5749.00,1.16
5748.00,1.17
5747.00,1.17
5746.00,1.17
5745.00,1.17
5744.00,1.17
5743.00,1.17
5742.00,1.17
5741.00,1.17
5740.00,1.17
5739.00,1.17
5738.00,1.17
5737.00,1.17
5736.00,1.17
5735.00,1.17
5734.00,1.17
5733.00,1.17
5732.00,1.16
5731.00,1.16
5730.00,1.16
5729.00,1.16
5728.00,1.16
5727.00,1.16
5726.00,1.16
5725.00,1.16
5724.00,1.15
5723.00,1.15
5722.00,1.15
5721.00,1.15
5720.00,1.15
5719.00,1.15
5718.00,1.14
5717.00,1.14
5716.00,1.14
5715.00,1.14
5714.00,1.14
5713.00,1.14
5712.00,1.14
5711.00,1.14
5710.00,1.14
5709.00,1.14
5708.00,1.14
5707.00,1.13
5706.00,1.13
5705.00,1.13
5704.00,1.13
5703.00,1.13
5702.00,1.13
5701.00,1.13
5700.00,1.13
5699.00,1.13
5698.00,1.13
5697.00,1.13
5696.00,1.13
5695.00,1.13
5694.00,1.13
5693.00,1.14
5692.00,1.14
5691.00,1.14
5690.00,1.14
5689.00,1.14
5688.00,1.14
5687.00,1.14
5686.00,1.14
5685.00,1.15
5684.00,1.15
5683.00,1.15
5682.00,1.15
5681.00,1.15
5680.00,1.15
5679.00,1.15
5678.00,1.15
5677.00,1.15
5676.00,1.16
5675.00,1.16
5674.00,1.16
5673.00,1.16
5672.00,1.16
5671.00,1.16
5670.00,1.16
5669.00,1.16
5668.00,1.16
5667.00,1.16
5666.00,1.16
5665.00,1.16
5664.00,1.16
5663.00,1.16
5662.00,1.16
5661.00,1.16
5660.00,1.16
5659.00,1.16
5658.00,1.16
5657.00,1.16
5656.00,1.16
5655.00,1.15
5654.00,1.15
5653.00,1.15
5652.00,1.15
5651.00,1.15
5650.00,1.15
5649.00,1.15
5648.00,1.15
5647.00,1.15
5646.00,1.15
5645.00,1.15
5644.00,1.15
5643.00,1.15
5642.00,1.15
5641.00,1.15
5640.00,1.15
5639.00,1.15
5638.00,1.15
5637.00,1.15
5636.00,1.15
5635.00,1.15
5634.00,1.15
5633.00,1.15
5632.00,1.15
5631.00,1.16
5630.00,1.16
5629.00,1.16
5628.00,1.16
5627.00,1.16
5626.00,1.16
5625.00,1.16
5624.00,1.16
5623.00,1.16
5622.00,1.16
5621.00,1.16
5620.00,1.16
5619.00,1.16
5618.00,1.16
5617.00,1.16
5616.00,1.16
5615.00,1.16
5614.00,1.16
5613.00,1.16
5612.00,1.16
5611.00,1.16
5610.00,1.16
5609.00,1.16
5608.00,1.16
5607.00,1.16
5606.00,1.16
5605.00,1.16
5604.00,1.16
5603.00,1.16
5602.00,1.16
5601.00,1.16
5600.00,1.16
5599.00,1.16
5598.00,1.16
5597.00,1.16
5596.00,1.16
5595.00,1.16
5594.00,1.16
5593.00,1.16
5592.00,1.16
5591.00,1.16
5590.00,1.16
5589.00,1.16
5588.00,1.16
5587.00,1.16
5586.00,1.16
5585.00,1.16
5584.00,1.16
5583.00,1.16
5582.00,1.16
5581.00,1.16
5580.00,1.16
5579.00,1.16
5578.00,1.16
5577.00,1.16
5576.00,1.16
5575.00,1.16
5574.00,1.16
5573.00,1.16
5572.00,1.16
5571.00,1.16
5570.00,1.16
5569.00,1.17
5568.00,1.17
5567.00,1.17
5566.00,1.17
5565.00,1.17
5564.00,1.17
5563.00,1.17
5562.00,1.17
5561.00,1.17
5560.00,1.17
5559.00,1.17
5558.00,1.17
5557.00,1.17
5556.00,1.17
5555.00,1.17
5554.00,1.17
5553.00,1.18
5552.00,1.18
5551.00,1.18
5550.00,1.18
5549.00,1.18
5548.00,1.18
5547.00,1.18
5546.00,1.18
5545.00,1.18
5544.00,1.18
5543.00,1.18
5542.00,1.18
5541.00,1.18
5540.00,1.18
5539.00,1.18
5538.00,1.17
5537.00,1.17
5536.00,1.17
5535.00,1.17
5534.00,1.17
5533.00,1.17
5532.00,1.17
5531.00,1.17
5530.00,1.17
5529.00,1.17
5528.00,1.17
5527.00,1.17
5526.00,1.17
5525.00,1.17
5524.00,1.17
5523.00,1.17
5522.00,1.18
5521.00,1.18
5520.00,1.18
5519.00,1.18
5518.00,1.18
5517.00,1.18
5516.00,1.18
5515.00,1.18
5514.00,1.19
5513.00,1.19
5512.00,1.19
5511.00,1.19
5510.00,1.19
5509.00,1.20
5508.00,1.20
5507.00,1.20
5506.00,1.20
5505.00,1.20
5504.00,1.20
5503.00,1.20
5502.00,1.20
5501.00,1.20
5500.00,1.20
5499.00,1.20
5498.00,1.20
5497.00,1.20
5496.00,1.20
5495.00,1.20
5494.00,1.20
5493.00,1.20
5492.00,1.20
5491.00,1.20
5490.00,1.20
5489.00,1.20
5488.00,1.20
5487.00,1.19
5486.00,1.19
5485.00,1.19
5484.00,1.19
5483.00,1.19
5482.00,1.19
5481.00,1.19
5480.00,1.19
5479.00,1.18
5478.00,1.18
5477.00,1.18
5476.00,1.18
5475.00,1.18
5474.00,1.18
5473.00,1.18
5472.00,1.18
5471.00,1.18
5470.00,1.18
5469.00,1.18
5468.00,1.18
5467.00,1.18
5466.00,1.18
5465.00,1.18
5464.00,1.18
5463.00,1.18
5462.00,1.18
5461.00,1.18
5460.00,1.18
5459.00,1.18
5458.00,1.18
5457.00,1.18
5456.00,1.18
5455.00,1.18
5454.00,1.18
5453.00,1.18
5452.00,1.19
5451.00,1.19
5450.00,1.19
5449.00,1.19
5448.00,1.19
5447.00,1.19
5446.00,1.19
5445.00,1.19
5444.00,1.19
5443.00,1.19
5442.00,1.19
5441.00,1.19
5440.00,1.19
5439.00,1.19
5438.00,1.19
5437.00,1.19
5436.00,1.19
5435.00,1.19
5434.00,1.19
5433.00,1.19
5432.00,1.19
5431.00,1.19
5430.00,1.19
5429.00,1.19
5428.00,1.19
5427.00,1.19
5426.00,1.19
5425.00,1.19
5424.00,1.19
5423.00,1.19
5422.00,1.19
5421.00,1.19
5420.00,1.19
5419.00,1.19
5418.00,1.19
5417.00,1.19
5416.00,1.19
5415.00,1.19
5414.00,1.19
5413.00,1.19
5412.00,1.19
5411.00,1.19
5410.00,1.19
5409.00,1.19
5408.00,1.18
5407.00,1.19
5406.00,1.19
5405.00,1.19
5404.00,1.19
5403.00,1.19
5402.00,1.19
5401.00,1.19
5400.00,1.19
5399.00,1.18
5398.00,1.18
5397.00,1.18
5396.00,1.18
5395.00,1.18
5394.00,1.18
5393.00,1.18
5392.00,1.18
5391.00,1.18
5390.00,1.18
5389.00,1.18
5388.00,1.18
5387.00,1.18
5386.00,1.18
5385.00,1.18
5384.00,1.18
5383.00,1.18
5382.00,1.18
5381.00,1.18
5380.00,1.18
5379.00,1.18
5378.00,1.18
5377.00,1.18
5376.00,1.18
5375.00,1.18
5374.00,1.18
5373.00,1.18
5372.00,1.18
5371.00,1.18
5370.00,1.18
5369.00,1.18
5368.00,1.18
5367.00,1.18
5366.00,1.18
5365.00,1.18
5364.00,1.18
5363.00,1.18
5362.00,1.18
5361.00,1.18
5360.00,1.18
5359.00,1.18
5358.00,1.18
5357.00,1.18
5356.00,1.18
5355.00,1.17
5354.00,1.17
5353.00,1.17
5352.00,1.17
5351.00,1.17
5350.00,1.17
5349.00,1.17
5348.00,1.17
5347.00,1.17
5346.00,1.17
5345.00,1.16
5344.00,1.16
5343.00,1.16
5342.00,1.16
5341.00,1.16
5340.00,1.15
5339.00,1.15
5338.00,1.15
5337.00,1.15
5336.00,1.15
5335.00,1.15
5334.00,1.15
5333.00,1.14
5332.00,1.14
5331.00,1.14
5330.00,1.14
5329.00,1.14
5328.00,1.14
5327.00,1.13
5326.00,1.13
5325.00,1.13
5324.00,1.13
5323.00,1.13
5322.00,1.12
5321.00,1.12
5320.00,1.12
5319.00,1.12
5318.00,1.12
5317.00,1.11
5316.00,1.11
5315.00,1.11
5314.00,1.11
5313.00,1.10
5312.00,1.10
5311.00,1.10
5310.00,1.10
5309.00,1.09
5308.00,1.09
5307.00,1.09
5306.00,1.09
5305.00,1.08
5304.00,1.08
5303.00,1.08
5302.00,1.07
5301.00,1.07
5300.00,1.07
5299.00,1.07
5298.00,1.07
5297.00,1.06
5296.00,1.06
5295.00,1.06
5294.00,1.06
5293.00,1.05
5292.00,1.05
5291.00,1.05
5290.00,1.05
5289.00,1.05
5288.00,1.04
5287.00,1.04
5286.00,1.04
5285.00,1.04
5284.00,1.03
5283.00,1.03
5282.00,1.03
5281.00,1.03
5280.00,1.02
5279.00,1.02
5278.00,1.02
5277.00,1.02
5276.00,1.02
5275.00,1.01
5274.00,1.01
5273.00,1.01
5272.00,1.01
5271.00,1.00
5270.00,1.00
5269.00,1.00
5268.00,0.99
5267.00,0.99
5266.00,0.99
5265.00,0.99
5264.00,0.98
5263.00,0.98
5262.00,0.98
5261.00,0.98
5260.00,0.97
5259.00,0.97
5258.00,0.97
5257.00,0.97
5256.00,0.97
5255.00,0.97
5254.00,0.96
5253.00,0.96
5252.00,0.96
5251.00,0.96
5250.00,0.96
5249.00,0.96
5248.00,0.96
5247.00,0.96
5246.00,0.96
5245.00,0.96
5244.00,0.96
5243.00,0.96
5242.00,0.96
5241.00,0.96
5240.00,0.96
5239.00,0.96
5238.00,0.96
5237.00,0.96
5236.00,0.96
5235.00,0.95
5234.00,0.95
5233.00,0.95
5232.00,0.95
5231.00,0.95
5230.00,0.95
5229.00,0.95
5228.00,0.95
5227.00,0.95
5226.00,0.94
5225.00,0.94
5224.00,0.94
5223.00,0.94
5222.00,0.94
5221.00,0.93
5220.00,0.93
5219.00,0.93
5218.00,0.93
5217.00,0.92
5216.00,0.92
5215.00,0.92
5214.00,0.92
5213.00,0.92
5212.00,0.91
5211.00,0.91
5210.00,0.91
5209.00,0.91
5208.00,0.91
5207.00,0.90
5206.00,0.90
5205.00,0.90
5204.00,0.90
5203.00,0.90
5202.00,0.90
5201.00,0.90
5200.00,0.90
5199.00,0.90
5198.00,0.90
5197.00,0.90
5196.00,0.90
5195.00,0.90
5194.00,0.90
5193.00,0.90
5192.00,0.90
5191.00,0.90
5190.00,0.90
5189.00,0.90
5188.00,0.90
5187.00,0.90
5186.00,0.90
5185.00,0.90
5184.00,0.90
5183.00,0.90
5182.00,0.90
5181.00,0.90
5180.00,0.90
5179.00,0.90
5178.00,0.90
5177.00,0.90
5176.00,0.90
5175.00,0.90
5174.00,0.91
5173.00,0.91
5172.00,0.90
5171.00,0.90
5170.00,0.90
5169.00,0.90
5168.00,0.90
5167.00,0.90
5166.00,0.90
5165.00,0.90
5164.00,0.90
5163.00,0.90
5162.00,0.90
5161.00,0.90
5160.00,0.90
5159.00,0.90
5158.00,0.90
5157.00,0.90
5156.00,0.90
5155.00,0.90
5154.00,0.90
5153.00,0.90
5152.00,0.90
5151.00,0.90
5150.00,0.90
5149.00,0.90
5148.00,0.90
5147.00,0.90
5146.00,0.90
5145.00,0.90
5144.00,0.90
5143.00,0.90
5142.00,0.90
5141.00,0.90
5140.00,0.90
5139.00,0.90
5138.00,0.90
5137.00,0.90
5136.00,0.90
5135.00,0.90
5134.00,0.90
5133.00,0.91
5132.00,0.91
5131.00,0.91
5130.00,0.91
5129.00,0.91
5128.00,0.91
5127.00,0.91
5126.00,0.91
5125.00,0.92
5124.00,0.92
5123.00,0.92
5122.00,0.92
5121.00,0.92
5120.00,0.92
5119.00,0.93
5118.00,0.93
5117.00,0.93
5116.00,0.93
5115.00,0.93
5114.00,0.93
5113.00,0.94
5112.00,0.94
5111.00,0.94
5110.00,0.94
5109.00,0.94
5108.00,0.94
5107.00,0.94
5106.00,0.94
5105.00,0.94
5104.00,0.94
5103.00,0.95
5102.00,0.95
5101.00,0.95
5100.00,0.95
5099.00,0.95
5098.00,0.95
5097.00,0.95
5096.00,0.95
5095.00,0.95
5094.00,0.95
5093.00,0.95
5092.00,0.95
5091.00,0.95
5090.00,0.95
5089.00,0.95
5088.00,0.95
5087.00,0.95
5086.00,0.95
5085.00,0.95
5084.00,0.95
5083.00,0.96
5082.00,0.96
5081.00,0.96
5080.00,0.96
5079.00,0.96
5078.00,0.96
5077.00,0.96
5076.00,0.96
5075.00,0.96
5074.00,0.96
5073.00,0.96
5072.00,0.97
5071.00,0.97
5070.00,0.97
5069.00,0.97
5068.00,0.97
5067.00,0.97
5066.00,0.97
5065.00,0.97
5064.00,0.97
5063.00,0.98
5062.00,0.98
5061.00,0.98
5060.00,0.98
5059.00,0.98
5058.00,0.98
5057.00,0.98
5056.00,0.98
5055.00,0.98
5054.00,0.98
5053.00,0.98
5052.00,0.98
5051.00,0.98
5050.00,0.98
5049.00,0.98
5048.00,0.99
5047.00,0.99
5046.00,0.99
5045.00,0.99
5044.00,0.99
5043.00,0.99
5042.00,0.99
5041.00,0.99
5040.00,0.99
5039.00,0.99
5038.00,0.99
5037.00,0.99
5036.00,0.99
5035.00,0.99
5034.00,0.99
5033.00,0.99
5032.00,0.99
5031.00,0.99
5030.00,0.99
5029.00,1.00
5028.00,1.00
5027.00,1.00
5026.00,1.00
5025.00,1.00
5024.00,1.00
5023.00,1.00
5022.00,1.00
5021.00,1.00
5020.00,1.00
5019.00,1.00
5018.00,1.00
5017.00,1.00
5016.00,1.00
5015.00,1.00
5014.00,1.01
5013.00,1.01
5012.00,1.01
5011.00,1.01
5010.00,1.01
5009.00,1.01
5008.00,1.01
5007.00,1.01
5006.00,1.01
5005.00,1.02
5004.00,1.02
5003.00,1.02
5002.00,1.02
5001.00,1.02
5000.00,1.02
4999.00,1.02
4998.00,1.02
4997.00,1.02
4996.00,1.02
4995.00,1.02
4994.00,1.03
4993.00,1.03
4992.00,1.03
4991.00,1.03
4990.00,1.03
4989.00,1.03
4988.00,1.03
4987.00,1.03
4986.00,1.03
4985.00,1.04
4984.00,1.04
4983.00,1.04
4982.00,1.04
4981.00,1.04
4980.00,1.04
4979.00,1.04
4978.00,1.04
4977.00,1.04
4976.00,1.04
4975.00,1.04
4974.00,1.05
4973.00,1.05
4972.00,1.05
4971.00,1.05
4970.00,1.05
4969.00,1.05
4968.00,1.05
4967.00,1.05
4966.00,1.05
4965.00,1.05
4964.00,1.06
4963.00,1.06
4962.00,1.06
4961.00,1.06
4960.00,1.06
4959.00,1.06
4958.00,1.06
4957.00,1.06
4956.00,1.06
4955.00,1.06
4954.00,1.06
4953.00,1.06
4952.00,1.06
4951.00,1.06
4950.00,1.06
4949.00,1.06
4948.00,1.06
4947.00,1.06
4946.00,1.06
4945.00,1.06
4944.00,1.06
4943.00,1.06
4942.00,1.06
4941.00,1.06
4940.00,1.06
4939.00,1.06
4938.00,1.06
4937.00,1.06
4936.00,1.06
4935.00,1.06
4934.00,1.06
4933.00,1.07
4932.00,1.07
4931.00,1.07
4930.00,1.07
4929.00,1.07
4928.00,1.08
4927.00,1.08
4926.00,1.08
4925.00,1.08
4924.00,1.08
4923.00,1.09
4922.00,1.09
4921.00,1.09
4920.00,1.09
4919.00,1.09
4918.00,1.09
4917.00,1.09
4916.00,1.09
4915.00,1.10
4914.00,1.10
4913.00,1.10
4912.00,1.10
4911.00,1.10
4910.00,1.10
4909.00,1.10
4908.00,1.10
4907.00,1.10
4906.00,1.10
4905.00,1.10
4904.00,1.10
4903.00,1.10
4902.00,1.09
4901.00,1.09
4900.00,1.09
4899.00,1.09
4898.00,1.09
4897.00,1.09
4896.00,1.09
4895.00,1.09
4894.00,1.09
4893.00,1.09
4892.00,1.09
4891.00,1.09
4890.00,1.09
4889.00,1.09
4888.00,1.09
4887.00,1.09
4886.00,1.09
4885.00,1.09
4884.00,1.09
4883.00,1.09
4882.00,1.09
4881.00,1.09
4880.00,1.09
4879.00,1.09
4878.00,1.09
4877.00,1.09
4876.00,1.09
4875.00,1.10
4874.00,1.10
4873.00,1.10
4872.00,1.10
4871.00,1.10
4870.00,1.10
4869.00,1.10
4868.00,1.11
4867.00,1.11
4866.00,1.11
4865.00,1.11
4864.00,1.11
4863.00,1.11
4862.00,1.11
4861.00,1.11
4860.00,1.12
4859.00,1.12
4858.00,1.12
4857.00,1.12
4856.00,1.12
4855.00,1.12
4854.00,1.12
4853.00,1.12
4852.00,1.12
4851.00,1.12
4850.00,1.12
4849.00,1.12
4848.00,1.12
4847.00,1.12
4846.00,1.12
4845.00,1.12
4844.00,1.12
4843.00,1.12
4842.00,1.12
4841.00,1.12
4840.00,1.12
4839.00,1.12
4838.00,1.12
4837.00,1.12
4836.00,1.12
4835.00,1.12
4834.00,1.12
4833.00,1.12
4832.00,1.12
4831.00,1.11
4830.00,1.11
4829.00,1.11
4828.00,1.11
4827.00,1.11
4826.00,1.11
4825.00,1.11
4824.00,1.11
4823.00,1.11
4822.00,1.11
4821.00,1.10
4820.00,1.10
4819.00,1.10
4818.00,1.10
4817.00,1.10
4816.00,1.10
4815.00,1.10
4814.00,1.10
4813.00,1.10
4812.00,1.10
4811.00,1.10
4810.00,1.10
4809.00,1.10
4808.00,1.11
4807.00,1.11
4806.00,1.11
4805.00,1.11
4804.00,1.11
4803.00,1.11
4802.00,1.11
4801.00,1.11
4800.00,1.11
4799.00,1.11
4798.00,1.11
4797.00,1.11
4796.00,1.12
4795.00,1.12
4794.00,1.12
4793.00,1.12
4792.00,1.12
4791.00,1.12
4790.00,1.12
4789.00,1.12
4788.00,1.12
4787.00,1.12
4786.00,1.12
4785.00,1.12
4784.00,1.12
4783.00,1.12
4782.00,1.12
4781.00,1.12
4780.00,1.12
4779.00,1.12
4778.00,1.12
4777.00,1.12
4776.00,1.12
4775.00,1.12
4774.00,1.12
4773.00,1.12
4772.00,1.12
4771.00,1.12
4770.00,1.12
4769.00,1.12
4768.00,1.12
4767.00,1.12
4766.00,1.12
4765.00,1.12
4764.00,1.12
4763.00,1.12
4762.00,1.12
4761.00,1.12
4760.00,1.12
4759.00,1.11
4758.00,1.11
4757.00,1.11
4756.00,1.11
4755.00,1.11
4754.00,1.11
4753.00,1.11
4752.00,1.11
4751.00,1.11
4750.00,1.11
4749.00,1.11
4748.00,1.11
4747.00,1.11
4746.00,1.11
4745.00,1.11
4744.00,1.11
4743.00,1.11
4742.00,1.11
4741.00,1.11
4740.00,1.11
4739.00,1.11
4738.00,1.11
4737.00,1.12
4736.00,1.12
4735.00,1.12
4734.00,1.12
4733.00,1.12
4732.00,1.12
4731.00,1.13
4730.00,1.13
4729.00,1.13
4728.00,1.13
4727.00,1.13
4726.00,1.14
4725.00,1.14
4724.00,1.14
4723.00,1.14
4722.00,1.15
4721.00,1.15
4720.00,1.15
4719.00,1.15
4718.00,1.15
4717.00,1.15
4716.00,1.15
4715.00,1.16
4714.00,1.16
4713.00,1.16
4712.00,1.16
4711.00,1.16
4710.00,1.16
4709.00,1.16
4708.00,1.16
4707.00,1.16
4706.00,1.16
4705.00,1.16
4704.00,1.16
4703.00,1.16
4702.00,1.16
4701.00,1.16
4700.00,1.16
4699.00,1.17
4698.00,1.17
4697.00,1.17
4696.00,1.17
4695.00,1.17
4694.00,1.17
4693.00,1.17
4692.00,1.17
4691.00,1.17
4690.00,1.17
4689.00,1.17
4688.00,1.17
4687.00,1.17
4686.00,1.17
4685.00,1.17
4684.00,1.17
4683.00,1.17
4682.00,1.17
4681.00,1.17
4680.00,1.17
4679.00,1.17
4678.00,1.17
4677.00,1.17
4676.00,1.17
4675.00,1.17
4674.00,1.17
4673.00,1.17
4672.00,1.17
4671.00,1.17
4670.00,1.17
4669.00,1.17
4668.00,1.17
4667.00,1.17
4666.00,1.17
4665.00,1.17
4664.00,1.17
4663.00,1.17
4662.00,1.17
4661.00,1.17
4660.00,1.17
4659.00,1.17
4658.00,1.17
4657.00,1.17
4656.00,1.17
4655.00,1.17
4654.00,1.17
4653.00,1.17
4652.00,1.17
4651.00,1.17
4650.00,1.17
4649.00,1.17
4648.00,1.17
4647.00,1.17
4646.00,1.17
4645.00,1.17
4644.00,1.17
4643.00,1.17
4642.00,1.16
4641.00,1.16
4640.00,1.16
4639.00,1.16
4638.00,1.16
4637.00,1.16
4636.00,1.16
4635.00,1.15
4634.00,1.15
4633.00,1.15
4632.00,1.15
4631.00,1.15
4630.00,1.15
4629.00,1.15
4628.00,1.15
4627.00,1.15
4626.00,1.15
4625.00,1.15
4624.00,1.15
4623.00,1.14
4622.00,1.14
4621.00,1.14
4620.00,1.14
4619.00,1.14
4618.00,1.14
4617.00,1.14
4616.00,1.14
4615.00,1.14
4614.00,1.14
4613.00,1.14
4612.00,1.15
4611.00,1.15
4610.00,1.15
4609.00,1.15
4608.00,1.15
4607.00,1.15
4606.00,1.15
4605.00,1.15
4604.00,1.15
4603.00,1.15
4602.00,1.15
4601.00,1.15
4600.00,1.15
4599.00,1.15
4598.00,1.15
4597.00,1.15
4596.00,1.15
4595.00,1.15
4594.00,1.15
4593.00,1.15
4592.00,1.15
4591.00,1.15
4590.00,1.15
4589.00,1.15
4588.00,1.15
4587.00,1.15
4586.00,1.15
4585.00,1.15
4584.00,1.15
4583.00,1.15
4582.00,1.15
4581.00,1.16
4580.00,1.16
4579.00,1.16
4578.00,1.16
4577.00,1.16
4576.00,1.16
4575.00,1.16
4574.00,1.16
4573.00,1.16
4572.00,1.16
4571.00,1.16
4570.00,1.17
4569.00,1.17
4568.00,1.17
4567.00,1.17
4566.00,1.17
4565.00,1.17
4564.00,1.17
4563.00,1.17
4562.00,1.17
4561.00,1.18
4560.00,1.18
4559.00,1.18
4558.00,1.18
4557.00,1.18
4556.00,1.18
4555.00,1.18
4554.00,1.18
4553.00,1.19
4552.00,1.19
4551.00,1.19
4550.00,1.19
4549.00,1.19
4548.00,1.19
4547.00,1.19
4546.00,1.19
4545.00,1.19
4544.00,1.19
4543.00,1.19
4542.00,1.19
4541.00,1.19
4540.00,1.19
4539.00,1.19
4538.00,1.19
4537.00,1.19
4536.00,1.19
4535.00,1.19
4534.00,1.19
4533.00,1.19
4532.00,1.19
4531.00,1.19
4530.00,1.19
4529.00,1.19
4528.00,1.18
4527.00,1.18
4526.00,1.18
4525.00,1.18
4524.00,1.18
4523.00,1.18
4522.00,1.18
4521.00,1.17
4520.00,1.17
4519.00,1.17
4518.00,1.17
4517.00,1.17
4516.00,1.17
4515.00,1.17
4514.00,1.17
4513.00,1.18
4512.00,1.18
4511.00,1.18
4510.00,1.18
4509.00,1.18
4508.00,1.18
4507.00,1.18
4506.00,1.18
4505.00,1.18
4504.00,1.18
4503.00,1.18
4502.00,1.18
4501.00,1.18
4500.00,1.18
4499.00,1.18
4498.00,1.18
4497.00,1.18
4496.00,1.18
4495.00,1.18
4494.00,1.18
4493.00,1.18
4492.00,1.17
4491.00,1.17
4490.00,1.17
4489.00,1.17
4488.00,1.17
4487.00,1.17
4486.00,1.17
4485.00,1.17
4484.00,1.17
4483.00,1.16
4482.00,1.16
4481.00,1.16
4480.00,1.16
4479.00,1.16
4478.00,1.16
4477.00,1.16
4476.00,1.16
4475.00,1.16
4474.00,1.16
4473.00,1.16
4472.00,1.16
4471.00,1.16
4470.00,1.16
4469.00,1.15
4468.00,1.15
4467.00,1.15
4466.00,1.15
4465.00,1.15
4464.00,1.15
4463.00,1.15
4462.00,1.15
4461.00,1.15
4460.00,1.15
4459.00,1.15
4458.00,1.15
4457.00,1.14
4456.00,1.14
4455.00,1.14
4454.00,1.14
4453.00,1.14
4452.00,1.14
4451.00,1.14
4450.00,1.14
4449.00,1.14
4448.00,1.13
4447.00,1.13
4446.00,1.13
4445.00,1.13
4444.00,1.13
4443.00,1.13
4442.00,1.12
4441.00,1.12
4440.00,1.12
4439.00,1.12
4438.00,1.12
4437.00,1.12
4436.00,1.11
4435.00,1.11
4434.00,1.11
4433.00,1.11
4432.00,1.11
4431.00,1.10
4430.00,1.10
4429.00,1.10
4428.00,1.10
4427.00,1.10
4426.00,1.09
4425.00,1.09
4424.00,1.09
4423.00,1.09
4422.00,1.09
4421.00,1.08
4420.00,1.08
4419.00,1.08
4418.00,1.08
4417.00,1.08
4416.00,1.07
4415.00,1.07
4414.00,1.07
4413.00,1.07
4412.00,1.07
4411.00,1.07
4410.00,1.07
4409.00,1.06
4408.00,1.06
4407.00,1.06
4406.00,1.06
4405.00,1.06
4404.00,1.06
4403.00,1.06
4402.00,1.06
4401.00,1.06
4400.00,1.06
4399.00,1.06
4398.00,1.06
4397.00,1.06
4396.00,1.06
4395.00,1.06
4394.00,1.06
4393.00,1.06
4392.00,1.06
4391.00,1.06
4390.00,1.06
4389.00,1.06
4388.00,1.06
4387.00,1.07
4386.00,1.07
4385.00,1.07
4384.00,1.07
4383.00,1.08
4382.00,1.08
4381.00,1.08
4380.00,1.09
4379.00,1.09
4378.00,1.09
4377.00,1.09
4376.00,1.10
4375.00,1.10
4374.00,1.10
4373.00,1.10
4372.00,1.10
4371.00,1.11
4370.00,1.11
4369.00,1.11
4368.00,1.11
4367.00,1.11
4366.00,1.11
4365.00,1.11
4364.00,1.11
4363.00,1.11
4362.00,1.11
4361.00,1.10
4360.00,1.10
4359.00,1.10
4358.00,1.10
4357.00,1.09
4356.00,1.09
4355.00,1.09
4354.00,1.09
4353.00,1.08
4352.00,1.08
4351.00,1.08
4350.00,1.07
4349.00,1.07
4348.00,1.07
4347.00,1.07
4346.00,1.06
4345.00,1.06
4344.00,1.06
4343.00,1.06
4342.00,1.06
4341.00,1.05
4340.00,1.05
4339.00,1.05
4338.00,1.05
4337.00,1.05
4336.00,1.05
4335.00,1.05
4334.00,1.05
4333.00,1.05
4332.00,1.05
4331.00,1.05
4330.00,1.05
4329.00,1.05
4328.00,1.05
4327.00,1.05
4326.00,1.05
4325.00,1.06
4324.00,1.06
4323.00,1.06
4322.00,1.06
4321.00,1.06
4320.00,1.06
4319.00,1.06
4318.00,1.07
4317.00,1.07
4316.00,1.07
4315.00,1.07
4314.00,1.07
4313.00,1.07
4312.00,1.08
4311.00,1.08
4310.00,1.08
4309.00,1.08
4308.00,1.08
4307.00,1.08
4306.00,1.09
4305.00,1.09
4304.00,1.09
4303.00,1.09
4302.00,1.09
4301.00,1.09
4300.00,1.10
4299.00,1.10
4298.00,1.10
4297.00,1.10
4296.00,1.10
4295.00,1.10
4294.00,1.10
4293.00,1.10
4292.00,1.10
4291.00,1.10
4290.00,1.10
4289.00,1.10
4288.00,1.11
4287.00,1.11
4286.00,1.11
4285.00,1.11
4284.00,1.11
4283.00,1.11
4282.00,1.11
4281.00,1.11
4280.00,1.11
4279.00,1.11
4278.00,1.11
4277.00,1.11
4276.00,1.11
4275.00,1.11
4274.00,1.11
4273.00,1.11
4272.00,1.11
4271.00,1.11
4270.00,1.11
4269.00,1.11
4268.00,1.11
4267.00,1.11
4266.00,1.11
4265.00,1.11
4264.00,1.11
4263.00,1.11
4262.00,1.11
4261.00,1.11
4260.00,1.11
4259.00,1.11
4258.00,1.11
4257.00,1.11
4256.00,1.11
4255.00,1.11
4254.00,1.11
4253.00,1.11
4252.00,1.11
4251.00,1.11
4250.00,1.11
4249.00,1.11
4248.00,1.11
4247.00,1.11
4246.00,1.11
4245.00,1.10
4244.00,1.10
4243.00,1.10
4242.00,1.10
4241.00,1.10
4240.00,1.10
4239.00,1.10
4238.00,1.11
4237.00,1.11
4236.00,1.11
4235.00,1.11
4234.00,1.11
4233.00,1.11
4232.00,1.11
4231.00,1.11
4230.00,1.12
4229.00,1.12
4228.00,1.12
4227.00,1.12
4226.00,1.12
4225.00,1.12
4224.00,1.13
4223.00,1.13
4222.00,1.13
4221.00,1.13
4220.00,1.13
4219.00,1.14
4218.00,1.14
4217.00,1.14
4216.00,1.14
4215.00,1.14
4214.00,1.15
4213.00,1.15
4212.00,1.15
4211.00,1.15
4210.00,1.15
4209.00,1.15
4208.00,1.15
4207.00,1.15
4206.00,1.15
4205.00,1.15
4204.00,1.15
4203.00,1.15
4202.00,1.15
4201.00,1.15
4200.00,1.15
4199.00,1.15
4198.00,1.15
4197.00,1.15
4196.00,1.15
4195.00,1.15
4194.00,1.15
4193.00,1.15
4192.00,1.14
4191.00,1.14
4190.00,1.14
4189.00,1.14
4188.00,1.14
4187.00,1.14
4186.00,1.14
4185.00,1.14
4184.00,1.14
4183.00,1.14
4182.00,1.14
4181.00,1.14
4180.00,1.14
4179.00,1.14
4178.00,1.14
4177.00,1.14
4176.00,1.13
4175.00,1.13
4174.00,1.13
4173.00,1.13
4172.00,1.13
4171.00,1.13
4170.00,1.13
4169.00,1.13
4168.00,1.13
4167.00,1.13
4166.00,1.13
4165.00,1.14
4164.00,1.14
4163.00,1.14
4162.00,1.14
4161.00,1.14
4160.00,1.14
4159.00,1.14
4158.00,1.14
4157.00,1.14
4156.00,1.14
4155.00,1.14
4154.00,1.14
4153.00,1.14
4152.00,1.14
4151.00,1.14
4150.00,1.14
4149.00,1.14
4148.00,1.14
4147.00,1.14
4146.00,1.14
4145.00,1.14
4144.00,1.14
4143.00,1.14
4142.00,1.13
4141.00,1.13
4140.00,1.13
4139.00,1.13
4138.00,1.12
4137.00,1.12
4136.00,1.12
4135.00,1.12
4134.00,1.12
4133.00,1.12
4132.00,1.12
4131.00,1.12
4130.00,1.12
4129.00,1.12
4128.00,1.12
4127.00,1.12
4126.00,1.12
4125.00,1.12
4124.00,1.12
4123.00,1.12
4122.00,1.12
4121.00,1.12
4120.00,1.12
4119.00,1.12
4118.00,1.12
4117.00,1.12
4116.00,1.12
4115.00,1.12
4114.00,1.12
4113.00,1.13
4112.00,1.13
4111.00,1.13
4110.00,1.13
4109.00,1.13
4108.00,1.13
4107.00,1.13
4106.00,1.14
4105.00,1.14
4104.00,1.14
4103.00,1.14
4102.00,1.14
4101.00,1.14
4100.00,1.14
4099.00,1.14
4098.00,1.14
4097.00,1.14
4096.00,1.14
4095.00,1.14
4094.00,1.14
4093.00,1.14
4092.00,1.14
4091.00,1.14
4090.00,1.14
4089.00,1.14
4088.00,1.14
4087.00,1.14
4086.00,1.14
4085.00,1.13
4084.00,1.13
4083.00,1.13
4082.00,1.13
4081.00,1.13
4080.00,1.13
4079.00,1.12
4078.00,1.12
4077.00,1.12
4076.00,1.12
4075.00,1.12
4074.00,1.12
4073.00,1.12
4072.00,1.12
4071.00,1.12
4070.00,1.11
4069.00,1.11
4068.00,1.11
4067.00,1.11
4066.00,1.11
4065.00,1.11
4064.00,1.11
4063.00,1.11
4062.00,1.11
4061.00,1.11
4060.00,1.11
4059.00,1.11
4058.00,1.11
4057.00,1.11
4056.00,1.11
4055.00,1.11
4054.00,1.11
4053.00,1.11
4052.00,1.11
4051.00,1.11
4050.00,1.11
4049.00,1.11
4048.00,1.11
4047.00,1.10
4046.00,1.10
4045.00,1.10
4044.00,1.10
4043.00,1.10
4042.00,1.10
4041.00,1.09
4040.00,1.09
4039.00,1.09
4038.00,1.09
4037.00,1.09
4036.00,1.09
4035.00,1.08
4034.00,1.08
4033.00,1.08
4032.00,1.08
4031.00,1.07
4030.00,1.07
4029.00,1.07
4028.00,1.06
4027.00,1.06
4026.00,1.06
4025.00,1.06
4024.00,1.06
4023.00,1.06
4022.00,1.06
4021.00,1.06
4020.00,1.07
4019.00,1.07
4018.00,1.08
4017.00,1.08
4016.00,1.09
4015.00,1.10
4014.00,1.10
4013.00,1.11
4012.00,1.12
4011.00,1.13
4010.00,1.14
4009.00,1.15
4008.00,1.17
4007.00,1.18
4006.00,1.19
4005.00,1.21
4004.00,1.23
4003.00,1.24
4002.00,1.26
4001.00,1.28
4000.00,1.30
