创建为新数据集,样品 923 用户 Administrator 日期 星期一, 七月 29 2019
cm-1,%T
10000.00,1.45
9999.00,1.43
9998.00,1.42
9997.00,1.40
9996.00,1.38
9995.00,1.36
9994.00,1.35
9993.00,1.33
9992.00,1.31
9991.00,1.29
9990.00,1.27
9989.00,1.26
9988.00,1.24
9987.00,1.23
9986.00,1.21
9985.00,1.20
9984.00,1.19
9983.00,1.19
9982.00,1.18
9981.00,1.17
9980.00,1.17
9979.00,1.17
9978.00,1.16
9977.00,1.16
9976.00,1.16
9975.00,1.15
9974.00,1.15
9973.00,1.15
9972.00,1.15
9971.00,1.16
9970.00,1.16
9969.00,1.16
9968.00,1.17
9967.00,1.17
9966.00,1.18
9965.00,1.18
9964.00,1.19
9963.00,1.19
9962.00,1.19
9961.00,1.20
9960.00,1.20
9959.00,1.20
9958.00,1.20
9957.00,1.21
9956.00,1.21
9955.00,1.21
9954.00,1.21
9953.00,1.21
9952.00,1.21
9951.00,1.21
9950.00,1.21
9949.00,1.21
9948.00,1.20
9947.00,1.20
9946.00,1.20
9945.00,1.20
9944.00,1.19
9943.00,1.19
9942.00,1.19
9941.00,1.19
9940.00,1.19
9939.00,1.19
9938.00,1.19
9937.00,1.19
9936.00,1.19
9935.00,1.19
9934.00,1.19
9933.00,1.19
9932.00,1.19
9931.00,1.19
9930.00,1.19
9929.00,1.19
9928.00,1.19
9927.00,1.20
9926.00,1.20
9925.00,1.20
9924.00,1.20
9923.00,1.20
9922.00,1.21
9921.00,1.21
9920.00,1.21
9919.00,1.22
9918.00,1.22
9917.00,1.23
9916.00,1.23
9915.00,1.24
9914.00,1.24
9913.00,1.24
9912.00,1.25
9911.00,1.25
9910.00,1.26
9909.00,1.26
9908.00,1.27
9907.00,1.27
9906.00,1.28
9905.00,1.28
9904.00,1.29
9903.00,1.29
9902.00,1.29
9901.00,1.30
9900.00,1.30
9899.00,1.30
9898.00,1.30
9897.00,1.30
9896.00,1.30
9895.00,1.30
9894.00,1.30
9893.00,1.30
9892.00,1.30
9891.00,1.29
9890.00,1.29
9889.00,1.28
9888.00,1.28
9887.00,1.27
9886.00,1.27
9885.00,1.26
9884.00,1.26
9883.00,1.25
9882.00,1.25
9881.00,1.24
9880.00,1.24
9879.00,1.23
9878.00,1.23
9877.00,1.23
9876.00,1.22
9875.00,1.22
9874.00,1.21
9873.00,1.21
9872.00,1.20
9871.00,1.20
9870.00,1.19
9869.00,1.19
9868.00,1.18
9867.00,1.18
9866.00,1.17
9865.00,1.17
9864.00,1.16
9863.00,1.16
9862.00,1.16
9861.00,1.15
9860.00,1.15
9859.00,1.14
9858.00,1.14
9857.00,1.14
9856.00,1.13
9855.00,1.13
9854.00,1.13
9853.00,1.13
9852.00,1.13
9851.00,1.12
9850.00,1.12
9849.00,1.12
9848.00,1.12
9847.00,1.12
9846.00,1.12
9845.00,1.12
9844.00,1.12
9843.00,1.12
9842.00,1.12
9841.00,1.12
9840.00,1.13
9839.00,1.13
9838.00,1.13
9837.00,1.13
9836.00,1.13
9835.00,1.13
9834.00,1.13
9833.00,1.14
9832.00,1.14
9831.00,1.14
9830.00,1.14
9829.00,1.14
9828.00,1.15
9827.00,1.15
9826.00,1.15
9825.00,1.15
9824.00,1.15
9823.00,1.16
9822.00,1.16
9821.00,1.16
9820.00,1.16
9819.00,1.17
9818.00,1.17
9817.00,1.18
9816.00,1.19
9815.00,1.19
9814.00,1.20
9813.00,1.21
9812.00,1.22
9811.00,1.22
9810.00,1.23
9809.00,1.24
9808.00,1.24
9807.00,1.24
9806.00,1.25
9805.00,1.25
9804.00,1.25
9803.00,1.25
9802.00,1.25
9801.00,1.24
9800.00,1.24
9799.00,1.23
9798.00,1.23
9797.00,1.22
9796.00,1.21
9795.00,1.21
9794.00,1.20
9793.00,1.19
9792.00,1.18
9791.00,1.17
9790.00,1.16
9789.00,1.15
9788.00,1.14
9787.00,1.13
9786.00,1.11
9785.00,1.10
9784.00,1.09
9783.00,1.08
9782.00,1.07
9781.00,1.06
9780.00,1.06
9779.00,1.05
9778.00,1.05
9777.00,1.05
9776.00,1.05
9775.00,1.05
9774.00,1.05
9773.00,1.05
9772.00,1.05
9771.00,1.05
9770.00,1.05
9769.00,1.05
9768.00,1.06
9767.00,1.06
9766.00,1.06
9765.00,1.07
9764.00,1.07
9763.00,1.08
9762.00,1.08
9761.00,1.09
9760.00,1.10
9759.00,1.11
9758.00,1.11
9757.00,1.12
9756.00,1.13
9755.00,1.13
9754.00,1.14
9753.00,1.14
9752.00,1.15
9751.00,1.15
9750.00,1.16
9749.00,1.16
9748.00,1.16
9747.00,1.17
9746.00,1.18
9745.00,1.18
9744.00,1.19
9743.00,1.20
9742.00,1.20
9741.00,1.21
9740.00,1.22
9739.00,1.22
9738.00,1.23
9737.00,1.23
9736.00,1.24
9735.00,1.24
9734.00,1.25
9733.00,1.25
9732.00,1.26
9731.00,1.26
9730.00,1.26
9729.00,1.27
9728.00,1.27
9727.00,1.27
9726.00,1.28
9725.00,1.28
9724.00,1.28
9723.00,1.29
9722.00,1.29
9721.00,1.29
9720.00,1.29
9719.00,1.30
9718.00,1.30
9717.00,1.30
9716.00,1.30
9715.00,1.30
9714.00,1.30
9713.00,1.31
9712.00,1.31
9711.00,1.31
9710.00,1.31
9709.00,1.31
9708.00,1.32
9707.00,1.32
9706.00,1.32
9705.00,1.33
9704.00,1.33
9703.00,1.33
9702.00,1.33
9701.00,1.34
9700.00,1.34
9699.00,1.34
9698.00,1.34
9697.00,1.34
9696.00,1.34
9695.00,1.35
9694.00,1.35
9693.00,1.35
9692.00,1.35
9691.00,1.35
9690.00,1.35
9689.00,1.35
9688.00,1.35
9687.00,1.35
9686.00,1.35
9685.00,1.35
9684.00,1.34
9683.00,1.34
9682.00,1.34
9681.00,1.34
9680.00,1.34
9679.00,1.34
9678.00,1.33
9677.00,1.33
9676.00,1.33
9675.00,1.33
9674.00,1.33
9673.00,1.32
9672.00,1.32
9671.00,1.32
9670.00,1.32
9669.00,1.32
9668.00,1.32
9667.00,1.32
9666.00,1.32
9665.00,1.31
9664.00,1.31
9663.00,1.31
9662.00,1.30
9661.00,1.30
9660.00,1.30
9659.00,1.29
9658.00,1.29
9657.00,1.28
9656.00,1.28
9655.00,1.28
9654.00,1.27
9653.00,1.27
9652.00,1.27
9651.00,1.27
9650.00,1.26
9649.00,1.26
9648.00,1.26
9647.00,1.25
9646.00,1.25
9645.00,1.25
9644.00,1.24
9643.00,1.24
9642.00,1.24
9641.00,1.23
9640.00,1.23
9639.00,1.23
9638.00,1.23
9637.00,1.23
9636.00,1.23
9635.00,1.23
9634.00,1.23
9633.00,1.23
9632.00,1.24
9631.00,1.24
9630.00,1.24
9629.00,1.24
9628.00,1.24
9627.00,1.24
9626.00,1.24
9625.00,1.23
9624.00,1.23
9623.00,1.23
9622.00,1.23
9621.00,1.22
9620.00,1.22
9619.00,1.21
9618.00,1.21
9617.00,1.21
9616.00,1.20
9615.00,1.20
9614.00,1.19
9613.00,1.19
9612.00,1.18
9611.00,1.17
9610.00,1.17
9609.00,1.16
9608.00,1.15
9607.00,1.15
9606.00,1.14
9605.00,1.14
9604.00,1.13
9603.00,1.13
9602.00,1.12
9601.00,1.12
9600.00,1.12
9599.00,1.12
9598.00,1.12
9597.00,1.12
9596.00,1.12
9595.00,1.12
9594.00,1.13
9593.00,1.13
9592.00,1.14
9591.00,1.14
9590.00,1.15
9589.00,1.16
9588.00,1.17
9587.00,1.17
9586.00,1.18
9585.00,1.19
9584.00,1.20
9583.00,1.21
9582.00,1.22
9581.00,1.23
9580.00,1.24
9579.00,1.25
9578.00,1.25
9577.00,1.26
9576.00,1.27
9575.00,1.27
9574.00,1.28
9573.00,1.28
9572.00,1.28
9571.00,1.29
9570.00,1.29
9569.00,1.29
9568.00,1.29
9567.00,1.29
9566.00,1.29
9565.00,1.28
9564.00,1.28
9563.00,1.28
9562.00,1.27
9561.00,1.27
9560.00,1.27
9559.00,1.26
9558.00,1.26
9557.00,1.25
9556.00,1.24
9555.00,1.24
9554.00,1.23
9553.00,1.23
9552.00,1.22
9551.00,1.22
9550.00,1.22
9549.00,1.21
9548.00,1.21
9547.00,1.21
9546.00,1.21
9545.00,1.21
9544.00,1.21
9543.00,1.21
9542.00,1.22
9541.00,1.22
9540.00,1.22
9539.00,1.22
9538.00,1.22
9537.00,1.23
9536.00,1.23
9535.00,1.23
9534.00,1.23
9533.00,1.23
9532.00,1.23
9531.00,1.24
9530.00,1.24
9529.00,1.24
9528.00,1.24
9527.00,1.24
9526.00,1.24
9525.00,1.24
9524.00,1.24
9523.00,1.25
9522.00,1.25
9521.00,1.25
9520.00,1.24
9519.00,1.24
9518.00,1.24
9517.00,1.24
9516.00,1.23
9515.00,1.23
9514.00,1.22
9513.00,1.22
9512.00,1.21
9511.00,1.21
9510.00,1.21
9509.00,1.21
9508.00,1.20
9507.00,1.20
9506.00,1.20
9505.00,1.20
9504.00,1.20
9503.00,1.20
9502.00,1.20
9501.00,1.20
9500.00,1.20
9499.00,1.19
9498.00,1.19
9497.00,1.19
9496.00,1.18
9495.00,1.18
9494.00,1.18
9493.00,1.17
9492.00,1.17
9491.00,1.17
9490.00,1.17
9489.00,1.17
9488.00,1.17
9487.00,1.17
9486.00,1.17
9485.00,1.17
9484.00,1.17
9483.00,1.16
9482.00,1.16
9481.00,1.16
9480.00,1.15
9479.00,1.15
9478.00,1.15
9477.00,1.14
9476.00,1.14
9475.00,1.14
9474.00,1.14
9473.00,1.14
9472.00,1.14
9471.00,1.14
9470.00,1.14
9469.00,1.14
9468.00,1.15
9467.00,1.15
9466.00,1.15
9465.00,1.15
9464.00,1.15
9463.00,1.16
9462.00,1.16
9461.00,1.16
9460.00,1.16
9459.00,1.16
9458.00,1.17
9457.00,1.17
9456.00,1.17
9455.00,1.18
9454.00,1.18
9453.00,1.19
9452.00,1.19
9451.00,1.19
9450.00,1.20
9449.00,1.20
9448.00,1.20
9447.00,1.20
9446.00,1.20
9445.00,1.20
9444.00,1.20
9443.00,1.21
9442.00,1.21
9441.00,1.21
9440.00,1.21
9439.00,1.21
9438.00,1.21
9437.00,1.22
9436.00,1.22
9435.00,1.22
9434.00,1.22
9433.00,1.23
9432.00,1.23
9431.00,1.23
9430.00,1.23
9429.00,1.24
9428.00,1.24
9427.00,1.24
9426.00,1.24
9425.00,1.25
9424.00,1.25
9423.00,1.25
9422.00,1.25
9421.00,1.26
9420.00,1.26
9419.00,1.26
9418.00,1.27
9417.00,1.27
9416.00,1.27
9415.00,1.27
9414.00,1.27
9413.00,1.27
9412.00,1.28
9411.00,1.28
9410.00,1.27
9409.00,1.27
9408.00,1.27
9407.00,1.27
9406.00,1.27
9405.00,1.27
9404.00,1.27
9403.00,1.27
9402.00,1.27
9401.00,1.26
9400.00,1.26
9399.00,1.26
9398.00,1.26
9397.00,1.26
9396.00,1.27
9395.00,1.27
9394.00,1.27
9393.00,1.27
9392.00,1.27
9391.00,1.28
9390.00,1.28
9389.00,1.28
9388.00,1.28
9387.00,1.28
9386.00,1.28
9385.00,1.28
9384.00,1.28
9383.00,1.28
9382.00,1.28
9381.00,1.28
9380.00,1.28
9379.00,1.28
9378.00,1.28
9377.00,1.28
9376.00,1.27
9375.00,1.27
9374.00,1.27
9373.00,1.27
9372.00,1.26
9371.00,1.26
9370.00,1.25
9369.00,1.25
9368.00,1.24
9367.00,1.24
9366.00,1.23
9365.00,1.22
9364.00,1.21
9363.00,1.21
9362.00,1.20
9361.00,1.20
9360.00,1.19
9359.00,1.18
9358.00,1.18
9357.00,1.18
9356.00,1.17
9355.00,1.17
9354.00,1.16
9353.00,1.16
9352.00,1.16
9351.00,1.15
9350.00,1.15
9349.00,1.15
9348.00,1.15
9347.00,1.15
9346.00,1.15
9345.00,1.15
9344.00,1.15
9343.00,1.14
9342.00,1.14
9341.00,1.14
9340.00,1.15
9339.00,1.15
9338.00,1.15
9337.00,1.15
9336.00,1.15
9335.00,1.15
9334.00,1.15
9333.00,1.16
9332.00,1.16
9331.00,1.16
9330.00,1.16
9329.00,1.16
9328.00,1.16
9327.00,1.16
9326.00,1.16
9325.00,1.16
9324.00,1.16
9323.00,1.16
9322.00,1.16
9321.00,1.16
9320.00,1.16
9319.00,1.17
9318.00,1.17
9317.00,1.17
9316.00,1.17
9315.00,1.17
9314.00,1.17
9313.00,1.17
9312.00,1.17
9311.00,1.17
9310.00,1.17
9309.00,1.17
9308.00,1.17
9307.00,1.17
9306.00,1.17
9305.00,1.17
9304.00,1.17
9303.00,1.17
9302.00,1.17
9301.00,1.18
9300.00,1.18
9299.00,1.18
9298.00,1.18
9297.00,1.18
9296.00,1.18
9295.00,1.17
9294.00,1.17
9293.00,1.17
9292.00,1.17
9291.00,1.17
9290.00,1.16
9289.00,1.16
9288.00,1.16
9287.00,1.15
9286.00,1.15
9285.00,1.15
9284.00,1.15
9283.00,1.14
9282.00,1.14
9281.00,1.14
9280.00,1.14
9279.00,1.13
9278.00,1.13
9277.00,1.13
9276.00,1.12
9275.00,1.12
9274.00,1.12
9273.00,1.12
9272.00,1.12
9271.00,1.12
9270.00,1.12
9269.00,1.12
9268.00,1.12
9267.00,1.13
9266.00,1.13
9265.00,1.14
9264.00,1.15
9263.00,1.16
9262.00,1.16
9261.00,1.17
9260.00,1.18
9259.00,1.18
9258.00,1.19
9257.00,1.20
9256.00,1.20
9255.00,1.21
9254.00,1.21
9253.00,1.22
9252.00,1.22
9251.00,1.23
9250.00,1.23
9249.00,1.24
9248.00,1.24
9247.00,1.25
9246.00,1.25
9245.00,1.25
9244.00,1.25
9243.00,1.25
9242.00,1.25
9241.00,1.25
9240.00,1.25
9239.00,1.24
9238.00,1.24
9237.00,1.23
9236.00,1.23
9235.00,1.22
9234.00,1.21
9233.00,1.21
9232.00,1.20
9231.00,1.20
9230.00,1.20
9229.00,1.19
9228.00,1.19
9227.00,1.19
9226.00,1.18
9225.00,1.18
9224.00,1.18
9223.00,1.18
9222.00,1.18
9221.00,1.18
9220.00,1.18
9219.00,1.18
9218.00,1.18
9217.00,1.18
9216.00,1.18
9215.00,1.18
9214.00,1.18
9213.00,1.18
9212.00,1.19
9211.00,1.19
9210.00,1.19
9209.00,1.20
9208.00,1.20
9207.00,1.20
9206.00,1.21
9205.00,1.21
9204.00,1.21
9203.00,1.21
9202.00,1.21
9201.00,1.21
9200.00,1.21
9199.00,1.20
9198.00,1.20
9197.00,1.20
9196.00,1.19
9195.00,1.19
9194.00,1.18
9193.00,1.18
9192.00,1.17
9191.00,1.17
9190.00,1.16
9189.00,1.15
9188.00,1.15
9187.00,1.14
9186.00,1.14
9185.00,1.13
9184.00,1.13
9183.00,1.12
9182.00,1.12
9181.00,1.12
9180.00,1.12
9179.00,1.12
9178.00,1.12
9177.00,1.12
9176.00,1.12
9175.00,1.12
9174.00,1.13
9173.00,1.13
9172.00,1.14
9171.00,1.14
9170.00,1.15
9169.00,1.15
9168.00,1.16
9167.00,1.17
9166.00,1.18
9165.00,1.18
9164.00,1.19
9163.00,1.20
9162.00,1.21
9161.00,1.22
9160.00,1.23
9159.00,1.24
9158.00,1.24
9157.00,1.25
9156.00,1.25
9155.00,1.25
9154.00,1.25
9153.00,1.25
9152.00,1.25
9151.00,1.25
9150.00,1.25
9149.00,1.25
9148.00,1.25
9147.00,1.24
9146.00,1.24
9145.00,1.24
9144.00,1.24
9143.00,1.23
9142.00,1.23
9141.00,1.22
9140.00,1.22
9139.00,1.21
9138.00,1.21
9137.00,1.20
9136.00,1.20
9135.00,1.19
9134.00,1.19
9133.00,1.18
9132.00,1.17
9131.00,1.17
9130.00,1.17
9129.00,1.16
9128.00,1.16
9127.00,1.16
9126.00,1.16
9125.00,1.16
9124.00,1.16
9123.00,1.16
9122.00,1.16
9121.00,1.16
9120.00,1.16
9119.00,1.16
9118.00,1.16
9117.00,1.16
9116.00,1.16
9115.00,1.16
9114.00,1.16
9113.00,1.16
9112.00,1.16
9111.00,1.17
9110.00,1.17
9109.00,1.17
9108.00,1.18
9107.00,1.18
9106.00,1.19
9105.00,1.19
9104.00,1.20
9103.00,1.20
9102.00,1.21
9101.00,1.21
9100.00,1.22
9099.00,1.22
9098.00,1.23
9097.00,1.23
9096.00,1.24
9095.00,1.24
9094.00,1.25
9093.00,1.25
9092.00,1.26
9091.00,1.27
9090.00,1.27
9089.00,1.28
9088.00,1.29
9087.00,1.29
9086.00,1.30
9085.00,1.30
9084.00,1.31
9083.00,1.31
9082.00,1.32
9081.00,1.32
9080.00,1.32
9079.00,1.32
9078.00,1.32
9077.00,1.33
9076.00,1.33
9075.00,1.33
9074.00,1.33
9073.00,1.33
9072.00,1.33
9071.00,1.33
9070.00,1.32
9069.00,1.32
9068.00,1.32
9067.00,1.32
9066.00,1.31
9065.00,1.31
9064.00,1.30
9063.00,1.30
9062.00,1.29
9061.00,1.29
9060.00,1.28
9059.00,1.27
9058.00,1.27
9057.00,1.26
9056.00,1.25
9055.00,1.25
9054.00,1.24
9053.00,1.24
9052.00,1.23
9051.00,1.23
9050.00,1.23
9049.00,1.22
9048.00,1.22
9047.00,1.22
9046.00,1.22
9045.00,1.22
9044.00,1.22
9043.00,1.22
9042.00,1.22
9041.00,1.22
9040.00,1.22
9039.00,1.22
9038.00,1.22
9037.00,1.22
9036.00,1.22
9035.00,1.22
9034.00,1.22
9033.00,1.22
9032.00,1.22
9031.00,1.22
9030.00,1.22
9029.00,1.22
9028.00,1.22
9027.00,1.22
9026.00,1.22
9025.00,1.22
9024.00,1.21
9023.00,1.21
9022.00,1.21
9021.00,1.21
9020.00,1.20
9019.00,1.20
9018.00,1.20
9017.00,1.19
9016.00,1.19
9015.00,1.19
9014.00,1.19
9013.00,1.18
9012.00,1.18
9011.00,1.18
9010.00,1.18
9009.00,1.19
9008.00,1.19
9007.00,1.19
9006.00,1.19
9005.00,1.20
9004.00,1.20
9003.00,1.21
9002.00,1.21
9001.00,1.22
9000.00,1.23
8999.00,1.23
8998.00,1.24
8997.00,1.24
8996.00,1.25
8995.00,1.25
8994.00,1.25
8993.00,1.26
8992.00,1.26
8991.00,1.26
8990.00,1.27
8989.00,1.27
8988.00,1.27
8987.00,1.27
8986.00,1.27
8985.00,1.27
8984.00,1.27
8983.00,1.27
8982.00,1.27
8981.00,1.27
8980.00,1.27
8979.00,1.26
8978.00,1.26
8977.00,1.26
8976.00,1.25
8975.00,1.25
8974.00,1.25
8973.00,1.25
8972.00,1.25
8971.00,1.25
8970.00,1.25
8969.00,1.25
8968.00,1.25
8967.00,1.26
8966.00,1.26
8965.00,1.27
8964.00,1.27
8963.00,1.28
8962.00,1.28
8961.00,1.29
8960.00,1.30
8959.00,1.30
8958.00,1.31
8957.00,1.32
8956.00,1.32
8955.00,1.33
8954.00,1.33
8953.00,1.34
8952.00,1.34
8951.00,1.35
8950.00,1.35
8949.00,1.35
8948.00,1.35
8947.00,1.35
8946.00,1.35
8945.00,1.35
8944.00,1.35
8943.00,1.34
8942.00,1.34
8941.00,1.33
8940.00,1.33
8939.00,1.32
8938.00,1.31
8937.00,1.30
8936.00,1.29
8935.00,1.28
8934.00,1.27
8933.00,1.26
8932.00,1.25
8931.00,1.24
8930.00,1.23
8929.00,1.22
8928.00,1.21
8927.00,1.20
8926.00,1.19
8925.00,1.19
8924.00,1.18
8923.00,1.17
8922.00,1.17
8921.00,1.16
8920.00,1.16
8919.00,1.15
8918.00,1.15
8917.00,1.15
8916.00,1.15
8915.00,1.15
8914.00,1.15
8913.00,1.15
8912.00,1.15
8911.00,1.15
8910.00,1.15
8909.00,1.15
8908.00,1.16
8907.00,1.16
8906.00,1.16
8905.00,1.17
8904.00,1.17
8903.00,1.18
8902.00,1.18
8901.00,1.19
8900.00,1.19
8899.00,1.20
8898.00,1.20
8897.00,1.21
8896.00,1.21
8895.00,1.22
8894.00,1.22
8893.00,1.23
8892.00,1.23
8891.00,1.23
8890.00,1.24
8889.00,1.24
8888.00,1.25
8887.00,1.25
8886.00,1.26
8885.00,1.26
8884.00,1.27
8883.00,1.28
8882.00,1.28
8881.00,1.29
8880.00,1.30
8879.00,1.30
8878.00,1.31
8877.00,1.32
8876.00,1.32
8875.00,1.33
8874.00,1.33
8873.00,1.34
8872.00,1.34
8871.00,1.35
8870.00,1.35
8869.00,1.35
8868.00,1.36
8867.00,1.36
8866.00,1.37
8865.00,1.37
8864.00,1.37
8863.00,1.38
8862.00,1.38
8861.00,1.38
8860.00,1.38
8859.00,1.38
8858.00,1.38
8857.00,1.38
8856.00,1.38
8855.00,1.37
8854.00,1.37
8853.00,1.37
8852.00,1.36
8851.00,1.36
8850.00,1.35
8849.00,1.35
8848.00,1.34
8847.00,1.34
8846.00,1.33
8845.00,1.33
8844.00,1.32
8843.00,1.32
8842.00,1.32
8841.00,1.31
8840.00,1.31
8839.00,1.30
8838.00,1.30
8837.00,1.29
8836.00,1.28
8835.00,1.28
8834.00,1.28
8833.00,1.27
8832.00,1.27
8831.00,1.27
8830.00,1.26
8829.00,1.26
8828.00,1.26
8827.00,1.26
8826.00,1.25
8825.00,1.25
8824.00,1.25
8823.00,1.25
8822.00,1.24
8821.00,1.24
8820.00,1.24
8819.00,1.23
8818.00,1.23
8817.00,1.22
8816.00,1.22
8815.00,1.22
8814.00,1.21
8813.00,1.21
8812.00,1.21
8811.00,1.21
8810.00,1.21
8809.00,1.21
8808.00,1.21
8807.00,1.21
8806.00,1.21
8805.00,1.21
8804.00,1.21
8803.00,1.21
8802.00,1.21
8801.00,1.21
8800.00,1.21
8799.00,1.21
8798.00,1.22
8797.00,1.22
8796.00,1.23
8795.00,1.23
8794.00,1.24
8793.00,1.24
8792.00,1.25
8791.00,1.25
8790.00,1.26
8789.00,1.26
8788.00,1.27
8787.00,1.27
8786.00,1.28
8785.00,1.28
8784.00,1.28
8783.00,1.28
8782.00,1.28
8781.00,1.28
8780.00,1.28
8779.00,1.28
8778.00,1.28
8777.00,1.28
8776.00,1.28
8775.00,1.28
8774.00,1.27
8773.00,1.27
8772.00,1.27
8771.00,1.27
8770.00,1.27
8769.00,1.26
8768.00,1.26
8767.00,1.26
8766.00,1.25
8765.00,1.25
8764.00,1.25
8763.00,1.24
8762.00,1.24
8761.00,1.24
8760.00,1.24
8759.00,1.24
8758.00,1.24
8757.00,1.24
8756.00,1.24
8755.00,1.24
8754.00,1.24
8753.00,1.25
8752.00,1.25
8751.00,1.25
8750.00,1.25
8749.00,1.26
8748.00,1.26
8747.00,1.26
8746.00,1.26
8745.00,1.27
8744.00,1.27
8743.00,1.27
8742.00,1.27
8741.00,1.27
8740.00,1.28
8739.00,1.28
8738.00,1.28
8737.00,1.28
8736.00,1.29
8735.00,1.29
8734.00,1.29
8733.00,1.29
8732.00,1.29
8731.00,1.29
8730.00,1.29
8729.00,1.28
8728.00,1.28
8727.00,1.28
8726.00,1.27
8725.00,1.27
8724.00,1.26
8723.00,1.26
8722.00,1.25
8721.00,1.25
8720.00,1.25
8719.00,1.24
8718.00,1.24
8717.00,1.24
8716.00,1.23
8715.00,1.23
8714.00,1.22
8713.00,1.22
8712.00,1.22
8711.00,1.21
8710.00,1.21
8709.00,1.20
8708.00,1.20
8707.00,1.20
8706.00,1.20
8705.00,1.20
8704.00,1.20
8703.00,1.20
8702.00,1.20
8701.00,1.21
8700.00,1.21
8699.00,1.21
8698.00,1.22
8697.00,1.22
8696.00,1.23
8695.00,1.23
8694.00,1.24
8693.00,1.24
8692.00,1.25
8691.00,1.26
8690.00,1.26
8689.00,1.27
8688.00,1.28
8687.00,1.28
8686.00,1.29
8685.00,1.30
8684.00,1.30
8683.00,1.31
8682.00,1.32
8681.00,1.32
8680.00,1.33
8679.00,1.33
8678.00,1.34
8677.00,1.34
8676.00,1.35
8675.00,1.35
8674.00,1.35
8673.00,1.35
8672.00,1.35
8671.00,1.35
8670.00,1.35
8669.00,1.35
8668.00,1.35
8667.00,1.35
8666.00,1.35
8665.00,1.35
8664.00,1.34
8663.00,1.34
8662.00,1.34
8661.00,1.33
8660.00,1.33
8659.00,1.33
8658.00,1.32
8657.00,1.32
8656.00,1.31
8655.00,1.31
8654.00,1.30
8653.00,1.30
8652.00,1.29
8651.00,1.28
8650.00,1.27
8649.00,1.27
8648.00,1.26
8647.00,1.25
8646.00,1.24
8645.00,1.24
8644.00,1.23
8643.00,1.23
8642.00,1.22
8641.00,1.22
8640.00,1.21
8639.00,1.21
8638.00,1.20
8637.00,1.20
8636.00,1.19
8635.00,1.19
8634.00,1.19
8633.00,1.18
8632.00,1.18
8631.00,1.18
8630.00,1.18
8629.00,1.18
8628.00,1.18
8627.00,1.18
8626.00,1.18
8625.00,1.18
8624.00,1.19
8623.00,1.19
8622.00,1.20
8621.00,1.20
8620.00,1.21
8619.00,1.21
8618.00,1.22
8617.00,1.22
8616.00,1.23
8615.00,1.23
8614.00,1.23
8613.00,1.24
8612.00,1.24
8611.00,1.24
8610.00,1.25
8609.00,1.25
8608.00,1.25
8607.00,1.25
8606.00,1.26
8605.00,1.26
8604.00,1.26
8603.00,1.26
8602.00,1.26
8601.00,1.26
8600.00,1.26
8599.00,1.26
8598.00,1.26
8597.00,1.26
8596.00,1.25
8595.00,1.25
8594.00,1.25
8593.00,1.25
8592.00,1.24
8591.00,1.24
8590.00,1.24
8589.00,1.24
8588.00,1.23
8587.00,1.23
8586.00,1.23
8585.00,1.23
8584.00,1.23
8583.00,1.23
8582.00,1.23
8581.00,1.23
8580.00,1.23
8579.00,1.23
8578.00,1.23
8577.00,1.23
8576.00,1.22
8575.00,1.22
8574.00,1.22
8573.00,1.22
8572.00,1.22
8571.00,1.21
8570.00,1.21
8569.00,1.21
8568.00,1.21
8567.00,1.21
8566.00,1.21
8565.00,1.21
8564.00,1.20
8563.00,1.20
8562.00,1.20
8561.00,1.20
8560.00,1.20
8559.00,1.20
8558.00,1.19
8557.00,1.19
8556.00,1.19
8555.00,1.19
8554.00,1.19
8553.00,1.19
8552.00,1.19
8551.00,1.19
8550.00,1.19
8549.00,1.20
8548.00,1.20
8547.00,1.20
8546.00,1.20
8545.00,1.21
8544.00,1.21
8543.00,1.21
8542.00,1.21
8541.00,1.21
8540.00,1.21
8539.00,1.22
8538.00,1.22
8537.00,1.22
8536.00,1.22
8535.00,1.22
8534.00,1.22
8533.00,1.22
8532.00,1.22
8531.00,1.22
8530.00,1.22
8529.00,1.21
8528.00,1.21
8527.00,1.21
8526.00,1.21
8525.00,1.20
8524.00,1.20
8523.00,1.20
8522.00,1.19
8521.00,1.19
8520.00,1.19
8519.00,1.18
8518.00,1.18
8517.00,1.18
8516.00,1.17
8515.00,1.17
8514.00,1.17
8513.00,1.17
8512.00,1.16
8511.00,1.16
8510.00,1.16
8509.00,1.16
8508.00,1.15
8507.00,1.15
8506.00,1.15
8505.00,1.15
8504.00,1.15
8503.00,1.15
8502.00,1.15
8501.00,1.15
8500.00,1.15
8499.00,1.15
8498.00,1.15
8497.00,1.15
8496.00,1.15
8495.00,1.15
8494.00,1.15
8493.00,1.15
8492.00,1.15
8491.00,1.15
8490.00,1.15
8489.00,1.15
8488.00,1.16
8487.00,1.16
8486.00,1.16
8485.00,1.16
8484.00,1.16
8483.00,1.16
8482.00,1.16
8481.00,1.16
8480.00,1.16
8479.00,1.15
8478.00,1.15
8477.00,1.15
8476.00,1.15
8475.00,1.15
8474.00,1.16
8473.00,1.16
8472.00,1.16
8471.00,1.16
8470.00,1.16
8469.00,1.16
8468.00,1.16
8467.00,1.16
8466.00,1.16
8465.00,1.16
8464.00,1.16
8463.00,1.16
8462.00,1.16
8461.00,1.16
8460.00,1.16
8459.00,1.16
8458.00,1.16
8457.00,1.16
8456.00,1.16
8455.00,1.16
8454.00,1.17
8453.00,1.17
8452.00,1.17
8451.00,1.17
8450.00,1.17
8449.00,1.18
8448.00,1.18
8447.00,1.18
8446.00,1.18
8445.00,1.18
8444.00,1.18
8443.00,1.19
8442.00,1.19
8441.00,1.19
8440.00,1.19
8439.00,1.20
8438.00,1.20
8437.00,1.20
8436.00,1.20
8435.00,1.21
8434.00,1.21
8433.00,1.21
8432.00,1.21
8431.00,1.21
8430.00,1.21
8429.00,1.21
8428.00,1.21
8427.00,1.21
8426.00,1.21
8425.00,1.22
8424.00,1.21
8423.00,1.21
8422.00,1.21
8421.00,1.21
8420.00,1.21
8419.00,1.21
8418.00,1.21
8417.00,1.21
8416.00,1.21
8415.00,1.21
8414.00,1.20
8413.00,1.20
8412.00,1.20
8411.00,1.20
8410.00,1.20
8409.00,1.20
8408.00,1.20
8407.00,1.20
8406.00,1.20
8405.00,1.20
8404.00,1.20
8403.00,1.20
8402.00,1.20
8401.00,1.20
8400.00,1.20
8399.00,1.20
8398.00,1.20
8397.00,1.21
8396.00,1.21
8395.00,1.21
8394.00,1.21
8393.00,1.21
8392.00,1.22
8391.00,1.22
8390.00,1.22
8389.00,1.22
8388.00,1.22
8387.00,1.22
8386.00,1.22
8385.00,1.22
8384.00,1.22
8383.00,1.22
8382.00,1.22
8381.00,1.22
8380.00,1.22
8379.00,1.22
8378.00,1.22
8377.00,1.22
8376.00,1.22
8375.00,1.21
8374.00,1.21
8373.00,1.21
8372.00,1.21
8371.00,1.20
8370.00,1.20
8369.00,1.20
8368.00,1.20
8367.00,1.20
8366.00,1.20
8365.00,1.20
8364.00,1.20
8363.00,1.20
8362.00,1.20
8361.00,1.20
8360.00,1.20
8359.00,1.20
8358.00,1.20
8357.00,1.20
8356.00,1.21
8355.00,1.21
8354.00,1.21
8353.00,1.22
8352.00,1.22
8351.00,1.23
8350.00,1.23
8349.00,1.24
8348.00,1.24
8347.00,1.25
8346.00,1.25
8345.00,1.26
8344.00,1.26
8343.00,1.26
8342.00,1.27
8341.00,1.27
8340.00,1.27
8339.00,1.27
8338.00,1.27
8337.00,1.27
8336.00,1.27
8335.00,1.27
8334.00,1.27
8333.00,1.27
8332.00,1.27
8331.00,1.26
8330.00,1.26
8329.00,1.26
8328.00,1.26
8327.00,1.25
8326.00,1.25
8325.00,1.25
8324.00,1.24
8323.00,1.24
8322.00,1.24
8321.00,1.23
8320.00,1.23
8319.00,1.23
8318.00,1.23
8317.00,1.23
8316.00,1.22
8315.00,1.22
8314.00,1.22
8313.00,1.22
8312.00,1.22
8311.00,1.22
8310.00,1.22
8309.00,1.22
8308.00,1.22
8307.00,1.22
8306.00,1.22
8305.00,1.22
8304.00,1.22
8303.00,1.23
8302.00,1.23
8301.00,1.23
8300.00,1.23
8299.00,1.23
8298.00,1.23
8297.00,1.22
8296.00,1.22
8295.00,1.22
8294.00,1.22
8293.00,1.22
8292.00,1.22
8291.00,1.22
8290.00,1.22
8289.00,1.22
8288.00,1.22
8287.00,1.22
8286.00,1.22
8285.00,1.22
8284.00,1.22
8283.00,1.22
8282.00,1.22
8281.00,1.22
8280.00,1.22
8279.00,1.22
8278.00,1.22
8277.00,1.22
8276.00,1.22
8275.00,1.22
8274.00,1.23
8273.00,1.23
8272.00,1.23
8271.00,1.23
8270.00,1.24
8269.00,1.24
8268.00,1.24
8267.00,1.25
8266.00,1.25
8265.00,1.25
8264.00,1.26
8263.00,1.26
8262.00,1.26
8261.00,1.27
8260.00,1.27
8259.00,1.28
8258.00,1.28
8257.00,1.28
8256.00,1.29
8255.00,1.29
8254.00,1.29
8253.00,1.29
8252.00,1.29
8251.00,1.29
8250.00,1.29
8249.00,1.29
8248.00,1.29
8247.00,1.29
8246.00,1.29
8245.00,1.29
8244.00,1.28
8243.00,1.28
8242.00,1.28
8241.00,1.28
8240.00,1.27
8239.00,1.27
8238.00,1.27
8237.00,1.26
8236.00,1.26
8235.00,1.25
8234.00,1.25
8233.00,1.24
8232.00,1.23
8231.00,1.23
8230.00,1.22
8229.00,1.22
8228.00,1.22
8227.00,1.21
8226.00,1.21
8225.00,1.21
8224.00,1.21
8223.00,1.21
8222.00,1.21
8221.00,1.21
8220.00,1.21
8219.00,1.21
8218.00,1.21
8217.00,1.22
8216.00,1.22
8215.00,1.22
8214.00,1.22
8213.00,1.23
8212.00,1.23
8211.00,1.23
8210.00,1.24
8209.00,1.25
8208.00,1.25
8207.00,1.26
8206.00,1.26
8205.00,1.27
8204.00,1.28
8203.00,1.28
8202.00,1.29
8201.00,1.29
8200.00,1.29
8199.00,1.30
8198.00,1.30
8197.00,1.30
8196.00,1.30
8195.00,1.31
8194.00,1.31
8193.00,1.31
8192.00,1.31
8191.00,1.31
8190.00,1.31
8189.00,1.31
8188.00,1.31
8187.00,1.30
8186.00,1.30
8185.00,1.30
8184.00,1.29
8183.00,1.29
8182.00,1.29
8181.00,1.28
8180.00,1.28
8179.00,1.27
8178.00,1.27
8177.00,1.26
8176.00,1.26
8175.00,1.25
8174.00,1.25
8173.00,1.24
8172.00,1.24
8171.00,1.24
8170.00,1.23
8169.00,1.23
8168.00,1.23
8167.00,1.22
8166.00,1.22
8165.00,1.22
8164.00,1.22
8163.00,1.21
8162.00,1.21
8161.00,1.21
8160.00,1.21
8159.00,1.20
8158.00,1.20
8157.00,1.20
8156.00,1.20
8155.00,1.20
8154.00,1.20
8153.00,1.20
8152.00,1.20
8151.00,1.20
8150.00,1.20
8149.00,1.20
8148.00,1.20
8147.00,1.20
8146.00,1.20
8145.00,1.20
8144.00,1.20
8143.00,1.21
8142.00,1.21
8141.00,1.21
8140.00,1.21
8139.00,1.21
8138.00,1.22
8137.00,1.22
8136.00,1.22
8135.00,1.23
8134.00,1.23
8133.00,1.24
8132.00,1.24
8131.00,1.25
8130.00,1.26
8129.00,1.26
8128.00,1.27
8127.00,1.27
8126.00,1.28
8125.00,1.28
8124.00,1.29
8123.00,1.29
8122.00,1.30
8121.00,1.30
8120.00,1.31
8119.00,1.31
8118.00,1.32
8117.00,1.32
8116.00,1.33
8115.00,1.33
8114.00,1.34
8113.00,1.34
8112.00,1.34
8111.00,1.35
8110.00,1.35
8109.00,1.35
8108.00,1.36
8107.00,1.36
8106.00,1.36
8105.00,1.36
8104.00,1.36
8103.00,1.36
8102.00,1.37
8101.00,1.37
8100.00,1.37
8099.00,1.37
8098.00,1.37
8097.00,1.37
8096.00,1.37
8095.00,1.37
8094.00,1.37
8093.00,1.36
8092.00,1.36
8091.00,1.36
8090.00,1.36
8089.00,1.36
8088.00,1.36
8087.00,1.35
8086.00,1.35
8085.00,1.35
8084.00,1.35
8083.00,1.35
8082.00,1.34
8081.00,1.34
8080.00,1.34
8079.00,1.34
8078.00,1.34
8077.00,1.33
8076.00,1.33
8075.00,1.33
8074.00,1.33
8073.00,1.32
8072.00,1.32
8071.00,1.32
8070.00,1.32
8069.00,1.31
8068.00,1.31
8067.00,1.31
8066.00,1.31
8065.00,1.31
8064.00,1.31
8063.00,1.31
8062.00,1.31
8061.00,1.31
8060.00,1.31
8059.00,1.31
8058.00,1.32
8057.00,1.32
8056.00,1.32
8055.00,1.32
8054.00,1.32
8053.00,1.32
8052.00,1.32
8051.00,1.32
8050.00,1.32
8049.00,1.32
8048.00,1.33
8047.00,1.33
8046.00,1.33
8045.00,1.33
8044.00,1.33
8043.00,1.33
8042.00,1.33
8041.00,1.33
8040.00,1.33
8039.00,1.33
8038.00,1.33
8037.00,1.33
8036.00,1.33
8035.00,1.33
8034.00,1.33
8033.00,1.33
8032.00,1.33
8031.00,1.33
8030.00,1.33
8029.00,1.33
8028.00,1.33
8027.00,1.33
8026.00,1.33
8025.00,1.34
8024.00,1.34
8023.00,1.34
8022.00,1.34
8021.00,1.34
8020.00,1.34
8019.00,1.34
8018.00,1.34
8017.00,1.34
8016.00,1.35
8015.00,1.35
8014.00,1.35
8013.00,1.35
8012.00,1.35
8011.00,1.35
8010.00,1.35
8009.00,1.35
8008.00,1.35
8007.00,1.34
8006.00,1.34
8005.00,1.34
8004.00,1.34
8003.00,1.34
8002.00,1.34
8001.00,1.33
8000.00,1.33
7999.00,1.33
7998.00,1.32
7997.00,1.32
7996.00,1.32
7995.00,1.31
7994.00,1.31
7993.00,1.31
7992.00,1.31
7991.00,1.31
7990.00,1.31
7989.00,1.31
7988.00,1.31
7987.00,1.31
7986.00,1.30
7985.00,1.30
7984.00,1.30
7983.00,1.30
7982.00,1.30
7981.00,1.30
7980.00,1.30
7979.00,1.30
7978.00,1.30
7977.00,1.31
7976.00,1.31
7975.00,1.31
7974.00,1.31
7973.00,1.31
7972.00,1.31
7971.00,1.31
7970.00,1.31
7969.00,1.31
7968.00,1.31
7967.00,1.31
7966.00,1.31
7965.00,1.31
7964.00,1.30
7963.00,1.30
7962.00,1.30
7961.00,1.30
7960.00,1.30
7959.00,1.30
7958.00,1.30
7957.00,1.30
7956.00,1.30
7955.00,1.30
7954.00,1.29
7953.00,1.29
7952.00,1.29
7951.00,1.29
7950.00,1.29
7949.00,1.29
7948.00,1.29
7947.00,1.29
7946.00,1.29
7945.00,1.29
7944.00,1.29
7943.00,1.29
7942.00,1.29
7941.00,1.29
7940.00,1.29
7939.00,1.29
7938.00,1.30
7937.00,1.30
7936.00,1.30
7935.00,1.31
7934.00,1.31
7933.00,1.31
7932.00,1.32
7931.00,1.32
7930.00,1.32
7929.00,1.33
7928.00,1.33
7927.00,1.33
7926.00,1.34
7925.00,1.34
7924.00,1.34
7923.00,1.35
7922.00,1.35
7921.00,1.35
7920.00,1.36
7919.00,1.36
7918.00,1.37
7917.00,1.37
7916.00,1.37
7915.00,1.38
7914.00,1.38
7913.00,1.38
7912.00,1.39
7911.00,1.39
7910.00,1.39
7909.00,1.39
7908.00,1.39
7907.00,1.39
7906.00,1.39
7905.00,1.39
7904.00,1.39
7903.00,1.39
7902.00,1.38
7901.00,1.38
7900.00,1.38
7899.00,1.38
7898.00,1.38
7897.00,1.38
7896.00,1.37
7895.00,1.37
7894.00,1.37
7893.00,1.37
7892.00,1.37
7891.00,1.37
7890.00,1.37
7889.00,1.36
7888.00,1.36
7887.00,1.36
7886.00,1.36
7885.00,1.36
7884.00,1.36
7883.00,1.36
7882.00,1.36
7881.00,1.36
7880.00,1.36
7879.00,1.35
7878.00,1.35
7877.00,1.35
7876.00,1.35
7875.00,1.35
7874.00,1.35
7873.00,1.35
7872.00,1.35
7871.00,1.34
7870.00,1.34
7869.00,1.34
7868.00,1.34
7867.00,1.33
7866.00,1.33
7865.00,1.33
7864.00,1.32
7863.00,1.32
7862.00,1.31
7861.00,1.31
7860.00,1.31
7859.00,1.30
7858.00,1.30
7857.00,1.29
7856.00,1.29
7855.00,1.29
7854.00,1.29
7853.00,1.29
7852.00,1.29
7851.00,1.29
7850.00,1.29
7849.00,1.29
7848.00,1.29
7847.00,1.29
7846.00,1.30
7845.00,1.30
7844.00,1.30
7843.00,1.31
7842.00,1.31
7841.00,1.31
7840.00,1.32
7839.00,1.32
7838.00,1.33
7837.00,1.33
7836.00,1.33
7835.00,1.34
7834.00,1.34
7833.00,1.35
7832.00,1.35
7831.00,1.36
7830.00,1.36
7829.00,1.37
7828.00,1.37
7827.00,1.37
7826.00,1.38
7825.00,1.38
7824.00,1.38
7823.00,1.38
7822.00,1.38
7821.00,1.38
7820.00,1.38
7819.00,1.38
7818.00,1.37
7817.00,1.37
7816.00,1.37
7815.00,1.37
7814.00,1.36
7813.00,1.36
7812.00,1.36
7811.00,1.36
7810.00,1.36
7809.00,1.36
7808.00,1.36
7807.00,1.35
7806.00,1.35
7805.00,1.35
7804.00,1.35
7803.00,1.35
7802.00,1.34
7801.00,1.34
7800.00,1.34
7799.00,1.33
7798.00,1.33
7797.00,1.33
7796.00,1.33
7795.00,1.33
7794.00,1.32
7793.00,1.32
7792.00,1.32
7791.00,1.32
7790.00,1.33
7789.00,1.33
7788.00,1.33
7787.00,1.33
7786.00,1.33
7785.00,1.33
7784.00,1.32
7783.00,1.32
7782.00,1.32
7781.00,1.32
7780.00,1.32
7779.00,1.32
7778.00,1.32
7777.00,1.31
7776.00,1.31
7775.00,1.31
7774.00,1.31
7773.00,1.32
7772.00,1.32
7771.00,1.32
7770.00,1.32
7769.00,1.32
7768.00,1.32
7767.00,1.32
7766.00,1.32
7765.00,1.32
7764.00,1.32
7763.00,1.32
7762.00,1.32
7761.00,1.32
7760.00,1.32
7759.00,1.32
7758.00,1.32
7757.00,1.32
7756.00,1.32
7755.00,1.33
7754.00,1.33
7753.00,1.33
7752.00,1.33
7751.00,1.33
7750.00,1.33
7749.00,1.34
7748.00,1.34
7747.00,1.34
7746.00,1.34
7745.00,1.34
7744.00,1.34
7743.00,1.34
7742.00,1.34
7741.00,1.34
7740.00,1.35
7739.00,1.35
7738.00,1.35
7737.00,1.35
7736.00,1.35
7735.00,1.35
7734.00,1.36
7733.00,1.36
7732.00,1.36
7731.00,1.36
7730.00,1.37
7729.00,1.37
7728.00,1.37
7727.00,1.37
7726.00,1.38
7725.00,1.38
7724.00,1.38
7723.00,1.39
7722.00,1.39
7721.00,1.39
7720.00,1.39
7719.00,1.40
7718.00,1.40
7717.00,1.40
7716.00,1.40
7715.00,1.40
7714.00,1.40
7713.00,1.40
7712.00,1.41
7711.00,1.41
7710.00,1.41
7709.00,1.41
7708.00,1.41
7707.00,1.41
7706.00,1.41
7705.00,1.41
7704.00,1.42
7703.00,1.42
7702.00,1.42
7701.00,1.42
7700.00,1.42
7699.00,1.42
7698.00,1.42
7697.00,1.42
7696.00,1.42
7695.00,1.42
7694.00,1.42
7693.00,1.42
7692.00,1.42
7691.00,1.42
7690.00,1.42
7689.00,1.42
7688.00,1.42
7687.00,1.42
7686.00,1.42
7685.00,1.42
7684.00,1.42
7683.00,1.41
7682.00,1.41
7681.00,1.41
7680.00,1.41
7679.00,1.41
7678.00,1.41
7677.00,1.40
7676.00,1.40
7675.00,1.40
7674.00,1.39
7673.00,1.39
7672.00,1.39
7671.00,1.38
7670.00,1.38
7669.00,1.38
7668.00,1.37
7667.00,1.37
7666.00,1.37
7665.00,1.36
7664.00,1.36
7663.00,1.35
7662.00,1.35
7661.00,1.35
7660.00,1.34
7659.00,1.34
7658.00,1.34
7657.00,1.34
7656.00,1.34
7655.00,1.33
7654.00,1.33
7653.00,1.33
7652.00,1.33
7651.00,1.33
7650.00,1.33
7649.00,1.33
7648.00,1.34
7647.00,1.34
7646.00,1.34
7645.00,1.34
7644.00,1.34
7643.00,1.34
7642.00,1.34
7641.00,1.34
7640.00,1.35
7639.00,1.35
7638.00,1.35
7637.00,1.35
7636.00,1.35
7635.00,1.36
7634.00,1.36
7633.00,1.36
7632.00,1.36
7631.00,1.37
7630.00,1.37
7629.00,1.37
7628.00,1.37
7627.00,1.37
7626.00,1.37
7625.00,1.37
7624.00,1.37
7623.00,1.37
7622.00,1.37
7621.00,1.36
7620.00,1.36
7619.00,1.36
7618.00,1.36
7617.00,1.36
7616.00,1.36
7615.00,1.36
7614.00,1.36
7613.00,1.36
7612.00,1.36
7611.00,1.36
7610.00,1.36
7609.00,1.36
7608.00,1.36
7607.00,1.36
7606.00,1.36
7605.00,1.36
7604.00,1.36
7603.00,1.36
7602.00,1.36
7601.00,1.36
7600.00,1.36
7599.00,1.37
7598.00,1.37
7597.00,1.37
7596.00,1.37
7595.00,1.37
7594.00,1.38
7593.00,1.38
7592.00,1.38
7591.00,1.38
7590.00,1.39
7589.00,1.39
7588.00,1.39
7587.00,1.39
7586.00,1.39
7585.00,1.39
7584.00,1.39
7583.00,1.39
7582.00,1.39
7581.00,1.39
7580.00,1.39
7579.00,1.39
7578.00,1.39
7577.00,1.39
7576.00,1.39
7575.00,1.39
7574.00,1.39
7573.00,1.39
7572.00,1.39
7571.00,1.39
7570.00,1.39
7569.00,1.39
7568.00,1.39
7567.00,1.39
7566.00,1.39
7565.00,1.39
7564.00,1.39
7563.00,1.39
7562.00,1.39
7561.00,1.39
7560.00,1.39
7559.00,1.39
7558.00,1.39
7557.00,1.39
7556.00,1.39
7555.00,1.39
7554.00,1.39
7553.00,1.39
7552.00,1.39
7551.00,1.39
7550.00,1.39
7549.00,1.39
7548.00,1.39
7547.00,1.39
7546.00,1.39
7545.00,1.39
7544.00,1.39
7543.00,1.39
7542.00,1.39
7541.00,1.39
7540.00,1.39
7539.00,1.39
7538.00,1.39
7537.00,1.39
7536.00,1.39
7535.00,1.39
7534.00,1.39
7533.00,1.39
7532.00,1.38
7531.00,1.38
7530.00,1.38
7529.00,1.38
7528.00,1.39
7527.00,1.39
7526.00,1.39
7525.00,1.39
7524.00,1.39
7523.00,1.39
7522.00,1.39
7521.00,1.39
7520.00,1.39
7519.00,1.40
7518.00,1.40
7517.00,1.40
7516.00,1.40
7515.00,1.40
7514.00,1.41
7513.00,1.41
7512.00,1.41
7511.00,1.41
7510.00,1.41
7509.00,1.42
7508.00,1.42
7507.00,1.42
7506.00,1.42
7505.00,1.42
7504.00,1.42
7503.00,1.42
7502.00,1.42
7501.00,1.42
7500.00,1.42
7499.00,1.42
7498.00,1.42
7497.00,1.42
7496.00,1.42
7495.00,1.42
7494.00,1.42
7493.00,1.42
7492.00,1.41
7491.00,1.41
7490.00,1.41
7489.00,1.40
7488.00,1.40
7487.00,1.40
7486.00,1.39
7485.00,1.39
7484.00,1.38
7483.00,1.38
7482.00,1.38
7481.00,1.37
7480.00,1.37
7479.00,1.37
7478.00,1.37
7477.00,1.36
7476.00,1.36
7475.00,1.36
7474.00,1.35
7473.00,1.35
7472.00,1.34
7471.00,1.34
7470.00,1.34
7469.00,1.34
7468.00,1.33
7467.00,1.33
7466.00,1.33
7465.00,1.33
7464.00,1.33
7463.00,1.33
7462.00,1.33
7461.00,1.33
7460.00,1.33
7459.00,1.33
7458.00,1.33
7457.00,1.33
7456.00,1.33
7455.00,1.33
7454.00,1.33
7453.00,1.33
7452.00,1.33
7451.00,1.33
7450.00,1.33
7449.00,1.33
7448.00,1.33
7447.00,1.33
7446.00,1.33
7445.00,1.33
7444.00,1.33
7443.00,1.33
7442.00,1.34
7441.00,1.34
7440.00,1.34
7439.00,1.34
7438.00,1.34
7437.00,1.34
7436.00,1.34
7435.00,1.34
7434.00,1.34
7433.00,1.34
7432.00,1.34
7431.00,1.34
7430.00,1.33
7429.00,1.33
7428.00,1.33
7427.00,1.33
7426.00,1.33
7425.00,1.33
7424.00,1.33
7423.00,1.33
7422.00,1.33
7421.00,1.33
7420.00,1.32
7419.00,1.32
7418.00,1.32
7417.00,1.32
7416.00,1.31
7415.00,1.31
7414.00,1.31
7413.00,1.31
7412.00,1.31
7411.00,1.30
7410.00,1.30
7409.00,1.30
7408.00,1.29
7407.00,1.29
7406.00,1.29
7405.00,1.29
7404.00,1.28
7403.00,1.28
7402.00,1.28
7401.00,1.28
7400.00,1.27
7399.00,1.27
7398.00,1.27
7397.00,1.27
7396.00,1.27
7395.00,1.27
7394.00,1.26
7393.00,1.26
7392.00,1.26
7391.00,1.26
7390.00,1.26
7389.00,1.26
7388.00,1.26
7387.00,1.26
7386.00,1.26
7385.00,1.26
7384.00,1.26
7383.00,1.26
7382.00,1.27
7381.00,1.27
7380.00,1.27
7379.00,1.26
7378.00,1.26
7377.00,1.26
7376.00,1.26
7375.00,1.26
7374.00,1.26
7373.00,1.26
7372.00,1.26
7371.00,1.26
7370.00,1.26
7369.00,1.26
7368.00,1.25
7367.00,1.25
7366.00,1.25
7365.00,1.25
7364.00,1.25
7363.00,1.25
7362.00,1.24
7361.00,1.24
7360.00,1.24
7359.00,1.24
7358.00,1.23
7357.00,1.23
7356.00,1.23
7355.00,1.23
7354.00,1.23
7353.00,1.23
7352.00,1.23
7351.00,1.23
7350.00,1.23
7349.00,1.23
7348.00,1.23
7347.00,1.23
7346.00,1.23
7345.00,1.23
7344.00,1.23
7343.00,1.23
7342.00,1.23
7341.00,1.23
7340.00,1.24
7339.00,1.24
7338.00,1.24
7337.00,1.24
7336.00,1.24
7335.00,1.24
7334.00,1.25
7333.00,1.25
7332.00,1.25
7331.00,1.25
7330.00,1.26
7329.00,1.26
7328.00,1.26
7327.00,1.26
7326.00,1.27
7325.00,1.27
7324.00,1.27
7323.00,1.27
7322.00,1.27
7321.00,1.27
7320.00,1.27
7319.00,1.27
7318.00,1.27
7317.00,1.27
7316.00,1.27
7315.00,1.27
7314.00,1.27
7313.00,1.26
7312.00,1.26
7311.00,1.26
7310.00,1.26
7309.00,1.26
7308.00,1.25
7307.00,1.25
7306.00,1.25
7305.00,1.25
7304.00,1.24
7303.00,1.24
7302.00,1.24
7301.00,1.23
7300.00,1.23
7299.00,1.23
7298.00,1.23
7297.00,1.22
7296.00,1.22
7295.00,1.22
7294.00,1.22
7293.00,1.22
7292.00,1.22
7291.00,1.21
7290.00,1.21
7289.00,1.21
7288.00,1.21
7287.00,1.21
7286.00,1.21
7285.00,1.21
7284.00,1.21
7283.00,1.21
7282.00,1.21
7281.00,1.20
7280.00,1.20
7279.00,1.20
7278.00,1.20
7277.00,1.20
7276.00,1.20
7275.00,1.19
7274.00,1.19
7273.00,1.19
7272.00,1.19
7271.00,1.19
7270.00,1.19
7269.00,1.19
7268.00,1.18
7267.00,1.18
7266.00,1.18
7265.00,1.18
7264.00,1.17
7263.00,1.17
7262.00,1.17
7261.00,1.17
7260.00,1.17
7259.00,1.16
7258.00,1.16
7257.00,1.16
7256.00,1.16
7255.00,1.16
7254.00,1.16
7253.00,1.16
7252.00,1.16
7251.00,1.16
7250.00,1.16
7249.00,1.16
7248.00,1.16
7247.00,1.16
7246.00,1.16
7245.00,1.16
7244.00,1.16
7243.00,1.15
7242.00,1.15
7241.00,1.15
7240.00,1.15
7239.00,1.15
7238.00,1.15
7237.00,1.15
7236.00,1.15
7235.00,1.14
7234.00,1.14
7233.00,1.14
7232.00,1.13
7231.00,1.13
7230.00,1.13
7229.00,1.12
7228.00,1.12
7227.00,1.12
7226.00,1.11
7225.00,1.11
7224.00,1.10
7223.00,1.10
7222.00,1.09
7221.00,1.09
7220.00,1.08
7219.00,1.08
7218.00,1.07
7217.00,1.07
7216.00,1.06
7215.00,1.06
7214.00,1.05
7213.00,1.05
7212.00,1.04
7211.00,1.04
7210.00,1.04
7209.00,1.03
7208.00,1.03
7207.00,1.03
7206.00,1.02
7205.00,1.02
7204.00,1.02
7203.00,1.01
7202.00,1.01
7201.00,1.01
7200.00,1.01
7199.00,1.00
7198.00,1.00
7197.00,1.00
7196.00,0.99
7195.00,0.99
7194.00,0.99
7193.00,0.99
7192.00,0.98
7191.00,0.98
7190.00,0.98
7189.00,0.98
7188.00,0.97
7187.00,0.97
7186.00,0.97
7185.00,0.97
7184.00,0.97
7183.00,0.96
7182.00,0.96
7181.00,0.96
7180.00,0.96
7179.00,0.96
7178.00,0.95
7177.00,0.95
7176.00,0.95
7175.00,0.95
7174.00,0.94
7173.00,0.94
7172.00,0.94
7171.00,0.94
7170.00,0.93
7169.00,0.93
7168.00,0.93
7167.00,0.93
7166.00,0.92
7165.00,0.92
7164.00,0.92
7163.00,0.92
7162.00,0.91
7161.00,0.91
7160.00,0.91
7159.00,0.90
7158.00,0.90
7157.00,0.89
7156.00,0.89
7155.00,0.89
7154.00,0.89
7153.00,0.88
7152.00,0.88
7151.00,0.88
7150.00,0.88
7149.00,0.87
7148.00,0.87
7147.00,0.87
7146.00,0.87
7145.00,0.86
7144.00,0.86
7143.00,0.86
7142.00,0.86
7141.00,0.86
7140.00,0.85
7139.00,0.85
7138.00,0.85
7137.00,0.85
7136.00,0.85
7135.00,0.85
7134.00,0.85
7133.00,0.85
7132.00,0.85
7131.00,0.85
7130.00,0.85
7129.00,0.85
7128.00,0.84
7127.00,0.84
7126.00,0.84
7125.00,0.84
7124.00,0.83
7123.00,0.83
7122.00,0.83
7121.00,0.82
7120.00,0.82
7119.00,0.82
7118.00,0.81
7117.00,0.81
7116.00,0.81
7115.00,0.80
7114.00,0.80
7113.00,0.79
7112.00,0.79
7111.00,0.78
7110.00,0.78
7109.00,0.77
7108.00,0.77
7107.00,0.76
7106.00,0.76
7105.00,0.75
7104.00,0.75
7103.00,0.75
7102.00,0.74
7101.00,0.74
7100.00,0.74
7099.00,0.73
7098.00,0.73
7097.00,0.73
7096.00,0.72
7095.00,0.72
7094.00,0.72
7093.00,0.72
7092.00,0.71
7091.00,0.71
7090.00,0.71
7089.00,0.70
7088.00,0.70
7087.00,0.70
7086.00,0.69
7085.00,0.69
7084.00,0.69
7083.00,0.68
7082.00,0.68
7081.00,0.68
7080.00,0.68
7079.00,0.67
7078.00,0.67
7077.00,0.67
7076.00,0.66
7075.00,0.66
7074.00,0.65
7073.00,0.65
7072.00,0.65
7071.00,0.64
7070.00,0.64
7069.00,0.64
7068.00,0.64
7067.00,0.63
7066.00,0.63
7065.00,0.63
7064.00,0.63
7063.00,0.63
7062.00,0.63
7061.00,0.63
7060.00,0.63
7059.00,0.63
7058.00,0.63
7057.00,0.64
7056.00,0.64
7055.00,0.64
7054.00,0.64
7053.00,0.64
7052.00,0.65
7051.00,0.65
7050.00,0.65
7049.00,0.66
7048.00,0.66
7047.00,0.66
7046.00,0.67
7045.00,0.67
7044.00,0.67
7043.00,0.67
7042.00,0.68
7041.00,0.68
7040.00,0.68
7039.00,0.68
7038.00,0.68
7037.00,0.68
7036.00,0.68
7035.00,0.68
7034.00,0.68
7033.00,0.68
7032.00,0.67
7031.00,0.67
7030.00,0.67
7029.00,0.67
7028.00,0.67
7027.00,0.66
7026.00,0.66
7025.00,0.66
7024.00,0.66
7023.00,0.66
7022.00,0.65
7021.00,0.65
7020.00,0.65
7019.00,0.65
7018.00,0.65
7017.00,0.65
7016.00,0.65
7015.00,0.65
7014.00,0.65
7013.00,0.65
7012.00,0.65
7011.00,0.65
7010.00,0.65
7009.00,0.65
7008.00,0.65
7007.00,0.65
7006.00,0.65
7005.00,0.66
7004.00,0.66
7003.00,0.66
7002.00,0.66
7001.00,0.66
7000.00,0.66
6999.00,0.66
6998.00,0.66
6997.00,0.66
6996.00,0.66
6995.00,0.66
6994.00,0.66
6993.00,0.66
6992.00,0.66
6991.00,0.65
6990.00,0.65
6989.00,0.65
6988.00,0.65
6987.00,0.65
6986.00,0.65
6985.00,0.64
6984.00,0.64
6983.00,0.64
6982.00,0.64
6981.00,0.64
6980.00,0.64
6979.00,0.64
6978.00,0.63
6977.00,0.63
6976.00,0.63
6975.00,0.63
6974.00,0.63
6973.00,0.63
6972.00,0.63
6971.00,0.63
6970.00,0.63
6969.00,0.62
6968.00,0.62
6967.00,0.62
6966.00,0.62
6965.00,0.62
6964.00,0.62
6963.00,0.62
6962.00,0.62
6961.00,0.62
6960.00,0.62
6959.00,0.62
6958.00,0.61
6957.00,0.61
6956.00,0.61
6955.00,0.61
6954.00,0.60
6953.00,0.60
6952.00,0.60
6951.00,0.60
6950.00,0.59
6949.00,0.59
6948.00,0.59
6947.00,0.59
6946.00,0.59
6945.00,0.58
6944.00,0.58
6943.00,0.58
6942.00,0.58
6941.00,0.58
6940.00,0.58
6939.00,0.58
6938.00,0.58
6937.00,0.58
6936.00,0.58
6935.00,0.58
6934.00,0.58
6933.00,0.58
6932.00,0.58
6931.00,0.58
6930.00,0.58
6929.00,0.58
6928.00,0.58
6927.00,0.58
6926.00,0.58
6925.00,0.59
6924.00,0.59
6923.00,0.59
6922.00,0.59
6921.00,0.60
6920.00,0.60
6919.00,0.60
6918.00,0.60
6917.00,0.60
6916.00,0.60
6915.00,0.61
6914.00,0.61
6913.00,0.61
6912.00,0.61
6911.00,0.61
6910.00,0.61
6909.00,0.61
6908.00,0.61
6907.00,0.61
6906.00,0.61
6905.00,0.61
6904.00,0.61
6903.00,0.61
6902.00,0.61
6901.00,0.61
6900.00,0.62
6899.00,0.62
6898.00,0.62
6897.00,0.62
6896.00,0.62
6895.00,0.62
6894.00,0.62
6893.00,0.62
6892.00,0.62
6891.00,0.62
6890.00,0.62
6889.00,0.62
6888.00,0.62
6887.00,0.62
6886.00,0.62
6885.00,0.62
6884.00,0.62
6883.00,0.62
6882.00,0.62
6881.00,0.62
6880.00,0.62
6879.00,0.62
6878.00,0.62
6877.00,0.62
6876.00,0.62
6875.00,0.62
6874.00,0.62
6873.00,0.61
6872.00,0.61
6871.00,0.61
6870.00,0.61
6869.00,0.60
6868.00,0.60
6867.00,0.60
6866.00,0.59
6865.00,0.59
6864.00,0.58
6863.00,0.58
6862.00,0.58
6861.00,0.57
6860.00,0.57
6859.00,0.57
6858.00,0.56
6857.00,0.56
6856.00,0.56
6855.00,0.56
6854.00,0.56
6853.00,0.56
6852.00,0.56
6851.00,0.56
6850.00,0.56
6849.00,0.56
6848.00,0.56
6847.00,0.56
6846.00,0.56
6845.00,0.56
6844.00,0.56
6843.00,0.56
6842.00,0.57
6841.00,0.57
6840.00,0.57
6839.00,0.57
6838.00,0.57
6837.00,0.58
6836.00,0.58
6835.00,0.58
6834.00,0.58
6833.00,0.58
6832.00,0.58
6831.00,0.58
6830.00,0.58
6829.00,0.58
6828.00,0.58
6827.00,0.58
6826.00,0.59
6825.00,0.59
6824.00,0.59
6823.00,0.59
6822.00,0.59
6821.00,0.59
6820.00,0.59
6819.00,0.59
6818.00,0.60
6817.00,0.60
6816.00,0.60
6815.00,0.61
6814.00,0.61
6813.00,0.61
6812.00,0.62
6811.00,0.62
6810.00,0.62
6809.00,0.63
6808.00,0.63
6807.00,0.63
6806.00,0.64
6805.00,0.64
6804.00,0.64
6803.00,0.65
6802.00,0.65
6801.00,0.65
6800.00,0.66
6799.00,0.66
6798.00,0.66
6797.00,0.66
6796.00,0.66
6795.00,0.66
6794.00,0.66
6793.00,0.66
6792.00,0.66
6791.00,0.66
6790.00,0.66
6789.00,0.66
6788.00,0.66
6787.00,0.65
6786.00,0.65
6785.00,0.65
6784.00,0.65
6783.00,0.64
6782.00,0.64
6781.00,0.64
6780.00,0.63
6779.00,0.63
6778.00,0.63
6777.00,0.63
6776.00,0.63
6775.00,0.62
6774.00,0.62
6773.00,0.62
6772.00,0.62
6771.00,0.62
6770.00,0.62
6769.00,0.62
6768.00,0.62
6767.00,0.62
6766.00,0.62
6765.00,0.62
6764.00,0.62
6763.00,0.62
6762.00,0.62
6761.00,0.62
6760.00,0.62
6759.00,0.63
6758.00,0.63
6757.00,0.63
6756.00,0.63
6755.00,0.63
6754.00,0.63
6753.00,0.64
6752.00,0.64
6751.00,0.64
6750.00,0.64
6749.00,0.64
6748.00,0.64
6747.00,0.65
6746.00,0.65
6745.00,0.65
6744.00,0.65
6743.00,0.65
6742.00,0.65
6741.00,0.66
6740.00,0.66
6739.00,0.66
6738.00,0.66
6737.00,0.66
6736.00,0.66
6735.00,0.66
6734.00,0.66
6733.00,0.66
6732.00,0.66
6731.00,0.66
6730.00,0.66
6729.00,0.66
6728.00,0.66
6727.00,0.66
6726.00,0.66
6725.00,0.66
6724.00,0.66
6723.00,0.66
6722.00,0.66
6721.00,0.66
6720.00,0.66
6719.00,0.66
6718.00,0.66
6717.00,0.66
6716.00,0.65
6715.00,0.65
6714.00,0.65
6713.00,0.65
6712.00,0.65
6711.00,0.65
6710.00,0.65
6709.00,0.65
6708.00,0.65
6707.00,0.65
6706.00,0.65
6705.00,0.66
6704.00,0.66
6703.00,0.66
6702.00,0.66
6701.00,0.66
6700.00,0.67
6699.00,0.67
6698.00,0.67
6697.00,0.67
6696.00,0.67
6695.00,0.68
6694.00,0.68
6693.00,0.68
6692.00,0.68
6691.00,0.68
6690.00,0.69
6689.00,0.69
6688.00,0.69
6687.00,0.69
6686.00,0.69
6685.00,0.69
6684.00,0.69
6683.00,0.69
6682.00,0.69
6681.00,0.69
6680.00,0.69
6679.00,0.69
6678.00,0.69
6677.00,0.69
6676.00,0.69
6675.00,0.69
6674.00,0.68
6673.00,0.68
6672.00,0.68
6671.00,0.68
6670.00,0.68
6669.00,0.68
6668.00,0.68
6667.00,0.68
6666.00,0.68
6665.00,0.68
6664.00,0.68
6663.00,0.68
6662.00,0.68
6661.00,0.68
6660.00,0.68
6659.00,0.68
6658.00,0.68
6657.00,0.68
6656.00,0.68
6655.00,0.69
6654.00,0.69
6653.00,0.69
6652.00,0.69
6651.00,0.69
6650.00,0.70
6649.00,0.70
6648.00,0.70
6647.00,0.70
6646.00,0.71
6645.00,0.71
6644.00,0.71
6643.00,0.72
6642.00,0.72
6641.00,0.72
6640.00,0.73
6639.00,0.73
6638.00,0.73
6637.00,0.74
6636.00,0.74
6635.00,0.75
6634.00,0.75
6633.00,0.75
6632.00,0.76
6631.00,0.76
6630.00,0.77
6629.00,0.77
6628.00,0.77
6627.00,0.78
6626.00,0.78
6625.00,0.78
6624.00,0.79
6623.00,0.79
6622.00,0.79
6621.00,0.79
6620.00,0.80
6619.00,0.80
6618.00,0.80
6617.00,0.80
6616.00,0.80
6615.00,0.80
6614.00,0.80
6613.00,0.80
6612.00,0.80
6611.00,0.80
6610.00,0.80
6609.00,0.80
6608.00,0.80
6607.00,0.80
6606.00,0.80
6605.00,0.80
6604.00,0.80
6603.00,0.80
6602.00,0.80
6601.00,0.80
6600.00,0.80
6599.00,0.80
6598.00,0.80
6597.00,0.80
6596.00,0.80
6595.00,0.80
6594.00,0.80
6593.00,0.80
6592.00,0.80
6591.00,0.80
6590.00,0.80
6589.00,0.80
6588.00,0.80
6587.00,0.80
6586.00,0.80
6585.00,0.80
6584.00,0.80
6583.00,0.80
6582.00,0.80
6581.00,0.80
6580.00,0.80
6579.00,0.81
6578.00,0.81
6577.00,0.81
6576.00,0.81
6575.00,0.81
6574.00,0.81
6573.00,0.81
6572.00,0.81
6571.00,0.81
6570.00,0.81
6569.00,0.82
6568.00,0.82
6567.00,0.82
6566.00,0.82
6565.00,0.82
6564.00,0.82
6563.00,0.82
6562.00,0.82
6561.00,0.82
6560.00,0.83
6559.00,0.83
6558.00,0.83
6557.00,0.83
6556.00,0.83
6555.00,0.83
6554.00,0.83
6553.00,0.84
6552.00,0.84
6551.00,0.84
6550.00,0.84
6549.00,0.84
6548.00,0.84
6547.00,0.84
6546.00,0.85
6545.00,0.85
6544.00,0.85
6543.00,0.85
6542.00,0.85
6541.00,0.85
6540.00,0.85
6539.00,0.85
6538.00,0.86
6537.00,0.86
6536.00,0.86
6535.00,0.86
6534.00,0.86
6533.00,0.86
6532.00,0.86
6531.00,0.86
6530.00,0.86
6529.00,0.87
6528.00,0.87
6527.00,0.87
6526.00,0.87
6525.00,0.87
6524.00,0.87
6523.00,0.87
6522.00,0.87
6521.00,0.87
6520.00,0.87
6519.00,0.87
6518.00,0.87
6517.00,0.87
6516.00,0.87
6515.00,0.87
6514.00,0.87
6513.00,0.87
6512.00,0.87
6511.00,0.87
6510.00,0.87
6509.00,0.87
6508.00,0.87
6507.00,0.87
6506.00,0.87
6505.00,0.87
6504.00,0.87
6503.00,0.87
6502.00,0.87
6501.00,0.87
6500.00,0.87
6499.00,0.87
6498.00,0.87
6497.00,0.87
6496.00,0.87
6495.00,0.87
6494.00,0.87
6493.00,0.88
6492.00,0.88
6491.00,0.88
6490.00,0.88
6489.00,0.88
6488.00,0.88
6487.00,0.89
6486.00,0.89
6485.00,0.89
6484.00,0.89
6483.00,0.90
6482.00,0.90
6481.00,0.90
6480.00,0.90
6479.00,0.91
6478.00,0.91
6477.00,0.91
6476.00,0.91
6475.00,0.92
6474.00,0.92
6473.00,0.92
6472.00,0.92
6471.00,0.92
6470.00,0.92
6469.00,0.92
6468.00,0.92
6467.00,0.93
6466.00,0.92
6465.00,0.92
6464.00,0.92
6463.00,0.92
6462.00,0.92
6461.00,0.92
6460.00,0.92
6459.00,0.92
6458.00,0.92
6457.00,0.92
6456.00,0.92
6455.00,0.92
6454.00,0.91
6453.00,0.91
6452.00,0.91
6451.00,0.91
6450.00,0.91
6449.00,0.91
6448.00,0.91
6447.00,0.91
6446.00,0.91
6445.00,0.91
6444.00,0.91
6443.00,0.91
6442.00,0.91
6441.00,0.91
6440.00,0.91
6439.00,0.92
6438.00,0.92
6437.00,0.92
6436.00,0.92
6435.00,0.92
6434.00,0.93
6433.00,0.93
6432.00,0.93
6431.00,0.93
6430.00,0.94
6429.00,0.94
6428.00,0.94
6427.00,0.94
6426.00,0.94
6425.00,0.95
6424.00,0.95
6423.00,0.95
6422.00,0.95
6421.00,0.95
6420.00,0.95
6419.00,0.96
6418.00,0.96
6417.00,0.96
6416.00,0.96
6415.00,0.96
6414.00,0.97
6413.00,0.97
6412.00,0.97
6411.00,0.97
6410.00,0.97
6409.00,0.97
6408.00,0.97
6407.00,0.98
6406.00,0.98
6405.00,0.98
6404.00,0.98
6403.00,0.98
6402.00,0.98
6401.00,0.98
6400.00,0.98
6399.00,0.98
6398.00,0.98
6397.00,0.99
6396.00,0.99
6395.00,0.99
6394.00,0.99
6393.00,0.99
6392.00,0.99
6391.00,0.99
6390.00,0.99
6389.00,0.99
6388.00,0.98
6387.00,0.98
6386.00,0.98
6385.00,0.98
6384.00,0.98
6383.00,0.98
6382.00,0.98
6381.00,0.98
6380.00,0.98
6379.00,0.99
6378.00,0.99
6377.00,0.99
6376.00,0.99
6375.00,0.99
6374.00,0.99
6373.00,0.99
6372.00,0.98
6371.00,0.98
6370.00,0.98
6369.00,0.99
6368.00,0.99
6367.00,0.99
6366.00,0.99
6365.00,0.99
6364.00,0.99
6363.00,0.99
6362.00,0.99
6361.00,0.99
6360.00,0.99
6359.00,0.99
6358.00,1.00
6357.00,1.00
6356.00,1.00
6355.00,1.00
6354.00,1.00
6353.00,1.00
6352.00,1.01
6351.00,1.01
6350.00,1.01
6349.00,1.01
6348.00,1.02
6347.00,1.02
6346.00,1.02
6345.00,1.02
6344.00,1.03
6343.00,1.03
6342.00,1.03
6341.00,1.04
6340.00,1.04
6339.00,1.04
6338.00,1.04
6337.00,1.05
6336.00,1.05
6335.00,1.05
6334.00,1.05
6333.00,1.06
6332.00,1.06
6331.00,1.06
6330.00,1.06
6329.00,1.06
6328.00,1.07
6327.00,1.07
6326.00,1.07
6325.00,1.07
6324.00,1.07
6323.00,1.07
6322.00,1.07
6321.00,1.07
6320.00,1.07
6319.00,1.07
6318.00,1.07
6317.00,1.07
6316.00,1.07
6315.00,1.07
6314.00,1.07
6313.00,1.07
6312.00,1.07
6311.00,1.07
6310.00,1.07
6309.00,1.07
6308.00,1.07
6307.00,1.07
6306.00,1.07
6305.00,1.07
6304.00,1.07
6303.00,1.07
6302.00,1.07
6301.00,1.07
6300.00,1.07
6299.00,1.07
6298.00,1.07
6297.00,1.07
6296.00,1.07
6295.00,1.07
6294.00,1.07
6293.00,1.07
6292.00,1.07
6291.00,1.07
6290.00,1.07
6289.00,1.07
6288.00,1.07
6287.00,1.07
6286.00,1.07
6285.00,1.07
6284.00,1.07
6283.00,1.07
6282.00,1.07
6281.00,1.08
6280.00,1.08
6279.00,1.08
6278.00,1.08
6277.00,1.08
6276.00,1.09
6275.00,1.09
6274.00,1.09
6273.00,1.09
6272.00,1.09
6271.00,1.10
6270.00,1.10
6269.00,1.10
6268.00,1.10
6267.00,1.10
6266.00,1.10
6265.00,1.10
6264.00,1.11
6263.00,1.11
6262.00,1.11
6261.00,1.11
6260.00,1.11
6259.00,1.12
6258.00,1.12
6257.00,1.12
6256.00,1.12
6255.00,1.12
6254.00,1.12
6253.00,1.12
6252.00,1.12
6251.00,1.12
6250.00,1.12
6249.00,1.12
6248.00,1.12
6247.00,1.11
6246.00,1.11
6245.00,1.11
6244.00,1.11
6243.00,1.11
6242.00,1.11
6241.00,1.11
6240.00,1.11
6239.00,1.11
6238.00,1.11
6237.00,1.11
6236.00,1.11
6235.00,1.11
6234.00,1.11
6233.00,1.11
6232.00,1.11
6231.00,1.11
6230.00,1.11
6229.00,1.11
6228.00,1.12
6227.00,1.12
6226.00,1.12
6225.00,1.12
6224.00,1.13
6223.00,1.13
6222.00,1.13
6221.00,1.14
6220.00,1.14
6219.00,1.14
6218.00,1.15
6217.00,1.15
6216.00,1.15
6215.00,1.16
6214.00,1.16
6213.00,1.16
6212.00,1.17
6211.00,1.17
6210.00,1.17
6209.00,1.17
6208.00,1.18
6207.00,1.18
6206.00,1.18
6205.00,1.18
6204.00,1.18
6203.00,1.19
6202.00,1.19
6201.00,1.19
6200.00,1.19
6199.00,1.19
6198.00,1.19
6197.00,1.19
6196.00,1.19
6195.00,1.19
6194.00,1.19
6193.00,1.19
6192.00,1.19
6191.00,1.19
6190.00,1.19
6189.00,1.19
6188.00,1.19
6187.00,1.19
6186.00,1.19
6185.00,1.19
6184.00,1.20
6183.00,1.20
6182.00,1.20
6181.00,1.20
6180.00,1.20
6179.00,1.20
6178.00,1.21
6177.00,1.21
6176.00,1.21
6175.00,1.21
6174.00,1.21
6173.00,1.21
6172.00,1.22
6171.00,1.22
6170.00,1.22
6169.00,1.23
6168.00,1.23
6167.00,1.23
6166.00,1.24
6165.00,1.24
6164.00,1.24
6163.00,1.24
6162.00,1.25
6161.00,1.25
6160.00,1.25
6159.00,1.25
6158.00,1.25
6157.00,1.26
6156.00,1.26
6155.00,1.26
6154.00,1.26
6153.00,1.26
6152.00,1.27
6151.00,1.27
6150.00,1.27
6149.00,1.27
6148.00,1.27
6147.00,1.28
6146.00,1.28
6145.00,1.28
6144.00,1.28
6143.00,1.28
6142.00,1.28
6141.00,1.29
6140.00,1.29
6139.00,1.29
6138.00,1.29
6137.00,1.29
6136.00,1.29
6135.00,1.29
6134.00,1.29
6133.00,1.29
6132.00,1.29
6131.00,1.30
6130.00,1.30
6129.00,1.30
6128.00,1.30
6127.00,1.30
6126.00,1.30
6125.00,1.30
6124.00,1.31
6123.00,1.31
6122.00,1.31
6121.00,1.31
6120.00,1.31
6119.00,1.31
6118.00,1.31
6117.00,1.31
6116.00,1.31
6115.00,1.31
6114.00,1.31
6113.00,1.32
6112.00,1.32
6111.00,1.32
6110.00,1.32
6109.00,1.32
6108.00,1.32
6107.00,1.32
6106.00,1.32
6105.00,1.32
6104.00,1.33
6103.00,1.33
6102.00,1.33
6101.00,1.33
6100.00,1.33
6099.00,1.33
6098.00,1.33
6097.00,1.33
6096.00,1.33
6095.00,1.34
6094.00,1.34
6093.00,1.34
6092.00,1.34
6091.00,1.34
6090.00,1.34
6089.00,1.34
6088.00,1.35
6087.00,1.35
6086.00,1.35
6085.00,1.35
6084.00,1.35
6083.00,1.35
6082.00,1.35
6081.00,1.35
6080.00,1.36
6079.00,1.36
6078.00,1.36
6077.00,1.36
6076.00,1.36
6075.00,1.36
6074.00,1.37
6073.00,1.37
6072.00,1.37
6071.00,1.37
6070.00,1.37
6069.00,1.38
6068.00,1.38
6067.00,1.38
6066.00,1.38
6065.00,1.38
6064.00,1.38
6063.00,1.38
6062.00,1.39
6061.00,1.39
6060.00,1.39
6059.00,1.39
6058.00,1.39
6057.00,1.39
6056.00,1.39
6055.00,1.39
6054.00,1.40
6053.00,1.40
6052.00,1.40
6051.00,1.40
6050.00,1.40
6049.00,1.40
6048.00,1.40
6047.00,1.40
6046.00,1.40
6045.00,1.40
6044.00,1.40
6043.00,1.40
6042.00,1.40
6041.00,1.40
6040.00,1.40
6039.00,1.40
6038.00,1.40
6037.00,1.40
6036.00,1.40
6035.00,1.40
6034.00,1.40
6033.00,1.40
6032.00,1.40
6031.00,1.40
6030.00,1.40
6029.00,1.40
6028.00,1.40
6027.00,1.40
6026.00,1.40
6025.00,1.41
6024.00,1.41
6023.00,1.41
6022.00,1.41
6021.00,1.41
6020.00,1.41
6019.00,1.41
6018.00,1.41
6017.00,1.41
6016.00,1.41
6015.00,1.41
6014.00,1.41
6013.00,1.41
6012.00,1.41
6011.00,1.41
6010.00,1.41
6009.00,1.41
6008.00,1.41
6007.00,1.41
6006.00,1.41
6005.00,1.41
6004.00,1.41
6003.00,1.41
6002.00,1.41
6001.00,1.41
6000.00,1.41
5999.00,1.41
5998.00,1.41
5997.00,1.41
5996.00,1.41
5995.00,1.41
5994.00,1.41
5993.00,1.40
5992.00,1.40
5991.00,1.40
5990.00,1.40
5989.00,1.40
5988.00,1.40
5987.00,1.40
5986.00,1.39
5985.00,1.39
5984.00,1.39
5983.00,1.39
5982.00,1.38
5981.00,1.38
5980.00,1.38
5979.00,1.37
5978.00,1.37
5977.00,1.37
5976.00,1.36
5975.00,1.36
5974.00,1.35
5973.00,1.35
5972.00,1.35
5971.00,1.34
5970.00,1.34
5969.00,1.33
5968.00,1.33
5967.00,1.32
5966.00,1.32
5965.00,1.31
5964.00,1.31
5963.00,1.31
5962.00,1.30
5961.00,1.30
5960.00,1.29
5959.00,1.29
5958.00,1.28
5957.00,1.28
5956.00,1.28
5955.00,1.27
5954.00,1.27
5953.00,1.27
5952.00,1.26
5951.00,1.26
5950.00,1.26
5949.00,1.25
5948.00,1.25
5947.00,1.25
5946.00,1.24
5945.00,1.24
5944.00,1.24
5943.00,1.24
5942.00,1.23
5941.00,1.23
5940.00,1.23
5939.00,1.23
5938.00,1.22
5937.00,1.22
5936.00,1.22
5935.00,1.22
5934.00,1.21
5933.00,1.21
5932.00,1.21
5931.00,1.21
5930.00,1.20
5929.00,1.20
5928.00,1.20
5927.00,1.19
5926.00,1.19
5925.00,1.19
5924.00,1.18
5923.00,1.18
5922.00,1.18
5921.00,1.17
5920.00,1.17
5919.00,1.17
5918.00,1.17
5917.00,1.16
5916.00,1.16
5915.00,1.16
5914.00,1.16
5913.00,1.15
5912.00,1.15
5911.00,1.15
5910.00,1.15
5909.00,1.14
5908.00,1.14
5907.00,1.14
5906.00,1.14
5905.00,1.14
5904.00,1.14
5903.00,1.14
5902.00,1.14
5901.00,1.14
5900.00,1.14
5899.00,1.14
5898.00,1.14
5897.00,1.14
5896.00,1.14
5895.00,1.14
5894.00,1.14
5893.00,1.14
5892.00,1.14
5891.00,1.14
5890.00,1.14
5889.00,1.14
5888.00,1.15
5887.00,1.15
5886.00,1.15
5885.00,1.15
5884.00,1.16
5883.00,1.16
5882.00,1.17
5881.00,1.17
5880.00,1.17
5879.00,1.18
5878.00,1.18
5877.00,1.19
5876.00,1.19
5875.00,1.19
5874.00,1.20
5873.00,1.20
5872.00,1.20
5871.00,1.21
5870.00,1.21
5869.00,1.21
5868.00,1.22
5867.00,1.22
5866.00,1.22
5865.00,1.23
5864.00,1.23
5863.00,1.23
5862.00,1.23
5861.00,1.24
5860.00,1.24
5859.00,1.24
5858.00,1.24
5857.00,1.24
5856.00,1.24
5855.00,1.24
5854.00,1.24
5853.00,1.24
5852.00,1.24
5851.00,1.24
5850.00,1.24
5849.00,1.24
5848.00,1.24
5847.00,1.24
5846.00,1.24
5845.00,1.24
5844.00,1.24
5843.00,1.24
5842.00,1.24
5841.00,1.25
5840.00,1.25
5839.00,1.25
5838.00,1.25
5837.00,1.25
5836.00,1.25
5835.00,1.25
5834.00,1.25
5833.00,1.25
5832.00,1.25
5831.00,1.25
5830.00,1.25
5829.00,1.25
5828.00,1.26
5827.00,1.26
5826.00,1.26
5825.00,1.26
5824.00,1.26
5823.00,1.26
5822.00,1.26
5821.00,1.26
5820.00,1.26
5819.00,1.26
5818.00,1.25
5817.00,1.25
5816.00,1.25
5815.00,1.25
5814.00,1.25
5813.00,1.24
5812.00,1.24
5811.00,1.24
5810.00,1.23
5809.00,1.23
5808.00,1.23
5807.00,1.23
5806.00,1.22
5805.00,1.22
5804.00,1.22
5803.00,1.21
5802.00,1.21
5801.00,1.21
5800.00,1.20
5799.00,1.20
5798.00,1.20
5797.00,1.20
5796.00,1.19
5795.00,1.19
5794.00,1.19
5793.00,1.19
5792.00,1.18
5791.00,1.18
5790.00,1.18
5789.00,1.18
5788.00,1.18
5787.00,1.17
5786.00,1.17
5785.00,1.17
5784.00,1.17
5783.00,1.17
5782.00,1.17
5781.00,1.17
5780.00,1.17
5779.00,1.17
5778.00,1.17
5777.00,1.17
5776.00,1.17
5775.00,1.17
5774.00,1.17
5773.00,1.18
5772.00,1.18
5771.00,1.18
5770.00,1.18
5769.00,1.18
5768.00,1.18
5767.00,1.18
5766.00,1.19
5765.00,1.19
5764.00,1.19
5763.00,1.19
5762.00,1.19
5761.00,1.20
5760.00,1.20
5759.00,1.20
5758.00,1.20
5757.00,1.21
5756.00,1.21
5755.00,1.21
5754.00,1.22
5753.00,1.22
5752.00,1.22
5751.00,1.22
5750.00,1.23
5749.00,1.23
5748.00,1.23
5747.00,1.24
5746.00,1.24
5745.00,1.24
5744.00,1.24
5743.00,1.25
5742.00,1.25
5741.00,1.25
5740.00,1.26
5739.00,1.26
5738.00,1.26
5737.00,1.26
5736.00,1.27
5735.00,1.27
5734.00,1.27
5733.00,1.27
5732.00,1.28
5731.00,1.28
5730.00,1.28
5729.00,1.28
5728.00,1.28
5727.00,1.29
5726.00,1.29
5725.00,1.29
5724.00,1.29
5723.00,1.29
5722.00,1.29
5721.00,1.29
5720.00,1.29
5719.00,1.29
5718.00,1.29
5717.00,1.29
5716.00,1.29
5715.00,1.29
5714.00,1.29
5713.00,1.29
5712.00,1.29
5711.00,1.29
5710.00,1.29
5709.00,1.29
5708.00,1.29
5707.00,1.29
5706.00,1.29
5705.00,1.28
5704.00,1.28
5703.00,1.28
5702.00,1.28
5701.00,1.28
5700.00,1.28
5699.00,1.28
5698.00,1.28
5697.00,1.27
5696.00,1.27
5695.00,1.27
5694.00,1.27
5693.00,1.27
5692.00,1.27
5691.00,1.27
5690.00,1.27
5689.00,1.27
5688.00,1.27
5687.00,1.26
5686.00,1.26
5685.00,1.26
5684.00,1.26
5683.00,1.26
5682.00,1.26
5681.00,1.25
5680.00,1.25
5679.00,1.25
5678.00,1.25
5677.00,1.25
5676.00,1.24
5675.00,1.24
5674.00,1.24
5673.00,1.24
5672.00,1.24
5671.00,1.24
5670.00,1.23
5669.00,1.23
5668.00,1.23
5667.00,1.23
5666.00,1.23
5665.00,1.23
5664.00,1.23
5663.00,1.23
5662.00,1.22
5661.00,1.22
5660.00,1.22
5659.00,1.22
5658.00,1.22
5657.00,1.22
5656.00,1.22
5655.00,1.23
5654.00,1.23
5653.00,1.23
5652.00,1.23
5651.00,1.23
5650.00,1.23
5649.00,1.24
5648.00,1.24
5647.00,1.24
5646.00,1.24
5645.00,1.25
5644.00,1.25
5643.00,1.25
5642.00,1.25
5641.00,1.26
5640.00,1.26
5639.00,1.26
5638.00,1.27
5637.00,1.27
5636.00,1.27
5635.00,1.28
5634.00,1.28
5633.00,1.28
5632.00,1.28
5631.00,1.29
5630.00,1.29
5629.00,1.29
5628.00,1.29
5627.00,1.29
5626.00,1.29
5625.00,1.30
5624.00,1.30
5623.00,1.30
5622.00,1.30
5621.00,1.30
5620.00,1.30
5619.00,1.31
5618.00,1.31
5617.00,1.31
5616.00,1.31
5615.00,1.31
5614.00,1.31
5613.00,1.31
5612.00,1.31
5611.00,1.31
5610.00,1.32
5609.00,1.32
5608.00,1.32
5607.00,1.32
5606.00,1.32
5605.00,1.32
5604.00,1.32
5603.00,1.32
5602.00,1.33
5601.00,1.33
5600.00,1.33
5599.00,1.33
5598.00,1.34
5597.00,1.34
5596.00,1.34
5595.00,1.34
5594.00,1.35
5593.00,1.35
5592.00,1.35
5591.00,1.36
5590.00,1.36
5589.00,1.36
5588.00,1.36
5587.00,1.36
5586.00,1.37
5585.00,1.37
5584.00,1.37
5583.00,1.37
5582.00,1.38
5581.00,1.38
5580.00,1.38
5579.00,1.38
5578.00,1.39
5577.00,1.39
5576.00,1.39
5575.00,1.39
5574.00,1.39
5573.00,1.39
5572.00,1.39
5571.00,1.39
5570.00,1.39
5569.00,1.39
5568.00,1.39
5567.00,1.39
5566.00,1.39
5565.00,1.39
5564.00,1.39
5563.00,1.39
5562.00,1.39
5561.00,1.39
5560.00,1.39
5559.00,1.39
5558.00,1.39
5557.00,1.39
5556.00,1.39
5555.00,1.39
5554.00,1.39
5553.00,1.39
5552.00,1.39
5551.00,1.39
5550.00,1.39
5549.00,1.39
5548.00,1.39
5547.00,1.39
5546.00,1.39
5545.00,1.39
5544.00,1.39
5543.00,1.39
5542.00,1.39
5541.00,1.39
5540.00,1.39
5539.00,1.39
5538.00,1.39
5537.00,1.39
5536.00,1.39
5535.00,1.39
5534.00,1.39
5533.00,1.39
5532.00,1.39
5531.00,1.39
5530.00,1.39
5529.00,1.39
5528.00,1.39
5527.00,1.39
5526.00,1.39
5525.00,1.39
5524.00,1.39
5523.00,1.39
5522.00,1.39
5521.00,1.39
5520.00,1.39
5519.00,1.38
5518.00,1.38
5517.00,1.38
5516.00,1.38
5515.00,1.38
5514.00,1.38
5513.00,1.38
5512.00,1.38
5511.00,1.39
5510.00,1.39
5509.00,1.39
5508.00,1.39
5507.00,1.39
5506.00,1.39
5505.00,1.39
5504.00,1.39
5503.00,1.39
5502.00,1.39
5501.00,1.39
5500.00,1.39
5499.00,1.39
5498.00,1.39
5497.00,1.39
5496.00,1.40
5495.00,1.40
5494.00,1.40
5493.00,1.40
5492.00,1.40
5491.00,1.40
5490.00,1.40
5489.00,1.41
5488.00,1.41
5487.00,1.41
5486.00,1.41
5485.00,1.41
5484.00,1.41
5483.00,1.41
5482.00,1.41
5481.00,1.41
5480.00,1.41
5479.00,1.41
5478.00,1.41
5477.00,1.41
5476.00,1.41
5475.00,1.41
5474.00,1.42
5473.00,1.42
5472.00,1.42
5471.00,1.42
5470.00,1.42
5469.00,1.42
5468.00,1.42
5467.00,1.42
5466.00,1.42
5465.00,1.41
5464.00,1.41
5463.00,1.42
5462.00,1.42
5461.00,1.42
5460.00,1.42
5459.00,1.42
5458.00,1.42
5457.00,1.42
5456.00,1.42
5455.00,1.42
5454.00,1.42
5453.00,1.42
5452.00,1.42
5451.00,1.42
5450.00,1.42
5449.00,1.42
5448.00,1.42
5447.00,1.42
5446.00,1.42
5445.00,1.42
5444.00,1.42
5443.00,1.42
5442.00,1.42
5441.00,1.42
5440.00,1.42
5439.00,1.43
5438.00,1.43
5437.00,1.43
5436.00,1.43
5435.00,1.43
5434.00,1.43
5433.00,1.43
5432.00,1.43
5431.00,1.43
5430.00,1.43
5429.00,1.43
5428.00,1.43
5427.00,1.43
5426.00,1.44
5425.00,1.44
5424.00,1.44
5423.00,1.44
5422.00,1.44
5421.00,1.45
5420.00,1.45
5419.00,1.45
5418.00,1.45
5417.00,1.45
5416.00,1.45
5415.00,1.46
5414.00,1.46
5413.00,1.46
5412.00,1.46
5411.00,1.46
5410.00,1.46
5409.00,1.46
5408.00,1.46
5407.00,1.46
5406.00,1.46
5405.00,1.46
5404.00,1.46
5403.00,1.46
5402.00,1.46
5401.00,1.46
5400.00,1.46
5399.00,1.46
5398.00,1.46
5397.00,1.46
5396.00,1.45
5395.00,1.45
5394.00,1.45
5393.00,1.45
5392.00,1.44
5391.00,1.44
5390.00,1.44
5389.00,1.43
5388.00,1.43
5387.00,1.43
5386.00,1.42
5385.00,1.42
5384.00,1.42
5383.00,1.41
5382.00,1.41
5381.00,1.40
5380.00,1.39
5379.00,1.39
5378.00,1.38
5377.00,1.38
5376.00,1.37
5375.00,1.36
5374.00,1.35
5373.00,1.35
5372.00,1.34
5371.00,1.33
5370.00,1.33
5369.00,1.32
5368.00,1.31
5367.00,1.30
5366.00,1.29
5365.00,1.29
5364.00,1.28
5363.00,1.27
5362.00,1.26
5361.00,1.25
5360.00,1.24
5359.00,1.24
5358.00,1.23
5357.00,1.22
5356.00,1.21
5355.00,1.20
5354.00,1.20
5353.00,1.19
5352.00,1.18
5351.00,1.17
5350.00,1.16
5349.00,1.16
5348.00,1.15
5347.00,1.14
5346.00,1.13
5345.00,1.13
5344.00,1.12
5343.00,1.11
5342.00,1.11
5341.00,1.10
5340.00,1.09
5339.00,1.08
5338.00,1.07
5337.00,1.07
5336.00,1.06
5335.00,1.05
5334.00,1.04
5333.00,1.04
5332.00,1.03
5331.00,1.02
5330.00,1.01
5329.00,1.00
5328.00,1.00
5327.00,0.99
5326.00,0.98
5325.00,0.97
5324.00,0.96
5323.00,0.95
5322.00,0.94
5321.00,0.93
5320.00,0.92
5319.00,0.91
5318.00,0.90
5317.00,0.89
5316.00,0.88
5315.00,0.87
5314.00,0.86
5313.00,0.85
5312.00,0.84
5311.00,0.83
5310.00,0.82
5309.00,0.81
5308.00,0.80
5307.00,0.79
5306.00,0.78
5305.00,0.77
5304.00,0.76
5303.00,0.75
5302.00,0.75
5301.00,0.74
5300.00,0.73
5299.00,0.72
5298.00,0.72
5297.00,0.71
5296.00,0.70
5295.00,0.70
5294.00,0.69
5293.00,0.69
5292.00,0.68
5291.00,0.68
5290.00,0.68
5289.00,0.67
5288.00,0.67
5287.00,0.67
5286.00,0.66
5285.00,0.66
5284.00,0.66
5283.00,0.66
5282.00,0.65
5281.00,0.65
5280.00,0.65
5279.00,0.65
5278.00,0.65
5277.00,0.65
5276.00,0.65
5275.00,0.65
5274.00,0.64
5273.00,0.64
5272.00,0.64
5271.00,0.64
5270.00,0.64
5269.00,0.64
5268.00,0.64
5267.00,0.64
5266.00,0.64
5265.00,0.64
5264.00,0.64
5263.00,0.64
5262.00,0.64
5261.00,0.64
5260.00,0.64
5259.00,0.65
5258.00,0.65
5257.00,0.65
5256.00,0.65
5255.00,0.65
5254.00,0.65
5253.00,0.65
5252.00,0.65
5251.00,0.66
5250.00,0.66
5249.00,0.66
5248.00,0.66
5247.00,0.66
5246.00,0.66
5245.00,0.66
5244.00,0.67
5243.00,0.67
5242.00,0.67
5241.00,0.67
5240.00,0.67
5239.00,0.67
5238.00,0.67
5237.00,0.67
5236.00,0.67
5235.00,0.67
5234.00,0.67
5233.00,0.67
5232.00,0.67
5231.00,0.67
5230.00,0.67
5229.00,0.67
5228.00,0.66
5227.00,0.66
5226.00,0.66
5225.00,0.66
5224.00,0.66
5223.00,0.66
5222.00,0.66
5221.00,0.66
5220.00,0.65
5219.00,0.65
5218.00,0.65
5217.00,0.65
5216.00,0.65
5215.00,0.65
5214.00,0.65
5213.00,0.65
5212.00,0.65
5211.00,0.65
5210.00,0.64
5209.00,0.64
5208.00,0.64
5207.00,0.64
5206.00,0.64
5205.00,0.64
5204.00,0.65
5203.00,0.65
5202.00,0.64
5201.00,0.64
5200.00,0.64
5199.00,0.64
5198.00,0.64
5197.00,0.64
5196.00,0.64
5195.00,0.64
5194.00,0.64
5193.00,0.64
5192.00,0.64
5191.00,0.64
5190.00,0.64
5189.00,0.65
5188.00,0.65
5187.00,0.65
5186.00,0.65
5185.00,0.65
5184.00,0.65
5183.00,0.65
5182.00,0.64
5181.00,0.64
5180.00,0.64
5179.00,0.64
5178.00,0.64
5177.00,0.64
5176.00,0.64
5175.00,0.64
5174.00,0.64
5173.00,0.65
5172.00,0.65
5171.00,0.65
5170.00,0.65
5169.00,0.65
5168.00,0.65
5167.00,0.65
5166.00,0.65
5165.00,0.65
5164.00,0.66
5163.00,0.66
5162.00,0.66
5161.00,0.66
5160.00,0.66
5159.00,0.66
5158.00,0.66
5157.00,0.66
5156.00,0.66
5155.00,0.67
5154.00,0.67
5153.00,0.67
5152.00,0.67
5151.00,0.67
5150.00,0.67
5149.00,0.67
5148.00,0.68
5147.00,0.68
5146.00,0.68
5145.00,0.68
5144.00,0.68
5143.00,0.68
5142.00,0.68
5141.00,0.68
5140.00,0.68
5139.00,0.68
5138.00,0.69
5137.00,0.69
5136.00,0.69
5135.00,0.69
5134.00,0.69
5133.00,0.69
5132.00,0.70
5131.00,0.70
5130.00,0.70
5129.00,0.70
5128.00,0.70
5127.00,0.71
5126.00,0.71
5125.00,0.71
5124.00,0.71
5123.00,0.71
5122.00,0.71
5121.00,0.72
5120.00,0.72
5119.00,0.72
5118.00,0.72
5117.00,0.72
5116.00,0.72
5115.00,0.72
5114.00,0.73
5113.00,0.73
5112.00,0.73
5111.00,0.73
5110.00,0.73
5109.00,0.73
5108.00,0.73
5107.00,0.73
5106.00,0.74
5105.00,0.74
5104.00,0.74
5103.00,0.74
5102.00,0.74
5101.00,0.74
5100.00,0.74
5099.00,0.74
5098.00,0.74
5097.00,0.74
5096.00,0.74
5095.00,0.74
5094.00,0.74
5093.00,0.75
5092.00,0.75
5091.00,0.75
5090.00,0.75
5089.00,0.75
5088.00,0.75
5087.00,0.75
5086.00,0.75
5085.00,0.75
5084.00,0.75
5083.00,0.75
5082.00,0.75
5081.00,0.75
5080.00,0.75
5079.00,0.75
5078.00,0.75
5077.00,0.75
5076.00,0.75
5075.00,0.74
5074.00,0.74
5073.00,0.74
5072.00,0.74
5071.00,0.74
5070.00,0.74
5069.00,0.74
5068.00,0.74
5067.00,0.74
5066.00,0.74
5065.00,0.74
5064.00,0.74
5063.00,0.73
5062.00,0.73
5061.00,0.73
5060.00,0.73
5059.00,0.73
5058.00,0.73
5057.00,0.73
5056.00,0.73
5055.00,0.73
5054.00,0.73
5053.00,0.73
5052.00,0.73
5051.00,0.73
5050.00,0.73
5049.00,0.74
5048.00,0.74
5047.00,0.74
5046.00,0.74
5045.00,0.74
5044.00,0.74
5043.00,0.74
5042.00,0.74
5041.00,0.74
5040.00,0.74
5039.00,0.75
5038.00,0.75
5037.00,0.75
5036.00,0.75
5035.00,0.75
5034.00,0.75
5033.00,0.76
5032.00,0.76
5031.00,0.76
5030.00,0.76
5029.00,0.76
5028.00,0.76
5027.00,0.76
5026.00,0.76
5025.00,0.77
5024.00,0.77
5023.00,0.77
5022.00,0.77
5021.00,0.77
5020.00,0.77
5019.00,0.77
5018.00,0.77
5017.00,0.77
5016.00,0.78
5015.00,0.78
5014.00,0.78
5013.00,0.78
5012.00,0.78
5011.00,0.78
5010.00,0.78
5009.00,0.78
5008.00,0.78
5007.00,0.78
5006.00,0.78
5005.00,0.78
5004.00,0.78
5003.00,0.78
5002.00,0.78
5001.00,0.78
5000.00,0.78
4999.00,0.78
4998.00,0.78
4997.00,0.78
4996.00,0.79
4995.00,0.79
4994.00,0.79
4993.00,0.79
4992.00,0.79
4991.00,0.79
4990.00,0.79
4989.00,0.79
4988.00,0.79
4987.00,0.79
4986.00,0.79
4985.00,0.80
4984.00,0.80
4983.00,0.80
4982.00,0.80
4981.00,0.80
4980.00,0.80
4979.00,0.80
4978.00,0.80
4977.00,0.80
4976.00,0.80
4975.00,0.80
4974.00,0.80
4973.00,0.80
4972.00,0.80
4971.00,0.80
4970.00,0.80
4969.00,0.80
4968.00,0.80
4967.00,0.80
4966.00,0.80
4965.00,0.80
4964.00,0.80
4963.00,0.80
4962.00,0.81
4961.00,0.81
4960.00,0.81
4959.00,0.81
4958.00,0.81
4957.00,0.81
4956.00,0.81
4955.00,0.81
4954.00,0.82
4953.00,0.82
4952.00,0.82
4951.00,0.82
4950.00,0.82
4949.00,0.82
4948.00,0.82
4947.00,0.82
4946.00,0.82
4945.00,0.82
4944.00,0.83
4943.00,0.83
4942.00,0.83
4941.00,0.83
4940.00,0.83
4939.00,0.83
4938.00,0.83
4937.00,0.83
4936.00,0.83
4935.00,0.83
4934.00,0.83
4933.00,0.83
4932.00,0.83
4931.00,0.83
4930.00,0.83
4929.00,0.83
4928.00,0.83
4927.00,0.83
4926.00,0.83
4925.00,0.83
4924.00,0.83
4923.00,0.83
4922.00,0.83
4921.00,0.83
4920.00,0.83
4919.00,0.83
4918.00,0.84
4917.00,0.84
4916.00,0.84
4915.00,0.84
4914.00,0.84
4913.00,0.85
4912.00,0.85
4911.00,0.85
4910.00,0.85
4909.00,0.85
4908.00,0.86
4907.00,0.86
4906.00,0.86
4905.00,0.86
4904.00,0.86
4903.00,0.86
4902.00,0.87
4901.00,0.87
4900.00,0.87
4899.00,0.87
4898.00,0.88
4897.00,0.88
4896.00,0.88
4895.00,0.88
4894.00,0.89
4893.00,0.89
4892.00,0.89
4891.00,0.89
4890.00,0.89
4889.00,0.89
4888.00,0.89
4887.00,0.89
4886.00,0.89
4885.00,0.89
4884.00,0.89
4883.00,0.89
4882.00,0.89
4881.00,0.89
4880.00,0.90
4879.00,0.90
4878.00,0.90
4877.00,0.90
4876.00,0.90
4875.00,0.90
4874.00,0.90
4873.00,0.90
4872.00,0.90
4871.00,0.90
4870.00,0.90
4869.00,0.90
4868.00,0.90
4867.00,0.90
4866.00,0.90
4865.00,0.90
4864.00,0.90
4863.00,0.90
4862.00,0.90
4861.00,0.90
4860.00,0.90
4859.00,0.90
4858.00,0.90
4857.00,0.90
4856.00,0.90
4855.00,0.90
4854.00,0.90
4853.00,0.90
4852.00,0.90
4851.00,0.90
4850.00,0.90
4849.00,0.90
4848.00,0.90
4847.00,0.90
4846.00,0.90
4845.00,0.90
4844.00,0.90
4843.00,0.90
4842.00,0.90
4841.00,0.91
4840.00,0.91
4839.00,0.91
4838.00,0.91
4837.00,0.91
4836.00,0.91
4835.00,0.92
4834.00,0.92
4833.00,0.92
4832.00,0.92
4831.00,0.92
4830.00,0.93
4829.00,0.93
4828.00,0.93
4827.00,0.93
4826.00,0.93
4825.00,0.94
4824.00,0.94
4823.00,0.94
4822.00,0.94
4821.00,0.94
4820.00,0.94
4819.00,0.95
4818.00,0.95
4817.00,0.95
4816.00,0.95
4815.00,0.95
4814.00,0.95
4813.00,0.95
4812.00,0.95
4811.00,0.95
4810.00,0.95
4809.00,0.95
4808.00,0.95
4807.00,0.95
4806.00,0.95
4805.00,0.95
4804.00,0.95
4803.00,0.95
4802.00,0.95
4801.00,0.95
4800.00,0.95
4799.00,0.95
4798.00,0.96
4797.00,0.96
4796.00,0.96
4795.00,0.96
4794.00,0.96
4793.00,0.96
4792.00,0.96
4791.00,0.96
4790.00,0.97
4789.00,0.97
4788.00,0.97
4787.00,0.97
4786.00,0.97
4785.00,0.98
4784.00,0.98
4783.00,0.98
4782.00,0.98
4781.00,0.98
4780.00,0.99
4779.00,0.99
4778.00,0.99
4777.00,0.99
4776.00,0.99
4775.00,0.99
4774.00,0.99
4773.00,0.99
4772.00,0.99
4771.00,1.00
4770.00,1.00
4769.00,1.00
4768.00,1.00
4767.00,1.00
4766.00,1.00
4765.00,1.00
4764.00,1.00
4763.00,1.00
4762.00,1.00
4761.00,1.00
4760.00,1.00
4759.00,1.00
4758.00,1.01
4757.00,1.01
4756.00,1.01
4755.00,1.01
4754.00,1.01
4753.00,1.01
4752.00,1.02
4751.00,1.02
4750.00,1.02
4749.00,1.02
4748.00,1.02
4747.00,1.02
4746.00,1.03
4745.00,1.03
4744.00,1.03
4743.00,1.03
4742.00,1.04
4741.00,1.04
4740.00,1.04
4739.00,1.05
4738.00,1.05
4737.00,1.05
4736.00,1.05
4735.00,1.06
4734.00,1.06
4733.00,1.06
4732.00,1.06
4731.00,1.07
4730.00,1.07
4729.00,1.07
4728.00,1.07
4727.00,1.08
4726.00,1.08
4725.00,1.08
4724.00,1.08
4723.00,1.09
4722.00,1.09
4721.00,1.09
4720.00,1.10
4719.00,1.10
4718.00,1.10
4717.00,1.11
4716.00,1.11
4715.00,1.11
4714.00,1.12
4713.00,1.12
4712.00,1.12
4711.00,1.12
4710.00,1.13
4709.00,1.13
4708.00,1.13
4707.00,1.13
4706.00,1.14
4705.00,1.14
4704.00,1.14
4703.00,1.14
4702.00,1.14
4701.00,1.15
4700.00,1.15
4699.00,1.15
4698.00,1.15
4697.00,1.15
4696.00,1.16
4695.00,1.16
4694.00,1.16
4693.00,1.16
4692.00,1.16
4691.00,1.17
4690.00,1.17
4689.00,1.17
4688.00,1.17
4687.00,1.17
4686.00,1.17
4685.00,1.17
4684.00,1.17
4683.00,1.17
4682.00,1.17
4681.00,1.17
4680.00,1.17
4679.00,1.18
4678.00,1.18
4677.00,1.18
4676.00,1.18
4675.00,1.18
4674.00,1.18
4673.00,1.18
4672.00,1.18
4671.00,1.19
4670.00,1.19
4669.00,1.19
4668.00,1.19
4667.00,1.19
4666.00,1.19
4665.00,1.19
4664.00,1.19
4663.00,1.19
4662.00,1.19
4661.00,1.20
4660.00,1.20
4659.00,1.20
4658.00,1.20
4657.00,1.21
4656.00,1.21
4655.00,1.21
4654.00,1.21
4653.00,1.22
4652.00,1.22
4651.00,1.22
4650.00,1.22
4649.00,1.23
4648.00,1.23
4647.00,1.23
4646.00,1.23
4645.00,1.24
4644.00,1.24
4643.00,1.24
4642.00,1.24
4641.00,1.25
4640.00,1.25
4639.00,1.25
4638.00,1.25
4637.00,1.26
4636.00,1.26
4635.00,1.26
4634.00,1.26
4633.00,1.26
4632.00,1.27
4631.00,1.27
4630.00,1.27
4629.00,1.27
4628.00,1.27
4627.00,1.27
4626.00,1.27
4625.00,1.27
4624.00,1.27
4623.00,1.27
4622.00,1.27
4621.00,1.27
4620.00,1.28
4619.00,1.28
4618.00,1.28
4617.00,1.28
4616.00,1.28
4615.00,1.28
4614.00,1.29
4613.00,1.29
4612.00,1.29
4611.00,1.29
4610.00,1.29
4609.00,1.29
4608.00,1.29
4607.00,1.30
4606.00,1.30
4605.00,1.30
4604.00,1.30
4603.00,1.30
4602.00,1.30
4601.00,1.31
4600.00,1.31
4599.00,1.31
4598.00,1.31
4597.00,1.31
4596.00,1.31
4595.00,1.31
4594.00,1.31
4593.00,1.32
4592.00,1.32
4591.00,1.32
4590.00,1.32
4589.00,1.32
4588.00,1.32
4587.00,1.33
4586.00,1.33
4585.00,1.33
4584.00,1.33
4583.00,1.34
4582.00,1.34
4581.00,1.34
4580.00,1.34
4579.00,1.35
4578.00,1.35
4577.00,1.35
4576.00,1.35
4575.00,1.36
4574.00,1.36
4573.00,1.36
4572.00,1.37
4571.00,1.37
4570.00,1.37
4569.00,1.38
4568.00,1.38
4567.00,1.38
4566.00,1.38
4565.00,1.38
4564.00,1.38
4563.00,1.38
4562.00,1.38
4561.00,1.38
4560.00,1.37
4559.00,1.37
4558.00,1.37
4557.00,1.37
4556.00,1.36
4555.00,1.36
4554.00,1.36
4553.00,1.35
4552.00,1.35
4551.00,1.35
4550.00,1.34
4549.00,1.34
4548.00,1.34
4547.00,1.34
4546.00,1.34
4545.00,1.33
4544.00,1.33
4543.00,1.33
4542.00,1.33
4541.00,1.33
4540.00,1.33
4539.00,1.33
4538.00,1.33
4537.00,1.33
4536.00,1.33
4535.00,1.33
4534.00,1.33
4533.00,1.33
4532.00,1.33
4531.00,1.34
4530.00,1.34
4529.00,1.34
4528.00,1.34
4527.00,1.34
4526.00,1.35
4525.00,1.35
4524.00,1.35
4523.00,1.35
4522.00,1.35
4521.00,1.35
4520.00,1.35
4519.00,1.35
4518.00,1.35
4517.00,1.36
4516.00,1.36
4515.00,1.36
4514.00,1.36
4513.00,1.36
4512.00,1.36
4511.00,1.36
4510.00,1.36
4509.00,1.36
4508.00,1.36
4507.00,1.36
4506.00,1.36
4505.00,1.36
4504.00,1.36
4503.00,1.36
4502.00,1.36
4501.00,1.35
4500.00,1.35
4499.00,1.35
4498.00,1.35
4497.00,1.35
4496.00,1.35
4495.00,1.35
4494.00,1.35
4493.00,1.35
4492.00,1.35
4491.00,1.35
4490.00,1.34
4489.00,1.34
4488.00,1.34
4487.00,1.34
4486.00,1.34
4485.00,1.33
4484.00,1.33
4483.00,1.33
4482.00,1.33
4481.00,1.33
4480.00,1.32
4479.00,1.32
4478.00,1.32
4477.00,1.32
4476.00,1.31
4475.00,1.31
4474.00,1.31
4473.00,1.30
4472.00,1.30
4471.00,1.30
4470.00,1.29
4469.00,1.29
4468.00,1.29
4467.00,1.28
4466.00,1.28
4465.00,1.27
4464.00,1.27
4463.00,1.27
4462.00,1.26
4461.00,1.26
4460.00,1.25
4459.00,1.25
4458.00,1.24
4457.00,1.24
4456.00,1.23
4455.00,1.23
4454.00,1.22
4453.00,1.22
4452.00,1.21
4451.00,1.20
4450.00,1.20
4449.00,1.19
4448.00,1.19
4447.00,1.18
4446.00,1.18
4445.00,1.17
4444.00,1.17
4443.00,1.16
4442.00,1.16
4441.00,1.15
4440.00,1.15
4439.00,1.15
4438.00,1.15
4437.00,1.14
4436.00,1.14
4435.00,1.14
4434.00,1.14
4433.00,1.14
4432.00,1.14
4431.00,1.14
4430.00,1.14
4429.00,1.14
4428.00,1.14
4427.00,1.13
4426.00,1.13
4425.00,1.14
4424.00,1.14
4423.00,1.14
4422.00,1.14
4421.00,1.14
4420.00,1.14
4419.00,1.14
4418.00,1.14
4417.00,1.15
4416.00,1.15
4415.00,1.15
4414.00,1.15
4413.00,1.15
4412.00,1.15
4411.00,1.15
4410.00,1.15
4409.00,1.15
4408.00,1.15
4407.00,1.15
4406.00,1.15
4405.00,1.15
4404.00,1.15
4403.00,1.15
4402.00,1.15
4401.00,1.15
4400.00,1.15
4399.00,1.15
4398.00,1.15
4397.00,1.14
4396.00,1.14
4395.00,1.14
4394.00,1.14
4393.00,1.14
4392.00,1.14
4391.00,1.14
4390.00,1.14
4389.00,1.14
4388.00,1.14
4387.00,1.14
4386.00,1.14
4385.00,1.14
4384.00,1.14
4383.00,1.14
4382.00,1.14
4381.00,1.14
4380.00,1.14
4379.00,1.14
4378.00,1.14
4377.00,1.14
4376.00,1.14
4375.00,1.14
4374.00,1.14
4373.00,1.15
4372.00,1.15
4371.00,1.15
4370.00,1.15
4369.00,1.15
4368.00,1.16
4367.00,1.16
4366.00,1.16
4365.00,1.16
4364.00,1.17
4363.00,1.17
4362.00,1.17
4361.00,1.17
4360.00,1.17
4359.00,1.17
4358.00,1.17
4357.00,1.17
4356.00,1.18
4355.00,1.18
4354.00,1.18
4353.00,1.18
4352.00,1.18
4351.00,1.18
4350.00,1.18
4349.00,1.18
4348.00,1.18
4347.00,1.18
4346.00,1.17
4345.00,1.17
4344.00,1.17
4343.00,1.17
4342.00,1.17
4341.00,1.17
4340.00,1.16
4339.00,1.16
4338.00,1.16
4337.00,1.15
4336.00,1.15
4335.00,1.15
4334.00,1.15
4333.00,1.14
4332.00,1.14
4331.00,1.14
4330.00,1.13
4329.00,1.13
4328.00,1.13
4327.00,1.13
4326.00,1.12
4325.00,1.12
4324.00,1.12
4323.00,1.11
4322.00,1.11
4321.00,1.11
4320.00,1.11
4319.00,1.11
4318.00,1.10
4317.00,1.10
4316.00,1.11
4315.00,1.11
4314.00,1.11
4313.00,1.11
4312.00,1.11
4311.00,1.12
4310.00,1.12
4309.00,1.12
4308.00,1.13
4307.00,1.13
4306.00,1.14
4305.00,1.14
4304.00,1.15
4303.00,1.15
4302.00,1.16
4301.00,1.16
4300.00,1.17
4299.00,1.18
4298.00,1.18
4297.00,1.19
4296.00,1.19
4295.00,1.20
4294.00,1.20
4293.00,1.21
4292.00,1.21
4291.00,1.21
4290.00,1.22
4289.00,1.22
4288.00,1.22
4287.00,1.22
4286.00,1.23
4285.00,1.23
4284.00,1.23
4283.00,1.23
4282.00,1.23
4281.00,1.23
4280.00,1.23
4279.00,1.23
4278.00,1.22
4277.00,1.22
4276.00,1.22
4275.00,1.22
4274.00,1.22
4273.00,1.22
4272.00,1.22
4271.00,1.22
4270.00,1.22
4269.00,1.22
4268.00,1.22
4267.00,1.22
4266.00,1.22
4265.00,1.23
4264.00,1.23
4263.00,1.23
4262.00,1.23
4261.00,1.23
4260.00,1.23
4259.00,1.23
4258.00,1.24
4257.00,1.24
4256.00,1.24
4255.00,1.24
4254.00,1.24
4253.00,1.24
4252.00,1.25
4251.00,1.25
4250.00,1.25
4249.00,1.25
4248.00,1.25
4247.00,1.25
4246.00,1.25
4245.00,1.25
4244.00,1.25
4243.00,1.26
4242.00,1.26
4241.00,1.26
4240.00,1.26
4239.00,1.26
4238.00,1.26
4237.00,1.26
4236.00,1.26
4235.00,1.26
4234.00,1.26
4233.00,1.26
4232.00,1.26
4231.00,1.26
4230.00,1.26
4229.00,1.26
4228.00,1.26
4227.00,1.26
4226.00,1.25
4225.00,1.25
4224.00,1.25
4223.00,1.25
4222.00,1.25
4221.00,1.25
4220.00,1.25
4219.00,1.25
4218.00,1.24
4217.00,1.24
4216.00,1.24
4215.00,1.23
4214.00,1.23
4213.00,1.23
4212.00,1.22
4211.00,1.22
4210.00,1.22
4209.00,1.21
4208.00,1.21
4207.00,1.21
4206.00,1.21
4205.00,1.20
4204.00,1.20
4203.00,1.20
4202.00,1.20
4201.00,1.20
4200.00,1.20
4199.00,1.20
4198.00,1.20
4197.00,1.20
4196.00,1.19
4195.00,1.19
4194.00,1.19
4193.00,1.19
4192.00,1.19
4191.00,1.19
4190.00,1.19
4189.00,1.19
4188.00,1.19
4187.00,1.19
4186.00,1.19
4185.00,1.19
4184.00,1.19
4183.00,1.20
4182.00,1.20
4181.00,1.20
4180.00,1.20
4179.00,1.20
4178.00,1.20
4177.00,1.21
4176.00,1.21
4175.00,1.21
4174.00,1.21
4173.00,1.21
4172.00,1.21
4171.00,1.22
4170.00,1.22
4169.00,1.22
4168.00,1.23
4167.00,1.23
4166.00,1.24
4165.00,1.24
4164.00,1.25
4163.00,1.25
4162.00,1.26
4161.00,1.26
4160.00,1.26
4159.00,1.27
4158.00,1.27
4157.00,1.27
4156.00,1.27
4155.00,1.27
4154.00,1.28
4153.00,1.28
4152.00,1.28
4151.00,1.28
4150.00,1.28
4149.00,1.28
4148.00,1.28
4147.00,1.28
4146.00,1.29
4145.00,1.29
4144.00,1.29
4143.00,1.29
4142.00,1.29
4141.00,1.29
4140.00,1.29
4139.00,1.28
4138.00,1.28
4137.00,1.28
4136.00,1.28
4135.00,1.27
4134.00,1.27
4133.00,1.27
4132.00,1.27
4131.00,1.27
4130.00,1.27
4129.00,1.26
4128.00,1.26
4127.00,1.26
4126.00,1.26
4125.00,1.26
4124.00,1.26
4123.00,1.26
4122.00,1.26
4121.00,1.26
4120.00,1.25
4119.00,1.25
4118.00,1.25
4117.00,1.25
4116.00,1.24
4115.00,1.24
4114.00,1.24
4113.00,1.24
4112.00,1.24
4111.00,1.24
4110.00,1.24
4109.00,1.24
4108.00,1.24
4107.00,1.24
4106.00,1.24
4105.00,1.24
4104.00,1.24
4103.00,1.24
4102.00,1.24
4101.00,1.24
4100.00,1.24
4099.00,1.24
4098.00,1.24
4097.00,1.24
4096.00,1.24
4095.00,1.24
4094.00,1.24
4093.00,1.24
4092.00,1.24
4091.00,1.24
4090.00,1.24
4089.00,1.25
4088.00,1.25
4087.00,1.25
4086.00,1.25
4085.00,1.24
4084.00,1.24
4083.00,1.24
4082.00,1.24
4081.00,1.24
4080.00,1.24
4079.00,1.24
4078.00,1.24
4077.00,1.25
4076.00,1.25
4075.00,1.25
4074.00,1.25
4073.00,1.25
4072.00,1.25
4071.00,1.25
4070.00,1.26
4069.00,1.26
4068.00,1.26
4067.00,1.26
4066.00,1.26
4065.00,1.26
4064.00,1.26
4063.00,1.27
4062.00,1.27
4061.00,1.27
4060.00,1.27
4059.00,1.27
4058.00,1.27
4057.00,1.28
4056.00,1.28
4055.00,1.28
4054.00,1.28
4053.00,1.28
4052.00,1.28
4051.00,1.28
4050.00,1.28
4049.00,1.28
4048.00,1.28
4047.00,1.28
4046.00,1.28
4045.00,1.29
4044.00,1.29
4043.00,1.29
4042.00,1.29
4041.00,1.30
4040.00,1.30
4039.00,1.30
4038.00,1.31
4037.00,1.31
4036.00,1.31
4035.00,1.32
4034.00,1.33
4033.00,1.33
4032.00,1.34
4031.00,1.34
4030.00,1.35
4029.00,1.36
4028.00,1.36
4027.00,1.36
4026.00,1.37
4025.00,1.37
4024.00,1.37
4023.00,1.37
4022.00,1.36
4021.00,1.36
4020.00,1.35
4019.00,1.34
4018.00,1.32
4017.00,1.30
4016.00,1.29
4015.00,1.26
4014.00,1.24
4013.00,1.22
4012.00,1.19
4011.00,1.16
4010.00,1.13
4009.00,1.10
4008.00,1.06
4007.00,1.02
4006.00,0.98
4005.00,0.94
4004.00,0.89
4003.00,0.84
4002.00,0.79
4001.00,0.74
4000.00,0.69
