创建为新数据集,样品 915 用户 Administrator 日期 星期一, 七月 29 2019
cm-1,%T
10000.00,1.45
9999.00,1.45
9998.00,1.45
9997.00,1.44
9996.00,1.44
9995.00,1.43
9994.00,1.43
9993.00,1.43
9992.00,1.42
9991.00,1.42
9990.00,1.41
9989.00,1.41
9988.00,1.40
9987.00,1.40
9986.00,1.39
9985.00,1.39
9984.00,1.38
9983.00,1.38
9982.00,1.37
9981.00,1.37
9980.00,1.36
9979.00,1.35
9978.00,1.35
9977.00,1.34
9976.00,1.33
9975.00,1.32
9974.00,1.32
9973.00,1.31
9972.00,1.30
9971.00,1.29
9970.00,1.28
9969.00,1.27
9968.00,1.26
9967.00,1.25
9966.00,1.24
9965.00,1.22
9964.00,1.21
9963.00,1.20
9962.00,1.19
9961.00,1.19
9960.00,1.18
9959.00,1.17
9958.00,1.16
9957.00,1.16
9956.00,1.15
9955.00,1.15
9954.00,1.14
9953.00,1.14
9952.00,1.13
9951.00,1.13
9950.00,1.13
9949.00,1.13
9948.00,1.12
9947.00,1.12
9946.00,1.12
9945.00,1.12
9944.00,1.12
9943.00,1.12
9942.00,1.12
9941.00,1.13
9940.00,1.13
9939.00,1.13
9938.00,1.13
9937.00,1.13
9936.00,1.14
9935.00,1.14
9934.00,1.14
9933.00,1.14
9932.00,1.14
9931.00,1.14
9930.00,1.13
9929.00,1.13
9928.00,1.13
9927.00,1.13
9926.00,1.13
9925.00,1.12
9924.00,1.12
9923.00,1.12
9922.00,1.11
9921.00,1.11
9920.00,1.11
9919.00,1.11
9918.00,1.10
9917.00,1.10
9916.00,1.10
9915.00,1.10
9914.00,1.10
9913.00,1.10
9912.00,1.10
9911.00,1.10
9910.00,1.10
9909.00,1.10
9908.00,1.10
9907.00,1.10
9906.00,1.10
9905.00,1.10
9904.00,1.10
9903.00,1.11
9902.00,1.11
9901.00,1.11
9900.00,1.12
9899.00,1.13
9898.00,1.13
9897.00,1.14
9896.00,1.15
9895.00,1.16
9894.00,1.16
9893.00,1.17
9892.00,1.18
9891.00,1.19
9890.00,1.19
9889.00,1.20
9888.00,1.21
9887.00,1.21
9886.00,1.22
9885.00,1.22
9884.00,1.23
9883.00,1.24
9882.00,1.24
9881.00,1.25
9880.00,1.26
9879.00,1.26
9878.00,1.27
9877.00,1.27
9876.00,1.27
9875.00,1.28
9874.00,1.28
9873.00,1.28
9872.00,1.28
9871.00,1.27
9870.00,1.27
9869.00,1.27
9868.00,1.26
9867.00,1.26
9866.00,1.25
9865.00,1.24
9864.00,1.23
9863.00,1.23
9862.00,1.22
9861.00,1.21
9860.00,1.20
9859.00,1.19
9858.00,1.18
9857.00,1.17
9856.00,1.16
9855.00,1.15
9854.00,1.14
9853.00,1.13
9852.00,1.12
9851.00,1.11
9850.00,1.11
9849.00,1.10
9848.00,1.09
9847.00,1.09
9846.00,1.08
9845.00,1.08
9844.00,1.07
9843.00,1.07
9842.00,1.06
9841.00,1.06
9840.00,1.06
9839.00,1.06
9838.00,1.06
9837.00,1.06
9836.00,1.06
9835.00,1.06
9834.00,1.06
9833.00,1.06
9832.00,1.07
9831.00,1.07
9830.00,1.07
9829.00,1.07
9828.00,1.07
9827.00,1.07
9826.00,1.07
9825.00,1.07
9824.00,1.07
9823.00,1.07
9822.00,1.07
9821.00,1.07
9820.00,1.08
9819.00,1.08
9818.00,1.08
9817.00,1.08
9816.00,1.08
9815.00,1.08
9814.00,1.09
9813.00,1.09
9812.00,1.09
9811.00,1.09
9810.00,1.09
9809.00,1.10
9808.00,1.10
9807.00,1.10
9806.00,1.10
9805.00,1.10
9804.00,1.10
9803.00,1.10
9802.00,1.11
9801.00,1.11
9800.00,1.11
9799.00,1.11
9798.00,1.12
9797.00,1.12
9796.00,1.12
9795.00,1.12
9794.00,1.11
9793.00,1.11
9792.00,1.10
9791.00,1.10
9790.00,1.09
9789.00,1.09
9788.00,1.08
9787.00,1.07
9786.00,1.06
9785.00,1.05
9784.00,1.04
9783.00,1.04
9782.00,1.03
9781.00,1.02
9780.00,1.00
9779.00,0.99
9778.00,0.98
9777.00,0.97
9776.00,0.96
9775.00,0.95
9774.00,0.93
9773.00,0.92
9772.00,0.91
9771.00,0.90
9770.00,0.89
9769.00,0.88
9768.00,0.88
9767.00,0.87
9766.00,0.86
9765.00,0.86
9764.00,0.86
9763.00,0.86
9762.00,0.85
9761.00,0.85
9760.00,0.85
9759.00,0.86
9758.00,0.86
9757.00,0.86
9756.00,0.86
9755.00,0.87
9754.00,0.87
9753.00,0.87
9752.00,0.88
9751.00,0.89
9750.00,0.89
9749.00,0.90
9748.00,0.90
9747.00,0.91
9746.00,0.91
9745.00,0.92
9744.00,0.93
9743.00,0.94
9742.00,0.94
9741.00,0.95
9740.00,0.96
9739.00,0.97
9738.00,0.98
9737.00,0.99
9736.00,1.00
9735.00,1.01
9734.00,1.02
9733.00,1.03
9732.00,1.04
9731.00,1.05
9730.00,1.05
9729.00,1.06
9728.00,1.07
9727.00,1.08
9726.00,1.09
9725.00,1.09
9724.00,1.10
9723.00,1.11
9722.00,1.11
9721.00,1.12
9720.00,1.12
9719.00,1.12
9718.00,1.13
9717.00,1.13
9716.00,1.13
9715.00,1.13
9714.00,1.13
9713.00,1.12
9712.00,1.12
9711.00,1.12
9710.00,1.11
9709.00,1.11
9708.00,1.11
9707.00,1.10
9706.00,1.10
9705.00,1.10
9704.00,1.10
9703.00,1.10
9702.00,1.10
9701.00,1.09
9700.00,1.09
9699.00,1.09
9698.00,1.09
9697.00,1.10
9696.00,1.10
9695.00,1.10
9694.00,1.10
9693.00,1.10
9692.00,1.10
9691.00,1.10
9690.00,1.10
9689.00,1.10
9688.00,1.10
9687.00,1.10
9686.00,1.11
9685.00,1.11
9684.00,1.11
9683.00,1.11
9682.00,1.11
9681.00,1.12
9680.00,1.12
9679.00,1.12
9678.00,1.12
9677.00,1.11
9676.00,1.11
9675.00,1.11
9674.00,1.11
9673.00,1.11
9672.00,1.10
9671.00,1.10
9670.00,1.10
9669.00,1.10
9668.00,1.10
9667.00,1.11
9666.00,1.11
9665.00,1.11
9664.00,1.12
9663.00,1.12
9662.00,1.13
9661.00,1.13
9660.00,1.13
9659.00,1.13
9658.00,1.14
9657.00,1.14
9656.00,1.14
9655.00,1.14
9654.00,1.14
9653.00,1.14
9652.00,1.14
9651.00,1.14
9650.00,1.14
9649.00,1.14
9648.00,1.14
9647.00,1.14
9646.00,1.14
9645.00,1.14
9644.00,1.14
9643.00,1.14
9642.00,1.14
9641.00,1.14
9640.00,1.13
9639.00,1.13
9638.00,1.12
9637.00,1.12
9636.00,1.11
9635.00,1.11
9634.00,1.11
9633.00,1.10
9632.00,1.10
9631.00,1.10
9630.00,1.10
9629.00,1.09
9628.00,1.09
9627.00,1.09
9626.00,1.09
9625.00,1.09
9624.00,1.09
9623.00,1.10
9622.00,1.10
9621.00,1.10
9620.00,1.10
9619.00,1.10
9618.00,1.10
9617.00,1.10
9616.00,1.11
9615.00,1.11
9614.00,1.11
9613.00,1.11
9612.00,1.12
9611.00,1.12
9610.00,1.12
9609.00,1.13
9608.00,1.13
9607.00,1.13
9606.00,1.14
9605.00,1.14
9604.00,1.14
9603.00,1.14
9602.00,1.15
9601.00,1.15
9600.00,1.16
9599.00,1.16
9598.00,1.16
9597.00,1.17
9596.00,1.17
9595.00,1.17
9594.00,1.17
9593.00,1.18
9592.00,1.18
9591.00,1.18
9590.00,1.18
9589.00,1.18
9588.00,1.18
9587.00,1.18
9586.00,1.18
9585.00,1.18
9584.00,1.18
9583.00,1.18
9582.00,1.18
9581.00,1.18
9580.00,1.18
9579.00,1.19
9578.00,1.19
9577.00,1.19
9576.00,1.19
9575.00,1.19
9574.00,1.19
9573.00,1.19
9572.00,1.19
9571.00,1.19
9570.00,1.20
9569.00,1.20
9568.00,1.20
9567.00,1.20
9566.00,1.21
9565.00,1.21
9564.00,1.21
9563.00,1.22
9562.00,1.22
9561.00,1.22
9560.00,1.22
9559.00,1.22
9558.00,1.22
9557.00,1.22
9556.00,1.22
9555.00,1.22
9554.00,1.22
9553.00,1.21
9552.00,1.21
9551.00,1.21
9550.00,1.21
9549.00,1.20
9548.00,1.20
9547.00,1.20
9546.00,1.19
9545.00,1.19
9544.00,1.18
9543.00,1.18
9542.00,1.17
9541.00,1.17
9540.00,1.16
9539.00,1.16
9538.00,1.16
9537.00,1.15
9536.00,1.15
9535.00,1.15
9534.00,1.15
9533.00,1.15
9532.00,1.15
9531.00,1.16
9530.00,1.16
9529.00,1.17
9528.00,1.17
9527.00,1.17
9526.00,1.18
9525.00,1.18
9524.00,1.18
9523.00,1.19
9522.00,1.19
9521.00,1.19
9520.00,1.19
9519.00,1.20
9518.00,1.20
9517.00,1.20
9516.00,1.21
9515.00,1.21
9514.00,1.22
9513.00,1.22
9512.00,1.23
9511.00,1.23
9510.00,1.23
9509.00,1.24
9508.00,1.24
9507.00,1.24
9506.00,1.24
9505.00,1.24
9504.00,1.25
9503.00,1.25
9502.00,1.25
9501.00,1.25
9500.00,1.25
9499.00,1.25
9498.00,1.25
9497.00,1.25
9496.00,1.25
9495.00,1.26
9494.00,1.26
9493.00,1.26
9492.00,1.26
9491.00,1.26
9490.00,1.26
9489.00,1.26
9488.00,1.26
9487.00,1.26
9486.00,1.26
9485.00,1.26
9484.00,1.25
9483.00,1.25
9482.00,1.24
9481.00,1.24
9480.00,1.24
9479.00,1.23
9478.00,1.23
9477.00,1.22
9476.00,1.22
9475.00,1.22
9474.00,1.21
9473.00,1.21
9472.00,1.21
9471.00,1.21
9470.00,1.20
9469.00,1.20
9468.00,1.20
9467.00,1.20
9466.00,1.20
9465.00,1.20
9464.00,1.20
9463.00,1.20
9462.00,1.21
9461.00,1.21
9460.00,1.21
9459.00,1.21
9458.00,1.21
9457.00,1.22
9456.00,1.22
9455.00,1.22
9454.00,1.22
9453.00,1.23
9452.00,1.23
9451.00,1.23
9450.00,1.23
9449.00,1.23
9448.00,1.23
9447.00,1.23
9446.00,1.23
9445.00,1.22
9444.00,1.22
9443.00,1.21
9442.00,1.21
9441.00,1.20
9440.00,1.19
9439.00,1.19
9438.00,1.18
9437.00,1.17
9436.00,1.17
9435.00,1.16
9434.00,1.15
9433.00,1.14
9432.00,1.14
9431.00,1.13
9430.00,1.13
9429.00,1.12
9428.00,1.12
9427.00,1.11
9426.00,1.11
9425.00,1.11
9424.00,1.10
9423.00,1.10
9422.00,1.10
9421.00,1.11
9420.00,1.11
9419.00,1.11
9418.00,1.12
9417.00,1.12
9416.00,1.13
9415.00,1.13
9414.00,1.14
9413.00,1.15
9412.00,1.15
9411.00,1.16
9410.00,1.16
9409.00,1.17
9408.00,1.18
9407.00,1.18
9406.00,1.19
9405.00,1.20
9404.00,1.20
9403.00,1.21
9402.00,1.22
9401.00,1.22
9400.00,1.23
9399.00,1.23
9398.00,1.24
9397.00,1.24
9396.00,1.24
9395.00,1.25
9394.00,1.25
9393.00,1.25
9392.00,1.25
9391.00,1.26
9390.00,1.26
9389.00,1.26
9388.00,1.27
9387.00,1.27
9386.00,1.27
9385.00,1.28
9384.00,1.28
9383.00,1.28
9382.00,1.28
9381.00,1.29
9380.00,1.29
9379.00,1.29
9378.00,1.29
9377.00,1.29
9376.00,1.29
9375.00,1.29
9374.00,1.29
9373.00,1.28
9372.00,1.28
9371.00,1.28
9370.00,1.27
9369.00,1.27
9368.00,1.27
9367.00,1.26
9366.00,1.26
9365.00,1.26
9364.00,1.25
9363.00,1.25
9362.00,1.24
9361.00,1.24
9360.00,1.23
9359.00,1.23
9358.00,1.22
9357.00,1.21
9356.00,1.21
9355.00,1.20
9354.00,1.20
9353.00,1.19
9352.00,1.19
9351.00,1.19
9350.00,1.18
9349.00,1.18
9348.00,1.18
9347.00,1.18
9346.00,1.18
9345.00,1.18
9344.00,1.17
9343.00,1.17
9342.00,1.17
9341.00,1.17
9340.00,1.17
9339.00,1.17
9338.00,1.17
9337.00,1.17
9336.00,1.17
9335.00,1.16
9334.00,1.16
9333.00,1.16
9332.00,1.16
9331.00,1.16
9330.00,1.16
9329.00,1.16
9328.00,1.16
9327.00,1.16
9326.00,1.16
9325.00,1.15
9324.00,1.15
9323.00,1.15
9322.00,1.14
9321.00,1.14
9320.00,1.13
9319.00,1.13
9318.00,1.13
9317.00,1.12
9316.00,1.12
9315.00,1.11
9314.00,1.11
9313.00,1.11
9312.00,1.11
9311.00,1.10
9310.00,1.10
9309.00,1.10
9308.00,1.10
9307.00,1.09
9306.00,1.09
9305.00,1.09
9304.00,1.09
9303.00,1.08
9302.00,1.08
9301.00,1.08
9300.00,1.08
9299.00,1.08
9298.00,1.08
9297.00,1.09
9296.00,1.09
9295.00,1.09
9294.00,1.10
9293.00,1.10
9292.00,1.11
9291.00,1.11
9290.00,1.12
9289.00,1.13
9288.00,1.13
9287.00,1.14
9286.00,1.14
9285.00,1.15
9284.00,1.15
9283.00,1.16
9282.00,1.16
9281.00,1.17
9280.00,1.17
9279.00,1.18
9278.00,1.18
9277.00,1.18
9276.00,1.19
9275.00,1.19
9274.00,1.19
9273.00,1.19
9272.00,1.19
9271.00,1.20
9270.00,1.20
9269.00,1.20
9268.00,1.19
9267.00,1.19
9266.00,1.19
9265.00,1.18
9264.00,1.18
9263.00,1.18
9262.00,1.17
9261.00,1.17
9260.00,1.16
9259.00,1.16
9258.00,1.16
9257.00,1.15
9256.00,1.15
9255.00,1.15
9254.00,1.15
9253.00,1.14
9252.00,1.14
9251.00,1.14
9250.00,1.14
9249.00,1.14
9248.00,1.14
9247.00,1.14
9246.00,1.13
9245.00,1.13
9244.00,1.13
9243.00,1.13
9242.00,1.13
9241.00,1.13
9240.00,1.13
9239.00,1.13
9238.00,1.14
9237.00,1.14
9236.00,1.14
9235.00,1.15
9234.00,1.15
9233.00,1.16
9232.00,1.16
9231.00,1.17
9230.00,1.17
9229.00,1.18
9228.00,1.18
9227.00,1.19
9226.00,1.20
9225.00,1.20
9224.00,1.21
9223.00,1.22
9222.00,1.22
9221.00,1.23
9220.00,1.23
9219.00,1.24
9218.00,1.24
9217.00,1.25
9216.00,1.26
9215.00,1.26
9214.00,1.27
9213.00,1.27
9212.00,1.27
9211.00,1.28
9210.00,1.28
9209.00,1.28
9208.00,1.28
9207.00,1.28
9206.00,1.28
9205.00,1.27
9204.00,1.27
9203.00,1.26
9202.00,1.26
9201.00,1.25
9200.00,1.24
9199.00,1.24
9198.00,1.23
9197.00,1.22
9196.00,1.22
9195.00,1.21
9194.00,1.20
9193.00,1.20
9192.00,1.19
9191.00,1.18
9190.00,1.17
9189.00,1.16
9188.00,1.15
9187.00,1.14
9186.00,1.13
9185.00,1.12
9184.00,1.11
9183.00,1.10
9182.00,1.09
9181.00,1.08
9180.00,1.07
9179.00,1.07
9178.00,1.06
9177.00,1.05
9176.00,1.05
9175.00,1.05
9174.00,1.04
9173.00,1.04
9172.00,1.03
9171.00,1.03
9170.00,1.03
9169.00,1.02
9168.00,1.02
9167.00,1.02
9166.00,1.02
9165.00,1.02
9164.00,1.02
9163.00,1.02
9162.00,1.02
9161.00,1.02
9160.00,1.03
9159.00,1.03
9158.00,1.03
9157.00,1.04
9156.00,1.04
9155.00,1.05
9154.00,1.05
9153.00,1.06
9152.00,1.07
9151.00,1.07
9150.00,1.08
9149.00,1.08
9148.00,1.09
9147.00,1.09
9146.00,1.10
9145.00,1.10
9144.00,1.11
9143.00,1.11
9142.00,1.12
9141.00,1.12
9140.00,1.13
9139.00,1.13
9138.00,1.13
9137.00,1.13
9136.00,1.14
9135.00,1.14
9134.00,1.14
9133.00,1.14
9132.00,1.14
9131.00,1.14
9130.00,1.14
9129.00,1.14
9128.00,1.13
9127.00,1.13
9126.00,1.13
9125.00,1.12
9124.00,1.12
9123.00,1.12
9122.00,1.11
9121.00,1.11
9120.00,1.10
9119.00,1.10
9118.00,1.10
9117.00,1.09
9116.00,1.09
9115.00,1.09
9114.00,1.09
9113.00,1.09
9112.00,1.09
9111.00,1.08
9110.00,1.08
9109.00,1.08
9108.00,1.08
9107.00,1.08
9106.00,1.08
9105.00,1.09
9104.00,1.09
9103.00,1.09
9102.00,1.09
9101.00,1.10
9100.00,1.10
9099.00,1.11
9098.00,1.11
9097.00,1.11
9096.00,1.12
9095.00,1.12
9094.00,1.13
9093.00,1.13
9092.00,1.13
9091.00,1.14
9090.00,1.14
9089.00,1.15
9088.00,1.15
9087.00,1.15
9086.00,1.16
9085.00,1.16
9084.00,1.16
9083.00,1.17
9082.00,1.17
9081.00,1.17
9080.00,1.17
9079.00,1.17
9078.00,1.17
9077.00,1.17
9076.00,1.17
9075.00,1.17
9074.00,1.17
9073.00,1.16
9072.00,1.16
9071.00,1.16
9070.00,1.16
9069.00,1.16
9068.00,1.16
9067.00,1.16
9066.00,1.16
9065.00,1.16
9064.00,1.16
9063.00,1.16
9062.00,1.16
9061.00,1.16
9060.00,1.16
9059.00,1.16
9058.00,1.16
9057.00,1.15
9056.00,1.15
9055.00,1.15
9054.00,1.15
9053.00,1.15
9052.00,1.15
9051.00,1.15
9050.00,1.15
9049.00,1.15
9048.00,1.15
9047.00,1.15
9046.00,1.15
9045.00,1.15
9044.00,1.15
9043.00,1.15
9042.00,1.15
9041.00,1.16
9040.00,1.16
9039.00,1.16
9038.00,1.16
9037.00,1.16
9036.00,1.16
9035.00,1.16
9034.00,1.16
9033.00,1.17
9032.00,1.17
9031.00,1.18
9030.00,1.18
9029.00,1.19
9028.00,1.19
9027.00,1.20
9026.00,1.21
9025.00,1.21
9024.00,1.22
9023.00,1.23
9022.00,1.23
9021.00,1.24
9020.00,1.25
9019.00,1.25
9018.00,1.26
9017.00,1.26
9016.00,1.27
9015.00,1.27
9014.00,1.28
9013.00,1.28
9012.00,1.28
9011.00,1.29
9010.00,1.29
9009.00,1.29
9008.00,1.29
9007.00,1.29
9006.00,1.29
9005.00,1.29
9004.00,1.29
9003.00,1.29
9002.00,1.29
9001.00,1.29
9000.00,1.29
8999.00,1.29
8998.00,1.28
8997.00,1.28
8996.00,1.28
8995.00,1.28
8994.00,1.28
8993.00,1.28
8992.00,1.28
8991.00,1.28
8990.00,1.28
8989.00,1.28
8988.00,1.29
8987.00,1.29
8986.00,1.29
8985.00,1.29
8984.00,1.29
8983.00,1.30
8982.00,1.30
8981.00,1.30
8980.00,1.31
8979.00,1.31
8978.00,1.31
8977.00,1.31
8976.00,1.32
8975.00,1.32
8974.00,1.32
8973.00,1.32
8972.00,1.32
8971.00,1.31
8970.00,1.31
8969.00,1.31
8968.00,1.31
8967.00,1.30
8966.00,1.30
8965.00,1.29
8964.00,1.28
8963.00,1.28
8962.00,1.27
8961.00,1.27
8960.00,1.26
8959.00,1.25
8958.00,1.25
8957.00,1.24
8956.00,1.24
8955.00,1.23
8954.00,1.23
8953.00,1.22
8952.00,1.22
8951.00,1.22
8950.00,1.21
8949.00,1.21
8948.00,1.21
8947.00,1.20
8946.00,1.20
8945.00,1.20
8944.00,1.20
8943.00,1.19
8942.00,1.19
8941.00,1.19
8940.00,1.19
8939.00,1.20
8938.00,1.20
8937.00,1.20
8936.00,1.20
8935.00,1.20
8934.00,1.21
8933.00,1.21
8932.00,1.21
8931.00,1.21
8930.00,1.21
8929.00,1.20
8928.00,1.20
8927.00,1.20
8926.00,1.19
8925.00,1.19
8924.00,1.19
8923.00,1.19
8922.00,1.18
8921.00,1.18
8920.00,1.18
8919.00,1.18
8918.00,1.18
8917.00,1.18
8916.00,1.18
8915.00,1.17
8914.00,1.17
8913.00,1.17
8912.00,1.17
8911.00,1.16
8910.00,1.16
8909.00,1.15
8908.00,1.15
8907.00,1.14
8906.00,1.14
8905.00,1.14
8904.00,1.13
8903.00,1.13
8902.00,1.13
8901.00,1.13
8900.00,1.13
8899.00,1.13
8898.00,1.13
8897.00,1.13
8896.00,1.13
8895.00,1.13
8894.00,1.13
8893.00,1.13
8892.00,1.13
8891.00,1.12
8890.00,1.12
8889.00,1.12
8888.00,1.12
8887.00,1.12
8886.00,1.12
8885.00,1.12
8884.00,1.12
8883.00,1.13
8882.00,1.13
8881.00,1.13
8880.00,1.13
8879.00,1.13
8878.00,1.13
8877.00,1.13
8876.00,1.13
8875.00,1.13
8874.00,1.13
8873.00,1.13
8872.00,1.12
8871.00,1.12
8870.00,1.12
8869.00,1.12
8868.00,1.11
8867.00,1.11
8866.00,1.10
8865.00,1.10
8864.00,1.09
8863.00,1.09
8862.00,1.08
8861.00,1.08
8860.00,1.07
8859.00,1.07
8858.00,1.07
8857.00,1.06
8856.00,1.06
8855.00,1.06
8854.00,1.05
8853.00,1.05
8852.00,1.05
8851.00,1.05
8850.00,1.05
8849.00,1.06
8848.00,1.06
8847.00,1.06
8846.00,1.07
8845.00,1.07
8844.00,1.08
8843.00,1.08
8842.00,1.09
8841.00,1.10
8840.00,1.11
8839.00,1.11
8838.00,1.12
8837.00,1.13
8836.00,1.14
8835.00,1.15
8834.00,1.16
8833.00,1.16
8832.00,1.17
8831.00,1.18
8830.00,1.18
8829.00,1.19
8828.00,1.19
8827.00,1.19
8826.00,1.19
8825.00,1.19
8824.00,1.19
8823.00,1.19
8822.00,1.19
8821.00,1.19
8820.00,1.19
8819.00,1.19
8818.00,1.18
8817.00,1.18
8816.00,1.18
8815.00,1.18
8814.00,1.18
8813.00,1.18
8812.00,1.17
8811.00,1.17
8810.00,1.17
8809.00,1.17
8808.00,1.17
8807.00,1.17
8806.00,1.17
8805.00,1.17
8804.00,1.17
8803.00,1.17
8802.00,1.17
8801.00,1.17
8800.00,1.17
8799.00,1.17
8798.00,1.17
8797.00,1.17
8796.00,1.17
8795.00,1.18
8794.00,1.18
8793.00,1.18
8792.00,1.18
8791.00,1.18
8790.00,1.18
8789.00,1.18
8788.00,1.18
8787.00,1.17
8786.00,1.17
8785.00,1.17
8784.00,1.16
8783.00,1.16
8782.00,1.16
8781.00,1.15
8780.00,1.15
8779.00,1.14
8778.00,1.14
8777.00,1.13
8776.00,1.13
8775.00,1.12
8774.00,1.12
8773.00,1.12
8772.00,1.11
8771.00,1.11
8770.00,1.10
8769.00,1.10
8768.00,1.10
8767.00,1.09
8766.00,1.09
8765.00,1.09
8764.00,1.09
8763.00,1.08
8762.00,1.08
8761.00,1.08
8760.00,1.08
8759.00,1.08
8758.00,1.08
8757.00,1.08
8756.00,1.08
8755.00,1.08
8754.00,1.08
8753.00,1.08
8752.00,1.09
8751.00,1.09
8750.00,1.09
8749.00,1.09
8748.00,1.09
8747.00,1.09
8746.00,1.09
8745.00,1.09
8744.00,1.10
8743.00,1.10
8742.00,1.10
8741.00,1.10
8740.00,1.10
8739.00,1.10
8738.00,1.11
8737.00,1.11
8736.00,1.11
8735.00,1.12
8734.00,1.12
8733.00,1.12
8732.00,1.12
8731.00,1.12
8730.00,1.13
8729.00,1.13
8728.00,1.13
8727.00,1.13
8726.00,1.13
8725.00,1.13
8724.00,1.13
8723.00,1.14
8722.00,1.14
8721.00,1.14
8720.00,1.14
8719.00,1.15
8718.00,1.15
8717.00,1.15
8716.00,1.15
8715.00,1.15
8714.00,1.15
8713.00,1.15
8712.00,1.15
8711.00,1.15
8710.00,1.15
8709.00,1.15
8708.00,1.15
8707.00,1.15
8706.00,1.14
8705.00,1.14
8704.00,1.14
8703.00,1.14
8702.00,1.14
8701.00,1.14
8700.00,1.14
8699.00,1.14
8698.00,1.14
8697.00,1.14
8696.00,1.13
8695.00,1.13
8694.00,1.13
8693.00,1.13
8692.00,1.13
8691.00,1.12
8690.00,1.12
8689.00,1.12
8688.00,1.12
8687.00,1.12
8686.00,1.12
8685.00,1.12
8684.00,1.11
8683.00,1.11
8682.00,1.11
8681.00,1.11
8680.00,1.11
8679.00,1.11
8678.00,1.11
8677.00,1.11
8676.00,1.11
8675.00,1.11
8674.00,1.11
8673.00,1.11
8672.00,1.11
8671.00,1.10
8670.00,1.10
8669.00,1.10
8668.00,1.10
8667.00,1.10
8666.00,1.10
8665.00,1.10
8664.00,1.10
8663.00,1.10
8662.00,1.10
8661.00,1.10
8660.00,1.10
8659.00,1.10
8658.00,1.10
8657.00,1.10
8656.00,1.10
8655.00,1.10
8654.00,1.10
8653.00,1.10
8652.00,1.10
8651.00,1.10
8650.00,1.10
8649.00,1.10
8648.00,1.10
8647.00,1.10
8646.00,1.10
8645.00,1.10
8644.00,1.10
8643.00,1.10
8642.00,1.10
8641.00,1.09
8640.00,1.09
8639.00,1.09
8638.00,1.09
8637.00,1.08
8636.00,1.08
8635.00,1.08
8634.00,1.07
8633.00,1.07
8632.00,1.07
8631.00,1.06
8630.00,1.06
8629.00,1.06
8628.00,1.05
8627.00,1.05
8626.00,1.05
8625.00,1.05
8624.00,1.05
8623.00,1.05
8622.00,1.05
8621.00,1.05
8620.00,1.05
8619.00,1.05
8618.00,1.05
8617.00,1.06
8616.00,1.06
8615.00,1.07
8614.00,1.07
8613.00,1.08
8612.00,1.08
8611.00,1.09
8610.00,1.10
8609.00,1.11
8608.00,1.11
8607.00,1.12
8606.00,1.13
8605.00,1.14
8604.00,1.14
8603.00,1.15
8602.00,1.16
8601.00,1.16
8600.00,1.17
8599.00,1.18
8598.00,1.18
8597.00,1.18
8596.00,1.19
8595.00,1.19
8594.00,1.19
8593.00,1.19
8592.00,1.19
8591.00,1.19
8590.00,1.19
8589.00,1.19
8588.00,1.18
8587.00,1.18
8586.00,1.17
8585.00,1.17
8584.00,1.16
8583.00,1.16
8582.00,1.15
8581.00,1.15
8580.00,1.14
8579.00,1.14
8578.00,1.13
8577.00,1.13
8576.00,1.12
8575.00,1.12
8574.00,1.11
8573.00,1.11
8572.00,1.10
8571.00,1.10
8570.00,1.10
8569.00,1.10
8568.00,1.09
8567.00,1.09
8566.00,1.09
8565.00,1.09
8564.00,1.10
8563.00,1.10
8562.00,1.10
8561.00,1.11
8560.00,1.11
8559.00,1.12
8558.00,1.12
8557.00,1.13
8556.00,1.13
8555.00,1.14
8554.00,1.14
8553.00,1.14
8552.00,1.15
8551.00,1.15
8550.00,1.15
8549.00,1.16
8548.00,1.16
8547.00,1.16
8546.00,1.16
8545.00,1.16
8544.00,1.16
8543.00,1.16
8542.00,1.16
8541.00,1.16
8540.00,1.16
8539.00,1.15
8538.00,1.15
8537.00,1.15
8536.00,1.14
8535.00,1.14
8534.00,1.13
8533.00,1.13
8532.00,1.12
8531.00,1.12
8530.00,1.11
8529.00,1.11
8528.00,1.10
8527.00,1.10
8526.00,1.09
8525.00,1.09
8524.00,1.08
8523.00,1.08
8522.00,1.07
8521.00,1.07
8520.00,1.06
8519.00,1.06
8518.00,1.05
8517.00,1.05
8516.00,1.04
8515.00,1.04
8514.00,1.03
8513.00,1.03
8512.00,1.03
8511.00,1.02
8510.00,1.02
8509.00,1.02
8508.00,1.01
8507.00,1.01
8506.00,1.01
8505.00,1.00
8504.00,1.00
8503.00,1.00
8502.00,1.00
8501.00,0.99
8500.00,0.99
8499.00,0.99
8498.00,0.99
8497.00,0.99
8496.00,0.99
8495.00,0.99
8494.00,0.99
8493.00,0.99
8492.00,0.99
8491.00,0.99
8490.00,1.00
8489.00,1.00
8488.00,1.00
8487.00,1.00
8486.00,1.01
8485.00,1.01
8484.00,1.01
8483.00,1.01
8482.00,1.01
8481.00,1.01
8480.00,1.02
8479.00,1.02
8478.00,1.02
8477.00,1.02
8476.00,1.02
8475.00,1.03
8474.00,1.03
8473.00,1.03
8472.00,1.03
8471.00,1.04
8470.00,1.04
8469.00,1.04
8468.00,1.04
8467.00,1.04
8466.00,1.04
8465.00,1.04
8464.00,1.04
8463.00,1.04
8462.00,1.04
8461.00,1.04
8460.00,1.04
8459.00,1.04
8458.00,1.04
8457.00,1.05
8456.00,1.05
8455.00,1.05
8454.00,1.05
8453.00,1.06
8452.00,1.06
8451.00,1.06
8450.00,1.07
8449.00,1.07
8448.00,1.07
8447.00,1.08
8446.00,1.08
8445.00,1.08
8444.00,1.09
8443.00,1.09
8442.00,1.10
8441.00,1.10
8440.00,1.10
8439.00,1.11
8438.00,1.11
8437.00,1.12
8436.00,1.12
8435.00,1.12
8434.00,1.12
8433.00,1.12
8432.00,1.12
8431.00,1.13
8430.00,1.13
8429.00,1.13
8428.00,1.13
8427.00,1.13
8426.00,1.13
8425.00,1.13
8424.00,1.13
8423.00,1.13
8422.00,1.13
8421.00,1.13
8420.00,1.13
8419.00,1.13
8418.00,1.13
8417.00,1.12
8416.00,1.12
8415.00,1.12
8414.00,1.12
8413.00,1.12
8412.00,1.11
8411.00,1.11
8410.00,1.11
8409.00,1.11
8408.00,1.11
8407.00,1.11
8406.00,1.11
8405.00,1.11
8404.00,1.11
8403.00,1.11
8402.00,1.11
8401.00,1.11
8400.00,1.11
8399.00,1.11
8398.00,1.11
8397.00,1.11
8396.00,1.11
8395.00,1.11
8394.00,1.11
8393.00,1.11
8392.00,1.12
8391.00,1.12
8390.00,1.12
8389.00,1.12
8388.00,1.12
8387.00,1.12
8386.00,1.12
8385.00,1.13
8384.00,1.13
8383.00,1.13
8382.00,1.13
8381.00,1.13
8380.00,1.13
8379.00,1.13
8378.00,1.13
8377.00,1.13
8376.00,1.13
8375.00,1.13
8374.00,1.13
8373.00,1.13
8372.00,1.13
8371.00,1.13
8370.00,1.13
8369.00,1.13
8368.00,1.13
8367.00,1.13
8366.00,1.13
8365.00,1.13
8364.00,1.13
8363.00,1.13
8362.00,1.13
8361.00,1.13
8360.00,1.13
8359.00,1.13
8358.00,1.13
8357.00,1.13
8356.00,1.13
8355.00,1.13
8354.00,1.13
8353.00,1.13
8352.00,1.14
8351.00,1.14
8350.00,1.14
8349.00,1.14
8348.00,1.14
8347.00,1.14
8346.00,1.14
8345.00,1.15
8344.00,1.15
8343.00,1.15
8342.00,1.15
8341.00,1.15
8340.00,1.15
8339.00,1.15
8338.00,1.15
8337.00,1.15
8336.00,1.14
8335.00,1.14
8334.00,1.14
8333.00,1.14
8332.00,1.14
8331.00,1.14
8330.00,1.14
8329.00,1.14
8328.00,1.14
8327.00,1.14
8326.00,1.14
8325.00,1.14
8324.00,1.14
8323.00,1.14
8322.00,1.14
8321.00,1.14
8320.00,1.14
8319.00,1.13
8318.00,1.13
8317.00,1.13
8316.00,1.13
8315.00,1.13
8314.00,1.13
8313.00,1.13
8312.00,1.13
8311.00,1.13
8310.00,1.13
8309.00,1.13
8308.00,1.13
8307.00,1.13
8306.00,1.13
8305.00,1.13
8304.00,1.13
8303.00,1.13
8302.00,1.13
8301.00,1.13
8300.00,1.12
8299.00,1.12
8298.00,1.12
8297.00,1.11
8296.00,1.11
8295.00,1.10
8294.00,1.10
8293.00,1.09
8292.00,1.09
8291.00,1.08
8290.00,1.08
8289.00,1.07
8288.00,1.07
8287.00,1.06
8286.00,1.06
8285.00,1.05
8284.00,1.05
8283.00,1.04
8282.00,1.04
8281.00,1.03
8280.00,1.03
8279.00,1.03
8278.00,1.02
8277.00,1.02
8276.00,1.01
8275.00,1.01
8274.00,1.01
8273.00,1.00
8272.00,1.00
8271.00,1.00
8270.00,1.00
8269.00,1.00
8268.00,1.00
8267.00,1.00
8266.00,1.00
8265.00,1.00
8264.00,1.00
8263.00,1.00
8262.00,1.00
8261.00,1.00
8260.00,1.00
8259.00,1.00
8258.00,1.00
8257.00,1.00
8256.00,1.00
8255.00,1.01
8254.00,1.01
8253.00,1.01
8252.00,1.01
8251.00,1.01
8250.00,1.01
8249.00,1.02
8248.00,1.02
8247.00,1.02
8246.00,1.03
8245.00,1.03
8244.00,1.03
8243.00,1.04
8242.00,1.04
8241.00,1.04
8240.00,1.05
8239.00,1.05
8238.00,1.05
8237.00,1.06
8236.00,1.06
8235.00,1.06
8234.00,1.07
8233.00,1.07
8232.00,1.07
8231.00,1.08
8230.00,1.08
8229.00,1.08
8228.00,1.08
8227.00,1.09
8226.00,1.09
8225.00,1.09
8224.00,1.09
8223.00,1.09
8222.00,1.09
8221.00,1.09
8220.00,1.09
8219.00,1.09
8218.00,1.09
8217.00,1.09
8216.00,1.09
8215.00,1.08
8214.00,1.08
8213.00,1.08
8212.00,1.08
8211.00,1.08
8210.00,1.07
8209.00,1.07
8208.00,1.07
8207.00,1.07
8206.00,1.07
8205.00,1.07
8204.00,1.07
8203.00,1.07
8202.00,1.07
8201.00,1.07
8200.00,1.07
8199.00,1.08
8198.00,1.08
8197.00,1.08
8196.00,1.09
8195.00,1.09
8194.00,1.10
8193.00,1.10
8192.00,1.11
8191.00,1.12
8190.00,1.12
8189.00,1.13
8188.00,1.14
8187.00,1.14
8186.00,1.15
8185.00,1.16
8184.00,1.16
8183.00,1.17
8182.00,1.17
8181.00,1.18
8180.00,1.18
8179.00,1.19
8178.00,1.19
8177.00,1.20
8176.00,1.20
8175.00,1.20
8174.00,1.21
8173.00,1.21
8172.00,1.21
8171.00,1.21
8170.00,1.21
8169.00,1.21
8168.00,1.21
8167.00,1.20
8166.00,1.20
8165.00,1.20
8164.00,1.20
8163.00,1.20
8162.00,1.19
8161.00,1.19
8160.00,1.19
8159.00,1.19
8158.00,1.19
8157.00,1.18
8156.00,1.18
8155.00,1.18
8154.00,1.17
8153.00,1.17
8152.00,1.17
8151.00,1.16
8150.00,1.16
8149.00,1.16
8148.00,1.16
8147.00,1.15
8146.00,1.15
8145.00,1.15
8144.00,1.15
8143.00,1.14
8142.00,1.14
8141.00,1.14
8140.00,1.14
8139.00,1.14
8138.00,1.14
8137.00,1.13
8136.00,1.13
8135.00,1.13
8134.00,1.13
8133.00,1.13
8132.00,1.13
8131.00,1.13
8130.00,1.13
8129.00,1.13
8128.00,1.13
8127.00,1.13
8126.00,1.13
8125.00,1.13
8124.00,1.14
8123.00,1.14
8122.00,1.14
8121.00,1.15
8120.00,1.15
8119.00,1.16
8118.00,1.16
8117.00,1.17
8116.00,1.17
8115.00,1.18
8114.00,1.18
8113.00,1.19
8112.00,1.19
8111.00,1.20
8110.00,1.20
8109.00,1.21
8108.00,1.21
8107.00,1.22
8106.00,1.22
8105.00,1.23
8104.00,1.23
8103.00,1.23
8102.00,1.24
8101.00,1.24
8100.00,1.24
8099.00,1.25
8098.00,1.25
8097.00,1.25
8096.00,1.25
8095.00,1.25
8094.00,1.25
8093.00,1.25
8092.00,1.24
8091.00,1.24
8090.00,1.24
8089.00,1.24
8088.00,1.24
8087.00,1.23
8086.00,1.23
8085.00,1.23
8084.00,1.23
8083.00,1.22
8082.00,1.22
8081.00,1.22
8080.00,1.22
8079.00,1.21
8078.00,1.21
8077.00,1.21
8076.00,1.20
8075.00,1.20
8074.00,1.20
8073.00,1.19
8072.00,1.19
8071.00,1.19
8070.00,1.18
8069.00,1.18
8068.00,1.18
8067.00,1.18
8066.00,1.18
8065.00,1.17
8064.00,1.17
8063.00,1.17
8062.00,1.17
8061.00,1.17
8060.00,1.17
8059.00,1.16
8058.00,1.16
8057.00,1.16
8056.00,1.16
8055.00,1.15
8054.00,1.15
8053.00,1.15
8052.00,1.15
8051.00,1.14
8050.00,1.14
8049.00,1.14
8048.00,1.13
8047.00,1.13
8046.00,1.13
8045.00,1.13
8044.00,1.13
8043.00,1.12
8042.00,1.12
8041.00,1.12
8040.00,1.12
8039.00,1.12
8038.00,1.12
8037.00,1.11
8036.00,1.11
8035.00,1.11
8034.00,1.11
8033.00,1.11
8032.00,1.11
8031.00,1.11
8030.00,1.11
8029.00,1.11
8028.00,1.11
8027.00,1.12
8026.00,1.12
8025.00,1.12
8024.00,1.13
8023.00,1.13
8022.00,1.14
8021.00,1.14
8020.00,1.15
8019.00,1.15
8018.00,1.16
8017.00,1.16
8016.00,1.17
8015.00,1.17
8014.00,1.18
8013.00,1.18
8012.00,1.19
8011.00,1.19
8010.00,1.20
8009.00,1.20
8008.00,1.20
8007.00,1.21
8006.00,1.21
8005.00,1.22
8004.00,1.22
8003.00,1.22
8002.00,1.22
8001.00,1.22
8000.00,1.22
7999.00,1.22
7998.00,1.22
7997.00,1.22
7996.00,1.22
7995.00,1.22
7994.00,1.22
7993.00,1.21
7992.00,1.21
7991.00,1.21
7990.00,1.21
7989.00,1.21
7988.00,1.21
7987.00,1.21
7986.00,1.21
7985.00,1.21
7984.00,1.21
7983.00,1.21
7982.00,1.21
7981.00,1.21
7980.00,1.21
7979.00,1.21
7978.00,1.21
7977.00,1.22
7976.00,1.22
7975.00,1.22
7974.00,1.22
7973.00,1.22
7972.00,1.23
7971.00,1.23
7970.00,1.23
7969.00,1.23
7968.00,1.23
7967.00,1.24
7966.00,1.24
7965.00,1.24
7964.00,1.24
7963.00,1.24
7962.00,1.24
7961.00,1.24
7960.00,1.24
7959.00,1.24
7958.00,1.24
7957.00,1.23
7956.00,1.23
7955.00,1.23
7954.00,1.23
7953.00,1.23
7952.00,1.22
7951.00,1.22
7950.00,1.22
7949.00,1.21
7948.00,1.21
7947.00,1.21
7946.00,1.21
7945.00,1.20
7944.00,1.20
7943.00,1.20
7942.00,1.20
7941.00,1.19
7940.00,1.19
7939.00,1.19
7938.00,1.19
7937.00,1.19
7936.00,1.19
7935.00,1.19
7934.00,1.19
7933.00,1.19
7932.00,1.19
7931.00,1.19
7930.00,1.20
7929.00,1.20
7928.00,1.20
7927.00,1.20
7926.00,1.20
7925.00,1.20
7924.00,1.20
7923.00,1.20
7922.00,1.21
7921.00,1.21
7920.00,1.21
7919.00,1.21
7918.00,1.21
7917.00,1.21
7916.00,1.21
7915.00,1.21
7914.00,1.21
7913.00,1.21
7912.00,1.21
7911.00,1.21
7910.00,1.21
7909.00,1.21
7908.00,1.21
7907.00,1.21
7906.00,1.20
7905.00,1.20
7904.00,1.20
7903.00,1.20
7902.00,1.20
7901.00,1.20
7900.00,1.19
7899.00,1.19
7898.00,1.19
7897.00,1.19
7896.00,1.19
7895.00,1.19
7894.00,1.19
7893.00,1.19
7892.00,1.19
7891.00,1.19
7890.00,1.19
7889.00,1.19
7888.00,1.19
7887.00,1.19
7886.00,1.19
7885.00,1.19
7884.00,1.19
7883.00,1.19
7882.00,1.19
7881.00,1.19
7880.00,1.20
7879.00,1.20
7878.00,1.20
7877.00,1.20
7876.00,1.20
7875.00,1.21
7874.00,1.21
7873.00,1.21
7872.00,1.21
7871.00,1.22
7870.00,1.22
7869.00,1.22
7868.00,1.22
7867.00,1.22
7866.00,1.23
7865.00,1.23
7864.00,1.23
7863.00,1.23
7862.00,1.23
7861.00,1.23
7860.00,1.23
7859.00,1.23
7858.00,1.23
7857.00,1.23
7856.00,1.23
7855.00,1.23
7854.00,1.23
7853.00,1.22
7852.00,1.22
7851.00,1.22
7850.00,1.22
7849.00,1.22
7848.00,1.21
7847.00,1.21
7846.00,1.21
7845.00,1.20
7844.00,1.20
7843.00,1.20
7842.00,1.19
7841.00,1.19
7840.00,1.19
7839.00,1.19
7838.00,1.18
7837.00,1.18
7836.00,1.18
7835.00,1.18
7834.00,1.18
7833.00,1.17
7832.00,1.17
7831.00,1.17
7830.00,1.17
7829.00,1.17
7828.00,1.17
7827.00,1.17
7826.00,1.17
7825.00,1.18
7824.00,1.18
7823.00,1.18
7822.00,1.18
7821.00,1.18
7820.00,1.18
7819.00,1.19
7818.00,1.19
7817.00,1.19
7816.00,1.20
7815.00,1.20
7814.00,1.20
7813.00,1.20
7812.00,1.21
7811.00,1.21
7810.00,1.21
7809.00,1.22
7808.00,1.22
7807.00,1.22
7806.00,1.23
7805.00,1.23
7804.00,1.23
7803.00,1.24
7802.00,1.24
7801.00,1.24
7800.00,1.25
7799.00,1.25
7798.00,1.25
7797.00,1.25
7796.00,1.25
7795.00,1.25
7794.00,1.25
7793.00,1.25
7792.00,1.25
7791.00,1.25
7790.00,1.25
7789.00,1.25
7788.00,1.24
7787.00,1.24
7786.00,1.24
7785.00,1.24
7784.00,1.24
7783.00,1.24
7782.00,1.24
7781.00,1.24
7780.00,1.23
7779.00,1.23
7778.00,1.23
7777.00,1.23
7776.00,1.23
7775.00,1.23
7774.00,1.22
7773.00,1.22
7772.00,1.22
7771.00,1.22
7770.00,1.22
7769.00,1.23
7768.00,1.23
7767.00,1.23
7766.00,1.23
7765.00,1.23
7764.00,1.23
7763.00,1.23
7762.00,1.23
7761.00,1.23
7760.00,1.23
7759.00,1.23
7758.00,1.23
7757.00,1.23
7756.00,1.23
7755.00,1.23
7754.00,1.23
7753.00,1.23
7752.00,1.23
7751.00,1.23
7750.00,1.23
7749.00,1.23
7748.00,1.23
7747.00,1.23
7746.00,1.23
7745.00,1.23
7744.00,1.23
7743.00,1.23
7742.00,1.23
7741.00,1.23
7740.00,1.23
7739.00,1.23
7738.00,1.23
7737.00,1.23
7736.00,1.23
7735.00,1.24
7734.00,1.24
7733.00,1.24
7732.00,1.24
7731.00,1.24
7730.00,1.24
7729.00,1.24
7728.00,1.24
7727.00,1.24
7726.00,1.23
7725.00,1.23
7724.00,1.23
7723.00,1.23
7722.00,1.23
7721.00,1.23
7720.00,1.23
7719.00,1.23
7718.00,1.23
7717.00,1.23
7716.00,1.23
7715.00,1.23
7714.00,1.23
7713.00,1.23
7712.00,1.24
7711.00,1.24
7710.00,1.24
7709.00,1.24
7708.00,1.25
7707.00,1.25
7706.00,1.25
7705.00,1.26
7704.00,1.26
7703.00,1.26
7702.00,1.27
7701.00,1.27
7700.00,1.27
7699.00,1.28
7698.00,1.28
7697.00,1.28
7696.00,1.29
7695.00,1.29
7694.00,1.30
7693.00,1.30
7692.00,1.30
7691.00,1.30
7690.00,1.30
7689.00,1.30
7688.00,1.30
7687.00,1.30
7686.00,1.30
7685.00,1.30
7684.00,1.29
7683.00,1.29
7682.00,1.29
7681.00,1.28
7680.00,1.28
7679.00,1.28
7678.00,1.27
7677.00,1.27
7676.00,1.27
7675.00,1.26
7674.00,1.26
7673.00,1.25
7672.00,1.25
7671.00,1.25
7670.00,1.24
7669.00,1.24
7668.00,1.24
7667.00,1.23
7666.00,1.23
7665.00,1.23
7664.00,1.23
7663.00,1.23
7662.00,1.23
7661.00,1.23
7660.00,1.23
7659.00,1.23
7658.00,1.23
7657.00,1.23
7656.00,1.23
7655.00,1.23
7654.00,1.23
7653.00,1.23
7652.00,1.23
7651.00,1.23
7650.00,1.23
7649.00,1.23
7648.00,1.24
7647.00,1.24
7646.00,1.24
7645.00,1.24
7644.00,1.24
7643.00,1.24
7642.00,1.24
7641.00,1.24
7640.00,1.24
7639.00,1.24
7638.00,1.24
7637.00,1.24
7636.00,1.24
7635.00,1.24
7634.00,1.23
7633.00,1.23
7632.00,1.23
7631.00,1.23
7630.00,1.23
7629.00,1.23
7628.00,1.22
7627.00,1.22
7626.00,1.22
7625.00,1.22
7624.00,1.22
7623.00,1.21
7622.00,1.21
7621.00,1.21
7620.00,1.20
7619.00,1.20
7618.00,1.20
7617.00,1.19
7616.00,1.19
7615.00,1.19
7614.00,1.18
7613.00,1.18
7612.00,1.18
7611.00,1.18
7610.00,1.17
7609.00,1.17
7608.00,1.17
7607.00,1.17
7606.00,1.17
7605.00,1.17
7604.00,1.17
7603.00,1.17
7602.00,1.17
7601.00,1.17
7600.00,1.17
7599.00,1.17
7598.00,1.17
7597.00,1.17
7596.00,1.17
7595.00,1.17
7594.00,1.18
7593.00,1.18
7592.00,1.18
7591.00,1.18
7590.00,1.18
7589.00,1.18
7588.00,1.18
7587.00,1.18
7586.00,1.19
7585.00,1.19
7584.00,1.19
7583.00,1.19
7582.00,1.19
7581.00,1.19
7580.00,1.19
7579.00,1.19
7578.00,1.19
7577.00,1.19
7576.00,1.19
7575.00,1.19
7574.00,1.19
7573.00,1.19
7572.00,1.19
7571.00,1.20
7570.00,1.20
7569.00,1.20
7568.00,1.20
7567.00,1.20
7566.00,1.20
7565.00,1.21
7564.00,1.21
7563.00,1.21
7562.00,1.21
7561.00,1.22
7560.00,1.22
7559.00,1.22
7558.00,1.23
7557.00,1.23
7556.00,1.23
7555.00,1.24
7554.00,1.24
7553.00,1.24
7552.00,1.24
7551.00,1.25
7550.00,1.25
7549.00,1.25
7548.00,1.25
7547.00,1.26
7546.00,1.26
7545.00,1.26
7544.00,1.26
7543.00,1.26
7542.00,1.26
7541.00,1.26
7540.00,1.26
7539.00,1.26
7538.00,1.26
7537.00,1.26
7536.00,1.26
7535.00,1.26
7534.00,1.25
7533.00,1.25
7532.00,1.25
7531.00,1.25
7530.00,1.25
7529.00,1.25
7528.00,1.25
7527.00,1.25
7526.00,1.25
7525.00,1.25
7524.00,1.25
7523.00,1.25
7522.00,1.25
7521.00,1.25
7520.00,1.25
7519.00,1.25
7518.00,1.25
7517.00,1.25
7516.00,1.26
7515.00,1.26
7514.00,1.26
7513.00,1.26
7512.00,1.26
7511.00,1.26
7510.00,1.26
7509.00,1.26
7508.00,1.26
7507.00,1.26
7506.00,1.26
7505.00,1.26
7504.00,1.26
7503.00,1.26
7502.00,1.26
7501.00,1.26
7500.00,1.25
7499.00,1.25
7498.00,1.25
7497.00,1.25
7496.00,1.24
7495.00,1.24
7494.00,1.24
7493.00,1.23
7492.00,1.23
7491.00,1.23
7490.00,1.23
7489.00,1.22
7488.00,1.22
7487.00,1.22
7486.00,1.21
7485.00,1.21
7484.00,1.21
7483.00,1.21
7482.00,1.20
7481.00,1.20
7480.00,1.20
7479.00,1.20
7478.00,1.19
7477.00,1.19
7476.00,1.19
7475.00,1.19
7474.00,1.19
7473.00,1.19
7472.00,1.19
7471.00,1.19
7470.00,1.19
7469.00,1.19
7468.00,1.19
7467.00,1.19
7466.00,1.19
7465.00,1.19
7464.00,1.19
7463.00,1.19
7462.00,1.19
7461.00,1.19
7460.00,1.19
7459.00,1.19
7458.00,1.19
7457.00,1.19
7456.00,1.19
7455.00,1.19
7454.00,1.19
7453.00,1.19
7452.00,1.19
7451.00,1.19
7450.00,1.19
7449.00,1.19
7448.00,1.19
7447.00,1.19
7446.00,1.19
7445.00,1.19
7444.00,1.19
7443.00,1.19
7442.00,1.19
7441.00,1.19
7440.00,1.19
7439.00,1.19
7438.00,1.19
7437.00,1.19
7436.00,1.19
7435.00,1.19
7434.00,1.19
7433.00,1.19
7432.00,1.19
7431.00,1.20
7430.00,1.20
7429.00,1.20
7428.00,1.20
7427.00,1.20
7426.00,1.20
7425.00,1.20
7424.00,1.20
7423.00,1.20
7422.00,1.20
7421.00,1.20
7420.00,1.21
7419.00,1.21
7418.00,1.21
7417.00,1.21
7416.00,1.21
7415.00,1.21
7414.00,1.21
7413.00,1.21
7412.00,1.21
7411.00,1.21
7410.00,1.21
7409.00,1.21
7408.00,1.21
7407.00,1.21
7406.00,1.20
7405.00,1.20
7404.00,1.20
7403.00,1.20
7402.00,1.20
7401.00,1.20
7400.00,1.20
7399.00,1.20
7398.00,1.20
7397.00,1.20
7396.00,1.19
7395.00,1.19
7394.00,1.19
7393.00,1.19
7392.00,1.19
7391.00,1.19
7390.00,1.19
7389.00,1.19
7388.00,1.18
7387.00,1.18
7386.00,1.18
7385.00,1.18
7384.00,1.18
7383.00,1.18
7382.00,1.18
7381.00,1.18
7380.00,1.18
7379.00,1.18
7378.00,1.19
7377.00,1.19
7376.00,1.19
7375.00,1.19
7374.00,1.19
7373.00,1.19
7372.00,1.19
7371.00,1.19
7370.00,1.20
7369.00,1.20
7368.00,1.20
7367.00,1.20
7366.00,1.21
7365.00,1.21
7364.00,1.22
7363.00,1.22
7362.00,1.22
7361.00,1.22
7360.00,1.23
7359.00,1.23
7358.00,1.23
7357.00,1.23
7356.00,1.23
7355.00,1.24
7354.00,1.24
7353.00,1.24
7352.00,1.24
7351.00,1.24
7350.00,1.24
7349.00,1.24
7348.00,1.24
7347.00,1.24
7346.00,1.24
7345.00,1.24
7344.00,1.23
7343.00,1.23
7342.00,1.23
7341.00,1.23
7340.00,1.23
7339.00,1.23
7338.00,1.23
7337.00,1.23
7336.00,1.23
7335.00,1.23
7334.00,1.23
7333.00,1.23
7332.00,1.22
7331.00,1.22
7330.00,1.22
7329.00,1.22
7328.00,1.22
7327.00,1.22
7326.00,1.21
7325.00,1.21
7324.00,1.21
7323.00,1.21
7322.00,1.20
7321.00,1.20
7320.00,1.20
7319.00,1.19
7318.00,1.19
7317.00,1.19
7316.00,1.18
7315.00,1.18
7314.00,1.17
7313.00,1.16
7312.00,1.16
7311.00,1.15
7310.00,1.15
7309.00,1.14
7308.00,1.13
7307.00,1.13
7306.00,1.12
7305.00,1.12
7304.00,1.11
7303.00,1.11
7302.00,1.11
7301.00,1.10
7300.00,1.10
7299.00,1.10
7298.00,1.10
7297.00,1.09
7296.00,1.09
7295.00,1.09
7294.00,1.09
7293.00,1.09
7292.00,1.09
7291.00,1.09
7290.00,1.09
7289.00,1.09
7288.00,1.09
7287.00,1.09
7286.00,1.09
7285.00,1.09
7284.00,1.09
7283.00,1.09
7282.00,1.09
7281.00,1.09
7280.00,1.10
7279.00,1.10
7278.00,1.10
7277.00,1.10
7276.00,1.10
7275.00,1.10
7274.00,1.10
7273.00,1.10
7272.00,1.10
7271.00,1.10
7270.00,1.10
7269.00,1.10
7268.00,1.10
7267.00,1.10
7266.00,1.10
7265.00,1.10
7264.00,1.10
7263.00,1.10
7262.00,1.10
7261.00,1.10
7260.00,1.10
7259.00,1.11
7258.00,1.11
7257.00,1.11
7256.00,1.11
7255.00,1.11
7254.00,1.11
7253.00,1.11
7252.00,1.11
7251.00,1.11
7250.00,1.11
7249.00,1.10
7248.00,1.10
7247.00,1.10
7246.00,1.10
7245.00,1.10
7244.00,1.09
7243.00,1.09
7242.00,1.09
7241.00,1.09
7240.00,1.08
7239.00,1.08
7238.00,1.08
7237.00,1.07
7236.00,1.07
7235.00,1.07
7234.00,1.06
7233.00,1.06
7232.00,1.06
7231.00,1.05
7230.00,1.05
7229.00,1.05
7228.00,1.05
7227.00,1.04
7226.00,1.04
7225.00,1.04
7224.00,1.04
7223.00,1.04
7222.00,1.04
7221.00,1.03
7220.00,1.03
7219.00,1.03
7218.00,1.03
7217.00,1.03
7216.00,1.03
7215.00,1.04
7214.00,1.04
7213.00,1.04
7212.00,1.04
7211.00,1.04
7210.00,1.04
7209.00,1.03
7208.00,1.03
7207.00,1.03
7206.00,1.03
7205.00,1.03
7204.00,1.02
7203.00,1.02
7202.00,1.02
7201.00,1.02
7200.00,1.01
7199.00,1.01
7198.00,1.01
7197.00,1.00
7196.00,1.00
7195.00,1.00
7194.00,0.99
7193.00,0.99
7192.00,0.99
7191.00,0.98
7190.00,0.98
7189.00,0.98
7188.00,0.97
7187.00,0.97
7186.00,0.96
7185.00,0.96
7184.00,0.96
7183.00,0.95
7182.00,0.95
7181.00,0.95
7180.00,0.95
7179.00,0.95
7178.00,0.94
7177.00,0.94
7176.00,0.94
7175.00,0.94
7174.00,0.94
7173.00,0.93
7172.00,0.93
7171.00,0.93
7170.00,0.92
7169.00,0.92
7168.00,0.91
7167.00,0.91
7166.00,0.90
7165.00,0.90
7164.00,0.89
7163.00,0.89
7162.00,0.88
7161.00,0.88
7160.00,0.87
7159.00,0.87
7158.00,0.86
7157.00,0.86
7156.00,0.85
7155.00,0.85
7154.00,0.84
7153.00,0.83
7152.00,0.83
7151.00,0.82
7150.00,0.82
7149.00,0.81
7148.00,0.81
7147.00,0.80
7146.00,0.80
7145.00,0.79
7144.00,0.79
7143.00,0.79
7142.00,0.78
7141.00,0.78
7140.00,0.78
7139.00,0.78
7138.00,0.77
7137.00,0.77
7136.00,0.77
7135.00,0.77
7134.00,0.76
7133.00,0.76
7132.00,0.76
7131.00,0.76
7130.00,0.76
7129.00,0.76
7128.00,0.76
7127.00,0.76
7126.00,0.76
7125.00,0.76
7124.00,0.76
7123.00,0.76
7122.00,0.76
7121.00,0.76
7120.00,0.76
7119.00,0.76
7118.00,0.76
7117.00,0.76
7116.00,0.76
7115.00,0.76
7114.00,0.76
7113.00,0.76
7112.00,0.76
7111.00,0.76
7110.00,0.76
7109.00,0.76
7108.00,0.76
7107.00,0.76
7106.00,0.77
7105.00,0.76
7104.00,0.76
7103.00,0.76
7102.00,0.76
7101.00,0.76
7100.00,0.76
7099.00,0.76
7098.00,0.76
7097.00,0.75
7096.00,0.75
7095.00,0.75
7094.00,0.75
7093.00,0.75
7092.00,0.74
7091.00,0.74
7090.00,0.74
7089.00,0.74
7088.00,0.74
7087.00,0.74
7086.00,0.73
7085.00,0.73
7084.00,0.73
7083.00,0.73
7082.00,0.73
7081.00,0.72
7080.00,0.72
7079.00,0.72
7078.00,0.72
7077.00,0.72
7076.00,0.72
7075.00,0.72
7074.00,0.71
7073.00,0.71
7072.00,0.71
7071.00,0.71
7070.00,0.71
7069.00,0.70
7068.00,0.70
7067.00,0.70
7066.00,0.70
7065.00,0.69
7064.00,0.69
7063.00,0.68
7062.00,0.68
7061.00,0.67
7060.00,0.67
7059.00,0.66
7058.00,0.66
7057.00,0.65
7056.00,0.65
7055.00,0.65
7054.00,0.64
7053.00,0.64
7052.00,0.63
7051.00,0.63
7050.00,0.62
7049.00,0.62
7048.00,0.62
7047.00,0.61
7046.00,0.61
7045.00,0.61
7044.00,0.60
7043.00,0.60
7042.00,0.60
7041.00,0.60
7040.00,0.60
7039.00,0.60
7038.00,0.60
7037.00,0.60
7036.00,0.60
7035.00,0.60
7034.00,0.60
7033.00,0.60
7032.00,0.60
7031.00,0.60
7030.00,0.60
7029.00,0.60
7028.00,0.60
7027.00,0.60
7026.00,0.60
7025.00,0.60
7024.00,0.60
7023.00,0.60
7022.00,0.60
7021.00,0.60
7020.00,0.60
7019.00,0.59
7018.00,0.59
7017.00,0.59
7016.00,0.59
7015.00,0.59
7014.00,0.59
7013.00,0.59
7012.00,0.59
7011.00,0.59
7010.00,0.59
7009.00,0.60
7008.00,0.60
7007.00,0.60
7006.00,0.60
7005.00,0.60
7004.00,0.61
7003.00,0.61
7002.00,0.61
7001.00,0.61
7000.00,0.61
6999.00,0.62
6998.00,0.62
6997.00,0.62
6996.00,0.62
6995.00,0.62
6994.00,0.63
6993.00,0.63
6992.00,0.63
6991.00,0.63
6990.00,0.63
6989.00,0.64
6988.00,0.64
6987.00,0.64
6986.00,0.64
6985.00,0.64
6984.00,0.64
6983.00,0.64
6982.00,0.64
6981.00,0.64
6980.00,0.64
6979.00,0.64
6978.00,0.64
6977.00,0.64
6976.00,0.64
6975.00,0.64
6974.00,0.64
6973.00,0.64
6972.00,0.64
6971.00,0.64
6970.00,0.65
6969.00,0.65
6968.00,0.65
6967.00,0.65
6966.00,0.65
6965.00,0.65
6964.00,0.65
6963.00,0.65
6962.00,0.65
6961.00,0.64
6960.00,0.64
6959.00,0.64
6958.00,0.64
6957.00,0.64
6956.00,0.64
6955.00,0.64
6954.00,0.64
6953.00,0.64
6952.00,0.64
6951.00,0.64
6950.00,0.64
6949.00,0.64
6948.00,0.64
6947.00,0.64
6946.00,0.64
6945.00,0.64
6944.00,0.64
6943.00,0.64
6942.00,0.64
6941.00,0.64
6940.00,0.64
6939.00,0.64
6938.00,0.64
6937.00,0.64
6936.00,0.64
6935.00,0.64
6934.00,0.64
6933.00,0.64
6932.00,0.64
6931.00,0.64
6930.00,0.64
6929.00,0.64
6928.00,0.64
6927.00,0.64
6926.00,0.64
6925.00,0.64
6924.00,0.64
6923.00,0.65
6922.00,0.65
6921.00,0.65
6920.00,0.65
6919.00,0.65
6918.00,0.65
6917.00,0.65
6916.00,0.65
6915.00,0.65
6914.00,0.65
6913.00,0.66
6912.00,0.66
6911.00,0.66
6910.00,0.66
6909.00,0.66
6908.00,0.67
6907.00,0.67
6906.00,0.67
6905.00,0.68
6904.00,0.68
6903.00,0.68
6902.00,0.68
6901.00,0.69
6900.00,0.69
6899.00,0.69
6898.00,0.69
6897.00,0.69
6896.00,0.69
6895.00,0.70
6894.00,0.70
6893.00,0.70
6892.00,0.70
6891.00,0.70
6890.00,0.70
6889.00,0.70
6888.00,0.70
6887.00,0.70
6886.00,0.69
6885.00,0.69
6884.00,0.69
6883.00,0.69
6882.00,0.68
6881.00,0.68
6880.00,0.68
6879.00,0.67
6878.00,0.67
6877.00,0.67
6876.00,0.66
6875.00,0.66
6874.00,0.65
6873.00,0.65
6872.00,0.65
6871.00,0.64
6870.00,0.64
6869.00,0.63
6868.00,0.63
6867.00,0.63
6866.00,0.62
6865.00,0.62
6864.00,0.62
6863.00,0.61
6862.00,0.61
6861.00,0.61
6860.00,0.61
6859.00,0.61
6858.00,0.60
6857.00,0.60
6856.00,0.60
6855.00,0.60
6854.00,0.60
6853.00,0.60
6852.00,0.60
6851.00,0.60
6850.00,0.60
6849.00,0.60
6848.00,0.60
6847.00,0.60
6846.00,0.60
6845.00,0.61
6844.00,0.61
6843.00,0.61
6842.00,0.61
6841.00,0.61
6840.00,0.61
6839.00,0.61
6838.00,0.62
6837.00,0.62
6836.00,0.62
6835.00,0.62
6834.00,0.62
6833.00,0.62
6832.00,0.63
6831.00,0.63
6830.00,0.63
6829.00,0.63
6828.00,0.63
6827.00,0.63
6826.00,0.64
6825.00,0.64
6824.00,0.64
6823.00,0.64
6822.00,0.64
6821.00,0.64
6820.00,0.65
6819.00,0.65
6818.00,0.65
6817.00,0.65
6816.00,0.65
6815.00,0.66
6814.00,0.66
6813.00,0.66
6812.00,0.66
6811.00,0.66
6810.00,0.66
6809.00,0.66
6808.00,0.66
6807.00,0.66
6806.00,0.67
6805.00,0.67
6804.00,0.67
6803.00,0.67
6802.00,0.67
6801.00,0.67
6800.00,0.67
6799.00,0.67
6798.00,0.66
6797.00,0.66
6796.00,0.66
6795.00,0.66
6794.00,0.66
6793.00,0.66
6792.00,0.66
6791.00,0.65
6790.00,0.65
6789.00,0.65
6788.00,0.65
6787.00,0.65
6786.00,0.65
6785.00,0.65
6784.00,0.65
6783.00,0.64
6782.00,0.64
6781.00,0.64
6780.00,0.64
6779.00,0.64
6778.00,0.64
6777.00,0.64
6776.00,0.64
6775.00,0.64
6774.00,0.64
6773.00,0.64
6772.00,0.64
6771.00,0.64
6770.00,0.65
6769.00,0.65
6768.00,0.65
6767.00,0.65
6766.00,0.65
6765.00,0.65
6764.00,0.66
6763.00,0.66
6762.00,0.66
6761.00,0.66
6760.00,0.66
6759.00,0.66
6758.00,0.66
6757.00,0.67
6756.00,0.67
6755.00,0.67
6754.00,0.67
6753.00,0.67
6752.00,0.67
6751.00,0.67
6750.00,0.67
6749.00,0.68
6748.00,0.68
6747.00,0.68
6746.00,0.68
6745.00,0.68
6744.00,0.68
6743.00,0.68
6742.00,0.68
6741.00,0.68
6740.00,0.68
6739.00,0.68
6738.00,0.68
6737.00,0.68
6736.00,0.68
6735.00,0.68
6734.00,0.68
6733.00,0.68
6732.00,0.68
6731.00,0.69
6730.00,0.69
6729.00,0.69
6728.00,0.69
6727.00,0.69
6726.00,0.69
6725.00,0.69
6724.00,0.69
6723.00,0.69
6722.00,0.69
6721.00,0.69
6720.00,0.70
6719.00,0.70
6718.00,0.70
6717.00,0.70
6716.00,0.70
6715.00,0.70
6714.00,0.70
6713.00,0.70
6712.00,0.70
6711.00,0.70
6710.00,0.71
6709.00,0.71
6708.00,0.71
6707.00,0.71
6706.00,0.71
6705.00,0.71
6704.00,0.71
6703.00,0.71
6702.00,0.71
6701.00,0.71
6700.00,0.72
6699.00,0.72
6698.00,0.72
6697.00,0.72
6696.00,0.72
6695.00,0.72
6694.00,0.72
6693.00,0.72
6692.00,0.72
6691.00,0.72
6690.00,0.72
6689.00,0.72
6688.00,0.72
6687.00,0.72
6686.00,0.72
6685.00,0.72
6684.00,0.72
6683.00,0.73
6682.00,0.73
6681.00,0.73
6680.00,0.73
6679.00,0.73
6678.00,0.73
6677.00,0.73
6676.00,0.73
6675.00,0.73
6674.00,0.73
6673.00,0.73
6672.00,0.73
6671.00,0.73
6670.00,0.73
6669.00,0.73
6668.00,0.73
6667.00,0.73
6666.00,0.73
6665.00,0.73
6664.00,0.73
6663.00,0.73
6662.00,0.74
6661.00,0.74
6660.00,0.74
6659.00,0.74
6658.00,0.74
6657.00,0.74
6656.00,0.74
6655.00,0.74
6654.00,0.74
6653.00,0.74
6652.00,0.74
6651.00,0.74
6650.00,0.74
6649.00,0.74
6648.00,0.74
6647.00,0.74
6646.00,0.74
6645.00,0.74
6644.00,0.74
6643.00,0.75
6642.00,0.75
6641.00,0.75
6640.00,0.75
6639.00,0.76
6638.00,0.76
6637.00,0.76
6636.00,0.76
6635.00,0.76
6634.00,0.77
6633.00,0.77
6632.00,0.77
6631.00,0.77
6630.00,0.78
6629.00,0.78
6628.00,0.78
6627.00,0.78
6626.00,0.79
6625.00,0.79
6624.00,0.79
6623.00,0.79
6622.00,0.79
6621.00,0.79
6620.00,0.80
6619.00,0.80
6618.00,0.80
6617.00,0.80
6616.00,0.80
6615.00,0.80
6614.00,0.80
6613.00,0.80
6612.00,0.80
6611.00,0.80
6610.00,0.80
6609.00,0.80
6608.00,0.80
6607.00,0.80
6606.00,0.80
6605.00,0.80
6604.00,0.79
6603.00,0.79
6602.00,0.79
6601.00,0.79
6600.00,0.79
6599.00,0.79
6598.00,0.79
6597.00,0.79
6596.00,0.79
6595.00,0.79
6594.00,0.80
6593.00,0.80
6592.00,0.80
6591.00,0.80
6590.00,0.80
6589.00,0.80
6588.00,0.80
6587.00,0.80
6586.00,0.80
6585.00,0.80
6584.00,0.80
6583.00,0.80
6582.00,0.80
6581.00,0.80
6580.00,0.80
6579.00,0.80
6578.00,0.80
6577.00,0.80
6576.00,0.80
6575.00,0.80
6574.00,0.80
6573.00,0.80
6572.00,0.80
6571.00,0.80
6570.00,0.80
6569.00,0.80
6568.00,0.80
6567.00,0.80
6566.00,0.80
6565.00,0.80
6564.00,0.80
6563.00,0.80
6562.00,0.80
6561.00,0.80
6560.00,0.80
6559.00,0.80
6558.00,0.80
6557.00,0.80
6556.00,0.80
6555.00,0.81
6554.00,0.81
6553.00,0.81
6552.00,0.81
6551.00,0.81
6550.00,0.82
6549.00,0.82
6548.00,0.82
6547.00,0.82
6546.00,0.83
6545.00,0.83
6544.00,0.83
6543.00,0.83
6542.00,0.84
6541.00,0.84
6540.00,0.84
6539.00,0.85
6538.00,0.85
6537.00,0.85
6536.00,0.86
6535.00,0.86
6534.00,0.86
6533.00,0.86
6532.00,0.86
6531.00,0.86
6530.00,0.87
6529.00,0.87
6528.00,0.87
6527.00,0.87
6526.00,0.87
6525.00,0.87
6524.00,0.87
6523.00,0.87
6522.00,0.87
6521.00,0.87
6520.00,0.87
6519.00,0.86
6518.00,0.86
6517.00,0.86
6516.00,0.86
6515.00,0.86
6514.00,0.86
6513.00,0.86
6512.00,0.86
6511.00,0.85
6510.00,0.85
6509.00,0.85
6508.00,0.85
6507.00,0.85
6506.00,0.85
6505.00,0.85
6504.00,0.85
6503.00,0.85
6502.00,0.85
6501.00,0.84
6500.00,0.84
6499.00,0.84
6498.00,0.84
6497.00,0.84
6496.00,0.84
6495.00,0.84
6494.00,0.84
6493.00,0.84
6492.00,0.84
6491.00,0.84
6490.00,0.84
6489.00,0.84
6488.00,0.84
6487.00,0.84
6486.00,0.84
6485.00,0.85
6484.00,0.85
6483.00,0.85
6482.00,0.85
6481.00,0.85
6480.00,0.86
6479.00,0.86
6478.00,0.86
6477.00,0.86
6476.00,0.86
6475.00,0.87
6474.00,0.87
6473.00,0.87
6472.00,0.87
6471.00,0.87
6470.00,0.88
6469.00,0.88
6468.00,0.88
6467.00,0.88
6466.00,0.89
6465.00,0.89
6464.00,0.89
6463.00,0.89
6462.00,0.89
6461.00,0.89
6460.00,0.90
6459.00,0.90
6458.00,0.90
6457.00,0.90
6456.00,0.90
6455.00,0.90
6454.00,0.90
6453.00,0.90
6452.00,0.90
6451.00,0.90
6450.00,0.90
6449.00,0.90
6448.00,0.90
6447.00,0.90
6446.00,0.90
6445.00,0.90
6444.00,0.90
6443.00,0.90
6442.00,0.90
6441.00,0.90
6440.00,0.90
6439.00,0.90
6438.00,0.90
6437.00,0.90
6436.00,0.90
6435.00,0.90
6434.00,0.90
6433.00,0.90
6432.00,0.90
6431.00,0.90
6430.00,0.90
6429.00,0.90
6428.00,0.90
6427.00,0.91
6426.00,0.91
6425.00,0.91
6424.00,0.91
6423.00,0.91
6422.00,0.91
6421.00,0.91
6420.00,0.91
6419.00,0.91
6418.00,0.91
6417.00,0.92
6416.00,0.92
6415.00,0.92
6414.00,0.92
6413.00,0.92
6412.00,0.92
6411.00,0.92
6410.00,0.92
6409.00,0.92
6408.00,0.92
6407.00,0.92
6406.00,0.93
6405.00,0.93
6404.00,0.93
6403.00,0.93
6402.00,0.93
6401.00,0.93
6400.00,0.93
6399.00,0.93
6398.00,0.93
6397.00,0.94
6396.00,0.94
6395.00,0.94
6394.00,0.94
6393.00,0.94
6392.00,0.94
6391.00,0.94
6390.00,0.94
6389.00,0.94
6388.00,0.94
6387.00,0.94
6386.00,0.94
6385.00,0.94
6384.00,0.94
6383.00,0.94
6382.00,0.95
6381.00,0.95
6380.00,0.95
6379.00,0.95
6378.00,0.95
6377.00,0.95
6376.00,0.95
6375.00,0.95
6374.00,0.95
6373.00,0.95
6372.00,0.94
6371.00,0.94
6370.00,0.94
6369.00,0.94
6368.00,0.94
6367.00,0.94
6366.00,0.94
6365.00,0.94
6364.00,0.94
6363.00,0.94
6362.00,0.94
6361.00,0.94
6360.00,0.94
6359.00,0.94
6358.00,0.94
6357.00,0.94
6356.00,0.94
6355.00,0.94
6354.00,0.94
6353.00,0.94
6352.00,0.94
6351.00,0.95
6350.00,0.95
6349.00,0.95
6348.00,0.95
6347.00,0.95
6346.00,0.95
6345.00,0.96
6344.00,0.96
6343.00,0.96
6342.00,0.96
6341.00,0.96
6340.00,0.96
6339.00,0.96
6338.00,0.97
6337.00,0.97
6336.00,0.97
6335.00,0.97
6334.00,0.97
6333.00,0.97
6332.00,0.97
6331.00,0.97
6330.00,0.97
6329.00,0.97
6328.00,0.97
6327.00,0.97
6326.00,0.97
6325.00,0.97
6324.00,0.97
6323.00,0.97
6322.00,0.97
6321.00,0.97
6320.00,0.96
6319.00,0.96
6318.00,0.96
6317.00,0.96
6316.00,0.96
6315.00,0.96
6314.00,0.96
6313.00,0.96
6312.00,0.95
6311.00,0.95
6310.00,0.95
6309.00,0.95
6308.00,0.96
6307.00,0.96
6306.00,0.96
6305.00,0.96
6304.00,0.96
6303.00,0.96
6302.00,0.96
6301.00,0.97
6300.00,0.97
6299.00,0.97
6298.00,0.97
6297.00,0.98
6296.00,0.98
6295.00,0.98
6294.00,0.99
6293.00,0.99
6292.00,0.99
6291.00,0.99
6290.00,1.00
6289.00,1.00
6288.00,1.00
6287.00,1.01
6286.00,1.01
6285.00,1.01
6284.00,1.01
6283.00,1.02
6282.00,1.02
6281.00,1.02
6280.00,1.02
6279.00,1.02
6278.00,1.02
6277.00,1.02
6276.00,1.02
6275.00,1.03
6274.00,1.03
6273.00,1.03
6272.00,1.03
6271.00,1.03
6270.00,1.03
6269.00,1.03
6268.00,1.03
6267.00,1.03
6266.00,1.03
6265.00,1.03
6264.00,1.03
6263.00,1.03
6262.00,1.03
6261.00,1.03
6260.00,1.03
6259.00,1.03
6258.00,1.03
6257.00,1.04
6256.00,1.04
6255.00,1.04
6254.00,1.04
6253.00,1.04
6252.00,1.05
6251.00,1.05
6250.00,1.05
6249.00,1.05
6248.00,1.05
6247.00,1.06
6246.00,1.06
6245.00,1.06
6244.00,1.07
6243.00,1.07
6242.00,1.07
6241.00,1.08
6240.00,1.08
6239.00,1.08
6238.00,1.09
6237.00,1.09
6236.00,1.09
6235.00,1.10
6234.00,1.10
6233.00,1.10
6232.00,1.10
6231.00,1.11
6230.00,1.11
6229.00,1.11
6228.00,1.11
6227.00,1.11
6226.00,1.11
6225.00,1.11
6224.00,1.12
6223.00,1.12
6222.00,1.12
6221.00,1.12
6220.00,1.12
6219.00,1.12
6218.00,1.12
6217.00,1.12
6216.00,1.12
6215.00,1.11
6214.00,1.11
6213.00,1.11
6212.00,1.11
6211.00,1.11
6210.00,1.11
6209.00,1.11
6208.00,1.11
6207.00,1.10
6206.00,1.10
6205.00,1.10
6204.00,1.10
6203.00,1.10
6202.00,1.10
6201.00,1.10
6200.00,1.10
6199.00,1.10
6198.00,1.10
6197.00,1.10
6196.00,1.10
6195.00,1.10
6194.00,1.10
6193.00,1.10
6192.00,1.10
6191.00,1.10
6190.00,1.10
6189.00,1.10
6188.00,1.10
6187.00,1.10
6186.00,1.11
6185.00,1.11
6184.00,1.11
6183.00,1.11
6182.00,1.11
6181.00,1.11
6180.00,1.12
6179.00,1.12
6178.00,1.12
6177.00,1.12
6176.00,1.13
6175.00,1.13
6174.00,1.13
6173.00,1.13
6172.00,1.13
6171.00,1.14
6170.00,1.14
6169.00,1.14
6168.00,1.14
6167.00,1.15
6166.00,1.15
6165.00,1.15
6164.00,1.15
6163.00,1.15
6162.00,1.16
6161.00,1.16
6160.00,1.16
6159.00,1.16
6158.00,1.17
6157.00,1.17
6156.00,1.17
6155.00,1.17
6154.00,1.18
6153.00,1.18
6152.00,1.18
6151.00,1.18
6150.00,1.18
6149.00,1.19
6148.00,1.19
6147.00,1.19
6146.00,1.19
6145.00,1.19
6144.00,1.20
6143.00,1.20
6142.00,1.20
6141.00,1.20
6140.00,1.20
6139.00,1.20
6138.00,1.20
6137.00,1.20
6136.00,1.20
6135.00,1.20
6134.00,1.20
6133.00,1.20
6132.00,1.20
6131.00,1.20
6130.00,1.20
6129.00,1.20
6128.00,1.20
6127.00,1.20
6126.00,1.20
6125.00,1.20
6124.00,1.20
6123.00,1.20
6122.00,1.20
6121.00,1.20
6120.00,1.20
6119.00,1.20
6118.00,1.20
6117.00,1.20
6116.00,1.20
6115.00,1.20
6114.00,1.21
6113.00,1.21
6112.00,1.21
6111.00,1.21
6110.00,1.21
6109.00,1.22
6108.00,1.22
6107.00,1.22
6106.00,1.22
6105.00,1.22
6104.00,1.23
6103.00,1.23
6102.00,1.23
6101.00,1.23
6100.00,1.24
6099.00,1.24
6098.00,1.24
6097.00,1.25
6096.00,1.25
6095.00,1.25
6094.00,1.25
6093.00,1.26
6092.00,1.26
6091.00,1.26
6090.00,1.26
6089.00,1.26
6088.00,1.26
6087.00,1.26
6086.00,1.26
6085.00,1.26
6084.00,1.26
6083.00,1.26
6082.00,1.26
6081.00,1.26
6080.00,1.26
6079.00,1.27
6078.00,1.27
6077.00,1.27
6076.00,1.27
6075.00,1.27
6074.00,1.27
6073.00,1.27
6072.00,1.27
6071.00,1.27
6070.00,1.27
6069.00,1.27
6068.00,1.27
6067.00,1.27
6066.00,1.27
6065.00,1.27
6064.00,1.27
6063.00,1.27
6062.00,1.27
6061.00,1.27
6060.00,1.27
6059.00,1.27
6058.00,1.27
6057.00,1.28
6056.00,1.28
6055.00,1.28
6054.00,1.28
6053.00,1.28
6052.00,1.28
6051.00,1.28
6050.00,1.28
6049.00,1.29
6048.00,1.29
6047.00,1.29
6046.00,1.29
6045.00,1.29
6044.00,1.29
6043.00,1.29
6042.00,1.29
6041.00,1.29
6040.00,1.29
6039.00,1.29
6038.00,1.29
6037.00,1.29
6036.00,1.29
6035.00,1.29
6034.00,1.29
6033.00,1.30
6032.00,1.30
6031.00,1.30
6030.00,1.30
6029.00,1.30
6028.00,1.30
6027.00,1.30
6026.00,1.30
6025.00,1.30
6024.00,1.30
6023.00,1.30
6022.00,1.30
6021.00,1.30
6020.00,1.30
6019.00,1.29
6018.00,1.29
6017.00,1.29
6016.00,1.29
6015.00,1.29
6014.00,1.29
6013.00,1.29
6012.00,1.29
6011.00,1.29
6010.00,1.29
6009.00,1.29
6008.00,1.29
6007.00,1.29
6006.00,1.29
6005.00,1.29
6004.00,1.29
6003.00,1.29
6002.00,1.29
6001.00,1.29
6000.00,1.29
5999.00,1.29
5998.00,1.29
5997.00,1.28
5996.00,1.28
5995.00,1.28
5994.00,1.28
5993.00,1.28
5992.00,1.28
5991.00,1.27
5990.00,1.27
5989.00,1.27
5988.00,1.27
5987.00,1.26
5986.00,1.26
5985.00,1.26
5984.00,1.26
5983.00,1.25
5982.00,1.25
5981.00,1.24
5980.00,1.24
5979.00,1.24
5978.00,1.23
5977.00,1.23
5976.00,1.22
5975.00,1.22
5974.00,1.22
5973.00,1.21
5972.00,1.21
5971.00,1.20
5970.00,1.20
5969.00,1.19
5968.00,1.19
5967.00,1.18
5966.00,1.18
5965.00,1.18
5964.00,1.17
5963.00,1.17
5962.00,1.16
5961.00,1.16
5960.00,1.16
5959.00,1.15
5958.00,1.15
5957.00,1.15
5956.00,1.15
5955.00,1.14
5954.00,1.14
5953.00,1.14
5952.00,1.14
5951.00,1.13
5950.00,1.13
5949.00,1.13
5948.00,1.13
5947.00,1.13
5946.00,1.12
5945.00,1.12
5944.00,1.12
5943.00,1.12
5942.00,1.12
5941.00,1.12
5940.00,1.12
5939.00,1.12
5938.00,1.12
5937.00,1.12
5936.00,1.12
5935.00,1.12
5934.00,1.12
5933.00,1.12
5932.00,1.12
5931.00,1.12
5930.00,1.12
5929.00,1.12
5928.00,1.12
5927.00,1.12
5926.00,1.12
5925.00,1.12
5924.00,1.12
5923.00,1.12
5922.00,1.12
5921.00,1.12
5920.00,1.12
5919.00,1.12
5918.00,1.12
5917.00,1.11
5916.00,1.11
5915.00,1.11
5914.00,1.11
5913.00,1.11
5912.00,1.11
5911.00,1.11
5910.00,1.10
5909.00,1.10
5908.00,1.10
5907.00,1.10
5906.00,1.09
5905.00,1.09
5904.00,1.09
5903.00,1.09
5902.00,1.09
5901.00,1.08
5900.00,1.08
5899.00,1.08
5898.00,1.08
5897.00,1.08
5896.00,1.07
5895.00,1.07
5894.00,1.07
5893.00,1.07
5892.00,1.07
5891.00,1.07
5890.00,1.06
5889.00,1.06
5888.00,1.06
5887.00,1.06
5886.00,1.06
5885.00,1.06
5884.00,1.06
5883.00,1.07
5882.00,1.07
5881.00,1.07
5880.00,1.07
5879.00,1.07
5878.00,1.07
5877.00,1.07
5876.00,1.07
5875.00,1.08
5874.00,1.08
5873.00,1.08
5872.00,1.08
5871.00,1.08
5870.00,1.08
5869.00,1.09
5868.00,1.09
5867.00,1.09
5866.00,1.09
5865.00,1.09
5864.00,1.10
5863.00,1.10
5862.00,1.10
5861.00,1.10
5860.00,1.10
5859.00,1.10
5858.00,1.11
5857.00,1.11
5856.00,1.11
5855.00,1.11
5854.00,1.11
5853.00,1.11
5852.00,1.11
5851.00,1.12
5850.00,1.12
5849.00,1.12
5848.00,1.12
5847.00,1.12
5846.00,1.12
5845.00,1.12
5844.00,1.12
5843.00,1.12
5842.00,1.12
5841.00,1.12
5840.00,1.12
5839.00,1.12
5838.00,1.12
5837.00,1.12
5836.00,1.12
5835.00,1.12
5834.00,1.12
5833.00,1.12
5832.00,1.12
5831.00,1.12
5830.00,1.12
5829.00,1.12
5828.00,1.12
5827.00,1.12
5826.00,1.12
5825.00,1.12
5824.00,1.12
5823.00,1.12
5822.00,1.12
5821.00,1.12
5820.00,1.12
5819.00,1.12
5818.00,1.12
5817.00,1.12
5816.00,1.11
5815.00,1.11
5814.00,1.11
5813.00,1.11
5812.00,1.11
5811.00,1.11
5810.00,1.11
5809.00,1.11
5808.00,1.11
5807.00,1.11
5806.00,1.11
5805.00,1.11
5804.00,1.11
5803.00,1.11
5802.00,1.11
5801.00,1.11
5800.00,1.11
5799.00,1.11
5798.00,1.11
5797.00,1.11
5796.00,1.11
5795.00,1.11
5794.00,1.11
5793.00,1.12
5792.00,1.12
5791.00,1.12
5790.00,1.12
5789.00,1.12
5788.00,1.12
5787.00,1.12
5786.00,1.12
5785.00,1.12
5784.00,1.12
5783.00,1.12
5782.00,1.12
5781.00,1.12
5780.00,1.12
5779.00,1.12
5778.00,1.12
5777.00,1.12
5776.00,1.12
5775.00,1.12
5774.00,1.12
5773.00,1.12
5772.00,1.13
5771.00,1.13
5770.00,1.13
5769.00,1.13
5768.00,1.13
5767.00,1.13
5766.00,1.13
5765.00,1.13
5764.00,1.13
5763.00,1.13
5762.00,1.13
5761.00,1.13
5760.00,1.13
5759.00,1.13
5758.00,1.13
5757.00,1.14
5756.00,1.14
5755.00,1.14
5754.00,1.14
5753.00,1.14
5752.00,1.14
5751.00,1.14
5750.00,1.14
5749.00,1.14
5748.00,1.15
5747.00,1.15
5746.00,1.15
5745.00,1.15
5744.00,1.15
5743.00,1.15
5742.00,1.15
5741.00,1.15
5740.00,1.15
5739.00,1.15
5738.00,1.15
5737.00,1.15
5736.00,1.15
5735.00,1.15
5734.00,1.15
5733.00,1.15
5732.00,1.15
5731.00,1.15
5730.00,1.15
5729.00,1.15
5728.00,1.15
5727.00,1.15
5726.00,1.15
5725.00,1.15
5724.00,1.15
5723.00,1.16
5722.00,1.16
5721.00,1.16
5720.00,1.15
5719.00,1.15
5718.00,1.15
5717.00,1.15
5716.00,1.15
5715.00,1.15
5714.00,1.15
5713.00,1.15
5712.00,1.15
5711.00,1.15
5710.00,1.15
5709.00,1.15
5708.00,1.15
5707.00,1.15
5706.00,1.15
5705.00,1.15
5704.00,1.15
5703.00,1.15
5702.00,1.15
5701.00,1.15
5700.00,1.15
5699.00,1.15
5698.00,1.15
5697.00,1.15
5696.00,1.15
5695.00,1.15
5694.00,1.15
5693.00,1.15
5692.00,1.15
5691.00,1.15
5690.00,1.16
5689.00,1.16
5688.00,1.16
5687.00,1.16
5686.00,1.16
5685.00,1.16
5684.00,1.16
5683.00,1.16
5682.00,1.16
5681.00,1.16
5680.00,1.16
5679.00,1.16
5678.00,1.17
5677.00,1.17
5676.00,1.17
5675.00,1.17
5674.00,1.17
5673.00,1.17
5672.00,1.17
5671.00,1.17
5670.00,1.17
5669.00,1.17
5668.00,1.17
5667.00,1.17
5666.00,1.17
5665.00,1.17
5664.00,1.17
5663.00,1.17
5662.00,1.16
5661.00,1.16
5660.00,1.16
5659.00,1.16
5658.00,1.16
5657.00,1.16
5656.00,1.16
5655.00,1.16
5654.00,1.16
5653.00,1.16
5652.00,1.16
5651.00,1.16
5650.00,1.16
5649.00,1.16
5648.00,1.16
5647.00,1.16
5646.00,1.16
5645.00,1.16
5644.00,1.16
5643.00,1.16
5642.00,1.16
5641.00,1.17
5640.00,1.17
5639.00,1.17
5638.00,1.18
5637.00,1.18
5636.00,1.18
5635.00,1.18
5634.00,1.19
5633.00,1.19
5632.00,1.19
5631.00,1.19
5630.00,1.19
5629.00,1.20
5628.00,1.20
5627.00,1.20
5626.00,1.20
5625.00,1.20
5624.00,1.20
5623.00,1.20
5622.00,1.21
5621.00,1.21
5620.00,1.21
5619.00,1.21
5618.00,1.21
5617.00,1.21
5616.00,1.22
5615.00,1.22
5614.00,1.22
5613.00,1.22
5612.00,1.22
5611.00,1.22
5610.00,1.22
5609.00,1.22
5608.00,1.22
5607.00,1.23
5606.00,1.23
5605.00,1.23
5604.00,1.23
5603.00,1.23
5602.00,1.24
5601.00,1.24
5600.00,1.24
5599.00,1.24
5598.00,1.25
5597.00,1.25
5596.00,1.25
5595.00,1.25
5594.00,1.25
5593.00,1.25
5592.00,1.25
5591.00,1.26
5590.00,1.26
5589.00,1.26
5588.00,1.26
5587.00,1.26
5586.00,1.26
5585.00,1.26
5584.00,1.26
5583.00,1.26
5582.00,1.26
5581.00,1.27
5580.00,1.27
5579.00,1.27
5578.00,1.27
5577.00,1.27
5576.00,1.27
5575.00,1.27
5574.00,1.27
5573.00,1.27
5572.00,1.27
5571.00,1.27
5570.00,1.27
5569.00,1.28
5568.00,1.28
5567.00,1.28
5566.00,1.28
5565.00,1.28
5564.00,1.29
5563.00,1.29
5562.00,1.29
5561.00,1.29
5560.00,1.29
5559.00,1.29
5558.00,1.30
5557.00,1.30
5556.00,1.30
5555.00,1.30
5554.00,1.30
5553.00,1.31
5552.00,1.31
5551.00,1.31
5550.00,1.31
5549.00,1.31
5548.00,1.32
5547.00,1.32
5546.00,1.32
5545.00,1.32
5544.00,1.32
5543.00,1.33
5542.00,1.33
5541.00,1.33
5540.00,1.33
5539.00,1.33
5538.00,1.33
5537.00,1.33
5536.00,1.33
5535.00,1.33
5534.00,1.34
5533.00,1.34
5532.00,1.34
5531.00,1.34
5530.00,1.34
5529.00,1.34
5528.00,1.34
5527.00,1.34
5526.00,1.34
5525.00,1.34
5524.00,1.35
5523.00,1.35
5522.00,1.35
5521.00,1.35
5520.00,1.35
5519.00,1.35
5518.00,1.35
5517.00,1.35
5516.00,1.35
5515.00,1.35
5514.00,1.35
5513.00,1.35
5512.00,1.36
5511.00,1.36
5510.00,1.36
5509.00,1.36
5508.00,1.36
5507.00,1.36
5506.00,1.36
5505.00,1.36
5504.00,1.36
5503.00,1.37
5502.00,1.37
5501.00,1.37
5500.00,1.37
5499.00,1.37
5498.00,1.37
5497.00,1.37
5496.00,1.37
5495.00,1.37
5494.00,1.38
5493.00,1.38
5492.00,1.38
5491.00,1.38
5490.00,1.38
5489.00,1.38
5488.00,1.38
5487.00,1.38
5486.00,1.38
5485.00,1.38
5484.00,1.38
5483.00,1.38
5482.00,1.38
5481.00,1.38
5480.00,1.38
5479.00,1.38
5478.00,1.38
5477.00,1.38
5476.00,1.38
5475.00,1.38
5474.00,1.38
5473.00,1.38
5472.00,1.38
5471.00,1.38
5470.00,1.38
5469.00,1.38
5468.00,1.38
5467.00,1.38
5466.00,1.38
5465.00,1.38
5464.00,1.38
5463.00,1.39
5462.00,1.39
5461.00,1.39
5460.00,1.39
5459.00,1.39
5458.00,1.39
5457.00,1.39
5456.00,1.39
5455.00,1.39
5454.00,1.39
5453.00,1.40
5452.00,1.40
5451.00,1.40
5450.00,1.40
5449.00,1.40
5448.00,1.40
5447.00,1.40
5446.00,1.40
5445.00,1.40
5444.00,1.40
5443.00,1.40
5442.00,1.40
5441.00,1.40
5440.00,1.40
5439.00,1.40
5438.00,1.40
5437.00,1.40
5436.00,1.40
5435.00,1.40
5434.00,1.40
5433.00,1.40
5432.00,1.40
5431.00,1.40
5430.00,1.41
5429.00,1.41
5428.00,1.41
5427.00,1.41
5426.00,1.41
5425.00,1.41
5424.00,1.41
5423.00,1.41
5422.00,1.41
5421.00,1.41
5420.00,1.41
5419.00,1.41
5418.00,1.41
5417.00,1.41
5416.00,1.41
5415.00,1.41
5414.00,1.41
5413.00,1.41
5412.00,1.41
5411.00,1.41
5410.00,1.41
5409.00,1.41
5408.00,1.41
5407.00,1.41
5406.00,1.41
5405.00,1.41
5404.00,1.41
5403.00,1.41
5402.00,1.40
5401.00,1.40
5400.00,1.40
5399.00,1.40
5398.00,1.40
5397.00,1.40
5396.00,1.39
5395.00,1.39
5394.00,1.39
5393.00,1.39
5392.00,1.39
5391.00,1.38
5390.00,1.38
5389.00,1.38
5388.00,1.38
5387.00,1.37
5386.00,1.37
5385.00,1.36
5384.00,1.36
5383.00,1.36
5382.00,1.35
5381.00,1.35
5380.00,1.35
5379.00,1.34
5378.00,1.34
5377.00,1.33
5376.00,1.33
5375.00,1.32
5374.00,1.32
5373.00,1.31
5372.00,1.31
5371.00,1.30
5370.00,1.30
5369.00,1.29
5368.00,1.29
5367.00,1.28
5366.00,1.27
5365.00,1.27
5364.00,1.26
5363.00,1.26
5362.00,1.25
5361.00,1.24
5360.00,1.24
5359.00,1.23
5358.00,1.23
5357.00,1.22
5356.00,1.21
5355.00,1.21
5354.00,1.20
5353.00,1.19
5352.00,1.19
5351.00,1.18
5350.00,1.18
5349.00,1.17
5348.00,1.16
5347.00,1.16
5346.00,1.15
5345.00,1.15
5344.00,1.14
5343.00,1.13
5342.00,1.13
5341.00,1.12
5340.00,1.11
5339.00,1.11
5338.00,1.10
5337.00,1.10
5336.00,1.09
5335.00,1.08
5334.00,1.08
5333.00,1.07
5332.00,1.06
5331.00,1.06
5330.00,1.05
5329.00,1.04
5328.00,1.03
5327.00,1.03
5326.00,1.02
5325.00,1.01
5324.00,1.01
5323.00,1.00
5322.00,0.99
5321.00,0.99
5320.00,0.98
5319.00,0.97
5318.00,0.97
5317.00,0.96
5316.00,0.96
5315.00,0.95
5314.00,0.94
5313.00,0.94
5312.00,0.93
5311.00,0.93
5310.00,0.92
5309.00,0.91
5308.00,0.91
5307.00,0.90
5306.00,0.90
5305.00,0.89
5304.00,0.89
5303.00,0.89
5302.00,0.88
5301.00,0.88
5300.00,0.87
5299.00,0.87
5298.00,0.87
5297.00,0.86
5296.00,0.86
5295.00,0.86
5294.00,0.86
5293.00,0.85
5292.00,0.85
5291.00,0.85
5290.00,0.85
5289.00,0.84
5288.00,0.84
5287.00,0.84
5286.00,0.84
5285.00,0.84
5284.00,0.84
5283.00,0.84
5282.00,0.84
5281.00,0.84
5280.00,0.84
5279.00,0.83
5278.00,0.83
5277.00,0.83
5276.00,0.83
5275.00,0.83
5274.00,0.83
5273.00,0.83
5272.00,0.83
5271.00,0.83
5270.00,0.83
5269.00,0.83
5268.00,0.83
5267.00,0.83
5266.00,0.84
5265.00,0.84
5264.00,0.84
5263.00,0.84
5262.00,0.84
5261.00,0.84
5260.00,0.84
5259.00,0.84
5258.00,0.85
5257.00,0.85
5256.00,0.85
5255.00,0.85
5254.00,0.85
5253.00,0.85
5252.00,0.85
5251.00,0.85
5250.00,0.86
5249.00,0.86
5248.00,0.86
5247.00,0.86
5246.00,0.86
5245.00,0.86
5244.00,0.86
5243.00,0.86
5242.00,0.86
5241.00,0.86
5240.00,0.86
5239.00,0.86
5238.00,0.86
5237.00,0.86
5236.00,0.86
5235.00,0.86
5234.00,0.86
5233.00,0.86
5232.00,0.86
5231.00,0.86
5230.00,0.86
5229.00,0.86
5228.00,0.87
5227.00,0.87
5226.00,0.87
5225.00,0.87
5224.00,0.87
5223.00,0.87
5222.00,0.87
5221.00,0.87
5220.00,0.87
5219.00,0.87
5218.00,0.87
5217.00,0.87
5216.00,0.87
5215.00,0.87
5214.00,0.87
5213.00,0.86
5212.00,0.86
5211.00,0.86
5210.00,0.86
5209.00,0.86
5208.00,0.86
5207.00,0.86
5206.00,0.86
5205.00,0.86
5204.00,0.86
5203.00,0.85
5202.00,0.85
5201.00,0.85
5200.00,0.85
5199.00,0.85
5198.00,0.84
5197.00,0.84
5196.00,0.84
5195.00,0.84
5194.00,0.84
5193.00,0.84
5192.00,0.84
5191.00,0.84
5190.00,0.84
5189.00,0.84
5188.00,0.84
5187.00,0.84
5186.00,0.84
5185.00,0.84
5184.00,0.84
5183.00,0.84
5182.00,0.84
5181.00,0.85
5180.00,0.85
5179.00,0.85
5178.00,0.85
5177.00,0.85
5176.00,0.85
5175.00,0.85
5174.00,0.85
5173.00,0.86
5172.00,0.86
5171.00,0.86
5170.00,0.86
5169.00,0.86
5168.00,0.86
5167.00,0.86
5166.00,0.86
5165.00,0.86
5164.00,0.86
5163.00,0.86
5162.00,0.86
5161.00,0.86
5160.00,0.86
5159.00,0.86
5158.00,0.86
5157.00,0.86
5156.00,0.86
5155.00,0.86
5154.00,0.86
5153.00,0.86
5152.00,0.86
5151.00,0.86
5150.00,0.86
5149.00,0.86
5148.00,0.86
5147.00,0.86
5146.00,0.86
5145.00,0.86
5144.00,0.86
5143.00,0.86
5142.00,0.86
5141.00,0.86
5140.00,0.86
5139.00,0.86
5138.00,0.86
5137.00,0.86
5136.00,0.86
5135.00,0.86
5134.00,0.86
5133.00,0.86
5132.00,0.86
5131.00,0.86
5130.00,0.86
5129.00,0.86
5128.00,0.86
5127.00,0.86
5126.00,0.86
5125.00,0.86
5124.00,0.86
5123.00,0.87
5122.00,0.87
5121.00,0.87
5120.00,0.87
5119.00,0.87
5118.00,0.87
5117.00,0.87
5116.00,0.87
5115.00,0.87
5114.00,0.87
5113.00,0.87
5112.00,0.87
5111.00,0.87
5110.00,0.87
5109.00,0.87
5108.00,0.88
5107.00,0.88
5106.00,0.88
5105.00,0.88
5104.00,0.88
5103.00,0.88
5102.00,0.88
5101.00,0.88
5100.00,0.88
5099.00,0.88
5098.00,0.88
5097.00,0.89
5096.00,0.89
5095.00,0.89
5094.00,0.89
5093.00,0.89
5092.00,0.89
5091.00,0.89
5090.00,0.90
5089.00,0.90
5088.00,0.90
5087.00,0.90
5086.00,0.90
5085.00,0.90
5084.00,0.90
5083.00,0.91
5082.00,0.91
5081.00,0.91
5080.00,0.91
5079.00,0.91
5078.00,0.91
5077.00,0.92
5076.00,0.92
5075.00,0.92
5074.00,0.92
5073.00,0.93
5072.00,0.93
5071.00,0.93
5070.00,0.93
5069.00,0.93
5068.00,0.93
5067.00,0.94
5066.00,0.94
5065.00,0.94
5064.00,0.94
5063.00,0.94
5062.00,0.94
5061.00,0.94
5060.00,0.95
5059.00,0.95
5058.00,0.95
5057.00,0.95
5056.00,0.95
5055.00,0.95
5054.00,0.95
5053.00,0.95
5052.00,0.95
5051.00,0.95
5050.00,0.95
5049.00,0.95
5048.00,0.94
5047.00,0.94
5046.00,0.94
5045.00,0.94
5044.00,0.94
5043.00,0.94
5042.00,0.94
5041.00,0.94
5040.00,0.93
5039.00,0.93
5038.00,0.93
5037.00,0.93
5036.00,0.93
5035.00,0.93
5034.00,0.93
5033.00,0.93
5032.00,0.93
5031.00,0.92
5030.00,0.92
5029.00,0.92
5028.00,0.92
5027.00,0.92
5026.00,0.92
5025.00,0.92
5024.00,0.92
5023.00,0.92
5022.00,0.92
5021.00,0.92
5020.00,0.92
5019.00,0.92
5018.00,0.92
5017.00,0.92
5016.00,0.92
5015.00,0.92
5014.00,0.92
5013.00,0.92
5012.00,0.92
5011.00,0.92
5010.00,0.92
5009.00,0.92
5008.00,0.92
5007.00,0.92
5006.00,0.92
5005.00,0.92
5004.00,0.92
5003.00,0.92
5002.00,0.92
5001.00,0.92
5000.00,0.92
4999.00,0.92
4998.00,0.92
4997.00,0.92
4996.00,0.92
4995.00,0.92
4994.00,0.92
4993.00,0.92
4992.00,0.92
4991.00,0.92
4990.00,0.92
4989.00,0.93
4988.00,0.93
4987.00,0.93
4986.00,0.93
4985.00,0.93
4984.00,0.93
4983.00,0.93
4982.00,0.93
4981.00,0.93
4980.00,0.93
4979.00,0.93
4978.00,0.93
4977.00,0.93
4976.00,0.93
4975.00,0.93
4974.00,0.93
4973.00,0.93
4972.00,0.93
4971.00,0.93
4970.00,0.92
4969.00,0.92
4968.00,0.92
4967.00,0.92
4966.00,0.92
4965.00,0.92
4964.00,0.92
4963.00,0.92
4962.00,0.92
4961.00,0.92
4960.00,0.92
4959.00,0.92
4958.00,0.92
4957.00,0.92
4956.00,0.93
4955.00,0.93
4954.00,0.93
4953.00,0.93
4952.00,0.93
4951.00,0.93
4950.00,0.93
4949.00,0.93
4948.00,0.94
4947.00,0.94
4946.00,0.94
4945.00,0.94
4944.00,0.94
4943.00,0.95
4942.00,0.95
4941.00,0.95
4940.00,0.95
4939.00,0.95
4938.00,0.96
4937.00,0.96
4936.00,0.96
4935.00,0.96
4934.00,0.96
4933.00,0.96
4932.00,0.96
4931.00,0.96
4930.00,0.97
4929.00,0.97
4928.00,0.97
4927.00,0.97
4926.00,0.97
4925.00,0.97
4924.00,0.97
4923.00,0.97
4922.00,0.97
4921.00,0.97
4920.00,0.96
4919.00,0.96
4918.00,0.96
4917.00,0.96
4916.00,0.96
4915.00,0.96
4914.00,0.96
4913.00,0.96
4912.00,0.96
4911.00,0.96
4910.00,0.96
4909.00,0.96
4908.00,0.96
4907.00,0.96
4906.00,0.96
4905.00,0.96
4904.00,0.96
4903.00,0.97
4902.00,0.97
4901.00,0.97
4900.00,0.97
4899.00,0.97
4898.00,0.97
4897.00,0.97
4896.00,0.98
4895.00,0.98
4894.00,0.98
4893.00,0.98
4892.00,0.99
4891.00,0.99
4890.00,0.99
4889.00,0.99
4888.00,0.99
4887.00,1.00
4886.00,1.00
4885.00,1.00
4884.00,1.00
4883.00,1.00
4882.00,1.00
4881.00,1.01
4880.00,1.01
4879.00,1.01
4878.00,1.01
4877.00,1.01
4876.00,1.01
4875.00,1.01
4874.00,1.01
4873.00,1.01
4872.00,1.01
4871.00,1.01
4870.00,1.01
4869.00,1.01
4868.00,1.01
4867.00,1.01
4866.00,1.01
4865.00,1.01
4864.00,1.01
4863.00,1.01
4862.00,1.01
4861.00,1.00
4860.00,1.00
4859.00,1.00
4858.00,1.00
4857.00,1.00
4856.00,1.00
4855.00,1.00
4854.00,1.00
4853.00,1.00
4852.00,1.00
4851.00,1.00
4850.00,1.00
4849.00,1.00
4848.00,1.00
4847.00,1.00
4846.00,1.00
4845.00,1.00
4844.00,1.00
4843.00,1.00
4842.00,1.00
4841.00,1.00
4840.00,1.00
4839.00,1.00
4838.00,1.00
4837.00,1.00
4836.00,1.00
4835.00,1.00
4834.00,1.01
4833.00,1.01
4832.00,1.01
4831.00,1.01
4830.00,1.01
4829.00,1.01
4828.00,1.01
4827.00,1.01
4826.00,1.01
4825.00,1.01
4824.00,1.01
4823.00,1.01
4822.00,1.01
4821.00,1.01
4820.00,1.01
4819.00,1.01
4818.00,1.01
4817.00,1.01
4816.00,1.01
4815.00,1.01
4814.00,1.01
4813.00,1.01
4812.00,1.02
4811.00,1.02
4810.00,1.02
4809.00,1.02
4808.00,1.02
4807.00,1.02
4806.00,1.02
4805.00,1.02
4804.00,1.02
4803.00,1.02
4802.00,1.02
4801.00,1.02
4800.00,1.02
4799.00,1.03
4798.00,1.03
4797.00,1.03
4796.00,1.03
4795.00,1.03
4794.00,1.04
4793.00,1.04
4792.00,1.04
4791.00,1.04
4790.00,1.04
4789.00,1.04
4788.00,1.05
4787.00,1.05
4786.00,1.05
4785.00,1.05
4784.00,1.05
4783.00,1.05
4782.00,1.06
4781.00,1.06
4780.00,1.06
4779.00,1.06
4778.00,1.06
4777.00,1.06
4776.00,1.07
4775.00,1.07
4774.00,1.07
4773.00,1.07
4772.00,1.07
4771.00,1.07
4770.00,1.07
4769.00,1.07
4768.00,1.07
4767.00,1.07
4766.00,1.07
4765.00,1.07
4764.00,1.07
4763.00,1.08
4762.00,1.08
4761.00,1.08
4760.00,1.08
4759.00,1.08
4758.00,1.08
4757.00,1.08
4756.00,1.08
4755.00,1.08
4754.00,1.08
4753.00,1.08
4752.00,1.08
4751.00,1.08
4750.00,1.08
4749.00,1.08
4748.00,1.08
4747.00,1.08
4746.00,1.08
4745.00,1.08
4744.00,1.08
4743.00,1.08
4742.00,1.08
4741.00,1.09
4740.00,1.09
4739.00,1.09
4738.00,1.09
4737.00,1.09
4736.00,1.09
4735.00,1.09
4734.00,1.09
4733.00,1.09
4732.00,1.09
4731.00,1.09
4730.00,1.09
4729.00,1.09
4728.00,1.09
4727.00,1.09
4726.00,1.09
4725.00,1.09
4724.00,1.09
4723.00,1.10
4722.00,1.10
4721.00,1.10
4720.00,1.10
4719.00,1.10
4718.00,1.10
4717.00,1.10
4716.00,1.11
4715.00,1.11
4714.00,1.11
4713.00,1.11
4712.00,1.11
4711.00,1.12
4710.00,1.12
4709.00,1.12
4708.00,1.12
4707.00,1.12
4706.00,1.12
4705.00,1.13
4704.00,1.13
4703.00,1.13
4702.00,1.13
4701.00,1.13
4700.00,1.13
4699.00,1.13
4698.00,1.13
4697.00,1.13
4696.00,1.13
4695.00,1.13
4694.00,1.13
4693.00,1.13
4692.00,1.13
4691.00,1.13
4690.00,1.13
4689.00,1.13
4688.00,1.13
4687.00,1.13
4686.00,1.13
4685.00,1.13
4684.00,1.13
4683.00,1.14
4682.00,1.14
4681.00,1.14
4680.00,1.14
4679.00,1.14
4678.00,1.14
4677.00,1.14
4676.00,1.14
4675.00,1.14
4674.00,1.15
4673.00,1.15
4672.00,1.15
4671.00,1.15
4670.00,1.15
4669.00,1.15
4668.00,1.15
4667.00,1.15
4666.00,1.15
4665.00,1.16
4664.00,1.16
4663.00,1.16
4662.00,1.16
4661.00,1.16
4660.00,1.16
4659.00,1.16
4658.00,1.16
4657.00,1.16
4656.00,1.16
4655.00,1.16
4654.00,1.16
4653.00,1.16
4652.00,1.16
4651.00,1.16
4650.00,1.16
4649.00,1.16
4648.00,1.16
4647.00,1.16
4646.00,1.16
4645.00,1.16
4644.00,1.16
4643.00,1.16
4642.00,1.16
4641.00,1.16
4640.00,1.16
4639.00,1.16
4638.00,1.17
4637.00,1.17
4636.00,1.17
4635.00,1.17
4634.00,1.17
4633.00,1.17
4632.00,1.17
4631.00,1.17
4630.00,1.18
4629.00,1.18
4628.00,1.18
4627.00,1.18
4626.00,1.18
4625.00,1.18
4624.00,1.18
4623.00,1.18
4622.00,1.18
4621.00,1.18
4620.00,1.18
4619.00,1.18
4618.00,1.18
4617.00,1.18
4616.00,1.18
4615.00,1.18
4614.00,1.18
4613.00,1.18
4612.00,1.18
4611.00,1.18
4610.00,1.18
4609.00,1.18
4608.00,1.18
4607.00,1.18
4606.00,1.18
4605.00,1.18
4604.00,1.18
4603.00,1.18
4602.00,1.18
4601.00,1.18
4600.00,1.18
4599.00,1.19
4598.00,1.19
4597.00,1.19
4596.00,1.19
4595.00,1.19
4594.00,1.19
4593.00,1.19
4592.00,1.19
4591.00,1.19
4590.00,1.19
4589.00,1.19
4588.00,1.19
4587.00,1.19
4586.00,1.19
4585.00,1.20
4584.00,1.20
4583.00,1.20
4582.00,1.20
4581.00,1.20
4580.00,1.20
4579.00,1.20
4578.00,1.20
4577.00,1.21
4576.00,1.21
4575.00,1.21
4574.00,1.21
4573.00,1.21
4572.00,1.21
4571.00,1.21
4570.00,1.21
4569.00,1.21
4568.00,1.21
4567.00,1.20
4566.00,1.20
4565.00,1.20
4564.00,1.20
4563.00,1.20
4562.00,1.20
4561.00,1.20
4560.00,1.20
4559.00,1.20
4558.00,1.20
4557.00,1.20
4556.00,1.20
4555.00,1.20
4554.00,1.20
4553.00,1.20
4552.00,1.20
4551.00,1.20
4550.00,1.20
4549.00,1.20
4548.00,1.20
4547.00,1.21
4546.00,1.21
4545.00,1.21
4544.00,1.21
4543.00,1.21
4542.00,1.22
4541.00,1.22
4540.00,1.22
4539.00,1.22
4538.00,1.22
4537.00,1.23
4536.00,1.23
4535.00,1.23
4534.00,1.23
4533.00,1.23
4532.00,1.23
4531.00,1.23
4530.00,1.23
4529.00,1.23
4528.00,1.23
4527.00,1.23
4526.00,1.24
4525.00,1.24
4524.00,1.24
4523.00,1.24
4522.00,1.24
4521.00,1.24
4520.00,1.24
4519.00,1.24
4518.00,1.23
4517.00,1.23
4516.00,1.23
4515.00,1.23
4514.00,1.23
4513.00,1.23
4512.00,1.22
4511.00,1.22
4510.00,1.22
4509.00,1.22
4508.00,1.22
4507.00,1.21
4506.00,1.21
4505.00,1.21
4504.00,1.21
4503.00,1.21
4502.00,1.21
4501.00,1.20
4500.00,1.20
4499.00,1.20
4498.00,1.20
4497.00,1.20
4496.00,1.19
4495.00,1.19
4494.00,1.19
4493.00,1.19
4492.00,1.19
4491.00,1.18
4490.00,1.18
4489.00,1.18
4488.00,1.18
4487.00,1.18
4486.00,1.18
4485.00,1.18
4484.00,1.18
4483.00,1.18
4482.00,1.18
4481.00,1.19
4480.00,1.19
4479.00,1.19
4478.00,1.19
4477.00,1.19
4476.00,1.19
4475.00,1.19
4474.00,1.20
4473.00,1.20
4472.00,1.20
4471.00,1.20
4470.00,1.21
4469.00,1.21
4468.00,1.21
4467.00,1.21
4466.00,1.21
4465.00,1.22
4464.00,1.22
4463.00,1.22
4462.00,1.22
4461.00,1.22
4460.00,1.22
4459.00,1.21
4458.00,1.21
4457.00,1.21
4456.00,1.21
4455.00,1.20
4454.00,1.20
4453.00,1.20
4452.00,1.19
4451.00,1.19
4450.00,1.19
4449.00,1.18
4448.00,1.18
4447.00,1.18
4446.00,1.18
4445.00,1.17
4444.00,1.17
4443.00,1.17
4442.00,1.17
4441.00,1.16
4440.00,1.16
4439.00,1.16
4438.00,1.16
4437.00,1.16
4436.00,1.16
4435.00,1.15
4434.00,1.15
4433.00,1.15
4432.00,1.15
4431.00,1.15
4430.00,1.15
4429.00,1.15
4428.00,1.15
4427.00,1.15
4426.00,1.15
4425.00,1.16
4424.00,1.15
4423.00,1.15
4422.00,1.15
4421.00,1.15
4420.00,1.15
4419.00,1.15
4418.00,1.14
4417.00,1.14
4416.00,1.14
4415.00,1.13
4414.00,1.13
4413.00,1.13
4412.00,1.13
4411.00,1.12
4410.00,1.12
4409.00,1.12
4408.00,1.12
4407.00,1.12
4406.00,1.12
4405.00,1.12
4404.00,1.11
4403.00,1.11
4402.00,1.11
4401.00,1.11
4400.00,1.11
4399.00,1.11
4398.00,1.11
4397.00,1.11
4396.00,1.11
4395.00,1.11
4394.00,1.11
4393.00,1.11
4392.00,1.12
4391.00,1.12
4390.00,1.12
4389.00,1.12
4388.00,1.13
4387.00,1.13
4386.00,1.13
4385.00,1.13
4384.00,1.13
4383.00,1.14
4382.00,1.14
4381.00,1.14
4380.00,1.14
4379.00,1.14
4378.00,1.14
4377.00,1.14
4376.00,1.14
4375.00,1.14
4374.00,1.14
4373.00,1.14
4372.00,1.14
4371.00,1.14
4370.00,1.14
4369.00,1.14
4368.00,1.14
4367.00,1.14
4366.00,1.15
4365.00,1.15
4364.00,1.15
4363.00,1.15
4362.00,1.15
4361.00,1.15
4360.00,1.15
4359.00,1.15
4358.00,1.15
4357.00,1.15
4356.00,1.15
4355.00,1.16
4354.00,1.16
4353.00,1.16
4352.00,1.16
4351.00,1.16
4350.00,1.17
4349.00,1.17
4348.00,1.17
4347.00,1.17
4346.00,1.18
4345.00,1.18
4344.00,1.18
4343.00,1.18
4342.00,1.19
4341.00,1.19
4340.00,1.19
4339.00,1.19
4338.00,1.19
4337.00,1.20
4336.00,1.20
4335.00,1.20
4334.00,1.20
4333.00,1.20
4332.00,1.21
4331.00,1.21
4330.00,1.21
4329.00,1.21
4328.00,1.21
4327.00,1.21
4326.00,1.22
4325.00,1.22
4324.00,1.22
4323.00,1.22
4322.00,1.22
4321.00,1.22
4320.00,1.22
4319.00,1.22
4318.00,1.22
4317.00,1.22
4316.00,1.22
4315.00,1.22
4314.00,1.22
4313.00,1.22
4312.00,1.22
4311.00,1.22
4310.00,1.22
4309.00,1.21
4308.00,1.21
4307.00,1.21
4306.00,1.21
4305.00,1.21
4304.00,1.21
4303.00,1.21
4302.00,1.21
4301.00,1.21
4300.00,1.21
4299.00,1.21
4298.00,1.21
4297.00,1.21
4296.00,1.21
4295.00,1.21
4294.00,1.21
4293.00,1.21
4292.00,1.21
4291.00,1.21
4290.00,1.21
4289.00,1.21
4288.00,1.22
4287.00,1.22
4286.00,1.22
4285.00,1.22
4284.00,1.22
4283.00,1.22
4282.00,1.22
4281.00,1.21
4280.00,1.21
4279.00,1.21
4278.00,1.21
4277.00,1.21
4276.00,1.21
4275.00,1.21
4274.00,1.21
4273.00,1.21
4272.00,1.21
4271.00,1.21
4270.00,1.21
4269.00,1.20
4268.00,1.20
4267.00,1.20
4266.00,1.20
4265.00,1.20
4264.00,1.20
4263.00,1.20
4262.00,1.20
4261.00,1.20
4260.00,1.19
4259.00,1.19
4258.00,1.19
4257.00,1.19
4256.00,1.19
4255.00,1.19
4254.00,1.19
4253.00,1.20
4252.00,1.20
4251.00,1.20
4250.00,1.20
4249.00,1.20
4248.00,1.21
4247.00,1.21
4246.00,1.21
4245.00,1.21
4244.00,1.21
4243.00,1.21
4242.00,1.21
4241.00,1.21
4240.00,1.22
4239.00,1.22
4238.00,1.22
4237.00,1.22
4236.00,1.23
4235.00,1.23
4234.00,1.23
4233.00,1.23
4232.00,1.24
4231.00,1.24
4230.00,1.24
4229.00,1.24
4228.00,1.24
4227.00,1.24
4226.00,1.24
4225.00,1.24
4224.00,1.24
4223.00,1.24
4222.00,1.24
4221.00,1.24
4220.00,1.24
4219.00,1.25
4218.00,1.25
4217.00,1.25
4216.00,1.25
4215.00,1.26
4214.00,1.26
4213.00,1.26
4212.00,1.26
4211.00,1.26
4210.00,1.26
4209.00,1.26
4208.00,1.27
4207.00,1.27
4206.00,1.27
4205.00,1.27
4204.00,1.27
4203.00,1.28
4202.00,1.28
4201.00,1.28
4200.00,1.28
4199.00,1.29
4198.00,1.29
4197.00,1.29
4196.00,1.29
4195.00,1.29
4194.00,1.30
4193.00,1.30
4192.00,1.30
4191.00,1.30
4190.00,1.29
4189.00,1.29
4188.00,1.29
4187.00,1.29
4186.00,1.29
4185.00,1.29
4184.00,1.29
4183.00,1.29
4182.00,1.29
4181.00,1.29
4180.00,1.29
4179.00,1.29
4178.00,1.29
4177.00,1.29
4176.00,1.29
4175.00,1.29
4174.00,1.29
4173.00,1.29
4172.00,1.29
4171.00,1.28
4170.00,1.28
4169.00,1.29
4168.00,1.29
4167.00,1.29
4166.00,1.29
4165.00,1.29
4164.00,1.29
4163.00,1.29
4162.00,1.29
4161.00,1.29
4160.00,1.29
4159.00,1.29
4158.00,1.29
4157.00,1.29
4156.00,1.29
4155.00,1.29
4154.00,1.29
4153.00,1.29
4152.00,1.29
4151.00,1.29
4150.00,1.29
4149.00,1.29
4148.00,1.29
4147.00,1.30
4146.00,1.30
4145.00,1.30
4144.00,1.30
4143.00,1.30
4142.00,1.30
4141.00,1.29
4140.00,1.29
4139.00,1.29
4138.00,1.29
4137.00,1.29
4136.00,1.28
4135.00,1.28
4134.00,1.28
4133.00,1.28
4132.00,1.28
4131.00,1.28
4130.00,1.28
4129.00,1.28
4128.00,1.28
4127.00,1.27
4126.00,1.27
4125.00,1.27
4124.00,1.27
4123.00,1.26
4122.00,1.26
4121.00,1.26
4120.00,1.26
4119.00,1.25
4118.00,1.25
4117.00,1.25
4116.00,1.25
4115.00,1.25
4114.00,1.24
4113.00,1.24
4112.00,1.24
4111.00,1.24
4110.00,1.24
4109.00,1.24
4108.00,1.24
4107.00,1.24
4106.00,1.24
4105.00,1.24
4104.00,1.24
4103.00,1.24
4102.00,1.24
4101.00,1.24
4100.00,1.24
4099.00,1.24
4098.00,1.24
4097.00,1.24
4096.00,1.24
4095.00,1.24
4094.00,1.24
4093.00,1.24
4092.00,1.24
4091.00,1.24
4090.00,1.24
4089.00,1.24
4088.00,1.24
4087.00,1.24
4086.00,1.24
4085.00,1.25
4084.00,1.25
4083.00,1.25
4082.00,1.25
4081.00,1.25
4080.00,1.25
4079.00,1.25
4078.00,1.25
4077.00,1.25
4076.00,1.25
4075.00,1.25
4074.00,1.25
4073.00,1.25
4072.00,1.25
4071.00,1.25
4070.00,1.25
4069.00,1.25
4068.00,1.25
4067.00,1.25
4066.00,1.26
4065.00,1.26
4064.00,1.26
4063.00,1.26
4062.00,1.26
4061.00,1.27
4060.00,1.27
4059.00,1.27
4058.00,1.27
4057.00,1.27
4056.00,1.27
4055.00,1.28
4054.00,1.28
4053.00,1.28
4052.00,1.28
4051.00,1.28
4050.00,1.28
4049.00,1.28
4048.00,1.29
4047.00,1.29
4046.00,1.29
4045.00,1.29
4044.00,1.30
4043.00,1.30
4042.00,1.30
4041.00,1.31
4040.00,1.31
4039.00,1.31
4038.00,1.31
4037.00,1.31
4036.00,1.32
4035.00,1.32
4034.00,1.32
4033.00,1.32
4032.00,1.32
4031.00,1.32
4030.00,1.32
4029.00,1.32
4028.00,1.32
4027.00,1.33
4026.00,1.33
4025.00,1.33
4024.00,1.34
4023.00,1.34
4022.00,1.35
4021.00,1.35
4020.00,1.36
4019.00,1.36
4018.00,1.37
4017.00,1.37
4016.00,1.37
4015.00,1.38
4014.00,1.38
4013.00,1.39
4012.00,1.40
4011.00,1.40
4010.00,1.41
4009.00,1.42
4008.00,1.43
4007.00,1.44
4006.00,1.45
4005.00,1.46
4004.00,1.46
4003.00,1.47
4002.00,1.48
4001.00,1.49
4000.00,1.50
