创建为新数据集,样品 935 用户 Administrator 日期 星期一, 七月 29 2019
cm-1,%T
10000.00,1.37
9999.00,1.37
9998.00,1.38
9997.00,1.38
9996.00,1.39
9995.00,1.39
9994.00,1.39
9993.00,1.40
9992.00,1.40
9991.00,1.40
9990.00,1.40
9989.00,1.40
9988.00,1.40
9987.00,1.40
9986.00,1.40
9985.00,1.39
9984.00,1.39
9983.00,1.39
9982.00,1.38
9981.00,1.38
9980.00,1.37
9979.00,1.37
9978.00,1.36
9977.00,1.36
9976.00,1.35
9975.00,1.34
9974.00,1.34
9973.00,1.33
9972.00,1.32
9971.00,1.31
9970.00,1.30
9969.00,1.29
9968.00,1.28
9967.00,1.27
9966.00,1.25
9965.00,1.24
9964.00,1.23
9963.00,1.22
9962.00,1.21
9961.00,1.20
9960.00,1.19
9959.00,1.18
9958.00,1.17
9957.00,1.16
9956.00,1.15
9955.00,1.14
9954.00,1.13
9953.00,1.12
9952.00,1.11
9951.00,1.09
9950.00,1.08
9949.00,1.07
9948.00,1.06
9947.00,1.05
9946.00,1.04
9945.00,1.03
9944.00,1.02
9943.00,1.01
9942.00,1.01
9941.00,1.01
9940.00,1.00
9939.00,1.00
9938.00,1.00
9937.00,1.00
9936.00,1.00
9935.00,1.00
9934.00,1.00
9933.00,1.00
9932.00,1.00
9931.00,1.00
9930.00,1.00
9929.00,1.01
9928.00,1.01
9927.00,1.02
9926.00,1.02
9925.00,1.03
9924.00,1.04
9923.00,1.04
9922.00,1.05
9921.00,1.06
9920.00,1.07
9919.00,1.08
9918.00,1.08
9917.00,1.09
9916.00,1.10
9915.00,1.10
9914.00,1.10
9913.00,1.11
9912.00,1.11
9911.00,1.12
9910.00,1.12
9909.00,1.12
9908.00,1.13
9907.00,1.13
9906.00,1.13
9905.00,1.13
9904.00,1.13
9903.00,1.13
9902.00,1.13
9901.00,1.13
9900.00,1.13
9899.00,1.12
9898.00,1.12
9897.00,1.12
9896.00,1.12
9895.00,1.11
9894.00,1.11
9893.00,1.11
9892.00,1.11
9891.00,1.11
9890.00,1.10
9889.00,1.10
9888.00,1.10
9887.00,1.10
9886.00,1.09
9885.00,1.09
9884.00,1.09
9883.00,1.09
9882.00,1.08
9881.00,1.08
9880.00,1.08
9879.00,1.08
9878.00,1.08
9877.00,1.09
9876.00,1.09
9875.00,1.10
9874.00,1.10
9873.00,1.11
9872.00,1.11
9871.00,1.11
9870.00,1.12
9869.00,1.12
9868.00,1.12
9867.00,1.13
9866.00,1.13
9865.00,1.13
9864.00,1.13
9863.00,1.13
9862.00,1.13
9861.00,1.14
9860.00,1.14
9859.00,1.14
9858.00,1.15
9857.00,1.15
9856.00,1.15
9855.00,1.16
9854.00,1.16
9853.00,1.16
9852.00,1.17
9851.00,1.17
9850.00,1.17
9849.00,1.17
9848.00,1.17
9847.00,1.18
9846.00,1.18
9845.00,1.18
9844.00,1.18
9843.00,1.18
9842.00,1.19
9841.00,1.19
9840.00,1.19
9839.00,1.20
9838.00,1.20
9837.00,1.21
9836.00,1.21
9835.00,1.22
9834.00,1.22
9833.00,1.22
9832.00,1.23
9831.00,1.23
9830.00,1.23
9829.00,1.23
9828.00,1.23
9827.00,1.23
9826.00,1.23
9825.00,1.23
9824.00,1.23
9823.00,1.23
9822.00,1.23
9821.00,1.23
9820.00,1.23
9819.00,1.23
9818.00,1.23
9817.00,1.23
9816.00,1.23
9815.00,1.23
9814.00,1.23
9813.00,1.23
9812.00,1.23
9811.00,1.23
9810.00,1.22
9809.00,1.22
9808.00,1.22
9807.00,1.22
9806.00,1.21
9805.00,1.21
9804.00,1.21
9803.00,1.21
9802.00,1.21
9801.00,1.21
9800.00,1.20
9799.00,1.20
9798.00,1.20
9797.00,1.20
9796.00,1.19
9795.00,1.19
9794.00,1.18
9793.00,1.18
9792.00,1.18
9791.00,1.17
9790.00,1.17
9789.00,1.17
9788.00,1.17
9787.00,1.17
9786.00,1.17
9785.00,1.17
9784.00,1.17
9783.00,1.17
9782.00,1.18
9781.00,1.18
9780.00,1.19
9779.00,1.19
9778.00,1.20
9777.00,1.21
9776.00,1.22
9775.00,1.23
9774.00,1.23
9773.00,1.24
9772.00,1.25
9771.00,1.26
9770.00,1.27
9769.00,1.28
9768.00,1.29
9767.00,1.30
9766.00,1.31
9765.00,1.32
9764.00,1.33
9763.00,1.33
9762.00,1.34
9761.00,1.34
9760.00,1.35
9759.00,1.35
9758.00,1.35
9757.00,1.35
9756.00,1.35
9755.00,1.35
9754.00,1.34
9753.00,1.34
9752.00,1.33
9751.00,1.32
9750.00,1.32
9749.00,1.31
9748.00,1.29
9747.00,1.28
9746.00,1.27
9745.00,1.26
9744.00,1.24
9743.00,1.22
9742.00,1.21
9741.00,1.19
9740.00,1.17
9739.00,1.15
9738.00,1.13
9737.00,1.12
9736.00,1.10
9735.00,1.08
9734.00,1.07
9733.00,1.05
9732.00,1.04
9731.00,1.03
9730.00,1.02
9729.00,1.01
9728.00,1.01
9727.00,1.00
9726.00,1.00
9725.00,0.99
9724.00,0.99
9723.00,0.99
9722.00,0.99
9721.00,0.99
9720.00,0.99
9719.00,1.00
9718.00,1.00
9717.00,1.01
9716.00,1.02
9715.00,1.02
9714.00,1.03
9713.00,1.04
9712.00,1.06
9711.00,1.07
9710.00,1.08
9709.00,1.09
9708.00,1.10
9707.00,1.11
9706.00,1.12
9705.00,1.13
9704.00,1.14
9703.00,1.15
9702.00,1.15
9701.00,1.16
9700.00,1.17
9699.00,1.17
9698.00,1.17
9697.00,1.18
9696.00,1.18
9695.00,1.18
9694.00,1.19
9693.00,1.19
9692.00,1.19
9691.00,1.19
9690.00,1.19
9689.00,1.19
9688.00,1.19
9687.00,1.19
9686.00,1.19
9685.00,1.19
9684.00,1.19
9683.00,1.18
9682.00,1.18
9681.00,1.18
9680.00,1.17
9679.00,1.17
9678.00,1.16
9677.00,1.16
9676.00,1.15
9675.00,1.15
9674.00,1.14
9673.00,1.14
9672.00,1.13
9671.00,1.12
9670.00,1.12
9669.00,1.11
9668.00,1.10
9667.00,1.10
9666.00,1.09
9665.00,1.09
9664.00,1.08
9663.00,1.08
9662.00,1.08
9661.00,1.07
9660.00,1.07
9659.00,1.07
9658.00,1.07
9657.00,1.06
9656.00,1.06
9655.00,1.06
9654.00,1.06
9653.00,1.06
9652.00,1.05
9651.00,1.05
9650.00,1.05
9649.00,1.05
9648.00,1.05
9647.00,1.05
9646.00,1.04
9645.00,1.04
9644.00,1.04
9643.00,1.04
9642.00,1.03
9641.00,1.03
9640.00,1.03
9639.00,1.02
9638.00,1.01
9637.00,1.01
9636.00,1.00
9635.00,0.99
9634.00,0.98
9633.00,0.97
9632.00,0.97
9631.00,0.96
9630.00,0.95
9629.00,0.94
9628.00,0.93
9627.00,0.93
9626.00,0.92
9625.00,0.92
9624.00,0.92
9623.00,0.92
9622.00,0.92
9621.00,0.92
9620.00,0.92
9619.00,0.92
9618.00,0.92
9617.00,0.92
9616.00,0.93
9615.00,0.93
9614.00,0.93
9613.00,0.94
9612.00,0.95
9611.00,0.95
9610.00,0.96
9609.00,0.97
9608.00,0.97
9607.00,0.98
9606.00,0.99
9605.00,1.00
9604.00,1.00
9603.00,1.01
9602.00,1.02
9601.00,1.03
9600.00,1.04
9599.00,1.04
9598.00,1.05
9597.00,1.06
9596.00,1.06
9595.00,1.06
9594.00,1.07
9593.00,1.07
9592.00,1.07
9591.00,1.07
9590.00,1.07
9589.00,1.08
9588.00,1.08
9587.00,1.08
9586.00,1.08
9585.00,1.08
9584.00,1.09
9583.00,1.09
9582.00,1.09
9581.00,1.10
9580.00,1.10
9579.00,1.10
9578.00,1.10
9577.00,1.10
9576.00,1.11
9575.00,1.11
9574.00,1.11
9573.00,1.11
9572.00,1.11
9571.00,1.11
9570.00,1.11
9569.00,1.12
9568.00,1.12
9567.00,1.12
9566.00,1.12
9565.00,1.13
9564.00,1.13
9563.00,1.13
9562.00,1.14
9561.00,1.14
9560.00,1.14
9559.00,1.14
9558.00,1.15
9557.00,1.15
9556.00,1.15
9555.00,1.16
9554.00,1.16
9553.00,1.16
9552.00,1.17
9551.00,1.17
9550.00,1.17
9549.00,1.17
9548.00,1.18
9547.00,1.18
9546.00,1.18
9545.00,1.19
9544.00,1.19
9543.00,1.20
9542.00,1.20
9541.00,1.21
9540.00,1.21
9539.00,1.22
9538.00,1.23
9537.00,1.23
9536.00,1.24
9535.00,1.24
9534.00,1.24
9533.00,1.25
9532.00,1.25
9531.00,1.25
9530.00,1.26
9529.00,1.26
9528.00,1.26
9527.00,1.26
9526.00,1.26
9525.00,1.26
9524.00,1.27
9523.00,1.27
9522.00,1.26
9521.00,1.26
9520.00,1.26
9519.00,1.26
9518.00,1.26
9517.00,1.25
9516.00,1.25
9515.00,1.24
9514.00,1.24
9513.00,1.23
9512.00,1.23
9511.00,1.22
9510.00,1.22
9509.00,1.21
9508.00,1.21
9507.00,1.21
9506.00,1.20
9505.00,1.20
9504.00,1.19
9503.00,1.19
9502.00,1.18
9501.00,1.18
9500.00,1.17
9499.00,1.17
9498.00,1.16
9497.00,1.16
9496.00,1.16
9495.00,1.15
9494.00,1.15
9493.00,1.15
9492.00,1.15
9491.00,1.14
9490.00,1.14
9489.00,1.14
9488.00,1.13
9487.00,1.13
9486.00,1.13
9485.00,1.12
9484.00,1.12
9483.00,1.12
9482.00,1.11
9481.00,1.11
9480.00,1.11
9479.00,1.10
9478.00,1.10
9477.00,1.10
9476.00,1.10
9475.00,1.10
9474.00,1.10
9473.00,1.10
9472.00,1.10
9471.00,1.10
9470.00,1.09
9469.00,1.09
9468.00,1.09
9467.00,1.09
9466.00,1.09
9465.00,1.09
9464.00,1.09
9463.00,1.09
9462.00,1.09
9461.00,1.09
9460.00,1.10
9459.00,1.10
9458.00,1.10
9457.00,1.11
9456.00,1.11
9455.00,1.12
9454.00,1.12
9453.00,1.13
9452.00,1.13
9451.00,1.14
9450.00,1.14
9449.00,1.15
9448.00,1.15
9447.00,1.16
9446.00,1.16
9445.00,1.17
9444.00,1.17
9443.00,1.18
9442.00,1.18
9441.00,1.19
9440.00,1.20
9439.00,1.20
9438.00,1.21
9437.00,1.21
9436.00,1.22
9435.00,1.22
9434.00,1.23
9433.00,1.23
9432.00,1.24
9431.00,1.24
9430.00,1.24
9429.00,1.24
9428.00,1.24
9427.00,1.24
9426.00,1.24
9425.00,1.24
9424.00,1.24
9423.00,1.24
9422.00,1.24
9421.00,1.24
9420.00,1.24
9419.00,1.23
9418.00,1.23
9417.00,1.23
9416.00,1.22
9415.00,1.22
9414.00,1.22
9413.00,1.21
9412.00,1.21
9411.00,1.20
9410.00,1.20
9409.00,1.19
9408.00,1.18
9407.00,1.18
9406.00,1.17
9405.00,1.17
9404.00,1.16
9403.00,1.16
9402.00,1.15
9401.00,1.15
9400.00,1.14
9399.00,1.13
9398.00,1.13
9397.00,1.12
9396.00,1.11
9395.00,1.10
9394.00,1.10
9393.00,1.09
9392.00,1.08
9391.00,1.07
9390.00,1.06
9389.00,1.05
9388.00,1.04
9387.00,1.03
9386.00,1.02
9385.00,1.01
9384.00,1.01
9383.00,1.00
9382.00,0.99
9381.00,0.98
9380.00,0.97
9379.00,0.96
9378.00,0.96
9377.00,0.95
9376.00,0.94
9375.00,0.94
9374.00,0.93
9373.00,0.93
9372.00,0.92
9371.00,0.92
9370.00,0.91
9369.00,0.91
9368.00,0.91
9367.00,0.91
9366.00,0.91
9365.00,0.91
9364.00,0.91
9363.00,0.91
9362.00,0.91
9361.00,0.91
9360.00,0.92
9359.00,0.92
9358.00,0.93
9357.00,0.94
9356.00,0.94
9355.00,0.95
9354.00,0.96
9353.00,0.97
9352.00,0.98
9351.00,0.99
9350.00,1.00
9349.00,1.01
9348.00,1.02
9347.00,1.03
9346.00,1.04
9345.00,1.05
9344.00,1.06
9343.00,1.08
9342.00,1.09
9341.00,1.10
9340.00,1.11
9339.00,1.12
9338.00,1.13
9337.00,1.14
9336.00,1.16
9335.00,1.17
9334.00,1.18
9333.00,1.19
9332.00,1.21
9331.00,1.22
9330.00,1.23
9329.00,1.24
9328.00,1.24
9327.00,1.25
9326.00,1.26
9325.00,1.27
9324.00,1.27
9323.00,1.28
9322.00,1.28
9321.00,1.28
9320.00,1.29
9319.00,1.29
9318.00,1.29
9317.00,1.30
9316.00,1.30
9315.00,1.31
9314.00,1.31
9313.00,1.31
9312.00,1.32
9311.00,1.32
9310.00,1.32
9309.00,1.32
9308.00,1.33
9307.00,1.33
9306.00,1.32
9305.00,1.32
9304.00,1.32
9303.00,1.32
9302.00,1.32
9301.00,1.31
9300.00,1.31
9299.00,1.31
9298.00,1.31
9297.00,1.31
9296.00,1.31
9295.00,1.31
9294.00,1.30
9293.00,1.30
9292.00,1.30
9291.00,1.29
9290.00,1.29
9289.00,1.28
9288.00,1.28
9287.00,1.27
9286.00,1.26
9285.00,1.25
9284.00,1.24
9283.00,1.23
9282.00,1.22
9281.00,1.21
9280.00,1.20
9279.00,1.19
9278.00,1.18
9277.00,1.17
9276.00,1.16
9275.00,1.16
9274.00,1.15
9273.00,1.14
9272.00,1.13
9271.00,1.12
9270.00,1.11
9269.00,1.10
9268.00,1.09
9267.00,1.09
9266.00,1.08
9265.00,1.07
9264.00,1.07
9263.00,1.06
9262.00,1.06
9261.00,1.06
9260.00,1.05
9259.00,1.05
9258.00,1.05
9257.00,1.06
9256.00,1.06
9255.00,1.06
9254.00,1.06
9253.00,1.06
9252.00,1.07
9251.00,1.07
9250.00,1.07
9249.00,1.08
9248.00,1.08
9247.00,1.09
9246.00,1.09
9245.00,1.10
9244.00,1.11
9243.00,1.11
9242.00,1.12
9241.00,1.13
9240.00,1.14
9239.00,1.15
9238.00,1.15
9237.00,1.16
9236.00,1.17
9235.00,1.17
9234.00,1.18
9233.00,1.18
9232.00,1.19
9231.00,1.19
9230.00,1.20
9229.00,1.20
9228.00,1.20
9227.00,1.21
9226.00,1.21
9225.00,1.22
9224.00,1.22
9223.00,1.22
9222.00,1.22
9221.00,1.23
9220.00,1.23
9219.00,1.23
9218.00,1.22
9217.00,1.22
9216.00,1.22
9215.00,1.22
9214.00,1.21
9213.00,1.21
9212.00,1.20
9211.00,1.20
9210.00,1.20
9209.00,1.19
9208.00,1.19
9207.00,1.19
9206.00,1.18
9205.00,1.18
9204.00,1.18
9203.00,1.17
9202.00,1.17
9201.00,1.16
9200.00,1.16
9199.00,1.15
9198.00,1.15
9197.00,1.14
9196.00,1.14
9195.00,1.14
9194.00,1.14
9193.00,1.13
9192.00,1.13
9191.00,1.13
9190.00,1.14
9189.00,1.14
9188.00,1.14
9187.00,1.14
9186.00,1.15
9185.00,1.15
9184.00,1.15
9183.00,1.15
9182.00,1.16
9181.00,1.16
9180.00,1.16
9179.00,1.17
9178.00,1.17
9177.00,1.18
9176.00,1.18
9175.00,1.19
9174.00,1.20
9173.00,1.20
9172.00,1.21
9171.00,1.22
9170.00,1.23
9169.00,1.23
9168.00,1.24
9167.00,1.24
9166.00,1.25
9165.00,1.25
9164.00,1.26
9163.00,1.26
9162.00,1.26
9161.00,1.26
9160.00,1.27
9159.00,1.27
9158.00,1.27
9157.00,1.27
9156.00,1.27
9155.00,1.28
9154.00,1.28
9153.00,1.28
9152.00,1.28
9151.00,1.28
9150.00,1.27
9149.00,1.27
9148.00,1.27
9147.00,1.26
9146.00,1.26
9145.00,1.25
9144.00,1.24
9143.00,1.24
9142.00,1.23
9141.00,1.22
9140.00,1.22
9139.00,1.21
9138.00,1.20
9137.00,1.20
9136.00,1.19
9135.00,1.18
9134.00,1.18
9133.00,1.17
9132.00,1.17
9131.00,1.16
9130.00,1.16
9129.00,1.15
9128.00,1.15
9127.00,1.14
9126.00,1.14
9125.00,1.13
9124.00,1.13
9123.00,1.13
9122.00,1.13
9121.00,1.12
9120.00,1.12
9119.00,1.12
9118.00,1.12
9117.00,1.13
9116.00,1.13
9115.00,1.13
9114.00,1.13
9113.00,1.13
9112.00,1.14
9111.00,1.14
9110.00,1.14
9109.00,1.15
9108.00,1.15
9107.00,1.15
9106.00,1.16
9105.00,1.16
9104.00,1.16
9103.00,1.16
9102.00,1.17
9101.00,1.17
9100.00,1.17
9099.00,1.17
9098.00,1.17
9097.00,1.17
9096.00,1.17
9095.00,1.17
9094.00,1.17
9093.00,1.17
9092.00,1.16
9091.00,1.16
9090.00,1.16
9089.00,1.15
9088.00,1.14
9087.00,1.14
9086.00,1.13
9085.00,1.12
9084.00,1.11
9083.00,1.10
9082.00,1.09
9081.00,1.08
9080.00,1.07
9079.00,1.06
9078.00,1.05
9077.00,1.04
9076.00,1.03
9075.00,1.02
9074.00,1.01
9073.00,1.00
9072.00,1.00
9071.00,0.99
9070.00,0.98
9069.00,0.98
9068.00,0.98
9067.00,0.97
9066.00,0.97
9065.00,0.97
9064.00,0.97
9063.00,0.97
9062.00,0.98
9061.00,0.98
9060.00,0.98
9059.00,0.99
9058.00,1.00
9057.00,1.01
9056.00,1.02
9055.00,1.03
9054.00,1.04
9053.00,1.05
9052.00,1.06
9051.00,1.07
9050.00,1.09
9049.00,1.10
9048.00,1.11
9047.00,1.13
9046.00,1.14
9045.00,1.15
9044.00,1.16
9043.00,1.17
9042.00,1.19
9041.00,1.19
9040.00,1.20
9039.00,1.21
9038.00,1.22
9037.00,1.22
9036.00,1.23
9035.00,1.23
9034.00,1.23
9033.00,1.24
9032.00,1.24
9031.00,1.24
9030.00,1.24
9029.00,1.24
9028.00,1.23
9027.00,1.23
9026.00,1.23
9025.00,1.22
9024.00,1.22
9023.00,1.21
9022.00,1.21
9021.00,1.20
9020.00,1.20
9019.00,1.19
9018.00,1.19
9017.00,1.18
9016.00,1.17
9015.00,1.17
9014.00,1.17
9013.00,1.16
9012.00,1.16
9011.00,1.15
9010.00,1.15
9009.00,1.15
9008.00,1.15
9007.00,1.14
9006.00,1.14
9005.00,1.14
9004.00,1.14
9003.00,1.14
9002.00,1.14
9001.00,1.14
9000.00,1.14
8999.00,1.15
8998.00,1.15
8997.00,1.15
8996.00,1.15
8995.00,1.15
8994.00,1.16
8993.00,1.16
8992.00,1.16
8991.00,1.16
8990.00,1.17
8989.00,1.17
8988.00,1.17
8987.00,1.18
8986.00,1.18
8985.00,1.18
8984.00,1.18
8983.00,1.19
8982.00,1.19
8981.00,1.19
8980.00,1.19
8979.00,1.19
8978.00,1.19
8977.00,1.20
8976.00,1.19
8975.00,1.19
8974.00,1.19
8973.00,1.19
8972.00,1.19
8971.00,1.19
8970.00,1.19
8969.00,1.19
8968.00,1.19
8967.00,1.19
8966.00,1.19
8965.00,1.19
8964.00,1.18
8963.00,1.18
8962.00,1.18
8961.00,1.17
8960.00,1.17
8959.00,1.16
8958.00,1.16
8957.00,1.16
8956.00,1.15
8955.00,1.15
8954.00,1.15
8953.00,1.14
8952.00,1.14
8951.00,1.13
8950.00,1.13
8949.00,1.12
8948.00,1.12
8947.00,1.12
8946.00,1.11
8945.00,1.11
8944.00,1.10
8943.00,1.10
8942.00,1.09
8941.00,1.09
8940.00,1.08
8939.00,1.08
8938.00,1.07
8937.00,1.07
8936.00,1.07
8935.00,1.07
8934.00,1.07
8933.00,1.07
8932.00,1.07
8931.00,1.07
8930.00,1.07
8929.00,1.07
8928.00,1.07
8927.00,1.07
8926.00,1.07
8925.00,1.07
8924.00,1.07
8923.00,1.08
8922.00,1.08
8921.00,1.08
8920.00,1.09
8919.00,1.09
8918.00,1.10
8917.00,1.10
8916.00,1.11
8915.00,1.11
8914.00,1.12
8913.00,1.13
8912.00,1.13
8911.00,1.14
8910.00,1.14
8909.00,1.14
8908.00,1.15
8907.00,1.15
8906.00,1.15
8905.00,1.15
8904.00,1.16
8903.00,1.16
8902.00,1.16
8901.00,1.16
8900.00,1.16
8899.00,1.16
8898.00,1.16
8897.00,1.16
8896.00,1.15
8895.00,1.15
8894.00,1.15
8893.00,1.15
8892.00,1.15
8891.00,1.15
8890.00,1.15
8889.00,1.15
8888.00,1.14
8887.00,1.14
8886.00,1.14
8885.00,1.13
8884.00,1.13
8883.00,1.12
8882.00,1.12
8881.00,1.11
8880.00,1.11
8879.00,1.11
8878.00,1.10
8877.00,1.10
8876.00,1.10
8875.00,1.10
8874.00,1.10
8873.00,1.10
8872.00,1.09
8871.00,1.09
8870.00,1.09
8869.00,1.09
8868.00,1.08
8867.00,1.08
8866.00,1.08
8865.00,1.08
8864.00,1.07
8863.00,1.07
8862.00,1.07
8861.00,1.07
8860.00,1.07
8859.00,1.07
8858.00,1.07
8857.00,1.07
8856.00,1.08
8855.00,1.08
8854.00,1.08
8853.00,1.08
8852.00,1.09
8851.00,1.09
8850.00,1.09
8849.00,1.10
8848.00,1.10
8847.00,1.10
8846.00,1.11
8845.00,1.11
8844.00,1.11
8843.00,1.12
8842.00,1.12
8841.00,1.12
8840.00,1.13
8839.00,1.13
8838.00,1.14
8837.00,1.15
8836.00,1.15
8835.00,1.16
8834.00,1.16
8833.00,1.17
8832.00,1.17
8831.00,1.18
8830.00,1.18
8829.00,1.18
8828.00,1.19
8827.00,1.19
8826.00,1.19
8825.00,1.19
8824.00,1.20
8823.00,1.20
8822.00,1.20
8821.00,1.20
8820.00,1.20
8819.00,1.20
8818.00,1.20
8817.00,1.20
8816.00,1.20
8815.00,1.20
8814.00,1.20
8813.00,1.20
8812.00,1.19
8811.00,1.19
8810.00,1.19
8809.00,1.18
8808.00,1.18
8807.00,1.18
8806.00,1.17
8805.00,1.17
8804.00,1.17
8803.00,1.16
8802.00,1.16
8801.00,1.16
8800.00,1.16
8799.00,1.15
8798.00,1.15
8797.00,1.15
8796.00,1.14
8795.00,1.14
8794.00,1.14
8793.00,1.14
8792.00,1.14
8791.00,1.14
8790.00,1.14
8789.00,1.13
8788.00,1.13
8787.00,1.13
8786.00,1.13
8785.00,1.13
8784.00,1.13
8783.00,1.14
8782.00,1.14
8781.00,1.14
8780.00,1.14
8779.00,1.14
8778.00,1.14
8777.00,1.14
8776.00,1.14
8775.00,1.14
8774.00,1.14
8773.00,1.14
8772.00,1.14
8771.00,1.14
8770.00,1.14
8769.00,1.14
8768.00,1.14
8767.00,1.14
8766.00,1.14
8765.00,1.14
8764.00,1.14
8763.00,1.13
8762.00,1.13
8761.00,1.13
8760.00,1.13
8759.00,1.13
8758.00,1.13
8757.00,1.13
8756.00,1.13
8755.00,1.12
8754.00,1.12
8753.00,1.12
8752.00,1.12
8751.00,1.12
8750.00,1.11
8749.00,1.11
8748.00,1.11
8747.00,1.11
8746.00,1.11
8745.00,1.11
8744.00,1.11
8743.00,1.11
8742.00,1.11
8741.00,1.11
8740.00,1.11
8739.00,1.11
8738.00,1.12
8737.00,1.12
8736.00,1.12
8735.00,1.13
8734.00,1.13
8733.00,1.13
8732.00,1.14
8731.00,1.14
8730.00,1.14
8729.00,1.14
8728.00,1.15
8727.00,1.15
8726.00,1.15
8725.00,1.16
8724.00,1.16
8723.00,1.16
8722.00,1.16
8721.00,1.17
8720.00,1.17
8719.00,1.17
8718.00,1.18
8717.00,1.18
8716.00,1.18
8715.00,1.18
8714.00,1.18
8713.00,1.18
8712.00,1.18
8711.00,1.18
8710.00,1.18
8709.00,1.18
8708.00,1.18
8707.00,1.17
8706.00,1.17
8705.00,1.17
8704.00,1.17
8703.00,1.17
8702.00,1.17
8701.00,1.16
8700.00,1.16
8699.00,1.16
8698.00,1.16
8697.00,1.16
8696.00,1.16
8695.00,1.16
8694.00,1.16
8693.00,1.17
8692.00,1.17
8691.00,1.17
8690.00,1.17
8689.00,1.17
8688.00,1.18
8687.00,1.18
8686.00,1.18
8685.00,1.19
8684.00,1.19
8683.00,1.19
8682.00,1.20
8681.00,1.20
8680.00,1.21
8679.00,1.21
8678.00,1.22
8677.00,1.22
8676.00,1.22
8675.00,1.23
8674.00,1.23
8673.00,1.23
8672.00,1.23
8671.00,1.24
8670.00,1.24
8669.00,1.24
8668.00,1.24
8667.00,1.23
8666.00,1.23
8665.00,1.23
8664.00,1.23
8663.00,1.22
8662.00,1.22
8661.00,1.21
8660.00,1.21
8659.00,1.21
8658.00,1.20
8657.00,1.20
8656.00,1.19
8655.00,1.19
8654.00,1.18
8653.00,1.18
8652.00,1.18
8651.00,1.17
8650.00,1.17
8649.00,1.17
8648.00,1.16
8647.00,1.16
8646.00,1.16
8645.00,1.15
8644.00,1.15
8643.00,1.15
8642.00,1.15
8641.00,1.15
8640.00,1.15
8639.00,1.15
8638.00,1.15
8637.00,1.15
8636.00,1.14
8635.00,1.14
8634.00,1.14
8633.00,1.14
8632.00,1.14
8631.00,1.14
8630.00,1.15
8629.00,1.15
8628.00,1.15
8627.00,1.15
8626.00,1.15
8625.00,1.15
8624.00,1.15
8623.00,1.15
8622.00,1.15
8621.00,1.16
8620.00,1.16
8619.00,1.16
8618.00,1.16
8617.00,1.16
8616.00,1.16
8615.00,1.16
8614.00,1.16
8613.00,1.16
8612.00,1.16
8611.00,1.16
8610.00,1.16
8609.00,1.16
8608.00,1.16
8607.00,1.16
8606.00,1.16
8605.00,1.16
8604.00,1.16
8603.00,1.15
8602.00,1.15
8601.00,1.15
8600.00,1.15
8599.00,1.15
8598.00,1.14
8597.00,1.14
8596.00,1.14
8595.00,1.13
8594.00,1.13
8593.00,1.13
8592.00,1.12
8591.00,1.12
8590.00,1.12
8589.00,1.12
8588.00,1.11
8587.00,1.11
8586.00,1.11
8585.00,1.11
8584.00,1.11
8583.00,1.12
8582.00,1.12
8581.00,1.12
8580.00,1.12
8579.00,1.13
8578.00,1.13
8577.00,1.13
8576.00,1.14
8575.00,1.14
8574.00,1.14
8573.00,1.14
8572.00,1.15
8571.00,1.15
8570.00,1.15
8569.00,1.16
8568.00,1.16
8567.00,1.17
8566.00,1.17
8565.00,1.17
8564.00,1.18
8563.00,1.18
8562.00,1.18
8561.00,1.19
8560.00,1.19
8559.00,1.19
8558.00,1.19
8557.00,1.19
8556.00,1.19
8555.00,1.19
8554.00,1.19
8553.00,1.19
8552.00,1.18
8551.00,1.18
8550.00,1.19
8549.00,1.19
8548.00,1.19
8547.00,1.19
8546.00,1.19
8545.00,1.19
8544.00,1.19
8543.00,1.20
8542.00,1.20
8541.00,1.20
8540.00,1.20
8539.00,1.20
8538.00,1.20
8537.00,1.20
8536.00,1.21
8535.00,1.21
8534.00,1.21
8533.00,1.21
8532.00,1.22
8531.00,1.22
8530.00,1.22
8529.00,1.22
8528.00,1.23
8527.00,1.23
8526.00,1.23
8525.00,1.23
8524.00,1.23
8523.00,1.23
8522.00,1.22
8521.00,1.22
8520.00,1.22
8519.00,1.22
8518.00,1.21
8517.00,1.21
8516.00,1.21
8515.00,1.20
8514.00,1.20
8513.00,1.20
8512.00,1.19
8511.00,1.19
8510.00,1.18
8509.00,1.18
8508.00,1.18
8507.00,1.18
8506.00,1.18
8505.00,1.17
8504.00,1.17
8503.00,1.17
8502.00,1.17
8501.00,1.18
8500.00,1.18
8499.00,1.18
8498.00,1.18
8497.00,1.18
8496.00,1.19
8495.00,1.19
8494.00,1.19
8493.00,1.20
8492.00,1.20
8491.00,1.20
8490.00,1.21
8489.00,1.21
8488.00,1.22
8487.00,1.23
8486.00,1.23
8485.00,1.23
8484.00,1.24
8483.00,1.24
8482.00,1.25
8481.00,1.25
8480.00,1.25
8479.00,1.25
8478.00,1.26
8477.00,1.26
8476.00,1.26
8475.00,1.26
8474.00,1.26
8473.00,1.25
8472.00,1.25
8471.00,1.25
8470.00,1.25
8469.00,1.25
8468.00,1.25
8467.00,1.25
8466.00,1.25
8465.00,1.25
8464.00,1.25
8463.00,1.25
8462.00,1.24
8461.00,1.24
8460.00,1.24
8459.00,1.24
8458.00,1.23
8457.00,1.23
8456.00,1.23
8455.00,1.22
8454.00,1.22
8453.00,1.22
8452.00,1.21
8451.00,1.21
8450.00,1.21
8449.00,1.20
8448.00,1.20
8447.00,1.20
8446.00,1.20
8445.00,1.20
8444.00,1.20
8443.00,1.19
8442.00,1.19
8441.00,1.19
8440.00,1.19
8439.00,1.19
8438.00,1.19
8437.00,1.18
8436.00,1.18
8435.00,1.18
8434.00,1.18
8433.00,1.18
8432.00,1.18
8431.00,1.18
8430.00,1.18
8429.00,1.18
8428.00,1.18
8427.00,1.18
8426.00,1.18
8425.00,1.18
8424.00,1.18
8423.00,1.18
8422.00,1.18
8421.00,1.18
8420.00,1.18
8419.00,1.18
8418.00,1.18
8417.00,1.18
8416.00,1.18
8415.00,1.18
8414.00,1.18
8413.00,1.18
8412.00,1.18
8411.00,1.18
8410.00,1.17
8409.00,1.17
8408.00,1.17
8407.00,1.16
8406.00,1.16
8405.00,1.16
8404.00,1.15
8403.00,1.15
8402.00,1.15
8401.00,1.15
8400.00,1.14
8399.00,1.14
8398.00,1.14
8397.00,1.14
8396.00,1.13
8395.00,1.13
8394.00,1.13
8393.00,1.12
8392.00,1.12
8391.00,1.11
8390.00,1.11
8389.00,1.10
8388.00,1.10
8387.00,1.10
8386.00,1.09
8385.00,1.09
8384.00,1.09
8383.00,1.08
8382.00,1.08
8381.00,1.08
8380.00,1.08
8379.00,1.08
8378.00,1.08
8377.00,1.08
8376.00,1.07
8375.00,1.07
8374.00,1.07
8373.00,1.07
8372.00,1.06
8371.00,1.06
8370.00,1.06
8369.00,1.06
8368.00,1.06
8367.00,1.06
8366.00,1.06
8365.00,1.07
8364.00,1.07
8363.00,1.07
8362.00,1.07
8361.00,1.07
8360.00,1.08
8359.00,1.08
8358.00,1.08
8357.00,1.09
8356.00,1.09
8355.00,1.09
8354.00,1.10
8353.00,1.10
8352.00,1.11
8351.00,1.11
8350.00,1.12
8349.00,1.12
8348.00,1.13
8347.00,1.14
8346.00,1.14
8345.00,1.15
8344.00,1.16
8343.00,1.16
8342.00,1.17
8341.00,1.18
8340.00,1.18
8339.00,1.19
8338.00,1.19
8337.00,1.20
8336.00,1.20
8335.00,1.21
8334.00,1.21
8333.00,1.22
8332.00,1.22
8331.00,1.22
8330.00,1.23
8329.00,1.23
8328.00,1.23
8327.00,1.23
8326.00,1.23
8325.00,1.24
8324.00,1.24
8323.00,1.24
8322.00,1.24
8321.00,1.24
8320.00,1.24
8319.00,1.24
8318.00,1.23
8317.00,1.23
8316.00,1.23
8315.00,1.23
8314.00,1.22
8313.00,1.22
8312.00,1.22
8311.00,1.21
8310.00,1.21
8309.00,1.21
8308.00,1.21
8307.00,1.20
8306.00,1.20
8305.00,1.20
8304.00,1.20
8303.00,1.19
8302.00,1.19
8301.00,1.19
8300.00,1.19
8299.00,1.19
8298.00,1.18
8297.00,1.18
8296.00,1.18
8295.00,1.18
8294.00,1.18
8293.00,1.18
8292.00,1.17
8291.00,1.17
8290.00,1.17
8289.00,1.17
8288.00,1.17
8287.00,1.17
8286.00,1.17
8285.00,1.17
8284.00,1.17
8283.00,1.18
8282.00,1.18
8281.00,1.18
8280.00,1.18
8279.00,1.18
8278.00,1.18
8277.00,1.18
8276.00,1.18
8275.00,1.17
8274.00,1.17
8273.00,1.17
8272.00,1.17
8271.00,1.17
8270.00,1.17
8269.00,1.18
8268.00,1.18
8267.00,1.18
8266.00,1.18
8265.00,1.18
8264.00,1.18
8263.00,1.18
8262.00,1.18
8261.00,1.19
8260.00,1.19
8259.00,1.19
8258.00,1.19
8257.00,1.19
8256.00,1.19
8255.00,1.19
8254.00,1.19
8253.00,1.19
8252.00,1.20
8251.00,1.20
8250.00,1.20
8249.00,1.20
8248.00,1.20
8247.00,1.21
8246.00,1.21
8245.00,1.21
8244.00,1.21
8243.00,1.21
8242.00,1.22
8241.00,1.22
8240.00,1.22
8239.00,1.22
8238.00,1.22
8237.00,1.23
8236.00,1.23
8235.00,1.23
8234.00,1.23
8233.00,1.23
8232.00,1.23
8231.00,1.23
8230.00,1.23
8229.00,1.23
8228.00,1.23
8227.00,1.23
8226.00,1.23
8225.00,1.23
8224.00,1.23
8223.00,1.23
8222.00,1.23
8221.00,1.23
8220.00,1.23
8219.00,1.23
8218.00,1.23
8217.00,1.22
8216.00,1.22
8215.00,1.22
8214.00,1.22
8213.00,1.22
8212.00,1.22
8211.00,1.22
8210.00,1.22
8209.00,1.21
8208.00,1.21
8207.00,1.21
8206.00,1.21
8205.00,1.21
8204.00,1.21
8203.00,1.21
8202.00,1.21
8201.00,1.21
8200.00,1.21
8199.00,1.21
8198.00,1.21
8197.00,1.21
8196.00,1.20
8195.00,1.20
8194.00,1.20
8193.00,1.20
8192.00,1.20
8191.00,1.20
8190.00,1.20
8189.00,1.19
8188.00,1.19
8187.00,1.19
8186.00,1.19
8185.00,1.19
8184.00,1.19
8183.00,1.19
8182.00,1.19
8181.00,1.19
8180.00,1.18
8179.00,1.18
8178.00,1.18
8177.00,1.18
8176.00,1.18
8175.00,1.18
8174.00,1.18
8173.00,1.18
8172.00,1.18
8171.00,1.18
8170.00,1.18
8169.00,1.18
8168.00,1.18
8167.00,1.19
8166.00,1.19
8165.00,1.19
8164.00,1.19
8163.00,1.19
8162.00,1.19
8161.00,1.19
8160.00,1.20
8159.00,1.20
8158.00,1.20
8157.00,1.20
8156.00,1.21
8155.00,1.21
8154.00,1.21
8153.00,1.21
8152.00,1.22
8151.00,1.22
8150.00,1.22
8149.00,1.23
8148.00,1.23
8147.00,1.23
8146.00,1.24
8145.00,1.24
8144.00,1.24
8143.00,1.24
8142.00,1.25
8141.00,1.25
8140.00,1.25
8139.00,1.25
8138.00,1.25
8137.00,1.25
8136.00,1.26
8135.00,1.26
8134.00,1.25
8133.00,1.25
8132.00,1.25
8131.00,1.25
8130.00,1.25
8129.00,1.25
8128.00,1.25
8127.00,1.24
8126.00,1.24
8125.00,1.23
8124.00,1.23
8123.00,1.23
8122.00,1.22
8121.00,1.22
8120.00,1.21
8119.00,1.21
8118.00,1.20
8117.00,1.20
8116.00,1.19
8115.00,1.19
8114.00,1.18
8113.00,1.18
8112.00,1.18
8111.00,1.17
8110.00,1.17
8109.00,1.17
8108.00,1.17
8107.00,1.16
8106.00,1.16
8105.00,1.16
8104.00,1.16
8103.00,1.16
8102.00,1.16
8101.00,1.16
8100.00,1.17
8099.00,1.17
8098.00,1.17
8097.00,1.17
8096.00,1.18
8095.00,1.18
8094.00,1.18
8093.00,1.19
8092.00,1.19
8091.00,1.19
8090.00,1.20
8089.00,1.20
8088.00,1.20
8087.00,1.21
8086.00,1.21
8085.00,1.21
8084.00,1.21
8083.00,1.22
8082.00,1.22
8081.00,1.22
8080.00,1.22
8079.00,1.22
8078.00,1.22
8077.00,1.23
8076.00,1.23
8075.00,1.23
8074.00,1.23
8073.00,1.23
8072.00,1.23
8071.00,1.23
8070.00,1.23
8069.00,1.23
8068.00,1.23
8067.00,1.23
8066.00,1.23
8065.00,1.23
8064.00,1.23
8063.00,1.22
8062.00,1.22
8061.00,1.22
8060.00,1.22
8059.00,1.22
8058.00,1.22
8057.00,1.22
8056.00,1.22
8055.00,1.22
8054.00,1.22
8053.00,1.22
8052.00,1.22
8051.00,1.22
8050.00,1.22
8049.00,1.22
8048.00,1.22
8047.00,1.21
8046.00,1.21
8045.00,1.21
8044.00,1.21
8043.00,1.21
8042.00,1.21
8041.00,1.21
8040.00,1.21
8039.00,1.21
8038.00,1.21
8037.00,1.21
8036.00,1.21
8035.00,1.21
8034.00,1.21
8033.00,1.21
8032.00,1.21
8031.00,1.21
8030.00,1.21
8029.00,1.21
8028.00,1.21
8027.00,1.21
8026.00,1.21
8025.00,1.21
8024.00,1.21
8023.00,1.21
8022.00,1.21
8021.00,1.21
8020.00,1.21
8019.00,1.21
8018.00,1.21
8017.00,1.21
8016.00,1.21
8015.00,1.21
8014.00,1.21
8013.00,1.21
8012.00,1.21
8011.00,1.21
8010.00,1.21
8009.00,1.21
8008.00,1.22
8007.00,1.22
8006.00,1.22
8005.00,1.22
8004.00,1.22
8003.00,1.22
8002.00,1.22
8001.00,1.22
8000.00,1.22
7999.00,1.22
7998.00,1.22
7997.00,1.22
7996.00,1.22
7995.00,1.22
7994.00,1.23
7993.00,1.23
7992.00,1.23
7991.00,1.23
7990.00,1.23
7989.00,1.23
7988.00,1.24
7987.00,1.24
7986.00,1.24
7985.00,1.24
7984.00,1.24
7983.00,1.24
7982.00,1.24
7981.00,1.24
7980.00,1.24
7979.00,1.24
7978.00,1.24
7977.00,1.24
7976.00,1.24
7975.00,1.24
7974.00,1.24
7973.00,1.24
7972.00,1.24
7971.00,1.24
7970.00,1.24
7969.00,1.24
7968.00,1.24
7967.00,1.24
7966.00,1.24
7965.00,1.24
7964.00,1.23
7963.00,1.23
7962.00,1.23
7961.00,1.23
7960.00,1.23
7959.00,1.22
7958.00,1.22
7957.00,1.22
7956.00,1.21
7955.00,1.21
7954.00,1.21
7953.00,1.21
7952.00,1.20
7951.00,1.20
7950.00,1.20
7949.00,1.20
7948.00,1.20
7947.00,1.20
7946.00,1.20
7945.00,1.20
7944.00,1.20
7943.00,1.20
7942.00,1.19
7941.00,1.20
7940.00,1.20
7939.00,1.20
7938.00,1.20
7937.00,1.20
7936.00,1.20
7935.00,1.20
7934.00,1.21
7933.00,1.21
7932.00,1.21
7931.00,1.22
7930.00,1.22
7929.00,1.23
7928.00,1.23
7927.00,1.23
7926.00,1.24
7925.00,1.24
7924.00,1.24
7923.00,1.24
7922.00,1.25
7921.00,1.25
7920.00,1.25
7919.00,1.25
7918.00,1.25
7917.00,1.25
7916.00,1.25
7915.00,1.25
7914.00,1.25
7913.00,1.25
7912.00,1.25
7911.00,1.25
7910.00,1.24
7909.00,1.24
7908.00,1.24
7907.00,1.24
7906.00,1.24
7905.00,1.24
7904.00,1.23
7903.00,1.23
7902.00,1.23
7901.00,1.23
7900.00,1.23
7899.00,1.23
7898.00,1.22
7897.00,1.22
7896.00,1.22
7895.00,1.22
7894.00,1.22
7893.00,1.22
7892.00,1.22
7891.00,1.23
7890.00,1.23
7889.00,1.23
7888.00,1.23
7887.00,1.23
7886.00,1.23
7885.00,1.23
7884.00,1.23
7883.00,1.23
7882.00,1.23
7881.00,1.23
7880.00,1.24
7879.00,1.24
7878.00,1.24
7877.00,1.24
7876.00,1.24
7875.00,1.24
7874.00,1.24
7873.00,1.24
7872.00,1.24
7871.00,1.24
7870.00,1.24
7869.00,1.24
7868.00,1.24
7867.00,1.24
7866.00,1.24
7865.00,1.24
7864.00,1.24
7863.00,1.23
7862.00,1.23
7861.00,1.23
7860.00,1.23
7859.00,1.23
7858.00,1.23
7857.00,1.23
7856.00,1.22
7855.00,1.22
7854.00,1.22
7853.00,1.22
7852.00,1.22
7851.00,1.21
7850.00,1.21
7849.00,1.21
7848.00,1.20
7847.00,1.20
7846.00,1.20
7845.00,1.20
7844.00,1.20
7843.00,1.20
7842.00,1.20
7841.00,1.20
7840.00,1.20
7839.00,1.20
7838.00,1.20
7837.00,1.20
7836.00,1.20
7835.00,1.21
7834.00,1.21
7833.00,1.21
7832.00,1.21
7831.00,1.22
7830.00,1.22
7829.00,1.23
7828.00,1.23
7827.00,1.23
7826.00,1.24
7825.00,1.24
7824.00,1.25
7823.00,1.25
7822.00,1.26
7821.00,1.26
7820.00,1.26
7819.00,1.27
7818.00,1.27
7817.00,1.27
7816.00,1.28
7815.00,1.28
7814.00,1.28
7813.00,1.28
7812.00,1.28
7811.00,1.28
7810.00,1.28
7809.00,1.28
7808.00,1.28
7807.00,1.28
7806.00,1.28
7805.00,1.28
7804.00,1.28
7803.00,1.28
7802.00,1.28
7801.00,1.28
7800.00,1.28
7799.00,1.28
7798.00,1.28
7797.00,1.28
7796.00,1.28
7795.00,1.28
7794.00,1.28
7793.00,1.28
7792.00,1.28
7791.00,1.29
7790.00,1.29
7789.00,1.29
7788.00,1.29
7787.00,1.30
7786.00,1.30
7785.00,1.30
7784.00,1.30
7783.00,1.30
7782.00,1.31
7781.00,1.31
7780.00,1.31
7779.00,1.31
7778.00,1.31
7777.00,1.31
7776.00,1.31
7775.00,1.31
7774.00,1.31
7773.00,1.31
7772.00,1.31
7771.00,1.31
7770.00,1.31
7769.00,1.31
7768.00,1.31
7767.00,1.31
7766.00,1.31
7765.00,1.30
7764.00,1.30
7763.00,1.30
7762.00,1.30
7761.00,1.29
7760.00,1.29
7759.00,1.29
7758.00,1.29
7757.00,1.28
7756.00,1.28
7755.00,1.28
7754.00,1.28
7753.00,1.28
7752.00,1.27
7751.00,1.27
7750.00,1.27
7749.00,1.27
7748.00,1.27
7747.00,1.27
7746.00,1.26
7745.00,1.26
7744.00,1.26
7743.00,1.26
7742.00,1.26
7741.00,1.26
7740.00,1.26
7739.00,1.26
7738.00,1.26
7737.00,1.26
7736.00,1.26
7735.00,1.25
7734.00,1.25
7733.00,1.25
7732.00,1.25
7731.00,1.25
7730.00,1.26
7729.00,1.26
7728.00,1.26
7727.00,1.26
7726.00,1.26
7725.00,1.26
7724.00,1.26
7723.00,1.26
7722.00,1.26
7721.00,1.26
7720.00,1.26
7719.00,1.26
7718.00,1.27
7717.00,1.27
7716.00,1.27
7715.00,1.27
7714.00,1.27
7713.00,1.27
7712.00,1.27
7711.00,1.27
7710.00,1.27
7709.00,1.27
7708.00,1.27
7707.00,1.27
7706.00,1.27
7705.00,1.27
7704.00,1.27
7703.00,1.27
7702.00,1.27
7701.00,1.26
7700.00,1.26
7699.00,1.26
7698.00,1.26
7697.00,1.26
7696.00,1.25
7695.00,1.25
7694.00,1.25
7693.00,1.25
7692.00,1.25
7691.00,1.24
7690.00,1.24
7689.00,1.24
7688.00,1.24
7687.00,1.24
7686.00,1.23
7685.00,1.23
7684.00,1.23
7683.00,1.23
7682.00,1.23
7681.00,1.23
7680.00,1.23
7679.00,1.23
7678.00,1.23
7677.00,1.23
7676.00,1.23
7675.00,1.23
7674.00,1.23
7673.00,1.23
7672.00,1.23
7671.00,1.24
7670.00,1.24
7669.00,1.24
7668.00,1.25
7667.00,1.25
7666.00,1.26
7665.00,1.26
7664.00,1.26
7663.00,1.27
7662.00,1.27
7661.00,1.27
7660.00,1.28
7659.00,1.28
7658.00,1.28
7657.00,1.29
7656.00,1.29
7655.00,1.29
7654.00,1.29
7653.00,1.29
7652.00,1.30
7651.00,1.30
7650.00,1.30
7649.00,1.30
7648.00,1.30
7647.00,1.30
7646.00,1.29
7645.00,1.29
7644.00,1.29
7643.00,1.28
7642.00,1.28
7641.00,1.28
7640.00,1.27
7639.00,1.27
7638.00,1.26
7637.00,1.26
7636.00,1.25
7635.00,1.25
7634.00,1.25
7633.00,1.24
7632.00,1.24
7631.00,1.24
7630.00,1.24
7629.00,1.24
7628.00,1.23
7627.00,1.23
7626.00,1.23
7625.00,1.23
7624.00,1.23
7623.00,1.23
7622.00,1.23
7621.00,1.23
7620.00,1.24
7619.00,1.24
7618.00,1.24
7617.00,1.24
7616.00,1.24
7615.00,1.25
7614.00,1.25
7613.00,1.25
7612.00,1.26
7611.00,1.26
7610.00,1.26
7609.00,1.26
7608.00,1.26
7607.00,1.27
7606.00,1.27
7605.00,1.27
7604.00,1.27
7603.00,1.27
7602.00,1.27
7601.00,1.27
7600.00,1.27
7599.00,1.27
7598.00,1.27
7597.00,1.27
7596.00,1.26
7595.00,1.26
7594.00,1.26
7593.00,1.26
7592.00,1.26
7591.00,1.26
7590.00,1.26
7589.00,1.26
7588.00,1.26
7587.00,1.26
7586.00,1.26
7585.00,1.26
7584.00,1.26
7583.00,1.26
7582.00,1.26
7581.00,1.26
7580.00,1.26
7579.00,1.26
7578.00,1.26
7577.00,1.27
7576.00,1.27
7575.00,1.27
7574.00,1.27
7573.00,1.27
7572.00,1.27
7571.00,1.28
7570.00,1.28
7569.00,1.28
7568.00,1.28
7567.00,1.28
7566.00,1.28
7565.00,1.28
7564.00,1.28
7563.00,1.28
7562.00,1.28
7561.00,1.27
7560.00,1.27
7559.00,1.27
7558.00,1.27
7557.00,1.27
7556.00,1.27
7555.00,1.27
7554.00,1.27
7553.00,1.27
7552.00,1.27
7551.00,1.27
7550.00,1.27
7549.00,1.27
7548.00,1.27
7547.00,1.27
7546.00,1.27
7545.00,1.27
7544.00,1.27
7543.00,1.27
7542.00,1.27
7541.00,1.27
7540.00,1.27
7539.00,1.27
7538.00,1.27
7537.00,1.27
7536.00,1.27
7535.00,1.27
7534.00,1.27
7533.00,1.27
7532.00,1.27
7531.00,1.27
7530.00,1.26
7529.00,1.26
7528.00,1.26
7527.00,1.26
7526.00,1.26
7525.00,1.26
7524.00,1.26
7523.00,1.25
7522.00,1.25
7521.00,1.25
7520.00,1.25
7519.00,1.25
7518.00,1.25
7517.00,1.25
7516.00,1.25
7515.00,1.25
7514.00,1.25
7513.00,1.25
7512.00,1.25
7511.00,1.25
7510.00,1.25
7509.00,1.25
7508.00,1.25
7507.00,1.25
7506.00,1.26
7505.00,1.26
7504.00,1.26
7503.00,1.26
7502.00,1.26
7501.00,1.26
7500.00,1.26
7499.00,1.26
7498.00,1.26
7497.00,1.26
7496.00,1.26
7495.00,1.27
7494.00,1.27
7493.00,1.27
7492.00,1.27
7491.00,1.27
7490.00,1.27
7489.00,1.27
7488.00,1.27
7487.00,1.27
7486.00,1.27
7485.00,1.27
7484.00,1.27
7483.00,1.27
7482.00,1.27
7481.00,1.27
7480.00,1.27
7479.00,1.27
7478.00,1.27
7477.00,1.27
7476.00,1.27
7475.00,1.27
7474.00,1.27
7473.00,1.27
7472.00,1.27
7471.00,1.27
7470.00,1.27
7469.00,1.27
7468.00,1.27
7467.00,1.27
7466.00,1.27
7465.00,1.28
7464.00,1.28
7463.00,1.28
7462.00,1.28
7461.00,1.28
7460.00,1.28
7459.00,1.28
7458.00,1.28
7457.00,1.28
7456.00,1.28
7455.00,1.29
7454.00,1.29
7453.00,1.29
7452.00,1.29
7451.00,1.29
7450.00,1.29
7449.00,1.29
7448.00,1.30
7447.00,1.30
7446.00,1.30
7445.00,1.30
7444.00,1.30
7443.00,1.30
7442.00,1.30
7441.00,1.30
7440.00,1.30
7439.00,1.30
7438.00,1.30
7437.00,1.30
7436.00,1.30
7435.00,1.30
7434.00,1.30
7433.00,1.30
7432.00,1.30
7431.00,1.30
7430.00,1.30
7429.00,1.30
7428.00,1.30
7427.00,1.30
7426.00,1.30
7425.00,1.29
7424.00,1.29
7423.00,1.29
7422.00,1.29
7421.00,1.29
7420.00,1.28
7419.00,1.28
7418.00,1.28
7417.00,1.28
7416.00,1.28
7415.00,1.28
7414.00,1.28
7413.00,1.27
7412.00,1.27
7411.00,1.27
7410.00,1.27
7409.00,1.27
7408.00,1.27
7407.00,1.27
7406.00,1.27
7405.00,1.27
7404.00,1.26
7403.00,1.26
7402.00,1.26
7401.00,1.26
7400.00,1.26
7399.00,1.26
7398.00,1.27
7397.00,1.27
7396.00,1.27
7395.00,1.27
7394.00,1.27
7393.00,1.27
7392.00,1.27
7391.00,1.27
7390.00,1.27
7389.00,1.27
7388.00,1.27
7387.00,1.27
7386.00,1.27
7385.00,1.27
7384.00,1.27
7383.00,1.27
7382.00,1.27
7381.00,1.27
7380.00,1.27
7379.00,1.27
7378.00,1.27
7377.00,1.27
7376.00,1.27
7375.00,1.27
7374.00,1.27
7373.00,1.26
7372.00,1.26
7371.00,1.26
7370.00,1.26
7369.00,1.26
7368.00,1.26
7367.00,1.25
7366.00,1.25
7365.00,1.25
7364.00,1.25
7363.00,1.25
7362.00,1.25
7361.00,1.25
7360.00,1.25
7359.00,1.25
7358.00,1.25
7357.00,1.25
7356.00,1.25
7355.00,1.25
7354.00,1.25
7353.00,1.25
7352.00,1.25
7351.00,1.24
7350.00,1.24
7349.00,1.24
7348.00,1.24
7347.00,1.24
7346.00,1.24
7345.00,1.23
7344.00,1.23
7343.00,1.23
7342.00,1.23
7341.00,1.23
7340.00,1.23
7339.00,1.23
7338.00,1.23
7337.00,1.23
7336.00,1.22
7335.00,1.22
7334.00,1.22
7333.00,1.22
7332.00,1.22
7331.00,1.22
7330.00,1.21
7329.00,1.21
7328.00,1.21
7327.00,1.22
7326.00,1.22
7325.00,1.22
7324.00,1.22
7323.00,1.22
7322.00,1.22
7321.00,1.22
7320.00,1.23
7319.00,1.23
7318.00,1.23
7317.00,1.23
7316.00,1.23
7315.00,1.23
7314.00,1.23
7313.00,1.23
7312.00,1.24
7311.00,1.24
7310.00,1.24
7309.00,1.24
7308.00,1.24
7307.00,1.24
7306.00,1.24
7305.00,1.24
7304.00,1.24
7303.00,1.25
7302.00,1.25
7301.00,1.25
7300.00,1.24
7299.00,1.24
7298.00,1.24
7297.00,1.24
7296.00,1.24
7295.00,1.24
7294.00,1.24
7293.00,1.24
7292.00,1.24
7291.00,1.24
7290.00,1.24
7289.00,1.24
7288.00,1.24
7287.00,1.24
7286.00,1.24
7285.00,1.23
7284.00,1.23
7283.00,1.23
7282.00,1.23
7281.00,1.23
7280.00,1.23
7279.00,1.23
7278.00,1.23
7277.00,1.23
7276.00,1.22
7275.00,1.22
7274.00,1.22
7273.00,1.22
7272.00,1.22
7271.00,1.22
7270.00,1.22
7269.00,1.22
7268.00,1.21
7267.00,1.21
7266.00,1.21
7265.00,1.21
7264.00,1.21
7263.00,1.21
7262.00,1.21
7261.00,1.21
7260.00,1.21
7259.00,1.21
7258.00,1.21
7257.00,1.21
7256.00,1.21
7255.00,1.21
7254.00,1.21
7253.00,1.21
7252.00,1.21
7251.00,1.21
7250.00,1.21
7249.00,1.21
7248.00,1.21
7247.00,1.21
7246.00,1.21
7245.00,1.21
7244.00,1.21
7243.00,1.21
7242.00,1.20
7241.00,1.20
7240.00,1.20
7239.00,1.20
7238.00,1.19
7237.00,1.19
7236.00,1.19
7235.00,1.19
7234.00,1.18
7233.00,1.18
7232.00,1.18
7231.00,1.17
7230.00,1.17
7229.00,1.17
7228.00,1.17
7227.00,1.17
7226.00,1.16
7225.00,1.16
7224.00,1.16
7223.00,1.16
7222.00,1.16
7221.00,1.16
7220.00,1.15
7219.00,1.15
7218.00,1.15
7217.00,1.15
7216.00,1.15
7215.00,1.15
7214.00,1.15
7213.00,1.15
7212.00,1.15
7211.00,1.15
7210.00,1.15
7209.00,1.15
7208.00,1.15
7207.00,1.15
7206.00,1.15
7205.00,1.15
7204.00,1.15
7203.00,1.15
7202.00,1.15
7201.00,1.15
7200.00,1.15
7199.00,1.15
7198.00,1.15
7197.00,1.15
7196.00,1.15
7195.00,1.14
7194.00,1.14
7193.00,1.14
7192.00,1.14
7191.00,1.14
7190.00,1.14
7189.00,1.14
7188.00,1.13
7187.00,1.13
7186.00,1.13
7185.00,1.13
7184.00,1.13
7183.00,1.13
7182.00,1.12
7181.00,1.12
7180.00,1.12
7179.00,1.12
7178.00,1.11
7177.00,1.11
7176.00,1.11
7175.00,1.10
7174.00,1.10
7173.00,1.10
7172.00,1.09
7171.00,1.09
7170.00,1.09
7169.00,1.08
7168.00,1.08
7167.00,1.08
7166.00,1.08
7165.00,1.07
7164.00,1.07
7163.00,1.07
7162.00,1.07
7161.00,1.06
7160.00,1.06
7159.00,1.06
7158.00,1.06
7157.00,1.06
7156.00,1.05
7155.00,1.05
7154.00,1.05
7153.00,1.05
7152.00,1.05
7151.00,1.04
7150.00,1.04
7149.00,1.04
7148.00,1.04
7147.00,1.04
7146.00,1.04
7145.00,1.04
7144.00,1.04
7143.00,1.04
7142.00,1.03
7141.00,1.03
7140.00,1.03
7139.00,1.03
7138.00,1.03
7137.00,1.03
7136.00,1.02
7135.00,1.02
7134.00,1.02
7133.00,1.02
7132.00,1.02
7131.00,1.01
7130.00,1.01
7129.00,1.01
7128.00,1.01
7127.00,1.00
7126.00,1.00
7125.00,1.00
7124.00,1.00
7123.00,1.00
7122.00,0.99
7121.00,0.99
7120.00,0.99
7119.00,0.99
7118.00,0.99
7117.00,0.99
7116.00,0.99
7115.00,0.99
7114.00,0.99
7113.00,0.99
7112.00,0.99
7111.00,0.99
7110.00,0.99
7109.00,0.99
7108.00,0.99
7107.00,0.99
7106.00,0.99
7105.00,0.99
7104.00,0.99
7103.00,0.99
7102.00,0.99
7101.00,0.99
7100.00,1.00
7099.00,1.00
7098.00,1.00
7097.00,1.00
7096.00,1.00
7095.00,1.00
7094.00,0.99
7093.00,0.99
7092.00,0.99
7091.00,0.99
7090.00,0.99
7089.00,0.99
7088.00,0.99
7087.00,0.98
7086.00,0.98
7085.00,0.98
7084.00,0.97
7083.00,0.97
7082.00,0.97
7081.00,0.96
7080.00,0.96
7079.00,0.96
7078.00,0.96
7077.00,0.95
7076.00,0.95
7075.00,0.95
7074.00,0.95
7073.00,0.94
7072.00,0.94
7071.00,0.94
7070.00,0.94
7069.00,0.94
7068.00,0.94
7067.00,0.94
7066.00,0.93
7065.00,0.94
7064.00,0.94
7063.00,0.94
7062.00,0.94
7061.00,0.94
7060.00,0.94
7059.00,0.94
7058.00,0.95
7057.00,0.95
7056.00,0.95
7055.00,0.95
7054.00,0.95
7053.00,0.95
7052.00,0.96
7051.00,0.96
7050.00,0.96
7049.00,0.96
7048.00,0.96
7047.00,0.96
7046.00,0.96
7045.00,0.96
7044.00,0.96
7043.00,0.96
7042.00,0.96
7041.00,0.96
7040.00,0.96
7039.00,0.96
7038.00,0.96
7037.00,0.96
7036.00,0.96
7035.00,0.96
7034.00,0.95
7033.00,0.95
7032.00,0.95
7031.00,0.95
7030.00,0.95
7029.00,0.95
7028.00,0.95
7027.00,0.95
7026.00,0.95
7025.00,0.95
7024.00,0.95
7023.00,0.95
7022.00,0.95
7021.00,0.95
7020.00,0.95
7019.00,0.95
7018.00,0.95
7017.00,0.95
7016.00,0.94
7015.00,0.94
7014.00,0.94
7013.00,0.94
7012.00,0.94
7011.00,0.93
7010.00,0.93
7009.00,0.93
7008.00,0.93
7007.00,0.93
7006.00,0.93
7005.00,0.92
7004.00,0.92
7003.00,0.92
7002.00,0.92
7001.00,0.91
7000.00,0.91
6999.00,0.91
6998.00,0.90
6997.00,0.90
6996.00,0.90
6995.00,0.89
6994.00,0.89
6993.00,0.89
6992.00,0.88
6991.00,0.88
6990.00,0.88
6989.00,0.88
6988.00,0.88
6987.00,0.88
6986.00,0.87
6985.00,0.87
6984.00,0.87
6983.00,0.87
6982.00,0.87
6981.00,0.87
6980.00,0.86
6979.00,0.86
6978.00,0.86
6977.00,0.86
6976.00,0.86
6975.00,0.85
6974.00,0.85
6973.00,0.85
6972.00,0.85
6971.00,0.85
6970.00,0.84
6969.00,0.84
6968.00,0.84
6967.00,0.84
6966.00,0.84
6965.00,0.84
6964.00,0.84
6963.00,0.84
6962.00,0.83
6961.00,0.83
6960.00,0.83
6959.00,0.83
6958.00,0.83
6957.00,0.83
6956.00,0.83
6955.00,0.83
6954.00,0.83
6953.00,0.83
6952.00,0.83
6951.00,0.83
6950.00,0.83
6949.00,0.84
6948.00,0.84
6947.00,0.84
6946.00,0.84
6945.00,0.84
6944.00,0.84
6943.00,0.84
6942.00,0.85
6941.00,0.85
6940.00,0.85
6939.00,0.85
6938.00,0.86
6937.00,0.86
6936.00,0.86
6935.00,0.86
6934.00,0.87
6933.00,0.87
6932.00,0.87
6931.00,0.87
6930.00,0.88
6929.00,0.88
6928.00,0.88
6927.00,0.89
6926.00,0.89
6925.00,0.89
6924.00,0.89
6923.00,0.90
6922.00,0.90
6921.00,0.90
6920.00,0.91
6919.00,0.91
6918.00,0.91
6917.00,0.92
6916.00,0.92
6915.00,0.92
6914.00,0.92
6913.00,0.93
6912.00,0.93
6911.00,0.93
6910.00,0.93
6909.00,0.93
6908.00,0.93
6907.00,0.93
6906.00,0.93
6905.00,0.93
6904.00,0.93
6903.00,0.93
6902.00,0.93
6901.00,0.93
6900.00,0.93
6899.00,0.93
6898.00,0.93
6897.00,0.93
6896.00,0.93
6895.00,0.93
6894.00,0.93
6893.00,0.92
6892.00,0.92
6891.00,0.92
6890.00,0.92
6889.00,0.92
6888.00,0.92
6887.00,0.92
6886.00,0.92
6885.00,0.92
6884.00,0.92
6883.00,0.91
6882.00,0.91
6881.00,0.91
6880.00,0.91
6879.00,0.91
6878.00,0.91
6877.00,0.91
6876.00,0.91
6875.00,0.91
6874.00,0.91
6873.00,0.91
6872.00,0.91
6871.00,0.91
6870.00,0.91
6869.00,0.91
6868.00,0.91
6867.00,0.91
6866.00,0.91
6865.00,0.91
6864.00,0.91
6863.00,0.90
6862.00,0.90
6861.00,0.90
6860.00,0.90
6859.00,0.90
6858.00,0.90
6857.00,0.90
6856.00,0.90
6855.00,0.90
6854.00,0.90
6853.00,0.90
6852.00,0.90
6851.00,0.90
6850.00,0.90
6849.00,0.90
6848.00,0.90
6847.00,0.90
6846.00,0.90
6845.00,0.90
6844.00,0.90
6843.00,0.90
6842.00,0.90
6841.00,0.90
6840.00,0.90
6839.00,0.90
6838.00,0.90
6837.00,0.90
6836.00,0.90
6835.00,0.90
6834.00,0.90
6833.00,0.90
6832.00,0.90
6831.00,0.90
6830.00,0.90
6829.00,0.90
6828.00,0.90
6827.00,0.90
6826.00,0.90
6825.00,0.90
6824.00,0.90
6823.00,0.90
6822.00,0.90
6821.00,0.90
6820.00,0.90
6819.00,0.90
6818.00,0.90
6817.00,0.90
6816.00,0.90
6815.00,0.90
6814.00,0.91
6813.00,0.91
6812.00,0.91
6811.00,0.91
6810.00,0.91
6809.00,0.91
6808.00,0.91
6807.00,0.91
6806.00,0.91
6805.00,0.91
6804.00,0.91
6803.00,0.91
6802.00,0.91
6801.00,0.91
6800.00,0.91
6799.00,0.91
6798.00,0.91
6797.00,0.91
6796.00,0.91
6795.00,0.91
6794.00,0.90
6793.00,0.90
6792.00,0.90
6791.00,0.90
6790.00,0.90
6789.00,0.90
6788.00,0.89
6787.00,0.89
6786.00,0.89
6785.00,0.89
6784.00,0.89
6783.00,0.89
6782.00,0.89
6781.00,0.89
6780.00,0.89
6779.00,0.89
6778.00,0.89
6777.00,0.89
6776.00,0.89
6775.00,0.89
6774.00,0.89
6773.00,0.89
6772.00,0.89
6771.00,0.89
6770.00,0.89
6769.00,0.90
6768.00,0.90
6767.00,0.90
6766.00,0.90
6765.00,0.90
6764.00,0.91
6763.00,0.91
6762.00,0.91
6761.00,0.92
6760.00,0.92
6759.00,0.92
6758.00,0.93
6757.00,0.93
6756.00,0.93
6755.00,0.93
6754.00,0.94
6753.00,0.94
6752.00,0.94
6751.00,0.94
6750.00,0.95
6749.00,0.95
6748.00,0.95
6747.00,0.95
6746.00,0.96
6745.00,0.96
6744.00,0.96
6743.00,0.96
6742.00,0.96
6741.00,0.97
6740.00,0.97
6739.00,0.97
6738.00,0.97
6737.00,0.97
6736.00,0.97
6735.00,0.97
6734.00,0.97
6733.00,0.97
6732.00,0.98
6731.00,0.98
6730.00,0.98
6729.00,0.98
6728.00,0.98
6727.00,0.98
6726.00,0.98
6725.00,0.98
6724.00,0.98
6723.00,0.98
6722.00,0.98
6721.00,0.98
6720.00,0.98
6719.00,0.98
6718.00,0.99
6717.00,0.99
6716.00,0.99
6715.00,0.99
6714.00,0.99
6713.00,0.99
6712.00,1.00
6711.00,1.00
6710.00,1.00
6709.00,1.00
6708.00,1.00
6707.00,1.00
6706.00,1.00
6705.00,1.01
6704.00,1.01
6703.00,1.01
6702.00,1.01
6701.00,1.01
6700.00,1.01
6699.00,1.01
6698.00,1.02
6697.00,1.02
6696.00,1.02
6695.00,1.02
6694.00,1.02
6693.00,1.02
6692.00,1.02
6691.00,1.02
6690.00,1.02
6689.00,1.02
6688.00,1.02
6687.00,1.02
6686.00,1.02
6685.00,1.02
6684.00,1.02
6683.00,1.02
6682.00,1.02
6681.00,1.02
6680.00,1.02
6679.00,1.02
6678.00,1.02
6677.00,1.02
6676.00,1.02
6675.00,1.03
6674.00,1.03
6673.00,1.03
6672.00,1.03
6671.00,1.03
6670.00,1.03
6669.00,1.04
6668.00,1.04
6667.00,1.04
6666.00,1.04
6665.00,1.04
6664.00,1.05
6663.00,1.05
6662.00,1.05
6661.00,1.05
6660.00,1.05
6659.00,1.05
6658.00,1.05
6657.00,1.05
6656.00,1.05
6655.00,1.05
6654.00,1.05
6653.00,1.05
6652.00,1.05
6651.00,1.05
6650.00,1.05
6649.00,1.05
6648.00,1.05
6647.00,1.04
6646.00,1.04
6645.00,1.04
6644.00,1.04
6643.00,1.04
6642.00,1.03
6641.00,1.03
6640.00,1.03
6639.00,1.03
6638.00,1.03
6637.00,1.02
6636.00,1.02
6635.00,1.02
6634.00,1.02
6633.00,1.02
6632.00,1.02
6631.00,1.01
6630.00,1.01
6629.00,1.01
6628.00,1.01
6627.00,1.01
6626.00,1.01
6625.00,1.01
6624.00,1.01
6623.00,1.02
6622.00,1.02
6621.00,1.02
6620.00,1.02
6619.00,1.02
6618.00,1.02
6617.00,1.02
6616.00,1.02
6615.00,1.02
6614.00,1.03
6613.00,1.03
6612.00,1.03
6611.00,1.03
6610.00,1.03
6609.00,1.03
6608.00,1.04
6607.00,1.04
6606.00,1.04
6605.00,1.04
6604.00,1.04
6603.00,1.04
6602.00,1.05
6601.00,1.05
6600.00,1.05
6599.00,1.05
6598.00,1.05
6597.00,1.06
6596.00,1.06
6595.00,1.06
6594.00,1.06
6593.00,1.06
6592.00,1.06
6591.00,1.06
6590.00,1.07
6589.00,1.07
6588.00,1.07
6587.00,1.07
6586.00,1.07
6585.00,1.07
6584.00,1.07
6583.00,1.07
6582.00,1.07
6581.00,1.07
6580.00,1.07
6579.00,1.08
6578.00,1.08
6577.00,1.08
6576.00,1.08
6575.00,1.08
6574.00,1.08
6573.00,1.08
6572.00,1.08
6571.00,1.09
6570.00,1.09
6569.00,1.09
6568.00,1.09
6567.00,1.09
6566.00,1.09
6565.00,1.10
6564.00,1.10
6563.00,1.10
6562.00,1.10
6561.00,1.10
6560.00,1.11
6559.00,1.11
6558.00,1.11
6557.00,1.11
6556.00,1.12
6555.00,1.12
6554.00,1.12
6553.00,1.12
6552.00,1.13
6551.00,1.13
6550.00,1.13
6549.00,1.13
6548.00,1.14
6547.00,1.14
6546.00,1.14
6545.00,1.14
6544.00,1.14
6543.00,1.14
6542.00,1.14
6541.00,1.14
6540.00,1.14
6539.00,1.14
6538.00,1.14
6537.00,1.14
6536.00,1.14
6535.00,1.14
6534.00,1.14
6533.00,1.14
6532.00,1.14
6531.00,1.14
6530.00,1.14
6529.00,1.14
6528.00,1.14
6527.00,1.14
6526.00,1.14
6525.00,1.14
6524.00,1.14
6523.00,1.14
6522.00,1.14
6521.00,1.14
6520.00,1.14
6519.00,1.14
6518.00,1.14
6517.00,1.14
6516.00,1.14
6515.00,1.14
6514.00,1.14
6513.00,1.14
6512.00,1.14
6511.00,1.14
6510.00,1.14
6509.00,1.14
6508.00,1.14
6507.00,1.14
6506.00,1.14
6505.00,1.14
6504.00,1.14
6503.00,1.14
6502.00,1.14
6501.00,1.14
6500.00,1.14
6499.00,1.14
6498.00,1.14
6497.00,1.14
6496.00,1.14
6495.00,1.14
6494.00,1.14
6493.00,1.14
6492.00,1.13
6491.00,1.13
6490.00,1.13
6489.00,1.13
6488.00,1.13
6487.00,1.13
6486.00,1.13
6485.00,1.13
6484.00,1.13
6483.00,1.13
6482.00,1.13
6481.00,1.14
6480.00,1.14
6479.00,1.14
6478.00,1.14
6477.00,1.14
6476.00,1.14
6475.00,1.14
6474.00,1.15
6473.00,1.15
6472.00,1.15
6471.00,1.15
6470.00,1.15
6469.00,1.15
6468.00,1.15
6467.00,1.15
6466.00,1.15
6465.00,1.15
6464.00,1.16
6463.00,1.16
6462.00,1.16
6461.00,1.16
6460.00,1.16
6459.00,1.16
6458.00,1.15
6457.00,1.15
6456.00,1.15
6455.00,1.15
6454.00,1.15
6453.00,1.15
6452.00,1.15
6451.00,1.15
6450.00,1.15
6449.00,1.15
6448.00,1.15
6447.00,1.15
6446.00,1.15
6445.00,1.15
6444.00,1.15
6443.00,1.15
6442.00,1.15
6441.00,1.15
6440.00,1.15
6439.00,1.15
6438.00,1.15
6437.00,1.15
6436.00,1.15
6435.00,1.15
6434.00,1.15
6433.00,1.15
6432.00,1.15
6431.00,1.15
6430.00,1.16
6429.00,1.16
6428.00,1.16
6427.00,1.16
6426.00,1.16
6425.00,1.16
6424.00,1.17
6423.00,1.17
6422.00,1.17
6421.00,1.17
6420.00,1.17
6419.00,1.17
6418.00,1.17
6417.00,1.18
6416.00,1.18
6415.00,1.18
6414.00,1.18
6413.00,1.18
6412.00,1.18
6411.00,1.19
6410.00,1.19
6409.00,1.19
6408.00,1.19
6407.00,1.19
6406.00,1.19
6405.00,1.19
6404.00,1.19
6403.00,1.19
6402.00,1.19
6401.00,1.19
6400.00,1.19
6399.00,1.19
6398.00,1.19
6397.00,1.19
6396.00,1.19
6395.00,1.19
6394.00,1.19
6393.00,1.19
6392.00,1.19
6391.00,1.19
6390.00,1.19
6389.00,1.19
6388.00,1.19
6387.00,1.19
6386.00,1.19
6385.00,1.18
6384.00,1.18
6383.00,1.18
6382.00,1.18
6381.00,1.18
6380.00,1.18
6379.00,1.18
6378.00,1.18
6377.00,1.18
6376.00,1.18
6375.00,1.18
6374.00,1.18
6373.00,1.18
6372.00,1.18
6371.00,1.18
6370.00,1.19
6369.00,1.19
6368.00,1.19
6367.00,1.19
6366.00,1.19
6365.00,1.19
6364.00,1.19
6363.00,1.20
6362.00,1.20
6361.00,1.20
6360.00,1.20
6359.00,1.21
6358.00,1.21
6357.00,1.21
6356.00,1.21
6355.00,1.21
6354.00,1.21
6353.00,1.21
6352.00,1.21
6351.00,1.21
6350.00,1.22
6349.00,1.22
6348.00,1.22
6347.00,1.22
6346.00,1.22
6345.00,1.22
6344.00,1.22
6343.00,1.22
6342.00,1.22
6341.00,1.22
6340.00,1.22
6339.00,1.22
6338.00,1.22
6337.00,1.21
6336.00,1.21
6335.00,1.21
6334.00,1.21
6333.00,1.21
6332.00,1.21
6331.00,1.21
6330.00,1.21
6329.00,1.21
6328.00,1.20
6327.00,1.20
6326.00,1.20
6325.00,1.20
6324.00,1.20
6323.00,1.20
6322.00,1.20
6321.00,1.20
6320.00,1.20
6319.00,1.19
6318.00,1.19
6317.00,1.19
6316.00,1.19
6315.00,1.19
6314.00,1.19
6313.00,1.19
6312.00,1.19
6311.00,1.19
6310.00,1.19
6309.00,1.20
6308.00,1.20
6307.00,1.20
6306.00,1.20
6305.00,1.20
6304.00,1.20
6303.00,1.20
6302.00,1.20
6301.00,1.20
6300.00,1.20
6299.00,1.20
6298.00,1.20
6297.00,1.20
6296.00,1.20
6295.00,1.20
6294.00,1.21
6293.00,1.21
6292.00,1.21
6291.00,1.21
6290.00,1.21
6289.00,1.21
6288.00,1.21
6287.00,1.21
6286.00,1.21
6285.00,1.21
6284.00,1.21
6283.00,1.21
6282.00,1.21
6281.00,1.21
6280.00,1.22
6279.00,1.22
6278.00,1.22
6277.00,1.22
6276.00,1.22
6275.00,1.22
6274.00,1.22
6273.00,1.22
6272.00,1.22
6271.00,1.23
6270.00,1.23
6269.00,1.23
6268.00,1.23
6267.00,1.23
6266.00,1.23
6265.00,1.23
6264.00,1.23
6263.00,1.23
6262.00,1.23
6261.00,1.24
6260.00,1.24
6259.00,1.24
6258.00,1.24
6257.00,1.24
6256.00,1.25
6255.00,1.25
6254.00,1.25
6253.00,1.25
6252.00,1.25
6251.00,1.25
6250.00,1.26
6249.00,1.26
6248.00,1.26
6247.00,1.26
6246.00,1.26
6245.00,1.26
6244.00,1.26
6243.00,1.26
6242.00,1.27
6241.00,1.27
6240.00,1.27
6239.00,1.27
6238.00,1.27
6237.00,1.27
6236.00,1.27
6235.00,1.27
6234.00,1.27
6233.00,1.27
6232.00,1.26
6231.00,1.26
6230.00,1.26
6229.00,1.26
6228.00,1.26
6227.00,1.26
6226.00,1.26
6225.00,1.26
6224.00,1.26
6223.00,1.26
6222.00,1.26
6221.00,1.26
6220.00,1.26
6219.00,1.26
6218.00,1.26
6217.00,1.26
6216.00,1.26
6215.00,1.26
6214.00,1.26
6213.00,1.26
6212.00,1.26
6211.00,1.26
6210.00,1.26
6209.00,1.26
6208.00,1.26
6207.00,1.26
6206.00,1.26
6205.00,1.27
6204.00,1.27
6203.00,1.27
6202.00,1.27
6201.00,1.27
6200.00,1.27
6199.00,1.27
6198.00,1.27
6197.00,1.27
6196.00,1.27
6195.00,1.27
6194.00,1.27
6193.00,1.27
6192.00,1.27
6191.00,1.27
6190.00,1.27
6189.00,1.27
6188.00,1.27
6187.00,1.27
6186.00,1.27
6185.00,1.27
6184.00,1.27
6183.00,1.27
6182.00,1.27
6181.00,1.27
6180.00,1.27
6179.00,1.27
6178.00,1.27
6177.00,1.27
6176.00,1.27
6175.00,1.27
6174.00,1.27
6173.00,1.27
6172.00,1.27
6171.00,1.27
6170.00,1.27
6169.00,1.27
6168.00,1.27
6167.00,1.27
6166.00,1.27
6165.00,1.27
6164.00,1.28
6163.00,1.28
6162.00,1.28
6161.00,1.28
6160.00,1.28
6159.00,1.28
6158.00,1.28
6157.00,1.28
6156.00,1.28
6155.00,1.28
6154.00,1.28
6153.00,1.28
6152.00,1.28
6151.00,1.28
6150.00,1.28
6149.00,1.28
6148.00,1.28
6147.00,1.28
6146.00,1.28
6145.00,1.29
6144.00,1.29
6143.00,1.29
6142.00,1.29
6141.00,1.29
6140.00,1.29
6139.00,1.29
6138.00,1.29
6137.00,1.29
6136.00,1.30
6135.00,1.30
6134.00,1.30
6133.00,1.30
6132.00,1.30
6131.00,1.30
6130.00,1.31
6129.00,1.31
6128.00,1.31
6127.00,1.31
6126.00,1.31
6125.00,1.31
6124.00,1.31
6123.00,1.32
6122.00,1.32
6121.00,1.32
6120.00,1.32
6119.00,1.32
6118.00,1.32
6117.00,1.32
6116.00,1.32
6115.00,1.32
6114.00,1.32
6113.00,1.33
6112.00,1.33
6111.00,1.33
6110.00,1.33
6109.00,1.33
6108.00,1.33
6107.00,1.33
6106.00,1.33
6105.00,1.33
6104.00,1.33
6103.00,1.33
6102.00,1.33
6101.00,1.33
6100.00,1.33
6099.00,1.33
6098.00,1.33
6097.00,1.33
6096.00,1.33
6095.00,1.33
6094.00,1.33
6093.00,1.33
6092.00,1.33
6091.00,1.33
6090.00,1.33
6089.00,1.33
6088.00,1.33
6087.00,1.33
6086.00,1.33
6085.00,1.34
6084.00,1.34
6083.00,1.34
6082.00,1.34
6081.00,1.34
6080.00,1.34
6079.00,1.34
6078.00,1.34
6077.00,1.35
6076.00,1.35
6075.00,1.35
6074.00,1.35
6073.00,1.35
6072.00,1.35
6071.00,1.35
6070.00,1.35
6069.00,1.36
6068.00,1.36
6067.00,1.36
6066.00,1.36
6065.00,1.36
6064.00,1.36
6063.00,1.36
6062.00,1.36
6061.00,1.36
6060.00,1.36
6059.00,1.36
6058.00,1.36
6057.00,1.36
6056.00,1.35
6055.00,1.35
6054.00,1.35
6053.00,1.35
6052.00,1.35
6051.00,1.35
6050.00,1.35
6049.00,1.35
6048.00,1.35
6047.00,1.35
6046.00,1.35
6045.00,1.35
6044.00,1.35
6043.00,1.35
6042.00,1.35
6041.00,1.35
6040.00,1.35
6039.00,1.35
6038.00,1.35
6037.00,1.36
6036.00,1.36
6035.00,1.36
6034.00,1.36
6033.00,1.36
6032.00,1.36
6031.00,1.36
6030.00,1.36
6029.00,1.36
6028.00,1.36
6027.00,1.37
6026.00,1.37
6025.00,1.37
6024.00,1.37
6023.00,1.37
6022.00,1.37
6021.00,1.37
6020.00,1.37
6019.00,1.37
6018.00,1.37
6017.00,1.37
6016.00,1.37
6015.00,1.37
6014.00,1.37
6013.00,1.37
6012.00,1.37
6011.00,1.37
6010.00,1.37
6009.00,1.37
6008.00,1.37
6007.00,1.37
6006.00,1.37
6005.00,1.37
6004.00,1.37
6003.00,1.37
6002.00,1.37
6001.00,1.37
6000.00,1.37
5999.00,1.37
5998.00,1.37
5997.00,1.37
5996.00,1.37
5995.00,1.37
5994.00,1.37
5993.00,1.37
5992.00,1.37
5991.00,1.37
5990.00,1.37
5989.00,1.36
5988.00,1.36
5987.00,1.36
5986.00,1.36
5985.00,1.36
5984.00,1.36
5983.00,1.36
5982.00,1.35
5981.00,1.35
5980.00,1.35
5979.00,1.35
5978.00,1.35
5977.00,1.35
5976.00,1.34
5975.00,1.34
5974.00,1.34
5973.00,1.34
5972.00,1.34
5971.00,1.33
5970.00,1.33
5969.00,1.33
5968.00,1.33
5967.00,1.33
5966.00,1.32
5965.00,1.32
5964.00,1.32
5963.00,1.32
5962.00,1.32
5961.00,1.32
5960.00,1.32
5959.00,1.32
5958.00,1.32
5957.00,1.32
5956.00,1.32
5955.00,1.32
5954.00,1.31
5953.00,1.31
5952.00,1.31
5951.00,1.31
5950.00,1.31
5949.00,1.31
5948.00,1.31
5947.00,1.31
5946.00,1.31
5945.00,1.31
5944.00,1.31
5943.00,1.31
5942.00,1.31
5941.00,1.30
5940.00,1.30
5939.00,1.30
5938.00,1.30
5937.00,1.30
5936.00,1.30
5935.00,1.30
5934.00,1.30
5933.00,1.29
5932.00,1.29
5931.00,1.29
5930.00,1.29
5929.00,1.29
5928.00,1.29
5927.00,1.29
5926.00,1.29
5925.00,1.29
5924.00,1.29
5923.00,1.28
5922.00,1.28
5921.00,1.28
5920.00,1.28
5919.00,1.28
5918.00,1.28
5917.00,1.28
5916.00,1.28
5915.00,1.28
5914.00,1.28
5913.00,1.28
5912.00,1.28
5911.00,1.28
5910.00,1.28
5909.00,1.28
5908.00,1.28
5907.00,1.28
5906.00,1.28
5905.00,1.28
5904.00,1.28
5903.00,1.28
5902.00,1.28
5901.00,1.28
5900.00,1.28
5899.00,1.28
5898.00,1.28
5897.00,1.28
5896.00,1.28
5895.00,1.28
5894.00,1.28
5893.00,1.29
5892.00,1.29
5891.00,1.29
5890.00,1.29
5889.00,1.29
5888.00,1.29
5887.00,1.29
5886.00,1.30
5885.00,1.30
5884.00,1.30
5883.00,1.30
5882.00,1.30
5881.00,1.30
5880.00,1.30
5879.00,1.30
5878.00,1.30
5877.00,1.30
5876.00,1.30
5875.00,1.30
5874.00,1.30
5873.00,1.30
5872.00,1.30
5871.00,1.30
5870.00,1.30
5869.00,1.30
5868.00,1.30
5867.00,1.30
5866.00,1.30
5865.00,1.30
5864.00,1.30
5863.00,1.29
5862.00,1.29
5861.00,1.29
5860.00,1.29
5859.00,1.29
5858.00,1.29
5857.00,1.29
5856.00,1.30
5855.00,1.30
5854.00,1.30
5853.00,1.30
5852.00,1.30
5851.00,1.30
5850.00,1.30
5849.00,1.30
5848.00,1.30
5847.00,1.31
5846.00,1.31
5845.00,1.31
5844.00,1.31
5843.00,1.31
5842.00,1.31
5841.00,1.31
5840.00,1.31
5839.00,1.31
5838.00,1.31
5837.00,1.31
5836.00,1.31
5835.00,1.31
5834.00,1.31
5833.00,1.32
5832.00,1.32
5831.00,1.31
5830.00,1.31
5829.00,1.31
5828.00,1.31
5827.00,1.31
5826.00,1.31
5825.00,1.31
5824.00,1.31
5823.00,1.31
5822.00,1.31
5821.00,1.31
5820.00,1.31
5819.00,1.30
5818.00,1.30
5817.00,1.30
5816.00,1.30
5815.00,1.30
5814.00,1.30
5813.00,1.30
5812.00,1.30
5811.00,1.30
5810.00,1.30
5809.00,1.30
5808.00,1.30
5807.00,1.30
5806.00,1.30
5805.00,1.30
5804.00,1.30
5803.00,1.30
5802.00,1.29
5801.00,1.29
5800.00,1.29
5799.00,1.29
5798.00,1.29
5797.00,1.29
5796.00,1.29
5795.00,1.29
5794.00,1.29
5793.00,1.29
5792.00,1.29
5791.00,1.29
5790.00,1.28
5789.00,1.28
5788.00,1.28
5787.00,1.28
5786.00,1.28
5785.00,1.28
5784.00,1.28
5783.00,1.28
5782.00,1.28
5781.00,1.28
5780.00,1.28
5779.00,1.28
5778.00,1.28
5777.00,1.28
5776.00,1.28
5775.00,1.28
5774.00,1.28
5773.00,1.28
5772.00,1.28
5771.00,1.28
5770.00,1.28
5769.00,1.28
5768.00,1.28
5767.00,1.28
5766.00,1.28
5765.00,1.28
5764.00,1.28
5763.00,1.28
5762.00,1.29
5761.00,1.29
5760.00,1.29
5759.00,1.29
5758.00,1.29
5757.00,1.29
5756.00,1.29
5755.00,1.30
5754.00,1.30
5753.00,1.30
5752.00,1.30
5751.00,1.30
5750.00,1.30
5749.00,1.31
5748.00,1.31
5747.00,1.31
5746.00,1.31
5745.00,1.31
5744.00,1.31
5743.00,1.31
5742.00,1.32
5741.00,1.32
5740.00,1.32
5739.00,1.32
5738.00,1.32
5737.00,1.32
5736.00,1.32
5735.00,1.32
5734.00,1.32
5733.00,1.32
5732.00,1.32
5731.00,1.32
5730.00,1.32
5729.00,1.32
5728.00,1.32
5727.00,1.32
5726.00,1.32
5725.00,1.32
5724.00,1.32
5723.00,1.32
5722.00,1.32
5721.00,1.33
5720.00,1.33
5719.00,1.33
5718.00,1.33
5717.00,1.33
5716.00,1.33
5715.00,1.33
5714.00,1.33
5713.00,1.33
5712.00,1.33
5711.00,1.33
5710.00,1.33
5709.00,1.33
5708.00,1.33
5707.00,1.33
5706.00,1.34
5705.00,1.34
5704.00,1.34
5703.00,1.34
5702.00,1.34
5701.00,1.34
5700.00,1.34
5699.00,1.34
5698.00,1.34
5697.00,1.34
5696.00,1.34
5695.00,1.34
5694.00,1.34
5693.00,1.34
5692.00,1.34
5691.00,1.34
5690.00,1.33
5689.00,1.33
5688.00,1.33
5687.00,1.33
5686.00,1.33
5685.00,1.33
5684.00,1.33
5683.00,1.33
5682.00,1.33
5681.00,1.33
5680.00,1.33
5679.00,1.33
5678.00,1.33
5677.00,1.33
5676.00,1.33
5675.00,1.33
5674.00,1.33
5673.00,1.33
5672.00,1.33
5671.00,1.33
5670.00,1.32
5669.00,1.32
5668.00,1.32
5667.00,1.32
5666.00,1.32
5665.00,1.32
5664.00,1.32
5663.00,1.32
5662.00,1.32
5661.00,1.32
5660.00,1.32
5659.00,1.32
5658.00,1.32
5657.00,1.32
5656.00,1.32
5655.00,1.32
5654.00,1.32
5653.00,1.32
5652.00,1.32
5651.00,1.32
5650.00,1.32
5649.00,1.32
5648.00,1.32
5647.00,1.32
5646.00,1.32
5645.00,1.32
5644.00,1.32
5643.00,1.32
5642.00,1.32
5641.00,1.32
5640.00,1.32
5639.00,1.32
5638.00,1.32
5637.00,1.32
5636.00,1.32
5635.00,1.32
5634.00,1.32
5633.00,1.32
5632.00,1.32
5631.00,1.32
5630.00,1.32
5629.00,1.32
5628.00,1.32
5627.00,1.32
5626.00,1.32
5625.00,1.32
5624.00,1.32
5623.00,1.32
5622.00,1.32
5621.00,1.32
5620.00,1.32
5619.00,1.32
5618.00,1.32
5617.00,1.32
5616.00,1.32
5615.00,1.32
5614.00,1.32
5613.00,1.32
5612.00,1.32
5611.00,1.32
5610.00,1.32
5609.00,1.32
5608.00,1.32
5607.00,1.32
5606.00,1.32
5605.00,1.32
5604.00,1.32
5603.00,1.32
5602.00,1.32
5601.00,1.32
5600.00,1.32
5599.00,1.32
5598.00,1.32
5597.00,1.32
5596.00,1.32
5595.00,1.32
5594.00,1.32
5593.00,1.32
5592.00,1.32
5591.00,1.32
5590.00,1.33
5589.00,1.33
5588.00,1.33
5587.00,1.33
5586.00,1.33
5585.00,1.33
5584.00,1.33
5583.00,1.33
5582.00,1.33
5581.00,1.33
5580.00,1.33
5579.00,1.33
5578.00,1.33
5577.00,1.33
5576.00,1.33
5575.00,1.33
5574.00,1.33
5573.00,1.33
5572.00,1.33
5571.00,1.33
5570.00,1.33
5569.00,1.33
5568.00,1.33
5567.00,1.33
5566.00,1.33
5565.00,1.33
5564.00,1.33
5563.00,1.33
5562.00,1.33
5561.00,1.33
5560.00,1.33
5559.00,1.33
5558.00,1.34
5557.00,1.34
5556.00,1.34
5555.00,1.34
5554.00,1.34
5553.00,1.34
5552.00,1.34
5551.00,1.34
5550.00,1.34
5549.00,1.34
5548.00,1.34
5547.00,1.34
5546.00,1.34
5545.00,1.34
5544.00,1.34
5543.00,1.34
5542.00,1.34
5541.00,1.34
5540.00,1.34
5539.00,1.34
5538.00,1.34
5537.00,1.34
5536.00,1.34
5535.00,1.34
5534.00,1.34
5533.00,1.34
5532.00,1.34
5531.00,1.34
5530.00,1.34
5529.00,1.34
5528.00,1.34
5527.00,1.34
5526.00,1.34
5525.00,1.34
5524.00,1.33
5523.00,1.33
5522.00,1.33
5521.00,1.33
5520.00,1.33
5519.00,1.33
5518.00,1.33
5517.00,1.33
5516.00,1.33
5515.00,1.33
5514.00,1.33
5513.00,1.33
5512.00,1.33
5511.00,1.33
5510.00,1.33
5509.00,1.33
5508.00,1.33
5507.00,1.33
5506.00,1.33
5505.00,1.33
5504.00,1.33
5503.00,1.33
5502.00,1.33
5501.00,1.33
5500.00,1.33
5499.00,1.33
5498.00,1.33
5497.00,1.34
5496.00,1.34
5495.00,1.34
5494.00,1.34
5493.00,1.34
5492.00,1.34
5491.00,1.34
5490.00,1.34
5489.00,1.35
5488.00,1.35
5487.00,1.35
5486.00,1.35
5485.00,1.35
5484.00,1.35
5483.00,1.35
5482.00,1.35
5481.00,1.35
5480.00,1.36
5479.00,1.36
5478.00,1.36
5477.00,1.36
5476.00,1.36
5475.00,1.36
5474.00,1.36
5473.00,1.36
5472.00,1.35
5471.00,1.35
5470.00,1.35
5469.00,1.35
5468.00,1.35
5467.00,1.35
5466.00,1.35
5465.00,1.35
5464.00,1.35
5463.00,1.35
5462.00,1.35
5461.00,1.35
5460.00,1.35
5459.00,1.35
5458.00,1.35
5457.00,1.35
5456.00,1.35
5455.00,1.35
5454.00,1.34
5453.00,1.34
5452.00,1.34
5451.00,1.34
5450.00,1.34
5449.00,1.34
5448.00,1.34
5447.00,1.34
5446.00,1.34
5445.00,1.34
5444.00,1.34
5443.00,1.34
5442.00,1.34
5441.00,1.34
5440.00,1.34
5439.00,1.34
5438.00,1.34
5437.00,1.34
5436.00,1.34
5435.00,1.34
5434.00,1.34
5433.00,1.33
5432.00,1.33
5431.00,1.33
5430.00,1.33
5429.00,1.33
5428.00,1.32
5427.00,1.32
5426.00,1.32
5425.00,1.32
5424.00,1.32
5423.00,1.32
5422.00,1.32
5421.00,1.32
5420.00,1.32
5419.00,1.32
5418.00,1.31
5417.00,1.31
5416.00,1.31
5415.00,1.31
5414.00,1.31
5413.00,1.32
5412.00,1.32
5411.00,1.32
5410.00,1.32
5409.00,1.32
5408.00,1.32
5407.00,1.33
5406.00,1.33
5405.00,1.33
5404.00,1.33
5403.00,1.34
5402.00,1.34
5401.00,1.34
5400.00,1.34
5399.00,1.34
5398.00,1.35
5397.00,1.35
5396.00,1.35
5395.00,1.35
5394.00,1.35
5393.00,1.35
5392.00,1.35
5391.00,1.35
5390.00,1.36
5389.00,1.36
5388.00,1.36
5387.00,1.36
5386.00,1.36
5385.00,1.36
5384.00,1.35
5383.00,1.35
5382.00,1.35
5381.00,1.35
5380.00,1.35
5379.00,1.35
5378.00,1.34
5377.00,1.34
5376.00,1.34
5375.00,1.34
5374.00,1.34
5373.00,1.34
5372.00,1.33
5371.00,1.33
5370.00,1.33
5369.00,1.33
5368.00,1.33
5367.00,1.32
5366.00,1.32
5365.00,1.32
5364.00,1.32
5363.00,1.31
5362.00,1.31
5361.00,1.31
5360.00,1.30
5359.00,1.30
5358.00,1.30
5357.00,1.29
5356.00,1.29
5355.00,1.29
5354.00,1.28
5353.00,1.28
5352.00,1.27
5351.00,1.27
5350.00,1.27
5349.00,1.26
5348.00,1.26
5347.00,1.25
5346.00,1.25
5345.00,1.24
5344.00,1.24
5343.00,1.23
5342.00,1.23
5341.00,1.22
5340.00,1.21
5339.00,1.21
5338.00,1.20
5337.00,1.20
5336.00,1.19
5335.00,1.18
5334.00,1.18
5333.00,1.17
5332.00,1.17
5331.00,1.16
5330.00,1.15
5329.00,1.15
5328.00,1.14
5327.00,1.13
5326.00,1.12
5325.00,1.12
5324.00,1.11
5323.00,1.10
5322.00,1.09
5321.00,1.09
5320.00,1.08
5319.00,1.07
5318.00,1.06
5317.00,1.06
5316.00,1.05
5315.00,1.04
5314.00,1.03
5313.00,1.03
5312.00,1.02
5311.00,1.01
5310.00,1.01
5309.00,1.00
5308.00,0.99
5307.00,0.99
5306.00,0.98
5305.00,0.97
5304.00,0.97
5303.00,0.96
5302.00,0.95
5301.00,0.95
5300.00,0.94
5299.00,0.93
5298.00,0.93
5297.00,0.92
5296.00,0.92
5295.00,0.91
5294.00,0.91
5293.00,0.90
5292.00,0.89
5291.00,0.89
5290.00,0.88
5289.00,0.88
5288.00,0.87
5287.00,0.86
5286.00,0.86
5285.00,0.85
5284.00,0.85
5283.00,0.84
5282.00,0.84
5281.00,0.83
5280.00,0.82
5279.00,0.82
5278.00,0.81
5277.00,0.81
5276.00,0.80
5275.00,0.80
5274.00,0.79
5273.00,0.79
5272.00,0.78
5271.00,0.78
5270.00,0.78
5269.00,0.77
5268.00,0.77
5267.00,0.76
5266.00,0.76
5265.00,0.75
5264.00,0.75
5263.00,0.74
5262.00,0.74
5261.00,0.73
5260.00,0.73
5259.00,0.72
5258.00,0.72
5257.00,0.72
5256.00,0.71
5255.00,0.71
5254.00,0.70
5253.00,0.70
5252.00,0.70
5251.00,0.69
5250.00,0.69
5249.00,0.69
5248.00,0.68
5247.00,0.68
5246.00,0.68
5245.00,0.67
5244.00,0.67
5243.00,0.67
5242.00,0.66
5241.00,0.66
5240.00,0.66
5239.00,0.66
5238.00,0.66
5237.00,0.65
5236.00,0.65
5235.00,0.65
5234.00,0.65
5233.00,0.65
5232.00,0.65
5231.00,0.64
5230.00,0.64
5229.00,0.64
5228.00,0.64
5227.00,0.64
5226.00,0.64
5225.00,0.63
5224.00,0.63
5223.00,0.63
5222.00,0.63
5221.00,0.63
5220.00,0.63
5219.00,0.63
5218.00,0.62
5217.00,0.62
5216.00,0.62
5215.00,0.62
5214.00,0.62
5213.00,0.62
5212.00,0.62
5211.00,0.62
5210.00,0.61
5209.00,0.61
5208.00,0.61
5207.00,0.61
5206.00,0.61
5205.00,0.61
5204.00,0.61
5203.00,0.61
5202.00,0.61
5201.00,0.61
5200.00,0.60
5199.00,0.60
5198.00,0.60
5197.00,0.60
5196.00,0.60
5195.00,0.60
5194.00,0.60
5193.00,0.60
5192.00,0.60
5191.00,0.60
5190.00,0.60
5189.00,0.60
5188.00,0.60
5187.00,0.60
5186.00,0.60
5185.00,0.60
5184.00,0.60
5183.00,0.60
5182.00,0.60
5181.00,0.60
5180.00,0.60
5179.00,0.60
5178.00,0.60
5177.00,0.60
5176.00,0.60
5175.00,0.60
5174.00,0.60
5173.00,0.60
5172.00,0.60
5171.00,0.60
5170.00,0.60
5169.00,0.60
5168.00,0.60
5167.00,0.60
5166.00,0.60
5165.00,0.60
5164.00,0.60
5163.00,0.60
5162.00,0.60
5161.00,0.60
5160.00,0.60
5159.00,0.61
5158.00,0.61
5157.00,0.61
5156.00,0.61
5155.00,0.61
5154.00,0.61
5153.00,0.61
5152.00,0.61
5151.00,0.61
5150.00,0.61
5149.00,0.61
5148.00,0.61
5147.00,0.61
5146.00,0.62
5145.00,0.62
5144.00,0.62
5143.00,0.62
5142.00,0.62
5141.00,0.62
5140.00,0.62
5139.00,0.62
5138.00,0.63
5137.00,0.63
5136.00,0.63
5135.00,0.63
5134.00,0.63
5133.00,0.63
5132.00,0.63
5131.00,0.63
5130.00,0.64
5129.00,0.64
5128.00,0.64
5127.00,0.64
5126.00,0.64
5125.00,0.64
5124.00,0.64
5123.00,0.65
5122.00,0.65
5121.00,0.65
5120.00,0.65
5119.00,0.65
5118.00,0.65
5117.00,0.65
5116.00,0.66
5115.00,0.66
5114.00,0.66
5113.00,0.66
5112.00,0.66
5111.00,0.66
5110.00,0.67
5109.00,0.67
5108.00,0.67
5107.00,0.67
5106.00,0.68
5105.00,0.68
5104.00,0.68
5103.00,0.68
5102.00,0.68
5101.00,0.69
5100.00,0.69
5099.00,0.69
5098.00,0.69
5097.00,0.70
5096.00,0.70
5095.00,0.70
5094.00,0.70
5093.00,0.70
5092.00,0.70
5091.00,0.71
5090.00,0.71
5089.00,0.71
5088.00,0.71
5087.00,0.71
5086.00,0.71
5085.00,0.72
5084.00,0.72
5083.00,0.72
5082.00,0.72
5081.00,0.72
5080.00,0.72
5079.00,0.72
5078.00,0.72
5077.00,0.73
5076.00,0.73
5075.00,0.73
5074.00,0.73
5073.00,0.73
5072.00,0.73
5071.00,0.73
5070.00,0.74
5069.00,0.74
5068.00,0.74
5067.00,0.74
5066.00,0.75
5065.00,0.75
5064.00,0.75
5063.00,0.76
5062.00,0.76
5061.00,0.76
5060.00,0.76
5059.00,0.76
5058.00,0.77
5057.00,0.77
5056.00,0.77
5055.00,0.77
5054.00,0.77
5053.00,0.78
5052.00,0.78
5051.00,0.78
5050.00,0.78
5049.00,0.78
5048.00,0.79
5047.00,0.79
5046.00,0.79
5045.00,0.79
5044.00,0.79
5043.00,0.79
5042.00,0.79
5041.00,0.79
5040.00,0.79
5039.00,0.79
5038.00,0.79
5037.00,0.79
5036.00,0.79
5035.00,0.79
5034.00,0.79
5033.00,0.79
5032.00,0.79
5031.00,0.79
5030.00,0.79
5029.00,0.79
5028.00,0.79
5027.00,0.79
5026.00,0.79
5025.00,0.79
5024.00,0.79
5023.00,0.79
5022.00,0.80
5021.00,0.80
5020.00,0.80
5019.00,0.80
5018.00,0.80
5017.00,0.80
5016.00,0.80
5015.00,0.81
5014.00,0.81
5013.00,0.81
5012.00,0.81
5011.00,0.81
5010.00,0.82
5009.00,0.82
5008.00,0.82
5007.00,0.82
5006.00,0.83
5005.00,0.83
5004.00,0.83
5003.00,0.83
5002.00,0.83
5001.00,0.84
5000.00,0.84
4999.00,0.84
4998.00,0.84
4997.00,0.84
4996.00,0.85
4995.00,0.85
4994.00,0.85
4993.00,0.85
4992.00,0.86
4991.00,0.86
4990.00,0.86
4989.00,0.86
4988.00,0.86
4987.00,0.86
4986.00,0.87
4985.00,0.87
4984.00,0.87
4983.00,0.87
4982.00,0.87
4981.00,0.87
4980.00,0.88
4979.00,0.88
4978.00,0.88
4977.00,0.88
4976.00,0.89
4975.00,0.89
4974.00,0.89
4973.00,0.89
4972.00,0.90
4971.00,0.90
4970.00,0.90
4969.00,0.90
4968.00,0.90
4967.00,0.91
4966.00,0.91
4965.00,0.91
4964.00,0.92
4963.00,0.92
4962.00,0.92
4961.00,0.92
4960.00,0.93
4959.00,0.93
4958.00,0.93
4957.00,0.93
4956.00,0.94
4955.00,0.94
4954.00,0.94
4953.00,0.94
4952.00,0.94
4951.00,0.94
4950.00,0.94
4949.00,0.95
4948.00,0.95
4947.00,0.95
4946.00,0.95
4945.00,0.95
4944.00,0.95
4943.00,0.95
4942.00,0.95
4941.00,0.95
4940.00,0.95
4939.00,0.95
4938.00,0.95
4937.00,0.95
4936.00,0.95
4935.00,0.95
4934.00,0.95
4933.00,0.95
4932.00,0.95
4931.00,0.95
4930.00,0.95
4929.00,0.95
4928.00,0.95
4927.00,0.95
4926.00,0.95
4925.00,0.95
4924.00,0.95
4923.00,0.95
4922.00,0.95
4921.00,0.95
4920.00,0.95
4919.00,0.96
4918.00,0.96
4917.00,0.96
4916.00,0.96
4915.00,0.96
4914.00,0.96
4913.00,0.97
4912.00,0.97
4911.00,0.97
4910.00,0.97
4909.00,0.97
4908.00,0.97
4907.00,0.98
4906.00,0.98
4905.00,0.98
4904.00,0.98
4903.00,0.98
4902.00,0.99
4901.00,0.99
4900.00,0.99
4899.00,0.99
4898.00,1.00
4897.00,1.00
4896.00,1.00
4895.00,1.00
4894.00,1.00
4893.00,1.00
4892.00,1.00
4891.00,1.01
4890.00,1.01
4889.00,1.01
4888.00,1.01
4887.00,1.01
4886.00,1.01
4885.00,1.01
4884.00,1.01
4883.00,1.02
4882.00,1.02
4881.00,1.02
4880.00,1.02
4879.00,1.02
4878.00,1.02
4877.00,1.03
4876.00,1.03
4875.00,1.03
4874.00,1.03
4873.00,1.04
4872.00,1.04
4871.00,1.04
4870.00,1.04
4869.00,1.04
4868.00,1.05
4867.00,1.05
4866.00,1.05
4865.00,1.05
4864.00,1.05
4863.00,1.06
4862.00,1.06
4861.00,1.06
4860.00,1.06
4859.00,1.06
4858.00,1.06
4857.00,1.06
4856.00,1.06
4855.00,1.06
4854.00,1.06
4853.00,1.06
4852.00,1.06
4851.00,1.06
4850.00,1.06
4849.00,1.06
4848.00,1.06
4847.00,1.06
4846.00,1.06
4845.00,1.06
4844.00,1.06
4843.00,1.06
4842.00,1.06
4841.00,1.06
4840.00,1.06
4839.00,1.06
4838.00,1.06
4837.00,1.05
4836.00,1.06
4835.00,1.06
4834.00,1.06
4833.00,1.06
4832.00,1.06
4831.00,1.06
4830.00,1.06
4829.00,1.06
4828.00,1.06
4827.00,1.07
4826.00,1.07
4825.00,1.07
4824.00,1.07
4823.00,1.07
4822.00,1.07
4821.00,1.08
4820.00,1.08
4819.00,1.08
4818.00,1.08
4817.00,1.08
4816.00,1.08
4815.00,1.08
4814.00,1.09
4813.00,1.09
4812.00,1.09
4811.00,1.09
4810.00,1.09
4809.00,1.09
4808.00,1.09
4807.00,1.09
4806.00,1.10
4805.00,1.10
4804.00,1.10
4803.00,1.10
4802.00,1.10
4801.00,1.10
4800.00,1.10
4799.00,1.10
4798.00,1.10
4797.00,1.10
4796.00,1.10
4795.00,1.10
4794.00,1.11
4793.00,1.11
4792.00,1.11
4791.00,1.11
4790.00,1.11
4789.00,1.11
4788.00,1.12
4787.00,1.12
4786.00,1.12
4785.00,1.13
4784.00,1.13
4783.00,1.13
4782.00,1.14
4781.00,1.14
4780.00,1.14
4779.00,1.14
4778.00,1.15
4777.00,1.15
4776.00,1.15
4775.00,1.16
4774.00,1.16
4773.00,1.16
4772.00,1.16
4771.00,1.17
4770.00,1.17
4769.00,1.17
4768.00,1.18
4767.00,1.18
4766.00,1.18
4765.00,1.18
4764.00,1.19
4763.00,1.19
4762.00,1.19
4761.00,1.19
4760.00,1.19
4759.00,1.19
4758.00,1.19
4757.00,1.19
4756.00,1.19
4755.00,1.19
4754.00,1.19
4753.00,1.19
4752.00,1.19
4751.00,1.19
4750.00,1.19
4749.00,1.19
4748.00,1.19
4747.00,1.18
4746.00,1.18
4745.00,1.18
4744.00,1.18
4743.00,1.18
4742.00,1.18
4741.00,1.18
4740.00,1.18
4739.00,1.18
4738.00,1.18
4737.00,1.18
4736.00,1.18
4735.00,1.18
4734.00,1.18
4733.00,1.18
4732.00,1.18
4731.00,1.18
4730.00,1.18
4729.00,1.19
4728.00,1.19
4727.00,1.19
4726.00,1.19
4725.00,1.20
4724.00,1.20
4723.00,1.20
4722.00,1.21
4721.00,1.21
4720.00,1.21
4719.00,1.22
4718.00,1.22
4717.00,1.22
4716.00,1.22
4715.00,1.23
4714.00,1.23
4713.00,1.23
4712.00,1.23
4711.00,1.24
4710.00,1.24
4709.00,1.24
4708.00,1.25
4707.00,1.25
4706.00,1.25
4705.00,1.26
4704.00,1.26
4703.00,1.26
4702.00,1.26
4701.00,1.26
4700.00,1.27
4699.00,1.27
4698.00,1.27
4697.00,1.27
4696.00,1.27
4695.00,1.27
4694.00,1.27
4693.00,1.27
4692.00,1.28
4691.00,1.28
4690.00,1.28
4689.00,1.28
4688.00,1.28
4687.00,1.28
4686.00,1.28
4685.00,1.29
4684.00,1.29
4683.00,1.29
4682.00,1.29
4681.00,1.29
4680.00,1.29
4679.00,1.29
4678.00,1.29
4677.00,1.30
4676.00,1.30
4675.00,1.30
4674.00,1.30
4673.00,1.30
4672.00,1.30
4671.00,1.30
4670.00,1.31
4669.00,1.31
4668.00,1.31
4667.00,1.31
4666.00,1.31
4665.00,1.31
4664.00,1.31
4663.00,1.31
4662.00,1.31
4661.00,1.31
4660.00,1.32
4659.00,1.32
4658.00,1.32
4657.00,1.32
4656.00,1.31
4655.00,1.31
4654.00,1.31
4653.00,1.31
4652.00,1.31
4651.00,1.31
4650.00,1.31
4649.00,1.31
4648.00,1.31
4647.00,1.31
4646.00,1.31
4645.00,1.31
4644.00,1.31
4643.00,1.31
4642.00,1.31
4641.00,1.31
4640.00,1.31
4639.00,1.31
4638.00,1.31
4637.00,1.31
4636.00,1.31
4635.00,1.32
4634.00,1.32
4633.00,1.32
4632.00,1.32
4631.00,1.32
4630.00,1.32
4629.00,1.32
4628.00,1.32
4627.00,1.32
4626.00,1.32
4625.00,1.32
4624.00,1.32
4623.00,1.32
4622.00,1.32
4621.00,1.32
4620.00,1.32
4619.00,1.32
4618.00,1.32
4617.00,1.33
4616.00,1.33
4615.00,1.33
4614.00,1.33
4613.00,1.33
4612.00,1.33
4611.00,1.33
4610.00,1.33
4609.00,1.33
4608.00,1.33
4607.00,1.33
4606.00,1.33
4605.00,1.33
4604.00,1.33
4603.00,1.33
4602.00,1.33
4601.00,1.34
4600.00,1.34
4599.00,1.34
4598.00,1.34
4597.00,1.34
4596.00,1.34
4595.00,1.34
4594.00,1.34
4593.00,1.34
4592.00,1.35
4591.00,1.35
4590.00,1.35
4589.00,1.35
4588.00,1.35
4587.00,1.36
4586.00,1.36
4585.00,1.36
4584.00,1.36
4583.00,1.36
4582.00,1.36
4581.00,1.36
4580.00,1.37
4579.00,1.37
4578.00,1.37
4577.00,1.37
4576.00,1.37
4575.00,1.37
4574.00,1.37
4573.00,1.38
4572.00,1.38
4571.00,1.38
4570.00,1.38
4569.00,1.38
4568.00,1.38
4567.00,1.38
4566.00,1.38
4565.00,1.38
4564.00,1.39
4563.00,1.39
4562.00,1.39
4561.00,1.39
4560.00,1.38
4559.00,1.38
4558.00,1.38
4557.00,1.38
4556.00,1.38
4555.00,1.38
4554.00,1.38
4553.00,1.38
4552.00,1.38
4551.00,1.38
4550.00,1.37
4549.00,1.37
4548.00,1.37
4547.00,1.37
4546.00,1.37
4545.00,1.36
4544.00,1.36
4543.00,1.36
4542.00,1.36
4541.00,1.36
4540.00,1.35
4539.00,1.35
4538.00,1.35
4537.00,1.35
4536.00,1.35
4535.00,1.35
4534.00,1.35
4533.00,1.35
4532.00,1.35
4531.00,1.35
4530.00,1.35
4529.00,1.35
4528.00,1.35
4527.00,1.35
4526.00,1.35
4525.00,1.35
4524.00,1.36
4523.00,1.36
4522.00,1.36
4521.00,1.36
4520.00,1.36
4519.00,1.36
4518.00,1.36
4517.00,1.36
4516.00,1.36
4515.00,1.36
4514.00,1.37
4513.00,1.37
4512.00,1.36
4511.00,1.36
4510.00,1.36
4509.00,1.36
4508.00,1.36
4507.00,1.36
4506.00,1.36
4505.00,1.36
4504.00,1.36
4503.00,1.36
4502.00,1.36
4501.00,1.36
4500.00,1.36
4499.00,1.36
4498.00,1.36
4497.00,1.36
4496.00,1.36
4495.00,1.36
4494.00,1.36
4493.00,1.36
4492.00,1.36
4491.00,1.36
4490.00,1.36
4489.00,1.36
4488.00,1.36
4487.00,1.36
4486.00,1.36
4485.00,1.36
4484.00,1.36
4483.00,1.36
4482.00,1.36
4481.00,1.36
4480.00,1.36
4479.00,1.36
4478.00,1.36
4477.00,1.36
4476.00,1.36
4475.00,1.36
4474.00,1.36
4473.00,1.36
4472.00,1.36
4471.00,1.36
4470.00,1.36
4469.00,1.36
4468.00,1.36
4467.00,1.36
4466.00,1.36
4465.00,1.36
4464.00,1.36
4463.00,1.36
4462.00,1.35
4461.00,1.35
4460.00,1.35
4459.00,1.35
4458.00,1.35
4457.00,1.35
4456.00,1.35
4455.00,1.34
4454.00,1.34
4453.00,1.34
4452.00,1.34
4451.00,1.33
4450.00,1.33
4449.00,1.33
4448.00,1.32
4447.00,1.32
4446.00,1.31
4445.00,1.31
4444.00,1.30
4443.00,1.30
4442.00,1.29
4441.00,1.29
4440.00,1.28
4439.00,1.27
4438.00,1.27
4437.00,1.26
4436.00,1.25
4435.00,1.25
4434.00,1.24
4433.00,1.23
4432.00,1.22
4431.00,1.22
4430.00,1.21
4429.00,1.20
4428.00,1.19
4427.00,1.18
4426.00,1.18
4425.00,1.17
4424.00,1.16
4423.00,1.15
4422.00,1.15
4421.00,1.14
4420.00,1.13
4419.00,1.12
4418.00,1.12
4417.00,1.11
4416.00,1.11
4415.00,1.10
4414.00,1.10
4413.00,1.09
4412.00,1.09
4411.00,1.09
4410.00,1.08
4409.00,1.08
4408.00,1.08
4407.00,1.08
4406.00,1.08
4405.00,1.08
4404.00,1.08
4403.00,1.08
4402.00,1.08
4401.00,1.08
4400.00,1.08
4399.00,1.09
4398.00,1.09
4397.00,1.09
4396.00,1.10
4395.00,1.10
4394.00,1.11
4393.00,1.11
4392.00,1.12
4391.00,1.12
4390.00,1.13
4389.00,1.13
4388.00,1.14
4387.00,1.14
4386.00,1.15
4385.00,1.15
4384.00,1.16
4383.00,1.16
4382.00,1.16
4381.00,1.17
4380.00,1.17
4379.00,1.18
4378.00,1.18
4377.00,1.18
4376.00,1.19
4375.00,1.19
4374.00,1.19
4373.00,1.19
4372.00,1.19
4371.00,1.19
4370.00,1.19
4369.00,1.19
4368.00,1.19
4367.00,1.18
4366.00,1.18
4365.00,1.18
4364.00,1.18
4363.00,1.17
4362.00,1.17
4361.00,1.17
4360.00,1.17
4359.00,1.16
4358.00,1.16
4357.00,1.16
4356.00,1.15
4355.00,1.15
4354.00,1.15
4353.00,1.14
4352.00,1.14
4351.00,1.13
4350.00,1.13
4349.00,1.13
4348.00,1.13
4347.00,1.13
4346.00,1.13
4345.00,1.13
4344.00,1.13
4343.00,1.13
4342.00,1.13
4341.00,1.13
4340.00,1.14
4339.00,1.14
4338.00,1.14
4337.00,1.14
4336.00,1.15
4335.00,1.15
4334.00,1.15
4333.00,1.16
4332.00,1.16
4331.00,1.16
4330.00,1.17
4329.00,1.17
4328.00,1.18
4327.00,1.18
4326.00,1.19
4325.00,1.19
4324.00,1.20
4323.00,1.20
4322.00,1.21
4321.00,1.21
4320.00,1.22
4319.00,1.22
4318.00,1.22
4317.00,1.23
4316.00,1.23
4315.00,1.24
4314.00,1.24
4313.00,1.25
4312.00,1.25
4311.00,1.25
4310.00,1.26
4309.00,1.27
4308.00,1.27
4307.00,1.28
4306.00,1.28
4305.00,1.29
4304.00,1.29
4303.00,1.30
4302.00,1.30
4301.00,1.31
4300.00,1.31
4299.00,1.32
4298.00,1.32
4297.00,1.33
4296.00,1.33
4295.00,1.33
4294.00,1.34
4293.00,1.34
4292.00,1.34
4291.00,1.35
4290.00,1.35
4289.00,1.35
4288.00,1.35
4287.00,1.35
4286.00,1.35
4285.00,1.35
4284.00,1.35
4283.00,1.35
4282.00,1.35
4281.00,1.35
4280.00,1.34
4279.00,1.34
4278.00,1.34
4277.00,1.34
4276.00,1.33
4275.00,1.33
4274.00,1.32
4273.00,1.32
4272.00,1.32
4271.00,1.31
4270.00,1.31
4269.00,1.30
4268.00,1.30
4267.00,1.29
4266.00,1.29
4265.00,1.29
4264.00,1.28
4263.00,1.28
4262.00,1.28
4261.00,1.27
4260.00,1.27
4259.00,1.27
4258.00,1.27
4257.00,1.27
4256.00,1.27
4255.00,1.27
4254.00,1.27
4253.00,1.27
4252.00,1.27
4251.00,1.27
4250.00,1.27
4249.00,1.27
4248.00,1.28
4247.00,1.28
4246.00,1.28
4245.00,1.29
4244.00,1.29
4243.00,1.29
4242.00,1.29
4241.00,1.30
4240.00,1.30
4239.00,1.30
4238.00,1.31
4237.00,1.31
4236.00,1.31
4235.00,1.32
4234.00,1.32
4233.00,1.32
4232.00,1.32
4231.00,1.33
4230.00,1.33
4229.00,1.33
4228.00,1.33
4227.00,1.33
4226.00,1.33
4225.00,1.34
4224.00,1.34
4223.00,1.34
4222.00,1.34
4221.00,1.34
4220.00,1.34
4219.00,1.34
4218.00,1.34
4217.00,1.34
4216.00,1.34
4215.00,1.34
4214.00,1.34
4213.00,1.34
4212.00,1.34
4211.00,1.34
4210.00,1.34
4209.00,1.33
4208.00,1.33
4207.00,1.33
4206.00,1.33
4205.00,1.33
4204.00,1.33
4203.00,1.33
4202.00,1.33
4201.00,1.33
4200.00,1.33
4199.00,1.33
4198.00,1.33
4197.00,1.33
4196.00,1.33
4195.00,1.33
4194.00,1.33
4193.00,1.33
4192.00,1.33
4191.00,1.33
4190.00,1.33
4189.00,1.33
4188.00,1.33
4187.00,1.33
4186.00,1.33
4185.00,1.33
4184.00,1.33
4183.00,1.33
4182.00,1.33
4181.00,1.33
4180.00,1.33
4179.00,1.33
4178.00,1.33
4177.00,1.33
4176.00,1.33
4175.00,1.32
4174.00,1.32
4173.00,1.32
4172.00,1.32
4171.00,1.32
4170.00,1.32
4169.00,1.31
4168.00,1.31
4167.00,1.31
4166.00,1.31
4165.00,1.31
4164.00,1.30
4163.00,1.30
4162.00,1.30
4161.00,1.30
4160.00,1.30
4159.00,1.29
4158.00,1.29
4157.00,1.29
4156.00,1.29
4155.00,1.29
4154.00,1.29
4153.00,1.29
4152.00,1.29
4151.00,1.29
4150.00,1.28
4149.00,1.28
4148.00,1.28
4147.00,1.28
4146.00,1.28
4145.00,1.28
4144.00,1.28
4143.00,1.28
4142.00,1.28
4141.00,1.28
4140.00,1.28
4139.00,1.28
4138.00,1.28
4137.00,1.28
4136.00,1.27
4135.00,1.27
4134.00,1.27
4133.00,1.27
4132.00,1.27
4131.00,1.27
4130.00,1.27
4129.00,1.27
4128.00,1.27
4127.00,1.27
4126.00,1.27
4125.00,1.27
4124.00,1.27
4123.00,1.27
4122.00,1.27
4121.00,1.27
4120.00,1.27
4119.00,1.27
4118.00,1.27
4117.00,1.27
4116.00,1.27
4115.00,1.27
4114.00,1.27
4113.00,1.27
4112.00,1.26
4111.00,1.26
4110.00,1.26
4109.00,1.26
4108.00,1.26
4107.00,1.25
4106.00,1.25
4105.00,1.25
4104.00,1.24
4103.00,1.24
4102.00,1.24
4101.00,1.23
4100.00,1.23
4099.00,1.22
4098.00,1.22
4097.00,1.21
4096.00,1.21
4095.00,1.20
4094.00,1.20
4093.00,1.19
4092.00,1.19
4091.00,1.19
4090.00,1.18
4089.00,1.18
4088.00,1.18
4087.00,1.18
4086.00,1.17
4085.00,1.17
4084.00,1.17
4083.00,1.17
4082.00,1.17
4081.00,1.17
4080.00,1.17
4079.00,1.17
4078.00,1.17
4077.00,1.17
4076.00,1.17
4075.00,1.18
4074.00,1.18
4073.00,1.18
4072.00,1.18
4071.00,1.19
4070.00,1.19
4069.00,1.20
4068.00,1.20
4067.00,1.20
4066.00,1.21
4065.00,1.21
4064.00,1.21
4063.00,1.21
4062.00,1.22
4061.00,1.22
4060.00,1.22
4059.00,1.22
4058.00,1.22
4057.00,1.22
4056.00,1.23
4055.00,1.23
4054.00,1.23
4053.00,1.23
4052.00,1.23
4051.00,1.23
4050.00,1.23
4049.00,1.23
4048.00,1.23
4047.00,1.23
4046.00,1.23
4045.00,1.23
4044.00,1.23
4043.00,1.23
4042.00,1.23
4041.00,1.23
4040.00,1.23
4039.00,1.23
4038.00,1.23
4037.00,1.23
4036.00,1.23
4035.00,1.23
4034.00,1.23
4033.00,1.23
4032.00,1.23
4031.00,1.23
4030.00,1.23
4029.00,1.23
4028.00,1.23
4027.00,1.23
4026.00,1.24
4025.00,1.24
4024.00,1.24
4023.00,1.24
4022.00,1.25
4021.00,1.25
4020.00,1.25
4019.00,1.26
4018.00,1.26
4017.00,1.27
4016.00,1.27
4015.00,1.28
4014.00,1.29
4013.00,1.30
4012.00,1.30
4011.00,1.31
4010.00,1.32
4009.00,1.33
4008.00,1.34
4007.00,1.35
4006.00,1.36
4005.00,1.38
4004.00,1.39
4003.00,1.40
4002.00,1.41
4001.00,1.42
4000.00,1.44
