创建为新数据集,样品 875 用户 Administrator 日期 星期一, 七月 29 2019
cm-1,%T
10000.00,1.25
9999.00,1.25
9998.00,1.24
9997.00,1.24
9996.00,1.23
9995.00,1.23
9994.00,1.22
9993.00,1.21
9992.00,1.21
9991.00,1.20
9990.00,1.19
9989.00,1.19
9988.00,1.18
9987.00,1.17
9986.00,1.17
9985.00,1.16
9984.00,1.16
9983.00,1.15
9982.00,1.15
9981.00,1.15
9980.00,1.14
9979.00,1.14
9978.00,1.14
9977.00,1.14
9976.00,1.13
9975.00,1.13
9974.00,1.13
9973.00,1.13
9972.00,1.13
9971.00,1.12
9970.00,1.12
9969.00,1.12
9968.00,1.12
9967.00,1.12
9966.00,1.12
9965.00,1.12
9964.00,1.13
9963.00,1.13
9962.00,1.13
9961.00,1.13
9960.00,1.13
9959.00,1.13
9958.00,1.13
9957.00,1.13
9956.00,1.13
9955.00,1.13
9954.00,1.13
9953.00,1.13
9952.00,1.13
9951.00,1.13
9950.00,1.13
9949.00,1.13
9948.00,1.12
9947.00,1.12
9946.00,1.12
9945.00,1.12
9944.00,1.12
9943.00,1.11
9942.00,1.11
9941.00,1.11
9940.00,1.11
9939.00,1.11
9938.00,1.11
9937.00,1.11
9936.00,1.11
9935.00,1.11
9934.00,1.12
9933.00,1.12
9932.00,1.12
9931.00,1.12
9930.00,1.13
9929.00,1.13
9928.00,1.13
9927.00,1.13
9926.00,1.13
9925.00,1.13
9924.00,1.13
9923.00,1.13
9922.00,1.13
9921.00,1.13
9920.00,1.13
9919.00,1.13
9918.00,1.13
9917.00,1.14
9916.00,1.14
9915.00,1.15
9914.00,1.15
9913.00,1.15
9912.00,1.16
9911.00,1.16
9910.00,1.16
9909.00,1.16
9908.00,1.16
9907.00,1.16
9906.00,1.16
9905.00,1.16
9904.00,1.16
9903.00,1.16
9902.00,1.16
9901.00,1.16
9900.00,1.17
9899.00,1.17
9898.00,1.17
9897.00,1.18
9896.00,1.18
9895.00,1.19
9894.00,1.19
9893.00,1.19
9892.00,1.20
9891.00,1.20
9890.00,1.20
9889.00,1.19
9888.00,1.19
9887.00,1.19
9886.00,1.19
9885.00,1.19
9884.00,1.19
9883.00,1.18
9882.00,1.18
9881.00,1.18
9880.00,1.18
9879.00,1.17
9878.00,1.17
9877.00,1.16
9876.00,1.16
9875.00,1.15
9874.00,1.14
9873.00,1.13
9872.00,1.12
9871.00,1.11
9870.00,1.10
9869.00,1.09
9868.00,1.08
9867.00,1.07
9866.00,1.06
9865.00,1.05
9864.00,1.04
9863.00,1.03
9862.00,1.02
9861.00,1.01
9860.00,1.00
9859.00,0.99
9858.00,0.98
9857.00,0.97
9856.00,0.96
9855.00,0.95
9854.00,0.94
9853.00,0.94
9852.00,0.93
9851.00,0.92
9850.00,0.92
9849.00,0.92
9848.00,0.91
9847.00,0.91
9846.00,0.91
9845.00,0.91
9844.00,0.92
9843.00,0.92
9842.00,0.92
9841.00,0.92
9840.00,0.93
9839.00,0.93
9838.00,0.93
9837.00,0.93
9836.00,0.94
9835.00,0.94
9834.00,0.94
9833.00,0.95
9832.00,0.95
9831.00,0.96
9830.00,0.96
9829.00,0.97
9828.00,0.97
9827.00,0.98
9826.00,0.99
9825.00,0.99
9824.00,0.99
9823.00,0.99
9822.00,0.99
9821.00,0.99
9820.00,0.99
9819.00,0.99
9818.00,0.99
9817.00,0.99
9816.00,0.98
9815.00,0.98
9814.00,0.98
9813.00,0.97
9812.00,0.97
9811.00,0.97
9810.00,0.97
9809.00,0.97
9808.00,0.97
9807.00,0.97
9806.00,0.97
9805.00,0.97
9804.00,0.96
9803.00,0.96
9802.00,0.96
9801.00,0.96
9800.00,0.95
9799.00,0.95
9798.00,0.95
9797.00,0.95
9796.00,0.95
9795.00,0.95
9794.00,0.95
9793.00,0.95
9792.00,0.96
9791.00,0.96
9790.00,0.97
9789.00,0.97
9788.00,0.98
9787.00,0.98
9786.00,0.98
9785.00,0.99
9784.00,0.99
9783.00,0.99
9782.00,1.00
9781.00,1.00
9780.00,1.00
9779.00,1.00
9778.00,1.01
9777.00,1.01
9776.00,1.01
9775.00,1.02
9774.00,1.02
9773.00,1.02
9772.00,1.03
9771.00,1.03
9770.00,1.03
9769.00,1.04
9768.00,1.04
9767.00,1.04
9766.00,1.04
9765.00,1.04
9764.00,1.04
9763.00,1.04
9762.00,1.04
9761.00,1.04
9760.00,1.04
9759.00,1.04
9758.00,1.04
9757.00,1.04
9756.00,1.04
9755.00,1.04
9754.00,1.04
9753.00,1.04
9752.00,1.03
9751.00,1.03
9750.00,1.03
9749.00,1.03
9748.00,1.02
9747.00,1.02
9746.00,1.01
9745.00,1.01
9744.00,1.00
9743.00,1.00
9742.00,0.99
9741.00,0.99
9740.00,0.98
9739.00,0.98
9738.00,0.98
9737.00,0.97
9736.00,0.97
9735.00,0.97
9734.00,0.96
9733.00,0.96
9732.00,0.96
9731.00,0.96
9730.00,0.95
9729.00,0.95
9728.00,0.95
9727.00,0.95
9726.00,0.95
9725.00,0.96
9724.00,0.96
9723.00,0.97
9722.00,0.97
9721.00,0.98
9720.00,0.98
9719.00,0.99
9718.00,0.99
9717.00,1.00
9716.00,1.01
9715.00,1.01
9714.00,1.02
9713.00,1.03
9712.00,1.03
9711.00,1.04
9710.00,1.04
9709.00,1.05
9708.00,1.05
9707.00,1.06
9706.00,1.06
9705.00,1.07
9704.00,1.07
9703.00,1.07
9702.00,1.07
9701.00,1.07
9700.00,1.07
9699.00,1.07
9698.00,1.07
9697.00,1.07
9696.00,1.06
9695.00,1.06
9694.00,1.06
9693.00,1.05
9692.00,1.05
9691.00,1.05
9690.00,1.04
9689.00,1.03
9688.00,1.03
9687.00,1.02
9686.00,1.01
9685.00,1.01
9684.00,1.00
9683.00,0.99
9682.00,0.99
9681.00,0.98
9680.00,0.98
9679.00,0.97
9678.00,0.97
9677.00,0.96
9676.00,0.96
9675.00,0.95
9674.00,0.95
9673.00,0.94
9672.00,0.94
9671.00,0.93
9670.00,0.93
9669.00,0.92
9668.00,0.92
9667.00,0.92
9666.00,0.92
9665.00,0.91
9664.00,0.91
9663.00,0.91
9662.00,0.91
9661.00,0.91
9660.00,0.91
9659.00,0.91
9658.00,0.91
9657.00,0.91
9656.00,0.91
9655.00,0.91
9654.00,0.91
9653.00,0.91
9652.00,0.91
9651.00,0.92
9650.00,0.92
9649.00,0.92
9648.00,0.93
9647.00,0.93
9646.00,0.94
9645.00,0.95
9644.00,0.95
9643.00,0.96
9642.00,0.97
9641.00,0.98
9640.00,0.99
9639.00,0.99
9638.00,1.00
9637.00,1.01
9636.00,1.02
9635.00,1.02
9634.00,1.03
9633.00,1.04
9632.00,1.05
9631.00,1.06
9630.00,1.06
9629.00,1.07
9628.00,1.08
9627.00,1.08
9626.00,1.09
9625.00,1.10
9624.00,1.10
9623.00,1.10
9622.00,1.10
9621.00,1.10
9620.00,1.10
9619.00,1.10
9618.00,1.09
9617.00,1.09
9616.00,1.08
9615.00,1.07
9614.00,1.07
9613.00,1.06
9612.00,1.05
9611.00,1.04
9610.00,1.03
9609.00,1.02
9608.00,1.02
9607.00,1.01
9606.00,1.00
9605.00,0.99
9604.00,0.99
9603.00,0.98
9602.00,0.98
9601.00,0.97
9600.00,0.97
9599.00,0.97
9598.00,0.97
9597.00,0.96
9596.00,0.96
9595.00,0.96
9594.00,0.96
9593.00,0.96
9592.00,0.96
9591.00,0.96
9590.00,0.97
9589.00,0.97
9588.00,0.97
9587.00,0.97
9586.00,0.98
9585.00,0.98
9584.00,0.99
9583.00,0.99
9582.00,0.99
9581.00,0.99
9580.00,1.00
9579.00,1.00
9578.00,1.00
9577.00,1.00
9576.00,1.00
9575.00,0.99
9574.00,0.99
9573.00,0.99
9572.00,0.99
9571.00,0.98
9570.00,0.98
9569.00,0.98
9568.00,0.98
9567.00,0.98
9566.00,0.98
9565.00,0.99
9564.00,0.99
9563.00,0.99
9562.00,1.00
9561.00,1.00
9560.00,1.01
9559.00,1.02
9558.00,1.02
9557.00,1.03
9556.00,1.03
9555.00,1.04
9554.00,1.05
9553.00,1.06
9552.00,1.06
9551.00,1.07
9550.00,1.08
9549.00,1.09
9548.00,1.10
9547.00,1.11
9546.00,1.12
9545.00,1.14
9544.00,1.15
9543.00,1.16
9542.00,1.17
9541.00,1.18
9540.00,1.18
9539.00,1.19
9538.00,1.19
9537.00,1.20
9536.00,1.20
9535.00,1.20
9534.00,1.20
9533.00,1.20
9532.00,1.20
9531.00,1.20
9530.00,1.20
9529.00,1.20
9528.00,1.20
9527.00,1.20
9526.00,1.20
9525.00,1.20
9524.00,1.20
9523.00,1.19
9522.00,1.19
9521.00,1.19
9520.00,1.19
9519.00,1.18
9518.00,1.18
9517.00,1.18
9516.00,1.18
9515.00,1.18
9514.00,1.17
9513.00,1.17
9512.00,1.17
9511.00,1.17
9510.00,1.17
9509.00,1.17
9508.00,1.16
9507.00,1.16
9506.00,1.16
9505.00,1.16
9504.00,1.16
9503.00,1.16
9502.00,1.15
9501.00,1.15
9500.00,1.15
9499.00,1.15
9498.00,1.15
9497.00,1.14
9496.00,1.14
9495.00,1.14
9494.00,1.13
9493.00,1.13
9492.00,1.12
9491.00,1.11
9490.00,1.10
9489.00,1.09
9488.00,1.08
9487.00,1.08
9486.00,1.07
9485.00,1.06
9484.00,1.05
9483.00,1.04
9482.00,1.04
9481.00,1.03
9480.00,1.03
9479.00,1.02
9478.00,1.02
9477.00,1.01
9476.00,1.01
9475.00,1.01
9474.00,1.00
9473.00,1.00
9472.00,1.00
9471.00,1.00
9470.00,1.00
9469.00,1.00
9468.00,1.00
9467.00,1.00
9466.00,1.00
9465.00,1.00
9464.00,1.01
9463.00,1.01
9462.00,1.02
9461.00,1.03
9460.00,1.03
9459.00,1.04
9458.00,1.05
9457.00,1.05
9456.00,1.06
9455.00,1.06
9454.00,1.07
9453.00,1.07
9452.00,1.07
9451.00,1.07
9450.00,1.07
9449.00,1.07
9448.00,1.07
9447.00,1.07
9446.00,1.07
9445.00,1.07
9444.00,1.07
9443.00,1.07
9442.00,1.07
9441.00,1.07
9440.00,1.07
9439.00,1.06
9438.00,1.06
9437.00,1.06
9436.00,1.05
9435.00,1.05
9434.00,1.04
9433.00,1.04
9432.00,1.03
9431.00,1.02
9430.00,1.02
9429.00,1.01
9428.00,1.01
9427.00,1.00
9426.00,1.00
9425.00,0.99
9424.00,0.99
9423.00,0.99
9422.00,0.98
9421.00,0.98
9420.00,0.98
9419.00,0.98
9418.00,0.98
9417.00,0.98
9416.00,0.98
9415.00,0.98
9414.00,0.98
9413.00,0.98
9412.00,0.98
9411.00,0.98
9410.00,0.99
9409.00,0.99
9408.00,0.99
9407.00,1.00
9406.00,1.00
9405.00,1.00
9404.00,1.01
9403.00,1.01
9402.00,1.02
9401.00,1.02
9400.00,1.03
9399.00,1.03
9398.00,1.04
9397.00,1.04
9396.00,1.05
9395.00,1.05
9394.00,1.06
9393.00,1.06
9392.00,1.07
9391.00,1.07
9390.00,1.07
9389.00,1.08
9388.00,1.08
9387.00,1.08
9386.00,1.09
9385.00,1.09
9384.00,1.09
9383.00,1.09
9382.00,1.10
9381.00,1.10
9380.00,1.11
9379.00,1.11
9378.00,1.11
9377.00,1.12
9376.00,1.12
9375.00,1.12
9374.00,1.12
9373.00,1.12
9372.00,1.12
9371.00,1.12
9370.00,1.12
9369.00,1.12
9368.00,1.12
9367.00,1.12
9366.00,1.12
9365.00,1.12
9364.00,1.12
9363.00,1.12
9362.00,1.12
9361.00,1.12
9360.00,1.12
9359.00,1.12
9358.00,1.12
9357.00,1.12
9356.00,1.12
9355.00,1.12
9354.00,1.12
9353.00,1.12
9352.00,1.12
9351.00,1.12
9350.00,1.12
9349.00,1.12
9348.00,1.12
9347.00,1.12
9346.00,1.12
9345.00,1.12
9344.00,1.12
9343.00,1.12
9342.00,1.12
9341.00,1.12
9340.00,1.12
9339.00,1.12
9338.00,1.12
9337.00,1.12
9336.00,1.12
9335.00,1.11
9334.00,1.11
9333.00,1.11
9332.00,1.11
9331.00,1.11
9330.00,1.11
9329.00,1.11
9328.00,1.11
9327.00,1.11
9326.00,1.11
9325.00,1.11
9324.00,1.11
9323.00,1.11
9322.00,1.11
9321.00,1.11
9320.00,1.12
9319.00,1.12
9318.00,1.12
9317.00,1.13
9316.00,1.13
9315.00,1.13
9314.00,1.14
9313.00,1.14
9312.00,1.15
9311.00,1.15
9310.00,1.15
9309.00,1.15
9308.00,1.15
9307.00,1.15
9306.00,1.16
9305.00,1.15
9304.00,1.15
9303.00,1.15
9302.00,1.15
9301.00,1.15
9300.00,1.15
9299.00,1.14
9298.00,1.14
9297.00,1.14
9296.00,1.14
9295.00,1.13
9294.00,1.13
9293.00,1.13
9292.00,1.12
9291.00,1.12
9290.00,1.12
9289.00,1.12
9288.00,1.12
9287.00,1.12
9286.00,1.12
9285.00,1.12
9284.00,1.12
9283.00,1.12
9282.00,1.12
9281.00,1.12
9280.00,1.13
9279.00,1.13
9278.00,1.13
9277.00,1.13
9276.00,1.14
9275.00,1.14
9274.00,1.14
9273.00,1.14
9272.00,1.14
9271.00,1.14
9270.00,1.14
9269.00,1.14
9268.00,1.14
9267.00,1.14
9266.00,1.14
9265.00,1.14
9264.00,1.13
9263.00,1.13
9262.00,1.13
9261.00,1.12
9260.00,1.12
9259.00,1.11
9258.00,1.11
9257.00,1.10
9256.00,1.10
9255.00,1.09
9254.00,1.09
9253.00,1.09
9252.00,1.08
9251.00,1.08
9250.00,1.08
9249.00,1.08
9248.00,1.08
9247.00,1.08
9246.00,1.08
9245.00,1.08
9244.00,1.08
9243.00,1.08
9242.00,1.08
9241.00,1.08
9240.00,1.08
9239.00,1.08
9238.00,1.09
9237.00,1.09
9236.00,1.09
9235.00,1.09
9234.00,1.09
9233.00,1.09
9232.00,1.09
9231.00,1.09
9230.00,1.09
9229.00,1.09
9228.00,1.09
9227.00,1.09
9226.00,1.09
9225.00,1.08
9224.00,1.08
9223.00,1.08
9222.00,1.08
9221.00,1.07
9220.00,1.07
9219.00,1.07
9218.00,1.06
9217.00,1.06
9216.00,1.06
9215.00,1.06
9214.00,1.06
9213.00,1.06
9212.00,1.06
9211.00,1.06
9210.00,1.06
9209.00,1.06
9208.00,1.07
9207.00,1.07
9206.00,1.07
9205.00,1.08
9204.00,1.08
9203.00,1.09
9202.00,1.10
9201.00,1.10
9200.00,1.11
9199.00,1.11
9198.00,1.12
9197.00,1.12
9196.00,1.13
9195.00,1.14
9194.00,1.15
9193.00,1.15
9192.00,1.16
9191.00,1.17
9190.00,1.18
9189.00,1.18
9188.00,1.19
9187.00,1.19
9186.00,1.20
9185.00,1.20
9184.00,1.20
9183.00,1.20
9182.00,1.20
9181.00,1.20
9180.00,1.20
9179.00,1.20
9178.00,1.19
9177.00,1.19
9176.00,1.19
9175.00,1.18
9174.00,1.18
9173.00,1.18
9172.00,1.17
9171.00,1.17
9170.00,1.16
9169.00,1.16
9168.00,1.15
9167.00,1.15
9166.00,1.14
9165.00,1.13
9164.00,1.13
9163.00,1.12
9162.00,1.11
9161.00,1.11
9160.00,1.10
9159.00,1.09
9158.00,1.09
9157.00,1.08
9156.00,1.08
9155.00,1.08
9154.00,1.07
9153.00,1.07
9152.00,1.07
9151.00,1.06
9150.00,1.06
9149.00,1.06
9148.00,1.05
9147.00,1.05
9146.00,1.05
9145.00,1.04
9144.00,1.04
9143.00,1.04
9142.00,1.03
9141.00,1.03
9140.00,1.03
9139.00,1.03
9138.00,1.03
9137.00,1.03
9136.00,1.03
9135.00,1.04
9134.00,1.04
9133.00,1.04
9132.00,1.04
9131.00,1.04
9130.00,1.04
9129.00,1.04
9128.00,1.04
9127.00,1.04
9126.00,1.04
9125.00,1.04
9124.00,1.04
9123.00,1.04
9122.00,1.05
9121.00,1.05
9120.00,1.05
9119.00,1.06
9118.00,1.06
9117.00,1.06
9116.00,1.07
9115.00,1.07
9114.00,1.07
9113.00,1.08
9112.00,1.08
9111.00,1.08
9110.00,1.08
9109.00,1.08
9108.00,1.08
9107.00,1.08
9106.00,1.09
9105.00,1.09
9104.00,1.09
9103.00,1.09
9102.00,1.10
9101.00,1.10
9100.00,1.10
9099.00,1.10
9098.00,1.11
9097.00,1.11
9096.00,1.12
9095.00,1.12
9094.00,1.12
9093.00,1.13
9092.00,1.13
9091.00,1.13
9090.00,1.14
9089.00,1.14
9088.00,1.14
9087.00,1.14
9086.00,1.14
9085.00,1.15
9084.00,1.15
9083.00,1.15
9082.00,1.15
9081.00,1.16
9080.00,1.16
9079.00,1.16
9078.00,1.16
9077.00,1.16
9076.00,1.17
9075.00,1.17
9074.00,1.17
9073.00,1.17
9072.00,1.17
9071.00,1.17
9070.00,1.17
9069.00,1.17
9068.00,1.17
9067.00,1.17
9066.00,1.17
9065.00,1.17
9064.00,1.16
9063.00,1.16
9062.00,1.16
9061.00,1.16
9060.00,1.15
9059.00,1.15
9058.00,1.15
9057.00,1.15
9056.00,1.15
9055.00,1.15
9054.00,1.14
9053.00,1.14
9052.00,1.14
9051.00,1.14
9050.00,1.14
9049.00,1.13
9048.00,1.13
9047.00,1.13
9046.00,1.12
9045.00,1.12
9044.00,1.12
9043.00,1.12
9042.00,1.12
9041.00,1.11
9040.00,1.11
9039.00,1.11
9038.00,1.11
9037.00,1.11
9036.00,1.11
9035.00,1.11
9034.00,1.10
9033.00,1.10
9032.00,1.10
9031.00,1.10
9030.00,1.10
9029.00,1.10
9028.00,1.10
9027.00,1.10
9026.00,1.10
9025.00,1.10
9024.00,1.10
9023.00,1.10
9022.00,1.10
9021.00,1.11
9020.00,1.11
9019.00,1.11
9018.00,1.11
9017.00,1.11
9016.00,1.12
9015.00,1.12
9014.00,1.12
9013.00,1.12
9012.00,1.12
9011.00,1.13
9010.00,1.13
9009.00,1.13
9008.00,1.14
9007.00,1.14
9006.00,1.14
9005.00,1.14
9004.00,1.14
9003.00,1.14
9002.00,1.14
9001.00,1.14
9000.00,1.14
8999.00,1.14
8998.00,1.14
8997.00,1.14
8996.00,1.14
8995.00,1.13
8994.00,1.13
8993.00,1.13
8992.00,1.12
8991.00,1.12
8990.00,1.11
8989.00,1.10
8988.00,1.10
8987.00,1.09
8986.00,1.08
8985.00,1.07
8984.00,1.06
8983.00,1.06
8982.00,1.05
8981.00,1.04
8980.00,1.03
8979.00,1.03
8978.00,1.02
8977.00,1.01
8976.00,1.01
8975.00,1.00
8974.00,1.00
8973.00,0.99
8972.00,0.99
8971.00,0.98
8970.00,0.98
8969.00,0.98
8968.00,0.98
8967.00,0.98
8966.00,0.98
8965.00,0.98
8964.00,0.98
8963.00,0.98
8962.00,0.99
8961.00,0.99
8960.00,1.00
8959.00,1.00
8958.00,1.01
8957.00,1.01
8956.00,1.02
8955.00,1.02
8954.00,1.03
8953.00,1.03
8952.00,1.04
8951.00,1.04
8950.00,1.04
8949.00,1.04
8948.00,1.05
8947.00,1.05
8946.00,1.05
8945.00,1.05
8944.00,1.05
8943.00,1.05
8942.00,1.05
8941.00,1.05
8940.00,1.05
8939.00,1.05
8938.00,1.04
8937.00,1.04
8936.00,1.04
8935.00,1.04
8934.00,1.03
8933.00,1.03
8932.00,1.03
8931.00,1.03
8930.00,1.03
8929.00,1.03
8928.00,1.03
8927.00,1.03
8926.00,1.03
8925.00,1.04
8924.00,1.04
8923.00,1.05
8922.00,1.05
8921.00,1.06
8920.00,1.06
8919.00,1.07
8918.00,1.07
8917.00,1.08
8916.00,1.08
8915.00,1.09
8914.00,1.10
8913.00,1.10
8912.00,1.10
8911.00,1.11
8910.00,1.11
8909.00,1.11
8908.00,1.11
8907.00,1.11
8906.00,1.11
8905.00,1.11
8904.00,1.11
8903.00,1.10
8902.00,1.10
8901.00,1.09
8900.00,1.09
8899.00,1.08
8898.00,1.08
8897.00,1.07
8896.00,1.06
8895.00,1.06
8894.00,1.05
8893.00,1.04
8892.00,1.04
8891.00,1.03
8890.00,1.03
8889.00,1.02
8888.00,1.02
8887.00,1.02
8886.00,1.01
8885.00,1.01
8884.00,1.01
8883.00,1.01
8882.00,1.01
8881.00,1.01
8880.00,1.01
8879.00,1.01
8878.00,1.01
8877.00,1.02
8876.00,1.02
8875.00,1.03
8874.00,1.03
8873.00,1.04
8872.00,1.04
8871.00,1.05
8870.00,1.06
8869.00,1.06
8868.00,1.07
8867.00,1.07
8866.00,1.08
8865.00,1.08
8864.00,1.09
8863.00,1.09
8862.00,1.10
8861.00,1.10
8860.00,1.10
8859.00,1.11
8858.00,1.11
8857.00,1.11
8856.00,1.12
8855.00,1.12
8854.00,1.12
8853.00,1.13
8852.00,1.13
8851.00,1.13
8850.00,1.13
8849.00,1.13
8848.00,1.13
8847.00,1.12
8846.00,1.12
8845.00,1.12
8844.00,1.11
8843.00,1.11
8842.00,1.10
8841.00,1.10
8840.00,1.09
8839.00,1.09
8838.00,1.08
8837.00,1.08
8836.00,1.07
8835.00,1.07
8834.00,1.07
8833.00,1.06
8832.00,1.06
8831.00,1.06
8830.00,1.05
8829.00,1.05
8828.00,1.05
8827.00,1.05
8826.00,1.05
8825.00,1.05
8824.00,1.05
8823.00,1.05
8822.00,1.05
8821.00,1.05
8820.00,1.06
8819.00,1.06
8818.00,1.07
8817.00,1.07
8816.00,1.08
8815.00,1.08
8814.00,1.09
8813.00,1.10
8812.00,1.10
8811.00,1.11
8810.00,1.12
8809.00,1.13
8808.00,1.13
8807.00,1.14
8806.00,1.15
8805.00,1.15
8804.00,1.16
8803.00,1.17
8802.00,1.17
8801.00,1.17
8800.00,1.18
8799.00,1.18
8798.00,1.18
8797.00,1.19
8796.00,1.19
8795.00,1.19
8794.00,1.19
8793.00,1.19
8792.00,1.19
8791.00,1.19
8790.00,1.19
8789.00,1.19
8788.00,1.19
8787.00,1.18
8786.00,1.18
8785.00,1.17
8784.00,1.17
8783.00,1.16
8782.00,1.16
8781.00,1.15
8780.00,1.14
8779.00,1.14
8778.00,1.13
8777.00,1.13
8776.00,1.12
8775.00,1.11
8774.00,1.11
8773.00,1.10
8772.00,1.10
8771.00,1.09
8770.00,1.09
8769.00,1.08
8768.00,1.08
8767.00,1.07
8766.00,1.07
8765.00,1.07
8764.00,1.06
8763.00,1.06
8762.00,1.06
8761.00,1.06
8760.00,1.06
8759.00,1.06
8758.00,1.05
8757.00,1.05
8756.00,1.05
8755.00,1.05
8754.00,1.06
8753.00,1.06
8752.00,1.06
8751.00,1.06
8750.00,1.06
8749.00,1.06
8748.00,1.06
8747.00,1.06
8746.00,1.06
8745.00,1.06
8744.00,1.06
8743.00,1.07
8742.00,1.07
8741.00,1.07
8740.00,1.07
8739.00,1.07
8738.00,1.08
8737.00,1.08
8736.00,1.08
8735.00,1.08
8734.00,1.09
8733.00,1.09
8732.00,1.09
8731.00,1.09
8730.00,1.10
8729.00,1.10
8728.00,1.10
8727.00,1.10
8726.00,1.10
8725.00,1.10
8724.00,1.10
8723.00,1.10
8722.00,1.09
8721.00,1.09
8720.00,1.09
8719.00,1.09
8718.00,1.09
8717.00,1.09
8716.00,1.08
8715.00,1.08
8714.00,1.07
8713.00,1.07
8712.00,1.07
8711.00,1.06
8710.00,1.05
8709.00,1.05
8708.00,1.04
8707.00,1.03
8706.00,1.03
8705.00,1.02
8704.00,1.02
8703.00,1.01
8702.00,1.00
8701.00,1.00
8700.00,0.99
8699.00,0.99
8698.00,0.99
8697.00,0.98
8696.00,0.98
8695.00,0.97
8694.00,0.97
8693.00,0.96
8692.00,0.96
8691.00,0.95
8690.00,0.95
8689.00,0.95
8688.00,0.94
8687.00,0.94
8686.00,0.94
8685.00,0.93
8684.00,0.93
8683.00,0.93
8682.00,0.93
8681.00,0.93
8680.00,0.93
8679.00,0.92
8678.00,0.92
8677.00,0.92
8676.00,0.92
8675.00,0.92
8674.00,0.92
8673.00,0.92
8672.00,0.92
8671.00,0.92
8670.00,0.92
8669.00,0.92
8668.00,0.92
8667.00,0.92
8666.00,0.93
8665.00,0.93
8664.00,0.93
8663.00,0.94
8662.00,0.94
8661.00,0.94
8660.00,0.95
8659.00,0.95
8658.00,0.96
8657.00,0.96
8656.00,0.96
8655.00,0.97
8654.00,0.97
8653.00,0.98
8652.00,0.98
8651.00,0.98
8650.00,0.99
8649.00,0.99
8648.00,1.00
8647.00,1.00
8646.00,1.01
8645.00,1.01
8644.00,1.02
8643.00,1.02
8642.00,1.02
8641.00,1.03
8640.00,1.03
8639.00,1.03
8638.00,1.03
8637.00,1.03
8636.00,1.03
8635.00,1.03
8634.00,1.03
8633.00,1.03
8632.00,1.03
8631.00,1.03
8630.00,1.03
8629.00,1.03
8628.00,1.03
8627.00,1.03
8626.00,1.02
8625.00,1.02
8624.00,1.02
8623.00,1.02
8622.00,1.02
8621.00,1.02
8620.00,1.01
8619.00,1.01
8618.00,1.01
8617.00,1.01
8616.00,1.01
8615.00,1.01
8614.00,1.01
8613.00,1.01
8612.00,1.02
8611.00,1.02
8610.00,1.02
8609.00,1.03
8608.00,1.03
8607.00,1.04
8606.00,1.04
8605.00,1.04
8604.00,1.05
8603.00,1.05
8602.00,1.06
8601.00,1.06
8600.00,1.06
8599.00,1.07
8598.00,1.07
8597.00,1.07
8596.00,1.07
8595.00,1.08
8594.00,1.08
8593.00,1.08
8592.00,1.08
8591.00,1.08
8590.00,1.09
8589.00,1.09
8588.00,1.09
8587.00,1.09
8586.00,1.09
8585.00,1.08
8584.00,1.08
8583.00,1.08
8582.00,1.07
8581.00,1.06
8580.00,1.06
8579.00,1.05
8578.00,1.05
8577.00,1.04
8576.00,1.04
8575.00,1.03
8574.00,1.03
8573.00,1.02
8572.00,1.02
8571.00,1.01
8570.00,1.01
8569.00,1.01
8568.00,1.01
8567.00,1.00
8566.00,1.00
8565.00,0.99
8564.00,0.99
8563.00,0.98
8562.00,0.98
8561.00,0.98
8560.00,0.97
8559.00,0.97
8558.00,0.97
8557.00,0.97
8556.00,0.97
8555.00,0.97
8554.00,0.97
8553.00,0.98
8552.00,0.98
8551.00,0.98
8550.00,0.99
8549.00,0.99
8548.00,0.99
8547.00,1.00
8546.00,1.00
8545.00,1.00
8544.00,1.00
8543.00,1.01
8542.00,1.01
8541.00,1.01
8540.00,1.01
8539.00,1.01
8538.00,1.02
8537.00,1.02
8536.00,1.02
8535.00,1.02
8534.00,1.03
8533.00,1.03
8532.00,1.03
8531.00,1.03
8530.00,1.03
8529.00,1.03
8528.00,1.03
8527.00,1.03
8526.00,1.03
8525.00,1.02
8524.00,1.02
8523.00,1.02
8522.00,1.02
8521.00,1.02
8520.00,1.02
8519.00,1.01
8518.00,1.01
8517.00,1.01
8516.00,1.01
8515.00,1.01
8514.00,1.01
8513.00,1.01
8512.00,1.01
8511.00,1.01
8510.00,1.01
8509.00,1.01
8508.00,1.01
8507.00,1.01
8506.00,1.01
8505.00,1.01
8504.00,1.01
8503.00,1.01
8502.00,1.01
8501.00,1.01
8500.00,1.01
8499.00,1.01
8498.00,1.01
8497.00,1.01
8496.00,1.01
8495.00,1.00
8494.00,1.00
8493.00,1.00
8492.00,1.00
8491.00,1.00
8490.00,0.99
8489.00,0.99
8488.00,0.99
8487.00,0.98
8486.00,0.98
8485.00,0.98
8484.00,0.98
8483.00,0.98
8482.00,0.97
8481.00,0.97
8480.00,0.97
8479.00,0.97
8478.00,0.96
8477.00,0.96
8476.00,0.96
8475.00,0.95
8474.00,0.95
8473.00,0.95
8472.00,0.94
8471.00,0.94
8470.00,0.94
8469.00,0.94
8468.00,0.94
8467.00,0.94
8466.00,0.94
8465.00,0.94
8464.00,0.94
8463.00,0.94
8462.00,0.94
8461.00,0.94
8460.00,0.94
8459.00,0.94
8458.00,0.94
8457.00,0.93
8456.00,0.93
8455.00,0.93
8454.00,0.93
8453.00,0.93
8452.00,0.93
8451.00,0.93
8450.00,0.93
8449.00,0.93
8448.00,0.93
8447.00,0.93
8446.00,0.93
8445.00,0.93
8444.00,0.93
8443.00,0.93
8442.00,0.93
8441.00,0.93
8440.00,0.94
8439.00,0.94
8438.00,0.94
8437.00,0.94
8436.00,0.95
8435.00,0.95
8434.00,0.95
8433.00,0.95
8432.00,0.96
8431.00,0.96
8430.00,0.96
8429.00,0.97
8428.00,0.97
8427.00,0.97
8426.00,0.98
8425.00,0.98
8424.00,0.98
8423.00,0.99
8422.00,0.99
8421.00,0.99
8420.00,1.00
8419.00,1.00
8418.00,1.00
8417.00,1.01
8416.00,1.01
8415.00,1.01
8414.00,1.01
8413.00,1.01
8412.00,1.01
8411.00,1.01
8410.00,1.01
8409.00,1.00
8408.00,1.00
8407.00,1.00
8406.00,0.99
8405.00,0.99
8404.00,0.99
8403.00,0.99
8402.00,0.98
8401.00,0.98
8400.00,0.98
8399.00,0.97
8398.00,0.97
8397.00,0.97
8396.00,0.96
8395.00,0.96
8394.00,0.95
8393.00,0.95
8392.00,0.95
8391.00,0.94
8390.00,0.94
8389.00,0.93
8388.00,0.93
8387.00,0.92
8386.00,0.92
8385.00,0.92
8384.00,0.92
8383.00,0.92
8382.00,0.92
8381.00,0.92
8380.00,0.92
8379.00,0.92
8378.00,0.93
8377.00,0.93
8376.00,0.93
8375.00,0.93
8374.00,0.93
8373.00,0.93
8372.00,0.94
8371.00,0.94
8370.00,0.94
8369.00,0.94
8368.00,0.95
8367.00,0.95
8366.00,0.95
8365.00,0.96
8364.00,0.96
8363.00,0.97
8362.00,0.97
8361.00,0.98
8360.00,0.98
8359.00,0.99
8358.00,1.00
8357.00,1.00
8356.00,1.00
8355.00,1.01
8354.00,1.01
8353.00,1.02
8352.00,1.02
8351.00,1.02
8350.00,1.02
8349.00,1.03
8348.00,1.03
8347.00,1.03
8346.00,1.03
8345.00,1.04
8344.00,1.04
8343.00,1.04
8342.00,1.04
8341.00,1.04
8340.00,1.05
8339.00,1.05
8338.00,1.05
8337.00,1.05
8336.00,1.05
8335.00,1.05
8334.00,1.05
8333.00,1.05
8332.00,1.04
8331.00,1.04
8330.00,1.04
8329.00,1.04
8328.00,1.04
8327.00,1.04
8326.00,1.03
8325.00,1.03
8324.00,1.03
8323.00,1.03
8322.00,1.03
8321.00,1.03
8320.00,1.03
8319.00,1.03
8318.00,1.03
8317.00,1.02
8316.00,1.02
8315.00,1.02
8314.00,1.02
8313.00,1.01
8312.00,1.01
8311.00,1.01
8310.00,1.01
8309.00,1.01
8308.00,1.00
8307.00,1.00
8306.00,1.00
8305.00,1.00
8304.00,1.00
8303.00,1.00
8302.00,1.00
8301.00,0.99
8300.00,0.99
8299.00,0.99
8298.00,0.99
8297.00,0.99
8296.00,0.99
8295.00,0.99
8294.00,0.99
8293.00,0.98
8292.00,0.98
8291.00,0.98
8290.00,0.98
8289.00,0.98
8288.00,0.98
8287.00,0.98
8286.00,0.98
8285.00,0.99
8284.00,0.99
8283.00,0.99
8282.00,0.99
8281.00,0.99
8280.00,0.99
8279.00,0.99
8278.00,0.99
8277.00,0.99
8276.00,0.99
8275.00,0.99
8274.00,0.99
8273.00,0.99
8272.00,0.99
8271.00,0.99
8270.00,1.00
8269.00,1.00
8268.00,1.00
8267.00,1.00
8266.00,1.00
8265.00,1.00
8264.00,1.00
8263.00,1.00
8262.00,1.00
8261.00,1.00
8260.00,1.00
8259.00,1.00
8258.00,1.00
8257.00,1.00
8256.00,1.00
8255.00,1.00
8254.00,1.00
8253.00,0.99
8252.00,0.99
8251.00,0.99
8250.00,0.99
8249.00,0.99
8248.00,0.99
8247.00,0.99
8246.00,0.99
8245.00,0.99
8244.00,0.99
8243.00,0.99
8242.00,0.99
8241.00,0.99
8240.00,0.99
8239.00,0.99
8238.00,0.99
8237.00,0.99
8236.00,0.99
8235.00,0.99
8234.00,0.99
8233.00,0.99
8232.00,1.00
8231.00,1.00
8230.00,1.00
8229.00,1.00
8228.00,1.00
8227.00,1.01
8226.00,1.01
8225.00,1.01
8224.00,1.02
8223.00,1.02
8222.00,1.02
8221.00,1.02
8220.00,1.03
8219.00,1.03
8218.00,1.03
8217.00,1.03
8216.00,1.03
8215.00,1.03
8214.00,1.04
8213.00,1.04
8212.00,1.04
8211.00,1.04
8210.00,1.04
8209.00,1.04
8208.00,1.04
8207.00,1.04
8206.00,1.04
8205.00,1.04
8204.00,1.04
8203.00,1.04
8202.00,1.03
8201.00,1.03
8200.00,1.03
8199.00,1.02
8198.00,1.02
8197.00,1.01
8196.00,1.01
8195.00,1.01
8194.00,1.00
8193.00,1.00
8192.00,0.99
8191.00,0.99
8190.00,0.98
8189.00,0.98
8188.00,0.98
8187.00,0.97
8186.00,0.97
8185.00,0.96
8184.00,0.96
8183.00,0.96
8182.00,0.95
8181.00,0.95
8180.00,0.95
8179.00,0.94
8178.00,0.94
8177.00,0.94
8176.00,0.94
8175.00,0.94
8174.00,0.94
8173.00,0.94
8172.00,0.94
8171.00,0.94
8170.00,0.94
8169.00,0.94
8168.00,0.94
8167.00,0.94
8166.00,0.94
8165.00,0.94
8164.00,0.94
8163.00,0.94
8162.00,0.95
8161.00,0.95
8160.00,0.95
8159.00,0.95
8158.00,0.95
8157.00,0.95
8156.00,0.96
8155.00,0.96
8154.00,0.96
8153.00,0.96
8152.00,0.96
8151.00,0.96
8150.00,0.96
8149.00,0.97
8148.00,0.97
8147.00,0.97
8146.00,0.97
8145.00,0.98
8144.00,0.98
8143.00,0.99
8142.00,0.99
8141.00,1.00
8140.00,1.00
8139.00,1.00
8138.00,1.01
8137.00,1.01
8136.00,1.01
8135.00,1.01
8134.00,1.02
8133.00,1.02
8132.00,1.02
8131.00,1.02
8130.00,1.02
8129.00,1.03
8128.00,1.03
8127.00,1.03
8126.00,1.03
8125.00,1.04
8124.00,1.04
8123.00,1.04
8122.00,1.04
8121.00,1.04
8120.00,1.04
8119.00,1.04
8118.00,1.03
8117.00,1.03
8116.00,1.03
8115.00,1.03
8114.00,1.03
8113.00,1.02
8112.00,1.02
8111.00,1.02
8110.00,1.02
8109.00,1.02
8108.00,1.02
8107.00,1.02
8106.00,1.03
8105.00,1.03
8104.00,1.03
8103.00,1.03
8102.00,1.03
8101.00,1.03
8100.00,1.03
8099.00,1.03
8098.00,1.03
8097.00,1.03
8096.00,1.03
8095.00,1.03
8094.00,1.03
8093.00,1.04
8092.00,1.04
8091.00,1.04
8090.00,1.05
8089.00,1.05
8088.00,1.05
8087.00,1.05
8086.00,1.06
8085.00,1.06
8084.00,1.06
8083.00,1.06
8082.00,1.07
8081.00,1.07
8080.00,1.07
8079.00,1.07
8078.00,1.07
8077.00,1.08
8076.00,1.08
8075.00,1.08
8074.00,1.08
8073.00,1.08
8072.00,1.09
8071.00,1.09
8070.00,1.09
8069.00,1.09
8068.00,1.10
8067.00,1.10
8066.00,1.10
8065.00,1.10
8064.00,1.10
8063.00,1.10
8062.00,1.09
8061.00,1.09
8060.00,1.09
8059.00,1.09
8058.00,1.09
8057.00,1.08
8056.00,1.08
8055.00,1.08
8054.00,1.08
8053.00,1.08
8052.00,1.07
8051.00,1.07
8050.00,1.07
8049.00,1.06
8048.00,1.06
8047.00,1.05
8046.00,1.05
8045.00,1.04
8044.00,1.04
8043.00,1.04
8042.00,1.03
8041.00,1.03
8040.00,1.02
8039.00,1.02
8038.00,1.02
8037.00,1.02
8036.00,1.02
8035.00,1.02
8034.00,1.01
8033.00,1.01
8032.00,1.01
8031.00,1.01
8030.00,1.01
8029.00,1.01
8028.00,1.01
8027.00,1.01
8026.00,1.01
8025.00,1.01
8024.00,1.01
8023.00,1.02
8022.00,1.02
8021.00,1.02
8020.00,1.03
8019.00,1.03
8018.00,1.04
8017.00,1.04
8016.00,1.05
8015.00,1.05
8014.00,1.06
8013.00,1.06
8012.00,1.07
8011.00,1.07
8010.00,1.08
8009.00,1.08
8008.00,1.09
8007.00,1.09
8006.00,1.10
8005.00,1.11
8004.00,1.11
8003.00,1.12
8002.00,1.12
8001.00,1.13
8000.00,1.13
7999.00,1.14
7998.00,1.14
7997.00,1.14
7996.00,1.15
7995.00,1.15
7994.00,1.15
7993.00,1.15
7992.00,1.15
7991.00,1.15
7990.00,1.14
7989.00,1.14
7988.00,1.14
7987.00,1.14
7986.00,1.14
7985.00,1.13
7984.00,1.13
7983.00,1.13
7982.00,1.13
7981.00,1.12
7980.00,1.12
7979.00,1.12
7978.00,1.11
7977.00,1.11
7976.00,1.11
7975.00,1.10
7974.00,1.10
7973.00,1.10
7972.00,1.10
7971.00,1.10
7970.00,1.10
7969.00,1.10
7968.00,1.10
7967.00,1.10
7966.00,1.10
7965.00,1.10
7964.00,1.10
7963.00,1.11
7962.00,1.11
7961.00,1.11
7960.00,1.11
7959.00,1.11
7958.00,1.11
7957.00,1.11
7956.00,1.12
7955.00,1.12
7954.00,1.12
7953.00,1.12
7952.00,1.12
7951.00,1.12
7950.00,1.13
7949.00,1.13
7948.00,1.13
7947.00,1.13
7946.00,1.13
7945.00,1.13
7944.00,1.13
7943.00,1.13
7942.00,1.12
7941.00,1.12
7940.00,1.12
7939.00,1.12
7938.00,1.12
7937.00,1.11
7936.00,1.11
7935.00,1.11
7934.00,1.11
7933.00,1.11
7932.00,1.11
7931.00,1.11
7930.00,1.11
7929.00,1.11
7928.00,1.10
7927.00,1.10
7926.00,1.10
7925.00,1.10
7924.00,1.10
7923.00,1.10
7922.00,1.10
7921.00,1.10
7920.00,1.11
7919.00,1.11
7918.00,1.11
7917.00,1.11
7916.00,1.12
7915.00,1.12
7914.00,1.12
7913.00,1.13
7912.00,1.13
7911.00,1.13
7910.00,1.14
7909.00,1.14
7908.00,1.14
7907.00,1.15
7906.00,1.15
7905.00,1.15
7904.00,1.16
7903.00,1.16
7902.00,1.16
7901.00,1.17
7900.00,1.17
7899.00,1.17
7898.00,1.17
7897.00,1.17
7896.00,1.17
7895.00,1.18
7894.00,1.18
7893.00,1.18
7892.00,1.18
7891.00,1.17
7890.00,1.17
7889.00,1.17
7888.00,1.17
7887.00,1.17
7886.00,1.17
7885.00,1.17
7884.00,1.17
7883.00,1.17
7882.00,1.17
7881.00,1.16
7880.00,1.16
7879.00,1.16
7878.00,1.16
7877.00,1.16
7876.00,1.16
7875.00,1.15
7874.00,1.15
7873.00,1.15
7872.00,1.15
7871.00,1.15
7870.00,1.15
7869.00,1.15
7868.00,1.15
7867.00,1.15
7866.00,1.15
7865.00,1.15
7864.00,1.14
7863.00,1.14
7862.00,1.14
7861.00,1.14
7860.00,1.14
7859.00,1.14
7858.00,1.14
7857.00,1.14
7856.00,1.14
7855.00,1.14
7854.00,1.13
7853.00,1.13
7852.00,1.13
7851.00,1.13
7850.00,1.13
7849.00,1.13
7848.00,1.13
7847.00,1.14
7846.00,1.14
7845.00,1.14
7844.00,1.14
7843.00,1.14
7842.00,1.14
7841.00,1.14
7840.00,1.14
7839.00,1.14
7838.00,1.14
7837.00,1.14
7836.00,1.14
7835.00,1.15
7834.00,1.15
7833.00,1.15
7832.00,1.15
7831.00,1.15
7830.00,1.16
7829.00,1.16
7828.00,1.16
7827.00,1.16
7826.00,1.16
7825.00,1.16
7824.00,1.16
7823.00,1.16
7822.00,1.15
7821.00,1.15
7820.00,1.15
7819.00,1.15
7818.00,1.14
7817.00,1.14
7816.00,1.14
7815.00,1.14
7814.00,1.13
7813.00,1.13
7812.00,1.13
7811.00,1.13
7810.00,1.13
7809.00,1.12
7808.00,1.12
7807.00,1.12
7806.00,1.12
7805.00,1.12
7804.00,1.12
7803.00,1.12
7802.00,1.11
7801.00,1.11
7800.00,1.11
7799.00,1.11
7798.00,1.12
7797.00,1.12
7796.00,1.12
7795.00,1.12
7794.00,1.13
7793.00,1.13
7792.00,1.13
7791.00,1.14
7790.00,1.14
7789.00,1.14
7788.00,1.15
7787.00,1.15
7786.00,1.15
7785.00,1.16
7784.00,1.16
7783.00,1.16
7782.00,1.16
7781.00,1.17
7780.00,1.17
7779.00,1.17
7778.00,1.17
7777.00,1.17
7776.00,1.18
7775.00,1.18
7774.00,1.18
7773.00,1.18
7772.00,1.18
7771.00,1.19
7770.00,1.19
7769.00,1.19
7768.00,1.19
7767.00,1.19
7766.00,1.19
7765.00,1.19
7764.00,1.19
7763.00,1.19
7762.00,1.19
7761.00,1.19
7760.00,1.19
7759.00,1.19
7758.00,1.19
7757.00,1.19
7756.00,1.19
7755.00,1.19
7754.00,1.19
7753.00,1.19
7752.00,1.19
7751.00,1.19
7750.00,1.19
7749.00,1.19
7748.00,1.19
7747.00,1.18
7746.00,1.18
7745.00,1.18
7744.00,1.18
7743.00,1.18
7742.00,1.18
7741.00,1.18
7740.00,1.18
7739.00,1.18
7738.00,1.18
7737.00,1.17
7736.00,1.17
7735.00,1.17
7734.00,1.17
7733.00,1.17
7732.00,1.17
7731.00,1.17
7730.00,1.17
7729.00,1.17
7728.00,1.17
7727.00,1.16
7726.00,1.16
7725.00,1.16
7724.00,1.16
7723.00,1.16
7722.00,1.16
7721.00,1.16
7720.00,1.16
7719.00,1.15
7718.00,1.15
7717.00,1.15
7716.00,1.15
7715.00,1.15
7714.00,1.15
7713.00,1.15
7712.00,1.14
7711.00,1.14
7710.00,1.14
7709.00,1.14
7708.00,1.14
7707.00,1.14
7706.00,1.14
7705.00,1.13
7704.00,1.13
7703.00,1.13
7702.00,1.13
7701.00,1.13
7700.00,1.13
7699.00,1.13
7698.00,1.13
7697.00,1.13
7696.00,1.13
7695.00,1.13
7694.00,1.14
7693.00,1.14
7692.00,1.14
7691.00,1.14
7690.00,1.14
7689.00,1.15
7688.00,1.15
7687.00,1.15
7686.00,1.15
7685.00,1.16
7684.00,1.16
7683.00,1.16
7682.00,1.16
7681.00,1.16
7680.00,1.17
7679.00,1.17
7678.00,1.17
7677.00,1.17
7676.00,1.18
7675.00,1.18
7674.00,1.18
7673.00,1.18
7672.00,1.19
7671.00,1.19
7670.00,1.19
7669.00,1.19
7668.00,1.19
7667.00,1.19
7666.00,1.19
7665.00,1.19
7664.00,1.19
7663.00,1.19
7662.00,1.19
7661.00,1.19
7660.00,1.19
7659.00,1.19
7658.00,1.19
7657.00,1.19
7656.00,1.19
7655.00,1.19
7654.00,1.19
7653.00,1.19
7652.00,1.19
7651.00,1.19
7650.00,1.18
7649.00,1.18
7648.00,1.18
7647.00,1.18
7646.00,1.17
7645.00,1.17
7644.00,1.17
7643.00,1.17
7642.00,1.17
7641.00,1.16
7640.00,1.16
7639.00,1.16
7638.00,1.16
7637.00,1.16
7636.00,1.17
7635.00,1.17
7634.00,1.17
7633.00,1.17
7632.00,1.17
7631.00,1.17
7630.00,1.17
7629.00,1.17
7628.00,1.17
7627.00,1.17
7626.00,1.17
7625.00,1.18
7624.00,1.18
7623.00,1.18
7622.00,1.18
7621.00,1.19
7620.00,1.19
7619.00,1.19
7618.00,1.20
7617.00,1.20
7616.00,1.20
7615.00,1.20
7614.00,1.20
7613.00,1.20
7612.00,1.20
7611.00,1.20
7610.00,1.19
7609.00,1.19
7608.00,1.19
7607.00,1.19
7606.00,1.18
7605.00,1.18
7604.00,1.18
7603.00,1.18
7602.00,1.17
7601.00,1.17
7600.00,1.17
7599.00,1.16
7598.00,1.16
7597.00,1.15
7596.00,1.15
7595.00,1.14
7594.00,1.14
7593.00,1.14
7592.00,1.13
7591.00,1.13
7590.00,1.13
7589.00,1.13
7588.00,1.13
7587.00,1.13
7586.00,1.12
7585.00,1.12
7584.00,1.12
7583.00,1.12
7582.00,1.12
7581.00,1.12
7580.00,1.12
7579.00,1.12
7578.00,1.13
7577.00,1.13
7576.00,1.13
7575.00,1.13
7574.00,1.13
7573.00,1.13
7572.00,1.13
7571.00,1.13
7570.00,1.13
7569.00,1.14
7568.00,1.14
7567.00,1.14
7566.00,1.14
7565.00,1.14
7564.00,1.14
7563.00,1.14
7562.00,1.14
7561.00,1.14
7560.00,1.14
7559.00,1.14
7558.00,1.14
7557.00,1.14
7556.00,1.14
7555.00,1.15
7554.00,1.15
7553.00,1.15
7552.00,1.15
7551.00,1.15
7550.00,1.15
7549.00,1.15
7548.00,1.15
7547.00,1.15
7546.00,1.15
7545.00,1.14
7544.00,1.14
7543.00,1.14
7542.00,1.14
7541.00,1.15
7540.00,1.15
7539.00,1.15
7538.00,1.15
7537.00,1.15
7536.00,1.15
7535.00,1.15
7534.00,1.15
7533.00,1.15
7532.00,1.15
7531.00,1.15
7530.00,1.16
7529.00,1.16
7528.00,1.16
7527.00,1.16
7526.00,1.16
7525.00,1.16
7524.00,1.16
7523.00,1.16
7522.00,1.16
7521.00,1.16
7520.00,1.16
7519.00,1.16
7518.00,1.16
7517.00,1.17
7516.00,1.17
7515.00,1.17
7514.00,1.16
7513.00,1.16
7512.00,1.16
7511.00,1.16
7510.00,1.16
7509.00,1.16
7508.00,1.16
7507.00,1.16
7506.00,1.15
7505.00,1.15
7504.00,1.15
7503.00,1.15
7502.00,1.15
7501.00,1.15
7500.00,1.15
7499.00,1.15
7498.00,1.15
7497.00,1.15
7496.00,1.14
7495.00,1.14
7494.00,1.14
7493.00,1.14
7492.00,1.14
7491.00,1.14
7490.00,1.13
7489.00,1.13
7488.00,1.13
7487.00,1.13
7486.00,1.13
7485.00,1.13
7484.00,1.12
7483.00,1.12
7482.00,1.12
7481.00,1.12
7480.00,1.12
7479.00,1.11
7478.00,1.11
7477.00,1.11
7476.00,1.11
7475.00,1.11
7474.00,1.10
7473.00,1.10
7472.00,1.10
7471.00,1.09
7470.00,1.09
7469.00,1.09
7468.00,1.09
7467.00,1.08
7466.00,1.08
7465.00,1.08
7464.00,1.07
7463.00,1.07
7462.00,1.07
7461.00,1.07
7460.00,1.07
7459.00,1.07
7458.00,1.07
7457.00,1.06
7456.00,1.06
7455.00,1.06
7454.00,1.06
7453.00,1.06
7452.00,1.06
7451.00,1.06
7450.00,1.05
7449.00,1.05
7448.00,1.05
7447.00,1.05
7446.00,1.05
7445.00,1.05
7444.00,1.05
7443.00,1.05
7442.00,1.05
7441.00,1.05
7440.00,1.06
7439.00,1.06
7438.00,1.06
7437.00,1.06
7436.00,1.06
7435.00,1.06
7434.00,1.06
7433.00,1.06
7432.00,1.06
7431.00,1.07
7430.00,1.07
7429.00,1.07
7428.00,1.07
7427.00,1.07
7426.00,1.08
7425.00,1.08
7424.00,1.08
7423.00,1.08
7422.00,1.09
7421.00,1.09
7420.00,1.09
7419.00,1.09
7418.00,1.09
7417.00,1.10
7416.00,1.10
7415.00,1.10
7414.00,1.10
7413.00,1.10
7412.00,1.10
7411.00,1.10
7410.00,1.10
7409.00,1.10
7408.00,1.10
7407.00,1.10
7406.00,1.10
7405.00,1.11
7404.00,1.11
7403.00,1.11
7402.00,1.10
7401.00,1.10
7400.00,1.10
7399.00,1.10
7398.00,1.10
7397.00,1.10
7396.00,1.10
7395.00,1.09
7394.00,1.09
7393.00,1.09
7392.00,1.09
7391.00,1.09
7390.00,1.09
7389.00,1.09
7388.00,1.09
7387.00,1.10
7386.00,1.10
7385.00,1.10
7384.00,1.10
7383.00,1.10
7382.00,1.10
7381.00,1.10
7380.00,1.10
7379.00,1.10
7378.00,1.10
7377.00,1.10
7376.00,1.10
7375.00,1.10
7374.00,1.10
7373.00,1.10
7372.00,1.10
7371.00,1.10
7370.00,1.10
7369.00,1.11
7368.00,1.11
7367.00,1.11
7366.00,1.11
7365.00,1.11
7364.00,1.11
7363.00,1.11
7362.00,1.11
7361.00,1.11
7360.00,1.11
7359.00,1.11
7358.00,1.11
7357.00,1.11
7356.00,1.11
7355.00,1.11
7354.00,1.12
7353.00,1.12
7352.00,1.12
7351.00,1.12
7350.00,1.12
7349.00,1.12
7348.00,1.12
7347.00,1.12
7346.00,1.12
7345.00,1.12
7344.00,1.12
7343.00,1.13
7342.00,1.13
7341.00,1.13
7340.00,1.13
7339.00,1.13
7338.00,1.13
7337.00,1.12
7336.00,1.12
7335.00,1.12
7334.00,1.12
7333.00,1.12
7332.00,1.11
7331.00,1.11
7330.00,1.11
7329.00,1.10
7328.00,1.10
7327.00,1.10
7326.00,1.09
7325.00,1.09
7324.00,1.09
7323.00,1.09
7322.00,1.08
7321.00,1.08
7320.00,1.08
7319.00,1.07
7318.00,1.07
7317.00,1.07
7316.00,1.07
7315.00,1.06
7314.00,1.06
7313.00,1.06
7312.00,1.06
7311.00,1.06
7310.00,1.06
7309.00,1.06
7308.00,1.06
7307.00,1.06
7306.00,1.06
7305.00,1.06
7304.00,1.06
7303.00,1.06
7302.00,1.07
7301.00,1.07
7300.00,1.07
7299.00,1.07
7298.00,1.07
7297.00,1.07
7296.00,1.07
7295.00,1.07
7294.00,1.07
7293.00,1.07
7292.00,1.07
7291.00,1.07
7290.00,1.07
7289.00,1.07
7288.00,1.07
7287.00,1.07
7286.00,1.07
7285.00,1.07
7284.00,1.07
7283.00,1.07
7282.00,1.06
7281.00,1.06
7280.00,1.06
7279.00,1.05
7278.00,1.05
7277.00,1.04
7276.00,1.04
7275.00,1.03
7274.00,1.03
7273.00,1.03
7272.00,1.02
7271.00,1.02
7270.00,1.02
7269.00,1.01
7268.00,1.01
7267.00,1.00
7266.00,1.00
7265.00,1.00
7264.00,0.99
7263.00,0.99
7262.00,0.99
7261.00,0.98
7260.00,0.98
7259.00,0.98
7258.00,0.98
7257.00,0.97
7256.00,0.97
7255.00,0.97
7254.00,0.97
7253.00,0.97
7252.00,0.97
7251.00,0.97
7250.00,0.96
7249.00,0.96
7248.00,0.96
7247.00,0.96
7246.00,0.96
7245.00,0.96
7244.00,0.96
7243.00,0.96
7242.00,0.96
7241.00,0.96
7240.00,0.96
7239.00,0.96
7238.00,0.96
7237.00,0.96
7236.00,0.96
7235.00,0.96
7234.00,0.96
7233.00,0.96
7232.00,0.95
7231.00,0.95
7230.00,0.95
7229.00,0.95
7228.00,0.94
7227.00,0.94
7226.00,0.94
7225.00,0.94
7224.00,0.93
7223.00,0.93
7222.00,0.93
7221.00,0.92
7220.00,0.92
7219.00,0.92
7218.00,0.91
7217.00,0.91
7216.00,0.90
7215.00,0.90
7214.00,0.89
7213.00,0.89
7212.00,0.89
7211.00,0.88
7210.00,0.88
7209.00,0.87
7208.00,0.87
7207.00,0.86
7206.00,0.86
7205.00,0.85
7204.00,0.85
7203.00,0.84
7202.00,0.84
7201.00,0.83
7200.00,0.83
7199.00,0.82
7198.00,0.82
7197.00,0.82
7196.00,0.81
7195.00,0.81
7194.00,0.81
7193.00,0.80
7192.00,0.80
7191.00,0.80
7190.00,0.79
7189.00,0.79
7188.00,0.79
7187.00,0.78
7186.00,0.78
7185.00,0.78
7184.00,0.78
7183.00,0.78
7182.00,0.78
7181.00,0.78
7180.00,0.78
7179.00,0.78
7178.00,0.78
7177.00,0.78
7176.00,0.78
7175.00,0.78
7174.00,0.79
7173.00,0.79
7172.00,0.79
7171.00,0.79
7170.00,0.79
7169.00,0.79
7168.00,0.79
7167.00,0.79
7166.00,0.79
7165.00,0.79
7164.00,0.79
7163.00,0.79
7162.00,0.79
7161.00,0.79
7160.00,0.79
7159.00,0.78
7158.00,0.78
7157.00,0.78
7156.00,0.78
7155.00,0.78
7154.00,0.77
7153.00,0.77
7152.00,0.77
7151.00,0.77
7150.00,0.76
7149.00,0.76
7148.00,0.76
7147.00,0.75
7146.00,0.75
7145.00,0.75
7144.00,0.74
7143.00,0.74
7142.00,0.73
7141.00,0.73
7140.00,0.73
7139.00,0.72
7138.00,0.72
7137.00,0.72
7136.00,0.72
7135.00,0.71
7134.00,0.71
7133.00,0.71
7132.00,0.71
7131.00,0.71
7130.00,0.70
7129.00,0.70
7128.00,0.70
7127.00,0.69
7126.00,0.69
7125.00,0.69
7124.00,0.68
7123.00,0.68
7122.00,0.68
7121.00,0.68
7120.00,0.67
7119.00,0.67
7118.00,0.67
7117.00,0.67
7116.00,0.67
7115.00,0.66
7114.00,0.66
7113.00,0.66
7112.00,0.66
7111.00,0.66
7110.00,0.66
7109.00,0.66
7108.00,0.66
7107.00,0.66
7106.00,0.66
7105.00,0.66
7104.00,0.66
7103.00,0.66
7102.00,0.66
7101.00,0.67
7100.00,0.67
7099.00,0.67
7098.00,0.67
7097.00,0.67
7096.00,0.68
7095.00,0.68
7094.00,0.68
7093.00,0.68
7092.00,0.68
7091.00,0.68
7090.00,0.69
7089.00,0.69
7088.00,0.69
7087.00,0.68
7086.00,0.68
7085.00,0.68
7084.00,0.68
7083.00,0.68
7082.00,0.68
7081.00,0.68
7080.00,0.68
7079.00,0.67
7078.00,0.67
7077.00,0.67
7076.00,0.67
7075.00,0.66
7074.00,0.66
7073.00,0.66
7072.00,0.66
7071.00,0.65
7070.00,0.65
7069.00,0.65
7068.00,0.65
7067.00,0.65
7066.00,0.64
7065.00,0.64
7064.00,0.64
7063.00,0.64
7062.00,0.64
7061.00,0.63
7060.00,0.63
7059.00,0.63
7058.00,0.63
7057.00,0.62
7056.00,0.62
7055.00,0.62
7054.00,0.62
7053.00,0.62
7052.00,0.61
7051.00,0.61
7050.00,0.61
7049.00,0.61
7048.00,0.61
7047.00,0.61
7046.00,0.60
7045.00,0.60
7044.00,0.60
7043.00,0.60
7042.00,0.60
7041.00,0.59
7040.00,0.59
7039.00,0.59
7038.00,0.59
7037.00,0.58
7036.00,0.58
7035.00,0.58
7034.00,0.58
7033.00,0.58
7032.00,0.58
7031.00,0.58
7030.00,0.58
7029.00,0.58
7028.00,0.57
7027.00,0.57
7026.00,0.57
7025.00,0.57
7024.00,0.57
7023.00,0.57
7022.00,0.57
7021.00,0.57
7020.00,0.57
7019.00,0.57
7018.00,0.57
7017.00,0.57
7016.00,0.57
7015.00,0.57
7014.00,0.57
7013.00,0.57
7012.00,0.57
7011.00,0.57
7010.00,0.58
7009.00,0.58
7008.00,0.58
7007.00,0.58
7006.00,0.58
7005.00,0.58
7004.00,0.58
7003.00,0.58
7002.00,0.58
7001.00,0.58
7000.00,0.58
6999.00,0.58
6998.00,0.58
6997.00,0.58
6996.00,0.58
6995.00,0.58
6994.00,0.57
6993.00,0.57
6992.00,0.57
6991.00,0.57
6990.00,0.57
6989.00,0.57
6988.00,0.56
6987.00,0.56
6986.00,0.56
6985.00,0.56
6984.00,0.55
6983.00,0.55
6982.00,0.55
6981.00,0.55
6980.00,0.54
6979.00,0.54
6978.00,0.54
6977.00,0.54
6976.00,0.54
6975.00,0.54
6974.00,0.54
6973.00,0.54
6972.00,0.54
6971.00,0.54
6970.00,0.54
6969.00,0.54
6968.00,0.54
6967.00,0.54
6966.00,0.54
6965.00,0.54
6964.00,0.54
6963.00,0.54
6962.00,0.54
6961.00,0.54
6960.00,0.54
6959.00,0.54
6958.00,0.54
6957.00,0.54
6956.00,0.54
6955.00,0.54
6954.00,0.54
6953.00,0.54
6952.00,0.54
6951.00,0.54
6950.00,0.54
6949.00,0.54
6948.00,0.54
6947.00,0.54
6946.00,0.54
6945.00,0.54
6944.00,0.54
6943.00,0.54
6942.00,0.54
6941.00,0.54
6940.00,0.54
6939.00,0.54
6938.00,0.54
6937.00,0.54
6936.00,0.55
6935.00,0.55
6934.00,0.55
6933.00,0.55
6932.00,0.55
6931.00,0.55
6930.00,0.55
6929.00,0.55
6928.00,0.55
6927.00,0.55
6926.00,0.55
6925.00,0.56
6924.00,0.56
6923.00,0.56
6922.00,0.56
6921.00,0.56
6920.00,0.56
6919.00,0.56
6918.00,0.56
6917.00,0.56
6916.00,0.56
6915.00,0.57
6914.00,0.57
6913.00,0.57
6912.00,0.57
6911.00,0.57
6910.00,0.57
6909.00,0.57
6908.00,0.57
6907.00,0.57
6906.00,0.56
6905.00,0.56
6904.00,0.56
6903.00,0.56
6902.00,0.56
6901.00,0.56
6900.00,0.56
6899.00,0.56
6898.00,0.56
6897.00,0.56
6896.00,0.56
6895.00,0.56
6894.00,0.55
6893.00,0.55
6892.00,0.55
6891.00,0.55
6890.00,0.55
6889.00,0.54
6888.00,0.54
6887.00,0.54
6886.00,0.54
6885.00,0.53
6884.00,0.53
6883.00,0.53
6882.00,0.53
6881.00,0.53
6880.00,0.53
6879.00,0.53
6878.00,0.52
6877.00,0.52
6876.00,0.52
6875.00,0.52
6874.00,0.53
6873.00,0.53
6872.00,0.53
6871.00,0.53
6870.00,0.53
6869.00,0.53
6868.00,0.53
6867.00,0.54
6866.00,0.54
6865.00,0.54
6864.00,0.55
6863.00,0.55
6862.00,0.56
6861.00,0.56
6860.00,0.57
6859.00,0.57
6858.00,0.57
6857.00,0.58
6856.00,0.58
6855.00,0.58
6854.00,0.59
6853.00,0.59
6852.00,0.59
6851.00,0.59
6850.00,0.60
6849.00,0.60
6848.00,0.60
6847.00,0.60
6846.00,0.60
6845.00,0.60
6844.00,0.61
6843.00,0.61
6842.00,0.61
6841.00,0.61
6840.00,0.61
6839.00,0.60
6838.00,0.60
6837.00,0.60
6836.00,0.60
6835.00,0.60
6834.00,0.59
6833.00,0.59
6832.00,0.59
6831.00,0.59
6830.00,0.59
6829.00,0.59
6828.00,0.59
6827.00,0.59
6826.00,0.58
6825.00,0.58
6824.00,0.58
6823.00,0.58
6822.00,0.58
6821.00,0.58
6820.00,0.57
6819.00,0.57
6818.00,0.57
6817.00,0.57
6816.00,0.57
6815.00,0.57
6814.00,0.57
6813.00,0.57
6812.00,0.57
6811.00,0.57
6810.00,0.57
6809.00,0.57
6808.00,0.57
6807.00,0.56
6806.00,0.56
6805.00,0.56
6804.00,0.56
6803.00,0.56
6802.00,0.56
6801.00,0.56
6800.00,0.56
6799.00,0.56
6798.00,0.56
6797.00,0.56
6796.00,0.56
6795.00,0.56
6794.00,0.56
6793.00,0.56
6792.00,0.56
6791.00,0.56
6790.00,0.56
6789.00,0.56
6788.00,0.56
6787.00,0.56
6786.00,0.56
6785.00,0.56
6784.00,0.56
6783.00,0.56
6782.00,0.56
6781.00,0.56
6780.00,0.56
6779.00,0.56
6778.00,0.56
6777.00,0.57
6776.00,0.57
6775.00,0.57
6774.00,0.57
6773.00,0.57
6772.00,0.57
6771.00,0.57
6770.00,0.57
6769.00,0.57
6768.00,0.57
6767.00,0.57
6766.00,0.58
6765.00,0.58
6764.00,0.58
6763.00,0.58
6762.00,0.58
6761.00,0.58
6760.00,0.58
6759.00,0.58
6758.00,0.58
6757.00,0.58
6756.00,0.58
6755.00,0.58
6754.00,0.58
6753.00,0.58
6752.00,0.58
6751.00,0.58
6750.00,0.59
6749.00,0.59
6748.00,0.59
6747.00,0.59
6746.00,0.59
6745.00,0.59
6744.00,0.59
6743.00,0.59
6742.00,0.59
6741.00,0.60
6740.00,0.60
6739.00,0.60
6738.00,0.60
6737.00,0.60
6736.00,0.60
6735.00,0.60
6734.00,0.60
6733.00,0.61
6732.00,0.61
6731.00,0.61
6730.00,0.61
6729.00,0.60
6728.00,0.60
6727.00,0.60
6726.00,0.60
6725.00,0.60
6724.00,0.60
6723.00,0.60
6722.00,0.60
6721.00,0.60
6720.00,0.59
6719.00,0.59
6718.00,0.59
6717.00,0.59
6716.00,0.59
6715.00,0.59
6714.00,0.59
6713.00,0.59
6712.00,0.59
6711.00,0.59
6710.00,0.58
6709.00,0.58
6708.00,0.58
6707.00,0.58
6706.00,0.58
6705.00,0.58
6704.00,0.58
6703.00,0.58
6702.00,0.58
6701.00,0.58
6700.00,0.59
6699.00,0.59
6698.00,0.59
6697.00,0.59
6696.00,0.59
6695.00,0.59
6694.00,0.60
6693.00,0.60
6692.00,0.60
6691.00,0.60
6690.00,0.60
6689.00,0.60
6688.00,0.60
6687.00,0.60
6686.00,0.60
6685.00,0.60
6684.00,0.61
6683.00,0.61
6682.00,0.61
6681.00,0.61
6680.00,0.61
6679.00,0.61
6678.00,0.62
6677.00,0.62
6676.00,0.62
6675.00,0.62
6674.00,0.62
6673.00,0.62
6672.00,0.62
6671.00,0.62
6670.00,0.62
6669.00,0.62
6668.00,0.63
6667.00,0.63
6666.00,0.63
6665.00,0.63
6664.00,0.63
6663.00,0.63
6662.00,0.64
6661.00,0.64
6660.00,0.64
6659.00,0.64
6658.00,0.65
6657.00,0.65
6656.00,0.65
6655.00,0.65
6654.00,0.65
6653.00,0.65
6652.00,0.65
6651.00,0.65
6650.00,0.65
6649.00,0.65
6648.00,0.65
6647.00,0.65
6646.00,0.65
6645.00,0.65
6644.00,0.65
6643.00,0.65
6642.00,0.65
6641.00,0.65
6640.00,0.65
6639.00,0.65
6638.00,0.65
6637.00,0.65
6636.00,0.64
6635.00,0.64
6634.00,0.64
6633.00,0.64
6632.00,0.64
6631.00,0.64
6630.00,0.64
6629.00,0.63
6628.00,0.63
6627.00,0.63
6626.00,0.63
6625.00,0.63
6624.00,0.63
6623.00,0.63
6622.00,0.63
6621.00,0.63
6620.00,0.63
6619.00,0.63
6618.00,0.63
6617.00,0.63
6616.00,0.63
6615.00,0.63
6614.00,0.63
6613.00,0.63
6612.00,0.63
6611.00,0.63
6610.00,0.63
6609.00,0.63
6608.00,0.63
6607.00,0.63
6606.00,0.63
6605.00,0.63
6604.00,0.63
6603.00,0.63
6602.00,0.63
6601.00,0.63
6600.00,0.63
6599.00,0.63
6598.00,0.63
6597.00,0.62
6596.00,0.62
6595.00,0.62
6594.00,0.62
6593.00,0.62
6592.00,0.62
6591.00,0.62
6590.00,0.62
6589.00,0.62
6588.00,0.62
6587.00,0.62
6586.00,0.61
6585.00,0.61
6584.00,0.61
6583.00,0.61
6582.00,0.62
6581.00,0.62
6580.00,0.62
6579.00,0.62
6578.00,0.62
6577.00,0.62
6576.00,0.62
6575.00,0.63
6574.00,0.63
6573.00,0.63
6572.00,0.64
6571.00,0.64
6570.00,0.64
6569.00,0.65
6568.00,0.65
6567.00,0.65
6566.00,0.66
6565.00,0.66
6564.00,0.67
6563.00,0.67
6562.00,0.67
6561.00,0.68
6560.00,0.68
6559.00,0.69
6558.00,0.69
6557.00,0.69
6556.00,0.70
6555.00,0.70
6554.00,0.70
6553.00,0.71
6552.00,0.71
6551.00,0.71
6550.00,0.71
6549.00,0.71
6548.00,0.71
6547.00,0.72
6546.00,0.72
6545.00,0.72
6544.00,0.72
6543.00,0.72
6542.00,0.72
6541.00,0.72
6540.00,0.72
6539.00,0.71
6538.00,0.71
6537.00,0.71
6536.00,0.71
6535.00,0.71
6534.00,0.71
6533.00,0.71
6532.00,0.70
6531.00,0.70
6530.00,0.70
6529.00,0.70
6528.00,0.70
6527.00,0.70
6526.00,0.70
6525.00,0.70
6524.00,0.70
6523.00,0.70
6522.00,0.69
6521.00,0.69
6520.00,0.69
6519.00,0.69
6518.00,0.69
6517.00,0.69
6516.00,0.69
6515.00,0.69
6514.00,0.69
6513.00,0.69
6512.00,0.69
6511.00,0.69
6510.00,0.70
6509.00,0.70
6508.00,0.70
6507.00,0.70
6506.00,0.70
6505.00,0.70
6504.00,0.70
6503.00,0.70
6502.00,0.70
6501.00,0.70
6500.00,0.70
6499.00,0.70
6498.00,0.71
6497.00,0.71
6496.00,0.71
6495.00,0.71
6494.00,0.71
6493.00,0.71
6492.00,0.72
6491.00,0.72
6490.00,0.72
6489.00,0.72
6488.00,0.72
6487.00,0.72
6486.00,0.72
6485.00,0.72
6484.00,0.72
6483.00,0.72
6482.00,0.72
6481.00,0.72
6480.00,0.72
6479.00,0.72
6478.00,0.72
6477.00,0.72
6476.00,0.72
6475.00,0.72
6474.00,0.72
6473.00,0.73
6472.00,0.73
6471.00,0.73
6470.00,0.73
6469.00,0.73
6468.00,0.73
6467.00,0.73
6466.00,0.73
6465.00,0.73
6464.00,0.73
6463.00,0.73
6462.00,0.73
6461.00,0.73
6460.00,0.73
6459.00,0.73
6458.00,0.74
6457.00,0.74
6456.00,0.74
6455.00,0.74
6454.00,0.74
6453.00,0.74
6452.00,0.74
6451.00,0.74
6450.00,0.74
6449.00,0.74
6448.00,0.74
6447.00,0.74
6446.00,0.74
6445.00,0.74
6444.00,0.74
6443.00,0.74
6442.00,0.74
6441.00,0.74
6440.00,0.74
6439.00,0.74
6438.00,0.74
6437.00,0.74
6436.00,0.74
6435.00,0.74
6434.00,0.74
6433.00,0.74
6432.00,0.74
6431.00,0.74
6430.00,0.75
6429.00,0.75
6428.00,0.75
6427.00,0.75
6426.00,0.75
6425.00,0.75
6424.00,0.75
6423.00,0.75
6422.00,0.75
6421.00,0.75
6420.00,0.75
6419.00,0.75
6418.00,0.75
6417.00,0.75
6416.00,0.75
6415.00,0.75
6414.00,0.75
6413.00,0.75
6412.00,0.75
6411.00,0.75
6410.00,0.75
6409.00,0.75
6408.00,0.75
6407.00,0.75
6406.00,0.75
6405.00,0.75
6404.00,0.75
6403.00,0.75
6402.00,0.75
6401.00,0.75
6400.00,0.75
6399.00,0.76
6398.00,0.76
6397.00,0.76
6396.00,0.76
6395.00,0.76
6394.00,0.76
6393.00,0.76
6392.00,0.76
6391.00,0.76
6390.00,0.76
6389.00,0.76
6388.00,0.76
6387.00,0.76
6386.00,0.77
6385.00,0.77
6384.00,0.77
6383.00,0.77
6382.00,0.77
6381.00,0.77
6380.00,0.77
6379.00,0.77
6378.00,0.77
6377.00,0.77
6376.00,0.77
6375.00,0.77
6374.00,0.77
6373.00,0.76
6372.00,0.76
6371.00,0.76
6370.00,0.76
6369.00,0.76
6368.00,0.76
6367.00,0.76
6366.00,0.76
6365.00,0.76
6364.00,0.76
6363.00,0.76
6362.00,0.76
6361.00,0.76
6360.00,0.76
6359.00,0.76
6358.00,0.76
6357.00,0.76
6356.00,0.76
6355.00,0.76
6354.00,0.76
6353.00,0.76
6352.00,0.76
6351.00,0.76
6350.00,0.76
6349.00,0.76
6348.00,0.76
6347.00,0.76
6346.00,0.77
6345.00,0.77
6344.00,0.77
6343.00,0.77
6342.00,0.77
6341.00,0.78
6340.00,0.78
6339.00,0.78
6338.00,0.79
6337.00,0.79
6336.00,0.79
6335.00,0.79
6334.00,0.80
6333.00,0.80
6332.00,0.80
6331.00,0.80
6330.00,0.81
6329.00,0.81
6328.00,0.81
6327.00,0.81
6326.00,0.81
6325.00,0.82
6324.00,0.82
6323.00,0.82
6322.00,0.82
6321.00,0.82
6320.00,0.83
6319.00,0.83
6318.00,0.83
6317.00,0.83
6316.00,0.83
6315.00,0.83
6314.00,0.83
6313.00,0.84
6312.00,0.84
6311.00,0.84
6310.00,0.84
6309.00,0.84
6308.00,0.84
6307.00,0.84
6306.00,0.84
6305.00,0.84
6304.00,0.84
6303.00,0.84
6302.00,0.83
6301.00,0.83
6300.00,0.83
6299.00,0.83
6298.00,0.83
6297.00,0.83
6296.00,0.83
6295.00,0.83
6294.00,0.82
6293.00,0.82
6292.00,0.82
6291.00,0.82
6290.00,0.82
6289.00,0.82
6288.00,0.81
6287.00,0.81
6286.00,0.81
6285.00,0.81
6284.00,0.81
6283.00,0.81
6282.00,0.81
6281.00,0.81
6280.00,0.81
6279.00,0.81
6278.00,0.81
6277.00,0.81
6276.00,0.81
6275.00,0.81
6274.00,0.82
6273.00,0.82
6272.00,0.82
6271.00,0.82
6270.00,0.83
6269.00,0.83
6268.00,0.83
6267.00,0.84
6266.00,0.84
6265.00,0.84
6264.00,0.85
6263.00,0.85
6262.00,0.85
6261.00,0.85
6260.00,0.86
6259.00,0.86
6258.00,0.86
6257.00,0.86
6256.00,0.87
6255.00,0.87
6254.00,0.87
6253.00,0.87
6252.00,0.87
6251.00,0.87
6250.00,0.87
6249.00,0.87
6248.00,0.87
6247.00,0.87
6246.00,0.87
6245.00,0.87
6244.00,0.87
6243.00,0.87
6242.00,0.87
6241.00,0.87
6240.00,0.87
6239.00,0.87
6238.00,0.87
6237.00,0.87
6236.00,0.87
6235.00,0.87
6234.00,0.87
6233.00,0.87
6232.00,0.87
6231.00,0.87
6230.00,0.87
6229.00,0.87
6228.00,0.86
6227.00,0.87
6226.00,0.87
6225.00,0.87
6224.00,0.87
6223.00,0.87
6222.00,0.87
6221.00,0.87
6220.00,0.87
6219.00,0.88
6218.00,0.88
6217.00,0.88
6216.00,0.88
6215.00,0.88
6214.00,0.89
6213.00,0.89
6212.00,0.89
6211.00,0.89
6210.00,0.89
6209.00,0.90
6208.00,0.90
6207.00,0.90
6206.00,0.90
6205.00,0.91
6204.00,0.91
6203.00,0.91
6202.00,0.91
6201.00,0.91
6200.00,0.92
6199.00,0.92
6198.00,0.92
6197.00,0.92
6196.00,0.92
6195.00,0.92
6194.00,0.92
6193.00,0.92
6192.00,0.92
6191.00,0.92
6190.00,0.92
6189.00,0.92
6188.00,0.93
6187.00,0.93
6186.00,0.93
6185.00,0.93
6184.00,0.93
6183.00,0.94
6182.00,0.94
6181.00,0.94
6180.00,0.94
6179.00,0.94
6178.00,0.95
6177.00,0.95
6176.00,0.95
6175.00,0.95
6174.00,0.96
6173.00,0.96
6172.00,0.96
6171.00,0.96
6170.00,0.97
6169.00,0.97
6168.00,0.97
6167.00,0.97
6166.00,0.97
6165.00,0.98
6164.00,0.98
6163.00,0.98
6162.00,0.98
6161.00,0.98
6160.00,0.98
6159.00,0.98
6158.00,0.98
6157.00,0.98
6156.00,0.98
6155.00,0.98
6154.00,0.98
6153.00,0.98
6152.00,0.98
6151.00,0.98
6150.00,0.98
6149.00,0.98
6148.00,0.98
6147.00,0.98
6146.00,0.98
6145.00,0.97
6144.00,0.97
6143.00,0.97
6142.00,0.97
6141.00,0.97
6140.00,0.97
6139.00,0.98
6138.00,0.98
6137.00,0.98
6136.00,0.98
6135.00,0.98
6134.00,0.98
6133.00,0.98
6132.00,0.98
6131.00,0.98
6130.00,0.98
6129.00,0.98
6128.00,0.98
6127.00,0.98
6126.00,0.99
6125.00,0.99
6124.00,0.99
6123.00,0.99
6122.00,0.99
6121.00,1.00
6120.00,1.00
6119.00,1.00
6118.00,1.00
6117.00,1.01
6116.00,1.01
6115.00,1.01
6114.00,1.01
6113.00,1.01
6112.00,1.02
6111.00,1.02
6110.00,1.02
6109.00,1.02
6108.00,1.02
6107.00,1.03
6106.00,1.03
6105.00,1.03
6104.00,1.03
6103.00,1.03
6102.00,1.03
6101.00,1.03
6100.00,1.03
6099.00,1.03
6098.00,1.04
6097.00,1.04
6096.00,1.04
6095.00,1.04
6094.00,1.04
6093.00,1.04
6092.00,1.04
6091.00,1.04
6090.00,1.04
6089.00,1.04
6088.00,1.04
6087.00,1.04
6086.00,1.04
6085.00,1.04
6084.00,1.04
6083.00,1.04
6082.00,1.04
6081.00,1.04
6080.00,1.04
6079.00,1.05
6078.00,1.05
6077.00,1.05
6076.00,1.05
6075.00,1.05
6074.00,1.05
6073.00,1.05
6072.00,1.05
6071.00,1.05
6070.00,1.05
6069.00,1.05
6068.00,1.05
6067.00,1.04
6066.00,1.04
6065.00,1.04
6064.00,1.04
6063.00,1.04
6062.00,1.04
6061.00,1.04
6060.00,1.04
6059.00,1.04
6058.00,1.04
6057.00,1.04
6056.00,1.04
6055.00,1.03
6054.00,1.03
6053.00,1.03
6052.00,1.03
6051.00,1.03
6050.00,1.03
6049.00,1.03
6048.00,1.04
6047.00,1.04
6046.00,1.04
6045.00,1.04
6044.00,1.04
6043.00,1.04
6042.00,1.04
6041.00,1.04
6040.00,1.04
6039.00,1.04
6038.00,1.04
6037.00,1.04
6036.00,1.05
6035.00,1.05
6034.00,1.05
6033.00,1.05
6032.00,1.05
6031.00,1.05
6030.00,1.05
6029.00,1.05
6028.00,1.05
6027.00,1.05
6026.00,1.05
6025.00,1.06
6024.00,1.06
6023.00,1.06
6022.00,1.06
6021.00,1.06
6020.00,1.06
6019.00,1.06
6018.00,1.06
6017.00,1.06
6016.00,1.06
6015.00,1.06
6014.00,1.07
6013.00,1.07
6012.00,1.07
6011.00,1.07
6010.00,1.07
6009.00,1.07
6008.00,1.07
6007.00,1.07
6006.00,1.07
6005.00,1.08
6004.00,1.08
6003.00,1.08
6002.00,1.08
6001.00,1.08
6000.00,1.08
5999.00,1.08
5998.00,1.08
5997.00,1.09
5996.00,1.09
5995.00,1.09
5994.00,1.09
5993.00,1.09
5992.00,1.09
5991.00,1.09
5990.00,1.09
5989.00,1.09
5988.00,1.09
5987.00,1.08
5986.00,1.08
5985.00,1.08
5984.00,1.08
5983.00,1.08
5982.00,1.07
5981.00,1.07
5980.00,1.07
5979.00,1.07
5978.00,1.07
5977.00,1.06
5976.00,1.06
5975.00,1.06
5974.00,1.05
5973.00,1.05
5972.00,1.04
5971.00,1.04
5970.00,1.03
5969.00,1.03
5968.00,1.02
5967.00,1.01
5966.00,1.01
5965.00,1.00
5964.00,1.00
5963.00,0.99
5962.00,0.99
5961.00,0.98
5960.00,0.98
5959.00,0.98
5958.00,0.97
5957.00,0.97
5956.00,0.96
5955.00,0.96
5954.00,0.95
5953.00,0.95
5952.00,0.94
5951.00,0.94
5950.00,0.93
5949.00,0.93
5948.00,0.92
5947.00,0.92
5946.00,0.92
5945.00,0.91
5944.00,0.91
5943.00,0.91
5942.00,0.90
5941.00,0.90
5940.00,0.90
5939.00,0.90
5938.00,0.89
5937.00,0.89
5936.00,0.89
5935.00,0.88
5934.00,0.88
5933.00,0.88
5932.00,0.88
5931.00,0.88
5930.00,0.87
5929.00,0.87
5928.00,0.87
5927.00,0.87
5926.00,0.87
5925.00,0.87
5924.00,0.87
5923.00,0.87
5922.00,0.86
5921.00,0.86
5920.00,0.86
5919.00,0.86
5918.00,0.86
5917.00,0.86
5916.00,0.86
5915.00,0.86
5914.00,0.86
5913.00,0.86
5912.00,0.86
5911.00,0.86
5910.00,0.86
5909.00,0.86
5908.00,0.86
5907.00,0.86
5906.00,0.86
5905.00,0.86
5904.00,0.86
5903.00,0.86
5902.00,0.86
5901.00,0.86
5900.00,0.86
5899.00,0.86
5898.00,0.86
5897.00,0.87
5896.00,0.87
5895.00,0.87
5894.00,0.87
5893.00,0.87
5892.00,0.88
5891.00,0.88
5890.00,0.88
5889.00,0.88
5888.00,0.88
5887.00,0.88
5886.00,0.88
5885.00,0.89
5884.00,0.89
5883.00,0.89
5882.00,0.89
5881.00,0.89
5880.00,0.89
5879.00,0.89
5878.00,0.89
5877.00,0.89
5876.00,0.89
5875.00,0.89
5874.00,0.90
5873.00,0.90
5872.00,0.90
5871.00,0.90
5870.00,0.90
5869.00,0.90
5868.00,0.90
5867.00,0.90
5866.00,0.91
5865.00,0.91
5864.00,0.91
5863.00,0.91
5862.00,0.91
5861.00,0.91
5860.00,0.91
5859.00,0.91
5858.00,0.91
5857.00,0.91
5856.00,0.91
5855.00,0.91
5854.00,0.91
5853.00,0.91
5852.00,0.91
5851.00,0.91
5850.00,0.91
5849.00,0.91
5848.00,0.91
5847.00,0.91
5846.00,0.91
5845.00,0.91
5844.00,0.91
5843.00,0.91
5842.00,0.91
5841.00,0.91
5840.00,0.91
5839.00,0.91
5838.00,0.91
5837.00,0.91
5836.00,0.91
5835.00,0.91
5834.00,0.91
5833.00,0.91
5832.00,0.91
5831.00,0.91
5830.00,0.92
5829.00,0.92
5828.00,0.92
5827.00,0.92
5826.00,0.92
5825.00,0.92
5824.00,0.92
5823.00,0.93
5822.00,0.93
5821.00,0.93
5820.00,0.93
5819.00,0.93
5818.00,0.94
5817.00,0.94
5816.00,0.94
5815.00,0.94
5814.00,0.94
5813.00,0.95
5812.00,0.95
5811.00,0.95
5810.00,0.95
5809.00,0.95
5808.00,0.95
5807.00,0.95
5806.00,0.95
5805.00,0.95
5804.00,0.95
5803.00,0.95
5802.00,0.95
5801.00,0.95
5800.00,0.95
5799.00,0.95
5798.00,0.95
5797.00,0.95
5796.00,0.95
5795.00,0.94
5794.00,0.94
5793.00,0.94
5792.00,0.94
5791.00,0.93
5790.00,0.93
5789.00,0.93
5788.00,0.93
5787.00,0.92
5786.00,0.92
5785.00,0.92
5784.00,0.91
5783.00,0.91
5782.00,0.91
5781.00,0.91
5780.00,0.91
5779.00,0.90
5778.00,0.90
5777.00,0.90
5776.00,0.90
5775.00,0.90
5774.00,0.89
5773.00,0.89
5772.00,0.89
5771.00,0.89
5770.00,0.89
5769.00,0.89
5768.00,0.89
5767.00,0.89
5766.00,0.89
5765.00,0.89
5764.00,0.89
5763.00,0.89
5762.00,0.89
5761.00,0.89
5760.00,0.89
5759.00,0.90
5758.00,0.90
5757.00,0.90
5756.00,0.90
5755.00,0.90
5754.00,0.90
5753.00,0.90
5752.00,0.91
5751.00,0.91
5750.00,0.91
5749.00,0.91
5748.00,0.91
5747.00,0.92
5746.00,0.92
5745.00,0.92
5744.00,0.92
5743.00,0.93
5742.00,0.93
5741.00,0.93
5740.00,0.93
5739.00,0.93
5738.00,0.94
5737.00,0.94
5736.00,0.94
5735.00,0.94
5734.00,0.94
5733.00,0.94
5732.00,0.95
5731.00,0.95
5730.00,0.95
5729.00,0.95
5728.00,0.95
5727.00,0.95
5726.00,0.96
5725.00,0.96
5724.00,0.96
5723.00,0.96
5722.00,0.96
5721.00,0.96
5720.00,0.96
5719.00,0.96
5718.00,0.96
5717.00,0.96
5716.00,0.97
5715.00,0.97
5714.00,0.97
5713.00,0.97
5712.00,0.97
5711.00,0.97
5710.00,0.97
5709.00,0.97
5708.00,0.97
5707.00,0.97
5706.00,0.97
5705.00,0.97
5704.00,0.97
5703.00,0.97
5702.00,0.97
5701.00,0.96
5700.00,0.96
5699.00,0.96
5698.00,0.96
5697.00,0.96
5696.00,0.96
5695.00,0.96
5694.00,0.96
5693.00,0.96
5692.00,0.96
5691.00,0.96
5690.00,0.96
5689.00,0.96
5688.00,0.96
5687.00,0.96
5686.00,0.96
5685.00,0.96
5684.00,0.95
5683.00,0.95
5682.00,0.96
5681.00,0.96
5680.00,0.96
5679.00,0.96
5678.00,0.96
5677.00,0.96
5676.00,0.96
5675.00,0.96
5674.00,0.96
5673.00,0.97
5672.00,0.97
5671.00,0.97
5670.00,0.97
5669.00,0.97
5668.00,0.97
5667.00,0.97
5666.00,0.97
5665.00,0.98
5664.00,0.98
5663.00,0.98
5662.00,0.98
5661.00,0.98
5660.00,0.98
5659.00,0.98
5658.00,0.98
5657.00,0.99
5656.00,0.99
5655.00,0.99
5654.00,0.99
5653.00,0.99
5652.00,0.99
5651.00,0.99
5650.00,0.99
5649.00,0.99
5648.00,1.00
5647.00,1.00
5646.00,1.00
5645.00,1.00
5644.00,1.00
5643.00,1.00
5642.00,1.00
5641.00,1.00
5640.00,1.00
5639.00,1.00
5638.00,1.01
5637.00,1.01
5636.00,1.01
5635.00,1.01
5634.00,1.01
5633.00,1.01
5632.00,1.01
5631.00,1.01
5630.00,1.01
5629.00,1.01
5628.00,1.01
5627.00,1.02
5626.00,1.02
5625.00,1.02
5624.00,1.02
5623.00,1.02
5622.00,1.02
5621.00,1.02
5620.00,1.02
5619.00,1.02
5618.00,1.02
5617.00,1.02
5616.00,1.02
5615.00,1.02
5614.00,1.02
5613.00,1.02
5612.00,1.02
5611.00,1.02
5610.00,1.02
5609.00,1.02
5608.00,1.02
5607.00,1.02
5606.00,1.02
5605.00,1.02
5604.00,1.02
5603.00,1.03
5602.00,1.03
5601.00,1.03
5600.00,1.03
5599.00,1.03
5598.00,1.03
5597.00,1.04
5596.00,1.04
5595.00,1.04
5594.00,1.04
5593.00,1.04
5592.00,1.04
5591.00,1.04
5590.00,1.05
5589.00,1.05
5588.00,1.05
5587.00,1.05
5586.00,1.05
5585.00,1.05
5584.00,1.05
5583.00,1.05
5582.00,1.06
5581.00,1.06
5580.00,1.06
5579.00,1.06
5578.00,1.06
5577.00,1.06
5576.00,1.06
5575.00,1.06
5574.00,1.06
5573.00,1.06
5572.00,1.06
5571.00,1.07
5570.00,1.07
5569.00,1.07
5568.00,1.07
5567.00,1.07
5566.00,1.07
5565.00,1.07
5564.00,1.07
5563.00,1.08
5562.00,1.08
5561.00,1.08
5560.00,1.08
5559.00,1.08
5558.00,1.08
5557.00,1.08
5556.00,1.09
5555.00,1.09
5554.00,1.09
5553.00,1.09
5552.00,1.09
5551.00,1.09
5550.00,1.09
5549.00,1.09
5548.00,1.10
5547.00,1.10
5546.00,1.10
5545.00,1.10
5544.00,1.10
5543.00,1.10
5542.00,1.10
5541.00,1.10
5540.00,1.11
5539.00,1.11
5538.00,1.11
5537.00,1.11
5536.00,1.11
5535.00,1.11
5534.00,1.12
5533.00,1.12
5532.00,1.12
5531.00,1.12
5530.00,1.12
5529.00,1.12
5528.00,1.12
5527.00,1.13
5526.00,1.13
5525.00,1.13
5524.00,1.13
5523.00,1.13
5522.00,1.13
5521.00,1.13
5520.00,1.13
5519.00,1.14
5518.00,1.14
5517.00,1.14
5516.00,1.14
5515.00,1.14
5514.00,1.14
5513.00,1.14
5512.00,1.14
5511.00,1.14
5510.00,1.14
5509.00,1.14
5508.00,1.14
5507.00,1.14
5506.00,1.14
5505.00,1.14
5504.00,1.14
5503.00,1.14
5502.00,1.14
5501.00,1.14
5500.00,1.14
5499.00,1.14
5498.00,1.14
5497.00,1.14
5496.00,1.14
5495.00,1.14
5494.00,1.15
5493.00,1.15
5492.00,1.15
5491.00,1.15
5490.00,1.15
5489.00,1.15
5488.00,1.16
5487.00,1.16
5486.00,1.16
5485.00,1.16
5484.00,1.17
5483.00,1.17
5482.00,1.17
5481.00,1.17
5480.00,1.18
5479.00,1.18
5478.00,1.18
5477.00,1.19
5476.00,1.19
5475.00,1.19
5474.00,1.19
5473.00,1.20
5472.00,1.20
5471.00,1.20
5470.00,1.20
5469.00,1.20
5468.00,1.21
5467.00,1.21
5466.00,1.21
5465.00,1.21
5464.00,1.21
5463.00,1.21
5462.00,1.21
5461.00,1.21
5460.00,1.21
5459.00,1.21
5458.00,1.21
5457.00,1.22
5456.00,1.22
5455.00,1.22
5454.00,1.22
5453.00,1.22
5452.00,1.22
5451.00,1.22
5450.00,1.22
5449.00,1.22
5448.00,1.22
5447.00,1.22
5446.00,1.22
5445.00,1.22
5444.00,1.22
5443.00,1.22
5442.00,1.22
5441.00,1.22
5440.00,1.22
5439.00,1.22
5438.00,1.22
5437.00,1.22
5436.00,1.22
5435.00,1.22
5434.00,1.22
5433.00,1.22
5432.00,1.22
5431.00,1.22
5430.00,1.22
5429.00,1.22
5428.00,1.22
5427.00,1.21
5426.00,1.21
5425.00,1.21
5424.00,1.21
5423.00,1.20
5422.00,1.20
5421.00,1.20
5420.00,1.20
5419.00,1.19
5418.00,1.19
5417.00,1.19
5416.00,1.19
5415.00,1.18
5414.00,1.18
5413.00,1.18
5412.00,1.18
5411.00,1.18
5410.00,1.18
5409.00,1.17
5408.00,1.17
5407.00,1.17
5406.00,1.17
5405.00,1.17
5404.00,1.17
5403.00,1.17
5402.00,1.17
5401.00,1.17
5400.00,1.17
5399.00,1.17
5398.00,1.17
5397.00,1.17
5396.00,1.17
5395.00,1.17
5394.00,1.17
5393.00,1.17
5392.00,1.17
5391.00,1.17
5390.00,1.17
5389.00,1.17
5388.00,1.16
5387.00,1.16
5386.00,1.16
5385.00,1.16
5384.00,1.16
5383.00,1.16
5382.00,1.16
5381.00,1.15
5380.00,1.15
5379.00,1.15
5378.00,1.15
5377.00,1.14
5376.00,1.14
5375.00,1.14
5374.00,1.14
5373.00,1.13
5372.00,1.13
5371.00,1.13
5370.00,1.12
5369.00,1.12
5368.00,1.11
5367.00,1.11
5366.00,1.11
5365.00,1.10
5364.00,1.10
5363.00,1.10
5362.00,1.09
5361.00,1.09
5360.00,1.09
5359.00,1.08
5358.00,1.08
5357.00,1.08
5356.00,1.07
5355.00,1.07
5354.00,1.07
5353.00,1.06
5352.00,1.06
5351.00,1.05
5350.00,1.05
5349.00,1.04
5348.00,1.04
5347.00,1.03
5346.00,1.03
5345.00,1.02
5344.00,1.02
5343.00,1.01
5342.00,1.01
5341.00,1.00
5340.00,1.00
5339.00,0.99
5338.00,0.98
5337.00,0.98
5336.00,0.97
5335.00,0.96
5334.00,0.95
5333.00,0.95
5332.00,0.94
5331.00,0.93
5330.00,0.92
5329.00,0.91
5328.00,0.91
5327.00,0.90
5326.00,0.89
5325.00,0.89
5324.00,0.88
5323.00,0.87
5322.00,0.87
5321.00,0.86
5320.00,0.85
5319.00,0.85
5318.00,0.84
5317.00,0.83
5316.00,0.83
5315.00,0.82
5314.00,0.82
5313.00,0.81
5312.00,0.81
5311.00,0.80
5310.00,0.80
5309.00,0.79
5308.00,0.79
5307.00,0.79
5306.00,0.79
5305.00,0.79
5304.00,0.78
5303.00,0.78
5302.00,0.78
5301.00,0.78
5300.00,0.78
5299.00,0.78
5298.00,0.78
5297.00,0.78
5296.00,0.78
5295.00,0.78
5294.00,0.78
5293.00,0.78
5292.00,0.78
5291.00,0.78
5290.00,0.78
5289.00,0.78
5288.00,0.78
5287.00,0.78
5286.00,0.78
5285.00,0.79
5284.00,0.79
5283.00,0.79
5282.00,0.79
5281.00,0.79
5280.00,0.79
5279.00,0.80
5278.00,0.80
5277.00,0.80
5276.00,0.80
5275.00,0.80
5274.00,0.80
5273.00,0.80
5272.00,0.80
5271.00,0.80
5270.00,0.80
5269.00,0.80
5268.00,0.81
5267.00,0.81
5266.00,0.81
5265.00,0.81
5264.00,0.81
5263.00,0.81
5262.00,0.81
5261.00,0.81
5260.00,0.81
5259.00,0.81
5258.00,0.81
5257.00,0.81
5256.00,0.81
5255.00,0.81
5254.00,0.81
5253.00,0.81
5252.00,0.81
5251.00,0.82
5250.00,0.82
5249.00,0.82
5248.00,0.82
5247.00,0.82
5246.00,0.82
5245.00,0.82
5244.00,0.82
5243.00,0.82
5242.00,0.82
5241.00,0.82
5240.00,0.82
5239.00,0.82
5238.00,0.82
5237.00,0.82
5236.00,0.82
5235.00,0.82
5234.00,0.81
5233.00,0.81
5232.00,0.81
5231.00,0.81
5230.00,0.81
5229.00,0.81
5228.00,0.81
5227.00,0.81
5226.00,0.81
5225.00,0.81
5224.00,0.81
5223.00,0.81
5222.00,0.81
5221.00,0.80
5220.00,0.80
5219.00,0.80
5218.00,0.80
5217.00,0.80
5216.00,0.80
5215.00,0.80
5214.00,0.80
5213.00,0.80
5212.00,0.79
5211.00,0.79
5210.00,0.79
5209.00,0.79
5208.00,0.79
5207.00,0.79
5206.00,0.79
5205.00,0.79
5204.00,0.79
5203.00,0.79
5202.00,0.79
5201.00,0.78
5200.00,0.78
5199.00,0.78
5198.00,0.78
5197.00,0.78
5196.00,0.78
5195.00,0.77
5194.00,0.77
5193.00,0.77
5192.00,0.77
5191.00,0.77
5190.00,0.77
5189.00,0.77
5188.00,0.77
5187.00,0.77
5186.00,0.77
5185.00,0.77
5184.00,0.77
5183.00,0.77
5182.00,0.77
5181.00,0.77
5180.00,0.77
5179.00,0.77
5178.00,0.77
5177.00,0.77
5176.00,0.77
5175.00,0.77
5174.00,0.78
5173.00,0.78
5172.00,0.78
5171.00,0.78
5170.00,0.78
5169.00,0.78
5168.00,0.79
5167.00,0.79
5166.00,0.79
5165.00,0.79
5164.00,0.79
5163.00,0.79
5162.00,0.79
5161.00,0.79
5160.00,0.80
5159.00,0.80
5158.00,0.80
5157.00,0.80
5156.00,0.80
5155.00,0.80
5154.00,0.80
5153.00,0.80
5152.00,0.80
5151.00,0.80
5150.00,0.80
5149.00,0.80
5148.00,0.80
5147.00,0.80
5146.00,0.80
5145.00,0.80
5144.00,0.80
5143.00,0.80
5142.00,0.80
5141.00,0.80
5140.00,0.80
5139.00,0.80
5138.00,0.80
5137.00,0.80
5136.00,0.80
5135.00,0.80
5134.00,0.80
5133.00,0.80
5132.00,0.80
5131.00,0.80
5130.00,0.81
5129.00,0.81
5128.00,0.81
5127.00,0.81
5126.00,0.81
5125.00,0.81
5124.00,0.81
5123.00,0.81
5122.00,0.81
5121.00,0.81
5120.00,0.81
5119.00,0.81
5118.00,0.81
5117.00,0.81
5116.00,0.81
5115.00,0.81
5114.00,0.81
5113.00,0.81
5112.00,0.81
5111.00,0.81
5110.00,0.82
5109.00,0.82
5108.00,0.82
5107.00,0.82
5106.00,0.82
5105.00,0.82
5104.00,0.82
5103.00,0.82
5102.00,0.82
5101.00,0.82
5100.00,0.82
5099.00,0.82
5098.00,0.82
5097.00,0.82
5096.00,0.82
5095.00,0.82
5094.00,0.82
5093.00,0.82
5092.00,0.82
5091.00,0.82
5090.00,0.82
5089.00,0.81
5088.00,0.81
5087.00,0.81
5086.00,0.81
5085.00,0.81
5084.00,0.81
5083.00,0.81
5082.00,0.81
5081.00,0.81
5080.00,0.81
5079.00,0.81
5078.00,0.81
5077.00,0.81
5076.00,0.81
5075.00,0.81
5074.00,0.81
5073.00,0.81
5072.00,0.81
5071.00,0.81
5070.00,0.81
5069.00,0.81
5068.00,0.81
5067.00,0.81
5066.00,0.81
5065.00,0.81
5064.00,0.81
5063.00,0.81
5062.00,0.81
5061.00,0.81
5060.00,0.81
5059.00,0.81
5058.00,0.81
5057.00,0.81
5056.00,0.81
5055.00,0.81
5054.00,0.81
5053.00,0.81
5052.00,0.81
5051.00,0.81
5050.00,0.81
5049.00,0.81
5048.00,0.82
5047.00,0.82
5046.00,0.82
5045.00,0.82
5044.00,0.82
5043.00,0.82
5042.00,0.82
5041.00,0.82
5040.00,0.81
5039.00,0.81
5038.00,0.81
5037.00,0.81
5036.00,0.81
5035.00,0.81
5034.00,0.81
5033.00,0.81
5032.00,0.81
5031.00,0.81
5030.00,0.81
5029.00,0.81
5028.00,0.81
5027.00,0.81
5026.00,0.81
5025.00,0.81
5024.00,0.81
5023.00,0.81
5022.00,0.81
5021.00,0.81
5020.00,0.81
5019.00,0.82
5018.00,0.82
5017.00,0.82
5016.00,0.82
5015.00,0.82
5014.00,0.82
5013.00,0.82
5012.00,0.82
5011.00,0.82
5010.00,0.83
5009.00,0.83
5008.00,0.83
5007.00,0.83
5006.00,0.84
5005.00,0.84
5004.00,0.84
5003.00,0.84
5002.00,0.84
5001.00,0.85
5000.00,0.85
4999.00,0.85
4998.00,0.85
4997.00,0.85
4996.00,0.86
4995.00,0.86
4994.00,0.86
4993.00,0.86
4992.00,0.86
4991.00,0.87
4990.00,0.87
4989.00,0.87
4988.00,0.87
4987.00,0.87
4986.00,0.87
4985.00,0.87
4984.00,0.87
4983.00,0.87
4982.00,0.87
4981.00,0.87
4980.00,0.87
4979.00,0.87
4978.00,0.87
4977.00,0.87
4976.00,0.87
4975.00,0.87
4974.00,0.87
4973.00,0.86
4972.00,0.86
4971.00,0.86
4970.00,0.86
4969.00,0.86
4968.00,0.86
4967.00,0.86
4966.00,0.86
4965.00,0.86
4964.00,0.86
4963.00,0.86
4962.00,0.86
4961.00,0.86
4960.00,0.86
4959.00,0.87
4958.00,0.87
4957.00,0.87
4956.00,0.87
4955.00,0.87
4954.00,0.87
4953.00,0.87
4952.00,0.87
4951.00,0.87
4950.00,0.87
4949.00,0.87
4948.00,0.87
4947.00,0.87
4946.00,0.87
4945.00,0.87
4944.00,0.87
4943.00,0.87
4942.00,0.87
4941.00,0.87
4940.00,0.88
4939.00,0.88
4938.00,0.88
4937.00,0.88
4936.00,0.88
4935.00,0.88
4934.00,0.88
4933.00,0.88
4932.00,0.88
4931.00,0.87
4930.00,0.87
4929.00,0.87
4928.00,0.87
4927.00,0.87
4926.00,0.87
4925.00,0.87
4924.00,0.87
4923.00,0.87
4922.00,0.87
4921.00,0.87
4920.00,0.87
4919.00,0.87
4918.00,0.87
4917.00,0.87
4916.00,0.87
4915.00,0.87
4914.00,0.87
4913.00,0.87
4912.00,0.87
4911.00,0.87
4910.00,0.87
4909.00,0.87
4908.00,0.87
4907.00,0.87
4906.00,0.87
4905.00,0.87
4904.00,0.87
4903.00,0.87
4902.00,0.87
4901.00,0.87
4900.00,0.87
4899.00,0.87
4898.00,0.88
4897.00,0.88
4896.00,0.88
4895.00,0.88
4894.00,0.88
4893.00,0.88
4892.00,0.88
4891.00,0.88
4890.00,0.88
4889.00,0.88
4888.00,0.88
4887.00,0.88
4886.00,0.88
4885.00,0.88
4884.00,0.88
4883.00,0.88
4882.00,0.88
4881.00,0.88
4880.00,0.88
4879.00,0.88
4878.00,0.89
4877.00,0.89
4876.00,0.89
4875.00,0.89
4874.00,0.89
4873.00,0.89
4872.00,0.89
4871.00,0.89
4870.00,0.89
4869.00,0.89
4868.00,0.89
4867.00,0.89
4866.00,0.90
4865.00,0.90
4864.00,0.90
4863.00,0.90
4862.00,0.90
4861.00,0.90
4860.00,0.90
4859.00,0.90
4858.00,0.90
4857.00,0.90
4856.00,0.90
4855.00,0.90
4854.00,0.90
4853.00,0.90
4852.00,0.90
4851.00,0.90
4850.00,0.90
4849.00,0.90
4848.00,0.90
4847.00,0.90
4846.00,0.90
4845.00,0.90
4844.00,0.90
4843.00,0.90
4842.00,0.90
4841.00,0.90
4840.00,0.90
4839.00,0.90
4838.00,0.90
4837.00,0.90
4836.00,0.90
4835.00,0.90
4834.00,0.90
4833.00,0.90
4832.00,0.90
4831.00,0.90
4830.00,0.90
4829.00,0.91
4828.00,0.91
4827.00,0.91
4826.00,0.91
4825.00,0.91
4824.00,0.91
4823.00,0.91
4822.00,0.91
4821.00,0.91
4820.00,0.91
4819.00,0.91
4818.00,0.91
4817.00,0.91
4816.00,0.91
4815.00,0.91
4814.00,0.91
4813.00,0.91
4812.00,0.91
4811.00,0.91
4810.00,0.91
4809.00,0.91
4808.00,0.91
4807.00,0.90
4806.00,0.90
4805.00,0.90
4804.00,0.90
4803.00,0.90
4802.00,0.90
4801.00,0.90
4800.00,0.90
4799.00,0.90
4798.00,0.90
4797.00,0.90
4796.00,0.90
4795.00,0.90
4794.00,0.91
4793.00,0.91
4792.00,0.91
4791.00,0.91
4790.00,0.91
4789.00,0.92
4788.00,0.92
4787.00,0.92
4786.00,0.92
4785.00,0.93
4784.00,0.93
4783.00,0.93
4782.00,0.93
4781.00,0.93
4780.00,0.94
4779.00,0.94
4778.00,0.94
4777.00,0.94
4776.00,0.95
4775.00,0.95
4774.00,0.95
4773.00,0.95
4772.00,0.95
4771.00,0.95
4770.00,0.96
4769.00,0.96
4768.00,0.96
4767.00,0.96
4766.00,0.96
4765.00,0.96
4764.00,0.96
4763.00,0.96
4762.00,0.96
4761.00,0.96
4760.00,0.96
4759.00,0.96
4758.00,0.96
4757.00,0.96
4756.00,0.96
4755.00,0.96
4754.00,0.96
4753.00,0.96
4752.00,0.96
4751.00,0.96
4750.00,0.95
4749.00,0.95
4748.00,0.95
4747.00,0.95
4746.00,0.95
4745.00,0.95
4744.00,0.95
4743.00,0.95
4742.00,0.95
4741.00,0.95
4740.00,0.95
4739.00,0.95
4738.00,0.95
4737.00,0.95
4736.00,0.95
4735.00,0.95
4734.00,0.95
4733.00,0.95
4732.00,0.95
4731.00,0.95
4730.00,0.95
4729.00,0.95
4728.00,0.95
4727.00,0.95
4726.00,0.95
4725.00,0.95
4724.00,0.95
4723.00,0.95
4722.00,0.95
4721.00,0.95
4720.00,0.95
4719.00,0.95
4718.00,0.95
4717.00,0.95
4716.00,0.95
4715.00,0.95
4714.00,0.95
4713.00,0.95
4712.00,0.96
4711.00,0.96
4710.00,0.96
4709.00,0.96
4708.00,0.96
4707.00,0.97
4706.00,0.97
4705.00,0.97
4704.00,0.97
4703.00,0.98
4702.00,0.98
4701.00,0.98
4700.00,0.98
4699.00,0.98
4698.00,0.99
4697.00,0.99
4696.00,0.99
4695.00,0.99
4694.00,0.99
4693.00,0.99
4692.00,0.99
4691.00,0.99
4690.00,0.99
4689.00,0.99
4688.00,0.99
4687.00,0.99
4686.00,0.99
4685.00,0.99
4684.00,0.99
4683.00,0.99
4682.00,0.99
4681.00,0.98
4680.00,0.98
4679.00,0.98
4678.00,0.98
4677.00,0.97
4676.00,0.97
4675.00,0.97
4674.00,0.97
4673.00,0.97
4672.00,0.96
4671.00,0.96
4670.00,0.96
4669.00,0.96
4668.00,0.96
4667.00,0.96
4666.00,0.96
4665.00,0.97
4664.00,0.97
4663.00,0.97
4662.00,0.97
4661.00,0.97
4660.00,0.97
4659.00,0.98
4658.00,0.98
4657.00,0.98
4656.00,0.98
4655.00,0.99
4654.00,0.99
4653.00,0.99
4652.00,1.00
4651.00,1.00
4650.00,1.01
4649.00,1.01
4648.00,1.01
4647.00,1.02
4646.00,1.02
4645.00,1.02
4644.00,1.03
4643.00,1.03
4642.00,1.03
4641.00,1.03
4640.00,1.03
4639.00,1.03
4638.00,1.04
4637.00,1.04
4636.00,1.04
4635.00,1.04
4634.00,1.04
4633.00,1.04
4632.00,1.04
4631.00,1.04
4630.00,1.03
4629.00,1.03
4628.00,1.03
4627.00,1.03
4626.00,1.03
4625.00,1.03
4624.00,1.02
4623.00,1.02
4622.00,1.02
4621.00,1.02
4620.00,1.02
4619.00,1.02
4618.00,1.02
4617.00,1.01
4616.00,1.01
4615.00,1.01
4614.00,1.01
4613.00,1.01
4612.00,1.01
4611.00,1.01
4610.00,1.01
4609.00,1.01
4608.00,1.01
4607.00,1.01
4606.00,1.01
4605.00,1.01
4604.00,1.01
4603.00,1.01
4602.00,1.01
4601.00,1.01
4600.00,1.01
4599.00,1.01
4598.00,1.01
4597.00,1.01
4596.00,1.01
4595.00,1.01
4594.00,1.01
4593.00,1.01
4592.00,1.01
4591.00,1.01
4590.00,1.01
4589.00,1.01
4588.00,1.01
4587.00,1.01
4586.00,1.01
4585.00,1.01
4584.00,1.01
4583.00,1.01
4582.00,1.01
4581.00,1.01
4580.00,1.01
4579.00,1.02
4578.00,1.02
4577.00,1.02
4576.00,1.02
4575.00,1.02
4574.00,1.02
4573.00,1.03
4572.00,1.03
4571.00,1.03
4570.00,1.03
4569.00,1.03
4568.00,1.03
4567.00,1.03
4566.00,1.03
4565.00,1.03
4564.00,1.03
4563.00,1.03
4562.00,1.03
4561.00,1.03
4560.00,1.03
4559.00,1.03
4558.00,1.03
4557.00,1.03
4556.00,1.03
4555.00,1.03
4554.00,1.03
4553.00,1.03
4552.00,1.03
4551.00,1.03
4550.00,1.03
4549.00,1.03
4548.00,1.03
4547.00,1.03
4546.00,1.03
4545.00,1.03
4544.00,1.03
4543.00,1.03
4542.00,1.03
4541.00,1.03
4540.00,1.03
4539.00,1.03
4538.00,1.04
4537.00,1.04
4536.00,1.04
4535.00,1.04
4534.00,1.04
4533.00,1.04
4532.00,1.05
4531.00,1.05
4530.00,1.05
4529.00,1.05
4528.00,1.05
4527.00,1.05
4526.00,1.05
4525.00,1.05
4524.00,1.05
4523.00,1.05
4522.00,1.05
4521.00,1.05
4520.00,1.05
4519.00,1.05
4518.00,1.05
4517.00,1.05
4516.00,1.05
4515.00,1.06
4514.00,1.06
4513.00,1.06
4512.00,1.06
4511.00,1.06
4510.00,1.06
4509.00,1.06
4508.00,1.06
4507.00,1.06
4506.00,1.05
4505.00,1.05
4504.00,1.05
4503.00,1.05
4502.00,1.05
4501.00,1.05
4500.00,1.05
4499.00,1.05
4498.00,1.05
4497.00,1.05
4496.00,1.05
4495.00,1.05
4494.00,1.05
4493.00,1.05
4492.00,1.05
4491.00,1.05
4490.00,1.05
4489.00,1.05
4488.00,1.05
4487.00,1.05
4486.00,1.05
4485.00,1.06
4484.00,1.06
4483.00,1.06
4482.00,1.06
4481.00,1.06
4480.00,1.06
4479.00,1.06
4478.00,1.06
4477.00,1.06
4476.00,1.06
4475.00,1.06
4474.00,1.06
4473.00,1.06
4472.00,1.06
4471.00,1.07
4470.00,1.07
4469.00,1.07
4468.00,1.07
4467.00,1.07
4466.00,1.07
4465.00,1.07
4464.00,1.07
4463.00,1.07
4462.00,1.07
4461.00,1.07
4460.00,1.07
4459.00,1.07
4458.00,1.07
4457.00,1.07
4456.00,1.07
4455.00,1.07
4454.00,1.06
4453.00,1.06
4452.00,1.06
4451.00,1.06
4450.00,1.06
4449.00,1.06
4448.00,1.06
4447.00,1.06
4446.00,1.06
4445.00,1.05
4444.00,1.05
4443.00,1.05
4442.00,1.05
4441.00,1.05
4440.00,1.05
4439.00,1.05
4438.00,1.04
4437.00,1.04
4436.00,1.04
4435.00,1.04
4434.00,1.04
4433.00,1.04
4432.00,1.04
4431.00,1.04
4430.00,1.03
4429.00,1.03
4428.00,1.03
4427.00,1.03
4426.00,1.03
4425.00,1.03
4424.00,1.04
4423.00,1.04
4422.00,1.04
4421.00,1.04
4420.00,1.04
4419.00,1.04
4418.00,1.04
4417.00,1.04
4416.00,1.04
4415.00,1.04
4414.00,1.04
4413.00,1.04
4412.00,1.04
4411.00,1.04
4410.00,1.04
4409.00,1.04
4408.00,1.04
4407.00,1.04
4406.00,1.04
4405.00,1.04
4404.00,1.04
4403.00,1.04
4402.00,1.04
4401.00,1.04
4400.00,1.04
4399.00,1.04
4398.00,1.04
4397.00,1.04
4396.00,1.04
4395.00,1.04
4394.00,1.04
4393.00,1.04
4392.00,1.03
4391.00,1.03
4390.00,1.03
4389.00,1.03
4388.00,1.03
4387.00,1.03
4386.00,1.03
4385.00,1.03
4384.00,1.03
4383.00,1.03
4382.00,1.03
4381.00,1.03
4380.00,1.03
4379.00,1.03
4378.00,1.03
4377.00,1.03
4376.00,1.03
4375.00,1.03
4374.00,1.03
4373.00,1.03
4372.00,1.03
4371.00,1.03
4370.00,1.03
4369.00,1.03
4368.00,1.03
4367.00,1.03
4366.00,1.03
4365.00,1.03
4364.00,1.04
4363.00,1.04
4362.00,1.04
4361.00,1.04
4360.00,1.04
4359.00,1.04
4358.00,1.04
4357.00,1.04
4356.00,1.04
4355.00,1.04
4354.00,1.04
4353.00,1.04
4352.00,1.04
4351.00,1.04
4350.00,1.04
4349.00,1.04
4348.00,1.04
4347.00,1.04
4346.00,1.03
4345.00,1.03
4344.00,1.03
4343.00,1.03
4342.00,1.03
4341.00,1.03
4340.00,1.03
4339.00,1.03
4338.00,1.03
4337.00,1.03
4336.00,1.03
4335.00,1.03
4334.00,1.03
4333.00,1.03
4332.00,1.03
4331.00,1.03
4330.00,1.03
4329.00,1.03
4328.00,1.03
4327.00,1.03
4326.00,1.03
4325.00,1.03
4324.00,1.03
4323.00,1.04
4322.00,1.04
4321.00,1.04
4320.00,1.04
4319.00,1.04
4318.00,1.04
4317.00,1.04
4316.00,1.05
4315.00,1.05
4314.00,1.05
4313.00,1.05
4312.00,1.05
4311.00,1.05
4310.00,1.05
4309.00,1.06
4308.00,1.06
4307.00,1.06
4306.00,1.06
4305.00,1.06
4304.00,1.06
4303.00,1.06
4302.00,1.06
4301.00,1.06
4300.00,1.06
4299.00,1.06
4298.00,1.06
4297.00,1.06
4296.00,1.06
4295.00,1.06
4294.00,1.06
4293.00,1.06
4292.00,1.06
4291.00,1.06
4290.00,1.06
4289.00,1.06
4288.00,1.06
4287.00,1.06
4286.00,1.05
4285.00,1.05
4284.00,1.05
4283.00,1.05
4282.00,1.05
4281.00,1.05
4280.00,1.05
4279.00,1.06
4278.00,1.06
4277.00,1.06
4276.00,1.06
4275.00,1.06
4274.00,1.06
4273.00,1.06
4272.00,1.06
4271.00,1.06
4270.00,1.06
4269.00,1.06
4268.00,1.07
4267.00,1.07
4266.00,1.07
4265.00,1.07
4264.00,1.07
4263.00,1.08
4262.00,1.08
4261.00,1.08
4260.00,1.08
4259.00,1.08
4258.00,1.09
4257.00,1.09
4256.00,1.09
4255.00,1.09
4254.00,1.09
4253.00,1.08
4252.00,1.08
4251.00,1.08
4250.00,1.08
4249.00,1.08
4248.00,1.08
4247.00,1.08
4246.00,1.07
4245.00,1.07
4244.00,1.07
4243.00,1.07
4242.00,1.07
4241.00,1.06
4240.00,1.06
4239.00,1.05
4238.00,1.05
4237.00,1.05
4236.00,1.04
4235.00,1.04
4234.00,1.04
4233.00,1.03
4232.00,1.03
4231.00,1.03
4230.00,1.03
4229.00,1.03
4228.00,1.02
4227.00,1.02
4226.00,1.02
4225.00,1.02
4224.00,1.02
4223.00,1.02
4222.00,1.02
4221.00,1.02
4220.00,1.02
4219.00,1.02
4218.00,1.02
4217.00,1.03
4216.00,1.03
4215.00,1.03
4214.00,1.03
4213.00,1.03
4212.00,1.04
4211.00,1.04
4210.00,1.04
4209.00,1.04
4208.00,1.05
4207.00,1.05
4206.00,1.05
4205.00,1.06
4204.00,1.06
4203.00,1.06
4202.00,1.06
4201.00,1.07
4200.00,1.07
4199.00,1.07
4198.00,1.08
4197.00,1.08
4196.00,1.09
4195.00,1.09
4194.00,1.10
4193.00,1.10
4192.00,1.11
4191.00,1.11
4190.00,1.11
4189.00,1.12
4188.00,1.12
4187.00,1.12
4186.00,1.13
4185.00,1.13
4184.00,1.14
4183.00,1.14
4182.00,1.15
4181.00,1.15
4180.00,1.16
4179.00,1.16
4178.00,1.16
4177.00,1.17
4176.00,1.17
4175.00,1.17
4174.00,1.18
4173.00,1.18
4172.00,1.18
4171.00,1.18
4170.00,1.18
4169.00,1.18
4168.00,1.18
4167.00,1.18
4166.00,1.18
4165.00,1.17
4164.00,1.17
4163.00,1.17
4162.00,1.17
4161.00,1.17
4160.00,1.17
4159.00,1.17
4158.00,1.16
4157.00,1.16
4156.00,1.16
4155.00,1.16
4154.00,1.15
4153.00,1.15
4152.00,1.15
4151.00,1.15
4150.00,1.14
4149.00,1.14
4148.00,1.14
4147.00,1.14
4146.00,1.14
4145.00,1.14
4144.00,1.14
4143.00,1.14
4142.00,1.14
4141.00,1.14
4140.00,1.14
4139.00,1.14
4138.00,1.14
4137.00,1.14
4136.00,1.14
4135.00,1.14
4134.00,1.14
4133.00,1.14
4132.00,1.14
4131.00,1.14
4130.00,1.14
4129.00,1.14
4128.00,1.14
4127.00,1.14
4126.00,1.14
4125.00,1.15
4124.00,1.15
4123.00,1.15
4122.00,1.15
4121.00,1.15
4120.00,1.15
4119.00,1.16
4118.00,1.16
4117.00,1.16
4116.00,1.16
4115.00,1.16
4114.00,1.17
4113.00,1.17
4112.00,1.17
4111.00,1.17
4110.00,1.18
4109.00,1.18
4108.00,1.18
4107.00,1.19
4106.00,1.19
4105.00,1.19
4104.00,1.20
4103.00,1.20
4102.00,1.20
4101.00,1.20
4100.00,1.20
4099.00,1.21
4098.00,1.21
4097.00,1.21
4096.00,1.21
4095.00,1.21
4094.00,1.21
4093.00,1.21
4092.00,1.21
4091.00,1.21
4090.00,1.21
4089.00,1.21
4088.00,1.21
4087.00,1.21
4086.00,1.21
4085.00,1.21
4084.00,1.21
4083.00,1.21
4082.00,1.21
4081.00,1.21
4080.00,1.21
4079.00,1.21
4078.00,1.20
4077.00,1.20
4076.00,1.20
4075.00,1.20
4074.00,1.20
4073.00,1.20
4072.00,1.20
4071.00,1.20
4070.00,1.20
4069.00,1.20
4068.00,1.20
4067.00,1.20
4066.00,1.19
4065.00,1.19
4064.00,1.19
4063.00,1.19
4062.00,1.19
4061.00,1.19
4060.00,1.19
4059.00,1.19
4058.00,1.19
4057.00,1.20
4056.00,1.20
4055.00,1.20
4054.00,1.20
4053.00,1.20
4052.00,1.20
4051.00,1.20
4050.00,1.20
4049.00,1.21
4048.00,1.21
4047.00,1.21
4046.00,1.21
4045.00,1.22
4044.00,1.22
4043.00,1.22
4042.00,1.22
4041.00,1.23
4040.00,1.23
4039.00,1.23
4038.00,1.23
4037.00,1.24
4036.00,1.24
4035.00,1.24
4034.00,1.24
4033.00,1.25
4032.00,1.25
4031.00,1.25
4030.00,1.25
4029.00,1.25
4028.00,1.25
4027.00,1.26
4026.00,1.26
4025.00,1.26
4024.00,1.26
4023.00,1.26
4022.00,1.27
4021.00,1.27
4020.00,1.27
4019.00,1.27
4018.00,1.27
4017.00,1.27
4016.00,1.27
4015.00,1.27
4014.00,1.28
4013.00,1.28
4012.00,1.28
4011.00,1.28
4010.00,1.28
4009.00,1.28
4008.00,1.29
4007.00,1.29
4006.00,1.29
4005.00,1.29
4004.00,1.29
4003.00,1.29
4002.00,1.30
4001.00,1.30
4000.00,1.30
