创建为新数据集,样品 909 用户 Administrator 日期 星期一, 七月 29 2019
cm-1,%T
10000.00,1.03
9999.00,1.04
9998.00,1.06
9997.00,1.08
9996.00,1.10
9995.00,1.12
9994.00,1.13
9993.00,1.15
9992.00,1.17
9991.00,1.18
9990.00,1.19
9989.00,1.20
9988.00,1.21
9987.00,1.22
9986.00,1.22
9985.00,1.23
9984.00,1.23
9983.00,1.23
9982.00,1.23
9981.00,1.23
9980.00,1.22
9979.00,1.22
9978.00,1.21
9977.00,1.20
9976.00,1.20
9975.00,1.19
9974.00,1.18
9973.00,1.17
9972.00,1.17
9971.00,1.16
9970.00,1.16
9969.00,1.15
9968.00,1.15
9967.00,1.15
9966.00,1.14
9965.00,1.14
9964.00,1.14
9963.00,1.14
9962.00,1.14
9961.00,1.14
9960.00,1.14
9959.00,1.14
9958.00,1.14
9957.00,1.14
9956.00,1.14
9955.00,1.15
9954.00,1.15
9953.00,1.16
9952.00,1.17
9951.00,1.18
9950.00,1.18
9949.00,1.19
9948.00,1.20
9947.00,1.21
9946.00,1.22
9945.00,1.23
9944.00,1.24
9943.00,1.25
9942.00,1.26
9941.00,1.26
9940.00,1.27
9939.00,1.27
9938.00,1.28
9937.00,1.29
9936.00,1.29
9935.00,1.30
9934.00,1.30
9933.00,1.31
9932.00,1.31
9931.00,1.31
9930.00,1.32
9929.00,1.32
9928.00,1.32
9927.00,1.32
9926.00,1.32
9925.00,1.31
9924.00,1.31
9923.00,1.30
9922.00,1.30
9921.00,1.29
9920.00,1.28
9919.00,1.27
9918.00,1.25
9917.00,1.24
9916.00,1.23
9915.00,1.22
9914.00,1.20
9913.00,1.19
9912.00,1.18
9911.00,1.16
9910.00,1.15
9909.00,1.14
9908.00,1.13
9907.00,1.11
9906.00,1.10
9905.00,1.09
9904.00,1.08
9903.00,1.07
9902.00,1.06
9901.00,1.05
9900.00,1.04
9899.00,1.03
9898.00,1.03
9897.00,1.02
9896.00,1.02
9895.00,1.02
9894.00,1.02
9893.00,1.02
9892.00,1.03
9891.00,1.03
9890.00,1.03
9889.00,1.03
9888.00,1.04
9887.00,1.04
9886.00,1.04
9885.00,1.04
9884.00,1.04
9883.00,1.05
9882.00,1.05
9881.00,1.05
9880.00,1.05
9879.00,1.06
9878.00,1.06
9877.00,1.06
9876.00,1.06
9875.00,1.06
9874.00,1.06
9873.00,1.05
9872.00,1.05
9871.00,1.05
9870.00,1.04
9869.00,1.04
9868.00,1.03
9867.00,1.02
9866.00,1.02
9865.00,1.01
9864.00,1.00
9863.00,1.00
9862.00,0.99
9861.00,0.99
9860.00,0.98
9859.00,0.98
9858.00,0.97
9857.00,0.96
9856.00,0.96
9855.00,0.95
9854.00,0.95
9853.00,0.94
9852.00,0.94
9851.00,0.93
9850.00,0.93
9849.00,0.92
9848.00,0.92
9847.00,0.91
9846.00,0.91
9845.00,0.90
9844.00,0.90
9843.00,0.89
9842.00,0.89
9841.00,0.88
9840.00,0.88
9839.00,0.87
9838.00,0.86
9837.00,0.86
9836.00,0.85
9835.00,0.84
9834.00,0.84
9833.00,0.83
9832.00,0.83
9831.00,0.82
9830.00,0.82
9829.00,0.82
9828.00,0.81
9827.00,0.81
9826.00,0.81
9825.00,0.81
9824.00,0.81
9823.00,0.81
9822.00,0.81
9821.00,0.81
9820.00,0.81
9819.00,0.81
9818.00,0.82
9817.00,0.82
9816.00,0.82
9815.00,0.83
9814.00,0.83
9813.00,0.84
9812.00,0.84
9811.00,0.85
9810.00,0.86
9809.00,0.87
9808.00,0.88
9807.00,0.88
9806.00,0.89
9805.00,0.90
9804.00,0.91
9803.00,0.91
9802.00,0.92
9801.00,0.92
9800.00,0.93
9799.00,0.93
9798.00,0.94
9797.00,0.94
9796.00,0.95
9795.00,0.95
9794.00,0.96
9793.00,0.97
9792.00,0.97
9791.00,0.98
9790.00,0.99
9789.00,1.00
9788.00,1.01
9787.00,1.01
9786.00,1.02
9785.00,1.03
9784.00,1.04
9783.00,1.05
9782.00,1.06
9781.00,1.07
9780.00,1.08
9779.00,1.09
9778.00,1.10
9777.00,1.12
9776.00,1.13
9775.00,1.14
9774.00,1.15
9773.00,1.17
9772.00,1.18
9771.00,1.19
9770.00,1.21
9769.00,1.22
9768.00,1.23
9767.00,1.24
9766.00,1.25
9765.00,1.25
9764.00,1.26
9763.00,1.27
9762.00,1.27
9761.00,1.28
9760.00,1.28
9759.00,1.28
9758.00,1.28
9757.00,1.28
9756.00,1.28
9755.00,1.27
9754.00,1.27
9753.00,1.27
9752.00,1.26
9751.00,1.25
9750.00,1.25
9749.00,1.24
9748.00,1.23
9747.00,1.22
9746.00,1.22
9745.00,1.21
9744.00,1.20
9743.00,1.19
9742.00,1.19
9741.00,1.18
9740.00,1.17
9739.00,1.16
9738.00,1.16
9737.00,1.15
9736.00,1.14
9735.00,1.14
9734.00,1.13
9733.00,1.13
9732.00,1.13
9731.00,1.13
9730.00,1.13
9729.00,1.13
9728.00,1.13
9727.00,1.13
9726.00,1.14
9725.00,1.14
9724.00,1.14
9723.00,1.14
9722.00,1.15
9721.00,1.15
9720.00,1.15
9719.00,1.15
9718.00,1.14
9717.00,1.14
9716.00,1.14
9715.00,1.14
9714.00,1.14
9713.00,1.14
9712.00,1.14
9711.00,1.13
9710.00,1.13
9709.00,1.13
9708.00,1.13
9707.00,1.12
9706.00,1.12
9705.00,1.11
9704.00,1.10
9703.00,1.10
9702.00,1.09
9701.00,1.08
9700.00,1.07
9699.00,1.06
9698.00,1.05
9697.00,1.04
9696.00,1.03
9695.00,1.03
9694.00,1.02
9693.00,1.01
9692.00,1.00
9691.00,0.99
9690.00,0.99
9689.00,0.98
9688.00,0.97
9687.00,0.97
9686.00,0.96
9685.00,0.95
9684.00,0.95
9683.00,0.94
9682.00,0.93
9681.00,0.93
9680.00,0.92
9679.00,0.92
9678.00,0.91
9677.00,0.91
9676.00,0.91
9675.00,0.90
9674.00,0.90
9673.00,0.90
9672.00,0.90
9671.00,0.89
9670.00,0.89
9669.00,0.90
9668.00,0.90
9667.00,0.90
9666.00,0.90
9665.00,0.91
9664.00,0.91
9663.00,0.92
9662.00,0.92
9661.00,0.93
9660.00,0.93
9659.00,0.94
9658.00,0.94
9657.00,0.95
9656.00,0.95
9655.00,0.96
9654.00,0.96
9653.00,0.97
9652.00,0.97
9651.00,0.98
9650.00,0.98
9649.00,0.99
9648.00,0.99
9647.00,0.99
9646.00,1.00
9645.00,1.00
9644.00,1.00
9643.00,1.01
9642.00,1.01
9641.00,1.01
9640.00,1.01
9639.00,1.01
9638.00,1.01
9637.00,1.01
9636.00,1.01
9635.00,1.01
9634.00,1.01
9633.00,1.01
9632.00,1.01
9631.00,1.01
9630.00,1.01
9629.00,1.01
9628.00,1.01
9627.00,1.01
9626.00,1.01
9625.00,1.01
9624.00,1.01
9623.00,1.01
9622.00,1.02
9621.00,1.02
9620.00,1.02
9619.00,1.02
9618.00,1.02
9617.00,1.02
9616.00,1.02
9615.00,1.02
9614.00,1.02
9613.00,1.02
9612.00,1.03
9611.00,1.03
9610.00,1.03
9609.00,1.04
9608.00,1.04
9607.00,1.05
9606.00,1.05
9605.00,1.05
9604.00,1.06
9603.00,1.06
9602.00,1.07
9601.00,1.07
9600.00,1.07
9599.00,1.08
9598.00,1.08
9597.00,1.09
9596.00,1.09
9595.00,1.10
9594.00,1.10
9593.00,1.11
9592.00,1.12
9591.00,1.12
9590.00,1.13
9589.00,1.13
9588.00,1.13
9587.00,1.14
9586.00,1.14
9585.00,1.14
9584.00,1.15
9583.00,1.15
9582.00,1.15
9581.00,1.15
9580.00,1.16
9579.00,1.16
9578.00,1.16
9577.00,1.16
9576.00,1.17
9575.00,1.17
9574.00,1.17
9573.00,1.17
9572.00,1.17
9571.00,1.17
9570.00,1.16
9569.00,1.16
9568.00,1.16
9567.00,1.16
9566.00,1.15
9565.00,1.15
9564.00,1.15
9563.00,1.15
9562.00,1.15
9561.00,1.15
9560.00,1.14
9559.00,1.14
9558.00,1.14
9557.00,1.14
9556.00,1.13
9555.00,1.13
9554.00,1.12
9553.00,1.12
9552.00,1.11
9551.00,1.10
9550.00,1.10
9549.00,1.09
9548.00,1.09
9547.00,1.08
9546.00,1.08
9545.00,1.08
9544.00,1.07
9543.00,1.07
9542.00,1.07
9541.00,1.06
9540.00,1.06
9539.00,1.06
9538.00,1.06
9537.00,1.06
9536.00,1.06
9535.00,1.05
9534.00,1.05
9533.00,1.05
9532.00,1.06
9531.00,1.06
9530.00,1.06
9529.00,1.06
9528.00,1.06
9527.00,1.07
9526.00,1.07
9525.00,1.07
9524.00,1.08
9523.00,1.08
9522.00,1.09
9521.00,1.09
9520.00,1.09
9519.00,1.10
9518.00,1.10
9517.00,1.11
9516.00,1.11
9515.00,1.12
9514.00,1.12
9513.00,1.12
9512.00,1.13
9511.00,1.13
9510.00,1.14
9509.00,1.14
9508.00,1.14
9507.00,1.14
9506.00,1.14
9505.00,1.15
9504.00,1.15
9503.00,1.15
9502.00,1.15
9501.00,1.15
9500.00,1.15
9499.00,1.15
9498.00,1.15
9497.00,1.15
9496.00,1.15
9495.00,1.16
9494.00,1.16
9493.00,1.16
9492.00,1.16
9491.00,1.16
9490.00,1.16
9489.00,1.16
9488.00,1.16
9487.00,1.16
9486.00,1.16
9485.00,1.16
9484.00,1.16
9483.00,1.16
9482.00,1.17
9481.00,1.16
9480.00,1.16
9479.00,1.16
9478.00,1.16
9477.00,1.16
9476.00,1.16
9475.00,1.16
9474.00,1.16
9473.00,1.16
9472.00,1.16
9471.00,1.15
9470.00,1.15
9469.00,1.15
9468.00,1.15
9467.00,1.15
9466.00,1.14
9465.00,1.14
9464.00,1.14
9463.00,1.14
9462.00,1.13
9461.00,1.13
9460.00,1.13
9459.00,1.13
9458.00,1.13
9457.00,1.13
9456.00,1.12
9455.00,1.12
9454.00,1.12
9453.00,1.12
9452.00,1.12
9451.00,1.12
9450.00,1.11
9449.00,1.11
9448.00,1.11
9447.00,1.11
9446.00,1.11
9445.00,1.11
9444.00,1.11
9443.00,1.11
9442.00,1.11
9441.00,1.11
9440.00,1.11
9439.00,1.10
9438.00,1.10
9437.00,1.10
9436.00,1.10
9435.00,1.09
9434.00,1.09
9433.00,1.09
9432.00,1.09
9431.00,1.08
9430.00,1.08
9429.00,1.08
9428.00,1.08
9427.00,1.07
9426.00,1.07
9425.00,1.07
9424.00,1.07
9423.00,1.07
9422.00,1.07
9421.00,1.07
9420.00,1.08
9419.00,1.08
9418.00,1.08
9417.00,1.08
9416.00,1.08
9415.00,1.09
9414.00,1.09
9413.00,1.09
9412.00,1.09
9411.00,1.10
9410.00,1.10
9409.00,1.10
9408.00,1.11
9407.00,1.11
9406.00,1.12
9405.00,1.12
9404.00,1.13
9403.00,1.13
9402.00,1.14
9401.00,1.14
9400.00,1.15
9399.00,1.15
9398.00,1.16
9397.00,1.16
9396.00,1.17
9395.00,1.17
9394.00,1.17
9393.00,1.18
9392.00,1.18
9391.00,1.18
9390.00,1.18
9389.00,1.18
9388.00,1.18
9387.00,1.18
9386.00,1.18
9385.00,1.18
9384.00,1.18
9383.00,1.19
9382.00,1.19
9381.00,1.19
9380.00,1.19
9379.00,1.19
9378.00,1.19
9377.00,1.19
9376.00,1.19
9375.00,1.19
9374.00,1.19
9373.00,1.19
9372.00,1.18
9371.00,1.18
9370.00,1.18
9369.00,1.18
9368.00,1.17
9367.00,1.17
9366.00,1.17
9365.00,1.17
9364.00,1.17
9363.00,1.17
9362.00,1.17
9361.00,1.17
9360.00,1.17
9359.00,1.17
9358.00,1.17
9357.00,1.16
9356.00,1.16
9355.00,1.16
9354.00,1.16
9353.00,1.16
9352.00,1.16
9351.00,1.16
9350.00,1.16
9349.00,1.15
9348.00,1.15
9347.00,1.16
9346.00,1.16
9345.00,1.16
9344.00,1.16
9343.00,1.16
9342.00,1.16
9341.00,1.16
9340.00,1.16
9339.00,1.17
9338.00,1.17
9337.00,1.17
9336.00,1.17
9335.00,1.17
9334.00,1.17
9333.00,1.18
9332.00,1.18
9331.00,1.18
9330.00,1.18
9329.00,1.18
9328.00,1.18
9327.00,1.18
9326.00,1.18
9325.00,1.18
9324.00,1.18
9323.00,1.18
9322.00,1.17
9321.00,1.17
9320.00,1.17
9319.00,1.17
9318.00,1.16
9317.00,1.16
9316.00,1.16
9315.00,1.15
9314.00,1.15
9313.00,1.15
9312.00,1.14
9311.00,1.14
9310.00,1.14
9309.00,1.13
9308.00,1.13
9307.00,1.13
9306.00,1.13
9305.00,1.13
9304.00,1.13
9303.00,1.13
9302.00,1.13
9301.00,1.13
9300.00,1.13
9299.00,1.14
9298.00,1.14
9297.00,1.15
9296.00,1.15
9295.00,1.16
9294.00,1.16
9293.00,1.17
9292.00,1.17
9291.00,1.18
9290.00,1.18
9289.00,1.19
9288.00,1.19
9287.00,1.20
9286.00,1.20
9285.00,1.21
9284.00,1.21
9283.00,1.21
9282.00,1.21
9281.00,1.21
9280.00,1.21
9279.00,1.21
9278.00,1.21
9277.00,1.21
9276.00,1.21
9275.00,1.21
9274.00,1.21
9273.00,1.20
9272.00,1.20
9271.00,1.20
9270.00,1.20
9269.00,1.20
9268.00,1.19
9267.00,1.19
9266.00,1.19
9265.00,1.19
9264.00,1.19
9263.00,1.19
9262.00,1.19
9261.00,1.19
9260.00,1.19
9259.00,1.19
9258.00,1.19
9257.00,1.20
9256.00,1.20
9255.00,1.21
9254.00,1.21
9253.00,1.22
9252.00,1.22
9251.00,1.23
9250.00,1.24
9249.00,1.24
9248.00,1.25
9247.00,1.25
9246.00,1.26
9245.00,1.26
9244.00,1.27
9243.00,1.27
9242.00,1.27
9241.00,1.27
9240.00,1.27
9239.00,1.28
9238.00,1.28
9237.00,1.28
9236.00,1.28
9235.00,1.28
9234.00,1.28
9233.00,1.28
9232.00,1.28
9231.00,1.28
9230.00,1.28
9229.00,1.28
9228.00,1.27
9227.00,1.27
9226.00,1.27
9225.00,1.26
9224.00,1.26
9223.00,1.25
9222.00,1.25
9221.00,1.25
9220.00,1.25
9219.00,1.25
9218.00,1.24
9217.00,1.24
9216.00,1.24
9215.00,1.24
9214.00,1.24
9213.00,1.24
9212.00,1.24
9211.00,1.23
9210.00,1.23
9209.00,1.23
9208.00,1.22
9207.00,1.22
9206.00,1.22
9205.00,1.21
9204.00,1.21
9203.00,1.20
9202.00,1.20
9201.00,1.19
9200.00,1.19
9199.00,1.19
9198.00,1.18
9197.00,1.18
9196.00,1.17
9195.00,1.17
9194.00,1.16
9193.00,1.15
9192.00,1.14
9191.00,1.14
9190.00,1.13
9189.00,1.12
9188.00,1.11
9187.00,1.10
9186.00,1.10
9185.00,1.09
9184.00,1.08
9183.00,1.07
9182.00,1.07
9181.00,1.06
9180.00,1.05
9179.00,1.05
9178.00,1.04
9177.00,1.03
9176.00,1.03
9175.00,1.02
9174.00,1.01
9173.00,1.01
9172.00,1.00
9171.00,1.00
9170.00,0.99
9169.00,0.99
9168.00,0.99
9167.00,0.99
9166.00,0.98
9165.00,0.98
9164.00,0.99
9163.00,0.99
9162.00,0.99
9161.00,0.99
9160.00,1.00
9159.00,1.00
9158.00,1.01
9157.00,1.01
9156.00,1.02
9155.00,1.02
9154.00,1.03
9153.00,1.03
9152.00,1.04
9151.00,1.05
9150.00,1.05
9149.00,1.06
9148.00,1.07
9147.00,1.08
9146.00,1.08
9145.00,1.09
9144.00,1.10
9143.00,1.10
9142.00,1.11
9141.00,1.11
9140.00,1.11
9139.00,1.11
9138.00,1.11
9137.00,1.11
9136.00,1.11
9135.00,1.11
9134.00,1.11
9133.00,1.11
9132.00,1.10
9131.00,1.10
9130.00,1.10
9129.00,1.10
9128.00,1.09
9127.00,1.09
9126.00,1.09
9125.00,1.09
9124.00,1.09
9123.00,1.09
9122.00,1.09
9121.00,1.08
9120.00,1.08
9119.00,1.09
9118.00,1.09
9117.00,1.09
9116.00,1.09
9115.00,1.09
9114.00,1.10
9113.00,1.10
9112.00,1.11
9111.00,1.12
9110.00,1.12
9109.00,1.13
9108.00,1.14
9107.00,1.14
9106.00,1.15
9105.00,1.16
9104.00,1.16
9103.00,1.17
9102.00,1.18
9101.00,1.18
9100.00,1.19
9099.00,1.19
9098.00,1.20
9097.00,1.20
9096.00,1.20
9095.00,1.21
9094.00,1.21
9093.00,1.21
9092.00,1.21
9091.00,1.21
9090.00,1.21
9089.00,1.21
9088.00,1.21
9087.00,1.21
9086.00,1.21
9085.00,1.21
9084.00,1.20
9083.00,1.20
9082.00,1.20
9081.00,1.20
9080.00,1.21
9079.00,1.21
9078.00,1.21
9077.00,1.21
9076.00,1.21
9075.00,1.22
9074.00,1.22
9073.00,1.22
9072.00,1.23
9071.00,1.23
9070.00,1.23
9069.00,1.24
9068.00,1.24
9067.00,1.25
9066.00,1.26
9065.00,1.26
9064.00,1.27
9063.00,1.27
9062.00,1.28
9061.00,1.29
9060.00,1.29
9059.00,1.30
9058.00,1.30
9057.00,1.30
9056.00,1.30
9055.00,1.31
9054.00,1.31
9053.00,1.31
9052.00,1.31
9051.00,1.31
9050.00,1.31
9049.00,1.30
9048.00,1.30
9047.00,1.30
9046.00,1.29
9045.00,1.29
9044.00,1.28
9043.00,1.28
9042.00,1.27
9041.00,1.27
9040.00,1.26
9039.00,1.26
9038.00,1.25
9037.00,1.25
9036.00,1.24
9035.00,1.24
9034.00,1.24
9033.00,1.23
9032.00,1.23
9031.00,1.22
9030.00,1.22
9029.00,1.22
9028.00,1.22
9027.00,1.21
9026.00,1.21
9025.00,1.21
9024.00,1.21
9023.00,1.21
9022.00,1.21
9021.00,1.21
9020.00,1.21
9019.00,1.21
9018.00,1.20
9017.00,1.20
9016.00,1.20
9015.00,1.20
9014.00,1.20
9013.00,1.20
9012.00,1.20
9011.00,1.20
9010.00,1.20
9009.00,1.20
9008.00,1.20
9007.00,1.20
9006.00,1.20
9005.00,1.20
9004.00,1.20
9003.00,1.19
9002.00,1.19
9001.00,1.19
9000.00,1.19
8999.00,1.19
8998.00,1.19
8997.00,1.19
8996.00,1.19
8995.00,1.19
8994.00,1.19
8993.00,1.19
8992.00,1.19
8991.00,1.19
8990.00,1.19
8989.00,1.19
8988.00,1.19
8987.00,1.19
8986.00,1.19
8985.00,1.19
8984.00,1.19
8983.00,1.19
8982.00,1.18
8981.00,1.18
8980.00,1.18
8979.00,1.18
8978.00,1.18
8977.00,1.17
8976.00,1.17
8975.00,1.17
8974.00,1.17
8973.00,1.17
8972.00,1.17
8971.00,1.17
8970.00,1.17
8969.00,1.17
8968.00,1.18
8967.00,1.18
8966.00,1.18
8965.00,1.19
8964.00,1.19
8963.00,1.19
8962.00,1.20
8961.00,1.21
8960.00,1.21
8959.00,1.22
8958.00,1.22
8957.00,1.23
8956.00,1.23
8955.00,1.24
8954.00,1.24
8953.00,1.25
8952.00,1.25
8951.00,1.26
8950.00,1.26
8949.00,1.26
8948.00,1.27
8947.00,1.27
8946.00,1.27
8945.00,1.28
8944.00,1.28
8943.00,1.28
8942.00,1.28
8941.00,1.28
8940.00,1.28
8939.00,1.28
8938.00,1.28
8937.00,1.28
8936.00,1.28
8935.00,1.28
8934.00,1.28
8933.00,1.27
8932.00,1.27
8931.00,1.27
8930.00,1.27
8929.00,1.27
8928.00,1.26
8927.00,1.26
8926.00,1.26
8925.00,1.26
8924.00,1.26
8923.00,1.26
8922.00,1.26
8921.00,1.26
8920.00,1.26
8919.00,1.26
8918.00,1.26
8917.00,1.25
8916.00,1.25
8915.00,1.25
8914.00,1.24
8913.00,1.24
8912.00,1.23
8911.00,1.23
8910.00,1.23
8909.00,1.22
8908.00,1.22
8907.00,1.21
8906.00,1.21
8905.00,1.20
8904.00,1.20
8903.00,1.20
8902.00,1.19
8901.00,1.19
8900.00,1.19
8899.00,1.19
8898.00,1.18
8897.00,1.18
8896.00,1.18
8895.00,1.17
8894.00,1.17
8893.00,1.17
8892.00,1.16
8891.00,1.16
8890.00,1.16
8889.00,1.16
8888.00,1.15
8887.00,1.15
8886.00,1.15
8885.00,1.15
8884.00,1.15
8883.00,1.15
8882.00,1.15
8881.00,1.15
8880.00,1.16
8879.00,1.16
8878.00,1.16
8877.00,1.16
8876.00,1.16
8875.00,1.16
8874.00,1.16
8873.00,1.15
8872.00,1.15
8871.00,1.15
8870.00,1.15
8869.00,1.15
8868.00,1.15
8867.00,1.15
8866.00,1.15
8865.00,1.15
8864.00,1.15
8863.00,1.15
8862.00,1.15
8861.00,1.16
8860.00,1.16
8859.00,1.16
8858.00,1.16
8857.00,1.16
8856.00,1.16
8855.00,1.16
8854.00,1.16
8853.00,1.16
8852.00,1.16
8851.00,1.16
8850.00,1.16
8849.00,1.16
8848.00,1.16
8847.00,1.16
8846.00,1.16
8845.00,1.15
8844.00,1.15
8843.00,1.15
8842.00,1.15
8841.00,1.15
8840.00,1.15
8839.00,1.15
8838.00,1.15
8837.00,1.14
8836.00,1.14
8835.00,1.14
8834.00,1.14
8833.00,1.14
8832.00,1.14
8831.00,1.14
8830.00,1.14
8829.00,1.14
8828.00,1.14
8827.00,1.14
8826.00,1.14
8825.00,1.14
8824.00,1.15
8823.00,1.15
8822.00,1.15
8821.00,1.15
8820.00,1.15
8819.00,1.16
8818.00,1.16
8817.00,1.17
8816.00,1.17
8815.00,1.17
8814.00,1.18
8813.00,1.18
8812.00,1.19
8811.00,1.19
8810.00,1.19
8809.00,1.20
8808.00,1.20
8807.00,1.20
8806.00,1.20
8805.00,1.21
8804.00,1.21
8803.00,1.21
8802.00,1.21
8801.00,1.21
8800.00,1.21
8799.00,1.22
8798.00,1.22
8797.00,1.22
8796.00,1.22
8795.00,1.22
8794.00,1.23
8793.00,1.23
8792.00,1.23
8791.00,1.23
8790.00,1.23
8789.00,1.23
8788.00,1.23
8787.00,1.23
8786.00,1.23
8785.00,1.22
8784.00,1.22
8783.00,1.22
8782.00,1.22
8781.00,1.22
8780.00,1.21
8779.00,1.21
8778.00,1.21
8777.00,1.20
8776.00,1.20
8775.00,1.20
8774.00,1.19
8773.00,1.19
8772.00,1.18
8771.00,1.18
8770.00,1.18
8769.00,1.17
8768.00,1.17
8767.00,1.17
8766.00,1.16
8765.00,1.16
8764.00,1.16
8763.00,1.16
8762.00,1.16
8761.00,1.16
8760.00,1.16
8759.00,1.17
8758.00,1.17
8757.00,1.17
8756.00,1.17
8755.00,1.18
8754.00,1.18
8753.00,1.18
8752.00,1.19
8751.00,1.19
8750.00,1.20
8749.00,1.20
8748.00,1.21
8747.00,1.21
8746.00,1.21
8745.00,1.22
8744.00,1.22
8743.00,1.22
8742.00,1.22
8741.00,1.22
8740.00,1.22
8739.00,1.22
8738.00,1.22
8737.00,1.22
8736.00,1.21
8735.00,1.21
8734.00,1.20
8733.00,1.20
8732.00,1.20
8731.00,1.19
8730.00,1.19
8729.00,1.18
8728.00,1.18
8727.00,1.18
8726.00,1.17
8725.00,1.17
8724.00,1.16
8723.00,1.16
8722.00,1.16
8721.00,1.15
8720.00,1.15
8719.00,1.14
8718.00,1.14
8717.00,1.14
8716.00,1.13
8715.00,1.13
8714.00,1.13
8713.00,1.13
8712.00,1.13
8711.00,1.13
8710.00,1.13
8709.00,1.13
8708.00,1.13
8707.00,1.13
8706.00,1.12
8705.00,1.12
8704.00,1.12
8703.00,1.12
8702.00,1.12
8701.00,1.12
8700.00,1.11
8699.00,1.11
8698.00,1.11
8697.00,1.11
8696.00,1.11
8695.00,1.11
8694.00,1.11
8693.00,1.11
8692.00,1.11
8691.00,1.11
8690.00,1.11
8689.00,1.12
8688.00,1.12
8687.00,1.12
8686.00,1.12
8685.00,1.13
8684.00,1.13
8683.00,1.13
8682.00,1.13
8681.00,1.13
8680.00,1.14
8679.00,1.14
8678.00,1.14
8677.00,1.14
8676.00,1.15
8675.00,1.15
8674.00,1.16
8673.00,1.16
8672.00,1.17
8671.00,1.17
8670.00,1.18
8669.00,1.18
8668.00,1.18
8667.00,1.18
8666.00,1.18
8665.00,1.18
8664.00,1.18
8663.00,1.18
8662.00,1.17
8661.00,1.17
8660.00,1.17
8659.00,1.17
8658.00,1.16
8657.00,1.16
8656.00,1.16
8655.00,1.16
8654.00,1.16
8653.00,1.15
8652.00,1.15
8651.00,1.15
8650.00,1.15
8649.00,1.14
8648.00,1.14
8647.00,1.13
8646.00,1.13
8645.00,1.13
8644.00,1.12
8643.00,1.12
8642.00,1.12
8641.00,1.11
8640.00,1.11
8639.00,1.11
8638.00,1.11
8637.00,1.11
8636.00,1.11
8635.00,1.11
8634.00,1.11
8633.00,1.11
8632.00,1.11
8631.00,1.11
8630.00,1.12
8629.00,1.12
8628.00,1.12
8627.00,1.12
8626.00,1.12
8625.00,1.13
8624.00,1.13
8623.00,1.13
8622.00,1.13
8621.00,1.13
8620.00,1.13
8619.00,1.14
8618.00,1.14
8617.00,1.14
8616.00,1.14
8615.00,1.14
8614.00,1.14
8613.00,1.14
8612.00,1.14
8611.00,1.14
8610.00,1.15
8609.00,1.15
8608.00,1.15
8607.00,1.15
8606.00,1.15
8605.00,1.15
8604.00,1.15
8603.00,1.15
8602.00,1.15
8601.00,1.14
8600.00,1.14
8599.00,1.14
8598.00,1.14
8597.00,1.13
8596.00,1.13
8595.00,1.13
8594.00,1.13
8593.00,1.13
8592.00,1.13
8591.00,1.13
8590.00,1.13
8589.00,1.13
8588.00,1.13
8587.00,1.13
8586.00,1.12
8585.00,1.12
8584.00,1.12
8583.00,1.12
8582.00,1.12
8581.00,1.12
8580.00,1.11
8579.00,1.11
8578.00,1.11
8577.00,1.11
8576.00,1.11
8575.00,1.11
8574.00,1.11
8573.00,1.11
8572.00,1.11
8571.00,1.11
8570.00,1.11
8569.00,1.11
8568.00,1.11
8567.00,1.11
8566.00,1.11
8565.00,1.11
8564.00,1.11
8563.00,1.10
8562.00,1.10
8561.00,1.10
8560.00,1.10
8559.00,1.10
8558.00,1.09
8557.00,1.09
8556.00,1.09
8555.00,1.09
8554.00,1.09
8553.00,1.08
8552.00,1.08
8551.00,1.08
8550.00,1.08
8549.00,1.07
8548.00,1.07
8547.00,1.07
8546.00,1.07
8545.00,1.07
8544.00,1.07
8543.00,1.07
8542.00,1.07
8541.00,1.07
8540.00,1.07
8539.00,1.07
8538.00,1.08
8537.00,1.08
8536.00,1.08
8535.00,1.08
8534.00,1.08
8533.00,1.09
8532.00,1.09
8531.00,1.09
8530.00,1.09
8529.00,1.10
8528.00,1.10
8527.00,1.10
8526.00,1.11
8525.00,1.11
8524.00,1.12
8523.00,1.12
8522.00,1.13
8521.00,1.13
8520.00,1.13
8519.00,1.14
8518.00,1.14
8517.00,1.14
8516.00,1.14
8515.00,1.14
8514.00,1.14
8513.00,1.14
8512.00,1.14
8511.00,1.14
8510.00,1.14
8509.00,1.14
8508.00,1.14
8507.00,1.14
8506.00,1.14
8505.00,1.14
8504.00,1.14
8503.00,1.15
8502.00,1.15
8501.00,1.15
8500.00,1.15
8499.00,1.15
8498.00,1.14
8497.00,1.14
8496.00,1.14
8495.00,1.14
8494.00,1.14
8493.00,1.14
8492.00,1.15
8491.00,1.15
8490.00,1.15
8489.00,1.15
8488.00,1.15
8487.00,1.15
8486.00,1.15
8485.00,1.15
8484.00,1.15
8483.00,1.16
8482.00,1.16
8481.00,1.16
8480.00,1.16
8479.00,1.16
8478.00,1.16
8477.00,1.16
8476.00,1.16
8475.00,1.16
8474.00,1.16
8473.00,1.16
8472.00,1.16
8471.00,1.16
8470.00,1.16
8469.00,1.16
8468.00,1.16
8467.00,1.16
8466.00,1.16
8465.00,1.16
8464.00,1.16
8463.00,1.16
8462.00,1.16
8461.00,1.16
8460.00,1.16
8459.00,1.16
8458.00,1.16
8457.00,1.15
8456.00,1.15
8455.00,1.15
8454.00,1.15
8453.00,1.14
8452.00,1.14
8451.00,1.14
8450.00,1.13
8449.00,1.13
8448.00,1.13
8447.00,1.13
8446.00,1.12
8445.00,1.12
8444.00,1.12
8443.00,1.12
8442.00,1.12
8441.00,1.12
8440.00,1.12
8439.00,1.12
8438.00,1.11
8437.00,1.11
8436.00,1.11
8435.00,1.10
8434.00,1.10
8433.00,1.10
8432.00,1.10
8431.00,1.10
8430.00,1.09
8429.00,1.09
8428.00,1.09
8427.00,1.09
8426.00,1.09
8425.00,1.10
8424.00,1.10
8423.00,1.10
8422.00,1.10
8421.00,1.10
8420.00,1.10
8419.00,1.10
8418.00,1.10
8417.00,1.10
8416.00,1.10
8415.00,1.10
8414.00,1.10
8413.00,1.10
8412.00,1.09
8411.00,1.09
8410.00,1.09
8409.00,1.09
8408.00,1.09
8407.00,1.09
8406.00,1.09
8405.00,1.08
8404.00,1.08
8403.00,1.08
8402.00,1.08
8401.00,1.08
8400.00,1.07
8399.00,1.07
8398.00,1.07
8397.00,1.07
8396.00,1.07
8395.00,1.07
8394.00,1.06
8393.00,1.06
8392.00,1.06
8391.00,1.06
8390.00,1.06
8389.00,1.06
8388.00,1.06
8387.00,1.06
8386.00,1.07
8385.00,1.07
8384.00,1.07
8383.00,1.07
8382.00,1.07
8381.00,1.08
8380.00,1.08
8379.00,1.08
8378.00,1.09
8377.00,1.09
8376.00,1.09
8375.00,1.09
8374.00,1.10
8373.00,1.10
8372.00,1.10
8371.00,1.11
8370.00,1.11
8369.00,1.11
8368.00,1.12
8367.00,1.12
8366.00,1.13
8365.00,1.13
8364.00,1.14
8363.00,1.14
8362.00,1.15
8361.00,1.15
8360.00,1.15
8359.00,1.16
8358.00,1.16
8357.00,1.17
8356.00,1.17
8355.00,1.17
8354.00,1.18
8353.00,1.18
8352.00,1.18
8351.00,1.18
8350.00,1.19
8349.00,1.19
8348.00,1.19
8347.00,1.19
8346.00,1.19
8345.00,1.20
8344.00,1.20
8343.00,1.19
8342.00,1.19
8341.00,1.19
8340.00,1.19
8339.00,1.19
8338.00,1.18
8337.00,1.18
8336.00,1.18
8335.00,1.18
8334.00,1.17
8333.00,1.17
8332.00,1.17
8331.00,1.17
8330.00,1.17
8329.00,1.17
8328.00,1.17
8327.00,1.17
8326.00,1.17
8325.00,1.17
8324.00,1.17
8323.00,1.17
8322.00,1.17
8321.00,1.17
8320.00,1.17
8319.00,1.17
8318.00,1.17
8317.00,1.18
8316.00,1.18
8315.00,1.18
8314.00,1.19
8313.00,1.19
8312.00,1.19
8311.00,1.20
8310.00,1.20
8309.00,1.20
8308.00,1.20
8307.00,1.21
8306.00,1.21
8305.00,1.21
8304.00,1.21
8303.00,1.21
8302.00,1.21
8301.00,1.20
8300.00,1.20
8299.00,1.20
8298.00,1.20
8297.00,1.20
8296.00,1.19
8295.00,1.19
8294.00,1.19
8293.00,1.18
8292.00,1.18
8291.00,1.18
8290.00,1.17
8289.00,1.17
8288.00,1.16
8287.00,1.16
8286.00,1.15
8285.00,1.15
8284.00,1.14
8283.00,1.14
8282.00,1.14
8281.00,1.14
8280.00,1.13
8279.00,1.13
8278.00,1.13
8277.00,1.13
8276.00,1.14
8275.00,1.14
8274.00,1.14
8273.00,1.14
8272.00,1.15
8271.00,1.15
8270.00,1.15
8269.00,1.16
8268.00,1.16
8267.00,1.16
8266.00,1.17
8265.00,1.17
8264.00,1.18
8263.00,1.18
8262.00,1.19
8261.00,1.19
8260.00,1.19
8259.00,1.20
8258.00,1.20
8257.00,1.20
8256.00,1.20
8255.00,1.20
8254.00,1.20
8253.00,1.20
8252.00,1.20
8251.00,1.20
8250.00,1.20
8249.00,1.20
8248.00,1.20
8247.00,1.19
8246.00,1.19
8245.00,1.19
8244.00,1.18
8243.00,1.18
8242.00,1.18
8241.00,1.18
8240.00,1.17
8239.00,1.17
8238.00,1.17
8237.00,1.17
8236.00,1.17
8235.00,1.17
8234.00,1.17
8233.00,1.17
8232.00,1.17
8231.00,1.17
8230.00,1.17
8229.00,1.17
8228.00,1.17
8227.00,1.17
8226.00,1.18
8225.00,1.18
8224.00,1.18
8223.00,1.19
8222.00,1.19
8221.00,1.19
8220.00,1.20
8219.00,1.20
8218.00,1.20
8217.00,1.21
8216.00,1.21
8215.00,1.21
8214.00,1.21
8213.00,1.21
8212.00,1.21
8211.00,1.21
8210.00,1.21
8209.00,1.21
8208.00,1.21
8207.00,1.21
8206.00,1.20
8205.00,1.20
8204.00,1.20
8203.00,1.20
8202.00,1.20
8201.00,1.20
8200.00,1.20
8199.00,1.20
8198.00,1.19
8197.00,1.19
8196.00,1.19
8195.00,1.19
8194.00,1.18
8193.00,1.18
8192.00,1.18
8191.00,1.18
8190.00,1.18
8189.00,1.18
8188.00,1.18
8187.00,1.18
8186.00,1.18
8185.00,1.18
8184.00,1.18
8183.00,1.18
8182.00,1.18
8181.00,1.19
8180.00,1.19
8179.00,1.19
8178.00,1.19
8177.00,1.19
8176.00,1.19
8175.00,1.19
8174.00,1.19
8173.00,1.19
8172.00,1.19
8171.00,1.19
8170.00,1.19
8169.00,1.19
8168.00,1.19
8167.00,1.20
8166.00,1.20
8165.00,1.20
8164.00,1.20
8163.00,1.20
8162.00,1.20
8161.00,1.20
8160.00,1.20
8159.00,1.20
8158.00,1.20
8157.00,1.20
8156.00,1.20
8155.00,1.20
8154.00,1.20
8153.00,1.19
8152.00,1.19
8151.00,1.19
8150.00,1.19
8149.00,1.19
8148.00,1.18
8147.00,1.18
8146.00,1.18
8145.00,1.18
8144.00,1.18
8143.00,1.18
8142.00,1.18
8141.00,1.18
8140.00,1.18
8139.00,1.18
8138.00,1.18
8137.00,1.18
8136.00,1.18
8135.00,1.17
8134.00,1.17
8133.00,1.17
8132.00,1.17
8131.00,1.17
8130.00,1.17
8129.00,1.17
8128.00,1.17
8127.00,1.17
8126.00,1.17
8125.00,1.18
8124.00,1.18
8123.00,1.18
8122.00,1.18
8121.00,1.19
8120.00,1.19
8119.00,1.19
8118.00,1.19
8117.00,1.19
8116.00,1.20
8115.00,1.20
8114.00,1.20
8113.00,1.20
8112.00,1.21
8111.00,1.21
8110.00,1.21
8109.00,1.21
8108.00,1.22
8107.00,1.22
8106.00,1.22
8105.00,1.23
8104.00,1.23
8103.00,1.23
8102.00,1.23
8101.00,1.23
8100.00,1.23
8099.00,1.23
8098.00,1.23
8097.00,1.23
8096.00,1.23
8095.00,1.23
8094.00,1.23
8093.00,1.23
8092.00,1.23
8091.00,1.23
8090.00,1.23
8089.00,1.23
8088.00,1.23
8087.00,1.22
8086.00,1.22
8085.00,1.22
8084.00,1.22
8083.00,1.22
8082.00,1.21
8081.00,1.21
8080.00,1.21
8079.00,1.21
8078.00,1.20
8077.00,1.20
8076.00,1.20
8075.00,1.20
8074.00,1.19
8073.00,1.19
8072.00,1.19
8071.00,1.19
8070.00,1.19
8069.00,1.19
8068.00,1.18
8067.00,1.18
8066.00,1.18
8065.00,1.18
8064.00,1.18
8063.00,1.18
8062.00,1.18
8061.00,1.18
8060.00,1.18
8059.00,1.18
8058.00,1.18
8057.00,1.18
8056.00,1.18
8055.00,1.18
8054.00,1.18
8053.00,1.18
8052.00,1.18
8051.00,1.18
8050.00,1.18
8049.00,1.18
8048.00,1.18
8047.00,1.18
8046.00,1.18
8045.00,1.18
8044.00,1.19
8043.00,1.19
8042.00,1.19
8041.00,1.19
8040.00,1.19
8039.00,1.19
8038.00,1.20
8037.00,1.20
8036.00,1.20
8035.00,1.20
8034.00,1.21
8033.00,1.21
8032.00,1.22
8031.00,1.22
8030.00,1.22
8029.00,1.23
8028.00,1.23
8027.00,1.23
8026.00,1.24
8025.00,1.24
8024.00,1.25
8023.00,1.25
8022.00,1.25
8021.00,1.26
8020.00,1.26
8019.00,1.26
8018.00,1.27
8017.00,1.27
8016.00,1.27
8015.00,1.27
8014.00,1.27
8013.00,1.27
8012.00,1.27
8011.00,1.27
8010.00,1.27
8009.00,1.27
8008.00,1.27
8007.00,1.26
8006.00,1.26
8005.00,1.26
8004.00,1.26
8003.00,1.26
8002.00,1.26
8001.00,1.26
8000.00,1.26
7999.00,1.26
7998.00,1.26
7997.00,1.26
7996.00,1.26
7995.00,1.26
7994.00,1.26
7993.00,1.26
7992.00,1.26
7991.00,1.26
7990.00,1.26
7989.00,1.26
7988.00,1.26
7987.00,1.26
7986.00,1.26
7985.00,1.26
7984.00,1.27
7983.00,1.27
7982.00,1.27
7981.00,1.27
7980.00,1.27
7979.00,1.28
7978.00,1.28
7977.00,1.28
7976.00,1.28
7975.00,1.28
7974.00,1.29
7973.00,1.29
7972.00,1.29
7971.00,1.29
7970.00,1.29
7969.00,1.29
7968.00,1.30
7967.00,1.30
7966.00,1.30
7965.00,1.30
7964.00,1.30
7963.00,1.30
7962.00,1.30
7961.00,1.30
7960.00,1.30
7959.00,1.30
7958.00,1.30
7957.00,1.29
7956.00,1.29
7955.00,1.29
7954.00,1.29
7953.00,1.29
7952.00,1.29
7951.00,1.29
7950.00,1.29
7949.00,1.29
7948.00,1.29
7947.00,1.28
7946.00,1.28
7945.00,1.28
7944.00,1.28
7943.00,1.28
7942.00,1.28
7941.00,1.27
7940.00,1.27
7939.00,1.27
7938.00,1.27
7937.00,1.27
7936.00,1.27
7935.00,1.27
7934.00,1.27
7933.00,1.27
7932.00,1.27
7931.00,1.27
7930.00,1.27
7929.00,1.27
7928.00,1.27
7927.00,1.27
7926.00,1.27
7925.00,1.27
7924.00,1.27
7923.00,1.28
7922.00,1.28
7921.00,1.28
7920.00,1.28
7919.00,1.28
7918.00,1.28
7917.00,1.28
7916.00,1.28
7915.00,1.29
7914.00,1.29
7913.00,1.29
7912.00,1.29
7911.00,1.28
7910.00,1.28
7909.00,1.28
7908.00,1.28
7907.00,1.28
7906.00,1.28
7905.00,1.28
7904.00,1.28
7903.00,1.28
7902.00,1.28
7901.00,1.28
7900.00,1.28
7899.00,1.28
7898.00,1.28
7897.00,1.28
7896.00,1.28
7895.00,1.28
7894.00,1.28
7893.00,1.28
7892.00,1.28
7891.00,1.28
7890.00,1.28
7889.00,1.28
7888.00,1.28
7887.00,1.28
7886.00,1.28
7885.00,1.28
7884.00,1.29
7883.00,1.29
7882.00,1.29
7881.00,1.29
7880.00,1.30
7879.00,1.30
7878.00,1.30
7877.00,1.30
7876.00,1.30
7875.00,1.30
7874.00,1.30
7873.00,1.30
7872.00,1.30
7871.00,1.30
7870.00,1.30
7869.00,1.30
7868.00,1.30
7867.00,1.30
7866.00,1.30
7865.00,1.30
7864.00,1.31
7863.00,1.31
7862.00,1.31
7861.00,1.31
7860.00,1.31
7859.00,1.32
7858.00,1.32
7857.00,1.32
7856.00,1.32
7855.00,1.32
7854.00,1.32
7853.00,1.32
7852.00,1.33
7851.00,1.33
7850.00,1.33
7849.00,1.33
7848.00,1.34
7847.00,1.34
7846.00,1.34
7845.00,1.35
7844.00,1.35
7843.00,1.35
7842.00,1.35
7841.00,1.36
7840.00,1.36
7839.00,1.36
7838.00,1.36
7837.00,1.36
7836.00,1.36
7835.00,1.36
7834.00,1.36
7833.00,1.36
7832.00,1.35
7831.00,1.35
7830.00,1.35
7829.00,1.35
7828.00,1.35
7827.00,1.35
7826.00,1.35
7825.00,1.35
7824.00,1.35
7823.00,1.35
7822.00,1.34
7821.00,1.34
7820.00,1.34
7819.00,1.34
7818.00,1.34
7817.00,1.34
7816.00,1.33
7815.00,1.33
7814.00,1.33
7813.00,1.33
7812.00,1.33
7811.00,1.33
7810.00,1.33
7809.00,1.34
7808.00,1.34
7807.00,1.34
7806.00,1.34
7805.00,1.33
7804.00,1.33
7803.00,1.33
7802.00,1.33
7801.00,1.33
7800.00,1.32
7799.00,1.32
7798.00,1.32
7797.00,1.32
7796.00,1.32
7795.00,1.31
7794.00,1.31
7793.00,1.31
7792.00,1.31
7791.00,1.30
7790.00,1.30
7789.00,1.30
7788.00,1.29
7787.00,1.29
7786.00,1.29
7785.00,1.29
7784.00,1.28
7783.00,1.28
7782.00,1.28
7781.00,1.28
7780.00,1.28
7779.00,1.28
7778.00,1.28
7777.00,1.28
7776.00,1.28
7775.00,1.28
7774.00,1.28
7773.00,1.29
7772.00,1.29
7771.00,1.29
7770.00,1.29
7769.00,1.29
7768.00,1.29
7767.00,1.29
7766.00,1.29
7765.00,1.30
7764.00,1.30
7763.00,1.30
7762.00,1.31
7761.00,1.31
7760.00,1.31
7759.00,1.32
7758.00,1.32
7757.00,1.32
7756.00,1.33
7755.00,1.33
7754.00,1.33
7753.00,1.33
7752.00,1.34
7751.00,1.34
7750.00,1.34
7749.00,1.34
7748.00,1.34
7747.00,1.35
7746.00,1.35
7745.00,1.35
7744.00,1.35
7743.00,1.36
7742.00,1.36
7741.00,1.36
7740.00,1.36
7739.00,1.36
7738.00,1.36
7737.00,1.36
7736.00,1.36
7735.00,1.36
7734.00,1.36
7733.00,1.35
7732.00,1.35
7731.00,1.35
7730.00,1.35
7729.00,1.35
7728.00,1.35
7727.00,1.35
7726.00,1.34
7725.00,1.34
7724.00,1.34
7723.00,1.34
7722.00,1.34
7721.00,1.34
7720.00,1.34
7719.00,1.34
7718.00,1.34
7717.00,1.34
7716.00,1.33
7715.00,1.33
7714.00,1.33
7713.00,1.33
7712.00,1.33
7711.00,1.33
7710.00,1.33
7709.00,1.33
7708.00,1.34
7707.00,1.34
7706.00,1.34
7705.00,1.34
7704.00,1.34
7703.00,1.34
7702.00,1.34
7701.00,1.34
7700.00,1.34
7699.00,1.34
7698.00,1.34
7697.00,1.34
7696.00,1.34
7695.00,1.34
7694.00,1.34
7693.00,1.34
7692.00,1.34
7691.00,1.34
7690.00,1.34
7689.00,1.34
7688.00,1.34
7687.00,1.34
7686.00,1.34
7685.00,1.35
7684.00,1.35
7683.00,1.35
7682.00,1.35
7681.00,1.35
7680.00,1.34
7679.00,1.34
7678.00,1.34
7677.00,1.34
7676.00,1.34
7675.00,1.34
7674.00,1.34
7673.00,1.34
7672.00,1.34
7671.00,1.34
7670.00,1.34
7669.00,1.34
7668.00,1.33
7667.00,1.33
7666.00,1.33
7665.00,1.33
7664.00,1.33
7663.00,1.32
7662.00,1.32
7661.00,1.32
7660.00,1.32
7659.00,1.31
7658.00,1.31
7657.00,1.31
7656.00,1.31
7655.00,1.31
7654.00,1.31
7653.00,1.31
7652.00,1.31
7651.00,1.31
7650.00,1.31
7649.00,1.31
7648.00,1.31
7647.00,1.31
7646.00,1.31
7645.00,1.31
7644.00,1.31
7643.00,1.31
7642.00,1.32
7641.00,1.32
7640.00,1.32
7639.00,1.32
7638.00,1.32
7637.00,1.32
7636.00,1.32
7635.00,1.32
7634.00,1.32
7633.00,1.33
7632.00,1.33
7631.00,1.33
7630.00,1.33
7629.00,1.33
7628.00,1.33
7627.00,1.33
7626.00,1.33
7625.00,1.33
7624.00,1.33
7623.00,1.33
7622.00,1.33
7621.00,1.33
7620.00,1.33
7619.00,1.33
7618.00,1.34
7617.00,1.34
7616.00,1.34
7615.00,1.34
7614.00,1.34
7613.00,1.34
7612.00,1.34
7611.00,1.34
7610.00,1.35
7609.00,1.35
7608.00,1.35
7607.00,1.35
7606.00,1.35
7605.00,1.35
7604.00,1.35
7603.00,1.35
7602.00,1.35
7601.00,1.35
7600.00,1.35
7599.00,1.35
7598.00,1.35
7597.00,1.35
7596.00,1.35
7595.00,1.35
7594.00,1.35
7593.00,1.35
7592.00,1.35
7591.00,1.34
7590.00,1.34
7589.00,1.34
7588.00,1.34
7587.00,1.34
7586.00,1.33
7585.00,1.33
7584.00,1.33
7583.00,1.32
7582.00,1.32
7581.00,1.32
7580.00,1.32
7579.00,1.32
7578.00,1.32
7577.00,1.32
7576.00,1.32
7575.00,1.32
7574.00,1.32
7573.00,1.32
7572.00,1.32
7571.00,1.32
7570.00,1.32
7569.00,1.32
7568.00,1.32
7567.00,1.32
7566.00,1.32
7565.00,1.33
7564.00,1.33
7563.00,1.33
7562.00,1.34
7561.00,1.34
7560.00,1.35
7559.00,1.35
7558.00,1.35
7557.00,1.36
7556.00,1.36
7555.00,1.36
7554.00,1.37
7553.00,1.37
7552.00,1.37
7551.00,1.38
7550.00,1.38
7549.00,1.38
7548.00,1.38
7547.00,1.38
7546.00,1.38
7545.00,1.39
7544.00,1.39
7543.00,1.39
7542.00,1.39
7541.00,1.39
7540.00,1.38
7539.00,1.38
7538.00,1.38
7537.00,1.38
7536.00,1.38
7535.00,1.37
7534.00,1.37
7533.00,1.37
7532.00,1.36
7531.00,1.36
7530.00,1.35
7529.00,1.35
7528.00,1.35
7527.00,1.34
7526.00,1.34
7525.00,1.34
7524.00,1.34
7523.00,1.33
7522.00,1.33
7521.00,1.33
7520.00,1.33
7519.00,1.33
7518.00,1.33
7517.00,1.33
7516.00,1.33
7515.00,1.33
7514.00,1.33
7513.00,1.33
7512.00,1.33
7511.00,1.33
7510.00,1.33
7509.00,1.33
7508.00,1.33
7507.00,1.33
7506.00,1.34
7505.00,1.34
7504.00,1.34
7503.00,1.34
7502.00,1.34
7501.00,1.34
7500.00,1.34
7499.00,1.34
7498.00,1.34
7497.00,1.34
7496.00,1.34
7495.00,1.34
7494.00,1.34
7493.00,1.34
7492.00,1.34
7491.00,1.33
7490.00,1.33
7489.00,1.33
7488.00,1.33
7487.00,1.32
7486.00,1.32
7485.00,1.31
7484.00,1.31
7483.00,1.31
7482.00,1.30
7481.00,1.30
7480.00,1.30
7479.00,1.29
7478.00,1.29
7477.00,1.29
7476.00,1.28
7475.00,1.28
7474.00,1.28
7473.00,1.28
7472.00,1.27
7471.00,1.27
7470.00,1.27
7469.00,1.27
7468.00,1.27
7467.00,1.27
7466.00,1.27
7465.00,1.27
7464.00,1.27
7463.00,1.27
7462.00,1.27
7461.00,1.27
7460.00,1.28
7459.00,1.28
7458.00,1.28
7457.00,1.28
7456.00,1.28
7455.00,1.29
7454.00,1.29
7453.00,1.29
7452.00,1.29
7451.00,1.29
7450.00,1.30
7449.00,1.30
7448.00,1.30
7447.00,1.30
7446.00,1.30
7445.00,1.30
7444.00,1.30
7443.00,1.29
7442.00,1.29
7441.00,1.29
7440.00,1.29
7439.00,1.29
7438.00,1.29
7437.00,1.29
7436.00,1.28
7435.00,1.28
7434.00,1.28
7433.00,1.28
7432.00,1.27
7431.00,1.27
7430.00,1.27
7429.00,1.26
7428.00,1.26
7427.00,1.25
7426.00,1.25
7425.00,1.25
7424.00,1.24
7423.00,1.24
7422.00,1.24
7421.00,1.23
7420.00,1.23
7419.00,1.23
7418.00,1.23
7417.00,1.22
7416.00,1.22
7415.00,1.22
7414.00,1.22
7413.00,1.21
7412.00,1.21
7411.00,1.21
7410.00,1.21
7409.00,1.21
7408.00,1.20
7407.00,1.20
7406.00,1.20
7405.00,1.20
7404.00,1.19
7403.00,1.19
7402.00,1.19
7401.00,1.19
7400.00,1.19
7399.00,1.19
7398.00,1.19
7397.00,1.19
7396.00,1.19
7395.00,1.19
7394.00,1.19
7393.00,1.19
7392.00,1.19
7391.00,1.18
7390.00,1.18
7389.00,1.18
7388.00,1.18
7387.00,1.18
7386.00,1.18
7385.00,1.18
7384.00,1.18
7383.00,1.18
7382.00,1.18
7381.00,1.18
7380.00,1.17
7379.00,1.17
7378.00,1.17
7377.00,1.17
7376.00,1.17
7375.00,1.17
7374.00,1.17
7373.00,1.17
7372.00,1.17
7371.00,1.16
7370.00,1.16
7369.00,1.16
7368.00,1.16
7367.00,1.16
7366.00,1.15
7365.00,1.15
7364.00,1.15
7363.00,1.15
7362.00,1.15
7361.00,1.15
7360.00,1.15
7359.00,1.16
7358.00,1.16
7357.00,1.16
7356.00,1.17
7355.00,1.17
7354.00,1.17
7353.00,1.18
7352.00,1.18
7351.00,1.19
7350.00,1.19
7349.00,1.19
7348.00,1.19
7347.00,1.20
7346.00,1.20
7345.00,1.20
7344.00,1.20
7343.00,1.21
7342.00,1.21
7341.00,1.21
7340.00,1.22
7339.00,1.22
7338.00,1.22
7337.00,1.23
7336.00,1.23
7335.00,1.23
7334.00,1.23
7333.00,1.23
7332.00,1.23
7331.00,1.23
7330.00,1.23
7329.00,1.23
7328.00,1.23
7327.00,1.23
7326.00,1.23
7325.00,1.23
7324.00,1.23
7323.00,1.23
7322.00,1.23
7321.00,1.23
7320.00,1.23
7319.00,1.23
7318.00,1.23
7317.00,1.23
7316.00,1.23
7315.00,1.23
7314.00,1.23
7313.00,1.23
7312.00,1.23
7311.00,1.23
7310.00,1.23
7309.00,1.23
7308.00,1.22
7307.00,1.22
7306.00,1.22
7305.00,1.21
7304.00,1.21
7303.00,1.21
7302.00,1.20
7301.00,1.20
7300.00,1.19
7299.00,1.19
7298.00,1.18
7297.00,1.18
7296.00,1.17
7295.00,1.17
7294.00,1.16
7293.00,1.16
7292.00,1.16
7291.00,1.15
7290.00,1.15
7289.00,1.14
7288.00,1.14
7287.00,1.13
7286.00,1.13
7285.00,1.13
7284.00,1.13
7283.00,1.12
7282.00,1.12
7281.00,1.12
7280.00,1.12
7279.00,1.12
7278.00,1.12
7277.00,1.12
7276.00,1.12
7275.00,1.12
7274.00,1.12
7273.00,1.12
7272.00,1.12
7271.00,1.12
7270.00,1.12
7269.00,1.13
7268.00,1.13
7267.00,1.13
7266.00,1.13
7265.00,1.13
7264.00,1.13
7263.00,1.13
7262.00,1.13
7261.00,1.13
7260.00,1.13
7259.00,1.13
7258.00,1.13
7257.00,1.13
7256.00,1.13
7255.00,1.13
7254.00,1.13
7253.00,1.13
7252.00,1.13
7251.00,1.13
7250.00,1.13
7249.00,1.13
7248.00,1.13
7247.00,1.13
7246.00,1.13
7245.00,1.12
7244.00,1.12
7243.00,1.12
7242.00,1.12
7241.00,1.11
7240.00,1.11
7239.00,1.11
7238.00,1.10
7237.00,1.10
7236.00,1.10
7235.00,1.09
7234.00,1.09
7233.00,1.08
7232.00,1.08
7231.00,1.07
7230.00,1.07
7229.00,1.06
7228.00,1.06
7227.00,1.05
7226.00,1.05
7225.00,1.04
7224.00,1.04
7223.00,1.03
7222.00,1.03
7221.00,1.02
7220.00,1.02
7219.00,1.01
7218.00,1.00
7217.00,1.00
7216.00,0.99
7215.00,0.99
7214.00,0.99
7213.00,0.98
7212.00,0.98
7211.00,0.98
7210.00,0.97
7209.00,0.97
7208.00,0.97
7207.00,0.97
7206.00,0.97
7205.00,0.96
7204.00,0.96
7203.00,0.96
7202.00,0.96
7201.00,0.96
7200.00,0.96
7199.00,0.96
7198.00,0.95
7197.00,0.95
7196.00,0.95
7195.00,0.95
7194.00,0.95
7193.00,0.95
7192.00,0.94
7191.00,0.94
7190.00,0.94
7189.00,0.93
7188.00,0.93
7187.00,0.93
7186.00,0.92
7185.00,0.92
7184.00,0.91
7183.00,0.90
7182.00,0.90
7181.00,0.89
7180.00,0.89
7179.00,0.88
7178.00,0.87
7177.00,0.87
7176.00,0.86
7175.00,0.85
7174.00,0.85
7173.00,0.84
7172.00,0.83
7171.00,0.83
7170.00,0.82
7169.00,0.82
7168.00,0.81
7167.00,0.80
7166.00,0.80
7165.00,0.80
7164.00,0.79
7163.00,0.79
7162.00,0.79
7161.00,0.79
7160.00,0.78
7159.00,0.78
7158.00,0.78
7157.00,0.78
7156.00,0.78
7155.00,0.79
7154.00,0.79
7153.00,0.79
7152.00,0.79
7151.00,0.79
7150.00,0.79
7149.00,0.79
7148.00,0.79
7147.00,0.79
7146.00,0.79
7145.00,0.79
7144.00,0.79
7143.00,0.79
7142.00,0.79
7141.00,0.79
7140.00,0.79
7139.00,0.79
7138.00,0.79
7137.00,0.79
7136.00,0.79
7135.00,0.79
7134.00,0.79
7133.00,0.78
7132.00,0.78
7131.00,0.78
7130.00,0.78
7129.00,0.77
7128.00,0.77
7127.00,0.77
7126.00,0.76
7125.00,0.76
7124.00,0.76
7123.00,0.75
7122.00,0.75
7121.00,0.75
7120.00,0.75
7119.00,0.75
7118.00,0.74
7117.00,0.74
7116.00,0.74
7115.00,0.74
7114.00,0.74
7113.00,0.73
7112.00,0.73
7111.00,0.73
7110.00,0.73
7109.00,0.73
7108.00,0.73
7107.00,0.73
7106.00,0.73
7105.00,0.72
7104.00,0.72
7103.00,0.72
7102.00,0.72
7101.00,0.72
7100.00,0.72
7099.00,0.72
7098.00,0.71
7097.00,0.71
7096.00,0.71
7095.00,0.71
7094.00,0.71
7093.00,0.71
7092.00,0.70
7091.00,0.70
7090.00,0.70
7089.00,0.70
7088.00,0.70
7087.00,0.69
7086.00,0.69
7085.00,0.69
7084.00,0.68
7083.00,0.68
7082.00,0.68
7081.00,0.67
7080.00,0.67
7079.00,0.67
7078.00,0.66
7077.00,0.66
7076.00,0.66
7075.00,0.65
7074.00,0.65
7073.00,0.65
7072.00,0.65
7071.00,0.64
7070.00,0.64
7069.00,0.64
7068.00,0.63
7067.00,0.63
7066.00,0.63
7065.00,0.63
7064.00,0.62
7063.00,0.62
7062.00,0.62
7061.00,0.62
7060.00,0.62
7059.00,0.62
7058.00,0.61
7057.00,0.61
7056.00,0.61
7055.00,0.61
7054.00,0.61
7053.00,0.61
7052.00,0.61
7051.00,0.61
7050.00,0.61
7049.00,0.61
7048.00,0.61
7047.00,0.61
7046.00,0.61
7045.00,0.61
7044.00,0.61
7043.00,0.61
7042.00,0.61
7041.00,0.61
7040.00,0.61
7039.00,0.61
7038.00,0.61
7037.00,0.61
7036.00,0.61
7035.00,0.61
7034.00,0.61
7033.00,0.60
7032.00,0.60
7031.00,0.60
7030.00,0.60
7029.00,0.60
7028.00,0.60
7027.00,0.60
7026.00,0.59
7025.00,0.59
7024.00,0.59
7023.00,0.59
7022.00,0.59
7021.00,0.59
7020.00,0.59
7019.00,0.59
7018.00,0.58
7017.00,0.58
7016.00,0.58
7015.00,0.58
7014.00,0.58
7013.00,0.58
7012.00,0.58
7011.00,0.58
7010.00,0.58
7009.00,0.58
7008.00,0.58
7007.00,0.58
7006.00,0.59
7005.00,0.59
7004.00,0.59
7003.00,0.59
7002.00,0.59
7001.00,0.59
7000.00,0.59
6999.00,0.59
6998.00,0.59
6997.00,0.59
6996.00,0.59
6995.00,0.60
6994.00,0.60
6993.00,0.60
6992.00,0.60
6991.00,0.60
6990.00,0.60
6989.00,0.60
6988.00,0.60
6987.00,0.61
6986.00,0.61
6985.00,0.61
6984.00,0.61
6983.00,0.61
6982.00,0.61
6981.00,0.61
6980.00,0.61
6979.00,0.61
6978.00,0.61
6977.00,0.61
6976.00,0.61
6975.00,0.60
6974.00,0.60
6973.00,0.60
6972.00,0.60
6971.00,0.60
6970.00,0.60
6969.00,0.60
6968.00,0.60
6967.00,0.60
6966.00,0.60
6965.00,0.60
6964.00,0.60
6963.00,0.59
6962.00,0.59
6961.00,0.59
6960.00,0.59
6959.00,0.59
6958.00,0.59
6957.00,0.59
6956.00,0.58
6955.00,0.58
6954.00,0.58
6953.00,0.58
6952.00,0.58
6951.00,0.58
6950.00,0.58
6949.00,0.59
6948.00,0.59
6947.00,0.59
6946.00,0.59
6945.00,0.59
6944.00,0.59
6943.00,0.59
6942.00,0.59
6941.00,0.59
6940.00,0.59
6939.00,0.59
6938.00,0.59
6937.00,0.59
6936.00,0.59
6935.00,0.59
6934.00,0.59
6933.00,0.59
6932.00,0.59
6931.00,0.59
6930.00,0.59
6929.00,0.59
6928.00,0.59
6927.00,0.59
6926.00,0.59
6925.00,0.59
6924.00,0.59
6923.00,0.59
6922.00,0.59
6921.00,0.59
6920.00,0.59
6919.00,0.59
6918.00,0.59
6917.00,0.59
6916.00,0.59
6915.00,0.59
6914.00,0.59
6913.00,0.59
6912.00,0.59
6911.00,0.59
6910.00,0.59
6909.00,0.60
6908.00,0.60
6907.00,0.60
6906.00,0.60
6905.00,0.60
6904.00,0.60
6903.00,0.61
6902.00,0.61
6901.00,0.61
6900.00,0.61
6899.00,0.61
6898.00,0.61
6897.00,0.62
6896.00,0.62
6895.00,0.62
6894.00,0.62
6893.00,0.62
6892.00,0.62
6891.00,0.62
6890.00,0.62
6889.00,0.62
6888.00,0.62
6887.00,0.62
6886.00,0.62
6885.00,0.62
6884.00,0.62
6883.00,0.62
6882.00,0.62
6881.00,0.62
6880.00,0.62
6879.00,0.62
6878.00,0.62
6877.00,0.62
6876.00,0.61
6875.00,0.61
6874.00,0.61
6873.00,0.61
6872.00,0.60
6871.00,0.60
6870.00,0.60
6869.00,0.60
6868.00,0.59
6867.00,0.59
6866.00,0.59
6865.00,0.59
6864.00,0.59
6863.00,0.58
6862.00,0.58
6861.00,0.58
6860.00,0.58
6859.00,0.58
6858.00,0.57
6857.00,0.57
6856.00,0.57
6855.00,0.57
6854.00,0.56
6853.00,0.56
6852.00,0.56
6851.00,0.56
6850.00,0.56
6849.00,0.56
6848.00,0.56
6847.00,0.56
6846.00,0.56
6845.00,0.55
6844.00,0.55
6843.00,0.55
6842.00,0.55
6841.00,0.55
6840.00,0.55
6839.00,0.55
6838.00,0.55
6837.00,0.55
6836.00,0.55
6835.00,0.55
6834.00,0.55
6833.00,0.55
6832.00,0.56
6831.00,0.56
6830.00,0.56
6829.00,0.56
6828.00,0.56
6827.00,0.56
6826.00,0.56
6825.00,0.56
6824.00,0.56
6823.00,0.56
6822.00,0.56
6821.00,0.56
6820.00,0.57
6819.00,0.57
6818.00,0.57
6817.00,0.57
6816.00,0.57
6815.00,0.57
6814.00,0.57
6813.00,0.57
6812.00,0.57
6811.00,0.58
6810.00,0.58
6809.00,0.58
6808.00,0.58
6807.00,0.58
6806.00,0.58
6805.00,0.58
6804.00,0.59
6803.00,0.59
6802.00,0.59
6801.00,0.59
6800.00,0.59
6799.00,0.60
6798.00,0.60
6797.00,0.60
6796.00,0.60
6795.00,0.60
6794.00,0.61
6793.00,0.61
6792.00,0.61
6791.00,0.61
6790.00,0.61
6789.00,0.62
6788.00,0.62
6787.00,0.62
6786.00,0.62
6785.00,0.62
6784.00,0.62
6783.00,0.62
6782.00,0.62
6781.00,0.62
6780.00,0.62
6779.00,0.62
6778.00,0.62
6777.00,0.62
6776.00,0.62
6775.00,0.62
6774.00,0.62
6773.00,0.62
6772.00,0.62
6771.00,0.62
6770.00,0.62
6769.00,0.62
6768.00,0.62
6767.00,0.62
6766.00,0.62
6765.00,0.62
6764.00,0.61
6763.00,0.61
6762.00,0.61
6761.00,0.61
6760.00,0.61
6759.00,0.61
6758.00,0.61
6757.00,0.61
6756.00,0.61
6755.00,0.60
6754.00,0.60
6753.00,0.60
6752.00,0.60
6751.00,0.60
6750.00,0.60
6749.00,0.60
6748.00,0.60
6747.00,0.59
6746.00,0.59
6745.00,0.59
6744.00,0.59
6743.00,0.59
6742.00,0.59
6741.00,0.59
6740.00,0.59
6739.00,0.59
6738.00,0.59
6737.00,0.59
6736.00,0.59
6735.00,0.59
6734.00,0.59
6733.00,0.59
6732.00,0.59
6731.00,0.59
6730.00,0.59
6729.00,0.60
6728.00,0.60
6727.00,0.60
6726.00,0.60
6725.00,0.60
6724.00,0.60
6723.00,0.60
6722.00,0.60
6721.00,0.60
6720.00,0.61
6719.00,0.61
6718.00,0.61
6717.00,0.61
6716.00,0.61
6715.00,0.61
6714.00,0.61
6713.00,0.61
6712.00,0.61
6711.00,0.61
6710.00,0.61
6709.00,0.61
6708.00,0.61
6707.00,0.62
6706.00,0.62
6705.00,0.62
6704.00,0.62
6703.00,0.62
6702.00,0.62
6701.00,0.62
6700.00,0.62
6699.00,0.63
6698.00,0.63
6697.00,0.63
6696.00,0.63
6695.00,0.63
6694.00,0.63
6693.00,0.64
6692.00,0.64
6691.00,0.64
6690.00,0.64
6689.00,0.64
6688.00,0.64
6687.00,0.65
6686.00,0.65
6685.00,0.65
6684.00,0.65
6683.00,0.65
6682.00,0.65
6681.00,0.65
6680.00,0.66
6679.00,0.66
6678.00,0.66
6677.00,0.66
6676.00,0.66
6675.00,0.67
6674.00,0.67
6673.00,0.67
6672.00,0.67
6671.00,0.67
6670.00,0.67
6669.00,0.67
6668.00,0.67
6667.00,0.68
6666.00,0.68
6665.00,0.68
6664.00,0.68
6663.00,0.68
6662.00,0.69
6661.00,0.69
6660.00,0.69
6659.00,0.69
6658.00,0.69
6657.00,0.69
6656.00,0.70
6655.00,0.70
6654.00,0.70
6653.00,0.70
6652.00,0.70
6651.00,0.70
6650.00,0.70
6649.00,0.70
6648.00,0.70
6647.00,0.70
6646.00,0.70
6645.00,0.70
6644.00,0.70
6643.00,0.70
6642.00,0.70
6641.00,0.70
6640.00,0.70
6639.00,0.70
6638.00,0.70
6637.00,0.70
6636.00,0.70
6635.00,0.70
6634.00,0.69
6633.00,0.69
6632.00,0.69
6631.00,0.69
6630.00,0.69
6629.00,0.69
6628.00,0.69
6627.00,0.69
6626.00,0.69
6625.00,0.69
6624.00,0.69
6623.00,0.69
6622.00,0.69
6621.00,0.69
6620.00,0.69
6619.00,0.69
6618.00,0.69
6617.00,0.69
6616.00,0.69
6615.00,0.69
6614.00,0.69
6613.00,0.69
6612.00,0.69
6611.00,0.69
6610.00,0.69
6609.00,0.69
6608.00,0.69
6607.00,0.70
6606.00,0.70
6605.00,0.70
6604.00,0.70
6603.00,0.70
6602.00,0.71
6601.00,0.71
6600.00,0.71
6599.00,0.71
6598.00,0.71
6597.00,0.72
6596.00,0.72
6595.00,0.72
6594.00,0.72
6593.00,0.72
6592.00,0.73
6591.00,0.73
6590.00,0.73
6589.00,0.74
6588.00,0.74
6587.00,0.74
6586.00,0.75
6585.00,0.75
6584.00,0.75
6583.00,0.76
6582.00,0.76
6581.00,0.76
6580.00,0.76
6579.00,0.76
6578.00,0.77
6577.00,0.77
6576.00,0.77
6575.00,0.77
6574.00,0.77
6573.00,0.78
6572.00,0.78
6571.00,0.78
6570.00,0.78
6569.00,0.78
6568.00,0.79
6567.00,0.79
6566.00,0.79
6565.00,0.79
6564.00,0.79
6563.00,0.79
6562.00,0.79
6561.00,0.80
6560.00,0.80
6559.00,0.80
6558.00,0.80
6557.00,0.80
6556.00,0.80
6555.00,0.80
6554.00,0.80
6553.00,0.80
6552.00,0.80
6551.00,0.80
6550.00,0.80
6549.00,0.80
6548.00,0.80
6547.00,0.80
6546.00,0.80
6545.00,0.80
6544.00,0.80
6543.00,0.80
6542.00,0.80
6541.00,0.80
6540.00,0.80
6539.00,0.80
6538.00,0.80
6537.00,0.80
6536.00,0.80
6535.00,0.80
6534.00,0.79
6533.00,0.79
6532.00,0.79
6531.00,0.79
6530.00,0.79
6529.00,0.79
6528.00,0.79
6527.00,0.79
6526.00,0.79
6525.00,0.79
6524.00,0.79
6523.00,0.79
6522.00,0.79
6521.00,0.79
6520.00,0.80
6519.00,0.80
6518.00,0.80
6517.00,0.80
6516.00,0.80
6515.00,0.81
6514.00,0.81
6513.00,0.81
6512.00,0.81
6511.00,0.82
6510.00,0.82
6509.00,0.83
6508.00,0.83
6507.00,0.84
6506.00,0.84
6505.00,0.84
6504.00,0.85
6503.00,0.85
6502.00,0.86
6501.00,0.86
6500.00,0.87
6499.00,0.87
6498.00,0.87
6497.00,0.87
6496.00,0.88
6495.00,0.88
6494.00,0.88
6493.00,0.88
6492.00,0.89
6491.00,0.89
6490.00,0.89
6489.00,0.89
6488.00,0.89
6487.00,0.89
6486.00,0.89
6485.00,0.89
6484.00,0.89
6483.00,0.89
6482.00,0.89
6481.00,0.89
6480.00,0.89
6479.00,0.88
6478.00,0.88
6477.00,0.88
6476.00,0.88
6475.00,0.88
6474.00,0.88
6473.00,0.88
6472.00,0.88
6471.00,0.88
6470.00,0.88
6469.00,0.88
6468.00,0.88
6467.00,0.88
6466.00,0.88
6465.00,0.88
6464.00,0.88
6463.00,0.88
6462.00,0.88
6461.00,0.88
6460.00,0.88
6459.00,0.88
6458.00,0.88
6457.00,0.88
6456.00,0.88
6455.00,0.88
6454.00,0.88
6453.00,0.88
6452.00,0.88
6451.00,0.88
6450.00,0.89
6449.00,0.89
6448.00,0.89
6447.00,0.89
6446.00,0.89
6445.00,0.89
6444.00,0.89
6443.00,0.89
6442.00,0.89
6441.00,0.89
6440.00,0.89
6439.00,0.89
6438.00,0.89
6437.00,0.89
6436.00,0.89
6435.00,0.89
6434.00,0.89
6433.00,0.89
6432.00,0.89
6431.00,0.89
6430.00,0.89
6429.00,0.89
6428.00,0.89
6427.00,0.89
6426.00,0.89
6425.00,0.89
6424.00,0.89
6423.00,0.89
6422.00,0.89
6421.00,0.89
6420.00,0.90
6419.00,0.90
6418.00,0.90
6417.00,0.90
6416.00,0.90
6415.00,0.90
6414.00,0.90
6413.00,0.91
6412.00,0.91
6411.00,0.91
6410.00,0.91
6409.00,0.92
6408.00,0.92
6407.00,0.92
6406.00,0.92
6405.00,0.92
6404.00,0.92
6403.00,0.92
6402.00,0.92
6401.00,0.92
6400.00,0.92
6399.00,0.92
6398.00,0.92
6397.00,0.92
6396.00,0.92
6395.00,0.92
6394.00,0.93
6393.00,0.93
6392.00,0.93
6391.00,0.92
6390.00,0.92
6389.00,0.92
6388.00,0.92
6387.00,0.92
6386.00,0.92
6385.00,0.92
6384.00,0.92
6383.00,0.92
6382.00,0.92
6381.00,0.92
6380.00,0.92
6379.00,0.92
6378.00,0.92
6377.00,0.92
6376.00,0.92
6375.00,0.92
6374.00,0.92
6373.00,0.92
6372.00,0.92
6371.00,0.92
6370.00,0.92
6369.00,0.92
6368.00,0.92
6367.00,0.92
6366.00,0.92
6365.00,0.92
6364.00,0.92
6363.00,0.92
6362.00,0.92
6361.00,0.92
6360.00,0.93
6359.00,0.93
6358.00,0.93
6357.00,0.93
6356.00,0.93
6355.00,0.93
6354.00,0.93
6353.00,0.93
6352.00,0.93
6351.00,0.93
6350.00,0.93
6349.00,0.93
6348.00,0.94
6347.00,0.94
6346.00,0.94
6345.00,0.94
6344.00,0.94
6343.00,0.94
6342.00,0.94
6341.00,0.94
6340.00,0.94
6339.00,0.94
6338.00,0.95
6337.00,0.95
6336.00,0.95
6335.00,0.95
6334.00,0.95
6333.00,0.95
6332.00,0.95
6331.00,0.95
6330.00,0.95
6329.00,0.95
6328.00,0.96
6327.00,0.96
6326.00,0.96
6325.00,0.96
6324.00,0.96
6323.00,0.96
6322.00,0.96
6321.00,0.96
6320.00,0.96
6319.00,0.96
6318.00,0.96
6317.00,0.96
6316.00,0.97
6315.00,0.97
6314.00,0.97
6313.00,0.97
6312.00,0.97
6311.00,0.97
6310.00,0.98
6309.00,0.98
6308.00,0.98
6307.00,0.98
6306.00,0.99
6305.00,0.99
6304.00,0.99
6303.00,0.99
6302.00,1.00
6301.00,1.00
6300.00,1.00
6299.00,1.00
6298.00,1.01
6297.00,1.01
6296.00,1.01
6295.00,1.02
6294.00,1.02
6293.00,1.02
6292.00,1.03
6291.00,1.03
6290.00,1.03
6289.00,1.03
6288.00,1.04
6287.00,1.04
6286.00,1.04
6285.00,1.04
6284.00,1.05
6283.00,1.05
6282.00,1.05
6281.00,1.05
6280.00,1.05
6279.00,1.05
6278.00,1.05
6277.00,1.05
6276.00,1.06
6275.00,1.06
6274.00,1.06
6273.00,1.06
6272.00,1.06
6271.00,1.06
6270.00,1.06
6269.00,1.05
6268.00,1.05
6267.00,1.05
6266.00,1.05
6265.00,1.05
6264.00,1.05
6263.00,1.05
6262.00,1.04
6261.00,1.04
6260.00,1.04
6259.00,1.04
6258.00,1.04
6257.00,1.04
6256.00,1.04
6255.00,1.04
6254.00,1.03
6253.00,1.03
6252.00,1.03
6251.00,1.03
6250.00,1.03
6249.00,1.03
6248.00,1.03
6247.00,1.04
6246.00,1.04
6245.00,1.04
6244.00,1.04
6243.00,1.04
6242.00,1.04
6241.00,1.05
6240.00,1.05
6239.00,1.05
6238.00,1.05
6237.00,1.06
6236.00,1.06
6235.00,1.06
6234.00,1.06
6233.00,1.06
6232.00,1.07
6231.00,1.07
6230.00,1.07
6229.00,1.07
6228.00,1.08
6227.00,1.08
6226.00,1.08
6225.00,1.08
6224.00,1.09
6223.00,1.09
6222.00,1.09
6221.00,1.09
6220.00,1.09
6219.00,1.09
6218.00,1.10
6217.00,1.10
6216.00,1.10
6215.00,1.10
6214.00,1.10
6213.00,1.10
6212.00,1.10
6211.00,1.10
6210.00,1.10
6209.00,1.10
6208.00,1.10
6207.00,1.10
6206.00,1.10
6205.00,1.10
6204.00,1.11
6203.00,1.11
6202.00,1.11
6201.00,1.11
6200.00,1.11
6199.00,1.11
6198.00,1.11
6197.00,1.11
6196.00,1.11
6195.00,1.10
6194.00,1.10
6193.00,1.11
6192.00,1.11
6191.00,1.11
6190.00,1.11
6189.00,1.11
6188.00,1.11
6187.00,1.11
6186.00,1.11
6185.00,1.12
6184.00,1.12
6183.00,1.12
6182.00,1.12
6181.00,1.12
6180.00,1.13
6179.00,1.13
6178.00,1.13
6177.00,1.14
6176.00,1.14
6175.00,1.14
6174.00,1.15
6173.00,1.15
6172.00,1.15
6171.00,1.16
6170.00,1.16
6169.00,1.16
6168.00,1.16
6167.00,1.17
6166.00,1.17
6165.00,1.17
6164.00,1.17
6163.00,1.18
6162.00,1.18
6161.00,1.18
6160.00,1.18
6159.00,1.18
6158.00,1.18
6157.00,1.18
6156.00,1.19
6155.00,1.19
6154.00,1.19
6153.00,1.19
6152.00,1.19
6151.00,1.19
6150.00,1.19
6149.00,1.19
6148.00,1.19
6147.00,1.19
6146.00,1.19
6145.00,1.19
6144.00,1.19
6143.00,1.19
6142.00,1.19
6141.00,1.19
6140.00,1.19
6139.00,1.19
6138.00,1.19
6137.00,1.19
6136.00,1.19
6135.00,1.20
6134.00,1.20
6133.00,1.20
6132.00,1.20
6131.00,1.20
6130.00,1.20
6129.00,1.20
6128.00,1.20
6127.00,1.20
6126.00,1.20
6125.00,1.20
6124.00,1.20
6123.00,1.20
6122.00,1.20
6121.00,1.21
6120.00,1.21
6119.00,1.21
6118.00,1.21
6117.00,1.22
6116.00,1.22
6115.00,1.22
6114.00,1.22
6113.00,1.23
6112.00,1.23
6111.00,1.23
6110.00,1.23
6109.00,1.23
6108.00,1.24
6107.00,1.24
6106.00,1.24
6105.00,1.25
6104.00,1.25
6103.00,1.25
6102.00,1.26
6101.00,1.26
6100.00,1.26
6099.00,1.26
6098.00,1.27
6097.00,1.27
6096.00,1.27
6095.00,1.27
6094.00,1.27
6093.00,1.28
6092.00,1.28
6091.00,1.28
6090.00,1.28
6089.00,1.28
6088.00,1.28
6087.00,1.29
6086.00,1.29
6085.00,1.29
6084.00,1.29
6083.00,1.29
6082.00,1.29
6081.00,1.29
6080.00,1.29
6079.00,1.29
6078.00,1.29
6077.00,1.30
6076.00,1.30
6075.00,1.30
6074.00,1.30
6073.00,1.30
6072.00,1.30
6071.00,1.30
6070.00,1.30
6069.00,1.30
6068.00,1.30
6067.00,1.30
6066.00,1.30
6065.00,1.30
6064.00,1.30
6063.00,1.30
6062.00,1.30
6061.00,1.30
6060.00,1.30
6059.00,1.31
6058.00,1.31
6057.00,1.31
6056.00,1.31
6055.00,1.31
6054.00,1.31
6053.00,1.31
6052.00,1.31
6051.00,1.31
6050.00,1.31
6049.00,1.31
6048.00,1.31
6047.00,1.32
6046.00,1.32
6045.00,1.32
6044.00,1.32
6043.00,1.32
6042.00,1.32
6041.00,1.33
6040.00,1.33
6039.00,1.33
6038.00,1.33
6037.00,1.33
6036.00,1.33
6035.00,1.33
6034.00,1.34
6033.00,1.34
6032.00,1.34
6031.00,1.34
6030.00,1.34
6029.00,1.35
6028.00,1.35
6027.00,1.35
6026.00,1.35
6025.00,1.35
6024.00,1.36
6023.00,1.36
6022.00,1.36
6021.00,1.36
6020.00,1.36
6019.00,1.36
6018.00,1.36
6017.00,1.36
6016.00,1.36
6015.00,1.36
6014.00,1.36
6013.00,1.36
6012.00,1.36
6011.00,1.36
6010.00,1.36
6009.00,1.36
6008.00,1.36
6007.00,1.36
6006.00,1.36
6005.00,1.36
6004.00,1.36
6003.00,1.35
6002.00,1.35
6001.00,1.35
6000.00,1.35
5999.00,1.35
5998.00,1.35
5997.00,1.34
5996.00,1.34
5995.00,1.34
5994.00,1.34
5993.00,1.34
5992.00,1.34
5991.00,1.34
5990.00,1.33
5989.00,1.33
5988.00,1.33
5987.00,1.33
5986.00,1.33
5985.00,1.33
5984.00,1.33
5983.00,1.33
5982.00,1.32
5981.00,1.32
5980.00,1.32
5979.00,1.32
5978.00,1.32
5977.00,1.31
5976.00,1.31
5975.00,1.31
5974.00,1.30
5973.00,1.30
5972.00,1.30
5971.00,1.29
5970.00,1.29
5969.00,1.29
5968.00,1.28
5967.00,1.28
5966.00,1.27
5965.00,1.27
5964.00,1.26
5963.00,1.26
5962.00,1.26
5961.00,1.25
5960.00,1.25
5959.00,1.24
5958.00,1.23
5957.00,1.23
5956.00,1.22
5955.00,1.22
5954.00,1.21
5953.00,1.21
5952.00,1.20
5951.00,1.20
5950.00,1.19
5949.00,1.19
5948.00,1.18
5947.00,1.18
5946.00,1.18
5945.00,1.17
5944.00,1.17
5943.00,1.16
5942.00,1.16
5941.00,1.16
5940.00,1.15
5939.00,1.15
5938.00,1.15
5937.00,1.14
5936.00,1.14
5935.00,1.14
5934.00,1.13
5933.00,1.13
5932.00,1.13
5931.00,1.13
5930.00,1.13
5929.00,1.13
5928.00,1.12
5927.00,1.12
5926.00,1.12
5925.00,1.12
5924.00,1.11
5923.00,1.11
5922.00,1.11
5921.00,1.11
5920.00,1.10
5919.00,1.10
5918.00,1.10
5917.00,1.10
5916.00,1.09
5915.00,1.09
5914.00,1.09
5913.00,1.09
5912.00,1.09
5911.00,1.09
5910.00,1.09
5909.00,1.09
5908.00,1.08
5907.00,1.08
5906.00,1.08
5905.00,1.08
5904.00,1.08
5903.00,1.08
5902.00,1.08
5901.00,1.09
5900.00,1.09
5899.00,1.09
5898.00,1.09
5897.00,1.09
5896.00,1.09
5895.00,1.10
5894.00,1.10
5893.00,1.10
5892.00,1.11
5891.00,1.11
5890.00,1.11
5889.00,1.11
5888.00,1.12
5887.00,1.12
5886.00,1.12
5885.00,1.12
5884.00,1.13
5883.00,1.13
5882.00,1.13
5881.00,1.13
5880.00,1.13
5879.00,1.14
5878.00,1.14
5877.00,1.14
5876.00,1.14
5875.00,1.14
5874.00,1.14
5873.00,1.14
5872.00,1.14
5871.00,1.14
5870.00,1.14
5869.00,1.14
5868.00,1.14
5867.00,1.14
5866.00,1.14
5865.00,1.14
5864.00,1.14
5863.00,1.14
5862.00,1.14
5861.00,1.14
5860.00,1.14
5859.00,1.14
5858.00,1.14
5857.00,1.14
5856.00,1.14
5855.00,1.15
5854.00,1.15
5853.00,1.15
5852.00,1.15
5851.00,1.15
5850.00,1.15
5849.00,1.15
5848.00,1.15
5847.00,1.16
5846.00,1.16
5845.00,1.16
5844.00,1.16
5843.00,1.16
5842.00,1.16
5841.00,1.16
5840.00,1.16
5839.00,1.16
5838.00,1.16
5837.00,1.16
5836.00,1.16
5835.00,1.17
5834.00,1.17
5833.00,1.17
5832.00,1.17
5831.00,1.17
5830.00,1.17
5829.00,1.17
5828.00,1.17
5827.00,1.17
5826.00,1.17
5825.00,1.17
5824.00,1.17
5823.00,1.17
5822.00,1.17
5821.00,1.17
5820.00,1.17
5819.00,1.17
5818.00,1.17
5817.00,1.17
5816.00,1.17
5815.00,1.17
5814.00,1.17
5813.00,1.17
5812.00,1.17
5811.00,1.17
5810.00,1.17
5809.00,1.17
5808.00,1.17
5807.00,1.17
5806.00,1.17
5805.00,1.17
5804.00,1.17
5803.00,1.17
5802.00,1.17
5801.00,1.17
5800.00,1.17
5799.00,1.18
5798.00,1.18
5797.00,1.18
5796.00,1.18
5795.00,1.18
5794.00,1.18
5793.00,1.18
5792.00,1.18
5791.00,1.18
5790.00,1.17
5789.00,1.17
5788.00,1.17
5787.00,1.17
5786.00,1.17
5785.00,1.17
5784.00,1.17
5783.00,1.16
5782.00,1.16
5781.00,1.16
5780.00,1.16
5779.00,1.15
5778.00,1.15
5777.00,1.15
5776.00,1.15
5775.00,1.15
5774.00,1.15
5773.00,1.14
5772.00,1.14
5771.00,1.14
5770.00,1.14
5769.00,1.14
5768.00,1.14
5767.00,1.14
5766.00,1.14
5765.00,1.14
5764.00,1.14
5763.00,1.14
5762.00,1.14
5761.00,1.14
5760.00,1.14
5759.00,1.14
5758.00,1.14
5757.00,1.14
5756.00,1.15
5755.00,1.15
5754.00,1.15
5753.00,1.15
5752.00,1.16
5751.00,1.16
5750.00,1.16
5749.00,1.16
5748.00,1.16
5747.00,1.17
5746.00,1.17
5745.00,1.17
5744.00,1.17
5743.00,1.17
5742.00,1.17
5741.00,1.17
5740.00,1.17
5739.00,1.17
5738.00,1.17
5737.00,1.17
5736.00,1.17
5735.00,1.17
5734.00,1.17
5733.00,1.17
5732.00,1.17
5731.00,1.17
5730.00,1.17
5729.00,1.17
5728.00,1.17
5727.00,1.17
5726.00,1.17
5725.00,1.17
5724.00,1.17
5723.00,1.17
5722.00,1.17
5721.00,1.17
5720.00,1.17
5719.00,1.17
5718.00,1.17
5717.00,1.18
5716.00,1.18
5715.00,1.18
5714.00,1.18
5713.00,1.18
5712.00,1.18
5711.00,1.19
5710.00,1.19
5709.00,1.19
5708.00,1.19
5707.00,1.19
5706.00,1.20
5705.00,1.20
5704.00,1.20
5703.00,1.20
5702.00,1.20
5701.00,1.20
5700.00,1.20
5699.00,1.20
5698.00,1.20
5697.00,1.20
5696.00,1.20
5695.00,1.20
5694.00,1.20
5693.00,1.20
5692.00,1.20
5691.00,1.20
5690.00,1.19
5689.00,1.19
5688.00,1.19
5687.00,1.19
5686.00,1.19
5685.00,1.19
5684.00,1.18
5683.00,1.18
5682.00,1.18
5681.00,1.18
5680.00,1.18
5679.00,1.18
5678.00,1.18
5677.00,1.18
5676.00,1.18
5675.00,1.18
5674.00,1.18
5673.00,1.18
5672.00,1.18
5671.00,1.18
5670.00,1.18
5669.00,1.18
5668.00,1.18
5667.00,1.18
5666.00,1.18
5665.00,1.19
5664.00,1.19
5663.00,1.19
5662.00,1.19
5661.00,1.20
5660.00,1.20
5659.00,1.20
5658.00,1.21
5657.00,1.21
5656.00,1.21
5655.00,1.22
5654.00,1.22
5653.00,1.22
5652.00,1.23
5651.00,1.23
5650.00,1.23
5649.00,1.23
5648.00,1.24
5647.00,1.24
5646.00,1.24
5645.00,1.25
5644.00,1.25
5643.00,1.25
5642.00,1.25
5641.00,1.26
5640.00,1.26
5639.00,1.26
5638.00,1.26
5637.00,1.27
5636.00,1.27
5635.00,1.27
5634.00,1.27
5633.00,1.27
5632.00,1.27
5631.00,1.27
5630.00,1.27
5629.00,1.27
5628.00,1.27
5627.00,1.27
5626.00,1.27
5625.00,1.27
5624.00,1.27
5623.00,1.27
5622.00,1.27
5621.00,1.27
5620.00,1.27
5619.00,1.27
5618.00,1.27
5617.00,1.27
5616.00,1.27
5615.00,1.27
5614.00,1.27
5613.00,1.27
5612.00,1.27
5611.00,1.27
5610.00,1.27
5609.00,1.27
5608.00,1.27
5607.00,1.27
5606.00,1.27
5605.00,1.28
5604.00,1.28
5603.00,1.28
5602.00,1.28
5601.00,1.28
5600.00,1.28
5599.00,1.28
5598.00,1.29
5597.00,1.29
5596.00,1.29
5595.00,1.29
5594.00,1.29
5593.00,1.30
5592.00,1.30
5591.00,1.30
5590.00,1.30
5589.00,1.30
5588.00,1.30
5587.00,1.31
5586.00,1.31
5585.00,1.31
5584.00,1.31
5583.00,1.31
5582.00,1.32
5581.00,1.32
5580.00,1.32
5579.00,1.32
5578.00,1.32
5577.00,1.32
5576.00,1.32
5575.00,1.32
5574.00,1.32
5573.00,1.32
5572.00,1.32
5571.00,1.32
5570.00,1.32
5569.00,1.32
5568.00,1.32
5567.00,1.32
5566.00,1.32
5565.00,1.33
5564.00,1.33
5563.00,1.33
5562.00,1.33
5561.00,1.33
5560.00,1.33
5559.00,1.33
5558.00,1.33
5557.00,1.33
5556.00,1.33
5555.00,1.34
5554.00,1.34
5553.00,1.34
5552.00,1.34
5551.00,1.34
5550.00,1.35
5549.00,1.35
5548.00,1.35
5547.00,1.36
5546.00,1.36
5545.00,1.36
5544.00,1.37
5543.00,1.37
5542.00,1.37
5541.00,1.37
5540.00,1.38
5539.00,1.38
5538.00,1.38
5537.00,1.38
5536.00,1.39
5535.00,1.39
5534.00,1.39
5533.00,1.39
5532.00,1.39
5531.00,1.39
5530.00,1.39
5529.00,1.39
5528.00,1.39
5527.00,1.39
5526.00,1.39
5525.00,1.39
5524.00,1.39
5523.00,1.39
5522.00,1.39
5521.00,1.39
5520.00,1.39
5519.00,1.39
5518.00,1.39
5517.00,1.38
5516.00,1.38
5515.00,1.38
5514.00,1.38
5513.00,1.38
5512.00,1.37
5511.00,1.37
5510.00,1.37
5509.00,1.37
5508.00,1.37
5507.00,1.36
5506.00,1.36
5505.00,1.36
5504.00,1.36
5503.00,1.36
5502.00,1.36
5501.00,1.36
5500.00,1.36
5499.00,1.36
5498.00,1.36
5497.00,1.36
5496.00,1.36
5495.00,1.36
5494.00,1.36
5493.00,1.37
5492.00,1.37
5491.00,1.37
5490.00,1.37
5489.00,1.37
5488.00,1.37
5487.00,1.38
5486.00,1.38
5485.00,1.38
5484.00,1.38
5483.00,1.39
5482.00,1.39
5481.00,1.39
5480.00,1.40
5479.00,1.40
5478.00,1.40
5477.00,1.40
5476.00,1.40
5475.00,1.41
5474.00,1.41
5473.00,1.41
5472.00,1.41
5471.00,1.41
5470.00,1.41
5469.00,1.41
5468.00,1.41
5467.00,1.41
5466.00,1.41
5465.00,1.41
5464.00,1.41
5463.00,1.41
5462.00,1.41
5461.00,1.41
5460.00,1.41
5459.00,1.41
5458.00,1.41
5457.00,1.41
5456.00,1.41
5455.00,1.41
5454.00,1.41
5453.00,1.41
5452.00,1.41
5451.00,1.40
5450.00,1.40
5449.00,1.40
5448.00,1.40
5447.00,1.40
5446.00,1.40
5445.00,1.40
5444.00,1.40
5443.00,1.40
5442.00,1.40
5441.00,1.40
5440.00,1.40
5439.00,1.40
5438.00,1.40
5437.00,1.40
5436.00,1.40
5435.00,1.40
5434.00,1.40
5433.00,1.40
5432.00,1.40
5431.00,1.40
5430.00,1.40
5429.00,1.40
5428.00,1.40
5427.00,1.40
5426.00,1.41
5425.00,1.41
5424.00,1.41
5423.00,1.41
5422.00,1.41
5421.00,1.41
5420.00,1.41
5419.00,1.41
5418.00,1.41
5417.00,1.41
5416.00,1.41
5415.00,1.41
5414.00,1.41
5413.00,1.42
5412.00,1.42
5411.00,1.42
5410.00,1.42
5409.00,1.42
5408.00,1.42
5407.00,1.42
5406.00,1.42
5405.00,1.42
5404.00,1.41
5403.00,1.41
5402.00,1.41
5401.00,1.41
5400.00,1.41
5399.00,1.41
5398.00,1.40
5397.00,1.40
5396.00,1.40
5395.00,1.40
5394.00,1.39
5393.00,1.39
5392.00,1.39
5391.00,1.39
5390.00,1.38
5389.00,1.38
5388.00,1.38
5387.00,1.38
5386.00,1.37
5385.00,1.37
5384.00,1.36
5383.00,1.36
5382.00,1.36
5381.00,1.35
5380.00,1.35
5379.00,1.34
5378.00,1.34
5377.00,1.33
5376.00,1.33
5375.00,1.32
5374.00,1.32
5373.00,1.31
5372.00,1.31
5371.00,1.30
5370.00,1.30
5369.00,1.29
5368.00,1.29
5367.00,1.28
5366.00,1.27
5365.00,1.27
5364.00,1.26
5363.00,1.25
5362.00,1.24
5361.00,1.24
5360.00,1.23
5359.00,1.22
5358.00,1.21
5357.00,1.20
5356.00,1.20
5355.00,1.19
5354.00,1.18
5353.00,1.17
5352.00,1.17
5351.00,1.16
5350.00,1.15
5349.00,1.14
5348.00,1.13
5347.00,1.12
5346.00,1.12
5345.00,1.11
5344.00,1.10
5343.00,1.10
5342.00,1.09
5341.00,1.08
5340.00,1.07
5339.00,1.07
5338.00,1.06
5337.00,1.05
5336.00,1.05
5335.00,1.04
5334.00,1.03
5333.00,1.03
5332.00,1.02
5331.00,1.01
5330.00,1.01
5329.00,1.00
5328.00,0.99
5327.00,0.98
5326.00,0.98
5325.00,0.97
5324.00,0.96
5323.00,0.96
5322.00,0.95
5321.00,0.94
5320.00,0.93
5319.00,0.93
5318.00,0.92
5317.00,0.91
5316.00,0.91
5315.00,0.90
5314.00,0.89
5313.00,0.89
5312.00,0.88
5311.00,0.88
5310.00,0.87
5309.00,0.86
5308.00,0.86
5307.00,0.85
5306.00,0.85
5305.00,0.84
5304.00,0.84
5303.00,0.84
5302.00,0.83
5301.00,0.83
5300.00,0.83
5299.00,0.82
5298.00,0.82
5297.00,0.82
5296.00,0.82
5295.00,0.82
5294.00,0.81
5293.00,0.81
5292.00,0.81
5291.00,0.81
5290.00,0.81
5289.00,0.81
5288.00,0.81
5287.00,0.80
5286.00,0.80
5285.00,0.80
5284.00,0.80
5283.00,0.80
5282.00,0.80
5281.00,0.80
5280.00,0.80
5279.00,0.80
5278.00,0.80
5277.00,0.79
5276.00,0.79
5275.00,0.79
5274.00,0.79
5273.00,0.79
5272.00,0.79
5271.00,0.79
5270.00,0.79
5269.00,0.78
5268.00,0.78
5267.00,0.78
5266.00,0.78
5265.00,0.78
5264.00,0.78
5263.00,0.78
5262.00,0.78
5261.00,0.78
5260.00,0.78
5259.00,0.78
5258.00,0.78
5257.00,0.78
5256.00,0.78
5255.00,0.78
5254.00,0.78
5253.00,0.78
5252.00,0.78
5251.00,0.78
5250.00,0.78
5249.00,0.78
5248.00,0.78
5247.00,0.78
5246.00,0.78
5245.00,0.78
5244.00,0.77
5243.00,0.77
5242.00,0.77
5241.00,0.77
5240.00,0.77
5239.00,0.77
5238.00,0.77
5237.00,0.77
5236.00,0.77
5235.00,0.77
5234.00,0.77
5233.00,0.77
5232.00,0.77
5231.00,0.77
5230.00,0.77
5229.00,0.77
5228.00,0.77
5227.00,0.77
5226.00,0.77
5225.00,0.77
5224.00,0.77
5223.00,0.77
5222.00,0.77
5221.00,0.77
5220.00,0.77
5219.00,0.77
5218.00,0.77
5217.00,0.77
5216.00,0.77
5215.00,0.77
5214.00,0.77
5213.00,0.77
5212.00,0.77
5211.00,0.77
5210.00,0.77
5209.00,0.77
5208.00,0.77
5207.00,0.77
5206.00,0.77
5205.00,0.77
5204.00,0.77
5203.00,0.77
5202.00,0.77
5201.00,0.77
5200.00,0.77
5199.00,0.77
5198.00,0.77
5197.00,0.77
5196.00,0.76
5195.00,0.76
5194.00,0.76
5193.00,0.76
5192.00,0.76
5191.00,0.76
5190.00,0.76
5189.00,0.76
5188.00,0.76
5187.00,0.76
5186.00,0.76
5185.00,0.76
5184.00,0.76
5183.00,0.76
5182.00,0.76
5181.00,0.77
5180.00,0.77
5179.00,0.77
5178.00,0.77
5177.00,0.77
5176.00,0.77
5175.00,0.77
5174.00,0.78
5173.00,0.78
5172.00,0.78
5171.00,0.78
5170.00,0.78
5169.00,0.78
5168.00,0.79
5167.00,0.79
5166.00,0.79
5165.00,0.79
5164.00,0.79
5163.00,0.79
5162.00,0.79
5161.00,0.79
5160.00,0.80
5159.00,0.80
5158.00,0.80
5157.00,0.80
5156.00,0.80
5155.00,0.80
5154.00,0.81
5153.00,0.81
5152.00,0.81
5151.00,0.81
5150.00,0.81
5149.00,0.81
5148.00,0.81
5147.00,0.82
5146.00,0.82
5145.00,0.82
5144.00,0.82
5143.00,0.82
5142.00,0.82
5141.00,0.82
5140.00,0.83
5139.00,0.83
5138.00,0.83
5137.00,0.83
5136.00,0.83
5135.00,0.83
5134.00,0.83
5133.00,0.83
5132.00,0.83
5131.00,0.83
5130.00,0.83
5129.00,0.83
5128.00,0.83
5127.00,0.83
5126.00,0.83
5125.00,0.83
5124.00,0.83
5123.00,0.83
5122.00,0.83
5121.00,0.83
5120.00,0.83
5119.00,0.83
5118.00,0.83
5117.00,0.83
5116.00,0.83
5115.00,0.82
5114.00,0.82
5113.00,0.82
5112.00,0.82
5111.00,0.82
5110.00,0.82
5109.00,0.82
5108.00,0.81
5107.00,0.81
5106.00,0.81
5105.00,0.81
5104.00,0.81
5103.00,0.81
5102.00,0.80
5101.00,0.80
5100.00,0.80
5099.00,0.80
5098.00,0.80
5097.00,0.79
5096.00,0.79
5095.00,0.79
5094.00,0.79
5093.00,0.79
5092.00,0.79
5091.00,0.79
5090.00,0.79
5089.00,0.79
5088.00,0.79
5087.00,0.79
5086.00,0.79
5085.00,0.79
5084.00,0.79
5083.00,0.79
5082.00,0.78
5081.00,0.78
5080.00,0.78
5079.00,0.78
5078.00,0.78
5077.00,0.79
5076.00,0.79
5075.00,0.79
5074.00,0.79
5073.00,0.79
5072.00,0.79
5071.00,0.79
5070.00,0.79
5069.00,0.79
5068.00,0.80
5067.00,0.80
5066.00,0.80
5065.00,0.80
5064.00,0.80
5063.00,0.80
5062.00,0.81
5061.00,0.81
5060.00,0.81
5059.00,0.81
5058.00,0.81
5057.00,0.81
5056.00,0.82
5055.00,0.82
5054.00,0.82
5053.00,0.82
5052.00,0.82
5051.00,0.82
5050.00,0.82
5049.00,0.82
5048.00,0.83
5047.00,0.83
5046.00,0.83
5045.00,0.83
5044.00,0.83
5043.00,0.83
5042.00,0.83
5041.00,0.83
5040.00,0.83
5039.00,0.83
5038.00,0.83
5037.00,0.83
5036.00,0.83
5035.00,0.83
5034.00,0.84
5033.00,0.84
5032.00,0.84
5031.00,0.84
5030.00,0.84
5029.00,0.84
5028.00,0.84
5027.00,0.84
5026.00,0.84
5025.00,0.85
5024.00,0.85
5023.00,0.85
5022.00,0.85
5021.00,0.86
5020.00,0.86
5019.00,0.86
5018.00,0.86
5017.00,0.86
5016.00,0.87
5015.00,0.87
5014.00,0.87
5013.00,0.87
5012.00,0.88
5011.00,0.88
5010.00,0.88
5009.00,0.88
5008.00,0.88
5007.00,0.88
5006.00,0.89
5005.00,0.89
5004.00,0.89
5003.00,0.89
5002.00,0.89
5001.00,0.89
5000.00,0.89
4999.00,0.89
4998.00,0.88
4997.00,0.88
4996.00,0.88
4995.00,0.88
4994.00,0.88
4993.00,0.88
4992.00,0.88
4991.00,0.88
4990.00,0.88
4989.00,0.87
4988.00,0.87
4987.00,0.87
4986.00,0.87
4985.00,0.87
4984.00,0.87
4983.00,0.87
4982.00,0.86
4981.00,0.86
4980.00,0.86
4979.00,0.86
4978.00,0.86
4977.00,0.86
4976.00,0.86
4975.00,0.86
4974.00,0.86
4973.00,0.86
4972.00,0.86
4971.00,0.86
4970.00,0.86
4969.00,0.86
4968.00,0.86
4967.00,0.87
4966.00,0.87
4965.00,0.87
4964.00,0.87
4963.00,0.87
4962.00,0.87
4961.00,0.87
4960.00,0.87
4959.00,0.87
4958.00,0.87
4957.00,0.87
4956.00,0.87
4955.00,0.87
4954.00,0.87
4953.00,0.87
4952.00,0.87
4951.00,0.87
4950.00,0.87
4949.00,0.87
4948.00,0.87
4947.00,0.87
4946.00,0.87
4945.00,0.87
4944.00,0.87
4943.00,0.87
4942.00,0.87
4941.00,0.87
4940.00,0.87
4939.00,0.87
4938.00,0.87
4937.00,0.87
4936.00,0.87
4935.00,0.88
4934.00,0.88
4933.00,0.88
4932.00,0.88
4931.00,0.88
4930.00,0.88
4929.00,0.88
4928.00,0.88
4927.00,0.88
4926.00,0.88
4925.00,0.88
4924.00,0.88
4923.00,0.88
4922.00,0.88
4921.00,0.88
4920.00,0.88
4919.00,0.88
4918.00,0.88
4917.00,0.88
4916.00,0.88
4915.00,0.88
4914.00,0.88
4913.00,0.88
4912.00,0.88
4911.00,0.88
4910.00,0.88
4909.00,0.88
4908.00,0.88
4907.00,0.88
4906.00,0.88
4905.00,0.89
4904.00,0.89
4903.00,0.89
4902.00,0.89
4901.00,0.89
4900.00,0.89
4899.00,0.89
4898.00,0.90
4897.00,0.90
4896.00,0.90
4895.00,0.90
4894.00,0.90
4893.00,0.90
4892.00,0.90
4891.00,0.90
4890.00,0.90
4889.00,0.90
4888.00,0.90
4887.00,0.90
4886.00,0.90
4885.00,0.90
4884.00,0.91
4883.00,0.91
4882.00,0.91
4881.00,0.91
4880.00,0.91
4879.00,0.91
4878.00,0.91
4877.00,0.90
4876.00,0.90
4875.00,0.90
4874.00,0.90
4873.00,0.90
4872.00,0.90
4871.00,0.90
4870.00,0.90
4869.00,0.90
4868.00,0.90
4867.00,0.90
4866.00,0.90
4865.00,0.90
4864.00,0.90
4863.00,0.90
4862.00,0.90
4861.00,0.90
4860.00,0.90
4859.00,0.90
4858.00,0.90
4857.00,0.90
4856.00,0.90
4855.00,0.90
4854.00,0.91
4853.00,0.91
4852.00,0.91
4851.00,0.91
4850.00,0.91
4849.00,0.91
4848.00,0.91
4847.00,0.91
4846.00,0.91
4845.00,0.92
4844.00,0.92
4843.00,0.92
4842.00,0.92
4841.00,0.92
4840.00,0.92
4839.00,0.92
4838.00,0.92
4837.00,0.92
4836.00,0.92
4835.00,0.92
4834.00,0.93
4833.00,0.93
4832.00,0.93
4831.00,0.93
4830.00,0.93
4829.00,0.93
4828.00,0.93
4827.00,0.94
4826.00,0.94
4825.00,0.94
4824.00,0.94
4823.00,0.95
4822.00,0.95
4821.00,0.95
4820.00,0.95
4819.00,0.95
4818.00,0.96
4817.00,0.96
4816.00,0.96
4815.00,0.96
4814.00,0.97
4813.00,0.97
4812.00,0.97
4811.00,0.97
4810.00,0.97
4809.00,0.97
4808.00,0.98
4807.00,0.98
4806.00,0.98
4805.00,0.98
4804.00,0.98
4803.00,0.98
4802.00,0.98
4801.00,0.98
4800.00,0.98
4799.00,0.98
4798.00,0.98
4797.00,0.98
4796.00,0.98
4795.00,0.98
4794.00,0.98
4793.00,0.98
4792.00,0.97
4791.00,0.97
4790.00,0.97
4789.00,0.97
4788.00,0.97
4787.00,0.98
4786.00,0.98
4785.00,0.98
4784.00,0.98
4783.00,0.98
4782.00,0.98
4781.00,0.97
4780.00,0.97
4779.00,0.97
4778.00,0.98
4777.00,0.98
4776.00,0.98
4775.00,0.98
4774.00,0.98
4773.00,0.98
4772.00,0.98
4771.00,0.98
4770.00,0.98
4769.00,0.99
4768.00,0.99
4767.00,0.99
4766.00,0.99
4765.00,0.99
4764.00,0.99
4763.00,0.99
4762.00,0.99
4761.00,1.00
4760.00,1.00
4759.00,1.00
4758.00,1.00
4757.00,1.00
4756.00,1.00
4755.00,1.00
4754.00,1.00
4753.00,1.00
4752.00,1.00
4751.00,1.00
4750.00,1.01
4749.00,1.01
4748.00,1.01
4747.00,1.01
4746.00,1.01
4745.00,1.01
4744.00,1.01
4743.00,1.01
4742.00,1.01
4741.00,1.02
4740.00,1.02
4739.00,1.02
4738.00,1.02
4737.00,1.02
4736.00,1.02
4735.00,1.03
4734.00,1.03
4733.00,1.03
4732.00,1.04
4731.00,1.04
4730.00,1.04
4729.00,1.05
4728.00,1.05
4727.00,1.05
4726.00,1.05
4725.00,1.05
4724.00,1.06
4723.00,1.06
4722.00,1.06
4721.00,1.06
4720.00,1.06
4719.00,1.06
4718.00,1.06
4717.00,1.06
4716.00,1.07
4715.00,1.07
4714.00,1.07
4713.00,1.07
4712.00,1.07
4711.00,1.07
4710.00,1.07
4709.00,1.07
4708.00,1.06
4707.00,1.06
4706.00,1.06
4705.00,1.06
4704.00,1.06
4703.00,1.06
4702.00,1.06
4701.00,1.06
4700.00,1.06
4699.00,1.06
4698.00,1.06
4697.00,1.06
4696.00,1.06
4695.00,1.06
4694.00,1.06
4693.00,1.06
4692.00,1.06
4691.00,1.06
4690.00,1.06
4689.00,1.06
4688.00,1.06
4687.00,1.06
4686.00,1.06
4685.00,1.06
4684.00,1.06
4683.00,1.06
4682.00,1.06
4681.00,1.06
4680.00,1.06
4679.00,1.06
4678.00,1.06
4677.00,1.06
4676.00,1.06
4675.00,1.06
4674.00,1.06
4673.00,1.06
4672.00,1.05
4671.00,1.05
4670.00,1.05
4669.00,1.05
4668.00,1.05
4667.00,1.05
4666.00,1.05
4665.00,1.05
4664.00,1.05
4663.00,1.05
4662.00,1.05
4661.00,1.05
4660.00,1.05
4659.00,1.05
4658.00,1.05
4657.00,1.05
4656.00,1.05
4655.00,1.05
4654.00,1.05
4653.00,1.05
4652.00,1.05
4651.00,1.05
4650.00,1.06
4649.00,1.06
4648.00,1.06
4647.00,1.06
4646.00,1.06
4645.00,1.06
4644.00,1.06
4643.00,1.07
4642.00,1.07
4641.00,1.07
4640.00,1.07
4639.00,1.08
4638.00,1.08
4637.00,1.08
4636.00,1.08
4635.00,1.08
4634.00,1.08
4633.00,1.09
4632.00,1.09
4631.00,1.09
4630.00,1.09
4629.00,1.09
4628.00,1.10
4627.00,1.10
4626.00,1.10
4625.00,1.10
4624.00,1.11
4623.00,1.11
4622.00,1.12
4621.00,1.12
4620.00,1.12
4619.00,1.13
4618.00,1.13
4617.00,1.13
4616.00,1.14
4615.00,1.14
4614.00,1.14
4613.00,1.14
4612.00,1.14
4611.00,1.14
4610.00,1.14
4609.00,1.15
4608.00,1.15
4607.00,1.15
4606.00,1.15
4605.00,1.15
4604.00,1.15
4603.00,1.15
4602.00,1.15
4601.00,1.15
4600.00,1.15
4599.00,1.15
4598.00,1.15
4597.00,1.15
4596.00,1.15
4595.00,1.14
4594.00,1.14
4593.00,1.14
4592.00,1.14
4591.00,1.14
4590.00,1.14
4589.00,1.14
4588.00,1.14
4587.00,1.15
4586.00,1.15
4585.00,1.15
4584.00,1.15
4583.00,1.16
4582.00,1.16
4581.00,1.16
4580.00,1.16
4579.00,1.17
4578.00,1.17
4577.00,1.17
4576.00,1.18
4575.00,1.18
4574.00,1.18
4573.00,1.18
4572.00,1.19
4571.00,1.19
4570.00,1.19
4569.00,1.19
4568.00,1.19
4567.00,1.20
4566.00,1.20
4565.00,1.20
4564.00,1.20
4563.00,1.20
4562.00,1.20
4561.00,1.20
4560.00,1.20
4559.00,1.20
4558.00,1.20
4557.00,1.20
4556.00,1.20
4555.00,1.20
4554.00,1.19
4553.00,1.19
4552.00,1.19
4551.00,1.19
4550.00,1.19
4549.00,1.19
4548.00,1.19
4547.00,1.18
4546.00,1.18
4545.00,1.18
4544.00,1.18
4543.00,1.18
4542.00,1.17
4541.00,1.17
4540.00,1.17
4539.00,1.17
4538.00,1.16
4537.00,1.16
4536.00,1.16
4535.00,1.16
4534.00,1.16
4533.00,1.15
4532.00,1.15
4531.00,1.15
4530.00,1.15
4529.00,1.15
4528.00,1.15
4527.00,1.15
4526.00,1.15
4525.00,1.15
4524.00,1.15
4523.00,1.15
4522.00,1.15
4521.00,1.15
4520.00,1.15
4519.00,1.15
4518.00,1.15
4517.00,1.15
4516.00,1.15
4515.00,1.15
4514.00,1.15
4513.00,1.15
4512.00,1.15
4511.00,1.16
4510.00,1.16
4509.00,1.16
4508.00,1.16
4507.00,1.16
4506.00,1.16
4505.00,1.16
4504.00,1.16
4503.00,1.16
4502.00,1.16
4501.00,1.16
4500.00,1.16
4499.00,1.16
4498.00,1.17
4497.00,1.17
4496.00,1.17
4495.00,1.17
4494.00,1.17
4493.00,1.17
4492.00,1.18
4491.00,1.18
4490.00,1.18
4489.00,1.18
4488.00,1.18
4487.00,1.18
4486.00,1.18
4485.00,1.19
4484.00,1.19
4483.00,1.19
4482.00,1.19
4481.00,1.19
4480.00,1.19
4479.00,1.19
4478.00,1.19
4477.00,1.19
4476.00,1.19
4475.00,1.19
4474.00,1.19
4473.00,1.19
4472.00,1.19
4471.00,1.19
4470.00,1.18
4469.00,1.18
4468.00,1.18
4467.00,1.18
4466.00,1.17
4465.00,1.17
4464.00,1.16
4463.00,1.16
4462.00,1.16
4461.00,1.15
4460.00,1.15
4459.00,1.14
4458.00,1.14
4457.00,1.13
4456.00,1.13
4455.00,1.12
4454.00,1.12
4453.00,1.11
4452.00,1.11
4451.00,1.10
4450.00,1.10
4449.00,1.10
4448.00,1.09
4447.00,1.09
4446.00,1.09
4445.00,1.08
4444.00,1.08
4443.00,1.08
4442.00,1.08
4441.00,1.07
4440.00,1.07
4439.00,1.07
4438.00,1.07
4437.00,1.07
4436.00,1.07
4435.00,1.07
4434.00,1.07
4433.00,1.07
4432.00,1.07
4431.00,1.07
4430.00,1.07
4429.00,1.07
4428.00,1.08
4427.00,1.08
4426.00,1.08
4425.00,1.08
4424.00,1.08
4423.00,1.08
4422.00,1.08
4421.00,1.08
4420.00,1.08
4419.00,1.08
4418.00,1.08
4417.00,1.08
4416.00,1.08
4415.00,1.08
4414.00,1.08
4413.00,1.08
4412.00,1.08
4411.00,1.08
4410.00,1.08
4409.00,1.08
4408.00,1.08
4407.00,1.08
4406.00,1.07
4405.00,1.07
4404.00,1.07
4403.00,1.06
4402.00,1.06
4401.00,1.06
4400.00,1.05
4399.00,1.05
4398.00,1.05
4397.00,1.05
4396.00,1.05
4395.00,1.05
4394.00,1.05
4393.00,1.05
4392.00,1.05
4391.00,1.05
4390.00,1.05
4389.00,1.05
4388.00,1.05
4387.00,1.05
4386.00,1.05
4385.00,1.05
4384.00,1.05
4383.00,1.06
4382.00,1.06
4381.00,1.06
4380.00,1.06
4379.00,1.06
4378.00,1.07
4377.00,1.07
4376.00,1.07
4375.00,1.08
4374.00,1.08
4373.00,1.08
4372.00,1.08
4371.00,1.08
4370.00,1.08
4369.00,1.08
4368.00,1.09
4367.00,1.09
4366.00,1.09
4365.00,1.09
4364.00,1.09
4363.00,1.09
4362.00,1.09
4361.00,1.09
4360.00,1.09
4359.00,1.09
4358.00,1.09
4357.00,1.09
4356.00,1.09
4355.00,1.09
4354.00,1.09
4353.00,1.09
4352.00,1.09
4351.00,1.09
4350.00,1.09
4349.00,1.09
4348.00,1.09
4347.00,1.09
4346.00,1.09
4345.00,1.09
4344.00,1.09
4343.00,1.09
4342.00,1.09
4341.00,1.10
4340.00,1.10
4339.00,1.10
4338.00,1.10
4337.00,1.10
4336.00,1.11
4335.00,1.11
4334.00,1.11
4333.00,1.12
4332.00,1.12
4331.00,1.12
4330.00,1.12
4329.00,1.13
4328.00,1.13
4327.00,1.13
4326.00,1.13
4325.00,1.13
4324.00,1.14
4323.00,1.14
4322.00,1.14
4321.00,1.14
4320.00,1.14
4319.00,1.15
4318.00,1.15
4317.00,1.15
4316.00,1.15
4315.00,1.15
4314.00,1.15
4313.00,1.15
4312.00,1.15
4311.00,1.15
4310.00,1.15
4309.00,1.16
4308.00,1.16
4307.00,1.16
4306.00,1.16
4305.00,1.16
4304.00,1.16
4303.00,1.16
4302.00,1.16
4301.00,1.16
4300.00,1.16
4299.00,1.16
4298.00,1.16
4297.00,1.16
4296.00,1.16
4295.00,1.16
4294.00,1.16
4293.00,1.17
4292.00,1.17
4291.00,1.17
4290.00,1.17
4289.00,1.17
4288.00,1.18
4287.00,1.18
4286.00,1.18
4285.00,1.19
4284.00,1.19
4283.00,1.19
4282.00,1.20
4281.00,1.20
4280.00,1.20
4279.00,1.20
4278.00,1.20
4277.00,1.21
4276.00,1.21
4275.00,1.21
4274.00,1.22
4273.00,1.22
4272.00,1.22
4271.00,1.23
4270.00,1.23
4269.00,1.23
4268.00,1.23
4267.00,1.24
4266.00,1.24
4265.00,1.24
4264.00,1.24
4263.00,1.24
4262.00,1.24
4261.00,1.24
4260.00,1.25
4259.00,1.24
4258.00,1.24
4257.00,1.24
4256.00,1.24
4255.00,1.24
4254.00,1.24
4253.00,1.24
4252.00,1.24
4251.00,1.24
4250.00,1.24
4249.00,1.24
4248.00,1.23
4247.00,1.23
4246.00,1.23
4245.00,1.23
4244.00,1.23
4243.00,1.22
4242.00,1.22
4241.00,1.22
4240.00,1.22
4239.00,1.21
4238.00,1.21
4237.00,1.21
4236.00,1.21
4235.00,1.20
4234.00,1.20
4233.00,1.20
4232.00,1.20
4231.00,1.19
4230.00,1.19
4229.00,1.19
4228.00,1.19
4227.00,1.19
4226.00,1.19
4225.00,1.19
4224.00,1.18
4223.00,1.18
4222.00,1.18
4221.00,1.18
4220.00,1.19
4219.00,1.19
4218.00,1.19
4217.00,1.19
4216.00,1.19
4215.00,1.19
4214.00,1.20
4213.00,1.20
4212.00,1.20
4211.00,1.20
4210.00,1.20
4209.00,1.21
4208.00,1.21
4207.00,1.21
4206.00,1.21
4205.00,1.22
4204.00,1.22
4203.00,1.22
4202.00,1.23
4201.00,1.23
4200.00,1.23
4199.00,1.23
4198.00,1.23
4197.00,1.24
4196.00,1.24
4195.00,1.24
4194.00,1.24
4193.00,1.24
4192.00,1.23
4191.00,1.23
4190.00,1.23
4189.00,1.23
4188.00,1.23
4187.00,1.22
4186.00,1.22
4185.00,1.22
4184.00,1.22
4183.00,1.21
4182.00,1.21
4181.00,1.21
4180.00,1.21
4179.00,1.21
4178.00,1.20
4177.00,1.20
4176.00,1.20
4175.00,1.19
4174.00,1.19
4173.00,1.19
4172.00,1.18
4171.00,1.18
4170.00,1.18
4169.00,1.18
4168.00,1.18
4167.00,1.18
4166.00,1.18
4165.00,1.18
4164.00,1.18
4163.00,1.18
4162.00,1.18
4161.00,1.18
4160.00,1.18
4159.00,1.18
4158.00,1.18
4157.00,1.19
4156.00,1.19
4155.00,1.19
4154.00,1.19
4153.00,1.19
4152.00,1.19
4151.00,1.20
4150.00,1.20
4149.00,1.20
4148.00,1.20
4147.00,1.20
4146.00,1.21
4145.00,1.21
4144.00,1.21
4143.00,1.21
4142.00,1.21
4141.00,1.22
4140.00,1.22
4139.00,1.22
4138.00,1.22
4137.00,1.22
4136.00,1.22
4135.00,1.22
4134.00,1.22
4133.00,1.22
4132.00,1.22
4131.00,1.22
4130.00,1.22
4129.00,1.22
4128.00,1.22
4127.00,1.22
4126.00,1.22
4125.00,1.22
4124.00,1.22
4123.00,1.22
4122.00,1.22
4121.00,1.22
4120.00,1.22
4119.00,1.22
4118.00,1.22
4117.00,1.22
4116.00,1.22
4115.00,1.22
4114.00,1.22
4113.00,1.22
4112.00,1.23
4111.00,1.23
4110.00,1.23
4109.00,1.23
4108.00,1.23
4107.00,1.23
4106.00,1.23
4105.00,1.23
4104.00,1.23
4103.00,1.22
4102.00,1.22
4101.00,1.22
4100.00,1.22
4099.00,1.22
4098.00,1.22
4097.00,1.22
4096.00,1.22
4095.00,1.22
4094.00,1.22
4093.00,1.22
4092.00,1.22
4091.00,1.21
4090.00,1.21
4089.00,1.21
4088.00,1.21
4087.00,1.21
4086.00,1.21
4085.00,1.22
4084.00,1.22
4083.00,1.22
4082.00,1.22
4081.00,1.22
4080.00,1.22
4079.00,1.22
4078.00,1.22
4077.00,1.23
4076.00,1.23
4075.00,1.23
4074.00,1.23
4073.00,1.24
4072.00,1.24
4071.00,1.24
4070.00,1.25
4069.00,1.25
4068.00,1.25
4067.00,1.25
4066.00,1.26
4065.00,1.26
4064.00,1.26
4063.00,1.27
4062.00,1.27
4061.00,1.27
4060.00,1.27
4059.00,1.27
4058.00,1.27
4057.00,1.28
4056.00,1.28
4055.00,1.28
4054.00,1.28
4053.00,1.28
4052.00,1.29
4051.00,1.29
4050.00,1.29
4049.00,1.29
4048.00,1.30
4047.00,1.30
4046.00,1.30
4045.00,1.30
4044.00,1.30
4043.00,1.30
4042.00,1.30
4041.00,1.30
4040.00,1.30
4039.00,1.30
4038.00,1.30
4037.00,1.30
4036.00,1.30
4035.00,1.29
4034.00,1.29
4033.00,1.29
4032.00,1.28
4031.00,1.28
4030.00,1.27
4029.00,1.27
4028.00,1.26
4027.00,1.26
4026.00,1.25
4025.00,1.25
4024.00,1.25
4023.00,1.24
4022.00,1.24
4021.00,1.24
4020.00,1.24
4019.00,1.25
4018.00,1.25
4017.00,1.26
4016.00,1.26
4015.00,1.27
4014.00,1.28
4013.00,1.29
4012.00,1.31
4011.00,1.32
4010.00,1.34
4009.00,1.36
4008.00,1.38
4007.00,1.40
4006.00,1.42
4005.00,1.45
4004.00,1.47
4003.00,1.50
4002.00,1.53
4001.00,1.56
4000.00,1.59
