创建为新数据集,样品 1268 用户 Administrator 日期 星期六, 八月 17 2019
cm-1,%T
10000.00,1.12
9998.00,1.12
9996.00,1.12
9994.00,1.11
9992.00,1.11
9990.00,1.11
9988.00,1.11
9986.00,1.11
9984.00,1.11
9982.00,1.11
9980.00,1.11
9978.00,1.11
9976.00,1.11
9974.00,1.11
9972.00,1.11
9970.00,1.12
9968.00,1.12
9966.00,1.12
9964.00,1.12
9962.00,1.12
9960.00,1.12
9958.00,1.12
9956.00,1.13
9954.00,1.13
9952.00,1.13
9950.00,1.13
9948.00,1.13
9946.00,1.13
9944.00,1.13
9942.00,1.13
9940.00,1.13
9938.00,1.13
9936.00,1.13
9934.00,1.13
9932.00,1.12
9930.00,1.12
9928.00,1.12
9926.00,1.12
9924.00,1.12
9922.00,1.12
9920.00,1.12
9918.00,1.12
9916.00,1.12
9914.00,1.12
9912.00,1.12
9910.00,1.12
9908.00,1.12
9906.00,1.12
9904.00,1.12
9902.00,1.12
9900.00,1.12
9898.00,1.12
9896.00,1.12
9894.00,1.12
9892.00,1.12
9890.00,1.11
9888.00,1.11
9886.00,1.11
9884.00,1.11
9882.00,1.11
9880.00,1.11
9878.00,1.11
9876.00,1.11
9874.00,1.10
9872.00,1.10
9870.00,1.10
9868.00,1.10
9866.00,1.10
9864.00,1.10
9862.00,1.10
9860.00,1.10
9858.00,1.10
9856.00,1.10
9854.00,1.10
9852.00,1.10
9850.00,1.09
9848.00,1.09
9846.00,1.09
9844.00,1.09
9842.00,1.09
9840.00,1.09
9838.00,1.09
9836.00,1.09
9834.00,1.09
9832.00,1.09
9830.00,1.09
9828.00,1.09
9826.00,1.09
9824.00,1.09
9822.00,1.09
9820.00,1.09
9818.00,1.09
9816.00,1.09
9814.00,1.09
9812.00,1.09
9810.00,1.09
9808.00,1.09
9806.00,1.09
9804.00,1.09
9802.00,1.09
9800.00,1.09
9798.00,1.09
9796.00,1.09
9794.00,1.10
9792.00,1.10
9790.00,1.10
9788.00,1.10
9786.00,1.10
9784.00,1.10
9782.00,1.10
9780.00,1.10
9778.00,1.11
9776.00,1.11
9774.00,1.11
9772.00,1.11
9770.00,1.11
9768.00,1.11
9766.00,1.11
9764.00,1.11
9762.00,1.11
9760.00,1.10
9758.00,1.10
9756.00,1.10
9754.00,1.10
9752.00,1.10
9750.00,1.10
9748.00,1.10
9746.00,1.10
9744.00,1.10
9742.00,1.10
9740.00,1.10
9738.00,1.10
9736.00,1.10
9734.00,1.10
9732.00,1.10
9730.00,1.10
9728.00,1.10
9726.00,1.10
9724.00,1.10
9722.00,1.10
9720.00,1.10
9718.00,1.10
9716.00,1.10
9714.00,1.10
9712.00,1.10
9710.00,1.10
9708.00,1.10
9706.00,1.10
9704.00,1.10
9702.00,1.10
9700.00,1.10
9698.00,1.10
9696.00,1.09
9694.00,1.09
9692.00,1.09
9690.00,1.09
9688.00,1.09
9686.00,1.09
9684.00,1.08
9682.00,1.08
9680.00,1.08
9678.00,1.08
9676.00,1.08
9674.00,1.08
9672.00,1.08
9670.00,1.08
9668.00,1.08
9666.00,1.08
9664.00,1.08
9662.00,1.08
9660.00,1.08
9658.00,1.09
9656.00,1.09
9654.00,1.09
9652.00,1.09
9650.00,1.09
9648.00,1.09
9646.00,1.09
9644.00,1.09
9642.00,1.09
9640.00,1.09
9638.00,1.09
9636.00,1.09
9634.00,1.09
9632.00,1.09
9630.00,1.08
9628.00,1.08
9626.00,1.08
9624.00,1.08
9622.00,1.08
9620.00,1.08
9618.00,1.08
9616.00,1.08
9614.00,1.08
9612.00,1.08
9610.00,1.08
9608.00,1.08
9606.00,1.08
9604.00,1.08
9602.00,1.08
9600.00,1.08
9598.00,1.08
9596.00,1.08
9594.00,1.08
9592.00,1.08
9590.00,1.08
9588.00,1.08
9586.00,1.08
9584.00,1.08
9582.00,1.08
9580.00,1.08
9578.00,1.09
9576.00,1.09
9574.00,1.09
9572.00,1.09
9570.00,1.09
9568.00,1.09
9566.00,1.10
9564.00,1.10
9562.00,1.10
9560.00,1.10
9558.00,1.10
9556.00,1.10
9554.00,1.10
9552.00,1.11
9550.00,1.11
9548.00,1.11
9546.00,1.11
9544.00,1.11
9542.00,1.11
9540.00,1.11
9538.00,1.10
9536.00,1.10
9534.00,1.10
9532.00,1.10
9530.00,1.10
9528.00,1.10
9526.00,1.10
9524.00,1.09
9522.00,1.09
9520.00,1.09
9518.00,1.09
9516.00,1.09
9514.00,1.09
9512.00,1.09
9510.00,1.09
9508.00,1.09
9506.00,1.09
9504.00,1.09
9502.00,1.09
9500.00,1.09
9498.00,1.09
9496.00,1.09
9494.00,1.09
9492.00,1.09
9490.00,1.09
9488.00,1.09
9486.00,1.09
9484.00,1.09
9482.00,1.09
9480.00,1.09
9478.00,1.09
9476.00,1.09
9474.00,1.09
9472.00,1.09
9470.00,1.09
9468.00,1.09
9466.00,1.09
9464.00,1.09
9462.00,1.09
9460.00,1.09
9458.00,1.09
9456.00,1.09
9454.00,1.09
9452.00,1.09
9450.00,1.09
9448.00,1.09
9446.00,1.09
9444.00,1.09
9442.00,1.09
9440.00,1.09
9438.00,1.08
9436.00,1.08
9434.00,1.08
9432.00,1.08
9430.00,1.08
9428.00,1.08
9426.00,1.08
9424.00,1.08
9422.00,1.08
9420.00,1.08
9418.00,1.08
9416.00,1.08
9414.00,1.08
9412.00,1.08
9410.00,1.08
9408.00,1.08
9406.00,1.08
9404.00,1.08
9402.00,1.08
9400.00,1.09
9398.00,1.09
9396.00,1.09
9394.00,1.09
9392.00,1.09
9390.00,1.09
9388.00,1.09
9386.00,1.09
9384.00,1.09
9382.00,1.09
9380.00,1.09
9378.00,1.09
9376.00,1.09
9374.00,1.09
9372.00,1.09
9370.00,1.09
9368.00,1.09
9366.00,1.09
9364.00,1.09
9362.00,1.09
9360.00,1.09
9358.00,1.09
9356.00,1.09
9354.00,1.09
9352.00,1.09
9350.00,1.09
9348.00,1.09
9346.00,1.09
9344.00,1.09
9342.00,1.09
9340.00,1.10
9338.00,1.10
9336.00,1.10
9334.00,1.10
9332.00,1.10
9330.00,1.10
9328.00,1.10
9326.00,1.10
9324.00,1.10
9322.00,1.10
9320.00,1.10
9318.00,1.10
9316.00,1.10
9314.00,1.10
9312.00,1.10
9310.00,1.10
9308.00,1.09
9306.00,1.09
9304.00,1.09
9302.00,1.09
9300.00,1.09
9298.00,1.09
9296.00,1.09
9294.00,1.09
9292.00,1.09
9290.00,1.09
9288.00,1.09
9286.00,1.09
9284.00,1.09
9282.00,1.09
9280.00,1.09
9278.00,1.09
9276.00,1.09
9274.00,1.09
9272.00,1.09
9270.00,1.09
9268.00,1.09
9266.00,1.09
9264.00,1.09
9262.00,1.09
9260.00,1.09
9258.00,1.09
9256.00,1.09
9254.00,1.09
9252.00,1.09
9250.00,1.09
9248.00,1.09
9246.00,1.09
9244.00,1.09
9242.00,1.09
9240.00,1.09
9238.00,1.09
9236.00,1.09
9234.00,1.09
9232.00,1.09
9230.00,1.09
9228.00,1.09
9226.00,1.09
9224.00,1.09
9222.00,1.09
9220.00,1.08
9218.00,1.08
9216.00,1.08
9214.00,1.08
9212.00,1.08
9210.00,1.08
9208.00,1.08
9206.00,1.08
9204.00,1.08
9202.00,1.08
9200.00,1.08
9198.00,1.08
9196.00,1.08
9194.00,1.08
9192.00,1.08
9190.00,1.08
9188.00,1.08
9186.00,1.08
9184.00,1.08
9182.00,1.08
9180.00,1.08
9178.00,1.08
9176.00,1.08
9174.00,1.08
9172.00,1.08
9170.00,1.08
9168.00,1.08
9166.00,1.08
9164.00,1.08
9162.00,1.08
9160.00,1.09
9158.00,1.09
9156.00,1.09
9154.00,1.09
9152.00,1.09
9150.00,1.09
9148.00,1.09
9146.00,1.09
9144.00,1.09
9142.00,1.09
9140.00,1.10
9138.00,1.10
9136.00,1.10
9134.00,1.10
9132.00,1.10
9130.00,1.10
9128.00,1.10
9126.00,1.10
9124.00,1.10
9122.00,1.09
9120.00,1.09
9118.00,1.09
9116.00,1.09
9114.00,1.09
9112.00,1.09
9110.00,1.09
9108.00,1.09
9106.00,1.09
9104.00,1.09
9102.00,1.09
9100.00,1.09
9098.00,1.09
9096.00,1.09
9094.00,1.09
9092.00,1.09
9090.00,1.09
9088.00,1.09
9086.00,1.09
9084.00,1.09
9082.00,1.09
9080.00,1.09
9078.00,1.09
9076.00,1.09
9074.00,1.09
9072.00,1.09
9070.00,1.09
9068.00,1.09
9066.00,1.09
9064.00,1.09
9062.00,1.09
9060.00,1.10
9058.00,1.10
9056.00,1.10
9054.00,1.10
9052.00,1.10
9050.00,1.10
9048.00,1.10
9046.00,1.10
9044.00,1.09
9042.00,1.09
9040.00,1.09
9038.00,1.09
9036.00,1.09
9034.00,1.09
9032.00,1.09
9030.00,1.09
9028.00,1.09
9026.00,1.09
9024.00,1.09
9022.00,1.09
9020.00,1.09
9018.00,1.09
9016.00,1.09
9014.00,1.09
9012.00,1.09
9010.00,1.09
9008.00,1.09
9006.00,1.09
9004.00,1.09
9002.00,1.09
9000.00,1.09
8998.00,1.09
8996.00,1.09
8994.00,1.09
8992.00,1.09
8990.00,1.09
8988.00,1.09
8986.00,1.09
8984.00,1.09
8982.00,1.08
8980.00,1.08
8978.00,1.08
8976.00,1.08
8974.00,1.08
8972.00,1.08
8970.00,1.08
8968.00,1.08
8966.00,1.08
8964.00,1.08
8962.00,1.09
8960.00,1.09
8958.00,1.09
8956.00,1.09
8954.00,1.09
8952.00,1.09
8950.00,1.09
8948.00,1.09
8946.00,1.09
8944.00,1.09
8942.00,1.09
8940.00,1.09
8938.00,1.09
8936.00,1.09
8934.00,1.09
8932.00,1.09
8930.00,1.09
8928.00,1.09
8926.00,1.09
8924.00,1.09
8922.00,1.10
8920.00,1.10
8918.00,1.10
8916.00,1.10
8914.00,1.10
8912.00,1.10
8910.00,1.10
8908.00,1.10
8906.00,1.10
8904.00,1.09
8902.00,1.09
8900.00,1.09
8898.00,1.09
8896.00,1.09
8894.00,1.09
8892.00,1.09
8890.00,1.09
8888.00,1.09
8886.00,1.08
8884.00,1.08
8882.00,1.08
8880.00,1.08
8878.00,1.08
8876.00,1.08
8874.00,1.08
8872.00,1.08
8870.00,1.08
8868.00,1.08
8866.00,1.08
8864.00,1.08
8862.00,1.08
8860.00,1.09
8858.00,1.09
8856.00,1.09
8854.00,1.09
8852.00,1.09
8850.00,1.09
8848.00,1.09
8846.00,1.09
8844.00,1.09
8842.00,1.09
8840.00,1.09
8838.00,1.09
8836.00,1.09
8834.00,1.09
8832.00,1.09
8830.00,1.09
8828.00,1.09
8826.00,1.09
8824.00,1.09
8822.00,1.09
8820.00,1.09
8818.00,1.09
8816.00,1.09
8814.00,1.09
8812.00,1.09
8810.00,1.09
8808.00,1.09
8806.00,1.09
8804.00,1.09
8802.00,1.09
8800.00,1.09
8798.00,1.09
8796.00,1.09
8794.00,1.09
8792.00,1.09
8790.00,1.09
8788.00,1.09
8786.00,1.09
8784.00,1.09
8782.00,1.09
8780.00,1.09
8778.00,1.09
8776.00,1.09
8774.00,1.09
8772.00,1.09
8770.00,1.09
8768.00,1.09
8766.00,1.09
8764.00,1.09
8762.00,1.09
8760.00,1.09
8758.00,1.09
8756.00,1.08
8754.00,1.08
8752.00,1.08
8750.00,1.08
8748.00,1.08
8746.00,1.08
8744.00,1.08
8742.00,1.08
8740.00,1.08
8738.00,1.08
8736.00,1.08
8734.00,1.08
8732.00,1.08
8730.00,1.08
8728.00,1.08
8726.00,1.08
8724.00,1.08
8722.00,1.08
8720.00,1.08
8718.00,1.08
8716.00,1.08
8714.00,1.08
8712.00,1.09
8710.00,1.09
8708.00,1.09
8706.00,1.09
8704.00,1.09
8702.00,1.09
8700.00,1.09
8698.00,1.09
8696.00,1.09
8694.00,1.09
8692.00,1.09
8690.00,1.09
8688.00,1.09
8686.00,1.09
8684.00,1.09
8682.00,1.09
8680.00,1.09
8678.00,1.09
8676.00,1.09
8674.00,1.09
8672.00,1.09
8670.00,1.09
8668.00,1.09
8666.00,1.09
8664.00,1.09
8662.00,1.09
8660.00,1.09
8658.00,1.09
8656.00,1.09
8654.00,1.09
8652.00,1.09
8650.00,1.09
8648.00,1.09
8646.00,1.09
8644.00,1.09
8642.00,1.09
8640.00,1.09
8638.00,1.09
8636.00,1.09
8634.00,1.09
8632.00,1.09
8630.00,1.09
8628.00,1.09
8626.00,1.09
8624.00,1.09
8622.00,1.09
8620.00,1.09
8618.00,1.09
8616.00,1.09
8614.00,1.09
8612.00,1.08
8610.00,1.08
8608.00,1.08
8606.00,1.08
8604.00,1.08
8602.00,1.08
8600.00,1.08
8598.00,1.08
8596.00,1.08
8594.00,1.08
8592.00,1.08
8590.00,1.07
8588.00,1.07
8586.00,1.07
8584.00,1.07
8582.00,1.07
8580.00,1.07
8578.00,1.07
8576.00,1.07
8574.00,1.07
8572.00,1.07
8570.00,1.07
8568.00,1.07
8566.00,1.07
8564.00,1.07
8562.00,1.07
8560.00,1.07
8558.00,1.07
8556.00,1.08
8554.00,1.08
8552.00,1.08
8550.00,1.08
8548.00,1.08
8546.00,1.08
8544.00,1.08
8542.00,1.08
8540.00,1.08
8538.00,1.08
8536.00,1.08
8534.00,1.08
8532.00,1.08
8530.00,1.08
8528.00,1.08
8526.00,1.08
8524.00,1.08
8522.00,1.08
8520.00,1.08
8518.00,1.08
8516.00,1.08
8514.00,1.08
8512.00,1.08
8510.00,1.08
8508.00,1.08
8506.00,1.08
8504.00,1.08
8502.00,1.08
8500.00,1.08
8498.00,1.08
8496.00,1.08
8494.00,1.08
8492.00,1.08
8490.00,1.08
8488.00,1.08
8486.00,1.08
8484.00,1.08
8482.00,1.08
8480.00,1.08
8478.00,1.07
8476.00,1.07
8474.00,1.07
8472.00,1.07
8470.00,1.07
8468.00,1.07
8466.00,1.07
8464.00,1.07
8462.00,1.07
8460.00,1.07
8458.00,1.07
8456.00,1.07
8454.00,1.07
8452.00,1.07
8450.00,1.07
8448.00,1.07
8446.00,1.07
8444.00,1.07
8442.00,1.07
8440.00,1.07
8438.00,1.07
8436.00,1.07
8434.00,1.07
8432.00,1.07
8430.00,1.07
8428.00,1.07
8426.00,1.07
8424.00,1.07
8422.00,1.07
8420.00,1.07
8418.00,1.07
8416.00,1.07
8414.00,1.07
8412.00,1.07
8410.00,1.07
8408.00,1.07
8406.00,1.07
8404.00,1.07
8402.00,1.07
8400.00,1.07
8398.00,1.07
8396.00,1.07
8394.00,1.07
8392.00,1.07
8390.00,1.07
8388.00,1.07
8386.00,1.08
8384.00,1.08
8382.00,1.08
8380.00,1.08
8378.00,1.08
8376.00,1.08
8374.00,1.08
8372.00,1.08
8370.00,1.08
8368.00,1.08
8366.00,1.08
8364.00,1.08
8362.00,1.08
8360.00,1.08
8358.00,1.08
8356.00,1.08
8354.00,1.08
8352.00,1.08
8350.00,1.08
8348.00,1.08
8346.00,1.08
8344.00,1.08
8342.00,1.08
8340.00,1.08
8338.00,1.08
8336.00,1.08
8334.00,1.08
8332.00,1.08
8330.00,1.08
8328.00,1.08
8326.00,1.08
8324.00,1.08
8322.00,1.08
8320.00,1.08
8318.00,1.08
8316.00,1.08
8314.00,1.08
8312.00,1.08
8310.00,1.08
8308.00,1.08
8306.00,1.08
8304.00,1.08
8302.00,1.08
8300.00,1.08
8298.00,1.08
8296.00,1.08
8294.00,1.08
8292.00,1.08
8290.00,1.08
8288.00,1.08
8286.00,1.08
8284.00,1.08
8282.00,1.08
8280.00,1.08
8278.00,1.08
8276.00,1.08
8274.00,1.08
8272.00,1.08
8270.00,1.08
8268.00,1.08
8266.00,1.08
8264.00,1.08
8262.00,1.08
8260.00,1.08
8258.00,1.08
8256.00,1.08
8254.00,1.08
8252.00,1.08
8250.00,1.08
8248.00,1.08
8246.00,1.08
8244.00,1.08
8242.00,1.08
8240.00,1.08
8238.00,1.08
8236.00,1.08
8234.00,1.08
8232.00,1.08
8230.00,1.08
8228.00,1.08
8226.00,1.08
8224.00,1.08
8222.00,1.08
8220.00,1.08
8218.00,1.08
8216.00,1.08
8214.00,1.08
8212.00,1.08
8210.00,1.08
8208.00,1.08
8206.00,1.08
8204.00,1.08
8202.00,1.08
8200.00,1.08
8198.00,1.08
8196.00,1.08
8194.00,1.08
8192.00,1.08
8190.00,1.08
8188.00,1.08
8186.00,1.08
8184.00,1.08
8182.00,1.08
8180.00,1.08
8178.00,1.08
8176.00,1.08
8174.00,1.09
8172.00,1.09
8170.00,1.09
8168.00,1.09
8166.00,1.09
8164.00,1.09
8162.00,1.09
8160.00,1.09
8158.00,1.09
8156.00,1.09
8154.00,1.09
8152.00,1.09
8150.00,1.09
8148.00,1.09
8146.00,1.09
8144.00,1.09
8142.00,1.09
8140.00,1.09
8138.00,1.09
8136.00,1.09
8134.00,1.09
8132.00,1.09
8130.00,1.09
8128.00,1.09
8126.00,1.09
8124.00,1.09
8122.00,1.09
8120.00,1.09
8118.00,1.09
8116.00,1.09
8114.00,1.09
8112.00,1.09
8110.00,1.09
8108.00,1.09
8106.00,1.09
8104.00,1.09
8102.00,1.09
8100.00,1.09
8098.00,1.09
8096.00,1.09
8094.00,1.09
8092.00,1.09
8090.00,1.09
8088.00,1.09
8086.00,1.09
8084.00,1.09
8082.00,1.09
8080.00,1.09
8078.00,1.09
8076.00,1.09
8074.00,1.09
8072.00,1.09
8070.00,1.09
8068.00,1.09
8066.00,1.09
8064.00,1.09
8062.00,1.09
8060.00,1.09
8058.00,1.09
8056.00,1.09
8054.00,1.09
8052.00,1.09
8050.00,1.09
8048.00,1.09
8046.00,1.09
8044.00,1.09
8042.00,1.09
8040.00,1.09
8038.00,1.09
8036.00,1.09
8034.00,1.09
8032.00,1.09
8030.00,1.09
8028.00,1.10
8026.00,1.10
8024.00,1.10
8022.00,1.10
8020.00,1.10
8018.00,1.10
8016.00,1.10
8014.00,1.10
8012.00,1.10
8010.00,1.10
8008.00,1.10
8006.00,1.10
8004.00,1.10
8002.00,1.10
8000.00,1.10
7998.00,1.10
7996.00,1.10
7994.00,1.10
7992.00,1.10
7990.00,1.10
7988.00,1.10
7986.00,1.09
7984.00,1.09
7982.00,1.09
7980.00,1.09
7978.00,1.09
7976.00,1.09
7974.00,1.09
7972.00,1.09
7970.00,1.09
7968.00,1.09
7966.00,1.09
7964.00,1.09
7962.00,1.09
7960.00,1.09
7958.00,1.09
7956.00,1.09
7954.00,1.09
7952.00,1.09
7950.00,1.09
7948.00,1.09
7946.00,1.09
7944.00,1.09
7942.00,1.09
7940.00,1.09
7938.00,1.09
7936.00,1.09
7934.00,1.09
7932.00,1.09
7930.00,1.10
7928.00,1.10
7926.00,1.10
7924.00,1.10
7922.00,1.10
7920.00,1.10
7918.00,1.10
7916.00,1.10
7914.00,1.10
7912.00,1.10
7910.00,1.10
7908.00,1.10
7906.00,1.10
7904.00,1.10
7902.00,1.10
7900.00,1.10
7898.00,1.10
7896.00,1.10
7894.00,1.10
7892.00,1.10
7890.00,1.10
7888.00,1.10
7886.00,1.10
7884.00,1.10
7882.00,1.10
7880.00,1.10
7878.00,1.10
7876.00,1.10
7874.00,1.09
7872.00,1.09
7870.00,1.09
7868.00,1.09
7866.00,1.09
7864.00,1.09
7862.00,1.09
7860.00,1.09
7858.00,1.09
7856.00,1.09
7854.00,1.09
7852.00,1.09
7850.00,1.09
7848.00,1.09
7846.00,1.10
7844.00,1.10
7842.00,1.10
7840.00,1.10
7838.00,1.10
7836.00,1.10
7834.00,1.10
7832.00,1.10
7830.00,1.10
7828.00,1.10
7826.00,1.10
7824.00,1.10
7822.00,1.10
7820.00,1.10
7818.00,1.10
7816.00,1.10
7814.00,1.10
7812.00,1.10
7810.00,1.10
7808.00,1.10
7806.00,1.10
7804.00,1.10
7802.00,1.10
7800.00,1.10
7798.00,1.10
7796.00,1.10
7794.00,1.10
7792.00,1.10
7790.00,1.10
7788.00,1.10
7786.00,1.10
7784.00,1.10
7782.00,1.10
7780.00,1.10
7778.00,1.10
7776.00,1.10
7774.00,1.10
7772.00,1.10
7770.00,1.10
7768.00,1.10
7766.00,1.10
7764.00,1.10
7762.00,1.10
7760.00,1.10
7758.00,1.10
7756.00,1.10
7754.00,1.10
7752.00,1.10
7750.00,1.10
7748.00,1.10
7746.00,1.10
7744.00,1.10
7742.00,1.10
7740.00,1.10
7738.00,1.10
7736.00,1.10
7734.00,1.10
7732.00,1.10
7730.00,1.10
7728.00,1.10
7726.00,1.10
7724.00,1.10
7722.00,1.11
7720.00,1.11
7718.00,1.11
7716.00,1.11
7714.00,1.11
7712.00,1.11
7710.00,1.11
7708.00,1.10
7706.00,1.10
7704.00,1.10
7702.00,1.10
7700.00,1.10
7698.00,1.10
7696.00,1.10
7694.00,1.10
7692.00,1.10
7690.00,1.10
7688.00,1.10
7686.00,1.10
7684.00,1.10
7682.00,1.10
7680.00,1.10
7678.00,1.10
7676.00,1.10
7674.00,1.10
7672.00,1.10
7670.00,1.10
7668.00,1.10
7666.00,1.10
7664.00,1.11
7662.00,1.11
7660.00,1.11
7658.00,1.11
7656.00,1.11
7654.00,1.11
7652.00,1.11
7650.00,1.11
7648.00,1.11
7646.00,1.11
7644.00,1.11
7642.00,1.11
7640.00,1.11
7638.00,1.11
7636.00,1.11
7634.00,1.11
7632.00,1.11
7630.00,1.11
7628.00,1.11
7626.00,1.11
7624.00,1.11
7622.00,1.11
7620.00,1.11
7618.00,1.11
7616.00,1.11
7614.00,1.10
7612.00,1.10
7610.00,1.10
7608.00,1.10
7606.00,1.10
7604.00,1.10
7602.00,1.10
7600.00,1.10
7598.00,1.10
7596.00,1.10
7594.00,1.10
7592.00,1.10
7590.00,1.10
7588.00,1.10
7586.00,1.10
7584.00,1.10
7582.00,1.10
7580.00,1.10
7578.00,1.10
7576.00,1.10
7574.00,1.10
7572.00,1.10
7570.00,1.10
7568.00,1.10
7566.00,1.10
7564.00,1.10
7562.00,1.10
7560.00,1.10
7558.00,1.10
7556.00,1.10
7554.00,1.10
7552.00,1.10
7550.00,1.10
7548.00,1.10
7546.00,1.10
7544.00,1.10
7542.00,1.10
7540.00,1.10
7538.00,1.10
7536.00,1.09
7534.00,1.09
7532.00,1.09
7530.00,1.09
7528.00,1.09
7526.00,1.09
7524.00,1.09
7522.00,1.09
7520.00,1.09
7518.00,1.09
7516.00,1.09
7514.00,1.09
7512.00,1.09
7510.00,1.09
7508.00,1.09
7506.00,1.09
7504.00,1.09
7502.00,1.09
7500.00,1.09
7498.00,1.09
7496.00,1.09
7494.00,1.09
7492.00,1.09
7490.00,1.09
7488.00,1.09
7486.00,1.09
7484.00,1.09
7482.00,1.09
7480.00,1.09
7478.00,1.09
7476.00,1.09
7474.00,1.09
7472.00,1.09
7470.00,1.09
7468.00,1.09
7466.00,1.09
7464.00,1.09
7462.00,1.09
7460.00,1.09
7458.00,1.09
7456.00,1.09
7454.00,1.09
7452.00,1.09
7450.00,1.09
7448.00,1.09
7446.00,1.09
7444.00,1.09
7442.00,1.09
7440.00,1.09
7438.00,1.09
7436.00,1.09
7434.00,1.09
7432.00,1.09
7430.00,1.09
7428.00,1.09
7426.00,1.09
7424.00,1.09
7422.00,1.09
7420.00,1.09
7418.00,1.09
7416.00,1.09
7414.00,1.09
7412.00,1.09
7410.00,1.09
7408.00,1.09
7406.00,1.08
7404.00,1.08
7402.00,1.08
7400.00,1.08
7398.00,1.08
7396.00,1.08
7394.00,1.08
7392.00,1.08
7390.00,1.08
7388.00,1.08
7386.00,1.08
7384.00,1.08
7382.00,1.08
7380.00,1.08
7378.00,1.08
7376.00,1.08
7374.00,1.08
7372.00,1.08
7370.00,1.08
7368.00,1.08
7366.00,1.08
7364.00,1.08
7362.00,1.08
7360.00,1.08
7358.00,1.07
7356.00,1.07
7354.00,1.07
7352.00,1.07
7350.00,1.07
7348.00,1.07
7346.00,1.07
7344.00,1.07
7342.00,1.07
7340.00,1.07
7338.00,1.07
7336.00,1.07
7334.00,1.07
7332.00,1.07
7330.00,1.07
7328.00,1.07
7326.00,1.07
7324.00,1.07
7322.00,1.07
7320.00,1.07
7318.00,1.07
7316.00,1.07
7314.00,1.07
7312.00,1.07
7310.00,1.07
7308.00,1.07
7306.00,1.07
7304.00,1.07
7302.00,1.07
7300.00,1.07
7298.00,1.07
7296.00,1.07
7294.00,1.07
7292.00,1.07
7290.00,1.07
7288.00,1.06
7286.00,1.06
7284.00,1.06
7282.00,1.06
7280.00,1.06
7278.00,1.06
7276.00,1.06
7274.00,1.06
7272.00,1.06
7270.00,1.06
7268.00,1.06
7266.00,1.06
7264.00,1.06
7262.00,1.06
7260.00,1.06
7258.00,1.06
7256.00,1.06
7254.00,1.06
7252.00,1.06
7250.00,1.05
7248.00,1.05
7246.00,1.05
7244.00,1.05
7242.00,1.05
7240.00,1.05
7238.00,1.05
7236.00,1.04
7234.00,1.04
7232.00,1.04
7230.00,1.04
7228.00,1.04
7226.00,1.04
7224.00,1.03
7222.00,1.03
7220.00,1.03
7218.00,1.03
7216.00,1.03
7214.00,1.03
7212.00,1.02
7210.00,1.02
7208.00,1.02
7206.00,1.02
7204.00,1.02
7202.00,1.02
7200.00,1.02
7198.00,1.02
7196.00,1.01
7194.00,1.01
7192.00,1.01
7190.00,1.01
7188.00,1.01
7186.00,1.01
7184.00,1.01
7182.00,1.00
7180.00,1.00
7178.00,1.00
7176.00,1.00
7174.00,1.00
7172.00,1.00
7170.00,0.99
7168.00,0.99
7166.00,0.99
7164.00,0.99
7162.00,0.99
7160.00,0.98
7158.00,0.98
7156.00,0.98
7154.00,0.98
7152.00,0.97
7150.00,0.97
7148.00,0.97
7146.00,0.97
7144.00,0.96
7142.00,0.96
7140.00,0.96
7138.00,0.96
7136.00,0.95
7134.00,0.95
7132.00,0.95
7130.00,0.95
7128.00,0.95
7126.00,0.94
7124.00,0.94
7122.00,0.94
7120.00,0.94
7118.00,0.93
7116.00,0.93
7114.00,0.93
7112.00,0.93
7110.00,0.93
7108.00,0.93
7106.00,0.92
7104.00,0.92
7102.00,0.92
7100.00,0.92
7098.00,0.92
7096.00,0.91
7094.00,0.91
7092.00,0.91
7090.00,0.91
7088.00,0.91
7086.00,0.91
7084.00,0.90
7082.00,0.90
7080.00,0.90
7078.00,0.90
7076.00,0.90
7074.00,0.89
7072.00,0.89
7070.00,0.89
7068.00,0.89
7066.00,0.89
7064.00,0.89
7062.00,0.88
7060.00,0.88
7058.00,0.88
7056.00,0.88
7054.00,0.88
7052.00,0.88
7050.00,0.88
7048.00,0.88
7046.00,0.88
7044.00,0.87
7042.00,0.87
7040.00,0.87
7038.00,0.87
7036.00,0.87
7034.00,0.87
7032.00,0.87
7030.00,0.87
7028.00,0.87
7026.00,0.87
7024.00,0.87
7022.00,0.87
7020.00,0.87
7018.00,0.87
7016.00,0.87
7014.00,0.87
7012.00,0.87
7010.00,0.86
7008.00,0.86
7006.00,0.86
7004.00,0.86
7002.00,0.86
7000.00,0.86
6998.00,0.86
6996.00,0.86
6994.00,0.86
6992.00,0.86
6990.00,0.86
6988.00,0.85
6986.00,0.85
6984.00,0.85
6982.00,0.85
6980.00,0.85
6978.00,0.85
6976.00,0.85
6974.00,0.85
6972.00,0.85
6970.00,0.85
6968.00,0.85
6966.00,0.85
6964.00,0.85
6962.00,0.84
6960.00,0.84
6958.00,0.84
6956.00,0.84
6954.00,0.84
6952.00,0.84
6950.00,0.84
6948.00,0.84
6946.00,0.84
6944.00,0.84
6942.00,0.84
6940.00,0.84
6938.00,0.84
6936.00,0.84
6934.00,0.84
6932.00,0.84
6930.00,0.84
6928.00,0.84
6926.00,0.84
6924.00,0.84
6922.00,0.84
6920.00,0.84
6918.00,0.84
6916.00,0.84
6914.00,0.84
6912.00,0.84
6910.00,0.84
6908.00,0.84
6906.00,0.84
6904.00,0.84
6902.00,0.84
6900.00,0.84
6898.00,0.84
6896.00,0.84
6894.00,0.84
6892.00,0.84
6890.00,0.84
6888.00,0.84
6886.00,0.84
6884.00,0.84
6882.00,0.84
6880.00,0.84
6878.00,0.84
6876.00,0.84
6874.00,0.84
6872.00,0.84
6870.00,0.84
6868.00,0.84
6866.00,0.84
6864.00,0.84
6862.00,0.84
6860.00,0.84
6858.00,0.84
6856.00,0.84
6854.00,0.84
6852.00,0.84
6850.00,0.84
6848.00,0.84
6846.00,0.84
6844.00,0.84
6842.00,0.84
6840.00,0.84
6838.00,0.84
6836.00,0.84
6834.00,0.84
6832.00,0.84
6830.00,0.84
6828.00,0.84
6826.00,0.84
6824.00,0.84
6822.00,0.84
6820.00,0.84
6818.00,0.84
6816.00,0.85
6814.00,0.85
6812.00,0.85
6810.00,0.85
6808.00,0.85
6806.00,0.85
6804.00,0.85
6802.00,0.85
6800.00,0.85
6798.00,0.85
6796.00,0.85
6794.00,0.85
6792.00,0.85
6790.00,0.85
6788.00,0.85
6786.00,0.85
6784.00,0.85
6782.00,0.85
6780.00,0.85
6778.00,0.86
6776.00,0.86
6774.00,0.86
6772.00,0.86
6770.00,0.86
6768.00,0.86
6766.00,0.86
6764.00,0.86
6762.00,0.86
6760.00,0.86
6758.00,0.87
6756.00,0.87
6754.00,0.87
6752.00,0.87
6750.00,0.87
6748.00,0.87
6746.00,0.87
6744.00,0.87
6742.00,0.87
6740.00,0.88
6738.00,0.88
6736.00,0.88
6734.00,0.88
6732.00,0.88
6730.00,0.88
6728.00,0.88
6726.00,0.88
6724.00,0.88
6722.00,0.88
6720.00,0.89
6718.00,0.89
6716.00,0.89
6714.00,0.89
6712.00,0.89
6710.00,0.89
6708.00,0.89
6706.00,0.89
6704.00,0.89
6702.00,0.90
6700.00,0.90
6698.00,0.90
6696.00,0.90
6694.00,0.90
6692.00,0.90
6690.00,0.90
6688.00,0.90
6686.00,0.90
6684.00,0.91
6682.00,0.91
6680.00,0.91
6678.00,0.91
6676.00,0.91
6674.00,0.91
6672.00,0.91
6670.00,0.91
6668.00,0.91
6666.00,0.91
6664.00,0.92
6662.00,0.92
6660.00,0.92
6658.00,0.92
6656.00,0.92
6654.00,0.92
6652.00,0.92
6650.00,0.92
6648.00,0.92
6646.00,0.93
6644.00,0.93
6642.00,0.93
6640.00,0.93
6638.00,0.93
6636.00,0.93
6634.00,0.93
6632.00,0.93
6630.00,0.93
6628.00,0.93
6626.00,0.94
6624.00,0.94
6622.00,0.94
6620.00,0.94
6618.00,0.94
6616.00,0.94
6614.00,0.94
6612.00,0.94
6610.00,0.94
6608.00,0.94
6606.00,0.94
6604.00,0.95
6602.00,0.95
6600.00,0.95
6598.00,0.95
6596.00,0.95
6594.00,0.95
6592.00,0.95
6590.00,0.95
6588.00,0.95
6586.00,0.96
6584.00,0.96
6582.00,0.96
6580.00,0.96
6578.00,0.96
6576.00,0.96
6574.00,0.96
6572.00,0.96
6570.00,0.96
6568.00,0.96
6566.00,0.97
6564.00,0.97
6562.00,0.97
6560.00,0.97
6558.00,0.97
6556.00,0.97
6554.00,0.97
6552.00,0.97
6550.00,0.97
6548.00,0.97
6546.00,0.97
6544.00,0.97
6542.00,0.97
6540.00,0.97
6538.00,0.97
6536.00,0.97
6534.00,0.97
6532.00,0.97
6530.00,0.97
6528.00,0.97
6526.00,0.97
6524.00,0.98
6522.00,0.98
6520.00,0.98
6518.00,0.98
6516.00,0.98
6514.00,0.98
6512.00,0.98
6510.00,0.98
6508.00,0.98
6506.00,0.98
6504.00,0.98
6502.00,0.98
6500.00,0.98
6498.00,0.99
6496.00,0.99
6494.00,0.99
6492.00,0.99
6490.00,0.99
6488.00,0.99
6486.00,0.99
6484.00,0.99
6482.00,0.99
6480.00,0.99
6478.00,0.99
6476.00,0.99
6474.00,0.99
6472.00,0.99
6470.00,0.99
6468.00,0.99
6466.00,0.99
6464.00,0.99
6462.00,1.00
6460.00,1.00
6458.00,1.00
6456.00,1.00
6454.00,1.00
6452.00,1.00
6450.00,1.00
6448.00,1.00
6446.00,1.00
6444.00,1.00
6442.00,1.00
6440.00,1.00
6438.00,1.00
6436.00,1.01
6434.00,1.01
6432.00,1.01
6430.00,1.01
6428.00,1.01
6426.00,1.01
6424.00,1.01
6422.00,1.01
6420.00,1.01
6418.00,1.01
6416.00,1.01
6414.00,1.01
6412.00,1.01
6410.00,1.01
6408.00,1.01
6406.00,1.01
6404.00,1.01
6402.00,1.01
6400.00,1.02
6398.00,1.02
6396.00,1.02
6394.00,1.02
6392.00,1.02
6390.00,1.02
6388.00,1.02
6386.00,1.02
6384.00,1.02
6382.00,1.02
6380.00,1.02
6378.00,1.02
6376.00,1.02
6374.00,1.02
6372.00,1.02
6370.00,1.02
6368.00,1.02
6366.00,1.02
6364.00,1.02
6362.00,1.03
6360.00,1.03
6358.00,1.03
6356.00,1.03
6354.00,1.03
6352.00,1.03
6350.00,1.03
6348.00,1.03
6346.00,1.03
6344.00,1.03
6342.00,1.03
6340.00,1.03
6338.00,1.03
6336.00,1.03
6334.00,1.03
6332.00,1.03
6330.00,1.03
6328.00,1.03
6326.00,1.04
6324.00,1.04
6322.00,1.04
6320.00,1.04
6318.00,1.04
6316.00,1.04
6314.00,1.04
6312.00,1.04
6310.00,1.04
6308.00,1.04
6306.00,1.04
6304.00,1.04
6302.00,1.04
6300.00,1.04
6298.00,1.05
6296.00,1.05
6294.00,1.05
6292.00,1.05
6290.00,1.05
6288.00,1.05
6286.00,1.05
6284.00,1.05
6282.00,1.05
6280.00,1.05
6278.00,1.05
6276.00,1.05
6274.00,1.05
6272.00,1.05
6270.00,1.05
6268.00,1.05
6266.00,1.05
6264.00,1.05
6262.00,1.05
6260.00,1.05
6258.00,1.06
6256.00,1.06
6254.00,1.06
6252.00,1.06
6250.00,1.06
6248.00,1.06
6246.00,1.06
6244.00,1.06
6242.00,1.06
6240.00,1.06
6238.00,1.06
6236.00,1.06
6234.00,1.06
6232.00,1.06
6230.00,1.06
6228.00,1.06
6226.00,1.06
6224.00,1.06
6222.00,1.06
6220.00,1.07
6218.00,1.07
6216.00,1.07
6214.00,1.07
6212.00,1.07
6210.00,1.07
6208.00,1.07
6206.00,1.07
6204.00,1.07
6202.00,1.07
6200.00,1.07
6198.00,1.07
6196.00,1.07
6194.00,1.07
6192.00,1.08
6190.00,1.08
6188.00,1.08
6186.00,1.08
6184.00,1.08
6182.00,1.08
6180.00,1.08
6178.00,1.08
6176.00,1.08
6174.00,1.08
6172.00,1.08
6170.00,1.08
6168.00,1.08
6166.00,1.08
6164.00,1.08
6162.00,1.08
6160.00,1.08
6158.00,1.09
6156.00,1.09
6154.00,1.09
6152.00,1.09
6150.00,1.09
6148.00,1.09
6146.00,1.09
6144.00,1.09
6142.00,1.09
6140.00,1.09
6138.00,1.09
6136.00,1.09
6134.00,1.09
6132.00,1.09
6130.00,1.09
6128.00,1.09
6126.00,1.09
6124.00,1.09
6122.00,1.09
6120.00,1.09
6118.00,1.10
6116.00,1.10
6114.00,1.10
6112.00,1.10
6110.00,1.10
6108.00,1.10
6106.00,1.10
6104.00,1.10
6102.00,1.10
6100.00,1.10
6098.00,1.10
6096.00,1.10
6094.00,1.10
6092.00,1.11
6090.00,1.11
6088.00,1.11
6086.00,1.11
6084.00,1.11
6082.00,1.11
6080.00,1.11
6078.00,1.11
6076.00,1.11
6074.00,1.11
6072.00,1.11
6070.00,1.11
6068.00,1.11
6066.00,1.11
6064.00,1.11
6062.00,1.11
6060.00,1.11
6058.00,1.11
6056.00,1.11
6054.00,1.11
6052.00,1.11
6050.00,1.11
6048.00,1.11
6046.00,1.11
6044.00,1.11
6042.00,1.11
6040.00,1.11
6038.00,1.11
6036.00,1.11
6034.00,1.11
6032.00,1.11
6030.00,1.11
6028.00,1.11
6026.00,1.11
6024.00,1.11
6022.00,1.11
6020.00,1.11
6018.00,1.11
6016.00,1.11
6014.00,1.11
6012.00,1.11
6010.00,1.11
6008.00,1.11
6006.00,1.12
6004.00,1.11
6002.00,1.11
6000.00,1.11
5998.00,1.11
5996.00,1.11
5994.00,1.11
5992.00,1.11
5990.00,1.11
5988.00,1.11
5986.00,1.11
5984.00,1.11
5982.00,1.11
5980.00,1.11
5978.00,1.11
5976.00,1.11
5974.00,1.10
5972.00,1.10
5970.00,1.10
5968.00,1.10
5966.00,1.10
5964.00,1.10
5962.00,1.09
5960.00,1.09
5958.00,1.09
5956.00,1.09
5954.00,1.09
5952.00,1.09
5950.00,1.09
5948.00,1.08
5946.00,1.08
5944.00,1.08
5942.00,1.08
5940.00,1.08
5938.00,1.08
5936.00,1.08
5934.00,1.08
5932.00,1.08
5930.00,1.07
5928.00,1.07
5926.00,1.07
5924.00,1.07
5922.00,1.07
5920.00,1.07
5918.00,1.07
5916.00,1.07
5914.00,1.07
5912.00,1.07
5910.00,1.07
5908.00,1.07
5906.00,1.07
5904.00,1.07
5902.00,1.07
5900.00,1.07
5898.00,1.07
5896.00,1.07
5894.00,1.07
5892.00,1.07
5890.00,1.08
5888.00,1.08
5886.00,1.08
5884.00,1.08
5882.00,1.08
5880.00,1.08
5878.00,1.08
5876.00,1.08
5874.00,1.08
5872.00,1.08
5870.00,1.08
5868.00,1.08
5866.00,1.08
5864.00,1.08
5862.00,1.09
5860.00,1.09
5858.00,1.09
5856.00,1.09
5854.00,1.09
5852.00,1.09
5850.00,1.09
5848.00,1.09
5846.00,1.09
5844.00,1.09
5842.00,1.09
5840.00,1.09
5838.00,1.09
5836.00,1.09
5834.00,1.09
5832.00,1.09
5830.00,1.09
5828.00,1.09
5826.00,1.09
5824.00,1.09
5822.00,1.09
5820.00,1.09
5818.00,1.09
5816.00,1.09
5814.00,1.09
5812.00,1.09
5810.00,1.09
5808.00,1.09
5806.00,1.09
5804.00,1.09
5802.00,1.09
5800.00,1.09
5798.00,1.09
5796.00,1.09
5794.00,1.08
5792.00,1.08
5790.00,1.08
5788.00,1.08
5786.00,1.08
5784.00,1.08
5782.00,1.08
5780.00,1.08
5778.00,1.08
5776.00,1.08
5774.00,1.08
5772.00,1.08
5770.00,1.08
5768.00,1.08
5766.00,1.08
5764.00,1.08
5762.00,1.08
5760.00,1.08
5758.00,1.08
5756.00,1.09
5754.00,1.09
5752.00,1.09
5750.00,1.09
5748.00,1.09
5746.00,1.09
5744.00,1.09
5742.00,1.09
5740.00,1.09
5738.00,1.09
5736.00,1.09
5734.00,1.09
5732.00,1.09
5730.00,1.09
5728.00,1.09
5726.00,1.09
5724.00,1.09
5722.00,1.09
5720.00,1.09
5718.00,1.09
5716.00,1.09
5714.00,1.09
5712.00,1.09
5710.00,1.09
5708.00,1.09
5706.00,1.09
5704.00,1.09
5702.00,1.09
5700.00,1.09
5698.00,1.09
5696.00,1.09
5694.00,1.09
5692.00,1.09
5690.00,1.09
5688.00,1.09
5686.00,1.09
5684.00,1.09
5682.00,1.09
5680.00,1.09
5678.00,1.09
5676.00,1.09
5674.00,1.09
5672.00,1.09
5670.00,1.09
5668.00,1.09
5666.00,1.09
5664.00,1.09
5662.00,1.09
5660.00,1.09
5658.00,1.09
5656.00,1.09
5654.00,1.09
5652.00,1.09
5650.00,1.09
5648.00,1.09
5646.00,1.09
5644.00,1.09
5642.00,1.09
5640.00,1.09
5638.00,1.09
5636.00,1.10
5634.00,1.10
5632.00,1.10
5630.00,1.10
5628.00,1.10
5626.00,1.10
5624.00,1.10
5622.00,1.10
5620.00,1.10
5618.00,1.10
5616.00,1.10
5614.00,1.10
5612.00,1.10
5610.00,1.10
5608.00,1.10
5606.00,1.10
5604.00,1.10
5602.00,1.10
5600.00,1.10
5598.00,1.10
5596.00,1.10
5594.00,1.10
5592.00,1.10
5590.00,1.10
5588.00,1.11
5586.00,1.11
5584.00,1.11
5582.00,1.11
5580.00,1.11
5578.00,1.11
5576.00,1.11
5574.00,1.11
5572.00,1.11
5570.00,1.11
5568.00,1.11
5566.00,1.11
5564.00,1.11
5562.00,1.11
5560.00,1.11
5558.00,1.11
5556.00,1.11
5554.00,1.11
5552.00,1.11
5550.00,1.11
5548.00,1.11
5546.00,1.11
5544.00,1.11
5542.00,1.11
5540.00,1.11
5538.00,1.11
5536.00,1.11
5534.00,1.11
5532.00,1.11
5530.00,1.11
5528.00,1.11
5526.00,1.11
5524.00,1.11
5522.00,1.11
5520.00,1.11
5518.00,1.11
5516.00,1.11
5514.00,1.11
5512.00,1.11
5510.00,1.11
5508.00,1.11
5506.00,1.11
5504.00,1.11
5502.00,1.11
5500.00,1.11
5498.00,1.11
5496.00,1.11
5494.00,1.11
5492.00,1.11
5490.00,1.11
5488.00,1.11
5486.00,1.11
5484.00,1.11
5482.00,1.11
5480.00,1.11
5478.00,1.11
5476.00,1.11
5474.00,1.12
5472.00,1.12
5470.00,1.12
5468.00,1.12
5466.00,1.12
5464.00,1.11
5462.00,1.11
5460.00,1.11
5458.00,1.11
5456.00,1.11
5454.00,1.11
5452.00,1.11
5450.00,1.11
5448.00,1.11
5446.00,1.11
5444.00,1.11
5442.00,1.11
5440.00,1.11
5438.00,1.11
5436.00,1.11
5434.00,1.11
5432.00,1.11
5430.00,1.11
5428.00,1.11
5426.00,1.11
5424.00,1.11
5422.00,1.11
5420.00,1.11
5418.00,1.11
5416.00,1.12
5414.00,1.12
5412.00,1.12
5410.00,1.12
5408.00,1.11
5406.00,1.11
5404.00,1.11
5402.00,1.11
5400.00,1.11
5398.00,1.11
5396.00,1.11
5394.00,1.11
5392.00,1.11
5390.00,1.11
5388.00,1.11
5386.00,1.11
5384.00,1.11
5382.00,1.10
5380.00,1.10
5378.00,1.10
5376.00,1.10
5374.00,1.10
5372.00,1.09
5370.00,1.09
5368.00,1.09
5366.00,1.08
5364.00,1.08
5362.00,1.08
5360.00,1.07
5358.00,1.07
5356.00,1.06
5354.00,1.06
5352.00,1.05
5350.00,1.05
5348.00,1.04
5346.00,1.04
5344.00,1.03
5342.00,1.02
5340.00,1.02
5338.00,1.01
5336.00,1.01
5334.00,1.00
5332.00,0.99
5330.00,0.98
5328.00,0.98
5326.00,0.97
5324.00,0.96
5322.00,0.95
5320.00,0.95
5318.00,0.94
5316.00,0.93
5314.00,0.92
5312.00,0.91
5310.00,0.90
5308.00,0.89
5306.00,0.88
5304.00,0.87
5302.00,0.86
5300.00,0.85
5298.00,0.84
5296.00,0.83
5294.00,0.82
5292.00,0.81
5290.00,0.80
5288.00,0.80
5286.00,0.79
5284.00,0.78
5282.00,0.77
5280.00,0.76
5278.00,0.75
5276.00,0.75
5274.00,0.74
5272.00,0.73
5270.00,0.73
5268.00,0.72
5266.00,0.72
5264.00,0.71
5262.00,0.70
5260.00,0.70
5258.00,0.69
5256.00,0.69
5254.00,0.68
5252.00,0.68
5250.00,0.68
5248.00,0.67
5246.00,0.67
5244.00,0.66
5242.00,0.66
5240.00,0.66
5238.00,0.65
5236.00,0.65
5234.00,0.65
5232.00,0.65
5230.00,0.64
5228.00,0.64
5226.00,0.64
5224.00,0.64
5222.00,0.63
5220.00,0.63
5218.00,0.63
5216.00,0.63
5214.00,0.62
5212.00,0.62
5210.00,0.62
5208.00,0.62
5206.00,0.62
5204.00,0.62
5202.00,0.62
5200.00,0.61
5198.00,0.61
5196.00,0.61
5194.00,0.61
5192.00,0.61
5190.00,0.61
5188.00,0.61
5186.00,0.61
5184.00,0.61
5182.00,0.61
5180.00,0.61
5178.00,0.61
5176.00,0.61
5174.00,0.61
5172.00,0.61
5170.00,0.61
5168.00,0.61
5166.00,0.61
5164.00,0.61
5162.00,0.61
5160.00,0.61
5158.00,0.62
5156.00,0.62
5154.00,0.62
5152.00,0.62
5150.00,0.62
5148.00,0.62
5146.00,0.62
5144.00,0.62
5142.00,0.62
5140.00,0.62
5138.00,0.63
5136.00,0.63
5134.00,0.63
5132.00,0.63
5130.00,0.63
5128.00,0.63
5126.00,0.64
5124.00,0.64
5122.00,0.64
5120.00,0.64
5118.00,0.64
5116.00,0.65
5114.00,0.65
5112.00,0.65
5110.00,0.65
5108.00,0.65
5106.00,0.66
5104.00,0.66
5102.00,0.66
5100.00,0.66
5098.00,0.66
5096.00,0.67
5094.00,0.67
5092.00,0.67
5090.00,0.67
5088.00,0.67
5086.00,0.68
5084.00,0.68
5082.00,0.68
5080.00,0.68
5078.00,0.69
5076.00,0.69
5074.00,0.69
5072.00,0.69
5070.00,0.69
5068.00,0.70
5066.00,0.70
5064.00,0.70
5062.00,0.70
5060.00,0.71
5058.00,0.71
5056.00,0.71
5054.00,0.71
5052.00,0.72
5050.00,0.72
5048.00,0.72
5046.00,0.72
5044.00,0.73
5042.00,0.73
5040.00,0.73
5038.00,0.74
5036.00,0.74
5034.00,0.74
5032.00,0.74
5030.00,0.75
5028.00,0.75
5026.00,0.75
5024.00,0.75
5022.00,0.76
5020.00,0.76
5018.00,0.76
5016.00,0.76
5014.00,0.77
5012.00,0.77
5010.00,0.77
5008.00,0.78
5006.00,0.78
5004.00,0.78
5002.00,0.78
5000.00,0.79
4998.00,0.79
4996.00,0.79
4994.00,0.79
4992.00,0.80
4990.00,0.80
4988.00,0.80
4986.00,0.80
4984.00,0.81
4982.00,0.81
4980.00,0.81
4978.00,0.81
4976.00,0.82
4974.00,0.82
4972.00,0.82
4970.00,0.82
4968.00,0.82
4966.00,0.83
4964.00,0.83
4962.00,0.83
4960.00,0.83
4958.00,0.83
4956.00,0.84
4954.00,0.84
4952.00,0.84
4950.00,0.84
4948.00,0.84
4946.00,0.85
4944.00,0.85
4942.00,0.85
4940.00,0.85
4938.00,0.85
4936.00,0.86
4934.00,0.86
4932.00,0.86
4930.00,0.86
4928.00,0.86
4926.00,0.86
4924.00,0.87
4922.00,0.87
4920.00,0.87
4918.00,0.87
4916.00,0.87
4914.00,0.88
4912.00,0.88
4910.00,0.88
4908.00,0.88
4906.00,0.88
4904.00,0.88
4902.00,0.89
4900.00,0.89
4898.00,0.89
4896.00,0.89
4894.00,0.89
4892.00,0.89
4890.00,0.90
4888.00,0.90
4886.00,0.90
4884.00,0.90
4882.00,0.90
4880.00,0.90
4878.00,0.91
4876.00,0.91
4874.00,0.91
4872.00,0.91
4870.00,0.91
4868.00,0.91
4866.00,0.91
4864.00,0.92
4862.00,0.92
4860.00,0.92
4858.00,0.92
4856.00,0.92
4854.00,0.92
4852.00,0.92
4850.00,0.92
4848.00,0.93
4846.00,0.93
4844.00,0.93
4842.00,0.93
4840.00,0.93
4838.00,0.93
4836.00,0.93
4834.00,0.94
4832.00,0.94
4830.00,0.94
4828.00,0.94
4826.00,0.94
4824.00,0.94
4822.00,0.95
4820.00,0.95
4818.00,0.95
4816.00,0.95
4814.00,0.95
4812.00,0.96
4810.00,0.96
4808.00,0.96
4806.00,0.96
4804.00,0.96
4802.00,0.96
4800.00,0.97
4798.00,0.97
4796.00,0.97
4794.00,0.97
4792.00,0.97
4790.00,0.97
4788.00,0.98
4786.00,0.98
4784.00,0.98
4782.00,0.98
4780.00,0.98
4778.00,0.98
4776.00,0.99
4774.00,0.99
4772.00,0.99
4770.00,0.99
4768.00,0.99
4766.00,0.99
4764.00,1.00
4762.00,1.00
4760.00,1.00
4758.00,1.00
4756.00,1.00
4754.00,1.00
4752.00,1.01
4750.00,1.01
4748.00,1.01
4746.00,1.01
4744.00,1.01
4742.00,1.01
4740.00,1.02
4738.00,1.02
4736.00,1.02
4734.00,1.02
4732.00,1.02
4730.00,1.03
4728.00,1.03
4726.00,1.03
4724.00,1.03
4722.00,1.03
4720.00,1.03
4718.00,1.04
4716.00,1.04
4714.00,1.04
4712.00,1.04
4710.00,1.04
4708.00,1.05
4706.00,1.05
4704.00,1.05
4702.00,1.05
4700.00,1.05
4698.00,1.05
4696.00,1.05
4694.00,1.06
4692.00,1.06
4690.00,1.06
4688.00,1.06
4686.00,1.06
4684.00,1.06
4682.00,1.06
4680.00,1.06
4678.00,1.06
4676.00,1.07
4674.00,1.07
4672.00,1.07
4670.00,1.07
4668.00,1.07
4666.00,1.07
4664.00,1.07
4662.00,1.07
4660.00,1.07
4658.00,1.08
4656.00,1.08
4654.00,1.08
4652.00,1.08
4650.00,1.08
4648.00,1.08
4646.00,1.08
4644.00,1.08
4642.00,1.08
4640.00,1.08
4638.00,1.09
4636.00,1.09
4634.00,1.09
4632.00,1.09
4630.00,1.09
4628.00,1.09
4626.00,1.09
4624.00,1.09
4622.00,1.09
4620.00,1.09
4618.00,1.09
4616.00,1.09
4614.00,1.09
4612.00,1.09
4610.00,1.09
4608.00,1.09
4606.00,1.10
4604.00,1.10
4602.00,1.10
4600.00,1.10
4598.00,1.10
4596.00,1.10
4594.00,1.10
4592.00,1.10
4590.00,1.10
4588.00,1.10
4586.00,1.10
4584.00,1.10
4582.00,1.11
4580.00,1.11
4578.00,1.11
4576.00,1.11
4574.00,1.11
4572.00,1.11
4570.00,1.11
4568.00,1.11
4566.00,1.11
4564.00,1.11
4562.00,1.11
4560.00,1.11
4558.00,1.11
4556.00,1.11
4554.00,1.11
4552.00,1.11
4550.00,1.11
4548.00,1.11
4546.00,1.11
4544.00,1.11
4542.00,1.11
4540.00,1.11
4538.00,1.11
4536.00,1.11
4534.00,1.11
4532.00,1.11
4530.00,1.11
4528.00,1.12
4526.00,1.12
4524.00,1.12
4522.00,1.12
4520.00,1.12
4518.00,1.12
4516.00,1.12
4514.00,1.12
4512.00,1.12
4510.00,1.12
4508.00,1.12
4506.00,1.12
4504.00,1.12
4502.00,1.12
4500.00,1.12
4498.00,1.12
4496.00,1.12
4494.00,1.12
4492.00,1.12
4490.00,1.12
4488.00,1.12
4486.00,1.12
4484.00,1.12
4482.00,1.12
4480.00,1.11
4478.00,1.11
4476.00,1.11
4474.00,1.11
4472.00,1.11
4470.00,1.11
4468.00,1.11
4466.00,1.10
4464.00,1.10
4462.00,1.10
4460.00,1.10
4458.00,1.09
4456.00,1.09
4454.00,1.09
4452.00,1.08
4450.00,1.08
4448.00,1.07
4446.00,1.07
4444.00,1.06
4442.00,1.06
4440.00,1.05
4438.00,1.05
4436.00,1.04
4434.00,1.03
4432.00,1.03
4430.00,1.02
4428.00,1.02
4426.00,1.01
4424.00,1.01
4422.00,1.00
4420.00,1.00
4418.00,1.00
4416.00,1.00
4414.00,0.99
4412.00,0.99
4410.00,0.99
4408.00,0.99
4406.00,0.99
4404.00,1.00
4402.00,1.00
4400.00,1.00
4398.00,1.00
4396.00,1.00
4394.00,1.01
4392.00,1.01
4390.00,1.01
4388.00,1.02
4386.00,1.02
4384.00,1.02
4382.00,1.02
4380.00,1.03
4378.00,1.03
4376.00,1.03
4374.00,1.03
4372.00,1.03
4370.00,1.03
4368.00,1.03
4366.00,1.03
4364.00,1.03
4362.00,1.02
4360.00,1.02
4358.00,1.02
4356.00,1.02
4354.00,1.02
4352.00,1.01
4350.00,1.01
4348.00,1.01
4346.00,1.01
4344.00,1.01
4342.00,1.01
4340.00,1.01
4338.00,1.01
4336.00,1.02
4334.00,1.02
4332.00,1.02
4330.00,1.03
4328.00,1.03
4326.00,1.03
4324.00,1.04
4322.00,1.04
4320.00,1.05
4318.00,1.05
4316.00,1.06
4314.00,1.06
4312.00,1.07
4310.00,1.07
4308.00,1.08
4306.00,1.08
4304.00,1.09
4302.00,1.09
4300.00,1.09
4298.00,1.10
4296.00,1.10
4294.00,1.10
4292.00,1.10
4290.00,1.11
4288.00,1.11
4286.00,1.11
4284.00,1.11
4282.00,1.11
4280.00,1.11
4278.00,1.11
4276.00,1.11
4274.00,1.11
4272.00,1.10
4270.00,1.10
4268.00,1.10
4266.00,1.10
4264.00,1.10
4262.00,1.10
4260.00,1.10
4258.00,1.10
4256.00,1.10
4254.00,1.10
4252.00,1.10
4250.00,1.10
4248.00,1.10
4246.00,1.10
4244.00,1.10
4242.00,1.10
4240.00,1.10
4238.00,1.10
4236.00,1.10
4234.00,1.10
4232.00,1.10
4230.00,1.10
4228.00,1.11
4226.00,1.11
4224.00,1.11
4222.00,1.11
4220.00,1.11
4218.00,1.11
4216.00,1.11
4214.00,1.11
4212.00,1.11
4210.00,1.11
4208.00,1.11
4206.00,1.11
4204.00,1.12
4202.00,1.12
4200.00,1.12
4198.00,1.12
4196.00,1.12
4194.00,1.12
4192.00,1.12
4190.00,1.12
4188.00,1.12
4186.00,1.12
4184.00,1.12
4182.00,1.12
4180.00,1.12
4178.00,1.12
4176.00,1.12
4174.00,1.11
4172.00,1.11
4170.00,1.11
4168.00,1.11
4166.00,1.11
4164.00,1.11
4162.00,1.11
4160.00,1.11
4158.00,1.11
4156.00,1.11
4154.00,1.11
4152.00,1.11
4150.00,1.11
4148.00,1.11
4146.00,1.12
4144.00,1.12
4142.00,1.12
4140.00,1.12
4138.00,1.12
4136.00,1.12
4134.00,1.11
4132.00,1.11
4130.00,1.11
4128.00,1.11
4126.00,1.11
4124.00,1.11
4122.00,1.11
4120.00,1.11
4118.00,1.11
4116.00,1.11
4114.00,1.11
4112.00,1.11
4110.00,1.10
4108.00,1.10
4106.00,1.10
4104.00,1.10
4102.00,1.10
4100.00,1.10
4098.00,1.10
4096.00,1.09
4094.00,1.09
4092.00,1.09
4090.00,1.09
4088.00,1.09
4086.00,1.09
4084.00,1.09
4082.00,1.09
4080.00,1.09
4078.00,1.09
4076.00,1.09
4074.00,1.09
4072.00,1.09
4070.00,1.09
4068.00,1.09
4066.00,1.09
4064.00,1.09
4062.00,1.09
4060.00,1.09
4058.00,1.09
4056.00,1.09
4054.00,1.09
4052.00,1.09
4050.00,1.09
4048.00,1.09
4046.00,1.09
4044.00,1.09
4042.00,1.09
4040.00,1.09
4038.00,1.09
4036.00,1.09
4034.00,1.09
4032.00,1.09
4030.00,1.09
4028.00,1.09
4026.00,1.10
4024.00,1.10
4022.00,1.10
4020.00,1.10
4018.00,1.10
4016.00,1.10
4014.00,1.10
4012.00,1.11
4010.00,1.11
4008.00,1.11
4006.00,1.11
4004.00,1.11
4002.00,1.12
4000.00,1.12
