创建为新数据集,样品 1011 用户 Administrator 日期 星期二, 七月 30 2019
cm-1,%T
10000.00,0.90
9999.00,0.88
9998.00,0.86
9997.00,0.84
9996.00,0.81
9995.00,0.79
9994.00,0.77
9993.00,0.75
9992.00,0.73
9991.00,0.71
9990.00,0.69
9989.00,0.67
9988.00,0.65
9987.00,0.63
9986.00,0.62
9985.00,0.61
9984.00,0.60
9983.00,0.59
9982.00,0.58
9981.00,0.58
9980.00,0.58
9979.00,0.58
9978.00,0.58
9977.00,0.58
9976.00,0.59
9975.00,0.59
9974.00,0.59
9973.00,0.60
9972.00,0.61
9971.00,0.61
9970.00,0.62
9969.00,0.63
9968.00,0.64
9967.00,0.65
9966.00,0.66
9965.00,0.67
9964.00,0.68
9963.00,0.70
9962.00,0.71
9961.00,0.72
9960.00,0.74
9959.00,0.75
9958.00,0.76
9957.00,0.77
9956.00,0.78
9955.00,0.78
9954.00,0.79
9953.00,0.79
9952.00,0.79
9951.00,0.79
9950.00,0.79
9949.00,0.78
9948.00,0.78
9947.00,0.77
9946.00,0.76
9945.00,0.76
9944.00,0.75
9943.00,0.74
9942.00,0.73
9941.00,0.72
9940.00,0.71
9939.00,0.70
9938.00,0.69
9937.00,0.68
9936.00,0.66
9935.00,0.65
9934.00,0.64
9933.00,0.63
9932.00,0.62
9931.00,0.61
9930.00,0.60
9929.00,0.59
9928.00,0.59
9927.00,0.58
9926.00,0.58
9925.00,0.58
9924.00,0.59
9923.00,0.59
9922.00,0.59
9921.00,0.60
9920.00,0.60
9919.00,0.61
9918.00,0.62
9917.00,0.63
9916.00,0.64
9915.00,0.65
9914.00,0.66
9913.00,0.67
9912.00,0.68
9911.00,0.69
9910.00,0.71
9909.00,0.72
9908.00,0.73
9907.00,0.75
9906.00,0.76
9905.00,0.77
9904.00,0.78
9903.00,0.79
9902.00,0.79
9901.00,0.80
9900.00,0.80
9899.00,0.81
9898.00,0.81
9897.00,0.81
9896.00,0.80
9895.00,0.80
9894.00,0.80
9893.00,0.80
9892.00,0.79
9891.00,0.79
9890.00,0.78
9889.00,0.78
9888.00,0.77
9887.00,0.76
9886.00,0.76
9885.00,0.75
9884.00,0.74
9883.00,0.73
9882.00,0.73
9881.00,0.72
9880.00,0.71
9879.00,0.70
9878.00,0.69
9877.00,0.68
9876.00,0.67
9875.00,0.66
9874.00,0.65
9873.00,0.65
9872.00,0.64
9871.00,0.64
9870.00,0.64
9869.00,0.63
9868.00,0.63
9867.00,0.63
9866.00,0.63
9865.00,0.63
9864.00,0.62
9863.00,0.62
9862.00,0.62
9861.00,0.61
9860.00,0.60
9859.00,0.60
9858.00,0.59
9857.00,0.58
9856.00,0.58
9855.00,0.57
9854.00,0.57
9853.00,0.56
9852.00,0.56
9851.00,0.55
9850.00,0.55
9849.00,0.55
9848.00,0.55
9847.00,0.55
9846.00,0.54
9845.00,0.54
9844.00,0.54
9843.00,0.54
9842.00,0.54
9841.00,0.54
9840.00,0.54
9839.00,0.54
9838.00,0.54
9837.00,0.54
9836.00,0.55
9835.00,0.55
9834.00,0.56
9833.00,0.57
9832.00,0.58
9831.00,0.59
9830.00,0.60
9829.00,0.60
9828.00,0.61
9827.00,0.62
9826.00,0.63
9825.00,0.64
9824.00,0.65
9823.00,0.65
9822.00,0.66
9821.00,0.67
9820.00,0.67
9819.00,0.68
9818.00,0.68
9817.00,0.69
9816.00,0.69
9815.00,0.69
9814.00,0.69
9813.00,0.69
9812.00,0.69
9811.00,0.69
9810.00,0.69
9809.00,0.68
9808.00,0.68
9807.00,0.67
9806.00,0.66
9805.00,0.66
9804.00,0.65
9803.00,0.64
9802.00,0.63
9801.00,0.63
9800.00,0.62
9799.00,0.62
9798.00,0.61
9797.00,0.61
9796.00,0.60
9795.00,0.60
9794.00,0.59
9793.00,0.59
9792.00,0.58
9791.00,0.58
9790.00,0.57
9789.00,0.57
9788.00,0.57
9787.00,0.56
9786.00,0.56
9785.00,0.56
9784.00,0.56
9783.00,0.56
9782.00,0.56
9781.00,0.56
9780.00,0.56
9779.00,0.56
9778.00,0.57
9777.00,0.57
9776.00,0.57
9775.00,0.57
9774.00,0.57
9773.00,0.58
9772.00,0.58
9771.00,0.58
9770.00,0.59
9769.00,0.59
9768.00,0.59
9767.00,0.60
9766.00,0.60
9765.00,0.61
9764.00,0.61
9763.00,0.61
9762.00,0.62
9761.00,0.62
9760.00,0.63
9759.00,0.63
9758.00,0.63
9757.00,0.64
9756.00,0.64
9755.00,0.64
9754.00,0.65
9753.00,0.65
9752.00,0.65
9751.00,0.66
9750.00,0.66
9749.00,0.66
9748.00,0.66
9747.00,0.66
9746.00,0.66
9745.00,0.66
9744.00,0.66
9743.00,0.66
9742.00,0.66
9741.00,0.66
9740.00,0.65
9739.00,0.65
9738.00,0.65
9737.00,0.64
9736.00,0.64
9735.00,0.64
9734.00,0.63
9733.00,0.63
9732.00,0.63
9731.00,0.63
9730.00,0.62
9729.00,0.62
9728.00,0.62
9727.00,0.62
9726.00,0.62
9725.00,0.62
9724.00,0.62
9723.00,0.62
9722.00,0.62
9721.00,0.61
9720.00,0.61
9719.00,0.61
9718.00,0.62
9717.00,0.62
9716.00,0.62
9715.00,0.62
9714.00,0.62
9713.00,0.62
9712.00,0.62
9711.00,0.62
9710.00,0.63
9709.00,0.63
9708.00,0.63
9707.00,0.63
9706.00,0.64
9705.00,0.64
9704.00,0.64
9703.00,0.65
9702.00,0.65
9701.00,0.65
9700.00,0.65
9699.00,0.66
9698.00,0.66
9697.00,0.66
9696.00,0.67
9695.00,0.67
9694.00,0.67
9693.00,0.68
9692.00,0.68
9691.00,0.68
9690.00,0.68
9689.00,0.69
9688.00,0.69
9687.00,0.70
9686.00,0.70
9685.00,0.70
9684.00,0.71
9683.00,0.71
9682.00,0.72
9681.00,0.72
9680.00,0.72
9679.00,0.73
9678.00,0.73
9677.00,0.73
9676.00,0.73
9675.00,0.73
9674.00,0.73
9673.00,0.73
9672.00,0.73
9671.00,0.73
9670.00,0.73
9669.00,0.73
9668.00,0.73
9667.00,0.73
9666.00,0.73
9665.00,0.73
9664.00,0.73
9663.00,0.73
9662.00,0.73
9661.00,0.73
9660.00,0.72
9659.00,0.72
9658.00,0.72
9657.00,0.71
9656.00,0.71
9655.00,0.70
9654.00,0.70
9653.00,0.69
9652.00,0.69
9651.00,0.69
9650.00,0.68
9649.00,0.68
9648.00,0.67
9647.00,0.66
9646.00,0.66
9645.00,0.65
9644.00,0.64
9643.00,0.64
9642.00,0.63
9641.00,0.62
9640.00,0.62
9639.00,0.61
9638.00,0.61
9637.00,0.60
9636.00,0.60
9635.00,0.59
9634.00,0.59
9633.00,0.59
9632.00,0.58
9631.00,0.58
9630.00,0.57
9629.00,0.57
9628.00,0.57
9627.00,0.56
9626.00,0.56
9625.00,0.55
9624.00,0.55
9623.00,0.55
9622.00,0.55
9621.00,0.55
9620.00,0.54
9619.00,0.54
9618.00,0.54
9617.00,0.54
9616.00,0.54
9615.00,0.54
9614.00,0.54
9613.00,0.53
9612.00,0.53
9611.00,0.53
9610.00,0.53
9609.00,0.53
9608.00,0.52
9607.00,0.52
9606.00,0.52
9605.00,0.52
9604.00,0.53
9603.00,0.53
9602.00,0.53
9601.00,0.53
9600.00,0.54
9599.00,0.54
9598.00,0.54
9597.00,0.54
9596.00,0.54
9595.00,0.54
9594.00,0.54
9593.00,0.54
9592.00,0.54
9591.00,0.55
9590.00,0.55
9589.00,0.55
9588.00,0.55
9587.00,0.56
9586.00,0.56
9585.00,0.56
9584.00,0.56
9583.00,0.56
9582.00,0.57
9581.00,0.57
9580.00,0.57
9579.00,0.56
9578.00,0.56
9577.00,0.56
9576.00,0.56
9575.00,0.56
9574.00,0.56
9573.00,0.56
9572.00,0.56
9571.00,0.56
9570.00,0.57
9569.00,0.57
9568.00,0.58
9567.00,0.58
9566.00,0.59
9565.00,0.59
9564.00,0.59
9563.00,0.60
9562.00,0.60
9561.00,0.60
9560.00,0.61
9559.00,0.61
9558.00,0.61
9557.00,0.61
9556.00,0.62
9555.00,0.62
9554.00,0.62
9553.00,0.62
9552.00,0.62
9551.00,0.63
9550.00,0.63
9549.00,0.63
9548.00,0.63
9547.00,0.63
9546.00,0.63
9545.00,0.63
9544.00,0.63
9543.00,0.62
9542.00,0.62
9541.00,0.61
9540.00,0.61
9539.00,0.60
9538.00,0.60
9537.00,0.59
9536.00,0.59
9535.00,0.59
9534.00,0.58
9533.00,0.58
9532.00,0.58
9531.00,0.58
9530.00,0.58
9529.00,0.58
9528.00,0.57
9527.00,0.57
9526.00,0.57
9525.00,0.57
9524.00,0.57
9523.00,0.57
9522.00,0.57
9521.00,0.57
9520.00,0.57
9519.00,0.57
9518.00,0.57
9517.00,0.58
9516.00,0.58
9515.00,0.58
9514.00,0.58
9513.00,0.58
9512.00,0.59
9511.00,0.59
9510.00,0.59
9509.00,0.60
9508.00,0.60
9507.00,0.60
9506.00,0.61
9505.00,0.61
9504.00,0.62
9503.00,0.62
9502.00,0.63
9501.00,0.63
9500.00,0.64
9499.00,0.64
9498.00,0.64
9497.00,0.65
9496.00,0.65
9495.00,0.65
9494.00,0.65
9493.00,0.66
9492.00,0.66
9491.00,0.66
9490.00,0.66
9489.00,0.66
9488.00,0.67
9487.00,0.67
9486.00,0.67
9485.00,0.67
9484.00,0.67
9483.00,0.67
9482.00,0.67
9481.00,0.67
9480.00,0.67
9479.00,0.66
9478.00,0.66
9477.00,0.66
9476.00,0.65
9475.00,0.65
9474.00,0.65
9473.00,0.64
9472.00,0.64
9471.00,0.64
9470.00,0.64
9469.00,0.64
9468.00,0.64
9467.00,0.64
9466.00,0.64
9465.00,0.64
9464.00,0.64
9463.00,0.65
9462.00,0.65
9461.00,0.65
9460.00,0.65
9459.00,0.65
9458.00,0.65
9457.00,0.66
9456.00,0.66
9455.00,0.66
9454.00,0.66
9453.00,0.67
9452.00,0.67
9451.00,0.67
9450.00,0.68
9449.00,0.68
9448.00,0.68
9447.00,0.69
9446.00,0.69
9445.00,0.69
9444.00,0.69
9443.00,0.69
9442.00,0.70
9441.00,0.70
9440.00,0.70
9439.00,0.70
9438.00,0.70
9437.00,0.70
9436.00,0.70
9435.00,0.69
9434.00,0.69
9433.00,0.69
9432.00,0.69
9431.00,0.69
9430.00,0.68
9429.00,0.68
9428.00,0.68
9427.00,0.68
9426.00,0.68
9425.00,0.68
9424.00,0.68
9423.00,0.69
9422.00,0.69
9421.00,0.69
9420.00,0.69
9419.00,0.69
9418.00,0.70
9417.00,0.70
9416.00,0.70
9415.00,0.70
9414.00,0.71
9413.00,0.71
9412.00,0.71
9411.00,0.72
9410.00,0.72
9409.00,0.73
9408.00,0.73
9407.00,0.74
9406.00,0.74
9405.00,0.75
9404.00,0.75
9403.00,0.76
9402.00,0.77
9401.00,0.77
9400.00,0.77
9399.00,0.77
9398.00,0.78
9397.00,0.77
9396.00,0.77
9395.00,0.77
9394.00,0.77
9393.00,0.76
9392.00,0.76
9391.00,0.75
9390.00,0.74
9389.00,0.73
9388.00,0.72
9387.00,0.71
9386.00,0.71
9385.00,0.69
9384.00,0.68
9383.00,0.67
9382.00,0.66
9381.00,0.65
9380.00,0.64
9379.00,0.63
9378.00,0.61
9377.00,0.60
9376.00,0.59
9375.00,0.57
9374.00,0.56
9373.00,0.55
9372.00,0.53
9371.00,0.52
9370.00,0.52
9369.00,0.51
9368.00,0.50
9367.00,0.50
9366.00,0.49
9365.00,0.49
9364.00,0.49
9363.00,0.49
9362.00,0.49
9361.00,0.49
9360.00,0.49
9359.00,0.50
9358.00,0.50
9357.00,0.51
9356.00,0.51
9355.00,0.52
9354.00,0.53
9353.00,0.53
9352.00,0.54
9351.00,0.55
9350.00,0.56
9349.00,0.57
9348.00,0.57
9347.00,0.58
9346.00,0.59
9345.00,0.59
9344.00,0.60
9343.00,0.61
9342.00,0.61
9341.00,0.62
9340.00,0.62
9339.00,0.63
9338.00,0.63
9337.00,0.64
9336.00,0.64
9335.00,0.65
9334.00,0.65
9333.00,0.65
9332.00,0.65
9331.00,0.65
9330.00,0.66
9329.00,0.65
9328.00,0.65
9327.00,0.65
9326.00,0.65
9325.00,0.65
9324.00,0.65
9323.00,0.65
9322.00,0.65
9321.00,0.65
9320.00,0.65
9319.00,0.65
9318.00,0.65
9317.00,0.65
9316.00,0.65
9315.00,0.65
9314.00,0.65
9313.00,0.65
9312.00,0.65
9311.00,0.65
9310.00,0.65
9309.00,0.65
9308.00,0.65
9307.00,0.64
9306.00,0.64
9305.00,0.64
9304.00,0.65
9303.00,0.65
9302.00,0.65
9301.00,0.65
9300.00,0.65
9299.00,0.66
9298.00,0.66
9297.00,0.66
9296.00,0.66
9295.00,0.66
9294.00,0.67
9293.00,0.67
9292.00,0.67
9291.00,0.67
9290.00,0.67
9289.00,0.67
9288.00,0.67
9287.00,0.67
9286.00,0.67
9285.00,0.67
9284.00,0.67
9283.00,0.67
9282.00,0.67
9281.00,0.68
9280.00,0.67
9279.00,0.67
9278.00,0.67
9277.00,0.67
9276.00,0.67
9275.00,0.66
9274.00,0.66
9273.00,0.65
9272.00,0.64
9271.00,0.64
9270.00,0.63
9269.00,0.62
9268.00,0.62
9267.00,0.61
9266.00,0.60
9265.00,0.59
9264.00,0.59
9263.00,0.58
9262.00,0.58
9261.00,0.57
9260.00,0.57
9259.00,0.57
9258.00,0.56
9257.00,0.56
9256.00,0.55
9255.00,0.55
9254.00,0.55
9253.00,0.55
9252.00,0.55
9251.00,0.55
9250.00,0.54
9249.00,0.55
9248.00,0.55
9247.00,0.55
9246.00,0.55
9245.00,0.55
9244.00,0.56
9243.00,0.56
9242.00,0.57
9241.00,0.58
9240.00,0.58
9239.00,0.59
9238.00,0.60
9237.00,0.61
9236.00,0.62
9235.00,0.62
9234.00,0.63
9233.00,0.64
9232.00,0.65
9231.00,0.65
9230.00,0.66
9229.00,0.66
9228.00,0.67
9227.00,0.67
9226.00,0.68
9225.00,0.68
9224.00,0.69
9223.00,0.69
9222.00,0.70
9221.00,0.70
9220.00,0.70
9219.00,0.71
9218.00,0.71
9217.00,0.71
9216.00,0.71
9215.00,0.71
9214.00,0.71
9213.00,0.71
9212.00,0.71
9211.00,0.70
9210.00,0.69
9209.00,0.69
9208.00,0.68
9207.00,0.67
9206.00,0.66
9205.00,0.66
9204.00,0.65
9203.00,0.65
9202.00,0.64
9201.00,0.64
9200.00,0.63
9199.00,0.62
9198.00,0.62
9197.00,0.61
9196.00,0.61
9195.00,0.60
9194.00,0.59
9193.00,0.59
9192.00,0.58
9191.00,0.58
9190.00,0.57
9189.00,0.57
9188.00,0.57
9187.00,0.56
9186.00,0.56
9185.00,0.56
9184.00,0.57
9183.00,0.57
9182.00,0.57
9181.00,0.57
9180.00,0.58
9179.00,0.58
9178.00,0.58
9177.00,0.58
9176.00,0.58
9175.00,0.58
9174.00,0.59
9173.00,0.59
9172.00,0.59
9171.00,0.59
9170.00,0.59
9169.00,0.60
9168.00,0.60
9167.00,0.60
9166.00,0.61
9165.00,0.61
9164.00,0.61
9163.00,0.61
9162.00,0.62
9161.00,0.62
9160.00,0.62
9159.00,0.62
9158.00,0.62
9157.00,0.62
9156.00,0.61
9155.00,0.61
9154.00,0.61
9153.00,0.61
9152.00,0.62
9151.00,0.62
9150.00,0.62
9149.00,0.62
9148.00,0.62
9147.00,0.63
9146.00,0.63
9145.00,0.63
9144.00,0.63
9143.00,0.63
9142.00,0.63
9141.00,0.63
9140.00,0.63
9139.00,0.63
9138.00,0.63
9137.00,0.63
9136.00,0.63
9135.00,0.63
9134.00,0.63
9133.00,0.63
9132.00,0.63
9131.00,0.63
9130.00,0.64
9129.00,0.64
9128.00,0.64
9127.00,0.64
9126.00,0.64
9125.00,0.64
9124.00,0.64
9123.00,0.64
9122.00,0.64
9121.00,0.64
9120.00,0.64
9119.00,0.64
9118.00,0.64
9117.00,0.64
9116.00,0.64
9115.00,0.64
9114.00,0.64
9113.00,0.64
9112.00,0.64
9111.00,0.65
9110.00,0.65
9109.00,0.65
9108.00,0.65
9107.00,0.65
9106.00,0.64
9105.00,0.64
9104.00,0.64
9103.00,0.64
9102.00,0.64
9101.00,0.64
9100.00,0.64
9099.00,0.64
9098.00,0.64
9097.00,0.63
9096.00,0.63
9095.00,0.63
9094.00,0.63
9093.00,0.63
9092.00,0.63
9091.00,0.63
9090.00,0.62
9089.00,0.62
9088.00,0.62
9087.00,0.62
9086.00,0.61
9085.00,0.61
9084.00,0.60
9083.00,0.60
9082.00,0.60
9081.00,0.59
9080.00,0.59
9079.00,0.59
9078.00,0.59
9077.00,0.58
9076.00,0.58
9075.00,0.58
9074.00,0.58
9073.00,0.58
9072.00,0.57
9071.00,0.57
9070.00,0.57
9069.00,0.57
9068.00,0.57
9067.00,0.58
9066.00,0.58
9065.00,0.58
9064.00,0.58
9063.00,0.58
9062.00,0.58
9061.00,0.59
9060.00,0.59
9059.00,0.59
9058.00,0.60
9057.00,0.60
9056.00,0.61
9055.00,0.61
9054.00,0.62
9053.00,0.62
9052.00,0.63
9051.00,0.63
9050.00,0.64
9049.00,0.65
9048.00,0.65
9047.00,0.66
9046.00,0.66
9045.00,0.67
9044.00,0.67
9043.00,0.67
9042.00,0.68
9041.00,0.68
9040.00,0.69
9039.00,0.69
9038.00,0.70
9037.00,0.70
9036.00,0.70
9035.00,0.70
9034.00,0.71
9033.00,0.71
9032.00,0.71
9031.00,0.71
9030.00,0.71
9029.00,0.71
9028.00,0.71
9027.00,0.71
9026.00,0.70
9025.00,0.70
9024.00,0.70
9023.00,0.70
9022.00,0.70
9021.00,0.69
9020.00,0.69
9019.00,0.69
9018.00,0.69
9017.00,0.68
9016.00,0.68
9015.00,0.68
9014.00,0.68
9013.00,0.67
9012.00,0.67
9011.00,0.67
9010.00,0.66
9009.00,0.66
9008.00,0.66
9007.00,0.65
9006.00,0.65
9005.00,0.65
9004.00,0.65
9003.00,0.65
9002.00,0.65
9001.00,0.65
9000.00,0.66
8999.00,0.66
8998.00,0.66
8997.00,0.66
8996.00,0.67
8995.00,0.67
8994.00,0.67
8993.00,0.67
8992.00,0.68
8991.00,0.68
8990.00,0.68
8989.00,0.69
8988.00,0.69
8987.00,0.69
8986.00,0.70
8985.00,0.71
8984.00,0.71
8983.00,0.72
8982.00,0.73
8981.00,0.73
8980.00,0.74
8979.00,0.74
8978.00,0.75
8977.00,0.75
8976.00,0.76
8975.00,0.76
8974.00,0.76
8973.00,0.76
8972.00,0.76
8971.00,0.76
8970.00,0.76
8969.00,0.76
8968.00,0.76
8967.00,0.76
8966.00,0.76
8965.00,0.76
8964.00,0.76
8963.00,0.76
8962.00,0.76
8961.00,0.76
8960.00,0.75
8959.00,0.75
8958.00,0.74
8957.00,0.74
8956.00,0.73
8955.00,0.73
8954.00,0.72
8953.00,0.72
8952.00,0.72
8951.00,0.71
8950.00,0.71
8949.00,0.71
8948.00,0.71
8947.00,0.70
8946.00,0.70
8945.00,0.70
8944.00,0.71
8943.00,0.71
8942.00,0.71
8941.00,0.71
8940.00,0.71
8939.00,0.71
8938.00,0.71
8937.00,0.71
8936.00,0.71
8935.00,0.71
8934.00,0.71
8933.00,0.71
8932.00,0.71
8931.00,0.71
8930.00,0.71
8929.00,0.70
8928.00,0.70
8927.00,0.70
8926.00,0.70
8925.00,0.69
8924.00,0.69
8923.00,0.68
8922.00,0.68
8921.00,0.67
8920.00,0.66
8919.00,0.66
8918.00,0.65
8917.00,0.64
8916.00,0.63
8915.00,0.63
8914.00,0.62
8913.00,0.62
8912.00,0.61
8911.00,0.60
8910.00,0.60
8909.00,0.60
8908.00,0.59
8907.00,0.59
8906.00,0.59
8905.00,0.58
8904.00,0.58
8903.00,0.58
8902.00,0.58
8901.00,0.58
8900.00,0.59
8899.00,0.59
8898.00,0.59
8897.00,0.59
8896.00,0.60
8895.00,0.60
8894.00,0.60
8893.00,0.61
8892.00,0.61
8891.00,0.61
8890.00,0.61
8889.00,0.61
8888.00,0.61
8887.00,0.62
8886.00,0.62
8885.00,0.62
8884.00,0.62
8883.00,0.62
8882.00,0.62
8881.00,0.62
8880.00,0.62
8879.00,0.62
8878.00,0.63
8877.00,0.63
8876.00,0.63
8875.00,0.63
8874.00,0.63
8873.00,0.63
8872.00,0.62
8871.00,0.62
8870.00,0.62
8869.00,0.62
8868.00,0.62
8867.00,0.62
8866.00,0.62
8865.00,0.62
8864.00,0.62
8863.00,0.62
8862.00,0.62
8861.00,0.62
8860.00,0.63
8859.00,0.63
8858.00,0.63
8857.00,0.63
8856.00,0.63
8855.00,0.64
8854.00,0.64
8853.00,0.64
8852.00,0.64
8851.00,0.64
8850.00,0.64
8849.00,0.64
8848.00,0.64
8847.00,0.64
8846.00,0.64
8845.00,0.64
8844.00,0.64
8843.00,0.65
8842.00,0.65
8841.00,0.66
8840.00,0.66
8839.00,0.67
8838.00,0.67
8837.00,0.68
8836.00,0.68
8835.00,0.69
8834.00,0.69
8833.00,0.70
8832.00,0.70
8831.00,0.71
8830.00,0.71
8829.00,0.71
8828.00,0.71
8827.00,0.72
8826.00,0.72
8825.00,0.72
8824.00,0.73
8823.00,0.73
8822.00,0.73
8821.00,0.73
8820.00,0.74
8819.00,0.74
8818.00,0.74
8817.00,0.74
8816.00,0.73
8815.00,0.73
8814.00,0.73
8813.00,0.72
8812.00,0.72
8811.00,0.71
8810.00,0.71
8809.00,0.70
8808.00,0.70
8807.00,0.69
8806.00,0.69
8805.00,0.69
8804.00,0.68
8803.00,0.68
8802.00,0.68
8801.00,0.68
8800.00,0.68
8799.00,0.68
8798.00,0.68
8797.00,0.68
8796.00,0.68
8795.00,0.68
8794.00,0.68
8793.00,0.68
8792.00,0.68
8791.00,0.69
8790.00,0.69
8789.00,0.69
8788.00,0.69
8787.00,0.69
8786.00,0.69
8785.00,0.69
8784.00,0.69
8783.00,0.69
8782.00,0.69
8781.00,0.69
8780.00,0.69
8779.00,0.69
8778.00,0.68
8777.00,0.68
8776.00,0.67
8775.00,0.67
8774.00,0.67
8773.00,0.66
8772.00,0.66
8771.00,0.65
8770.00,0.65
8769.00,0.64
8768.00,0.64
8767.00,0.63
8766.00,0.63
8765.00,0.63
8764.00,0.62
8763.00,0.62
8762.00,0.62
8761.00,0.62
8760.00,0.62
8759.00,0.61
8758.00,0.62
8757.00,0.62
8756.00,0.62
8755.00,0.62
8754.00,0.62
8753.00,0.62
8752.00,0.63
8751.00,0.63
8750.00,0.63
8749.00,0.63
8748.00,0.64
8747.00,0.64
8746.00,0.64
8745.00,0.64
8744.00,0.65
8743.00,0.65
8742.00,0.65
8741.00,0.65
8740.00,0.65
8739.00,0.65
8738.00,0.65
8737.00,0.65
8736.00,0.65
8735.00,0.65
8734.00,0.65
8733.00,0.65
8732.00,0.65
8731.00,0.64
8730.00,0.64
8729.00,0.64
8728.00,0.64
8727.00,0.64
8726.00,0.64
8725.00,0.64
8724.00,0.64
8723.00,0.64
8722.00,0.64
8721.00,0.64
8720.00,0.64
8719.00,0.64
8718.00,0.64
8717.00,0.64
8716.00,0.65
8715.00,0.65
8714.00,0.65
8713.00,0.66
8712.00,0.66
8711.00,0.66
8710.00,0.67
8709.00,0.67
8708.00,0.67
8707.00,0.68
8706.00,0.68
8705.00,0.69
8704.00,0.69
8703.00,0.69
8702.00,0.70
8701.00,0.70
8700.00,0.71
8699.00,0.71
8698.00,0.72
8697.00,0.72
8696.00,0.72
8695.00,0.73
8694.00,0.73
8693.00,0.74
8692.00,0.74
8691.00,0.74
8690.00,0.74
8689.00,0.75
8688.00,0.75
8687.00,0.75
8686.00,0.75
8685.00,0.76
8684.00,0.76
8683.00,0.76
8682.00,0.76
8681.00,0.76
8680.00,0.77
8679.00,0.77
8678.00,0.77
8677.00,0.77
8676.00,0.76
8675.00,0.76
8674.00,0.76
8673.00,0.76
8672.00,0.75
8671.00,0.75
8670.00,0.75
8669.00,0.74
8668.00,0.74
8667.00,0.74
8666.00,0.73
8665.00,0.73
8664.00,0.72
8663.00,0.72
8662.00,0.72
8661.00,0.71
8660.00,0.71
8659.00,0.70
8658.00,0.70
8657.00,0.69
8656.00,0.69
8655.00,0.68
8654.00,0.68
8653.00,0.67
8652.00,0.67
8651.00,0.66
8650.00,0.66
8649.00,0.66
8648.00,0.66
8647.00,0.65
8646.00,0.65
8645.00,0.66
8644.00,0.66
8643.00,0.66
8642.00,0.66
8641.00,0.66
8640.00,0.66
8639.00,0.67
8638.00,0.67
8637.00,0.67
8636.00,0.68
8635.00,0.68
8634.00,0.68
8633.00,0.69
8632.00,0.69
8631.00,0.69
8630.00,0.69
8629.00,0.70
8628.00,0.70
8627.00,0.70
8626.00,0.71
8625.00,0.71
8624.00,0.71
8623.00,0.71
8622.00,0.71
8621.00,0.71
8620.00,0.71
8619.00,0.71
8618.00,0.71
8617.00,0.71
8616.00,0.71
8615.00,0.71
8614.00,0.70
8613.00,0.70
8612.00,0.70
8611.00,0.70
8610.00,0.69
8609.00,0.69
8608.00,0.69
8607.00,0.69
8606.00,0.69
8605.00,0.69
8604.00,0.69
8603.00,0.69
8602.00,0.69
8601.00,0.69
8600.00,0.69
8599.00,0.69
8598.00,0.69
8597.00,0.69
8596.00,0.70
8595.00,0.70
8594.00,0.70
8593.00,0.70
8592.00,0.71
8591.00,0.71
8590.00,0.71
8589.00,0.71
8588.00,0.71
8587.00,0.71
8586.00,0.71
8585.00,0.72
8584.00,0.72
8583.00,0.72
8582.00,0.72
8581.00,0.72
8580.00,0.72
8579.00,0.72
8578.00,0.71
8577.00,0.71
8576.00,0.71
8575.00,0.71
8574.00,0.70
8573.00,0.70
8572.00,0.70
8571.00,0.69
8570.00,0.69
8569.00,0.68
8568.00,0.68
8567.00,0.68
8566.00,0.67
8565.00,0.67
8564.00,0.66
8563.00,0.66
8562.00,0.66
8561.00,0.65
8560.00,0.65
8559.00,0.65
8558.00,0.64
8557.00,0.64
8556.00,0.63
8555.00,0.63
8554.00,0.62
8553.00,0.62
8552.00,0.62
8551.00,0.61
8550.00,0.61
8549.00,0.61
8548.00,0.61
8547.00,0.60
8546.00,0.60
8545.00,0.60
8544.00,0.60
8543.00,0.60
8542.00,0.60
8541.00,0.59
8540.00,0.59
8539.00,0.59
8538.00,0.59
8537.00,0.59
8536.00,0.59
8535.00,0.59
8534.00,0.59
8533.00,0.60
8532.00,0.60
8531.00,0.60
8530.00,0.61
8529.00,0.61
8528.00,0.62
8527.00,0.62
8526.00,0.63
8525.00,0.63
8524.00,0.64
8523.00,0.64
8522.00,0.65
8521.00,0.65
8520.00,0.65
8519.00,0.66
8518.00,0.66
8517.00,0.66
8516.00,0.66
8515.00,0.67
8514.00,0.67
8513.00,0.67
8512.00,0.67
8511.00,0.67
8510.00,0.67
8509.00,0.68
8508.00,0.68
8507.00,0.68
8506.00,0.67
8505.00,0.67
8504.00,0.67
8503.00,0.67
8502.00,0.67
8501.00,0.67
8500.00,0.66
8499.00,0.66
8498.00,0.66
8497.00,0.65
8496.00,0.65
8495.00,0.65
8494.00,0.65
8493.00,0.65
8492.00,0.64
8491.00,0.64
8490.00,0.64
8489.00,0.64
8488.00,0.64
8487.00,0.64
8486.00,0.64
8485.00,0.63
8484.00,0.63
8483.00,0.63
8482.00,0.63
8481.00,0.63
8480.00,0.63
8479.00,0.63
8478.00,0.63
8477.00,0.63
8476.00,0.63
8475.00,0.63
8474.00,0.63
8473.00,0.63
8472.00,0.63
8471.00,0.63
8470.00,0.63
8469.00,0.63
8468.00,0.63
8467.00,0.63
8466.00,0.63
8465.00,0.63
8464.00,0.63
8463.00,0.63
8462.00,0.63
8461.00,0.64
8460.00,0.64
8459.00,0.64
8458.00,0.64
8457.00,0.64
8456.00,0.64
8455.00,0.64
8454.00,0.64
8453.00,0.64
8452.00,0.64
8451.00,0.64
8450.00,0.64
8449.00,0.64
8448.00,0.64
8447.00,0.64
8446.00,0.64
8445.00,0.64
8444.00,0.64
8443.00,0.64
8442.00,0.64
8441.00,0.64
8440.00,0.64
8439.00,0.63
8438.00,0.63
8437.00,0.63
8436.00,0.63
8435.00,0.63
8434.00,0.62
8433.00,0.62
8432.00,0.62
8431.00,0.62
8430.00,0.62
8429.00,0.61
8428.00,0.61
8427.00,0.61
8426.00,0.61
8425.00,0.61
8424.00,0.62
8423.00,0.62
8422.00,0.62
8421.00,0.62
8420.00,0.62
8419.00,0.63
8418.00,0.63
8417.00,0.63
8416.00,0.63
8415.00,0.63
8414.00,0.63
8413.00,0.63
8412.00,0.63
8411.00,0.64
8410.00,0.64
8409.00,0.64
8408.00,0.64
8407.00,0.64
8406.00,0.64
8405.00,0.64
8404.00,0.64
8403.00,0.64
8402.00,0.64
8401.00,0.64
8400.00,0.64
8399.00,0.63
8398.00,0.63
8397.00,0.63
8396.00,0.62
8395.00,0.62
8394.00,0.61
8393.00,0.61
8392.00,0.60
8391.00,0.60
8390.00,0.59
8389.00,0.59
8388.00,0.59
8387.00,0.58
8386.00,0.58
8385.00,0.58
8384.00,0.57
8383.00,0.57
8382.00,0.57
8381.00,0.57
8380.00,0.57
8379.00,0.56
8378.00,0.56
8377.00,0.56
8376.00,0.56
8375.00,0.56
8374.00,0.56
8373.00,0.56
8372.00,0.56
8371.00,0.57
8370.00,0.57
8369.00,0.57
8368.00,0.58
8367.00,0.58
8366.00,0.59
8365.00,0.59
8364.00,0.60
8363.00,0.60
8362.00,0.61
8361.00,0.61
8360.00,0.62
8359.00,0.62
8358.00,0.63
8357.00,0.63
8356.00,0.64
8355.00,0.64
8354.00,0.65
8353.00,0.66
8352.00,0.66
8351.00,0.67
8350.00,0.67
8349.00,0.68
8348.00,0.68
8347.00,0.69
8346.00,0.69
8345.00,0.70
8344.00,0.70
8343.00,0.71
8342.00,0.71
8341.00,0.71
8340.00,0.71
8339.00,0.72
8338.00,0.72
8337.00,0.72
8336.00,0.72
8335.00,0.72
8334.00,0.72
8333.00,0.72
8332.00,0.72
8331.00,0.72
8330.00,0.72
8329.00,0.72
8328.00,0.71
8327.00,0.71
8326.00,0.71
8325.00,0.71
8324.00,0.71
8323.00,0.71
8322.00,0.71
8321.00,0.70
8320.00,0.70
8319.00,0.70
8318.00,0.70
8317.00,0.69
8316.00,0.69
8315.00,0.69
8314.00,0.69
8313.00,0.68
8312.00,0.68
8311.00,0.68
8310.00,0.68
8309.00,0.68
8308.00,0.68
8307.00,0.67
8306.00,0.67
8305.00,0.67
8304.00,0.67
8303.00,0.67
8302.00,0.66
8301.00,0.66
8300.00,0.66
8299.00,0.66
8298.00,0.66
8297.00,0.65
8296.00,0.65
8295.00,0.66
8294.00,0.66
8293.00,0.66
8292.00,0.66
8291.00,0.67
8290.00,0.67
8289.00,0.67
8288.00,0.68
8287.00,0.68
8286.00,0.69
8285.00,0.69
8284.00,0.70
8283.00,0.70
8282.00,0.70
8281.00,0.71
8280.00,0.72
8279.00,0.72
8278.00,0.73
8277.00,0.73
8276.00,0.74
8275.00,0.75
8274.00,0.75
8273.00,0.76
8272.00,0.76
8271.00,0.76
8270.00,0.77
8269.00,0.77
8268.00,0.77
8267.00,0.77
8266.00,0.77
8265.00,0.77
8264.00,0.77
8263.00,0.76
8262.00,0.76
8261.00,0.76
8260.00,0.76
8259.00,0.75
8258.00,0.75
8257.00,0.75
8256.00,0.74
8255.00,0.74
8254.00,0.73
8253.00,0.73
8252.00,0.72
8251.00,0.72
8250.00,0.71
8249.00,0.71
8248.00,0.70
8247.00,0.70
8246.00,0.69
8245.00,0.69
8244.00,0.68
8243.00,0.68
8242.00,0.68
8241.00,0.67
8240.00,0.67
8239.00,0.67
8238.00,0.67
8237.00,0.67
8236.00,0.66
8235.00,0.66
8234.00,0.66
8233.00,0.66
8232.00,0.66
8231.00,0.66
8230.00,0.66
8229.00,0.66
8228.00,0.66
8227.00,0.66
8226.00,0.66
8225.00,0.66
8224.00,0.66
8223.00,0.66
8222.00,0.66
8221.00,0.66
8220.00,0.66
8219.00,0.66
8218.00,0.66
8217.00,0.66
8216.00,0.65
8215.00,0.65
8214.00,0.65
8213.00,0.65
8212.00,0.65
8211.00,0.65
8210.00,0.65
8209.00,0.65
8208.00,0.64
8207.00,0.64
8206.00,0.64
8205.00,0.64
8204.00,0.63
8203.00,0.63
8202.00,0.63
8201.00,0.63
8200.00,0.62
8199.00,0.62
8198.00,0.62
8197.00,0.62
8196.00,0.63
8195.00,0.63
8194.00,0.63
8193.00,0.63
8192.00,0.63
8191.00,0.63
8190.00,0.64
8189.00,0.64
8188.00,0.64
8187.00,0.64
8186.00,0.64
8185.00,0.64
8184.00,0.65
8183.00,0.65
8182.00,0.65
8181.00,0.66
8180.00,0.66
8179.00,0.67
8178.00,0.67
8177.00,0.68
8176.00,0.68
8175.00,0.69
8174.00,0.69
8173.00,0.70
8172.00,0.70
8171.00,0.71
8170.00,0.71
8169.00,0.72
8168.00,0.72
8167.00,0.72
8166.00,0.73
8165.00,0.73
8164.00,0.73
8163.00,0.74
8162.00,0.74
8161.00,0.74
8160.00,0.75
8159.00,0.75
8158.00,0.76
8157.00,0.76
8156.00,0.77
8155.00,0.77
8154.00,0.77
8153.00,0.78
8152.00,0.78
8151.00,0.78
8150.00,0.78
8149.00,0.78
8148.00,0.78
8147.00,0.78
8146.00,0.78
8145.00,0.78
8144.00,0.78
8143.00,0.78
8142.00,0.77
8141.00,0.77
8140.00,0.77
8139.00,0.77
8138.00,0.77
8137.00,0.76
8136.00,0.76
8135.00,0.76
8134.00,0.75
8133.00,0.75
8132.00,0.74
8131.00,0.74
8130.00,0.73
8129.00,0.73
8128.00,0.72
8127.00,0.71
8126.00,0.71
8125.00,0.70
8124.00,0.70
8123.00,0.69
8122.00,0.69
8121.00,0.68
8120.00,0.68
8119.00,0.68
8118.00,0.67
8117.00,0.67
8116.00,0.67
8115.00,0.67
8114.00,0.66
8113.00,0.66
8112.00,0.66
8111.00,0.66
8110.00,0.66
8109.00,0.66
8108.00,0.66
8107.00,0.66
8106.00,0.66
8105.00,0.66
8104.00,0.66
8103.00,0.66
8102.00,0.66
8101.00,0.66
8100.00,0.66
8099.00,0.66
8098.00,0.66
8097.00,0.66
8096.00,0.67
8095.00,0.67
8094.00,0.67
8093.00,0.67
8092.00,0.67
8091.00,0.68
8090.00,0.68
8089.00,0.68
8088.00,0.68
8087.00,0.68
8086.00,0.69
8085.00,0.69
8084.00,0.69
8083.00,0.69
8082.00,0.69
8081.00,0.70
8080.00,0.70
8079.00,0.70
8078.00,0.71
8077.00,0.71
8076.00,0.71
8075.00,0.71
8074.00,0.71
8073.00,0.71
8072.00,0.72
8071.00,0.72
8070.00,0.72
8069.00,0.72
8068.00,0.72
8067.00,0.72
8066.00,0.72
8065.00,0.72
8064.00,0.72
8063.00,0.72
8062.00,0.72
8061.00,0.72
8060.00,0.72
8059.00,0.72
8058.00,0.72
8057.00,0.72
8056.00,0.71
8055.00,0.71
8054.00,0.71
8053.00,0.71
8052.00,0.71
8051.00,0.70
8050.00,0.70
8049.00,0.70
8048.00,0.70
8047.00,0.70
8046.00,0.70
8045.00,0.70
8044.00,0.70
8043.00,0.70
8042.00,0.70
8041.00,0.71
8040.00,0.71
8039.00,0.71
8038.00,0.71
8037.00,0.71
8036.00,0.71
8035.00,0.71
8034.00,0.71
8033.00,0.71
8032.00,0.71
8031.00,0.72
8030.00,0.72
8029.00,0.72
8028.00,0.72
8027.00,0.72
8026.00,0.72
8025.00,0.73
8024.00,0.73
8023.00,0.73
8022.00,0.73
8021.00,0.73
8020.00,0.73
8019.00,0.74
8018.00,0.74
8017.00,0.74
8016.00,0.74
8015.00,0.74
8014.00,0.74
8013.00,0.74
8012.00,0.74
8011.00,0.74
8010.00,0.74
8009.00,0.74
8008.00,0.74
8007.00,0.74
8006.00,0.74
8005.00,0.74
8004.00,0.74
8003.00,0.74
8002.00,0.74
8001.00,0.74
8000.00,0.74
7999.00,0.74
7998.00,0.73
7997.00,0.73
7996.00,0.73
7995.00,0.73
7994.00,0.73
7993.00,0.73
7992.00,0.72
7991.00,0.72
7990.00,0.72
7989.00,0.72
7988.00,0.72
7987.00,0.71
7986.00,0.71
7985.00,0.71
7984.00,0.71
7983.00,0.71
7982.00,0.71
7981.00,0.71
7980.00,0.71
7979.00,0.72
7978.00,0.72
7977.00,0.72
7976.00,0.72
7975.00,0.73
7974.00,0.73
7973.00,0.73
7972.00,0.74
7971.00,0.74
7970.00,0.74
7969.00,0.75
7968.00,0.75
7967.00,0.75
7966.00,0.75
7965.00,0.76
7964.00,0.76
7963.00,0.76
7962.00,0.76
7961.00,0.76
7960.00,0.76
7959.00,0.77
7958.00,0.76
7957.00,0.76
7956.00,0.76
7955.00,0.76
7954.00,0.76
7953.00,0.76
7952.00,0.76
7951.00,0.76
7950.00,0.76
7949.00,0.76
7948.00,0.76
7947.00,0.75
7946.00,0.75
7945.00,0.75
7944.00,0.75
7943.00,0.75
7942.00,0.75
7941.00,0.75
7940.00,0.74
7939.00,0.74
7938.00,0.74
7937.00,0.74
7936.00,0.74
7935.00,0.74
7934.00,0.74
7933.00,0.74
7932.00,0.74
7931.00,0.75
7930.00,0.75
7929.00,0.75
7928.00,0.75
7927.00,0.75
7926.00,0.75
7925.00,0.75
7924.00,0.75
7923.00,0.75
7922.00,0.75
7921.00,0.75
7920.00,0.74
7919.00,0.74
7918.00,0.74
7917.00,0.74
7916.00,0.74
7915.00,0.74
7914.00,0.74
7913.00,0.74
7912.00,0.74
7911.00,0.74
7910.00,0.74
7909.00,0.74
7908.00,0.73
7907.00,0.73
7906.00,0.73
7905.00,0.73
7904.00,0.73
7903.00,0.73
7902.00,0.72
7901.00,0.72
7900.00,0.72
7899.00,0.72
7898.00,0.72
7897.00,0.72
7896.00,0.72
7895.00,0.72
7894.00,0.73
7893.00,0.73
7892.00,0.73
7891.00,0.73
7890.00,0.73
7889.00,0.73
7888.00,0.73
7887.00,0.73
7886.00,0.73
7885.00,0.73
7884.00,0.73
7883.00,0.73
7882.00,0.73
7881.00,0.74
7880.00,0.74
7879.00,0.74
7878.00,0.74
7877.00,0.74
7876.00,0.74
7875.00,0.75
7874.00,0.75
7873.00,0.75
7872.00,0.75
7871.00,0.75
7870.00,0.75
7869.00,0.75
7868.00,0.75
7867.00,0.76
7866.00,0.76
7865.00,0.76
7864.00,0.76
7863.00,0.76
7862.00,0.76
7861.00,0.77
7860.00,0.77
7859.00,0.77
7858.00,0.77
7857.00,0.78
7856.00,0.78
7855.00,0.78
7854.00,0.78
7853.00,0.78
7852.00,0.79
7851.00,0.79
7850.00,0.79
7849.00,0.79
7848.00,0.79
7847.00,0.79
7846.00,0.79
7845.00,0.79
7844.00,0.79
7843.00,0.79
7842.00,0.79
7841.00,0.79
7840.00,0.79
7839.00,0.78
7838.00,0.78
7837.00,0.78
7836.00,0.78
7835.00,0.78
7834.00,0.77
7833.00,0.77
7832.00,0.77
7831.00,0.77
7830.00,0.76
7829.00,0.76
7828.00,0.76
7827.00,0.76
7826.00,0.75
7825.00,0.75
7824.00,0.75
7823.00,0.75
7822.00,0.75
7821.00,0.75
7820.00,0.75
7819.00,0.75
7818.00,0.76
7817.00,0.76
7816.00,0.76
7815.00,0.76
7814.00,0.76
7813.00,0.76
7812.00,0.76
7811.00,0.77
7810.00,0.77
7809.00,0.77
7808.00,0.78
7807.00,0.78
7806.00,0.78
7805.00,0.79
7804.00,0.79
7803.00,0.79
7802.00,0.79
7801.00,0.80
7800.00,0.80
7799.00,0.80
7798.00,0.80
7797.00,0.80
7796.00,0.81
7795.00,0.81
7794.00,0.81
7793.00,0.81
7792.00,0.80
7791.00,0.80
7790.00,0.80
7789.00,0.80
7788.00,0.80
7787.00,0.80
7786.00,0.80
7785.00,0.80
7784.00,0.79
7783.00,0.79
7782.00,0.79
7781.00,0.79
7780.00,0.79
7779.00,0.78
7778.00,0.78
7777.00,0.78
7776.00,0.77
7775.00,0.77
7774.00,0.77
7773.00,0.77
7772.00,0.76
7771.00,0.76
7770.00,0.76
7769.00,0.76
7768.00,0.76
7767.00,0.76
7766.00,0.75
7765.00,0.75
7764.00,0.75
7763.00,0.75
7762.00,0.75
7761.00,0.75
7760.00,0.75
7759.00,0.75
7758.00,0.75
7757.00,0.75
7756.00,0.75
7755.00,0.76
7754.00,0.76
7753.00,0.76
7752.00,0.76
7751.00,0.76
7750.00,0.77
7749.00,0.77
7748.00,0.77
7747.00,0.77
7746.00,0.78
7745.00,0.78
7744.00,0.78
7743.00,0.79
7742.00,0.79
7741.00,0.80
7740.00,0.80
7739.00,0.80
7738.00,0.81
7737.00,0.81
7736.00,0.81
7735.00,0.82
7734.00,0.82
7733.00,0.82
7732.00,0.83
7731.00,0.83
7730.00,0.83
7729.00,0.83
7728.00,0.83
7727.00,0.83
7726.00,0.83
7725.00,0.83
7724.00,0.83
7723.00,0.83
7722.00,0.83
7721.00,0.82
7720.00,0.82
7719.00,0.82
7718.00,0.82
7717.00,0.81
7716.00,0.81
7715.00,0.81
7714.00,0.80
7713.00,0.80
7712.00,0.79
7711.00,0.79
7710.00,0.79
7709.00,0.78
7708.00,0.78
7707.00,0.77
7706.00,0.77
7705.00,0.76
7704.00,0.76
7703.00,0.76
7702.00,0.75
7701.00,0.75
7700.00,0.75
7699.00,0.74
7698.00,0.74
7697.00,0.74
7696.00,0.74
7695.00,0.74
7694.00,0.73
7693.00,0.73
7692.00,0.73
7691.00,0.74
7690.00,0.74
7689.00,0.74
7688.00,0.74
7687.00,0.74
7686.00,0.74
7685.00,0.75
7684.00,0.75
7683.00,0.75
7682.00,0.75
7681.00,0.76
7680.00,0.76
7679.00,0.76
7678.00,0.77
7677.00,0.77
7676.00,0.78
7675.00,0.78
7674.00,0.78
7673.00,0.79
7672.00,0.79
7671.00,0.80
7670.00,0.80
7669.00,0.80
7668.00,0.81
7667.00,0.81
7666.00,0.81
7665.00,0.81
7664.00,0.81
7663.00,0.81
7662.00,0.82
7661.00,0.82
7660.00,0.82
7659.00,0.82
7658.00,0.82
7657.00,0.82
7656.00,0.82
7655.00,0.82
7654.00,0.82
7653.00,0.82
7652.00,0.82
7651.00,0.82
7650.00,0.82
7649.00,0.82
7648.00,0.82
7647.00,0.82
7646.00,0.82
7645.00,0.82
7644.00,0.82
7643.00,0.82
7642.00,0.82
7641.00,0.82
7640.00,0.82
7639.00,0.82
7638.00,0.82
7637.00,0.82
7636.00,0.82
7635.00,0.82
7634.00,0.82
7633.00,0.82
7632.00,0.82
7631.00,0.82
7630.00,0.82
7629.00,0.82
7628.00,0.82
7627.00,0.82
7626.00,0.82
7625.00,0.81
7624.00,0.81
7623.00,0.81
7622.00,0.81
7621.00,0.81
7620.00,0.81
7619.00,0.81
7618.00,0.81
7617.00,0.81
7616.00,0.81
7615.00,0.81
7614.00,0.81
7613.00,0.81
7612.00,0.81
7611.00,0.81
7610.00,0.81
7609.00,0.81
7608.00,0.81
7607.00,0.82
7606.00,0.82
7605.00,0.82
7604.00,0.82
7603.00,0.82
7602.00,0.82
7601.00,0.82
7600.00,0.82
7599.00,0.82
7598.00,0.83
7597.00,0.83
7596.00,0.83
7595.00,0.83
7594.00,0.83
7593.00,0.83
7592.00,0.83
7591.00,0.83
7590.00,0.83
7589.00,0.83
7588.00,0.83
7587.00,0.83
7586.00,0.83
7585.00,0.83
7584.00,0.83
7583.00,0.83
7582.00,0.83
7581.00,0.83
7580.00,0.83
7579.00,0.83
7578.00,0.83
7577.00,0.83
7576.00,0.83
7575.00,0.83
7574.00,0.82
7573.00,0.82
7572.00,0.82
7571.00,0.82
7570.00,0.82
7569.00,0.82
7568.00,0.82
7567.00,0.82
7566.00,0.81
7565.00,0.81
7564.00,0.81
7563.00,0.81
7562.00,0.81
7561.00,0.81
7560.00,0.80
7559.00,0.80
7558.00,0.80
7557.00,0.80
7556.00,0.80
7555.00,0.80
7554.00,0.80
7553.00,0.80
7552.00,0.80
7551.00,0.80
7550.00,0.80
7549.00,0.80
7548.00,0.80
7547.00,0.80
7546.00,0.80
7545.00,0.80
7544.00,0.80
7543.00,0.80
7542.00,0.80
7541.00,0.80
7540.00,0.80
7539.00,0.80
7538.00,0.81
7537.00,0.81
7536.00,0.81
7535.00,0.81
7534.00,0.81
7533.00,0.82
7532.00,0.82
7531.00,0.82
7530.00,0.82
7529.00,0.82
7528.00,0.82
7527.00,0.83
7526.00,0.83
7525.00,0.83
7524.00,0.83
7523.00,0.83
7522.00,0.83
7521.00,0.83
7520.00,0.83
7519.00,0.83
7518.00,0.83
7517.00,0.83
7516.00,0.83
7515.00,0.83
7514.00,0.83
7513.00,0.83
7512.00,0.83
7511.00,0.83
7510.00,0.83
7509.00,0.83
7508.00,0.82
7507.00,0.82
7506.00,0.82
7505.00,0.82
7504.00,0.82
7503.00,0.82
7502.00,0.82
7501.00,0.82
7500.00,0.81
7499.00,0.81
7498.00,0.81
7497.00,0.81
7496.00,0.81
7495.00,0.81
7494.00,0.81
7493.00,0.80
7492.00,0.80
7491.00,0.80
7490.00,0.80
7489.00,0.79
7488.00,0.79
7487.00,0.79
7486.00,0.79
7485.00,0.79
7484.00,0.78
7483.00,0.78
7482.00,0.78
7481.00,0.78
7480.00,0.78
7479.00,0.78
7478.00,0.78
7477.00,0.78
7476.00,0.78
7475.00,0.78
7474.00,0.78
7473.00,0.78
7472.00,0.78
7471.00,0.78
7470.00,0.78
7469.00,0.78
7468.00,0.78
7467.00,0.78
7466.00,0.78
7465.00,0.78
7464.00,0.78
7463.00,0.78
7462.00,0.78
7461.00,0.79
7460.00,0.79
7459.00,0.79
7458.00,0.79
7457.00,0.79
7456.00,0.79
7455.00,0.79
7454.00,0.78
7453.00,0.78
7452.00,0.78
7451.00,0.78
7450.00,0.78
7449.00,0.78
7448.00,0.78
7447.00,0.78
7446.00,0.77
7445.00,0.77
7444.00,0.77
7443.00,0.77
7442.00,0.77
7441.00,0.76
7440.00,0.76
7439.00,0.76
7438.00,0.76
7437.00,0.76
7436.00,0.75
7435.00,0.75
7434.00,0.75
7433.00,0.75
7432.00,0.75
7431.00,0.75
7430.00,0.75
7429.00,0.75
7428.00,0.75
7427.00,0.75
7426.00,0.75
7425.00,0.75
7424.00,0.76
7423.00,0.76
7422.00,0.76
7421.00,0.76
7420.00,0.76
7419.00,0.77
7418.00,0.77
7417.00,0.77
7416.00,0.77
7415.00,0.78
7414.00,0.78
7413.00,0.78
7412.00,0.79
7411.00,0.79
7410.00,0.79
7409.00,0.80
7408.00,0.80
7407.00,0.80
7406.00,0.80
7405.00,0.80
7404.00,0.81
7403.00,0.81
7402.00,0.81
7401.00,0.81
7400.00,0.81
7399.00,0.81
7398.00,0.81
7397.00,0.81
7396.00,0.82
7395.00,0.82
7394.00,0.82
7393.00,0.82
7392.00,0.81
7391.00,0.81
7390.00,0.81
7389.00,0.81
7388.00,0.81
7387.00,0.81
7386.00,0.81
7385.00,0.80
7384.00,0.80
7383.00,0.80
7382.00,0.80
7381.00,0.79
7380.00,0.79
7379.00,0.79
7378.00,0.79
7377.00,0.79
7376.00,0.78
7375.00,0.78
7374.00,0.78
7373.00,0.78
7372.00,0.78
7371.00,0.78
7370.00,0.77
7369.00,0.77
7368.00,0.77
7367.00,0.77
7366.00,0.77
7365.00,0.77
7364.00,0.77
7363.00,0.77
7362.00,0.77
7361.00,0.77
7360.00,0.77
7359.00,0.77
7358.00,0.77
7357.00,0.77
7356.00,0.77
7355.00,0.77
7354.00,0.77
7353.00,0.77
7352.00,0.78
7351.00,0.78
7350.00,0.78
7349.00,0.78
7348.00,0.78
7347.00,0.79
7346.00,0.79
7345.00,0.79
7344.00,0.79
7343.00,0.79
7342.00,0.79
7341.00,0.79
7340.00,0.79
7339.00,0.79
7338.00,0.79
7337.00,0.79
7336.00,0.79
7335.00,0.80
7334.00,0.80
7333.00,0.80
7332.00,0.80
7331.00,0.80
7330.00,0.80
7329.00,0.79
7328.00,0.79
7327.00,0.79
7326.00,0.79
7325.00,0.79
7324.00,0.79
7323.00,0.79
7322.00,0.79
7321.00,0.79
7320.00,0.79
7319.00,0.79
7318.00,0.79
7317.00,0.79
7316.00,0.79
7315.00,0.79
7314.00,0.79
7313.00,0.80
7312.00,0.80
7311.00,0.80
7310.00,0.80
7309.00,0.80
7308.00,0.81
7307.00,0.81
7306.00,0.81
7305.00,0.81
7304.00,0.81
7303.00,0.82
7302.00,0.82
7301.00,0.82
7300.00,0.82
7299.00,0.82
7298.00,0.83
7297.00,0.83
7296.00,0.83
7295.00,0.83
7294.00,0.83
7293.00,0.83
7292.00,0.83
7291.00,0.82
7290.00,0.82
7289.00,0.82
7288.00,0.82
7287.00,0.81
7286.00,0.81
7285.00,0.81
7284.00,0.80
7283.00,0.80
7282.00,0.79
7281.00,0.79
7280.00,0.79
7279.00,0.78
7278.00,0.78
7277.00,0.77
7276.00,0.77
7275.00,0.76
7274.00,0.76
7273.00,0.76
7272.00,0.75
7271.00,0.75
7270.00,0.75
7269.00,0.74
7268.00,0.74
7267.00,0.74
7266.00,0.73
7265.00,0.73
7264.00,0.73
7263.00,0.73
7262.00,0.72
7261.00,0.72
7260.00,0.72
7259.00,0.72
7258.00,0.72
7257.00,0.72
7256.00,0.71
7255.00,0.71
7254.00,0.71
7253.00,0.71
7252.00,0.71
7251.00,0.71
7250.00,0.71
7249.00,0.71
7248.00,0.71
7247.00,0.70
7246.00,0.70
7245.00,0.70
7244.00,0.70
7243.00,0.70
7242.00,0.70
7241.00,0.70
7240.00,0.70
7239.00,0.69
7238.00,0.69
7237.00,0.69
7236.00,0.69
7235.00,0.69
7234.00,0.69
7233.00,0.68
7232.00,0.68
7231.00,0.68
7230.00,0.68
7229.00,0.68
7228.00,0.68
7227.00,0.67
7226.00,0.67
7225.00,0.67
7224.00,0.67
7223.00,0.66
7222.00,0.66
7221.00,0.66
7220.00,0.66
7219.00,0.65
7218.00,0.65
7217.00,0.65
7216.00,0.64
7215.00,0.64
7214.00,0.64
7213.00,0.64
7212.00,0.64
7211.00,0.63
7210.00,0.63
7209.00,0.63
7208.00,0.63
7207.00,0.63
7206.00,0.63
7205.00,0.63
7204.00,0.63
7203.00,0.63
7202.00,0.63
7201.00,0.63
7200.00,0.63
7199.00,0.63
7198.00,0.62
7197.00,0.62
7196.00,0.62
7195.00,0.62
7194.00,0.62
7193.00,0.62
7192.00,0.62
7191.00,0.62
7190.00,0.62
7189.00,0.62
7188.00,0.61
7187.00,0.61
7186.00,0.61
7185.00,0.61
7184.00,0.61
7183.00,0.60
7182.00,0.60
7181.00,0.60
7180.00,0.59
7179.00,0.59
7178.00,0.59
7177.00,0.58
7176.00,0.58
7175.00,0.58
7174.00,0.57
7173.00,0.57
7172.00,0.57
7171.00,0.57
7170.00,0.56
7169.00,0.56
7168.00,0.56
7167.00,0.56
7166.00,0.56
7165.00,0.56
7164.00,0.55
7163.00,0.55
7162.00,0.55
7161.00,0.55
7160.00,0.55
7159.00,0.55
7158.00,0.55
7157.00,0.55
7156.00,0.54
7155.00,0.54
7154.00,0.54
7153.00,0.54
7152.00,0.54
7151.00,0.54
7150.00,0.54
7149.00,0.54
7148.00,0.54
7147.00,0.54
7146.00,0.55
7145.00,0.55
7144.00,0.55
7143.00,0.55
7142.00,0.55
7141.00,0.55
7140.00,0.55
7139.00,0.54
7138.00,0.54
7137.00,0.54
7136.00,0.54
7135.00,0.54
7134.00,0.54
7133.00,0.54
7132.00,0.54
7131.00,0.54
7130.00,0.54
7129.00,0.53
7128.00,0.53
7127.00,0.53
7126.00,0.53
7125.00,0.52
7124.00,0.52
7123.00,0.52
7122.00,0.51
7121.00,0.51
7120.00,0.50
7119.00,0.50
7118.00,0.49
7117.00,0.49
7116.00,0.49
7115.00,0.48
7114.00,0.48
7113.00,0.48
7112.00,0.48
7111.00,0.47
7110.00,0.47
7109.00,0.47
7108.00,0.47
7107.00,0.46
7106.00,0.46
7105.00,0.46
7104.00,0.46
7103.00,0.46
7102.00,0.46
7101.00,0.46
7100.00,0.46
7099.00,0.46
7098.00,0.46
7097.00,0.46
7096.00,0.46
7095.00,0.46
7094.00,0.46
7093.00,0.46
7092.00,0.46
7091.00,0.46
7090.00,0.46
7089.00,0.46
7088.00,0.46
7087.00,0.46
7086.00,0.46
7085.00,0.45
7084.00,0.45
7083.00,0.45
7082.00,0.45
7081.00,0.44
7080.00,0.44
7079.00,0.44
7078.00,0.44
7077.00,0.44
7076.00,0.44
7075.00,0.43
7074.00,0.43
7073.00,0.43
7072.00,0.43
7071.00,0.43
7070.00,0.42
7069.00,0.42
7068.00,0.42
7067.00,0.42
7066.00,0.42
7065.00,0.42
7064.00,0.41
7063.00,0.41
7062.00,0.41
7061.00,0.41
7060.00,0.41
7059.00,0.41
7058.00,0.41
7057.00,0.41
7056.00,0.41
7055.00,0.41
7054.00,0.41
7053.00,0.41
7052.00,0.40
7051.00,0.40
7050.00,0.40
7049.00,0.40
7048.00,0.40
7047.00,0.40
7046.00,0.39
7045.00,0.39
7044.00,0.39
7043.00,0.39
7042.00,0.39
7041.00,0.39
7040.00,0.39
7039.00,0.38
7038.00,0.38
7037.00,0.38
7036.00,0.38
7035.00,0.38
7034.00,0.38
7033.00,0.38
7032.00,0.38
7031.00,0.38
7030.00,0.38
7029.00,0.38
7028.00,0.38
7027.00,0.38
7026.00,0.38
7025.00,0.38
7024.00,0.38
7023.00,0.38
7022.00,0.38
7021.00,0.38
7020.00,0.38
7019.00,0.39
7018.00,0.39
7017.00,0.39
7016.00,0.39
7015.00,0.39
7014.00,0.39
7013.00,0.39
7012.00,0.39
7011.00,0.39
7010.00,0.39
7009.00,0.39
7008.00,0.39
7007.00,0.39
7006.00,0.39
7005.00,0.39
7004.00,0.39
7003.00,0.39
7002.00,0.38
7001.00,0.38
7000.00,0.38
6999.00,0.38
6998.00,0.38
6997.00,0.38
6996.00,0.38
6995.00,0.38
6994.00,0.38
6993.00,0.37
6992.00,0.37
6991.00,0.37
6990.00,0.37
6989.00,0.37
6988.00,0.37
6987.00,0.36
6986.00,0.36
6985.00,0.36
6984.00,0.36
6983.00,0.36
6982.00,0.36
6981.00,0.36
6980.00,0.36
6979.00,0.36
6978.00,0.36
6977.00,0.36
6976.00,0.36
6975.00,0.36
6974.00,0.36
6973.00,0.36
6972.00,0.36
6971.00,0.36
6970.00,0.36
6969.00,0.36
6968.00,0.36
6967.00,0.36
6966.00,0.36
6965.00,0.36
6964.00,0.36
6963.00,0.36
6962.00,0.37
6961.00,0.37
6960.00,0.37
6959.00,0.37
6958.00,0.37
6957.00,0.38
6956.00,0.38
6955.00,0.38
6954.00,0.38
6953.00,0.38
6952.00,0.38
6951.00,0.38
6950.00,0.39
6949.00,0.39
6948.00,0.39
6947.00,0.39
6946.00,0.39
6945.00,0.39
6944.00,0.40
6943.00,0.40
6942.00,0.40
6941.00,0.40
6940.00,0.40
6939.00,0.40
6938.00,0.40
6937.00,0.40
6936.00,0.40
6935.00,0.40
6934.00,0.40
6933.00,0.40
6932.00,0.40
6931.00,0.40
6930.00,0.40
6929.00,0.39
6928.00,0.39
6927.00,0.39
6926.00,0.39
6925.00,0.39
6924.00,0.38
6923.00,0.38
6922.00,0.38
6921.00,0.38
6920.00,0.37
6919.00,0.37
6918.00,0.37
6917.00,0.36
6916.00,0.36
6915.00,0.36
6914.00,0.36
6913.00,0.35
6912.00,0.35
6911.00,0.35
6910.00,0.35
6909.00,0.35
6908.00,0.35
6907.00,0.35
6906.00,0.35
6905.00,0.35
6904.00,0.35
6903.00,0.35
6902.00,0.35
6901.00,0.35
6900.00,0.35
6899.00,0.36
6898.00,0.36
6897.00,0.36
6896.00,0.36
6895.00,0.37
6894.00,0.37
6893.00,0.37
6892.00,0.38
6891.00,0.38
6890.00,0.38
6889.00,0.38
6888.00,0.39
6887.00,0.39
6886.00,0.39
6885.00,0.39
6884.00,0.39
6883.00,0.40
6882.00,0.40
6881.00,0.40
6880.00,0.40
6879.00,0.40
6878.00,0.40
6877.00,0.40
6876.00,0.39
6875.00,0.39
6874.00,0.39
6873.00,0.39
6872.00,0.39
6871.00,0.39
6870.00,0.39
6869.00,0.39
6868.00,0.39
6867.00,0.39
6866.00,0.39
6865.00,0.39
6864.00,0.38
6863.00,0.38
6862.00,0.38
6861.00,0.38
6860.00,0.38
6859.00,0.38
6858.00,0.38
6857.00,0.38
6856.00,0.38
6855.00,0.38
6854.00,0.38
6853.00,0.38
6852.00,0.38
6851.00,0.38
6850.00,0.38
6849.00,0.38
6848.00,0.38
6847.00,0.38
6846.00,0.38
6845.00,0.38
6844.00,0.38
6843.00,0.38
6842.00,0.38
6841.00,0.38
6840.00,0.38
6839.00,0.38
6838.00,0.38
6837.00,0.38
6836.00,0.38
6835.00,0.38
6834.00,0.38
6833.00,0.38
6832.00,0.38
6831.00,0.38
6830.00,0.38
6829.00,0.38
6828.00,0.38
6827.00,0.38
6826.00,0.38
6825.00,0.38
6824.00,0.38
6823.00,0.38
6822.00,0.38
6821.00,0.38
6820.00,0.38
6819.00,0.38
6818.00,0.38
6817.00,0.38
6816.00,0.38
6815.00,0.38
6814.00,0.38
6813.00,0.38
6812.00,0.38
6811.00,0.38
6810.00,0.39
6809.00,0.39
6808.00,0.39
6807.00,0.39
6806.00,0.39
6805.00,0.39
6804.00,0.39
6803.00,0.39
6802.00,0.39
6801.00,0.39
6800.00,0.39
6799.00,0.39
6798.00,0.39
6797.00,0.39
6796.00,0.39
6795.00,0.39
6794.00,0.39
6793.00,0.39
6792.00,0.39
6791.00,0.39
6790.00,0.39
6789.00,0.39
6788.00,0.39
6787.00,0.39
6786.00,0.39
6785.00,0.39
6784.00,0.39
6783.00,0.39
6782.00,0.39
6781.00,0.39
6780.00,0.39
6779.00,0.39
6778.00,0.39
6777.00,0.39
6776.00,0.39
6775.00,0.39
6774.00,0.39
6773.00,0.39
6772.00,0.39
6771.00,0.39
6770.00,0.39
6769.00,0.39
6768.00,0.39
6767.00,0.39
6766.00,0.39
6765.00,0.39
6764.00,0.39
6763.00,0.39
6762.00,0.39
6761.00,0.39
6760.00,0.39
6759.00,0.39
6758.00,0.40
6757.00,0.40
6756.00,0.40
6755.00,0.40
6754.00,0.40
6753.00,0.40
6752.00,0.40
6751.00,0.40
6750.00,0.40
6749.00,0.40
6748.00,0.40
6747.00,0.40
6746.00,0.40
6745.00,0.40
6744.00,0.40
6743.00,0.41
6742.00,0.41
6741.00,0.41
6740.00,0.41
6739.00,0.41
6738.00,0.41
6737.00,0.41
6736.00,0.41
6735.00,0.41
6734.00,0.41
6733.00,0.41
6732.00,0.41
6731.00,0.41
6730.00,0.41
6729.00,0.41
6728.00,0.41
6727.00,0.41
6726.00,0.41
6725.00,0.41
6724.00,0.41
6723.00,0.41
6722.00,0.41
6721.00,0.41
6720.00,0.41
6719.00,0.40
6718.00,0.40
6717.00,0.40
6716.00,0.40
6715.00,0.41
6714.00,0.41
6713.00,0.41
6712.00,0.41
6711.00,0.41
6710.00,0.41
6709.00,0.41
6708.00,0.41
6707.00,0.41
6706.00,0.41
6705.00,0.41
6704.00,0.42
6703.00,0.42
6702.00,0.42
6701.00,0.42
6700.00,0.42
6699.00,0.43
6698.00,0.43
6697.00,0.43
6696.00,0.43
6695.00,0.44
6694.00,0.44
6693.00,0.44
6692.00,0.44
6691.00,0.44
6690.00,0.44
6689.00,0.45
6688.00,0.45
6687.00,0.45
6686.00,0.45
6685.00,0.45
6684.00,0.45
6683.00,0.45
6682.00,0.45
6681.00,0.45
6680.00,0.45
6679.00,0.45
6678.00,0.45
6677.00,0.45
6676.00,0.45
6675.00,0.45
6674.00,0.45
6673.00,0.45
6672.00,0.45
6671.00,0.45
6670.00,0.45
6669.00,0.45
6668.00,0.45
6667.00,0.45
6666.00,0.45
6665.00,0.45
6664.00,0.45
6663.00,0.45
6662.00,0.45
6661.00,0.46
6660.00,0.46
6659.00,0.46
6658.00,0.46
6657.00,0.46
6656.00,0.46
6655.00,0.46
6654.00,0.46
6653.00,0.46
6652.00,0.46
6651.00,0.47
6650.00,0.47
6649.00,0.47
6648.00,0.47
6647.00,0.47
6646.00,0.47
6645.00,0.47
6644.00,0.47
6643.00,0.47
6642.00,0.47
6641.00,0.47
6640.00,0.47
6639.00,0.47
6638.00,0.47
6637.00,0.47
6636.00,0.47
6635.00,0.47
6634.00,0.46
6633.00,0.46
6632.00,0.46
6631.00,0.46
6630.00,0.46
6629.00,0.46
6628.00,0.46
6627.00,0.46
6626.00,0.46
6625.00,0.46
6624.00,0.46
6623.00,0.46
6622.00,0.46
6621.00,0.46
6620.00,0.46
6619.00,0.46
6618.00,0.46
6617.00,0.46
6616.00,0.46
6615.00,0.46
6614.00,0.46
6613.00,0.47
6612.00,0.47
6611.00,0.47
6610.00,0.47
6609.00,0.47
6608.00,0.47
6607.00,0.48
6606.00,0.48
6605.00,0.48
6604.00,0.48
6603.00,0.49
6602.00,0.49
6601.00,0.49
6600.00,0.49
6599.00,0.50
6598.00,0.50
6597.00,0.50
6596.00,0.51
6595.00,0.51
6594.00,0.51
6593.00,0.51
6592.00,0.52
6591.00,0.52
6590.00,0.52
6589.00,0.52
6588.00,0.53
6587.00,0.53
6586.00,0.53
6585.00,0.53
6584.00,0.53
6583.00,0.53
6582.00,0.53
6581.00,0.53
6580.00,0.53
6579.00,0.53
6578.00,0.53
6577.00,0.53
6576.00,0.53
6575.00,0.53
6574.00,0.53
6573.00,0.53
6572.00,0.52
6571.00,0.52
6570.00,0.52
6569.00,0.52
6568.00,0.51
6567.00,0.51
6566.00,0.51
6565.00,0.51
6564.00,0.50
6563.00,0.50
6562.00,0.50
6561.00,0.50
6560.00,0.50
6559.00,0.50
6558.00,0.49
6557.00,0.49
6556.00,0.49
6555.00,0.49
6554.00,0.49
6553.00,0.49
6552.00,0.49
6551.00,0.50
6550.00,0.50
6549.00,0.50
6548.00,0.50
6547.00,0.50
6546.00,0.50
6545.00,0.50
6544.00,0.50
6543.00,0.50
6542.00,0.50
6541.00,0.50
6540.00,0.50
6539.00,0.51
6538.00,0.51
6537.00,0.51
6536.00,0.51
6535.00,0.51
6534.00,0.51
6533.00,0.51
6532.00,0.52
6531.00,0.52
6530.00,0.52
6529.00,0.52
6528.00,0.52
6527.00,0.52
6526.00,0.52
6525.00,0.53
6524.00,0.53
6523.00,0.53
6522.00,0.53
6521.00,0.53
6520.00,0.53
6519.00,0.54
6518.00,0.54
6517.00,0.54
6516.00,0.54
6515.00,0.54
6514.00,0.55
6513.00,0.55
6512.00,0.55
6511.00,0.55
6510.00,0.55
6509.00,0.56
6508.00,0.56
6507.00,0.56
6506.00,0.56
6505.00,0.56
6504.00,0.57
6503.00,0.57
6502.00,0.57
6501.00,0.57
6500.00,0.57
6499.00,0.57
6498.00,0.57
6497.00,0.57
6496.00,0.57
6495.00,0.57
6494.00,0.57
6493.00,0.57
6492.00,0.57
6491.00,0.57
6490.00,0.57
6489.00,0.57
6488.00,0.57
6487.00,0.57
6486.00,0.57
6485.00,0.57
6484.00,0.57
6483.00,0.57
6482.00,0.57
6481.00,0.56
6480.00,0.56
6479.00,0.56
6478.00,0.56
6477.00,0.56
6476.00,0.56
6475.00,0.56
6474.00,0.56
6473.00,0.56
6472.00,0.56
6471.00,0.56
6470.00,0.56
6469.00,0.56
6468.00,0.56
6467.00,0.56
6466.00,0.56
6465.00,0.56
6464.00,0.56
6463.00,0.56
6462.00,0.56
6461.00,0.56
6460.00,0.56
6459.00,0.56
6458.00,0.56
6457.00,0.56
6456.00,0.56
6455.00,0.56
6454.00,0.56
6453.00,0.56
6452.00,0.56
6451.00,0.57
6450.00,0.57
6449.00,0.57
6448.00,0.57
6447.00,0.57
6446.00,0.57
6445.00,0.57
6444.00,0.57
6443.00,0.57
6442.00,0.57
6441.00,0.57
6440.00,0.57
6439.00,0.57
6438.00,0.57
6437.00,0.57
6436.00,0.57
6435.00,0.57
6434.00,0.57
6433.00,0.57
6432.00,0.57
6431.00,0.57
6430.00,0.57
6429.00,0.57
6428.00,0.57
6427.00,0.57
6426.00,0.57
6425.00,0.57
6424.00,0.57
6423.00,0.57
6422.00,0.57
6421.00,0.58
6420.00,0.58
6419.00,0.58
6418.00,0.58
6417.00,0.58
6416.00,0.58
6415.00,0.58
6414.00,0.58
6413.00,0.58
6412.00,0.59
6411.00,0.59
6410.00,0.59
6409.00,0.59
6408.00,0.59
6407.00,0.59
6406.00,0.59
6405.00,0.59
6404.00,0.59
6403.00,0.59
6402.00,0.59
6401.00,0.59
6400.00,0.59
6399.00,0.59
6398.00,0.59
6397.00,0.59
6396.00,0.59
6395.00,0.59
6394.00,0.59
6393.00,0.59
6392.00,0.59
6391.00,0.58
6390.00,0.58
6389.00,0.58
6388.00,0.58
6387.00,0.58
6386.00,0.58
6385.00,0.58
6384.00,0.58
6383.00,0.58
6382.00,0.58
6381.00,0.58
6380.00,0.58
6379.00,0.59
6378.00,0.59
6377.00,0.59
6376.00,0.59
6375.00,0.59
6374.00,0.59
6373.00,0.59
6372.00,0.59
6371.00,0.59
6370.00,0.59
6369.00,0.60
6368.00,0.60
6367.00,0.60
6366.00,0.60
6365.00,0.60
6364.00,0.60
6363.00,0.60
6362.00,0.61
6361.00,0.61
6360.00,0.61
6359.00,0.61
6358.00,0.61
6357.00,0.61
6356.00,0.61
6355.00,0.62
6354.00,0.62
6353.00,0.62
6352.00,0.62
6351.00,0.62
6350.00,0.63
6349.00,0.63
6348.00,0.63
6347.00,0.63
6346.00,0.63
6345.00,0.63
6344.00,0.64
6343.00,0.64
6342.00,0.64
6341.00,0.64
6340.00,0.64
6339.00,0.64
6338.00,0.64
6337.00,0.65
6336.00,0.65
6335.00,0.65
6334.00,0.65
6333.00,0.65
6332.00,0.65
6331.00,0.65
6330.00,0.66
6329.00,0.66
6328.00,0.66
6327.00,0.66
6326.00,0.66
6325.00,0.66
6324.00,0.66
6323.00,0.66
6322.00,0.66
6321.00,0.66
6320.00,0.66
6319.00,0.66
6318.00,0.66
6317.00,0.66
6316.00,0.66
6315.00,0.66
6314.00,0.66
6313.00,0.66
6312.00,0.66
6311.00,0.66
6310.00,0.66
6309.00,0.66
6308.00,0.66
6307.00,0.66
6306.00,0.65
6305.00,0.65
6304.00,0.65
6303.00,0.65
6302.00,0.65
6301.00,0.65
6300.00,0.65
6299.00,0.65
6298.00,0.65
6297.00,0.65
6296.00,0.65
6295.00,0.65
6294.00,0.65
6293.00,0.65
6292.00,0.65
6291.00,0.65
6290.00,0.65
6289.00,0.65
6288.00,0.65
6287.00,0.65
6286.00,0.65
6285.00,0.65
6284.00,0.64
6283.00,0.64
6282.00,0.64
6281.00,0.64
6280.00,0.64
6279.00,0.64
6278.00,0.64
6277.00,0.64
6276.00,0.64
6275.00,0.64
6274.00,0.64
6273.00,0.65
6272.00,0.65
6271.00,0.65
6270.00,0.65
6269.00,0.65
6268.00,0.66
6267.00,0.66
6266.00,0.66
6265.00,0.67
6264.00,0.67
6263.00,0.67
6262.00,0.68
6261.00,0.68
6260.00,0.68
6259.00,0.69
6258.00,0.69
6257.00,0.69
6256.00,0.70
6255.00,0.70
6254.00,0.70
6253.00,0.70
6252.00,0.71
6251.00,0.71
6250.00,0.71
6249.00,0.71
6248.00,0.71
6247.00,0.72
6246.00,0.72
6245.00,0.72
6244.00,0.72
6243.00,0.72
6242.00,0.72
6241.00,0.72
6240.00,0.72
6239.00,0.72
6238.00,0.72
6237.00,0.71
6236.00,0.71
6235.00,0.71
6234.00,0.71
6233.00,0.71
6232.00,0.71
6231.00,0.71
6230.00,0.71
6229.00,0.70
6228.00,0.70
6227.00,0.70
6226.00,0.70
6225.00,0.70
6224.00,0.70
6223.00,0.70
6222.00,0.70
6221.00,0.70
6220.00,0.70
6219.00,0.70
6218.00,0.69
6217.00,0.69
6216.00,0.69
6215.00,0.69
6214.00,0.69
6213.00,0.69
6212.00,0.70
6211.00,0.70
6210.00,0.70
6209.00,0.70
6208.00,0.70
6207.00,0.70
6206.00,0.70
6205.00,0.70
6204.00,0.70
6203.00,0.70
6202.00,0.71
6201.00,0.71
6200.00,0.71
6199.00,0.71
6198.00,0.71
6197.00,0.71
6196.00,0.71
6195.00,0.72
6194.00,0.72
6193.00,0.72
6192.00,0.72
6191.00,0.72
6190.00,0.72
6189.00,0.72
6188.00,0.72
6187.00,0.72
6186.00,0.72
6185.00,0.72
6184.00,0.72
6183.00,0.72
6182.00,0.72
6181.00,0.72
6180.00,0.72
6179.00,0.72
6178.00,0.72
6177.00,0.72
6176.00,0.72
6175.00,0.72
6174.00,0.72
6173.00,0.72
6172.00,0.72
6171.00,0.72
6170.00,0.72
6169.00,0.72
6168.00,0.72
6167.00,0.73
6166.00,0.73
6165.00,0.73
6164.00,0.73
6163.00,0.73
6162.00,0.73
6161.00,0.73
6160.00,0.73
6159.00,0.74
6158.00,0.74
6157.00,0.74
6156.00,0.74
6155.00,0.74
6154.00,0.75
6153.00,0.75
6152.00,0.75
6151.00,0.75
6150.00,0.76
6149.00,0.76
6148.00,0.76
6147.00,0.76
6146.00,0.77
6145.00,0.77
6144.00,0.77
6143.00,0.77
6142.00,0.77
6141.00,0.77
6140.00,0.78
6139.00,0.78
6138.00,0.78
6137.00,0.78
6136.00,0.78
6135.00,0.78
6134.00,0.78
6133.00,0.78
6132.00,0.78
6131.00,0.78
6130.00,0.78
6129.00,0.78
6128.00,0.78
6127.00,0.78
6126.00,0.78
6125.00,0.78
6124.00,0.78
6123.00,0.78
6122.00,0.78
6121.00,0.78
6120.00,0.78
6119.00,0.78
6118.00,0.78
6117.00,0.78
6116.00,0.79
6115.00,0.79
6114.00,0.79
6113.00,0.79
6112.00,0.79
6111.00,0.79
6110.00,0.79
6109.00,0.79
6108.00,0.80
6107.00,0.80
6106.00,0.80
6105.00,0.80
6104.00,0.80
6103.00,0.80
6102.00,0.80
6101.00,0.80
6100.00,0.80
6099.00,0.80
6098.00,0.80
6097.00,0.81
6096.00,0.81
6095.00,0.81
6094.00,0.81
6093.00,0.81
6092.00,0.81
6091.00,0.81
6090.00,0.81
6089.00,0.81
6088.00,0.81
6087.00,0.81
6086.00,0.81
6085.00,0.81
6084.00,0.81
6083.00,0.81
6082.00,0.81
6081.00,0.81
6080.00,0.81
6079.00,0.81
6078.00,0.81
6077.00,0.81
6076.00,0.81
6075.00,0.81
6074.00,0.81
6073.00,0.82
6072.00,0.82
6071.00,0.82
6070.00,0.82
6069.00,0.82
6068.00,0.82
6067.00,0.82
6066.00,0.82
6065.00,0.82
6064.00,0.82
6063.00,0.82
6062.00,0.82
6061.00,0.82
6060.00,0.82
6059.00,0.82
6058.00,0.82
6057.00,0.82
6056.00,0.82
6055.00,0.82
6054.00,0.82
6053.00,0.82
6052.00,0.82
6051.00,0.82
6050.00,0.82
6049.00,0.82
6048.00,0.82
6047.00,0.82
6046.00,0.82
6045.00,0.82
6044.00,0.82
6043.00,0.82
6042.00,0.82
6041.00,0.82
6040.00,0.82
6039.00,0.82
6038.00,0.82
6037.00,0.82
6036.00,0.82
6035.00,0.82
6034.00,0.82
6033.00,0.82
6032.00,0.82
6031.00,0.82
6030.00,0.81
6029.00,0.81
6028.00,0.81
6027.00,0.81
6026.00,0.81
6025.00,0.81
6024.00,0.81
6023.00,0.81
6022.00,0.81
6021.00,0.81
6020.00,0.81
6019.00,0.81
6018.00,0.81
6017.00,0.81
6016.00,0.81
6015.00,0.81
6014.00,0.81
6013.00,0.81
6012.00,0.81
6011.00,0.81
6010.00,0.81
6009.00,0.81
6008.00,0.82
6007.00,0.82
6006.00,0.82
6005.00,0.82
6004.00,0.82
6003.00,0.82
6002.00,0.82
6001.00,0.82
6000.00,0.82
5999.00,0.82
5998.00,0.82
5997.00,0.82
5996.00,0.82
5995.00,0.82
5994.00,0.82
5993.00,0.82
5992.00,0.82
5991.00,0.82
5990.00,0.82
5989.00,0.82
5988.00,0.82
5987.00,0.82
5986.00,0.82
5985.00,0.82
5984.00,0.82
5983.00,0.82
5982.00,0.82
5981.00,0.82
5980.00,0.82
5979.00,0.81
5978.00,0.81
5977.00,0.81
5976.00,0.81
5975.00,0.81
5974.00,0.81
5973.00,0.81
5972.00,0.81
5971.00,0.81
5970.00,0.81
5969.00,0.80
5968.00,0.80
5967.00,0.80
5966.00,0.80
5965.00,0.80
5964.00,0.80
5963.00,0.80
5962.00,0.79
5961.00,0.79
5960.00,0.79
5959.00,0.79
5958.00,0.78
5957.00,0.78
5956.00,0.78
5955.00,0.78
5954.00,0.78
5953.00,0.77
5952.00,0.77
5951.00,0.77
5950.00,0.77
5949.00,0.76
5948.00,0.76
5947.00,0.76
5946.00,0.75
5945.00,0.75
5944.00,0.75
5943.00,0.75
5942.00,0.75
5941.00,0.74
5940.00,0.74
5939.00,0.74
5938.00,0.74
5937.00,0.74
5936.00,0.74
5935.00,0.73
5934.00,0.73
5933.00,0.73
5932.00,0.73
5931.00,0.73
5930.00,0.73
5929.00,0.73
5928.00,0.73
5927.00,0.72
5926.00,0.72
5925.00,0.72
5924.00,0.72
5923.00,0.72
5922.00,0.72
5921.00,0.71
5920.00,0.71
5919.00,0.71
5918.00,0.71
5917.00,0.71
5916.00,0.71
5915.00,0.70
5914.00,0.70
5913.00,0.70
5912.00,0.70
5911.00,0.70
5910.00,0.70
5909.00,0.69
5908.00,0.69
5907.00,0.69
5906.00,0.69
5905.00,0.69
5904.00,0.69
5903.00,0.68
5902.00,0.68
5901.00,0.68
5900.00,0.68
5899.00,0.68
5898.00,0.68
5897.00,0.69
5896.00,0.69
5895.00,0.69
5894.00,0.69
5893.00,0.69
5892.00,0.69
5891.00,0.69
5890.00,0.69
5889.00,0.70
5888.00,0.70
5887.00,0.70
5886.00,0.70
5885.00,0.70
5884.00,0.71
5883.00,0.71
5882.00,0.71
5881.00,0.71
5880.00,0.72
5879.00,0.72
5878.00,0.72
5877.00,0.72
5876.00,0.73
5875.00,0.73
5874.00,0.73
5873.00,0.73
5872.00,0.73
5871.00,0.74
5870.00,0.74
5869.00,0.74
5868.00,0.74
5867.00,0.74
5866.00,0.74
5865.00,0.75
5864.00,0.75
5863.00,0.75
5862.00,0.75
5861.00,0.75
5860.00,0.75
5859.00,0.75
5858.00,0.75
5857.00,0.75
5856.00,0.75
5855.00,0.75
5854.00,0.75
5853.00,0.75
5852.00,0.75
5851.00,0.75
5850.00,0.75
5849.00,0.74
5848.00,0.74
5847.00,0.74
5846.00,0.74
5845.00,0.74
5844.00,0.74
5843.00,0.74
5842.00,0.74
5841.00,0.74
5840.00,0.73
5839.00,0.73
5838.00,0.73
5837.00,0.73
5836.00,0.73
5835.00,0.73
5834.00,0.73
5833.00,0.73
5832.00,0.73
5831.00,0.73
5830.00,0.73
5829.00,0.73
5828.00,0.73
5827.00,0.73
5826.00,0.73
5825.00,0.73
5824.00,0.74
5823.00,0.74
5822.00,0.74
5821.00,0.74
5820.00,0.74
5819.00,0.74
5818.00,0.74
5817.00,0.74
5816.00,0.74
5815.00,0.74
5814.00,0.74
5813.00,0.74
5812.00,0.74
5811.00,0.74
5810.00,0.74
5809.00,0.74
5808.00,0.74
5807.00,0.74
5806.00,0.74
5805.00,0.74
5804.00,0.74
5803.00,0.74
5802.00,0.74
5801.00,0.74
5800.00,0.74
5799.00,0.74
5798.00,0.74
5797.00,0.74
5796.00,0.74
5795.00,0.73
5794.00,0.73
5793.00,0.73
5792.00,0.73
5791.00,0.73
5790.00,0.73
5789.00,0.73
5788.00,0.73
5787.00,0.73
5786.00,0.73
5785.00,0.73
5784.00,0.72
5783.00,0.72
5782.00,0.72
5781.00,0.72
5780.00,0.72
5779.00,0.72
5778.00,0.72
5777.00,0.72
5776.00,0.72
5775.00,0.72
5774.00,0.72
5773.00,0.72
5772.00,0.72
5771.00,0.72
5770.00,0.72
5769.00,0.72
5768.00,0.72
5767.00,0.73
5766.00,0.73
5765.00,0.73
5764.00,0.73
5763.00,0.73
5762.00,0.73
5761.00,0.73
5760.00,0.73
5759.00,0.73
5758.00,0.73
5757.00,0.73
5756.00,0.73
5755.00,0.73
5754.00,0.73
5753.00,0.73
5752.00,0.73
5751.00,0.73
5750.00,0.73
5749.00,0.73
5748.00,0.73
5747.00,0.74
5746.00,0.74
5745.00,0.74
5744.00,0.74
5743.00,0.74
5742.00,0.74
5741.00,0.74
5740.00,0.74
5739.00,0.74
5738.00,0.74
5737.00,0.74
5736.00,0.74
5735.00,0.74
5734.00,0.74
5733.00,0.74
5732.00,0.75
5731.00,0.75
5730.00,0.75
5729.00,0.75
5728.00,0.75
5727.00,0.75
5726.00,0.75
5725.00,0.75
5724.00,0.75
5723.00,0.75
5722.00,0.75
5721.00,0.75
5720.00,0.75
5719.00,0.75
5718.00,0.75
5717.00,0.75
5716.00,0.75
5715.00,0.75
5714.00,0.75
5713.00,0.75
5712.00,0.75
5711.00,0.75
5710.00,0.75
5709.00,0.75
5708.00,0.75
5707.00,0.75
5706.00,0.75
5705.00,0.75
5704.00,0.75
5703.00,0.75
5702.00,0.75
5701.00,0.75
5700.00,0.75
5699.00,0.75
5698.00,0.75
5697.00,0.75
5696.00,0.75
5695.00,0.75
5694.00,0.75
5693.00,0.75
5692.00,0.75
5691.00,0.75
5690.00,0.75
5689.00,0.75
5688.00,0.75
5687.00,0.75
5686.00,0.75
5685.00,0.75
5684.00,0.75
5683.00,0.75
5682.00,0.75
5681.00,0.75
5680.00,0.75
5679.00,0.75
5678.00,0.75
5677.00,0.75
5676.00,0.75
5675.00,0.75
5674.00,0.75
5673.00,0.75
5672.00,0.75
5671.00,0.75
5670.00,0.74
5669.00,0.74
5668.00,0.74
5667.00,0.74
5666.00,0.74
5665.00,0.74
5664.00,0.74
5663.00,0.74
5662.00,0.74
5661.00,0.74
5660.00,0.74
5659.00,0.74
5658.00,0.73
5657.00,0.73
5656.00,0.73
5655.00,0.73
5654.00,0.73
5653.00,0.73
5652.00,0.73
5651.00,0.73
5650.00,0.73
5649.00,0.73
5648.00,0.73
5647.00,0.73
5646.00,0.73
5645.00,0.73
5644.00,0.73
5643.00,0.73
5642.00,0.74
5641.00,0.74
5640.00,0.74
5639.00,0.74
5638.00,0.74
5637.00,0.74
5636.00,0.74
5635.00,0.74
5634.00,0.74
5633.00,0.74
5632.00,0.75
5631.00,0.75
5630.00,0.75
5629.00,0.75
5628.00,0.75
5627.00,0.75
5626.00,0.76
5625.00,0.76
5624.00,0.76
5623.00,0.76
5622.00,0.76
5621.00,0.76
5620.00,0.76
5619.00,0.76
5618.00,0.77
5617.00,0.77
5616.00,0.77
5615.00,0.77
5614.00,0.77
5613.00,0.77
5612.00,0.77
5611.00,0.77
5610.00,0.77
5609.00,0.77
5608.00,0.78
5607.00,0.78
5606.00,0.78
5605.00,0.78
5604.00,0.78
5603.00,0.78
5602.00,0.78
5601.00,0.78
5600.00,0.78
5599.00,0.78
5598.00,0.78
5597.00,0.78
5596.00,0.78
5595.00,0.79
5594.00,0.79
5593.00,0.79
5592.00,0.79
5591.00,0.79
5590.00,0.79
5589.00,0.79
5588.00,0.79
5587.00,0.79
5586.00,0.79
5585.00,0.79
5584.00,0.79
5583.00,0.80
5582.00,0.80
5581.00,0.80
5580.00,0.80
5579.00,0.80
5578.00,0.80
5577.00,0.80
5576.00,0.80
5575.00,0.80
5574.00,0.80
5573.00,0.80
5572.00,0.80
5571.00,0.80
5570.00,0.80
5569.00,0.80
5568.00,0.80
5567.00,0.80
5566.00,0.80
5565.00,0.81
5564.00,0.81
5563.00,0.81
5562.00,0.81
5561.00,0.81
5560.00,0.81
5559.00,0.81
5558.00,0.81
5557.00,0.81
5556.00,0.81
5555.00,0.81
5554.00,0.81
5553.00,0.81
5552.00,0.81
5551.00,0.81
5550.00,0.82
5549.00,0.82
5548.00,0.82
5547.00,0.82
5546.00,0.82
5545.00,0.82
5544.00,0.82
5543.00,0.82
5542.00,0.82
5541.00,0.82
5540.00,0.82
5539.00,0.82
5538.00,0.82
5537.00,0.82
5536.00,0.82
5535.00,0.82
5534.00,0.82
5533.00,0.82
5532.00,0.82
5531.00,0.82
5530.00,0.82
5529.00,0.83
5528.00,0.83
5527.00,0.83
5526.00,0.83
5525.00,0.83
5524.00,0.83
5523.00,0.83
5522.00,0.83
5521.00,0.83
5520.00,0.83
5519.00,0.83
5518.00,0.83
5517.00,0.83
5516.00,0.83
5515.00,0.83
5514.00,0.83
5513.00,0.83
5512.00,0.83
5511.00,0.83
5510.00,0.83
5509.00,0.83
5508.00,0.83
5507.00,0.83
5506.00,0.83
5505.00,0.83
5504.00,0.83
5503.00,0.83
5502.00,0.83
5501.00,0.83
5500.00,0.84
5499.00,0.84
5498.00,0.84
5497.00,0.84
5496.00,0.84
5495.00,0.84
5494.00,0.84
5493.00,0.85
5492.00,0.85
5491.00,0.85
5490.00,0.85
5489.00,0.85
5488.00,0.86
5487.00,0.86
5486.00,0.86
5485.00,0.86
5484.00,0.86
5483.00,0.86
5482.00,0.86
5481.00,0.86
5480.00,0.87
5479.00,0.87
5478.00,0.87
5477.00,0.87
5476.00,0.87
5475.00,0.87
5474.00,0.88
5473.00,0.88
5472.00,0.88
5471.00,0.88
5470.00,0.88
5469.00,0.88
5468.00,0.88
5467.00,0.88
5466.00,0.88
5465.00,0.88
5464.00,0.88
5463.00,0.88
5462.00,0.88
5461.00,0.88
5460.00,0.88
5459.00,0.88
5458.00,0.88
5457.00,0.88
5456.00,0.88
5455.00,0.88
5454.00,0.88
5453.00,0.88
5452.00,0.88
5451.00,0.88
5450.00,0.88
5449.00,0.87
5448.00,0.87
5447.00,0.87
5446.00,0.87
5445.00,0.87
5444.00,0.87
5443.00,0.87
5442.00,0.87
5441.00,0.87
5440.00,0.87
5439.00,0.87
5438.00,0.87
5437.00,0.87
5436.00,0.87
5435.00,0.87
5434.00,0.87
5433.00,0.87
5432.00,0.87
5431.00,0.87
5430.00,0.87
5429.00,0.88
5428.00,0.88
5427.00,0.88
5426.00,0.88
5425.00,0.88
5424.00,0.88
5423.00,0.88
5422.00,0.88
5421.00,0.88
5420.00,0.88
5419.00,0.88
5418.00,0.89
5417.00,0.89
5416.00,0.89
5415.00,0.89
5414.00,0.89
5413.00,0.89
5412.00,0.89
5411.00,0.89
5410.00,0.89
5409.00,0.89
5408.00,0.89
5407.00,0.89
5406.00,0.89
5405.00,0.89
5404.00,0.89
5403.00,0.89
5402.00,0.89
5401.00,0.89
5400.00,0.89
5399.00,0.89
5398.00,0.89
5397.00,0.89
5396.00,0.89
5395.00,0.89
5394.00,0.89
5393.00,0.88
5392.00,0.88
5391.00,0.88
5390.00,0.88
5389.00,0.88
5388.00,0.88
5387.00,0.87
5386.00,0.87
5385.00,0.87
5384.00,0.87
5383.00,0.87
5382.00,0.86
5381.00,0.86
5380.00,0.86
5379.00,0.85
5378.00,0.85
5377.00,0.85
5376.00,0.85
5375.00,0.84
5374.00,0.84
5373.00,0.83
5372.00,0.83
5371.00,0.83
5370.00,0.82
5369.00,0.82
5368.00,0.81
5367.00,0.81
5366.00,0.80
5365.00,0.80
5364.00,0.80
5363.00,0.79
5362.00,0.79
5361.00,0.78
5360.00,0.78
5359.00,0.77
5358.00,0.77
5357.00,0.76
5356.00,0.76
5355.00,0.76
5354.00,0.75
5353.00,0.75
5352.00,0.74
5351.00,0.74
5350.00,0.73
5349.00,0.73
5348.00,0.72
5347.00,0.72
5346.00,0.71
5345.00,0.71
5344.00,0.71
5343.00,0.70
5342.00,0.70
5341.00,0.69
5340.00,0.68
5339.00,0.68
5338.00,0.67
5337.00,0.67
5336.00,0.66
5335.00,0.65
5334.00,0.65
5333.00,0.64
5332.00,0.63
5331.00,0.63
5330.00,0.62
5329.00,0.61
5328.00,0.61
5327.00,0.60
5326.00,0.59
5325.00,0.59
5324.00,0.58
5323.00,0.57
5322.00,0.57
5321.00,0.56
5320.00,0.55
5319.00,0.55
5318.00,0.54
5317.00,0.54
5316.00,0.53
5315.00,0.52
5314.00,0.52
5313.00,0.51
5312.00,0.51
5311.00,0.50
5310.00,0.49
5309.00,0.49
5308.00,0.48
5307.00,0.48
5306.00,0.48
5305.00,0.47
5304.00,0.47
5303.00,0.46
5302.00,0.46
5301.00,0.46
5300.00,0.45
5299.00,0.45
5298.00,0.44
5297.00,0.44
5296.00,0.44
5295.00,0.43
5294.00,0.43
5293.00,0.42
5292.00,0.42
5291.00,0.42
5290.00,0.41
5289.00,0.41
5288.00,0.41
5287.00,0.40
5286.00,0.40
5285.00,0.40
5284.00,0.39
5283.00,0.39
5282.00,0.39
5281.00,0.39
5280.00,0.38
5279.00,0.38
5278.00,0.38
5277.00,0.38
5276.00,0.38
5275.00,0.37
5274.00,0.37
5273.00,0.37
5272.00,0.37
5271.00,0.37
5270.00,0.37
5269.00,0.37
5268.00,0.37
5267.00,0.36
5266.00,0.36
5265.00,0.36
5264.00,0.36
5263.00,0.36
5262.00,0.37
5261.00,0.37
5260.00,0.37
5259.00,0.37
5258.00,0.37
5257.00,0.37
5256.00,0.37
5255.00,0.37
5254.00,0.37
5253.00,0.37
5252.00,0.37
5251.00,0.37
5250.00,0.38
5249.00,0.38
5248.00,0.38
5247.00,0.38
5246.00,0.38
5245.00,0.38
5244.00,0.38
5243.00,0.39
5242.00,0.39
5241.00,0.39
5240.00,0.39
5239.00,0.39
5238.00,0.39
5237.00,0.39
5236.00,0.39
5235.00,0.40
5234.00,0.40
5233.00,0.40
5232.00,0.40
5231.00,0.40
5230.00,0.40
5229.00,0.40
5228.00,0.40
5227.00,0.40
5226.00,0.39
5225.00,0.39
5224.00,0.39
5223.00,0.39
5222.00,0.39
5221.00,0.39
5220.00,0.39
5219.00,0.39
5218.00,0.39
5217.00,0.38
5216.00,0.38
5215.00,0.38
5214.00,0.38
5213.00,0.38
5212.00,0.38
5211.00,0.38
5210.00,0.38
5209.00,0.38
5208.00,0.38
5207.00,0.38
5206.00,0.38
5205.00,0.38
5204.00,0.38
5203.00,0.38
5202.00,0.38
5201.00,0.38
5200.00,0.38
5199.00,0.38
5198.00,0.38
5197.00,0.38
5196.00,0.38
5195.00,0.38
5194.00,0.38
5193.00,0.38
5192.00,0.38
5191.00,0.38
5190.00,0.39
5189.00,0.39
5188.00,0.39
5187.00,0.39
5186.00,0.39
5185.00,0.39
5184.00,0.39
5183.00,0.39
5182.00,0.39
5181.00,0.39
5180.00,0.39
5179.00,0.39
5178.00,0.39
5177.00,0.39
5176.00,0.39
5175.00,0.39
5174.00,0.39
5173.00,0.39
5172.00,0.39
5171.00,0.39
5170.00,0.39
5169.00,0.39
5168.00,0.39
5167.00,0.39
5166.00,0.39
5165.00,0.39
5164.00,0.39
5163.00,0.39
5162.00,0.39
5161.00,0.39
5160.00,0.38
5159.00,0.38
5158.00,0.38
5157.00,0.38
5156.00,0.38
5155.00,0.38
5154.00,0.38
5153.00,0.38
5152.00,0.38
5151.00,0.38
5150.00,0.38
5149.00,0.38
5148.00,0.38
5147.00,0.38
5146.00,0.38
5145.00,0.38
5144.00,0.38
5143.00,0.38
5142.00,0.38
5141.00,0.38
5140.00,0.38
5139.00,0.38
5138.00,0.38
5137.00,0.38
5136.00,0.38
5135.00,0.38
5134.00,0.38
5133.00,0.38
5132.00,0.38
5131.00,0.38
5130.00,0.38
5129.00,0.38
5128.00,0.38
5127.00,0.38
5126.00,0.38
5125.00,0.38
5124.00,0.38
5123.00,0.38
5122.00,0.38
5121.00,0.38
5120.00,0.38
5119.00,0.38
5118.00,0.38
5117.00,0.38
5116.00,0.38
5115.00,0.38
5114.00,0.38
5113.00,0.38
5112.00,0.38
5111.00,0.38
5110.00,0.38
5109.00,0.38
5108.00,0.38
5107.00,0.38
5106.00,0.38
5105.00,0.39
5104.00,0.39
5103.00,0.39
5102.00,0.39
5101.00,0.39
5100.00,0.39
5099.00,0.39
5098.00,0.39
5097.00,0.39
5096.00,0.39
5095.00,0.39
5094.00,0.39
5093.00,0.39
5092.00,0.39
5091.00,0.39
5090.00,0.39
5089.00,0.39
5088.00,0.39
5087.00,0.39
5086.00,0.39
5085.00,0.39
5084.00,0.39
5083.00,0.39
5082.00,0.39
5081.00,0.39
5080.00,0.39
5079.00,0.39
5078.00,0.39
5077.00,0.39
5076.00,0.39
5075.00,0.39
5074.00,0.39
5073.00,0.39
5072.00,0.39
5071.00,0.39
5070.00,0.39
5069.00,0.39
5068.00,0.39
5067.00,0.39
5066.00,0.39
5065.00,0.40
5064.00,0.40
5063.00,0.40
5062.00,0.40
5061.00,0.40
5060.00,0.40
5059.00,0.40
5058.00,0.41
5057.00,0.41
5056.00,0.41
5055.00,0.41
5054.00,0.41
5053.00,0.41
5052.00,0.42
5051.00,0.42
5050.00,0.42
5049.00,0.42
5048.00,0.42
5047.00,0.42
5046.00,0.42
5045.00,0.42
5044.00,0.42
5043.00,0.42
5042.00,0.42
5041.00,0.42
5040.00,0.42
5039.00,0.42
5038.00,0.42
5037.00,0.43
5036.00,0.43
5035.00,0.43
5034.00,0.43
5033.00,0.43
5032.00,0.43
5031.00,0.43
5030.00,0.43
5029.00,0.43
5028.00,0.44
5027.00,0.44
5026.00,0.44
5025.00,0.44
5024.00,0.44
5023.00,0.44
5022.00,0.44
5021.00,0.44
5020.00,0.44
5019.00,0.45
5018.00,0.45
5017.00,0.45
5016.00,0.45
5015.00,0.45
5014.00,0.45
5013.00,0.45
5012.00,0.45
5011.00,0.45
5010.00,0.46
5009.00,0.46
5008.00,0.46
5007.00,0.46
5006.00,0.46
5005.00,0.46
5004.00,0.46
5003.00,0.46
5002.00,0.46
5001.00,0.46
5000.00,0.46
4999.00,0.46
4998.00,0.46
4997.00,0.46
4996.00,0.46
4995.00,0.46
4994.00,0.46
4993.00,0.46
4992.00,0.46
4991.00,0.46
4990.00,0.46
4989.00,0.46
4988.00,0.46
4987.00,0.46
4986.00,0.46
4985.00,0.47
4984.00,0.47
4983.00,0.47
4982.00,0.47
4981.00,0.47
4980.00,0.47
4979.00,0.47
4978.00,0.47
4977.00,0.47
4976.00,0.47
4975.00,0.47
4974.00,0.47
4973.00,0.47
4972.00,0.47
4971.00,0.47
4970.00,0.47
4969.00,0.47
4968.00,0.47
4967.00,0.47
4966.00,0.47
4965.00,0.46
4964.00,0.46
4963.00,0.46
4962.00,0.46
4961.00,0.46
4960.00,0.46
4959.00,0.46
4958.00,0.46
4957.00,0.46
4956.00,0.46
4955.00,0.46
4954.00,0.46
4953.00,0.46
4952.00,0.46
4951.00,0.46
4950.00,0.46
4949.00,0.46
4948.00,0.46
4947.00,0.46
4946.00,0.46
4945.00,0.46
4944.00,0.47
4943.00,0.47
4942.00,0.47
4941.00,0.47
4940.00,0.48
4939.00,0.48
4938.00,0.48
4937.00,0.49
4936.00,0.49
4935.00,0.49
4934.00,0.50
4933.00,0.50
4932.00,0.50
4931.00,0.50
4930.00,0.51
4929.00,0.51
4928.00,0.51
4927.00,0.51
4926.00,0.52
4925.00,0.52
4924.00,0.52
4923.00,0.52
4922.00,0.52
4921.00,0.52
4920.00,0.52
4919.00,0.52
4918.00,0.52
4917.00,0.52
4916.00,0.53
4915.00,0.53
4914.00,0.52
4913.00,0.52
4912.00,0.52
4911.00,0.52
4910.00,0.52
4909.00,0.52
4908.00,0.52
4907.00,0.52
4906.00,0.52
4905.00,0.52
4904.00,0.52
4903.00,0.52
4902.00,0.52
4901.00,0.52
4900.00,0.52
4899.00,0.52
4898.00,0.52
4897.00,0.52
4896.00,0.52
4895.00,0.52
4894.00,0.52
4893.00,0.52
4892.00,0.53
4891.00,0.53
4890.00,0.53
4889.00,0.53
4888.00,0.53
4887.00,0.53
4886.00,0.53
4885.00,0.53
4884.00,0.53
4883.00,0.53
4882.00,0.54
4881.00,0.54
4880.00,0.54
4879.00,0.54
4878.00,0.54
4877.00,0.54
4876.00,0.54
4875.00,0.54
4874.00,0.55
4873.00,0.55
4872.00,0.55
4871.00,0.55
4870.00,0.55
4869.00,0.55
4868.00,0.55
4867.00,0.55
4866.00,0.55
4865.00,0.55
4864.00,0.55
4863.00,0.56
4862.00,0.56
4861.00,0.56
4860.00,0.56
4859.00,0.56
4858.00,0.56
4857.00,0.56
4856.00,0.56
4855.00,0.56
4854.00,0.56
4853.00,0.56
4852.00,0.56
4851.00,0.56
4850.00,0.56
4849.00,0.56
4848.00,0.56
4847.00,0.56
4846.00,0.57
4845.00,0.57
4844.00,0.57
4843.00,0.57
4842.00,0.57
4841.00,0.57
4840.00,0.57
4839.00,0.57
4838.00,0.57
4837.00,0.57
4836.00,0.57
4835.00,0.57
4834.00,0.57
4833.00,0.57
4832.00,0.57
4831.00,0.57
4830.00,0.57
4829.00,0.57
4828.00,0.57
4827.00,0.57
4826.00,0.57
4825.00,0.57
4824.00,0.57
4823.00,0.56
4822.00,0.56
4821.00,0.56
4820.00,0.56
4819.00,0.56
4818.00,0.56
4817.00,0.56
4816.00,0.56
4815.00,0.56
4814.00,0.56
4813.00,0.56
4812.00,0.56
4811.00,0.56
4810.00,0.56
4809.00,0.56
4808.00,0.56
4807.00,0.56
4806.00,0.56
4805.00,0.56
4804.00,0.56
4803.00,0.56
4802.00,0.56
4801.00,0.56
4800.00,0.56
4799.00,0.56
4798.00,0.56
4797.00,0.57
4796.00,0.57
4795.00,0.57
4794.00,0.57
4793.00,0.57
4792.00,0.57
4791.00,0.57
4790.00,0.58
4789.00,0.58
4788.00,0.58
4787.00,0.58
4786.00,0.58
4785.00,0.59
4784.00,0.59
4783.00,0.59
4782.00,0.59
4781.00,0.59
4780.00,0.59
4779.00,0.60
4778.00,0.60
4777.00,0.60
4776.00,0.60
4775.00,0.61
4774.00,0.61
4773.00,0.61
4772.00,0.61
4771.00,0.62
4770.00,0.62
4769.00,0.62
4768.00,0.62
4767.00,0.62
4766.00,0.63
4765.00,0.63
4764.00,0.63
4763.00,0.63
4762.00,0.63
4761.00,0.63
4760.00,0.63
4759.00,0.63
4758.00,0.63
4757.00,0.64
4756.00,0.64
4755.00,0.64
4754.00,0.64
4753.00,0.64
4752.00,0.64
4751.00,0.64
4750.00,0.64
4749.00,0.64
4748.00,0.65
4747.00,0.65
4746.00,0.65
4745.00,0.65
4744.00,0.65
4743.00,0.65
4742.00,0.66
4741.00,0.66
4740.00,0.66
4739.00,0.66
4738.00,0.67
4737.00,0.67
4736.00,0.67
4735.00,0.67
4734.00,0.68
4733.00,0.68
4732.00,0.68
4731.00,0.68
4730.00,0.69
4729.00,0.69
4728.00,0.69
4727.00,0.69
4726.00,0.70
4725.00,0.70
4724.00,0.70
4723.00,0.70
4722.00,0.70
4721.00,0.70
4720.00,0.71
4719.00,0.71
4718.00,0.71
4717.00,0.71
4716.00,0.71
4715.00,0.71
4714.00,0.71
4713.00,0.71
4712.00,0.71
4711.00,0.71
4710.00,0.71
4709.00,0.71
4708.00,0.71
4707.00,0.71
4706.00,0.71
4705.00,0.71
4704.00,0.71
4703.00,0.71
4702.00,0.71
4701.00,0.71
4700.00,0.71
4699.00,0.71
4698.00,0.71
4697.00,0.71
4696.00,0.71
4695.00,0.71
4694.00,0.71
4693.00,0.71
4692.00,0.71
4691.00,0.71
4690.00,0.71
4689.00,0.72
4688.00,0.72
4687.00,0.72
4686.00,0.72
4685.00,0.72
4684.00,0.72
4683.00,0.72
4682.00,0.72
4681.00,0.72
4680.00,0.72
4679.00,0.72
4678.00,0.72
4677.00,0.72
4676.00,0.72
4675.00,0.72
4674.00,0.72
4673.00,0.72
4672.00,0.72
4671.00,0.72
4670.00,0.72
4669.00,0.72
4668.00,0.72
4667.00,0.72
4666.00,0.72
4665.00,0.72
4664.00,0.72
4663.00,0.72
4662.00,0.72
4661.00,0.72
4660.00,0.72
4659.00,0.72
4658.00,0.73
4657.00,0.73
4656.00,0.73
4655.00,0.73
4654.00,0.74
4653.00,0.74
4652.00,0.74
4651.00,0.75
4650.00,0.75
4649.00,0.75
4648.00,0.76
4647.00,0.76
4646.00,0.76
4645.00,0.77
4644.00,0.77
4643.00,0.77
4642.00,0.78
4641.00,0.78
4640.00,0.79
4639.00,0.79
4638.00,0.79
4637.00,0.80
4636.00,0.80
4635.00,0.80
4634.00,0.80
4633.00,0.81
4632.00,0.81
4631.00,0.81
4630.00,0.81
4629.00,0.82
4628.00,0.82
4627.00,0.82
4626.00,0.82
4625.00,0.82
4624.00,0.82
4623.00,0.82
4622.00,0.83
4621.00,0.83
4620.00,0.83
4619.00,0.83
4618.00,0.83
4617.00,0.83
4616.00,0.83
4615.00,0.83
4614.00,0.84
4613.00,0.83
4612.00,0.83
4611.00,0.83
4610.00,0.83
4609.00,0.83
4608.00,0.83
4607.00,0.83
4606.00,0.83
4605.00,0.83
4604.00,0.83
4603.00,0.83
4602.00,0.83
4601.00,0.83
4600.00,0.83
4599.00,0.83
4598.00,0.82
4597.00,0.82
4596.00,0.82
4595.00,0.82
4594.00,0.82
4593.00,0.82
4592.00,0.82
4591.00,0.82
4590.00,0.82
4589.00,0.82
4588.00,0.82
4587.00,0.82
4586.00,0.82
4585.00,0.82
4584.00,0.82
4583.00,0.82
4582.00,0.82
4581.00,0.82
4580.00,0.83
4579.00,0.83
4578.00,0.83
4577.00,0.83
4576.00,0.83
4575.00,0.83
4574.00,0.83
4573.00,0.83
4572.00,0.83
4571.00,0.84
4570.00,0.84
4569.00,0.84
4568.00,0.84
4567.00,0.84
4566.00,0.84
4565.00,0.85
4564.00,0.85
4563.00,0.85
4562.00,0.85
4561.00,0.85
4560.00,0.85
4559.00,0.85
4558.00,0.85
4557.00,0.85
4556.00,0.85
4555.00,0.85
4554.00,0.85
4553.00,0.85
4552.00,0.85
4551.00,0.86
4550.00,0.86
4549.00,0.86
4548.00,0.86
4547.00,0.86
4546.00,0.86
4545.00,0.86
4544.00,0.86
4543.00,0.86
4542.00,0.86
4541.00,0.86
4540.00,0.86
4539.00,0.86
4538.00,0.86
4537.00,0.86
4536.00,0.86
4535.00,0.86
4534.00,0.86
4533.00,0.86
4532.00,0.86
4531.00,0.86
4530.00,0.86
4529.00,0.86
4528.00,0.86
4527.00,0.86
4526.00,0.86
4525.00,0.86
4524.00,0.86
4523.00,0.86
4522.00,0.86
4521.00,0.86
4520.00,0.86
4519.00,0.86
4518.00,0.86
4517.00,0.86
4516.00,0.86
4515.00,0.86
4514.00,0.86
4513.00,0.86
4512.00,0.86
4511.00,0.86
4510.00,0.86
4509.00,0.86
4508.00,0.86
4507.00,0.86
4506.00,0.86
4505.00,0.86
4504.00,0.85
4503.00,0.85
4502.00,0.85
4501.00,0.85
4500.00,0.85
4499.00,0.85
4498.00,0.85
4497.00,0.85
4496.00,0.85
4495.00,0.84
4494.00,0.84
4493.00,0.84
4492.00,0.84
4491.00,0.84
4490.00,0.84
4489.00,0.83
4488.00,0.83
4487.00,0.83
4486.00,0.83
4485.00,0.82
4484.00,0.82
4483.00,0.82
4482.00,0.82
4481.00,0.81
4480.00,0.81
4479.00,0.81
4478.00,0.80
4477.00,0.80
4476.00,0.80
4475.00,0.80
4474.00,0.79
4473.00,0.79
4472.00,0.79
4471.00,0.79
4470.00,0.79
4469.00,0.79
4468.00,0.79
4467.00,0.79
4466.00,0.78
4465.00,0.78
4464.00,0.78
4463.00,0.78
4462.00,0.78
4461.00,0.78
4460.00,0.78
4459.00,0.78
4458.00,0.78
4457.00,0.78
4456.00,0.78
4455.00,0.78
4454.00,0.78
4453.00,0.78
4452.00,0.78
4451.00,0.78
4450.00,0.78
4449.00,0.78
4448.00,0.77
4447.00,0.77
4446.00,0.77
4445.00,0.77
4444.00,0.76
4443.00,0.76
4442.00,0.75
4441.00,0.75
4440.00,0.74
4439.00,0.74
4438.00,0.73
4437.00,0.72
4436.00,0.72
4435.00,0.71
4434.00,0.71
4433.00,0.70
4432.00,0.69
4431.00,0.69
4430.00,0.68
4429.00,0.67
4428.00,0.67
4427.00,0.66
4426.00,0.66
4425.00,0.65
4424.00,0.65
4423.00,0.65
4422.00,0.64
4421.00,0.64
4420.00,0.64
4419.00,0.63
4418.00,0.63
4417.00,0.63
4416.00,0.63
4415.00,0.63
4414.00,0.63
4413.00,0.63
4412.00,0.63
4411.00,0.63
4410.00,0.63
4409.00,0.63
4408.00,0.63
4407.00,0.64
4406.00,0.64
4405.00,0.64
4404.00,0.64
4403.00,0.64
4402.00,0.65
4401.00,0.65
4400.00,0.65
4399.00,0.65
4398.00,0.65
4397.00,0.65
4396.00,0.66
4395.00,0.66
4394.00,0.66
4393.00,0.66
4392.00,0.66
4391.00,0.66
4390.00,0.67
4389.00,0.67
4388.00,0.67
4387.00,0.67
4386.00,0.67
4385.00,0.67
4384.00,0.68
4383.00,0.68
4382.00,0.68
4381.00,0.68
4380.00,0.68
4379.00,0.68
4378.00,0.68
4377.00,0.69
4376.00,0.69
4375.00,0.69
4374.00,0.69
4373.00,0.69
4372.00,0.69
4371.00,0.69
4370.00,0.70
4369.00,0.70
4368.00,0.70
4367.00,0.70
4366.00,0.70
4365.00,0.70
4364.00,0.70
4363.00,0.70
4362.00,0.70
4361.00,0.70
4360.00,0.70
4359.00,0.70
4358.00,0.70
4357.00,0.70
4356.00,0.70
4355.00,0.70
4354.00,0.70
4353.00,0.70
4352.00,0.70
4351.00,0.70
4350.00,0.70
4349.00,0.70
4348.00,0.70
4347.00,0.70
4346.00,0.70
4345.00,0.70
4344.00,0.70
4343.00,0.70
4342.00,0.69
4341.00,0.69
4340.00,0.69
4339.00,0.69
4338.00,0.69
4337.00,0.69
4336.00,0.69
4335.00,0.69
4334.00,0.69
4333.00,0.69
4332.00,0.69
4331.00,0.69
4330.00,0.69
4329.00,0.69
4328.00,0.69
4327.00,0.69
4326.00,0.69
4325.00,0.69
4324.00,0.69
4323.00,0.69
4322.00,0.69
4321.00,0.70
4320.00,0.70
4319.00,0.70
4318.00,0.70
4317.00,0.70
4316.00,0.70
4315.00,0.70
4314.00,0.70
4313.00,0.70
4312.00,0.70
4311.00,0.71
4310.00,0.71
4309.00,0.71
4308.00,0.71
4307.00,0.72
4306.00,0.72
4305.00,0.72
4304.00,0.72
4303.00,0.72
4302.00,0.72
4301.00,0.73
4300.00,0.73
4299.00,0.73
4298.00,0.73
4297.00,0.73
4296.00,0.73
4295.00,0.74
4294.00,0.74
4293.00,0.74
4292.00,0.74
4291.00,0.74
4290.00,0.75
4289.00,0.75
4288.00,0.75
4287.00,0.75
4286.00,0.75
4285.00,0.75
4284.00,0.75
4283.00,0.75
4282.00,0.75
4281.00,0.75
4280.00,0.75
4279.00,0.75
4278.00,0.75
4277.00,0.75
4276.00,0.75
4275.00,0.75
4274.00,0.75
4273.00,0.75
4272.00,0.75
4271.00,0.74
4270.00,0.74
4269.00,0.74
4268.00,0.74
4267.00,0.74
4266.00,0.74
4265.00,0.74
4264.00,0.74
4263.00,0.74
4262.00,0.73
4261.00,0.73
4260.00,0.73
4259.00,0.73
4258.00,0.74
4257.00,0.74
4256.00,0.74
4255.00,0.74
4254.00,0.74
4253.00,0.74
4252.00,0.74
4251.00,0.75
4250.00,0.75
4249.00,0.75
4248.00,0.75
4247.00,0.75
4246.00,0.75
4245.00,0.76
4244.00,0.76
4243.00,0.76
4242.00,0.76
4241.00,0.76
4240.00,0.76
4239.00,0.77
4238.00,0.77
4237.00,0.77
4236.00,0.77
4235.00,0.77
4234.00,0.78
4233.00,0.78
4232.00,0.78
4231.00,0.78
4230.00,0.78
4229.00,0.78
4228.00,0.79
4227.00,0.79
4226.00,0.79
4225.00,0.79
4224.00,0.79
4223.00,0.79
4222.00,0.80
4221.00,0.80
4220.00,0.80
4219.00,0.80
4218.00,0.80
4217.00,0.80
4216.00,0.80
4215.00,0.80
4214.00,0.80
4213.00,0.80
4212.00,0.80
4211.00,0.80
4210.00,0.80
4209.00,0.80
4208.00,0.80
4207.00,0.80
4206.00,0.80
4205.00,0.80
4204.00,0.79
4203.00,0.79
4202.00,0.79
4201.00,0.79
4200.00,0.79
4199.00,0.79
4198.00,0.79
4197.00,0.79
4196.00,0.79
4195.00,0.79
4194.00,0.79
4193.00,0.79
4192.00,0.79
4191.00,0.79
4190.00,0.79
4189.00,0.79
4188.00,0.79
4187.00,0.79
4186.00,0.79
4185.00,0.79
4184.00,0.79
4183.00,0.80
4182.00,0.80
4181.00,0.80
4180.00,0.80
4179.00,0.80
4178.00,0.80
4177.00,0.80
4176.00,0.80
4175.00,0.80
4174.00,0.80
4173.00,0.79
4172.00,0.79
4171.00,0.79
4170.00,0.79
4169.00,0.79
4168.00,0.78
4167.00,0.78
4166.00,0.78
4165.00,0.78
4164.00,0.77
4163.00,0.77
4162.00,0.77
4161.00,0.77
4160.00,0.77
4159.00,0.76
4158.00,0.76
4157.00,0.76
4156.00,0.76
4155.00,0.76
4154.00,0.76
4153.00,0.76
4152.00,0.76
4151.00,0.76
4150.00,0.76
4149.00,0.76
4148.00,0.76
4147.00,0.76
4146.00,0.76
4145.00,0.76
4144.00,0.77
4143.00,0.77
4142.00,0.77
4141.00,0.77
4140.00,0.77
4139.00,0.78
4138.00,0.78
4137.00,0.78
4136.00,0.78
4135.00,0.78
4134.00,0.78
4133.00,0.78
4132.00,0.78
4131.00,0.78
4130.00,0.78
4129.00,0.79
4128.00,0.79
4127.00,0.79
4126.00,0.79
4125.00,0.79
4124.00,0.79
4123.00,0.79
4122.00,0.79
4121.00,0.79
4120.00,0.79
4119.00,0.79
4118.00,0.79
4117.00,0.79
4116.00,0.79
4115.00,0.79
4114.00,0.79
4113.00,0.79
4112.00,0.79
4111.00,0.78
4110.00,0.78
4109.00,0.78
4108.00,0.78
4107.00,0.78
4106.00,0.78
4105.00,0.78
4104.00,0.78
4103.00,0.77
4102.00,0.77
4101.00,0.77
4100.00,0.77
4099.00,0.77
4098.00,0.77
4097.00,0.76
4096.00,0.76
4095.00,0.76
4094.00,0.76
4093.00,0.75
4092.00,0.75
4091.00,0.75
4090.00,0.75
4089.00,0.74
4088.00,0.74
4087.00,0.74
4086.00,0.74
4085.00,0.74
4084.00,0.74
4083.00,0.74
4082.00,0.74
4081.00,0.74
4080.00,0.74
4079.00,0.74
4078.00,0.75
4077.00,0.75
4076.00,0.75
4075.00,0.75
4074.00,0.75
4073.00,0.75
4072.00,0.75
4071.00,0.75
4070.00,0.75
4069.00,0.76
4068.00,0.76
4067.00,0.76
4066.00,0.76
4065.00,0.76
4064.00,0.76
4063.00,0.77
4062.00,0.77
4061.00,0.77
4060.00,0.77
4059.00,0.77
4058.00,0.78
4057.00,0.78
4056.00,0.78
4055.00,0.78
4054.00,0.78
4053.00,0.78
4052.00,0.79
4051.00,0.79
4050.00,0.79
4049.00,0.79
4048.00,0.79
4047.00,0.79
4046.00,0.80
4045.00,0.80
4044.00,0.80
4043.00,0.80
4042.00,0.80
4041.00,0.81
4040.00,0.81
4039.00,0.81
4038.00,0.81
4037.00,0.81
4036.00,0.81
4035.00,0.81
4034.00,0.81
4033.00,0.81
4032.00,0.81
4031.00,0.81
4030.00,0.81
4029.00,0.81
4028.00,0.81
4027.00,0.81
4026.00,0.81
4025.00,0.81
4024.00,0.82
4023.00,0.82
4022.00,0.82
4021.00,0.82
4020.00,0.82
4019.00,0.82
4018.00,0.83
4017.00,0.83
4016.00,0.83
4015.00,0.83
4014.00,0.83
4013.00,0.83
4012.00,0.84
4011.00,0.84
4010.00,0.85
4009.00,0.85
4008.00,0.86
4007.00,0.86
4006.00,0.87
4005.00,0.87
4004.00,0.88
4003.00,0.88
4002.00,0.89
4001.00,0.89
4000.00,0.90
