创建为新数据集,样品 969 用户 Administrator 日期 星期二, 七月 30 2019
cm-1,%T
10000.00,1.30
9999.00,1.31
9998.00,1.33
9997.00,1.34
9996.00,1.36
9995.00,1.37
9994.00,1.39
9993.00,1.40
9992.00,1.41
9991.00,1.43
9990.00,1.44
9989.00,1.45
9988.00,1.45
9987.00,1.46
9986.00,1.46
9985.00,1.47
9984.00,1.46
9983.00,1.46
9982.00,1.46
9981.00,1.45
9980.00,1.44
9979.00,1.43
9978.00,1.42
9977.00,1.40
9976.00,1.39
9975.00,1.37
9974.00,1.36
9973.00,1.34
9972.00,1.33
9971.00,1.31
9970.00,1.30
9969.00,1.29
9968.00,1.27
9967.00,1.26
9966.00,1.25
9965.00,1.23
9964.00,1.22
9963.00,1.21
9962.00,1.20
9961.00,1.19
9960.00,1.18
9959.00,1.17
9958.00,1.16
9957.00,1.15
9956.00,1.14
9955.00,1.14
9954.00,1.13
9953.00,1.13
9952.00,1.13
9951.00,1.13
9950.00,1.13
9949.00,1.14
9948.00,1.14
9947.00,1.14
9946.00,1.15
9945.00,1.15
9944.00,1.15
9943.00,1.15
9942.00,1.16
9941.00,1.16
9940.00,1.16
9939.00,1.16
9938.00,1.16
9937.00,1.16
9936.00,1.16
9935.00,1.16
9934.00,1.16
9933.00,1.16
9932.00,1.16
9931.00,1.16
9930.00,1.16
9929.00,1.15
9928.00,1.15
9927.00,1.15
9926.00,1.15
9925.00,1.14
9924.00,1.14
9923.00,1.14
9922.00,1.13
9921.00,1.13
9920.00,1.13
9919.00,1.13
9918.00,1.13
9917.00,1.13
9916.00,1.13
9915.00,1.13
9914.00,1.13
9913.00,1.13
9912.00,1.13
9911.00,1.13
9910.00,1.13
9909.00,1.13
9908.00,1.13
9907.00,1.14
9906.00,1.14
9905.00,1.14
9904.00,1.15
9903.00,1.15
9902.00,1.16
9901.00,1.16
9900.00,1.17
9899.00,1.17
9898.00,1.18
9897.00,1.19
9896.00,1.19
9895.00,1.20
9894.00,1.20
9893.00,1.20
9892.00,1.21
9891.00,1.21
9890.00,1.21
9889.00,1.21
9888.00,1.22
9887.00,1.22
9886.00,1.22
9885.00,1.23
9884.00,1.23
9883.00,1.23
9882.00,1.24
9881.00,1.24
9880.00,1.24
9879.00,1.24
9878.00,1.24
9877.00,1.24
9876.00,1.24
9875.00,1.24
9874.00,1.23
9873.00,1.23
9872.00,1.22
9871.00,1.22
9870.00,1.22
9869.00,1.22
9868.00,1.21
9867.00,1.21
9866.00,1.21
9865.00,1.20
9864.00,1.20
9863.00,1.20
9862.00,1.19
9861.00,1.19
9860.00,1.18
9859.00,1.18
9858.00,1.17
9857.00,1.17
9856.00,1.16
9855.00,1.16
9854.00,1.16
9853.00,1.16
9852.00,1.16
9851.00,1.15
9850.00,1.15
9849.00,1.16
9848.00,1.16
9847.00,1.16
9846.00,1.16
9845.00,1.16
9844.00,1.16
9843.00,1.16
9842.00,1.16
9841.00,1.17
9840.00,1.17
9839.00,1.17
9838.00,1.17
9837.00,1.18
9836.00,1.18
9835.00,1.18
9834.00,1.18
9833.00,1.19
9832.00,1.19
9831.00,1.19
9830.00,1.19
9829.00,1.19
9828.00,1.19
9827.00,1.19
9826.00,1.18
9825.00,1.18
9824.00,1.18
9823.00,1.18
9822.00,1.17
9821.00,1.17
9820.00,1.17
9819.00,1.16
9818.00,1.16
9817.00,1.15
9816.00,1.15
9815.00,1.15
9814.00,1.14
9813.00,1.14
9812.00,1.14
9811.00,1.13
9810.00,1.13
9809.00,1.13
9808.00,1.13
9807.00,1.13
9806.00,1.13
9805.00,1.13
9804.00,1.13
9803.00,1.13
9802.00,1.13
9801.00,1.14
9800.00,1.14
9799.00,1.14
9798.00,1.14
9797.00,1.14
9796.00,1.14
9795.00,1.15
9794.00,1.15
9793.00,1.15
9792.00,1.16
9791.00,1.16
9790.00,1.16
9789.00,1.16
9788.00,1.16
9787.00,1.17
9786.00,1.17
9785.00,1.16
9784.00,1.16
9783.00,1.16
9782.00,1.16
9781.00,1.15
9780.00,1.15
9779.00,1.14
9778.00,1.14
9777.00,1.13
9776.00,1.13
9775.00,1.12
9774.00,1.12
9773.00,1.12
9772.00,1.11
9771.00,1.11
9770.00,1.11
9769.00,1.11
9768.00,1.11
9767.00,1.11
9766.00,1.12
9765.00,1.12
9764.00,1.13
9763.00,1.13
9762.00,1.14
9761.00,1.14
9760.00,1.15
9759.00,1.16
9758.00,1.17
9757.00,1.17
9756.00,1.18
9755.00,1.19
9754.00,1.20
9753.00,1.21
9752.00,1.22
9751.00,1.22
9750.00,1.23
9749.00,1.24
9748.00,1.24
9747.00,1.25
9746.00,1.25
9745.00,1.25
9744.00,1.25
9743.00,1.25
9742.00,1.24
9741.00,1.24
9740.00,1.23
9739.00,1.22
9738.00,1.21
9737.00,1.21
9736.00,1.20
9735.00,1.19
9734.00,1.18
9733.00,1.17
9732.00,1.16
9731.00,1.15
9730.00,1.14
9729.00,1.13
9728.00,1.12
9727.00,1.12
9726.00,1.11
9725.00,1.10
9724.00,1.09
9723.00,1.09
9722.00,1.08
9721.00,1.08
9720.00,1.07
9719.00,1.07
9718.00,1.07
9717.00,1.07
9716.00,1.07
9715.00,1.07
9714.00,1.07
9713.00,1.08
9712.00,1.08
9711.00,1.08
9710.00,1.08
9709.00,1.09
9708.00,1.09
9707.00,1.09
9706.00,1.09
9705.00,1.09
9704.00,1.09
9703.00,1.09
9702.00,1.09
9701.00,1.09
9700.00,1.09
9699.00,1.10
9698.00,1.10
9697.00,1.10
9696.00,1.10
9695.00,1.10
9694.00,1.10
9693.00,1.10
9692.00,1.10
9691.00,1.10
9690.00,1.10
9689.00,1.10
9688.00,1.10
9687.00,1.10
9686.00,1.10
9685.00,1.10
9684.00,1.10
9683.00,1.10
9682.00,1.10
9681.00,1.11
9680.00,1.11
9679.00,1.11
9678.00,1.11
9677.00,1.12
9676.00,1.12
9675.00,1.12
9674.00,1.12
9673.00,1.13
9672.00,1.13
9671.00,1.14
9670.00,1.14
9669.00,1.14
9668.00,1.15
9667.00,1.15
9666.00,1.16
9665.00,1.16
9664.00,1.17
9663.00,1.17
9662.00,1.18
9661.00,1.18
9660.00,1.19
9659.00,1.19
9658.00,1.20
9657.00,1.20
9656.00,1.20
9655.00,1.21
9654.00,1.21
9653.00,1.22
9652.00,1.22
9651.00,1.22
9650.00,1.23
9649.00,1.23
9648.00,1.23
9647.00,1.24
9646.00,1.24
9645.00,1.24
9644.00,1.24
9643.00,1.24
9642.00,1.24
9641.00,1.24
9640.00,1.23
9639.00,1.23
9638.00,1.23
9637.00,1.22
9636.00,1.22
9635.00,1.21
9634.00,1.21
9633.00,1.20
9632.00,1.20
9631.00,1.19
9630.00,1.18
9629.00,1.17
9628.00,1.17
9627.00,1.16
9626.00,1.15
9625.00,1.14
9624.00,1.13
9623.00,1.12
9622.00,1.11
9621.00,1.10
9620.00,1.09
9619.00,1.08
9618.00,1.08
9617.00,1.07
9616.00,1.07
9615.00,1.06
9614.00,1.06
9613.00,1.06
9612.00,1.06
9611.00,1.07
9610.00,1.07
9609.00,1.07
9608.00,1.07
9607.00,1.08
9606.00,1.08
9605.00,1.09
9604.00,1.09
9603.00,1.10
9602.00,1.11
9601.00,1.12
9600.00,1.12
9599.00,1.13
9598.00,1.14
9597.00,1.15
9596.00,1.17
9595.00,1.18
9594.00,1.19
9593.00,1.19
9592.00,1.20
9591.00,1.21
9590.00,1.22
9589.00,1.22
9588.00,1.23
9587.00,1.23
9586.00,1.23
9585.00,1.24
9584.00,1.24
9583.00,1.24
9582.00,1.24
9581.00,1.24
9580.00,1.23
9579.00,1.23
9578.00,1.23
9577.00,1.23
9576.00,1.22
9575.00,1.22
9574.00,1.21
9573.00,1.20
9572.00,1.20
9571.00,1.19
9570.00,1.18
9569.00,1.17
9568.00,1.16
9567.00,1.15
9566.00,1.14
9565.00,1.13
9564.00,1.12
9563.00,1.11
9562.00,1.10
9561.00,1.09
9560.00,1.08
9559.00,1.08
9558.00,1.07
9557.00,1.06
9556.00,1.06
9555.00,1.05
9554.00,1.05
9553.00,1.04
9552.00,1.04
9551.00,1.04
9550.00,1.04
9549.00,1.04
9548.00,1.04
9547.00,1.05
9546.00,1.05
9545.00,1.05
9544.00,1.06
9543.00,1.06
9542.00,1.07
9541.00,1.07
9540.00,1.07
9539.00,1.08
9538.00,1.08
9537.00,1.08
9536.00,1.09
9535.00,1.09
9534.00,1.09
9533.00,1.10
9532.00,1.10
9531.00,1.11
9530.00,1.11
9529.00,1.12
9528.00,1.12
9527.00,1.13
9526.00,1.13
9525.00,1.13
9524.00,1.14
9523.00,1.14
9522.00,1.14
9521.00,1.14
9520.00,1.14
9519.00,1.14
9518.00,1.14
9517.00,1.14
9516.00,1.14
9515.00,1.14
9514.00,1.15
9513.00,1.15
9512.00,1.15
9511.00,1.15
9510.00,1.16
9509.00,1.16
9508.00,1.16
9507.00,1.16
9506.00,1.16
9505.00,1.16
9504.00,1.16
9503.00,1.15
9502.00,1.15
9501.00,1.15
9500.00,1.14
9499.00,1.14
9498.00,1.14
9497.00,1.13
9496.00,1.13
9495.00,1.13
9494.00,1.12
9493.00,1.12
9492.00,1.12
9491.00,1.11
9490.00,1.11
9489.00,1.11
9488.00,1.10
9487.00,1.09
9486.00,1.09
9485.00,1.08
9484.00,1.07
9483.00,1.06
9482.00,1.06
9481.00,1.05
9480.00,1.04
9479.00,1.04
9478.00,1.03
9477.00,1.03
9476.00,1.02
9475.00,1.02
9474.00,1.02
9473.00,1.02
9472.00,1.01
9471.00,1.01
9470.00,1.00
9469.00,1.00
9468.00,0.99
9467.00,0.99
9466.00,0.98
9465.00,0.98
9464.00,0.98
9463.00,0.97
9462.00,0.97
9461.00,0.97
9460.00,0.98
9459.00,0.98
9458.00,0.98
9457.00,0.99
9456.00,0.99
9455.00,1.00
9454.00,1.00
9453.00,1.01
9452.00,1.02
9451.00,1.02
9450.00,1.03
9449.00,1.03
9448.00,1.03
9447.00,1.04
9446.00,1.04
9445.00,1.05
9444.00,1.05
9443.00,1.06
9442.00,1.06
9441.00,1.07
9440.00,1.07
9439.00,1.07
9438.00,1.07
9437.00,1.07
9436.00,1.08
9435.00,1.08
9434.00,1.08
9433.00,1.07
9432.00,1.07
9431.00,1.07
9430.00,1.07
9429.00,1.06
9428.00,1.06
9427.00,1.06
9426.00,1.05
9425.00,1.05
9424.00,1.05
9423.00,1.04
9422.00,1.04
9421.00,1.04
9420.00,1.03
9419.00,1.03
9418.00,1.03
9417.00,1.03
9416.00,1.03
9415.00,1.03
9414.00,1.04
9413.00,1.04
9412.00,1.04
9411.00,1.05
9410.00,1.05
9409.00,1.06
9408.00,1.07
9407.00,1.07
9406.00,1.08
9405.00,1.09
9404.00,1.09
9403.00,1.10
9402.00,1.10
9401.00,1.11
9400.00,1.12
9399.00,1.12
9398.00,1.13
9397.00,1.13
9396.00,1.14
9395.00,1.14
9394.00,1.15
9393.00,1.15
9392.00,1.15
9391.00,1.15
9390.00,1.16
9389.00,1.16
9388.00,1.16
9387.00,1.16
9386.00,1.16
9385.00,1.15
9384.00,1.15
9383.00,1.15
9382.00,1.15
9381.00,1.15
9380.00,1.14
9379.00,1.14
9378.00,1.14
9377.00,1.14
9376.00,1.13
9375.00,1.13
9374.00,1.13
9373.00,1.13
9372.00,1.13
9371.00,1.13
9370.00,1.13
9369.00,1.13
9368.00,1.14
9367.00,1.14
9366.00,1.14
9365.00,1.14
9364.00,1.15
9363.00,1.15
9362.00,1.15
9361.00,1.16
9360.00,1.16
9359.00,1.16
9358.00,1.16
9357.00,1.17
9356.00,1.17
9355.00,1.17
9354.00,1.18
9353.00,1.18
9352.00,1.18
9351.00,1.19
9350.00,1.19
9349.00,1.19
9348.00,1.19
9347.00,1.19
9346.00,1.19
9345.00,1.19
9344.00,1.19
9343.00,1.19
9342.00,1.19
9341.00,1.18
9340.00,1.18
9339.00,1.18
9338.00,1.17
9337.00,1.17
9336.00,1.17
9335.00,1.17
9334.00,1.16
9333.00,1.16
9332.00,1.16
9331.00,1.16
9330.00,1.15
9329.00,1.15
9328.00,1.15
9327.00,1.15
9326.00,1.15
9325.00,1.15
9324.00,1.14
9323.00,1.14
9322.00,1.14
9321.00,1.14
9320.00,1.13
9319.00,1.13
9318.00,1.13
9317.00,1.13
9316.00,1.13
9315.00,1.13
9314.00,1.13
9313.00,1.12
9312.00,1.12
9311.00,1.12
9310.00,1.11
9309.00,1.11
9308.00,1.11
9307.00,1.10
9306.00,1.09
9305.00,1.09
9304.00,1.08
9303.00,1.07
9302.00,1.07
9301.00,1.06
9300.00,1.05
9299.00,1.05
9298.00,1.04
9297.00,1.04
9296.00,1.03
9295.00,1.03
9294.00,1.02
9293.00,1.02
9292.00,1.02
9291.00,1.02
9290.00,1.01
9289.00,1.01
9288.00,1.01
9287.00,1.01
9286.00,1.01
9285.00,1.01
9284.00,1.02
9283.00,1.02
9282.00,1.02
9281.00,1.03
9280.00,1.03
9279.00,1.04
9278.00,1.04
9277.00,1.05
9276.00,1.05
9275.00,1.06
9274.00,1.06
9273.00,1.07
9272.00,1.07
9271.00,1.07
9270.00,1.08
9269.00,1.08
9268.00,1.08
9267.00,1.08
9266.00,1.08
9265.00,1.07
9264.00,1.07
9263.00,1.07
9262.00,1.07
9261.00,1.06
9260.00,1.06
9259.00,1.05
9258.00,1.05
9257.00,1.04
9256.00,1.03
9255.00,1.03
9254.00,1.02
9253.00,1.02
9252.00,1.01
9251.00,1.00
9250.00,1.00
9249.00,0.99
9248.00,0.99
9247.00,0.98
9246.00,0.98
9245.00,0.98
9244.00,0.98
9243.00,0.98
9242.00,0.98
9241.00,0.98
9240.00,0.98
9239.00,0.99
9238.00,0.99
9237.00,1.00
9236.00,1.00
9235.00,1.01
9234.00,1.01
9233.00,1.02
9232.00,1.02
9231.00,1.03
9230.00,1.03
9229.00,1.04
9228.00,1.04
9227.00,1.05
9226.00,1.05
9225.00,1.05
9224.00,1.05
9223.00,1.06
9222.00,1.06
9221.00,1.06
9220.00,1.06
9219.00,1.05
9218.00,1.05
9217.00,1.05
9216.00,1.04
9215.00,1.04
9214.00,1.03
9213.00,1.03
9212.00,1.02
9211.00,1.01
9210.00,1.01
9209.00,1.00
9208.00,1.00
9207.00,0.99
9206.00,0.98
9205.00,0.98
9204.00,0.97
9203.00,0.97
9202.00,0.97
9201.00,0.96
9200.00,0.96
9199.00,0.95
9198.00,0.95
9197.00,0.95
9196.00,0.94
9195.00,0.94
9194.00,0.94
9193.00,0.95
9192.00,0.95
9191.00,0.95
9190.00,0.95
9189.00,0.96
9188.00,0.96
9187.00,0.97
9186.00,0.98
9185.00,0.98
9184.00,0.99
9183.00,0.99
9182.00,1.00
9181.00,1.01
9180.00,1.01
9179.00,1.02
9178.00,1.03
9177.00,1.03
9176.00,1.04
9175.00,1.05
9174.00,1.06
9173.00,1.07
9172.00,1.08
9171.00,1.09
9170.00,1.10
9169.00,1.11
9168.00,1.12
9167.00,1.12
9166.00,1.13
9165.00,1.14
9164.00,1.14
9163.00,1.15
9162.00,1.15
9161.00,1.15
9160.00,1.15
9159.00,1.15
9158.00,1.15
9157.00,1.15
9156.00,1.15
9155.00,1.15
9154.00,1.15
9153.00,1.15
9152.00,1.15
9151.00,1.14
9150.00,1.14
9149.00,1.14
9148.00,1.14
9147.00,1.13
9146.00,1.13
9145.00,1.12
9144.00,1.12
9143.00,1.11
9142.00,1.11
9141.00,1.11
9140.00,1.10
9139.00,1.10
9138.00,1.09
9137.00,1.09
9136.00,1.09
9135.00,1.09
9134.00,1.09
9133.00,1.08
9132.00,1.08
9131.00,1.08
9130.00,1.08
9129.00,1.08
9128.00,1.08
9127.00,1.08
9126.00,1.08
9125.00,1.08
9124.00,1.09
9123.00,1.09
9122.00,1.09
9121.00,1.09
9120.00,1.09
9119.00,1.09
9118.00,1.09
9117.00,1.10
9116.00,1.10
9115.00,1.10
9114.00,1.10
9113.00,1.11
9112.00,1.11
9111.00,1.12
9110.00,1.12
9109.00,1.13
9108.00,1.13
9107.00,1.14
9106.00,1.14
9105.00,1.14
9104.00,1.15
9103.00,1.15
9102.00,1.16
9101.00,1.16
9100.00,1.16
9099.00,1.16
9098.00,1.17
9097.00,1.17
9096.00,1.17
9095.00,1.17
9094.00,1.17
9093.00,1.17
9092.00,1.17
9091.00,1.17
9090.00,1.17
9089.00,1.17
9088.00,1.16
9087.00,1.16
9086.00,1.16
9085.00,1.16
9084.00,1.16
9083.00,1.15
9082.00,1.15
9081.00,1.15
9080.00,1.15
9079.00,1.15
9078.00,1.15
9077.00,1.14
9076.00,1.14
9075.00,1.14
9074.00,1.14
9073.00,1.14
9072.00,1.15
9071.00,1.15
9070.00,1.15
9069.00,1.15
9068.00,1.15
9067.00,1.15
9066.00,1.15
9065.00,1.15
9064.00,1.15
9063.00,1.14
9062.00,1.14
9061.00,1.14
9060.00,1.14
9059.00,1.14
9058.00,1.13
9057.00,1.13
9056.00,1.13
9055.00,1.12
9054.00,1.12
9053.00,1.11
9052.00,1.11
9051.00,1.10
9050.00,1.10
9049.00,1.09
9048.00,1.08
9047.00,1.07
9046.00,1.07
9045.00,1.06
9044.00,1.05
9043.00,1.05
9042.00,1.04
9041.00,1.04
9040.00,1.04
9039.00,1.03
9038.00,1.03
9037.00,1.03
9036.00,1.03
9035.00,1.03
9034.00,1.02
9033.00,1.02
9032.00,1.02
9031.00,1.02
9030.00,1.02
9029.00,1.03
9028.00,1.03
9027.00,1.03
9026.00,1.03
9025.00,1.04
9024.00,1.04
9023.00,1.04
9022.00,1.05
9021.00,1.05
9020.00,1.06
9019.00,1.06
9018.00,1.07
9017.00,1.07
9016.00,1.07
9015.00,1.08
9014.00,1.08
9013.00,1.08
9012.00,1.09
9011.00,1.09
9010.00,1.09
9009.00,1.10
9008.00,1.10
9007.00,1.10
9006.00,1.10
9005.00,1.11
9004.00,1.11
9003.00,1.11
9002.00,1.11
9001.00,1.11
9000.00,1.11
8999.00,1.11
8998.00,1.11
8997.00,1.11
8996.00,1.11
8995.00,1.11
8994.00,1.11
8993.00,1.11
8992.00,1.11
8991.00,1.11
8990.00,1.11
8989.00,1.11
8988.00,1.11
8987.00,1.11
8986.00,1.11
8985.00,1.11
8984.00,1.11
8983.00,1.11
8982.00,1.10
8981.00,1.10
8980.00,1.10
8979.00,1.10
8978.00,1.10
8977.00,1.10
8976.00,1.10
8975.00,1.10
8974.00,1.10
8973.00,1.10
8972.00,1.10
8971.00,1.09
8970.00,1.09
8969.00,1.09
8968.00,1.09
8967.00,1.09
8966.00,1.09
8965.00,1.09
8964.00,1.09
8963.00,1.08
8962.00,1.08
8961.00,1.08
8960.00,1.07
8959.00,1.07
8958.00,1.07
8957.00,1.07
8956.00,1.07
8955.00,1.06
8954.00,1.06
8953.00,1.06
8952.00,1.06
8951.00,1.06
8950.00,1.06
8949.00,1.05
8948.00,1.05
8947.00,1.05
8946.00,1.05
8945.00,1.05
8944.00,1.05
8943.00,1.05
8942.00,1.05
8941.00,1.05
8940.00,1.05
8939.00,1.05
8938.00,1.05
8937.00,1.05
8936.00,1.05
8935.00,1.06
8934.00,1.06
8933.00,1.06
8932.00,1.06
8931.00,1.06
8930.00,1.07
8929.00,1.07
8928.00,1.07
8927.00,1.07
8926.00,1.07
8925.00,1.08
8924.00,1.08
8923.00,1.08
8922.00,1.08
8921.00,1.08
8920.00,1.08
8919.00,1.08
8918.00,1.09
8917.00,1.09
8916.00,1.09
8915.00,1.09
8914.00,1.09
8913.00,1.10
8912.00,1.10
8911.00,1.10
8910.00,1.10
8909.00,1.10
8908.00,1.10
8907.00,1.11
8906.00,1.11
8905.00,1.11
8904.00,1.11
8903.00,1.11
8902.00,1.11
8901.00,1.11
8900.00,1.11
8899.00,1.11
8898.00,1.10
8897.00,1.10
8896.00,1.10
8895.00,1.10
8894.00,1.10
8893.00,1.09
8892.00,1.09
8891.00,1.09
8890.00,1.08
8889.00,1.08
8888.00,1.07
8887.00,1.07
8886.00,1.06
8885.00,1.05
8884.00,1.05
8883.00,1.04
8882.00,1.03
8881.00,1.03
8880.00,1.02
8879.00,1.01
8878.00,1.01
8877.00,1.00
8876.00,1.00
8875.00,1.00
8874.00,0.99
8873.00,0.99
8872.00,0.99
8871.00,0.99
8870.00,0.99
8869.00,0.99
8868.00,0.99
8867.00,0.99
8866.00,0.99
8865.00,0.99
8864.00,1.00
8863.00,1.00
8862.00,1.01
8861.00,1.01
8860.00,1.01
8859.00,1.02
8858.00,1.02
8857.00,1.03
8856.00,1.04
8855.00,1.04
8854.00,1.05
8853.00,1.06
8852.00,1.06
8851.00,1.07
8850.00,1.08
8849.00,1.08
8848.00,1.09
8847.00,1.09
8846.00,1.10
8845.00,1.10
8844.00,1.10
8843.00,1.10
8842.00,1.11
8841.00,1.11
8840.00,1.11
8839.00,1.11
8838.00,1.11
8837.00,1.10
8836.00,1.10
8835.00,1.10
8834.00,1.10
8833.00,1.10
8832.00,1.10
8831.00,1.10
8830.00,1.10
8829.00,1.09
8828.00,1.09
8827.00,1.09
8826.00,1.09
8825.00,1.08
8824.00,1.08
8823.00,1.07
8822.00,1.07
8821.00,1.07
8820.00,1.06
8819.00,1.06
8818.00,1.06
8817.00,1.05
8816.00,1.05
8815.00,1.05
8814.00,1.05
8813.00,1.05
8812.00,1.05
8811.00,1.04
8810.00,1.04
8809.00,1.04
8808.00,1.04
8807.00,1.04
8806.00,1.04
8805.00,1.04
8804.00,1.04
8803.00,1.04
8802.00,1.05
8801.00,1.05
8800.00,1.05
8799.00,1.05
8798.00,1.05
8797.00,1.05
8796.00,1.05
8795.00,1.05
8794.00,1.06
8793.00,1.06
8792.00,1.06
8791.00,1.07
8790.00,1.07
8789.00,1.07
8788.00,1.08
8787.00,1.08
8786.00,1.08
8785.00,1.08
8784.00,1.08
8783.00,1.08
8782.00,1.07
8781.00,1.07
8780.00,1.07
8779.00,1.07
8778.00,1.06
8777.00,1.06
8776.00,1.05
8775.00,1.05
8774.00,1.04
8773.00,1.03
8772.00,1.02
8771.00,1.02
8770.00,1.01
8769.00,1.00
8768.00,0.99
8767.00,0.98
8766.00,0.97
8765.00,0.96
8764.00,0.95
8763.00,0.94
8762.00,0.92
8761.00,0.91
8760.00,0.90
8759.00,0.90
8758.00,0.89
8757.00,0.88
8756.00,0.88
8755.00,0.87
8754.00,0.87
8753.00,0.86
8752.00,0.86
8751.00,0.86
8750.00,0.86
8749.00,0.86
8748.00,0.86
8747.00,0.86
8746.00,0.86
8745.00,0.87
8744.00,0.87
8743.00,0.88
8742.00,0.88
8741.00,0.89
8740.00,0.90
8739.00,0.91
8738.00,0.92
8737.00,0.93
8736.00,0.95
8735.00,0.96
8734.00,0.97
8733.00,0.98
8732.00,0.99
8731.00,1.00
8730.00,1.01
8729.00,1.02
8728.00,1.03
8727.00,1.04
8726.00,1.05
8725.00,1.07
8724.00,1.08
8723.00,1.09
8722.00,1.10
8721.00,1.11
8720.00,1.12
8719.00,1.13
8718.00,1.14
8717.00,1.15
8716.00,1.15
8715.00,1.16
8714.00,1.16
8713.00,1.17
8712.00,1.17
8711.00,1.17
8710.00,1.17
8709.00,1.17
8708.00,1.17
8707.00,1.17
8706.00,1.16
8705.00,1.16
8704.00,1.16
8703.00,1.16
8702.00,1.16
8701.00,1.16
8700.00,1.15
8699.00,1.15
8698.00,1.14
8697.00,1.14
8696.00,1.13
8695.00,1.13
8694.00,1.12
8693.00,1.12
8692.00,1.11
8691.00,1.11
8690.00,1.10
8689.00,1.10
8688.00,1.09
8687.00,1.09
8686.00,1.09
8685.00,1.08
8684.00,1.08
8683.00,1.08
8682.00,1.08
8681.00,1.08
8680.00,1.09
8679.00,1.09
8678.00,1.09
8677.00,1.09
8676.00,1.09
8675.00,1.09
8674.00,1.09
8673.00,1.09
8672.00,1.09
8671.00,1.09
8670.00,1.09
8669.00,1.09
8668.00,1.09
8667.00,1.10
8666.00,1.10
8665.00,1.10
8664.00,1.10
8663.00,1.10
8662.00,1.10
8661.00,1.10
8660.00,1.10
8659.00,1.09
8658.00,1.09
8657.00,1.09
8656.00,1.09
8655.00,1.09
8654.00,1.09
8653.00,1.08
8652.00,1.08
8651.00,1.08
8650.00,1.08
8649.00,1.08
8648.00,1.07
8647.00,1.07
8646.00,1.07
8645.00,1.07
8644.00,1.07
8643.00,1.07
8642.00,1.07
8641.00,1.07
8640.00,1.07
8639.00,1.08
8638.00,1.08
8637.00,1.08
8636.00,1.08
8635.00,1.08
8634.00,1.08
8633.00,1.08
8632.00,1.08
8631.00,1.08
8630.00,1.08
8629.00,1.08
8628.00,1.08
8627.00,1.08
8626.00,1.08
8625.00,1.08
8624.00,1.08
8623.00,1.08
8622.00,1.07
8621.00,1.07
8620.00,1.07
8619.00,1.06
8618.00,1.06
8617.00,1.06
8616.00,1.05
8615.00,1.05
8614.00,1.04
8613.00,1.04
8612.00,1.04
8611.00,1.03
8610.00,1.03
8609.00,1.03
8608.00,1.02
8607.00,1.02
8606.00,1.02
8605.00,1.02
8604.00,1.02
8603.00,1.02
8602.00,1.02
8601.00,1.02
8600.00,1.02
8599.00,1.02
8598.00,1.03
8597.00,1.03
8596.00,1.03
8595.00,1.04
8594.00,1.04
8593.00,1.05
8592.00,1.06
8591.00,1.06
8590.00,1.07
8589.00,1.07
8588.00,1.08
8587.00,1.08
8586.00,1.09
8585.00,1.09
8584.00,1.10
8583.00,1.10
8582.00,1.10
8581.00,1.11
8580.00,1.11
8579.00,1.11
8578.00,1.11
8577.00,1.11
8576.00,1.11
8575.00,1.11
8574.00,1.11
8573.00,1.11
8572.00,1.10
8571.00,1.10
8570.00,1.10
8569.00,1.09
8568.00,1.09
8567.00,1.08
8566.00,1.07
8565.00,1.07
8564.00,1.06
8563.00,1.06
8562.00,1.05
8561.00,1.05
8560.00,1.04
8559.00,1.04
8558.00,1.04
8557.00,1.03
8556.00,1.03
8555.00,1.03
8554.00,1.03
8553.00,1.03
8552.00,1.02
8551.00,1.02
8550.00,1.02
8549.00,1.02
8548.00,1.02
8547.00,1.02
8546.00,1.01
8545.00,1.01
8544.00,1.01
8543.00,1.01
8542.00,1.01
8541.00,1.01
8540.00,1.02
8539.00,1.02
8538.00,1.02
8537.00,1.02
8536.00,1.03
8535.00,1.03
8534.00,1.03
8533.00,1.03
8532.00,1.03
8531.00,1.03
8530.00,1.03
8529.00,1.03
8528.00,1.03
8527.00,1.03
8526.00,1.03
8525.00,1.04
8524.00,1.04
8523.00,1.04
8522.00,1.04
8521.00,1.05
8520.00,1.05
8519.00,1.06
8518.00,1.06
8517.00,1.07
8516.00,1.07
8515.00,1.08
8514.00,1.08
8513.00,1.08
8512.00,1.09
8511.00,1.09
8510.00,1.09
8509.00,1.09
8508.00,1.10
8507.00,1.10
8506.00,1.10
8505.00,1.10
8504.00,1.10
8503.00,1.11
8502.00,1.11
8501.00,1.11
8500.00,1.11
8499.00,1.11
8498.00,1.11
8497.00,1.11
8496.00,1.11
8495.00,1.11
8494.00,1.11
8493.00,1.11
8492.00,1.10
8491.00,1.10
8490.00,1.10
8489.00,1.10
8488.00,1.09
8487.00,1.09
8486.00,1.09
8485.00,1.09
8484.00,1.08
8483.00,1.08
8482.00,1.08
8481.00,1.08
8480.00,1.08
8479.00,1.07
8478.00,1.07
8477.00,1.07
8476.00,1.07
8475.00,1.07
8474.00,1.07
8473.00,1.07
8472.00,1.07
8471.00,1.07
8470.00,1.07
8469.00,1.06
8468.00,1.06
8467.00,1.06
8466.00,1.06
8465.00,1.06
8464.00,1.06
8463.00,1.06
8462.00,1.05
8461.00,1.05
8460.00,1.05
8459.00,1.05
8458.00,1.05
8457.00,1.05
8456.00,1.05
8455.00,1.05
8454.00,1.05
8453.00,1.05
8452.00,1.05
8451.00,1.04
8450.00,1.04
8449.00,1.04
8448.00,1.04
8447.00,1.04
8446.00,1.04
8445.00,1.04
8444.00,1.04
8443.00,1.04
8442.00,1.04
8441.00,1.04
8440.00,1.04
8439.00,1.04
8438.00,1.04
8437.00,1.03
8436.00,1.03
8435.00,1.03
8434.00,1.03
8433.00,1.03
8432.00,1.02
8431.00,1.02
8430.00,1.02
8429.00,1.02
8428.00,1.02
8427.00,1.02
8426.00,1.01
8425.00,1.01
8424.00,1.01
8423.00,1.01
8422.00,1.00
8421.00,1.00
8420.00,1.00
8419.00,0.99
8418.00,0.99
8417.00,0.99
8416.00,0.98
8415.00,0.98
8414.00,0.98
8413.00,0.98
8412.00,0.98
8411.00,0.97
8410.00,0.97
8409.00,0.97
8408.00,0.98
8407.00,0.98
8406.00,0.98
8405.00,0.98
8404.00,0.98
8403.00,0.98
8402.00,0.98
8401.00,0.98
8400.00,0.98
8399.00,0.98
8398.00,0.98
8397.00,0.98
8396.00,0.98
8395.00,0.98
8394.00,0.98
8393.00,0.98
8392.00,0.98
8391.00,0.98
8390.00,0.98
8389.00,0.98
8388.00,0.98
8387.00,0.99
8386.00,0.99
8385.00,0.99
8384.00,0.99
8383.00,0.99
8382.00,0.99
8381.00,0.99
8380.00,0.99
8379.00,0.99
8378.00,0.99
8377.00,0.99
8376.00,1.00
8375.00,1.00
8374.00,1.00
8373.00,1.00
8372.00,1.01
8371.00,1.01
8370.00,1.01
8369.00,1.01
8368.00,1.02
8367.00,1.02
8366.00,1.02
8365.00,1.03
8364.00,1.03
8363.00,1.04
8362.00,1.04
8361.00,1.04
8360.00,1.05
8359.00,1.05
8358.00,1.05
8357.00,1.06
8356.00,1.06
8355.00,1.06
8354.00,1.06
8353.00,1.06
8352.00,1.06
8351.00,1.06
8350.00,1.06
8349.00,1.06
8348.00,1.06
8347.00,1.06
8346.00,1.06
8345.00,1.06
8344.00,1.06
8343.00,1.07
8342.00,1.07
8341.00,1.07
8340.00,1.07
8339.00,1.07
8338.00,1.07
8337.00,1.07
8336.00,1.07
8335.00,1.07
8334.00,1.07
8333.00,1.07
8332.00,1.08
8331.00,1.08
8330.00,1.08
8329.00,1.08
8328.00,1.08
8327.00,1.08
8326.00,1.09
8325.00,1.09
8324.00,1.09
8323.00,1.09
8322.00,1.09
8321.00,1.09
8320.00,1.09
8319.00,1.10
8318.00,1.10
8317.00,1.10
8316.00,1.10
8315.00,1.10
8314.00,1.10
8313.00,1.10
8312.00,1.10
8311.00,1.10
8310.00,1.10
8309.00,1.09
8308.00,1.09
8307.00,1.09
8306.00,1.09
8305.00,1.09
8304.00,1.09
8303.00,1.09
8302.00,1.09
8301.00,1.09
8300.00,1.09
8299.00,1.09
8298.00,1.09
8297.00,1.09
8296.00,1.08
8295.00,1.09
8294.00,1.09
8293.00,1.09
8292.00,1.09
8291.00,1.09
8290.00,1.09
8289.00,1.09
8288.00,1.09
8287.00,1.09
8286.00,1.09
8285.00,1.09
8284.00,1.09
8283.00,1.09
8282.00,1.09
8281.00,1.09
8280.00,1.09
8279.00,1.09
8278.00,1.09
8277.00,1.09
8276.00,1.09
8275.00,1.09
8274.00,1.08
8273.00,1.08
8272.00,1.08
8271.00,1.08
8270.00,1.08
8269.00,1.07
8268.00,1.07
8267.00,1.07
8266.00,1.07
8265.00,1.07
8264.00,1.06
8263.00,1.06
8262.00,1.06
8261.00,1.06
8260.00,1.06
8259.00,1.06
8258.00,1.06
8257.00,1.06
8256.00,1.06
8255.00,1.06
8254.00,1.06
8253.00,1.06
8252.00,1.06
8251.00,1.07
8250.00,1.07
8249.00,1.08
8248.00,1.08
8247.00,1.08
8246.00,1.09
8245.00,1.09
8244.00,1.10
8243.00,1.10
8242.00,1.11
8241.00,1.11
8240.00,1.11
8239.00,1.12
8238.00,1.12
8237.00,1.12
8236.00,1.12
8235.00,1.12
8234.00,1.12
8233.00,1.12
8232.00,1.12
8231.00,1.12
8230.00,1.12
8229.00,1.12
8228.00,1.12
8227.00,1.11
8226.00,1.11
8225.00,1.11
8224.00,1.10
8223.00,1.10
8222.00,1.09
8221.00,1.09
8220.00,1.08
8219.00,1.08
8218.00,1.07
8217.00,1.07
8216.00,1.06
8215.00,1.06
8214.00,1.06
8213.00,1.05
8212.00,1.05
8211.00,1.05
8210.00,1.05
8209.00,1.05
8208.00,1.05
8207.00,1.05
8206.00,1.05
8205.00,1.05
8204.00,1.06
8203.00,1.06
8202.00,1.06
8201.00,1.06
8200.00,1.05
8199.00,1.05
8198.00,1.05
8197.00,1.05
8196.00,1.05
8195.00,1.06
8194.00,1.06
8193.00,1.06
8192.00,1.06
8191.00,1.06
8190.00,1.06
8189.00,1.06
8188.00,1.07
8187.00,1.07
8186.00,1.07
8185.00,1.07
8184.00,1.07
8183.00,1.07
8182.00,1.07
8181.00,1.07
8180.00,1.07
8179.00,1.07
8178.00,1.07
8177.00,1.07
8176.00,1.07
8175.00,1.07
8174.00,1.07
8173.00,1.07
8172.00,1.07
8171.00,1.08
8170.00,1.08
8169.00,1.08
8168.00,1.08
8167.00,1.09
8166.00,1.09
8165.00,1.09
8164.00,1.09
8163.00,1.09
8162.00,1.09
8161.00,1.09
8160.00,1.08
8159.00,1.08
8158.00,1.08
8157.00,1.08
8156.00,1.08
8155.00,1.08
8154.00,1.08
8153.00,1.08
8152.00,1.09
8151.00,1.09
8150.00,1.09
8149.00,1.09
8148.00,1.09
8147.00,1.09
8146.00,1.09
8145.00,1.09
8144.00,1.08
8143.00,1.08
8142.00,1.08
8141.00,1.08
8140.00,1.08
8139.00,1.07
8138.00,1.07
8137.00,1.07
8136.00,1.07
8135.00,1.07
8134.00,1.07
8133.00,1.07
8132.00,1.07
8131.00,1.07
8130.00,1.07
8129.00,1.07
8128.00,1.07
8127.00,1.07
8126.00,1.07
8125.00,1.07
8124.00,1.07
8123.00,1.07
8122.00,1.07
8121.00,1.06
8120.00,1.06
8119.00,1.06
8118.00,1.06
8117.00,1.06
8116.00,1.06
8115.00,1.06
8114.00,1.06
8113.00,1.06
8112.00,1.07
8111.00,1.07
8110.00,1.07
8109.00,1.07
8108.00,1.07
8107.00,1.08
8106.00,1.08
8105.00,1.08
8104.00,1.08
8103.00,1.08
8102.00,1.08
8101.00,1.08
8100.00,1.09
8099.00,1.09
8098.00,1.09
8097.00,1.09
8096.00,1.10
8095.00,1.10
8094.00,1.10
8093.00,1.11
8092.00,1.11
8091.00,1.11
8090.00,1.12
8089.00,1.12
8088.00,1.12
8087.00,1.12
8086.00,1.13
8085.00,1.13
8084.00,1.13
8083.00,1.13
8082.00,1.13
8081.00,1.13
8080.00,1.13
8079.00,1.13
8078.00,1.13
8077.00,1.13
8076.00,1.13
8075.00,1.13
8074.00,1.13
8073.00,1.13
8072.00,1.12
8071.00,1.12
8070.00,1.12
8069.00,1.12
8068.00,1.12
8067.00,1.12
8066.00,1.12
8065.00,1.12
8064.00,1.12
8063.00,1.11
8062.00,1.11
8061.00,1.11
8060.00,1.11
8059.00,1.11
8058.00,1.11
8057.00,1.11
8056.00,1.11
8055.00,1.11
8054.00,1.11
8053.00,1.12
8052.00,1.12
8051.00,1.12
8050.00,1.12
8049.00,1.13
8048.00,1.13
8047.00,1.13
8046.00,1.13
8045.00,1.14
8044.00,1.14
8043.00,1.14
8042.00,1.15
8041.00,1.15
8040.00,1.15
8039.00,1.16
8038.00,1.16
8037.00,1.16
8036.00,1.16
8035.00,1.17
8034.00,1.17
8033.00,1.17
8032.00,1.17
8031.00,1.17
8030.00,1.17
8029.00,1.17
8028.00,1.17
8027.00,1.17
8026.00,1.17
8025.00,1.16
8024.00,1.16
8023.00,1.16
8022.00,1.16
8021.00,1.16
8020.00,1.15
8019.00,1.15
8018.00,1.15
8017.00,1.15
8016.00,1.15
8015.00,1.15
8014.00,1.15
8013.00,1.14
8012.00,1.14
8011.00,1.14
8010.00,1.15
8009.00,1.15
8008.00,1.15
8007.00,1.15
8006.00,1.15
8005.00,1.15
8004.00,1.16
8003.00,1.16
8002.00,1.17
8001.00,1.17
8000.00,1.17
7999.00,1.18
7998.00,1.18
7997.00,1.18
7996.00,1.19
7995.00,1.19
7994.00,1.19
7993.00,1.20
7992.00,1.20
7991.00,1.20
7990.00,1.20
7989.00,1.21
7988.00,1.21
7987.00,1.21
7986.00,1.21
7985.00,1.21
7984.00,1.21
7983.00,1.21
7982.00,1.21
7981.00,1.21
7980.00,1.21
7979.00,1.21
7978.00,1.21
7977.00,1.21
7976.00,1.20
7975.00,1.20
7974.00,1.20
7973.00,1.20
7972.00,1.19
7971.00,1.19
7970.00,1.19
7969.00,1.19
7968.00,1.18
7967.00,1.18
7966.00,1.18
7965.00,1.18
7964.00,1.17
7963.00,1.17
7962.00,1.17
7961.00,1.17
7960.00,1.16
7959.00,1.16
7958.00,1.16
7957.00,1.15
7956.00,1.15
7955.00,1.15
7954.00,1.15
7953.00,1.14
7952.00,1.14
7951.00,1.14
7950.00,1.14
7949.00,1.14
7948.00,1.14
7947.00,1.14
7946.00,1.14
7945.00,1.14
7944.00,1.14
7943.00,1.14
7942.00,1.14
7941.00,1.14
7940.00,1.14
7939.00,1.14
7938.00,1.14
7937.00,1.14
7936.00,1.14
7935.00,1.14
7934.00,1.14
7933.00,1.14
7932.00,1.14
7931.00,1.14
7930.00,1.14
7929.00,1.14
7928.00,1.14
7927.00,1.14
7926.00,1.14
7925.00,1.14
7924.00,1.14
7923.00,1.14
7922.00,1.14
7921.00,1.14
7920.00,1.14
7919.00,1.14
7918.00,1.14
7917.00,1.14
7916.00,1.14
7915.00,1.14
7914.00,1.14
7913.00,1.14
7912.00,1.14
7911.00,1.14
7910.00,1.14
7909.00,1.14
7908.00,1.13
7907.00,1.13
7906.00,1.13
7905.00,1.13
7904.00,1.14
7903.00,1.14
7902.00,1.14
7901.00,1.14
7900.00,1.14
7899.00,1.14
7898.00,1.14
7897.00,1.14
7896.00,1.14
7895.00,1.14
7894.00,1.15
7893.00,1.15
7892.00,1.15
7891.00,1.15
7890.00,1.15
7889.00,1.15
7888.00,1.15
7887.00,1.15
7886.00,1.16
7885.00,1.16
7884.00,1.16
7883.00,1.16
7882.00,1.16
7881.00,1.16
7880.00,1.16
7879.00,1.17
7878.00,1.17
7877.00,1.16
7876.00,1.16
7875.00,1.16
7874.00,1.16
7873.00,1.16
7872.00,1.16
7871.00,1.16
7870.00,1.16
7869.00,1.16
7868.00,1.16
7867.00,1.16
7866.00,1.16
7865.00,1.15
7864.00,1.15
7863.00,1.15
7862.00,1.15
7861.00,1.15
7860.00,1.15
7859.00,1.15
7858.00,1.15
7857.00,1.15
7856.00,1.15
7855.00,1.15
7854.00,1.15
7853.00,1.14
7852.00,1.14
7851.00,1.14
7850.00,1.14
7849.00,1.14
7848.00,1.14
7847.00,1.14
7846.00,1.14
7845.00,1.14
7844.00,1.15
7843.00,1.15
7842.00,1.15
7841.00,1.15
7840.00,1.15
7839.00,1.15
7838.00,1.15
7837.00,1.15
7836.00,1.15
7835.00,1.15
7834.00,1.16
7833.00,1.16
7832.00,1.16
7831.00,1.16
7830.00,1.16
7829.00,1.16
7828.00,1.16
7827.00,1.16
7826.00,1.16
7825.00,1.16
7824.00,1.16
7823.00,1.16
7822.00,1.15
7821.00,1.15
7820.00,1.15
7819.00,1.15
7818.00,1.15
7817.00,1.15
7816.00,1.15
7815.00,1.15
7814.00,1.15
7813.00,1.15
7812.00,1.15
7811.00,1.15
7810.00,1.15
7809.00,1.15
7808.00,1.14
7807.00,1.14
7806.00,1.14
7805.00,1.14
7804.00,1.14
7803.00,1.14
7802.00,1.14
7801.00,1.14
7800.00,1.15
7799.00,1.15
7798.00,1.15
7797.00,1.15
7796.00,1.16
7795.00,1.16
7794.00,1.17
7793.00,1.17
7792.00,1.18
7791.00,1.18
7790.00,1.19
7789.00,1.19
7788.00,1.19
7787.00,1.20
7786.00,1.20
7785.00,1.21
7784.00,1.21
7783.00,1.21
7782.00,1.22
7781.00,1.22
7780.00,1.22
7779.00,1.23
7778.00,1.23
7777.00,1.24
7776.00,1.24
7775.00,1.24
7774.00,1.25
7773.00,1.25
7772.00,1.25
7771.00,1.25
7770.00,1.25
7769.00,1.25
7768.00,1.25
7767.00,1.25
7766.00,1.24
7765.00,1.24
7764.00,1.24
7763.00,1.24
7762.00,1.23
7761.00,1.23
7760.00,1.23
7759.00,1.23
7758.00,1.22
7757.00,1.22
7756.00,1.22
7755.00,1.21
7754.00,1.21
7753.00,1.21
7752.00,1.20
7751.00,1.20
7750.00,1.20
7749.00,1.20
7748.00,1.19
7747.00,1.19
7746.00,1.19
7745.00,1.19
7744.00,1.18
7743.00,1.18
7742.00,1.18
7741.00,1.18
7740.00,1.18
7739.00,1.18
7738.00,1.18
7737.00,1.18
7736.00,1.18
7735.00,1.18
7734.00,1.18
7733.00,1.18
7732.00,1.18
7731.00,1.18
7730.00,1.18
7729.00,1.18
7728.00,1.18
7727.00,1.18
7726.00,1.18
7725.00,1.18
7724.00,1.18
7723.00,1.18
7722.00,1.18
7721.00,1.18
7720.00,1.18
7719.00,1.18
7718.00,1.17
7717.00,1.17
7716.00,1.17
7715.00,1.17
7714.00,1.17
7713.00,1.17
7712.00,1.16
7711.00,1.16
7710.00,1.16
7709.00,1.16
7708.00,1.16
7707.00,1.15
7706.00,1.15
7705.00,1.15
7704.00,1.15
7703.00,1.15
7702.00,1.15
7701.00,1.15
7700.00,1.15
7699.00,1.15
7698.00,1.15
7697.00,1.15
7696.00,1.15
7695.00,1.15
7694.00,1.15
7693.00,1.15
7692.00,1.15
7691.00,1.15
7690.00,1.15
7689.00,1.15
7688.00,1.15
7687.00,1.15
7686.00,1.15
7685.00,1.15
7684.00,1.15
7683.00,1.15
7682.00,1.15
7681.00,1.15
7680.00,1.15
7679.00,1.16
7678.00,1.16
7677.00,1.16
7676.00,1.16
7675.00,1.16
7674.00,1.16
7673.00,1.15
7672.00,1.15
7671.00,1.15
7670.00,1.15
7669.00,1.15
7668.00,1.15
7667.00,1.15
7666.00,1.15
7665.00,1.15
7664.00,1.15
7663.00,1.15
7662.00,1.15
7661.00,1.15
7660.00,1.15
7659.00,1.15
7658.00,1.16
7657.00,1.16
7656.00,1.16
7655.00,1.16
7654.00,1.16
7653.00,1.16
7652.00,1.16
7651.00,1.16
7650.00,1.16
7649.00,1.16
7648.00,1.16
7647.00,1.16
7646.00,1.16
7645.00,1.16
7644.00,1.17
7643.00,1.17
7642.00,1.17
7641.00,1.17
7640.00,1.17
7639.00,1.17
7638.00,1.17
7637.00,1.17
7636.00,1.17
7635.00,1.17
7634.00,1.17
7633.00,1.17
7632.00,1.17
7631.00,1.17
7630.00,1.17
7629.00,1.17
7628.00,1.17
7627.00,1.17
7626.00,1.17
7625.00,1.17
7624.00,1.17
7623.00,1.17
7622.00,1.17
7621.00,1.17
7620.00,1.17
7619.00,1.17
7618.00,1.17
7617.00,1.17
7616.00,1.17
7615.00,1.17
7614.00,1.17
7613.00,1.17
7612.00,1.17
7611.00,1.17
7610.00,1.17
7609.00,1.17
7608.00,1.17
7607.00,1.17
7606.00,1.17
7605.00,1.17
7604.00,1.17
7603.00,1.17
7602.00,1.18
7601.00,1.18
7600.00,1.18
7599.00,1.18
7598.00,1.18
7597.00,1.18
7596.00,1.18
7595.00,1.18
7594.00,1.18
7593.00,1.18
7592.00,1.18
7591.00,1.18
7590.00,1.19
7589.00,1.19
7588.00,1.19
7587.00,1.19
7586.00,1.19
7585.00,1.19
7584.00,1.19
7583.00,1.19
7582.00,1.19
7581.00,1.19
7580.00,1.19
7579.00,1.19
7578.00,1.19
7577.00,1.19
7576.00,1.19
7575.00,1.19
7574.00,1.19
7573.00,1.19
7572.00,1.19
7571.00,1.19
7570.00,1.19
7569.00,1.19
7568.00,1.19
7567.00,1.19
7566.00,1.19
7565.00,1.19
7564.00,1.19
7563.00,1.20
7562.00,1.20
7561.00,1.20
7560.00,1.20
7559.00,1.20
7558.00,1.20
7557.00,1.20
7556.00,1.21
7555.00,1.21
7554.00,1.21
7553.00,1.21
7552.00,1.21
7551.00,1.21
7550.00,1.21
7549.00,1.22
7548.00,1.22
7547.00,1.22
7546.00,1.22
7545.00,1.22
7544.00,1.22
7543.00,1.22
7542.00,1.22
7541.00,1.21
7540.00,1.21
7539.00,1.21
7538.00,1.21
7537.00,1.21
7536.00,1.21
7535.00,1.21
7534.00,1.21
7533.00,1.21
7532.00,1.21
7531.00,1.21
7530.00,1.21
7529.00,1.21
7528.00,1.21
7527.00,1.21
7526.00,1.21
7525.00,1.21
7524.00,1.21
7523.00,1.22
7522.00,1.22
7521.00,1.22
7520.00,1.22
7519.00,1.22
7518.00,1.22
7517.00,1.23
7516.00,1.23
7515.00,1.23
7514.00,1.23
7513.00,1.24
7512.00,1.24
7511.00,1.24
7510.00,1.25
7509.00,1.25
7508.00,1.25
7507.00,1.25
7506.00,1.25
7505.00,1.25
7504.00,1.25
7503.00,1.26
7502.00,1.26
7501.00,1.25
7500.00,1.25
7499.00,1.25
7498.00,1.25
7497.00,1.25
7496.00,1.25
7495.00,1.24
7494.00,1.24
7493.00,1.24
7492.00,1.24
7491.00,1.23
7490.00,1.23
7489.00,1.23
7488.00,1.22
7487.00,1.22
7486.00,1.21
7485.00,1.21
7484.00,1.21
7483.00,1.20
7482.00,1.20
7481.00,1.20
7480.00,1.20
7479.00,1.19
7478.00,1.19
7477.00,1.19
7476.00,1.19
7475.00,1.19
7474.00,1.19
7473.00,1.19
7472.00,1.19
7471.00,1.19
7470.00,1.19
7469.00,1.19
7468.00,1.19
7467.00,1.20
7466.00,1.20
7465.00,1.20
7464.00,1.20
7463.00,1.20
7462.00,1.20
7461.00,1.20
7460.00,1.21
7459.00,1.21
7458.00,1.21
7457.00,1.21
7456.00,1.21
7455.00,1.21
7454.00,1.21
7453.00,1.21
7452.00,1.21
7451.00,1.21
7450.00,1.21
7449.00,1.21
7448.00,1.21
7447.00,1.21
7446.00,1.21
7445.00,1.20
7444.00,1.20
7443.00,1.20
7442.00,1.20
7441.00,1.19
7440.00,1.19
7439.00,1.19
7438.00,1.19
7437.00,1.19
7436.00,1.19
7435.00,1.18
7434.00,1.18
7433.00,1.18
7432.00,1.18
7431.00,1.18
7430.00,1.18
7429.00,1.17
7428.00,1.17
7427.00,1.17
7426.00,1.17
7425.00,1.17
7424.00,1.17
7423.00,1.17
7422.00,1.17
7421.00,1.17
7420.00,1.18
7419.00,1.18
7418.00,1.18
7417.00,1.18
7416.00,1.18
7415.00,1.18
7414.00,1.19
7413.00,1.19
7412.00,1.19
7411.00,1.19
7410.00,1.19
7409.00,1.19
7408.00,1.20
7407.00,1.20
7406.00,1.20
7405.00,1.20
7404.00,1.20
7403.00,1.20
7402.00,1.21
7401.00,1.21
7400.00,1.21
7399.00,1.21
7398.00,1.22
7397.00,1.22
7396.00,1.22
7395.00,1.22
7394.00,1.22
7393.00,1.22
7392.00,1.22
7391.00,1.23
7390.00,1.23
7389.00,1.23
7388.00,1.23
7387.00,1.23
7386.00,1.22
7385.00,1.22
7384.00,1.22
7383.00,1.22
7382.00,1.22
7381.00,1.22
7380.00,1.22
7379.00,1.22
7378.00,1.21
7377.00,1.21
7376.00,1.21
7375.00,1.21
7374.00,1.21
7373.00,1.21
7372.00,1.20
7371.00,1.20
7370.00,1.20
7369.00,1.19
7368.00,1.19
7367.00,1.19
7366.00,1.18
7365.00,1.18
7364.00,1.18
7363.00,1.18
7362.00,1.18
7361.00,1.18
7360.00,1.18
7359.00,1.18
7358.00,1.18
7357.00,1.18
7356.00,1.18
7355.00,1.18
7354.00,1.18
7353.00,1.18
7352.00,1.18
7351.00,1.18
7350.00,1.18
7349.00,1.17
7348.00,1.17
7347.00,1.17
7346.00,1.17
7345.00,1.17
7344.00,1.18
7343.00,1.18
7342.00,1.18
7341.00,1.18
7340.00,1.18
7339.00,1.18
7338.00,1.18
7337.00,1.18
7336.00,1.18
7335.00,1.18
7334.00,1.18
7333.00,1.18
7332.00,1.18
7331.00,1.18
7330.00,1.18
7329.00,1.18
7328.00,1.17
7327.00,1.17
7326.00,1.17
7325.00,1.17
7324.00,1.17
7323.00,1.17
7322.00,1.17
7321.00,1.17
7320.00,1.16
7319.00,1.16
7318.00,1.16
7317.00,1.16
7316.00,1.16
7315.00,1.15
7314.00,1.15
7313.00,1.15
7312.00,1.15
7311.00,1.15
7310.00,1.15
7309.00,1.15
7308.00,1.15
7307.00,1.14
7306.00,1.14
7305.00,1.14
7304.00,1.14
7303.00,1.14
7302.00,1.14
7301.00,1.14
7300.00,1.14
7299.00,1.14
7298.00,1.14
7297.00,1.14
7296.00,1.14
7295.00,1.14
7294.00,1.14
7293.00,1.14
7292.00,1.14
7291.00,1.14
7290.00,1.14
7289.00,1.14
7288.00,1.14
7287.00,1.13
7286.00,1.13
7285.00,1.13
7284.00,1.13
7283.00,1.13
7282.00,1.13
7281.00,1.12
7280.00,1.12
7279.00,1.12
7278.00,1.12
7277.00,1.12
7276.00,1.12
7275.00,1.11
7274.00,1.11
7273.00,1.11
7272.00,1.11
7271.00,1.10
7270.00,1.10
7269.00,1.10
7268.00,1.09
7267.00,1.09
7266.00,1.09
7265.00,1.09
7264.00,1.08
7263.00,1.08
7262.00,1.08
7261.00,1.08
7260.00,1.08
7259.00,1.08
7258.00,1.08
7257.00,1.08
7256.00,1.08
7255.00,1.08
7254.00,1.08
7253.00,1.08
7252.00,1.08
7251.00,1.08
7250.00,1.08
7249.00,1.08
7248.00,1.08
7247.00,1.08
7246.00,1.09
7245.00,1.09
7244.00,1.09
7243.00,1.09
7242.00,1.09
7241.00,1.09
7240.00,1.09
7239.00,1.09
7238.00,1.09
7237.00,1.09
7236.00,1.09
7235.00,1.09
7234.00,1.09
7233.00,1.08
7232.00,1.08
7231.00,1.08
7230.00,1.07
7229.00,1.07
7228.00,1.07
7227.00,1.06
7226.00,1.06
7225.00,1.06
7224.00,1.05
7223.00,1.05
7222.00,1.05
7221.00,1.04
7220.00,1.04
7219.00,1.04
7218.00,1.03
7217.00,1.03
7216.00,1.03
7215.00,1.02
7214.00,1.02
7213.00,1.01
7212.00,1.01
7211.00,1.00
7210.00,1.00
7209.00,1.00
7208.00,0.99
7207.00,0.99
7206.00,0.99
7205.00,0.99
7204.00,0.99
7203.00,0.98
7202.00,0.98
7201.00,0.98
7200.00,0.97
7199.00,0.97
7198.00,0.97
7197.00,0.97
7196.00,0.96
7195.00,0.96
7194.00,0.96
7193.00,0.95
7192.00,0.95
7191.00,0.95
7190.00,0.94
7189.00,0.94
7188.00,0.94
7187.00,0.93
7186.00,0.93
7185.00,0.93
7184.00,0.93
7183.00,0.93
7182.00,0.92
7181.00,0.92
7180.00,0.92
7179.00,0.92
7178.00,0.92
7177.00,0.91
7176.00,0.91
7175.00,0.91
7174.00,0.91
7173.00,0.90
7172.00,0.90
7171.00,0.90
7170.00,0.90
7169.00,0.90
7168.00,0.90
7167.00,0.90
7166.00,0.90
7165.00,0.90
7164.00,0.90
7163.00,0.90
7162.00,0.90
7161.00,0.90
7160.00,0.90
7159.00,0.90
7158.00,0.90
7157.00,0.90
7156.00,0.90
7155.00,0.90
7154.00,0.91
7153.00,0.91
7152.00,0.91
7151.00,0.91
7150.00,0.91
7149.00,0.92
7148.00,0.92
7147.00,0.92
7146.00,0.92
7145.00,0.93
7144.00,0.93
7143.00,0.93
7142.00,0.93
7141.00,0.93
7140.00,0.93
7139.00,0.93
7138.00,0.93
7137.00,0.93
7136.00,0.93
7135.00,0.93
7134.00,0.93
7133.00,0.92
7132.00,0.92
7131.00,0.92
7130.00,0.92
7129.00,0.91
7128.00,0.91
7127.00,0.91
7126.00,0.90
7125.00,0.90
7124.00,0.89
7123.00,0.89
7122.00,0.89
7121.00,0.88
7120.00,0.88
7119.00,0.87
7118.00,0.86
7117.00,0.86
7116.00,0.85
7115.00,0.85
7114.00,0.84
7113.00,0.84
7112.00,0.84
7111.00,0.83
7110.00,0.83
7109.00,0.83
7108.00,0.82
7107.00,0.82
7106.00,0.82
7105.00,0.81
7104.00,0.81
7103.00,0.81
7102.00,0.80
7101.00,0.80
7100.00,0.80
7099.00,0.80
7098.00,0.79
7097.00,0.79
7096.00,0.79
7095.00,0.79
7094.00,0.78
7093.00,0.78
7092.00,0.78
7091.00,0.78
7090.00,0.78
7089.00,0.78
7088.00,0.78
7087.00,0.77
7086.00,0.77
7085.00,0.77
7084.00,0.77
7083.00,0.76
7082.00,0.76
7081.00,0.76
7080.00,0.75
7079.00,0.75
7078.00,0.75
7077.00,0.74
7076.00,0.74
7075.00,0.74
7074.00,0.74
7073.00,0.73
7072.00,0.73
7071.00,0.73
7070.00,0.72
7069.00,0.72
7068.00,0.72
7067.00,0.71
7066.00,0.71
7065.00,0.71
7064.00,0.71
7063.00,0.71
7062.00,0.71
7061.00,0.70
7060.00,0.70
7059.00,0.70
7058.00,0.70
7057.00,0.70
7056.00,0.70
7055.00,0.70
7054.00,0.70
7053.00,0.70
7052.00,0.70
7051.00,0.70
7050.00,0.70
7049.00,0.70
7048.00,0.70
7047.00,0.70
7046.00,0.70
7045.00,0.71
7044.00,0.71
7043.00,0.71
7042.00,0.71
7041.00,0.71
7040.00,0.71
7039.00,0.71
7038.00,0.71
7037.00,0.71
7036.00,0.71
7035.00,0.71
7034.00,0.71
7033.00,0.71
7032.00,0.71
7031.00,0.71
7030.00,0.71
7029.00,0.71
7028.00,0.71
7027.00,0.71
7026.00,0.71
7025.00,0.71
7024.00,0.70
7023.00,0.70
7022.00,0.70
7021.00,0.70
7020.00,0.70
7019.00,0.70
7018.00,0.70
7017.00,0.69
7016.00,0.69
7015.00,0.69
7014.00,0.69
7013.00,0.69
7012.00,0.69
7011.00,0.69
7010.00,0.68
7009.00,0.68
7008.00,0.68
7007.00,0.68
7006.00,0.68
7005.00,0.68
7004.00,0.68
7003.00,0.68
7002.00,0.68
7001.00,0.67
7000.00,0.67
6999.00,0.67
6998.00,0.67
6997.00,0.67
6996.00,0.67
6995.00,0.67
6994.00,0.67
6993.00,0.67
6992.00,0.67
6991.00,0.66
6990.00,0.66
6989.00,0.66
6988.00,0.66
6987.00,0.66
6986.00,0.66
6985.00,0.66
6984.00,0.66
6983.00,0.65
6982.00,0.65
6981.00,0.65
6980.00,0.65
6979.00,0.64
6978.00,0.64
6977.00,0.64
6976.00,0.64
6975.00,0.64
6974.00,0.63
6973.00,0.63
6972.00,0.63
6971.00,0.63
6970.00,0.63
6969.00,0.63
6968.00,0.62
6967.00,0.62
6966.00,0.62
6965.00,0.62
6964.00,0.62
6963.00,0.62
6962.00,0.62
6961.00,0.62
6960.00,0.62
6959.00,0.62
6958.00,0.62
6957.00,0.62
6956.00,0.62
6955.00,0.62
6954.00,0.62
6953.00,0.62
6952.00,0.62
6951.00,0.62
6950.00,0.62
6949.00,0.62
6948.00,0.62
6947.00,0.62
6946.00,0.63
6945.00,0.63
6944.00,0.63
6943.00,0.63
6942.00,0.63
6941.00,0.63
6940.00,0.63
6939.00,0.63
6938.00,0.63
6937.00,0.63
6936.00,0.63
6935.00,0.63
6934.00,0.63
6933.00,0.63
6932.00,0.63
6931.00,0.63
6930.00,0.63
6929.00,0.63
6928.00,0.63
6927.00,0.63
6926.00,0.63
6925.00,0.63
6924.00,0.63
6923.00,0.63
6922.00,0.64
6921.00,0.64
6920.00,0.64
6919.00,0.64
6918.00,0.64
6917.00,0.64
6916.00,0.64
6915.00,0.64
6914.00,0.64
6913.00,0.64
6912.00,0.64
6911.00,0.64
6910.00,0.64
6909.00,0.64
6908.00,0.64
6907.00,0.65
6906.00,0.65
6905.00,0.64
6904.00,0.64
6903.00,0.64
6902.00,0.64
6901.00,0.64
6900.00,0.64
6899.00,0.64
6898.00,0.64
6897.00,0.64
6896.00,0.64
6895.00,0.64
6894.00,0.64
6893.00,0.64
6892.00,0.64
6891.00,0.63
6890.00,0.63
6889.00,0.63
6888.00,0.63
6887.00,0.63
6886.00,0.63
6885.00,0.63
6884.00,0.63
6883.00,0.63
6882.00,0.63
6881.00,0.63
6880.00,0.62
6879.00,0.62
6878.00,0.62
6877.00,0.62
6876.00,0.62
6875.00,0.62
6874.00,0.62
6873.00,0.62
6872.00,0.62
6871.00,0.62
6870.00,0.62
6869.00,0.62
6868.00,0.62
6867.00,0.62
6866.00,0.62
6865.00,0.62
6864.00,0.62
6863.00,0.63
6862.00,0.63
6861.00,0.63
6860.00,0.63
6859.00,0.63
6858.00,0.62
6857.00,0.62
6856.00,0.62
6855.00,0.62
6854.00,0.62
6853.00,0.62
6852.00,0.62
6851.00,0.62
6850.00,0.62
6849.00,0.62
6848.00,0.62
6847.00,0.62
6846.00,0.62
6845.00,0.62
6844.00,0.62
6843.00,0.62
6842.00,0.62
6841.00,0.61
6840.00,0.61
6839.00,0.61
6838.00,0.61
6837.00,0.61
6836.00,0.61
6835.00,0.61
6834.00,0.61
6833.00,0.61
6832.00,0.61
6831.00,0.61
6830.00,0.61
6829.00,0.61
6828.00,0.62
6827.00,0.62
6826.00,0.62
6825.00,0.62
6824.00,0.62
6823.00,0.62
6822.00,0.62
6821.00,0.62
6820.00,0.62
6819.00,0.62
6818.00,0.62
6817.00,0.62
6816.00,0.62
6815.00,0.62
6814.00,0.62
6813.00,0.61
6812.00,0.61
6811.00,0.61
6810.00,0.61
6809.00,0.61
6808.00,0.61
6807.00,0.60
6806.00,0.60
6805.00,0.60
6804.00,0.60
6803.00,0.60
6802.00,0.59
6801.00,0.59
6800.00,0.59
6799.00,0.59
6798.00,0.58
6797.00,0.58
6796.00,0.58
6795.00,0.58
6794.00,0.58
6793.00,0.58
6792.00,0.58
6791.00,0.58
6790.00,0.58
6789.00,0.59
6788.00,0.59
6787.00,0.59
6786.00,0.59
6785.00,0.59
6784.00,0.59
6783.00,0.60
6782.00,0.60
6781.00,0.60
6780.00,0.60
6779.00,0.61
6778.00,0.61
6777.00,0.61
6776.00,0.61
6775.00,0.62
6774.00,0.62
6773.00,0.62
6772.00,0.62
6771.00,0.62
6770.00,0.63
6769.00,0.63
6768.00,0.63
6767.00,0.63
6766.00,0.63
6765.00,0.63
6764.00,0.63
6763.00,0.63
6762.00,0.63
6761.00,0.64
6760.00,0.64
6759.00,0.64
6758.00,0.64
6757.00,0.64
6756.00,0.64
6755.00,0.64
6754.00,0.64
6753.00,0.64
6752.00,0.64
6751.00,0.64
6750.00,0.64
6749.00,0.64
6748.00,0.64
6747.00,0.64
6746.00,0.64
6745.00,0.65
6744.00,0.65
6743.00,0.65
6742.00,0.65
6741.00,0.65
6740.00,0.65
6739.00,0.66
6738.00,0.66
6737.00,0.66
6736.00,0.66
6735.00,0.66
6734.00,0.66
6733.00,0.67
6732.00,0.67
6731.00,0.67
6730.00,0.67
6729.00,0.67
6728.00,0.67
6727.00,0.67
6726.00,0.67
6725.00,0.68
6724.00,0.68
6723.00,0.68
6722.00,0.68
6721.00,0.68
6720.00,0.68
6719.00,0.68
6718.00,0.68
6717.00,0.68
6716.00,0.68
6715.00,0.68
6714.00,0.68
6713.00,0.68
6712.00,0.68
6711.00,0.68
6710.00,0.68
6709.00,0.68
6708.00,0.68
6707.00,0.68
6706.00,0.68
6705.00,0.68
6704.00,0.68
6703.00,0.68
6702.00,0.68
6701.00,0.68
6700.00,0.68
6699.00,0.68
6698.00,0.68
6697.00,0.68
6696.00,0.68
6695.00,0.68
6694.00,0.68
6693.00,0.68
6692.00,0.68
6691.00,0.68
6690.00,0.68
6689.00,0.68
6688.00,0.68
6687.00,0.68
6686.00,0.68
6685.00,0.68
6684.00,0.68
6683.00,0.68
6682.00,0.68
6681.00,0.68
6680.00,0.67
6679.00,0.67
6678.00,0.67
6677.00,0.67
6676.00,0.67
6675.00,0.67
6674.00,0.67
6673.00,0.67
6672.00,0.67
6671.00,0.67
6670.00,0.67
6669.00,0.67
6668.00,0.67
6667.00,0.68
6666.00,0.68
6665.00,0.68
6664.00,0.68
6663.00,0.68
6662.00,0.68
6661.00,0.69
6660.00,0.69
6659.00,0.69
6658.00,0.69
6657.00,0.70
6656.00,0.70
6655.00,0.70
6654.00,0.71
6653.00,0.71
6652.00,0.71
6651.00,0.71
6650.00,0.72
6649.00,0.72
6648.00,0.72
6647.00,0.72
6646.00,0.73
6645.00,0.73
6644.00,0.73
6643.00,0.73
6642.00,0.73
6641.00,0.73
6640.00,0.73
6639.00,0.73
6638.00,0.74
6637.00,0.74
6636.00,0.74
6635.00,0.74
6634.00,0.74
6633.00,0.74
6632.00,0.74
6631.00,0.74
6630.00,0.74
6629.00,0.74
6628.00,0.73
6627.00,0.73
6626.00,0.73
6625.00,0.73
6624.00,0.73
6623.00,0.73
6622.00,0.73
6621.00,0.73
6620.00,0.73
6619.00,0.73
6618.00,0.73
6617.00,0.73
6616.00,0.73
6615.00,0.73
6614.00,0.73
6613.00,0.73
6612.00,0.73
6611.00,0.73
6610.00,0.73
6609.00,0.73
6608.00,0.73
6607.00,0.73
6606.00,0.73
6605.00,0.73
6604.00,0.73
6603.00,0.74
6602.00,0.74
6601.00,0.74
6600.00,0.74
6599.00,0.75
6598.00,0.75
6597.00,0.75
6596.00,0.76
6595.00,0.76
6594.00,0.76
6593.00,0.76
6592.00,0.77
6591.00,0.77
6590.00,0.77
6589.00,0.77
6588.00,0.78
6587.00,0.78
6586.00,0.78
6585.00,0.78
6584.00,0.78
6583.00,0.78
6582.00,0.78
6581.00,0.78
6580.00,0.79
6579.00,0.79
6578.00,0.79
6577.00,0.79
6576.00,0.79
6575.00,0.79
6574.00,0.79
6573.00,0.78
6572.00,0.78
6571.00,0.78
6570.00,0.78
6569.00,0.78
6568.00,0.78
6567.00,0.78
6566.00,0.78
6565.00,0.78
6564.00,0.78
6563.00,0.78
6562.00,0.78
6561.00,0.78
6560.00,0.79
6559.00,0.79
6558.00,0.79
6557.00,0.79
6556.00,0.79
6555.00,0.79
6554.00,0.80
6553.00,0.80
6552.00,0.80
6551.00,0.80
6550.00,0.80
6549.00,0.80
6548.00,0.81
6547.00,0.81
6546.00,0.81
6545.00,0.81
6544.00,0.81
6543.00,0.81
6542.00,0.82
6541.00,0.82
6540.00,0.82
6539.00,0.82
6538.00,0.82
6537.00,0.82
6536.00,0.82
6535.00,0.82
6534.00,0.82
6533.00,0.82
6532.00,0.83
6531.00,0.83
6530.00,0.83
6529.00,0.83
6528.00,0.83
6527.00,0.83
6526.00,0.83
6525.00,0.83
6524.00,0.83
6523.00,0.83
6522.00,0.83
6521.00,0.83
6520.00,0.83
6519.00,0.83
6518.00,0.83
6517.00,0.83
6516.00,0.83
6515.00,0.83
6514.00,0.83
6513.00,0.83
6512.00,0.83
6511.00,0.83
6510.00,0.83
6509.00,0.84
6508.00,0.84
6507.00,0.84
6506.00,0.84
6505.00,0.84
6504.00,0.84
6503.00,0.84
6502.00,0.84
6501.00,0.84
6500.00,0.84
6499.00,0.84
6498.00,0.84
6497.00,0.84
6496.00,0.84
6495.00,0.84
6494.00,0.84
6493.00,0.84
6492.00,0.84
6491.00,0.84
6490.00,0.85
6489.00,0.85
6488.00,0.85
6487.00,0.85
6486.00,0.85
6485.00,0.85
6484.00,0.85
6483.00,0.85
6482.00,0.85
6481.00,0.86
6480.00,0.86
6479.00,0.86
6478.00,0.86
6477.00,0.86
6476.00,0.86
6475.00,0.87
6474.00,0.87
6473.00,0.87
6472.00,0.87
6471.00,0.87
6470.00,0.87
6469.00,0.87
6468.00,0.87
6467.00,0.87
6466.00,0.87
6465.00,0.88
6464.00,0.88
6463.00,0.88
6462.00,0.88
6461.00,0.88
6460.00,0.88
6459.00,0.88
6458.00,0.88
6457.00,0.88
6456.00,0.88
6455.00,0.88
6454.00,0.88
6453.00,0.88
6452.00,0.88
6451.00,0.88
6450.00,0.88
6449.00,0.88
6448.00,0.88
6447.00,0.88
6446.00,0.88
6445.00,0.88
6444.00,0.88
6443.00,0.88
6442.00,0.88
6441.00,0.88
6440.00,0.88
6439.00,0.88
6438.00,0.88
6437.00,0.88
6436.00,0.88
6435.00,0.87
6434.00,0.87
6433.00,0.87
6432.00,0.87
6431.00,0.87
6430.00,0.87
6429.00,0.87
6428.00,0.87
6427.00,0.87
6426.00,0.87
6425.00,0.87
6424.00,0.87
6423.00,0.87
6422.00,0.87
6421.00,0.87
6420.00,0.87
6419.00,0.87
6418.00,0.87
6417.00,0.87
6416.00,0.87
6415.00,0.87
6414.00,0.87
6413.00,0.87
6412.00,0.87
6411.00,0.87
6410.00,0.88
6409.00,0.88
6408.00,0.88
6407.00,0.88
6406.00,0.88
6405.00,0.88
6404.00,0.88
6403.00,0.88
6402.00,0.88
6401.00,0.88
6400.00,0.88
6399.00,0.88
6398.00,0.89
6397.00,0.89
6396.00,0.89
6395.00,0.89
6394.00,0.89
6393.00,0.89
6392.00,0.89
6391.00,0.89
6390.00,0.89
6389.00,0.89
6388.00,0.89
6387.00,0.89
6386.00,0.89
6385.00,0.89
6384.00,0.89
6383.00,0.89
6382.00,0.89
6381.00,0.89
6380.00,0.89
6379.00,0.89
6378.00,0.89
6377.00,0.89
6376.00,0.89
6375.00,0.89
6374.00,0.89
6373.00,0.89
6372.00,0.89
6371.00,0.88
6370.00,0.88
6369.00,0.88
6368.00,0.88
6367.00,0.88
6366.00,0.88
6365.00,0.88
6364.00,0.88
6363.00,0.88
6362.00,0.88
6361.00,0.88
6360.00,0.88
6359.00,0.88
6358.00,0.88
6357.00,0.88
6356.00,0.88
6355.00,0.87
6354.00,0.87
6353.00,0.87
6352.00,0.87
6351.00,0.87
6350.00,0.87
6349.00,0.87
6348.00,0.87
6347.00,0.87
6346.00,0.87
6345.00,0.87
6344.00,0.88
6343.00,0.88
6342.00,0.88
6341.00,0.88
6340.00,0.88
6339.00,0.88
6338.00,0.89
6337.00,0.89
6336.00,0.89
6335.00,0.89
6334.00,0.89
6333.00,0.90
6332.00,0.90
6331.00,0.90
6330.00,0.90
6329.00,0.90
6328.00,0.91
6327.00,0.91
6326.00,0.91
6325.00,0.91
6324.00,0.91
6323.00,0.91
6322.00,0.92
6321.00,0.92
6320.00,0.92
6319.00,0.92
6318.00,0.92
6317.00,0.92
6316.00,0.92
6315.00,0.93
6314.00,0.93
6313.00,0.93
6312.00,0.93
6311.00,0.93
6310.00,0.93
6309.00,0.93
6308.00,0.93
6307.00,0.93
6306.00,0.93
6305.00,0.93
6304.00,0.94
6303.00,0.94
6302.00,0.94
6301.00,0.94
6300.00,0.94
6299.00,0.94
6298.00,0.94
6297.00,0.95
6296.00,0.95
6295.00,0.95
6294.00,0.95
6293.00,0.95
6292.00,0.95
6291.00,0.95
6290.00,0.95
6289.00,0.96
6288.00,0.96
6287.00,0.96
6286.00,0.96
6285.00,0.96
6284.00,0.96
6283.00,0.96
6282.00,0.96
6281.00,0.96
6280.00,0.96
6279.00,0.97
6278.00,0.97
6277.00,0.97
6276.00,0.97
6275.00,0.97
6274.00,0.97
6273.00,0.97
6272.00,0.97
6271.00,0.97
6270.00,0.97
6269.00,0.97
6268.00,0.97
6267.00,0.97
6266.00,0.97
6265.00,0.97
6264.00,0.97
6263.00,0.97
6262.00,0.97
6261.00,0.98
6260.00,0.98
6259.00,0.98
6258.00,0.98
6257.00,0.98
6256.00,0.98
6255.00,0.98
6254.00,0.98
6253.00,0.99
6252.00,0.99
6251.00,0.99
6250.00,0.99
6249.00,0.99
6248.00,0.99
6247.00,0.99
6246.00,1.00
6245.00,1.00
6244.00,1.00
6243.00,1.00
6242.00,1.00
6241.00,1.00
6240.00,1.01
6239.00,1.01
6238.00,1.01
6237.00,1.01
6236.00,1.01
6235.00,1.00
6234.00,1.00
6233.00,1.00
6232.00,1.00
6231.00,1.00
6230.00,1.00
6229.00,1.00
6228.00,1.00
6227.00,1.00
6226.00,1.00
6225.00,1.00
6224.00,0.99
6223.00,0.99
6222.00,0.99
6221.00,0.99
6220.00,0.99
6219.00,0.99
6218.00,0.99
6217.00,0.98
6216.00,0.98
6215.00,0.98
6214.00,0.98
6213.00,0.98
6212.00,0.98
6211.00,0.98
6210.00,0.98
6209.00,0.98
6208.00,0.98
6207.00,0.99
6206.00,0.99
6205.00,0.99
6204.00,0.99
6203.00,0.99
6202.00,0.99
6201.00,1.00
6200.00,1.00
6199.00,1.00
6198.00,1.00
6197.00,1.00
6196.00,1.01
6195.00,1.01
6194.00,1.01
6193.00,1.02
6192.00,1.02
6191.00,1.02
6190.00,1.03
6189.00,1.03
6188.00,1.03
6187.00,1.03
6186.00,1.04
6185.00,1.04
6184.00,1.04
6183.00,1.05
6182.00,1.05
6181.00,1.05
6180.00,1.05
6179.00,1.06
6178.00,1.06
6177.00,1.06
6176.00,1.06
6175.00,1.06
6174.00,1.07
6173.00,1.07
6172.00,1.07
6171.00,1.07
6170.00,1.07
6169.00,1.07
6168.00,1.07
6167.00,1.07
6166.00,1.07
6165.00,1.07
6164.00,1.07
6163.00,1.07
6162.00,1.07
6161.00,1.07
6160.00,1.07
6159.00,1.07
6158.00,1.07
6157.00,1.07
6156.00,1.07
6155.00,1.07
6154.00,1.07
6153.00,1.07
6152.00,1.07
6151.00,1.07
6150.00,1.07
6149.00,1.08
6148.00,1.08
6147.00,1.08
6146.00,1.08
6145.00,1.08
6144.00,1.08
6143.00,1.08
6142.00,1.08
6141.00,1.08
6140.00,1.08
6139.00,1.08
6138.00,1.09
6137.00,1.09
6136.00,1.09
6135.00,1.09
6134.00,1.09
6133.00,1.09
6132.00,1.09
6131.00,1.09
6130.00,1.09
6129.00,1.09
6128.00,1.09
6127.00,1.09
6126.00,1.09
6125.00,1.10
6124.00,1.10
6123.00,1.10
6122.00,1.10
6121.00,1.10
6120.00,1.10
6119.00,1.10
6118.00,1.10
6117.00,1.10
6116.00,1.10
6115.00,1.10
6114.00,1.10
6113.00,1.10
6112.00,1.10
6111.00,1.10
6110.00,1.10
6109.00,1.10
6108.00,1.10
6107.00,1.09
6106.00,1.09
6105.00,1.09
6104.00,1.09
6103.00,1.09
6102.00,1.10
6101.00,1.10
6100.00,1.10
6099.00,1.10
6098.00,1.10
6097.00,1.10
6096.00,1.10
6095.00,1.10
6094.00,1.10
6093.00,1.10
6092.00,1.10
6091.00,1.10
6090.00,1.10
6089.00,1.10
6088.00,1.10
6087.00,1.10
6086.00,1.11
6085.00,1.11
6084.00,1.11
6083.00,1.11
6082.00,1.12
6081.00,1.12
6080.00,1.12
6079.00,1.12
6078.00,1.13
6077.00,1.13
6076.00,1.13
6075.00,1.13
6074.00,1.14
6073.00,1.14
6072.00,1.14
6071.00,1.15
6070.00,1.15
6069.00,1.15
6068.00,1.16
6067.00,1.16
6066.00,1.16
6065.00,1.16
6064.00,1.17
6063.00,1.17
6062.00,1.17
6061.00,1.17
6060.00,1.18
6059.00,1.18
6058.00,1.18
6057.00,1.18
6056.00,1.18
6055.00,1.18
6054.00,1.18
6053.00,1.18
6052.00,1.18
6051.00,1.18
6050.00,1.18
6049.00,1.18
6048.00,1.18
6047.00,1.18
6046.00,1.18
6045.00,1.18
6044.00,1.17
6043.00,1.17
6042.00,1.17
6041.00,1.17
6040.00,1.17
6039.00,1.17
6038.00,1.16
6037.00,1.16
6036.00,1.16
6035.00,1.16
6034.00,1.16
6033.00,1.16
6032.00,1.15
6031.00,1.15
6030.00,1.15
6029.00,1.15
6028.00,1.15
6027.00,1.15
6026.00,1.15
6025.00,1.15
6024.00,1.15
6023.00,1.15
6022.00,1.15
6021.00,1.15
6020.00,1.14
6019.00,1.14
6018.00,1.14
6017.00,1.14
6016.00,1.14
6015.00,1.14
6014.00,1.14
6013.00,1.14
6012.00,1.14
6011.00,1.14
6010.00,1.14
6009.00,1.14
6008.00,1.14
6007.00,1.14
6006.00,1.14
6005.00,1.14
6004.00,1.15
6003.00,1.15
6002.00,1.15
6001.00,1.15
6000.00,1.15
5999.00,1.15
5998.00,1.15
5997.00,1.15
5996.00,1.16
5995.00,1.16
5994.00,1.16
5993.00,1.16
5992.00,1.16
5991.00,1.17
5990.00,1.17
5989.00,1.17
5988.00,1.17
5987.00,1.17
5986.00,1.17
5985.00,1.17
5984.00,1.18
5983.00,1.18
5982.00,1.17
5981.00,1.17
5980.00,1.17
5979.00,1.17
5978.00,1.17
5977.00,1.17
5976.00,1.16
5975.00,1.16
5974.00,1.15
5973.00,1.15
5972.00,1.14
5971.00,1.14
5970.00,1.13
5969.00,1.13
5968.00,1.12
5967.00,1.11
5966.00,1.11
5965.00,1.10
5964.00,1.09
5963.00,1.09
5962.00,1.08
5961.00,1.07
5960.00,1.07
5959.00,1.06
5958.00,1.06
5957.00,1.05
5956.00,1.05
5955.00,1.04
5954.00,1.04
5953.00,1.03
5952.00,1.03
5951.00,1.02
5950.00,1.02
5949.00,1.02
5948.00,1.02
5947.00,1.02
5946.00,1.01
5945.00,1.01
5944.00,1.01
5943.00,1.01
5942.00,1.01
5941.00,1.00
5940.00,1.00
5939.00,1.00
5938.00,1.00
5937.00,1.00
5936.00,1.00
5935.00,0.99
5934.00,0.99
5933.00,0.99
5932.00,0.99
5931.00,0.99
5930.00,0.99
5929.00,0.98
5928.00,0.98
5927.00,0.98
5926.00,0.98
5925.00,0.98
5924.00,0.98
5923.00,0.97
5922.00,0.97
5921.00,0.97
5920.00,0.97
5919.00,0.96
5918.00,0.96
5917.00,0.96
5916.00,0.96
5915.00,0.96
5914.00,0.96
5913.00,0.96
5912.00,0.96
5911.00,0.96
5910.00,0.96
5909.00,0.96
5908.00,0.96
5907.00,0.96
5906.00,0.96
5905.00,0.96
5904.00,0.96
5903.00,0.96
5902.00,0.96
5901.00,0.96
5900.00,0.96
5899.00,0.96
5898.00,0.96
5897.00,0.96
5896.00,0.96
5895.00,0.96
5894.00,0.96
5893.00,0.97
5892.00,0.97
5891.00,0.97
5890.00,0.97
5889.00,0.97
5888.00,0.98
5887.00,0.98
5886.00,0.98
5885.00,0.98
5884.00,0.98
5883.00,0.99
5882.00,0.99
5881.00,0.99
5880.00,1.00
5879.00,1.00
5878.00,1.00
5877.00,1.00
5876.00,1.01
5875.00,1.01
5874.00,1.02
5873.00,1.02
5872.00,1.02
5871.00,1.03
5870.00,1.03
5869.00,1.03
5868.00,1.03
5867.00,1.03
5866.00,1.03
5865.00,1.04
5864.00,1.04
5863.00,1.04
5862.00,1.04
5861.00,1.04
5860.00,1.04
5859.00,1.04
5858.00,1.04
5857.00,1.04
5856.00,1.04
5855.00,1.04
5854.00,1.04
5853.00,1.04
5852.00,1.04
5851.00,1.04
5850.00,1.04
5849.00,1.04
5848.00,1.04
5847.00,1.04
5846.00,1.04
5845.00,1.04
5844.00,1.04
5843.00,1.04
5842.00,1.04
5841.00,1.04
5840.00,1.05
5839.00,1.05
5838.00,1.05
5837.00,1.05
5836.00,1.05
5835.00,1.05
5834.00,1.05
5833.00,1.05
5832.00,1.06
5831.00,1.06
5830.00,1.06
5829.00,1.06
5828.00,1.06
5827.00,1.05
5826.00,1.05
5825.00,1.05
5824.00,1.05
5823.00,1.05
5822.00,1.05
5821.00,1.05
5820.00,1.05
5819.00,1.04
5818.00,1.04
5817.00,1.04
5816.00,1.04
5815.00,1.04
5814.00,1.03
5813.00,1.03
5812.00,1.03
5811.00,1.02
5810.00,1.02
5809.00,1.02
5808.00,1.02
5807.00,1.01
5806.00,1.01
5805.00,1.01
5804.00,1.01
5803.00,1.00
5802.00,1.00
5801.00,1.00
5800.00,1.00
5799.00,1.00
5798.00,1.00
5797.00,1.00
5796.00,0.99
5795.00,0.99
5794.00,0.99
5793.00,0.99
5792.00,0.99
5791.00,0.99
5790.00,0.99
5789.00,1.00
5788.00,1.00
5787.00,1.00
5786.00,1.00
5785.00,1.00
5784.00,1.00
5783.00,1.00
5782.00,1.01
5781.00,1.01
5780.00,1.01
5779.00,1.01
5778.00,1.01
5777.00,1.01
5776.00,1.02
5775.00,1.02
5774.00,1.02
5773.00,1.02
5772.00,1.02
5771.00,1.03
5770.00,1.03
5769.00,1.03
5768.00,1.03
5767.00,1.03
5766.00,1.03
5765.00,1.04
5764.00,1.04
5763.00,1.04
5762.00,1.04
5761.00,1.04
5760.00,1.04
5759.00,1.04
5758.00,1.05
5757.00,1.05
5756.00,1.05
5755.00,1.05
5754.00,1.05
5753.00,1.05
5752.00,1.05
5751.00,1.05
5750.00,1.06
5749.00,1.06
5748.00,1.06
5747.00,1.06
5746.00,1.06
5745.00,1.06
5744.00,1.06
5743.00,1.06
5742.00,1.06
5741.00,1.07
5740.00,1.07
5739.00,1.07
5738.00,1.07
5737.00,1.07
5736.00,1.07
5735.00,1.07
5734.00,1.07
5733.00,1.07
5732.00,1.07
5731.00,1.07
5730.00,1.07
5729.00,1.07
5728.00,1.07
5727.00,1.07
5726.00,1.08
5725.00,1.08
5724.00,1.08
5723.00,1.07
5722.00,1.07
5721.00,1.07
5720.00,1.07
5719.00,1.07
5718.00,1.07
5717.00,1.07
5716.00,1.08
5715.00,1.08
5714.00,1.08
5713.00,1.08
5712.00,1.08
5711.00,1.08
5710.00,1.08
5709.00,1.08
5708.00,1.08
5707.00,1.08
5706.00,1.07
5705.00,1.07
5704.00,1.07
5703.00,1.07
5702.00,1.07
5701.00,1.07
5700.00,1.07
5699.00,1.07
5698.00,1.07
5697.00,1.06
5696.00,1.06
5695.00,1.06
5694.00,1.06
5693.00,1.06
5692.00,1.06
5691.00,1.06
5690.00,1.06
5689.00,1.05
5688.00,1.05
5687.00,1.05
5686.00,1.05
5685.00,1.05
5684.00,1.05
5683.00,1.04
5682.00,1.04
5681.00,1.04
5680.00,1.04
5679.00,1.04
5678.00,1.04
5677.00,1.04
5676.00,1.04
5675.00,1.04
5674.00,1.04
5673.00,1.04
5672.00,1.04
5671.00,1.04
5670.00,1.04
5669.00,1.04
5668.00,1.04
5667.00,1.04
5666.00,1.04
5665.00,1.05
5664.00,1.05
5663.00,1.05
5662.00,1.05
5661.00,1.05
5660.00,1.05
5659.00,1.06
5658.00,1.06
5657.00,1.06
5656.00,1.06
5655.00,1.07
5654.00,1.07
5653.00,1.07
5652.00,1.07
5651.00,1.07
5650.00,1.07
5649.00,1.08
5648.00,1.08
5647.00,1.08
5646.00,1.08
5645.00,1.08
5644.00,1.08
5643.00,1.08
5642.00,1.08
5641.00,1.08
5640.00,1.08
5639.00,1.08
5638.00,1.08
5637.00,1.08
5636.00,1.08
5635.00,1.08
5634.00,1.08
5633.00,1.09
5632.00,1.09
5631.00,1.09
5630.00,1.09
5629.00,1.09
5628.00,1.09
5627.00,1.09
5626.00,1.09
5625.00,1.09
5624.00,1.09
5623.00,1.09
5622.00,1.10
5621.00,1.10
5620.00,1.10
5619.00,1.10
5618.00,1.10
5617.00,1.10
5616.00,1.11
5615.00,1.11
5614.00,1.11
5613.00,1.11
5612.00,1.11
5611.00,1.11
5610.00,1.12
5609.00,1.12
5608.00,1.12
5607.00,1.12
5606.00,1.12
5605.00,1.12
5604.00,1.12
5603.00,1.12
5602.00,1.12
5601.00,1.12
5600.00,1.12
5599.00,1.12
5598.00,1.13
5597.00,1.13
5596.00,1.13
5595.00,1.13
5594.00,1.13
5593.00,1.13
5592.00,1.13
5591.00,1.13
5590.00,1.13
5589.00,1.13
5588.00,1.13
5587.00,1.13
5586.00,1.13
5585.00,1.13
5584.00,1.13
5583.00,1.13
5582.00,1.13
5581.00,1.13
5580.00,1.13
5579.00,1.13
5578.00,1.13
5577.00,1.13
5576.00,1.13
5575.00,1.13
5574.00,1.13
5573.00,1.13
5572.00,1.13
5571.00,1.13
5570.00,1.13
5569.00,1.13
5568.00,1.13
5567.00,1.13
5566.00,1.14
5565.00,1.14
5564.00,1.14
5563.00,1.14
5562.00,1.14
5561.00,1.14
5560.00,1.14
5559.00,1.15
5558.00,1.15
5557.00,1.15
5556.00,1.15
5555.00,1.15
5554.00,1.15
5553.00,1.15
5552.00,1.15
5551.00,1.16
5550.00,1.16
5549.00,1.16
5548.00,1.16
5547.00,1.16
5546.00,1.16
5545.00,1.17
5544.00,1.17
5543.00,1.17
5542.00,1.17
5541.00,1.17
5540.00,1.17
5539.00,1.17
5538.00,1.17
5537.00,1.17
5536.00,1.17
5535.00,1.17
5534.00,1.17
5533.00,1.17
5532.00,1.17
5531.00,1.17
5530.00,1.17
5529.00,1.17
5528.00,1.17
5527.00,1.18
5526.00,1.18
5525.00,1.18
5524.00,1.18
5523.00,1.18
5522.00,1.18
5521.00,1.18
5520.00,1.18
5519.00,1.18
5518.00,1.19
5517.00,1.19
5516.00,1.19
5515.00,1.19
5514.00,1.19
5513.00,1.19
5512.00,1.20
5511.00,1.20
5510.00,1.20
5509.00,1.20
5508.00,1.20
5507.00,1.21
5506.00,1.21
5505.00,1.21
5504.00,1.21
5503.00,1.21
5502.00,1.21
5501.00,1.22
5500.00,1.22
5499.00,1.22
5498.00,1.22
5497.00,1.22
5496.00,1.22
5495.00,1.23
5494.00,1.23
5493.00,1.23
5492.00,1.23
5491.00,1.23
5490.00,1.24
5489.00,1.24
5488.00,1.24
5487.00,1.24
5486.00,1.25
5485.00,1.25
5484.00,1.25
5483.00,1.25
5482.00,1.25
5481.00,1.25
5480.00,1.26
5479.00,1.26
5478.00,1.26
5477.00,1.26
5476.00,1.26
5475.00,1.26
5474.00,1.27
5473.00,1.27
5472.00,1.27
5471.00,1.27
5470.00,1.27
5469.00,1.27
5468.00,1.27
5467.00,1.27
5466.00,1.27
5465.00,1.27
5464.00,1.28
5463.00,1.28
5462.00,1.28
5461.00,1.28
5460.00,1.28
5459.00,1.28
5458.00,1.28
5457.00,1.28
5456.00,1.28
5455.00,1.28
5454.00,1.28
5453.00,1.28
5452.00,1.28
5451.00,1.28
5450.00,1.28
5449.00,1.28
5448.00,1.28
5447.00,1.28
5446.00,1.29
5445.00,1.29
5444.00,1.29
5443.00,1.29
5442.00,1.29
5441.00,1.29
5440.00,1.29
5439.00,1.29
5438.00,1.29
5437.00,1.29
5436.00,1.29
5435.00,1.28
5434.00,1.28
5433.00,1.28
5432.00,1.28
5431.00,1.28
5430.00,1.28
5429.00,1.28
5428.00,1.28
5427.00,1.28
5426.00,1.28
5425.00,1.28
5424.00,1.28
5423.00,1.28
5422.00,1.27
5421.00,1.27
5420.00,1.27
5419.00,1.27
5418.00,1.27
5417.00,1.27
5416.00,1.27
5415.00,1.27
5414.00,1.27
5413.00,1.27
5412.00,1.27
5411.00,1.27
5410.00,1.26
5409.00,1.26
5408.00,1.26
5407.00,1.26
5406.00,1.26
5405.00,1.26
5404.00,1.26
5403.00,1.26
5402.00,1.26
5401.00,1.26
5400.00,1.26
5399.00,1.25
5398.00,1.25
5397.00,1.25
5396.00,1.25
5395.00,1.25
5394.00,1.25
5393.00,1.25
5392.00,1.25
5391.00,1.25
5390.00,1.24
5389.00,1.24
5388.00,1.24
5387.00,1.24
5386.00,1.23
5385.00,1.23
5384.00,1.23
5383.00,1.23
5382.00,1.22
5381.00,1.22
5380.00,1.22
5379.00,1.22
5378.00,1.21
5377.00,1.21
5376.00,1.21
5375.00,1.21
5374.00,1.21
5373.00,1.20
5372.00,1.20
5371.00,1.20
5370.00,1.20
5369.00,1.19
5368.00,1.19
5367.00,1.19
5366.00,1.19
5365.00,1.18
5364.00,1.18
5363.00,1.18
5362.00,1.18
5361.00,1.17
5360.00,1.17
5359.00,1.17
5358.00,1.17
5357.00,1.16
5356.00,1.16
5355.00,1.16
5354.00,1.15
5353.00,1.15
5352.00,1.15
5351.00,1.14
5350.00,1.14
5349.00,1.13
5348.00,1.13
5347.00,1.12
5346.00,1.12
5345.00,1.11
5344.00,1.10
5343.00,1.10
5342.00,1.09
5341.00,1.08
5340.00,1.07
5339.00,1.07
5338.00,1.06
5337.00,1.05
5336.00,1.04
5335.00,1.03
5334.00,1.02
5333.00,1.01
5332.00,1.00
5331.00,0.99
5330.00,0.98
5329.00,0.97
5328.00,0.96
5327.00,0.95
5326.00,0.94
5325.00,0.93
5324.00,0.92
5323.00,0.91
5322.00,0.90
5321.00,0.89
5320.00,0.88
5319.00,0.87
5318.00,0.86
5317.00,0.86
5316.00,0.85
5315.00,0.84
5314.00,0.83
5313.00,0.82
5312.00,0.82
5311.00,0.81
5310.00,0.80
5309.00,0.80
5308.00,0.79
5307.00,0.78
5306.00,0.78
5305.00,0.77
5304.00,0.77
5303.00,0.76
5302.00,0.76
5301.00,0.75
5300.00,0.75
5299.00,0.74
5298.00,0.74
5297.00,0.74
5296.00,0.73
5295.00,0.73
5294.00,0.72
5293.00,0.72
5292.00,0.72
5291.00,0.71
5290.00,0.71
5289.00,0.71
5288.00,0.71
5287.00,0.70
5286.00,0.70
5285.00,0.70
5284.00,0.70
5283.00,0.70
5282.00,0.69
5281.00,0.69
5280.00,0.69
5279.00,0.69
5278.00,0.69
5277.00,0.69
5276.00,0.68
5275.00,0.68
5274.00,0.68
5273.00,0.68
5272.00,0.68
5271.00,0.68
5270.00,0.68
5269.00,0.68
5268.00,0.68
5267.00,0.68
5266.00,0.68
5265.00,0.68
5264.00,0.68
5263.00,0.68
5262.00,0.68
5261.00,0.68
5260.00,0.68
5259.00,0.68
5258.00,0.68
5257.00,0.68
5256.00,0.68
5255.00,0.68
5254.00,0.68
5253.00,0.68
5252.00,0.68
5251.00,0.68
5250.00,0.68
5249.00,0.68
5248.00,0.68
5247.00,0.68
5246.00,0.68
5245.00,0.68
5244.00,0.68
5243.00,0.68
5242.00,0.67
5241.00,0.67
5240.00,0.67
5239.00,0.67
5238.00,0.67
5237.00,0.67
5236.00,0.67
5235.00,0.67
5234.00,0.67
5233.00,0.66
5232.00,0.66
5231.00,0.66
5230.00,0.66
5229.00,0.66
5228.00,0.66
5227.00,0.66
5226.00,0.66
5225.00,0.66
5224.00,0.66
5223.00,0.66
5222.00,0.66
5221.00,0.66
5220.00,0.66
5219.00,0.66
5218.00,0.66
5217.00,0.66
5216.00,0.66
5215.00,0.66
5214.00,0.66
5213.00,0.66
5212.00,0.66
5211.00,0.66
5210.00,0.66
5209.00,0.66
5208.00,0.66
5207.00,0.66
5206.00,0.66
5205.00,0.66
5204.00,0.66
5203.00,0.66
5202.00,0.66
5201.00,0.66
5200.00,0.66
5199.00,0.65
5198.00,0.65
5197.00,0.65
5196.00,0.65
5195.00,0.65
5194.00,0.65
5193.00,0.65
5192.00,0.65
5191.00,0.65
5190.00,0.65
5189.00,0.65
5188.00,0.65
5187.00,0.65
5186.00,0.65
5185.00,0.65
5184.00,0.65
5183.00,0.65
5182.00,0.66
5181.00,0.66
5180.00,0.66
5179.00,0.66
5178.00,0.66
5177.00,0.66
5176.00,0.66
5175.00,0.66
5174.00,0.66
5173.00,0.67
5172.00,0.67
5171.00,0.67
5170.00,0.67
5169.00,0.67
5168.00,0.67
5167.00,0.67
5166.00,0.67
5165.00,0.67
5164.00,0.67
5163.00,0.67
5162.00,0.67
5161.00,0.67
5160.00,0.67
5159.00,0.67
5158.00,0.67
5157.00,0.67
5156.00,0.67
5155.00,0.67
5154.00,0.67
5153.00,0.66
5152.00,0.66
5151.00,0.66
5150.00,0.66
5149.00,0.66
5148.00,0.66
5147.00,0.66
5146.00,0.66
5145.00,0.66
5144.00,0.66
5143.00,0.66
5142.00,0.66
5141.00,0.66
5140.00,0.66
5139.00,0.66
5138.00,0.66
5137.00,0.66
5136.00,0.66
5135.00,0.66
5134.00,0.66
5133.00,0.66
5132.00,0.66
5131.00,0.66
5130.00,0.66
5129.00,0.66
5128.00,0.66
5127.00,0.66
5126.00,0.66
5125.00,0.66
5124.00,0.66
5123.00,0.66
5122.00,0.66
5121.00,0.66
5120.00,0.66
5119.00,0.66
5118.00,0.66
5117.00,0.66
5116.00,0.66
5115.00,0.66
5114.00,0.66
5113.00,0.66
5112.00,0.66
5111.00,0.66
5110.00,0.66
5109.00,0.66
5108.00,0.66
5107.00,0.66
5106.00,0.66
5105.00,0.66
5104.00,0.66
5103.00,0.66
5102.00,0.67
5101.00,0.67
5100.00,0.67
5099.00,0.67
5098.00,0.67
5097.00,0.67
5096.00,0.67
5095.00,0.68
5094.00,0.68
5093.00,0.68
5092.00,0.68
5091.00,0.68
5090.00,0.68
5089.00,0.68
5088.00,0.69
5087.00,0.69
5086.00,0.69
5085.00,0.69
5084.00,0.69
5083.00,0.69
5082.00,0.69
5081.00,0.69
5080.00,0.70
5079.00,0.70
5078.00,0.70
5077.00,0.70
5076.00,0.70
5075.00,0.70
5074.00,0.71
5073.00,0.71
5072.00,0.71
5071.00,0.71
5070.00,0.71
5069.00,0.71
5068.00,0.71
5067.00,0.71
5066.00,0.71
5065.00,0.71
5064.00,0.72
5063.00,0.72
5062.00,0.72
5061.00,0.72
5060.00,0.72
5059.00,0.72
5058.00,0.72
5057.00,0.72
5056.00,0.72
5055.00,0.72
5054.00,0.72
5053.00,0.73
5052.00,0.73
5051.00,0.73
5050.00,0.73
5049.00,0.73
5048.00,0.73
5047.00,0.73
5046.00,0.73
5045.00,0.72
5044.00,0.72
5043.00,0.72
5042.00,0.73
5041.00,0.73
5040.00,0.73
5039.00,0.73
5038.00,0.72
5037.00,0.72
5036.00,0.72
5035.00,0.72
5034.00,0.72
5033.00,0.72
5032.00,0.72
5031.00,0.72
5030.00,0.72
5029.00,0.72
5028.00,0.72
5027.00,0.72
5026.00,0.72
5025.00,0.72
5024.00,0.72
5023.00,0.72
5022.00,0.72
5021.00,0.72
5020.00,0.72
5019.00,0.72
5018.00,0.72
5017.00,0.72
5016.00,0.72
5015.00,0.72
5014.00,0.72
5013.00,0.72
5012.00,0.72
5011.00,0.72
5010.00,0.72
5009.00,0.72
5008.00,0.72
5007.00,0.72
5006.00,0.72
5005.00,0.72
5004.00,0.72
5003.00,0.72
5002.00,0.72
5001.00,0.73
5000.00,0.73
4999.00,0.73
4998.00,0.73
4997.00,0.73
4996.00,0.73
4995.00,0.73
4994.00,0.74
4993.00,0.74
4992.00,0.74
4991.00,0.74
4990.00,0.75
4989.00,0.75
4988.00,0.75
4987.00,0.75
4986.00,0.76
4985.00,0.76
4984.00,0.76
4983.00,0.77
4982.00,0.77
4981.00,0.77
4980.00,0.77
4979.00,0.77
4978.00,0.77
4977.00,0.78
4976.00,0.78
4975.00,0.78
4974.00,0.78
4973.00,0.78
4972.00,0.78
4971.00,0.78
4970.00,0.78
4969.00,0.78
4968.00,0.78
4967.00,0.78
4966.00,0.78
4965.00,0.78
4964.00,0.78
4963.00,0.78
4962.00,0.78
4961.00,0.78
4960.00,0.78
4959.00,0.77
4958.00,0.77
4957.00,0.77
4956.00,0.77
4955.00,0.77
4954.00,0.77
4953.00,0.77
4952.00,0.77
4951.00,0.77
4950.00,0.77
4949.00,0.77
4948.00,0.77
4947.00,0.77
4946.00,0.77
4945.00,0.77
4944.00,0.77
4943.00,0.77
4942.00,0.77
4941.00,0.77
4940.00,0.77
4939.00,0.77
4938.00,0.77
4937.00,0.77
4936.00,0.77
4935.00,0.77
4934.00,0.77
4933.00,0.77
4932.00,0.77
4931.00,0.77
4930.00,0.77
4929.00,0.77
4928.00,0.77
4927.00,0.77
4926.00,0.77
4925.00,0.77
4924.00,0.77
4923.00,0.77
4922.00,0.77
4921.00,0.78
4920.00,0.78
4919.00,0.78
4918.00,0.78
4917.00,0.78
4916.00,0.79
4915.00,0.79
4914.00,0.79
4913.00,0.80
4912.00,0.80
4911.00,0.80
4910.00,0.81
4909.00,0.81
4908.00,0.81
4907.00,0.82
4906.00,0.82
4905.00,0.82
4904.00,0.83
4903.00,0.83
4902.00,0.84
4901.00,0.84
4900.00,0.85
4899.00,0.85
4898.00,0.85
4897.00,0.86
4896.00,0.86
4895.00,0.86
4894.00,0.87
4893.00,0.87
4892.00,0.87
4891.00,0.87
4890.00,0.88
4889.00,0.88
4888.00,0.88
4887.00,0.88
4886.00,0.88
4885.00,0.88
4884.00,0.88
4883.00,0.88
4882.00,0.88
4881.00,0.88
4880.00,0.88
4879.00,0.88
4878.00,0.88
4877.00,0.88
4876.00,0.88
4875.00,0.87
4874.00,0.87
4873.00,0.87
4872.00,0.87
4871.00,0.87
4870.00,0.87
4869.00,0.87
4868.00,0.86
4867.00,0.86
4866.00,0.86
4865.00,0.86
4864.00,0.86
4863.00,0.86
4862.00,0.86
4861.00,0.86
4860.00,0.86
4859.00,0.86
4858.00,0.86
4857.00,0.86
4856.00,0.86
4855.00,0.86
4854.00,0.87
4853.00,0.87
4852.00,0.87
4851.00,0.87
4850.00,0.87
4849.00,0.87
4848.00,0.88
4847.00,0.88
4846.00,0.88
4845.00,0.88
4844.00,0.88
4843.00,0.89
4842.00,0.89
4841.00,0.89
4840.00,0.89
4839.00,0.89
4838.00,0.89
4837.00,0.89
4836.00,0.89
4835.00,0.89
4834.00,0.89
4833.00,0.89
4832.00,0.89
4831.00,0.89
4830.00,0.89
4829.00,0.89
4828.00,0.89
4827.00,0.89
4826.00,0.88
4825.00,0.88
4824.00,0.88
4823.00,0.88
4822.00,0.88
4821.00,0.88
4820.00,0.88
4819.00,0.88
4818.00,0.88
4817.00,0.88
4816.00,0.88
4815.00,0.87
4814.00,0.87
4813.00,0.87
4812.00,0.87
4811.00,0.87
4810.00,0.88
4809.00,0.88
4808.00,0.88
4807.00,0.88
4806.00,0.88
4805.00,0.88
4804.00,0.88
4803.00,0.88
4802.00,0.88
4801.00,0.88
4800.00,0.89
4799.00,0.89
4798.00,0.89
4797.00,0.89
4796.00,0.89
4795.00,0.89
4794.00,0.89
4793.00,0.89
4792.00,0.90
4791.00,0.90
4790.00,0.90
4789.00,0.90
4788.00,0.91
4787.00,0.91
4786.00,0.91
4785.00,0.91
4784.00,0.92
4783.00,0.92
4782.00,0.92
4781.00,0.92
4780.00,0.92
4779.00,0.92
4778.00,0.93
4777.00,0.93
4776.00,0.93
4775.00,0.93
4774.00,0.93
4773.00,0.93
4772.00,0.93
4771.00,0.94
4770.00,0.94
4769.00,0.94
4768.00,0.94
4767.00,0.94
4766.00,0.95
4765.00,0.95
4764.00,0.95
4763.00,0.95
4762.00,0.95
4761.00,0.95
4760.00,0.95
4759.00,0.95
4758.00,0.95
4757.00,0.95
4756.00,0.95
4755.00,0.95
4754.00,0.95
4753.00,0.95
4752.00,0.95
4751.00,0.95
4750.00,0.96
4749.00,0.96
4748.00,0.96
4747.00,0.96
4746.00,0.96
4745.00,0.96
4744.00,0.96
4743.00,0.97
4742.00,0.97
4741.00,0.97
4740.00,0.97
4739.00,0.97
4738.00,0.97
4737.00,0.97
4736.00,0.98
4735.00,0.98
4734.00,0.98
4733.00,0.98
4732.00,0.98
4731.00,0.98
4730.00,0.98
4729.00,0.98
4728.00,0.98
4727.00,0.98
4726.00,0.99
4725.00,0.99
4724.00,0.99
4723.00,0.99
4722.00,0.99
4721.00,0.99
4720.00,0.99
4719.00,0.99
4718.00,0.99
4717.00,0.99
4716.00,0.99
4715.00,1.00
4714.00,1.00
4713.00,1.00
4712.00,1.00
4711.00,1.00
4710.00,1.01
4709.00,1.01
4708.00,1.01
4707.00,1.02
4706.00,1.02
4705.00,1.02
4704.00,1.03
4703.00,1.03
4702.00,1.04
4701.00,1.04
4700.00,1.04
4699.00,1.05
4698.00,1.05
4697.00,1.06
4696.00,1.06
4695.00,1.07
4694.00,1.07
4693.00,1.08
4692.00,1.08
4691.00,1.08
4690.00,1.08
4689.00,1.08
4688.00,1.08
4687.00,1.09
4686.00,1.09
4685.00,1.09
4684.00,1.09
4683.00,1.09
4682.00,1.09
4681.00,1.09
4680.00,1.09
4679.00,1.09
4678.00,1.09
4677.00,1.08
4676.00,1.08
4675.00,1.08
4674.00,1.08
4673.00,1.08
4672.00,1.07
4671.00,1.07
4670.00,1.07
4669.00,1.07
4668.00,1.06
4667.00,1.06
4666.00,1.06
4665.00,1.06
4664.00,1.05
4663.00,1.05
4662.00,1.05
4661.00,1.05
4660.00,1.05
4659.00,1.05
4658.00,1.05
4657.00,1.05
4656.00,1.05
4655.00,1.05
4654.00,1.05
4653.00,1.05
4652.00,1.05
4651.00,1.06
4650.00,1.06
4649.00,1.06
4648.00,1.06
4647.00,1.06
4646.00,1.06
4645.00,1.07
4644.00,1.07
4643.00,1.07
4642.00,1.07
4641.00,1.08
4640.00,1.08
4639.00,1.08
4638.00,1.09
4637.00,1.09
4636.00,1.09
4635.00,1.10
4634.00,1.10
4633.00,1.10
4632.00,1.10
4631.00,1.10
4630.00,1.10
4629.00,1.11
4628.00,1.11
4627.00,1.11
4626.00,1.11
4625.00,1.11
4624.00,1.11
4623.00,1.11
4622.00,1.12
4621.00,1.12
4620.00,1.12
4619.00,1.12
4618.00,1.12
4617.00,1.12
4616.00,1.12
4615.00,1.12
4614.00,1.12
4613.00,1.12
4612.00,1.12
4611.00,1.12
4610.00,1.12
4609.00,1.12
4608.00,1.12
4607.00,1.12
4606.00,1.12
4605.00,1.12
4604.00,1.13
4603.00,1.13
4602.00,1.13
4601.00,1.13
4600.00,1.13
4599.00,1.13
4598.00,1.13
4597.00,1.13
4596.00,1.13
4595.00,1.13
4594.00,1.13
4593.00,1.13
4592.00,1.13
4591.00,1.14
4590.00,1.14
4589.00,1.14
4588.00,1.14
4587.00,1.14
4586.00,1.14
4585.00,1.14
4584.00,1.14
4583.00,1.14
4582.00,1.14
4581.00,1.14
4580.00,1.14
4579.00,1.14
4578.00,1.14
4577.00,1.14
4576.00,1.14
4575.00,1.15
4574.00,1.15
4573.00,1.15
4572.00,1.15
4571.00,1.15
4570.00,1.16
4569.00,1.16
4568.00,1.16
4567.00,1.16
4566.00,1.16
4565.00,1.17
4564.00,1.17
4563.00,1.17
4562.00,1.17
4561.00,1.17
4560.00,1.18
4559.00,1.18
4558.00,1.18
4557.00,1.19
4556.00,1.19
4555.00,1.19
4554.00,1.19
4553.00,1.20
4552.00,1.20
4551.00,1.20
4550.00,1.20
4549.00,1.21
4548.00,1.21
4547.00,1.21
4546.00,1.21
4545.00,1.21
4544.00,1.21
4543.00,1.21
4542.00,1.21
4541.00,1.21
4540.00,1.21
4539.00,1.21
4538.00,1.21
4537.00,1.21
4536.00,1.21
4535.00,1.21
4534.00,1.21
4533.00,1.21
4532.00,1.21
4531.00,1.21
4530.00,1.21
4529.00,1.20
4528.00,1.20
4527.00,1.20
4526.00,1.20
4525.00,1.20
4524.00,1.20
4523.00,1.20
4522.00,1.20
4521.00,1.20
4520.00,1.20
4519.00,1.20
4518.00,1.21
4517.00,1.21
4516.00,1.21
4515.00,1.21
4514.00,1.21
4513.00,1.21
4512.00,1.21
4511.00,1.21
4510.00,1.22
4509.00,1.22
4508.00,1.22
4507.00,1.22
4506.00,1.22
4505.00,1.23
4504.00,1.23
4503.00,1.23
4502.00,1.23
4501.00,1.23
4500.00,1.23
4499.00,1.24
4498.00,1.24
4497.00,1.24
4496.00,1.24
4495.00,1.24
4494.00,1.24
4493.00,1.24
4492.00,1.24
4491.00,1.24
4490.00,1.24
4489.00,1.24
4488.00,1.24
4487.00,1.24
4486.00,1.23
4485.00,1.23
4484.00,1.23
4483.00,1.23
4482.00,1.23
4481.00,1.23
4480.00,1.22
4479.00,1.22
4478.00,1.22
4477.00,1.21
4476.00,1.21
4475.00,1.21
4474.00,1.21
4473.00,1.20
4472.00,1.20
4471.00,1.20
4470.00,1.20
4469.00,1.19
4468.00,1.19
4467.00,1.19
4466.00,1.18
4465.00,1.18
4464.00,1.18
4463.00,1.18
4462.00,1.17
4461.00,1.17
4460.00,1.16
4459.00,1.16
4458.00,1.15
4457.00,1.15
4456.00,1.15
4455.00,1.14
4454.00,1.14
4453.00,1.13
4452.00,1.13
4451.00,1.13
4450.00,1.12
4449.00,1.12
4448.00,1.11
4447.00,1.11
4446.00,1.10
4445.00,1.10
4444.00,1.09
4443.00,1.08
4442.00,1.08
4441.00,1.07
4440.00,1.07
4439.00,1.06
4438.00,1.06
4437.00,1.05
4436.00,1.05
4435.00,1.04
4434.00,1.04
4433.00,1.03
4432.00,1.03
4431.00,1.03
4430.00,1.02
4429.00,1.02
4428.00,1.01
4427.00,1.01
4426.00,1.00
4425.00,1.00
4424.00,1.00
4423.00,0.99
4422.00,0.99
4421.00,0.99
4420.00,0.98
4419.00,0.98
4418.00,0.98
4417.00,0.98
4416.00,0.97
4415.00,0.97
4414.00,0.97
4413.00,0.97
4412.00,0.96
4411.00,0.96
4410.00,0.96
4409.00,0.96
4408.00,0.96
4407.00,0.96
4406.00,0.95
4405.00,0.95
4404.00,0.95
4403.00,0.95
4402.00,0.95
4401.00,0.96
4400.00,0.96
4399.00,0.96
4398.00,0.96
4397.00,0.96
4396.00,0.96
4395.00,0.96
4394.00,0.96
4393.00,0.96
4392.00,0.96
4391.00,0.97
4390.00,0.97
4389.00,0.97
4388.00,0.97
4387.00,0.98
4386.00,0.98
4385.00,0.98
4384.00,0.99
4383.00,0.99
4382.00,0.99
4381.00,1.00
4380.00,1.00
4379.00,1.00
4378.00,1.00
4377.00,1.01
4376.00,1.01
4375.00,1.01
4374.00,1.01
4373.00,1.02
4372.00,1.02
4371.00,1.02
4370.00,1.02
4369.00,1.02
4368.00,1.03
4367.00,1.03
4366.00,1.03
4365.00,1.03
4364.00,1.03
4363.00,1.03
4362.00,1.03
4361.00,1.03
4360.00,1.03
4359.00,1.03
4358.00,1.02
4357.00,1.02
4356.00,1.02
4355.00,1.02
4354.00,1.02
4353.00,1.02
4352.00,1.01
4351.00,1.01
4350.00,1.01
4349.00,1.01
4348.00,1.01
4347.00,1.01
4346.00,1.01
4345.00,1.01
4344.00,1.00
4343.00,1.00
4342.00,1.00
4341.00,1.00
4340.00,1.00
4339.00,1.00
4338.00,1.00
4337.00,0.99
4336.00,0.99
4335.00,1.00
4334.00,1.00
4333.00,1.00
4332.00,1.00
4331.00,1.00
4330.00,1.00
4329.00,1.01
4328.00,1.01
4327.00,1.01
4326.00,1.01
4325.00,1.02
4324.00,1.02
4323.00,1.02
4322.00,1.03
4321.00,1.03
4320.00,1.03
4319.00,1.04
4318.00,1.04
4317.00,1.05
4316.00,1.05
4315.00,1.06
4314.00,1.06
4313.00,1.07
4312.00,1.08
4311.00,1.08
4310.00,1.09
4309.00,1.09
4308.00,1.09
4307.00,1.10
4306.00,1.10
4305.00,1.10
4304.00,1.11
4303.00,1.11
4302.00,1.11
4301.00,1.12
4300.00,1.12
4299.00,1.12
4298.00,1.12
4297.00,1.13
4296.00,1.13
4295.00,1.13
4294.00,1.13
4293.00,1.13
4292.00,1.13
4291.00,1.13
4290.00,1.13
4289.00,1.13
4288.00,1.12
4287.00,1.12
4286.00,1.12
4285.00,1.12
4284.00,1.12
4283.00,1.12
4282.00,1.12
4281.00,1.12
4280.00,1.12
4279.00,1.12
4278.00,1.11
4277.00,1.11
4276.00,1.11
4275.00,1.11
4274.00,1.11
4273.00,1.11
4272.00,1.11
4271.00,1.10
4270.00,1.10
4269.00,1.10
4268.00,1.10
4267.00,1.10
4266.00,1.10
4265.00,1.10
4264.00,1.10
4263.00,1.10
4262.00,1.10
4261.00,1.10
4260.00,1.10
4259.00,1.10
4258.00,1.10
4257.00,1.10
4256.00,1.10
4255.00,1.11
4254.00,1.11
4253.00,1.11
4252.00,1.11
4251.00,1.11
4250.00,1.11
4249.00,1.11
4248.00,1.11
4247.00,1.11
4246.00,1.12
4245.00,1.12
4244.00,1.12
4243.00,1.12
4242.00,1.12
4241.00,1.13
4240.00,1.13
4239.00,1.13
4238.00,1.13
4237.00,1.13
4236.00,1.14
4235.00,1.14
4234.00,1.14
4233.00,1.14
4232.00,1.14
4231.00,1.14
4230.00,1.14
4229.00,1.14
4228.00,1.13
4227.00,1.13
4226.00,1.13
4225.00,1.13
4224.00,1.13
4223.00,1.13
4222.00,1.13
4221.00,1.13
4220.00,1.13
4219.00,1.12
4218.00,1.12
4217.00,1.12
4216.00,1.12
4215.00,1.12
4214.00,1.12
4213.00,1.11
4212.00,1.11
4211.00,1.11
4210.00,1.11
4209.00,1.10
4208.00,1.10
4207.00,1.10
4206.00,1.10
4205.00,1.10
4204.00,1.10
4203.00,1.10
4202.00,1.10
4201.00,1.10
4200.00,1.10
4199.00,1.10
4198.00,1.10
4197.00,1.10
4196.00,1.10
4195.00,1.10
4194.00,1.10
4193.00,1.10
4192.00,1.10
4191.00,1.11
4190.00,1.11
4189.00,1.11
4188.00,1.11
4187.00,1.11
4186.00,1.11
4185.00,1.11
4184.00,1.11
4183.00,1.11
4182.00,1.11
4181.00,1.11
4180.00,1.11
4179.00,1.11
4178.00,1.11
4177.00,1.12
4176.00,1.12
4175.00,1.11
4174.00,1.11
4173.00,1.11
4172.00,1.11
4171.00,1.11
4170.00,1.10
4169.00,1.10
4168.00,1.10
4167.00,1.09
4166.00,1.09
4165.00,1.09
4164.00,1.09
4163.00,1.09
4162.00,1.09
4161.00,1.08
4160.00,1.08
4159.00,1.08
4158.00,1.08
4157.00,1.08
4156.00,1.07
4155.00,1.07
4154.00,1.07
4153.00,1.07
4152.00,1.07
4151.00,1.07
4150.00,1.06
4149.00,1.06
4148.00,1.07
4147.00,1.07
4146.00,1.07
4145.00,1.07
4144.00,1.08
4143.00,1.08
4142.00,1.09
4141.00,1.09
4140.00,1.09
4139.00,1.09
4138.00,1.10
4137.00,1.10
4136.00,1.10
4135.00,1.11
4134.00,1.11
4133.00,1.11
4132.00,1.12
4131.00,1.12
4130.00,1.12
4129.00,1.12
4128.00,1.13
4127.00,1.13
4126.00,1.13
4125.00,1.13
4124.00,1.13
4123.00,1.13
4122.00,1.13
4121.00,1.13
4120.00,1.13
4119.00,1.12
4118.00,1.12
4117.00,1.12
4116.00,1.11
4115.00,1.11
4114.00,1.11
4113.00,1.11
4112.00,1.11
4111.00,1.10
4110.00,1.10
4109.00,1.10
4108.00,1.10
4107.00,1.09
4106.00,1.09
4105.00,1.09
4104.00,1.09
4103.00,1.09
4102.00,1.09
4101.00,1.09
4100.00,1.09
4099.00,1.09
4098.00,1.09
4097.00,1.09
4096.00,1.10
4095.00,1.10
4094.00,1.10
4093.00,1.11
4092.00,1.11
4091.00,1.11
4090.00,1.12
4089.00,1.12
4088.00,1.12
4087.00,1.13
4086.00,1.13
4085.00,1.13
4084.00,1.14
4083.00,1.14
4082.00,1.15
4081.00,1.15
4080.00,1.15
4079.00,1.16
4078.00,1.16
4077.00,1.16
4076.00,1.17
4075.00,1.17
4074.00,1.17
4073.00,1.18
4072.00,1.18
4071.00,1.18
4070.00,1.19
4069.00,1.19
4068.00,1.19
4067.00,1.20
4066.00,1.20
4065.00,1.20
4064.00,1.20
4063.00,1.20
4062.00,1.20
4061.00,1.20
4060.00,1.20
4059.00,1.20
4058.00,1.20
4057.00,1.20
4056.00,1.20
4055.00,1.20
4054.00,1.20
4053.00,1.20
4052.00,1.20
4051.00,1.19
4050.00,1.19
4049.00,1.19
4048.00,1.19
4047.00,1.18
4046.00,1.18
4045.00,1.18
4044.00,1.17
4043.00,1.17
4042.00,1.16
4041.00,1.16
4040.00,1.16
4039.00,1.15
4038.00,1.15
4037.00,1.15
4036.00,1.14
4035.00,1.14
4034.00,1.14
4033.00,1.14
4032.00,1.14
4031.00,1.14
4030.00,1.14
4029.00,1.14
4028.00,1.15
4027.00,1.15
4026.00,1.15
4025.00,1.16
4024.00,1.16
4023.00,1.17
4022.00,1.17
4021.00,1.17
4020.00,1.18
4019.00,1.18
4018.00,1.18
4017.00,1.19
4016.00,1.19
4015.00,1.19
4014.00,1.20
4013.00,1.20
4012.00,1.21
4011.00,1.21
4010.00,1.22
4009.00,1.22
4008.00,1.23
4007.00,1.23
4006.00,1.24
4005.00,1.24
4004.00,1.25
4003.00,1.25
4002.00,1.25
4001.00,1.25
4000.00,1.25
