创建为新数据集,样品 990 用户 Administrator 日期 星期二, 七月 30 2019
cm-1,%T
10000.00,1.90
9999.00,1.85
9998.00,1.80
9997.00,1.75
9996.00,1.70
9995.00,1.65
9994.00,1.60
9993.00,1.56
9992.00,1.51
9991.00,1.47
9990.00,1.44
9989.00,1.40
9988.00,1.37
9987.00,1.33
9986.00,1.30
9985.00,1.27
9984.00,1.25
9983.00,1.22
9982.00,1.20
9981.00,1.18
9980.00,1.16
9979.00,1.15
9978.00,1.13
9977.00,1.12
9976.00,1.10
9975.00,1.09
9974.00,1.08
9973.00,1.07
9972.00,1.06
9971.00,1.06
9970.00,1.05
9969.00,1.04
9968.00,1.04
9967.00,1.03
9966.00,1.03
9965.00,1.02
9964.00,1.01
9963.00,1.01
9962.00,1.00
9961.00,0.99
9960.00,0.99
9959.00,0.98
9958.00,0.97
9957.00,0.97
9956.00,0.96
9955.00,0.95
9954.00,0.95
9953.00,0.94
9952.00,0.94
9951.00,0.93
9950.00,0.93
9949.00,0.93
9948.00,0.93
9947.00,0.93
9946.00,0.93
9945.00,0.93
9944.00,0.94
9943.00,0.94
9942.00,0.94
9941.00,0.94
9940.00,0.94
9939.00,0.95
9938.00,0.95
9937.00,0.95
9936.00,0.95
9935.00,0.95
9934.00,0.95
9933.00,0.95
9932.00,0.95
9931.00,0.94
9930.00,0.94
9929.00,0.94
9928.00,0.94
9927.00,0.93
9926.00,0.93
9925.00,0.92
9924.00,0.92
9923.00,0.91
9922.00,0.90
9921.00,0.89
9920.00,0.88
9919.00,0.87
9918.00,0.86
9917.00,0.85
9916.00,0.84
9915.00,0.84
9914.00,0.83
9913.00,0.82
9912.00,0.81
9911.00,0.81
9910.00,0.80
9909.00,0.80
9908.00,0.80
9907.00,0.80
9906.00,0.80
9905.00,0.80
9904.00,0.81
9903.00,0.81
9902.00,0.81
9901.00,0.82
9900.00,0.82
9899.00,0.83
9898.00,0.83
9897.00,0.83
9896.00,0.84
9895.00,0.85
9894.00,0.85
9893.00,0.86
9892.00,0.87
9891.00,0.88
9890.00,0.88
9889.00,0.89
9888.00,0.90
9887.00,0.91
9886.00,0.92
9885.00,0.92
9884.00,0.93
9883.00,0.93
9882.00,0.94
9881.00,0.94
9880.00,0.94
9879.00,0.94
9878.00,0.94
9877.00,0.94
9876.00,0.94
9875.00,0.94
9874.00,0.94
9873.00,0.94
9872.00,0.94
9871.00,0.94
9870.00,0.94
9869.00,0.93
9868.00,0.93
9867.00,0.93
9866.00,0.92
9865.00,0.92
9864.00,0.92
9863.00,0.91
9862.00,0.91
9861.00,0.90
9860.00,0.90
9859.00,0.89
9858.00,0.89
9857.00,0.88
9856.00,0.88
9855.00,0.88
9854.00,0.88
9853.00,0.87
9852.00,0.87
9851.00,0.87
9850.00,0.86
9849.00,0.86
9848.00,0.86
9847.00,0.86
9846.00,0.85
9845.00,0.85
9844.00,0.85
9843.00,0.85
9842.00,0.85
9841.00,0.85
9840.00,0.86
9839.00,0.86
9838.00,0.86
9837.00,0.87
9836.00,0.87
9835.00,0.88
9834.00,0.88
9833.00,0.88
9832.00,0.89
9831.00,0.89
9830.00,0.89
9829.00,0.90
9828.00,0.90
9827.00,0.91
9826.00,0.91
9825.00,0.92
9824.00,0.92
9823.00,0.93
9822.00,0.93
9821.00,0.94
9820.00,0.94
9819.00,0.95
9818.00,0.95
9817.00,0.95
9816.00,0.95
9815.00,0.96
9814.00,0.96
9813.00,0.96
9812.00,0.96
9811.00,0.95
9810.00,0.95
9809.00,0.95
9808.00,0.95
9807.00,0.95
9806.00,0.94
9805.00,0.94
9804.00,0.94
9803.00,0.93
9802.00,0.93
9801.00,0.92
9800.00,0.92
9799.00,0.91
9798.00,0.91
9797.00,0.90
9796.00,0.90
9795.00,0.89
9794.00,0.89
9793.00,0.89
9792.00,0.89
9791.00,0.89
9790.00,0.88
9789.00,0.88
9788.00,0.88
9787.00,0.88
9786.00,0.88
9785.00,0.89
9784.00,0.89
9783.00,0.89
9782.00,0.89
9781.00,0.89
9780.00,0.89
9779.00,0.89
9778.00,0.90
9777.00,0.90
9776.00,0.90
9775.00,0.90
9774.00,0.90
9773.00,0.90
9772.00,0.90
9771.00,0.90
9770.00,0.90
9769.00,0.89
9768.00,0.89
9767.00,0.89
9766.00,0.88
9765.00,0.88
9764.00,0.87
9763.00,0.86
9762.00,0.85
9761.00,0.84
9760.00,0.83
9759.00,0.82
9758.00,0.81
9757.00,0.80
9756.00,0.79
9755.00,0.78
9754.00,0.77
9753.00,0.76
9752.00,0.75
9751.00,0.74
9750.00,0.74
9749.00,0.73
9748.00,0.73
9747.00,0.73
9746.00,0.72
9745.00,0.72
9744.00,0.72
9743.00,0.72
9742.00,0.71
9741.00,0.71
9740.00,0.71
9739.00,0.71
9738.00,0.71
9737.00,0.71
9736.00,0.72
9735.00,0.72
9734.00,0.73
9733.00,0.74
9732.00,0.74
9731.00,0.75
9730.00,0.77
9729.00,0.78
9728.00,0.79
9727.00,0.80
9726.00,0.81
9725.00,0.82
9724.00,0.82
9723.00,0.83
9722.00,0.84
9721.00,0.85
9720.00,0.85
9719.00,0.86
9718.00,0.86
9717.00,0.87
9716.00,0.87
9715.00,0.88
9714.00,0.89
9713.00,0.89
9712.00,0.90
9711.00,0.91
9710.00,0.92
9709.00,0.92
9708.00,0.93
9707.00,0.93
9706.00,0.93
9705.00,0.94
9704.00,0.93
9703.00,0.93
9702.00,0.93
9701.00,0.93
9700.00,0.92
9699.00,0.92
9698.00,0.92
9697.00,0.92
9696.00,0.91
9695.00,0.91
9694.00,0.91
9693.00,0.92
9692.00,0.92
9691.00,0.92
9690.00,0.92
9689.00,0.92
9688.00,0.92
9687.00,0.92
9686.00,0.92
9685.00,0.92
9684.00,0.91
9683.00,0.91
9682.00,0.91
9681.00,0.91
9680.00,0.91
9679.00,0.91
9678.00,0.91
9677.00,0.91
9676.00,0.92
9675.00,0.92
9674.00,0.93
9673.00,0.93
9672.00,0.94
9671.00,0.94
9670.00,0.95
9669.00,0.95
9668.00,0.95
9667.00,0.96
9666.00,0.96
9665.00,0.96
9664.00,0.96
9663.00,0.96
9662.00,0.96
9661.00,0.96
9660.00,0.96
9659.00,0.96
9658.00,0.96
9657.00,0.96
9656.00,0.96
9655.00,0.96
9654.00,0.96
9653.00,0.96
9652.00,0.95
9651.00,0.95
9650.00,0.94
9649.00,0.94
9648.00,0.93
9647.00,0.92
9646.00,0.91
9645.00,0.90
9644.00,0.90
9643.00,0.89
9642.00,0.88
9641.00,0.88
9640.00,0.87
9639.00,0.86
9638.00,0.86
9637.00,0.85
9636.00,0.85
9635.00,0.85
9634.00,0.84
9633.00,0.84
9632.00,0.83
9631.00,0.83
9630.00,0.83
9629.00,0.83
9628.00,0.82
9627.00,0.82
9626.00,0.83
9625.00,0.83
9624.00,0.83
9623.00,0.84
9622.00,0.84
9621.00,0.85
9620.00,0.86
9619.00,0.87
9618.00,0.87
9617.00,0.88
9616.00,0.89
9615.00,0.90
9614.00,0.90
9613.00,0.91
9612.00,0.92
9611.00,0.92
9610.00,0.93
9609.00,0.93
9608.00,0.94
9607.00,0.94
9606.00,0.94
9605.00,0.95
9604.00,0.95
9603.00,0.96
9602.00,0.96
9601.00,0.97
9600.00,0.97
9599.00,0.98
9598.00,0.98
9597.00,0.98
9596.00,0.98
9595.00,0.98
9594.00,0.98
9593.00,0.98
9592.00,0.98
9591.00,0.98
9590.00,0.98
9589.00,0.97
9588.00,0.97
9587.00,0.97
9586.00,0.97
9585.00,0.97
9584.00,0.97
9583.00,0.97
9582.00,0.97
9581.00,0.97
9580.00,0.97
9579.00,0.97
9578.00,0.97
9577.00,0.97
9576.00,0.97
9575.00,0.97
9574.00,0.97
9573.00,0.96
9572.00,0.96
9571.00,0.96
9570.00,0.95
9569.00,0.95
9568.00,0.95
9567.00,0.95
9566.00,0.95
9565.00,0.95
9564.00,0.95
9563.00,0.95
9562.00,0.95
9561.00,0.95
9560.00,0.95
9559.00,0.95
9558.00,0.95
9557.00,0.95
9556.00,0.95
9555.00,0.95
9554.00,0.95
9553.00,0.95
9552.00,0.95
9551.00,0.95
9550.00,0.95
9549.00,0.96
9548.00,0.96
9547.00,0.96
9546.00,0.96
9545.00,0.96
9544.00,0.96
9543.00,0.96
9542.00,0.96
9541.00,0.96
9540.00,0.96
9539.00,0.96
9538.00,0.96
9537.00,0.96
9536.00,0.95
9535.00,0.95
9534.00,0.95
9533.00,0.94
9532.00,0.94
9531.00,0.94
9530.00,0.93
9529.00,0.93
9528.00,0.93
9527.00,0.93
9526.00,0.93
9525.00,0.92
9524.00,0.92
9523.00,0.92
9522.00,0.92
9521.00,0.92
9520.00,0.92
9519.00,0.92
9518.00,0.93
9517.00,0.93
9516.00,0.93
9515.00,0.93
9514.00,0.93
9513.00,0.93
9512.00,0.93
9511.00,0.93
9510.00,0.93
9509.00,0.93
9508.00,0.93
9507.00,0.93
9506.00,0.93
9505.00,0.93
9504.00,0.93
9503.00,0.93
9502.00,0.93
9501.00,0.92
9500.00,0.92
9499.00,0.91
9498.00,0.91
9497.00,0.90
9496.00,0.89
9495.00,0.89
9494.00,0.88
9493.00,0.87
9492.00,0.86
9491.00,0.85
9490.00,0.84
9489.00,0.84
9488.00,0.83
9487.00,0.82
9486.00,0.82
9485.00,0.81
9484.00,0.81
9483.00,0.81
9482.00,0.80
9481.00,0.80
9480.00,0.80
9479.00,0.80
9478.00,0.80
9477.00,0.80
9476.00,0.80
9475.00,0.80
9474.00,0.80
9473.00,0.80
9472.00,0.80
9471.00,0.81
9470.00,0.81
9469.00,0.82
9468.00,0.82
9467.00,0.83
9466.00,0.83
9465.00,0.84
9464.00,0.85
9463.00,0.85
9462.00,0.85
9461.00,0.86
9460.00,0.86
9459.00,0.86
9458.00,0.86
9457.00,0.86
9456.00,0.86
9455.00,0.86
9454.00,0.86
9453.00,0.85
9452.00,0.85
9451.00,0.84
9450.00,0.84
9449.00,0.84
9448.00,0.83
9447.00,0.83
9446.00,0.82
9445.00,0.82
9444.00,0.81
9443.00,0.81
9442.00,0.80
9441.00,0.79
9440.00,0.79
9439.00,0.78
9438.00,0.78
9437.00,0.77
9436.00,0.77
9435.00,0.76
9434.00,0.76
9433.00,0.76
9432.00,0.76
9431.00,0.75
9430.00,0.75
9429.00,0.75
9428.00,0.75
9427.00,0.75
9426.00,0.76
9425.00,0.76
9424.00,0.76
9423.00,0.77
9422.00,0.77
9421.00,0.78
9420.00,0.78
9419.00,0.79
9418.00,0.79
9417.00,0.80
9416.00,0.81
9415.00,0.81
9414.00,0.82
9413.00,0.83
9412.00,0.84
9411.00,0.84
9410.00,0.85
9409.00,0.86
9408.00,0.87
9407.00,0.88
9406.00,0.89
9405.00,0.90
9404.00,0.91
9403.00,0.91
9402.00,0.92
9401.00,0.93
9400.00,0.93
9399.00,0.94
9398.00,0.94
9397.00,0.95
9396.00,0.95
9395.00,0.96
9394.00,0.96
9393.00,0.96
9392.00,0.97
9391.00,0.97
9390.00,0.97
9389.00,0.97
9388.00,0.97
9387.00,0.97
9386.00,0.97
9385.00,0.97
9384.00,0.97
9383.00,0.96
9382.00,0.96
9381.00,0.96
9380.00,0.95
9379.00,0.95
9378.00,0.94
9377.00,0.94
9376.00,0.94
9375.00,0.93
9374.00,0.93
9373.00,0.93
9372.00,0.93
9371.00,0.93
9370.00,0.93
9369.00,0.92
9368.00,0.92
9367.00,0.92
9366.00,0.92
9365.00,0.92
9364.00,0.92
9363.00,0.92
9362.00,0.92
9361.00,0.92
9360.00,0.92
9359.00,0.92
9358.00,0.92
9357.00,0.92
9356.00,0.92
9355.00,0.93
9354.00,0.93
9353.00,0.93
9352.00,0.93
9351.00,0.94
9350.00,0.94
9349.00,0.94
9348.00,0.94
9347.00,0.95
9346.00,0.95
9345.00,0.95
9344.00,0.95
9343.00,0.95
9342.00,0.94
9341.00,0.94
9340.00,0.94
9339.00,0.94
9338.00,0.94
9337.00,0.94
9336.00,0.94
9335.00,0.94
9334.00,0.94
9333.00,0.94
9332.00,0.94
9331.00,0.94
9330.00,0.94
9329.00,0.94
9328.00,0.94
9327.00,0.94
9326.00,0.94
9325.00,0.93
9324.00,0.93
9323.00,0.93
9322.00,0.92
9321.00,0.92
9320.00,0.92
9319.00,0.92
9318.00,0.92
9317.00,0.92
9316.00,0.92
9315.00,0.92
9314.00,0.92
9313.00,0.92
9312.00,0.92
9311.00,0.92
9310.00,0.92
9309.00,0.92
9308.00,0.91
9307.00,0.91
9306.00,0.91
9305.00,0.91
9304.00,0.90
9303.00,0.90
9302.00,0.90
9301.00,0.89
9300.00,0.89
9299.00,0.89
9298.00,0.89
9297.00,0.88
9296.00,0.88
9295.00,0.88
9294.00,0.88
9293.00,0.88
9292.00,0.87
9291.00,0.87
9290.00,0.87
9289.00,0.86
9288.00,0.86
9287.00,0.85
9286.00,0.85
9285.00,0.84
9284.00,0.84
9283.00,0.84
9282.00,0.83
9281.00,0.83
9280.00,0.82
9279.00,0.82
9278.00,0.82
9277.00,0.82
9276.00,0.82
9275.00,0.82
9274.00,0.82
9273.00,0.82
9272.00,0.82
9271.00,0.82
9270.00,0.82
9269.00,0.82
9268.00,0.82
9267.00,0.82
9266.00,0.82
9265.00,0.82
9264.00,0.82
9263.00,0.83
9262.00,0.83
9261.00,0.84
9260.00,0.84
9259.00,0.85
9258.00,0.85
9257.00,0.86
9256.00,0.86
9255.00,0.87
9254.00,0.88
9253.00,0.88
9252.00,0.89
9251.00,0.89
9250.00,0.89
9249.00,0.90
9248.00,0.90
9247.00,0.91
9246.00,0.91
9245.00,0.91
9244.00,0.92
9243.00,0.92
9242.00,0.93
9241.00,0.93
9240.00,0.94
9239.00,0.94
9238.00,0.94
9237.00,0.95
9236.00,0.95
9235.00,0.95
9234.00,0.95
9233.00,0.95
9232.00,0.95
9231.00,0.95
9230.00,0.95
9229.00,0.95
9228.00,0.95
9227.00,0.95
9226.00,0.95
9225.00,0.95
9224.00,0.96
9223.00,0.96
9222.00,0.97
9221.00,0.97
9220.00,0.98
9219.00,0.98
9218.00,0.99
9217.00,0.99
9216.00,1.00
9215.00,1.00
9214.00,1.01
9213.00,1.01
9212.00,1.01
9211.00,1.01
9210.00,1.01
9209.00,1.01
9208.00,1.02
9207.00,1.02
9206.00,1.02
9205.00,1.02
9204.00,1.02
9203.00,1.02
9202.00,1.02
9201.00,1.02
9200.00,1.02
9199.00,1.01
9198.00,1.01
9197.00,1.01
9196.00,1.00
9195.00,1.00
9194.00,0.99
9193.00,0.98
9192.00,0.97
9191.00,0.97
9190.00,0.96
9189.00,0.95
9188.00,0.94
9187.00,0.94
9186.00,0.93
9185.00,0.93
9184.00,0.92
9183.00,0.92
9182.00,0.92
9181.00,0.92
9180.00,0.92
9179.00,0.91
9178.00,0.91
9177.00,0.91
9176.00,0.91
9175.00,0.91
9174.00,0.92
9173.00,0.92
9172.00,0.92
9171.00,0.92
9170.00,0.92
9169.00,0.92
9168.00,0.92
9167.00,0.93
9166.00,0.93
9165.00,0.93
9164.00,0.93
9163.00,0.93
9162.00,0.94
9161.00,0.94
9160.00,0.94
9159.00,0.94
9158.00,0.93
9157.00,0.93
9156.00,0.93
9155.00,0.92
9154.00,0.92
9153.00,0.92
9152.00,0.91
9151.00,0.91
9150.00,0.90
9149.00,0.90
9148.00,0.89
9147.00,0.88
9146.00,0.88
9145.00,0.87
9144.00,0.86
9143.00,0.86
9142.00,0.85
9141.00,0.84
9140.00,0.83
9139.00,0.82
9138.00,0.82
9137.00,0.81
9136.00,0.80
9135.00,0.80
9134.00,0.79
9133.00,0.78
9132.00,0.78
9131.00,0.77
9130.00,0.77
9129.00,0.76
9128.00,0.76
9127.00,0.76
9126.00,0.75
9125.00,0.75
9124.00,0.75
9123.00,0.75
9122.00,0.75
9121.00,0.75
9120.00,0.75
9119.00,0.75
9118.00,0.75
9117.00,0.75
9116.00,0.76
9115.00,0.76
9114.00,0.77
9113.00,0.78
9112.00,0.78
9111.00,0.79
9110.00,0.80
9109.00,0.80
9108.00,0.81
9107.00,0.82
9106.00,0.83
9105.00,0.84
9104.00,0.85
9103.00,0.86
9102.00,0.86
9101.00,0.87
9100.00,0.88
9099.00,0.89
9098.00,0.90
9097.00,0.91
9096.00,0.92
9095.00,0.92
9094.00,0.93
9093.00,0.94
9092.00,0.94
9091.00,0.95
9090.00,0.95
9089.00,0.96
9088.00,0.96
9087.00,0.96
9086.00,0.96
9085.00,0.96
9084.00,0.96
9083.00,0.96
9082.00,0.95
9081.00,0.95
9080.00,0.95
9079.00,0.94
9078.00,0.94
9077.00,0.93
9076.00,0.93
9075.00,0.92
9074.00,0.92
9073.00,0.91
9072.00,0.90
9071.00,0.90
9070.00,0.89
9069.00,0.88
9068.00,0.88
9067.00,0.87
9066.00,0.86
9065.00,0.85
9064.00,0.85
9063.00,0.84
9062.00,0.83
9061.00,0.83
9060.00,0.82
9059.00,0.82
9058.00,0.81
9057.00,0.81
9056.00,0.81
9055.00,0.81
9054.00,0.81
9053.00,0.80
9052.00,0.81
9051.00,0.81
9050.00,0.81
9049.00,0.81
9048.00,0.81
9047.00,0.81
9046.00,0.81
9045.00,0.81
9044.00,0.81
9043.00,0.82
9042.00,0.82
9041.00,0.82
9040.00,0.82
9039.00,0.82
9038.00,0.82
9037.00,0.83
9036.00,0.83
9035.00,0.83
9034.00,0.83
9033.00,0.83
9032.00,0.84
9031.00,0.84
9030.00,0.84
9029.00,0.83
9028.00,0.83
9027.00,0.83
9026.00,0.83
9025.00,0.82
9024.00,0.82
9023.00,0.81
9022.00,0.81
9021.00,0.81
9020.00,0.80
9019.00,0.80
9018.00,0.80
9017.00,0.79
9016.00,0.79
9015.00,0.79
9014.00,0.79
9013.00,0.79
9012.00,0.79
9011.00,0.79
9010.00,0.79
9009.00,0.79
9008.00,0.79
9007.00,0.79
9006.00,0.79
9005.00,0.79
9004.00,0.79
9003.00,0.79
9002.00,0.79
9001.00,0.80
9000.00,0.80
8999.00,0.80
8998.00,0.81
8997.00,0.81
8996.00,0.82
8995.00,0.82
8994.00,0.83
8993.00,0.83
8992.00,0.84
8991.00,0.84
8990.00,0.85
8989.00,0.85
8988.00,0.85
8987.00,0.85
8986.00,0.86
8985.00,0.86
8984.00,0.86
8983.00,0.86
8982.00,0.87
8981.00,0.87
8980.00,0.87
8979.00,0.88
8978.00,0.88
8977.00,0.88
8976.00,0.89
8975.00,0.89
8974.00,0.89
8973.00,0.89
8972.00,0.90
8971.00,0.90
8970.00,0.90
8969.00,0.90
8968.00,0.90
8967.00,0.90
8966.00,0.91
8965.00,0.91
8964.00,0.91
8963.00,0.91
8962.00,0.92
8961.00,0.92
8960.00,0.92
8959.00,0.92
8958.00,0.93
8957.00,0.93
8956.00,0.93
8955.00,0.93
8954.00,0.93
8953.00,0.93
8952.00,0.93
8951.00,0.93
8950.00,0.93
8949.00,0.93
8948.00,0.93
8947.00,0.93
8946.00,0.93
8945.00,0.93
8944.00,0.94
8943.00,0.94
8942.00,0.94
8941.00,0.94
8940.00,0.95
8939.00,0.95
8938.00,0.95
8937.00,0.96
8936.00,0.96
8935.00,0.96
8934.00,0.97
8933.00,0.97
8932.00,0.97
8931.00,0.97
8930.00,0.97
8929.00,0.97
8928.00,0.97
8927.00,0.97
8926.00,0.97
8925.00,0.97
8924.00,0.97
8923.00,0.96
8922.00,0.96
8921.00,0.96
8920.00,0.96
8919.00,0.96
8918.00,0.95
8917.00,0.95
8916.00,0.94
8915.00,0.93
8914.00,0.92
8913.00,0.91
8912.00,0.90
8911.00,0.89
8910.00,0.88
8909.00,0.87
8908.00,0.86
8907.00,0.85
8906.00,0.85
8905.00,0.84
8904.00,0.83
8903.00,0.83
8902.00,0.82
8901.00,0.82
8900.00,0.81
8899.00,0.81
8898.00,0.81
8897.00,0.80
8896.00,0.80
8895.00,0.80
8894.00,0.80
8893.00,0.80
8892.00,0.79
8891.00,0.79
8890.00,0.79
8889.00,0.79
8888.00,0.79
8887.00,0.80
8886.00,0.80
8885.00,0.80
8884.00,0.80
8883.00,0.80
8882.00,0.81
8881.00,0.81
8880.00,0.81
8879.00,0.81
8878.00,0.81
8877.00,0.81
8876.00,0.81
8875.00,0.81
8874.00,0.81
8873.00,0.81
8872.00,0.81
8871.00,0.80
8870.00,0.80
8869.00,0.80
8868.00,0.80
8867.00,0.80
8866.00,0.80
8865.00,0.80
8864.00,0.79
8863.00,0.80
8862.00,0.80
8861.00,0.80
8860.00,0.80
8859.00,0.80
8858.00,0.80
8857.00,0.80
8856.00,0.80
8855.00,0.81
8854.00,0.81
8853.00,0.81
8852.00,0.81
8851.00,0.82
8850.00,0.82
8849.00,0.82
8848.00,0.83
8847.00,0.83
8846.00,0.84
8845.00,0.84
8844.00,0.85
8843.00,0.86
8842.00,0.86
8841.00,0.87
8840.00,0.88
8839.00,0.89
8838.00,0.90
8837.00,0.90
8836.00,0.91
8835.00,0.92
8834.00,0.93
8833.00,0.93
8832.00,0.94
8831.00,0.94
8830.00,0.95
8829.00,0.96
8828.00,0.96
8827.00,0.97
8826.00,0.97
8825.00,0.98
8824.00,0.98
8823.00,0.99
8822.00,0.99
8821.00,1.00
8820.00,1.00
8819.00,1.01
8818.00,1.01
8817.00,1.01
8816.00,1.01
8815.00,1.01
8814.00,1.01
8813.00,1.01
8812.00,1.00
8811.00,1.00
8810.00,0.99
8809.00,0.99
8808.00,0.98
8807.00,0.98
8806.00,0.98
8805.00,0.97
8804.00,0.97
8803.00,0.96
8802.00,0.96
8801.00,0.96
8800.00,0.95
8799.00,0.95
8798.00,0.95
8797.00,0.94
8796.00,0.94
8795.00,0.93
8794.00,0.93
8793.00,0.93
8792.00,0.92
8791.00,0.92
8790.00,0.92
8789.00,0.92
8788.00,0.91
8787.00,0.91
8786.00,0.91
8785.00,0.91
8784.00,0.91
8783.00,0.91
8782.00,0.91
8781.00,0.91
8780.00,0.91
8779.00,0.91
8778.00,0.91
8777.00,0.91
8776.00,0.91
8775.00,0.91
8774.00,0.90
8773.00,0.90
8772.00,0.90
8771.00,0.89
8770.00,0.89
8769.00,0.89
8768.00,0.88
8767.00,0.88
8766.00,0.88
8765.00,0.88
8764.00,0.87
8763.00,0.87
8762.00,0.87
8761.00,0.87
8760.00,0.87
8759.00,0.86
8758.00,0.86
8757.00,0.86
8756.00,0.86
8755.00,0.86
8754.00,0.86
8753.00,0.86
8752.00,0.86
8751.00,0.86
8750.00,0.86
8749.00,0.86
8748.00,0.86
8747.00,0.86
8746.00,0.86
8745.00,0.86
8744.00,0.86
8743.00,0.86
8742.00,0.86
8741.00,0.86
8740.00,0.86
8739.00,0.86
8738.00,0.86
8737.00,0.86
8736.00,0.85
8735.00,0.85
8734.00,0.84
8733.00,0.84
8732.00,0.83
8731.00,0.83
8730.00,0.82
8729.00,0.82
8728.00,0.81
8727.00,0.81
8726.00,0.80
8725.00,0.80
8724.00,0.80
8723.00,0.79
8722.00,0.79
8721.00,0.79
8720.00,0.79
8719.00,0.79
8718.00,0.79
8717.00,0.79
8716.00,0.79
8715.00,0.79
8714.00,0.80
8713.00,0.80
8712.00,0.80
8711.00,0.81
8710.00,0.81
8709.00,0.82
8708.00,0.82
8707.00,0.83
8706.00,0.83
8705.00,0.84
8704.00,0.85
8703.00,0.85
8702.00,0.86
8701.00,0.86
8700.00,0.87
8699.00,0.87
8698.00,0.88
8697.00,0.88
8696.00,0.89
8695.00,0.89
8694.00,0.90
8693.00,0.90
8692.00,0.90
8691.00,0.91
8690.00,0.91
8689.00,0.91
8688.00,0.91
8687.00,0.91
8686.00,0.91
8685.00,0.91
8684.00,0.91
8683.00,0.91
8682.00,0.91
8681.00,0.91
8680.00,0.91
8679.00,0.91
8678.00,0.91
8677.00,0.91
8676.00,0.90
8675.00,0.90
8674.00,0.90
8673.00,0.90
8672.00,0.90
8671.00,0.89
8670.00,0.89
8669.00,0.88
8668.00,0.88
8667.00,0.88
8666.00,0.87
8665.00,0.87
8664.00,0.86
8663.00,0.86
8662.00,0.85
8661.00,0.85
8660.00,0.85
8659.00,0.84
8658.00,0.84
8657.00,0.84
8656.00,0.84
8655.00,0.84
8654.00,0.84
8653.00,0.84
8652.00,0.83
8651.00,0.83
8650.00,0.83
8649.00,0.84
8648.00,0.84
8647.00,0.84
8646.00,0.84
8645.00,0.84
8644.00,0.84
8643.00,0.85
8642.00,0.85
8641.00,0.85
8640.00,0.86
8639.00,0.86
8638.00,0.86
8637.00,0.86
8636.00,0.87
8635.00,0.87
8634.00,0.87
8633.00,0.87
8632.00,0.87
8631.00,0.87
8630.00,0.87
8629.00,0.87
8628.00,0.87
8627.00,0.87
8626.00,0.87
8625.00,0.86
8624.00,0.86
8623.00,0.86
8622.00,0.86
8621.00,0.86
8620.00,0.86
8619.00,0.86
8618.00,0.85
8617.00,0.85
8616.00,0.85
8615.00,0.85
8614.00,0.85
8613.00,0.85
8612.00,0.85
8611.00,0.85
8610.00,0.86
8609.00,0.86
8608.00,0.86
8607.00,0.86
8606.00,0.87
8605.00,0.87
8604.00,0.87
8603.00,0.88
8602.00,0.88
8601.00,0.89
8600.00,0.89
8599.00,0.89
8598.00,0.90
8597.00,0.90
8596.00,0.91
8595.00,0.91
8594.00,0.92
8593.00,0.92
8592.00,0.92
8591.00,0.92
8590.00,0.93
8589.00,0.93
8588.00,0.93
8587.00,0.93
8586.00,0.93
8585.00,0.93
8584.00,0.93
8583.00,0.93
8582.00,0.92
8581.00,0.92
8580.00,0.92
8579.00,0.92
8578.00,0.92
8577.00,0.92
8576.00,0.92
8575.00,0.91
8574.00,0.91
8573.00,0.91
8572.00,0.90
8571.00,0.90
8570.00,0.89
8569.00,0.89
8568.00,0.89
8567.00,0.88
8566.00,0.88
8565.00,0.87
8564.00,0.87
8563.00,0.87
8562.00,0.86
8561.00,0.86
8560.00,0.86
8559.00,0.86
8558.00,0.86
8557.00,0.85
8556.00,0.85
8555.00,0.85
8554.00,0.85
8553.00,0.85
8552.00,0.84
8551.00,0.84
8550.00,0.83
8549.00,0.83
8548.00,0.83
8547.00,0.82
8546.00,0.82
8545.00,0.82
8544.00,0.81
8543.00,0.81
8542.00,0.81
8541.00,0.81
8540.00,0.81
8539.00,0.81
8538.00,0.80
8537.00,0.80
8536.00,0.80
8535.00,0.80
8534.00,0.79
8533.00,0.79
8532.00,0.79
8531.00,0.79
8530.00,0.78
8529.00,0.78
8528.00,0.78
8527.00,0.78
8526.00,0.78
8525.00,0.78
8524.00,0.78
8523.00,0.78
8522.00,0.79
8521.00,0.79
8520.00,0.79
8519.00,0.80
8518.00,0.80
8517.00,0.80
8516.00,0.81
8515.00,0.81
8514.00,0.81
8513.00,0.82
8512.00,0.82
8511.00,0.82
8510.00,0.82
8509.00,0.83
8508.00,0.83
8507.00,0.83
8506.00,0.83
8505.00,0.84
8504.00,0.84
8503.00,0.84
8502.00,0.84
8501.00,0.84
8500.00,0.84
8499.00,0.84
8498.00,0.84
8497.00,0.85
8496.00,0.85
8495.00,0.84
8494.00,0.84
8493.00,0.84
8492.00,0.84
8491.00,0.84
8490.00,0.84
8489.00,0.84
8488.00,0.84
8487.00,0.84
8486.00,0.84
8485.00,0.84
8484.00,0.84
8483.00,0.84
8482.00,0.84
8481.00,0.84
8480.00,0.84
8479.00,0.84
8478.00,0.84
8477.00,0.84
8476.00,0.84
8475.00,0.84
8474.00,0.84
8473.00,0.85
8472.00,0.85
8471.00,0.85
8470.00,0.85
8469.00,0.85
8468.00,0.85
8467.00,0.85
8466.00,0.85
8465.00,0.86
8464.00,0.86
8463.00,0.86
8462.00,0.86
8461.00,0.86
8460.00,0.86
8459.00,0.86
8458.00,0.86
8457.00,0.86
8456.00,0.86
8455.00,0.86
8454.00,0.86
8453.00,0.86
8452.00,0.86
8451.00,0.86
8450.00,0.85
8449.00,0.85
8448.00,0.85
8447.00,0.85
8446.00,0.84
8445.00,0.84
8444.00,0.84
8443.00,0.83
8442.00,0.83
8441.00,0.82
8440.00,0.82
8439.00,0.82
8438.00,0.81
8437.00,0.81
8436.00,0.80
8435.00,0.80
8434.00,0.80
8433.00,0.79
8432.00,0.79
8431.00,0.79
8430.00,0.79
8429.00,0.79
8428.00,0.79
8427.00,0.79
8426.00,0.79
8425.00,0.79
8424.00,0.79
8423.00,0.79
8422.00,0.79
8421.00,0.79
8420.00,0.80
8419.00,0.80
8418.00,0.80
8417.00,0.80
8416.00,0.81
8415.00,0.81
8414.00,0.82
8413.00,0.82
8412.00,0.83
8411.00,0.83
8410.00,0.84
8409.00,0.84
8408.00,0.84
8407.00,0.85
8406.00,0.85
8405.00,0.85
8404.00,0.86
8403.00,0.86
8402.00,0.86
8401.00,0.87
8400.00,0.87
8399.00,0.87
8398.00,0.88
8397.00,0.88
8396.00,0.88
8395.00,0.88
8394.00,0.89
8393.00,0.89
8392.00,0.89
8391.00,0.89
8390.00,0.89
8389.00,0.90
8388.00,0.90
8387.00,0.90
8386.00,0.90
8385.00,0.90
8384.00,0.90
8383.00,0.89
8382.00,0.89
8381.00,0.89
8380.00,0.89
8379.00,0.89
8378.00,0.89
8377.00,0.89
8376.00,0.89
8375.00,0.89
8374.00,0.89
8373.00,0.89
8372.00,0.89
8371.00,0.89
8370.00,0.89
8369.00,0.89
8368.00,0.89
8367.00,0.88
8366.00,0.88
8365.00,0.88
8364.00,0.88
8363.00,0.88
8362.00,0.88
8361.00,0.89
8360.00,0.89
8359.00,0.89
8358.00,0.89
8357.00,0.89
8356.00,0.89
8355.00,0.89
8354.00,0.89
8353.00,0.89
8352.00,0.89
8351.00,0.90
8350.00,0.90
8349.00,0.90
8348.00,0.90
8347.00,0.90
8346.00,0.90
8345.00,0.90
8344.00,0.90
8343.00,0.90
8342.00,0.90
8341.00,0.90
8340.00,0.90
8339.00,0.90
8338.00,0.90
8337.00,0.90
8336.00,0.90
8335.00,0.90
8334.00,0.90
8333.00,0.90
8332.00,0.90
8331.00,0.90
8330.00,0.90
8329.00,0.90
8328.00,0.90
8327.00,0.90
8326.00,0.90
8325.00,0.91
8324.00,0.91
8323.00,0.91
8322.00,0.91
8321.00,0.91
8320.00,0.91
8319.00,0.92
8318.00,0.92
8317.00,0.92
8316.00,0.92
8315.00,0.92
8314.00,0.92
8313.00,0.92
8312.00,0.92
8311.00,0.92
8310.00,0.92
8309.00,0.91
8308.00,0.91
8307.00,0.91
8306.00,0.90
8305.00,0.90
8304.00,0.89
8303.00,0.89
8302.00,0.88
8301.00,0.88
8300.00,0.87
8299.00,0.86
8298.00,0.86
8297.00,0.85
8296.00,0.84
8295.00,0.84
8294.00,0.83
8293.00,0.82
8292.00,0.82
8291.00,0.81
8290.00,0.81
8289.00,0.80
8288.00,0.80
8287.00,0.79
8286.00,0.79
8285.00,0.79
8284.00,0.79
8283.00,0.79
8282.00,0.79
8281.00,0.79
8280.00,0.80
8279.00,0.80
8278.00,0.81
8277.00,0.81
8276.00,0.82
8275.00,0.82
8274.00,0.83
8273.00,0.84
8272.00,0.84
8271.00,0.85
8270.00,0.86
8269.00,0.87
8268.00,0.88
8267.00,0.89
8266.00,0.90
8265.00,0.91
8264.00,0.91
8263.00,0.92
8262.00,0.93
8261.00,0.94
8260.00,0.95
8259.00,0.95
8258.00,0.96
8257.00,0.97
8256.00,0.97
8255.00,0.98
8254.00,0.98
8253.00,0.99
8252.00,0.99
8251.00,1.00
8250.00,1.00
8249.00,1.01
8248.00,1.01
8247.00,1.01
8246.00,1.01
8245.00,1.01
8244.00,1.01
8243.00,1.01
8242.00,1.01
8241.00,1.01
8240.00,1.01
8239.00,1.00
8238.00,1.00
8237.00,1.00
8236.00,0.99
8235.00,0.99
8234.00,0.98
8233.00,0.98
8232.00,0.98
8231.00,0.97
8230.00,0.97
8229.00,0.96
8228.00,0.96
8227.00,0.95
8226.00,0.95
8225.00,0.94
8224.00,0.94
8223.00,0.93
8222.00,0.92
8221.00,0.92
8220.00,0.91
8219.00,0.91
8218.00,0.90
8217.00,0.90
8216.00,0.89
8215.00,0.89
8214.00,0.88
8213.00,0.88
8212.00,0.88
8211.00,0.88
8210.00,0.87
8209.00,0.87
8208.00,0.87
8207.00,0.87
8206.00,0.87
8205.00,0.87
8204.00,0.88
8203.00,0.88
8202.00,0.88
8201.00,0.88
8200.00,0.88
8199.00,0.89
8198.00,0.89
8197.00,0.90
8196.00,0.90
8195.00,0.91
8194.00,0.91
8193.00,0.92
8192.00,0.92
8191.00,0.93
8190.00,0.94
8189.00,0.94
8188.00,0.95
8187.00,0.95
8186.00,0.96
8185.00,0.96
8184.00,0.97
8183.00,0.97
8182.00,0.97
8181.00,0.97
8180.00,0.98
8179.00,0.98
8178.00,0.98
8177.00,0.98
8176.00,0.98
8175.00,0.98
8174.00,0.98
8173.00,0.98
8172.00,0.98
8171.00,0.98
8170.00,0.98
8169.00,0.98
8168.00,0.98
8167.00,0.98
8166.00,0.98
8165.00,0.98
8164.00,0.98
8163.00,0.97
8162.00,0.97
8161.00,0.97
8160.00,0.97
8159.00,0.97
8158.00,0.96
8157.00,0.96
8156.00,0.96
8155.00,0.96
8154.00,0.96
8153.00,0.96
8152.00,0.95
8151.00,0.95
8150.00,0.95
8149.00,0.95
8148.00,0.95
8147.00,0.94
8146.00,0.94
8145.00,0.94
8144.00,0.93
8143.00,0.93
8142.00,0.93
8141.00,0.93
8140.00,0.92
8139.00,0.92
8138.00,0.92
8137.00,0.92
8136.00,0.92
8135.00,0.91
8134.00,0.91
8133.00,0.91
8132.00,0.91
8131.00,0.91
8130.00,0.91
8129.00,0.91
8128.00,0.91
8127.00,0.91
8126.00,0.91
8125.00,0.91
8124.00,0.91
8123.00,0.91
8122.00,0.91
8121.00,0.91
8120.00,0.91
8119.00,0.91
8118.00,0.91
8117.00,0.91
8116.00,0.91
8115.00,0.91
8114.00,0.91
8113.00,0.91
8112.00,0.91
8111.00,0.91
8110.00,0.91
8109.00,0.91
8108.00,0.90
8107.00,0.90
8106.00,0.90
8105.00,0.90
8104.00,0.90
8103.00,0.90
8102.00,0.90
8101.00,0.90
8100.00,0.90
8099.00,0.90
8098.00,0.89
8097.00,0.89
8096.00,0.89
8095.00,0.89
8094.00,0.89
8093.00,0.89
8092.00,0.89
8091.00,0.88
8090.00,0.88
8089.00,0.88
8088.00,0.88
8087.00,0.88
8086.00,0.88
8085.00,0.89
8084.00,0.89
8083.00,0.89
8082.00,0.89
8081.00,0.90
8080.00,0.90
8079.00,0.90
8078.00,0.91
8077.00,0.91
8076.00,0.91
8075.00,0.92
8074.00,0.92
8073.00,0.92
8072.00,0.93
8071.00,0.93
8070.00,0.93
8069.00,0.94
8068.00,0.94
8067.00,0.95
8066.00,0.95
8065.00,0.95
8064.00,0.96
8063.00,0.97
8062.00,0.97
8061.00,0.98
8060.00,0.98
8059.00,0.99
8058.00,0.99
8057.00,0.99
8056.00,1.00
8055.00,1.00
8054.00,1.00
8053.00,1.00
8052.00,1.00
8051.00,1.00
8050.00,1.00
8049.00,1.00
8048.00,1.00
8047.00,1.00
8046.00,1.00
8045.00,0.99
8044.00,0.99
8043.00,0.99
8042.00,0.99
8041.00,0.99
8040.00,0.99
8039.00,0.99
8038.00,0.98
8037.00,0.98
8036.00,0.98
8035.00,0.98
8034.00,0.97
8033.00,0.97
8032.00,0.97
8031.00,0.96
8030.00,0.96
8029.00,0.96
8028.00,0.96
8027.00,0.96
8026.00,0.96
8025.00,0.96
8024.00,0.96
8023.00,0.96
8022.00,0.96
8021.00,0.96
8020.00,0.97
8019.00,0.97
8018.00,0.97
8017.00,0.97
8016.00,0.97
8015.00,0.97
8014.00,0.97
8013.00,0.97
8012.00,0.97
8011.00,0.97
8010.00,0.97
8009.00,0.96
8008.00,0.96
8007.00,0.96
8006.00,0.96
8005.00,0.96
8004.00,0.96
8003.00,0.96
8002.00,0.96
8001.00,0.96
8000.00,0.96
7999.00,0.95
7998.00,0.95
7997.00,0.95
7996.00,0.95
7995.00,0.95
7994.00,0.95
7993.00,0.95
7992.00,0.95
7991.00,0.94
7990.00,0.94
7989.00,0.94
7988.00,0.94
7987.00,0.94
7986.00,0.94
7985.00,0.94
7984.00,0.94
7983.00,0.94
7982.00,0.94
7981.00,0.94
7980.00,0.94
7979.00,0.94
7978.00,0.94
7977.00,0.94
7976.00,0.94
7975.00,0.94
7974.00,0.94
7973.00,0.94
7972.00,0.94
7971.00,0.93
7970.00,0.93
7969.00,0.93
7968.00,0.93
7967.00,0.93
7966.00,0.92
7965.00,0.92
7964.00,0.92
7963.00,0.92
7962.00,0.92
7961.00,0.91
7960.00,0.91
7959.00,0.91
7958.00,0.92
7957.00,0.92
7956.00,0.92
7955.00,0.92
7954.00,0.92
7953.00,0.93
7952.00,0.93
7951.00,0.93
7950.00,0.94
7949.00,0.94
7948.00,0.94
7947.00,0.94
7946.00,0.95
7945.00,0.95
7944.00,0.96
7943.00,0.96
7942.00,0.97
7941.00,0.97
7940.00,0.98
7939.00,0.98
7938.00,0.99
7937.00,0.99
7936.00,1.00
7935.00,1.00
7934.00,1.01
7933.00,1.01
7932.00,1.01
7931.00,1.02
7930.00,1.02
7929.00,1.02
7928.00,1.02
7927.00,1.02
7926.00,1.02
7925.00,1.02
7924.00,1.03
7923.00,1.03
7922.00,1.03
7921.00,1.03
7920.00,1.03
7919.00,1.03
7918.00,1.03
7917.00,1.03
7916.00,1.04
7915.00,1.04
7914.00,1.04
7913.00,1.04
7912.00,1.03
7911.00,1.03
7910.00,1.03
7909.00,1.03
7908.00,1.03
7907.00,1.03
7906.00,1.03
7905.00,1.03
7904.00,1.03
7903.00,1.02
7902.00,1.02
7901.00,1.02
7900.00,1.02
7899.00,1.02
7898.00,1.02
7897.00,1.02
7896.00,1.02
7895.00,1.02
7894.00,1.02
7893.00,1.02
7892.00,1.02
7891.00,1.02
7890.00,1.02
7889.00,1.02
7888.00,1.02
7887.00,1.02
7886.00,1.02
7885.00,1.02
7884.00,1.02
7883.00,1.02
7882.00,1.02
7881.00,1.02
7880.00,1.02
7879.00,1.02
7878.00,1.02
7877.00,1.02
7876.00,1.02
7875.00,1.02
7874.00,1.03
7873.00,1.03
7872.00,1.03
7871.00,1.03
7870.00,1.03
7869.00,1.03
7868.00,1.03
7867.00,1.02
7866.00,1.02
7865.00,1.02
7864.00,1.02
7863.00,1.02
7862.00,1.01
7861.00,1.01
7860.00,1.01
7859.00,1.01
7858.00,1.01
7857.00,1.00
7856.00,1.00
7855.00,1.00
7854.00,1.00
7853.00,1.00
7852.00,1.00
7851.00,1.00
7850.00,1.00
7849.00,1.00
7848.00,1.00
7847.00,1.00
7846.00,1.00
7845.00,1.00
7844.00,1.00
7843.00,1.00
7842.00,1.00
7841.00,1.00
7840.00,1.00
7839.00,1.00
7838.00,1.00
7837.00,1.00
7836.00,1.00
7835.00,1.00
7834.00,1.00
7833.00,1.00
7832.00,1.00
7831.00,1.00
7830.00,1.00
7829.00,1.00
7828.00,1.00
7827.00,1.00
7826.00,1.00
7825.00,1.00
7824.00,1.00
7823.00,1.00
7822.00,1.00
7821.00,1.00
7820.00,0.99
7819.00,0.99
7818.00,0.99
7817.00,0.99
7816.00,0.99
7815.00,0.99
7814.00,0.99
7813.00,0.99
7812.00,0.98
7811.00,0.98
7810.00,0.98
7809.00,0.98
7808.00,0.98
7807.00,0.98
7806.00,0.98
7805.00,0.98
7804.00,0.98
7803.00,0.98
7802.00,0.98
7801.00,0.99
7800.00,0.99
7799.00,0.99
7798.00,0.99
7797.00,0.99
7796.00,0.99
7795.00,0.99
7794.00,0.99
7793.00,0.99
7792.00,0.99
7791.00,1.00
7790.00,1.00
7789.00,1.00
7788.00,1.00
7787.00,1.00
7786.00,1.00
7785.00,1.00
7784.00,1.00
7783.00,1.00
7782.00,1.00
7781.00,1.00
7780.00,1.01
7779.00,1.01
7778.00,1.01
7777.00,1.01
7776.00,1.01
7775.00,1.01
7774.00,1.01
7773.00,1.02
7772.00,1.02
7771.00,1.02
7770.00,1.02
7769.00,1.02
7768.00,1.03
7767.00,1.03
7766.00,1.03
7765.00,1.03
7764.00,1.03
7763.00,1.04
7762.00,1.04
7761.00,1.04
7760.00,1.04
7759.00,1.05
7758.00,1.05
7757.00,1.05
7756.00,1.05
7755.00,1.05
7754.00,1.05
7753.00,1.06
7752.00,1.06
7751.00,1.06
7750.00,1.05
7749.00,1.05
7748.00,1.05
7747.00,1.05
7746.00,1.05
7745.00,1.05
7744.00,1.05
7743.00,1.05
7742.00,1.05
7741.00,1.05
7740.00,1.05
7739.00,1.05
7738.00,1.05
7737.00,1.05
7736.00,1.05
7735.00,1.05
7734.00,1.05
7733.00,1.05
7732.00,1.05
7731.00,1.05
7730.00,1.05
7729.00,1.05
7728.00,1.05
7727.00,1.05
7726.00,1.05
7725.00,1.05
7724.00,1.05
7723.00,1.05
7722.00,1.05
7721.00,1.05
7720.00,1.05
7719.00,1.05
7718.00,1.05
7717.00,1.05
7716.00,1.05
7715.00,1.05
7714.00,1.05
7713.00,1.05
7712.00,1.05
7711.00,1.05
7710.00,1.05
7709.00,1.05
7708.00,1.04
7707.00,1.04
7706.00,1.04
7705.00,1.04
7704.00,1.04
7703.00,1.04
7702.00,1.04
7701.00,1.04
7700.00,1.03
7699.00,1.03
7698.00,1.03
7697.00,1.03
7696.00,1.03
7695.00,1.03
7694.00,1.02
7693.00,1.02
7692.00,1.02
7691.00,1.02
7690.00,1.02
7689.00,1.02
7688.00,1.03
7687.00,1.03
7686.00,1.03
7685.00,1.03
7684.00,1.03
7683.00,1.03
7682.00,1.03
7681.00,1.03
7680.00,1.03
7679.00,1.03
7678.00,1.03
7677.00,1.04
7676.00,1.04
7675.00,1.04
7674.00,1.04
7673.00,1.04
7672.00,1.04
7671.00,1.05
7670.00,1.05
7669.00,1.05
7668.00,1.05
7667.00,1.05
7666.00,1.06
7665.00,1.06
7664.00,1.06
7663.00,1.06
7662.00,1.06
7661.00,1.06
7660.00,1.06
7659.00,1.06
7658.00,1.06
7657.00,1.06
7656.00,1.06
7655.00,1.06
7654.00,1.06
7653.00,1.07
7652.00,1.07
7651.00,1.07
7650.00,1.07
7649.00,1.07
7648.00,1.08
7647.00,1.08
7646.00,1.08
7645.00,1.08
7644.00,1.08
7643.00,1.08
7642.00,1.08
7641.00,1.08
7640.00,1.08
7639.00,1.08
7638.00,1.09
7637.00,1.09
7636.00,1.09
7635.00,1.09
7634.00,1.09
7633.00,1.09
7632.00,1.09
7631.00,1.09
7630.00,1.09
7629.00,1.09
7628.00,1.09
7627.00,1.09
7626.00,1.09
7625.00,1.09
7624.00,1.09
7623.00,1.09
7622.00,1.09
7621.00,1.09
7620.00,1.09
7619.00,1.09
7618.00,1.09
7617.00,1.09
7616.00,1.09
7615.00,1.09
7614.00,1.09
7613.00,1.09
7612.00,1.09
7611.00,1.09
7610.00,1.09
7609.00,1.09
7608.00,1.09
7607.00,1.09
7606.00,1.09
7605.00,1.09
7604.00,1.09
7603.00,1.09
7602.00,1.09
7601.00,1.09
7600.00,1.09
7599.00,1.09
7598.00,1.08
7597.00,1.08
7596.00,1.08
7595.00,1.08
7594.00,1.08
7593.00,1.07
7592.00,1.07
7591.00,1.07
7590.00,1.07
7589.00,1.06
7588.00,1.06
7587.00,1.06
7586.00,1.06
7585.00,1.05
7584.00,1.05
7583.00,1.05
7582.00,1.04
7581.00,1.04
7580.00,1.04
7579.00,1.04
7578.00,1.03
7577.00,1.03
7576.00,1.03
7575.00,1.03
7574.00,1.02
7573.00,1.02
7572.00,1.02
7571.00,1.02
7570.00,1.01
7569.00,1.01
7568.00,1.01
7567.00,1.01
7566.00,1.01
7565.00,1.01
7564.00,1.01
7563.00,1.01
7562.00,1.01
7561.00,1.01
7560.00,1.01
7559.00,1.01
7558.00,1.01
7557.00,1.01
7556.00,1.01
7555.00,1.01
7554.00,1.01
7553.00,1.01
7552.00,1.01
7551.00,1.02
7550.00,1.02
7549.00,1.02
7548.00,1.02
7547.00,1.02
7546.00,1.02
7545.00,1.03
7544.00,1.03
7543.00,1.03
7542.00,1.03
7541.00,1.03
7540.00,1.03
7539.00,1.03
7538.00,1.03
7537.00,1.03
7536.00,1.03
7535.00,1.03
7534.00,1.03
7533.00,1.03
7532.00,1.03
7531.00,1.03
7530.00,1.02
7529.00,1.02
7528.00,1.02
7527.00,1.02
7526.00,1.02
7525.00,1.01
7524.00,1.01
7523.00,1.01
7522.00,1.01
7521.00,1.00
7520.00,1.00
7519.00,1.00
7518.00,1.00
7517.00,1.00
7516.00,0.99
7515.00,0.99
7514.00,0.99
7513.00,0.99
7512.00,0.99
7511.00,0.99
7510.00,0.99
7509.00,0.99
7508.00,0.99
7507.00,0.99
7506.00,0.99
7505.00,1.00
7504.00,1.00
7503.00,1.00
7502.00,1.00
7501.00,1.00
7500.00,1.00
7499.00,1.00
7498.00,1.00
7497.00,1.00
7496.00,1.01
7495.00,1.01
7494.00,1.01
7493.00,1.01
7492.00,1.01
7491.00,1.01
7490.00,1.01
7489.00,1.01
7488.00,1.01
7487.00,1.01
7486.00,1.01
7485.00,1.01
7484.00,1.01
7483.00,1.01
7482.00,1.01
7481.00,1.01
7480.00,1.01
7479.00,1.01
7478.00,1.00
7477.00,1.00
7476.00,1.00
7475.00,1.00
7474.00,1.00
7473.00,1.00
7472.00,1.00
7471.00,1.00
7470.00,1.00
7469.00,1.00
7468.00,1.00
7467.00,1.00
7466.00,1.00
7465.00,1.00
7464.00,1.00
7463.00,1.00
7462.00,1.00
7461.00,1.00
7460.00,1.01
7459.00,1.01
7458.00,1.01
7457.00,1.01
7456.00,1.01
7455.00,1.01
7454.00,1.01
7453.00,1.01
7452.00,1.01
7451.00,1.01
7450.00,1.01
7449.00,1.01
7448.00,1.01
7447.00,1.01
7446.00,1.01
7445.00,1.01
7444.00,1.01
7443.00,1.01
7442.00,1.01
7441.00,1.01
7440.00,1.01
7439.00,1.01
7438.00,1.01
7437.00,1.00
7436.00,1.00
7435.00,1.00
7434.00,1.00
7433.00,1.00
7432.00,1.00
7431.00,1.00
7430.00,1.00
7429.00,0.99
7428.00,0.99
7427.00,0.99
7426.00,0.99
7425.00,0.99
7424.00,0.99
7423.00,0.99
7422.00,0.99
7421.00,0.98
7420.00,0.98
7419.00,0.98
7418.00,0.98
7417.00,0.98
7416.00,0.98
7415.00,0.98
7414.00,0.98
7413.00,0.97
7412.00,0.97
7411.00,0.97
7410.00,0.97
7409.00,0.96
7408.00,0.96
7407.00,0.96
7406.00,0.95
7405.00,0.95
7404.00,0.94
7403.00,0.94
7402.00,0.94
7401.00,0.93
7400.00,0.93
7399.00,0.93
7398.00,0.92
7397.00,0.92
7396.00,0.92
7395.00,0.91
7394.00,0.91
7393.00,0.91
7392.00,0.90
7391.00,0.90
7390.00,0.90
7389.00,0.90
7388.00,0.89
7387.00,0.89
7386.00,0.89
7385.00,0.89
7384.00,0.89
7383.00,0.89
7382.00,0.89
7381.00,0.89
7380.00,0.89
7379.00,0.90
7378.00,0.90
7377.00,0.90
7376.00,0.90
7375.00,0.90
7374.00,0.90
7373.00,0.90
7372.00,0.91
7371.00,0.91
7370.00,0.91
7369.00,0.91
7368.00,0.91
7367.00,0.91
7366.00,0.91
7365.00,0.92
7364.00,0.92
7363.00,0.92
7362.00,0.92
7361.00,0.92
7360.00,0.93
7359.00,0.93
7358.00,0.93
7357.00,0.93
7356.00,0.93
7355.00,0.93
7354.00,0.93
7353.00,0.93
7352.00,0.93
7351.00,0.94
7350.00,0.94
7349.00,0.94
7348.00,0.94
7347.00,0.94
7346.00,0.94
7345.00,0.94
7344.00,0.95
7343.00,0.95
7342.00,0.95
7341.00,0.95
7340.00,0.94
7339.00,0.94
7338.00,0.94
7337.00,0.94
7336.00,0.94
7335.00,0.94
7334.00,0.93
7333.00,0.93
7332.00,0.93
7331.00,0.93
7330.00,0.92
7329.00,0.92
7328.00,0.92
7327.00,0.92
7326.00,0.91
7325.00,0.91
7324.00,0.90
7323.00,0.90
7322.00,0.90
7321.00,0.89
7320.00,0.89
7319.00,0.89
7318.00,0.88
7317.00,0.88
7316.00,0.88
7315.00,0.88
7314.00,0.87
7313.00,0.87
7312.00,0.87
7311.00,0.87
7310.00,0.87
7309.00,0.87
7308.00,0.87
7307.00,0.87
7306.00,0.86
7305.00,0.86
7304.00,0.86
7303.00,0.86
7302.00,0.86
7301.00,0.86
7300.00,0.86
7299.00,0.86
7298.00,0.86
7297.00,0.86
7296.00,0.86
7295.00,0.86
7294.00,0.86
7293.00,0.86
7292.00,0.86
7291.00,0.85
7290.00,0.85
7289.00,0.85
7288.00,0.85
7287.00,0.85
7286.00,0.86
7285.00,0.86
7284.00,0.86
7283.00,0.86
7282.00,0.86
7281.00,0.86
7280.00,0.86
7279.00,0.86
7278.00,0.86
7277.00,0.86
7276.00,0.86
7275.00,0.86
7274.00,0.86
7273.00,0.86
7272.00,0.86
7271.00,0.86
7270.00,0.86
7269.00,0.86
7268.00,0.86
7267.00,0.86
7266.00,0.86
7265.00,0.86
7264.00,0.86
7263.00,0.86
7262.00,0.86
7261.00,0.86
7260.00,0.86
7259.00,0.86
7258.00,0.86
7257.00,0.86
7256.00,0.86
7255.00,0.86
7254.00,0.86
7253.00,0.86
7252.00,0.86
7251.00,0.86
7250.00,0.86
7249.00,0.86
7248.00,0.86
7247.00,0.86
7246.00,0.86
7245.00,0.86
7244.00,0.86
7243.00,0.86
7242.00,0.86
7241.00,0.86
7240.00,0.86
7239.00,0.86
7238.00,0.86
7237.00,0.86
7236.00,0.86
7235.00,0.86
7234.00,0.86
7233.00,0.86
7232.00,0.86
7231.00,0.85
7230.00,0.85
7229.00,0.85
7228.00,0.85
7227.00,0.84
7226.00,0.84
7225.00,0.84
7224.00,0.83
7223.00,0.83
7222.00,0.82
7221.00,0.82
7220.00,0.81
7219.00,0.81
7218.00,0.80
7217.00,0.80
7216.00,0.79
7215.00,0.78
7214.00,0.78
7213.00,0.77
7212.00,0.76
7211.00,0.76
7210.00,0.75
7209.00,0.75
7208.00,0.74
7207.00,0.73
7206.00,0.73
7205.00,0.72
7204.00,0.72
7203.00,0.71
7202.00,0.71
7201.00,0.70
7200.00,0.70
7199.00,0.69
7198.00,0.69
7197.00,0.68
7196.00,0.68
7195.00,0.67
7194.00,0.67
7193.00,0.67
7192.00,0.66
7191.00,0.66
7190.00,0.66
7189.00,0.65
7188.00,0.65
7187.00,0.65
7186.00,0.64
7185.00,0.64
7184.00,0.64
7183.00,0.63
7182.00,0.63
7181.00,0.63
7180.00,0.62
7179.00,0.62
7178.00,0.62
7177.00,0.62
7176.00,0.61
7175.00,0.61
7174.00,0.61
7173.00,0.61
7172.00,0.60
7171.00,0.60
7170.00,0.60
7169.00,0.60
7168.00,0.59
7167.00,0.59
7166.00,0.59
7165.00,0.59
7164.00,0.59
7163.00,0.58
7162.00,0.58
7161.00,0.58
7160.00,0.58
7159.00,0.58
7158.00,0.58
7157.00,0.58
7156.00,0.58
7155.00,0.58
7154.00,0.58
7153.00,0.58
7152.00,0.58
7151.00,0.58
7150.00,0.58
7149.00,0.57
7148.00,0.57
7147.00,0.57
7146.00,0.57
7145.00,0.57
7144.00,0.56
7143.00,0.56
7142.00,0.56
7141.00,0.56
7140.00,0.56
7139.00,0.56
7138.00,0.55
7137.00,0.55
7136.00,0.55
7135.00,0.54
7134.00,0.54
7133.00,0.54
7132.00,0.53
7131.00,0.53
7130.00,0.52
7129.00,0.52
7128.00,0.51
7127.00,0.51
7126.00,0.51
7125.00,0.50
7124.00,0.50
7123.00,0.49
7122.00,0.49
7121.00,0.49
7120.00,0.48
7119.00,0.48
7118.00,0.48
7117.00,0.48
7116.00,0.47
7115.00,0.47
7114.00,0.47
7113.00,0.46
7112.00,0.46
7111.00,0.46
7110.00,0.46
7109.00,0.45
7108.00,0.45
7107.00,0.45
7106.00,0.45
7105.00,0.45
7104.00,0.46
7103.00,0.46
7102.00,0.46
7101.00,0.46
7100.00,0.46
7099.00,0.46
7098.00,0.47
7097.00,0.47
7096.00,0.47
7095.00,0.47
7094.00,0.48
7093.00,0.48
7092.00,0.48
7091.00,0.48
7090.00,0.49
7089.00,0.49
7088.00,0.49
7087.00,0.49
7086.00,0.50
7085.00,0.50
7084.00,0.50
7083.00,0.50
7082.00,0.50
7081.00,0.51
7080.00,0.51
7079.00,0.51
7078.00,0.51
7077.00,0.51
7076.00,0.51
7075.00,0.51
7074.00,0.51
7073.00,0.51
7072.00,0.51
7071.00,0.51
7070.00,0.51
7069.00,0.51
7068.00,0.50
7067.00,0.50
7066.00,0.50
7065.00,0.50
7064.00,0.50
7063.00,0.50
7062.00,0.49
7061.00,0.49
7060.00,0.49
7059.00,0.49
7058.00,0.49
7057.00,0.48
7056.00,0.48
7055.00,0.48
7054.00,0.48
7053.00,0.47
7052.00,0.47
7051.00,0.47
7050.00,0.47
7049.00,0.46
7048.00,0.46
7047.00,0.45
7046.00,0.45
7045.00,0.45
7044.00,0.44
7043.00,0.44
7042.00,0.44
7041.00,0.43
7040.00,0.43
7039.00,0.43
7038.00,0.43
7037.00,0.42
7036.00,0.42
7035.00,0.42
7034.00,0.42
7033.00,0.41
7032.00,0.41
7031.00,0.41
7030.00,0.41
7029.00,0.40
7028.00,0.40
7027.00,0.40
7026.00,0.40
7025.00,0.40
7024.00,0.40
7023.00,0.40
7022.00,0.40
7021.00,0.39
7020.00,0.39
7019.00,0.39
7018.00,0.39
7017.00,0.39
7016.00,0.39
7015.00,0.39
7014.00,0.39
7013.00,0.39
7012.00,0.39
7011.00,0.39
7010.00,0.39
7009.00,0.39
7008.00,0.38
7007.00,0.38
7006.00,0.38
7005.00,0.38
7004.00,0.38
7003.00,0.38
7002.00,0.38
7001.00,0.38
7000.00,0.37
6999.00,0.37
6998.00,0.37
6997.00,0.37
6996.00,0.37
6995.00,0.37
6994.00,0.37
6993.00,0.37
6992.00,0.37
6991.00,0.37
6990.00,0.37
6989.00,0.37
6988.00,0.37
6987.00,0.37
6986.00,0.37
6985.00,0.37
6984.00,0.37
6983.00,0.37
6982.00,0.37
6981.00,0.37
6980.00,0.37
6979.00,0.37
6978.00,0.37
6977.00,0.37
6976.00,0.37
6975.00,0.37
6974.00,0.37
6973.00,0.37
6972.00,0.37
6971.00,0.37
6970.00,0.37
6969.00,0.37
6968.00,0.37
6967.00,0.37
6966.00,0.37
6965.00,0.37
6964.00,0.37
6963.00,0.37
6962.00,0.37
6961.00,0.38
6960.00,0.38
6959.00,0.38
6958.00,0.38
6957.00,0.38
6956.00,0.38
6955.00,0.38
6954.00,0.38
6953.00,0.39
6952.00,0.39
6951.00,0.39
6950.00,0.39
6949.00,0.39
6948.00,0.39
6947.00,0.39
6946.00,0.40
6945.00,0.40
6944.00,0.40
6943.00,0.40
6942.00,0.40
6941.00,0.40
6940.00,0.40
6939.00,0.40
6938.00,0.40
6937.00,0.39
6936.00,0.39
6935.00,0.39
6934.00,0.39
6933.00,0.39
6932.00,0.39
6931.00,0.38
6930.00,0.38
6929.00,0.38
6928.00,0.38
6927.00,0.38
6926.00,0.37
6925.00,0.37
6924.00,0.37
6923.00,0.37
6922.00,0.37
6921.00,0.36
6920.00,0.36
6919.00,0.36
6918.00,0.36
6917.00,0.36
6916.00,0.36
6915.00,0.36
6914.00,0.36
6913.00,0.36
6912.00,0.36
6911.00,0.36
6910.00,0.36
6909.00,0.36
6908.00,0.36
6907.00,0.36
6906.00,0.36
6905.00,0.36
6904.00,0.36
6903.00,0.36
6902.00,0.36
6901.00,0.36
6900.00,0.37
6899.00,0.37
6898.00,0.37
6897.00,0.37
6896.00,0.37
6895.00,0.38
6894.00,0.38
6893.00,0.38
6892.00,0.38
6891.00,0.38
6890.00,0.38
6889.00,0.38
6888.00,0.39
6887.00,0.39
6886.00,0.39
6885.00,0.39
6884.00,0.39
6883.00,0.39
6882.00,0.39
6881.00,0.40
6880.00,0.40
6879.00,0.40
6878.00,0.40
6877.00,0.40
6876.00,0.40
6875.00,0.40
6874.00,0.39
6873.00,0.39
6872.00,0.39
6871.00,0.39
6870.00,0.39
6869.00,0.39
6868.00,0.39
6867.00,0.39
6866.00,0.39
6865.00,0.39
6864.00,0.38
6863.00,0.38
6862.00,0.38
6861.00,0.38
6860.00,0.38
6859.00,0.38
6858.00,0.38
6857.00,0.38
6856.00,0.38
6855.00,0.38
6854.00,0.38
6853.00,0.38
6852.00,0.38
6851.00,0.38
6850.00,0.38
6849.00,0.38
6848.00,0.38
6847.00,0.38
6846.00,0.38
6845.00,0.38
6844.00,0.38
6843.00,0.38
6842.00,0.38
6841.00,0.38
6840.00,0.38
6839.00,0.38
6838.00,0.38
6837.00,0.38
6836.00,0.38
6835.00,0.39
6834.00,0.39
6833.00,0.39
6832.00,0.39
6831.00,0.40
6830.00,0.40
6829.00,0.40
6828.00,0.40
6827.00,0.41
6826.00,0.41
6825.00,0.41
6824.00,0.41
6823.00,0.42
6822.00,0.42
6821.00,0.42
6820.00,0.42
6819.00,0.43
6818.00,0.43
6817.00,0.43
6816.00,0.43
6815.00,0.44
6814.00,0.44
6813.00,0.44
6812.00,0.44
6811.00,0.45
6810.00,0.45
6809.00,0.45
6808.00,0.45
6807.00,0.45
6806.00,0.45
6805.00,0.45
6804.00,0.45
6803.00,0.45
6802.00,0.45
6801.00,0.44
6800.00,0.44
6799.00,0.44
6798.00,0.44
6797.00,0.44
6796.00,0.44
6795.00,0.44
6794.00,0.44
6793.00,0.44
6792.00,0.43
6791.00,0.43
6790.00,0.43
6789.00,0.43
6788.00,0.43
6787.00,0.43
6786.00,0.42
6785.00,0.42
6784.00,0.42
6783.00,0.42
6782.00,0.42
6781.00,0.42
6780.00,0.41
6779.00,0.41
6778.00,0.41
6777.00,0.41
6776.00,0.41
6775.00,0.41
6774.00,0.41
6773.00,0.41
6772.00,0.41
6771.00,0.41
6770.00,0.41
6769.00,0.41
6768.00,0.41
6767.00,0.41
6766.00,0.41
6765.00,0.41
6764.00,0.41
6763.00,0.41
6762.00,0.41
6761.00,0.41
6760.00,0.41
6759.00,0.41
6758.00,0.41
6757.00,0.41
6756.00,0.41
6755.00,0.41
6754.00,0.41
6753.00,0.41
6752.00,0.41
6751.00,0.41
6750.00,0.41
6749.00,0.41
6748.00,0.41
6747.00,0.41
6746.00,0.41
6745.00,0.42
6744.00,0.42
6743.00,0.42
6742.00,0.42
6741.00,0.42
6740.00,0.42
6739.00,0.42
6738.00,0.42
6737.00,0.42
6736.00,0.42
6735.00,0.42
6734.00,0.42
6733.00,0.42
6732.00,0.42
6731.00,0.41
6730.00,0.41
6729.00,0.41
6728.00,0.41
6727.00,0.41
6726.00,0.42
6725.00,0.42
6724.00,0.42
6723.00,0.42
6722.00,0.42
6721.00,0.42
6720.00,0.41
6719.00,0.41
6718.00,0.41
6717.00,0.41
6716.00,0.41
6715.00,0.42
6714.00,0.42
6713.00,0.42
6712.00,0.42
6711.00,0.42
6710.00,0.42
6709.00,0.42
6708.00,0.42
6707.00,0.42
6706.00,0.42
6705.00,0.42
6704.00,0.42
6703.00,0.42
6702.00,0.42
6701.00,0.42
6700.00,0.42
6699.00,0.42
6698.00,0.41
6697.00,0.41
6696.00,0.41
6695.00,0.41
6694.00,0.41
6693.00,0.41
6692.00,0.41
6691.00,0.41
6690.00,0.41
6689.00,0.41
6688.00,0.40
6687.00,0.40
6686.00,0.40
6685.00,0.40
6684.00,0.40
6683.00,0.40
6682.00,0.39
6681.00,0.39
6680.00,0.39
6679.00,0.39
6678.00,0.39
6677.00,0.39
6676.00,0.39
6675.00,0.39
6674.00,0.39
6673.00,0.39
6672.00,0.39
6671.00,0.39
6670.00,0.40
6669.00,0.40
6668.00,0.40
6667.00,0.40
6666.00,0.40
6665.00,0.40
6664.00,0.40
6663.00,0.41
6662.00,0.41
6661.00,0.41
6660.00,0.42
6659.00,0.42
6658.00,0.42
6657.00,0.43
6656.00,0.43
6655.00,0.43
6654.00,0.44
6653.00,0.44
6652.00,0.45
6651.00,0.45
6650.00,0.45
6649.00,0.45
6648.00,0.46
6647.00,0.46
6646.00,0.46
6645.00,0.46
6644.00,0.47
6643.00,0.47
6642.00,0.47
6641.00,0.47
6640.00,0.47
6639.00,0.47
6638.00,0.47
6637.00,0.48
6636.00,0.48
6635.00,0.48
6634.00,0.48
6633.00,0.48
6632.00,0.48
6631.00,0.48
6630.00,0.48
6629.00,0.48
6628.00,0.48
6627.00,0.48
6626.00,0.48
6625.00,0.49
6624.00,0.49
6623.00,0.49
6622.00,0.49
6621.00,0.49
6620.00,0.49
6619.00,0.49
6618.00,0.49
6617.00,0.49
6616.00,0.49
6615.00,0.49
6614.00,0.49
6613.00,0.49
6612.00,0.49
6611.00,0.49
6610.00,0.49
6609.00,0.49
6608.00,0.49
6607.00,0.49
6606.00,0.49
6605.00,0.49
6604.00,0.49
6603.00,0.48
6602.00,0.48
6601.00,0.48
6600.00,0.48
6599.00,0.48
6598.00,0.48
6597.00,0.48
6596.00,0.47
6595.00,0.47
6594.00,0.47
6593.00,0.47
6592.00,0.47
6591.00,0.47
6590.00,0.47
6589.00,0.47
6588.00,0.48
6587.00,0.48
6586.00,0.48
6585.00,0.48
6584.00,0.48
6583.00,0.48
6582.00,0.48
6581.00,0.48
6580.00,0.48
6579.00,0.48
6578.00,0.49
6577.00,0.49
6576.00,0.49
6575.00,0.49
6574.00,0.49
6573.00,0.49
6572.00,0.50
6571.00,0.50
6570.00,0.50
6569.00,0.50
6568.00,0.50
6567.00,0.50
6566.00,0.51
6565.00,0.51
6564.00,0.51
6563.00,0.51
6562.00,0.51
6561.00,0.51
6560.00,0.51
6559.00,0.51
6558.00,0.51
6557.00,0.51
6556.00,0.51
6555.00,0.51
6554.00,0.52
6553.00,0.52
6552.00,0.52
6551.00,0.52
6550.00,0.52
6549.00,0.52
6548.00,0.52
6547.00,0.52
6546.00,0.52
6545.00,0.53
6544.00,0.53
6543.00,0.53
6542.00,0.53
6541.00,0.53
6540.00,0.53
6539.00,0.53
6538.00,0.53
6537.00,0.53
6536.00,0.53
6535.00,0.53
6534.00,0.53
6533.00,0.53
6532.00,0.53
6531.00,0.53
6530.00,0.53
6529.00,0.53
6528.00,0.53
6527.00,0.53
6526.00,0.53
6525.00,0.53
6524.00,0.53
6523.00,0.53
6522.00,0.53
6521.00,0.53
6520.00,0.53
6519.00,0.53
6518.00,0.53
6517.00,0.53
6516.00,0.52
6515.00,0.52
6514.00,0.52
6513.00,0.52
6512.00,0.52
6511.00,0.52
6510.00,0.52
6509.00,0.52
6508.00,0.52
6507.00,0.52
6506.00,0.52
6505.00,0.52
6504.00,0.52
6503.00,0.52
6502.00,0.52
6501.00,0.52
6500.00,0.53
6499.00,0.53
6498.00,0.53
6497.00,0.53
6496.00,0.53
6495.00,0.54
6494.00,0.54
6493.00,0.54
6492.00,0.54
6491.00,0.54
6490.00,0.55
6489.00,0.55
6488.00,0.55
6487.00,0.55
6486.00,0.56
6485.00,0.56
6484.00,0.56
6483.00,0.56
6482.00,0.57
6481.00,0.57
6480.00,0.57
6479.00,0.57
6478.00,0.58
6477.00,0.58
6476.00,0.58
6475.00,0.58
6474.00,0.58
6473.00,0.58
6472.00,0.58
6471.00,0.59
6470.00,0.59
6469.00,0.59
6468.00,0.59
6467.00,0.59
6466.00,0.59
6465.00,0.59
6464.00,0.60
6463.00,0.60
6462.00,0.60
6461.00,0.60
6460.00,0.60
6459.00,0.60
6458.00,0.61
6457.00,0.61
6456.00,0.61
6455.00,0.61
6454.00,0.62
6453.00,0.62
6452.00,0.62
6451.00,0.62
6450.00,0.62
6449.00,0.62
6448.00,0.63
6447.00,0.63
6446.00,0.63
6445.00,0.63
6444.00,0.63
6443.00,0.63
6442.00,0.63
6441.00,0.63
6440.00,0.63
6439.00,0.63
6438.00,0.63
6437.00,0.63
6436.00,0.63
6435.00,0.63
6434.00,0.63
6433.00,0.62
6432.00,0.62
6431.00,0.62
6430.00,0.62
6429.00,0.62
6428.00,0.62
6427.00,0.62
6426.00,0.62
6425.00,0.61
6424.00,0.61
6423.00,0.61
6422.00,0.61
6421.00,0.61
6420.00,0.61
6419.00,0.61
6418.00,0.61
6417.00,0.61
6416.00,0.62
6415.00,0.62
6414.00,0.62
6413.00,0.62
6412.00,0.62
6411.00,0.62
6410.00,0.62
6409.00,0.62
6408.00,0.63
6407.00,0.63
6406.00,0.63
6405.00,0.63
6404.00,0.63
6403.00,0.64
6402.00,0.64
6401.00,0.64
6400.00,0.64
6399.00,0.64
6398.00,0.65
6397.00,0.65
6396.00,0.65
6395.00,0.65
6394.00,0.66
6393.00,0.66
6392.00,0.66
6391.00,0.66
6390.00,0.66
6389.00,0.66
6388.00,0.67
6387.00,0.67
6386.00,0.67
6385.00,0.67
6384.00,0.67
6383.00,0.67
6382.00,0.67
6381.00,0.67
6380.00,0.67
6379.00,0.67
6378.00,0.67
6377.00,0.67
6376.00,0.67
6375.00,0.67
6374.00,0.68
6373.00,0.68
6372.00,0.68
6371.00,0.68
6370.00,0.68
6369.00,0.68
6368.00,0.68
6367.00,0.68
6366.00,0.68
6365.00,0.68
6364.00,0.68
6363.00,0.68
6362.00,0.68
6361.00,0.68
6360.00,0.68
6359.00,0.69
6358.00,0.69
6357.00,0.69
6356.00,0.69
6355.00,0.69
6354.00,0.69
6353.00,0.70
6352.00,0.70
6351.00,0.70
6350.00,0.70
6349.00,0.71
6348.00,0.71
6347.00,0.71
6346.00,0.71
6345.00,0.71
6344.00,0.71
6343.00,0.71
6342.00,0.72
6341.00,0.72
6340.00,0.72
6339.00,0.72
6338.00,0.72
6337.00,0.72
6336.00,0.72
6335.00,0.72
6334.00,0.72
6333.00,0.72
6332.00,0.72
6331.00,0.72
6330.00,0.72
6329.00,0.72
6328.00,0.72
6327.00,0.72
6326.00,0.72
6325.00,0.72
6324.00,0.72
6323.00,0.72
6322.00,0.72
6321.00,0.72
6320.00,0.72
6319.00,0.72
6318.00,0.72
6317.00,0.72
6316.00,0.72
6315.00,0.72
6314.00,0.72
6313.00,0.72
6312.00,0.72
6311.00,0.72
6310.00,0.72
6309.00,0.72
6308.00,0.72
6307.00,0.72
6306.00,0.72
6305.00,0.72
6304.00,0.72
6303.00,0.72
6302.00,0.72
6301.00,0.72
6300.00,0.72
6299.00,0.72
6298.00,0.72
6297.00,0.72
6296.00,0.72
6295.00,0.72
6294.00,0.72
6293.00,0.73
6292.00,0.73
6291.00,0.73
6290.00,0.73
6289.00,0.73
6288.00,0.73
6287.00,0.73
6286.00,0.73
6285.00,0.74
6284.00,0.74
6283.00,0.74
6282.00,0.74
6281.00,0.74
6280.00,0.74
6279.00,0.74
6278.00,0.74
6277.00,0.75
6276.00,0.75
6275.00,0.75
6274.00,0.75
6273.00,0.76
6272.00,0.76
6271.00,0.76
6270.00,0.76
6269.00,0.76
6268.00,0.76
6267.00,0.77
6266.00,0.77
6265.00,0.77
6264.00,0.77
6263.00,0.77
6262.00,0.77
6261.00,0.77
6260.00,0.77
6259.00,0.77
6258.00,0.77
6257.00,0.77
6256.00,0.78
6255.00,0.78
6254.00,0.78
6253.00,0.78
6252.00,0.78
6251.00,0.77
6250.00,0.77
6249.00,0.77
6248.00,0.77
6247.00,0.78
6246.00,0.78
6245.00,0.78
6244.00,0.78
6243.00,0.78
6242.00,0.78
6241.00,0.78
6240.00,0.78
6239.00,0.78
6238.00,0.78
6237.00,0.79
6236.00,0.79
6235.00,0.79
6234.00,0.79
6233.00,0.79
6232.00,0.80
6231.00,0.80
6230.00,0.80
6229.00,0.81
6228.00,0.81
6227.00,0.81
6226.00,0.81
6225.00,0.82
6224.00,0.82
6223.00,0.82
6222.00,0.83
6221.00,0.83
6220.00,0.83
6219.00,0.83
6218.00,0.83
6217.00,0.83
6216.00,0.84
6215.00,0.84
6214.00,0.84
6213.00,0.84
6212.00,0.84
6211.00,0.84
6210.00,0.84
6209.00,0.84
6208.00,0.84
6207.00,0.84
6206.00,0.84
6205.00,0.85
6204.00,0.85
6203.00,0.85
6202.00,0.85
6201.00,0.85
6200.00,0.85
6199.00,0.85
6198.00,0.85
6197.00,0.85
6196.00,0.85
6195.00,0.85
6194.00,0.85
6193.00,0.85
6192.00,0.85
6191.00,0.85
6190.00,0.85
6189.00,0.85
6188.00,0.85
6187.00,0.85
6186.00,0.85
6185.00,0.85
6184.00,0.85
6183.00,0.85
6182.00,0.85
6181.00,0.85
6180.00,0.85
6179.00,0.86
6178.00,0.86
6177.00,0.86
6176.00,0.86
6175.00,0.86
6174.00,0.86
6173.00,0.86
6172.00,0.86
6171.00,0.87
6170.00,0.87
6169.00,0.87
6168.00,0.87
6167.00,0.88
6166.00,0.88
6165.00,0.88
6164.00,0.88
6163.00,0.89
6162.00,0.89
6161.00,0.89
6160.00,0.89
6159.00,0.90
6158.00,0.90
6157.00,0.90
6156.00,0.90
6155.00,0.90
6154.00,0.90
6153.00,0.91
6152.00,0.91
6151.00,0.91
6150.00,0.91
6149.00,0.91
6148.00,0.91
6147.00,0.91
6146.00,0.92
6145.00,0.92
6144.00,0.92
6143.00,0.92
6142.00,0.92
6141.00,0.92
6140.00,0.92
6139.00,0.92
6138.00,0.92
6137.00,0.92
6136.00,0.92
6135.00,0.92
6134.00,0.92
6133.00,0.92
6132.00,0.92
6131.00,0.92
6130.00,0.92
6129.00,0.92
6128.00,0.93
6127.00,0.93
6126.00,0.93
6125.00,0.93
6124.00,0.93
6123.00,0.93
6122.00,0.93
6121.00,0.93
6120.00,0.93
6119.00,0.93
6118.00,0.93
6117.00,0.93
6116.00,0.93
6115.00,0.93
6114.00,0.93
6113.00,0.93
6112.00,0.93
6111.00,0.93
6110.00,0.94
6109.00,0.94
6108.00,0.94
6107.00,0.94
6106.00,0.94
6105.00,0.94
6104.00,0.94
6103.00,0.94
6102.00,0.94
6101.00,0.94
6100.00,0.95
6099.00,0.95
6098.00,0.95
6097.00,0.95
6096.00,0.95
6095.00,0.96
6094.00,0.96
6093.00,0.96
6092.00,0.96
6091.00,0.96
6090.00,0.96
6089.00,0.96
6088.00,0.96
6087.00,0.97
6086.00,0.97
6085.00,0.97
6084.00,0.97
6083.00,0.97
6082.00,0.97
6081.00,0.97
6080.00,0.97
6079.00,0.97
6078.00,0.97
6077.00,0.97
6076.00,0.98
6075.00,0.98
6074.00,0.98
6073.00,0.98
6072.00,0.98
6071.00,0.98
6070.00,0.98
6069.00,0.99
6068.00,0.99
6067.00,0.99
6066.00,0.99
6065.00,0.99
6064.00,0.99
6063.00,1.00
6062.00,1.00
6061.00,1.00
6060.00,1.00
6059.00,1.01
6058.00,1.01
6057.00,1.01
6056.00,1.01
6055.00,1.02
6054.00,1.02
6053.00,1.02
6052.00,1.02
6051.00,1.03
6050.00,1.03
6049.00,1.03
6048.00,1.03
6047.00,1.03
6046.00,1.03
6045.00,1.03
6044.00,1.03
6043.00,1.03
6042.00,1.03
6041.00,1.04
6040.00,1.04
6039.00,1.04
6038.00,1.04
6037.00,1.04
6036.00,1.04
6035.00,1.04
6034.00,1.04
6033.00,1.04
6032.00,1.04
6031.00,1.04
6030.00,1.03
6029.00,1.03
6028.00,1.03
6027.00,1.03
6026.00,1.03
6025.00,1.03
6024.00,1.03
6023.00,1.03
6022.00,1.03
6021.00,1.03
6020.00,1.03
6019.00,1.03
6018.00,1.03
6017.00,1.03
6016.00,1.03
6015.00,1.03
6014.00,1.03
6013.00,1.03
6012.00,1.02
6011.00,1.02
6010.00,1.02
6009.00,1.02
6008.00,1.02
6007.00,1.02
6006.00,1.02
6005.00,1.02
6004.00,1.02
6003.00,1.02
6002.00,1.02
6001.00,1.02
6000.00,1.02
5999.00,1.02
5998.00,1.02
5997.00,1.02
5996.00,1.02
5995.00,1.02
5994.00,1.02
5993.00,1.02
5992.00,1.01
5991.00,1.01
5990.00,1.01
5989.00,1.01
5988.00,1.01
5987.00,1.01
5986.00,1.01
5985.00,1.01
5984.00,1.00
5983.00,1.00
5982.00,1.00
5981.00,1.00
5980.00,1.00
5979.00,0.99
5978.00,0.99
5977.00,0.99
5976.00,0.99
5975.00,0.99
5974.00,0.98
5973.00,0.98
5972.00,0.98
5971.00,0.98
5970.00,0.98
5969.00,0.97
5968.00,0.97
5967.00,0.97
5966.00,0.97
5965.00,0.97
5964.00,0.96
5963.00,0.96
5962.00,0.96
5961.00,0.96
5960.00,0.96
5959.00,0.96
5958.00,0.96
5957.00,0.95
5956.00,0.95
5955.00,0.95
5954.00,0.95
5953.00,0.95
5952.00,0.94
5951.00,0.94
5950.00,0.94
5949.00,0.94
5948.00,0.93
5947.00,0.93
5946.00,0.93
5945.00,0.92
5944.00,0.92
5943.00,0.92
5942.00,0.92
5941.00,0.91
5940.00,0.91
5939.00,0.91
5938.00,0.90
5937.00,0.90
5936.00,0.90
5935.00,0.89
5934.00,0.89
5933.00,0.89
5932.00,0.88
5931.00,0.88
5930.00,0.88
5929.00,0.87
5928.00,0.87
5927.00,0.87
5926.00,0.86
5925.00,0.86
5924.00,0.86
5923.00,0.86
5922.00,0.86
5921.00,0.85
5920.00,0.85
5919.00,0.85
5918.00,0.85
5917.00,0.85
5916.00,0.85
5915.00,0.84
5914.00,0.84
5913.00,0.84
5912.00,0.84
5911.00,0.84
5910.00,0.84
5909.00,0.84
5908.00,0.84
5907.00,0.84
5906.00,0.84
5905.00,0.84
5904.00,0.84
5903.00,0.85
5902.00,0.85
5901.00,0.85
5900.00,0.85
5899.00,0.85
5898.00,0.85
5897.00,0.85
5896.00,0.86
5895.00,0.86
5894.00,0.86
5893.00,0.86
5892.00,0.86
5891.00,0.86
5890.00,0.87
5889.00,0.87
5888.00,0.87
5887.00,0.87
5886.00,0.87
5885.00,0.87
5884.00,0.88
5883.00,0.88
5882.00,0.88
5881.00,0.88
5880.00,0.88
5879.00,0.88
5878.00,0.88
5877.00,0.88
5876.00,0.88
5875.00,0.88
5874.00,0.88
5873.00,0.89
5872.00,0.89
5871.00,0.89
5870.00,0.89
5869.00,0.89
5868.00,0.89
5867.00,0.89
5866.00,0.89
5865.00,0.89
5864.00,0.89
5863.00,0.89
5862.00,0.89
5861.00,0.89
5860.00,0.89
5859.00,0.89
5858.00,0.89
5857.00,0.89
5856.00,0.89
5855.00,0.89
5854.00,0.89
5853.00,0.89
5852.00,0.89
5851.00,0.90
5850.00,0.90
5849.00,0.90
5848.00,0.90
5847.00,0.90
5846.00,0.90
5845.00,0.90
5844.00,0.90
5843.00,0.90
5842.00,0.91
5841.00,0.91
5840.00,0.91
5839.00,0.91
5838.00,0.91
5837.00,0.91
5836.00,0.91
5835.00,0.91
5834.00,0.91
5833.00,0.91
5832.00,0.91
5831.00,0.91
5830.00,0.91
5829.00,0.91
5828.00,0.92
5827.00,0.92
5826.00,0.92
5825.00,0.91
5824.00,0.91
5823.00,0.91
5822.00,0.91
5821.00,0.91
5820.00,0.91
5819.00,0.91
5818.00,0.91
5817.00,0.91
5816.00,0.91
5815.00,0.91
5814.00,0.91
5813.00,0.91
5812.00,0.91
5811.00,0.91
5810.00,0.91
5809.00,0.91
5808.00,0.91
5807.00,0.91
5806.00,0.91
5805.00,0.90
5804.00,0.90
5803.00,0.90
5802.00,0.90
5801.00,0.90
5800.00,0.90
5799.00,0.90
5798.00,0.90
5797.00,0.90
5796.00,0.90
5795.00,0.90
5794.00,0.90
5793.00,0.90
5792.00,0.90
5791.00,0.90
5790.00,0.90
5789.00,0.90
5788.00,0.90
5787.00,0.90
5786.00,0.90
5785.00,0.90
5784.00,0.90
5783.00,0.90
5782.00,0.90
5781.00,0.90
5780.00,0.90
5779.00,0.90
5778.00,0.90
5777.00,0.90
5776.00,0.91
5775.00,0.91
5774.00,0.91
5773.00,0.91
5772.00,0.91
5771.00,0.91
5770.00,0.91
5769.00,0.91
5768.00,0.92
5767.00,0.92
5766.00,0.92
5765.00,0.92
5764.00,0.92
5763.00,0.92
5762.00,0.93
5761.00,0.93
5760.00,0.93
5759.00,0.93
5758.00,0.93
5757.00,0.93
5756.00,0.94
5755.00,0.94
5754.00,0.94
5753.00,0.94
5752.00,0.94
5751.00,0.94
5750.00,0.94
5749.00,0.94
5748.00,0.94
5747.00,0.94
5746.00,0.94
5745.00,0.94
5744.00,0.94
5743.00,0.94
5742.00,0.94
5741.00,0.94
5740.00,0.94
5739.00,0.94
5738.00,0.94
5737.00,0.94
5736.00,0.94
5735.00,0.93
5734.00,0.93
5733.00,0.93
5732.00,0.93
5731.00,0.93
5730.00,0.93
5729.00,0.93
5728.00,0.93
5727.00,0.93
5726.00,0.93
5725.00,0.93
5724.00,0.93
5723.00,0.93
5722.00,0.93
5721.00,0.93
5720.00,0.93
5719.00,0.93
5718.00,0.93
5717.00,0.93
5716.00,0.93
5715.00,0.93
5714.00,0.93
5713.00,0.93
5712.00,0.93
5711.00,0.93
5710.00,0.93
5709.00,0.93
5708.00,0.93
5707.00,0.93
5706.00,0.93
5705.00,0.93
5704.00,0.93
5703.00,0.93
5702.00,0.93
5701.00,0.93
5700.00,0.93
5699.00,0.93
5698.00,0.93
5697.00,0.93
5696.00,0.93
5695.00,0.93
5694.00,0.93
5693.00,0.93
5692.00,0.93
5691.00,0.92
5690.00,0.92
5689.00,0.92
5688.00,0.92
5687.00,0.92
5686.00,0.91
5685.00,0.91
5684.00,0.91
5683.00,0.91
5682.00,0.91
5681.00,0.90
5680.00,0.90
5679.00,0.90
5678.00,0.90
5677.00,0.90
5676.00,0.89
5675.00,0.89
5674.00,0.89
5673.00,0.89
5672.00,0.89
5671.00,0.89
5670.00,0.89
5669.00,0.89
5668.00,0.89
5667.00,0.89
5666.00,0.89
5665.00,0.89
5664.00,0.89
5663.00,0.89
5662.00,0.89
5661.00,0.90
5660.00,0.90
5659.00,0.90
5658.00,0.90
5657.00,0.90
5656.00,0.90
5655.00,0.90
5654.00,0.90
5653.00,0.91
5652.00,0.91
5651.00,0.91
5650.00,0.91
5649.00,0.91
5648.00,0.91
5647.00,0.91
5646.00,0.91
5645.00,0.91
5644.00,0.92
5643.00,0.92
5642.00,0.92
5641.00,0.92
5640.00,0.92
5639.00,0.92
5638.00,0.92
5637.00,0.92
5636.00,0.92
5635.00,0.92
5634.00,0.92
5633.00,0.92
5632.00,0.92
5631.00,0.92
5630.00,0.92
5629.00,0.92
5628.00,0.92
5627.00,0.92
5626.00,0.92
5625.00,0.92
5624.00,0.92
5623.00,0.93
5622.00,0.93
5621.00,0.93
5620.00,0.93
5619.00,0.93
5618.00,0.93
5617.00,0.94
5616.00,0.94
5615.00,0.94
5614.00,0.94
5613.00,0.95
5612.00,0.95
5611.00,0.95
5610.00,0.95
5609.00,0.96
5608.00,0.96
5607.00,0.96
5606.00,0.97
5605.00,0.97
5604.00,0.97
5603.00,0.98
5602.00,0.98
5601.00,0.98
5600.00,0.99
5599.00,0.99
5598.00,0.99
5597.00,0.99
5596.00,0.99
5595.00,0.99
5594.00,1.00
5593.00,1.00
5592.00,1.00
5591.00,1.00
5590.00,1.00
5589.00,1.00
5588.00,1.00
5587.00,1.00
5586.00,0.99
5585.00,0.99
5584.00,0.99
5583.00,0.99
5582.00,0.99
5581.00,0.99
5580.00,0.99
5579.00,0.99
5578.00,0.99
5577.00,0.99
5576.00,0.98
5575.00,0.98
5574.00,0.98
5573.00,0.98
5572.00,0.98
5571.00,0.98
5570.00,0.98
5569.00,0.98
5568.00,0.98
5567.00,0.98
5566.00,0.98
5565.00,0.98
5564.00,0.98
5563.00,0.98
5562.00,0.98
5561.00,0.98
5560.00,0.98
5559.00,0.99
5558.00,0.99
5557.00,0.99
5556.00,0.99
5555.00,1.00
5554.00,1.00
5553.00,1.00
5552.00,1.00
5551.00,1.01
5550.00,1.01
5549.00,1.01
5548.00,1.01
5547.00,1.02
5546.00,1.02
5545.00,1.02
5544.00,1.03
5543.00,1.03
5542.00,1.03
5541.00,1.04
5540.00,1.04
5539.00,1.04
5538.00,1.05
5537.00,1.05
5536.00,1.05
5535.00,1.05
5534.00,1.06
5533.00,1.06
5532.00,1.06
5531.00,1.06
5530.00,1.06
5529.00,1.06
5528.00,1.06
5527.00,1.06
5526.00,1.06
5525.00,1.06
5524.00,1.06
5523.00,1.06
5522.00,1.06
5521.00,1.06
5520.00,1.06
5519.00,1.06
5518.00,1.06
5517.00,1.06
5516.00,1.06
5515.00,1.05
5514.00,1.05
5513.00,1.05
5512.00,1.05
5511.00,1.05
5510.00,1.04
5509.00,1.04
5508.00,1.04
5507.00,1.04
5506.00,1.04
5505.00,1.04
5504.00,1.04
5503.00,1.04
5502.00,1.03
5501.00,1.03
5500.00,1.03
5499.00,1.03
5498.00,1.03
5497.00,1.03
5496.00,1.03
5495.00,1.03
5494.00,1.03
5493.00,1.03
5492.00,1.03
5491.00,1.03
5490.00,1.03
5489.00,1.03
5488.00,1.03
5487.00,1.03
5486.00,1.04
5485.00,1.04
5484.00,1.04
5483.00,1.04
5482.00,1.04
5481.00,1.04
5480.00,1.04
5479.00,1.05
5478.00,1.05
5477.00,1.05
5476.00,1.05
5475.00,1.05
5474.00,1.06
5473.00,1.06
5472.00,1.06
5471.00,1.06
5470.00,1.06
5469.00,1.07
5468.00,1.07
5467.00,1.07
5466.00,1.07
5465.00,1.07
5464.00,1.08
5463.00,1.08
5462.00,1.08
5461.00,1.08
5460.00,1.09
5459.00,1.09
5458.00,1.09
5457.00,1.09
5456.00,1.09
5455.00,1.10
5454.00,1.10
5453.00,1.10
5452.00,1.10
5451.00,1.10
5450.00,1.10
5449.00,1.11
5448.00,1.11
5447.00,1.11
5446.00,1.11
5445.00,1.11
5444.00,1.11
5443.00,1.11
5442.00,1.11
5441.00,1.11
5440.00,1.11
5439.00,1.11
5438.00,1.11
5437.00,1.12
5436.00,1.12
5435.00,1.12
5434.00,1.12
5433.00,1.12
5432.00,1.12
5431.00,1.12
5430.00,1.12
5429.00,1.11
5428.00,1.11
5427.00,1.11
5426.00,1.11
5425.00,1.11
5424.00,1.11
5423.00,1.11
5422.00,1.11
5421.00,1.11
5420.00,1.11
5419.00,1.11
5418.00,1.11
5417.00,1.10
5416.00,1.10
5415.00,1.10
5414.00,1.10
5413.00,1.10
5412.00,1.09
5411.00,1.09
5410.00,1.09
5409.00,1.09
5408.00,1.08
5407.00,1.08
5406.00,1.08
5405.00,1.08
5404.00,1.07
5403.00,1.07
5402.00,1.07
5401.00,1.07
5400.00,1.07
5399.00,1.06
5398.00,1.06
5397.00,1.06
5396.00,1.06
5395.00,1.05
5394.00,1.05
5393.00,1.05
5392.00,1.05
5391.00,1.04
5390.00,1.04
5389.00,1.04
5388.00,1.04
5387.00,1.03
5386.00,1.03
5385.00,1.03
5384.00,1.02
5383.00,1.02
5382.00,1.02
5381.00,1.02
5380.00,1.01
5379.00,1.01
5378.00,1.00
5377.00,1.00
5376.00,1.00
5375.00,0.99
5374.00,0.99
5373.00,0.98
5372.00,0.98
5371.00,0.97
5370.00,0.97
5369.00,0.96
5368.00,0.96
5367.00,0.95
5366.00,0.95
5365.00,0.94
5364.00,0.93
5363.00,0.93
5362.00,0.92
5361.00,0.92
5360.00,0.91
5359.00,0.90
5358.00,0.90
5357.00,0.89
5356.00,0.89
5355.00,0.88
5354.00,0.87
5353.00,0.87
5352.00,0.86
5351.00,0.86
5350.00,0.85
5349.00,0.84
5348.00,0.84
5347.00,0.83
5346.00,0.83
5345.00,0.82
5344.00,0.82
5343.00,0.81
5342.00,0.80
5341.00,0.80
5340.00,0.79
5339.00,0.79
5338.00,0.78
5337.00,0.77
5336.00,0.77
5335.00,0.76
5334.00,0.76
5333.00,0.75
5332.00,0.74
5331.00,0.74
5330.00,0.73
5329.00,0.72
5328.00,0.72
5327.00,0.71
5326.00,0.71
5325.00,0.70
5324.00,0.69
5323.00,0.69
5322.00,0.68
5321.00,0.67
5320.00,0.67
5319.00,0.66
5318.00,0.66
5317.00,0.65
5316.00,0.64
5315.00,0.64
5314.00,0.63
5313.00,0.63
5312.00,0.62
5311.00,0.62
5310.00,0.61
5309.00,0.61
5308.00,0.61
5307.00,0.60
5306.00,0.60
5305.00,0.60
5304.00,0.59
5303.00,0.59
5302.00,0.59
5301.00,0.58
5300.00,0.58
5299.00,0.58
5298.00,0.58
5297.00,0.57
5296.00,0.57
5295.00,0.57
5294.00,0.57
5293.00,0.57
5292.00,0.57
5291.00,0.57
5290.00,0.56
5289.00,0.56
5288.00,0.56
5287.00,0.56
5286.00,0.56
5285.00,0.56
5284.00,0.56
5283.00,0.56
5282.00,0.55
5281.00,0.55
5280.00,0.55
5279.00,0.55
5278.00,0.55
5277.00,0.55
5276.00,0.55
5275.00,0.55
5274.00,0.55
5273.00,0.54
5272.00,0.54
5271.00,0.54
5270.00,0.54
5269.00,0.54
5268.00,0.54
5267.00,0.54
5266.00,0.54
5265.00,0.54
5264.00,0.54
5263.00,0.54
5262.00,0.54
5261.00,0.54
5260.00,0.54
5259.00,0.54
5258.00,0.54
5257.00,0.54
5256.00,0.54
5255.00,0.54
5254.00,0.54
5253.00,0.54
5252.00,0.54
5251.00,0.54
5250.00,0.54
5249.00,0.54
5248.00,0.54
5247.00,0.54
5246.00,0.54
5245.00,0.54
5244.00,0.54
5243.00,0.54
5242.00,0.55
5241.00,0.55
5240.00,0.55
5239.00,0.55
5238.00,0.55
5237.00,0.55
5236.00,0.55
5235.00,0.55
5234.00,0.56
5233.00,0.56
5232.00,0.56
5231.00,0.56
5230.00,0.56
5229.00,0.56
5228.00,0.56
5227.00,0.56
5226.00,0.57
5225.00,0.57
5224.00,0.57
5223.00,0.57
5222.00,0.57
5221.00,0.57
5220.00,0.57
5219.00,0.57
5218.00,0.57
5217.00,0.57
5216.00,0.57
5215.00,0.57
5214.00,0.57
5213.00,0.57
5212.00,0.57
5211.00,0.57
5210.00,0.57
5209.00,0.57
5208.00,0.57
5207.00,0.57
5206.00,0.57
5205.00,0.57
5204.00,0.57
5203.00,0.57
5202.00,0.57
5201.00,0.57
5200.00,0.57
5199.00,0.57
5198.00,0.57
5197.00,0.57
5196.00,0.57
5195.00,0.57
5194.00,0.57
5193.00,0.57
5192.00,0.57
5191.00,0.57
5190.00,0.57
5189.00,0.57
5188.00,0.57
5187.00,0.57
5186.00,0.57
5185.00,0.57
5184.00,0.57
5183.00,0.57
5182.00,0.57
5181.00,0.57
5180.00,0.57
5179.00,0.57
5178.00,0.57
5177.00,0.58
5176.00,0.58
5175.00,0.58
5174.00,0.58
5173.00,0.58
5172.00,0.58
5171.00,0.58
5170.00,0.58
5169.00,0.58
5168.00,0.58
5167.00,0.58
5166.00,0.58
5165.00,0.58
5164.00,0.58
5163.00,0.58
5162.00,0.58
5161.00,0.58
5160.00,0.58
5159.00,0.58
5158.00,0.58
5157.00,0.58
5156.00,0.58
5155.00,0.58
5154.00,0.59
5153.00,0.59
5152.00,0.59
5151.00,0.59
5150.00,0.59
5149.00,0.59
5148.00,0.59
5147.00,0.59
5146.00,0.59
5145.00,0.59
5144.00,0.59
5143.00,0.60
5142.00,0.60
5141.00,0.60
5140.00,0.60
5139.00,0.60
5138.00,0.60
5137.00,0.60
5136.00,0.60
5135.00,0.60
5134.00,0.60
5133.00,0.60
5132.00,0.59
5131.00,0.59
5130.00,0.59
5129.00,0.59
5128.00,0.59
5127.00,0.59
5126.00,0.59
5125.00,0.59
5124.00,0.59
5123.00,0.59
5122.00,0.59
5121.00,0.58
5120.00,0.58
5119.00,0.58
5118.00,0.58
5117.00,0.58
5116.00,0.58
5115.00,0.58
5114.00,0.58
5113.00,0.58
5112.00,0.58
5111.00,0.58
5110.00,0.58
5109.00,0.58
5108.00,0.58
5107.00,0.58
5106.00,0.58
5105.00,0.58
5104.00,0.58
5103.00,0.58
5102.00,0.59
5101.00,0.59
5100.00,0.59
5099.00,0.59
5098.00,0.59
5097.00,0.59
5096.00,0.59
5095.00,0.59
5094.00,0.59
5093.00,0.59
5092.00,0.59
5091.00,0.59
5090.00,0.59
5089.00,0.59
5088.00,0.59
5087.00,0.59
5086.00,0.59
5085.00,0.60
5084.00,0.60
5083.00,0.60
5082.00,0.60
5081.00,0.60
5080.00,0.60
5079.00,0.60
5078.00,0.60
5077.00,0.60
5076.00,0.60
5075.00,0.60
5074.00,0.60
5073.00,0.60
5072.00,0.60
5071.00,0.60
5070.00,0.60
5069.00,0.60
5068.00,0.60
5067.00,0.60
5066.00,0.60
5065.00,0.60
5064.00,0.59
5063.00,0.59
5062.00,0.59
5061.00,0.59
5060.00,0.59
5059.00,0.59
5058.00,0.59
5057.00,0.59
5056.00,0.59
5055.00,0.59
5054.00,0.58
5053.00,0.58
5052.00,0.58
5051.00,0.58
5050.00,0.58
5049.00,0.58
5048.00,0.58
5047.00,0.58
5046.00,0.58
5045.00,0.58
5044.00,0.58
5043.00,0.58
5042.00,0.58
5041.00,0.58
5040.00,0.58
5039.00,0.58
5038.00,0.59
5037.00,0.59
5036.00,0.59
5035.00,0.59
5034.00,0.59
5033.00,0.59
5032.00,0.60
5031.00,0.60
5030.00,0.60
5029.00,0.60
5028.00,0.60
5027.00,0.60
5026.00,0.60
5025.00,0.60
5024.00,0.61
5023.00,0.61
5022.00,0.61
5021.00,0.61
5020.00,0.61
5019.00,0.61
5018.00,0.61
5017.00,0.62
5016.00,0.62
5015.00,0.62
5014.00,0.62
5013.00,0.62
5012.00,0.62
5011.00,0.62
5010.00,0.62
5009.00,0.63
5008.00,0.63
5007.00,0.63
5006.00,0.63
5005.00,0.63
5004.00,0.63
5003.00,0.63
5002.00,0.63
5001.00,0.63
5000.00,0.63
4999.00,0.63
4998.00,0.63
4997.00,0.64
4996.00,0.64
4995.00,0.64
4994.00,0.64
4993.00,0.64
4992.00,0.63
4991.00,0.63
4990.00,0.63
4989.00,0.63
4988.00,0.63
4987.00,0.63
4986.00,0.63
4985.00,0.63
4984.00,0.63
4983.00,0.62
4982.00,0.62
4981.00,0.62
4980.00,0.62
4979.00,0.62
4978.00,0.62
4977.00,0.62
4976.00,0.62
4975.00,0.61
4974.00,0.61
4973.00,0.61
4972.00,0.61
4971.00,0.61
4970.00,0.61
4969.00,0.61
4968.00,0.61
4967.00,0.60
4966.00,0.60
4965.00,0.60
4964.00,0.60
4963.00,0.60
4962.00,0.60
4961.00,0.60
4960.00,0.60
4959.00,0.60
4958.00,0.60
4957.00,0.60
4956.00,0.60
4955.00,0.60
4954.00,0.60
4953.00,0.60
4952.00,0.60
4951.00,0.60
4950.00,0.60
4949.00,0.60
4948.00,0.60
4947.00,0.60
4946.00,0.60
4945.00,0.60
4944.00,0.60
4943.00,0.60
4942.00,0.60
4941.00,0.60
4940.00,0.61
4939.00,0.61
4938.00,0.61
4937.00,0.61
4936.00,0.61
4935.00,0.61
4934.00,0.61
4933.00,0.61
4932.00,0.61
4931.00,0.61
4930.00,0.61
4929.00,0.62
4928.00,0.62
4927.00,0.62
4926.00,0.62
4925.00,0.62
4924.00,0.62
4923.00,0.62
4922.00,0.63
4921.00,0.63
4920.00,0.63
4919.00,0.63
4918.00,0.63
4917.00,0.63
4916.00,0.63
4915.00,0.63
4914.00,0.63
4913.00,0.63
4912.00,0.63
4911.00,0.63
4910.00,0.63
4909.00,0.63
4908.00,0.63
4907.00,0.63
4906.00,0.63
4905.00,0.63
4904.00,0.63
4903.00,0.63
4902.00,0.63
4901.00,0.63
4900.00,0.63
4899.00,0.63
4898.00,0.63
4897.00,0.63
4896.00,0.62
4895.00,0.62
4894.00,0.62
4893.00,0.62
4892.00,0.62
4891.00,0.62
4890.00,0.62
4889.00,0.62
4888.00,0.62
4887.00,0.62
4886.00,0.62
4885.00,0.62
4884.00,0.62
4883.00,0.62
4882.00,0.62
4881.00,0.62
4880.00,0.62
4879.00,0.62
4878.00,0.63
4877.00,0.63
4876.00,0.63
4875.00,0.63
4874.00,0.63
4873.00,0.63
4872.00,0.63
4871.00,0.63
4870.00,0.63
4869.00,0.63
4868.00,0.64
4867.00,0.64
4866.00,0.64
4865.00,0.64
4864.00,0.64
4863.00,0.65
4862.00,0.65
4861.00,0.65
4860.00,0.65
4859.00,0.65
4858.00,0.66
4857.00,0.66
4856.00,0.66
4855.00,0.66
4854.00,0.67
4853.00,0.67
4852.00,0.67
4851.00,0.67
4850.00,0.67
4849.00,0.68
4848.00,0.68
4847.00,0.68
4846.00,0.68
4845.00,0.69
4844.00,0.69
4843.00,0.69
4842.00,0.69
4841.00,0.69
4840.00,0.69
4839.00,0.69
4838.00,0.69
4837.00,0.69
4836.00,0.69
4835.00,0.69
4834.00,0.69
4833.00,0.69
4832.00,0.69
4831.00,0.69
4830.00,0.69
4829.00,0.69
4828.00,0.69
4827.00,0.69
4826.00,0.69
4825.00,0.69
4824.00,0.69
4823.00,0.69
4822.00,0.69
4821.00,0.69
4820.00,0.69
4819.00,0.69
4818.00,0.69
4817.00,0.69
4816.00,0.69
4815.00,0.69
4814.00,0.69
4813.00,0.69
4812.00,0.69
4811.00,0.69
4810.00,0.69
4809.00,0.69
4808.00,0.70
4807.00,0.70
4806.00,0.70
4805.00,0.70
4804.00,0.70
4803.00,0.70
4802.00,0.71
4801.00,0.71
4800.00,0.71
4799.00,0.71
4798.00,0.71
4797.00,0.71
4796.00,0.71
4795.00,0.71
4794.00,0.71
4793.00,0.71
4792.00,0.71
4791.00,0.71
4790.00,0.71
4789.00,0.71
4788.00,0.71
4787.00,0.71
4786.00,0.71
4785.00,0.71
4784.00,0.71
4783.00,0.71
4782.00,0.71
4781.00,0.71
4780.00,0.71
4779.00,0.71
4778.00,0.71
4777.00,0.71
4776.00,0.71
4775.00,0.72
4774.00,0.72
4773.00,0.72
4772.00,0.72
4771.00,0.72
4770.00,0.72
4769.00,0.72
4768.00,0.72
4767.00,0.72
4766.00,0.72
4765.00,0.72
4764.00,0.72
4763.00,0.72
4762.00,0.72
4761.00,0.72
4760.00,0.72
4759.00,0.72
4758.00,0.72
4757.00,0.72
4756.00,0.71
4755.00,0.71
4754.00,0.71
4753.00,0.71
4752.00,0.71
4751.00,0.71
4750.00,0.71
4749.00,0.70
4748.00,0.70
4747.00,0.70
4746.00,0.70
4745.00,0.70
4744.00,0.70
4743.00,0.70
4742.00,0.70
4741.00,0.70
4740.00,0.70
4739.00,0.70
4738.00,0.70
4737.00,0.70
4736.00,0.71
4735.00,0.71
4734.00,0.71
4733.00,0.71
4732.00,0.71
4731.00,0.71
4730.00,0.71
4729.00,0.72
4728.00,0.72
4727.00,0.72
4726.00,0.72
4725.00,0.73
4724.00,0.73
4723.00,0.73
4722.00,0.74
4721.00,0.74
4720.00,0.74
4719.00,0.75
4718.00,0.75
4717.00,0.75
4716.00,0.76
4715.00,0.76
4714.00,0.76
4713.00,0.76
4712.00,0.76
4711.00,0.77
4710.00,0.77
4709.00,0.77
4708.00,0.77
4707.00,0.77
4706.00,0.78
4705.00,0.78
4704.00,0.78
4703.00,0.78
4702.00,0.79
4701.00,0.79
4700.00,0.79
4699.00,0.79
4698.00,0.79
4697.00,0.80
4696.00,0.80
4695.00,0.80
4694.00,0.80
4693.00,0.80
4692.00,0.80
4691.00,0.80
4690.00,0.80
4689.00,0.80
4688.00,0.80
4687.00,0.80
4686.00,0.80
4685.00,0.81
4684.00,0.81
4683.00,0.81
4682.00,0.81
4681.00,0.81
4680.00,0.81
4679.00,0.81
4678.00,0.82
4677.00,0.82
4676.00,0.82
4675.00,0.82
4674.00,0.82
4673.00,0.82
4672.00,0.82
4671.00,0.82
4670.00,0.82
4669.00,0.83
4668.00,0.83
4667.00,0.83
4666.00,0.83
4665.00,0.84
4664.00,0.84
4663.00,0.84
4662.00,0.84
4661.00,0.85
4660.00,0.85
4659.00,0.85
4658.00,0.85
4657.00,0.85
4656.00,0.85
4655.00,0.86
4654.00,0.86
4653.00,0.86
4652.00,0.86
4651.00,0.86
4650.00,0.87
4649.00,0.87
4648.00,0.87
4647.00,0.87
4646.00,0.88
4645.00,0.88
4644.00,0.88
4643.00,0.88
4642.00,0.88
4641.00,0.89
4640.00,0.89
4639.00,0.89
4638.00,0.89
4637.00,0.89
4636.00,0.89
4635.00,0.89
4634.00,0.89
4633.00,0.89
4632.00,0.89
4631.00,0.89
4630.00,0.89
4629.00,0.89
4628.00,0.88
4627.00,0.88
4626.00,0.88
4625.00,0.88
4624.00,0.88
4623.00,0.87
4622.00,0.87
4621.00,0.87
4620.00,0.86
4619.00,0.86
4618.00,0.86
4617.00,0.85
4616.00,0.85
4615.00,0.85
4614.00,0.84
4613.00,0.84
4612.00,0.84
4611.00,0.84
4610.00,0.83
4609.00,0.83
4608.00,0.83
4607.00,0.82
4606.00,0.82
4605.00,0.82
4604.00,0.82
4603.00,0.82
4602.00,0.82
4601.00,0.82
4600.00,0.82
4599.00,0.82
4598.00,0.82
4597.00,0.82
4596.00,0.82
4595.00,0.82
4594.00,0.82
4593.00,0.82
4592.00,0.82
4591.00,0.82
4590.00,0.82
4589.00,0.82
4588.00,0.82
4587.00,0.82
4586.00,0.82
4585.00,0.83
4584.00,0.83
4583.00,0.83
4582.00,0.83
4581.00,0.83
4580.00,0.83
4579.00,0.84
4578.00,0.84
4577.00,0.84
4576.00,0.84
4575.00,0.84
4574.00,0.84
4573.00,0.84
4572.00,0.84
4571.00,0.84
4570.00,0.84
4569.00,0.84
4568.00,0.84
4567.00,0.84
4566.00,0.84
4565.00,0.85
4564.00,0.85
4563.00,0.85
4562.00,0.85
4561.00,0.85
4560.00,0.85
4559.00,0.85
4558.00,0.85
4557.00,0.85
4556.00,0.85
4555.00,0.85
4554.00,0.85
4553.00,0.85
4552.00,0.85
4551.00,0.85
4550.00,0.85
4549.00,0.85
4548.00,0.85
4547.00,0.85
4546.00,0.86
4545.00,0.86
4544.00,0.86
4543.00,0.86
4542.00,0.86
4541.00,0.86
4540.00,0.86
4539.00,0.86
4538.00,0.86
4537.00,0.86
4536.00,0.86
4535.00,0.86
4534.00,0.86
4533.00,0.86
4532.00,0.86
4531.00,0.86
4530.00,0.87
4529.00,0.87
4528.00,0.87
4527.00,0.87
4526.00,0.87
4525.00,0.87
4524.00,0.87
4523.00,0.87
4522.00,0.88
4521.00,0.88
4520.00,0.88
4519.00,0.88
4518.00,0.88
4517.00,0.88
4516.00,0.88
4515.00,0.88
4514.00,0.88
4513.00,0.88
4512.00,0.88
4511.00,0.88
4510.00,0.88
4509.00,0.88
4508.00,0.88
4507.00,0.88
4506.00,0.88
4505.00,0.88
4504.00,0.88
4503.00,0.88
4502.00,0.87
4501.00,0.87
4500.00,0.87
4499.00,0.87
4498.00,0.87
4497.00,0.87
4496.00,0.86
4495.00,0.86
4494.00,0.86
4493.00,0.86
4492.00,0.86
4491.00,0.86
4490.00,0.86
4489.00,0.86
4488.00,0.86
4487.00,0.86
4486.00,0.86
4485.00,0.86
4484.00,0.86
4483.00,0.85
4482.00,0.85
4481.00,0.85
4480.00,0.85
4479.00,0.85
4478.00,0.85
4477.00,0.85
4476.00,0.85
4475.00,0.85
4474.00,0.85
4473.00,0.85
4472.00,0.85
4471.00,0.85
4470.00,0.85
4469.00,0.85
4468.00,0.85
4467.00,0.85
4466.00,0.85
4465.00,0.85
4464.00,0.85
4463.00,0.85
4462.00,0.85
4461.00,0.85
4460.00,0.85
4459.00,0.85
4458.00,0.85
4457.00,0.85
4456.00,0.85
4455.00,0.85
4454.00,0.85
4453.00,0.85
4452.00,0.85
4451.00,0.84
4450.00,0.84
4449.00,0.84
4448.00,0.84
4447.00,0.84
4446.00,0.83
4445.00,0.83
4444.00,0.83
4443.00,0.83
4442.00,0.83
4441.00,0.83
4440.00,0.83
4439.00,0.82
4438.00,0.82
4437.00,0.82
4436.00,0.82
4435.00,0.82
4434.00,0.82
4433.00,0.82
4432.00,0.81
4431.00,0.81
4430.00,0.81
4429.00,0.81
4428.00,0.81
4427.00,0.81
4426.00,0.81
4425.00,0.81
4424.00,0.81
4423.00,0.81
4422.00,0.81
4421.00,0.81
4420.00,0.81
4419.00,0.81
4418.00,0.82
4417.00,0.82
4416.00,0.82
4415.00,0.82
4414.00,0.82
4413.00,0.82
4412.00,0.82
4411.00,0.82
4410.00,0.82
4409.00,0.82
4408.00,0.82
4407.00,0.82
4406.00,0.82
4405.00,0.82
4404.00,0.82
4403.00,0.83
4402.00,0.83
4401.00,0.83
4400.00,0.83
4399.00,0.83
4398.00,0.83
4397.00,0.83
4396.00,0.83
4395.00,0.83
4394.00,0.83
4393.00,0.83
4392.00,0.83
4391.00,0.84
4390.00,0.84
4389.00,0.84
4388.00,0.84
4387.00,0.84
4386.00,0.84
4385.00,0.84
4384.00,0.84
4383.00,0.84
4382.00,0.84
4381.00,0.84
4380.00,0.84
4379.00,0.84
4378.00,0.84
4377.00,0.84
4376.00,0.84
4375.00,0.84
4374.00,0.84
4373.00,0.84
4372.00,0.84
4371.00,0.84
4370.00,0.84
4369.00,0.84
4368.00,0.84
4367.00,0.84
4366.00,0.83
4365.00,0.83
4364.00,0.83
4363.00,0.83
4362.00,0.83
4361.00,0.83
4360.00,0.83
4359.00,0.82
4358.00,0.82
4357.00,0.82
4356.00,0.82
4355.00,0.82
4354.00,0.82
4353.00,0.82
4352.00,0.81
4351.00,0.81
4350.00,0.81
4349.00,0.81
4348.00,0.81
4347.00,0.81
4346.00,0.82
4345.00,0.82
4344.00,0.82
4343.00,0.82
4342.00,0.82
4341.00,0.82
4340.00,0.82
4339.00,0.82
4338.00,0.82
4337.00,0.82
4336.00,0.82
4335.00,0.82
4334.00,0.82
4333.00,0.82
4332.00,0.83
4331.00,0.83
4330.00,0.83
4329.00,0.83
4328.00,0.83
4327.00,0.83
4326.00,0.83
4325.00,0.83
4324.00,0.83
4323.00,0.83
4322.00,0.83
4321.00,0.83
4320.00,0.83
4319.00,0.83
4318.00,0.83
4317.00,0.83
4316.00,0.83
4315.00,0.83
4314.00,0.83
4313.00,0.83
4312.00,0.83
4311.00,0.83
4310.00,0.83
4309.00,0.83
4308.00,0.83
4307.00,0.83
4306.00,0.83
4305.00,0.83
4304.00,0.82
4303.00,0.82
4302.00,0.82
4301.00,0.82
4300.00,0.82
4299.00,0.82
4298.00,0.82
4297.00,0.82
4296.00,0.82
4295.00,0.82
4294.00,0.83
4293.00,0.83
4292.00,0.83
4291.00,0.83
4290.00,0.83
4289.00,0.83
4288.00,0.83
4287.00,0.83
4286.00,0.83
4285.00,0.84
4284.00,0.84
4283.00,0.84
4282.00,0.84
4281.00,0.84
4280.00,0.84
4279.00,0.84
4278.00,0.84
4277.00,0.85
4276.00,0.85
4275.00,0.85
4274.00,0.85
4273.00,0.85
4272.00,0.85
4271.00,0.85
4270.00,0.85
4269.00,0.85
4268.00,0.84
4267.00,0.84
4266.00,0.84
4265.00,0.84
4264.00,0.84
4263.00,0.84
4262.00,0.83
4261.00,0.83
4260.00,0.83
4259.00,0.83
4258.00,0.83
4257.00,0.82
4256.00,0.82
4255.00,0.82
4254.00,0.82
4253.00,0.82
4252.00,0.82
4251.00,0.82
4250.00,0.82
4249.00,0.82
4248.00,0.82
4247.00,0.82
4246.00,0.82
4245.00,0.82
4244.00,0.82
4243.00,0.82
4242.00,0.82
4241.00,0.82
4240.00,0.82
4239.00,0.82
4238.00,0.82
4237.00,0.83
4236.00,0.83
4235.00,0.83
4234.00,0.83
4233.00,0.84
4232.00,0.84
4231.00,0.84
4230.00,0.84
4229.00,0.85
4228.00,0.85
4227.00,0.85
4226.00,0.85
4225.00,0.85
4224.00,0.85
4223.00,0.85
4222.00,0.85
4221.00,0.85
4220.00,0.86
4219.00,0.86
4218.00,0.86
4217.00,0.86
4216.00,0.86
4215.00,0.86
4214.00,0.86
4213.00,0.87
4212.00,0.87
4211.00,0.87
4210.00,0.87
4209.00,0.87
4208.00,0.87
4207.00,0.87
4206.00,0.87
4205.00,0.87
4204.00,0.87
4203.00,0.87
4202.00,0.87
4201.00,0.87
4200.00,0.87
4199.00,0.87
4198.00,0.87
4197.00,0.87
4196.00,0.87
4195.00,0.87
4194.00,0.87
4193.00,0.87
4192.00,0.86
4191.00,0.86
4190.00,0.86
4189.00,0.86
4188.00,0.86
4187.00,0.86
4186.00,0.85
4185.00,0.85
4184.00,0.85
4183.00,0.85
4182.00,0.84
4181.00,0.84
4180.00,0.84
4179.00,0.84
4178.00,0.84
4177.00,0.83
4176.00,0.83
4175.00,0.83
4174.00,0.83
4173.00,0.83
4172.00,0.83
4171.00,0.83
4170.00,0.82
4169.00,0.82
4168.00,0.82
4167.00,0.82
4166.00,0.82
4165.00,0.82
4164.00,0.82
4163.00,0.82
4162.00,0.83
4161.00,0.83
4160.00,0.83
4159.00,0.83
4158.00,0.83
4157.00,0.83
4156.00,0.83
4155.00,0.84
4154.00,0.84
4153.00,0.84
4152.00,0.84
4151.00,0.84
4150.00,0.84
4149.00,0.84
4148.00,0.84
4147.00,0.85
4146.00,0.85
4145.00,0.85
4144.00,0.86
4143.00,0.86
4142.00,0.86
4141.00,0.86
4140.00,0.87
4139.00,0.87
4138.00,0.87
4137.00,0.87
4136.00,0.87
4135.00,0.87
4134.00,0.88
4133.00,0.88
4132.00,0.88
4131.00,0.88
4130.00,0.88
4129.00,0.88
4128.00,0.89
4127.00,0.89
4126.00,0.89
4125.00,0.90
4124.00,0.90
4123.00,0.90
4122.00,0.91
4121.00,0.91
4120.00,0.91
4119.00,0.91
4118.00,0.91
4117.00,0.92
4116.00,0.92
4115.00,0.92
4114.00,0.92
4113.00,0.92
4112.00,0.92
4111.00,0.93
4110.00,0.93
4109.00,0.93
4108.00,0.94
4107.00,0.94
4106.00,0.94
4105.00,0.94
4104.00,0.94
4103.00,0.95
4102.00,0.95
4101.00,0.95
4100.00,0.95
4099.00,0.95
4098.00,0.95
4097.00,0.95
4096.00,0.95
4095.00,0.95
4094.00,0.95
4093.00,0.94
4092.00,0.94
4091.00,0.94
4090.00,0.94
4089.00,0.94
4088.00,0.94
4087.00,0.93
4086.00,0.93
4085.00,0.93
4084.00,0.92
4083.00,0.92
4082.00,0.92
4081.00,0.91
4080.00,0.91
4079.00,0.91
4078.00,0.90
4077.00,0.90
4076.00,0.90
4075.00,0.89
4074.00,0.89
4073.00,0.89
4072.00,0.88
4071.00,0.88
4070.00,0.88
4069.00,0.88
4068.00,0.88
4067.00,0.87
4066.00,0.87
4065.00,0.87
4064.00,0.87
4063.00,0.87
4062.00,0.87
4061.00,0.87
4060.00,0.87
4059.00,0.87
4058.00,0.87
4057.00,0.88
4056.00,0.88
4055.00,0.88
4054.00,0.88
4053.00,0.89
4052.00,0.89
4051.00,0.89
4050.00,0.89
4049.00,0.90
4048.00,0.90
4047.00,0.90
4046.00,0.90
4045.00,0.91
4044.00,0.91
4043.00,0.91
4042.00,0.91
4041.00,0.92
4040.00,0.92
4039.00,0.92
4038.00,0.93
4037.00,0.93
4036.00,0.93
4035.00,0.93
4034.00,0.94
4033.00,0.94
4032.00,0.94
4031.00,0.94
4030.00,0.94
4029.00,0.94
4028.00,0.94
4027.00,0.94
4026.00,0.94
4025.00,0.94
4024.00,0.95
4023.00,0.95
4022.00,0.95
4021.00,0.96
4020.00,0.96
4019.00,0.97
4018.00,0.98
4017.00,0.99
4016.00,0.99
4015.00,1.00
4014.00,1.01
4013.00,1.02
4012.00,1.03
4011.00,1.04
4010.00,1.06
4009.00,1.07
4008.00,1.08
4007.00,1.10
4006.00,1.11
4005.00,1.13
4004.00,1.14
4003.00,1.16
4002.00,1.18
4001.00,1.20
4000.00,1.21
