创建为新数据集,样品 1002 用户 Administrator 日期 星期二, 七月 30 2019
cm-1,%T
10000.00,1.19
9999.00,1.16
9998.00,1.13
9997.00,1.11
9996.00,1.08
9995.00,1.05
9994.00,1.03
9993.00,1.01
9992.00,0.98
9991.00,0.96
9990.00,0.94
9989.00,0.92
9988.00,0.91
9987.00,0.89
9986.00,0.88
9985.00,0.86
9984.00,0.85
9983.00,0.84
9982.00,0.83
9981.00,0.82
9980.00,0.81
9979.00,0.80
9978.00,0.79
9977.00,0.78
9976.00,0.77
9975.00,0.77
9974.00,0.76
9973.00,0.76
9972.00,0.75
9971.00,0.75
9970.00,0.74
9969.00,0.74
9968.00,0.74
9967.00,0.73
9966.00,0.73
9965.00,0.72
9964.00,0.72
9963.00,0.71
9962.00,0.71
9961.00,0.70
9960.00,0.70
9959.00,0.70
9958.00,0.69
9957.00,0.69
9956.00,0.69
9955.00,0.69
9954.00,0.69
9953.00,0.69
9952.00,0.69
9951.00,0.69
9950.00,0.69
9949.00,0.70
9948.00,0.70
9947.00,0.70
9946.00,0.70
9945.00,0.70
9944.00,0.70
9943.00,0.71
9942.00,0.71
9941.00,0.71
9940.00,0.71
9939.00,0.71
9938.00,0.71
9937.00,0.71
9936.00,0.71
9935.00,0.71
9934.00,0.71
9933.00,0.71
9932.00,0.71
9931.00,0.70
9930.00,0.70
9929.00,0.70
9928.00,0.69
9927.00,0.69
9926.00,0.68
9925.00,0.68
9924.00,0.68
9923.00,0.67
9922.00,0.67
9921.00,0.66
9920.00,0.66
9919.00,0.66
9918.00,0.66
9917.00,0.66
9916.00,0.66
9915.00,0.66
9914.00,0.66
9913.00,0.66
9912.00,0.66
9911.00,0.66
9910.00,0.66
9909.00,0.66
9908.00,0.66
9907.00,0.66
9906.00,0.66
9905.00,0.66
9904.00,0.65
9903.00,0.65
9902.00,0.65
9901.00,0.65
9900.00,0.65
9899.00,0.64
9898.00,0.64
9897.00,0.63
9896.00,0.63
9895.00,0.62
9894.00,0.61
9893.00,0.61
9892.00,0.60
9891.00,0.59
9890.00,0.58
9889.00,0.58
9888.00,0.57
9887.00,0.56
9886.00,0.55
9885.00,0.55
9884.00,0.54
9883.00,0.53
9882.00,0.53
9881.00,0.52
9880.00,0.52
9879.00,0.51
9878.00,0.51
9877.00,0.51
9876.00,0.51
9875.00,0.51
9874.00,0.51
9873.00,0.51
9872.00,0.52
9871.00,0.52
9870.00,0.53
9869.00,0.54
9868.00,0.55
9867.00,0.56
9866.00,0.57
9865.00,0.58
9864.00,0.59
9863.00,0.60
9862.00,0.61
9861.00,0.61
9860.00,0.62
9859.00,0.63
9858.00,0.64
9857.00,0.64
9856.00,0.65
9855.00,0.66
9854.00,0.67
9853.00,0.68
9852.00,0.68
9851.00,0.69
9850.00,0.70
9849.00,0.71
9848.00,0.72
9847.00,0.73
9846.00,0.74
9845.00,0.74
9844.00,0.75
9843.00,0.75
9842.00,0.75
9841.00,0.75
9840.00,0.75
9839.00,0.75
9838.00,0.75
9837.00,0.75
9836.00,0.74
9835.00,0.74
9834.00,0.74
9833.00,0.74
9832.00,0.74
9831.00,0.74
9830.00,0.74
9829.00,0.74
9828.00,0.74
9827.00,0.74
9826.00,0.74
9825.00,0.73
9824.00,0.73
9823.00,0.72
9822.00,0.71
9821.00,0.71
9820.00,0.70
9819.00,0.69
9818.00,0.68
9817.00,0.68
9816.00,0.67
9815.00,0.66
9814.00,0.66
9813.00,0.66
9812.00,0.65
9811.00,0.65
9810.00,0.65
9809.00,0.64
9808.00,0.64
9807.00,0.64
9806.00,0.64
9805.00,0.64
9804.00,0.64
9803.00,0.63
9802.00,0.63
9801.00,0.63
9800.00,0.63
9799.00,0.63
9798.00,0.63
9797.00,0.64
9796.00,0.64
9795.00,0.64
9794.00,0.65
9793.00,0.65
9792.00,0.65
9791.00,0.66
9790.00,0.66
9789.00,0.67
9788.00,0.67
9787.00,0.67
9786.00,0.68
9785.00,0.68
9784.00,0.68
9783.00,0.68
9782.00,0.67
9781.00,0.67
9780.00,0.67
9779.00,0.67
9778.00,0.66
9777.00,0.66
9776.00,0.66
9775.00,0.65
9774.00,0.65
9773.00,0.64
9772.00,0.64
9771.00,0.63
9770.00,0.62
9769.00,0.61
9768.00,0.60
9767.00,0.59
9766.00,0.58
9765.00,0.57
9764.00,0.56
9763.00,0.55
9762.00,0.54
9761.00,0.53
9760.00,0.52
9759.00,0.52
9758.00,0.51
9757.00,0.50
9756.00,0.50
9755.00,0.49
9754.00,0.49
9753.00,0.49
9752.00,0.48
9751.00,0.48
9750.00,0.48
9749.00,0.48
9748.00,0.48
9747.00,0.48
9746.00,0.48
9745.00,0.48
9744.00,0.48
9743.00,0.48
9742.00,0.49
9741.00,0.49
9740.00,0.50
9739.00,0.50
9738.00,0.51
9737.00,0.51
9736.00,0.52
9735.00,0.53
9734.00,0.53
9733.00,0.54
9732.00,0.55
9731.00,0.55
9730.00,0.56
9729.00,0.57
9728.00,0.57
9727.00,0.58
9726.00,0.58
9725.00,0.59
9724.00,0.59
9723.00,0.59
9722.00,0.60
9721.00,0.60
9720.00,0.61
9719.00,0.61
9718.00,0.61
9717.00,0.61
9716.00,0.61
9715.00,0.62
9714.00,0.62
9713.00,0.62
9712.00,0.62
9711.00,0.62
9710.00,0.62
9709.00,0.62
9708.00,0.62
9707.00,0.62
9706.00,0.62
9705.00,0.62
9704.00,0.62
9703.00,0.62
9702.00,0.62
9701.00,0.61
9700.00,0.61
9699.00,0.61
9698.00,0.61
9697.00,0.61
9696.00,0.61
9695.00,0.61
9694.00,0.61
9693.00,0.61
9692.00,0.61
9691.00,0.61
9690.00,0.61
9689.00,0.61
9688.00,0.61
9687.00,0.62
9686.00,0.62
9685.00,0.62
9684.00,0.62
9683.00,0.62
9682.00,0.63
9681.00,0.63
9680.00,0.63
9679.00,0.63
9678.00,0.64
9677.00,0.64
9676.00,0.64
9675.00,0.64
9674.00,0.64
9673.00,0.64
9672.00,0.64
9671.00,0.65
9670.00,0.65
9669.00,0.65
9668.00,0.65
9667.00,0.65
9666.00,0.65
9665.00,0.65
9664.00,0.65
9663.00,0.65
9662.00,0.65
9661.00,0.65
9660.00,0.65
9659.00,0.65
9658.00,0.65
9657.00,0.65
9656.00,0.65
9655.00,0.65
9654.00,0.65
9653.00,0.65
9652.00,0.65
9651.00,0.65
9650.00,0.65
9649.00,0.66
9648.00,0.66
9647.00,0.66
9646.00,0.66
9645.00,0.67
9644.00,0.67
9643.00,0.67
9642.00,0.67
9641.00,0.67
9640.00,0.67
9639.00,0.67
9638.00,0.68
9637.00,0.68
9636.00,0.68
9635.00,0.68
9634.00,0.68
9633.00,0.68
9632.00,0.68
9631.00,0.69
9630.00,0.69
9629.00,0.69
9628.00,0.69
9627.00,0.69
9626.00,0.69
9625.00,0.69
9624.00,0.69
9623.00,0.69
9622.00,0.69
9621.00,0.69
9620.00,0.69
9619.00,0.69
9618.00,0.69
9617.00,0.69
9616.00,0.69
9615.00,0.69
9614.00,0.69
9613.00,0.69
9612.00,0.69
9611.00,0.69
9610.00,0.69
9609.00,0.69
9608.00,0.69
9607.00,0.69
9606.00,0.69
9605.00,0.69
9604.00,0.69
9603.00,0.69
9602.00,0.69
9601.00,0.69
9600.00,0.69
9599.00,0.69
9598.00,0.69
9597.00,0.69
9596.00,0.69
9595.00,0.69
9594.00,0.69
9593.00,0.69
9592.00,0.69
9591.00,0.69
9590.00,0.69
9589.00,0.69
9588.00,0.69
9587.00,0.69
9586.00,0.69
9585.00,0.69
9584.00,0.69
9583.00,0.69
9582.00,0.68
9581.00,0.68
9580.00,0.67
9579.00,0.67
9578.00,0.66
9577.00,0.66
9576.00,0.65
9575.00,0.64
9574.00,0.63
9573.00,0.63
9572.00,0.62
9571.00,0.61
9570.00,0.60
9569.00,0.59
9568.00,0.58
9567.00,0.57
9566.00,0.56
9565.00,0.56
9564.00,0.55
9563.00,0.54
9562.00,0.53
9561.00,0.53
9560.00,0.52
9559.00,0.51
9558.00,0.51
9557.00,0.51
9556.00,0.51
9555.00,0.51
9554.00,0.51
9553.00,0.51
9552.00,0.51
9551.00,0.51
9550.00,0.51
9549.00,0.52
9548.00,0.52
9547.00,0.53
9546.00,0.53
9545.00,0.54
9544.00,0.54
9543.00,0.55
9542.00,0.56
9541.00,0.56
9540.00,0.57
9539.00,0.57
9538.00,0.58
9537.00,0.58
9536.00,0.59
9535.00,0.59
9534.00,0.60
9533.00,0.60
9532.00,0.60
9531.00,0.61
9530.00,0.61
9529.00,0.61
9528.00,0.61
9527.00,0.61
9526.00,0.61
9525.00,0.62
9524.00,0.62
9523.00,0.62
9522.00,0.62
9521.00,0.62
9520.00,0.62
9519.00,0.62
9518.00,0.63
9517.00,0.63
9516.00,0.63
9515.00,0.63
9514.00,0.63
9513.00,0.63
9512.00,0.63
9511.00,0.63
9510.00,0.63
9509.00,0.63
9508.00,0.63
9507.00,0.63
9506.00,0.63
9505.00,0.63
9504.00,0.63
9503.00,0.63
9502.00,0.63
9501.00,0.63
9500.00,0.63
9499.00,0.63
9498.00,0.63
9497.00,0.63
9496.00,0.63
9495.00,0.62
9494.00,0.62
9493.00,0.62
9492.00,0.62
9491.00,0.61
9490.00,0.61
9489.00,0.61
9488.00,0.61
9487.00,0.61
9486.00,0.61
9485.00,0.61
9484.00,0.61
9483.00,0.61
9482.00,0.61
9481.00,0.60
9480.00,0.60
9479.00,0.60
9478.00,0.60
9477.00,0.60
9476.00,0.60
9475.00,0.60
9474.00,0.59
9473.00,0.59
9472.00,0.60
9471.00,0.60
9470.00,0.60
9469.00,0.60
9468.00,0.60
9467.00,0.60
9466.00,0.60
9465.00,0.60
9464.00,0.60
9463.00,0.60
9462.00,0.60
9461.00,0.60
9460.00,0.60
9459.00,0.60
9458.00,0.60
9457.00,0.60
9456.00,0.60
9455.00,0.60
9454.00,0.59
9453.00,0.59
9452.00,0.59
9451.00,0.59
9450.00,0.59
9449.00,0.59
9448.00,0.60
9447.00,0.60
9446.00,0.60
9445.00,0.60
9444.00,0.60
9443.00,0.60
9442.00,0.60
9441.00,0.60
9440.00,0.60
9439.00,0.60
9438.00,0.60
9437.00,0.60
9436.00,0.60
9435.00,0.61
9434.00,0.61
9433.00,0.61
9432.00,0.61
9431.00,0.62
9430.00,0.62
9429.00,0.63
9428.00,0.63
9427.00,0.64
9426.00,0.64
9425.00,0.65
9424.00,0.65
9423.00,0.66
9422.00,0.66
9421.00,0.67
9420.00,0.67
9419.00,0.68
9418.00,0.68
9417.00,0.69
9416.00,0.69
9415.00,0.70
9414.00,0.70
9413.00,0.71
9412.00,0.71
9411.00,0.72
9410.00,0.72
9409.00,0.73
9408.00,0.73
9407.00,0.74
9406.00,0.74
9405.00,0.74
9404.00,0.75
9403.00,0.75
9402.00,0.75
9401.00,0.75
9400.00,0.76
9399.00,0.76
9398.00,0.76
9397.00,0.76
9396.00,0.77
9395.00,0.77
9394.00,0.77
9393.00,0.78
9392.00,0.78
9391.00,0.78
9390.00,0.78
9389.00,0.78
9388.00,0.78
9387.00,0.78
9386.00,0.78
9385.00,0.78
9384.00,0.78
9383.00,0.78
9382.00,0.78
9381.00,0.78
9380.00,0.78
9379.00,0.78
9378.00,0.78
9377.00,0.78
9376.00,0.78
9375.00,0.78
9374.00,0.78
9373.00,0.79
9372.00,0.78
9371.00,0.78
9370.00,0.78
9369.00,0.78
9368.00,0.78
9367.00,0.78
9366.00,0.78
9365.00,0.78
9364.00,0.78
9363.00,0.77
9362.00,0.78
9361.00,0.78
9360.00,0.78
9359.00,0.78
9358.00,0.78
9357.00,0.78
9356.00,0.78
9355.00,0.78
9354.00,0.78
9353.00,0.78
9352.00,0.78
9351.00,0.78
9350.00,0.78
9349.00,0.78
9348.00,0.77
9347.00,0.77
9346.00,0.77
9345.00,0.76
9344.00,0.76
9343.00,0.76
9342.00,0.75
9341.00,0.75
9340.00,0.74
9339.00,0.74
9338.00,0.74
9337.00,0.73
9336.00,0.73
9335.00,0.72
9334.00,0.72
9333.00,0.72
9332.00,0.71
9331.00,0.71
9330.00,0.71
9329.00,0.71
9328.00,0.70
9327.00,0.70
9326.00,0.70
9325.00,0.70
9324.00,0.69
9323.00,0.69
9322.00,0.69
9321.00,0.69
9320.00,0.69
9319.00,0.69
9318.00,0.69
9317.00,0.69
9316.00,0.69
9315.00,0.69
9314.00,0.69
9313.00,0.70
9312.00,0.70
9311.00,0.70
9310.00,0.70
9309.00,0.70
9308.00,0.70
9307.00,0.70
9306.00,0.71
9305.00,0.71
9304.00,0.71
9303.00,0.71
9302.00,0.70
9301.00,0.70
9300.00,0.70
9299.00,0.70
9298.00,0.70
9297.00,0.70
9296.00,0.70
9295.00,0.70
9294.00,0.70
9293.00,0.71
9292.00,0.71
9291.00,0.71
9290.00,0.71
9289.00,0.71
9288.00,0.72
9287.00,0.72
9286.00,0.72
9285.00,0.72
9284.00,0.72
9283.00,0.72
9282.00,0.72
9281.00,0.72
9280.00,0.72
9279.00,0.73
9278.00,0.73
9277.00,0.73
9276.00,0.73
9275.00,0.73
9274.00,0.73
9273.00,0.74
9272.00,0.74
9271.00,0.74
9270.00,0.74
9269.00,0.75
9268.00,0.75
9267.00,0.75
9266.00,0.75
9265.00,0.75
9264.00,0.75
9263.00,0.76
9262.00,0.76
9261.00,0.76
9260.00,0.76
9259.00,0.77
9258.00,0.77
9257.00,0.77
9256.00,0.78
9255.00,0.78
9254.00,0.79
9253.00,0.79
9252.00,0.80
9251.00,0.80
9250.00,0.80
9249.00,0.81
9248.00,0.81
9247.00,0.81
9246.00,0.81
9245.00,0.82
9244.00,0.82
9243.00,0.82
9242.00,0.82
9241.00,0.82
9240.00,0.82
9239.00,0.82
9238.00,0.82
9237.00,0.82
9236.00,0.82
9235.00,0.82
9234.00,0.81
9233.00,0.81
9232.00,0.81
9231.00,0.80
9230.00,0.80
9229.00,0.79
9228.00,0.79
9227.00,0.78
9226.00,0.77
9225.00,0.77
9224.00,0.77
9223.00,0.76
9222.00,0.76
9221.00,0.76
9220.00,0.75
9219.00,0.75
9218.00,0.75
9217.00,0.75
9216.00,0.74
9215.00,0.74
9214.00,0.74
9213.00,0.73
9212.00,0.73
9211.00,0.72
9210.00,0.72
9209.00,0.72
9208.00,0.71
9207.00,0.71
9206.00,0.70
9205.00,0.70
9204.00,0.70
9203.00,0.69
9202.00,0.69
9201.00,0.69
9200.00,0.68
9199.00,0.68
9198.00,0.68
9197.00,0.67
9196.00,0.67
9195.00,0.67
9194.00,0.66
9193.00,0.66
9192.00,0.66
9191.00,0.65
9190.00,0.65
9189.00,0.65
9188.00,0.65
9187.00,0.65
9186.00,0.65
9185.00,0.65
9184.00,0.66
9183.00,0.66
9182.00,0.66
9181.00,0.67
9180.00,0.67
9179.00,0.68
9178.00,0.68
9177.00,0.69
9176.00,0.69
9175.00,0.70
9174.00,0.70
9173.00,0.70
9172.00,0.70
9171.00,0.70
9170.00,0.71
9169.00,0.71
9168.00,0.71
9167.00,0.71
9166.00,0.71
9165.00,0.70
9164.00,0.70
9163.00,0.70
9162.00,0.70
9161.00,0.69
9160.00,0.69
9159.00,0.68
9158.00,0.67
9157.00,0.67
9156.00,0.66
9155.00,0.65
9154.00,0.64
9153.00,0.63
9152.00,0.62
9151.00,0.62
9150.00,0.61
9149.00,0.60
9148.00,0.60
9147.00,0.59
9146.00,0.58
9145.00,0.58
9144.00,0.58
9143.00,0.57
9142.00,0.57
9141.00,0.57
9140.00,0.57
9139.00,0.57
9138.00,0.56
9137.00,0.56
9136.00,0.56
9135.00,0.57
9134.00,0.57
9133.00,0.57
9132.00,0.57
9131.00,0.57
9130.00,0.57
9129.00,0.58
9128.00,0.58
9127.00,0.58
9126.00,0.58
9125.00,0.58
9124.00,0.58
9123.00,0.59
9122.00,0.59
9121.00,0.59
9120.00,0.59
9119.00,0.59
9118.00,0.59
9117.00,0.59
9116.00,0.59
9115.00,0.59
9114.00,0.59
9113.00,0.59
9112.00,0.58
9111.00,0.58
9110.00,0.58
9109.00,0.58
9108.00,0.58
9107.00,0.58
9106.00,0.58
9105.00,0.58
9104.00,0.58
9103.00,0.58
9102.00,0.58
9101.00,0.58
9100.00,0.58
9099.00,0.58
9098.00,0.58
9097.00,0.58
9096.00,0.59
9095.00,0.59
9094.00,0.59
9093.00,0.59
9092.00,0.59
9091.00,0.59
9090.00,0.59
9089.00,0.59
9088.00,0.59
9087.00,0.59
9086.00,0.59
9085.00,0.59
9084.00,0.59
9083.00,0.59
9082.00,0.59
9081.00,0.59
9080.00,0.59
9079.00,0.59
9078.00,0.59
9077.00,0.59
9076.00,0.59
9075.00,0.59
9074.00,0.59
9073.00,0.59
9072.00,0.59
9071.00,0.59
9070.00,0.59
9069.00,0.59
9068.00,0.59
9067.00,0.59
9066.00,0.59
9065.00,0.60
9064.00,0.60
9063.00,0.60
9062.00,0.61
9061.00,0.61
9060.00,0.61
9059.00,0.62
9058.00,0.62
9057.00,0.62
9056.00,0.62
9055.00,0.63
9054.00,0.63
9053.00,0.63
9052.00,0.63
9051.00,0.64
9050.00,0.64
9049.00,0.64
9048.00,0.65
9047.00,0.65
9046.00,0.66
9045.00,0.66
9044.00,0.67
9043.00,0.67
9042.00,0.67
9041.00,0.67
9040.00,0.68
9039.00,0.68
9038.00,0.68
9037.00,0.68
9036.00,0.68
9035.00,0.68
9034.00,0.68
9033.00,0.69
9032.00,0.69
9031.00,0.69
9030.00,0.69
9029.00,0.69
9028.00,0.69
9027.00,0.70
9026.00,0.70
9025.00,0.70
9024.00,0.70
9023.00,0.70
9022.00,0.69
9021.00,0.69
9020.00,0.69
9019.00,0.69
9018.00,0.69
9017.00,0.69
9016.00,0.69
9015.00,0.69
9014.00,0.69
9013.00,0.69
9012.00,0.69
9011.00,0.69
9010.00,0.69
9009.00,0.69
9008.00,0.68
9007.00,0.68
9006.00,0.68
9005.00,0.68
9004.00,0.67
9003.00,0.67
9002.00,0.66
9001.00,0.66
9000.00,0.66
8999.00,0.65
8998.00,0.65
8997.00,0.65
8996.00,0.64
8995.00,0.64
8994.00,0.63
8993.00,0.63
8992.00,0.63
8991.00,0.62
8990.00,0.62
8989.00,0.61
8988.00,0.61
8987.00,0.60
8986.00,0.60
8985.00,0.59
8984.00,0.58
8983.00,0.58
8982.00,0.58
8981.00,0.57
8980.00,0.57
8979.00,0.57
8978.00,0.57
8977.00,0.56
8976.00,0.56
8975.00,0.56
8974.00,0.56
8973.00,0.56
8972.00,0.56
8971.00,0.56
8970.00,0.56
8969.00,0.56
8968.00,0.56
8967.00,0.56
8966.00,0.56
8965.00,0.56
8964.00,0.56
8963.00,0.56
8962.00,0.57
8961.00,0.57
8960.00,0.57
8959.00,0.58
8958.00,0.58
8957.00,0.58
8956.00,0.59
8955.00,0.59
8954.00,0.59
8953.00,0.59
8952.00,0.60
8951.00,0.60
8950.00,0.60
8949.00,0.61
8948.00,0.61
8947.00,0.61
8946.00,0.61
8945.00,0.62
8944.00,0.62
8943.00,0.63
8942.00,0.63
8941.00,0.63
8940.00,0.64
8939.00,0.64
8938.00,0.65
8937.00,0.65
8936.00,0.65
8935.00,0.66
8934.00,0.66
8933.00,0.66
8932.00,0.66
8931.00,0.67
8930.00,0.67
8929.00,0.67
8928.00,0.67
8927.00,0.67
8926.00,0.67
8925.00,0.67
8924.00,0.67
8923.00,0.67
8922.00,0.67
8921.00,0.67
8920.00,0.67
8919.00,0.67
8918.00,0.67
8917.00,0.67
8916.00,0.66
8915.00,0.66
8914.00,0.66
8913.00,0.66
8912.00,0.65
8911.00,0.65
8910.00,0.65
8909.00,0.65
8908.00,0.65
8907.00,0.65
8906.00,0.65
8905.00,0.65
8904.00,0.65
8903.00,0.65
8902.00,0.65
8901.00,0.66
8900.00,0.66
8899.00,0.66
8898.00,0.67
8897.00,0.67
8896.00,0.67
8895.00,0.68
8894.00,0.68
8893.00,0.68
8892.00,0.68
8891.00,0.68
8890.00,0.69
8889.00,0.69
8888.00,0.69
8887.00,0.69
8886.00,0.70
8885.00,0.70
8884.00,0.70
8883.00,0.70
8882.00,0.70
8881.00,0.70
8880.00,0.70
8879.00,0.70
8878.00,0.70
8877.00,0.70
8876.00,0.70
8875.00,0.70
8874.00,0.70
8873.00,0.69
8872.00,0.69
8871.00,0.69
8870.00,0.69
8869.00,0.68
8868.00,0.68
8867.00,0.68
8866.00,0.68
8865.00,0.68
8864.00,0.68
8863.00,0.68
8862.00,0.68
8861.00,0.67
8860.00,0.67
8859.00,0.67
8858.00,0.67
8857.00,0.67
8856.00,0.67
8855.00,0.67
8854.00,0.67
8853.00,0.68
8852.00,0.68
8851.00,0.68
8850.00,0.68
8849.00,0.68
8848.00,0.68
8847.00,0.68
8846.00,0.69
8845.00,0.69
8844.00,0.69
8843.00,0.70
8842.00,0.70
8841.00,0.70
8840.00,0.70
8839.00,0.70
8838.00,0.70
8837.00,0.71
8836.00,0.71
8835.00,0.71
8834.00,0.71
8833.00,0.71
8832.00,0.71
8831.00,0.71
8830.00,0.71
8829.00,0.71
8828.00,0.71
8827.00,0.71
8826.00,0.71
8825.00,0.71
8824.00,0.71
8823.00,0.71
8822.00,0.71
8821.00,0.71
8820.00,0.71
8819.00,0.71
8818.00,0.71
8817.00,0.70
8816.00,0.70
8815.00,0.70
8814.00,0.70
8813.00,0.70
8812.00,0.70
8811.00,0.70
8810.00,0.70
8809.00,0.70
8808.00,0.70
8807.00,0.70
8806.00,0.70
8805.00,0.70
8804.00,0.70
8803.00,0.70
8802.00,0.71
8801.00,0.71
8800.00,0.71
8799.00,0.71
8798.00,0.71
8797.00,0.71
8796.00,0.71
8795.00,0.71
8794.00,0.71
8793.00,0.71
8792.00,0.72
8791.00,0.72
8790.00,0.72
8789.00,0.72
8788.00,0.73
8787.00,0.73
8786.00,0.74
8785.00,0.74
8784.00,0.74
8783.00,0.75
8782.00,0.75
8781.00,0.76
8780.00,0.76
8779.00,0.76
8778.00,0.77
8777.00,0.77
8776.00,0.77
8775.00,0.77
8774.00,0.77
8773.00,0.77
8772.00,0.77
8771.00,0.77
8770.00,0.77
8769.00,0.77
8768.00,0.77
8767.00,0.77
8766.00,0.77
8765.00,0.76
8764.00,0.76
8763.00,0.75
8762.00,0.75
8761.00,0.74
8760.00,0.73
8759.00,0.72
8758.00,0.71
8757.00,0.70
8756.00,0.68
8755.00,0.67
8754.00,0.66
8753.00,0.65
8752.00,0.64
8751.00,0.63
8750.00,0.62
8749.00,0.61
8748.00,0.60
8747.00,0.60
8746.00,0.59
8745.00,0.58
8744.00,0.58
8743.00,0.57
8742.00,0.57
8741.00,0.56
8740.00,0.56
8739.00,0.56
8738.00,0.56
8737.00,0.56
8736.00,0.56
8735.00,0.56
8734.00,0.56
8733.00,0.57
8732.00,0.57
8731.00,0.58
8730.00,0.58
8729.00,0.59
8728.00,0.60
8727.00,0.60
8726.00,0.61
8725.00,0.62
8724.00,0.62
8723.00,0.63
8722.00,0.64
8721.00,0.64
8720.00,0.65
8719.00,0.65
8718.00,0.66
8717.00,0.66
8716.00,0.66
8715.00,0.67
8714.00,0.67
8713.00,0.67
8712.00,0.67
8711.00,0.68
8710.00,0.68
8709.00,0.68
8708.00,0.68
8707.00,0.68
8706.00,0.68
8705.00,0.68
8704.00,0.68
8703.00,0.68
8702.00,0.68
8701.00,0.68
8700.00,0.68
8699.00,0.68
8698.00,0.68
8697.00,0.68
8696.00,0.68
8695.00,0.68
8694.00,0.68
8693.00,0.68
8692.00,0.68
8691.00,0.68
8690.00,0.68
8689.00,0.68
8688.00,0.67
8687.00,0.67
8686.00,0.67
8685.00,0.67
8684.00,0.67
8683.00,0.67
8682.00,0.66
8681.00,0.66
8680.00,0.66
8679.00,0.66
8678.00,0.66
8677.00,0.65
8676.00,0.65
8675.00,0.65
8674.00,0.65
8673.00,0.65
8672.00,0.64
8671.00,0.64
8670.00,0.64
8669.00,0.64
8668.00,0.64
8667.00,0.63
8666.00,0.63
8665.00,0.63
8664.00,0.63
8663.00,0.62
8662.00,0.62
8661.00,0.62
8660.00,0.62
8659.00,0.62
8658.00,0.62
8657.00,0.62
8656.00,0.62
8655.00,0.62
8654.00,0.61
8653.00,0.61
8652.00,0.61
8651.00,0.61
8650.00,0.61
8649.00,0.61
8648.00,0.60
8647.00,0.60
8646.00,0.60
8645.00,0.60
8644.00,0.60
8643.00,0.59
8642.00,0.59
8641.00,0.59
8640.00,0.59
8639.00,0.59
8638.00,0.58
8637.00,0.58
8636.00,0.58
8635.00,0.57
8634.00,0.57
8633.00,0.57
8632.00,0.57
8631.00,0.56
8630.00,0.56
8629.00,0.56
8628.00,0.56
8627.00,0.56
8626.00,0.56
8625.00,0.56
8624.00,0.56
8623.00,0.55
8622.00,0.55
8621.00,0.55
8620.00,0.56
8619.00,0.56
8618.00,0.56
8617.00,0.56
8616.00,0.56
8615.00,0.57
8614.00,0.57
8613.00,0.57
8612.00,0.58
8611.00,0.58
8610.00,0.59
8609.00,0.59
8608.00,0.60
8607.00,0.60
8606.00,0.61
8605.00,0.61
8604.00,0.62
8603.00,0.62
8602.00,0.63
8601.00,0.63
8600.00,0.64
8599.00,0.64
8598.00,0.65
8597.00,0.65
8596.00,0.66
8595.00,0.66
8594.00,0.67
8593.00,0.67
8592.00,0.68
8591.00,0.68
8590.00,0.69
8589.00,0.69
8588.00,0.69
8587.00,0.69
8586.00,0.70
8585.00,0.70
8584.00,0.70
8583.00,0.70
8582.00,0.70
8581.00,0.70
8580.00,0.70
8579.00,0.70
8578.00,0.70
8577.00,0.70
8576.00,0.70
8575.00,0.70
8574.00,0.70
8573.00,0.70
8572.00,0.70
8571.00,0.69
8570.00,0.69
8569.00,0.69
8568.00,0.69
8567.00,0.68
8566.00,0.68
8565.00,0.67
8564.00,0.67
8563.00,0.67
8562.00,0.67
8561.00,0.66
8560.00,0.66
8559.00,0.66
8558.00,0.66
8557.00,0.66
8556.00,0.66
8555.00,0.66
8554.00,0.66
8553.00,0.66
8552.00,0.66
8551.00,0.66
8550.00,0.66
8549.00,0.65
8548.00,0.65
8547.00,0.65
8546.00,0.65
8545.00,0.65
8544.00,0.65
8543.00,0.65
8542.00,0.65
8541.00,0.65
8540.00,0.65
8539.00,0.65
8538.00,0.65
8537.00,0.64
8536.00,0.64
8535.00,0.64
8534.00,0.64
8533.00,0.63
8532.00,0.63
8531.00,0.63
8530.00,0.63
8529.00,0.63
8528.00,0.62
8527.00,0.62
8526.00,0.62
8525.00,0.62
8524.00,0.62
8523.00,0.62
8522.00,0.62
8521.00,0.62
8520.00,0.62
8519.00,0.62
8518.00,0.62
8517.00,0.62
8516.00,0.62
8515.00,0.62
8514.00,0.63
8513.00,0.63
8512.00,0.63
8511.00,0.63
8510.00,0.63
8509.00,0.63
8508.00,0.63
8507.00,0.63
8506.00,0.63
8505.00,0.63
8504.00,0.62
8503.00,0.62
8502.00,0.62
8501.00,0.61
8500.00,0.61
8499.00,0.60
8498.00,0.60
8497.00,0.59
8496.00,0.59
8495.00,0.58
8494.00,0.58
8493.00,0.57
8492.00,0.57
8491.00,0.56
8490.00,0.56
8489.00,0.55
8488.00,0.55
8487.00,0.54
8486.00,0.53
8485.00,0.53
8484.00,0.53
8483.00,0.52
8482.00,0.52
8481.00,0.52
8480.00,0.52
8479.00,0.52
8478.00,0.52
8477.00,0.52
8476.00,0.53
8475.00,0.53
8474.00,0.53
8473.00,0.54
8472.00,0.54
8471.00,0.55
8470.00,0.55
8469.00,0.55
8468.00,0.56
8467.00,0.56
8466.00,0.57
8465.00,0.57
8464.00,0.58
8463.00,0.58
8462.00,0.59
8461.00,0.59
8460.00,0.60
8459.00,0.61
8458.00,0.61
8457.00,0.62
8456.00,0.62
8455.00,0.62
8454.00,0.63
8453.00,0.63
8452.00,0.63
8451.00,0.63
8450.00,0.64
8449.00,0.64
8448.00,0.64
8447.00,0.64
8446.00,0.64
8445.00,0.64
8444.00,0.64
8443.00,0.64
8442.00,0.64
8441.00,0.64
8440.00,0.64
8439.00,0.64
8438.00,0.64
8437.00,0.64
8436.00,0.63
8435.00,0.63
8434.00,0.63
8433.00,0.63
8432.00,0.63
8431.00,0.62
8430.00,0.62
8429.00,0.62
8428.00,0.61
8427.00,0.61
8426.00,0.61
8425.00,0.60
8424.00,0.60
8423.00,0.59
8422.00,0.59
8421.00,0.59
8420.00,0.58
8419.00,0.58
8418.00,0.58
8417.00,0.57
8416.00,0.57
8415.00,0.57
8414.00,0.57
8413.00,0.57
8412.00,0.57
8411.00,0.57
8410.00,0.57
8409.00,0.57
8408.00,0.57
8407.00,0.57
8406.00,0.57
8405.00,0.57
8404.00,0.58
8403.00,0.58
8402.00,0.58
8401.00,0.59
8400.00,0.59
8399.00,0.60
8398.00,0.60
8397.00,0.61
8396.00,0.61
8395.00,0.62
8394.00,0.62
8393.00,0.62
8392.00,0.63
8391.00,0.63
8390.00,0.64
8389.00,0.64
8388.00,0.64
8387.00,0.64
8386.00,0.65
8385.00,0.65
8384.00,0.65
8383.00,0.65
8382.00,0.65
8381.00,0.65
8380.00,0.65
8379.00,0.65
8378.00,0.65
8377.00,0.65
8376.00,0.65
8375.00,0.64
8374.00,0.64
8373.00,0.64
8372.00,0.64
8371.00,0.63
8370.00,0.63
8369.00,0.63
8368.00,0.63
8367.00,0.62
8366.00,0.62
8365.00,0.62
8364.00,0.62
8363.00,0.62
8362.00,0.62
8361.00,0.62
8360.00,0.62
8359.00,0.62
8358.00,0.63
8357.00,0.63
8356.00,0.63
8355.00,0.63
8354.00,0.63
8353.00,0.63
8352.00,0.63
8351.00,0.63
8350.00,0.63
8349.00,0.63
8348.00,0.63
8347.00,0.63
8346.00,0.63
8345.00,0.64
8344.00,0.64
8343.00,0.64
8342.00,0.64
8341.00,0.64
8340.00,0.64
8339.00,0.64
8338.00,0.64
8337.00,0.64
8336.00,0.64
8335.00,0.64
8334.00,0.64
8333.00,0.64
8332.00,0.64
8331.00,0.64
8330.00,0.64
8329.00,0.64
8328.00,0.64
8327.00,0.64
8326.00,0.64
8325.00,0.64
8324.00,0.64
8323.00,0.64
8322.00,0.64
8321.00,0.64
8320.00,0.64
8319.00,0.64
8318.00,0.65
8317.00,0.65
8316.00,0.65
8315.00,0.65
8314.00,0.65
8313.00,0.66
8312.00,0.66
8311.00,0.66
8310.00,0.67
8309.00,0.67
8308.00,0.67
8307.00,0.68
8306.00,0.68
8305.00,0.68
8304.00,0.69
8303.00,0.69
8302.00,0.70
8301.00,0.70
8300.00,0.71
8299.00,0.71
8298.00,0.72
8297.00,0.72
8296.00,0.73
8295.00,0.73
8294.00,0.73
8293.00,0.74
8292.00,0.74
8291.00,0.74
8290.00,0.74
8289.00,0.74
8288.00,0.74
8287.00,0.74
8286.00,0.74
8285.00,0.74
8284.00,0.74
8283.00,0.74
8282.00,0.74
8281.00,0.73
8280.00,0.73
8279.00,0.73
8278.00,0.72
8277.00,0.72
8276.00,0.72
8275.00,0.71
8274.00,0.71
8273.00,0.71
8272.00,0.70
8271.00,0.70
8270.00,0.69
8269.00,0.69
8268.00,0.69
8267.00,0.69
8266.00,0.68
8265.00,0.68
8264.00,0.68
8263.00,0.68
8262.00,0.68
8261.00,0.68
8260.00,0.68
8259.00,0.68
8258.00,0.68
8257.00,0.67
8256.00,0.67
8255.00,0.67
8254.00,0.67
8253.00,0.67
8252.00,0.67
8251.00,0.67
8250.00,0.67
8249.00,0.67
8248.00,0.67
8247.00,0.67
8246.00,0.67
8245.00,0.67
8244.00,0.67
8243.00,0.66
8242.00,0.66
8241.00,0.66
8240.00,0.66
8239.00,0.65
8238.00,0.65
8237.00,0.65
8236.00,0.65
8235.00,0.64
8234.00,0.64
8233.00,0.64
8232.00,0.64
8231.00,0.63
8230.00,0.63
8229.00,0.63
8228.00,0.63
8227.00,0.62
8226.00,0.62
8225.00,0.62
8224.00,0.61
8223.00,0.61
8222.00,0.61
8221.00,0.61
8220.00,0.61
8219.00,0.61
8218.00,0.61
8217.00,0.61
8216.00,0.61
8215.00,0.61
8214.00,0.61
8213.00,0.61
8212.00,0.61
8211.00,0.61
8210.00,0.61
8209.00,0.61
8208.00,0.61
8207.00,0.61
8206.00,0.61
8205.00,0.61
8204.00,0.61
8203.00,0.62
8202.00,0.62
8201.00,0.62
8200.00,0.62
8199.00,0.62
8198.00,0.62
8197.00,0.63
8196.00,0.63
8195.00,0.63
8194.00,0.63
8193.00,0.63
8192.00,0.63
8191.00,0.63
8190.00,0.63
8189.00,0.63
8188.00,0.63
8187.00,0.63
8186.00,0.63
8185.00,0.63
8184.00,0.63
8183.00,0.63
8182.00,0.63
8181.00,0.64
8180.00,0.64
8179.00,0.64
8178.00,0.64
8177.00,0.65
8176.00,0.65
8175.00,0.65
8174.00,0.65
8173.00,0.66
8172.00,0.66
8171.00,0.66
8170.00,0.66
8169.00,0.67
8168.00,0.67
8167.00,0.67
8166.00,0.67
8165.00,0.68
8164.00,0.68
8163.00,0.68
8162.00,0.68
8161.00,0.68
8160.00,0.68
8159.00,0.68
8158.00,0.68
8157.00,0.68
8156.00,0.68
8155.00,0.68
8154.00,0.68
8153.00,0.68
8152.00,0.68
8151.00,0.68
8150.00,0.68
8149.00,0.68
8148.00,0.67
8147.00,0.67
8146.00,0.67
8145.00,0.67
8144.00,0.67
8143.00,0.67
8142.00,0.67
8141.00,0.67
8140.00,0.67
8139.00,0.67
8138.00,0.67
8137.00,0.67
8136.00,0.67
8135.00,0.67
8134.00,0.67
8133.00,0.68
8132.00,0.68
8131.00,0.68
8130.00,0.68
8129.00,0.68
8128.00,0.69
8127.00,0.69
8126.00,0.69
8125.00,0.69
8124.00,0.69
8123.00,0.69
8122.00,0.69
8121.00,0.69
8120.00,0.69
8119.00,0.70
8118.00,0.70
8117.00,0.70
8116.00,0.69
8115.00,0.69
8114.00,0.69
8113.00,0.69
8112.00,0.69
8111.00,0.69
8110.00,0.68
8109.00,0.68
8108.00,0.68
8107.00,0.68
8106.00,0.67
8105.00,0.67
8104.00,0.67
8103.00,0.67
8102.00,0.66
8101.00,0.66
8100.00,0.66
8099.00,0.66
8098.00,0.66
8097.00,0.65
8096.00,0.65
8095.00,0.65
8094.00,0.65
8093.00,0.64
8092.00,0.64
8091.00,0.64
8090.00,0.64
8089.00,0.64
8088.00,0.63
8087.00,0.63
8086.00,0.63
8085.00,0.63
8084.00,0.63
8083.00,0.63
8082.00,0.63
8081.00,0.63
8080.00,0.63
8079.00,0.64
8078.00,0.64
8077.00,0.64
8076.00,0.64
8075.00,0.64
8074.00,0.64
8073.00,0.65
8072.00,0.65
8071.00,0.65
8070.00,0.65
8069.00,0.66
8068.00,0.66
8067.00,0.67
8066.00,0.67
8065.00,0.67
8064.00,0.68
8063.00,0.68
8062.00,0.68
8061.00,0.69
8060.00,0.69
8059.00,0.69
8058.00,0.70
8057.00,0.70
8056.00,0.70
8055.00,0.70
8054.00,0.71
8053.00,0.71
8052.00,0.71
8051.00,0.71
8050.00,0.71
8049.00,0.71
8048.00,0.71
8047.00,0.71
8046.00,0.71
8045.00,0.71
8044.00,0.71
8043.00,0.71
8042.00,0.71
8041.00,0.70
8040.00,0.70
8039.00,0.70
8038.00,0.70
8037.00,0.70
8036.00,0.70
8035.00,0.70
8034.00,0.70
8033.00,0.70
8032.00,0.70
8031.00,0.70
8030.00,0.70
8029.00,0.70
8028.00,0.70
8027.00,0.70
8026.00,0.70
8025.00,0.70
8024.00,0.70
8023.00,0.70
8022.00,0.70
8021.00,0.70
8020.00,0.70
8019.00,0.70
8018.00,0.70
8017.00,0.70
8016.00,0.70
8015.00,0.70
8014.00,0.70
8013.00,0.70
8012.00,0.70
8011.00,0.70
8010.00,0.70
8009.00,0.70
8008.00,0.70
8007.00,0.69
8006.00,0.69
8005.00,0.69
8004.00,0.69
8003.00,0.69
8002.00,0.69
8001.00,0.69
8000.00,0.69
7999.00,0.69
7998.00,0.69
7997.00,0.69
7996.00,0.69
7995.00,0.69
7994.00,0.69
7993.00,0.69
7992.00,0.69
7991.00,0.69
7990.00,0.69
7989.00,0.69
7988.00,0.69
7987.00,0.69
7986.00,0.69
7985.00,0.69
7984.00,0.69
7983.00,0.69
7982.00,0.69
7981.00,0.69
7980.00,0.69
7979.00,0.69
7978.00,0.69
7977.00,0.69
7976.00,0.69
7975.00,0.69
7974.00,0.69
7973.00,0.69
7972.00,0.69
7971.00,0.69
7970.00,0.69
7969.00,0.69
7968.00,0.69
7967.00,0.69
7966.00,0.69
7965.00,0.69
7964.00,0.70
7963.00,0.70
7962.00,0.70
7961.00,0.70
7960.00,0.70
7959.00,0.70
7958.00,0.70
7957.00,0.70
7956.00,0.70
7955.00,0.70
7954.00,0.70
7953.00,0.70
7952.00,0.70
7951.00,0.70
7950.00,0.71
7949.00,0.71
7948.00,0.71
7947.00,0.71
7946.00,0.71
7945.00,0.71
7944.00,0.71
7943.00,0.71
7942.00,0.71
7941.00,0.71
7940.00,0.71
7939.00,0.71
7938.00,0.71
7937.00,0.71
7936.00,0.71
7935.00,0.71
7934.00,0.71
7933.00,0.71
7932.00,0.71
7931.00,0.71
7930.00,0.71
7929.00,0.71
7928.00,0.72
7927.00,0.72
7926.00,0.72
7925.00,0.72
7924.00,0.72
7923.00,0.72
7922.00,0.72
7921.00,0.72
7920.00,0.72
7919.00,0.72
7918.00,0.72
7917.00,0.72
7916.00,0.72
7915.00,0.72
7914.00,0.72
7913.00,0.72
7912.00,0.72
7911.00,0.72
7910.00,0.72
7909.00,0.72
7908.00,0.72
7907.00,0.72
7906.00,0.72
7905.00,0.72
7904.00,0.72
7903.00,0.72
7902.00,0.72
7901.00,0.72
7900.00,0.72
7899.00,0.72
7898.00,0.72
7897.00,0.72
7896.00,0.71
7895.00,0.71
7894.00,0.71
7893.00,0.71
7892.00,0.71
7891.00,0.71
7890.00,0.71
7889.00,0.71
7888.00,0.71
7887.00,0.71
7886.00,0.71
7885.00,0.71
7884.00,0.71
7883.00,0.71
7882.00,0.71
7881.00,0.71
7880.00,0.70
7879.00,0.70
7878.00,0.70
7877.00,0.70
7876.00,0.70
7875.00,0.70
7874.00,0.69
7873.00,0.69
7872.00,0.69
7871.00,0.69
7870.00,0.69
7869.00,0.69
7868.00,0.69
7867.00,0.69
7866.00,0.68
7865.00,0.68
7864.00,0.68
7863.00,0.68
7862.00,0.68
7861.00,0.68
7860.00,0.68
7859.00,0.68
7858.00,0.67
7857.00,0.67
7856.00,0.67
7855.00,0.67
7854.00,0.67
7853.00,0.67
7852.00,0.67
7851.00,0.67
7850.00,0.68
7849.00,0.68
7848.00,0.68
7847.00,0.68
7846.00,0.69
7845.00,0.69
7844.00,0.69
7843.00,0.69
7842.00,0.70
7841.00,0.70
7840.00,0.71
7839.00,0.71
7838.00,0.71
7837.00,0.72
7836.00,0.72
7835.00,0.72
7834.00,0.73
7833.00,0.73
7832.00,0.73
7831.00,0.73
7830.00,0.74
7829.00,0.74
7828.00,0.74
7827.00,0.74
7826.00,0.74
7825.00,0.74
7824.00,0.75
7823.00,0.75
7822.00,0.75
7821.00,0.75
7820.00,0.75
7819.00,0.75
7818.00,0.75
7817.00,0.75
7816.00,0.75
7815.00,0.75
7814.00,0.75
7813.00,0.75
7812.00,0.75
7811.00,0.75
7810.00,0.75
7809.00,0.75
7808.00,0.74
7807.00,0.74
7806.00,0.74
7805.00,0.74
7804.00,0.74
7803.00,0.74
7802.00,0.75
7801.00,0.75
7800.00,0.75
7799.00,0.75
7798.00,0.75
7797.00,0.74
7796.00,0.74
7795.00,0.74
7794.00,0.74
7793.00,0.74
7792.00,0.74
7791.00,0.73
7790.00,0.73
7789.00,0.73
7788.00,0.73
7787.00,0.73
7786.00,0.73
7785.00,0.73
7784.00,0.73
7783.00,0.73
7782.00,0.73
7781.00,0.73
7780.00,0.73
7779.00,0.73
7778.00,0.73
7777.00,0.73
7776.00,0.73
7775.00,0.73
7774.00,0.73
7773.00,0.73
7772.00,0.73
7771.00,0.73
7770.00,0.73
7769.00,0.73
7768.00,0.73
7767.00,0.73
7766.00,0.74
7765.00,0.74
7764.00,0.74
7763.00,0.74
7762.00,0.74
7761.00,0.74
7760.00,0.74
7759.00,0.74
7758.00,0.74
7757.00,0.74
7756.00,0.73
7755.00,0.73
7754.00,0.73
7753.00,0.73
7752.00,0.73
7751.00,0.73
7750.00,0.72
7749.00,0.72
7748.00,0.72
7747.00,0.72
7746.00,0.72
7745.00,0.72
7744.00,0.71
7743.00,0.71
7742.00,0.71
7741.00,0.71
7740.00,0.71
7739.00,0.71
7738.00,0.70
7737.00,0.70
7736.00,0.70
7735.00,0.70
7734.00,0.70
7733.00,0.70
7732.00,0.69
7731.00,0.69
7730.00,0.69
7729.00,0.69
7728.00,0.69
7727.00,0.69
7726.00,0.69
7725.00,0.69
7724.00,0.69
7723.00,0.69
7722.00,0.70
7721.00,0.70
7720.00,0.70
7719.00,0.70
7718.00,0.70
7717.00,0.70
7716.00,0.70
7715.00,0.70
7714.00,0.70
7713.00,0.70
7712.00,0.71
7711.00,0.71
7710.00,0.71
7709.00,0.71
7708.00,0.72
7707.00,0.72
7706.00,0.72
7705.00,0.73
7704.00,0.73
7703.00,0.73
7702.00,0.73
7701.00,0.73
7700.00,0.73
7699.00,0.74
7698.00,0.74
7697.00,0.74
7696.00,0.74
7695.00,0.74
7694.00,0.74
7693.00,0.74
7692.00,0.74
7691.00,0.74
7690.00,0.74
7689.00,0.74
7688.00,0.75
7687.00,0.74
7686.00,0.74
7685.00,0.74
7684.00,0.74
7683.00,0.74
7682.00,0.74
7681.00,0.73
7680.00,0.73
7679.00,0.73
7678.00,0.73
7677.00,0.73
7676.00,0.72
7675.00,0.72
7674.00,0.72
7673.00,0.72
7672.00,0.72
7671.00,0.72
7670.00,0.72
7669.00,0.72
7668.00,0.72
7667.00,0.72
7666.00,0.72
7665.00,0.72
7664.00,0.72
7663.00,0.72
7662.00,0.72
7661.00,0.72
7660.00,0.72
7659.00,0.72
7658.00,0.72
7657.00,0.72
7656.00,0.72
7655.00,0.72
7654.00,0.72
7653.00,0.72
7652.00,0.72
7651.00,0.73
7650.00,0.73
7649.00,0.73
7648.00,0.73
7647.00,0.73
7646.00,0.73
7645.00,0.73
7644.00,0.73
7643.00,0.73
7642.00,0.72
7641.00,0.72
7640.00,0.72
7639.00,0.72
7638.00,0.72
7637.00,0.72
7636.00,0.72
7635.00,0.72
7634.00,0.71
7633.00,0.71
7632.00,0.71
7631.00,0.71
7630.00,0.71
7629.00,0.71
7628.00,0.71
7627.00,0.71
7626.00,0.71
7625.00,0.71
7624.00,0.71
7623.00,0.72
7622.00,0.72
7621.00,0.72
7620.00,0.72
7619.00,0.72
7618.00,0.72
7617.00,0.73
7616.00,0.73
7615.00,0.73
7614.00,0.74
7613.00,0.74
7612.00,0.74
7611.00,0.75
7610.00,0.75
7609.00,0.75
7608.00,0.76
7607.00,0.76
7606.00,0.76
7605.00,0.77
7604.00,0.77
7603.00,0.77
7602.00,0.78
7601.00,0.78
7600.00,0.78
7599.00,0.78
7598.00,0.78
7597.00,0.78
7596.00,0.79
7595.00,0.79
7594.00,0.79
7593.00,0.79
7592.00,0.79
7591.00,0.79
7590.00,0.79
7589.00,0.79
7588.00,0.79
7587.00,0.79
7586.00,0.79
7585.00,0.79
7584.00,0.79
7583.00,0.79
7582.00,0.79
7581.00,0.78
7580.00,0.78
7579.00,0.78
7578.00,0.78
7577.00,0.78
7576.00,0.78
7575.00,0.78
7574.00,0.78
7573.00,0.78
7572.00,0.77
7571.00,0.77
7570.00,0.77
7569.00,0.77
7568.00,0.77
7567.00,0.77
7566.00,0.77
7565.00,0.77
7564.00,0.77
7563.00,0.77
7562.00,0.77
7561.00,0.77
7560.00,0.77
7559.00,0.77
7558.00,0.77
7557.00,0.78
7556.00,0.78
7555.00,0.78
7554.00,0.78
7553.00,0.78
7552.00,0.78
7551.00,0.78
7550.00,0.78
7549.00,0.78
7548.00,0.78
7547.00,0.78
7546.00,0.78
7545.00,0.78
7544.00,0.78
7543.00,0.78
7542.00,0.78
7541.00,0.78
7540.00,0.78
7539.00,0.78
7538.00,0.78
7537.00,0.78
7536.00,0.78
7535.00,0.78
7534.00,0.78
7533.00,0.77
7532.00,0.77
7531.00,0.77
7530.00,0.77
7529.00,0.77
7528.00,0.76
7527.00,0.76
7526.00,0.76
7525.00,0.76
7524.00,0.76
7523.00,0.75
7522.00,0.75
7521.00,0.75
7520.00,0.75
7519.00,0.75
7518.00,0.74
7517.00,0.74
7516.00,0.74
7515.00,0.74
7514.00,0.73
7513.00,0.73
7512.00,0.73
7511.00,0.73
7510.00,0.72
7509.00,0.72
7508.00,0.72
7507.00,0.71
7506.00,0.71
7505.00,0.71
7504.00,0.71
7503.00,0.71
7502.00,0.71
7501.00,0.71
7500.00,0.70
7499.00,0.70
7498.00,0.70
7497.00,0.71
7496.00,0.71
7495.00,0.71
7494.00,0.71
7493.00,0.71
7492.00,0.71
7491.00,0.71
7490.00,0.72
7489.00,0.72
7488.00,0.72
7487.00,0.73
7486.00,0.73
7485.00,0.73
7484.00,0.74
7483.00,0.74
7482.00,0.75
7481.00,0.75
7480.00,0.75
7479.00,0.76
7478.00,0.76
7477.00,0.77
7476.00,0.77
7475.00,0.77
7474.00,0.77
7473.00,0.78
7472.00,0.78
7471.00,0.78
7470.00,0.78
7469.00,0.78
7468.00,0.78
7467.00,0.78
7466.00,0.78
7465.00,0.78
7464.00,0.78
7463.00,0.78
7462.00,0.78
7461.00,0.78
7460.00,0.78
7459.00,0.77
7458.00,0.77
7457.00,0.77
7456.00,0.77
7455.00,0.76
7454.00,0.76
7453.00,0.76
7452.00,0.76
7451.00,0.75
7450.00,0.75
7449.00,0.75
7448.00,0.75
7447.00,0.75
7446.00,0.74
7445.00,0.74
7444.00,0.74
7443.00,0.74
7442.00,0.74
7441.00,0.74
7440.00,0.74
7439.00,0.74
7438.00,0.74
7437.00,0.74
7436.00,0.74
7435.00,0.74
7434.00,0.74
7433.00,0.74
7432.00,0.74
7431.00,0.74
7430.00,0.74
7429.00,0.74
7428.00,0.74
7427.00,0.74
7426.00,0.74
7425.00,0.74
7424.00,0.74
7423.00,0.74
7422.00,0.74
7421.00,0.74
7420.00,0.74
7419.00,0.74
7418.00,0.73
7417.00,0.73
7416.00,0.73
7415.00,0.73
7414.00,0.73
7413.00,0.73
7412.00,0.73
7411.00,0.73
7410.00,0.73
7409.00,0.73
7408.00,0.73
7407.00,0.73
7406.00,0.73
7405.00,0.73
7404.00,0.73
7403.00,0.72
7402.00,0.72
7401.00,0.72
7400.00,0.72
7399.00,0.72
7398.00,0.72
7397.00,0.72
7396.00,0.72
7395.00,0.72
7394.00,0.72
7393.00,0.72
7392.00,0.72
7391.00,0.72
7390.00,0.73
7389.00,0.73
7388.00,0.73
7387.00,0.73
7386.00,0.73
7385.00,0.73
7384.00,0.73
7383.00,0.73
7382.00,0.73
7381.00,0.73
7380.00,0.73
7379.00,0.73
7378.00,0.73
7377.00,0.73
7376.00,0.73
7375.00,0.74
7374.00,0.74
7373.00,0.74
7372.00,0.74
7371.00,0.74
7370.00,0.74
7369.00,0.74
7368.00,0.74
7367.00,0.74
7366.00,0.74
7365.00,0.74
7364.00,0.74
7363.00,0.74
7362.00,0.74
7361.00,0.74
7360.00,0.74
7359.00,0.74
7358.00,0.73
7357.00,0.73
7356.00,0.73
7355.00,0.73
7354.00,0.73
7353.00,0.73
7352.00,0.73
7351.00,0.73
7350.00,0.73
7349.00,0.73
7348.00,0.73
7347.00,0.73
7346.00,0.73
7345.00,0.73
7344.00,0.73
7343.00,0.73
7342.00,0.73
7341.00,0.73
7340.00,0.73
7339.00,0.73
7338.00,0.73
7337.00,0.73
7336.00,0.73
7335.00,0.73
7334.00,0.73
7333.00,0.73
7332.00,0.73
7331.00,0.73
7330.00,0.73
7329.00,0.73
7328.00,0.72
7327.00,0.72
7326.00,0.72
7325.00,0.72
7324.00,0.72
7323.00,0.72
7322.00,0.71
7321.00,0.71
7320.00,0.71
7319.00,0.71
7318.00,0.71
7317.00,0.70
7316.00,0.70
7315.00,0.70
7314.00,0.70
7313.00,0.69
7312.00,0.69
7311.00,0.69
7310.00,0.68
7309.00,0.68
7308.00,0.68
7307.00,0.67
7306.00,0.67
7305.00,0.67
7304.00,0.66
7303.00,0.66
7302.00,0.66
7301.00,0.66
7300.00,0.66
7299.00,0.66
7298.00,0.66
7297.00,0.66
7296.00,0.66
7295.00,0.66
7294.00,0.66
7293.00,0.66
7292.00,0.66
7291.00,0.66
7290.00,0.66
7289.00,0.66
7288.00,0.66
7287.00,0.67
7286.00,0.67
7285.00,0.67
7284.00,0.68
7283.00,0.68
7282.00,0.68
7281.00,0.69
7280.00,0.69
7279.00,0.69
7278.00,0.70
7277.00,0.70
7276.00,0.71
7275.00,0.71
7274.00,0.71
7273.00,0.72
7272.00,0.72
7271.00,0.72
7270.00,0.72
7269.00,0.73
7268.00,0.73
7267.00,0.73
7266.00,0.73
7265.00,0.73
7264.00,0.73
7263.00,0.73
7262.00,0.73
7261.00,0.73
7260.00,0.73
7259.00,0.73
7258.00,0.73
7257.00,0.73
7256.00,0.72
7255.00,0.72
7254.00,0.72
7253.00,0.72
7252.00,0.71
7251.00,0.71
7250.00,0.70
7249.00,0.70
7248.00,0.70
7247.00,0.69
7246.00,0.69
7245.00,0.68
7244.00,0.68
7243.00,0.68
7242.00,0.67
7241.00,0.67
7240.00,0.67
7239.00,0.66
7238.00,0.66
7237.00,0.66
7236.00,0.66
7235.00,0.66
7234.00,0.65
7233.00,0.65
7232.00,0.65
7231.00,0.65
7230.00,0.65
7229.00,0.65
7228.00,0.65
7227.00,0.65
7226.00,0.65
7225.00,0.65
7224.00,0.65
7223.00,0.65
7222.00,0.65
7221.00,0.65
7220.00,0.65
7219.00,0.65
7218.00,0.65
7217.00,0.65
7216.00,0.65
7215.00,0.65
7214.00,0.65
7213.00,0.65
7212.00,0.65
7211.00,0.65
7210.00,0.65
7209.00,0.65
7208.00,0.65
7207.00,0.64
7206.00,0.64
7205.00,0.64
7204.00,0.64
7203.00,0.64
7202.00,0.64
7201.00,0.63
7200.00,0.63
7199.00,0.63
7198.00,0.63
7197.00,0.63
7196.00,0.62
7195.00,0.62
7194.00,0.62
7193.00,0.62
7192.00,0.62
7191.00,0.62
7190.00,0.61
7189.00,0.61
7188.00,0.61
7187.00,0.61
7186.00,0.60
7185.00,0.60
7184.00,0.60
7183.00,0.60
7182.00,0.60
7181.00,0.59
7180.00,0.59
7179.00,0.59
7178.00,0.59
7177.00,0.59
7176.00,0.59
7175.00,0.58
7174.00,0.58
7173.00,0.58
7172.00,0.58
7171.00,0.58
7170.00,0.58
7169.00,0.58
7168.00,0.57
7167.00,0.57
7166.00,0.57
7165.00,0.57
7164.00,0.57
7163.00,0.57
7162.00,0.57
7161.00,0.57
7160.00,0.57
7159.00,0.57
7158.00,0.57
7157.00,0.57
7156.00,0.57
7155.00,0.57
7154.00,0.57
7153.00,0.57
7152.00,0.57
7151.00,0.57
7150.00,0.57
7149.00,0.56
7148.00,0.56
7147.00,0.56
7146.00,0.56
7145.00,0.56
7144.00,0.56
7143.00,0.56
7142.00,0.56
7141.00,0.55
7140.00,0.55
7139.00,0.55
7138.00,0.55
7137.00,0.54
7136.00,0.54
7135.00,0.54
7134.00,0.53
7133.00,0.53
7132.00,0.53
7131.00,0.52
7130.00,0.52
7129.00,0.52
7128.00,0.52
7127.00,0.51
7126.00,0.51
7125.00,0.51
7124.00,0.51
7123.00,0.50
7122.00,0.50
7121.00,0.50
7120.00,0.49
7119.00,0.49
7118.00,0.49
7117.00,0.48
7116.00,0.48
7115.00,0.48
7114.00,0.48
7113.00,0.48
7112.00,0.48
7111.00,0.47
7110.00,0.47
7109.00,0.47
7108.00,0.47
7107.00,0.47
7106.00,0.47
7105.00,0.47
7104.00,0.47
7103.00,0.47
7102.00,0.47
7101.00,0.47
7100.00,0.47
7099.00,0.47
7098.00,0.47
7097.00,0.47
7096.00,0.47
7095.00,0.48
7094.00,0.48
7093.00,0.48
7092.00,0.48
7091.00,0.48
7090.00,0.48
7089.00,0.48
7088.00,0.48
7087.00,0.48
7086.00,0.48
7085.00,0.48
7084.00,0.48
7083.00,0.48
7082.00,0.48
7081.00,0.48
7080.00,0.48
7079.00,0.48
7078.00,0.48
7077.00,0.48
7076.00,0.48
7075.00,0.48
7074.00,0.48
7073.00,0.48
7072.00,0.48
7071.00,0.48
7070.00,0.48
7069.00,0.48
7068.00,0.48
7067.00,0.47
7066.00,0.47
7065.00,0.47
7064.00,0.47
7063.00,0.47
7062.00,0.46
7061.00,0.46
7060.00,0.46
7059.00,0.46
7058.00,0.46
7057.00,0.46
7056.00,0.46
7055.00,0.46
7054.00,0.45
7053.00,0.45
7052.00,0.45
7051.00,0.45
7050.00,0.45
7049.00,0.45
7048.00,0.45
7047.00,0.45
7046.00,0.45
7045.00,0.45
7044.00,0.45
7043.00,0.45
7042.00,0.45
7041.00,0.46
7040.00,0.46
7039.00,0.46
7038.00,0.46
7037.00,0.46
7036.00,0.47
7035.00,0.47
7034.00,0.47
7033.00,0.47
7032.00,0.47
7031.00,0.47
7030.00,0.48
7029.00,0.48
7028.00,0.48
7027.00,0.48
7026.00,0.48
7025.00,0.49
7024.00,0.49
7023.00,0.49
7022.00,0.49
7021.00,0.49
7020.00,0.49
7019.00,0.49
7018.00,0.49
7017.00,0.49
7016.00,0.49
7015.00,0.48
7014.00,0.48
7013.00,0.48
7012.00,0.48
7011.00,0.48
7010.00,0.47
7009.00,0.47
7008.00,0.47
7007.00,0.47
7006.00,0.46
7005.00,0.46
7004.00,0.46
7003.00,0.46
7002.00,0.45
7001.00,0.45
7000.00,0.45
6999.00,0.45
6998.00,0.44
6997.00,0.44
6996.00,0.44
6995.00,0.44
6994.00,0.44
6993.00,0.43
6992.00,0.43
6991.00,0.43
6990.00,0.43
6989.00,0.43
6988.00,0.43
6987.00,0.43
6986.00,0.43
6985.00,0.43
6984.00,0.43
6983.00,0.43
6982.00,0.43
6981.00,0.43
6980.00,0.43
6979.00,0.43
6978.00,0.43
6977.00,0.43
6976.00,0.43
6975.00,0.43
6974.00,0.43
6973.00,0.43
6972.00,0.43
6971.00,0.43
6970.00,0.43
6969.00,0.43
6968.00,0.43
6967.00,0.43
6966.00,0.43
6965.00,0.43
6964.00,0.43
6963.00,0.43
6962.00,0.43
6961.00,0.43
6960.00,0.43
6959.00,0.43
6958.00,0.43
6957.00,0.43
6956.00,0.43
6955.00,0.43
6954.00,0.43
6953.00,0.43
6952.00,0.43
6951.00,0.44
6950.00,0.44
6949.00,0.44
6948.00,0.44
6947.00,0.44
6946.00,0.44
6945.00,0.44
6944.00,0.44
6943.00,0.43
6942.00,0.43
6941.00,0.43
6940.00,0.43
6939.00,0.43
6938.00,0.43
6937.00,0.43
6936.00,0.43
6935.00,0.42
6934.00,0.42
6933.00,0.42
6932.00,0.42
6931.00,0.42
6930.00,0.41
6929.00,0.41
6928.00,0.41
6927.00,0.41
6926.00,0.41
6925.00,0.41
6924.00,0.41
6923.00,0.41
6922.00,0.41
6921.00,0.41
6920.00,0.40
6919.00,0.40
6918.00,0.40
6917.00,0.40
6916.00,0.40
6915.00,0.40
6914.00,0.41
6913.00,0.41
6912.00,0.41
6911.00,0.41
6910.00,0.41
6909.00,0.41
6908.00,0.41
6907.00,0.41
6906.00,0.41
6905.00,0.41
6904.00,0.42
6903.00,0.42
6902.00,0.42
6901.00,0.42
6900.00,0.42
6899.00,0.42
6898.00,0.42
6897.00,0.42
6896.00,0.43
6895.00,0.43
6894.00,0.43
6893.00,0.43
6892.00,0.43
6891.00,0.43
6890.00,0.43
6889.00,0.44
6888.00,0.44
6887.00,0.44
6886.00,0.44
6885.00,0.44
6884.00,0.44
6883.00,0.44
6882.00,0.44
6881.00,0.44
6880.00,0.44
6879.00,0.44
6878.00,0.44
6877.00,0.44
6876.00,0.44
6875.00,0.44
6874.00,0.44
6873.00,0.44
6872.00,0.44
6871.00,0.44
6870.00,0.44
6869.00,0.44
6868.00,0.44
6867.00,0.44
6866.00,0.44
6865.00,0.44
6864.00,0.43
6863.00,0.43
6862.00,0.43
6861.00,0.43
6860.00,0.42
6859.00,0.42
6858.00,0.42
6857.00,0.42
6856.00,0.41
6855.00,0.41
6854.00,0.41
6853.00,0.41
6852.00,0.41
6851.00,0.41
6850.00,0.40
6849.00,0.40
6848.00,0.40
6847.00,0.40
6846.00,0.40
6845.00,0.40
6844.00,0.40
6843.00,0.40
6842.00,0.40
6841.00,0.40
6840.00,0.40
6839.00,0.40
6838.00,0.40
6837.00,0.40
6836.00,0.40
6835.00,0.40
6834.00,0.40
6833.00,0.40
6832.00,0.40
6831.00,0.41
6830.00,0.41
6829.00,0.41
6828.00,0.41
6827.00,0.41
6826.00,0.41
6825.00,0.41
6824.00,0.42
6823.00,0.42
6822.00,0.42
6821.00,0.42
6820.00,0.42
6819.00,0.42
6818.00,0.42
6817.00,0.42
6816.00,0.42
6815.00,0.42
6814.00,0.42
6813.00,0.42
6812.00,0.42
6811.00,0.42
6810.00,0.42
6809.00,0.42
6808.00,0.42
6807.00,0.42
6806.00,0.42
6805.00,0.42
6804.00,0.42
6803.00,0.42
6802.00,0.41
6801.00,0.41
6800.00,0.41
6799.00,0.41
6798.00,0.41
6797.00,0.41
6796.00,0.41
6795.00,0.41
6794.00,0.40
6793.00,0.40
6792.00,0.40
6791.00,0.40
6790.00,0.40
6789.00,0.40
6788.00,0.40
6787.00,0.39
6786.00,0.39
6785.00,0.39
6784.00,0.39
6783.00,0.39
6782.00,0.39
6781.00,0.40
6780.00,0.40
6779.00,0.40
6778.00,0.40
6777.00,0.40
6776.00,0.40
6775.00,0.40
6774.00,0.40
6773.00,0.40
6772.00,0.40
6771.00,0.40
6770.00,0.40
6769.00,0.41
6768.00,0.41
6767.00,0.41
6766.00,0.41
6765.00,0.41
6764.00,0.41
6763.00,0.42
6762.00,0.42
6761.00,0.42
6760.00,0.42
6759.00,0.42
6758.00,0.42
6757.00,0.42
6756.00,0.42
6755.00,0.42
6754.00,0.42
6753.00,0.42
6752.00,0.42
6751.00,0.42
6750.00,0.42
6749.00,0.42
6748.00,0.42
6747.00,0.42
6746.00,0.42
6745.00,0.42
6744.00,0.42
6743.00,0.42
6742.00,0.42
6741.00,0.42
6740.00,0.42
6739.00,0.42
6738.00,0.42
6737.00,0.42
6736.00,0.42
6735.00,0.42
6734.00,0.42
6733.00,0.42
6732.00,0.42
6731.00,0.42
6730.00,0.42
6729.00,0.43
6728.00,0.43
6727.00,0.43
6726.00,0.43
6725.00,0.43
6724.00,0.43
6723.00,0.44
6722.00,0.44
6721.00,0.44
6720.00,0.44
6719.00,0.44
6718.00,0.45
6717.00,0.45
6716.00,0.45
6715.00,0.45
6714.00,0.45
6713.00,0.45
6712.00,0.45
6711.00,0.46
6710.00,0.46
6709.00,0.46
6708.00,0.46
6707.00,0.46
6706.00,0.46
6705.00,0.46
6704.00,0.46
6703.00,0.46
6702.00,0.46
6701.00,0.46
6700.00,0.46
6699.00,0.46
6698.00,0.46
6697.00,0.47
6696.00,0.47
6695.00,0.47
6694.00,0.47
6693.00,0.47
6692.00,0.47
6691.00,0.47
6690.00,0.47
6689.00,0.47
6688.00,0.47
6687.00,0.47
6686.00,0.48
6685.00,0.48
6684.00,0.48
6683.00,0.48
6682.00,0.48
6681.00,0.48
6680.00,0.48
6679.00,0.49
6678.00,0.49
6677.00,0.49
6676.00,0.49
6675.00,0.49
6674.00,0.50
6673.00,0.50
6672.00,0.50
6671.00,0.50
6670.00,0.50
6669.00,0.51
6668.00,0.51
6667.00,0.51
6666.00,0.51
6665.00,0.51
6664.00,0.51
6663.00,0.51
6662.00,0.51
6661.00,0.51
6660.00,0.51
6659.00,0.51
6658.00,0.51
6657.00,0.51
6656.00,0.51
6655.00,0.51
6654.00,0.51
6653.00,0.51
6652.00,0.51
6651.00,0.51
6650.00,0.51
6649.00,0.51
6648.00,0.50
6647.00,0.50
6646.00,0.50
6645.00,0.50
6644.00,0.50
6643.00,0.49
6642.00,0.49
6641.00,0.49
6640.00,0.49
6639.00,0.49
6638.00,0.49
6637.00,0.49
6636.00,0.49
6635.00,0.48
6634.00,0.48
6633.00,0.48
6632.00,0.48
6631.00,0.48
6630.00,0.48
6629.00,0.48
6628.00,0.48
6627.00,0.48
6626.00,0.48
6625.00,0.48
6624.00,0.48
6623.00,0.48
6622.00,0.48
6621.00,0.48
6620.00,0.48
6619.00,0.48
6618.00,0.49
6617.00,0.49
6616.00,0.49
6615.00,0.49
6614.00,0.49
6613.00,0.49
6612.00,0.49
6611.00,0.49
6610.00,0.50
6609.00,0.50
6608.00,0.50
6607.00,0.50
6606.00,0.50
6605.00,0.50
6604.00,0.50
6603.00,0.50
6602.00,0.50
6601.00,0.51
6600.00,0.51
6599.00,0.51
6598.00,0.51
6597.00,0.51
6596.00,0.51
6595.00,0.51
6594.00,0.51
6593.00,0.51
6592.00,0.51
6591.00,0.51
6590.00,0.51
6589.00,0.51
6588.00,0.51
6587.00,0.51
6586.00,0.51
6585.00,0.51
6584.00,0.51
6583.00,0.51
6582.00,0.51
6581.00,0.51
6580.00,0.51
6579.00,0.51
6578.00,0.51
6577.00,0.51
6576.00,0.51
6575.00,0.51
6574.00,0.51
6573.00,0.51
6572.00,0.52
6571.00,0.52
6570.00,0.52
6569.00,0.52
6568.00,0.52
6567.00,0.52
6566.00,0.53
6565.00,0.53
6564.00,0.53
6563.00,0.53
6562.00,0.53
6561.00,0.53
6560.00,0.54
6559.00,0.54
6558.00,0.54
6557.00,0.54
6556.00,0.54
6555.00,0.55
6554.00,0.55
6553.00,0.55
6552.00,0.55
6551.00,0.55
6550.00,0.55
6549.00,0.55
6548.00,0.56
6547.00,0.56
6546.00,0.56
6545.00,0.55
6544.00,0.55
6543.00,0.55
6542.00,0.55
6541.00,0.55
6540.00,0.55
6539.00,0.55
6538.00,0.55
6537.00,0.55
6536.00,0.55
6535.00,0.55
6534.00,0.55
6533.00,0.55
6532.00,0.55
6531.00,0.55
6530.00,0.55
6529.00,0.55
6528.00,0.54
6527.00,0.54
6526.00,0.54
6525.00,0.54
6524.00,0.54
6523.00,0.54
6522.00,0.54
6521.00,0.54
6520.00,0.54
6519.00,0.55
6518.00,0.55
6517.00,0.55
6516.00,0.55
6515.00,0.55
6514.00,0.55
6513.00,0.55
6512.00,0.55
6511.00,0.55
6510.00,0.56
6509.00,0.56
6508.00,0.56
6507.00,0.56
6506.00,0.56
6505.00,0.56
6504.00,0.56
6503.00,0.57
6502.00,0.57
6501.00,0.57
6500.00,0.57
6499.00,0.57
6498.00,0.57
6497.00,0.58
6496.00,0.58
6495.00,0.58
6494.00,0.58
6493.00,0.58
6492.00,0.58
6491.00,0.59
6490.00,0.59
6489.00,0.59
6488.00,0.59
6487.00,0.59
6486.00,0.59
6485.00,0.59
6484.00,0.60
6483.00,0.60
6482.00,0.60
6481.00,0.60
6480.00,0.60
6479.00,0.60
6478.00,0.61
6477.00,0.61
6476.00,0.61
6475.00,0.61
6474.00,0.61
6473.00,0.61
6472.00,0.61
6471.00,0.61
6470.00,0.61
6469.00,0.61
6468.00,0.61
6467.00,0.61
6466.00,0.61
6465.00,0.61
6464.00,0.61
6463.00,0.61
6462.00,0.61
6461.00,0.61
6460.00,0.61
6459.00,0.61
6458.00,0.61
6457.00,0.61
6456.00,0.61
6455.00,0.61
6454.00,0.61
6453.00,0.61
6452.00,0.61
6451.00,0.61
6450.00,0.61
6449.00,0.61
6448.00,0.61
6447.00,0.61
6446.00,0.61
6445.00,0.61
6444.00,0.61
6443.00,0.61
6442.00,0.61
6441.00,0.61
6440.00,0.61
6439.00,0.61
6438.00,0.61
6437.00,0.61
6436.00,0.61
6435.00,0.61
6434.00,0.61
6433.00,0.61
6432.00,0.61
6431.00,0.61
6430.00,0.62
6429.00,0.62
6428.00,0.62
6427.00,0.62
6426.00,0.62
6425.00,0.62
6424.00,0.62
6423.00,0.62
6422.00,0.62
6421.00,0.62
6420.00,0.62
6419.00,0.62
6418.00,0.62
6417.00,0.62
6416.00,0.62
6415.00,0.62
6414.00,0.62
6413.00,0.62
6412.00,0.62
6411.00,0.62
6410.00,0.62
6409.00,0.62
6408.00,0.62
6407.00,0.62
6406.00,0.62
6405.00,0.62
6404.00,0.62
6403.00,0.62
6402.00,0.62
6401.00,0.62
6400.00,0.62
6399.00,0.62
6398.00,0.62
6397.00,0.62
6396.00,0.62
6395.00,0.62
6394.00,0.62
6393.00,0.62
6392.00,0.61
6391.00,0.61
6390.00,0.61
6389.00,0.61
6388.00,0.61
6387.00,0.61
6386.00,0.61
6385.00,0.61
6384.00,0.61
6383.00,0.61
6382.00,0.61
6381.00,0.61
6380.00,0.60
6379.00,0.60
6378.00,0.60
6377.00,0.60
6376.00,0.60
6375.00,0.60
6374.00,0.60
6373.00,0.60
6372.00,0.60
6371.00,0.60
6370.00,0.60
6369.00,0.60
6368.00,0.61
6367.00,0.61
6366.00,0.61
6365.00,0.61
6364.00,0.61
6363.00,0.61
6362.00,0.61
6361.00,0.62
6360.00,0.62
6359.00,0.62
6358.00,0.62
6357.00,0.62
6356.00,0.62
6355.00,0.62
6354.00,0.62
6353.00,0.63
6352.00,0.63
6351.00,0.63
6350.00,0.63
6349.00,0.63
6348.00,0.63
6347.00,0.63
6346.00,0.63
6345.00,0.63
6344.00,0.63
6343.00,0.63
6342.00,0.63
6341.00,0.64
6340.00,0.64
6339.00,0.64
6338.00,0.64
6337.00,0.64
6336.00,0.64
6335.00,0.64
6334.00,0.64
6333.00,0.64
6332.00,0.64
6331.00,0.64
6330.00,0.64
6329.00,0.64
6328.00,0.64
6327.00,0.64
6326.00,0.64
6325.00,0.64
6324.00,0.64
6323.00,0.64
6322.00,0.64
6321.00,0.64
6320.00,0.64
6319.00,0.64
6318.00,0.64
6317.00,0.64
6316.00,0.64
6315.00,0.64
6314.00,0.64
6313.00,0.64
6312.00,0.64
6311.00,0.64
6310.00,0.64
6309.00,0.64
6308.00,0.64
6307.00,0.64
6306.00,0.64
6305.00,0.65
6304.00,0.65
6303.00,0.65
6302.00,0.65
6301.00,0.65
6300.00,0.65
6299.00,0.65
6298.00,0.65
6297.00,0.66
6296.00,0.66
6295.00,0.66
6294.00,0.66
6293.00,0.66
6292.00,0.66
6291.00,0.67
6290.00,0.67
6289.00,0.67
6288.00,0.67
6287.00,0.68
6286.00,0.68
6285.00,0.68
6284.00,0.68
6283.00,0.68
6282.00,0.69
6281.00,0.69
6280.00,0.69
6279.00,0.69
6278.00,0.69
6277.00,0.69
6276.00,0.70
6275.00,0.70
6274.00,0.70
6273.00,0.70
6272.00,0.70
6271.00,0.70
6270.00,0.70
6269.00,0.71
6268.00,0.71
6267.00,0.71
6266.00,0.71
6265.00,0.71
6264.00,0.71
6263.00,0.71
6262.00,0.71
6261.00,0.71
6260.00,0.71
6259.00,0.71
6258.00,0.71
6257.00,0.71
6256.00,0.71
6255.00,0.71
6254.00,0.71
6253.00,0.71
6252.00,0.71
6251.00,0.71
6250.00,0.71
6249.00,0.71
6248.00,0.71
6247.00,0.71
6246.00,0.71
6245.00,0.71
6244.00,0.71
6243.00,0.71
6242.00,0.71
6241.00,0.71
6240.00,0.71
6239.00,0.71
6238.00,0.71
6237.00,0.71
6236.00,0.71
6235.00,0.71
6234.00,0.71
6233.00,0.71
6232.00,0.71
6231.00,0.71
6230.00,0.71
6229.00,0.70
6228.00,0.70
6227.00,0.70
6226.00,0.70
6225.00,0.70
6224.00,0.70
6223.00,0.70
6222.00,0.69
6221.00,0.69
6220.00,0.69
6219.00,0.69
6218.00,0.69
6217.00,0.69
6216.00,0.69
6215.00,0.68
6214.00,0.68
6213.00,0.68
6212.00,0.68
6211.00,0.68
6210.00,0.68
6209.00,0.68
6208.00,0.68
6207.00,0.68
6206.00,0.68
6205.00,0.68
6204.00,0.68
6203.00,0.68
6202.00,0.68
6201.00,0.68
6200.00,0.68
6199.00,0.68
6198.00,0.68
6197.00,0.68
6196.00,0.68
6195.00,0.68
6194.00,0.69
6193.00,0.69
6192.00,0.69
6191.00,0.69
6190.00,0.69
6189.00,0.69
6188.00,0.69
6187.00,0.69
6186.00,0.69
6185.00,0.69
6184.00,0.69
6183.00,0.69
6182.00,0.69
6181.00,0.69
6180.00,0.69
6179.00,0.69
6178.00,0.69
6177.00,0.69
6176.00,0.70
6175.00,0.70
6174.00,0.70
6173.00,0.70
6172.00,0.70
6171.00,0.70
6170.00,0.70
6169.00,0.71
6168.00,0.71
6167.00,0.71
6166.00,0.71
6165.00,0.71
6164.00,0.71
6163.00,0.71
6162.00,0.72
6161.00,0.72
6160.00,0.72
6159.00,0.72
6158.00,0.72
6157.00,0.72
6156.00,0.73
6155.00,0.73
6154.00,0.73
6153.00,0.73
6152.00,0.73
6151.00,0.73
6150.00,0.73
6149.00,0.74
6148.00,0.74
6147.00,0.74
6146.00,0.74
6145.00,0.74
6144.00,0.74
6143.00,0.74
6142.00,0.74
6141.00,0.74
6140.00,0.74
6139.00,0.74
6138.00,0.74
6137.00,0.74
6136.00,0.74
6135.00,0.74
6134.00,0.74
6133.00,0.75
6132.00,0.75
6131.00,0.75
6130.00,0.75
6129.00,0.75
6128.00,0.75
6127.00,0.75
6126.00,0.75
6125.00,0.75
6124.00,0.75
6123.00,0.75
6122.00,0.75
6121.00,0.75
6120.00,0.75
6119.00,0.75
6118.00,0.75
6117.00,0.75
6116.00,0.75
6115.00,0.75
6114.00,0.75
6113.00,0.75
6112.00,0.75
6111.00,0.75
6110.00,0.75
6109.00,0.75
6108.00,0.75
6107.00,0.75
6106.00,0.75
6105.00,0.75
6104.00,0.75
6103.00,0.75
6102.00,0.75
6101.00,0.75
6100.00,0.75
6099.00,0.75
6098.00,0.75
6097.00,0.75
6096.00,0.76
6095.00,0.76
6094.00,0.76
6093.00,0.76
6092.00,0.76
6091.00,0.76
6090.00,0.76
6089.00,0.76
6088.00,0.77
6087.00,0.77
6086.00,0.77
6085.00,0.77
6084.00,0.77
6083.00,0.77
6082.00,0.77
6081.00,0.78
6080.00,0.78
6079.00,0.78
6078.00,0.78
6077.00,0.78
6076.00,0.78
6075.00,0.79
6074.00,0.79
6073.00,0.79
6072.00,0.79
6071.00,0.79
6070.00,0.79
6069.00,0.79
6068.00,0.80
6067.00,0.80
6066.00,0.80
6065.00,0.80
6064.00,0.80
6063.00,0.80
6062.00,0.80
6061.00,0.80
6060.00,0.80
6059.00,0.80
6058.00,0.80
6057.00,0.79
6056.00,0.79
6055.00,0.79
6054.00,0.79
6053.00,0.79
6052.00,0.79
6051.00,0.79
6050.00,0.79
6049.00,0.79
6048.00,0.79
6047.00,0.78
6046.00,0.78
6045.00,0.78
6044.00,0.78
6043.00,0.78
6042.00,0.78
6041.00,0.78
6040.00,0.78
6039.00,0.78
6038.00,0.78
6037.00,0.77
6036.00,0.77
6035.00,0.77
6034.00,0.77
6033.00,0.77
6032.00,0.77
6031.00,0.77
6030.00,0.77
6029.00,0.77
6028.00,0.77
6027.00,0.78
6026.00,0.78
6025.00,0.78
6024.00,0.78
6023.00,0.78
6022.00,0.78
6021.00,0.78
6020.00,0.78
6019.00,0.78
6018.00,0.78
6017.00,0.78
6016.00,0.78
6015.00,0.78
6014.00,0.78
6013.00,0.78
6012.00,0.78
6011.00,0.79
6010.00,0.79
6009.00,0.79
6008.00,0.79
6007.00,0.79
6006.00,0.79
6005.00,0.79
6004.00,0.79
6003.00,0.79
6002.00,0.79
6001.00,0.79
6000.00,0.79
5999.00,0.79
5998.00,0.79
5997.00,0.79
5996.00,0.79
5995.00,0.79
5994.00,0.79
5993.00,0.79
5992.00,0.79
5991.00,0.79
5990.00,0.79
5989.00,0.79
5988.00,0.78
5987.00,0.78
5986.00,0.78
5985.00,0.78
5984.00,0.78
5983.00,0.78
5982.00,0.78
5981.00,0.77
5980.00,0.77
5979.00,0.77
5978.00,0.77
5977.00,0.77
5976.00,0.76
5975.00,0.76
5974.00,0.76
5973.00,0.76
5972.00,0.76
5971.00,0.76
5970.00,0.75
5969.00,0.75
5968.00,0.75
5967.00,0.75
5966.00,0.75
5965.00,0.74
5964.00,0.74
5963.00,0.74
5962.00,0.74
5961.00,0.74
5960.00,0.74
5959.00,0.73
5958.00,0.73
5957.00,0.73
5956.00,0.73
5955.00,0.73
5954.00,0.73
5953.00,0.73
5952.00,0.72
5951.00,0.72
5950.00,0.72
5949.00,0.72
5948.00,0.72
5947.00,0.72
5946.00,0.72
5945.00,0.71
5944.00,0.71
5943.00,0.71
5942.00,0.71
5941.00,0.71
5940.00,0.71
5939.00,0.71
5938.00,0.71
5937.00,0.71
5936.00,0.71
5935.00,0.70
5934.00,0.70
5933.00,0.70
5932.00,0.70
5931.00,0.70
5930.00,0.70
5929.00,0.70
5928.00,0.70
5927.00,0.70
5926.00,0.70
5925.00,0.69
5924.00,0.69
5923.00,0.69
5922.00,0.69
5921.00,0.69
5920.00,0.69
5919.00,0.69
5918.00,0.69
5917.00,0.69
5916.00,0.69
5915.00,0.68
5914.00,0.68
5913.00,0.68
5912.00,0.68
5911.00,0.68
5910.00,0.68
5909.00,0.68
5908.00,0.68
5907.00,0.67
5906.00,0.67
5905.00,0.67
5904.00,0.67
5903.00,0.67
5902.00,0.67
5901.00,0.67
5900.00,0.67
5899.00,0.67
5898.00,0.67
5897.00,0.67
5896.00,0.67
5895.00,0.67
5894.00,0.67
5893.00,0.67
5892.00,0.67
5891.00,0.67
5890.00,0.67
5889.00,0.68
5888.00,0.68
5887.00,0.68
5886.00,0.68
5885.00,0.68
5884.00,0.68
5883.00,0.69
5882.00,0.69
5881.00,0.69
5880.00,0.69
5879.00,0.69
5878.00,0.69
5877.00,0.69
5876.00,0.70
5875.00,0.70
5874.00,0.70
5873.00,0.70
5872.00,0.70
5871.00,0.70
5870.00,0.70
5869.00,0.71
5868.00,0.71
5867.00,0.71
5866.00,0.71
5865.00,0.71
5864.00,0.71
5863.00,0.71
5862.00,0.71
5861.00,0.71
5860.00,0.71
5859.00,0.71
5858.00,0.71
5857.00,0.71
5856.00,0.71
5855.00,0.71
5854.00,0.71
5853.00,0.71
5852.00,0.71
5851.00,0.71
5850.00,0.72
5849.00,0.72
5848.00,0.72
5847.00,0.72
5846.00,0.72
5845.00,0.72
5844.00,0.72
5843.00,0.72
5842.00,0.72
5841.00,0.72
5840.00,0.72
5839.00,0.72
5838.00,0.72
5837.00,0.73
5836.00,0.73
5835.00,0.73
5834.00,0.73
5833.00,0.73
5832.00,0.73
5831.00,0.73
5830.00,0.73
5829.00,0.73
5828.00,0.73
5827.00,0.73
5826.00,0.73
5825.00,0.73
5824.00,0.73
5823.00,0.73
5822.00,0.73
5821.00,0.73
5820.00,0.73
5819.00,0.73
5818.00,0.73
5817.00,0.73
5816.00,0.73
5815.00,0.73
5814.00,0.73
5813.00,0.73
5812.00,0.73
5811.00,0.73
5810.00,0.73
5809.00,0.73
5808.00,0.73
5807.00,0.73
5806.00,0.73
5805.00,0.73
5804.00,0.73
5803.00,0.73
5802.00,0.73
5801.00,0.73
5800.00,0.72
5799.00,0.72
5798.00,0.72
5797.00,0.72
5796.00,0.72
5795.00,0.72
5794.00,0.72
5793.00,0.72
5792.00,0.72
5791.00,0.72
5790.00,0.71
5789.00,0.71
5788.00,0.71
5787.00,0.71
5786.00,0.71
5785.00,0.71
5784.00,0.71
5783.00,0.71
5782.00,0.71
5781.00,0.71
5780.00,0.70
5779.00,0.70
5778.00,0.70
5777.00,0.70
5776.00,0.70
5775.00,0.70
5774.00,0.70
5773.00,0.70
5772.00,0.70
5771.00,0.70
5770.00,0.70
5769.00,0.70
5768.00,0.70
5767.00,0.71
5766.00,0.71
5765.00,0.71
5764.00,0.71
5763.00,0.71
5762.00,0.71
5761.00,0.72
5760.00,0.72
5759.00,0.72
5758.00,0.72
5757.00,0.72
5756.00,0.72
5755.00,0.72
5754.00,0.73
5753.00,0.73
5752.00,0.73
5751.00,0.73
5750.00,0.73
5749.00,0.73
5748.00,0.74
5747.00,0.74
5746.00,0.74
5745.00,0.74
5744.00,0.74
5743.00,0.74
5742.00,0.74
5741.00,0.74
5740.00,0.74
5739.00,0.74
5738.00,0.74
5737.00,0.74
5736.00,0.74
5735.00,0.74
5734.00,0.74
5733.00,0.74
5732.00,0.74
5731.00,0.74
5730.00,0.74
5729.00,0.74
5728.00,0.74
5727.00,0.74
5726.00,0.74
5725.00,0.74
5724.00,0.74
5723.00,0.74
5722.00,0.74
5721.00,0.74
5720.00,0.74
5719.00,0.74
5718.00,0.74
5717.00,0.74
5716.00,0.74
5715.00,0.74
5714.00,0.74
5713.00,0.74
5712.00,0.74
5711.00,0.74
5710.00,0.74
5709.00,0.74
5708.00,0.74
5707.00,0.74
5706.00,0.74
5705.00,0.74
5704.00,0.74
5703.00,0.74
5702.00,0.74
5701.00,0.74
5700.00,0.74
5699.00,0.74
5698.00,0.74
5697.00,0.74
5696.00,0.74
5695.00,0.74
5694.00,0.74
5693.00,0.74
5692.00,0.73
5691.00,0.73
5690.00,0.73
5689.00,0.73
5688.00,0.73
5687.00,0.73
5686.00,0.72
5685.00,0.72
5684.00,0.72
5683.00,0.72
5682.00,0.72
5681.00,0.71
5680.00,0.71
5679.00,0.71
5678.00,0.71
5677.00,0.71
5676.00,0.71
5675.00,0.70
5674.00,0.70
5673.00,0.70
5672.00,0.70
5671.00,0.70
5670.00,0.70
5669.00,0.70
5668.00,0.70
5667.00,0.70
5666.00,0.70
5665.00,0.70
5664.00,0.70
5663.00,0.70
5662.00,0.70
5661.00,0.70
5660.00,0.70
5659.00,0.70
5658.00,0.71
5657.00,0.71
5656.00,0.71
5655.00,0.71
5654.00,0.71
5653.00,0.72
5652.00,0.72
5651.00,0.72
5650.00,0.72
5649.00,0.72
5648.00,0.73
5647.00,0.73
5646.00,0.73
5645.00,0.73
5644.00,0.73
5643.00,0.73
5642.00,0.73
5641.00,0.74
5640.00,0.74
5639.00,0.74
5638.00,0.74
5637.00,0.74
5636.00,0.74
5635.00,0.74
5634.00,0.74
5633.00,0.74
5632.00,0.74
5631.00,0.74
5630.00,0.74
5629.00,0.74
5628.00,0.74
5627.00,0.74
5626.00,0.74
5625.00,0.74
5624.00,0.75
5623.00,0.75
5622.00,0.75
5621.00,0.75
5620.00,0.75
5619.00,0.75
5618.00,0.75
5617.00,0.75
5616.00,0.75
5615.00,0.75
5614.00,0.75
5613.00,0.76
5612.00,0.76
5611.00,0.76
5610.00,0.76
5609.00,0.76
5608.00,0.76
5607.00,0.76
5606.00,0.77
5605.00,0.77
5604.00,0.77
5603.00,0.77
5602.00,0.77
5601.00,0.77
5600.00,0.77
5599.00,0.77
5598.00,0.77
5597.00,0.77
5596.00,0.78
5595.00,0.78
5594.00,0.78
5593.00,0.78
5592.00,0.78
5591.00,0.78
5590.00,0.78
5589.00,0.78
5588.00,0.78
5587.00,0.78
5586.00,0.78
5585.00,0.78
5584.00,0.78
5583.00,0.78
5582.00,0.78
5581.00,0.78
5580.00,0.78
5579.00,0.78
5578.00,0.79
5577.00,0.79
5576.00,0.79
5575.00,0.79
5574.00,0.79
5573.00,0.79
5572.00,0.79
5571.00,0.79
5570.00,0.79
5569.00,0.79
5568.00,0.79
5567.00,0.79
5566.00,0.79
5565.00,0.79
5564.00,0.80
5563.00,0.80
5562.00,0.80
5561.00,0.80
5560.00,0.80
5559.00,0.80
5558.00,0.80
5557.00,0.80
5556.00,0.80
5555.00,0.80
5554.00,0.80
5553.00,0.80
5552.00,0.80
5551.00,0.79
5550.00,0.79
5549.00,0.79
5548.00,0.79
5547.00,0.79
5546.00,0.79
5545.00,0.79
5544.00,0.79
5543.00,0.79
5542.00,0.79
5541.00,0.79
5540.00,0.79
5539.00,0.79
5538.00,0.79
5537.00,0.79
5536.00,0.79
5535.00,0.79
5534.00,0.79
5533.00,0.79
5532.00,0.79
5531.00,0.79
5530.00,0.79
5529.00,0.80
5528.00,0.80
5527.00,0.80
5526.00,0.80
5525.00,0.80
5524.00,0.80
5523.00,0.80
5522.00,0.80
5521.00,0.81
5520.00,0.81
5519.00,0.81
5518.00,0.81
5517.00,0.81
5516.00,0.81
5515.00,0.81
5514.00,0.81
5513.00,0.81
5512.00,0.81
5511.00,0.81
5510.00,0.81
5509.00,0.81
5508.00,0.81
5507.00,0.81
5506.00,0.81
5505.00,0.81
5504.00,0.81
5503.00,0.81
5502.00,0.81
5501.00,0.80
5500.00,0.80
5499.00,0.80
5498.00,0.80
5497.00,0.80
5496.00,0.80
5495.00,0.80
5494.00,0.79
5493.00,0.79
5492.00,0.79
5491.00,0.79
5490.00,0.79
5489.00,0.79
5488.00,0.79
5487.00,0.79
5486.00,0.79
5485.00,0.79
5484.00,0.79
5483.00,0.79
5482.00,0.79
5481.00,0.79
5480.00,0.79
5479.00,0.79
5478.00,0.79
5477.00,0.79
5476.00,0.80
5475.00,0.80
5474.00,0.80
5473.00,0.80
5472.00,0.80
5471.00,0.80
5470.00,0.80
5469.00,0.81
5468.00,0.81
5467.00,0.81
5466.00,0.81
5465.00,0.81
5464.00,0.81
5463.00,0.81
5462.00,0.81
5461.00,0.81
5460.00,0.81
5459.00,0.81
5458.00,0.81
5457.00,0.81
5456.00,0.81
5455.00,0.81
5454.00,0.81
5453.00,0.81
5452.00,0.81
5451.00,0.81
5450.00,0.81
5449.00,0.81
5448.00,0.81
5447.00,0.81
5446.00,0.81
5445.00,0.81
5444.00,0.80
5443.00,0.80
5442.00,0.80
5441.00,0.80
5440.00,0.80
5439.00,0.80
5438.00,0.80
5437.00,0.80
5436.00,0.80
5435.00,0.80
5434.00,0.80
5433.00,0.80
5432.00,0.80
5431.00,0.80
5430.00,0.80
5429.00,0.80
5428.00,0.80
5427.00,0.80
5426.00,0.80
5425.00,0.80
5424.00,0.80
5423.00,0.80
5422.00,0.80
5421.00,0.80
5420.00,0.80
5419.00,0.80
5418.00,0.80
5417.00,0.81
5416.00,0.81
5415.00,0.81
5414.00,0.81
5413.00,0.81
5412.00,0.81
5411.00,0.81
5410.00,0.81
5409.00,0.81
5408.00,0.81
5407.00,0.81
5406.00,0.81
5405.00,0.81
5404.00,0.81
5403.00,0.81
5402.00,0.81
5401.00,0.81
5400.00,0.81
5399.00,0.81
5398.00,0.81
5397.00,0.81
5396.00,0.81
5395.00,0.81
5394.00,0.81
5393.00,0.81
5392.00,0.81
5391.00,0.81
5390.00,0.80
5389.00,0.80
5388.00,0.80
5387.00,0.80
5386.00,0.80
5385.00,0.80
5384.00,0.80
5383.00,0.80
5382.00,0.80
5381.00,0.79
5380.00,0.79
5379.00,0.79
5378.00,0.79
5377.00,0.79
5376.00,0.79
5375.00,0.79
5374.00,0.78
5373.00,0.78
5372.00,0.78
5371.00,0.78
5370.00,0.78
5369.00,0.77
5368.00,0.77
5367.00,0.77
5366.00,0.77
5365.00,0.77
5364.00,0.77
5363.00,0.76
5362.00,0.76
5361.00,0.76
5360.00,0.76
5359.00,0.75
5358.00,0.75
5357.00,0.75
5356.00,0.74
5355.00,0.74
5354.00,0.74
5353.00,0.73
5352.00,0.73
5351.00,0.72
5350.00,0.72
5349.00,0.71
5348.00,0.71
5347.00,0.70
5346.00,0.70
5345.00,0.69
5344.00,0.69
5343.00,0.68
5342.00,0.68
5341.00,0.67
5340.00,0.67
5339.00,0.66
5338.00,0.66
5337.00,0.65
5336.00,0.65
5335.00,0.64
5334.00,0.64
5333.00,0.63
5332.00,0.63
5331.00,0.62
5330.00,0.61
5329.00,0.61
5328.00,0.60
5327.00,0.60
5326.00,0.59
5325.00,0.59
5324.00,0.58
5323.00,0.58
5322.00,0.57
5321.00,0.57
5320.00,0.57
5319.00,0.56
5318.00,0.56
5317.00,0.55
5316.00,0.55
5315.00,0.54
5314.00,0.54
5313.00,0.53
5312.00,0.53
5311.00,0.52
5310.00,0.52
5309.00,0.52
5308.00,0.51
5307.00,0.51
5306.00,0.50
5305.00,0.50
5304.00,0.49
5303.00,0.49
5302.00,0.49
5301.00,0.48
5300.00,0.48
5299.00,0.47
5298.00,0.47
5297.00,0.47
5296.00,0.46
5295.00,0.46
5294.00,0.46
5293.00,0.45
5292.00,0.45
5291.00,0.45
5290.00,0.44
5289.00,0.44
5288.00,0.44
5287.00,0.43
5286.00,0.43
5285.00,0.43
5284.00,0.43
5283.00,0.42
5282.00,0.42
5281.00,0.42
5280.00,0.42
5279.00,0.41
5278.00,0.41
5277.00,0.41
5276.00,0.40
5275.00,0.40
5274.00,0.40
5273.00,0.40
5272.00,0.40
5271.00,0.39
5270.00,0.39
5269.00,0.39
5268.00,0.39
5267.00,0.38
5266.00,0.38
5265.00,0.38
5264.00,0.38
5263.00,0.38
5262.00,0.38
5261.00,0.37
5260.00,0.37
5259.00,0.37
5258.00,0.37
5257.00,0.37
5256.00,0.37
5255.00,0.37
5254.00,0.37
5253.00,0.37
5252.00,0.37
5251.00,0.37
5250.00,0.37
5249.00,0.37
5248.00,0.37
5247.00,0.37
5246.00,0.37
5245.00,0.37
5244.00,0.36
5243.00,0.36
5242.00,0.36
5241.00,0.36
5240.00,0.36
5239.00,0.36
5238.00,0.36
5237.00,0.36
5236.00,0.36
5235.00,0.36
5234.00,0.36
5233.00,0.36
5232.00,0.36
5231.00,0.36
5230.00,0.36
5229.00,0.36
5228.00,0.36
5227.00,0.35
5226.00,0.35
5225.00,0.35
5224.00,0.35
5223.00,0.35
5222.00,0.35
5221.00,0.35
5220.00,0.35
5219.00,0.35
5218.00,0.35
5217.00,0.35
5216.00,0.35
5215.00,0.35
5214.00,0.35
5213.00,0.35
5212.00,0.35
5211.00,0.35
5210.00,0.35
5209.00,0.35
5208.00,0.35
5207.00,0.35
5206.00,0.35
5205.00,0.35
5204.00,0.35
5203.00,0.35
5202.00,0.35
5201.00,0.35
5200.00,0.35
5199.00,0.35
5198.00,0.35
5197.00,0.35
5196.00,0.35
5195.00,0.35
5194.00,0.35
5193.00,0.35
5192.00,0.35
5191.00,0.35
5190.00,0.35
5189.00,0.35
5188.00,0.35
5187.00,0.35
5186.00,0.35
5185.00,0.35
5184.00,0.35
5183.00,0.35
5182.00,0.35
5181.00,0.35
5180.00,0.35
5179.00,0.35
5178.00,0.35
5177.00,0.35
5176.00,0.35
5175.00,0.35
5174.00,0.35
5173.00,0.35
5172.00,0.35
5171.00,0.35
5170.00,0.35
5169.00,0.35
5168.00,0.35
5167.00,0.35
5166.00,0.35
5165.00,0.35
5164.00,0.35
5163.00,0.35
5162.00,0.36
5161.00,0.36
5160.00,0.36
5159.00,0.36
5158.00,0.36
5157.00,0.36
5156.00,0.36
5155.00,0.36
5154.00,0.36
5153.00,0.36
5152.00,0.36
5151.00,0.36
5150.00,0.36
5149.00,0.36
5148.00,0.36
5147.00,0.36
5146.00,0.36
5145.00,0.36
5144.00,0.36
5143.00,0.36
5142.00,0.36
5141.00,0.36
5140.00,0.36
5139.00,0.35
5138.00,0.35
5137.00,0.35
5136.00,0.35
5135.00,0.35
5134.00,0.35
5133.00,0.35
5132.00,0.35
5131.00,0.35
5130.00,0.35
5129.00,0.35
5128.00,0.35
5127.00,0.35
5126.00,0.35
5125.00,0.35
5124.00,0.35
5123.00,0.35
5122.00,0.35
5121.00,0.35
5120.00,0.35
5119.00,0.35
5118.00,0.35
5117.00,0.35
5116.00,0.36
5115.00,0.36
5114.00,0.36
5113.00,0.36
5112.00,0.36
5111.00,0.36
5110.00,0.37
5109.00,0.37
5108.00,0.37
5107.00,0.37
5106.00,0.37
5105.00,0.37
5104.00,0.37
5103.00,0.38
5102.00,0.38
5101.00,0.38
5100.00,0.38
5099.00,0.38
5098.00,0.38
5097.00,0.38
5096.00,0.38
5095.00,0.39
5094.00,0.39
5093.00,0.39
5092.00,0.39
5091.00,0.39
5090.00,0.39
5089.00,0.39
5088.00,0.39
5087.00,0.39
5086.00,0.39
5085.00,0.39
5084.00,0.39
5083.00,0.39
5082.00,0.40
5081.00,0.40
5080.00,0.40
5079.00,0.40
5078.00,0.40
5077.00,0.40
5076.00,0.39
5075.00,0.39
5074.00,0.39
5073.00,0.39
5072.00,0.39
5071.00,0.39
5070.00,0.39
5069.00,0.39
5068.00,0.39
5067.00,0.39
5066.00,0.39
5065.00,0.39
5064.00,0.39
5063.00,0.39
5062.00,0.39
5061.00,0.38
5060.00,0.38
5059.00,0.38
5058.00,0.38
5057.00,0.38
5056.00,0.38
5055.00,0.38
5054.00,0.38
5053.00,0.38
5052.00,0.38
5051.00,0.38
5050.00,0.38
5049.00,0.38
5048.00,0.39
5047.00,0.39
5046.00,0.39
5045.00,0.39
5044.00,0.39
5043.00,0.39
5042.00,0.39
5041.00,0.39
5040.00,0.40
5039.00,0.40
5038.00,0.40
5037.00,0.40
5036.00,0.40
5035.00,0.40
5034.00,0.41
5033.00,0.41
5032.00,0.41
5031.00,0.41
5030.00,0.41
5029.00,0.41
5028.00,0.42
5027.00,0.42
5026.00,0.42
5025.00,0.42
5024.00,0.42
5023.00,0.42
5022.00,0.42
5021.00,0.42
5020.00,0.43
5019.00,0.43
5018.00,0.43
5017.00,0.43
5016.00,0.43
5015.00,0.43
5014.00,0.43
5013.00,0.43
5012.00,0.43
5011.00,0.43
5010.00,0.43
5009.00,0.43
5008.00,0.43
5007.00,0.44
5006.00,0.44
5005.00,0.44
5004.00,0.44
5003.00,0.44
5002.00,0.44
5001.00,0.44
5000.00,0.44
4999.00,0.44
4998.00,0.44
4997.00,0.44
4996.00,0.44
4995.00,0.44
4994.00,0.45
4993.00,0.45
4992.00,0.45
4991.00,0.45
4990.00,0.45
4989.00,0.45
4988.00,0.45
4987.00,0.45
4986.00,0.45
4985.00,0.46
4984.00,0.46
4983.00,0.46
4982.00,0.46
4981.00,0.46
4980.00,0.46
4979.00,0.46
4978.00,0.46
4977.00,0.46
4976.00,0.47
4975.00,0.47
4974.00,0.47
4973.00,0.47
4972.00,0.47
4971.00,0.47
4970.00,0.47
4969.00,0.47
4968.00,0.47
4967.00,0.48
4966.00,0.48
4965.00,0.48
4964.00,0.48
4963.00,0.48
4962.00,0.48
4961.00,0.48
4960.00,0.48
4959.00,0.48
4958.00,0.48
4957.00,0.48
4956.00,0.49
4955.00,0.49
4954.00,0.49
4953.00,0.49
4952.00,0.49
4951.00,0.49
4950.00,0.49
4949.00,0.49
4948.00,0.49
4947.00,0.49
4946.00,0.49
4945.00,0.49
4944.00,0.49
4943.00,0.49
4942.00,0.49
4941.00,0.49
4940.00,0.49
4939.00,0.49
4938.00,0.49
4937.00,0.49
4936.00,0.49
4935.00,0.49
4934.00,0.50
4933.00,0.50
4932.00,0.50
4931.00,0.50
4930.00,0.50
4929.00,0.50
4928.00,0.50
4927.00,0.50
4926.00,0.50
4925.00,0.50
4924.00,0.50
4923.00,0.50
4922.00,0.50
4921.00,0.50
4920.00,0.50
4919.00,0.50
4918.00,0.50
4917.00,0.50
4916.00,0.50
4915.00,0.50
4914.00,0.50
4913.00,0.50
4912.00,0.50
4911.00,0.50
4910.00,0.51
4909.00,0.51
4908.00,0.51
4907.00,0.51
4906.00,0.51
4905.00,0.51
4904.00,0.51
4903.00,0.51
4902.00,0.51
4901.00,0.51
4900.00,0.51
4899.00,0.51
4898.00,0.51
4897.00,0.51
4896.00,0.51
4895.00,0.51
4894.00,0.51
4893.00,0.51
4892.00,0.51
4891.00,0.51
4890.00,0.51
4889.00,0.51
4888.00,0.51
4887.00,0.51
4886.00,0.51
4885.00,0.51
4884.00,0.51
4883.00,0.51
4882.00,0.51
4881.00,0.51
4880.00,0.51
4879.00,0.51
4878.00,0.51
4877.00,0.51
4876.00,0.51
4875.00,0.51
4874.00,0.51
4873.00,0.51
4872.00,0.51
4871.00,0.51
4870.00,0.51
4869.00,0.51
4868.00,0.51
4867.00,0.51
4866.00,0.51
4865.00,0.51
4864.00,0.51
4863.00,0.51
4862.00,0.51
4861.00,0.51
4860.00,0.51
4859.00,0.52
4858.00,0.52
4857.00,0.52
4856.00,0.52
4855.00,0.52
4854.00,0.52
4853.00,0.53
4852.00,0.53
4851.00,0.53
4850.00,0.53
4849.00,0.54
4848.00,0.54
4847.00,0.54
4846.00,0.54
4845.00,0.54
4844.00,0.54
4843.00,0.55
4842.00,0.55
4841.00,0.55
4840.00,0.55
4839.00,0.55
4838.00,0.55
4837.00,0.55
4836.00,0.55
4835.00,0.55
4834.00,0.55
4833.00,0.55
4832.00,0.55
4831.00,0.56
4830.00,0.56
4829.00,0.56
4828.00,0.56
4827.00,0.56
4826.00,0.56
4825.00,0.56
4824.00,0.56
4823.00,0.56
4822.00,0.56
4821.00,0.56
4820.00,0.56
4819.00,0.56
4818.00,0.56
4817.00,0.56
4816.00,0.56
4815.00,0.56
4814.00,0.56
4813.00,0.57
4812.00,0.57
4811.00,0.57
4810.00,0.57
4809.00,0.57
4808.00,0.57
4807.00,0.57
4806.00,0.58
4805.00,0.58
4804.00,0.58
4803.00,0.58
4802.00,0.58
4801.00,0.58
4800.00,0.58
4799.00,0.59
4798.00,0.59
4797.00,0.59
4796.00,0.59
4795.00,0.59
4794.00,0.60
4793.00,0.60
4792.00,0.60
4791.00,0.60
4790.00,0.61
4789.00,0.61
4788.00,0.61
4787.00,0.61
4786.00,0.61
4785.00,0.61
4784.00,0.62
4783.00,0.62
4782.00,0.62
4781.00,0.62
4780.00,0.62
4779.00,0.62
4778.00,0.62
4777.00,0.62
4776.00,0.62
4775.00,0.62
4774.00,0.62
4773.00,0.62
4772.00,0.62
4771.00,0.62
4770.00,0.61
4769.00,0.61
4768.00,0.61
4767.00,0.61
4766.00,0.61
4765.00,0.60
4764.00,0.60
4763.00,0.60
4762.00,0.60
4761.00,0.60
4760.00,0.60
4759.00,0.59
4758.00,0.59
4757.00,0.59
4756.00,0.59
4755.00,0.59
4754.00,0.59
4753.00,0.59
4752.00,0.59
4751.00,0.59
4750.00,0.59
4749.00,0.60
4748.00,0.60
4747.00,0.60
4746.00,0.60
4745.00,0.60
4744.00,0.61
4743.00,0.61
4742.00,0.61
4741.00,0.61
4740.00,0.62
4739.00,0.62
4738.00,0.62
4737.00,0.63
4736.00,0.63
4735.00,0.63
4734.00,0.64
4733.00,0.64
4732.00,0.64
4731.00,0.65
4730.00,0.65
4729.00,0.66
4728.00,0.66
4727.00,0.66
4726.00,0.66
4725.00,0.67
4724.00,0.67
4723.00,0.67
4722.00,0.67
4721.00,0.67
4720.00,0.67
4719.00,0.67
4718.00,0.67
4717.00,0.67
4716.00,0.68
4715.00,0.68
4714.00,0.68
4713.00,0.68
4712.00,0.68
4711.00,0.68
4710.00,0.68
4709.00,0.68
4708.00,0.68
4707.00,0.68
4706.00,0.68
4705.00,0.68
4704.00,0.68
4703.00,0.68
4702.00,0.68
4701.00,0.68
4700.00,0.68
4699.00,0.68
4698.00,0.68
4697.00,0.68
4696.00,0.68
4695.00,0.68
4694.00,0.68
4693.00,0.68
4692.00,0.69
4691.00,0.69
4690.00,0.69
4689.00,0.69
4688.00,0.69
4687.00,0.69
4686.00,0.69
4685.00,0.69
4684.00,0.69
4683.00,0.69
4682.00,0.70
4681.00,0.70
4680.00,0.70
4679.00,0.70
4678.00,0.70
4677.00,0.70
4676.00,0.71
4675.00,0.71
4674.00,0.71
4673.00,0.71
4672.00,0.71
4671.00,0.72
4670.00,0.72
4669.00,0.72
4668.00,0.72
4667.00,0.73
4666.00,0.73
4665.00,0.73
4664.00,0.73
4663.00,0.73
4662.00,0.74
4661.00,0.74
4660.00,0.74
4659.00,0.75
4658.00,0.75
4657.00,0.75
4656.00,0.75
4655.00,0.76
4654.00,0.76
4653.00,0.76
4652.00,0.76
4651.00,0.76
4650.00,0.77
4649.00,0.77
4648.00,0.77
4647.00,0.77
4646.00,0.77
4645.00,0.77
4644.00,0.77
4643.00,0.77
4642.00,0.77
4641.00,0.77
4640.00,0.76
4639.00,0.76
4638.00,0.76
4637.00,0.76
4636.00,0.76
4635.00,0.76
4634.00,0.76
4633.00,0.76
4632.00,0.76
4631.00,0.76
4630.00,0.76
4629.00,0.76
4628.00,0.76
4627.00,0.76
4626.00,0.76
4625.00,0.76
4624.00,0.76
4623.00,0.76
4622.00,0.76
4621.00,0.77
4620.00,0.77
4619.00,0.77
4618.00,0.77
4617.00,0.77
4616.00,0.78
4615.00,0.78
4614.00,0.78
4613.00,0.78
4612.00,0.78
4611.00,0.79
4610.00,0.79
4609.00,0.79
4608.00,0.79
4607.00,0.79
4606.00,0.79
4605.00,0.79
4604.00,0.79
4603.00,0.79
4602.00,0.79
4601.00,0.79
4600.00,0.79
4599.00,0.79
4598.00,0.79
4597.00,0.79
4596.00,0.79
4595.00,0.79
4594.00,0.79
4593.00,0.79
4592.00,0.79
4591.00,0.78
4590.00,0.78
4589.00,0.78
4588.00,0.78
4587.00,0.78
4586.00,0.78
4585.00,0.78
4584.00,0.78
4583.00,0.78
4582.00,0.78
4581.00,0.78
4580.00,0.78
4579.00,0.78
4578.00,0.78
4577.00,0.78
4576.00,0.78
4575.00,0.78
4574.00,0.78
4573.00,0.78
4572.00,0.79
4571.00,0.79
4570.00,0.79
4569.00,0.79
4568.00,0.79
4567.00,0.79
4566.00,0.79
4565.00,0.79
4564.00,0.79
4563.00,0.79
4562.00,0.80
4561.00,0.80
4560.00,0.80
4559.00,0.80
4558.00,0.80
4557.00,0.80
4556.00,0.80
4555.00,0.80
4554.00,0.80
4553.00,0.80
4552.00,0.80
4551.00,0.80
4550.00,0.80
4549.00,0.80
4548.00,0.80
4547.00,0.80
4546.00,0.80
4545.00,0.80
4544.00,0.80
4543.00,0.80
4542.00,0.80
4541.00,0.80
4540.00,0.80
4539.00,0.80
4538.00,0.80
4537.00,0.80
4536.00,0.80
4535.00,0.80
4534.00,0.80
4533.00,0.80
4532.00,0.80
4531.00,0.79
4530.00,0.79
4529.00,0.79
4528.00,0.79
4527.00,0.79
4526.00,0.79
4525.00,0.79
4524.00,0.79
4523.00,0.79
4522.00,0.79
4521.00,0.79
4520.00,0.79
4519.00,0.79
4518.00,0.79
4517.00,0.79
4516.00,0.79
4515.00,0.79
4514.00,0.79
4513.00,0.79
4512.00,0.79
4511.00,0.79
4510.00,0.79
4509.00,0.79
4508.00,0.79
4507.00,0.79
4506.00,0.79
4505.00,0.79
4504.00,0.79
4503.00,0.79
4502.00,0.79
4501.00,0.80
4500.00,0.80
4499.00,0.80
4498.00,0.80
4497.00,0.80
4496.00,0.80
4495.00,0.80
4494.00,0.80
4493.00,0.80
4492.00,0.80
4491.00,0.80
4490.00,0.80
4489.00,0.80
4488.00,0.80
4487.00,0.80
4486.00,0.80
4485.00,0.80
4484.00,0.79
4483.00,0.79
4482.00,0.79
4481.00,0.79
4480.00,0.79
4479.00,0.79
4478.00,0.79
4477.00,0.78
4476.00,0.78
4475.00,0.78
4474.00,0.78
4473.00,0.77
4472.00,0.77
4471.00,0.77
4470.00,0.77
4469.00,0.76
4468.00,0.76
4467.00,0.76
4466.00,0.76
4465.00,0.75
4464.00,0.75
4463.00,0.75
4462.00,0.74
4461.00,0.74
4460.00,0.74
4459.00,0.74
4458.00,0.73
4457.00,0.73
4456.00,0.73
4455.00,0.73
4454.00,0.72
4453.00,0.72
4452.00,0.72
4451.00,0.72
4450.00,0.72
4449.00,0.72
4448.00,0.71
4447.00,0.71
4446.00,0.71
4445.00,0.71
4444.00,0.71
4443.00,0.71
4442.00,0.71
4441.00,0.70
4440.00,0.70
4439.00,0.70
4438.00,0.70
4437.00,0.70
4436.00,0.70
4435.00,0.69
4434.00,0.69
4433.00,0.69
4432.00,0.69
4431.00,0.68
4430.00,0.68
4429.00,0.68
4428.00,0.68
4427.00,0.67
4426.00,0.67
4425.00,0.67
4424.00,0.66
4423.00,0.66
4422.00,0.66
4421.00,0.66
4420.00,0.65
4419.00,0.65
4418.00,0.65
4417.00,0.64
4416.00,0.64
4415.00,0.64
4414.00,0.64
4413.00,0.64
4412.00,0.63
4411.00,0.63
4410.00,0.63
4409.00,0.63
4408.00,0.63
4407.00,0.63
4406.00,0.63
4405.00,0.62
4404.00,0.62
4403.00,0.62
4402.00,0.62
4401.00,0.62
4400.00,0.62
4399.00,0.62
4398.00,0.62
4397.00,0.62
4396.00,0.62
4395.00,0.62
4394.00,0.62
4393.00,0.62
4392.00,0.62
4391.00,0.62
4390.00,0.62
4389.00,0.62
4388.00,0.62
4387.00,0.62
4386.00,0.62
4385.00,0.62
4384.00,0.62
4383.00,0.62
4382.00,0.62
4381.00,0.62
4380.00,0.62
4379.00,0.62
4378.00,0.62
4377.00,0.62
4376.00,0.62
4375.00,0.62
4374.00,0.62
4373.00,0.62
4372.00,0.63
4371.00,0.63
4370.00,0.63
4369.00,0.63
4368.00,0.63
4367.00,0.63
4366.00,0.63
4365.00,0.63
4364.00,0.63
4363.00,0.63
4362.00,0.63
4361.00,0.63
4360.00,0.63
4359.00,0.63
4358.00,0.62
4357.00,0.62
4356.00,0.62
4355.00,0.62
4354.00,0.62
4353.00,0.62
4352.00,0.61
4351.00,0.61
4350.00,0.61
4349.00,0.61
4348.00,0.61
4347.00,0.61
4346.00,0.60
4345.00,0.60
4344.00,0.60
4343.00,0.60
4342.00,0.60
4341.00,0.60
4340.00,0.60
4339.00,0.60
4338.00,0.60
4337.00,0.60
4336.00,0.60
4335.00,0.60
4334.00,0.60
4333.00,0.60
4332.00,0.61
4331.00,0.61
4330.00,0.61
4329.00,0.61
4328.00,0.61
4327.00,0.61
4326.00,0.62
4325.00,0.62
4324.00,0.62
4323.00,0.63
4322.00,0.63
4321.00,0.63
4320.00,0.63
4319.00,0.63
4318.00,0.64
4317.00,0.64
4316.00,0.64
4315.00,0.64
4314.00,0.65
4313.00,0.65
4312.00,0.65
4311.00,0.65
4310.00,0.66
4309.00,0.66
4308.00,0.66
4307.00,0.66
4306.00,0.67
4305.00,0.67
4304.00,0.67
4303.00,0.67
4302.00,0.68
4301.00,0.68
4300.00,0.68
4299.00,0.68
4298.00,0.68
4297.00,0.69
4296.00,0.69
4295.00,0.69
4294.00,0.69
4293.00,0.70
4292.00,0.70
4291.00,0.70
4290.00,0.70
4289.00,0.70
4288.00,0.70
4287.00,0.70
4286.00,0.70
4285.00,0.70
4284.00,0.70
4283.00,0.70
4282.00,0.70
4281.00,0.70
4280.00,0.70
4279.00,0.70
4278.00,0.70
4277.00,0.70
4276.00,0.70
4275.00,0.70
4274.00,0.70
4273.00,0.70
4272.00,0.70
4271.00,0.70
4270.00,0.69
4269.00,0.69
4268.00,0.69
4267.00,0.69
4266.00,0.69
4265.00,0.69
4264.00,0.69
4263.00,0.69
4262.00,0.69
4261.00,0.69
4260.00,0.69
4259.00,0.69
4258.00,0.69
4257.00,0.69
4256.00,0.69
4255.00,0.69
4254.00,0.69
4253.00,0.69
4252.00,0.69
4251.00,0.69
4250.00,0.69
4249.00,0.69
4248.00,0.69
4247.00,0.69
4246.00,0.69
4245.00,0.69
4244.00,0.68
4243.00,0.68
4242.00,0.68
4241.00,0.68
4240.00,0.68
4239.00,0.68
4238.00,0.67
4237.00,0.67
4236.00,0.67
4235.00,0.67
4234.00,0.67
4233.00,0.67
4232.00,0.67
4231.00,0.67
4230.00,0.66
4229.00,0.66
4228.00,0.66
4227.00,0.66
4226.00,0.66
4225.00,0.66
4224.00,0.66
4223.00,0.66
4222.00,0.66
4221.00,0.67
4220.00,0.67
4219.00,0.67
4218.00,0.67
4217.00,0.68
4216.00,0.68
4215.00,0.68
4214.00,0.69
4213.00,0.69
4212.00,0.70
4211.00,0.70
4210.00,0.70
4209.00,0.71
4208.00,0.71
4207.00,0.72
4206.00,0.72
4205.00,0.72
4204.00,0.73
4203.00,0.73
4202.00,0.73
4201.00,0.74
4200.00,0.74
4199.00,0.75
4198.00,0.75
4197.00,0.75
4196.00,0.76
4195.00,0.76
4194.00,0.76
4193.00,0.76
4192.00,0.76
4191.00,0.76
4190.00,0.76
4189.00,0.76
4188.00,0.76
4187.00,0.76
4186.00,0.76
4185.00,0.76
4184.00,0.76
4183.00,0.76
4182.00,0.76
4181.00,0.75
4180.00,0.75
4179.00,0.75
4178.00,0.75
4177.00,0.75
4176.00,0.75
4175.00,0.74
4174.00,0.74
4173.00,0.74
4172.00,0.74
4171.00,0.73
4170.00,0.73
4169.00,0.73
4168.00,0.72
4167.00,0.72
4166.00,0.72
4165.00,0.71
4164.00,0.71
4163.00,0.71
4162.00,0.71
4161.00,0.71
4160.00,0.70
4159.00,0.70
4158.00,0.70
4157.00,0.70
4156.00,0.70
4155.00,0.69
4154.00,0.69
4153.00,0.69
4152.00,0.68
4151.00,0.68
4150.00,0.68
4149.00,0.68
4148.00,0.67
4147.00,0.67
4146.00,0.67
4145.00,0.67
4144.00,0.66
4143.00,0.66
4142.00,0.66
4141.00,0.66
4140.00,0.66
4139.00,0.66
4138.00,0.65
4137.00,0.65
4136.00,0.65
4135.00,0.65
4134.00,0.65
4133.00,0.64
4132.00,0.64
4131.00,0.64
4130.00,0.64
4129.00,0.64
4128.00,0.64
4127.00,0.64
4126.00,0.64
4125.00,0.63
4124.00,0.63
4123.00,0.63
4122.00,0.63
4121.00,0.63
4120.00,0.63
4119.00,0.63
4118.00,0.63
4117.00,0.63
4116.00,0.64
4115.00,0.64
4114.00,0.64
4113.00,0.64
4112.00,0.64
4111.00,0.64
4110.00,0.64
4109.00,0.64
4108.00,0.64
4107.00,0.64
4106.00,0.64
4105.00,0.65
4104.00,0.65
4103.00,0.65
4102.00,0.65
4101.00,0.66
4100.00,0.66
4099.00,0.66
4098.00,0.66
4097.00,0.67
4096.00,0.67
4095.00,0.67
4094.00,0.67
4093.00,0.68
4092.00,0.68
4091.00,0.68
4090.00,0.68
4089.00,0.68
4088.00,0.69
4087.00,0.69
4086.00,0.69
4085.00,0.69
4084.00,0.69
4083.00,0.70
4082.00,0.70
4081.00,0.70
4080.00,0.70
4079.00,0.70
4078.00,0.70
4077.00,0.70
4076.00,0.70
4075.00,0.70
4074.00,0.70
4073.00,0.70
4072.00,0.70
4071.00,0.70
4070.00,0.70
4069.00,0.71
4068.00,0.71
4067.00,0.71
4066.00,0.71
4065.00,0.71
4064.00,0.71
4063.00,0.71
4062.00,0.71
4061.00,0.71
4060.00,0.71
4059.00,0.71
4058.00,0.71
4057.00,0.71
4056.00,0.71
4055.00,0.71
4054.00,0.71
4053.00,0.71
4052.00,0.72
4051.00,0.72
4050.00,0.72
4049.00,0.72
4048.00,0.72
4047.00,0.72
4046.00,0.73
4045.00,0.73
4044.00,0.73
4043.00,0.73
4042.00,0.73
4041.00,0.74
4040.00,0.74
4039.00,0.74
4038.00,0.75
4037.00,0.75
4036.00,0.76
4035.00,0.76
4034.00,0.76
4033.00,0.77
4032.00,0.77
4031.00,0.78
4030.00,0.78
4029.00,0.78
4028.00,0.79
4027.00,0.79
4026.00,0.79
4025.00,0.79
4024.00,0.80
4023.00,0.80
4022.00,0.80
4021.00,0.81
4020.00,0.81
4019.00,0.81
4018.00,0.81
4017.00,0.82
4016.00,0.82
4015.00,0.82
4014.00,0.82
4013.00,0.82
4012.00,0.82
4011.00,0.82
4010.00,0.82
4009.00,0.82
4008.00,0.82
4007.00,0.82
4006.00,0.82
4005.00,0.82
4004.00,0.82
4003.00,0.82
4002.00,0.83
4001.00,0.83
4000.00,0.83
