创建为新数据集,样品 999 用户 Administrator 日期 星期二, 七月 30 2019
cm-1,%T
10000.00,0.98
9999.00,0.97
9998.00,0.96
9997.00,0.96
9996.00,0.95
9995.00,0.94
9994.00,0.93
9993.00,0.92
9992.00,0.92
9991.00,0.91
9990.00,0.90
9989.00,0.89
9988.00,0.89
9987.00,0.88
9986.00,0.88
9985.00,0.88
9984.00,0.88
9983.00,0.87
9982.00,0.87
9981.00,0.87
9980.00,0.87
9979.00,0.87
9978.00,0.88
9977.00,0.88
9976.00,0.88
9975.00,0.88
9974.00,0.88
9973.00,0.89
9972.00,0.89
9971.00,0.89
9970.00,0.90
9969.00,0.90
9968.00,0.90
9967.00,0.91
9966.00,0.91
9965.00,0.91
9964.00,0.92
9963.00,0.92
9962.00,0.92
9961.00,0.92
9960.00,0.92
9959.00,0.92
9958.00,0.92
9957.00,0.92
9956.00,0.92
9955.00,0.92
9954.00,0.92
9953.00,0.91
9952.00,0.91
9951.00,0.91
9950.00,0.90
9949.00,0.90
9948.00,0.89
9947.00,0.89
9946.00,0.88
9945.00,0.87
9944.00,0.86
9943.00,0.86
9942.00,0.85
9941.00,0.84
9940.00,0.83
9939.00,0.82
9938.00,0.81
9937.00,0.81
9936.00,0.80
9935.00,0.79
9934.00,0.79
9933.00,0.78
9932.00,0.78
9931.00,0.78
9930.00,0.78
9929.00,0.77
9928.00,0.77
9927.00,0.77
9926.00,0.77
9925.00,0.77
9924.00,0.77
9923.00,0.78
9922.00,0.78
9921.00,0.78
9920.00,0.79
9919.00,0.80
9918.00,0.80
9917.00,0.81
9916.00,0.83
9915.00,0.84
9914.00,0.85
9913.00,0.86
9912.00,0.88
9911.00,0.89
9910.00,0.91
9909.00,0.92
9908.00,0.94
9907.00,0.95
9906.00,0.97
9905.00,0.98
9904.00,0.99
9903.00,1.01
9902.00,1.02
9901.00,1.04
9900.00,1.05
9899.00,1.06
9898.00,1.08
9897.00,1.09
9896.00,1.10
9895.00,1.10
9894.00,1.11
9893.00,1.11
9892.00,1.11
9891.00,1.11
9890.00,1.10
9889.00,1.09
9888.00,1.08
9887.00,1.07
9886.00,1.06
9885.00,1.05
9884.00,1.04
9883.00,1.02
9882.00,1.01
9881.00,1.00
9880.00,0.99
9879.00,0.97
9878.00,0.96
9877.00,0.95
9876.00,0.93
9875.00,0.92
9874.00,0.90
9873.00,0.89
9872.00,0.88
9871.00,0.86
9870.00,0.85
9869.00,0.85
9868.00,0.84
9867.00,0.83
9866.00,0.83
9865.00,0.83
9864.00,0.83
9863.00,0.83
9862.00,0.84
9861.00,0.85
9860.00,0.85
9859.00,0.86
9858.00,0.86
9857.00,0.87
9856.00,0.88
9855.00,0.88
9854.00,0.89
9853.00,0.89
9852.00,0.90
9851.00,0.90
9850.00,0.90
9849.00,0.91
9848.00,0.91
9847.00,0.91
9846.00,0.91
9845.00,0.91
9844.00,0.91
9843.00,0.91
9842.00,0.91
9841.00,0.91
9840.00,0.90
9839.00,0.90
9838.00,0.89
9837.00,0.88
9836.00,0.87
9835.00,0.87
9834.00,0.86
9833.00,0.85
9832.00,0.84
9831.00,0.83
9830.00,0.82
9829.00,0.81
9828.00,0.80
9827.00,0.79
9826.00,0.78
9825.00,0.77
9824.00,0.76
9823.00,0.76
9822.00,0.75
9821.00,0.74
9820.00,0.73
9819.00,0.73
9818.00,0.72
9817.00,0.72
9816.00,0.71
9815.00,0.71
9814.00,0.70
9813.00,0.70
9812.00,0.70
9811.00,0.69
9810.00,0.69
9809.00,0.69
9808.00,0.68
9807.00,0.68
9806.00,0.68
9805.00,0.68
9804.00,0.68
9803.00,0.68
9802.00,0.68
9801.00,0.68
9800.00,0.68
9799.00,0.68
9798.00,0.68
9797.00,0.68
9796.00,0.68
9795.00,0.68
9794.00,0.68
9793.00,0.68
9792.00,0.68
9791.00,0.68
9790.00,0.68
9789.00,0.67
9788.00,0.67
9787.00,0.67
9786.00,0.67
9785.00,0.67
9784.00,0.67
9783.00,0.68
9782.00,0.68
9781.00,0.68
9780.00,0.69
9779.00,0.69
9778.00,0.70
9777.00,0.70
9776.00,0.71
9775.00,0.71
9774.00,0.72
9773.00,0.73
9772.00,0.73
9771.00,0.74
9770.00,0.75
9769.00,0.76
9768.00,0.77
9767.00,0.78
9766.00,0.79
9765.00,0.80
9764.00,0.81
9763.00,0.82
9762.00,0.83
9761.00,0.84
9760.00,0.85
9759.00,0.86
9758.00,0.86
9757.00,0.87
9756.00,0.87
9755.00,0.87
9754.00,0.87
9753.00,0.87
9752.00,0.86
9751.00,0.86
9750.00,0.85
9749.00,0.85
9748.00,0.84
9747.00,0.84
9746.00,0.83
9745.00,0.82
9744.00,0.81
9743.00,0.80
9742.00,0.79
9741.00,0.78
9740.00,0.77
9739.00,0.76
9738.00,0.75
9737.00,0.74
9736.00,0.73
9735.00,0.72
9734.00,0.71
9733.00,0.70
9732.00,0.69
9731.00,0.69
9730.00,0.68
9729.00,0.68
9728.00,0.68
9727.00,0.68
9726.00,0.68
9725.00,0.68
9724.00,0.68
9723.00,0.68
9722.00,0.69
9721.00,0.69
9720.00,0.69
9719.00,0.69
9718.00,0.70
9717.00,0.70
9716.00,0.71
9715.00,0.71
9714.00,0.72
9713.00,0.72
9712.00,0.73
9711.00,0.73
9710.00,0.73
9709.00,0.73
9708.00,0.74
9707.00,0.74
9706.00,0.74
9705.00,0.74
9704.00,0.74
9703.00,0.73
9702.00,0.73
9701.00,0.73
9700.00,0.73
9699.00,0.73
9698.00,0.73
9697.00,0.73
9696.00,0.73
9695.00,0.73
9694.00,0.73
9693.00,0.73
9692.00,0.72
9691.00,0.72
9690.00,0.72
9689.00,0.72
9688.00,0.72
9687.00,0.72
9686.00,0.72
9685.00,0.72
9684.00,0.72
9683.00,0.72
9682.00,0.72
9681.00,0.73
9680.00,0.73
9679.00,0.74
9678.00,0.74
9677.00,0.75
9676.00,0.75
9675.00,0.76
9674.00,0.77
9673.00,0.77
9672.00,0.78
9671.00,0.78
9670.00,0.79
9669.00,0.80
9668.00,0.81
9667.00,0.81
9666.00,0.82
9665.00,0.83
9664.00,0.84
9663.00,0.85
9662.00,0.85
9661.00,0.86
9660.00,0.86
9659.00,0.87
9658.00,0.87
9657.00,0.88
9656.00,0.88
9655.00,0.88
9654.00,0.88
9653.00,0.88
9652.00,0.88
9651.00,0.88
9650.00,0.88
9649.00,0.88
9648.00,0.88
9647.00,0.87
9646.00,0.87
9645.00,0.86
9644.00,0.86
9643.00,0.85
9642.00,0.84
9641.00,0.83
9640.00,0.83
9639.00,0.82
9638.00,0.81
9637.00,0.80
9636.00,0.80
9635.00,0.79
9634.00,0.78
9633.00,0.78
9632.00,0.77
9631.00,0.76
9630.00,0.76
9629.00,0.75
9628.00,0.74
9627.00,0.74
9626.00,0.73
9625.00,0.73
9624.00,0.72
9623.00,0.72
9622.00,0.71
9621.00,0.71
9620.00,0.70
9619.00,0.70
9618.00,0.70
9617.00,0.70
9616.00,0.69
9615.00,0.69
9614.00,0.69
9613.00,0.69
9612.00,0.68
9611.00,0.68
9610.00,0.67
9609.00,0.67
9608.00,0.66
9607.00,0.66
9606.00,0.65
9605.00,0.65
9604.00,0.65
9603.00,0.64
9602.00,0.64
9601.00,0.64
9600.00,0.64
9599.00,0.64
9598.00,0.64
9597.00,0.65
9596.00,0.65
9595.00,0.65
9594.00,0.65
9593.00,0.66
9592.00,0.66
9591.00,0.66
9590.00,0.67
9589.00,0.67
9588.00,0.68
9587.00,0.68
9586.00,0.69
9585.00,0.69
9584.00,0.70
9583.00,0.71
9582.00,0.72
9581.00,0.73
9580.00,0.74
9579.00,0.75
9578.00,0.76
9577.00,0.76
9576.00,0.77
9575.00,0.78
9574.00,0.78
9573.00,0.78
9572.00,0.79
9571.00,0.79
9570.00,0.79
9569.00,0.79
9568.00,0.79
9567.00,0.79
9566.00,0.79
9565.00,0.79
9564.00,0.79
9563.00,0.78
9562.00,0.78
9561.00,0.78
9560.00,0.77
9559.00,0.77
9558.00,0.76
9557.00,0.76
9556.00,0.75
9555.00,0.75
9554.00,0.74
9553.00,0.73
9552.00,0.73
9551.00,0.72
9550.00,0.72
9549.00,0.72
9548.00,0.71
9547.00,0.71
9546.00,0.71
9545.00,0.71
9544.00,0.71
9543.00,0.71
9542.00,0.70
9541.00,0.70
9540.00,0.70
9539.00,0.70
9538.00,0.70
9537.00,0.71
9536.00,0.71
9535.00,0.71
9534.00,0.72
9533.00,0.72
9532.00,0.73
9531.00,0.73
9530.00,0.74
9529.00,0.75
9528.00,0.75
9527.00,0.76
9526.00,0.76
9525.00,0.77
9524.00,0.77
9523.00,0.77
9522.00,0.78
9521.00,0.78
9520.00,0.78
9519.00,0.78
9518.00,0.78
9517.00,0.78
9516.00,0.78
9515.00,0.78
9514.00,0.78
9513.00,0.78
9512.00,0.78
9511.00,0.78
9510.00,0.77
9509.00,0.77
9508.00,0.77
9507.00,0.76
9506.00,0.75
9505.00,0.75
9504.00,0.74
9503.00,0.73
9502.00,0.72
9501.00,0.71
9500.00,0.71
9499.00,0.70
9498.00,0.69
9497.00,0.69
9496.00,0.68
9495.00,0.68
9494.00,0.67
9493.00,0.67
9492.00,0.67
9491.00,0.66
9490.00,0.66
9489.00,0.66
9488.00,0.66
9487.00,0.66
9486.00,0.66
9485.00,0.66
9484.00,0.66
9483.00,0.66
9482.00,0.66
9481.00,0.67
9480.00,0.67
9479.00,0.68
9478.00,0.69
9477.00,0.69
9476.00,0.70
9475.00,0.71
9474.00,0.72
9473.00,0.73
9472.00,0.74
9471.00,0.74
9470.00,0.75
9469.00,0.76
9468.00,0.77
9467.00,0.78
9466.00,0.78
9465.00,0.79
9464.00,0.79
9463.00,0.80
9462.00,0.81
9461.00,0.81
9460.00,0.81
9459.00,0.82
9458.00,0.82
9457.00,0.82
9456.00,0.82
9455.00,0.82
9454.00,0.82
9453.00,0.83
9452.00,0.83
9451.00,0.83
9450.00,0.82
9449.00,0.82
9448.00,0.82
9447.00,0.82
9446.00,0.82
9445.00,0.81
9444.00,0.81
9443.00,0.81
9442.00,0.80
9441.00,0.80
9440.00,0.80
9439.00,0.80
9438.00,0.80
9437.00,0.80
9436.00,0.80
9435.00,0.80
9434.00,0.80
9433.00,0.80
9432.00,0.80
9431.00,0.80
9430.00,0.80
9429.00,0.80
9428.00,0.80
9427.00,0.80
9426.00,0.80
9425.00,0.80
9424.00,0.79
9423.00,0.79
9422.00,0.78
9421.00,0.78
9420.00,0.77
9419.00,0.77
9418.00,0.76
9417.00,0.76
9416.00,0.75
9415.00,0.75
9414.00,0.74
9413.00,0.74
9412.00,0.73
9411.00,0.72
9410.00,0.72
9409.00,0.71
9408.00,0.70
9407.00,0.69
9406.00,0.68
9405.00,0.67
9404.00,0.66
9403.00,0.66
9402.00,0.65
9401.00,0.64
9400.00,0.64
9399.00,0.63
9398.00,0.63
9397.00,0.63
9396.00,0.63
9395.00,0.63
9394.00,0.63
9393.00,0.63
9392.00,0.63
9391.00,0.63
9390.00,0.63
9389.00,0.63
9388.00,0.64
9387.00,0.64
9386.00,0.64
9385.00,0.64
9384.00,0.64
9383.00,0.64
9382.00,0.64
9381.00,0.65
9380.00,0.65
9379.00,0.66
9378.00,0.66
9377.00,0.67
9376.00,0.67
9375.00,0.68
9374.00,0.68
9373.00,0.69
9372.00,0.70
9371.00,0.70
9370.00,0.71
9369.00,0.71
9368.00,0.71
9367.00,0.72
9366.00,0.72
9365.00,0.73
9364.00,0.73
9363.00,0.73
9362.00,0.74
9361.00,0.74
9360.00,0.75
9359.00,0.75
9358.00,0.76
9357.00,0.76
9356.00,0.76
9355.00,0.77
9354.00,0.77
9353.00,0.77
9352.00,0.78
9351.00,0.78
9350.00,0.78
9349.00,0.78
9348.00,0.78
9347.00,0.79
9346.00,0.79
9345.00,0.79
9344.00,0.79
9343.00,0.79
9342.00,0.80
9341.00,0.80
9340.00,0.80
9339.00,0.81
9338.00,0.81
9337.00,0.82
9336.00,0.82
9335.00,0.83
9334.00,0.83
9333.00,0.84
9332.00,0.84
9331.00,0.85
9330.00,0.85
9329.00,0.86
9328.00,0.86
9327.00,0.87
9326.00,0.87
9325.00,0.88
9324.00,0.88
9323.00,0.89
9322.00,0.89
9321.00,0.90
9320.00,0.90
9319.00,0.90
9318.00,0.91
9317.00,0.91
9316.00,0.91
9315.00,0.91
9314.00,0.91
9313.00,0.91
9312.00,0.91
9311.00,0.91
9310.00,0.91
9309.00,0.90
9308.00,0.90
9307.00,0.89
9306.00,0.89
9305.00,0.88
9304.00,0.88
9303.00,0.87
9302.00,0.87
9301.00,0.86
9300.00,0.86
9299.00,0.85
9298.00,0.84
9297.00,0.84
9296.00,0.83
9295.00,0.82
9294.00,0.82
9293.00,0.81
9292.00,0.80
9291.00,0.80
9290.00,0.79
9289.00,0.79
9288.00,0.78
9287.00,0.77
9286.00,0.77
9285.00,0.76
9284.00,0.76
9283.00,0.75
9282.00,0.75
9281.00,0.75
9280.00,0.74
9279.00,0.74
9278.00,0.74
9277.00,0.74
9276.00,0.74
9275.00,0.74
9274.00,0.74
9273.00,0.74
9272.00,0.74
9271.00,0.74
9270.00,0.74
9269.00,0.74
9268.00,0.74
9267.00,0.74
9266.00,0.74
9265.00,0.74
9264.00,0.74
9263.00,0.74
9262.00,0.75
9261.00,0.75
9260.00,0.75
9259.00,0.75
9258.00,0.75
9257.00,0.75
9256.00,0.76
9255.00,0.76
9254.00,0.76
9253.00,0.76
9252.00,0.76
9251.00,0.76
9250.00,0.76
9249.00,0.76
9248.00,0.76
9247.00,0.76
9246.00,0.76
9245.00,0.76
9244.00,0.76
9243.00,0.76
9242.00,0.76
9241.00,0.76
9240.00,0.76
9239.00,0.76
9238.00,0.76
9237.00,0.76
9236.00,0.76
9235.00,0.76
9234.00,0.77
9233.00,0.77
9232.00,0.77
9231.00,0.77
9230.00,0.78
9229.00,0.78
9228.00,0.78
9227.00,0.79
9226.00,0.79
9225.00,0.80
9224.00,0.80
9223.00,0.81
9222.00,0.81
9221.00,0.82
9220.00,0.82
9219.00,0.82
9218.00,0.83
9217.00,0.83
9216.00,0.83
9215.00,0.83
9214.00,0.84
9213.00,0.84
9212.00,0.84
9211.00,0.84
9210.00,0.84
9209.00,0.83
9208.00,0.83
9207.00,0.83
9206.00,0.83
9205.00,0.83
9204.00,0.83
9203.00,0.83
9202.00,0.83
9201.00,0.82
9200.00,0.82
9199.00,0.82
9198.00,0.82
9197.00,0.81
9196.00,0.81
9195.00,0.81
9194.00,0.81
9193.00,0.81
9192.00,0.81
9191.00,0.81
9190.00,0.81
9189.00,0.81
9188.00,0.82
9187.00,0.82
9186.00,0.82
9185.00,0.83
9184.00,0.83
9183.00,0.84
9182.00,0.84
9181.00,0.84
9180.00,0.85
9179.00,0.85
9178.00,0.85
9177.00,0.85
9176.00,0.85
9175.00,0.85
9174.00,0.85
9173.00,0.85
9172.00,0.85
9171.00,0.85
9170.00,0.85
9169.00,0.85
9168.00,0.85
9167.00,0.85
9166.00,0.85
9165.00,0.84
9164.00,0.84
9163.00,0.84
9162.00,0.83
9161.00,0.82
9160.00,0.82
9159.00,0.81
9158.00,0.80
9157.00,0.80
9156.00,0.79
9155.00,0.78
9154.00,0.78
9153.00,0.77
9152.00,0.76
9151.00,0.76
9150.00,0.75
9149.00,0.75
9148.00,0.74
9147.00,0.74
9146.00,0.73
9145.00,0.72
9144.00,0.72
9143.00,0.71
9142.00,0.71
9141.00,0.70
9140.00,0.70
9139.00,0.69
9138.00,0.69
9137.00,0.68
9136.00,0.68
9135.00,0.68
9134.00,0.67
9133.00,0.67
9132.00,0.67
9131.00,0.67
9130.00,0.66
9129.00,0.66
9128.00,0.66
9127.00,0.66
9126.00,0.66
9125.00,0.66
9124.00,0.66
9123.00,0.66
9122.00,0.66
9121.00,0.66
9120.00,0.66
9119.00,0.67
9118.00,0.67
9117.00,0.67
9116.00,0.68
9115.00,0.68
9114.00,0.69
9113.00,0.69
9112.00,0.70
9111.00,0.70
9110.00,0.71
9109.00,0.71
9108.00,0.72
9107.00,0.73
9106.00,0.74
9105.00,0.74
9104.00,0.75
9103.00,0.76
9102.00,0.77
9101.00,0.77
9100.00,0.78
9099.00,0.79
9098.00,0.79
9097.00,0.80
9096.00,0.81
9095.00,0.81
9094.00,0.82
9093.00,0.82
9092.00,0.83
9091.00,0.83
9090.00,0.83
9089.00,0.84
9088.00,0.84
9087.00,0.84
9086.00,0.84
9085.00,0.84
9084.00,0.84
9083.00,0.84
9082.00,0.84
9081.00,0.83
9080.00,0.83
9079.00,0.83
9078.00,0.83
9077.00,0.82
9076.00,0.82
9075.00,0.82
9074.00,0.81
9073.00,0.81
9072.00,0.81
9071.00,0.81
9070.00,0.80
9069.00,0.80
9068.00,0.80
9067.00,0.80
9066.00,0.80
9065.00,0.80
9064.00,0.80
9063.00,0.80
9062.00,0.80
9061.00,0.80
9060.00,0.80
9059.00,0.80
9058.00,0.80
9057.00,0.80
9056.00,0.80
9055.00,0.80
9054.00,0.80
9053.00,0.80
9052.00,0.80
9051.00,0.80
9050.00,0.80
9049.00,0.80
9048.00,0.80
9047.00,0.80
9046.00,0.80
9045.00,0.79
9044.00,0.79
9043.00,0.79
9042.00,0.78
9041.00,0.78
9040.00,0.77
9039.00,0.77
9038.00,0.76
9037.00,0.76
9036.00,0.75
9035.00,0.75
9034.00,0.74
9033.00,0.74
9032.00,0.73
9031.00,0.73
9030.00,0.72
9029.00,0.72
9028.00,0.71
9027.00,0.71
9026.00,0.71
9025.00,0.70
9024.00,0.70
9023.00,0.70
9022.00,0.70
9021.00,0.70
9020.00,0.70
9019.00,0.70
9018.00,0.70
9017.00,0.70
9016.00,0.70
9015.00,0.70
9014.00,0.70
9013.00,0.70
9012.00,0.70
9011.00,0.70
9010.00,0.70
9009.00,0.70
9008.00,0.70
9007.00,0.70
9006.00,0.70
9005.00,0.70
9004.00,0.70
9003.00,0.70
9002.00,0.70
9001.00,0.71
9000.00,0.71
8999.00,0.71
8998.00,0.71
8997.00,0.71
8996.00,0.71
8995.00,0.72
8994.00,0.72
8993.00,0.72
8992.00,0.72
8991.00,0.72
8990.00,0.73
8989.00,0.73
8988.00,0.73
8987.00,0.74
8986.00,0.74
8985.00,0.74
8984.00,0.75
8983.00,0.75
8982.00,0.75
8981.00,0.76
8980.00,0.76
8979.00,0.76
8978.00,0.77
8977.00,0.77
8976.00,0.78
8975.00,0.78
8974.00,0.78
8973.00,0.79
8972.00,0.79
8971.00,0.79
8970.00,0.79
8969.00,0.80
8968.00,0.80
8967.00,0.80
8966.00,0.80
8965.00,0.80
8964.00,0.80
8963.00,0.80
8962.00,0.80
8961.00,0.80
8960.00,0.80
8959.00,0.80
8958.00,0.80
8957.00,0.80
8956.00,0.80
8955.00,0.80
8954.00,0.81
8953.00,0.81
8952.00,0.81
8951.00,0.81
8950.00,0.82
8949.00,0.82
8948.00,0.82
8947.00,0.82
8946.00,0.83
8945.00,0.83
8944.00,0.83
8943.00,0.83
8942.00,0.84
8941.00,0.84
8940.00,0.84
8939.00,0.84
8938.00,0.85
8937.00,0.85
8936.00,0.86
8935.00,0.86
8934.00,0.87
8933.00,0.87
8932.00,0.88
8931.00,0.88
8930.00,0.88
8929.00,0.89
8928.00,0.89
8927.00,0.89
8926.00,0.89
8925.00,0.89
8924.00,0.90
8923.00,0.90
8922.00,0.90
8921.00,0.90
8920.00,0.90
8919.00,0.90
8918.00,0.90
8917.00,0.90
8916.00,0.90
8915.00,0.90
8914.00,0.90
8913.00,0.90
8912.00,0.90
8911.00,0.89
8910.00,0.89
8909.00,0.89
8908.00,0.88
8907.00,0.88
8906.00,0.87
8905.00,0.87
8904.00,0.87
8903.00,0.86
8902.00,0.86
8901.00,0.86
8900.00,0.86
8899.00,0.85
8898.00,0.85
8897.00,0.84
8896.00,0.84
8895.00,0.83
8894.00,0.83
8893.00,0.82
8892.00,0.82
8891.00,0.81
8890.00,0.81
8889.00,0.81
8888.00,0.80
8887.00,0.80
8886.00,0.79
8885.00,0.79
8884.00,0.79
8883.00,0.78
8882.00,0.78
8881.00,0.78
8880.00,0.77
8879.00,0.77
8878.00,0.76
8877.00,0.76
8876.00,0.75
8875.00,0.75
8874.00,0.74
8873.00,0.74
8872.00,0.73
8871.00,0.73
8870.00,0.72
8869.00,0.72
8868.00,0.71
8867.00,0.71
8866.00,0.71
8865.00,0.71
8864.00,0.71
8863.00,0.71
8862.00,0.71
8861.00,0.71
8860.00,0.71
8859.00,0.71
8858.00,0.71
8857.00,0.72
8856.00,0.72
8855.00,0.72
8854.00,0.73
8853.00,0.73
8852.00,0.73
8851.00,0.74
8850.00,0.74
8849.00,0.75
8848.00,0.75
8847.00,0.76
8846.00,0.76
8845.00,0.77
8844.00,0.77
8843.00,0.78
8842.00,0.78
8841.00,0.79
8840.00,0.79
8839.00,0.79
8838.00,0.80
8837.00,0.80
8836.00,0.80
8835.00,0.80
8834.00,0.80
8833.00,0.80
8832.00,0.80
8831.00,0.79
8830.00,0.79
8829.00,0.79
8828.00,0.78
8827.00,0.78
8826.00,0.78
8825.00,0.77
8824.00,0.77
8823.00,0.76
8822.00,0.76
8821.00,0.75
8820.00,0.74
8819.00,0.74
8818.00,0.73
8817.00,0.73
8816.00,0.72
8815.00,0.72
8814.00,0.71
8813.00,0.71
8812.00,0.70
8811.00,0.70
8810.00,0.70
8809.00,0.69
8808.00,0.69
8807.00,0.69
8806.00,0.69
8805.00,0.69
8804.00,0.69
8803.00,0.69
8802.00,0.70
8801.00,0.70
8800.00,0.70
8799.00,0.71
8798.00,0.71
8797.00,0.72
8796.00,0.72
8795.00,0.73
8794.00,0.74
8793.00,0.74
8792.00,0.75
8791.00,0.76
8790.00,0.77
8789.00,0.77
8788.00,0.78
8787.00,0.79
8786.00,0.80
8785.00,0.80
8784.00,0.81
8783.00,0.82
8782.00,0.82
8781.00,0.83
8780.00,0.83
8779.00,0.84
8778.00,0.84
8777.00,0.84
8776.00,0.84
8775.00,0.84
8774.00,0.84
8773.00,0.85
8772.00,0.84
8771.00,0.84
8770.00,0.84
8769.00,0.84
8768.00,0.84
8767.00,0.84
8766.00,0.84
8765.00,0.84
8764.00,0.84
8763.00,0.84
8762.00,0.83
8761.00,0.83
8760.00,0.83
8759.00,0.83
8758.00,0.83
8757.00,0.83
8756.00,0.83
8755.00,0.82
8754.00,0.82
8753.00,0.82
8752.00,0.83
8751.00,0.83
8750.00,0.83
8749.00,0.83
8748.00,0.83
8747.00,0.83
8746.00,0.84
8745.00,0.84
8744.00,0.84
8743.00,0.84
8742.00,0.85
8741.00,0.85
8740.00,0.85
8739.00,0.86
8738.00,0.86
8737.00,0.86
8736.00,0.87
8735.00,0.87
8734.00,0.87
8733.00,0.88
8732.00,0.88
8731.00,0.88
8730.00,0.88
8729.00,0.88
8728.00,0.88
8727.00,0.88
8726.00,0.88
8725.00,0.88
8724.00,0.88
8723.00,0.88
8722.00,0.88
8721.00,0.88
8720.00,0.88
8719.00,0.88
8718.00,0.88
8717.00,0.87
8716.00,0.87
8715.00,0.86
8714.00,0.86
8713.00,0.86
8712.00,0.85
8711.00,0.84
8710.00,0.84
8709.00,0.83
8708.00,0.82
8707.00,0.81
8706.00,0.80
8705.00,0.80
8704.00,0.79
8703.00,0.78
8702.00,0.77
8701.00,0.77
8700.00,0.76
8699.00,0.76
8698.00,0.75
8697.00,0.75
8696.00,0.75
8695.00,0.74
8694.00,0.74
8693.00,0.74
8692.00,0.73
8691.00,0.73
8690.00,0.73
8689.00,0.73
8688.00,0.73
8687.00,0.73
8686.00,0.73
8685.00,0.73
8684.00,0.73
8683.00,0.74
8682.00,0.74
8681.00,0.74
8680.00,0.75
8679.00,0.75
8678.00,0.76
8677.00,0.76
8676.00,0.77
8675.00,0.77
8674.00,0.78
8673.00,0.78
8672.00,0.79
8671.00,0.79
8670.00,0.79
8669.00,0.79
8668.00,0.80
8667.00,0.80
8666.00,0.80
8665.00,0.81
8664.00,0.81
8663.00,0.81
8662.00,0.82
8661.00,0.82
8660.00,0.83
8659.00,0.83
8658.00,0.83
8657.00,0.84
8656.00,0.84
8655.00,0.84
8654.00,0.84
8653.00,0.84
8652.00,0.84
8651.00,0.84
8650.00,0.84
8649.00,0.83
8648.00,0.83
8647.00,0.83
8646.00,0.83
8645.00,0.83
8644.00,0.83
8643.00,0.82
8642.00,0.82
8641.00,0.82
8640.00,0.81
8639.00,0.81
8638.00,0.80
8637.00,0.80
8636.00,0.79
8635.00,0.78
8634.00,0.78
8633.00,0.77
8632.00,0.77
8631.00,0.76
8630.00,0.76
8629.00,0.75
8628.00,0.75
8627.00,0.75
8626.00,0.74
8625.00,0.74
8624.00,0.74
8623.00,0.74
8622.00,0.74
8621.00,0.74
8620.00,0.74
8619.00,0.74
8618.00,0.75
8617.00,0.75
8616.00,0.75
8615.00,0.75
8614.00,0.76
8613.00,0.76
8612.00,0.76
8611.00,0.77
8610.00,0.77
8609.00,0.78
8608.00,0.79
8607.00,0.79
8606.00,0.80
8605.00,0.80
8604.00,0.81
8603.00,0.81
8602.00,0.81
8601.00,0.81
8600.00,0.82
8599.00,0.82
8598.00,0.82
8597.00,0.82
8596.00,0.82
8595.00,0.82
8594.00,0.82
8593.00,0.82
8592.00,0.82
8591.00,0.82
8590.00,0.82
8589.00,0.81
8588.00,0.81
8587.00,0.81
8586.00,0.80
8585.00,0.80
8584.00,0.80
8583.00,0.79
8582.00,0.79
8581.00,0.78
8580.00,0.78
8579.00,0.78
8578.00,0.77
8577.00,0.77
8576.00,0.77
8575.00,0.76
8574.00,0.76
8573.00,0.76
8572.00,0.76
8571.00,0.75
8570.00,0.75
8569.00,0.75
8568.00,0.74
8567.00,0.74
8566.00,0.74
8565.00,0.73
8564.00,0.73
8563.00,0.73
8562.00,0.72
8561.00,0.72
8560.00,0.72
8559.00,0.72
8558.00,0.72
8557.00,0.72
8556.00,0.72
8555.00,0.72
8554.00,0.72
8553.00,0.72
8552.00,0.72
8551.00,0.72
8550.00,0.72
8549.00,0.72
8548.00,0.72
8547.00,0.72
8546.00,0.72
8545.00,0.72
8544.00,0.72
8543.00,0.72
8542.00,0.73
8541.00,0.73
8540.00,0.73
8539.00,0.74
8538.00,0.74
8537.00,0.75
8536.00,0.75
8535.00,0.75
8534.00,0.75
8533.00,0.76
8532.00,0.76
8531.00,0.76
8530.00,0.76
8529.00,0.76
8528.00,0.76
8527.00,0.76
8526.00,0.77
8525.00,0.77
8524.00,0.77
8523.00,0.77
8522.00,0.77
8521.00,0.77
8520.00,0.77
8519.00,0.77
8518.00,0.77
8517.00,0.76
8516.00,0.76
8515.00,0.76
8514.00,0.76
8513.00,0.75
8512.00,0.75
8511.00,0.75
8510.00,0.74
8509.00,0.74
8508.00,0.74
8507.00,0.74
8506.00,0.73
8505.00,0.73
8504.00,0.73
8503.00,0.73
8502.00,0.73
8501.00,0.73
8500.00,0.73
8499.00,0.73
8498.00,0.72
8497.00,0.72
8496.00,0.72
8495.00,0.72
8494.00,0.72
8493.00,0.72
8492.00,0.72
8491.00,0.73
8490.00,0.73
8489.00,0.73
8488.00,0.73
8487.00,0.73
8486.00,0.74
8485.00,0.74
8484.00,0.74
8483.00,0.74
8482.00,0.74
8481.00,0.74
8480.00,0.75
8479.00,0.75
8478.00,0.75
8477.00,0.75
8476.00,0.75
8475.00,0.75
8474.00,0.75
8473.00,0.75
8472.00,0.75
8471.00,0.76
8470.00,0.76
8469.00,0.76
8468.00,0.76
8467.00,0.77
8466.00,0.77
8465.00,0.77
8464.00,0.77
8463.00,0.78
8462.00,0.78
8461.00,0.78
8460.00,0.78
8459.00,0.79
8458.00,0.79
8457.00,0.79
8456.00,0.79
8455.00,0.80
8454.00,0.80
8453.00,0.80
8452.00,0.80
8451.00,0.81
8450.00,0.81
8449.00,0.81
8448.00,0.82
8447.00,0.82
8446.00,0.82
8445.00,0.83
8444.00,0.83
8443.00,0.83
8442.00,0.84
8441.00,0.84
8440.00,0.84
8439.00,0.84
8438.00,0.85
8437.00,0.85
8436.00,0.85
8435.00,0.85
8434.00,0.85
8433.00,0.85
8432.00,0.85
8431.00,0.85
8430.00,0.85
8429.00,0.84
8428.00,0.84
8427.00,0.84
8426.00,0.84
8425.00,0.84
8424.00,0.84
8423.00,0.84
8422.00,0.84
8421.00,0.83
8420.00,0.83
8419.00,0.83
8418.00,0.82
8417.00,0.82
8416.00,0.81
8415.00,0.81
8414.00,0.81
8413.00,0.81
8412.00,0.80
8411.00,0.80
8410.00,0.80
8409.00,0.80
8408.00,0.80
8407.00,0.80
8406.00,0.80
8405.00,0.80
8404.00,0.80
8403.00,0.80
8402.00,0.80
8401.00,0.80
8400.00,0.80
8399.00,0.80
8398.00,0.80
8397.00,0.80
8396.00,0.80
8395.00,0.80
8394.00,0.80
8393.00,0.80
8392.00,0.81
8391.00,0.81
8390.00,0.81
8389.00,0.81
8388.00,0.81
8387.00,0.81
8386.00,0.81
8385.00,0.81
8384.00,0.81
8383.00,0.81
8382.00,0.81
8381.00,0.80
8380.00,0.80
8379.00,0.80
8378.00,0.80
8377.00,0.80
8376.00,0.80
8375.00,0.80
8374.00,0.80
8373.00,0.80
8372.00,0.79
8371.00,0.79
8370.00,0.79
8369.00,0.79
8368.00,0.78
8367.00,0.78
8366.00,0.78
8365.00,0.78
8364.00,0.77
8363.00,0.77
8362.00,0.77
8361.00,0.77
8360.00,0.77
8359.00,0.77
8358.00,0.77
8357.00,0.77
8356.00,0.77
8355.00,0.77
8354.00,0.77
8353.00,0.78
8352.00,0.78
8351.00,0.78
8350.00,0.78
8349.00,0.78
8348.00,0.78
8347.00,0.79
8346.00,0.79
8345.00,0.79
8344.00,0.79
8343.00,0.80
8342.00,0.80
8341.00,0.80
8340.00,0.80
8339.00,0.80
8338.00,0.81
8337.00,0.81
8336.00,0.81
8335.00,0.81
8334.00,0.81
8333.00,0.81
8332.00,0.81
8331.00,0.81
8330.00,0.81
8329.00,0.81
8328.00,0.81
8327.00,0.81
8326.00,0.81
8325.00,0.81
8324.00,0.81
8323.00,0.81
8322.00,0.80
8321.00,0.80
8320.00,0.80
8319.00,0.79
8318.00,0.79
8317.00,0.79
8316.00,0.79
8315.00,0.79
8314.00,0.78
8313.00,0.78
8312.00,0.78
8311.00,0.78
8310.00,0.78
8309.00,0.78
8308.00,0.78
8307.00,0.78
8306.00,0.78
8305.00,0.78
8304.00,0.78
8303.00,0.78
8302.00,0.78
8301.00,0.79
8300.00,0.79
8299.00,0.79
8298.00,0.80
8297.00,0.80
8296.00,0.80
8295.00,0.81
8294.00,0.81
8293.00,0.82
8292.00,0.82
8291.00,0.83
8290.00,0.83
8289.00,0.84
8288.00,0.84
8287.00,0.84
8286.00,0.85
8285.00,0.85
8284.00,0.85
8283.00,0.86
8282.00,0.86
8281.00,0.86
8280.00,0.86
8279.00,0.86
8278.00,0.86
8277.00,0.86
8276.00,0.86
8275.00,0.86
8274.00,0.86
8273.00,0.86
8272.00,0.85
8271.00,0.85
8270.00,0.85
8269.00,0.84
8268.00,0.84
8267.00,0.84
8266.00,0.84
8265.00,0.83
8264.00,0.83
8263.00,0.83
8262.00,0.82
8261.00,0.82
8260.00,0.82
8259.00,0.82
8258.00,0.81
8257.00,0.81
8256.00,0.81
8255.00,0.81
8254.00,0.81
8253.00,0.81
8252.00,0.81
8251.00,0.81
8250.00,0.81
8249.00,0.81
8248.00,0.81
8247.00,0.81
8246.00,0.81
8245.00,0.81
8244.00,0.81
8243.00,0.81
8242.00,0.81
8241.00,0.81
8240.00,0.82
8239.00,0.82
8238.00,0.82
8237.00,0.82
8236.00,0.82
8235.00,0.82
8234.00,0.82
8233.00,0.83
8232.00,0.83
8231.00,0.83
8230.00,0.83
8229.00,0.82
8228.00,0.82
8227.00,0.82
8226.00,0.82
8225.00,0.82
8224.00,0.81
8223.00,0.81
8222.00,0.81
8221.00,0.81
8220.00,0.81
8219.00,0.80
8218.00,0.80
8217.00,0.80
8216.00,0.80
8215.00,0.80
8214.00,0.79
8213.00,0.79
8212.00,0.79
8211.00,0.79
8210.00,0.79
8209.00,0.78
8208.00,0.78
8207.00,0.78
8206.00,0.78
8205.00,0.78
8204.00,0.77
8203.00,0.77
8202.00,0.77
8201.00,0.77
8200.00,0.78
8199.00,0.78
8198.00,0.78
8197.00,0.78
8196.00,0.78
8195.00,0.78
8194.00,0.78
8193.00,0.79
8192.00,0.79
8191.00,0.79
8190.00,0.79
8189.00,0.79
8188.00,0.80
8187.00,0.80
8186.00,0.80
8185.00,0.80
8184.00,0.80
8183.00,0.80
8182.00,0.80
8181.00,0.80
8180.00,0.81
8179.00,0.81
8178.00,0.81
8177.00,0.81
8176.00,0.81
8175.00,0.81
8174.00,0.82
8173.00,0.82
8172.00,0.82
8171.00,0.82
8170.00,0.83
8169.00,0.83
8168.00,0.83
8167.00,0.83
8166.00,0.83
8165.00,0.83
8164.00,0.83
8163.00,0.84
8162.00,0.84
8161.00,0.84
8160.00,0.85
8159.00,0.85
8158.00,0.85
8157.00,0.86
8156.00,0.86
8155.00,0.86
8154.00,0.87
8153.00,0.87
8152.00,0.87
8151.00,0.88
8150.00,0.88
8149.00,0.88
8148.00,0.88
8147.00,0.89
8146.00,0.89
8145.00,0.89
8144.00,0.89
8143.00,0.89
8142.00,0.90
8141.00,0.90
8140.00,0.90
8139.00,0.90
8138.00,0.90
8137.00,0.90
8136.00,0.90
8135.00,0.90
8134.00,0.90
8133.00,0.90
8132.00,0.90
8131.00,0.90
8130.00,0.90
8129.00,0.89
8128.00,0.89
8127.00,0.89
8126.00,0.89
8125.00,0.88
8124.00,0.88
8123.00,0.88
8122.00,0.88
8121.00,0.87
8120.00,0.87
8119.00,0.87
8118.00,0.87
8117.00,0.87
8116.00,0.86
8115.00,0.86
8114.00,0.86
8113.00,0.86
8112.00,0.85
8111.00,0.85
8110.00,0.85
8109.00,0.85
8108.00,0.84
8107.00,0.84
8106.00,0.84
8105.00,0.84
8104.00,0.84
8103.00,0.84
8102.00,0.84
8101.00,0.84
8100.00,0.84
8099.00,0.84
8098.00,0.83
8097.00,0.83
8096.00,0.83
8095.00,0.83
8094.00,0.83
8093.00,0.83
8092.00,0.83
8091.00,0.83
8090.00,0.83
8089.00,0.83
8088.00,0.83
8087.00,0.83
8086.00,0.83
8085.00,0.83
8084.00,0.83
8083.00,0.83
8082.00,0.83
8081.00,0.83
8080.00,0.83
8079.00,0.83
8078.00,0.83
8077.00,0.83
8076.00,0.83
8075.00,0.83
8074.00,0.83
8073.00,0.83
8072.00,0.83
8071.00,0.83
8070.00,0.83
8069.00,0.84
8068.00,0.84
8067.00,0.84
8066.00,0.84
8065.00,0.84
8064.00,0.84
8063.00,0.85
8062.00,0.85
8061.00,0.85
8060.00,0.85
8059.00,0.85
8058.00,0.85
8057.00,0.85
8056.00,0.85
8055.00,0.86
8054.00,0.86
8053.00,0.86
8052.00,0.86
8051.00,0.86
8050.00,0.87
8049.00,0.87
8048.00,0.87
8047.00,0.88
8046.00,0.88
8045.00,0.89
8044.00,0.89
8043.00,0.89
8042.00,0.90
8041.00,0.90
8040.00,0.91
8039.00,0.91
8038.00,0.91
8037.00,0.91
8036.00,0.92
8035.00,0.92
8034.00,0.92
8033.00,0.92
8032.00,0.92
8031.00,0.92
8030.00,0.93
8029.00,0.93
8028.00,0.93
8027.00,0.93
8026.00,0.93
8025.00,0.94
8024.00,0.94
8023.00,0.94
8022.00,0.94
8021.00,0.94
8020.00,0.94
8019.00,0.94
8018.00,0.93
8017.00,0.93
8016.00,0.93
8015.00,0.93
8014.00,0.92
8013.00,0.92
8012.00,0.92
8011.00,0.92
8010.00,0.92
8009.00,0.92
8008.00,0.92
8007.00,0.92
8006.00,0.92
8005.00,0.91
8004.00,0.91
8003.00,0.91
8002.00,0.91
8001.00,0.91
8000.00,0.90
7999.00,0.90
7998.00,0.90
7997.00,0.89
7996.00,0.89
7995.00,0.89
7994.00,0.89
7993.00,0.88
7992.00,0.88
7991.00,0.88
7990.00,0.88
7989.00,0.88
7988.00,0.88
7987.00,0.88
7986.00,0.88
7985.00,0.88
7984.00,0.88
7983.00,0.88
7982.00,0.88
7981.00,0.88
7980.00,0.88
7979.00,0.88
7978.00,0.88
7977.00,0.88
7976.00,0.89
7975.00,0.89
7974.00,0.89
7973.00,0.90
7972.00,0.90
7971.00,0.90
7970.00,0.91
7969.00,0.91
7968.00,0.91
7967.00,0.92
7966.00,0.92
7965.00,0.92
7964.00,0.93
7963.00,0.93
7962.00,0.93
7961.00,0.93
7960.00,0.93
7959.00,0.93
7958.00,0.93
7957.00,0.93
7956.00,0.93
7955.00,0.92
7954.00,0.92
7953.00,0.92
7952.00,0.92
7951.00,0.91
7950.00,0.91
7949.00,0.91
7948.00,0.90
7947.00,0.90
7946.00,0.90
7945.00,0.89
7944.00,0.89
7943.00,0.88
7942.00,0.88
7941.00,0.88
7940.00,0.87
7939.00,0.87
7938.00,0.87
7937.00,0.86
7936.00,0.86
7935.00,0.86
7934.00,0.86
7933.00,0.86
7932.00,0.86
7931.00,0.86
7930.00,0.86
7929.00,0.86
7928.00,0.86
7927.00,0.86
7926.00,0.86
7925.00,0.86
7924.00,0.86
7923.00,0.86
7922.00,0.87
7921.00,0.87
7920.00,0.87
7919.00,0.87
7918.00,0.87
7917.00,0.87
7916.00,0.87
7915.00,0.87
7914.00,0.87
7913.00,0.87
7912.00,0.87
7911.00,0.87
7910.00,0.87
7909.00,0.86
7908.00,0.86
7907.00,0.86
7906.00,0.86
7905.00,0.85
7904.00,0.85
7903.00,0.85
7902.00,0.85
7901.00,0.85
7900.00,0.85
7899.00,0.85
7898.00,0.85
7897.00,0.85
7896.00,0.85
7895.00,0.85
7894.00,0.86
7893.00,0.86
7892.00,0.86
7891.00,0.86
7890.00,0.86
7889.00,0.87
7888.00,0.87
7887.00,0.87
7886.00,0.88
7885.00,0.88
7884.00,0.88
7883.00,0.89
7882.00,0.89
7881.00,0.90
7880.00,0.90
7879.00,0.90
7878.00,0.91
7877.00,0.91
7876.00,0.91
7875.00,0.92
7874.00,0.92
7873.00,0.92
7872.00,0.92
7871.00,0.92
7870.00,0.92
7869.00,0.92
7868.00,0.92
7867.00,0.92
7866.00,0.92
7865.00,0.92
7864.00,0.92
7863.00,0.91
7862.00,0.91
7861.00,0.91
7860.00,0.91
7859.00,0.90
7858.00,0.90
7857.00,0.89
7856.00,0.89
7855.00,0.89
7854.00,0.88
7853.00,0.88
7852.00,0.87
7851.00,0.87
7850.00,0.87
7849.00,0.86
7848.00,0.86
7847.00,0.85
7846.00,0.85
7845.00,0.84
7844.00,0.84
7843.00,0.84
7842.00,0.83
7841.00,0.83
7840.00,0.83
7839.00,0.82
7838.00,0.82
7837.00,0.82
7836.00,0.82
7835.00,0.82
7834.00,0.82
7833.00,0.82
7832.00,0.82
7831.00,0.82
7830.00,0.82
7829.00,0.82
7828.00,0.82
7827.00,0.82
7826.00,0.82
7825.00,0.82
7824.00,0.83
7823.00,0.83
7822.00,0.83
7821.00,0.83
7820.00,0.84
7819.00,0.84
7818.00,0.85
7817.00,0.85
7816.00,0.85
7815.00,0.86
7814.00,0.86
7813.00,0.87
7812.00,0.87
7811.00,0.88
7810.00,0.88
7809.00,0.89
7808.00,0.89
7807.00,0.89
7806.00,0.90
7805.00,0.90
7804.00,0.90
7803.00,0.90
7802.00,0.91
7801.00,0.91
7800.00,0.91
7799.00,0.91
7798.00,0.91
7797.00,0.91
7796.00,0.91
7795.00,0.91
7794.00,0.91
7793.00,0.91
7792.00,0.91
7791.00,0.91
7790.00,0.91
7789.00,0.91
7788.00,0.90
7787.00,0.90
7786.00,0.90
7785.00,0.90
7784.00,0.90
7783.00,0.90
7782.00,0.89
7781.00,0.89
7780.00,0.89
7779.00,0.89
7778.00,0.89
7777.00,0.89
7776.00,0.89
7775.00,0.89
7774.00,0.89
7773.00,0.89
7772.00,0.89
7771.00,0.89
7770.00,0.89
7769.00,0.90
7768.00,0.90
7767.00,0.90
7766.00,0.90
7765.00,0.91
7764.00,0.91
7763.00,0.91
7762.00,0.91
7761.00,0.92
7760.00,0.92
7759.00,0.92
7758.00,0.92
7757.00,0.93
7756.00,0.93
7755.00,0.93
7754.00,0.93
7753.00,0.94
7752.00,0.94
7751.00,0.94
7750.00,0.95
7749.00,0.95
7748.00,0.95
7747.00,0.95
7746.00,0.95
7745.00,0.95
7744.00,0.95
7743.00,0.95
7742.00,0.95
7741.00,0.95
7740.00,0.95
7739.00,0.95
7738.00,0.95
7737.00,0.95
7736.00,0.95
7735.00,0.95
7734.00,0.96
7733.00,0.96
7732.00,0.96
7731.00,0.96
7730.00,0.96
7729.00,0.96
7728.00,0.96
7727.00,0.96
7726.00,0.96
7725.00,0.96
7724.00,0.95
7723.00,0.95
7722.00,0.95
7721.00,0.95
7720.00,0.95
7719.00,0.95
7718.00,0.95
7717.00,0.95
7716.00,0.96
7715.00,0.96
7714.00,0.96
7713.00,0.96
7712.00,0.96
7711.00,0.96
7710.00,0.96
7709.00,0.96
7708.00,0.96
7707.00,0.96
7706.00,0.96
7705.00,0.96
7704.00,0.95
7703.00,0.95
7702.00,0.95
7701.00,0.95
7700.00,0.95
7699.00,0.94
7698.00,0.94
7697.00,0.94
7696.00,0.94
7695.00,0.94
7694.00,0.93
7693.00,0.93
7692.00,0.93
7691.00,0.92
7690.00,0.92
7689.00,0.92
7688.00,0.91
7687.00,0.91
7686.00,0.91
7685.00,0.90
7684.00,0.90
7683.00,0.90
7682.00,0.89
7681.00,0.89
7680.00,0.89
7679.00,0.89
7678.00,0.89
7677.00,0.89
7676.00,0.89
7675.00,0.89
7674.00,0.89
7673.00,0.89
7672.00,0.89
7671.00,0.89
7670.00,0.89
7669.00,0.90
7668.00,0.90
7667.00,0.90
7666.00,0.90
7665.00,0.91
7664.00,0.91
7663.00,0.91
7662.00,0.92
7661.00,0.92
7660.00,0.93
7659.00,0.93
7658.00,0.93
7657.00,0.93
7656.00,0.94
7655.00,0.94
7654.00,0.94
7653.00,0.94
7652.00,0.94
7651.00,0.94
7650.00,0.94
7649.00,0.95
7648.00,0.95
7647.00,0.95
7646.00,0.95
7645.00,0.95
7644.00,0.95
7643.00,0.95
7642.00,0.95
7641.00,0.95
7640.00,0.95
7639.00,0.95
7638.00,0.94
7637.00,0.94
7636.00,0.94
7635.00,0.93
7634.00,0.93
7633.00,0.93
7632.00,0.92
7631.00,0.92
7630.00,0.92
7629.00,0.92
7628.00,0.92
7627.00,0.92
7626.00,0.92
7625.00,0.92
7624.00,0.91
7623.00,0.91
7622.00,0.91
7621.00,0.91
7620.00,0.91
7619.00,0.91
7618.00,0.90
7617.00,0.90
7616.00,0.90
7615.00,0.90
7614.00,0.90
7613.00,0.90
7612.00,0.90
7611.00,0.89
7610.00,0.89
7609.00,0.89
7608.00,0.89
7607.00,0.89
7606.00,0.89
7605.00,0.89
7604.00,0.89
7603.00,0.88
7602.00,0.88
7601.00,0.88
7600.00,0.88
7599.00,0.87
7598.00,0.87
7597.00,0.87
7596.00,0.87
7595.00,0.87
7594.00,0.87
7593.00,0.86
7592.00,0.86
7591.00,0.86
7590.00,0.86
7589.00,0.86
7588.00,0.86
7587.00,0.85
7586.00,0.85
7585.00,0.85
7584.00,0.85
7583.00,0.85
7582.00,0.85
7581.00,0.85
7580.00,0.85
7579.00,0.85
7578.00,0.85
7577.00,0.86
7576.00,0.86
7575.00,0.86
7574.00,0.86
7573.00,0.86
7572.00,0.86
7571.00,0.86
7570.00,0.87
7569.00,0.87
7568.00,0.87
7567.00,0.87
7566.00,0.87
7565.00,0.87
7564.00,0.88
7563.00,0.88
7562.00,0.88
7561.00,0.89
7560.00,0.89
7559.00,0.89
7558.00,0.89
7557.00,0.90
7556.00,0.90
7555.00,0.90
7554.00,0.90
7553.00,0.90
7552.00,0.90
7551.00,0.90
7550.00,0.90
7549.00,0.90
7548.00,0.90
7547.00,0.90
7546.00,0.90
7545.00,0.90
7544.00,0.90
7543.00,0.90
7542.00,0.90
7541.00,0.90
7540.00,0.90
7539.00,0.90
7538.00,0.90
7537.00,0.89
7536.00,0.89
7535.00,0.89
7534.00,0.89
7533.00,0.88
7532.00,0.88
7531.00,0.88
7530.00,0.88
7529.00,0.87
7528.00,0.87
7527.00,0.87
7526.00,0.87
7525.00,0.86
7524.00,0.86
7523.00,0.86
7522.00,0.86
7521.00,0.86
7520.00,0.86
7519.00,0.86
7518.00,0.85
7517.00,0.85
7516.00,0.85
7515.00,0.85
7514.00,0.85
7513.00,0.85
7512.00,0.85
7511.00,0.85
7510.00,0.85
7509.00,0.85
7508.00,0.85
7507.00,0.85
7506.00,0.85
7505.00,0.85
7504.00,0.86
7503.00,0.86
7502.00,0.86
7501.00,0.86
7500.00,0.86
7499.00,0.86
7498.00,0.86
7497.00,0.86
7496.00,0.86
7495.00,0.86
7494.00,0.86
7493.00,0.86
7492.00,0.86
7491.00,0.86
7490.00,0.86
7489.00,0.86
7488.00,0.86
7487.00,0.86
7486.00,0.86
7485.00,0.86
7484.00,0.87
7483.00,0.87
7482.00,0.87
7481.00,0.87
7480.00,0.87
7479.00,0.87
7478.00,0.87
7477.00,0.87
7476.00,0.88
7475.00,0.88
7474.00,0.88
7473.00,0.88
7472.00,0.88
7471.00,0.88
7470.00,0.88
7469.00,0.88
7468.00,0.88
7467.00,0.88
7466.00,0.88
7465.00,0.88
7464.00,0.88
7463.00,0.88
7462.00,0.88
7461.00,0.88
7460.00,0.88
7459.00,0.88
7458.00,0.88
7457.00,0.88
7456.00,0.88
7455.00,0.88
7454.00,0.88
7453.00,0.88
7452.00,0.87
7451.00,0.87
7450.00,0.87
7449.00,0.87
7448.00,0.87
7447.00,0.87
7446.00,0.87
7445.00,0.86
7444.00,0.86
7443.00,0.86
7442.00,0.86
7441.00,0.86
7440.00,0.86
7439.00,0.86
7438.00,0.85
7437.00,0.85
7436.00,0.85
7435.00,0.85
7434.00,0.85
7433.00,0.84
7432.00,0.84
7431.00,0.84
7430.00,0.84
7429.00,0.84
7428.00,0.83
7427.00,0.83
7426.00,0.83
7425.00,0.83
7424.00,0.83
7423.00,0.83
7422.00,0.83
7421.00,0.82
7420.00,0.82
7419.00,0.82
7418.00,0.82
7417.00,0.82
7416.00,0.82
7415.00,0.82
7414.00,0.81
7413.00,0.81
7412.00,0.81
7411.00,0.81
7410.00,0.81
7409.00,0.81
7408.00,0.80
7407.00,0.80
7406.00,0.80
7405.00,0.80
7404.00,0.80
7403.00,0.80
7402.00,0.80
7401.00,0.79
7400.00,0.79
7399.00,0.79
7398.00,0.79
7397.00,0.79
7396.00,0.79
7395.00,0.79
7394.00,0.79
7393.00,0.79
7392.00,0.78
7391.00,0.78
7390.00,0.78
7389.00,0.78
7388.00,0.78
7387.00,0.78
7386.00,0.78
7385.00,0.78
7384.00,0.78
7383.00,0.78
7382.00,0.78
7381.00,0.78
7380.00,0.78
7379.00,0.78
7378.00,0.79
7377.00,0.79
7376.00,0.79
7375.00,0.79
7374.00,0.79
7373.00,0.79
7372.00,0.79
7371.00,0.80
7370.00,0.80
7369.00,0.80
7368.00,0.80
7367.00,0.80
7366.00,0.80
7365.00,0.80
7364.00,0.80
7363.00,0.81
7362.00,0.81
7361.00,0.81
7360.00,0.81
7359.00,0.81
7358.00,0.81
7357.00,0.81
7356.00,0.81
7355.00,0.81
7354.00,0.80
7353.00,0.80
7352.00,0.80
7351.00,0.80
7350.00,0.80
7349.00,0.80
7348.00,0.79
7347.00,0.79
7346.00,0.79
7345.00,0.79
7344.00,0.79
7343.00,0.79
7342.00,0.79
7341.00,0.78
7340.00,0.78
7339.00,0.78
7338.00,0.78
7337.00,0.78
7336.00,0.78
7335.00,0.78
7334.00,0.79
7333.00,0.79
7332.00,0.79
7331.00,0.79
7330.00,0.79
7329.00,0.79
7328.00,0.79
7327.00,0.80
7326.00,0.80
7325.00,0.80
7324.00,0.81
7323.00,0.81
7322.00,0.81
7321.00,0.81
7320.00,0.82
7319.00,0.82
7318.00,0.82
7317.00,0.82
7316.00,0.83
7315.00,0.83
7314.00,0.83
7313.00,0.83
7312.00,0.83
7311.00,0.83
7310.00,0.83
7309.00,0.84
7308.00,0.84
7307.00,0.84
7306.00,0.84
7305.00,0.84
7304.00,0.84
7303.00,0.84
7302.00,0.84
7301.00,0.84
7300.00,0.84
7299.00,0.84
7298.00,0.84
7297.00,0.84
7296.00,0.83
7295.00,0.83
7294.00,0.83
7293.00,0.83
7292.00,0.83
7291.00,0.83
7290.00,0.83
7289.00,0.82
7288.00,0.82
7287.00,0.82
7286.00,0.82
7285.00,0.82
7284.00,0.82
7283.00,0.82
7282.00,0.82
7281.00,0.81
7280.00,0.81
7279.00,0.81
7278.00,0.81
7277.00,0.80
7276.00,0.80
7275.00,0.80
7274.00,0.80
7273.00,0.79
7272.00,0.79
7271.00,0.79
7270.00,0.78
7269.00,0.78
7268.00,0.78
7267.00,0.77
7266.00,0.77
7265.00,0.77
7264.00,0.77
7263.00,0.76
7262.00,0.76
7261.00,0.76
7260.00,0.76
7259.00,0.75
7258.00,0.75
7257.00,0.75
7256.00,0.75
7255.00,0.74
7254.00,0.74
7253.00,0.74
7252.00,0.74
7251.00,0.74
7250.00,0.73
7249.00,0.73
7248.00,0.73
7247.00,0.73
7246.00,0.73
7245.00,0.73
7244.00,0.73
7243.00,0.73
7242.00,0.73
7241.00,0.73
7240.00,0.73
7239.00,0.72
7238.00,0.72
7237.00,0.72
7236.00,0.72
7235.00,0.72
7234.00,0.71
7233.00,0.71
7232.00,0.71
7231.00,0.70
7230.00,0.70
7229.00,0.70
7228.00,0.70
7227.00,0.69
7226.00,0.69
7225.00,0.68
7224.00,0.68
7223.00,0.68
7222.00,0.67
7221.00,0.67
7220.00,0.66
7219.00,0.66
7218.00,0.65
7217.00,0.65
7216.00,0.64
7215.00,0.64
7214.00,0.63
7213.00,0.63
7212.00,0.62
7211.00,0.62
7210.00,0.62
7209.00,0.61
7208.00,0.61
7207.00,0.61
7206.00,0.61
7205.00,0.60
7204.00,0.60
7203.00,0.60
7202.00,0.60
7201.00,0.59
7200.00,0.59
7199.00,0.59
7198.00,0.59
7197.00,0.58
7196.00,0.58
7195.00,0.58
7194.00,0.58
7193.00,0.57
7192.00,0.57
7191.00,0.57
7190.00,0.57
7189.00,0.56
7188.00,0.56
7187.00,0.56
7186.00,0.56
7185.00,0.55
7184.00,0.55
7183.00,0.55
7182.00,0.54
7181.00,0.54
7180.00,0.54
7179.00,0.53
7178.00,0.53
7177.00,0.53
7176.00,0.52
7175.00,0.52
7174.00,0.52
7173.00,0.52
7172.00,0.52
7171.00,0.51
7170.00,0.51
7169.00,0.51
7168.00,0.51
7167.00,0.51
7166.00,0.51
7165.00,0.51
7164.00,0.51
7163.00,0.51
7162.00,0.51
7161.00,0.51
7160.00,0.50
7159.00,0.50
7158.00,0.50
7157.00,0.50
7156.00,0.50
7155.00,0.50
7154.00,0.50
7153.00,0.49
7152.00,0.49
7151.00,0.49
7150.00,0.49
7149.00,0.49
7148.00,0.48
7147.00,0.48
7146.00,0.48
7145.00,0.47
7144.00,0.47
7143.00,0.47
7142.00,0.46
7141.00,0.46
7140.00,0.46
7139.00,0.45
7138.00,0.45
7137.00,0.45
7136.00,0.45
7135.00,0.45
7134.00,0.45
7133.00,0.44
7132.00,0.44
7131.00,0.44
7130.00,0.44
7129.00,0.44
7128.00,0.44
7127.00,0.44
7126.00,0.44
7125.00,0.44
7124.00,0.44
7123.00,0.44
7122.00,0.44
7121.00,0.44
7120.00,0.44
7119.00,0.44
7118.00,0.44
7117.00,0.44
7116.00,0.44
7115.00,0.44
7114.00,0.44
7113.00,0.44
7112.00,0.44
7111.00,0.44
7110.00,0.43
7109.00,0.43
7108.00,0.43
7107.00,0.43
7106.00,0.43
7105.00,0.42
7104.00,0.42
7103.00,0.42
7102.00,0.42
7101.00,0.41
7100.00,0.41
7099.00,0.41
7098.00,0.41
7097.00,0.40
7096.00,0.40
7095.00,0.40
7094.00,0.40
7093.00,0.40
7092.00,0.39
7091.00,0.39
7090.00,0.39
7089.00,0.39
7088.00,0.39
7087.00,0.38
7086.00,0.38
7085.00,0.38
7084.00,0.38
7083.00,0.38
7082.00,0.38
7081.00,0.38
7080.00,0.38
7079.00,0.38
7078.00,0.37
7077.00,0.37
7076.00,0.37
7075.00,0.37
7074.00,0.37
7073.00,0.37
7072.00,0.36
7071.00,0.36
7070.00,0.36
7069.00,0.36
7068.00,0.36
7067.00,0.35
7066.00,0.35
7065.00,0.35
7064.00,0.35
7063.00,0.35
7062.00,0.35
7061.00,0.35
7060.00,0.34
7059.00,0.34
7058.00,0.34
7057.00,0.34
7056.00,0.34
7055.00,0.34
7054.00,0.34
7053.00,0.33
7052.00,0.33
7051.00,0.33
7050.00,0.33
7049.00,0.33
7048.00,0.33
7047.00,0.33
7046.00,0.33
7045.00,0.33
7044.00,0.33
7043.00,0.33
7042.00,0.33
7041.00,0.33
7040.00,0.33
7039.00,0.33
7038.00,0.34
7037.00,0.34
7036.00,0.34
7035.00,0.34
7034.00,0.34
7033.00,0.34
7032.00,0.34
7031.00,0.34
7030.00,0.34
7029.00,0.34
7028.00,0.34
7027.00,0.34
7026.00,0.34
7025.00,0.34
7024.00,0.34
7023.00,0.34
7022.00,0.34
7021.00,0.34
7020.00,0.34
7019.00,0.34
7018.00,0.33
7017.00,0.33
7016.00,0.33
7015.00,0.33
7014.00,0.33
7013.00,0.33
7012.00,0.33
7011.00,0.33
7010.00,0.33
7009.00,0.33
7008.00,0.33
7007.00,0.33
7006.00,0.33
7005.00,0.33
7004.00,0.33
7003.00,0.33
7002.00,0.33
7001.00,0.33
7000.00,0.33
6999.00,0.33
6998.00,0.33
6997.00,0.33
6996.00,0.33
6995.00,0.33
6994.00,0.34
6993.00,0.34
6992.00,0.34
6991.00,0.34
6990.00,0.34
6989.00,0.34
6988.00,0.34
6987.00,0.34
6986.00,0.34
6985.00,0.34
6984.00,0.34
6983.00,0.34
6982.00,0.34
6981.00,0.34
6980.00,0.34
6979.00,0.34
6978.00,0.34
6977.00,0.34
6976.00,0.34
6975.00,0.34
6974.00,0.34
6973.00,0.34
6972.00,0.34
6971.00,0.34
6970.00,0.34
6969.00,0.35
6968.00,0.35
6967.00,0.35
6966.00,0.35
6965.00,0.35
6964.00,0.35
6963.00,0.35
6962.00,0.35
6961.00,0.35
6960.00,0.35
6959.00,0.36
6958.00,0.36
6957.00,0.36
6956.00,0.36
6955.00,0.36
6954.00,0.37
6953.00,0.37
6952.00,0.37
6951.00,0.37
6950.00,0.38
6949.00,0.38
6948.00,0.38
6947.00,0.38
6946.00,0.38
6945.00,0.39
6944.00,0.39
6943.00,0.39
6942.00,0.39
6941.00,0.39
6940.00,0.39
6939.00,0.38
6938.00,0.38
6937.00,0.38
6936.00,0.38
6935.00,0.38
6934.00,0.38
6933.00,0.38
6932.00,0.38
6931.00,0.38
6930.00,0.37
6929.00,0.37
6928.00,0.37
6927.00,0.37
6926.00,0.36
6925.00,0.36
6924.00,0.36
6923.00,0.36
6922.00,0.35
6921.00,0.35
6920.00,0.35
6919.00,0.35
6918.00,0.35
6917.00,0.35
6916.00,0.35
6915.00,0.35
6914.00,0.35
6913.00,0.35
6912.00,0.35
6911.00,0.35
6910.00,0.35
6909.00,0.35
6908.00,0.35
6907.00,0.35
6906.00,0.35
6905.00,0.35
6904.00,0.35
6903.00,0.35
6902.00,0.35
6901.00,0.35
6900.00,0.35
6899.00,0.35
6898.00,0.36
6897.00,0.36
6896.00,0.36
6895.00,0.36
6894.00,0.36
6893.00,0.36
6892.00,0.36
6891.00,0.36
6890.00,0.36
6889.00,0.35
6888.00,0.35
6887.00,0.35
6886.00,0.35
6885.00,0.35
6884.00,0.35
6883.00,0.35
6882.00,0.35
6881.00,0.35
6880.00,0.35
6879.00,0.34
6878.00,0.34
6877.00,0.34
6876.00,0.34
6875.00,0.34
6874.00,0.33
6873.00,0.33
6872.00,0.33
6871.00,0.33
6870.00,0.32
6869.00,0.32
6868.00,0.32
6867.00,0.32
6866.00,0.32
6865.00,0.32
6864.00,0.32
6863.00,0.32
6862.00,0.32
6861.00,0.32
6860.00,0.32
6859.00,0.32
6858.00,0.32
6857.00,0.32
6856.00,0.33
6855.00,0.33
6854.00,0.33
6853.00,0.33
6852.00,0.33
6851.00,0.33
6850.00,0.34
6849.00,0.34
6848.00,0.34
6847.00,0.34
6846.00,0.35
6845.00,0.35
6844.00,0.35
6843.00,0.36
6842.00,0.36
6841.00,0.36
6840.00,0.37
6839.00,0.37
6838.00,0.37
6837.00,0.37
6836.00,0.37
6835.00,0.37
6834.00,0.38
6833.00,0.38
6832.00,0.38
6831.00,0.38
6830.00,0.38
6829.00,0.38
6828.00,0.38
6827.00,0.38
6826.00,0.38
6825.00,0.38
6824.00,0.38
6823.00,0.38
6822.00,0.38
6821.00,0.38
6820.00,0.38
6819.00,0.37
6818.00,0.37
6817.00,0.37
6816.00,0.37
6815.00,0.37
6814.00,0.37
6813.00,0.37
6812.00,0.37
6811.00,0.37
6810.00,0.36
6809.00,0.36
6808.00,0.36
6807.00,0.36
6806.00,0.36
6805.00,0.36
6804.00,0.36
6803.00,0.36
6802.00,0.36
6801.00,0.36
6800.00,0.36
6799.00,0.36
6798.00,0.36
6797.00,0.36
6796.00,0.36
6795.00,0.36
6794.00,0.37
6793.00,0.37
6792.00,0.37
6791.00,0.37
6790.00,0.37
6789.00,0.37
6788.00,0.37
6787.00,0.37
6786.00,0.37
6785.00,0.37
6784.00,0.37
6783.00,0.37
6782.00,0.38
6781.00,0.38
6780.00,0.38
6779.00,0.38
6778.00,0.38
6777.00,0.38
6776.00,0.38
6775.00,0.38
6774.00,0.38
6773.00,0.38
6772.00,0.38
6771.00,0.38
6770.00,0.38
6769.00,0.38
6768.00,0.38
6767.00,0.38
6766.00,0.37
6765.00,0.37
6764.00,0.37
6763.00,0.37
6762.00,0.37
6761.00,0.37
6760.00,0.37
6759.00,0.36
6758.00,0.36
6757.00,0.36
6756.00,0.36
6755.00,0.36
6754.00,0.35
6753.00,0.35
6752.00,0.35
6751.00,0.35
6750.00,0.35
6749.00,0.35
6748.00,0.34
6747.00,0.34
6746.00,0.34
6745.00,0.34
6744.00,0.34
6743.00,0.34
6742.00,0.34
6741.00,0.34
6740.00,0.34
6739.00,0.34
6738.00,0.34
6737.00,0.34
6736.00,0.34
6735.00,0.34
6734.00,0.34
6733.00,0.34
6732.00,0.34
6731.00,0.34
6730.00,0.34
6729.00,0.34
6728.00,0.34
6727.00,0.34
6726.00,0.34
6725.00,0.34
6724.00,0.34
6723.00,0.34
6722.00,0.34
6721.00,0.34
6720.00,0.34
6719.00,0.34
6718.00,0.34
6717.00,0.34
6716.00,0.34
6715.00,0.34
6714.00,0.34
6713.00,0.35
6712.00,0.35
6711.00,0.35
6710.00,0.36
6709.00,0.36
6708.00,0.36
6707.00,0.37
6706.00,0.37
6705.00,0.38
6704.00,0.38
6703.00,0.38
6702.00,0.39
6701.00,0.39
6700.00,0.39
6699.00,0.40
6698.00,0.40
6697.00,0.41
6696.00,0.41
6695.00,0.41
6694.00,0.41
6693.00,0.42
6692.00,0.42
6691.00,0.42
6690.00,0.42
6689.00,0.42
6688.00,0.42
6687.00,0.42
6686.00,0.42
6685.00,0.42
6684.00,0.42
6683.00,0.42
6682.00,0.42
6681.00,0.42
6680.00,0.42
6679.00,0.41
6678.00,0.41
6677.00,0.41
6676.00,0.41
6675.00,0.41
6674.00,0.41
6673.00,0.41
6672.00,0.41
6671.00,0.41
6670.00,0.41
6669.00,0.41
6668.00,0.41
6667.00,0.41
6666.00,0.41
6665.00,0.41
6664.00,0.41
6663.00,0.41
6662.00,0.41
6661.00,0.41
6660.00,0.41
6659.00,0.41
6658.00,0.41
6657.00,0.42
6656.00,0.42
6655.00,0.42
6654.00,0.42
6653.00,0.42
6652.00,0.42
6651.00,0.43
6650.00,0.43
6649.00,0.43
6648.00,0.43
6647.00,0.43
6646.00,0.44
6645.00,0.44
6644.00,0.44
6643.00,0.44
6642.00,0.45
6641.00,0.45
6640.00,0.45
6639.00,0.45
6638.00,0.45
6637.00,0.46
6636.00,0.46
6635.00,0.46
6634.00,0.46
6633.00,0.46
6632.00,0.46
6631.00,0.46
6630.00,0.47
6629.00,0.47
6628.00,0.47
6627.00,0.47
6626.00,0.47
6625.00,0.47
6624.00,0.47
6623.00,0.47
6622.00,0.47
6621.00,0.48
6620.00,0.48
6619.00,0.48
6618.00,0.48
6617.00,0.48
6616.00,0.48
6615.00,0.48
6614.00,0.48
6613.00,0.48
6612.00,0.48
6611.00,0.48
6610.00,0.48
6609.00,0.48
6608.00,0.48
6607.00,0.48
6606.00,0.49
6605.00,0.49
6604.00,0.49
6603.00,0.49
6602.00,0.49
6601.00,0.49
6600.00,0.49
6599.00,0.49
6598.00,0.49
6597.00,0.49
6596.00,0.49
6595.00,0.49
6594.00,0.49
6593.00,0.49
6592.00,0.49
6591.00,0.49
6590.00,0.49
6589.00,0.49
6588.00,0.49
6587.00,0.49
6586.00,0.49
6585.00,0.49
6584.00,0.49
6583.00,0.49
6582.00,0.49
6581.00,0.49
6580.00,0.49
6579.00,0.50
6578.00,0.50
6577.00,0.50
6576.00,0.50
6575.00,0.50
6574.00,0.50
6573.00,0.50
6572.00,0.50
6571.00,0.50
6570.00,0.50
6569.00,0.50
6568.00,0.50
6567.00,0.50
6566.00,0.50
6565.00,0.50
6564.00,0.51
6563.00,0.51
6562.00,0.51
6561.00,0.51
6560.00,0.51
6559.00,0.51
6558.00,0.51
6557.00,0.51
6556.00,0.51
6555.00,0.51
6554.00,0.51
6553.00,0.51
6552.00,0.51
6551.00,0.51
6550.00,0.51
6549.00,0.51
6548.00,0.51
6547.00,0.51
6546.00,0.52
6545.00,0.52
6544.00,0.52
6543.00,0.52
6542.00,0.52
6541.00,0.53
6540.00,0.53
6539.00,0.53
6538.00,0.53
6537.00,0.53
6536.00,0.53
6535.00,0.54
6534.00,0.54
6533.00,0.54
6532.00,0.54
6531.00,0.54
6530.00,0.54
6529.00,0.54
6528.00,0.54
6527.00,0.54
6526.00,0.54
6525.00,0.55
6524.00,0.55
6523.00,0.55
6522.00,0.55
6521.00,0.55
6520.00,0.55
6519.00,0.55
6518.00,0.55
6517.00,0.55
6516.00,0.55
6515.00,0.55
6514.00,0.56
6513.00,0.56
6512.00,0.56
6511.00,0.56
6510.00,0.56
6509.00,0.56
6508.00,0.57
6507.00,0.57
6506.00,0.57
6505.00,0.57
6504.00,0.58
6503.00,0.58
6502.00,0.58
6501.00,0.58
6500.00,0.58
6499.00,0.58
6498.00,0.59
6497.00,0.59
6496.00,0.59
6495.00,0.59
6494.00,0.59
6493.00,0.59
6492.00,0.59
6491.00,0.59
6490.00,0.59
6489.00,0.59
6488.00,0.59
6487.00,0.59
6486.00,0.59
6485.00,0.59
6484.00,0.59
6483.00,0.59
6482.00,0.59
6481.00,0.58
6480.00,0.58
6479.00,0.58
6478.00,0.58
6477.00,0.58
6476.00,0.58
6475.00,0.57
6474.00,0.57
6473.00,0.57
6472.00,0.57
6471.00,0.57
6470.00,0.57
6469.00,0.57
6468.00,0.57
6467.00,0.57
6466.00,0.56
6465.00,0.56
6464.00,0.56
6463.00,0.56
6462.00,0.56
6461.00,0.57
6460.00,0.57
6459.00,0.57
6458.00,0.57
6457.00,0.57
6456.00,0.57
6455.00,0.57
6454.00,0.57
6453.00,0.57
6452.00,0.57
6451.00,0.57
6450.00,0.57
6449.00,0.57
6448.00,0.58
6447.00,0.58
6446.00,0.58
6445.00,0.58
6444.00,0.58
6443.00,0.58
6442.00,0.58
6441.00,0.58
6440.00,0.58
6439.00,0.59
6438.00,0.59
6437.00,0.59
6436.00,0.59
6435.00,0.59
6434.00,0.59
6433.00,0.59
6432.00,0.59
6431.00,0.59
6430.00,0.59
6429.00,0.60
6428.00,0.60
6427.00,0.60
6426.00,0.60
6425.00,0.61
6424.00,0.61
6423.00,0.61
6422.00,0.61
6421.00,0.62
6420.00,0.62
6419.00,0.62
6418.00,0.62
6417.00,0.62
6416.00,0.63
6415.00,0.63
6414.00,0.63
6413.00,0.64
6412.00,0.64
6411.00,0.64
6410.00,0.65
6409.00,0.65
6408.00,0.65
6407.00,0.65
6406.00,0.66
6405.00,0.66
6404.00,0.66
6403.00,0.66
6402.00,0.66
6401.00,0.66
6400.00,0.67
6399.00,0.67
6398.00,0.67
6397.00,0.67
6396.00,0.67
6395.00,0.67
6394.00,0.68
6393.00,0.68
6392.00,0.68
6391.00,0.68
6390.00,0.68
6389.00,0.68
6388.00,0.68
6387.00,0.68
6386.00,0.69
6385.00,0.69
6384.00,0.69
6383.00,0.69
6382.00,0.69
6381.00,0.69
6380.00,0.69
6379.00,0.69
6378.00,0.69
6377.00,0.69
6376.00,0.69
6375.00,0.69
6374.00,0.69
6373.00,0.69
6372.00,0.69
6371.00,0.69
6370.00,0.69
6369.00,0.69
6368.00,0.69
6367.00,0.69
6366.00,0.69
6365.00,0.69
6364.00,0.69
6363.00,0.69
6362.00,0.68
6361.00,0.68
6360.00,0.68
6359.00,0.68
6358.00,0.68
6357.00,0.68
6356.00,0.68
6355.00,0.69
6354.00,0.69
6353.00,0.69
6352.00,0.69
6351.00,0.69
6350.00,0.69
6349.00,0.70
6348.00,0.70
6347.00,0.70
6346.00,0.70
6345.00,0.70
6344.00,0.71
6343.00,0.71
6342.00,0.71
6341.00,0.71
6340.00,0.71
6339.00,0.71
6338.00,0.72
6337.00,0.72
6336.00,0.72
6335.00,0.72
6334.00,0.72
6333.00,0.72
6332.00,0.72
6331.00,0.73
6330.00,0.73
6329.00,0.73
6328.00,0.73
6327.00,0.73
6326.00,0.73
6325.00,0.73
6324.00,0.73
6323.00,0.73
6322.00,0.73
6321.00,0.73
6320.00,0.73
6319.00,0.73
6318.00,0.73
6317.00,0.73
6316.00,0.73
6315.00,0.73
6314.00,0.73
6313.00,0.73
6312.00,0.73
6311.00,0.73
6310.00,0.73
6309.00,0.73
6308.00,0.73
6307.00,0.73
6306.00,0.73
6305.00,0.73
6304.00,0.73
6303.00,0.73
6302.00,0.73
6301.00,0.73
6300.00,0.73
6299.00,0.73
6298.00,0.73
6297.00,0.73
6296.00,0.72
6295.00,0.72
6294.00,0.72
6293.00,0.72
6292.00,0.72
6291.00,0.72
6290.00,0.72
6289.00,0.72
6288.00,0.72
6287.00,0.72
6286.00,0.73
6285.00,0.73
6284.00,0.73
6283.00,0.73
6282.00,0.73
6281.00,0.73
6280.00,0.73
6279.00,0.73
6278.00,0.73
6277.00,0.73
6276.00,0.73
6275.00,0.74
6274.00,0.74
6273.00,0.74
6272.00,0.74
6271.00,0.74
6270.00,0.75
6269.00,0.75
6268.00,0.75
6267.00,0.75
6266.00,0.75
6265.00,0.76
6264.00,0.76
6263.00,0.76
6262.00,0.76
6261.00,0.76
6260.00,0.77
6259.00,0.77
6258.00,0.77
6257.00,0.77
6256.00,0.78
6255.00,0.78
6254.00,0.78
6253.00,0.79
6252.00,0.79
6251.00,0.79
6250.00,0.80
6249.00,0.80
6248.00,0.80
6247.00,0.80
6246.00,0.81
6245.00,0.81
6244.00,0.81
6243.00,0.82
6242.00,0.82
6241.00,0.82
6240.00,0.82
6239.00,0.83
6238.00,0.83
6237.00,0.83
6236.00,0.83
6235.00,0.84
6234.00,0.84
6233.00,0.84
6232.00,0.84
6231.00,0.84
6230.00,0.84
6229.00,0.85
6228.00,0.85
6227.00,0.85
6226.00,0.85
6225.00,0.85
6224.00,0.85
6223.00,0.85
6222.00,0.85
6221.00,0.85
6220.00,0.85
6219.00,0.85
6218.00,0.85
6217.00,0.85
6216.00,0.85
6215.00,0.84
6214.00,0.84
6213.00,0.84
6212.00,0.84
6211.00,0.84
6210.00,0.84
6209.00,0.84
6208.00,0.84
6207.00,0.84
6206.00,0.84
6205.00,0.84
6204.00,0.84
6203.00,0.84
6202.00,0.84
6201.00,0.84
6200.00,0.84
6199.00,0.84
6198.00,0.84
6197.00,0.84
6196.00,0.84
6195.00,0.84
6194.00,0.84
6193.00,0.84
6192.00,0.85
6191.00,0.85
6190.00,0.85
6189.00,0.85
6188.00,0.85
6187.00,0.86
6186.00,0.86
6185.00,0.86
6184.00,0.86
6183.00,0.87
6182.00,0.87
6181.00,0.87
6180.00,0.87
6179.00,0.88
6178.00,0.88
6177.00,0.88
6176.00,0.88
6175.00,0.89
6174.00,0.89
6173.00,0.89
6172.00,0.89
6171.00,0.90
6170.00,0.90
6169.00,0.90
6168.00,0.90
6167.00,0.90
6166.00,0.90
6165.00,0.91
6164.00,0.91
6163.00,0.91
6162.00,0.91
6161.00,0.91
6160.00,0.91
6159.00,0.91
6158.00,0.91
6157.00,0.91
6156.00,0.91
6155.00,0.91
6154.00,0.91
6153.00,0.90
6152.00,0.90
6151.00,0.90
6150.00,0.90
6149.00,0.90
6148.00,0.90
6147.00,0.90
6146.00,0.90
6145.00,0.90
6144.00,0.89
6143.00,0.89
6142.00,0.89
6141.00,0.89
6140.00,0.89
6139.00,0.89
6138.00,0.89
6137.00,0.89
6136.00,0.89
6135.00,0.89
6134.00,0.89
6133.00,0.89
6132.00,0.89
6131.00,0.89
6130.00,0.90
6129.00,0.90
6128.00,0.90
6127.00,0.90
6126.00,0.90
6125.00,0.90
6124.00,0.90
6123.00,0.91
6122.00,0.91
6121.00,0.91
6120.00,0.91
6119.00,0.91
6118.00,0.91
6117.00,0.91
6116.00,0.91
6115.00,0.91
6114.00,0.92
6113.00,0.92
6112.00,0.92
6111.00,0.92
6110.00,0.92
6109.00,0.92
6108.00,0.92
6107.00,0.92
6106.00,0.92
6105.00,0.92
6104.00,0.93
6103.00,0.93
6102.00,0.93
6101.00,0.93
6100.00,0.93
6099.00,0.93
6098.00,0.94
6097.00,0.94
6096.00,0.94
6095.00,0.94
6094.00,0.95
6093.00,0.95
6092.00,0.95
6091.00,0.95
6090.00,0.96
6089.00,0.96
6088.00,0.96
6087.00,0.96
6086.00,0.96
6085.00,0.96
6084.00,0.97
6083.00,0.97
6082.00,0.97
6081.00,0.97
6080.00,0.97
6079.00,0.97
6078.00,0.97
6077.00,0.97
6076.00,0.97
6075.00,0.97
6074.00,0.97
6073.00,0.97
6072.00,0.97
6071.00,0.97
6070.00,0.97
6069.00,0.97
6068.00,0.97
6067.00,0.97
6066.00,0.97
6065.00,0.97
6064.00,0.96
6063.00,0.96
6062.00,0.96
6061.00,0.96
6060.00,0.96
6059.00,0.96
6058.00,0.96
6057.00,0.96
6056.00,0.96
6055.00,0.96
6054.00,0.96
6053.00,0.96
6052.00,0.96
6051.00,0.96
6050.00,0.96
6049.00,0.97
6048.00,0.97
6047.00,0.97
6046.00,0.97
6045.00,0.97
6044.00,0.97
6043.00,0.97
6042.00,0.97
6041.00,0.97
6040.00,0.97
6039.00,0.97
6038.00,0.97
6037.00,0.97
6036.00,0.97
6035.00,0.97
6034.00,0.97
6033.00,0.97
6032.00,0.97
6031.00,0.97
6030.00,0.97
6029.00,0.97
6028.00,0.98
6027.00,0.98
6026.00,0.98
6025.00,0.98
6024.00,0.98
6023.00,0.98
6022.00,0.98
6021.00,0.98
6020.00,0.98
6019.00,0.98
6018.00,0.98
6017.00,0.98
6016.00,0.98
6015.00,0.98
6014.00,0.99
6013.00,0.99
6012.00,0.99
6011.00,0.99
6010.00,0.99
6009.00,0.99
6008.00,0.99
6007.00,0.99
6006.00,0.99
6005.00,0.99
6004.00,1.00
6003.00,1.00
6002.00,1.00
6001.00,1.00
6000.00,1.00
5999.00,1.00
5998.00,1.00
5997.00,1.00
5996.00,1.00
5995.00,1.00
5994.00,1.00
5993.00,1.00
5992.00,1.01
5991.00,1.01
5990.00,1.01
5989.00,1.01
5988.00,1.01
5987.00,1.01
5986.00,1.01
5985.00,1.01
5984.00,1.01
5983.00,1.01
5982.00,1.01
5981.00,1.01
5980.00,1.01
5979.00,1.01
5978.00,1.01
5977.00,1.01
5976.00,1.01
5975.00,1.01
5974.00,1.01
5973.00,1.01
5972.00,1.00
5971.00,1.00
5970.00,1.00
5969.00,1.00
5968.00,1.00
5967.00,1.00
5966.00,1.00
5965.00,0.99
5964.00,0.99
5963.00,0.99
5962.00,0.99
5961.00,0.98
5960.00,0.98
5959.00,0.98
5958.00,0.98
5957.00,0.97
5956.00,0.97
5955.00,0.97
5954.00,0.96
5953.00,0.96
5952.00,0.96
5951.00,0.95
5950.00,0.95
5949.00,0.95
5948.00,0.94
5947.00,0.94
5946.00,0.94
5945.00,0.93
5944.00,0.93
5943.00,0.92
5942.00,0.92
5941.00,0.92
5940.00,0.91
5939.00,0.91
5938.00,0.91
5937.00,0.90
5936.00,0.90
5935.00,0.90
5934.00,0.90
5933.00,0.89
5932.00,0.89
5931.00,0.89
5930.00,0.88
5929.00,0.88
5928.00,0.88
5927.00,0.88
5926.00,0.88
5925.00,0.88
5924.00,0.88
5923.00,0.87
5922.00,0.87
5921.00,0.87
5920.00,0.87
5919.00,0.87
5918.00,0.87
5917.00,0.87
5916.00,0.87
5915.00,0.87
5914.00,0.87
5913.00,0.87
5912.00,0.87
5911.00,0.87
5910.00,0.87
5909.00,0.87
5908.00,0.87
5907.00,0.87
5906.00,0.87
5905.00,0.88
5904.00,0.88
5903.00,0.88
5902.00,0.88
5901.00,0.88
5900.00,0.88
5899.00,0.88
5898.00,0.88
5897.00,0.88
5896.00,0.88
5895.00,0.89
5894.00,0.89
5893.00,0.89
5892.00,0.89
5891.00,0.89
5890.00,0.90
5889.00,0.90
5888.00,0.90
5887.00,0.90
5886.00,0.90
5885.00,0.91
5884.00,0.91
5883.00,0.91
5882.00,0.91
5881.00,0.91
5880.00,0.92
5879.00,0.92
5878.00,0.92
5877.00,0.92
5876.00,0.92
5875.00,0.92
5874.00,0.93
5873.00,0.93
5872.00,0.93
5871.00,0.93
5870.00,0.93
5869.00,0.93
5868.00,0.94
5867.00,0.94
5866.00,0.94
5865.00,0.94
5864.00,0.94
5863.00,0.94
5862.00,0.94
5861.00,0.94
5860.00,0.94
5859.00,0.94
5858.00,0.94
5857.00,0.94
5856.00,0.94
5855.00,0.94
5854.00,0.94
5853.00,0.94
5852.00,0.94
5851.00,0.94
5850.00,0.94
5849.00,0.94
5848.00,0.94
5847.00,0.94
5846.00,0.94
5845.00,0.94
5844.00,0.94
5843.00,0.94
5842.00,0.95
5841.00,0.95
5840.00,0.95
5839.00,0.95
5838.00,0.95
5837.00,0.95
5836.00,0.95
5835.00,0.95
5834.00,0.96
5833.00,0.96
5832.00,0.96
5831.00,0.96
5830.00,0.96
5829.00,0.96
5828.00,0.96
5827.00,0.96
5826.00,0.96
5825.00,0.96
5824.00,0.97
5823.00,0.97
5822.00,0.97
5821.00,0.97
5820.00,0.97
5819.00,0.97
5818.00,0.97
5817.00,0.97
5816.00,0.97
5815.00,0.97
5814.00,0.97
5813.00,0.97
5812.00,0.97
5811.00,0.96
5810.00,0.96
5809.00,0.96
5808.00,0.96
5807.00,0.96
5806.00,0.96
5805.00,0.96
5804.00,0.96
5803.00,0.96
5802.00,0.96
5801.00,0.96
5800.00,0.96
5799.00,0.96
5798.00,0.96
5797.00,0.96
5796.00,0.96
5795.00,0.96
5794.00,0.96
5793.00,0.95
5792.00,0.95
5791.00,0.95
5790.00,0.95
5789.00,0.95
5788.00,0.95
5787.00,0.95
5786.00,0.95
5785.00,0.95
5784.00,0.95
5783.00,0.95
5782.00,0.95
5781.00,0.95
5780.00,0.95
5779.00,0.95
5778.00,0.95
5777.00,0.95
5776.00,0.95
5775.00,0.95
5774.00,0.94
5773.00,0.94
5772.00,0.94
5771.00,0.94
5770.00,0.94
5769.00,0.94
5768.00,0.94
5767.00,0.94
5766.00,0.94
5765.00,0.94
5764.00,0.94
5763.00,0.94
5762.00,0.94
5761.00,0.94
5760.00,0.94
5759.00,0.94
5758.00,0.94
5757.00,0.94
5756.00,0.94
5755.00,0.94
5754.00,0.94
5753.00,0.94
5752.00,0.94
5751.00,0.94
5750.00,0.94
5749.00,0.94
5748.00,0.94
5747.00,0.95
5746.00,0.95
5745.00,0.95
5744.00,0.95
5743.00,0.95
5742.00,0.95
5741.00,0.96
5740.00,0.96
5739.00,0.96
5738.00,0.96
5737.00,0.96
5736.00,0.96
5735.00,0.96
5734.00,0.96
5733.00,0.96
5732.00,0.97
5731.00,0.97
5730.00,0.97
5729.00,0.97
5728.00,0.97
5727.00,0.96
5726.00,0.96
5725.00,0.96
5724.00,0.96
5723.00,0.96
5722.00,0.96
5721.00,0.96
5720.00,0.96
5719.00,0.95
5718.00,0.95
5717.00,0.95
5716.00,0.95
5715.00,0.94
5714.00,0.94
5713.00,0.94
5712.00,0.94
5711.00,0.94
5710.00,0.94
5709.00,0.93
5708.00,0.93
5707.00,0.93
5706.00,0.93
5705.00,0.93
5704.00,0.93
5703.00,0.93
5702.00,0.93
5701.00,0.93
5700.00,0.93
5699.00,0.93
5698.00,0.93
5697.00,0.93
5696.00,0.93
5695.00,0.93
5694.00,0.93
5693.00,0.93
5692.00,0.93
5691.00,0.93
5690.00,0.93
5689.00,0.93
5688.00,0.93
5687.00,0.94
5686.00,0.94
5685.00,0.94
5684.00,0.94
5683.00,0.94
5682.00,0.94
5681.00,0.94
5680.00,0.94
5679.00,0.94
5678.00,0.94
5677.00,0.95
5676.00,0.95
5675.00,0.95
5674.00,0.95
5673.00,0.95
5672.00,0.95
5671.00,0.95
5670.00,0.95
5669.00,0.95
5668.00,0.95
5667.00,0.95
5666.00,0.95
5665.00,0.95
5664.00,0.95
5663.00,0.95
5662.00,0.95
5661.00,0.95
5660.00,0.95
5659.00,0.95
5658.00,0.96
5657.00,0.96
5656.00,0.96
5655.00,0.96
5654.00,0.96
5653.00,0.96
5652.00,0.96
5651.00,0.95
5650.00,0.95
5649.00,0.95
5648.00,0.95
5647.00,0.95
5646.00,0.95
5645.00,0.95
5644.00,0.95
5643.00,0.96
5642.00,0.96
5641.00,0.96
5640.00,0.96
5639.00,0.96
5638.00,0.95
5637.00,0.95
5636.00,0.95
5635.00,0.95
5634.00,0.95
5633.00,0.95
5632.00,0.95
5631.00,0.95
5630.00,0.95
5629.00,0.95
5628.00,0.95
5627.00,0.95
5626.00,0.95
5625.00,0.95
5624.00,0.95
5623.00,0.94
5622.00,0.94
5621.00,0.94
5620.00,0.94
5619.00,0.94
5618.00,0.94
5617.00,0.94
5616.00,0.94
5615.00,0.94
5614.00,0.94
5613.00,0.94
5612.00,0.94
5611.00,0.94
5610.00,0.94
5609.00,0.94
5608.00,0.94
5607.00,0.94
5606.00,0.94
5605.00,0.94
5604.00,0.94
5603.00,0.94
5602.00,0.94
5601.00,0.94
5600.00,0.94
5599.00,0.94
5598.00,0.94
5597.00,0.94
5596.00,0.94
5595.00,0.94
5594.00,0.94
5593.00,0.94
5592.00,0.94
5591.00,0.94
5590.00,0.94
5589.00,0.94
5588.00,0.94
5587.00,0.94
5586.00,0.94
5585.00,0.94
5584.00,0.94
5583.00,0.94
5582.00,0.94
5581.00,0.95
5580.00,0.95
5579.00,0.95
5578.00,0.95
5577.00,0.95
5576.00,0.95
5575.00,0.95
5574.00,0.95
5573.00,0.96
5572.00,0.96
5571.00,0.96
5570.00,0.96
5569.00,0.96
5568.00,0.96
5567.00,0.96
5566.00,0.97
5565.00,0.97
5564.00,0.97
5563.00,0.97
5562.00,0.97
5561.00,0.97
5560.00,0.98
5559.00,0.98
5558.00,0.98
5557.00,0.98
5556.00,0.98
5555.00,0.98
5554.00,0.98
5553.00,0.98
5552.00,0.98
5551.00,0.98
5550.00,0.99
5549.00,0.99
5548.00,0.99
5547.00,0.99
5546.00,0.99
5545.00,0.99
5544.00,0.99
5543.00,0.99
5542.00,0.99
5541.00,0.99
5540.00,0.99
5539.00,0.99
5538.00,0.99
5537.00,0.99
5536.00,0.99
5535.00,0.99
5534.00,1.00
5533.00,1.00
5532.00,1.00
5531.00,1.00
5530.00,1.00
5529.00,1.00
5528.00,1.00
5527.00,1.00
5526.00,1.00
5525.00,1.00
5524.00,1.00
5523.00,1.00
5522.00,1.00
5521.00,1.00
5520.00,1.00
5519.00,1.00
5518.00,1.00
5517.00,1.00
5516.00,1.00
5515.00,1.00
5514.00,1.00
5513.00,1.00
5512.00,1.00
5511.00,1.00
5510.00,1.00
5509.00,1.00
5508.00,1.00
5507.00,1.00
5506.00,1.00
5505.00,1.00
5504.00,1.00
5503.00,1.00
5502.00,1.00
5501.00,1.00
5500.00,1.00
5499.00,1.00
5498.00,1.00
5497.00,1.00
5496.00,1.00
5495.00,1.00
5494.00,1.00
5493.00,1.00
5492.00,1.00
5491.00,1.01
5490.00,1.01
5489.00,1.01
5488.00,1.01
5487.00,1.01
5486.00,1.01
5485.00,1.01
5484.00,1.02
5483.00,1.02
5482.00,1.02
5481.00,1.02
5480.00,1.02
5479.00,1.02
5478.00,1.02
5477.00,1.02
5476.00,1.02
5475.00,1.02
5474.00,1.02
5473.00,1.02
5472.00,1.02
5471.00,1.02
5470.00,1.02
5469.00,1.02
5468.00,1.02
5467.00,1.02
5466.00,1.02
5465.00,1.02
5464.00,1.01
5463.00,1.01
5462.00,1.01
5461.00,1.01
5460.00,1.00
5459.00,1.00
5458.00,1.00
5457.00,1.00
5456.00,0.99
5455.00,0.99
5454.00,0.99
5453.00,0.98
5452.00,0.98
5451.00,0.98
5450.00,0.98
5449.00,0.97
5448.00,0.97
5447.00,0.97
5446.00,0.97
5445.00,0.97
5444.00,0.97
5443.00,0.97
5442.00,0.97
5441.00,0.97
5440.00,0.97
5439.00,0.97
5438.00,0.97
5437.00,0.97
5436.00,0.97
5435.00,0.97
5434.00,0.97
5433.00,0.97
5432.00,0.97
5431.00,0.97
5430.00,0.97
5429.00,0.97
5428.00,0.98
5427.00,0.98
5426.00,0.98
5425.00,0.98
5424.00,0.98
5423.00,0.98
5422.00,0.98
5421.00,0.98
5420.00,0.98
5419.00,0.98
5418.00,0.98
5417.00,0.98
5416.00,0.98
5415.00,0.98
5414.00,0.98
5413.00,0.98
5412.00,0.98
5411.00,0.98
5410.00,0.98
5409.00,0.97
5408.00,0.97
5407.00,0.97
5406.00,0.97
5405.00,0.97
5404.00,0.97
5403.00,0.97
5402.00,0.96
5401.00,0.96
5400.00,0.96
5399.00,0.96
5398.00,0.96
5397.00,0.95
5396.00,0.95
5395.00,0.95
5394.00,0.95
5393.00,0.94
5392.00,0.94
5391.00,0.94
5390.00,0.93
5389.00,0.93
5388.00,0.93
5387.00,0.92
5386.00,0.92
5385.00,0.91
5384.00,0.91
5383.00,0.91
5382.00,0.90
5381.00,0.90
5380.00,0.89
5379.00,0.89
5378.00,0.89
5377.00,0.88
5376.00,0.88
5375.00,0.87
5374.00,0.87
5373.00,0.86
5372.00,0.86
5371.00,0.85
5370.00,0.85
5369.00,0.84
5368.00,0.84
5367.00,0.83
5366.00,0.83
5365.00,0.82
5364.00,0.82
5363.00,0.81
5362.00,0.81
5361.00,0.80
5360.00,0.80
5359.00,0.79
5358.00,0.78
5357.00,0.78
5356.00,0.77
5355.00,0.76
5354.00,0.76
5353.00,0.75
5352.00,0.74
5351.00,0.74
5350.00,0.73
5349.00,0.72
5348.00,0.72
5347.00,0.71
5346.00,0.70
5345.00,0.70
5344.00,0.69
5343.00,0.68
5342.00,0.68
5341.00,0.67
5340.00,0.66
5339.00,0.66
5338.00,0.65
5337.00,0.65
5336.00,0.64
5335.00,0.64
5334.00,0.63
5333.00,0.63
5332.00,0.62
5331.00,0.62
5330.00,0.61
5329.00,0.61
5328.00,0.61
5327.00,0.60
5326.00,0.60
5325.00,0.59
5324.00,0.59
5323.00,0.58
5322.00,0.58
5321.00,0.58
5320.00,0.57
5319.00,0.57
5318.00,0.56
5317.00,0.56
5316.00,0.56
5315.00,0.55
5314.00,0.55
5313.00,0.55
5312.00,0.54
5311.00,0.54
5310.00,0.53
5309.00,0.53
5308.00,0.53
5307.00,0.53
5306.00,0.52
5305.00,0.52
5304.00,0.52
5303.00,0.51
5302.00,0.51
5301.00,0.51
5300.00,0.51
5299.00,0.51
5298.00,0.50
5297.00,0.50
5296.00,0.50
5295.00,0.50
5294.00,0.50
5293.00,0.50
5292.00,0.50
5291.00,0.50
5290.00,0.50
5289.00,0.49
5288.00,0.49
5287.00,0.49
5286.00,0.49
5285.00,0.49
5284.00,0.49
5283.00,0.49
5282.00,0.49
5281.00,0.49
5280.00,0.49
5279.00,0.49
5278.00,0.49
5277.00,0.49
5276.00,0.49
5275.00,0.50
5274.00,0.50
5273.00,0.50
5272.00,0.50
5271.00,0.50
5270.00,0.50
5269.00,0.50
5268.00,0.50
5267.00,0.50
5266.00,0.50
5265.00,0.50
5264.00,0.50
5263.00,0.50
5262.00,0.50
5261.00,0.50
5260.00,0.50
5259.00,0.50
5258.00,0.50
5257.00,0.50
5256.00,0.50
5255.00,0.50
5254.00,0.50
5253.00,0.49
5252.00,0.49
5251.00,0.49
5250.00,0.49
5249.00,0.49
5248.00,0.49
5247.00,0.49
5246.00,0.49
5245.00,0.49
5244.00,0.49
5243.00,0.49
5242.00,0.49
5241.00,0.49
5240.00,0.49
5239.00,0.49
5238.00,0.49
5237.00,0.49
5236.00,0.49
5235.00,0.48
5234.00,0.48
5233.00,0.48
5232.00,0.48
5231.00,0.48
5230.00,0.48
5229.00,0.48
5228.00,0.48
5227.00,0.48
5226.00,0.48
5225.00,0.48
5224.00,0.48
5223.00,0.49
5222.00,0.49
5221.00,0.49
5220.00,0.49
5219.00,0.49
5218.00,0.49
5217.00,0.49
5216.00,0.49
5215.00,0.49
5214.00,0.49
5213.00,0.50
5212.00,0.50
5211.00,0.50
5210.00,0.50
5209.00,0.50
5208.00,0.50
5207.00,0.51
5206.00,0.51
5205.00,0.51
5204.00,0.51
5203.00,0.51
5202.00,0.51
5201.00,0.51
5200.00,0.51
5199.00,0.51
5198.00,0.51
5197.00,0.51
5196.00,0.51
5195.00,0.51
5194.00,0.51
5193.00,0.51
5192.00,0.51
5191.00,0.51
5190.00,0.51
5189.00,0.51
5188.00,0.51
5187.00,0.51
5186.00,0.51
5185.00,0.51
5184.00,0.51
5183.00,0.51
5182.00,0.51
5181.00,0.51
5180.00,0.51
5179.00,0.51
5178.00,0.51
5177.00,0.51
5176.00,0.51
5175.00,0.51
5174.00,0.51
5173.00,0.51
5172.00,0.51
5171.00,0.51
5170.00,0.51
5169.00,0.51
5168.00,0.51
5167.00,0.52
5166.00,0.52
5165.00,0.52
5164.00,0.52
5163.00,0.52
5162.00,0.53
5161.00,0.53
5160.00,0.53
5159.00,0.53
5158.00,0.53
5157.00,0.53
5156.00,0.53
5155.00,0.54
5154.00,0.54
5153.00,0.54
5152.00,0.54
5151.00,0.54
5150.00,0.54
5149.00,0.54
5148.00,0.54
5147.00,0.54
5146.00,0.54
5145.00,0.54
5144.00,0.54
5143.00,0.54
5142.00,0.54
5141.00,0.54
5140.00,0.54
5139.00,0.54
5138.00,0.54
5137.00,0.54
5136.00,0.54
5135.00,0.54
5134.00,0.54
5133.00,0.54
5132.00,0.54
5131.00,0.54
5130.00,0.54
5129.00,0.54
5128.00,0.54
5127.00,0.54
5126.00,0.54
5125.00,0.54
5124.00,0.54
5123.00,0.54
5122.00,0.54
5121.00,0.54
5120.00,0.54
5119.00,0.54
5118.00,0.54
5117.00,0.54
5116.00,0.54
5115.00,0.54
5114.00,0.54
5113.00,0.55
5112.00,0.55
5111.00,0.55
5110.00,0.55
5109.00,0.55
5108.00,0.55
5107.00,0.55
5106.00,0.55
5105.00,0.55
5104.00,0.55
5103.00,0.55
5102.00,0.55
5101.00,0.55
5100.00,0.55
5099.00,0.55
5098.00,0.55
5097.00,0.55
5096.00,0.55
5095.00,0.55
5094.00,0.56
5093.00,0.56
5092.00,0.56
5091.00,0.56
5090.00,0.56
5089.00,0.56
5088.00,0.56
5087.00,0.56
5086.00,0.56
5085.00,0.56
5084.00,0.55
5083.00,0.55
5082.00,0.55
5081.00,0.56
5080.00,0.56
5079.00,0.56
5078.00,0.56
5077.00,0.56
5076.00,0.56
5075.00,0.56
5074.00,0.56
5073.00,0.56
5072.00,0.56
5071.00,0.56
5070.00,0.56
5069.00,0.56
5068.00,0.56
5067.00,0.56
5066.00,0.56
5065.00,0.56
5064.00,0.56
5063.00,0.56
5062.00,0.56
5061.00,0.56
5060.00,0.56
5059.00,0.56
5058.00,0.56
5057.00,0.56
5056.00,0.56
5055.00,0.56
5054.00,0.56
5053.00,0.56
5052.00,0.56
5051.00,0.56
5050.00,0.56
5049.00,0.56
5048.00,0.56
5047.00,0.56
5046.00,0.56
5045.00,0.56
5044.00,0.56
5043.00,0.56
5042.00,0.57
5041.00,0.57
5040.00,0.57
5039.00,0.57
5038.00,0.57
5037.00,0.57
5036.00,0.57
5035.00,0.57
5034.00,0.57
5033.00,0.57
5032.00,0.57
5031.00,0.57
5030.00,0.57
5029.00,0.57
5028.00,0.57
5027.00,0.57
5026.00,0.57
5025.00,0.57
5024.00,0.57
5023.00,0.57
5022.00,0.57
5021.00,0.57
5020.00,0.57
5019.00,0.57
5018.00,0.57
5017.00,0.56
5016.00,0.56
5015.00,0.56
5014.00,0.56
5013.00,0.56
5012.00,0.56
5011.00,0.56
5010.00,0.55
5009.00,0.55
5008.00,0.55
5007.00,0.55
5006.00,0.55
5005.00,0.55
5004.00,0.54
5003.00,0.54
5002.00,0.54
5001.00,0.54
5000.00,0.54
4999.00,0.54
4998.00,0.54
4997.00,0.54
4996.00,0.54
4995.00,0.55
4994.00,0.55
4993.00,0.55
4992.00,0.55
4991.00,0.55
4990.00,0.55
4989.00,0.55
4988.00,0.55
4987.00,0.55
4986.00,0.55
4985.00,0.56
4984.00,0.56
4983.00,0.56
4982.00,0.56
4981.00,0.56
4980.00,0.57
4979.00,0.57
4978.00,0.57
4977.00,0.57
4976.00,0.57
4975.00,0.58
4974.00,0.58
4973.00,0.58
4972.00,0.58
4971.00,0.58
4970.00,0.58
4969.00,0.58
4968.00,0.59
4967.00,0.59
4966.00,0.59
4965.00,0.59
4964.00,0.59
4963.00,0.59
4962.00,0.60
4961.00,0.60
4960.00,0.60
4959.00,0.60
4958.00,0.60
4957.00,0.60
4956.00,0.60
4955.00,0.60
4954.00,0.60
4953.00,0.60
4952.00,0.60
4951.00,0.60
4950.00,0.60
4949.00,0.60
4948.00,0.60
4947.00,0.60
4946.00,0.60
4945.00,0.60
4944.00,0.59
4943.00,0.59
4942.00,0.59
4941.00,0.59
4940.00,0.59
4939.00,0.59
4938.00,0.59
4937.00,0.59
4936.00,0.58
4935.00,0.58
4934.00,0.58
4933.00,0.58
4932.00,0.58
4931.00,0.58
4930.00,0.58
4929.00,0.58
4928.00,0.58
4927.00,0.58
4926.00,0.58
4925.00,0.58
4924.00,0.58
4923.00,0.59
4922.00,0.59
4921.00,0.59
4920.00,0.59
4919.00,0.59
4918.00,0.59
4917.00,0.59
4916.00,0.59
4915.00,0.60
4914.00,0.60
4913.00,0.60
4912.00,0.60
4911.00,0.60
4910.00,0.61
4909.00,0.61
4908.00,0.61
4907.00,0.61
4906.00,0.61
4905.00,0.61
4904.00,0.62
4903.00,0.62
4902.00,0.62
4901.00,0.62
4900.00,0.62
4899.00,0.62
4898.00,0.62
4897.00,0.62
4896.00,0.62
4895.00,0.62
4894.00,0.62
4893.00,0.63
4892.00,0.63
4891.00,0.63
4890.00,0.63
4889.00,0.63
4888.00,0.63
4887.00,0.63
4886.00,0.63
4885.00,0.63
4884.00,0.63
4883.00,0.63
4882.00,0.62
4881.00,0.62
4880.00,0.62
4879.00,0.62
4878.00,0.62
4877.00,0.62
4876.00,0.62
4875.00,0.62
4874.00,0.62
4873.00,0.62
4872.00,0.62
4871.00,0.62
4870.00,0.62
4869.00,0.62
4868.00,0.62
4867.00,0.62
4866.00,0.62
4865.00,0.62
4864.00,0.62
4863.00,0.63
4862.00,0.63
4861.00,0.63
4860.00,0.63
4859.00,0.63
4858.00,0.64
4857.00,0.64
4856.00,0.64
4855.00,0.65
4854.00,0.65
4853.00,0.65
4852.00,0.66
4851.00,0.66
4850.00,0.66
4849.00,0.66
4848.00,0.67
4847.00,0.67
4846.00,0.67
4845.00,0.67
4844.00,0.68
4843.00,0.68
4842.00,0.68
4841.00,0.68
4840.00,0.68
4839.00,0.68
4838.00,0.68
4837.00,0.69
4836.00,0.69
4835.00,0.69
4834.00,0.69
4833.00,0.69
4832.00,0.69
4831.00,0.69
4830.00,0.69
4829.00,0.69
4828.00,0.69
4827.00,0.69
4826.00,0.69
4825.00,0.68
4824.00,0.68
4823.00,0.68
4822.00,0.68
4821.00,0.68
4820.00,0.68
4819.00,0.68
4818.00,0.68
4817.00,0.68
4816.00,0.68
4815.00,0.68
4814.00,0.68
4813.00,0.67
4812.00,0.67
4811.00,0.67
4810.00,0.67
4809.00,0.67
4808.00,0.67
4807.00,0.67
4806.00,0.68
4805.00,0.68
4804.00,0.68
4803.00,0.68
4802.00,0.68
4801.00,0.68
4800.00,0.68
4799.00,0.68
4798.00,0.68
4797.00,0.69
4796.00,0.69
4795.00,0.69
4794.00,0.69
4793.00,0.69
4792.00,0.70
4791.00,0.70
4790.00,0.70
4789.00,0.70
4788.00,0.71
4787.00,0.71
4786.00,0.71
4785.00,0.72
4784.00,0.72
4783.00,0.72
4782.00,0.72
4781.00,0.72
4780.00,0.73
4779.00,0.73
4778.00,0.73
4777.00,0.73
4776.00,0.74
4775.00,0.74
4774.00,0.74
4773.00,0.74
4772.00,0.74
4771.00,0.74
4770.00,0.75
4769.00,0.75
4768.00,0.75
4767.00,0.75
4766.00,0.75
4765.00,0.75
4764.00,0.75
4763.00,0.75
4762.00,0.75
4761.00,0.74
4760.00,0.74
4759.00,0.74
4758.00,0.74
4757.00,0.74
4756.00,0.74
4755.00,0.74
4754.00,0.73
4753.00,0.73
4752.00,0.73
4751.00,0.73
4750.00,0.73
4749.00,0.73
4748.00,0.73
4747.00,0.72
4746.00,0.72
4745.00,0.72
4744.00,0.72
4743.00,0.72
4742.00,0.72
4741.00,0.72
4740.00,0.72
4739.00,0.72
4738.00,0.72
4737.00,0.72
4736.00,0.72
4735.00,0.72
4734.00,0.72
4733.00,0.72
4732.00,0.72
4731.00,0.72
4730.00,0.72
4729.00,0.73
4728.00,0.73
4727.00,0.73
4726.00,0.73
4725.00,0.73
4724.00,0.73
4723.00,0.74
4722.00,0.74
4721.00,0.74
4720.00,0.74
4719.00,0.74
4718.00,0.74
4717.00,0.75
4716.00,0.75
4715.00,0.75
4714.00,0.75
4713.00,0.75
4712.00,0.75
4711.00,0.75
4710.00,0.75
4709.00,0.75
4708.00,0.76
4707.00,0.76
4706.00,0.76
4705.00,0.76
4704.00,0.76
4703.00,0.76
4702.00,0.76
4701.00,0.76
4700.00,0.76
4699.00,0.76
4698.00,0.76
4697.00,0.76
4696.00,0.76
4695.00,0.76
4694.00,0.76
4693.00,0.76
4692.00,0.76
4691.00,0.76
4690.00,0.77
4689.00,0.77
4688.00,0.77
4687.00,0.77
4686.00,0.77
4685.00,0.77
4684.00,0.78
4683.00,0.78
4682.00,0.78
4681.00,0.78
4680.00,0.78
4679.00,0.79
4678.00,0.79
4677.00,0.79
4676.00,0.79
4675.00,0.79
4674.00,0.79
4673.00,0.79
4672.00,0.80
4671.00,0.80
4670.00,0.80
4669.00,0.80
4668.00,0.80
4667.00,0.80
4666.00,0.81
4665.00,0.81
4664.00,0.81
4663.00,0.81
4662.00,0.81
4661.00,0.81
4660.00,0.81
4659.00,0.81
4658.00,0.81
4657.00,0.81
4656.00,0.82
4655.00,0.82
4654.00,0.82
4653.00,0.82
4652.00,0.83
4651.00,0.83
4650.00,0.83
4649.00,0.84
4648.00,0.84
4647.00,0.84
4646.00,0.85
4645.00,0.85
4644.00,0.85
4643.00,0.85
4642.00,0.86
4641.00,0.86
4640.00,0.86
4639.00,0.86
4638.00,0.87
4637.00,0.87
4636.00,0.87
4635.00,0.87
4634.00,0.87
4633.00,0.88
4632.00,0.88
4631.00,0.88
4630.00,0.88
4629.00,0.88
4628.00,0.88
4627.00,0.88
4626.00,0.88
4625.00,0.88
4624.00,0.88
4623.00,0.88
4622.00,0.88
4621.00,0.88
4620.00,0.88
4619.00,0.88
4618.00,0.88
4617.00,0.88
4616.00,0.88
4615.00,0.88
4614.00,0.88
4613.00,0.88
4612.00,0.88
4611.00,0.88
4610.00,0.88
4609.00,0.88
4608.00,0.88
4607.00,0.88
4606.00,0.88
4605.00,0.88
4604.00,0.88
4603.00,0.88
4602.00,0.88
4601.00,0.88
4600.00,0.88
4599.00,0.88
4598.00,0.89
4597.00,0.89
4596.00,0.89
4595.00,0.89
4594.00,0.89
4593.00,0.89
4592.00,0.89
4591.00,0.89
4590.00,0.89
4589.00,0.89
4588.00,0.89
4587.00,0.89
4586.00,0.89
4585.00,0.89
4584.00,0.88
4583.00,0.88
4582.00,0.88
4581.00,0.88
4580.00,0.88
4579.00,0.88
4578.00,0.88
4577.00,0.88
4576.00,0.88
4575.00,0.88
4574.00,0.88
4573.00,0.88
4572.00,0.88
4571.00,0.88
4570.00,0.88
4569.00,0.88
4568.00,0.88
4567.00,0.88
4566.00,0.88
4565.00,0.88
4564.00,0.88
4563.00,0.88
4562.00,0.89
4561.00,0.89
4560.00,0.89
4559.00,0.89
4558.00,0.89
4557.00,0.90
4556.00,0.90
4555.00,0.90
4554.00,0.90
4553.00,0.91
4552.00,0.91
4551.00,0.91
4550.00,0.91
4549.00,0.92
4548.00,0.92
4547.00,0.92
4546.00,0.92
4545.00,0.92
4544.00,0.93
4543.00,0.93
4542.00,0.93
4541.00,0.93
4540.00,0.93
4539.00,0.93
4538.00,0.93
4537.00,0.93
4536.00,0.93
4535.00,0.93
4534.00,0.93
4533.00,0.93
4532.00,0.93
4531.00,0.93
4530.00,0.93
4529.00,0.93
4528.00,0.93
4527.00,0.92
4526.00,0.92
4525.00,0.92
4524.00,0.92
4523.00,0.91
4522.00,0.91
4521.00,0.91
4520.00,0.91
4519.00,0.90
4518.00,0.90
4517.00,0.90
4516.00,0.90
4515.00,0.89
4514.00,0.89
4513.00,0.89
4512.00,0.89
4511.00,0.88
4510.00,0.88
4509.00,0.88
4508.00,0.88
4507.00,0.87
4506.00,0.87
4505.00,0.87
4504.00,0.87
4503.00,0.87
4502.00,0.87
4501.00,0.87
4500.00,0.87
4499.00,0.87
4498.00,0.87
4497.00,0.87
4496.00,0.87
4495.00,0.87
4494.00,0.87
4493.00,0.87
4492.00,0.87
4491.00,0.88
4490.00,0.88
4489.00,0.88
4488.00,0.88
4487.00,0.88
4486.00,0.89
4485.00,0.89
4484.00,0.89
4483.00,0.89
4482.00,0.90
4481.00,0.90
4480.00,0.90
4479.00,0.90
4478.00,0.90
4477.00,0.90
4476.00,0.90
4475.00,0.91
4474.00,0.91
4473.00,0.91
4472.00,0.91
4471.00,0.91
4470.00,0.91
4469.00,0.91
4468.00,0.91
4467.00,0.91
4466.00,0.91
4465.00,0.91
4464.00,0.91
4463.00,0.91
4462.00,0.91
4461.00,0.90
4460.00,0.90
4459.00,0.90
4458.00,0.90
4457.00,0.90
4456.00,0.90
4455.00,0.90
4454.00,0.90
4453.00,0.89
4452.00,0.89
4451.00,0.89
4450.00,0.89
4449.00,0.89
4448.00,0.88
4447.00,0.88
4446.00,0.88
4445.00,0.88
4444.00,0.87
4443.00,0.87
4442.00,0.86
4441.00,0.86
4440.00,0.86
4439.00,0.85
4438.00,0.85
4437.00,0.84
4436.00,0.84
4435.00,0.84
4434.00,0.83
4433.00,0.83
4432.00,0.82
4431.00,0.82
4430.00,0.82
4429.00,0.81
4428.00,0.81
4427.00,0.81
4426.00,0.80
4425.00,0.80
4424.00,0.80
4423.00,0.79
4422.00,0.79
4421.00,0.79
4420.00,0.78
4419.00,0.78
4418.00,0.78
4417.00,0.78
4416.00,0.78
4415.00,0.78
4414.00,0.78
4413.00,0.78
4412.00,0.78
4411.00,0.78
4410.00,0.78
4409.00,0.78
4408.00,0.78
4407.00,0.78
4406.00,0.78
4405.00,0.78
4404.00,0.78
4403.00,0.78
4402.00,0.78
4401.00,0.78
4400.00,0.78
4399.00,0.78
4398.00,0.78
4397.00,0.79
4396.00,0.79
4395.00,0.79
4394.00,0.79
4393.00,0.79
4392.00,0.79
4391.00,0.79
4390.00,0.79
4389.00,0.79
4388.00,0.80
4387.00,0.80
4386.00,0.80
4385.00,0.80
4384.00,0.80
4383.00,0.80
4382.00,0.81
4381.00,0.81
4380.00,0.81
4379.00,0.81
4378.00,0.81
4377.00,0.82
4376.00,0.82
4375.00,0.82
4374.00,0.83
4373.00,0.83
4372.00,0.83
4371.00,0.84
4370.00,0.84
4369.00,0.84
4368.00,0.84
4367.00,0.84
4366.00,0.84
4365.00,0.84
4364.00,0.84
4363.00,0.84
4362.00,0.84
4361.00,0.84
4360.00,0.83
4359.00,0.83
4358.00,0.83
4357.00,0.83
4356.00,0.83
4355.00,0.82
4354.00,0.82
4353.00,0.82
4352.00,0.81
4351.00,0.81
4350.00,0.81
4349.00,0.81
4348.00,0.80
4347.00,0.80
4346.00,0.80
4345.00,0.80
4344.00,0.80
4343.00,0.80
4342.00,0.80
4341.00,0.80
4340.00,0.80
4339.00,0.80
4338.00,0.80
4337.00,0.80
4336.00,0.81
4335.00,0.81
4334.00,0.81
4333.00,0.82
4332.00,0.82
4331.00,0.82
4330.00,0.83
4329.00,0.83
4328.00,0.84
4327.00,0.84
4326.00,0.84
4325.00,0.85
4324.00,0.85
4323.00,0.85
4322.00,0.85
4321.00,0.85
4320.00,0.85
4319.00,0.85
4318.00,0.85
4317.00,0.85
4316.00,0.85
4315.00,0.85
4314.00,0.84
4313.00,0.84
4312.00,0.84
4311.00,0.84
4310.00,0.84
4309.00,0.83
4308.00,0.83
4307.00,0.83
4306.00,0.83
4305.00,0.82
4304.00,0.82
4303.00,0.82
4302.00,0.82
4301.00,0.81
4300.00,0.81
4299.00,0.81
4298.00,0.81
4297.00,0.81
4296.00,0.81
4295.00,0.82
4294.00,0.82
4293.00,0.82
4292.00,0.82
4291.00,0.82
4290.00,0.83
4289.00,0.83
4288.00,0.83
4287.00,0.83
4286.00,0.84
4285.00,0.84
4284.00,0.84
4283.00,0.85
4282.00,0.85
4281.00,0.85
4280.00,0.85
4279.00,0.85
4278.00,0.86
4277.00,0.86
4276.00,0.86
4275.00,0.86
4274.00,0.86
4273.00,0.86
4272.00,0.87
4271.00,0.87
4270.00,0.86
4269.00,0.86
4268.00,0.86
4267.00,0.86
4266.00,0.86
4265.00,0.86
4264.00,0.86
4263.00,0.86
4262.00,0.87
4261.00,0.87
4260.00,0.87
4259.00,0.87
4258.00,0.87
4257.00,0.87
4256.00,0.87
4255.00,0.87
4254.00,0.87
4253.00,0.87
4252.00,0.87
4251.00,0.87
4250.00,0.87
4249.00,0.87
4248.00,0.87
4247.00,0.87
4246.00,0.87
4245.00,0.87
4244.00,0.87
4243.00,0.87
4242.00,0.87
4241.00,0.87
4240.00,0.87
4239.00,0.87
4238.00,0.87
4237.00,0.87
4236.00,0.87
4235.00,0.87
4234.00,0.87
4233.00,0.86
4232.00,0.86
4231.00,0.86
4230.00,0.86
4229.00,0.86
4228.00,0.86
4227.00,0.86
4226.00,0.86
4225.00,0.86
4224.00,0.86
4223.00,0.86
4222.00,0.86
4221.00,0.86
4220.00,0.86
4219.00,0.86
4218.00,0.86
4217.00,0.86
4216.00,0.86
4215.00,0.86
4214.00,0.86
4213.00,0.85
4212.00,0.85
4211.00,0.85
4210.00,0.85
4209.00,0.85
4208.00,0.85
4207.00,0.84
4206.00,0.84
4205.00,0.84
4204.00,0.84
4203.00,0.84
4202.00,0.84
4201.00,0.84
4200.00,0.84
4199.00,0.84
4198.00,0.84
4197.00,0.84
4196.00,0.84
4195.00,0.84
4194.00,0.84
4193.00,0.85
4192.00,0.85
4191.00,0.85
4190.00,0.86
4189.00,0.86
4188.00,0.86
4187.00,0.87
4186.00,0.87
4185.00,0.88
4184.00,0.88
4183.00,0.88
4182.00,0.89
4181.00,0.89
4180.00,0.89
4179.00,0.90
4178.00,0.90
4177.00,0.90
4176.00,0.90
4175.00,0.91
4174.00,0.91
4173.00,0.91
4172.00,0.92
4171.00,0.92
4170.00,0.92
4169.00,0.92
4168.00,0.93
4167.00,0.93
4166.00,0.93
4165.00,0.93
4164.00,0.93
4163.00,0.93
4162.00,0.93
4161.00,0.93
4160.00,0.93
4159.00,0.94
4158.00,0.94
4157.00,0.94
4156.00,0.93
4155.00,0.93
4154.00,0.94
4153.00,0.94
4152.00,0.94
4151.00,0.94
4150.00,0.94
4149.00,0.94
4148.00,0.94
4147.00,0.94
4146.00,0.94
4145.00,0.94
4144.00,0.94
4143.00,0.94
4142.00,0.94
4141.00,0.94
4140.00,0.94
4139.00,0.94
4138.00,0.94
4137.00,0.94
4136.00,0.94
4135.00,0.94
4134.00,0.93
4133.00,0.93
4132.00,0.93
4131.00,0.93
4130.00,0.93
4129.00,0.93
4128.00,0.93
4127.00,0.92
4126.00,0.92
4125.00,0.92
4124.00,0.92
4123.00,0.92
4122.00,0.91
4121.00,0.91
4120.00,0.91
4119.00,0.90
4118.00,0.90
4117.00,0.90
4116.00,0.89
4115.00,0.89
4114.00,0.89
4113.00,0.88
4112.00,0.88
4111.00,0.88
4110.00,0.87
4109.00,0.87
4108.00,0.87
4107.00,0.86
4106.00,0.86
4105.00,0.86
4104.00,0.86
4103.00,0.86
4102.00,0.85
4101.00,0.85
4100.00,0.85
4099.00,0.85
4098.00,0.85
4097.00,0.85
4096.00,0.85
4095.00,0.85
4094.00,0.85
4093.00,0.85
4092.00,0.85
4091.00,0.85
4090.00,0.85
4089.00,0.85
4088.00,0.85
4087.00,0.85
4086.00,0.85
4085.00,0.85
4084.00,0.85
4083.00,0.86
4082.00,0.86
4081.00,0.86
4080.00,0.86
4079.00,0.86
4078.00,0.86
4077.00,0.86
4076.00,0.86
4075.00,0.86
4074.00,0.86
4073.00,0.86
4072.00,0.86
4071.00,0.86
4070.00,0.86
4069.00,0.86
4068.00,0.86
4067.00,0.86
4066.00,0.86
4065.00,0.86
4064.00,0.87
4063.00,0.87
4062.00,0.87
4061.00,0.88
4060.00,0.88
4059.00,0.88
4058.00,0.88
4057.00,0.89
4056.00,0.89
4055.00,0.89
4054.00,0.90
4053.00,0.90
4052.00,0.91
4051.00,0.91
4050.00,0.92
4049.00,0.92
4048.00,0.93
4047.00,0.93
4046.00,0.94
4045.00,0.94
4044.00,0.95
4043.00,0.95
4042.00,0.95
4041.00,0.96
4040.00,0.96
4039.00,0.96
4038.00,0.96
4037.00,0.96
4036.00,0.96
4035.00,0.97
4034.00,0.97
4033.00,0.97
4032.00,0.97
4031.00,0.98
4030.00,0.98
4029.00,0.99
4028.00,0.99
4027.00,0.99
4026.00,0.99
4025.00,0.99
4024.00,1.00
4023.00,1.00
4022.00,1.00
4021.00,1.00
4020.00,1.00
4019.00,1.00
4018.00,1.00
4017.00,1.00
4016.00,1.00
4015.00,1.00
4014.00,1.00
4013.00,1.00
4012.00,1.00
4011.00,1.00
4010.00,1.00
4009.00,1.00
4008.00,1.00
4007.00,1.00
4006.00,0.99
4005.00,0.99
4004.00,0.99
4003.00,0.98
4002.00,0.98
4001.00,0.98
4000.00,0.97
