创建为新数据集,样品 1271 用户 Administrator 日期 星期六, 八月 17 2019
cm-1,%T
10000.00,1.20
9998.00,1.20
9996.00,1.20
9994.00,1.20
9992.00,1.20
9990.00,1.20
9988.00,1.20
9986.00,1.20
9984.00,1.20
9982.00,1.20
9980.00,1.20
9978.00,1.20
9976.00,1.20
9974.00,1.20
9972.00,1.20
9970.00,1.20
9968.00,1.20
9966.00,1.20
9964.00,1.20
9962.00,1.19
9960.00,1.19
9958.00,1.19
9956.00,1.19
9954.00,1.19
9952.00,1.19
9950.00,1.19
9948.00,1.19
9946.00,1.18
9944.00,1.18
9942.00,1.18
9940.00,1.18
9938.00,1.18
9936.00,1.17
9934.00,1.17
9932.00,1.17
9930.00,1.17
9928.00,1.17
9926.00,1.17
9924.00,1.17
9922.00,1.17
9920.00,1.17
9918.00,1.17
9916.00,1.17
9914.00,1.16
9912.00,1.16
9910.00,1.16
9908.00,1.16
9906.00,1.16
9904.00,1.16
9902.00,1.16
9900.00,1.16
9898.00,1.16
9896.00,1.16
9894.00,1.16
9892.00,1.16
9890.00,1.17
9888.00,1.17
9886.00,1.17
9884.00,1.17
9882.00,1.17
9880.00,1.17
9878.00,1.17
9876.00,1.17
9874.00,1.17
9872.00,1.17
9870.00,1.17
9868.00,1.17
9866.00,1.17
9864.00,1.17
9862.00,1.17
9860.00,1.17
9858.00,1.17
9856.00,1.17
9854.00,1.17
9852.00,1.17
9850.00,1.17
9848.00,1.17
9846.00,1.17
9844.00,1.17
9842.00,1.17
9840.00,1.17
9838.00,1.17
9836.00,1.17
9834.00,1.17
9832.00,1.17
9830.00,1.17
9828.00,1.17
9826.00,1.17
9824.00,1.17
9822.00,1.17
9820.00,1.17
9818.00,1.17
9816.00,1.17
9814.00,1.17
9812.00,1.17
9810.00,1.17
9808.00,1.17
9806.00,1.17
9804.00,1.17
9802.00,1.17
9800.00,1.17
9798.00,1.17
9796.00,1.17
9794.00,1.17
9792.00,1.17
9790.00,1.17
9788.00,1.17
9786.00,1.17
9784.00,1.17
9782.00,1.17
9780.00,1.17
9778.00,1.17
9776.00,1.17
9774.00,1.17
9772.00,1.16
9770.00,1.16
9768.00,1.16
9766.00,1.16
9764.00,1.16
9762.00,1.16
9760.00,1.16
9758.00,1.16
9756.00,1.16
9754.00,1.16
9752.00,1.16
9750.00,1.16
9748.00,1.16
9746.00,1.16
9744.00,1.17
9742.00,1.17
9740.00,1.17
9738.00,1.17
9736.00,1.17
9734.00,1.17
9732.00,1.17
9730.00,1.17
9728.00,1.18
9726.00,1.18
9724.00,1.18
9722.00,1.18
9720.00,1.18
9718.00,1.18
9716.00,1.18
9714.00,1.18
9712.00,1.18
9710.00,1.18
9708.00,1.18
9706.00,1.18
9704.00,1.18
9702.00,1.18
9700.00,1.18
9698.00,1.18
9696.00,1.18
9694.00,1.18
9692.00,1.18
9690.00,1.18
9688.00,1.17
9686.00,1.17
9684.00,1.17
9682.00,1.17
9680.00,1.17
9678.00,1.17
9676.00,1.17
9674.00,1.17
9672.00,1.17
9670.00,1.17
9668.00,1.17
9666.00,1.17
9664.00,1.17
9662.00,1.17
9660.00,1.17
9658.00,1.17
9656.00,1.17
9654.00,1.17
9652.00,1.17
9650.00,1.17
9648.00,1.17
9646.00,1.17
9644.00,1.17
9642.00,1.17
9640.00,1.17
9638.00,1.17
9636.00,1.17
9634.00,1.17
9632.00,1.17
9630.00,1.17
9628.00,1.18
9626.00,1.18
9624.00,1.18
9622.00,1.18
9620.00,1.18
9618.00,1.18
9616.00,1.18
9614.00,1.18
9612.00,1.19
9610.00,1.19
9608.00,1.19
9606.00,1.19
9604.00,1.19
9602.00,1.19
9600.00,1.18
9598.00,1.18
9596.00,1.18
9594.00,1.18
9592.00,1.18
9590.00,1.18
9588.00,1.18
9586.00,1.18
9584.00,1.18
9582.00,1.17
9580.00,1.17
9578.00,1.17
9576.00,1.17
9574.00,1.17
9572.00,1.17
9570.00,1.17
9568.00,1.17
9566.00,1.17
9564.00,1.16
9562.00,1.16
9560.00,1.16
9558.00,1.16
9556.00,1.16
9554.00,1.16
9552.00,1.16
9550.00,1.16
9548.00,1.16
9546.00,1.16
9544.00,1.16
9542.00,1.16
9540.00,1.16
9538.00,1.16
9536.00,1.16
9534.00,1.16
9532.00,1.16
9530.00,1.16
9528.00,1.16
9526.00,1.16
9524.00,1.16
9522.00,1.16
9520.00,1.16
9518.00,1.16
9516.00,1.16
9514.00,1.16
9512.00,1.16
9510.00,1.16
9508.00,1.16
9506.00,1.16
9504.00,1.16
9502.00,1.16
9500.00,1.16
9498.00,1.16
9496.00,1.16
9494.00,1.16
9492.00,1.16
9490.00,1.16
9488.00,1.16
9486.00,1.16
9484.00,1.16
9482.00,1.16
9480.00,1.16
9478.00,1.16
9476.00,1.16
9474.00,1.16
9472.00,1.16
9470.00,1.16
9468.00,1.16
9466.00,1.16
9464.00,1.16
9462.00,1.16
9460.00,1.16
9458.00,1.16
9456.00,1.16
9454.00,1.16
9452.00,1.16
9450.00,1.16
9448.00,1.16
9446.00,1.16
9444.00,1.16
9442.00,1.16
9440.00,1.16
9438.00,1.16
9436.00,1.16
9434.00,1.16
9432.00,1.16
9430.00,1.16
9428.00,1.16
9426.00,1.17
9424.00,1.17
9422.00,1.17
9420.00,1.17
9418.00,1.17
9416.00,1.17
9414.00,1.17
9412.00,1.17
9410.00,1.17
9408.00,1.17
9406.00,1.17
9404.00,1.17
9402.00,1.17
9400.00,1.17
9398.00,1.16
9396.00,1.16
9394.00,1.16
9392.00,1.16
9390.00,1.16
9388.00,1.16
9386.00,1.16
9384.00,1.16
9382.00,1.16
9380.00,1.16
9378.00,1.16
9376.00,1.16
9374.00,1.16
9372.00,1.16
9370.00,1.16
9368.00,1.16
9366.00,1.16
9364.00,1.16
9362.00,1.16
9360.00,1.17
9358.00,1.17
9356.00,1.17
9354.00,1.17
9352.00,1.17
9350.00,1.17
9348.00,1.17
9346.00,1.17
9344.00,1.18
9342.00,1.18
9340.00,1.18
9338.00,1.18
9336.00,1.18
9334.00,1.18
9332.00,1.18
9330.00,1.18
9328.00,1.17
9326.00,1.17
9324.00,1.17
9322.00,1.17
9320.00,1.17
9318.00,1.17
9316.00,1.17
9314.00,1.17
9312.00,1.17
9310.00,1.17
9308.00,1.17
9306.00,1.17
9304.00,1.17
9302.00,1.17
9300.00,1.17
9298.00,1.17
9296.00,1.17
9294.00,1.17
9292.00,1.17
9290.00,1.17
9288.00,1.17
9286.00,1.17
9284.00,1.17
9282.00,1.17
9280.00,1.17
9278.00,1.18
9276.00,1.18
9274.00,1.18
9272.00,1.18
9270.00,1.18
9268.00,1.18
9266.00,1.18
9264.00,1.18
9262.00,1.18
9260.00,1.18
9258.00,1.18
9256.00,1.18
9254.00,1.18
9252.00,1.18
9250.00,1.18
9248.00,1.18
9246.00,1.18
9244.00,1.18
9242.00,1.18
9240.00,1.18
9238.00,1.18
9236.00,1.18
9234.00,1.18
9232.00,1.18
9230.00,1.18
9228.00,1.18
9226.00,1.18
9224.00,1.18
9222.00,1.18
9220.00,1.17
9218.00,1.17
9216.00,1.17
9214.00,1.17
9212.00,1.17
9210.00,1.17
9208.00,1.17
9206.00,1.17
9204.00,1.17
9202.00,1.17
9200.00,1.17
9198.00,1.17
9196.00,1.17
9194.00,1.17
9192.00,1.18
9190.00,1.18
9188.00,1.18
9186.00,1.18
9184.00,1.18
9182.00,1.18
9180.00,1.18
9178.00,1.18
9176.00,1.18
9174.00,1.18
9172.00,1.18
9170.00,1.18
9168.00,1.18
9166.00,1.18
9164.00,1.18
9162.00,1.18
9160.00,1.19
9158.00,1.19
9156.00,1.19
9154.00,1.19
9152.00,1.19
9150.00,1.19
9148.00,1.19
9146.00,1.19
9144.00,1.19
9142.00,1.19
9140.00,1.19
9138.00,1.19
9136.00,1.19
9134.00,1.19
9132.00,1.19
9130.00,1.19
9128.00,1.19
9126.00,1.19
9124.00,1.18
9122.00,1.18
9120.00,1.18
9118.00,1.18
9116.00,1.18
9114.00,1.18
9112.00,1.18
9110.00,1.18
9108.00,1.18
9106.00,1.18
9104.00,1.18
9102.00,1.18
9100.00,1.17
9098.00,1.17
9096.00,1.17
9094.00,1.17
9092.00,1.17
9090.00,1.17
9088.00,1.17
9086.00,1.17
9084.00,1.17
9082.00,1.17
9080.00,1.17
9078.00,1.17
9076.00,1.17
9074.00,1.17
9072.00,1.18
9070.00,1.18
9068.00,1.18
9066.00,1.18
9064.00,1.18
9062.00,1.18
9060.00,1.18
9058.00,1.18
9056.00,1.18
9054.00,1.18
9052.00,1.18
9050.00,1.18
9048.00,1.18
9046.00,1.18
9044.00,1.19
9042.00,1.19
9040.00,1.19
9038.00,1.19
9036.00,1.19
9034.00,1.19
9032.00,1.19
9030.00,1.19
9028.00,1.18
9026.00,1.18
9024.00,1.18
9022.00,1.18
9020.00,1.18
9018.00,1.18
9016.00,1.18
9014.00,1.18
9012.00,1.18
9010.00,1.18
9008.00,1.18
9006.00,1.17
9004.00,1.17
9002.00,1.17
9000.00,1.17
8998.00,1.17
8996.00,1.17
8994.00,1.17
8992.00,1.17
8990.00,1.17
8988.00,1.17
8986.00,1.17
8984.00,1.17
8982.00,1.17
8980.00,1.18
8978.00,1.18
8976.00,1.18
8974.00,1.18
8972.00,1.18
8970.00,1.18
8968.00,1.18
8966.00,1.18
8964.00,1.18
8962.00,1.18
8960.00,1.17
8958.00,1.17
8956.00,1.17
8954.00,1.17
8952.00,1.17
8950.00,1.17
8948.00,1.17
8946.00,1.17
8944.00,1.17
8942.00,1.17
8940.00,1.17
8938.00,1.17
8936.00,1.17
8934.00,1.17
8932.00,1.16
8930.00,1.16
8928.00,1.16
8926.00,1.16
8924.00,1.16
8922.00,1.16
8920.00,1.16
8918.00,1.16
8916.00,1.16
8914.00,1.16
8912.00,1.16
8910.00,1.16
8908.00,1.16
8906.00,1.16
8904.00,1.16
8902.00,1.16
8900.00,1.16
8898.00,1.16
8896.00,1.16
8894.00,1.16
8892.00,1.17
8890.00,1.17
8888.00,1.17
8886.00,1.17
8884.00,1.17
8882.00,1.17
8880.00,1.17
8878.00,1.17
8876.00,1.17
8874.00,1.17
8872.00,1.17
8870.00,1.17
8868.00,1.17
8866.00,1.17
8864.00,1.17
8862.00,1.17
8860.00,1.17
8858.00,1.17
8856.00,1.17
8854.00,1.17
8852.00,1.17
8850.00,1.17
8848.00,1.17
8846.00,1.17
8844.00,1.17
8842.00,1.17
8840.00,1.17
8838.00,1.17
8836.00,1.17
8834.00,1.17
8832.00,1.17
8830.00,1.17
8828.00,1.17
8826.00,1.17
8824.00,1.17
8822.00,1.17
8820.00,1.17
8818.00,1.17
8816.00,1.17
8814.00,1.17
8812.00,1.17
8810.00,1.17
8808.00,1.17
8806.00,1.17
8804.00,1.17
8802.00,1.17
8800.00,1.17
8798.00,1.17
8796.00,1.17
8794.00,1.17
8792.00,1.17
8790.00,1.17
8788.00,1.17
8786.00,1.17
8784.00,1.17
8782.00,1.17
8780.00,1.17
8778.00,1.17
8776.00,1.17
8774.00,1.17
8772.00,1.17
8770.00,1.17
8768.00,1.17
8766.00,1.17
8764.00,1.17
8762.00,1.17
8760.00,1.17
8758.00,1.17
8756.00,1.17
8754.00,1.17
8752.00,1.17
8750.00,1.17
8748.00,1.17
8746.00,1.17
8744.00,1.17
8742.00,1.17
8740.00,1.17
8738.00,1.17
8736.00,1.17
8734.00,1.17
8732.00,1.17
8730.00,1.17
8728.00,1.17
8726.00,1.16
8724.00,1.16
8722.00,1.16
8720.00,1.16
8718.00,1.16
8716.00,1.16
8714.00,1.16
8712.00,1.16
8710.00,1.16
8708.00,1.16
8706.00,1.16
8704.00,1.16
8702.00,1.16
8700.00,1.16
8698.00,1.16
8696.00,1.16
8694.00,1.16
8692.00,1.16
8690.00,1.16
8688.00,1.17
8686.00,1.17
8684.00,1.17
8682.00,1.17
8680.00,1.17
8678.00,1.17
8676.00,1.18
8674.00,1.18
8672.00,1.18
8670.00,1.18
8668.00,1.18
8666.00,1.18
8664.00,1.18
8662.00,1.18
8660.00,1.18
8658.00,1.18
8656.00,1.18
8654.00,1.18
8652.00,1.18
8650.00,1.18
8648.00,1.18
8646.00,1.18
8644.00,1.18
8642.00,1.17
8640.00,1.17
8638.00,1.17
8636.00,1.17
8634.00,1.17
8632.00,1.16
8630.00,1.16
8628.00,1.16
8626.00,1.16
8624.00,1.16
8622.00,1.16
8620.00,1.16
8618.00,1.16
8616.00,1.16
8614.00,1.15
8612.00,1.15
8610.00,1.15
8608.00,1.15
8606.00,1.15
8604.00,1.15
8602.00,1.16
8600.00,1.16
8598.00,1.16
8596.00,1.16
8594.00,1.16
8592.00,1.16
8590.00,1.16
8588.00,1.16
8586.00,1.16
8584.00,1.16
8582.00,1.16
8580.00,1.16
8578.00,1.16
8576.00,1.16
8574.00,1.17
8572.00,1.17
8570.00,1.17
8568.00,1.17
8566.00,1.17
8564.00,1.17
8562.00,1.17
8560.00,1.17
8558.00,1.17
8556.00,1.17
8554.00,1.17
8552.00,1.17
8550.00,1.17
8548.00,1.17
8546.00,1.17
8544.00,1.16
8542.00,1.16
8540.00,1.16
8538.00,1.16
8536.00,1.16
8534.00,1.16
8532.00,1.16
8530.00,1.16
8528.00,1.16
8526.00,1.16
8524.00,1.15
8522.00,1.15
8520.00,1.15
8518.00,1.15
8516.00,1.15
8514.00,1.15
8512.00,1.15
8510.00,1.15
8508.00,1.15
8506.00,1.15
8504.00,1.15
8502.00,1.15
8500.00,1.15
8498.00,1.15
8496.00,1.15
8494.00,1.15
8492.00,1.16
8490.00,1.16
8488.00,1.16
8486.00,1.16
8484.00,1.16
8482.00,1.16
8480.00,1.16
8478.00,1.16
8476.00,1.16
8474.00,1.16
8472.00,1.16
8470.00,1.16
8468.00,1.16
8466.00,1.16
8464.00,1.16
8462.00,1.16
8460.00,1.16
8458.00,1.16
8456.00,1.16
8454.00,1.16
8452.00,1.16
8450.00,1.16
8448.00,1.16
8446.00,1.16
8444.00,1.16
8442.00,1.16
8440.00,1.16
8438.00,1.16
8436.00,1.16
8434.00,1.16
8432.00,1.16
8430.00,1.16
8428.00,1.16
8426.00,1.16
8424.00,1.16
8422.00,1.16
8420.00,1.16
8418.00,1.16
8416.00,1.16
8414.00,1.16
8412.00,1.16
8410.00,1.16
8408.00,1.16
8406.00,1.16
8404.00,1.15
8402.00,1.15
8400.00,1.15
8398.00,1.15
8396.00,1.15
8394.00,1.15
8392.00,1.15
8390.00,1.15
8388.00,1.15
8386.00,1.15
8384.00,1.15
8382.00,1.15
8380.00,1.15
8378.00,1.15
8376.00,1.15
8374.00,1.15
8372.00,1.15
8370.00,1.15
8368.00,1.15
8366.00,1.15
8364.00,1.15
8362.00,1.15
8360.00,1.15
8358.00,1.15
8356.00,1.15
8354.00,1.15
8352.00,1.15
8350.00,1.15
8348.00,1.15
8346.00,1.15
8344.00,1.15
8342.00,1.15
8340.00,1.15
8338.00,1.15
8336.00,1.15
8334.00,1.15
8332.00,1.15
8330.00,1.15
8328.00,1.15
8326.00,1.15
8324.00,1.15
8322.00,1.15
8320.00,1.15
8318.00,1.15
8316.00,1.16
8314.00,1.16
8312.00,1.16
8310.00,1.16
8308.00,1.16
8306.00,1.16
8304.00,1.16
8302.00,1.16
8300.00,1.16
8298.00,1.16
8296.00,1.16
8294.00,1.17
8292.00,1.17
8290.00,1.17
8288.00,1.17
8286.00,1.17
8284.00,1.17
8282.00,1.17
8280.00,1.17
8278.00,1.17
8276.00,1.17
8274.00,1.17
8272.00,1.17
8270.00,1.17
8268.00,1.17
8266.00,1.17
8264.00,1.17
8262.00,1.17
8260.00,1.17
8258.00,1.17
8256.00,1.17
8254.00,1.17
8252.00,1.17
8250.00,1.17
8248.00,1.17
8246.00,1.17
8244.00,1.17
8242.00,1.17
8240.00,1.17
8238.00,1.17
8236.00,1.17
8234.00,1.17
8232.00,1.17
8230.00,1.17
8228.00,1.17
8226.00,1.17
8224.00,1.17
8222.00,1.17
8220.00,1.17
8218.00,1.18
8216.00,1.18
8214.00,1.18
8212.00,1.18
8210.00,1.18
8208.00,1.18
8206.00,1.18
8204.00,1.18
8202.00,1.18
8200.00,1.18
8198.00,1.18
8196.00,1.18
8194.00,1.18
8192.00,1.17
8190.00,1.17
8188.00,1.17
8186.00,1.17
8184.00,1.17
8182.00,1.17
8180.00,1.17
8178.00,1.17
8176.00,1.18
8174.00,1.18
8172.00,1.18
8170.00,1.18
8168.00,1.18
8166.00,1.18
8164.00,1.18
8162.00,1.18
8160.00,1.18
8158.00,1.18
8156.00,1.18
8154.00,1.18
8152.00,1.18
8150.00,1.18
8148.00,1.18
8146.00,1.18
8144.00,1.18
8142.00,1.18
8140.00,1.18
8138.00,1.18
8136.00,1.18
8134.00,1.18
8132.00,1.18
8130.00,1.18
8128.00,1.18
8126.00,1.18
8124.00,1.18
8122.00,1.18
8120.00,1.18
8118.00,1.18
8116.00,1.18
8114.00,1.18
8112.00,1.18
8110.00,1.18
8108.00,1.18
8106.00,1.18
8104.00,1.18
8102.00,1.18
8100.00,1.18
8098.00,1.18
8096.00,1.18
8094.00,1.18
8092.00,1.18
8090.00,1.18
8088.00,1.18
8086.00,1.18
8084.00,1.18
8082.00,1.18
8080.00,1.18
8078.00,1.18
8076.00,1.18
8074.00,1.18
8072.00,1.18
8070.00,1.18
8068.00,1.18
8066.00,1.18
8064.00,1.18
8062.00,1.18
8060.00,1.18
8058.00,1.18
8056.00,1.18
8054.00,1.18
8052.00,1.18
8050.00,1.18
8048.00,1.18
8046.00,1.18
8044.00,1.18
8042.00,1.18
8040.00,1.18
8038.00,1.18
8036.00,1.18
8034.00,1.18
8032.00,1.18
8030.00,1.18
8028.00,1.18
8026.00,1.18
8024.00,1.18
8022.00,1.18
8020.00,1.18
8018.00,1.18
8016.00,1.18
8014.00,1.18
8012.00,1.18
8010.00,1.18
8008.00,1.18
8006.00,1.18
8004.00,1.18
8002.00,1.18
8000.00,1.18
7998.00,1.18
7996.00,1.18
7994.00,1.18
7992.00,1.18
7990.00,1.18
7988.00,1.18
7986.00,1.18
7984.00,1.18
7982.00,1.18
7980.00,1.18
7978.00,1.18
7976.00,1.18
7974.00,1.18
7972.00,1.18
7970.00,1.18
7968.00,1.18
7966.00,1.18
7964.00,1.18
7962.00,1.18
7960.00,1.18
7958.00,1.18
7956.00,1.18
7954.00,1.18
7952.00,1.18
7950.00,1.18
7948.00,1.18
7946.00,1.18
7944.00,1.18
7942.00,1.17
7940.00,1.17
7938.00,1.17
7936.00,1.17
7934.00,1.17
7932.00,1.17
7930.00,1.17
7928.00,1.17
7926.00,1.17
7924.00,1.17
7922.00,1.17
7920.00,1.17
7918.00,1.17
7916.00,1.17
7914.00,1.18
7912.00,1.18
7910.00,1.18
7908.00,1.18
7906.00,1.18
7904.00,1.18
7902.00,1.18
7900.00,1.18
7898.00,1.18
7896.00,1.18
7894.00,1.19
7892.00,1.19
7890.00,1.19
7888.00,1.19
7886.00,1.19
7884.00,1.19
7882.00,1.19
7880.00,1.19
7878.00,1.19
7876.00,1.19
7874.00,1.19
7872.00,1.19
7870.00,1.19
7868.00,1.19
7866.00,1.19
7864.00,1.18
7862.00,1.18
7860.00,1.18
7858.00,1.18
7856.00,1.18
7854.00,1.18
7852.00,1.18
7850.00,1.18
7848.00,1.18
7846.00,1.18
7844.00,1.18
7842.00,1.18
7840.00,1.18
7838.00,1.18
7836.00,1.18
7834.00,1.18
7832.00,1.18
7830.00,1.18
7828.00,1.19
7826.00,1.19
7824.00,1.19
7822.00,1.19
7820.00,1.19
7818.00,1.19
7816.00,1.19
7814.00,1.18
7812.00,1.18
7810.00,1.18
7808.00,1.18
7806.00,1.18
7804.00,1.18
7802.00,1.18
7800.00,1.18
7798.00,1.18
7796.00,1.18
7794.00,1.18
7792.00,1.18
7790.00,1.18
7788.00,1.18
7786.00,1.18
7784.00,1.18
7782.00,1.18
7780.00,1.18
7778.00,1.18
7776.00,1.18
7774.00,1.18
7772.00,1.18
7770.00,1.18
7768.00,1.18
7766.00,1.18
7764.00,1.18
7762.00,1.18
7760.00,1.18
7758.00,1.18
7756.00,1.18
7754.00,1.18
7752.00,1.18
7750.00,1.18
7748.00,1.18
7746.00,1.18
7744.00,1.18
7742.00,1.18
7740.00,1.18
7738.00,1.18
7736.00,1.18
7734.00,1.18
7732.00,1.18
7730.00,1.18
7728.00,1.18
7726.00,1.18
7724.00,1.18
7722.00,1.18
7720.00,1.18
7718.00,1.18
7716.00,1.18
7714.00,1.19
7712.00,1.19
7710.00,1.19
7708.00,1.19
7706.00,1.19
7704.00,1.19
7702.00,1.19
7700.00,1.19
7698.00,1.19
7696.00,1.19
7694.00,1.19
7692.00,1.19
7690.00,1.19
7688.00,1.19
7686.00,1.19
7684.00,1.19
7682.00,1.19
7680.00,1.19
7678.00,1.19
7676.00,1.19
7674.00,1.19
7672.00,1.19
7670.00,1.19
7668.00,1.19
7666.00,1.19
7664.00,1.19
7662.00,1.19
7660.00,1.19
7658.00,1.19
7656.00,1.19
7654.00,1.19
7652.00,1.19
7650.00,1.19
7648.00,1.19
7646.00,1.19
7644.00,1.19
7642.00,1.19
7640.00,1.19
7638.00,1.19
7636.00,1.19
7634.00,1.19
7632.00,1.19
7630.00,1.19
7628.00,1.19
7626.00,1.19
7624.00,1.19
7622.00,1.19
7620.00,1.19
7618.00,1.19
7616.00,1.19
7614.00,1.19
7612.00,1.19
7610.00,1.19
7608.00,1.19
7606.00,1.19
7604.00,1.19
7602.00,1.19
7600.00,1.19
7598.00,1.19
7596.00,1.19
7594.00,1.19
7592.00,1.19
7590.00,1.19
7588.00,1.19
7586.00,1.19
7584.00,1.18
7582.00,1.18
7580.00,1.18
7578.00,1.18
7576.00,1.18
7574.00,1.18
7572.00,1.18
7570.00,1.18
7568.00,1.18
7566.00,1.18
7564.00,1.18
7562.00,1.18
7560.00,1.18
7558.00,1.18
7556.00,1.18
7554.00,1.18
7552.00,1.18
7550.00,1.18
7548.00,1.18
7546.00,1.18
7544.00,1.18
7542.00,1.19
7540.00,1.19
7538.00,1.19
7536.00,1.19
7534.00,1.19
7532.00,1.19
7530.00,1.19
7528.00,1.19
7526.00,1.19
7524.00,1.19
7522.00,1.19
7520.00,1.19
7518.00,1.19
7516.00,1.19
7514.00,1.19
7512.00,1.18
7510.00,1.18
7508.00,1.18
7506.00,1.18
7504.00,1.18
7502.00,1.18
7500.00,1.18
7498.00,1.18
7496.00,1.18
7494.00,1.18
7492.00,1.18
7490.00,1.18
7488.00,1.18
7486.00,1.18
7484.00,1.18
7482.00,1.18
7480.00,1.18
7478.00,1.18
7476.00,1.18
7474.00,1.18
7472.00,1.18
7470.00,1.18
7468.00,1.18
7466.00,1.18
7464.00,1.18
7462.00,1.18
7460.00,1.18
7458.00,1.18
7456.00,1.18
7454.00,1.18
7452.00,1.18
7450.00,1.18
7448.00,1.18
7446.00,1.18
7444.00,1.17
7442.00,1.17
7440.00,1.17
7438.00,1.17
7436.00,1.17
7434.00,1.17
7432.00,1.17
7430.00,1.17
7428.00,1.17
7426.00,1.17
7424.00,1.17
7422.00,1.17
7420.00,1.17
7418.00,1.17
7416.00,1.17
7414.00,1.17
7412.00,1.17
7410.00,1.17
7408.00,1.17
7406.00,1.17
7404.00,1.17
7402.00,1.17
7400.00,1.17
7398.00,1.16
7396.00,1.16
7394.00,1.16
7392.00,1.16
7390.00,1.16
7388.00,1.16
7386.00,1.16
7384.00,1.16
7382.00,1.16
7380.00,1.16
7378.00,1.16
7376.00,1.16
7374.00,1.16
7372.00,1.16
7370.00,1.16
7368.00,1.16
7366.00,1.15
7364.00,1.15
7362.00,1.15
7360.00,1.15
7358.00,1.15
7356.00,1.15
7354.00,1.15
7352.00,1.15
7350.00,1.15
7348.00,1.15
7346.00,1.15
7344.00,1.15
7342.00,1.15
7340.00,1.15
7338.00,1.15
7336.00,1.15
7334.00,1.15
7332.00,1.15
7330.00,1.15
7328.00,1.15
7326.00,1.15
7324.00,1.15
7322.00,1.15
7320.00,1.15
7318.00,1.15
7316.00,1.15
7314.00,1.15
7312.00,1.15
7310.00,1.15
7308.00,1.15
7306.00,1.15
7304.00,1.15
7302.00,1.15
7300.00,1.15
7298.00,1.15
7296.00,1.15
7294.00,1.15
7292.00,1.16
7290.00,1.16
7288.00,1.16
7286.00,1.16
7284.00,1.16
7282.00,1.16
7280.00,1.16
7278.00,1.16
7276.00,1.16
7274.00,1.16
7272.00,1.16
7270.00,1.16
7268.00,1.16
7266.00,1.15
7264.00,1.15
7262.00,1.15
7260.00,1.15
7258.00,1.15
7256.00,1.15
7254.00,1.15
7252.00,1.15
7250.00,1.14
7248.00,1.14
7246.00,1.14
7244.00,1.14
7242.00,1.14
7240.00,1.13
7238.00,1.13
7236.00,1.13
7234.00,1.13
7232.00,1.13
7230.00,1.13
7228.00,1.13
7226.00,1.12
7224.00,1.12
7222.00,1.12
7220.00,1.12
7218.00,1.12
7216.00,1.12
7214.00,1.12
7212.00,1.12
7210.00,1.12
7208.00,1.11
7206.00,1.11
7204.00,1.11
7202.00,1.11
7200.00,1.11
7198.00,1.11
7196.00,1.11
7194.00,1.11
7192.00,1.10
7190.00,1.10
7188.00,1.10
7186.00,1.10
7184.00,1.10
7182.00,1.10
7180.00,1.09
7178.00,1.09
7176.00,1.09
7174.00,1.09
7172.00,1.09
7170.00,1.09
7168.00,1.08
7166.00,1.08
7164.00,1.08
7162.00,1.08
7160.00,1.08
7158.00,1.07
7156.00,1.07
7154.00,1.07
7152.00,1.07
7150.00,1.07
7148.00,1.06
7146.00,1.06
7144.00,1.06
7142.00,1.06
7140.00,1.06
7138.00,1.05
7136.00,1.05
7134.00,1.05
7132.00,1.05
7130.00,1.05
7128.00,1.05
7126.00,1.04
7124.00,1.04
7122.00,1.04
7120.00,1.04
7118.00,1.04
7116.00,1.04
7114.00,1.04
7112.00,1.04
7110.00,1.03
7108.00,1.03
7106.00,1.03
7104.00,1.03
7102.00,1.03
7100.00,1.03
7098.00,1.03
7096.00,1.03
7094.00,1.03
7092.00,1.03
7090.00,1.03
7088.00,1.02
7086.00,1.02
7084.00,1.02
7082.00,1.02
7080.00,1.02
7078.00,1.02
7076.00,1.02
7074.00,1.02
7072.00,1.02
7070.00,1.01
7068.00,1.01
7066.00,1.01
7064.00,1.01
7062.00,1.01
7060.00,1.01
7058.00,1.01
7056.00,1.01
7054.00,1.01
7052.00,1.01
7050.00,1.01
7048.00,1.00
7046.00,1.00
7044.00,1.00
7042.00,1.00
7040.00,1.00
7038.00,1.00
7036.00,1.00
7034.00,1.00
7032.00,1.00
7030.00,1.00
7028.00,1.00
7026.00,1.00
7024.00,1.00
7022.00,0.99
7020.00,0.99
7018.00,0.99
7016.00,0.99
7014.00,0.99
7012.00,0.99
7010.00,0.99
7008.00,0.99
7006.00,0.99
7004.00,0.99
7002.00,0.99
7000.00,0.99
6998.00,0.99
6996.00,0.99
6994.00,0.98
6992.00,0.98
6990.00,0.98
6988.00,0.98
6986.00,0.98
6984.00,0.98
6982.00,0.98
6980.00,0.98
6978.00,0.98
6976.00,0.98
6974.00,0.98
6972.00,0.98
6970.00,0.98
6968.00,0.98
6966.00,0.98
6964.00,0.97
6962.00,0.97
6960.00,0.97
6958.00,0.97
6956.00,0.97
6954.00,0.97
6952.00,0.97
6950.00,0.97
6948.00,0.97
6946.00,0.97
6944.00,0.97
6942.00,0.97
6940.00,0.97
6938.00,0.97
6936.00,0.97
6934.00,0.97
6932.00,0.97
6930.00,0.97
6928.00,0.97
6926.00,0.97
6924.00,0.97
6922.00,0.97
6920.00,0.97
6918.00,0.97
6916.00,0.97
6914.00,0.97
6912.00,0.97
6910.00,0.97
6908.00,0.97
6906.00,0.97
6904.00,0.97
6902.00,0.97
6900.00,0.97
6898.00,0.97
6896.00,0.97
6894.00,0.97
6892.00,0.97
6890.00,0.97
6888.00,0.97
6886.00,0.97
6884.00,0.97
6882.00,0.97
6880.00,0.97
6878.00,0.97
6876.00,0.97
6874.00,0.97
6872.00,0.97
6870.00,0.97
6868.00,0.97
6866.00,0.97
6864.00,0.97
6862.00,0.97
6860.00,0.97
6858.00,0.97
6856.00,0.98
6854.00,0.98
6852.00,0.98
6850.00,0.98
6848.00,0.98
6846.00,0.98
6844.00,0.98
6842.00,0.98
6840.00,0.98
6838.00,0.98
6836.00,0.98
6834.00,0.98
6832.00,0.98
6830.00,0.98
6828.00,0.98
6826.00,0.98
6824.00,0.98
6822.00,0.98
6820.00,0.98
6818.00,0.98
6816.00,0.98
6814.00,0.98
6812.00,0.98
6810.00,0.98
6808.00,0.98
6806.00,0.98
6804.00,0.98
6802.00,0.98
6800.00,0.99
6798.00,0.99
6796.00,0.99
6794.00,0.99
6792.00,0.99
6790.00,0.99
6788.00,0.99
6786.00,0.99
6784.00,0.99
6782.00,0.99
6780.00,0.99
6778.00,0.99
6776.00,0.99
6774.00,0.99
6772.00,0.99
6770.00,1.00
6768.00,1.00
6766.00,1.00
6764.00,1.00
6762.00,1.00
6760.00,1.00
6758.00,1.00
6756.00,1.00
6754.00,1.00
6752.00,1.00
6750.00,1.01
6748.00,1.01
6746.00,1.01
6744.00,1.01
6742.00,1.01
6740.00,1.01
6738.00,1.01
6736.00,1.01
6734.00,1.01
6732.00,1.01
6730.00,1.01
6728.00,1.01
6726.00,1.01
6724.00,1.01
6722.00,1.01
6720.00,1.01
6718.00,1.01
6716.00,1.01
6714.00,1.02
6712.00,1.02
6710.00,1.02
6708.00,1.02
6706.00,1.02
6704.00,1.02
6702.00,1.02
6700.00,1.02
6698.00,1.02
6696.00,1.02
6694.00,1.03
6692.00,1.03
6690.00,1.03
6688.00,1.03
6686.00,1.03
6684.00,1.03
6682.00,1.03
6680.00,1.03
6678.00,1.03
6676.00,1.03
6674.00,1.03
6672.00,1.03
6670.00,1.03
6668.00,1.03
6666.00,1.03
6664.00,1.04
6662.00,1.04
6660.00,1.04
6658.00,1.04
6656.00,1.04
6654.00,1.04
6652.00,1.04
6650.00,1.04
6648.00,1.04
6646.00,1.04
6644.00,1.04
6642.00,1.04
6640.00,1.05
6638.00,1.05
6636.00,1.05
6634.00,1.05
6632.00,1.05
6630.00,1.05
6628.00,1.05
6626.00,1.05
6624.00,1.05
6622.00,1.05
6620.00,1.05
6618.00,1.06
6616.00,1.06
6614.00,1.06
6612.00,1.06
6610.00,1.06
6608.00,1.06
6606.00,1.06
6604.00,1.06
6602.00,1.06
6600.00,1.06
6598.00,1.07
6596.00,1.07
6594.00,1.07
6592.00,1.07
6590.00,1.07
6588.00,1.07
6586.00,1.07
6584.00,1.07
6582.00,1.07
6580.00,1.07
6578.00,1.07
6576.00,1.08
6574.00,1.08
6572.00,1.08
6570.00,1.08
6568.00,1.08
6566.00,1.08
6564.00,1.08
6562.00,1.08
6560.00,1.08
6558.00,1.08
6556.00,1.08
6554.00,1.08
6552.00,1.08
6550.00,1.08
6548.00,1.09
6546.00,1.09
6544.00,1.09
6542.00,1.09
6540.00,1.09
6538.00,1.09
6536.00,1.09
6534.00,1.09
6532.00,1.09
6530.00,1.09
6528.00,1.09
6526.00,1.09
6524.00,1.09
6522.00,1.09
6520.00,1.09
6518.00,1.09
6516.00,1.09
6514.00,1.09
6512.00,1.09
6510.00,1.09
6508.00,1.09
6506.00,1.09
6504.00,1.09
6502.00,1.10
6500.00,1.10
6498.00,1.10
6496.00,1.10
6494.00,1.10
6492.00,1.10
6490.00,1.10
6488.00,1.10
6486.00,1.10
6484.00,1.10
6482.00,1.10
6480.00,1.10
6478.00,1.10
6476.00,1.11
6474.00,1.11
6472.00,1.11
6470.00,1.11
6468.00,1.11
6466.00,1.11
6464.00,1.11
6462.00,1.11
6460.00,1.11
6458.00,1.11
6456.00,1.11
6454.00,1.11
6452.00,1.11
6450.00,1.11
6448.00,1.11
6446.00,1.11
6444.00,1.11
6442.00,1.11
6440.00,1.11
6438.00,1.12
6436.00,1.12
6434.00,1.12
6432.00,1.12
6430.00,1.12
6428.00,1.12
6426.00,1.12
6424.00,1.12
6422.00,1.12
6420.00,1.12
6418.00,1.12
6416.00,1.12
6414.00,1.12
6412.00,1.12
6410.00,1.12
6408.00,1.12
6406.00,1.12
6404.00,1.12
6402.00,1.12
6400.00,1.12
6398.00,1.12
6396.00,1.13
6394.00,1.13
6392.00,1.13
6390.00,1.13
6388.00,1.13
6386.00,1.13
6384.00,1.13
6382.00,1.13
6380.00,1.13
6378.00,1.13
6376.00,1.13
6374.00,1.13
6372.00,1.13
6370.00,1.13
6368.00,1.13
6366.00,1.13
6364.00,1.13
6362.00,1.13
6360.00,1.13
6358.00,1.13
6356.00,1.14
6354.00,1.14
6352.00,1.14
6350.00,1.14
6348.00,1.14
6346.00,1.14
6344.00,1.14
6342.00,1.14
6340.00,1.14
6338.00,1.14
6336.00,1.14
6334.00,1.14
6332.00,1.14
6330.00,1.15
6328.00,1.15
6326.00,1.15
6324.00,1.15
6322.00,1.15
6320.00,1.15
6318.00,1.15
6316.00,1.15
6314.00,1.15
6312.00,1.15
6310.00,1.15
6308.00,1.15
6306.00,1.15
6304.00,1.15
6302.00,1.15
6300.00,1.15
6298.00,1.15
6296.00,1.15
6294.00,1.15
6292.00,1.15
6290.00,1.15
6288.00,1.15
6286.00,1.15
6284.00,1.15
6282.00,1.15
6280.00,1.15
6278.00,1.15
6276.00,1.15
6274.00,1.15
6272.00,1.15
6270.00,1.15
6268.00,1.16
6266.00,1.16
6264.00,1.16
6262.00,1.16
6260.00,1.16
6258.00,1.16
6256.00,1.16
6254.00,1.16
6252.00,1.16
6250.00,1.16
6248.00,1.16
6246.00,1.16
6244.00,1.16
6242.00,1.16
6240.00,1.16
6238.00,1.16
6236.00,1.16
6234.00,1.16
6232.00,1.16
6230.00,1.16
6228.00,1.16
6226.00,1.17
6224.00,1.17
6222.00,1.17
6220.00,1.17
6218.00,1.17
6216.00,1.17
6214.00,1.17
6212.00,1.17
6210.00,1.17
6208.00,1.17
6206.00,1.17
6204.00,1.17
6202.00,1.17
6200.00,1.17
6198.00,1.17
6196.00,1.17
6194.00,1.17
6192.00,1.17
6190.00,1.17
6188.00,1.17
6186.00,1.17
6184.00,1.17
6182.00,1.17
6180.00,1.17
6178.00,1.17
6176.00,1.17
6174.00,1.17
6172.00,1.18
6170.00,1.18
6168.00,1.18
6166.00,1.18
6164.00,1.18
6162.00,1.18
6160.00,1.18
6158.00,1.18
6156.00,1.18
6154.00,1.18
6152.00,1.18
6150.00,1.18
6148.00,1.18
6146.00,1.18
6144.00,1.18
6142.00,1.18
6140.00,1.18
6138.00,1.18
6136.00,1.18
6134.00,1.18
6132.00,1.18
6130.00,1.18
6128.00,1.18
6126.00,1.18
6124.00,1.18
6122.00,1.19
6120.00,1.19
6118.00,1.19
6116.00,1.19
6114.00,1.19
6112.00,1.19
6110.00,1.19
6108.00,1.19
6106.00,1.19
6104.00,1.19
6102.00,1.19
6100.00,1.19
6098.00,1.19
6096.00,1.19
6094.00,1.19
6092.00,1.19
6090.00,1.19
6088.00,1.19
6086.00,1.19
6084.00,1.19
6082.00,1.19
6080.00,1.19
6078.00,1.19
6076.00,1.19
6074.00,1.19
6072.00,1.19
6070.00,1.19
6068.00,1.19
6066.00,1.19
6064.00,1.19
6062.00,1.19
6060.00,1.20
6058.00,1.20
6056.00,1.20
6054.00,1.20
6052.00,1.20
6050.00,1.20
6048.00,1.20
6046.00,1.20
6044.00,1.20
6042.00,1.20
6040.00,1.20
6038.00,1.20
6036.00,1.20
6034.00,1.20
6032.00,1.20
6030.00,1.20
6028.00,1.20
6026.00,1.20
6024.00,1.20
6022.00,1.20
6020.00,1.20
6018.00,1.20
6016.00,1.20
6014.00,1.20
6012.00,1.20
6010.00,1.20
6008.00,1.20
6006.00,1.20
6004.00,1.20
6002.00,1.20
6000.00,1.20
5998.00,1.20
5996.00,1.20
5994.00,1.20
5992.00,1.20
5990.00,1.20
5988.00,1.20
5986.00,1.20
5984.00,1.20
5982.00,1.20
5980.00,1.20
5978.00,1.20
5976.00,1.20
5974.00,1.19
5972.00,1.19
5970.00,1.19
5968.00,1.19
5966.00,1.19
5964.00,1.19
5962.00,1.19
5960.00,1.19
5958.00,1.19
5956.00,1.19
5954.00,1.19
5952.00,1.19
5950.00,1.19
5948.00,1.19
5946.00,1.19
5944.00,1.19
5942.00,1.19
5940.00,1.18
5938.00,1.18
5936.00,1.18
5934.00,1.18
5932.00,1.18
5930.00,1.18
5928.00,1.18
5926.00,1.18
5924.00,1.18
5922.00,1.18
5920.00,1.18
5918.00,1.18
5916.00,1.18
5914.00,1.18
5912.00,1.18
5910.00,1.18
5908.00,1.18
5906.00,1.18
5904.00,1.18
5902.00,1.18
5900.00,1.19
5898.00,1.19
5896.00,1.19
5894.00,1.19
5892.00,1.19
5890.00,1.19
5888.00,1.19
5886.00,1.19
5884.00,1.19
5882.00,1.19
5880.00,1.19
5878.00,1.19
5876.00,1.19
5874.00,1.19
5872.00,1.19
5870.00,1.19
5868.00,1.19
5866.00,1.19
5864.00,1.19
5862.00,1.19
5860.00,1.19
5858.00,1.19
5856.00,1.19
5854.00,1.19
5852.00,1.19
5850.00,1.19
5848.00,1.19
5846.00,1.19
5844.00,1.19
5842.00,1.19
5840.00,1.19
5838.00,1.19
5836.00,1.19
5834.00,1.19
5832.00,1.19
5830.00,1.19
5828.00,1.19
5826.00,1.19
5824.00,1.19
5822.00,1.19
5820.00,1.19
5818.00,1.19
5816.00,1.19
5814.00,1.19
5812.00,1.19
5810.00,1.19
5808.00,1.19
5806.00,1.19
5804.00,1.19
5802.00,1.19
5800.00,1.19
5798.00,1.19
5796.00,1.19
5794.00,1.19
5792.00,1.19
5790.00,1.19
5788.00,1.19
5786.00,1.19
5784.00,1.19
5782.00,1.19
5780.00,1.19
5778.00,1.19
5776.00,1.19
5774.00,1.19
5772.00,1.19
5770.00,1.19
5768.00,1.19
5766.00,1.19
5764.00,1.19
5762.00,1.19
5760.00,1.19
5758.00,1.19
5756.00,1.19
5754.00,1.19
5752.00,1.19
5750.00,1.19
5748.00,1.19
5746.00,1.19
5744.00,1.19
5742.00,1.19
5740.00,1.19
5738.00,1.19
5736.00,1.19
5734.00,1.19
5732.00,1.19
5730.00,1.19
5728.00,1.19
5726.00,1.19
5724.00,1.19
5722.00,1.19
5720.00,1.19
5718.00,1.19
5716.00,1.19
5714.00,1.19
5712.00,1.19
5710.00,1.19
5708.00,1.19
5706.00,1.19
5704.00,1.19
5702.00,1.19
5700.00,1.19
5698.00,1.19
5696.00,1.19
5694.00,1.19
5692.00,1.19
5690.00,1.19
5688.00,1.19
5686.00,1.19
5684.00,1.19
5682.00,1.19
5680.00,1.19
5678.00,1.19
5676.00,1.19
5674.00,1.19
5672.00,1.19
5670.00,1.19
5668.00,1.19
5666.00,1.19
5664.00,1.19
5662.00,1.19
5660.00,1.19
5658.00,1.19
5656.00,1.19
5654.00,1.19
5652.00,1.19
5650.00,1.19
5648.00,1.19
5646.00,1.19
5644.00,1.19
5642.00,1.19
5640.00,1.19
5638.00,1.19
5636.00,1.19
5634.00,1.19
5632.00,1.20
5630.00,1.20
5628.00,1.20
5626.00,1.20
5624.00,1.20
5622.00,1.20
5620.00,1.20
5618.00,1.20
5616.00,1.20
5614.00,1.20
5612.00,1.20
5610.00,1.20
5608.00,1.20
5606.00,1.20
5604.00,1.20
5602.00,1.20
5600.00,1.20
5598.00,1.20
5596.00,1.20
5594.00,1.20
5592.00,1.20
5590.00,1.20
5588.00,1.20
5586.00,1.20
5584.00,1.20
5582.00,1.20
5580.00,1.20
5578.00,1.20
5576.00,1.20
5574.00,1.20
5572.00,1.20
5570.00,1.20
5568.00,1.20
5566.00,1.20
5564.00,1.20
5562.00,1.20
5560.00,1.20
5558.00,1.20
5556.00,1.20
5554.00,1.20
5552.00,1.20
5550.00,1.20
5548.00,1.20
5546.00,1.20
5544.00,1.20
5542.00,1.20
5540.00,1.20
5538.00,1.20
5536.00,1.20
5534.00,1.20
5532.00,1.20
5530.00,1.20
5528.00,1.20
5526.00,1.20
5524.00,1.20
5522.00,1.20
5520.00,1.20
5518.00,1.20
5516.00,1.20
5514.00,1.20
5512.00,1.20
5510.00,1.20
5508.00,1.20
5506.00,1.20
5504.00,1.20
5502.00,1.20
5500.00,1.20
5498.00,1.20
5496.00,1.20
5494.00,1.20
5492.00,1.20
5490.00,1.20
5488.00,1.20
5486.00,1.20
5484.00,1.20
5482.00,1.20
5480.00,1.20
5478.00,1.20
5476.00,1.20
5474.00,1.20
5472.00,1.20
5470.00,1.20
5468.00,1.20
5466.00,1.20
5464.00,1.20
5462.00,1.20
5460.00,1.20
5458.00,1.20
5456.00,1.20
5454.00,1.20
5452.00,1.20
5450.00,1.20
5448.00,1.20
5446.00,1.20
5444.00,1.20
5442.00,1.20
5440.00,1.20
5438.00,1.20
5436.00,1.20
5434.00,1.20
5432.00,1.20
5430.00,1.20
5428.00,1.20
5426.00,1.20
5424.00,1.20
5422.00,1.20
5420.00,1.20
5418.00,1.20
5416.00,1.20
5414.00,1.20
5412.00,1.20
5410.00,1.20
5408.00,1.20
5406.00,1.20
5404.00,1.20
5402.00,1.20
5400.00,1.20
5398.00,1.20
5396.00,1.20
5394.00,1.20
5392.00,1.20
5390.00,1.20
5388.00,1.19
5386.00,1.19
5384.00,1.19
5382.00,1.19
5380.00,1.19
5378.00,1.19
5376.00,1.18
5374.00,1.18
5372.00,1.18
5370.00,1.18
5368.00,1.17
5366.00,1.17
5364.00,1.17
5362.00,1.17
5360.00,1.16
5358.00,1.16
5356.00,1.15
5354.00,1.15
5352.00,1.15
5350.00,1.14
5348.00,1.14
5346.00,1.13
5344.00,1.13
5342.00,1.13
5340.00,1.12
5338.00,1.12
5336.00,1.11
5334.00,1.11
5332.00,1.10
5330.00,1.10
5328.00,1.09
5326.00,1.08
5324.00,1.08
5322.00,1.07
5320.00,1.07
5318.00,1.06
5316.00,1.05
5314.00,1.05
5312.00,1.04
5310.00,1.03
5308.00,1.02
5306.00,1.02
5304.00,1.01
5302.00,1.00
5300.00,0.99
5298.00,0.99
5296.00,0.98
5294.00,0.97
5292.00,0.96
5290.00,0.95
5288.00,0.95
5286.00,0.94
5284.00,0.93
5282.00,0.92
5280.00,0.92
5278.00,0.91
5276.00,0.90
5274.00,0.89
5272.00,0.89
5270.00,0.88
5268.00,0.88
5266.00,0.87
5264.00,0.87
5262.00,0.86
5260.00,0.85
5258.00,0.85
5256.00,0.85
5254.00,0.84
5252.00,0.84
5250.00,0.83
5248.00,0.83
5246.00,0.83
5244.00,0.82
5242.00,0.82
5240.00,0.82
5238.00,0.81
5236.00,0.81
5234.00,0.81
5232.00,0.80
5230.00,0.80
5228.00,0.80
5226.00,0.80
5224.00,0.80
5222.00,0.79
5220.00,0.79
5218.00,0.79
5216.00,0.79
5214.00,0.79
5212.00,0.79
5210.00,0.78
5208.00,0.78
5206.00,0.78
5204.00,0.78
5202.00,0.78
5200.00,0.78
5198.00,0.78
5196.00,0.78
5194.00,0.78
5192.00,0.78
5190.00,0.78
5188.00,0.78
5186.00,0.78
5184.00,0.78
5182.00,0.78
5180.00,0.78
5178.00,0.78
5176.00,0.78
5174.00,0.78
5172.00,0.78
5170.00,0.78
5168.00,0.78
5166.00,0.78
5164.00,0.78
5162.00,0.78
5160.00,0.78
5158.00,0.78
5156.00,0.78
5154.00,0.78
5152.00,0.78
5150.00,0.78
5148.00,0.79
5146.00,0.79
5144.00,0.79
5142.00,0.79
5140.00,0.79
5138.00,0.79
5136.00,0.79
5134.00,0.80
5132.00,0.80
5130.00,0.80
5128.00,0.80
5126.00,0.80
5124.00,0.80
5122.00,0.81
5120.00,0.81
5118.00,0.81
5116.00,0.81
5114.00,0.81
5112.00,0.81
5110.00,0.82
5108.00,0.82
5106.00,0.82
5104.00,0.82
5102.00,0.82
5100.00,0.82
5098.00,0.83
5096.00,0.83
5094.00,0.83
5092.00,0.83
5090.00,0.84
5088.00,0.84
5086.00,0.84
5084.00,0.84
5082.00,0.84
5080.00,0.85
5078.00,0.85
5076.00,0.85
5074.00,0.85
5072.00,0.86
5070.00,0.86
5068.00,0.86
5066.00,0.86
5064.00,0.86
5062.00,0.87
5060.00,0.87
5058.00,0.87
5056.00,0.87
5054.00,0.88
5052.00,0.88
5050.00,0.88
5048.00,0.88
5046.00,0.88
5044.00,0.89
5042.00,0.89
5040.00,0.89
5038.00,0.89
5036.00,0.89
5034.00,0.90
5032.00,0.90
5030.00,0.90
5028.00,0.90
5026.00,0.90
5024.00,0.91
5022.00,0.91
5020.00,0.91
5018.00,0.91
5016.00,0.92
5014.00,0.92
5012.00,0.92
5010.00,0.92
5008.00,0.93
5006.00,0.93
5004.00,0.93
5002.00,0.93
5000.00,0.94
4998.00,0.94
4996.00,0.94
4994.00,0.94
4992.00,0.94
4990.00,0.95
4988.00,0.95
4986.00,0.95
4984.00,0.95
4982.00,0.96
4980.00,0.96
4978.00,0.96
4976.00,0.96
4974.00,0.96
4972.00,0.97
4970.00,0.97
4968.00,0.97
4966.00,0.97
4964.00,0.97
4962.00,0.98
4960.00,0.98
4958.00,0.98
4956.00,0.98
4954.00,0.98
4952.00,0.99
4950.00,0.99
4948.00,0.99
4946.00,0.99
4944.00,1.00
4942.00,1.00
4940.00,1.00
4938.00,1.00
4936.00,1.00
4934.00,1.01
4932.00,1.01
4930.00,1.01
4928.00,1.01
4926.00,1.01
4924.00,1.02
4922.00,1.02
4920.00,1.02
4918.00,1.02
4916.00,1.02
4914.00,1.02
4912.00,1.02
4910.00,1.03
4908.00,1.03
4906.00,1.03
4904.00,1.03
4902.00,1.03
4900.00,1.03
4898.00,1.03
4896.00,1.04
4894.00,1.04
4892.00,1.04
4890.00,1.04
4888.00,1.04
4886.00,1.04
4884.00,1.04
4882.00,1.05
4880.00,1.05
4878.00,1.05
4876.00,1.05
4874.00,1.05
4872.00,1.05
4870.00,1.06
4868.00,1.06
4866.00,1.06
4864.00,1.06
4862.00,1.06
4860.00,1.06
4858.00,1.06
4856.00,1.07
4854.00,1.07
4852.00,1.07
4850.00,1.07
4848.00,1.07
4846.00,1.07
4844.00,1.07
4842.00,1.08
4840.00,1.08
4838.00,1.08
4836.00,1.08
4834.00,1.08
4832.00,1.08
4830.00,1.08
4828.00,1.08
4826.00,1.09
4824.00,1.09
4822.00,1.09
4820.00,1.09
4818.00,1.09
4816.00,1.09
4814.00,1.09
4812.00,1.10
4810.00,1.10
4808.00,1.10
4806.00,1.10
4804.00,1.10
4802.00,1.10
4800.00,1.10
4798.00,1.11
4796.00,1.11
4794.00,1.11
4792.00,1.11
4790.00,1.11
4788.00,1.11
4786.00,1.12
4784.00,1.12
4782.00,1.12
4780.00,1.12
4778.00,1.12
4776.00,1.12
4774.00,1.13
4772.00,1.13
4770.00,1.13
4768.00,1.13
4766.00,1.13
4764.00,1.13
4762.00,1.14
4760.00,1.14
4758.00,1.14
4756.00,1.14
4754.00,1.14
4752.00,1.14
4750.00,1.15
4748.00,1.15
4746.00,1.15
4744.00,1.15
4742.00,1.15
4740.00,1.15
4738.00,1.15
4736.00,1.16
4734.00,1.16
4732.00,1.16
4730.00,1.16
4728.00,1.16
4726.00,1.16
4724.00,1.16
4722.00,1.16
4720.00,1.16
4718.00,1.16
4716.00,1.17
4714.00,1.17
4712.00,1.17
4710.00,1.17
4708.00,1.17
4706.00,1.17
4704.00,1.17
4702.00,1.17
4700.00,1.17
4698.00,1.17
4696.00,1.17
4694.00,1.17
4692.00,1.17
4690.00,1.17
4688.00,1.18
4686.00,1.18
4684.00,1.18
4682.00,1.18
4680.00,1.18
4678.00,1.18
4676.00,1.18
4674.00,1.18
4672.00,1.18
4670.00,1.18
4668.00,1.18
4666.00,1.18
4664.00,1.19
4662.00,1.19
4660.00,1.19
4658.00,1.19
4656.00,1.19
4654.00,1.19
4652.00,1.19
4650.00,1.19
4648.00,1.19
4646.00,1.19
4644.00,1.19
4642.00,1.19
4640.00,1.19
4638.00,1.19
4636.00,1.19
4634.00,1.19
4632.00,1.19
4630.00,1.20
4628.00,1.20
4626.00,1.20
4624.00,1.20
4622.00,1.20
4620.00,1.20
4618.00,1.20
4616.00,1.20
4614.00,1.20
4612.00,1.20
4610.00,1.20
4608.00,1.20
4606.00,1.20
4604.00,1.20
4602.00,1.20
4600.00,1.20
4598.00,1.20
4596.00,1.20
4594.00,1.20
4592.00,1.20
4590.00,1.20
4588.00,1.20
4586.00,1.20
4584.00,1.20
4582.00,1.20
4580.00,1.20
4578.00,1.20
4576.00,1.20
4574.00,1.20
4572.00,1.20
4570.00,1.20
4568.00,1.20
4566.00,1.20
4564.00,1.20
4562.00,1.20
4560.00,1.20
4558.00,1.20
4556.00,1.20
4554.00,1.20
4552.00,1.20
4550.00,1.20
4548.00,1.20
4546.00,1.20
4544.00,1.20
4542.00,1.20
4540.00,1.20
4538.00,1.20
4536.00,1.20
4534.00,1.20
4532.00,1.20
4530.00,1.20
4528.00,1.20
4526.00,1.20
4524.00,1.20
4522.00,1.20
4520.00,1.20
4518.00,1.20
4516.00,1.20
4514.00,1.20
4512.00,1.20
4510.00,1.20
4508.00,1.20
4506.00,1.20
4504.00,1.20
4502.00,1.20
4500.00,1.20
4498.00,1.20
4496.00,1.20
4494.00,1.20
4492.00,1.20
4490.00,1.20
4488.00,1.20
4486.00,1.20
4484.00,1.20
4482.00,1.20
4480.00,1.20
4478.00,1.20
4476.00,1.20
4474.00,1.20
4472.00,1.20
4470.00,1.19
4468.00,1.19
4466.00,1.19
4464.00,1.19
4462.00,1.19
4460.00,1.19
4458.00,1.19
4456.00,1.18
4454.00,1.18
4452.00,1.18
4450.00,1.18
4448.00,1.18
4446.00,1.17
4444.00,1.17
4442.00,1.17
4440.00,1.17
4438.00,1.16
4436.00,1.16
4434.00,1.16
4432.00,1.16
4430.00,1.15
4428.00,1.15
4426.00,1.15
4424.00,1.15
4422.00,1.15
4420.00,1.15
4418.00,1.15
4416.00,1.15
4414.00,1.15
4412.00,1.15
4410.00,1.15
4408.00,1.15
4406.00,1.15
4404.00,1.15
4402.00,1.15
4400.00,1.15
4398.00,1.15
4396.00,1.16
4394.00,1.16
4392.00,1.16
4390.00,1.16
4388.00,1.16
4386.00,1.17
4384.00,1.17
4382.00,1.17
4380.00,1.17
4378.00,1.17
4376.00,1.17
4374.00,1.17
4372.00,1.17
4370.00,1.17
4368.00,1.17
4366.00,1.17
4364.00,1.17
4362.00,1.17
4360.00,1.17
4358.00,1.17
4356.00,1.16
4354.00,1.16
4352.00,1.16
4350.00,1.16
4348.00,1.16
4346.00,1.16
4344.00,1.16
4342.00,1.16
4340.00,1.16
4338.00,1.16
4336.00,1.16
4334.00,1.17
4332.00,1.17
4330.00,1.17
4328.00,1.17
4326.00,1.17
4324.00,1.18
4322.00,1.18
4320.00,1.18
4318.00,1.18
4316.00,1.18
4314.00,1.19
4312.00,1.19
4310.00,1.19
4308.00,1.19
4306.00,1.19
4304.00,1.20
4302.00,1.20
4300.00,1.20
4298.00,1.20
4296.00,1.20
4294.00,1.20
4292.00,1.20
4290.00,1.20
4288.00,1.20
4286.00,1.20
4284.00,1.20
4282.00,1.20
4280.00,1.20
4278.00,1.20
4276.00,1.20
4274.00,1.20
4272.00,1.19
4270.00,1.19
4268.00,1.19
4266.00,1.19
4264.00,1.19
4262.00,1.19
4260.00,1.19
4258.00,1.19
4256.00,1.19
4254.00,1.19
4252.00,1.19
4250.00,1.19
4248.00,1.19
4246.00,1.19
4244.00,1.19
4242.00,1.19
4240.00,1.19
4238.00,1.19
4236.00,1.20
4234.00,1.20
4232.00,1.20
4230.00,1.20
4228.00,1.20
4226.00,1.20
4224.00,1.20
4222.00,1.20
4220.00,1.20
4218.00,1.20
4216.00,1.20
4214.00,1.20
4212.00,1.20
4210.00,1.20
4208.00,1.20
4206.00,1.20
4204.00,1.20
4202.00,1.20
4200.00,1.20
4198.00,1.20
4196.00,1.20
4194.00,1.19
4192.00,1.19
4190.00,1.19
4188.00,1.19
4186.00,1.19
4184.00,1.19
4182.00,1.19
4180.00,1.19
4178.00,1.19
4176.00,1.19
4174.00,1.19
4172.00,1.19
4170.00,1.19
4168.00,1.19
4166.00,1.19
4164.00,1.19
4162.00,1.19
4160.00,1.19
4158.00,1.19
4156.00,1.19
4154.00,1.19
4152.00,1.19
4150.00,1.19
4148.00,1.19
4146.00,1.19
4144.00,1.19
4142.00,1.19
4140.00,1.19
4138.00,1.19
4136.00,1.19
4134.00,1.19
4132.00,1.19
4130.00,1.19
4128.00,1.19
4126.00,1.19
4124.00,1.19
4122.00,1.19
4120.00,1.19
4118.00,1.19
4116.00,1.19
4114.00,1.19
4112.00,1.19
4110.00,1.19
4108.00,1.19
4106.00,1.19
4104.00,1.19
4102.00,1.19
4100.00,1.19
4098.00,1.19
4096.00,1.19
4094.00,1.19
4092.00,1.18
4090.00,1.18
4088.00,1.18
4086.00,1.18
4084.00,1.18
4082.00,1.18
4080.00,1.18
4078.00,1.18
4076.00,1.18
4074.00,1.18
4072.00,1.18
4070.00,1.17
4068.00,1.17
4066.00,1.17
4064.00,1.17
4062.00,1.17
4060.00,1.17
4058.00,1.17
4056.00,1.17
4054.00,1.17
4052.00,1.17
4050.00,1.17
4048.00,1.17
4046.00,1.17
4044.00,1.17
4042.00,1.17
4040.00,1.17
4038.00,1.17
4036.00,1.17
4034.00,1.17
4032.00,1.17
4030.00,1.17
4028.00,1.17
4026.00,1.18
4024.00,1.18
4022.00,1.18
4020.00,1.18
4018.00,1.18
4016.00,1.18
4014.00,1.18
4012.00,1.19
4010.00,1.19
4008.00,1.19
4006.00,1.19
4004.00,1.19
4002.00,1.20
4000.00,1.20
