创建为新数据集,样品 1015 用户 Administrator 日期 星期二, 七月 30 2019
cm-1,%T
10000.00,0.79
9999.00,0.78
9998.00,0.77
9997.00,0.75
9996.00,0.74
9995.00,0.72
9994.00,0.71
9993.00,0.69
9992.00,0.68
9991.00,0.67
9990.00,0.65
9989.00,0.64
9988.00,0.63
9987.00,0.62
9986.00,0.61
9985.00,0.61
9984.00,0.60
9983.00,0.59
9982.00,0.59
9981.00,0.58
9980.00,0.57
9979.00,0.56
9978.00,0.56
9977.00,0.55
9976.00,0.54
9975.00,0.53
9974.00,0.53
9973.00,0.52
9972.00,0.51
9971.00,0.51
9970.00,0.50
9969.00,0.50
9968.00,0.50
9967.00,0.50
9966.00,0.50
9965.00,0.50
9964.00,0.50
9963.00,0.49
9962.00,0.49
9961.00,0.49
9960.00,0.49
9959.00,0.49
9958.00,0.49
9957.00,0.48
9956.00,0.48
9955.00,0.48
9954.00,0.49
9953.00,0.49
9952.00,0.49
9951.00,0.50
9950.00,0.50
9949.00,0.51
9948.00,0.51
9947.00,0.52
9946.00,0.53
9945.00,0.53
9944.00,0.54
9943.00,0.55
9942.00,0.55
9941.00,0.56
9940.00,0.56
9939.00,0.56
9938.00,0.57
9937.00,0.57
9936.00,0.57
9935.00,0.57
9934.00,0.58
9933.00,0.58
9932.00,0.58
9931.00,0.58
9930.00,0.59
9929.00,0.59
9928.00,0.59
9927.00,0.60
9926.00,0.60
9925.00,0.60
9924.00,0.60
9923.00,0.61
9922.00,0.61
9921.00,0.61
9920.00,0.61
9919.00,0.62
9918.00,0.62
9917.00,0.62
9916.00,0.62
9915.00,0.63
9914.00,0.63
9913.00,0.63
9912.00,0.63
9911.00,0.64
9910.00,0.64
9909.00,0.65
9908.00,0.65
9907.00,0.65
9906.00,0.66
9905.00,0.66
9904.00,0.66
9903.00,0.67
9902.00,0.67
9901.00,0.67
9900.00,0.67
9899.00,0.67
9898.00,0.67
9897.00,0.67
9896.00,0.67
9895.00,0.67
9894.00,0.66
9893.00,0.66
9892.00,0.65
9891.00,0.64
9890.00,0.64
9889.00,0.63
9888.00,0.62
9887.00,0.62
9886.00,0.61
9885.00,0.60
9884.00,0.60
9883.00,0.59
9882.00,0.59
9881.00,0.58
9880.00,0.58
9879.00,0.58
9878.00,0.58
9877.00,0.57
9876.00,0.57
9875.00,0.57
9874.00,0.57
9873.00,0.57
9872.00,0.57
9871.00,0.57
9870.00,0.57
9869.00,0.57
9868.00,0.57
9867.00,0.58
9866.00,0.59
9865.00,0.59
9864.00,0.60
9863.00,0.61
9862.00,0.62
9861.00,0.63
9860.00,0.63
9859.00,0.64
9858.00,0.65
9857.00,0.66
9856.00,0.67
9855.00,0.67
9854.00,0.68
9853.00,0.68
9852.00,0.69
9851.00,0.69
9850.00,0.69
9849.00,0.70
9848.00,0.70
9847.00,0.70
9846.00,0.70
9845.00,0.70
9844.00,0.70
9843.00,0.70
9842.00,0.70
9841.00,0.70
9840.00,0.70
9839.00,0.69
9838.00,0.69
9837.00,0.68
9836.00,0.68
9835.00,0.67
9834.00,0.66
9833.00,0.65
9832.00,0.65
9831.00,0.64
9830.00,0.63
9829.00,0.61
9828.00,0.60
9827.00,0.59
9826.00,0.58
9825.00,0.57
9824.00,0.56
9823.00,0.55
9822.00,0.54
9821.00,0.53
9820.00,0.52
9819.00,0.51
9818.00,0.50
9817.00,0.49
9816.00,0.48
9815.00,0.48
9814.00,0.47
9813.00,0.47
9812.00,0.47
9811.00,0.46
9810.00,0.46
9809.00,0.46
9808.00,0.47
9807.00,0.47
9806.00,0.47
9805.00,0.48
9804.00,0.48
9803.00,0.49
9802.00,0.49
9801.00,0.50
9800.00,0.50
9799.00,0.51
9798.00,0.52
9797.00,0.52
9796.00,0.53
9795.00,0.54
9794.00,0.55
9793.00,0.56
9792.00,0.56
9791.00,0.57
9790.00,0.58
9789.00,0.59
9788.00,0.59
9787.00,0.60
9786.00,0.60
9785.00,0.60
9784.00,0.60
9783.00,0.60
9782.00,0.60
9781.00,0.59
9780.00,0.59
9779.00,0.59
9778.00,0.58
9777.00,0.58
9776.00,0.57
9775.00,0.57
9774.00,0.56
9773.00,0.56
9772.00,0.55
9771.00,0.55
9770.00,0.54
9769.00,0.54
9768.00,0.53
9767.00,0.53
9766.00,0.52
9765.00,0.51
9764.00,0.51
9763.00,0.50
9762.00,0.50
9761.00,0.50
9760.00,0.49
9759.00,0.49
9758.00,0.49
9757.00,0.49
9756.00,0.49
9755.00,0.48
9754.00,0.48
9753.00,0.49
9752.00,0.49
9751.00,0.49
9750.00,0.49
9749.00,0.49
9748.00,0.50
9747.00,0.50
9746.00,0.51
9745.00,0.51
9744.00,0.52
9743.00,0.52
9742.00,0.53
9741.00,0.54
9740.00,0.54
9739.00,0.55
9738.00,0.56
9737.00,0.56
9736.00,0.57
9735.00,0.58
9734.00,0.58
9733.00,0.59
9732.00,0.60
9731.00,0.60
9730.00,0.61
9729.00,0.62
9728.00,0.62
9727.00,0.63
9726.00,0.63
9725.00,0.63
9724.00,0.64
9723.00,0.64
9722.00,0.64
9721.00,0.64
9720.00,0.64
9719.00,0.64
9718.00,0.63
9717.00,0.63
9716.00,0.63
9715.00,0.62
9714.00,0.62
9713.00,0.61
9712.00,0.61
9711.00,0.61
9710.00,0.60
9709.00,0.60
9708.00,0.59
9707.00,0.59
9706.00,0.58
9705.00,0.58
9704.00,0.58
9703.00,0.57
9702.00,0.57
9701.00,0.57
9700.00,0.57
9699.00,0.57
9698.00,0.57
9697.00,0.57
9696.00,0.57
9695.00,0.57
9694.00,0.57
9693.00,0.57
9692.00,0.57
9691.00,0.58
9690.00,0.58
9689.00,0.58
9688.00,0.58
9687.00,0.59
9686.00,0.59
9685.00,0.59
9684.00,0.59
9683.00,0.59
9682.00,0.59
9681.00,0.59
9680.00,0.59
9679.00,0.59
9678.00,0.59
9677.00,0.59
9676.00,0.58
9675.00,0.58
9674.00,0.58
9673.00,0.58
9672.00,0.57
9671.00,0.57
9670.00,0.57
9669.00,0.57
9668.00,0.56
9667.00,0.56
9666.00,0.56
9665.00,0.56
9664.00,0.56
9663.00,0.56
9662.00,0.56
9661.00,0.56
9660.00,0.56
9659.00,0.56
9658.00,0.56
9657.00,0.56
9656.00,0.56
9655.00,0.56
9654.00,0.56
9653.00,0.56
9652.00,0.56
9651.00,0.56
9650.00,0.56
9649.00,0.56
9648.00,0.57
9647.00,0.57
9646.00,0.57
9645.00,0.57
9644.00,0.57
9643.00,0.57
9642.00,0.57
9641.00,0.57
9640.00,0.57
9639.00,0.56
9638.00,0.56
9637.00,0.55
9636.00,0.54
9635.00,0.53
9634.00,0.53
9633.00,0.52
9632.00,0.51
9631.00,0.50
9630.00,0.49
9629.00,0.48
9628.00,0.47
9627.00,0.46
9626.00,0.46
9625.00,0.45
9624.00,0.44
9623.00,0.43
9622.00,0.43
9621.00,0.42
9620.00,0.41
9619.00,0.41
9618.00,0.40
9617.00,0.40
9616.00,0.39
9615.00,0.39
9614.00,0.39
9613.00,0.39
9612.00,0.39
9611.00,0.39
9610.00,0.39
9609.00,0.40
9608.00,0.40
9607.00,0.41
9606.00,0.42
9605.00,0.43
9604.00,0.43
9603.00,0.44
9602.00,0.45
9601.00,0.46
9600.00,0.46
9599.00,0.47
9598.00,0.48
9597.00,0.49
9596.00,0.49
9595.00,0.50
9594.00,0.51
9593.00,0.51
9592.00,0.52
9591.00,0.53
9590.00,0.53
9589.00,0.54
9588.00,0.54
9587.00,0.54
9586.00,0.55
9585.00,0.55
9584.00,0.55
9583.00,0.55
9582.00,0.55
9581.00,0.55
9580.00,0.55
9579.00,0.54
9578.00,0.54
9577.00,0.54
9576.00,0.54
9575.00,0.53
9574.00,0.53
9573.00,0.53
9572.00,0.52
9571.00,0.52
9570.00,0.51
9569.00,0.51
9568.00,0.50
9567.00,0.50
9566.00,0.49
9565.00,0.48
9564.00,0.48
9563.00,0.47
9562.00,0.47
9561.00,0.46
9560.00,0.46
9559.00,0.45
9558.00,0.45
9557.00,0.44
9556.00,0.44
9555.00,0.44
9554.00,0.44
9553.00,0.44
9552.00,0.44
9551.00,0.44
9550.00,0.44
9549.00,0.44
9548.00,0.44
9547.00,0.44
9546.00,0.44
9545.00,0.44
9544.00,0.44
9543.00,0.45
9542.00,0.45
9541.00,0.45
9540.00,0.45
9539.00,0.46
9538.00,0.46
9537.00,0.46
9536.00,0.47
9535.00,0.47
9534.00,0.48
9533.00,0.48
9532.00,0.49
9531.00,0.49
9530.00,0.49
9529.00,0.50
9528.00,0.50
9527.00,0.50
9526.00,0.50
9525.00,0.50
9524.00,0.50
9523.00,0.50
9522.00,0.50
9521.00,0.50
9520.00,0.50
9519.00,0.50
9518.00,0.49
9517.00,0.49
9516.00,0.49
9515.00,0.49
9514.00,0.49
9513.00,0.49
9512.00,0.48
9511.00,0.48
9510.00,0.48
9509.00,0.47
9508.00,0.47
9507.00,0.46
9506.00,0.46
9505.00,0.45
9504.00,0.44
9503.00,0.44
9502.00,0.43
9501.00,0.43
9500.00,0.42
9499.00,0.41
9498.00,0.41
9497.00,0.40
9496.00,0.40
9495.00,0.39
9494.00,0.39
9493.00,0.38
9492.00,0.38
9491.00,0.37
9490.00,0.37
9489.00,0.37
9488.00,0.36
9487.00,0.36
9486.00,0.36
9485.00,0.36
9484.00,0.36
9483.00,0.36
9482.00,0.36
9481.00,0.36
9480.00,0.36
9479.00,0.36
9478.00,0.36
9477.00,0.36
9476.00,0.37
9475.00,0.37
9474.00,0.38
9473.00,0.38
9472.00,0.39
9471.00,0.39
9470.00,0.40
9469.00,0.41
9468.00,0.41
9467.00,0.42
9466.00,0.43
9465.00,0.43
9464.00,0.44
9463.00,0.44
9462.00,0.45
9461.00,0.45
9460.00,0.45
9459.00,0.46
9458.00,0.46
9457.00,0.46
9456.00,0.47
9455.00,0.47
9454.00,0.47
9453.00,0.47
9452.00,0.47
9451.00,0.48
9450.00,0.48
9449.00,0.48
9448.00,0.48
9447.00,0.48
9446.00,0.48
9445.00,0.48
9444.00,0.48
9443.00,0.48
9442.00,0.48
9441.00,0.48
9440.00,0.48
9439.00,0.48
9438.00,0.49
9437.00,0.49
9436.00,0.49
9435.00,0.50
9434.00,0.50
9433.00,0.51
9432.00,0.51
9431.00,0.51
9430.00,0.52
9429.00,0.52
9428.00,0.53
9427.00,0.53
9426.00,0.53
9425.00,0.53
9424.00,0.54
9423.00,0.54
9422.00,0.54
9421.00,0.54
9420.00,0.54
9419.00,0.54
9418.00,0.55
9417.00,0.55
9416.00,0.55
9415.00,0.54
9414.00,0.54
9413.00,0.54
9412.00,0.54
9411.00,0.54
9410.00,0.53
9409.00,0.53
9408.00,0.53
9407.00,0.53
9406.00,0.52
9405.00,0.52
9404.00,0.52
9403.00,0.52
9402.00,0.52
9401.00,0.51
9400.00,0.51
9399.00,0.51
9398.00,0.52
9397.00,0.52
9396.00,0.52
9395.00,0.52
9394.00,0.52
9393.00,0.52
9392.00,0.53
9391.00,0.53
9390.00,0.53
9389.00,0.53
9388.00,0.53
9387.00,0.54
9386.00,0.54
9385.00,0.54
9384.00,0.54
9383.00,0.54
9382.00,0.54
9381.00,0.54
9380.00,0.54
9379.00,0.54
9378.00,0.54
9377.00,0.54
9376.00,0.54
9375.00,0.54
9374.00,0.53
9373.00,0.53
9372.00,0.53
9371.00,0.53
9370.00,0.52
9369.00,0.52
9368.00,0.51
9367.00,0.51
9366.00,0.51
9365.00,0.50
9364.00,0.50
9363.00,0.49
9362.00,0.49
9361.00,0.49
9360.00,0.49
9359.00,0.49
9358.00,0.48
9357.00,0.48
9356.00,0.48
9355.00,0.48
9354.00,0.48
9353.00,0.48
9352.00,0.48
9351.00,0.48
9350.00,0.48
9349.00,0.48
9348.00,0.48
9347.00,0.48
9346.00,0.48
9345.00,0.48
9344.00,0.48
9343.00,0.48
9342.00,0.49
9341.00,0.49
9340.00,0.49
9339.00,0.50
9338.00,0.50
9337.00,0.50
9336.00,0.51
9335.00,0.51
9334.00,0.51
9333.00,0.52
9332.00,0.52
9331.00,0.52
9330.00,0.52
9329.00,0.52
9328.00,0.52
9327.00,0.53
9326.00,0.53
9325.00,0.53
9324.00,0.53
9323.00,0.53
9322.00,0.53
9321.00,0.53
9320.00,0.54
9319.00,0.53
9318.00,0.53
9317.00,0.53
9316.00,0.53
9315.00,0.53
9314.00,0.52
9313.00,0.52
9312.00,0.51
9311.00,0.50
9310.00,0.49
9309.00,0.49
9308.00,0.48
9307.00,0.47
9306.00,0.47
9305.00,0.46
9304.00,0.46
9303.00,0.45
9302.00,0.45
9301.00,0.45
9300.00,0.45
9299.00,0.45
9298.00,0.45
9297.00,0.45
9296.00,0.45
9295.00,0.45
9294.00,0.45
9293.00,0.46
9292.00,0.46
9291.00,0.46
9290.00,0.47
9289.00,0.47
9288.00,0.47
9287.00,0.48
9286.00,0.49
9285.00,0.49
9284.00,0.50
9283.00,0.50
9282.00,0.51
9281.00,0.52
9280.00,0.52
9279.00,0.53
9278.00,0.53
9277.00,0.53
9276.00,0.54
9275.00,0.54
9274.00,0.54
9273.00,0.54
9272.00,0.53
9271.00,0.53
9270.00,0.52
9269.00,0.52
9268.00,0.51
9267.00,0.51
9266.00,0.50
9265.00,0.50
9264.00,0.49
9263.00,0.49
9262.00,0.48
9261.00,0.48
9260.00,0.48
9259.00,0.47
9258.00,0.47
9257.00,0.46
9256.00,0.46
9255.00,0.45
9254.00,0.45
9253.00,0.45
9252.00,0.45
9251.00,0.44
9250.00,0.44
9249.00,0.44
9248.00,0.44
9247.00,0.44
9246.00,0.45
9245.00,0.45
9244.00,0.45
9243.00,0.46
9242.00,0.46
9241.00,0.47
9240.00,0.47
9239.00,0.47
9238.00,0.48
9237.00,0.48
9236.00,0.49
9235.00,0.49
9234.00,0.50
9233.00,0.50
9232.00,0.50
9231.00,0.51
9230.00,0.51
9229.00,0.51
9228.00,0.52
9227.00,0.52
9226.00,0.52
9225.00,0.52
9224.00,0.52
9223.00,0.52
9222.00,0.52
9221.00,0.52
9220.00,0.52
9219.00,0.52
9218.00,0.52
9217.00,0.52
9216.00,0.52
9215.00,0.52
9214.00,0.51
9213.00,0.51
9212.00,0.51
9211.00,0.51
9210.00,0.51
9209.00,0.51
9208.00,0.51
9207.00,0.51
9206.00,0.51
9205.00,0.51
9204.00,0.51
9203.00,0.51
9202.00,0.51
9201.00,0.51
9200.00,0.51
9199.00,0.51
9198.00,0.51
9197.00,0.51
9196.00,0.52
9195.00,0.52
9194.00,0.52
9193.00,0.52
9192.00,0.53
9191.00,0.53
9190.00,0.53
9189.00,0.53
9188.00,0.54
9187.00,0.54
9186.00,0.54
9185.00,0.54
9184.00,0.54
9183.00,0.55
9182.00,0.55
9181.00,0.55
9180.00,0.55
9179.00,0.55
9178.00,0.55
9177.00,0.55
9176.00,0.55
9175.00,0.55
9174.00,0.55
9173.00,0.56
9172.00,0.56
9171.00,0.56
9170.00,0.56
9169.00,0.56
9168.00,0.56
9167.00,0.56
9166.00,0.56
9165.00,0.56
9164.00,0.56
9163.00,0.56
9162.00,0.56
9161.00,0.56
9160.00,0.56
9159.00,0.56
9158.00,0.56
9157.00,0.56
9156.00,0.56
9155.00,0.57
9154.00,0.57
9153.00,0.57
9152.00,0.57
9151.00,0.57
9150.00,0.57
9149.00,0.57
9148.00,0.58
9147.00,0.58
9146.00,0.58
9145.00,0.58
9144.00,0.58
9143.00,0.59
9142.00,0.59
9141.00,0.59
9140.00,0.59
9139.00,0.59
9138.00,0.59
9137.00,0.60
9136.00,0.60
9135.00,0.60
9134.00,0.60
9133.00,0.61
9132.00,0.61
9131.00,0.61
9130.00,0.62
9129.00,0.62
9128.00,0.63
9127.00,0.63
9126.00,0.64
9125.00,0.64
9124.00,0.64
9123.00,0.65
9122.00,0.65
9121.00,0.65
9120.00,0.65
9119.00,0.65
9118.00,0.65
9117.00,0.65
9116.00,0.65
9115.00,0.64
9114.00,0.64
9113.00,0.64
9112.00,0.64
9111.00,0.64
9110.00,0.63
9109.00,0.63
9108.00,0.63
9107.00,0.62
9106.00,0.61
9105.00,0.60
9104.00,0.59
9103.00,0.58
9102.00,0.57
9101.00,0.56
9100.00,0.55
9099.00,0.53
9098.00,0.52
9097.00,0.51
9096.00,0.49
9095.00,0.48
9094.00,0.47
9093.00,0.46
9092.00,0.45
9091.00,0.44
9090.00,0.43
9089.00,0.42
9088.00,0.41
9087.00,0.41
9086.00,0.40
9085.00,0.40
9084.00,0.40
9083.00,0.40
9082.00,0.40
9081.00,0.40
9080.00,0.40
9079.00,0.40
9078.00,0.41
9077.00,0.42
9076.00,0.42
9075.00,0.43
9074.00,0.45
9073.00,0.46
9072.00,0.47
9071.00,0.49
9070.00,0.50
9069.00,0.51
9068.00,0.53
9067.00,0.54
9066.00,0.56
9065.00,0.57
9064.00,0.59
9063.00,0.60
9062.00,0.61
9061.00,0.62
9060.00,0.63
9059.00,0.64
9058.00,0.64
9057.00,0.65
9056.00,0.65
9055.00,0.65
9054.00,0.66
9053.00,0.66
9052.00,0.65
9051.00,0.65
9050.00,0.65
9049.00,0.64
9048.00,0.63
9047.00,0.63
9046.00,0.62
9045.00,0.61
9044.00,0.60
9043.00,0.59
9042.00,0.58
9041.00,0.57
9040.00,0.56
9039.00,0.55
9038.00,0.53
9037.00,0.52
9036.00,0.51
9035.00,0.50
9034.00,0.49
9033.00,0.48
9032.00,0.47
9031.00,0.46
9030.00,0.45
9029.00,0.45
9028.00,0.44
9027.00,0.44
9026.00,0.43
9025.00,0.43
9024.00,0.43
9023.00,0.43
9022.00,0.43
9021.00,0.43
9020.00,0.44
9019.00,0.44
9018.00,0.44
9017.00,0.44
9016.00,0.45
9015.00,0.45
9014.00,0.46
9013.00,0.46
9012.00,0.47
9011.00,0.47
9010.00,0.48
9009.00,0.49
9008.00,0.49
9007.00,0.50
9006.00,0.51
9005.00,0.52
9004.00,0.53
9003.00,0.53
9002.00,0.54
9001.00,0.55
9000.00,0.56
8999.00,0.56
8998.00,0.57
8997.00,0.57
8996.00,0.58
8995.00,0.58
8994.00,0.59
8993.00,0.59
8992.00,0.59
8991.00,0.60
8990.00,0.60
8989.00,0.60
8988.00,0.60
8987.00,0.60
8986.00,0.60
8985.00,0.60
8984.00,0.60
8983.00,0.60
8982.00,0.60
8981.00,0.60
8980.00,0.60
8979.00,0.60
8978.00,0.60
8977.00,0.60
8976.00,0.60
8975.00,0.60
8974.00,0.60
8973.00,0.60
8972.00,0.60
8971.00,0.59
8970.00,0.59
8969.00,0.59
8968.00,0.59
8967.00,0.59
8966.00,0.59
8965.00,0.59
8964.00,0.59
8963.00,0.58
8962.00,0.58
8961.00,0.58
8960.00,0.58
8959.00,0.58
8958.00,0.58
8957.00,0.58
8956.00,0.58
8955.00,0.58
8954.00,0.58
8953.00,0.58
8952.00,0.58
8951.00,0.57
8950.00,0.57
8949.00,0.57
8948.00,0.57
8947.00,0.57
8946.00,0.57
8945.00,0.57
8944.00,0.57
8943.00,0.57
8942.00,0.57
8941.00,0.57
8940.00,0.57
8939.00,0.57
8938.00,0.57
8937.00,0.57
8936.00,0.57
8935.00,0.57
8934.00,0.58
8933.00,0.58
8932.00,0.58
8931.00,0.58
8930.00,0.57
8929.00,0.57
8928.00,0.57
8927.00,0.57
8926.00,0.57
8925.00,0.57
8924.00,0.57
8923.00,0.57
8922.00,0.56
8921.00,0.56
8920.00,0.56
8919.00,0.56
8918.00,0.56
8917.00,0.56
8916.00,0.56
8915.00,0.56
8914.00,0.56
8913.00,0.56
8912.00,0.55
8911.00,0.55
8910.00,0.55
8909.00,0.54
8908.00,0.54
8907.00,0.54
8906.00,0.54
8905.00,0.54
8904.00,0.54
8903.00,0.54
8902.00,0.54
8901.00,0.54
8900.00,0.55
8899.00,0.55
8898.00,0.55
8897.00,0.55
8896.00,0.55
8895.00,0.55
8894.00,0.55
8893.00,0.55
8892.00,0.56
8891.00,0.56
8890.00,0.56
8889.00,0.56
8888.00,0.56
8887.00,0.56
8886.00,0.57
8885.00,0.57
8884.00,0.57
8883.00,0.57
8882.00,0.57
8881.00,0.58
8880.00,0.58
8879.00,0.58
8878.00,0.58
8877.00,0.59
8876.00,0.59
8875.00,0.59
8874.00,0.59
8873.00,0.59
8872.00,0.59
8871.00,0.60
8870.00,0.60
8869.00,0.60
8868.00,0.60
8867.00,0.61
8866.00,0.61
8865.00,0.61
8864.00,0.61
8863.00,0.62
8862.00,0.62
8861.00,0.62
8860.00,0.62
8859.00,0.62
8858.00,0.62
8857.00,0.62
8856.00,0.62
8855.00,0.62
8854.00,0.62
8853.00,0.62
8852.00,0.62
8851.00,0.62
8850.00,0.61
8849.00,0.61
8848.00,0.61
8847.00,0.61
8846.00,0.61
8845.00,0.61
8844.00,0.60
8843.00,0.60
8842.00,0.60
8841.00,0.60
8840.00,0.59
8839.00,0.59
8838.00,0.59
8837.00,0.59
8836.00,0.59
8835.00,0.59
8834.00,0.59
8833.00,0.59
8832.00,0.59
8831.00,0.59
8830.00,0.59
8829.00,0.59
8828.00,0.59
8827.00,0.60
8826.00,0.60
8825.00,0.60
8824.00,0.61
8823.00,0.61
8822.00,0.61
8821.00,0.61
8820.00,0.61
8819.00,0.61
8818.00,0.62
8817.00,0.62
8816.00,0.62
8815.00,0.62
8814.00,0.62
8813.00,0.62
8812.00,0.62
8811.00,0.62
8810.00,0.62
8809.00,0.62
8808.00,0.62
8807.00,0.62
8806.00,0.61
8805.00,0.61
8804.00,0.61
8803.00,0.61
8802.00,0.60
8801.00,0.60
8800.00,0.60
8799.00,0.59
8798.00,0.59
8797.00,0.58
8796.00,0.58
8795.00,0.58
8794.00,0.57
8793.00,0.57
8792.00,0.57
8791.00,0.56
8790.00,0.56
8789.00,0.56
8788.00,0.56
8787.00,0.56
8786.00,0.55
8785.00,0.55
8784.00,0.55
8783.00,0.55
8782.00,0.54
8781.00,0.54
8780.00,0.54
8779.00,0.53
8778.00,0.53
8777.00,0.53
8776.00,0.53
8775.00,0.53
8774.00,0.52
8773.00,0.52
8772.00,0.52
8771.00,0.52
8770.00,0.52
8769.00,0.51
8768.00,0.51
8767.00,0.51
8766.00,0.51
8765.00,0.50
8764.00,0.50
8763.00,0.50
8762.00,0.50
8761.00,0.49
8760.00,0.49
8759.00,0.49
8758.00,0.49
8757.00,0.49
8756.00,0.49
8755.00,0.49
8754.00,0.49
8753.00,0.49
8752.00,0.49
8751.00,0.49
8750.00,0.49
8749.00,0.49
8748.00,0.49
8747.00,0.50
8746.00,0.50
8745.00,0.50
8744.00,0.50
8743.00,0.50
8742.00,0.50
8741.00,0.50
8740.00,0.51
8739.00,0.51
8738.00,0.51
8737.00,0.51
8736.00,0.52
8735.00,0.52
8734.00,0.52
8733.00,0.52
8732.00,0.52
8731.00,0.53
8730.00,0.53
8729.00,0.53
8728.00,0.53
8727.00,0.53
8726.00,0.53
8725.00,0.53
8724.00,0.53
8723.00,0.52
8722.00,0.52
8721.00,0.52
8720.00,0.52
8719.00,0.52
8718.00,0.52
8717.00,0.52
8716.00,0.52
8715.00,0.52
8714.00,0.52
8713.00,0.52
8712.00,0.52
8711.00,0.52
8710.00,0.51
8709.00,0.51
8708.00,0.51
8707.00,0.51
8706.00,0.51
8705.00,0.51
8704.00,0.52
8703.00,0.52
8702.00,0.52
8701.00,0.52
8700.00,0.52
8699.00,0.52
8698.00,0.53
8697.00,0.53
8696.00,0.53
8695.00,0.54
8694.00,0.54
8693.00,0.54
8692.00,0.55
8691.00,0.55
8690.00,0.55
8689.00,0.56
8688.00,0.56
8687.00,0.56
8686.00,0.56
8685.00,0.56
8684.00,0.56
8683.00,0.56
8682.00,0.56
8681.00,0.56
8680.00,0.56
8679.00,0.55
8678.00,0.55
8677.00,0.55
8676.00,0.55
8675.00,0.54
8674.00,0.54
8673.00,0.54
8672.00,0.53
8671.00,0.53
8670.00,0.53
8669.00,0.52
8668.00,0.52
8667.00,0.51
8666.00,0.51
8665.00,0.50
8664.00,0.50
8663.00,0.49
8662.00,0.49
8661.00,0.49
8660.00,0.48
8659.00,0.48
8658.00,0.48
8657.00,0.48
8656.00,0.48
8655.00,0.48
8654.00,0.48
8653.00,0.49
8652.00,0.49
8651.00,0.49
8650.00,0.50
8649.00,0.50
8648.00,0.50
8647.00,0.50
8646.00,0.50
8645.00,0.51
8644.00,0.51
8643.00,0.51
8642.00,0.51
8641.00,0.51
8640.00,0.51
8639.00,0.52
8638.00,0.52
8637.00,0.52
8636.00,0.52
8635.00,0.52
8634.00,0.52
8633.00,0.53
8632.00,0.53
8631.00,0.53
8630.00,0.53
8629.00,0.53
8628.00,0.52
8627.00,0.52
8626.00,0.52
8625.00,0.52
8624.00,0.51
8623.00,0.51
8622.00,0.51
8621.00,0.50
8620.00,0.50
8619.00,0.50
8618.00,0.50
8617.00,0.50
8616.00,0.50
8615.00,0.50
8614.00,0.50
8613.00,0.50
8612.00,0.50
8611.00,0.50
8610.00,0.50
8609.00,0.50
8608.00,0.50
8607.00,0.51
8606.00,0.51
8605.00,0.51
8604.00,0.51
8603.00,0.51
8602.00,0.52
8601.00,0.52
8600.00,0.52
8599.00,0.53
8598.00,0.53
8597.00,0.54
8596.00,0.54
8595.00,0.55
8594.00,0.55
8593.00,0.56
8592.00,0.56
8591.00,0.57
8590.00,0.57
8589.00,0.58
8588.00,0.58
8587.00,0.58
8586.00,0.59
8585.00,0.59
8584.00,0.59
8583.00,0.60
8582.00,0.60
8581.00,0.60
8580.00,0.60
8579.00,0.60
8578.00,0.60
8577.00,0.60
8576.00,0.61
8575.00,0.61
8574.00,0.61
8573.00,0.61
8572.00,0.61
8571.00,0.61
8570.00,0.61
8569.00,0.61
8568.00,0.61
8567.00,0.61
8566.00,0.61
8565.00,0.60
8564.00,0.60
8563.00,0.60
8562.00,0.60
8561.00,0.59
8560.00,0.59
8559.00,0.59
8558.00,0.58
8557.00,0.58
8556.00,0.58
8555.00,0.57
8554.00,0.57
8553.00,0.57
8552.00,0.56
8551.00,0.56
8550.00,0.56
8549.00,0.55
8548.00,0.55
8547.00,0.54
8546.00,0.54
8545.00,0.53
8544.00,0.53
8543.00,0.53
8542.00,0.52
8541.00,0.52
8540.00,0.51
8539.00,0.51
8538.00,0.51
8537.00,0.50
8536.00,0.50
8535.00,0.50
8534.00,0.50
8533.00,0.49
8532.00,0.49
8531.00,0.49
8530.00,0.49
8529.00,0.49
8528.00,0.49
8527.00,0.49
8526.00,0.49
8525.00,0.49
8524.00,0.50
8523.00,0.50
8522.00,0.50
8521.00,0.50
8520.00,0.50
8519.00,0.51
8518.00,0.51
8517.00,0.51
8516.00,0.52
8515.00,0.52
8514.00,0.52
8513.00,0.53
8512.00,0.53
8511.00,0.53
8510.00,0.53
8509.00,0.54
8508.00,0.54
8507.00,0.54
8506.00,0.54
8505.00,0.54
8504.00,0.55
8503.00,0.55
8502.00,0.55
8501.00,0.55
8500.00,0.55
8499.00,0.55
8498.00,0.55
8497.00,0.55
8496.00,0.55
8495.00,0.55
8494.00,0.55
8493.00,0.55
8492.00,0.55
8491.00,0.56
8490.00,0.56
8489.00,0.56
8488.00,0.56
8487.00,0.56
8486.00,0.56
8485.00,0.56
8484.00,0.56
8483.00,0.56
8482.00,0.57
8481.00,0.57
8480.00,0.57
8479.00,0.57
8478.00,0.57
8477.00,0.57
8476.00,0.58
8475.00,0.58
8474.00,0.58
8473.00,0.58
8472.00,0.58
8471.00,0.58
8470.00,0.58
8469.00,0.59
8468.00,0.59
8467.00,0.59
8466.00,0.59
8465.00,0.59
8464.00,0.59
8463.00,0.59
8462.00,0.59
8461.00,0.59
8460.00,0.60
8459.00,0.60
8458.00,0.60
8457.00,0.60
8456.00,0.60
8455.00,0.60
8454.00,0.60
8453.00,0.60
8452.00,0.60
8451.00,0.60
8450.00,0.60
8449.00,0.60
8448.00,0.60
8447.00,0.60
8446.00,0.60
8445.00,0.60
8444.00,0.60
8443.00,0.60
8442.00,0.60
8441.00,0.59
8440.00,0.59
8439.00,0.59
8438.00,0.58
8437.00,0.58
8436.00,0.58
8435.00,0.57
8434.00,0.57
8433.00,0.57
8432.00,0.57
8431.00,0.56
8430.00,0.56
8429.00,0.56
8428.00,0.55
8427.00,0.55
8426.00,0.55
8425.00,0.54
8424.00,0.54
8423.00,0.54
8422.00,0.54
8421.00,0.54
8420.00,0.53
8419.00,0.53
8418.00,0.53
8417.00,0.53
8416.00,0.53
8415.00,0.53
8414.00,0.53
8413.00,0.53
8412.00,0.53
8411.00,0.53
8410.00,0.53
8409.00,0.53
8408.00,0.54
8407.00,0.54
8406.00,0.54
8405.00,0.54
8404.00,0.55
8403.00,0.55
8402.00,0.55
8401.00,0.55
8400.00,0.56
8399.00,0.56
8398.00,0.56
8397.00,0.56
8396.00,0.57
8395.00,0.57
8394.00,0.57
8393.00,0.57
8392.00,0.57
8391.00,0.57
8390.00,0.58
8389.00,0.58
8388.00,0.58
8387.00,0.58
8386.00,0.58
8385.00,0.58
8384.00,0.58
8383.00,0.58
8382.00,0.58
8381.00,0.57
8380.00,0.57
8379.00,0.57
8378.00,0.57
8377.00,0.56
8376.00,0.56
8375.00,0.56
8374.00,0.56
8373.00,0.56
8372.00,0.56
8371.00,0.56
8370.00,0.56
8369.00,0.56
8368.00,0.56
8367.00,0.56
8366.00,0.56
8365.00,0.56
8364.00,0.56
8363.00,0.56
8362.00,0.56
8361.00,0.57
8360.00,0.57
8359.00,0.57
8358.00,0.57
8357.00,0.57
8356.00,0.57
8355.00,0.58
8354.00,0.58
8353.00,0.58
8352.00,0.58
8351.00,0.58
8350.00,0.58
8349.00,0.59
8348.00,0.59
8347.00,0.59
8346.00,0.59
8345.00,0.59
8344.00,0.59
8343.00,0.58
8342.00,0.58
8341.00,0.58
8340.00,0.57
8339.00,0.57
8338.00,0.57
8337.00,0.56
8336.00,0.56
8335.00,0.56
8334.00,0.56
8333.00,0.55
8332.00,0.55
8331.00,0.55
8330.00,0.55
8329.00,0.55
8328.00,0.55
8327.00,0.54
8326.00,0.54
8325.00,0.54
8324.00,0.54
8323.00,0.54
8322.00,0.54
8321.00,0.54
8320.00,0.54
8319.00,0.54
8318.00,0.55
8317.00,0.55
8316.00,0.55
8315.00,0.55
8314.00,0.56
8313.00,0.56
8312.00,0.56
8311.00,0.57
8310.00,0.57
8309.00,0.57
8308.00,0.58
8307.00,0.58
8306.00,0.58
8305.00,0.58
8304.00,0.59
8303.00,0.59
8302.00,0.59
8301.00,0.59
8300.00,0.59
8299.00,0.59
8298.00,0.59
8297.00,0.59
8296.00,0.59
8295.00,0.59
8294.00,0.59
8293.00,0.59
8292.00,0.59
8291.00,0.59
8290.00,0.59
8289.00,0.59
8288.00,0.59
8287.00,0.59
8286.00,0.59
8285.00,0.59
8284.00,0.59
8283.00,0.59
8282.00,0.59
8281.00,0.59
8280.00,0.59
8279.00,0.59
8278.00,0.59
8277.00,0.59
8276.00,0.59
8275.00,0.59
8274.00,0.60
8273.00,0.60
8272.00,0.60
8271.00,0.60
8270.00,0.60
8269.00,0.60
8268.00,0.60
8267.00,0.60
8266.00,0.60
8265.00,0.60
8264.00,0.60
8263.00,0.60
8262.00,0.59
8261.00,0.59
8260.00,0.59
8259.00,0.59
8258.00,0.59
8257.00,0.58
8256.00,0.58
8255.00,0.58
8254.00,0.57
8253.00,0.57
8252.00,0.57
8251.00,0.56
8250.00,0.56
8249.00,0.56
8248.00,0.55
8247.00,0.55
8246.00,0.55
8245.00,0.55
8244.00,0.54
8243.00,0.54
8242.00,0.54
8241.00,0.54
8240.00,0.54
8239.00,0.54
8238.00,0.54
8237.00,0.54
8236.00,0.54
8235.00,0.54
8234.00,0.54
8233.00,0.54
8232.00,0.54
8231.00,0.54
8230.00,0.54
8229.00,0.54
8228.00,0.54
8227.00,0.54
8226.00,0.54
8225.00,0.54
8224.00,0.54
8223.00,0.54
8222.00,0.55
8221.00,0.55
8220.00,0.55
8219.00,0.55
8218.00,0.55
8217.00,0.55
8216.00,0.55
8215.00,0.54
8214.00,0.54
8213.00,0.54
8212.00,0.53
8211.00,0.53
8210.00,0.53
8209.00,0.53
8208.00,0.52
8207.00,0.52
8206.00,0.52
8205.00,0.52
8204.00,0.52
8203.00,0.52
8202.00,0.52
8201.00,0.52
8200.00,0.52
8199.00,0.52
8198.00,0.52
8197.00,0.52
8196.00,0.52
8195.00,0.52
8194.00,0.53
8193.00,0.53
8192.00,0.53
8191.00,0.53
8190.00,0.54
8189.00,0.54
8188.00,0.54
8187.00,0.55
8186.00,0.55
8185.00,0.55
8184.00,0.55
8183.00,0.56
8182.00,0.56
8181.00,0.56
8180.00,0.56
8179.00,0.56
8178.00,0.56
8177.00,0.56
8176.00,0.56
8175.00,0.56
8174.00,0.56
8173.00,0.56
8172.00,0.56
8171.00,0.56
8170.00,0.56
8169.00,0.56
8168.00,0.56
8167.00,0.55
8166.00,0.55
8165.00,0.55
8164.00,0.54
8163.00,0.54
8162.00,0.54
8161.00,0.54
8160.00,0.54
8159.00,0.54
8158.00,0.54
8157.00,0.54
8156.00,0.54
8155.00,0.54
8154.00,0.54
8153.00,0.54
8152.00,0.55
8151.00,0.55
8150.00,0.55
8149.00,0.56
8148.00,0.56
8147.00,0.56
8146.00,0.56
8145.00,0.57
8144.00,0.57
8143.00,0.57
8142.00,0.58
8141.00,0.58
8140.00,0.58
8139.00,0.58
8138.00,0.59
8137.00,0.59
8136.00,0.59
8135.00,0.59
8134.00,0.59
8133.00,0.59
8132.00,0.59
8131.00,0.59
8130.00,0.59
8129.00,0.59
8128.00,0.58
8127.00,0.58
8126.00,0.58
8125.00,0.58
8124.00,0.58
8123.00,0.58
8122.00,0.58
8121.00,0.57
8120.00,0.57
8119.00,0.57
8118.00,0.57
8117.00,0.57
8116.00,0.56
8115.00,0.56
8114.00,0.56
8113.00,0.56
8112.00,0.56
8111.00,0.56
8110.00,0.56
8109.00,0.56
8108.00,0.56
8107.00,0.57
8106.00,0.57
8105.00,0.57
8104.00,0.57
8103.00,0.58
8102.00,0.58
8101.00,0.58
8100.00,0.59
8099.00,0.59
8098.00,0.59
8097.00,0.59
8096.00,0.60
8095.00,0.60
8094.00,0.60
8093.00,0.61
8092.00,0.61
8091.00,0.61
8090.00,0.61
8089.00,0.62
8088.00,0.62
8087.00,0.62
8086.00,0.63
8085.00,0.63
8084.00,0.63
8083.00,0.64
8082.00,0.64
8081.00,0.64
8080.00,0.64
8079.00,0.65
8078.00,0.65
8077.00,0.65
8076.00,0.65
8075.00,0.65
8074.00,0.65
8073.00,0.65
8072.00,0.65
8071.00,0.65
8070.00,0.65
8069.00,0.65
8068.00,0.65
8067.00,0.65
8066.00,0.65
8065.00,0.65
8064.00,0.65
8063.00,0.65
8062.00,0.65
8061.00,0.65
8060.00,0.65
8059.00,0.65
8058.00,0.65
8057.00,0.64
8056.00,0.64
8055.00,0.64
8054.00,0.64
8053.00,0.63
8052.00,0.63
8051.00,0.63
8050.00,0.63
8049.00,0.63
8048.00,0.63
8047.00,0.63
8046.00,0.62
8045.00,0.62
8044.00,0.62
8043.00,0.62
8042.00,0.62
8041.00,0.62
8040.00,0.62
8039.00,0.62
8038.00,0.62
8037.00,0.63
8036.00,0.63
8035.00,0.63
8034.00,0.63
8033.00,0.63
8032.00,0.64
8031.00,0.64
8030.00,0.65
8029.00,0.65
8028.00,0.65
8027.00,0.66
8026.00,0.66
8025.00,0.67
8024.00,0.67
8023.00,0.67
8022.00,0.68
8021.00,0.68
8020.00,0.68
8019.00,0.68
8018.00,0.68
8017.00,0.68
8016.00,0.68
8015.00,0.69
8014.00,0.68
8013.00,0.68
8012.00,0.68
8011.00,0.68
8010.00,0.68
8009.00,0.68
8008.00,0.68
8007.00,0.67
8006.00,0.67
8005.00,0.66
8004.00,0.66
8003.00,0.66
8002.00,0.65
8001.00,0.65
8000.00,0.64
7999.00,0.64
7998.00,0.64
7997.00,0.63
7996.00,0.63
7995.00,0.63
7994.00,0.63
7993.00,0.62
7992.00,0.62
7991.00,0.62
7990.00,0.62
7989.00,0.62
7988.00,0.62
7987.00,0.62
7986.00,0.62
7985.00,0.61
7984.00,0.61
7983.00,0.61
7982.00,0.61
7981.00,0.61
7980.00,0.61
7979.00,0.61
7978.00,0.60
7977.00,0.60
7976.00,0.60
7975.00,0.59
7974.00,0.59
7973.00,0.59
7972.00,0.58
7971.00,0.58
7970.00,0.57
7969.00,0.57
7968.00,0.56
7967.00,0.56
7966.00,0.56
7965.00,0.55
7964.00,0.55
7963.00,0.55
7962.00,0.54
7961.00,0.54
7960.00,0.54
7959.00,0.53
7958.00,0.53
7957.00,0.53
7956.00,0.53
7955.00,0.53
7954.00,0.53
7953.00,0.53
7952.00,0.54
7951.00,0.54
7950.00,0.54
7949.00,0.55
7948.00,0.55
7947.00,0.56
7946.00,0.56
7945.00,0.57
7944.00,0.57
7943.00,0.58
7942.00,0.58
7941.00,0.59
7940.00,0.59
7939.00,0.60
7938.00,0.60
7937.00,0.61
7936.00,0.61
7935.00,0.62
7934.00,0.62
7933.00,0.63
7932.00,0.63
7931.00,0.63
7930.00,0.64
7929.00,0.64
7928.00,0.64
7927.00,0.64
7926.00,0.64
7925.00,0.64
7924.00,0.64
7923.00,0.64
7922.00,0.64
7921.00,0.64
7920.00,0.64
7919.00,0.64
7918.00,0.64
7917.00,0.64
7916.00,0.64
7915.00,0.64
7914.00,0.64
7913.00,0.64
7912.00,0.64
7911.00,0.65
7910.00,0.65
7909.00,0.65
7908.00,0.65
7907.00,0.65
7906.00,0.65
7905.00,0.65
7904.00,0.65
7903.00,0.66
7902.00,0.66
7901.00,0.66
7900.00,0.66
7899.00,0.66
7898.00,0.66
7897.00,0.67
7896.00,0.67
7895.00,0.67
7894.00,0.67
7893.00,0.68
7892.00,0.68
7891.00,0.68
7890.00,0.68
7889.00,0.68
7888.00,0.69
7887.00,0.69
7886.00,0.69
7885.00,0.68
7884.00,0.68
7883.00,0.68
7882.00,0.68
7881.00,0.68
7880.00,0.68
7879.00,0.68
7878.00,0.67
7877.00,0.67
7876.00,0.67
7875.00,0.67
7874.00,0.67
7873.00,0.66
7872.00,0.66
7871.00,0.66
7870.00,0.65
7869.00,0.65
7868.00,0.65
7867.00,0.64
7866.00,0.64
7865.00,0.64
7864.00,0.63
7863.00,0.63
7862.00,0.63
7861.00,0.63
7860.00,0.63
7859.00,0.62
7858.00,0.62
7857.00,0.62
7856.00,0.62
7855.00,0.62
7854.00,0.62
7853.00,0.62
7852.00,0.62
7851.00,0.62
7850.00,0.62
7849.00,0.62
7848.00,0.62
7847.00,0.62
7846.00,0.62
7845.00,0.62
7844.00,0.62
7843.00,0.62
7842.00,0.62
7841.00,0.62
7840.00,0.61
7839.00,0.61
7838.00,0.61
7837.00,0.61
7836.00,0.61
7835.00,0.61
7834.00,0.61
7833.00,0.61
7832.00,0.61
7831.00,0.61
7830.00,0.61
7829.00,0.61
7828.00,0.61
7827.00,0.61
7826.00,0.61
7825.00,0.61
7824.00,0.61
7823.00,0.61
7822.00,0.61
7821.00,0.61
7820.00,0.61
7819.00,0.61
7818.00,0.61
7817.00,0.62
7816.00,0.62
7815.00,0.62
7814.00,0.62
7813.00,0.63
7812.00,0.63
7811.00,0.63
7810.00,0.64
7809.00,0.64
7808.00,0.64
7807.00,0.64
7806.00,0.65
7805.00,0.65
7804.00,0.65
7803.00,0.65
7802.00,0.65
7801.00,0.65
7800.00,0.65
7799.00,0.65
7798.00,0.65
7797.00,0.65
7796.00,0.65
7795.00,0.65
7794.00,0.65
7793.00,0.65
7792.00,0.65
7791.00,0.65
7790.00,0.65
7789.00,0.64
7788.00,0.64
7787.00,0.64
7786.00,0.64
7785.00,0.63
7784.00,0.63
7783.00,0.63
7782.00,0.63
7781.00,0.62
7780.00,0.62
7779.00,0.62
7778.00,0.62
7777.00,0.62
7776.00,0.62
7775.00,0.62
7774.00,0.62
7773.00,0.62
7772.00,0.62
7771.00,0.62
7770.00,0.62
7769.00,0.62
7768.00,0.62
7767.00,0.62
7766.00,0.62
7765.00,0.62
7764.00,0.62
7763.00,0.62
7762.00,0.62
7761.00,0.62
7760.00,0.62
7759.00,0.62
7758.00,0.62
7757.00,0.62
7756.00,0.63
7755.00,0.63
7754.00,0.63
7753.00,0.63
7752.00,0.63
7751.00,0.63
7750.00,0.63
7749.00,0.63
7748.00,0.63
7747.00,0.63
7746.00,0.63
7745.00,0.63
7744.00,0.64
7743.00,0.64
7742.00,0.64
7741.00,0.64
7740.00,0.64
7739.00,0.65
7738.00,0.65
7737.00,0.65
7736.00,0.66
7735.00,0.66
7734.00,0.66
7733.00,0.66
7732.00,0.67
7731.00,0.67
7730.00,0.67
7729.00,0.67
7728.00,0.67
7727.00,0.67
7726.00,0.68
7725.00,0.68
7724.00,0.68
7723.00,0.68
7722.00,0.68
7721.00,0.68
7720.00,0.68
7719.00,0.68
7718.00,0.68
7717.00,0.68
7716.00,0.68
7715.00,0.67
7714.00,0.67
7713.00,0.67
7712.00,0.67
7711.00,0.67
7710.00,0.66
7709.00,0.66
7708.00,0.66
7707.00,0.66
7706.00,0.65
7705.00,0.65
7704.00,0.65
7703.00,0.65
7702.00,0.65
7701.00,0.65
7700.00,0.65
7699.00,0.65
7698.00,0.65
7697.00,0.65
7696.00,0.64
7695.00,0.64
7694.00,0.64
7693.00,0.64
7692.00,0.64
7691.00,0.64
7690.00,0.64
7689.00,0.64
7688.00,0.64
7687.00,0.64
7686.00,0.64
7685.00,0.64
7684.00,0.64
7683.00,0.64
7682.00,0.64
7681.00,0.64
7680.00,0.64
7679.00,0.65
7678.00,0.65
7677.00,0.65
7676.00,0.65
7675.00,0.65
7674.00,0.65
7673.00,0.65
7672.00,0.65
7671.00,0.65
7670.00,0.65
7669.00,0.65
7668.00,0.65
7667.00,0.65
7666.00,0.66
7665.00,0.66
7664.00,0.66
7663.00,0.66
7662.00,0.66
7661.00,0.66
7660.00,0.66
7659.00,0.66
7658.00,0.66
7657.00,0.66
7656.00,0.66
7655.00,0.65
7654.00,0.65
7653.00,0.65
7652.00,0.65
7651.00,0.65
7650.00,0.65
7649.00,0.64
7648.00,0.64
7647.00,0.64
7646.00,0.64
7645.00,0.64
7644.00,0.64
7643.00,0.64
7642.00,0.64
7641.00,0.64
7640.00,0.64
7639.00,0.64
7638.00,0.64
7637.00,0.64
7636.00,0.64
7635.00,0.64
7634.00,0.64
7633.00,0.64
7632.00,0.64
7631.00,0.64
7630.00,0.64
7629.00,0.64
7628.00,0.64
7627.00,0.65
7626.00,0.65
7625.00,0.65
7624.00,0.65
7623.00,0.65
7622.00,0.65
7621.00,0.65
7620.00,0.65
7619.00,0.65
7618.00,0.65
7617.00,0.65
7616.00,0.65
7615.00,0.65
7614.00,0.65
7613.00,0.65
7612.00,0.65
7611.00,0.65
7610.00,0.65
7609.00,0.65
7608.00,0.66
7607.00,0.66
7606.00,0.66
7605.00,0.66
7604.00,0.66
7603.00,0.66
7602.00,0.66
7601.00,0.66
7600.00,0.66
7599.00,0.66
7598.00,0.66
7597.00,0.67
7596.00,0.67
7595.00,0.67
7594.00,0.67
7593.00,0.67
7592.00,0.67
7591.00,0.67
7590.00,0.67
7589.00,0.67
7588.00,0.67
7587.00,0.67
7586.00,0.67
7585.00,0.67
7584.00,0.67
7583.00,0.67
7582.00,0.67
7581.00,0.67
7580.00,0.67
7579.00,0.67
7578.00,0.67
7577.00,0.67
7576.00,0.66
7575.00,0.66
7574.00,0.66
7573.00,0.66
7572.00,0.66
7571.00,0.66
7570.00,0.65
7569.00,0.65
7568.00,0.65
7567.00,0.65
7566.00,0.65
7565.00,0.65
7564.00,0.65
7563.00,0.65
7562.00,0.64
7561.00,0.64
7560.00,0.64
7559.00,0.64
7558.00,0.64
7557.00,0.64
7556.00,0.64
7555.00,0.64
7554.00,0.63
7553.00,0.63
7552.00,0.63
7551.00,0.63
7550.00,0.63
7549.00,0.63
7548.00,0.63
7547.00,0.63
7546.00,0.63
7545.00,0.63
7544.00,0.63
7543.00,0.63
7542.00,0.64
7541.00,0.64
7540.00,0.64
7539.00,0.64
7538.00,0.64
7537.00,0.64
7536.00,0.64
7535.00,0.64
7534.00,0.65
7533.00,0.65
7532.00,0.65
7531.00,0.65
7530.00,0.65
7529.00,0.65
7528.00,0.65
7527.00,0.65
7526.00,0.65
7525.00,0.65
7524.00,0.65
7523.00,0.65
7522.00,0.65
7521.00,0.66
7520.00,0.66
7519.00,0.66
7518.00,0.66
7517.00,0.66
7516.00,0.65
7515.00,0.65
7514.00,0.65
7513.00,0.65
7512.00,0.65
7511.00,0.65
7510.00,0.65
7509.00,0.65
7508.00,0.65
7507.00,0.65
7506.00,0.65
7505.00,0.65
7504.00,0.65
7503.00,0.65
7502.00,0.65
7501.00,0.65
7500.00,0.66
7499.00,0.66
7498.00,0.66
7497.00,0.66
7496.00,0.66
7495.00,0.66
7494.00,0.66
7493.00,0.66
7492.00,0.66
7491.00,0.66
7490.00,0.66
7489.00,0.66
7488.00,0.66
7487.00,0.66
7486.00,0.66
7485.00,0.66
7484.00,0.66
7483.00,0.66
7482.00,0.66
7481.00,0.66
7480.00,0.66
7479.00,0.66
7478.00,0.66
7477.00,0.66
7476.00,0.66
7475.00,0.66
7474.00,0.66
7473.00,0.66
7472.00,0.67
7471.00,0.67
7470.00,0.67
7469.00,0.67
7468.00,0.67
7467.00,0.67
7466.00,0.67
7465.00,0.67
7464.00,0.67
7463.00,0.67
7462.00,0.68
7461.00,0.68
7460.00,0.68
7459.00,0.68
7458.00,0.68
7457.00,0.68
7456.00,0.68
7455.00,0.68
7454.00,0.68
7453.00,0.68
7452.00,0.68
7451.00,0.68
7450.00,0.68
7449.00,0.67
7448.00,0.67
7447.00,0.67
7446.00,0.67
7445.00,0.67
7444.00,0.66
7443.00,0.66
7442.00,0.66
7441.00,0.66
7440.00,0.65
7439.00,0.65
7438.00,0.65
7437.00,0.64
7436.00,0.64
7435.00,0.64
7434.00,0.64
7433.00,0.63
7432.00,0.63
7431.00,0.63
7430.00,0.63
7429.00,0.63
7428.00,0.63
7427.00,0.62
7426.00,0.62
7425.00,0.62
7424.00,0.62
7423.00,0.62
7422.00,0.62
7421.00,0.62
7420.00,0.62
7419.00,0.62
7418.00,0.61
7417.00,0.61
7416.00,0.61
7415.00,0.61
7414.00,0.61
7413.00,0.61
7412.00,0.61
7411.00,0.60
7410.00,0.60
7409.00,0.60
7408.00,0.60
7407.00,0.60
7406.00,0.60
7405.00,0.60
7404.00,0.59
7403.00,0.59
7402.00,0.59
7401.00,0.59
7400.00,0.59
7399.00,0.59
7398.00,0.58
7397.00,0.58
7396.00,0.58
7395.00,0.58
7394.00,0.58
7393.00,0.58
7392.00,0.58
7391.00,0.58
7390.00,0.58
7389.00,0.58
7388.00,0.58
7387.00,0.58
7386.00,0.58
7385.00,0.58
7384.00,0.58
7383.00,0.58
7382.00,0.58
7381.00,0.58
7380.00,0.58
7379.00,0.58
7378.00,0.58
7377.00,0.58
7376.00,0.58
7375.00,0.58
7374.00,0.58
7373.00,0.58
7372.00,0.58
7371.00,0.58
7370.00,0.58
7369.00,0.58
7368.00,0.58
7367.00,0.58
7366.00,0.58
7365.00,0.58
7364.00,0.58
7363.00,0.57
7362.00,0.57
7361.00,0.57
7360.00,0.57
7359.00,0.57
7358.00,0.57
7357.00,0.57
7356.00,0.57
7355.00,0.56
7354.00,0.56
7353.00,0.56
7352.00,0.56
7351.00,0.56
7350.00,0.56
7349.00,0.56
7348.00,0.56
7347.00,0.56
7346.00,0.55
7345.00,0.55
7344.00,0.55
7343.00,0.55
7342.00,0.55
7341.00,0.55
7340.00,0.55
7339.00,0.55
7338.00,0.55
7337.00,0.55
7336.00,0.55
7335.00,0.55
7334.00,0.55
7333.00,0.55
7332.00,0.56
7331.00,0.56
7330.00,0.56
7329.00,0.56
7328.00,0.57
7327.00,0.57
7326.00,0.57
7325.00,0.58
7324.00,0.58
7323.00,0.58
7322.00,0.58
7321.00,0.59
7320.00,0.59
7319.00,0.59
7318.00,0.59
7317.00,0.60
7316.00,0.60
7315.00,0.60
7314.00,0.60
7313.00,0.61
7312.00,0.61
7311.00,0.61
7310.00,0.61
7309.00,0.61
7308.00,0.61
7307.00,0.61
7306.00,0.61
7305.00,0.60
7304.00,0.60
7303.00,0.60
7302.00,0.60
7301.00,0.60
7300.00,0.59
7299.00,0.59
7298.00,0.59
7297.00,0.59
7296.00,0.59
7295.00,0.58
7294.00,0.58
7293.00,0.58
7292.00,0.58
7291.00,0.58
7290.00,0.58
7289.00,0.58
7288.00,0.57
7287.00,0.57
7286.00,0.57
7285.00,0.57
7284.00,0.57
7283.00,0.58
7282.00,0.58
7281.00,0.58
7280.00,0.58
7279.00,0.58
7278.00,0.58
7277.00,0.58
7276.00,0.59
7275.00,0.59
7274.00,0.59
7273.00,0.59
7272.00,0.59
7271.00,0.59
7270.00,0.59
7269.00,0.59
7268.00,0.59
7267.00,0.59
7266.00,0.59
7265.00,0.59
7264.00,0.59
7263.00,0.59
7262.00,0.59
7261.00,0.59
7260.00,0.59
7259.00,0.59
7258.00,0.59
7257.00,0.59
7256.00,0.59
7255.00,0.59
7254.00,0.58
7253.00,0.58
7252.00,0.58
7251.00,0.58
7250.00,0.58
7249.00,0.58
7248.00,0.58
7247.00,0.58
7246.00,0.58
7245.00,0.58
7244.00,0.58
7243.00,0.58
7242.00,0.58
7241.00,0.58
7240.00,0.58
7239.00,0.58
7238.00,0.58
7237.00,0.58
7236.00,0.58
7235.00,0.58
7234.00,0.58
7233.00,0.58
7232.00,0.58
7231.00,0.57
7230.00,0.57
7229.00,0.57
7228.00,0.57
7227.00,0.57
7226.00,0.57
7225.00,0.57
7224.00,0.57
7223.00,0.56
7222.00,0.56
7221.00,0.56
7220.00,0.56
7219.00,0.56
7218.00,0.56
7217.00,0.55
7216.00,0.55
7215.00,0.55
7214.00,0.55
7213.00,0.55
7212.00,0.55
7211.00,0.54
7210.00,0.54
7209.00,0.54
7208.00,0.54
7207.00,0.54
7206.00,0.53
7205.00,0.53
7204.00,0.53
7203.00,0.53
7202.00,0.53
7201.00,0.53
7200.00,0.53
7199.00,0.53
7198.00,0.53
7197.00,0.52
7196.00,0.52
7195.00,0.52
7194.00,0.52
7193.00,0.52
7192.00,0.52
7191.00,0.52
7190.00,0.52
7189.00,0.52
7188.00,0.52
7187.00,0.52
7186.00,0.52
7185.00,0.52
7184.00,0.52
7183.00,0.52
7182.00,0.52
7181.00,0.52
7180.00,0.52
7179.00,0.52
7178.00,0.52
7177.00,0.52
7176.00,0.52
7175.00,0.52
7174.00,0.52
7173.00,0.52
7172.00,0.52
7171.00,0.52
7170.00,0.52
7169.00,0.52
7168.00,0.52
7167.00,0.53
7166.00,0.53
7165.00,0.53
7164.00,0.53
7163.00,0.53
7162.00,0.53
7161.00,0.53
7160.00,0.53
7159.00,0.53
7158.00,0.53
7157.00,0.52
7156.00,0.52
7155.00,0.52
7154.00,0.52
7153.00,0.52
7152.00,0.52
7151.00,0.52
7150.00,0.52
7149.00,0.52
7148.00,0.52
7147.00,0.52
7146.00,0.52
7145.00,0.52
7144.00,0.52
7143.00,0.51
7142.00,0.51
7141.00,0.51
7140.00,0.51
7139.00,0.51
7138.00,0.51
7137.00,0.51
7136.00,0.50
7135.00,0.50
7134.00,0.50
7133.00,0.50
7132.00,0.50
7131.00,0.50
7130.00,0.50
7129.00,0.49
7128.00,0.49
7127.00,0.49
7126.00,0.49
7125.00,0.49
7124.00,0.49
7123.00,0.49
7122.00,0.48
7121.00,0.48
7120.00,0.48
7119.00,0.48
7118.00,0.47
7117.00,0.47
7116.00,0.47
7115.00,0.47
7114.00,0.47
7113.00,0.47
7112.00,0.46
7111.00,0.46
7110.00,0.46
7109.00,0.46
7108.00,0.46
7107.00,0.46
7106.00,0.45
7105.00,0.45
7104.00,0.45
7103.00,0.45
7102.00,0.44
7101.00,0.44
7100.00,0.44
7099.00,0.44
7098.00,0.44
7097.00,0.43
7096.00,0.43
7095.00,0.43
7094.00,0.43
7093.00,0.43
7092.00,0.43
7091.00,0.42
7090.00,0.42
7089.00,0.42
7088.00,0.42
7087.00,0.42
7086.00,0.42
7085.00,0.42
7084.00,0.42
7083.00,0.41
7082.00,0.41
7081.00,0.41
7080.00,0.41
7079.00,0.41
7078.00,0.41
7077.00,0.41
7076.00,0.41
7075.00,0.41
7074.00,0.41
7073.00,0.41
7072.00,0.41
7071.00,0.41
7070.00,0.41
7069.00,0.41
7068.00,0.41
7067.00,0.41
7066.00,0.41
7065.00,0.41
7064.00,0.41
7063.00,0.41
7062.00,0.41
7061.00,0.41
7060.00,0.41
7059.00,0.41
7058.00,0.41
7057.00,0.41
7056.00,0.41
7055.00,0.41
7054.00,0.41
7053.00,0.41
7052.00,0.41
7051.00,0.41
7050.00,0.41
7049.00,0.41
7048.00,0.41
7047.00,0.41
7046.00,0.41
7045.00,0.41
7044.00,0.41
7043.00,0.41
7042.00,0.41
7041.00,0.41
7040.00,0.41
7039.00,0.40
7038.00,0.40
7037.00,0.40
7036.00,0.40
7035.00,0.40
7034.00,0.40
7033.00,0.40
7032.00,0.40
7031.00,0.40
7030.00,0.40
7029.00,0.40
7028.00,0.40
7027.00,0.40
7026.00,0.40
7025.00,0.40
7024.00,0.40
7023.00,0.40
7022.00,0.40
7021.00,0.40
7020.00,0.40
7019.00,0.41
7018.00,0.41
7017.00,0.41
7016.00,0.41
7015.00,0.41
7014.00,0.41
7013.00,0.41
7012.00,0.41
7011.00,0.41
7010.00,0.41
7009.00,0.41
7008.00,0.41
7007.00,0.40
7006.00,0.40
7005.00,0.40
7004.00,0.40
7003.00,0.40
7002.00,0.40
7001.00,0.40
7000.00,0.40
6999.00,0.40
6998.00,0.40
6997.00,0.40
6996.00,0.39
6995.00,0.39
6994.00,0.39
6993.00,0.39
6992.00,0.39
6991.00,0.39
6990.00,0.39
6989.00,0.39
6988.00,0.39
6987.00,0.39
6986.00,0.38
6985.00,0.38
6984.00,0.38
6983.00,0.38
6982.00,0.39
6981.00,0.39
6980.00,0.39
6979.00,0.39
6978.00,0.39
6977.00,0.39
6976.00,0.39
6975.00,0.39
6974.00,0.39
6973.00,0.40
6972.00,0.40
6971.00,0.40
6970.00,0.40
6969.00,0.40
6968.00,0.41
6967.00,0.41
6966.00,0.41
6965.00,0.41
6964.00,0.42
6963.00,0.42
6962.00,0.42
6961.00,0.42
6960.00,0.42
6959.00,0.42
6958.00,0.42
6957.00,0.42
6956.00,0.42
6955.00,0.42
6954.00,0.42
6953.00,0.42
6952.00,0.42
6951.00,0.42
6950.00,0.42
6949.00,0.42
6948.00,0.42
6947.00,0.42
6946.00,0.42
6945.00,0.42
6944.00,0.42
6943.00,0.42
6942.00,0.42
6941.00,0.41
6940.00,0.41
6939.00,0.41
6938.00,0.41
6937.00,0.41
6936.00,0.41
6935.00,0.41
6934.00,0.40
6933.00,0.40
6932.00,0.40
6931.00,0.40
6930.00,0.40
6929.00,0.40
6928.00,0.40
6927.00,0.40
6926.00,0.40
6925.00,0.40
6924.00,0.40
6923.00,0.40
6922.00,0.40
6921.00,0.40
6920.00,0.40
6919.00,0.39
6918.00,0.39
6917.00,0.39
6916.00,0.39
6915.00,0.39
6914.00,0.39
6913.00,0.39
6912.00,0.39
6911.00,0.39
6910.00,0.39
6909.00,0.39
6908.00,0.39
6907.00,0.39
6906.00,0.39
6905.00,0.39
6904.00,0.39
6903.00,0.40
6902.00,0.40
6901.00,0.40
6900.00,0.40
6899.00,0.40
6898.00,0.40
6897.00,0.40
6896.00,0.40
6895.00,0.41
6894.00,0.41
6893.00,0.41
6892.00,0.41
6891.00,0.41
6890.00,0.41
6889.00,0.41
6888.00,0.41
6887.00,0.41
6886.00,0.41
6885.00,0.41
6884.00,0.41
6883.00,0.41
6882.00,0.41
6881.00,0.41
6880.00,0.41
6879.00,0.41
6878.00,0.41
6877.00,0.41
6876.00,0.41
6875.00,0.41
6874.00,0.41
6873.00,0.41
6872.00,0.41
6871.00,0.41
6870.00,0.41
6869.00,0.41
6868.00,0.41
6867.00,0.41
6866.00,0.41
6865.00,0.40
6864.00,0.40
6863.00,0.40
6862.00,0.40
6861.00,0.40
6860.00,0.40
6859.00,0.40
6858.00,0.40
6857.00,0.40
6856.00,0.40
6855.00,0.40
6854.00,0.40
6853.00,0.40
6852.00,0.40
6851.00,0.40
6850.00,0.40
6849.00,0.40
6848.00,0.40
6847.00,0.40
6846.00,0.40
6845.00,0.40
6844.00,0.40
6843.00,0.40
6842.00,0.40
6841.00,0.40
6840.00,0.40
6839.00,0.40
6838.00,0.40
6837.00,0.41
6836.00,0.41
6835.00,0.41
6834.00,0.41
6833.00,0.41
6832.00,0.41
6831.00,0.42
6830.00,0.42
6829.00,0.42
6828.00,0.42
6827.00,0.43
6826.00,0.43
6825.00,0.43
6824.00,0.43
6823.00,0.44
6822.00,0.44
6821.00,0.44
6820.00,0.44
6819.00,0.44
6818.00,0.44
6817.00,0.44
6816.00,0.44
6815.00,0.44
6814.00,0.44
6813.00,0.44
6812.00,0.44
6811.00,0.44
6810.00,0.44
6809.00,0.44
6808.00,0.44
6807.00,0.43
6806.00,0.43
6805.00,0.43
6804.00,0.43
6803.00,0.42
6802.00,0.42
6801.00,0.42
6800.00,0.42
6799.00,0.41
6798.00,0.41
6797.00,0.41
6796.00,0.40
6795.00,0.40
6794.00,0.40
6793.00,0.40
6792.00,0.40
6791.00,0.40
6790.00,0.39
6789.00,0.39
6788.00,0.39
6787.00,0.39
6786.00,0.39
6785.00,0.39
6784.00,0.39
6783.00,0.39
6782.00,0.39
6781.00,0.39
6780.00,0.39
6779.00,0.40
6778.00,0.40
6777.00,0.40
6776.00,0.40
6775.00,0.40
6774.00,0.40
6773.00,0.41
6772.00,0.41
6771.00,0.41
6770.00,0.41
6769.00,0.41
6768.00,0.41
6767.00,0.41
6766.00,0.41
6765.00,0.41
6764.00,0.41
6763.00,0.42
6762.00,0.42
6761.00,0.42
6760.00,0.42
6759.00,0.42
6758.00,0.42
6757.00,0.42
6756.00,0.42
6755.00,0.42
6754.00,0.42
6753.00,0.42
6752.00,0.42
6751.00,0.42
6750.00,0.42
6749.00,0.42
6748.00,0.42
6747.00,0.42
6746.00,0.42
6745.00,0.41
6744.00,0.41
6743.00,0.41
6742.00,0.41
6741.00,0.41
6740.00,0.41
6739.00,0.41
6738.00,0.41
6737.00,0.41
6736.00,0.41
6735.00,0.41
6734.00,0.41
6733.00,0.41
6732.00,0.41
6731.00,0.41
6730.00,0.41
6729.00,0.41
6728.00,0.41
6727.00,0.41
6726.00,0.41
6725.00,0.41
6724.00,0.41
6723.00,0.41
6722.00,0.41
6721.00,0.41
6720.00,0.42
6719.00,0.42
6718.00,0.42
6717.00,0.42
6716.00,0.42
6715.00,0.42
6714.00,0.42
6713.00,0.42
6712.00,0.42
6711.00,0.42
6710.00,0.42
6709.00,0.42
6708.00,0.42
6707.00,0.42
6706.00,0.42
6705.00,0.42
6704.00,0.42
6703.00,0.42
6702.00,0.42
6701.00,0.42
6700.00,0.43
6699.00,0.43
6698.00,0.43
6697.00,0.43
6696.00,0.43
6695.00,0.43
6694.00,0.43
6693.00,0.43
6692.00,0.43
6691.00,0.43
6690.00,0.43
6689.00,0.44
6688.00,0.44
6687.00,0.44
6686.00,0.44
6685.00,0.45
6684.00,0.45
6683.00,0.45
6682.00,0.45
6681.00,0.46
6680.00,0.46
6679.00,0.46
6678.00,0.46
6677.00,0.47
6676.00,0.47
6675.00,0.47
6674.00,0.47
6673.00,0.47
6672.00,0.48
6671.00,0.48
6670.00,0.48
6669.00,0.48
6668.00,0.49
6667.00,0.49
6666.00,0.49
6665.00,0.49
6664.00,0.49
6663.00,0.49
6662.00,0.49
6661.00,0.49
6660.00,0.49
6659.00,0.49
6658.00,0.49
6657.00,0.49
6656.00,0.49
6655.00,0.49
6654.00,0.48
6653.00,0.48
6652.00,0.48
6651.00,0.48
6650.00,0.48
6649.00,0.48
6648.00,0.47
6647.00,0.47
6646.00,0.47
6645.00,0.47
6644.00,0.47
6643.00,0.46
6642.00,0.46
6641.00,0.46
6640.00,0.46
6639.00,0.46
6638.00,0.45
6637.00,0.45
6636.00,0.45
6635.00,0.45
6634.00,0.45
6633.00,0.45
6632.00,0.45
6631.00,0.45
6630.00,0.45
6629.00,0.45
6628.00,0.45
6627.00,0.45
6626.00,0.45
6625.00,0.45
6624.00,0.45
6623.00,0.45
6622.00,0.45
6621.00,0.45
6620.00,0.45
6619.00,0.45
6618.00,0.45
6617.00,0.46
6616.00,0.46
6615.00,0.46
6614.00,0.46
6613.00,0.46
6612.00,0.46
6611.00,0.47
6610.00,0.47
6609.00,0.47
6608.00,0.47
6607.00,0.47
6606.00,0.47
6605.00,0.48
6604.00,0.48
6603.00,0.48
6602.00,0.48
6601.00,0.48
6600.00,0.48
6599.00,0.48
6598.00,0.49
6597.00,0.49
6596.00,0.49
6595.00,0.49
6594.00,0.49
6593.00,0.49
6592.00,0.49
6591.00,0.49
6590.00,0.49
6589.00,0.49
6588.00,0.49
6587.00,0.49
6586.00,0.49
6585.00,0.49
6584.00,0.49
6583.00,0.49
6582.00,0.49
6581.00,0.49
6580.00,0.49
6579.00,0.49
6578.00,0.49
6577.00,0.48
6576.00,0.48
6575.00,0.48
6574.00,0.48
6573.00,0.48
6572.00,0.48
6571.00,0.48
6570.00,0.48
6569.00,0.48
6568.00,0.48
6567.00,0.48
6566.00,0.48
6565.00,0.48
6564.00,0.48
6563.00,0.48
6562.00,0.48
6561.00,0.48
6560.00,0.49
6559.00,0.49
6558.00,0.49
6557.00,0.49
6556.00,0.49
6555.00,0.49
6554.00,0.49
6553.00,0.49
6552.00,0.50
6551.00,0.50
6550.00,0.50
6549.00,0.50
6548.00,0.50
6547.00,0.50
6546.00,0.50
6545.00,0.51
6544.00,0.51
6543.00,0.51
6542.00,0.51
6541.00,0.51
6540.00,0.51
6539.00,0.51
6538.00,0.51
6537.00,0.51
6536.00,0.51
6535.00,0.51
6534.00,0.51
6533.00,0.51
6532.00,0.51
6531.00,0.51
6530.00,0.51
6529.00,0.51
6528.00,0.51
6527.00,0.52
6526.00,0.52
6525.00,0.52
6524.00,0.52
6523.00,0.52
6522.00,0.52
6521.00,0.52
6520.00,0.52
6519.00,0.52
6518.00,0.52
6517.00,0.52
6516.00,0.52
6515.00,0.53
6514.00,0.53
6513.00,0.53
6512.00,0.53
6511.00,0.53
6510.00,0.53
6509.00,0.53
6508.00,0.53
6507.00,0.53
6506.00,0.53
6505.00,0.53
6504.00,0.54
6503.00,0.54
6502.00,0.54
6501.00,0.54
6500.00,0.54
6499.00,0.54
6498.00,0.54
6497.00,0.54
6496.00,0.54
6495.00,0.54
6494.00,0.54
6493.00,0.54
6492.00,0.54
6491.00,0.54
6490.00,0.54
6489.00,0.54
6488.00,0.54
6487.00,0.54
6486.00,0.54
6485.00,0.54
6484.00,0.54
6483.00,0.54
6482.00,0.54
6481.00,0.54
6480.00,0.54
6479.00,0.54
6478.00,0.54
6477.00,0.54
6476.00,0.54
6475.00,0.54
6474.00,0.53
6473.00,0.53
6472.00,0.53
6471.00,0.53
6470.00,0.53
6469.00,0.53
6468.00,0.53
6467.00,0.53
6466.00,0.53
6465.00,0.53
6464.00,0.53
6463.00,0.53
6462.00,0.53
6461.00,0.53
6460.00,0.53
6459.00,0.53
6458.00,0.53
6457.00,0.53
6456.00,0.53
6455.00,0.53
6454.00,0.53
6453.00,0.53
6452.00,0.53
6451.00,0.53
6450.00,0.53
6449.00,0.53
6448.00,0.53
6447.00,0.53
6446.00,0.53
6445.00,0.53
6444.00,0.53
6443.00,0.53
6442.00,0.53
6441.00,0.53
6440.00,0.53
6439.00,0.53
6438.00,0.53
6437.00,0.53
6436.00,0.54
6435.00,0.54
6434.00,0.54
6433.00,0.54
6432.00,0.54
6431.00,0.54
6430.00,0.54
6429.00,0.55
6428.00,0.55
6427.00,0.55
6426.00,0.55
6425.00,0.55
6424.00,0.56
6423.00,0.56
6422.00,0.56
6421.00,0.56
6420.00,0.57
6419.00,0.57
6418.00,0.57
6417.00,0.57
6416.00,0.58
6415.00,0.58
6414.00,0.58
6413.00,0.58
6412.00,0.58
6411.00,0.58
6410.00,0.58
6409.00,0.58
6408.00,0.58
6407.00,0.59
6406.00,0.59
6405.00,0.59
6404.00,0.59
6403.00,0.59
6402.00,0.59
6401.00,0.59
6400.00,0.59
6399.00,0.59
6398.00,0.59
6397.00,0.59
6396.00,0.59
6395.00,0.59
6394.00,0.59
6393.00,0.59
6392.00,0.59
6391.00,0.59
6390.00,0.58
6389.00,0.58
6388.00,0.58
6387.00,0.58
6386.00,0.58
6385.00,0.58
6384.00,0.58
6383.00,0.58
6382.00,0.58
6381.00,0.58
6380.00,0.57
6379.00,0.57
6378.00,0.57
6377.00,0.57
6376.00,0.57
6375.00,0.56
6374.00,0.56
6373.00,0.56
6372.00,0.56
6371.00,0.56
6370.00,0.55
6369.00,0.55
6368.00,0.55
6367.00,0.55
6366.00,0.55
6365.00,0.54
6364.00,0.54
6363.00,0.54
6362.00,0.54
6361.00,0.54
6360.00,0.54
6359.00,0.54
6358.00,0.54
6357.00,0.54
6356.00,0.54
6355.00,0.54
6354.00,0.54
6353.00,0.54
6352.00,0.54
6351.00,0.54
6350.00,0.55
6349.00,0.55
6348.00,0.55
6347.00,0.55
6346.00,0.55
6345.00,0.56
6344.00,0.56
6343.00,0.56
6342.00,0.56
6341.00,0.56
6340.00,0.57
6339.00,0.57
6338.00,0.57
6337.00,0.57
6336.00,0.58
6335.00,0.58
6334.00,0.58
6333.00,0.58
6332.00,0.59
6331.00,0.59
6330.00,0.59
6329.00,0.59
6328.00,0.59
6327.00,0.59
6326.00,0.59
6325.00,0.60
6324.00,0.60
6323.00,0.60
6322.00,0.60
6321.00,0.60
6320.00,0.60
6319.00,0.60
6318.00,0.60
6317.00,0.60
6316.00,0.60
6315.00,0.61
6314.00,0.61
6313.00,0.61
6312.00,0.61
6311.00,0.61
6310.00,0.61
6309.00,0.61
6308.00,0.61
6307.00,0.61
6306.00,0.61
6305.00,0.61
6304.00,0.61
6303.00,0.61
6302.00,0.61
6301.00,0.61
6300.00,0.62
6299.00,0.62
6298.00,0.62
6297.00,0.62
6296.00,0.62
6295.00,0.62
6294.00,0.62
6293.00,0.62
6292.00,0.62
6291.00,0.62
6290.00,0.63
6289.00,0.63
6288.00,0.63
6287.00,0.63
6286.00,0.63
6285.00,0.63
6284.00,0.63
6283.00,0.63
6282.00,0.63
6281.00,0.63
6280.00,0.63
6279.00,0.63
6278.00,0.63
6277.00,0.63
6276.00,0.63
6275.00,0.63
6274.00,0.63
6273.00,0.63
6272.00,0.63
6271.00,0.63
6270.00,0.63
6269.00,0.63
6268.00,0.63
6267.00,0.63
6266.00,0.63
6265.00,0.63
6264.00,0.63
6263.00,0.63
6262.00,0.63
6261.00,0.63
6260.00,0.63
6259.00,0.63
6258.00,0.63
6257.00,0.63
6256.00,0.63
6255.00,0.63
6254.00,0.63
6253.00,0.64
6252.00,0.64
6251.00,0.64
6250.00,0.64
6249.00,0.64
6248.00,0.64
6247.00,0.64
6246.00,0.64
6245.00,0.64
6244.00,0.64
6243.00,0.64
6242.00,0.64
6241.00,0.64
6240.00,0.64
6239.00,0.64
6238.00,0.64
6237.00,0.64
6236.00,0.64
6235.00,0.64
6234.00,0.64
6233.00,0.65
6232.00,0.65
6231.00,0.65
6230.00,0.65
6229.00,0.65
6228.00,0.65
6227.00,0.65
6226.00,0.65
6225.00,0.65
6224.00,0.65
6223.00,0.65
6222.00,0.65
6221.00,0.66
6220.00,0.66
6219.00,0.66
6218.00,0.66
6217.00,0.66
6216.00,0.67
6215.00,0.67
6214.00,0.67
6213.00,0.67
6212.00,0.68
6211.00,0.68
6210.00,0.68
6209.00,0.68
6208.00,0.68
6207.00,0.68
6206.00,0.69
6205.00,0.69
6204.00,0.69
6203.00,0.69
6202.00,0.69
6201.00,0.69
6200.00,0.69
6199.00,0.69
6198.00,0.69
6197.00,0.69
6196.00,0.69
6195.00,0.69
6194.00,0.69
6193.00,0.69
6192.00,0.69
6191.00,0.69
6190.00,0.69
6189.00,0.69
6188.00,0.69
6187.00,0.68
6186.00,0.68
6185.00,0.68
6184.00,0.68
6183.00,0.68
6182.00,0.68
6181.00,0.68
6180.00,0.68
6179.00,0.68
6178.00,0.67
6177.00,0.67
6176.00,0.67
6175.00,0.67
6174.00,0.67
6173.00,0.67
6172.00,0.67
6171.00,0.67
6170.00,0.67
6169.00,0.67
6168.00,0.67
6167.00,0.67
6166.00,0.67
6165.00,0.67
6164.00,0.67
6163.00,0.67
6162.00,0.67
6161.00,0.67
6160.00,0.67
6159.00,0.67
6158.00,0.67
6157.00,0.67
6156.00,0.67
6155.00,0.67
6154.00,0.67
6153.00,0.67
6152.00,0.67
6151.00,0.67
6150.00,0.67
6149.00,0.67
6148.00,0.67
6147.00,0.67
6146.00,0.67
6145.00,0.67
6144.00,0.67
6143.00,0.67
6142.00,0.67
6141.00,0.67
6140.00,0.68
6139.00,0.68
6138.00,0.68
6137.00,0.68
6136.00,0.68
6135.00,0.68
6134.00,0.68
6133.00,0.68
6132.00,0.68
6131.00,0.68
6130.00,0.68
6129.00,0.68
6128.00,0.69
6127.00,0.69
6126.00,0.69
6125.00,0.69
6124.00,0.69
6123.00,0.69
6122.00,0.69
6121.00,0.69
6120.00,0.70
6119.00,0.70
6118.00,0.70
6117.00,0.70
6116.00,0.70
6115.00,0.70
6114.00,0.70
6113.00,0.70
6112.00,0.70
6111.00,0.71
6110.00,0.71
6109.00,0.71
6108.00,0.71
6107.00,0.71
6106.00,0.71
6105.00,0.71
6104.00,0.71
6103.00,0.72
6102.00,0.72
6101.00,0.72
6100.00,0.72
6099.00,0.72
6098.00,0.72
6097.00,0.72
6096.00,0.72
6095.00,0.73
6094.00,0.73
6093.00,0.73
6092.00,0.73
6091.00,0.73
6090.00,0.73
6089.00,0.73
6088.00,0.74
6087.00,0.74
6086.00,0.74
6085.00,0.74
6084.00,0.74
6083.00,0.74
6082.00,0.75
6081.00,0.75
6080.00,0.75
6079.00,0.75
6078.00,0.75
6077.00,0.75
6076.00,0.75
6075.00,0.75
6074.00,0.76
6073.00,0.76
6072.00,0.76
6071.00,0.76
6070.00,0.76
6069.00,0.76
6068.00,0.76
6067.00,0.76
6066.00,0.76
6065.00,0.76
6064.00,0.76
6063.00,0.76
6062.00,0.76
6061.00,0.76
6060.00,0.76
6059.00,0.76
6058.00,0.76
6057.00,0.76
6056.00,0.76
6055.00,0.76
6054.00,0.76
6053.00,0.76
6052.00,0.76
6051.00,0.76
6050.00,0.75
6049.00,0.75
6048.00,0.75
6047.00,0.75
6046.00,0.75
6045.00,0.75
6044.00,0.75
6043.00,0.75
6042.00,0.75
6041.00,0.75
6040.00,0.75
6039.00,0.75
6038.00,0.75
6037.00,0.75
6036.00,0.75
6035.00,0.75
6034.00,0.75
6033.00,0.75
6032.00,0.75
6031.00,0.75
6030.00,0.75
6029.00,0.75
6028.00,0.75
6027.00,0.75
6026.00,0.75
6025.00,0.75
6024.00,0.75
6023.00,0.75
6022.00,0.75
6021.00,0.75
6020.00,0.75
6019.00,0.75
6018.00,0.75
6017.00,0.75
6016.00,0.75
6015.00,0.75
6014.00,0.75
6013.00,0.75
6012.00,0.75
6011.00,0.75
6010.00,0.75
6009.00,0.74
6008.00,0.74
6007.00,0.74
6006.00,0.74
6005.00,0.74
6004.00,0.74
6003.00,0.74
6002.00,0.74
6001.00,0.74
6000.00,0.74
5999.00,0.74
5998.00,0.74
5997.00,0.74
5996.00,0.74
5995.00,0.74
5994.00,0.74
5993.00,0.74
5992.00,0.74
5991.00,0.74
5990.00,0.73
5989.00,0.73
5988.00,0.73
5987.00,0.73
5986.00,0.73
5985.00,0.73
5984.00,0.73
5983.00,0.73
5982.00,0.72
5981.00,0.72
5980.00,0.72
5979.00,0.72
5978.00,0.72
5977.00,0.71
5976.00,0.71
5975.00,0.71
5974.00,0.71
5973.00,0.71
5972.00,0.71
5971.00,0.70
5970.00,0.70
5969.00,0.70
5968.00,0.70
5967.00,0.70
5966.00,0.70
5965.00,0.69
5964.00,0.69
5963.00,0.69
5962.00,0.69
5961.00,0.69
5960.00,0.69
5959.00,0.69
5958.00,0.69
5957.00,0.69
5956.00,0.69
5955.00,0.69
5954.00,0.69
5953.00,0.69
5952.00,0.69
5951.00,0.69
5950.00,0.69
5949.00,0.69
5948.00,0.69
5947.00,0.69
5946.00,0.69
5945.00,0.69
5944.00,0.68
5943.00,0.68
5942.00,0.68
5941.00,0.68
5940.00,0.68
5939.00,0.68
5938.00,0.68
5937.00,0.68
5936.00,0.68
5935.00,0.67
5934.00,0.67
5933.00,0.67
5932.00,0.67
5931.00,0.67
5930.00,0.66
5929.00,0.66
5928.00,0.66
5927.00,0.66
5926.00,0.66
5925.00,0.66
5924.00,0.65
5923.00,0.65
5922.00,0.65
5921.00,0.65
5920.00,0.65
5919.00,0.65
5918.00,0.65
5917.00,0.65
5916.00,0.65
5915.00,0.64
5914.00,0.64
5913.00,0.64
5912.00,0.64
5911.00,0.64
5910.00,0.64
5909.00,0.64
5908.00,0.64
5907.00,0.64
5906.00,0.65
5905.00,0.65
5904.00,0.65
5903.00,0.65
5902.00,0.65
5901.00,0.65
5900.00,0.65
5899.00,0.66
5898.00,0.66
5897.00,0.66
5896.00,0.66
5895.00,0.66
5894.00,0.66
5893.00,0.66
5892.00,0.67
5891.00,0.67
5890.00,0.67
5889.00,0.67
5888.00,0.68
5887.00,0.68
5886.00,0.68
5885.00,0.68
5884.00,0.68
5883.00,0.69
5882.00,0.69
5881.00,0.69
5880.00,0.69
5879.00,0.70
5878.00,0.70
5877.00,0.70
5876.00,0.70
5875.00,0.70
5874.00,0.70
5873.00,0.70
5872.00,0.71
5871.00,0.71
5870.00,0.71
5869.00,0.71
5868.00,0.71
5867.00,0.71
5866.00,0.71
5865.00,0.71
5864.00,0.71
5863.00,0.71
5862.00,0.71
5861.00,0.71
5860.00,0.71
5859.00,0.71
5858.00,0.71
5857.00,0.71
5856.00,0.71
5855.00,0.71
5854.00,0.71
5853.00,0.71
5852.00,0.71
5851.00,0.71
5850.00,0.71
5849.00,0.70
5848.00,0.70
5847.00,0.70
5846.00,0.70
5845.00,0.70
5844.00,0.70
5843.00,0.70
5842.00,0.69
5841.00,0.69
5840.00,0.69
5839.00,0.69
5838.00,0.69
5837.00,0.69
5836.00,0.69
5835.00,0.69
5834.00,0.68
5833.00,0.68
5832.00,0.68
5831.00,0.68
5830.00,0.68
5829.00,0.68
5828.00,0.68
5827.00,0.68
5826.00,0.68
5825.00,0.68
5824.00,0.68
5823.00,0.68
5822.00,0.68
5821.00,0.68
5820.00,0.68
5819.00,0.68
5818.00,0.68
5817.00,0.68
5816.00,0.68
5815.00,0.68
5814.00,0.68
5813.00,0.68
5812.00,0.68
5811.00,0.68
5810.00,0.68
5809.00,0.68
5808.00,0.68
5807.00,0.68
5806.00,0.68
5805.00,0.68
5804.00,0.68
5803.00,0.68
5802.00,0.69
5801.00,0.69
5800.00,0.69
5799.00,0.69
5798.00,0.69
5797.00,0.69
5796.00,0.69
5795.00,0.69
5794.00,0.69
5793.00,0.69
5792.00,0.69
5791.00,0.69
5790.00,0.69
5789.00,0.69
5788.00,0.69
5787.00,0.69
5786.00,0.69
5785.00,0.69
5784.00,0.69
5783.00,0.69
5782.00,0.69
5781.00,0.69
5780.00,0.69
5779.00,0.69
5778.00,0.69
5777.00,0.69
5776.00,0.69
5775.00,0.69
5774.00,0.69
5773.00,0.69
5772.00,0.68
5771.00,0.68
5770.00,0.68
5769.00,0.68
5768.00,0.68
5767.00,0.68
5766.00,0.68
5765.00,0.68
5764.00,0.68
5763.00,0.68
5762.00,0.68
5761.00,0.68
5760.00,0.68
5759.00,0.68
5758.00,0.68
5757.00,0.68
5756.00,0.68
5755.00,0.68
5754.00,0.68
5753.00,0.68
5752.00,0.69
5751.00,0.69
5750.00,0.69
5749.00,0.69
5748.00,0.69
5747.00,0.70
5746.00,0.70
5745.00,0.70
5744.00,0.70
5743.00,0.70
5742.00,0.71
5741.00,0.71
5740.00,0.71
5739.00,0.71
5738.00,0.71
5737.00,0.71
5736.00,0.71
5735.00,0.72
5734.00,0.72
5733.00,0.72
5732.00,0.72
5731.00,0.72
5730.00,0.72
5729.00,0.72
5728.00,0.72
5727.00,0.72
5726.00,0.72
5725.00,0.72
5724.00,0.72
5723.00,0.72
5722.00,0.72
5721.00,0.72
5720.00,0.72
5719.00,0.72
5718.00,0.72
5717.00,0.72
5716.00,0.72
5715.00,0.72
5714.00,0.72
5713.00,0.72
5712.00,0.72
5711.00,0.72
5710.00,0.72
5709.00,0.72
5708.00,0.72
5707.00,0.72
5706.00,0.72
5705.00,0.72
5704.00,0.72
5703.00,0.72
5702.00,0.72
5701.00,0.72
5700.00,0.72
5699.00,0.72
5698.00,0.72
5697.00,0.72
5696.00,0.72
5695.00,0.72
5694.00,0.72
5693.00,0.72
5692.00,0.72
5691.00,0.72
5690.00,0.72
5689.00,0.72
5688.00,0.72
5687.00,0.71
5686.00,0.71
5685.00,0.71
5684.00,0.71
5683.00,0.71
5682.00,0.71
5681.00,0.71
5680.00,0.71
5679.00,0.71
5678.00,0.71
5677.00,0.71
5676.00,0.71
5675.00,0.71
5674.00,0.71
5673.00,0.71
5672.00,0.71
5671.00,0.71
5670.00,0.71
5669.00,0.71
5668.00,0.71
5667.00,0.71
5666.00,0.71
5665.00,0.71
5664.00,0.71
5663.00,0.71
5662.00,0.71
5661.00,0.71
5660.00,0.71
5659.00,0.71
5658.00,0.71
5657.00,0.71
5656.00,0.71
5655.00,0.71
5654.00,0.71
5653.00,0.71
5652.00,0.71
5651.00,0.71
5650.00,0.71
5649.00,0.71
5648.00,0.71
5647.00,0.71
5646.00,0.71
5645.00,0.71
5644.00,0.71
5643.00,0.71
5642.00,0.71
5641.00,0.71
5640.00,0.71
5639.00,0.71
5638.00,0.71
5637.00,0.71
5636.00,0.71
5635.00,0.71
5634.00,0.71
5633.00,0.71
5632.00,0.71
5631.00,0.71
5630.00,0.71
5629.00,0.71
5628.00,0.71
5627.00,0.71
5626.00,0.71
5625.00,0.71
5624.00,0.72
5623.00,0.72
5622.00,0.72
5621.00,0.72
5620.00,0.72
5619.00,0.72
5618.00,0.72
5617.00,0.72
5616.00,0.73
5615.00,0.73
5614.00,0.73
5613.00,0.73
5612.00,0.73
5611.00,0.73
5610.00,0.74
5609.00,0.74
5608.00,0.74
5607.00,0.74
5606.00,0.74
5605.00,0.75
5604.00,0.75
5603.00,0.75
5602.00,0.75
5601.00,0.75
5600.00,0.76
5599.00,0.76
5598.00,0.76
5597.00,0.76
5596.00,0.76
5595.00,0.76
5594.00,0.76
5593.00,0.76
5592.00,0.76
5591.00,0.76
5590.00,0.77
5589.00,0.77
5588.00,0.77
5587.00,0.77
5586.00,0.77
5585.00,0.77
5584.00,0.77
5583.00,0.77
5582.00,0.77
5581.00,0.77
5580.00,0.76
5579.00,0.76
5578.00,0.76
5577.00,0.76
5576.00,0.76
5575.00,0.76
5574.00,0.76
5573.00,0.76
5572.00,0.76
5571.00,0.76
5570.00,0.76
5569.00,0.76
5568.00,0.76
5567.00,0.76
5566.00,0.76
5565.00,0.76
5564.00,0.76
5563.00,0.76
5562.00,0.76
5561.00,0.76
5560.00,0.76
5559.00,0.76
5558.00,0.76
5557.00,0.76
5556.00,0.76
5555.00,0.76
5554.00,0.76
5553.00,0.76
5552.00,0.76
5551.00,0.77
5550.00,0.77
5549.00,0.77
5548.00,0.77
5547.00,0.77
5546.00,0.77
5545.00,0.77
5544.00,0.77
5543.00,0.77
5542.00,0.77
5541.00,0.77
5540.00,0.77
5539.00,0.77
5538.00,0.77
5537.00,0.77
5536.00,0.77
5535.00,0.77
5534.00,0.77
5533.00,0.77
5532.00,0.77
5531.00,0.77
5530.00,0.76
5529.00,0.76
5528.00,0.76
5527.00,0.76
5526.00,0.76
5525.00,0.76
5524.00,0.76
5523.00,0.76
5522.00,0.75
5521.00,0.75
5520.00,0.75
5519.00,0.75
5518.00,0.75
5517.00,0.75
5516.00,0.75
5515.00,0.75
5514.00,0.75
5513.00,0.75
5512.00,0.75
5511.00,0.75
5510.00,0.75
5509.00,0.75
5508.00,0.75
5507.00,0.75
5506.00,0.75
5505.00,0.75
5504.00,0.75
5503.00,0.75
5502.00,0.75
5501.00,0.75
5500.00,0.75
5499.00,0.75
5498.00,0.75
5497.00,0.76
5496.00,0.76
5495.00,0.76
5494.00,0.76
5493.00,0.76
5492.00,0.76
5491.00,0.76
5490.00,0.76
5489.00,0.76
5488.00,0.76
5487.00,0.76
5486.00,0.76
5485.00,0.76
5484.00,0.77
5483.00,0.77
5482.00,0.77
5481.00,0.77
5480.00,0.77
5479.00,0.77
5478.00,0.77
5477.00,0.77
5476.00,0.77
5475.00,0.77
5474.00,0.77
5473.00,0.77
5472.00,0.77
5471.00,0.77
5470.00,0.77
5469.00,0.77
5468.00,0.77
5467.00,0.77
5466.00,0.77
5465.00,0.77
5464.00,0.77
5463.00,0.77
5462.00,0.77
5461.00,0.78
5460.00,0.78
5459.00,0.78
5458.00,0.78
5457.00,0.78
5456.00,0.78
5455.00,0.78
5454.00,0.78
5453.00,0.78
5452.00,0.78
5451.00,0.78
5450.00,0.78
5449.00,0.78
5448.00,0.78
5447.00,0.78
5446.00,0.78
5445.00,0.78
5444.00,0.78
5443.00,0.77
5442.00,0.77
5441.00,0.77
5440.00,0.77
5439.00,0.77
5438.00,0.76
5437.00,0.76
5436.00,0.76
5435.00,0.76
5434.00,0.75
5433.00,0.75
5432.00,0.75
5431.00,0.75
5430.00,0.75
5429.00,0.74
5428.00,0.74
5427.00,0.74
5426.00,0.74
5425.00,0.74
5424.00,0.74
5423.00,0.73
5422.00,0.73
5421.00,0.73
5420.00,0.73
5419.00,0.73
5418.00,0.73
5417.00,0.73
5416.00,0.73
5415.00,0.73
5414.00,0.73
5413.00,0.73
5412.00,0.73
5411.00,0.73
5410.00,0.73
5409.00,0.73
5408.00,0.74
5407.00,0.74
5406.00,0.74
5405.00,0.74
5404.00,0.74
5403.00,0.74
5402.00,0.74
5401.00,0.74
5400.00,0.75
5399.00,0.75
5398.00,0.75
5397.00,0.75
5396.00,0.75
5395.00,0.75
5394.00,0.75
5393.00,0.75
5392.00,0.75
5391.00,0.75
5390.00,0.75
5389.00,0.75
5388.00,0.75
5387.00,0.75
5386.00,0.74
5385.00,0.74
5384.00,0.74
5383.00,0.74
5382.00,0.74
5381.00,0.74
5380.00,0.74
5379.00,0.73
5378.00,0.73
5377.00,0.73
5376.00,0.73
5375.00,0.73
5374.00,0.72
5373.00,0.72
5372.00,0.72
5371.00,0.72
5370.00,0.71
5369.00,0.71
5368.00,0.71
5367.00,0.70
5366.00,0.70
5365.00,0.70
5364.00,0.70
5363.00,0.69
5362.00,0.69
5361.00,0.69
5360.00,0.68
5359.00,0.68
5358.00,0.68
5357.00,0.67
5356.00,0.67
5355.00,0.67
5354.00,0.66
5353.00,0.66
5352.00,0.66
5351.00,0.65
5350.00,0.65
5349.00,0.65
5348.00,0.64
5347.00,0.64
5346.00,0.64
5345.00,0.63
5344.00,0.63
5343.00,0.63
5342.00,0.62
5341.00,0.62
5340.00,0.62
5339.00,0.62
5338.00,0.61
5337.00,0.61
5336.00,0.61
5335.00,0.60
5334.00,0.60
5333.00,0.60
5332.00,0.59
5331.00,0.59
5330.00,0.59
5329.00,0.58
5328.00,0.58
5327.00,0.58
5326.00,0.57
5325.00,0.57
5324.00,0.57
5323.00,0.56
5322.00,0.56
5321.00,0.56
5320.00,0.55
5319.00,0.55
5318.00,0.55
5317.00,0.54
5316.00,0.54
5315.00,0.54
5314.00,0.53
5313.00,0.53
5312.00,0.53
5311.00,0.52
5310.00,0.52
5309.00,0.52
5308.00,0.51
5307.00,0.51
5306.00,0.51
5305.00,0.50
5304.00,0.50
5303.00,0.50
5302.00,0.50
5301.00,0.49
5300.00,0.49
5299.00,0.49
5298.00,0.49
5297.00,0.49
5296.00,0.48
5295.00,0.48
5294.00,0.48
5293.00,0.48
5292.00,0.48
5291.00,0.47
5290.00,0.47
5289.00,0.47
5288.00,0.47
5287.00,0.47
5286.00,0.47
5285.00,0.47
5284.00,0.47
5283.00,0.47
5282.00,0.47
5281.00,0.46
5280.00,0.46
5279.00,0.46
5278.00,0.46
5277.00,0.46
5276.00,0.46
5275.00,0.46
5274.00,0.46
5273.00,0.46
5272.00,0.45
5271.00,0.45
5270.00,0.45
5269.00,0.45
5268.00,0.45
5267.00,0.45
5266.00,0.45
5265.00,0.45
5264.00,0.45
5263.00,0.45
5262.00,0.44
5261.00,0.44
5260.00,0.44
5259.00,0.44
5258.00,0.44
5257.00,0.44
5256.00,0.44
5255.00,0.43
5254.00,0.43
5253.00,0.43
5252.00,0.43
5251.00,0.43
5250.00,0.43
5249.00,0.43
5248.00,0.43
5247.00,0.43
5246.00,0.43
5245.00,0.43
5244.00,0.43
5243.00,0.43
5242.00,0.43
5241.00,0.43
5240.00,0.43
5239.00,0.43
5238.00,0.43
5237.00,0.43
5236.00,0.43
5235.00,0.43
5234.00,0.43
5233.00,0.43
5232.00,0.43
5231.00,0.44
5230.00,0.44
5229.00,0.44
5228.00,0.44
5227.00,0.44
5226.00,0.44
5225.00,0.45
5224.00,0.45
5223.00,0.45
5222.00,0.45
5221.00,0.45
5220.00,0.46
5219.00,0.46
5218.00,0.46
5217.00,0.46
5216.00,0.46
5215.00,0.46
5214.00,0.46
5213.00,0.47
5212.00,0.47
5211.00,0.47
5210.00,0.47
5209.00,0.47
5208.00,0.47
5207.00,0.47
5206.00,0.46
5205.00,0.46
5204.00,0.46
5203.00,0.46
5202.00,0.46
5201.00,0.46
5200.00,0.46
5199.00,0.46
5198.00,0.46
5197.00,0.46
5196.00,0.46
5195.00,0.46
5194.00,0.46
5193.00,0.46
5192.00,0.46
5191.00,0.46
5190.00,0.46
5189.00,0.46
5188.00,0.46
5187.00,0.45
5186.00,0.45
5185.00,0.45
5184.00,0.45
5183.00,0.45
5182.00,0.45
5181.00,0.45
5180.00,0.45
5179.00,0.45
5178.00,0.45
5177.00,0.45
5176.00,0.45
5175.00,0.45
5174.00,0.45
5173.00,0.45
5172.00,0.45
5171.00,0.45
5170.00,0.45
5169.00,0.45
5168.00,0.45
5167.00,0.45
5166.00,0.45
5165.00,0.45
5164.00,0.45
5163.00,0.45
5162.00,0.45
5161.00,0.45
5160.00,0.46
5159.00,0.46
5158.00,0.46
5157.00,0.46
5156.00,0.46
5155.00,0.47
5154.00,0.47
5153.00,0.47
5152.00,0.47
5151.00,0.47
5150.00,0.48
5149.00,0.48
5148.00,0.48
5147.00,0.48
5146.00,0.48
5145.00,0.48
5144.00,0.48
5143.00,0.48
5142.00,0.48
5141.00,0.49
5140.00,0.49
5139.00,0.49
5138.00,0.49
5137.00,0.49
5136.00,0.49
5135.00,0.49
5134.00,0.49
5133.00,0.49
5132.00,0.49
5131.00,0.49
5130.00,0.49
5129.00,0.49
5128.00,0.49
5127.00,0.49
5126.00,0.49
5125.00,0.49
5124.00,0.49
5123.00,0.49
5122.00,0.49
5121.00,0.49
5120.00,0.49
5119.00,0.49
5118.00,0.49
5117.00,0.50
5116.00,0.50
5115.00,0.50
5114.00,0.50
5113.00,0.50
5112.00,0.50
5111.00,0.50
5110.00,0.50
5109.00,0.50
5108.00,0.50
5107.00,0.50
5106.00,0.50
5105.00,0.50
5104.00,0.50
5103.00,0.50
5102.00,0.50
5101.00,0.50
5100.00,0.50
5099.00,0.50
5098.00,0.50
5097.00,0.51
5096.00,0.51
5095.00,0.51
5094.00,0.51
5093.00,0.51
5092.00,0.51
5091.00,0.51
5090.00,0.51
5089.00,0.51
5088.00,0.51
5087.00,0.51
5086.00,0.51
5085.00,0.51
5084.00,0.51
5083.00,0.51
5082.00,0.51
5081.00,0.51
5080.00,0.51
5079.00,0.51
5078.00,0.51
5077.00,0.51
5076.00,0.51
5075.00,0.51
5074.00,0.51
5073.00,0.51
5072.00,0.51
5071.00,0.51
5070.00,0.51
5069.00,0.51
5068.00,0.50
5067.00,0.50
5066.00,0.50
5065.00,0.50
5064.00,0.50
5063.00,0.50
5062.00,0.51
5061.00,0.51
5060.00,0.51
5059.00,0.51
5058.00,0.51
5057.00,0.51
5056.00,0.51
5055.00,0.51
5054.00,0.51
5053.00,0.52
5052.00,0.52
5051.00,0.52
5050.00,0.52
5049.00,0.52
5048.00,0.52
5047.00,0.52
5046.00,0.52
5045.00,0.53
5044.00,0.53
5043.00,0.53
5042.00,0.53
5041.00,0.53
5040.00,0.53
5039.00,0.53
5038.00,0.53
5037.00,0.53
5036.00,0.53
5035.00,0.54
5034.00,0.54
5033.00,0.54
5032.00,0.54
5031.00,0.54
5030.00,0.54
5029.00,0.54
5028.00,0.54
5027.00,0.54
5026.00,0.54
5025.00,0.54
5024.00,0.54
5023.00,0.54
5022.00,0.54
5021.00,0.54
5020.00,0.54
5019.00,0.54
5018.00,0.54
5017.00,0.54
5016.00,0.54
5015.00,0.54
5014.00,0.54
5013.00,0.54
5012.00,0.54
5011.00,0.54
5010.00,0.54
5009.00,0.54
5008.00,0.54
5007.00,0.54
5006.00,0.54
5005.00,0.54
5004.00,0.54
5003.00,0.54
5002.00,0.54
5001.00,0.54
5000.00,0.54
4999.00,0.54
4998.00,0.54
4997.00,0.54
4996.00,0.54
4995.00,0.53
4994.00,0.53
4993.00,0.53
4992.00,0.53
4991.00,0.53
4990.00,0.53
4989.00,0.53
4988.00,0.53
4987.00,0.53
4986.00,0.53
4985.00,0.53
4984.00,0.53
4983.00,0.53
4982.00,0.53
4981.00,0.53
4980.00,0.53
4979.00,0.53
4978.00,0.53
4977.00,0.53
4976.00,0.53
4975.00,0.53
4974.00,0.53
4973.00,0.53
4972.00,0.53
4971.00,0.53
4970.00,0.53
4969.00,0.53
4968.00,0.53
4967.00,0.53
4966.00,0.53
4965.00,0.53
4964.00,0.53
4963.00,0.53
4962.00,0.53
4961.00,0.53
4960.00,0.54
4959.00,0.54
4958.00,0.54
4957.00,0.54
4956.00,0.54
4955.00,0.54
4954.00,0.54
4953.00,0.54
4952.00,0.55
4951.00,0.55
4950.00,0.55
4949.00,0.55
4948.00,0.55
4947.00,0.55
4946.00,0.55
4945.00,0.55
4944.00,0.56
4943.00,0.56
4942.00,0.56
4941.00,0.56
4940.00,0.56
4939.00,0.56
4938.00,0.56
4937.00,0.55
4936.00,0.55
4935.00,0.55
4934.00,0.55
4933.00,0.55
4932.00,0.55
4931.00,0.55
4930.00,0.55
4929.00,0.55
4928.00,0.55
4927.00,0.55
4926.00,0.55
4925.00,0.55
4924.00,0.55
4923.00,0.55
4922.00,0.54
4921.00,0.54
4920.00,0.54
4919.00,0.55
4918.00,0.55
4917.00,0.55
4916.00,0.55
4915.00,0.55
4914.00,0.55
4913.00,0.55
4912.00,0.55
4911.00,0.55
4910.00,0.55
4909.00,0.56
4908.00,0.56
4907.00,0.56
4906.00,0.56
4905.00,0.56
4904.00,0.56
4903.00,0.56
4902.00,0.56
4901.00,0.57
4900.00,0.57
4899.00,0.57
4898.00,0.57
4897.00,0.57
4896.00,0.57
4895.00,0.57
4894.00,0.57
4893.00,0.57
4892.00,0.57
4891.00,0.57
4890.00,0.57
4889.00,0.57
4888.00,0.57
4887.00,0.57
4886.00,0.57
4885.00,0.57
4884.00,0.57
4883.00,0.57
4882.00,0.58
4881.00,0.58
4880.00,0.58
4879.00,0.58
4878.00,0.58
4877.00,0.58
4876.00,0.58
4875.00,0.58
4874.00,0.58
4873.00,0.58
4872.00,0.59
4871.00,0.59
4870.00,0.59
4869.00,0.59
4868.00,0.59
4867.00,0.59
4866.00,0.59
4865.00,0.60
4864.00,0.60
4863.00,0.60
4862.00,0.60
4861.00,0.60
4860.00,0.60
4859.00,0.60
4858.00,0.60
4857.00,0.60
4856.00,0.60
4855.00,0.60
4854.00,0.59
4853.00,0.59
4852.00,0.59
4851.00,0.59
4850.00,0.59
4849.00,0.59
4848.00,0.59
4847.00,0.58
4846.00,0.58
4845.00,0.58
4844.00,0.58
4843.00,0.58
4842.00,0.58
4841.00,0.57
4840.00,0.57
4839.00,0.57
4838.00,0.57
4837.00,0.57
4836.00,0.57
4835.00,0.57
4834.00,0.57
4833.00,0.57
4832.00,0.57
4831.00,0.57
4830.00,0.57
4829.00,0.57
4828.00,0.57
4827.00,0.57
4826.00,0.58
4825.00,0.58
4824.00,0.58
4823.00,0.58
4822.00,0.58
4821.00,0.59
4820.00,0.59
4819.00,0.59
4818.00,0.59
4817.00,0.60
4816.00,0.60
4815.00,0.60
4814.00,0.60
4813.00,0.60
4812.00,0.61
4811.00,0.61
4810.00,0.61
4809.00,0.61
4808.00,0.61
4807.00,0.62
4806.00,0.62
4805.00,0.62
4804.00,0.62
4803.00,0.62
4802.00,0.62
4801.00,0.63
4800.00,0.63
4799.00,0.63
4798.00,0.63
4797.00,0.63
4796.00,0.63
4795.00,0.63
4794.00,0.63
4793.00,0.63
4792.00,0.63
4791.00,0.64
4790.00,0.64
4789.00,0.64
4788.00,0.64
4787.00,0.64
4786.00,0.64
4785.00,0.64
4784.00,0.64
4783.00,0.64
4782.00,0.65
4781.00,0.65
4780.00,0.65
4779.00,0.65
4778.00,0.65
4777.00,0.65
4776.00,0.65
4775.00,0.65
4774.00,0.65
4773.00,0.65
4772.00,0.65
4771.00,0.65
4770.00,0.65
4769.00,0.65
4768.00,0.64
4767.00,0.64
4766.00,0.64
4765.00,0.64
4764.00,0.64
4763.00,0.64
4762.00,0.64
4761.00,0.64
4760.00,0.64
4759.00,0.64
4758.00,0.64
4757.00,0.64
4756.00,0.64
4755.00,0.64
4754.00,0.64
4753.00,0.64
4752.00,0.64
4751.00,0.64
4750.00,0.64
4749.00,0.64
4748.00,0.64
4747.00,0.64
4746.00,0.64
4745.00,0.64
4744.00,0.65
4743.00,0.65
4742.00,0.65
4741.00,0.65
4740.00,0.65
4739.00,0.66
4738.00,0.66
4737.00,0.66
4736.00,0.66
4735.00,0.66
4734.00,0.67
4733.00,0.67
4732.00,0.67
4731.00,0.67
4730.00,0.67
4729.00,0.67
4728.00,0.67
4727.00,0.68
4726.00,0.68
4725.00,0.68
4724.00,0.68
4723.00,0.68
4722.00,0.68
4721.00,0.68
4720.00,0.68
4719.00,0.68
4718.00,0.68
4717.00,0.68
4716.00,0.68
4715.00,0.68
4714.00,0.68
4713.00,0.68
4712.00,0.68
4711.00,0.68
4710.00,0.68
4709.00,0.67
4708.00,0.67
4707.00,0.67
4706.00,0.67
4705.00,0.67
4704.00,0.67
4703.00,0.66
4702.00,0.66
4701.00,0.66
4700.00,0.66
4699.00,0.66
4698.00,0.66
4697.00,0.66
4696.00,0.66
4695.00,0.66
4694.00,0.66
4693.00,0.67
4692.00,0.67
4691.00,0.67
4690.00,0.67
4689.00,0.67
4688.00,0.67
4687.00,0.67
4686.00,0.68
4685.00,0.68
4684.00,0.68
4683.00,0.68
4682.00,0.68
4681.00,0.69
4680.00,0.69
4679.00,0.69
4678.00,0.69
4677.00,0.70
4676.00,0.70
4675.00,0.70
4674.00,0.70
4673.00,0.70
4672.00,0.71
4671.00,0.71
4670.00,0.71
4669.00,0.71
4668.00,0.71
4667.00,0.71
4666.00,0.71
4665.00,0.71
4664.00,0.71
4663.00,0.71
4662.00,0.71
4661.00,0.71
4660.00,0.71
4659.00,0.71
4658.00,0.72
4657.00,0.72
4656.00,0.72
4655.00,0.72
4654.00,0.72
4653.00,0.72
4652.00,0.72
4651.00,0.72
4650.00,0.73
4649.00,0.73
4648.00,0.73
4647.00,0.73
4646.00,0.73
4645.00,0.73
4644.00,0.73
4643.00,0.74
4642.00,0.74
4641.00,0.74
4640.00,0.74
4639.00,0.74
4638.00,0.74
4637.00,0.74
4636.00,0.74
4635.00,0.74
4634.00,0.74
4633.00,0.74
4632.00,0.74
4631.00,0.74
4630.00,0.74
4629.00,0.74
4628.00,0.74
4627.00,0.74
4626.00,0.74
4625.00,0.74
4624.00,0.74
4623.00,0.74
4622.00,0.74
4621.00,0.74
4620.00,0.74
4619.00,0.74
4618.00,0.74
4617.00,0.74
4616.00,0.74
4615.00,0.74
4614.00,0.74
4613.00,0.74
4612.00,0.74
4611.00,0.74
4610.00,0.74
4609.00,0.74
4608.00,0.74
4607.00,0.74
4606.00,0.75
4605.00,0.75
4604.00,0.75
4603.00,0.75
4602.00,0.75
4601.00,0.75
4600.00,0.75
4599.00,0.76
4598.00,0.76
4597.00,0.76
4596.00,0.76
4595.00,0.76
4594.00,0.76
4593.00,0.76
4592.00,0.76
4591.00,0.76
4590.00,0.76
4589.00,0.77
4588.00,0.77
4587.00,0.77
4586.00,0.77
4585.00,0.77
4584.00,0.77
4583.00,0.77
4582.00,0.77
4581.00,0.77
4580.00,0.77
4579.00,0.77
4578.00,0.77
4577.00,0.77
4576.00,0.76
4575.00,0.76
4574.00,0.76
4573.00,0.76
4572.00,0.76
4571.00,0.76
4570.00,0.76
4569.00,0.76
4568.00,0.76
4567.00,0.76
4566.00,0.76
4565.00,0.76
4564.00,0.75
4563.00,0.75
4562.00,0.75
4561.00,0.75
4560.00,0.75
4559.00,0.75
4558.00,0.75
4557.00,0.75
4556.00,0.75
4555.00,0.75
4554.00,0.75
4553.00,0.75
4552.00,0.75
4551.00,0.75
4550.00,0.75
4549.00,0.75
4548.00,0.75
4547.00,0.75
4546.00,0.75
4545.00,0.75
4544.00,0.75
4543.00,0.75
4542.00,0.75
4541.00,0.75
4540.00,0.75
4539.00,0.75
4538.00,0.75
4537.00,0.75
4536.00,0.75
4535.00,0.75
4534.00,0.75
4533.00,0.75
4532.00,0.75
4531.00,0.75
4530.00,0.75
4529.00,0.75
4528.00,0.75
4527.00,0.75
4526.00,0.75
4525.00,0.75
4524.00,0.75
4523.00,0.75
4522.00,0.75
4521.00,0.75
4520.00,0.75
4519.00,0.75
4518.00,0.75
4517.00,0.75
4516.00,0.75
4515.00,0.75
4514.00,0.75
4513.00,0.75
4512.00,0.75
4511.00,0.75
4510.00,0.75
4509.00,0.75
4508.00,0.75
4507.00,0.75
4506.00,0.75
4505.00,0.75
4504.00,0.75
4503.00,0.75
4502.00,0.75
4501.00,0.75
4500.00,0.75
4499.00,0.76
4498.00,0.76
4497.00,0.76
4496.00,0.76
4495.00,0.76
4494.00,0.76
4493.00,0.76
4492.00,0.76
4491.00,0.76
4490.00,0.77
4489.00,0.77
4488.00,0.77
4487.00,0.77
4486.00,0.77
4485.00,0.77
4484.00,0.77
4483.00,0.77
4482.00,0.77
4481.00,0.77
4480.00,0.77
4479.00,0.77
4478.00,0.77
4477.00,0.77
4476.00,0.77
4475.00,0.77
4474.00,0.77
4473.00,0.76
4472.00,0.76
4471.00,0.76
4470.00,0.76
4469.00,0.75
4468.00,0.75
4467.00,0.75
4466.00,0.75
4465.00,0.74
4464.00,0.74
4463.00,0.74
4462.00,0.74
4461.00,0.74
4460.00,0.73
4459.00,0.73
4458.00,0.73
4457.00,0.73
4456.00,0.73
4455.00,0.72
4454.00,0.72
4453.00,0.72
4452.00,0.72
4451.00,0.72
4450.00,0.72
4449.00,0.72
4448.00,0.72
4447.00,0.72
4446.00,0.71
4445.00,0.71
4444.00,0.71
4443.00,0.71
4442.00,0.71
4441.00,0.71
4440.00,0.71
4439.00,0.71
4438.00,0.71
4437.00,0.71
4436.00,0.71
4435.00,0.70
4434.00,0.70
4433.00,0.70
4432.00,0.70
4431.00,0.70
4430.00,0.69
4429.00,0.69
4428.00,0.69
4427.00,0.69
4426.00,0.68
4425.00,0.68
4424.00,0.68
4423.00,0.68
4422.00,0.68
4421.00,0.67
4420.00,0.67
4419.00,0.67
4418.00,0.67
4417.00,0.67
4416.00,0.67
4415.00,0.67
4414.00,0.66
4413.00,0.66
4412.00,0.66
4411.00,0.66
4410.00,0.66
4409.00,0.66
4408.00,0.66
4407.00,0.66
4406.00,0.66
4405.00,0.66
4404.00,0.66
4403.00,0.66
4402.00,0.66
4401.00,0.66
4400.00,0.66
4399.00,0.66
4398.00,0.66
4397.00,0.66
4396.00,0.66
4395.00,0.67
4394.00,0.67
4393.00,0.67
4392.00,0.67
4391.00,0.67
4390.00,0.67
4389.00,0.67
4388.00,0.67
4387.00,0.67
4386.00,0.67
4385.00,0.67
4384.00,0.67
4383.00,0.67
4382.00,0.68
4381.00,0.68
4380.00,0.68
4379.00,0.68
4378.00,0.68
4377.00,0.68
4376.00,0.68
4375.00,0.68
4374.00,0.69
4373.00,0.69
4372.00,0.69
4371.00,0.69
4370.00,0.69
4369.00,0.69
4368.00,0.69
4367.00,0.69
4366.00,0.70
4365.00,0.70
4364.00,0.70
4363.00,0.70
4362.00,0.70
4361.00,0.70
4360.00,0.70
4359.00,0.70
4358.00,0.70
4357.00,0.70
4356.00,0.70
4355.00,0.70
4354.00,0.70
4353.00,0.70
4352.00,0.70
4351.00,0.70
4350.00,0.70
4349.00,0.70
4348.00,0.70
4347.00,0.70
4346.00,0.70
4345.00,0.70
4344.00,0.70
4343.00,0.70
4342.00,0.70
4341.00,0.70
4340.00,0.70
4339.00,0.70
4338.00,0.69
4337.00,0.69
4336.00,0.69
4335.00,0.69
4334.00,0.69
4333.00,0.69
4332.00,0.69
4331.00,0.69
4330.00,0.69
4329.00,0.69
4328.00,0.69
4327.00,0.69
4326.00,0.69
4325.00,0.69
4324.00,0.69
4323.00,0.70
4322.00,0.70
4321.00,0.70
4320.00,0.70
4319.00,0.70
4318.00,0.70
4317.00,0.70
4316.00,0.71
4315.00,0.71
4314.00,0.71
4313.00,0.71
4312.00,0.71
4311.00,0.71
4310.00,0.71
4309.00,0.72
4308.00,0.72
4307.00,0.72
4306.00,0.72
4305.00,0.72
4304.00,0.72
4303.00,0.72
4302.00,0.72
4301.00,0.72
4300.00,0.72
4299.00,0.72
4298.00,0.72
4297.00,0.72
4296.00,0.72
4295.00,0.72
4294.00,0.72
4293.00,0.72
4292.00,0.72
4291.00,0.72
4290.00,0.72
4289.00,0.72
4288.00,0.72
4287.00,0.72
4286.00,0.72
4285.00,0.72
4284.00,0.71
4283.00,0.71
4282.00,0.71
4281.00,0.71
4280.00,0.71
4279.00,0.71
4278.00,0.71
4277.00,0.71
4276.00,0.71
4275.00,0.70
4274.00,0.70
4273.00,0.70
4272.00,0.70
4271.00,0.71
4270.00,0.71
4269.00,0.71
4268.00,0.71
4267.00,0.71
4266.00,0.71
4265.00,0.71
4264.00,0.71
4263.00,0.71
4262.00,0.71
4261.00,0.71
4260.00,0.72
4259.00,0.72
4258.00,0.72
4257.00,0.72
4256.00,0.72
4255.00,0.72
4254.00,0.72
4253.00,0.72
4252.00,0.72
4251.00,0.73
4250.00,0.73
4249.00,0.73
4248.00,0.73
4247.00,0.73
4246.00,0.73
4245.00,0.73
4244.00,0.73
4243.00,0.73
4242.00,0.73
4241.00,0.72
4240.00,0.72
4239.00,0.72
4238.00,0.72
4237.00,0.72
4236.00,0.72
4235.00,0.72
4234.00,0.72
4233.00,0.72
4232.00,0.72
4231.00,0.71
4230.00,0.71
4229.00,0.71
4228.00,0.71
4227.00,0.71
4226.00,0.71
4225.00,0.71
4224.00,0.71
4223.00,0.71
4222.00,0.71
4221.00,0.71
4220.00,0.71
4219.00,0.71
4218.00,0.71
4217.00,0.71
4216.00,0.71
4215.00,0.71
4214.00,0.71
4213.00,0.71
4212.00,0.71
4211.00,0.71
4210.00,0.72
4209.00,0.72
4208.00,0.72
4207.00,0.72
4206.00,0.72
4205.00,0.72
4204.00,0.72
4203.00,0.73
4202.00,0.73
4201.00,0.73
4200.00,0.73
4199.00,0.73
4198.00,0.73
4197.00,0.73
4196.00,0.73
4195.00,0.74
4194.00,0.74
4193.00,0.74
4192.00,0.74
4191.00,0.74
4190.00,0.74
4189.00,0.75
4188.00,0.75
4187.00,0.75
4186.00,0.75
4185.00,0.75
4184.00,0.75
4183.00,0.75
4182.00,0.75
4181.00,0.75
4180.00,0.75
4179.00,0.75
4178.00,0.75
4177.00,0.75
4176.00,0.75
4175.00,0.75
4174.00,0.75
4173.00,0.75
4172.00,0.75
4171.00,0.75
4170.00,0.75
4169.00,0.75
4168.00,0.75
4167.00,0.75
4166.00,0.75
4165.00,0.75
4164.00,0.75
4163.00,0.75
4162.00,0.75
4161.00,0.75
4160.00,0.74
4159.00,0.74
4158.00,0.74
4157.00,0.74
4156.00,0.74
4155.00,0.74
4154.00,0.74
4153.00,0.74
4152.00,0.74
4151.00,0.73
4150.00,0.73
4149.00,0.73
4148.00,0.73
4147.00,0.73
4146.00,0.73
4145.00,0.73
4144.00,0.73
4143.00,0.73
4142.00,0.73
4141.00,0.73
4140.00,0.73
4139.00,0.73
4138.00,0.73
4137.00,0.73
4136.00,0.73
4135.00,0.73
4134.00,0.73
4133.00,0.73
4132.00,0.74
4131.00,0.74
4130.00,0.74
4129.00,0.74
4128.00,0.74
4127.00,0.74
4126.00,0.74
4125.00,0.74
4124.00,0.74
4123.00,0.74
4122.00,0.74
4121.00,0.74
4120.00,0.74
4119.00,0.74
4118.00,0.74
4117.00,0.74
4116.00,0.74
4115.00,0.74
4114.00,0.74
4113.00,0.74
4112.00,0.74
4111.00,0.74
4110.00,0.74
4109.00,0.75
4108.00,0.75
4107.00,0.75
4106.00,0.75
4105.00,0.75
4104.00,0.75
4103.00,0.75
4102.00,0.75
4101.00,0.76
4100.00,0.76
4099.00,0.76
4098.00,0.76
4097.00,0.76
4096.00,0.76
4095.00,0.76
4094.00,0.77
4093.00,0.77
4092.00,0.77
4091.00,0.77
4090.00,0.77
4089.00,0.77
4088.00,0.77
4087.00,0.77
4086.00,0.77
4085.00,0.77
4084.00,0.77
4083.00,0.77
4082.00,0.77
4081.00,0.77
4080.00,0.77
4079.00,0.77
4078.00,0.77
4077.00,0.76
4076.00,0.76
4075.00,0.76
4074.00,0.76
4073.00,0.76
4072.00,0.75
4071.00,0.75
4070.00,0.75
4069.00,0.75
4068.00,0.74
4067.00,0.74
4066.00,0.74
4065.00,0.74
4064.00,0.74
4063.00,0.74
4062.00,0.73
4061.00,0.73
4060.00,0.73
4059.00,0.73
4058.00,0.73
4057.00,0.73
4056.00,0.73
4055.00,0.74
4054.00,0.74
4053.00,0.74
4052.00,0.74
4051.00,0.74
4050.00,0.74
4049.00,0.75
4048.00,0.75
4047.00,0.75
4046.00,0.76
4045.00,0.76
4044.00,0.76
4043.00,0.76
4042.00,0.77
4041.00,0.77
4040.00,0.77
4039.00,0.77
4038.00,0.78
4037.00,0.78
4036.00,0.78
4035.00,0.78
4034.00,0.79
4033.00,0.79
4032.00,0.79
4031.00,0.79
4030.00,0.79
4029.00,0.80
4028.00,0.80
4027.00,0.80
4026.00,0.80
4025.00,0.80
4024.00,0.80
4023.00,0.80
4022.00,0.80
4021.00,0.80
4020.00,0.80
4019.00,0.80
4018.00,0.80
4017.00,0.79
4016.00,0.79
4015.00,0.79
4014.00,0.78
4013.00,0.78
4012.00,0.78
4011.00,0.77
4010.00,0.77
4009.00,0.76
4008.00,0.75
4007.00,0.75
4006.00,0.74
4005.00,0.73
4004.00,0.73
4003.00,0.72
4002.00,0.71
4001.00,0.70
4000.00,0.69
