创建为新数据集,样品 1018 用户 Administrator 日期 星期二, 七月 30 2019
cm-1,%T
10000.00,1.03
9999.00,1.04
9998.00,1.04
9997.00,1.05
9996.00,1.05
9995.00,1.06
9994.00,1.06
9993.00,1.06
9992.00,1.06
9991.00,1.06
9990.00,1.06
9989.00,1.06
9988.00,1.07
9987.00,1.07
9986.00,1.07
9985.00,1.08
9984.00,1.08
9983.00,1.09
9982.00,1.09
9981.00,1.10
9980.00,1.10
9979.00,1.10
9978.00,1.10
9977.00,1.10
9976.00,1.09
9975.00,1.09
9974.00,1.08
9973.00,1.07
9972.00,1.05
9971.00,1.04
9970.00,1.03
9969.00,1.01
9968.00,1.00
9967.00,0.99
9966.00,0.97
9965.00,0.96
9964.00,0.95
9963.00,0.94
9962.00,0.93
9961.00,0.92
9960.00,0.92
9959.00,0.91
9958.00,0.90
9957.00,0.90
9956.00,0.89
9955.00,0.89
9954.00,0.88
9953.00,0.88
9952.00,0.88
9951.00,0.88
9950.00,0.88
9949.00,0.88
9948.00,0.89
9947.00,0.89
9946.00,0.89
9945.00,0.90
9944.00,0.90
9943.00,0.91
9942.00,0.91
9941.00,0.92
9940.00,0.92
9939.00,0.92
9938.00,0.92
9937.00,0.93
9936.00,0.93
9935.00,0.93
9934.00,0.93
9933.00,0.93
9932.00,0.93
9931.00,0.93
9930.00,0.93
9929.00,0.93
9928.00,0.93
9927.00,0.92
9926.00,0.92
9925.00,0.92
9924.00,0.92
9923.00,0.92
9922.00,0.91
9921.00,0.91
9920.00,0.91
9919.00,0.91
9918.00,0.91
9917.00,0.91
9916.00,0.90
9915.00,0.90
9914.00,0.90
9913.00,0.90
9912.00,0.89
9911.00,0.89
9910.00,0.88
9909.00,0.88
9908.00,0.87
9907.00,0.86
9906.00,0.86
9905.00,0.85
9904.00,0.84
9903.00,0.83
9902.00,0.83
9901.00,0.82
9900.00,0.82
9899.00,0.81
9898.00,0.81
9897.00,0.80
9896.00,0.80
9895.00,0.79
9894.00,0.79
9893.00,0.79
9892.00,0.78
9891.00,0.78
9890.00,0.78
9889.00,0.79
9888.00,0.79
9887.00,0.79
9886.00,0.80
9885.00,0.80
9884.00,0.81
9883.00,0.82
9882.00,0.82
9881.00,0.83
9880.00,0.84
9879.00,0.85
9878.00,0.86
9877.00,0.86
9876.00,0.87
9875.00,0.88
9874.00,0.88
9873.00,0.89
9872.00,0.90
9871.00,0.90
9870.00,0.91
9869.00,0.92
9868.00,0.92
9867.00,0.93
9866.00,0.93
9865.00,0.94
9864.00,0.94
9863.00,0.94
9862.00,0.94
9861.00,0.94
9860.00,0.94
9859.00,0.94
9858.00,0.94
9857.00,0.94
9856.00,0.94
9855.00,0.94
9854.00,0.93
9853.00,0.93
9852.00,0.93
9851.00,0.93
9850.00,0.92
9849.00,0.92
9848.00,0.91
9847.00,0.91
9846.00,0.90
9845.00,0.89
9844.00,0.88
9843.00,0.87
9842.00,0.86
9841.00,0.85
9840.00,0.84
9839.00,0.82
9838.00,0.81
9837.00,0.80
9836.00,0.79
9835.00,0.77
9834.00,0.76
9833.00,0.75
9832.00,0.74
9831.00,0.73
9830.00,0.72
9829.00,0.70
9828.00,0.69
9827.00,0.68
9826.00,0.67
9825.00,0.66
9824.00,0.65
9823.00,0.65
9822.00,0.64
9821.00,0.64
9820.00,0.63
9819.00,0.63
9818.00,0.63
9817.00,0.63
9816.00,0.63
9815.00,0.63
9814.00,0.63
9813.00,0.63
9812.00,0.63
9811.00,0.64
9810.00,0.64
9809.00,0.64
9808.00,0.65
9807.00,0.65
9806.00,0.66
9805.00,0.66
9804.00,0.66
9803.00,0.67
9802.00,0.68
9801.00,0.68
9800.00,0.69
9799.00,0.69
9798.00,0.70
9797.00,0.70
9796.00,0.70
9795.00,0.70
9794.00,0.70
9793.00,0.70
9792.00,0.70
9791.00,0.70
9790.00,0.69
9789.00,0.69
9788.00,0.69
9787.00,0.69
9786.00,0.69
9785.00,0.68
9784.00,0.68
9783.00,0.68
9782.00,0.68
9781.00,0.68
9780.00,0.68
9779.00,0.68
9778.00,0.68
9777.00,0.69
9776.00,0.69
9775.00,0.69
9774.00,0.69
9773.00,0.70
9772.00,0.70
9771.00,0.70
9770.00,0.71
9769.00,0.72
9768.00,0.73
9767.00,0.74
9766.00,0.75
9765.00,0.76
9764.00,0.78
9763.00,0.79
9762.00,0.80
9761.00,0.82
9760.00,0.83
9759.00,0.84
9758.00,0.85
9757.00,0.86
9756.00,0.86
9755.00,0.87
9754.00,0.88
9753.00,0.88
9752.00,0.89
9751.00,0.89
9750.00,0.89
9749.00,0.90
9748.00,0.90
9747.00,0.90
9746.00,0.90
9745.00,0.90
9744.00,0.90
9743.00,0.89
9742.00,0.89
9741.00,0.88
9740.00,0.88
9739.00,0.87
9738.00,0.86
9737.00,0.86
9736.00,0.85
9735.00,0.84
9734.00,0.84
9733.00,0.83
9732.00,0.83
9731.00,0.82
9730.00,0.82
9729.00,0.81
9728.00,0.81
9727.00,0.80
9726.00,0.80
9725.00,0.79
9724.00,0.79
9723.00,0.78
9722.00,0.78
9721.00,0.77
9720.00,0.77
9719.00,0.76
9718.00,0.75
9717.00,0.75
9716.00,0.75
9715.00,0.74
9714.00,0.74
9713.00,0.74
9712.00,0.73
9711.00,0.73
9710.00,0.73
9709.00,0.73
9708.00,0.72
9707.00,0.72
9706.00,0.72
9705.00,0.71
9704.00,0.71
9703.00,0.71
9702.00,0.70
9701.00,0.70
9700.00,0.70
9699.00,0.70
9698.00,0.70
9697.00,0.70
9696.00,0.71
9695.00,0.71
9694.00,0.72
9693.00,0.72
9692.00,0.73
9691.00,0.73
9690.00,0.74
9689.00,0.74
9688.00,0.74
9687.00,0.74
9686.00,0.75
9685.00,0.75
9684.00,0.75
9683.00,0.74
9682.00,0.74
9681.00,0.74
9680.00,0.74
9679.00,0.74
9678.00,0.75
9677.00,0.75
9676.00,0.75
9675.00,0.75
9674.00,0.75
9673.00,0.75
9672.00,0.75
9671.00,0.75
9670.00,0.75
9669.00,0.74
9668.00,0.74
9667.00,0.74
9666.00,0.73
9665.00,0.73
9664.00,0.72
9663.00,0.72
9662.00,0.71
9661.00,0.71
9660.00,0.71
9659.00,0.71
9658.00,0.71
9657.00,0.71
9656.00,0.71
9655.00,0.71
9654.00,0.71
9653.00,0.71
9652.00,0.71
9651.00,0.71
9650.00,0.71
9649.00,0.70
9648.00,0.70
9647.00,0.70
9646.00,0.69
9645.00,0.69
9644.00,0.69
9643.00,0.68
9642.00,0.68
9641.00,0.68
9640.00,0.68
9639.00,0.68
9638.00,0.68
9637.00,0.67
9636.00,0.67
9635.00,0.67
9634.00,0.67
9633.00,0.67
9632.00,0.67
9631.00,0.67
9630.00,0.67
9629.00,0.67
9628.00,0.67
9627.00,0.67
9626.00,0.67
9625.00,0.67
9624.00,0.67
9623.00,0.67
9622.00,0.68
9621.00,0.68
9620.00,0.68
9619.00,0.68
9618.00,0.68
9617.00,0.68
9616.00,0.68
9615.00,0.69
9614.00,0.69
9613.00,0.69
9612.00,0.69
9611.00,0.68
9610.00,0.68
9609.00,0.68
9608.00,0.68
9607.00,0.68
9606.00,0.67
9605.00,0.67
9604.00,0.67
9603.00,0.66
9602.00,0.66
9601.00,0.65
9600.00,0.64
9599.00,0.64
9598.00,0.63
9597.00,0.62
9596.00,0.62
9595.00,0.61
9594.00,0.60
9593.00,0.59
9592.00,0.59
9591.00,0.58
9590.00,0.57
9589.00,0.56
9588.00,0.56
9587.00,0.55
9586.00,0.54
9585.00,0.54
9584.00,0.53
9583.00,0.53
9582.00,0.52
9581.00,0.52
9580.00,0.51
9579.00,0.51
9578.00,0.51
9577.00,0.51
9576.00,0.50
9575.00,0.51
9574.00,0.51
9573.00,0.51
9572.00,0.51
9571.00,0.52
9570.00,0.52
9569.00,0.53
9568.00,0.54
9567.00,0.54
9566.00,0.55
9565.00,0.56
9564.00,0.57
9563.00,0.58
9562.00,0.58
9561.00,0.59
9560.00,0.60
9559.00,0.61
9558.00,0.62
9557.00,0.62
9556.00,0.63
9555.00,0.64
9554.00,0.65
9553.00,0.66
9552.00,0.66
9551.00,0.67
9550.00,0.68
9549.00,0.69
9548.00,0.69
9547.00,0.70
9546.00,0.70
9545.00,0.71
9544.00,0.71
9543.00,0.71
9542.00,0.71
9541.00,0.72
9540.00,0.72
9539.00,0.72
9538.00,0.72
9537.00,0.72
9536.00,0.72
9535.00,0.72
9534.00,0.73
9533.00,0.73
9532.00,0.73
9531.00,0.73
9530.00,0.73
9529.00,0.74
9528.00,0.74
9527.00,0.74
9526.00,0.74
9525.00,0.74
9524.00,0.74
9523.00,0.74
9522.00,0.74
9521.00,0.74
9520.00,0.74
9519.00,0.74
9518.00,0.73
9517.00,0.73
9516.00,0.73
9515.00,0.73
9514.00,0.73
9513.00,0.73
9512.00,0.72
9511.00,0.72
9510.00,0.72
9509.00,0.72
9508.00,0.72
9507.00,0.71
9506.00,0.71
9505.00,0.71
9504.00,0.70
9503.00,0.70
9502.00,0.70
9501.00,0.69
9500.00,0.69
9499.00,0.68
9498.00,0.68
9497.00,0.67
9496.00,0.67
9495.00,0.67
9494.00,0.67
9493.00,0.67
9492.00,0.67
9491.00,0.67
9490.00,0.67
9489.00,0.67
9488.00,0.67
9487.00,0.67
9486.00,0.68
9485.00,0.68
9484.00,0.68
9483.00,0.68
9482.00,0.69
9481.00,0.69
9480.00,0.69
9479.00,0.69
9478.00,0.70
9477.00,0.70
9476.00,0.70
9475.00,0.71
9474.00,0.71
9473.00,0.72
9472.00,0.72
9471.00,0.73
9470.00,0.73
9469.00,0.74
9468.00,0.74
9467.00,0.75
9466.00,0.75
9465.00,0.75
9464.00,0.75
9463.00,0.75
9462.00,0.75
9461.00,0.75
9460.00,0.75
9459.00,0.75
9458.00,0.75
9457.00,0.74
9456.00,0.74
9455.00,0.74
9454.00,0.73
9453.00,0.73
9452.00,0.73
9451.00,0.72
9450.00,0.72
9449.00,0.72
9448.00,0.71
9447.00,0.71
9446.00,0.71
9445.00,0.70
9444.00,0.70
9443.00,0.69
9442.00,0.69
9441.00,0.68
9440.00,0.68
9439.00,0.67
9438.00,0.67
9437.00,0.66
9436.00,0.66
9435.00,0.66
9434.00,0.66
9433.00,0.65
9432.00,0.65
9431.00,0.65
9430.00,0.65
9429.00,0.65
9428.00,0.65
9427.00,0.65
9426.00,0.65
9425.00,0.65
9424.00,0.65
9423.00,0.64
9422.00,0.64
9421.00,0.64
9420.00,0.63
9419.00,0.63
9418.00,0.63
9417.00,0.63
9416.00,0.63
9415.00,0.63
9414.00,0.63
9413.00,0.63
9412.00,0.63
9411.00,0.63
9410.00,0.63
9409.00,0.62
9408.00,0.62
9407.00,0.62
9406.00,0.62
9405.00,0.62
9404.00,0.62
9403.00,0.62
9402.00,0.61
9401.00,0.61
9400.00,0.61
9399.00,0.61
9398.00,0.62
9397.00,0.62
9396.00,0.62
9395.00,0.62
9394.00,0.62
9393.00,0.63
9392.00,0.63
9391.00,0.63
9390.00,0.63
9389.00,0.63
9388.00,0.64
9387.00,0.64
9386.00,0.64
9385.00,0.64
9384.00,0.65
9383.00,0.65
9382.00,0.65
9381.00,0.66
9380.00,0.66
9379.00,0.67
9378.00,0.67
9377.00,0.67
9376.00,0.68
9375.00,0.68
9374.00,0.69
9373.00,0.69
9372.00,0.69
9371.00,0.70
9370.00,0.70
9369.00,0.71
9368.00,0.71
9367.00,0.72
9366.00,0.72
9365.00,0.73
9364.00,0.73
9363.00,0.74
9362.00,0.74
9361.00,0.75
9360.00,0.75
9359.00,0.76
9358.00,0.76
9357.00,0.77
9356.00,0.77
9355.00,0.78
9354.00,0.78
9353.00,0.78
9352.00,0.79
9351.00,0.79
9350.00,0.79
9349.00,0.79
9348.00,0.79
9347.00,0.80
9346.00,0.80
9345.00,0.80
9344.00,0.80
9343.00,0.80
9342.00,0.79
9341.00,0.79
9340.00,0.79
9339.00,0.79
9338.00,0.79
9337.00,0.78
9336.00,0.78
9335.00,0.77
9334.00,0.77
9333.00,0.76
9332.00,0.76
9331.00,0.75
9330.00,0.74
9329.00,0.74
9328.00,0.73
9327.00,0.73
9326.00,0.72
9325.00,0.72
9324.00,0.71
9323.00,0.71
9322.00,0.71
9321.00,0.70
9320.00,0.70
9319.00,0.70
9318.00,0.70
9317.00,0.69
9316.00,0.69
9315.00,0.69
9314.00,0.69
9313.00,0.69
9312.00,0.69
9311.00,0.69
9310.00,0.69
9309.00,0.69
9308.00,0.70
9307.00,0.70
9306.00,0.70
9305.00,0.70
9304.00,0.71
9303.00,0.71
9302.00,0.71
9301.00,0.71
9300.00,0.71
9299.00,0.71
9298.00,0.71
9297.00,0.72
9296.00,0.72
9295.00,0.72
9294.00,0.72
9293.00,0.72
9292.00,0.72
9291.00,0.72
9290.00,0.72
9289.00,0.72
9288.00,0.71
9287.00,0.71
9286.00,0.71
9285.00,0.71
9284.00,0.71
9283.00,0.70
9282.00,0.70
9281.00,0.70
9280.00,0.69
9279.00,0.69
9278.00,0.69
9277.00,0.68
9276.00,0.68
9275.00,0.68
9274.00,0.68
9273.00,0.67
9272.00,0.67
9271.00,0.67
9270.00,0.67
9269.00,0.67
9268.00,0.67
9267.00,0.67
9266.00,0.67
9265.00,0.67
9264.00,0.67
9263.00,0.67
9262.00,0.67
9261.00,0.67
9260.00,0.68
9259.00,0.68
9258.00,0.68
9257.00,0.68
9256.00,0.69
9255.00,0.69
9254.00,0.69
9253.00,0.70
9252.00,0.70
9251.00,0.71
9250.00,0.71
9249.00,0.72
9248.00,0.72
9247.00,0.73
9246.00,0.74
9245.00,0.74
9244.00,0.75
9243.00,0.75
9242.00,0.76
9241.00,0.76
9240.00,0.77
9239.00,0.77
9238.00,0.77
9237.00,0.77
9236.00,0.78
9235.00,0.78
9234.00,0.78
9233.00,0.78
9232.00,0.78
9231.00,0.78
9230.00,0.78
9229.00,0.77
9228.00,0.77
9227.00,0.77
9226.00,0.77
9225.00,0.77
9224.00,0.76
9223.00,0.76
9222.00,0.76
9221.00,0.75
9220.00,0.75
9219.00,0.75
9218.00,0.74
9217.00,0.74
9216.00,0.74
9215.00,0.73
9214.00,0.73
9213.00,0.72
9212.00,0.72
9211.00,0.72
9210.00,0.72
9209.00,0.72
9208.00,0.72
9207.00,0.72
9206.00,0.72
9205.00,0.72
9204.00,0.72
9203.00,0.72
9202.00,0.73
9201.00,0.73
9200.00,0.73
9199.00,0.73
9198.00,0.73
9197.00,0.74
9196.00,0.74
9195.00,0.74
9194.00,0.74
9193.00,0.75
9192.00,0.75
9191.00,0.75
9190.00,0.76
9189.00,0.76
9188.00,0.77
9187.00,0.77
9186.00,0.78
9185.00,0.78
9184.00,0.79
9183.00,0.79
9182.00,0.79
9181.00,0.79
9180.00,0.80
9179.00,0.80
9178.00,0.80
9177.00,0.80
9176.00,0.80
9175.00,0.80
9174.00,0.80
9173.00,0.80
9172.00,0.80
9171.00,0.80
9170.00,0.79
9169.00,0.79
9168.00,0.79
9167.00,0.79
9166.00,0.78
9165.00,0.78
9164.00,0.77
9163.00,0.77
9162.00,0.76
9161.00,0.76
9160.00,0.75
9159.00,0.74
9158.00,0.74
9157.00,0.73
9156.00,0.73
9155.00,0.73
9154.00,0.72
9153.00,0.72
9152.00,0.72
9151.00,0.72
9150.00,0.72
9149.00,0.72
9148.00,0.72
9147.00,0.72
9146.00,0.72
9145.00,0.72
9144.00,0.72
9143.00,0.72
9142.00,0.72
9141.00,0.72
9140.00,0.72
9139.00,0.72
9138.00,0.72
9137.00,0.72
9136.00,0.72
9135.00,0.73
9134.00,0.73
9133.00,0.73
9132.00,0.73
9131.00,0.73
9130.00,0.73
9129.00,0.74
9128.00,0.74
9127.00,0.74
9126.00,0.74
9125.00,0.74
9124.00,0.74
9123.00,0.73
9122.00,0.73
9121.00,0.73
9120.00,0.73
9119.00,0.73
9118.00,0.73
9117.00,0.73
9116.00,0.73
9115.00,0.74
9114.00,0.74
9113.00,0.74
9112.00,0.74
9111.00,0.74
9110.00,0.75
9109.00,0.75
9108.00,0.75
9107.00,0.75
9106.00,0.75
9105.00,0.75
9104.00,0.75
9103.00,0.74
9102.00,0.74
9101.00,0.74
9100.00,0.74
9099.00,0.74
9098.00,0.74
9097.00,0.74
9096.00,0.74
9095.00,0.74
9094.00,0.74
9093.00,0.73
9092.00,0.73
9091.00,0.73
9090.00,0.73
9089.00,0.72
9088.00,0.72
9087.00,0.72
9086.00,0.71
9085.00,0.71
9084.00,0.71
9083.00,0.71
9082.00,0.70
9081.00,0.70
9080.00,0.70
9079.00,0.70
9078.00,0.70
9077.00,0.70
9076.00,0.71
9075.00,0.71
9074.00,0.71
9073.00,0.72
9072.00,0.72
9071.00,0.72
9070.00,0.73
9069.00,0.73
9068.00,0.73
9067.00,0.74
9066.00,0.74
9065.00,0.74
9064.00,0.75
9063.00,0.75
9062.00,0.75
9061.00,0.76
9060.00,0.76
9059.00,0.77
9058.00,0.77
9057.00,0.77
9056.00,0.78
9055.00,0.78
9054.00,0.78
9053.00,0.78
9052.00,0.79
9051.00,0.79
9050.00,0.79
9049.00,0.79
9048.00,0.79
9047.00,0.79
9046.00,0.79
9045.00,0.79
9044.00,0.79
9043.00,0.79
9042.00,0.79
9041.00,0.80
9040.00,0.80
9039.00,0.80
9038.00,0.80
9037.00,0.80
9036.00,0.81
9035.00,0.81
9034.00,0.81
9033.00,0.82
9032.00,0.82
9031.00,0.83
9030.00,0.83
9029.00,0.83
9028.00,0.84
9027.00,0.84
9026.00,0.84
9025.00,0.84
9024.00,0.84
9023.00,0.84
9022.00,0.84
9021.00,0.84
9020.00,0.84
9019.00,0.84
9018.00,0.84
9017.00,0.84
9016.00,0.84
9015.00,0.83
9014.00,0.83
9013.00,0.83
9012.00,0.82
9011.00,0.82
9010.00,0.81
9009.00,0.80
9008.00,0.80
9007.00,0.79
9006.00,0.78
9005.00,0.77
9004.00,0.77
9003.00,0.76
9002.00,0.75
9001.00,0.74
9000.00,0.73
8999.00,0.73
8998.00,0.72
8997.00,0.71
8996.00,0.71
8995.00,0.71
8994.00,0.70
8993.00,0.70
8992.00,0.70
8991.00,0.69
8990.00,0.69
8989.00,0.69
8988.00,0.69
8987.00,0.69
8986.00,0.69
8985.00,0.69
8984.00,0.69
8983.00,0.69
8982.00,0.69
8981.00,0.69
8980.00,0.69
8979.00,0.70
8978.00,0.70
8977.00,0.70
8976.00,0.70
8975.00,0.70
8974.00,0.70
8973.00,0.71
8972.00,0.71
8971.00,0.71
8970.00,0.71
8969.00,0.71
8968.00,0.71
8967.00,0.71
8966.00,0.72
8965.00,0.72
8964.00,0.72
8963.00,0.72
8962.00,0.72
8961.00,0.72
8960.00,0.71
8959.00,0.71
8958.00,0.71
8957.00,0.71
8956.00,0.71
8955.00,0.71
8954.00,0.71
8953.00,0.70
8952.00,0.70
8951.00,0.70
8950.00,0.70
8949.00,0.70
8948.00,0.70
8947.00,0.70
8946.00,0.70
8945.00,0.70
8944.00,0.70
8943.00,0.70
8942.00,0.70
8941.00,0.70
8940.00,0.70
8939.00,0.70
8938.00,0.70
8937.00,0.70
8936.00,0.70
8935.00,0.70
8934.00,0.70
8933.00,0.70
8932.00,0.71
8931.00,0.71
8930.00,0.71
8929.00,0.71
8928.00,0.72
8927.00,0.72
8926.00,0.72
8925.00,0.72
8924.00,0.72
8923.00,0.73
8922.00,0.73
8921.00,0.73
8920.00,0.73
8919.00,0.73
8918.00,0.73
8917.00,0.73
8916.00,0.73
8915.00,0.73
8914.00,0.73
8913.00,0.73
8912.00,0.73
8911.00,0.73
8910.00,0.73
8909.00,0.73
8908.00,0.73
8907.00,0.73
8906.00,0.73
8905.00,0.73
8904.00,0.73
8903.00,0.72
8902.00,0.72
8901.00,0.72
8900.00,0.71
8899.00,0.71
8898.00,0.71
8897.00,0.70
8896.00,0.70
8895.00,0.70
8894.00,0.69
8893.00,0.69
8892.00,0.69
8891.00,0.69
8890.00,0.69
8889.00,0.69
8888.00,0.69
8887.00,0.69
8886.00,0.69
8885.00,0.69
8884.00,0.69
8883.00,0.69
8882.00,0.69
8881.00,0.69
8880.00,0.69
8879.00,0.69
8878.00,0.69
8877.00,0.70
8876.00,0.70
8875.00,0.71
8874.00,0.71
8873.00,0.72
8872.00,0.72
8871.00,0.73
8870.00,0.73
8869.00,0.74
8868.00,0.74
8867.00,0.75
8866.00,0.75
8865.00,0.76
8864.00,0.76
8863.00,0.77
8862.00,0.77
8861.00,0.77
8860.00,0.77
8859.00,0.78
8858.00,0.78
8857.00,0.78
8856.00,0.78
8855.00,0.79
8854.00,0.79
8853.00,0.79
8852.00,0.79
8851.00,0.79
8850.00,0.79
8849.00,0.79
8848.00,0.78
8847.00,0.78
8846.00,0.78
8845.00,0.78
8844.00,0.77
8843.00,0.77
8842.00,0.76
8841.00,0.76
8840.00,0.75
8839.00,0.75
8838.00,0.74
8837.00,0.73
8836.00,0.73
8835.00,0.72
8834.00,0.71
8833.00,0.71
8832.00,0.70
8831.00,0.69
8830.00,0.69
8829.00,0.68
8828.00,0.68
8827.00,0.67
8826.00,0.67
8825.00,0.67
8824.00,0.66
8823.00,0.66
8822.00,0.66
8821.00,0.66
8820.00,0.66
8819.00,0.66
8818.00,0.66
8817.00,0.66
8816.00,0.66
8815.00,0.67
8814.00,0.67
8813.00,0.68
8812.00,0.69
8811.00,0.70
8810.00,0.71
8809.00,0.72
8808.00,0.73
8807.00,0.74
8806.00,0.75
8805.00,0.76
8804.00,0.77
8803.00,0.78
8802.00,0.80
8801.00,0.81
8800.00,0.82
8799.00,0.83
8798.00,0.84
8797.00,0.85
8796.00,0.85
8795.00,0.86
8794.00,0.87
8793.00,0.87
8792.00,0.88
8791.00,0.88
8790.00,0.88
8789.00,0.88
8788.00,0.88
8787.00,0.88
8786.00,0.88
8785.00,0.88
8784.00,0.88
8783.00,0.87
8782.00,0.87
8781.00,0.87
8780.00,0.86
8779.00,0.86
8778.00,0.85
8777.00,0.85
8776.00,0.85
8775.00,0.84
8774.00,0.84
8773.00,0.83
8772.00,0.83
8771.00,0.82
8770.00,0.82
8769.00,0.82
8768.00,0.81
8767.00,0.81
8766.00,0.81
8765.00,0.81
8764.00,0.81
8763.00,0.81
8762.00,0.80
8761.00,0.80
8760.00,0.80
8759.00,0.80
8758.00,0.80
8757.00,0.80
8756.00,0.80
8755.00,0.80
8754.00,0.79
8753.00,0.79
8752.00,0.79
8751.00,0.79
8750.00,0.79
8749.00,0.79
8748.00,0.79
8747.00,0.78
8746.00,0.78
8745.00,0.78
8744.00,0.77
8743.00,0.77
8742.00,0.76
8741.00,0.76
8740.00,0.75
8739.00,0.74
8738.00,0.74
8737.00,0.73
8736.00,0.73
8735.00,0.72
8734.00,0.72
8733.00,0.72
8732.00,0.71
8731.00,0.71
8730.00,0.71
8729.00,0.70
8728.00,0.70
8727.00,0.70
8726.00,0.70
8725.00,0.70
8724.00,0.70
8723.00,0.70
8722.00,0.70
8721.00,0.70
8720.00,0.70
8719.00,0.70
8718.00,0.71
8717.00,0.71
8716.00,0.72
8715.00,0.72
8714.00,0.73
8713.00,0.74
8712.00,0.75
8711.00,0.75
8710.00,0.76
8709.00,0.77
8708.00,0.78
8707.00,0.79
8706.00,0.80
8705.00,0.80
8704.00,0.81
8703.00,0.82
8702.00,0.82
8701.00,0.83
8700.00,0.84
8699.00,0.84
8698.00,0.84
8697.00,0.85
8696.00,0.85
8695.00,0.85
8694.00,0.86
8693.00,0.86
8692.00,0.86
8691.00,0.86
8690.00,0.86
8689.00,0.86
8688.00,0.86
8687.00,0.86
8686.00,0.86
8685.00,0.86
8684.00,0.85
8683.00,0.85
8682.00,0.85
8681.00,0.84
8680.00,0.84
8679.00,0.84
8678.00,0.83
8677.00,0.83
8676.00,0.83
8675.00,0.83
8674.00,0.82
8673.00,0.82
8672.00,0.82
8671.00,0.82
8670.00,0.82
8669.00,0.82
8668.00,0.82
8667.00,0.81
8666.00,0.81
8665.00,0.81
8664.00,0.81
8663.00,0.81
8662.00,0.81
8661.00,0.81
8660.00,0.81
8659.00,0.80
8658.00,0.80
8657.00,0.80
8656.00,0.80
8655.00,0.80
8654.00,0.79
8653.00,0.79
8652.00,0.79
8651.00,0.79
8650.00,0.79
8649.00,0.79
8648.00,0.79
8647.00,0.79
8646.00,0.78
8645.00,0.78
8644.00,0.78
8643.00,0.78
8642.00,0.78
8641.00,0.78
8640.00,0.78
8639.00,0.78
8638.00,0.78
8637.00,0.78
8636.00,0.78
8635.00,0.78
8634.00,0.78
8633.00,0.78
8632.00,0.78
8631.00,0.78
8630.00,0.78
8629.00,0.78
8628.00,0.78
8627.00,0.78
8626.00,0.78
8625.00,0.78
8624.00,0.78
8623.00,0.78
8622.00,0.78
8621.00,0.77
8620.00,0.77
8619.00,0.77
8618.00,0.77
8617.00,0.77
8616.00,0.76
8615.00,0.76
8614.00,0.76
8613.00,0.75
8612.00,0.75
8611.00,0.75
8610.00,0.75
8609.00,0.74
8608.00,0.74
8607.00,0.74
8606.00,0.73
8605.00,0.73
8604.00,0.73
8603.00,0.72
8602.00,0.72
8601.00,0.72
8600.00,0.71
8599.00,0.71
8598.00,0.71
8597.00,0.71
8596.00,0.71
8595.00,0.70
8594.00,0.70
8593.00,0.70
8592.00,0.70
8591.00,0.70
8590.00,0.70
8589.00,0.70
8588.00,0.70
8587.00,0.70
8586.00,0.70
8585.00,0.70
8584.00,0.70
8583.00,0.70
8582.00,0.71
8581.00,0.71
8580.00,0.71
8579.00,0.71
8578.00,0.72
8577.00,0.72
8576.00,0.72
8575.00,0.73
8574.00,0.73
8573.00,0.73
8572.00,0.74
8571.00,0.74
8570.00,0.74
8569.00,0.75
8568.00,0.75
8567.00,0.76
8566.00,0.76
8565.00,0.76
8564.00,0.76
8563.00,0.77
8562.00,0.77
8561.00,0.77
8560.00,0.77
8559.00,0.77
8558.00,0.77
8557.00,0.77
8556.00,0.77
8555.00,0.77
8554.00,0.77
8553.00,0.77
8552.00,0.76
8551.00,0.76
8550.00,0.76
8549.00,0.76
8548.00,0.76
8547.00,0.76
8546.00,0.75
8545.00,0.75
8544.00,0.75
8543.00,0.75
8542.00,0.75
8541.00,0.75
8540.00,0.75
8539.00,0.75
8538.00,0.75
8537.00,0.75
8536.00,0.75
8535.00,0.75
8534.00,0.75
8533.00,0.75
8532.00,0.75
8531.00,0.75
8530.00,0.75
8529.00,0.75
8528.00,0.75
8527.00,0.75
8526.00,0.75
8525.00,0.75
8524.00,0.75
8523.00,0.75
8522.00,0.76
8521.00,0.76
8520.00,0.76
8519.00,0.76
8518.00,0.75
8517.00,0.75
8516.00,0.75
8515.00,0.75
8514.00,0.75
8513.00,0.75
8512.00,0.75
8511.00,0.75
8510.00,0.75
8509.00,0.75
8508.00,0.75
8507.00,0.75
8506.00,0.75
8505.00,0.75
8504.00,0.75
8503.00,0.74
8502.00,0.74
8501.00,0.74
8500.00,0.74
8499.00,0.73
8498.00,0.73
8497.00,0.73
8496.00,0.73
8495.00,0.72
8494.00,0.72
8493.00,0.72
8492.00,0.71
8491.00,0.71
8490.00,0.71
8489.00,0.70
8488.00,0.70
8487.00,0.70
8486.00,0.69
8485.00,0.69
8484.00,0.69
8483.00,0.68
8482.00,0.68
8481.00,0.68
8480.00,0.67
8479.00,0.67
8478.00,0.67
8477.00,0.67
8476.00,0.67
8475.00,0.67
8474.00,0.67
8473.00,0.67
8472.00,0.67
8471.00,0.67
8470.00,0.67
8469.00,0.67
8468.00,0.68
8467.00,0.68
8466.00,0.68
8465.00,0.69
8464.00,0.69
8463.00,0.69
8462.00,0.70
8461.00,0.70
8460.00,0.71
8459.00,0.71
8458.00,0.72
8457.00,0.72
8456.00,0.72
8455.00,0.73
8454.00,0.73
8453.00,0.73
8452.00,0.73
8451.00,0.73
8450.00,0.74
8449.00,0.74
8448.00,0.74
8447.00,0.74
8446.00,0.74
8445.00,0.74
8444.00,0.74
8443.00,0.74
8442.00,0.74
8441.00,0.74
8440.00,0.74
8439.00,0.74
8438.00,0.74
8437.00,0.74
8436.00,0.74
8435.00,0.74
8434.00,0.74
8433.00,0.74
8432.00,0.74
8431.00,0.74
8430.00,0.74
8429.00,0.74
8428.00,0.74
8427.00,0.74
8426.00,0.74
8425.00,0.75
8424.00,0.75
8423.00,0.75
8422.00,0.75
8421.00,0.75
8420.00,0.75
8419.00,0.76
8418.00,0.76
8417.00,0.76
8416.00,0.76
8415.00,0.76
8414.00,0.76
8413.00,0.77
8412.00,0.77
8411.00,0.77
8410.00,0.77
8409.00,0.77
8408.00,0.77
8407.00,0.77
8406.00,0.77
8405.00,0.77
8404.00,0.78
8403.00,0.78
8402.00,0.78
8401.00,0.78
8400.00,0.78
8399.00,0.78
8398.00,0.79
8397.00,0.79
8396.00,0.79
8395.00,0.79
8394.00,0.78
8393.00,0.78
8392.00,0.78
8391.00,0.78
8390.00,0.78
8389.00,0.78
8388.00,0.78
8387.00,0.78
8386.00,0.77
8385.00,0.77
8384.00,0.77
8383.00,0.77
8382.00,0.77
8381.00,0.76
8380.00,0.76
8379.00,0.76
8378.00,0.75
8377.00,0.75
8376.00,0.75
8375.00,0.74
8374.00,0.74
8373.00,0.74
8372.00,0.73
8371.00,0.73
8370.00,0.73
8369.00,0.72
8368.00,0.72
8367.00,0.72
8366.00,0.72
8365.00,0.71
8364.00,0.71
8363.00,0.71
8362.00,0.71
8361.00,0.71
8360.00,0.71
8359.00,0.71
8358.00,0.71
8357.00,0.71
8356.00,0.72
8355.00,0.72
8354.00,0.72
8353.00,0.73
8352.00,0.73
8351.00,0.73
8350.00,0.74
8349.00,0.74
8348.00,0.74
8347.00,0.75
8346.00,0.75
8345.00,0.75
8344.00,0.76
8343.00,0.76
8342.00,0.77
8341.00,0.77
8340.00,0.77
8339.00,0.78
8338.00,0.78
8337.00,0.78
8336.00,0.79
8335.00,0.79
8334.00,0.79
8333.00,0.80
8332.00,0.80
8331.00,0.80
8330.00,0.80
8329.00,0.80
8328.00,0.80
8327.00,0.80
8326.00,0.80
8325.00,0.79
8324.00,0.79
8323.00,0.79
8322.00,0.79
8321.00,0.79
8320.00,0.78
8319.00,0.78
8318.00,0.78
8317.00,0.78
8316.00,0.78
8315.00,0.77
8314.00,0.77
8313.00,0.77
8312.00,0.77
8311.00,0.77
8310.00,0.77
8309.00,0.77
8308.00,0.76
8307.00,0.76
8306.00,0.76
8305.00,0.76
8304.00,0.76
8303.00,0.76
8302.00,0.76
8301.00,0.76
8300.00,0.76
8299.00,0.77
8298.00,0.77
8297.00,0.77
8296.00,0.77
8295.00,0.77
8294.00,0.78
8293.00,0.78
8292.00,0.78
8291.00,0.78
8290.00,0.78
8289.00,0.78
8288.00,0.78
8287.00,0.78
8286.00,0.78
8285.00,0.78
8284.00,0.78
8283.00,0.78
8282.00,0.78
8281.00,0.78
8280.00,0.78
8279.00,0.78
8278.00,0.78
8277.00,0.78
8276.00,0.78
8275.00,0.78
8274.00,0.78
8273.00,0.78
8272.00,0.78
8271.00,0.78
8270.00,0.78
8269.00,0.78
8268.00,0.78
8267.00,0.78
8266.00,0.78
8265.00,0.78
8264.00,0.79
8263.00,0.79
8262.00,0.79
8261.00,0.79
8260.00,0.80
8259.00,0.80
8258.00,0.80
8257.00,0.81
8256.00,0.81
8255.00,0.81
8254.00,0.82
8253.00,0.82
8252.00,0.82
8251.00,0.83
8250.00,0.83
8249.00,0.83
8248.00,0.83
8247.00,0.83
8246.00,0.83
8245.00,0.83
8244.00,0.83
8243.00,0.83
8242.00,0.83
8241.00,0.83
8240.00,0.83
8239.00,0.83
8238.00,0.83
8237.00,0.83
8236.00,0.83
8235.00,0.83
8234.00,0.83
8233.00,0.83
8232.00,0.83
8231.00,0.83
8230.00,0.83
8229.00,0.83
8228.00,0.83
8227.00,0.83
8226.00,0.83
8225.00,0.83
8224.00,0.83
8223.00,0.83
8222.00,0.83
8221.00,0.83
8220.00,0.83
8219.00,0.83
8218.00,0.83
8217.00,0.84
8216.00,0.84
8215.00,0.84
8214.00,0.84
8213.00,0.84
8212.00,0.84
8211.00,0.84
8210.00,0.84
8209.00,0.84
8208.00,0.83
8207.00,0.83
8206.00,0.83
8205.00,0.83
8204.00,0.83
8203.00,0.83
8202.00,0.82
8201.00,0.82
8200.00,0.82
8199.00,0.82
8198.00,0.82
8197.00,0.81
8196.00,0.81
8195.00,0.81
8194.00,0.81
8193.00,0.80
8192.00,0.80
8191.00,0.80
8190.00,0.79
8189.00,0.79
8188.00,0.79
8187.00,0.78
8186.00,0.78
8185.00,0.78
8184.00,0.78
8183.00,0.77
8182.00,0.77
8181.00,0.77
8180.00,0.77
8179.00,0.77
8178.00,0.76
8177.00,0.76
8176.00,0.76
8175.00,0.76
8174.00,0.76
8173.00,0.76
8172.00,0.76
8171.00,0.76
8170.00,0.76
8169.00,0.75
8168.00,0.75
8167.00,0.75
8166.00,0.75
8165.00,0.75
8164.00,0.76
8163.00,0.76
8162.00,0.76
8161.00,0.76
8160.00,0.77
8159.00,0.77
8158.00,0.77
8157.00,0.78
8156.00,0.78
8155.00,0.79
8154.00,0.79
8153.00,0.79
8152.00,0.80
8151.00,0.80
8150.00,0.80
8149.00,0.81
8148.00,0.81
8147.00,0.82
8146.00,0.82
8145.00,0.83
8144.00,0.83
8143.00,0.83
8142.00,0.84
8141.00,0.84
8140.00,0.85
8139.00,0.85
8138.00,0.85
8137.00,0.86
8136.00,0.86
8135.00,0.86
8134.00,0.86
8133.00,0.86
8132.00,0.86
8131.00,0.86
8130.00,0.86
8129.00,0.86
8128.00,0.85
8127.00,0.85
8126.00,0.85
8125.00,0.85
8124.00,0.85
8123.00,0.85
8122.00,0.85
8121.00,0.85
8120.00,0.85
8119.00,0.84
8118.00,0.84
8117.00,0.84
8116.00,0.84
8115.00,0.83
8114.00,0.83
8113.00,0.83
8112.00,0.83
8111.00,0.83
8110.00,0.83
8109.00,0.83
8108.00,0.83
8107.00,0.83
8106.00,0.83
8105.00,0.83
8104.00,0.83
8103.00,0.83
8102.00,0.83
8101.00,0.83
8100.00,0.84
8099.00,0.84
8098.00,0.84
8097.00,0.84
8096.00,0.84
8095.00,0.84
8094.00,0.85
8093.00,0.85
8092.00,0.85
8091.00,0.86
8090.00,0.86
8089.00,0.86
8088.00,0.87
8087.00,0.87
8086.00,0.87
8085.00,0.88
8084.00,0.88
8083.00,0.88
8082.00,0.89
8081.00,0.89
8080.00,0.89
8079.00,0.89
8078.00,0.90
8077.00,0.90
8076.00,0.90
8075.00,0.90
8074.00,0.91
8073.00,0.91
8072.00,0.91
8071.00,0.91
8070.00,0.92
8069.00,0.92
8068.00,0.92
8067.00,0.92
8066.00,0.92
8065.00,0.92
8064.00,0.92
8063.00,0.92
8062.00,0.92
8061.00,0.92
8060.00,0.92
8059.00,0.91
8058.00,0.91
8057.00,0.91
8056.00,0.91
8055.00,0.91
8054.00,0.91
8053.00,0.91
8052.00,0.90
8051.00,0.90
8050.00,0.90
8049.00,0.90
8048.00,0.89
8047.00,0.89
8046.00,0.89
8045.00,0.89
8044.00,0.89
8043.00,0.89
8042.00,0.89
8041.00,0.89
8040.00,0.89
8039.00,0.89
8038.00,0.89
8037.00,0.89
8036.00,0.89
8035.00,0.89
8034.00,0.89
8033.00,0.89
8032.00,0.89
8031.00,0.89
8030.00,0.89
8029.00,0.89
8028.00,0.89
8027.00,0.89
8026.00,0.89
8025.00,0.89
8024.00,0.88
8023.00,0.88
8022.00,0.88
8021.00,0.88
8020.00,0.87
8019.00,0.87
8018.00,0.87
8017.00,0.86
8016.00,0.86
8015.00,0.86
8014.00,0.85
8013.00,0.85
8012.00,0.84
8011.00,0.84
8010.00,0.83
8009.00,0.83
8008.00,0.82
8007.00,0.82
8006.00,0.82
8005.00,0.81
8004.00,0.81
8003.00,0.81
8002.00,0.81
8001.00,0.81
8000.00,0.80
7999.00,0.80
7998.00,0.80
7997.00,0.80
7996.00,0.80
7995.00,0.80
7994.00,0.80
7993.00,0.81
7992.00,0.81
7991.00,0.81
7990.00,0.81
7989.00,0.82
7988.00,0.82
7987.00,0.82
7986.00,0.83
7985.00,0.83
7984.00,0.83
7983.00,0.83
7982.00,0.84
7981.00,0.84
7980.00,0.84
7979.00,0.84
7978.00,0.85
7977.00,0.85
7976.00,0.85
7975.00,0.85
7974.00,0.86
7973.00,0.86
7972.00,0.86
7971.00,0.87
7970.00,0.87
7969.00,0.87
7968.00,0.88
7967.00,0.88
7966.00,0.88
7965.00,0.88
7964.00,0.88
7963.00,0.88
7962.00,0.88
7961.00,0.89
7960.00,0.89
7959.00,0.89
7958.00,0.89
7957.00,0.89
7956.00,0.89
7955.00,0.89
7954.00,0.89
7953.00,0.89
7952.00,0.89
7951.00,0.89
7950.00,0.90
7949.00,0.90
7948.00,0.90
7947.00,0.89
7946.00,0.89
7945.00,0.89
7944.00,0.89
7943.00,0.89
7942.00,0.89
7941.00,0.89
7940.00,0.89
7939.00,0.89
7938.00,0.89
7937.00,0.88
7936.00,0.88
7935.00,0.88
7934.00,0.88
7933.00,0.88
7932.00,0.88
7931.00,0.88
7930.00,0.88
7929.00,0.88
7928.00,0.88
7927.00,0.88
7926.00,0.88
7925.00,0.88
7924.00,0.88
7923.00,0.88
7922.00,0.87
7921.00,0.87
7920.00,0.87
7919.00,0.87
7918.00,0.87
7917.00,0.87
7916.00,0.87
7915.00,0.87
7914.00,0.87
7913.00,0.87
7912.00,0.87
7911.00,0.87
7910.00,0.87
7909.00,0.87
7908.00,0.87
7907.00,0.87
7906.00,0.88
7905.00,0.88
7904.00,0.88
7903.00,0.88
7902.00,0.88
7901.00,0.88
7900.00,0.89
7899.00,0.89
7898.00,0.89
7897.00,0.89
7896.00,0.89
7895.00,0.89
7894.00,0.89
7893.00,0.89
7892.00,0.89
7891.00,0.89
7890.00,0.89
7889.00,0.90
7888.00,0.90
7887.00,0.90
7886.00,0.90
7885.00,0.90
7884.00,0.90
7883.00,0.90
7882.00,0.91
7881.00,0.91
7880.00,0.91
7879.00,0.91
7878.00,0.90
7877.00,0.90
7876.00,0.90
7875.00,0.90
7874.00,0.90
7873.00,0.89
7872.00,0.89
7871.00,0.89
7870.00,0.89
7869.00,0.89
7868.00,0.89
7867.00,0.89
7866.00,0.89
7865.00,0.90
7864.00,0.90
7863.00,0.90
7862.00,0.90
7861.00,0.90
7860.00,0.90
7859.00,0.90
7858.00,0.90
7857.00,0.89
7856.00,0.89
7855.00,0.89
7854.00,0.89
7853.00,0.89
7852.00,0.89
7851.00,0.89
7850.00,0.89
7849.00,0.89
7848.00,0.89
7847.00,0.90
7846.00,0.90
7845.00,0.90
7844.00,0.90
7843.00,0.90
7842.00,0.90
7841.00,0.90
7840.00,0.90
7839.00,0.89
7838.00,0.89
7837.00,0.89
7836.00,0.89
7835.00,0.89
7834.00,0.89
7833.00,0.89
7832.00,0.89
7831.00,0.89
7830.00,0.89
7829.00,0.89
7828.00,0.90
7827.00,0.90
7826.00,0.90
7825.00,0.90
7824.00,0.90
7823.00,0.90
7822.00,0.90
7821.00,0.91
7820.00,0.91
7819.00,0.91
7818.00,0.91
7817.00,0.91
7816.00,0.91
7815.00,0.91
7814.00,0.91
7813.00,0.91
7812.00,0.91
7811.00,0.91
7810.00,0.92
7809.00,0.92
7808.00,0.92
7807.00,0.92
7806.00,0.92
7805.00,0.92
7804.00,0.92
7803.00,0.92
7802.00,0.92
7801.00,0.92
7800.00,0.92
7799.00,0.92
7798.00,0.92
7797.00,0.92
7796.00,0.92
7795.00,0.91
7794.00,0.91
7793.00,0.91
7792.00,0.91
7791.00,0.91
7790.00,0.91
7789.00,0.91
7788.00,0.91
7787.00,0.91
7786.00,0.91
7785.00,0.91
7784.00,0.91
7783.00,0.91
7782.00,0.91
7781.00,0.91
7780.00,0.91
7779.00,0.90
7778.00,0.90
7777.00,0.90
7776.00,0.90
7775.00,0.90
7774.00,0.90
7773.00,0.90
7772.00,0.91
7771.00,0.91
7770.00,0.91
7769.00,0.91
7768.00,0.91
7767.00,0.91
7766.00,0.92
7765.00,0.92
7764.00,0.92
7763.00,0.92
7762.00,0.93
7761.00,0.93
7760.00,0.93
7759.00,0.94
7758.00,0.94
7757.00,0.94
7756.00,0.94
7755.00,0.95
7754.00,0.95
7753.00,0.95
7752.00,0.95
7751.00,0.95
7750.00,0.95
7749.00,0.95
7748.00,0.96
7747.00,0.96
7746.00,0.96
7745.00,0.96
7744.00,0.96
7743.00,0.96
7742.00,0.96
7741.00,0.96
7740.00,0.96
7739.00,0.96
7738.00,0.96
7737.00,0.95
7736.00,0.95
7735.00,0.95
7734.00,0.95
7733.00,0.95
7732.00,0.95
7731.00,0.94
7730.00,0.94
7729.00,0.94
7728.00,0.94
7727.00,0.94
7726.00,0.94
7725.00,0.94
7724.00,0.94
7723.00,0.93
7722.00,0.93
7721.00,0.93
7720.00,0.93
7719.00,0.93
7718.00,0.93
7717.00,0.92
7716.00,0.92
7715.00,0.92
7714.00,0.92
7713.00,0.92
7712.00,0.92
7711.00,0.92
7710.00,0.91
7709.00,0.91
7708.00,0.91
7707.00,0.91
7706.00,0.91
7705.00,0.91
7704.00,0.91
7703.00,0.91
7702.00,0.91
7701.00,0.90
7700.00,0.90
7699.00,0.90
7698.00,0.90
7697.00,0.90
7696.00,0.90
7695.00,0.90
7694.00,0.90
7693.00,0.90
7692.00,0.90
7691.00,0.90
7690.00,0.90
7689.00,0.90
7688.00,0.90
7687.00,0.90
7686.00,0.90
7685.00,0.90
7684.00,0.90
7683.00,0.90
7682.00,0.90
7681.00,0.90
7680.00,0.90
7679.00,0.90
7678.00,0.90
7677.00,0.90
7676.00,0.90
7675.00,0.90
7674.00,0.90
7673.00,0.90
7672.00,0.90
7671.00,0.90
7670.00,0.90
7669.00,0.90
7668.00,0.90
7667.00,0.90
7666.00,0.90
7665.00,0.90
7664.00,0.90
7663.00,0.90
7662.00,0.90
7661.00,0.90
7660.00,0.90
7659.00,0.90
7658.00,0.90
7657.00,0.90
7656.00,0.90
7655.00,0.90
7654.00,0.90
7653.00,0.90
7652.00,0.90
7651.00,0.90
7650.00,0.90
7649.00,0.90
7648.00,0.90
7647.00,0.90
7646.00,0.90
7645.00,0.90
7644.00,0.90
7643.00,0.90
7642.00,0.90
7641.00,0.90
7640.00,0.90
7639.00,0.90
7638.00,0.90
7637.00,0.90
7636.00,0.90
7635.00,0.90
7634.00,0.90
7633.00,0.91
7632.00,0.91
7631.00,0.91
7630.00,0.91
7629.00,0.91
7628.00,0.91
7627.00,0.91
7626.00,0.92
7625.00,0.92
7624.00,0.92
7623.00,0.92
7622.00,0.92
7621.00,0.92
7620.00,0.92
7619.00,0.92
7618.00,0.92
7617.00,0.92
7616.00,0.92
7615.00,0.92
7614.00,0.92
7613.00,0.92
7612.00,0.92
7611.00,0.92
7610.00,0.92
7609.00,0.92
7608.00,0.92
7607.00,0.92
7606.00,0.92
7605.00,0.91
7604.00,0.91
7603.00,0.91
7602.00,0.91
7601.00,0.91
7600.00,0.91
7599.00,0.90
7598.00,0.90
7597.00,0.90
7596.00,0.90
7595.00,0.90
7594.00,0.90
7593.00,0.90
7592.00,0.90
7591.00,0.89
7590.00,0.89
7589.00,0.89
7588.00,0.89
7587.00,0.89
7586.00,0.89
7585.00,0.89
7584.00,0.89
7583.00,0.88
7582.00,0.88
7581.00,0.88
7580.00,0.88
7579.00,0.88
7578.00,0.88
7577.00,0.88
7576.00,0.87
7575.00,0.87
7574.00,0.87
7573.00,0.87
7572.00,0.87
7571.00,0.87
7570.00,0.86
7569.00,0.86
7568.00,0.86
7567.00,0.86
7566.00,0.86
7565.00,0.86
7564.00,0.86
7563.00,0.86
7562.00,0.86
7561.00,0.86
7560.00,0.87
7559.00,0.87
7558.00,0.87
7557.00,0.87
7556.00,0.87
7555.00,0.87
7554.00,0.87
7553.00,0.88
7552.00,0.88
7551.00,0.88
7550.00,0.88
7549.00,0.88
7548.00,0.88
7547.00,0.89
7546.00,0.89
7545.00,0.89
7544.00,0.89
7543.00,0.89
7542.00,0.89
7541.00,0.89
7540.00,0.89
7539.00,0.89
7538.00,0.89
7537.00,0.89
7536.00,0.89
7535.00,0.89
7534.00,0.89
7533.00,0.89
7532.00,0.89
7531.00,0.89
7530.00,0.89
7529.00,0.89
7528.00,0.88
7527.00,0.88
7526.00,0.88
7525.00,0.88
7524.00,0.89
7523.00,0.89
7522.00,0.89
7521.00,0.89
7520.00,0.89
7519.00,0.89
7518.00,0.89
7517.00,0.90
7516.00,0.90
7515.00,0.90
7514.00,0.90
7513.00,0.91
7512.00,0.91
7511.00,0.91
7510.00,0.91
7509.00,0.92
7508.00,0.92
7507.00,0.92
7506.00,0.93
7505.00,0.93
7504.00,0.93
7503.00,0.93
7502.00,0.94
7501.00,0.94
7500.00,0.94
7499.00,0.94
7498.00,0.94
7497.00,0.94
7496.00,0.93
7495.00,0.93
7494.00,0.93
7493.00,0.93
7492.00,0.92
7491.00,0.92
7490.00,0.91
7489.00,0.91
7488.00,0.91
7487.00,0.90
7486.00,0.90
7485.00,0.89
7484.00,0.89
7483.00,0.88
7482.00,0.88
7481.00,0.87
7480.00,0.87
7479.00,0.87
7478.00,0.86
7477.00,0.86
7476.00,0.85
7475.00,0.85
7474.00,0.85
7473.00,0.84
7472.00,0.84
7471.00,0.84
7470.00,0.84
7469.00,0.83
7468.00,0.83
7467.00,0.83
7466.00,0.83
7465.00,0.83
7464.00,0.83
7463.00,0.83
7462.00,0.83
7461.00,0.84
7460.00,0.84
7459.00,0.84
7458.00,0.84
7457.00,0.84
7456.00,0.85
7455.00,0.85
7454.00,0.85
7453.00,0.85
7452.00,0.86
7451.00,0.86
7450.00,0.86
7449.00,0.86
7448.00,0.87
7447.00,0.87
7446.00,0.87
7445.00,0.88
7444.00,0.88
7443.00,0.88
7442.00,0.89
7441.00,0.89
7440.00,0.89
7439.00,0.89
7438.00,0.89
7437.00,0.90
7436.00,0.90
7435.00,0.90
7434.00,0.90
7433.00,0.90
7432.00,0.89
7431.00,0.89
7430.00,0.89
7429.00,0.89
7428.00,0.88
7427.00,0.88
7426.00,0.88
7425.00,0.87
7424.00,0.87
7423.00,0.87
7422.00,0.86
7421.00,0.86
7420.00,0.85
7419.00,0.85
7418.00,0.84
7417.00,0.84
7416.00,0.83
7415.00,0.83
7414.00,0.82
7413.00,0.82
7412.00,0.81
7411.00,0.81
7410.00,0.81
7409.00,0.81
7408.00,0.80
7407.00,0.80
7406.00,0.80
7405.00,0.80
7404.00,0.80
7403.00,0.80
7402.00,0.80
7401.00,0.81
7400.00,0.81
7399.00,0.81
7398.00,0.81
7397.00,0.82
7396.00,0.82
7395.00,0.82
7394.00,0.83
7393.00,0.83
7392.00,0.84
7391.00,0.84
7390.00,0.85
7389.00,0.85
7388.00,0.86
7387.00,0.87
7386.00,0.87
7385.00,0.87
7384.00,0.88
7383.00,0.88
7382.00,0.88
7381.00,0.89
7380.00,0.89
7379.00,0.89
7378.00,0.89
7377.00,0.90
7376.00,0.90
7375.00,0.90
7374.00,0.90
7373.00,0.90
7372.00,0.90
7371.00,0.90
7370.00,0.90
7369.00,0.90
7368.00,0.90
7367.00,0.90
7366.00,0.90
7365.00,0.90
7364.00,0.90
7363.00,0.90
7362.00,0.90
7361.00,0.90
7360.00,0.90
7359.00,0.89
7358.00,0.89
7357.00,0.89
7356.00,0.89
7355.00,0.89
7354.00,0.89
7353.00,0.89
7352.00,0.89
7351.00,0.89
7350.00,0.89
7349.00,0.89
7348.00,0.89
7347.00,0.89
7346.00,0.88
7345.00,0.88
7344.00,0.88
7343.00,0.88
7342.00,0.88
7341.00,0.88
7340.00,0.87
7339.00,0.87
7338.00,0.87
7337.00,0.87
7336.00,0.86
7335.00,0.86
7334.00,0.86
7333.00,0.85
7332.00,0.85
7331.00,0.85
7330.00,0.84
7329.00,0.84
7328.00,0.84
7327.00,0.84
7326.00,0.83
7325.00,0.83
7324.00,0.83
7323.00,0.83
7322.00,0.83
7321.00,0.83
7320.00,0.83
7319.00,0.83
7318.00,0.83
7317.00,0.83
7316.00,0.83
7315.00,0.83
7314.00,0.83
7313.00,0.84
7312.00,0.84
7311.00,0.84
7310.00,0.84
7309.00,0.84
7308.00,0.85
7307.00,0.85
7306.00,0.85
7305.00,0.85
7304.00,0.86
7303.00,0.86
7302.00,0.86
7301.00,0.86
7300.00,0.86
7299.00,0.86
7298.00,0.86
7297.00,0.86
7296.00,0.86
7295.00,0.86
7294.00,0.86
7293.00,0.85
7292.00,0.85
7291.00,0.85
7290.00,0.85
7289.00,0.85
7288.00,0.84
7287.00,0.84
7286.00,0.84
7285.00,0.84
7284.00,0.84
7283.00,0.84
7282.00,0.83
7281.00,0.83
7280.00,0.83
7279.00,0.83
7278.00,0.83
7277.00,0.83
7276.00,0.82
7275.00,0.82
7274.00,0.82
7273.00,0.82
7272.00,0.82
7271.00,0.82
7270.00,0.83
7269.00,0.83
7268.00,0.83
7267.00,0.83
7266.00,0.83
7265.00,0.83
7264.00,0.83
7263.00,0.83
7262.00,0.84
7261.00,0.84
7260.00,0.84
7259.00,0.84
7258.00,0.84
7257.00,0.84
7256.00,0.84
7255.00,0.85
7254.00,0.85
7253.00,0.85
7252.00,0.85
7251.00,0.86
7250.00,0.86
7249.00,0.86
7248.00,0.86
7247.00,0.86
7246.00,0.86
7245.00,0.86
7244.00,0.87
7243.00,0.87
7242.00,0.87
7241.00,0.87
7240.00,0.87
7239.00,0.87
7238.00,0.86
7237.00,0.86
7236.00,0.86
7235.00,0.86
7234.00,0.86
7233.00,0.85
7232.00,0.85
7231.00,0.85
7230.00,0.84
7229.00,0.84
7228.00,0.83
7227.00,0.83
7226.00,0.82
7225.00,0.82
7224.00,0.81
7223.00,0.81
7222.00,0.80
7221.00,0.80
7220.00,0.79
7219.00,0.79
7218.00,0.78
7217.00,0.77
7216.00,0.77
7215.00,0.76
7214.00,0.76
7213.00,0.75
7212.00,0.75
7211.00,0.74
7210.00,0.74
7209.00,0.74
7208.00,0.73
7207.00,0.73
7206.00,0.73
7205.00,0.72
7204.00,0.72
7203.00,0.72
7202.00,0.71
7201.00,0.71
7200.00,0.71
7199.00,0.71
7198.00,0.70
7197.00,0.70
7196.00,0.70
7195.00,0.70
7194.00,0.70
7193.00,0.70
7192.00,0.70
7191.00,0.70
7190.00,0.70
7189.00,0.70
7188.00,0.70
7187.00,0.70
7186.00,0.70
7185.00,0.70
7184.00,0.70
7183.00,0.70
7182.00,0.70
7181.00,0.70
7180.00,0.70
7179.00,0.70
7178.00,0.70
7177.00,0.70
7176.00,0.70
7175.00,0.70
7174.00,0.70
7173.00,0.70
7172.00,0.70
7171.00,0.70
7170.00,0.70
7169.00,0.70
7168.00,0.70
7167.00,0.70
7166.00,0.70
7165.00,0.70
7164.00,0.70
7163.00,0.70
7162.00,0.70
7161.00,0.70
7160.00,0.70
7159.00,0.69
7158.00,0.69
7157.00,0.69
7156.00,0.69
7155.00,0.68
7154.00,0.68
7153.00,0.68
7152.00,0.68
7151.00,0.67
7150.00,0.67
7149.00,0.67
7148.00,0.67
7147.00,0.67
7146.00,0.66
7145.00,0.66
7144.00,0.66
7143.00,0.66
7142.00,0.65
7141.00,0.65
7140.00,0.65
7139.00,0.64
7138.00,0.64
7137.00,0.64
7136.00,0.63
7135.00,0.63
7134.00,0.63
7133.00,0.62
7132.00,0.62
7131.00,0.62
7130.00,0.62
7129.00,0.61
7128.00,0.61
7127.00,0.61
7126.00,0.61
7125.00,0.60
7124.00,0.60
7123.00,0.60
7122.00,0.60
7121.00,0.60
7120.00,0.60
7119.00,0.59
7118.00,0.59
7117.00,0.59
7116.00,0.59
7115.00,0.59
7114.00,0.59
7113.00,0.59
7112.00,0.58
7111.00,0.58
7110.00,0.58
7109.00,0.58
7108.00,0.58
7107.00,0.58
7106.00,0.58
7105.00,0.58
7104.00,0.58
7103.00,0.58
7102.00,0.58
7101.00,0.58
7100.00,0.58
7099.00,0.58
7098.00,0.58
7097.00,0.57
7096.00,0.57
7095.00,0.57
7094.00,0.57
7093.00,0.57
7092.00,0.57
7091.00,0.57
7090.00,0.57
7089.00,0.57
7088.00,0.56
7087.00,0.56
7086.00,0.56
7085.00,0.56
7084.00,0.56
7083.00,0.56
7082.00,0.56
7081.00,0.56
7080.00,0.56
7079.00,0.56
7078.00,0.56
7077.00,0.56
7076.00,0.56
7075.00,0.56
7074.00,0.56
7073.00,0.56
7072.00,0.56
7071.00,0.56
7070.00,0.56
7069.00,0.56
7068.00,0.56
7067.00,0.56
7066.00,0.56
7065.00,0.56
7064.00,0.56
7063.00,0.56
7062.00,0.56
7061.00,0.56
7060.00,0.56
7059.00,0.56
7058.00,0.56
7057.00,0.56
7056.00,0.57
7055.00,0.57
7054.00,0.57
7053.00,0.57
7052.00,0.57
7051.00,0.57
7050.00,0.57
7049.00,0.57
7048.00,0.57
7047.00,0.57
7046.00,0.57
7045.00,0.57
7044.00,0.56
7043.00,0.56
7042.00,0.56
7041.00,0.56
7040.00,0.56
7039.00,0.56
7038.00,0.56
7037.00,0.55
7036.00,0.55
7035.00,0.55
7034.00,0.55
7033.00,0.55
7032.00,0.55
7031.00,0.54
7030.00,0.54
7029.00,0.54
7028.00,0.54
7027.00,0.54
7026.00,0.53
7025.00,0.53
7024.00,0.53
7023.00,0.53
7022.00,0.52
7021.00,0.52
7020.00,0.52
7019.00,0.52
7018.00,0.52
7017.00,0.52
7016.00,0.52
7015.00,0.51
7014.00,0.51
7013.00,0.51
7012.00,0.51
7011.00,0.51
7010.00,0.51
7009.00,0.51
7008.00,0.51
7007.00,0.51
7006.00,0.51
7005.00,0.51
7004.00,0.51
7003.00,0.51
7002.00,0.51
7001.00,0.51
7000.00,0.51
6999.00,0.51
6998.00,0.51
6997.00,0.51
6996.00,0.51
6995.00,0.51
6994.00,0.51
6993.00,0.52
6992.00,0.52
6991.00,0.52
6990.00,0.52
6989.00,0.52
6988.00,0.52
6987.00,0.52
6986.00,0.52
6985.00,0.52
6984.00,0.52
6983.00,0.52
6982.00,0.52
6981.00,0.52
6980.00,0.52
6979.00,0.52
6978.00,0.52
6977.00,0.52
6976.00,0.51
6975.00,0.51
6974.00,0.51
6973.00,0.51
6972.00,0.51
6971.00,0.51
6970.00,0.50
6969.00,0.50
6968.00,0.50
6967.00,0.50
6966.00,0.50
6965.00,0.50
6964.00,0.49
6963.00,0.49
6962.00,0.49
6961.00,0.49
6960.00,0.49
6959.00,0.48
6958.00,0.48
6957.00,0.48
6956.00,0.48
6955.00,0.48
6954.00,0.48
6953.00,0.48
6952.00,0.48
6951.00,0.48
6950.00,0.48
6949.00,0.48
6948.00,0.48
6947.00,0.48
6946.00,0.48
6945.00,0.48
6944.00,0.48
6943.00,0.48
6942.00,0.47
6941.00,0.47
6940.00,0.47
6939.00,0.47
6938.00,0.47
6937.00,0.47
6936.00,0.47
6935.00,0.47
6934.00,0.47
6933.00,0.47
6932.00,0.47
6931.00,0.47
6930.00,0.47
6929.00,0.47
6928.00,0.47
6927.00,0.47
6926.00,0.48
6925.00,0.48
6924.00,0.48
6923.00,0.48
6922.00,0.48
6921.00,0.48
6920.00,0.48
6919.00,0.48
6918.00,0.48
6917.00,0.48
6916.00,0.48
6915.00,0.49
6914.00,0.49
6913.00,0.49
6912.00,0.49
6911.00,0.49
6910.00,0.49
6909.00,0.49
6908.00,0.50
6907.00,0.50
6906.00,0.50
6905.00,0.50
6904.00,0.50
6903.00,0.50
6902.00,0.50
6901.00,0.50
6900.00,0.50
6899.00,0.50
6898.00,0.50
6897.00,0.50
6896.00,0.50
6895.00,0.50
6894.00,0.50
6893.00,0.50
6892.00,0.50
6891.00,0.49
6890.00,0.49
6889.00,0.49
6888.00,0.49
6887.00,0.48
6886.00,0.48
6885.00,0.48
6884.00,0.48
6883.00,0.47
6882.00,0.47
6881.00,0.47
6880.00,0.46
6879.00,0.46
6878.00,0.46
6877.00,0.46
6876.00,0.46
6875.00,0.45
6874.00,0.45
6873.00,0.45
6872.00,0.45
6871.00,0.45
6870.00,0.45
6869.00,0.45
6868.00,0.45
6867.00,0.45
6866.00,0.45
6865.00,0.45
6864.00,0.45
6863.00,0.45
6862.00,0.45
6861.00,0.46
6860.00,0.46
6859.00,0.46
6858.00,0.46
6857.00,0.46
6856.00,0.46
6855.00,0.46
6854.00,0.46
6853.00,0.46
6852.00,0.47
6851.00,0.47
6850.00,0.47
6849.00,0.47
6848.00,0.47
6847.00,0.47
6846.00,0.47
6845.00,0.47
6844.00,0.47
6843.00,0.47
6842.00,0.47
6841.00,0.47
6840.00,0.47
6839.00,0.46
6838.00,0.46
6837.00,0.46
6836.00,0.46
6835.00,0.46
6834.00,0.46
6833.00,0.46
6832.00,0.46
6831.00,0.46
6830.00,0.46
6829.00,0.46
6828.00,0.46
6827.00,0.46
6826.00,0.46
6825.00,0.46
6824.00,0.46
6823.00,0.45
6822.00,0.45
6821.00,0.45
6820.00,0.45
6819.00,0.45
6818.00,0.45
6817.00,0.45
6816.00,0.45
6815.00,0.45
6814.00,0.45
6813.00,0.45
6812.00,0.45
6811.00,0.45
6810.00,0.45
6809.00,0.45
6808.00,0.45
6807.00,0.46
6806.00,0.46
6805.00,0.46
6804.00,0.46
6803.00,0.46
6802.00,0.46
6801.00,0.46
6800.00,0.46
6799.00,0.46
6798.00,0.46
6797.00,0.46
6796.00,0.47
6795.00,0.47
6794.00,0.47
6793.00,0.47
6792.00,0.47
6791.00,0.47
6790.00,0.47
6789.00,0.47
6788.00,0.47
6787.00,0.47
6786.00,0.47
6785.00,0.47
6784.00,0.47
6783.00,0.47
6782.00,0.47
6781.00,0.47
6780.00,0.47
6779.00,0.47
6778.00,0.47
6777.00,0.47
6776.00,0.47
6775.00,0.47
6774.00,0.47
6773.00,0.47
6772.00,0.47
6771.00,0.47
6770.00,0.47
6769.00,0.47
6768.00,0.47
6767.00,0.47
6766.00,0.47
6765.00,0.47
6764.00,0.47
6763.00,0.47
6762.00,0.47
6761.00,0.47
6760.00,0.47
6759.00,0.47
6758.00,0.47
6757.00,0.47
6756.00,0.47
6755.00,0.47
6754.00,0.47
6753.00,0.47
6752.00,0.47
6751.00,0.48
6750.00,0.48
6749.00,0.48
6748.00,0.48
6747.00,0.48
6746.00,0.48
6745.00,0.48
6744.00,0.48
6743.00,0.49
6742.00,0.49
6741.00,0.49
6740.00,0.49
6739.00,0.49
6738.00,0.49
6737.00,0.49
6736.00,0.49
6735.00,0.49
6734.00,0.50
6733.00,0.50
6732.00,0.50
6731.00,0.50
6730.00,0.50
6729.00,0.50
6728.00,0.50
6727.00,0.50
6726.00,0.50
6725.00,0.50
6724.00,0.50
6723.00,0.50
6722.00,0.50
6721.00,0.50
6720.00,0.50
6719.00,0.50
6718.00,0.50
6717.00,0.49
6716.00,0.49
6715.00,0.49
6714.00,0.49
6713.00,0.49
6712.00,0.49
6711.00,0.49
6710.00,0.49
6709.00,0.48
6708.00,0.48
6707.00,0.48
6706.00,0.48
6705.00,0.48
6704.00,0.48
6703.00,0.48
6702.00,0.48
6701.00,0.48
6700.00,0.48
6699.00,0.48
6698.00,0.48
6697.00,0.48
6696.00,0.49
6695.00,0.49
6694.00,0.49
6693.00,0.49
6692.00,0.50
6691.00,0.50
6690.00,0.50
6689.00,0.51
6688.00,0.51
6687.00,0.51
6686.00,0.52
6685.00,0.52
6684.00,0.53
6683.00,0.53
6682.00,0.53
6681.00,0.54
6680.00,0.54
6679.00,0.55
6678.00,0.55
6677.00,0.56
6676.00,0.56
6675.00,0.57
6674.00,0.57
6673.00,0.57
6672.00,0.58
6671.00,0.58
6670.00,0.58
6669.00,0.58
6668.00,0.59
6667.00,0.59
6666.00,0.59
6665.00,0.59
6664.00,0.59
6663.00,0.59
6662.00,0.59
6661.00,0.59
6660.00,0.59
6659.00,0.59
6658.00,0.59
6657.00,0.59
6656.00,0.59
6655.00,0.59
6654.00,0.59
6653.00,0.59
6652.00,0.58
6651.00,0.58
6650.00,0.58
6649.00,0.58
6648.00,0.58
6647.00,0.58
6646.00,0.58
6645.00,0.58
6644.00,0.58
6643.00,0.58
6642.00,0.58
6641.00,0.58
6640.00,0.58
6639.00,0.58
6638.00,0.58
6637.00,0.58
6636.00,0.58
6635.00,0.59
6634.00,0.59
6633.00,0.59
6632.00,0.59
6631.00,0.59
6630.00,0.59
6629.00,0.59
6628.00,0.59
6627.00,0.59
6626.00,0.60
6625.00,0.60
6624.00,0.60
6623.00,0.60
6622.00,0.60
6621.00,0.60
6620.00,0.60
6619.00,0.60
6618.00,0.60
6617.00,0.60
6616.00,0.60
6615.00,0.60
6614.00,0.60
6613.00,0.60
6612.00,0.60
6611.00,0.60
6610.00,0.60
6609.00,0.60
6608.00,0.60
6607.00,0.60
6606.00,0.60
6605.00,0.60
6604.00,0.60
6603.00,0.60
6602.00,0.61
6601.00,0.61
6600.00,0.61
6599.00,0.61
6598.00,0.61
6597.00,0.62
6596.00,0.62
6595.00,0.62
6594.00,0.62
6593.00,0.62
6592.00,0.63
6591.00,0.63
6590.00,0.63
6589.00,0.63
6588.00,0.63
6587.00,0.63
6586.00,0.63
6585.00,0.63
6584.00,0.63
6583.00,0.63
6582.00,0.63
6581.00,0.62
6580.00,0.62
6579.00,0.62
6578.00,0.62
6577.00,0.62
6576.00,0.62
6575.00,0.61
6574.00,0.61
6573.00,0.61
6572.00,0.61
6571.00,0.61
6570.00,0.61
6569.00,0.60
6568.00,0.60
6567.00,0.60
6566.00,0.60
6565.00,0.60
6564.00,0.59
6563.00,0.59
6562.00,0.59
6561.00,0.59
6560.00,0.59
6559.00,0.59
6558.00,0.59
6557.00,0.59
6556.00,0.59
6555.00,0.59
6554.00,0.59
6553.00,0.59
6552.00,0.59
6551.00,0.59
6550.00,0.60
6549.00,0.60
6548.00,0.60
6547.00,0.60
6546.00,0.60
6545.00,0.60
6544.00,0.60
6543.00,0.60
6542.00,0.60
6541.00,0.61
6540.00,0.61
6539.00,0.61
6538.00,0.61
6537.00,0.61
6536.00,0.62
6535.00,0.62
6534.00,0.62
6533.00,0.62
6532.00,0.62
6531.00,0.62
6530.00,0.63
6529.00,0.63
6528.00,0.63
6527.00,0.63
6526.00,0.63
6525.00,0.63
6524.00,0.63
6523.00,0.64
6522.00,0.64
6521.00,0.64
6520.00,0.64
6519.00,0.64
6518.00,0.64
6517.00,0.64
6516.00,0.65
6515.00,0.65
6514.00,0.65
6513.00,0.65
6512.00,0.65
6511.00,0.65
6510.00,0.65
6509.00,0.65
6508.00,0.65
6507.00,0.66
6506.00,0.66
6505.00,0.66
6504.00,0.66
6503.00,0.66
6502.00,0.66
6501.00,0.66
6500.00,0.66
6499.00,0.66
6498.00,0.66
6497.00,0.66
6496.00,0.66
6495.00,0.66
6494.00,0.66
6493.00,0.66
6492.00,0.66
6491.00,0.66
6490.00,0.66
6489.00,0.66
6488.00,0.65
6487.00,0.65
6486.00,0.65
6485.00,0.65
6484.00,0.65
6483.00,0.65
6482.00,0.65
6481.00,0.65
6480.00,0.65
6479.00,0.65
6478.00,0.65
6477.00,0.65
6476.00,0.65
6475.00,0.65
6474.00,0.65
6473.00,0.65
6472.00,0.65
6471.00,0.65
6470.00,0.65
6469.00,0.65
6468.00,0.65
6467.00,0.65
6466.00,0.65
6465.00,0.65
6464.00,0.65
6463.00,0.65
6462.00,0.65
6461.00,0.65
6460.00,0.65
6459.00,0.65
6458.00,0.65
6457.00,0.65
6456.00,0.65
6455.00,0.65
6454.00,0.65
6453.00,0.65
6452.00,0.65
6451.00,0.65
6450.00,0.65
6449.00,0.65
6448.00,0.65
6447.00,0.65
6446.00,0.65
6445.00,0.65
6444.00,0.65
6443.00,0.66
6442.00,0.66
6441.00,0.66
6440.00,0.67
6439.00,0.67
6438.00,0.67
6437.00,0.68
6436.00,0.68
6435.00,0.68
6434.00,0.69
6433.00,0.69
6432.00,0.70
6431.00,0.70
6430.00,0.70
6429.00,0.71
6428.00,0.71
6427.00,0.71
6426.00,0.71
6425.00,0.72
6424.00,0.72
6423.00,0.72
6422.00,0.72
6421.00,0.72
6420.00,0.72
6419.00,0.73
6418.00,0.73
6417.00,0.73
6416.00,0.73
6415.00,0.73
6414.00,0.73
6413.00,0.73
6412.00,0.73
6411.00,0.72
6410.00,0.72
6409.00,0.72
6408.00,0.72
6407.00,0.72
6406.00,0.72
6405.00,0.72
6404.00,0.72
6403.00,0.72
6402.00,0.72
6401.00,0.72
6400.00,0.72
6399.00,0.71
6398.00,0.71
6397.00,0.71
6396.00,0.71
6395.00,0.71
6394.00,0.71
6393.00,0.71
6392.00,0.71
6391.00,0.71
6390.00,0.71
6389.00,0.71
6388.00,0.71
6387.00,0.71
6386.00,0.71
6385.00,0.71
6384.00,0.71
6383.00,0.71
6382.00,0.71
6381.00,0.71
6380.00,0.71
6379.00,0.71
6378.00,0.71
6377.00,0.71
6376.00,0.71
6375.00,0.71
6374.00,0.71
6373.00,0.72
6372.00,0.72
6371.00,0.72
6370.00,0.72
6369.00,0.72
6368.00,0.72
6367.00,0.72
6366.00,0.72
6365.00,0.72
6364.00,0.73
6363.00,0.73
6362.00,0.73
6361.00,0.73
6360.00,0.73
6359.00,0.73
6358.00,0.73
6357.00,0.73
6356.00,0.74
6355.00,0.74
6354.00,0.74
6353.00,0.74
6352.00,0.74
6351.00,0.74
6350.00,0.74
6349.00,0.74
6348.00,0.74
6347.00,0.75
6346.00,0.75
6345.00,0.75
6344.00,0.75
6343.00,0.75
6342.00,0.75
6341.00,0.75
6340.00,0.75
6339.00,0.75
6338.00,0.75
6337.00,0.75
6336.00,0.75
6335.00,0.75
6334.00,0.75
6333.00,0.75
6332.00,0.75
6331.00,0.75
6330.00,0.75
6329.00,0.75
6328.00,0.75
6327.00,0.75
6326.00,0.75
6325.00,0.75
6324.00,0.75
6323.00,0.75
6322.00,0.75
6321.00,0.76
6320.00,0.76
6319.00,0.76
6318.00,0.76
6317.00,0.76
6316.00,0.76
6315.00,0.76
6314.00,0.76
6313.00,0.76
6312.00,0.76
6311.00,0.76
6310.00,0.76
6309.00,0.76
6308.00,0.76
6307.00,0.76
6306.00,0.76
6305.00,0.76
6304.00,0.76
6303.00,0.76
6302.00,0.77
6301.00,0.77
6300.00,0.77
6299.00,0.77
6298.00,0.77
6297.00,0.77
6296.00,0.77
6295.00,0.77
6294.00,0.77
6293.00,0.77
6292.00,0.78
6291.00,0.78
6290.00,0.78
6289.00,0.78
6288.00,0.78
6287.00,0.78
6286.00,0.78
6285.00,0.79
6284.00,0.79
6283.00,0.79
6282.00,0.79
6281.00,0.79
6280.00,0.79
6279.00,0.79
6278.00,0.79
6277.00,0.79
6276.00,0.79
6275.00,0.79
6274.00,0.79
6273.00,0.79
6272.00,0.79
6271.00,0.79
6270.00,0.79
6269.00,0.79
6268.00,0.79
6267.00,0.79
6266.00,0.79
6265.00,0.79
6264.00,0.79
6263.00,0.79
6262.00,0.79
6261.00,0.79
6260.00,0.79
6259.00,0.79
6258.00,0.79
6257.00,0.79
6256.00,0.79
6255.00,0.79
6254.00,0.79
6253.00,0.79
6252.00,0.79
6251.00,0.79
6250.00,0.79
6249.00,0.79
6248.00,0.79
6247.00,0.79
6246.00,0.79
6245.00,0.79
6244.00,0.79
6243.00,0.79
6242.00,0.79
6241.00,0.79
6240.00,0.79
6239.00,0.79
6238.00,0.79
6237.00,0.79
6236.00,0.79
6235.00,0.79
6234.00,0.79
6233.00,0.79
6232.00,0.79
6231.00,0.79
6230.00,0.80
6229.00,0.80
6228.00,0.80
6227.00,0.80
6226.00,0.80
6225.00,0.80
6224.00,0.80
6223.00,0.80
6222.00,0.81
6221.00,0.81
6220.00,0.81
6219.00,0.81
6218.00,0.81
6217.00,0.81
6216.00,0.81
6215.00,0.81
6214.00,0.82
6213.00,0.82
6212.00,0.82
6211.00,0.82
6210.00,0.82
6209.00,0.82
6208.00,0.82
6207.00,0.82
6206.00,0.82
6205.00,0.83
6204.00,0.83
6203.00,0.83
6202.00,0.83
6201.00,0.83
6200.00,0.83
6199.00,0.83
6198.00,0.83
6197.00,0.83
6196.00,0.83
6195.00,0.83
6194.00,0.83
6193.00,0.84
6192.00,0.84
6191.00,0.84
6190.00,0.84
6189.00,0.84
6188.00,0.84
6187.00,0.84
6186.00,0.84
6185.00,0.84
6184.00,0.85
6183.00,0.85
6182.00,0.85
6181.00,0.85
6180.00,0.85
6179.00,0.85
6178.00,0.85
6177.00,0.85
6176.00,0.85
6175.00,0.85
6174.00,0.85
6173.00,0.85
6172.00,0.84
6171.00,0.84
6170.00,0.84
6169.00,0.84
6168.00,0.84
6167.00,0.84
6166.00,0.84
6165.00,0.84
6164.00,0.84
6163.00,0.83
6162.00,0.83
6161.00,0.83
6160.00,0.83
6159.00,0.83
6158.00,0.83
6157.00,0.83
6156.00,0.83
6155.00,0.83
6154.00,0.83
6153.00,0.83
6152.00,0.83
6151.00,0.84
6150.00,0.84
6149.00,0.84
6148.00,0.84
6147.00,0.84
6146.00,0.85
6145.00,0.85
6144.00,0.85
6143.00,0.85
6142.00,0.85
6141.00,0.86
6140.00,0.86
6139.00,0.86
6138.00,0.86
6137.00,0.87
6136.00,0.87
6135.00,0.87
6134.00,0.87
6133.00,0.88
6132.00,0.88
6131.00,0.88
6130.00,0.88
6129.00,0.88
6128.00,0.89
6127.00,0.89
6126.00,0.89
6125.00,0.89
6124.00,0.89
6123.00,0.89
6122.00,0.89
6121.00,0.89
6120.00,0.89
6119.00,0.89
6118.00,0.89
6117.00,0.89
6116.00,0.89
6115.00,0.89
6114.00,0.89
6113.00,0.89
6112.00,0.89
6111.00,0.90
6110.00,0.90
6109.00,0.90
6108.00,0.90
6107.00,0.90
6106.00,0.90
6105.00,0.90
6104.00,0.90
6103.00,0.90
6102.00,0.90
6101.00,0.90
6100.00,0.90
6099.00,0.90
6098.00,0.91
6097.00,0.91
6096.00,0.91
6095.00,0.91
6094.00,0.91
6093.00,0.91
6092.00,0.91
6091.00,0.92
6090.00,0.92
6089.00,0.92
6088.00,0.92
6087.00,0.92
6086.00,0.92
6085.00,0.92
6084.00,0.92
6083.00,0.92
6082.00,0.92
6081.00,0.92
6080.00,0.92
6079.00,0.92
6078.00,0.92
6077.00,0.92
6076.00,0.92
6075.00,0.92
6074.00,0.92
6073.00,0.92
6072.00,0.92
6071.00,0.92
6070.00,0.92
6069.00,0.92
6068.00,0.92
6067.00,0.92
6066.00,0.92
6065.00,0.92
6064.00,0.92
6063.00,0.92
6062.00,0.92
6061.00,0.92
6060.00,0.92
6059.00,0.92
6058.00,0.93
6057.00,0.93
6056.00,0.93
6055.00,0.93
6054.00,0.93
6053.00,0.93
6052.00,0.93
6051.00,0.93
6050.00,0.93
6049.00,0.93
6048.00,0.93
6047.00,0.93
6046.00,0.93
6045.00,0.93
6044.00,0.93
6043.00,0.93
6042.00,0.93
6041.00,0.93
6040.00,0.93
6039.00,0.93
6038.00,0.93
6037.00,0.93
6036.00,0.93
6035.00,0.93
6034.00,0.93
6033.00,0.93
6032.00,0.93
6031.00,0.93
6030.00,0.92
6029.00,0.92
6028.00,0.92
6027.00,0.92
6026.00,0.92
6025.00,0.92
6024.00,0.92
6023.00,0.92
6022.00,0.93
6021.00,0.93
6020.00,0.93
6019.00,0.93
6018.00,0.93
6017.00,0.93
6016.00,0.93
6015.00,0.93
6014.00,0.93
6013.00,0.93
6012.00,0.93
6011.00,0.93
6010.00,0.93
6009.00,0.93
6008.00,0.93
6007.00,0.93
6006.00,0.93
6005.00,0.93
6004.00,0.93
6003.00,0.93
6002.00,0.93
6001.00,0.93
6000.00,0.93
5999.00,0.93
5998.00,0.93
5997.00,0.93
5996.00,0.93
5995.00,0.93
5994.00,0.93
5993.00,0.93
5992.00,0.93
5991.00,0.93
5990.00,0.93
5989.00,0.92
5988.00,0.92
5987.00,0.92
5986.00,0.92
5985.00,0.92
5984.00,0.92
5983.00,0.92
5982.00,0.92
5981.00,0.91
5980.00,0.91
5979.00,0.91
5978.00,0.91
5977.00,0.91
5976.00,0.90
5975.00,0.90
5974.00,0.90
5973.00,0.90
5972.00,0.89
5971.00,0.89
5970.00,0.89
5969.00,0.88
5968.00,0.88
5967.00,0.87
5966.00,0.87
5965.00,0.87
5964.00,0.86
5963.00,0.86
5962.00,0.85
5961.00,0.85
5960.00,0.84
5959.00,0.84
5958.00,0.83
5957.00,0.83
5956.00,0.83
5955.00,0.82
5954.00,0.82
5953.00,0.82
5952.00,0.81
5951.00,0.81
5950.00,0.81
5949.00,0.80
5948.00,0.80
5947.00,0.80
5946.00,0.80
5945.00,0.80
5944.00,0.80
5943.00,0.80
5942.00,0.80
5941.00,0.80
5940.00,0.79
5939.00,0.79
5938.00,0.79
5937.00,0.79
5936.00,0.79
5935.00,0.79
5934.00,0.79
5933.00,0.79
5932.00,0.79
5931.00,0.79
5930.00,0.79
5929.00,0.79
5928.00,0.79
5927.00,0.79
5926.00,0.79
5925.00,0.79
5924.00,0.79
5923.00,0.79
5922.00,0.79
5921.00,0.79
5920.00,0.79
5919.00,0.79
5918.00,0.79
5917.00,0.79
5916.00,0.78
5915.00,0.78
5914.00,0.78
5913.00,0.78
5912.00,0.78
5911.00,0.78
5910.00,0.78
5909.00,0.78
5908.00,0.78
5907.00,0.78
5906.00,0.78
5905.00,0.78
5904.00,0.78
5903.00,0.78
5902.00,0.78
5901.00,0.78
5900.00,0.78
5899.00,0.78
5898.00,0.78
5897.00,0.78
5896.00,0.78
5895.00,0.78
5894.00,0.78
5893.00,0.78
5892.00,0.78
5891.00,0.78
5890.00,0.78
5889.00,0.78
5888.00,0.78
5887.00,0.79
5886.00,0.79
5885.00,0.79
5884.00,0.79
5883.00,0.79
5882.00,0.79
5881.00,0.79
5880.00,0.79
5879.00,0.79
5878.00,0.79
5877.00,0.80
5876.00,0.80
5875.00,0.80
5874.00,0.80
5873.00,0.80
5872.00,0.80
5871.00,0.80
5870.00,0.80
5869.00,0.80
5868.00,0.80
5867.00,0.81
5866.00,0.81
5865.00,0.81
5864.00,0.81
5863.00,0.81
5862.00,0.81
5861.00,0.81
5860.00,0.82
5859.00,0.82
5858.00,0.82
5857.00,0.82
5856.00,0.82
5855.00,0.82
5854.00,0.82
5853.00,0.82
5852.00,0.82
5851.00,0.82
5850.00,0.82
5849.00,0.83
5848.00,0.83
5847.00,0.83
5846.00,0.83
5845.00,0.83
5844.00,0.83
5843.00,0.83
5842.00,0.83
5841.00,0.83
5840.00,0.83
5839.00,0.83
5838.00,0.83
5837.00,0.83
5836.00,0.83
5835.00,0.83
5834.00,0.83
5833.00,0.83
5832.00,0.83
5831.00,0.83
5830.00,0.82
5829.00,0.82
5828.00,0.82
5827.00,0.82
5826.00,0.82
5825.00,0.82
5824.00,0.82
5823.00,0.82
5822.00,0.82
5821.00,0.82
5820.00,0.82
5819.00,0.82
5818.00,0.82
5817.00,0.82
5816.00,0.82
5815.00,0.82
5814.00,0.82
5813.00,0.82
5812.00,0.82
5811.00,0.82
5810.00,0.82
5809.00,0.82
5808.00,0.82
5807.00,0.81
5806.00,0.81
5805.00,0.81
5804.00,0.81
5803.00,0.81
5802.00,0.81
5801.00,0.81
5800.00,0.81
5799.00,0.80
5798.00,0.80
5797.00,0.80
5796.00,0.80
5795.00,0.80
5794.00,0.80
5793.00,0.80
5792.00,0.80
5791.00,0.79
5790.00,0.79
5789.00,0.79
5788.00,0.79
5787.00,0.79
5786.00,0.79
5785.00,0.79
5784.00,0.79
5783.00,0.79
5782.00,0.79
5781.00,0.79
5780.00,0.79
5779.00,0.79
5778.00,0.79
5777.00,0.79
5776.00,0.79
5775.00,0.79
5774.00,0.79
5773.00,0.79
5772.00,0.79
5771.00,0.79
5770.00,0.80
5769.00,0.80
5768.00,0.80
5767.00,0.80
5766.00,0.80
5765.00,0.80
5764.00,0.81
5763.00,0.81
5762.00,0.81
5761.00,0.81
5760.00,0.82
5759.00,0.82
5758.00,0.82
5757.00,0.82
5756.00,0.83
5755.00,0.83
5754.00,0.83
5753.00,0.83
5752.00,0.84
5751.00,0.84
5750.00,0.84
5749.00,0.84
5748.00,0.84
5747.00,0.85
5746.00,0.85
5745.00,0.85
5744.00,0.85
5743.00,0.85
5742.00,0.85
5741.00,0.86
5740.00,0.86
5739.00,0.86
5738.00,0.86
5737.00,0.86
5736.00,0.86
5735.00,0.86
5734.00,0.86
5733.00,0.86
5732.00,0.86
5731.00,0.86
5730.00,0.86
5729.00,0.85
5728.00,0.85
5727.00,0.85
5726.00,0.85
5725.00,0.85
5724.00,0.85
5723.00,0.85
5722.00,0.85
5721.00,0.85
5720.00,0.85
5719.00,0.85
5718.00,0.84
5717.00,0.84
5716.00,0.84
5715.00,0.84
5714.00,0.84
5713.00,0.84
5712.00,0.84
5711.00,0.84
5710.00,0.84
5709.00,0.84
5708.00,0.84
5707.00,0.84
5706.00,0.84
5705.00,0.84
5704.00,0.84
5703.00,0.84
5702.00,0.84
5701.00,0.84
5700.00,0.84
5699.00,0.84
5698.00,0.84
5697.00,0.84
5696.00,0.84
5695.00,0.84
5694.00,0.84
5693.00,0.84
5692.00,0.84
5691.00,0.84
5690.00,0.84
5689.00,0.84
5688.00,0.84
5687.00,0.85
5686.00,0.85
5685.00,0.84
5684.00,0.84
5683.00,0.84
5682.00,0.84
5681.00,0.84
5680.00,0.84
5679.00,0.84
5678.00,0.84
5677.00,0.84
5676.00,0.84
5675.00,0.84
5674.00,0.85
5673.00,0.85
5672.00,0.85
5671.00,0.85
5670.00,0.85
5669.00,0.85
5668.00,0.85
5667.00,0.85
5666.00,0.85
5665.00,0.85
5664.00,0.85
5663.00,0.85
5662.00,0.85
5661.00,0.85
5660.00,0.86
5659.00,0.86
5658.00,0.86
5657.00,0.86
5656.00,0.86
5655.00,0.86
5654.00,0.86
5653.00,0.86
5652.00,0.86
5651.00,0.86
5650.00,0.86
5649.00,0.86
5648.00,0.86
5647.00,0.86
5646.00,0.87
5645.00,0.87
5644.00,0.87
5643.00,0.87
5642.00,0.87
5641.00,0.87
5640.00,0.87
5639.00,0.87
5638.00,0.87
5637.00,0.87
5636.00,0.87
5635.00,0.87
5634.00,0.87
5633.00,0.87
5632.00,0.87
5631.00,0.87
5630.00,0.87
5629.00,0.87
5628.00,0.87
5627.00,0.87
5626.00,0.87
5625.00,0.87
5624.00,0.87
5623.00,0.87
5622.00,0.88
5621.00,0.88
5620.00,0.88
5619.00,0.88
5618.00,0.88
5617.00,0.88
5616.00,0.88
5615.00,0.89
5614.00,0.89
5613.00,0.89
5612.00,0.89
5611.00,0.89
5610.00,0.89
5609.00,0.89
5608.00,0.90
5607.00,0.90
5606.00,0.90
5605.00,0.90
5604.00,0.90
5603.00,0.90
5602.00,0.90
5601.00,0.90
5600.00,0.90
5599.00,0.90
5598.00,0.90
5597.00,0.90
5596.00,0.90
5595.00,0.90
5594.00,0.90
5593.00,0.89
5592.00,0.89
5591.00,0.89
5590.00,0.89
5589.00,0.89
5588.00,0.89
5587.00,0.89
5586.00,0.89
5585.00,0.89
5584.00,0.89
5583.00,0.89
5582.00,0.89
5581.00,0.89
5580.00,0.89
5579.00,0.89
5578.00,0.89
5577.00,0.89
5576.00,0.89
5575.00,0.89
5574.00,0.89
5573.00,0.89
5572.00,0.90
5571.00,0.90
5570.00,0.90
5569.00,0.90
5568.00,0.90
5567.00,0.90
5566.00,0.90
5565.00,0.91
5564.00,0.91
5563.00,0.91
5562.00,0.91
5561.00,0.91
5560.00,0.92
5559.00,0.92
5558.00,0.92
5557.00,0.92
5556.00,0.93
5555.00,0.93
5554.00,0.93
5553.00,0.93
5552.00,0.94
5551.00,0.94
5550.00,0.94
5549.00,0.94
5548.00,0.94
5547.00,0.95
5546.00,0.95
5545.00,0.95
5544.00,0.95
5543.00,0.95
5542.00,0.96
5541.00,0.96
5540.00,0.96
5539.00,0.96
5538.00,0.96
5537.00,0.97
5536.00,0.97
5535.00,0.97
5534.00,0.97
5533.00,0.97
5532.00,0.97
5531.00,0.98
5530.00,0.98
5529.00,0.98
5528.00,0.98
5527.00,0.98
5526.00,0.98
5525.00,0.98
5524.00,0.99
5523.00,0.99
5522.00,0.99
5521.00,0.99
5520.00,0.99
5519.00,0.99
5518.00,0.99
5517.00,0.99
5516.00,0.99
5515.00,0.99
5514.00,1.00
5513.00,1.00
5512.00,1.00
5511.00,1.00
5510.00,1.00
5509.00,1.00
5508.00,1.00
5507.00,1.00
5506.00,1.00
5505.00,1.00
5504.00,1.00
5503.00,1.00
5502.00,1.00
5501.00,1.00
5500.00,1.00
5499.00,1.00
5498.00,1.00
5497.00,1.00
5496.00,1.00
5495.00,1.00
5494.00,1.00
5493.00,1.00
5492.00,1.00
5491.00,1.00
5490.00,1.00
5489.00,1.00
5488.00,1.00
5487.00,1.00
5486.00,1.00
5485.00,1.00
5484.00,1.00
5483.00,1.00
5482.00,1.00
5481.00,1.01
5480.00,1.01
5479.00,1.01
5478.00,1.01
5477.00,1.01
5476.00,1.01
5475.00,1.01
5474.00,1.01
5473.00,1.02
5472.00,1.02
5471.00,1.02
5470.00,1.02
5469.00,1.02
5468.00,1.02
5467.00,1.02
5466.00,1.02
5465.00,1.02
5464.00,1.03
5463.00,1.03
5462.00,1.03
5461.00,1.03
5460.00,1.03
5459.00,1.03
5458.00,1.03
5457.00,1.03
5456.00,1.03
5455.00,1.03
5454.00,1.03
5453.00,1.03
5452.00,1.03
5451.00,1.03
5450.00,1.03
5449.00,1.04
5448.00,1.04
5447.00,1.04
5446.00,1.04
5445.00,1.04
5444.00,1.04
5443.00,1.04
5442.00,1.04
5441.00,1.04
5440.00,1.04
5439.00,1.04
5438.00,1.04
5437.00,1.04
5436.00,1.04
5435.00,1.04
5434.00,1.04
5433.00,1.04
5432.00,1.04
5431.00,1.04
5430.00,1.04
5429.00,1.04
5428.00,1.03
5427.00,1.03
5426.00,1.03
5425.00,1.03
5424.00,1.03
5423.00,1.03
5422.00,1.03
5421.00,1.03
5420.00,1.03
5419.00,1.03
5418.00,1.03
5417.00,1.03
5416.00,1.03
5415.00,1.03
5414.00,1.03
5413.00,1.03
5412.00,1.03
5411.00,1.03
5410.00,1.03
5409.00,1.03
5408.00,1.03
5407.00,1.02
5406.00,1.02
5405.00,1.02
5404.00,1.02
5403.00,1.02
5402.00,1.02
5401.00,1.02
5400.00,1.02
5399.00,1.02
5398.00,1.02
5397.00,1.02
5396.00,1.02
5395.00,1.02
5394.00,1.02
5393.00,1.02
5392.00,1.02
5391.00,1.02
5390.00,1.02
5389.00,1.02
5388.00,1.02
5387.00,1.02
5386.00,1.02
5385.00,1.02
5384.00,1.02
5383.00,1.02
5382.00,1.01
5381.00,1.01
5380.00,1.01
5379.00,1.01
5378.00,1.01
5377.00,1.01
5376.00,1.01
5375.00,1.00
5374.00,1.00
5373.00,1.00
5372.00,1.00
5371.00,1.00
5370.00,0.99
5369.00,0.99
5368.00,0.99
5367.00,0.98
5366.00,0.98
5365.00,0.97
5364.00,0.97
5363.00,0.96
5362.00,0.96
5361.00,0.95
5360.00,0.95
5359.00,0.95
5358.00,0.94
5357.00,0.93
5356.00,0.93
5355.00,0.92
5354.00,0.92
5353.00,0.91
5352.00,0.91
5351.00,0.90
5350.00,0.89
5349.00,0.89
5348.00,0.88
5347.00,0.87
5346.00,0.87
5345.00,0.86
5344.00,0.85
5343.00,0.85
5342.00,0.84
5341.00,0.83
5340.00,0.82
5339.00,0.82
5338.00,0.81
5337.00,0.80
5336.00,0.80
5335.00,0.79
5334.00,0.78
5333.00,0.77
5332.00,0.77
5331.00,0.76
5330.00,0.75
5329.00,0.74
5328.00,0.73
5327.00,0.72
5326.00,0.72
5325.00,0.71
5324.00,0.70
5323.00,0.69
5322.00,0.68
5321.00,0.67
5320.00,0.67
5319.00,0.66
5318.00,0.65
5317.00,0.64
5316.00,0.63
5315.00,0.63
5314.00,0.62
5313.00,0.61
5312.00,0.60
5311.00,0.60
5310.00,0.59
5309.00,0.58
5308.00,0.58
5307.00,0.57
5306.00,0.57
5305.00,0.56
5304.00,0.56
5303.00,0.55
5302.00,0.55
5301.00,0.55
5300.00,0.54
5299.00,0.54
5298.00,0.54
5297.00,0.53
5296.00,0.53
5295.00,0.53
5294.00,0.52
5293.00,0.52
5292.00,0.52
5291.00,0.52
5290.00,0.51
5289.00,0.51
5288.00,0.51
5287.00,0.51
5286.00,0.51
5285.00,0.50
5284.00,0.50
5283.00,0.50
5282.00,0.50
5281.00,0.50
5280.00,0.49
5279.00,0.49
5278.00,0.49
5277.00,0.49
5276.00,0.49
5275.00,0.48
5274.00,0.48
5273.00,0.48
5272.00,0.48
5271.00,0.48
5270.00,0.47
5269.00,0.47
5268.00,0.47
5267.00,0.47
5266.00,0.47
5265.00,0.47
5264.00,0.47
5263.00,0.47
5262.00,0.47
5261.00,0.46
5260.00,0.46
5259.00,0.46
5258.00,0.46
5257.00,0.46
5256.00,0.46
5255.00,0.46
5254.00,0.46
5253.00,0.46
5252.00,0.46
5251.00,0.46
5250.00,0.46
5249.00,0.46
5248.00,0.46
5247.00,0.46
5246.00,0.47
5245.00,0.47
5244.00,0.47
5243.00,0.47
5242.00,0.47
5241.00,0.47
5240.00,0.47
5239.00,0.47
5238.00,0.47
5237.00,0.47
5236.00,0.47
5235.00,0.47
5234.00,0.47
5233.00,0.47
5232.00,0.47
5231.00,0.47
5230.00,0.47
5229.00,0.47
5228.00,0.47
5227.00,0.47
5226.00,0.47
5225.00,0.47
5224.00,0.47
5223.00,0.47
5222.00,0.47
5221.00,0.47
5220.00,0.47
5219.00,0.47
5218.00,0.46
5217.00,0.46
5216.00,0.46
5215.00,0.46
5214.00,0.46
5213.00,0.46
5212.00,0.46
5211.00,0.46
5210.00,0.45
5209.00,0.45
5208.00,0.45
5207.00,0.45
5206.00,0.45
5205.00,0.45
5204.00,0.45
5203.00,0.45
5202.00,0.45
5201.00,0.45
5200.00,0.45
5199.00,0.45
5198.00,0.45
5197.00,0.45
5196.00,0.45
5195.00,0.45
5194.00,0.45
5193.00,0.45
5192.00,0.45
5191.00,0.45
5190.00,0.45
5189.00,0.45
5188.00,0.46
5187.00,0.46
5186.00,0.46
5185.00,0.46
5184.00,0.46
5183.00,0.46
5182.00,0.46
5181.00,0.47
5180.00,0.47
5179.00,0.47
5178.00,0.47
5177.00,0.47
5176.00,0.47
5175.00,0.47
5174.00,0.47
5173.00,0.47
5172.00,0.48
5171.00,0.48
5170.00,0.48
5169.00,0.48
5168.00,0.48
5167.00,0.48
5166.00,0.48
5165.00,0.47
5164.00,0.47
5163.00,0.47
5162.00,0.47
5161.00,0.47
5160.00,0.47
5159.00,0.47
5158.00,0.47
5157.00,0.47
5156.00,0.47
5155.00,0.47
5154.00,0.47
5153.00,0.47
5152.00,0.47
5151.00,0.47
5150.00,0.47
5149.00,0.47
5148.00,0.47
5147.00,0.47
5146.00,0.47
5145.00,0.47
5144.00,0.47
5143.00,0.47
5142.00,0.47
5141.00,0.46
5140.00,0.46
5139.00,0.46
5138.00,0.46
5137.00,0.46
5136.00,0.46
5135.00,0.46
5134.00,0.46
5133.00,0.46
5132.00,0.46
5131.00,0.46
5130.00,0.46
5129.00,0.46
5128.00,0.46
5127.00,0.46
5126.00,0.46
5125.00,0.46
5124.00,0.46
5123.00,0.46
5122.00,0.46
5121.00,0.46
5120.00,0.46
5119.00,0.46
5118.00,0.46
5117.00,0.46
5116.00,0.46
5115.00,0.46
5114.00,0.46
5113.00,0.46
5112.00,0.46
5111.00,0.46
5110.00,0.46
5109.00,0.46
5108.00,0.46
5107.00,0.46
5106.00,0.46
5105.00,0.47
5104.00,0.47
5103.00,0.47
5102.00,0.47
5101.00,0.47
5100.00,0.47
5099.00,0.47
5098.00,0.47
5097.00,0.47
5096.00,0.47
5095.00,0.48
5094.00,0.48
5093.00,0.48
5092.00,0.48
5091.00,0.48
5090.00,0.48
5089.00,0.48
5088.00,0.48
5087.00,0.48
5086.00,0.48
5085.00,0.48
5084.00,0.48
5083.00,0.48
5082.00,0.48
5081.00,0.48
5080.00,0.48
5079.00,0.48
5078.00,0.48
5077.00,0.48
5076.00,0.48
5075.00,0.49
5074.00,0.49
5073.00,0.49
5072.00,0.49
5071.00,0.49
5070.00,0.49
5069.00,0.49
5068.00,0.49
5067.00,0.49
5066.00,0.49
5065.00,0.49
5064.00,0.49
5063.00,0.49
5062.00,0.49
5061.00,0.49
5060.00,0.49
5059.00,0.49
5058.00,0.49
5057.00,0.49
5056.00,0.49
5055.00,0.49
5054.00,0.49
5053.00,0.49
5052.00,0.49
5051.00,0.49
5050.00,0.50
5049.00,0.50
5048.00,0.50
5047.00,0.50
5046.00,0.50
5045.00,0.50
5044.00,0.50
5043.00,0.50
5042.00,0.50
5041.00,0.50
5040.00,0.50
5039.00,0.50
5038.00,0.50
5037.00,0.50
5036.00,0.50
5035.00,0.50
5034.00,0.50
5033.00,0.51
5032.00,0.51
5031.00,0.51
5030.00,0.51
5029.00,0.51
5028.00,0.51
5027.00,0.51
5026.00,0.51
5025.00,0.51
5024.00,0.52
5023.00,0.52
5022.00,0.52
5021.00,0.52
5020.00,0.52
5019.00,0.52
5018.00,0.52
5017.00,0.52
5016.00,0.52
5015.00,0.52
5014.00,0.52
5013.00,0.52
5012.00,0.52
5011.00,0.52
5010.00,0.52
5009.00,0.52
5008.00,0.53
5007.00,0.53
5006.00,0.53
5005.00,0.53
5004.00,0.53
5003.00,0.53
5002.00,0.53
5001.00,0.53
5000.00,0.53
4999.00,0.53
4998.00,0.53
4997.00,0.53
4996.00,0.53
4995.00,0.53
4994.00,0.53
4993.00,0.53
4992.00,0.53
4991.00,0.53
4990.00,0.54
4989.00,0.54
4988.00,0.54
4987.00,0.54
4986.00,0.54
4985.00,0.54
4984.00,0.54
4983.00,0.54
4982.00,0.54
4981.00,0.54
4980.00,0.54
4979.00,0.55
4978.00,0.55
4977.00,0.55
4976.00,0.55
4975.00,0.55
4974.00,0.55
4973.00,0.55
4972.00,0.55
4971.00,0.56
4970.00,0.56
4969.00,0.56
4968.00,0.56
4967.00,0.56
4966.00,0.56
4965.00,0.56
4964.00,0.56
4963.00,0.56
4962.00,0.56
4961.00,0.56
4960.00,0.56
4959.00,0.56
4958.00,0.56
4957.00,0.56
4956.00,0.56
4955.00,0.56
4954.00,0.56
4953.00,0.56
4952.00,0.56
4951.00,0.56
4950.00,0.56
4949.00,0.56
4948.00,0.56
4947.00,0.56
4946.00,0.56
4945.00,0.56
4944.00,0.56
4943.00,0.56
4942.00,0.56
4941.00,0.56
4940.00,0.57
4939.00,0.57
4938.00,0.57
4937.00,0.57
4936.00,0.57
4935.00,0.57
4934.00,0.57
4933.00,0.57
4932.00,0.57
4931.00,0.57
4930.00,0.58
4929.00,0.58
4928.00,0.58
4927.00,0.58
4926.00,0.58
4925.00,0.58
4924.00,0.58
4923.00,0.58
4922.00,0.59
4921.00,0.59
4920.00,0.59
4919.00,0.59
4918.00,0.59
4917.00,0.59
4916.00,0.59
4915.00,0.60
4914.00,0.60
4913.00,0.60
4912.00,0.60
4911.00,0.60
4910.00,0.60
4909.00,0.61
4908.00,0.61
4907.00,0.61
4906.00,0.61
4905.00,0.61
4904.00,0.61
4903.00,0.61
4902.00,0.62
4901.00,0.62
4900.00,0.62
4899.00,0.62
4898.00,0.62
4897.00,0.62
4896.00,0.62
4895.00,0.62
4894.00,0.62
4893.00,0.62
4892.00,0.63
4891.00,0.63
4890.00,0.63
4889.00,0.63
4888.00,0.63
4887.00,0.63
4886.00,0.63
4885.00,0.63
4884.00,0.63
4883.00,0.63
4882.00,0.63
4881.00,0.63
4880.00,0.63
4879.00,0.64
4878.00,0.64
4877.00,0.64
4876.00,0.64
4875.00,0.64
4874.00,0.64
4873.00,0.64
4872.00,0.64
4871.00,0.64
4870.00,0.65
4869.00,0.65
4868.00,0.65
4867.00,0.65
4866.00,0.65
4865.00,0.65
4864.00,0.65
4863.00,0.65
4862.00,0.65
4861.00,0.65
4860.00,0.65
4859.00,0.65
4858.00,0.65
4857.00,0.65
4856.00,0.65
4855.00,0.65
4854.00,0.65
4853.00,0.65
4852.00,0.65
4851.00,0.65
4850.00,0.65
4849.00,0.65
4848.00,0.64
4847.00,0.64
4846.00,0.64
4845.00,0.64
4844.00,0.64
4843.00,0.64
4842.00,0.64
4841.00,0.64
4840.00,0.64
4839.00,0.64
4838.00,0.64
4837.00,0.64
4836.00,0.64
4835.00,0.64
4834.00,0.64
4833.00,0.64
4832.00,0.64
4831.00,0.64
4830.00,0.64
4829.00,0.64
4828.00,0.65
4827.00,0.65
4826.00,0.65
4825.00,0.65
4824.00,0.65
4823.00,0.65
4822.00,0.65
4821.00,0.66
4820.00,0.66
4819.00,0.66
4818.00,0.66
4817.00,0.66
4816.00,0.67
4815.00,0.67
4814.00,0.67
4813.00,0.67
4812.00,0.67
4811.00,0.67
4810.00,0.67
4809.00,0.68
4808.00,0.68
4807.00,0.68
4806.00,0.68
4805.00,0.68
4804.00,0.68
4803.00,0.69
4802.00,0.69
4801.00,0.69
4800.00,0.69
4799.00,0.69
4798.00,0.69
4797.00,0.69
4796.00,0.70
4795.00,0.70
4794.00,0.70
4793.00,0.70
4792.00,0.70
4791.00,0.70
4790.00,0.70
4789.00,0.70
4788.00,0.70
4787.00,0.70
4786.00,0.71
4785.00,0.71
4784.00,0.71
4783.00,0.71
4782.00,0.71
4781.00,0.71
4780.00,0.71
4779.00,0.71
4778.00,0.71
4777.00,0.72
4776.00,0.72
4775.00,0.72
4774.00,0.72
4773.00,0.72
4772.00,0.72
4771.00,0.73
4770.00,0.73
4769.00,0.73
4768.00,0.73
4767.00,0.73
4766.00,0.73
4765.00,0.74
4764.00,0.74
4763.00,0.74
4762.00,0.74
4761.00,0.75
4760.00,0.75
4759.00,0.75
4758.00,0.75
4757.00,0.76
4756.00,0.76
4755.00,0.76
4754.00,0.76
4753.00,0.77
4752.00,0.77
4751.00,0.77
4750.00,0.78
4749.00,0.78
4748.00,0.78
4747.00,0.78
4746.00,0.78
4745.00,0.79
4744.00,0.79
4743.00,0.79
4742.00,0.79
4741.00,0.79
4740.00,0.79
4739.00,0.79
4738.00,0.79
4737.00,0.79
4736.00,0.79
4735.00,0.79
4734.00,0.79
4733.00,0.79
4732.00,0.79
4731.00,0.79
4730.00,0.79
4729.00,0.79
4728.00,0.79
4727.00,0.79
4726.00,0.79
4725.00,0.79
4724.00,0.79
4723.00,0.79
4722.00,0.79
4721.00,0.79
4720.00,0.79
4719.00,0.79
4718.00,0.79
4717.00,0.79
4716.00,0.79
4715.00,0.79
4714.00,0.79
4713.00,0.79
4712.00,0.80
4711.00,0.80
4710.00,0.80
4709.00,0.80
4708.00,0.80
4707.00,0.81
4706.00,0.81
4705.00,0.81
4704.00,0.81
4703.00,0.82
4702.00,0.82
4701.00,0.82
4700.00,0.82
4699.00,0.83
4698.00,0.83
4697.00,0.83
4696.00,0.83
4695.00,0.83
4694.00,0.84
4693.00,0.84
4692.00,0.84
4691.00,0.84
4690.00,0.84
4689.00,0.84
4688.00,0.84
4687.00,0.85
4686.00,0.85
4685.00,0.85
4684.00,0.85
4683.00,0.85
4682.00,0.85
4681.00,0.86
4680.00,0.86
4679.00,0.86
4678.00,0.86
4677.00,0.86
4676.00,0.86
4675.00,0.86
4674.00,0.86
4673.00,0.87
4672.00,0.87
4671.00,0.87
4670.00,0.87
4669.00,0.87
4668.00,0.87
4667.00,0.88
4666.00,0.88
4665.00,0.88
4664.00,0.88
4663.00,0.88
4662.00,0.88
4661.00,0.88
4660.00,0.89
4659.00,0.89
4658.00,0.89
4657.00,0.89
4656.00,0.89
4655.00,0.89
4654.00,0.89
4653.00,0.89
4652.00,0.89
4651.00,0.89
4650.00,0.90
4649.00,0.90
4648.00,0.90
4647.00,0.90
4646.00,0.90
4645.00,0.90
4644.00,0.90
4643.00,0.90
4642.00,0.91
4641.00,0.91
4640.00,0.91
4639.00,0.91
4638.00,0.91
4637.00,0.91
4636.00,0.91
4635.00,0.91
4634.00,0.91
4633.00,0.91
4632.00,0.91
4631.00,0.91
4630.00,0.91
4629.00,0.91
4628.00,0.91
4627.00,0.90
4626.00,0.90
4625.00,0.90
4624.00,0.90
4623.00,0.90
4622.00,0.90
4621.00,0.90
4620.00,0.90
4619.00,0.90
4618.00,0.90
4617.00,0.90
4616.00,0.89
4615.00,0.89
4614.00,0.89
4613.00,0.89
4612.00,0.89
4611.00,0.89
4610.00,0.90
4609.00,0.90
4608.00,0.90
4607.00,0.90
4606.00,0.90
4605.00,0.90
4604.00,0.90
4603.00,0.91
4602.00,0.91
4601.00,0.91
4600.00,0.91
4599.00,0.92
4598.00,0.92
4597.00,0.92
4596.00,0.93
4595.00,0.93
4594.00,0.93
4593.00,0.93
4592.00,0.94
4591.00,0.94
4590.00,0.94
4589.00,0.95
4588.00,0.95
4587.00,0.95
4586.00,0.95
4585.00,0.95
4584.00,0.96
4583.00,0.96
4582.00,0.96
4581.00,0.96
4580.00,0.96
4579.00,0.96
4578.00,0.96
4577.00,0.96
4576.00,0.96
4575.00,0.96
4574.00,0.96
4573.00,0.96
4572.00,0.96
4571.00,0.96
4570.00,0.96
4569.00,0.96
4568.00,0.96
4567.00,0.96
4566.00,0.95
4565.00,0.95
4564.00,0.95
4563.00,0.95
4562.00,0.95
4561.00,0.95
4560.00,0.95
4559.00,0.95
4558.00,0.95
4557.00,0.95
4556.00,0.95
4555.00,0.95
4554.00,0.95
4553.00,0.95
4552.00,0.95
4551.00,0.95
4550.00,0.95
4549.00,0.95
4548.00,0.95
4547.00,0.95
4546.00,0.95
4545.00,0.95
4544.00,0.95
4543.00,0.95
4542.00,0.95
4541.00,0.96
4540.00,0.96
4539.00,0.96
4538.00,0.96
4537.00,0.96
4536.00,0.97
4535.00,0.97
4534.00,0.97
4533.00,0.97
4532.00,0.97
4531.00,0.98
4530.00,0.98
4529.00,0.98
4528.00,0.98
4527.00,0.98
4526.00,0.99
4525.00,0.99
4524.00,0.99
4523.00,1.00
4522.00,1.00
4521.00,1.00
4520.00,1.00
4519.00,1.00
4518.00,1.01
4517.00,1.01
4516.00,1.01
4515.00,1.01
4514.00,1.01
4513.00,1.01
4512.00,1.01
4511.00,1.01
4510.00,1.02
4509.00,1.02
4508.00,1.02
4507.00,1.02
4506.00,1.02
4505.00,1.02
4504.00,1.02
4503.00,1.02
4502.00,1.02
4501.00,1.02
4500.00,1.02
4499.00,1.02
4498.00,1.02
4497.00,1.02
4496.00,1.02
4495.00,1.01
4494.00,1.01
4493.00,1.01
4492.00,1.01
4491.00,1.01
4490.00,1.01
4489.00,1.01
4488.00,1.01
4487.00,1.00
4486.00,1.00
4485.00,1.00
4484.00,1.00
4483.00,0.99
4482.00,0.99
4481.00,0.99
4480.00,0.98
4479.00,0.98
4478.00,0.98
4477.00,0.97
4476.00,0.97
4475.00,0.96
4474.00,0.96
4473.00,0.96
4472.00,0.95
4471.00,0.95
4470.00,0.94
4469.00,0.94
4468.00,0.93
4467.00,0.93
4466.00,0.92
4465.00,0.92
4464.00,0.91
4463.00,0.91
4462.00,0.90
4461.00,0.90
4460.00,0.90
4459.00,0.89
4458.00,0.89
4457.00,0.88
4456.00,0.88
4455.00,0.87
4454.00,0.87
4453.00,0.87
4452.00,0.86
4451.00,0.86
4450.00,0.85
4449.00,0.85
4448.00,0.85
4447.00,0.84
4446.00,0.84
4445.00,0.84
4444.00,0.83
4443.00,0.83
4442.00,0.83
4441.00,0.83
4440.00,0.82
4439.00,0.82
4438.00,0.82
4437.00,0.82
4436.00,0.81
4435.00,0.81
4434.00,0.81
4433.00,0.81
4432.00,0.81
4431.00,0.81
4430.00,0.81
4429.00,0.80
4428.00,0.80
4427.00,0.80
4426.00,0.80
4425.00,0.80
4424.00,0.80
4423.00,0.80
4422.00,0.80
4421.00,0.80
4420.00,0.80
4419.00,0.80
4418.00,0.80
4417.00,0.80
4416.00,0.80
4415.00,0.80
4414.00,0.80
4413.00,0.80
4412.00,0.80
4411.00,0.80
4410.00,0.80
4409.00,0.80
4408.00,0.80
4407.00,0.80
4406.00,0.80
4405.00,0.80
4404.00,0.79
4403.00,0.79
4402.00,0.79
4401.00,0.79
4400.00,0.79
4399.00,0.79
4398.00,0.79
4397.00,0.79
4396.00,0.78
4395.00,0.78
4394.00,0.78
4393.00,0.78
4392.00,0.78
4391.00,0.78
4390.00,0.78
4389.00,0.78
4388.00,0.77
4387.00,0.77
4386.00,0.77
4385.00,0.77
4384.00,0.77
4383.00,0.77
4382.00,0.77
4381.00,0.77
4380.00,0.77
4379.00,0.78
4378.00,0.78
4377.00,0.78
4376.00,0.78
4375.00,0.78
4374.00,0.78
4373.00,0.78
4372.00,0.78
4371.00,0.78
4370.00,0.78
4369.00,0.78
4368.00,0.78
4367.00,0.78
4366.00,0.78
4365.00,0.78
4364.00,0.79
4363.00,0.79
4362.00,0.79
4361.00,0.79
4360.00,0.79
4359.00,0.79
4358.00,0.79
4357.00,0.79
4356.00,0.79
4355.00,0.79
4354.00,0.79
4353.00,0.79
4352.00,0.79
4351.00,0.79
4350.00,0.79
4349.00,0.79
4348.00,0.79
4347.00,0.79
4346.00,0.79
4345.00,0.79
4344.00,0.79
4343.00,0.79
4342.00,0.80
4341.00,0.80
4340.00,0.80
4339.00,0.80
4338.00,0.80
4337.00,0.80
4336.00,0.80
4335.00,0.80
4334.00,0.80
4333.00,0.80
4332.00,0.81
4331.00,0.81
4330.00,0.81
4329.00,0.81
4328.00,0.81
4327.00,0.81
4326.00,0.81
4325.00,0.81
4324.00,0.82
4323.00,0.82
4322.00,0.82
4321.00,0.82
4320.00,0.82
4319.00,0.82
4318.00,0.82
4317.00,0.82
4316.00,0.82
4315.00,0.82
4314.00,0.82
4313.00,0.82
4312.00,0.82
4311.00,0.82
4310.00,0.82
4309.00,0.83
4308.00,0.83
4307.00,0.83
4306.00,0.83
4305.00,0.83
4304.00,0.83
4303.00,0.83
4302.00,0.83
4301.00,0.83
4300.00,0.83
4299.00,0.83
4298.00,0.83
4297.00,0.83
4296.00,0.84
4295.00,0.84
4294.00,0.84
4293.00,0.84
4292.00,0.84
4291.00,0.84
4290.00,0.84
4289.00,0.84
4288.00,0.84
4287.00,0.85
4286.00,0.85
4285.00,0.85
4284.00,0.85
4283.00,0.85
4282.00,0.86
4281.00,0.86
4280.00,0.86
4279.00,0.86
4278.00,0.86
4277.00,0.86
4276.00,0.86
4275.00,0.86
4274.00,0.86
4273.00,0.85
4272.00,0.85
4271.00,0.85
4270.00,0.85
4269.00,0.85
4268.00,0.85
4267.00,0.85
4266.00,0.85
4265.00,0.85
4264.00,0.85
4263.00,0.85
4262.00,0.85
4261.00,0.85
4260.00,0.84
4259.00,0.84
4258.00,0.84
4257.00,0.84
4256.00,0.84
4255.00,0.84
4254.00,0.84
4253.00,0.84
4252.00,0.84
4251.00,0.84
4250.00,0.84
4249.00,0.85
4248.00,0.85
4247.00,0.85
4246.00,0.85
4245.00,0.86
4244.00,0.86
4243.00,0.86
4242.00,0.86
4241.00,0.87
4240.00,0.87
4239.00,0.87
4238.00,0.88
4237.00,0.88
4236.00,0.88
4235.00,0.89
4234.00,0.89
4233.00,0.89
4232.00,0.90
4231.00,0.90
4230.00,0.90
4229.00,0.91
4228.00,0.91
4227.00,0.91
4226.00,0.91
4225.00,0.91
4224.00,0.92
4223.00,0.92
4222.00,0.92
4221.00,0.92
4220.00,0.92
4219.00,0.92
4218.00,0.92
4217.00,0.92
4216.00,0.92
4215.00,0.92
4214.00,0.92
4213.00,0.92
4212.00,0.92
4211.00,0.92
4210.00,0.92
4209.00,0.92
4208.00,0.92
4207.00,0.92
4206.00,0.92
4205.00,0.92
4204.00,0.93
4203.00,0.93
4202.00,0.93
4201.00,0.93
4200.00,0.93
4199.00,0.93
4198.00,0.93
4197.00,0.93
4196.00,0.93
4195.00,0.93
4194.00,0.93
4193.00,0.94
4192.00,0.94
4191.00,0.94
4190.00,0.94
4189.00,0.94
4188.00,0.94
4187.00,0.94
4186.00,0.94
4185.00,0.94
4184.00,0.94
4183.00,0.95
4182.00,0.95
4181.00,0.95
4180.00,0.95
4179.00,0.95
4178.00,0.95
4177.00,0.95
4176.00,0.95
4175.00,0.96
4174.00,0.96
4173.00,0.96
4172.00,0.96
4171.00,0.96
4170.00,0.96
4169.00,0.96
4168.00,0.96
4167.00,0.96
4166.00,0.96
4165.00,0.96
4164.00,0.96
4163.00,0.96
4162.00,0.96
4161.00,0.96
4160.00,0.96
4159.00,0.96
4158.00,0.96
4157.00,0.96
4156.00,0.96
4155.00,0.96
4154.00,0.95
4153.00,0.95
4152.00,0.95
4151.00,0.95
4150.00,0.95
4149.00,0.95
4148.00,0.95
4147.00,0.94
4146.00,0.94
4145.00,0.94
4144.00,0.94
4143.00,0.93
4142.00,0.93
4141.00,0.93
4140.00,0.93
4139.00,0.93
4138.00,0.93
4137.00,0.92
4136.00,0.92
4135.00,0.92
4134.00,0.92
4133.00,0.92
4132.00,0.92
4131.00,0.92
4130.00,0.92
4129.00,0.92
4128.00,0.92
4127.00,0.91
4126.00,0.91
4125.00,0.91
4124.00,0.91
4123.00,0.91
4122.00,0.91
4121.00,0.90
4120.00,0.90
4119.00,0.90
4118.00,0.90
4117.00,0.90
4116.00,0.90
4115.00,0.89
4114.00,0.89
4113.00,0.89
4112.00,0.89
4111.00,0.89
4110.00,0.89
4109.00,0.89
4108.00,0.89
4107.00,0.89
4106.00,0.89
4105.00,0.89
4104.00,0.89
4103.00,0.89
4102.00,0.89
4101.00,0.89
4100.00,0.89
4099.00,0.89
4098.00,0.89
4097.00,0.89
4096.00,0.89
4095.00,0.89
4094.00,0.89
4093.00,0.90
4092.00,0.90
4091.00,0.90
4090.00,0.90
4089.00,0.91
4088.00,0.91
4087.00,0.91
4086.00,0.92
4085.00,0.92
4084.00,0.92
4083.00,0.92
4082.00,0.92
4081.00,0.93
4080.00,0.93
4079.00,0.93
4078.00,0.93
4077.00,0.93
4076.00,0.94
4075.00,0.94
4074.00,0.94
4073.00,0.94
4072.00,0.94
4071.00,0.95
4070.00,0.95
4069.00,0.95
4068.00,0.95
4067.00,0.96
4066.00,0.96
4065.00,0.96
4064.00,0.96
4063.00,0.96
4062.00,0.97
4061.00,0.97
4060.00,0.97
4059.00,0.97
4058.00,0.97
4057.00,0.97
4056.00,0.97
4055.00,0.97
4054.00,0.98
4053.00,0.98
4052.00,0.98
4051.00,0.98
4050.00,0.98
4049.00,0.98
4048.00,0.98
4047.00,0.98
4046.00,0.98
4045.00,0.98
4044.00,0.98
4043.00,0.98
4042.00,0.98
4041.00,0.98
4040.00,0.98
4039.00,0.98
4038.00,0.98
4037.00,0.98
4036.00,0.98
4035.00,0.98
4034.00,0.98
4033.00,0.98
4032.00,0.97
4031.00,0.97
4030.00,0.97
4029.00,0.97
4028.00,0.97
4027.00,0.97
4026.00,0.97
4025.00,0.97
4024.00,0.97
4023.00,0.97
4022.00,0.97
4021.00,0.97
4020.00,0.97
4019.00,0.97
4018.00,0.98
4017.00,0.98
4016.00,0.98
4015.00,0.99
4014.00,0.99
4013.00,1.00
4012.00,1.00
4011.00,1.01
4010.00,1.01
4009.00,1.02
4008.00,1.03
4007.00,1.03
4006.00,1.04
4005.00,1.05
4004.00,1.06
4003.00,1.07
4002.00,1.08
4001.00,1.09
4000.00,1.10
