创建为新数据集,样品 995 用户 Administrator 日期 星期二, 七月 30 2019
cm-1,%T
10000.00,1.00
9999.00,1.01
9998.00,1.03
9997.00,1.04
9996.00,1.05
9995.00,1.06
9994.00,1.07
9993.00,1.08
9992.00,1.09
9991.00,1.09
9990.00,1.09
9989.00,1.10
9988.00,1.10
9987.00,1.10
9986.00,1.11
9985.00,1.11
9984.00,1.11
9983.00,1.12
9982.00,1.12
9981.00,1.12
9980.00,1.13
9979.00,1.13
9978.00,1.13
9977.00,1.13
9976.00,1.13
9975.00,1.12
9974.00,1.12
9973.00,1.12
9972.00,1.11
9971.00,1.11
9970.00,1.11
9969.00,1.10
9968.00,1.10
9967.00,1.10
9966.00,1.10
9965.00,1.10
9964.00,1.10
9963.00,1.10
9962.00,1.10
9961.00,1.10
9960.00,1.10
9959.00,1.10
9958.00,1.10
9957.00,1.10
9956.00,1.09
9955.00,1.09
9954.00,1.08
9953.00,1.08
9952.00,1.07
9951.00,1.06
9950.00,1.06
9949.00,1.05
9948.00,1.04
9947.00,1.04
9946.00,1.03
9945.00,1.02
9944.00,1.01
9943.00,1.00
9942.00,0.99
9941.00,0.98
9940.00,0.96
9939.00,0.95
9938.00,0.94
9937.00,0.92
9936.00,0.91
9935.00,0.89
9934.00,0.88
9933.00,0.87
9932.00,0.85
9931.00,0.84
9930.00,0.83
9929.00,0.82
9928.00,0.81
9927.00,0.80
9926.00,0.79
9925.00,0.78
9924.00,0.78
9923.00,0.77
9922.00,0.77
9921.00,0.77
9920.00,0.76
9919.00,0.76
9918.00,0.76
9917.00,0.77
9916.00,0.77
9915.00,0.77
9914.00,0.78
9913.00,0.79
9912.00,0.79
9911.00,0.80
9910.00,0.81
9909.00,0.82
9908.00,0.83
9907.00,0.84
9906.00,0.85
9905.00,0.86
9904.00,0.87
9903.00,0.89
9902.00,0.90
9901.00,0.91
9900.00,0.92
9899.00,0.92
9898.00,0.93
9897.00,0.94
9896.00,0.95
9895.00,0.96
9894.00,0.97
9893.00,0.97
9892.00,0.98
9891.00,0.99
9890.00,0.99
9889.00,1.00
9888.00,1.00
9887.00,1.00
9886.00,1.01
9885.00,1.01
9884.00,1.01
9883.00,1.01
9882.00,1.01
9881.00,1.01
9880.00,1.02
9879.00,1.02
9878.00,1.02
9877.00,1.02
9876.00,1.02
9875.00,1.02
9874.00,1.03
9873.00,1.03
9872.00,1.03
9871.00,1.03
9870.00,1.03
9869.00,1.03
9868.00,1.03
9867.00,1.03
9866.00,1.03
9865.00,1.03
9864.00,1.02
9863.00,1.02
9862.00,1.02
9861.00,1.02
9860.00,1.01
9859.00,1.01
9858.00,1.00
9857.00,1.00
9856.00,0.99
9855.00,0.99
9854.00,0.98
9853.00,0.97
9852.00,0.97
9851.00,0.96
9850.00,0.95
9849.00,0.94
9848.00,0.94
9847.00,0.93
9846.00,0.92
9845.00,0.92
9844.00,0.91
9843.00,0.91
9842.00,0.90
9841.00,0.90
9840.00,0.89
9839.00,0.89
9838.00,0.88
9837.00,0.88
9836.00,0.88
9835.00,0.87
9834.00,0.87
9833.00,0.87
9832.00,0.87
9831.00,0.87
9830.00,0.87
9829.00,0.87
9828.00,0.87
9827.00,0.88
9826.00,0.88
9825.00,0.88
9824.00,0.88
9823.00,0.88
9822.00,0.88
9821.00,0.88
9820.00,0.88
9819.00,0.88
9818.00,0.88
9817.00,0.88
9816.00,0.88
9815.00,0.88
9814.00,0.88
9813.00,0.88
9812.00,0.88
9811.00,0.87
9810.00,0.87
9809.00,0.87
9808.00,0.86
9807.00,0.86
9806.00,0.86
9805.00,0.85
9804.00,0.85
9803.00,0.84
9802.00,0.84
9801.00,0.83
9800.00,0.83
9799.00,0.83
9798.00,0.82
9797.00,0.82
9796.00,0.81
9795.00,0.81
9794.00,0.80
9793.00,0.80
9792.00,0.80
9791.00,0.79
9790.00,0.79
9789.00,0.79
9788.00,0.79
9787.00,0.79
9786.00,0.79
9785.00,0.79
9784.00,0.79
9783.00,0.79
9782.00,0.79
9781.00,0.79
9780.00,0.79
9779.00,0.79
9778.00,0.79
9777.00,0.79
9776.00,0.79
9775.00,0.79
9774.00,0.79
9773.00,0.79
9772.00,0.79
9771.00,0.79
9770.00,0.79
9769.00,0.79
9768.00,0.79
9767.00,0.80
9766.00,0.80
9765.00,0.80
9764.00,0.80
9763.00,0.81
9762.00,0.81
9761.00,0.81
9760.00,0.81
9759.00,0.82
9758.00,0.82
9757.00,0.83
9756.00,0.83
9755.00,0.84
9754.00,0.84
9753.00,0.85
9752.00,0.86
9751.00,0.86
9750.00,0.87
9749.00,0.88
9748.00,0.89
9747.00,0.90
9746.00,0.91
9745.00,0.91
9744.00,0.92
9743.00,0.93
9742.00,0.94
9741.00,0.94
9740.00,0.95
9739.00,0.95
9738.00,0.96
9737.00,0.96
9736.00,0.96
9735.00,0.96
9734.00,0.96
9733.00,0.96
9732.00,0.96
9731.00,0.96
9730.00,0.96
9729.00,0.95
9728.00,0.95
9727.00,0.95
9726.00,0.94
9725.00,0.94
9724.00,0.93
9723.00,0.92
9722.00,0.92
9721.00,0.91
9720.00,0.91
9719.00,0.90
9718.00,0.90
9717.00,0.89
9716.00,0.89
9715.00,0.89
9714.00,0.88
9713.00,0.88
9712.00,0.88
9711.00,0.88
9710.00,0.88
9709.00,0.88
9708.00,0.88
9707.00,0.88
9706.00,0.88
9705.00,0.88
9704.00,0.88
9703.00,0.88
9702.00,0.88
9701.00,0.88
9700.00,0.89
9699.00,0.89
9698.00,0.89
9697.00,0.89
9696.00,0.89
9695.00,0.90
9694.00,0.90
9693.00,0.90
9692.00,0.90
9691.00,0.90
9690.00,0.90
9689.00,0.91
9688.00,0.91
9687.00,0.91
9686.00,0.91
9685.00,0.91
9684.00,0.90
9683.00,0.90
9682.00,0.90
9681.00,0.90
9680.00,0.90
9679.00,0.89
9678.00,0.89
9677.00,0.89
9676.00,0.89
9675.00,0.89
9674.00,0.89
9673.00,0.89
9672.00,0.89
9671.00,0.89
9670.00,0.88
9669.00,0.88
9668.00,0.88
9667.00,0.88
9666.00,0.88
9665.00,0.87
9664.00,0.87
9663.00,0.86
9662.00,0.86
9661.00,0.85
9660.00,0.85
9659.00,0.84
9658.00,0.84
9657.00,0.84
9656.00,0.84
9655.00,0.84
9654.00,0.84
9653.00,0.84
9652.00,0.84
9651.00,0.84
9650.00,0.84
9649.00,0.84
9648.00,0.84
9647.00,0.84
9646.00,0.84
9645.00,0.84
9644.00,0.84
9643.00,0.84
9642.00,0.85
9641.00,0.85
9640.00,0.85
9639.00,0.86
9638.00,0.86
9637.00,0.87
9636.00,0.87
9635.00,0.88
9634.00,0.88
9633.00,0.89
9632.00,0.90
9631.00,0.90
9630.00,0.91
9629.00,0.91
9628.00,0.92
9627.00,0.92
9626.00,0.92
9625.00,0.92
9624.00,0.92
9623.00,0.92
9622.00,0.92
9621.00,0.92
9620.00,0.92
9619.00,0.92
9618.00,0.92
9617.00,0.91
9616.00,0.91
9615.00,0.91
9614.00,0.90
9613.00,0.90
9612.00,0.89
9611.00,0.89
9610.00,0.88
9609.00,0.88
9608.00,0.87
9607.00,0.87
9606.00,0.86
9605.00,0.85
9604.00,0.85
9603.00,0.84
9602.00,0.84
9601.00,0.83
9600.00,0.82
9599.00,0.82
9598.00,0.81
9597.00,0.80
9596.00,0.80
9595.00,0.79
9594.00,0.79
9593.00,0.79
9592.00,0.78
9591.00,0.78
9590.00,0.78
9589.00,0.78
9588.00,0.78
9587.00,0.78
9586.00,0.79
9585.00,0.79
9584.00,0.79
9583.00,0.79
9582.00,0.79
9581.00,0.79
9580.00,0.79
9579.00,0.79
9578.00,0.80
9577.00,0.80
9576.00,0.80
9575.00,0.81
9574.00,0.82
9573.00,0.82
9572.00,0.83
9571.00,0.84
9570.00,0.84
9569.00,0.85
9568.00,0.85
9567.00,0.86
9566.00,0.86
9565.00,0.87
9564.00,0.87
9563.00,0.87
9562.00,0.88
9561.00,0.88
9560.00,0.88
9559.00,0.88
9558.00,0.89
9557.00,0.89
9556.00,0.90
9555.00,0.90
9554.00,0.90
9553.00,0.91
9552.00,0.91
9551.00,0.91
9550.00,0.91
9549.00,0.91
9548.00,0.91
9547.00,0.91
9546.00,0.91
9545.00,0.91
9544.00,0.90
9543.00,0.90
9542.00,0.90
9541.00,0.90
9540.00,0.90
9539.00,0.90
9538.00,0.90
9537.00,0.90
9536.00,0.90
9535.00,0.90
9534.00,0.90
9533.00,0.90
9532.00,0.90
9531.00,0.90
9530.00,0.90
9529.00,0.90
9528.00,0.90
9527.00,0.89
9526.00,0.89
9525.00,0.89
9524.00,0.89
9523.00,0.89
9522.00,0.89
9521.00,0.89
9520.00,0.89
9519.00,0.89
9518.00,0.89
9517.00,0.89
9516.00,0.89
9515.00,0.89
9514.00,0.89
9513.00,0.88
9512.00,0.88
9511.00,0.88
9510.00,0.87
9509.00,0.87
9508.00,0.87
9507.00,0.86
9506.00,0.86
9505.00,0.86
9504.00,0.86
9503.00,0.85
9502.00,0.85
9501.00,0.85
9500.00,0.85
9499.00,0.86
9498.00,0.86
9497.00,0.86
9496.00,0.86
9495.00,0.86
9494.00,0.86
9493.00,0.86
9492.00,0.87
9491.00,0.87
9490.00,0.87
9489.00,0.88
9488.00,0.88
9487.00,0.89
9486.00,0.89
9485.00,0.89
9484.00,0.90
9483.00,0.90
9482.00,0.90
9481.00,0.91
9480.00,0.91
9479.00,0.91
9478.00,0.91
9477.00,0.91
9476.00,0.91
9475.00,0.90
9474.00,0.90
9473.00,0.90
9472.00,0.90
9471.00,0.90
9470.00,0.90
9469.00,0.89
9468.00,0.89
9467.00,0.89
9466.00,0.89
9465.00,0.88
9464.00,0.88
9463.00,0.88
9462.00,0.87
9461.00,0.87
9460.00,0.87
9459.00,0.86
9458.00,0.86
9457.00,0.86
9456.00,0.86
9455.00,0.86
9454.00,0.86
9453.00,0.87
9452.00,0.87
9451.00,0.87
9450.00,0.88
9449.00,0.89
9448.00,0.89
9447.00,0.90
9446.00,0.90
9445.00,0.91
9444.00,0.92
9443.00,0.92
9442.00,0.93
9441.00,0.94
9440.00,0.94
9439.00,0.95
9438.00,0.95
9437.00,0.96
9436.00,0.97
9435.00,0.97
9434.00,0.98
9433.00,0.98
9432.00,0.99
9431.00,0.99
9430.00,1.00
9429.00,1.00
9428.00,1.00
9427.00,1.01
9426.00,1.01
9425.00,1.01
9424.00,1.01
9423.00,1.00
9422.00,1.00
9421.00,1.00
9420.00,0.99
9419.00,0.99
9418.00,0.98
9417.00,0.97
9416.00,0.97
9415.00,0.96
9414.00,0.95
9413.00,0.95
9412.00,0.94
9411.00,0.93
9410.00,0.93
9409.00,0.92
9408.00,0.91
9407.00,0.91
9406.00,0.90
9405.00,0.90
9404.00,0.89
9403.00,0.88
9402.00,0.88
9401.00,0.88
9400.00,0.87
9399.00,0.87
9398.00,0.87
9397.00,0.87
9396.00,0.87
9395.00,0.87
9394.00,0.87
9393.00,0.87
9392.00,0.87
9391.00,0.87
9390.00,0.88
9389.00,0.88
9388.00,0.88
9387.00,0.88
9386.00,0.89
9385.00,0.89
9384.00,0.89
9383.00,0.89
9382.00,0.89
9381.00,0.89
9380.00,0.90
9379.00,0.90
9378.00,0.90
9377.00,0.90
9376.00,0.90
9375.00,0.90
9374.00,0.90
9373.00,0.90
9372.00,0.90
9371.00,0.90
9370.00,0.89
9369.00,0.89
9368.00,0.89
9367.00,0.89
9366.00,0.89
9365.00,0.89
9364.00,0.89
9363.00,0.89
9362.00,0.89
9361.00,0.88
9360.00,0.88
9359.00,0.88
9358.00,0.88
9357.00,0.88
9356.00,0.89
9355.00,0.89
9354.00,0.89
9353.00,0.90
9352.00,0.90
9351.00,0.91
9350.00,0.91
9349.00,0.92
9348.00,0.92
9347.00,0.93
9346.00,0.94
9345.00,0.95
9344.00,0.95
9343.00,0.96
9342.00,0.97
9341.00,0.97
9340.00,0.98
9339.00,0.98
9338.00,0.99
9337.00,1.00
9336.00,1.00
9335.00,1.01
9334.00,1.01
9333.00,1.02
9332.00,1.02
9331.00,1.03
9330.00,1.03
9329.00,1.03
9328.00,1.03
9327.00,1.03
9326.00,1.03
9325.00,1.03
9324.00,1.03
9323.00,1.02
9322.00,1.02
9321.00,1.01
9320.00,1.01
9319.00,1.00
9318.00,1.00
9317.00,0.99
9316.00,0.98
9315.00,0.98
9314.00,0.97
9313.00,0.97
9312.00,0.96
9311.00,0.96
9310.00,0.96
9309.00,0.95
9308.00,0.95
9307.00,0.95
9306.00,0.94
9305.00,0.94
9304.00,0.94
9303.00,0.94
9302.00,0.94
9301.00,0.93
9300.00,0.93
9299.00,0.93
9298.00,0.93
9297.00,0.93
9296.00,0.93
9295.00,0.93
9294.00,0.93
9293.00,0.94
9292.00,0.94
9291.00,0.94
9290.00,0.94
9289.00,0.94
9288.00,0.94
9287.00,0.94
9286.00,0.94
9285.00,0.94
9284.00,0.95
9283.00,0.95
9282.00,0.95
9281.00,0.95
9280.00,0.95
9279.00,0.95
9278.00,0.95
9277.00,0.96
9276.00,0.96
9275.00,0.96
9274.00,0.95
9273.00,0.95
9272.00,0.95
9271.00,0.95
9270.00,0.95
9269.00,0.95
9268.00,0.95
9267.00,0.94
9266.00,0.94
9265.00,0.94
9264.00,0.94
9263.00,0.94
9262.00,0.94
9261.00,0.94
9260.00,0.93
9259.00,0.93
9258.00,0.93
9257.00,0.92
9256.00,0.92
9255.00,0.91
9254.00,0.91
9253.00,0.90
9252.00,0.90
9251.00,0.90
9250.00,0.90
9249.00,0.89
9248.00,0.89
9247.00,0.89
9246.00,0.89
9245.00,0.89
9244.00,0.89
9243.00,0.90
9242.00,0.90
9241.00,0.90
9240.00,0.90
9239.00,0.90
9238.00,0.90
9237.00,0.90
9236.00,0.90
9235.00,0.91
9234.00,0.91
9233.00,0.91
9232.00,0.91
9231.00,0.91
9230.00,0.91
9229.00,0.91
9228.00,0.91
9227.00,0.91
9226.00,0.91
9225.00,0.91
9224.00,0.92
9223.00,0.91
9222.00,0.91
9221.00,0.91
9220.00,0.91
9219.00,0.91
9218.00,0.91
9217.00,0.90
9216.00,0.90
9215.00,0.89
9214.00,0.89
9213.00,0.89
9212.00,0.88
9211.00,0.88
9210.00,0.88
9209.00,0.87
9208.00,0.87
9207.00,0.87
9206.00,0.87
9205.00,0.87
9204.00,0.86
9203.00,0.86
9202.00,0.86
9201.00,0.86
9200.00,0.86
9199.00,0.86
9198.00,0.86
9197.00,0.86
9196.00,0.85
9195.00,0.86
9194.00,0.86
9193.00,0.86
9192.00,0.86
9191.00,0.86
9190.00,0.86
9189.00,0.86
9188.00,0.87
9187.00,0.87
9186.00,0.87
9185.00,0.87
9184.00,0.87
9183.00,0.87
9182.00,0.87
9181.00,0.87
9180.00,0.87
9179.00,0.87
9178.00,0.87
9177.00,0.87
9176.00,0.87
9175.00,0.87
9174.00,0.87
9173.00,0.86
9172.00,0.86
9171.00,0.86
9170.00,0.86
9169.00,0.86
9168.00,0.86
9167.00,0.86
9166.00,0.85
9165.00,0.85
9164.00,0.85
9163.00,0.85
9162.00,0.86
9161.00,0.86
9160.00,0.86
9159.00,0.86
9158.00,0.86
9157.00,0.87
9156.00,0.87
9155.00,0.87
9154.00,0.88
9153.00,0.88
9152.00,0.89
9151.00,0.89
9150.00,0.90
9149.00,0.90
9148.00,0.91
9147.00,0.91
9146.00,0.92
9145.00,0.92
9144.00,0.93
9143.00,0.93
9142.00,0.93
9141.00,0.93
9140.00,0.94
9139.00,0.94
9138.00,0.94
9137.00,0.94
9136.00,0.94
9135.00,0.94
9134.00,0.94
9133.00,0.94
9132.00,0.94
9131.00,0.94
9130.00,0.94
9129.00,0.94
9128.00,0.94
9127.00,0.94
9126.00,0.93
9125.00,0.93
9124.00,0.93
9123.00,0.93
9122.00,0.93
9121.00,0.93
9120.00,0.93
9119.00,0.92
9118.00,0.92
9117.00,0.92
9116.00,0.92
9115.00,0.92
9114.00,0.92
9113.00,0.92
9112.00,0.92
9111.00,0.92
9110.00,0.92
9109.00,0.92
9108.00,0.92
9107.00,0.92
9106.00,0.92
9105.00,0.92
9104.00,0.92
9103.00,0.91
9102.00,0.91
9101.00,0.91
9100.00,0.90
9099.00,0.90
9098.00,0.90
9097.00,0.89
9096.00,0.89
9095.00,0.89
9094.00,0.89
9093.00,0.89
9092.00,0.89
9091.00,0.89
9090.00,0.88
9089.00,0.88
9088.00,0.88
9087.00,0.88
9086.00,0.88
9085.00,0.87
9084.00,0.87
9083.00,0.87
9082.00,0.86
9081.00,0.86
9080.00,0.86
9079.00,0.86
9078.00,0.86
9077.00,0.86
9076.00,0.86
9075.00,0.86
9074.00,0.86
9073.00,0.86
9072.00,0.86
9071.00,0.87
9070.00,0.87
9069.00,0.87
9068.00,0.87
9067.00,0.87
9066.00,0.87
9065.00,0.87
9064.00,0.87
9063.00,0.87
9062.00,0.87
9061.00,0.88
9060.00,0.88
9059.00,0.88
9058.00,0.89
9057.00,0.90
9056.00,0.90
9055.00,0.91
9054.00,0.91
9053.00,0.92
9052.00,0.93
9051.00,0.93
9050.00,0.94
9049.00,0.94
9048.00,0.95
9047.00,0.95
9046.00,0.96
9045.00,0.96
9044.00,0.96
9043.00,0.97
9042.00,0.97
9041.00,0.97
9040.00,0.98
9039.00,0.98
9038.00,0.98
9037.00,0.99
9036.00,0.99
9035.00,1.00
9034.00,1.00
9033.00,1.00
9032.00,1.00
9031.00,1.00
9030.00,1.00
9029.00,1.00
9028.00,1.00
9027.00,1.00
9026.00,1.00
9025.00,1.00
9024.00,1.00
9023.00,1.00
9022.00,1.00
9021.00,0.99
9020.00,0.99
9019.00,0.99
9018.00,0.99
9017.00,0.99
9016.00,0.99
9015.00,0.99
9014.00,0.98
9013.00,0.98
9012.00,0.98
9011.00,0.98
9010.00,0.98
9009.00,0.97
9008.00,0.97
9007.00,0.96
9006.00,0.96
9005.00,0.96
9004.00,0.95
9003.00,0.95
9002.00,0.95
9001.00,0.94
9000.00,0.94
8999.00,0.93
8998.00,0.93
8997.00,0.93
8996.00,0.93
8995.00,0.93
8994.00,0.92
8993.00,0.92
8992.00,0.92
8991.00,0.92
8990.00,0.92
8989.00,0.92
8988.00,0.92
8987.00,0.92
8986.00,0.92
8985.00,0.92
8984.00,0.93
8983.00,0.93
8982.00,0.93
8981.00,0.93
8980.00,0.93
8979.00,0.93
8978.00,0.93
8977.00,0.94
8976.00,0.94
8975.00,0.94
8974.00,0.95
8973.00,0.95
8972.00,0.95
8971.00,0.96
8970.00,0.96
8969.00,0.96
8968.00,0.97
8967.00,0.97
8966.00,0.97
8965.00,0.97
8964.00,0.97
8963.00,0.98
8962.00,0.98
8961.00,0.98
8960.00,0.98
8959.00,0.98
8958.00,0.98
8957.00,0.98
8956.00,0.98
8955.00,0.98
8954.00,0.98
8953.00,0.98
8952.00,0.98
8951.00,0.98
8950.00,0.98
8949.00,0.98
8948.00,0.98
8947.00,0.98
8946.00,0.97
8945.00,0.97
8944.00,0.97
8943.00,0.96
8942.00,0.96
8941.00,0.95
8940.00,0.95
8939.00,0.95
8938.00,0.95
8937.00,0.94
8936.00,0.94
8935.00,0.94
8934.00,0.93
8933.00,0.93
8932.00,0.93
8931.00,0.93
8930.00,0.92
8929.00,0.92
8928.00,0.92
8927.00,0.92
8926.00,0.92
8925.00,0.92
8924.00,0.92
8923.00,0.92
8922.00,0.92
8921.00,0.92
8920.00,0.92
8919.00,0.92
8918.00,0.93
8917.00,0.93
8916.00,0.93
8915.00,0.93
8914.00,0.94
8913.00,0.94
8912.00,0.94
8911.00,0.95
8910.00,0.95
8909.00,0.96
8908.00,0.96
8907.00,0.97
8906.00,0.97
8905.00,0.98
8904.00,0.98
8903.00,0.99
8902.00,1.00
8901.00,1.00
8900.00,1.01
8899.00,1.01
8898.00,1.01
8897.00,1.02
8896.00,1.02
8895.00,1.02
8894.00,1.02
8893.00,1.02
8892.00,1.02
8891.00,1.02
8890.00,1.01
8889.00,1.01
8888.00,1.01
8887.00,1.01
8886.00,1.01
8885.00,1.00
8884.00,1.00
8883.00,1.00
8882.00,0.99
8881.00,0.99
8880.00,0.98
8879.00,0.97
8878.00,0.97
8877.00,0.96
8876.00,0.95
8875.00,0.95
8874.00,0.94
8873.00,0.93
8872.00,0.93
8871.00,0.93
8870.00,0.92
8869.00,0.92
8868.00,0.92
8867.00,0.92
8866.00,0.92
8865.00,0.92
8864.00,0.92
8863.00,0.92
8862.00,0.92
8861.00,0.92
8860.00,0.92
8859.00,0.93
8858.00,0.93
8857.00,0.93
8856.00,0.93
8855.00,0.94
8854.00,0.94
8853.00,0.95
8852.00,0.95
8851.00,0.95
8850.00,0.96
8849.00,0.96
8848.00,0.96
8847.00,0.96
8846.00,0.97
8845.00,0.97
8844.00,0.97
8843.00,0.97
8842.00,0.97
8841.00,0.97
8840.00,0.97
8839.00,0.97
8838.00,0.97
8837.00,0.97
8836.00,0.96
8835.00,0.96
8834.00,0.96
8833.00,0.96
8832.00,0.96
8831.00,0.95
8830.00,0.95
8829.00,0.95
8828.00,0.95
8827.00,0.95
8826.00,0.95
8825.00,0.94
8824.00,0.94
8823.00,0.94
8822.00,0.94
8821.00,0.94
8820.00,0.94
8819.00,0.94
8818.00,0.94
8817.00,0.94
8816.00,0.94
8815.00,0.94
8814.00,0.94
8813.00,0.94
8812.00,0.95
8811.00,0.95
8810.00,0.95
8809.00,0.95
8808.00,0.95
8807.00,0.95
8806.00,0.95
8805.00,0.95
8804.00,0.95
8803.00,0.95
8802.00,0.95
8801.00,0.95
8800.00,0.95
8799.00,0.95
8798.00,0.95
8797.00,0.95
8796.00,0.95
8795.00,0.95
8794.00,0.95
8793.00,0.95
8792.00,0.95
8791.00,0.95
8790.00,0.95
8789.00,0.95
8788.00,0.95
8787.00,0.95
8786.00,0.95
8785.00,0.95
8784.00,0.95
8783.00,0.94
8782.00,0.94
8781.00,0.94
8780.00,0.94
8779.00,0.94
8778.00,0.94
8777.00,0.93
8776.00,0.93
8775.00,0.93
8774.00,0.93
8773.00,0.93
8772.00,0.93
8771.00,0.93
8770.00,0.93
8769.00,0.92
8768.00,0.92
8767.00,0.92
8766.00,0.92
8765.00,0.91
8764.00,0.91
8763.00,0.91
8762.00,0.90
8761.00,0.90
8760.00,0.90
8759.00,0.90
8758.00,0.90
8757.00,0.89
8756.00,0.89
8755.00,0.89
8754.00,0.89
8753.00,0.89
8752.00,0.89
8751.00,0.89
8750.00,0.89
8749.00,0.89
8748.00,0.89
8747.00,0.89
8746.00,0.89
8745.00,0.89
8744.00,0.89
8743.00,0.89
8742.00,0.89
8741.00,0.89
8740.00,0.89
8739.00,0.89
8738.00,0.89
8737.00,0.89
8736.00,0.89
8735.00,0.89
8734.00,0.89
8733.00,0.89
8732.00,0.89
8731.00,0.89
8730.00,0.89
8729.00,0.89
8728.00,0.88
8727.00,0.88
8726.00,0.88
8725.00,0.88
8724.00,0.87
8723.00,0.87
8722.00,0.87
8721.00,0.87
8720.00,0.86
8719.00,0.86
8718.00,0.86
8717.00,0.86
8716.00,0.86
8715.00,0.85
8714.00,0.85
8713.00,0.85
8712.00,0.85
8711.00,0.84
8710.00,0.84
8709.00,0.84
8708.00,0.84
8707.00,0.84
8706.00,0.84
8705.00,0.84
8704.00,0.84
8703.00,0.84
8702.00,0.84
8701.00,0.84
8700.00,0.85
8699.00,0.85
8698.00,0.85
8697.00,0.86
8696.00,0.86
8695.00,0.86
8694.00,0.87
8693.00,0.87
8692.00,0.87
8691.00,0.88
8690.00,0.88
8689.00,0.88
8688.00,0.88
8687.00,0.89
8686.00,0.89
8685.00,0.89
8684.00,0.90
8683.00,0.90
8682.00,0.90
8681.00,0.90
8680.00,0.91
8679.00,0.91
8678.00,0.91
8677.00,0.91
8676.00,0.92
8675.00,0.92
8674.00,0.92
8673.00,0.92
8672.00,0.92
8671.00,0.92
8670.00,0.93
8669.00,0.93
8668.00,0.93
8667.00,0.93
8666.00,0.93
8665.00,0.93
8664.00,0.94
8663.00,0.94
8662.00,0.94
8661.00,0.95
8660.00,0.95
8659.00,0.95
8658.00,0.96
8657.00,0.96
8656.00,0.96
8655.00,0.97
8654.00,0.97
8653.00,0.97
8652.00,0.98
8651.00,0.98
8650.00,0.98
8649.00,0.99
8648.00,0.99
8647.00,1.00
8646.00,1.00
8645.00,1.01
8644.00,1.01
8643.00,1.01
8642.00,1.02
8641.00,1.02
8640.00,1.03
8639.00,1.03
8638.00,1.03
8637.00,1.03
8636.00,1.04
8635.00,1.04
8634.00,1.04
8633.00,1.04
8632.00,1.04
8631.00,1.04
8630.00,1.04
8629.00,1.04
8628.00,1.04
8627.00,1.04
8626.00,1.04
8625.00,1.04
8624.00,1.04
8623.00,1.04
8622.00,1.04
8621.00,1.03
8620.00,1.03
8619.00,1.02
8618.00,1.02
8617.00,1.01
8616.00,1.01
8615.00,1.00
8614.00,1.00
8613.00,1.00
8612.00,0.99
8611.00,0.99
8610.00,0.99
8609.00,0.99
8608.00,0.98
8607.00,0.98
8606.00,0.98
8605.00,0.97
8604.00,0.97
8603.00,0.97
8602.00,0.96
8601.00,0.96
8600.00,0.95
8599.00,0.95
8598.00,0.94
8597.00,0.94
8596.00,0.94
8595.00,0.93
8594.00,0.93
8593.00,0.93
8592.00,0.92
8591.00,0.92
8590.00,0.92
8589.00,0.92
8588.00,0.92
8587.00,0.92
8586.00,0.91
8585.00,0.91
8584.00,0.91
8583.00,0.91
8582.00,0.91
8581.00,0.91
8580.00,0.91
8579.00,0.91
8578.00,0.91
8577.00,0.91
8576.00,0.91
8575.00,0.91
8574.00,0.92
8573.00,0.92
8572.00,0.92
8571.00,0.93
8570.00,0.93
8569.00,0.93
8568.00,0.94
8567.00,0.94
8566.00,0.94
8565.00,0.94
8564.00,0.94
8563.00,0.94
8562.00,0.94
8561.00,0.94
8560.00,0.94
8559.00,0.94
8558.00,0.93
8557.00,0.93
8556.00,0.93
8555.00,0.92
8554.00,0.92
8553.00,0.91
8552.00,0.91
8551.00,0.90
8550.00,0.90
8549.00,0.89
8548.00,0.88
8547.00,0.87
8546.00,0.87
8545.00,0.86
8544.00,0.85
8543.00,0.85
8542.00,0.84
8541.00,0.84
8540.00,0.83
8539.00,0.83
8538.00,0.83
8537.00,0.82
8536.00,0.82
8535.00,0.82
8534.00,0.82
8533.00,0.82
8532.00,0.82
8531.00,0.82
8530.00,0.82
8529.00,0.82
8528.00,0.82
8527.00,0.82
8526.00,0.82
8525.00,0.82
8524.00,0.83
8523.00,0.83
8522.00,0.83
8521.00,0.83
8520.00,0.83
8519.00,0.83
8518.00,0.83
8517.00,0.83
8516.00,0.83
8515.00,0.83
8514.00,0.84
8513.00,0.84
8512.00,0.83
8511.00,0.83
8510.00,0.83
8509.00,0.83
8508.00,0.83
8507.00,0.83
8506.00,0.83
8505.00,0.83
8504.00,0.83
8503.00,0.83
8502.00,0.83
8501.00,0.83
8500.00,0.83
8499.00,0.83
8498.00,0.83
8497.00,0.83
8496.00,0.83
8495.00,0.84
8494.00,0.84
8493.00,0.84
8492.00,0.84
8491.00,0.84
8490.00,0.85
8489.00,0.85
8488.00,0.85
8487.00,0.85
8486.00,0.86
8485.00,0.86
8484.00,0.86
8483.00,0.86
8482.00,0.86
8481.00,0.87
8480.00,0.87
8479.00,0.87
8478.00,0.87
8477.00,0.88
8476.00,0.88
8475.00,0.88
8474.00,0.88
8473.00,0.89
8472.00,0.89
8471.00,0.89
8470.00,0.89
8469.00,0.90
8468.00,0.90
8467.00,0.90
8466.00,0.90
8465.00,0.90
8464.00,0.91
8463.00,0.91
8462.00,0.91
8461.00,0.91
8460.00,0.91
8459.00,0.91
8458.00,0.92
8457.00,0.92
8456.00,0.92
8455.00,0.92
8454.00,0.92
8453.00,0.93
8452.00,0.93
8451.00,0.93
8450.00,0.93
8449.00,0.93
8448.00,0.93
8447.00,0.93
8446.00,0.93
8445.00,0.93
8444.00,0.93
8443.00,0.93
8442.00,0.93
8441.00,0.93
8440.00,0.93
8439.00,0.92
8438.00,0.92
8437.00,0.92
8436.00,0.92
8435.00,0.92
8434.00,0.92
8433.00,0.92
8432.00,0.91
8431.00,0.91
8430.00,0.91
8429.00,0.91
8428.00,0.91
8427.00,0.91
8426.00,0.91
8425.00,0.90
8424.00,0.90
8423.00,0.90
8422.00,0.90
8421.00,0.90
8420.00,0.90
8419.00,0.90
8418.00,0.90
8417.00,0.90
8416.00,0.90
8415.00,0.90
8414.00,0.90
8413.00,0.90
8412.00,0.90
8411.00,0.90
8410.00,0.91
8409.00,0.91
8408.00,0.91
8407.00,0.91
8406.00,0.91
8405.00,0.91
8404.00,0.91
8403.00,0.91
8402.00,0.91
8401.00,0.90
8400.00,0.90
8399.00,0.90
8398.00,0.90
8397.00,0.90
8396.00,0.89
8395.00,0.89
8394.00,0.89
8393.00,0.89
8392.00,0.88
8391.00,0.88
8390.00,0.88
8389.00,0.87
8388.00,0.87
8387.00,0.86
8386.00,0.86
8385.00,0.86
8384.00,0.86
8383.00,0.85
8382.00,0.85
8381.00,0.85
8380.00,0.85
8379.00,0.84
8378.00,0.84
8377.00,0.84
8376.00,0.84
8375.00,0.84
8374.00,0.84
8373.00,0.84
8372.00,0.84
8371.00,0.84
8370.00,0.85
8369.00,0.85
8368.00,0.85
8367.00,0.85
8366.00,0.85
8365.00,0.85
8364.00,0.86
8363.00,0.86
8362.00,0.86
8361.00,0.86
8360.00,0.87
8359.00,0.87
8358.00,0.87
8357.00,0.88
8356.00,0.88
8355.00,0.89
8354.00,0.89
8353.00,0.89
8352.00,0.90
8351.00,0.90
8350.00,0.91
8349.00,0.91
8348.00,0.91
8347.00,0.92
8346.00,0.92
8345.00,0.92
8344.00,0.93
8343.00,0.93
8342.00,0.93
8341.00,0.94
8340.00,0.94
8339.00,0.94
8338.00,0.95
8337.00,0.95
8336.00,0.95
8335.00,0.95
8334.00,0.95
8333.00,0.95
8332.00,0.95
8331.00,0.95
8330.00,0.95
8329.00,0.95
8328.00,0.95
8327.00,0.95
8326.00,0.95
8325.00,0.94
8324.00,0.94
8323.00,0.94
8322.00,0.94
8321.00,0.94
8320.00,0.93
8319.00,0.93
8318.00,0.93
8317.00,0.93
8316.00,0.92
8315.00,0.92
8314.00,0.92
8313.00,0.92
8312.00,0.91
8311.00,0.91
8310.00,0.91
8309.00,0.91
8308.00,0.90
8307.00,0.90
8306.00,0.90
8305.00,0.90
8304.00,0.90
8303.00,0.90
8302.00,0.90
8301.00,0.90
8300.00,0.90
8299.00,0.90
8298.00,0.90
8297.00,0.90
8296.00,0.90
8295.00,0.90
8294.00,0.90
8293.00,0.90
8292.00,0.90
8291.00,0.90
8290.00,0.90
8289.00,0.90
8288.00,0.90
8287.00,0.90
8286.00,0.90
8285.00,0.90
8284.00,0.90
8283.00,0.90
8282.00,0.90
8281.00,0.90
8280.00,0.90
8279.00,0.90
8278.00,0.90
8277.00,0.90
8276.00,0.90
8275.00,0.90
8274.00,0.90
8273.00,0.90
8272.00,0.90
8271.00,0.90
8270.00,0.91
8269.00,0.91
8268.00,0.91
8267.00,0.91
8266.00,0.91
8265.00,0.91
8264.00,0.92
8263.00,0.92
8262.00,0.92
8261.00,0.93
8260.00,0.93
8259.00,0.94
8258.00,0.94
8257.00,0.94
8256.00,0.94
8255.00,0.95
8254.00,0.95
8253.00,0.95
8252.00,0.95
8251.00,0.96
8250.00,0.96
8249.00,0.96
8248.00,0.97
8247.00,0.97
8246.00,0.97
8245.00,0.98
8244.00,0.98
8243.00,0.98
8242.00,0.98
8241.00,0.99
8240.00,0.99
8239.00,0.99
8238.00,0.99
8237.00,0.99
8236.00,0.99
8235.00,0.99
8234.00,0.99
8233.00,0.98
8232.00,0.98
8231.00,0.98
8230.00,0.98
8229.00,0.98
8228.00,0.98
8227.00,0.98
8226.00,0.98
8225.00,0.98
8224.00,0.98
8223.00,0.97
8222.00,0.97
8221.00,0.97
8220.00,0.97
8219.00,0.97
8218.00,0.96
8217.00,0.96
8216.00,0.96
8215.00,0.96
8214.00,0.96
8213.00,0.96
8212.00,0.96
8211.00,0.96
8210.00,0.96
8209.00,0.96
8208.00,0.96
8207.00,0.96
8206.00,0.96
8205.00,0.96
8204.00,0.96
8203.00,0.97
8202.00,0.97
8201.00,0.97
8200.00,0.97
8199.00,0.97
8198.00,0.97
8197.00,0.97
8196.00,0.97
8195.00,0.98
8194.00,0.98
8193.00,0.98
8192.00,0.98
8191.00,0.98
8190.00,0.98
8189.00,0.98
8188.00,0.98
8187.00,0.98
8186.00,0.97
8185.00,0.97
8184.00,0.97
8183.00,0.97
8182.00,0.97
8181.00,0.97
8180.00,0.97
8179.00,0.97
8178.00,0.96
8177.00,0.96
8176.00,0.96
8175.00,0.96
8174.00,0.96
8173.00,0.96
8172.00,0.95
8171.00,0.95
8170.00,0.95
8169.00,0.95
8168.00,0.95
8167.00,0.95
8166.00,0.95
8165.00,0.94
8164.00,0.94
8163.00,0.94
8162.00,0.94
8161.00,0.94
8160.00,0.94
8159.00,0.94
8158.00,0.94
8157.00,0.94
8156.00,0.94
8155.00,0.93
8154.00,0.93
8153.00,0.93
8152.00,0.93
8151.00,0.93
8150.00,0.92
8149.00,0.92
8148.00,0.92
8147.00,0.92
8146.00,0.92
8145.00,0.91
8144.00,0.91
8143.00,0.91
8142.00,0.91
8141.00,0.92
8140.00,0.92
8139.00,0.92
8138.00,0.92
8137.00,0.92
8136.00,0.93
8135.00,0.93
8134.00,0.93
8133.00,0.93
8132.00,0.94
8131.00,0.94
8130.00,0.94
8129.00,0.94
8128.00,0.95
8127.00,0.95
8126.00,0.95
8125.00,0.96
8124.00,0.96
8123.00,0.97
8122.00,0.97
8121.00,0.97
8120.00,0.98
8119.00,0.98
8118.00,0.98
8117.00,0.99
8116.00,0.99
8115.00,0.99
8114.00,0.99
8113.00,0.99
8112.00,0.99
8111.00,0.99
8110.00,0.99
8109.00,0.99
8108.00,0.99
8107.00,0.99
8106.00,0.99
8105.00,0.99
8104.00,0.99
8103.00,0.99
8102.00,0.99
8101.00,0.99
8100.00,0.99
8099.00,0.99
8098.00,0.99
8097.00,0.99
8096.00,0.99
8095.00,0.99
8094.00,0.98
8093.00,0.98
8092.00,0.98
8091.00,0.98
8090.00,0.98
8089.00,0.98
8088.00,0.97
8087.00,0.97
8086.00,0.97
8085.00,0.97
8084.00,0.97
8083.00,0.97
8082.00,0.97
8081.00,0.97
8080.00,0.97
8079.00,0.97
8078.00,0.97
8077.00,0.97
8076.00,0.97
8075.00,0.97
8074.00,0.97
8073.00,0.97
8072.00,0.97
8071.00,0.98
8070.00,0.98
8069.00,0.98
8068.00,0.98
8067.00,0.98
8066.00,0.99
8065.00,0.99
8064.00,0.99
8063.00,1.00
8062.00,1.00
8061.00,1.00
8060.00,1.01
8059.00,1.01
8058.00,1.02
8057.00,1.02
8056.00,1.02
8055.00,1.02
8054.00,1.03
8053.00,1.03
8052.00,1.03
8051.00,1.03
8050.00,1.03
8049.00,1.03
8048.00,1.03
8047.00,1.02
8046.00,1.02
8045.00,1.02
8044.00,1.02
8043.00,1.01
8042.00,1.01
8041.00,1.01
8040.00,1.01
8039.00,1.00
8038.00,1.00
8037.00,1.00
8036.00,0.99
8035.00,0.99
8034.00,0.99
8033.00,0.99
8032.00,0.98
8031.00,0.98
8030.00,0.98
8029.00,0.98
8028.00,0.97
8027.00,0.97
8026.00,0.97
8025.00,0.97
8024.00,0.97
8023.00,0.97
8022.00,0.97
8021.00,0.97
8020.00,0.97
8019.00,0.97
8018.00,0.97
8017.00,0.97
8016.00,0.97
8015.00,0.97
8014.00,0.97
8013.00,0.98
8012.00,0.98
8011.00,0.98
8010.00,0.98
8009.00,0.98
8008.00,0.98
8007.00,0.97
8006.00,0.97
8005.00,0.97
8004.00,0.97
8003.00,0.97
8002.00,0.97
8001.00,0.97
8000.00,0.96
7999.00,0.96
7998.00,0.96
7997.00,0.96
7996.00,0.96
7995.00,0.96
7994.00,0.96
7993.00,0.96
7992.00,0.97
7991.00,0.97
7990.00,0.97
7989.00,0.97
7988.00,0.97
7987.00,0.97
7986.00,0.97
7985.00,0.97
7984.00,0.97
7983.00,0.98
7982.00,0.98
7981.00,0.98
7980.00,0.98
7979.00,0.98
7978.00,0.99
7977.00,0.99
7976.00,0.99
7975.00,0.99
7974.00,1.00
7973.00,1.00
7972.00,1.00
7971.00,1.00
7970.00,1.00
7969.00,1.00
7968.00,1.00
7967.00,1.00
7966.00,1.00
7965.00,0.99
7964.00,0.99
7963.00,0.99
7962.00,0.99
7961.00,0.99
7960.00,0.99
7959.00,0.99
7958.00,0.99
7957.00,0.99
7956.00,0.98
7955.00,0.98
7954.00,0.98
7953.00,0.98
7952.00,0.98
7951.00,0.98
7950.00,0.98
7949.00,0.98
7948.00,0.98
7947.00,0.98
7946.00,0.98
7945.00,0.98
7944.00,0.98
7943.00,0.98
7942.00,0.98
7941.00,0.98
7940.00,0.99
7939.00,0.99
7938.00,0.99
7937.00,0.99
7936.00,0.99
7935.00,0.99
7934.00,0.99
7933.00,0.99
7932.00,0.99
7931.00,0.99
7930.00,0.99
7929.00,0.99
7928.00,0.99
7927.00,0.98
7926.00,0.98
7925.00,0.98
7924.00,0.98
7923.00,0.98
7922.00,0.98
7921.00,0.98
7920.00,0.97
7919.00,0.97
7918.00,0.97
7917.00,0.97
7916.00,0.97
7915.00,0.97
7914.00,0.96
7913.00,0.96
7912.00,0.96
7911.00,0.96
7910.00,0.96
7909.00,0.96
7908.00,0.97
7907.00,0.97
7906.00,0.97
7905.00,0.97
7904.00,0.97
7903.00,0.97
7902.00,0.98
7901.00,0.98
7900.00,0.98
7899.00,0.98
7898.00,0.99
7897.00,0.99
7896.00,0.99
7895.00,0.99
7894.00,1.00
7893.00,1.00
7892.00,1.00
7891.00,1.01
7890.00,1.01
7889.00,1.01
7888.00,1.01
7887.00,1.02
7886.00,1.02
7885.00,1.02
7884.00,1.02
7883.00,1.02
7882.00,1.03
7881.00,1.03
7880.00,1.03
7879.00,1.03
7878.00,1.03
7877.00,1.03
7876.00,1.03
7875.00,1.03
7874.00,1.03
7873.00,1.03
7872.00,1.03
7871.00,1.03
7870.00,1.03
7869.00,1.04
7868.00,1.04
7867.00,1.04
7866.00,1.04
7865.00,1.04
7864.00,1.04
7863.00,1.05
7862.00,1.05
7861.00,1.05
7860.00,1.05
7859.00,1.05
7858.00,1.05
7857.00,1.06
7856.00,1.06
7855.00,1.06
7854.00,1.06
7853.00,1.06
7852.00,1.06
7851.00,1.06
7850.00,1.06
7849.00,1.06
7848.00,1.06
7847.00,1.06
7846.00,1.06
7845.00,1.06
7844.00,1.06
7843.00,1.06
7842.00,1.06
7841.00,1.06
7840.00,1.06
7839.00,1.05
7838.00,1.05
7837.00,1.05
7836.00,1.04
7835.00,1.04
7834.00,1.04
7833.00,1.03
7832.00,1.03
7831.00,1.03
7830.00,1.02
7829.00,1.02
7828.00,1.02
7827.00,1.02
7826.00,1.02
7825.00,1.01
7824.00,1.01
7823.00,1.01
7822.00,1.01
7821.00,1.01
7820.00,1.01
7819.00,1.01
7818.00,1.00
7817.00,1.00
7816.00,1.00
7815.00,1.00
7814.00,1.00
7813.00,1.00
7812.00,1.00
7811.00,1.00
7810.00,1.00
7809.00,1.00
7808.00,1.00
7807.00,1.00
7806.00,1.00
7805.00,1.00
7804.00,1.00
7803.00,1.00
7802.00,1.00
7801.00,1.00
7800.00,1.00
7799.00,1.00
7798.00,0.99
7797.00,0.99
7796.00,0.99
7795.00,0.99
7794.00,0.98
7793.00,0.98
7792.00,0.98
7791.00,0.98
7790.00,0.97
7789.00,0.97
7788.00,0.97
7787.00,0.96
7786.00,0.96
7785.00,0.96
7784.00,0.96
7783.00,0.95
7782.00,0.95
7781.00,0.95
7780.00,0.95
7779.00,0.95
7778.00,0.95
7777.00,0.95
7776.00,0.95
7775.00,0.95
7774.00,0.95
7773.00,0.95
7772.00,0.95
7771.00,0.96
7770.00,0.96
7769.00,0.96
7768.00,0.96
7767.00,0.97
7766.00,0.97
7765.00,0.97
7764.00,0.98
7763.00,0.98
7762.00,0.98
7761.00,0.99
7760.00,0.99
7759.00,1.00
7758.00,1.00
7757.00,1.01
7756.00,1.01
7755.00,1.01
7754.00,1.02
7753.00,1.02
7752.00,1.02
7751.00,1.03
7750.00,1.03
7749.00,1.03
7748.00,1.04
7747.00,1.04
7746.00,1.04
7745.00,1.04
7744.00,1.05
7743.00,1.05
7742.00,1.05
7741.00,1.05
7740.00,1.05
7739.00,1.05
7738.00,1.05
7737.00,1.05
7736.00,1.06
7735.00,1.06
7734.00,1.06
7733.00,1.06
7732.00,1.06
7731.00,1.06
7730.00,1.06
7729.00,1.06
7728.00,1.06
7727.00,1.06
7726.00,1.06
7725.00,1.06
7724.00,1.06
7723.00,1.06
7722.00,1.06
7721.00,1.06
7720.00,1.06
7719.00,1.06
7718.00,1.06
7717.00,1.06
7716.00,1.06
7715.00,1.06
7714.00,1.06
7713.00,1.06
7712.00,1.06
7711.00,1.06
7710.00,1.06
7709.00,1.06
7708.00,1.06
7707.00,1.06
7706.00,1.06
7705.00,1.06
7704.00,1.06
7703.00,1.06
7702.00,1.05
7701.00,1.05
7700.00,1.05
7699.00,1.05
7698.00,1.05
7697.00,1.04
7696.00,1.04
7695.00,1.04
7694.00,1.04
7693.00,1.04
7692.00,1.03
7691.00,1.03
7690.00,1.03
7689.00,1.03
7688.00,1.02
7687.00,1.02
7686.00,1.02
7685.00,1.02
7684.00,1.02
7683.00,1.01
7682.00,1.01
7681.00,1.01
7680.00,1.01
7679.00,1.01
7678.00,1.01
7677.00,1.01
7676.00,1.01
7675.00,1.01
7674.00,1.01
7673.00,1.02
7672.00,1.02
7671.00,1.02
7670.00,1.02
7669.00,1.02
7668.00,1.02
7667.00,1.03
7666.00,1.03
7665.00,1.03
7664.00,1.03
7663.00,1.04
7662.00,1.04
7661.00,1.04
7660.00,1.04
7659.00,1.05
7658.00,1.05
7657.00,1.05
7656.00,1.05
7655.00,1.05
7654.00,1.05
7653.00,1.05
7652.00,1.05
7651.00,1.05
7650.00,1.05
7649.00,1.05
7648.00,1.05
7647.00,1.05
7646.00,1.05
7645.00,1.05
7644.00,1.05
7643.00,1.05
7642.00,1.05
7641.00,1.05
7640.00,1.05
7639.00,1.04
7638.00,1.04
7637.00,1.04
7636.00,1.04
7635.00,1.04
7634.00,1.04
7633.00,1.04
7632.00,1.04
7631.00,1.04
7630.00,1.04
7629.00,1.05
7628.00,1.05
7627.00,1.05
7626.00,1.05
7625.00,1.05
7624.00,1.05
7623.00,1.05
7622.00,1.05
7621.00,1.06
7620.00,1.06
7619.00,1.06
7618.00,1.06
7617.00,1.06
7616.00,1.06
7615.00,1.06
7614.00,1.06
7613.00,1.06
7612.00,1.06
7611.00,1.06
7610.00,1.06
7609.00,1.06
7608.00,1.06
7607.00,1.06
7606.00,1.06
7605.00,1.06
7604.00,1.06
7603.00,1.06
7602.00,1.06
7601.00,1.06
7600.00,1.05
7599.00,1.05
7598.00,1.05
7597.00,1.05
7596.00,1.05
7595.00,1.05
7594.00,1.05
7593.00,1.04
7592.00,1.04
7591.00,1.04
7590.00,1.04
7589.00,1.04
7588.00,1.04
7587.00,1.04
7586.00,1.04
7585.00,1.04
7584.00,1.03
7583.00,1.03
7582.00,1.03
7581.00,1.03
7580.00,1.03
7579.00,1.03
7578.00,1.03
7577.00,1.03
7576.00,1.03
7575.00,1.03
7574.00,1.03
7573.00,1.03
7572.00,1.04
7571.00,1.04
7570.00,1.04
7569.00,1.04
7568.00,1.04
7567.00,1.04
7566.00,1.04
7565.00,1.05
7564.00,1.05
7563.00,1.05
7562.00,1.05
7561.00,1.05
7560.00,1.05
7559.00,1.06
7558.00,1.06
7557.00,1.06
7556.00,1.06
7555.00,1.06
7554.00,1.07
7553.00,1.07
7552.00,1.07
7551.00,1.07
7550.00,1.07
7549.00,1.08
7548.00,1.08
7547.00,1.08
7546.00,1.08
7545.00,1.08
7544.00,1.08
7543.00,1.09
7542.00,1.09
7541.00,1.09
7540.00,1.09
7539.00,1.09
7538.00,1.09
7537.00,1.09
7536.00,1.08
7535.00,1.08
7534.00,1.08
7533.00,1.08
7532.00,1.08
7531.00,1.08
7530.00,1.08
7529.00,1.07
7528.00,1.07
7527.00,1.07
7526.00,1.07
7525.00,1.06
7524.00,1.06
7523.00,1.06
7522.00,1.05
7521.00,1.05
7520.00,1.05
7519.00,1.05
7518.00,1.04
7517.00,1.04
7516.00,1.04
7515.00,1.04
7514.00,1.03
7513.00,1.03
7512.00,1.03
7511.00,1.03
7510.00,1.03
7509.00,1.03
7508.00,1.03
7507.00,1.03
7506.00,1.03
7505.00,1.03
7504.00,1.03
7503.00,1.03
7502.00,1.04
7501.00,1.04
7500.00,1.04
7499.00,1.04
7498.00,1.04
7497.00,1.04
7496.00,1.05
7495.00,1.05
7494.00,1.05
7493.00,1.05
7492.00,1.06
7491.00,1.06
7490.00,1.06
7489.00,1.06
7488.00,1.06
7487.00,1.07
7486.00,1.07
7485.00,1.07
7484.00,1.07
7483.00,1.07
7482.00,1.07
7481.00,1.07
7480.00,1.07
7479.00,1.08
7478.00,1.08
7477.00,1.08
7476.00,1.08
7475.00,1.08
7474.00,1.08
7473.00,1.08
7472.00,1.08
7471.00,1.08
7470.00,1.08
7469.00,1.08
7468.00,1.08
7467.00,1.08
7466.00,1.08
7465.00,1.08
7464.00,1.08
7463.00,1.08
7462.00,1.09
7461.00,1.09
7460.00,1.09
7459.00,1.09
7458.00,1.09
7457.00,1.09
7456.00,1.09
7455.00,1.09
7454.00,1.09
7453.00,1.09
7452.00,1.09
7451.00,1.09
7450.00,1.09
7449.00,1.09
7448.00,1.09
7447.00,1.09
7446.00,1.09
7445.00,1.09
7444.00,1.08
7443.00,1.08
7442.00,1.08
7441.00,1.08
7440.00,1.08
7439.00,1.08
7438.00,1.08
7437.00,1.08
7436.00,1.08
7435.00,1.08
7434.00,1.07
7433.00,1.07
7432.00,1.07
7431.00,1.07
7430.00,1.07
7429.00,1.07
7428.00,1.07
7427.00,1.07
7426.00,1.07
7425.00,1.06
7424.00,1.06
7423.00,1.06
7422.00,1.06
7421.00,1.06
7420.00,1.06
7419.00,1.06
7418.00,1.06
7417.00,1.06
7416.00,1.05
7415.00,1.05
7414.00,1.05
7413.00,1.05
7412.00,1.05
7411.00,1.04
7410.00,1.04
7409.00,1.04
7408.00,1.04
7407.00,1.04
7406.00,1.03
7405.00,1.03
7404.00,1.03
7403.00,1.03
7402.00,1.03
7401.00,1.03
7400.00,1.03
7399.00,1.03
7398.00,1.02
7397.00,1.02
7396.00,1.02
7395.00,1.02
7394.00,1.02
7393.00,1.02
7392.00,1.01
7391.00,1.01
7390.00,1.01
7389.00,1.01
7388.00,1.01
7387.00,1.01
7386.00,1.01
7385.00,1.01
7384.00,1.01
7383.00,1.01
7382.00,1.01
7381.00,1.01
7380.00,1.01
7379.00,1.01
7378.00,1.01
7377.00,1.01
7376.00,1.01
7375.00,1.01
7374.00,1.01
7373.00,1.01
7372.00,1.01
7371.00,1.01
7370.00,1.01
7369.00,1.01
7368.00,1.02
7367.00,1.02
7366.00,1.02
7365.00,1.02
7364.00,1.02
7363.00,1.02
7362.00,1.03
7361.00,1.03
7360.00,1.03
7359.00,1.03
7358.00,1.03
7357.00,1.03
7356.00,1.03
7355.00,1.04
7354.00,1.04
7353.00,1.04
7352.00,1.04
7351.00,1.04
7350.00,1.04
7349.00,1.04
7348.00,1.04
7347.00,1.04
7346.00,1.04
7345.00,1.04
7344.00,1.04
7343.00,1.04
7342.00,1.04
7341.00,1.04
7340.00,1.04
7339.00,1.03
7338.00,1.03
7337.00,1.03
7336.00,1.03
7335.00,1.03
7334.00,1.03
7333.00,1.02
7332.00,1.02
7331.00,1.02
7330.00,1.02
7329.00,1.01
7328.00,1.01
7327.00,1.01
7326.00,1.01
7325.00,1.00
7324.00,1.00
7323.00,1.00
7322.00,0.99
7321.00,0.99
7320.00,0.99
7319.00,0.98
7318.00,0.98
7317.00,0.98
7316.00,0.97
7315.00,0.97
7314.00,0.97
7313.00,0.96
7312.00,0.96
7311.00,0.96
7310.00,0.96
7309.00,0.95
7308.00,0.95
7307.00,0.95
7306.00,0.95
7305.00,0.94
7304.00,0.94
7303.00,0.94
7302.00,0.94
7301.00,0.94
7300.00,0.94
7299.00,0.94
7298.00,0.94
7297.00,0.94
7296.00,0.94
7295.00,0.94
7294.00,0.94
7293.00,0.94
7292.00,0.94
7291.00,0.95
7290.00,0.95
7289.00,0.95
7288.00,0.95
7287.00,0.95
7286.00,0.95
7285.00,0.96
7284.00,0.96
7283.00,0.96
7282.00,0.96
7281.00,0.96
7280.00,0.96
7279.00,0.96
7278.00,0.96
7277.00,0.96
7276.00,0.96
7275.00,0.96
7274.00,0.96
7273.00,0.96
7272.00,0.96
7271.00,0.96
7270.00,0.95
7269.00,0.95
7268.00,0.95
7267.00,0.95
7266.00,0.95
7265.00,0.95
7264.00,0.95
7263.00,0.94
7262.00,0.94
7261.00,0.94
7260.00,0.94
7259.00,0.94
7258.00,0.93
7257.00,0.93
7256.00,0.93
7255.00,0.93
7254.00,0.93
7253.00,0.92
7252.00,0.92
7251.00,0.92
7250.00,0.92
7249.00,0.92
7248.00,0.93
7247.00,0.93
7246.00,0.93
7245.00,0.93
7244.00,0.93
7243.00,0.93
7242.00,0.93
7241.00,0.92
7240.00,0.92
7239.00,0.92
7238.00,0.92
7237.00,0.92
7236.00,0.92
7235.00,0.93
7234.00,0.93
7233.00,0.93
7232.00,0.93
7231.00,0.92
7230.00,0.92
7229.00,0.92
7228.00,0.92
7227.00,0.92
7226.00,0.92
7225.00,0.91
7224.00,0.91
7223.00,0.91
7222.00,0.91
7221.00,0.90
7220.00,0.90
7219.00,0.89
7218.00,0.89
7217.00,0.89
7216.00,0.88
7215.00,0.88
7214.00,0.88
7213.00,0.87
7212.00,0.87
7211.00,0.86
7210.00,0.86
7209.00,0.86
7208.00,0.85
7207.00,0.85
7206.00,0.84
7205.00,0.84
7204.00,0.84
7203.00,0.83
7202.00,0.83
7201.00,0.83
7200.00,0.83
7199.00,0.83
7198.00,0.82
7197.00,0.82
7196.00,0.82
7195.00,0.82
7194.00,0.82
7193.00,0.81
7192.00,0.81
7191.00,0.81
7190.00,0.81
7189.00,0.81
7188.00,0.81
7187.00,0.81
7186.00,0.81
7185.00,0.81
7184.00,0.80
7183.00,0.80
7182.00,0.80
7181.00,0.80
7180.00,0.80
7179.00,0.80
7178.00,0.80
7177.00,0.80
7176.00,0.80
7175.00,0.80
7174.00,0.80
7173.00,0.80
7172.00,0.80
7171.00,0.79
7170.00,0.79
7169.00,0.79
7168.00,0.79
7167.00,0.79
7166.00,0.79
7165.00,0.79
7164.00,0.79
7163.00,0.78
7162.00,0.78
7161.00,0.78
7160.00,0.78
7159.00,0.77
7158.00,0.77
7157.00,0.77
7156.00,0.77
7155.00,0.77
7154.00,0.76
7153.00,0.76
7152.00,0.76
7151.00,0.76
7150.00,0.75
7149.00,0.75
7148.00,0.75
7147.00,0.74
7146.00,0.74
7145.00,0.74
7144.00,0.74
7143.00,0.73
7142.00,0.73
7141.00,0.73
7140.00,0.72
7139.00,0.72
7138.00,0.72
7137.00,0.72
7136.00,0.71
7135.00,0.71
7134.00,0.71
7133.00,0.71
7132.00,0.71
7131.00,0.70
7130.00,0.70
7129.00,0.70
7128.00,0.70
7127.00,0.69
7126.00,0.69
7125.00,0.69
7124.00,0.69
7123.00,0.68
7122.00,0.68
7121.00,0.68
7120.00,0.68
7119.00,0.68
7118.00,0.68
7117.00,0.68
7116.00,0.68
7115.00,0.68
7114.00,0.68
7113.00,0.68
7112.00,0.67
7111.00,0.67
7110.00,0.67
7109.00,0.67
7108.00,0.67
7107.00,0.67
7106.00,0.67
7105.00,0.66
7104.00,0.66
7103.00,0.66
7102.00,0.66
7101.00,0.66
7100.00,0.66
7099.00,0.66
7098.00,0.66
7097.00,0.66
7096.00,0.66
7095.00,0.65
7094.00,0.65
7093.00,0.65
7092.00,0.64
7091.00,0.64
7090.00,0.64
7089.00,0.63
7088.00,0.63
7087.00,0.62
7086.00,0.62
7085.00,0.62
7084.00,0.61
7083.00,0.61
7082.00,0.61
7081.00,0.60
7080.00,0.60
7079.00,0.60
7078.00,0.60
7077.00,0.59
7076.00,0.59
7075.00,0.59
7074.00,0.58
7073.00,0.58
7072.00,0.58
7071.00,0.58
7070.00,0.57
7069.00,0.57
7068.00,0.57
7067.00,0.57
7066.00,0.57
7065.00,0.58
7064.00,0.58
7063.00,0.58
7062.00,0.58
7061.00,0.58
7060.00,0.59
7059.00,0.59
7058.00,0.59
7057.00,0.59
7056.00,0.59
7055.00,0.60
7054.00,0.60
7053.00,0.60
7052.00,0.60
7051.00,0.60
7050.00,0.61
7049.00,0.61
7048.00,0.61
7047.00,0.61
7046.00,0.61
7045.00,0.61
7044.00,0.61
7043.00,0.61
7042.00,0.61
7041.00,0.61
7040.00,0.60
7039.00,0.60
7038.00,0.60
7037.00,0.60
7036.00,0.59
7035.00,0.59
7034.00,0.59
7033.00,0.58
7032.00,0.58
7031.00,0.57
7030.00,0.57
7029.00,0.57
7028.00,0.56
7027.00,0.56
7026.00,0.56
7025.00,0.55
7024.00,0.55
7023.00,0.55
7022.00,0.55
7021.00,0.54
7020.00,0.54
7019.00,0.54
7018.00,0.54
7017.00,0.54
7016.00,0.54
7015.00,0.54
7014.00,0.54
7013.00,0.54
7012.00,0.54
7011.00,0.54
7010.00,0.55
7009.00,0.55
7008.00,0.55
7007.00,0.55
7006.00,0.55
7005.00,0.55
7004.00,0.55
7003.00,0.55
7002.00,0.55
7001.00,0.55
7000.00,0.55
6999.00,0.55
6998.00,0.55
6997.00,0.55
6996.00,0.55
6995.00,0.55
6994.00,0.55
6993.00,0.55
6992.00,0.55
6991.00,0.55
6990.00,0.55
6989.00,0.55
6988.00,0.55
6987.00,0.55
6986.00,0.55
6985.00,0.54
6984.00,0.54
6983.00,0.54
6982.00,0.54
6981.00,0.54
6980.00,0.54
6979.00,0.54
6978.00,0.54
6977.00,0.54
6976.00,0.54
6975.00,0.54
6974.00,0.54
6973.00,0.54
6972.00,0.54
6971.00,0.54
6970.00,0.54
6969.00,0.54
6968.00,0.54
6967.00,0.54
6966.00,0.55
6965.00,0.55
6964.00,0.55
6963.00,0.55
6962.00,0.55
6961.00,0.55
6960.00,0.55
6959.00,0.55
6958.00,0.55
6957.00,0.55
6956.00,0.55
6955.00,0.55
6954.00,0.55
6953.00,0.55
6952.00,0.55
6951.00,0.55
6950.00,0.55
6949.00,0.55
6948.00,0.54
6947.00,0.54
6946.00,0.54
6945.00,0.53
6944.00,0.53
6943.00,0.53
6942.00,0.52
6941.00,0.52
6940.00,0.51
6939.00,0.51
6938.00,0.50
6937.00,0.50
6936.00,0.49
6935.00,0.49
6934.00,0.49
6933.00,0.48
6932.00,0.48
6931.00,0.47
6930.00,0.47
6929.00,0.46
6928.00,0.46
6927.00,0.45
6926.00,0.45
6925.00,0.45
6924.00,0.44
6923.00,0.44
6922.00,0.44
6921.00,0.44
6920.00,0.44
6919.00,0.44
6918.00,0.44
6917.00,0.44
6916.00,0.44
6915.00,0.44
6914.00,0.44
6913.00,0.45
6912.00,0.45
6911.00,0.45
6910.00,0.45
6909.00,0.46
6908.00,0.46
6907.00,0.46
6906.00,0.47
6905.00,0.47
6904.00,0.47
6903.00,0.48
6902.00,0.48
6901.00,0.48
6900.00,0.49
6899.00,0.49
6898.00,0.49
6897.00,0.49
6896.00,0.49
6895.00,0.49
6894.00,0.49
6893.00,0.49
6892.00,0.49
6891.00,0.49
6890.00,0.49
6889.00,0.48
6888.00,0.48
6887.00,0.48
6886.00,0.48
6885.00,0.48
6884.00,0.47
6883.00,0.47
6882.00,0.47
6881.00,0.47
6880.00,0.47
6879.00,0.46
6878.00,0.46
6877.00,0.46
6876.00,0.46
6875.00,0.46
6874.00,0.45
6873.00,0.45
6872.00,0.45
6871.00,0.45
6870.00,0.45
6869.00,0.45
6868.00,0.45
6867.00,0.45
6866.00,0.45
6865.00,0.45
6864.00,0.45
6863.00,0.45
6862.00,0.45
6861.00,0.45
6860.00,0.45
6859.00,0.46
6858.00,0.46
6857.00,0.46
6856.00,0.46
6855.00,0.46
6854.00,0.46
6853.00,0.46
6852.00,0.46
6851.00,0.46
6850.00,0.46
6849.00,0.47
6848.00,0.47
6847.00,0.47
6846.00,0.47
6845.00,0.47
6844.00,0.47
6843.00,0.47
6842.00,0.48
6841.00,0.48
6840.00,0.48
6839.00,0.48
6838.00,0.48
6837.00,0.48
6836.00,0.48
6835.00,0.48
6834.00,0.48
6833.00,0.48
6832.00,0.48
6831.00,0.48
6830.00,0.48
6829.00,0.48
6828.00,0.48
6827.00,0.48
6826.00,0.48
6825.00,0.48
6824.00,0.48
6823.00,0.48
6822.00,0.48
6821.00,0.48
6820.00,0.48
6819.00,0.48
6818.00,0.48
6817.00,0.48
6816.00,0.48
6815.00,0.48
6814.00,0.48
6813.00,0.48
6812.00,0.48
6811.00,0.48
6810.00,0.48
6809.00,0.48
6808.00,0.48
6807.00,0.48
6806.00,0.48
6805.00,0.48
6804.00,0.48
6803.00,0.48
6802.00,0.48
6801.00,0.48
6800.00,0.48
6799.00,0.48
6798.00,0.48
6797.00,0.48
6796.00,0.48
6795.00,0.48
6794.00,0.48
6793.00,0.48
6792.00,0.48
6791.00,0.49
6790.00,0.49
6789.00,0.49
6788.00,0.49
6787.00,0.49
6786.00,0.49
6785.00,0.49
6784.00,0.49
6783.00,0.49
6782.00,0.50
6781.00,0.50
6780.00,0.50
6779.00,0.50
6778.00,0.50
6777.00,0.50
6776.00,0.50
6775.00,0.51
6774.00,0.51
6773.00,0.51
6772.00,0.51
6771.00,0.51
6770.00,0.51
6769.00,0.52
6768.00,0.52
6767.00,0.52
6766.00,0.52
6765.00,0.52
6764.00,0.52
6763.00,0.52
6762.00,0.52
6761.00,0.52
6760.00,0.51
6759.00,0.51
6758.00,0.51
6757.00,0.51
6756.00,0.51
6755.00,0.51
6754.00,0.51
6753.00,0.51
6752.00,0.51
6751.00,0.51
6750.00,0.50
6749.00,0.50
6748.00,0.50
6747.00,0.50
6746.00,0.50
6745.00,0.50
6744.00,0.50
6743.00,0.50
6742.00,0.50
6741.00,0.50
6740.00,0.50
6739.00,0.50
6738.00,0.50
6737.00,0.50
6736.00,0.50
6735.00,0.50
6734.00,0.50
6733.00,0.50
6732.00,0.51
6731.00,0.51
6730.00,0.51
6729.00,0.51
6728.00,0.51
6727.00,0.51
6726.00,0.51
6725.00,0.52
6724.00,0.52
6723.00,0.52
6722.00,0.52
6721.00,0.52
6720.00,0.52
6719.00,0.53
6718.00,0.53
6717.00,0.53
6716.00,0.53
6715.00,0.53
6714.00,0.54
6713.00,0.54
6712.00,0.54
6711.00,0.54
6710.00,0.54
6709.00,0.54
6708.00,0.54
6707.00,0.55
6706.00,0.55
6705.00,0.55
6704.00,0.55
6703.00,0.55
6702.00,0.55
6701.00,0.55
6700.00,0.55
6699.00,0.55
6698.00,0.55
6697.00,0.55
6696.00,0.55
6695.00,0.55
6694.00,0.55
6693.00,0.55
6692.00,0.55
6691.00,0.55
6690.00,0.55
6689.00,0.56
6688.00,0.56
6687.00,0.56
6686.00,0.55
6685.00,0.55
6684.00,0.55
6683.00,0.55
6682.00,0.56
6681.00,0.56
6680.00,0.56
6679.00,0.56
6678.00,0.56
6677.00,0.56
6676.00,0.56
6675.00,0.56
6674.00,0.56
6673.00,0.56
6672.00,0.56
6671.00,0.56
6670.00,0.57
6669.00,0.57
6668.00,0.57
6667.00,0.57
6666.00,0.57
6665.00,0.57
6664.00,0.57
6663.00,0.58
6662.00,0.58
6661.00,0.58
6660.00,0.58
6659.00,0.58
6658.00,0.58
6657.00,0.59
6656.00,0.59
6655.00,0.59
6654.00,0.59
6653.00,0.59
6652.00,0.59
6651.00,0.60
6650.00,0.60
6649.00,0.60
6648.00,0.60
6647.00,0.60
6646.00,0.60
6645.00,0.60
6644.00,0.61
6643.00,0.61
6642.00,0.61
6641.00,0.61
6640.00,0.61
6639.00,0.61
6638.00,0.61
6637.00,0.61
6636.00,0.61
6635.00,0.61
6634.00,0.61
6633.00,0.61
6632.00,0.61
6631.00,0.62
6630.00,0.62
6629.00,0.62
6628.00,0.62
6627.00,0.62
6626.00,0.62
6625.00,0.62
6624.00,0.62
6623.00,0.62
6622.00,0.62
6621.00,0.62
6620.00,0.62
6619.00,0.62
6618.00,0.62
6617.00,0.62
6616.00,0.62
6615.00,0.62
6614.00,0.62
6613.00,0.62
6612.00,0.63
6611.00,0.63
6610.00,0.63
6609.00,0.63
6608.00,0.63
6607.00,0.63
6606.00,0.63
6605.00,0.63
6604.00,0.63
6603.00,0.63
6602.00,0.63
6601.00,0.63
6600.00,0.63
6599.00,0.63
6598.00,0.63
6597.00,0.63
6596.00,0.63
6595.00,0.63
6594.00,0.63
6593.00,0.62
6592.00,0.62
6591.00,0.62
6590.00,0.62
6589.00,0.62
6588.00,0.62
6587.00,0.62
6586.00,0.62
6585.00,0.62
6584.00,0.62
6583.00,0.62
6582.00,0.62
6581.00,0.62
6580.00,0.61
6579.00,0.61
6578.00,0.61
6577.00,0.61
6576.00,0.61
6575.00,0.61
6574.00,0.61
6573.00,0.61
6572.00,0.61
6571.00,0.61
6570.00,0.62
6569.00,0.62
6568.00,0.62
6567.00,0.62
6566.00,0.62
6565.00,0.62
6564.00,0.62
6563.00,0.62
6562.00,0.63
6561.00,0.63
6560.00,0.63
6559.00,0.63
6558.00,0.63
6557.00,0.63
6556.00,0.64
6555.00,0.64
6554.00,0.64
6553.00,0.64
6552.00,0.65
6551.00,0.65
6550.00,0.65
6549.00,0.65
6548.00,0.66
6547.00,0.66
6546.00,0.66
6545.00,0.66
6544.00,0.67
6543.00,0.67
6542.00,0.67
6541.00,0.67
6540.00,0.67
6539.00,0.68
6538.00,0.68
6537.00,0.68
6536.00,0.68
6535.00,0.68
6534.00,0.69
6533.00,0.69
6532.00,0.69
6531.00,0.69
6530.00,0.69
6529.00,0.69
6528.00,0.69
6527.00,0.69
6526.00,0.69
6525.00,0.69
6524.00,0.69
6523.00,0.69
6522.00,0.69
6521.00,0.69
6520.00,0.69
6519.00,0.69
6518.00,0.69
6517.00,0.69
6516.00,0.69
6515.00,0.69
6514.00,0.69
6513.00,0.69
6512.00,0.69
6511.00,0.69
6510.00,0.69
6509.00,0.69
6508.00,0.69
6507.00,0.69
6506.00,0.69
6505.00,0.69
6504.00,0.69
6503.00,0.69
6502.00,0.69
6501.00,0.69
6500.00,0.69
6499.00,0.69
6498.00,0.69
6497.00,0.69
6496.00,0.69
6495.00,0.69
6494.00,0.69
6493.00,0.69
6492.00,0.69
6491.00,0.70
6490.00,0.70
6489.00,0.70
6488.00,0.70
6487.00,0.70
6486.00,0.70
6485.00,0.70
6484.00,0.70
6483.00,0.70
6482.00,0.70
6481.00,0.70
6480.00,0.70
6479.00,0.70
6478.00,0.70
6477.00,0.70
6476.00,0.71
6475.00,0.71
6474.00,0.71
6473.00,0.71
6472.00,0.71
6471.00,0.71
6470.00,0.72
6469.00,0.72
6468.00,0.72
6467.00,0.72
6466.00,0.72
6465.00,0.72
6464.00,0.72
6463.00,0.72
6462.00,0.72
6461.00,0.72
6460.00,0.72
6459.00,0.72
6458.00,0.72
6457.00,0.72
6456.00,0.72
6455.00,0.72
6454.00,0.72
6453.00,0.72
6452.00,0.72
6451.00,0.72
6450.00,0.72
6449.00,0.72
6448.00,0.72
6447.00,0.72
6446.00,0.72
6445.00,0.71
6444.00,0.71
6443.00,0.71
6442.00,0.71
6441.00,0.71
6440.00,0.71
6439.00,0.71
6438.00,0.71
6437.00,0.71
6436.00,0.71
6435.00,0.71
6434.00,0.71
6433.00,0.71
6432.00,0.71
6431.00,0.71
6430.00,0.71
6429.00,0.71
6428.00,0.72
6427.00,0.72
6426.00,0.72
6425.00,0.72
6424.00,0.72
6423.00,0.72
6422.00,0.72
6421.00,0.72
6420.00,0.72
6419.00,0.72
6418.00,0.72
6417.00,0.72
6416.00,0.72
6415.00,0.72
6414.00,0.72
6413.00,0.72
6412.00,0.72
6411.00,0.72
6410.00,0.72
6409.00,0.73
6408.00,0.73
6407.00,0.73
6406.00,0.73
6405.00,0.73
6404.00,0.73
6403.00,0.73
6402.00,0.74
6401.00,0.74
6400.00,0.74
6399.00,0.74
6398.00,0.74
6397.00,0.74
6396.00,0.74
6395.00,0.74
6394.00,0.74
6393.00,0.75
6392.00,0.75
6391.00,0.75
6390.00,0.75
6389.00,0.75
6388.00,0.75
6387.00,0.76
6386.00,0.76
6385.00,0.76
6384.00,0.76
6383.00,0.76
6382.00,0.76
6381.00,0.76
6380.00,0.76
6379.00,0.76
6378.00,0.76
6377.00,0.76
6376.00,0.76
6375.00,0.76
6374.00,0.76
6373.00,0.76
6372.00,0.76
6371.00,0.76
6370.00,0.76
6369.00,0.76
6368.00,0.76
6367.00,0.76
6366.00,0.76
6365.00,0.76
6364.00,0.76
6363.00,0.76
6362.00,0.76
6361.00,0.76
6360.00,0.76
6359.00,0.76
6358.00,0.76
6357.00,0.76
6356.00,0.76
6355.00,0.76
6354.00,0.76
6353.00,0.76
6352.00,0.76
6351.00,0.76
6350.00,0.76
6349.00,0.76
6348.00,0.76
6347.00,0.76
6346.00,0.76
6345.00,0.77
6344.00,0.77
6343.00,0.77
6342.00,0.77
6341.00,0.77
6340.00,0.77
6339.00,0.77
6338.00,0.77
6337.00,0.77
6336.00,0.77
6335.00,0.77
6334.00,0.78
6333.00,0.78
6332.00,0.78
6331.00,0.78
6330.00,0.78
6329.00,0.78
6328.00,0.78
6327.00,0.78
6326.00,0.78
6325.00,0.78
6324.00,0.78
6323.00,0.78
6322.00,0.78
6321.00,0.78
6320.00,0.78
6319.00,0.78
6318.00,0.78
6317.00,0.78
6316.00,0.78
6315.00,0.78
6314.00,0.79
6313.00,0.79
6312.00,0.79
6311.00,0.79
6310.00,0.79
6309.00,0.79
6308.00,0.79
6307.00,0.79
6306.00,0.79
6305.00,0.79
6304.00,0.79
6303.00,0.79
6302.00,0.79
6301.00,0.79
6300.00,0.79
6299.00,0.79
6298.00,0.79
6297.00,0.80
6296.00,0.80
6295.00,0.80
6294.00,0.80
6293.00,0.80
6292.00,0.80
6291.00,0.80
6290.00,0.80
6289.00,0.80
6288.00,0.80
6287.00,0.80
6286.00,0.80
6285.00,0.80
6284.00,0.80
6283.00,0.80
6282.00,0.80
6281.00,0.80
6280.00,0.80
6279.00,0.80
6278.00,0.80
6277.00,0.80
6276.00,0.81
6275.00,0.81
6274.00,0.81
6273.00,0.81
6272.00,0.81
6271.00,0.81
6270.00,0.81
6269.00,0.82
6268.00,0.82
6267.00,0.82
6266.00,0.82
6265.00,0.82
6264.00,0.82
6263.00,0.82
6262.00,0.83
6261.00,0.83
6260.00,0.83
6259.00,0.83
6258.00,0.83
6257.00,0.83
6256.00,0.84
6255.00,0.84
6254.00,0.84
6253.00,0.84
6252.00,0.84
6251.00,0.85
6250.00,0.85
6249.00,0.85
6248.00,0.85
6247.00,0.85
6246.00,0.85
6245.00,0.85
6244.00,0.86
6243.00,0.86
6242.00,0.86
6241.00,0.86
6240.00,0.86
6239.00,0.86
6238.00,0.86
6237.00,0.86
6236.00,0.86
6235.00,0.86
6234.00,0.86
6233.00,0.86
6232.00,0.86
6231.00,0.86
6230.00,0.86
6229.00,0.86
6228.00,0.86
6227.00,0.86
6226.00,0.86
6225.00,0.86
6224.00,0.86
6223.00,0.86
6222.00,0.86
6221.00,0.86
6220.00,0.86
6219.00,0.86
6218.00,0.86
6217.00,0.86
6216.00,0.86
6215.00,0.86
6214.00,0.86
6213.00,0.87
6212.00,0.87
6211.00,0.87
6210.00,0.87
6209.00,0.87
6208.00,0.87
6207.00,0.87
6206.00,0.87
6205.00,0.87
6204.00,0.87
6203.00,0.87
6202.00,0.87
6201.00,0.87
6200.00,0.87
6199.00,0.87
6198.00,0.87
6197.00,0.87
6196.00,0.87
6195.00,0.87
6194.00,0.87
6193.00,0.87
6192.00,0.88
6191.00,0.88
6190.00,0.88
6189.00,0.88
6188.00,0.88
6187.00,0.88
6186.00,0.88
6185.00,0.88
6184.00,0.88
6183.00,0.88
6182.00,0.88
6181.00,0.88
6180.00,0.88
6179.00,0.88
6178.00,0.88
6177.00,0.89
6176.00,0.89
6175.00,0.89
6174.00,0.90
6173.00,0.90
6172.00,0.90
6171.00,0.90
6170.00,0.91
6169.00,0.91
6168.00,0.91
6167.00,0.92
6166.00,0.92
6165.00,0.92
6164.00,0.92
6163.00,0.92
6162.00,0.93
6161.00,0.93
6160.00,0.93
6159.00,0.93
6158.00,0.93
6157.00,0.93
6156.00,0.94
6155.00,0.94
6154.00,0.94
6153.00,0.94
6152.00,0.94
6151.00,0.94
6150.00,0.94
6149.00,0.94
6148.00,0.94
6147.00,0.93
6146.00,0.93
6145.00,0.93
6144.00,0.93
6143.00,0.93
6142.00,0.93
6141.00,0.93
6140.00,0.93
6139.00,0.93
6138.00,0.93
6137.00,0.93
6136.00,0.93
6135.00,0.93
6134.00,0.93
6133.00,0.94
6132.00,0.94
6131.00,0.94
6130.00,0.94
6129.00,0.94
6128.00,0.94
6127.00,0.94
6126.00,0.95
6125.00,0.95
6124.00,0.95
6123.00,0.95
6122.00,0.95
6121.00,0.95
6120.00,0.96
6119.00,0.96
6118.00,0.96
6117.00,0.96
6116.00,0.97
6115.00,0.97
6114.00,0.97
6113.00,0.97
6112.00,0.97
6111.00,0.97
6110.00,0.97
6109.00,0.97
6108.00,0.98
6107.00,0.98
6106.00,0.98
6105.00,0.98
6104.00,0.98
6103.00,0.98
6102.00,0.98
6101.00,0.98
6100.00,0.98
6099.00,0.98
6098.00,0.99
6097.00,0.99
6096.00,0.99
6095.00,0.99
6094.00,0.99
6093.00,0.99
6092.00,0.99
6091.00,0.99
6090.00,0.99
6089.00,0.99
6088.00,0.99
6087.00,0.99
6086.00,0.99
6085.00,0.99
6084.00,0.99
6083.00,1.00
6082.00,1.00
6081.00,1.00
6080.00,1.00
6079.00,1.00
6078.00,1.00
6077.00,1.00
6076.00,1.00
6075.00,1.00
6074.00,1.00
6073.00,1.01
6072.00,1.01
6071.00,1.01
6070.00,1.01
6069.00,1.01
6068.00,1.01
6067.00,1.01
6066.00,1.01
6065.00,1.02
6064.00,1.02
6063.00,1.02
6062.00,1.02
6061.00,1.02
6060.00,1.02
6059.00,1.02
6058.00,1.03
6057.00,1.03
6056.00,1.03
6055.00,1.03
6054.00,1.03
6053.00,1.03
6052.00,1.03
6051.00,1.03
6050.00,1.03
6049.00,1.03
6048.00,1.03
6047.00,1.03
6046.00,1.03
6045.00,1.03
6044.00,1.03
6043.00,1.03
6042.00,1.03
6041.00,1.03
6040.00,1.03
6039.00,1.03
6038.00,1.03
6037.00,1.03
6036.00,1.03
6035.00,1.03
6034.00,1.03
6033.00,1.03
6032.00,1.03
6031.00,1.03
6030.00,1.03
6029.00,1.03
6028.00,1.03
6027.00,1.03
6026.00,1.03
6025.00,1.03
6024.00,1.03
6023.00,1.03
6022.00,1.03
6021.00,1.03
6020.00,1.03
6019.00,1.03
6018.00,1.03
6017.00,1.03
6016.00,1.03
6015.00,1.03
6014.00,1.03
6013.00,1.03
6012.00,1.03
6011.00,1.03
6010.00,1.03
6009.00,1.03
6008.00,1.03
6007.00,1.03
6006.00,1.03
6005.00,1.03
6004.00,1.03
6003.00,1.03
6002.00,1.03
6001.00,1.02
6000.00,1.02
5999.00,1.02
5998.00,1.02
5997.00,1.02
5996.00,1.02
5995.00,1.02
5994.00,1.01
5993.00,1.01
5992.00,1.01
5991.00,1.01
5990.00,1.01
5989.00,1.01
5988.00,1.00
5987.00,1.00
5986.00,1.00
5985.00,1.00
5984.00,0.99
5983.00,0.99
5982.00,0.99
5981.00,0.99
5980.00,0.98
5979.00,0.98
5978.00,0.98
5977.00,0.97
5976.00,0.97
5975.00,0.97
5974.00,0.96
5973.00,0.96
5972.00,0.96
5971.00,0.95
5970.00,0.95
5969.00,0.95
5968.00,0.94
5967.00,0.94
5966.00,0.93
5965.00,0.93
5964.00,0.92
5963.00,0.92
5962.00,0.92
5961.00,0.91
5960.00,0.91
5959.00,0.90
5958.00,0.90
5957.00,0.90
5956.00,0.89
5955.00,0.89
5954.00,0.89
5953.00,0.88
5952.00,0.88
5951.00,0.88
5950.00,0.87
5949.00,0.87
5948.00,0.87
5947.00,0.86
5946.00,0.86
5945.00,0.86
5944.00,0.85
5943.00,0.85
5942.00,0.85
5941.00,0.85
5940.00,0.84
5939.00,0.84
5938.00,0.84
5937.00,0.84
5936.00,0.84
5935.00,0.84
5934.00,0.84
5933.00,0.84
5932.00,0.84
5931.00,0.83
5930.00,0.83
5929.00,0.83
5928.00,0.83
5927.00,0.83
5926.00,0.83
5925.00,0.83
5924.00,0.83
5923.00,0.83
5922.00,0.82
5921.00,0.82
5920.00,0.82
5919.00,0.82
5918.00,0.82
5917.00,0.82
5916.00,0.82
5915.00,0.82
5914.00,0.81
5913.00,0.81
5912.00,0.81
5911.00,0.81
5910.00,0.80
5909.00,0.80
5908.00,0.80
5907.00,0.80
5906.00,0.79
5905.00,0.79
5904.00,0.79
5903.00,0.79
5902.00,0.78
5901.00,0.78
5900.00,0.78
5899.00,0.78
5898.00,0.78
5897.00,0.78
5896.00,0.78
5895.00,0.78
5894.00,0.78
5893.00,0.78
5892.00,0.78
5891.00,0.78
5890.00,0.78
5889.00,0.78
5888.00,0.78
5887.00,0.78
5886.00,0.78
5885.00,0.78
5884.00,0.78
5883.00,0.78
5882.00,0.79
5881.00,0.79
5880.00,0.79
5879.00,0.79
5878.00,0.79
5877.00,0.80
5876.00,0.80
5875.00,0.80
5874.00,0.80
5873.00,0.80
5872.00,0.80
5871.00,0.81
5870.00,0.81
5869.00,0.81
5868.00,0.81
5867.00,0.81
5866.00,0.81
5865.00,0.81
5864.00,0.81
5863.00,0.81
5862.00,0.82
5861.00,0.82
5860.00,0.82
5859.00,0.82
5858.00,0.82
5857.00,0.83
5856.00,0.83
5855.00,0.83
5854.00,0.83
5853.00,0.83
5852.00,0.84
5851.00,0.84
5850.00,0.84
5849.00,0.84
5848.00,0.84
5847.00,0.84
5846.00,0.85
5845.00,0.85
5844.00,0.85
5843.00,0.85
5842.00,0.85
5841.00,0.86
5840.00,0.86
5839.00,0.86
5838.00,0.86
5837.00,0.86
5836.00,0.86
5835.00,0.86
5834.00,0.86
5833.00,0.86
5832.00,0.86
5831.00,0.87
5830.00,0.87
5829.00,0.87
5828.00,0.87
5827.00,0.87
5826.00,0.87
5825.00,0.86
5824.00,0.86
5823.00,0.86
5822.00,0.86
5821.00,0.86
5820.00,0.86
5819.00,0.86
5818.00,0.86
5817.00,0.86
5816.00,0.86
5815.00,0.86
5814.00,0.86
5813.00,0.86
5812.00,0.86
5811.00,0.86
5810.00,0.86
5809.00,0.86
5808.00,0.85
5807.00,0.85
5806.00,0.85
5805.00,0.85
5804.00,0.85
5803.00,0.85
5802.00,0.85
5801.00,0.85
5800.00,0.85
5799.00,0.85
5798.00,0.85
5797.00,0.85
5796.00,0.85
5795.00,0.85
5794.00,0.85
5793.00,0.85
5792.00,0.84
5791.00,0.84
5790.00,0.84
5789.00,0.84
5788.00,0.84
5787.00,0.84
5786.00,0.84
5785.00,0.84
5784.00,0.83
5783.00,0.83
5782.00,0.83
5781.00,0.83
5780.00,0.83
5779.00,0.83
5778.00,0.83
5777.00,0.83
5776.00,0.82
5775.00,0.82
5774.00,0.82
5773.00,0.82
5772.00,0.82
5771.00,0.82
5770.00,0.82
5769.00,0.82
5768.00,0.82
5767.00,0.82
5766.00,0.82
5765.00,0.82
5764.00,0.82
5763.00,0.82
5762.00,0.83
5761.00,0.83
5760.00,0.83
5759.00,0.83
5758.00,0.83
5757.00,0.83
5756.00,0.84
5755.00,0.84
5754.00,0.84
5753.00,0.84
5752.00,0.85
5751.00,0.85
5750.00,0.85
5749.00,0.86
5748.00,0.86
5747.00,0.87
5746.00,0.87
5745.00,0.87
5744.00,0.88
5743.00,0.88
5742.00,0.88
5741.00,0.89
5740.00,0.89
5739.00,0.89
5738.00,0.89
5737.00,0.90
5736.00,0.90
5735.00,0.90
5734.00,0.90
5733.00,0.91
5732.00,0.91
5731.00,0.91
5730.00,0.91
5729.00,0.91
5728.00,0.92
5727.00,0.92
5726.00,0.92
5725.00,0.92
5724.00,0.92
5723.00,0.92
5722.00,0.92
5721.00,0.92
5720.00,0.92
5719.00,0.92
5718.00,0.92
5717.00,0.92
5716.00,0.92
5715.00,0.92
5714.00,0.92
5713.00,0.92
5712.00,0.92
5711.00,0.92
5710.00,0.92
5709.00,0.92
5708.00,0.92
5707.00,0.92
5706.00,0.92
5705.00,0.92
5704.00,0.92
5703.00,0.92
5702.00,0.92
5701.00,0.91
5700.00,0.91
5699.00,0.91
5698.00,0.91
5697.00,0.91
5696.00,0.91
5695.00,0.91
5694.00,0.91
5693.00,0.91
5692.00,0.90
5691.00,0.90
5690.00,0.90
5689.00,0.90
5688.00,0.89
5687.00,0.89
5686.00,0.89
5685.00,0.89
5684.00,0.89
5683.00,0.88
5682.00,0.88
5681.00,0.88
5680.00,0.88
5679.00,0.88
5678.00,0.88
5677.00,0.87
5676.00,0.87
5675.00,0.87
5674.00,0.87
5673.00,0.87
5672.00,0.87
5671.00,0.87
5670.00,0.87
5669.00,0.87
5668.00,0.87
5667.00,0.87
5666.00,0.87
5665.00,0.87
5664.00,0.87
5663.00,0.88
5662.00,0.88
5661.00,0.88
5660.00,0.88
5659.00,0.89
5658.00,0.89
5657.00,0.89
5656.00,0.90
5655.00,0.90
5654.00,0.90
5653.00,0.90
5652.00,0.90
5651.00,0.91
5650.00,0.91
5649.00,0.91
5648.00,0.91
5647.00,0.92
5646.00,0.92
5645.00,0.92
5644.00,0.92
5643.00,0.93
5642.00,0.93
5641.00,0.93
5640.00,0.93
5639.00,0.93
5638.00,0.93
5637.00,0.93
5636.00,0.93
5635.00,0.93
5634.00,0.93
5633.00,0.93
5632.00,0.93
5631.00,0.93
5630.00,0.93
5629.00,0.94
5628.00,0.94
5627.00,0.94
5626.00,0.94
5625.00,0.94
5624.00,0.94
5623.00,0.94
5622.00,0.94
5621.00,0.94
5620.00,0.94
5619.00,0.94
5618.00,0.94
5617.00,0.94
5616.00,0.94
5615.00,0.95
5614.00,0.95
5613.00,0.95
5612.00,0.95
5611.00,0.95
5610.00,0.95
5609.00,0.96
5608.00,0.96
5607.00,0.96
5606.00,0.96
5605.00,0.96
5604.00,0.97
5603.00,0.97
5602.00,0.97
5601.00,0.97
5600.00,0.97
5599.00,0.97
5598.00,0.98
5597.00,0.98
5596.00,0.98
5595.00,0.98
5594.00,0.98
5593.00,0.98
5592.00,0.98
5591.00,0.98
5590.00,0.98
5589.00,0.98
5588.00,0.98
5587.00,0.98
5586.00,0.99
5585.00,0.99
5584.00,0.99
5583.00,0.99
5582.00,0.99
5581.00,0.99
5580.00,0.99
5579.00,0.99
5578.00,0.99
5577.00,1.00
5576.00,1.00
5575.00,1.00
5574.00,1.00
5573.00,1.00
5572.00,1.01
5571.00,1.01
5570.00,1.01
5569.00,1.01
5568.00,1.01
5567.00,1.02
5566.00,1.02
5565.00,1.02
5564.00,1.02
5563.00,1.03
5562.00,1.03
5561.00,1.03
5560.00,1.03
5559.00,1.03
5558.00,1.04
5557.00,1.04
5556.00,1.04
5555.00,1.04
5554.00,1.05
5553.00,1.05
5552.00,1.05
5551.00,1.05
5550.00,1.05
5549.00,1.05
5548.00,1.05
5547.00,1.05
5546.00,1.05
5545.00,1.05
5544.00,1.05
5543.00,1.05
5542.00,1.05
5541.00,1.05
5540.00,1.05
5539.00,1.06
5538.00,1.06
5537.00,1.06
5536.00,1.06
5535.00,1.06
5534.00,1.06
5533.00,1.06
5532.00,1.06
5531.00,1.06
5530.00,1.06
5529.00,1.06
5528.00,1.05
5527.00,1.05
5526.00,1.05
5525.00,1.05
5524.00,1.05
5523.00,1.05
5522.00,1.05
5521.00,1.05
5520.00,1.05
5519.00,1.05
5518.00,1.05
5517.00,1.05
5516.00,1.05
5515.00,1.05
5514.00,1.05
5513.00,1.05
5512.00,1.05
5511.00,1.05
5510.00,1.05
5509.00,1.05
5508.00,1.05
5507.00,1.05
5506.00,1.05
5505.00,1.05
5504.00,1.05
5503.00,1.05
5502.00,1.05
5501.00,1.05
5500.00,1.05
5499.00,1.05
5498.00,1.05
5497.00,1.05
5496.00,1.05
5495.00,1.05
5494.00,1.05
5493.00,1.06
5492.00,1.06
5491.00,1.06
5490.00,1.06
5489.00,1.06
5488.00,1.06
5487.00,1.06
5486.00,1.07
5485.00,1.07
5484.00,1.07
5483.00,1.07
5482.00,1.07
5481.00,1.07
5480.00,1.08
5479.00,1.08
5478.00,1.08
5477.00,1.08
5476.00,1.08
5475.00,1.09
5474.00,1.09
5473.00,1.09
5472.00,1.09
5471.00,1.09
5470.00,1.09
5469.00,1.10
5468.00,1.10
5467.00,1.10
5466.00,1.10
5465.00,1.10
5464.00,1.10
5463.00,1.10
5462.00,1.10
5461.00,1.10
5460.00,1.10
5459.00,1.10
5458.00,1.10
5457.00,1.10
5456.00,1.10
5455.00,1.10
5454.00,1.10
5453.00,1.10
5452.00,1.10
5451.00,1.10
5450.00,1.10
5449.00,1.10
5448.00,1.10
5447.00,1.10
5446.00,1.10
5445.00,1.09
5444.00,1.09
5443.00,1.09
5442.00,1.09
5441.00,1.09
5440.00,1.09
5439.00,1.09
5438.00,1.09
5437.00,1.09
5436.00,1.10
5435.00,1.10
5434.00,1.10
5433.00,1.10
5432.00,1.10
5431.00,1.10
5430.00,1.10
5429.00,1.10
5428.00,1.10
5427.00,1.10
5426.00,1.10
5425.00,1.10
5424.00,1.10
5423.00,1.10
5422.00,1.10
5421.00,1.10
5420.00,1.10
5419.00,1.10
5418.00,1.10
5417.00,1.10
5416.00,1.10
5415.00,1.10
5414.00,1.10
5413.00,1.10
5412.00,1.10
5411.00,1.10
5410.00,1.10
5409.00,1.10
5408.00,1.10
5407.00,1.10
5406.00,1.10
5405.00,1.10
5404.00,1.10
5403.00,1.10
5402.00,1.10
5401.00,1.10
5400.00,1.10
5399.00,1.10
5398.00,1.10
5397.00,1.10
5396.00,1.10
5395.00,1.10
5394.00,1.10
5393.00,1.11
5392.00,1.10
5391.00,1.10
5390.00,1.10
5389.00,1.10
5388.00,1.10
5387.00,1.10
5386.00,1.10
5385.00,1.10
5384.00,1.10
5383.00,1.09
5382.00,1.09
5381.00,1.09
5380.00,1.09
5379.00,1.09
5378.00,1.08
5377.00,1.08
5376.00,1.08
5375.00,1.08
5374.00,1.07
5373.00,1.07
5372.00,1.07
5371.00,1.06
5370.00,1.06
5369.00,1.06
5368.00,1.05
5367.00,1.05
5366.00,1.04
5365.00,1.04
5364.00,1.04
5363.00,1.03
5362.00,1.03
5361.00,1.02
5360.00,1.02
5359.00,1.01
5358.00,1.01
5357.00,1.00
5356.00,1.00
5355.00,0.99
5354.00,0.98
5353.00,0.98
5352.00,0.97
5351.00,0.96
5350.00,0.96
5349.00,0.95
5348.00,0.94
5347.00,0.93
5346.00,0.93
5345.00,0.92
5344.00,0.91
5343.00,0.91
5342.00,0.90
5341.00,0.89
5340.00,0.88
5339.00,0.88
5338.00,0.87
5337.00,0.86
5336.00,0.85
5335.00,0.85
5334.00,0.84
5333.00,0.83
5332.00,0.82
5331.00,0.81
5330.00,0.81
5329.00,0.80
5328.00,0.79
5327.00,0.78
5326.00,0.77
5325.00,0.77
5324.00,0.76
5323.00,0.75
5322.00,0.74
5321.00,0.73
5320.00,0.72
5319.00,0.72
5318.00,0.71
5317.00,0.70
5316.00,0.69
5315.00,0.68
5314.00,0.67
5313.00,0.66
5312.00,0.66
5311.00,0.65
5310.00,0.64
5309.00,0.63
5308.00,0.62
5307.00,0.62
5306.00,0.61
5305.00,0.60
5304.00,0.60
5303.00,0.59
5302.00,0.58
5301.00,0.58
5300.00,0.57
5299.00,0.57
5298.00,0.56
5297.00,0.55
5296.00,0.55
5295.00,0.54
5294.00,0.54
5293.00,0.53
5292.00,0.53
5291.00,0.53
5290.00,0.52
5289.00,0.52
5288.00,0.52
5287.00,0.51
5286.00,0.51
5285.00,0.51
5284.00,0.51
5283.00,0.50
5282.00,0.50
5281.00,0.50
5280.00,0.50
5279.00,0.49
5278.00,0.49
5277.00,0.49
5276.00,0.49
5275.00,0.49
5274.00,0.48
5273.00,0.48
5272.00,0.48
5271.00,0.48
5270.00,0.48
5269.00,0.47
5268.00,0.47
5267.00,0.47
5266.00,0.47
5265.00,0.47
5264.00,0.47
5263.00,0.46
5262.00,0.46
5261.00,0.46
5260.00,0.46
5259.00,0.46
5258.00,0.45
5257.00,0.45
5256.00,0.45
5255.00,0.45
5254.00,0.45
5253.00,0.45
5252.00,0.45
5251.00,0.44
5250.00,0.44
5249.00,0.44
5248.00,0.44
5247.00,0.44
5246.00,0.44
5245.00,0.44
5244.00,0.44
5243.00,0.44
5242.00,0.44
5241.00,0.45
5240.00,0.45
5239.00,0.45
5238.00,0.45
5237.00,0.45
5236.00,0.45
5235.00,0.45
5234.00,0.45
5233.00,0.46
5232.00,0.46
5231.00,0.46
5230.00,0.46
5229.00,0.46
5228.00,0.46
5227.00,0.46
5226.00,0.46
5225.00,0.46
5224.00,0.46
5223.00,0.46
5222.00,0.46
5221.00,0.46
5220.00,0.46
5219.00,0.46
5218.00,0.46
5217.00,0.46
5216.00,0.46
5215.00,0.45
5214.00,0.45
5213.00,0.45
5212.00,0.45
5211.00,0.45
5210.00,0.45
5209.00,0.45
5208.00,0.45
5207.00,0.44
5206.00,0.44
5205.00,0.44
5204.00,0.44
5203.00,0.44
5202.00,0.44
5201.00,0.44
5200.00,0.44
5199.00,0.44
5198.00,0.44
5197.00,0.43
5196.00,0.43
5195.00,0.43
5194.00,0.43
5193.00,0.43
5192.00,0.43
5191.00,0.43
5190.00,0.43
5189.00,0.43
5188.00,0.43
5187.00,0.43
5186.00,0.43
5185.00,0.43
5184.00,0.43
5183.00,0.43
5182.00,0.44
5181.00,0.44
5180.00,0.44
5179.00,0.44
5178.00,0.44
5177.00,0.44
5176.00,0.44
5175.00,0.44
5174.00,0.44
5173.00,0.44
5172.00,0.45
5171.00,0.45
5170.00,0.45
5169.00,0.45
5168.00,0.45
5167.00,0.45
5166.00,0.46
5165.00,0.46
5164.00,0.46
5163.00,0.46
5162.00,0.46
5161.00,0.46
5160.00,0.46
5159.00,0.46
5158.00,0.46
5157.00,0.46
5156.00,0.46
5155.00,0.46
5154.00,0.46
5153.00,0.46
5152.00,0.46
5151.00,0.46
5150.00,0.46
5149.00,0.46
5148.00,0.46
5147.00,0.46
5146.00,0.46
5145.00,0.46
5144.00,0.46
5143.00,0.46
5142.00,0.46
5141.00,0.46
5140.00,0.46
5139.00,0.46
5138.00,0.46
5137.00,0.46
5136.00,0.46
5135.00,0.46
5134.00,0.46
5133.00,0.46
5132.00,0.46
5131.00,0.46
5130.00,0.46
5129.00,0.46
5128.00,0.46
5127.00,0.46
5126.00,0.46
5125.00,0.46
5124.00,0.47
5123.00,0.47
5122.00,0.47
5121.00,0.47
5120.00,0.47
5119.00,0.47
5118.00,0.47
5117.00,0.47
5116.00,0.47
5115.00,0.48
5114.00,0.48
5113.00,0.48
5112.00,0.48
5111.00,0.48
5110.00,0.48
5109.00,0.48
5108.00,0.48
5107.00,0.48
5106.00,0.48
5105.00,0.48
5104.00,0.48
5103.00,0.49
5102.00,0.49
5101.00,0.49
5100.00,0.49
5099.00,0.49
5098.00,0.49
5097.00,0.49
5096.00,0.49
5095.00,0.49
5094.00,0.49
5093.00,0.49
5092.00,0.49
5091.00,0.49
5090.00,0.49
5089.00,0.49
5088.00,0.49
5087.00,0.49
5086.00,0.50
5085.00,0.50
5084.00,0.50
5083.00,0.50
5082.00,0.50
5081.00,0.50
5080.00,0.50
5079.00,0.50
5078.00,0.50
5077.00,0.50
5076.00,0.50
5075.00,0.50
5074.00,0.50
5073.00,0.50
5072.00,0.50
5071.00,0.51
5070.00,0.51
5069.00,0.51
5068.00,0.51
5067.00,0.51
5066.00,0.51
5065.00,0.51
5064.00,0.51
5063.00,0.51
5062.00,0.51
5061.00,0.51
5060.00,0.51
5059.00,0.51
5058.00,0.51
5057.00,0.52
5056.00,0.52
5055.00,0.52
5054.00,0.52
5053.00,0.52
5052.00,0.52
5051.00,0.52
5050.00,0.52
5049.00,0.52
5048.00,0.52
5047.00,0.52
5046.00,0.52
5045.00,0.52
5044.00,0.52
5043.00,0.52
5042.00,0.52
5041.00,0.52
5040.00,0.52
5039.00,0.52
5038.00,0.52
5037.00,0.52
5036.00,0.52
5035.00,0.52
5034.00,0.52
5033.00,0.53
5032.00,0.53
5031.00,0.53
5030.00,0.53
5029.00,0.53
5028.00,0.53
5027.00,0.53
5026.00,0.53
5025.00,0.53
5024.00,0.53
5023.00,0.53
5022.00,0.53
5021.00,0.53
5020.00,0.53
5019.00,0.53
5018.00,0.53
5017.00,0.53
5016.00,0.54
5015.00,0.54
5014.00,0.54
5013.00,0.54
5012.00,0.54
5011.00,0.54
5010.00,0.54
5009.00,0.54
5008.00,0.55
5007.00,0.55
5006.00,0.55
5005.00,0.55
5004.00,0.55
5003.00,0.55
5002.00,0.56
5001.00,0.56
5000.00,0.56
4999.00,0.56
4998.00,0.56
4997.00,0.57
4996.00,0.57
4995.00,0.57
4994.00,0.57
4993.00,0.57
4992.00,0.58
4991.00,0.58
4990.00,0.58
4989.00,0.58
4988.00,0.58
4987.00,0.58
4986.00,0.58
4985.00,0.58
4984.00,0.58
4983.00,0.58
4982.00,0.58
4981.00,0.58
4980.00,0.58
4979.00,0.58
4978.00,0.58
4977.00,0.58
4976.00,0.58
4975.00,0.58
4974.00,0.58
4973.00,0.58
4972.00,0.58
4971.00,0.58
4970.00,0.58
4969.00,0.58
4968.00,0.58
4967.00,0.58
4966.00,0.58
4965.00,0.58
4964.00,0.58
4963.00,0.59
4962.00,0.59
4961.00,0.59
4960.00,0.59
4959.00,0.59
4958.00,0.59
4957.00,0.59
4956.00,0.59
4955.00,0.60
4954.00,0.60
4953.00,0.60
4952.00,0.60
4951.00,0.60
4950.00,0.60
4949.00,0.61
4948.00,0.61
4947.00,0.61
4946.00,0.61
4945.00,0.61
4944.00,0.61
4943.00,0.62
4942.00,0.62
4941.00,0.62
4940.00,0.62
4939.00,0.63
4938.00,0.63
4937.00,0.63
4936.00,0.64
4935.00,0.64
4934.00,0.64
4933.00,0.64
4932.00,0.65
4931.00,0.65
4930.00,0.65
4929.00,0.65
4928.00,0.65
4927.00,0.66
4926.00,0.66
4925.00,0.66
4924.00,0.66
4923.00,0.66
4922.00,0.66
4921.00,0.67
4920.00,0.67
4919.00,0.67
4918.00,0.67
4917.00,0.67
4916.00,0.67
4915.00,0.67
4914.00,0.67
4913.00,0.67
4912.00,0.67
4911.00,0.67
4910.00,0.67
4909.00,0.67
4908.00,0.67
4907.00,0.67
4906.00,0.67
4905.00,0.67
4904.00,0.67
4903.00,0.67
4902.00,0.67
4901.00,0.67
4900.00,0.67
4899.00,0.68
4898.00,0.68
4897.00,0.68
4896.00,0.68
4895.00,0.68
4894.00,0.68
4893.00,0.68
4892.00,0.68
4891.00,0.68
4890.00,0.68
4889.00,0.68
4888.00,0.68
4887.00,0.68
4886.00,0.68
4885.00,0.68
4884.00,0.68
4883.00,0.68
4882.00,0.68
4881.00,0.68
4880.00,0.68
4879.00,0.68
4878.00,0.68
4877.00,0.68
4876.00,0.68
4875.00,0.68
4874.00,0.68
4873.00,0.68
4872.00,0.68
4871.00,0.68
4870.00,0.68
4869.00,0.68
4868.00,0.67
4867.00,0.67
4866.00,0.67
4865.00,0.67
4864.00,0.67
4863.00,0.67
4862.00,0.67
4861.00,0.66
4860.00,0.66
4859.00,0.66
4858.00,0.66
4857.00,0.66
4856.00,0.66
4855.00,0.66
4854.00,0.66
4853.00,0.66
4852.00,0.66
4851.00,0.67
4850.00,0.67
4849.00,0.67
4848.00,0.67
4847.00,0.67
4846.00,0.67
4845.00,0.67
4844.00,0.67
4843.00,0.67
4842.00,0.67
4841.00,0.67
4840.00,0.68
4839.00,0.68
4838.00,0.68
4837.00,0.68
4836.00,0.68
4835.00,0.69
4834.00,0.69
4833.00,0.69
4832.00,0.69
4831.00,0.69
4830.00,0.69
4829.00,0.70
4828.00,0.70
4827.00,0.70
4826.00,0.70
4825.00,0.70
4824.00,0.70
4823.00,0.70
4822.00,0.70
4821.00,0.70
4820.00,0.71
4819.00,0.71
4818.00,0.71
4817.00,0.71
4816.00,0.71
4815.00,0.71
4814.00,0.71
4813.00,0.71
4812.00,0.71
4811.00,0.71
4810.00,0.71
4809.00,0.71
4808.00,0.72
4807.00,0.72
4806.00,0.72
4805.00,0.72
4804.00,0.72
4803.00,0.72
4802.00,0.72
4801.00,0.72
4800.00,0.72
4799.00,0.72
4798.00,0.73
4797.00,0.73
4796.00,0.73
4795.00,0.73
4794.00,0.73
4793.00,0.74
4792.00,0.74
4791.00,0.74
4790.00,0.74
4789.00,0.74
4788.00,0.75
4787.00,0.75
4786.00,0.75
4785.00,0.75
4784.00,0.76
4783.00,0.76
4782.00,0.76
4781.00,0.76
4780.00,0.77
4779.00,0.77
4778.00,0.77
4777.00,0.77
4776.00,0.78
4775.00,0.78
4774.00,0.78
4773.00,0.78
4772.00,0.78
4771.00,0.78
4770.00,0.78
4769.00,0.78
4768.00,0.78
4767.00,0.78
4766.00,0.78
4765.00,0.78
4764.00,0.78
4763.00,0.78
4762.00,0.78
4761.00,0.78
4760.00,0.78
4759.00,0.78
4758.00,0.78
4757.00,0.78
4756.00,0.79
4755.00,0.79
4754.00,0.79
4753.00,0.79
4752.00,0.79
4751.00,0.79
4750.00,0.79
4749.00,0.79
4748.00,0.79
4747.00,0.79
4746.00,0.80
4745.00,0.80
4744.00,0.80
4743.00,0.80
4742.00,0.80
4741.00,0.81
4740.00,0.81
4739.00,0.81
4738.00,0.81
4737.00,0.82
4736.00,0.82
4735.00,0.82
4734.00,0.83
4733.00,0.83
4732.00,0.83
4731.00,0.83
4730.00,0.84
4729.00,0.84
4728.00,0.84
4727.00,0.85
4726.00,0.85
4725.00,0.85
4724.00,0.85
4723.00,0.86
4722.00,0.86
4721.00,0.86
4720.00,0.86
4719.00,0.86
4718.00,0.87
4717.00,0.87
4716.00,0.87
4715.00,0.87
4714.00,0.88
4713.00,0.88
4712.00,0.88
4711.00,0.88
4710.00,0.88
4709.00,0.88
4708.00,0.88
4707.00,0.89
4706.00,0.89
4705.00,0.89
4704.00,0.89
4703.00,0.89
4702.00,0.89
4701.00,0.89
4700.00,0.89
4699.00,0.90
4698.00,0.90
4697.00,0.90
4696.00,0.90
4695.00,0.90
4694.00,0.90
4693.00,0.91
4692.00,0.91
4691.00,0.91
4690.00,0.91
4689.00,0.91
4688.00,0.92
4687.00,0.92
4686.00,0.92
4685.00,0.93
4684.00,0.93
4683.00,0.93
4682.00,0.94
4681.00,0.94
4680.00,0.95
4679.00,0.95
4678.00,0.95
4677.00,0.96
4676.00,0.96
4675.00,0.96
4674.00,0.97
4673.00,0.97
4672.00,0.97
4671.00,0.97
4670.00,0.98
4669.00,0.98
4668.00,0.98
4667.00,0.98
4666.00,0.99
4665.00,0.99
4664.00,0.99
4663.00,0.99
4662.00,0.99
4661.00,1.00
4660.00,1.00
4659.00,1.00
4658.00,1.00
4657.00,1.00
4656.00,1.00
4655.00,1.00
4654.00,1.00
4653.00,1.00
4652.00,1.00
4651.00,1.00
4650.00,1.00
4649.00,1.00
4648.00,1.00
4647.00,1.00
4646.00,1.00
4645.00,1.00
4644.00,1.00
4643.00,1.00
4642.00,1.00
4641.00,1.00
4640.00,1.00
4639.00,1.00
4638.00,1.00
4637.00,1.00
4636.00,1.00
4635.00,1.00
4634.00,1.01
4633.00,1.01
4632.00,1.01
4631.00,1.01
4630.00,1.01
4629.00,1.01
4628.00,1.01
4627.00,1.02
4626.00,1.02
4625.00,1.02
4624.00,1.03
4623.00,1.03
4622.00,1.03
4621.00,1.03
4620.00,1.03
4619.00,1.04
4618.00,1.04
4617.00,1.04
4616.00,1.04
4615.00,1.04
4614.00,1.05
4613.00,1.05
4612.00,1.05
4611.00,1.05
4610.00,1.06
4609.00,1.06
4608.00,1.06
4607.00,1.06
4606.00,1.06
4605.00,1.06
4604.00,1.06
4603.00,1.06
4602.00,1.06
4601.00,1.06
4600.00,1.06
4599.00,1.06
4598.00,1.06
4597.00,1.06
4596.00,1.06
4595.00,1.06
4594.00,1.06
4593.00,1.06
4592.00,1.06
4591.00,1.06
4590.00,1.06
4589.00,1.06
4588.00,1.06
4587.00,1.05
4586.00,1.05
4585.00,1.05
4584.00,1.05
4583.00,1.05
4582.00,1.05
4581.00,1.05
4580.00,1.05
4579.00,1.05
4578.00,1.05
4577.00,1.05
4576.00,1.05
4575.00,1.05
4574.00,1.05
4573.00,1.06
4572.00,1.06
4571.00,1.06
4570.00,1.06
4569.00,1.06
4568.00,1.06
4567.00,1.06
4566.00,1.07
4565.00,1.07
4564.00,1.07
4563.00,1.07
4562.00,1.07
4561.00,1.07
4560.00,1.07
4559.00,1.07
4558.00,1.08
4557.00,1.08
4556.00,1.08
4555.00,1.08
4554.00,1.08
4553.00,1.08
4552.00,1.08
4551.00,1.08
4550.00,1.09
4549.00,1.09
4548.00,1.09
4547.00,1.08
4546.00,1.08
4545.00,1.09
4544.00,1.09
4543.00,1.09
4542.00,1.09
4541.00,1.09
4540.00,1.09
4539.00,1.09
4538.00,1.09
4537.00,1.09
4536.00,1.09
4535.00,1.09
4534.00,1.09
4533.00,1.09
4532.00,1.09
4531.00,1.09
4530.00,1.09
4529.00,1.09
4528.00,1.09
4527.00,1.09
4526.00,1.09
4525.00,1.09
4524.00,1.09
4523.00,1.09
4522.00,1.10
4521.00,1.10
4520.00,1.10
4519.00,1.10
4518.00,1.10
4517.00,1.10
4516.00,1.10
4515.00,1.10
4514.00,1.10
4513.00,1.10
4512.00,1.10
4511.00,1.10
4510.00,1.10
4509.00,1.10
4508.00,1.09
4507.00,1.09
4506.00,1.09
4505.00,1.09
4504.00,1.09
4503.00,1.09
4502.00,1.09
4501.00,1.08
4500.00,1.08
4499.00,1.08
4498.00,1.08
4497.00,1.07
4496.00,1.07
4495.00,1.07
4494.00,1.07
4493.00,1.06
4492.00,1.06
4491.00,1.06
4490.00,1.06
4489.00,1.05
4488.00,1.05
4487.00,1.05
4486.00,1.05
4485.00,1.04
4484.00,1.04
4483.00,1.04
4482.00,1.04
4481.00,1.03
4480.00,1.03
4479.00,1.03
4478.00,1.03
4477.00,1.02
4476.00,1.02
4475.00,1.02
4474.00,1.01
4473.00,1.01
4472.00,1.01
4471.00,1.01
4470.00,1.00
4469.00,1.00
4468.00,1.00
4467.00,1.00
4466.00,0.99
4465.00,0.99
4464.00,0.99
4463.00,0.99
4462.00,0.98
4461.00,0.98
4460.00,0.98
4459.00,0.97
4458.00,0.97
4457.00,0.97
4456.00,0.96
4455.00,0.96
4454.00,0.96
4453.00,0.95
4452.00,0.95
4451.00,0.94
4450.00,0.94
4449.00,0.94
4448.00,0.93
4447.00,0.93
4446.00,0.92
4445.00,0.92
4444.00,0.91
4443.00,0.91
4442.00,0.90
4441.00,0.90
4440.00,0.89
4439.00,0.89
4438.00,0.89
4437.00,0.88
4436.00,0.88
4435.00,0.87
4434.00,0.87
4433.00,0.87
4432.00,0.86
4431.00,0.86
4430.00,0.86
4429.00,0.85
4428.00,0.85
4427.00,0.84
4426.00,0.84
4425.00,0.84
4424.00,0.83
4423.00,0.83
4422.00,0.83
4421.00,0.83
4420.00,0.82
4419.00,0.82
4418.00,0.82
4417.00,0.82
4416.00,0.82
4415.00,0.81
4414.00,0.81
4413.00,0.81
4412.00,0.81
4411.00,0.81
4410.00,0.81
4409.00,0.81
4408.00,0.81
4407.00,0.81
4406.00,0.81
4405.00,0.81
4404.00,0.81
4403.00,0.81
4402.00,0.81
4401.00,0.80
4400.00,0.80
4399.00,0.80
4398.00,0.80
4397.00,0.80
4396.00,0.80
4395.00,0.80
4394.00,0.80
4393.00,0.80
4392.00,0.80
4391.00,0.80
4390.00,0.80
4389.00,0.80
4388.00,0.80
4387.00,0.80
4386.00,0.80
4385.00,0.80
4384.00,0.80
4383.00,0.80
4382.00,0.80
4381.00,0.80
4380.00,0.79
4379.00,0.79
4378.00,0.79
4377.00,0.79
4376.00,0.79
4375.00,0.79
4374.00,0.79
4373.00,0.79
4372.00,0.79
4371.00,0.79
4370.00,0.79
4369.00,0.79
4368.00,0.79
4367.00,0.78
4366.00,0.78
4365.00,0.78
4364.00,0.78
4363.00,0.78
4362.00,0.78
4361.00,0.78
4360.00,0.78
4359.00,0.78
4358.00,0.78
4357.00,0.78
4356.00,0.78
4355.00,0.78
4354.00,0.78
4353.00,0.79
4352.00,0.79
4351.00,0.79
4350.00,0.79
4349.00,0.79
4348.00,0.79
4347.00,0.79
4346.00,0.79
4345.00,0.79
4344.00,0.79
4343.00,0.79
4342.00,0.79
4341.00,0.80
4340.00,0.80
4339.00,0.80
4338.00,0.80
4337.00,0.80
4336.00,0.81
4335.00,0.81
4334.00,0.81
4333.00,0.81
4332.00,0.82
4331.00,0.82
4330.00,0.82
4329.00,0.82
4328.00,0.82
4327.00,0.83
4326.00,0.83
4325.00,0.83
4324.00,0.83
4323.00,0.83
4322.00,0.84
4321.00,0.84
4320.00,0.84
4319.00,0.84
4318.00,0.84
4317.00,0.84
4316.00,0.84
4315.00,0.84
4314.00,0.85
4313.00,0.85
4312.00,0.85
4311.00,0.85
4310.00,0.85
4309.00,0.84
4308.00,0.84
4307.00,0.84
4306.00,0.84
4305.00,0.84
4304.00,0.84
4303.00,0.84
4302.00,0.84
4301.00,0.84
4300.00,0.84
4299.00,0.84
4298.00,0.84
4297.00,0.84
4296.00,0.85
4295.00,0.85
4294.00,0.85
4293.00,0.85
4292.00,0.85
4291.00,0.85
4290.00,0.85
4289.00,0.85
4288.00,0.86
4287.00,0.86
4286.00,0.86
4285.00,0.86
4284.00,0.86
4283.00,0.86
4282.00,0.86
4281.00,0.86
4280.00,0.86
4279.00,0.86
4278.00,0.86
4277.00,0.86
4276.00,0.86
4275.00,0.86
4274.00,0.86
4273.00,0.85
4272.00,0.85
4271.00,0.85
4270.00,0.85
4269.00,0.85
4268.00,0.85
4267.00,0.84
4266.00,0.84
4265.00,0.84
4264.00,0.84
4263.00,0.84
4262.00,0.84
4261.00,0.84
4260.00,0.84
4259.00,0.84
4258.00,0.84
4257.00,0.84
4256.00,0.84
4255.00,0.84
4254.00,0.84
4253.00,0.85
4252.00,0.85
4251.00,0.85
4250.00,0.85
4249.00,0.86
4248.00,0.86
4247.00,0.87
4246.00,0.87
4245.00,0.87
4244.00,0.88
4243.00,0.88
4242.00,0.89
4241.00,0.89
4240.00,0.89
4239.00,0.90
4238.00,0.90
4237.00,0.91
4236.00,0.91
4235.00,0.91
4234.00,0.92
4233.00,0.92
4232.00,0.93
4231.00,0.93
4230.00,0.93
4229.00,0.94
4228.00,0.94
4227.00,0.94
4226.00,0.95
4225.00,0.95
4224.00,0.95
4223.00,0.95
4222.00,0.96
4221.00,0.96
4220.00,0.96
4219.00,0.96
4218.00,0.96
4217.00,0.96
4216.00,0.96
4215.00,0.96
4214.00,0.96
4213.00,0.96
4212.00,0.97
4211.00,0.97
4210.00,0.97
4209.00,0.97
4208.00,0.97
4207.00,0.97
4206.00,0.97
4205.00,0.97
4204.00,0.97
4203.00,0.97
4202.00,0.97
4201.00,0.97
4200.00,0.97
4199.00,0.97
4198.00,0.97
4197.00,0.97
4196.00,0.97
4195.00,0.97
4194.00,0.98
4193.00,0.98
4192.00,0.98
4191.00,0.98
4190.00,0.98
4189.00,0.98
4188.00,0.98
4187.00,0.98
4186.00,0.98
4185.00,0.98
4184.00,0.98
4183.00,0.98
4182.00,0.98
4181.00,0.98
4180.00,0.98
4179.00,0.98
4178.00,0.98
4177.00,0.98
4176.00,0.98
4175.00,0.98
4174.00,0.98
4173.00,0.98
4172.00,0.98
4171.00,0.99
4170.00,0.99
4169.00,0.98
4168.00,0.98
4167.00,0.98
4166.00,0.98
4165.00,0.98
4164.00,0.98
4163.00,0.98
4162.00,0.98
4161.00,0.98
4160.00,0.98
4159.00,0.98
4158.00,0.98
4157.00,0.98
4156.00,0.98
4155.00,0.98
4154.00,0.98
4153.00,0.98
4152.00,0.98
4151.00,0.98
4150.00,0.98
4149.00,0.98
4148.00,0.98
4147.00,0.98
4146.00,0.98
4145.00,0.99
4144.00,0.99
4143.00,0.99
4142.00,0.99
4141.00,0.99
4140.00,1.00
4139.00,1.00
4138.00,1.00
4137.00,1.01
4136.00,1.01
4135.00,1.02
4134.00,1.02
4133.00,1.02
4132.00,1.03
4131.00,1.03
4130.00,1.03
4129.00,1.03
4128.00,1.03
4127.00,1.04
4126.00,1.04
4125.00,1.03
4124.00,1.03
4123.00,1.03
4122.00,1.03
4121.00,1.03
4120.00,1.03
4119.00,1.03
4118.00,1.02
4117.00,1.02
4116.00,1.02
4115.00,1.01
4114.00,1.01
4113.00,1.00
4112.00,1.00
4111.00,0.99
4110.00,0.99
4109.00,0.98
4108.00,0.98
4107.00,0.97
4106.00,0.96
4105.00,0.96
4104.00,0.96
4103.00,0.95
4102.00,0.95
4101.00,0.94
4100.00,0.94
4099.00,0.94
4098.00,0.94
4097.00,0.94
4096.00,0.94
4095.00,0.94
4094.00,0.94
4093.00,0.94
4092.00,0.94
4091.00,0.94
4090.00,0.95
4089.00,0.95
4088.00,0.95
4087.00,0.95
4086.00,0.96
4085.00,0.96
4084.00,0.96
4083.00,0.96
4082.00,0.97
4081.00,0.97
4080.00,0.97
4079.00,0.97
4078.00,0.98
4077.00,0.98
4076.00,0.98
4075.00,0.99
4074.00,0.99
4073.00,0.99
4072.00,1.00
4071.00,1.00
4070.00,1.00
4069.00,1.00
4068.00,1.00
4067.00,1.00
4066.00,1.01
4065.00,1.01
4064.00,1.01
4063.00,1.01
4062.00,1.01
4061.00,1.00
4060.00,1.00
4059.00,1.00
4058.00,1.00
4057.00,1.00
4056.00,1.01
4055.00,1.01
4054.00,1.01
4053.00,1.01
4052.00,1.01
4051.00,1.01
4050.00,1.01
4049.00,1.01
4048.00,1.01
4047.00,1.01
4046.00,1.00
4045.00,1.00
4044.00,1.00
4043.00,1.00
4042.00,1.00
4041.00,1.00
4040.00,1.00
4039.00,1.00
4038.00,1.00
4037.00,1.01
4036.00,1.01
4035.00,1.01
4034.00,1.02
4033.00,1.02
4032.00,1.03
4031.00,1.03
4030.00,1.04
4029.00,1.04
4028.00,1.04
4027.00,1.05
4026.00,1.05
4025.00,1.05
4024.00,1.06
4023.00,1.06
4022.00,1.07
4021.00,1.07
4020.00,1.08
4019.00,1.09
4018.00,1.09
4017.00,1.10
4016.00,1.10
4015.00,1.11
4014.00,1.11
4013.00,1.11
4012.00,1.12
4011.00,1.12
4010.00,1.12
4009.00,1.12
4008.00,1.12
4007.00,1.12
4006.00,1.13
4005.00,1.13
4004.00,1.13
4003.00,1.13
4002.00,1.13
4001.00,1.13
4000.00,1.13
