创建为新数据集,样品 976 用户 Administrator 日期 星期二, 七月 30 2019
cm-1,%T
10000.00,0.89
9999.00,0.92
9998.00,0.95
9997.00,0.98
9996.00,1.01
9995.00,1.03
9994.00,1.06
9993.00,1.08
9992.00,1.11
9991.00,1.13
9990.00,1.15
9989.00,1.17
9988.00,1.19
9987.00,1.21
9986.00,1.23
9985.00,1.25
9984.00,1.27
9983.00,1.29
9982.00,1.31
9981.00,1.33
9980.00,1.34
9979.00,1.36
9978.00,1.38
9977.00,1.39
9976.00,1.40
9975.00,1.41
9974.00,1.42
9973.00,1.42
9972.00,1.42
9971.00,1.42
9970.00,1.42
9969.00,1.41
9968.00,1.41
9967.00,1.40
9966.00,1.40
9965.00,1.39
9964.00,1.38
9963.00,1.37
9962.00,1.36
9961.00,1.35
9960.00,1.34
9959.00,1.33
9958.00,1.31
9957.00,1.30
9956.00,1.28
9955.00,1.27
9954.00,1.25
9953.00,1.23
9952.00,1.22
9951.00,1.20
9950.00,1.18
9949.00,1.16
9948.00,1.15
9947.00,1.13
9946.00,1.12
9945.00,1.10
9944.00,1.09
9943.00,1.08
9942.00,1.06
9941.00,1.05
9940.00,1.04
9939.00,1.04
9938.00,1.03
9937.00,1.02
9936.00,1.02
9935.00,1.01
9934.00,1.01
9933.00,1.01
9932.00,1.01
9931.00,1.01
9930.00,1.01
9929.00,1.01
9928.00,1.01
9927.00,1.01
9926.00,1.01
9925.00,1.01
9924.00,1.02
9923.00,1.02
9922.00,1.02
9921.00,1.02
9920.00,1.02
9919.00,1.02
9918.00,1.03
9917.00,1.03
9916.00,1.03
9915.00,1.03
9914.00,1.04
9913.00,1.04
9912.00,1.04
9911.00,1.05
9910.00,1.05
9909.00,1.05
9908.00,1.05
9907.00,1.05
9906.00,1.05
9905.00,1.05
9904.00,1.06
9903.00,1.06
9902.00,1.06
9901.00,1.06
9900.00,1.06
9899.00,1.06
9898.00,1.07
9897.00,1.07
9896.00,1.07
9895.00,1.08
9894.00,1.08
9893.00,1.08
9892.00,1.09
9891.00,1.09
9890.00,1.09
9889.00,1.09
9888.00,1.09
9887.00,1.09
9886.00,1.09
9885.00,1.09
9884.00,1.09
9883.00,1.08
9882.00,1.08
9881.00,1.08
9880.00,1.07
9879.00,1.07
9878.00,1.06
9877.00,1.06
9876.00,1.05
9875.00,1.05
9874.00,1.04
9873.00,1.04
9872.00,1.04
9871.00,1.03
9870.00,1.03
9869.00,1.02
9868.00,1.02
9867.00,1.01
9866.00,1.01
9865.00,1.01
9864.00,1.00
9863.00,1.00
9862.00,1.00
9861.00,1.00
9860.00,1.00
9859.00,1.00
9858.00,1.00
9857.00,1.00
9856.00,1.01
9855.00,1.01
9854.00,1.02
9853.00,1.02
9852.00,1.03
9851.00,1.03
9850.00,1.04
9849.00,1.04
9848.00,1.04
9847.00,1.05
9846.00,1.05
9845.00,1.05
9844.00,1.05
9843.00,1.05
9842.00,1.05
9841.00,1.05
9840.00,1.05
9839.00,1.05
9838.00,1.04
9837.00,1.04
9836.00,1.04
9835.00,1.04
9834.00,1.04
9833.00,1.04
9832.00,1.04
9831.00,1.03
9830.00,1.03
9829.00,1.03
9828.00,1.02
9827.00,1.02
9826.00,1.02
9825.00,1.02
9824.00,1.01
9823.00,1.01
9822.00,1.01
9821.00,1.01
9820.00,1.01
9819.00,1.02
9818.00,1.02
9817.00,1.02
9816.00,1.02
9815.00,1.02
9814.00,1.02
9813.00,1.02
9812.00,1.03
9811.00,1.03
9810.00,1.03
9809.00,1.03
9808.00,1.03
9807.00,1.03
9806.00,1.03
9805.00,1.03
9804.00,1.03
9803.00,1.02
9802.00,1.02
9801.00,1.02
9800.00,1.01
9799.00,1.01
9798.00,1.00
9797.00,0.99
9796.00,0.99
9795.00,0.98
9794.00,0.97
9793.00,0.97
9792.00,0.96
9791.00,0.95
9790.00,0.95
9789.00,0.94
9788.00,0.94
9787.00,0.94
9786.00,0.93
9785.00,0.93
9784.00,0.93
9783.00,0.93
9782.00,0.93
9781.00,0.93
9780.00,0.93
9779.00,0.93
9778.00,0.93
9777.00,0.94
9776.00,0.94
9775.00,0.95
9774.00,0.96
9773.00,0.96
9772.00,0.97
9771.00,0.98
9770.00,1.00
9769.00,1.01
9768.00,1.02
9767.00,1.03
9766.00,1.04
9765.00,1.05
9764.00,1.06
9763.00,1.07
9762.00,1.08
9761.00,1.09
9760.00,1.10
9759.00,1.11
9758.00,1.11
9757.00,1.12
9756.00,1.13
9755.00,1.13
9754.00,1.14
9753.00,1.14
9752.00,1.14
9751.00,1.14
9750.00,1.14
9749.00,1.14
9748.00,1.14
9747.00,1.14
9746.00,1.13
9745.00,1.13
9744.00,1.12
9743.00,1.11
9742.00,1.11
9741.00,1.10
9740.00,1.09
9739.00,1.09
9738.00,1.08
9737.00,1.07
9736.00,1.07
9735.00,1.06
9734.00,1.05
9733.00,1.04
9732.00,1.04
9731.00,1.03
9730.00,1.02
9729.00,1.02
9728.00,1.01
9727.00,1.01
9726.00,1.00
9725.00,1.00
9724.00,1.00
9723.00,1.00
9722.00,0.99
9721.00,0.99
9720.00,0.99
9719.00,0.99
9718.00,0.99
9717.00,1.00
9716.00,1.00
9715.00,1.00
9714.00,1.00
9713.00,1.00
9712.00,0.99
9711.00,0.99
9710.00,0.99
9709.00,0.99
9708.00,0.99
9707.00,0.98
9706.00,0.98
9705.00,0.98
9704.00,0.98
9703.00,0.98
9702.00,0.97
9701.00,0.97
9700.00,0.97
9699.00,0.96
9698.00,0.96
9697.00,0.95
9696.00,0.95
9695.00,0.94
9694.00,0.93
9693.00,0.93
9692.00,0.92
9691.00,0.91
9690.00,0.91
9689.00,0.90
9688.00,0.90
9687.00,0.90
9686.00,0.90
9685.00,0.90
9684.00,0.90
9683.00,0.90
9682.00,0.91
9681.00,0.91
9680.00,0.92
9679.00,0.93
9678.00,0.94
9677.00,0.94
9676.00,0.95
9675.00,0.96
9674.00,0.97
9673.00,0.98
9672.00,0.99
9671.00,1.01
9670.00,1.02
9669.00,1.03
9668.00,1.04
9667.00,1.05
9666.00,1.07
9665.00,1.08
9664.00,1.09
9663.00,1.10
9662.00,1.11
9661.00,1.12
9660.00,1.12
9659.00,1.13
9658.00,1.13
9657.00,1.13
9656.00,1.13
9655.00,1.13
9654.00,1.13
9653.00,1.13
9652.00,1.13
9651.00,1.12
9650.00,1.12
9649.00,1.11
9648.00,1.11
9647.00,1.10
9646.00,1.10
9645.00,1.09
9644.00,1.08
9643.00,1.08
9642.00,1.07
9641.00,1.06
9640.00,1.05
9639.00,1.05
9638.00,1.04
9637.00,1.03
9636.00,1.03
9635.00,1.02
9634.00,1.02
9633.00,1.02
9632.00,1.02
9631.00,1.01
9630.00,1.01
9629.00,1.01
9628.00,1.01
9627.00,1.01
9626.00,1.01
9625.00,1.01
9624.00,1.01
9623.00,1.01
9622.00,1.01
9621.00,1.01
9620.00,1.02
9619.00,1.02
9618.00,1.02
9617.00,1.02
9616.00,1.02
9615.00,1.02
9614.00,1.03
9613.00,1.03
9612.00,1.03
9611.00,1.03
9610.00,1.04
9609.00,1.04
9608.00,1.04
9607.00,1.04
9606.00,1.04
9605.00,1.04
9604.00,1.04
9603.00,1.04
9602.00,1.05
9601.00,1.05
9600.00,1.05
9599.00,1.05
9598.00,1.05
9597.00,1.05
9596.00,1.05
9595.00,1.05
9594.00,1.05
9593.00,1.05
9592.00,1.05
9591.00,1.05
9590.00,1.05
9589.00,1.05
9588.00,1.05
9587.00,1.05
9586.00,1.05
9585.00,1.05
9584.00,1.05
9583.00,1.04
9582.00,1.04
9581.00,1.04
9580.00,1.03
9579.00,1.03
9578.00,1.03
9577.00,1.02
9576.00,1.02
9575.00,1.02
9574.00,1.02
9573.00,1.01
9572.00,1.01
9571.00,1.01
9570.00,1.01
9569.00,1.01
9568.00,1.01
9567.00,1.01
9566.00,1.00
9565.00,1.00
9564.00,1.00
9563.00,1.00
9562.00,1.00
9561.00,0.99
9560.00,0.99
9559.00,0.99
9558.00,0.99
9557.00,0.99
9556.00,0.99
9555.00,0.99
9554.00,0.99
9553.00,0.99
9552.00,0.99
9551.00,0.99
9550.00,0.99
9549.00,1.00
9548.00,1.00
9547.00,1.00
9546.00,1.00
9545.00,1.01
9544.00,1.01
9543.00,1.01
9542.00,1.01
9541.00,1.02
9540.00,1.02
9539.00,1.02
9538.00,1.02
9537.00,1.03
9536.00,1.03
9535.00,1.03
9534.00,1.04
9533.00,1.04
9532.00,1.05
9531.00,1.05
9530.00,1.06
9529.00,1.06
9528.00,1.06
9527.00,1.06
9526.00,1.07
9525.00,1.07
9524.00,1.07
9523.00,1.07
9522.00,1.07
9521.00,1.06
9520.00,1.06
9519.00,1.06
9518.00,1.05
9517.00,1.05
9516.00,1.04
9515.00,1.04
9514.00,1.03
9513.00,1.03
9512.00,1.02
9511.00,1.01
9510.00,1.01
9509.00,1.00
9508.00,0.99
9507.00,0.98
9506.00,0.98
9505.00,0.97
9504.00,0.96
9503.00,0.95
9502.00,0.94
9501.00,0.93
9500.00,0.92
9499.00,0.92
9498.00,0.91
9497.00,0.90
9496.00,0.90
9495.00,0.89
9494.00,0.89
9493.00,0.89
9492.00,0.89
9491.00,0.88
9490.00,0.88
9489.00,0.88
9488.00,0.88
9487.00,0.88
9486.00,0.88
9485.00,0.88
9484.00,0.88
9483.00,0.88
9482.00,0.88
9481.00,0.87
9480.00,0.87
9479.00,0.87
9478.00,0.87
9477.00,0.87
9476.00,0.86
9475.00,0.86
9474.00,0.86
9473.00,0.86
9472.00,0.85
9471.00,0.85
9470.00,0.85
9469.00,0.84
9468.00,0.84
9467.00,0.84
9466.00,0.83
9465.00,0.83
9464.00,0.83
9463.00,0.82
9462.00,0.82
9461.00,0.81
9460.00,0.81
9459.00,0.81
9458.00,0.81
9457.00,0.81
9456.00,0.80
9455.00,0.81
9454.00,0.81
9453.00,0.81
9452.00,0.81
9451.00,0.81
9450.00,0.81
9449.00,0.82
9448.00,0.82
9447.00,0.83
9446.00,0.83
9445.00,0.83
9444.00,0.84
9443.00,0.84
9442.00,0.85
9441.00,0.85
9440.00,0.86
9439.00,0.86
9438.00,0.87
9437.00,0.87
9436.00,0.88
9435.00,0.89
9434.00,0.89
9433.00,0.90
9432.00,0.90
9431.00,0.91
9430.00,0.91
9429.00,0.92
9428.00,0.92
9427.00,0.93
9426.00,0.93
9425.00,0.94
9424.00,0.94
9423.00,0.94
9422.00,0.95
9421.00,0.95
9420.00,0.95
9419.00,0.96
9418.00,0.96
9417.00,0.96
9416.00,0.96
9415.00,0.97
9414.00,0.97
9413.00,0.97
9412.00,0.97
9411.00,0.98
9410.00,0.98
9409.00,0.98
9408.00,0.98
9407.00,0.98
9406.00,0.99
9405.00,0.99
9404.00,0.99
9403.00,0.99
9402.00,0.99
9401.00,1.00
9400.00,1.00
9399.00,1.00
9398.00,1.01
9397.00,1.01
9396.00,1.02
9395.00,1.02
9394.00,1.03
9393.00,1.03
9392.00,1.04
9391.00,1.04
9390.00,1.05
9389.00,1.06
9388.00,1.06
9387.00,1.07
9386.00,1.08
9385.00,1.08
9384.00,1.09
9383.00,1.09
9382.00,1.09
9381.00,1.10
9380.00,1.10
9379.00,1.10
9378.00,1.11
9377.00,1.11
9376.00,1.11
9375.00,1.11
9374.00,1.11
9373.00,1.11
9372.00,1.11
9371.00,1.11
9370.00,1.11
9369.00,1.11
9368.00,1.11
9367.00,1.11
9366.00,1.10
9365.00,1.10
9364.00,1.10
9363.00,1.09
9362.00,1.09
9361.00,1.09
9360.00,1.08
9359.00,1.08
9358.00,1.07
9357.00,1.06
9356.00,1.06
9355.00,1.05
9354.00,1.05
9353.00,1.04
9352.00,1.04
9351.00,1.03
9350.00,1.02
9349.00,1.02
9348.00,1.01
9347.00,1.00
9346.00,0.99
9345.00,0.99
9344.00,0.98
9343.00,0.97
9342.00,0.96
9341.00,0.96
9340.00,0.95
9339.00,0.94
9338.00,0.94
9337.00,0.93
9336.00,0.93
9335.00,0.92
9334.00,0.92
9333.00,0.92
9332.00,0.92
9331.00,0.92
9330.00,0.92
9329.00,0.92
9328.00,0.92
9327.00,0.92
9326.00,0.93
9325.00,0.93
9324.00,0.94
9323.00,0.94
9322.00,0.95
9321.00,0.96
9320.00,0.97
9319.00,0.98
9318.00,0.98
9317.00,0.99
9316.00,1.00
9315.00,1.01
9314.00,1.02
9313.00,1.03
9312.00,1.04
9311.00,1.04
9310.00,1.05
9309.00,1.05
9308.00,1.06
9307.00,1.06
9306.00,1.07
9305.00,1.07
9304.00,1.07
9303.00,1.08
9302.00,1.08
9301.00,1.08
9300.00,1.09
9299.00,1.09
9298.00,1.09
9297.00,1.09
9296.00,1.09
9295.00,1.09
9294.00,1.09
9293.00,1.09
9292.00,1.09
9291.00,1.09
9290.00,1.09
9289.00,1.08
9288.00,1.08
9287.00,1.08
9286.00,1.08
9285.00,1.08
9284.00,1.08
9283.00,1.09
9282.00,1.09
9281.00,1.09
9280.00,1.09
9279.00,1.09
9278.00,1.09
9277.00,1.09
9276.00,1.09
9275.00,1.09
9274.00,1.09
9273.00,1.09
9272.00,1.09
9271.00,1.09
9270.00,1.09
9269.00,1.09
9268.00,1.09
9267.00,1.09
9266.00,1.09
9265.00,1.09
9264.00,1.09
9263.00,1.08
9262.00,1.08
9261.00,1.08
9260.00,1.08
9259.00,1.08
9258.00,1.08
9257.00,1.08
9256.00,1.08
9255.00,1.08
9254.00,1.07
9253.00,1.07
9252.00,1.07
9251.00,1.07
9250.00,1.07
9249.00,1.07
9248.00,1.07
9247.00,1.06
9246.00,1.06
9245.00,1.06
9244.00,1.06
9243.00,1.06
9242.00,1.05
9241.00,1.05
9240.00,1.05
9239.00,1.05
9238.00,1.05
9237.00,1.05
9236.00,1.05
9235.00,1.05
9234.00,1.05
9233.00,1.05
9232.00,1.05
9231.00,1.05
9230.00,1.05
9229.00,1.05
9228.00,1.05
9227.00,1.05
9226.00,1.05
9225.00,1.05
9224.00,1.05
9223.00,1.05
9222.00,1.06
9221.00,1.06
9220.00,1.06
9219.00,1.06
9218.00,1.06
9217.00,1.07
9216.00,1.07
9215.00,1.07
9214.00,1.07
9213.00,1.07
9212.00,1.07
9211.00,1.07
9210.00,1.07
9209.00,1.07
9208.00,1.07
9207.00,1.07
9206.00,1.07
9205.00,1.07
9204.00,1.07
9203.00,1.07
9202.00,1.07
9201.00,1.07
9200.00,1.07
9199.00,1.07
9198.00,1.06
9197.00,1.06
9196.00,1.06
9195.00,1.06
9194.00,1.06
9193.00,1.06
9192.00,1.05
9191.00,1.05
9190.00,1.05
9189.00,1.05
9188.00,1.05
9187.00,1.04
9186.00,1.04
9185.00,1.04
9184.00,1.04
9183.00,1.04
9182.00,1.03
9181.00,1.03
9180.00,1.03
9179.00,1.02
9178.00,1.02
9177.00,1.02
9176.00,1.01
9175.00,1.01
9174.00,1.01
9173.00,1.00
9172.00,1.00
9171.00,1.00
9170.00,1.00
9169.00,0.99
9168.00,0.99
9167.00,0.99
9166.00,0.99
9165.00,0.99
9164.00,0.99
9163.00,0.99
9162.00,0.99
9161.00,0.99
9160.00,1.00
9159.00,1.00
9158.00,1.00
9157.00,1.01
9156.00,1.01
9155.00,1.01
9154.00,1.02
9153.00,1.02
9152.00,1.03
9151.00,1.03
9150.00,1.04
9149.00,1.04
9148.00,1.04
9147.00,1.04
9146.00,1.05
9145.00,1.05
9144.00,1.05
9143.00,1.05
9142.00,1.05
9141.00,1.05
9140.00,1.05
9139.00,1.04
9138.00,1.04
9137.00,1.04
9136.00,1.04
9135.00,1.03
9134.00,1.03
9133.00,1.03
9132.00,1.02
9131.00,1.02
9130.00,1.01
9129.00,1.01
9128.00,1.00
9127.00,1.00
9126.00,0.99
9125.00,0.99
9124.00,0.98
9123.00,0.98
9122.00,0.97
9121.00,0.97
9120.00,0.97
9119.00,0.97
9118.00,0.96
9117.00,0.96
9116.00,0.96
9115.00,0.96
9114.00,0.96
9113.00,0.96
9112.00,0.96
9111.00,0.96
9110.00,0.96
9109.00,0.96
9108.00,0.96
9107.00,0.96
9106.00,0.96
9105.00,0.96
9104.00,0.96
9103.00,0.96
9102.00,0.97
9101.00,0.97
9100.00,0.97
9099.00,0.98
9098.00,0.98
9097.00,0.99
9096.00,1.00
9095.00,1.00
9094.00,1.01
9093.00,1.01
9092.00,1.02
9091.00,1.02
9090.00,1.02
9089.00,1.03
9088.00,1.03
9087.00,1.04
9086.00,1.04
9085.00,1.05
9084.00,1.05
9083.00,1.06
9082.00,1.06
9081.00,1.06
9080.00,1.07
9079.00,1.07
9078.00,1.07
9077.00,1.07
9076.00,1.07
9075.00,1.07
9074.00,1.07
9073.00,1.07
9072.00,1.07
9071.00,1.06
9070.00,1.06
9069.00,1.06
9068.00,1.05
9067.00,1.05
9066.00,1.05
9065.00,1.04
9064.00,1.04
9063.00,1.04
9062.00,1.03
9061.00,1.03
9060.00,1.02
9059.00,1.02
9058.00,1.01
9057.00,1.01
9056.00,1.01
9055.00,1.00
9054.00,1.00
9053.00,1.00
9052.00,1.00
9051.00,1.00
9050.00,1.00
9049.00,1.00
9048.00,1.00
9047.00,1.00
9046.00,1.00
9045.00,1.00
9044.00,1.01
9043.00,1.01
9042.00,1.01
9041.00,1.01
9040.00,1.01
9039.00,1.01
9038.00,1.01
9037.00,1.01
9036.00,1.01
9035.00,1.02
9034.00,1.02
9033.00,1.02
9032.00,1.02
9031.00,1.02
9030.00,1.02
9029.00,1.02
9028.00,1.02
9027.00,1.02
9026.00,1.02
9025.00,1.01
9024.00,1.01
9023.00,1.01
9022.00,1.00
9021.00,1.00
9020.00,1.00
9019.00,0.99
9018.00,0.99
9017.00,0.99
9016.00,0.98
9015.00,0.98
9014.00,0.98
9013.00,0.98
9012.00,0.97
9011.00,0.97
9010.00,0.97
9009.00,0.96
9008.00,0.96
9007.00,0.96
9006.00,0.95
9005.00,0.95
9004.00,0.95
9003.00,0.95
9002.00,0.95
9001.00,0.95
9000.00,0.95
8999.00,0.95
8998.00,0.95
8997.00,0.95
8996.00,0.96
8995.00,0.96
8994.00,0.96
8993.00,0.97
8992.00,0.97
8991.00,0.97
8990.00,0.97
8989.00,0.98
8988.00,0.98
8987.00,0.98
8986.00,0.99
8985.00,0.99
8984.00,1.00
8983.00,1.00
8982.00,1.01
8981.00,1.01
8980.00,1.02
8979.00,1.03
8978.00,1.03
8977.00,1.04
8976.00,1.04
8975.00,1.05
8974.00,1.05
8973.00,1.05
8972.00,1.06
8971.00,1.06
8970.00,1.06
8969.00,1.07
8968.00,1.07
8967.00,1.07
8966.00,1.07
8965.00,1.08
8964.00,1.08
8963.00,1.08
8962.00,1.09
8961.00,1.09
8960.00,1.09
8959.00,1.09
8958.00,1.10
8957.00,1.10
8956.00,1.10
8955.00,1.11
8954.00,1.11
8953.00,1.11
8952.00,1.12
8951.00,1.12
8950.00,1.12
8949.00,1.12
8948.00,1.12
8947.00,1.12
8946.00,1.13
8945.00,1.13
8944.00,1.13
8943.00,1.13
8942.00,1.14
8941.00,1.14
8940.00,1.14
8939.00,1.14
8938.00,1.15
8937.00,1.15
8936.00,1.15
8935.00,1.15
8934.00,1.15
8933.00,1.15
8932.00,1.15
8931.00,1.15
8930.00,1.15
8929.00,1.14
8928.00,1.14
8927.00,1.14
8926.00,1.14
8925.00,1.13
8924.00,1.13
8923.00,1.13
8922.00,1.12
8921.00,1.12
8920.00,1.12
8919.00,1.11
8918.00,1.11
8917.00,1.10
8916.00,1.10
8915.00,1.10
8914.00,1.09
8913.00,1.09
8912.00,1.09
8911.00,1.08
8910.00,1.08
8909.00,1.08
8908.00,1.07
8907.00,1.07
8906.00,1.07
8905.00,1.06
8904.00,1.06
8903.00,1.06
8902.00,1.06
8901.00,1.06
8900.00,1.06
8899.00,1.06
8898.00,1.06
8897.00,1.06
8896.00,1.06
8895.00,1.06
8894.00,1.06
8893.00,1.07
8892.00,1.07
8891.00,1.07
8890.00,1.08
8889.00,1.08
8888.00,1.08
8887.00,1.08
8886.00,1.08
8885.00,1.09
8884.00,1.09
8883.00,1.09
8882.00,1.09
8881.00,1.10
8880.00,1.10
8879.00,1.10
8878.00,1.10
8877.00,1.10
8876.00,1.11
8875.00,1.11
8874.00,1.10
8873.00,1.10
8872.00,1.10
8871.00,1.10
8870.00,1.09
8869.00,1.09
8868.00,1.09
8867.00,1.08
8866.00,1.08
8865.00,1.07
8864.00,1.07
8863.00,1.06
8862.00,1.06
8861.00,1.05
8860.00,1.04
8859.00,1.04
8858.00,1.03
8857.00,1.02
8856.00,1.01
8855.00,1.01
8854.00,1.00
8853.00,0.99
8852.00,0.99
8851.00,0.98
8850.00,0.98
8849.00,0.97
8848.00,0.97
8847.00,0.97
8846.00,0.97
8845.00,0.97
8844.00,0.97
8843.00,0.97
8842.00,0.97
8841.00,0.97
8840.00,0.97
8839.00,0.97
8838.00,0.97
8837.00,0.97
8836.00,0.97
8835.00,0.97
8834.00,0.97
8833.00,0.98
8832.00,0.98
8831.00,0.98
8830.00,0.99
8829.00,0.99
8828.00,0.99
8827.00,1.00
8826.00,1.00
8825.00,1.00
8824.00,1.00
8823.00,1.00
8822.00,1.00
8821.00,1.00
8820.00,1.00
8819.00,1.00
8818.00,1.00
8817.00,1.00
8816.00,1.00
8815.00,1.00
8814.00,1.00
8813.00,1.00
8812.00,1.00
8811.00,1.01
8810.00,1.01
8809.00,1.01
8808.00,1.01
8807.00,1.01
8806.00,1.02
8805.00,1.02
8804.00,1.02
8803.00,1.03
8802.00,1.03
8801.00,1.03
8800.00,1.04
8799.00,1.04
8798.00,1.05
8797.00,1.05
8796.00,1.06
8795.00,1.06
8794.00,1.07
8793.00,1.07
8792.00,1.08
8791.00,1.08
8790.00,1.09
8789.00,1.09
8788.00,1.10
8787.00,1.10
8786.00,1.10
8785.00,1.11
8784.00,1.11
8783.00,1.11
8782.00,1.11
8781.00,1.11
8780.00,1.11
8779.00,1.11
8778.00,1.11
8777.00,1.11
8776.00,1.10
8775.00,1.10
8774.00,1.10
8773.00,1.09
8772.00,1.09
8771.00,1.09
8770.00,1.08
8769.00,1.08
8768.00,1.07
8767.00,1.07
8766.00,1.06
8765.00,1.06
8764.00,1.05
8763.00,1.05
8762.00,1.05
8761.00,1.04
8760.00,1.04
8759.00,1.04
8758.00,1.03
8757.00,1.03
8756.00,1.03
8755.00,1.03
8754.00,1.02
8753.00,1.02
8752.00,1.02
8751.00,1.03
8750.00,1.03
8749.00,1.03
8748.00,1.03
8747.00,1.03
8746.00,1.03
8745.00,1.03
8744.00,1.03
8743.00,1.03
8742.00,1.03
8741.00,1.03
8740.00,1.03
8739.00,1.03
8738.00,1.03
8737.00,1.03
8736.00,1.03
8735.00,1.03
8734.00,1.02
8733.00,1.02
8732.00,1.02
8731.00,1.01
8730.00,1.01
8729.00,1.00
8728.00,1.00
8727.00,0.99
8726.00,0.99
8725.00,0.98
8724.00,0.97
8723.00,0.97
8722.00,0.96
8721.00,0.95
8720.00,0.95
8719.00,0.94
8718.00,0.93
8717.00,0.93
8716.00,0.93
8715.00,0.92
8714.00,0.92
8713.00,0.91
8712.00,0.91
8711.00,0.91
8710.00,0.91
8709.00,0.90
8708.00,0.90
8707.00,0.90
8706.00,0.90
8705.00,0.90
8704.00,0.90
8703.00,0.89
8702.00,0.89
8701.00,0.89
8700.00,0.89
8699.00,0.89
8698.00,0.89
8697.00,0.89
8696.00,0.89
8695.00,0.89
8694.00,0.90
8693.00,0.90
8692.00,0.90
8691.00,0.90
8690.00,0.90
8689.00,0.90
8688.00,0.90
8687.00,0.90
8686.00,0.91
8685.00,0.91
8684.00,0.91
8683.00,0.91
8682.00,0.91
8681.00,0.92
8680.00,0.92
8679.00,0.92
8678.00,0.92
8677.00,0.92
8676.00,0.92
8675.00,0.92
8674.00,0.92
8673.00,0.92
8672.00,0.92
8671.00,0.92
8670.00,0.92
8669.00,0.91
8668.00,0.91
8667.00,0.91
8666.00,0.91
8665.00,0.90
8664.00,0.90
8663.00,0.90
8662.00,0.89
8661.00,0.89
8660.00,0.89
8659.00,0.89
8658.00,0.88
8657.00,0.88
8656.00,0.88
8655.00,0.88
8654.00,0.88
8653.00,0.88
8652.00,0.88
8651.00,0.88
8650.00,0.88
8649.00,0.88
8648.00,0.88
8647.00,0.88
8646.00,0.89
8645.00,0.89
8644.00,0.89
8643.00,0.90
8642.00,0.90
8641.00,0.91
8640.00,0.91
8639.00,0.91
8638.00,0.92
8637.00,0.92
8636.00,0.92
8635.00,0.93
8634.00,0.93
8633.00,0.93
8632.00,0.93
8631.00,0.93
8630.00,0.94
8629.00,0.94
8628.00,0.94
8627.00,0.94
8626.00,0.94
8625.00,0.95
8624.00,0.95
8623.00,0.95
8622.00,0.95
8621.00,0.96
8620.00,0.96
8619.00,0.96
8618.00,0.96
8617.00,0.97
8616.00,0.97
8615.00,0.97
8614.00,0.98
8613.00,0.98
8612.00,0.98
8611.00,0.99
8610.00,0.99
8609.00,1.00
8608.00,1.00
8607.00,1.01
8606.00,1.01
8605.00,1.01
8604.00,1.01
8603.00,1.02
8602.00,1.02
8601.00,1.02
8600.00,1.02
8599.00,1.02
8598.00,1.02
8597.00,1.02
8596.00,1.02
8595.00,1.02
8594.00,1.02
8593.00,1.02
8592.00,1.02
8591.00,1.02
8590.00,1.02
8589.00,1.02
8588.00,1.02
8587.00,1.02
8586.00,1.02
8585.00,1.02
8584.00,1.02
8583.00,1.02
8582.00,1.02
8581.00,1.02
8580.00,1.02
8579.00,1.01
8578.00,1.01
8577.00,1.01
8576.00,1.01
8575.00,1.01
8574.00,1.01
8573.00,1.01
8572.00,1.01
8571.00,1.01
8570.00,1.00
8569.00,1.00
8568.00,1.00
8567.00,1.00
8566.00,0.99
8565.00,0.99
8564.00,0.99
8563.00,0.98
8562.00,0.98
8561.00,0.97
8560.00,0.97
8559.00,0.97
8558.00,0.96
8557.00,0.96
8556.00,0.95
8555.00,0.95
8554.00,0.94
8553.00,0.94
8552.00,0.94
8551.00,0.93
8550.00,0.93
8549.00,0.93
8548.00,0.93
8547.00,0.93
8546.00,0.93
8545.00,0.92
8544.00,0.92
8543.00,0.92
8542.00,0.92
8541.00,0.92
8540.00,0.92
8539.00,0.92
8538.00,0.92
8537.00,0.92
8536.00,0.92
8535.00,0.91
8534.00,0.91
8533.00,0.91
8532.00,0.91
8531.00,0.91
8530.00,0.91
8529.00,0.91
8528.00,0.90
8527.00,0.90
8526.00,0.90
8525.00,0.90
8524.00,0.90
8523.00,0.90
8522.00,0.90
8521.00,0.90
8520.00,0.90
8519.00,0.90
8518.00,0.90
8517.00,0.90
8516.00,0.90
8515.00,0.89
8514.00,0.89
8513.00,0.89
8512.00,0.89
8511.00,0.89
8510.00,0.90
8509.00,0.90
8508.00,0.90
8507.00,0.90
8506.00,0.91
8505.00,0.91
8504.00,0.91
8503.00,0.92
8502.00,0.92
8501.00,0.92
8500.00,0.92
8499.00,0.92
8498.00,0.92
8497.00,0.92
8496.00,0.92
8495.00,0.92
8494.00,0.92
8493.00,0.92
8492.00,0.91
8491.00,0.91
8490.00,0.91
8489.00,0.90
8488.00,0.90
8487.00,0.90
8486.00,0.89
8485.00,0.89
8484.00,0.88
8483.00,0.88
8482.00,0.87
8481.00,0.87
8480.00,0.86
8479.00,0.86
8478.00,0.85
8477.00,0.84
8476.00,0.84
8475.00,0.83
8474.00,0.82
8473.00,0.82
8472.00,0.81
8471.00,0.81
8470.00,0.81
8469.00,0.80
8468.00,0.80
8467.00,0.80
8466.00,0.80
8465.00,0.81
8464.00,0.81
8463.00,0.81
8462.00,0.81
8461.00,0.81
8460.00,0.82
8459.00,0.82
8458.00,0.82
8457.00,0.82
8456.00,0.82
8455.00,0.82
8454.00,0.82
8453.00,0.82
8452.00,0.83
8451.00,0.83
8450.00,0.83
8449.00,0.84
8448.00,0.84
8447.00,0.84
8446.00,0.85
8445.00,0.85
8444.00,0.85
8443.00,0.85
8442.00,0.85
8441.00,0.85
8440.00,0.85
8439.00,0.85
8438.00,0.85
8437.00,0.85
8436.00,0.85
8435.00,0.85
8434.00,0.84
8433.00,0.84
8432.00,0.84
8431.00,0.85
8430.00,0.85
8429.00,0.85
8428.00,0.85
8427.00,0.85
8426.00,0.85
8425.00,0.85
8424.00,0.85
8423.00,0.85
8422.00,0.86
8421.00,0.86
8420.00,0.86
8419.00,0.86
8418.00,0.86
8417.00,0.86
8416.00,0.86
8415.00,0.86
8414.00,0.87
8413.00,0.87
8412.00,0.87
8411.00,0.88
8410.00,0.88
8409.00,0.88
8408.00,0.89
8407.00,0.89
8406.00,0.89
8405.00,0.89
8404.00,0.90
8403.00,0.90
8402.00,0.90
8401.00,0.90
8400.00,0.90
8399.00,0.90
8398.00,0.90
8397.00,0.91
8396.00,0.91
8395.00,0.91
8394.00,0.91
8393.00,0.91
8392.00,0.92
8391.00,0.92
8390.00,0.92
8389.00,0.92
8388.00,0.92
8387.00,0.92
8386.00,0.92
8385.00,0.92
8384.00,0.92
8383.00,0.92
8382.00,0.92
8381.00,0.92
8380.00,0.92
8379.00,0.92
8378.00,0.93
8377.00,0.93
8376.00,0.93
8375.00,0.93
8374.00,0.93
8373.00,0.93
8372.00,0.93
8371.00,0.93
8370.00,0.93
8369.00,0.93
8368.00,0.92
8367.00,0.92
8366.00,0.92
8365.00,0.92
8364.00,0.92
8363.00,0.92
8362.00,0.92
8361.00,0.92
8360.00,0.91
8359.00,0.91
8358.00,0.91
8357.00,0.91
8356.00,0.91
8355.00,0.91
8354.00,0.91
8353.00,0.91
8352.00,0.91
8351.00,0.91
8350.00,0.91
8349.00,0.91
8348.00,0.91
8347.00,0.91
8346.00,0.91
8345.00,0.91
8344.00,0.91
8343.00,0.91
8342.00,0.91
8341.00,0.91
8340.00,0.91
8339.00,0.91
8338.00,0.91
8337.00,0.91
8336.00,0.91
8335.00,0.91
8334.00,0.91
8333.00,0.91
8332.00,0.92
8331.00,0.92
8330.00,0.92
8329.00,0.92
8328.00,0.92
8327.00,0.92
8326.00,0.92
8325.00,0.92
8324.00,0.91
8323.00,0.91
8322.00,0.91
8321.00,0.91
8320.00,0.91
8319.00,0.91
8318.00,0.91
8317.00,0.92
8316.00,0.92
8315.00,0.92
8314.00,0.92
8313.00,0.92
8312.00,0.92
8311.00,0.93
8310.00,0.93
8309.00,0.93
8308.00,0.93
8307.00,0.93
8306.00,0.94
8305.00,0.94
8304.00,0.95
8303.00,0.95
8302.00,0.96
8301.00,0.96
8300.00,0.97
8299.00,0.97
8298.00,0.98
8297.00,0.99
8296.00,0.99
8295.00,1.00
8294.00,1.00
8293.00,1.01
8292.00,1.01
8291.00,1.01
8290.00,1.01
8289.00,1.02
8288.00,1.02
8287.00,1.02
8286.00,1.02
8285.00,1.02
8284.00,1.02
8283.00,1.02
8282.00,1.02
8281.00,1.02
8280.00,1.02
8279.00,1.01
8278.00,1.01
8277.00,1.01
8276.00,1.00
8275.00,1.00
8274.00,0.99
8273.00,0.98
8272.00,0.98
8271.00,0.97
8270.00,0.96
8269.00,0.96
8268.00,0.95
8267.00,0.94
8266.00,0.94
8265.00,0.94
8264.00,0.93
8263.00,0.93
8262.00,0.93
8261.00,0.93
8260.00,0.93
8259.00,0.93
8258.00,0.93
8257.00,0.93
8256.00,0.94
8255.00,0.94
8254.00,0.94
8253.00,0.94
8252.00,0.95
8251.00,0.95
8250.00,0.95
8249.00,0.96
8248.00,0.97
8247.00,0.97
8246.00,0.98
8245.00,0.98
8244.00,0.99
8243.00,0.99
8242.00,1.00
8241.00,1.01
8240.00,1.01
8239.00,1.02
8238.00,1.02
8237.00,1.02
8236.00,1.03
8235.00,1.03
8234.00,1.03
8233.00,1.03
8232.00,1.03
8231.00,1.03
8230.00,1.03
8229.00,1.03
8228.00,1.03
8227.00,1.03
8226.00,1.03
8225.00,1.03
8224.00,1.03
8223.00,1.03
8222.00,1.03
8221.00,1.02
8220.00,1.02
8219.00,1.02
8218.00,1.02
8217.00,1.02
8216.00,1.01
8215.00,1.01
8214.00,1.01
8213.00,1.01
8212.00,1.01
8211.00,1.00
8210.00,1.00
8209.00,1.00
8208.00,1.00
8207.00,1.00
8206.00,1.00
8205.00,1.00
8204.00,0.99
8203.00,0.99
8202.00,0.99
8201.00,0.99
8200.00,0.99
8199.00,0.99
8198.00,0.99
8197.00,0.99
8196.00,0.99
8195.00,0.99
8194.00,0.99
8193.00,0.98
8192.00,0.98
8191.00,0.98
8190.00,0.98
8189.00,0.98
8188.00,0.97
8187.00,0.97
8186.00,0.97
8185.00,0.96
8184.00,0.96
8183.00,0.96
8182.00,0.96
8181.00,0.95
8180.00,0.95
8179.00,0.95
8178.00,0.95
8177.00,0.94
8176.00,0.94
8175.00,0.94
8174.00,0.94
8173.00,0.94
8172.00,0.94
8171.00,0.93
8170.00,0.93
8169.00,0.93
8168.00,0.93
8167.00,0.93
8166.00,0.94
8165.00,0.94
8164.00,0.94
8163.00,0.94
8162.00,0.95
8161.00,0.95
8160.00,0.95
8159.00,0.96
8158.00,0.96
8157.00,0.96
8156.00,0.97
8155.00,0.97
8154.00,0.97
8153.00,0.98
8152.00,0.98
8151.00,0.98
8150.00,0.98
8149.00,0.98
8148.00,0.98
8147.00,0.99
8146.00,0.99
8145.00,0.99
8144.00,0.99
8143.00,0.99
8142.00,0.99
8141.00,0.99
8140.00,0.99
8139.00,0.99
8138.00,0.99
8137.00,0.99
8136.00,0.99
8135.00,0.99
8134.00,0.99
8133.00,0.99
8132.00,0.99
8131.00,0.99
8130.00,0.99
8129.00,0.99
8128.00,0.99
8127.00,0.99
8126.00,0.99
8125.00,0.99
8124.00,0.99
8123.00,0.99
8122.00,0.99
8121.00,1.00
8120.00,1.00
8119.00,1.00
8118.00,1.00
8117.00,1.00
8116.00,1.01
8115.00,1.01
8114.00,1.01
8113.00,1.01
8112.00,1.01
8111.00,1.02
8110.00,1.02
8109.00,1.02
8108.00,1.02
8107.00,1.03
8106.00,1.03
8105.00,1.03
8104.00,1.03
8103.00,1.04
8102.00,1.04
8101.00,1.04
8100.00,1.05
8099.00,1.05
8098.00,1.06
8097.00,1.06
8096.00,1.07
8095.00,1.07
8094.00,1.08
8093.00,1.08
8092.00,1.09
8091.00,1.10
8090.00,1.10
8089.00,1.11
8088.00,1.11
8087.00,1.12
8086.00,1.12
8085.00,1.13
8084.00,1.13
8083.00,1.14
8082.00,1.14
8081.00,1.14
8080.00,1.15
8079.00,1.15
8078.00,1.15
8077.00,1.16
8076.00,1.16
8075.00,1.16
8074.00,1.16
8073.00,1.16
8072.00,1.16
8071.00,1.15
8070.00,1.15
8069.00,1.15
8068.00,1.14
8067.00,1.14
8066.00,1.13
8065.00,1.13
8064.00,1.13
8063.00,1.12
8062.00,1.12
8061.00,1.11
8060.00,1.11
8059.00,1.11
8058.00,1.10
8057.00,1.10
8056.00,1.09
8055.00,1.09
8054.00,1.09
8053.00,1.08
8052.00,1.08
8051.00,1.07
8050.00,1.07
8049.00,1.06
8048.00,1.06
8047.00,1.06
8046.00,1.06
8045.00,1.05
8044.00,1.05
8043.00,1.05
8042.00,1.05
8041.00,1.04
8040.00,1.04
8039.00,1.04
8038.00,1.04
8037.00,1.04
8036.00,1.04
8035.00,1.03
8034.00,1.03
8033.00,1.03
8032.00,1.03
8031.00,1.03
8030.00,1.02
8029.00,1.02
8028.00,1.02
8027.00,1.02
8026.00,1.02
8025.00,1.02
8024.00,1.02
8023.00,1.02
8022.00,1.02
8021.00,1.02
8020.00,1.02
8019.00,1.03
8018.00,1.03
8017.00,1.03
8016.00,1.03
8015.00,1.03
8014.00,1.04
8013.00,1.04
8012.00,1.04
8011.00,1.04
8010.00,1.04
8009.00,1.05
8008.00,1.05
8007.00,1.05
8006.00,1.05
8005.00,1.06
8004.00,1.06
8003.00,1.06
8002.00,1.06
8001.00,1.07
8000.00,1.07
7999.00,1.07
7998.00,1.07
7997.00,1.07
7996.00,1.07
7995.00,1.07
7994.00,1.07
7993.00,1.07
7992.00,1.07
7991.00,1.07
7990.00,1.07
7989.00,1.07
7988.00,1.07
7987.00,1.07
7986.00,1.07
7985.00,1.07
7984.00,1.07
7983.00,1.06
7982.00,1.06
7981.00,1.06
7980.00,1.06
7979.00,1.06
7978.00,1.06
7977.00,1.06
7976.00,1.06
7975.00,1.06
7974.00,1.06
7973.00,1.06
7972.00,1.06
7971.00,1.06
7970.00,1.06
7969.00,1.06
7968.00,1.06
7967.00,1.06
7966.00,1.06
7965.00,1.07
7964.00,1.07
7963.00,1.07
7962.00,1.07
7961.00,1.07
7960.00,1.07
7959.00,1.08
7958.00,1.08
7957.00,1.08
7956.00,1.08
7955.00,1.09
7954.00,1.09
7953.00,1.09
7952.00,1.09
7951.00,1.09
7950.00,1.09
7949.00,1.09
7948.00,1.09
7947.00,1.09
7946.00,1.09
7945.00,1.09
7944.00,1.09
7943.00,1.09
7942.00,1.09
7941.00,1.09
7940.00,1.09
7939.00,1.09
7938.00,1.09
7937.00,1.09
7936.00,1.09
7935.00,1.09
7934.00,1.09
7933.00,1.09
7932.00,1.08
7931.00,1.08
7930.00,1.08
7929.00,1.08
7928.00,1.08
7927.00,1.08
7926.00,1.08
7925.00,1.08
7924.00,1.08
7923.00,1.08
7922.00,1.08
7921.00,1.08
7920.00,1.08
7919.00,1.09
7918.00,1.09
7917.00,1.09
7916.00,1.09
7915.00,1.09
7914.00,1.09
7913.00,1.09
7912.00,1.09
7911.00,1.10
7910.00,1.10
7909.00,1.10
7908.00,1.10
7907.00,1.10
7906.00,1.10
7905.00,1.10
7904.00,1.11
7903.00,1.11
7902.00,1.11
7901.00,1.12
7900.00,1.12
7899.00,1.12
7898.00,1.12
7897.00,1.13
7896.00,1.13
7895.00,1.13
7894.00,1.14
7893.00,1.14
7892.00,1.14
7891.00,1.14
7890.00,1.14
7889.00,1.15
7888.00,1.15
7887.00,1.15
7886.00,1.16
7885.00,1.16
7884.00,1.16
7883.00,1.16
7882.00,1.17
7881.00,1.17
7880.00,1.17
7879.00,1.17
7878.00,1.17
7877.00,1.17
7876.00,1.17
7875.00,1.17
7874.00,1.17
7873.00,1.16
7872.00,1.16
7871.00,1.16
7870.00,1.15
7869.00,1.15
7868.00,1.15
7867.00,1.15
7866.00,1.14
7865.00,1.14
7864.00,1.14
7863.00,1.13
7862.00,1.13
7861.00,1.13
7860.00,1.12
7859.00,1.12
7858.00,1.11
7857.00,1.11
7856.00,1.11
7855.00,1.10
7854.00,1.10
7853.00,1.09
7852.00,1.09
7851.00,1.09
7850.00,1.09
7849.00,1.08
7848.00,1.08
7847.00,1.08
7846.00,1.08
7845.00,1.08
7844.00,1.08
7843.00,1.08
7842.00,1.08
7841.00,1.09
7840.00,1.09
7839.00,1.09
7838.00,1.09
7837.00,1.09
7836.00,1.09
7835.00,1.09
7834.00,1.09
7833.00,1.09
7832.00,1.10
7831.00,1.10
7830.00,1.10
7829.00,1.10
7828.00,1.11
7827.00,1.11
7826.00,1.11
7825.00,1.11
7824.00,1.11
7823.00,1.11
7822.00,1.11
7821.00,1.11
7820.00,1.11
7819.00,1.11
7818.00,1.11
7817.00,1.11
7816.00,1.11
7815.00,1.11
7814.00,1.11
7813.00,1.11
7812.00,1.11
7811.00,1.11
7810.00,1.11
7809.00,1.11
7808.00,1.10
7807.00,1.10
7806.00,1.10
7805.00,1.10
7804.00,1.10
7803.00,1.09
7802.00,1.09
7801.00,1.09
7800.00,1.09
7799.00,1.09
7798.00,1.09
7797.00,1.08
7796.00,1.08
7795.00,1.08
7794.00,1.08
7793.00,1.08
7792.00,1.08
7791.00,1.09
7790.00,1.09
7789.00,1.09
7788.00,1.09
7787.00,1.09
7786.00,1.09
7785.00,1.09
7784.00,1.09
7783.00,1.10
7782.00,1.10
7781.00,1.10
7780.00,1.10
7779.00,1.10
7778.00,1.11
7777.00,1.11
7776.00,1.11
7775.00,1.12
7774.00,1.12
7773.00,1.12
7772.00,1.13
7771.00,1.13
7770.00,1.13
7769.00,1.14
7768.00,1.14
7767.00,1.14
7766.00,1.15
7765.00,1.15
7764.00,1.16
7763.00,1.16
7762.00,1.16
7761.00,1.17
7760.00,1.17
7759.00,1.17
7758.00,1.17
7757.00,1.18
7756.00,1.18
7755.00,1.18
7754.00,1.18
7753.00,1.18
7752.00,1.19
7751.00,1.19
7750.00,1.19
7749.00,1.19
7748.00,1.19
7747.00,1.19
7746.00,1.19
7745.00,1.19
7744.00,1.19
7743.00,1.18
7742.00,1.18
7741.00,1.18
7740.00,1.17
7739.00,1.17
7738.00,1.17
7737.00,1.16
7736.00,1.16
7735.00,1.15
7734.00,1.15
7733.00,1.14
7732.00,1.14
7731.00,1.14
7730.00,1.13
7729.00,1.13
7728.00,1.13
7727.00,1.12
7726.00,1.12
7725.00,1.12
7724.00,1.11
7723.00,1.11
7722.00,1.11
7721.00,1.10
7720.00,1.10
7719.00,1.10
7718.00,1.09
7717.00,1.09
7716.00,1.09
7715.00,1.09
7714.00,1.09
7713.00,1.09
7712.00,1.09
7711.00,1.09
7710.00,1.09
7709.00,1.09
7708.00,1.09
7707.00,1.09
7706.00,1.09
7705.00,1.09
7704.00,1.09
7703.00,1.09
7702.00,1.09
7701.00,1.09
7700.00,1.10
7699.00,1.10
7698.00,1.10
7697.00,1.10
7696.00,1.11
7695.00,1.11
7694.00,1.12
7693.00,1.12
7692.00,1.12
7691.00,1.13
7690.00,1.13
7689.00,1.14
7688.00,1.14
7687.00,1.15
7686.00,1.15
7685.00,1.16
7684.00,1.16
7683.00,1.17
7682.00,1.17
7681.00,1.17
7680.00,1.18
7679.00,1.18
7678.00,1.18
7677.00,1.18
7676.00,1.18
7675.00,1.18
7674.00,1.18
7673.00,1.18
7672.00,1.18
7671.00,1.18
7670.00,1.18
7669.00,1.18
7668.00,1.18
7667.00,1.18
7666.00,1.17
7665.00,1.17
7664.00,1.17
7663.00,1.17
7662.00,1.17
7661.00,1.16
7660.00,1.16
7659.00,1.16
7658.00,1.16
7657.00,1.16
7656.00,1.16
7655.00,1.15
7654.00,1.15
7653.00,1.15
7652.00,1.15
7651.00,1.15
7650.00,1.15
7649.00,1.15
7648.00,1.16
7647.00,1.16
7646.00,1.16
7645.00,1.16
7644.00,1.16
7643.00,1.16
7642.00,1.17
7641.00,1.17
7640.00,1.17
7639.00,1.17
7638.00,1.18
7637.00,1.18
7636.00,1.18
7635.00,1.18
7634.00,1.19
7633.00,1.19
7632.00,1.19
7631.00,1.19
7630.00,1.19
7629.00,1.19
7628.00,1.19
7627.00,1.20
7626.00,1.20
7625.00,1.20
7624.00,1.20
7623.00,1.20
7622.00,1.20
7621.00,1.20
7620.00,1.20
7619.00,1.20
7618.00,1.20
7617.00,1.20
7616.00,1.20
7615.00,1.19
7614.00,1.19
7613.00,1.19
7612.00,1.19
7611.00,1.18
7610.00,1.18
7609.00,1.18
7608.00,1.17
7607.00,1.17
7606.00,1.17
7605.00,1.16
7604.00,1.16
7603.00,1.15
7602.00,1.15
7601.00,1.14
7600.00,1.14
7599.00,1.14
7598.00,1.13
7597.00,1.13
7596.00,1.12
7595.00,1.12
7594.00,1.12
7593.00,1.11
7592.00,1.11
7591.00,1.11
7590.00,1.10
7589.00,1.10
7588.00,1.10
7587.00,1.09
7586.00,1.09
7585.00,1.09
7584.00,1.08
7583.00,1.08
7582.00,1.08
7581.00,1.08
7580.00,1.08
7579.00,1.07
7578.00,1.07
7577.00,1.07
7576.00,1.07
7575.00,1.07
7574.00,1.07
7573.00,1.07
7572.00,1.07
7571.00,1.07
7570.00,1.07
7569.00,1.07
7568.00,1.07
7567.00,1.07
7566.00,1.07
7565.00,1.07
7564.00,1.07
7563.00,1.07
7562.00,1.07
7561.00,1.07
7560.00,1.07
7559.00,1.07
7558.00,1.07
7557.00,1.07
7556.00,1.07
7555.00,1.08
7554.00,1.08
7553.00,1.08
7552.00,1.08
7551.00,1.08
7550.00,1.08
7549.00,1.08
7548.00,1.08
7547.00,1.08
7546.00,1.08
7545.00,1.08
7544.00,1.08
7543.00,1.08
7542.00,1.08
7541.00,1.08
7540.00,1.08
7539.00,1.08
7538.00,1.08
7537.00,1.08
7536.00,1.08
7535.00,1.08
7534.00,1.08
7533.00,1.08
7532.00,1.08
7531.00,1.09
7530.00,1.09
7529.00,1.09
7528.00,1.09
7527.00,1.09
7526.00,1.09
7525.00,1.09
7524.00,1.09
7523.00,1.10
7522.00,1.10
7521.00,1.10
7520.00,1.10
7519.00,1.11
7518.00,1.11
7517.00,1.11
7516.00,1.12
7515.00,1.12
7514.00,1.13
7513.00,1.13
7512.00,1.13
7511.00,1.14
7510.00,1.14
7509.00,1.14
7508.00,1.15
7507.00,1.15
7506.00,1.15
7505.00,1.15
7504.00,1.15
7503.00,1.15
7502.00,1.15
7501.00,1.15
7500.00,1.15
7499.00,1.15
7498.00,1.14
7497.00,1.14
7496.00,1.14
7495.00,1.14
7494.00,1.13
7493.00,1.13
7492.00,1.13
7491.00,1.12
7490.00,1.12
7489.00,1.11
7488.00,1.11
7487.00,1.11
7486.00,1.10
7485.00,1.10
7484.00,1.09
7483.00,1.09
7482.00,1.09
7481.00,1.08
7480.00,1.08
7479.00,1.08
7478.00,1.08
7477.00,1.08
7476.00,1.08
7475.00,1.08
7474.00,1.08
7473.00,1.08
7472.00,1.08
7471.00,1.08
7470.00,1.08
7469.00,1.08
7468.00,1.09
7467.00,1.09
7466.00,1.09
7465.00,1.09
7464.00,1.10
7463.00,1.10
7462.00,1.10
7461.00,1.10
7460.00,1.11
7459.00,1.11
7458.00,1.11
7457.00,1.11
7456.00,1.11
7455.00,1.12
7454.00,1.12
7453.00,1.12
7452.00,1.12
7451.00,1.12
7450.00,1.12
7449.00,1.12
7448.00,1.12
7447.00,1.12
7446.00,1.12
7445.00,1.12
7444.00,1.12
7443.00,1.12
7442.00,1.12
7441.00,1.12
7440.00,1.12
7439.00,1.11
7438.00,1.11
7437.00,1.11
7436.00,1.11
7435.00,1.10
7434.00,1.10
7433.00,1.10
7432.00,1.10
7431.00,1.09
7430.00,1.09
7429.00,1.09
7428.00,1.09
7427.00,1.09
7426.00,1.08
7425.00,1.08
7424.00,1.08
7423.00,1.08
7422.00,1.08
7421.00,1.08
7420.00,1.08
7419.00,1.08
7418.00,1.08
7417.00,1.08
7416.00,1.09
7415.00,1.09
7414.00,1.09
7413.00,1.09
7412.00,1.09
7411.00,1.09
7410.00,1.09
7409.00,1.09
7408.00,1.09
7407.00,1.09
7406.00,1.09
7405.00,1.09
7404.00,1.09
7403.00,1.09
7402.00,1.09
7401.00,1.09
7400.00,1.09
7399.00,1.09
7398.00,1.09
7397.00,1.09
7396.00,1.08
7395.00,1.08
7394.00,1.08
7393.00,1.07
7392.00,1.07
7391.00,1.06
7390.00,1.06
7389.00,1.05
7388.00,1.05
7387.00,1.05
7386.00,1.04
7385.00,1.04
7384.00,1.03
7383.00,1.03
7382.00,1.02
7381.00,1.02
7380.00,1.01
7379.00,1.01
7378.00,1.00
7377.00,1.00
7376.00,0.99
7375.00,0.99
7374.00,0.99
7373.00,0.98
7372.00,0.98
7371.00,0.98
7370.00,0.97
7369.00,0.97
7368.00,0.97
7367.00,0.97
7366.00,0.97
7365.00,0.96
7364.00,0.96
7363.00,0.96
7362.00,0.96
7361.00,0.96
7360.00,0.95
7359.00,0.95
7358.00,0.95
7357.00,0.95
7356.00,0.95
7355.00,0.95
7354.00,0.95
7353.00,0.96
7352.00,0.96
7351.00,0.96
7350.00,0.96
7349.00,0.96
7348.00,0.96
7347.00,0.96
7346.00,0.96
7345.00,0.96
7344.00,0.96
7343.00,0.96
7342.00,0.96
7341.00,0.96
7340.00,0.96
7339.00,0.96
7338.00,0.96
7337.00,0.97
7336.00,0.97
7335.00,0.97
7334.00,0.97
7333.00,0.97
7332.00,0.98
7331.00,0.98
7330.00,0.98
7329.00,0.98
7328.00,0.98
7327.00,0.99
7326.00,0.99
7325.00,0.99
7324.00,0.99
7323.00,0.99
7322.00,0.99
7321.00,0.99
7320.00,1.00
7319.00,1.00
7318.00,1.00
7317.00,1.00
7316.00,1.00
7315.00,1.00
7314.00,1.00
7313.00,1.00
7312.00,1.00
7311.00,1.00
7310.00,1.00
7309.00,1.00
7308.00,1.00
7307.00,1.00
7306.00,1.00
7305.00,1.00
7304.00,0.99
7303.00,0.99
7302.00,0.99
7301.00,0.99
7300.00,0.99
7299.00,0.99
7298.00,0.98
7297.00,0.98
7296.00,0.98
7295.00,0.98
7294.00,0.98
7293.00,0.97
7292.00,0.97
7291.00,0.97
7290.00,0.97
7289.00,0.97
7288.00,0.96
7287.00,0.96
7286.00,0.96
7285.00,0.96
7284.00,0.95
7283.00,0.95
7282.00,0.95
7281.00,0.94
7280.00,0.94
7279.00,0.94
7278.00,0.93
7277.00,0.93
7276.00,0.93
7275.00,0.92
7274.00,0.92
7273.00,0.92
7272.00,0.91
7271.00,0.91
7270.00,0.91
7269.00,0.90
7268.00,0.90
7267.00,0.90
7266.00,0.89
7265.00,0.89
7264.00,0.89
7263.00,0.88
7262.00,0.88
7261.00,0.88
7260.00,0.87
7259.00,0.87
7258.00,0.87
7257.00,0.87
7256.00,0.86
7255.00,0.86
7254.00,0.86
7253.00,0.86
7252.00,0.85
7251.00,0.85
7250.00,0.85
7249.00,0.85
7248.00,0.85
7247.00,0.84
7246.00,0.84
7245.00,0.84
7244.00,0.84
7243.00,0.84
7242.00,0.84
7241.00,0.83
7240.00,0.83
7239.00,0.83
7238.00,0.83
7237.00,0.82
7236.00,0.82
7235.00,0.82
7234.00,0.82
7233.00,0.81
7232.00,0.81
7231.00,0.81
7230.00,0.81
7229.00,0.80
7228.00,0.80
7227.00,0.80
7226.00,0.80
7225.00,0.79
7224.00,0.79
7223.00,0.79
7222.00,0.79
7221.00,0.78
7220.00,0.78
7219.00,0.78
7218.00,0.77
7217.00,0.77
7216.00,0.77
7215.00,0.76
7214.00,0.76
7213.00,0.75
7212.00,0.75
7211.00,0.75
7210.00,0.74
7209.00,0.74
7208.00,0.74
7207.00,0.74
7206.00,0.73
7205.00,0.73
7204.00,0.73
7203.00,0.73
7202.00,0.72
7201.00,0.72
7200.00,0.72
7199.00,0.72
7198.00,0.71
7197.00,0.71
7196.00,0.71
7195.00,0.71
7194.00,0.71
7193.00,0.70
7192.00,0.70
7191.00,0.70
7190.00,0.70
7189.00,0.70
7188.00,0.69
7187.00,0.69
7186.00,0.69
7185.00,0.69
7184.00,0.69
7183.00,0.69
7182.00,0.69
7181.00,0.68
7180.00,0.68
7179.00,0.68
7178.00,0.68
7177.00,0.67
7176.00,0.67
7175.00,0.66
7174.00,0.66
7173.00,0.66
7172.00,0.65
7171.00,0.65
7170.00,0.65
7169.00,0.64
7168.00,0.64
7167.00,0.64
7166.00,0.64
7165.00,0.63
7164.00,0.63
7163.00,0.63
7162.00,0.63
7161.00,0.62
7160.00,0.62
7159.00,0.62
7158.00,0.62
7157.00,0.62
7156.00,0.62
7155.00,0.61
7154.00,0.61
7153.00,0.61
7152.00,0.61
7151.00,0.61
7150.00,0.61
7149.00,0.61
7148.00,0.61
7147.00,0.61
7146.00,0.61
7145.00,0.61
7144.00,0.61
7143.00,0.61
7142.00,0.61
7141.00,0.60
7140.00,0.60
7139.00,0.60
7138.00,0.59
7137.00,0.59
7136.00,0.58
7135.00,0.58
7134.00,0.57
7133.00,0.57
7132.00,0.56
7131.00,0.56
7130.00,0.56
7129.00,0.55
7128.00,0.55
7127.00,0.54
7126.00,0.54
7125.00,0.53
7124.00,0.53
7123.00,0.52
7122.00,0.52
7121.00,0.51
7120.00,0.51
7119.00,0.50
7118.00,0.50
7117.00,0.49
7116.00,0.49
7115.00,0.49
7114.00,0.48
7113.00,0.48
7112.00,0.48
7111.00,0.48
7110.00,0.47
7109.00,0.47
7108.00,0.47
7107.00,0.47
7106.00,0.46
7105.00,0.46
7104.00,0.46
7103.00,0.46
7102.00,0.45
7101.00,0.45
7100.00,0.45
7099.00,0.45
7098.00,0.45
7097.00,0.45
7096.00,0.45
7095.00,0.45
7094.00,0.45
7093.00,0.45
7092.00,0.45
7091.00,0.45
7090.00,0.45
7089.00,0.45
7088.00,0.45
7087.00,0.46
7086.00,0.46
7085.00,0.46
7084.00,0.46
7083.00,0.47
7082.00,0.47
7081.00,0.48
7080.00,0.48
7079.00,0.49
7078.00,0.49
7077.00,0.49
7076.00,0.50
7075.00,0.50
7074.00,0.51
7073.00,0.51
7072.00,0.51
7071.00,0.52
7070.00,0.52
7069.00,0.52
7068.00,0.52
7067.00,0.53
7066.00,0.53
7065.00,0.53
7064.00,0.53
7063.00,0.53
7062.00,0.53
7061.00,0.53
7060.00,0.52
7059.00,0.52
7058.00,0.52
7057.00,0.52
7056.00,0.51
7055.00,0.51
7054.00,0.50
7053.00,0.50
7052.00,0.50
7051.00,0.49
7050.00,0.49
7049.00,0.49
7048.00,0.48
7047.00,0.48
7046.00,0.47
7045.00,0.47
7044.00,0.47
7043.00,0.46
7042.00,0.46
7041.00,0.46
7040.00,0.46
7039.00,0.45
7038.00,0.45
7037.00,0.45
7036.00,0.45
7035.00,0.44
7034.00,0.44
7033.00,0.44
7032.00,0.44
7031.00,0.44
7030.00,0.44
7029.00,0.44
7028.00,0.43
7027.00,0.43
7026.00,0.43
7025.00,0.43
7024.00,0.43
7023.00,0.43
7022.00,0.43
7021.00,0.43
7020.00,0.43
7019.00,0.43
7018.00,0.43
7017.00,0.43
7016.00,0.42
7015.00,0.42
7014.00,0.42
7013.00,0.42
7012.00,0.43
7011.00,0.43
7010.00,0.43
7009.00,0.43
7008.00,0.43
7007.00,0.43
7006.00,0.43
7005.00,0.43
7004.00,0.44
7003.00,0.44
7002.00,0.44
7001.00,0.44
7000.00,0.44
6999.00,0.44
6998.00,0.45
6997.00,0.45
6996.00,0.45
6995.00,0.45
6994.00,0.45
6993.00,0.46
6992.00,0.46
6991.00,0.46
6990.00,0.46
6989.00,0.46
6988.00,0.46
6987.00,0.46
6986.00,0.47
6985.00,0.47
6984.00,0.47
6983.00,0.47
6982.00,0.47
6981.00,0.47
6980.00,0.47
6979.00,0.47
6978.00,0.47
6977.00,0.47
6976.00,0.47
6975.00,0.46
6974.00,0.46
6973.00,0.46
6972.00,0.46
6971.00,0.46
6970.00,0.46
6969.00,0.46
6968.00,0.46
6967.00,0.46
6966.00,0.46
6965.00,0.46
6964.00,0.46
6963.00,0.46
6962.00,0.46
6961.00,0.46
6960.00,0.46
6959.00,0.46
6958.00,0.46
6957.00,0.46
6956.00,0.46
6955.00,0.46
6954.00,0.46
6953.00,0.46
6952.00,0.47
6951.00,0.47
6950.00,0.47
6949.00,0.47
6948.00,0.47
6947.00,0.47
6946.00,0.47
6945.00,0.47
6944.00,0.47
6943.00,0.48
6942.00,0.48
6941.00,0.48
6940.00,0.48
6939.00,0.48
6938.00,0.48
6937.00,0.48
6936.00,0.48
6935.00,0.48
6934.00,0.48
6933.00,0.48
6932.00,0.48
6931.00,0.48
6930.00,0.48
6929.00,0.48
6928.00,0.48
6927.00,0.47
6926.00,0.47
6925.00,0.47
6924.00,0.47
6923.00,0.47
6922.00,0.47
6921.00,0.46
6920.00,0.46
6919.00,0.46
6918.00,0.46
6917.00,0.46
6916.00,0.45
6915.00,0.45
6914.00,0.45
6913.00,0.45
6912.00,0.44
6911.00,0.44
6910.00,0.44
6909.00,0.44
6908.00,0.44
6907.00,0.44
6906.00,0.44
6905.00,0.44
6904.00,0.44
6903.00,0.45
6902.00,0.45
6901.00,0.45
6900.00,0.45
6899.00,0.45
6898.00,0.46
6897.00,0.46
6896.00,0.46
6895.00,0.46
6894.00,0.46
6893.00,0.47
6892.00,0.47
6891.00,0.47
6890.00,0.47
6889.00,0.48
6888.00,0.48
6887.00,0.48
6886.00,0.48
6885.00,0.48
6884.00,0.49
6883.00,0.49
6882.00,0.49
6881.00,0.49
6880.00,0.49
6879.00,0.49
6878.00,0.49
6877.00,0.49
6876.00,0.49
6875.00,0.49
6874.00,0.49
6873.00,0.49
6872.00,0.49
6871.00,0.49
6870.00,0.49
6869.00,0.49
6868.00,0.49
6867.00,0.49
6866.00,0.49
6865.00,0.49
6864.00,0.49
6863.00,0.49
6862.00,0.49
6861.00,0.49
6860.00,0.49
6859.00,0.49
6858.00,0.49
6857.00,0.49
6856.00,0.49
6855.00,0.49
6854.00,0.48
6853.00,0.48
6852.00,0.48
6851.00,0.48
6850.00,0.48
6849.00,0.48
6848.00,0.48
6847.00,0.48
6846.00,0.47
6845.00,0.47
6844.00,0.47
6843.00,0.47
6842.00,0.47
6841.00,0.47
6840.00,0.46
6839.00,0.46
6838.00,0.46
6837.00,0.46
6836.00,0.46
6835.00,0.46
6834.00,0.46
6833.00,0.46
6832.00,0.46
6831.00,0.46
6830.00,0.45
6829.00,0.45
6828.00,0.45
6827.00,0.45
6826.00,0.45
6825.00,0.45
6824.00,0.46
6823.00,0.46
6822.00,0.46
6821.00,0.46
6820.00,0.46
6819.00,0.46
6818.00,0.46
6817.00,0.46
6816.00,0.46
6815.00,0.47
6814.00,0.47
6813.00,0.47
6812.00,0.47
6811.00,0.47
6810.00,0.48
6809.00,0.48
6808.00,0.48
6807.00,0.48
6806.00,0.48
6805.00,0.49
6804.00,0.49
6803.00,0.49
6802.00,0.49
6801.00,0.49
6800.00,0.49
6799.00,0.49
6798.00,0.49
6797.00,0.49
6796.00,0.50
6795.00,0.50
6794.00,0.50
6793.00,0.50
6792.00,0.50
6791.00,0.50
6790.00,0.50
6789.00,0.50
6788.00,0.50
6787.00,0.50
6786.00,0.50
6785.00,0.50
6784.00,0.50
6783.00,0.50
6782.00,0.50
6781.00,0.50
6780.00,0.50
6779.00,0.50
6778.00,0.50
6777.00,0.50
6776.00,0.50
6775.00,0.50
6774.00,0.50
6773.00,0.50
6772.00,0.50
6771.00,0.50
6770.00,0.49
6769.00,0.49
6768.00,0.49
6767.00,0.49
6766.00,0.49
6765.00,0.49
6764.00,0.50
6763.00,0.50
6762.00,0.50
6761.00,0.50
6760.00,0.50
6759.00,0.50
6758.00,0.50
6757.00,0.51
6756.00,0.51
6755.00,0.51
6754.00,0.51
6753.00,0.51
6752.00,0.51
6751.00,0.51
6750.00,0.51
6749.00,0.52
6748.00,0.52
6747.00,0.52
6746.00,0.52
6745.00,0.52
6744.00,0.52
6743.00,0.52
6742.00,0.52
6741.00,0.52
6740.00,0.52
6739.00,0.52
6738.00,0.52
6737.00,0.52
6736.00,0.52
6735.00,0.52
6734.00,0.52
6733.00,0.52
6732.00,0.52
6731.00,0.51
6730.00,0.51
6729.00,0.51
6728.00,0.51
6727.00,0.51
6726.00,0.51
6725.00,0.50
6724.00,0.50
6723.00,0.50
6722.00,0.50
6721.00,0.50
6720.00,0.50
6719.00,0.50
6718.00,0.50
6717.00,0.50
6716.00,0.50
6715.00,0.50
6714.00,0.50
6713.00,0.50
6712.00,0.49
6711.00,0.49
6710.00,0.49
6709.00,0.49
6708.00,0.49
6707.00,0.49
6706.00,0.49
6705.00,0.49
6704.00,0.49
6703.00,0.49
6702.00,0.50
6701.00,0.50
6700.00,0.50
6699.00,0.50
6698.00,0.50
6697.00,0.50
6696.00,0.50
6695.00,0.50
6694.00,0.50
6693.00,0.50
6692.00,0.50
6691.00,0.50
6690.00,0.50
6689.00,0.50
6688.00,0.50
6687.00,0.50
6686.00,0.50
6685.00,0.50
6684.00,0.50
6683.00,0.50
6682.00,0.50
6681.00,0.50
6680.00,0.50
6679.00,0.50
6678.00,0.50
6677.00,0.50
6676.00,0.50
6675.00,0.50
6674.00,0.51
6673.00,0.51
6672.00,0.51
6671.00,0.51
6670.00,0.51
6669.00,0.51
6668.00,0.51
6667.00,0.51
6666.00,0.51
6665.00,0.51
6664.00,0.51
6663.00,0.52
6662.00,0.52
6661.00,0.52
6660.00,0.52
6659.00,0.52
6658.00,0.52
6657.00,0.52
6656.00,0.52
6655.00,0.52
6654.00,0.52
6653.00,0.52
6652.00,0.51
6651.00,0.51
6650.00,0.51
6649.00,0.51
6648.00,0.51
6647.00,0.50
6646.00,0.50
6645.00,0.50
6644.00,0.50
6643.00,0.50
6642.00,0.49
6641.00,0.49
6640.00,0.49
6639.00,0.49
6638.00,0.49
6637.00,0.49
6636.00,0.49
6635.00,0.49
6634.00,0.49
6633.00,0.49
6632.00,0.49
6631.00,0.49
6630.00,0.49
6629.00,0.49
6628.00,0.49
6627.00,0.49
6626.00,0.49
6625.00,0.50
6624.00,0.50
6623.00,0.50
6622.00,0.50
6621.00,0.51
6620.00,0.51
6619.00,0.51
6618.00,0.52
6617.00,0.52
6616.00,0.52
6615.00,0.52
6614.00,0.53
6613.00,0.53
6612.00,0.53
6611.00,0.53
6610.00,0.53
6609.00,0.54
6608.00,0.54
6607.00,0.54
6606.00,0.54
6605.00,0.54
6604.00,0.55
6603.00,0.55
6602.00,0.55
6601.00,0.55
6600.00,0.55
6599.00,0.55
6598.00,0.56
6597.00,0.56
6596.00,0.56
6595.00,0.56
6594.00,0.56
6593.00,0.56
6592.00,0.56
6591.00,0.56
6590.00,0.56
6589.00,0.57
6588.00,0.57
6587.00,0.57
6586.00,0.57
6585.00,0.57
6584.00,0.57
6583.00,0.57
6582.00,0.57
6581.00,0.57
6580.00,0.57
6579.00,0.57
6578.00,0.57
6577.00,0.57
6576.00,0.57
6575.00,0.57
6574.00,0.57
6573.00,0.58
6572.00,0.58
6571.00,0.58
6570.00,0.58
6569.00,0.58
6568.00,0.58
6567.00,0.58
6566.00,0.58
6565.00,0.58
6564.00,0.58
6563.00,0.58
6562.00,0.58
6561.00,0.58
6560.00,0.58
6559.00,0.58
6558.00,0.58
6557.00,0.58
6556.00,0.58
6555.00,0.58
6554.00,0.58
6553.00,0.58
6552.00,0.58
6551.00,0.58
6550.00,0.58
6549.00,0.58
6548.00,0.58
6547.00,0.58
6546.00,0.58
6545.00,0.58
6544.00,0.58
6543.00,0.58
6542.00,0.58
6541.00,0.58
6540.00,0.59
6539.00,0.59
6538.00,0.59
6537.00,0.59
6536.00,0.59
6535.00,0.59
6534.00,0.59
6533.00,0.59
6532.00,0.59
6531.00,0.60
6530.00,0.60
6529.00,0.60
6528.00,0.60
6527.00,0.60
6526.00,0.60
6525.00,0.61
6524.00,0.61
6523.00,0.61
6522.00,0.61
6521.00,0.61
6520.00,0.61
6519.00,0.62
6518.00,0.62
6517.00,0.62
6516.00,0.62
6515.00,0.62
6514.00,0.62
6513.00,0.62
6512.00,0.62
6511.00,0.63
6510.00,0.63
6509.00,0.63
6508.00,0.63
6507.00,0.63
6506.00,0.63
6505.00,0.63
6504.00,0.63
6503.00,0.63
6502.00,0.62
6501.00,0.62
6500.00,0.62
6499.00,0.62
6498.00,0.62
6497.00,0.62
6496.00,0.62
6495.00,0.61
6494.00,0.61
6493.00,0.61
6492.00,0.61
6491.00,0.61
6490.00,0.60
6489.00,0.60
6488.00,0.60
6487.00,0.60
6486.00,0.60
6485.00,0.60
6484.00,0.60
6483.00,0.60
6482.00,0.60
6481.00,0.60
6480.00,0.59
6479.00,0.59
6478.00,0.59
6477.00,0.59
6476.00,0.59
6475.00,0.59
6474.00,0.59
6473.00,0.59
6472.00,0.59
6471.00,0.59
6470.00,0.60
6469.00,0.60
6468.00,0.60
6467.00,0.60
6466.00,0.60
6465.00,0.60
6464.00,0.60
6463.00,0.60
6462.00,0.60
6461.00,0.60
6460.00,0.60
6459.00,0.60
6458.00,0.60
6457.00,0.60
6456.00,0.60
6455.00,0.60
6454.00,0.60
6453.00,0.61
6452.00,0.61
6451.00,0.61
6450.00,0.61
6449.00,0.61
6448.00,0.61
6447.00,0.61
6446.00,0.61
6445.00,0.61
6444.00,0.61
6443.00,0.61
6442.00,0.61
6441.00,0.61
6440.00,0.61
6439.00,0.61
6438.00,0.61
6437.00,0.61
6436.00,0.61
6435.00,0.61
6434.00,0.61
6433.00,0.61
6432.00,0.62
6431.00,0.62
6430.00,0.62
6429.00,0.62
6428.00,0.63
6427.00,0.63
6426.00,0.63
6425.00,0.63
6424.00,0.64
6423.00,0.64
6422.00,0.64
6421.00,0.65
6420.00,0.65
6419.00,0.65
6418.00,0.65
6417.00,0.65
6416.00,0.66
6415.00,0.66
6414.00,0.66
6413.00,0.66
6412.00,0.67
6411.00,0.67
6410.00,0.67
6409.00,0.68
6408.00,0.68
6407.00,0.68
6406.00,0.68
6405.00,0.69
6404.00,0.69
6403.00,0.69
6402.00,0.69
6401.00,0.69
6400.00,0.69
6399.00,0.69
6398.00,0.69
6397.00,0.69
6396.00,0.69
6395.00,0.68
6394.00,0.68
6393.00,0.68
6392.00,0.68
6391.00,0.68
6390.00,0.68
6389.00,0.67
6388.00,0.67
6387.00,0.67
6386.00,0.67
6385.00,0.66
6384.00,0.66
6383.00,0.66
6382.00,0.65
6381.00,0.65
6380.00,0.64
6379.00,0.64
6378.00,0.64
6377.00,0.63
6376.00,0.63
6375.00,0.63
6374.00,0.63
6373.00,0.62
6372.00,0.62
6371.00,0.62
6370.00,0.62
6369.00,0.63
6368.00,0.63
6367.00,0.63
6366.00,0.63
6365.00,0.63
6364.00,0.63
6363.00,0.64
6362.00,0.64
6361.00,0.64
6360.00,0.64
6359.00,0.65
6358.00,0.65
6357.00,0.65
6356.00,0.66
6355.00,0.66
6354.00,0.67
6353.00,0.67
6352.00,0.67
6351.00,0.68
6350.00,0.68
6349.00,0.69
6348.00,0.69
6347.00,0.69
6346.00,0.69
6345.00,0.70
6344.00,0.70
6343.00,0.70
6342.00,0.70
6341.00,0.71
6340.00,0.71
6339.00,0.71
6338.00,0.71
6337.00,0.71
6336.00,0.71
6335.00,0.71
6334.00,0.71
6333.00,0.71
6332.00,0.71
6331.00,0.72
6330.00,0.72
6329.00,0.72
6328.00,0.72
6327.00,0.72
6326.00,0.72
6325.00,0.72
6324.00,0.72
6323.00,0.72
6322.00,0.72
6321.00,0.72
6320.00,0.72
6319.00,0.72
6318.00,0.72
6317.00,0.72
6316.00,0.72
6315.00,0.72
6314.00,0.72
6313.00,0.72
6312.00,0.72
6311.00,0.72
6310.00,0.72
6309.00,0.72
6308.00,0.72
6307.00,0.72
6306.00,0.72
6305.00,0.72
6304.00,0.72
6303.00,0.72
6302.00,0.72
6301.00,0.72
6300.00,0.72
6299.00,0.72
6298.00,0.72
6297.00,0.72
6296.00,0.72
6295.00,0.72
6294.00,0.72
6293.00,0.72
6292.00,0.72
6291.00,0.72
6290.00,0.72
6289.00,0.73
6288.00,0.73
6287.00,0.73
6286.00,0.73
6285.00,0.73
6284.00,0.73
6283.00,0.73
6282.00,0.74
6281.00,0.74
6280.00,0.74
6279.00,0.74
6278.00,0.74
6277.00,0.74
6276.00,0.74
6275.00,0.74
6274.00,0.74
6273.00,0.74
6272.00,0.74
6271.00,0.74
6270.00,0.74
6269.00,0.74
6268.00,0.73
6267.00,0.73
6266.00,0.73
6265.00,0.73
6264.00,0.73
6263.00,0.73
6262.00,0.73
6261.00,0.73
6260.00,0.73
6259.00,0.73
6258.00,0.73
6257.00,0.73
6256.00,0.73
6255.00,0.73
6254.00,0.73
6253.00,0.73
6252.00,0.73
6251.00,0.73
6250.00,0.73
6249.00,0.73
6248.00,0.73
6247.00,0.73
6246.00,0.73
6245.00,0.73
6244.00,0.73
6243.00,0.74
6242.00,0.74
6241.00,0.74
6240.00,0.74
6239.00,0.74
6238.00,0.74
6237.00,0.74
6236.00,0.75
6235.00,0.75
6234.00,0.75
6233.00,0.75
6232.00,0.75
6231.00,0.75
6230.00,0.75
6229.00,0.75
6228.00,0.76
6227.00,0.76
6226.00,0.76
6225.00,0.76
6224.00,0.76
6223.00,0.76
6222.00,0.76
6221.00,0.77
6220.00,0.77
6219.00,0.77
6218.00,0.77
6217.00,0.77
6216.00,0.78
6215.00,0.78
6214.00,0.78
6213.00,0.78
6212.00,0.78
6211.00,0.78
6210.00,0.79
6209.00,0.79
6208.00,0.79
6207.00,0.79
6206.00,0.80
6205.00,0.80
6204.00,0.80
6203.00,0.80
6202.00,0.80
6201.00,0.81
6200.00,0.81
6199.00,0.81
6198.00,0.81
6197.00,0.81
6196.00,0.82
6195.00,0.82
6194.00,0.82
6193.00,0.82
6192.00,0.82
6191.00,0.82
6190.00,0.82
6189.00,0.82
6188.00,0.82
6187.00,0.82
6186.00,0.82
6185.00,0.82
6184.00,0.82
6183.00,0.82
6182.00,0.82
6181.00,0.82
6180.00,0.81
6179.00,0.81
6178.00,0.81
6177.00,0.81
6176.00,0.81
6175.00,0.81
6174.00,0.81
6173.00,0.81
6172.00,0.81
6171.00,0.81
6170.00,0.81
6169.00,0.81
6168.00,0.81
6167.00,0.81
6166.00,0.81
6165.00,0.81
6164.00,0.81
6163.00,0.81
6162.00,0.81
6161.00,0.82
6160.00,0.82
6159.00,0.82
6158.00,0.82
6157.00,0.83
6156.00,0.83
6155.00,0.83
6154.00,0.83
6153.00,0.83
6152.00,0.84
6151.00,0.84
6150.00,0.84
6149.00,0.84
6148.00,0.85
6147.00,0.85
6146.00,0.85
6145.00,0.85
6144.00,0.86
6143.00,0.86
6142.00,0.86
6141.00,0.86
6140.00,0.87
6139.00,0.87
6138.00,0.87
6137.00,0.87
6136.00,0.87
6135.00,0.87
6134.00,0.87
6133.00,0.88
6132.00,0.88
6131.00,0.88
6130.00,0.88
6129.00,0.88
6128.00,0.88
6127.00,0.89
6126.00,0.89
6125.00,0.89
6124.00,0.89
6123.00,0.89
6122.00,0.89
6121.00,0.89
6120.00,0.90
6119.00,0.90
6118.00,0.90
6117.00,0.90
6116.00,0.90
6115.00,0.90
6114.00,0.91
6113.00,0.91
6112.00,0.91
6111.00,0.91
6110.00,0.91
6109.00,0.91
6108.00,0.91
6107.00,0.91
6106.00,0.90
6105.00,0.90
6104.00,0.90
6103.00,0.90
6102.00,0.90
6101.00,0.90
6100.00,0.90
6099.00,0.90
6098.00,0.90
6097.00,0.90
6096.00,0.90
6095.00,0.90
6094.00,0.90
6093.00,0.90
6092.00,0.90
6091.00,0.90
6090.00,0.90
6089.00,0.90
6088.00,0.90
6087.00,0.90
6086.00,0.90
6085.00,0.91
6084.00,0.91
6083.00,0.91
6082.00,0.91
6081.00,0.92
6080.00,0.92
6079.00,0.92
6078.00,0.93
6077.00,0.93
6076.00,0.94
6075.00,0.94
6074.00,0.94
6073.00,0.95
6072.00,0.95
6071.00,0.95
6070.00,0.96
6069.00,0.96
6068.00,0.96
6067.00,0.97
6066.00,0.97
6065.00,0.97
6064.00,0.98
6063.00,0.98
6062.00,0.98
6061.00,0.98
6060.00,0.98
6059.00,0.99
6058.00,0.99
6057.00,0.99
6056.00,0.99
6055.00,0.99
6054.00,0.99
6053.00,0.99
6052.00,0.99
6051.00,0.99
6050.00,0.99
6049.00,0.99
6048.00,0.99
6047.00,0.99
6046.00,0.99
6045.00,0.99
6044.00,0.99
6043.00,0.99
6042.00,0.99
6041.00,0.99
6040.00,0.99
6039.00,0.99
6038.00,0.99
6037.00,0.99
6036.00,0.99
6035.00,0.99
6034.00,0.99
6033.00,0.99
6032.00,0.98
6031.00,0.98
6030.00,0.98
6029.00,0.98
6028.00,0.98
6027.00,0.97
6026.00,0.97
6025.00,0.97
6024.00,0.97
6023.00,0.97
6022.00,0.96
6021.00,0.96
6020.00,0.96
6019.00,0.96
6018.00,0.96
6017.00,0.96
6016.00,0.95
6015.00,0.95
6014.00,0.95
6013.00,0.95
6012.00,0.95
6011.00,0.95
6010.00,0.95
6009.00,0.95
6008.00,0.96
6007.00,0.96
6006.00,0.96
6005.00,0.96
6004.00,0.96
6003.00,0.97
6002.00,0.97
6001.00,0.97
6000.00,0.97
5999.00,0.98
5998.00,0.98
5997.00,0.98
5996.00,0.98
5995.00,0.98
5994.00,0.98
5993.00,0.99
5992.00,0.99
5991.00,0.99
5990.00,0.99
5989.00,0.99
5988.00,0.99
5987.00,0.99
5986.00,0.99
5985.00,0.99
5984.00,0.98
5983.00,0.98
5982.00,0.98
5981.00,0.98
5980.00,0.97
5979.00,0.97
5978.00,0.97
5977.00,0.96
5976.00,0.96
5975.00,0.95
5974.00,0.94
5973.00,0.94
5972.00,0.93
5971.00,0.93
5970.00,0.92
5969.00,0.91
5968.00,0.91
5967.00,0.90
5966.00,0.90
5965.00,0.89
5964.00,0.88
5963.00,0.88
5962.00,0.87
5961.00,0.86
5960.00,0.85
5959.00,0.85
5958.00,0.84
5957.00,0.83
5956.00,0.82
5955.00,0.82
5954.00,0.81
5953.00,0.81
5952.00,0.80
5951.00,0.79
5950.00,0.79
5949.00,0.78
5948.00,0.78
5947.00,0.77
5946.00,0.77
5945.00,0.76
5944.00,0.76
5943.00,0.76
5942.00,0.75
5941.00,0.75
5940.00,0.75
5939.00,0.74
5938.00,0.74
5937.00,0.74
5936.00,0.74
5935.00,0.74
5934.00,0.74
5933.00,0.74
5932.00,0.74
5931.00,0.74
5930.00,0.74
5929.00,0.74
5928.00,0.74
5927.00,0.75
5926.00,0.75
5925.00,0.75
5924.00,0.75
5923.00,0.75
5922.00,0.75
5921.00,0.76
5920.00,0.76
5919.00,0.76
5918.00,0.76
5917.00,0.76
5916.00,0.77
5915.00,0.77
5914.00,0.77
5913.00,0.77
5912.00,0.77
5911.00,0.77
5910.00,0.77
5909.00,0.77
5908.00,0.77
5907.00,0.77
5906.00,0.77
5905.00,0.77
5904.00,0.77
5903.00,0.76
5902.00,0.76
5901.00,0.76
5900.00,0.76
5899.00,0.76
5898.00,0.76
5897.00,0.76
5896.00,0.76
5895.00,0.76
5894.00,0.76
5893.00,0.76
5892.00,0.76
5891.00,0.76
5890.00,0.76
5889.00,0.76
5888.00,0.76
5887.00,0.76
5886.00,0.76
5885.00,0.76
5884.00,0.76
5883.00,0.76
5882.00,0.76
5881.00,0.76
5880.00,0.76
5879.00,0.77
5878.00,0.77
5877.00,0.77
5876.00,0.77
5875.00,0.77
5874.00,0.77
5873.00,0.77
5872.00,0.78
5871.00,0.78
5870.00,0.78
5869.00,0.78
5868.00,0.78
5867.00,0.78
5866.00,0.78
5865.00,0.79
5864.00,0.79
5863.00,0.79
5862.00,0.79
5861.00,0.79
5860.00,0.79
5859.00,0.79
5858.00,0.79
5857.00,0.79
5856.00,0.79
5855.00,0.79
5854.00,0.80
5853.00,0.80
5852.00,0.80
5851.00,0.80
5850.00,0.80
5849.00,0.80
5848.00,0.80
5847.00,0.80
5846.00,0.80
5845.00,0.80
5844.00,0.80
5843.00,0.80
5842.00,0.80
5841.00,0.80
5840.00,0.80
5839.00,0.80
5838.00,0.80
5837.00,0.80
5836.00,0.80
5835.00,0.80
5834.00,0.80
5833.00,0.80
5832.00,0.80
5831.00,0.80
5830.00,0.80
5829.00,0.80
5828.00,0.80
5827.00,0.81
5826.00,0.81
5825.00,0.81
5824.00,0.81
5823.00,0.81
5822.00,0.81
5821.00,0.81
5820.00,0.81
5819.00,0.81
5818.00,0.81
5817.00,0.82
5816.00,0.82
5815.00,0.82
5814.00,0.82
5813.00,0.82
5812.00,0.82
5811.00,0.82
5810.00,0.82
5809.00,0.82
5808.00,0.82
5807.00,0.82
5806.00,0.82
5805.00,0.82
5804.00,0.82
5803.00,0.82
5802.00,0.83
5801.00,0.83
5800.00,0.83
5799.00,0.83
5798.00,0.83
5797.00,0.83
5796.00,0.83
5795.00,0.83
5794.00,0.83
5793.00,0.83
5792.00,0.83
5791.00,0.83
5790.00,0.83
5789.00,0.83
5788.00,0.83
5787.00,0.83
5786.00,0.83
5785.00,0.83
5784.00,0.83
5783.00,0.83
5782.00,0.83
5781.00,0.83
5780.00,0.83
5779.00,0.83
5778.00,0.83
5777.00,0.82
5776.00,0.82
5775.00,0.82
5774.00,0.82
5773.00,0.82
5772.00,0.82
5771.00,0.81
5770.00,0.81
5769.00,0.81
5768.00,0.81
5767.00,0.81
5766.00,0.81
5765.00,0.80
5764.00,0.80
5763.00,0.80
5762.00,0.80
5761.00,0.80
5760.00,0.80
5759.00,0.80
5758.00,0.80
5757.00,0.80
5756.00,0.80
5755.00,0.80
5754.00,0.80
5753.00,0.80
5752.00,0.80
5751.00,0.80
5750.00,0.80
5749.00,0.81
5748.00,0.81
5747.00,0.81
5746.00,0.81
5745.00,0.81
5744.00,0.82
5743.00,0.82
5742.00,0.82
5741.00,0.82
5740.00,0.83
5739.00,0.83
5738.00,0.83
5737.00,0.83
5736.00,0.84
5735.00,0.84
5734.00,0.84
5733.00,0.84
5732.00,0.85
5731.00,0.85
5730.00,0.85
5729.00,0.85
5728.00,0.85
5727.00,0.85
5726.00,0.85
5725.00,0.86
5724.00,0.86
5723.00,0.86
5722.00,0.86
5721.00,0.86
5720.00,0.86
5719.00,0.86
5718.00,0.87
5717.00,0.87
5716.00,0.87
5715.00,0.87
5714.00,0.87
5713.00,0.87
5712.00,0.87
5711.00,0.87
5710.00,0.87
5709.00,0.87
5708.00,0.87
5707.00,0.87
5706.00,0.87
5705.00,0.87
5704.00,0.87
5703.00,0.87
5702.00,0.87
5701.00,0.87
5700.00,0.87
5699.00,0.87
5698.00,0.87
5697.00,0.87
5696.00,0.87
5695.00,0.87
5694.00,0.87
5693.00,0.87
5692.00,0.86
5691.00,0.86
5690.00,0.86
5689.00,0.86
5688.00,0.86
5687.00,0.86
5686.00,0.86
5685.00,0.85
5684.00,0.85
5683.00,0.85
5682.00,0.85
5681.00,0.85
5680.00,0.85
5679.00,0.85
5678.00,0.85
5677.00,0.84
5676.00,0.84
5675.00,0.84
5674.00,0.84
5673.00,0.84
5672.00,0.84
5671.00,0.84
5670.00,0.84
5669.00,0.84
5668.00,0.84
5667.00,0.84
5666.00,0.84
5665.00,0.84
5664.00,0.84
5663.00,0.84
5662.00,0.84
5661.00,0.84
5660.00,0.84
5659.00,0.84
5658.00,0.84
5657.00,0.84
5656.00,0.84
5655.00,0.84
5654.00,0.84
5653.00,0.84
5652.00,0.84
5651.00,0.84
5650.00,0.84
5649.00,0.85
5648.00,0.85
5647.00,0.85
5646.00,0.85
5645.00,0.85
5644.00,0.85
5643.00,0.85
5642.00,0.85
5641.00,0.86
5640.00,0.86
5639.00,0.86
5638.00,0.86
5637.00,0.86
5636.00,0.86
5635.00,0.86
5634.00,0.87
5633.00,0.87
5632.00,0.87
5631.00,0.87
5630.00,0.87
5629.00,0.87
5628.00,0.88
5627.00,0.88
5626.00,0.88
5625.00,0.88
5624.00,0.88
5623.00,0.89
5622.00,0.89
5621.00,0.89
5620.00,0.89
5619.00,0.90
5618.00,0.90
5617.00,0.90
5616.00,0.91
5615.00,0.91
5614.00,0.91
5613.00,0.91
5612.00,0.92
5611.00,0.92
5610.00,0.92
5609.00,0.93
5608.00,0.93
5607.00,0.93
5606.00,0.93
5605.00,0.94
5604.00,0.94
5603.00,0.94
5602.00,0.95
5601.00,0.95
5600.00,0.95
5599.00,0.95
5598.00,0.95
5597.00,0.95
5596.00,0.95
5595.00,0.95
5594.00,0.95
5593.00,0.96
5592.00,0.96
5591.00,0.96
5590.00,0.95
5589.00,0.95
5588.00,0.95
5587.00,0.95
5586.00,0.95
5585.00,0.95
5584.00,0.95
5583.00,0.95
5582.00,0.95
5581.00,0.95
5580.00,0.95
5579.00,0.95
5578.00,0.95
5577.00,0.95
5576.00,0.95
5575.00,0.95
5574.00,0.95
5573.00,0.95
5572.00,0.95
5571.00,0.95
5570.00,0.95
5569.00,0.95
5568.00,0.95
5567.00,0.95
5566.00,0.95
5565.00,0.95
5564.00,0.95
5563.00,0.96
5562.00,0.96
5561.00,0.96
5560.00,0.96
5559.00,0.97
5558.00,0.97
5557.00,0.97
5556.00,0.98
5555.00,0.98
5554.00,0.98
5553.00,0.99
5552.00,0.99
5551.00,0.99
5550.00,1.00
5549.00,1.00
5548.00,1.00
5547.00,1.01
5546.00,1.01
5545.00,1.02
5544.00,1.02
5543.00,1.02
5542.00,1.03
5541.00,1.03
5540.00,1.03
5539.00,1.04
5538.00,1.04
5537.00,1.04
5536.00,1.04
5535.00,1.05
5534.00,1.05
5533.00,1.05
5532.00,1.06
5531.00,1.06
5530.00,1.06
5529.00,1.06
5528.00,1.06
5527.00,1.07
5526.00,1.07
5525.00,1.07
5524.00,1.07
5523.00,1.07
5522.00,1.07
5521.00,1.07
5520.00,1.07
5519.00,1.07
5518.00,1.07
5517.00,1.07
5516.00,1.07
5515.00,1.07
5514.00,1.07
5513.00,1.07
5512.00,1.07
5511.00,1.07
5510.00,1.07
5509.00,1.06
5508.00,1.06
5507.00,1.06
5506.00,1.06
5505.00,1.06
5504.00,1.06
5503.00,1.05
5502.00,1.05
5501.00,1.05
5500.00,1.05
5499.00,1.05
5498.00,1.05
5497.00,1.04
5496.00,1.04
5495.00,1.04
5494.00,1.04
5493.00,1.04
5492.00,1.04
5491.00,1.04
5490.00,1.04
5489.00,1.04
5488.00,1.04
5487.00,1.04
5486.00,1.04
5485.00,1.04
5484.00,1.04
5483.00,1.05
5482.00,1.05
5481.00,1.05
5480.00,1.05
5479.00,1.05
5478.00,1.05
5477.00,1.05
5476.00,1.05
5475.00,1.05
5474.00,1.06
5473.00,1.06
5472.00,1.06
5471.00,1.06
5470.00,1.06
5469.00,1.06
5468.00,1.06
5467.00,1.06
5466.00,1.06
5465.00,1.06
5464.00,1.06
5463.00,1.06
5462.00,1.06
5461.00,1.06
5460.00,1.06
5459.00,1.06
5458.00,1.06
5457.00,1.06
5456.00,1.06
5455.00,1.06
5454.00,1.06
5453.00,1.06
5452.00,1.06
5451.00,1.06
5450.00,1.06
5449.00,1.06
5448.00,1.06
5447.00,1.06
5446.00,1.06
5445.00,1.06
5444.00,1.06
5443.00,1.06
5442.00,1.07
5441.00,1.07
5440.00,1.07
5439.00,1.07
5438.00,1.07
5437.00,1.07
5436.00,1.07
5435.00,1.07
5434.00,1.07
5433.00,1.08
5432.00,1.08
5431.00,1.08
5430.00,1.08
5429.00,1.08
5428.00,1.07
5427.00,1.07
5426.00,1.07
5425.00,1.07
5424.00,1.07
5423.00,1.07
5422.00,1.07
5421.00,1.07
5420.00,1.07
5419.00,1.07
5418.00,1.06
5417.00,1.06
5416.00,1.06
5415.00,1.06
5414.00,1.06
5413.00,1.06
5412.00,1.06
5411.00,1.05
5410.00,1.05
5409.00,1.05
5408.00,1.05
5407.00,1.05
5406.00,1.05
5405.00,1.04
5404.00,1.04
5403.00,1.04
5402.00,1.04
5401.00,1.04
5400.00,1.04
5399.00,1.04
5398.00,1.03
5397.00,1.03
5396.00,1.03
5395.00,1.03
5394.00,1.03
5393.00,1.03
5392.00,1.03
5391.00,1.03
5390.00,1.03
5389.00,1.03
5388.00,1.02
5387.00,1.02
5386.00,1.02
5385.00,1.02
5384.00,1.02
5383.00,1.02
5382.00,1.02
5381.00,1.01
5380.00,1.01
5379.00,1.01
5378.00,1.01
5377.00,1.01
5376.00,1.00
5375.00,1.00
5374.00,1.00
5373.00,0.99
5372.00,0.99
5371.00,0.99
5370.00,0.98
5369.00,0.98
5368.00,0.97
5367.00,0.96
5366.00,0.96
5365.00,0.95
5364.00,0.94
5363.00,0.94
5362.00,0.93
5361.00,0.92
5360.00,0.91
5359.00,0.90
5358.00,0.90
5357.00,0.89
5356.00,0.88
5355.00,0.87
5354.00,0.87
5353.00,0.86
5352.00,0.85
5351.00,0.84
5350.00,0.83
5349.00,0.83
5348.00,0.82
5347.00,0.81
5346.00,0.80
5345.00,0.80
5344.00,0.79
5343.00,0.78
5342.00,0.78
5341.00,0.77
5340.00,0.77
5339.00,0.77
5338.00,0.76
5337.00,0.76
5336.00,0.76
5335.00,0.75
5334.00,0.75
5333.00,0.75
5332.00,0.75
5331.00,0.74
5330.00,0.74
5329.00,0.74
5328.00,0.74
5327.00,0.73
5326.00,0.73
5325.00,0.73
5324.00,0.73
5323.00,0.73
5322.00,0.72
5321.00,0.72
5320.00,0.72
5319.00,0.72
5318.00,0.72
5317.00,0.72
5316.00,0.72
5315.00,0.72
5314.00,0.72
5313.00,0.71
5312.00,0.71
5311.00,0.71
5310.00,0.71
5309.00,0.71
5308.00,0.71
5307.00,0.71
5306.00,0.71
5305.00,0.71
5304.00,0.71
5303.00,0.71
5302.00,0.71
5301.00,0.71
5300.00,0.71
5299.00,0.71
5298.00,0.71
5297.00,0.71
5296.00,0.71
5295.00,0.71
5294.00,0.71
5293.00,0.71
5292.00,0.71
5291.00,0.71
5290.00,0.71
5289.00,0.71
5288.00,0.71
5287.00,0.71
5286.00,0.71
5285.00,0.71
5284.00,0.71
5283.00,0.71
5282.00,0.70
5281.00,0.70
5280.00,0.70
5279.00,0.70
5278.00,0.70
5277.00,0.70
5276.00,0.70
5275.00,0.70
5274.00,0.70
5273.00,0.69
5272.00,0.69
5271.00,0.69
5270.00,0.69
5269.00,0.69
5268.00,0.69
5267.00,0.68
5266.00,0.68
5265.00,0.68
5264.00,0.68
5263.00,0.67
5262.00,0.67
5261.00,0.67
5260.00,0.67
5259.00,0.67
5258.00,0.67
5257.00,0.67
5256.00,0.66
5255.00,0.66
5254.00,0.66
5253.00,0.66
5252.00,0.66
5251.00,0.66
5250.00,0.66
5249.00,0.66
5248.00,0.66
5247.00,0.66
5246.00,0.66
5245.00,0.66
5244.00,0.66
5243.00,0.66
5242.00,0.66
5241.00,0.66
5240.00,0.66
5239.00,0.66
5238.00,0.67
5237.00,0.67
5236.00,0.67
5235.00,0.67
5234.00,0.67
5233.00,0.68
5232.00,0.68
5231.00,0.68
5230.00,0.68
5229.00,0.68
5228.00,0.68
5227.00,0.68
5226.00,0.68
5225.00,0.68
5224.00,0.68
5223.00,0.68
5222.00,0.69
5221.00,0.69
5220.00,0.69
5219.00,0.69
5218.00,0.69
5217.00,0.69
5216.00,0.69
5215.00,0.69
5214.00,0.70
5213.00,0.70
5212.00,0.70
5211.00,0.70
5210.00,0.70
5209.00,0.70
5208.00,0.70
5207.00,0.70
5206.00,0.71
5205.00,0.71
5204.00,0.71
5203.00,0.71
5202.00,0.71
5201.00,0.72
5200.00,0.72
5199.00,0.72
5198.00,0.72
5197.00,0.73
5196.00,0.73
5195.00,0.73
5194.00,0.73
5193.00,0.73
5192.00,0.73
5191.00,0.73
5190.00,0.73
5189.00,0.73
5188.00,0.73
5187.00,0.73
5186.00,0.73
5185.00,0.73
5184.00,0.73
5183.00,0.73
5182.00,0.73
5181.00,0.73
5180.00,0.73
5179.00,0.72
5178.00,0.72
5177.00,0.72
5176.00,0.72
5175.00,0.72
5174.00,0.72
5173.00,0.72
5172.00,0.72
5171.00,0.72
5170.00,0.72
5169.00,0.72
5168.00,0.72
5167.00,0.72
5166.00,0.72
5165.00,0.72
5164.00,0.72
5163.00,0.72
5162.00,0.72
5161.00,0.73
5160.00,0.73
5159.00,0.73
5158.00,0.73
5157.00,0.73
5156.00,0.74
5155.00,0.74
5154.00,0.74
5153.00,0.74
5152.00,0.75
5151.00,0.75
5150.00,0.75
5149.00,0.75
5148.00,0.75
5147.00,0.75
5146.00,0.75
5145.00,0.76
5144.00,0.76
5143.00,0.76
5142.00,0.76
5141.00,0.76
5140.00,0.76
5139.00,0.76
5138.00,0.75
5137.00,0.75
5136.00,0.75
5135.00,0.75
5134.00,0.75
5133.00,0.75
5132.00,0.75
5131.00,0.74
5130.00,0.74
5129.00,0.74
5128.00,0.74
5127.00,0.74
5126.00,0.74
5125.00,0.73
5124.00,0.73
5123.00,0.73
5122.00,0.73
5121.00,0.72
5120.00,0.72
5119.00,0.72
5118.00,0.72
5117.00,0.72
5116.00,0.72
5115.00,0.71
5114.00,0.71
5113.00,0.71
5112.00,0.71
5111.00,0.71
5110.00,0.71
5109.00,0.71
5108.00,0.71
5107.00,0.71
5106.00,0.71
5105.00,0.71
5104.00,0.71
5103.00,0.71
5102.00,0.71
5101.00,0.71
5100.00,0.71
5099.00,0.71
5098.00,0.71
5097.00,0.71
5096.00,0.72
5095.00,0.72
5094.00,0.72
5093.00,0.72
5092.00,0.72
5091.00,0.72
5090.00,0.72
5089.00,0.72
5088.00,0.72
5087.00,0.72
5086.00,0.72
5085.00,0.72
5084.00,0.72
5083.00,0.72
5082.00,0.72
5081.00,0.72
5080.00,0.72
5079.00,0.72
5078.00,0.72
5077.00,0.71
5076.00,0.71
5075.00,0.71
5074.00,0.71
5073.00,0.71
5072.00,0.71
5071.00,0.71
5070.00,0.71
5069.00,0.71
5068.00,0.71
5067.00,0.71
5066.00,0.71
5065.00,0.70
5064.00,0.70
5063.00,0.70
5062.00,0.70
5061.00,0.70
5060.00,0.70
5059.00,0.70
5058.00,0.70
5057.00,0.70
5056.00,0.70
5055.00,0.70
5054.00,0.70
5053.00,0.70
5052.00,0.70
5051.00,0.70
5050.00,0.70
5049.00,0.70
5048.00,0.70
5047.00,0.70
5046.00,0.70
5045.00,0.71
5044.00,0.71
5043.00,0.71
5042.00,0.71
5041.00,0.71
5040.00,0.72
5039.00,0.72
5038.00,0.72
5037.00,0.72
5036.00,0.73
5035.00,0.73
5034.00,0.73
5033.00,0.73
5032.00,0.73
5031.00,0.74
5030.00,0.74
5029.00,0.74
5028.00,0.74
5027.00,0.74
5026.00,0.74
5025.00,0.75
5024.00,0.75
5023.00,0.75
5022.00,0.75
5021.00,0.75
5020.00,0.75
5019.00,0.76
5018.00,0.76
5017.00,0.76
5016.00,0.76
5015.00,0.76
5014.00,0.76
5013.00,0.76
5012.00,0.76
5011.00,0.76
5010.00,0.77
5009.00,0.77
5008.00,0.77
5007.00,0.77
5006.00,0.77
5005.00,0.77
5004.00,0.77
5003.00,0.77
5002.00,0.77
5001.00,0.77
5000.00,0.77
4999.00,0.77
4998.00,0.77
4997.00,0.77
4996.00,0.77
4995.00,0.77
4994.00,0.77
4993.00,0.77
4992.00,0.77
4991.00,0.77
4990.00,0.77
4989.00,0.76
4988.00,0.76
4987.00,0.76
4986.00,0.76
4985.00,0.76
4984.00,0.76
4983.00,0.75
4982.00,0.75
4981.00,0.75
4980.00,0.75
4979.00,0.75
4978.00,0.75
4977.00,0.75
4976.00,0.75
4975.00,0.75
4974.00,0.75
4973.00,0.75
4972.00,0.74
4971.00,0.74
4970.00,0.74
4969.00,0.74
4968.00,0.74
4967.00,0.74
4966.00,0.74
4965.00,0.74
4964.00,0.74
4963.00,0.74
4962.00,0.74
4961.00,0.74
4960.00,0.74
4959.00,0.74
4958.00,0.74
4957.00,0.74
4956.00,0.74
4955.00,0.74
4954.00,0.74
4953.00,0.75
4952.00,0.75
4951.00,0.75
4950.00,0.75
4949.00,0.75
4948.00,0.76
4947.00,0.76
4946.00,0.76
4945.00,0.76
4944.00,0.77
4943.00,0.77
4942.00,0.77
4941.00,0.78
4940.00,0.78
4939.00,0.78
4938.00,0.78
4937.00,0.78
4936.00,0.78
4935.00,0.78
4934.00,0.78
4933.00,0.78
4932.00,0.78
4931.00,0.78
4930.00,0.78
4929.00,0.78
4928.00,0.78
4927.00,0.78
4926.00,0.78
4925.00,0.78
4924.00,0.78
4923.00,0.78
4922.00,0.77
4921.00,0.77
4920.00,0.77
4919.00,0.76
4918.00,0.76
4917.00,0.76
4916.00,0.75
4915.00,0.75
4914.00,0.75
4913.00,0.74
4912.00,0.74
4911.00,0.74
4910.00,0.74
4909.00,0.74
4908.00,0.74
4907.00,0.73
4906.00,0.73
4905.00,0.73
4904.00,0.73
4903.00,0.73
4902.00,0.73
4901.00,0.73
4900.00,0.73
4899.00,0.73
4898.00,0.73
4897.00,0.73
4896.00,0.73
4895.00,0.73
4894.00,0.73
4893.00,0.73
4892.00,0.73
4891.00,0.73
4890.00,0.73
4889.00,0.74
4888.00,0.74
4887.00,0.74
4886.00,0.74
4885.00,0.74
4884.00,0.74
4883.00,0.75
4882.00,0.75
4881.00,0.75
4880.00,0.75
4879.00,0.76
4878.00,0.76
4877.00,0.76
4876.00,0.77
4875.00,0.77
4874.00,0.77
4873.00,0.78
4872.00,0.78
4871.00,0.78
4870.00,0.79
4869.00,0.79
4868.00,0.79
4867.00,0.80
4866.00,0.80
4865.00,0.80
4864.00,0.81
4863.00,0.81
4862.00,0.81
4861.00,0.82
4860.00,0.82
4859.00,0.82
4858.00,0.83
4857.00,0.83
4856.00,0.83
4855.00,0.83
4854.00,0.83
4853.00,0.84
4852.00,0.84
4851.00,0.84
4850.00,0.84
4849.00,0.84
4848.00,0.85
4847.00,0.85
4846.00,0.85
4845.00,0.85
4844.00,0.85
4843.00,0.85
4842.00,0.86
4841.00,0.86
4840.00,0.86
4839.00,0.86
4838.00,0.86
4837.00,0.86
4836.00,0.86
4835.00,0.86
4834.00,0.86
4833.00,0.86
4832.00,0.86
4831.00,0.86
4830.00,0.86
4829.00,0.86
4828.00,0.86
4827.00,0.86
4826.00,0.86
4825.00,0.86
4824.00,0.86
4823.00,0.86
4822.00,0.86
4821.00,0.85
4820.00,0.85
4819.00,0.85
4818.00,0.85
4817.00,0.85
4816.00,0.85
4815.00,0.85
4814.00,0.85
4813.00,0.85
4812.00,0.85
4811.00,0.85
4810.00,0.85
4809.00,0.85
4808.00,0.85
4807.00,0.85
4806.00,0.85
4805.00,0.85
4804.00,0.85
4803.00,0.85
4802.00,0.85
4801.00,0.86
4800.00,0.86
4799.00,0.86
4798.00,0.86
4797.00,0.86
4796.00,0.86
4795.00,0.87
4794.00,0.87
4793.00,0.87
4792.00,0.87
4791.00,0.87
4790.00,0.87
4789.00,0.87
4788.00,0.88
4787.00,0.88
4786.00,0.88
4785.00,0.88
4784.00,0.88
4783.00,0.88
4782.00,0.88
4781.00,0.88
4780.00,0.88
4779.00,0.88
4778.00,0.88
4777.00,0.88
4776.00,0.87
4775.00,0.87
4774.00,0.87
4773.00,0.87
4772.00,0.87
4771.00,0.87
4770.00,0.87
4769.00,0.86
4768.00,0.86
4767.00,0.86
4766.00,0.86
4765.00,0.86
4764.00,0.85
4763.00,0.85
4762.00,0.85
4761.00,0.85
4760.00,0.84
4759.00,0.84
4758.00,0.84
4757.00,0.84
4756.00,0.83
4755.00,0.83
4754.00,0.83
4753.00,0.83
4752.00,0.83
4751.00,0.83
4750.00,0.82
4749.00,0.82
4748.00,0.82
4747.00,0.82
4746.00,0.82
4745.00,0.82
4744.00,0.82
4743.00,0.82
4742.00,0.81
4741.00,0.81
4740.00,0.81
4739.00,0.81
4738.00,0.81
4737.00,0.81
4736.00,0.82
4735.00,0.82
4734.00,0.82
4733.00,0.82
4732.00,0.82
4731.00,0.82
4730.00,0.82
4729.00,0.82
4728.00,0.82
4727.00,0.82
4726.00,0.82
4725.00,0.82
4724.00,0.82
4723.00,0.82
4722.00,0.82
4721.00,0.82
4720.00,0.82
4719.00,0.82
4718.00,0.82
4717.00,0.83
4716.00,0.83
4715.00,0.83
4714.00,0.83
4713.00,0.83
4712.00,0.83
4711.00,0.83
4710.00,0.83
4709.00,0.83
4708.00,0.83
4707.00,0.84
4706.00,0.84
4705.00,0.84
4704.00,0.84
4703.00,0.84
4702.00,0.85
4701.00,0.85
4700.00,0.85
4699.00,0.85
4698.00,0.86
4697.00,0.86
4696.00,0.86
4695.00,0.86
4694.00,0.87
4693.00,0.87
4692.00,0.87
4691.00,0.87
4690.00,0.87
4689.00,0.88
4688.00,0.88
4687.00,0.88
4686.00,0.88
4685.00,0.88
4684.00,0.89
4683.00,0.89
4682.00,0.89
4681.00,0.89
4680.00,0.89
4679.00,0.89
4678.00,0.89
4677.00,0.90
4676.00,0.90
4675.00,0.90
4674.00,0.90
4673.00,0.90
4672.00,0.90
4671.00,0.90
4670.00,0.90
4669.00,0.91
4668.00,0.91
4667.00,0.91
4666.00,0.91
4665.00,0.91
4664.00,0.91
4663.00,0.91
4662.00,0.91
4661.00,0.91
4660.00,0.91
4659.00,0.91
4658.00,0.91
4657.00,0.91
4656.00,0.91
4655.00,0.91
4654.00,0.91
4653.00,0.91
4652.00,0.91
4651.00,0.91
4650.00,0.91
4649.00,0.91
4648.00,0.91
4647.00,0.91
4646.00,0.91
4645.00,0.91
4644.00,0.91
4643.00,0.91
4642.00,0.91
4641.00,0.91
4640.00,0.91
4639.00,0.91
4638.00,0.91
4637.00,0.91
4636.00,0.91
4635.00,0.91
4634.00,0.91
4633.00,0.91
4632.00,0.91
4631.00,0.90
4630.00,0.90
4629.00,0.90
4628.00,0.90
4627.00,0.90
4626.00,0.90
4625.00,0.90
4624.00,0.90
4623.00,0.90
4622.00,0.90
4621.00,0.90
4620.00,0.90
4619.00,0.90
4618.00,0.90
4617.00,0.90
4616.00,0.90
4615.00,0.90
4614.00,0.90
4613.00,0.90
4612.00,0.90
4611.00,0.90
4610.00,0.90
4609.00,0.90
4608.00,0.90
4607.00,0.90
4606.00,0.90
4605.00,0.90
4604.00,0.90
4603.00,0.90
4602.00,0.90
4601.00,0.90
4600.00,0.90
4599.00,0.90
4598.00,0.90
4597.00,0.90
4596.00,0.90
4595.00,0.90
4594.00,0.90
4593.00,0.90
4592.00,0.90
4591.00,0.90
4590.00,0.90
4589.00,0.90
4588.00,0.90
4587.00,0.90
4586.00,0.91
4585.00,0.91
4584.00,0.91
4583.00,0.91
4582.00,0.91
4581.00,0.90
4580.00,0.90
4579.00,0.90
4578.00,0.90
4577.00,0.90
4576.00,0.90
4575.00,0.90
4574.00,0.90
4573.00,0.90
4572.00,0.90
4571.00,0.90
4570.00,0.90
4569.00,0.90
4568.00,0.90
4567.00,0.90
4566.00,0.90
4565.00,0.91
4564.00,0.91
4563.00,0.91
4562.00,0.90
4561.00,0.90
4560.00,0.90
4559.00,0.90
4558.00,0.90
4557.00,0.90
4556.00,0.90
4555.00,0.90
4554.00,0.91
4553.00,0.91
4552.00,0.91
4551.00,0.91
4550.00,0.91
4549.00,0.91
4548.00,0.91
4547.00,0.91
4546.00,0.91
4545.00,0.91
4544.00,0.91
4543.00,0.91
4542.00,0.91
4541.00,0.91
4540.00,0.91
4539.00,0.91
4538.00,0.91
4537.00,0.91
4536.00,0.91
4535.00,0.91
4534.00,0.91
4533.00,0.91
4532.00,0.91
4531.00,0.91
4530.00,0.91
4529.00,0.91
4528.00,0.91
4527.00,0.91
4526.00,0.91
4525.00,0.91
4524.00,0.91
4523.00,0.91
4522.00,0.91
4521.00,0.91
4520.00,0.92
4519.00,0.92
4518.00,0.92
4517.00,0.92
4516.00,0.92
4515.00,0.93
4514.00,0.93
4513.00,0.93
4512.00,0.93
4511.00,0.93
4510.00,0.94
4509.00,0.94
4508.00,0.94
4507.00,0.94
4506.00,0.94
4505.00,0.95
4504.00,0.95
4503.00,0.95
4502.00,0.95
4501.00,0.95
4500.00,0.95
4499.00,0.95
4498.00,0.95
4497.00,0.95
4496.00,0.95
4495.00,0.95
4494.00,0.94
4493.00,0.94
4492.00,0.94
4491.00,0.94
4490.00,0.93
4489.00,0.93
4488.00,0.93
4487.00,0.92
4486.00,0.92
4485.00,0.91
4484.00,0.91
4483.00,0.91
4482.00,0.90
4481.00,0.90
4480.00,0.90
4479.00,0.89
4478.00,0.89
4477.00,0.89
4476.00,0.88
4475.00,0.88
4474.00,0.88
4473.00,0.88
4472.00,0.87
4471.00,0.87
4470.00,0.87
4469.00,0.87
4468.00,0.87
4467.00,0.87
4466.00,0.87
4465.00,0.87
4464.00,0.87
4463.00,0.87
4462.00,0.87
4461.00,0.87
4460.00,0.87
4459.00,0.87
4458.00,0.87
4457.00,0.87
4456.00,0.87
4455.00,0.87
4454.00,0.87
4453.00,0.87
4452.00,0.87
4451.00,0.88
4450.00,0.88
4449.00,0.88
4448.00,0.88
4447.00,0.88
4446.00,0.88
4445.00,0.89
4444.00,0.89
4443.00,0.89
4442.00,0.89
4441.00,0.89
4440.00,0.89
4439.00,0.89
4438.00,0.89
4437.00,0.89
4436.00,0.89
4435.00,0.89
4434.00,0.89
4433.00,0.89
4432.00,0.89
4431.00,0.89
4430.00,0.89
4429.00,0.89
4428.00,0.89
4427.00,0.89
4426.00,0.89
4425.00,0.89
4424.00,0.89
4423.00,0.89
4422.00,0.89
4421.00,0.89
4420.00,0.89
4419.00,0.89
4418.00,0.89
4417.00,0.89
4416.00,0.89
4415.00,0.88
4414.00,0.88
4413.00,0.88
4412.00,0.88
4411.00,0.88
4410.00,0.88
4409.00,0.88
4408.00,0.88
4407.00,0.88
4406.00,0.89
4405.00,0.89
4404.00,0.89
4403.00,0.89
4402.00,0.89
4401.00,0.89
4400.00,0.89
4399.00,0.89
4398.00,0.89
4397.00,0.89
4396.00,0.89
4395.00,0.89
4394.00,0.89
4393.00,0.89
4392.00,0.89
4391.00,0.89
4390.00,0.89
4389.00,0.90
4388.00,0.90
4387.00,0.90
4386.00,0.90
4385.00,0.90
4384.00,0.90
4383.00,0.90
4382.00,0.90
4381.00,0.90
4380.00,0.90
4379.00,0.90
4378.00,0.90
4377.00,0.90
4376.00,0.90
4375.00,0.90
4374.00,0.90
4373.00,0.90
4372.00,0.90
4371.00,0.91
4370.00,0.91
4369.00,0.91
4368.00,0.91
4367.00,0.91
4366.00,0.92
4365.00,0.92
4364.00,0.92
4363.00,0.92
4362.00,0.92
4361.00,0.92
4360.00,0.92
4359.00,0.93
4358.00,0.93
4357.00,0.93
4356.00,0.93
4355.00,0.94
4354.00,0.94
4353.00,0.94
4352.00,0.94
4351.00,0.95
4350.00,0.95
4349.00,0.95
4348.00,0.95
4347.00,0.95
4346.00,0.95
4345.00,0.95
4344.00,0.95
4343.00,0.95
4342.00,0.95
4341.00,0.95
4340.00,0.94
4339.00,0.94
4338.00,0.94
4337.00,0.94
4336.00,0.94
4335.00,0.94
4334.00,0.94
4333.00,0.94
4332.00,0.93
4331.00,0.93
4330.00,0.93
4329.00,0.93
4328.00,0.93
4327.00,0.93
4326.00,0.93
4325.00,0.92
4324.00,0.92
4323.00,0.92
4322.00,0.92
4321.00,0.92
4320.00,0.92
4319.00,0.92
4318.00,0.92
4317.00,0.93
4316.00,0.93
4315.00,0.93
4314.00,0.93
4313.00,0.93
4312.00,0.94
4311.00,0.94
4310.00,0.94
4309.00,0.94
4308.00,0.95
4307.00,0.95
4306.00,0.95
4305.00,0.95
4304.00,0.95
4303.00,0.95
4302.00,0.95
4301.00,0.96
4300.00,0.96
4299.00,0.96
4298.00,0.96
4297.00,0.96
4296.00,0.96
4295.00,0.96
4294.00,0.96
4293.00,0.96
4292.00,0.96
4291.00,0.96
4290.00,0.96
4289.00,0.95
4288.00,0.95
4287.00,0.95
4286.00,0.95
4285.00,0.95
4284.00,0.95
4283.00,0.95
4282.00,0.94
4281.00,0.94
4280.00,0.94
4279.00,0.94
4278.00,0.94
4277.00,0.94
4276.00,0.94
4275.00,0.93
4274.00,0.93
4273.00,0.93
4272.00,0.93
4271.00,0.93
4270.00,0.93
4269.00,0.93
4268.00,0.92
4267.00,0.92
4266.00,0.92
4265.00,0.92
4264.00,0.92
4263.00,0.92
4262.00,0.92
4261.00,0.92
4260.00,0.92
4259.00,0.92
4258.00,0.92
4257.00,0.92
4256.00,0.92
4255.00,0.92
4254.00,0.92
4253.00,0.92
4252.00,0.92
4251.00,0.92
4250.00,0.92
4249.00,0.92
4248.00,0.92
4247.00,0.92
4246.00,0.93
4245.00,0.93
4244.00,0.93
4243.00,0.93
4242.00,0.93
4241.00,0.93
4240.00,0.94
4239.00,0.94
4238.00,0.94
4237.00,0.94
4236.00,0.94
4235.00,0.94
4234.00,0.94
4233.00,0.94
4232.00,0.95
4231.00,0.95
4230.00,0.95
4229.00,0.95
4228.00,0.95
4227.00,0.95
4226.00,0.95
4225.00,0.95
4224.00,0.95
4223.00,0.95
4222.00,0.95
4221.00,0.95
4220.00,0.95
4219.00,0.95
4218.00,0.95
4217.00,0.95
4216.00,0.94
4215.00,0.94
4214.00,0.94
4213.00,0.94
4212.00,0.94
4211.00,0.94
4210.00,0.94
4209.00,0.94
4208.00,0.93
4207.00,0.93
4206.00,0.93
4205.00,0.93
4204.00,0.92
4203.00,0.92
4202.00,0.92
4201.00,0.92
4200.00,0.91
4199.00,0.91
4198.00,0.91
4197.00,0.91
4196.00,0.91
4195.00,0.90
4194.00,0.90
4193.00,0.90
4192.00,0.90
4191.00,0.90
4190.00,0.90
4189.00,0.90
4188.00,0.91
4187.00,0.91
4186.00,0.91
4185.00,0.91
4184.00,0.91
4183.00,0.92
4182.00,0.92
4181.00,0.93
4180.00,0.93
4179.00,0.94
4178.00,0.94
4177.00,0.95
4176.00,0.95
4175.00,0.96
4174.00,0.96
4173.00,0.97
4172.00,0.98
4171.00,0.98
4170.00,0.99
4169.00,1.00
4168.00,1.00
4167.00,1.01
4166.00,1.02
4165.00,1.02
4164.00,1.03
4163.00,1.03
4162.00,1.03
4161.00,1.04
4160.00,1.04
4159.00,1.04
4158.00,1.04
4157.00,1.04
4156.00,1.04
4155.00,1.04
4154.00,1.04
4153.00,1.04
4152.00,1.04
4151.00,1.03
4150.00,1.03
4149.00,1.03
4148.00,1.03
4147.00,1.03
4146.00,1.03
4145.00,1.03
4144.00,1.02
4143.00,1.02
4142.00,1.02
4141.00,1.01
4140.00,1.01
4139.00,1.01
4138.00,1.01
4137.00,1.01
4136.00,1.01
4135.00,1.01
4134.00,1.01
4133.00,1.01
4132.00,1.01
4131.00,1.01
4130.00,1.01
4129.00,1.01
4128.00,1.02
4127.00,1.02
4126.00,1.02
4125.00,1.03
4124.00,1.03
4123.00,1.03
4122.00,1.03
4121.00,1.03
4120.00,1.03
4119.00,1.03
4118.00,1.03
4117.00,1.03
4116.00,1.03
4115.00,1.03
4114.00,1.03
4113.00,1.03
4112.00,1.03
4111.00,1.03
4110.00,1.03
4109.00,1.03
4108.00,1.03
4107.00,1.02
4106.00,1.02
4105.00,1.02
4104.00,1.02
4103.00,1.01
4102.00,1.01
4101.00,1.01
4100.00,1.00
4099.00,1.00
4098.00,1.00
4097.00,0.99
4096.00,0.99
4095.00,0.99
4094.00,0.99
4093.00,0.99
4092.00,0.99
4091.00,0.99
4090.00,0.99
4089.00,0.99
4088.00,0.99
4087.00,0.99
4086.00,0.99
4085.00,0.99
4084.00,0.99
4083.00,0.99
4082.00,0.99
4081.00,0.99
4080.00,0.99
4079.00,0.99
4078.00,0.99
4077.00,0.99
4076.00,0.99
4075.00,1.00
4074.00,1.00
4073.00,1.00
4072.00,1.00
4071.00,1.00
4070.00,1.00
4069.00,1.00
4068.00,1.00
4067.00,1.00
4066.00,1.00
4065.00,1.00
4064.00,1.00
4063.00,1.00
4062.00,1.00
4061.00,1.00
4060.00,1.00
4059.00,1.00
4058.00,1.00
4057.00,1.00
4056.00,1.00
4055.00,1.00
4054.00,1.00
4053.00,1.00
4052.00,1.00
4051.00,0.99
4050.00,0.99
4049.00,0.99
4048.00,0.99
4047.00,0.99
4046.00,0.99
4045.00,0.99
4044.00,0.99
4043.00,0.99
4042.00,0.99
4041.00,0.99
4040.00,0.99
4039.00,0.98
4038.00,0.98
4037.00,0.98
4036.00,0.98
4035.00,0.98
4034.00,0.98
4033.00,0.97
4032.00,0.97
4031.00,0.97
4030.00,0.97
4029.00,0.97
4028.00,0.97
4027.00,0.97
4026.00,0.97
4025.00,0.98
4024.00,0.98
4023.00,0.98
4022.00,0.98
4021.00,0.98
4020.00,0.98
4019.00,0.99
4018.00,0.99
4017.00,1.00
4016.00,1.01
4015.00,1.02
4014.00,1.03
4013.00,1.04
4012.00,1.05
4011.00,1.07
4010.00,1.08
4009.00,1.10
4008.00,1.12
4007.00,1.14
4006.00,1.16
4005.00,1.18
4004.00,1.20
4003.00,1.22
4002.00,1.24
4001.00,1.26
4000.00,1.28
