创建为新数据集,样品 1005 用户 Administrator 日期 星期二, 七月 30 2019
cm-1,%T
10000.00,0.78
9999.00,0.77
9998.00,0.76
9997.00,0.75
9996.00,0.74
9995.00,0.73
9994.00,0.72
9993.00,0.71
9992.00,0.70
9991.00,0.69
9990.00,0.69
9989.00,0.68
9988.00,0.67
9987.00,0.66
9986.00,0.65
9985.00,0.64
9984.00,0.64
9983.00,0.63
9982.00,0.62
9981.00,0.61
9980.00,0.61
9979.00,0.61
9978.00,0.60
9977.00,0.60
9976.00,0.60
9975.00,0.60
9974.00,0.60
9973.00,0.60
9972.00,0.59
9971.00,0.59
9970.00,0.59
9969.00,0.59
9968.00,0.58
9967.00,0.58
9966.00,0.58
9965.00,0.58
9964.00,0.57
9963.00,0.57
9962.00,0.57
9961.00,0.57
9960.00,0.57
9959.00,0.57
9958.00,0.57
9957.00,0.57
9956.00,0.58
9955.00,0.58
9954.00,0.58
9953.00,0.58
9952.00,0.58
9951.00,0.58
9950.00,0.58
9949.00,0.58
9948.00,0.57
9947.00,0.57
9946.00,0.57
9945.00,0.57
9944.00,0.57
9943.00,0.57
9942.00,0.57
9941.00,0.57
9940.00,0.57
9939.00,0.57
9938.00,0.57
9937.00,0.57
9936.00,0.57
9935.00,0.57
9934.00,0.57
9933.00,0.57
9932.00,0.57
9931.00,0.56
9930.00,0.56
9929.00,0.56
9928.00,0.55
9927.00,0.55
9926.00,0.55
9925.00,0.54
9924.00,0.54
9923.00,0.54
9922.00,0.53
9921.00,0.53
9920.00,0.52
9919.00,0.52
9918.00,0.51
9917.00,0.51
9916.00,0.50
9915.00,0.50
9914.00,0.49
9913.00,0.48
9912.00,0.47
9911.00,0.47
9910.00,0.46
9909.00,0.45
9908.00,0.44
9907.00,0.43
9906.00,0.43
9905.00,0.42
9904.00,0.41
9903.00,0.41
9902.00,0.40
9901.00,0.40
9900.00,0.40
9899.00,0.39
9898.00,0.39
9897.00,0.39
9896.00,0.39
9895.00,0.39
9894.00,0.39
9893.00,0.39
9892.00,0.39
9891.00,0.39
9890.00,0.40
9889.00,0.40
9888.00,0.40
9887.00,0.41
9886.00,0.41
9885.00,0.42
9884.00,0.42
9883.00,0.43
9882.00,0.44
9881.00,0.44
9880.00,0.45
9879.00,0.46
9878.00,0.46
9877.00,0.47
9876.00,0.47
9875.00,0.48
9874.00,0.48
9873.00,0.48
9872.00,0.48
9871.00,0.48
9870.00,0.48
9869.00,0.48
9868.00,0.48
9867.00,0.48
9866.00,0.48
9865.00,0.48
9864.00,0.47
9863.00,0.47
9862.00,0.47
9861.00,0.46
9860.00,0.46
9859.00,0.45
9858.00,0.45
9857.00,0.44
9856.00,0.44
9855.00,0.43
9854.00,0.43
9853.00,0.42
9852.00,0.42
9851.00,0.42
9850.00,0.41
9849.00,0.41
9848.00,0.41
9847.00,0.40
9846.00,0.40
9845.00,0.41
9844.00,0.41
9843.00,0.41
9842.00,0.41
9841.00,0.41
9840.00,0.42
9839.00,0.42
9838.00,0.43
9837.00,0.43
9836.00,0.43
9835.00,0.44
9834.00,0.44
9833.00,0.45
9832.00,0.46
9831.00,0.46
9830.00,0.47
9829.00,0.48
9828.00,0.48
9827.00,0.49
9826.00,0.50
9825.00,0.51
9824.00,0.51
9823.00,0.52
9822.00,0.52
9821.00,0.53
9820.00,0.53
9819.00,0.54
9818.00,0.54
9817.00,0.55
9816.00,0.55
9815.00,0.55
9814.00,0.55
9813.00,0.56
9812.00,0.56
9811.00,0.56
9810.00,0.56
9809.00,0.57
9808.00,0.57
9807.00,0.57
9806.00,0.57
9805.00,0.58
9804.00,0.58
9803.00,0.58
9802.00,0.58
9801.00,0.57
9800.00,0.57
9799.00,0.57
9798.00,0.57
9797.00,0.57
9796.00,0.57
9795.00,0.57
9794.00,0.56
9793.00,0.56
9792.00,0.56
9791.00,0.56
9790.00,0.56
9789.00,0.56
9788.00,0.56
9787.00,0.56
9786.00,0.55
9785.00,0.55
9784.00,0.55
9783.00,0.54
9782.00,0.54
9781.00,0.54
9780.00,0.53
9779.00,0.53
9778.00,0.53
9777.00,0.52
9776.00,0.52
9775.00,0.52
9774.00,0.51
9773.00,0.51
9772.00,0.51
9771.00,0.51
9770.00,0.51
9769.00,0.51
9768.00,0.50
9767.00,0.50
9766.00,0.50
9765.00,0.50
9764.00,0.50
9763.00,0.50
9762.00,0.50
9761.00,0.50
9760.00,0.50
9759.00,0.50
9758.00,0.50
9757.00,0.50
9756.00,0.50
9755.00,0.50
9754.00,0.50
9753.00,0.50
9752.00,0.50
9751.00,0.50
9750.00,0.50
9749.00,0.50
9748.00,0.50
9747.00,0.49
9746.00,0.49
9745.00,0.49
9744.00,0.48
9743.00,0.48
9742.00,0.47
9741.00,0.47
9740.00,0.46
9739.00,0.46
9738.00,0.45
9737.00,0.45
9736.00,0.44
9735.00,0.44
9734.00,0.43
9733.00,0.43
9732.00,0.42
9731.00,0.42
9730.00,0.41
9729.00,0.40
9728.00,0.40
9727.00,0.39
9726.00,0.39
9725.00,0.38
9724.00,0.38
9723.00,0.38
9722.00,0.38
9721.00,0.38
9720.00,0.38
9719.00,0.38
9718.00,0.39
9717.00,0.39
9716.00,0.40
9715.00,0.40
9714.00,0.41
9713.00,0.41
9712.00,0.42
9711.00,0.43
9710.00,0.43
9709.00,0.44
9708.00,0.45
9707.00,0.45
9706.00,0.46
9705.00,0.47
9704.00,0.48
9703.00,0.48
9702.00,0.49
9701.00,0.50
9700.00,0.50
9699.00,0.51
9698.00,0.51
9697.00,0.51
9696.00,0.51
9695.00,0.51
9694.00,0.51
9693.00,0.51
9692.00,0.51
9691.00,0.51
9690.00,0.50
9689.00,0.50
9688.00,0.49
9687.00,0.49
9686.00,0.48
9685.00,0.48
9684.00,0.47
9683.00,0.47
9682.00,0.46
9681.00,0.45
9680.00,0.45
9679.00,0.44
9678.00,0.44
9677.00,0.43
9676.00,0.43
9675.00,0.42
9674.00,0.42
9673.00,0.41
9672.00,0.41
9671.00,0.41
9670.00,0.41
9669.00,0.40
9668.00,0.40
9667.00,0.40
9666.00,0.40
9665.00,0.40
9664.00,0.41
9663.00,0.41
9662.00,0.41
9661.00,0.41
9660.00,0.41
9659.00,0.41
9658.00,0.41
9657.00,0.41
9656.00,0.41
9655.00,0.41
9654.00,0.41
9653.00,0.41
9652.00,0.41
9651.00,0.41
9650.00,0.41
9649.00,0.41
9648.00,0.41
9647.00,0.41
9646.00,0.41
9645.00,0.41
9644.00,0.41
9643.00,0.41
9642.00,0.41
9641.00,0.41
9640.00,0.41
9639.00,0.41
9638.00,0.41
9637.00,0.41
9636.00,0.41
9635.00,0.41
9634.00,0.41
9633.00,0.41
9632.00,0.41
9631.00,0.41
9630.00,0.41
9629.00,0.41
9628.00,0.41
9627.00,0.41
9626.00,0.42
9625.00,0.42
9624.00,0.42
9623.00,0.42
9622.00,0.42
9621.00,0.42
9620.00,0.43
9619.00,0.43
9618.00,0.43
9617.00,0.43
9616.00,0.43
9615.00,0.43
9614.00,0.43
9613.00,0.43
9612.00,0.43
9611.00,0.43
9610.00,0.43
9609.00,0.43
9608.00,0.44
9607.00,0.44
9606.00,0.45
9605.00,0.45
9604.00,0.46
9603.00,0.47
9602.00,0.47
9601.00,0.48
9600.00,0.49
9599.00,0.49
9598.00,0.50
9597.00,0.51
9596.00,0.51
9595.00,0.52
9594.00,0.53
9593.00,0.53
9592.00,0.54
9591.00,0.55
9590.00,0.56
9589.00,0.57
9588.00,0.58
9587.00,0.59
9586.00,0.60
9585.00,0.61
9584.00,0.62
9583.00,0.63
9582.00,0.64
9581.00,0.64
9580.00,0.65
9579.00,0.65
9578.00,0.65
9577.00,0.66
9576.00,0.66
9575.00,0.66
9574.00,0.65
9573.00,0.65
9572.00,0.65
9571.00,0.65
9570.00,0.64
9569.00,0.64
9568.00,0.63
9567.00,0.63
9566.00,0.62
9565.00,0.61
9564.00,0.60
9563.00,0.59
9562.00,0.58
9561.00,0.57
9560.00,0.56
9559.00,0.55
9558.00,0.53
9557.00,0.52
9556.00,0.51
9555.00,0.49
9554.00,0.48
9553.00,0.47
9552.00,0.46
9551.00,0.45
9550.00,0.44
9549.00,0.43
9548.00,0.42
9547.00,0.41
9546.00,0.40
9545.00,0.40
9544.00,0.39
9543.00,0.39
9542.00,0.38
9541.00,0.38
9540.00,0.37
9539.00,0.37
9538.00,0.37
9537.00,0.37
9536.00,0.37
9535.00,0.37
9534.00,0.37
9533.00,0.37
9532.00,0.37
9531.00,0.37
9530.00,0.37
9529.00,0.38
9528.00,0.38
9527.00,0.39
9526.00,0.39
9525.00,0.40
9524.00,0.40
9523.00,0.41
9522.00,0.41
9521.00,0.42
9520.00,0.43
9519.00,0.43
9518.00,0.44
9517.00,0.45
9516.00,0.46
9515.00,0.46
9514.00,0.47
9513.00,0.48
9512.00,0.48
9511.00,0.49
9510.00,0.50
9509.00,0.51
9508.00,0.51
9507.00,0.52
9506.00,0.53
9505.00,0.53
9504.00,0.54
9503.00,0.54
9502.00,0.55
9501.00,0.55
9500.00,0.55
9499.00,0.56
9498.00,0.56
9497.00,0.56
9496.00,0.56
9495.00,0.56
9494.00,0.56
9493.00,0.56
9492.00,0.56
9491.00,0.56
9490.00,0.56
9489.00,0.55
9488.00,0.55
9487.00,0.55
9486.00,0.54
9485.00,0.54
9484.00,0.54
9483.00,0.53
9482.00,0.53
9481.00,0.53
9480.00,0.52
9479.00,0.52
9478.00,0.52
9477.00,0.51
9476.00,0.51
9475.00,0.51
9474.00,0.51
9473.00,0.50
9472.00,0.50
9471.00,0.50
9470.00,0.50
9469.00,0.50
9468.00,0.49
9467.00,0.49
9466.00,0.49
9465.00,0.49
9464.00,0.49
9463.00,0.49
9462.00,0.49
9461.00,0.49
9460.00,0.49
9459.00,0.49
9458.00,0.49
9457.00,0.48
9456.00,0.48
9455.00,0.48
9454.00,0.48
9453.00,0.48
9452.00,0.48
9451.00,0.48
9450.00,0.48
9449.00,0.48
9448.00,0.47
9447.00,0.47
9446.00,0.47
9445.00,0.47
9444.00,0.47
9443.00,0.47
9442.00,0.47
9441.00,0.47
9440.00,0.47
9439.00,0.47
9438.00,0.48
9437.00,0.48
9436.00,0.48
9435.00,0.48
9434.00,0.48
9433.00,0.48
9432.00,0.48
9431.00,0.48
9430.00,0.48
9429.00,0.48
9428.00,0.48
9427.00,0.48
9426.00,0.48
9425.00,0.48
9424.00,0.48
9423.00,0.48
9422.00,0.48
9421.00,0.48
9420.00,0.48
9419.00,0.48
9418.00,0.48
9417.00,0.48
9416.00,0.48
9415.00,0.48
9414.00,0.47
9413.00,0.47
9412.00,0.47
9411.00,0.47
9410.00,0.47
9409.00,0.47
9408.00,0.47
9407.00,0.47
9406.00,0.47
9405.00,0.46
9404.00,0.46
9403.00,0.46
9402.00,0.46
9401.00,0.46
9400.00,0.46
9399.00,0.46
9398.00,0.45
9397.00,0.45
9396.00,0.45
9395.00,0.45
9394.00,0.45
9393.00,0.44
9392.00,0.44
9391.00,0.44
9390.00,0.44
9389.00,0.43
9388.00,0.43
9387.00,0.43
9386.00,0.43
9385.00,0.42
9384.00,0.42
9383.00,0.42
9382.00,0.42
9381.00,0.42
9380.00,0.41
9379.00,0.41
9378.00,0.42
9377.00,0.42
9376.00,0.42
9375.00,0.42
9374.00,0.42
9373.00,0.43
9372.00,0.43
9371.00,0.44
9370.00,0.44
9369.00,0.44
9368.00,0.44
9367.00,0.45
9366.00,0.45
9365.00,0.45
9364.00,0.45
9363.00,0.46
9362.00,0.46
9361.00,0.46
9360.00,0.47
9359.00,0.47
9358.00,0.47
9357.00,0.48
9356.00,0.48
9355.00,0.48
9354.00,0.48
9353.00,0.49
9352.00,0.49
9351.00,0.49
9350.00,0.49
9349.00,0.49
9348.00,0.48
9347.00,0.48
9346.00,0.48
9345.00,0.48
9344.00,0.48
9343.00,0.48
9342.00,0.48
9341.00,0.48
9340.00,0.48
9339.00,0.48
9338.00,0.48
9337.00,0.49
9336.00,0.49
9335.00,0.49
9334.00,0.49
9333.00,0.48
9332.00,0.48
9331.00,0.48
9330.00,0.48
9329.00,0.48
9328.00,0.48
9327.00,0.48
9326.00,0.48
9325.00,0.48
9324.00,0.48
9323.00,0.48
9322.00,0.48
9321.00,0.48
9320.00,0.48
9319.00,0.49
9318.00,0.49
9317.00,0.49
9316.00,0.49
9315.00,0.49
9314.00,0.49
9313.00,0.49
9312.00,0.49
9311.00,0.49
9310.00,0.49
9309.00,0.49
9308.00,0.50
9307.00,0.50
9306.00,0.50
9305.00,0.50
9304.00,0.51
9303.00,0.51
9302.00,0.51
9301.00,0.51
9300.00,0.52
9299.00,0.52
9298.00,0.52
9297.00,0.52
9296.00,0.52
9295.00,0.52
9294.00,0.52
9293.00,0.51
9292.00,0.51
9291.00,0.51
9290.00,0.51
9289.00,0.51
9288.00,0.52
9287.00,0.52
9286.00,0.52
9285.00,0.52
9284.00,0.52
9283.00,0.52
9282.00,0.52
9281.00,0.52
9280.00,0.51
9279.00,0.51
9278.00,0.51
9277.00,0.51
9276.00,0.51
9275.00,0.51
9274.00,0.51
9273.00,0.51
9272.00,0.51
9271.00,0.51
9270.00,0.51
9269.00,0.51
9268.00,0.51
9267.00,0.51
9266.00,0.51
9265.00,0.51
9264.00,0.51
9263.00,0.50
9262.00,0.50
9261.00,0.50
9260.00,0.50
9259.00,0.50
9258.00,0.50
9257.00,0.50
9256.00,0.50
9255.00,0.50
9254.00,0.49
9253.00,0.49
9252.00,0.49
9251.00,0.49
9250.00,0.49
9249.00,0.49
9248.00,0.49
9247.00,0.49
9246.00,0.49
9245.00,0.49
9244.00,0.49
9243.00,0.49
9242.00,0.50
9241.00,0.50
9240.00,0.50
9239.00,0.51
9238.00,0.51
9237.00,0.51
9236.00,0.52
9235.00,0.52
9234.00,0.53
9233.00,0.53
9232.00,0.54
9231.00,0.54
9230.00,0.55
9229.00,0.55
9228.00,0.56
9227.00,0.56
9226.00,0.56
9225.00,0.57
9224.00,0.57
9223.00,0.58
9222.00,0.58
9221.00,0.58
9220.00,0.58
9219.00,0.59
9218.00,0.59
9217.00,0.58
9216.00,0.58
9215.00,0.58
9214.00,0.58
9213.00,0.57
9212.00,0.57
9211.00,0.56
9210.00,0.55
9209.00,0.55
9208.00,0.54
9207.00,0.53
9206.00,0.52
9205.00,0.52
9204.00,0.51
9203.00,0.51
9202.00,0.50
9201.00,0.49
9200.00,0.49
9199.00,0.48
9198.00,0.48
9197.00,0.48
9196.00,0.47
9195.00,0.47
9194.00,0.47
9193.00,0.47
9192.00,0.46
9191.00,0.47
9190.00,0.47
9189.00,0.47
9188.00,0.47
9187.00,0.48
9186.00,0.48
9185.00,0.49
9184.00,0.50
9183.00,0.50
9182.00,0.51
9181.00,0.51
9180.00,0.52
9179.00,0.52
9178.00,0.53
9177.00,0.53
9176.00,0.53
9175.00,0.54
9174.00,0.54
9173.00,0.54
9172.00,0.54
9171.00,0.54
9170.00,0.54
9169.00,0.54
9168.00,0.54
9167.00,0.54
9166.00,0.54
9165.00,0.54
9164.00,0.53
9163.00,0.53
9162.00,0.53
9161.00,0.52
9160.00,0.52
9159.00,0.51
9158.00,0.50
9157.00,0.50
9156.00,0.49
9155.00,0.49
9154.00,0.48
9153.00,0.48
9152.00,0.48
9151.00,0.48
9150.00,0.47
9149.00,0.47
9148.00,0.47
9147.00,0.47
9146.00,0.47
9145.00,0.48
9144.00,0.48
9143.00,0.48
9142.00,0.48
9141.00,0.48
9140.00,0.48
9139.00,0.49
9138.00,0.49
9137.00,0.49
9136.00,0.49
9135.00,0.50
9134.00,0.50
9133.00,0.51
9132.00,0.51
9131.00,0.52
9130.00,0.52
9129.00,0.53
9128.00,0.53
9127.00,0.54
9126.00,0.54
9125.00,0.55
9124.00,0.55
9123.00,0.55
9122.00,0.56
9121.00,0.56
9120.00,0.56
9119.00,0.56
9118.00,0.57
9117.00,0.57
9116.00,0.57
9115.00,0.57
9114.00,0.57
9113.00,0.57
9112.00,0.57
9111.00,0.57
9110.00,0.57
9109.00,0.57
9108.00,0.57
9107.00,0.57
9106.00,0.57
9105.00,0.57
9104.00,0.57
9103.00,0.57
9102.00,0.57
9101.00,0.57
9100.00,0.56
9099.00,0.56
9098.00,0.56
9097.00,0.56
9096.00,0.55
9095.00,0.55
9094.00,0.55
9093.00,0.55
9092.00,0.55
9091.00,0.55
9090.00,0.55
9089.00,0.55
9088.00,0.55
9087.00,0.55
9086.00,0.55
9085.00,0.55
9084.00,0.55
9083.00,0.55
9082.00,0.55
9081.00,0.55
9080.00,0.55
9079.00,0.55
9078.00,0.55
9077.00,0.55
9076.00,0.55
9075.00,0.55
9074.00,0.55
9073.00,0.55
9072.00,0.55
9071.00,0.55
9070.00,0.55
9069.00,0.55
9068.00,0.54
9067.00,0.54
9066.00,0.54
9065.00,0.53
9064.00,0.53
9063.00,0.52
9062.00,0.52
9061.00,0.51
9060.00,0.50
9059.00,0.50
9058.00,0.49
9057.00,0.49
9056.00,0.48
9055.00,0.47
9054.00,0.47
9053.00,0.46
9052.00,0.45
9051.00,0.45
9050.00,0.44
9049.00,0.43
9048.00,0.43
9047.00,0.43
9046.00,0.42
9045.00,0.42
9044.00,0.42
9043.00,0.41
9042.00,0.41
9041.00,0.41
9040.00,0.41
9039.00,0.41
9038.00,0.41
9037.00,0.41
9036.00,0.41
9035.00,0.41
9034.00,0.41
9033.00,0.41
9032.00,0.41
9031.00,0.41
9030.00,0.41
9029.00,0.41
9028.00,0.42
9027.00,0.42
9026.00,0.42
9025.00,0.43
9024.00,0.43
9023.00,0.43
9022.00,0.44
9021.00,0.44
9020.00,0.44
9019.00,0.45
9018.00,0.45
9017.00,0.45
9016.00,0.45
9015.00,0.45
9014.00,0.45
9013.00,0.46
9012.00,0.46
9011.00,0.46
9010.00,0.46
9009.00,0.47
9008.00,0.47
9007.00,0.47
9006.00,0.48
9005.00,0.48
9004.00,0.48
9003.00,0.49
9002.00,0.49
9001.00,0.49
9000.00,0.50
8999.00,0.50
8998.00,0.50
8997.00,0.50
8996.00,0.50
8995.00,0.50
8994.00,0.51
8993.00,0.51
8992.00,0.51
8991.00,0.51
8990.00,0.52
8989.00,0.52
8988.00,0.52
8987.00,0.53
8986.00,0.53
8985.00,0.54
8984.00,0.54
8983.00,0.54
8982.00,0.54
8981.00,0.54
8980.00,0.55
8979.00,0.55
8978.00,0.55
8977.00,0.55
8976.00,0.55
8975.00,0.55
8974.00,0.55
8973.00,0.55
8972.00,0.55
8971.00,0.55
8970.00,0.55
8969.00,0.55
8968.00,0.55
8967.00,0.55
8966.00,0.55
8965.00,0.55
8964.00,0.55
8963.00,0.54
8962.00,0.54
8961.00,0.54
8960.00,0.54
8959.00,0.53
8958.00,0.53
8957.00,0.53
8956.00,0.53
8955.00,0.53
8954.00,0.53
8953.00,0.53
8952.00,0.53
8951.00,0.53
8950.00,0.53
8949.00,0.53
8948.00,0.52
8947.00,0.52
8946.00,0.52
8945.00,0.52
8944.00,0.52
8943.00,0.52
8942.00,0.52
8941.00,0.52
8940.00,0.52
8939.00,0.52
8938.00,0.52
8937.00,0.52
8936.00,0.52
8935.00,0.52
8934.00,0.52
8933.00,0.52
8932.00,0.52
8931.00,0.52
8930.00,0.51
8929.00,0.51
8928.00,0.51
8927.00,0.51
8926.00,0.51
8925.00,0.51
8924.00,0.51
8923.00,0.50
8922.00,0.50
8921.00,0.51
8920.00,0.51
8919.00,0.51
8918.00,0.51
8917.00,0.51
8916.00,0.51
8915.00,0.52
8914.00,0.52
8913.00,0.52
8912.00,0.52
8911.00,0.53
8910.00,0.53
8909.00,0.53
8908.00,0.53
8907.00,0.54
8906.00,0.54
8905.00,0.54
8904.00,0.54
8903.00,0.54
8902.00,0.55
8901.00,0.55
8900.00,0.55
8899.00,0.55
8898.00,0.55
8897.00,0.55
8896.00,0.54
8895.00,0.54
8894.00,0.54
8893.00,0.53
8892.00,0.53
8891.00,0.52
8890.00,0.52
8889.00,0.51
8888.00,0.51
8887.00,0.50
8886.00,0.50
8885.00,0.49
8884.00,0.49
8883.00,0.48
8882.00,0.47
8881.00,0.47
8880.00,0.46
8879.00,0.46
8878.00,0.45
8877.00,0.45
8876.00,0.44
8875.00,0.44
8874.00,0.44
8873.00,0.43
8872.00,0.43
8871.00,0.43
8870.00,0.43
8869.00,0.43
8868.00,0.43
8867.00,0.43
8866.00,0.44
8865.00,0.44
8864.00,0.44
8863.00,0.45
8862.00,0.45
8861.00,0.45
8860.00,0.46
8859.00,0.46
8858.00,0.46
8857.00,0.46
8856.00,0.47
8855.00,0.47
8854.00,0.47
8853.00,0.48
8852.00,0.48
8851.00,0.48
8850.00,0.49
8849.00,0.49
8848.00,0.49
8847.00,0.50
8846.00,0.50
8845.00,0.50
8844.00,0.50
8843.00,0.51
8842.00,0.51
8841.00,0.51
8840.00,0.51
8839.00,0.51
8838.00,0.50
8837.00,0.50
8836.00,0.50
8835.00,0.50
8834.00,0.50
8833.00,0.50
8832.00,0.49
8831.00,0.49
8830.00,0.49
8829.00,0.49
8828.00,0.49
8827.00,0.49
8826.00,0.49
8825.00,0.48
8824.00,0.48
8823.00,0.48
8822.00,0.48
8821.00,0.48
8820.00,0.47
8819.00,0.47
8818.00,0.47
8817.00,0.46
8816.00,0.46
8815.00,0.46
8814.00,0.46
8813.00,0.45
8812.00,0.45
8811.00,0.45
8810.00,0.45
8809.00,0.45
8808.00,0.45
8807.00,0.46
8806.00,0.46
8805.00,0.46
8804.00,0.46
8803.00,0.46
8802.00,0.47
8801.00,0.47
8800.00,0.47
8799.00,0.47
8798.00,0.48
8797.00,0.48
8796.00,0.49
8795.00,0.49
8794.00,0.50
8793.00,0.50
8792.00,0.51
8791.00,0.52
8790.00,0.52
8789.00,0.53
8788.00,0.54
8787.00,0.55
8786.00,0.56
8785.00,0.57
8784.00,0.57
8783.00,0.58
8782.00,0.59
8781.00,0.59
8780.00,0.60
8779.00,0.60
8778.00,0.61
8777.00,0.61
8776.00,0.61
8775.00,0.62
8774.00,0.62
8773.00,0.62
8772.00,0.62
8771.00,0.63
8770.00,0.63
8769.00,0.63
8768.00,0.63
8767.00,0.63
8766.00,0.63
8765.00,0.63
8764.00,0.62
8763.00,0.62
8762.00,0.61
8761.00,0.61
8760.00,0.60
8759.00,0.59
8758.00,0.59
8757.00,0.58
8756.00,0.58
8755.00,0.57
8754.00,0.57
8753.00,0.56
8752.00,0.56
8751.00,0.55
8750.00,0.55
8749.00,0.55
8748.00,0.54
8747.00,0.54
8746.00,0.54
8745.00,0.54
8744.00,0.54
8743.00,0.54
8742.00,0.54
8741.00,0.54
8740.00,0.54
8739.00,0.54
8738.00,0.54
8737.00,0.55
8736.00,0.55
8735.00,0.56
8734.00,0.56
8733.00,0.57
8732.00,0.57
8731.00,0.57
8730.00,0.58
8729.00,0.58
8728.00,0.58
8727.00,0.59
8726.00,0.59
8725.00,0.59
8724.00,0.59
8723.00,0.59
8722.00,0.59
8721.00,0.59
8720.00,0.59
8719.00,0.59
8718.00,0.59
8717.00,0.58
8716.00,0.58
8715.00,0.58
8714.00,0.57
8713.00,0.57
8712.00,0.56
8711.00,0.56
8710.00,0.55
8709.00,0.55
8708.00,0.54
8707.00,0.54
8706.00,0.54
8705.00,0.53
8704.00,0.53
8703.00,0.53
8702.00,0.53
8701.00,0.52
8700.00,0.52
8699.00,0.52
8698.00,0.52
8697.00,0.52
8696.00,0.51
8695.00,0.51
8694.00,0.51
8693.00,0.51
8692.00,0.51
8691.00,0.51
8690.00,0.52
8689.00,0.52
8688.00,0.52
8687.00,0.52
8686.00,0.52
8685.00,0.52
8684.00,0.52
8683.00,0.52
8682.00,0.52
8681.00,0.52
8680.00,0.52
8679.00,0.52
8678.00,0.51
8677.00,0.51
8676.00,0.50
8675.00,0.50
8674.00,0.50
8673.00,0.50
8672.00,0.49
8671.00,0.49
8670.00,0.49
8669.00,0.49
8668.00,0.49
8667.00,0.49
8666.00,0.49
8665.00,0.49
8664.00,0.49
8663.00,0.49
8662.00,0.49
8661.00,0.49
8660.00,0.50
8659.00,0.50
8658.00,0.50
8657.00,0.50
8656.00,0.50
8655.00,0.51
8654.00,0.51
8653.00,0.52
8652.00,0.52
8651.00,0.53
8650.00,0.53
8649.00,0.54
8648.00,0.54
8647.00,0.54
8646.00,0.55
8645.00,0.55
8644.00,0.56
8643.00,0.56
8642.00,0.56
8641.00,0.56
8640.00,0.56
8639.00,0.57
8638.00,0.57
8637.00,0.57
8636.00,0.57
8635.00,0.57
8634.00,0.57
8633.00,0.57
8632.00,0.58
8631.00,0.58
8630.00,0.58
8629.00,0.58
8628.00,0.58
8627.00,0.58
8626.00,0.58
8625.00,0.58
8624.00,0.58
8623.00,0.58
8622.00,0.58
8621.00,0.58
8620.00,0.58
8619.00,0.59
8618.00,0.59
8617.00,0.59
8616.00,0.59
8615.00,0.59
8614.00,0.59
8613.00,0.59
8612.00,0.59
8611.00,0.59
8610.00,0.59
8609.00,0.59
8608.00,0.59
8607.00,0.59
8606.00,0.59
8605.00,0.59
8604.00,0.59
8603.00,0.59
8602.00,0.59
8601.00,0.59
8600.00,0.59
8599.00,0.58
8598.00,0.58
8597.00,0.58
8596.00,0.58
8595.00,0.58
8594.00,0.58
8593.00,0.57
8592.00,0.57
8591.00,0.57
8590.00,0.57
8589.00,0.56
8588.00,0.56
8587.00,0.56
8586.00,0.56
8585.00,0.56
8584.00,0.56
8583.00,0.56
8582.00,0.56
8581.00,0.56
8580.00,0.56
8579.00,0.56
8578.00,0.56
8577.00,0.56
8576.00,0.56
8575.00,0.56
8574.00,0.56
8573.00,0.56
8572.00,0.56
8571.00,0.56
8570.00,0.56
8569.00,0.57
8568.00,0.57
8567.00,0.57
8566.00,0.57
8565.00,0.58
8564.00,0.58
8563.00,0.58
8562.00,0.58
8561.00,0.58
8560.00,0.58
8559.00,0.59
8558.00,0.59
8557.00,0.59
8556.00,0.58
8555.00,0.58
8554.00,0.58
8553.00,0.58
8552.00,0.58
8551.00,0.58
8550.00,0.58
8549.00,0.58
8548.00,0.57
8547.00,0.57
8546.00,0.57
8545.00,0.57
8544.00,0.57
8543.00,0.56
8542.00,0.56
8541.00,0.55
8540.00,0.55
8539.00,0.54
8538.00,0.54
8537.00,0.53
8536.00,0.53
8535.00,0.52
8534.00,0.52
8533.00,0.51
8532.00,0.51
8531.00,0.50
8530.00,0.50
8529.00,0.50
8528.00,0.49
8527.00,0.49
8526.00,0.48
8525.00,0.48
8524.00,0.48
8523.00,0.47
8522.00,0.47
8521.00,0.47
8520.00,0.46
8519.00,0.46
8518.00,0.46
8517.00,0.45
8516.00,0.45
8515.00,0.45
8514.00,0.45
8513.00,0.45
8512.00,0.45
8511.00,0.45
8510.00,0.45
8509.00,0.45
8508.00,0.45
8507.00,0.45
8506.00,0.45
8505.00,0.45
8504.00,0.45
8503.00,0.46
8502.00,0.46
8501.00,0.46
8500.00,0.46
8499.00,0.46
8498.00,0.46
8497.00,0.47
8496.00,0.47
8495.00,0.47
8494.00,0.47
8493.00,0.47
8492.00,0.48
8491.00,0.48
8490.00,0.48
8489.00,0.48
8488.00,0.48
8487.00,0.49
8486.00,0.49
8485.00,0.49
8484.00,0.49
8483.00,0.49
8482.00,0.49
8481.00,0.49
8480.00,0.49
8479.00,0.50
8478.00,0.50
8477.00,0.50
8476.00,0.50
8475.00,0.50
8474.00,0.51
8473.00,0.51
8472.00,0.51
8471.00,0.51
8470.00,0.52
8469.00,0.52
8468.00,0.52
8467.00,0.53
8466.00,0.53
8465.00,0.54
8464.00,0.54
8463.00,0.54
8462.00,0.55
8461.00,0.55
8460.00,0.55
8459.00,0.56
8458.00,0.56
8457.00,0.56
8456.00,0.56
8455.00,0.57
8454.00,0.57
8453.00,0.57
8452.00,0.57
8451.00,0.58
8450.00,0.58
8449.00,0.58
8448.00,0.58
8447.00,0.58
8446.00,0.58
8445.00,0.58
8444.00,0.58
8443.00,0.58
8442.00,0.58
8441.00,0.58
8440.00,0.58
8439.00,0.58
8438.00,0.58
8437.00,0.58
8436.00,0.58
8435.00,0.58
8434.00,0.58
8433.00,0.59
8432.00,0.59
8431.00,0.59
8430.00,0.59
8429.00,0.59
8428.00,0.59
8427.00,0.59
8426.00,0.59
8425.00,0.59
8424.00,0.59
8423.00,0.59
8422.00,0.59
8421.00,0.59
8420.00,0.59
8419.00,0.59
8418.00,0.59
8417.00,0.59
8416.00,0.59
8415.00,0.59
8414.00,0.59
8413.00,0.59
8412.00,0.59
8411.00,0.59
8410.00,0.58
8409.00,0.58
8408.00,0.58
8407.00,0.58
8406.00,0.57
8405.00,0.57
8404.00,0.57
8403.00,0.56
8402.00,0.56
8401.00,0.56
8400.00,0.55
8399.00,0.55
8398.00,0.55
8397.00,0.54
8396.00,0.54
8395.00,0.54
8394.00,0.54
8393.00,0.53
8392.00,0.53
8391.00,0.53
8390.00,0.52
8389.00,0.52
8388.00,0.52
8387.00,0.52
8386.00,0.52
8385.00,0.51
8384.00,0.51
8383.00,0.51
8382.00,0.51
8381.00,0.51
8380.00,0.50
8379.00,0.50
8378.00,0.50
8377.00,0.50
8376.00,0.50
8375.00,0.50
8374.00,0.50
8373.00,0.50
8372.00,0.49
8371.00,0.49
8370.00,0.49
8369.00,0.49
8368.00,0.49
8367.00,0.49
8366.00,0.49
8365.00,0.49
8364.00,0.49
8363.00,0.50
8362.00,0.50
8361.00,0.50
8360.00,0.50
8359.00,0.50
8358.00,0.50
8357.00,0.50
8356.00,0.50
8355.00,0.50
8354.00,0.50
8353.00,0.50
8352.00,0.50
8351.00,0.50
8350.00,0.50
8349.00,0.51
8348.00,0.51
8347.00,0.51
8346.00,0.51
8345.00,0.51
8344.00,0.52
8343.00,0.52
8342.00,0.52
8341.00,0.52
8340.00,0.52
8339.00,0.53
8338.00,0.53
8337.00,0.53
8336.00,0.54
8335.00,0.54
8334.00,0.54
8333.00,0.55
8332.00,0.55
8331.00,0.55
8330.00,0.56
8329.00,0.56
8328.00,0.57
8327.00,0.57
8326.00,0.57
8325.00,0.58
8324.00,0.58
8323.00,0.58
8322.00,0.59
8321.00,0.59
8320.00,0.59
8319.00,0.59
8318.00,0.60
8317.00,0.60
8316.00,0.60
8315.00,0.60
8314.00,0.60
8313.00,0.60
8312.00,0.60
8311.00,0.60
8310.00,0.60
8309.00,0.60
8308.00,0.60
8307.00,0.60
8306.00,0.59
8305.00,0.59
8304.00,0.59
8303.00,0.59
8302.00,0.59
8301.00,0.58
8300.00,0.58
8299.00,0.58
8298.00,0.58
8297.00,0.57
8296.00,0.57
8295.00,0.57
8294.00,0.57
8293.00,0.57
8292.00,0.56
8291.00,0.56
8290.00,0.56
8289.00,0.56
8288.00,0.56
8287.00,0.55
8286.00,0.55
8285.00,0.55
8284.00,0.55
8283.00,0.55
8282.00,0.55
8281.00,0.55
8280.00,0.55
8279.00,0.54
8278.00,0.54
8277.00,0.54
8276.00,0.54
8275.00,0.54
8274.00,0.54
8273.00,0.54
8272.00,0.54
8271.00,0.54
8270.00,0.54
8269.00,0.54
8268.00,0.54
8267.00,0.54
8266.00,0.53
8265.00,0.53
8264.00,0.53
8263.00,0.53
8262.00,0.53
8261.00,0.53
8260.00,0.53
8259.00,0.52
8258.00,0.52
8257.00,0.52
8256.00,0.52
8255.00,0.52
8254.00,0.52
8253.00,0.52
8252.00,0.51
8251.00,0.51
8250.00,0.51
8249.00,0.50
8248.00,0.50
8247.00,0.50
8246.00,0.50
8245.00,0.50
8244.00,0.50
8243.00,0.50
8242.00,0.50
8241.00,0.50
8240.00,0.50
8239.00,0.50
8238.00,0.50
8237.00,0.50
8236.00,0.50
8235.00,0.50
8234.00,0.50
8233.00,0.50
8232.00,0.50
8231.00,0.50
8230.00,0.50
8229.00,0.50
8228.00,0.51
8227.00,0.51
8226.00,0.51
8225.00,0.51
8224.00,0.52
8223.00,0.52
8222.00,0.52
8221.00,0.53
8220.00,0.53
8219.00,0.53
8218.00,0.54
8217.00,0.54
8216.00,0.54
8215.00,0.54
8214.00,0.55
8213.00,0.55
8212.00,0.55
8211.00,0.55
8210.00,0.55
8209.00,0.55
8208.00,0.55
8207.00,0.55
8206.00,0.55
8205.00,0.55
8204.00,0.55
8203.00,0.55
8202.00,0.55
8201.00,0.55
8200.00,0.55
8199.00,0.55
8198.00,0.55
8197.00,0.55
8196.00,0.55
8195.00,0.55
8194.00,0.55
8193.00,0.55
8192.00,0.55
8191.00,0.55
8190.00,0.55
8189.00,0.55
8188.00,0.56
8187.00,0.56
8186.00,0.56
8185.00,0.56
8184.00,0.56
8183.00,0.56
8182.00,0.56
8181.00,0.56
8180.00,0.56
8179.00,0.56
8178.00,0.56
8177.00,0.56
8176.00,0.56
8175.00,0.56
8174.00,0.56
8173.00,0.56
8172.00,0.56
8171.00,0.56
8170.00,0.56
8169.00,0.56
8168.00,0.56
8167.00,0.56
8166.00,0.56
8165.00,0.56
8164.00,0.56
8163.00,0.56
8162.00,0.56
8161.00,0.56
8160.00,0.56
8159.00,0.56
8158.00,0.56
8157.00,0.57
8156.00,0.57
8155.00,0.57
8154.00,0.57
8153.00,0.57
8152.00,0.58
8151.00,0.58
8150.00,0.58
8149.00,0.58
8148.00,0.59
8147.00,0.59
8146.00,0.59
8145.00,0.59
8144.00,0.59
8143.00,0.59
8142.00,0.59
8141.00,0.59
8140.00,0.59
8139.00,0.59
8138.00,0.59
8137.00,0.59
8136.00,0.59
8135.00,0.58
8134.00,0.58
8133.00,0.58
8132.00,0.58
8131.00,0.58
8130.00,0.58
8129.00,0.57
8128.00,0.57
8127.00,0.57
8126.00,0.57
8125.00,0.56
8124.00,0.56
8123.00,0.56
8122.00,0.56
8121.00,0.55
8120.00,0.55
8119.00,0.55
8118.00,0.55
8117.00,0.54
8116.00,0.54
8115.00,0.54
8114.00,0.54
8113.00,0.54
8112.00,0.54
8111.00,0.54
8110.00,0.54
8109.00,0.54
8108.00,0.55
8107.00,0.55
8106.00,0.55
8105.00,0.55
8104.00,0.55
8103.00,0.55
8102.00,0.55
8101.00,0.55
8100.00,0.55
8099.00,0.55
8098.00,0.55
8097.00,0.55
8096.00,0.55
8095.00,0.55
8094.00,0.55
8093.00,0.55
8092.00,0.55
8091.00,0.55
8090.00,0.55
8089.00,0.55
8088.00,0.55
8087.00,0.55
8086.00,0.55
8085.00,0.54
8084.00,0.54
8083.00,0.54
8082.00,0.54
8081.00,0.53
8080.00,0.53
8079.00,0.53
8078.00,0.52
8077.00,0.52
8076.00,0.52
8075.00,0.52
8074.00,0.52
8073.00,0.52
8072.00,0.52
8071.00,0.52
8070.00,0.52
8069.00,0.52
8068.00,0.52
8067.00,0.52
8066.00,0.53
8065.00,0.53
8064.00,0.53
8063.00,0.53
8062.00,0.53
8061.00,0.53
8060.00,0.53
8059.00,0.54
8058.00,0.54
8057.00,0.54
8056.00,0.54
8055.00,0.54
8054.00,0.55
8053.00,0.55
8052.00,0.55
8051.00,0.55
8050.00,0.55
8049.00,0.55
8048.00,0.55
8047.00,0.55
8046.00,0.55
8045.00,0.55
8044.00,0.55
8043.00,0.55
8042.00,0.55
8041.00,0.55
8040.00,0.55
8039.00,0.55
8038.00,0.55
8037.00,0.55
8036.00,0.54
8035.00,0.54
8034.00,0.54
8033.00,0.54
8032.00,0.54
8031.00,0.54
8030.00,0.54
8029.00,0.54
8028.00,0.55
8027.00,0.55
8026.00,0.55
8025.00,0.55
8024.00,0.55
8023.00,0.55
8022.00,0.55
8021.00,0.55
8020.00,0.55
8019.00,0.56
8018.00,0.56
8017.00,0.56
8016.00,0.56
8015.00,0.56
8014.00,0.56
8013.00,0.56
8012.00,0.56
8011.00,0.56
8010.00,0.56
8009.00,0.56
8008.00,0.56
8007.00,0.56
8006.00,0.56
8005.00,0.56
8004.00,0.56
8003.00,0.56
8002.00,0.56
8001.00,0.56
8000.00,0.56
7999.00,0.55
7998.00,0.55
7997.00,0.55
7996.00,0.55
7995.00,0.55
7994.00,0.55
7993.00,0.54
7992.00,0.54
7991.00,0.54
7990.00,0.54
7989.00,0.54
7988.00,0.54
7987.00,0.54
7986.00,0.54
7985.00,0.54
7984.00,0.54
7983.00,0.54
7982.00,0.54
7981.00,0.54
7980.00,0.54
7979.00,0.54
7978.00,0.54
7977.00,0.54
7976.00,0.54
7975.00,0.55
7974.00,0.55
7973.00,0.55
7972.00,0.55
7971.00,0.56
7970.00,0.56
7969.00,0.56
7968.00,0.57
7967.00,0.57
7966.00,0.57
7965.00,0.58
7964.00,0.58
7963.00,0.58
7962.00,0.58
7961.00,0.59
7960.00,0.59
7959.00,0.59
7958.00,0.59
7957.00,0.59
7956.00,0.59
7955.00,0.59
7954.00,0.59
7953.00,0.59
7952.00,0.59
7951.00,0.59
7950.00,0.58
7949.00,0.58
7948.00,0.58
7947.00,0.58
7946.00,0.58
7945.00,0.57
7944.00,0.57
7943.00,0.57
7942.00,0.57
7941.00,0.56
7940.00,0.56
7939.00,0.56
7938.00,0.55
7937.00,0.55
7936.00,0.55
7935.00,0.54
7934.00,0.54
7933.00,0.54
7932.00,0.54
7931.00,0.54
7930.00,0.54
7929.00,0.54
7928.00,0.54
7927.00,0.54
7926.00,0.54
7925.00,0.55
7924.00,0.55
7923.00,0.55
7922.00,0.56
7921.00,0.56
7920.00,0.56
7919.00,0.56
7918.00,0.57
7917.00,0.57
7916.00,0.58
7915.00,0.58
7914.00,0.59
7913.00,0.59
7912.00,0.59
7911.00,0.60
7910.00,0.60
7909.00,0.61
7908.00,0.61
7907.00,0.62
7906.00,0.62
7905.00,0.62
7904.00,0.63
7903.00,0.63
7902.00,0.63
7901.00,0.63
7900.00,0.63
7899.00,0.63
7898.00,0.62
7897.00,0.62
7896.00,0.62
7895.00,0.62
7894.00,0.62
7893.00,0.61
7892.00,0.61
7891.00,0.61
7890.00,0.61
7889.00,0.60
7888.00,0.60
7887.00,0.59
7886.00,0.59
7885.00,0.59
7884.00,0.58
7883.00,0.58
7882.00,0.58
7881.00,0.57
7880.00,0.57
7879.00,0.57
7878.00,0.57
7877.00,0.57
7876.00,0.57
7875.00,0.57
7874.00,0.57
7873.00,0.57
7872.00,0.57
7871.00,0.57
7870.00,0.57
7869.00,0.58
7868.00,0.58
7867.00,0.58
7866.00,0.59
7865.00,0.59
7864.00,0.59
7863.00,0.60
7862.00,0.60
7861.00,0.60
7860.00,0.61
7859.00,0.61
7858.00,0.61
7857.00,0.62
7856.00,0.62
7855.00,0.62
7854.00,0.62
7853.00,0.63
7852.00,0.63
7851.00,0.63
7850.00,0.63
7849.00,0.63
7848.00,0.63
7847.00,0.63
7846.00,0.63
7845.00,0.63
7844.00,0.63
7843.00,0.63
7842.00,0.63
7841.00,0.63
7840.00,0.63
7839.00,0.63
7838.00,0.62
7837.00,0.62
7836.00,0.62
7835.00,0.62
7834.00,0.61
7833.00,0.61
7832.00,0.61
7831.00,0.60
7830.00,0.60
7829.00,0.60
7828.00,0.59
7827.00,0.59
7826.00,0.59
7825.00,0.59
7824.00,0.58
7823.00,0.58
7822.00,0.58
7821.00,0.58
7820.00,0.57
7819.00,0.57
7818.00,0.57
7817.00,0.57
7816.00,0.57
7815.00,0.56
7814.00,0.56
7813.00,0.56
7812.00,0.56
7811.00,0.56
7810.00,0.56
7809.00,0.56
7808.00,0.56
7807.00,0.56
7806.00,0.56
7805.00,0.56
7804.00,0.56
7803.00,0.56
7802.00,0.56
7801.00,0.56
7800.00,0.56
7799.00,0.57
7798.00,0.57
7797.00,0.57
7796.00,0.57
7795.00,0.57
7794.00,0.57
7793.00,0.57
7792.00,0.58
7791.00,0.58
7790.00,0.58
7789.00,0.58
7788.00,0.58
7787.00,0.58
7786.00,0.58
7785.00,0.59
7784.00,0.59
7783.00,0.59
7782.00,0.59
7781.00,0.59
7780.00,0.59
7779.00,0.59
7778.00,0.59
7777.00,0.59
7776.00,0.59
7775.00,0.59
7774.00,0.59
7773.00,0.59
7772.00,0.59
7771.00,0.59
7770.00,0.59
7769.00,0.59
7768.00,0.60
7767.00,0.60
7766.00,0.60
7765.00,0.60
7764.00,0.60
7763.00,0.60
7762.00,0.60
7761.00,0.60
7760.00,0.60
7759.00,0.60
7758.00,0.60
7757.00,0.60
7756.00,0.61
7755.00,0.61
7754.00,0.61
7753.00,0.61
7752.00,0.61
7751.00,0.61
7750.00,0.61
7749.00,0.61
7748.00,0.61
7747.00,0.61
7746.00,0.61
7745.00,0.61
7744.00,0.61
7743.00,0.61
7742.00,0.61
7741.00,0.61
7740.00,0.61
7739.00,0.61
7738.00,0.61
7737.00,0.61
7736.00,0.60
7735.00,0.60
7734.00,0.60
7733.00,0.60
7732.00,0.60
7731.00,0.60
7730.00,0.59
7729.00,0.59
7728.00,0.59
7727.00,0.59
7726.00,0.59
7725.00,0.59
7724.00,0.58
7723.00,0.58
7722.00,0.58
7721.00,0.58
7720.00,0.58
7719.00,0.57
7718.00,0.57
7717.00,0.57
7716.00,0.57
7715.00,0.57
7714.00,0.57
7713.00,0.57
7712.00,0.57
7711.00,0.57
7710.00,0.57
7709.00,0.57
7708.00,0.57
7707.00,0.57
7706.00,0.57
7705.00,0.57
7704.00,0.57
7703.00,0.57
7702.00,0.57
7701.00,0.57
7700.00,0.57
7699.00,0.57
7698.00,0.57
7697.00,0.58
7696.00,0.58
7695.00,0.58
7694.00,0.58
7693.00,0.58
7692.00,0.58
7691.00,0.58
7690.00,0.58
7689.00,0.59
7688.00,0.59
7687.00,0.59
7686.00,0.59
7685.00,0.59
7684.00,0.59
7683.00,0.60
7682.00,0.60
7681.00,0.60
7680.00,0.60
7679.00,0.60
7678.00,0.61
7677.00,0.61
7676.00,0.61
7675.00,0.61
7674.00,0.61
7673.00,0.61
7672.00,0.62
7671.00,0.62
7670.00,0.62
7669.00,0.62
7668.00,0.63
7667.00,0.63
7666.00,0.63
7665.00,0.63
7664.00,0.63
7663.00,0.63
7662.00,0.64
7661.00,0.64
7660.00,0.64
7659.00,0.64
7658.00,0.64
7657.00,0.63
7656.00,0.63
7655.00,0.63
7654.00,0.63
7653.00,0.63
7652.00,0.63
7651.00,0.63
7650.00,0.63
7649.00,0.62
7648.00,0.62
7647.00,0.62
7646.00,0.62
7645.00,0.61
7644.00,0.61
7643.00,0.61
7642.00,0.60
7641.00,0.60
7640.00,0.59
7639.00,0.59
7638.00,0.59
7637.00,0.58
7636.00,0.58
7635.00,0.58
7634.00,0.57
7633.00,0.57
7632.00,0.57
7631.00,0.57
7630.00,0.56
7629.00,0.56
7628.00,0.56
7627.00,0.56
7626.00,0.56
7625.00,0.56
7624.00,0.55
7623.00,0.55
7622.00,0.55
7621.00,0.55
7620.00,0.55
7619.00,0.55
7618.00,0.55
7617.00,0.55
7616.00,0.55
7615.00,0.55
7614.00,0.56
7613.00,0.56
7612.00,0.56
7611.00,0.56
7610.00,0.56
7609.00,0.56
7608.00,0.56
7607.00,0.56
7606.00,0.56
7605.00,0.56
7604.00,0.56
7603.00,0.56
7602.00,0.57
7601.00,0.57
7600.00,0.57
7599.00,0.57
7598.00,0.57
7597.00,0.57
7596.00,0.58
7595.00,0.58
7594.00,0.58
7593.00,0.58
7592.00,0.58
7591.00,0.58
7590.00,0.58
7589.00,0.59
7588.00,0.59
7587.00,0.59
7586.00,0.59
7585.00,0.59
7584.00,0.60
7583.00,0.60
7582.00,0.60
7581.00,0.60
7580.00,0.60
7579.00,0.60
7578.00,0.60
7577.00,0.60
7576.00,0.60
7575.00,0.60
7574.00,0.60
7573.00,0.60
7572.00,0.60
7571.00,0.60
7570.00,0.60
7569.00,0.60
7568.00,0.60
7567.00,0.60
7566.00,0.60
7565.00,0.60
7564.00,0.59
7563.00,0.59
7562.00,0.59
7561.00,0.59
7560.00,0.59
7559.00,0.59
7558.00,0.59
7557.00,0.59
7556.00,0.59
7555.00,0.58
7554.00,0.58
7553.00,0.58
7552.00,0.58
7551.00,0.58
7550.00,0.58
7549.00,0.58
7548.00,0.58
7547.00,0.58
7546.00,0.58
7545.00,0.59
7544.00,0.59
7543.00,0.59
7542.00,0.59
7541.00,0.59
7540.00,0.59
7539.00,0.59
7538.00,0.59
7537.00,0.59
7536.00,0.59
7535.00,0.59
7534.00,0.59
7533.00,0.59
7532.00,0.59
7531.00,0.59
7530.00,0.59
7529.00,0.59
7528.00,0.59
7527.00,0.59
7526.00,0.60
7525.00,0.60
7524.00,0.60
7523.00,0.60
7522.00,0.60
7521.00,0.60
7520.00,0.59
7519.00,0.59
7518.00,0.59
7517.00,0.59
7516.00,0.59
7515.00,0.59
7514.00,0.59
7513.00,0.59
7512.00,0.59
7511.00,0.59
7510.00,0.59
7509.00,0.59
7508.00,0.59
7507.00,0.59
7506.00,0.59
7505.00,0.59
7504.00,0.59
7503.00,0.59
7502.00,0.59
7501.00,0.59
7500.00,0.59
7499.00,0.59
7498.00,0.59
7497.00,0.59
7496.00,0.59
7495.00,0.59
7494.00,0.59
7493.00,0.60
7492.00,0.60
7491.00,0.60
7490.00,0.60
7489.00,0.60
7488.00,0.60
7487.00,0.60
7486.00,0.60
7485.00,0.60
7484.00,0.60
7483.00,0.60
7482.00,0.60
7481.00,0.60
7480.00,0.61
7479.00,0.61
7478.00,0.61
7477.00,0.61
7476.00,0.61
7475.00,0.61
7474.00,0.61
7473.00,0.61
7472.00,0.61
7471.00,0.61
7470.00,0.61
7469.00,0.61
7468.00,0.62
7467.00,0.62
7466.00,0.62
7465.00,0.62
7464.00,0.61
7463.00,0.61
7462.00,0.62
7461.00,0.62
7460.00,0.62
7459.00,0.62
7458.00,0.62
7457.00,0.62
7456.00,0.62
7455.00,0.62
7454.00,0.62
7453.00,0.62
7452.00,0.62
7451.00,0.62
7450.00,0.62
7449.00,0.62
7448.00,0.62
7447.00,0.62
7446.00,0.62
7445.00,0.62
7444.00,0.62
7443.00,0.62
7442.00,0.62
7441.00,0.62
7440.00,0.62
7439.00,0.62
7438.00,0.62
7437.00,0.62
7436.00,0.62
7435.00,0.62
7434.00,0.63
7433.00,0.63
7432.00,0.63
7431.00,0.63
7430.00,0.63
7429.00,0.63
7428.00,0.63
7427.00,0.63
7426.00,0.63
7425.00,0.63
7424.00,0.63
7423.00,0.63
7422.00,0.63
7421.00,0.63
7420.00,0.63
7419.00,0.63
7418.00,0.63
7417.00,0.63
7416.00,0.63
7415.00,0.63
7414.00,0.63
7413.00,0.63
7412.00,0.62
7411.00,0.62
7410.00,0.62
7409.00,0.62
7408.00,0.62
7407.00,0.62
7406.00,0.61
7405.00,0.61
7404.00,0.61
7403.00,0.61
7402.00,0.61
7401.00,0.61
7400.00,0.61
7399.00,0.61
7398.00,0.61
7397.00,0.61
7396.00,0.61
7395.00,0.61
7394.00,0.61
7393.00,0.61
7392.00,0.61
7391.00,0.61
7390.00,0.61
7389.00,0.61
7388.00,0.61
7387.00,0.61
7386.00,0.61
7385.00,0.61
7384.00,0.61
7383.00,0.61
7382.00,0.61
7381.00,0.61
7380.00,0.61
7379.00,0.61
7378.00,0.61
7377.00,0.61
7376.00,0.61
7375.00,0.61
7374.00,0.61
7373.00,0.61
7372.00,0.60
7371.00,0.60
7370.00,0.60
7369.00,0.60
7368.00,0.60
7367.00,0.60
7366.00,0.60
7365.00,0.60
7364.00,0.60
7363.00,0.60
7362.00,0.60
7361.00,0.60
7360.00,0.60
7359.00,0.60
7358.00,0.61
7357.00,0.61
7356.00,0.61
7355.00,0.61
7354.00,0.61
7353.00,0.61
7352.00,0.61
7351.00,0.62
7350.00,0.62
7349.00,0.62
7348.00,0.62
7347.00,0.62
7346.00,0.63
7345.00,0.63
7344.00,0.63
7343.00,0.63
7342.00,0.63
7341.00,0.64
7340.00,0.64
7339.00,0.64
7338.00,0.64
7337.00,0.64
7336.00,0.64
7335.00,0.64
7334.00,0.64
7333.00,0.64
7332.00,0.64
7331.00,0.64
7330.00,0.64
7329.00,0.64
7328.00,0.64
7327.00,0.64
7326.00,0.64
7325.00,0.64
7324.00,0.64
7323.00,0.64
7322.00,0.64
7321.00,0.64
7320.00,0.64
7319.00,0.64
7318.00,0.64
7317.00,0.64
7316.00,0.64
7315.00,0.64
7314.00,0.64
7313.00,0.64
7312.00,0.64
7311.00,0.64
7310.00,0.64
7309.00,0.63
7308.00,0.63
7307.00,0.63
7306.00,0.63
7305.00,0.63
7304.00,0.63
7303.00,0.64
7302.00,0.64
7301.00,0.64
7300.00,0.64
7299.00,0.64
7298.00,0.64
7297.00,0.64
7296.00,0.64
7295.00,0.64
7294.00,0.64
7293.00,0.64
7292.00,0.65
7291.00,0.65
7290.00,0.65
7289.00,0.65
7288.00,0.65
7287.00,0.65
7286.00,0.65
7285.00,0.65
7284.00,0.65
7283.00,0.65
7282.00,0.65
7281.00,0.65
7280.00,0.65
7279.00,0.65
7278.00,0.65
7277.00,0.65
7276.00,0.65
7275.00,0.65
7274.00,0.65
7273.00,0.65
7272.00,0.65
7271.00,0.64
7270.00,0.64
7269.00,0.64
7268.00,0.64
7267.00,0.64
7266.00,0.63
7265.00,0.63
7264.00,0.63
7263.00,0.63
7262.00,0.62
7261.00,0.62
7260.00,0.62
7259.00,0.62
7258.00,0.61
7257.00,0.61
7256.00,0.61
7255.00,0.60
7254.00,0.60
7253.00,0.59
7252.00,0.59
7251.00,0.59
7250.00,0.58
7249.00,0.58
7248.00,0.58
7247.00,0.57
7246.00,0.57
7245.00,0.57
7244.00,0.57
7243.00,0.56
7242.00,0.56
7241.00,0.56
7240.00,0.56
7239.00,0.56
7238.00,0.56
7237.00,0.55
7236.00,0.55
7235.00,0.55
7234.00,0.55
7233.00,0.55
7232.00,0.55
7231.00,0.55
7230.00,0.55
7229.00,0.55
7228.00,0.55
7227.00,0.56
7226.00,0.56
7225.00,0.56
7224.00,0.56
7223.00,0.56
7222.00,0.57
7221.00,0.57
7220.00,0.57
7219.00,0.57
7218.00,0.57
7217.00,0.57
7216.00,0.57
7215.00,0.58
7214.00,0.58
7213.00,0.58
7212.00,0.58
7211.00,0.58
7210.00,0.58
7209.00,0.59
7208.00,0.59
7207.00,0.59
7206.00,0.59
7205.00,0.59
7204.00,0.59
7203.00,0.59
7202.00,0.59
7201.00,0.59
7200.00,0.59
7199.00,0.59
7198.00,0.59
7197.00,0.58
7196.00,0.58
7195.00,0.58
7194.00,0.58
7193.00,0.58
7192.00,0.58
7191.00,0.57
7190.00,0.57
7189.00,0.57
7188.00,0.57
7187.00,0.57
7186.00,0.57
7185.00,0.56
7184.00,0.56
7183.00,0.56
7182.00,0.56
7181.00,0.56
7180.00,0.56
7179.00,0.56
7178.00,0.55
7177.00,0.55
7176.00,0.55
7175.00,0.55
7174.00,0.55
7173.00,0.55
7172.00,0.55
7171.00,0.56
7170.00,0.56
7169.00,0.56
7168.00,0.56
7167.00,0.56
7166.00,0.56
7165.00,0.56
7164.00,0.56
7163.00,0.56
7162.00,0.56
7161.00,0.57
7160.00,0.57
7159.00,0.57
7158.00,0.57
7157.00,0.57
7156.00,0.56
7155.00,0.56
7154.00,0.56
7153.00,0.56
7152.00,0.56
7151.00,0.56
7150.00,0.56
7149.00,0.56
7148.00,0.56
7147.00,0.56
7146.00,0.56
7145.00,0.56
7144.00,0.56
7143.00,0.56
7142.00,0.56
7141.00,0.56
7140.00,0.55
7139.00,0.55
7138.00,0.55
7137.00,0.55
7136.00,0.55
7135.00,0.55
7134.00,0.55
7133.00,0.56
7132.00,0.56
7131.00,0.56
7130.00,0.56
7129.00,0.56
7128.00,0.56
7127.00,0.56
7126.00,0.56
7125.00,0.56
7124.00,0.57
7123.00,0.57
7122.00,0.57
7121.00,0.57
7120.00,0.57
7119.00,0.57
7118.00,0.57
7117.00,0.57
7116.00,0.57
7115.00,0.57
7114.00,0.57
7113.00,0.57
7112.00,0.57
7111.00,0.57
7110.00,0.57
7109.00,0.57
7108.00,0.57
7107.00,0.57
7106.00,0.57
7105.00,0.57
7104.00,0.57
7103.00,0.56
7102.00,0.56
7101.00,0.56
7100.00,0.56
7099.00,0.56
7098.00,0.56
7097.00,0.56
7096.00,0.56
7095.00,0.56
7094.00,0.56
7093.00,0.57
7092.00,0.57
7091.00,0.57
7090.00,0.57
7089.00,0.57
7088.00,0.57
7087.00,0.57
7086.00,0.57
7085.00,0.57
7084.00,0.58
7083.00,0.58
7082.00,0.58
7081.00,0.58
7080.00,0.58
7079.00,0.59
7078.00,0.59
7077.00,0.59
7076.00,0.59
7075.00,0.59
7074.00,0.60
7073.00,0.60
7072.00,0.60
7071.00,0.60
7070.00,0.60
7069.00,0.60
7068.00,0.60
7067.00,0.60
7066.00,0.61
7065.00,0.61
7064.00,0.61
7063.00,0.61
7062.00,0.61
7061.00,0.61
7060.00,0.61
7059.00,0.61
7058.00,0.61
7057.00,0.61
7056.00,0.61
7055.00,0.61
7054.00,0.61
7053.00,0.61
7052.00,0.60
7051.00,0.60
7050.00,0.60
7049.00,0.60
7048.00,0.60
7047.00,0.60
7046.00,0.60
7045.00,0.60
7044.00,0.60
7043.00,0.60
7042.00,0.60
7041.00,0.60
7040.00,0.59
7039.00,0.59
7038.00,0.59
7037.00,0.59
7036.00,0.58
7035.00,0.58
7034.00,0.58
7033.00,0.58
7032.00,0.57
7031.00,0.57
7030.00,0.57
7029.00,0.57
7028.00,0.57
7027.00,0.57
7026.00,0.56
7025.00,0.56
7024.00,0.56
7023.00,0.56
7022.00,0.56
7021.00,0.55
7020.00,0.55
7019.00,0.55
7018.00,0.55
7017.00,0.55
7016.00,0.55
7015.00,0.55
7014.00,0.55
7013.00,0.55
7012.00,0.55
7011.00,0.55
7010.00,0.55
7009.00,0.55
7008.00,0.55
7007.00,0.55
7006.00,0.55
7005.00,0.55
7004.00,0.55
7003.00,0.55
7002.00,0.56
7001.00,0.56
7000.00,0.56
6999.00,0.56
6998.00,0.56
6997.00,0.56
6996.00,0.56
6995.00,0.56
6994.00,0.56
6993.00,0.56
6992.00,0.57
6991.00,0.57
6990.00,0.57
6989.00,0.57
6988.00,0.57
6987.00,0.57
6986.00,0.57
6985.00,0.57
6984.00,0.57
6983.00,0.57
6982.00,0.57
6981.00,0.57
6980.00,0.57
6979.00,0.56
6978.00,0.56
6977.00,0.56
6976.00,0.56
6975.00,0.56
6974.00,0.56
6973.00,0.56
6972.00,0.56
6971.00,0.56
6970.00,0.56
6969.00,0.56
6968.00,0.56
6967.00,0.55
6966.00,0.55
6965.00,0.55
6964.00,0.55
6963.00,0.55
6962.00,0.55
6961.00,0.55
6960.00,0.55
6959.00,0.55
6958.00,0.55
6957.00,0.55
6956.00,0.55
6955.00,0.55
6954.00,0.55
6953.00,0.55
6952.00,0.55
6951.00,0.55
6950.00,0.55
6949.00,0.55
6948.00,0.55
6947.00,0.55
6946.00,0.55
6945.00,0.55
6944.00,0.55
6943.00,0.55
6942.00,0.55
6941.00,0.55
6940.00,0.55
6939.00,0.56
6938.00,0.56
6937.00,0.56
6936.00,0.56
6935.00,0.56
6934.00,0.56
6933.00,0.56
6932.00,0.56
6931.00,0.56
6930.00,0.56
6929.00,0.56
6928.00,0.56
6927.00,0.56
6926.00,0.56
6925.00,0.56
6924.00,0.56
6923.00,0.56
6922.00,0.56
6921.00,0.56
6920.00,0.56
6919.00,0.56
6918.00,0.56
6917.00,0.56
6916.00,0.56
6915.00,0.56
6914.00,0.56
6913.00,0.55
6912.00,0.55
6911.00,0.55
6910.00,0.55
6909.00,0.55
6908.00,0.55
6907.00,0.55
6906.00,0.55
6905.00,0.55
6904.00,0.55
6903.00,0.55
6902.00,0.55
6901.00,0.55
6900.00,0.55
6899.00,0.55
6898.00,0.56
6897.00,0.56
6896.00,0.56
6895.00,0.56
6894.00,0.56
6893.00,0.56
6892.00,0.56
6891.00,0.56
6890.00,0.57
6889.00,0.57
6888.00,0.57
6887.00,0.57
6886.00,0.57
6885.00,0.58
6884.00,0.58
6883.00,0.58
6882.00,0.58
6881.00,0.58
6880.00,0.59
6879.00,0.59
6878.00,0.59
6877.00,0.59
6876.00,0.59
6875.00,0.59
6874.00,0.59
6873.00,0.59
6872.00,0.59
6871.00,0.59
6870.00,0.59
6869.00,0.59
6868.00,0.59
6867.00,0.59
6866.00,0.59
6865.00,0.59
6864.00,0.58
6863.00,0.58
6862.00,0.58
6861.00,0.58
6860.00,0.58
6859.00,0.58
6858.00,0.57
6857.00,0.57
6856.00,0.57
6855.00,0.57
6854.00,0.57
6853.00,0.57
6852.00,0.56
6851.00,0.56
6850.00,0.56
6849.00,0.56
6848.00,0.56
6847.00,0.56
6846.00,0.56
6845.00,0.56
6844.00,0.56
6843.00,0.56
6842.00,0.56
6841.00,0.56
6840.00,0.56
6839.00,0.56
6838.00,0.56
6837.00,0.56
6836.00,0.56
6835.00,0.56
6834.00,0.56
6833.00,0.56
6832.00,0.57
6831.00,0.57
6830.00,0.57
6829.00,0.57
6828.00,0.57
6827.00,0.57
6826.00,0.58
6825.00,0.58
6824.00,0.58
6823.00,0.58
6822.00,0.59
6821.00,0.59
6820.00,0.59
6819.00,0.59
6818.00,0.59
6817.00,0.59
6816.00,0.59
6815.00,0.59
6814.00,0.59
6813.00,0.60
6812.00,0.60
6811.00,0.60
6810.00,0.60
6809.00,0.60
6808.00,0.60
6807.00,0.59
6806.00,0.59
6805.00,0.59
6804.00,0.59
6803.00,0.59
6802.00,0.59
6801.00,0.59
6800.00,0.59
6799.00,0.59
6798.00,0.59
6797.00,0.59
6796.00,0.59
6795.00,0.59
6794.00,0.59
6793.00,0.58
6792.00,0.58
6791.00,0.58
6790.00,0.58
6789.00,0.58
6788.00,0.58
6787.00,0.58
6786.00,0.58
6785.00,0.58
6784.00,0.58
6783.00,0.58
6782.00,0.58
6781.00,0.57
6780.00,0.57
6779.00,0.57
6778.00,0.57
6777.00,0.57
6776.00,0.57
6775.00,0.57
6774.00,0.57
6773.00,0.57
6772.00,0.57
6771.00,0.57
6770.00,0.57
6769.00,0.57
6768.00,0.57
6767.00,0.57
6766.00,0.57
6765.00,0.57
6764.00,0.57
6763.00,0.57
6762.00,0.57
6761.00,0.57
6760.00,0.57
6759.00,0.57
6758.00,0.57
6757.00,0.57
6756.00,0.57
6755.00,0.57
6754.00,0.57
6753.00,0.57
6752.00,0.57
6751.00,0.57
6750.00,0.57
6749.00,0.57
6748.00,0.57
6747.00,0.57
6746.00,0.57
6745.00,0.57
6744.00,0.57
6743.00,0.58
6742.00,0.58
6741.00,0.58
6740.00,0.58
6739.00,0.58
6738.00,0.58
6737.00,0.58
6736.00,0.58
6735.00,0.58
6734.00,0.58
6733.00,0.58
6732.00,0.59
6731.00,0.59
6730.00,0.59
6729.00,0.59
6728.00,0.59
6727.00,0.59
6726.00,0.59
6725.00,0.59
6724.00,0.60
6723.00,0.60
6722.00,0.60
6721.00,0.60
6720.00,0.60
6719.00,0.60
6718.00,0.61
6717.00,0.61
6716.00,0.61
6715.00,0.61
6714.00,0.61
6713.00,0.61
6712.00,0.61
6711.00,0.61
6710.00,0.61
6709.00,0.61
6708.00,0.61
6707.00,0.62
6706.00,0.62
6705.00,0.62
6704.00,0.62
6703.00,0.62
6702.00,0.62
6701.00,0.62
6700.00,0.62
6699.00,0.62
6698.00,0.62
6697.00,0.62
6696.00,0.62
6695.00,0.62
6694.00,0.62
6693.00,0.62
6692.00,0.62
6691.00,0.62
6690.00,0.62
6689.00,0.62
6688.00,0.62
6687.00,0.62
6686.00,0.61
6685.00,0.61
6684.00,0.61
6683.00,0.61
6682.00,0.61
6681.00,0.61
6680.00,0.61
6679.00,0.61
6678.00,0.61
6677.00,0.61
6676.00,0.61
6675.00,0.60
6674.00,0.60
6673.00,0.60
6672.00,0.60
6671.00,0.60
6670.00,0.60
6669.00,0.60
6668.00,0.60
6667.00,0.60
6666.00,0.60
6665.00,0.60
6664.00,0.60
6663.00,0.60
6662.00,0.60
6661.00,0.60
6660.00,0.60
6659.00,0.60
6658.00,0.60
6657.00,0.60
6656.00,0.60
6655.00,0.60
6654.00,0.60
6653.00,0.60
6652.00,0.60
6651.00,0.60
6650.00,0.60
6649.00,0.60
6648.00,0.60
6647.00,0.61
6646.00,0.61
6645.00,0.61
6644.00,0.61
6643.00,0.61
6642.00,0.61
6641.00,0.61
6640.00,0.61
6639.00,0.61
6638.00,0.61
6637.00,0.61
6636.00,0.61
6635.00,0.61
6634.00,0.61
6633.00,0.61
6632.00,0.61
6631.00,0.61
6630.00,0.61
6629.00,0.61
6628.00,0.61
6627.00,0.61
6626.00,0.61
6625.00,0.61
6624.00,0.61
6623.00,0.61
6622.00,0.61
6621.00,0.61
6620.00,0.61
6619.00,0.61
6618.00,0.60
6617.00,0.60
6616.00,0.60
6615.00,0.60
6614.00,0.60
6613.00,0.60
6612.00,0.60
6611.00,0.60
6610.00,0.60
6609.00,0.60
6608.00,0.60
6607.00,0.60
6606.00,0.60
6605.00,0.60
6604.00,0.60
6603.00,0.60
6602.00,0.60
6601.00,0.60
6600.00,0.60
6599.00,0.60
6598.00,0.60
6597.00,0.61
6596.00,0.61
6595.00,0.61
6594.00,0.61
6593.00,0.61
6592.00,0.61
6591.00,0.61
6590.00,0.61
6589.00,0.62
6588.00,0.62
6587.00,0.62
6586.00,0.62
6585.00,0.62
6584.00,0.62
6583.00,0.62
6582.00,0.62
6581.00,0.63
6580.00,0.63
6579.00,0.63
6578.00,0.63
6577.00,0.63
6576.00,0.63
6575.00,0.63
6574.00,0.64
6573.00,0.64
6572.00,0.64
6571.00,0.64
6570.00,0.64
6569.00,0.64
6568.00,0.64
6567.00,0.64
6566.00,0.64
6565.00,0.64
6564.00,0.64
6563.00,0.64
6562.00,0.64
6561.00,0.65
6560.00,0.65
6559.00,0.65
6558.00,0.65
6557.00,0.65
6556.00,0.65
6555.00,0.65
6554.00,0.65
6553.00,0.65
6552.00,0.65
6551.00,0.65
6550.00,0.65
6549.00,0.65
6548.00,0.65
6547.00,0.65
6546.00,0.65
6545.00,0.65
6544.00,0.65
6543.00,0.65
6542.00,0.65
6541.00,0.65
6540.00,0.65
6539.00,0.65
6538.00,0.65
6537.00,0.65
6536.00,0.65
6535.00,0.65
6534.00,0.65
6533.00,0.65
6532.00,0.65
6531.00,0.65
6530.00,0.65
6529.00,0.65
6528.00,0.65
6527.00,0.65
6526.00,0.65
6525.00,0.65
6524.00,0.66
6523.00,0.66
6522.00,0.66
6521.00,0.66
6520.00,0.66
6519.00,0.66
6518.00,0.66
6517.00,0.66
6516.00,0.67
6515.00,0.67
6514.00,0.67
6513.00,0.67
6512.00,0.67
6511.00,0.67
6510.00,0.67
6509.00,0.67
6508.00,0.67
6507.00,0.67
6506.00,0.67
6505.00,0.67
6504.00,0.66
6503.00,0.66
6502.00,0.66
6501.00,0.66
6500.00,0.66
6499.00,0.66
6498.00,0.66
6497.00,0.66
6496.00,0.66
6495.00,0.65
6494.00,0.65
6493.00,0.65
6492.00,0.65
6491.00,0.65
6490.00,0.65
6489.00,0.65
6488.00,0.65
6487.00,0.65
6486.00,0.65
6485.00,0.65
6484.00,0.65
6483.00,0.65
6482.00,0.65
6481.00,0.65
6480.00,0.65
6479.00,0.65
6478.00,0.65
6477.00,0.65
6476.00,0.65
6475.00,0.65
6474.00,0.65
6473.00,0.65
6472.00,0.65
6471.00,0.65
6470.00,0.65
6469.00,0.65
6468.00,0.65
6467.00,0.65
6466.00,0.65
6465.00,0.65
6464.00,0.65
6463.00,0.65
6462.00,0.65
6461.00,0.65
6460.00,0.65
6459.00,0.65
6458.00,0.65
6457.00,0.65
6456.00,0.66
6455.00,0.66
6454.00,0.66
6453.00,0.66
6452.00,0.66
6451.00,0.66
6450.00,0.66
6449.00,0.66
6448.00,0.66
6447.00,0.66
6446.00,0.66
6445.00,0.66
6444.00,0.67
6443.00,0.67
6442.00,0.67
6441.00,0.67
6440.00,0.67
6439.00,0.67
6438.00,0.68
6437.00,0.68
6436.00,0.68
6435.00,0.68
6434.00,0.69
6433.00,0.69
6432.00,0.69
6431.00,0.69
6430.00,0.69
6429.00,0.69
6428.00,0.69
6427.00,0.70
6426.00,0.70
6425.00,0.70
6424.00,0.70
6423.00,0.70
6422.00,0.70
6421.00,0.70
6420.00,0.70
6419.00,0.70
6418.00,0.70
6417.00,0.70
6416.00,0.70
6415.00,0.70
6414.00,0.69
6413.00,0.69
6412.00,0.69
6411.00,0.69
6410.00,0.69
6409.00,0.69
6408.00,0.68
6407.00,0.68
6406.00,0.68
6405.00,0.68
6404.00,0.68
6403.00,0.68
6402.00,0.68
6401.00,0.67
6400.00,0.67
6399.00,0.67
6398.00,0.67
6397.00,0.67
6396.00,0.67
6395.00,0.66
6394.00,0.66
6393.00,0.66
6392.00,0.66
6391.00,0.66
6390.00,0.66
6389.00,0.66
6388.00,0.66
6387.00,0.66
6386.00,0.66
6385.00,0.66
6384.00,0.66
6383.00,0.66
6382.00,0.66
6381.00,0.66
6380.00,0.66
6379.00,0.66
6378.00,0.66
6377.00,0.66
6376.00,0.66
6375.00,0.66
6374.00,0.66
6373.00,0.66
6372.00,0.66
6371.00,0.66
6370.00,0.66
6369.00,0.66
6368.00,0.66
6367.00,0.66
6366.00,0.66
6365.00,0.66
6364.00,0.66
6363.00,0.66
6362.00,0.66
6361.00,0.66
6360.00,0.66
6359.00,0.66
6358.00,0.66
6357.00,0.66
6356.00,0.66
6355.00,0.66
6354.00,0.66
6353.00,0.66
6352.00,0.66
6351.00,0.66
6350.00,0.66
6349.00,0.66
6348.00,0.66
6347.00,0.66
6346.00,0.66
6345.00,0.66
6344.00,0.66
6343.00,0.66
6342.00,0.66
6341.00,0.67
6340.00,0.67
6339.00,0.67
6338.00,0.67
6337.00,0.67
6336.00,0.67
6335.00,0.67
6334.00,0.67
6333.00,0.67
6332.00,0.67
6331.00,0.67
6330.00,0.67
6329.00,0.67
6328.00,0.67
6327.00,0.67
6326.00,0.67
6325.00,0.67
6324.00,0.67
6323.00,0.67
6322.00,0.67
6321.00,0.67
6320.00,0.67
6319.00,0.67
6318.00,0.67
6317.00,0.67
6316.00,0.67
6315.00,0.67
6314.00,0.67
6313.00,0.67
6312.00,0.67
6311.00,0.67
6310.00,0.67
6309.00,0.66
6308.00,0.66
6307.00,0.66
6306.00,0.66
6305.00,0.66
6304.00,0.66
6303.00,0.66
6302.00,0.67
6301.00,0.67
6300.00,0.67
6299.00,0.67
6298.00,0.67
6297.00,0.67
6296.00,0.67
6295.00,0.67
6294.00,0.67
6293.00,0.67
6292.00,0.67
6291.00,0.67
6290.00,0.67
6289.00,0.68
6288.00,0.68
6287.00,0.68
6286.00,0.68
6285.00,0.68
6284.00,0.68
6283.00,0.68
6282.00,0.69
6281.00,0.69
6280.00,0.69
6279.00,0.69
6278.00,0.69
6277.00,0.69
6276.00,0.69
6275.00,0.69
6274.00,0.69
6273.00,0.69
6272.00,0.69
6271.00,0.70
6270.00,0.70
6269.00,0.70
6268.00,0.70
6267.00,0.70
6266.00,0.70
6265.00,0.70
6264.00,0.70
6263.00,0.70
6262.00,0.70
6261.00,0.70
6260.00,0.70
6259.00,0.70
6258.00,0.70
6257.00,0.70
6256.00,0.70
6255.00,0.70
6254.00,0.70
6253.00,0.70
6252.00,0.70
6251.00,0.70
6250.00,0.70
6249.00,0.70
6248.00,0.70
6247.00,0.69
6246.00,0.69
6245.00,0.69
6244.00,0.69
6243.00,0.69
6242.00,0.69
6241.00,0.69
6240.00,0.69
6239.00,0.69
6238.00,0.69
6237.00,0.69
6236.00,0.69
6235.00,0.69
6234.00,0.69
6233.00,0.69
6232.00,0.69
6231.00,0.69
6230.00,0.69
6229.00,0.69
6228.00,0.69
6227.00,0.69
6226.00,0.69
6225.00,0.69
6224.00,0.69
6223.00,0.69
6222.00,0.69
6221.00,0.69
6220.00,0.69
6219.00,0.69
6218.00,0.69
6217.00,0.69
6216.00,0.69
6215.00,0.69
6214.00,0.69
6213.00,0.69
6212.00,0.69
6211.00,0.69
6210.00,0.69
6209.00,0.69
6208.00,0.69
6207.00,0.69
6206.00,0.69
6205.00,0.69
6204.00,0.69
6203.00,0.69
6202.00,0.69
6201.00,0.69
6200.00,0.69
6199.00,0.69
6198.00,0.69
6197.00,0.69
6196.00,0.69
6195.00,0.70
6194.00,0.70
6193.00,0.70
6192.00,0.70
6191.00,0.69
6190.00,0.69
6189.00,0.69
6188.00,0.69
6187.00,0.69
6186.00,0.69
6185.00,0.69
6184.00,0.69
6183.00,0.69
6182.00,0.69
6181.00,0.69
6180.00,0.69
6179.00,0.69
6178.00,0.69
6177.00,0.69
6176.00,0.69
6175.00,0.69
6174.00,0.69
6173.00,0.69
6172.00,0.70
6171.00,0.70
6170.00,0.70
6169.00,0.70
6168.00,0.70
6167.00,0.70
6166.00,0.70
6165.00,0.70
6164.00,0.70
6163.00,0.70
6162.00,0.71
6161.00,0.71
6160.00,0.71
6159.00,0.71
6158.00,0.71
6157.00,0.71
6156.00,0.71
6155.00,0.72
6154.00,0.72
6153.00,0.72
6152.00,0.72
6151.00,0.72
6150.00,0.72
6149.00,0.72
6148.00,0.72
6147.00,0.72
6146.00,0.72
6145.00,0.72
6144.00,0.72
6143.00,0.72
6142.00,0.72
6141.00,0.72
6140.00,0.72
6139.00,0.72
6138.00,0.72
6137.00,0.72
6136.00,0.72
6135.00,0.72
6134.00,0.72
6133.00,0.72
6132.00,0.72
6131.00,0.72
6130.00,0.72
6129.00,0.72
6128.00,0.72
6127.00,0.72
6126.00,0.72
6125.00,0.72
6124.00,0.72
6123.00,0.72
6122.00,0.72
6121.00,0.72
6120.00,0.72
6119.00,0.72
6118.00,0.72
6117.00,0.72
6116.00,0.72
6115.00,0.72
6114.00,0.72
6113.00,0.72
6112.00,0.72
6111.00,0.72
6110.00,0.72
6109.00,0.72
6108.00,0.72
6107.00,0.72
6106.00,0.72
6105.00,0.72
6104.00,0.72
6103.00,0.72
6102.00,0.72
6101.00,0.72
6100.00,0.72
6099.00,0.72
6098.00,0.72
6097.00,0.72
6096.00,0.72
6095.00,0.72
6094.00,0.72
6093.00,0.72
6092.00,0.72
6091.00,0.72
6090.00,0.72
6089.00,0.72
6088.00,0.72
6087.00,0.72
6086.00,0.72
6085.00,0.72
6084.00,0.72
6083.00,0.72
6082.00,0.72
6081.00,0.72
6080.00,0.72
6079.00,0.72
6078.00,0.72
6077.00,0.72
6076.00,0.72
6075.00,0.72
6074.00,0.72
6073.00,0.72
6072.00,0.72
6071.00,0.72
6070.00,0.72
6069.00,0.72
6068.00,0.72
6067.00,0.72
6066.00,0.72
6065.00,0.72
6064.00,0.73
6063.00,0.73
6062.00,0.73
6061.00,0.73
6060.00,0.73
6059.00,0.73
6058.00,0.73
6057.00,0.73
6056.00,0.73
6055.00,0.73
6054.00,0.73
6053.00,0.74
6052.00,0.74
6051.00,0.74
6050.00,0.74
6049.00,0.74
6048.00,0.74
6047.00,0.74
6046.00,0.74
6045.00,0.74
6044.00,0.74
6043.00,0.74
6042.00,0.74
6041.00,0.74
6040.00,0.74
6039.00,0.74
6038.00,0.74
6037.00,0.74
6036.00,0.74
6035.00,0.74
6034.00,0.74
6033.00,0.74
6032.00,0.74
6031.00,0.74
6030.00,0.74
6029.00,0.74
6028.00,0.74
6027.00,0.74
6026.00,0.74
6025.00,0.74
6024.00,0.74
6023.00,0.74
6022.00,0.74
6021.00,0.74
6020.00,0.74
6019.00,0.74
6018.00,0.74
6017.00,0.74
6016.00,0.74
6015.00,0.74
6014.00,0.74
6013.00,0.74
6012.00,0.74
6011.00,0.74
6010.00,0.74
6009.00,0.74
6008.00,0.74
6007.00,0.74
6006.00,0.74
6005.00,0.74
6004.00,0.74
6003.00,0.74
6002.00,0.74
6001.00,0.74
6000.00,0.74
5999.00,0.74
5998.00,0.74
5997.00,0.74
5996.00,0.74
5995.00,0.74
5994.00,0.74
5993.00,0.74
5992.00,0.74
5991.00,0.74
5990.00,0.74
5989.00,0.74
5988.00,0.74
5987.00,0.74
5986.00,0.74
5985.00,0.73
5984.00,0.73
5983.00,0.73
5982.00,0.73
5981.00,0.73
5980.00,0.73
5979.00,0.73
5978.00,0.73
5977.00,0.73
5976.00,0.73
5975.00,0.73
5974.00,0.72
5973.00,0.72
5972.00,0.72
5971.00,0.72
5970.00,0.72
5969.00,0.72
5968.00,0.72
5967.00,0.72
5966.00,0.72
5965.00,0.72
5964.00,0.72
5963.00,0.72
5962.00,0.72
5961.00,0.72
5960.00,0.72
5959.00,0.72
5958.00,0.72
5957.00,0.72
5956.00,0.72
5955.00,0.72
5954.00,0.72
5953.00,0.72
5952.00,0.72
5951.00,0.72
5950.00,0.72
5949.00,0.72
5948.00,0.72
5947.00,0.72
5946.00,0.72
5945.00,0.72
5944.00,0.72
5943.00,0.72
5942.00,0.72
5941.00,0.72
5940.00,0.72
5939.00,0.72
5938.00,0.71
5937.00,0.71
5936.00,0.71
5935.00,0.71
5934.00,0.71
5933.00,0.71
5932.00,0.71
5931.00,0.71
5930.00,0.70
5929.00,0.70
5928.00,0.70
5927.00,0.70
5926.00,0.70
5925.00,0.70
5924.00,0.70
5923.00,0.70
5922.00,0.70
5921.00,0.70
5920.00,0.70
5919.00,0.70
5918.00,0.70
5917.00,0.70
5916.00,0.70
5915.00,0.70
5914.00,0.70
5913.00,0.70
5912.00,0.70
5911.00,0.70
5910.00,0.70
5909.00,0.70
5908.00,0.70
5907.00,0.70
5906.00,0.71
5905.00,0.71
5904.00,0.71
5903.00,0.71
5902.00,0.71
5901.00,0.71
5900.00,0.71
5899.00,0.71
5898.00,0.71
5897.00,0.71
5896.00,0.71
5895.00,0.72
5894.00,0.72
5893.00,0.72
5892.00,0.72
5891.00,0.72
5890.00,0.72
5889.00,0.72
5888.00,0.72
5887.00,0.72
5886.00,0.72
5885.00,0.72
5884.00,0.72
5883.00,0.72
5882.00,0.72
5881.00,0.72
5880.00,0.72
5879.00,0.72
5878.00,0.72
5877.00,0.72
5876.00,0.72
5875.00,0.72
5874.00,0.72
5873.00,0.72
5872.00,0.72
5871.00,0.72
5870.00,0.72
5869.00,0.72
5868.00,0.72
5867.00,0.72
5866.00,0.72
5865.00,0.72
5864.00,0.72
5863.00,0.72
5862.00,0.72
5861.00,0.72
5860.00,0.72
5859.00,0.72
5858.00,0.72
5857.00,0.72
5856.00,0.72
5855.00,0.72
5854.00,0.72
5853.00,0.72
5852.00,0.72
5851.00,0.71
5850.00,0.71
5849.00,0.71
5848.00,0.71
5847.00,0.71
5846.00,0.71
5845.00,0.71
5844.00,0.71
5843.00,0.71
5842.00,0.71
5841.00,0.71
5840.00,0.71
5839.00,0.71
5838.00,0.71
5837.00,0.71
5836.00,0.71
5835.00,0.71
5834.00,0.71
5833.00,0.71
5832.00,0.71
5831.00,0.71
5830.00,0.71
5829.00,0.71
5828.00,0.71
5827.00,0.71
5826.00,0.71
5825.00,0.71
5824.00,0.72
5823.00,0.72
5822.00,0.72
5821.00,0.72
5820.00,0.72
5819.00,0.72
5818.00,0.72
5817.00,0.72
5816.00,0.72
5815.00,0.72
5814.00,0.72
5813.00,0.72
5812.00,0.73
5811.00,0.73
5810.00,0.73
5809.00,0.73
5808.00,0.73
5807.00,0.73
5806.00,0.73
5805.00,0.73
5804.00,0.73
5803.00,0.73
5802.00,0.73
5801.00,0.73
5800.00,0.73
5799.00,0.73
5798.00,0.72
5797.00,0.72
5796.00,0.72
5795.00,0.72
5794.00,0.72
5793.00,0.72
5792.00,0.72
5791.00,0.72
5790.00,0.72
5789.00,0.72
5788.00,0.72
5787.00,0.72
5786.00,0.72
5785.00,0.72
5784.00,0.72
5783.00,0.72
5782.00,0.72
5781.00,0.72
5780.00,0.72
5779.00,0.72
5778.00,0.72
5777.00,0.72
5776.00,0.72
5775.00,0.72
5774.00,0.72
5773.00,0.72
5772.00,0.72
5771.00,0.73
5770.00,0.73
5769.00,0.73
5768.00,0.73
5767.00,0.73
5766.00,0.73
5765.00,0.73
5764.00,0.73
5763.00,0.73
5762.00,0.73
5761.00,0.73
5760.00,0.74
5759.00,0.74
5758.00,0.74
5757.00,0.74
5756.00,0.74
5755.00,0.74
5754.00,0.74
5753.00,0.74
5752.00,0.75
5751.00,0.75
5750.00,0.75
5749.00,0.75
5748.00,0.75
5747.00,0.75
5746.00,0.75
5745.00,0.75
5744.00,0.76
5743.00,0.76
5742.00,0.76
5741.00,0.76
5740.00,0.76
5739.00,0.76
5738.00,0.76
5737.00,0.76
5736.00,0.76
5735.00,0.76
5734.00,0.76
5733.00,0.76
5732.00,0.76
5731.00,0.76
5730.00,0.76
5729.00,0.76
5728.00,0.76
5727.00,0.76
5726.00,0.75
5725.00,0.75
5724.00,0.75
5723.00,0.75
5722.00,0.75
5721.00,0.75
5720.00,0.75
5719.00,0.74
5718.00,0.74
5717.00,0.74
5716.00,0.74
5715.00,0.74
5714.00,0.74
5713.00,0.74
5712.00,0.74
5711.00,0.73
5710.00,0.73
5709.00,0.73
5708.00,0.73
5707.00,0.73
5706.00,0.73
5705.00,0.73
5704.00,0.73
5703.00,0.73
5702.00,0.73
5701.00,0.73
5700.00,0.73
5699.00,0.73
5698.00,0.73
5697.00,0.73
5696.00,0.73
5695.00,0.73
5694.00,0.73
5693.00,0.73
5692.00,0.73
5691.00,0.73
5690.00,0.73
5689.00,0.73
5688.00,0.73
5687.00,0.73
5686.00,0.73
5685.00,0.73
5684.00,0.73
5683.00,0.73
5682.00,0.73
5681.00,0.73
5680.00,0.73
5679.00,0.73
5678.00,0.73
5677.00,0.73
5676.00,0.73
5675.00,0.73
5674.00,0.73
5673.00,0.74
5672.00,0.74
5671.00,0.74
5670.00,0.74
5669.00,0.74
5668.00,0.74
5667.00,0.74
5666.00,0.74
5665.00,0.74
5664.00,0.74
5663.00,0.74
5662.00,0.74
5661.00,0.74
5660.00,0.75
5659.00,0.75
5658.00,0.75
5657.00,0.75
5656.00,0.75
5655.00,0.75
5654.00,0.75
5653.00,0.75
5652.00,0.75
5651.00,0.75
5650.00,0.75
5649.00,0.75
5648.00,0.75
5647.00,0.76
5646.00,0.76
5645.00,0.76
5644.00,0.76
5643.00,0.76
5642.00,0.76
5641.00,0.76
5640.00,0.76
5639.00,0.76
5638.00,0.76
5637.00,0.76
5636.00,0.76
5635.00,0.76
5634.00,0.76
5633.00,0.76
5632.00,0.75
5631.00,0.75
5630.00,0.75
5629.00,0.75
5628.00,0.75
5627.00,0.75
5626.00,0.75
5625.00,0.75
5624.00,0.75
5623.00,0.75
5622.00,0.75
5621.00,0.75
5620.00,0.75
5619.00,0.75
5618.00,0.75
5617.00,0.75
5616.00,0.75
5615.00,0.75
5614.00,0.75
5613.00,0.75
5612.00,0.75
5611.00,0.75
5610.00,0.75
5609.00,0.75
5608.00,0.75
5607.00,0.75
5606.00,0.75
5605.00,0.75
5604.00,0.75
5603.00,0.75
5602.00,0.75
5601.00,0.75
5600.00,0.75
5599.00,0.75
5598.00,0.76
5597.00,0.76
5596.00,0.76
5595.00,0.76
5594.00,0.76
5593.00,0.76
5592.00,0.76
5591.00,0.76
5590.00,0.76
5589.00,0.76
5588.00,0.76
5587.00,0.75
5586.00,0.75
5585.00,0.75
5584.00,0.75
5583.00,0.75
5582.00,0.75
5581.00,0.75
5580.00,0.75
5579.00,0.75
5578.00,0.75
5577.00,0.75
5576.00,0.75
5575.00,0.75
5574.00,0.75
5573.00,0.75
5572.00,0.75
5571.00,0.75
5570.00,0.74
5569.00,0.74
5568.00,0.74
5567.00,0.74
5566.00,0.74
5565.00,0.74
5564.00,0.75
5563.00,0.75
5562.00,0.75
5561.00,0.75
5560.00,0.75
5559.00,0.75
5558.00,0.75
5557.00,0.75
5556.00,0.75
5555.00,0.75
5554.00,0.75
5553.00,0.75
5552.00,0.75
5551.00,0.75
5550.00,0.75
5549.00,0.75
5548.00,0.75
5547.00,0.75
5546.00,0.75
5545.00,0.75
5544.00,0.75
5543.00,0.75
5542.00,0.75
5541.00,0.76
5540.00,0.76
5539.00,0.76
5538.00,0.76
5537.00,0.76
5536.00,0.76
5535.00,0.76
5534.00,0.76
5533.00,0.76
5532.00,0.76
5531.00,0.76
5530.00,0.76
5529.00,0.76
5528.00,0.76
5527.00,0.76
5526.00,0.76
5525.00,0.76
5524.00,0.76
5523.00,0.76
5522.00,0.76
5521.00,0.76
5520.00,0.76
5519.00,0.76
5518.00,0.76
5517.00,0.76
5516.00,0.76
5515.00,0.76
5514.00,0.76
5513.00,0.76
5512.00,0.76
5511.00,0.76
5510.00,0.76
5509.00,0.76
5508.00,0.76
5507.00,0.76
5506.00,0.76
5505.00,0.76
5504.00,0.76
5503.00,0.76
5502.00,0.76
5501.00,0.76
5500.00,0.76
5499.00,0.76
5498.00,0.76
5497.00,0.77
5496.00,0.77
5495.00,0.77
5494.00,0.77
5493.00,0.77
5492.00,0.77
5491.00,0.77
5490.00,0.77
5489.00,0.77
5488.00,0.77
5487.00,0.77
5486.00,0.77
5485.00,0.77
5484.00,0.77
5483.00,0.77
5482.00,0.77
5481.00,0.77
5480.00,0.77
5479.00,0.77
5478.00,0.77
5477.00,0.77
5476.00,0.77
5475.00,0.77
5474.00,0.77
5473.00,0.77
5472.00,0.77
5471.00,0.77
5470.00,0.77
5469.00,0.77
5468.00,0.77
5467.00,0.77
5466.00,0.77
5465.00,0.77
5464.00,0.77
5463.00,0.77
5462.00,0.77
5461.00,0.77
5460.00,0.77
5459.00,0.76
5458.00,0.76
5457.00,0.76
5456.00,0.76
5455.00,0.76
5454.00,0.76
5453.00,0.76
5452.00,0.77
5451.00,0.77
5450.00,0.77
5449.00,0.77
5448.00,0.77
5447.00,0.77
5446.00,0.77
5445.00,0.77
5444.00,0.77
5443.00,0.77
5442.00,0.77
5441.00,0.77
5440.00,0.77
5439.00,0.77
5438.00,0.77
5437.00,0.77
5436.00,0.77
5435.00,0.77
5434.00,0.77
5433.00,0.77
5432.00,0.77
5431.00,0.77
5430.00,0.77
5429.00,0.77
5428.00,0.77
5427.00,0.77
5426.00,0.77
5425.00,0.77
5424.00,0.77
5423.00,0.77
5422.00,0.77
5421.00,0.77
5420.00,0.77
5419.00,0.77
5418.00,0.77
5417.00,0.77
5416.00,0.77
5415.00,0.77
5414.00,0.77
5413.00,0.78
5412.00,0.78
5411.00,0.78
5410.00,0.78
5409.00,0.78
5408.00,0.78
5407.00,0.78
5406.00,0.78
5405.00,0.78
5404.00,0.78
5403.00,0.78
5402.00,0.78
5401.00,0.78
5400.00,0.78
5399.00,0.78
5398.00,0.78
5397.00,0.78
5396.00,0.78
5395.00,0.78
5394.00,0.78
5393.00,0.78
5392.00,0.78
5391.00,0.78
5390.00,0.78
5389.00,0.78
5388.00,0.78
5387.00,0.78
5386.00,0.78
5385.00,0.78
5384.00,0.78
5383.00,0.79
5382.00,0.79
5381.00,0.79
5380.00,0.78
5379.00,0.78
5378.00,0.78
5377.00,0.78
5376.00,0.78
5375.00,0.78
5374.00,0.78
5373.00,0.78
5372.00,0.78
5371.00,0.78
5370.00,0.78
5369.00,0.78
5368.00,0.78
5367.00,0.78
5366.00,0.78
5365.00,0.77
5364.00,0.77
5363.00,0.77
5362.00,0.77
5361.00,0.77
5360.00,0.76
5359.00,0.76
5358.00,0.76
5357.00,0.76
5356.00,0.75
5355.00,0.75
5354.00,0.75
5353.00,0.75
5352.00,0.75
5351.00,0.74
5350.00,0.74
5349.00,0.74
5348.00,0.74
5347.00,0.74
5346.00,0.73
5345.00,0.73
5344.00,0.73
5343.00,0.73
5342.00,0.73
5341.00,0.73
5340.00,0.72
5339.00,0.72
5338.00,0.72
5337.00,0.72
5336.00,0.72
5335.00,0.72
5334.00,0.72
5333.00,0.72
5332.00,0.72
5331.00,0.71
5330.00,0.71
5329.00,0.71
5328.00,0.71
5327.00,0.71
5326.00,0.71
5325.00,0.71
5324.00,0.71
5323.00,0.71
5322.00,0.71
5321.00,0.70
5320.00,0.70
5319.00,0.70
5318.00,0.70
5317.00,0.70
5316.00,0.70
5315.00,0.69
5314.00,0.69
5313.00,0.69
5312.00,0.69
5311.00,0.69
5310.00,0.68
5309.00,0.68
5308.00,0.68
5307.00,0.68
5306.00,0.68
5305.00,0.67
5304.00,0.67
5303.00,0.67
5302.00,0.67
5301.00,0.66
5300.00,0.66
5299.00,0.66
5298.00,0.66
5297.00,0.65
5296.00,0.65
5295.00,0.65
5294.00,0.65
5293.00,0.65
5292.00,0.65
5291.00,0.64
5290.00,0.64
5289.00,0.64
5288.00,0.64
5287.00,0.63
5286.00,0.63
5285.00,0.63
5284.00,0.63
5283.00,0.63
5282.00,0.62
5281.00,0.62
5280.00,0.62
5279.00,0.62
5278.00,0.61
5277.00,0.61
5276.00,0.61
5275.00,0.61
5274.00,0.61
5273.00,0.60
5272.00,0.60
5271.00,0.60
5270.00,0.60
5269.00,0.60
5268.00,0.60
5267.00,0.59
5266.00,0.59
5265.00,0.59
5264.00,0.59
5263.00,0.59
5262.00,0.59
5261.00,0.59
5260.00,0.59
5259.00,0.59
5258.00,0.59
5257.00,0.59
5256.00,0.59
5255.00,0.58
5254.00,0.58
5253.00,0.58
5252.00,0.58
5251.00,0.58
5250.00,0.58
5249.00,0.58
5248.00,0.58
5247.00,0.58
5246.00,0.58
5245.00,0.58
5244.00,0.58
5243.00,0.58
5242.00,0.58
5241.00,0.58
5240.00,0.58
5239.00,0.58
5238.00,0.58
5237.00,0.58
5236.00,0.58
5235.00,0.57
5234.00,0.57
5233.00,0.57
5232.00,0.57
5231.00,0.57
5230.00,0.57
5229.00,0.57
5228.00,0.57
5227.00,0.57
5226.00,0.56
5225.00,0.56
5224.00,0.56
5223.00,0.56
5222.00,0.56
5221.00,0.56
5220.00,0.56
5219.00,0.56
5218.00,0.55
5217.00,0.55
5216.00,0.55
5215.00,0.55
5214.00,0.55
5213.00,0.55
5212.00,0.55
5211.00,0.55
5210.00,0.54
5209.00,0.54
5208.00,0.54
5207.00,0.54
5206.00,0.54
5205.00,0.54
5204.00,0.54
5203.00,0.54
5202.00,0.54
5201.00,0.53
5200.00,0.53
5199.00,0.53
5198.00,0.53
5197.00,0.53
5196.00,0.53
5195.00,0.53
5194.00,0.53
5193.00,0.53
5192.00,0.53
5191.00,0.53
5190.00,0.52
5189.00,0.52
5188.00,0.52
5187.00,0.52
5186.00,0.52
5185.00,0.52
5184.00,0.52
5183.00,0.52
5182.00,0.52
5181.00,0.52
5180.00,0.52
5179.00,0.52
5178.00,0.52
5177.00,0.52
5176.00,0.52
5175.00,0.52
5174.00,0.53
5173.00,0.53
5172.00,0.53
5171.00,0.53
5170.00,0.53
5169.00,0.53
5168.00,0.53
5167.00,0.53
5166.00,0.53
5165.00,0.53
5164.00,0.53
5163.00,0.53
5162.00,0.53
5161.00,0.53
5160.00,0.53
5159.00,0.53
5158.00,0.53
5157.00,0.53
5156.00,0.53
5155.00,0.53
5154.00,0.53
5153.00,0.53
5152.00,0.53
5151.00,0.53
5150.00,0.53
5149.00,0.53
5148.00,0.53
5147.00,0.53
5146.00,0.53
5145.00,0.53
5144.00,0.53
5143.00,0.53
5142.00,0.53
5141.00,0.53
5140.00,0.53
5139.00,0.53
5138.00,0.53
5137.00,0.53
5136.00,0.53
5135.00,0.53
5134.00,0.53
5133.00,0.53
5132.00,0.54
5131.00,0.54
5130.00,0.54
5129.00,0.54
5128.00,0.54
5127.00,0.54
5126.00,0.54
5125.00,0.54
5124.00,0.54
5123.00,0.54
5122.00,0.54
5121.00,0.55
5120.00,0.55
5119.00,0.55
5118.00,0.55
5117.00,0.55
5116.00,0.55
5115.00,0.55
5114.00,0.55
5113.00,0.55
5112.00,0.55
5111.00,0.56
5110.00,0.56
5109.00,0.56
5108.00,0.56
5107.00,0.56
5106.00,0.56
5105.00,0.56
5104.00,0.56
5103.00,0.56
5102.00,0.56
5101.00,0.57
5100.00,0.57
5099.00,0.57
5098.00,0.57
5097.00,0.57
5096.00,0.57
5095.00,0.57
5094.00,0.58
5093.00,0.58
5092.00,0.58
5091.00,0.58
5090.00,0.58
5089.00,0.58
5088.00,0.58
5087.00,0.58
5086.00,0.59
5085.00,0.59
5084.00,0.59
5083.00,0.59
5082.00,0.59
5081.00,0.59
5080.00,0.59
5079.00,0.59
5078.00,0.59
5077.00,0.59
5076.00,0.59
5075.00,0.59
5074.00,0.59
5073.00,0.59
5072.00,0.60
5071.00,0.60
5070.00,0.60
5069.00,0.60
5068.00,0.60
5067.00,0.60
5066.00,0.60
5065.00,0.60
5064.00,0.60
5063.00,0.60
5062.00,0.60
5061.00,0.60
5060.00,0.60
5059.00,0.60
5058.00,0.60
5057.00,0.60
5056.00,0.60
5055.00,0.60
5054.00,0.60
5053.00,0.60
5052.00,0.60
5051.00,0.60
5050.00,0.60
5049.00,0.60
5048.00,0.60
5047.00,0.61
5046.00,0.61
5045.00,0.61
5044.00,0.61
5043.00,0.61
5042.00,0.61
5041.00,0.61
5040.00,0.61
5039.00,0.61
5038.00,0.61
5037.00,0.61
5036.00,0.61
5035.00,0.62
5034.00,0.62
5033.00,0.62
5032.00,0.62
5031.00,0.62
5030.00,0.62
5029.00,0.62
5028.00,0.62
5027.00,0.62
5026.00,0.62
5025.00,0.62
5024.00,0.63
5023.00,0.63
5022.00,0.63
5021.00,0.63
5020.00,0.63
5019.00,0.63
5018.00,0.63
5017.00,0.63
5016.00,0.63
5015.00,0.63
5014.00,0.63
5013.00,0.63
5012.00,0.63
5011.00,0.63
5010.00,0.63
5009.00,0.63
5008.00,0.63
5007.00,0.63
5006.00,0.63
5005.00,0.63
5004.00,0.64
5003.00,0.64
5002.00,0.64
5001.00,0.64
5000.00,0.64
4999.00,0.64
4998.00,0.64
4997.00,0.64
4996.00,0.64
4995.00,0.64
4994.00,0.64
4993.00,0.64
4992.00,0.64
4991.00,0.64
4990.00,0.64
4989.00,0.64
4988.00,0.64
4987.00,0.64
4986.00,0.64
4985.00,0.64
4984.00,0.64
4983.00,0.65
4982.00,0.65
4981.00,0.65
4980.00,0.65
4979.00,0.65
4978.00,0.65
4977.00,0.65
4976.00,0.65
4975.00,0.65
4974.00,0.65
4973.00,0.65
4972.00,0.65
4971.00,0.65
4970.00,0.65
4969.00,0.65
4968.00,0.65
4967.00,0.65
4966.00,0.65
4965.00,0.65
4964.00,0.65
4963.00,0.65
4962.00,0.65
4961.00,0.65
4960.00,0.65
4959.00,0.65
4958.00,0.65
4957.00,0.65
4956.00,0.65
4955.00,0.65
4954.00,0.65
4953.00,0.65
4952.00,0.65
4951.00,0.65
4950.00,0.65
4949.00,0.65
4948.00,0.65
4947.00,0.65
4946.00,0.65
4945.00,0.65
4944.00,0.65
4943.00,0.65
4942.00,0.65
4941.00,0.65
4940.00,0.65
4939.00,0.64
4938.00,0.64
4937.00,0.64
4936.00,0.64
4935.00,0.64
4934.00,0.64
4933.00,0.64
4932.00,0.64
4931.00,0.64
4930.00,0.64
4929.00,0.64
4928.00,0.64
4927.00,0.65
4926.00,0.65
4925.00,0.65
4924.00,0.65
4923.00,0.65
4922.00,0.65
4921.00,0.65
4920.00,0.65
4919.00,0.65
4918.00,0.66
4917.00,0.66
4916.00,0.66
4915.00,0.66
4914.00,0.67
4913.00,0.67
4912.00,0.67
4911.00,0.67
4910.00,0.68
4909.00,0.68
4908.00,0.68
4907.00,0.68
4906.00,0.68
4905.00,0.68
4904.00,0.69
4903.00,0.69
4902.00,0.69
4901.00,0.69
4900.00,0.69
4899.00,0.69
4898.00,0.69
4897.00,0.69
4896.00,0.69
4895.00,0.70
4894.00,0.70
4893.00,0.70
4892.00,0.70
4891.00,0.70
4890.00,0.70
4889.00,0.70
4888.00,0.70
4887.00,0.70
4886.00,0.70
4885.00,0.70
4884.00,0.70
4883.00,0.70
4882.00,0.69
4881.00,0.69
4880.00,0.69
4879.00,0.69
4878.00,0.69
4877.00,0.69
4876.00,0.69
4875.00,0.69
4874.00,0.69
4873.00,0.69
4872.00,0.69
4871.00,0.69
4870.00,0.69
4869.00,0.69
4868.00,0.69
4867.00,0.69
4866.00,0.69
4865.00,0.69
4864.00,0.69
4863.00,0.69
4862.00,0.69
4861.00,0.69
4860.00,0.69
4859.00,0.69
4858.00,0.69
4857.00,0.69
4856.00,0.70
4855.00,0.70
4854.00,0.70
4853.00,0.70
4852.00,0.70
4851.00,0.70
4850.00,0.70
4849.00,0.70
4848.00,0.70
4847.00,0.70
4846.00,0.71
4845.00,0.71
4844.00,0.71
4843.00,0.71
4842.00,0.71
4841.00,0.71
4840.00,0.71
4839.00,0.71
4838.00,0.71
4837.00,0.71
4836.00,0.71
4835.00,0.71
4834.00,0.71
4833.00,0.71
4832.00,0.71
4831.00,0.71
4830.00,0.71
4829.00,0.71
4828.00,0.71
4827.00,0.71
4826.00,0.71
4825.00,0.71
4824.00,0.71
4823.00,0.71
4822.00,0.71
4821.00,0.71
4820.00,0.71
4819.00,0.71
4818.00,0.71
4817.00,0.71
4816.00,0.71
4815.00,0.71
4814.00,0.71
4813.00,0.71
4812.00,0.71
4811.00,0.71
4810.00,0.71
4809.00,0.71
4808.00,0.71
4807.00,0.71
4806.00,0.71
4805.00,0.71
4804.00,0.71
4803.00,0.71
4802.00,0.71
4801.00,0.72
4800.00,0.72
4799.00,0.72
4798.00,0.72
4797.00,0.72
4796.00,0.72
4795.00,0.72
4794.00,0.72
4793.00,0.72
4792.00,0.72
4791.00,0.72
4790.00,0.72
4789.00,0.72
4788.00,0.72
4787.00,0.72
4786.00,0.72
4785.00,0.72
4784.00,0.73
4783.00,0.73
4782.00,0.73
4781.00,0.73
4780.00,0.73
4779.00,0.73
4778.00,0.73
4777.00,0.73
4776.00,0.73
4775.00,0.73
4774.00,0.73
4773.00,0.73
4772.00,0.73
4771.00,0.73
4770.00,0.73
4769.00,0.73
4768.00,0.73
4767.00,0.74
4766.00,0.74
4765.00,0.74
4764.00,0.74
4763.00,0.74
4762.00,0.74
4761.00,0.74
4760.00,0.74
4759.00,0.74
4758.00,0.74
4757.00,0.74
4756.00,0.74
4755.00,0.74
4754.00,0.74
4753.00,0.74
4752.00,0.74
4751.00,0.75
4750.00,0.75
4749.00,0.75
4748.00,0.75
4747.00,0.75
4746.00,0.75
4745.00,0.75
4744.00,0.75
4743.00,0.75
4742.00,0.75
4741.00,0.75
4740.00,0.75
4739.00,0.75
4738.00,0.75
4737.00,0.75
4736.00,0.75
4735.00,0.75
4734.00,0.75
4733.00,0.74
4732.00,0.74
4731.00,0.74
4730.00,0.74
4729.00,0.75
4728.00,0.75
4727.00,0.75
4726.00,0.75
4725.00,0.75
4724.00,0.75
4723.00,0.75
4722.00,0.75
4721.00,0.75
4720.00,0.75
4719.00,0.75
4718.00,0.75
4717.00,0.75
4716.00,0.75
4715.00,0.75
4714.00,0.75
4713.00,0.75
4712.00,0.75
4711.00,0.75
4710.00,0.75
4709.00,0.75
4708.00,0.75
4707.00,0.75
4706.00,0.75
4705.00,0.75
4704.00,0.75
4703.00,0.75
4702.00,0.75
4701.00,0.74
4700.00,0.74
4699.00,0.74
4698.00,0.74
4697.00,0.74
4696.00,0.74
4695.00,0.75
4694.00,0.75
4693.00,0.75
4692.00,0.75
4691.00,0.75
4690.00,0.75
4689.00,0.75
4688.00,0.75
4687.00,0.75
4686.00,0.75
4685.00,0.75
4684.00,0.75
4683.00,0.75
4682.00,0.76
4681.00,0.76
4680.00,0.76
4679.00,0.76
4678.00,0.76
4677.00,0.76
4676.00,0.76
4675.00,0.76
4674.00,0.76
4673.00,0.77
4672.00,0.77
4671.00,0.77
4670.00,0.77
4669.00,0.77
4668.00,0.77
4667.00,0.77
4666.00,0.77
4665.00,0.77
4664.00,0.77
4663.00,0.77
4662.00,0.77
4661.00,0.77
4660.00,0.77
4659.00,0.77
4658.00,0.77
4657.00,0.77
4656.00,0.77
4655.00,0.77
4654.00,0.77
4653.00,0.77
4652.00,0.77
4651.00,0.77
4650.00,0.77
4649.00,0.77
4648.00,0.77
4647.00,0.77
4646.00,0.77
4645.00,0.77
4644.00,0.77
4643.00,0.77
4642.00,0.77
4641.00,0.77
4640.00,0.77
4639.00,0.77
4638.00,0.77
4637.00,0.77
4636.00,0.77
4635.00,0.77
4634.00,0.77
4633.00,0.77
4632.00,0.77
4631.00,0.77
4630.00,0.77
4629.00,0.77
4628.00,0.77
4627.00,0.77
4626.00,0.77
4625.00,0.77
4624.00,0.77
4623.00,0.77
4622.00,0.77
4621.00,0.77
4620.00,0.77
4619.00,0.77
4618.00,0.77
4617.00,0.77
4616.00,0.77
4615.00,0.77
4614.00,0.77
4613.00,0.77
4612.00,0.77
4611.00,0.77
4610.00,0.77
4609.00,0.77
4608.00,0.77
4607.00,0.77
4606.00,0.78
4605.00,0.78
4604.00,0.78
4603.00,0.78
4602.00,0.78
4601.00,0.78
4600.00,0.78
4599.00,0.78
4598.00,0.78
4597.00,0.78
4596.00,0.78
4595.00,0.78
4594.00,0.78
4593.00,0.78
4592.00,0.78
4591.00,0.78
4590.00,0.78
4589.00,0.78
4588.00,0.78
4587.00,0.78
4586.00,0.78
4585.00,0.78
4584.00,0.78
4583.00,0.78
4582.00,0.78
4581.00,0.77
4580.00,0.77
4579.00,0.77
4578.00,0.77
4577.00,0.77
4576.00,0.77
4575.00,0.77
4574.00,0.77
4573.00,0.77
4572.00,0.77
4571.00,0.77
4570.00,0.77
4569.00,0.77
4568.00,0.77
4567.00,0.76
4566.00,0.76
4565.00,0.76
4564.00,0.76
4563.00,0.76
4562.00,0.76
4561.00,0.76
4560.00,0.76
4559.00,0.76
4558.00,0.76
4557.00,0.76
4556.00,0.76
4555.00,0.76
4554.00,0.76
4553.00,0.76
4552.00,0.76
4551.00,0.76
4550.00,0.76
4549.00,0.76
4548.00,0.76
4547.00,0.76
4546.00,0.76
4545.00,0.76
4544.00,0.76
4543.00,0.76
4542.00,0.76
4541.00,0.76
4540.00,0.76
4539.00,0.76
4538.00,0.77
4537.00,0.77
4536.00,0.77
4535.00,0.77
4534.00,0.77
4533.00,0.77
4532.00,0.77
4531.00,0.77
4530.00,0.77
4529.00,0.77
4528.00,0.77
4527.00,0.77
4526.00,0.77
4525.00,0.77
4524.00,0.78
4523.00,0.78
4522.00,0.78
4521.00,0.78
4520.00,0.78
4519.00,0.78
4518.00,0.78
4517.00,0.78
4516.00,0.78
4515.00,0.77
4514.00,0.77
4513.00,0.77
4512.00,0.77
4511.00,0.77
4510.00,0.77
4509.00,0.77
4508.00,0.77
4507.00,0.77
4506.00,0.77
4505.00,0.77
4504.00,0.77
4503.00,0.77
4502.00,0.77
4501.00,0.77
4500.00,0.77
4499.00,0.77
4498.00,0.77
4497.00,0.77
4496.00,0.77
4495.00,0.77
4494.00,0.77
4493.00,0.77
4492.00,0.77
4491.00,0.77
4490.00,0.77
4489.00,0.77
4488.00,0.77
4487.00,0.77
4486.00,0.77
4485.00,0.77
4484.00,0.77
4483.00,0.77
4482.00,0.77
4481.00,0.77
4480.00,0.77
4479.00,0.77
4478.00,0.77
4477.00,0.77
4476.00,0.77
4475.00,0.77
4474.00,0.77
4473.00,0.77
4472.00,0.77
4471.00,0.77
4470.00,0.77
4469.00,0.77
4468.00,0.77
4467.00,0.77
4466.00,0.77
4465.00,0.77
4464.00,0.77
4463.00,0.77
4462.00,0.77
4461.00,0.77
4460.00,0.77
4459.00,0.77
4458.00,0.77
4457.00,0.77
4456.00,0.77
4455.00,0.77
4454.00,0.77
4453.00,0.76
4452.00,0.76
4451.00,0.76
4450.00,0.76
4449.00,0.76
4448.00,0.76
4447.00,0.76
4446.00,0.76
4445.00,0.76
4444.00,0.75
4443.00,0.75
4442.00,0.75
4441.00,0.75
4440.00,0.75
4439.00,0.75
4438.00,0.75
4437.00,0.74
4436.00,0.74
4435.00,0.74
4434.00,0.74
4433.00,0.74
4432.00,0.74
4431.00,0.73
4430.00,0.73
4429.00,0.73
4428.00,0.73
4427.00,0.73
4426.00,0.73
4425.00,0.73
4424.00,0.73
4423.00,0.73
4422.00,0.73
4421.00,0.73
4420.00,0.72
4419.00,0.72
4418.00,0.72
4417.00,0.72
4416.00,0.72
4415.00,0.72
4414.00,0.72
4413.00,0.72
4412.00,0.72
4411.00,0.72
4410.00,0.72
4409.00,0.72
4408.00,0.72
4407.00,0.72
4406.00,0.72
4405.00,0.72
4404.00,0.72
4403.00,0.72
4402.00,0.72
4401.00,0.72
4400.00,0.72
4399.00,0.71
4398.00,0.71
4397.00,0.71
4396.00,0.71
4395.00,0.71
4394.00,0.71
4393.00,0.71
4392.00,0.71
4391.00,0.71
4390.00,0.70
4389.00,0.70
4388.00,0.70
4387.00,0.70
4386.00,0.70
4385.00,0.70
4384.00,0.70
4383.00,0.70
4382.00,0.70
4381.00,0.69
4380.00,0.69
4379.00,0.69
4378.00,0.69
4377.00,0.69
4376.00,0.69
4375.00,0.69
4374.00,0.69
4373.00,0.69
4372.00,0.69
4371.00,0.69
4370.00,0.69
4369.00,0.69
4368.00,0.70
4367.00,0.70
4366.00,0.70
4365.00,0.70
4364.00,0.70
4363.00,0.70
4362.00,0.70
4361.00,0.70
4360.00,0.70
4359.00,0.70
4358.00,0.70
4357.00,0.71
4356.00,0.71
4355.00,0.71
4354.00,0.71
4353.00,0.71
4352.00,0.71
4351.00,0.71
4350.00,0.71
4349.00,0.71
4348.00,0.71
4347.00,0.71
4346.00,0.71
4345.00,0.71
4344.00,0.71
4343.00,0.71
4342.00,0.71
4341.00,0.71
4340.00,0.71
4339.00,0.71
4338.00,0.71
4337.00,0.71
4336.00,0.71
4335.00,0.71
4334.00,0.71
4333.00,0.71
4332.00,0.71
4331.00,0.71
4330.00,0.71
4329.00,0.71
4328.00,0.71
4327.00,0.71
4326.00,0.71
4325.00,0.71
4324.00,0.71
4323.00,0.71
4322.00,0.71
4321.00,0.71
4320.00,0.72
4319.00,0.72
4318.00,0.72
4317.00,0.72
4316.00,0.72
4315.00,0.72
4314.00,0.73
4313.00,0.73
4312.00,0.73
4311.00,0.73
4310.00,0.74
4309.00,0.74
4308.00,0.74
4307.00,0.74
4306.00,0.75
4305.00,0.75
4304.00,0.75
4303.00,0.75
4302.00,0.75
4301.00,0.75
4300.00,0.75
4299.00,0.75
4298.00,0.75
4297.00,0.76
4296.00,0.76
4295.00,0.76
4294.00,0.76
4293.00,0.76
4292.00,0.76
4291.00,0.76
4290.00,0.76
4289.00,0.75
4288.00,0.75
4287.00,0.75
4286.00,0.75
4285.00,0.75
4284.00,0.75
4283.00,0.75
4282.00,0.74
4281.00,0.74
4280.00,0.74
4279.00,0.74
4278.00,0.74
4277.00,0.73
4276.00,0.73
4275.00,0.73
4274.00,0.73
4273.00,0.73
4272.00,0.73
4271.00,0.73
4270.00,0.72
4269.00,0.72
4268.00,0.72
4267.00,0.72
4266.00,0.72
4265.00,0.72
4264.00,0.72
4263.00,0.72
4262.00,0.72
4261.00,0.72
4260.00,0.72
4259.00,0.72
4258.00,0.72
4257.00,0.72
4256.00,0.72
4255.00,0.72
4254.00,0.72
4253.00,0.72
4252.00,0.72
4251.00,0.72
4250.00,0.72
4249.00,0.72
4248.00,0.73
4247.00,0.73
4246.00,0.73
4245.00,0.73
4244.00,0.73
4243.00,0.73
4242.00,0.73
4241.00,0.73
4240.00,0.74
4239.00,0.74
4238.00,0.74
4237.00,0.74
4236.00,0.74
4235.00,0.74
4234.00,0.75
4233.00,0.75
4232.00,0.75
4231.00,0.75
4230.00,0.75
4229.00,0.75
4228.00,0.76
4227.00,0.76
4226.00,0.76
4225.00,0.76
4224.00,0.76
4223.00,0.76
4222.00,0.76
4221.00,0.76
4220.00,0.76
4219.00,0.76
4218.00,0.77
4217.00,0.77
4216.00,0.77
4215.00,0.77
4214.00,0.77
4213.00,0.77
4212.00,0.77
4211.00,0.77
4210.00,0.77
4209.00,0.77
4208.00,0.77
4207.00,0.77
4206.00,0.77
4205.00,0.76
4204.00,0.76
4203.00,0.76
4202.00,0.76
4201.00,0.76
4200.00,0.76
4199.00,0.76
4198.00,0.76
4197.00,0.75
4196.00,0.75
4195.00,0.75
4194.00,0.75
4193.00,0.75
4192.00,0.75
4191.00,0.75
4190.00,0.75
4189.00,0.75
4188.00,0.74
4187.00,0.74
4186.00,0.74
4185.00,0.74
4184.00,0.74
4183.00,0.74
4182.00,0.74
4181.00,0.74
4180.00,0.75
4179.00,0.75
4178.00,0.75
4177.00,0.75
4176.00,0.75
4175.00,0.75
4174.00,0.75
4173.00,0.76
4172.00,0.76
4171.00,0.76
4170.00,0.76
4169.00,0.76
4168.00,0.77
4167.00,0.77
4166.00,0.77
4165.00,0.77
4164.00,0.77
4163.00,0.77
4162.00,0.78
4161.00,0.78
4160.00,0.78
4159.00,0.78
4158.00,0.78
4157.00,0.78
4156.00,0.78
4155.00,0.78
4154.00,0.78
4153.00,0.77
4152.00,0.77
4151.00,0.77
4150.00,0.77
4149.00,0.77
4148.00,0.77
4147.00,0.76
4146.00,0.76
4145.00,0.76
4144.00,0.76
4143.00,0.76
4142.00,0.75
4141.00,0.75
4140.00,0.75
4139.00,0.74
4138.00,0.74
4137.00,0.74
4136.00,0.74
4135.00,0.74
4134.00,0.73
4133.00,0.73
4132.00,0.73
4131.00,0.73
4130.00,0.73
4129.00,0.73
4128.00,0.73
4127.00,0.73
4126.00,0.73
4125.00,0.73
4124.00,0.72
4123.00,0.72
4122.00,0.72
4121.00,0.72
4120.00,0.72
4119.00,0.72
4118.00,0.72
4117.00,0.72
4116.00,0.72
4115.00,0.72
4114.00,0.72
4113.00,0.72
4112.00,0.72
4111.00,0.72
4110.00,0.72
4109.00,0.72
4108.00,0.72
4107.00,0.72
4106.00,0.72
4105.00,0.72
4104.00,0.72
4103.00,0.72
4102.00,0.72
4101.00,0.72
4100.00,0.72
4099.00,0.72
4098.00,0.72
4097.00,0.72
4096.00,0.72
4095.00,0.72
4094.00,0.72
4093.00,0.72
4092.00,0.72
4091.00,0.72
4090.00,0.72
4089.00,0.72
4088.00,0.72
4087.00,0.72
4086.00,0.72
4085.00,0.72
4084.00,0.72
4083.00,0.72
4082.00,0.72
4081.00,0.72
4080.00,0.72
4079.00,0.72
4078.00,0.72
4077.00,0.72
4076.00,0.72
4075.00,0.72
4074.00,0.72
4073.00,0.72
4072.00,0.73
4071.00,0.73
4070.00,0.73
4069.00,0.73
4068.00,0.73
4067.00,0.73
4066.00,0.74
4065.00,0.74
4064.00,0.74
4063.00,0.74
4062.00,0.74
4061.00,0.74
4060.00,0.75
4059.00,0.75
4058.00,0.75
4057.00,0.75
4056.00,0.75
4055.00,0.75
4054.00,0.75
4053.00,0.76
4052.00,0.76
4051.00,0.76
4050.00,0.76
4049.00,0.76
4048.00,0.76
4047.00,0.76
4046.00,0.76
4045.00,0.76
4044.00,0.76
4043.00,0.76
4042.00,0.76
4041.00,0.76
4040.00,0.76
4039.00,0.76
4038.00,0.76
4037.00,0.77
4036.00,0.77
4035.00,0.77
4034.00,0.77
4033.00,0.77
4032.00,0.77
4031.00,0.77
4030.00,0.77
4029.00,0.77
4028.00,0.78
4027.00,0.78
4026.00,0.78
4025.00,0.78
4024.00,0.78
4023.00,0.78
4022.00,0.78
4021.00,0.78
4020.00,0.78
4019.00,0.79
4018.00,0.79
4017.00,0.79
4016.00,0.79
4015.00,0.79
4014.00,0.79
4013.00,0.79
4012.00,0.79
4011.00,0.79
4010.00,0.79
4009.00,0.79
4008.00,0.79
4007.00,0.79
4006.00,0.79
4005.00,0.79
4004.00,0.79
4003.00,0.79
4002.00,0.79
4001.00,0.79
4000.00,0.78
