创建为新数据集,样品 1221 用户 Administrator 日期 星期二, 七月 30 2019
cm-1,%T
10000.00,1.31
9998.00,1.30
9996.00,1.29
9994.00,1.28
9992.00,1.27
9990.00,1.26
9988.00,1.25
9986.00,1.24
9984.00,1.23
9982.00,1.22
9980.00,1.21
9978.00,1.21
9976.00,1.20
9974.00,1.20
9972.00,1.19
9970.00,1.19
9968.00,1.19
9966.00,1.19
9964.00,1.19
9962.00,1.19
9960.00,1.19
9958.00,1.19
9956.00,1.20
9954.00,1.20
9952.00,1.21
9950.00,1.21
9948.00,1.22
9946.00,1.23
9944.00,1.23
9942.00,1.24
9940.00,1.25
9938.00,1.25
9936.00,1.26
9934.00,1.26
9932.00,1.27
9930.00,1.27
9928.00,1.28
9926.00,1.28
9924.00,1.28
9922.00,1.28
9920.00,1.29
9918.00,1.29
9916.00,1.29
9914.00,1.29
9912.00,1.29
9910.00,1.29
9908.00,1.29
9906.00,1.28
9904.00,1.28
9902.00,1.28
9900.00,1.28
9898.00,1.28
9896.00,1.27
9894.00,1.27
9892.00,1.27
9890.00,1.26
9888.00,1.26
9886.00,1.26
9884.00,1.25
9882.00,1.25
9880.00,1.25
9878.00,1.25
9876.00,1.25
9874.00,1.25
9872.00,1.25
9870.00,1.25
9868.00,1.25
9866.00,1.25
9864.00,1.25
9862.00,1.25
9860.00,1.25
9858.00,1.25
9856.00,1.25
9854.00,1.25
9852.00,1.25
9850.00,1.25
9848.00,1.24
9846.00,1.24
9844.00,1.24
9842.00,1.24
9840.00,1.23
9838.00,1.23
9836.00,1.23
9834.00,1.22
9832.00,1.22
9830.00,1.21
9828.00,1.21
9826.00,1.20
9824.00,1.20
9822.00,1.19
9820.00,1.18
9818.00,1.18
9816.00,1.17
9814.00,1.17
9812.00,1.16
9810.00,1.15
9808.00,1.15
9806.00,1.14
9804.00,1.14
9802.00,1.14
9800.00,1.13
9798.00,1.13
9796.00,1.13
9794.00,1.13
9792.00,1.13
9790.00,1.13
9788.00,1.13
9786.00,1.13
9784.00,1.13
9782.00,1.13
9780.00,1.14
9778.00,1.14
9776.00,1.14
9774.00,1.14
9772.00,1.14
9770.00,1.15
9768.00,1.15
9766.00,1.15
9764.00,1.15
9762.00,1.16
9760.00,1.16
9758.00,1.16
9756.00,1.16
9754.00,1.16
9752.00,1.16
9750.00,1.16
9748.00,1.16
9746.00,1.16
9744.00,1.16
9742.00,1.16
9740.00,1.15
9738.00,1.15
9736.00,1.15
9734.00,1.15
9732.00,1.15
9730.00,1.14
9728.00,1.14
9726.00,1.14
9724.00,1.14
9722.00,1.14
9720.00,1.14
9718.00,1.14
9716.00,1.14
9714.00,1.14
9712.00,1.14
9710.00,1.14
9708.00,1.14
9706.00,1.14
9704.00,1.14
9702.00,1.14
9700.00,1.14
9698.00,1.14
9696.00,1.14
9694.00,1.15
9692.00,1.15
9690.00,1.15
9688.00,1.15
9686.00,1.15
9684.00,1.15
9682.00,1.15
9680.00,1.15
9678.00,1.15
9676.00,1.15
9674.00,1.15
9672.00,1.15
9670.00,1.15
9668.00,1.15
9666.00,1.15
9664.00,1.15
9662.00,1.15
9660.00,1.15
9658.00,1.15
9656.00,1.15
9654.00,1.14
9652.00,1.14
9650.00,1.14
9648.00,1.14
9646.00,1.14
9644.00,1.14
9642.00,1.14
9640.00,1.14
9638.00,1.14
9636.00,1.14
9634.00,1.14
9632.00,1.15
9630.00,1.15
9628.00,1.15
9626.00,1.16
9624.00,1.16
9622.00,1.16
9620.00,1.17
9618.00,1.17
9616.00,1.17
9614.00,1.18
9612.00,1.18
9610.00,1.19
9608.00,1.19
9606.00,1.19
9604.00,1.19
9602.00,1.20
9600.00,1.20
9598.00,1.20
9596.00,1.21
9594.00,1.21
9592.00,1.21
9590.00,1.21
9588.00,1.21
9586.00,1.21
9584.00,1.21
9582.00,1.21
9580.00,1.21
9578.00,1.21
9576.00,1.21
9574.00,1.21
9572.00,1.21
9570.00,1.21
9568.00,1.20
9566.00,1.20
9564.00,1.20
9562.00,1.20
9560.00,1.20
9558.00,1.20
9556.00,1.20
9554.00,1.20
9552.00,1.20
9550.00,1.20
9548.00,1.20
9546.00,1.20
9544.00,1.20
9542.00,1.20
9540.00,1.21
9538.00,1.21
9536.00,1.21
9534.00,1.21
9532.00,1.21
9530.00,1.22
9528.00,1.22
9526.00,1.22
9524.00,1.22
9522.00,1.23
9520.00,1.23
9518.00,1.23
9516.00,1.24
9514.00,1.24
9512.00,1.24
9510.00,1.25
9508.00,1.25
9506.00,1.25
9504.00,1.25
9502.00,1.25
9500.00,1.26
9498.00,1.26
9496.00,1.26
9494.00,1.26
9492.00,1.26
9490.00,1.26
9488.00,1.25
9486.00,1.25
9484.00,1.25
9482.00,1.25
9480.00,1.25
9478.00,1.24
9476.00,1.24
9474.00,1.24
9472.00,1.24
9470.00,1.23
9468.00,1.23
9466.00,1.23
9464.00,1.22
9462.00,1.22
9460.00,1.21
9458.00,1.21
9456.00,1.21
9454.00,1.20
9452.00,1.20
9450.00,1.20
9448.00,1.19
9446.00,1.19
9444.00,1.19
9442.00,1.19
9440.00,1.19
9438.00,1.18
9436.00,1.18
9434.00,1.18
9432.00,1.18
9430.00,1.18
9428.00,1.18
9426.00,1.18
9424.00,1.18
9422.00,1.18
9420.00,1.18
9418.00,1.18
9416.00,1.18
9414.00,1.18
9412.00,1.19
9410.00,1.19
9408.00,1.19
9406.00,1.19
9404.00,1.19
9402.00,1.19
9400.00,1.20
9398.00,1.20
9396.00,1.20
9394.00,1.20
9392.00,1.20
9390.00,1.20
9388.00,1.20
9386.00,1.20
9384.00,1.20
9382.00,1.20
9380.00,1.21
9378.00,1.21
9376.00,1.21
9374.00,1.21
9372.00,1.21
9370.00,1.21
9368.00,1.21
9366.00,1.21
9364.00,1.21
9362.00,1.21
9360.00,1.21
9358.00,1.20
9356.00,1.20
9354.00,1.20
9352.00,1.20
9350.00,1.20
9348.00,1.20
9346.00,1.20
9344.00,1.20
9342.00,1.20
9340.00,1.20
9338.00,1.20
9336.00,1.20
9334.00,1.20
9332.00,1.20
9330.00,1.20
9328.00,1.20
9326.00,1.20
9324.00,1.20
9322.00,1.20
9320.00,1.20
9318.00,1.20
9316.00,1.21
9314.00,1.21
9312.00,1.21
9310.00,1.21
9308.00,1.21
9306.00,1.22
9304.00,1.22
9302.00,1.22
9300.00,1.22
9298.00,1.22
9296.00,1.22
9294.00,1.22
9292.00,1.22
9290.00,1.22
9288.00,1.22
9286.00,1.22
9284.00,1.22
9282.00,1.22
9280.00,1.21
9278.00,1.21
9276.00,1.21
9274.00,1.21
9272.00,1.21
9270.00,1.20
9268.00,1.20
9266.00,1.20
9264.00,1.20
9262.00,1.20
9260.00,1.20
9258.00,1.19
9256.00,1.19
9254.00,1.19
9252.00,1.19
9250.00,1.19
9248.00,1.19
9246.00,1.19
9244.00,1.19
9242.00,1.19
9240.00,1.19
9238.00,1.19
9236.00,1.19
9234.00,1.19
9232.00,1.19
9230.00,1.19
9228.00,1.20
9226.00,1.20
9224.00,1.20
9222.00,1.20
9220.00,1.20
9218.00,1.21
9216.00,1.21
9214.00,1.21
9212.00,1.21
9210.00,1.21
9208.00,1.21
9206.00,1.22
9204.00,1.22
9202.00,1.22
9200.00,1.22
9198.00,1.22
9196.00,1.23
9194.00,1.23
9192.00,1.23
9190.00,1.23
9188.00,1.24
9186.00,1.24
9184.00,1.24
9182.00,1.25
9180.00,1.25
9178.00,1.25
9176.00,1.26
9174.00,1.26
9172.00,1.26
9170.00,1.26
9168.00,1.27
9166.00,1.27
9164.00,1.27
9162.00,1.27
9160.00,1.27
9158.00,1.27
9156.00,1.27
9154.00,1.28
9152.00,1.28
9150.00,1.28
9148.00,1.28
9146.00,1.28
9144.00,1.28
9142.00,1.28
9140.00,1.27
9138.00,1.27
9136.00,1.27
9134.00,1.27
9132.00,1.27
9130.00,1.26
9128.00,1.26
9126.00,1.26
9124.00,1.25
9122.00,1.25
9120.00,1.25
9118.00,1.25
9116.00,1.24
9114.00,1.24
9112.00,1.24
9110.00,1.24
9108.00,1.24
9106.00,1.23
9104.00,1.23
9102.00,1.23
9100.00,1.23
9098.00,1.23
9096.00,1.23
9094.00,1.23
9092.00,1.22
9090.00,1.22
9088.00,1.22
9086.00,1.22
9084.00,1.22
9082.00,1.22
9080.00,1.22
9078.00,1.22
9076.00,1.22
9074.00,1.22
9072.00,1.23
9070.00,1.23
9068.00,1.23
9066.00,1.23
9064.00,1.23
9062.00,1.23
9060.00,1.23
9058.00,1.23
9056.00,1.23
9054.00,1.23
9052.00,1.23
9050.00,1.23
9048.00,1.23
9046.00,1.23
9044.00,1.23
9042.00,1.23
9040.00,1.23
9038.00,1.23
9036.00,1.24
9034.00,1.24
9032.00,1.24
9030.00,1.24
9028.00,1.24
9026.00,1.24
9024.00,1.24
9022.00,1.24
9020.00,1.24
9018.00,1.24
9016.00,1.23
9014.00,1.23
9012.00,1.23
9010.00,1.23
9008.00,1.23
9006.00,1.23
9004.00,1.23
9002.00,1.23
9000.00,1.23
8998.00,1.23
8996.00,1.23
8994.00,1.23
8992.00,1.23
8990.00,1.23
8988.00,1.22
8986.00,1.22
8984.00,1.22
8982.00,1.22
8980.00,1.22
8978.00,1.22
8976.00,1.22
8974.00,1.22
8972.00,1.22
8970.00,1.22
8968.00,1.22
8966.00,1.22
8964.00,1.23
8962.00,1.23
8960.00,1.23
8958.00,1.23
8956.00,1.23
8954.00,1.23
8952.00,1.23
8950.00,1.23
8948.00,1.23
8946.00,1.24
8944.00,1.24
8942.00,1.24
8940.00,1.24
8938.00,1.24
8936.00,1.24
8934.00,1.24
8932.00,1.24
8930.00,1.24
8928.00,1.24
8926.00,1.24
8924.00,1.24
8922.00,1.24
8920.00,1.24
8918.00,1.24
8916.00,1.24
8914.00,1.24
8912.00,1.24
8910.00,1.24
8908.00,1.24
8906.00,1.24
8904.00,1.24
8902.00,1.24
8900.00,1.24
8898.00,1.24
8896.00,1.23
8894.00,1.23
8892.00,1.23
8890.00,1.23
8888.00,1.23
8886.00,1.23
8884.00,1.23
8882.00,1.23
8880.00,1.23
8878.00,1.23
8876.00,1.23
8874.00,1.23
8872.00,1.23
8870.00,1.23
8868.00,1.23
8866.00,1.22
8864.00,1.22
8862.00,1.22
8860.00,1.22
8858.00,1.22
8856.00,1.22
8854.00,1.22
8852.00,1.22
8850.00,1.22
8848.00,1.22
8846.00,1.22
8844.00,1.21
8842.00,1.21
8840.00,1.21
8838.00,1.21
8836.00,1.21
8834.00,1.21
8832.00,1.21
8830.00,1.20
8828.00,1.20
8826.00,1.20
8824.00,1.20
8822.00,1.20
8820.00,1.20
8818.00,1.20
8816.00,1.20
8814.00,1.19
8812.00,1.19
8810.00,1.19
8808.00,1.19
8806.00,1.19
8804.00,1.19
8802.00,1.19
8800.00,1.19
8798.00,1.19
8796.00,1.20
8794.00,1.20
8792.00,1.20
8790.00,1.20
8788.00,1.20
8786.00,1.20
8784.00,1.20
8782.00,1.20
8780.00,1.20
8778.00,1.20
8776.00,1.20
8774.00,1.20
8772.00,1.20
8770.00,1.20
8768.00,1.20
8766.00,1.20
8764.00,1.21
8762.00,1.21
8760.00,1.21
8758.00,1.21
8756.00,1.21
8754.00,1.21
8752.00,1.21
8750.00,1.21
8748.00,1.21
8746.00,1.21
8744.00,1.21
8742.00,1.21
8740.00,1.20
8738.00,1.20
8736.00,1.20
8734.00,1.20
8732.00,1.20
8730.00,1.20
8728.00,1.20
8726.00,1.20
8724.00,1.20
8722.00,1.20
8720.00,1.20
8718.00,1.20
8716.00,1.20
8714.00,1.20
8712.00,1.20
8710.00,1.20
8708.00,1.20
8706.00,1.20
8704.00,1.20
8702.00,1.19
8700.00,1.19
8698.00,1.19
8696.00,1.19
8694.00,1.19
8692.00,1.19
8690.00,1.19
8688.00,1.18
8686.00,1.18
8684.00,1.18
8682.00,1.18
8680.00,1.17
8678.00,1.17
8676.00,1.17
8674.00,1.17
8672.00,1.16
8670.00,1.16
8668.00,1.16
8666.00,1.16
8664.00,1.15
8662.00,1.15
8660.00,1.15
8658.00,1.15
8656.00,1.15
8654.00,1.14
8652.00,1.14
8650.00,1.14
8648.00,1.14
8646.00,1.14
8644.00,1.14
8642.00,1.14
8640.00,1.14
8638.00,1.14
8636.00,1.14
8634.00,1.14
8632.00,1.14
8630.00,1.14
8628.00,1.14
8626.00,1.14
8624.00,1.15
8622.00,1.15
8620.00,1.15
8618.00,1.15
8616.00,1.15
8614.00,1.16
8612.00,1.16
8610.00,1.16
8608.00,1.16
8606.00,1.16
8604.00,1.17
8602.00,1.17
8600.00,1.17
8598.00,1.17
8596.00,1.18
8594.00,1.18
8592.00,1.18
8590.00,1.18
8588.00,1.18
8586.00,1.18
8584.00,1.18
8582.00,1.18
8580.00,1.18
8578.00,1.18
8576.00,1.18
8574.00,1.19
8572.00,1.19
8570.00,1.19
8568.00,1.19
8566.00,1.19
8564.00,1.19
8562.00,1.19
8560.00,1.19
8558.00,1.19
8556.00,1.19
8554.00,1.19
8552.00,1.19
8550.00,1.19
8548.00,1.19
8546.00,1.19
8544.00,1.19
8542.00,1.19
8540.00,1.19
8538.00,1.19
8536.00,1.19
8534.00,1.19
8532.00,1.19
8530.00,1.19
8528.00,1.19
8526.00,1.19
8524.00,1.19
8522.00,1.19
8520.00,1.19
8518.00,1.19
8516.00,1.19
8514.00,1.19
8512.00,1.19
8510.00,1.19
8508.00,1.19
8506.00,1.19
8504.00,1.19
8502.00,1.19
8500.00,1.19
8498.00,1.18
8496.00,1.18
8494.00,1.18
8492.00,1.18
8490.00,1.18
8488.00,1.18
8486.00,1.18
8484.00,1.18
8482.00,1.18
8480.00,1.18
8478.00,1.18
8476.00,1.17
8474.00,1.17
8472.00,1.17
8470.00,1.17
8468.00,1.17
8466.00,1.17
8464.00,1.17
8462.00,1.17
8460.00,1.17
8458.00,1.17
8456.00,1.17
8454.00,1.18
8452.00,1.18
8450.00,1.18
8448.00,1.18
8446.00,1.18
8444.00,1.18
8442.00,1.18
8440.00,1.18
8438.00,1.18
8436.00,1.18
8434.00,1.18
8432.00,1.18
8430.00,1.18
8428.00,1.18
8426.00,1.18
8424.00,1.18
8422.00,1.18
8420.00,1.18
8418.00,1.18
8416.00,1.18
8414.00,1.18
8412.00,1.18
8410.00,1.18
8408.00,1.18
8406.00,1.18
8404.00,1.18
8402.00,1.18
8400.00,1.17
8398.00,1.17
8396.00,1.17
8394.00,1.17
8392.00,1.17
8390.00,1.17
8388.00,1.17
8386.00,1.17
8384.00,1.17
8382.00,1.17
8380.00,1.17
8378.00,1.17
8376.00,1.17
8374.00,1.17
8372.00,1.17
8370.00,1.17
8368.00,1.17
8366.00,1.17
8364.00,1.17
8362.00,1.17
8360.00,1.17
8358.00,1.17
8356.00,1.17
8354.00,1.17
8352.00,1.17
8350.00,1.17
8348.00,1.17
8346.00,1.17
8344.00,1.17
8342.00,1.18
8340.00,1.18
8338.00,1.18
8336.00,1.18
8334.00,1.18
8332.00,1.18
8330.00,1.18
8328.00,1.18
8326.00,1.18
8324.00,1.18
8322.00,1.18
8320.00,1.18
8318.00,1.18
8316.00,1.18
8314.00,1.18
8312.00,1.18
8310.00,1.18
8308.00,1.18
8306.00,1.18
8304.00,1.18
8302.00,1.18
8300.00,1.18
8298.00,1.18
8296.00,1.18
8294.00,1.18
8292.00,1.18
8290.00,1.19
8288.00,1.19
8286.00,1.19
8284.00,1.19
8282.00,1.19
8280.00,1.19
8278.00,1.19
8276.00,1.19
8274.00,1.19
8272.00,1.19
8270.00,1.19
8268.00,1.19
8266.00,1.19
8264.00,1.19
8262.00,1.19
8260.00,1.19
8258.00,1.19
8256.00,1.19
8254.00,1.19
8252.00,1.19
8250.00,1.19
8248.00,1.19
8246.00,1.19
8244.00,1.20
8242.00,1.20
8240.00,1.20
8238.00,1.20
8236.00,1.20
8234.00,1.20
8232.00,1.20
8230.00,1.20
8228.00,1.20
8226.00,1.20
8224.00,1.21
8222.00,1.21
8220.00,1.21
8218.00,1.21
8216.00,1.21
8214.00,1.21
8212.00,1.21
8210.00,1.21
8208.00,1.21
8206.00,1.21
8204.00,1.22
8202.00,1.22
8200.00,1.22
8198.00,1.22
8196.00,1.22
8194.00,1.22
8192.00,1.22
8190.00,1.22
8188.00,1.22
8186.00,1.22
8184.00,1.22
8182.00,1.22
8180.00,1.22
8178.00,1.22
8176.00,1.22
8174.00,1.22
8172.00,1.22
8170.00,1.22
8168.00,1.22
8166.00,1.22
8164.00,1.22
8162.00,1.22
8160.00,1.22
8158.00,1.22
8156.00,1.22
8154.00,1.22
8152.00,1.22
8150.00,1.22
8148.00,1.22
8146.00,1.22
8144.00,1.22
8142.00,1.23
8140.00,1.23
8138.00,1.23
8136.00,1.23
8134.00,1.23
8132.00,1.23
8130.00,1.23
8128.00,1.24
8126.00,1.24
8124.00,1.24
8122.00,1.24
8120.00,1.24
8118.00,1.24
8116.00,1.24
8114.00,1.24
8112.00,1.24
8110.00,1.24
8108.00,1.25
8106.00,1.25
8104.00,1.25
8102.00,1.25
8100.00,1.25
8098.00,1.25
8096.00,1.25
8094.00,1.25
8092.00,1.25
8090.00,1.25
8088.00,1.25
8086.00,1.24
8084.00,1.24
8082.00,1.24
8080.00,1.24
8078.00,1.24
8076.00,1.24
8074.00,1.24
8072.00,1.24
8070.00,1.23
8068.00,1.23
8066.00,1.23
8064.00,1.23
8062.00,1.23
8060.00,1.23
8058.00,1.23
8056.00,1.23
8054.00,1.23
8052.00,1.23
8050.00,1.23
8048.00,1.23
8046.00,1.23
8044.00,1.23
8042.00,1.23
8040.00,1.23
8038.00,1.23
8036.00,1.23
8034.00,1.23
8032.00,1.23
8030.00,1.23
8028.00,1.24
8026.00,1.24
8024.00,1.24
8022.00,1.24
8020.00,1.24
8018.00,1.24
8016.00,1.25
8014.00,1.25
8012.00,1.25
8010.00,1.25
8008.00,1.25
8006.00,1.25
8004.00,1.25
8002.00,1.26
8000.00,1.26
7998.00,1.26
7996.00,1.26
7994.00,1.26
7992.00,1.26
7990.00,1.26
7988.00,1.26
7986.00,1.26
7984.00,1.26
7982.00,1.26
7980.00,1.26
7978.00,1.26
7976.00,1.26
7974.00,1.26
7972.00,1.26
7970.00,1.26
7968.00,1.26
7966.00,1.26
7964.00,1.26
7962.00,1.26
7960.00,1.26
7958.00,1.26
7956.00,1.26
7954.00,1.26
7952.00,1.26
7950.00,1.26
7948.00,1.26
7946.00,1.26
7944.00,1.26
7942.00,1.26
7940.00,1.26
7938.00,1.26
7936.00,1.26
7934.00,1.27
7932.00,1.27
7930.00,1.27
7928.00,1.27
7926.00,1.27
7924.00,1.27
7922.00,1.27
7920.00,1.27
7918.00,1.27
7916.00,1.27
7914.00,1.27
7912.00,1.27
7910.00,1.27
7908.00,1.27
7906.00,1.27
7904.00,1.27
7902.00,1.27
7900.00,1.27
7898.00,1.27
7896.00,1.27
7894.00,1.28
7892.00,1.28
7890.00,1.28
7888.00,1.28
7886.00,1.28
7884.00,1.28
7882.00,1.28
7880.00,1.28
7878.00,1.28
7876.00,1.28
7874.00,1.28
7872.00,1.28
7870.00,1.28
7868.00,1.28
7866.00,1.28
7864.00,1.28
7862.00,1.28
7860.00,1.28
7858.00,1.28
7856.00,1.28
7854.00,1.28
7852.00,1.28
7850.00,1.28
7848.00,1.28
7846.00,1.28
7844.00,1.27
7842.00,1.27
7840.00,1.27
7838.00,1.27
7836.00,1.27
7834.00,1.27
7832.00,1.27
7830.00,1.27
7828.00,1.27
7826.00,1.27
7824.00,1.27
7822.00,1.27
7820.00,1.27
7818.00,1.27
7816.00,1.27
7814.00,1.27
7812.00,1.27
7810.00,1.27
7808.00,1.27
7806.00,1.27
7804.00,1.27
7802.00,1.27
7800.00,1.27
7798.00,1.27
7796.00,1.27
7794.00,1.27
7792.00,1.27
7790.00,1.27
7788.00,1.27
7786.00,1.27
7784.00,1.27
7782.00,1.28
7780.00,1.28
7778.00,1.28
7776.00,1.28
7774.00,1.28
7772.00,1.28
7770.00,1.28
7768.00,1.28
7766.00,1.28
7764.00,1.28
7762.00,1.28
7760.00,1.29
7758.00,1.29
7756.00,1.29
7754.00,1.29
7752.00,1.29
7750.00,1.29
7748.00,1.29
7746.00,1.29
7744.00,1.29
7742.00,1.29
7740.00,1.29
7738.00,1.29
7736.00,1.29
7734.00,1.29
7732.00,1.29
7730.00,1.28
7728.00,1.28
7726.00,1.28
7724.00,1.28
7722.00,1.28
7720.00,1.28
7718.00,1.28
7716.00,1.28
7714.00,1.28
7712.00,1.28
7710.00,1.28
7708.00,1.28
7706.00,1.28
7704.00,1.28
7702.00,1.28
7700.00,1.28
7698.00,1.28
7696.00,1.28
7694.00,1.28
7692.00,1.28
7690.00,1.28
7688.00,1.28
7686.00,1.28
7684.00,1.28
7682.00,1.28
7680.00,1.28
7678.00,1.28
7676.00,1.28
7674.00,1.28
7672.00,1.28
7670.00,1.28
7668.00,1.28
7666.00,1.28
7664.00,1.28
7662.00,1.28
7660.00,1.28
7658.00,1.28
7656.00,1.28
7654.00,1.28
7652.00,1.28
7650.00,1.28
7648.00,1.28
7646.00,1.28
7644.00,1.28
7642.00,1.29
7640.00,1.29
7638.00,1.29
7636.00,1.29
7634.00,1.29
7632.00,1.29
7630.00,1.29
7628.00,1.29
7626.00,1.29
7624.00,1.29
7622.00,1.29
7620.00,1.29
7618.00,1.30
7616.00,1.30
7614.00,1.30
7612.00,1.30
7610.00,1.30
7608.00,1.30
7606.00,1.30
7604.00,1.30
7602.00,1.30
7600.00,1.30
7598.00,1.30
7596.00,1.30
7594.00,1.30
7592.00,1.29
7590.00,1.29
7588.00,1.29
7586.00,1.29
7584.00,1.29
7582.00,1.29
7580.00,1.29
7578.00,1.29
7576.00,1.29
7574.00,1.29
7572.00,1.29
7570.00,1.28
7568.00,1.28
7566.00,1.28
7564.00,1.28
7562.00,1.28
7560.00,1.28
7558.00,1.28
7556.00,1.28
7554.00,1.28
7552.00,1.27
7550.00,1.27
7548.00,1.27
7546.00,1.27
7544.00,1.27
7542.00,1.27
7540.00,1.27
7538.00,1.27
7536.00,1.27
7534.00,1.26
7532.00,1.26
7530.00,1.26
7528.00,1.26
7526.00,1.26
7524.00,1.26
7522.00,1.26
7520.00,1.26
7518.00,1.26
7516.00,1.26
7514.00,1.26
7512.00,1.26
7510.00,1.26
7508.00,1.26
7506.00,1.26
7504.00,1.25
7502.00,1.25
7500.00,1.25
7498.00,1.25
7496.00,1.25
7494.00,1.25
7492.00,1.25
7490.00,1.25
7488.00,1.25
7486.00,1.25
7484.00,1.25
7482.00,1.25
7480.00,1.25
7478.00,1.25
7476.00,1.24
7474.00,1.24
7472.00,1.24
7470.00,1.24
7468.00,1.24
7466.00,1.24
7464.00,1.24
7462.00,1.24
7460.00,1.24
7458.00,1.23
7456.00,1.23
7454.00,1.23
7452.00,1.23
7450.00,1.23
7448.00,1.23
7446.00,1.23
7444.00,1.23
7442.00,1.23
7440.00,1.22
7438.00,1.22
7436.00,1.22
7434.00,1.22
7432.00,1.22
7430.00,1.22
7428.00,1.22
7426.00,1.22
7424.00,1.22
7422.00,1.22
7420.00,1.22
7418.00,1.21
7416.00,1.21
7414.00,1.21
7412.00,1.21
7410.00,1.21
7408.00,1.21
7406.00,1.21
7404.00,1.21
7402.00,1.21
7400.00,1.21
7398.00,1.21
7396.00,1.21
7394.00,1.21
7392.00,1.21
7390.00,1.21
7388.00,1.21
7386.00,1.21
7384.00,1.21
7382.00,1.21
7380.00,1.21
7378.00,1.21
7376.00,1.21
7374.00,1.21
7372.00,1.21
7370.00,1.21
7368.00,1.21
7366.00,1.21
7364.00,1.21
7362.00,1.21
7360.00,1.21
7358.00,1.21
7356.00,1.21
7354.00,1.21
7352.00,1.21
7350.00,1.21
7348.00,1.21
7346.00,1.20
7344.00,1.20
7342.00,1.20
7340.00,1.20
7338.00,1.20
7336.00,1.20
7334.00,1.19
7332.00,1.19
7330.00,1.19
7328.00,1.19
7326.00,1.19
7324.00,1.19
7322.00,1.18
7320.00,1.18
7318.00,1.18
7316.00,1.18
7314.00,1.18
7312.00,1.18
7310.00,1.18
7308.00,1.18
7306.00,1.17
7304.00,1.17
7302.00,1.17
7300.00,1.17
7298.00,1.17
7296.00,1.17
7294.00,1.17
7292.00,1.17
7290.00,1.16
7288.00,1.16
7286.00,1.16
7284.00,1.16
7282.00,1.16
7280.00,1.16
7278.00,1.16
7276.00,1.16
7274.00,1.15
7272.00,1.15
7270.00,1.15
7268.00,1.15
7266.00,1.14
7264.00,1.14
7262.00,1.14
7260.00,1.13
7258.00,1.13
7256.00,1.13
7254.00,1.12
7252.00,1.12
7250.00,1.11
7248.00,1.11
7246.00,1.10
7244.00,1.10
7242.00,1.09
7240.00,1.09
7238.00,1.08
7236.00,1.08
7234.00,1.07
7232.00,1.06
7230.00,1.06
7228.00,1.05
7226.00,1.05
7224.00,1.04
7222.00,1.03
7220.00,1.03
7218.00,1.02
7216.00,1.01
7214.00,1.01
7212.00,1.00
7210.00,0.99
7208.00,0.99
7206.00,0.98
7204.00,0.97
7202.00,0.97
7200.00,0.96
7198.00,0.96
7196.00,0.95
7194.00,0.94
7192.00,0.94
7190.00,0.93
7188.00,0.92
7186.00,0.92
7184.00,0.91
7182.00,0.91
7180.00,0.90
7178.00,0.89
7176.00,0.89
7174.00,0.88
7172.00,0.88
7170.00,0.87
7168.00,0.86
7166.00,0.86
7164.00,0.85
7162.00,0.85
7160.00,0.84
7158.00,0.83
7156.00,0.83
7154.00,0.82
7152.00,0.82
7150.00,0.81
7148.00,0.81
7146.00,0.80
7144.00,0.79
7142.00,0.79
7140.00,0.78
7138.00,0.78
7136.00,0.77
7134.00,0.77
7132.00,0.76
7130.00,0.76
7128.00,0.75
7126.00,0.75
7124.00,0.74
7122.00,0.74
7120.00,0.74
7118.00,0.73
7116.00,0.73
7114.00,0.73
7112.00,0.72
7110.00,0.72
7108.00,0.71
7106.00,0.71
7104.00,0.71
7102.00,0.71
7100.00,0.70
7098.00,0.70
7096.00,0.70
7094.00,0.69
7092.00,0.69
7090.00,0.69
7088.00,0.69
7086.00,0.68
7084.00,0.68
7082.00,0.68
7080.00,0.68
7078.00,0.67
7076.00,0.67
7074.00,0.67
7072.00,0.67
7070.00,0.66
7068.00,0.66
7066.00,0.66
7064.00,0.66
7062.00,0.66
7060.00,0.65
7058.00,0.65
7056.00,0.65
7054.00,0.65
7052.00,0.65
7050.00,0.65
7048.00,0.64
7046.00,0.64
7044.00,0.64
7042.00,0.64
7040.00,0.64
7038.00,0.64
7036.00,0.64
7034.00,0.64
7032.00,0.64
7030.00,0.63
7028.00,0.63
7026.00,0.63
7024.00,0.63
7022.00,0.63
7020.00,0.63
7018.00,0.63
7016.00,0.63
7014.00,0.63
7012.00,0.63
7010.00,0.63
7008.00,0.63
7006.00,0.62
7004.00,0.62
7002.00,0.62
7000.00,0.62
6998.00,0.62
6996.00,0.62
6994.00,0.62
6992.00,0.62
6990.00,0.61
6988.00,0.61
6986.00,0.61
6984.00,0.61
6982.00,0.61
6980.00,0.61
6978.00,0.61
6976.00,0.60
6974.00,0.60
6972.00,0.60
6970.00,0.60
6968.00,0.60
6966.00,0.60
6964.00,0.60
6962.00,0.60
6960.00,0.60
6958.00,0.60
6956.00,0.59
6954.00,0.59
6952.00,0.59
6950.00,0.59
6948.00,0.59
6946.00,0.59
6944.00,0.59
6942.00,0.59
6940.00,0.59
6938.00,0.60
6936.00,0.60
6934.00,0.60
6932.00,0.60
6930.00,0.60
6928.00,0.60
6926.00,0.60
6924.00,0.60
6922.00,0.60
6920.00,0.60
6918.00,0.60
6916.00,0.60
6914.00,0.60
6912.00,0.60
6910.00,0.60
6908.00,0.60
6906.00,0.60
6904.00,0.60
6902.00,0.60
6900.00,0.60
6898.00,0.60
6896.00,0.60
6894.00,0.60
6892.00,0.60
6890.00,0.60
6888.00,0.60
6886.00,0.60
6884.00,0.60
6882.00,0.60
6880.00,0.60
6878.00,0.60
6876.00,0.60
6874.00,0.60
6872.00,0.60
6870.00,0.60
6868.00,0.60
6866.00,0.60
6864.00,0.60
6862.00,0.60
6860.00,0.60
6858.00,0.61
6856.00,0.61
6854.00,0.61
6852.00,0.61
6850.00,0.61
6848.00,0.61
6846.00,0.61
6844.00,0.61
6842.00,0.61
6840.00,0.61
6838.00,0.61
6836.00,0.62
6834.00,0.62
6832.00,0.62
6830.00,0.62
6828.00,0.62
6826.00,0.62
6824.00,0.62
6822.00,0.62
6820.00,0.62
6818.00,0.62
6816.00,0.62
6814.00,0.62
6812.00,0.62
6810.00,0.62
6808.00,0.62
6806.00,0.62
6804.00,0.62
6802.00,0.62
6800.00,0.62
6798.00,0.62
6796.00,0.62
6794.00,0.62
6792.00,0.62
6790.00,0.62
6788.00,0.62
6786.00,0.62
6784.00,0.62
6782.00,0.62
6780.00,0.62
6778.00,0.63
6776.00,0.63
6774.00,0.63
6772.00,0.63
6770.00,0.63
6768.00,0.63
6766.00,0.63
6764.00,0.63
6762.00,0.63
6760.00,0.63
6758.00,0.63
6756.00,0.63
6754.00,0.64
6752.00,0.64
6750.00,0.64
6748.00,0.64
6746.00,0.64
6744.00,0.64
6742.00,0.64
6740.00,0.65
6738.00,0.65
6736.00,0.65
6734.00,0.65
6732.00,0.65
6730.00,0.66
6728.00,0.66
6726.00,0.66
6724.00,0.66
6722.00,0.66
6720.00,0.66
6718.00,0.67
6716.00,0.67
6714.00,0.67
6712.00,0.67
6710.00,0.67
6708.00,0.67
6706.00,0.68
6704.00,0.68
6702.00,0.68
6700.00,0.68
6698.00,0.68
6696.00,0.68
6694.00,0.69
6692.00,0.69
6690.00,0.69
6688.00,0.69
6686.00,0.69
6684.00,0.69
6682.00,0.69
6680.00,0.70
6678.00,0.70
6676.00,0.70
6674.00,0.70
6672.00,0.70
6670.00,0.70
6668.00,0.70
6666.00,0.70
6664.00,0.71
6662.00,0.71
6660.00,0.71
6658.00,0.71
6656.00,0.71
6654.00,0.71
6652.00,0.72
6650.00,0.72
6648.00,0.72
6646.00,0.72
6644.00,0.72
6642.00,0.72
6640.00,0.73
6638.00,0.73
6636.00,0.73
6634.00,0.73
6632.00,0.73
6630.00,0.73
6628.00,0.74
6626.00,0.74
6624.00,0.74
6622.00,0.74
6620.00,0.74
6618.00,0.75
6616.00,0.75
6614.00,0.75
6612.00,0.75
6610.00,0.75
6608.00,0.76
6606.00,0.76
6604.00,0.76
6602.00,0.76
6600.00,0.76
6598.00,0.77
6596.00,0.77
6594.00,0.77
6592.00,0.77
6590.00,0.77
6588.00,0.77
6586.00,0.78
6584.00,0.78
6582.00,0.78
6580.00,0.78
6578.00,0.78
6576.00,0.79
6574.00,0.79
6572.00,0.79
6570.00,0.79
6568.00,0.79
6566.00,0.80
6564.00,0.80
6562.00,0.80
6560.00,0.80
6558.00,0.80
6556.00,0.81
6554.00,0.81
6552.00,0.81
6550.00,0.81
6548.00,0.81
6546.00,0.81
6544.00,0.82
6542.00,0.82
6540.00,0.82
6538.00,0.82
6536.00,0.82
6534.00,0.83
6532.00,0.83
6530.00,0.83
6528.00,0.83
6526.00,0.83
6524.00,0.83
6522.00,0.83
6520.00,0.84
6518.00,0.84
6516.00,0.84
6514.00,0.84
6512.00,0.84
6510.00,0.85
6508.00,0.85
6506.00,0.85
6504.00,0.85
6502.00,0.85
6500.00,0.85
6498.00,0.86
6496.00,0.86
6494.00,0.86
6492.00,0.86
6490.00,0.86
6488.00,0.87
6486.00,0.87
6484.00,0.87
6482.00,0.87
6480.00,0.87
6478.00,0.87
6476.00,0.88
6474.00,0.88
6472.00,0.88
6470.00,0.88
6468.00,0.88
6466.00,0.89
6464.00,0.89
6462.00,0.89
6460.00,0.89
6458.00,0.89
6456.00,0.89
6454.00,0.90
6452.00,0.90
6450.00,0.90
6448.00,0.90
6446.00,0.90
6444.00,0.90
6442.00,0.91
6440.00,0.91
6438.00,0.91
6436.00,0.91
6434.00,0.91
6432.00,0.92
6430.00,0.92
6428.00,0.92
6426.00,0.92
6424.00,0.92
6422.00,0.93
6420.00,0.93
6418.00,0.93
6416.00,0.93
6414.00,0.93
6412.00,0.94
6410.00,0.94
6408.00,0.94
6406.00,0.94
6404.00,0.94
6402.00,0.95
6400.00,0.95
6398.00,0.95
6396.00,0.95
6394.00,0.95
6392.00,0.96
6390.00,0.96
6388.00,0.96
6386.00,0.96
6384.00,0.97
6382.00,0.97
6380.00,0.97
6378.00,0.97
6376.00,0.97
6374.00,0.98
6372.00,0.98
6370.00,0.98
6368.00,0.98
6366.00,0.99
6364.00,0.99
6362.00,0.99
6360.00,0.99
6358.00,1.00
6356.00,1.00
6354.00,1.00
6352.00,1.00
6350.00,1.01
6348.00,1.01
6346.00,1.01
6344.00,1.01
6342.00,1.01
6340.00,1.02
6338.00,1.02
6336.00,1.02
6334.00,1.02
6332.00,1.03
6330.00,1.03
6328.00,1.03
6326.00,1.03
6324.00,1.03
6322.00,1.03
6320.00,1.04
6318.00,1.04
6316.00,1.04
6314.00,1.04
6312.00,1.04
6310.00,1.04
6308.00,1.05
6306.00,1.05
6304.00,1.05
6302.00,1.05
6300.00,1.05
6298.00,1.05
6296.00,1.06
6294.00,1.06
6292.00,1.06
6290.00,1.06
6288.00,1.06
6286.00,1.06
6284.00,1.07
6282.00,1.07
6280.00,1.07
6278.00,1.07
6276.00,1.07
6274.00,1.07
6272.00,1.08
6270.00,1.08
6268.00,1.08
6266.00,1.08
6264.00,1.08
6262.00,1.09
6260.00,1.09
6258.00,1.09
6256.00,1.09
6254.00,1.10
6252.00,1.10
6250.00,1.10
6248.00,1.10
6246.00,1.10
6244.00,1.11
6242.00,1.11
6240.00,1.11
6238.00,1.11
6236.00,1.11
6234.00,1.12
6232.00,1.12
6230.00,1.12
6228.00,1.12
6226.00,1.12
6224.00,1.13
6222.00,1.13
6220.00,1.13
6218.00,1.13
6216.00,1.13
6214.00,1.13
6212.00,1.14
6210.00,1.14
6208.00,1.14
6206.00,1.14
6204.00,1.14
6202.00,1.15
6200.00,1.15
6198.00,1.15
6196.00,1.15
6194.00,1.15
6192.00,1.15
6190.00,1.16
6188.00,1.16
6186.00,1.16
6184.00,1.16
6182.00,1.16
6180.00,1.17
6178.00,1.17
6176.00,1.17
6174.00,1.17
6172.00,1.17
6170.00,1.17
6168.00,1.18
6166.00,1.18
6164.00,1.18
6162.00,1.18
6160.00,1.18
6158.00,1.19
6156.00,1.19
6154.00,1.19
6152.00,1.19
6150.00,1.19
6148.00,1.20
6146.00,1.20
6144.00,1.20
6142.00,1.20
6140.00,1.20
6138.00,1.20
6136.00,1.21
6134.00,1.21
6132.00,1.21
6130.00,1.21
6128.00,1.21
6126.00,1.22
6124.00,1.22
6122.00,1.22
6120.00,1.22
6118.00,1.22
6116.00,1.23
6114.00,1.23
6112.00,1.23
6110.00,1.23
6108.00,1.23
6106.00,1.23
6104.00,1.24
6102.00,1.24
6100.00,1.24
6098.00,1.24
6096.00,1.24
6094.00,1.24
6092.00,1.25
6090.00,1.25
6088.00,1.25
6086.00,1.25
6084.00,1.25
6082.00,1.25
6080.00,1.26
6078.00,1.26
6076.00,1.26
6074.00,1.26
6072.00,1.26
6070.00,1.26
6068.00,1.27
6066.00,1.27
6064.00,1.27
6062.00,1.27
6060.00,1.27
6058.00,1.27
6056.00,1.27
6054.00,1.28
6052.00,1.28
6050.00,1.28
6048.00,1.28
6046.00,1.28
6044.00,1.28
6042.00,1.28
6040.00,1.29
6038.00,1.29
6036.00,1.29
6034.00,1.29
6032.00,1.29
6030.00,1.29
6028.00,1.29
6026.00,1.29
6024.00,1.29
6022.00,1.29
6020.00,1.30
6018.00,1.30
6016.00,1.30
6014.00,1.30
6012.00,1.30
6010.00,1.30
6008.00,1.30
6006.00,1.30
6004.00,1.30
6002.00,1.30
6000.00,1.30
5998.00,1.29
5996.00,1.29
5994.00,1.29
5992.00,1.29
5990.00,1.29
5988.00,1.29
5986.00,1.29
5984.00,1.28
5982.00,1.28
5980.00,1.28
5978.00,1.28
5976.00,1.28
5974.00,1.27
5972.00,1.27
5970.00,1.27
5968.00,1.26
5966.00,1.26
5964.00,1.26
5962.00,1.25
5960.00,1.25
5958.00,1.25
5956.00,1.25
5954.00,1.24
5952.00,1.24
5950.00,1.24
5948.00,1.23
5946.00,1.23
5944.00,1.23
5942.00,1.22
5940.00,1.22
5938.00,1.22
5936.00,1.22
5934.00,1.22
5932.00,1.21
5930.00,1.21
5928.00,1.21
5926.00,1.21
5924.00,1.21
5922.00,1.21
5920.00,1.21
5918.00,1.20
5916.00,1.20
5914.00,1.20
5912.00,1.20
5910.00,1.20
5908.00,1.20
5906.00,1.20
5904.00,1.21
5902.00,1.21
5900.00,1.21
5898.00,1.21
5896.00,1.21
5894.00,1.21
5892.00,1.21
5890.00,1.21
5888.00,1.22
5886.00,1.22
5884.00,1.22
5882.00,1.22
5880.00,1.22
5878.00,1.22
5876.00,1.22
5874.00,1.23
5872.00,1.23
5870.00,1.23
5868.00,1.23
5866.00,1.23
5864.00,1.23
5862.00,1.24
5860.00,1.24
5858.00,1.24
5856.00,1.24
5854.00,1.24
5852.00,1.24
5850.00,1.24
5848.00,1.24
5846.00,1.24
5844.00,1.24
5842.00,1.24
5840.00,1.24
5838.00,1.24
5836.00,1.24
5834.00,1.24
5832.00,1.24
5830.00,1.24
5828.00,1.24
5826.00,1.24
5824.00,1.24
5822.00,1.24
5820.00,1.24
5818.00,1.24
5816.00,1.24
5814.00,1.24
5812.00,1.24
5810.00,1.24
5808.00,1.24
5806.00,1.24
5804.00,1.24
5802.00,1.23
5800.00,1.23
5798.00,1.23
5796.00,1.23
5794.00,1.23
5792.00,1.23
5790.00,1.23
5788.00,1.23
5786.00,1.23
5784.00,1.23
5782.00,1.23
5780.00,1.23
5778.00,1.23
5776.00,1.23
5774.00,1.23
5772.00,1.23
5770.00,1.23
5768.00,1.23
5766.00,1.23
5764.00,1.23
5762.00,1.23
5760.00,1.23
5758.00,1.23
5756.00,1.23
5754.00,1.23
5752.00,1.23
5750.00,1.23
5748.00,1.23
5746.00,1.23
5744.00,1.23
5742.00,1.23
5740.00,1.23
5738.00,1.23
5736.00,1.23
5734.00,1.23
5732.00,1.23
5730.00,1.23
5728.00,1.23
5726.00,1.22
5724.00,1.22
5722.00,1.22
5720.00,1.22
5718.00,1.22
5716.00,1.22
5714.00,1.22
5712.00,1.22
5710.00,1.22
5708.00,1.22
5706.00,1.22
5704.00,1.22
5702.00,1.22
5700.00,1.22
5698.00,1.21
5696.00,1.21
5694.00,1.21
5692.00,1.21
5690.00,1.21
5688.00,1.21
5686.00,1.21
5684.00,1.21
5682.00,1.21
5680.00,1.21
5678.00,1.21
5676.00,1.21
5674.00,1.21
5672.00,1.21
5670.00,1.21
5668.00,1.21
5666.00,1.21
5664.00,1.21
5662.00,1.21
5660.00,1.21
5658.00,1.21
5656.00,1.21
5654.00,1.21
5652.00,1.21
5650.00,1.21
5648.00,1.21
5646.00,1.21
5644.00,1.21
5642.00,1.21
5640.00,1.21
5638.00,1.21
5636.00,1.22
5634.00,1.22
5632.00,1.22
5630.00,1.22
5628.00,1.22
5626.00,1.22
5624.00,1.22
5622.00,1.22
5620.00,1.22
5618.00,1.22
5616.00,1.22
5614.00,1.22
5612.00,1.22
5610.00,1.22
5608.00,1.22
5606.00,1.22
5604.00,1.22
5602.00,1.22
5600.00,1.23
5598.00,1.23
5596.00,1.23
5594.00,1.23
5592.00,1.23
5590.00,1.23
5588.00,1.23
5586.00,1.23
5584.00,1.23
5582.00,1.23
5580.00,1.24
5578.00,1.24
5576.00,1.24
5574.00,1.24
5572.00,1.24
5570.00,1.24
5568.00,1.24
5566.00,1.24
5564.00,1.25
5562.00,1.25
5560.00,1.25
5558.00,1.25
5556.00,1.25
5554.00,1.25
5552.00,1.25
5550.00,1.26
5548.00,1.26
5546.00,1.26
5544.00,1.26
5542.00,1.26
5540.00,1.26
5538.00,1.26
5536.00,1.27
5534.00,1.27
5532.00,1.27
5530.00,1.27
5528.00,1.27
5526.00,1.27
5524.00,1.27
5522.00,1.27
5520.00,1.27
5518.00,1.27
5516.00,1.28
5514.00,1.28
5512.00,1.28
5510.00,1.28
5508.00,1.28
5506.00,1.28
5504.00,1.28
5502.00,1.28
5500.00,1.28
5498.00,1.28
5496.00,1.29
5494.00,1.29
5492.00,1.29
5490.00,1.29
5488.00,1.29
5486.00,1.29
5484.00,1.29
5482.00,1.29
5480.00,1.29
5478.00,1.29
5476.00,1.29
5474.00,1.29
5472.00,1.30
5470.00,1.30
5468.00,1.30
5466.00,1.30
5464.00,1.30
5462.00,1.30
5460.00,1.30
5458.00,1.30
5456.00,1.30
5454.00,1.30
5452.00,1.30
5450.00,1.30
5448.00,1.30
5446.00,1.29
5444.00,1.29
5442.00,1.29
5440.00,1.29
5438.00,1.29
5436.00,1.29
5434.00,1.29
5432.00,1.29
5430.00,1.29
5428.00,1.28
5426.00,1.28
5424.00,1.28
5422.00,1.28
5420.00,1.28
5418.00,1.27
5416.00,1.27
5414.00,1.27
5412.00,1.27
5410.00,1.26
5408.00,1.26
5406.00,1.26
5404.00,1.25
5402.00,1.25
5400.00,1.24
5398.00,1.24
5396.00,1.24
5394.00,1.23
5392.00,1.23
5390.00,1.22
5388.00,1.21
5386.00,1.21
5384.00,1.20
5382.00,1.19
5380.00,1.19
5378.00,1.18
5376.00,1.17
5374.00,1.16
5372.00,1.16
5370.00,1.15
5368.00,1.14
5366.00,1.13
5364.00,1.12
5362.00,1.11
5360.00,1.10
5358.00,1.09
5356.00,1.08
5354.00,1.07
5352.00,1.06
5350.00,1.05
5348.00,1.04
5346.00,1.02
5344.00,1.01
5342.00,1.00
5340.00,0.99
5338.00,0.98
5336.00,0.97
5334.00,0.96
5332.00,0.95
5330.00,0.93
5328.00,0.92
5326.00,0.91
5324.00,0.90
5322.00,0.89
5320.00,0.88
5318.00,0.88
5316.00,0.87
5314.00,0.86
5312.00,0.85
5310.00,0.84
5308.00,0.84
5306.00,0.83
5304.00,0.82
5302.00,0.82
5300.00,0.81
5298.00,0.81
5296.00,0.80
5294.00,0.80
5292.00,0.80
5290.00,0.79
5288.00,0.79
5286.00,0.79
5284.00,0.78
5282.00,0.78
5280.00,0.78
5278.00,0.78
5276.00,0.78
5274.00,0.78
5272.00,0.78
5270.00,0.78
5268.00,0.78
5266.00,0.78
5264.00,0.78
5262.00,0.78
5260.00,0.78
5258.00,0.78
5256.00,0.78
5254.00,0.78
5252.00,0.78
5250.00,0.78
5248.00,0.78
5246.00,0.78
5244.00,0.78
5242.00,0.78
5240.00,0.78
5238.00,0.78
5236.00,0.78
5234.00,0.78
5232.00,0.78
5230.00,0.78
5228.00,0.78
5226.00,0.78
5224.00,0.79
5222.00,0.79
5220.00,0.79
5218.00,0.79
5216.00,0.79
5214.00,0.79
5212.00,0.79
5210.00,0.79
5208.00,0.79
5206.00,0.79
5204.00,0.79
5202.00,0.79
5200.00,0.79
5198.00,0.80
5196.00,0.80
5194.00,0.80
5192.00,0.80
5190.00,0.80
5188.00,0.80
5186.00,0.80
5184.00,0.80
5182.00,0.80
5180.00,0.80
5178.00,0.80
5176.00,0.80
5174.00,0.80
5172.00,0.80
5170.00,0.80
5168.00,0.80
5166.00,0.80
5164.00,0.81
5162.00,0.81
5160.00,0.81
5158.00,0.81
5156.00,0.81
5154.00,0.81
5152.00,0.81
5150.00,0.81
5148.00,0.81
5146.00,0.81
5144.00,0.81
5142.00,0.81
5140.00,0.81
5138.00,0.81
5136.00,0.81
5134.00,0.81
5132.00,0.81
5130.00,0.82
5128.00,0.82
5126.00,0.82
5124.00,0.82
5122.00,0.82
5120.00,0.82
5118.00,0.82
5116.00,0.82
5114.00,0.82
5112.00,0.82
5110.00,0.82
5108.00,0.82
5106.00,0.82
5104.00,0.83
5102.00,0.83
5100.00,0.83
5098.00,0.83
5096.00,0.83
5094.00,0.83
5092.00,0.83
5090.00,0.83
5088.00,0.83
5086.00,0.83
5084.00,0.83
5082.00,0.83
5080.00,0.83
5078.00,0.83
5076.00,0.84
5074.00,0.84
5072.00,0.84
5070.00,0.84
5068.00,0.84
5066.00,0.84
5064.00,0.84
5062.00,0.84
5060.00,0.84
5058.00,0.84
5056.00,0.84
5054.00,0.84
5052.00,0.85
5050.00,0.85
5048.00,0.85
5046.00,0.85
5044.00,0.85
5042.00,0.85
5040.00,0.85
5038.00,0.85
5036.00,0.85
5034.00,0.85
5032.00,0.86
5030.00,0.86
5028.00,0.86
5026.00,0.86
5024.00,0.86
5022.00,0.86
5020.00,0.86
5018.00,0.86
5016.00,0.86
5014.00,0.86
5012.00,0.86
5010.00,0.86
5008.00,0.86
5006.00,0.86
5004.00,0.87
5002.00,0.87
5000.00,0.87
4998.00,0.87
4996.00,0.87
4994.00,0.87
4992.00,0.87
4990.00,0.87
4988.00,0.87
4986.00,0.87
4984.00,0.87
4982.00,0.87
4980.00,0.88
4978.00,0.88
4976.00,0.88
4974.00,0.88
4972.00,0.88
4970.00,0.88
4968.00,0.88
4966.00,0.88
4964.00,0.89
4962.00,0.89
4960.00,0.89
4958.00,0.89
4956.00,0.89
4954.00,0.89
4952.00,0.89
4950.00,0.90
4948.00,0.90
4946.00,0.90
4944.00,0.90
4942.00,0.90
4940.00,0.90
4938.00,0.90
4936.00,0.91
4934.00,0.91
4932.00,0.91
4930.00,0.91
4928.00,0.91
4926.00,0.91
4924.00,0.91
4922.00,0.91
4920.00,0.91
4918.00,0.91
4916.00,0.91
4914.00,0.92
4912.00,0.92
4910.00,0.92
4908.00,0.92
4906.00,0.92
4904.00,0.92
4902.00,0.92
4900.00,0.92
4898.00,0.92
4896.00,0.92
4894.00,0.92
4892.00,0.93
4890.00,0.93
4888.00,0.93
4886.00,0.93
4884.00,0.93
4882.00,0.93
4880.00,0.93
4878.00,0.93
4876.00,0.93
4874.00,0.94
4872.00,0.94
4870.00,0.94
4868.00,0.94
4866.00,0.94
4864.00,0.94
4862.00,0.94
4860.00,0.95
4858.00,0.95
4856.00,0.95
4854.00,0.95
4852.00,0.95
4850.00,0.95
4848.00,0.95
4846.00,0.95
4844.00,0.95
4842.00,0.96
4840.00,0.96
4838.00,0.96
4836.00,0.96
4834.00,0.96
4832.00,0.96
4830.00,0.96
4828.00,0.96
4826.00,0.97
4824.00,0.97
4822.00,0.97
4820.00,0.97
4818.00,0.97
4816.00,0.97
4814.00,0.97
4812.00,0.98
4810.00,0.98
4808.00,0.98
4806.00,0.98
4804.00,0.98
4802.00,0.99
4800.00,0.99
4798.00,0.99
4796.00,0.99
4794.00,0.99
4792.00,1.00
4790.00,1.00
4788.00,1.00
4786.00,1.00
4784.00,1.01
4782.00,1.01
4780.00,1.01
4778.00,1.01
4776.00,1.01
4774.00,1.02
4772.00,1.02
4770.00,1.02
4768.00,1.02
4766.00,1.03
4764.00,1.03
4762.00,1.03
4760.00,1.03
4758.00,1.03
4756.00,1.04
4754.00,1.04
4752.00,1.04
4750.00,1.04
4748.00,1.04
4746.00,1.05
4744.00,1.05
4742.00,1.05
4740.00,1.05
4738.00,1.06
4736.00,1.06
4734.00,1.06
4732.00,1.06
4730.00,1.07
4728.00,1.07
4726.00,1.07
4724.00,1.07
4722.00,1.08
4720.00,1.08
4718.00,1.08
4716.00,1.08
4714.00,1.09
4712.00,1.09
4710.00,1.09
4708.00,1.09
4706.00,1.10
4704.00,1.10
4702.00,1.10
4700.00,1.10
4698.00,1.10
4696.00,1.11
4694.00,1.11
4692.00,1.11
4690.00,1.11
4688.00,1.12
4686.00,1.12
4684.00,1.12
4682.00,1.12
4680.00,1.12
4678.00,1.13
4676.00,1.13
4674.00,1.13
4672.00,1.13
4670.00,1.13
4668.00,1.14
4666.00,1.14
4664.00,1.14
4662.00,1.14
4660.00,1.14
4658.00,1.15
4656.00,1.15
4654.00,1.15
4652.00,1.15
4650.00,1.15
4648.00,1.16
4646.00,1.16
4644.00,1.16
4642.00,1.16
4640.00,1.16
4638.00,1.16
4636.00,1.17
4634.00,1.17
4632.00,1.17
4630.00,1.17
4628.00,1.17
4626.00,1.17
4624.00,1.18
4622.00,1.18
4620.00,1.18
4618.00,1.18
4616.00,1.18
4614.00,1.18
4612.00,1.19
4610.00,1.19
4608.00,1.19
4606.00,1.19
4604.00,1.19
4602.00,1.19
4600.00,1.20
4598.00,1.20
4596.00,1.20
4594.00,1.20
4592.00,1.20
4590.00,1.20
4588.00,1.21
4586.00,1.21
4584.00,1.21
4582.00,1.21
4580.00,1.21
4578.00,1.21
4576.00,1.22
4574.00,1.22
4572.00,1.22
4570.00,1.22
4568.00,1.22
4566.00,1.22
4564.00,1.22
4562.00,1.23
4560.00,1.23
4558.00,1.23
4556.00,1.23
4554.00,1.23
4552.00,1.23
4550.00,1.23
4548.00,1.23
4546.00,1.23
4544.00,1.24
4542.00,1.24
4540.00,1.24
4538.00,1.24
4536.00,1.24
4534.00,1.24
4532.00,1.24
4530.00,1.24
4528.00,1.24
4526.00,1.24
4524.00,1.24
4522.00,1.24
4520.00,1.24
4518.00,1.24
4516.00,1.24
4514.00,1.24
4512.00,1.24
4510.00,1.24
4508.00,1.24
4506.00,1.24
4504.00,1.24
4502.00,1.24
4500.00,1.24
4498.00,1.24
4496.00,1.24
4494.00,1.24
4492.00,1.24
4490.00,1.24
4488.00,1.24
4486.00,1.24
4484.00,1.24
4482.00,1.24
4480.00,1.23
4478.00,1.23
4476.00,1.23
4474.00,1.23
4472.00,1.23
4470.00,1.23
4468.00,1.22
4466.00,1.22
4464.00,1.22
4462.00,1.21
4460.00,1.21
4458.00,1.21
4456.00,1.21
4454.00,1.20
4452.00,1.20
4450.00,1.20
4448.00,1.19
4446.00,1.19
4444.00,1.19
4442.00,1.18
4440.00,1.18
4438.00,1.18
4436.00,1.18
4434.00,1.17
4432.00,1.17
4430.00,1.17
4428.00,1.16
4426.00,1.16
4424.00,1.16
4422.00,1.16
4420.00,1.16
4418.00,1.16
4416.00,1.15
4414.00,1.15
4412.00,1.15
4410.00,1.15
4408.00,1.15
4406.00,1.15
4404.00,1.15
4402.00,1.15
4400.00,1.15
4398.00,1.15
4396.00,1.15
4394.00,1.15
4392.00,1.15
4390.00,1.15
4388.00,1.15
4386.00,1.16
4384.00,1.16
4382.00,1.16
4380.00,1.16
4378.00,1.16
4376.00,1.16
4374.00,1.16
4372.00,1.16
4370.00,1.16
4368.00,1.16
4366.00,1.16
4364.00,1.17
4362.00,1.17
4360.00,1.17
4358.00,1.17
4356.00,1.17
4354.00,1.17
4352.00,1.17
4350.00,1.17
4348.00,1.17
4346.00,1.17
4344.00,1.17
4342.00,1.17
4340.00,1.17
4338.00,1.18
4336.00,1.18
4334.00,1.18
4332.00,1.18
4330.00,1.18
4328.00,1.18
4326.00,1.18
4324.00,1.18
4322.00,1.18
4320.00,1.19
4318.00,1.19
4316.00,1.19
4314.00,1.19
4312.00,1.19
4310.00,1.19
4308.00,1.20
4306.00,1.20
4304.00,1.20
4302.00,1.20
4300.00,1.20
4298.00,1.20
4296.00,1.20
4294.00,1.20
4292.00,1.21
4290.00,1.21
4288.00,1.21
4286.00,1.21
4284.00,1.21
4282.00,1.21
4280.00,1.21
4278.00,1.21
4276.00,1.21
4274.00,1.21
4272.00,1.21
4270.00,1.21
4268.00,1.21
4266.00,1.21
4264.00,1.21
4262.00,1.21
4260.00,1.21
4258.00,1.21
4256.00,1.21
4254.00,1.21
4252.00,1.21
4250.00,1.21
4248.00,1.21
4246.00,1.21
4244.00,1.21
4242.00,1.21
4240.00,1.21
4238.00,1.21
4236.00,1.21
4234.00,1.21
4232.00,1.21
4230.00,1.21
4228.00,1.21
4226.00,1.21
4224.00,1.21
4222.00,1.21
4220.00,1.21
4218.00,1.22
4216.00,1.22
4214.00,1.22
4212.00,1.22
4210.00,1.22
4208.00,1.22
4206.00,1.22
4204.00,1.22
4202.00,1.22
4200.00,1.22
4198.00,1.23
4196.00,1.23
4194.00,1.23
4192.00,1.23
4190.00,1.23
4188.00,1.23
4186.00,1.23
4184.00,1.23
4182.00,1.23
4180.00,1.23
4178.00,1.24
4176.00,1.24
4174.00,1.24
4172.00,1.24
4170.00,1.24
4168.00,1.24
4166.00,1.24
4164.00,1.24
4162.00,1.24
4160.00,1.24
4158.00,1.24
4156.00,1.25
4154.00,1.25
4152.00,1.25
4150.00,1.25
4148.00,1.25
4146.00,1.25
4144.00,1.25
4142.00,1.25
4140.00,1.25
4138.00,1.25
4136.00,1.25
4134.00,1.25
4132.00,1.25
4130.00,1.25
4128.00,1.25
4126.00,1.25
4124.00,1.25
4122.00,1.25
4120.00,1.25
4118.00,1.25
4116.00,1.26
4114.00,1.26
4112.00,1.26
4110.00,1.26
4108.00,1.26
4106.00,1.26
4104.00,1.26
4102.00,1.26
4100.00,1.26
4098.00,1.26
4096.00,1.26
4094.00,1.26
4092.00,1.26
4090.00,1.26
4088.00,1.26
4086.00,1.26
4084.00,1.26
4082.00,1.26
4080.00,1.26
4078.00,1.26
4076.00,1.26
4074.00,1.26
4072.00,1.26
4070.00,1.26
4068.00,1.26
4066.00,1.26
4064.00,1.26
4062.00,1.26
4060.00,1.26
4058.00,1.26
4056.00,1.26
4054.00,1.27
4052.00,1.27
4050.00,1.27
4048.00,1.27
4046.00,1.27
4044.00,1.27
4042.00,1.27
4040.00,1.27
4038.00,1.27
4036.00,1.27
4034.00,1.28
4032.00,1.28
4030.00,1.28
4028.00,1.28
4026.00,1.28
4024.00,1.28
4022.00,1.28
4020.00,1.29
4018.00,1.29
4016.00,1.29
4014.00,1.29
4012.00,1.29
4010.00,1.29
4008.00,1.30
4006.00,1.30
4004.00,1.30
4002.00,1.30
4000.00,1.30
