创建为新数据集,样品 1042 用户 Administrator 日期 星期二, 七月 30 2019
cm-1,%T
10000.00,3.19
9999.00,3.14
9998.00,3.09
9997.00,3.04
9996.00,2.99
9995.00,2.94
9994.00,2.90
9993.00,2.86
9992.00,2.81
9991.00,2.77
9990.00,2.73
9989.00,2.69
9988.00,2.65
9987.00,2.62
9986.00,2.58
9985.00,2.54
9984.00,2.51
9983.00,2.48
9982.00,2.45
9981.00,2.42
9980.00,2.40
9979.00,2.38
9978.00,2.36
9977.00,2.34
9976.00,2.33
9975.00,2.31
9974.00,2.30
9973.00,2.29
9972.00,2.28
9971.00,2.28
9970.00,2.28
9969.00,2.28
9968.00,2.28
9967.00,2.29
9966.00,2.30
9965.00,2.32
9964.00,2.34
9963.00,2.36
9962.00,2.39
9961.00,2.41
9960.00,2.44
9959.00,2.47
9958.00,2.49
9957.00,2.52
9956.00,2.54
9955.00,2.56
9954.00,2.59
9953.00,2.62
9952.00,2.65
9951.00,2.68
9950.00,2.72
9949.00,2.75
9948.00,2.80
9947.00,2.84
9946.00,2.88
9945.00,2.92
9944.00,2.96
9943.00,2.99
9942.00,3.02
9941.00,3.04
9940.00,3.06
9939.00,3.07
9938.00,3.08
9937.00,3.09
9936.00,3.09
9935.00,3.09
9934.00,3.09
9933.00,3.09
9932.00,3.10
9931.00,3.10
9930.00,3.10
9929.00,3.11
9928.00,3.11
9927.00,3.11
9926.00,3.11
9925.00,3.10
9924.00,3.09
9923.00,3.07
9922.00,3.05
9921.00,3.02
9920.00,2.99
9919.00,2.96
9918.00,2.93
9917.00,2.90
9916.00,2.87
9915.00,2.85
9914.00,2.84
9913.00,2.82
9912.00,2.81
9911.00,2.80
9910.00,2.79
9909.00,2.78
9908.00,2.77
9907.00,2.75
9906.00,2.74
9905.00,2.72
9904.00,2.70
9903.00,2.68
9902.00,2.67
9901.00,2.65
9900.00,2.63
9899.00,2.62
9898.00,2.61
9897.00,2.60
9896.00,2.60
9895.00,2.59
9894.00,2.59
9893.00,2.58
9892.00,2.58
9891.00,2.57
9890.00,2.56
9889.00,2.55
9888.00,2.53
9887.00,2.51
9886.00,2.49
9885.00,2.47
9884.00,2.45
9883.00,2.42
9882.00,2.40
9881.00,2.38
9880.00,2.37
9879.00,2.35
9878.00,2.33
9877.00,2.32
9876.00,2.30
9875.00,2.29
9874.00,2.27
9873.00,2.25
9872.00,2.24
9871.00,2.22
9870.00,2.20
9869.00,2.18
9868.00,2.17
9867.00,2.15
9866.00,2.14
9865.00,2.13
9864.00,2.13
9863.00,2.12
9862.00,2.12
9861.00,2.12
9860.00,2.12
9859.00,2.13
9858.00,2.13
9857.00,2.14
9856.00,2.15
9855.00,2.16
9854.00,2.18
9853.00,2.19
9852.00,2.20
9851.00,2.21
9850.00,2.23
9849.00,2.24
9848.00,2.25
9847.00,2.27
9846.00,2.28
9845.00,2.29
9844.00,2.31
9843.00,2.33
9842.00,2.35
9841.00,2.36
9840.00,2.38
9839.00,2.40
9838.00,2.42
9837.00,2.44
9836.00,2.46
9835.00,2.48
9834.00,2.50
9833.00,2.52
9832.00,2.54
9831.00,2.55
9830.00,2.56
9829.00,2.57
9828.00,2.58
9827.00,2.59
9826.00,2.59
9825.00,2.60
9824.00,2.60
9823.00,2.61
9822.00,2.62
9821.00,2.62
9820.00,2.63
9819.00,2.63
9818.00,2.63
9817.00,2.63
9816.00,2.62
9815.00,2.62
9814.00,2.60
9813.00,2.59
9812.00,2.58
9811.00,2.56
9810.00,2.55
9809.00,2.53
9808.00,2.51
9807.00,2.50
9806.00,2.48
9805.00,2.46
9804.00,2.45
9803.00,2.43
9802.00,2.41
9801.00,2.40
9800.00,2.38
9799.00,2.37
9798.00,2.35
9797.00,2.34
9796.00,2.32
9795.00,2.31
9794.00,2.30
9793.00,2.29
9792.00,2.27
9791.00,2.26
9790.00,2.25
9789.00,2.25
9788.00,2.24
9787.00,2.23
9786.00,2.22
9785.00,2.21
9784.00,2.20
9783.00,2.19
9782.00,2.18
9781.00,2.16
9780.00,2.15
9779.00,2.13
9778.00,2.11
9777.00,2.10
9776.00,2.08
9775.00,2.05
9774.00,2.03
9773.00,2.01
9772.00,1.98
9771.00,1.96
9770.00,1.93
9769.00,1.90
9768.00,1.87
9767.00,1.85
9766.00,1.82
9765.00,1.80
9764.00,1.77
9763.00,1.75
9762.00,1.73
9761.00,1.71
9760.00,1.69
9759.00,1.67
9758.00,1.66
9757.00,1.64
9756.00,1.63
9755.00,1.63
9754.00,1.62
9753.00,1.62
9752.00,1.63
9751.00,1.64
9750.00,1.65
9749.00,1.67
9748.00,1.70
9747.00,1.72
9746.00,1.75
9745.00,1.78
9744.00,1.82
9743.00,1.85
9742.00,1.87
9741.00,1.90
9740.00,1.92
9739.00,1.93
9738.00,1.95
9737.00,1.96
9736.00,1.97
9735.00,1.98
9734.00,1.98
9733.00,1.99
9732.00,2.00
9731.00,2.02
9730.00,2.03
9729.00,2.04
9728.00,2.05
9727.00,2.06
9726.00,2.06
9725.00,2.06
9724.00,2.05
9723.00,2.04
9722.00,2.02
9721.00,2.00
9720.00,1.98
9719.00,1.95
9718.00,1.93
9717.00,1.91
9716.00,1.89
9715.00,1.87
9714.00,1.86
9713.00,1.86
9712.00,1.86
9711.00,1.86
9710.00,1.86
9709.00,1.87
9708.00,1.88
9707.00,1.89
9706.00,1.90
9705.00,1.90
9704.00,1.91
9703.00,1.92
9702.00,1.92
9701.00,1.93
9700.00,1.95
9699.00,1.96
9698.00,1.99
9697.00,2.01
9696.00,2.04
9695.00,2.08
9694.00,2.12
9693.00,2.16
9692.00,2.20
9691.00,2.24
9690.00,2.29
9689.00,2.33
9688.00,2.36
9687.00,2.40
9686.00,2.43
9685.00,2.45
9684.00,2.48
9683.00,2.50
9682.00,2.53
9681.00,2.55
9680.00,2.57
9679.00,2.58
9678.00,2.60
9677.00,2.62
9676.00,2.63
9675.00,2.64
9674.00,2.65
9673.00,2.65
9672.00,2.65
9671.00,2.64
9670.00,2.64
9669.00,2.62
9668.00,2.61
9667.00,2.59
9666.00,2.57
9665.00,2.55
9664.00,2.53
9663.00,2.51
9662.00,2.50
9661.00,2.48
9660.00,2.47
9659.00,2.46
9658.00,2.45
9657.00,2.45
9656.00,2.44
9655.00,2.44
9654.00,2.44
9653.00,2.44
9652.00,2.43
9651.00,2.43
9650.00,2.43
9649.00,2.43
9648.00,2.42
9647.00,2.42
9646.00,2.42
9645.00,2.42
9644.00,2.42
9643.00,2.42
9642.00,2.42
9641.00,2.42
9640.00,2.41
9639.00,2.41
9638.00,2.40
9637.00,2.40
9636.00,2.38
9635.00,2.37
9634.00,2.35
9633.00,2.34
9632.00,2.31
9631.00,2.29
9630.00,2.27
9629.00,2.25
9628.00,2.23
9627.00,2.22
9626.00,2.20
9625.00,2.19
9624.00,2.18
9623.00,2.17
9622.00,2.17
9621.00,2.16
9620.00,2.16
9619.00,2.17
9618.00,2.17
9617.00,2.17
9616.00,2.18
9615.00,2.19
9614.00,2.20
9613.00,2.21
9612.00,2.22
9611.00,2.24
9610.00,2.26
9609.00,2.29
9608.00,2.31
9607.00,2.34
9606.00,2.37
9605.00,2.40
9604.00,2.43
9603.00,2.46
9602.00,2.49
9601.00,2.52
9600.00,2.55
9599.00,2.57
9598.00,2.59
9597.00,2.61
9596.00,2.63
9595.00,2.64
9594.00,2.65
9593.00,2.66
9592.00,2.66
9591.00,2.67
9590.00,2.67
9589.00,2.67
9588.00,2.68
9587.00,2.68
9586.00,2.67
9585.00,2.67
9584.00,2.66
9583.00,2.66
9582.00,2.65
9581.00,2.64
9580.00,2.62
9579.00,2.61
9578.00,2.59
9577.00,2.58
9576.00,2.56
9575.00,2.54
9574.00,2.52
9573.00,2.50
9572.00,2.48
9571.00,2.46
9570.00,2.44
9569.00,2.42
9568.00,2.40
9567.00,2.38
9566.00,2.36
9565.00,2.34
9564.00,2.32
9563.00,2.30
9562.00,2.28
9561.00,2.25
9560.00,2.23
9559.00,2.21
9558.00,2.18
9557.00,2.16
9556.00,2.14
9555.00,2.12
9554.00,2.09
9553.00,2.07
9552.00,2.05
9551.00,2.02
9550.00,1.99
9549.00,1.97
9548.00,1.94
9547.00,1.91
9546.00,1.89
9545.00,1.86
9544.00,1.84
9543.00,1.81
9542.00,1.79
9541.00,1.77
9540.00,1.75
9539.00,1.74
9538.00,1.73
9537.00,1.72
9536.00,1.71
9535.00,1.71
9534.00,1.71
9533.00,1.71
9532.00,1.72
9531.00,1.72
9530.00,1.72
9529.00,1.72
9528.00,1.72
9527.00,1.71
9526.00,1.71
9525.00,1.71
9524.00,1.71
9523.00,1.71
9522.00,1.72
9521.00,1.73
9520.00,1.74
9519.00,1.75
9518.00,1.76
9517.00,1.78
9516.00,1.79
9515.00,1.80
9514.00,1.82
9513.00,1.83
9512.00,1.83
9511.00,1.84
9510.00,1.84
9509.00,1.85
9508.00,1.85
9507.00,1.85
9506.00,1.85
9505.00,1.85
9504.00,1.86
9503.00,1.87
9502.00,1.88
9501.00,1.90
9500.00,1.92
9499.00,1.94
9498.00,1.96
9497.00,1.98
9496.00,2.00
9495.00,2.02
9494.00,2.04
9493.00,2.05
9492.00,2.07
9491.00,2.08
9490.00,2.09
9489.00,2.09
9488.00,2.10
9487.00,2.10
9486.00,2.11
9485.00,2.11
9484.00,2.11
9483.00,2.11
9482.00,2.12
9481.00,2.11
9480.00,2.11
9479.00,2.11
9478.00,2.11
9477.00,2.10
9476.00,2.09
9475.00,2.09
9474.00,2.08
9473.00,2.06
9472.00,2.05
9471.00,2.04
9470.00,2.02
9469.00,2.01
9468.00,1.99
9467.00,1.98
9466.00,1.97
9465.00,1.96
9464.00,1.95
9463.00,1.95
9462.00,1.94
9461.00,1.94
9460.00,1.94
9459.00,1.94
9458.00,1.95
9457.00,1.96
9456.00,1.98
9455.00,1.99
9454.00,2.01
9453.00,2.03
9452.00,2.05
9451.00,2.08
9450.00,2.10
9449.00,2.13
9448.00,2.15
9447.00,2.17
9446.00,2.20
9445.00,2.22
9444.00,2.25
9443.00,2.28
9442.00,2.30
9441.00,2.33
9440.00,2.36
9439.00,2.38
9438.00,2.41
9437.00,2.43
9436.00,2.45
9435.00,2.47
9434.00,2.49
9433.00,2.51
9432.00,2.52
9431.00,2.53
9430.00,2.54
9429.00,2.54
9428.00,2.54
9427.00,2.54
9426.00,2.53
9425.00,2.52
9424.00,2.51
9423.00,2.50
9422.00,2.49
9421.00,2.47
9420.00,2.46
9419.00,2.45
9418.00,2.44
9417.00,2.42
9416.00,2.41
9415.00,2.40
9414.00,2.39
9413.00,2.38
9412.00,2.37
9411.00,2.36
9410.00,2.36
9409.00,2.35
9408.00,2.34
9407.00,2.34
9406.00,2.33
9405.00,2.33
9404.00,2.32
9403.00,2.32
9402.00,2.32
9401.00,2.32
9400.00,2.32
9399.00,2.33
9398.00,2.33
9397.00,2.34
9396.00,2.35
9395.00,2.36
9394.00,2.37
9393.00,2.38
9392.00,2.39
9391.00,2.40
9390.00,2.40
9389.00,2.40
9388.00,2.40
9387.00,2.40
9386.00,2.40
9385.00,2.40
9384.00,2.40
9383.00,2.39
9382.00,2.39
9381.00,2.39
9380.00,2.39
9379.00,2.38
9378.00,2.38
9377.00,2.38
9376.00,2.37
9375.00,2.36
9374.00,2.35
9373.00,2.33
9372.00,2.32
9371.00,2.29
9370.00,2.27
9369.00,2.24
9368.00,2.22
9367.00,2.19
9366.00,2.16
9365.00,2.14
9364.00,2.11
9363.00,2.09
9362.00,2.07
9361.00,2.05
9360.00,2.03
9359.00,2.01
9358.00,1.99
9357.00,1.96
9356.00,1.94
9355.00,1.92
9354.00,1.89
9353.00,1.87
9352.00,1.85
9351.00,1.83
9350.00,1.81
9349.00,1.80
9348.00,1.79
9347.00,1.78
9346.00,1.78
9345.00,1.78
9344.00,1.78
9343.00,1.78
9342.00,1.79
9341.00,1.80
9340.00,1.81
9339.00,1.82
9338.00,1.83
9337.00,1.84
9336.00,1.85
9335.00,1.86
9334.00,1.87
9333.00,1.89
9332.00,1.90
9331.00,1.92
9330.00,1.94
9329.00,1.96
9328.00,1.99
9327.00,2.01
9326.00,2.04
9325.00,2.06
9324.00,2.09
9323.00,2.11
9322.00,2.13
9321.00,2.15
9320.00,2.17
9319.00,2.19
9318.00,2.20
9317.00,2.22
9316.00,2.23
9315.00,2.24
9314.00,2.24
9313.00,2.25
9312.00,2.26
9311.00,2.26
9310.00,2.26
9309.00,2.27
9308.00,2.27
9307.00,2.27
9306.00,2.27
9305.00,2.27
9304.00,2.27
9303.00,2.26
9302.00,2.25
9301.00,2.24
9300.00,2.22
9299.00,2.20
9298.00,2.19
9297.00,2.16
9296.00,2.14
9295.00,2.12
9294.00,2.10
9293.00,2.08
9292.00,2.06
9291.00,2.05
9290.00,2.03
9289.00,2.02
9288.00,2.01
9287.00,2.00
9286.00,1.99
9285.00,1.99
9284.00,1.98
9283.00,1.98
9282.00,1.97
9281.00,1.97
9280.00,1.96
9279.00,1.96
9278.00,1.95
9277.00,1.95
9276.00,1.95
9275.00,1.95
9274.00,1.95
9273.00,1.94
9272.00,1.95
9271.00,1.95
9270.00,1.95
9269.00,1.96
9268.00,1.96
9267.00,1.97
9266.00,1.97
9265.00,1.98
9264.00,1.99
9263.00,1.99
9262.00,2.00
9261.00,2.00
9260.00,2.01
9259.00,2.01
9258.00,2.02
9257.00,2.03
9256.00,2.04
9255.00,2.04
9254.00,2.05
9253.00,2.06
9252.00,2.07
9251.00,2.08
9250.00,2.09
9249.00,2.10
9248.00,2.12
9247.00,2.13
9246.00,2.15
9245.00,2.17
9244.00,2.19
9243.00,2.21
9242.00,2.23
9241.00,2.25
9240.00,2.28
9239.00,2.30
9238.00,2.32
9237.00,2.34
9236.00,2.36
9235.00,2.37
9234.00,2.38
9233.00,2.39
9232.00,2.40
9231.00,2.40
9230.00,2.40
9229.00,2.39
9228.00,2.39
9227.00,2.38
9226.00,2.37
9225.00,2.36
9224.00,2.35
9223.00,2.34
9222.00,2.33
9221.00,2.32
9220.00,2.31
9219.00,2.29
9218.00,2.27
9217.00,2.25
9216.00,2.22
9215.00,2.19
9214.00,2.16
9213.00,2.13
9212.00,2.09
9211.00,2.06
9210.00,2.03
9209.00,2.00
9208.00,1.97
9207.00,1.95
9206.00,1.93
9205.00,1.91
9204.00,1.90
9203.00,1.89
9202.00,1.89
9201.00,1.88
9200.00,1.88
9199.00,1.88
9198.00,1.88
9197.00,1.88
9196.00,1.88
9195.00,1.88
9194.00,1.89
9193.00,1.89
9192.00,1.90
9191.00,1.91
9190.00,1.92
9189.00,1.93
9188.00,1.94
9187.00,1.95
9186.00,1.97
9185.00,1.98
9184.00,1.99
9183.00,2.00
9182.00,2.01
9181.00,2.02
9180.00,2.02
9179.00,2.03
9178.00,2.03
9177.00,2.03
9176.00,2.02
9175.00,2.02
9174.00,2.01
9173.00,2.01
9172.00,2.00
9171.00,1.99
9170.00,1.98
9169.00,1.97
9168.00,1.96
9167.00,1.94
9166.00,1.93
9165.00,1.92
9164.00,1.91
9163.00,1.90
9162.00,1.89
9161.00,1.89
9160.00,1.88
9159.00,1.88
9158.00,1.88
9157.00,1.89
9156.00,1.89
9155.00,1.89
9154.00,1.90
9153.00,1.90
9152.00,1.91
9151.00,1.92
9150.00,1.92
9149.00,1.93
9148.00,1.94
9147.00,1.95
9146.00,1.95
9145.00,1.96
9144.00,1.97
9143.00,1.97
9142.00,1.98
9141.00,1.99
9140.00,1.99
9139.00,2.00
9138.00,2.00
9137.00,2.00
9136.00,2.01
9135.00,2.01
9134.00,2.01
9133.00,2.01
9132.00,2.01
9131.00,2.00
9130.00,2.00
9129.00,2.00
9128.00,1.99
9127.00,1.99
9126.00,1.99
9125.00,1.99
9124.00,1.99
9123.00,1.99
9122.00,1.99
9121.00,1.99
9120.00,2.00
9119.00,2.01
9118.00,2.02
9117.00,2.03
9116.00,2.04
9115.00,2.05
9114.00,2.07
9113.00,2.09
9112.00,2.10
9111.00,2.12
9110.00,2.14
9109.00,2.15
9108.00,2.17
9107.00,2.18
9106.00,2.20
9105.00,2.21
9104.00,2.23
9103.00,2.25
9102.00,2.26
9101.00,2.28
9100.00,2.30
9099.00,2.31
9098.00,2.33
9097.00,2.34
9096.00,2.35
9095.00,2.35
9094.00,2.36
9093.00,2.36
9092.00,2.36
9091.00,2.36
9090.00,2.36
9089.00,2.35
9088.00,2.34
9087.00,2.33
9086.00,2.32
9085.00,2.31
9084.00,2.30
9083.00,2.28
9082.00,2.27
9081.00,2.25
9080.00,2.24
9079.00,2.22
9078.00,2.21
9077.00,2.19
9076.00,2.17
9075.00,2.16
9074.00,2.14
9073.00,2.13
9072.00,2.12
9071.00,2.11
9070.00,2.10
9069.00,2.10
9068.00,2.10
9067.00,2.11
9066.00,2.12
9065.00,2.13
9064.00,2.14
9063.00,2.15
9062.00,2.17
9061.00,2.18
9060.00,2.20
9059.00,2.22
9058.00,2.24
9057.00,2.26
9056.00,2.29
9055.00,2.31
9054.00,2.33
9053.00,2.36
9052.00,2.38
9051.00,2.40
9050.00,2.42
9049.00,2.44
9048.00,2.46
9047.00,2.48
9046.00,2.49
9045.00,2.50
9044.00,2.50
9043.00,2.51
9042.00,2.50
9041.00,2.50
9040.00,2.49
9039.00,2.48
9038.00,2.47
9037.00,2.45
9036.00,2.43
9035.00,2.41
9034.00,2.39
9033.00,2.37
9032.00,2.35
9031.00,2.32
9030.00,2.30
9029.00,2.27
9028.00,2.25
9027.00,2.22
9026.00,2.20
9025.00,2.17
9024.00,2.15
9023.00,2.13
9022.00,2.11
9021.00,2.09
9020.00,2.07
9019.00,2.05
9018.00,2.03
9017.00,2.02
9016.00,2.00
9015.00,1.99
9014.00,1.97
9013.00,1.96
9012.00,1.94
9011.00,1.93
9010.00,1.92
9009.00,1.92
9008.00,1.91
9007.00,1.91
9006.00,1.91
9005.00,1.91
9004.00,1.91
9003.00,1.92
9002.00,1.92
9001.00,1.92
9000.00,1.92
8999.00,1.93
8998.00,1.93
8997.00,1.93
8996.00,1.93
8995.00,1.93
8994.00,1.93
8993.00,1.93
8992.00,1.93
8991.00,1.93
8990.00,1.93
8989.00,1.94
8988.00,1.94
8987.00,1.95
8986.00,1.95
8985.00,1.96
8984.00,1.97
8983.00,1.97
8982.00,1.97
8981.00,1.97
8980.00,1.97
8979.00,1.97
8978.00,1.96
8977.00,1.96
8976.00,1.95
8975.00,1.94
8974.00,1.93
8973.00,1.92
8972.00,1.91
8971.00,1.90
8970.00,1.89
8969.00,1.88
8968.00,1.88
8967.00,1.87
8966.00,1.86
8965.00,1.85
8964.00,1.84
8963.00,1.83
8962.00,1.81
8961.00,1.80
8960.00,1.79
8959.00,1.78
8958.00,1.77
8957.00,1.76
8956.00,1.75
8955.00,1.75
8954.00,1.74
8953.00,1.74
8952.00,1.74
8951.00,1.74
8950.00,1.74
8949.00,1.74
8948.00,1.75
8947.00,1.76
8946.00,1.77
8945.00,1.78
8944.00,1.79
8943.00,1.80
8942.00,1.81
8941.00,1.83
8940.00,1.84
8939.00,1.86
8938.00,1.87
8937.00,1.89
8936.00,1.91
8935.00,1.92
8934.00,1.94
8933.00,1.96
8932.00,1.97
8931.00,1.98
8930.00,2.00
8929.00,2.01
8928.00,2.02
8927.00,2.03
8926.00,2.04
8925.00,2.05
8924.00,2.06
8923.00,2.07
8922.00,2.07
8921.00,2.07
8920.00,2.07
8919.00,2.07
8918.00,2.07
8917.00,2.06
8916.00,2.06
8915.00,2.06
8914.00,2.05
8913.00,2.05
8912.00,2.05
8911.00,2.05
8910.00,2.05
8909.00,2.05
8908.00,2.05
8907.00,2.05
8906.00,2.05
8905.00,2.06
8904.00,2.06
8903.00,2.07
8902.00,2.07
8901.00,2.08
8900.00,2.09
8899.00,2.10
8898.00,2.11
8897.00,2.13
8896.00,2.14
8895.00,2.16
8894.00,2.18
8893.00,2.20
8892.00,2.23
8891.00,2.25
8890.00,2.27
8889.00,2.30
8888.00,2.32
8887.00,2.34
8886.00,2.36
8885.00,2.38
8884.00,2.40
8883.00,2.42
8882.00,2.44
8881.00,2.46
8880.00,2.48
8879.00,2.50
8878.00,2.52
8877.00,2.54
8876.00,2.55
8875.00,2.57
8874.00,2.58
8873.00,2.59
8872.00,2.60
8871.00,2.61
8870.00,2.61
8869.00,2.61
8868.00,2.61
8867.00,2.61
8866.00,2.60
8865.00,2.59
8864.00,2.58
8863.00,2.57
8862.00,2.55
8861.00,2.54
8860.00,2.52
8859.00,2.50
8858.00,2.48
8857.00,2.46
8856.00,2.43
8855.00,2.41
8854.00,2.38
8853.00,2.36
8852.00,2.33
8851.00,2.31
8850.00,2.28
8849.00,2.26
8848.00,2.23
8847.00,2.21
8846.00,2.20
8845.00,2.18
8844.00,2.16
8843.00,2.14
8842.00,2.13
8841.00,2.12
8840.00,2.11
8839.00,2.10
8838.00,2.09
8837.00,2.09
8836.00,2.09
8835.00,2.09
8834.00,2.09
8833.00,2.09
8832.00,2.10
8831.00,2.11
8830.00,2.11
8829.00,2.12
8828.00,2.13
8827.00,2.14
8826.00,2.15
8825.00,2.17
8824.00,2.18
8823.00,2.19
8822.00,2.19
8821.00,2.20
8820.00,2.21
8819.00,2.21
8818.00,2.22
8817.00,2.23
8816.00,2.23
8815.00,2.24
8814.00,2.25
8813.00,2.25
8812.00,2.26
8811.00,2.26
8810.00,2.26
8809.00,2.26
8808.00,2.27
8807.00,2.27
8806.00,2.27
8805.00,2.27
8804.00,2.27
8803.00,2.27
8802.00,2.28
8801.00,2.28
8800.00,2.28
8799.00,2.28
8798.00,2.28
8797.00,2.28
8796.00,2.28
8795.00,2.28
8794.00,2.29
8793.00,2.29
8792.00,2.29
8791.00,2.29
8790.00,2.29
8789.00,2.29
8788.00,2.29
8787.00,2.28
8786.00,2.28
8785.00,2.28
8784.00,2.28
8783.00,2.28
8782.00,2.28
8781.00,2.28
8780.00,2.27
8779.00,2.27
8778.00,2.27
8777.00,2.26
8776.00,2.26
8775.00,2.25
8774.00,2.24
8773.00,2.24
8772.00,2.23
8771.00,2.23
8770.00,2.22
8769.00,2.22
8768.00,2.21
8767.00,2.21
8766.00,2.20
8765.00,2.20
8764.00,2.20
8763.00,2.20
8762.00,2.19
8761.00,2.19
8760.00,2.19
8759.00,2.18
8758.00,2.17
8757.00,2.16
8756.00,2.15
8755.00,2.14
8754.00,2.13
8753.00,2.13
8752.00,2.12
8751.00,2.11
8750.00,2.11
8749.00,2.11
8748.00,2.11
8747.00,2.11
8746.00,2.11
8745.00,2.10
8744.00,2.10
8743.00,2.10
8742.00,2.10
8741.00,2.10
8740.00,2.10
8739.00,2.09
8738.00,2.09
8737.00,2.09
8736.00,2.09
8735.00,2.09
8734.00,2.09
8733.00,2.09
8732.00,2.10
8731.00,2.11
8730.00,2.12
8729.00,2.13
8728.00,2.14
8727.00,2.16
8726.00,2.17
8725.00,2.18
8724.00,2.19
8723.00,2.20
8722.00,2.21
8721.00,2.22
8720.00,2.23
8719.00,2.23
8718.00,2.24
8717.00,2.24
8716.00,2.24
8715.00,2.25
8714.00,2.25
8713.00,2.25
8712.00,2.25
8711.00,2.26
8710.00,2.26
8709.00,2.26
8708.00,2.26
8707.00,2.25
8706.00,2.25
8705.00,2.24
8704.00,2.24
8703.00,2.23
8702.00,2.22
8701.00,2.21
8700.00,2.20
8699.00,2.19
8698.00,2.19
8697.00,2.18
8696.00,2.17
8695.00,2.17
8694.00,2.16
8693.00,2.15
8692.00,2.15
8691.00,2.14
8690.00,2.14
8689.00,2.14
8688.00,2.14
8687.00,2.14
8686.00,2.15
8685.00,2.15
8684.00,2.15
8683.00,2.16
8682.00,2.16
8681.00,2.17
8680.00,2.17
8679.00,2.18
8678.00,2.18
8677.00,2.18
8676.00,2.18
8675.00,2.18
8674.00,2.18
8673.00,2.18
8672.00,2.18
8671.00,2.18
8670.00,2.18
8669.00,2.18
8668.00,2.17
8667.00,2.17
8666.00,2.17
8665.00,2.17
8664.00,2.17
8663.00,2.17
8662.00,2.17
8661.00,2.16
8660.00,2.16
8659.00,2.16
8658.00,2.16
8657.00,2.16
8656.00,2.16
8655.00,2.16
8654.00,2.17
8653.00,2.17
8652.00,2.18
8651.00,2.20
8650.00,2.21
8649.00,2.22
8648.00,2.24
8647.00,2.25
8646.00,2.26
8645.00,2.27
8644.00,2.28
8643.00,2.30
8642.00,2.31
8641.00,2.32
8640.00,2.33
8639.00,2.34
8638.00,2.34
8637.00,2.35
8636.00,2.36
8635.00,2.36
8634.00,2.36
8633.00,2.37
8632.00,2.37
8631.00,2.36
8630.00,2.36
8629.00,2.36
8628.00,2.35
8627.00,2.34
8626.00,2.33
8625.00,2.32
8624.00,2.31
8623.00,2.30
8622.00,2.29
8621.00,2.28
8620.00,2.27
8619.00,2.26
8618.00,2.25
8617.00,2.24
8616.00,2.24
8615.00,2.23
8614.00,2.22
8613.00,2.21
8612.00,2.21
8611.00,2.20
8610.00,2.19
8609.00,2.18
8608.00,2.17
8607.00,2.17
8606.00,2.16
8605.00,2.16
8604.00,2.15
8603.00,2.15
8602.00,2.15
8601.00,2.15
8600.00,2.15
8599.00,2.15
8598.00,2.15
8597.00,2.15
8596.00,2.15
8595.00,2.14
8594.00,2.14
8593.00,2.13
8592.00,2.13
8591.00,2.12
8590.00,2.11
8589.00,2.10
8588.00,2.09
8587.00,2.08
8586.00,2.08
8585.00,2.07
8584.00,2.06
8583.00,2.06
8582.00,2.05
8581.00,2.04
8580.00,2.03
8579.00,2.03
8578.00,2.02
8577.00,2.01
8576.00,2.00
8575.00,1.99
8574.00,1.98
8573.00,1.97
8572.00,1.96
8571.00,1.95
8570.00,1.95
8569.00,1.95
8568.00,1.95
8567.00,1.95
8566.00,1.96
8565.00,1.96
8564.00,1.97
8563.00,1.98
8562.00,1.99
8561.00,2.00
8560.00,2.01
8559.00,2.02
8558.00,2.03
8557.00,2.04
8556.00,2.06
8555.00,2.07
8554.00,2.08
8553.00,2.09
8552.00,2.11
8551.00,2.12
8550.00,2.13
8549.00,2.14
8548.00,2.15
8547.00,2.16
8546.00,2.16
8545.00,2.17
8544.00,2.17
8543.00,2.17
8542.00,2.17
8541.00,2.17
8540.00,2.17
8539.00,2.16
8538.00,2.16
8537.00,2.15
8536.00,2.14
8535.00,2.14
8534.00,2.13
8533.00,2.12
8532.00,2.12
8531.00,2.11
8530.00,2.11
8529.00,2.11
8528.00,2.10
8527.00,2.10
8526.00,2.10
8525.00,2.10
8524.00,2.10
8523.00,2.10
8522.00,2.10
8521.00,2.10
8520.00,2.10
8519.00,2.10
8518.00,2.11
8517.00,2.11
8516.00,2.11
8515.00,2.12
8514.00,2.13
8513.00,2.13
8512.00,2.14
8511.00,2.15
8510.00,2.16
8509.00,2.17
8508.00,2.18
8507.00,2.19
8506.00,2.20
8505.00,2.21
8504.00,2.21
8503.00,2.22
8502.00,2.23
8501.00,2.23
8500.00,2.23
8499.00,2.24
8498.00,2.24
8497.00,2.25
8496.00,2.25
8495.00,2.26
8494.00,2.26
8493.00,2.26
8492.00,2.27
8491.00,2.27
8490.00,2.27
8489.00,2.27
8488.00,2.27
8487.00,2.27
8486.00,2.27
8485.00,2.26
8484.00,2.26
8483.00,2.26
8482.00,2.25
8481.00,2.25
8480.00,2.25
8479.00,2.25
8478.00,2.25
8477.00,2.25
8476.00,2.25
8475.00,2.26
8474.00,2.26
8473.00,2.26
8472.00,2.26
8471.00,2.26
8470.00,2.26
8469.00,2.26
8468.00,2.26
8467.00,2.26
8466.00,2.27
8465.00,2.27
8464.00,2.27
8463.00,2.28
8462.00,2.29
8461.00,2.29
8460.00,2.30
8459.00,2.31
8458.00,2.32
8457.00,2.33
8456.00,2.34
8455.00,2.35
8454.00,2.35
8453.00,2.36
8452.00,2.36
8451.00,2.36
8450.00,2.36
8449.00,2.36
8448.00,2.36
8447.00,2.36
8446.00,2.36
8445.00,2.37
8444.00,2.37
8443.00,2.37
8442.00,2.37
8441.00,2.37
8440.00,2.37
8439.00,2.37
8438.00,2.37
8437.00,2.37
8436.00,2.37
8435.00,2.37
8434.00,2.36
8433.00,2.36
8432.00,2.35
8431.00,2.34
8430.00,2.34
8429.00,2.33
8428.00,2.32
8427.00,2.31
8426.00,2.31
8425.00,2.30
8424.00,2.30
8423.00,2.30
8422.00,2.30
8421.00,2.29
8420.00,2.29
8419.00,2.29
8418.00,2.29
8417.00,2.29
8416.00,2.29
8415.00,2.30
8414.00,2.30
8413.00,2.30
8412.00,2.31
8411.00,2.31
8410.00,2.32
8409.00,2.32
8408.00,2.33
8407.00,2.33
8406.00,2.34
8405.00,2.35
8404.00,2.36
8403.00,2.37
8402.00,2.38
8401.00,2.39
8400.00,2.40
8399.00,2.40
8398.00,2.41
8397.00,2.42
8396.00,2.43
8395.00,2.43
8394.00,2.43
8393.00,2.44
8392.00,2.44
8391.00,2.44
8390.00,2.43
8389.00,2.43
8388.00,2.42
8387.00,2.41
8386.00,2.40
8385.00,2.39
8384.00,2.38
8383.00,2.37
8382.00,2.35
8381.00,2.34
8380.00,2.32
8379.00,2.31
8378.00,2.29
8377.00,2.28
8376.00,2.26
8375.00,2.24
8374.00,2.22
8373.00,2.20
8372.00,2.19
8371.00,2.17
8370.00,2.15
8369.00,2.13
8368.00,2.12
8367.00,2.10
8366.00,2.08
8365.00,2.07
8364.00,2.06
8363.00,2.04
8362.00,2.03
8361.00,2.02
8360.00,2.02
8359.00,2.01
8358.00,2.01
8357.00,2.00
8356.00,2.00
8355.00,2.00
8354.00,2.00
8353.00,2.00
8352.00,2.00
8351.00,2.00
8350.00,2.01
8349.00,2.01
8348.00,2.01
8347.00,2.01
8346.00,2.01
8345.00,2.01
8344.00,2.01
8343.00,2.01
8342.00,2.01
8341.00,2.01
8340.00,2.01
8339.00,2.01
8338.00,2.01
8337.00,2.01
8336.00,2.01
8335.00,2.01
8334.00,2.01
8333.00,2.01
8332.00,2.01
8331.00,2.01
8330.00,2.00
8329.00,2.00
8328.00,2.00
8327.00,1.99
8326.00,1.99
8325.00,1.99
8324.00,1.98
8323.00,1.98
8322.00,1.99
8321.00,1.99
8320.00,1.99
8319.00,1.99
8318.00,2.00
8317.00,2.00
8316.00,2.00
8315.00,2.00
8314.00,2.01
8313.00,2.01
8312.00,2.02
8311.00,2.02
8310.00,2.03
8309.00,2.04
8308.00,2.05
8307.00,2.05
8306.00,2.06
8305.00,2.08
8304.00,2.09
8303.00,2.10
8302.00,2.11
8301.00,2.12
8300.00,2.14
8299.00,2.15
8298.00,2.16
8297.00,2.17
8296.00,2.17
8295.00,2.18
8294.00,2.19
8293.00,2.19
8292.00,2.20
8291.00,2.21
8290.00,2.22
8289.00,2.22
8288.00,2.23
8287.00,2.24
8286.00,2.24
8285.00,2.25
8284.00,2.25
8283.00,2.25
8282.00,2.25
8281.00,2.25
8280.00,2.25
8279.00,2.25
8278.00,2.25
8277.00,2.25
8276.00,2.25
8275.00,2.24
8274.00,2.24
8273.00,2.24
8272.00,2.24
8271.00,2.24
8270.00,2.24
8269.00,2.24
8268.00,2.24
8267.00,2.24
8266.00,2.24
8265.00,2.24
8264.00,2.25
8263.00,2.25
8262.00,2.25
8261.00,2.25
8260.00,2.25
8259.00,2.25
8258.00,2.25
8257.00,2.25
8256.00,2.25
8255.00,2.26
8254.00,2.26
8253.00,2.26
8252.00,2.27
8251.00,2.27
8250.00,2.27
8249.00,2.28
8248.00,2.28
8247.00,2.28
8246.00,2.29
8245.00,2.29
8244.00,2.30
8243.00,2.30
8242.00,2.30
8241.00,2.30
8240.00,2.30
8239.00,2.30
8238.00,2.30
8237.00,2.30
8236.00,2.31
8235.00,2.31
8234.00,2.31
8233.00,2.31
8232.00,2.31
8231.00,2.31
8230.00,2.31
8229.00,2.31
8228.00,2.30
8227.00,2.30
8226.00,2.29
8225.00,2.29
8224.00,2.28
8223.00,2.28
8222.00,2.27
8221.00,2.26
8220.00,2.25
8219.00,2.25
8218.00,2.24
8217.00,2.23
8216.00,2.22
8215.00,2.22
8214.00,2.21
8213.00,2.21
8212.00,2.20
8211.00,2.20
8210.00,2.20
8209.00,2.19
8208.00,2.19
8207.00,2.19
8206.00,2.19
8205.00,2.19
8204.00,2.19
8203.00,2.19
8202.00,2.19
8201.00,2.19
8200.00,2.19
8199.00,2.19
8198.00,2.19
8197.00,2.19
8196.00,2.19
8195.00,2.19
8194.00,2.20
8193.00,2.20
8192.00,2.20
8191.00,2.20
8190.00,2.19
8189.00,2.19
8188.00,2.19
8187.00,2.18
8186.00,2.18
8185.00,2.18
8184.00,2.17
8183.00,2.17
8182.00,2.16
8181.00,2.16
8180.00,2.15
8179.00,2.15
8178.00,2.15
8177.00,2.15
8176.00,2.15
8175.00,2.15
8174.00,2.15
8173.00,2.16
8172.00,2.16
8171.00,2.17
8170.00,2.17
8169.00,2.18
8168.00,2.19
8167.00,2.20
8166.00,2.21
8165.00,2.22
8164.00,2.23
8163.00,2.24
8162.00,2.25
8161.00,2.27
8160.00,2.28
8159.00,2.29
8158.00,2.30
8157.00,2.31
8156.00,2.32
8155.00,2.32
8154.00,2.33
8153.00,2.33
8152.00,2.33
8151.00,2.34
8150.00,2.34
8149.00,2.33
8148.00,2.33
8147.00,2.33
8146.00,2.32
8145.00,2.31
8144.00,2.31
8143.00,2.30
8142.00,2.29
8141.00,2.28
8140.00,2.27
8139.00,2.26
8138.00,2.26
8137.00,2.25
8136.00,2.25
8135.00,2.24
8134.00,2.23
8133.00,2.23
8132.00,2.23
8131.00,2.22
8130.00,2.22
8129.00,2.21
8128.00,2.21
8127.00,2.21
8126.00,2.21
8125.00,2.21
8124.00,2.21
8123.00,2.21
8122.00,2.21
8121.00,2.22
8120.00,2.22
8119.00,2.22
8118.00,2.22
8117.00,2.23
8116.00,2.23
8115.00,2.24
8114.00,2.24
8113.00,2.24
8112.00,2.24
8111.00,2.23
8110.00,2.23
8109.00,2.22
8108.00,2.22
8107.00,2.21
8106.00,2.21
8105.00,2.20
8104.00,2.19
8103.00,2.19
8102.00,2.18
8101.00,2.18
8100.00,2.17
8099.00,2.16
8098.00,2.16
8097.00,2.15
8096.00,2.14
8095.00,2.14
8094.00,2.13
8093.00,2.13
8092.00,2.12
8091.00,2.11
8090.00,2.11
8089.00,2.10
8088.00,2.10
8087.00,2.09
8086.00,2.09
8085.00,2.08
8084.00,2.08
8083.00,2.08
8082.00,2.09
8081.00,2.09
8080.00,2.09
8079.00,2.09
8078.00,2.10
8077.00,2.10
8076.00,2.11
8075.00,2.11
8074.00,2.12
8073.00,2.12
8072.00,2.13
8071.00,2.14
8070.00,2.15
8069.00,2.15
8068.00,2.16
8067.00,2.17
8066.00,2.17
8065.00,2.17
8064.00,2.17
8063.00,2.17
8062.00,2.17
8061.00,2.17
8060.00,2.17
8059.00,2.17
8058.00,2.17
8057.00,2.16
8056.00,2.16
8055.00,2.16
8054.00,2.15
8053.00,2.15
8052.00,2.15
8051.00,2.14
8050.00,2.14
8049.00,2.14
8048.00,2.13
8047.00,2.13
8046.00,2.13
8045.00,2.12
8044.00,2.12
8043.00,2.12
8042.00,2.11
8041.00,2.11
8040.00,2.11
8039.00,2.11
8038.00,2.12
8037.00,2.13
8036.00,2.13
8035.00,2.14
8034.00,2.16
8033.00,2.17
8032.00,2.18
8031.00,2.20
8030.00,2.21
8029.00,2.22
8028.00,2.23
8027.00,2.24
8026.00,2.25
8025.00,2.26
8024.00,2.27
8023.00,2.27
8022.00,2.28
8021.00,2.28
8020.00,2.29
8019.00,2.29
8018.00,2.29
8017.00,2.29
8016.00,2.29
8015.00,2.29
8014.00,2.29
8013.00,2.29
8012.00,2.28
8011.00,2.27
8010.00,2.26
8009.00,2.25
8008.00,2.24
8007.00,2.23
8006.00,2.22
8005.00,2.21
8004.00,2.19
8003.00,2.18
8002.00,2.17
8001.00,2.16
8000.00,2.15
7999.00,2.14
7998.00,2.13
7997.00,2.12
7996.00,2.11
7995.00,2.10
7994.00,2.09
7993.00,2.08
7992.00,2.08
7991.00,2.07
7990.00,2.07
7989.00,2.07
7988.00,2.06
7987.00,2.06
7986.00,2.06
7985.00,2.06
7984.00,2.06
7983.00,2.06
7982.00,2.06
7981.00,2.06
7980.00,2.05
7979.00,2.05
7978.00,2.05
7977.00,2.05
7976.00,2.05
7975.00,2.06
7974.00,2.06
7973.00,2.06
7972.00,2.06
7971.00,2.07
7970.00,2.07
7969.00,2.07
7968.00,2.07
7967.00,2.07
7966.00,2.08
7965.00,2.08
7964.00,2.08
7963.00,2.08
7962.00,2.08
7961.00,2.08
7960.00,2.08
7959.00,2.08
7958.00,2.09
7957.00,2.09
7956.00,2.09
7955.00,2.10
7954.00,2.10
7953.00,2.10
7952.00,2.10
7951.00,2.11
7950.00,2.11
7949.00,2.11
7948.00,2.11
7947.00,2.10
7946.00,2.10
7945.00,2.10
7944.00,2.10
7943.00,2.10
7942.00,2.10
7941.00,2.10
7940.00,2.11
7939.00,2.11
7938.00,2.12
7937.00,2.12
7936.00,2.12
7935.00,2.13
7934.00,2.13
7933.00,2.14
7932.00,2.14
7931.00,2.15
7930.00,2.15
7929.00,2.16
7928.00,2.16
7927.00,2.17
7926.00,2.18
7925.00,2.19
7924.00,2.20
7923.00,2.21
7922.00,2.22
7921.00,2.23
7920.00,2.24
7919.00,2.25
7918.00,2.26
7917.00,2.27
7916.00,2.28
7915.00,2.28
7914.00,2.29
7913.00,2.30
7912.00,2.30
7911.00,2.31
7910.00,2.31
7909.00,2.32
7908.00,2.32
7907.00,2.33
7906.00,2.33
7905.00,2.33
7904.00,2.34
7903.00,2.34
7902.00,2.34
7901.00,2.35
7900.00,2.35
7899.00,2.35
7898.00,2.35
7897.00,2.36
7896.00,2.36
7895.00,2.36
7894.00,2.36
7893.00,2.37
7892.00,2.37
7891.00,2.37
7890.00,2.37
7889.00,2.37
7888.00,2.38
7887.00,2.38
7886.00,2.38
7885.00,2.38
7884.00,2.37
7883.00,2.37
7882.00,2.37
7881.00,2.37
7880.00,2.37
7879.00,2.37
7878.00,2.37
7877.00,2.36
7876.00,2.36
7875.00,2.36
7874.00,2.35
7873.00,2.35
7872.00,2.34
7871.00,2.34
7870.00,2.33
7869.00,2.33
7868.00,2.32
7867.00,2.32
7866.00,2.32
7865.00,2.32
7864.00,2.32
7863.00,2.32
7862.00,2.32
7861.00,2.32
7860.00,2.32
7859.00,2.33
7858.00,2.33
7857.00,2.33
7856.00,2.34
7855.00,2.34
7854.00,2.34
7853.00,2.35
7852.00,2.35
7851.00,2.36
7850.00,2.37
7849.00,2.37
7848.00,2.38
7847.00,2.38
7846.00,2.39
7845.00,2.39
7844.00,2.40
7843.00,2.40
7842.00,2.40
7841.00,2.40
7840.00,2.40
7839.00,2.40
7838.00,2.40
7837.00,2.40
7836.00,2.40
7835.00,2.39
7834.00,2.39
7833.00,2.38
7832.00,2.38
7831.00,2.37
7830.00,2.37
7829.00,2.36
7828.00,2.36
7827.00,2.35
7826.00,2.35
7825.00,2.34
7824.00,2.33
7823.00,2.32
7822.00,2.31
7821.00,2.30
7820.00,2.29
7819.00,2.29
7818.00,2.28
7817.00,2.27
7816.00,2.26
7815.00,2.25
7814.00,2.24
7813.00,2.23
7812.00,2.22
7811.00,2.22
7810.00,2.21
7809.00,2.20
7808.00,2.20
7807.00,2.19
7806.00,2.19
7805.00,2.19
7804.00,2.18
7803.00,2.18
7802.00,2.18
7801.00,2.18
7800.00,2.18
7799.00,2.17
7798.00,2.17
7797.00,2.17
7796.00,2.18
7795.00,2.18
7794.00,2.18
7793.00,2.19
7792.00,2.20
7791.00,2.20
7790.00,2.21
7789.00,2.23
7788.00,2.24
7787.00,2.25
7786.00,2.26
7785.00,2.28
7784.00,2.29
7783.00,2.30
7782.00,2.31
7781.00,2.32
7780.00,2.33
7779.00,2.33
7778.00,2.34
7777.00,2.34
7776.00,2.35
7775.00,2.35
7774.00,2.36
7773.00,2.36
7772.00,2.37
7771.00,2.37
7770.00,2.38
7769.00,2.38
7768.00,2.38
7767.00,2.39
7766.00,2.39
7765.00,2.39
7764.00,2.39
7763.00,2.39
7762.00,2.39
7761.00,2.39
7760.00,2.39
7759.00,2.39
7758.00,2.39
7757.00,2.39
7756.00,2.39
7755.00,2.39
7754.00,2.39
7753.00,2.39
7752.00,2.40
7751.00,2.41
7750.00,2.41
7749.00,2.42
7748.00,2.43
7747.00,2.43
7746.00,2.44
7745.00,2.44
7744.00,2.45
7743.00,2.45
7742.00,2.46
7741.00,2.46
7740.00,2.46
7739.00,2.46
7738.00,2.46
7737.00,2.46
7736.00,2.46
7735.00,2.46
7734.00,2.45
7733.00,2.45
7732.00,2.44
7731.00,2.44
7730.00,2.43
7729.00,2.43
7728.00,2.42
7727.00,2.41
7726.00,2.41
7725.00,2.40
7724.00,2.39
7723.00,2.39
7722.00,2.38
7721.00,2.37
7720.00,2.36
7719.00,2.35
7718.00,2.35
7717.00,2.34
7716.00,2.33
7715.00,2.32
7714.00,2.31
7713.00,2.31
7712.00,2.30
7711.00,2.30
7710.00,2.30
7709.00,2.29
7708.00,2.29
7707.00,2.29
7706.00,2.29
7705.00,2.29
7704.00,2.29
7703.00,2.29
7702.00,2.30
7701.00,2.30
7700.00,2.30
7699.00,2.30
7698.00,2.30
7697.00,2.30
7696.00,2.29
7695.00,2.29
7694.00,2.29
7693.00,2.29
7692.00,2.29
7691.00,2.29
7690.00,2.29
7689.00,2.29
7688.00,2.29
7687.00,2.29
7686.00,2.29
7685.00,2.30
7684.00,2.30
7683.00,2.30
7682.00,2.31
7681.00,2.31
7680.00,2.32
7679.00,2.32
7678.00,2.33
7677.00,2.33
7676.00,2.34
7675.00,2.35
7674.00,2.35
7673.00,2.36
7672.00,2.36
7671.00,2.37
7670.00,2.38
7669.00,2.39
7668.00,2.40
7667.00,2.40
7666.00,2.41
7665.00,2.42
7664.00,2.43
7663.00,2.44
7662.00,2.45
7661.00,2.46
7660.00,2.46
7659.00,2.47
7658.00,2.48
7657.00,2.48
7656.00,2.49
7655.00,2.49
7654.00,2.49
7653.00,2.50
7652.00,2.50
7651.00,2.50
7650.00,2.51
7649.00,2.51
7648.00,2.51
7647.00,2.52
7646.00,2.52
7645.00,2.53
7644.00,2.53
7643.00,2.54
7642.00,2.54
7641.00,2.54
7640.00,2.55
7639.00,2.55
7638.00,2.56
7637.00,2.56
7636.00,2.56
7635.00,2.56
7634.00,2.57
7633.00,2.57
7632.00,2.57
7631.00,2.57
7630.00,2.56
7629.00,2.56
7628.00,2.56
7627.00,2.55
7626.00,2.55
7625.00,2.54
7624.00,2.53
7623.00,2.52
7622.00,2.51
7621.00,2.50
7620.00,2.49
7619.00,2.47
7618.00,2.46
7617.00,2.44
7616.00,2.43
7615.00,2.41
7614.00,2.40
7613.00,2.38
7612.00,2.36
7611.00,2.35
7610.00,2.33
7609.00,2.31
7608.00,2.30
7607.00,2.28
7606.00,2.27
7605.00,2.26
7604.00,2.25
7603.00,2.24
7602.00,2.23
7601.00,2.22
7600.00,2.22
7599.00,2.21
7598.00,2.21
7597.00,2.21
7596.00,2.21
7595.00,2.21
7594.00,2.21
7593.00,2.21
7592.00,2.22
7591.00,2.23
7590.00,2.23
7589.00,2.24
7588.00,2.25
7587.00,2.26
7586.00,2.27
7585.00,2.28
7584.00,2.29
7583.00,2.30
7582.00,2.31
7581.00,2.32
7580.00,2.33
7579.00,2.34
7578.00,2.34
7577.00,2.35
7576.00,2.36
7575.00,2.37
7574.00,2.38
7573.00,2.39
7572.00,2.39
7571.00,2.40
7570.00,2.40
7569.00,2.41
7568.00,2.41
7567.00,2.41
7566.00,2.42
7565.00,2.42
7564.00,2.42
7563.00,2.42
7562.00,2.42
7561.00,2.42
7560.00,2.42
7559.00,2.42
7558.00,2.42
7557.00,2.42
7556.00,2.43
7555.00,2.43
7554.00,2.43
7553.00,2.44
7552.00,2.44
7551.00,2.44
7550.00,2.45
7549.00,2.45
7548.00,2.45
7547.00,2.46
7546.00,2.46
7545.00,2.47
7544.00,2.47
7543.00,2.48
7542.00,2.49
7541.00,2.49
7540.00,2.50
7539.00,2.50
7538.00,2.50
7537.00,2.51
7536.00,2.51
7535.00,2.52
7534.00,2.52
7533.00,2.52
7532.00,2.52
7531.00,2.53
7530.00,2.53
7529.00,2.53
7528.00,2.52
7527.00,2.52
7526.00,2.52
7525.00,2.51
7524.00,2.50
7523.00,2.50
7522.00,2.49
7521.00,2.48
7520.00,2.47
7519.00,2.46
7518.00,2.46
7517.00,2.45
7516.00,2.45
7515.00,2.44
7514.00,2.44
7513.00,2.44
7512.00,2.43
7511.00,2.43
7510.00,2.43
7509.00,2.43
7508.00,2.43
7507.00,2.43
7506.00,2.43
7505.00,2.43
7504.00,2.43
7503.00,2.44
7502.00,2.44
7501.00,2.45
7500.00,2.46
7499.00,2.47
7498.00,2.48
7497.00,2.49
7496.00,2.50
7495.00,2.51
7494.00,2.52
7493.00,2.53
7492.00,2.54
7491.00,2.55
7490.00,2.56
7489.00,2.56
7488.00,2.57
7487.00,2.57
7486.00,2.58
7485.00,2.58
7484.00,2.58
7483.00,2.58
7482.00,2.58
7481.00,2.58
7480.00,2.58
7479.00,2.58
7478.00,2.57
7477.00,2.57
7476.00,2.56
7475.00,2.56
7474.00,2.55
7473.00,2.54
7472.00,2.54
7471.00,2.53
7470.00,2.52
7469.00,2.52
7468.00,2.51
7467.00,2.50
7466.00,2.50
7465.00,2.49
7464.00,2.49
7463.00,2.48
7462.00,2.48
7461.00,2.47
7460.00,2.47
7459.00,2.47
7458.00,2.47
7457.00,2.47
7456.00,2.47
7455.00,2.47
7454.00,2.47
7453.00,2.47
7452.00,2.47
7451.00,2.47
7450.00,2.48
7449.00,2.48
7448.00,2.48
7447.00,2.48
7446.00,2.48
7445.00,2.48
7444.00,2.48
7443.00,2.48
7442.00,2.48
7441.00,2.48
7440.00,2.48
7439.00,2.48
7438.00,2.47
7437.00,2.47
7436.00,2.47
7435.00,2.47
7434.00,2.47
7433.00,2.47
7432.00,2.47
7431.00,2.47
7430.00,2.47
7429.00,2.46
7428.00,2.46
7427.00,2.46
7426.00,2.46
7425.00,2.46
7424.00,2.46
7423.00,2.46
7422.00,2.46
7421.00,2.46
7420.00,2.47
7419.00,2.47
7418.00,2.47
7417.00,2.47
7416.00,2.48
7415.00,2.48
7414.00,2.49
7413.00,2.49
7412.00,2.50
7411.00,2.51
7410.00,2.51
7409.00,2.51
7408.00,2.52
7407.00,2.52
7406.00,2.52
7405.00,2.52
7404.00,2.52
7403.00,2.52
7402.00,2.52
7401.00,2.51
7400.00,2.51
7399.00,2.51
7398.00,2.50
7397.00,2.50
7396.00,2.49
7395.00,2.49
7394.00,2.48
7393.00,2.48
7392.00,2.47
7391.00,2.46
7390.00,2.45
7389.00,2.44
7388.00,2.43
7387.00,2.42
7386.00,2.40
7385.00,2.39
7384.00,2.37
7383.00,2.36
7382.00,2.34
7381.00,2.33
7380.00,2.32
7379.00,2.31
7378.00,2.30
7377.00,2.29
7376.00,2.28
7375.00,2.28
7374.00,2.27
7373.00,2.26
7372.00,2.25
7371.00,2.25
7370.00,2.24
7369.00,2.23
7368.00,2.22
7367.00,2.21
7366.00,2.21
7365.00,2.20
7364.00,2.19
7363.00,2.19
7362.00,2.18
7361.00,2.18
7360.00,2.18
7359.00,2.18
7358.00,2.18
7357.00,2.19
7356.00,2.19
7355.00,2.19
7354.00,2.20
7353.00,2.20
7352.00,2.20
7351.00,2.20
7350.00,2.20
7349.00,2.21
7348.00,2.21
7347.00,2.21
7346.00,2.21
7345.00,2.21
7344.00,2.22
7343.00,2.22
7342.00,2.23
7341.00,2.24
7340.00,2.25
7339.00,2.25
7338.00,2.27
7337.00,2.28
7336.00,2.29
7335.00,2.30
7334.00,2.31
7333.00,2.32
7332.00,2.33
7331.00,2.34
7330.00,2.34
7329.00,2.35
7328.00,2.36
7327.00,2.37
7326.00,2.38
7325.00,2.39
7324.00,2.40
7323.00,2.41
7322.00,2.42
7321.00,2.43
7320.00,2.44
7319.00,2.45
7318.00,2.46
7317.00,2.47
7316.00,2.47
7315.00,2.48
7314.00,2.49
7313.00,2.49
7312.00,2.50
7311.00,2.50
7310.00,2.50
7309.00,2.50
7308.00,2.50
7307.00,2.50
7306.00,2.50
7305.00,2.50
7304.00,2.50
7303.00,2.50
7302.00,2.49
7301.00,2.49
7300.00,2.49
7299.00,2.49
7298.00,2.49
7297.00,2.49
7296.00,2.49
7295.00,2.48
7294.00,2.48
7293.00,2.48
7292.00,2.48
7291.00,2.47
7290.00,2.47
7289.00,2.46
7288.00,2.46
7287.00,2.45
7286.00,2.44
7285.00,2.44
7284.00,2.43
7283.00,2.42
7282.00,2.42
7281.00,2.41
7280.00,2.41
7279.00,2.41
7278.00,2.40
7277.00,2.40
7276.00,2.40
7275.00,2.40
7274.00,2.40
7273.00,2.40
7272.00,2.39
7271.00,2.39
7270.00,2.39
7269.00,2.38
7268.00,2.38
7267.00,2.38
7266.00,2.38
7265.00,2.38
7264.00,2.39
7263.00,2.39
7262.00,2.40
7261.00,2.40
7260.00,2.41
7259.00,2.42
7258.00,2.43
7257.00,2.44
7256.00,2.45
7255.00,2.46
7254.00,2.47
7253.00,2.47
7252.00,2.48
7251.00,2.48
7250.00,2.48
7249.00,2.48
7248.00,2.48
7247.00,2.48
7246.00,2.48
7245.00,2.48
7244.00,2.48
7243.00,2.48
7242.00,2.49
7241.00,2.48
7240.00,2.48
7239.00,2.48
7238.00,2.48
7237.00,2.47
7236.00,2.47
7235.00,2.46
7234.00,2.45
7233.00,2.44
7232.00,2.43
7231.00,2.42
7230.00,2.41
7229.00,2.40
7228.00,2.39
7227.00,2.39
7226.00,2.38
7225.00,2.37
7224.00,2.37
7223.00,2.36
7222.00,2.36
7221.00,2.36
7220.00,2.35
7219.00,2.35
7218.00,2.34
7217.00,2.34
7216.00,2.34
7215.00,2.33
7214.00,2.33
7213.00,2.32
7212.00,2.32
7211.00,2.31
7210.00,2.31
7209.00,2.31
7208.00,2.30
7207.00,2.30
7206.00,2.30
7205.00,2.31
7204.00,2.31
7203.00,2.31
7202.00,2.32
7201.00,2.32
7200.00,2.32
7199.00,2.33
7198.00,2.33
7197.00,2.33
7196.00,2.33
7195.00,2.33
7194.00,2.33
7193.00,2.33
7192.00,2.32
7191.00,2.32
7190.00,2.32
7189.00,2.31
7188.00,2.31
7187.00,2.31
7186.00,2.30
7185.00,2.30
7184.00,2.30
7183.00,2.29
7182.00,2.29
7181.00,2.28
7180.00,2.28
7179.00,2.27
7178.00,2.26
7177.00,2.24
7176.00,2.23
7175.00,2.22
7174.00,2.20
7173.00,2.19
7172.00,2.18
7171.00,2.17
7170.00,2.16
7169.00,2.15
7168.00,2.14
7167.00,2.13
7166.00,2.13
7165.00,2.12
7164.00,2.12
7163.00,2.12
7162.00,2.12
7161.00,2.11
7160.00,2.11
7159.00,2.11
7158.00,2.11
7157.00,2.11
7156.00,2.11
7155.00,2.11
7154.00,2.11
7153.00,2.11
7152.00,2.11
7151.00,2.12
7150.00,2.12
7149.00,2.13
7148.00,2.13
7147.00,2.14
7146.00,2.14
7145.00,2.15
7144.00,2.15
7143.00,2.16
7142.00,2.16
7141.00,2.16
7140.00,2.16
7139.00,2.16
7138.00,2.16
7137.00,2.15
7136.00,2.15
7135.00,2.15
7134.00,2.14
7133.00,2.13
7132.00,2.13
7131.00,2.12
7130.00,2.11
7129.00,2.11
7128.00,2.10
7127.00,2.09
7126.00,2.09
7125.00,2.08
7124.00,2.07
7123.00,2.06
7122.00,2.05
7121.00,2.04
7120.00,2.03
7119.00,2.02
7118.00,2.01
7117.00,1.99
7116.00,1.98
7115.00,1.97
7114.00,1.96
7113.00,1.96
7112.00,1.95
7111.00,1.94
7110.00,1.93
7109.00,1.93
7108.00,1.92
7107.00,1.91
7106.00,1.91
7105.00,1.90
7104.00,1.90
7103.00,1.89
7102.00,1.89
7101.00,1.88
7100.00,1.88
7099.00,1.87
7098.00,1.87
7097.00,1.87
7096.00,1.86
7095.00,1.86
7094.00,1.86
7093.00,1.85
7092.00,1.85
7091.00,1.85
7090.00,1.85
7089.00,1.85
7088.00,1.85
7087.00,1.85
7086.00,1.86
7085.00,1.86
7084.00,1.86
7083.00,1.86
7082.00,1.86
7081.00,1.86
7080.00,1.87
7079.00,1.87
7078.00,1.87
7077.00,1.88
7076.00,1.88
7075.00,1.88
7074.00,1.89
7073.00,1.89
7072.00,1.90
7071.00,1.90
7070.00,1.91
7069.00,1.91
7068.00,1.92
7067.00,1.93
7066.00,1.93
7065.00,1.94
7064.00,1.95
7063.00,1.96
7062.00,1.97
7061.00,1.97
7060.00,1.98
7059.00,1.99
7058.00,2.00
7057.00,2.00
7056.00,2.01
7055.00,2.02
7054.00,2.02
7053.00,2.03
7052.00,2.03
7051.00,2.04
7050.00,2.04
7049.00,2.04
7048.00,2.05
7047.00,2.05
7046.00,2.05
7045.00,2.05
7044.00,2.05
7043.00,2.04
7042.00,2.04
7041.00,2.03
7040.00,2.02
7039.00,2.01
7038.00,2.00
7037.00,1.99
7036.00,1.98
7035.00,1.97
7034.00,1.96
7033.00,1.95
7032.00,1.93
7031.00,1.92
7030.00,1.91
7029.00,1.90
7028.00,1.89
7027.00,1.88
7026.00,1.87
7025.00,1.85
7024.00,1.84
7023.00,1.83
7022.00,1.82
7021.00,1.81
7020.00,1.80
7019.00,1.80
7018.00,1.79
7017.00,1.78
7016.00,1.78
7015.00,1.78
7014.00,1.77
7013.00,1.77
7012.00,1.77
7011.00,1.77
7010.00,1.77
7009.00,1.77
7008.00,1.77
7007.00,1.77
7006.00,1.77
7005.00,1.78
7004.00,1.78
7003.00,1.78
7002.00,1.78
7001.00,1.78
7000.00,1.78
6999.00,1.78
6998.00,1.79
6997.00,1.79
6996.00,1.79
6995.00,1.80
6994.00,1.80
6993.00,1.80
6992.00,1.81
6991.00,1.81
6990.00,1.82
6989.00,1.82
6988.00,1.83
6987.00,1.83
6986.00,1.83
6985.00,1.84
6984.00,1.84
6983.00,1.85
6982.00,1.85
6981.00,1.85
6980.00,1.86
6979.00,1.86
6978.00,1.86
6977.00,1.87
6976.00,1.87
6975.00,1.87
6974.00,1.88
6973.00,1.88
6972.00,1.88
6971.00,1.89
6970.00,1.89
6969.00,1.89
6968.00,1.89
6967.00,1.88
6966.00,1.88
6965.00,1.88
6964.00,1.87
6963.00,1.87
6962.00,1.87
6961.00,1.86
6960.00,1.86
6959.00,1.85
6958.00,1.84
6957.00,1.84
6956.00,1.83
6955.00,1.83
6954.00,1.82
6953.00,1.81
6952.00,1.80
6951.00,1.79
6950.00,1.78
6949.00,1.77
6948.00,1.76
6947.00,1.75
6946.00,1.75
6945.00,1.74
6944.00,1.73
6943.00,1.72
6942.00,1.72
6941.00,1.72
6940.00,1.71
6939.00,1.71
6938.00,1.71
6937.00,1.71
6936.00,1.71
6935.00,1.71
6934.00,1.71
6933.00,1.71
6932.00,1.70
6931.00,1.70
6930.00,1.70
6929.00,1.70
6928.00,1.70
6927.00,1.70
6926.00,1.70
6925.00,1.70
6924.00,1.71
6923.00,1.71
6922.00,1.71
6921.00,1.72
6920.00,1.72
6919.00,1.72
6918.00,1.72
6917.00,1.72
6916.00,1.72
6915.00,1.72
6914.00,1.72
6913.00,1.71
6912.00,1.71
6911.00,1.70
6910.00,1.70
6909.00,1.70
6908.00,1.69
6907.00,1.69
6906.00,1.69
6905.00,1.69
6904.00,1.69
6903.00,1.69
6902.00,1.69
6901.00,1.69
6900.00,1.69
6899.00,1.68
6898.00,1.68
6897.00,1.68
6896.00,1.67
6895.00,1.67
6894.00,1.67
6893.00,1.66
6892.00,1.66
6891.00,1.67
6890.00,1.67
6889.00,1.67
6888.00,1.68
6887.00,1.68
6886.00,1.69
6885.00,1.70
6884.00,1.70
6883.00,1.71
6882.00,1.71
6881.00,1.72
6880.00,1.72
6879.00,1.73
6878.00,1.73
6877.00,1.74
6876.00,1.75
6875.00,1.75
6874.00,1.76
6873.00,1.77
6872.00,1.77
6871.00,1.78
6870.00,1.79
6869.00,1.80
6868.00,1.81
6867.00,1.81
6866.00,1.82
6865.00,1.83
6864.00,1.83
6863.00,1.83
6862.00,1.84
6861.00,1.84
6860.00,1.84
6859.00,1.84
6858.00,1.84
6857.00,1.85
6856.00,1.85
6855.00,1.85
6854.00,1.86
6853.00,1.86
6852.00,1.86
6851.00,1.87
6850.00,1.87
6849.00,1.88
6848.00,1.88
6847.00,1.88
6846.00,1.89
6845.00,1.89
6844.00,1.89
6843.00,1.90
6842.00,1.90
6841.00,1.90
6840.00,1.91
6839.00,1.91
6838.00,1.92
6837.00,1.92
6836.00,1.93
6835.00,1.94
6834.00,1.94
6833.00,1.95
6832.00,1.96
6831.00,1.96
6830.00,1.97
6829.00,1.97
6828.00,1.98
6827.00,1.98
6826.00,1.98
6825.00,1.98
6824.00,1.99
6823.00,1.99
6822.00,1.99
6821.00,1.99
6820.00,1.99
6819.00,1.99
6818.00,1.99
6817.00,1.99
6816.00,1.99
6815.00,1.99
6814.00,1.99
6813.00,1.98
6812.00,1.98
6811.00,1.97
6810.00,1.97
6809.00,1.96
6808.00,1.96
6807.00,1.95
6806.00,1.95
6805.00,1.94
6804.00,1.93
6803.00,1.93
6802.00,1.92
6801.00,1.92
6800.00,1.91
6799.00,1.91
6798.00,1.90
6797.00,1.90
6796.00,1.89
6795.00,1.88
6794.00,1.88
6793.00,1.87
6792.00,1.87
6791.00,1.86
6790.00,1.85
6789.00,1.85
6788.00,1.84
6787.00,1.84
6786.00,1.84
6785.00,1.83
6784.00,1.83
6783.00,1.83
6782.00,1.83
6781.00,1.83
6780.00,1.82
6779.00,1.82
6778.00,1.82
6777.00,1.82
6776.00,1.82
6775.00,1.82
6774.00,1.82
6773.00,1.82
6772.00,1.82
6771.00,1.82
6770.00,1.82
6769.00,1.83
6768.00,1.83
6767.00,1.83
6766.00,1.83
6765.00,1.84
6764.00,1.84
6763.00,1.84
6762.00,1.84
6761.00,1.85
6760.00,1.85
6759.00,1.85
6758.00,1.85
6757.00,1.85
6756.00,1.85
6755.00,1.85
6754.00,1.85
6753.00,1.86
6752.00,1.86
6751.00,1.86
6750.00,1.86
6749.00,1.86
6748.00,1.86
6747.00,1.86
6746.00,1.86
6745.00,1.87
6744.00,1.87
6743.00,1.87
6742.00,1.87
6741.00,1.87
6740.00,1.87
6739.00,1.87
6738.00,1.87
6737.00,1.87
6736.00,1.87
6735.00,1.87
6734.00,1.88
6733.00,1.88
6732.00,1.88
6731.00,1.89
6730.00,1.90
6729.00,1.90
6728.00,1.91
6727.00,1.91
6726.00,1.92
6725.00,1.92
6724.00,1.92
6723.00,1.93
6722.00,1.93
6721.00,1.93
6720.00,1.94
6719.00,1.94
6718.00,1.94
6717.00,1.95
6716.00,1.95
6715.00,1.96
6714.00,1.96
6713.00,1.97
6712.00,1.97
6711.00,1.98
6710.00,1.98
6709.00,1.98
6708.00,1.98
6707.00,1.98
6706.00,1.98
6705.00,1.98
6704.00,1.98
6703.00,1.98
6702.00,1.98
6701.00,1.98
6700.00,1.98
6699.00,1.99
6698.00,1.99
6697.00,1.99
6696.00,2.00
6695.00,2.00
6694.00,2.00
6693.00,2.01
6692.00,2.02
6691.00,2.02
6690.00,2.03
6689.00,2.03
6688.00,2.04
6687.00,2.04
6686.00,2.05
6685.00,2.05
6684.00,2.05
6683.00,2.06
6682.00,2.06
6681.00,2.07
6680.00,2.08
6679.00,2.08
6678.00,2.09
6677.00,2.10
6676.00,2.10
6675.00,2.11
6674.00,2.12
6673.00,2.12
6672.00,2.12
6671.00,2.13
6670.00,2.13
6669.00,2.13
6668.00,2.13
6667.00,2.13
6666.00,2.13
6665.00,2.13
6664.00,2.13
6663.00,2.13
6662.00,2.13
6661.00,2.13
6660.00,2.12
6659.00,2.12
6658.00,2.12
6657.00,2.12
6656.00,2.12
6655.00,2.12
6654.00,2.12
6653.00,2.12
6652.00,2.12
6651.00,2.12
6650.00,2.12
6649.00,2.12
6648.00,2.12
6647.00,2.11
6646.00,2.11
6645.00,2.11
6644.00,2.11
6643.00,2.11
6642.00,2.11
6641.00,2.11
6640.00,2.12
6639.00,2.12
6638.00,2.13
6637.00,2.13
6636.00,2.14
6635.00,2.14
6634.00,2.15
6633.00,2.15
6632.00,2.16
6631.00,2.16
6630.00,2.16
6629.00,2.17
6628.00,2.17
6627.00,2.18
6626.00,2.18
6625.00,2.19
6624.00,2.19
6623.00,2.20
6622.00,2.20
6621.00,2.21
6620.00,2.21
6619.00,2.22
6618.00,2.22
6617.00,2.22
6616.00,2.22
6615.00,2.22
6614.00,2.22
6613.00,2.22
6612.00,2.22
6611.00,2.22
6610.00,2.21
6609.00,2.21
6608.00,2.21
6607.00,2.20
6606.00,2.20
6605.00,2.19
6604.00,2.19
6603.00,2.18
6602.00,2.18
6601.00,2.17
6600.00,2.16
6599.00,2.16
6598.00,2.15
6597.00,2.15
6596.00,2.14
6595.00,2.14
6594.00,2.14
6593.00,2.13
6592.00,2.13
6591.00,2.13
6590.00,2.13
6589.00,2.13
6588.00,2.13
6587.00,2.13
6586.00,2.13
6585.00,2.13
6584.00,2.13
6583.00,2.13
6582.00,2.13
6581.00,2.14
6580.00,2.14
6579.00,2.14
6578.00,2.15
6577.00,2.15
6576.00,2.16
6575.00,2.17
6574.00,2.17
6573.00,2.18
6572.00,2.18
6571.00,2.19
6570.00,2.19
6569.00,2.20
6568.00,2.20
6567.00,2.20
6566.00,2.20
6565.00,2.20
6564.00,2.21
6563.00,2.21
6562.00,2.21
6561.00,2.21
6560.00,2.21
6559.00,2.21
6558.00,2.22
6557.00,2.22
6556.00,2.22
6555.00,2.22
6554.00,2.22
6553.00,2.22
6552.00,2.22
6551.00,2.22
6550.00,2.22
6549.00,2.22
6548.00,2.22
6547.00,2.22
6546.00,2.22
6545.00,2.22
6544.00,2.22
6543.00,2.22
6542.00,2.22
6541.00,2.23
6540.00,2.23
6539.00,2.23
6538.00,2.23
6537.00,2.23
6536.00,2.24
6535.00,2.24
6534.00,2.24
6533.00,2.25
6532.00,2.25
6531.00,2.25
6530.00,2.26
6529.00,2.26
6528.00,2.26
6527.00,2.27
6526.00,2.27
6525.00,2.27
6524.00,2.27
6523.00,2.27
6522.00,2.27
6521.00,2.27
6520.00,2.28
6519.00,2.28
6518.00,2.28
6517.00,2.27
6516.00,2.27
6515.00,2.27
6514.00,2.27
6513.00,2.27
6512.00,2.27
6511.00,2.27
6510.00,2.27
6509.00,2.27
6508.00,2.27
6507.00,2.27
6506.00,2.27
6505.00,2.27
6504.00,2.27
6503.00,2.26
6502.00,2.26
6501.00,2.26
6500.00,2.26
6499.00,2.26
6498.00,2.26
6497.00,2.26
6496.00,2.27
6495.00,2.27
6494.00,2.27
6493.00,2.27
6492.00,2.28
6491.00,2.28
6490.00,2.28
6489.00,2.29
6488.00,2.29
6487.00,2.29
6486.00,2.30
6485.00,2.30
6484.00,2.30
6483.00,2.31
6482.00,2.31
6481.00,2.31
6480.00,2.31
6479.00,2.31
6478.00,2.32
6477.00,2.32
6476.00,2.32
6475.00,2.33
6474.00,2.33
6473.00,2.33
6472.00,2.33
6471.00,2.34
6470.00,2.34
6469.00,2.34
6468.00,2.34
6467.00,2.34
6466.00,2.34
6465.00,2.35
6464.00,2.35
6463.00,2.35
6462.00,2.35
6461.00,2.35
6460.00,2.36
6459.00,2.36
6458.00,2.36
6457.00,2.36
6456.00,2.36
6455.00,2.37
6454.00,2.37
6453.00,2.37
6452.00,2.37
6451.00,2.37
6450.00,2.38
6449.00,2.38
6448.00,2.38
6447.00,2.38
6446.00,2.39
6445.00,2.39
6444.00,2.39
6443.00,2.40
6442.00,2.40
6441.00,2.40
6440.00,2.41
6439.00,2.41
6438.00,2.42
6437.00,2.42
6436.00,2.43
6435.00,2.43
6434.00,2.43
6433.00,2.44
6432.00,2.44
6431.00,2.45
6430.00,2.45
6429.00,2.45
6428.00,2.46
6427.00,2.46
6426.00,2.46
6425.00,2.47
6424.00,2.47
6423.00,2.47
6422.00,2.47
6421.00,2.47
6420.00,2.47
6419.00,2.47
6418.00,2.46
6417.00,2.46
6416.00,2.46
6415.00,2.45
6414.00,2.45
6413.00,2.44
6412.00,2.44
6411.00,2.43
6410.00,2.43
6409.00,2.42
6408.00,2.42
6407.00,2.42
6406.00,2.41
6405.00,2.41
6404.00,2.41
6403.00,2.40
6402.00,2.40
6401.00,2.40
6400.00,2.40
6399.00,2.40
6398.00,2.40
6397.00,2.40
6396.00,2.40
6395.00,2.40
6394.00,2.40
6393.00,2.41
6392.00,2.41
6391.00,2.42
6390.00,2.42
6389.00,2.43
6388.00,2.43
6387.00,2.44
6386.00,2.44
6385.00,2.45
6384.00,2.46
6383.00,2.46
6382.00,2.47
6381.00,2.47
6380.00,2.47
6379.00,2.47
6378.00,2.47
6377.00,2.47
6376.00,2.48
6375.00,2.48
6374.00,2.48
6373.00,2.48
6372.00,2.48
6371.00,2.48
6370.00,2.49
6369.00,2.49
6368.00,2.49
6367.00,2.48
6366.00,2.48
6365.00,2.48
6364.00,2.48
6363.00,2.47
6362.00,2.47
6361.00,2.47
6360.00,2.46
6359.00,2.46
6358.00,2.46
6357.00,2.46
6356.00,2.46
6355.00,2.46
6354.00,2.46
6353.00,2.46
6352.00,2.46
6351.00,2.46
6350.00,2.46
6349.00,2.46
6348.00,2.47
6347.00,2.47
6346.00,2.47
6345.00,2.47
6344.00,2.47
6343.00,2.47
6342.00,2.47
6341.00,2.47
6340.00,2.47
6339.00,2.48
6338.00,2.48
6337.00,2.48
6336.00,2.49
6335.00,2.49
6334.00,2.49
6333.00,2.49
6332.00,2.50
6331.00,2.50
6330.00,2.50
6329.00,2.50
6328.00,2.50
6327.00,2.50
6326.00,2.50
6325.00,2.50
6324.00,2.49
6323.00,2.49
6322.00,2.49
6321.00,2.49
6320.00,2.49
6319.00,2.49
6318.00,2.48
6317.00,2.48
6316.00,2.48
6315.00,2.47
6314.00,2.47
6313.00,2.47
6312.00,2.46
6311.00,2.46
6310.00,2.45
6309.00,2.45
6308.00,2.45
6307.00,2.45
6306.00,2.44
6305.00,2.44
6304.00,2.44
6303.00,2.44
6302.00,2.44
6301.00,2.45
6300.00,2.45
6299.00,2.45
6298.00,2.45
6297.00,2.45
6296.00,2.45
6295.00,2.45
6294.00,2.45
6293.00,2.46
6292.00,2.46
6291.00,2.46
6290.00,2.47
6289.00,2.47
6288.00,2.47
6287.00,2.48
6286.00,2.48
6285.00,2.49
6284.00,2.49
6283.00,2.50
6282.00,2.50
6281.00,2.50
6280.00,2.51
6279.00,2.51
6278.00,2.51
6277.00,2.52
6276.00,2.52
6275.00,2.52
6274.00,2.53
6273.00,2.53
6272.00,2.53
6271.00,2.54
6270.00,2.54
6269.00,2.55
6268.00,2.56
6267.00,2.56
6266.00,2.57
6265.00,2.58
6264.00,2.58
6263.00,2.59
6262.00,2.59
6261.00,2.60
6260.00,2.60
6259.00,2.61
6258.00,2.61
6257.00,2.62
6256.00,2.63
6255.00,2.63
6254.00,2.64
6253.00,2.64
6252.00,2.65
6251.00,2.65
6250.00,2.66
6249.00,2.66
6248.00,2.66
6247.00,2.67
6246.00,2.67
6245.00,2.67
6244.00,2.67
6243.00,2.67
6242.00,2.68
6241.00,2.68
6240.00,2.68
6239.00,2.68
6238.00,2.68
6237.00,2.68
6236.00,2.68
6235.00,2.68
6234.00,2.68
6233.00,2.68
6232.00,2.68
6231.00,2.69
6230.00,2.69
6229.00,2.69
6228.00,2.69
6227.00,2.69
6226.00,2.70
6225.00,2.70
6224.00,2.70
6223.00,2.70
6222.00,2.70
6221.00,2.71
6220.00,2.71
6219.00,2.71
6218.00,2.72
6217.00,2.72
6216.00,2.72
6215.00,2.73
6214.00,2.73
6213.00,2.73
6212.00,2.73
6211.00,2.74
6210.00,2.74
6209.00,2.74
6208.00,2.74
6207.00,2.73
6206.00,2.73
6205.00,2.73
6204.00,2.73
6203.00,2.72
6202.00,2.72
6201.00,2.71
6200.00,2.71
6199.00,2.71
6198.00,2.70
6197.00,2.70
6196.00,2.69
6195.00,2.69
6194.00,2.69
6193.00,2.68
6192.00,2.68
6191.00,2.67
6190.00,2.67
6189.00,2.66
6188.00,2.66
6187.00,2.65
6186.00,2.65
6185.00,2.64
6184.00,2.64
6183.00,2.63
6182.00,2.63
6181.00,2.63
6180.00,2.62
6179.00,2.62
6178.00,2.62
6177.00,2.62
6176.00,2.62
6175.00,2.62
6174.00,2.62
6173.00,2.62
6172.00,2.62
6171.00,2.61
6170.00,2.61
6169.00,2.61
6168.00,2.62
6167.00,2.62
6166.00,2.62
6165.00,2.62
6164.00,2.62
6163.00,2.62
6162.00,2.62
6161.00,2.63
6160.00,2.63
6159.00,2.63
6158.00,2.64
6157.00,2.64
6156.00,2.64
6155.00,2.65
6154.00,2.65
6153.00,2.65
6152.00,2.65
6151.00,2.65
6150.00,2.65
6149.00,2.65
6148.00,2.66
6147.00,2.66
6146.00,2.66
6145.00,2.66
6144.00,2.66
6143.00,2.67
6142.00,2.67
6141.00,2.67
6140.00,2.67
6139.00,2.67
6138.00,2.67
6137.00,2.67
6136.00,2.67
6135.00,2.67
6134.00,2.67
6133.00,2.67
6132.00,2.67
6131.00,2.67
6130.00,2.67
6129.00,2.68
6128.00,2.68
6127.00,2.68
6126.00,2.68
6125.00,2.68
6124.00,2.68
6123.00,2.69
6122.00,2.69
6121.00,2.69
6120.00,2.69
6119.00,2.69
6118.00,2.69
6117.00,2.69
6116.00,2.69
6115.00,2.69
6114.00,2.69
6113.00,2.69
6112.00,2.69
6111.00,2.69
6110.00,2.69
6109.00,2.69
6108.00,2.69
6107.00,2.69
6106.00,2.69
6105.00,2.69
6104.00,2.69
6103.00,2.69
6102.00,2.69
6101.00,2.69
6100.00,2.69
6099.00,2.69
6098.00,2.69
6097.00,2.69
6096.00,2.69
6095.00,2.69
6094.00,2.69
6093.00,2.69
6092.00,2.69
6091.00,2.69
6090.00,2.69
6089.00,2.69
6088.00,2.70
6087.00,2.70
6086.00,2.70
6085.00,2.70
6084.00,2.70
6083.00,2.70
6082.00,2.70
6081.00,2.70
6080.00,2.70
6079.00,2.70
6078.00,2.70
6077.00,2.70
6076.00,2.70
6075.00,2.70
6074.00,2.70
6073.00,2.70
6072.00,2.70
6071.00,2.70
6070.00,2.70
6069.00,2.69
6068.00,2.69
6067.00,2.69
6066.00,2.69
6065.00,2.69
6064.00,2.69
6063.00,2.69
6062.00,2.69
6061.00,2.69
6060.00,2.69
6059.00,2.69
6058.00,2.70
6057.00,2.70
6056.00,2.70
6055.00,2.70
6054.00,2.70
6053.00,2.71
6052.00,2.71
6051.00,2.71
6050.00,2.71
6049.00,2.72
6048.00,2.72
6047.00,2.72
6046.00,2.72
6045.00,2.73
6044.00,2.73
6043.00,2.73
6042.00,2.73
6041.00,2.74
6040.00,2.74
6039.00,2.74
6038.00,2.74
6037.00,2.74
6036.00,2.75
6035.00,2.75
6034.00,2.75
6033.00,2.75
6032.00,2.75
6031.00,2.75
6030.00,2.75
6029.00,2.75
6028.00,2.76
6027.00,2.76
6026.00,2.76
6025.00,2.76
6024.00,2.76
6023.00,2.76
6022.00,2.76
6021.00,2.77
6020.00,2.77
6019.00,2.77
6018.00,2.77
6017.00,2.77
6016.00,2.77
6015.00,2.78
6014.00,2.78
6013.00,2.78
6012.00,2.78
6011.00,2.78
6010.00,2.78
6009.00,2.78
6008.00,2.78
6007.00,2.79
6006.00,2.79
6005.00,2.79
6004.00,2.79
6003.00,2.79
6002.00,2.79
6001.00,2.78
6000.00,2.78
5999.00,2.78
5998.00,2.78
5997.00,2.77
5996.00,2.77
5995.00,2.77
5994.00,2.76
5993.00,2.76
5992.00,2.76
5991.00,2.75
5990.00,2.75
5989.00,2.75
5988.00,2.74
5987.00,2.74
5986.00,2.73
5985.00,2.73
5984.00,2.73
5983.00,2.72
5982.00,2.72
5981.00,2.71
5980.00,2.71
5979.00,2.71
5978.00,2.70
5977.00,2.70
5976.00,2.70
5975.00,2.70
5974.00,2.70
5973.00,2.70
5972.00,2.70
5971.00,2.70
5970.00,2.70
5969.00,2.70
5968.00,2.70
5967.00,2.70
5966.00,2.70
5965.00,2.70
5964.00,2.70
5963.00,2.70
5962.00,2.70
5961.00,2.70
5960.00,2.70
5959.00,2.71
5958.00,2.71
5957.00,2.71
5956.00,2.71
5955.00,2.71
5954.00,2.71
5953.00,2.71
5952.00,2.71
5951.00,2.71
5950.00,2.71
5949.00,2.71
5948.00,2.71
5947.00,2.70
5946.00,2.70
5945.00,2.70
5944.00,2.70
5943.00,2.70
5942.00,2.70
5941.00,2.69
5940.00,2.69
5939.00,2.69
5938.00,2.69
5937.00,2.69
5936.00,2.69
5935.00,2.69
5934.00,2.69
5933.00,2.69
5932.00,2.69
5931.00,2.69
5930.00,2.69
5929.00,2.69
5928.00,2.69
5927.00,2.69
5926.00,2.69
5925.00,2.69
5924.00,2.69
5923.00,2.68
5922.00,2.68
5921.00,2.68
5920.00,2.68
5919.00,2.68
5918.00,2.68
5917.00,2.69
5916.00,2.69
5915.00,2.69
5914.00,2.69
5913.00,2.69
5912.00,2.69
5911.00,2.69
5910.00,2.69
5909.00,2.69
5908.00,2.69
5907.00,2.69
5906.00,2.69
5905.00,2.70
5904.00,2.70
5903.00,2.70
5902.00,2.70
5901.00,2.70
5900.00,2.70
5899.00,2.71
5898.00,2.71
5897.00,2.71
5896.00,2.72
5895.00,2.72
5894.00,2.72
5893.00,2.73
5892.00,2.73
5891.00,2.74
5890.00,2.74
5889.00,2.74
5888.00,2.75
5887.00,2.75
5886.00,2.75
5885.00,2.76
5884.00,2.76
5883.00,2.76
5882.00,2.77
5881.00,2.77
5880.00,2.77
5879.00,2.77
5878.00,2.78
5877.00,2.78
5876.00,2.78
5875.00,2.78
5874.00,2.78
5873.00,2.78
5872.00,2.78
5871.00,2.78
5870.00,2.78
5869.00,2.78
5868.00,2.78
5867.00,2.77
5866.00,2.77
5865.00,2.77
5864.00,2.76
5863.00,2.76
5862.00,2.76
5861.00,2.75
5860.00,2.75
5859.00,2.74
5858.00,2.74
5857.00,2.73
5856.00,2.73
5855.00,2.73
5854.00,2.72
5853.00,2.72
5852.00,2.72
5851.00,2.71
5850.00,2.71
5849.00,2.71
5848.00,2.71
5847.00,2.71
5846.00,2.71
5845.00,2.71
5844.00,2.71
5843.00,2.71
5842.00,2.71
5841.00,2.72
5840.00,2.72
5839.00,2.72
5838.00,2.72
5837.00,2.73
5836.00,2.73
5835.00,2.73
5834.00,2.74
5833.00,2.74
5832.00,2.75
5831.00,2.75
5830.00,2.75
5829.00,2.76
5828.00,2.76
5827.00,2.76
5826.00,2.77
5825.00,2.77
5824.00,2.77
5823.00,2.77
5822.00,2.77
5821.00,2.78
5820.00,2.78
5819.00,2.78
5818.00,2.78
5817.00,2.78
5816.00,2.78
5815.00,2.78
5814.00,2.78
5813.00,2.78
5812.00,2.78
5811.00,2.78
5810.00,2.78
5809.00,2.78
5808.00,2.78
5807.00,2.78
5806.00,2.78
5805.00,2.78
5804.00,2.79
5803.00,2.79
5802.00,2.79
5801.00,2.79
5800.00,2.79
5799.00,2.79
5798.00,2.80
5797.00,2.80
5796.00,2.80
5795.00,2.80
5794.00,2.81
5793.00,2.81
5792.00,2.81
5791.00,2.81
5790.00,2.81
5789.00,2.82
5788.00,2.82
5787.00,2.82
5786.00,2.82
5785.00,2.82
5784.00,2.82
5783.00,2.82
5782.00,2.82
5781.00,2.82
5780.00,2.82
5779.00,2.82
5778.00,2.82
5777.00,2.82
5776.00,2.82
5775.00,2.82
5774.00,2.82
5773.00,2.82
5772.00,2.82
5771.00,2.82
5770.00,2.82
5769.00,2.82
5768.00,2.82
5767.00,2.82
5766.00,2.82
5765.00,2.82
5764.00,2.82
5763.00,2.82
5762.00,2.83
5761.00,2.83
5760.00,2.83
5759.00,2.83
5758.00,2.83
5757.00,2.83
5756.00,2.84
5755.00,2.84
5754.00,2.84
5753.00,2.84
5752.00,2.84
5751.00,2.84
5750.00,2.85
5749.00,2.85
5748.00,2.85
5747.00,2.85
5746.00,2.85
5745.00,2.85
5744.00,2.85
5743.00,2.85
5742.00,2.85
5741.00,2.85
5740.00,2.85
5739.00,2.85
5738.00,2.85
5737.00,2.85
5736.00,2.84
5735.00,2.84
5734.00,2.84
5733.00,2.84
5732.00,2.83
5731.00,2.83
5730.00,2.83
5729.00,2.83
5728.00,2.83
5727.00,2.82
5726.00,2.82
5725.00,2.82
5724.00,2.82
5723.00,2.82
5722.00,2.81
5721.00,2.81
5720.00,2.81
5719.00,2.81
5718.00,2.80
5717.00,2.80
5716.00,2.80
5715.00,2.80
5714.00,2.80
5713.00,2.79
5712.00,2.79
5711.00,2.79
5710.00,2.79
5709.00,2.79
5708.00,2.79
5707.00,2.79
5706.00,2.79
5705.00,2.78
5704.00,2.78
5703.00,2.78
5702.00,2.78
5701.00,2.77
5700.00,2.77
5699.00,2.77
5698.00,2.77
5697.00,2.76
5696.00,2.76
5695.00,2.76
5694.00,2.76
5693.00,2.76
5692.00,2.76
5691.00,2.76
5690.00,2.76
5689.00,2.76
5688.00,2.75
5687.00,2.75
5686.00,2.75
5685.00,2.75
5684.00,2.75
5683.00,2.75
5682.00,2.75
5681.00,2.75
5680.00,2.76
5679.00,2.76
5678.00,2.76
5677.00,2.76
5676.00,2.77
5675.00,2.77
5674.00,2.77
5673.00,2.77
5672.00,2.77
5671.00,2.78
5670.00,2.78
5669.00,2.78
5668.00,2.78
5667.00,2.78
5666.00,2.78
5665.00,2.78
5664.00,2.78
5663.00,2.78
5662.00,2.79
5661.00,2.79
5660.00,2.79
5659.00,2.79
5658.00,2.79
5657.00,2.79
5656.00,2.79
5655.00,2.79
5654.00,2.79
5653.00,2.79
5652.00,2.78
5651.00,2.78
5650.00,2.78
5649.00,2.78
5648.00,2.78
5647.00,2.78
5646.00,2.78
5645.00,2.78
5644.00,2.78
5643.00,2.79
5642.00,2.79
5641.00,2.79
5640.00,2.79
5639.00,2.79
5638.00,2.79
5637.00,2.79
5636.00,2.79
5635.00,2.79
5634.00,2.80
5633.00,2.80
5632.00,2.80
5631.00,2.80
5630.00,2.80
5629.00,2.81
5628.00,2.81
5627.00,2.81
5626.00,2.81
5625.00,2.81
5624.00,2.81
5623.00,2.81
5622.00,2.81
5621.00,2.81
5620.00,2.81
5619.00,2.81
5618.00,2.81
5617.00,2.81
5616.00,2.81
5615.00,2.81
5614.00,2.81
5613.00,2.81
5612.00,2.81
5611.00,2.80
5610.00,2.80
5609.00,2.80
5608.00,2.80
5607.00,2.80
5606.00,2.80
5605.00,2.80
5604.00,2.80
5603.00,2.79
5602.00,2.79
5601.00,2.79
5600.00,2.79
5599.00,2.79
5598.00,2.79
5597.00,2.79
5596.00,2.79
5595.00,2.79
5594.00,2.79
5593.00,2.79
5592.00,2.79
5591.00,2.79
5590.00,2.79
5589.00,2.79
5588.00,2.79
5587.00,2.79
5586.00,2.79
5585.00,2.79
5584.00,2.79
5583.00,2.79
5582.00,2.79
5581.00,2.79
5580.00,2.79
5579.00,2.79
5578.00,2.79
5577.00,2.79
5576.00,2.79
5575.00,2.79
5574.00,2.79
5573.00,2.80
5572.00,2.80
5571.00,2.80
5570.00,2.80
5569.00,2.80
5568.00,2.80
5567.00,2.80
5566.00,2.80
5565.00,2.80
5564.00,2.80
5563.00,2.80
5562.00,2.80
5561.00,2.80
5560.00,2.80
5559.00,2.81
5558.00,2.81
5557.00,2.81
5556.00,2.81
5555.00,2.81
5554.00,2.82
5553.00,2.82
5552.00,2.82
5551.00,2.82
5550.00,2.82
5549.00,2.83
5548.00,2.83
5547.00,2.83
5546.00,2.83
5545.00,2.83
5544.00,2.84
5543.00,2.84
5542.00,2.84
5541.00,2.85
5540.00,2.85
5539.00,2.85
5538.00,2.85
5537.00,2.85
5536.00,2.86
5535.00,2.86
5534.00,2.86
5533.00,2.86
5532.00,2.86
5531.00,2.86
5530.00,2.85
5529.00,2.85
5528.00,2.85
5527.00,2.85
5526.00,2.85
5525.00,2.85
5524.00,2.84
5523.00,2.84
5522.00,2.84
5521.00,2.84
5520.00,2.83
5519.00,2.83
5518.00,2.83
5517.00,2.82
5516.00,2.82
5515.00,2.82
5514.00,2.81
5513.00,2.81
5512.00,2.81
5511.00,2.80
5510.00,2.80
5509.00,2.80
5508.00,2.80
5507.00,2.80
5506.00,2.80
5505.00,2.80
5504.00,2.80
5503.00,2.80
5502.00,2.80
5501.00,2.80
5500.00,2.80
5499.00,2.80
5498.00,2.81
5497.00,2.81
5496.00,2.81
5495.00,2.81
5494.00,2.82
5493.00,2.82
5492.00,2.82
5491.00,2.82
5490.00,2.82
5489.00,2.83
5488.00,2.83
5487.00,2.83
5486.00,2.83
5485.00,2.84
5484.00,2.84
5483.00,2.84
5482.00,2.85
5481.00,2.85
5480.00,2.85
5479.00,2.85
5478.00,2.85
5477.00,2.86
5476.00,2.86
5475.00,2.86
5474.00,2.86
5473.00,2.86
5472.00,2.87
5471.00,2.87
5470.00,2.87
5469.00,2.87
5468.00,2.88
5467.00,2.88
5466.00,2.88
5465.00,2.89
5464.00,2.89
5463.00,2.89
5462.00,2.90
5461.00,2.90
5460.00,2.90
5459.00,2.91
5458.00,2.91
5457.00,2.91
5456.00,2.92
5455.00,2.92
5454.00,2.92
5453.00,2.93
5452.00,2.93
5451.00,2.93
5450.00,2.94
5449.00,2.94
5448.00,2.94
5447.00,2.95
5446.00,2.95
5445.00,2.95
5444.00,2.95
5443.00,2.95
5442.00,2.96
5441.00,2.96
5440.00,2.96
5439.00,2.96
5438.00,2.96
5437.00,2.96
5436.00,2.96
5435.00,2.96
5434.00,2.96
5433.00,2.96
5432.00,2.96
5431.00,2.95
5430.00,2.95
5429.00,2.95
5428.00,2.95
5427.00,2.94
5426.00,2.94
5425.00,2.94
5424.00,2.93
5423.00,2.93
5422.00,2.93
5421.00,2.93
5420.00,2.92
5419.00,2.92
5418.00,2.92
5417.00,2.92
5416.00,2.91
5415.00,2.91
5414.00,2.91
5413.00,2.91
5412.00,2.90
5411.00,2.90
5410.00,2.90
5409.00,2.90
5408.00,2.89
5407.00,2.89
5406.00,2.89
5405.00,2.89
5404.00,2.89
5403.00,2.89
5402.00,2.89
5401.00,2.89
5400.00,2.89
5399.00,2.89
5398.00,2.89
5397.00,2.89
5396.00,2.89
5395.00,2.88
5394.00,2.88
5393.00,2.88
5392.00,2.88
5391.00,2.88
5390.00,2.87
5389.00,2.87
5388.00,2.87
5387.00,2.87
5386.00,2.86
5385.00,2.86
5384.00,2.86
5383.00,2.85
5382.00,2.85
5381.00,2.85
5380.00,2.84
5379.00,2.84
5378.00,2.83
5377.00,2.83
5376.00,2.82
5375.00,2.82
5374.00,2.81
5373.00,2.80
5372.00,2.80
5371.00,2.79
5370.00,2.79
5369.00,2.78
5368.00,2.78
5367.00,2.77
5366.00,2.77
5365.00,2.76
5364.00,2.76
5363.00,2.75
5362.00,2.75
5361.00,2.75
5360.00,2.74
5359.00,2.74
5358.00,2.73
5357.00,2.73
5356.00,2.73
5355.00,2.72
5354.00,2.72
5353.00,2.71
5352.00,2.71
5351.00,2.71
5350.00,2.70
5349.00,2.70
5348.00,2.69
5347.00,2.69
5346.00,2.68
5345.00,2.67
5344.00,2.66
5343.00,2.65
5342.00,2.64
5341.00,2.63
5340.00,2.61
5339.00,2.60
5338.00,2.59
5337.00,2.57
5336.00,2.56
5335.00,2.54
5334.00,2.52
5333.00,2.51
5332.00,2.49
5331.00,2.48
5330.00,2.46
5329.00,2.44
5328.00,2.42
5327.00,2.40
5326.00,2.39
5325.00,2.37
5324.00,2.35
5323.00,2.33
5322.00,2.31
5321.00,2.29
5320.00,2.27
5319.00,2.25
5318.00,2.24
5317.00,2.22
5316.00,2.21
5315.00,2.19
5314.00,2.18
5313.00,2.16
5312.00,2.15
5311.00,2.14
5310.00,2.12
5309.00,2.11
5308.00,2.10
5307.00,2.08
5306.00,2.07
5305.00,2.06
5304.00,2.04
5303.00,2.03
5302.00,2.02
5301.00,2.00
5300.00,1.99
5299.00,1.98
5298.00,1.97
5297.00,1.96
5296.00,1.94
5295.00,1.93
5294.00,1.92
5293.00,1.91
5292.00,1.90
5291.00,1.89
5290.00,1.88
5289.00,1.86
5288.00,1.85
5287.00,1.84
5286.00,1.83
5285.00,1.82
5284.00,1.80
5283.00,1.79
5282.00,1.78
5281.00,1.77
5280.00,1.76
5279.00,1.75
5278.00,1.74
5277.00,1.73
5276.00,1.72
5275.00,1.71
5274.00,1.70
5273.00,1.69
5272.00,1.68
5271.00,1.66
5270.00,1.65
5269.00,1.64
5268.00,1.63
5267.00,1.62
5266.00,1.61
5265.00,1.60
5264.00,1.59
5263.00,1.58
5262.00,1.58
5261.00,1.57
5260.00,1.56
5259.00,1.55
5258.00,1.55
5257.00,1.54
5256.00,1.53
5255.00,1.53
5254.00,1.52
5253.00,1.51
5252.00,1.51
5251.00,1.50
5250.00,1.50
5249.00,1.49
5248.00,1.49
5247.00,1.49
5246.00,1.48
5245.00,1.48
5244.00,1.47
5243.00,1.47
5242.00,1.47
5241.00,1.46
5240.00,1.46
5239.00,1.45
5238.00,1.45
5237.00,1.44
5236.00,1.44
5235.00,1.43
5234.00,1.43
5233.00,1.42
5232.00,1.41
5231.00,1.41
5230.00,1.40
5229.00,1.40
5228.00,1.39
5227.00,1.39
5226.00,1.38
5225.00,1.38
5224.00,1.38
5223.00,1.37
5222.00,1.37
5221.00,1.37
5220.00,1.37
5219.00,1.37
5218.00,1.36
5217.00,1.36
5216.00,1.36
5215.00,1.36
5214.00,1.36
5213.00,1.36
5212.00,1.36
5211.00,1.36
5210.00,1.36
5209.00,1.36
5208.00,1.36
5207.00,1.36
5206.00,1.36
5205.00,1.36
5204.00,1.36
5203.00,1.36
5202.00,1.36
5201.00,1.36
5200.00,1.36
5199.00,1.36
5198.00,1.36
5197.00,1.36
5196.00,1.36
5195.00,1.36
5194.00,1.36
5193.00,1.36
5192.00,1.36
5191.00,1.36
5190.00,1.36
5189.00,1.36
5188.00,1.36
5187.00,1.36
5186.00,1.37
5185.00,1.37
5184.00,1.37
5183.00,1.37
5182.00,1.37
5181.00,1.37
5180.00,1.37
5179.00,1.37
5178.00,1.37
5177.00,1.38
5176.00,1.38
5175.00,1.38
5174.00,1.38
5173.00,1.38
5172.00,1.38
5171.00,1.38
5170.00,1.38
5169.00,1.38
5168.00,1.38
5167.00,1.38
5166.00,1.37
5165.00,1.37
5164.00,1.37
5163.00,1.37
5162.00,1.37
5161.00,1.37
5160.00,1.36
5159.00,1.36
5158.00,1.36
5157.00,1.36
5156.00,1.36
5155.00,1.36
5154.00,1.36
5153.00,1.36
5152.00,1.36
5151.00,1.36
5150.00,1.36
5149.00,1.36
5148.00,1.36
5147.00,1.36
5146.00,1.36
5145.00,1.36
5144.00,1.37
5143.00,1.37
5142.00,1.37
5141.00,1.38
5140.00,1.38
5139.00,1.38
5138.00,1.39
5137.00,1.39
5136.00,1.39
5135.00,1.40
5134.00,1.40
5133.00,1.40
5132.00,1.41
5131.00,1.41
5130.00,1.41
5129.00,1.42
5128.00,1.42
5127.00,1.42
5126.00,1.43
5125.00,1.43
5124.00,1.43
5123.00,1.44
5122.00,1.44
5121.00,1.44
5120.00,1.44
5119.00,1.44
5118.00,1.45
5117.00,1.45
5116.00,1.45
5115.00,1.45
5114.00,1.45
5113.00,1.45
5112.00,1.45
5111.00,1.45
5110.00,1.45
5109.00,1.46
5108.00,1.46
5107.00,1.46
5106.00,1.46
5105.00,1.47
5104.00,1.47
5103.00,1.47
5102.00,1.47
5101.00,1.48
5100.00,1.48
5099.00,1.48
5098.00,1.48
5097.00,1.48
5096.00,1.49
5095.00,1.49
5094.00,1.49
5093.00,1.49
5092.00,1.49
5091.00,1.49
5090.00,1.49
5089.00,1.50
5088.00,1.50
5087.00,1.50
5086.00,1.50
5085.00,1.50
5084.00,1.50
5083.00,1.50
5082.00,1.50
5081.00,1.50
5080.00,1.50
5079.00,1.50
5078.00,1.49
5077.00,1.49
5076.00,1.49
5075.00,1.49
5074.00,1.49
5073.00,1.49
5072.00,1.49
5071.00,1.49
5070.00,1.49
5069.00,1.49
5068.00,1.49
5067.00,1.49
5066.00,1.49
5065.00,1.50
5064.00,1.50
5063.00,1.50
5062.00,1.50
5061.00,1.51
5060.00,1.51
5059.00,1.52
5058.00,1.52
5057.00,1.53
5056.00,1.53
5055.00,1.54
5054.00,1.54
5053.00,1.55
5052.00,1.56
5051.00,1.56
5050.00,1.57
5049.00,1.58
5048.00,1.59
5047.00,1.59
5046.00,1.60
5045.00,1.60
5044.00,1.61
5043.00,1.61
5042.00,1.62
5041.00,1.63
5040.00,1.63
5039.00,1.63
5038.00,1.64
5037.00,1.64
5036.00,1.65
5035.00,1.65
5034.00,1.66
5033.00,1.66
5032.00,1.66
5031.00,1.67
5030.00,1.67
5029.00,1.67
5028.00,1.68
5027.00,1.68
5026.00,1.68
5025.00,1.68
5024.00,1.69
5023.00,1.69
5022.00,1.69
5021.00,1.69
5020.00,1.70
5019.00,1.70
5018.00,1.70
5017.00,1.70
5016.00,1.71
5015.00,1.71
5014.00,1.71
5013.00,1.72
5012.00,1.72
5011.00,1.73
5010.00,1.73
5009.00,1.73
5008.00,1.74
5007.00,1.74
5006.00,1.75
5005.00,1.75
5004.00,1.76
5003.00,1.76
5002.00,1.76
5001.00,1.77
5000.00,1.77
4999.00,1.78
4998.00,1.79
4997.00,1.79
4996.00,1.80
4995.00,1.80
4994.00,1.81
4993.00,1.82
4992.00,1.82
4991.00,1.83
4990.00,1.83
4989.00,1.84
4988.00,1.85
4987.00,1.85
4986.00,1.85
4985.00,1.86
4984.00,1.86
4983.00,1.87
4982.00,1.87
4981.00,1.88
4980.00,1.88
4979.00,1.89
4978.00,1.89
4977.00,1.90
4976.00,1.90
4975.00,1.91
4974.00,1.91
4973.00,1.91
4972.00,1.91
4971.00,1.92
4970.00,1.92
4969.00,1.92
4968.00,1.92
4967.00,1.93
4966.00,1.93
4965.00,1.93
4964.00,1.94
4963.00,1.94
4962.00,1.95
4961.00,1.95
4960.00,1.96
4959.00,1.96
4958.00,1.96
4957.00,1.97
4956.00,1.97
4955.00,1.98
4954.00,1.98
4953.00,1.98
4952.00,1.99
4951.00,1.99
4950.00,2.00
4949.00,2.00
4948.00,2.01
4947.00,2.01
4946.00,2.01
4945.00,2.02
4944.00,2.02
4943.00,2.03
4942.00,2.03
4941.00,2.04
4940.00,2.04
4939.00,2.04
4938.00,2.05
4937.00,2.05
4936.00,2.05
4935.00,2.05
4934.00,2.05
4933.00,2.05
4932.00,2.06
4931.00,2.06
4930.00,2.06
4929.00,2.06
4928.00,2.06
4927.00,2.06
4926.00,2.06
4925.00,2.06
4924.00,2.06
4923.00,2.06
4922.00,2.05
4921.00,2.05
4920.00,2.05
4919.00,2.05
4918.00,2.05
4917.00,2.05
4916.00,2.05
4915.00,2.05
4914.00,2.05
4913.00,2.04
4912.00,2.04
4911.00,2.04
4910.00,2.04
4909.00,2.05
4908.00,2.05
4907.00,2.05
4906.00,2.05
4905.00,2.05
4904.00,2.05
4903.00,2.06
4902.00,2.06
4901.00,2.07
4900.00,2.07
4899.00,2.08
4898.00,2.08
4897.00,2.09
4896.00,2.09
4895.00,2.10
4894.00,2.10
4893.00,2.11
4892.00,2.12
4891.00,2.13
4890.00,2.13
4889.00,2.14
4888.00,2.15
4887.00,2.15
4886.00,2.16
4885.00,2.16
4884.00,2.17
4883.00,2.17
4882.00,2.18
4881.00,2.18
4880.00,2.19
4879.00,2.19
4878.00,2.20
4877.00,2.20
4876.00,2.20
4875.00,2.20
4874.00,2.21
4873.00,2.21
4872.00,2.21
4871.00,2.21
4870.00,2.22
4869.00,2.22
4868.00,2.22
4867.00,2.22
4866.00,2.22
4865.00,2.23
4864.00,2.23
4863.00,2.23
4862.00,2.23
4861.00,2.23
4860.00,2.23
4859.00,2.24
4858.00,2.24
4857.00,2.24
4856.00,2.24
4855.00,2.24
4854.00,2.25
4853.00,2.25
4852.00,2.25
4851.00,2.26
4850.00,2.26
4849.00,2.27
4848.00,2.27
4847.00,2.27
4846.00,2.28
4845.00,2.28
4844.00,2.28
4843.00,2.29
4842.00,2.29
4841.00,2.29
4840.00,2.30
4839.00,2.30
4838.00,2.30
4837.00,2.31
4836.00,2.31
4835.00,2.31
4834.00,2.32
4833.00,2.32
4832.00,2.33
4831.00,2.33
4830.00,2.34
4829.00,2.35
4828.00,2.35
4827.00,2.35
4826.00,2.36
4825.00,2.36
4824.00,2.37
4823.00,2.37
4822.00,2.37
4821.00,2.38
4820.00,2.38
4819.00,2.38
4818.00,2.38
4817.00,2.38
4816.00,2.38
4815.00,2.39
4814.00,2.39
4813.00,2.39
4812.00,2.39
4811.00,2.39
4810.00,2.40
4809.00,2.40
4808.00,2.40
4807.00,2.40
4806.00,2.40
4805.00,2.40
4804.00,2.40
4803.00,2.39
4802.00,2.39
4801.00,2.39
4800.00,2.39
4799.00,2.39
4798.00,2.38
4797.00,2.38
4796.00,2.38
4795.00,2.38
4794.00,2.38
4793.00,2.38
4792.00,2.38
4791.00,2.38
4790.00,2.38
4789.00,2.39
4788.00,2.39
4787.00,2.39
4786.00,2.39
4785.00,2.39
4784.00,2.40
4783.00,2.40
4782.00,2.40
4781.00,2.40
4780.00,2.40
4779.00,2.40
4778.00,2.41
4777.00,2.41
4776.00,2.41
4775.00,2.42
4774.00,2.42
4773.00,2.43
4772.00,2.43
4771.00,2.44
4770.00,2.44
4769.00,2.44
4768.00,2.45
4767.00,2.45
4766.00,2.45
4765.00,2.46
4764.00,2.46
4763.00,2.46
4762.00,2.47
4761.00,2.47
4760.00,2.47
4759.00,2.47
4758.00,2.48
4757.00,2.48
4756.00,2.49
4755.00,2.49
4754.00,2.49
4753.00,2.50
4752.00,2.50
4751.00,2.51
4750.00,2.51
4749.00,2.52
4748.00,2.52
4747.00,2.53
4746.00,2.53
4745.00,2.54
4744.00,2.54
4743.00,2.55
4742.00,2.56
4741.00,2.56
4740.00,2.57
4739.00,2.57
4738.00,2.58
4737.00,2.58
4736.00,2.59
4735.00,2.59
4734.00,2.59
4733.00,2.60
4732.00,2.60
4731.00,2.60
4730.00,2.61
4729.00,2.61
4728.00,2.62
4727.00,2.62
4726.00,2.62
4725.00,2.63
4724.00,2.63
4723.00,2.64
4722.00,2.64
4721.00,2.65
4720.00,2.65
4719.00,2.65
4718.00,2.66
4717.00,2.66
4716.00,2.66
4715.00,2.67
4714.00,2.67
4713.00,2.68
4712.00,2.68
4711.00,2.69
4710.00,2.69
4709.00,2.70
4708.00,2.70
4707.00,2.71
4706.00,2.72
4705.00,2.72
4704.00,2.73
4703.00,2.74
4702.00,2.74
4701.00,2.75
4700.00,2.75
4699.00,2.76
4698.00,2.76
4697.00,2.77
4696.00,2.77
4695.00,2.78
4694.00,2.78
4693.00,2.78
4692.00,2.79
4691.00,2.79
4690.00,2.79
4689.00,2.80
4688.00,2.80
4687.00,2.80
4686.00,2.80
4685.00,2.80
4684.00,2.81
4683.00,2.81
4682.00,2.81
4681.00,2.81
4680.00,2.81
4679.00,2.81
4678.00,2.81
4677.00,2.81
4676.00,2.81
4675.00,2.81
4674.00,2.81
4673.00,2.81
4672.00,2.81
4671.00,2.81
4670.00,2.81
4669.00,2.81
4668.00,2.81
4667.00,2.81
4666.00,2.81
4665.00,2.81
4664.00,2.81
4663.00,2.81
4662.00,2.81
4661.00,2.82
4660.00,2.82
4659.00,2.82
4658.00,2.82
4657.00,2.83
4656.00,2.83
4655.00,2.83
4654.00,2.84
4653.00,2.84
4652.00,2.84
4651.00,2.84
4650.00,2.85
4649.00,2.85
4648.00,2.85
4647.00,2.85
4646.00,2.85
4645.00,2.85
4644.00,2.85
4643.00,2.86
4642.00,2.86
4641.00,2.86
4640.00,2.86
4639.00,2.86
4638.00,2.86
4637.00,2.86
4636.00,2.86
4635.00,2.86
4634.00,2.86
4633.00,2.86
4632.00,2.85
4631.00,2.85
4630.00,2.85
4629.00,2.85
4628.00,2.85
4627.00,2.84
4626.00,2.84
4625.00,2.84
4624.00,2.84
4623.00,2.84
4622.00,2.84
4621.00,2.84
4620.00,2.84
4619.00,2.84
4618.00,2.84
4617.00,2.84
4616.00,2.84
4615.00,2.84
4614.00,2.84
4613.00,2.84
4612.00,2.84
4611.00,2.84
4610.00,2.84
4609.00,2.84
4608.00,2.84
4607.00,2.83
4606.00,2.83
4605.00,2.83
4604.00,2.83
4603.00,2.83
4602.00,2.82
4601.00,2.82
4600.00,2.82
4599.00,2.82
4598.00,2.82
4597.00,2.81
4596.00,2.81
4595.00,2.81
4594.00,2.81
4593.00,2.80
4592.00,2.80
4591.00,2.80
4590.00,2.80
4589.00,2.79
4588.00,2.79
4587.00,2.79
4586.00,2.79
4585.00,2.79
4584.00,2.79
4583.00,2.79
4582.00,2.79
4581.00,2.79
4580.00,2.79
4579.00,2.79
4578.00,2.80
4577.00,2.80
4576.00,2.80
4575.00,2.81
4574.00,2.81
4573.00,2.81
4572.00,2.82
4571.00,2.82
4570.00,2.82
4569.00,2.83
4568.00,2.83
4567.00,2.84
4566.00,2.84
4565.00,2.85
4564.00,2.85
4563.00,2.86
4562.00,2.86
4561.00,2.87
4560.00,2.88
4559.00,2.88
4558.00,2.89
4557.00,2.89
4556.00,2.89
4555.00,2.90
4554.00,2.90
4553.00,2.90
4552.00,2.91
4551.00,2.91
4550.00,2.91
4549.00,2.92
4548.00,2.92
4547.00,2.92
4546.00,2.92
4545.00,2.92
4544.00,2.92
4543.00,2.92
4542.00,2.92
4541.00,2.92
4540.00,2.92
4539.00,2.92
4538.00,2.92
4537.00,2.92
4536.00,2.91
4535.00,2.91
4534.00,2.91
4533.00,2.91
4532.00,2.91
4531.00,2.91
4530.00,2.91
4529.00,2.91
4528.00,2.91
4527.00,2.91
4526.00,2.90
4525.00,2.90
4524.00,2.90
4523.00,2.90
4522.00,2.90
4521.00,2.90
4520.00,2.91
4519.00,2.91
4518.00,2.91
4517.00,2.91
4516.00,2.91
4515.00,2.91
4514.00,2.91
4513.00,2.91
4512.00,2.91
4511.00,2.91
4510.00,2.91
4509.00,2.91
4508.00,2.91
4507.00,2.91
4506.00,2.91
4505.00,2.90
4504.00,2.90
4503.00,2.90
4502.00,2.90
4501.00,2.90
4500.00,2.89
4499.00,2.89
4498.00,2.89
4497.00,2.88
4496.00,2.88
4495.00,2.88
4494.00,2.87
4493.00,2.87
4492.00,2.86
4491.00,2.86
4490.00,2.85
4489.00,2.85
4488.00,2.84
4487.00,2.84
4486.00,2.84
4485.00,2.83
4484.00,2.83
4483.00,2.82
4482.00,2.82
4481.00,2.82
4480.00,2.81
4479.00,2.81
4478.00,2.81
4477.00,2.80
4476.00,2.80
4475.00,2.80
4474.00,2.80
4473.00,2.79
4472.00,2.79
4471.00,2.79
4470.00,2.79
4469.00,2.79
4468.00,2.79
4467.00,2.79
4466.00,2.78
4465.00,2.78
4464.00,2.78
4463.00,2.78
4462.00,2.78
4461.00,2.78
4460.00,2.78
4459.00,2.79
4458.00,2.79
4457.00,2.79
4456.00,2.79
4455.00,2.79
4454.00,2.78
4453.00,2.78
4452.00,2.78
4451.00,2.78
4450.00,2.77
4449.00,2.77
4448.00,2.77
4447.00,2.76
4446.00,2.76
4445.00,2.75
4444.00,2.74
4443.00,2.74
4442.00,2.73
4441.00,2.72
4440.00,2.72
4439.00,2.71
4438.00,2.70
4437.00,2.69
4436.00,2.68
4435.00,2.67
4434.00,2.66
4433.00,2.65
4432.00,2.64
4431.00,2.63
4430.00,2.62
4429.00,2.61
4428.00,2.60
4427.00,2.59
4426.00,2.58
4425.00,2.57
4424.00,2.56
4423.00,2.55
4422.00,2.54
4421.00,2.54
4420.00,2.53
4419.00,2.52
4418.00,2.51
4417.00,2.51
4416.00,2.50
4415.00,2.50
4414.00,2.49
4413.00,2.49
4412.00,2.48
4411.00,2.48
4410.00,2.47
4409.00,2.47
4408.00,2.47
4407.00,2.47
4406.00,2.47
4405.00,2.47
4404.00,2.47
4403.00,2.47
4402.00,2.47
4401.00,2.48
4400.00,2.48
4399.00,2.49
4398.00,2.49
4397.00,2.50
4396.00,2.50
4395.00,2.51
4394.00,2.52
4393.00,2.52
4392.00,2.53
4391.00,2.54
4390.00,2.54
4389.00,2.55
4388.00,2.56
4387.00,2.57
4386.00,2.58
4385.00,2.59
4384.00,2.59
4383.00,2.60
4382.00,2.61
4381.00,2.61
4380.00,2.62
4379.00,2.63
4378.00,2.63
4377.00,2.64
4376.00,2.64
4375.00,2.65
4374.00,2.65
4373.00,2.66
4372.00,2.66
4371.00,2.66
4370.00,2.66
4369.00,2.66
4368.00,2.66
4367.00,2.66
4366.00,2.66
4365.00,2.66
4364.00,2.66
4363.00,2.66
4362.00,2.65
4361.00,2.65
4360.00,2.64
4359.00,2.64
4358.00,2.63
4357.00,2.63
4356.00,2.62
4355.00,2.62
4354.00,2.61
4353.00,2.60
4352.00,2.60
4351.00,2.59
4350.00,2.58
4349.00,2.58
4348.00,2.57
4347.00,2.57
4346.00,2.56
4345.00,2.56
4344.00,2.55
4343.00,2.55
4342.00,2.55
4341.00,2.55
4340.00,2.55
4339.00,2.55
4338.00,2.55
4337.00,2.55
4336.00,2.55
4335.00,2.55
4334.00,2.55
4333.00,2.56
4332.00,2.56
4331.00,2.57
4330.00,2.57
4329.00,2.58
4328.00,2.58
4327.00,2.59
4326.00,2.59
4325.00,2.60
4324.00,2.61
4323.00,2.61
4322.00,2.62
4321.00,2.62
4320.00,2.63
4319.00,2.63
4318.00,2.64
4317.00,2.64
4316.00,2.65
4315.00,2.65
4314.00,2.66
4313.00,2.66
4312.00,2.66
4311.00,2.67
4310.00,2.67
4309.00,2.68
4308.00,2.68
4307.00,2.68
4306.00,2.69
4305.00,2.69
4304.00,2.70
4303.00,2.70
4302.00,2.71
4301.00,2.72
4300.00,2.72
4299.00,2.73
4298.00,2.74
4297.00,2.74
4296.00,2.75
4295.00,2.76
4294.00,2.77
4293.00,2.78
4292.00,2.78
4291.00,2.79
4290.00,2.80
4289.00,2.81
4288.00,2.82
4287.00,2.82
4286.00,2.83
4285.00,2.84
4284.00,2.85
4283.00,2.85
4282.00,2.86
4281.00,2.87
4280.00,2.87
4279.00,2.88
4278.00,2.88
4277.00,2.89
4276.00,2.89
4275.00,2.89
4274.00,2.89
4273.00,2.89
4272.00,2.89
4271.00,2.89
4270.00,2.89
4269.00,2.88
4268.00,2.88
4267.00,2.87
4266.00,2.87
4265.00,2.86
4264.00,2.85
4263.00,2.85
4262.00,2.84
4261.00,2.83
4260.00,2.83
4259.00,2.82
4258.00,2.81
4257.00,2.81
4256.00,2.80
4255.00,2.79
4254.00,2.78
4253.00,2.77
4252.00,2.76
4251.00,2.75
4250.00,2.74
4249.00,2.73
4248.00,2.72
4247.00,2.71
4246.00,2.71
4245.00,2.70
4244.00,2.69
4243.00,2.69
4242.00,2.69
4241.00,2.68
4240.00,2.68
4239.00,2.68
4238.00,2.68
4237.00,2.68
4236.00,2.68
4235.00,2.68
4234.00,2.67
4233.00,2.67
4232.00,2.67
4231.00,2.67
4230.00,2.67
4229.00,2.67
4228.00,2.68
4227.00,2.68
4226.00,2.68
4225.00,2.68
4224.00,2.68
4223.00,2.69
4222.00,2.69
4221.00,2.70
4220.00,2.70
4219.00,2.71
4218.00,2.71
4217.00,2.71
4216.00,2.72
4215.00,2.72
4214.00,2.73
4213.00,2.73
4212.00,2.73
4211.00,2.74
4210.00,2.74
4209.00,2.74
4208.00,2.75
4207.00,2.75
4206.00,2.75
4205.00,2.76
4204.00,2.76
4203.00,2.77
4202.00,2.77
4201.00,2.78
4200.00,2.79
4199.00,2.79
4198.00,2.80
4197.00,2.80
4196.00,2.81
4195.00,2.81
4194.00,2.82
4193.00,2.82
4192.00,2.83
4191.00,2.83
4190.00,2.83
4189.00,2.84
4188.00,2.84
4187.00,2.84
4186.00,2.85
4185.00,2.85
4184.00,2.85
4183.00,2.85
4182.00,2.85
4181.00,2.85
4180.00,2.85
4179.00,2.85
4178.00,2.85
4177.00,2.85
4176.00,2.85
4175.00,2.85
4174.00,2.85
4173.00,2.85
4172.00,2.84
4171.00,2.84
4170.00,2.84
4169.00,2.84
4168.00,2.83
4167.00,2.83
4166.00,2.83
4165.00,2.83
4164.00,2.82
4163.00,2.82
4162.00,2.82
4161.00,2.81
4160.00,2.81
4159.00,2.80
4158.00,2.80
4157.00,2.79
4156.00,2.79
4155.00,2.79
4154.00,2.78
4153.00,2.78
4152.00,2.78
4151.00,2.77
4150.00,2.77
4149.00,2.77
4148.00,2.77
4147.00,2.76
4146.00,2.76
4145.00,2.76
4144.00,2.76
4143.00,2.76
4142.00,2.76
4141.00,2.75
4140.00,2.75
4139.00,2.75
4138.00,2.75
4137.00,2.75
4136.00,2.75
4135.00,2.75
4134.00,2.76
4133.00,2.76
4132.00,2.76
4131.00,2.76
4130.00,2.77
4129.00,2.77
4128.00,2.77
4127.00,2.77
4126.00,2.77
4125.00,2.77
4124.00,2.77
4123.00,2.78
4122.00,2.78
4121.00,2.78
4120.00,2.78
4119.00,2.78
4118.00,2.77
4117.00,2.77
4116.00,2.77
4115.00,2.77
4114.00,2.77
4113.00,2.77
4112.00,2.77
4111.00,2.77
4110.00,2.77
4109.00,2.77
4108.00,2.76
4107.00,2.76
4106.00,2.76
4105.00,2.76
4104.00,2.76
4103.00,2.76
4102.00,2.76
4101.00,2.76
4100.00,2.76
4099.00,2.76
4098.00,2.76
4097.00,2.76
4096.00,2.76
4095.00,2.76
4094.00,2.76
4093.00,2.76
4092.00,2.76
4091.00,2.77
4090.00,2.77
4089.00,2.77
4088.00,2.77
4087.00,2.77
4086.00,2.77
4085.00,2.77
4084.00,2.77
4083.00,2.77
4082.00,2.77
4081.00,2.77
4080.00,2.77
4079.00,2.76
4078.00,2.76
4077.00,2.76
4076.00,2.76
4075.00,2.75
4074.00,2.75
4073.00,2.75
4072.00,2.75
4071.00,2.74
4070.00,2.74
4069.00,2.74
4068.00,2.74
4067.00,2.73
4066.00,2.73
4065.00,2.73
4064.00,2.73
4063.00,2.73
4062.00,2.72
4061.00,2.72
4060.00,2.72
4059.00,2.73
4058.00,2.73
4057.00,2.73
4056.00,2.74
4055.00,2.74
4054.00,2.75
4053.00,2.75
4052.00,2.75
4051.00,2.76
4050.00,2.76
4049.00,2.76
4048.00,2.76
4047.00,2.77
4046.00,2.77
4045.00,2.77
4044.00,2.77
4043.00,2.77
4042.00,2.77
4041.00,2.77
4040.00,2.78
4039.00,2.78
4038.00,2.78
4037.00,2.79
4036.00,2.79
4035.00,2.79
4034.00,2.80
4033.00,2.80
4032.00,2.80
4031.00,2.80
4030.00,2.80
4029.00,2.81
4028.00,2.81
4027.00,2.81
4026.00,2.82
4025.00,2.82
4024.00,2.83
4023.00,2.84
4022.00,2.84
4021.00,2.85
4020.00,2.86
4019.00,2.87
4018.00,2.88
4017.00,2.88
4016.00,2.89
4015.00,2.90
4014.00,2.91
4013.00,2.91
4012.00,2.92
4011.00,2.92
4010.00,2.93
4009.00,2.93
4008.00,2.93
4007.00,2.94
4006.00,2.94
4005.00,2.94
4004.00,2.94
4003.00,2.94
4002.00,2.95
4001.00,2.95
4000.00,2.95
