创建为新数据集,样品 1068 用户 Administrator 日期 星期二, 七月 30 2019
cm-1,%T
10000.00,1.94
9999.00,2.00
9998.00,2.06
9997.00,2.12
9996.00,2.17
9995.00,2.23
9994.00,2.28
9993.00,2.33
9992.00,2.37
9991.00,2.41
9990.00,2.45
9989.00,2.48
9988.00,2.51
9987.00,2.54
9986.00,2.57
9985.00,2.59
9984.00,2.62
9983.00,2.64
9982.00,2.65
9981.00,2.67
9980.00,2.68
9979.00,2.68
9978.00,2.68
9977.00,2.68
9976.00,2.67
9975.00,2.66
9974.00,2.65
9973.00,2.64
9972.00,2.63
9971.00,2.62
9970.00,2.60
9969.00,2.59
9968.00,2.58
9967.00,2.57
9966.00,2.56
9965.00,2.54
9964.00,2.53
9963.00,2.52
9962.00,2.51
9961.00,2.50
9960.00,2.49
9959.00,2.48
9958.00,2.47
9957.00,2.47
9956.00,2.46
9955.00,2.46
9954.00,2.46
9953.00,2.46
9952.00,2.46
9951.00,2.47
9950.00,2.47
9949.00,2.48
9948.00,2.49
9947.00,2.50
9946.00,2.51
9945.00,2.53
9944.00,2.54
9943.00,2.55
9942.00,2.56
9941.00,2.56
9940.00,2.57
9939.00,2.58
9938.00,2.58
9937.00,2.59
9936.00,2.59
9935.00,2.60
9934.00,2.60
9933.00,2.60
9932.00,2.61
9931.00,2.61
9930.00,2.61
9929.00,2.61
9928.00,2.61
9927.00,2.60
9926.00,2.59
9925.00,2.58
9924.00,2.57
9923.00,2.55
9922.00,2.52
9921.00,2.50
9920.00,2.47
9919.00,2.45
9918.00,2.42
9917.00,2.39
9916.00,2.36
9915.00,2.33
9914.00,2.31
9913.00,2.29
9912.00,2.27
9911.00,2.25
9910.00,2.23
9909.00,2.21
9908.00,2.20
9907.00,2.18
9906.00,2.16
9905.00,2.15
9904.00,2.13
9903.00,2.11
9902.00,2.09
9901.00,2.08
9900.00,2.06
9899.00,2.05
9898.00,2.04
9897.00,2.04
9896.00,2.03
9895.00,2.03
9894.00,2.03
9893.00,2.03
9892.00,2.03
9891.00,2.04
9890.00,2.04
9889.00,2.03
9888.00,2.03
9887.00,2.03
9886.00,2.02
9885.00,2.01
9884.00,2.00
9883.00,1.99
9882.00,1.98
9881.00,1.97
9880.00,1.96
9879.00,1.94
9878.00,1.94
9877.00,1.93
9876.00,1.92
9875.00,1.91
9874.00,1.91
9873.00,1.90
9872.00,1.90
9871.00,1.89
9870.00,1.89
9869.00,1.88
9868.00,1.88
9867.00,1.87
9866.00,1.87
9865.00,1.87
9864.00,1.87
9863.00,1.88
9862.00,1.88
9861.00,1.89
9860.00,1.89
9859.00,1.90
9858.00,1.91
9857.00,1.92
9856.00,1.93
9855.00,1.94
9854.00,1.94
9853.00,1.95
9852.00,1.96
9851.00,1.96
9850.00,1.97
9849.00,1.97
9848.00,1.97
9847.00,1.97
9846.00,1.97
9845.00,1.97
9844.00,1.96
9843.00,1.95
9842.00,1.95
9841.00,1.94
9840.00,1.94
9839.00,1.93
9838.00,1.92
9837.00,1.92
9836.00,1.92
9835.00,1.91
9834.00,1.91
9833.00,1.91
9832.00,1.92
9831.00,1.92
9830.00,1.92
9829.00,1.93
9828.00,1.93
9827.00,1.94
9826.00,1.94
9825.00,1.95
9824.00,1.96
9823.00,1.96
9822.00,1.97
9821.00,1.98
9820.00,1.99
9819.00,2.00
9818.00,2.01
9817.00,2.02
9816.00,2.04
9815.00,2.05
9814.00,2.06
9813.00,2.07
9812.00,2.08
9811.00,2.09
9810.00,2.10
9809.00,2.10
9808.00,2.10
9807.00,2.10
9806.00,2.10
9805.00,2.10
9804.00,2.10
9803.00,2.10
9802.00,2.09
9801.00,2.09
9800.00,2.08
9799.00,2.08
9798.00,2.08
9797.00,2.08
9796.00,2.07
9795.00,2.07
9794.00,2.06
9793.00,2.06
9792.00,2.05
9791.00,2.05
9790.00,2.05
9789.00,2.04
9788.00,2.04
9787.00,2.04
9786.00,2.04
9785.00,2.05
9784.00,2.05
9783.00,2.06
9782.00,2.06
9781.00,2.06
9780.00,2.07
9779.00,2.07
9778.00,2.08
9777.00,2.08
9776.00,2.08
9775.00,2.08
9774.00,2.09
9773.00,2.09
9772.00,2.09
9771.00,2.10
9770.00,2.11
9769.00,2.11
9768.00,2.12
9767.00,2.13
9766.00,2.13
9765.00,2.13
9764.00,2.13
9763.00,2.13
9762.00,2.13
9761.00,2.12
9760.00,2.11
9759.00,2.10
9758.00,2.09
9757.00,2.08
9756.00,2.07
9755.00,2.06
9754.00,2.05
9753.00,2.04
9752.00,2.03
9751.00,2.02
9750.00,2.01
9749.00,2.00
9748.00,2.00
9747.00,1.99
9746.00,1.99
9745.00,1.99
9744.00,1.99
9743.00,1.99
9742.00,2.00
9741.00,2.00
9740.00,2.01
9739.00,2.02
9738.00,2.04
9737.00,2.05
9736.00,2.07
9735.00,2.10
9734.00,2.12
9733.00,2.15
9732.00,2.18
9731.00,2.21
9730.00,2.24
9729.00,2.27
9728.00,2.29
9727.00,2.32
9726.00,2.34
9725.00,2.37
9724.00,2.39
9723.00,2.41
9722.00,2.42
9721.00,2.43
9720.00,2.44
9719.00,2.45
9718.00,2.45
9717.00,2.45
9716.00,2.45
9715.00,2.45
9714.00,2.44
9713.00,2.43
9712.00,2.42
9711.00,2.40
9710.00,2.39
9709.00,2.36
9708.00,2.34
9707.00,2.31
9706.00,2.28
9705.00,2.24
9704.00,2.21
9703.00,2.18
9702.00,2.15
9701.00,2.12
9700.00,2.09
9699.00,2.07
9698.00,2.04
9697.00,2.02
9696.00,2.01
9695.00,1.99
9694.00,1.98
9693.00,1.97
9692.00,1.96
9691.00,1.94
9690.00,1.93
9689.00,1.92
9688.00,1.91
9687.00,1.90
9686.00,1.89
9685.00,1.88
9684.00,1.88
9683.00,1.88
9682.00,1.88
9681.00,1.88
9680.00,1.89
9679.00,1.90
9678.00,1.91
9677.00,1.92
9676.00,1.93
9675.00,1.94
9674.00,1.95
9673.00,1.95
9672.00,1.96
9671.00,1.96
9670.00,1.95
9669.00,1.95
9668.00,1.94
9667.00,1.94
9666.00,1.93
9665.00,1.93
9664.00,1.93
9663.00,1.93
9662.00,1.93
9661.00,1.93
9660.00,1.93
9659.00,1.93
9658.00,1.93
9657.00,1.93
9656.00,1.93
9655.00,1.92
9654.00,1.91
9653.00,1.91
9652.00,1.89
9651.00,1.88
9650.00,1.87
9649.00,1.86
9648.00,1.86
9647.00,1.85
9646.00,1.85
9645.00,1.85
9644.00,1.85
9643.00,1.85
9642.00,1.86
9641.00,1.86
9640.00,1.87
9639.00,1.88
9638.00,1.89
9637.00,1.89
9636.00,1.90
9635.00,1.90
9634.00,1.91
9633.00,1.91
9632.00,1.91
9631.00,1.91
9630.00,1.91
9629.00,1.92
9628.00,1.92
9627.00,1.92
9626.00,1.93
9625.00,1.93
9624.00,1.94
9623.00,1.94
9622.00,1.95
9621.00,1.96
9620.00,1.97
9619.00,1.98
9618.00,1.99
9617.00,2.00
9616.00,2.01
9615.00,2.03
9614.00,2.04
9613.00,2.05
9612.00,2.06
9611.00,2.07
9610.00,2.08
9609.00,2.09
9608.00,2.10
9607.00,2.12
9606.00,2.13
9605.00,2.14
9604.00,2.16
9603.00,2.17
9602.00,2.19
9601.00,2.21
9600.00,2.23
9599.00,2.24
9598.00,2.26
9597.00,2.27
9596.00,2.28
9595.00,2.29
9594.00,2.30
9593.00,2.31
9592.00,2.31
9591.00,2.31
9590.00,2.31
9589.00,2.31
9588.00,2.30
9587.00,2.30
9586.00,2.29
9585.00,2.29
9584.00,2.28
9583.00,2.28
9582.00,2.27
9581.00,2.27
9580.00,2.26
9579.00,2.26
9578.00,2.25
9577.00,2.24
9576.00,2.23
9575.00,2.22
9574.00,2.20
9573.00,2.19
9572.00,2.17
9571.00,2.15
9570.00,2.13
9569.00,2.11
9568.00,2.09
9567.00,2.07
9566.00,2.05
9565.00,2.02
9564.00,2.00
9563.00,1.98
9562.00,1.96
9561.00,1.93
9560.00,1.91
9559.00,1.89
9558.00,1.87
9557.00,1.86
9556.00,1.84
9555.00,1.82
9554.00,1.81
9553.00,1.80
9552.00,1.78
9551.00,1.77
9550.00,1.77
9549.00,1.76
9548.00,1.76
9547.00,1.76
9546.00,1.76
9545.00,1.77
9544.00,1.78
9543.00,1.79
9542.00,1.81
9541.00,1.82
9540.00,1.84
9539.00,1.86
9538.00,1.88
9537.00,1.90
9536.00,1.93
9535.00,1.95
9534.00,1.97
9533.00,2.00
9532.00,2.02
9531.00,2.04
9530.00,2.06
9529.00,2.09
9528.00,2.10
9527.00,2.12
9526.00,2.14
9525.00,2.15
9524.00,2.16
9523.00,2.17
9522.00,2.17
9521.00,2.18
9520.00,2.18
9519.00,2.17
9518.00,2.17
9517.00,2.17
9516.00,2.16
9515.00,2.15
9514.00,2.14
9513.00,2.13
9512.00,2.12
9511.00,2.10
9510.00,2.09
9509.00,2.07
9508.00,2.05
9507.00,2.03
9506.00,2.00
9505.00,1.97
9504.00,1.95
9503.00,1.92
9502.00,1.89
9501.00,1.86
9500.00,1.83
9499.00,1.80
9498.00,1.78
9497.00,1.76
9496.00,1.74
9495.00,1.72
9494.00,1.70
9493.00,1.69
9492.00,1.68
9491.00,1.66
9490.00,1.66
9489.00,1.65
9488.00,1.64
9487.00,1.64
9486.00,1.64
9485.00,1.64
9484.00,1.65
9483.00,1.66
9482.00,1.67
9481.00,1.69
9480.00,1.71
9479.00,1.73
9478.00,1.75
9477.00,1.78
9476.00,1.80
9475.00,1.83
9474.00,1.86
9473.00,1.88
9472.00,1.90
9471.00,1.92
9470.00,1.93
9469.00,1.95
9468.00,1.96
9467.00,1.98
9466.00,1.99
9465.00,2.00
9464.00,2.01
9463.00,2.02
9462.00,2.03
9461.00,2.04
9460.00,2.05
9459.00,2.05
9458.00,2.06
9457.00,2.06
9456.00,2.06
9455.00,2.06
9454.00,2.05
9453.00,2.05
9452.00,2.05
9451.00,2.04
9450.00,2.04
9449.00,2.04
9448.00,2.05
9447.00,2.05
9446.00,2.06
9445.00,2.07
9444.00,2.08
9443.00,2.09
9442.00,2.10
9441.00,2.11
9440.00,2.12
9439.00,2.13
9438.00,2.13
9437.00,2.14
9436.00,2.15
9435.00,2.15
9434.00,2.15
9433.00,2.15
9432.00,2.15
9431.00,2.15
9430.00,2.15
9429.00,2.14
9428.00,2.13
9427.00,2.13
9426.00,2.12
9425.00,2.11
9424.00,2.10
9423.00,2.10
9422.00,2.09
9421.00,2.08
9420.00,2.07
9419.00,2.06
9418.00,2.05
9417.00,2.04
9416.00,2.03
9415.00,2.02
9414.00,2.01
9413.00,2.01
9412.00,2.00
9411.00,1.99
9410.00,1.99
9409.00,1.99
9408.00,1.98
9407.00,1.98
9406.00,1.98
9405.00,1.98
9404.00,1.99
9403.00,1.99
9402.00,2.00
9401.00,2.01
9400.00,2.02
9399.00,2.02
9398.00,2.03
9397.00,2.03
9396.00,2.03
9395.00,2.03
9394.00,2.03
9393.00,2.03
9392.00,2.02
9391.00,2.02
9390.00,2.01
9389.00,2.01
9388.00,2.00
9387.00,2.00
9386.00,1.99
9385.00,1.99
9384.00,1.98
9383.00,1.98
9382.00,1.98
9381.00,1.98
9380.00,1.98
9379.00,1.98
9378.00,1.97
9377.00,1.97
9376.00,1.96
9375.00,1.95
9374.00,1.94
9373.00,1.93
9372.00,1.92
9371.00,1.91
9370.00,1.90
9369.00,1.89
9368.00,1.89
9367.00,1.88
9366.00,1.88
9365.00,1.87
9364.00,1.87
9363.00,1.87
9362.00,1.87
9361.00,1.86
9360.00,1.86
9359.00,1.86
9358.00,1.86
9357.00,1.86
9356.00,1.86
9355.00,1.86
9354.00,1.86
9353.00,1.86
9352.00,1.87
9351.00,1.88
9350.00,1.89
9349.00,1.90
9348.00,1.91
9347.00,1.93
9346.00,1.94
9345.00,1.96
9344.00,1.98
9343.00,2.00
9342.00,2.01
9341.00,2.03
9340.00,2.05
9339.00,2.08
9338.00,2.10
9337.00,2.12
9336.00,2.14
9335.00,2.16
9334.00,2.18
9333.00,2.19
9332.00,2.21
9331.00,2.22
9330.00,2.24
9329.00,2.25
9328.00,2.25
9327.00,2.26
9326.00,2.26
9325.00,2.26
9324.00,2.26
9323.00,2.26
9322.00,2.26
9321.00,2.26
9320.00,2.25
9319.00,2.25
9318.00,2.24
9317.00,2.24
9316.00,2.23
9315.00,2.22
9314.00,2.21
9313.00,2.20
9312.00,2.18
9311.00,2.17
9310.00,2.15
9309.00,2.12
9308.00,2.10
9307.00,2.07
9306.00,2.04
9305.00,2.02
9304.00,1.99
9303.00,1.97
9302.00,1.95
9301.00,1.93
9300.00,1.91
9299.00,1.89
9298.00,1.88
9297.00,1.87
9296.00,1.86
9295.00,1.85
9294.00,1.84
9293.00,1.83
9292.00,1.83
9291.00,1.82
9290.00,1.81
9289.00,1.81
9288.00,1.80
9287.00,1.80
9286.00,1.80
9285.00,1.81
9284.00,1.82
9283.00,1.83
9282.00,1.84
9281.00,1.86
9280.00,1.88
9279.00,1.91
9278.00,1.93
9277.00,1.96
9276.00,1.98
9275.00,2.01
9274.00,2.03
9273.00,2.05
9272.00,2.07
9271.00,2.08
9270.00,2.09
9269.00,2.10
9268.00,2.11
9267.00,2.11
9266.00,2.12
9265.00,2.12
9264.00,2.12
9263.00,2.12
9262.00,2.12
9261.00,2.12
9260.00,2.12
9259.00,2.12
9258.00,2.11
9257.00,2.11
9256.00,2.10
9255.00,2.10
9254.00,2.09
9253.00,2.08
9252.00,2.07
9251.00,2.06
9250.00,2.05
9249.00,2.04
9248.00,2.03
9247.00,2.03
9246.00,2.02
9245.00,2.01
9244.00,2.01
9243.00,2.01
9242.00,2.01
9241.00,2.02
9240.00,2.03
9239.00,2.04
9238.00,2.05
9237.00,2.07
9236.00,2.08
9235.00,2.09
9234.00,2.11
9233.00,2.12
9232.00,2.14
9231.00,2.15
9230.00,2.16
9229.00,2.17
9228.00,2.18
9227.00,2.19
9226.00,2.20
9225.00,2.21
9224.00,2.21
9223.00,2.22
9222.00,2.22
9221.00,2.23
9220.00,2.24
9219.00,2.25
9218.00,2.25
9217.00,2.26
9216.00,2.27
9215.00,2.28
9214.00,2.28
9213.00,2.29
9212.00,2.29
9211.00,2.29
9210.00,2.29
9209.00,2.29
9208.00,2.29
9207.00,2.29
9206.00,2.29
9205.00,2.28
9204.00,2.28
9203.00,2.28
9202.00,2.28
9201.00,2.28
9200.00,2.28
9199.00,2.27
9198.00,2.27
9197.00,2.27
9196.00,2.26
9195.00,2.25
9194.00,2.24
9193.00,2.23
9192.00,2.22
9191.00,2.20
9190.00,2.19
9189.00,2.17
9188.00,2.15
9187.00,2.13
9186.00,2.11
9185.00,2.09
9184.00,2.08
9183.00,2.06
9182.00,2.04
9181.00,2.03
9180.00,2.01
9179.00,2.00
9178.00,1.99
9177.00,1.98
9176.00,1.97
9175.00,1.96
9174.00,1.95
9173.00,1.95
9172.00,1.94
9171.00,1.94
9170.00,1.94
9169.00,1.94
9168.00,1.94
9167.00,1.94
9166.00,1.95
9165.00,1.95
9164.00,1.96
9163.00,1.97
9162.00,1.98
9161.00,1.99
9160.00,2.00
9159.00,2.01
9158.00,2.02
9157.00,2.04
9156.00,2.05
9155.00,2.06
9154.00,2.06
9153.00,2.07
9152.00,2.08
9151.00,2.09
9150.00,2.09
9149.00,2.10
9148.00,2.11
9147.00,2.12
9146.00,2.13
9145.00,2.14
9144.00,2.15
9143.00,2.16
9142.00,2.17
9141.00,2.17
9140.00,2.18
9139.00,2.19
9138.00,2.20
9137.00,2.21
9136.00,2.22
9135.00,2.22
9134.00,2.23
9133.00,2.23
9132.00,2.24
9131.00,2.25
9130.00,2.25
9129.00,2.26
9128.00,2.28
9127.00,2.29
9126.00,2.31
9125.00,2.32
9124.00,2.34
9123.00,2.36
9122.00,2.38
9121.00,2.40
9120.00,2.42
9119.00,2.44
9118.00,2.46
9117.00,2.48
9116.00,2.50
9115.00,2.52
9114.00,2.54
9113.00,2.56
9112.00,2.57
9111.00,2.59
9110.00,2.60
9109.00,2.61
9108.00,2.63
9107.00,2.64
9106.00,2.65
9105.00,2.66
9104.00,2.67
9103.00,2.68
9102.00,2.69
9101.00,2.70
9100.00,2.70
9099.00,2.70
9098.00,2.70
9097.00,2.69
9096.00,2.68
9095.00,2.67
9094.00,2.65
9093.00,2.63
9092.00,2.61
9091.00,2.58
9090.00,2.55
9089.00,2.52
9088.00,2.49
9087.00,2.45
9086.00,2.42
9085.00,2.39
9084.00,2.36
9083.00,2.34
9082.00,2.32
9081.00,2.30
9080.00,2.28
9079.00,2.26
9078.00,2.25
9077.00,2.23
9076.00,2.21
9075.00,2.19
9074.00,2.18
9073.00,2.16
9072.00,2.14
9071.00,2.13
9070.00,2.12
9069.00,2.11
9068.00,2.10
9067.00,2.11
9066.00,2.11
9065.00,2.12
9064.00,2.14
9063.00,2.16
9062.00,2.18
9061.00,2.21
9060.00,2.23
9059.00,2.26
9058.00,2.28
9057.00,2.30
9056.00,2.32
9055.00,2.33
9054.00,2.34
9053.00,2.35
9052.00,2.35
9051.00,2.35
9050.00,2.35
9049.00,2.35
9048.00,2.36
9047.00,2.36
9046.00,2.36
9045.00,2.37
9044.00,2.37
9043.00,2.37
9042.00,2.37
9041.00,2.37
9040.00,2.37
9039.00,2.36
9038.00,2.35
9037.00,2.33
9036.00,2.31
9035.00,2.29
9034.00,2.26
9033.00,2.23
9032.00,2.21
9031.00,2.18
9030.00,2.16
9029.00,2.15
9028.00,2.13
9027.00,2.12
9026.00,2.11
9025.00,2.10
9024.00,2.10
9023.00,2.10
9022.00,2.09
9021.00,2.09
9020.00,2.09
9019.00,2.09
9018.00,2.08
9017.00,2.08
9016.00,2.08
9015.00,2.08
9014.00,2.08
9013.00,2.09
9012.00,2.09
9011.00,2.10
9010.00,2.10
9009.00,2.12
9008.00,2.13
9007.00,2.14
9006.00,2.16
9005.00,2.18
9004.00,2.19
9003.00,2.21
9002.00,2.23
9001.00,2.25
9000.00,2.26
8999.00,2.28
8998.00,2.29
8997.00,2.31
8996.00,2.32
8995.00,2.33
8994.00,2.35
8993.00,2.36
8992.00,2.37
8991.00,2.38
8990.00,2.39
8989.00,2.40
8988.00,2.41
8987.00,2.41
8986.00,2.42
8985.00,2.43
8984.00,2.44
8983.00,2.45
8982.00,2.45
8981.00,2.46
8980.00,2.46
8979.00,2.46
8978.00,2.46
8977.00,2.45
8976.00,2.45
8975.00,2.44
8974.00,2.43
8973.00,2.42
8972.00,2.41
8971.00,2.39
8970.00,2.38
8969.00,2.37
8968.00,2.35
8967.00,2.34
8966.00,2.33
8965.00,2.32
8964.00,2.30
8963.00,2.29
8962.00,2.28
8961.00,2.26
8960.00,2.25
8959.00,2.24
8958.00,2.22
8957.00,2.21
8956.00,2.20
8955.00,2.19
8954.00,2.18
8953.00,2.17
8952.00,2.16
8951.00,2.15
8950.00,2.14
8949.00,2.14
8948.00,2.13
8947.00,2.13
8946.00,2.12
8945.00,2.12
8944.00,2.11
8943.00,2.11
8942.00,2.11
8941.00,2.10
8940.00,2.10
8939.00,2.09
8938.00,2.09
8937.00,2.08
8936.00,2.07
8935.00,2.07
8934.00,2.06
8933.00,2.05
8932.00,2.04
8931.00,2.03
8930.00,2.02
8929.00,2.00
8928.00,1.99
8927.00,1.98
8926.00,1.97
8925.00,1.97
8924.00,1.96
8923.00,1.96
8922.00,1.95
8921.00,1.95
8920.00,1.95
8919.00,1.96
8918.00,1.96
8917.00,1.96
8916.00,1.96
8915.00,1.96
8914.00,1.97
8913.00,1.97
8912.00,1.98
8911.00,1.98
8910.00,2.00
8909.00,2.01
8908.00,2.02
8907.00,2.04
8906.00,2.06
8905.00,2.08
8904.00,2.10
8903.00,2.13
8902.00,2.15
8901.00,2.17
8900.00,2.19
8899.00,2.21
8898.00,2.23
8897.00,2.24
8896.00,2.26
8895.00,2.26
8894.00,2.27
8893.00,2.28
8892.00,2.28
8891.00,2.29
8890.00,2.29
8889.00,2.29
8888.00,2.30
8887.00,2.30
8886.00,2.31
8885.00,2.31
8884.00,2.32
8883.00,2.32
8882.00,2.32
8881.00,2.32
8880.00,2.32
8879.00,2.32
8878.00,2.32
8877.00,2.31
8876.00,2.31
8875.00,2.30
8874.00,2.29
8873.00,2.28
8872.00,2.27
8871.00,2.26
8870.00,2.25
8869.00,2.25
8868.00,2.24
8867.00,2.24
8866.00,2.23
8865.00,2.23
8864.00,2.23
8863.00,2.23
8862.00,2.23
8861.00,2.23
8860.00,2.23
8859.00,2.22
8858.00,2.22
8857.00,2.21
8856.00,2.21
8855.00,2.20
8854.00,2.20
8853.00,2.19
8852.00,2.19
8851.00,2.18
8850.00,2.18
8849.00,2.18
8848.00,2.18
8847.00,2.19
8846.00,2.19
8845.00,2.20
8844.00,2.20
8843.00,2.21
8842.00,2.21
8841.00,2.21
8840.00,2.22
8839.00,2.22
8838.00,2.22
8837.00,2.23
8836.00,2.23
8835.00,2.23
8834.00,2.23
8833.00,2.23
8832.00,2.23
8831.00,2.23
8830.00,2.23
8829.00,2.24
8828.00,2.24
8827.00,2.23
8826.00,2.23
8825.00,2.23
8824.00,2.23
8823.00,2.22
8822.00,2.22
8821.00,2.21
8820.00,2.20
8819.00,2.19
8818.00,2.18
8817.00,2.18
8816.00,2.17
8815.00,2.16
8814.00,2.15
8813.00,2.14
8812.00,2.13
8811.00,2.13
8810.00,2.12
8809.00,2.11
8808.00,2.10
8807.00,2.09
8806.00,2.08
8805.00,2.08
8804.00,2.07
8803.00,2.07
8802.00,2.06
8801.00,2.06
8800.00,2.06
8799.00,2.06
8798.00,2.06
8797.00,2.06
8796.00,2.07
8795.00,2.07
8794.00,2.08
8793.00,2.09
8792.00,2.09
8791.00,2.10
8790.00,2.11
8789.00,2.12
8788.00,2.13
8787.00,2.14
8786.00,2.15
8785.00,2.16
8784.00,2.17
8783.00,2.18
8782.00,2.20
8781.00,2.21
8780.00,2.22
8779.00,2.23
8778.00,2.24
8777.00,2.25
8776.00,2.26
8775.00,2.26
8774.00,2.27
8773.00,2.28
8772.00,2.28
8771.00,2.28
8770.00,2.29
8769.00,2.29
8768.00,2.29
8767.00,2.29
8766.00,2.29
8765.00,2.28
8764.00,2.28
8763.00,2.28
8762.00,2.27
8761.00,2.27
8760.00,2.26
8759.00,2.26
8758.00,2.25
8757.00,2.25
8756.00,2.24
8755.00,2.24
8754.00,2.23
8753.00,2.23
8752.00,2.22
8751.00,2.22
8750.00,2.21
8749.00,2.21
8748.00,2.21
8747.00,2.21
8746.00,2.22
8745.00,2.22
8744.00,2.23
8743.00,2.23
8742.00,2.24
8741.00,2.24
8740.00,2.25
8739.00,2.26
8738.00,2.27
8737.00,2.28
8736.00,2.29
8735.00,2.30
8734.00,2.31
8733.00,2.32
8732.00,2.34
8731.00,2.35
8730.00,2.37
8729.00,2.38
8728.00,2.40
8727.00,2.41
8726.00,2.42
8725.00,2.44
8724.00,2.45
8723.00,2.45
8722.00,2.46
8721.00,2.47
8720.00,2.47
8719.00,2.47
8718.00,2.47
8717.00,2.47
8716.00,2.47
8715.00,2.47
8714.00,2.46
8713.00,2.46
8712.00,2.45
8711.00,2.45
8710.00,2.44
8709.00,2.43
8708.00,2.42
8707.00,2.41
8706.00,2.40
8705.00,2.39
8704.00,2.38
8703.00,2.37
8702.00,2.36
8701.00,2.35
8700.00,2.35
8699.00,2.34
8698.00,2.33
8697.00,2.33
8696.00,2.33
8695.00,2.32
8694.00,2.32
8693.00,2.32
8692.00,2.32
8691.00,2.32
8690.00,2.31
8689.00,2.31
8688.00,2.31
8687.00,2.31
8686.00,2.31
8685.00,2.31
8684.00,2.31
8683.00,2.31
8682.00,2.31
8681.00,2.31
8680.00,2.30
8679.00,2.30
8678.00,2.29
8677.00,2.28
8676.00,2.27
8675.00,2.26
8674.00,2.25
8673.00,2.24
8672.00,2.23
8671.00,2.23
8670.00,2.22
8669.00,2.21
8668.00,2.20
8667.00,2.19
8666.00,2.18
8665.00,2.17
8664.00,2.16
8663.00,2.16
8662.00,2.15
8661.00,2.14
8660.00,2.13
8659.00,2.12
8658.00,2.12
8657.00,2.12
8656.00,2.12
8655.00,2.12
8654.00,2.12
8653.00,2.13
8652.00,2.13
8651.00,2.14
8650.00,2.15
8649.00,2.16
8648.00,2.16
8647.00,2.17
8646.00,2.17
8645.00,2.17
8644.00,2.17
8643.00,2.17
8642.00,2.18
8641.00,2.18
8640.00,2.18
8639.00,2.18
8638.00,2.19
8637.00,2.19
8636.00,2.20
8635.00,2.21
8634.00,2.21
8633.00,2.22
8632.00,2.22
8631.00,2.22
8630.00,2.23
8629.00,2.23
8628.00,2.23
8627.00,2.23
8626.00,2.23
8625.00,2.23
8624.00,2.23
8623.00,2.23
8622.00,2.23
8621.00,2.24
8620.00,2.24
8619.00,2.25
8618.00,2.25
8617.00,2.26
8616.00,2.27
8615.00,2.28
8614.00,2.29
8613.00,2.29
8612.00,2.30
8611.00,2.31
8610.00,2.32
8609.00,2.33
8608.00,2.34
8607.00,2.34
8606.00,2.35
8605.00,2.35
8604.00,2.36
8603.00,2.36
8602.00,2.37
8601.00,2.37
8600.00,2.37
8599.00,2.37
8598.00,2.38
8597.00,2.38
8596.00,2.39
8595.00,2.39
8594.00,2.40
8593.00,2.40
8592.00,2.41
8591.00,2.41
8590.00,2.41
8589.00,2.40
8588.00,2.40
8587.00,2.39
8586.00,2.38
8585.00,2.38
8584.00,2.37
8583.00,2.36
8582.00,2.35
8581.00,2.34
8580.00,2.33
8579.00,2.32
8578.00,2.31
8577.00,2.30
8576.00,2.29
8575.00,2.28
8574.00,2.27
8573.00,2.26
8572.00,2.24
8571.00,2.23
8570.00,2.21
8569.00,2.19
8568.00,2.17
8567.00,2.15
8566.00,2.13
8565.00,2.11
8564.00,2.10
8563.00,2.08
8562.00,2.07
8561.00,2.06
8560.00,2.05
8559.00,2.04
8558.00,2.03
8557.00,2.03
8556.00,2.02
8555.00,2.02
8554.00,2.01
8553.00,2.01
8552.00,2.01
8551.00,2.02
8550.00,2.02
8549.00,2.03
8548.00,2.04
8547.00,2.05
8546.00,2.07
8545.00,2.08
8544.00,2.10
8543.00,2.11
8542.00,2.13
8541.00,2.15
8540.00,2.17
8539.00,2.19
8538.00,2.21
8537.00,2.23
8536.00,2.25
8535.00,2.27
8534.00,2.28
8533.00,2.30
8532.00,2.31
8531.00,2.33
8530.00,2.34
8529.00,2.36
8528.00,2.37
8527.00,2.37
8526.00,2.38
8525.00,2.39
8524.00,2.39
8523.00,2.39
8522.00,2.39
8521.00,2.39
8520.00,2.39
8519.00,2.38
8518.00,2.38
8517.00,2.38
8516.00,2.38
8515.00,2.38
8514.00,2.38
8513.00,2.37
8512.00,2.37
8511.00,2.37
8510.00,2.36
8509.00,2.36
8508.00,2.36
8507.00,2.36
8506.00,2.35
8505.00,2.35
8504.00,2.35
8503.00,2.35
8502.00,2.34
8501.00,2.34
8500.00,2.34
8499.00,2.34
8498.00,2.34
8497.00,2.34
8496.00,2.34
8495.00,2.34
8494.00,2.34
8493.00,2.34
8492.00,2.34
8491.00,2.33
8490.00,2.33
8489.00,2.32
8488.00,2.32
8487.00,2.31
8486.00,2.31
8485.00,2.30
8484.00,2.30
8483.00,2.29
8482.00,2.29
8481.00,2.28
8480.00,2.28
8479.00,2.28
8478.00,2.27
8477.00,2.27
8476.00,2.26
8475.00,2.26
8474.00,2.25
8473.00,2.24
8472.00,2.23
8471.00,2.22
8470.00,2.21
8469.00,2.20
8468.00,2.18
8467.00,2.17
8466.00,2.16
8465.00,2.15
8464.00,2.14
8463.00,2.13
8462.00,2.12
8461.00,2.10
8460.00,2.09
8459.00,2.08
8458.00,2.07
8457.00,2.06
8456.00,2.04
8455.00,2.03
8454.00,2.01
8453.00,2.00
8452.00,1.98
8451.00,1.97
8450.00,1.95
8449.00,1.94
8448.00,1.93
8447.00,1.92
8446.00,1.92
8445.00,1.91
8444.00,1.91
8443.00,1.92
8442.00,1.92
8441.00,1.93
8440.00,1.93
8439.00,1.94
8438.00,1.95
8437.00,1.96
8436.00,1.97
8435.00,1.99
8434.00,2.00
8433.00,2.02
8432.00,2.03
8431.00,2.05
8430.00,2.06
8429.00,2.08
8428.00,2.10
8427.00,2.12
8426.00,2.13
8425.00,2.15
8424.00,2.17
8423.00,2.18
8422.00,2.20
8421.00,2.21
8420.00,2.22
8419.00,2.23
8418.00,2.23
8417.00,2.23
8416.00,2.23
8415.00,2.23
8414.00,2.22
8413.00,2.21
8412.00,2.21
8411.00,2.19
8410.00,2.18
8409.00,2.17
8408.00,2.15
8407.00,2.13
8406.00,2.11
8405.00,2.09
8404.00,2.07
8403.00,2.05
8402.00,2.03
8401.00,2.00
8400.00,1.98
8399.00,1.96
8398.00,1.94
8397.00,1.92
8396.00,1.90
8395.00,1.89
8394.00,1.87
8393.00,1.86
8392.00,1.85
8391.00,1.84
8390.00,1.83
8389.00,1.83
8388.00,1.83
8387.00,1.83
8386.00,1.83
8385.00,1.84
8384.00,1.85
8383.00,1.85
8382.00,1.86
8381.00,1.87
8380.00,1.89
8379.00,1.90
8378.00,1.91
8377.00,1.93
8376.00,1.94
8375.00,1.96
8374.00,1.97
8373.00,1.99
8372.00,2.00
8371.00,2.02
8370.00,2.03
8369.00,2.04
8368.00,2.06
8367.00,2.07
8366.00,2.08
8365.00,2.09
8364.00,2.09
8363.00,2.10
8362.00,2.10
8361.00,2.10
8360.00,2.10
8359.00,2.10
8358.00,2.09
8357.00,2.09
8356.00,2.09
8355.00,2.08
8354.00,2.08
8353.00,2.07
8352.00,2.07
8351.00,2.06
8350.00,2.06
8349.00,2.05
8348.00,2.05
8347.00,2.04
8346.00,2.04
8345.00,2.03
8344.00,2.03
8343.00,2.03
8342.00,2.03
8341.00,2.03
8340.00,2.04
8339.00,2.04
8338.00,2.05
8337.00,2.06
8336.00,2.07
8335.00,2.08
8334.00,2.09
8333.00,2.10
8332.00,2.11
8331.00,2.12
8330.00,2.13
8329.00,2.14
8328.00,2.15
8327.00,2.16
8326.00,2.16
8325.00,2.17
8324.00,2.18
8323.00,2.19
8322.00,2.19
8321.00,2.20
8320.00,2.21
8319.00,2.21
8318.00,2.22
8317.00,2.22
8316.00,2.22
8315.00,2.22
8314.00,2.21
8313.00,2.20
8312.00,2.20
8311.00,2.18
8310.00,2.17
8309.00,2.16
8308.00,2.14
8307.00,2.13
8306.00,2.11
8305.00,2.10
8304.00,2.09
8303.00,2.07
8302.00,2.06
8301.00,2.05
8300.00,2.04
8299.00,2.02
8298.00,2.01
8297.00,2.00
8296.00,1.98
8295.00,1.97
8294.00,1.96
8293.00,1.95
8292.00,1.93
8291.00,1.92
8290.00,1.91
8289.00,1.90
8288.00,1.90
8287.00,1.89
8286.00,1.88
8285.00,1.88
8284.00,1.88
8283.00,1.88
8282.00,1.88
8281.00,1.88
8280.00,1.88
8279.00,1.88
8278.00,1.88
8277.00,1.89
8276.00,1.89
8275.00,1.89
8274.00,1.90
8273.00,1.90
8272.00,1.91
8271.00,1.91
8270.00,1.92
8269.00,1.92
8268.00,1.93
8267.00,1.94
8266.00,1.94
8265.00,1.95
8264.00,1.95
8263.00,1.96
8262.00,1.97
8261.00,1.97
8260.00,1.98
8259.00,1.99
8258.00,2.00
8257.00,2.01
8256.00,2.03
8255.00,2.04
8254.00,2.05
8253.00,2.07
8252.00,2.08
8251.00,2.10
8250.00,2.11
8249.00,2.13
8248.00,2.14
8247.00,2.16
8246.00,2.17
8245.00,2.19
8244.00,2.21
8243.00,2.22
8242.00,2.24
8241.00,2.26
8240.00,2.28
8239.00,2.29
8238.00,2.31
8237.00,2.33
8236.00,2.34
8235.00,2.35
8234.00,2.36
8233.00,2.37
8232.00,2.37
8231.00,2.38
8230.00,2.38
8229.00,2.38
8228.00,2.37
8227.00,2.37
8226.00,2.36
8225.00,2.35
8224.00,2.34
8223.00,2.33
8222.00,2.32
8221.00,2.31
8220.00,2.30
8219.00,2.30
8218.00,2.29
8217.00,2.28
8216.00,2.28
8215.00,2.28
8214.00,2.27
8213.00,2.27
8212.00,2.27
8211.00,2.27
8210.00,2.27
8209.00,2.27
8208.00,2.27
8207.00,2.28
8206.00,2.29
8205.00,2.29
8204.00,2.30
8203.00,2.32
8202.00,2.33
8201.00,2.35
8200.00,2.36
8199.00,2.38
8198.00,2.40
8197.00,2.42
8196.00,2.44
8195.00,2.46
8194.00,2.48
8193.00,2.50
8192.00,2.51
8191.00,2.53
8190.00,2.54
8189.00,2.55
8188.00,2.56
8187.00,2.56
8186.00,2.57
8185.00,2.57
8184.00,2.58
8183.00,2.58
8182.00,2.58
8181.00,2.58
8180.00,2.58
8179.00,2.57
8178.00,2.57
8177.00,2.57
8176.00,2.56
8175.00,2.55
8174.00,2.55
8173.00,2.54
8172.00,2.52
8171.00,2.51
8170.00,2.50
8169.00,2.49
8168.00,2.47
8167.00,2.46
8166.00,2.44
8165.00,2.42
8164.00,2.41
8163.00,2.39
8162.00,2.38
8161.00,2.37
8160.00,2.35
8159.00,2.34
8158.00,2.33
8157.00,2.32
8156.00,2.32
8155.00,2.31
8154.00,2.30
8153.00,2.30
8152.00,2.29
8151.00,2.29
8150.00,2.29
8149.00,2.29
8148.00,2.30
8147.00,2.30
8146.00,2.31
8145.00,2.32
8144.00,2.33
8143.00,2.34
8142.00,2.36
8141.00,2.37
8140.00,2.39
8139.00,2.40
8138.00,2.42
8137.00,2.44
8136.00,2.46
8135.00,2.48
8134.00,2.50
8133.00,2.51
8132.00,2.53
8131.00,2.54
8130.00,2.56
8129.00,2.57
8128.00,2.58
8127.00,2.59
8126.00,2.59
8125.00,2.60
8124.00,2.60
8123.00,2.61
8122.00,2.61
8121.00,2.61
8120.00,2.61
8119.00,2.60
8118.00,2.60
8117.00,2.59
8116.00,2.58
8115.00,2.57
8114.00,2.56
8113.00,2.55
8112.00,2.54
8111.00,2.52
8110.00,2.51
8109.00,2.49
8108.00,2.47
8107.00,2.46
8106.00,2.45
8105.00,2.43
8104.00,2.42
8103.00,2.41
8102.00,2.40
8101.00,2.39
8100.00,2.39
8099.00,2.38
8098.00,2.37
8097.00,2.36
8096.00,2.35
8095.00,2.34
8094.00,2.34
8093.00,2.33
8092.00,2.32
8091.00,2.31
8090.00,2.30
8089.00,2.30
8088.00,2.29
8087.00,2.29
8086.00,2.29
8085.00,2.28
8084.00,2.28
8083.00,2.28
8082.00,2.28
8081.00,2.28
8080.00,2.29
8079.00,2.29
8078.00,2.29
8077.00,2.29
8076.00,2.29
8075.00,2.29
8074.00,2.30
8073.00,2.30
8072.00,2.30
8071.00,2.30
8070.00,2.30
8069.00,2.31
8068.00,2.31
8067.00,2.32
8066.00,2.33
8065.00,2.34
8064.00,2.34
8063.00,2.35
8062.00,2.36
8061.00,2.36
8060.00,2.37
8059.00,2.37
8058.00,2.37
8057.00,2.38
8056.00,2.38
8055.00,2.38
8054.00,2.38
8053.00,2.38
8052.00,2.39
8051.00,2.39
8050.00,2.39
8049.00,2.39
8048.00,2.39
8047.00,2.40
8046.00,2.40
8045.00,2.40
8044.00,2.40
8043.00,2.40
8042.00,2.40
8041.00,2.40
8040.00,2.40
8039.00,2.40
8038.00,2.40
8037.00,2.40
8036.00,2.40
8035.00,2.40
8034.00,2.40
8033.00,2.40
8032.00,2.41
8031.00,2.41
8030.00,2.41
8029.00,2.41
8028.00,2.41
8027.00,2.41
8026.00,2.41
8025.00,2.42
8024.00,2.42
8023.00,2.42
8022.00,2.42
8021.00,2.42
8020.00,2.42
8019.00,2.42
8018.00,2.42
8017.00,2.42
8016.00,2.42
8015.00,2.42
8014.00,2.41
8013.00,2.41
8012.00,2.41
8011.00,2.41
8010.00,2.41
8009.00,2.41
8008.00,2.41
8007.00,2.41
8006.00,2.42
8005.00,2.42
8004.00,2.42
8003.00,2.42
8002.00,2.43
8001.00,2.43
8000.00,2.44
7999.00,2.44
7998.00,2.44
7997.00,2.45
7996.00,2.45
7995.00,2.45
7994.00,2.45
7993.00,2.45
7992.00,2.46
7991.00,2.46
7990.00,2.46
7989.00,2.47
7988.00,2.47
7987.00,2.48
7986.00,2.48
7985.00,2.48
7984.00,2.49
7983.00,2.49
7982.00,2.49
7981.00,2.50
7980.00,2.50
7979.00,2.49
7978.00,2.49
7977.00,2.49
7976.00,2.48
7975.00,2.48
7974.00,2.47
7973.00,2.47
7972.00,2.46
7971.00,2.45
7970.00,2.45
7969.00,2.44
7968.00,2.43
7967.00,2.42
7966.00,2.42
7965.00,2.41
7964.00,2.40
7963.00,2.38
7962.00,2.37
7961.00,2.36
7960.00,2.35
7959.00,2.33
7958.00,2.32
7957.00,2.30
7956.00,2.29
7955.00,2.28
7954.00,2.26
7953.00,2.25
7952.00,2.24
7951.00,2.23
7950.00,2.22
7949.00,2.21
7948.00,2.20
7947.00,2.19
7946.00,2.18
7945.00,2.18
7944.00,2.17
7943.00,2.17
7942.00,2.16
7941.00,2.16
7940.00,2.15
7939.00,2.15
7938.00,2.15
7937.00,2.15
7936.00,2.15
7935.00,2.15
7934.00,2.15
7933.00,2.15
7932.00,2.16
7931.00,2.16
7930.00,2.17
7929.00,2.17
7928.00,2.18
7927.00,2.19
7926.00,2.20
7925.00,2.20
7924.00,2.21
7923.00,2.22
7922.00,2.23
7921.00,2.24
7920.00,2.25
7919.00,2.25
7918.00,2.26
7917.00,2.27
7916.00,2.28
7915.00,2.28
7914.00,2.29
7913.00,2.30
7912.00,2.31
7911.00,2.32
7910.00,2.32
7909.00,2.33
7908.00,2.34
7907.00,2.34
7906.00,2.34
7905.00,2.35
7904.00,2.35
7903.00,2.34
7902.00,2.34
7901.00,2.33
7900.00,2.33
7899.00,2.32
7898.00,2.31
7897.00,2.30
7896.00,2.29
7895.00,2.28
7894.00,2.27
7893.00,2.25
7892.00,2.24
7891.00,2.24
7890.00,2.23
7889.00,2.22
7888.00,2.21
7887.00,2.20
7886.00,2.20
7885.00,2.19
7884.00,2.18
7883.00,2.18
7882.00,2.17
7881.00,2.16
7880.00,2.16
7879.00,2.16
7878.00,2.16
7877.00,2.16
7876.00,2.16
7875.00,2.17
7874.00,2.17
7873.00,2.18
7872.00,2.19
7871.00,2.20
7870.00,2.21
7869.00,2.22
7868.00,2.23
7867.00,2.24
7866.00,2.25
7865.00,2.26
7864.00,2.27
7863.00,2.27
7862.00,2.28
7861.00,2.28
7860.00,2.28
7859.00,2.29
7858.00,2.29
7857.00,2.29
7856.00,2.29
7855.00,2.29
7854.00,2.29
7853.00,2.29
7852.00,2.29
7851.00,2.29
7850.00,2.29
7849.00,2.29
7848.00,2.29
7847.00,2.29
7846.00,2.29
7845.00,2.29
7844.00,2.29
7843.00,2.29
7842.00,2.29
7841.00,2.28
7840.00,2.28
7839.00,2.28
7838.00,2.28
7837.00,2.27
7836.00,2.27
7835.00,2.27
7834.00,2.27
7833.00,2.27
7832.00,2.27
7831.00,2.27
7830.00,2.27
7829.00,2.28
7828.00,2.28
7827.00,2.28
7826.00,2.28
7825.00,2.28
7824.00,2.28
7823.00,2.28
7822.00,2.28
7821.00,2.28
7820.00,2.28
7819.00,2.28
7818.00,2.28
7817.00,2.28
7816.00,2.28
7815.00,2.28
7814.00,2.28
7813.00,2.29
7812.00,2.29
7811.00,2.29
7810.00,2.30
7809.00,2.30
7808.00,2.31
7807.00,2.31
7806.00,2.31
7805.00,2.32
7804.00,2.32
7803.00,2.32
7802.00,2.32
7801.00,2.33
7800.00,2.33
7799.00,2.33
7798.00,2.33
7797.00,2.33
7796.00,2.33
7795.00,2.32
7794.00,2.32
7793.00,2.32
7792.00,2.33
7791.00,2.33
7790.00,2.33
7789.00,2.33
7788.00,2.33
7787.00,2.33
7786.00,2.33
7785.00,2.33
7784.00,2.33
7783.00,2.33
7782.00,2.33
7781.00,2.33
7780.00,2.33
7779.00,2.33
7778.00,2.34
7777.00,2.34
7776.00,2.35
7775.00,2.35
7774.00,2.36
7773.00,2.37
7772.00,2.38
7771.00,2.39
7770.00,2.39
7769.00,2.40
7768.00,2.41
7767.00,2.41
7766.00,2.42
7765.00,2.42
7764.00,2.42
7763.00,2.43
7762.00,2.43
7761.00,2.43
7760.00,2.43
7759.00,2.43
7758.00,2.43
7757.00,2.43
7756.00,2.43
7755.00,2.43
7754.00,2.43
7753.00,2.43
7752.00,2.43
7751.00,2.43
7750.00,2.43
7749.00,2.43
7748.00,2.43
7747.00,2.43
7746.00,2.43
7745.00,2.42
7744.00,2.42
7743.00,2.42
7742.00,2.42
7741.00,2.43
7740.00,2.43
7739.00,2.43
7738.00,2.43
7737.00,2.43
7736.00,2.43
7735.00,2.43
7734.00,2.43
7733.00,2.44
7732.00,2.44
7731.00,2.44
7730.00,2.44
7729.00,2.44
7728.00,2.44
7727.00,2.45
7726.00,2.44
7725.00,2.44
7724.00,2.44
7723.00,2.44
7722.00,2.43
7721.00,2.43
7720.00,2.42
7719.00,2.42
7718.00,2.41
7717.00,2.40
7716.00,2.40
7715.00,2.39
7714.00,2.38
7713.00,2.38
7712.00,2.37
7711.00,2.37
7710.00,2.36
7709.00,2.36
7708.00,2.35
7707.00,2.35
7706.00,2.34
7705.00,2.34
7704.00,2.34
7703.00,2.34
7702.00,2.33
7701.00,2.33
7700.00,2.33
7699.00,2.33
7698.00,2.32
7697.00,2.32
7696.00,2.32
7695.00,2.32
7694.00,2.31
7693.00,2.31
7692.00,2.31
7691.00,2.31
7690.00,2.31
7689.00,2.31
7688.00,2.31
7687.00,2.31
7686.00,2.32
7685.00,2.32
7684.00,2.32
7683.00,2.32
7682.00,2.32
7681.00,2.32
7680.00,2.32
7679.00,2.32
7678.00,2.32
7677.00,2.32
7676.00,2.32
7675.00,2.32
7674.00,2.32
7673.00,2.32
7672.00,2.32
7671.00,2.32
7670.00,2.32
7669.00,2.33
7668.00,2.33
7667.00,2.34
7666.00,2.34
7665.00,2.34
7664.00,2.35
7663.00,2.35
7662.00,2.36
7661.00,2.36
7660.00,2.37
7659.00,2.37
7658.00,2.38
7657.00,2.39
7656.00,2.39
7655.00,2.40
7654.00,2.41
7653.00,2.42
7652.00,2.43
7651.00,2.44
7650.00,2.45
7649.00,2.45
7648.00,2.46
7647.00,2.47
7646.00,2.47
7645.00,2.48
7644.00,2.48
7643.00,2.48
7642.00,2.48
7641.00,2.48
7640.00,2.48
7639.00,2.47
7638.00,2.47
7637.00,2.47
7636.00,2.46
7635.00,2.46
7634.00,2.45
7633.00,2.44
7632.00,2.43
7631.00,2.42
7630.00,2.41
7629.00,2.40
7628.00,2.39
7627.00,2.38
7626.00,2.36
7625.00,2.35
7624.00,2.34
7623.00,2.32
7622.00,2.31
7621.00,2.30
7620.00,2.29
7619.00,2.28
7618.00,2.28
7617.00,2.27
7616.00,2.27
7615.00,2.27
7614.00,2.27
7613.00,2.26
7612.00,2.26
7611.00,2.26
7610.00,2.26
7609.00,2.26
7608.00,2.26
7607.00,2.27
7606.00,2.27
7605.00,2.27
7604.00,2.28
7603.00,2.28
7602.00,2.29
7601.00,2.30
7600.00,2.30
7599.00,2.31
7598.00,2.32
7597.00,2.33
7596.00,2.33
7595.00,2.34
7594.00,2.35
7593.00,2.35
7592.00,2.36
7591.00,2.37
7590.00,2.37
7589.00,2.37
7588.00,2.38
7587.00,2.38
7586.00,2.39
7585.00,2.39
7584.00,2.40
7583.00,2.41
7582.00,2.41
7581.00,2.42
7580.00,2.42
7579.00,2.43
7578.00,2.43
7577.00,2.43
7576.00,2.44
7575.00,2.44
7574.00,2.44
7573.00,2.45
7572.00,2.45
7571.00,2.45
7570.00,2.45
7569.00,2.46
7568.00,2.46
7567.00,2.46
7566.00,2.46
7565.00,2.46
7564.00,2.46
7563.00,2.46
7562.00,2.45
7561.00,2.45
7560.00,2.45
7559.00,2.45
7558.00,2.44
7557.00,2.44
7556.00,2.43
7555.00,2.43
7554.00,2.43
7553.00,2.42
7552.00,2.42
7551.00,2.41
7550.00,2.41
7549.00,2.40
7548.00,2.40
7547.00,2.39
7546.00,2.39
7545.00,2.38
7544.00,2.37
7543.00,2.37
7542.00,2.36
7541.00,2.35
7540.00,2.35
7539.00,2.34
7538.00,2.34
7537.00,2.34
7536.00,2.33
7535.00,2.33
7534.00,2.33
7533.00,2.33
7532.00,2.33
7531.00,2.33
7530.00,2.33
7529.00,2.33
7528.00,2.33
7527.00,2.33
7526.00,2.33
7525.00,2.33
7524.00,2.33
7523.00,2.33
7522.00,2.33
7521.00,2.34
7520.00,2.34
7519.00,2.35
7518.00,2.35
7517.00,2.36
7516.00,2.37
7515.00,2.37
7514.00,2.38
7513.00,2.39
7512.00,2.39
7511.00,2.40
7510.00,2.40
7509.00,2.41
7508.00,2.41
7507.00,2.41
7506.00,2.42
7505.00,2.42
7504.00,2.43
7503.00,2.43
7502.00,2.44
7501.00,2.44
7500.00,2.45
7499.00,2.45
7498.00,2.45
7497.00,2.46
7496.00,2.46
7495.00,2.46
7494.00,2.47
7493.00,2.47
7492.00,2.47
7491.00,2.47
7490.00,2.48
7489.00,2.48
7488.00,2.48
7487.00,2.48
7486.00,2.49
7485.00,2.49
7484.00,2.49
7483.00,2.49
7482.00,2.50
7481.00,2.50
7480.00,2.50
7479.00,2.50
7478.00,2.50
7477.00,2.50
7476.00,2.50
7475.00,2.50
7474.00,2.50
7473.00,2.50
7472.00,2.50
7471.00,2.49
7470.00,2.49
7469.00,2.48
7468.00,2.47
7467.00,2.46
7466.00,2.46
7465.00,2.45
7464.00,2.44
7463.00,2.43
7462.00,2.42
7461.00,2.42
7460.00,2.41
7459.00,2.40
7458.00,2.39
7457.00,2.39
7456.00,2.38
7455.00,2.37
7454.00,2.36
7453.00,2.36
7452.00,2.35
7451.00,2.35
7450.00,2.34
7449.00,2.34
7448.00,2.34
7447.00,2.34
7446.00,2.34
7445.00,2.34
7444.00,2.34
7443.00,2.34
7442.00,2.35
7441.00,2.35
7440.00,2.36
7439.00,2.36
7438.00,2.36
7437.00,2.37
7436.00,2.37
7435.00,2.37
7434.00,2.38
7433.00,2.38
7432.00,2.38
7431.00,2.39
7430.00,2.39
7429.00,2.39
7428.00,2.40
7427.00,2.40
7426.00,2.40
7425.00,2.40
7424.00,2.41
7423.00,2.41
7422.00,2.41
7421.00,2.41
7420.00,2.41
7419.00,2.41
7418.00,2.42
7417.00,2.42
7416.00,2.42
7415.00,2.42
7414.00,2.42
7413.00,2.42
7412.00,2.43
7411.00,2.43
7410.00,2.43
7409.00,2.44
7408.00,2.44
7407.00,2.45
7406.00,2.45
7405.00,2.45
7404.00,2.46
7403.00,2.46
7402.00,2.47
7401.00,2.47
7400.00,2.48
7399.00,2.49
7398.00,2.49
7397.00,2.50
7396.00,2.51
7395.00,2.51
7394.00,2.52
7393.00,2.53
7392.00,2.53
7391.00,2.54
7390.00,2.55
7389.00,2.55
7388.00,2.56
7387.00,2.56
7386.00,2.57
7385.00,2.57
7384.00,2.58
7383.00,2.58
7382.00,2.58
7381.00,2.59
7380.00,2.59
7379.00,2.59
7378.00,2.59
7377.00,2.59
7376.00,2.59
7375.00,2.59
7374.00,2.59
7373.00,2.59
7372.00,2.59
7371.00,2.58
7370.00,2.58
7369.00,2.57
7368.00,2.57
7367.00,2.56
7366.00,2.55
7365.00,2.54
7364.00,2.53
7363.00,2.52
7362.00,2.51
7361.00,2.50
7360.00,2.49
7359.00,2.48
7358.00,2.48
7357.00,2.47
7356.00,2.46
7355.00,2.46
7354.00,2.45
7353.00,2.44
7352.00,2.44
7351.00,2.43
7350.00,2.42
7349.00,2.42
7348.00,2.41
7347.00,2.41
7346.00,2.40
7345.00,2.40
7344.00,2.40
7343.00,2.40
7342.00,2.40
7341.00,2.41
7340.00,2.41
7339.00,2.41
7338.00,2.42
7337.00,2.42
7336.00,2.43
7335.00,2.43
7334.00,2.44
7333.00,2.44
7332.00,2.45
7331.00,2.45
7330.00,2.46
7329.00,2.46
7328.00,2.47
7327.00,2.47
7326.00,2.48
7325.00,2.48
7324.00,2.49
7323.00,2.50
7322.00,2.50
7321.00,2.50
7320.00,2.51
7319.00,2.51
7318.00,2.51
7317.00,2.51
7316.00,2.51
7315.00,2.51
7314.00,2.51
7313.00,2.51
7312.00,2.51
7311.00,2.50
7310.00,2.50
7309.00,2.50
7308.00,2.50
7307.00,2.50
7306.00,2.50
7305.00,2.50
7304.00,2.49
7303.00,2.49
7302.00,2.49
7301.00,2.48
7300.00,2.48
7299.00,2.47
7298.00,2.46
7297.00,2.46
7296.00,2.45
7295.00,2.45
7294.00,2.44
7293.00,2.44
7292.00,2.43
7291.00,2.43
7290.00,2.43
7289.00,2.42
7288.00,2.42
7287.00,2.41
7286.00,2.41
7285.00,2.40
7284.00,2.40
7283.00,2.39
7282.00,2.39
7281.00,2.39
7280.00,2.38
7279.00,2.38
7278.00,2.37
7277.00,2.37
7276.00,2.36
7275.00,2.36
7274.00,2.35
7273.00,2.35
7272.00,2.35
7271.00,2.34
7270.00,2.34
7269.00,2.33
7268.00,2.33
7267.00,2.32
7266.00,2.32
7265.00,2.31
7264.00,2.31
7263.00,2.31
7262.00,2.30
7261.00,2.30
7260.00,2.30
7259.00,2.30
7258.00,2.30
7257.00,2.29
7256.00,2.29
7255.00,2.29
7254.00,2.28
7253.00,2.28
7252.00,2.28
7251.00,2.28
7250.00,2.28
7249.00,2.27
7248.00,2.27
7247.00,2.27
7246.00,2.27
7245.00,2.28
7244.00,2.28
7243.00,2.28
7242.00,2.28
7241.00,2.29
7240.00,2.29
7239.00,2.30
7238.00,2.30
7237.00,2.30
7236.00,2.31
7235.00,2.31
7234.00,2.31
7233.00,2.31
7232.00,2.32
7231.00,2.32
7230.00,2.32
7229.00,2.32
7228.00,2.32
7227.00,2.32
7226.00,2.32
7225.00,2.32
7224.00,2.32
7223.00,2.32
7222.00,2.32
7221.00,2.32
7220.00,2.31
7219.00,2.31
7218.00,2.31
7217.00,2.30
7216.00,2.29
7215.00,2.28
7214.00,2.28
7213.00,2.27
7212.00,2.26
7211.00,2.25
7210.00,2.24
7209.00,2.23
7208.00,2.22
7207.00,2.21
7206.00,2.20
7205.00,2.20
7204.00,2.19
7203.00,2.18
7202.00,2.18
7201.00,2.17
7200.00,2.17
7199.00,2.16
7198.00,2.16
7197.00,2.15
7196.00,2.15
7195.00,2.15
7194.00,2.14
7193.00,2.14
7192.00,2.14
7191.00,2.14
7190.00,2.14
7189.00,2.14
7188.00,2.14
7187.00,2.14
7186.00,2.15
7185.00,2.15
7184.00,2.15
7183.00,2.16
7182.00,2.16
7181.00,2.16
7180.00,2.17
7179.00,2.17
7178.00,2.17
7177.00,2.17
7176.00,2.17
7175.00,2.17
7174.00,2.16
7173.00,2.16
7172.00,2.16
7171.00,2.16
7170.00,2.15
7169.00,2.15
7168.00,2.14
7167.00,2.13
7166.00,2.12
7165.00,2.11
7164.00,2.11
7163.00,2.10
7162.00,2.09
7161.00,2.08
7160.00,2.07
7159.00,2.06
7158.00,2.04
7157.00,2.03
7156.00,2.02
7155.00,2.00
7154.00,1.99
7153.00,1.98
7152.00,1.96
7151.00,1.95
7150.00,1.94
7149.00,1.93
7148.00,1.92
7147.00,1.91
7146.00,1.90
7145.00,1.89
7144.00,1.88
7143.00,1.88
7142.00,1.87
7141.00,1.86
7140.00,1.86
7139.00,1.86
7138.00,1.85
7137.00,1.84
7136.00,1.84
7135.00,1.83
7134.00,1.83
7133.00,1.82
7132.00,1.81
7131.00,1.81
7130.00,1.80
7129.00,1.80
7128.00,1.80
7127.00,1.80
7126.00,1.80
7125.00,1.80
7124.00,1.80
7123.00,1.80
7122.00,1.80
7121.00,1.80
7120.00,1.80
7119.00,1.80
7118.00,1.79
7117.00,1.79
7116.00,1.79
7115.00,1.79
7114.00,1.79
7113.00,1.79
7112.00,1.79
7111.00,1.79
7110.00,1.79
7109.00,1.80
7108.00,1.80
7107.00,1.81
7106.00,1.81
7105.00,1.82
7104.00,1.82
7103.00,1.83
7102.00,1.83
7101.00,1.83
7100.00,1.83
7099.00,1.83
7098.00,1.83
7097.00,1.82
7096.00,1.82
7095.00,1.82
7094.00,1.81
7093.00,1.80
7092.00,1.80
7091.00,1.79
7090.00,1.78
7089.00,1.78
7088.00,1.77
7087.00,1.76
7086.00,1.76
7085.00,1.75
7084.00,1.74
7083.00,1.73
7082.00,1.72
7081.00,1.71
7080.00,1.70
7079.00,1.69
7078.00,1.68
7077.00,1.67
7076.00,1.66
7075.00,1.66
7074.00,1.65
7073.00,1.65
7072.00,1.64
7071.00,1.64
7070.00,1.64
7069.00,1.64
7068.00,1.64
7067.00,1.64
7066.00,1.64
7065.00,1.64
7064.00,1.65
7063.00,1.65
7062.00,1.65
7061.00,1.66
7060.00,1.66
7059.00,1.67
7058.00,1.67
7057.00,1.68
7056.00,1.68
7055.00,1.69
7054.00,1.69
7053.00,1.70
7052.00,1.70
7051.00,1.70
7050.00,1.71
7049.00,1.71
7048.00,1.71
7047.00,1.72
7046.00,1.72
7045.00,1.72
7044.00,1.72
7043.00,1.72
7042.00,1.73
7041.00,1.73
7040.00,1.73
7039.00,1.74
7038.00,1.74
7037.00,1.74
7036.00,1.75
7035.00,1.75
7034.00,1.75
7033.00,1.75
7032.00,1.75
7031.00,1.76
7030.00,1.76
7029.00,1.76
7028.00,1.76
7027.00,1.76
7026.00,1.76
7025.00,1.76
7024.00,1.76
7023.00,1.76
7022.00,1.76
7021.00,1.76
7020.00,1.75
7019.00,1.75
7018.00,1.75
7017.00,1.75
7016.00,1.74
7015.00,1.74
7014.00,1.74
7013.00,1.73
7012.00,1.73
7011.00,1.72
7010.00,1.71
7009.00,1.71
7008.00,1.70
7007.00,1.69
7006.00,1.68
7005.00,1.68
7004.00,1.67
7003.00,1.66
7002.00,1.65
7001.00,1.64
7000.00,1.63
6999.00,1.62
6998.00,1.61
6997.00,1.60
6996.00,1.59
6995.00,1.58
6994.00,1.57
6993.00,1.57
6992.00,1.56
6991.00,1.55
6990.00,1.54
6989.00,1.54
6988.00,1.53
6987.00,1.52
6986.00,1.51
6985.00,1.51
6984.00,1.50
6983.00,1.50
6982.00,1.49
6981.00,1.49
6980.00,1.49
6979.00,1.49
6978.00,1.48
6977.00,1.48
6976.00,1.48
6975.00,1.49
6974.00,1.49
6973.00,1.49
6972.00,1.49
6971.00,1.50
6970.00,1.50
6969.00,1.51
6968.00,1.51
6967.00,1.52
6966.00,1.52
6965.00,1.53
6964.00,1.53
6963.00,1.54
6962.00,1.55
6961.00,1.55
6960.00,1.56
6959.00,1.56
6958.00,1.57
6957.00,1.57
6956.00,1.58
6955.00,1.58
6954.00,1.59
6953.00,1.59
6952.00,1.60
6951.00,1.60
6950.00,1.61
6949.00,1.61
6948.00,1.61
6947.00,1.62
6946.00,1.62
6945.00,1.62
6944.00,1.62
6943.00,1.62
6942.00,1.62
6941.00,1.62
6940.00,1.62
6939.00,1.62
6938.00,1.62
6937.00,1.62
6936.00,1.62
6935.00,1.62
6934.00,1.62
6933.00,1.62
6932.00,1.62
6931.00,1.62
6930.00,1.62
6929.00,1.62
6928.00,1.62
6927.00,1.62
6926.00,1.62
6925.00,1.62
6924.00,1.62
6923.00,1.62
6922.00,1.62
6921.00,1.62
6920.00,1.63
6919.00,1.63
6918.00,1.63
6917.00,1.63
6916.00,1.63
6915.00,1.64
6914.00,1.64
6913.00,1.64
6912.00,1.64
6911.00,1.64
6910.00,1.64
6909.00,1.65
6908.00,1.65
6907.00,1.65
6906.00,1.65
6905.00,1.65
6904.00,1.65
6903.00,1.65
6902.00,1.65
6901.00,1.65
6900.00,1.65
6899.00,1.65
6898.00,1.65
6897.00,1.64
6896.00,1.64
6895.00,1.63
6894.00,1.63
6893.00,1.62
6892.00,1.62
6891.00,1.61
6890.00,1.61
6889.00,1.60
6888.00,1.60
6887.00,1.60
6886.00,1.59
6885.00,1.59
6884.00,1.59
6883.00,1.59
6882.00,1.58
6881.00,1.58
6880.00,1.59
6879.00,1.59
6878.00,1.59
6877.00,1.59
6876.00,1.60
6875.00,1.60
6874.00,1.61
6873.00,1.61
6872.00,1.62
6871.00,1.63
6870.00,1.63
6869.00,1.64
6868.00,1.65
6867.00,1.66
6866.00,1.67
6865.00,1.68
6864.00,1.69
6863.00,1.69
6862.00,1.70
6861.00,1.71
6860.00,1.71
6859.00,1.72
6858.00,1.72
6857.00,1.73
6856.00,1.73
6855.00,1.74
6854.00,1.74
6853.00,1.74
6852.00,1.74
6851.00,1.74
6850.00,1.74
6849.00,1.74
6848.00,1.74
6847.00,1.73
6846.00,1.73
6845.00,1.73
6844.00,1.73
6843.00,1.73
6842.00,1.73
6841.00,1.72
6840.00,1.72
6839.00,1.72
6838.00,1.72
6837.00,1.71
6836.00,1.71
6835.00,1.71
6834.00,1.71
6833.00,1.71
6832.00,1.71
6831.00,1.71
6830.00,1.70
6829.00,1.70
6828.00,1.70
6827.00,1.70
6826.00,1.69
6825.00,1.69
6824.00,1.69
6823.00,1.68
6822.00,1.68
6821.00,1.68
6820.00,1.67
6819.00,1.67
6818.00,1.66
6817.00,1.66
6816.00,1.66
6815.00,1.65
6814.00,1.65
6813.00,1.65
6812.00,1.65
6811.00,1.65
6810.00,1.64
6809.00,1.64
6808.00,1.64
6807.00,1.64
6806.00,1.64
6805.00,1.64
6804.00,1.64
6803.00,1.64
6802.00,1.65
6801.00,1.65
6800.00,1.65
6799.00,1.66
6798.00,1.66
6797.00,1.67
6796.00,1.67
6795.00,1.68
6794.00,1.69
6793.00,1.69
6792.00,1.70
6791.00,1.71
6790.00,1.71
6789.00,1.72
6788.00,1.72
6787.00,1.72
6786.00,1.73
6785.00,1.73
6784.00,1.73
6783.00,1.73
6782.00,1.73
6781.00,1.73
6780.00,1.73
6779.00,1.73
6778.00,1.73
6777.00,1.73
6776.00,1.72
6775.00,1.72
6774.00,1.72
6773.00,1.72
6772.00,1.72
6771.00,1.71
6770.00,1.71
6769.00,1.71
6768.00,1.71
6767.00,1.71
6766.00,1.70
6765.00,1.70
6764.00,1.70
6763.00,1.70
6762.00,1.70
6761.00,1.70
6760.00,1.70
6759.00,1.70
6758.00,1.70
6757.00,1.70
6756.00,1.71
6755.00,1.71
6754.00,1.72
6753.00,1.72
6752.00,1.72
6751.00,1.73
6750.00,1.73
6749.00,1.73
6748.00,1.74
6747.00,1.74
6746.00,1.74
6745.00,1.74
6744.00,1.74
6743.00,1.74
6742.00,1.75
6741.00,1.75
6740.00,1.75
6739.00,1.75
6738.00,1.75
6737.00,1.75
6736.00,1.75
6735.00,1.76
6734.00,1.76
6733.00,1.76
6732.00,1.76
6731.00,1.76
6730.00,1.76
6729.00,1.75
6728.00,1.75
6727.00,1.75
6726.00,1.75
6725.00,1.74
6724.00,1.74
6723.00,1.74
6722.00,1.74
6721.00,1.74
6720.00,1.74
6719.00,1.75
6718.00,1.75
6717.00,1.75
6716.00,1.75
6715.00,1.75
6714.00,1.76
6713.00,1.76
6712.00,1.76
6711.00,1.76
6710.00,1.76
6709.00,1.76
6708.00,1.76
6707.00,1.76
6706.00,1.76
6705.00,1.76
6704.00,1.77
6703.00,1.77
6702.00,1.77
6701.00,1.77
6700.00,1.78
6699.00,1.78
6698.00,1.78
6697.00,1.78
6696.00,1.79
6695.00,1.79
6694.00,1.79
6693.00,1.79
6692.00,1.79
6691.00,1.79
6690.00,1.79
6689.00,1.79
6688.00,1.79
6687.00,1.79
6686.00,1.79
6685.00,1.79
6684.00,1.79
6683.00,1.79
6682.00,1.80
6681.00,1.80
6680.00,1.80
6679.00,1.80
6678.00,1.81
6677.00,1.81
6676.00,1.81
6675.00,1.81
6674.00,1.82
6673.00,1.82
6672.00,1.82
6671.00,1.82
6670.00,1.83
6669.00,1.83
6668.00,1.83
6667.00,1.83
6666.00,1.83
6665.00,1.84
6664.00,1.84
6663.00,1.84
6662.00,1.85
6661.00,1.85
6660.00,1.86
6659.00,1.86
6658.00,1.87
6657.00,1.87
6656.00,1.88
6655.00,1.88
6654.00,1.88
6653.00,1.89
6652.00,1.89
6651.00,1.89
6650.00,1.89
6649.00,1.89
6648.00,1.89
6647.00,1.89
6646.00,1.89
6645.00,1.89
6644.00,1.89
6643.00,1.90
6642.00,1.90
6641.00,1.90
6640.00,1.90
6639.00,1.90
6638.00,1.90
6637.00,1.90
6636.00,1.90
6635.00,1.89
6634.00,1.89
6633.00,1.89
6632.00,1.89
6631.00,1.89
6630.00,1.88
6629.00,1.88
6628.00,1.88
6627.00,1.88
6626.00,1.88
6625.00,1.88
6624.00,1.87
6623.00,1.87
6622.00,1.87
6621.00,1.87
6620.00,1.88
6619.00,1.88
6618.00,1.88
6617.00,1.88
6616.00,1.88
6615.00,1.88
6614.00,1.88
6613.00,1.89
6612.00,1.89
6611.00,1.89
6610.00,1.89
6609.00,1.89
6608.00,1.89
6607.00,1.89
6606.00,1.89
6605.00,1.89
6604.00,1.90
6603.00,1.90
6602.00,1.90
6601.00,1.90
6600.00,1.90
6599.00,1.90
6598.00,1.91
6597.00,1.91
6596.00,1.91
6595.00,1.91
6594.00,1.91
6593.00,1.91
6592.00,1.91
6591.00,1.91
6590.00,1.91
6589.00,1.91
6588.00,1.91
6587.00,1.91
6586.00,1.91
6585.00,1.92
6584.00,1.92
6583.00,1.92
6582.00,1.93
6581.00,1.93
6580.00,1.94
6579.00,1.94
6578.00,1.95
6577.00,1.95
6576.00,1.96
6575.00,1.96
6574.00,1.96
6573.00,1.97
6572.00,1.97
6571.00,1.97
6570.00,1.97
6569.00,1.98
6568.00,1.98
6567.00,1.98
6566.00,1.98
6565.00,1.99
6564.00,1.99
6563.00,1.99
6562.00,2.00
6561.00,2.00
6560.00,2.00
6559.00,2.00
6558.00,2.00
6557.00,2.00
6556.00,2.00
6555.00,2.00
6554.00,2.00
6553.00,1.99
6552.00,1.99
6551.00,1.99
6550.00,1.99
6549.00,1.99
6548.00,1.99
6547.00,1.99
6546.00,2.00
6545.00,2.00
6544.00,2.00
6543.00,2.01
6542.00,2.01
6541.00,2.01
6540.00,2.02
6539.00,2.02
6538.00,2.03
6537.00,2.03
6536.00,2.04
6535.00,2.05
6534.00,2.05
6533.00,2.06
6532.00,2.06
6531.00,2.07
6530.00,2.08
6529.00,2.09
6528.00,2.10
6527.00,2.10
6526.00,2.11
6525.00,2.12
6524.00,2.13
6523.00,2.14
6522.00,2.14
6521.00,2.15
6520.00,2.15
6519.00,2.16
6518.00,2.16
6517.00,2.17
6516.00,2.17
6515.00,2.17
6514.00,2.17
6513.00,2.17
6512.00,2.18
6511.00,2.18
6510.00,2.18
6509.00,2.18
6508.00,2.18
6507.00,2.17
6506.00,2.17
6505.00,2.17
6504.00,2.17
6503.00,2.17
6502.00,2.17
6501.00,2.17
6500.00,2.17
6499.00,2.16
6498.00,2.16
6497.00,2.16
6496.00,2.16
6495.00,2.16
6494.00,2.15
6493.00,2.15
6492.00,2.15
6491.00,2.15
6490.00,2.15
6489.00,2.15
6488.00,2.15
6487.00,2.15
6486.00,2.15
6485.00,2.15
6484.00,2.15
6483.00,2.16
6482.00,2.16
6481.00,2.16
6480.00,2.16
6479.00,2.17
6478.00,2.17
6477.00,2.17
6476.00,2.17
6475.00,2.18
6474.00,2.18
6473.00,2.18
6472.00,2.18
6471.00,2.18
6470.00,2.18
6469.00,2.18
6468.00,2.19
6467.00,2.19
6466.00,2.19
6465.00,2.19
6464.00,2.20
6463.00,2.20
6462.00,2.20
6461.00,2.20
6460.00,2.20
6459.00,2.20
6458.00,2.20
6457.00,2.20
6456.00,2.20
6455.00,2.20
6454.00,2.19
6453.00,2.19
6452.00,2.19
6451.00,2.19
6450.00,2.19
6449.00,2.19
6448.00,2.19
6447.00,2.19
6446.00,2.19
6445.00,2.19
6444.00,2.19
6443.00,2.19
6442.00,2.19
6441.00,2.19
6440.00,2.19
6439.00,2.19
6438.00,2.19
6437.00,2.19
6436.00,2.19
6435.00,2.19
6434.00,2.19
6433.00,2.19
6432.00,2.19
6431.00,2.20
6430.00,2.20
6429.00,2.20
6428.00,2.20
6427.00,2.21
6426.00,2.21
6425.00,2.21
6424.00,2.22
6423.00,2.22
6422.00,2.22
6421.00,2.22
6420.00,2.23
6419.00,2.23
6418.00,2.23
6417.00,2.23
6416.00,2.23
6415.00,2.24
6414.00,2.24
6413.00,2.24
6412.00,2.24
6411.00,2.25
6410.00,2.25
6409.00,2.25
6408.00,2.26
6407.00,2.26
6406.00,2.26
6405.00,2.27
6404.00,2.27
6403.00,2.28
6402.00,2.28
6401.00,2.29
6400.00,2.29
6399.00,2.30
6398.00,2.30
6397.00,2.31
6396.00,2.31
6395.00,2.32
6394.00,2.32
6393.00,2.33
6392.00,2.33
6391.00,2.34
6390.00,2.34
6389.00,2.34
6388.00,2.35
6387.00,2.35
6386.00,2.35
6385.00,2.36
6384.00,2.36
6383.00,2.36
6382.00,2.37
6381.00,2.37
6380.00,2.37
6379.00,2.38
6378.00,2.38
6377.00,2.38
6376.00,2.38
6375.00,2.38
6374.00,2.38
6373.00,2.38
6372.00,2.38
6371.00,2.38
6370.00,2.38
6369.00,2.38
6368.00,2.38
6367.00,2.38
6366.00,2.38
6365.00,2.38
6364.00,2.38
6363.00,2.38
6362.00,2.38
6361.00,2.38
6360.00,2.39
6359.00,2.39
6358.00,2.39
6357.00,2.39
6356.00,2.39
6355.00,2.39
6354.00,2.39
6353.00,2.39
6352.00,2.39
6351.00,2.39
6350.00,2.39
6349.00,2.39
6348.00,2.40
6347.00,2.40
6346.00,2.40
6345.00,2.40
6344.00,2.40
6343.00,2.40
6342.00,2.40
6341.00,2.40
6340.00,2.40
6339.00,2.40
6338.00,2.40
6337.00,2.40
6336.00,2.39
6335.00,2.39
6334.00,2.39
6333.00,2.38
6332.00,2.38
6331.00,2.38
6330.00,2.38
6329.00,2.37
6328.00,2.37
6327.00,2.37
6326.00,2.37
6325.00,2.37
6324.00,2.37
6323.00,2.37
6322.00,2.37
6321.00,2.37
6320.00,2.37
6319.00,2.37
6318.00,2.37
6317.00,2.37
6316.00,2.37
6315.00,2.37
6314.00,2.37
6313.00,2.37
6312.00,2.37
6311.00,2.37
6310.00,2.37
6309.00,2.38
6308.00,2.38
6307.00,2.38
6306.00,2.38
6305.00,2.38
6304.00,2.38
6303.00,2.38
6302.00,2.38
6301.00,2.39
6300.00,2.39
6299.00,2.38
6298.00,2.38
6297.00,2.38
6296.00,2.38
6295.00,2.38
6294.00,2.38
6293.00,2.38
6292.00,2.38
6291.00,2.38
6290.00,2.38
6289.00,2.38
6288.00,2.38
6287.00,2.38
6286.00,2.38
6285.00,2.38
6284.00,2.39
6283.00,2.39
6282.00,2.39
6281.00,2.40
6280.00,2.40
6279.00,2.41
6278.00,2.41
6277.00,2.41
6276.00,2.42
6275.00,2.42
6274.00,2.43
6273.00,2.44
6272.00,2.44
6271.00,2.45
6270.00,2.45
6269.00,2.45
6268.00,2.46
6267.00,2.46
6266.00,2.47
6265.00,2.47
6264.00,2.47
6263.00,2.48
6262.00,2.48
6261.00,2.48
6260.00,2.49
6259.00,2.49
6258.00,2.49
6257.00,2.49
6256.00,2.49
6255.00,2.49
6254.00,2.49
6253.00,2.49
6252.00,2.49
6251.00,2.48
6250.00,2.48
6249.00,2.48
6248.00,2.47
6247.00,2.47
6246.00,2.47
6245.00,2.46
6244.00,2.46
6243.00,2.45
6242.00,2.45
6241.00,2.44
6240.00,2.44
6239.00,2.44
6238.00,2.44
6237.00,2.43
6236.00,2.43
6235.00,2.43
6234.00,2.42
6233.00,2.42
6232.00,2.42
6231.00,2.42
6230.00,2.42
6229.00,2.41
6228.00,2.41
6227.00,2.41
6226.00,2.41
6225.00,2.42
6224.00,2.42
6223.00,2.42
6222.00,2.42
6221.00,2.43
6220.00,2.43
6219.00,2.43
6218.00,2.44
6217.00,2.44
6216.00,2.44
6215.00,2.45
6214.00,2.45
6213.00,2.45
6212.00,2.46
6211.00,2.46
6210.00,2.47
6209.00,2.47
6208.00,2.47
6207.00,2.48
6206.00,2.48
6205.00,2.49
6204.00,2.49
6203.00,2.49
6202.00,2.49
6201.00,2.49
6200.00,2.49
6199.00,2.49
6198.00,2.49
6197.00,2.49
6196.00,2.49
6195.00,2.49
6194.00,2.49
6193.00,2.49
6192.00,2.49
6191.00,2.49
6190.00,2.49
6189.00,2.49
6188.00,2.49
6187.00,2.49
6186.00,2.49
6185.00,2.49
6184.00,2.49
6183.00,2.49
6182.00,2.48
6181.00,2.48
6180.00,2.48
6179.00,2.48
6178.00,2.48
6177.00,2.48
6176.00,2.48
6175.00,2.48
6174.00,2.48
6173.00,2.48
6172.00,2.48
6171.00,2.48
6170.00,2.49
6169.00,2.49
6168.00,2.49
6167.00,2.49
6166.00,2.49
6165.00,2.49
6164.00,2.50
6163.00,2.50
6162.00,2.50
6161.00,2.50
6160.00,2.50
6159.00,2.51
6158.00,2.51
6157.00,2.51
6156.00,2.51
6155.00,2.51
6154.00,2.52
6153.00,2.52
6152.00,2.52
6151.00,2.52
6150.00,2.52
6149.00,2.53
6148.00,2.53
6147.00,2.53
6146.00,2.53
6145.00,2.53
6144.00,2.53
6143.00,2.53
6142.00,2.53
6141.00,2.53
6140.00,2.53
6139.00,2.53
6138.00,2.53
6137.00,2.53
6136.00,2.54
6135.00,2.54
6134.00,2.54
6133.00,2.55
6132.00,2.55
6131.00,2.55
6130.00,2.56
6129.00,2.56
6128.00,2.56
6127.00,2.57
6126.00,2.57
6125.00,2.57
6124.00,2.57
6123.00,2.57
6122.00,2.58
6121.00,2.58
6120.00,2.58
6119.00,2.58
6118.00,2.59
6117.00,2.59
6116.00,2.59
6115.00,2.60
6114.00,2.60
6113.00,2.60
6112.00,2.60
6111.00,2.61
6110.00,2.61
6109.00,2.61
6108.00,2.61
6107.00,2.61
6106.00,2.61
6105.00,2.61
6104.00,2.61
6103.00,2.61
6102.00,2.61
6101.00,2.62
6100.00,2.62
6099.00,2.62
6098.00,2.62
6097.00,2.63
6096.00,2.63
6095.00,2.63
6094.00,2.63
6093.00,2.64
6092.00,2.64
6091.00,2.64
6090.00,2.64
6089.00,2.65
6088.00,2.65
6087.00,2.65
6086.00,2.65
6085.00,2.66
6084.00,2.66
6083.00,2.66
6082.00,2.66
6081.00,2.66
6080.00,2.66
6079.00,2.67
6078.00,2.67
6077.00,2.67
6076.00,2.67
6075.00,2.67
6074.00,2.67
6073.00,2.68
6072.00,2.68
6071.00,2.68
6070.00,2.68
6069.00,2.68
6068.00,2.68
6067.00,2.68
6066.00,2.68
6065.00,2.68
6064.00,2.67
6063.00,2.67
6062.00,2.67
6061.00,2.67
6060.00,2.67
6059.00,2.67
6058.00,2.67
6057.00,2.67
6056.00,2.67
6055.00,2.67
6054.00,2.67
6053.00,2.68
6052.00,2.68
6051.00,2.68
6050.00,2.68
6049.00,2.69
6048.00,2.69
6047.00,2.69
6046.00,2.70
6045.00,2.70
6044.00,2.70
6043.00,2.71
6042.00,2.71
6041.00,2.72
6040.00,2.72
6039.00,2.73
6038.00,2.73
6037.00,2.73
6036.00,2.74
6035.00,2.74
6034.00,2.74
6033.00,2.75
6032.00,2.75
6031.00,2.75
6030.00,2.75
6029.00,2.75
6028.00,2.75
6027.00,2.75
6026.00,2.75
6025.00,2.75
6024.00,2.75
6023.00,2.75
6022.00,2.75
6021.00,2.75
6020.00,2.75
6019.00,2.74
6018.00,2.74
6017.00,2.74
6016.00,2.73
6015.00,2.73
6014.00,2.73
6013.00,2.72
6012.00,2.72
6011.00,2.72
6010.00,2.72
6009.00,2.71
6008.00,2.71
6007.00,2.71
6006.00,2.71
6005.00,2.71
6004.00,2.71
6003.00,2.71
6002.00,2.71
6001.00,2.71
6000.00,2.71
5999.00,2.70
5998.00,2.70
5997.00,2.70
5996.00,2.70
5995.00,2.70
5994.00,2.70
5993.00,2.70
5992.00,2.70
5991.00,2.70
5990.00,2.70
5989.00,2.70
5988.00,2.70
5987.00,2.70
5986.00,2.70
5985.00,2.69
5984.00,2.69
5983.00,2.69
5982.00,2.69
5981.00,2.69
5980.00,2.68
5979.00,2.68
5978.00,2.68
5977.00,2.68
5976.00,2.68
5975.00,2.67
5974.00,2.67
5973.00,2.67
5972.00,2.67
5971.00,2.66
5970.00,2.66
5969.00,2.66
5968.00,2.66
5967.00,2.66
5966.00,2.66
5965.00,2.65
5964.00,2.65
5963.00,2.65
5962.00,2.65
5961.00,2.65
5960.00,2.65
5959.00,2.64
5958.00,2.64
5957.00,2.64
5956.00,2.64
5955.00,2.63
5954.00,2.63
5953.00,2.63
5952.00,2.63
5951.00,2.63
5950.00,2.62
5949.00,2.62
5948.00,2.62
5947.00,2.62
5946.00,2.62
5945.00,2.62
5944.00,2.62
5943.00,2.62
5942.00,2.62
5941.00,2.62
5940.00,2.62
5939.00,2.62
5938.00,2.61
5937.00,2.61
5936.00,2.61
5935.00,2.61
5934.00,2.61
5933.00,2.61
5932.00,2.61
5931.00,2.61
5930.00,2.61
5929.00,2.61
5928.00,2.61
5927.00,2.61
5926.00,2.61
5925.00,2.61
5924.00,2.61
5923.00,2.61
5922.00,2.61
5921.00,2.61
5920.00,2.61
5919.00,2.60
5918.00,2.60
5917.00,2.60
5916.00,2.60
5915.00,2.60
5914.00,2.60
5913.00,2.60
5912.00,2.60
5911.00,2.60
5910.00,2.60
5909.00,2.60
5908.00,2.59
5907.00,2.59
5906.00,2.59
5905.00,2.59
5904.00,2.59
5903.00,2.59
5902.00,2.59
5901.00,2.59
5900.00,2.59
5899.00,2.59
5898.00,2.60
5897.00,2.60
5896.00,2.60
5895.00,2.60
5894.00,2.60
5893.00,2.60
5892.00,2.60
5891.00,2.60
5890.00,2.61
5889.00,2.61
5888.00,2.61
5887.00,2.61
5886.00,2.61
5885.00,2.61
5884.00,2.61
5883.00,2.61
5882.00,2.61
5881.00,2.61
5880.00,2.61
5879.00,2.62
5878.00,2.62
5877.00,2.62
5876.00,2.62
5875.00,2.62
5874.00,2.63
5873.00,2.63
5872.00,2.63
5871.00,2.63
5870.00,2.64
5869.00,2.64
5868.00,2.64
5867.00,2.64
5866.00,2.64
5865.00,2.64
5864.00,2.65
5863.00,2.65
5862.00,2.65
5861.00,2.65
5860.00,2.66
5859.00,2.66
5858.00,2.66
5857.00,2.66
5856.00,2.67
5855.00,2.67
5854.00,2.67
5853.00,2.67
5852.00,2.67
5851.00,2.66
5850.00,2.66
5849.00,2.66
5848.00,2.66
5847.00,2.66
5846.00,2.66
5845.00,2.66
5844.00,2.66
5843.00,2.66
5842.00,2.66
5841.00,2.66
5840.00,2.66
5839.00,2.65
5838.00,2.65
5837.00,2.65
5836.00,2.65
5835.00,2.65
5834.00,2.65
5833.00,2.64
5832.00,2.64
5831.00,2.64
5830.00,2.64
5829.00,2.64
5828.00,2.64
5827.00,2.64
5826.00,2.64
5825.00,2.64
5824.00,2.64
5823.00,2.64
5822.00,2.64
5821.00,2.64
5820.00,2.64
5819.00,2.64
5818.00,2.64
5817.00,2.64
5816.00,2.64
5815.00,2.64
5814.00,2.64
5813.00,2.64
5812.00,2.64
5811.00,2.64
5810.00,2.64
5809.00,2.64
5808.00,2.64
5807.00,2.64
5806.00,2.64
5805.00,2.64
5804.00,2.64
5803.00,2.64
5802.00,2.64
5801.00,2.63
5800.00,2.63
5799.00,2.63
5798.00,2.63
5797.00,2.63
5796.00,2.63
5795.00,2.63
5794.00,2.63
5793.00,2.63
5792.00,2.62
5791.00,2.62
5790.00,2.62
5789.00,2.62
5788.00,2.61
5787.00,2.61
5786.00,2.61
5785.00,2.61
5784.00,2.60
5783.00,2.60
5782.00,2.60
5781.00,2.60
5780.00,2.60
5779.00,2.59
5778.00,2.59
5777.00,2.59
5776.00,2.59
5775.00,2.59
5774.00,2.59
5773.00,2.59
5772.00,2.59
5771.00,2.59
5770.00,2.59
5769.00,2.59
5768.00,2.59
5767.00,2.59
5766.00,2.59
5765.00,2.59
5764.00,2.59
5763.00,2.59
5762.00,2.59
5761.00,2.59
5760.00,2.60
5759.00,2.60
5758.00,2.60
5757.00,2.60
5756.00,2.60
5755.00,2.60
5754.00,2.60
5753.00,2.60
5752.00,2.60
5751.00,2.61
5750.00,2.61
5749.00,2.61
5748.00,2.61
5747.00,2.61
5746.00,2.61
5745.00,2.61
5744.00,2.61
5743.00,2.61
5742.00,2.61
5741.00,2.61
5740.00,2.61
5739.00,2.61
5738.00,2.61
5737.00,2.61
5736.00,2.61
5735.00,2.61
5734.00,2.61
5733.00,2.61
5732.00,2.61
5731.00,2.61
5730.00,2.61
5729.00,2.61
5728.00,2.61
5727.00,2.61
5726.00,2.61
5725.00,2.61
5724.00,2.61
5723.00,2.61
5722.00,2.61
5721.00,2.61
5720.00,2.61
5719.00,2.61
5718.00,2.61
5717.00,2.61
5716.00,2.61
5715.00,2.61
5714.00,2.61
5713.00,2.61
5712.00,2.61
5711.00,2.61
5710.00,2.60
5709.00,2.60
5708.00,2.60
5707.00,2.60
5706.00,2.60
5705.00,2.60
5704.00,2.60
5703.00,2.60
5702.00,2.60
5701.00,2.60
5700.00,2.60
5699.00,2.60
5698.00,2.60
5697.00,2.59
5696.00,2.59
5695.00,2.59
5694.00,2.59
5693.00,2.59
5692.00,2.59
5691.00,2.59
5690.00,2.59
5689.00,2.59
5688.00,2.59
5687.00,2.59
5686.00,2.59
5685.00,2.59
5684.00,2.59
5683.00,2.59
5682.00,2.59
5681.00,2.59
5680.00,2.59
5679.00,2.59
5678.00,2.60
5677.00,2.60
5676.00,2.60
5675.00,2.60
5674.00,2.61
5673.00,2.61
5672.00,2.61
5671.00,2.62
5670.00,2.62
5669.00,2.63
5668.00,2.63
5667.00,2.63
5666.00,2.64
5665.00,2.64
5664.00,2.65
5663.00,2.65
5662.00,2.65
5661.00,2.66
5660.00,2.66
5659.00,2.67
5658.00,2.67
5657.00,2.67
5656.00,2.68
5655.00,2.68
5654.00,2.68
5653.00,2.68
5652.00,2.69
5651.00,2.69
5650.00,2.69
5649.00,2.69
5648.00,2.69
5647.00,2.68
5646.00,2.68
5645.00,2.68
5644.00,2.68
5643.00,2.68
5642.00,2.68
5641.00,2.67
5640.00,2.67
5639.00,2.67
5638.00,2.66
5637.00,2.66
5636.00,2.66
5635.00,2.65
5634.00,2.65
5633.00,2.65
5632.00,2.64
5631.00,2.64
5630.00,2.63
5629.00,2.63
5628.00,2.63
5627.00,2.62
5626.00,2.62
5625.00,2.62
5624.00,2.62
5623.00,2.62
5622.00,2.61
5621.00,2.61
5620.00,2.61
5619.00,2.61
5618.00,2.61
5617.00,2.61
5616.00,2.61
5615.00,2.62
5614.00,2.62
5613.00,2.62
5612.00,2.62
5611.00,2.62
5610.00,2.62
5609.00,2.62
5608.00,2.63
5607.00,2.63
5606.00,2.63
5605.00,2.63
5604.00,2.64
5603.00,2.64
5602.00,2.64
5601.00,2.64
5600.00,2.64
5599.00,2.64
5598.00,2.64
5597.00,2.64
5596.00,2.65
5595.00,2.65
5594.00,2.65
5593.00,2.65
5592.00,2.65
5591.00,2.65
5590.00,2.65
5589.00,2.65
5588.00,2.65
5587.00,2.65
5586.00,2.65
5585.00,2.65
5584.00,2.65
5583.00,2.65
5582.00,2.65
5581.00,2.65
5580.00,2.65
5579.00,2.65
5578.00,2.65
5577.00,2.66
5576.00,2.66
5575.00,2.66
5574.00,2.66
5573.00,2.66
5572.00,2.66
5571.00,2.67
5570.00,2.67
5569.00,2.67
5568.00,2.67
5567.00,2.68
5566.00,2.68
5565.00,2.68
5564.00,2.68
5563.00,2.68
5562.00,2.68
5561.00,2.68
5560.00,2.69
5559.00,2.69
5558.00,2.69
5557.00,2.69
5556.00,2.69
5555.00,2.69
5554.00,2.69
5553.00,2.69
5552.00,2.69
5551.00,2.69
5550.00,2.69
5549.00,2.69
5548.00,2.69
5547.00,2.69
5546.00,2.69
5545.00,2.69
5544.00,2.69
5543.00,2.69
5542.00,2.69
5541.00,2.69
5540.00,2.69
5539.00,2.69
5538.00,2.69
5537.00,2.69
5536.00,2.68
5535.00,2.68
5534.00,2.68
5533.00,2.68
5532.00,2.68
5531.00,2.68
5530.00,2.68
5529.00,2.68
5528.00,2.68
5527.00,2.68
5526.00,2.68
5525.00,2.68
5524.00,2.68
5523.00,2.68
5522.00,2.69
5521.00,2.69
5520.00,2.69
5519.00,2.69
5518.00,2.70
5517.00,2.70
5516.00,2.70
5515.00,2.71
5514.00,2.71
5513.00,2.71
5512.00,2.72
5511.00,2.72
5510.00,2.73
5509.00,2.73
5508.00,2.74
5507.00,2.74
5506.00,2.75
5505.00,2.75
5504.00,2.76
5503.00,2.76
5502.00,2.76
5501.00,2.77
5500.00,2.77
5499.00,2.78
5498.00,2.78
5497.00,2.79
5496.00,2.79
5495.00,2.79
5494.00,2.79
5493.00,2.80
5492.00,2.80
5491.00,2.80
5490.00,2.80
5489.00,2.80
5488.00,2.80
5487.00,2.80
5486.00,2.80
5485.00,2.80
5484.00,2.80
5483.00,2.80
5482.00,2.80
5481.00,2.80
5480.00,2.81
5479.00,2.81
5478.00,2.81
5477.00,2.81
5476.00,2.81
5475.00,2.81
5474.00,2.82
5473.00,2.82
5472.00,2.82
5471.00,2.82
5470.00,2.82
5469.00,2.82
5468.00,2.82
5467.00,2.83
5466.00,2.83
5465.00,2.83
5464.00,2.83
5463.00,2.84
5462.00,2.84
5461.00,2.84
5460.00,2.85
5459.00,2.85
5458.00,2.85
5457.00,2.85
5456.00,2.85
5455.00,2.85
5454.00,2.85
5453.00,2.85
5452.00,2.85
5451.00,2.85
5450.00,2.84
5449.00,2.84
5448.00,2.84
5447.00,2.84
5446.00,2.84
5445.00,2.83
5444.00,2.83
5443.00,2.83
5442.00,2.82
5441.00,2.82
5440.00,2.81
5439.00,2.81
5438.00,2.80
5437.00,2.79
5436.00,2.79
5435.00,2.78
5434.00,2.77
5433.00,2.77
5432.00,2.76
5431.00,2.75
5430.00,2.74
5429.00,2.74
5428.00,2.73
5427.00,2.72
5426.00,2.71
5425.00,2.71
5424.00,2.70
5423.00,2.69
5422.00,2.68
5421.00,2.67
5420.00,2.67
5419.00,2.66
5418.00,2.65
5417.00,2.64
5416.00,2.64
5415.00,2.63
5414.00,2.63
5413.00,2.62
5412.00,2.62
5411.00,2.61
5410.00,2.61
5409.00,2.60
5408.00,2.60
5407.00,2.60
5406.00,2.60
5405.00,2.60
5404.00,2.60
5403.00,2.59
5402.00,2.59
5401.00,2.59
5400.00,2.59
5399.00,2.59
5398.00,2.59
5397.00,2.59
5396.00,2.59
5395.00,2.59
5394.00,2.59
5393.00,2.59
5392.00,2.58
5391.00,2.58
5390.00,2.58
5389.00,2.58
5388.00,2.58
5387.00,2.58
5386.00,2.58
5385.00,2.58
5384.00,2.57
5383.00,2.57
5382.00,2.57
5381.00,2.57
5380.00,2.57
5379.00,2.56
5378.00,2.56
5377.00,2.56
5376.00,2.55
5375.00,2.55
5374.00,2.55
5373.00,2.55
5372.00,2.55
5371.00,2.55
5370.00,2.54
5369.00,2.54
5368.00,2.54
5367.00,2.54
5366.00,2.54
5365.00,2.54
5364.00,2.53
5363.00,2.53
5362.00,2.53
5361.00,2.52
5360.00,2.52
5359.00,2.51
5358.00,2.51
5357.00,2.50
5356.00,2.50
5355.00,2.49
5354.00,2.48
5353.00,2.47
5352.00,2.46
5351.00,2.45
5350.00,2.44
5349.00,2.43
5348.00,2.42
5347.00,2.41
5346.00,2.40
5345.00,2.38
5344.00,2.37
5343.00,2.36
5342.00,2.34
5341.00,2.33
5340.00,2.31
5339.00,2.30
5338.00,2.28
5337.00,2.26
5336.00,2.24
5335.00,2.22
5334.00,2.21
5333.00,2.19
5332.00,2.17
5331.00,2.15
5330.00,2.13
5329.00,2.11
5328.00,2.09
5327.00,2.08
5326.00,2.06
5325.00,2.04
5324.00,2.02
5323.00,2.00
5322.00,1.98
5321.00,1.96
5320.00,1.94
5319.00,1.92
5318.00,1.90
5317.00,1.88
5316.00,1.86
5315.00,1.85
5314.00,1.83
5313.00,1.81
5312.00,1.79
5311.00,1.78
5310.00,1.76
5309.00,1.74
5308.00,1.73
5307.00,1.71
5306.00,1.70
5305.00,1.68
5304.00,1.67
5303.00,1.65
5302.00,1.64
5301.00,1.63
5300.00,1.61
5299.00,1.60
5298.00,1.59
5297.00,1.57
5296.00,1.56
5295.00,1.55
5294.00,1.54
5293.00,1.53
5292.00,1.52
5291.00,1.51
5290.00,1.50
5289.00,1.48
5288.00,1.47
5287.00,1.46
5286.00,1.45
5285.00,1.44
5284.00,1.43
5283.00,1.41
5282.00,1.40
5281.00,1.39
5280.00,1.38
5279.00,1.37
5278.00,1.36
5277.00,1.35
5276.00,1.34
5275.00,1.33
5274.00,1.32
5273.00,1.31
5272.00,1.30
5271.00,1.29
5270.00,1.28
5269.00,1.28
5268.00,1.27
5267.00,1.26
5266.00,1.25
5265.00,1.25
5264.00,1.24
5263.00,1.23
5262.00,1.23
5261.00,1.23
5260.00,1.22
5259.00,1.22
5258.00,1.22
5257.00,1.22
5256.00,1.21
5255.00,1.21
5254.00,1.21
5253.00,1.20
5252.00,1.20
5251.00,1.20
5250.00,1.20
5249.00,1.19
5248.00,1.19
5247.00,1.19
5246.00,1.19
5245.00,1.19
5244.00,1.19
5243.00,1.19
5242.00,1.19
5241.00,1.19
5240.00,1.18
5239.00,1.18
5238.00,1.18
5237.00,1.18
5236.00,1.18
5235.00,1.18
5234.00,1.18
5233.00,1.18
5232.00,1.18
5231.00,1.17
5230.00,1.17
5229.00,1.17
5228.00,1.18
5227.00,1.18
5226.00,1.18
5225.00,1.18
5224.00,1.19
5223.00,1.19
5222.00,1.19
5221.00,1.19
5220.00,1.20
5219.00,1.20
5218.00,1.20
5217.00,1.20
5216.00,1.21
5215.00,1.21
5214.00,1.21
5213.00,1.21
5212.00,1.22
5211.00,1.22
5210.00,1.22
5209.00,1.22
5208.00,1.23
5207.00,1.23
5206.00,1.23
5205.00,1.23
5204.00,1.24
5203.00,1.24
5202.00,1.24
5201.00,1.24
5200.00,1.24
5199.00,1.24
5198.00,1.24
5197.00,1.23
5196.00,1.23
5195.00,1.23
5194.00,1.23
5193.00,1.23
5192.00,1.23
5191.00,1.23
5190.00,1.23
5189.00,1.23
5188.00,1.23
5187.00,1.23
5186.00,1.22
5185.00,1.22
5184.00,1.22
5183.00,1.22
5182.00,1.22
5181.00,1.22
5180.00,1.21
5179.00,1.21
5178.00,1.21
5177.00,1.21
5176.00,1.21
5175.00,1.21
5174.00,1.21
5173.00,1.21
5172.00,1.21
5171.00,1.21
5170.00,1.21
5169.00,1.21
5168.00,1.21
5167.00,1.21
5166.00,1.20
5165.00,1.20
5164.00,1.20
5163.00,1.20
5162.00,1.20
5161.00,1.20
5160.00,1.20
5159.00,1.20
5158.00,1.20
5157.00,1.20
5156.00,1.20
5155.00,1.20
5154.00,1.20
5153.00,1.20
5152.00,1.20
5151.00,1.20
5150.00,1.20
5149.00,1.20
5148.00,1.20
5147.00,1.20
5146.00,1.20
5145.00,1.20
5144.00,1.20
5143.00,1.20
5142.00,1.20
5141.00,1.20
5140.00,1.20
5139.00,1.20
5138.00,1.20
5137.00,1.20
5136.00,1.20
5135.00,1.20
5134.00,1.20
5133.00,1.20
5132.00,1.19
5131.00,1.19
5130.00,1.19
5129.00,1.19
5128.00,1.19
5127.00,1.19
5126.00,1.19
5125.00,1.19
5124.00,1.19
5123.00,1.19
5122.00,1.19
5121.00,1.19
5120.00,1.19
5119.00,1.19
5118.00,1.19
5117.00,1.19
5116.00,1.19
5115.00,1.20
5114.00,1.20
5113.00,1.20
5112.00,1.20
5111.00,1.20
5110.00,1.20
5109.00,1.21
5108.00,1.21
5107.00,1.21
5106.00,1.21
5105.00,1.22
5104.00,1.22
5103.00,1.23
5102.00,1.23
5101.00,1.23
5100.00,1.24
5099.00,1.24
5098.00,1.25
5097.00,1.25
5096.00,1.26
5095.00,1.27
5094.00,1.27
5093.00,1.28
5092.00,1.29
5091.00,1.29
5090.00,1.30
5089.00,1.31
5088.00,1.31
5087.00,1.32
5086.00,1.32
5085.00,1.33
5084.00,1.34
5083.00,1.34
5082.00,1.35
5081.00,1.35
5080.00,1.35
5079.00,1.36
5078.00,1.36
5077.00,1.36
5076.00,1.36
5075.00,1.36
5074.00,1.37
5073.00,1.37
5072.00,1.37
5071.00,1.37
5070.00,1.37
5069.00,1.37
5068.00,1.37
5067.00,1.37
5066.00,1.37
5065.00,1.37
5064.00,1.37
5063.00,1.38
5062.00,1.38
5061.00,1.38
5060.00,1.38
5059.00,1.38
5058.00,1.38
5057.00,1.38
5056.00,1.38
5055.00,1.39
5054.00,1.39
5053.00,1.39
5052.00,1.40
5051.00,1.40
5050.00,1.41
5049.00,1.41
5048.00,1.42
5047.00,1.42
5046.00,1.43
5045.00,1.43
5044.00,1.44
5043.00,1.44
5042.00,1.44
5041.00,1.45
5040.00,1.45
5039.00,1.46
5038.00,1.46
5037.00,1.47
5036.00,1.47
5035.00,1.47
5034.00,1.48
5033.00,1.48
5032.00,1.48
5031.00,1.49
5030.00,1.49
5029.00,1.49
5028.00,1.49
5027.00,1.49
5026.00,1.49
5025.00,1.49
5024.00,1.49
5023.00,1.49
5022.00,1.48
5021.00,1.48
5020.00,1.48
5019.00,1.48
5018.00,1.47
5017.00,1.47
5016.00,1.47
5015.00,1.47
5014.00,1.46
5013.00,1.46
5012.00,1.46
5011.00,1.46
5010.00,1.45
5009.00,1.45
5008.00,1.45
5007.00,1.45
5006.00,1.44
5005.00,1.44
5004.00,1.44
5003.00,1.44
5002.00,1.44
5001.00,1.44
5000.00,1.44
4999.00,1.44
4998.00,1.44
4997.00,1.44
4996.00,1.44
4995.00,1.45
4994.00,1.45
4993.00,1.45
4992.00,1.46
4991.00,1.46
4990.00,1.47
4989.00,1.47
4988.00,1.47
4987.00,1.48
4986.00,1.48
4985.00,1.48
4984.00,1.49
4983.00,1.49
4982.00,1.49
4981.00,1.50
4980.00,1.50
4979.00,1.51
4978.00,1.52
4977.00,1.52
4976.00,1.53
4975.00,1.53
4974.00,1.54
4973.00,1.55
4972.00,1.55
4971.00,1.56
4970.00,1.56
4969.00,1.57
4968.00,1.57
4967.00,1.57
4966.00,1.58
4965.00,1.58
4964.00,1.59
4963.00,1.59
4962.00,1.59
4961.00,1.60
4960.00,1.60
4959.00,1.61
4958.00,1.62
4957.00,1.62
4956.00,1.62
4955.00,1.63
4954.00,1.63
4953.00,1.63
4952.00,1.64
4951.00,1.64
4950.00,1.64
4949.00,1.64
4948.00,1.64
4947.00,1.64
4946.00,1.64
4945.00,1.65
4944.00,1.65
4943.00,1.65
4942.00,1.66
4941.00,1.66
4940.00,1.66
4939.00,1.67
4938.00,1.67
4937.00,1.67
4936.00,1.67
4935.00,1.68
4934.00,1.68
4933.00,1.68
4932.00,1.69
4931.00,1.69
4930.00,1.70
4929.00,1.70
4928.00,1.71
4927.00,1.71
4926.00,1.72
4925.00,1.72
4924.00,1.73
4923.00,1.74
4922.00,1.74
4921.00,1.75
4920.00,1.75
4919.00,1.76
4918.00,1.76
4917.00,1.77
4916.00,1.77
4915.00,1.77
4914.00,1.78
4913.00,1.78
4912.00,1.79
4911.00,1.79
4910.00,1.80
4909.00,1.80
4908.00,1.81
4907.00,1.81
4906.00,1.81
4905.00,1.82
4904.00,1.82
4903.00,1.82
4902.00,1.83
4901.00,1.83
4900.00,1.83
4899.00,1.84
4898.00,1.84
4897.00,1.85
4896.00,1.85
4895.00,1.86
4894.00,1.86
4893.00,1.87
4892.00,1.88
4891.00,1.88
4890.00,1.89
4889.00,1.89
4888.00,1.90
4887.00,1.90
4886.00,1.90
4885.00,1.91
4884.00,1.91
4883.00,1.91
4882.00,1.91
4881.00,1.91
4880.00,1.92
4879.00,1.92
4878.00,1.92
4877.00,1.92
4876.00,1.93
4875.00,1.93
4874.00,1.93
4873.00,1.93
4872.00,1.94
4871.00,1.94
4870.00,1.94
4869.00,1.94
4868.00,1.94
4867.00,1.94
4866.00,1.94
4865.00,1.94
4864.00,1.94
4863.00,1.94
4862.00,1.95
4861.00,1.95
4860.00,1.96
4859.00,1.96
4858.00,1.97
4857.00,1.98
4856.00,1.98
4855.00,1.99
4854.00,2.00
4853.00,2.00
4852.00,2.01
4851.00,2.02
4850.00,2.02
4849.00,2.03
4848.00,2.04
4847.00,2.05
4846.00,2.05
4845.00,2.06
4844.00,2.07
4843.00,2.08
4842.00,2.09
4841.00,2.09
4840.00,2.10
4839.00,2.11
4838.00,2.11
4837.00,2.12
4836.00,2.12
4835.00,2.13
4834.00,2.13
4833.00,2.14
4832.00,2.14
4831.00,2.14
4830.00,2.14
4829.00,2.15
4828.00,2.15
4827.00,2.15
4826.00,2.15
4825.00,2.16
4824.00,2.16
4823.00,2.16
4822.00,2.16
4821.00,2.16
4820.00,2.16
4819.00,2.16
4818.00,2.16
4817.00,2.16
4816.00,2.16
4815.00,2.17
4814.00,2.17
4813.00,2.17
4812.00,2.17
4811.00,2.17
4810.00,2.17
4809.00,2.18
4808.00,2.18
4807.00,2.18
4806.00,2.19
4805.00,2.19
4804.00,2.19
4803.00,2.19
4802.00,2.20
4801.00,2.20
4800.00,2.20
4799.00,2.20
4798.00,2.20
4797.00,2.21
4796.00,2.21
4795.00,2.21
4794.00,2.21
4793.00,2.22
4792.00,2.22
4791.00,2.22
4790.00,2.23
4789.00,2.23
4788.00,2.23
4787.00,2.24
4786.00,2.24
4785.00,2.25
4784.00,2.25
4783.00,2.25
4782.00,2.26
4781.00,2.26
4780.00,2.26
4779.00,2.27
4778.00,2.27
4777.00,2.28
4776.00,2.28
4775.00,2.29
4774.00,2.30
4773.00,2.30
4772.00,2.31
4771.00,2.31
4770.00,2.32
4769.00,2.33
4768.00,2.33
4767.00,2.34
4766.00,2.34
4765.00,2.35
4764.00,2.35
4763.00,2.36
4762.00,2.37
4761.00,2.37
4760.00,2.37
4759.00,2.38
4758.00,2.38
4757.00,2.39
4756.00,2.39
4755.00,2.40
4754.00,2.40
4753.00,2.40
4752.00,2.40
4751.00,2.41
4750.00,2.41
4749.00,2.41
4748.00,2.41
4747.00,2.42
4746.00,2.42
4745.00,2.42
4744.00,2.43
4743.00,2.43
4742.00,2.43
4741.00,2.43
4740.00,2.44
4739.00,2.44
4738.00,2.44
4737.00,2.45
4736.00,2.45
4735.00,2.46
4734.00,2.46
4733.00,2.47
4732.00,2.47
4731.00,2.48
4730.00,2.48
4729.00,2.49
4728.00,2.49
4727.00,2.50
4726.00,2.51
4725.00,2.52
4724.00,2.53
4723.00,2.53
4722.00,2.54
4721.00,2.55
4720.00,2.56
4719.00,2.56
4718.00,2.57
4717.00,2.58
4716.00,2.58
4715.00,2.59
4714.00,2.60
4713.00,2.60
4712.00,2.61
4711.00,2.61
4710.00,2.62
4709.00,2.62
4708.00,2.63
4707.00,2.63
4706.00,2.64
4705.00,2.64
4704.00,2.65
4703.00,2.65
4702.00,2.66
4701.00,2.66
4700.00,2.66
4699.00,2.67
4698.00,2.67
4697.00,2.67
4696.00,2.68
4695.00,2.68
4694.00,2.68
4693.00,2.68
4692.00,2.68
4691.00,2.69
4690.00,2.69
4689.00,2.69
4688.00,2.69
4687.00,2.70
4686.00,2.70
4685.00,2.70
4684.00,2.71
4683.00,2.71
4682.00,2.71
4681.00,2.72
4680.00,2.72
4679.00,2.72
4678.00,2.72
4677.00,2.73
4676.00,2.73
4675.00,2.73
4674.00,2.73
4673.00,2.73
4672.00,2.74
4671.00,2.74
4670.00,2.74
4669.00,2.75
4668.00,2.75
4667.00,2.75
4666.00,2.75
4665.00,2.75
4664.00,2.76
4663.00,2.76
4662.00,2.76
4661.00,2.76
4660.00,2.77
4659.00,2.77
4658.00,2.77
4657.00,2.77
4656.00,2.77
4655.00,2.77
4654.00,2.77
4653.00,2.78
4652.00,2.78
4651.00,2.78
4650.00,2.78
4649.00,2.78
4648.00,2.78
4647.00,2.78
4646.00,2.78
4645.00,2.79
4644.00,2.79
4643.00,2.79
4642.00,2.79
4641.00,2.79
4640.00,2.79
4639.00,2.79
4638.00,2.79
4637.00,2.80
4636.00,2.80
4635.00,2.80
4634.00,2.79
4633.00,2.79
4632.00,2.79
4631.00,2.79
4630.00,2.79
4629.00,2.79
4628.00,2.80
4627.00,2.80
4626.00,2.80
4625.00,2.80
4624.00,2.80
4623.00,2.80
4622.00,2.80
4621.00,2.80
4620.00,2.80
4619.00,2.80
4618.00,2.80
4617.00,2.80
4616.00,2.80
4615.00,2.80
4614.00,2.80
4613.00,2.80
4612.00,2.80
4611.00,2.80
4610.00,2.80
4609.00,2.81
4608.00,2.81
4607.00,2.81
4606.00,2.81
4605.00,2.81
4604.00,2.81
4603.00,2.81
4602.00,2.81
4601.00,2.80
4600.00,2.80
4599.00,2.80
4598.00,2.80
4597.00,2.80
4596.00,2.80
4595.00,2.80
4594.00,2.80
4593.00,2.80
4592.00,2.80
4591.00,2.80
4590.00,2.80
4589.00,2.80
4588.00,2.80
4587.00,2.80
4586.00,2.80
4585.00,2.80
4584.00,2.80
4583.00,2.80
4582.00,2.80
4581.00,2.80
4580.00,2.80
4579.00,2.80
4578.00,2.80
4577.00,2.80
4576.00,2.80
4575.00,2.80
4574.00,2.79
4573.00,2.79
4572.00,2.79
4571.00,2.79
4570.00,2.79
4569.00,2.79
4568.00,2.79
4567.00,2.79
4566.00,2.79
4565.00,2.79
4564.00,2.79
4563.00,2.79
4562.00,2.79
4561.00,2.79
4560.00,2.79
4559.00,2.79
4558.00,2.79
4557.00,2.79
4556.00,2.79
4555.00,2.79
4554.00,2.79
4553.00,2.79
4552.00,2.79
4551.00,2.79
4550.00,2.80
4549.00,2.80
4548.00,2.80
4547.00,2.81
4546.00,2.81
4545.00,2.81
4544.00,2.82
4543.00,2.82
4542.00,2.83
4541.00,2.83
4540.00,2.84
4539.00,2.84
4538.00,2.85
4537.00,2.85
4536.00,2.86
4535.00,2.86
4534.00,2.86
4533.00,2.87
4532.00,2.87
4531.00,2.87
4530.00,2.87
4529.00,2.88
4528.00,2.88
4527.00,2.88
4526.00,2.88
4525.00,2.88
4524.00,2.89
4523.00,2.89
4522.00,2.89
4521.00,2.89
4520.00,2.89
4519.00,2.89
4518.00,2.89
4517.00,2.89
4516.00,2.89
4515.00,2.88
4514.00,2.88
4513.00,2.88
4512.00,2.88
4511.00,2.88
4510.00,2.88
4509.00,2.88
4508.00,2.88
4507.00,2.88
4506.00,2.88
4505.00,2.88
4504.00,2.88
4503.00,2.89
4502.00,2.89
4501.00,2.89
4500.00,2.89
4499.00,2.89
4498.00,2.89
4497.00,2.88
4496.00,2.88
4495.00,2.88
4494.00,2.88
4493.00,2.88
4492.00,2.88
4491.00,2.88
4490.00,2.88
4489.00,2.88
4488.00,2.88
4487.00,2.88
4486.00,2.88
4485.00,2.88
4484.00,2.88
4483.00,2.87
4482.00,2.87
4481.00,2.87
4480.00,2.86
4479.00,2.86
4478.00,2.85
4477.00,2.85
4476.00,2.84
4475.00,2.84
4474.00,2.84
4473.00,2.83
4472.00,2.83
4471.00,2.83
4470.00,2.83
4469.00,2.82
4468.00,2.82
4467.00,2.82
4466.00,2.81
4465.00,2.81
4464.00,2.81
4463.00,2.80
4462.00,2.80
4461.00,2.80
4460.00,2.80
4459.00,2.79
4458.00,2.79
4457.00,2.79
4456.00,2.79
4455.00,2.79
4454.00,2.79
4453.00,2.78
4452.00,2.78
4451.00,2.78
4450.00,2.78
4449.00,2.77
4448.00,2.77
4447.00,2.77
4446.00,2.76
4445.00,2.76
4444.00,2.75
4443.00,2.75
4442.00,2.74
4441.00,2.74
4440.00,2.73
4439.00,2.73
4438.00,2.72
4437.00,2.71
4436.00,2.71
4435.00,2.70
4434.00,2.69
4433.00,2.68
4432.00,2.67
4431.00,2.66
4430.00,2.66
4429.00,2.65
4428.00,2.64
4427.00,2.63
4426.00,2.62
4425.00,2.61
4424.00,2.60
4423.00,2.59
4422.00,2.59
4421.00,2.58
4420.00,2.57
4419.00,2.57
4418.00,2.56
4417.00,2.55
4416.00,2.55
4415.00,2.54
4414.00,2.53
4413.00,2.53
4412.00,2.53
4411.00,2.52
4410.00,2.52
4409.00,2.52
4408.00,2.52
4407.00,2.52
4406.00,2.53
4405.00,2.53
4404.00,2.53
4403.00,2.54
4402.00,2.54
4401.00,2.54
4400.00,2.55
4399.00,2.56
4398.00,2.56
4397.00,2.57
4396.00,2.58
4395.00,2.59
4394.00,2.60
4393.00,2.61
4392.00,2.62
4391.00,2.63
4390.00,2.64
4389.00,2.65
4388.00,2.66
4387.00,2.67
4386.00,2.68
4385.00,2.69
4384.00,2.69
4383.00,2.70
4382.00,2.71
4381.00,2.71
4380.00,2.72
4379.00,2.72
4378.00,2.72
4377.00,2.73
4376.00,2.73
4375.00,2.73
4374.00,2.74
4373.00,2.74
4372.00,2.74
4371.00,2.74
4370.00,2.73
4369.00,2.73
4368.00,2.72
4367.00,2.72
4366.00,2.71
4365.00,2.70
4364.00,2.70
4363.00,2.69
4362.00,2.68
4361.00,2.67
4360.00,2.66
4359.00,2.66
4358.00,2.65
4357.00,2.64
4356.00,2.64
4355.00,2.63
4354.00,2.63
4353.00,2.62
4352.00,2.62
4351.00,2.61
4350.00,2.61
4349.00,2.60
4348.00,2.60
4347.00,2.59
4346.00,2.59
4345.00,2.59
4344.00,2.59
4343.00,2.59
4342.00,2.59
4341.00,2.59
4340.00,2.59
4339.00,2.59
4338.00,2.60
4337.00,2.60
4336.00,2.61
4335.00,2.62
4334.00,2.63
4333.00,2.63
4332.00,2.64
4331.00,2.65
4330.00,2.66
4329.00,2.67
4328.00,2.67
4327.00,2.68
4326.00,2.69
4325.00,2.70
4324.00,2.71
4323.00,2.72
4322.00,2.74
4321.00,2.75
4320.00,2.76
4319.00,2.76
4318.00,2.77
4317.00,2.78
4316.00,2.79
4315.00,2.80
4314.00,2.81
4313.00,2.81
4312.00,2.82
4311.00,2.83
4310.00,2.84
4309.00,2.84
4308.00,2.85
4307.00,2.85
4306.00,2.86
4305.00,2.86
4304.00,2.86
4303.00,2.87
4302.00,2.87
4301.00,2.87
4300.00,2.87
4299.00,2.87
4298.00,2.87
4297.00,2.87
4296.00,2.87
4295.00,2.87
4294.00,2.86
4293.00,2.86
4292.00,2.86
4291.00,2.86
4290.00,2.86
4289.00,2.86
4288.00,2.86
4287.00,2.86
4286.00,2.85
4285.00,2.85
4284.00,2.85
4283.00,2.84
4282.00,2.84
4281.00,2.84
4280.00,2.83
4279.00,2.83
4278.00,2.83
4277.00,2.83
4276.00,2.82
4275.00,2.82
4274.00,2.82
4273.00,2.82
4272.00,2.82
4271.00,2.82
4270.00,2.81
4269.00,2.82
4268.00,2.82
4267.00,2.82
4266.00,2.82
4265.00,2.82
4264.00,2.82
4263.00,2.82
4262.00,2.82
4261.00,2.82
4260.00,2.82
4259.00,2.82
4258.00,2.82
4257.00,2.82
4256.00,2.81
4255.00,2.81
4254.00,2.81
4253.00,2.81
4252.00,2.81
4251.00,2.81
4250.00,2.81
4249.00,2.80
4248.00,2.80
4247.00,2.80
4246.00,2.80
4245.00,2.80
4244.00,2.80
4243.00,2.80
4242.00,2.79
4241.00,2.79
4240.00,2.78
4239.00,2.78
4238.00,2.77
4237.00,2.77
4236.00,2.77
4235.00,2.76
4234.00,2.76
4233.00,2.75
4232.00,2.75
4231.00,2.74
4230.00,2.74
4229.00,2.74
4228.00,2.74
4227.00,2.74
4226.00,2.73
4225.00,2.73
4224.00,2.73
4223.00,2.73
4222.00,2.72
4221.00,2.72
4220.00,2.71
4219.00,2.71
4218.00,2.70
4217.00,2.70
4216.00,2.69
4215.00,2.69
4214.00,2.68
4213.00,2.68
4212.00,2.68
4211.00,2.67
4210.00,2.67
4209.00,2.67
4208.00,2.67
4207.00,2.67
4206.00,2.67
4205.00,2.67
4204.00,2.67
4203.00,2.67
4202.00,2.67
4201.00,2.67
4200.00,2.67
4199.00,2.67
4198.00,2.67
4197.00,2.67
4196.00,2.67
4195.00,2.68
4194.00,2.68
4193.00,2.68
4192.00,2.68
4191.00,2.69
4190.00,2.69
4189.00,2.69
4188.00,2.70
4187.00,2.70
4186.00,2.70
4185.00,2.70
4184.00,2.71
4183.00,2.71
4182.00,2.71
4181.00,2.71
4180.00,2.71
4179.00,2.71
4178.00,2.71
4177.00,2.72
4176.00,2.72
4175.00,2.72
4174.00,2.72
4173.00,2.72
4172.00,2.73
4171.00,2.73
4170.00,2.73
4169.00,2.73
4168.00,2.74
4167.00,2.74
4166.00,2.74
4165.00,2.74
4164.00,2.75
4163.00,2.75
4162.00,2.75
4161.00,2.75
4160.00,2.76
4159.00,2.76
4158.00,2.76
4157.00,2.76
4156.00,2.76
4155.00,2.77
4154.00,2.77
4153.00,2.77
4152.00,2.77
4151.00,2.77
4150.00,2.76
4149.00,2.76
4148.00,2.76
4147.00,2.76
4146.00,2.76
4145.00,2.76
4144.00,2.76
4143.00,2.76
4142.00,2.76
4141.00,2.75
4140.00,2.75
4139.00,2.74
4138.00,2.74
4137.00,2.73
4136.00,2.72
4135.00,2.72
4134.00,2.71
4133.00,2.70
4132.00,2.70
4131.00,2.69
4130.00,2.69
4129.00,2.68
4128.00,2.68
4127.00,2.68
4126.00,2.67
4125.00,2.67
4124.00,2.67
4123.00,2.67
4122.00,2.67
4121.00,2.66
4120.00,2.66
4119.00,2.66
4118.00,2.66
4117.00,2.66
4116.00,2.66
4115.00,2.66
4114.00,2.66
4113.00,2.66
4112.00,2.67
4111.00,2.67
4110.00,2.68
4109.00,2.69
4108.00,2.70
4107.00,2.71
4106.00,2.71
4105.00,2.72
4104.00,2.72
4103.00,2.73
4102.00,2.73
4101.00,2.73
4100.00,2.73
4099.00,2.73
4098.00,2.73
4097.00,2.73
4096.00,2.73
4095.00,2.72
4094.00,2.72
4093.00,2.71
4092.00,2.71
4091.00,2.71
4090.00,2.71
4089.00,2.70
4088.00,2.70
4087.00,2.70
4086.00,2.69
4085.00,2.68
4084.00,2.68
4083.00,2.67
4082.00,2.66
4081.00,2.65
4080.00,2.65
4079.00,2.64
4078.00,2.63
4077.00,2.63
4076.00,2.62
4075.00,2.62
4074.00,2.61
4073.00,2.61
4072.00,2.61
4071.00,2.61
4070.00,2.61
4069.00,2.62
4068.00,2.62
4067.00,2.63
4066.00,2.64
4065.00,2.64
4064.00,2.65
4063.00,2.65
4062.00,2.66
4061.00,2.66
4060.00,2.66
4059.00,2.67
4058.00,2.67
4057.00,2.67
4056.00,2.67
4055.00,2.67
4054.00,2.67
4053.00,2.68
4052.00,2.68
4051.00,2.68
4050.00,2.69
4049.00,2.69
4048.00,2.70
4047.00,2.70
4046.00,2.71
4045.00,2.71
4044.00,2.71
4043.00,2.71
4042.00,2.72
4041.00,2.72
4040.00,2.72
4039.00,2.71
4038.00,2.71
4037.00,2.71
4036.00,2.71
4035.00,2.72
4034.00,2.72
4033.00,2.73
4032.00,2.73
4031.00,2.74
4030.00,2.75
4029.00,2.76
4028.00,2.77
4027.00,2.78
4026.00,2.79
4025.00,2.80
4024.00,2.81
4023.00,2.82
4022.00,2.83
4021.00,2.84
4020.00,2.84
4019.00,2.85
4018.00,2.86
4017.00,2.86
4016.00,2.86
4015.00,2.87
4014.00,2.87
4013.00,2.87
4012.00,2.87
4011.00,2.87
4010.00,2.87
4009.00,2.87
4008.00,2.87
4007.00,2.86
4006.00,2.86
4005.00,2.85
4004.00,2.84
4003.00,2.83
4002.00,2.82
4001.00,2.81
4000.00,2.80
