创建为新数据集,样品 1216 用户 Administrator 日期 星期二, 七月 30 2019
cm-1,%T
10000.00,1.16
9998.00,1.15
9996.00,1.15
9994.00,1.15
9992.00,1.15
9990.00,1.14
9988.00,1.14
9986.00,1.14
9984.00,1.14
9982.00,1.14
9980.00,1.14
9978.00,1.14
9976.00,1.13
9974.00,1.13
9972.00,1.13
9970.00,1.13
9968.00,1.13
9966.00,1.13
9964.00,1.13
9962.00,1.12
9960.00,1.12
9958.00,1.12
9956.00,1.12
9954.00,1.12
9952.00,1.12
9950.00,1.12
9948.00,1.12
9946.00,1.12
9944.00,1.12
9942.00,1.12
9940.00,1.12
9938.00,1.12
9936.00,1.12
9934.00,1.12
9932.00,1.12
9930.00,1.12
9928.00,1.12
9926.00,1.12
9924.00,1.12
9922.00,1.12
9920.00,1.13
9918.00,1.13
9916.00,1.13
9914.00,1.13
9912.00,1.13
9910.00,1.14
9908.00,1.14
9906.00,1.14
9904.00,1.14
9902.00,1.15
9900.00,1.15
9898.00,1.15
9896.00,1.15
9894.00,1.15
9892.00,1.15
9890.00,1.15
9888.00,1.15
9886.00,1.15
9884.00,1.15
9882.00,1.15
9880.00,1.15
9878.00,1.15
9876.00,1.15
9874.00,1.15
9872.00,1.15
9870.00,1.15
9868.00,1.15
9866.00,1.15
9864.00,1.15
9862.00,1.14
9860.00,1.14
9858.00,1.14
9856.00,1.13
9854.00,1.13
9852.00,1.13
9850.00,1.12
9848.00,1.12
9846.00,1.12
9844.00,1.12
9842.00,1.11
9840.00,1.11
9838.00,1.11
9836.00,1.10
9834.00,1.10
9832.00,1.10
9830.00,1.10
9828.00,1.10
9826.00,1.09
9824.00,1.09
9822.00,1.09
9820.00,1.09
9818.00,1.09
9816.00,1.09
9814.00,1.08
9812.00,1.08
9810.00,1.08
9808.00,1.08
9806.00,1.08
9804.00,1.08
9802.00,1.08
9800.00,1.08
9798.00,1.08
9796.00,1.07
9794.00,1.07
9792.00,1.08
9790.00,1.08
9788.00,1.08
9786.00,1.08
9784.00,1.08
9782.00,1.08
9780.00,1.08
9778.00,1.08
9776.00,1.08
9774.00,1.08
9772.00,1.08
9770.00,1.08
9768.00,1.08
9766.00,1.08
9764.00,1.08
9762.00,1.08
9760.00,1.08
9758.00,1.08
9756.00,1.08
9754.00,1.08
9752.00,1.09
9750.00,1.09
9748.00,1.09
9746.00,1.09
9744.00,1.09
9742.00,1.09
9740.00,1.09
9738.00,1.09
9736.00,1.09
9734.00,1.09
9732.00,1.09
9730.00,1.09
9728.00,1.09
9726.00,1.09
9724.00,1.09
9722.00,1.09
9720.00,1.09
9718.00,1.09
9716.00,1.09
9714.00,1.09
9712.00,1.09
9710.00,1.09
9708.00,1.09
9706.00,1.09
9704.00,1.09
9702.00,1.09
9700.00,1.09
9698.00,1.09
9696.00,1.09
9694.00,1.09
9692.00,1.09
9690.00,1.09
9688.00,1.10
9686.00,1.10
9684.00,1.10
9682.00,1.10
9680.00,1.10
9678.00,1.10
9676.00,1.10
9674.00,1.10
9672.00,1.10
9670.00,1.10
9668.00,1.10
9666.00,1.10
9664.00,1.10
9662.00,1.10
9660.00,1.10
9658.00,1.09
9656.00,1.09
9654.00,1.09
9652.00,1.09
9650.00,1.09
9648.00,1.08
9646.00,1.08
9644.00,1.08
9642.00,1.07
9640.00,1.07
9638.00,1.07
9636.00,1.06
9634.00,1.06
9632.00,1.06
9630.00,1.05
9628.00,1.05
9626.00,1.05
9624.00,1.05
9622.00,1.05
9620.00,1.05
9618.00,1.04
9616.00,1.04
9614.00,1.04
9612.00,1.05
9610.00,1.05
9608.00,1.05
9606.00,1.05
9604.00,1.05
9602.00,1.05
9600.00,1.06
9598.00,1.06
9596.00,1.06
9594.00,1.06
9592.00,1.07
9590.00,1.07
9588.00,1.07
9586.00,1.07
9584.00,1.07
9582.00,1.08
9580.00,1.08
9578.00,1.08
9576.00,1.08
9574.00,1.08
9572.00,1.08
9570.00,1.08
9568.00,1.08
9566.00,1.08
9564.00,1.08
9562.00,1.08
9560.00,1.08
9558.00,1.07
9556.00,1.07
9554.00,1.07
9552.00,1.06
9550.00,1.06
9548.00,1.06
9546.00,1.05
9544.00,1.05
9542.00,1.05
9540.00,1.04
9538.00,1.04
9536.00,1.03
9534.00,1.03
9532.00,1.03
9530.00,1.02
9528.00,1.02
9526.00,1.02
9524.00,1.02
9522.00,1.01
9520.00,1.01
9518.00,1.01
9516.00,1.01
9514.00,1.01
9512.00,1.01
9510.00,1.01
9508.00,1.01
9506.00,1.01
9504.00,1.01
9502.00,1.01
9500.00,1.01
9498.00,1.01
9496.00,1.01
9494.00,1.01
9492.00,1.01
9490.00,1.01
9488.00,1.02
9486.00,1.02
9484.00,1.02
9482.00,1.02
9480.00,1.03
9478.00,1.03
9476.00,1.03
9474.00,1.03
9472.00,1.03
9470.00,1.04
9468.00,1.04
9466.00,1.04
9464.00,1.04
9462.00,1.04
9460.00,1.04
9458.00,1.04
9456.00,1.04
9454.00,1.04
9452.00,1.04
9450.00,1.05
9448.00,1.05
9446.00,1.05
9444.00,1.05
9442.00,1.05
9440.00,1.05
9438.00,1.05
9436.00,1.05
9434.00,1.05
9432.00,1.05
9430.00,1.05
9428.00,1.05
9426.00,1.04
9424.00,1.04
9422.00,1.04
9420.00,1.04
9418.00,1.04
9416.00,1.04
9414.00,1.04
9412.00,1.04
9410.00,1.04
9408.00,1.04
9406.00,1.04
9404.00,1.04
9402.00,1.04
9400.00,1.04
9398.00,1.04
9396.00,1.04
9394.00,1.04
9392.00,1.04
9390.00,1.04
9388.00,1.04
9386.00,1.03
9384.00,1.03
9382.00,1.03
9380.00,1.03
9378.00,1.03
9376.00,1.03
9374.00,1.03
9372.00,1.03
9370.00,1.02
9368.00,1.02
9366.00,1.02
9364.00,1.02
9362.00,1.02
9360.00,1.02
9358.00,1.02
9356.00,1.02
9354.00,1.02
9352.00,1.02
9350.00,1.02
9348.00,1.02
9346.00,1.02
9344.00,1.02
9342.00,1.02
9340.00,1.03
9338.00,1.03
9336.00,1.03
9334.00,1.03
9332.00,1.03
9330.00,1.04
9328.00,1.04
9326.00,1.04
9324.00,1.04
9322.00,1.04
9320.00,1.05
9318.00,1.05
9316.00,1.05
9314.00,1.05
9312.00,1.05
9310.00,1.05
9308.00,1.05
9306.00,1.05
9304.00,1.05
9302.00,1.05
9300.00,1.05
9298.00,1.05
9296.00,1.05
9294.00,1.05
9292.00,1.05
9290.00,1.04
9288.00,1.04
9286.00,1.04
9284.00,1.04
9282.00,1.04
9280.00,1.04
9278.00,1.04
9276.00,1.04
9274.00,1.04
9272.00,1.04
9270.00,1.03
9268.00,1.03
9266.00,1.04
9264.00,1.04
9262.00,1.04
9260.00,1.04
9258.00,1.04
9256.00,1.04
9254.00,1.04
9252.00,1.05
9250.00,1.05
9248.00,1.05
9246.00,1.06
9244.00,1.06
9242.00,1.06
9240.00,1.07
9238.00,1.07
9236.00,1.07
9234.00,1.08
9232.00,1.08
9230.00,1.08
9228.00,1.09
9226.00,1.09
9224.00,1.09
9222.00,1.09
9220.00,1.10
9218.00,1.10
9216.00,1.10
9214.00,1.10
9212.00,1.10
9210.00,1.10
9208.00,1.10
9206.00,1.10
9204.00,1.10
9202.00,1.10
9200.00,1.10
9198.00,1.10
9196.00,1.10
9194.00,1.09
9192.00,1.09
9190.00,1.09
9188.00,1.09
9186.00,1.09
9184.00,1.08
9182.00,1.08
9180.00,1.08
9178.00,1.08
9176.00,1.07
9174.00,1.07
9172.00,1.07
9170.00,1.06
9168.00,1.06
9166.00,1.06
9164.00,1.05
9162.00,1.05
9160.00,1.05
9158.00,1.05
9156.00,1.04
9154.00,1.04
9152.00,1.04
9150.00,1.04
9148.00,1.03
9146.00,1.03
9144.00,1.03
9142.00,1.03
9140.00,1.03
9138.00,1.03
9136.00,1.02
9134.00,1.02
9132.00,1.02
9130.00,1.02
9128.00,1.02
9126.00,1.02
9124.00,1.02
9122.00,1.02
9120.00,1.02
9118.00,1.01
9116.00,1.01
9114.00,1.01
9112.00,1.01
9110.00,1.01
9108.00,1.01
9106.00,1.01
9104.00,1.01
9102.00,1.01
9100.00,1.01
9098.00,1.01
9096.00,1.01
9094.00,1.01
9092.00,1.01
9090.00,1.01
9088.00,1.01
9086.00,1.01
9084.00,1.02
9082.00,1.02
9080.00,1.02
9078.00,1.02
9076.00,1.02
9074.00,1.02
9072.00,1.03
9070.00,1.03
9068.00,1.03
9066.00,1.03
9064.00,1.04
9062.00,1.04
9060.00,1.04
9058.00,1.04
9056.00,1.04
9054.00,1.05
9052.00,1.05
9050.00,1.05
9048.00,1.05
9046.00,1.05
9044.00,1.05
9042.00,1.05
9040.00,1.06
9038.00,1.06
9036.00,1.06
9034.00,1.06
9032.00,1.06
9030.00,1.06
9028.00,1.06
9026.00,1.06
9024.00,1.05
9022.00,1.05
9020.00,1.05
9018.00,1.05
9016.00,1.05
9014.00,1.05
9012.00,1.04
9010.00,1.04
9008.00,1.04
9006.00,1.04
9004.00,1.04
9002.00,1.04
9000.00,1.04
8998.00,1.04
8996.00,1.04
8994.00,1.04
8992.00,1.04
8990.00,1.04
8988.00,1.04
8986.00,1.04
8984.00,1.04
8982.00,1.04
8980.00,1.04
8978.00,1.04
8976.00,1.04
8974.00,1.04
8972.00,1.04
8970.00,1.04
8968.00,1.04
8966.00,1.04
8964.00,1.04
8962.00,1.04
8960.00,1.04
8958.00,1.05
8956.00,1.05
8954.00,1.05
8952.00,1.05
8950.00,1.05
8948.00,1.05
8946.00,1.05
8944.00,1.05
8942.00,1.05
8940.00,1.05
8938.00,1.05
8936.00,1.05
8934.00,1.05
8932.00,1.05
8930.00,1.05
8928.00,1.05
8926.00,1.06
8924.00,1.06
8922.00,1.06
8920.00,1.06
8918.00,1.06
8916.00,1.06
8914.00,1.06
8912.00,1.06
8910.00,1.06
8908.00,1.06
8906.00,1.06
8904.00,1.06
8902.00,1.06
8900.00,1.06
8898.00,1.06
8896.00,1.06
8894.00,1.06
8892.00,1.07
8890.00,1.06
8888.00,1.06
8886.00,1.06
8884.00,1.06
8882.00,1.06
8880.00,1.06
8878.00,1.06
8876.00,1.06
8874.00,1.06
8872.00,1.06
8870.00,1.06
8868.00,1.05
8866.00,1.05
8864.00,1.05
8862.00,1.05
8860.00,1.04
8858.00,1.04
8856.00,1.04
8854.00,1.04
8852.00,1.04
8850.00,1.03
8848.00,1.03
8846.00,1.03
8844.00,1.03
8842.00,1.03
8840.00,1.02
8838.00,1.02
8836.00,1.02
8834.00,1.02
8832.00,1.02
8830.00,1.02
8828.00,1.01
8826.00,1.01
8824.00,1.01
8822.00,1.01
8820.00,1.01
8818.00,1.01
8816.00,1.01
8814.00,1.01
8812.00,1.01
8810.00,1.01
8808.00,1.01
8806.00,1.01
8804.00,1.01
8802.00,1.01
8800.00,1.01
8798.00,1.01
8796.00,1.01
8794.00,1.01
8792.00,1.01
8790.00,1.01
8788.00,1.01
8786.00,1.01
8784.00,1.01
8782.00,1.01
8780.00,1.01
8778.00,1.01
8776.00,1.01
8774.00,1.01
8772.00,1.01
8770.00,1.01
8768.00,1.01
8766.00,1.01
8764.00,1.01
8762.00,1.01
8760.00,1.01
8758.00,1.01
8756.00,1.02
8754.00,1.02
8752.00,1.02
8750.00,1.02
8748.00,1.02
8746.00,1.03
8744.00,1.03
8742.00,1.03
8740.00,1.03
8738.00,1.03
8736.00,1.04
8734.00,1.04
8732.00,1.04
8730.00,1.04
8728.00,1.04
8726.00,1.05
8724.00,1.05
8722.00,1.05
8720.00,1.05
8718.00,1.05
8716.00,1.05
8714.00,1.05
8712.00,1.06
8710.00,1.06
8708.00,1.06
8706.00,1.06
8704.00,1.06
8702.00,1.06
8700.00,1.06
8698.00,1.06
8696.00,1.06
8694.00,1.06
8692.00,1.06
8690.00,1.06
8688.00,1.06
8686.00,1.06
8684.00,1.06
8682.00,1.06
8680.00,1.06
8678.00,1.06
8676.00,1.06
8674.00,1.06
8672.00,1.06
8670.00,1.06
8668.00,1.06
8666.00,1.06
8664.00,1.06
8662.00,1.06
8660.00,1.05
8658.00,1.05
8656.00,1.05
8654.00,1.05
8652.00,1.05
8650.00,1.05
8648.00,1.05
8646.00,1.05
8644.00,1.05
8642.00,1.05
8640.00,1.05
8638.00,1.05
8636.00,1.05
8634.00,1.05
8632.00,1.05
8630.00,1.05
8628.00,1.05
8626.00,1.05
8624.00,1.05
8622.00,1.05
8620.00,1.05
8618.00,1.05
8616.00,1.05
8614.00,1.05
8612.00,1.05
8610.00,1.06
8608.00,1.06
8606.00,1.06
8604.00,1.06
8602.00,1.06
8600.00,1.06
8598.00,1.06
8596.00,1.06
8594.00,1.06
8592.00,1.06
8590.00,1.06
8588.00,1.06
8586.00,1.06
8584.00,1.06
8582.00,1.06
8580.00,1.06
8578.00,1.06
8576.00,1.06
8574.00,1.05
8572.00,1.05
8570.00,1.05
8568.00,1.05
8566.00,1.05
8564.00,1.05
8562.00,1.04
8560.00,1.04
8558.00,1.04
8556.00,1.04
8554.00,1.04
8552.00,1.04
8550.00,1.04
8548.00,1.04
8546.00,1.04
8544.00,1.04
8542.00,1.03
8540.00,1.03
8538.00,1.03
8536.00,1.03
8534.00,1.03
8532.00,1.03
8530.00,1.03
8528.00,1.03
8526.00,1.03
8524.00,1.03
8522.00,1.03
8520.00,1.03
8518.00,1.03
8516.00,1.03
8514.00,1.03
8512.00,1.03
8510.00,1.03
8508.00,1.04
8506.00,1.04
8504.00,1.03
8502.00,1.03
8500.00,1.03
8498.00,1.03
8496.00,1.03
8494.00,1.03
8492.00,1.03
8490.00,1.03
8488.00,1.03
8486.00,1.03
8484.00,1.03
8482.00,1.04
8480.00,1.04
8478.00,1.04
8476.00,1.04
8474.00,1.04
8472.00,1.04
8470.00,1.04
8468.00,1.04
8466.00,1.05
8464.00,1.05
8462.00,1.05
8460.00,1.05
8458.00,1.05
8456.00,1.05
8454.00,1.05
8452.00,1.06
8450.00,1.06
8448.00,1.06
8446.00,1.06
8444.00,1.06
8442.00,1.07
8440.00,1.07
8438.00,1.07
8436.00,1.07
8434.00,1.07
8432.00,1.07
8430.00,1.07
8428.00,1.07
8426.00,1.07
8424.00,1.07
8422.00,1.07
8420.00,1.07
8418.00,1.07
8416.00,1.07
8414.00,1.07
8412.00,1.07
8410.00,1.07
8408.00,1.07
8406.00,1.07
8404.00,1.07
8402.00,1.07
8400.00,1.06
8398.00,1.06
8396.00,1.06
8394.00,1.06
8392.00,1.06
8390.00,1.06
8388.00,1.06
8386.00,1.06
8384.00,1.07
8382.00,1.07
8380.00,1.07
8378.00,1.07
8376.00,1.07
8374.00,1.07
8372.00,1.07
8370.00,1.07
8368.00,1.07
8366.00,1.07
8364.00,1.07
8362.00,1.07
8360.00,1.07
8358.00,1.07
8356.00,1.07
8354.00,1.07
8352.00,1.06
8350.00,1.06
8348.00,1.06
8346.00,1.06
8344.00,1.06
8342.00,1.06
8340.00,1.06
8338.00,1.06
8336.00,1.06
8334.00,1.05
8332.00,1.05
8330.00,1.05
8328.00,1.05
8326.00,1.05
8324.00,1.05
8322.00,1.05
8320.00,1.05
8318.00,1.05
8316.00,1.05
8314.00,1.04
8312.00,1.04
8310.00,1.04
8308.00,1.04
8306.00,1.04
8304.00,1.04
8302.00,1.04
8300.00,1.04
8298.00,1.04
8296.00,1.04
8294.00,1.04
8292.00,1.04
8290.00,1.04
8288.00,1.04
8286.00,1.04
8284.00,1.04
8282.00,1.04
8280.00,1.04
8278.00,1.04
8276.00,1.04
8274.00,1.04
8272.00,1.04
8270.00,1.04
8268.00,1.04
8266.00,1.05
8264.00,1.05
8262.00,1.05
8260.00,1.05
8258.00,1.05
8256.00,1.05
8254.00,1.05
8252.00,1.05
8250.00,1.05
8248.00,1.05
8246.00,1.05
8244.00,1.05
8242.00,1.05
8240.00,1.06
8238.00,1.06
8236.00,1.06
8234.00,1.06
8232.00,1.06
8230.00,1.06
8228.00,1.06
8226.00,1.07
8224.00,1.07
8222.00,1.07
8220.00,1.07
8218.00,1.07
8216.00,1.07
8214.00,1.07
8212.00,1.07
8210.00,1.07
8208.00,1.07
8206.00,1.07
8204.00,1.08
8202.00,1.08
8200.00,1.08
8198.00,1.08
8196.00,1.08
8194.00,1.08
8192.00,1.08
8190.00,1.08
8188.00,1.08
8186.00,1.08
8184.00,1.08
8182.00,1.08
8180.00,1.08
8178.00,1.08
8176.00,1.08
8174.00,1.08
8172.00,1.08
8170.00,1.08
8168.00,1.08
8166.00,1.08
8164.00,1.08
8162.00,1.07
8160.00,1.07
8158.00,1.07
8156.00,1.07
8154.00,1.07
8152.00,1.07
8150.00,1.07
8148.00,1.07
8146.00,1.07
8144.00,1.07
8142.00,1.07
8140.00,1.07
8138.00,1.07
8136.00,1.07
8134.00,1.06
8132.00,1.06
8130.00,1.06
8128.00,1.06
8126.00,1.06
8124.00,1.06
8122.00,1.06
8120.00,1.06
8118.00,1.06
8116.00,1.06
8114.00,1.06
8112.00,1.06
8110.00,1.06
8108.00,1.06
8106.00,1.06
8104.00,1.07
8102.00,1.07
8100.00,1.07
8098.00,1.07
8096.00,1.07
8094.00,1.07
8092.00,1.08
8090.00,1.08
8088.00,1.08
8086.00,1.08
8084.00,1.08
8082.00,1.08
8080.00,1.09
8078.00,1.09
8076.00,1.09
8074.00,1.09
8072.00,1.09
8070.00,1.09
8068.00,1.09
8066.00,1.10
8064.00,1.10
8062.00,1.10
8060.00,1.10
8058.00,1.10
8056.00,1.10
8054.00,1.10
8052.00,1.10
8050.00,1.10
8048.00,1.10
8046.00,1.10
8044.00,1.10
8042.00,1.10
8040.00,1.10
8038.00,1.10
8036.00,1.10
8034.00,1.10
8032.00,1.10
8030.00,1.10
8028.00,1.10
8026.00,1.10
8024.00,1.10
8022.00,1.10
8020.00,1.10
8018.00,1.10
8016.00,1.10
8014.00,1.10
8012.00,1.09
8010.00,1.09
8008.00,1.09
8006.00,1.09
8004.00,1.09
8002.00,1.09
8000.00,1.09
7998.00,1.09
7996.00,1.09
7994.00,1.09
7992.00,1.09
7990.00,1.09
7988.00,1.09
7986.00,1.09
7984.00,1.09
7982.00,1.10
7980.00,1.10
7978.00,1.10
7976.00,1.10
7974.00,1.10
7972.00,1.10
7970.00,1.10
7968.00,1.10
7966.00,1.10
7964.00,1.10
7962.00,1.10
7960.00,1.10
7958.00,1.10
7956.00,1.10
7954.00,1.10
7952.00,1.10
7950.00,1.10
7948.00,1.10
7946.00,1.10
7944.00,1.10
7942.00,1.10
7940.00,1.10
7938.00,1.10
7936.00,1.10
7934.00,1.10
7932.00,1.09
7930.00,1.09
7928.00,1.09
7926.00,1.09
7924.00,1.09
7922.00,1.09
7920.00,1.09
7918.00,1.09
7916.00,1.09
7914.00,1.09
7912.00,1.09
7910.00,1.09
7908.00,1.09
7906.00,1.09
7904.00,1.09
7902.00,1.08
7900.00,1.08
7898.00,1.08
7896.00,1.08
7894.00,1.08
7892.00,1.08
7890.00,1.08
7888.00,1.08
7886.00,1.08
7884.00,1.08
7882.00,1.08
7880.00,1.08
7878.00,1.08
7876.00,1.08
7874.00,1.08
7872.00,1.08
7870.00,1.08
7868.00,1.08
7866.00,1.08
7864.00,1.08
7862.00,1.08
7860.00,1.08
7858.00,1.08
7856.00,1.08
7854.00,1.08
7852.00,1.08
7850.00,1.08
7848.00,1.08
7846.00,1.08
7844.00,1.08
7842.00,1.08
7840.00,1.08
7838.00,1.08
7836.00,1.08
7834.00,1.08
7832.00,1.08
7830.00,1.08
7828.00,1.08
7826.00,1.08
7824.00,1.08
7822.00,1.08
7820.00,1.08
7818.00,1.08
7816.00,1.08
7814.00,1.08
7812.00,1.08
7810.00,1.08
7808.00,1.08
7806.00,1.08
7804.00,1.08
7802.00,1.08
7800.00,1.08
7798.00,1.08
7796.00,1.08
7794.00,1.08
7792.00,1.08
7790.00,1.08
7788.00,1.08
7786.00,1.09
7784.00,1.09
7782.00,1.09
7780.00,1.09
7778.00,1.09
7776.00,1.09
7774.00,1.09
7772.00,1.09
7770.00,1.09
7768.00,1.09
7766.00,1.09
7764.00,1.09
7762.00,1.09
7760.00,1.09
7758.00,1.09
7756.00,1.09
7754.00,1.09
7752.00,1.09
7750.00,1.09
7748.00,1.09
7746.00,1.09
7744.00,1.09
7742.00,1.09
7740.00,1.09
7738.00,1.09
7736.00,1.09
7734.00,1.09
7732.00,1.09
7730.00,1.09
7728.00,1.09
7726.00,1.09
7724.00,1.09
7722.00,1.09
7720.00,1.09
7718.00,1.09
7716.00,1.09
7714.00,1.09
7712.00,1.09
7710.00,1.09
7708.00,1.09
7706.00,1.09
7704.00,1.09
7702.00,1.09
7700.00,1.09
7698.00,1.09
7696.00,1.09
7694.00,1.09
7692.00,1.09
7690.00,1.09
7688.00,1.09
7686.00,1.09
7684.00,1.09
7682.00,1.09
7680.00,1.08
7678.00,1.08
7676.00,1.08
7674.00,1.08
7672.00,1.09
7670.00,1.09
7668.00,1.09
7666.00,1.09
7664.00,1.09
7662.00,1.09
7660.00,1.09
7658.00,1.09
7656.00,1.09
7654.00,1.09
7652.00,1.09
7650.00,1.09
7648.00,1.09
7646.00,1.09
7644.00,1.09
7642.00,1.09
7640.00,1.09
7638.00,1.09
7636.00,1.09
7634.00,1.09
7632.00,1.09
7630.00,1.09
7628.00,1.09
7626.00,1.09
7624.00,1.09
7622.00,1.09
7620.00,1.09
7618.00,1.10
7616.00,1.10
7614.00,1.10
7612.00,1.10
7610.00,1.10
7608.00,1.10
7606.00,1.10
7604.00,1.10
7602.00,1.10
7600.00,1.10
7598.00,1.10
7596.00,1.10
7594.00,1.10
7592.00,1.10
7590.00,1.10
7588.00,1.10
7586.00,1.10
7584.00,1.10
7582.00,1.10
7580.00,1.10
7578.00,1.10
7576.00,1.10
7574.00,1.10
7572.00,1.09
7570.00,1.09
7568.00,1.09
7566.00,1.09
7564.00,1.09
7562.00,1.09
7560.00,1.09
7558.00,1.09
7556.00,1.09
7554.00,1.09
7552.00,1.09
7550.00,1.09
7548.00,1.09
7546.00,1.09
7544.00,1.09
7542.00,1.08
7540.00,1.08
7538.00,1.08
7536.00,1.08
7534.00,1.08
7532.00,1.08
7530.00,1.08
7528.00,1.08
7526.00,1.08
7524.00,1.08
7522.00,1.08
7520.00,1.08
7518.00,1.08
7516.00,1.08
7514.00,1.08
7512.00,1.08
7510.00,1.08
7508.00,1.08
7506.00,1.08
7504.00,1.08
7502.00,1.08
7500.00,1.08
7498.00,1.08
7496.00,1.08
7494.00,1.08
7492.00,1.08
7490.00,1.08
7488.00,1.08
7486.00,1.08
7484.00,1.08
7482.00,1.08
7480.00,1.08
7478.00,1.09
7476.00,1.09
7474.00,1.09
7472.00,1.09
7470.00,1.09
7468.00,1.09
7466.00,1.09
7464.00,1.10
7462.00,1.10
7460.00,1.10
7458.00,1.10
7456.00,1.10
7454.00,1.10
7452.00,1.10
7450.00,1.10
7448.00,1.10
7446.00,1.10
7444.00,1.10
7442.00,1.11
7440.00,1.11
7438.00,1.11
7436.00,1.11
7434.00,1.11
7432.00,1.11
7430.00,1.11
7428.00,1.11
7426.00,1.11
7424.00,1.11
7422.00,1.11
7420.00,1.11
7418.00,1.11
7416.00,1.11
7414.00,1.11
7412.00,1.11
7410.00,1.11
7408.00,1.11
7406.00,1.11
7404.00,1.11
7402.00,1.10
7400.00,1.10
7398.00,1.10
7396.00,1.10
7394.00,1.10
7392.00,1.10
7390.00,1.10
7388.00,1.10
7386.00,1.10
7384.00,1.10
7382.00,1.10
7380.00,1.10
7378.00,1.10
7376.00,1.10
7374.00,1.10
7372.00,1.10
7370.00,1.10
7368.00,1.09
7366.00,1.09
7364.00,1.09
7362.00,1.09
7360.00,1.09
7358.00,1.09
7356.00,1.09
7354.00,1.09
7352.00,1.09
7350.00,1.09
7348.00,1.09
7346.00,1.09
7344.00,1.09
7342.00,1.09
7340.00,1.09
7338.00,1.09
7336.00,1.09
7334.00,1.09
7332.00,1.09
7330.00,1.09
7328.00,1.09
7326.00,1.09
7324.00,1.09
7322.00,1.09
7320.00,1.09
7318.00,1.09
7316.00,1.09
7314.00,1.09
7312.00,1.09
7310.00,1.09
7308.00,1.09
7306.00,1.09
7304.00,1.08
7302.00,1.08
7300.00,1.08
7298.00,1.08
7296.00,1.08
7294.00,1.08
7292.00,1.08
7290.00,1.08
7288.00,1.08
7286.00,1.08
7284.00,1.08
7282.00,1.08
7280.00,1.08
7278.00,1.07
7276.00,1.07
7274.00,1.07
7272.00,1.07
7270.00,1.07
7268.00,1.07
7266.00,1.07
7264.00,1.07
7262.00,1.07
7260.00,1.07
7258.00,1.07
7256.00,1.07
7254.00,1.07
7252.00,1.06
7250.00,1.06
7248.00,1.06
7246.00,1.06
7244.00,1.06
7242.00,1.06
7240.00,1.06
7238.00,1.06
7236.00,1.06
7234.00,1.06
7232.00,1.06
7230.00,1.05
7228.00,1.05
7226.00,1.05
7224.00,1.05
7222.00,1.05
7220.00,1.05
7218.00,1.05
7216.00,1.05
7214.00,1.05
7212.00,1.05
7210.00,1.05
7208.00,1.05
7206.00,1.04
7204.00,1.04
7202.00,1.04
7200.00,1.04
7198.00,1.04
7196.00,1.04
7194.00,1.04
7192.00,1.03
7190.00,1.03
7188.00,1.03
7186.00,1.03
7184.00,1.03
7182.00,1.03
7180.00,1.02
7178.00,1.02
7176.00,1.02
7174.00,1.02
7172.00,1.02
7170.00,1.01
7168.00,1.01
7166.00,1.01
7164.00,1.01
7162.00,1.01
7160.00,1.00
7158.00,1.00
7156.00,1.00
7154.00,1.00
7152.00,0.99
7150.00,0.99
7148.00,0.99
7146.00,0.99
7144.00,0.98
7142.00,0.98
7140.00,0.98
7138.00,0.98
7136.00,0.98
7134.00,0.97
7132.00,0.97
7130.00,0.97
7128.00,0.97
7126.00,0.97
7124.00,0.97
7122.00,0.96
7120.00,0.96
7118.00,0.96
7116.00,0.96
7114.00,0.96
7112.00,0.96
7110.00,0.96
7108.00,0.95
7106.00,0.95
7104.00,0.95
7102.00,0.95
7100.00,0.95
7098.00,0.95
7096.00,0.95
7094.00,0.95
7092.00,0.94
7090.00,0.94
7088.00,0.94
7086.00,0.94
7084.00,0.94
7082.00,0.94
7080.00,0.94
7078.00,0.94
7076.00,0.94
7074.00,0.93
7072.00,0.93
7070.00,0.93
7068.00,0.93
7066.00,0.93
7064.00,0.93
7062.00,0.93
7060.00,0.93
7058.00,0.93
7056.00,0.93
7054.00,0.93
7052.00,0.93
7050.00,0.92
7048.00,0.92
7046.00,0.92
7044.00,0.92
7042.00,0.92
7040.00,0.92
7038.00,0.92
7036.00,0.92
7034.00,0.92
7032.00,0.92
7030.00,0.92
7028.00,0.92
7026.00,0.92
7024.00,0.92
7022.00,0.91
7020.00,0.91
7018.00,0.91
7016.00,0.91
7014.00,0.91
7012.00,0.91
7010.00,0.91
7008.00,0.91
7006.00,0.91
7004.00,0.91
7002.00,0.90
7000.00,0.90
6998.00,0.90
6996.00,0.90
6994.00,0.90
6992.00,0.90
6990.00,0.90
6988.00,0.90
6986.00,0.90
6984.00,0.90
6982.00,0.90
6980.00,0.90
6978.00,0.90
6976.00,0.90
6974.00,0.90
6972.00,0.90
6970.00,0.90
6968.00,0.90
6966.00,0.90
6964.00,0.90
6962.00,0.90
6960.00,0.90
6958.00,0.90
6956.00,0.90
6954.00,0.90
6952.00,0.90
6950.00,0.90
6948.00,0.90
6946.00,0.90
6944.00,0.90
6942.00,0.90
6940.00,0.90
6938.00,0.90
6936.00,0.90
6934.00,0.90
6932.00,0.90
6930.00,0.90
6928.00,0.90
6926.00,0.90
6924.00,0.90
6922.00,0.90
6920.00,0.90
6918.00,0.90
6916.00,0.89
6914.00,0.89
6912.00,0.89
6910.00,0.89
6908.00,0.89
6906.00,0.89
6904.00,0.89
6902.00,0.89
6900.00,0.89
6898.00,0.89
6896.00,0.89
6894.00,0.89
6892.00,0.88
6890.00,0.88
6888.00,0.88
6886.00,0.88
6884.00,0.88
6882.00,0.88
6880.00,0.88
6878.00,0.88
6876.00,0.88
6874.00,0.88
6872.00,0.88
6870.00,0.88
6868.00,0.88
6866.00,0.88
6864.00,0.88
6862.00,0.88
6860.00,0.88
6858.00,0.88
6856.00,0.88
6854.00,0.88
6852.00,0.88
6850.00,0.88
6848.00,0.88
6846.00,0.88
6844.00,0.88
6842.00,0.88
6840.00,0.89
6838.00,0.89
6836.00,0.89
6834.00,0.89
6832.00,0.89
6830.00,0.89
6828.00,0.89
6826.00,0.89
6824.00,0.89
6822.00,0.89
6820.00,0.89
6818.00,0.89
6816.00,0.89
6814.00,0.89
6812.00,0.90
6810.00,0.90
6808.00,0.90
6806.00,0.90
6804.00,0.90
6802.00,0.90
6800.00,0.90
6798.00,0.90
6796.00,0.90
6794.00,0.91
6792.00,0.91
6790.00,0.91
6788.00,0.91
6786.00,0.91
6784.00,0.91
6782.00,0.91
6780.00,0.91
6778.00,0.91
6776.00,0.91
6774.00,0.92
6772.00,0.92
6770.00,0.92
6768.00,0.92
6766.00,0.92
6764.00,0.92
6762.00,0.92
6760.00,0.92
6758.00,0.92
6756.00,0.92
6754.00,0.93
6752.00,0.93
6750.00,0.93
6748.00,0.93
6746.00,0.93
6744.00,0.93
6742.00,0.93
6740.00,0.93
6738.00,0.93
6736.00,0.93
6734.00,0.93
6732.00,0.93
6730.00,0.93
6728.00,0.94
6726.00,0.94
6724.00,0.94
6722.00,0.94
6720.00,0.94
6718.00,0.94
6716.00,0.94
6714.00,0.94
6712.00,0.94
6710.00,0.94
6708.00,0.94
6706.00,0.94
6704.00,0.94
6702.00,0.94
6700.00,0.95
6698.00,0.95
6696.00,0.95
6694.00,0.95
6692.00,0.95
6690.00,0.95
6688.00,0.95
6686.00,0.95
6684.00,0.95
6682.00,0.95
6680.00,0.95
6678.00,0.95
6676.00,0.96
6674.00,0.96
6672.00,0.96
6670.00,0.96
6668.00,0.96
6666.00,0.96
6664.00,0.96
6662.00,0.96
6660.00,0.96
6658.00,0.96
6656.00,0.96
6654.00,0.96
6652.00,0.96
6650.00,0.96
6648.00,0.96
6646.00,0.96
6644.00,0.96
6642.00,0.96
6640.00,0.96
6638.00,0.97
6636.00,0.97
6634.00,0.97
6632.00,0.97
6630.00,0.97
6628.00,0.97
6626.00,0.97
6624.00,0.97
6622.00,0.97
6620.00,0.97
6618.00,0.97
6616.00,0.97
6614.00,0.97
6612.00,0.97
6610.00,0.98
6608.00,0.98
6606.00,0.98
6604.00,0.98
6602.00,0.98
6600.00,0.98
6598.00,0.98
6596.00,0.98
6594.00,0.98
6592.00,0.98
6590.00,0.98
6588.00,0.98
6586.00,0.99
6584.00,0.99
6582.00,0.99
6580.00,0.99
6578.00,0.99
6576.00,0.99
6574.00,0.99
6572.00,0.99
6570.00,0.99
6568.00,0.99
6566.00,0.99
6564.00,0.99
6562.00,0.99
6560.00,1.00
6558.00,1.00
6556.00,1.00
6554.00,1.00
6552.00,1.00
6550.00,1.00
6548.00,1.00
6546.00,1.00
6544.00,1.00
6542.00,1.00
6540.00,1.00
6538.00,1.00
6536.00,1.00
6534.00,1.00
6532.00,1.00
6530.00,1.01
6528.00,1.01
6526.00,1.01
6524.00,1.01
6522.00,1.01
6520.00,1.01
6518.00,1.01
6516.00,1.01
6514.00,1.01
6512.00,1.01
6510.00,1.01
6508.00,1.02
6506.00,1.02
6504.00,1.02
6502.00,1.02
6500.00,1.02
6498.00,1.02
6496.00,1.02
6494.00,1.03
6492.00,1.03
6490.00,1.03
6488.00,1.03
6486.00,1.03
6484.00,1.03
6482.00,1.03
6480.00,1.04
6478.00,1.04
6476.00,1.04
6474.00,1.04
6472.00,1.04
6470.00,1.04
6468.00,1.04
6466.00,1.04
6464.00,1.04
6462.00,1.05
6460.00,1.05
6458.00,1.05
6456.00,1.05
6454.00,1.05
6452.00,1.05
6450.00,1.05
6448.00,1.05
6446.00,1.05
6444.00,1.05
6442.00,1.05
6440.00,1.05
6438.00,1.05
6436.00,1.05
6434.00,1.05
6432.00,1.05
6430.00,1.05
6428.00,1.05
6426.00,1.05
6424.00,1.05
6422.00,1.05
6420.00,1.05
6418.00,1.05
6416.00,1.05
6414.00,1.05
6412.00,1.05
6410.00,1.05
6408.00,1.05
6406.00,1.05
6404.00,1.05
6402.00,1.05
6400.00,1.05
6398.00,1.05
6396.00,1.05
6394.00,1.05
6392.00,1.05
6390.00,1.05
6388.00,1.05
6386.00,1.05
6384.00,1.05
6382.00,1.05
6380.00,1.05
6378.00,1.05
6376.00,1.05
6374.00,1.06
6372.00,1.06
6370.00,1.06
6368.00,1.06
6366.00,1.06
6364.00,1.06
6362.00,1.06
6360.00,1.06
6358.00,1.06
6356.00,1.06
6354.00,1.06
6352.00,1.07
6350.00,1.07
6348.00,1.07
6346.00,1.07
6344.00,1.07
6342.00,1.07
6340.00,1.07
6338.00,1.07
6336.00,1.07
6334.00,1.07
6332.00,1.08
6330.00,1.08
6328.00,1.08
6326.00,1.08
6324.00,1.08
6322.00,1.08
6320.00,1.08
6318.00,1.08
6316.00,1.08
6314.00,1.08
6312.00,1.08
6310.00,1.08
6308.00,1.08
6306.00,1.08
6304.00,1.08
6302.00,1.08
6300.00,1.08
6298.00,1.08
6296.00,1.08
6294.00,1.08
6292.00,1.08
6290.00,1.08
6288.00,1.09
6286.00,1.09
6284.00,1.09
6282.00,1.09
6280.00,1.09
6278.00,1.09
6276.00,1.09
6274.00,1.09
6272.00,1.09
6270.00,1.09
6268.00,1.09
6266.00,1.09
6264.00,1.09
6262.00,1.09
6260.00,1.09
6258.00,1.09
6256.00,1.09
6254.00,1.09
6252.00,1.09
6250.00,1.09
6248.00,1.09
6246.00,1.09
6244.00,1.09
6242.00,1.09
6240.00,1.09
6238.00,1.09
6236.00,1.09
6234.00,1.09
6232.00,1.09
6230.00,1.10
6228.00,1.10
6226.00,1.10
6224.00,1.10
6222.00,1.10
6220.00,1.10
6218.00,1.10
6216.00,1.10
6214.00,1.10
6212.00,1.10
6210.00,1.10
6208.00,1.10
6206.00,1.10
6204.00,1.10
6202.00,1.11
6200.00,1.11
6198.00,1.11
6196.00,1.11
6194.00,1.11
6192.00,1.11
6190.00,1.11
6188.00,1.11
6186.00,1.11
6184.00,1.11
6182.00,1.11
6180.00,1.11
6178.00,1.11
6176.00,1.11
6174.00,1.12
6172.00,1.12
6170.00,1.12
6168.00,1.12
6166.00,1.12
6164.00,1.12
6162.00,1.12
6160.00,1.12
6158.00,1.12
6156.00,1.12
6154.00,1.12
6152.00,1.12
6150.00,1.12
6148.00,1.12
6146.00,1.12
6144.00,1.12
6142.00,1.12
6140.00,1.12
6138.00,1.12
6136.00,1.12
6134.00,1.12
6132.00,1.12
6130.00,1.12
6128.00,1.12
6126.00,1.13
6124.00,1.13
6122.00,1.13
6120.00,1.13
6118.00,1.13
6116.00,1.13
6114.00,1.13
6112.00,1.13
6110.00,1.13
6108.00,1.13
6106.00,1.13
6104.00,1.13
6102.00,1.13
6100.00,1.13
6098.00,1.13
6096.00,1.13
6094.00,1.13
6092.00,1.13
6090.00,1.13
6088.00,1.13
6086.00,1.13
6084.00,1.13
6082.00,1.13
6080.00,1.13
6078.00,1.13
6076.00,1.13
6074.00,1.13
6072.00,1.13
6070.00,1.13
6068.00,1.13
6066.00,1.13
6064.00,1.13
6062.00,1.13
6060.00,1.13
6058.00,1.13
6056.00,1.13
6054.00,1.13
6052.00,1.13
6050.00,1.13
6048.00,1.13
6046.00,1.13
6044.00,1.13
6042.00,1.13
6040.00,1.13
6038.00,1.13
6036.00,1.13
6034.00,1.13
6032.00,1.13
6030.00,1.14
6028.00,1.14
6026.00,1.14
6024.00,1.14
6022.00,1.14
6020.00,1.14
6018.00,1.14
6016.00,1.14
6014.00,1.14
6012.00,1.14
6010.00,1.14
6008.00,1.14
6006.00,1.14
6004.00,1.14
6002.00,1.13
6000.00,1.13
5998.00,1.13
5996.00,1.13
5994.00,1.13
5992.00,1.13
5990.00,1.13
5988.00,1.13
5986.00,1.13
5984.00,1.13
5982.00,1.13
5980.00,1.13
5978.00,1.13
5976.00,1.13
5974.00,1.13
5972.00,1.13
5970.00,1.13
5968.00,1.13
5966.00,1.13
5964.00,1.13
5962.00,1.13
5960.00,1.13
5958.00,1.13
5956.00,1.13
5954.00,1.13
5952.00,1.13
5950.00,1.12
5948.00,1.12
5946.00,1.12
5944.00,1.12
5942.00,1.12
5940.00,1.12
5938.00,1.12
5936.00,1.12
5934.00,1.12
5932.00,1.12
5930.00,1.12
5928.00,1.12
5926.00,1.12
5924.00,1.12
5922.00,1.12
5920.00,1.12
5918.00,1.12
5916.00,1.12
5914.00,1.12
5912.00,1.12
5910.00,1.12
5908.00,1.12
5906.00,1.12
5904.00,1.12
5902.00,1.12
5900.00,1.12
5898.00,1.12
5896.00,1.12
5894.00,1.12
5892.00,1.12
5890.00,1.13
5888.00,1.13
5886.00,1.13
5884.00,1.13
5882.00,1.13
5880.00,1.13
5878.00,1.13
5876.00,1.13
5874.00,1.13
5872.00,1.13
5870.00,1.13
5868.00,1.13
5866.00,1.13
5864.00,1.13
5862.00,1.13
5860.00,1.13
5858.00,1.13
5856.00,1.13
5854.00,1.13
5852.00,1.13
5850.00,1.13
5848.00,1.13
5846.00,1.13
5844.00,1.13
5842.00,1.13
5840.00,1.13
5838.00,1.13
5836.00,1.13
5834.00,1.13
5832.00,1.13
5830.00,1.13
5828.00,1.13
5826.00,1.13
5824.00,1.13
5822.00,1.13
5820.00,1.13
5818.00,1.13
5816.00,1.13
5814.00,1.13
5812.00,1.13
5810.00,1.13
5808.00,1.13
5806.00,1.13
5804.00,1.13
5802.00,1.13
5800.00,1.13
5798.00,1.13
5796.00,1.13
5794.00,1.13
5792.00,1.13
5790.00,1.13
5788.00,1.13
5786.00,1.13
5784.00,1.13
5782.00,1.13
5780.00,1.13
5778.00,1.13
5776.00,1.13
5774.00,1.13
5772.00,1.13
5770.00,1.13
5768.00,1.13
5766.00,1.13
5764.00,1.13
5762.00,1.13
5760.00,1.13
5758.00,1.13
5756.00,1.13
5754.00,1.13
5752.00,1.13
5750.00,1.13
5748.00,1.13
5746.00,1.13
5744.00,1.13
5742.00,1.13
5740.00,1.13
5738.00,1.13
5736.00,1.13
5734.00,1.13
5732.00,1.13
5730.00,1.13
5728.00,1.13
5726.00,1.13
5724.00,1.13
5722.00,1.13
5720.00,1.13
5718.00,1.13
5716.00,1.13
5714.00,1.13
5712.00,1.13
5710.00,1.13
5708.00,1.13
5706.00,1.13
5704.00,1.13
5702.00,1.13
5700.00,1.13
5698.00,1.13
5696.00,1.13
5694.00,1.13
5692.00,1.13
5690.00,1.13
5688.00,1.13
5686.00,1.13
5684.00,1.13
5682.00,1.13
5680.00,1.13
5678.00,1.13
5676.00,1.13
5674.00,1.13
5672.00,1.13
5670.00,1.13
5668.00,1.13
5666.00,1.13
5664.00,1.13
5662.00,1.13
5660.00,1.13
5658.00,1.13
5656.00,1.13
5654.00,1.13
5652.00,1.13
5650.00,1.13
5648.00,1.13
5646.00,1.13
5644.00,1.13
5642.00,1.13
5640.00,1.13
5638.00,1.13
5636.00,1.13
5634.00,1.13
5632.00,1.13
5630.00,1.13
5628.00,1.13
5626.00,1.13
5624.00,1.13
5622.00,1.13
5620.00,1.13
5618.00,1.13
5616.00,1.13
5614.00,1.13
5612.00,1.13
5610.00,1.13
5608.00,1.13
5606.00,1.13
5604.00,1.13
5602.00,1.13
5600.00,1.13
5598.00,1.13
5596.00,1.13
5594.00,1.13
5592.00,1.13
5590.00,1.13
5588.00,1.14
5586.00,1.14
5584.00,1.14
5582.00,1.14
5580.00,1.14
5578.00,1.14
5576.00,1.14
5574.00,1.14
5572.00,1.14
5570.00,1.14
5568.00,1.14
5566.00,1.14
5564.00,1.14
5562.00,1.14
5560.00,1.14
5558.00,1.14
5556.00,1.14
5554.00,1.14
5552.00,1.14
5550.00,1.14
5548.00,1.14
5546.00,1.14
5544.00,1.14
5542.00,1.14
5540.00,1.14
5538.00,1.14
5536.00,1.14
5534.00,1.14
5532.00,1.14
5530.00,1.14
5528.00,1.14
5526.00,1.14
5524.00,1.14
5522.00,1.14
5520.00,1.14
5518.00,1.14
5516.00,1.14
5514.00,1.14
5512.00,1.14
5510.00,1.14
5508.00,1.14
5506.00,1.14
5504.00,1.14
5502.00,1.14
5500.00,1.14
5498.00,1.14
5496.00,1.14
5494.00,1.14
5492.00,1.14
5490.00,1.14
5488.00,1.14
5486.00,1.14
5484.00,1.14
5482.00,1.14
5480.00,1.14
5478.00,1.14
5476.00,1.14
5474.00,1.14
5472.00,1.14
5470.00,1.14
5468.00,1.14
5466.00,1.14
5464.00,1.14
5462.00,1.14
5460.00,1.14
5458.00,1.14
5456.00,1.14
5454.00,1.14
5452.00,1.14
5450.00,1.14
5448.00,1.14
5446.00,1.14
5444.00,1.14
5442.00,1.14
5440.00,1.14
5438.00,1.14
5436.00,1.14
5434.00,1.14
5432.00,1.14
5430.00,1.14
5428.00,1.14
5426.00,1.14
5424.00,1.14
5422.00,1.14
5420.00,1.14
5418.00,1.14
5416.00,1.14
5414.00,1.14
5412.00,1.14
5410.00,1.14
5408.00,1.14
5406.00,1.14
5404.00,1.14
5402.00,1.14
5400.00,1.14
5398.00,1.13
5396.00,1.13
5394.00,1.13
5392.00,1.13
5390.00,1.13
5388.00,1.13
5386.00,1.13
5384.00,1.12
5382.00,1.12
5380.00,1.12
5378.00,1.12
5376.00,1.11
5374.00,1.11
5372.00,1.11
5370.00,1.10
5368.00,1.10
5366.00,1.10
5364.00,1.09
5362.00,1.09
5360.00,1.08
5358.00,1.08
5356.00,1.08
5354.00,1.07
5352.00,1.07
5350.00,1.06
5348.00,1.05
5346.00,1.05
5344.00,1.04
5342.00,1.04
5340.00,1.03
5338.00,1.02
5336.00,1.02
5334.00,1.01
5332.00,1.00
5330.00,1.00
5328.00,0.99
5326.00,0.98
5324.00,0.98
5322.00,0.97
5320.00,0.96
5318.00,0.95
5316.00,0.94
5314.00,0.94
5312.00,0.93
5310.00,0.92
5308.00,0.91
5306.00,0.90
5304.00,0.90
5302.00,0.89
5300.00,0.88
5298.00,0.87
5296.00,0.86
5294.00,0.86
5292.00,0.85
5290.00,0.84
5288.00,0.83
5286.00,0.83
5284.00,0.82
5282.00,0.81
5280.00,0.80
5278.00,0.80
5276.00,0.79
5274.00,0.78
5272.00,0.78
5270.00,0.77
5268.00,0.77
5266.00,0.76
5264.00,0.76
5262.00,0.75
5260.00,0.75
5258.00,0.74
5256.00,0.74
5254.00,0.73
5252.00,0.73
5250.00,0.73
5248.00,0.72
5246.00,0.72
5244.00,0.72
5242.00,0.71
5240.00,0.71
5238.00,0.71
5236.00,0.70
5234.00,0.70
5232.00,0.70
5230.00,0.70
5228.00,0.69
5226.00,0.69
5224.00,0.69
5222.00,0.69
5220.00,0.69
5218.00,0.69
5216.00,0.68
5214.00,0.68
5212.00,0.68
5210.00,0.68
5208.00,0.68
5206.00,0.68
5204.00,0.68
5202.00,0.68
5200.00,0.68
5198.00,0.68
5196.00,0.68
5194.00,0.67
5192.00,0.67
5190.00,0.67
5188.00,0.67
5186.00,0.67
5184.00,0.67
5182.00,0.67
5180.00,0.67
5178.00,0.67
5176.00,0.67
5174.00,0.67
5172.00,0.68
5170.00,0.68
5168.00,0.68
5166.00,0.68
5164.00,0.68
5162.00,0.68
5160.00,0.68
5158.00,0.68
5156.00,0.68
5154.00,0.68
5152.00,0.68
5150.00,0.68
5148.00,0.68
5146.00,0.68
5144.00,0.69
5142.00,0.69
5140.00,0.69
5138.00,0.69
5136.00,0.69
5134.00,0.69
5132.00,0.69
5130.00,0.69
5128.00,0.70
5126.00,0.70
5124.00,0.70
5122.00,0.70
5120.00,0.70
5118.00,0.70
5116.00,0.70
5114.00,0.71
5112.00,0.71
5110.00,0.71
5108.00,0.71
5106.00,0.71
5104.00,0.71
5102.00,0.71
5100.00,0.72
5098.00,0.72
5096.00,0.72
5094.00,0.72
5092.00,0.72
5090.00,0.73
5088.00,0.73
5086.00,0.73
5084.00,0.73
5082.00,0.73
5080.00,0.73
5078.00,0.74
5076.00,0.74
5074.00,0.74
5072.00,0.74
5070.00,0.74
5068.00,0.75
5066.00,0.75
5064.00,0.75
5062.00,0.75
5060.00,0.75
5058.00,0.76
5056.00,0.76
5054.00,0.76
5052.00,0.76
5050.00,0.76
5048.00,0.77
5046.00,0.77
5044.00,0.77
5042.00,0.77
5040.00,0.77
5038.00,0.78
5036.00,0.78
5034.00,0.78
5032.00,0.78
5030.00,0.79
5028.00,0.79
5026.00,0.79
5024.00,0.79
5022.00,0.79
5020.00,0.80
5018.00,0.80
5016.00,0.80
5014.00,0.80
5012.00,0.81
5010.00,0.81
5008.00,0.81
5006.00,0.81
5004.00,0.81
5002.00,0.82
5000.00,0.82
4998.00,0.82
4996.00,0.82
4994.00,0.83
4992.00,0.83
4990.00,0.83
4988.00,0.83
4986.00,0.84
4984.00,0.84
4982.00,0.84
4980.00,0.84
4978.00,0.85
4976.00,0.85
4974.00,0.85
4972.00,0.85
4970.00,0.85
4968.00,0.86
4966.00,0.86
4964.00,0.86
4962.00,0.86
4960.00,0.86
4958.00,0.87
4956.00,0.87
4954.00,0.87
4952.00,0.87
4950.00,0.88
4948.00,0.88
4946.00,0.88
4944.00,0.88
4942.00,0.88
4940.00,0.89
4938.00,0.89
4936.00,0.89
4934.00,0.89
4932.00,0.89
4930.00,0.89
4928.00,0.90
4926.00,0.90
4924.00,0.90
4922.00,0.90
4920.00,0.90
4918.00,0.90
4916.00,0.91
4914.00,0.91
4912.00,0.91
4910.00,0.91
4908.00,0.91
4906.00,0.92
4904.00,0.92
4902.00,0.92
4900.00,0.92
4898.00,0.92
4896.00,0.92
4894.00,0.93
4892.00,0.93
4890.00,0.93
4888.00,0.93
4886.00,0.93
4884.00,0.93
4882.00,0.94
4880.00,0.94
4878.00,0.94
4876.00,0.94
4874.00,0.94
4872.00,0.94
4870.00,0.95
4868.00,0.95
4866.00,0.95
4864.00,0.95
4862.00,0.95
4860.00,0.96
4858.00,0.96
4856.00,0.96
4854.00,0.96
4852.00,0.96
4850.00,0.96
4848.00,0.97
4846.00,0.97
4844.00,0.97
4842.00,0.97
4840.00,0.97
4838.00,0.98
4836.00,0.98
4834.00,0.98
4832.00,0.98
4830.00,0.98
4828.00,0.99
4826.00,0.99
4824.00,0.99
4822.00,0.99
4820.00,0.99
4818.00,1.00
4816.00,1.00
4814.00,1.00
4812.00,1.00
4810.00,1.00
4808.00,1.00
4806.00,1.01
4804.00,1.01
4802.00,1.01
4800.00,1.01
4798.00,1.01
4796.00,1.02
4794.00,1.02
4792.00,1.02
4790.00,1.02
4788.00,1.02
4786.00,1.03
4784.00,1.03
4782.00,1.03
4780.00,1.03
4778.00,1.03
4776.00,1.03
4774.00,1.04
4772.00,1.04
4770.00,1.04
4768.00,1.04
4766.00,1.04
4764.00,1.05
4762.00,1.05
4760.00,1.05
4758.00,1.05
4756.00,1.05
4754.00,1.05
4752.00,1.06
4750.00,1.06
4748.00,1.06
4746.00,1.06
4744.00,1.06
4742.00,1.06
4740.00,1.06
4738.00,1.07
4736.00,1.07
4734.00,1.07
4732.00,1.07
4730.00,1.07
4728.00,1.07
4726.00,1.08
4724.00,1.08
4722.00,1.08
4720.00,1.08
4718.00,1.08
4716.00,1.08
4714.00,1.08
4712.00,1.09
4710.00,1.09
4708.00,1.09
4706.00,1.09
4704.00,1.09
4702.00,1.09
4700.00,1.09
4698.00,1.09
4696.00,1.10
4694.00,1.10
4692.00,1.10
4690.00,1.10
4688.00,1.10
4686.00,1.10
4684.00,1.10
4682.00,1.10
4680.00,1.10
4678.00,1.11
4676.00,1.11
4674.00,1.11
4672.00,1.11
4670.00,1.11
4668.00,1.11
4666.00,1.11
4664.00,1.11
4662.00,1.11
4660.00,1.11
4658.00,1.11
4656.00,1.12
4654.00,1.12
4652.00,1.12
4650.00,1.12
4648.00,1.12
4646.00,1.12
4644.00,1.12
4642.00,1.12
4640.00,1.12
4638.00,1.12
4636.00,1.12
4634.00,1.12
4632.00,1.12
4630.00,1.12
4628.00,1.12
4626.00,1.12
4624.00,1.12
4622.00,1.12
4620.00,1.13
4618.00,1.13
4616.00,1.13
4614.00,1.13
4612.00,1.13
4610.00,1.13
4608.00,1.13
4606.00,1.13
4604.00,1.13
4602.00,1.13
4600.00,1.13
4598.00,1.13
4596.00,1.13
4594.00,1.13
4592.00,1.13
4590.00,1.13
4588.00,1.13
4586.00,1.13
4584.00,1.13
4582.00,1.13
4580.00,1.13
4578.00,1.13
4576.00,1.13
4574.00,1.13
4572.00,1.13
4570.00,1.13
4568.00,1.13
4566.00,1.13
4564.00,1.13
4562.00,1.13
4560.00,1.13
4558.00,1.13
4556.00,1.13
4554.00,1.14
4552.00,1.14
4550.00,1.14
4548.00,1.14
4546.00,1.14
4544.00,1.14
4542.00,1.14
4540.00,1.14
4538.00,1.14
4536.00,1.14
4534.00,1.14
4532.00,1.14
4530.00,1.14
4528.00,1.14
4526.00,1.14
4524.00,1.14
4522.00,1.14
4520.00,1.14
4518.00,1.14
4516.00,1.14
4514.00,1.14
4512.00,1.14
4510.00,1.14
4508.00,1.14
4506.00,1.14
4504.00,1.14
4502.00,1.14
4500.00,1.14
4498.00,1.14
4496.00,1.14
4494.00,1.14
4492.00,1.14
4490.00,1.14
4488.00,1.14
4486.00,1.14
4484.00,1.14
4482.00,1.14
4480.00,1.14
4478.00,1.14
4476.00,1.14
4474.00,1.14
4472.00,1.14
4470.00,1.14
4468.00,1.13
4466.00,1.13
4464.00,1.13
4462.00,1.13
4460.00,1.13
4458.00,1.13
4456.00,1.13
4454.00,1.12
4452.00,1.12
4450.00,1.12
4448.00,1.12
4446.00,1.12
4444.00,1.11
4442.00,1.11
4440.00,1.11
4438.00,1.11
4436.00,1.11
4434.00,1.11
4432.00,1.10
4430.00,1.10
4428.00,1.10
4426.00,1.10
4424.00,1.10
4422.00,1.10
4420.00,1.10
4418.00,1.09
4416.00,1.09
4414.00,1.09
4412.00,1.09
4410.00,1.09
4408.00,1.09
4406.00,1.09
4404.00,1.09
4402.00,1.09
4400.00,1.09
4398.00,1.10
4396.00,1.10
4394.00,1.10
4392.00,1.10
4390.00,1.10
4388.00,1.10
4386.00,1.10
4384.00,1.10
4382.00,1.10
4380.00,1.10
4378.00,1.10
4376.00,1.10
4374.00,1.10
4372.00,1.10
4370.00,1.10
4368.00,1.10
4366.00,1.10
4364.00,1.10
4362.00,1.10
4360.00,1.10
4358.00,1.10
4356.00,1.10
4354.00,1.10
4352.00,1.10
4350.00,1.10
4348.00,1.11
4346.00,1.11
4344.00,1.11
4342.00,1.11
4340.00,1.11
4338.00,1.11
4336.00,1.11
4334.00,1.11
4332.00,1.11
4330.00,1.11
4328.00,1.11
4326.00,1.11
4324.00,1.11
4322.00,1.12
4320.00,1.12
4318.00,1.12
4316.00,1.12
4314.00,1.12
4312.00,1.12
4310.00,1.12
4308.00,1.13
4306.00,1.13
4304.00,1.13
4302.00,1.13
4300.00,1.13
4298.00,1.13
4296.00,1.13
4294.00,1.13
4292.00,1.13
4290.00,1.14
4288.00,1.14
4286.00,1.14
4284.00,1.14
4282.00,1.14
4280.00,1.14
4278.00,1.14
4276.00,1.14
4274.00,1.14
4272.00,1.14
4270.00,1.14
4268.00,1.14
4266.00,1.14
4264.00,1.14
4262.00,1.14
4260.00,1.14
4258.00,1.14
4256.00,1.14
4254.00,1.14
4252.00,1.14
4250.00,1.14
4248.00,1.14
4246.00,1.14
4244.00,1.14
4242.00,1.14
4240.00,1.14
4238.00,1.14
4236.00,1.14
4234.00,1.14
4232.00,1.14
4230.00,1.14
4228.00,1.14
4226.00,1.14
4224.00,1.14
4222.00,1.14
4220.00,1.14
4218.00,1.14
4216.00,1.14
4214.00,1.14
4212.00,1.14
4210.00,1.14
4208.00,1.14
4206.00,1.14
4204.00,1.14
4202.00,1.14
4200.00,1.14
4198.00,1.14
4196.00,1.14
4194.00,1.14
4192.00,1.14
4190.00,1.14
4188.00,1.14
4186.00,1.14
4184.00,1.14
4182.00,1.14
4180.00,1.14
4178.00,1.14
4176.00,1.14
4174.00,1.14
4172.00,1.14
4170.00,1.14
4168.00,1.14
4166.00,1.14
4164.00,1.14
4162.00,1.14
4160.00,1.14
4158.00,1.14
4156.00,1.14
4154.00,1.14
4152.00,1.14
4150.00,1.14
4148.00,1.14
4146.00,1.14
4144.00,1.14
4142.00,1.14
4140.00,1.14
4138.00,1.14
4136.00,1.14
4134.00,1.14
4132.00,1.14
4130.00,1.14
4128.00,1.14
4126.00,1.14
4124.00,1.14
4122.00,1.14
4120.00,1.14
4118.00,1.14
4116.00,1.14
4114.00,1.14
4112.00,1.14
4110.00,1.13
4108.00,1.13
4106.00,1.13
4104.00,1.13
4102.00,1.13
4100.00,1.13
4098.00,1.13
4096.00,1.13
4094.00,1.13
4092.00,1.13
4090.00,1.13
4088.00,1.13
4086.00,1.13
4084.00,1.13
4082.00,1.13
4080.00,1.13
4078.00,1.13
4076.00,1.13
4074.00,1.13
4072.00,1.13
4070.00,1.13
4068.00,1.13
4066.00,1.13
4064.00,1.13
4062.00,1.13
4060.00,1.13
4058.00,1.13
4056.00,1.13
4054.00,1.13
4052.00,1.13
4050.00,1.13
4048.00,1.13
4046.00,1.13
4044.00,1.13
4042.00,1.13
4040.00,1.13
4038.00,1.13
4036.00,1.13
4034.00,1.13
4032.00,1.13
4030.00,1.14
4028.00,1.14
4026.00,1.14
4024.00,1.14
4022.00,1.14
4020.00,1.14
4018.00,1.14
4016.00,1.14
4014.00,1.14
4012.00,1.14
4010.00,1.14
4008.00,1.14
4006.00,1.14
4004.00,1.14
4002.00,1.14
4000.00,1.14
