创建为新数据集,样品 437 用户 Administrator 日期 星期日, 七月 15 2018
cm-1,%T
10000.00,0.68
9999.00,0.68
9998.00,0.68
9997.00,0.68
9996.00,0.68
9995.00,0.68
9994.00,0.68
9993.00,0.68
9992.00,0.68
9991.00,0.68
9990.00,0.68
9989.00,0.67
9988.00,0.67
9987.00,0.67
9986.00,0.67
9985.00,0.67
9984.00,0.66
9983.00,0.66
9982.00,0.66
9981.00,0.66
9980.00,0.66
9979.00,0.66
9978.00,0.65
9977.00,0.65
9976.00,0.65
9975.00,0.65
9974.00,0.65
9973.00,0.65
9972.00,0.65
9971.00,0.65
9970.00,0.65
9969.00,0.64
9968.00,0.64
9967.00,0.64
9966.00,0.64
9965.00,0.64
9964.00,0.63
9963.00,0.63
9962.00,0.63
9961.00,0.63
9960.00,0.63
9959.00,0.62
9958.00,0.62
9957.00,0.62
9956.00,0.62
9955.00,0.62
9954.00,0.62
9953.00,0.62
9952.00,0.62
9951.00,0.63
9950.00,0.63
9949.00,0.63
9948.00,0.63
9947.00,0.63
9946.00,0.64
9945.00,0.64
9944.00,0.64
9943.00,0.64
9942.00,0.65
9941.00,0.65
9940.00,0.65
9939.00,0.65
9938.00,0.65
9937.00,0.66
9936.00,0.66
9935.00,0.66
9934.00,0.66
9933.00,0.66
9932.00,0.66
9931.00,0.66
9930.00,0.66
9929.00,0.66
9928.00,0.66
9927.00,0.66
9926.00,0.66
9925.00,0.66
9924.00,0.66
9923.00,0.66
9922.00,0.66
9921.00,0.66
9920.00,0.66
9919.00,0.67
9918.00,0.67
9917.00,0.67
9916.00,0.67
9915.00,0.67
9914.00,0.68
9913.00,0.68
9912.00,0.68
9911.00,0.68
9910.00,0.68
9909.00,0.68
9908.00,0.67
9907.00,0.67
9906.00,0.67
9905.00,0.67
9904.00,0.67
9903.00,0.67
9902.00,0.66
9901.00,0.66
9900.00,0.66
9899.00,0.66
9898.00,0.66
9897.00,0.65
9896.00,0.65
9895.00,0.65
9894.00,0.65
9893.00,0.65
9892.00,0.65
9891.00,0.64
9890.00,0.64
9889.00,0.64
9888.00,0.64
9887.00,0.64
9886.00,0.64
9885.00,0.64
9884.00,0.65
9883.00,0.65
9882.00,0.65
9881.00,0.65
9880.00,0.65
9879.00,0.66
9878.00,0.66
9877.00,0.66
9876.00,0.66
9875.00,0.67
9874.00,0.67
9873.00,0.67
9872.00,0.67
9871.00,0.68
9870.00,0.68
9869.00,0.68
9868.00,0.68
9867.00,0.68
9866.00,0.68
9865.00,0.68
9864.00,0.67
9863.00,0.67
9862.00,0.67
9861.00,0.67
9860.00,0.67
9859.00,0.67
9858.00,0.67
9857.00,0.66
9856.00,0.66
9855.00,0.66
9854.00,0.66
9853.00,0.66
9852.00,0.66
9851.00,0.66
9850.00,0.66
9849.00,0.66
9848.00,0.65
9847.00,0.65
9846.00,0.65
9845.00,0.65
9844.00,0.65
9843.00,0.65
9842.00,0.65
9841.00,0.65
9840.00,0.65
9839.00,0.65
9838.00,0.65
9837.00,0.65
9836.00,0.65
9835.00,0.65
9834.00,0.65
9833.00,0.64
9832.00,0.64
9831.00,0.64
9830.00,0.64
9829.00,0.64
9828.00,0.64
9827.00,0.64
9826.00,0.63
9825.00,0.63
9824.00,0.63
9823.00,0.63
9822.00,0.63
9821.00,0.63
9820.00,0.63
9819.00,0.63
9818.00,0.63
9817.00,0.63
9816.00,0.63
9815.00,0.63
9814.00,0.63
9813.00,0.63
9812.00,0.63
9811.00,0.63
9810.00,0.64
9809.00,0.64
9808.00,0.64
9807.00,0.64
9806.00,0.64
9805.00,0.64
9804.00,0.64
9803.00,0.64
9802.00,0.64
9801.00,0.65
9800.00,0.65
9799.00,0.65
9798.00,0.65
9797.00,0.65
9796.00,0.65
9795.00,0.65
9794.00,0.65
9793.00,0.65
9792.00,0.65
9791.00,0.65
9790.00,0.65
9789.00,0.66
9788.00,0.66
9787.00,0.66
9786.00,0.66
9785.00,0.66
9784.00,0.66
9783.00,0.67
9782.00,0.67
9781.00,0.67
9780.00,0.67
9779.00,0.67
9778.00,0.67
9777.00,0.67
9776.00,0.67
9775.00,0.67
9774.00,0.67
9773.00,0.67
9772.00,0.67
9771.00,0.67
9770.00,0.66
9769.00,0.66
9768.00,0.66
9767.00,0.66
9766.00,0.65
9765.00,0.65
9764.00,0.65
9763.00,0.65
9762.00,0.64
9761.00,0.64
9760.00,0.64
9759.00,0.64
9758.00,0.64
9757.00,0.64
9756.00,0.64
9755.00,0.64
9754.00,0.64
9753.00,0.64
9752.00,0.64
9751.00,0.64
9750.00,0.65
9749.00,0.65
9748.00,0.65
9747.00,0.65
9746.00,0.65
9745.00,0.65
9744.00,0.65
9743.00,0.66
9742.00,0.66
9741.00,0.66
9740.00,0.66
9739.00,0.66
9738.00,0.66
9737.00,0.66
9736.00,0.66
9735.00,0.66
9734.00,0.66
9733.00,0.66
9732.00,0.66
9731.00,0.66
9730.00,0.66
9729.00,0.66
9728.00,0.66
9727.00,0.66
9726.00,0.66
9725.00,0.66
9724.00,0.66
9723.00,0.66
9722.00,0.66
9721.00,0.66
9720.00,0.66
9719.00,0.66
9718.00,0.66
9717.00,0.66
9716.00,0.66
9715.00,0.66
9714.00,0.66
9713.00,0.66
9712.00,0.67
9711.00,0.67
9710.00,0.67
9709.00,0.67
9708.00,0.67
9707.00,0.67
9706.00,0.66
9705.00,0.66
9704.00,0.66
9703.00,0.66
9702.00,0.65
9701.00,0.65
9700.00,0.65
9699.00,0.64
9698.00,0.64
9697.00,0.64
9696.00,0.64
9695.00,0.63
9694.00,0.63
9693.00,0.63
9692.00,0.63
9691.00,0.63
9690.00,0.63
9689.00,0.63
9688.00,0.63
9687.00,0.63
9686.00,0.64
9685.00,0.64
9684.00,0.64
9683.00,0.64
9682.00,0.65
9681.00,0.65
9680.00,0.65
9679.00,0.65
9678.00,0.65
9677.00,0.66
9676.00,0.66
9675.00,0.66
9674.00,0.66
9673.00,0.66
9672.00,0.66
9671.00,0.66
9670.00,0.66
9669.00,0.66
9668.00,0.66
9667.00,0.66
9666.00,0.65
9665.00,0.65
9664.00,0.65
9663.00,0.65
9662.00,0.65
9661.00,0.64
9660.00,0.64
9659.00,0.64
9658.00,0.63
9657.00,0.63
9656.00,0.63
9655.00,0.63
9654.00,0.62
9653.00,0.62
9652.00,0.62
9651.00,0.62
9650.00,0.62
9649.00,0.62
9648.00,0.62
9647.00,0.62
9646.00,0.62
9645.00,0.62
9644.00,0.62
9643.00,0.62
9642.00,0.62
9641.00,0.62
9640.00,0.62
9639.00,0.62
9638.00,0.63
9637.00,0.63
9636.00,0.63
9635.00,0.63
9634.00,0.63
9633.00,0.63
9632.00,0.63
9631.00,0.63
9630.00,0.63
9629.00,0.63
9628.00,0.63
9627.00,0.63
9626.00,0.63
9625.00,0.63
9624.00,0.63
9623.00,0.63
9622.00,0.63
9621.00,0.63
9620.00,0.63
9619.00,0.63
9618.00,0.63
9617.00,0.63
9616.00,0.64
9615.00,0.64
9614.00,0.64
9613.00,0.64
9612.00,0.64
9611.00,0.64
9610.00,0.64
9609.00,0.64
9608.00,0.65
9607.00,0.65
9606.00,0.65
9605.00,0.65
9604.00,0.65
9603.00,0.65
9602.00,0.66
9601.00,0.66
9600.00,0.66
9599.00,0.66
9598.00,0.66
9597.00,0.66
9596.00,0.66
9595.00,0.66
9594.00,0.67
9593.00,0.67
9592.00,0.67
9591.00,0.67
9590.00,0.67
9589.00,0.66
9588.00,0.66
9587.00,0.66
9586.00,0.66
9585.00,0.66
9584.00,0.66
9583.00,0.66
9582.00,0.66
9581.00,0.66
9580.00,0.66
9579.00,0.66
9578.00,0.66
9577.00,0.66
9576.00,0.66
9575.00,0.66
9574.00,0.66
9573.00,0.66
9572.00,0.66
9571.00,0.66
9570.00,0.66
9569.00,0.66
9568.00,0.66
9567.00,0.66
9566.00,0.66
9565.00,0.66
9564.00,0.66
9563.00,0.66
9562.00,0.66
9561.00,0.66
9560.00,0.66
9559.00,0.66
9558.00,0.66
9557.00,0.66
9556.00,0.66
9555.00,0.66
9554.00,0.66
9553.00,0.66
9552.00,0.66
9551.00,0.66
9550.00,0.66
9549.00,0.66
9548.00,0.66
9547.00,0.65
9546.00,0.65
9545.00,0.65
9544.00,0.65
9543.00,0.65
9542.00,0.65
9541.00,0.65
9540.00,0.65
9539.00,0.65
9538.00,0.65
9537.00,0.64
9536.00,0.64
9535.00,0.64
9534.00,0.64
9533.00,0.64
9532.00,0.64
9531.00,0.64
9530.00,0.65
9529.00,0.65
9528.00,0.65
9527.00,0.65
9526.00,0.65
9525.00,0.65
9524.00,0.66
9523.00,0.66
9522.00,0.66
9521.00,0.66
9520.00,0.66
9519.00,0.66
9518.00,0.66
9517.00,0.66
9516.00,0.67
9515.00,0.67
9514.00,0.66
9513.00,0.66
9512.00,0.66
9511.00,0.66
9510.00,0.66
9509.00,0.66
9508.00,0.66
9507.00,0.66
9506.00,0.65
9505.00,0.65
9504.00,0.65
9503.00,0.65
9502.00,0.65
9501.00,0.65
9500.00,0.65
9499.00,0.65
9498.00,0.65
9497.00,0.65
9496.00,0.65
9495.00,0.65
9494.00,0.65
9493.00,0.65
9492.00,0.65
9491.00,0.65
9490.00,0.65
9489.00,0.65
9488.00,0.65
9487.00,0.65
9486.00,0.65
9485.00,0.65
9484.00,0.65
9483.00,0.65
9482.00,0.64
9481.00,0.64
9480.00,0.64
9479.00,0.64
9478.00,0.64
9477.00,0.64
9476.00,0.64
9475.00,0.64
9474.00,0.64
9473.00,0.64
9472.00,0.64
9471.00,0.64
9470.00,0.64
9469.00,0.64
9468.00,0.64
9467.00,0.64
9466.00,0.64
9465.00,0.65
9464.00,0.65
9463.00,0.65
9462.00,0.65
9461.00,0.65
9460.00,0.65
9459.00,0.65
9458.00,0.66
9457.00,0.66
9456.00,0.66
9455.00,0.66
9454.00,0.66
9453.00,0.66
9452.00,0.66
9451.00,0.66
9450.00,0.66
9449.00,0.66
9448.00,0.66
9447.00,0.66
9446.00,0.66
9445.00,0.66
9444.00,0.66
9443.00,0.66
9442.00,0.66
9441.00,0.66
9440.00,0.66
9439.00,0.66
9438.00,0.66
9437.00,0.66
9436.00,0.66
9435.00,0.66
9434.00,0.67
9433.00,0.67
9432.00,0.67
9431.00,0.67
9430.00,0.67
9429.00,0.67
9428.00,0.67
9427.00,0.67
9426.00,0.67
9425.00,0.67
9424.00,0.67
9423.00,0.67
9422.00,0.67
9421.00,0.67
9420.00,0.67
9419.00,0.68
9418.00,0.68
9417.00,0.68
9416.00,0.68
9415.00,0.68
9414.00,0.67
9413.00,0.67
9412.00,0.67
9411.00,0.67
9410.00,0.67
9409.00,0.67
9408.00,0.67
9407.00,0.67
9406.00,0.67
9405.00,0.67
9404.00,0.67
9403.00,0.67
9402.00,0.67
9401.00,0.67
9400.00,0.67
9399.00,0.67
9398.00,0.67
9397.00,0.67
9396.00,0.67
9395.00,0.67
9394.00,0.67
9393.00,0.67
9392.00,0.67
9391.00,0.67
9390.00,0.67
9389.00,0.68
9388.00,0.68
9387.00,0.68
9386.00,0.68
9385.00,0.68
9384.00,0.68
9383.00,0.68
9382.00,0.68
9381.00,0.68
9380.00,0.68
9379.00,0.67
9378.00,0.67
9377.00,0.67
9376.00,0.67
9375.00,0.67
9374.00,0.67
9373.00,0.66
9372.00,0.66
9371.00,0.66
9370.00,0.66
9369.00,0.65
9368.00,0.65
9367.00,0.65
9366.00,0.65
9365.00,0.65
9364.00,0.64
9363.00,0.64
9362.00,0.64
9361.00,0.64
9360.00,0.64
9359.00,0.64
9358.00,0.64
9357.00,0.64
9356.00,0.64
9355.00,0.65
9354.00,0.65
9353.00,0.65
9352.00,0.65
9351.00,0.65
9350.00,0.66
9349.00,0.66
9348.00,0.66
9347.00,0.66
9346.00,0.66
9345.00,0.67
9344.00,0.67
9343.00,0.67
9342.00,0.67
9341.00,0.67
9340.00,0.67
9339.00,0.67
9338.00,0.67
9337.00,0.68
9336.00,0.68
9335.00,0.68
9334.00,0.68
9333.00,0.68
9332.00,0.68
9331.00,0.68
9330.00,0.68
9329.00,0.68
9328.00,0.68
9327.00,0.67
9326.00,0.67
9325.00,0.67
9324.00,0.67
9323.00,0.67
9322.00,0.67
9321.00,0.67
9320.00,0.66
9319.00,0.66
9318.00,0.66
9317.00,0.66
9316.00,0.66
9315.00,0.66
9314.00,0.66
9313.00,0.66
9312.00,0.65
9311.00,0.65
9310.00,0.65
9309.00,0.65
9308.00,0.65
9307.00,0.65
9306.00,0.65
9305.00,0.65
9304.00,0.65
9303.00,0.65
9302.00,0.65
9301.00,0.65
9300.00,0.65
9299.00,0.65
9298.00,0.65
9297.00,0.65
9296.00,0.66
9295.00,0.66
9294.00,0.66
9293.00,0.66
9292.00,0.66
9291.00,0.66
9290.00,0.66
9289.00,0.66
9288.00,0.66
9287.00,0.67
9286.00,0.66
9285.00,0.66
9284.00,0.66
9283.00,0.66
9282.00,0.66
9281.00,0.66
9280.00,0.66
9279.00,0.66
9278.00,0.66
9277.00,0.66
9276.00,0.66
9275.00,0.66
9274.00,0.66
9273.00,0.67
9272.00,0.67
9271.00,0.67
9270.00,0.67
9269.00,0.67
9268.00,0.67
9267.00,0.67
9266.00,0.67
9265.00,0.67
9264.00,0.67
9263.00,0.67
9262.00,0.67
9261.00,0.67
9260.00,0.67
9259.00,0.67
9258.00,0.66
9257.00,0.66
9256.00,0.66
9255.00,0.66
9254.00,0.65
9253.00,0.65
9252.00,0.65
9251.00,0.65
9250.00,0.65
9249.00,0.65
9248.00,0.65
9247.00,0.65
9246.00,0.65
9245.00,0.65
9244.00,0.65
9243.00,0.65
9242.00,0.65
9241.00,0.65
9240.00,0.66
9239.00,0.66
9238.00,0.66
9237.00,0.66
9236.00,0.66
9235.00,0.66
9234.00,0.66
9233.00,0.66
9232.00,0.66
9231.00,0.66
9230.00,0.67
9229.00,0.67
9228.00,0.67
9227.00,0.67
9226.00,0.67
9225.00,0.67
9224.00,0.67
9223.00,0.67
9222.00,0.67
9221.00,0.67
9220.00,0.67
9219.00,0.67
9218.00,0.67
9217.00,0.67
9216.00,0.67
9215.00,0.67
9214.00,0.67
9213.00,0.67
9212.00,0.67
9211.00,0.67
9210.00,0.67
9209.00,0.67
9208.00,0.67
9207.00,0.67
9206.00,0.67
9205.00,0.67
9204.00,0.67
9203.00,0.67
9202.00,0.67
9201.00,0.67
9200.00,0.67
9199.00,0.67
9198.00,0.67
9197.00,0.67
9196.00,0.67
9195.00,0.67
9194.00,0.67
9193.00,0.67
9192.00,0.67
9191.00,0.67
9190.00,0.67
9189.00,0.67
9188.00,0.67
9187.00,0.66
9186.00,0.66
9185.00,0.66
9184.00,0.66
9183.00,0.66
9182.00,0.66
9181.00,0.66
9180.00,0.66
9179.00,0.66
9178.00,0.66
9177.00,0.66
9176.00,0.66
9175.00,0.67
9174.00,0.67
9173.00,0.67
9172.00,0.67
9171.00,0.67
9170.00,0.67
9169.00,0.67
9168.00,0.67
9167.00,0.67
9166.00,0.67
9165.00,0.67
9164.00,0.68
9163.00,0.68
9162.00,0.68
9161.00,0.68
9160.00,0.68
9159.00,0.68
9158.00,0.68
9157.00,0.68
9156.00,0.68
9155.00,0.67
9154.00,0.67
9153.00,0.67
9152.00,0.67
9151.00,0.67
9150.00,0.67
9149.00,0.66
9148.00,0.66
9147.00,0.66
9146.00,0.66
9145.00,0.66
9144.00,0.66
9143.00,0.66
9142.00,0.66
9141.00,0.66
9140.00,0.66
9139.00,0.66
9138.00,0.66
9137.00,0.66
9136.00,0.66
9135.00,0.66
9134.00,0.66
9133.00,0.66
9132.00,0.66
9131.00,0.66
9130.00,0.65
9129.00,0.65
9128.00,0.65
9127.00,0.65
9126.00,0.65
9125.00,0.65
9124.00,0.65
9123.00,0.65
9122.00,0.65
9121.00,0.65
9120.00,0.65
9119.00,0.64
9118.00,0.64
9117.00,0.64
9116.00,0.64
9115.00,0.64
9114.00,0.64
9113.00,0.64
9112.00,0.64
9111.00,0.64
9110.00,0.64
9109.00,0.64
9108.00,0.64
9107.00,0.64
9106.00,0.64
9105.00,0.64
9104.00,0.64
9103.00,0.64
9102.00,0.65
9101.00,0.65
9100.00,0.65
9099.00,0.65
9098.00,0.65
9097.00,0.65
9096.00,0.65
9095.00,0.65
9094.00,0.65
9093.00,0.66
9092.00,0.66
9091.00,0.66
9090.00,0.66
9089.00,0.66
9088.00,0.66
9087.00,0.66
9086.00,0.66
9085.00,0.66
9084.00,0.66
9083.00,0.66
9082.00,0.66
9081.00,0.66
9080.00,0.66
9079.00,0.66
9078.00,0.66
9077.00,0.67
9076.00,0.67
9075.00,0.67
9074.00,0.67
9073.00,0.67
9072.00,0.67
9071.00,0.67
9070.00,0.67
9069.00,0.67
9068.00,0.67
9067.00,0.67
9066.00,0.66
9065.00,0.66
9064.00,0.66
9063.00,0.66
9062.00,0.66
9061.00,0.66
9060.00,0.65
9059.00,0.65
9058.00,0.65
9057.00,0.65
9056.00,0.65
9055.00,0.65
9054.00,0.65
9053.00,0.65
9052.00,0.65
9051.00,0.65
9050.00,0.65
9049.00,0.65
9048.00,0.65
9047.00,0.65
9046.00,0.66
9045.00,0.66
9044.00,0.66
9043.00,0.66
9042.00,0.66
9041.00,0.67
9040.00,0.67
9039.00,0.67
9038.00,0.67
9037.00,0.67
9036.00,0.67
9035.00,0.67
9034.00,0.67
9033.00,0.67
9032.00,0.67
9031.00,0.67
9030.00,0.67
9029.00,0.67
9028.00,0.67
9027.00,0.67
9026.00,0.67
9025.00,0.66
9024.00,0.66
9023.00,0.66
9022.00,0.66
9021.00,0.66
9020.00,0.66
9019.00,0.66
9018.00,0.66
9017.00,0.66
9016.00,0.66
9015.00,0.66
9014.00,0.66
9013.00,0.66
9012.00,0.66
9011.00,0.66
9010.00,0.66
9009.00,0.67
9008.00,0.67
9007.00,0.67
9006.00,0.67
9005.00,0.67
9004.00,0.67
9003.00,0.67
9002.00,0.67
9001.00,0.67
9000.00,0.67
8999.00,0.67
8998.00,0.67
8997.00,0.67
8996.00,0.67
8995.00,0.67
8994.00,0.67
8993.00,0.67
8992.00,0.67
8991.00,0.67
8990.00,0.67
8989.00,0.67
8988.00,0.66
8987.00,0.66
8986.00,0.66
8985.00,0.66
8984.00,0.66
8983.00,0.66
8982.00,0.66
8981.00,0.66
8980.00,0.66
8979.00,0.66
8978.00,0.67
8977.00,0.67
8976.00,0.67
8975.00,0.67
8974.00,0.67
8973.00,0.67
8972.00,0.67
8971.00,0.67
8970.00,0.68
8969.00,0.68
8968.00,0.68
8967.00,0.68
8966.00,0.68
8965.00,0.68
8964.00,0.68
8963.00,0.68
8962.00,0.68
8961.00,0.68
8960.00,0.68
8959.00,0.68
8958.00,0.68
8957.00,0.67
8956.00,0.67
8955.00,0.67
8954.00,0.67
8953.00,0.67
8952.00,0.67
8951.00,0.67
8950.00,0.67
8949.00,0.67
8948.00,0.67
8947.00,0.67
8946.00,0.67
8945.00,0.67
8944.00,0.67
8943.00,0.67
8942.00,0.67
8941.00,0.67
8940.00,0.66
8939.00,0.66
8938.00,0.66
8937.00,0.66
8936.00,0.66
8935.00,0.66
8934.00,0.66
8933.00,0.66
8932.00,0.65
8931.00,0.65
8930.00,0.65
8929.00,0.65
8928.00,0.65
8927.00,0.65
8926.00,0.65
8925.00,0.65
8924.00,0.65
8923.00,0.65
8922.00,0.65
8921.00,0.65
8920.00,0.65
8919.00,0.65
8918.00,0.65
8917.00,0.65
8916.00,0.65
8915.00,0.66
8914.00,0.66
8913.00,0.66
8912.00,0.66
8911.00,0.66
8910.00,0.66
8909.00,0.66
8908.00,0.67
8907.00,0.67
8906.00,0.67
8905.00,0.67
8904.00,0.67
8903.00,0.67
8902.00,0.67
8901.00,0.67
8900.00,0.68
8899.00,0.68
8898.00,0.68
8897.00,0.68
8896.00,0.68
8895.00,0.68
8894.00,0.68
8893.00,0.68
8892.00,0.68
8891.00,0.68
8890.00,0.68
8889.00,0.68
8888.00,0.68
8887.00,0.68
8886.00,0.67
8885.00,0.67
8884.00,0.67
8883.00,0.67
8882.00,0.67
8881.00,0.67
8880.00,0.67
8879.00,0.67
8878.00,0.67
8877.00,0.66
8876.00,0.66
8875.00,0.66
8874.00,0.66
8873.00,0.66
8872.00,0.66
8871.00,0.65
8870.00,0.65
8869.00,0.65
8868.00,0.65
8867.00,0.65
8866.00,0.65
8865.00,0.65
8864.00,0.65
8863.00,0.65
8862.00,0.65
8861.00,0.65
8860.00,0.65
8859.00,0.65
8858.00,0.65
8857.00,0.65
8856.00,0.65
8855.00,0.65
8854.00,0.65
8853.00,0.65
8852.00,0.66
8851.00,0.66
8850.00,0.66
8849.00,0.66
8848.00,0.66
8847.00,0.66
8846.00,0.66
8845.00,0.66
8844.00,0.66
8843.00,0.66
8842.00,0.66
8841.00,0.66
8840.00,0.67
8839.00,0.67
8838.00,0.67
8837.00,0.67
8836.00,0.67
8835.00,0.67
8834.00,0.67
8833.00,0.67
8832.00,0.67
8831.00,0.67
8830.00,0.67
8829.00,0.66
8828.00,0.66
8827.00,0.66
8826.00,0.66
8825.00,0.66
8824.00,0.66
8823.00,0.66
8822.00,0.66
8821.00,0.66
8820.00,0.66
8819.00,0.66
8818.00,0.66
8817.00,0.66
8816.00,0.66
8815.00,0.66
8814.00,0.66
8813.00,0.66
8812.00,0.67
8811.00,0.67
8810.00,0.67
8809.00,0.67
8808.00,0.67
8807.00,0.66
8806.00,0.66
8805.00,0.66
8804.00,0.66
8803.00,0.66
8802.00,0.66
8801.00,0.66
8800.00,0.66
8799.00,0.66
8798.00,0.66
8797.00,0.66
8796.00,0.66
8795.00,0.66
8794.00,0.66
8793.00,0.66
8792.00,0.66
8791.00,0.66
8790.00,0.66
8789.00,0.66
8788.00,0.66
8787.00,0.66
8786.00,0.66
8785.00,0.66
8784.00,0.66
8783.00,0.66
8782.00,0.66
8781.00,0.66
8780.00,0.66
8779.00,0.66
8778.00,0.66
8777.00,0.66
8776.00,0.66
8775.00,0.66
8774.00,0.66
8773.00,0.66
8772.00,0.66
8771.00,0.66
8770.00,0.66
8769.00,0.66
8768.00,0.66
8767.00,0.66
8766.00,0.66
8765.00,0.66
8764.00,0.65
8763.00,0.65
8762.00,0.65
8761.00,0.65
8760.00,0.65
8759.00,0.65
8758.00,0.64
8757.00,0.64
8756.00,0.64
8755.00,0.64
8754.00,0.64
8753.00,0.64
8752.00,0.64
8751.00,0.64
8750.00,0.64
8749.00,0.64
8748.00,0.64
8747.00,0.64
8746.00,0.64
8745.00,0.64
8744.00,0.64
8743.00,0.64
8742.00,0.64
8741.00,0.64
8740.00,0.64
8739.00,0.64
8738.00,0.64
8737.00,0.64
8736.00,0.64
8735.00,0.64
8734.00,0.64
8733.00,0.64
8732.00,0.64
8731.00,0.64
8730.00,0.64
8729.00,0.64
8728.00,0.64
8727.00,0.64
8726.00,0.64
8725.00,0.64
8724.00,0.64
8723.00,0.64
8722.00,0.64
8721.00,0.64
8720.00,0.64
8719.00,0.64
8718.00,0.64
8717.00,0.63
8716.00,0.63
8715.00,0.63
8714.00,0.63
8713.00,0.63
8712.00,0.63
8711.00,0.62
8710.00,0.62
8709.00,0.62
8708.00,0.62
8707.00,0.62
8706.00,0.62
8705.00,0.62
8704.00,0.62
8703.00,0.62
8702.00,0.62
8701.00,0.62
8700.00,0.62
8699.00,0.63
8698.00,0.63
8697.00,0.63
8696.00,0.63
8695.00,0.63
8694.00,0.63
8693.00,0.63
8692.00,0.63
8691.00,0.63
8690.00,0.63
8689.00,0.63
8688.00,0.63
8687.00,0.63
8686.00,0.64
8685.00,0.63
8684.00,0.63
8683.00,0.63
8682.00,0.63
8681.00,0.63
8680.00,0.63
8679.00,0.63
8678.00,0.63
8677.00,0.63
8676.00,0.63
8675.00,0.63
8674.00,0.63
8673.00,0.63
8672.00,0.63
8671.00,0.63
8670.00,0.63
8669.00,0.63
8668.00,0.63
8667.00,0.63
8666.00,0.63
8665.00,0.63
8664.00,0.63
8663.00,0.63
8662.00,0.64
8661.00,0.64
8660.00,0.64
8659.00,0.64
8658.00,0.64
8657.00,0.64
8656.00,0.64
8655.00,0.64
8654.00,0.64
8653.00,0.64
8652.00,0.64
8651.00,0.64
8650.00,0.64
8649.00,0.64
8648.00,0.64
8647.00,0.64
8646.00,0.64
8645.00,0.64
8644.00,0.64
8643.00,0.64
8642.00,0.64
8641.00,0.64
8640.00,0.64
8639.00,0.64
8638.00,0.64
8637.00,0.63
8636.00,0.63
8635.00,0.63
8634.00,0.63
8633.00,0.63
8632.00,0.63
8631.00,0.63
8630.00,0.63
8629.00,0.63
8628.00,0.63
8627.00,0.62
8626.00,0.62
8625.00,0.62
8624.00,0.62
8623.00,0.62
8622.00,0.62
8621.00,0.62
8620.00,0.62
8619.00,0.62
8618.00,0.62
8617.00,0.62
8616.00,0.62
8615.00,0.62
8614.00,0.62
8613.00,0.62
8612.00,0.62
8611.00,0.62
8610.00,0.61
8609.00,0.61
8608.00,0.61
8607.00,0.61
8606.00,0.61
8605.00,0.61
8604.00,0.61
8603.00,0.61
8602.00,0.61
8601.00,0.61
8600.00,0.61
8599.00,0.61
8598.00,0.61
8597.00,0.61
8596.00,0.61
8595.00,0.61
8594.00,0.61
8593.00,0.61
8592.00,0.61
8591.00,0.61
8590.00,0.61
8589.00,0.61
8588.00,0.61
8587.00,0.61
8586.00,0.61
8585.00,0.61
8584.00,0.61
8583.00,0.62
8582.00,0.62
8581.00,0.62
8580.00,0.62
8579.00,0.62
8578.00,0.62
8577.00,0.62
8576.00,0.61
8575.00,0.61
8574.00,0.61
8573.00,0.61
8572.00,0.61
8571.00,0.61
8570.00,0.61
8569.00,0.61
8568.00,0.61
8567.00,0.61
8566.00,0.61
8565.00,0.61
8564.00,0.61
8563.00,0.61
8562.00,0.61
8561.00,0.61
8560.00,0.61
8559.00,0.61
8558.00,0.61
8557.00,0.61
8556.00,0.61
8555.00,0.61
8554.00,0.61
8553.00,0.61
8552.00,0.61
8551.00,0.60
8550.00,0.60
8549.00,0.60
8548.00,0.60
8547.00,0.60
8546.00,0.60
8545.00,0.60
8544.00,0.60
8543.00,0.60
8542.00,0.60
8541.00,0.60
8540.00,0.60
8539.00,0.60
8538.00,0.60
8537.00,0.60
8536.00,0.60
8535.00,0.60
8534.00,0.60
8533.00,0.60
8532.00,0.60
8531.00,0.60
8530.00,0.60
8529.00,0.60
8528.00,0.60
8527.00,0.60
8526.00,0.60
8525.00,0.60
8524.00,0.60
8523.00,0.60
8522.00,0.59
8521.00,0.59
8520.00,0.59
8519.00,0.59
8518.00,0.59
8517.00,0.59
8516.00,0.60
8515.00,0.60
8514.00,0.60
8513.00,0.60
8512.00,0.60
8511.00,0.60
8510.00,0.60
8509.00,0.60
8508.00,0.60
8507.00,0.60
8506.00,0.60
8505.00,0.60
8504.00,0.60
8503.00,0.60
8502.00,0.60
8501.00,0.60
8500.00,0.60
8499.00,0.60
8498.00,0.60
8497.00,0.60
8496.00,0.60
8495.00,0.60
8494.00,0.60
8493.00,0.60
8492.00,0.60
8491.00,0.60
8490.00,0.60
8489.00,0.59
8488.00,0.59
8487.00,0.59
8486.00,0.59
8485.00,0.59
8484.00,0.59
8483.00,0.59
8482.00,0.59
8481.00,0.59
8480.00,0.59
8479.00,0.59
8478.00,0.59
8477.00,0.59
8476.00,0.59
8475.00,0.59
8474.00,0.58
8473.00,0.58
8472.00,0.58
8471.00,0.58
8470.00,0.58
8469.00,0.58
8468.00,0.58
8467.00,0.58
8466.00,0.58
8465.00,0.58
8464.00,0.58
8463.00,0.58
8462.00,0.58
8461.00,0.58
8460.00,0.58
8459.00,0.58
8458.00,0.58
8457.00,0.59
8456.00,0.59
8455.00,0.59
8454.00,0.59
8453.00,0.59
8452.00,0.59
8451.00,0.59
8450.00,0.59
8449.00,0.59
8448.00,0.59
8447.00,0.59
8446.00,0.59
8445.00,0.59
8444.00,0.59
8443.00,0.59
8442.00,0.59
8441.00,0.59
8440.00,0.59
8439.00,0.59
8438.00,0.59
8437.00,0.59
8436.00,0.59
8435.00,0.59
8434.00,0.59
8433.00,0.59
8432.00,0.59
8431.00,0.59
8430.00,0.59
8429.00,0.59
8428.00,0.59
8427.00,0.58
8426.00,0.58
8425.00,0.58
8424.00,0.58
8423.00,0.58
8422.00,0.58
8421.00,0.58
8420.00,0.58
8419.00,0.58
8418.00,0.59
8417.00,0.59
8416.00,0.59
8415.00,0.59
8414.00,0.59
8413.00,0.59
8412.00,0.59
8411.00,0.59
8410.00,0.59
8409.00,0.59
8408.00,0.59
8407.00,0.59
8406.00,0.59
8405.00,0.59
8404.00,0.59
8403.00,0.59
8402.00,0.59
8401.00,0.59
8400.00,0.59
8399.00,0.59
8398.00,0.59
8397.00,0.59
8396.00,0.59
8395.00,0.59
8394.00,0.59
8393.00,0.59
8392.00,0.59
8391.00,0.59
8390.00,0.59
8389.00,0.59
8388.00,0.59
8387.00,0.59
8386.00,0.59
8385.00,0.59
8384.00,0.59
8383.00,0.60
8382.00,0.60
8381.00,0.60
8380.00,0.60
8379.00,0.60
8378.00,0.60
8377.00,0.60
8376.00,0.60
8375.00,0.60
8374.00,0.60
8373.00,0.60
8372.00,0.60
8371.00,0.60
8370.00,0.60
8369.00,0.60
8368.00,0.60
8367.00,0.60
8366.00,0.60
8365.00,0.60
8364.00,0.60
8363.00,0.60
8362.00,0.60
8361.00,0.60
8360.00,0.60
8359.00,0.60
8358.00,0.60
8357.00,0.60
8356.00,0.60
8355.00,0.60
8354.00,0.60
8353.00,0.60
8352.00,0.60
8351.00,0.60
8350.00,0.60
8349.00,0.60
8348.00,0.60
8347.00,0.60
8346.00,0.60
8345.00,0.60
8344.00,0.60
8343.00,0.60
8342.00,0.60
8341.00,0.60
8340.00,0.60
8339.00,0.60
8338.00,0.60
8337.00,0.60
8336.00,0.60
8335.00,0.60
8334.00,0.60
8333.00,0.60
8332.00,0.61
8331.00,0.61
8330.00,0.61
8329.00,0.61
8328.00,0.61
8327.00,0.61
8326.00,0.61
8325.00,0.61
8324.00,0.61
8323.00,0.61
8322.00,0.61
8321.00,0.61
8320.00,0.61
8319.00,0.61
8318.00,0.61
8317.00,0.61
8316.00,0.61
8315.00,0.61
8314.00,0.61
8313.00,0.61
8312.00,0.61
8311.00,0.61
8310.00,0.61
8309.00,0.61
8308.00,0.61
8307.00,0.61
8306.00,0.61
8305.00,0.61
8304.00,0.61
8303.00,0.61
8302.00,0.61
8301.00,0.61
8300.00,0.61
8299.00,0.61
8298.00,0.61
8297.00,0.61
8296.00,0.61
8295.00,0.61
8294.00,0.61
8293.00,0.61
8292.00,0.61
8291.00,0.61
8290.00,0.61
8289.00,0.61
8288.00,0.61
8287.00,0.61
8286.00,0.61
8285.00,0.61
8284.00,0.61
8283.00,0.61
8282.00,0.61
8281.00,0.61
8280.00,0.61
8279.00,0.61
8278.00,0.61
8277.00,0.61
8276.00,0.61
8275.00,0.61
8274.00,0.61
8273.00,0.61
8272.00,0.61
8271.00,0.61
8270.00,0.61
8269.00,0.61
8268.00,0.61
8267.00,0.61
8266.00,0.61
8265.00,0.61
8264.00,0.61
8263.00,0.61
8262.00,0.61
8261.00,0.61
8260.00,0.61
8259.00,0.61
8258.00,0.61
8257.00,0.61
8256.00,0.61
8255.00,0.61
8254.00,0.61
8253.00,0.61
8252.00,0.61
8251.00,0.61
8250.00,0.61
8249.00,0.61
8248.00,0.61
8247.00,0.61
8246.00,0.61
8245.00,0.61
8244.00,0.61
8243.00,0.61
8242.00,0.61
8241.00,0.61
8240.00,0.61
8239.00,0.61
8238.00,0.61
8237.00,0.61
8236.00,0.62
8235.00,0.62
8234.00,0.62
8233.00,0.62
8232.00,0.62
8231.00,0.62
8230.00,0.62
8229.00,0.62
8228.00,0.62
8227.00,0.62
8226.00,0.62
8225.00,0.62
8224.00,0.62
8223.00,0.62
8222.00,0.63
8221.00,0.63
8220.00,0.63
8219.00,0.63
8218.00,0.63
8217.00,0.63
8216.00,0.63
8215.00,0.63
8214.00,0.63
8213.00,0.63
8212.00,0.63
8211.00,0.63
8210.00,0.63
8209.00,0.63
8208.00,0.63
8207.00,0.63
8206.00,0.63
8205.00,0.63
8204.00,0.63
8203.00,0.63
8202.00,0.63
8201.00,0.63
8200.00,0.63
8199.00,0.63
8198.00,0.63
8197.00,0.63
8196.00,0.63
8195.00,0.63
8194.00,0.63
8193.00,0.62
8192.00,0.62
8191.00,0.62
8190.00,0.62
8189.00,0.62
8188.00,0.62
8187.00,0.62
8186.00,0.62
8185.00,0.62
8184.00,0.62
8183.00,0.62
8182.00,0.62
8181.00,0.62
8180.00,0.62
8179.00,0.62
8178.00,0.62
8177.00,0.62
8176.00,0.62
8175.00,0.62
8174.00,0.62
8173.00,0.62
8172.00,0.62
8171.00,0.62
8170.00,0.62
8169.00,0.62
8168.00,0.62
8167.00,0.62
8166.00,0.62
8165.00,0.62
8164.00,0.62
8163.00,0.62
8162.00,0.62
8161.00,0.62
8160.00,0.62
8159.00,0.62
8158.00,0.63
8157.00,0.63
8156.00,0.63
8155.00,0.63
8154.00,0.63
8153.00,0.63
8152.00,0.63
8151.00,0.63
8150.00,0.63
8149.00,0.63
8148.00,0.63
8147.00,0.63
8146.00,0.63
8145.00,0.63
8144.00,0.64
8143.00,0.64
8142.00,0.64
8141.00,0.64
8140.00,0.64
8139.00,0.65
8138.00,0.65
8137.00,0.65
8136.00,0.65
8135.00,0.65
8134.00,0.65
8133.00,0.65
8132.00,0.65
8131.00,0.65
8130.00,0.65
8129.00,0.65
8128.00,0.65
8127.00,0.65
8126.00,0.65
8125.00,0.65
8124.00,0.65
8123.00,0.65
8122.00,0.65
8121.00,0.65
8120.00,0.65
8119.00,0.65
8118.00,0.65
8117.00,0.65
8116.00,0.65
8115.00,0.65
8114.00,0.65
8113.00,0.65
8112.00,0.65
8111.00,0.64
8110.00,0.64
8109.00,0.64
8108.00,0.64
8107.00,0.64
8106.00,0.64
8105.00,0.64
8104.00,0.64
8103.00,0.64
8102.00,0.64
8101.00,0.64
8100.00,0.64
8099.00,0.64
8098.00,0.64
8097.00,0.64
8096.00,0.64
8095.00,0.64
8094.00,0.64
8093.00,0.64
8092.00,0.64
8091.00,0.64
8090.00,0.64
8089.00,0.64
8088.00,0.64
8087.00,0.64
8086.00,0.64
8085.00,0.64
8084.00,0.64
8083.00,0.64
8082.00,0.64
8081.00,0.64
8080.00,0.65
8079.00,0.65
8078.00,0.65
8077.00,0.65
8076.00,0.65
8075.00,0.65
8074.00,0.65
8073.00,0.65
8072.00,0.65
8071.00,0.65
8070.00,0.65
8069.00,0.65
8068.00,0.65
8067.00,0.65
8066.00,0.65
8065.00,0.65
8064.00,0.65
8063.00,0.65
8062.00,0.65
8061.00,0.65
8060.00,0.65
8059.00,0.65
8058.00,0.65
8057.00,0.65
8056.00,0.65
8055.00,0.65
8054.00,0.65
8053.00,0.65
8052.00,0.65
8051.00,0.65
8050.00,0.65
8049.00,0.65
8048.00,0.65
8047.00,0.65
8046.00,0.65
8045.00,0.66
8044.00,0.66
8043.00,0.66
8042.00,0.66
8041.00,0.66
8040.00,0.66
8039.00,0.66
8038.00,0.66
8037.00,0.66
8036.00,0.66
8035.00,0.66
8034.00,0.66
8033.00,0.66
8032.00,0.66
8031.00,0.66
8030.00,0.66
8029.00,0.66
8028.00,0.66
8027.00,0.66
8026.00,0.66
8025.00,0.66
8024.00,0.66
8023.00,0.66
8022.00,0.66
8021.00,0.66
8020.00,0.66
8019.00,0.66
8018.00,0.66
8017.00,0.66
8016.00,0.66
8015.00,0.66
8014.00,0.66
8013.00,0.66
8012.00,0.66
8011.00,0.66
8010.00,0.66
8009.00,0.66
8008.00,0.66
8007.00,0.66
8006.00,0.66
8005.00,0.66
8004.00,0.66
8003.00,0.66
8002.00,0.66
8001.00,0.66
8000.00,0.66
7999.00,0.66
7998.00,0.66
7997.00,0.66
7996.00,0.66
7995.00,0.66
7994.00,0.66
7993.00,0.66
7992.00,0.66
7991.00,0.66
7990.00,0.66
7989.00,0.66
7988.00,0.66
7987.00,0.66
7986.00,0.66
7985.00,0.66
7984.00,0.66
7983.00,0.66
7982.00,0.66
7981.00,0.66
7980.00,0.66
7979.00,0.66
7978.00,0.66
7977.00,0.66
7976.00,0.66
7975.00,0.66
7974.00,0.66
7973.00,0.66
7972.00,0.66
7971.00,0.66
7970.00,0.66
7969.00,0.66
7968.00,0.66
7967.00,0.67
7966.00,0.67
7965.00,0.67
7964.00,0.67
7963.00,0.67
7962.00,0.67
7961.00,0.67
7960.00,0.67
7959.00,0.67
7958.00,0.67
7957.00,0.67
7956.00,0.67
7955.00,0.67
7954.00,0.67
7953.00,0.67
7952.00,0.66
7951.00,0.66
7950.00,0.66
7949.00,0.66
7948.00,0.66
7947.00,0.66
7946.00,0.66
7945.00,0.66
7944.00,0.66
7943.00,0.66
7942.00,0.66
7941.00,0.66
7940.00,0.66
7939.00,0.66
7938.00,0.66
7937.00,0.66
7936.00,0.66
7935.00,0.66
7934.00,0.66
7933.00,0.66
7932.00,0.66
7931.00,0.66
7930.00,0.66
7929.00,0.66
7928.00,0.66
7927.00,0.66
7926.00,0.66
7925.00,0.66
7924.00,0.66
7923.00,0.66
7922.00,0.66
7921.00,0.66
7920.00,0.66
7919.00,0.66
7918.00,0.66
7917.00,0.66
7916.00,0.66
7915.00,0.66
7914.00,0.66
7913.00,0.66
7912.00,0.66
7911.00,0.66
7910.00,0.66
7909.00,0.66
7908.00,0.66
7907.00,0.66
7906.00,0.66
7905.00,0.66
7904.00,0.66
7903.00,0.66
7902.00,0.66
7901.00,0.66
7900.00,0.66
7899.00,0.66
7898.00,0.66
7897.00,0.66
7896.00,0.66
7895.00,0.66
7894.00,0.66
7893.00,0.66
7892.00,0.66
7891.00,0.67
7890.00,0.67
7889.00,0.67
7888.00,0.67
7887.00,0.67
7886.00,0.67
7885.00,0.67
7884.00,0.67
7883.00,0.67
7882.00,0.67
7881.00,0.67
7880.00,0.67
7879.00,0.67
7878.00,0.67
7877.00,0.67
7876.00,0.67
7875.00,0.67
7874.00,0.67
7873.00,0.67
7872.00,0.67
7871.00,0.67
7870.00,0.67
7869.00,0.67
7868.00,0.67
7867.00,0.67
7866.00,0.67
7865.00,0.67
7864.00,0.67
7863.00,0.67
7862.00,0.67
7861.00,0.67
7860.00,0.67
7859.00,0.67
7858.00,0.67
7857.00,0.67
7856.00,0.67
7855.00,0.67
7854.00,0.67
7853.00,0.67
7852.00,0.67
7851.00,0.67
7850.00,0.67
7849.00,0.67
7848.00,0.67
7847.00,0.67
7846.00,0.67
7845.00,0.67
7844.00,0.67
7843.00,0.67
7842.00,0.67
7841.00,0.67
7840.00,0.67
7839.00,0.67
7838.00,0.67
7837.00,0.67
7836.00,0.67
7835.00,0.67
7834.00,0.67
7833.00,0.68
7832.00,0.68
7831.00,0.68
7830.00,0.68
7829.00,0.68
7828.00,0.68
7827.00,0.68
7826.00,0.68
7825.00,0.68
7824.00,0.68
7823.00,0.68
7822.00,0.68
7821.00,0.67
7820.00,0.67
7819.00,0.67
7818.00,0.67
7817.00,0.67
7816.00,0.67
7815.00,0.67
7814.00,0.67
7813.00,0.67
7812.00,0.67
7811.00,0.67
7810.00,0.67
7809.00,0.67
7808.00,0.67
7807.00,0.67
7806.00,0.67
7805.00,0.67
7804.00,0.67
7803.00,0.67
7802.00,0.67
7801.00,0.67
7800.00,0.67
7799.00,0.67
7798.00,0.67
7797.00,0.67
7796.00,0.67
7795.00,0.67
7794.00,0.67
7793.00,0.67
7792.00,0.67
7791.00,0.67
7790.00,0.67
7789.00,0.67
7788.00,0.67
7787.00,0.67
7786.00,0.67
7785.00,0.67
7784.00,0.67
7783.00,0.67
7782.00,0.67
7781.00,0.67
7780.00,0.67
7779.00,0.67
7778.00,0.67
7777.00,0.67
7776.00,0.67
7775.00,0.67
7774.00,0.67
7773.00,0.67
7772.00,0.68
7771.00,0.68
7770.00,0.68
7769.00,0.68
7768.00,0.68
7767.00,0.68
7766.00,0.68
7765.00,0.68
7764.00,0.68
7763.00,0.68
7762.00,0.68
7761.00,0.68
7760.00,0.68
7759.00,0.68
7758.00,0.68
7757.00,0.68
7756.00,0.67
7755.00,0.67
7754.00,0.67
7753.00,0.67
7752.00,0.67
7751.00,0.67
7750.00,0.67
7749.00,0.67
7748.00,0.67
7747.00,0.67
7746.00,0.67
7745.00,0.67
7744.00,0.67
7743.00,0.67
7742.00,0.67
7741.00,0.67
7740.00,0.67
7739.00,0.66
7738.00,0.66
7737.00,0.66
7736.00,0.66
7735.00,0.66
7734.00,0.67
7733.00,0.67
7732.00,0.67
7731.00,0.67
7730.00,0.67
7729.00,0.67
7728.00,0.67
7727.00,0.67
7726.00,0.67
7725.00,0.67
7724.00,0.68
7723.00,0.68
7722.00,0.68
7721.00,0.68
7720.00,0.68
7719.00,0.68
7718.00,0.68
7717.00,0.68
7716.00,0.68
7715.00,0.68
7714.00,0.68
7713.00,0.68
7712.00,0.68
7711.00,0.67
7710.00,0.67
7709.00,0.67
7708.00,0.67
7707.00,0.67
7706.00,0.67
7705.00,0.67
7704.00,0.67
7703.00,0.67
7702.00,0.67
7701.00,0.67
7700.00,0.67
7699.00,0.67
7698.00,0.67
7697.00,0.67
7696.00,0.67
7695.00,0.67
7694.00,0.67
7693.00,0.67
7692.00,0.67
7691.00,0.67
7690.00,0.67
7689.00,0.67
7688.00,0.67
7687.00,0.67
7686.00,0.67
7685.00,0.67
7684.00,0.67
7683.00,0.67
7682.00,0.67
7681.00,0.67
7680.00,0.67
7679.00,0.67
7678.00,0.67
7677.00,0.67
7676.00,0.67
7675.00,0.67
7674.00,0.67
7673.00,0.67
7672.00,0.67
7671.00,0.67
7670.00,0.68
7669.00,0.68
7668.00,0.68
7667.00,0.68
7666.00,0.68
7665.00,0.68
7664.00,0.68
7663.00,0.68
7662.00,0.68
7661.00,0.68
7660.00,0.68
7659.00,0.68
7658.00,0.68
7657.00,0.68
7656.00,0.68
7655.00,0.68
7654.00,0.68
7653.00,0.68
7652.00,0.68
7651.00,0.68
7650.00,0.68
7649.00,0.68
7648.00,0.68
7647.00,0.68
7646.00,0.68
7645.00,0.68
7644.00,0.68
7643.00,0.68
7642.00,0.68
7641.00,0.68
7640.00,0.68
7639.00,0.68
7638.00,0.68
7637.00,0.68
7636.00,0.68
7635.00,0.68
7634.00,0.68
7633.00,0.68
7632.00,0.68
7631.00,0.67
7630.00,0.67
7629.00,0.67
7628.00,0.67
7627.00,0.67
7626.00,0.67
7625.00,0.67
7624.00,0.67
7623.00,0.67
7622.00,0.67
7621.00,0.67
7620.00,0.67
7619.00,0.67
7618.00,0.67
7617.00,0.67
7616.00,0.67
7615.00,0.67
7614.00,0.67
7613.00,0.67
7612.00,0.67
7611.00,0.67
7610.00,0.67
7609.00,0.67
7608.00,0.67
7607.00,0.67
7606.00,0.67
7605.00,0.67
7604.00,0.67
7603.00,0.68
7602.00,0.68
7601.00,0.68
7600.00,0.68
7599.00,0.68
7598.00,0.68
7597.00,0.68
7596.00,0.68
7595.00,0.68
7594.00,0.68
7593.00,0.68
7592.00,0.68
7591.00,0.68
7590.00,0.68
7589.00,0.68
7588.00,0.68
7587.00,0.68
7586.00,0.68
7585.00,0.68
7584.00,0.68
7583.00,0.68
7582.00,0.68
7581.00,0.68
7580.00,0.68
7579.00,0.68
7578.00,0.67
7577.00,0.67
7576.00,0.67
7575.00,0.67
7574.00,0.67
7573.00,0.67
7572.00,0.67
7571.00,0.67
7570.00,0.67
7569.00,0.67
7568.00,0.67
7567.00,0.67
7566.00,0.67
7565.00,0.67
7564.00,0.67
7563.00,0.67
7562.00,0.67
7561.00,0.67
7560.00,0.67
7559.00,0.67
7558.00,0.67
7557.00,0.67
7556.00,0.67
7555.00,0.67
7554.00,0.67
7553.00,0.67
7552.00,0.67
7551.00,0.67
7550.00,0.67
7549.00,0.67
7548.00,0.67
7547.00,0.67
7546.00,0.67
7545.00,0.67
7544.00,0.67
7543.00,0.67
7542.00,0.67
7541.00,0.67
7540.00,0.67
7539.00,0.66
7538.00,0.66
7537.00,0.66
7536.00,0.66
7535.00,0.67
7534.00,0.67
7533.00,0.67
7532.00,0.67
7531.00,0.67
7530.00,0.67
7529.00,0.67
7528.00,0.67
7527.00,0.67
7526.00,0.67
7525.00,0.67
7524.00,0.67
7523.00,0.67
7522.00,0.67
7521.00,0.67
7520.00,0.67
7519.00,0.67
7518.00,0.67
7517.00,0.67
7516.00,0.67
7515.00,0.67
7514.00,0.67
7513.00,0.67
7512.00,0.67
7511.00,0.66
7510.00,0.66
7509.00,0.66
7508.00,0.66
7507.00,0.66
7506.00,0.66
7505.00,0.66
7504.00,0.66
7503.00,0.66
7502.00,0.66
7501.00,0.66
7500.00,0.66
7499.00,0.66
7498.00,0.66
7497.00,0.66
7496.00,0.66
7495.00,0.66
7494.00,0.66
7493.00,0.66
7492.00,0.66
7491.00,0.66
7490.00,0.66
7489.00,0.66
7488.00,0.66
7487.00,0.66
7486.00,0.66
7485.00,0.66
7484.00,0.66
7483.00,0.66
7482.00,0.66
7481.00,0.66
7480.00,0.65
7479.00,0.65
7478.00,0.65
7477.00,0.65
7476.00,0.65
7475.00,0.65
7474.00,0.65
7473.00,0.65
7472.00,0.65
7471.00,0.65
7470.00,0.65
7469.00,0.65
7468.00,0.65
7467.00,0.65
7466.00,0.65
7465.00,0.65
7464.00,0.65
7463.00,0.65
7462.00,0.65
7461.00,0.65
7460.00,0.65
7459.00,0.65
7458.00,0.65
7457.00,0.64
7456.00,0.64
7455.00,0.64
7454.00,0.64
7453.00,0.64
7452.00,0.64
7451.00,0.64
7450.00,0.64
7449.00,0.64
7448.00,0.64
7447.00,0.64
7446.00,0.64
7445.00,0.64
7444.00,0.64
7443.00,0.64
7442.00,0.64
7441.00,0.64
7440.00,0.64
7439.00,0.64
7438.00,0.64
7437.00,0.64
7436.00,0.64
7435.00,0.64
7434.00,0.64
7433.00,0.64
7432.00,0.64
7431.00,0.64
7430.00,0.64
7429.00,0.64
7428.00,0.64
7427.00,0.64
7426.00,0.64
7425.00,0.64
7424.00,0.64
7423.00,0.64
7422.00,0.64
7421.00,0.64
7420.00,0.64
7419.00,0.64
7418.00,0.64
7417.00,0.63
7416.00,0.63
7415.00,0.63
7414.00,0.63
7413.00,0.63
7412.00,0.63
7411.00,0.63
7410.00,0.63
7409.00,0.63
7408.00,0.63
7407.00,0.63
7406.00,0.63
7405.00,0.63
7404.00,0.63
7403.00,0.63
7402.00,0.63
7401.00,0.62
7400.00,0.62
7399.00,0.62
7398.00,0.62
7397.00,0.62
7396.00,0.62
7395.00,0.62
7394.00,0.62
7393.00,0.62
7392.00,0.62
7391.00,0.61
7390.00,0.61
7389.00,0.61
7388.00,0.61
7387.00,0.61
7386.00,0.61
7385.00,0.61
7384.00,0.61
7383.00,0.61
7382.00,0.61
7381.00,0.61
7380.00,0.61
7379.00,0.61
7378.00,0.61
7377.00,0.61
7376.00,0.61
7375.00,0.61
7374.00,0.61
7373.00,0.61
7372.00,0.61
7371.00,0.61
7370.00,0.61
7369.00,0.61
7368.00,0.61
7367.00,0.61
7366.00,0.61
7365.00,0.61
7364.00,0.61
7363.00,0.61
7362.00,0.61
7361.00,0.61
7360.00,0.61
7359.00,0.61
7358.00,0.61
7357.00,0.61
7356.00,0.61
7355.00,0.61
7354.00,0.61
7353.00,0.61
7352.00,0.61
7351.00,0.61
7350.00,0.61
7349.00,0.61
7348.00,0.60
7347.00,0.60
7346.00,0.60
7345.00,0.60
7344.00,0.60
7343.00,0.60
7342.00,0.60
7341.00,0.60
7340.00,0.60
7339.00,0.60
7338.00,0.60
7337.00,0.60
7336.00,0.60
7335.00,0.60
7334.00,0.60
7333.00,0.60
7332.00,0.60
7331.00,0.60
7330.00,0.60
7329.00,0.60
7328.00,0.60
7327.00,0.60
7326.00,0.60
7325.00,0.60
7324.00,0.60
7323.00,0.60
7322.00,0.59
7321.00,0.59
7320.00,0.59
7319.00,0.59
7318.00,0.59
7317.00,0.59
7316.00,0.59
7315.00,0.59
7314.00,0.59
7313.00,0.59
7312.00,0.59
7311.00,0.59
7310.00,0.59
7309.00,0.59
7308.00,0.59
7307.00,0.59
7306.00,0.59
7305.00,0.59
7304.00,0.59
7303.00,0.59
7302.00,0.59
7301.00,0.59
7300.00,0.59
7299.00,0.59
7298.00,0.59
7297.00,0.59
7296.00,0.59
7295.00,0.59
7294.00,0.59
7293.00,0.59
7292.00,0.59
7291.00,0.59
7290.00,0.59
7289.00,0.59
7288.00,0.58
7287.00,0.58
7286.00,0.58
7285.00,0.58
7284.00,0.58
7283.00,0.58
7282.00,0.58
7281.00,0.58
7280.00,0.58
7279.00,0.58
7278.00,0.58
7277.00,0.57
7276.00,0.57
7275.00,0.57
7274.00,0.57
7273.00,0.57
7272.00,0.57
7271.00,0.57
7270.00,0.57
7269.00,0.57
7268.00,0.57
7267.00,0.57
7266.00,0.57
7265.00,0.57
7264.00,0.57
7263.00,0.56
7262.00,0.56
7261.00,0.56
7260.00,0.56
7259.00,0.56
7258.00,0.56
7257.00,0.56
7256.00,0.55
7255.00,0.55
7254.00,0.55
7253.00,0.55
7252.00,0.55
7251.00,0.55
7250.00,0.54
7249.00,0.54
7248.00,0.54
7247.00,0.54
7246.00,0.54
7245.00,0.54
7244.00,0.54
7243.00,0.53
7242.00,0.53
7241.00,0.53
7240.00,0.53
7239.00,0.53
7238.00,0.53
7237.00,0.53
7236.00,0.52
7235.00,0.52
7234.00,0.52
7233.00,0.52
7232.00,0.52
7231.00,0.52
7230.00,0.52
7229.00,0.51
7228.00,0.51
7227.00,0.51
7226.00,0.51
7225.00,0.51
7224.00,0.51
7223.00,0.51
7222.00,0.50
7221.00,0.50
7220.00,0.50
7219.00,0.50
7218.00,0.50
7217.00,0.49
7216.00,0.49
7215.00,0.49
7214.00,0.49
7213.00,0.49
7212.00,0.48
7211.00,0.48
7210.00,0.48
7209.00,0.48
7208.00,0.48
7207.00,0.47
7206.00,0.47
7205.00,0.47
7204.00,0.47
7203.00,0.47
7202.00,0.46
7201.00,0.46
7200.00,0.46
7199.00,0.46
7198.00,0.46
7197.00,0.45
7196.00,0.45
7195.00,0.45
7194.00,0.45
7193.00,0.45
7192.00,0.45
7191.00,0.44
7190.00,0.44
7189.00,0.44
7188.00,0.44
7187.00,0.44
7186.00,0.44
7185.00,0.43
7184.00,0.43
7183.00,0.43
7182.00,0.43
7181.00,0.43
7180.00,0.42
7179.00,0.42
7178.00,0.42
7177.00,0.42
7176.00,0.42
7175.00,0.41
7174.00,0.41
7173.00,0.41
7172.00,0.41
7171.00,0.41
7170.00,0.41
7169.00,0.40
7168.00,0.40
7167.00,0.40
7166.00,0.40
7165.00,0.39
7164.00,0.39
7163.00,0.39
7162.00,0.39
7161.00,0.39
7160.00,0.39
7159.00,0.38
7158.00,0.38
7157.00,0.38
7156.00,0.38
7155.00,0.38
7154.00,0.38
7153.00,0.37
7152.00,0.37
7151.00,0.37
7150.00,0.37
7149.00,0.37
7148.00,0.37
7147.00,0.37
7146.00,0.37
7145.00,0.36
7144.00,0.36
7143.00,0.36
7142.00,0.36
7141.00,0.36
7140.00,0.36
7139.00,0.36
7138.00,0.35
7137.00,0.35
7136.00,0.35
7135.00,0.35
7134.00,0.35
7133.00,0.35
7132.00,0.35
7131.00,0.35
7130.00,0.34
7129.00,0.34
7128.00,0.34
7127.00,0.34
7126.00,0.34
7125.00,0.34
7124.00,0.34
7123.00,0.33
7122.00,0.33
7121.00,0.33
7120.00,0.33
7119.00,0.33
7118.00,0.33
7117.00,0.32
7116.00,0.32
7115.00,0.32
7114.00,0.32
7113.00,0.32
7112.00,0.32
7111.00,0.32
7110.00,0.31
7109.00,0.31
7108.00,0.31
7107.00,0.31
7106.00,0.31
7105.00,0.31
7104.00,0.31
7103.00,0.31
7102.00,0.31
7101.00,0.31
7100.00,0.31
7099.00,0.31
7098.00,0.31
7097.00,0.30
7096.00,0.30
7095.00,0.30
7094.00,0.30
7093.00,0.30
7092.00,0.30
7091.00,0.30
7090.00,0.30
7089.00,0.30
7088.00,0.30
7087.00,0.30
7086.00,0.29
7085.00,0.29
7084.00,0.29
7083.00,0.29
7082.00,0.29
7081.00,0.29
7080.00,0.29
7079.00,0.29
7078.00,0.29
7077.00,0.29
7076.00,0.29
7075.00,0.28
7074.00,0.28
7073.00,0.28
7072.00,0.28
7071.00,0.28
7070.00,0.28
7069.00,0.28
7068.00,0.28
7067.00,0.28
7066.00,0.28
7065.00,0.28
7064.00,0.28
7063.00,0.28
7062.00,0.28
7061.00,0.28
7060.00,0.28
7059.00,0.28
7058.00,0.28
7057.00,0.28
7056.00,0.28
7055.00,0.28
7054.00,0.28
7053.00,0.28
7052.00,0.28
7051.00,0.28
7050.00,0.28
7049.00,0.28
7048.00,0.28
7047.00,0.28
7046.00,0.28
7045.00,0.27
7044.00,0.27
7043.00,0.27
7042.00,0.27
7041.00,0.27
7040.00,0.27
7039.00,0.27
7038.00,0.27
7037.00,0.27
7036.00,0.27
7035.00,0.27
7034.00,0.27
7033.00,0.27
7032.00,0.27
7031.00,0.27
7030.00,0.27
7029.00,0.27
7028.00,0.27
7027.00,0.27
7026.00,0.27
7025.00,0.27
7024.00,0.27
7023.00,0.27
7022.00,0.27
7021.00,0.27
7020.00,0.27
7019.00,0.27
7018.00,0.27
7017.00,0.27
7016.00,0.27
7015.00,0.27
7014.00,0.27
7013.00,0.27
7012.00,0.27
7011.00,0.27
7010.00,0.27
7009.00,0.27
7008.00,0.27
7007.00,0.27
7006.00,0.26
7005.00,0.26
7004.00,0.26
7003.00,0.26
7002.00,0.26
7001.00,0.26
7000.00,0.26
6999.00,0.26
6998.00,0.26
6997.00,0.26
6996.00,0.26
6995.00,0.26
6994.00,0.26
6993.00,0.26
6992.00,0.26
6991.00,0.26
6990.00,0.26
6989.00,0.26
6988.00,0.26
6987.00,0.26
6986.00,0.26
6985.00,0.26
6984.00,0.26
6983.00,0.26
6982.00,0.26
6981.00,0.26
6980.00,0.26
6979.00,0.26
6978.00,0.26
6977.00,0.26
6976.00,0.26
6975.00,0.26
6974.00,0.26
6973.00,0.26
6972.00,0.26
6971.00,0.26
6970.00,0.26
6969.00,0.26
6968.00,0.26
6967.00,0.26
6966.00,0.26
6965.00,0.26
6964.00,0.26
6963.00,0.26
6962.00,0.26
6961.00,0.26
6960.00,0.26
6959.00,0.26
6958.00,0.26
6957.00,0.26
6956.00,0.26
6955.00,0.26
6954.00,0.26
6953.00,0.26
6952.00,0.26
6951.00,0.26
6950.00,0.26
6949.00,0.26
6948.00,0.26
6947.00,0.26
6946.00,0.26
6945.00,0.26
6944.00,0.26
6943.00,0.26
6942.00,0.26
6941.00,0.26
6940.00,0.26
6939.00,0.26
6938.00,0.26
6937.00,0.26
6936.00,0.26
6935.00,0.26
6934.00,0.26
6933.00,0.26
6932.00,0.26
6931.00,0.26
6930.00,0.26
6929.00,0.26
6928.00,0.26
6927.00,0.26
6926.00,0.26
6925.00,0.26
6924.00,0.26
6923.00,0.26
6922.00,0.26
6921.00,0.26
6920.00,0.26
6919.00,0.26
6918.00,0.26
6917.00,0.26
6916.00,0.26
6915.00,0.26
6914.00,0.26
6913.00,0.26
6912.00,0.26
6911.00,0.26
6910.00,0.26
6909.00,0.26
6908.00,0.26
6907.00,0.26
6906.00,0.26
6905.00,0.26
6904.00,0.26
6903.00,0.26
6902.00,0.26
6901.00,0.26
6900.00,0.26
6899.00,0.26
6898.00,0.26
6897.00,0.26
6896.00,0.26
6895.00,0.26
6894.00,0.26
6893.00,0.26
6892.00,0.26
6891.00,0.26
6890.00,0.26
6889.00,0.26
6888.00,0.26
6887.00,0.26
6886.00,0.26
6885.00,0.26
6884.00,0.26
6883.00,0.26
6882.00,0.26
6881.00,0.26
6880.00,0.26
6879.00,0.26
6878.00,0.26
6877.00,0.26
6876.00,0.26
6875.00,0.26
6874.00,0.25
6873.00,0.25
6872.00,0.25
6871.00,0.25
6870.00,0.25
6869.00,0.25
6868.00,0.25
6867.00,0.25
6866.00,0.25
6865.00,0.25
6864.00,0.25
6863.00,0.25
6862.00,0.25
6861.00,0.25
6860.00,0.25
6859.00,0.25
6858.00,0.25
6857.00,0.25
6856.00,0.25
6855.00,0.25
6854.00,0.25
6853.00,0.25
6852.00,0.25
6851.00,0.25
6850.00,0.25
6849.00,0.25
6848.00,0.25
6847.00,0.25
6846.00,0.25
6845.00,0.25
6844.00,0.25
6843.00,0.25
6842.00,0.25
6841.00,0.25
6840.00,0.25
6839.00,0.25
6838.00,0.26
6837.00,0.26
6836.00,0.26
6835.00,0.26
6834.00,0.26
6833.00,0.26
6832.00,0.26
6831.00,0.26
6830.00,0.26
6829.00,0.26
6828.00,0.26
6827.00,0.26
6826.00,0.26
6825.00,0.26
6824.00,0.26
6823.00,0.26
6822.00,0.26
6821.00,0.26
6820.00,0.26
6819.00,0.26
6818.00,0.26
6817.00,0.27
6816.00,0.27
6815.00,0.27
6814.00,0.27
6813.00,0.27
6812.00,0.27
6811.00,0.27
6810.00,0.27
6809.00,0.27
6808.00,0.27
6807.00,0.27
6806.00,0.27
6805.00,0.27
6804.00,0.27
6803.00,0.27
6802.00,0.27
6801.00,0.27
6800.00,0.27
6799.00,0.26
6798.00,0.26
6797.00,0.26
6796.00,0.26
6795.00,0.26
6794.00,0.26
6793.00,0.26
6792.00,0.26
6791.00,0.26
6790.00,0.26
6789.00,0.26
6788.00,0.27
6787.00,0.27
6786.00,0.27
6785.00,0.27
6784.00,0.27
6783.00,0.27
6782.00,0.27
6781.00,0.27
6780.00,0.27
6779.00,0.27
6778.00,0.27
6777.00,0.27
6776.00,0.27
6775.00,0.27
6774.00,0.27
6773.00,0.27
6772.00,0.27
6771.00,0.27
6770.00,0.27
6769.00,0.26
6768.00,0.26
6767.00,0.26
6766.00,0.26
6765.00,0.26
6764.00,0.26
6763.00,0.26
6762.00,0.26
6761.00,0.26
6760.00,0.27
6759.00,0.27
6758.00,0.27
6757.00,0.27
6756.00,0.27
6755.00,0.27
6754.00,0.27
6753.00,0.27
6752.00,0.27
6751.00,0.27
6750.00,0.27
6749.00,0.27
6748.00,0.27
6747.00,0.27
6746.00,0.27
6745.00,0.27
6744.00,0.27
6743.00,0.27
6742.00,0.27
6741.00,0.27
6740.00,0.27
6739.00,0.27
6738.00,0.27
6737.00,0.27
6736.00,0.27
6735.00,0.27
6734.00,0.27
6733.00,0.27
6732.00,0.27
6731.00,0.27
6730.00,0.27
6729.00,0.27
6728.00,0.27
6727.00,0.27
6726.00,0.27
6725.00,0.28
6724.00,0.28
6723.00,0.28
6722.00,0.28
6721.00,0.28
6720.00,0.28
6719.00,0.28
6718.00,0.28
6717.00,0.28
6716.00,0.28
6715.00,0.28
6714.00,0.28
6713.00,0.28
6712.00,0.28
6711.00,0.29
6710.00,0.29
6709.00,0.29
6708.00,0.29
6707.00,0.29
6706.00,0.29
6705.00,0.29
6704.00,0.29
6703.00,0.29
6702.00,0.29
6701.00,0.29
6700.00,0.29
6699.00,0.29
6698.00,0.29
6697.00,0.29
6696.00,0.29
6695.00,0.29
6694.00,0.29
6693.00,0.29
6692.00,0.29
6691.00,0.29
6690.00,0.29
6689.00,0.29
6688.00,0.29
6687.00,0.29
6686.00,0.29
6685.00,0.29
6684.00,0.29
6683.00,0.29
6682.00,0.29
6681.00,0.29
6680.00,0.29
6679.00,0.29
6678.00,0.30
6677.00,0.30
6676.00,0.30
6675.00,0.30
6674.00,0.30
6673.00,0.30
6672.00,0.30
6671.00,0.30
6670.00,0.30
6669.00,0.30
6668.00,0.30
6667.00,0.30
6666.00,0.30
6665.00,0.30
6664.00,0.30
6663.00,0.30
6662.00,0.30
6661.00,0.30
6660.00,0.30
6659.00,0.31
6658.00,0.31
6657.00,0.31
6656.00,0.31
6655.00,0.31
6654.00,0.31
6653.00,0.31
6652.00,0.31
6651.00,0.31
6650.00,0.31
6649.00,0.31
6648.00,0.31
6647.00,0.31
6646.00,0.31
6645.00,0.31
6644.00,0.31
6643.00,0.31
6642.00,0.31
6641.00,0.31
6640.00,0.31
6639.00,0.31
6638.00,0.31
6637.00,0.31
6636.00,0.32
6635.00,0.32
6634.00,0.32
6633.00,0.32
6632.00,0.32
6631.00,0.32
6630.00,0.32
6629.00,0.32
6628.00,0.32
6627.00,0.32
6626.00,0.32
6625.00,0.32
6624.00,0.32
6623.00,0.32
6622.00,0.32
6621.00,0.32
6620.00,0.33
6619.00,0.33
6618.00,0.33
6617.00,0.33
6616.00,0.33
6615.00,0.33
6614.00,0.33
6613.00,0.33
6612.00,0.33
6611.00,0.33
6610.00,0.33
6609.00,0.33
6608.00,0.33
6607.00,0.33
6606.00,0.33
6605.00,0.33
6604.00,0.33
6603.00,0.34
6602.00,0.34
6601.00,0.34
6600.00,0.34
6599.00,0.34
6598.00,0.34
6597.00,0.34
6596.00,0.34
6595.00,0.34
6594.00,0.34
6593.00,0.34
6592.00,0.34
6591.00,0.34
6590.00,0.34
6589.00,0.34
6588.00,0.34
6587.00,0.34
6586.00,0.34
6585.00,0.34
6584.00,0.34
6583.00,0.34
6582.00,0.34
6581.00,0.34
6580.00,0.34
6579.00,0.34
6578.00,0.34
6577.00,0.34
6576.00,0.34
6575.00,0.35
6574.00,0.35
6573.00,0.35
6572.00,0.35
6571.00,0.35
6570.00,0.35
6569.00,0.35
6568.00,0.35
6567.00,0.35
6566.00,0.35
6565.00,0.35
6564.00,0.35
6563.00,0.35
6562.00,0.35
6561.00,0.35
6560.00,0.35
6559.00,0.35
6558.00,0.35
6557.00,0.35
6556.00,0.35
6555.00,0.36
6554.00,0.36
6553.00,0.36
6552.00,0.36
6551.00,0.36
6550.00,0.36
6549.00,0.36
6548.00,0.36
6547.00,0.36
6546.00,0.36
6545.00,0.36
6544.00,0.36
6543.00,0.36
6542.00,0.36
6541.00,0.36
6540.00,0.36
6539.00,0.36
6538.00,0.36
6537.00,0.36
6536.00,0.36
6535.00,0.36
6534.00,0.36
6533.00,0.37
6532.00,0.37
6531.00,0.37
6530.00,0.37
6529.00,0.37
6528.00,0.37
6527.00,0.37
6526.00,0.37
6525.00,0.37
6524.00,0.37
6523.00,0.37
6522.00,0.37
6521.00,0.38
6520.00,0.38
6519.00,0.38
6518.00,0.38
6517.00,0.38
6516.00,0.38
6515.00,0.38
6514.00,0.38
6513.00,0.38
6512.00,0.38
6511.00,0.38
6510.00,0.38
6509.00,0.38
6508.00,0.38
6507.00,0.38
6506.00,0.38
6505.00,0.38
6504.00,0.38
6503.00,0.38
6502.00,0.38
6501.00,0.38
6500.00,0.38
6499.00,0.38
6498.00,0.38
6497.00,0.38
6496.00,0.38
6495.00,0.38
6494.00,0.38
6493.00,0.38
6492.00,0.38
6491.00,0.38
6490.00,0.38
6489.00,0.38
6488.00,0.38
6487.00,0.38
6486.00,0.38
6485.00,0.38
6484.00,0.38
6483.00,0.38
6482.00,0.38
6481.00,0.39
6480.00,0.39
6479.00,0.39
6478.00,0.39
6477.00,0.39
6476.00,0.39
6475.00,0.39
6474.00,0.39
6473.00,0.39
6472.00,0.39
6471.00,0.39
6470.00,0.39
6469.00,0.39
6468.00,0.39
6467.00,0.39
6466.00,0.39
6465.00,0.39
6464.00,0.40
6463.00,0.40
6462.00,0.40
6461.00,0.40
6460.00,0.40
6459.00,0.40
6458.00,0.40
6457.00,0.40
6456.00,0.40
6455.00,0.40
6454.00,0.40
6453.00,0.40
6452.00,0.40
6451.00,0.40
6450.00,0.40
6449.00,0.40
6448.00,0.40
6447.00,0.40
6446.00,0.40
6445.00,0.40
6444.00,0.40
6443.00,0.41
6442.00,0.41
6441.00,0.41
6440.00,0.41
6439.00,0.41
6438.00,0.41
6437.00,0.41
6436.00,0.41
6435.00,0.41
6434.00,0.41
6433.00,0.41
6432.00,0.41
6431.00,0.41
6430.00,0.41
6429.00,0.41
6428.00,0.41
6427.00,0.41
6426.00,0.41
6425.00,0.41
6424.00,0.41
6423.00,0.42
6422.00,0.42
6421.00,0.42
6420.00,0.42
6419.00,0.42
6418.00,0.42
6417.00,0.42
6416.00,0.42
6415.00,0.42
6414.00,0.42
6413.00,0.42
6412.00,0.42
6411.00,0.42
6410.00,0.42
6409.00,0.42
6408.00,0.42
6407.00,0.42
6406.00,0.42
6405.00,0.42
6404.00,0.42
6403.00,0.42
6402.00,0.42
6401.00,0.42
6400.00,0.42
6399.00,0.42
6398.00,0.43
6397.00,0.43
6396.00,0.43
6395.00,0.43
6394.00,0.43
6393.00,0.43
6392.00,0.43
6391.00,0.43
6390.00,0.43
6389.00,0.43
6388.00,0.43
6387.00,0.43
6386.00,0.43
6385.00,0.43
6384.00,0.43
6383.00,0.43
6382.00,0.43
6381.00,0.44
6380.00,0.44
6379.00,0.44
6378.00,0.44
6377.00,0.44
6376.00,0.44
6375.00,0.44
6374.00,0.44
6373.00,0.44
6372.00,0.44
6371.00,0.44
6370.00,0.44
6369.00,0.44
6368.00,0.44
6367.00,0.44
6366.00,0.44
6365.00,0.44
6364.00,0.44
6363.00,0.44
6362.00,0.44
6361.00,0.44
6360.00,0.44
6359.00,0.44
6358.00,0.44
6357.00,0.44
6356.00,0.44
6355.00,0.45
6354.00,0.45
6353.00,0.45
6352.00,0.45
6351.00,0.45
6350.00,0.45
6349.00,0.45
6348.00,0.45
6347.00,0.45
6346.00,0.45
6345.00,0.45
6344.00,0.45
6343.00,0.45
6342.00,0.45
6341.00,0.45
6340.00,0.45
6339.00,0.45
6338.00,0.45
6337.00,0.46
6336.00,0.46
6335.00,0.46
6334.00,0.46
6333.00,0.46
6332.00,0.46
6331.00,0.46
6330.00,0.46
6329.00,0.46
6328.00,0.46
6327.00,0.46
6326.00,0.46
6325.00,0.46
6324.00,0.46
6323.00,0.46
6322.00,0.46
6321.00,0.46
6320.00,0.47
6319.00,0.47
6318.00,0.47
6317.00,0.47
6316.00,0.47
6315.00,0.47
6314.00,0.47
6313.00,0.47
6312.00,0.47
6311.00,0.47
6310.00,0.47
6309.00,0.48
6308.00,0.48
6307.00,0.48
6306.00,0.48
6305.00,0.48
6304.00,0.48
6303.00,0.48
6302.00,0.48
6301.00,0.48
6300.00,0.48
6299.00,0.48
6298.00,0.48
6297.00,0.48
6296.00,0.48
6295.00,0.48
6294.00,0.48
6293.00,0.48
6292.00,0.48
6291.00,0.48
6290.00,0.48
6289.00,0.48
6288.00,0.48
6287.00,0.48
6286.00,0.48
6285.00,0.48
6284.00,0.48
6283.00,0.48
6282.00,0.49
6281.00,0.49
6280.00,0.49
6279.00,0.49
6278.00,0.49
6277.00,0.49
6276.00,0.49
6275.00,0.49
6274.00,0.49
6273.00,0.49
6272.00,0.49
6271.00,0.49
6270.00,0.50
6269.00,0.50
6268.00,0.50
6267.00,0.50
6266.00,0.50
6265.00,0.50
6264.00,0.50
6263.00,0.50
6262.00,0.50
6261.00,0.50
6260.00,0.50
6259.00,0.50
6258.00,0.50
6257.00,0.50
6256.00,0.50
6255.00,0.51
6254.00,0.51
6253.00,0.51
6252.00,0.51
6251.00,0.51
6250.00,0.51
6249.00,0.51
6248.00,0.51
6247.00,0.51
6246.00,0.51
6245.00,0.51
6244.00,0.52
6243.00,0.52
6242.00,0.52
6241.00,0.52
6240.00,0.52
6239.00,0.52
6238.00,0.52
6237.00,0.52
6236.00,0.52
6235.00,0.52
6234.00,0.52
6233.00,0.53
6232.00,0.53
6231.00,0.53
6230.00,0.53
6229.00,0.53
6228.00,0.53
6227.00,0.53
6226.00,0.53
6225.00,0.53
6224.00,0.53
6223.00,0.53
6222.00,0.53
6221.00,0.53
6220.00,0.53
6219.00,0.53
6218.00,0.53
6217.00,0.53
6216.00,0.53
6215.00,0.53
6214.00,0.53
6213.00,0.53
6212.00,0.53
6211.00,0.53
6210.00,0.54
6209.00,0.54
6208.00,0.54
6207.00,0.54
6206.00,0.54
6205.00,0.54
6204.00,0.54
6203.00,0.54
6202.00,0.54
6201.00,0.54
6200.00,0.54
6199.00,0.54
6198.00,0.54
6197.00,0.55
6196.00,0.55
6195.00,0.55
6194.00,0.55
6193.00,0.55
6192.00,0.55
6191.00,0.55
6190.00,0.55
6189.00,0.55
6188.00,0.55
6187.00,0.55
6186.00,0.55
6185.00,0.55
6184.00,0.56
6183.00,0.56
6182.00,0.56
6181.00,0.56
6180.00,0.56
6179.00,0.56
6178.00,0.56
6177.00,0.56
6176.00,0.56
6175.00,0.56
6174.00,0.56
6173.00,0.56
6172.00,0.56
6171.00,0.57
6170.00,0.57
6169.00,0.57
6168.00,0.57
6167.00,0.57
6166.00,0.57
6165.00,0.57
6164.00,0.57
6163.00,0.57
6162.00,0.57
6161.00,0.57
6160.00,0.57
6159.00,0.57
6158.00,0.57
6157.00,0.57
6156.00,0.57
6155.00,0.57
6154.00,0.57
6153.00,0.58
6152.00,0.58
6151.00,0.58
6150.00,0.58
6149.00,0.58
6148.00,0.58
6147.00,0.58
6146.00,0.58
6145.00,0.58
6144.00,0.58
6143.00,0.58
6142.00,0.59
6141.00,0.59
6140.00,0.59
6139.00,0.59
6138.00,0.59
6137.00,0.59
6136.00,0.59
6135.00,0.59
6134.00,0.59
6133.00,0.59
6132.00,0.59
6131.00,0.60
6130.00,0.60
6129.00,0.60
6128.00,0.60
6127.00,0.60
6126.00,0.60
6125.00,0.60
6124.00,0.60
6123.00,0.60
6122.00,0.60
6121.00,0.60
6120.00,0.60
6119.00,0.61
6118.00,0.61
6117.00,0.61
6116.00,0.61
6115.00,0.61
6114.00,0.61
6113.00,0.61
6112.00,0.61
6111.00,0.61
6110.00,0.61
6109.00,0.61
6108.00,0.61
6107.00,0.61
6106.00,0.62
6105.00,0.62
6104.00,0.62
6103.00,0.62
6102.00,0.62
6101.00,0.62
6100.00,0.62
6099.00,0.62
6098.00,0.62
6097.00,0.62
6096.00,0.62
6095.00,0.62
6094.00,0.62
6093.00,0.62
6092.00,0.62
6091.00,0.62
6090.00,0.62
6089.00,0.62
6088.00,0.62
6087.00,0.62
6086.00,0.63
6085.00,0.63
6084.00,0.63
6083.00,0.63
6082.00,0.63
6081.00,0.63
6080.00,0.63
6079.00,0.63
6078.00,0.63
6077.00,0.63
6076.00,0.63
6075.00,0.63
6074.00,0.63
6073.00,0.64
6072.00,0.64
6071.00,0.64
6070.00,0.64
6069.00,0.64
6068.00,0.64
6067.00,0.64
6066.00,0.64
6065.00,0.64
6064.00,0.64
6063.00,0.64
6062.00,0.64
6061.00,0.64
6060.00,0.64
6059.00,0.65
6058.00,0.65
6057.00,0.65
6056.00,0.65
6055.00,0.65
6054.00,0.65
6053.00,0.65
6052.00,0.65
6051.00,0.65
6050.00,0.65
6049.00,0.65
6048.00,0.65
6047.00,0.65
6046.00,0.65
6045.00,0.65
6044.00,0.65
6043.00,0.65
6042.00,0.65
6041.00,0.65
6040.00,0.65
6039.00,0.65
6038.00,0.65
6037.00,0.65
6036.00,0.65
6035.00,0.65
6034.00,0.65
6033.00,0.65
6032.00,0.65
6031.00,0.65
6030.00,0.65
6029.00,0.65
6028.00,0.65
6027.00,0.65
6026.00,0.65
6025.00,0.65
6024.00,0.65
6023.00,0.65
6022.00,0.66
6021.00,0.66
6020.00,0.66
6019.00,0.66
6018.00,0.66
6017.00,0.66
6016.00,0.66
6015.00,0.66
6014.00,0.66
6013.00,0.66
6012.00,0.66
6011.00,0.66
6010.00,0.66
6009.00,0.66
6008.00,0.66
6007.00,0.66
6006.00,0.66
6005.00,0.66
6004.00,0.66
6003.00,0.66
6002.00,0.66
6001.00,0.66
6000.00,0.66
5999.00,0.66
5998.00,0.66
5997.00,0.65
5996.00,0.65
5995.00,0.65
5994.00,0.65
5993.00,0.65
5992.00,0.65
5991.00,0.65
5990.00,0.65
5989.00,0.65
5988.00,0.65
5987.00,0.65
5986.00,0.65
5985.00,0.64
5984.00,0.64
5983.00,0.64
5982.00,0.64
5981.00,0.64
5980.00,0.64
5979.00,0.64
5978.00,0.63
5977.00,0.63
5976.00,0.63
5975.00,0.63
5974.00,0.63
5973.00,0.62
5972.00,0.62
5971.00,0.62
5970.00,0.62
5969.00,0.62
5968.00,0.61
5967.00,0.61
5966.00,0.61
5965.00,0.60
5964.00,0.60
5963.00,0.60
5962.00,0.60
5961.00,0.59
5960.00,0.59
5959.00,0.59
5958.00,0.59
5957.00,0.58
5956.00,0.58
5955.00,0.58
5954.00,0.57
5953.00,0.57
5952.00,0.57
5951.00,0.57
5950.00,0.57
5949.00,0.57
5948.00,0.56
5947.00,0.56
5946.00,0.56
5945.00,0.56
5944.00,0.56
5943.00,0.56
5942.00,0.56
5941.00,0.56
5940.00,0.56
5939.00,0.56
5938.00,0.56
5937.00,0.56
5936.00,0.55
5935.00,0.55
5934.00,0.55
5933.00,0.55
5932.00,0.55
5931.00,0.55
5930.00,0.55
5929.00,0.55
5928.00,0.55
5927.00,0.55
5926.00,0.55
5925.00,0.55
5924.00,0.55
5923.00,0.55
5922.00,0.55
5921.00,0.55
5920.00,0.55
5919.00,0.54
5918.00,0.54
5917.00,0.54
5916.00,0.54
5915.00,0.54
5914.00,0.54
5913.00,0.54
5912.00,0.54
5911.00,0.54
5910.00,0.54
5909.00,0.54
5908.00,0.53
5907.00,0.53
5906.00,0.53
5905.00,0.53
5904.00,0.53
5903.00,0.53
5902.00,0.53
5901.00,0.53
5900.00,0.53
5899.00,0.53
5898.00,0.53
5897.00,0.53
5896.00,0.53
5895.00,0.53
5894.00,0.54
5893.00,0.54
5892.00,0.54
5891.00,0.54
5890.00,0.54
5889.00,0.54
5888.00,0.54
5887.00,0.54
5886.00,0.54
5885.00,0.55
5884.00,0.55
5883.00,0.55
5882.00,0.55
5881.00,0.55
5880.00,0.55
5879.00,0.55
5878.00,0.55
5877.00,0.56
5876.00,0.56
5875.00,0.56
5874.00,0.56
5873.00,0.56
5872.00,0.56
5871.00,0.56
5870.00,0.56
5869.00,0.57
5868.00,0.57
5867.00,0.57
5866.00,0.57
5865.00,0.57
5864.00,0.57
5863.00,0.57
5862.00,0.57
5861.00,0.57
5860.00,0.57
5859.00,0.57
5858.00,0.58
5857.00,0.58
5856.00,0.58
5855.00,0.58
5854.00,0.58
5853.00,0.58
5852.00,0.58
5851.00,0.58
5850.00,0.58
5849.00,0.58
5848.00,0.58
5847.00,0.58
5846.00,0.58
5845.00,0.58
5844.00,0.58
5843.00,0.58
5842.00,0.58
5841.00,0.58
5840.00,0.58
5839.00,0.58
5838.00,0.58
5837.00,0.58
5836.00,0.58
5835.00,0.58
5834.00,0.58
5833.00,0.58
5832.00,0.58
5831.00,0.58
5830.00,0.58
5829.00,0.58
5828.00,0.58
5827.00,0.58
5826.00,0.58
5825.00,0.58
5824.00,0.58
5823.00,0.58
5822.00,0.58
5821.00,0.58
5820.00,0.58
5819.00,0.58
5818.00,0.58
5817.00,0.58
5816.00,0.58
5815.00,0.58
5814.00,0.58
5813.00,0.58
5812.00,0.58
5811.00,0.58
5810.00,0.58
5809.00,0.58
5808.00,0.58
5807.00,0.58
5806.00,0.58
5805.00,0.58
5804.00,0.58
5803.00,0.57
5802.00,0.57
5801.00,0.57
5800.00,0.57
5799.00,0.57
5798.00,0.57
5797.00,0.57
5796.00,0.57
5795.00,0.57
5794.00,0.57
5793.00,0.57
5792.00,0.57
5791.00,0.57
5790.00,0.57
5789.00,0.56
5788.00,0.56
5787.00,0.56
5786.00,0.56
5785.00,0.56
5784.00,0.56
5783.00,0.56
5782.00,0.56
5781.00,0.56
5780.00,0.56
5779.00,0.56
5778.00,0.56
5777.00,0.55
5776.00,0.55
5775.00,0.55
5774.00,0.55
5773.00,0.55
5772.00,0.55
5771.00,0.55
5770.00,0.55
5769.00,0.56
5768.00,0.56
5767.00,0.56
5766.00,0.56
5765.00,0.56
5764.00,0.56
5763.00,0.56
5762.00,0.56
5761.00,0.56
5760.00,0.56
5759.00,0.57
5758.00,0.57
5757.00,0.57
5756.00,0.57
5755.00,0.57
5754.00,0.57
5753.00,0.57
5752.00,0.58
5751.00,0.58
5750.00,0.58
5749.00,0.58
5748.00,0.58
5747.00,0.58
5746.00,0.58
5745.00,0.58
5744.00,0.58
5743.00,0.59
5742.00,0.59
5741.00,0.59
5740.00,0.59
5739.00,0.59
5738.00,0.59
5737.00,0.59
5736.00,0.59
5735.00,0.59
5734.00,0.59
5733.00,0.59
5732.00,0.59
5731.00,0.59
5730.00,0.59
5729.00,0.59
5728.00,0.59
5727.00,0.59
5726.00,0.59
5725.00,0.59
5724.00,0.59
5723.00,0.59
5722.00,0.59
5721.00,0.59
5720.00,0.59
5719.00,0.59
5718.00,0.59
5717.00,0.59
5716.00,0.59
5715.00,0.59
5714.00,0.59
5713.00,0.59
5712.00,0.59
5711.00,0.59
5710.00,0.58
5709.00,0.58
5708.00,0.58
5707.00,0.58
5706.00,0.58
5705.00,0.58
5704.00,0.58
5703.00,0.58
5702.00,0.58
5701.00,0.58
5700.00,0.58
5699.00,0.58
5698.00,0.58
5697.00,0.58
5696.00,0.58
5695.00,0.58
5694.00,0.57
5693.00,0.57
5692.00,0.57
5691.00,0.57
5690.00,0.57
5689.00,0.57
5688.00,0.57
5687.00,0.57
5686.00,0.57
5685.00,0.57
5684.00,0.57
5683.00,0.57
5682.00,0.57
5681.00,0.57
5680.00,0.57
5679.00,0.57
5678.00,0.57
5677.00,0.57
5676.00,0.57
5675.00,0.57
5674.00,0.57
5673.00,0.57
5672.00,0.57
5671.00,0.57
5670.00,0.57
5669.00,0.57
5668.00,0.57
5667.00,0.57
5666.00,0.57
5665.00,0.57
5664.00,0.57
5663.00,0.57
5662.00,0.57
5661.00,0.57
5660.00,0.57
5659.00,0.57
5658.00,0.57
5657.00,0.57
5656.00,0.57
5655.00,0.57
5654.00,0.57
5653.00,0.57
5652.00,0.57
5651.00,0.57
5650.00,0.58
5649.00,0.58
5648.00,0.58
5647.00,0.58
5646.00,0.58
5645.00,0.58
5644.00,0.58
5643.00,0.58
5642.00,0.58
5641.00,0.58
5640.00,0.58
5639.00,0.58
5638.00,0.58
5637.00,0.58
5636.00,0.58
5635.00,0.58
5634.00,0.58
5633.00,0.59
5632.00,0.59
5631.00,0.59
5630.00,0.59
5629.00,0.59
5628.00,0.59
5627.00,0.59
5626.00,0.59
5625.00,0.59
5624.00,0.59
5623.00,0.59
5622.00,0.59
5621.00,0.59
5620.00,0.60
5619.00,0.60
5618.00,0.60
5617.00,0.60
5616.00,0.60
5615.00,0.60
5614.00,0.60
5613.00,0.60
5612.00,0.60
5611.00,0.60
5610.00,0.60
5609.00,0.60
5608.00,0.60
5607.00,0.60
5606.00,0.60
5605.00,0.60
5604.00,0.61
5603.00,0.61
5602.00,0.61
5601.00,0.61
5600.00,0.61
5599.00,0.61
5598.00,0.61
5597.00,0.61
5596.00,0.61
5595.00,0.61
5594.00,0.61
5593.00,0.61
5592.00,0.61
5591.00,0.61
5590.00,0.62
5589.00,0.62
5588.00,0.62
5587.00,0.62
5586.00,0.62
5585.00,0.62
5584.00,0.62
5583.00,0.62
5582.00,0.62
5581.00,0.62
5580.00,0.62
5579.00,0.62
5578.00,0.62
5577.00,0.62
5576.00,0.62
5575.00,0.62
5574.00,0.62
5573.00,0.62
5572.00,0.62
5571.00,0.62
5570.00,0.62
5569.00,0.63
5568.00,0.63
5567.00,0.63
5566.00,0.63
5565.00,0.63
5564.00,0.63
5563.00,0.63
5562.00,0.63
5561.00,0.63
5560.00,0.63
5559.00,0.63
5558.00,0.63
5557.00,0.63
5556.00,0.63
5555.00,0.64
5554.00,0.64
5553.00,0.64
5552.00,0.64
5551.00,0.64
5550.00,0.64
5549.00,0.64
5548.00,0.64
5547.00,0.64
5546.00,0.64
5545.00,0.64
5544.00,0.64
5543.00,0.64
5542.00,0.64
5541.00,0.64
5540.00,0.64
5539.00,0.65
5538.00,0.65
5537.00,0.65
5536.00,0.65
5535.00,0.65
5534.00,0.65
5533.00,0.65
5532.00,0.65
5531.00,0.65
5530.00,0.65
5529.00,0.65
5528.00,0.65
5527.00,0.65
5526.00,0.65
5525.00,0.65
5524.00,0.65
5523.00,0.65
5522.00,0.65
5521.00,0.65
5520.00,0.65
5519.00,0.65
5518.00,0.65
5517.00,0.65
5516.00,0.65
5515.00,0.65
5514.00,0.65
5513.00,0.65
5512.00,0.66
5511.00,0.66
5510.00,0.66
5509.00,0.66
5508.00,0.66
5507.00,0.66
5506.00,0.66
5505.00,0.66
5504.00,0.66
5503.00,0.66
5502.00,0.66
5501.00,0.66
5500.00,0.66
5499.00,0.66
5498.00,0.66
5497.00,0.66
5496.00,0.66
5495.00,0.66
5494.00,0.66
5493.00,0.66
5492.00,0.66
5491.00,0.66
5490.00,0.66
5489.00,0.66
5488.00,0.67
5487.00,0.67
5486.00,0.67
5485.00,0.67
5484.00,0.67
5483.00,0.67
5482.00,0.67
5481.00,0.67
5480.00,0.67
5479.00,0.67
5478.00,0.67
5477.00,0.67
5476.00,0.67
5475.00,0.67
5474.00,0.67
5473.00,0.67
5472.00,0.67
5471.00,0.67
5470.00,0.67
5469.00,0.67
5468.00,0.67
5467.00,0.67
5466.00,0.67
5465.00,0.67
5464.00,0.67
5463.00,0.68
5462.00,0.68
5461.00,0.68
5460.00,0.68
5459.00,0.68
5458.00,0.68
5457.00,0.68
5456.00,0.68
5455.00,0.68
5454.00,0.68
5453.00,0.68
5452.00,0.68
5451.00,0.68
5450.00,0.68
5449.00,0.68
5448.00,0.68
5447.00,0.68
5446.00,0.68
5445.00,0.68
5444.00,0.68
5443.00,0.68
5442.00,0.68
5441.00,0.68
5440.00,0.68
5439.00,0.68
5438.00,0.68
5437.00,0.68
5436.00,0.68
5435.00,0.68
5434.00,0.68
5433.00,0.68
5432.00,0.68
5431.00,0.68
5430.00,0.68
5429.00,0.68
5428.00,0.68
5427.00,0.68
5426.00,0.68
5425.00,0.68
5424.00,0.68
5423.00,0.68
5422.00,0.68
5421.00,0.68
5420.00,0.68
5419.00,0.68
5418.00,0.68
5417.00,0.68
5416.00,0.68
5415.00,0.67
5414.00,0.67
5413.00,0.67
5412.00,0.67
5411.00,0.67
5410.00,0.67
5409.00,0.67
5408.00,0.67
5407.00,0.67
5406.00,0.67
5405.00,0.67
5404.00,0.67
5403.00,0.67
5402.00,0.67
5401.00,0.67
5400.00,0.66
5399.00,0.66
5398.00,0.66
5397.00,0.66
5396.00,0.66
5395.00,0.66
5394.00,0.66
5393.00,0.66
5392.00,0.65
5391.00,0.65
5390.00,0.65
5389.00,0.65
5388.00,0.65
5387.00,0.65
5386.00,0.65
5385.00,0.64
5384.00,0.64
5383.00,0.64
5382.00,0.64
5381.00,0.64
5380.00,0.63
5379.00,0.63
5378.00,0.63
5377.00,0.63
5376.00,0.62
5375.00,0.62
5374.00,0.62
5373.00,0.62
5372.00,0.61
5371.00,0.61
5370.00,0.61
5369.00,0.60
5368.00,0.60
5367.00,0.60
5366.00,0.60
5365.00,0.59
5364.00,0.59
5363.00,0.59
5362.00,0.58
5361.00,0.58
5360.00,0.57
5359.00,0.57
5358.00,0.57
5357.00,0.56
5356.00,0.56
5355.00,0.56
5354.00,0.55
5353.00,0.55
5352.00,0.54
5351.00,0.54
5350.00,0.53
5349.00,0.53
5348.00,0.52
5347.00,0.52
5346.00,0.51
5345.00,0.51
5344.00,0.51
5343.00,0.50
5342.00,0.50
5341.00,0.49
5340.00,0.49
5339.00,0.48
5338.00,0.48
5337.00,0.47
5336.00,0.47
5335.00,0.47
5334.00,0.46
5333.00,0.46
5332.00,0.45
5331.00,0.45
5330.00,0.45
5329.00,0.44
5328.00,0.44
5327.00,0.44
5326.00,0.43
5325.00,0.43
5324.00,0.43
5323.00,0.42
5322.00,0.42
5321.00,0.42
5320.00,0.41
5319.00,0.41
5318.00,0.41
5317.00,0.40
5316.00,0.40
5315.00,0.40
5314.00,0.40
5313.00,0.39
5312.00,0.39
5311.00,0.39
5310.00,0.39
5309.00,0.39
5308.00,0.38
5307.00,0.38
5306.00,0.38
5305.00,0.38
5304.00,0.38
5303.00,0.37
5302.00,0.37
5301.00,0.37
5300.00,0.37
5299.00,0.37
5298.00,0.37
5297.00,0.37
5296.00,0.37
5295.00,0.37
5294.00,0.36
5293.00,0.36
5292.00,0.36
5291.00,0.36
5290.00,0.36
5289.00,0.36
5288.00,0.36
5287.00,0.36
5286.00,0.36
5285.00,0.36
5284.00,0.36
5283.00,0.36
5282.00,0.36
5281.00,0.36
5280.00,0.36
5279.00,0.36
5278.00,0.36
5277.00,0.36
5276.00,0.36
5275.00,0.36
5274.00,0.36
5273.00,0.36
5272.00,0.36
5271.00,0.36
5270.00,0.36
5269.00,0.36
5268.00,0.36
5267.00,0.36
5266.00,0.36
5265.00,0.36
5264.00,0.36
5263.00,0.36
5262.00,0.36
5261.00,0.36
5260.00,0.36
5259.00,0.36
5258.00,0.36
5257.00,0.36
5256.00,0.36
5255.00,0.36
5254.00,0.36
5253.00,0.36
5252.00,0.36
5251.00,0.36
5250.00,0.36
5249.00,0.36
5248.00,0.36
5247.00,0.36
5246.00,0.36
5245.00,0.36
5244.00,0.36
5243.00,0.36
5242.00,0.36
5241.00,0.36
5240.00,0.36
5239.00,0.36
5238.00,0.36
5237.00,0.36
5236.00,0.36
5235.00,0.36
5234.00,0.36
5233.00,0.36
5232.00,0.36
5231.00,0.36
5230.00,0.36
5229.00,0.36
5228.00,0.36
5227.00,0.36
5226.00,0.36
5225.00,0.36
5224.00,0.36
5223.00,0.36
5222.00,0.36
5221.00,0.36
5220.00,0.36
5219.00,0.36
5218.00,0.36
5217.00,0.36
5216.00,0.36
5215.00,0.36
5214.00,0.36
5213.00,0.36
5212.00,0.36
5211.00,0.36
5210.00,0.36
5209.00,0.36
5208.00,0.37
5207.00,0.37
5206.00,0.37
5205.00,0.37
5204.00,0.37
5203.00,0.37
5202.00,0.37
5201.00,0.37
5200.00,0.37
5199.00,0.37
5198.00,0.37
5197.00,0.37
5196.00,0.37
5195.00,0.37
5194.00,0.37
5193.00,0.37
5192.00,0.37
5191.00,0.37
5190.00,0.37
5189.00,0.37
5188.00,0.37
5187.00,0.37
5186.00,0.37
5185.00,0.37
5184.00,0.37
5183.00,0.37
5182.00,0.37
5181.00,0.37
5180.00,0.37
5179.00,0.37
5178.00,0.37
5177.00,0.37
5176.00,0.37
5175.00,0.37
5174.00,0.37
5173.00,0.37
5172.00,0.37
5171.00,0.37
5170.00,0.37
5169.00,0.37
5168.00,0.37
5167.00,0.37
5166.00,0.37
5165.00,0.37
5164.00,0.37
5163.00,0.37
5162.00,0.37
5161.00,0.37
5160.00,0.37
5159.00,0.37
5158.00,0.37
5157.00,0.37
5156.00,0.37
5155.00,0.37
5154.00,0.37
5153.00,0.37
5152.00,0.37
5151.00,0.38
5150.00,0.38
5149.00,0.38
5148.00,0.38
5147.00,0.38
5146.00,0.38
5145.00,0.38
5144.00,0.38
5143.00,0.38
5142.00,0.38
5141.00,0.38
5140.00,0.38
5139.00,0.38
5138.00,0.38
5137.00,0.38
5136.00,0.38
5135.00,0.38
5134.00,0.38
5133.00,0.38
5132.00,0.38
5131.00,0.38
5130.00,0.38
5129.00,0.38
5128.00,0.38
5127.00,0.38
5126.00,0.38
5125.00,0.38
5124.00,0.38
5123.00,0.38
5122.00,0.38
5121.00,0.38
5120.00,0.38
5119.00,0.38
5118.00,0.38
5117.00,0.38
5116.00,0.38
5115.00,0.38
5114.00,0.38
5113.00,0.38
5112.00,0.38
5111.00,0.38
5110.00,0.38
5109.00,0.38
5108.00,0.39
5107.00,0.39
5106.00,0.39
5105.00,0.39
5104.00,0.39
5103.00,0.39
5102.00,0.39
5101.00,0.39
5100.00,0.39
5099.00,0.39
5098.00,0.39
5097.00,0.39
5096.00,0.39
5095.00,0.39
5094.00,0.39
5093.00,0.39
5092.00,0.39
5091.00,0.39
5090.00,0.39
5089.00,0.39
5088.00,0.39
5087.00,0.39
5086.00,0.39
5085.00,0.39
5084.00,0.39
5083.00,0.39
5082.00,0.39
5081.00,0.39
5080.00,0.39
5079.00,0.39
5078.00,0.39
5077.00,0.39
5076.00,0.39
5075.00,0.39
5074.00,0.39
5073.00,0.39
5072.00,0.39
5071.00,0.39
5070.00,0.39
5069.00,0.40
5068.00,0.40
5067.00,0.40
5066.00,0.40
5065.00,0.40
5064.00,0.40
5063.00,0.40
5062.00,0.40
5061.00,0.40
5060.00,0.40
5059.00,0.40
5058.00,0.40
5057.00,0.40
5056.00,0.40
5055.00,0.40
5054.00,0.40
5053.00,0.40
5052.00,0.40
5051.00,0.40
5050.00,0.40
5049.00,0.40
5048.00,0.40
5047.00,0.40
5046.00,0.40
5045.00,0.40
5044.00,0.40
5043.00,0.40
5042.00,0.40
5041.00,0.40
5040.00,0.40
5039.00,0.40
5038.00,0.40
5037.00,0.40
5036.00,0.40
5035.00,0.40
5034.00,0.40
5033.00,0.40
5032.00,0.40
5031.00,0.40
5030.00,0.40
5029.00,0.40
5028.00,0.40
5027.00,0.40
5026.00,0.40
5025.00,0.40
5024.00,0.40
5023.00,0.41
5022.00,0.41
5021.00,0.41
5020.00,0.41
5019.00,0.41
5018.00,0.41
5017.00,0.41
5016.00,0.41
5015.00,0.41
5014.00,0.41
5013.00,0.41
5012.00,0.41
5011.00,0.41
5010.00,0.41
5009.00,0.41
5008.00,0.41
5007.00,0.41
5006.00,0.41
5005.00,0.41
5004.00,0.41
5003.00,0.41
5002.00,0.41
5001.00,0.41
5000.00,0.41
4999.00,0.41
4998.00,0.41
4997.00,0.41
4996.00,0.41
4995.00,0.42
4994.00,0.42
4993.00,0.42
4992.00,0.42
4991.00,0.42
4990.00,0.42
4989.00,0.42
4988.00,0.42
4987.00,0.42
4986.00,0.42
4985.00,0.42
4984.00,0.42
4983.00,0.42
4982.00,0.42
4981.00,0.42
4980.00,0.42
4979.00,0.42
4978.00,0.42
4977.00,0.42
4976.00,0.42
4975.00,0.42
4974.00,0.42
4973.00,0.42
4972.00,0.42
4971.00,0.42
4970.00,0.42
4969.00,0.42
4968.00,0.42
4967.00,0.42
4966.00,0.42
4965.00,0.42
4964.00,0.42
4963.00,0.43
4962.00,0.43
4961.00,0.43
4960.00,0.43
4959.00,0.43
4958.00,0.43
4957.00,0.43
4956.00,0.43
4955.00,0.43
4954.00,0.43
4953.00,0.43
4952.00,0.43
4951.00,0.43
4950.00,0.43
4949.00,0.43
4948.00,0.43
4947.00,0.43
4946.00,0.43
4945.00,0.43
4944.00,0.43
4943.00,0.43
4942.00,0.43
4941.00,0.43
4940.00,0.43
4939.00,0.43
4938.00,0.43
4937.00,0.43
4936.00,0.43
4935.00,0.43
4934.00,0.43
4933.00,0.43
4932.00,0.43
4931.00,0.43
4930.00,0.43
4929.00,0.43
4928.00,0.43
4927.00,0.43
4926.00,0.43
4925.00,0.43
4924.00,0.44
4923.00,0.44
4922.00,0.44
4921.00,0.44
4920.00,0.44
4919.00,0.44
4918.00,0.44
4917.00,0.44
4916.00,0.44
4915.00,0.44
4914.00,0.44
4913.00,0.44
4912.00,0.44
4911.00,0.44
4910.00,0.44
4909.00,0.44
4908.00,0.44
4907.00,0.44
4906.00,0.44
4905.00,0.44
4904.00,0.44
4903.00,0.44
4902.00,0.44
4901.00,0.44
4900.00,0.44
4899.00,0.44
4898.00,0.45
4897.00,0.45
4896.00,0.45
4895.00,0.45
4894.00,0.45
4893.00,0.45
4892.00,0.45
4891.00,0.45
4890.00,0.45
4889.00,0.45
4888.00,0.45
4887.00,0.45
4886.00,0.45
4885.00,0.45
4884.00,0.45
4883.00,0.45
4882.00,0.45
4881.00,0.45
4880.00,0.45
4879.00,0.45
4878.00,0.45
4877.00,0.45
4876.00,0.45
4875.00,0.45
4874.00,0.45
4873.00,0.45
4872.00,0.45
4871.00,0.45
4870.00,0.45
4869.00,0.45
4868.00,0.45
4867.00,0.45
4866.00,0.46
4865.00,0.46
4864.00,0.46
4863.00,0.46
4862.00,0.46
4861.00,0.46
4860.00,0.46
4859.00,0.46
4858.00,0.46
4857.00,0.46
4856.00,0.46
4855.00,0.46
4854.00,0.46
4853.00,0.46
4852.00,0.46
4851.00,0.46
4850.00,0.46
4849.00,0.46
4848.00,0.46
4847.00,0.46
4846.00,0.46
4845.00,0.46
4844.00,0.46
4843.00,0.46
4842.00,0.46
4841.00,0.46
4840.00,0.46
4839.00,0.46
4838.00,0.46
4837.00,0.46
4836.00,0.46
4835.00,0.46
4834.00,0.46
4833.00,0.46
4832.00,0.46
4831.00,0.47
4830.00,0.47
4829.00,0.47
4828.00,0.47
4827.00,0.47
4826.00,0.47
4825.00,0.47
4824.00,0.47
4823.00,0.47
4822.00,0.47
4821.00,0.47
4820.00,0.47
4819.00,0.47
4818.00,0.47
4817.00,0.47
4816.00,0.47
4815.00,0.47
4814.00,0.47
4813.00,0.47
4812.00,0.47
4811.00,0.47
4810.00,0.47
4809.00,0.47
4808.00,0.47
4807.00,0.47
4806.00,0.47
4805.00,0.47
4804.00,0.47
4803.00,0.47
4802.00,0.47
4801.00,0.47
4800.00,0.48
4799.00,0.48
4798.00,0.48
4797.00,0.48
4796.00,0.48
4795.00,0.48
4794.00,0.48
4793.00,0.48
4792.00,0.48
4791.00,0.48
4790.00,0.48
4789.00,0.48
4788.00,0.48
4787.00,0.48
4786.00,0.48
4785.00,0.49
4784.00,0.49
4783.00,0.49
4782.00,0.49
4781.00,0.49
4780.00,0.49
4779.00,0.49
4778.00,0.49
4777.00,0.49
4776.00,0.49
4775.00,0.49
4774.00,0.49
4773.00,0.49
4772.00,0.49
4771.00,0.49
4770.00,0.49
4769.00,0.49
4768.00,0.49
4767.00,0.49
4766.00,0.49
4765.00,0.49
4764.00,0.49
4763.00,0.49
4762.00,0.49
4761.00,0.49
4760.00,0.49
4759.00,0.49
4758.00,0.49
4757.00,0.49
4756.00,0.49
4755.00,0.49
4754.00,0.49
4753.00,0.49
4752.00,0.49
4751.00,0.49
4750.00,0.49
4749.00,0.49
4748.00,0.49
4747.00,0.49
4746.00,0.50
4745.00,0.50
4744.00,0.50
4743.00,0.50
4742.00,0.50
4741.00,0.50
4740.00,0.50
4739.00,0.50
4738.00,0.50
4737.00,0.50
4736.00,0.50
4735.00,0.50
4734.00,0.50
4733.00,0.51
4732.00,0.51
4731.00,0.51
4730.00,0.51
4729.00,0.51
4728.00,0.51
4727.00,0.51
4726.00,0.51
4725.00,0.51
4724.00,0.52
4723.00,0.52
4722.00,0.52
4721.00,0.52
4720.00,0.52
4719.00,0.52
4718.00,0.52
4717.00,0.52
4716.00,0.52
4715.00,0.52
4714.00,0.52
4713.00,0.52
4712.00,0.52
4711.00,0.52
4710.00,0.52
4709.00,0.53
4708.00,0.53
4707.00,0.53
4706.00,0.53
4705.00,0.53
4704.00,0.53
4703.00,0.53
4702.00,0.53
4701.00,0.53
4700.00,0.53
4699.00,0.53
4698.00,0.53
4697.00,0.53
4696.00,0.53
4695.00,0.53
4694.00,0.53
4693.00,0.53
4692.00,0.53
4691.00,0.54
4690.00,0.54
4689.00,0.54
4688.00,0.54
4687.00,0.54
4686.00,0.54
4685.00,0.54
4684.00,0.54
4683.00,0.54
4682.00,0.54
4681.00,0.54
4680.00,0.54
4679.00,0.54
4678.00,0.54
4677.00,0.54
4676.00,0.54
4675.00,0.55
4674.00,0.55
4673.00,0.55
4672.00,0.55
4671.00,0.55
4670.00,0.55
4669.00,0.55
4668.00,0.55
4667.00,0.55
4666.00,0.55
4665.00,0.55
4664.00,0.55
4663.00,0.55
4662.00,0.55
4661.00,0.55
4660.00,0.55
4659.00,0.55
4658.00,0.55
4657.00,0.55
4656.00,0.55
4655.00,0.55
4654.00,0.55
4653.00,0.55
4652.00,0.55
4651.00,0.55
4650.00,0.55
4649.00,0.56
4648.00,0.56
4647.00,0.56
4646.00,0.56
4645.00,0.56
4644.00,0.56
4643.00,0.56
4642.00,0.56
4641.00,0.56
4640.00,0.56
4639.00,0.56
4638.00,0.56
4637.00,0.56
4636.00,0.56
4635.00,0.56
4634.00,0.57
4633.00,0.57
4632.00,0.57
4631.00,0.57
4630.00,0.57
4629.00,0.57
4628.00,0.57
4627.00,0.57
4626.00,0.57
4625.00,0.57
4624.00,0.57
4623.00,0.57
4622.00,0.57
4621.00,0.57
4620.00,0.57
4619.00,0.57
4618.00,0.57
4617.00,0.57
4616.00,0.58
4615.00,0.58
4614.00,0.58
4613.00,0.58
4612.00,0.58
4611.00,0.58
4610.00,0.58
4609.00,0.58
4608.00,0.58
4607.00,0.58
4606.00,0.58
4605.00,0.58
4604.00,0.58
4603.00,0.58
4602.00,0.58
4601.00,0.58
4600.00,0.58
4599.00,0.58
4598.00,0.58
4597.00,0.58
4596.00,0.58
4595.00,0.58
4594.00,0.58
4593.00,0.58
4592.00,0.58
4591.00,0.58
4590.00,0.58
4589.00,0.58
4588.00,0.58
4587.00,0.58
4586.00,0.58
4585.00,0.58
4584.00,0.58
4583.00,0.58
4582.00,0.58
4581.00,0.58
4580.00,0.59
4579.00,0.59
4578.00,0.59
4577.00,0.59
4576.00,0.59
4575.00,0.59
4574.00,0.59
4573.00,0.59
4572.00,0.59
4571.00,0.59
4570.00,0.59
4569.00,0.59
4568.00,0.59
4567.00,0.59
4566.00,0.59
4565.00,0.59
4564.00,0.59
4563.00,0.59
4562.00,0.59
4561.00,0.59
4560.00,0.59
4559.00,0.59
4558.00,0.59
4557.00,0.59
4556.00,0.59
4555.00,0.59
4554.00,0.59
4553.00,0.59
4552.00,0.59
4551.00,0.59
4550.00,0.59
4549.00,0.59
4548.00,0.59
4547.00,0.60
4546.00,0.60
4545.00,0.60
4544.00,0.60
4543.00,0.60
4542.00,0.60
4541.00,0.60
4540.00,0.60
4539.00,0.60
4538.00,0.60
4537.00,0.60
4536.00,0.60
4535.00,0.60
4534.00,0.60
4533.00,0.60
4532.00,0.60
4531.00,0.60
4530.00,0.60
4529.00,0.60
4528.00,0.60
4527.00,0.60
4526.00,0.60
4525.00,0.60
4524.00,0.60
4523.00,0.60
4522.00,0.60
4521.00,0.60
4520.00,0.60
4519.00,0.60
4518.00,0.60
4517.00,0.60
4516.00,0.60
4515.00,0.60
4514.00,0.60
4513.00,0.60
4512.00,0.61
4511.00,0.61
4510.00,0.61
4509.00,0.61
4508.00,0.61
4507.00,0.61
4506.00,0.61
4505.00,0.61
4504.00,0.61
4503.00,0.61
4502.00,0.61
4501.00,0.61
4500.00,0.61
4499.00,0.61
4498.00,0.61
4497.00,0.61
4496.00,0.61
4495.00,0.61
4494.00,0.61
4493.00,0.61
4492.00,0.61
4491.00,0.61
4490.00,0.60
4489.00,0.60
4488.00,0.60
4487.00,0.60
4486.00,0.60
4485.00,0.60
4484.00,0.60
4483.00,0.60
4482.00,0.60
4481.00,0.60
4480.00,0.60
4479.00,0.60
4478.00,0.60
4477.00,0.60
4476.00,0.60
4475.00,0.60
4474.00,0.60
4473.00,0.60
4472.00,0.60
4471.00,0.60
4470.00,0.60
4469.00,0.60
4468.00,0.60
4467.00,0.59
4466.00,0.59
4465.00,0.59
4464.00,0.59
4463.00,0.59
4462.00,0.59
4461.00,0.59
4460.00,0.59
4459.00,0.59
4458.00,0.59
4457.00,0.59
4456.00,0.59
4455.00,0.58
4454.00,0.58
4453.00,0.58
4452.00,0.58
4451.00,0.58
4450.00,0.58
4449.00,0.58
4448.00,0.58
4447.00,0.57
4446.00,0.57
4445.00,0.57
4444.00,0.57
4443.00,0.57
4442.00,0.57
4441.00,0.57
4440.00,0.57
4439.00,0.57
4438.00,0.56
4437.00,0.56
4436.00,0.56
4435.00,0.56
4434.00,0.56
4433.00,0.56
4432.00,0.56
4431.00,0.56
4430.00,0.56
4429.00,0.56
4428.00,0.56
4427.00,0.56
4426.00,0.56
4425.00,0.56
4424.00,0.56
4423.00,0.55
4422.00,0.55
4421.00,0.55
4420.00,0.55
4419.00,0.55
4418.00,0.55
4417.00,0.55
4416.00,0.55
4415.00,0.55
4414.00,0.55
4413.00,0.55
4412.00,0.55
4411.00,0.56
4410.00,0.56
4409.00,0.56
4408.00,0.56
4407.00,0.56
4406.00,0.56
4405.00,0.56
4404.00,0.56
4403.00,0.56
4402.00,0.56
4401.00,0.56
4400.00,0.56
4399.00,0.56
4398.00,0.56
4397.00,0.56
4396.00,0.56
4395.00,0.56
4394.00,0.56
4393.00,0.56
4392.00,0.57
4391.00,0.57
4390.00,0.57
4389.00,0.57
4388.00,0.57
4387.00,0.57
4386.00,0.57
4385.00,0.57
4384.00,0.57
4383.00,0.57
4382.00,0.57
4381.00,0.57
4380.00,0.57
4379.00,0.57
4378.00,0.57
4377.00,0.57
4376.00,0.57
4375.00,0.57
4374.00,0.57
4373.00,0.57
4372.00,0.57
4371.00,0.57
4370.00,0.57
4369.00,0.57
4368.00,0.57
4367.00,0.57
4366.00,0.57
4365.00,0.57
4364.00,0.57
4363.00,0.57
4362.00,0.57
4361.00,0.58
4360.00,0.57
4359.00,0.57
4358.00,0.57
4357.00,0.57
4356.00,0.57
4355.00,0.57
4354.00,0.57
4353.00,0.57
4352.00,0.57
4351.00,0.57
4350.00,0.57
4349.00,0.57
4348.00,0.57
4347.00,0.58
4346.00,0.58
4345.00,0.58
4344.00,0.58
4343.00,0.58
4342.00,0.58
4341.00,0.58
4340.00,0.58
4339.00,0.58
4338.00,0.58
4337.00,0.58
4336.00,0.58
4335.00,0.58
4334.00,0.58
4333.00,0.57
4332.00,0.57
4331.00,0.57
4330.00,0.57
4329.00,0.57
4328.00,0.57
4327.00,0.57
4326.00,0.57
4325.00,0.57
4324.00,0.57
4323.00,0.58
4322.00,0.58
4321.00,0.58
4320.00,0.58
4319.00,0.58
4318.00,0.58
4317.00,0.58
4316.00,0.58
4315.00,0.58
4314.00,0.58
4313.00,0.58
4312.00,0.59
4311.00,0.59
4310.00,0.59
4309.00,0.59
4308.00,0.59
4307.00,0.59
4306.00,0.59
4305.00,0.59
4304.00,0.59
4303.00,0.59
4302.00,0.59
4301.00,0.60
4300.00,0.60
4299.00,0.60
4298.00,0.60
4297.00,0.60
4296.00,0.60
4295.00,0.60
4294.00,0.60
4293.00,0.60
4292.00,0.60
4291.00,0.60
4290.00,0.60
4289.00,0.60
4288.00,0.60
4287.00,0.60
4286.00,0.60
4285.00,0.60
4284.00,0.60
4283.00,0.60
4282.00,0.60
4281.00,0.60
4280.00,0.60
4279.00,0.60
4278.00,0.60
4277.00,0.60
4276.00,0.60
4275.00,0.60
4274.00,0.60
4273.00,0.60
4272.00,0.60
4271.00,0.61
4270.00,0.61
4269.00,0.61
4268.00,0.61
4267.00,0.61
4266.00,0.61
4265.00,0.61
4264.00,0.61
4263.00,0.61
4262.00,0.61
4261.00,0.61
4260.00,0.61
4259.00,0.61
4258.00,0.61
4257.00,0.61
4256.00,0.61
4255.00,0.61
4254.00,0.61
4253.00,0.61
4252.00,0.61
4251.00,0.61
4250.00,0.61
4249.00,0.61
4248.00,0.61
4247.00,0.61
4246.00,0.61
4245.00,0.61
4244.00,0.61
4243.00,0.61
4242.00,0.61
4241.00,0.61
4240.00,0.61
4239.00,0.61
4238.00,0.61
4237.00,0.61
4236.00,0.61
4235.00,0.61
4234.00,0.61
4233.00,0.61
4232.00,0.61
4231.00,0.61
4230.00,0.61
4229.00,0.61
4228.00,0.61
4227.00,0.61
4226.00,0.61
4225.00,0.61
4224.00,0.61
4223.00,0.61
4222.00,0.62
4221.00,0.62
4220.00,0.62
4219.00,0.62
4218.00,0.62
4217.00,0.62
4216.00,0.62
4215.00,0.62
4214.00,0.62
4213.00,0.62
4212.00,0.62
4211.00,0.62
4210.00,0.62
4209.00,0.62
4208.00,0.62
4207.00,0.62
4206.00,0.62
4205.00,0.62
4204.00,0.62
4203.00,0.62
4202.00,0.62
4201.00,0.62
4200.00,0.62
4199.00,0.62
4198.00,0.62
4197.00,0.62
4196.00,0.62
4195.00,0.62
4194.00,0.62
4193.00,0.62
4192.00,0.62
4191.00,0.62
4190.00,0.62
4189.00,0.62
4188.00,0.62
4187.00,0.62
4186.00,0.62
4185.00,0.62
4184.00,0.62
4183.00,0.62
4182.00,0.62
4181.00,0.62
4180.00,0.62
4179.00,0.62
4178.00,0.62
4177.00,0.62
4176.00,0.62
4175.00,0.63
4174.00,0.63
4173.00,0.63
4172.00,0.63
4171.00,0.63
4170.00,0.63
4169.00,0.63
4168.00,0.63
4167.00,0.63
4166.00,0.63
4165.00,0.63
4164.00,0.63
4163.00,0.63
4162.00,0.63
4161.00,0.63
4160.00,0.63
4159.00,0.63
4158.00,0.63
4157.00,0.63
4156.00,0.63
4155.00,0.63
4154.00,0.63
4153.00,0.63
4152.00,0.63
4151.00,0.63
4150.00,0.63
4149.00,0.63
4148.00,0.63
4147.00,0.63
4146.00,0.63
4145.00,0.63
4144.00,0.63
4143.00,0.63
4142.00,0.63
4141.00,0.63
4140.00,0.63
4139.00,0.63
4138.00,0.63
4137.00,0.63
4136.00,0.63
4135.00,0.63
4134.00,0.63
4133.00,0.63
4132.00,0.63
4131.00,0.64
4130.00,0.64
4129.00,0.64
4128.00,0.64
4127.00,0.64
4126.00,0.64
4125.00,0.64
4124.00,0.64
4123.00,0.64
4122.00,0.64
4121.00,0.64
4120.00,0.64
4119.00,0.64
4118.00,0.64
4117.00,0.64
4116.00,0.64
4115.00,0.64
4114.00,0.64
4113.00,0.64
4112.00,0.64
4111.00,0.64
4110.00,0.64
4109.00,0.64
4108.00,0.64
4107.00,0.64
4106.00,0.64
4105.00,0.64
4104.00,0.64
4103.00,0.64
4102.00,0.65
4101.00,0.65
4100.00,0.65
4099.00,0.65
4098.00,0.65
4097.00,0.65
4096.00,0.65
4095.00,0.65
4094.00,0.65
4093.00,0.65
4092.00,0.65
4091.00,0.65
4090.00,0.65
4089.00,0.65
4088.00,0.65
4087.00,0.65
4086.00,0.65
4085.00,0.65
4084.00,0.65
4083.00,0.65
4082.00,0.65
4081.00,0.65
4080.00,0.65
4079.00,0.65
4078.00,0.65
4077.00,0.65
4076.00,0.65
4075.00,0.65
4074.00,0.65
4073.00,0.65
4072.00,0.65
4071.00,0.65
4070.00,0.65
4069.00,0.65
4068.00,0.65
4067.00,0.65
4066.00,0.65
4065.00,0.65
4064.00,0.66
4063.00,0.66
4062.00,0.66
4061.00,0.66
4060.00,0.66
4059.00,0.66
4058.00,0.66
4057.00,0.66
4056.00,0.66
4055.00,0.66
4054.00,0.66
4053.00,0.66
4052.00,0.66
4051.00,0.66
4050.00,0.66
4049.00,0.66
4048.00,0.66
4047.00,0.66
4046.00,0.66
4045.00,0.66
4044.00,0.66
4043.00,0.66
4042.00,0.66
4041.00,0.66
4040.00,0.66
4039.00,0.66
4038.00,0.66
4037.00,0.66
4036.00,0.66
4035.00,0.66
4034.00,0.66
4033.00,0.66
4032.00,0.67
4031.00,0.67
4030.00,0.67
4029.00,0.67
4028.00,0.67
4027.00,0.67
4026.00,0.67
4025.00,0.67
4024.00,0.67
4023.00,0.67
4022.00,0.67
4021.00,0.67
4020.00,0.67
4019.00,0.67
4018.00,0.67
4017.00,0.68
4016.00,0.68
4015.00,0.68
4014.00,0.68
4013.00,0.68
4012.00,0.68
4011.00,0.68
4010.00,0.68
4009.00,0.68
4008.00,0.68
4007.00,0.68
4006.00,0.68
4005.00,0.68
4004.00,0.68
4003.00,0.68
4002.00,0.68
4001.00,0.68
4000.00,0.68
