创建为新数据集,样品 441 用户 Administrator 日期 星期日, 七月 15 2018
cm-1,%T
10000.00,0.70
9999.00,0.69
9998.00,0.69
9997.00,0.69
9996.00,0.69
9995.00,0.68
9994.00,0.68
9993.00,0.68
9992.00,0.68
9991.00,0.68
9990.00,0.68
9989.00,0.68
9988.00,0.67
9987.00,0.68
9986.00,0.68
9985.00,0.68
9984.00,0.68
9983.00,0.68
9982.00,0.68
9981.00,0.68
9980.00,0.68
9979.00,0.68
9978.00,0.68
9977.00,0.68
9976.00,0.68
9975.00,0.68
9974.00,0.68
9973.00,0.68
9972.00,0.68
9971.00,0.68
9970.00,0.67
9969.00,0.67
9968.00,0.67
9967.00,0.67
9966.00,0.67
9965.00,0.67
9964.00,0.67
9963.00,0.67
9962.00,0.67
9961.00,0.67
9960.00,0.67
9959.00,0.67
9958.00,0.67
9957.00,0.67
9956.00,0.67
9955.00,0.67
9954.00,0.68
9953.00,0.68
9952.00,0.68
9951.00,0.68
9950.00,0.69
9949.00,0.69
9948.00,0.69
9947.00,0.69
9946.00,0.69
9945.00,0.69
9944.00,0.69
9943.00,0.69
9942.00,0.69
9941.00,0.69
9940.00,0.69
9939.00,0.69
9938.00,0.69
9937.00,0.69
9936.00,0.68
9935.00,0.68
9934.00,0.68
9933.00,0.68
9932.00,0.68
9931.00,0.67
9930.00,0.67
9929.00,0.67
9928.00,0.67
9927.00,0.66
9926.00,0.66
9925.00,0.66
9924.00,0.66
9923.00,0.65
9922.00,0.65
9921.00,0.65
9920.00,0.64
9919.00,0.64
9918.00,0.64
9917.00,0.63
9916.00,0.63
9915.00,0.63
9914.00,0.62
9913.00,0.62
9912.00,0.62
9911.00,0.62
9910.00,0.62
9909.00,0.62
9908.00,0.62
9907.00,0.62
9906.00,0.62
9905.00,0.62
9904.00,0.63
9903.00,0.63
9902.00,0.63
9901.00,0.63
9900.00,0.64
9899.00,0.64
9898.00,0.64
9897.00,0.64
9896.00,0.65
9895.00,0.65
9894.00,0.65
9893.00,0.65
9892.00,0.65
9891.00,0.65
9890.00,0.65
9889.00,0.65
9888.00,0.65
9887.00,0.65
9886.00,0.65
9885.00,0.64
9884.00,0.64
9883.00,0.64
9882.00,0.64
9881.00,0.64
9880.00,0.64
9879.00,0.64
9878.00,0.64
9877.00,0.63
9876.00,0.64
9875.00,0.64
9874.00,0.64
9873.00,0.64
9872.00,0.64
9871.00,0.64
9870.00,0.65
9869.00,0.65
9868.00,0.65
9867.00,0.66
9866.00,0.66
9865.00,0.66
9864.00,0.67
9863.00,0.67
9862.00,0.67
9861.00,0.67
9860.00,0.68
9859.00,0.68
9858.00,0.68
9857.00,0.68
9856.00,0.68
9855.00,0.67
9854.00,0.67
9853.00,0.67
9852.00,0.67
9851.00,0.66
9850.00,0.66
9849.00,0.66
9848.00,0.65
9847.00,0.65
9846.00,0.65
9845.00,0.65
9844.00,0.65
9843.00,0.64
9842.00,0.64
9841.00,0.64
9840.00,0.64
9839.00,0.64
9838.00,0.64
9837.00,0.64
9836.00,0.64
9835.00,0.65
9834.00,0.65
9833.00,0.65
9832.00,0.65
9831.00,0.65
9830.00,0.65
9829.00,0.65
9828.00,0.65
9827.00,0.65
9826.00,0.65
9825.00,0.64
9824.00,0.64
9823.00,0.64
9822.00,0.64
9821.00,0.64
9820.00,0.63
9819.00,0.63
9818.00,0.63
9817.00,0.63
9816.00,0.63
9815.00,0.63
9814.00,0.62
9813.00,0.62
9812.00,0.62
9811.00,0.62
9810.00,0.63
9809.00,0.63
9808.00,0.63
9807.00,0.63
9806.00,0.63
9805.00,0.63
9804.00,0.63
9803.00,0.63
9802.00,0.63
9801.00,0.63
9800.00,0.63
9799.00,0.63
9798.00,0.64
9797.00,0.64
9796.00,0.64
9795.00,0.64
9794.00,0.64
9793.00,0.64
9792.00,0.64
9791.00,0.64
9790.00,0.64
9789.00,0.65
9788.00,0.65
9787.00,0.65
9786.00,0.65
9785.00,0.65
9784.00,0.65
9783.00,0.65
9782.00,0.66
9781.00,0.66
9780.00,0.66
9779.00,0.66
9778.00,0.66
9777.00,0.66
9776.00,0.66
9775.00,0.66
9774.00,0.66
9773.00,0.66
9772.00,0.66
9771.00,0.66
9770.00,0.66
9769.00,0.66
9768.00,0.66
9767.00,0.66
9766.00,0.66
9765.00,0.66
9764.00,0.66
9763.00,0.66
9762.00,0.66
9761.00,0.66
9760.00,0.66
9759.00,0.66
9758.00,0.66
9757.00,0.66
9756.00,0.66
9755.00,0.66
9754.00,0.66
9753.00,0.66
9752.00,0.66
9751.00,0.66
9750.00,0.67
9749.00,0.67
9748.00,0.67
9747.00,0.67
9746.00,0.67
9745.00,0.68
9744.00,0.68
9743.00,0.68
9742.00,0.68
9741.00,0.68
9740.00,0.68
9739.00,0.68
9738.00,0.68
9737.00,0.68
9736.00,0.67
9735.00,0.67
9734.00,0.67
9733.00,0.67
9732.00,0.66
9731.00,0.66
9730.00,0.66
9729.00,0.66
9728.00,0.66
9727.00,0.65
9726.00,0.65
9725.00,0.65
9724.00,0.65
9723.00,0.65
9722.00,0.66
9721.00,0.66
9720.00,0.66
9719.00,0.66
9718.00,0.66
9717.00,0.66
9716.00,0.66
9715.00,0.66
9714.00,0.66
9713.00,0.66
9712.00,0.67
9711.00,0.67
9710.00,0.67
9709.00,0.67
9708.00,0.67
9707.00,0.67
9706.00,0.67
9705.00,0.67
9704.00,0.67
9703.00,0.67
9702.00,0.67
9701.00,0.67
9700.00,0.67
9699.00,0.67
9698.00,0.67
9697.00,0.68
9696.00,0.68
9695.00,0.68
9694.00,0.68
9693.00,0.68
9692.00,0.68
9691.00,0.68
9690.00,0.68
9689.00,0.68
9688.00,0.68
9687.00,0.68
9686.00,0.67
9685.00,0.67
9684.00,0.67
9683.00,0.67
9682.00,0.67
9681.00,0.67
9680.00,0.67
9679.00,0.67
9678.00,0.67
9677.00,0.67
9676.00,0.67
9675.00,0.68
9674.00,0.68
9673.00,0.68
9672.00,0.68
9671.00,0.68
9670.00,0.68
9669.00,0.68
9668.00,0.68
9667.00,0.68
9666.00,0.68
9665.00,0.68
9664.00,0.68
9663.00,0.68
9662.00,0.68
9661.00,0.67
9660.00,0.67
9659.00,0.67
9658.00,0.67
9657.00,0.67
9656.00,0.67
9655.00,0.67
9654.00,0.67
9653.00,0.67
9652.00,0.67
9651.00,0.67
9650.00,0.67
9649.00,0.67
9648.00,0.67
9647.00,0.67
9646.00,0.67
9645.00,0.66
9644.00,0.66
9643.00,0.66
9642.00,0.66
9641.00,0.66
9640.00,0.66
9639.00,0.66
9638.00,0.66
9637.00,0.66
9636.00,0.65
9635.00,0.65
9634.00,0.65
9633.00,0.65
9632.00,0.65
9631.00,0.65
9630.00,0.65
9629.00,0.65
9628.00,0.65
9627.00,0.65
9626.00,0.65
9625.00,0.65
9624.00,0.65
9623.00,0.65
9622.00,0.65
9621.00,0.65
9620.00,0.65
9619.00,0.66
9618.00,0.66
9617.00,0.66
9616.00,0.66
9615.00,0.66
9614.00,0.66
9613.00,0.66
9612.00,0.67
9611.00,0.67
9610.00,0.67
9609.00,0.67
9608.00,0.67
9607.00,0.67
9606.00,0.67
9605.00,0.67
9604.00,0.67
9603.00,0.67
9602.00,0.67
9601.00,0.67
9600.00,0.67
9599.00,0.67
9598.00,0.67
9597.00,0.67
9596.00,0.67
9595.00,0.67
9594.00,0.67
9593.00,0.67
9592.00,0.67
9591.00,0.67
9590.00,0.67
9589.00,0.67
9588.00,0.67
9587.00,0.66
9586.00,0.66
9585.00,0.66
9584.00,0.66
9583.00,0.66
9582.00,0.66
9581.00,0.66
9580.00,0.66
9579.00,0.66
9578.00,0.66
9577.00,0.66
9576.00,0.66
9575.00,0.66
9574.00,0.66
9573.00,0.66
9572.00,0.66
9571.00,0.66
9570.00,0.66
9569.00,0.66
9568.00,0.66
9567.00,0.66
9566.00,0.66
9565.00,0.66
9564.00,0.66
9563.00,0.66
9562.00,0.66
9561.00,0.66
9560.00,0.66
9559.00,0.66
9558.00,0.66
9557.00,0.66
9556.00,0.66
9555.00,0.66
9554.00,0.66
9553.00,0.66
9552.00,0.66
9551.00,0.67
9550.00,0.67
9549.00,0.67
9548.00,0.67
9547.00,0.67
9546.00,0.67
9545.00,0.67
9544.00,0.68
9543.00,0.68
9542.00,0.68
9541.00,0.68
9540.00,0.69
9539.00,0.69
9538.00,0.69
9537.00,0.69
9536.00,0.69
9535.00,0.69
9534.00,0.69
9533.00,0.69
9532.00,0.69
9531.00,0.69
9530.00,0.69
9529.00,0.69
9528.00,0.69
9527.00,0.68
9526.00,0.68
9525.00,0.68
9524.00,0.68
9523.00,0.68
9522.00,0.67
9521.00,0.67
9520.00,0.67
9519.00,0.67
9518.00,0.67
9517.00,0.67
9516.00,0.67
9515.00,0.67
9514.00,0.66
9513.00,0.66
9512.00,0.66
9511.00,0.66
9510.00,0.66
9509.00,0.66
9508.00,0.66
9507.00,0.66
9506.00,0.66
9505.00,0.66
9504.00,0.66
9503.00,0.66
9502.00,0.66
9501.00,0.66
9500.00,0.66
9499.00,0.66
9498.00,0.66
9497.00,0.66
9496.00,0.66
9495.00,0.66
9494.00,0.66
9493.00,0.66
9492.00,0.66
9491.00,0.66
9490.00,0.67
9489.00,0.67
9488.00,0.67
9487.00,0.67
9486.00,0.67
9485.00,0.68
9484.00,0.68
9483.00,0.68
9482.00,0.68
9481.00,0.68
9480.00,0.68
9479.00,0.68
9478.00,0.69
9477.00,0.69
9476.00,0.69
9475.00,0.69
9474.00,0.69
9473.00,0.69
9472.00,0.68
9471.00,0.68
9470.00,0.68
9469.00,0.68
9468.00,0.68
9467.00,0.68
9466.00,0.68
9465.00,0.68
9464.00,0.68
9463.00,0.68
9462.00,0.68
9461.00,0.68
9460.00,0.67
9459.00,0.67
9458.00,0.67
9457.00,0.67
9456.00,0.67
9455.00,0.67
9454.00,0.67
9453.00,0.67
9452.00,0.67
9451.00,0.66
9450.00,0.66
9449.00,0.66
9448.00,0.66
9447.00,0.66
9446.00,0.66
9445.00,0.66
9444.00,0.66
9443.00,0.66
9442.00,0.66
9441.00,0.66
9440.00,0.66
9439.00,0.66
9438.00,0.66
9437.00,0.66
9436.00,0.66
9435.00,0.66
9434.00,0.66
9433.00,0.66
9432.00,0.66
9431.00,0.66
9430.00,0.66
9429.00,0.66
9428.00,0.66
9427.00,0.66
9426.00,0.66
9425.00,0.66
9424.00,0.66
9423.00,0.66
9422.00,0.66
9421.00,0.66
9420.00,0.66
9419.00,0.67
9418.00,0.67
9417.00,0.67
9416.00,0.67
9415.00,0.67
9414.00,0.68
9413.00,0.68
9412.00,0.68
9411.00,0.68
9410.00,0.69
9409.00,0.69
9408.00,0.69
9407.00,0.69
9406.00,0.69
9405.00,0.69
9404.00,0.69
9403.00,0.69
9402.00,0.69
9401.00,0.69
9400.00,0.69
9399.00,0.69
9398.00,0.69
9397.00,0.69
9396.00,0.68
9395.00,0.68
9394.00,0.68
9393.00,0.68
9392.00,0.68
9391.00,0.68
9390.00,0.68
9389.00,0.67
9388.00,0.67
9387.00,0.67
9386.00,0.67
9385.00,0.67
9384.00,0.67
9383.00,0.67
9382.00,0.67
9381.00,0.67
9380.00,0.67
9379.00,0.67
9378.00,0.67
9377.00,0.67
9376.00,0.67
9375.00,0.67
9374.00,0.67
9373.00,0.66
9372.00,0.66
9371.00,0.66
9370.00,0.66
9369.00,0.66
9368.00,0.66
9367.00,0.66
9366.00,0.66
9365.00,0.66
9364.00,0.66
9363.00,0.66
9362.00,0.66
9361.00,0.66
9360.00,0.66
9359.00,0.66
9358.00,0.66
9357.00,0.66
9356.00,0.66
9355.00,0.66
9354.00,0.66
9353.00,0.66
9352.00,0.66
9351.00,0.66
9350.00,0.66
9349.00,0.66
9348.00,0.66
9347.00,0.66
9346.00,0.66
9345.00,0.66
9344.00,0.66
9343.00,0.66
9342.00,0.66
9341.00,0.66
9340.00,0.66
9339.00,0.66
9338.00,0.66
9337.00,0.66
9336.00,0.66
9335.00,0.66
9334.00,0.66
9333.00,0.66
9332.00,0.66
9331.00,0.66
9330.00,0.66
9329.00,0.66
9328.00,0.66
9327.00,0.66
9326.00,0.66
9325.00,0.66
9324.00,0.66
9323.00,0.65
9322.00,0.65
9321.00,0.65
9320.00,0.65
9319.00,0.65
9318.00,0.65
9317.00,0.65
9316.00,0.65
9315.00,0.65
9314.00,0.65
9313.00,0.65
9312.00,0.65
9311.00,0.65
9310.00,0.65
9309.00,0.65
9308.00,0.66
9307.00,0.66
9306.00,0.66
9305.00,0.66
9304.00,0.66
9303.00,0.66
9302.00,0.67
9301.00,0.67
9300.00,0.67
9299.00,0.67
9298.00,0.67
9297.00,0.67
9296.00,0.67
9295.00,0.68
9294.00,0.68
9293.00,0.68
9292.00,0.68
9291.00,0.68
9290.00,0.68
9289.00,0.68
9288.00,0.68
9287.00,0.68
9286.00,0.68
9285.00,0.68
9284.00,0.68
9283.00,0.68
9282.00,0.68
9281.00,0.68
9280.00,0.68
9279.00,0.68
9278.00,0.68
9277.00,0.68
9276.00,0.68
9275.00,0.68
9274.00,0.68
9273.00,0.68
9272.00,0.69
9271.00,0.69
9270.00,0.69
9269.00,0.69
9268.00,0.69
9267.00,0.69
9266.00,0.69
9265.00,0.69
9264.00,0.69
9263.00,0.69
9262.00,0.69
9261.00,0.69
9260.00,0.69
9259.00,0.69
9258.00,0.69
9257.00,0.69
9256.00,0.69
9255.00,0.69
9254.00,0.69
9253.00,0.68
9252.00,0.68
9251.00,0.68
9250.00,0.68
9249.00,0.67
9248.00,0.67
9247.00,0.67
9246.00,0.67
9245.00,0.66
9244.00,0.66
9243.00,0.66
9242.00,0.66
9241.00,0.65
9240.00,0.65
9239.00,0.65
9238.00,0.65
9237.00,0.65
9236.00,0.65
9235.00,0.65
9234.00,0.65
9233.00,0.65
9232.00,0.65
9231.00,0.65
9230.00,0.65
9229.00,0.65
9228.00,0.65
9227.00,0.65
9226.00,0.65
9225.00,0.65
9224.00,0.65
9223.00,0.66
9222.00,0.66
9221.00,0.66
9220.00,0.66
9219.00,0.66
9218.00,0.67
9217.00,0.67
9216.00,0.67
9215.00,0.67
9214.00,0.67
9213.00,0.67
9212.00,0.67
9211.00,0.67
9210.00,0.67
9209.00,0.67
9208.00,0.67
9207.00,0.67
9206.00,0.67
9205.00,0.67
9204.00,0.67
9203.00,0.67
9202.00,0.66
9201.00,0.66
9200.00,0.66
9199.00,0.66
9198.00,0.66
9197.00,0.66
9196.00,0.66
9195.00,0.66
9194.00,0.66
9193.00,0.66
9192.00,0.66
9191.00,0.66
9190.00,0.66
9189.00,0.66
9188.00,0.66
9187.00,0.66
9186.00,0.66
9185.00,0.66
9184.00,0.67
9183.00,0.67
9182.00,0.67
9181.00,0.67
9180.00,0.67
9179.00,0.67
9178.00,0.67
9177.00,0.67
9176.00,0.67
9175.00,0.67
9174.00,0.68
9173.00,0.68
9172.00,0.67
9171.00,0.67
9170.00,0.67
9169.00,0.67
9168.00,0.67
9167.00,0.67
9166.00,0.67
9165.00,0.67
9164.00,0.67
9163.00,0.67
9162.00,0.67
9161.00,0.67
9160.00,0.67
9159.00,0.67
9158.00,0.67
9157.00,0.67
9156.00,0.67
9155.00,0.67
9154.00,0.67
9153.00,0.67
9152.00,0.67
9151.00,0.67
9150.00,0.67
9149.00,0.67
9148.00,0.67
9147.00,0.67
9146.00,0.66
9145.00,0.66
9144.00,0.66
9143.00,0.66
9142.00,0.66
9141.00,0.66
9140.00,0.66
9139.00,0.66
9138.00,0.66
9137.00,0.66
9136.00,0.66
9135.00,0.66
9134.00,0.66
9133.00,0.66
9132.00,0.66
9131.00,0.66
9130.00,0.66
9129.00,0.66
9128.00,0.67
9127.00,0.67
9126.00,0.67
9125.00,0.67
9124.00,0.67
9123.00,0.67
9122.00,0.67
9121.00,0.67
9120.00,0.68
9119.00,0.68
9118.00,0.68
9117.00,0.68
9116.00,0.68
9115.00,0.68
9114.00,0.68
9113.00,0.68
9112.00,0.68
9111.00,0.68
9110.00,0.67
9109.00,0.67
9108.00,0.67
9107.00,0.67
9106.00,0.67
9105.00,0.67
9104.00,0.67
9103.00,0.67
9102.00,0.67
9101.00,0.67
9100.00,0.67
9099.00,0.67
9098.00,0.67
9097.00,0.67
9096.00,0.67
9095.00,0.67
9094.00,0.67
9093.00,0.67
9092.00,0.67
9091.00,0.67
9090.00,0.67
9089.00,0.67
9088.00,0.67
9087.00,0.67
9086.00,0.68
9085.00,0.68
9084.00,0.68
9083.00,0.68
9082.00,0.68
9081.00,0.68
9080.00,0.68
9079.00,0.68
9078.00,0.68
9077.00,0.68
9076.00,0.68
9075.00,0.68
9074.00,0.68
9073.00,0.68
9072.00,0.68
9071.00,0.68
9070.00,0.68
9069.00,0.68
9068.00,0.68
9067.00,0.68
9066.00,0.68
9065.00,0.68
9064.00,0.68
9063.00,0.68
9062.00,0.68
9061.00,0.68
9060.00,0.68
9059.00,0.68
9058.00,0.68
9057.00,0.68
9056.00,0.68
9055.00,0.68
9054.00,0.69
9053.00,0.69
9052.00,0.69
9051.00,0.69
9050.00,0.69
9049.00,0.69
9048.00,0.69
9047.00,0.69
9046.00,0.69
9045.00,0.69
9044.00,0.69
9043.00,0.69
9042.00,0.68
9041.00,0.68
9040.00,0.68
9039.00,0.68
9038.00,0.68
9037.00,0.68
9036.00,0.68
9035.00,0.68
9034.00,0.68
9033.00,0.68
9032.00,0.68
9031.00,0.67
9030.00,0.67
9029.00,0.67
9028.00,0.67
9027.00,0.67
9026.00,0.67
9025.00,0.67
9024.00,0.67
9023.00,0.67
9022.00,0.67
9021.00,0.67
9020.00,0.67
9019.00,0.67
9018.00,0.67
9017.00,0.67
9016.00,0.67
9015.00,0.67
9014.00,0.67
9013.00,0.67
9012.00,0.67
9011.00,0.67
9010.00,0.67
9009.00,0.67
9008.00,0.67
9007.00,0.67
9006.00,0.67
9005.00,0.67
9004.00,0.67
9003.00,0.67
9002.00,0.67
9001.00,0.67
9000.00,0.67
8999.00,0.67
8998.00,0.67
8997.00,0.67
8996.00,0.67
8995.00,0.67
8994.00,0.67
8993.00,0.67
8992.00,0.67
8991.00,0.67
8990.00,0.67
8989.00,0.67
8988.00,0.67
8987.00,0.67
8986.00,0.67
8985.00,0.67
8984.00,0.67
8983.00,0.67
8982.00,0.67
8981.00,0.67
8980.00,0.67
8979.00,0.67
8978.00,0.67
8977.00,0.67
8976.00,0.67
8975.00,0.67
8974.00,0.67
8973.00,0.67
8972.00,0.67
8971.00,0.67
8970.00,0.67
8969.00,0.67
8968.00,0.67
8967.00,0.68
8966.00,0.68
8965.00,0.68
8964.00,0.68
8963.00,0.68
8962.00,0.69
8961.00,0.69
8960.00,0.69
8959.00,0.69
8958.00,0.69
8957.00,0.69
8956.00,0.69
8955.00,0.69
8954.00,0.69
8953.00,0.69
8952.00,0.69
8951.00,0.69
8950.00,0.69
8949.00,0.69
8948.00,0.69
8947.00,0.69
8946.00,0.69
8945.00,0.69
8944.00,0.69
8943.00,0.69
8942.00,0.69
8941.00,0.68
8940.00,0.68
8939.00,0.68
8938.00,0.68
8937.00,0.68
8936.00,0.68
8935.00,0.68
8934.00,0.68
8933.00,0.68
8932.00,0.68
8931.00,0.68
8930.00,0.68
8929.00,0.68
8928.00,0.68
8927.00,0.67
8926.00,0.67
8925.00,0.67
8924.00,0.67
8923.00,0.67
8922.00,0.67
8921.00,0.67
8920.00,0.67
8919.00,0.66
8918.00,0.66
8917.00,0.66
8916.00,0.66
8915.00,0.66
8914.00,0.66
8913.00,0.66
8912.00,0.66
8911.00,0.66
8910.00,0.66
8909.00,0.66
8908.00,0.66
8907.00,0.66
8906.00,0.66
8905.00,0.66
8904.00,0.66
8903.00,0.66
8902.00,0.66
8901.00,0.66
8900.00,0.66
8899.00,0.66
8898.00,0.67
8897.00,0.67
8896.00,0.67
8895.00,0.67
8894.00,0.67
8893.00,0.67
8892.00,0.67
8891.00,0.67
8890.00,0.67
8889.00,0.68
8888.00,0.68
8887.00,0.68
8886.00,0.68
8885.00,0.68
8884.00,0.68
8883.00,0.68
8882.00,0.68
8881.00,0.68
8880.00,0.68
8879.00,0.68
8878.00,0.68
8877.00,0.69
8876.00,0.69
8875.00,0.69
8874.00,0.69
8873.00,0.69
8872.00,0.69
8871.00,0.69
8870.00,0.69
8869.00,0.69
8868.00,0.69
8867.00,0.69
8866.00,0.69
8865.00,0.69
8864.00,0.69
8863.00,0.69
8862.00,0.69
8861.00,0.69
8860.00,0.69
8859.00,0.69
8858.00,0.69
8857.00,0.68
8856.00,0.68
8855.00,0.68
8854.00,0.68
8853.00,0.68
8852.00,0.68
8851.00,0.68
8850.00,0.68
8849.00,0.68
8848.00,0.68
8847.00,0.68
8846.00,0.68
8845.00,0.68
8844.00,0.68
8843.00,0.68
8842.00,0.68
8841.00,0.68
8840.00,0.68
8839.00,0.68
8838.00,0.68
8837.00,0.68
8836.00,0.68
8835.00,0.68
8834.00,0.68
8833.00,0.68
8832.00,0.68
8831.00,0.68
8830.00,0.68
8829.00,0.68
8828.00,0.68
8827.00,0.68
8826.00,0.67
8825.00,0.67
8824.00,0.67
8823.00,0.67
8822.00,0.67
8821.00,0.67
8820.00,0.67
8819.00,0.67
8818.00,0.67
8817.00,0.67
8816.00,0.67
8815.00,0.67
8814.00,0.67
8813.00,0.67
8812.00,0.67
8811.00,0.67
8810.00,0.66
8809.00,0.66
8808.00,0.66
8807.00,0.66
8806.00,0.66
8805.00,0.66
8804.00,0.66
8803.00,0.65
8802.00,0.65
8801.00,0.65
8800.00,0.65
8799.00,0.65
8798.00,0.65
8797.00,0.65
8796.00,0.65
8795.00,0.65
8794.00,0.65
8793.00,0.65
8792.00,0.65
8791.00,0.65
8790.00,0.65
8789.00,0.65
8788.00,0.65
8787.00,0.65
8786.00,0.65
8785.00,0.65
8784.00,0.65
8783.00,0.65
8782.00,0.65
8781.00,0.65
8780.00,0.65
8779.00,0.65
8778.00,0.65
8777.00,0.65
8776.00,0.65
8775.00,0.65
8774.00,0.65
8773.00,0.65
8772.00,0.65
8771.00,0.65
8770.00,0.65
8769.00,0.65
8768.00,0.65
8767.00,0.65
8766.00,0.65
8765.00,0.65
8764.00,0.65
8763.00,0.64
8762.00,0.64
8761.00,0.64
8760.00,0.64
8759.00,0.64
8758.00,0.64
8757.00,0.64
8756.00,0.64
8755.00,0.64
8754.00,0.64
8753.00,0.64
8752.00,0.63
8751.00,0.63
8750.00,0.63
8749.00,0.63
8748.00,0.63
8747.00,0.63
8746.00,0.63
8745.00,0.63
8744.00,0.63
8743.00,0.64
8742.00,0.64
8741.00,0.64
8740.00,0.64
8739.00,0.64
8738.00,0.64
8737.00,0.64
8736.00,0.65
8735.00,0.65
8734.00,0.65
8733.00,0.65
8732.00,0.65
8731.00,0.65
8730.00,0.65
8729.00,0.66
8728.00,0.66
8727.00,0.66
8726.00,0.66
8725.00,0.65
8724.00,0.65
8723.00,0.65
8722.00,0.65
8721.00,0.65
8720.00,0.65
8719.00,0.65
8718.00,0.64
8717.00,0.64
8716.00,0.64
8715.00,0.64
8714.00,0.64
8713.00,0.64
8712.00,0.64
8711.00,0.64
8710.00,0.64
8709.00,0.63
8708.00,0.63
8707.00,0.63
8706.00,0.63
8705.00,0.63
8704.00,0.63
8703.00,0.63
8702.00,0.63
8701.00,0.63
8700.00,0.63
8699.00,0.63
8698.00,0.63
8697.00,0.63
8696.00,0.63
8695.00,0.63
8694.00,0.63
8693.00,0.63
8692.00,0.63
8691.00,0.63
8690.00,0.63
8689.00,0.63
8688.00,0.63
8687.00,0.63
8686.00,0.63
8685.00,0.63
8684.00,0.63
8683.00,0.63
8682.00,0.63
8681.00,0.63
8680.00,0.63
8679.00,0.63
8678.00,0.63
8677.00,0.63
8676.00,0.63
8675.00,0.63
8674.00,0.63
8673.00,0.63
8672.00,0.63
8671.00,0.63
8670.00,0.63
8669.00,0.63
8668.00,0.63
8667.00,0.63
8666.00,0.63
8665.00,0.63
8664.00,0.63
8663.00,0.63
8662.00,0.63
8661.00,0.63
8660.00,0.63
8659.00,0.63
8658.00,0.63
8657.00,0.63
8656.00,0.63
8655.00,0.62
8654.00,0.62
8653.00,0.62
8652.00,0.62
8651.00,0.62
8650.00,0.62
8649.00,0.62
8648.00,0.62
8647.00,0.62
8646.00,0.62
8645.00,0.62
8644.00,0.62
8643.00,0.62
8642.00,0.62
8641.00,0.62
8640.00,0.62
8639.00,0.63
8638.00,0.63
8637.00,0.63
8636.00,0.63
8635.00,0.63
8634.00,0.63
8633.00,0.63
8632.00,0.64
8631.00,0.64
8630.00,0.64
8629.00,0.64
8628.00,0.64
8627.00,0.64
8626.00,0.64
8625.00,0.64
8624.00,0.64
8623.00,0.64
8622.00,0.64
8621.00,0.64
8620.00,0.63
8619.00,0.63
8618.00,0.63
8617.00,0.63
8616.00,0.63
8615.00,0.63
8614.00,0.62
8613.00,0.62
8612.00,0.62
8611.00,0.62
8610.00,0.62
8609.00,0.62
8608.00,0.62
8607.00,0.62
8606.00,0.62
8605.00,0.62
8604.00,0.62
8603.00,0.62
8602.00,0.62
8601.00,0.62
8600.00,0.62
8599.00,0.62
8598.00,0.62
8597.00,0.62
8596.00,0.62
8595.00,0.63
8594.00,0.63
8593.00,0.63
8592.00,0.63
8591.00,0.63
8590.00,0.63
8589.00,0.63
8588.00,0.63
8587.00,0.63
8586.00,0.62
8585.00,0.62
8584.00,0.62
8583.00,0.62
8582.00,0.62
8581.00,0.62
8580.00,0.62
8579.00,0.62
8578.00,0.61
8577.00,0.61
8576.00,0.61
8575.00,0.61
8574.00,0.61
8573.00,0.61
8572.00,0.61
8571.00,0.61
8570.00,0.60
8569.00,0.60
8568.00,0.61
8567.00,0.61
8566.00,0.61
8565.00,0.61
8564.00,0.61
8563.00,0.61
8562.00,0.61
8561.00,0.61
8560.00,0.61
8559.00,0.61
8558.00,0.61
8557.00,0.61
8556.00,0.61
8555.00,0.61
8554.00,0.61
8553.00,0.61
8552.00,0.61
8551.00,0.61
8550.00,0.61
8549.00,0.61
8548.00,0.61
8547.00,0.61
8546.00,0.61
8545.00,0.61
8544.00,0.60
8543.00,0.60
8542.00,0.60
8541.00,0.60
8540.00,0.60
8539.00,0.60
8538.00,0.60
8537.00,0.60
8536.00,0.60
8535.00,0.60
8534.00,0.60
8533.00,0.60
8532.00,0.60
8531.00,0.60
8530.00,0.60
8529.00,0.60
8528.00,0.60
8527.00,0.61
8526.00,0.61
8525.00,0.61
8524.00,0.61
8523.00,0.61
8522.00,0.61
8521.00,0.61
8520.00,0.61
8519.00,0.61
8518.00,0.61
8517.00,0.61
8516.00,0.61
8515.00,0.60
8514.00,0.60
8513.00,0.60
8512.00,0.60
8511.00,0.60
8510.00,0.60
8509.00,0.60
8508.00,0.60
8507.00,0.60
8506.00,0.60
8505.00,0.60
8504.00,0.60
8503.00,0.60
8502.00,0.60
8501.00,0.60
8500.00,0.60
8499.00,0.60
8498.00,0.60
8497.00,0.60
8496.00,0.59
8495.00,0.59
8494.00,0.59
8493.00,0.59
8492.00,0.59
8491.00,0.59
8490.00,0.59
8489.00,0.59
8488.00,0.59
8487.00,0.59
8486.00,0.59
8485.00,0.59
8484.00,0.59
8483.00,0.59
8482.00,0.59
8481.00,0.59
8480.00,0.59
8479.00,0.59
8478.00,0.59
8477.00,0.59
8476.00,0.59
8475.00,0.59
8474.00,0.59
8473.00,0.59
8472.00,0.59
8471.00,0.60
8470.00,0.59
8469.00,0.59
8468.00,0.59
8467.00,0.59
8466.00,0.59
8465.00,0.59
8464.00,0.59
8463.00,0.59
8462.00,0.59
8461.00,0.59
8460.00,0.59
8459.00,0.59
8458.00,0.59
8457.00,0.59
8456.00,0.59
8455.00,0.58
8454.00,0.58
8453.00,0.58
8452.00,0.58
8451.00,0.58
8450.00,0.58
8449.00,0.58
8448.00,0.58
8447.00,0.58
8446.00,0.58
8445.00,0.58
8444.00,0.58
8443.00,0.58
8442.00,0.58
8441.00,0.58
8440.00,0.58
8439.00,0.58
8438.00,0.58
8437.00,0.58
8436.00,0.58
8435.00,0.58
8434.00,0.58
8433.00,0.59
8432.00,0.59
8431.00,0.59
8430.00,0.59
8429.00,0.59
8428.00,0.59
8427.00,0.59
8426.00,0.59
8425.00,0.59
8424.00,0.59
8423.00,0.59
8422.00,0.59
8421.00,0.59
8420.00,0.59
8419.00,0.59
8418.00,0.59
8417.00,0.59
8416.00,0.59
8415.00,0.58
8414.00,0.58
8413.00,0.58
8412.00,0.58
8411.00,0.58
8410.00,0.58
8409.00,0.58
8408.00,0.58
8407.00,0.58
8406.00,0.58
8405.00,0.58
8404.00,0.58
8403.00,0.58
8402.00,0.59
8401.00,0.59
8400.00,0.59
8399.00,0.59
8398.00,0.59
8397.00,0.59
8396.00,0.59
8395.00,0.60
8394.00,0.60
8393.00,0.60
8392.00,0.60
8391.00,0.60
8390.00,0.60
8389.00,0.60
8388.00,0.60
8387.00,0.60
8386.00,0.61
8385.00,0.61
8384.00,0.61
8383.00,0.61
8382.00,0.61
8381.00,0.61
8380.00,0.61
8379.00,0.61
8378.00,0.61
8377.00,0.61
8376.00,0.61
8375.00,0.61
8374.00,0.61
8373.00,0.61
8372.00,0.61
8371.00,0.61
8370.00,0.61
8369.00,0.60
8368.00,0.60
8367.00,0.60
8366.00,0.60
8365.00,0.60
8364.00,0.60
8363.00,0.60
8362.00,0.60
8361.00,0.60
8360.00,0.60
8359.00,0.60
8358.00,0.60
8357.00,0.60
8356.00,0.61
8355.00,0.61
8354.00,0.61
8353.00,0.61
8352.00,0.61
8351.00,0.61
8350.00,0.61
8349.00,0.61
8348.00,0.61
8347.00,0.61
8346.00,0.61
8345.00,0.61
8344.00,0.61
8343.00,0.61
8342.00,0.61
8341.00,0.60
8340.00,0.60
8339.00,0.60
8338.00,0.60
8337.00,0.60
8336.00,0.60
8335.00,0.60
8334.00,0.60
8333.00,0.60
8332.00,0.60
8331.00,0.60
8330.00,0.60
8329.00,0.60
8328.00,0.60
8327.00,0.60
8326.00,0.60
8325.00,0.60
8324.00,0.60
8323.00,0.60
8322.00,0.60
8321.00,0.60
8320.00,0.60
8319.00,0.60
8318.00,0.60
8317.00,0.60
8316.00,0.60
8315.00,0.60
8314.00,0.60
8313.00,0.60
8312.00,0.60
8311.00,0.60
8310.00,0.60
8309.00,0.60
8308.00,0.60
8307.00,0.60
8306.00,0.60
8305.00,0.60
8304.00,0.60
8303.00,0.60
8302.00,0.60
8301.00,0.60
8300.00,0.60
8299.00,0.60
8298.00,0.60
8297.00,0.60
8296.00,0.60
8295.00,0.60
8294.00,0.60
8293.00,0.60
8292.00,0.60
8291.00,0.61
8290.00,0.61
8289.00,0.61
8288.00,0.61
8287.00,0.61
8286.00,0.61
8285.00,0.61
8284.00,0.61
8283.00,0.61
8282.00,0.61
8281.00,0.61
8280.00,0.61
8279.00,0.62
8278.00,0.62
8277.00,0.62
8276.00,0.62
8275.00,0.62
8274.00,0.61
8273.00,0.61
8272.00,0.61
8271.00,0.61
8270.00,0.61
8269.00,0.61
8268.00,0.61
8267.00,0.61
8266.00,0.61
8265.00,0.61
8264.00,0.61
8263.00,0.61
8262.00,0.61
8261.00,0.61
8260.00,0.61
8259.00,0.61
8258.00,0.61
8257.00,0.61
8256.00,0.61
8255.00,0.61
8254.00,0.61
8253.00,0.61
8252.00,0.61
8251.00,0.61
8250.00,0.61
8249.00,0.61
8248.00,0.61
8247.00,0.61
8246.00,0.61
8245.00,0.61
8244.00,0.62
8243.00,0.62
8242.00,0.62
8241.00,0.62
8240.00,0.62
8239.00,0.62
8238.00,0.62
8237.00,0.62
8236.00,0.62
8235.00,0.62
8234.00,0.62
8233.00,0.62
8232.00,0.63
8231.00,0.63
8230.00,0.63
8229.00,0.63
8228.00,0.63
8227.00,0.63
8226.00,0.63
8225.00,0.63
8224.00,0.63
8223.00,0.63
8222.00,0.63
8221.00,0.63
8220.00,0.64
8219.00,0.64
8218.00,0.64
8217.00,0.64
8216.00,0.64
8215.00,0.64
8214.00,0.64
8213.00,0.64
8212.00,0.64
8211.00,0.64
8210.00,0.64
8209.00,0.64
8208.00,0.64
8207.00,0.64
8206.00,0.64
8205.00,0.64
8204.00,0.64
8203.00,0.64
8202.00,0.64
8201.00,0.64
8200.00,0.64
8199.00,0.64
8198.00,0.64
8197.00,0.64
8196.00,0.64
8195.00,0.64
8194.00,0.64
8193.00,0.64
8192.00,0.64
8191.00,0.64
8190.00,0.64
8189.00,0.64
8188.00,0.64
8187.00,0.64
8186.00,0.64
8185.00,0.64
8184.00,0.64
8183.00,0.64
8182.00,0.64
8181.00,0.64
8180.00,0.64
8179.00,0.64
8178.00,0.64
8177.00,0.64
8176.00,0.64
8175.00,0.64
8174.00,0.64
8173.00,0.64
8172.00,0.64
8171.00,0.64
8170.00,0.64
8169.00,0.64
8168.00,0.65
8167.00,0.65
8166.00,0.65
8165.00,0.65
8164.00,0.65
8163.00,0.65
8162.00,0.65
8161.00,0.65
8160.00,0.65
8159.00,0.65
8158.00,0.65
8157.00,0.65
8156.00,0.65
8155.00,0.65
8154.00,0.65
8153.00,0.65
8152.00,0.65
8151.00,0.65
8150.00,0.65
8149.00,0.65
8148.00,0.65
8147.00,0.65
8146.00,0.65
8145.00,0.65
8144.00,0.65
8143.00,0.64
8142.00,0.64
8141.00,0.64
8140.00,0.64
8139.00,0.64
8138.00,0.64
8137.00,0.64
8136.00,0.64
8135.00,0.64
8134.00,0.64
8133.00,0.63
8132.00,0.63
8131.00,0.63
8130.00,0.63
8129.00,0.63
8128.00,0.63
8127.00,0.63
8126.00,0.63
8125.00,0.63
8124.00,0.63
8123.00,0.63
8122.00,0.63
8121.00,0.63
8120.00,0.63
8119.00,0.64
8118.00,0.64
8117.00,0.64
8116.00,0.64
8115.00,0.64
8114.00,0.64
8113.00,0.64
8112.00,0.65
8111.00,0.65
8110.00,0.65
8109.00,0.65
8108.00,0.65
8107.00,0.65
8106.00,0.65
8105.00,0.65
8104.00,0.65
8103.00,0.65
8102.00,0.65
8101.00,0.65
8100.00,0.65
8099.00,0.65
8098.00,0.65
8097.00,0.65
8096.00,0.65
8095.00,0.65
8094.00,0.65
8093.00,0.65
8092.00,0.65
8091.00,0.65
8090.00,0.65
8089.00,0.65
8088.00,0.65
8087.00,0.65
8086.00,0.65
8085.00,0.65
8084.00,0.65
8083.00,0.65
8082.00,0.65
8081.00,0.65
8080.00,0.65
8079.00,0.65
8078.00,0.65
8077.00,0.65
8076.00,0.65
8075.00,0.65
8074.00,0.65
8073.00,0.65
8072.00,0.65
8071.00,0.65
8070.00,0.65
8069.00,0.65
8068.00,0.65
8067.00,0.65
8066.00,0.65
8065.00,0.66
8064.00,0.66
8063.00,0.66
8062.00,0.66
8061.00,0.66
8060.00,0.66
8059.00,0.66
8058.00,0.66
8057.00,0.66
8056.00,0.66
8055.00,0.66
8054.00,0.66
8053.00,0.66
8052.00,0.66
8051.00,0.66
8050.00,0.66
8049.00,0.66
8048.00,0.66
8047.00,0.66
8046.00,0.66
8045.00,0.66
8044.00,0.66
8043.00,0.66
8042.00,0.66
8041.00,0.66
8040.00,0.65
8039.00,0.65
8038.00,0.65
8037.00,0.65
8036.00,0.65
8035.00,0.65
8034.00,0.65
8033.00,0.65
8032.00,0.65
8031.00,0.65
8030.00,0.66
8029.00,0.66
8028.00,0.66
8027.00,0.66
8026.00,0.66
8025.00,0.66
8024.00,0.66
8023.00,0.66
8022.00,0.66
8021.00,0.66
8020.00,0.66
8019.00,0.66
8018.00,0.66
8017.00,0.66
8016.00,0.66
8015.00,0.66
8014.00,0.66
8013.00,0.66
8012.00,0.66
8011.00,0.66
8010.00,0.66
8009.00,0.66
8008.00,0.66
8007.00,0.66
8006.00,0.66
8005.00,0.66
8004.00,0.66
8003.00,0.67
8002.00,0.67
8001.00,0.67
8000.00,0.67
7999.00,0.67
7998.00,0.67
7997.00,0.67
7996.00,0.67
7995.00,0.67
7994.00,0.67
7993.00,0.67
7992.00,0.67
7991.00,0.67
7990.00,0.67
7989.00,0.67
7988.00,0.67
7987.00,0.67
7986.00,0.67
7985.00,0.67
7984.00,0.67
7983.00,0.67
7982.00,0.67
7981.00,0.67
7980.00,0.67
7979.00,0.67
7978.00,0.67
7977.00,0.67
7976.00,0.67
7975.00,0.67
7974.00,0.67
7973.00,0.67
7972.00,0.67
7971.00,0.67
7970.00,0.67
7969.00,0.67
7968.00,0.67
7967.00,0.67
7966.00,0.67
7965.00,0.67
7964.00,0.67
7963.00,0.67
7962.00,0.67
7961.00,0.67
7960.00,0.67
7959.00,0.67
7958.00,0.67
7957.00,0.67
7956.00,0.67
7955.00,0.67
7954.00,0.67
7953.00,0.67
7952.00,0.67
7951.00,0.67
7950.00,0.67
7949.00,0.67
7948.00,0.67
7947.00,0.67
7946.00,0.67
7945.00,0.67
7944.00,0.67
7943.00,0.67
7942.00,0.67
7941.00,0.67
7940.00,0.67
7939.00,0.67
7938.00,0.67
7937.00,0.66
7936.00,0.66
7935.00,0.66
7934.00,0.66
7933.00,0.66
7932.00,0.66
7931.00,0.66
7930.00,0.66
7929.00,0.66
7928.00,0.67
7927.00,0.67
7926.00,0.67
7925.00,0.67
7924.00,0.67
7923.00,0.67
7922.00,0.67
7921.00,0.67
7920.00,0.67
7919.00,0.67
7918.00,0.67
7917.00,0.67
7916.00,0.67
7915.00,0.67
7914.00,0.67
7913.00,0.67
7912.00,0.67
7911.00,0.67
7910.00,0.67
7909.00,0.67
7908.00,0.67
7907.00,0.66
7906.00,0.66
7905.00,0.66
7904.00,0.66
7903.00,0.66
7902.00,0.66
7901.00,0.66
7900.00,0.66
7899.00,0.66
7898.00,0.66
7897.00,0.66
7896.00,0.66
7895.00,0.66
7894.00,0.66
7893.00,0.66
7892.00,0.66
7891.00,0.66
7890.00,0.66
7889.00,0.66
7888.00,0.67
7887.00,0.67
7886.00,0.67
7885.00,0.67
7884.00,0.67
7883.00,0.67
7882.00,0.67
7881.00,0.67
7880.00,0.67
7879.00,0.67
7878.00,0.67
7877.00,0.67
7876.00,0.67
7875.00,0.68
7874.00,0.68
7873.00,0.68
7872.00,0.68
7871.00,0.68
7870.00,0.68
7869.00,0.68
7868.00,0.68
7867.00,0.68
7866.00,0.68
7865.00,0.68
7864.00,0.68
7863.00,0.68
7862.00,0.68
7861.00,0.68
7860.00,0.68
7859.00,0.68
7858.00,0.68
7857.00,0.68
7856.00,0.68
7855.00,0.68
7854.00,0.68
7853.00,0.68
7852.00,0.68
7851.00,0.68
7850.00,0.68
7849.00,0.68
7848.00,0.68
7847.00,0.68
7846.00,0.68
7845.00,0.68
7844.00,0.68
7843.00,0.68
7842.00,0.68
7841.00,0.68
7840.00,0.68
7839.00,0.68
7838.00,0.68
7837.00,0.68
7836.00,0.68
7835.00,0.68
7834.00,0.68
7833.00,0.68
7832.00,0.68
7831.00,0.68
7830.00,0.68
7829.00,0.68
7828.00,0.68
7827.00,0.68
7826.00,0.68
7825.00,0.68
7824.00,0.67
7823.00,0.67
7822.00,0.67
7821.00,0.67
7820.00,0.67
7819.00,0.67
7818.00,0.67
7817.00,0.67
7816.00,0.67
7815.00,0.67
7814.00,0.67
7813.00,0.67
7812.00,0.67
7811.00,0.67
7810.00,0.67
7809.00,0.67
7808.00,0.67
7807.00,0.68
7806.00,0.68
7805.00,0.68
7804.00,0.68
7803.00,0.68
7802.00,0.68
7801.00,0.68
7800.00,0.68
7799.00,0.68
7798.00,0.68
7797.00,0.68
7796.00,0.68
7795.00,0.68
7794.00,0.68
7793.00,0.68
7792.00,0.67
7791.00,0.67
7790.00,0.67
7789.00,0.67
7788.00,0.67
7787.00,0.67
7786.00,0.67
7785.00,0.67
7784.00,0.67
7783.00,0.67
7782.00,0.67
7781.00,0.67
7780.00,0.67
7779.00,0.67
7778.00,0.67
7777.00,0.67
7776.00,0.67
7775.00,0.67
7774.00,0.67
7773.00,0.67
7772.00,0.67
7771.00,0.67
7770.00,0.67
7769.00,0.67
7768.00,0.67
7767.00,0.68
7766.00,0.68
7765.00,0.68
7764.00,0.68
7763.00,0.68
7762.00,0.68
7761.00,0.68
7760.00,0.68
7759.00,0.68
7758.00,0.68
7757.00,0.68
7756.00,0.68
7755.00,0.68
7754.00,0.68
7753.00,0.68
7752.00,0.68
7751.00,0.68
7750.00,0.68
7749.00,0.68
7748.00,0.68
7747.00,0.68
7746.00,0.68
7745.00,0.69
7744.00,0.69
7743.00,0.69
7742.00,0.69
7741.00,0.69
7740.00,0.69
7739.00,0.69
7738.00,0.69
7737.00,0.69
7736.00,0.69
7735.00,0.69
7734.00,0.69
7733.00,0.69
7732.00,0.69
7731.00,0.69
7730.00,0.69
7729.00,0.69
7728.00,0.69
7727.00,0.69
7726.00,0.69
7725.00,0.69
7724.00,0.69
7723.00,0.69
7722.00,0.69
7721.00,0.69
7720.00,0.69
7719.00,0.69
7718.00,0.69
7717.00,0.69
7716.00,0.69
7715.00,0.69
7714.00,0.69
7713.00,0.69
7712.00,0.69
7711.00,0.69
7710.00,0.69
7709.00,0.69
7708.00,0.69
7707.00,0.69
7706.00,0.69
7705.00,0.69
7704.00,0.69
7703.00,0.69
7702.00,0.69
7701.00,0.69
7700.00,0.69
7699.00,0.69
7698.00,0.69
7697.00,0.69
7696.00,0.69
7695.00,0.69
7694.00,0.69
7693.00,0.69
7692.00,0.69
7691.00,0.69
7690.00,0.69
7689.00,0.69
7688.00,0.69
7687.00,0.69
7686.00,0.69
7685.00,0.69
7684.00,0.69
7683.00,0.69
7682.00,0.69
7681.00,0.69
7680.00,0.69
7679.00,0.69
7678.00,0.69
7677.00,0.69
7676.00,0.69
7675.00,0.69
7674.00,0.69
7673.00,0.68
7672.00,0.68
7671.00,0.68
7670.00,0.68
7669.00,0.68
7668.00,0.68
7667.00,0.68
7666.00,0.68
7665.00,0.68
7664.00,0.68
7663.00,0.68
7662.00,0.68
7661.00,0.68
7660.00,0.68
7659.00,0.68
7658.00,0.68
7657.00,0.68
7656.00,0.69
7655.00,0.69
7654.00,0.69
7653.00,0.69
7652.00,0.69
7651.00,0.69
7650.00,0.69
7649.00,0.69
7648.00,0.69
7647.00,0.69
7646.00,0.69
7645.00,0.69
7644.00,0.69
7643.00,0.69
7642.00,0.69
7641.00,0.69
7640.00,0.69
7639.00,0.69
7638.00,0.69
7637.00,0.69
7636.00,0.69
7635.00,0.69
7634.00,0.69
7633.00,0.69
7632.00,0.69
7631.00,0.69
7630.00,0.69
7629.00,0.69
7628.00,0.69
7627.00,0.69
7626.00,0.69
7625.00,0.69
7624.00,0.69
7623.00,0.69
7622.00,0.69
7621.00,0.69
7620.00,0.69
7619.00,0.69
7618.00,0.69
7617.00,0.69
7616.00,0.69
7615.00,0.69
7614.00,0.69
7613.00,0.69
7612.00,0.69
7611.00,0.69
7610.00,0.69
7609.00,0.69
7608.00,0.69
7607.00,0.69
7606.00,0.69
7605.00,0.69
7604.00,0.69
7603.00,0.69
7602.00,0.69
7601.00,0.69
7600.00,0.69
7599.00,0.69
7598.00,0.69
7597.00,0.69
7596.00,0.69
7595.00,0.69
7594.00,0.69
7593.00,0.69
7592.00,0.69
7591.00,0.68
7590.00,0.68
7589.00,0.68
7588.00,0.68
7587.00,0.68
7586.00,0.68
7585.00,0.68
7584.00,0.68
7583.00,0.68
7582.00,0.68
7581.00,0.68
7580.00,0.68
7579.00,0.68
7578.00,0.69
7577.00,0.69
7576.00,0.69
7575.00,0.69
7574.00,0.69
7573.00,0.69
7572.00,0.69
7571.00,0.69
7570.00,0.69
7569.00,0.69
7568.00,0.69
7567.00,0.69
7566.00,0.69
7565.00,0.69
7564.00,0.69
7563.00,0.69
7562.00,0.69
7561.00,0.69
7560.00,0.69
7559.00,0.69
7558.00,0.69
7557.00,0.69
7556.00,0.69
7555.00,0.69
7554.00,0.68
7553.00,0.68
7552.00,0.68
7551.00,0.68
7550.00,0.68
7549.00,0.68
7548.00,0.68
7547.00,0.68
7546.00,0.68
7545.00,0.68
7544.00,0.68
7543.00,0.68
7542.00,0.68
7541.00,0.68
7540.00,0.68
7539.00,0.68
7538.00,0.68
7537.00,0.68
7536.00,0.68
7535.00,0.68
7534.00,0.68
7533.00,0.68
7532.00,0.68
7531.00,0.68
7530.00,0.68
7529.00,0.68
7528.00,0.68
7527.00,0.68
7526.00,0.68
7525.00,0.68
7524.00,0.68
7523.00,0.68
7522.00,0.68
7521.00,0.68
7520.00,0.68
7519.00,0.68
7518.00,0.68
7517.00,0.68
7516.00,0.68
7515.00,0.68
7514.00,0.68
7513.00,0.68
7512.00,0.68
7511.00,0.68
7510.00,0.68
7509.00,0.68
7508.00,0.68
7507.00,0.68
7506.00,0.68
7505.00,0.68
7504.00,0.68
7503.00,0.68
7502.00,0.68
7501.00,0.68
7500.00,0.68
7499.00,0.68
7498.00,0.67
7497.00,0.67
7496.00,0.67
7495.00,0.67
7494.00,0.67
7493.00,0.67
7492.00,0.67
7491.00,0.67
7490.00,0.67
7489.00,0.67
7488.00,0.67
7487.00,0.66
7486.00,0.66
7485.00,0.66
7484.00,0.66
7483.00,0.66
7482.00,0.66
7481.00,0.66
7480.00,0.66
7479.00,0.66
7478.00,0.66
7477.00,0.66
7476.00,0.66
7475.00,0.66
7474.00,0.66
7473.00,0.66
7472.00,0.66
7471.00,0.66
7470.00,0.66
7469.00,0.67
7468.00,0.67
7467.00,0.67
7466.00,0.67
7465.00,0.67
7464.00,0.67
7463.00,0.67
7462.00,0.67
7461.00,0.66
7460.00,0.66
7459.00,0.66
7458.00,0.66
7457.00,0.66
7456.00,0.66
7455.00,0.66
7454.00,0.66
7453.00,0.66
7452.00,0.66
7451.00,0.65
7450.00,0.65
7449.00,0.65
7448.00,0.65
7447.00,0.65
7446.00,0.65
7445.00,0.65
7444.00,0.65
7443.00,0.65
7442.00,0.65
7441.00,0.65
7440.00,0.65
7439.00,0.65
7438.00,0.65
7437.00,0.64
7436.00,0.64
7435.00,0.64
7434.00,0.64
7433.00,0.64
7432.00,0.64
7431.00,0.64
7430.00,0.64
7429.00,0.64
7428.00,0.64
7427.00,0.64
7426.00,0.64
7425.00,0.64
7424.00,0.64
7423.00,0.65
7422.00,0.65
7421.00,0.65
7420.00,0.65
7419.00,0.65
7418.00,0.65
7417.00,0.65
7416.00,0.65
7415.00,0.65
7414.00,0.65
7413.00,0.64
7412.00,0.64
7411.00,0.64
7410.00,0.64
7409.00,0.64
7408.00,0.64
7407.00,0.64
7406.00,0.64
7405.00,0.64
7404.00,0.64
7403.00,0.64
7402.00,0.64
7401.00,0.64
7400.00,0.64
7399.00,0.64
7398.00,0.63
7397.00,0.63
7396.00,0.63
7395.00,0.63
7394.00,0.63
7393.00,0.63
7392.00,0.63
7391.00,0.63
7390.00,0.63
7389.00,0.63
7388.00,0.63
7387.00,0.62
7386.00,0.62
7385.00,0.62
7384.00,0.62
7383.00,0.62
7382.00,0.62
7381.00,0.62
7380.00,0.62
7379.00,0.62
7378.00,0.62
7377.00,0.62
7376.00,0.62
7375.00,0.63
7374.00,0.63
7373.00,0.63
7372.00,0.63
7371.00,0.63
7370.00,0.63
7369.00,0.63
7368.00,0.63
7367.00,0.63
7366.00,0.63
7365.00,0.63
7364.00,0.63
7363.00,0.62
7362.00,0.62
7361.00,0.62
7360.00,0.62
7359.00,0.62
7358.00,0.62
7357.00,0.62
7356.00,0.62
7355.00,0.62
7354.00,0.62
7353.00,0.62
7352.00,0.62
7351.00,0.62
7350.00,0.62
7349.00,0.62
7348.00,0.62
7347.00,0.62
7346.00,0.62
7345.00,0.62
7344.00,0.62
7343.00,0.61
7342.00,0.61
7341.00,0.61
7340.00,0.61
7339.00,0.61
7338.00,0.61
7337.00,0.61
7336.00,0.61
7335.00,0.61
7334.00,0.61
7333.00,0.61
7332.00,0.61
7331.00,0.61
7330.00,0.61
7329.00,0.61
7328.00,0.61
7327.00,0.61
7326.00,0.61
7325.00,0.61
7324.00,0.61
7323.00,0.61
7322.00,0.61
7321.00,0.61
7320.00,0.61
7319.00,0.61
7318.00,0.61
7317.00,0.61
7316.00,0.61
7315.00,0.61
7314.00,0.61
7313.00,0.61
7312.00,0.61
7311.00,0.61
7310.00,0.61
7309.00,0.61
7308.00,0.61
7307.00,0.61
7306.00,0.61
7305.00,0.61
7304.00,0.60
7303.00,0.60
7302.00,0.60
7301.00,0.60
7300.00,0.60
7299.00,0.60
7298.00,0.60
7297.00,0.60
7296.00,0.60
7295.00,0.60
7294.00,0.60
7293.00,0.60
7292.00,0.60
7291.00,0.60
7290.00,0.60
7289.00,0.60
7288.00,0.60
7287.00,0.60
7286.00,0.60
7285.00,0.60
7284.00,0.59
7283.00,0.59
7282.00,0.59
7281.00,0.59
7280.00,0.59
7279.00,0.59
7278.00,0.59
7277.00,0.59
7276.00,0.58
7275.00,0.58
7274.00,0.58
7273.00,0.58
7272.00,0.58
7271.00,0.58
7270.00,0.58
7269.00,0.58
7268.00,0.58
7267.00,0.57
7266.00,0.57
7265.00,0.57
7264.00,0.57
7263.00,0.57
7262.00,0.57
7261.00,0.57
7260.00,0.57
7259.00,0.57
7258.00,0.57
7257.00,0.57
7256.00,0.57
7255.00,0.57
7254.00,0.57
7253.00,0.57
7252.00,0.57
7251.00,0.56
7250.00,0.56
7249.00,0.56
7248.00,0.56
7247.00,0.56
7246.00,0.56
7245.00,0.56
7244.00,0.55
7243.00,0.55
7242.00,0.55
7241.00,0.55
7240.00,0.55
7239.00,0.54
7238.00,0.54
7237.00,0.54
7236.00,0.54
7235.00,0.54
7234.00,0.54
7233.00,0.53
7232.00,0.53
7231.00,0.53
7230.00,0.53
7229.00,0.53
7228.00,0.53
7227.00,0.52
7226.00,0.52
7225.00,0.52
7224.00,0.52
7223.00,0.52
7222.00,0.51
7221.00,0.51
7220.00,0.51
7219.00,0.51
7218.00,0.51
7217.00,0.50
7216.00,0.50
7215.00,0.50
7214.00,0.50
7213.00,0.50
7212.00,0.50
7211.00,0.49
7210.00,0.49
7209.00,0.49
7208.00,0.49
7207.00,0.49
7206.00,0.49
7205.00,0.48
7204.00,0.48
7203.00,0.48
7202.00,0.48
7201.00,0.48
7200.00,0.48
7199.00,0.48
7198.00,0.47
7197.00,0.47
7196.00,0.47
7195.00,0.47
7194.00,0.47
7193.00,0.47
7192.00,0.46
7191.00,0.46
7190.00,0.46
7189.00,0.46
7188.00,0.46
7187.00,0.45
7186.00,0.45
7185.00,0.45
7184.00,0.45
7183.00,0.45
7182.00,0.44
7181.00,0.44
7180.00,0.44
7179.00,0.44
7178.00,0.44
7177.00,0.43
7176.00,0.43
7175.00,0.43
7174.00,0.43
7173.00,0.43
7172.00,0.42
7171.00,0.42
7170.00,0.42
7169.00,0.42
7168.00,0.41
7167.00,0.41
7166.00,0.41
7165.00,0.41
7164.00,0.41
7163.00,0.41
7162.00,0.40
7161.00,0.40
7160.00,0.40
7159.00,0.40
7158.00,0.40
7157.00,0.40
7156.00,0.40
7155.00,0.40
7154.00,0.40
7153.00,0.40
7152.00,0.39
7151.00,0.39
7150.00,0.39
7149.00,0.39
7148.00,0.39
7147.00,0.39
7146.00,0.39
7145.00,0.39
7144.00,0.38
7143.00,0.38
7142.00,0.38
7141.00,0.38
7140.00,0.38
7139.00,0.38
7138.00,0.38
7137.00,0.37
7136.00,0.37
7135.00,0.37
7134.00,0.37
7133.00,0.37
7132.00,0.37
7131.00,0.37
7130.00,0.36
7129.00,0.36
7128.00,0.36
7127.00,0.36
7126.00,0.36
7125.00,0.36
7124.00,0.36
7123.00,0.36
7122.00,0.35
7121.00,0.35
7120.00,0.35
7119.00,0.35
7118.00,0.35
7117.00,0.35
7116.00,0.35
7115.00,0.35
7114.00,0.35
7113.00,0.34
7112.00,0.34
7111.00,0.34
7110.00,0.34
7109.00,0.34
7108.00,0.34
7107.00,0.34
7106.00,0.34
7105.00,0.34
7104.00,0.34
7103.00,0.34
7102.00,0.34
7101.00,0.34
7100.00,0.34
7099.00,0.34
7098.00,0.34
7097.00,0.34
7096.00,0.34
7095.00,0.34
7094.00,0.33
7093.00,0.33
7092.00,0.33
7091.00,0.33
7090.00,0.33
7089.00,0.33
7088.00,0.33
7087.00,0.33
7086.00,0.33
7085.00,0.33
7084.00,0.33
7083.00,0.33
7082.00,0.33
7081.00,0.33
7080.00,0.32
7079.00,0.32
7078.00,0.32
7077.00,0.32
7076.00,0.32
7075.00,0.32
7074.00,0.32
7073.00,0.32
7072.00,0.32
7071.00,0.32
7070.00,0.32
7069.00,0.31
7068.00,0.31
7067.00,0.31
7066.00,0.31
7065.00,0.31
7064.00,0.31
7063.00,0.31
7062.00,0.31
7061.00,0.31
7060.00,0.31
7059.00,0.31
7058.00,0.31
7057.00,0.31
7056.00,0.31
7055.00,0.31
7054.00,0.31
7053.00,0.31
7052.00,0.31
7051.00,0.31
7050.00,0.31
7049.00,0.31
7048.00,0.31
7047.00,0.31
7046.00,0.31
7045.00,0.31
7044.00,0.31
7043.00,0.31
7042.00,0.31
7041.00,0.31
7040.00,0.31
7039.00,0.31
7038.00,0.31
7037.00,0.31
7036.00,0.31
7035.00,0.31
7034.00,0.31
7033.00,0.31
7032.00,0.31
7031.00,0.31
7030.00,0.31
7029.00,0.31
7028.00,0.30
7027.00,0.30
7026.00,0.30
7025.00,0.30
7024.00,0.30
7023.00,0.30
7022.00,0.30
7021.00,0.30
7020.00,0.30
7019.00,0.30
7018.00,0.30
7017.00,0.30
7016.00,0.30
7015.00,0.30
7014.00,0.30
7013.00,0.30
7012.00,0.30
7011.00,0.30
7010.00,0.30
7009.00,0.30
7008.00,0.30
7007.00,0.30
7006.00,0.29
7005.00,0.29
7004.00,0.29
7003.00,0.29
7002.00,0.29
7001.00,0.30
7000.00,0.30
6999.00,0.30
6998.00,0.30
6997.00,0.30
6996.00,0.30
6995.00,0.30
6994.00,0.30
6993.00,0.30
6992.00,0.30
6991.00,0.30
6990.00,0.30
6989.00,0.30
6988.00,0.29
6987.00,0.29
6986.00,0.29
6985.00,0.29
6984.00,0.29
6983.00,0.29
6982.00,0.29
6981.00,0.29
6980.00,0.29
6979.00,0.29
6978.00,0.29
6977.00,0.29
6976.00,0.29
6975.00,0.29
6974.00,0.29
6973.00,0.29
6972.00,0.29
6971.00,0.29
6970.00,0.29
6969.00,0.29
6968.00,0.29
6967.00,0.29
6966.00,0.29
6965.00,0.29
6964.00,0.29
6963.00,0.29
6962.00,0.29
6961.00,0.29
6960.00,0.29
6959.00,0.29
6958.00,0.29
6957.00,0.29
6956.00,0.29
6955.00,0.29
6954.00,0.29
6953.00,0.29
6952.00,0.29
6951.00,0.29
6950.00,0.29
6949.00,0.29
6948.00,0.29
6947.00,0.29
6946.00,0.29
6945.00,0.29
6944.00,0.29
6943.00,0.29
6942.00,0.29
6941.00,0.29
6940.00,0.29
6939.00,0.29
6938.00,0.29
6937.00,0.29
6936.00,0.29
6935.00,0.29
6934.00,0.29
6933.00,0.29
6932.00,0.29
6931.00,0.29
6930.00,0.29
6929.00,0.29
6928.00,0.29
6927.00,0.29
6926.00,0.29
6925.00,0.29
6924.00,0.29
6923.00,0.29
6922.00,0.29
6921.00,0.29
6920.00,0.29
6919.00,0.29
6918.00,0.29
6917.00,0.29
6916.00,0.29
6915.00,0.29
6914.00,0.29
6913.00,0.29
6912.00,0.29
6911.00,0.29
6910.00,0.29
6909.00,0.29
6908.00,0.29
6907.00,0.29
6906.00,0.29
6905.00,0.29
6904.00,0.29
6903.00,0.29
6902.00,0.29
6901.00,0.29
6900.00,0.29
6899.00,0.29
6898.00,0.29
6897.00,0.29
6896.00,0.29
6895.00,0.29
6894.00,0.29
6893.00,0.29
6892.00,0.29
6891.00,0.29
6890.00,0.29
6889.00,0.29
6888.00,0.29
6887.00,0.29
6886.00,0.29
6885.00,0.29
6884.00,0.29
6883.00,0.29
6882.00,0.29
6881.00,0.29
6880.00,0.29
6879.00,0.29
6878.00,0.29
6877.00,0.29
6876.00,0.29
6875.00,0.29
6874.00,0.29
6873.00,0.29
6872.00,0.29
6871.00,0.29
6870.00,0.29
6869.00,0.29
6868.00,0.29
6867.00,0.29
6866.00,0.29
6865.00,0.29
6864.00,0.29
6863.00,0.29
6862.00,0.29
6861.00,0.29
6860.00,0.29
6859.00,0.29
6858.00,0.29
6857.00,0.29
6856.00,0.29
6855.00,0.29
6854.00,0.29
6853.00,0.29
6852.00,0.29
6851.00,0.29
6850.00,0.29
6849.00,0.29
6848.00,0.29
6847.00,0.29
6846.00,0.29
6845.00,0.29
6844.00,0.29
6843.00,0.29
6842.00,0.29
6841.00,0.29
6840.00,0.29
6839.00,0.29
6838.00,0.29
6837.00,0.29
6836.00,0.29
6835.00,0.29
6834.00,0.29
6833.00,0.29
6832.00,0.29
6831.00,0.29
6830.00,0.29
6829.00,0.29
6828.00,0.29
6827.00,0.29
6826.00,0.29
6825.00,0.29
6824.00,0.29
6823.00,0.29
6822.00,0.29
6821.00,0.29
6820.00,0.29
6819.00,0.29
6818.00,0.29
6817.00,0.29
6816.00,0.29
6815.00,0.29
6814.00,0.29
6813.00,0.29
6812.00,0.29
6811.00,0.29
6810.00,0.29
6809.00,0.29
6808.00,0.29
6807.00,0.29
6806.00,0.29
6805.00,0.29
6804.00,0.29
6803.00,0.29
6802.00,0.29
6801.00,0.29
6800.00,0.30
6799.00,0.30
6798.00,0.30
6797.00,0.30
6796.00,0.30
6795.00,0.30
6794.00,0.30
6793.00,0.30
6792.00,0.30
6791.00,0.30
6790.00,0.30
6789.00,0.30
6788.00,0.30
6787.00,0.30
6786.00,0.30
6785.00,0.30
6784.00,0.30
6783.00,0.30
6782.00,0.30
6781.00,0.30
6780.00,0.30
6779.00,0.30
6778.00,0.30
6777.00,0.30
6776.00,0.30
6775.00,0.30
6774.00,0.30
6773.00,0.30
6772.00,0.30
6771.00,0.30
6770.00,0.30
6769.00,0.30
6768.00,0.30
6767.00,0.31
6766.00,0.31
6765.00,0.31
6764.00,0.31
6763.00,0.31
6762.00,0.31
6761.00,0.31
6760.00,0.31
6759.00,0.31
6758.00,0.31
6757.00,0.31
6756.00,0.31
6755.00,0.31
6754.00,0.31
6753.00,0.31
6752.00,0.31
6751.00,0.31
6750.00,0.31
6749.00,0.31
6748.00,0.31
6747.00,0.31
6746.00,0.31
6745.00,0.31
6744.00,0.31
6743.00,0.31
6742.00,0.31
6741.00,0.31
6740.00,0.31
6739.00,0.31
6738.00,0.31
6737.00,0.31
6736.00,0.31
6735.00,0.31
6734.00,0.31
6733.00,0.31
6732.00,0.31
6731.00,0.31
6730.00,0.31
6729.00,0.31
6728.00,0.31
6727.00,0.31
6726.00,0.31
6725.00,0.31
6724.00,0.32
6723.00,0.32
6722.00,0.32
6721.00,0.32
6720.00,0.32
6719.00,0.32
6718.00,0.32
6717.00,0.32
6716.00,0.32
6715.00,0.32
6714.00,0.32
6713.00,0.32
6712.00,0.32
6711.00,0.32
6710.00,0.32
6709.00,0.32
6708.00,0.32
6707.00,0.32
6706.00,0.32
6705.00,0.32
6704.00,0.32
6703.00,0.32
6702.00,0.32
6701.00,0.32
6700.00,0.32
6699.00,0.32
6698.00,0.32
6697.00,0.32
6696.00,0.32
6695.00,0.32
6694.00,0.33
6693.00,0.33
6692.00,0.33
6691.00,0.33
6690.00,0.33
6689.00,0.33
6688.00,0.33
6687.00,0.33
6686.00,0.33
6685.00,0.33
6684.00,0.33
6683.00,0.33
6682.00,0.33
6681.00,0.33
6680.00,0.33
6679.00,0.33
6678.00,0.33
6677.00,0.33
6676.00,0.33
6675.00,0.33
6674.00,0.33
6673.00,0.33
6672.00,0.34
6671.00,0.34
6670.00,0.34
6669.00,0.34
6668.00,0.34
6667.00,0.34
6666.00,0.34
6665.00,0.34
6664.00,0.34
6663.00,0.34
6662.00,0.34
6661.00,0.34
6660.00,0.34
6659.00,0.34
6658.00,0.34
6657.00,0.34
6656.00,0.34
6655.00,0.34
6654.00,0.34
6653.00,0.34
6652.00,0.34
6651.00,0.34
6650.00,0.34
6649.00,0.34
6648.00,0.34
6647.00,0.35
6646.00,0.35
6645.00,0.35
6644.00,0.35
6643.00,0.35
6642.00,0.35
6641.00,0.35
6640.00,0.35
6639.00,0.35
6638.00,0.35
6637.00,0.35
6636.00,0.35
6635.00,0.35
6634.00,0.35
6633.00,0.35
6632.00,0.35
6631.00,0.35
6630.00,0.35
6629.00,0.35
6628.00,0.35
6627.00,0.35
6626.00,0.35
6625.00,0.35
6624.00,0.36
6623.00,0.36
6622.00,0.36
6621.00,0.36
6620.00,0.36
6619.00,0.36
6618.00,0.36
6617.00,0.36
6616.00,0.36
6615.00,0.36
6614.00,0.36
6613.00,0.36
6612.00,0.36
6611.00,0.36
6610.00,0.36
6609.00,0.36
6608.00,0.36
6607.00,0.36
6606.00,0.36
6605.00,0.36
6604.00,0.36
6603.00,0.36
6602.00,0.36
6601.00,0.36
6600.00,0.36
6599.00,0.36
6598.00,0.36
6597.00,0.36
6596.00,0.36
6595.00,0.37
6594.00,0.37
6593.00,0.37
6592.00,0.37
6591.00,0.37
6590.00,0.37
6589.00,0.37
6588.00,0.37
6587.00,0.37
6586.00,0.37
6585.00,0.37
6584.00,0.37
6583.00,0.37
6582.00,0.37
6581.00,0.37
6580.00,0.37
6579.00,0.37
6578.00,0.37
6577.00,0.37
6576.00,0.37
6575.00,0.37
6574.00,0.37
6573.00,0.37
6572.00,0.38
6571.00,0.38
6570.00,0.38
6569.00,0.38
6568.00,0.38
6567.00,0.38
6566.00,0.38
6565.00,0.38
6564.00,0.38
6563.00,0.38
6562.00,0.38
6561.00,0.38
6560.00,0.38
6559.00,0.38
6558.00,0.38
6557.00,0.38
6556.00,0.38
6555.00,0.38
6554.00,0.38
6553.00,0.38
6552.00,0.38
6551.00,0.38
6550.00,0.38
6549.00,0.38
6548.00,0.39
6547.00,0.39
6546.00,0.39
6545.00,0.39
6544.00,0.39
6543.00,0.39
6542.00,0.39
6541.00,0.39
6540.00,0.39
6539.00,0.39
6538.00,0.39
6537.00,0.39
6536.00,0.39
6535.00,0.39
6534.00,0.39
6533.00,0.39
6532.00,0.39
6531.00,0.39
6530.00,0.39
6529.00,0.39
6528.00,0.39
6527.00,0.39
6526.00,0.40
6525.00,0.40
6524.00,0.40
6523.00,0.40
6522.00,0.40
6521.00,0.40
6520.00,0.40
6519.00,0.40
6518.00,0.40
6517.00,0.40
6516.00,0.40
6515.00,0.40
6514.00,0.40
6513.00,0.40
6512.00,0.40
6511.00,0.40
6510.00,0.40
6509.00,0.40
6508.00,0.40
6507.00,0.40
6506.00,0.40
6505.00,0.40
6504.00,0.40
6503.00,0.40
6502.00,0.40
6501.00,0.41
6500.00,0.41
6499.00,0.41
6498.00,0.41
6497.00,0.41
6496.00,0.41
6495.00,0.41
6494.00,0.41
6493.00,0.41
6492.00,0.41
6491.00,0.41
6490.00,0.41
6489.00,0.41
6488.00,0.41
6487.00,0.41
6486.00,0.41
6485.00,0.41
6484.00,0.41
6483.00,0.41
6482.00,0.41
6481.00,0.41
6480.00,0.42
6479.00,0.42
6478.00,0.42
6477.00,0.42
6476.00,0.42
6475.00,0.42
6474.00,0.42
6473.00,0.42
6472.00,0.42
6471.00,0.42
6470.00,0.42
6469.00,0.42
6468.00,0.42
6467.00,0.42
6466.00,0.42
6465.00,0.42
6464.00,0.42
6463.00,0.42
6462.00,0.42
6461.00,0.42
6460.00,0.42
6459.00,0.42
6458.00,0.42
6457.00,0.42
6456.00,0.42
6455.00,0.42
6454.00,0.42
6453.00,0.42
6452.00,0.43
6451.00,0.43
6450.00,0.43
6449.00,0.43
6448.00,0.43
6447.00,0.43
6446.00,0.43
6445.00,0.43
6444.00,0.43
6443.00,0.43
6442.00,0.43
6441.00,0.43
6440.00,0.43
6439.00,0.43
6438.00,0.43
6437.00,0.43
6436.00,0.43
6435.00,0.43
6434.00,0.43
6433.00,0.43
6432.00,0.43
6431.00,0.43
6430.00,0.43
6429.00,0.43
6428.00,0.43
6427.00,0.43
6426.00,0.43
6425.00,0.43
6424.00,0.43
6423.00,0.43
6422.00,0.44
6421.00,0.44
6420.00,0.44
6419.00,0.44
6418.00,0.44
6417.00,0.44
6416.00,0.44
6415.00,0.44
6414.00,0.44
6413.00,0.44
6412.00,0.44
6411.00,0.44
6410.00,0.44
6409.00,0.44
6408.00,0.44
6407.00,0.44
6406.00,0.45
6405.00,0.45
6404.00,0.45
6403.00,0.45
6402.00,0.45
6401.00,0.45
6400.00,0.45
6399.00,0.45
6398.00,0.45
6397.00,0.45
6396.00,0.45
6395.00,0.45
6394.00,0.45
6393.00,0.45
6392.00,0.45
6391.00,0.45
6390.00,0.45
6389.00,0.45
6388.00,0.45
6387.00,0.45
6386.00,0.45
6385.00,0.45
6384.00,0.45
6383.00,0.45
6382.00,0.45
6381.00,0.45
6380.00,0.45
6379.00,0.45
6378.00,0.45
6377.00,0.45
6376.00,0.45
6375.00,0.45
6374.00,0.45
6373.00,0.45
6372.00,0.45
6371.00,0.45
6370.00,0.45
6369.00,0.45
6368.00,0.46
6367.00,0.46
6366.00,0.46
6365.00,0.46
6364.00,0.46
6363.00,0.46
6362.00,0.46
6361.00,0.46
6360.00,0.46
6359.00,0.46
6358.00,0.46
6357.00,0.46
6356.00,0.46
6355.00,0.46
6354.00,0.46
6353.00,0.46
6352.00,0.46
6351.00,0.46
6350.00,0.46
6349.00,0.46
6348.00,0.46
6347.00,0.47
6346.00,0.47
6345.00,0.47
6344.00,0.47
6343.00,0.47
6342.00,0.47
6341.00,0.47
6340.00,0.47
6339.00,0.47
6338.00,0.47
6337.00,0.47
6336.00,0.47
6335.00,0.47
6334.00,0.47
6333.00,0.47
6332.00,0.47
6331.00,0.47
6330.00,0.47
6329.00,0.47
6328.00,0.48
6327.00,0.48
6326.00,0.48
6325.00,0.48
6324.00,0.48
6323.00,0.48
6322.00,0.48
6321.00,0.48
6320.00,0.48
6319.00,0.48
6318.00,0.48
6317.00,0.48
6316.00,0.48
6315.00,0.48
6314.00,0.48
6313.00,0.48
6312.00,0.48
6311.00,0.48
6310.00,0.48
6309.00,0.48
6308.00,0.48
6307.00,0.49
6306.00,0.49
6305.00,0.49
6304.00,0.49
6303.00,0.49
6302.00,0.49
6301.00,0.49
6300.00,0.49
6299.00,0.49
6298.00,0.49
6297.00,0.49
6296.00,0.49
6295.00,0.50
6294.00,0.50
6293.00,0.50
6292.00,0.50
6291.00,0.50
6290.00,0.50
6289.00,0.50
6288.00,0.50
6287.00,0.50
6286.00,0.50
6285.00,0.50
6284.00,0.50
6283.00,0.50
6282.00,0.50
6281.00,0.50
6280.00,0.50
6279.00,0.50
6278.00,0.50
6277.00,0.50
6276.00,0.50
6275.00,0.50
6274.00,0.50
6273.00,0.50
6272.00,0.50
6271.00,0.50
6270.00,0.50
6269.00,0.50
6268.00,0.50
6267.00,0.51
6266.00,0.51
6265.00,0.51
6264.00,0.51
6263.00,0.51
6262.00,0.51
6261.00,0.51
6260.00,0.51
6259.00,0.51
6258.00,0.51
6257.00,0.51
6256.00,0.52
6255.00,0.52
6254.00,0.52
6253.00,0.52
6252.00,0.52
6251.00,0.52
6250.00,0.52
6249.00,0.52
6248.00,0.52
6247.00,0.52
6246.00,0.52
6245.00,0.52
6244.00,0.53
6243.00,0.53
6242.00,0.53
6241.00,0.53
6240.00,0.53
6239.00,0.53
6238.00,0.53
6237.00,0.53
6236.00,0.53
6235.00,0.53
6234.00,0.53
6233.00,0.53
6232.00,0.53
6231.00,0.54
6230.00,0.54
6229.00,0.54
6228.00,0.54
6227.00,0.54
6226.00,0.54
6225.00,0.54
6224.00,0.54
6223.00,0.54
6222.00,0.54
6221.00,0.54
6220.00,0.54
6219.00,0.54
6218.00,0.54
6217.00,0.54
6216.00,0.54
6215.00,0.54
6214.00,0.54
6213.00,0.54
6212.00,0.54
6211.00,0.54
6210.00,0.54
6209.00,0.54
6208.00,0.54
6207.00,0.54
6206.00,0.54
6205.00,0.54
6204.00,0.55
6203.00,0.55
6202.00,0.55
6201.00,0.55
6200.00,0.55
6199.00,0.55
6198.00,0.55
6197.00,0.55
6196.00,0.55
6195.00,0.55
6194.00,0.56
6193.00,0.56
6192.00,0.56
6191.00,0.56
6190.00,0.56
6189.00,0.56
6188.00,0.56
6187.00,0.56
6186.00,0.56
6185.00,0.56
6184.00,0.56
6183.00,0.56
6182.00,0.56
6181.00,0.56
6180.00,0.56
6179.00,0.56
6178.00,0.57
6177.00,0.57
6176.00,0.57
6175.00,0.57
6174.00,0.57
6173.00,0.57
6172.00,0.57
6171.00,0.57
6170.00,0.57
6169.00,0.57
6168.00,0.57
6167.00,0.58
6166.00,0.58
6165.00,0.58
6164.00,0.58
6163.00,0.58
6162.00,0.58
6161.00,0.58
6160.00,0.58
6159.00,0.58
6158.00,0.58
6157.00,0.58
6156.00,0.58
6155.00,0.58
6154.00,0.59
6153.00,0.59
6152.00,0.59
6151.00,0.59
6150.00,0.59
6149.00,0.59
6148.00,0.59
6147.00,0.59
6146.00,0.59
6145.00,0.59
6144.00,0.59
6143.00,0.59
6142.00,0.59
6141.00,0.59
6140.00,0.59
6139.00,0.60
6138.00,0.60
6137.00,0.60
6136.00,0.60
6135.00,0.60
6134.00,0.60
6133.00,0.60
6132.00,0.60
6131.00,0.60
6130.00,0.60
6129.00,0.60
6128.00,0.60
6127.00,0.60
6126.00,0.60
6125.00,0.60
6124.00,0.60
6123.00,0.60
6122.00,0.60
6121.00,0.60
6120.00,0.61
6119.00,0.61
6118.00,0.61
6117.00,0.61
6116.00,0.61
6115.00,0.61
6114.00,0.61
6113.00,0.61
6112.00,0.61
6111.00,0.61
6110.00,0.61
6109.00,0.61
6108.00,0.62
6107.00,0.62
6106.00,0.62
6105.00,0.62
6104.00,0.62
6103.00,0.62
6102.00,0.62
6101.00,0.62
6100.00,0.62
6099.00,0.62
6098.00,0.62
6097.00,0.62
6096.00,0.62
6095.00,0.62
6094.00,0.63
6093.00,0.63
6092.00,0.63
6091.00,0.63
6090.00,0.63
6089.00,0.63
6088.00,0.63
6087.00,0.63
6086.00,0.63
6085.00,0.63
6084.00,0.63
6083.00,0.63
6082.00,0.63
6081.00,0.63
6080.00,0.63
6079.00,0.63
6078.00,0.63
6077.00,0.63
6076.00,0.64
6075.00,0.64
6074.00,0.64
6073.00,0.64
6072.00,0.64
6071.00,0.64
6070.00,0.64
6069.00,0.64
6068.00,0.64
6067.00,0.64
6066.00,0.64
6065.00,0.64
6064.00,0.64
6063.00,0.64
6062.00,0.64
6061.00,0.64
6060.00,0.64
6059.00,0.64
6058.00,0.64
6057.00,0.65
6056.00,0.65
6055.00,0.65
6054.00,0.65
6053.00,0.65
6052.00,0.65
6051.00,0.65
6050.00,0.65
6049.00,0.65
6048.00,0.65
6047.00,0.65
6046.00,0.65
6045.00,0.65
6044.00,0.65
6043.00,0.66
6042.00,0.66
6041.00,0.66
6040.00,0.66
6039.00,0.66
6038.00,0.66
6037.00,0.66
6036.00,0.66
6035.00,0.66
6034.00,0.66
6033.00,0.66
6032.00,0.66
6031.00,0.66
6030.00,0.66
6029.00,0.66
6028.00,0.66
6027.00,0.66
6026.00,0.66
6025.00,0.66
6024.00,0.66
6023.00,0.66
6022.00,0.66
6021.00,0.66
6020.00,0.66
6019.00,0.66
6018.00,0.66
6017.00,0.66
6016.00,0.66
6015.00,0.66
6014.00,0.66
6013.00,0.66
6012.00,0.66
6011.00,0.66
6010.00,0.66
6009.00,0.66
6008.00,0.66
6007.00,0.66
6006.00,0.66
6005.00,0.66
6004.00,0.66
6003.00,0.66
6002.00,0.66
6001.00,0.66
6000.00,0.66
5999.00,0.66
5998.00,0.66
5997.00,0.66
5996.00,0.66
5995.00,0.66
5994.00,0.66
5993.00,0.65
5992.00,0.65
5991.00,0.65
5990.00,0.65
5989.00,0.65
5988.00,0.65
5987.00,0.65
5986.00,0.65
5985.00,0.65
5984.00,0.65
5983.00,0.65
5982.00,0.64
5981.00,0.64
5980.00,0.64
5979.00,0.64
5978.00,0.64
5977.00,0.63
5976.00,0.63
5975.00,0.63
5974.00,0.63
5973.00,0.63
5972.00,0.62
5971.00,0.62
5970.00,0.62
5969.00,0.61
5968.00,0.61
5967.00,0.61
5966.00,0.61
5965.00,0.60
5964.00,0.60
5963.00,0.60
5962.00,0.59
5961.00,0.59
5960.00,0.59
5959.00,0.59
5958.00,0.58
5957.00,0.58
5956.00,0.58
5955.00,0.58
5954.00,0.57
5953.00,0.57
5952.00,0.57
5951.00,0.57
5950.00,0.56
5949.00,0.56
5948.00,0.56
5947.00,0.56
5946.00,0.56
5945.00,0.56
5944.00,0.55
5943.00,0.55
5942.00,0.55
5941.00,0.55
5940.00,0.55
5939.00,0.55
5938.00,0.55
5937.00,0.55
5936.00,0.55
5935.00,0.55
5934.00,0.55
5933.00,0.55
5932.00,0.54
5931.00,0.54
5930.00,0.54
5929.00,0.54
5928.00,0.54
5927.00,0.54
5926.00,0.54
5925.00,0.54
5924.00,0.54
5923.00,0.54
5922.00,0.54
5921.00,0.54
5920.00,0.54
5919.00,0.54
5918.00,0.54
5917.00,0.54
5916.00,0.53
5915.00,0.53
5914.00,0.53
5913.00,0.53
5912.00,0.53
5911.00,0.53
5910.00,0.53
5909.00,0.53
5908.00,0.53
5907.00,0.53
5906.00,0.53
5905.00,0.53
5904.00,0.53
5903.00,0.53
5902.00,0.53
5901.00,0.53
5900.00,0.53
5899.00,0.53
5898.00,0.53
5897.00,0.53
5896.00,0.53
5895.00,0.53
5894.00,0.53
5893.00,0.53
5892.00,0.53
5891.00,0.54
5890.00,0.54
5889.00,0.54
5888.00,0.54
5887.00,0.54
5886.00,0.54
5885.00,0.54
5884.00,0.54
5883.00,0.55
5882.00,0.55
5881.00,0.55
5880.00,0.55
5879.00,0.55
5878.00,0.55
5877.00,0.55
5876.00,0.56
5875.00,0.56
5874.00,0.56
5873.00,0.56
5872.00,0.56
5871.00,0.56
5870.00,0.56
5869.00,0.56
5868.00,0.56
5867.00,0.56
5866.00,0.57
5865.00,0.57
5864.00,0.57
5863.00,0.57
5862.00,0.57
5861.00,0.57
5860.00,0.57
5859.00,0.57
5858.00,0.57
5857.00,0.57
5856.00,0.57
5855.00,0.57
5854.00,0.57
5853.00,0.57
5852.00,0.58
5851.00,0.58
5850.00,0.58
5849.00,0.58
5848.00,0.58
5847.00,0.58
5846.00,0.58
5845.00,0.58
5844.00,0.58
5843.00,0.58
5842.00,0.58
5841.00,0.58
5840.00,0.58
5839.00,0.58
5838.00,0.58
5837.00,0.58
5836.00,0.58
5835.00,0.58
5834.00,0.58
5833.00,0.58
5832.00,0.57
5831.00,0.57
5830.00,0.57
5829.00,0.57
5828.00,0.57
5827.00,0.57
5826.00,0.57
5825.00,0.57
5824.00,0.57
5823.00,0.57
5822.00,0.57
5821.00,0.57
5820.00,0.57
5819.00,0.57
5818.00,0.57
5817.00,0.57
5816.00,0.58
5815.00,0.58
5814.00,0.58
5813.00,0.58
5812.00,0.58
5811.00,0.58
5810.00,0.58
5809.00,0.58
5808.00,0.58
5807.00,0.58
5806.00,0.58
5805.00,0.58
5804.00,0.58
5803.00,0.57
5802.00,0.57
5801.00,0.57
5800.00,0.57
5799.00,0.57
5798.00,0.57
5797.00,0.57
5796.00,0.57
5795.00,0.57
5794.00,0.57
5793.00,0.57
5792.00,0.56
5791.00,0.56
5790.00,0.56
5789.00,0.56
5788.00,0.56
5787.00,0.56
5786.00,0.56
5785.00,0.56
5784.00,0.56
5783.00,0.56
5782.00,0.56
5781.00,0.56
5780.00,0.55
5779.00,0.55
5778.00,0.55
5777.00,0.55
5776.00,0.55
5775.00,0.55
5774.00,0.55
5773.00,0.55
5772.00,0.55
5771.00,0.55
5770.00,0.55
5769.00,0.55
5768.00,0.55
5767.00,0.55
5766.00,0.55
5765.00,0.55
5764.00,0.55
5763.00,0.56
5762.00,0.56
5761.00,0.56
5760.00,0.56
5759.00,0.56
5758.00,0.56
5757.00,0.56
5756.00,0.56
5755.00,0.57
5754.00,0.57
5753.00,0.57
5752.00,0.57
5751.00,0.57
5750.00,0.57
5749.00,0.58
5748.00,0.58
5747.00,0.58
5746.00,0.58
5745.00,0.58
5744.00,0.58
5743.00,0.58
5742.00,0.58
5741.00,0.59
5740.00,0.59
5739.00,0.59
5738.00,0.59
5737.00,0.59
5736.00,0.59
5735.00,0.59
5734.00,0.59
5733.00,0.59
5732.00,0.59
5731.00,0.59
5730.00,0.59
5729.00,0.59
5728.00,0.59
5727.00,0.59
5726.00,0.60
5725.00,0.60
5724.00,0.60
5723.00,0.60
5722.00,0.59
5721.00,0.59
5720.00,0.59
5719.00,0.59
5718.00,0.59
5717.00,0.59
5716.00,0.59
5715.00,0.59
5714.00,0.59
5713.00,0.59
5712.00,0.59
5711.00,0.59
5710.00,0.59
5709.00,0.59
5708.00,0.59
5707.00,0.59
5706.00,0.59
5705.00,0.59
5704.00,0.59
5703.00,0.59
5702.00,0.59
5701.00,0.59
5700.00,0.59
5699.00,0.59
5698.00,0.59
5697.00,0.58
5696.00,0.58
5695.00,0.58
5694.00,0.58
5693.00,0.58
5692.00,0.58
5691.00,0.58
5690.00,0.58
5689.00,0.58
5688.00,0.58
5687.00,0.58
5686.00,0.58
5685.00,0.58
5684.00,0.58
5683.00,0.58
5682.00,0.58
5681.00,0.57
5680.00,0.57
5679.00,0.57
5678.00,0.57
5677.00,0.57
5676.00,0.57
5675.00,0.57
5674.00,0.57
5673.00,0.57
5672.00,0.57
5671.00,0.57
5670.00,0.57
5669.00,0.57
5668.00,0.57
5667.00,0.57
5666.00,0.58
5665.00,0.58
5664.00,0.58
5663.00,0.58
5662.00,0.58
5661.00,0.58
5660.00,0.58
5659.00,0.58
5658.00,0.58
5657.00,0.58
5656.00,0.58
5655.00,0.58
5654.00,0.58
5653.00,0.58
5652.00,0.58
5651.00,0.58
5650.00,0.59
5649.00,0.59
5648.00,0.59
5647.00,0.59
5646.00,0.59
5645.00,0.59
5644.00,0.59
5643.00,0.59
5642.00,0.59
5641.00,0.59
5640.00,0.59
5639.00,0.59
5638.00,0.59
5637.00,0.59
5636.00,0.60
5635.00,0.60
5634.00,0.60
5633.00,0.60
5632.00,0.60
5631.00,0.60
5630.00,0.60
5629.00,0.60
5628.00,0.60
5627.00,0.60
5626.00,0.60
5625.00,0.60
5624.00,0.60
5623.00,0.60
5622.00,0.60
5621.00,0.60
5620.00,0.61
5619.00,0.61
5618.00,0.61
5617.00,0.61
5616.00,0.61
5615.00,0.61
5614.00,0.61
5613.00,0.61
5612.00,0.61
5611.00,0.61
5610.00,0.61
5609.00,0.61
5608.00,0.61
5607.00,0.61
5606.00,0.61
5605.00,0.61
5604.00,0.62
5603.00,0.62
5602.00,0.62
5601.00,0.62
5600.00,0.62
5599.00,0.62
5598.00,0.62
5597.00,0.62
5596.00,0.62
5595.00,0.62
5594.00,0.62
5593.00,0.62
5592.00,0.62
5591.00,0.63
5590.00,0.63
5589.00,0.63
5588.00,0.63
5587.00,0.63
5586.00,0.63
5585.00,0.63
5584.00,0.63
5583.00,0.63
5582.00,0.63
5581.00,0.63
5580.00,0.63
5579.00,0.64
5578.00,0.64
5577.00,0.64
5576.00,0.64
5575.00,0.64
5574.00,0.64
5573.00,0.64
5572.00,0.64
5571.00,0.64
5570.00,0.64
5569.00,0.64
5568.00,0.64
5567.00,0.64
5566.00,0.64
5565.00,0.64
5564.00,0.64
5563.00,0.64
5562.00,0.64
5561.00,0.64
5560.00,0.64
5559.00,0.64
5558.00,0.64
5557.00,0.65
5556.00,0.65
5555.00,0.65
5554.00,0.65
5553.00,0.65
5552.00,0.65
5551.00,0.65
5550.00,0.65
5549.00,0.65
5548.00,0.65
5547.00,0.65
5546.00,0.65
5545.00,0.65
5544.00,0.65
5543.00,0.65
5542.00,0.65
5541.00,0.65
5540.00,0.66
5539.00,0.66
5538.00,0.66
5537.00,0.66
5536.00,0.66
5535.00,0.66
5534.00,0.66
5533.00,0.66
5532.00,0.66
5531.00,0.66
5530.00,0.66
5529.00,0.66
5528.00,0.66
5527.00,0.66
5526.00,0.66
5525.00,0.66
5524.00,0.66
5523.00,0.66
5522.00,0.66
5521.00,0.66
5520.00,0.66
5519.00,0.66
5518.00,0.66
5517.00,0.66
5516.00,0.66
5515.00,0.67
5514.00,0.67
5513.00,0.67
5512.00,0.67
5511.00,0.67
5510.00,0.67
5509.00,0.67
5508.00,0.67
5507.00,0.67
5506.00,0.67
5505.00,0.67
5504.00,0.67
5503.00,0.67
5502.00,0.67
5501.00,0.67
5500.00,0.67
5499.00,0.67
5498.00,0.67
5497.00,0.67
5496.00,0.67
5495.00,0.67
5494.00,0.67
5493.00,0.67
5492.00,0.67
5491.00,0.67
5490.00,0.67
5489.00,0.67
5488.00,0.67
5487.00,0.67
5486.00,0.67
5485.00,0.67
5484.00,0.67
5483.00,0.67
5482.00,0.68
5481.00,0.68
5480.00,0.68
5479.00,0.68
5478.00,0.68
5477.00,0.68
5476.00,0.68
5475.00,0.68
5474.00,0.68
5473.00,0.68
5472.00,0.68
5471.00,0.68
5470.00,0.68
5469.00,0.69
5468.00,0.69
5467.00,0.69
5466.00,0.69
5465.00,0.69
5464.00,0.69
5463.00,0.69
5462.00,0.69
5461.00,0.69
5460.00,0.69
5459.00,0.69
5458.00,0.69
5457.00,0.69
5456.00,0.69
5455.00,0.69
5454.00,0.69
5453.00,0.69
5452.00,0.69
5451.00,0.69
5450.00,0.69
5449.00,0.69
5448.00,0.69
5447.00,0.69
5446.00,0.69
5445.00,0.69
5444.00,0.69
5443.00,0.69
5442.00,0.69
5441.00,0.69
5440.00,0.69
5439.00,0.69
5438.00,0.69
5437.00,0.69
5436.00,0.69
5435.00,0.69
5434.00,0.69
5433.00,0.69
5432.00,0.69
5431.00,0.69
5430.00,0.69
5429.00,0.69
5428.00,0.69
5427.00,0.69
5426.00,0.69
5425.00,0.69
5424.00,0.69
5423.00,0.69
5422.00,0.69
5421.00,0.69
5420.00,0.69
5419.00,0.69
5418.00,0.69
5417.00,0.69
5416.00,0.69
5415.00,0.69
5414.00,0.69
5413.00,0.69
5412.00,0.69
5411.00,0.69
5410.00,0.69
5409.00,0.69
5408.00,0.69
5407.00,0.69
5406.00,0.69
5405.00,0.69
5404.00,0.69
5403.00,0.69
5402.00,0.69
5401.00,0.69
5400.00,0.69
5399.00,0.69
5398.00,0.69
5397.00,0.69
5396.00,0.68
5395.00,0.68
5394.00,0.68
5393.00,0.68
5392.00,0.68
5391.00,0.68
5390.00,0.68
5389.00,0.68
5388.00,0.67
5387.00,0.67
5386.00,0.67
5385.00,0.67
5384.00,0.67
5383.00,0.66
5382.00,0.66
5381.00,0.66
5380.00,0.66
5379.00,0.66
5378.00,0.65
5377.00,0.65
5376.00,0.65
5375.00,0.65
5374.00,0.64
5373.00,0.64
5372.00,0.64
5371.00,0.64
5370.00,0.64
5369.00,0.63
5368.00,0.63
5367.00,0.63
5366.00,0.63
5365.00,0.62
5364.00,0.62
5363.00,0.62
5362.00,0.61
5361.00,0.61
5360.00,0.61
5359.00,0.60
5358.00,0.60
5357.00,0.60
5356.00,0.59
5355.00,0.59
5354.00,0.59
5353.00,0.58
5352.00,0.58
5351.00,0.57
5350.00,0.57
5349.00,0.56
5348.00,0.56
5347.00,0.55
5346.00,0.55
5345.00,0.55
5344.00,0.54
5343.00,0.54
5342.00,0.53
5341.00,0.53
5340.00,0.52
5339.00,0.52
5338.00,0.52
5337.00,0.51
5336.00,0.51
5335.00,0.50
5334.00,0.50
5333.00,0.50
5332.00,0.49
5331.00,0.49
5330.00,0.49
5329.00,0.48
5328.00,0.48
5327.00,0.48
5326.00,0.47
5325.00,0.47
5324.00,0.47
5323.00,0.47
5322.00,0.46
5321.00,0.46
5320.00,0.46
5319.00,0.45
5318.00,0.45
5317.00,0.45
5316.00,0.45
5315.00,0.44
5314.00,0.44
5313.00,0.44
5312.00,0.44
5311.00,0.43
5310.00,0.43
5309.00,0.43
5308.00,0.43
5307.00,0.42
5306.00,0.42
5305.00,0.42
5304.00,0.42
5303.00,0.42
5302.00,0.42
5301.00,0.41
5300.00,0.41
5299.00,0.41
5298.00,0.41
5297.00,0.41
5296.00,0.41
5295.00,0.41
5294.00,0.41
5293.00,0.41
5292.00,0.40
5291.00,0.40
5290.00,0.40
5289.00,0.40
5288.00,0.40
5287.00,0.40
5286.00,0.40
5285.00,0.40
5284.00,0.40
5283.00,0.40
5282.00,0.40
5281.00,0.40
5280.00,0.40
5279.00,0.40
5278.00,0.40
5277.00,0.40
5276.00,0.40
5275.00,0.40
5274.00,0.40
5273.00,0.40
5272.00,0.40
5271.00,0.40
5270.00,0.40
5269.00,0.40
5268.00,0.40
5267.00,0.40
5266.00,0.40
5265.00,0.40
5264.00,0.40
5263.00,0.40
5262.00,0.40
5261.00,0.40
5260.00,0.40
5259.00,0.40
5258.00,0.40
5257.00,0.40
5256.00,0.40
5255.00,0.40
5254.00,0.40
5253.00,0.40
5252.00,0.40
5251.00,0.40
5250.00,0.40
5249.00,0.40
5248.00,0.40
5247.00,0.40
5246.00,0.40
5245.00,0.40
5244.00,0.40
5243.00,0.40
5242.00,0.40
5241.00,0.40
5240.00,0.40
5239.00,0.40
5238.00,0.40
5237.00,0.40
5236.00,0.40
5235.00,0.40
5234.00,0.40
5233.00,0.40
5232.00,0.41
5231.00,0.41
5230.00,0.41
5229.00,0.41
5228.00,0.41
5227.00,0.41
5226.00,0.41
5225.00,0.41
5224.00,0.41
5223.00,0.41
5222.00,0.41
5221.00,0.41
5220.00,0.41
5219.00,0.41
5218.00,0.41
5217.00,0.41
5216.00,0.41
5215.00,0.41
5214.00,0.41
5213.00,0.41
5212.00,0.41
5211.00,0.41
5210.00,0.41
5209.00,0.41
5208.00,0.41
5207.00,0.41
5206.00,0.41
5205.00,0.41
5204.00,0.41
5203.00,0.41
5202.00,0.41
5201.00,0.41
5200.00,0.41
5199.00,0.41
5198.00,0.41
5197.00,0.41
5196.00,0.41
5195.00,0.41
5194.00,0.41
5193.00,0.41
5192.00,0.42
5191.00,0.42
5190.00,0.42
5189.00,0.42
5188.00,0.42
5187.00,0.42
5186.00,0.42
5185.00,0.42
5184.00,0.42
5183.00,0.42
5182.00,0.42
5181.00,0.42
5180.00,0.42
5179.00,0.42
5178.00,0.42
5177.00,0.42
5176.00,0.42
5175.00,0.42
5174.00,0.42
5173.00,0.42
5172.00,0.42
5171.00,0.42
5170.00,0.42
5169.00,0.42
5168.00,0.42
5167.00,0.42
5166.00,0.42
5165.00,0.42
5164.00,0.42
5163.00,0.42
5162.00,0.42
5161.00,0.42
5160.00,0.42
5159.00,0.42
5158.00,0.42
5157.00,0.42
5156.00,0.42
5155.00,0.42
5154.00,0.42
5153.00,0.42
5152.00,0.42
5151.00,0.42
5150.00,0.42
5149.00,0.43
5148.00,0.43
5147.00,0.43
5146.00,0.43
5145.00,0.43
5144.00,0.43
5143.00,0.43
5142.00,0.43
5141.00,0.43
5140.00,0.43
5139.00,0.43
5138.00,0.43
5137.00,0.43
5136.00,0.43
5135.00,0.43
5134.00,0.43
5133.00,0.43
5132.00,0.43
5131.00,0.43
5130.00,0.43
5129.00,0.43
5128.00,0.43
5127.00,0.43
5126.00,0.43
5125.00,0.43
5124.00,0.43
5123.00,0.43
5122.00,0.43
5121.00,0.43
5120.00,0.43
5119.00,0.43
5118.00,0.43
5117.00,0.43
5116.00,0.43
5115.00,0.43
5114.00,0.43
5113.00,0.43
5112.00,0.43
5111.00,0.43
5110.00,0.43
5109.00,0.43
5108.00,0.43
5107.00,0.43
5106.00,0.43
5105.00,0.43
5104.00,0.43
5103.00,0.43
5102.00,0.43
5101.00,0.43
5100.00,0.43
5099.00,0.44
5098.00,0.44
5097.00,0.44
5096.00,0.44
5095.00,0.44
5094.00,0.44
5093.00,0.44
5092.00,0.44
5091.00,0.44
5090.00,0.44
5089.00,0.44
5088.00,0.44
5087.00,0.44
5086.00,0.44
5085.00,0.44
5084.00,0.44
5083.00,0.44
5082.00,0.44
5081.00,0.44
5080.00,0.44
5079.00,0.44
5078.00,0.44
5077.00,0.44
5076.00,0.44
5075.00,0.44
5074.00,0.44
5073.00,0.44
5072.00,0.44
5071.00,0.44
5070.00,0.44
5069.00,0.44
5068.00,0.44
5067.00,0.44
5066.00,0.44
5065.00,0.44
5064.00,0.44
5063.00,0.44
5062.00,0.44
5061.00,0.44
5060.00,0.44
5059.00,0.44
5058.00,0.44
5057.00,0.44
5056.00,0.44
5055.00,0.45
5054.00,0.45
5053.00,0.45
5052.00,0.45
5051.00,0.45
5050.00,0.45
5049.00,0.45
5048.00,0.45
5047.00,0.45
5046.00,0.45
5045.00,0.45
5044.00,0.45
5043.00,0.45
5042.00,0.45
5041.00,0.45
5040.00,0.45
5039.00,0.45
5038.00,0.45
5037.00,0.45
5036.00,0.45
5035.00,0.45
5034.00,0.45
5033.00,0.45
5032.00,0.45
5031.00,0.45
5030.00,0.45
5029.00,0.45
5028.00,0.45
5027.00,0.45
5026.00,0.45
5025.00,0.45
5024.00,0.45
5023.00,0.45
5022.00,0.45
5021.00,0.45
5020.00,0.45
5019.00,0.45
5018.00,0.45
5017.00,0.45
5016.00,0.45
5015.00,0.45
5014.00,0.46
5013.00,0.46
5012.00,0.46
5011.00,0.46
5010.00,0.46
5009.00,0.46
5008.00,0.46
5007.00,0.46
5006.00,0.46
5005.00,0.46
5004.00,0.46
5003.00,0.46
5002.00,0.46
5001.00,0.46
5000.00,0.46
4999.00,0.46
4998.00,0.46
4997.00,0.46
4996.00,0.46
4995.00,0.46
4994.00,0.46
4993.00,0.46
4992.00,0.46
4991.00,0.46
4990.00,0.46
4989.00,0.46
4988.00,0.46
4987.00,0.46
4986.00,0.46
4985.00,0.46
4984.00,0.46
4983.00,0.46
4982.00,0.47
4981.00,0.47
4980.00,0.47
4979.00,0.47
4978.00,0.47
4977.00,0.47
4976.00,0.47
4975.00,0.47
4974.00,0.47
4973.00,0.47
4972.00,0.47
4971.00,0.47
4970.00,0.47
4969.00,0.47
4968.00,0.47
4967.00,0.47
4966.00,0.47
4965.00,0.47
4964.00,0.47
4963.00,0.47
4962.00,0.47
4961.00,0.47
4960.00,0.47
4959.00,0.46
4958.00,0.46
4957.00,0.47
4956.00,0.47
4955.00,0.47
4954.00,0.47
4953.00,0.47
4952.00,0.47
4951.00,0.47
4950.00,0.47
4949.00,0.47
4948.00,0.47
4947.00,0.47
4946.00,0.47
4945.00,0.47
4944.00,0.47
4943.00,0.47
4942.00,0.47
4941.00,0.47
4940.00,0.47
4939.00,0.47
4938.00,0.47
4937.00,0.47
4936.00,0.47
4935.00,0.47
4934.00,0.47
4933.00,0.48
4932.00,0.48
4931.00,0.48
4930.00,0.48
4929.00,0.48
4928.00,0.48
4927.00,0.48
4926.00,0.48
4925.00,0.48
4924.00,0.48
4923.00,0.48
4922.00,0.48
4921.00,0.48
4920.00,0.48
4919.00,0.48
4918.00,0.48
4917.00,0.48
4916.00,0.48
4915.00,0.48
4914.00,0.48
4913.00,0.48
4912.00,0.48
4911.00,0.48
4910.00,0.48
4909.00,0.48
4908.00,0.48
4907.00,0.48
4906.00,0.48
4905.00,0.48
4904.00,0.48
4903.00,0.48
4902.00,0.48
4901.00,0.49
4900.00,0.49
4899.00,0.49
4898.00,0.49
4897.00,0.49
4896.00,0.49
4895.00,0.49
4894.00,0.49
4893.00,0.49
4892.00,0.49
4891.00,0.49
4890.00,0.49
4889.00,0.49
4888.00,0.49
4887.00,0.49
4886.00,0.49
4885.00,0.49
4884.00,0.49
4883.00,0.49
4882.00,0.49
4881.00,0.49
4880.00,0.49
4879.00,0.49
4878.00,0.49
4877.00,0.49
4876.00,0.49
4875.00,0.49
4874.00,0.49
4873.00,0.49
4872.00,0.49
4871.00,0.49
4870.00,0.49
4869.00,0.49
4868.00,0.49
4867.00,0.49
4866.00,0.49
4865.00,0.49
4864.00,0.50
4863.00,0.50
4862.00,0.50
4861.00,0.50
4860.00,0.50
4859.00,0.50
4858.00,0.50
4857.00,0.50
4856.00,0.50
4855.00,0.50
4854.00,0.50
4853.00,0.50
4852.00,0.50
4851.00,0.50
4850.00,0.50
4849.00,0.50
4848.00,0.50
4847.00,0.50
4846.00,0.50
4845.00,0.50
4844.00,0.50
4843.00,0.50
4842.00,0.50
4841.00,0.50
4840.00,0.50
4839.00,0.50
4838.00,0.50
4837.00,0.50
4836.00,0.50
4835.00,0.50
4834.00,0.50
4833.00,0.50
4832.00,0.50
4831.00,0.50
4830.00,0.50
4829.00,0.50
4828.00,0.50
4827.00,0.50
4826.00,0.50
4825.00,0.50
4824.00,0.50
4823.00,0.50
4822.00,0.50
4821.00,0.50
4820.00,0.51
4819.00,0.51
4818.00,0.51
4817.00,0.51
4816.00,0.51
4815.00,0.51
4814.00,0.51
4813.00,0.51
4812.00,0.51
4811.00,0.51
4810.00,0.51
4809.00,0.51
4808.00,0.51
4807.00,0.51
4806.00,0.51
4805.00,0.51
4804.00,0.51
4803.00,0.52
4802.00,0.52
4801.00,0.52
4800.00,0.52
4799.00,0.52
4798.00,0.52
4797.00,0.52
4796.00,0.52
4795.00,0.52
4794.00,0.52
4793.00,0.52
4792.00,0.52
4791.00,0.52
4790.00,0.52
4789.00,0.52
4788.00,0.52
4787.00,0.52
4786.00,0.52
4785.00,0.52
4784.00,0.52
4783.00,0.52
4782.00,0.52
4781.00,0.52
4780.00,0.52
4779.00,0.52
4778.00,0.52
4777.00,0.52
4776.00,0.52
4775.00,0.52
4774.00,0.52
4773.00,0.52
4772.00,0.52
4771.00,0.52
4770.00,0.52
4769.00,0.52
4768.00,0.53
4767.00,0.53
4766.00,0.53
4765.00,0.53
4764.00,0.53
4763.00,0.53
4762.00,0.53
4761.00,0.53
4760.00,0.53
4759.00,0.53
4758.00,0.53
4757.00,0.53
4756.00,0.53
4755.00,0.53
4754.00,0.53
4753.00,0.53
4752.00,0.53
4751.00,0.53
4750.00,0.53
4749.00,0.53
4748.00,0.54
4747.00,0.54
4746.00,0.54
4745.00,0.54
4744.00,0.54
4743.00,0.54
4742.00,0.54
4741.00,0.54
4740.00,0.54
4739.00,0.54
4738.00,0.54
4737.00,0.54
4736.00,0.54
4735.00,0.54
4734.00,0.54
4733.00,0.54
4732.00,0.54
4731.00,0.54
4730.00,0.54
4729.00,0.54
4728.00,0.54
4727.00,0.55
4726.00,0.55
4725.00,0.55
4724.00,0.55
4723.00,0.55
4722.00,0.55
4721.00,0.55
4720.00,0.55
4719.00,0.55
4718.00,0.55
4717.00,0.55
4716.00,0.55
4715.00,0.55
4714.00,0.55
4713.00,0.55
4712.00,0.55
4711.00,0.55
4710.00,0.55
4709.00,0.55
4708.00,0.55
4707.00,0.55
4706.00,0.55
4705.00,0.55
4704.00,0.55
4703.00,0.55
4702.00,0.56
4701.00,0.56
4700.00,0.56
4699.00,0.56
4698.00,0.56
4697.00,0.56
4696.00,0.56
4695.00,0.56
4694.00,0.56
4693.00,0.56
4692.00,0.56
4691.00,0.56
4690.00,0.56
4689.00,0.56
4688.00,0.56
4687.00,0.57
4686.00,0.57
4685.00,0.57
4684.00,0.57
4683.00,0.57
4682.00,0.57
4681.00,0.57
4680.00,0.57
4679.00,0.57
4678.00,0.57
4677.00,0.57
4676.00,0.57
4675.00,0.57
4674.00,0.57
4673.00,0.57
4672.00,0.57
4671.00,0.57
4670.00,0.57
4669.00,0.57
4668.00,0.57
4667.00,0.57
4666.00,0.57
4665.00,0.57
4664.00,0.57
4663.00,0.57
4662.00,0.57
4661.00,0.57
4660.00,0.57
4659.00,0.58
4658.00,0.58
4657.00,0.58
4656.00,0.58
4655.00,0.58
4654.00,0.58
4653.00,0.58
4652.00,0.58
4651.00,0.58
4650.00,0.58
4649.00,0.58
4648.00,0.58
4647.00,0.58
4646.00,0.58
4645.00,0.58
4644.00,0.59
4643.00,0.59
4642.00,0.59
4641.00,0.59
4640.00,0.59
4639.00,0.59
4638.00,0.59
4637.00,0.59
4636.00,0.59
4635.00,0.59
4634.00,0.59
4633.00,0.59
4632.00,0.59
4631.00,0.59
4630.00,0.60
4629.00,0.60
4628.00,0.60
4627.00,0.60
4626.00,0.60
4625.00,0.60
4624.00,0.60
4623.00,0.60
4622.00,0.60
4621.00,0.60
4620.00,0.60
4619.00,0.60
4618.00,0.60
4617.00,0.60
4616.00,0.60
4615.00,0.60
4614.00,0.60
4613.00,0.60
4612.00,0.60
4611.00,0.60
4610.00,0.60
4609.00,0.60
4608.00,0.60
4607.00,0.60
4606.00,0.60
4605.00,0.60
4604.00,0.60
4603.00,0.60
4602.00,0.60
4601.00,0.60
4600.00,0.60
4599.00,0.60
4598.00,0.60
4597.00,0.60
4596.00,0.60
4595.00,0.60
4594.00,0.60
4593.00,0.60
4592.00,0.60
4591.00,0.60
4590.00,0.60
4589.00,0.60
4588.00,0.60
4587.00,0.60
4586.00,0.60
4585.00,0.60
4584.00,0.60
4583.00,0.60
4582.00,0.60
4581.00,0.60
4580.00,0.60
4579.00,0.61
4578.00,0.61
4577.00,0.61
4576.00,0.61
4575.00,0.61
4574.00,0.61
4573.00,0.61
4572.00,0.61
4571.00,0.61
4570.00,0.61
4569.00,0.61
4568.00,0.61
4567.00,0.61
4566.00,0.61
4565.00,0.61
4564.00,0.61
4563.00,0.61
4562.00,0.61
4561.00,0.61
4560.00,0.61
4559.00,0.61
4558.00,0.61
4557.00,0.61
4556.00,0.61
4555.00,0.61
4554.00,0.61
4553.00,0.61
4552.00,0.61
4551.00,0.61
4550.00,0.61
4549.00,0.61
4548.00,0.61
4547.00,0.61
4546.00,0.61
4545.00,0.61
4544.00,0.61
4543.00,0.61
4542.00,0.61
4541.00,0.61
4540.00,0.61
4539.00,0.61
4538.00,0.62
4537.00,0.62
4536.00,0.62
4535.00,0.62
4534.00,0.62
4533.00,0.62
4532.00,0.62
4531.00,0.62
4530.00,0.62
4529.00,0.62
4528.00,0.62
4527.00,0.62
4526.00,0.62
4525.00,0.62
4524.00,0.62
4523.00,0.62
4522.00,0.62
4521.00,0.62
4520.00,0.62
4519.00,0.62
4518.00,0.62
4517.00,0.62
4516.00,0.62
4515.00,0.62
4514.00,0.62
4513.00,0.62
4512.00,0.62
4511.00,0.62
4510.00,0.62
4509.00,0.62
4508.00,0.62
4507.00,0.62
4506.00,0.62
4505.00,0.62
4504.00,0.62
4503.00,0.62
4502.00,0.62
4501.00,0.62
4500.00,0.62
4499.00,0.62
4498.00,0.63
4497.00,0.63
4496.00,0.63
4495.00,0.63
4494.00,0.63
4493.00,0.63
4492.00,0.63
4491.00,0.63
4490.00,0.63
4489.00,0.63
4488.00,0.63
4487.00,0.63
4486.00,0.63
4485.00,0.63
4484.00,0.63
4483.00,0.62
4482.00,0.62
4481.00,0.62
4480.00,0.62
4479.00,0.62
4478.00,0.62
4477.00,0.62
4476.00,0.62
4475.00,0.62
4474.00,0.62
4473.00,0.62
4472.00,0.62
4471.00,0.62
4470.00,0.62
4469.00,0.62
4468.00,0.62
4467.00,0.62
4466.00,0.62
4465.00,0.61
4464.00,0.61
4463.00,0.61
4462.00,0.61
4461.00,0.61
4460.00,0.61
4459.00,0.61
4458.00,0.61
4457.00,0.61
4456.00,0.61
4455.00,0.61
4454.00,0.61
4453.00,0.61
4452.00,0.60
4451.00,0.60
4450.00,0.60
4449.00,0.60
4448.00,0.60
4447.00,0.60
4446.00,0.60
4445.00,0.60
4444.00,0.60
4443.00,0.60
4442.00,0.60
4441.00,0.60
4440.00,0.60
4439.00,0.60
4438.00,0.59
4437.00,0.59
4436.00,0.59
4435.00,0.59
4434.00,0.59
4433.00,0.59
4432.00,0.59
4431.00,0.59
4430.00,0.59
4429.00,0.59
4428.00,0.59
4427.00,0.59
4426.00,0.59
4425.00,0.58
4424.00,0.58
4423.00,0.58
4422.00,0.58
4421.00,0.58
4420.00,0.58
4419.00,0.59
4418.00,0.59
4417.00,0.59
4416.00,0.59
4415.00,0.59
4414.00,0.59
4413.00,0.59
4412.00,0.59
4411.00,0.59
4410.00,0.59
4409.00,0.59
4408.00,0.59
4407.00,0.59
4406.00,0.59
4405.00,0.59
4404.00,0.59
4403.00,0.59
4402.00,0.59
4401.00,0.59
4400.00,0.59
4399.00,0.59
4398.00,0.59
4397.00,0.59
4396.00,0.59
4395.00,0.59
4394.00,0.59
4393.00,0.59
4392.00,0.59
4391.00,0.59
4390.00,0.59
4389.00,0.59
4388.00,0.59
4387.00,0.59
4386.00,0.59
4385.00,0.59
4384.00,0.59
4383.00,0.60
4382.00,0.60
4381.00,0.60
4380.00,0.60
4379.00,0.60
4378.00,0.60
4377.00,0.60
4376.00,0.60
4375.00,0.60
4374.00,0.60
4373.00,0.60
4372.00,0.60
4371.00,0.61
4370.00,0.61
4369.00,0.61
4368.00,0.61
4367.00,0.61
4366.00,0.61
4365.00,0.61
4364.00,0.61
4363.00,0.61
4362.00,0.61
4361.00,0.61
4360.00,0.61
4359.00,0.61
4358.00,0.61
4357.00,0.61
4356.00,0.61
4355.00,0.61
4354.00,0.61
4353.00,0.61
4352.00,0.61
4351.00,0.61
4350.00,0.61
4349.00,0.61
4348.00,0.61
4347.00,0.61
4346.00,0.61
4345.00,0.61
4344.00,0.61
4343.00,0.61
4342.00,0.61
4341.00,0.61
4340.00,0.61
4339.00,0.61
4338.00,0.61
4337.00,0.61
4336.00,0.61
4335.00,0.61
4334.00,0.61
4333.00,0.61
4332.00,0.62
4331.00,0.62
4330.00,0.62
4329.00,0.62
4328.00,0.62
4327.00,0.62
4326.00,0.62
4325.00,0.62
4324.00,0.62
4323.00,0.62
4322.00,0.62
4321.00,0.62
4320.00,0.62
4319.00,0.62
4318.00,0.62
4317.00,0.62
4316.00,0.62
4315.00,0.62
4314.00,0.62
4313.00,0.62
4312.00,0.62
4311.00,0.62
4310.00,0.62
4309.00,0.62
4308.00,0.62
4307.00,0.62
4306.00,0.62
4305.00,0.62
4304.00,0.62
4303.00,0.62
4302.00,0.63
4301.00,0.63
4300.00,0.63
4299.00,0.63
4298.00,0.63
4297.00,0.63
4296.00,0.63
4295.00,0.63
4294.00,0.63
4293.00,0.63
4292.00,0.63
4291.00,0.63
4290.00,0.63
4289.00,0.63
4288.00,0.63
4287.00,0.63
4286.00,0.63
4285.00,0.63
4284.00,0.63
4283.00,0.63
4282.00,0.63
4281.00,0.63
4280.00,0.63
4279.00,0.63
4278.00,0.63
4277.00,0.63
4276.00,0.63
4275.00,0.63
4274.00,0.63
4273.00,0.63
4272.00,0.63
4271.00,0.63
4270.00,0.63
4269.00,0.63
4268.00,0.63
4267.00,0.63
4266.00,0.63
4265.00,0.63
4264.00,0.63
4263.00,0.63
4262.00,0.63
4261.00,0.63
4260.00,0.63
4259.00,0.63
4258.00,0.63
4257.00,0.63
4256.00,0.63
4255.00,0.63
4254.00,0.63
4253.00,0.63
4252.00,0.63
4251.00,0.63
4250.00,0.63
4249.00,0.63
4248.00,0.63
4247.00,0.63
4246.00,0.63
4245.00,0.63
4244.00,0.63
4243.00,0.63
4242.00,0.63
4241.00,0.64
4240.00,0.64
4239.00,0.64
4238.00,0.64
4237.00,0.64
4236.00,0.64
4235.00,0.64
4234.00,0.64
4233.00,0.64
4232.00,0.64
4231.00,0.64
4230.00,0.64
4229.00,0.64
4228.00,0.64
4227.00,0.64
4226.00,0.64
4225.00,0.64
4224.00,0.64
4223.00,0.63
4222.00,0.63
4221.00,0.63
4220.00,0.63
4219.00,0.63
4218.00,0.63
4217.00,0.63
4216.00,0.63
4215.00,0.63
4214.00,0.64
4213.00,0.64
4212.00,0.64
4211.00,0.64
4210.00,0.64
4209.00,0.64
4208.00,0.64
4207.00,0.64
4206.00,0.64
4205.00,0.64
4204.00,0.64
4203.00,0.65
4202.00,0.65
4201.00,0.65
4200.00,0.65
4199.00,0.65
4198.00,0.65
4197.00,0.65
4196.00,0.65
4195.00,0.65
4194.00,0.65
4193.00,0.65
4192.00,0.65
4191.00,0.66
4190.00,0.66
4189.00,0.66
4188.00,0.66
4187.00,0.66
4186.00,0.66
4185.00,0.66
4184.00,0.66
4183.00,0.66
4182.00,0.66
4181.00,0.66
4180.00,0.66
4179.00,0.66
4178.00,0.66
4177.00,0.66
4176.00,0.66
4175.00,0.66
4174.00,0.66
4173.00,0.66
4172.00,0.66
4171.00,0.66
4170.00,0.66
4169.00,0.66
4168.00,0.66
4167.00,0.66
4166.00,0.66
4165.00,0.66
4164.00,0.66
4163.00,0.66
4162.00,0.66
4161.00,0.66
4160.00,0.66
4159.00,0.66
4158.00,0.66
4157.00,0.66
4156.00,0.66
4155.00,0.66
4154.00,0.66
4153.00,0.66
4152.00,0.66
4151.00,0.66
4150.00,0.66
4149.00,0.66
4148.00,0.66
4147.00,0.66
4146.00,0.66
4145.00,0.66
4144.00,0.66
4143.00,0.66
4142.00,0.66
4141.00,0.66
4140.00,0.66
4139.00,0.66
4138.00,0.66
4137.00,0.66
4136.00,0.66
4135.00,0.66
4134.00,0.66
4133.00,0.66
4132.00,0.66
4131.00,0.66
4130.00,0.66
4129.00,0.66
4128.00,0.66
4127.00,0.66
4126.00,0.66
4125.00,0.66
4124.00,0.66
4123.00,0.66
4122.00,0.66
4121.00,0.66
4120.00,0.66
4119.00,0.66
4118.00,0.66
4117.00,0.66
4116.00,0.66
4115.00,0.66
4114.00,0.66
4113.00,0.66
4112.00,0.66
4111.00,0.66
4110.00,0.66
4109.00,0.66
4108.00,0.66
4107.00,0.66
4106.00,0.66
4105.00,0.66
4104.00,0.67
4103.00,0.67
4102.00,0.67
4101.00,0.67
4100.00,0.67
4099.00,0.67
4098.00,0.67
4097.00,0.67
4096.00,0.67
4095.00,0.67
4094.00,0.67
4093.00,0.67
4092.00,0.67
4091.00,0.67
4090.00,0.67
4089.00,0.67
4088.00,0.67
4087.00,0.67
4086.00,0.67
4085.00,0.67
4084.00,0.67
4083.00,0.67
4082.00,0.67
4081.00,0.67
4080.00,0.67
4079.00,0.67
4078.00,0.67
4077.00,0.67
4076.00,0.67
4075.00,0.67
4074.00,0.67
4073.00,0.67
4072.00,0.67
4071.00,0.67
4070.00,0.67
4069.00,0.67
4068.00,0.67
4067.00,0.67
4066.00,0.67
4065.00,0.67
4064.00,0.67
4063.00,0.67
4062.00,0.67
4061.00,0.67
4060.00,0.68
4059.00,0.68
4058.00,0.68
4057.00,0.68
4056.00,0.68
4055.00,0.68
4054.00,0.68
4053.00,0.68
4052.00,0.68
4051.00,0.68
4050.00,0.68
4049.00,0.68
4048.00,0.68
4047.00,0.68
4046.00,0.68
4045.00,0.68
4044.00,0.68
4043.00,0.68
4042.00,0.68
4041.00,0.68
4040.00,0.68
4039.00,0.68
4038.00,0.68
4037.00,0.68
4036.00,0.69
4035.00,0.69
4034.00,0.69
4033.00,0.69
4032.00,0.69
4031.00,0.69
4030.00,0.69
4029.00,0.69
4028.00,0.69
4027.00,0.69
4026.00,0.69
4025.00,0.69
4024.00,0.69
4023.00,0.69
4022.00,0.69
4021.00,0.69
4020.00,0.69
4019.00,0.69
4018.00,0.69
4017.00,0.69
4016.00,0.69
4015.00,0.69
4014.00,0.69
4013.00,0.69
4012.00,0.69
4011.00,0.69
4010.00,0.69
4009.00,0.69
4008.00,0.69
4007.00,0.69
4006.00,0.69
4005.00,0.69
4004.00,0.69
4003.00,0.69
4002.00,0.69
4001.00,0.69
4000.00,0.70
