创建为新数据集,样品 449 用户 Administrator 日期 星期日, 七月 15 2018
cm-1,%T
10000.00,0.61
9999.00,0.60
9998.00,0.60
9997.00,0.60
9996.00,0.60
9995.00,0.59
9994.00,0.59
9993.00,0.59
9992.00,0.59
9991.00,0.59
9990.00,0.59
9989.00,0.58
9988.00,0.58
9987.00,0.58
9986.00,0.58
9985.00,0.58
9984.00,0.58
9983.00,0.58
9982.00,0.58
9981.00,0.58
9980.00,0.59
9979.00,0.59
9978.00,0.59
9977.00,0.59
9976.00,0.59
9975.00,0.59
9974.00,0.60
9973.00,0.60
9972.00,0.60
9971.00,0.60
9970.00,0.60
9969.00,0.60
9968.00,0.60
9967.00,0.60
9966.00,0.60
9965.00,0.60
9964.00,0.60
9963.00,0.60
9962.00,0.60
9961.00,0.60
9960.00,0.60
9959.00,0.60
9958.00,0.60
9957.00,0.60
9956.00,0.60
9955.00,0.59
9954.00,0.59
9953.00,0.59
9952.00,0.59
9951.00,0.59
9950.00,0.59
9949.00,0.58
9948.00,0.58
9947.00,0.58
9946.00,0.58
9945.00,0.58
9944.00,0.58
9943.00,0.58
9942.00,0.58
9941.00,0.58
9940.00,0.58
9939.00,0.58
9938.00,0.58
9937.00,0.58
9936.00,0.58
9935.00,0.58
9934.00,0.58
9933.00,0.58
9932.00,0.58
9931.00,0.59
9930.00,0.59
9929.00,0.59
9928.00,0.59
9927.00,0.59
9926.00,0.60
9925.00,0.60
9924.00,0.60
9923.00,0.60
9922.00,0.60
9921.00,0.60
9920.00,0.60
9919.00,0.60
9918.00,0.60
9917.00,0.60
9916.00,0.60
9915.00,0.59
9914.00,0.59
9913.00,0.59
9912.00,0.59
9911.00,0.58
9910.00,0.58
9909.00,0.58
9908.00,0.58
9907.00,0.57
9906.00,0.57
9905.00,0.57
9904.00,0.57
9903.00,0.57
9902.00,0.56
9901.00,0.56
9900.00,0.56
9899.00,0.56
9898.00,0.56
9897.00,0.57
9896.00,0.57
9895.00,0.57
9894.00,0.57
9893.00,0.57
9892.00,0.58
9891.00,0.58
9890.00,0.58
9889.00,0.58
9888.00,0.59
9887.00,0.59
9886.00,0.59
9885.00,0.59
9884.00,0.59
9883.00,0.60
9882.00,0.60
9881.00,0.60
9880.00,0.60
9879.00,0.60
9878.00,0.60
9877.00,0.59
9876.00,0.59
9875.00,0.59
9874.00,0.59
9873.00,0.59
9872.00,0.58
9871.00,0.58
9870.00,0.58
9869.00,0.58
9868.00,0.57
9867.00,0.57
9866.00,0.57
9865.00,0.57
9864.00,0.57
9863.00,0.57
9862.00,0.57
9861.00,0.57
9860.00,0.57
9859.00,0.57
9858.00,0.57
9857.00,0.57
9856.00,0.57
9855.00,0.57
9854.00,0.57
9853.00,0.58
9852.00,0.58
9851.00,0.58
9850.00,0.58
9849.00,0.58
9848.00,0.58
9847.00,0.58
9846.00,0.58
9845.00,0.58
9844.00,0.58
9843.00,0.57
9842.00,0.57
9841.00,0.57
9840.00,0.57
9839.00,0.57
9838.00,0.56
9837.00,0.56
9836.00,0.56
9835.00,0.56
9834.00,0.56
9833.00,0.56
9832.00,0.55
9831.00,0.55
9830.00,0.55
9829.00,0.55
9828.00,0.55
9827.00,0.55
9826.00,0.55
9825.00,0.55
9824.00,0.55
9823.00,0.55
9822.00,0.55
9821.00,0.56
9820.00,0.56
9819.00,0.56
9818.00,0.56
9817.00,0.56
9816.00,0.56
9815.00,0.57
9814.00,0.57
9813.00,0.57
9812.00,0.57
9811.00,0.57
9810.00,0.58
9809.00,0.58
9808.00,0.58
9807.00,0.58
9806.00,0.58
9805.00,0.58
9804.00,0.58
9803.00,0.58
9802.00,0.58
9801.00,0.59
9800.00,0.59
9799.00,0.59
9798.00,0.59
9797.00,0.59
9796.00,0.59
9795.00,0.59
9794.00,0.59
9793.00,0.59
9792.00,0.59
9791.00,0.59
9790.00,0.59
9789.00,0.59
9788.00,0.59
9787.00,0.59
9786.00,0.59
9785.00,0.59
9784.00,0.59
9783.00,0.59
9782.00,0.59
9781.00,0.59
9780.00,0.59
9779.00,0.59
9778.00,0.59
9777.00,0.59
9776.00,0.59
9775.00,0.60
9774.00,0.60
9773.00,0.60
9772.00,0.60
9771.00,0.60
9770.00,0.60
9769.00,0.60
9768.00,0.60
9767.00,0.60
9766.00,0.60
9765.00,0.60
9764.00,0.60
9763.00,0.60
9762.00,0.60
9761.00,0.60
9760.00,0.60
9759.00,0.59
9758.00,0.59
9757.00,0.59
9756.00,0.59
9755.00,0.59
9754.00,0.59
9753.00,0.59
9752.00,0.58
9751.00,0.58
9750.00,0.58
9749.00,0.58
9748.00,0.58
9747.00,0.58
9746.00,0.58
9745.00,0.58
9744.00,0.58
9743.00,0.58
9742.00,0.58
9741.00,0.58
9740.00,0.58
9739.00,0.58
9738.00,0.58
9737.00,0.58
9736.00,0.58
9735.00,0.58
9734.00,0.58
9733.00,0.58
9732.00,0.58
9731.00,0.58
9730.00,0.58
9729.00,0.58
9728.00,0.57
9727.00,0.57
9726.00,0.57
9725.00,0.57
9724.00,0.57
9723.00,0.57
9722.00,0.57
9721.00,0.57
9720.00,0.57
9719.00,0.57
9718.00,0.56
9717.00,0.57
9716.00,0.57
9715.00,0.57
9714.00,0.57
9713.00,0.57
9712.00,0.57
9711.00,0.57
9710.00,0.57
9709.00,0.57
9708.00,0.58
9707.00,0.58
9706.00,0.58
9705.00,0.58
9704.00,0.58
9703.00,0.58
9702.00,0.58
9701.00,0.58
9700.00,0.58
9699.00,0.57
9698.00,0.57
9697.00,0.57
9696.00,0.57
9695.00,0.57
9694.00,0.57
9693.00,0.57
9692.00,0.57
9691.00,0.57
9690.00,0.57
9689.00,0.57
9688.00,0.57
9687.00,0.57
9686.00,0.57
9685.00,0.57
9684.00,0.57
9683.00,0.57
9682.00,0.57
9681.00,0.57
9680.00,0.57
9679.00,0.57
9678.00,0.57
9677.00,0.57
9676.00,0.57
9675.00,0.57
9674.00,0.57
9673.00,0.57
9672.00,0.57
9671.00,0.57
9670.00,0.57
9669.00,0.57
9668.00,0.57
9667.00,0.57
9666.00,0.57
9665.00,0.57
9664.00,0.58
9663.00,0.58
9662.00,0.58
9661.00,0.58
9660.00,0.58
9659.00,0.58
9658.00,0.58
9657.00,0.58
9656.00,0.58
9655.00,0.58
9654.00,0.58
9653.00,0.58
9652.00,0.58
9651.00,0.58
9650.00,0.58
9649.00,0.58
9648.00,0.58
9647.00,0.58
9646.00,0.58
9645.00,0.58
9644.00,0.58
9643.00,0.58
9642.00,0.58
9641.00,0.59
9640.00,0.59
9639.00,0.59
9638.00,0.59
9637.00,0.59
9636.00,0.59
9635.00,0.59
9634.00,0.59
9633.00,0.59
9632.00,0.59
9631.00,0.59
9630.00,0.59
9629.00,0.59
9628.00,0.60
9627.00,0.60
9626.00,0.60
9625.00,0.60
9624.00,0.60
9623.00,0.60
9622.00,0.60
9621.00,0.60
9620.00,0.60
9619.00,0.60
9618.00,0.59
9617.00,0.59
9616.00,0.59
9615.00,0.59
9614.00,0.59
9613.00,0.59
9612.00,0.58
9611.00,0.58
9610.00,0.58
9609.00,0.58
9608.00,0.58
9607.00,0.57
9606.00,0.57
9605.00,0.57
9604.00,0.57
9603.00,0.57
9602.00,0.57
9601.00,0.57
9600.00,0.57
9599.00,0.57
9598.00,0.57
9597.00,0.57
9596.00,0.57
9595.00,0.57
9594.00,0.58
9593.00,0.58
9592.00,0.58
9591.00,0.58
9590.00,0.58
9589.00,0.58
9588.00,0.58
9587.00,0.58
9586.00,0.58
9585.00,0.58
9584.00,0.58
9583.00,0.58
9582.00,0.58
9581.00,0.58
9580.00,0.58
9579.00,0.58
9578.00,0.58
9577.00,0.58
9576.00,0.58
9575.00,0.58
9574.00,0.57
9573.00,0.57
9572.00,0.57
9571.00,0.57
9570.00,0.57
9569.00,0.57
9568.00,0.57
9567.00,0.57
9566.00,0.57
9565.00,0.57
9564.00,0.57
9563.00,0.57
9562.00,0.57
9561.00,0.57
9560.00,0.57
9559.00,0.57
9558.00,0.57
9557.00,0.57
9556.00,0.57
9555.00,0.57
9554.00,0.57
9553.00,0.57
9552.00,0.57
9551.00,0.57
9550.00,0.57
9549.00,0.56
9548.00,0.56
9547.00,0.56
9546.00,0.56
9545.00,0.56
9544.00,0.56
9543.00,0.56
9542.00,0.56
9541.00,0.56
9540.00,0.56
9539.00,0.56
9538.00,0.56
9537.00,0.56
9536.00,0.56
9535.00,0.56
9534.00,0.56
9533.00,0.56
9532.00,0.57
9531.00,0.57
9530.00,0.57
9529.00,0.57
9528.00,0.57
9527.00,0.58
9526.00,0.58
9525.00,0.58
9524.00,0.58
9523.00,0.58
9522.00,0.58
9521.00,0.58
9520.00,0.58
9519.00,0.58
9518.00,0.58
9517.00,0.58
9516.00,0.58
9515.00,0.58
9514.00,0.58
9513.00,0.58
9512.00,0.57
9511.00,0.57
9510.00,0.57
9509.00,0.57
9508.00,0.57
9507.00,0.57
9506.00,0.57
9505.00,0.57
9504.00,0.57
9503.00,0.57
9502.00,0.57
9501.00,0.57
9500.00,0.57
9499.00,0.57
9498.00,0.57
9497.00,0.57
9496.00,0.57
9495.00,0.57
9494.00,0.57
9493.00,0.57
9492.00,0.57
9491.00,0.57
9490.00,0.57
9489.00,0.57
9488.00,0.57
9487.00,0.57
9486.00,0.57
9485.00,0.57
9484.00,0.58
9483.00,0.58
9482.00,0.58
9481.00,0.58
9480.00,0.58
9479.00,0.58
9478.00,0.58
9477.00,0.58
9476.00,0.58
9475.00,0.58
9474.00,0.58
9473.00,0.58
9472.00,0.58
9471.00,0.58
9470.00,0.57
9469.00,0.57
9468.00,0.57
9467.00,0.57
9466.00,0.57
9465.00,0.57
9464.00,0.57
9463.00,0.57
9462.00,0.57
9461.00,0.57
9460.00,0.57
9459.00,0.57
9458.00,0.57
9457.00,0.58
9456.00,0.58
9455.00,0.58
9454.00,0.58
9453.00,0.58
9452.00,0.59
9451.00,0.59
9450.00,0.59
9449.00,0.59
9448.00,0.59
9447.00,0.59
9446.00,0.59
9445.00,0.60
9444.00,0.60
9443.00,0.60
9442.00,0.60
9441.00,0.60
9440.00,0.60
9439.00,0.60
9438.00,0.59
9437.00,0.59
9436.00,0.59
9435.00,0.59
9434.00,0.59
9433.00,0.59
9432.00,0.59
9431.00,0.59
9430.00,0.59
9429.00,0.59
9428.00,0.59
9427.00,0.59
9426.00,0.59
9425.00,0.59
9424.00,0.58
9423.00,0.58
9422.00,0.58
9421.00,0.58
9420.00,0.58
9419.00,0.58
9418.00,0.57
9417.00,0.57
9416.00,0.57
9415.00,0.57
9414.00,0.57
9413.00,0.56
9412.00,0.56
9411.00,0.56
9410.00,0.56
9409.00,0.56
9408.00,0.56
9407.00,0.56
9406.00,0.56
9405.00,0.56
9404.00,0.56
9403.00,0.56
9402.00,0.56
9401.00,0.56
9400.00,0.56
9399.00,0.56
9398.00,0.56
9397.00,0.56
9396.00,0.56
9395.00,0.56
9394.00,0.57
9393.00,0.57
9392.00,0.57
9391.00,0.57
9390.00,0.57
9389.00,0.58
9388.00,0.58
9387.00,0.58
9386.00,0.58
9385.00,0.59
9384.00,0.59
9383.00,0.59
9382.00,0.59
9381.00,0.59
9380.00,0.59
9379.00,0.59
9378.00,0.60
9377.00,0.60
9376.00,0.60
9375.00,0.60
9374.00,0.60
9373.00,0.60
9372.00,0.60
9371.00,0.60
9370.00,0.60
9369.00,0.60
9368.00,0.60
9367.00,0.60
9366.00,0.60
9365.00,0.60
9364.00,0.60
9363.00,0.60
9362.00,0.60
9361.00,0.60
9360.00,0.60
9359.00,0.60
9358.00,0.60
9357.00,0.60
9356.00,0.59
9355.00,0.59
9354.00,0.59
9353.00,0.59
9352.00,0.59
9351.00,0.59
9350.00,0.59
9349.00,0.59
9348.00,0.59
9347.00,0.59
9346.00,0.59
9345.00,0.59
9344.00,0.59
9343.00,0.59
9342.00,0.59
9341.00,0.59
9340.00,0.59
9339.00,0.59
9338.00,0.59
9337.00,0.59
9336.00,0.59
9335.00,0.59
9334.00,0.59
9333.00,0.59
9332.00,0.59
9331.00,0.59
9330.00,0.59
9329.00,0.59
9328.00,0.59
9327.00,0.59
9326.00,0.59
9325.00,0.58
9324.00,0.58
9323.00,0.58
9322.00,0.58
9321.00,0.58
9320.00,0.58
9319.00,0.58
9318.00,0.58
9317.00,0.58
9316.00,0.58
9315.00,0.58
9314.00,0.58
9313.00,0.58
9312.00,0.58
9311.00,0.58
9310.00,0.58
9309.00,0.58
9308.00,0.58
9307.00,0.58
9306.00,0.58
9305.00,0.58
9304.00,0.58
9303.00,0.58
9302.00,0.58
9301.00,0.58
9300.00,0.58
9299.00,0.58
9298.00,0.58
9297.00,0.58
9296.00,0.58
9295.00,0.58
9294.00,0.58
9293.00,0.58
9292.00,0.59
9291.00,0.59
9290.00,0.59
9289.00,0.59
9288.00,0.59
9287.00,0.59
9286.00,0.59
9285.00,0.59
9284.00,0.59
9283.00,0.59
9282.00,0.59
9281.00,0.59
9280.00,0.59
9279.00,0.59
9278.00,0.59
9277.00,0.59
9276.00,0.59
9275.00,0.59
9274.00,0.59
9273.00,0.59
9272.00,0.59
9271.00,0.59
9270.00,0.59
9269.00,0.59
9268.00,0.59
9267.00,0.59
9266.00,0.59
9265.00,0.59
9264.00,0.59
9263.00,0.59
9262.00,0.59
9261.00,0.58
9260.00,0.58
9259.00,0.58
9258.00,0.58
9257.00,0.58
9256.00,0.58
9255.00,0.58
9254.00,0.58
9253.00,0.58
9252.00,0.57
9251.00,0.57
9250.00,0.57
9249.00,0.57
9248.00,0.57
9247.00,0.58
9246.00,0.58
9245.00,0.58
9244.00,0.58
9243.00,0.58
9242.00,0.58
9241.00,0.58
9240.00,0.58
9239.00,0.58
9238.00,0.58
9237.00,0.58
9236.00,0.58
9235.00,0.58
9234.00,0.58
9233.00,0.58
9232.00,0.58
9231.00,0.58
9230.00,0.58
9229.00,0.58
9228.00,0.58
9227.00,0.58
9226.00,0.57
9225.00,0.57
9224.00,0.57
9223.00,0.57
9222.00,0.57
9221.00,0.57
9220.00,0.57
9219.00,0.57
9218.00,0.57
9217.00,0.57
9216.00,0.57
9215.00,0.57
9214.00,0.57
9213.00,0.58
9212.00,0.58
9211.00,0.58
9210.00,0.58
9209.00,0.58
9208.00,0.58
9207.00,0.58
9206.00,0.59
9205.00,0.59
9204.00,0.59
9203.00,0.59
9202.00,0.59
9201.00,0.59
9200.00,0.59
9199.00,0.59
9198.00,0.59
9197.00,0.59
9196.00,0.59
9195.00,0.59
9194.00,0.59
9193.00,0.59
9192.00,0.59
9191.00,0.59
9190.00,0.59
9189.00,0.59
9188.00,0.58
9187.00,0.58
9186.00,0.58
9185.00,0.58
9184.00,0.58
9183.00,0.58
9182.00,0.58
9181.00,0.59
9180.00,0.59
9179.00,0.59
9178.00,0.59
9177.00,0.59
9176.00,0.59
9175.00,0.59
9174.00,0.59
9173.00,0.59
9172.00,0.59
9171.00,0.59
9170.00,0.59
9169.00,0.59
9168.00,0.59
9167.00,0.59
9166.00,0.59
9165.00,0.59
9164.00,0.59
9163.00,0.59
9162.00,0.59
9161.00,0.59
9160.00,0.58
9159.00,0.58
9158.00,0.58
9157.00,0.58
9156.00,0.58
9155.00,0.58
9154.00,0.58
9153.00,0.58
9152.00,0.58
9151.00,0.58
9150.00,0.58
9149.00,0.58
9148.00,0.58
9147.00,0.58
9146.00,0.58
9145.00,0.58
9144.00,0.58
9143.00,0.58
9142.00,0.58
9141.00,0.58
9140.00,0.58
9139.00,0.58
9138.00,0.57
9137.00,0.57
9136.00,0.57
9135.00,0.57
9134.00,0.57
9133.00,0.56
9132.00,0.56
9131.00,0.56
9130.00,0.56
9129.00,0.56
9128.00,0.56
9127.00,0.56
9126.00,0.56
9125.00,0.56
9124.00,0.56
9123.00,0.56
9122.00,0.56
9121.00,0.56
9120.00,0.57
9119.00,0.57
9118.00,0.57
9117.00,0.57
9116.00,0.57
9115.00,0.57
9114.00,0.58
9113.00,0.58
9112.00,0.58
9111.00,0.58
9110.00,0.58
9109.00,0.58
9108.00,0.58
9107.00,0.58
9106.00,0.58
9105.00,0.57
9104.00,0.57
9103.00,0.57
9102.00,0.57
9101.00,0.57
9100.00,0.57
9099.00,0.57
9098.00,0.57
9097.00,0.57
9096.00,0.57
9095.00,0.57
9094.00,0.57
9093.00,0.57
9092.00,0.57
9091.00,0.57
9090.00,0.58
9089.00,0.58
9088.00,0.58
9087.00,0.58
9086.00,0.58
9085.00,0.58
9084.00,0.59
9083.00,0.59
9082.00,0.59
9081.00,0.59
9080.00,0.59
9079.00,0.60
9078.00,0.60
9077.00,0.60
9076.00,0.60
9075.00,0.60
9074.00,0.60
9073.00,0.60
9072.00,0.60
9071.00,0.60
9070.00,0.60
9069.00,0.60
9068.00,0.60
9067.00,0.60
9066.00,0.60
9065.00,0.60
9064.00,0.60
9063.00,0.60
9062.00,0.60
9061.00,0.60
9060.00,0.60
9059.00,0.59
9058.00,0.59
9057.00,0.59
9056.00,0.59
9055.00,0.59
9054.00,0.59
9053.00,0.59
9052.00,0.59
9051.00,0.59
9050.00,0.59
9049.00,0.59
9048.00,0.59
9047.00,0.59
9046.00,0.59
9045.00,0.59
9044.00,0.59
9043.00,0.59
9042.00,0.60
9041.00,0.60
9040.00,0.60
9039.00,0.60
9038.00,0.60
9037.00,0.60
9036.00,0.60
9035.00,0.59
9034.00,0.59
9033.00,0.59
9032.00,0.59
9031.00,0.59
9030.00,0.59
9029.00,0.59
9028.00,0.58
9027.00,0.58
9026.00,0.58
9025.00,0.58
9024.00,0.58
9023.00,0.57
9022.00,0.57
9021.00,0.57
9020.00,0.57
9019.00,0.57
9018.00,0.57
9017.00,0.57
9016.00,0.57
9015.00,0.57
9014.00,0.57
9013.00,0.57
9012.00,0.57
9011.00,0.57
9010.00,0.57
9009.00,0.57
9008.00,0.57
9007.00,0.58
9006.00,0.58
9005.00,0.58
9004.00,0.58
9003.00,0.58
9002.00,0.59
9001.00,0.59
9000.00,0.59
8999.00,0.59
8998.00,0.59
8997.00,0.59
8996.00,0.59
8995.00,0.59
8994.00,0.59
8993.00,0.59
8992.00,0.59
8991.00,0.59
8990.00,0.59
8989.00,0.59
8988.00,0.59
8987.00,0.59
8986.00,0.59
8985.00,0.59
8984.00,0.59
8983.00,0.59
8982.00,0.59
8981.00,0.59
8980.00,0.59
8979.00,0.58
8978.00,0.58
8977.00,0.58
8976.00,0.58
8975.00,0.58
8974.00,0.58
8973.00,0.58
8972.00,0.58
8971.00,0.58
8970.00,0.59
8969.00,0.59
8968.00,0.59
8967.00,0.59
8966.00,0.59
8965.00,0.59
8964.00,0.59
8963.00,0.59
8962.00,0.59
8961.00,0.59
8960.00,0.59
8959.00,0.59
8958.00,0.59
8957.00,0.59
8956.00,0.59
8955.00,0.59
8954.00,0.59
8953.00,0.59
8952.00,0.59
8951.00,0.59
8950.00,0.59
8949.00,0.59
8948.00,0.59
8947.00,0.59
8946.00,0.59
8945.00,0.59
8944.00,0.59
8943.00,0.59
8942.00,0.59
8941.00,0.59
8940.00,0.59
8939.00,0.59
8938.00,0.59
8937.00,0.59
8936.00,0.58
8935.00,0.58
8934.00,0.58
8933.00,0.58
8932.00,0.58
8931.00,0.58
8930.00,0.58
8929.00,0.58
8928.00,0.58
8927.00,0.58
8926.00,0.58
8925.00,0.58
8924.00,0.58
8923.00,0.58
8922.00,0.58
8921.00,0.58
8920.00,0.58
8919.00,0.58
8918.00,0.58
8917.00,0.58
8916.00,0.58
8915.00,0.58
8914.00,0.58
8913.00,0.57
8912.00,0.57
8911.00,0.57
8910.00,0.57
8909.00,0.57
8908.00,0.57
8907.00,0.57
8906.00,0.57
8905.00,0.57
8904.00,0.57
8903.00,0.57
8902.00,0.57
8901.00,0.57
8900.00,0.57
8899.00,0.57
8898.00,0.57
8897.00,0.57
8896.00,0.57
8895.00,0.57
8894.00,0.57
8893.00,0.57
8892.00,0.57
8891.00,0.57
8890.00,0.57
8889.00,0.57
8888.00,0.57
8887.00,0.57
8886.00,0.56
8885.00,0.56
8884.00,0.56
8883.00,0.56
8882.00,0.56
8881.00,0.56
8880.00,0.56
8879.00,0.56
8878.00,0.56
8877.00,0.56
8876.00,0.56
8875.00,0.56
8874.00,0.56
8873.00,0.56
8872.00,0.56
8871.00,0.56
8870.00,0.56
8869.00,0.56
8868.00,0.56
8867.00,0.56
8866.00,0.56
8865.00,0.56
8864.00,0.56
8863.00,0.56
8862.00,0.56
8861.00,0.56
8860.00,0.56
8859.00,0.56
8858.00,0.56
8857.00,0.56
8856.00,0.56
8855.00,0.56
8854.00,0.56
8853.00,0.57
8852.00,0.57
8851.00,0.57
8850.00,0.57
8849.00,0.57
8848.00,0.57
8847.00,0.57
8846.00,0.58
8845.00,0.58
8844.00,0.58
8843.00,0.58
8842.00,0.58
8841.00,0.58
8840.00,0.58
8839.00,0.58
8838.00,0.58
8837.00,0.58
8836.00,0.58
8835.00,0.58
8834.00,0.58
8833.00,0.58
8832.00,0.58
8831.00,0.58
8830.00,0.58
8829.00,0.58
8828.00,0.58
8827.00,0.58
8826.00,0.58
8825.00,0.58
8824.00,0.58
8823.00,0.58
8822.00,0.58
8821.00,0.58
8820.00,0.59
8819.00,0.59
8818.00,0.59
8817.00,0.59
8816.00,0.59
8815.00,0.59
8814.00,0.59
8813.00,0.59
8812.00,0.59
8811.00,0.59
8810.00,0.59
8809.00,0.59
8808.00,0.59
8807.00,0.59
8806.00,0.59
8805.00,0.59
8804.00,0.59
8803.00,0.59
8802.00,0.59
8801.00,0.59
8800.00,0.59
8799.00,0.58
8798.00,0.58
8797.00,0.58
8796.00,0.58
8795.00,0.58
8794.00,0.58
8793.00,0.58
8792.00,0.58
8791.00,0.58
8790.00,0.58
8789.00,0.58
8788.00,0.58
8787.00,0.58
8786.00,0.58
8785.00,0.58
8784.00,0.58
8783.00,0.58
8782.00,0.58
8781.00,0.58
8780.00,0.58
8779.00,0.58
8778.00,0.58
8777.00,0.58
8776.00,0.58
8775.00,0.58
8774.00,0.58
8773.00,0.58
8772.00,0.58
8771.00,0.58
8770.00,0.58
8769.00,0.58
8768.00,0.57
8767.00,0.57
8766.00,0.57
8765.00,0.57
8764.00,0.57
8763.00,0.57
8762.00,0.57
8761.00,0.57
8760.00,0.57
8759.00,0.57
8758.00,0.57
8757.00,0.56
8756.00,0.56
8755.00,0.56
8754.00,0.57
8753.00,0.57
8752.00,0.57
8751.00,0.57
8750.00,0.57
8749.00,0.57
8748.00,0.57
8747.00,0.57
8746.00,0.57
8745.00,0.57
8744.00,0.57
8743.00,0.57
8742.00,0.57
8741.00,0.57
8740.00,0.57
8739.00,0.57
8738.00,0.57
8737.00,0.57
8736.00,0.57
8735.00,0.57
8734.00,0.57
8733.00,0.57
8732.00,0.57
8731.00,0.57
8730.00,0.57
8729.00,0.57
8728.00,0.57
8727.00,0.57
8726.00,0.57
8725.00,0.57
8724.00,0.57
8723.00,0.57
8722.00,0.57
8721.00,0.57
8720.00,0.57
8719.00,0.57
8718.00,0.57
8717.00,0.57
8716.00,0.57
8715.00,0.57
8714.00,0.57
8713.00,0.57
8712.00,0.57
8711.00,0.57
8710.00,0.57
8709.00,0.56
8708.00,0.56
8707.00,0.56
8706.00,0.56
8705.00,0.56
8704.00,0.56
8703.00,0.56
8702.00,0.56
8701.00,0.56
8700.00,0.56
8699.00,0.56
8698.00,0.56
8697.00,0.56
8696.00,0.56
8695.00,0.56
8694.00,0.56
8693.00,0.56
8692.00,0.56
8691.00,0.56
8690.00,0.56
8689.00,0.56
8688.00,0.56
8687.00,0.56
8686.00,0.56
8685.00,0.57
8684.00,0.57
8683.00,0.57
8682.00,0.57
8681.00,0.57
8680.00,0.57
8679.00,0.57
8678.00,0.57
8677.00,0.57
8676.00,0.58
8675.00,0.58
8674.00,0.58
8673.00,0.58
8672.00,0.58
8671.00,0.58
8670.00,0.58
8669.00,0.58
8668.00,0.58
8667.00,0.57
8666.00,0.57
8665.00,0.57
8664.00,0.57
8663.00,0.57
8662.00,0.57
8661.00,0.57
8660.00,0.56
8659.00,0.56
8658.00,0.56
8657.00,0.56
8656.00,0.56
8655.00,0.56
8654.00,0.56
8653.00,0.55
8652.00,0.55
8651.00,0.55
8650.00,0.55
8649.00,0.55
8648.00,0.55
8647.00,0.55
8646.00,0.55
8645.00,0.55
8644.00,0.55
8643.00,0.55
8642.00,0.55
8641.00,0.55
8640.00,0.55
8639.00,0.55
8638.00,0.55
8637.00,0.55
8636.00,0.55
8635.00,0.55
8634.00,0.55
8633.00,0.55
8632.00,0.55
8631.00,0.55
8630.00,0.55
8629.00,0.55
8628.00,0.55
8627.00,0.55
8626.00,0.55
8625.00,0.55
8624.00,0.55
8623.00,0.56
8622.00,0.56
8621.00,0.56
8620.00,0.56
8619.00,0.56
8618.00,0.56
8617.00,0.56
8616.00,0.56
8615.00,0.56
8614.00,0.56
8613.00,0.56
8612.00,0.56
8611.00,0.56
8610.00,0.56
8609.00,0.56
8608.00,0.56
8607.00,0.56
8606.00,0.56
8605.00,0.56
8604.00,0.56
8603.00,0.56
8602.00,0.55
8601.00,0.55
8600.00,0.55
8599.00,0.55
8598.00,0.55
8597.00,0.55
8596.00,0.55
8595.00,0.55
8594.00,0.55
8593.00,0.55
8592.00,0.55
8591.00,0.55
8590.00,0.55
8589.00,0.55
8588.00,0.55
8587.00,0.55
8586.00,0.55
8585.00,0.55
8584.00,0.55
8583.00,0.54
8582.00,0.54
8581.00,0.54
8580.00,0.54
8579.00,0.54
8578.00,0.54
8577.00,0.54
8576.00,0.54
8575.00,0.55
8574.00,0.54
8573.00,0.54
8572.00,0.54
8571.00,0.54
8570.00,0.54
8569.00,0.54
8568.00,0.54
8567.00,0.54
8566.00,0.54
8565.00,0.54
8564.00,0.54
8563.00,0.54
8562.00,0.54
8561.00,0.54
8560.00,0.54
8559.00,0.54
8558.00,0.54
8557.00,0.54
8556.00,0.54
8555.00,0.54
8554.00,0.54
8553.00,0.54
8552.00,0.55
8551.00,0.55
8550.00,0.55
8549.00,0.55
8548.00,0.55
8547.00,0.55
8546.00,0.55
8545.00,0.55
8544.00,0.55
8543.00,0.55
8542.00,0.55
8541.00,0.55
8540.00,0.55
8539.00,0.55
8538.00,0.55
8537.00,0.55
8536.00,0.55
8535.00,0.55
8534.00,0.54
8533.00,0.54
8532.00,0.54
8531.00,0.54
8530.00,0.54
8529.00,0.54
8528.00,0.54
8527.00,0.54
8526.00,0.54
8525.00,0.54
8524.00,0.53
8523.00,0.53
8522.00,0.53
8521.00,0.53
8520.00,0.53
8519.00,0.53
8518.00,0.53
8517.00,0.53
8516.00,0.53
8515.00,0.53
8514.00,0.53
8513.00,0.53
8512.00,0.53
8511.00,0.53
8510.00,0.53
8509.00,0.53
8508.00,0.53
8507.00,0.53
8506.00,0.54
8505.00,0.54
8504.00,0.54
8503.00,0.54
8502.00,0.54
8501.00,0.54
8500.00,0.54
8499.00,0.54
8498.00,0.54
8497.00,0.54
8496.00,0.54
8495.00,0.54
8494.00,0.54
8493.00,0.54
8492.00,0.54
8491.00,0.54
8490.00,0.54
8489.00,0.54
8488.00,0.54
8487.00,0.54
8486.00,0.53
8485.00,0.53
8484.00,0.53
8483.00,0.53
8482.00,0.53
8481.00,0.53
8480.00,0.53
8479.00,0.53
8478.00,0.53
8477.00,0.53
8476.00,0.53
8475.00,0.53
8474.00,0.53
8473.00,0.53
8472.00,0.53
8471.00,0.53
8470.00,0.53
8469.00,0.53
8468.00,0.53
8467.00,0.53
8466.00,0.53
8465.00,0.53
8464.00,0.53
8463.00,0.53
8462.00,0.53
8461.00,0.53
8460.00,0.53
8459.00,0.53
8458.00,0.53
8457.00,0.53
8456.00,0.53
8455.00,0.53
8454.00,0.53
8453.00,0.53
8452.00,0.53
8451.00,0.53
8450.00,0.53
8449.00,0.53
8448.00,0.53
8447.00,0.53
8446.00,0.53
8445.00,0.53
8444.00,0.53
8443.00,0.53
8442.00,0.53
8441.00,0.54
8440.00,0.54
8439.00,0.54
8438.00,0.54
8437.00,0.54
8436.00,0.54
8435.00,0.54
8434.00,0.54
8433.00,0.54
8432.00,0.54
8431.00,0.54
8430.00,0.54
8429.00,0.54
8428.00,0.54
8427.00,0.54
8426.00,0.54
8425.00,0.54
8424.00,0.54
8423.00,0.53
8422.00,0.53
8421.00,0.53
8420.00,0.53
8419.00,0.53
8418.00,0.53
8417.00,0.53
8416.00,0.53
8415.00,0.53
8414.00,0.53
8413.00,0.53
8412.00,0.53
8411.00,0.53
8410.00,0.53
8409.00,0.53
8408.00,0.53
8407.00,0.53
8406.00,0.53
8405.00,0.53
8404.00,0.53
8403.00,0.53
8402.00,0.53
8401.00,0.53
8400.00,0.53
8399.00,0.54
8398.00,0.54
8397.00,0.54
8396.00,0.54
8395.00,0.54
8394.00,0.54
8393.00,0.54
8392.00,0.54
8391.00,0.54
8390.00,0.54
8389.00,0.54
8388.00,0.54
8387.00,0.54
8386.00,0.54
8385.00,0.54
8384.00,0.54
8383.00,0.54
8382.00,0.54
8381.00,0.54
8380.00,0.54
8379.00,0.54
8378.00,0.54
8377.00,0.54
8376.00,0.54
8375.00,0.54
8374.00,0.54
8373.00,0.54
8372.00,0.54
8371.00,0.54
8370.00,0.54
8369.00,0.54
8368.00,0.54
8367.00,0.54
8366.00,0.54
8365.00,0.54
8364.00,0.54
8363.00,0.54
8362.00,0.54
8361.00,0.54
8360.00,0.54
8359.00,0.54
8358.00,0.54
8357.00,0.54
8356.00,0.54
8355.00,0.54
8354.00,0.54
8353.00,0.54
8352.00,0.54
8351.00,0.54
8350.00,0.54
8349.00,0.54
8348.00,0.54
8347.00,0.54
8346.00,0.54
8345.00,0.54
8344.00,0.54
8343.00,0.53
8342.00,0.53
8341.00,0.53
8340.00,0.53
8339.00,0.53
8338.00,0.53
8337.00,0.53
8336.00,0.53
8335.00,0.53
8334.00,0.53
8333.00,0.53
8332.00,0.53
8331.00,0.53
8330.00,0.53
8329.00,0.53
8328.00,0.53
8327.00,0.53
8326.00,0.53
8325.00,0.53
8324.00,0.53
8323.00,0.53
8322.00,0.53
8321.00,0.53
8320.00,0.53
8319.00,0.53
8318.00,0.53
8317.00,0.53
8316.00,0.53
8315.00,0.53
8314.00,0.53
8313.00,0.53
8312.00,0.53
8311.00,0.53
8310.00,0.54
8309.00,0.54
8308.00,0.54
8307.00,0.54
8306.00,0.54
8305.00,0.54
8304.00,0.54
8303.00,0.54
8302.00,0.54
8301.00,0.54
8300.00,0.54
8299.00,0.54
8298.00,0.54
8297.00,0.54
8296.00,0.54
8295.00,0.54
8294.00,0.54
8293.00,0.54
8292.00,0.54
8291.00,0.54
8290.00,0.54
8289.00,0.54
8288.00,0.54
8287.00,0.54
8286.00,0.54
8285.00,0.54
8284.00,0.54
8283.00,0.54
8282.00,0.54
8281.00,0.54
8280.00,0.54
8279.00,0.54
8278.00,0.54
8277.00,0.54
8276.00,0.54
8275.00,0.54
8274.00,0.54
8273.00,0.54
8272.00,0.54
8271.00,0.54
8270.00,0.54
8269.00,0.54
8268.00,0.54
8267.00,0.54
8266.00,0.54
8265.00,0.54
8264.00,0.54
8263.00,0.54
8262.00,0.54
8261.00,0.54
8260.00,0.54
8259.00,0.54
8258.00,0.54
8257.00,0.54
8256.00,0.54
8255.00,0.54
8254.00,0.54
8253.00,0.54
8252.00,0.54
8251.00,0.54
8250.00,0.55
8249.00,0.55
8248.00,0.55
8247.00,0.55
8246.00,0.55
8245.00,0.55
8244.00,0.55
8243.00,0.55
8242.00,0.55
8241.00,0.55
8240.00,0.55
8239.00,0.55
8238.00,0.55
8237.00,0.55
8236.00,0.55
8235.00,0.55
8234.00,0.55
8233.00,0.55
8232.00,0.55
8231.00,0.55
8230.00,0.55
8229.00,0.55
8228.00,0.55
8227.00,0.55
8226.00,0.55
8225.00,0.55
8224.00,0.55
8223.00,0.55
8222.00,0.55
8221.00,0.55
8220.00,0.55
8219.00,0.55
8218.00,0.55
8217.00,0.55
8216.00,0.55
8215.00,0.55
8214.00,0.56
8213.00,0.56
8212.00,0.56
8211.00,0.56
8210.00,0.56
8209.00,0.56
8208.00,0.56
8207.00,0.56
8206.00,0.57
8205.00,0.57
8204.00,0.57
8203.00,0.57
8202.00,0.57
8201.00,0.57
8200.00,0.57
8199.00,0.57
8198.00,0.57
8197.00,0.57
8196.00,0.57
8195.00,0.57
8194.00,0.57
8193.00,0.57
8192.00,0.57
8191.00,0.57
8190.00,0.57
8189.00,0.57
8188.00,0.57
8187.00,0.57
8186.00,0.57
8185.00,0.57
8184.00,0.57
8183.00,0.57
8182.00,0.57
8181.00,0.57
8180.00,0.57
8179.00,0.57
8178.00,0.57
8177.00,0.56
8176.00,0.56
8175.00,0.56
8174.00,0.56
8173.00,0.56
8172.00,0.56
8171.00,0.56
8170.00,0.56
8169.00,0.56
8168.00,0.56
8167.00,0.56
8166.00,0.56
8165.00,0.56
8164.00,0.56
8163.00,0.56
8162.00,0.56
8161.00,0.56
8160.00,0.56
8159.00,0.56
8158.00,0.56
8157.00,0.56
8156.00,0.56
8155.00,0.57
8154.00,0.57
8153.00,0.57
8152.00,0.57
8151.00,0.57
8150.00,0.57
8149.00,0.57
8148.00,0.57
8147.00,0.57
8146.00,0.57
8145.00,0.57
8144.00,0.57
8143.00,0.57
8142.00,0.57
8141.00,0.57
8140.00,0.57
8139.00,0.57
8138.00,0.57
8137.00,0.57
8136.00,0.57
8135.00,0.57
8134.00,0.57
8133.00,0.57
8132.00,0.57
8131.00,0.57
8130.00,0.57
8129.00,0.57
8128.00,0.57
8127.00,0.57
8126.00,0.57
8125.00,0.57
8124.00,0.57
8123.00,0.57
8122.00,0.57
8121.00,0.57
8120.00,0.58
8119.00,0.58
8118.00,0.58
8117.00,0.58
8116.00,0.58
8115.00,0.58
8114.00,0.58
8113.00,0.58
8112.00,0.58
8111.00,0.58
8110.00,0.59
8109.00,0.59
8108.00,0.59
8107.00,0.59
8106.00,0.59
8105.00,0.59
8104.00,0.59
8103.00,0.59
8102.00,0.59
8101.00,0.59
8100.00,0.59
8099.00,0.59
8098.00,0.59
8097.00,0.59
8096.00,0.59
8095.00,0.59
8094.00,0.59
8093.00,0.59
8092.00,0.58
8091.00,0.58
8090.00,0.58
8089.00,0.58
8088.00,0.58
8087.00,0.58
8086.00,0.58
8085.00,0.58
8084.00,0.58
8083.00,0.58
8082.00,0.58
8081.00,0.58
8080.00,0.58
8079.00,0.58
8078.00,0.58
8077.00,0.58
8076.00,0.58
8075.00,0.58
8074.00,0.58
8073.00,0.58
8072.00,0.58
8071.00,0.58
8070.00,0.58
8069.00,0.58
8068.00,0.58
8067.00,0.58
8066.00,0.58
8065.00,0.58
8064.00,0.58
8063.00,0.58
8062.00,0.58
8061.00,0.58
8060.00,0.58
8059.00,0.58
8058.00,0.58
8057.00,0.58
8056.00,0.58
8055.00,0.58
8054.00,0.58
8053.00,0.59
8052.00,0.59
8051.00,0.59
8050.00,0.58
8049.00,0.58
8048.00,0.58
8047.00,0.58
8046.00,0.58
8045.00,0.58
8044.00,0.58
8043.00,0.58
8042.00,0.58
8041.00,0.58
8040.00,0.58
8039.00,0.58
8038.00,0.58
8037.00,0.58
8036.00,0.58
8035.00,0.58
8034.00,0.58
8033.00,0.58
8032.00,0.58
8031.00,0.58
8030.00,0.58
8029.00,0.58
8028.00,0.58
8027.00,0.58
8026.00,0.58
8025.00,0.58
8024.00,0.58
8023.00,0.58
8022.00,0.58
8021.00,0.58
8020.00,0.58
8019.00,0.58
8018.00,0.58
8017.00,0.58
8016.00,0.58
8015.00,0.58
8014.00,0.58
8013.00,0.58
8012.00,0.58
8011.00,0.58
8010.00,0.58
8009.00,0.58
8008.00,0.58
8007.00,0.58
8006.00,0.58
8005.00,0.58
8004.00,0.58
8003.00,0.58
8002.00,0.58
8001.00,0.58
8000.00,0.58
7999.00,0.59
7998.00,0.59
7997.00,0.59
7996.00,0.59
7995.00,0.59
7994.00,0.59
7993.00,0.59
7992.00,0.59
7991.00,0.59
7990.00,0.59
7989.00,0.59
7988.00,0.59
7987.00,0.59
7986.00,0.59
7985.00,0.59
7984.00,0.59
7983.00,0.59
7982.00,0.59
7981.00,0.59
7980.00,0.59
7979.00,0.59
7978.00,0.59
7977.00,0.59
7976.00,0.59
7975.00,0.59
7974.00,0.59
7973.00,0.59
7972.00,0.59
7971.00,0.59
7970.00,0.59
7969.00,0.59
7968.00,0.58
7967.00,0.58
7966.00,0.58
7965.00,0.58
7964.00,0.58
7963.00,0.58
7962.00,0.58
7961.00,0.58
7960.00,0.58
7959.00,0.59
7958.00,0.59
7957.00,0.59
7956.00,0.59
7955.00,0.59
7954.00,0.59
7953.00,0.59
7952.00,0.59
7951.00,0.59
7950.00,0.60
7949.00,0.60
7948.00,0.60
7947.00,0.60
7946.00,0.60
7945.00,0.60
7944.00,0.60
7943.00,0.60
7942.00,0.60
7941.00,0.60
7940.00,0.59
7939.00,0.59
7938.00,0.59
7937.00,0.59
7936.00,0.59
7935.00,0.59
7934.00,0.59
7933.00,0.59
7932.00,0.59
7931.00,0.59
7930.00,0.59
7929.00,0.58
7928.00,0.58
7927.00,0.58
7926.00,0.59
7925.00,0.59
7924.00,0.59
7923.00,0.59
7922.00,0.59
7921.00,0.59
7920.00,0.59
7919.00,0.59
7918.00,0.59
7917.00,0.59
7916.00,0.59
7915.00,0.59
7914.00,0.59
7913.00,0.59
7912.00,0.59
7911.00,0.59
7910.00,0.59
7909.00,0.59
7908.00,0.59
7907.00,0.59
7906.00,0.59
7905.00,0.59
7904.00,0.59
7903.00,0.59
7902.00,0.59
7901.00,0.59
7900.00,0.59
7899.00,0.59
7898.00,0.59
7897.00,0.59
7896.00,0.59
7895.00,0.59
7894.00,0.59
7893.00,0.59
7892.00,0.59
7891.00,0.59
7890.00,0.59
7889.00,0.59
7888.00,0.59
7887.00,0.59
7886.00,0.59
7885.00,0.59
7884.00,0.59
7883.00,0.59
7882.00,0.59
7881.00,0.59
7880.00,0.59
7879.00,0.59
7878.00,0.59
7877.00,0.59
7876.00,0.59
7875.00,0.59
7874.00,0.59
7873.00,0.59
7872.00,0.59
7871.00,0.59
7870.00,0.59
7869.00,0.58
7868.00,0.58
7867.00,0.58
7866.00,0.58
7865.00,0.58
7864.00,0.58
7863.00,0.58
7862.00,0.59
7861.00,0.59
7860.00,0.59
7859.00,0.59
7858.00,0.59
7857.00,0.59
7856.00,0.59
7855.00,0.59
7854.00,0.59
7853.00,0.59
7852.00,0.59
7851.00,0.60
7850.00,0.60
7849.00,0.60
7848.00,0.60
7847.00,0.60
7846.00,0.60
7845.00,0.60
7844.00,0.60
7843.00,0.60
7842.00,0.60
7841.00,0.60
7840.00,0.60
7839.00,0.60
7838.00,0.60
7837.00,0.60
7836.00,0.60
7835.00,0.60
7834.00,0.60
7833.00,0.60
7832.00,0.60
7831.00,0.60
7830.00,0.60
7829.00,0.60
7828.00,0.60
7827.00,0.60
7826.00,0.60
7825.00,0.60
7824.00,0.60
7823.00,0.60
7822.00,0.60
7821.00,0.60
7820.00,0.60
7819.00,0.60
7818.00,0.60
7817.00,0.60
7816.00,0.60
7815.00,0.60
7814.00,0.60
7813.00,0.60
7812.00,0.60
7811.00,0.60
7810.00,0.60
7809.00,0.60
7808.00,0.60
7807.00,0.60
7806.00,0.60
7805.00,0.60
7804.00,0.60
7803.00,0.60
7802.00,0.60
7801.00,0.60
7800.00,0.60
7799.00,0.60
7798.00,0.60
7797.00,0.60
7796.00,0.59
7795.00,0.59
7794.00,0.59
7793.00,0.59
7792.00,0.59
7791.00,0.59
7790.00,0.59
7789.00,0.59
7788.00,0.59
7787.00,0.59
7786.00,0.59
7785.00,0.59
7784.00,0.60
7783.00,0.60
7782.00,0.60
7781.00,0.60
7780.00,0.60
7779.00,0.60
7778.00,0.60
7777.00,0.59
7776.00,0.59
7775.00,0.59
7774.00,0.59
7773.00,0.59
7772.00,0.59
7771.00,0.59
7770.00,0.59
7769.00,0.59
7768.00,0.60
7767.00,0.60
7766.00,0.60
7765.00,0.60
7764.00,0.60
7763.00,0.60
7762.00,0.60
7761.00,0.60
7760.00,0.60
7759.00,0.60
7758.00,0.60
7757.00,0.60
7756.00,0.60
7755.00,0.60
7754.00,0.60
7753.00,0.60
7752.00,0.60
7751.00,0.60
7750.00,0.59
7749.00,0.59
7748.00,0.59
7747.00,0.59
7746.00,0.59
7745.00,0.59
7744.00,0.59
7743.00,0.59
7742.00,0.59
7741.00,0.59
7740.00,0.59
7739.00,0.59
7738.00,0.59
7737.00,0.59
7736.00,0.60
7735.00,0.60
7734.00,0.60
7733.00,0.60
7732.00,0.60
7731.00,0.60
7730.00,0.60
7729.00,0.60
7728.00,0.60
7727.00,0.60
7726.00,0.60
7725.00,0.60
7724.00,0.60
7723.00,0.60
7722.00,0.60
7721.00,0.60
7720.00,0.60
7719.00,0.60
7718.00,0.60
7717.00,0.60
7716.00,0.60
7715.00,0.60
7714.00,0.60
7713.00,0.60
7712.00,0.60
7711.00,0.60
7710.00,0.60
7709.00,0.60
7708.00,0.60
7707.00,0.60
7706.00,0.60
7705.00,0.60
7704.00,0.60
7703.00,0.60
7702.00,0.60
7701.00,0.60
7700.00,0.60
7699.00,0.60
7698.00,0.60
7697.00,0.60
7696.00,0.60
7695.00,0.60
7694.00,0.60
7693.00,0.60
7692.00,0.60
7691.00,0.60
7690.00,0.60
7689.00,0.59
7688.00,0.59
7687.00,0.59
7686.00,0.59
7685.00,0.59
7684.00,0.59
7683.00,0.60
7682.00,0.60
7681.00,0.60
7680.00,0.60
7679.00,0.60
7678.00,0.60
7677.00,0.60
7676.00,0.60
7675.00,0.60
7674.00,0.60
7673.00,0.60
7672.00,0.60
7671.00,0.60
7670.00,0.60
7669.00,0.60
7668.00,0.60
7667.00,0.60
7666.00,0.60
7665.00,0.60
7664.00,0.60
7663.00,0.60
7662.00,0.60
7661.00,0.60
7660.00,0.60
7659.00,0.60
7658.00,0.60
7657.00,0.60
7656.00,0.60
7655.00,0.60
7654.00,0.60
7653.00,0.60
7652.00,0.60
7651.00,0.60
7650.00,0.60
7649.00,0.60
7648.00,0.60
7647.00,0.60
7646.00,0.60
7645.00,0.60
7644.00,0.60
7643.00,0.60
7642.00,0.60
7641.00,0.60
7640.00,0.60
7639.00,0.60
7638.00,0.60
7637.00,0.60
7636.00,0.60
7635.00,0.60
7634.00,0.60
7633.00,0.60
7632.00,0.60
7631.00,0.60
7630.00,0.60
7629.00,0.60
7628.00,0.60
7627.00,0.60
7626.00,0.60
7625.00,0.60
7624.00,0.60
7623.00,0.60
7622.00,0.60
7621.00,0.60
7620.00,0.60
7619.00,0.60
7618.00,0.60
7617.00,0.60
7616.00,0.60
7615.00,0.60
7614.00,0.60
7613.00,0.60
7612.00,0.60
7611.00,0.60
7610.00,0.60
7609.00,0.60
7608.00,0.60
7607.00,0.60
7606.00,0.60
7605.00,0.60
7604.00,0.60
7603.00,0.60
7602.00,0.60
7601.00,0.60
7600.00,0.60
7599.00,0.60
7598.00,0.60
7597.00,0.60
7596.00,0.60
7595.00,0.60
7594.00,0.60
7593.00,0.60
7592.00,0.60
7591.00,0.60
7590.00,0.60
7589.00,0.60
7588.00,0.60
7587.00,0.60
7586.00,0.60
7585.00,0.60
7584.00,0.60
7583.00,0.60
7582.00,0.60
7581.00,0.60
7580.00,0.60
7579.00,0.60
7578.00,0.60
7577.00,0.60
7576.00,0.60
7575.00,0.60
7574.00,0.60
7573.00,0.60
7572.00,0.60
7571.00,0.60
7570.00,0.60
7569.00,0.60
7568.00,0.60
7567.00,0.60
7566.00,0.60
7565.00,0.60
7564.00,0.60
7563.00,0.60
7562.00,0.60
7561.00,0.60
7560.00,0.60
7559.00,0.60
7558.00,0.60
7557.00,0.60
7556.00,0.60
7555.00,0.60
7554.00,0.60
7553.00,0.60
7552.00,0.60
7551.00,0.60
7550.00,0.60
7549.00,0.60
7548.00,0.60
7547.00,0.60
7546.00,0.60
7545.00,0.60
7544.00,0.60
7543.00,0.60
7542.00,0.60
7541.00,0.60
7540.00,0.60
7539.00,0.60
7538.00,0.60
7537.00,0.60
7536.00,0.60
7535.00,0.60
7534.00,0.60
7533.00,0.60
7532.00,0.60
7531.00,0.60
7530.00,0.60
7529.00,0.60
7528.00,0.60
7527.00,0.60
7526.00,0.60
7525.00,0.60
7524.00,0.60
7523.00,0.60
7522.00,0.60
7521.00,0.60
7520.00,0.60
7519.00,0.60
7518.00,0.60
7517.00,0.60
7516.00,0.60
7515.00,0.60
7514.00,0.60
7513.00,0.60
7512.00,0.60
7511.00,0.60
7510.00,0.60
7509.00,0.60
7508.00,0.60
7507.00,0.60
7506.00,0.60
7505.00,0.60
7504.00,0.60
7503.00,0.60
7502.00,0.60
7501.00,0.60
7500.00,0.60
7499.00,0.60
7498.00,0.60
7497.00,0.60
7496.00,0.60
7495.00,0.60
7494.00,0.59
7493.00,0.59
7492.00,0.59
7491.00,0.59
7490.00,0.59
7489.00,0.59
7488.00,0.59
7487.00,0.59
7486.00,0.59
7485.00,0.59
7484.00,0.59
7483.00,0.59
7482.00,0.59
7481.00,0.59
7480.00,0.59
7479.00,0.59
7478.00,0.59
7477.00,0.59
7476.00,0.59
7475.00,0.59
7474.00,0.59
7473.00,0.59
7472.00,0.59
7471.00,0.59
7470.00,0.59
7469.00,0.59
7468.00,0.59
7467.00,0.59
7466.00,0.58
7465.00,0.58
7464.00,0.58
7463.00,0.58
7462.00,0.58
7461.00,0.58
7460.00,0.58
7459.00,0.58
7458.00,0.58
7457.00,0.58
7456.00,0.58
7455.00,0.58
7454.00,0.58
7453.00,0.58
7452.00,0.58
7451.00,0.58
7450.00,0.58
7449.00,0.58
7448.00,0.58
7447.00,0.58
7446.00,0.58
7445.00,0.58
7444.00,0.58
7443.00,0.58
7442.00,0.58
7441.00,0.58
7440.00,0.58
7439.00,0.58
7438.00,0.58
7437.00,0.58
7436.00,0.58
7435.00,0.58
7434.00,0.58
7433.00,0.58
7432.00,0.58
7431.00,0.58
7430.00,0.58
7429.00,0.58
7428.00,0.58
7427.00,0.57
7426.00,0.57
7425.00,0.57
7424.00,0.57
7423.00,0.57
7422.00,0.57
7421.00,0.57
7420.00,0.57
7419.00,0.57
7418.00,0.57
7417.00,0.57
7416.00,0.57
7415.00,0.57
7414.00,0.57
7413.00,0.57
7412.00,0.56
7411.00,0.56
7410.00,0.56
7409.00,0.56
7408.00,0.56
7407.00,0.56
7406.00,0.56
7405.00,0.56
7404.00,0.56
7403.00,0.56
7402.00,0.56
7401.00,0.56
7400.00,0.56
7399.00,0.56
7398.00,0.56
7397.00,0.56
7396.00,0.56
7395.00,0.56
7394.00,0.56
7393.00,0.56
7392.00,0.56
7391.00,0.56
7390.00,0.56
7389.00,0.56
7388.00,0.56
7387.00,0.56
7386.00,0.56
7385.00,0.56
7384.00,0.56
7383.00,0.56
7382.00,0.56
7381.00,0.56
7380.00,0.56
7379.00,0.56
7378.00,0.56
7377.00,0.56
7376.00,0.56
7375.00,0.56
7374.00,0.56
7373.00,0.55
7372.00,0.55
7371.00,0.55
7370.00,0.55
7369.00,0.55
7368.00,0.55
7367.00,0.55
7366.00,0.55
7365.00,0.55
7364.00,0.55
7363.00,0.55
7362.00,0.55
7361.00,0.55
7360.00,0.55
7359.00,0.55
7358.00,0.55
7357.00,0.55
7356.00,0.55
7355.00,0.55
7354.00,0.55
7353.00,0.55
7352.00,0.55
7351.00,0.55
7350.00,0.55
7349.00,0.55
7348.00,0.55
7347.00,0.55
7346.00,0.55
7345.00,0.55
7344.00,0.55
7343.00,0.55
7342.00,0.55
7341.00,0.55
7340.00,0.55
7339.00,0.55
7338.00,0.55
7337.00,0.55
7336.00,0.55
7335.00,0.55
7334.00,0.55
7333.00,0.55
7332.00,0.55
7331.00,0.55
7330.00,0.55
7329.00,0.55
7328.00,0.55
7327.00,0.55
7326.00,0.55
7325.00,0.55
7324.00,0.55
7323.00,0.55
7322.00,0.55
7321.00,0.55
7320.00,0.55
7319.00,0.55
7318.00,0.55
7317.00,0.55
7316.00,0.54
7315.00,0.54
7314.00,0.54
7313.00,0.54
7312.00,0.54
7311.00,0.54
7310.00,0.54
7309.00,0.54
7308.00,0.54
7307.00,0.54
7306.00,0.54
7305.00,0.54
7304.00,0.54
7303.00,0.54
7302.00,0.54
7301.00,0.54
7300.00,0.54
7299.00,0.54
7298.00,0.54
7297.00,0.54
7296.00,0.54
7295.00,0.54
7294.00,0.54
7293.00,0.54
7292.00,0.54
7291.00,0.54
7290.00,0.53
7289.00,0.53
7288.00,0.53
7287.00,0.53
7286.00,0.53
7285.00,0.53
7284.00,0.53
7283.00,0.53
7282.00,0.53
7281.00,0.52
7280.00,0.52
7279.00,0.52
7278.00,0.52
7277.00,0.52
7276.00,0.52
7275.00,0.52
7274.00,0.52
7273.00,0.52
7272.00,0.52
7271.00,0.52
7270.00,0.52
7269.00,0.52
7268.00,0.52
7267.00,0.52
7266.00,0.52
7265.00,0.52
7264.00,0.52
7263.00,0.52
7262.00,0.52
7261.00,0.52
7260.00,0.52
7259.00,0.52
7258.00,0.52
7257.00,0.52
7256.00,0.52
7255.00,0.52
7254.00,0.52
7253.00,0.52
7252.00,0.51
7251.00,0.51
7250.00,0.51
7249.00,0.51
7248.00,0.51
7247.00,0.51
7246.00,0.51
7245.00,0.51
7244.00,0.50
7243.00,0.50
7242.00,0.50
7241.00,0.50
7240.00,0.50
7239.00,0.50
7238.00,0.49
7237.00,0.49
7236.00,0.49
7235.00,0.49
7234.00,0.49
7233.00,0.48
7232.00,0.48
7231.00,0.48
7230.00,0.48
7229.00,0.48
7228.00,0.48
7227.00,0.47
7226.00,0.47
7225.00,0.47
7224.00,0.47
7223.00,0.47
7222.00,0.47
7221.00,0.47
7220.00,0.47
7219.00,0.46
7218.00,0.46
7217.00,0.46
7216.00,0.46
7215.00,0.46
7214.00,0.46
7213.00,0.46
7212.00,0.45
7211.00,0.45
7210.00,0.45
7209.00,0.45
7208.00,0.45
7207.00,0.44
7206.00,0.44
7205.00,0.44
7204.00,0.44
7203.00,0.44
7202.00,0.44
7201.00,0.43
7200.00,0.43
7199.00,0.43
7198.00,0.43
7197.00,0.43
7196.00,0.42
7195.00,0.42
7194.00,0.42
7193.00,0.42
7192.00,0.42
7191.00,0.42
7190.00,0.41
7189.00,0.41
7188.00,0.41
7187.00,0.41
7186.00,0.41
7185.00,0.40
7184.00,0.40
7183.00,0.40
7182.00,0.40
7181.00,0.40
7180.00,0.39
7179.00,0.39
7178.00,0.39
7177.00,0.39
7176.00,0.39
7175.00,0.39
7174.00,0.38
7173.00,0.38
7172.00,0.38
7171.00,0.38
7170.00,0.38
7169.00,0.38
7168.00,0.38
7167.00,0.38
7166.00,0.38
7165.00,0.38
7164.00,0.38
7163.00,0.38
7162.00,0.38
7161.00,0.37
7160.00,0.37
7159.00,0.37
7158.00,0.37
7157.00,0.37
7156.00,0.37
7155.00,0.37
7154.00,0.37
7153.00,0.37
7152.00,0.36
7151.00,0.36
7150.00,0.36
7149.00,0.36
7148.00,0.36
7147.00,0.36
7146.00,0.35
7145.00,0.35
7144.00,0.35
7143.00,0.35
7142.00,0.35
7141.00,0.35
7140.00,0.34
7139.00,0.34
7138.00,0.34
7137.00,0.34
7136.00,0.34
7135.00,0.34
7134.00,0.34
7133.00,0.34
7132.00,0.34
7131.00,0.33
7130.00,0.33
7129.00,0.33
7128.00,0.33
7127.00,0.33
7126.00,0.33
7125.00,0.33
7124.00,0.33
7123.00,0.33
7122.00,0.33
7121.00,0.32
7120.00,0.32
7119.00,0.32
7118.00,0.32
7117.00,0.32
7116.00,0.32
7115.00,0.31
7114.00,0.31
7113.00,0.31
7112.00,0.31
7111.00,0.31
7110.00,0.31
7109.00,0.31
7108.00,0.30
7107.00,0.30
7106.00,0.30
7105.00,0.30
7104.00,0.30
7103.00,0.30
7102.00,0.30
7101.00,0.30
7100.00,0.30
7099.00,0.30
7098.00,0.29
7097.00,0.29
7096.00,0.29
7095.00,0.29
7094.00,0.29
7093.00,0.29
7092.00,0.29
7091.00,0.29
7090.00,0.29
7089.00,0.28
7088.00,0.28
7087.00,0.28
7086.00,0.28
7085.00,0.28
7084.00,0.28
7083.00,0.28
7082.00,0.28
7081.00,0.28
7080.00,0.28
7079.00,0.28
7078.00,0.27
7077.00,0.27
7076.00,0.27
7075.00,0.27
7074.00,0.27
7073.00,0.27
7072.00,0.27
7071.00,0.27
7070.00,0.27
7069.00,0.27
7068.00,0.27
7067.00,0.27
7066.00,0.27
7065.00,0.27
7064.00,0.27
7063.00,0.27
7062.00,0.27
7061.00,0.27
7060.00,0.27
7059.00,0.27
7058.00,0.27
7057.00,0.27
7056.00,0.27
7055.00,0.27
7054.00,0.27
7053.00,0.27
7052.00,0.27
7051.00,0.27
7050.00,0.27
7049.00,0.27
7048.00,0.27
7047.00,0.27
7046.00,0.27
7045.00,0.27
7044.00,0.27
7043.00,0.27
7042.00,0.27
7041.00,0.27
7040.00,0.27
7039.00,0.26
7038.00,0.26
7037.00,0.26
7036.00,0.26
7035.00,0.26
7034.00,0.26
7033.00,0.26
7032.00,0.26
7031.00,0.26
7030.00,0.26
7029.00,0.26
7028.00,0.26
7027.00,0.26
7026.00,0.26
7025.00,0.26
7024.00,0.26
7023.00,0.26
7022.00,0.26
7021.00,0.26
7020.00,0.26
7019.00,0.26
7018.00,0.26
7017.00,0.26
7016.00,0.26
7015.00,0.26
7014.00,0.26
7013.00,0.26
7012.00,0.26
7011.00,0.26
7010.00,0.26
7009.00,0.26
7008.00,0.26
7007.00,0.26
7006.00,0.26
7005.00,0.26
7004.00,0.26
7003.00,0.26
7002.00,0.26
7001.00,0.26
7000.00,0.26
6999.00,0.26
6998.00,0.26
6997.00,0.26
6996.00,0.25
6995.00,0.25
6994.00,0.25
6993.00,0.25
6992.00,0.25
6991.00,0.25
6990.00,0.25
6989.00,0.25
6988.00,0.25
6987.00,0.24
6986.00,0.24
6985.00,0.24
6984.00,0.24
6983.00,0.24
6982.00,0.24
6981.00,0.24
6980.00,0.24
6979.00,0.24
6978.00,0.24
6977.00,0.24
6976.00,0.24
6975.00,0.24
6974.00,0.24
6973.00,0.24
6972.00,0.24
6971.00,0.24
6970.00,0.24
6969.00,0.24
6968.00,0.24
6967.00,0.24
6966.00,0.24
6965.00,0.24
6964.00,0.24
6963.00,0.24
6962.00,0.24
6961.00,0.24
6960.00,0.24
6959.00,0.24
6958.00,0.24
6957.00,0.24
6956.00,0.24
6955.00,0.24
6954.00,0.24
6953.00,0.24
6952.00,0.24
6951.00,0.24
6950.00,0.24
6949.00,0.24
6948.00,0.24
6947.00,0.24
6946.00,0.24
6945.00,0.24
6944.00,0.24
6943.00,0.24
6942.00,0.24
6941.00,0.24
6940.00,0.24
6939.00,0.24
6938.00,0.24
6937.00,0.24
6936.00,0.24
6935.00,0.24
6934.00,0.24
6933.00,0.24
6932.00,0.24
6931.00,0.24
6930.00,0.24
6929.00,0.24
6928.00,0.24
6927.00,0.24
6926.00,0.24
6925.00,0.24
6924.00,0.24
6923.00,0.24
6922.00,0.24
6921.00,0.24
6920.00,0.24
6919.00,0.24
6918.00,0.24
6917.00,0.24
6916.00,0.24
6915.00,0.24
6914.00,0.24
6913.00,0.24
6912.00,0.24
6911.00,0.23
6910.00,0.23
6909.00,0.23
6908.00,0.23
6907.00,0.23
6906.00,0.23
6905.00,0.23
6904.00,0.23
6903.00,0.23
6902.00,0.23
6901.00,0.23
6900.00,0.23
6899.00,0.23
6898.00,0.23
6897.00,0.23
6896.00,0.23
6895.00,0.23
6894.00,0.23
6893.00,0.23
6892.00,0.23
6891.00,0.23
6890.00,0.23
6889.00,0.23
6888.00,0.23
6887.00,0.23
6886.00,0.23
6885.00,0.23
6884.00,0.23
6883.00,0.23
6882.00,0.23
6881.00,0.23
6880.00,0.23
6879.00,0.23
6878.00,0.23
6877.00,0.23
6876.00,0.24
6875.00,0.24
6874.00,0.24
6873.00,0.24
6872.00,0.24
6871.00,0.24
6870.00,0.24
6869.00,0.24
6868.00,0.24
6867.00,0.24
6866.00,0.24
6865.00,0.24
6864.00,0.23
6863.00,0.23
6862.00,0.23
6861.00,0.23
6860.00,0.23
6859.00,0.23
6858.00,0.23
6857.00,0.23
6856.00,0.23
6855.00,0.23
6854.00,0.24
6853.00,0.24
6852.00,0.24
6851.00,0.24
6850.00,0.24
6849.00,0.24
6848.00,0.24
6847.00,0.24
6846.00,0.24
6845.00,0.24
6844.00,0.24
6843.00,0.24
6842.00,0.24
6841.00,0.24
6840.00,0.24
6839.00,0.24
6838.00,0.24
6837.00,0.24
6836.00,0.24
6835.00,0.24
6834.00,0.24
6833.00,0.24
6832.00,0.24
6831.00,0.24
6830.00,0.24
6829.00,0.24
6828.00,0.24
6827.00,0.24
6826.00,0.24
6825.00,0.24
6824.00,0.24
6823.00,0.24
6822.00,0.24
6821.00,0.24
6820.00,0.24
6819.00,0.24
6818.00,0.24
6817.00,0.24
6816.00,0.24
6815.00,0.24
6814.00,0.24
6813.00,0.24
6812.00,0.24
6811.00,0.24
6810.00,0.24
6809.00,0.24
6808.00,0.24
6807.00,0.24
6806.00,0.24
6805.00,0.24
6804.00,0.24
6803.00,0.24
6802.00,0.25
6801.00,0.25
6800.00,0.25
6799.00,0.25
6798.00,0.25
6797.00,0.25
6796.00,0.25
6795.00,0.25
6794.00,0.25
6793.00,0.25
6792.00,0.25
6791.00,0.25
6790.00,0.25
6789.00,0.25
6788.00,0.25
6787.00,0.25
6786.00,0.25
6785.00,0.25
6784.00,0.25
6783.00,0.25
6782.00,0.25
6781.00,0.25
6780.00,0.25
6779.00,0.25
6778.00,0.25
6777.00,0.25
6776.00,0.25
6775.00,0.25
6774.00,0.25
6773.00,0.25
6772.00,0.25
6771.00,0.25
6770.00,0.25
6769.00,0.25
6768.00,0.25
6767.00,0.25
6766.00,0.25
6765.00,0.25
6764.00,0.25
6763.00,0.25
6762.00,0.25
6761.00,0.25
6760.00,0.25
6759.00,0.25
6758.00,0.25
6757.00,0.25
6756.00,0.25
6755.00,0.25
6754.00,0.25
6753.00,0.25
6752.00,0.25
6751.00,0.25
6750.00,0.25
6749.00,0.25
6748.00,0.25
6747.00,0.25
6746.00,0.26
6745.00,0.26
6744.00,0.26
6743.00,0.26
6742.00,0.26
6741.00,0.26
6740.00,0.26
6739.00,0.26
6738.00,0.26
6737.00,0.26
6736.00,0.26
6735.00,0.26
6734.00,0.26
6733.00,0.26
6732.00,0.26
6731.00,0.26
6730.00,0.27
6729.00,0.27
6728.00,0.27
6727.00,0.27
6726.00,0.27
6725.00,0.27
6724.00,0.27
6723.00,0.27
6722.00,0.27
6721.00,0.27
6720.00,0.27
6719.00,0.27
6718.00,0.27
6717.00,0.27
6716.00,0.27
6715.00,0.27
6714.00,0.27
6713.00,0.27
6712.00,0.27
6711.00,0.27
6710.00,0.27
6709.00,0.27
6708.00,0.27
6707.00,0.27
6706.00,0.27
6705.00,0.27
6704.00,0.27
6703.00,0.27
6702.00,0.27
6701.00,0.27
6700.00,0.27
6699.00,0.27
6698.00,0.27
6697.00,0.27
6696.00,0.27
6695.00,0.27
6694.00,0.27
6693.00,0.27
6692.00,0.28
6691.00,0.28
6690.00,0.28
6689.00,0.28
6688.00,0.28
6687.00,0.28
6686.00,0.28
6685.00,0.28
6684.00,0.28
6683.00,0.28
6682.00,0.28
6681.00,0.28
6680.00,0.28
6679.00,0.28
6678.00,0.28
6677.00,0.28
6676.00,0.28
6675.00,0.28
6674.00,0.28
6673.00,0.28
6672.00,0.28
6671.00,0.28
6670.00,0.28
6669.00,0.28
6668.00,0.29
6667.00,0.29
6666.00,0.29
6665.00,0.29
6664.00,0.29
6663.00,0.29
6662.00,0.29
6661.00,0.29
6660.00,0.29
6659.00,0.29
6658.00,0.29
6657.00,0.30
6656.00,0.30
6655.00,0.30
6654.00,0.30
6653.00,0.30
6652.00,0.30
6651.00,0.30
6650.00,0.30
6649.00,0.30
6648.00,0.30
6647.00,0.30
6646.00,0.30
6645.00,0.30
6644.00,0.30
6643.00,0.30
6642.00,0.30
6641.00,0.30
6640.00,0.30
6639.00,0.30
6638.00,0.30
6637.00,0.30
6636.00,0.30
6635.00,0.30
6634.00,0.30
6633.00,0.30
6632.00,0.30
6631.00,0.30
6630.00,0.30
6629.00,0.30
6628.00,0.30
6627.00,0.30
6626.00,0.30
6625.00,0.30
6624.00,0.30
6623.00,0.31
6622.00,0.31
6621.00,0.31
6620.00,0.31
6619.00,0.31
6618.00,0.31
6617.00,0.31
6616.00,0.31
6615.00,0.31
6614.00,0.31
6613.00,0.31
6612.00,0.31
6611.00,0.31
6610.00,0.31
6609.00,0.31
6608.00,0.31
6607.00,0.31
6606.00,0.31
6605.00,0.31
6604.00,0.31
6603.00,0.31
6602.00,0.31
6601.00,0.32
6600.00,0.32
6599.00,0.32
6598.00,0.32
6597.00,0.32
6596.00,0.32
6595.00,0.32
6594.00,0.32
6593.00,0.32
6592.00,0.32
6591.00,0.32
6590.00,0.32
6589.00,0.32
6588.00,0.32
6587.00,0.32
6586.00,0.32
6585.00,0.32
6584.00,0.33
6583.00,0.33
6582.00,0.33
6581.00,0.33
6580.00,0.33
6579.00,0.33
6578.00,0.33
6577.00,0.33
6576.00,0.33
6575.00,0.33
6574.00,0.33
6573.00,0.33
6572.00,0.33
6571.00,0.33
6570.00,0.33
6569.00,0.33
6568.00,0.33
6567.00,0.33
6566.00,0.33
6565.00,0.33
6564.00,0.33
6563.00,0.33
6562.00,0.33
6561.00,0.34
6560.00,0.34
6559.00,0.34
6558.00,0.34
6557.00,0.34
6556.00,0.34
6555.00,0.34
6554.00,0.34
6553.00,0.34
6552.00,0.34
6551.00,0.34
6550.00,0.34
6549.00,0.34
6548.00,0.34
6547.00,0.34
6546.00,0.34
6545.00,0.34
6544.00,0.34
6543.00,0.35
6542.00,0.35
6541.00,0.35
6540.00,0.35
6539.00,0.35
6538.00,0.35
6537.00,0.35
6536.00,0.35
6535.00,0.35
6534.00,0.35
6533.00,0.35
6532.00,0.35
6531.00,0.35
6530.00,0.35
6529.00,0.35
6528.00,0.35
6527.00,0.35
6526.00,0.35
6525.00,0.35
6524.00,0.35
6523.00,0.35
6522.00,0.35
6521.00,0.35
6520.00,0.35
6519.00,0.35
6518.00,0.35
6517.00,0.35
6516.00,0.35
6515.00,0.35
6514.00,0.35
6513.00,0.35
6512.00,0.36
6511.00,0.36
6510.00,0.36
6509.00,0.36
6508.00,0.36
6507.00,0.36
6506.00,0.36
6505.00,0.36
6504.00,0.36
6503.00,0.36
6502.00,0.36
6501.00,0.36
6500.00,0.36
6499.00,0.36
6498.00,0.36
6497.00,0.36
6496.00,0.36
6495.00,0.36
6494.00,0.36
6493.00,0.36
6492.00,0.36
6491.00,0.36
6490.00,0.36
6489.00,0.36
6488.00,0.37
6487.00,0.37
6486.00,0.37
6485.00,0.37
6484.00,0.37
6483.00,0.37
6482.00,0.37
6481.00,0.37
6480.00,0.37
6479.00,0.37
6478.00,0.37
6477.00,0.37
6476.00,0.37
6475.00,0.37
6474.00,0.37
6473.00,0.37
6472.00,0.37
6471.00,0.37
6470.00,0.37
6469.00,0.37
6468.00,0.37
6467.00,0.37
6466.00,0.37
6465.00,0.38
6464.00,0.38
6463.00,0.38
6462.00,0.38
6461.00,0.38
6460.00,0.38
6459.00,0.38
6458.00,0.38
6457.00,0.38
6456.00,0.38
6455.00,0.38
6454.00,0.38
6453.00,0.38
6452.00,0.38
6451.00,0.38
6450.00,0.38
6449.00,0.38
6448.00,0.38
6447.00,0.38
6446.00,0.38
6445.00,0.38
6444.00,0.38
6443.00,0.38
6442.00,0.38
6441.00,0.38
6440.00,0.38
6439.00,0.38
6438.00,0.38
6437.00,0.38
6436.00,0.38
6435.00,0.38
6434.00,0.38
6433.00,0.39
6432.00,0.39
6431.00,0.39
6430.00,0.39
6429.00,0.39
6428.00,0.39
6427.00,0.39
6426.00,0.39
6425.00,0.39
6424.00,0.39
6423.00,0.39
6422.00,0.39
6421.00,0.39
6420.00,0.39
6419.00,0.39
6418.00,0.39
6417.00,0.39
6416.00,0.39
6415.00,0.39
6414.00,0.39
6413.00,0.39
6412.00,0.39
6411.00,0.39
6410.00,0.39
6409.00,0.39
6408.00,0.39
6407.00,0.39
6406.00,0.39
6405.00,0.39
6404.00,0.40
6403.00,0.40
6402.00,0.40
6401.00,0.40
6400.00,0.40
6399.00,0.40
6398.00,0.40
6397.00,0.40
6396.00,0.40
6395.00,0.40
6394.00,0.40
6393.00,0.40
6392.00,0.40
6391.00,0.40
6390.00,0.40
6389.00,0.40
6388.00,0.40
6387.00,0.40
6386.00,0.40
6385.00,0.40
6384.00,0.41
6383.00,0.41
6382.00,0.41
6381.00,0.41
6380.00,0.41
6379.00,0.41
6378.00,0.41
6377.00,0.41
6376.00,0.41
6375.00,0.41
6374.00,0.41
6373.00,0.41
6372.00,0.41
6371.00,0.41
6370.00,0.41
6369.00,0.41
6368.00,0.41
6367.00,0.41
6366.00,0.41
6365.00,0.41
6364.00,0.41
6363.00,0.41
6362.00,0.42
6361.00,0.42
6360.00,0.42
6359.00,0.42
6358.00,0.42
6357.00,0.42
6356.00,0.42
6355.00,0.42
6354.00,0.42
6353.00,0.42
6352.00,0.42
6351.00,0.42
6350.00,0.42
6349.00,0.42
6348.00,0.42
6347.00,0.42
6346.00,0.42
6345.00,0.42
6344.00,0.42
6343.00,0.42
6342.00,0.42
6341.00,0.42
6340.00,0.42
6339.00,0.42
6338.00,0.42
6337.00,0.43
6336.00,0.43
6335.00,0.43
6334.00,0.43
6333.00,0.43
6332.00,0.43
6331.00,0.43
6330.00,0.43
6329.00,0.43
6328.00,0.43
6327.00,0.43
6326.00,0.43
6325.00,0.43
6324.00,0.43
6323.00,0.43
6322.00,0.43
6321.00,0.43
6320.00,0.43
6319.00,0.43
6318.00,0.44
6317.00,0.44
6316.00,0.44
6315.00,0.44
6314.00,0.44
6313.00,0.44
6312.00,0.44
6311.00,0.44
6310.00,0.44
6309.00,0.44
6308.00,0.44
6307.00,0.44
6306.00,0.44
6305.00,0.44
6304.00,0.44
6303.00,0.44
6302.00,0.44
6301.00,0.44
6300.00,0.44
6299.00,0.44
6298.00,0.45
6297.00,0.45
6296.00,0.45
6295.00,0.45
6294.00,0.45
6293.00,0.45
6292.00,0.45
6291.00,0.45
6290.00,0.45
6289.00,0.45
6288.00,0.45
6287.00,0.45
6286.00,0.45
6285.00,0.45
6284.00,0.45
6283.00,0.45
6282.00,0.45
6281.00,0.45
6280.00,0.45
6279.00,0.45
6278.00,0.46
6277.00,0.46
6276.00,0.46
6275.00,0.46
6274.00,0.46
6273.00,0.46
6272.00,0.46
6271.00,0.46
6270.00,0.46
6269.00,0.46
6268.00,0.46
6267.00,0.46
6266.00,0.46
6265.00,0.46
6264.00,0.46
6263.00,0.46
6262.00,0.46
6261.00,0.46
6260.00,0.47
6259.00,0.47
6258.00,0.47
6257.00,0.47
6256.00,0.47
6255.00,0.47
6254.00,0.47
6253.00,0.47
6252.00,0.47
6251.00,0.47
6250.00,0.47
6249.00,0.47
6248.00,0.47
6247.00,0.47
6246.00,0.47
6245.00,0.47
6244.00,0.47
6243.00,0.48
6242.00,0.48
6241.00,0.48
6240.00,0.48
6239.00,0.48
6238.00,0.48
6237.00,0.48
6236.00,0.48
6235.00,0.48
6234.00,0.48
6233.00,0.48
6232.00,0.48
6231.00,0.48
6230.00,0.48
6229.00,0.48
6228.00,0.48
6227.00,0.48
6226.00,0.48
6225.00,0.48
6224.00,0.48
6223.00,0.49
6222.00,0.49
6221.00,0.49
6220.00,0.49
6219.00,0.49
6218.00,0.49
6217.00,0.49
6216.00,0.49
6215.00,0.49
6214.00,0.49
6213.00,0.49
6212.00,0.49
6211.00,0.49
6210.00,0.49
6209.00,0.49
6208.00,0.50
6207.00,0.50
6206.00,0.50
6205.00,0.50
6204.00,0.50
6203.00,0.50
6202.00,0.50
6201.00,0.50
6200.00,0.50
6199.00,0.50
6198.00,0.50
6197.00,0.50
6196.00,0.50
6195.00,0.50
6194.00,0.51
6193.00,0.51
6192.00,0.51
6191.00,0.51
6190.00,0.51
6189.00,0.51
6188.00,0.51
6187.00,0.51
6186.00,0.51
6185.00,0.51
6184.00,0.51
6183.00,0.51
6182.00,0.51
6181.00,0.51
6180.00,0.51
6179.00,0.51
6178.00,0.51
6177.00,0.51
6176.00,0.52
6175.00,0.52
6174.00,0.52
6173.00,0.52
6172.00,0.52
6171.00,0.52
6170.00,0.52
6169.00,0.52
6168.00,0.52
6167.00,0.52
6166.00,0.52
6165.00,0.52
6164.00,0.52
6163.00,0.52
6162.00,0.52
6161.00,0.52
6160.00,0.52
6159.00,0.52
6158.00,0.52
6157.00,0.52
6156.00,0.52
6155.00,0.53
6154.00,0.53
6153.00,0.53
6152.00,0.53
6151.00,0.53
6150.00,0.53
6149.00,0.53
6148.00,0.53
6147.00,0.53
6146.00,0.53
6145.00,0.53
6144.00,0.53
6143.00,0.53
6142.00,0.53
6141.00,0.53
6140.00,0.54
6139.00,0.54
6138.00,0.54
6137.00,0.54
6136.00,0.54
6135.00,0.54
6134.00,0.54
6133.00,0.54
6132.00,0.54
6131.00,0.54
6130.00,0.54
6129.00,0.54
6128.00,0.54
6127.00,0.54
6126.00,0.54
6125.00,0.54
6124.00,0.54
6123.00,0.54
6122.00,0.54
6121.00,0.55
6120.00,0.55
6119.00,0.55
6118.00,0.55
6117.00,0.55
6116.00,0.55
6115.00,0.55
6114.00,0.55
6113.00,0.55
6112.00,0.55
6111.00,0.55
6110.00,0.55
6109.00,0.55
6108.00,0.55
6107.00,0.56
6106.00,0.56
6105.00,0.56
6104.00,0.56
6103.00,0.56
6102.00,0.56
6101.00,0.56
6100.00,0.56
6099.00,0.56
6098.00,0.56
6097.00,0.56
6096.00,0.56
6095.00,0.56
6094.00,0.56
6093.00,0.56
6092.00,0.56
6091.00,0.56
6090.00,0.56
6089.00,0.56
6088.00,0.56
6087.00,0.56
6086.00,0.56
6085.00,0.56
6084.00,0.56
6083.00,0.56
6082.00,0.56
6081.00,0.57
6080.00,0.57
6079.00,0.57
6078.00,0.57
6077.00,0.57
6076.00,0.57
6075.00,0.57
6074.00,0.57
6073.00,0.57
6072.00,0.57
6071.00,0.57
6070.00,0.57
6069.00,0.58
6068.00,0.58
6067.00,0.58
6066.00,0.58
6065.00,0.58
6064.00,0.58
6063.00,0.58
6062.00,0.58
6061.00,0.58
6060.00,0.58
6059.00,0.58
6058.00,0.58
6057.00,0.58
6056.00,0.58
6055.00,0.58
6054.00,0.58
6053.00,0.58
6052.00,0.58
6051.00,0.58
6050.00,0.58
6049.00,0.58
6048.00,0.58
6047.00,0.58
6046.00,0.59
6045.00,0.59
6044.00,0.59
6043.00,0.59
6042.00,0.59
6041.00,0.59
6040.00,0.59
6039.00,0.59
6038.00,0.59
6037.00,0.59
6036.00,0.59
6035.00,0.59
6034.00,0.59
6033.00,0.59
6032.00,0.59
6031.00,0.59
6030.00,0.59
6029.00,0.59
6028.00,0.59
6027.00,0.59
6026.00,0.59
6025.00,0.59
6024.00,0.59
6023.00,0.59
6022.00,0.59
6021.00,0.59
6020.00,0.59
6019.00,0.59
6018.00,0.59
6017.00,0.59
6016.00,0.59
6015.00,0.59
6014.00,0.59
6013.00,0.59
6012.00,0.59
6011.00,0.59
6010.00,0.59
6009.00,0.59
6008.00,0.59
6007.00,0.59
6006.00,0.59
6005.00,0.59
6004.00,0.59
6003.00,0.59
6002.00,0.59
6001.00,0.59
6000.00,0.59
5999.00,0.59
5998.00,0.59
5997.00,0.59
5996.00,0.59
5995.00,0.59
5994.00,0.59
5993.00,0.59
5992.00,0.59
5991.00,0.59
5990.00,0.59
5989.00,0.59
5988.00,0.59
5987.00,0.59
5986.00,0.59
5985.00,0.58
5984.00,0.58
5983.00,0.58
5982.00,0.58
5981.00,0.58
5980.00,0.58
5979.00,0.57
5978.00,0.57
5977.00,0.57
5976.00,0.57
5975.00,0.57
5974.00,0.56
5973.00,0.56
5972.00,0.56
5971.00,0.56
5970.00,0.56
5969.00,0.55
5968.00,0.55
5967.00,0.55
5966.00,0.55
5965.00,0.54
5964.00,0.54
5963.00,0.54
5962.00,0.54
5961.00,0.53
5960.00,0.53
5959.00,0.53
5958.00,0.53
5957.00,0.53
5956.00,0.52
5955.00,0.52
5954.00,0.52
5953.00,0.52
5952.00,0.51
5951.00,0.51
5950.00,0.51
5949.00,0.51
5948.00,0.51
5947.00,0.51
5946.00,0.50
5945.00,0.50
5944.00,0.50
5943.00,0.50
5942.00,0.50
5941.00,0.50
5940.00,0.50
5939.00,0.50
5938.00,0.50
5937.00,0.49
5936.00,0.49
5935.00,0.49
5934.00,0.49
5933.00,0.49
5932.00,0.49
5931.00,0.49
5930.00,0.49
5929.00,0.49
5928.00,0.49
5927.00,0.49
5926.00,0.49
5925.00,0.49
5924.00,0.49
5923.00,0.49
5922.00,0.49
5921.00,0.49
5920.00,0.49
5919.00,0.49
5918.00,0.48
5917.00,0.48
5916.00,0.48
5915.00,0.48
5914.00,0.48
5913.00,0.48
5912.00,0.48
5911.00,0.48
5910.00,0.48
5909.00,0.48
5908.00,0.48
5907.00,0.48
5906.00,0.48
5905.00,0.48
5904.00,0.48
5903.00,0.48
5902.00,0.48
5901.00,0.48
5900.00,0.48
5899.00,0.48
5898.00,0.48
5897.00,0.48
5896.00,0.48
5895.00,0.48
5894.00,0.48
5893.00,0.48
5892.00,0.48
5891.00,0.49
5890.00,0.49
5889.00,0.49
5888.00,0.49
5887.00,0.49
5886.00,0.49
5885.00,0.49
5884.00,0.49
5883.00,0.49
5882.00,0.49
5881.00,0.49
5880.00,0.49
5879.00,0.50
5878.00,0.50
5877.00,0.50
5876.00,0.50
5875.00,0.50
5874.00,0.50
5873.00,0.50
5872.00,0.50
5871.00,0.50
5870.00,0.50
5869.00,0.51
5868.00,0.51
5867.00,0.51
5866.00,0.51
5865.00,0.51
5864.00,0.51
5863.00,0.51
5862.00,0.51
5861.00,0.51
5860.00,0.51
5859.00,0.51
5858.00,0.51
5857.00,0.51
5856.00,0.51
5855.00,0.51
5854.00,0.51
5853.00,0.52
5852.00,0.52
5851.00,0.52
5850.00,0.52
5849.00,0.52
5848.00,0.52
5847.00,0.52
5846.00,0.52
5845.00,0.52
5844.00,0.52
5843.00,0.52
5842.00,0.52
5841.00,0.52
5840.00,0.52
5839.00,0.52
5838.00,0.52
5837.00,0.52
5836.00,0.52
5835.00,0.52
5834.00,0.52
5833.00,0.52
5832.00,0.52
5831.00,0.52
5830.00,0.52
5829.00,0.52
5828.00,0.52
5827.00,0.52
5826.00,0.52
5825.00,0.51
5824.00,0.51
5823.00,0.51
5822.00,0.51
5821.00,0.51
5820.00,0.51
5819.00,0.51
5818.00,0.51
5817.00,0.51
5816.00,0.51
5815.00,0.51
5814.00,0.51
5813.00,0.51
5812.00,0.51
5811.00,0.51
5810.00,0.51
5809.00,0.51
5808.00,0.51
5807.00,0.51
5806.00,0.51
5805.00,0.51
5804.00,0.51
5803.00,0.51
5802.00,0.51
5801.00,0.51
5800.00,0.51
5799.00,0.51
5798.00,0.51
5797.00,0.51
5796.00,0.51
5795.00,0.51
5794.00,0.50
5793.00,0.50
5792.00,0.50
5791.00,0.50
5790.00,0.50
5789.00,0.50
5788.00,0.50
5787.00,0.50
5786.00,0.50
5785.00,0.50
5784.00,0.50
5783.00,0.50
5782.00,0.50
5781.00,0.50
5780.00,0.49
5779.00,0.49
5778.00,0.49
5777.00,0.49
5776.00,0.49
5775.00,0.49
5774.00,0.49
5773.00,0.49
5772.00,0.49
5771.00,0.49
5770.00,0.49
5769.00,0.49
5768.00,0.49
5767.00,0.49
5766.00,0.49
5765.00,0.49
5764.00,0.49
5763.00,0.50
5762.00,0.50
5761.00,0.50
5760.00,0.50
5759.00,0.50
5758.00,0.50
5757.00,0.50
5756.00,0.50
5755.00,0.50
5754.00,0.51
5753.00,0.51
5752.00,0.51
5751.00,0.51
5750.00,0.51
5749.00,0.51
5748.00,0.51
5747.00,0.51
5746.00,0.51
5745.00,0.52
5744.00,0.52
5743.00,0.52
5742.00,0.52
5741.00,0.52
5740.00,0.52
5739.00,0.52
5738.00,0.52
5737.00,0.52
5736.00,0.52
5735.00,0.53
5734.00,0.53
5733.00,0.53
5732.00,0.53
5731.00,0.53
5730.00,0.53
5729.00,0.53
5728.00,0.53
5727.00,0.53
5726.00,0.53
5725.00,0.53
5724.00,0.53
5723.00,0.53
5722.00,0.53
5721.00,0.53
5720.00,0.53
5719.00,0.53
5718.00,0.53
5717.00,0.53
5716.00,0.53
5715.00,0.53
5714.00,0.53
5713.00,0.53
5712.00,0.53
5711.00,0.53
5710.00,0.52
5709.00,0.52
5708.00,0.52
5707.00,0.52
5706.00,0.52
5705.00,0.52
5704.00,0.52
5703.00,0.52
5702.00,0.52
5701.00,0.52
5700.00,0.52
5699.00,0.52
5698.00,0.52
5697.00,0.52
5696.00,0.52
5695.00,0.51
5694.00,0.51
5693.00,0.51
5692.00,0.51
5691.00,0.51
5690.00,0.51
5689.00,0.51
5688.00,0.51
5687.00,0.51
5686.00,0.51
5685.00,0.51
5684.00,0.51
5683.00,0.51
5682.00,0.51
5681.00,0.51
5680.00,0.51
5679.00,0.51
5678.00,0.51
5677.00,0.51
5676.00,0.51
5675.00,0.51
5674.00,0.51
5673.00,0.51
5672.00,0.51
5671.00,0.51
5670.00,0.51
5669.00,0.51
5668.00,0.51
5667.00,0.51
5666.00,0.51
5665.00,0.51
5664.00,0.51
5663.00,0.51
5662.00,0.51
5661.00,0.51
5660.00,0.51
5659.00,0.51
5658.00,0.51
5657.00,0.51
5656.00,0.51
5655.00,0.52
5654.00,0.52
5653.00,0.52
5652.00,0.52
5651.00,0.52
5650.00,0.52
5649.00,0.52
5648.00,0.52
5647.00,0.52
5646.00,0.52
5645.00,0.52
5644.00,0.52
5643.00,0.52
5642.00,0.52
5641.00,0.52
5640.00,0.52
5639.00,0.52
5638.00,0.53
5637.00,0.53
5636.00,0.53
5635.00,0.53
5634.00,0.53
5633.00,0.53
5632.00,0.53
5631.00,0.53
5630.00,0.53
5629.00,0.53
5628.00,0.53
5627.00,0.53
5626.00,0.53
5625.00,0.53
5624.00,0.53
5623.00,0.53
5622.00,0.53
5621.00,0.53
5620.00,0.53
5619.00,0.53
5618.00,0.54
5617.00,0.54
5616.00,0.54
5615.00,0.54
5614.00,0.54
5613.00,0.54
5612.00,0.54
5611.00,0.54
5610.00,0.54
5609.00,0.54
5608.00,0.54
5607.00,0.54
5606.00,0.54
5605.00,0.54
5604.00,0.54
5603.00,0.54
5602.00,0.54
5601.00,0.54
5600.00,0.54
5599.00,0.54
5598.00,0.54
5597.00,0.54
5596.00,0.54
5595.00,0.55
5594.00,0.55
5593.00,0.55
5592.00,0.55
5591.00,0.55
5590.00,0.55
5589.00,0.55
5588.00,0.55
5587.00,0.55
5586.00,0.55
5585.00,0.55
5584.00,0.55
5583.00,0.55
5582.00,0.55
5581.00,0.55
5580.00,0.55
5579.00,0.55
5578.00,0.56
5577.00,0.56
5576.00,0.56
5575.00,0.56
5574.00,0.56
5573.00,0.56
5572.00,0.56
5571.00,0.56
5570.00,0.56
5569.00,0.56
5568.00,0.56
5567.00,0.56
5566.00,0.56
5565.00,0.56
5564.00,0.56
5563.00,0.56
5562.00,0.57
5561.00,0.57
5560.00,0.57
5559.00,0.57
5558.00,0.57
5557.00,0.57
5556.00,0.57
5555.00,0.57
5554.00,0.57
5553.00,0.57
5552.00,0.57
5551.00,0.57
5550.00,0.57
5549.00,0.57
5548.00,0.57
5547.00,0.57
5546.00,0.57
5545.00,0.57
5544.00,0.57
5543.00,0.57
5542.00,0.57
5541.00,0.58
5540.00,0.58
5539.00,0.58
5538.00,0.58
5537.00,0.58
5536.00,0.58
5535.00,0.58
5534.00,0.58
5533.00,0.58
5532.00,0.58
5531.00,0.58
5530.00,0.58
5529.00,0.58
5528.00,0.58
5527.00,0.58
5526.00,0.58
5525.00,0.58
5524.00,0.58
5523.00,0.58
5522.00,0.58
5521.00,0.58
5520.00,0.58
5519.00,0.58
5518.00,0.58
5517.00,0.58
5516.00,0.58
5515.00,0.58
5514.00,0.58
5513.00,0.58
5512.00,0.58
5511.00,0.58
5510.00,0.58
5509.00,0.58
5508.00,0.58
5507.00,0.58
5506.00,0.58
5505.00,0.58
5504.00,0.58
5503.00,0.58
5502.00,0.58
5501.00,0.58
5500.00,0.58
5499.00,0.58
5498.00,0.58
5497.00,0.58
5496.00,0.58
5495.00,0.58
5494.00,0.58
5493.00,0.58
5492.00,0.58
5491.00,0.59
5490.00,0.59
5489.00,0.59
5488.00,0.59
5487.00,0.59
5486.00,0.59
5485.00,0.59
5484.00,0.59
5483.00,0.59
5482.00,0.59
5481.00,0.59
5480.00,0.59
5479.00,0.59
5478.00,0.59
5477.00,0.59
5476.00,0.59
5475.00,0.59
5474.00,0.59
5473.00,0.60
5472.00,0.60
5471.00,0.60
5470.00,0.60
5469.00,0.60
5468.00,0.60
5467.00,0.60
5466.00,0.60
5465.00,0.60
5464.00,0.60
5463.00,0.60
5462.00,0.60
5461.00,0.60
5460.00,0.60
5459.00,0.60
5458.00,0.60
5457.00,0.60
5456.00,0.60
5455.00,0.60
5454.00,0.60
5453.00,0.60
5452.00,0.60
5451.00,0.60
5450.00,0.60
5449.00,0.60
5448.00,0.60
5447.00,0.60
5446.00,0.60
5445.00,0.60
5444.00,0.60
5443.00,0.60
5442.00,0.60
5441.00,0.60
5440.00,0.60
5439.00,0.60
5438.00,0.60
5437.00,0.60
5436.00,0.60
5435.00,0.60
5434.00,0.60
5433.00,0.60
5432.00,0.60
5431.00,0.60
5430.00,0.60
5429.00,0.60
5428.00,0.60
5427.00,0.60
5426.00,0.60
5425.00,0.60
5424.00,0.60
5423.00,0.60
5422.00,0.60
5421.00,0.60
5420.00,0.60
5419.00,0.60
5418.00,0.60
5417.00,0.60
5416.00,0.60
5415.00,0.60
5414.00,0.60
5413.00,0.60
5412.00,0.60
5411.00,0.60
5410.00,0.60
5409.00,0.60
5408.00,0.60
5407.00,0.60
5406.00,0.60
5405.00,0.60
5404.00,0.60
5403.00,0.60
5402.00,0.60
5401.00,0.60
5400.00,0.60
5399.00,0.60
5398.00,0.60
5397.00,0.59
5396.00,0.59
5395.00,0.59
5394.00,0.59
5393.00,0.59
5392.00,0.59
5391.00,0.59
5390.00,0.59
5389.00,0.59
5388.00,0.59
5387.00,0.59
5386.00,0.58
5385.00,0.58
5384.00,0.58
5383.00,0.58
5382.00,0.58
5381.00,0.58
5380.00,0.57
5379.00,0.57
5378.00,0.57
5377.00,0.57
5376.00,0.57
5375.00,0.56
5374.00,0.56
5373.00,0.56
5372.00,0.56
5371.00,0.56
5370.00,0.55
5369.00,0.55
5368.00,0.55
5367.00,0.55
5366.00,0.54
5365.00,0.54
5364.00,0.54
5363.00,0.54
5362.00,0.53
5361.00,0.53
5360.00,0.53
5359.00,0.52
5358.00,0.52
5357.00,0.52
5356.00,0.51
5355.00,0.51
5354.00,0.50
5353.00,0.50
5352.00,0.50
5351.00,0.49
5350.00,0.49
5349.00,0.49
5348.00,0.48
5347.00,0.48
5346.00,0.47
5345.00,0.47
5344.00,0.46
5343.00,0.46
5342.00,0.46
5341.00,0.45
5340.00,0.45
5339.00,0.44
5338.00,0.44
5337.00,0.44
5336.00,0.43
5335.00,0.43
5334.00,0.42
5333.00,0.42
5332.00,0.41
5331.00,0.41
5330.00,0.41
5329.00,0.40
5328.00,0.40
5327.00,0.40
5326.00,0.39
5325.00,0.39
5324.00,0.39
5323.00,0.38
5322.00,0.38
5321.00,0.37
5320.00,0.37
5319.00,0.37
5318.00,0.36
5317.00,0.36
5316.00,0.36
5315.00,0.35
5314.00,0.35
5313.00,0.35
5312.00,0.34
5311.00,0.34
5310.00,0.34
5309.00,0.34
5308.00,0.33
5307.00,0.33
5306.00,0.33
5305.00,0.32
5304.00,0.32
5303.00,0.32
5302.00,0.32
5301.00,0.32
5300.00,0.31
5299.00,0.31
5298.00,0.31
5297.00,0.31
5296.00,0.31
5295.00,0.31
5294.00,0.31
5293.00,0.30
5292.00,0.30
5291.00,0.30
5290.00,0.30
5289.00,0.30
5288.00,0.30
5287.00,0.30
5286.00,0.30
5285.00,0.30
5284.00,0.30
5283.00,0.29
5282.00,0.29
5281.00,0.29
5280.00,0.29
5279.00,0.29
5278.00,0.29
5277.00,0.29
5276.00,0.29
5275.00,0.29
5274.00,0.29
5273.00,0.29
5272.00,0.29
5271.00,0.29
5270.00,0.29
5269.00,0.29
5268.00,0.29
5267.00,0.29
5266.00,0.29
5265.00,0.29
5264.00,0.29
5263.00,0.29
5262.00,0.29
5261.00,0.29
5260.00,0.29
5259.00,0.29
5258.00,0.29
5257.00,0.29
5256.00,0.29
5255.00,0.29
5254.00,0.29
5253.00,0.29
5252.00,0.29
5251.00,0.29
5250.00,0.29
5249.00,0.29
5248.00,0.29
5247.00,0.29
5246.00,0.29
5245.00,0.29
5244.00,0.29
5243.00,0.29
5242.00,0.29
5241.00,0.29
5240.00,0.29
5239.00,0.29
5238.00,0.29
5237.00,0.29
5236.00,0.29
5235.00,0.29
5234.00,0.29
5233.00,0.29
5232.00,0.29
5231.00,0.29
5230.00,0.29
5229.00,0.29
5228.00,0.29
5227.00,0.29
5226.00,0.29
5225.00,0.29
5224.00,0.29
5223.00,0.29
5222.00,0.29
5221.00,0.29
5220.00,0.29
5219.00,0.29
5218.00,0.29
5217.00,0.29
5216.00,0.29
5215.00,0.29
5214.00,0.29
5213.00,0.29
5212.00,0.29
5211.00,0.29
5210.00,0.29
5209.00,0.29
5208.00,0.29
5207.00,0.29
5206.00,0.29
5205.00,0.29
5204.00,0.29
5203.00,0.29
5202.00,0.29
5201.00,0.29
5200.00,0.29
5199.00,0.30
5198.00,0.30
5197.00,0.30
5196.00,0.30
5195.00,0.30
5194.00,0.30
5193.00,0.30
5192.00,0.30
5191.00,0.30
5190.00,0.30
5189.00,0.30
5188.00,0.30
5187.00,0.30
5186.00,0.30
5185.00,0.30
5184.00,0.30
5183.00,0.30
5182.00,0.30
5181.00,0.30
5180.00,0.30
5179.00,0.30
5178.00,0.30
5177.00,0.30
5176.00,0.30
5175.00,0.30
5174.00,0.30
5173.00,0.30
5172.00,0.30
5171.00,0.30
5170.00,0.30
5169.00,0.30
5168.00,0.30
5167.00,0.30
5166.00,0.30
5165.00,0.30
5164.00,0.30
5163.00,0.30
5162.00,0.30
5161.00,0.30
5160.00,0.30
5159.00,0.30
5158.00,0.30
5157.00,0.30
5156.00,0.30
5155.00,0.30
5154.00,0.30
5153.00,0.30
5152.00,0.30
5151.00,0.30
5150.00,0.30
5149.00,0.31
5148.00,0.31
5147.00,0.31
5146.00,0.31
5145.00,0.31
5144.00,0.31
5143.00,0.31
5142.00,0.31
5141.00,0.31
5140.00,0.31
5139.00,0.31
5138.00,0.31
5137.00,0.31
5136.00,0.31
5135.00,0.31
5134.00,0.31
5133.00,0.31
5132.00,0.31
5131.00,0.31
5130.00,0.31
5129.00,0.31
5128.00,0.31
5127.00,0.31
5126.00,0.31
5125.00,0.31
5124.00,0.31
5123.00,0.31
5122.00,0.31
5121.00,0.31
5120.00,0.31
5119.00,0.31
5118.00,0.31
5117.00,0.31
5116.00,0.31
5115.00,0.31
5114.00,0.31
5113.00,0.31
5112.00,0.31
5111.00,0.31
5110.00,0.31
5109.00,0.31
5108.00,0.31
5107.00,0.31
5106.00,0.31
5105.00,0.31
5104.00,0.32
5103.00,0.32
5102.00,0.32
5101.00,0.32
5100.00,0.32
5099.00,0.32
5098.00,0.32
5097.00,0.32
5096.00,0.32
5095.00,0.32
5094.00,0.32
5093.00,0.32
5092.00,0.32
5091.00,0.32
5090.00,0.32
5089.00,0.32
5088.00,0.32
5087.00,0.32
5086.00,0.32
5085.00,0.32
5084.00,0.32
5083.00,0.32
5082.00,0.32
5081.00,0.32
5080.00,0.32
5079.00,0.32
5078.00,0.32
5077.00,0.32
5076.00,0.32
5075.00,0.32
5074.00,0.32
5073.00,0.32
5072.00,0.32
5071.00,0.32
5070.00,0.32
5069.00,0.32
5068.00,0.32
5067.00,0.32
5066.00,0.32
5065.00,0.32
5064.00,0.32
5063.00,0.32
5062.00,0.32
5061.00,0.33
5060.00,0.33
5059.00,0.33
5058.00,0.33
5057.00,0.33
5056.00,0.33
5055.00,0.33
5054.00,0.33
5053.00,0.33
5052.00,0.33
5051.00,0.33
5050.00,0.33
5049.00,0.33
5048.00,0.33
5047.00,0.33
5046.00,0.33
5045.00,0.33
5044.00,0.33
5043.00,0.33
5042.00,0.33
5041.00,0.33
5040.00,0.33
5039.00,0.33
5038.00,0.33
5037.00,0.33
5036.00,0.33
5035.00,0.33
5034.00,0.33
5033.00,0.33
5032.00,0.33
5031.00,0.33
5030.00,0.33
5029.00,0.33
5028.00,0.33
5027.00,0.33
5026.00,0.33
5025.00,0.33
5024.00,0.34
5023.00,0.34
5022.00,0.34
5021.00,0.34
5020.00,0.34
5019.00,0.34
5018.00,0.34
5017.00,0.34
5016.00,0.34
5015.00,0.34
5014.00,0.34
5013.00,0.34
5012.00,0.34
5011.00,0.34
5010.00,0.34
5009.00,0.34
5008.00,0.34
5007.00,0.34
5006.00,0.34
5005.00,0.34
5004.00,0.34
5003.00,0.34
5002.00,0.34
5001.00,0.34
5000.00,0.34
4999.00,0.34
4998.00,0.34
4997.00,0.35
4996.00,0.35
4995.00,0.35
4994.00,0.35
4993.00,0.35
4992.00,0.35
4991.00,0.35
4990.00,0.35
4989.00,0.35
4988.00,0.35
4987.00,0.35
4986.00,0.35
4985.00,0.35
4984.00,0.35
4983.00,0.35
4982.00,0.35
4981.00,0.35
4980.00,0.35
4979.00,0.35
4978.00,0.35
4977.00,0.35
4976.00,0.35
4975.00,0.35
4974.00,0.35
4973.00,0.35
4972.00,0.35
4971.00,0.35
4970.00,0.35
4969.00,0.35
4968.00,0.35
4967.00,0.35
4966.00,0.35
4965.00,0.35
4964.00,0.35
4963.00,0.35
4962.00,0.36
4961.00,0.36
4960.00,0.36
4959.00,0.36
4958.00,0.36
4957.00,0.36
4956.00,0.36
4955.00,0.36
4954.00,0.36
4953.00,0.36
4952.00,0.36
4951.00,0.36
4950.00,0.36
4949.00,0.36
4948.00,0.36
4947.00,0.36
4946.00,0.36
4945.00,0.36
4944.00,0.36
4943.00,0.36
4942.00,0.36
4941.00,0.36
4940.00,0.36
4939.00,0.36
4938.00,0.36
4937.00,0.36
4936.00,0.36
4935.00,0.36
4934.00,0.36
4933.00,0.36
4932.00,0.37
4931.00,0.37
4930.00,0.37
4929.00,0.37
4928.00,0.37
4927.00,0.37
4926.00,0.37
4925.00,0.37
4924.00,0.37
4923.00,0.37
4922.00,0.37
4921.00,0.37
4920.00,0.37
4919.00,0.37
4918.00,0.37
4917.00,0.37
4916.00,0.37
4915.00,0.37
4914.00,0.37
4913.00,0.37
4912.00,0.37
4911.00,0.37
4910.00,0.37
4909.00,0.37
4908.00,0.37
4907.00,0.37
4906.00,0.37
4905.00,0.37
4904.00,0.37
4903.00,0.37
4902.00,0.38
4901.00,0.38
4900.00,0.38
4899.00,0.38
4898.00,0.38
4897.00,0.38
4896.00,0.38
4895.00,0.38
4894.00,0.38
4893.00,0.38
4892.00,0.38
4891.00,0.38
4890.00,0.38
4889.00,0.38
4888.00,0.38
4887.00,0.38
4886.00,0.38
4885.00,0.38
4884.00,0.38
4883.00,0.38
4882.00,0.39
4881.00,0.39
4880.00,0.39
4879.00,0.39
4878.00,0.39
4877.00,0.39
4876.00,0.39
4875.00,0.39
4874.00,0.39
4873.00,0.39
4872.00,0.39
4871.00,0.39
4870.00,0.39
4869.00,0.39
4868.00,0.39
4867.00,0.39
4866.00,0.39
4865.00,0.39
4864.00,0.39
4863.00,0.39
4862.00,0.39
4861.00,0.39
4860.00,0.39
4859.00,0.39
4858.00,0.39
4857.00,0.39
4856.00,0.39
4855.00,0.39
4854.00,0.39
4853.00,0.39
4852.00,0.39
4851.00,0.39
4850.00,0.39
4849.00,0.39
4848.00,0.39
4847.00,0.39
4846.00,0.39
4845.00,0.39
4844.00,0.39
4843.00,0.40
4842.00,0.40
4841.00,0.40
4840.00,0.40
4839.00,0.40
4838.00,0.40
4837.00,0.40
4836.00,0.40
4835.00,0.40
4834.00,0.40
4833.00,0.40
4832.00,0.40
4831.00,0.40
4830.00,0.40
4829.00,0.40
4828.00,0.40
4827.00,0.40
4826.00,0.40
4825.00,0.40
4824.00,0.40
4823.00,0.40
4822.00,0.40
4821.00,0.41
4820.00,0.41
4819.00,0.41
4818.00,0.41
4817.00,0.41
4816.00,0.41
4815.00,0.41
4814.00,0.41
4813.00,0.41
4812.00,0.41
4811.00,0.41
4810.00,0.41
4809.00,0.41
4808.00,0.41
4807.00,0.42
4806.00,0.42
4805.00,0.42
4804.00,0.42
4803.00,0.42
4802.00,0.42
4801.00,0.42
4800.00,0.42
4799.00,0.42
4798.00,0.42
4797.00,0.42
4796.00,0.42
4795.00,0.42
4794.00,0.42
4793.00,0.42
4792.00,0.42
4791.00,0.42
4790.00,0.42
4789.00,0.42
4788.00,0.42
4787.00,0.42
4786.00,0.42
4785.00,0.42
4784.00,0.42
4783.00,0.42
4782.00,0.42
4781.00,0.42
4780.00,0.42
4779.00,0.42
4778.00,0.42
4777.00,0.42
4776.00,0.42
4775.00,0.42
4774.00,0.43
4773.00,0.43
4772.00,0.43
4771.00,0.43
4770.00,0.43
4769.00,0.43
4768.00,0.43
4767.00,0.43
4766.00,0.43
4765.00,0.43
4764.00,0.43
4763.00,0.43
4762.00,0.43
4761.00,0.43
4760.00,0.43
4759.00,0.44
4758.00,0.44
4757.00,0.44
4756.00,0.44
4755.00,0.44
4754.00,0.44
4753.00,0.44
4752.00,0.44
4751.00,0.44
4750.00,0.44
4749.00,0.44
4748.00,0.44
4747.00,0.44
4746.00,0.44
4745.00,0.44
4744.00,0.44
4743.00,0.44
4742.00,0.44
4741.00,0.44
4740.00,0.45
4739.00,0.45
4738.00,0.45
4737.00,0.45
4736.00,0.45
4735.00,0.45
4734.00,0.45
4733.00,0.45
4732.00,0.45
4731.00,0.45
4730.00,0.45
4729.00,0.45
4728.00,0.45
4727.00,0.46
4726.00,0.46
4725.00,0.46
4724.00,0.46
4723.00,0.46
4722.00,0.46
4721.00,0.46
4720.00,0.46
4719.00,0.46
4718.00,0.46
4717.00,0.46
4716.00,0.46
4715.00,0.46
4714.00,0.46
4713.00,0.46
4712.00,0.46
4711.00,0.46
4710.00,0.46
4709.00,0.47
4708.00,0.47
4707.00,0.47
4706.00,0.47
4705.00,0.47
4704.00,0.47
4703.00,0.47
4702.00,0.47
4701.00,0.47
4700.00,0.47
4699.00,0.47
4698.00,0.48
4697.00,0.48
4696.00,0.48
4695.00,0.48
4694.00,0.48
4693.00,0.48
4692.00,0.48
4691.00,0.48
4690.00,0.48
4689.00,0.48
4688.00,0.48
4687.00,0.48
4686.00,0.48
4685.00,0.48
4684.00,0.48
4683.00,0.48
4682.00,0.49
4681.00,0.49
4680.00,0.49
4679.00,0.49
4678.00,0.49
4677.00,0.49
4676.00,0.49
4675.00,0.49
4674.00,0.49
4673.00,0.49
4672.00,0.49
4671.00,0.49
4670.00,0.49
4669.00,0.49
4668.00,0.49
4667.00,0.49
4666.00,0.49
4665.00,0.49
4664.00,0.49
4663.00,0.49
4662.00,0.49
4661.00,0.49
4660.00,0.49
4659.00,0.49
4658.00,0.50
4657.00,0.50
4656.00,0.50
4655.00,0.50
4654.00,0.50
4653.00,0.50
4652.00,0.50
4651.00,0.50
4650.00,0.50
4649.00,0.50
4648.00,0.50
4647.00,0.50
4646.00,0.50
4645.00,0.50
4644.00,0.50
4643.00,0.50
4642.00,0.51
4641.00,0.51
4640.00,0.51
4639.00,0.51
4638.00,0.51
4637.00,0.51
4636.00,0.51
4635.00,0.51
4634.00,0.51
4633.00,0.51
4632.00,0.51
4631.00,0.51
4630.00,0.51
4629.00,0.51
4628.00,0.51
4627.00,0.52
4626.00,0.52
4625.00,0.52
4624.00,0.52
4623.00,0.52
4622.00,0.52
4621.00,0.52
4620.00,0.52
4619.00,0.52
4618.00,0.52
4617.00,0.52
4616.00,0.52
4615.00,0.52
4614.00,0.52
4613.00,0.52
4612.00,0.52
4611.00,0.52
4610.00,0.52
4609.00,0.52
4608.00,0.52
4607.00,0.52
4606.00,0.52
4605.00,0.52
4604.00,0.52
4603.00,0.52
4602.00,0.53
4601.00,0.53
4600.00,0.53
4599.00,0.53
4598.00,0.53
4597.00,0.53
4596.00,0.53
4595.00,0.53
4594.00,0.53
4593.00,0.53
4592.00,0.53
4591.00,0.53
4590.00,0.53
4589.00,0.53
4588.00,0.53
4587.00,0.53
4586.00,0.53
4585.00,0.53
4584.00,0.53
4583.00,0.53
4582.00,0.53
4581.00,0.53
4580.00,0.53
4579.00,0.53
4578.00,0.53
4577.00,0.53
4576.00,0.53
4575.00,0.53
4574.00,0.53
4573.00,0.54
4572.00,0.54
4571.00,0.54
4570.00,0.54
4569.00,0.54
4568.00,0.54
4567.00,0.54
4566.00,0.54
4565.00,0.54
4564.00,0.54
4563.00,0.54
4562.00,0.54
4561.00,0.54
4560.00,0.54
4559.00,0.54
4558.00,0.54
4557.00,0.54
4556.00,0.54
4555.00,0.54
4554.00,0.54
4553.00,0.54
4552.00,0.54
4551.00,0.54
4550.00,0.54
4549.00,0.54
4548.00,0.54
4547.00,0.55
4546.00,0.55
4545.00,0.55
4544.00,0.55
4543.00,0.55
4542.00,0.55
4541.00,0.55
4540.00,0.55
4539.00,0.55
4538.00,0.55
4537.00,0.55
4536.00,0.55
4535.00,0.55
4534.00,0.55
4533.00,0.55
4532.00,0.55
4531.00,0.55
4530.00,0.55
4529.00,0.55
4528.00,0.55
4527.00,0.55
4526.00,0.55
4525.00,0.55
4524.00,0.55
4523.00,0.55
4522.00,0.55
4521.00,0.55
4520.00,0.56
4519.00,0.56
4518.00,0.56
4517.00,0.56
4516.00,0.56
4515.00,0.56
4514.00,0.56
4513.00,0.56
4512.00,0.56
4511.00,0.56
4510.00,0.56
4509.00,0.55
4508.00,0.55
4507.00,0.55
4506.00,0.55
4505.00,0.55
4504.00,0.55
4503.00,0.55
4502.00,0.55
4501.00,0.55
4500.00,0.55
4499.00,0.55
4498.00,0.55
4497.00,0.55
4496.00,0.55
4495.00,0.55
4494.00,0.55
4493.00,0.55
4492.00,0.55
4491.00,0.55
4490.00,0.55
4489.00,0.55
4488.00,0.55
4487.00,0.55
4486.00,0.55
4485.00,0.55
4484.00,0.55
4483.00,0.55
4482.00,0.55
4481.00,0.55
4480.00,0.55
4479.00,0.55
4478.00,0.55
4477.00,0.55
4476.00,0.55
4475.00,0.55
4474.00,0.55
4473.00,0.54
4472.00,0.54
4471.00,0.54
4470.00,0.54
4469.00,0.54
4468.00,0.54
4467.00,0.54
4466.00,0.54
4465.00,0.54
4464.00,0.54
4463.00,0.53
4462.00,0.53
4461.00,0.53
4460.00,0.53
4459.00,0.53
4458.00,0.53
4457.00,0.53
4456.00,0.53
4455.00,0.53
4454.00,0.52
4453.00,0.52
4452.00,0.52
4451.00,0.52
4450.00,0.52
4449.00,0.52
4448.00,0.52
4447.00,0.51
4446.00,0.51
4445.00,0.51
4444.00,0.51
4443.00,0.51
4442.00,0.51
4441.00,0.50
4440.00,0.50
4439.00,0.50
4438.00,0.50
4437.00,0.50
4436.00,0.50
4435.00,0.49
4434.00,0.49
4433.00,0.49
4432.00,0.49
4431.00,0.49
4430.00,0.49
4429.00,0.48
4428.00,0.48
4427.00,0.48
4426.00,0.48
4425.00,0.48
4424.00,0.48
4423.00,0.48
4422.00,0.48
4421.00,0.48
4420.00,0.48
4419.00,0.48
4418.00,0.48
4417.00,0.48
4416.00,0.48
4415.00,0.48
4414.00,0.48
4413.00,0.48
4412.00,0.48
4411.00,0.48
4410.00,0.48
4409.00,0.48
4408.00,0.48
4407.00,0.48
4406.00,0.48
4405.00,0.48
4404.00,0.48
4403.00,0.48
4402.00,0.48
4401.00,0.49
4400.00,0.49
4399.00,0.49
4398.00,0.49
4397.00,0.49
4396.00,0.49
4395.00,0.49
4394.00,0.49
4393.00,0.49
4392.00,0.49
4391.00,0.49
4390.00,0.49
4389.00,0.49
4388.00,0.49
4387.00,0.49
4386.00,0.50
4385.00,0.50
4384.00,0.50
4383.00,0.50
4382.00,0.50
4381.00,0.50
4380.00,0.50
4379.00,0.50
4378.00,0.50
4377.00,0.50
4376.00,0.50
4375.00,0.50
4374.00,0.50
4373.00,0.50
4372.00,0.50
4371.00,0.50
4370.00,0.50
4369.00,0.50
4368.00,0.50
4367.00,0.50
4366.00,0.50
4365.00,0.50
4364.00,0.50
4363.00,0.50
4362.00,0.50
4361.00,0.50
4360.00,0.50
4359.00,0.50
4358.00,0.50
4357.00,0.50
4356.00,0.50
4355.00,0.50
4354.00,0.50
4353.00,0.50
4352.00,0.50
4351.00,0.50
4350.00,0.50
4349.00,0.50
4348.00,0.50
4347.00,0.50
4346.00,0.50
4345.00,0.50
4344.00,0.50
4343.00,0.50
4342.00,0.50
4341.00,0.50
4340.00,0.50
4339.00,0.50
4338.00,0.50
4337.00,0.50
4336.00,0.50
4335.00,0.50
4334.00,0.50
4333.00,0.50
4332.00,0.50
4331.00,0.50
4330.00,0.50
4329.00,0.50
4328.00,0.50
4327.00,0.50
4326.00,0.50
4325.00,0.50
4324.00,0.50
4323.00,0.50
4322.00,0.50
4321.00,0.50
4320.00,0.50
4319.00,0.51
4318.00,0.51
4317.00,0.51
4316.00,0.51
4315.00,0.51
4314.00,0.51
4313.00,0.51
4312.00,0.51
4311.00,0.51
4310.00,0.51
4309.00,0.51
4308.00,0.51
4307.00,0.51
4306.00,0.51
4305.00,0.51
4304.00,0.52
4303.00,0.52
4302.00,0.52
4301.00,0.52
4300.00,0.52
4299.00,0.52
4298.00,0.52
4297.00,0.52
4296.00,0.52
4295.00,0.53
4294.00,0.53
4293.00,0.53
4292.00,0.53
4291.00,0.53
4290.00,0.53
4289.00,0.53
4288.00,0.53
4287.00,0.53
4286.00,0.53
4285.00,0.54
4284.00,0.54
4283.00,0.54
4282.00,0.54
4281.00,0.54
4280.00,0.54
4279.00,0.54
4278.00,0.54
4277.00,0.54
4276.00,0.53
4275.00,0.53
4274.00,0.53
4273.00,0.53
4272.00,0.53
4271.00,0.53
4270.00,0.53
4269.00,0.53
4268.00,0.53
4267.00,0.53
4266.00,0.53
4265.00,0.53
4264.00,0.53
4263.00,0.53
4262.00,0.53
4261.00,0.53
4260.00,0.53
4259.00,0.53
4258.00,0.53
4257.00,0.53
4256.00,0.53
4255.00,0.53
4254.00,0.53
4253.00,0.53
4252.00,0.53
4251.00,0.53
4250.00,0.53
4249.00,0.53
4248.00,0.53
4247.00,0.53
4246.00,0.54
4245.00,0.54
4244.00,0.54
4243.00,0.54
4242.00,0.54
4241.00,0.54
4240.00,0.54
4239.00,0.54
4238.00,0.54
4237.00,0.54
4236.00,0.54
4235.00,0.54
4234.00,0.54
4233.00,0.54
4232.00,0.54
4231.00,0.54
4230.00,0.54
4229.00,0.54
4228.00,0.54
4227.00,0.54
4226.00,0.54
4225.00,0.54
4224.00,0.54
4223.00,0.54
4222.00,0.54
4221.00,0.54
4220.00,0.54
4219.00,0.54
4218.00,0.54
4217.00,0.54
4216.00,0.54
4215.00,0.54
4214.00,0.54
4213.00,0.54
4212.00,0.54
4211.00,0.55
4210.00,0.55
4209.00,0.55
4208.00,0.55
4207.00,0.55
4206.00,0.55
4205.00,0.55
4204.00,0.55
4203.00,0.55
4202.00,0.55
4201.00,0.55
4200.00,0.55
4199.00,0.55
4198.00,0.55
4197.00,0.55
4196.00,0.55
4195.00,0.55
4194.00,0.55
4193.00,0.55
4192.00,0.55
4191.00,0.55
4190.00,0.55
4189.00,0.55
4188.00,0.55
4187.00,0.55
4186.00,0.55
4185.00,0.55
4184.00,0.55
4183.00,0.55
4182.00,0.55
4181.00,0.55
4180.00,0.55
4179.00,0.55
4178.00,0.55
4177.00,0.55
4176.00,0.55
4175.00,0.55
4174.00,0.55
4173.00,0.55
4172.00,0.55
4171.00,0.55
4170.00,0.55
4169.00,0.55
4168.00,0.55
4167.00,0.55
4166.00,0.55
4165.00,0.55
4164.00,0.55
4163.00,0.56
4162.00,0.56
4161.00,0.56
4160.00,0.56
4159.00,0.56
4158.00,0.56
4157.00,0.56
4156.00,0.56
4155.00,0.56
4154.00,0.56
4153.00,0.56
4152.00,0.56
4151.00,0.56
4150.00,0.56
4149.00,0.56
4148.00,0.56
4147.00,0.56
4146.00,0.56
4145.00,0.56
4144.00,0.56
4143.00,0.56
4142.00,0.56
4141.00,0.56
4140.00,0.56
4139.00,0.56
4138.00,0.56
4137.00,0.56
4136.00,0.56
4135.00,0.56
4134.00,0.56
4133.00,0.56
4132.00,0.56
4131.00,0.56
4130.00,0.56
4129.00,0.56
4128.00,0.56
4127.00,0.56
4126.00,0.56
4125.00,0.56
4124.00,0.56
4123.00,0.56
4122.00,0.56
4121.00,0.56
4120.00,0.56
4119.00,0.56
4118.00,0.56
4117.00,0.56
4116.00,0.56
4115.00,0.56
4114.00,0.56
4113.00,0.56
4112.00,0.56
4111.00,0.56
4110.00,0.56
4109.00,0.56
4108.00,0.56
4107.00,0.56
4106.00,0.56
4105.00,0.56
4104.00,0.56
4103.00,0.56
4102.00,0.56
4101.00,0.56
4100.00,0.56
4099.00,0.56
4098.00,0.56
4097.00,0.57
4096.00,0.57
4095.00,0.57
4094.00,0.57
4093.00,0.57
4092.00,0.57
4091.00,0.57
4090.00,0.57
4089.00,0.57
4088.00,0.57
4087.00,0.57
4086.00,0.57
4085.00,0.57
4084.00,0.57
4083.00,0.57
4082.00,0.57
4081.00,0.57
4080.00,0.57
4079.00,0.57
4078.00,0.57
4077.00,0.57
4076.00,0.57
4075.00,0.57
4074.00,0.57
4073.00,0.57
4072.00,0.57
4071.00,0.57
4070.00,0.57
4069.00,0.57
4068.00,0.57
4067.00,0.57
4066.00,0.57
4065.00,0.58
4064.00,0.58
4063.00,0.58
4062.00,0.58
4061.00,0.58
4060.00,0.58
4059.00,0.58
4058.00,0.58
4057.00,0.58
4056.00,0.58
4055.00,0.58
4054.00,0.58
4053.00,0.58
4052.00,0.58
4051.00,0.58
4050.00,0.58
4049.00,0.58
4048.00,0.58
4047.00,0.58
4046.00,0.58
4045.00,0.58
4044.00,0.58
4043.00,0.58
4042.00,0.58
4041.00,0.58
4040.00,0.58
4039.00,0.58
4038.00,0.58
4037.00,0.58
4036.00,0.58
4035.00,0.58
4034.00,0.58
4033.00,0.58
4032.00,0.58
4031.00,0.58
4030.00,0.58
4029.00,0.58
4028.00,0.58
4027.00,0.58
4026.00,0.58
4025.00,0.58
4024.00,0.58
4023.00,0.58
4022.00,0.58
4021.00,0.58
4020.00,0.58
4019.00,0.58
4018.00,0.58
4017.00,0.58
4016.00,0.59
4015.00,0.59
4014.00,0.59
4013.00,0.59
4012.00,0.59
4011.00,0.59
4010.00,0.59
4009.00,0.59
4008.00,0.60
4007.00,0.60
4006.00,0.60
4005.00,0.60
4004.00,0.60
4003.00,0.60
4002.00,0.60
4001.00,0.60
4000.00,0.60
