创建为新数据集,样品 452 用户 Administrator 日期 星期日, 七月 15 2018
cm-1,%T
10000.00,0.56
9999.00,0.56
9998.00,0.56
9997.00,0.55
9996.00,0.55
9995.00,0.55
9994.00,0.55
9993.00,0.55
9992.00,0.54
9991.00,0.54
9990.00,0.54
9989.00,0.54
9988.00,0.54
9987.00,0.54
9986.00,0.54
9985.00,0.54
9984.00,0.54
9983.00,0.54
9982.00,0.54
9981.00,0.54
9980.00,0.55
9979.00,0.55
9978.00,0.55
9977.00,0.56
9976.00,0.56
9975.00,0.56
9974.00,0.57
9973.00,0.57
9972.00,0.57
9971.00,0.57
9970.00,0.58
9969.00,0.58
9968.00,0.58
9967.00,0.58
9966.00,0.58
9965.00,0.58
9964.00,0.58
9963.00,0.57
9962.00,0.57
9961.00,0.57
9960.00,0.56
9959.00,0.56
9958.00,0.55
9957.00,0.54
9956.00,0.54
9955.00,0.53
9954.00,0.53
9953.00,0.52
9952.00,0.52
9951.00,0.51
9950.00,0.51
9949.00,0.51
9948.00,0.50
9947.00,0.50
9946.00,0.50
9945.00,0.50
9944.00,0.50
9943.00,0.50
9942.00,0.50
9941.00,0.49
9940.00,0.49
9939.00,0.49
9938.00,0.49
9937.00,0.49
9936.00,0.49
9935.00,0.49
9934.00,0.49
9933.00,0.49
9932.00,0.49
9931.00,0.48
9930.00,0.48
9929.00,0.48
9928.00,0.48
9927.00,0.48
9926.00,0.48
9925.00,0.48
9924.00,0.49
9923.00,0.49
9922.00,0.49
9921.00,0.49
9920.00,0.49
9919.00,0.49
9918.00,0.49
9917.00,0.49
9916.00,0.50
9915.00,0.50
9914.00,0.50
9913.00,0.50
9912.00,0.51
9911.00,0.51
9910.00,0.51
9909.00,0.51
9908.00,0.51
9907.00,0.51
9906.00,0.52
9905.00,0.52
9904.00,0.52
9903.00,0.52
9902.00,0.52
9901.00,0.52
9900.00,0.53
9899.00,0.53
9898.00,0.53
9897.00,0.53
9896.00,0.54
9895.00,0.54
9894.00,0.54
9893.00,0.54
9892.00,0.54
9891.00,0.55
9890.00,0.55
9889.00,0.55
9888.00,0.55
9887.00,0.55
9886.00,0.55
9885.00,0.55
9884.00,0.55
9883.00,0.55
9882.00,0.54
9881.00,0.54
9880.00,0.54
9879.00,0.54
9878.00,0.53
9877.00,0.53
9876.00,0.52
9875.00,0.52
9874.00,0.52
9873.00,0.51
9872.00,0.51
9871.00,0.51
9870.00,0.51
9869.00,0.51
9868.00,0.51
9867.00,0.51
9866.00,0.51
9865.00,0.51
9864.00,0.51
9863.00,0.51
9862.00,0.52
9861.00,0.52
9860.00,0.52
9859.00,0.53
9858.00,0.53
9857.00,0.53
9856.00,0.53
9855.00,0.54
9854.00,0.54
9853.00,0.54
9852.00,0.54
9851.00,0.54
9850.00,0.54
9849.00,0.54
9848.00,0.54
9847.00,0.54
9846.00,0.54
9845.00,0.54
9844.00,0.54
9843.00,0.54
9842.00,0.54
9841.00,0.54
9840.00,0.54
9839.00,0.54
9838.00,0.54
9837.00,0.54
9836.00,0.54
9835.00,0.54
9834.00,0.54
9833.00,0.54
9832.00,0.54
9831.00,0.54
9830.00,0.54
9829.00,0.54
9828.00,0.54
9827.00,0.54
9826.00,0.54
9825.00,0.54
9824.00,0.54
9823.00,0.54
9822.00,0.55
9821.00,0.55
9820.00,0.55
9819.00,0.55
9818.00,0.55
9817.00,0.55
9816.00,0.55
9815.00,0.56
9814.00,0.56
9813.00,0.56
9812.00,0.56
9811.00,0.56
9810.00,0.55
9809.00,0.55
9808.00,0.55
9807.00,0.55
9806.00,0.55
9805.00,0.54
9804.00,0.54
9803.00,0.54
9802.00,0.54
9801.00,0.53
9800.00,0.53
9799.00,0.53
9798.00,0.52
9797.00,0.52
9796.00,0.52
9795.00,0.52
9794.00,0.52
9793.00,0.52
9792.00,0.51
9791.00,0.51
9790.00,0.51
9789.00,0.52
9788.00,0.52
9787.00,0.52
9786.00,0.52
9785.00,0.52
9784.00,0.53
9783.00,0.53
9782.00,0.53
9781.00,0.53
9780.00,0.54
9779.00,0.54
9778.00,0.54
9777.00,0.55
9776.00,0.55
9775.00,0.55
9774.00,0.55
9773.00,0.55
9772.00,0.55
9771.00,0.55
9770.00,0.55
9769.00,0.55
9768.00,0.55
9767.00,0.55
9766.00,0.54
9765.00,0.54
9764.00,0.54
9763.00,0.54
9762.00,0.54
9761.00,0.53
9760.00,0.53
9759.00,0.53
9758.00,0.53
9757.00,0.53
9756.00,0.53
9755.00,0.53
9754.00,0.53
9753.00,0.53
9752.00,0.53
9751.00,0.53
9750.00,0.53
9749.00,0.53
9748.00,0.53
9747.00,0.53
9746.00,0.53
9745.00,0.53
9744.00,0.53
9743.00,0.53
9742.00,0.53
9741.00,0.53
9740.00,0.53
9739.00,0.52
9738.00,0.52
9737.00,0.52
9736.00,0.52
9735.00,0.52
9734.00,0.52
9733.00,0.52
9732.00,0.52
9731.00,0.51
9730.00,0.51
9729.00,0.51
9728.00,0.51
9727.00,0.51
9726.00,0.51
9725.00,0.51
9724.00,0.51
9723.00,0.51
9722.00,0.51
9721.00,0.51
9720.00,0.51
9719.00,0.51
9718.00,0.51
9717.00,0.51
9716.00,0.51
9715.00,0.51
9714.00,0.51
9713.00,0.51
9712.00,0.51
9711.00,0.51
9710.00,0.51
9709.00,0.51
9708.00,0.52
9707.00,0.52
9706.00,0.52
9705.00,0.52
9704.00,0.52
9703.00,0.53
9702.00,0.53
9701.00,0.53
9700.00,0.53
9699.00,0.53
9698.00,0.53
9697.00,0.54
9696.00,0.54
9695.00,0.54
9694.00,0.54
9693.00,0.54
9692.00,0.54
9691.00,0.54
9690.00,0.54
9689.00,0.55
9688.00,0.55
9687.00,0.55
9686.00,0.55
9685.00,0.55
9684.00,0.55
9683.00,0.55
9682.00,0.55
9681.00,0.55
9680.00,0.55
9679.00,0.55
9678.00,0.55
9677.00,0.55
9676.00,0.54
9675.00,0.54
9674.00,0.54
9673.00,0.54
9672.00,0.54
9671.00,0.53
9670.00,0.53
9669.00,0.53
9668.00,0.52
9667.00,0.52
9666.00,0.52
9665.00,0.52
9664.00,0.52
9663.00,0.51
9662.00,0.51
9661.00,0.51
9660.00,0.51
9659.00,0.51
9658.00,0.51
9657.00,0.51
9656.00,0.51
9655.00,0.51
9654.00,0.51
9653.00,0.51
9652.00,0.51
9651.00,0.51
9650.00,0.51
9649.00,0.51
9648.00,0.51
9647.00,0.51
9646.00,0.52
9645.00,0.52
9644.00,0.52
9643.00,0.52
9642.00,0.52
9641.00,0.52
9640.00,0.53
9639.00,0.53
9638.00,0.53
9637.00,0.53
9636.00,0.53
9635.00,0.53
9634.00,0.53
9633.00,0.53
9632.00,0.53
9631.00,0.53
9630.00,0.53
9629.00,0.52
9628.00,0.52
9627.00,0.52
9626.00,0.52
9625.00,0.51
9624.00,0.51
9623.00,0.51
9622.00,0.51
9621.00,0.50
9620.00,0.50
9619.00,0.50
9618.00,0.50
9617.00,0.50
9616.00,0.50
9615.00,0.50
9614.00,0.50
9613.00,0.50
9612.00,0.50
9611.00,0.50
9610.00,0.50
9609.00,0.50
9608.00,0.50
9607.00,0.51
9606.00,0.51
9605.00,0.51
9604.00,0.51
9603.00,0.51
9602.00,0.51
9601.00,0.51
9600.00,0.51
9599.00,0.51
9598.00,0.51
9597.00,0.51
9596.00,0.51
9595.00,0.51
9594.00,0.51
9593.00,0.51
9592.00,0.51
9591.00,0.51
9590.00,0.51
9589.00,0.51
9588.00,0.51
9587.00,0.51
9586.00,0.51
9585.00,0.51
9584.00,0.51
9583.00,0.51
9582.00,0.51
9581.00,0.51
9580.00,0.51
9579.00,0.51
9578.00,0.51
9577.00,0.52
9576.00,0.52
9575.00,0.52
9574.00,0.52
9573.00,0.52
9572.00,0.52
9571.00,0.53
9570.00,0.53
9569.00,0.53
9568.00,0.53
9567.00,0.53
9566.00,0.53
9565.00,0.54
9564.00,0.54
9563.00,0.54
9562.00,0.54
9561.00,0.54
9560.00,0.54
9559.00,0.53
9558.00,0.53
9557.00,0.53
9556.00,0.53
9555.00,0.53
9554.00,0.53
9553.00,0.53
9552.00,0.53
9551.00,0.53
9550.00,0.52
9549.00,0.52
9548.00,0.52
9547.00,0.52
9546.00,0.52
9545.00,0.52
9544.00,0.52
9543.00,0.52
9542.00,0.52
9541.00,0.52
9540.00,0.53
9539.00,0.53
9538.00,0.53
9537.00,0.53
9536.00,0.53
9535.00,0.53
9534.00,0.52
9533.00,0.52
9532.00,0.52
9531.00,0.52
9530.00,0.52
9529.00,0.52
9528.00,0.52
9527.00,0.52
9526.00,0.52
9525.00,0.52
9524.00,0.52
9523.00,0.52
9522.00,0.52
9521.00,0.52
9520.00,0.52
9519.00,0.52
9518.00,0.52
9517.00,0.52
9516.00,0.51
9515.00,0.51
9514.00,0.51
9513.00,0.51
9512.00,0.51
9511.00,0.51
9510.00,0.51
9509.00,0.51
9508.00,0.51
9507.00,0.51
9506.00,0.51
9505.00,0.51
9504.00,0.51
9503.00,0.51
9502.00,0.51
9501.00,0.51
9500.00,0.51
9499.00,0.51
9498.00,0.51
9497.00,0.51
9496.00,0.51
9495.00,0.51
9494.00,0.51
9493.00,0.51
9492.00,0.51
9491.00,0.51
9490.00,0.51
9489.00,0.51
9488.00,0.51
9487.00,0.51
9486.00,0.51
9485.00,0.51
9484.00,0.51
9483.00,0.52
9482.00,0.52
9481.00,0.52
9480.00,0.52
9479.00,0.52
9478.00,0.52
9477.00,0.52
9476.00,0.53
9475.00,0.53
9474.00,0.53
9473.00,0.53
9472.00,0.53
9471.00,0.53
9470.00,0.53
9469.00,0.53
9468.00,0.53
9467.00,0.53
9466.00,0.53
9465.00,0.53
9464.00,0.53
9463.00,0.53
9462.00,0.53
9461.00,0.53
9460.00,0.54
9459.00,0.54
9458.00,0.54
9457.00,0.54
9456.00,0.55
9455.00,0.55
9454.00,0.55
9453.00,0.55
9452.00,0.55
9451.00,0.56
9450.00,0.56
9449.00,0.56
9448.00,0.56
9447.00,0.55
9446.00,0.55
9445.00,0.55
9444.00,0.55
9443.00,0.55
9442.00,0.54
9441.00,0.54
9440.00,0.54
9439.00,0.54
9438.00,0.53
9437.00,0.53
9436.00,0.53
9435.00,0.53
9434.00,0.53
9433.00,0.52
9432.00,0.52
9431.00,0.52
9430.00,0.52
9429.00,0.52
9428.00,0.52
9427.00,0.52
9426.00,0.52
9425.00,0.52
9424.00,0.52
9423.00,0.52
9422.00,0.52
9421.00,0.52
9420.00,0.52
9419.00,0.52
9418.00,0.53
9417.00,0.53
9416.00,0.53
9415.00,0.53
9414.00,0.53
9413.00,0.54
9412.00,0.54
9411.00,0.54
9410.00,0.54
9409.00,0.54
9408.00,0.54
9407.00,0.55
9406.00,0.55
9405.00,0.55
9404.00,0.55
9403.00,0.55
9402.00,0.55
9401.00,0.55
9400.00,0.54
9399.00,0.54
9398.00,0.54
9397.00,0.54
9396.00,0.54
9395.00,0.54
9394.00,0.54
9393.00,0.54
9392.00,0.54
9391.00,0.54
9390.00,0.54
9389.00,0.54
9388.00,0.54
9387.00,0.54
9386.00,0.54
9385.00,0.54
9384.00,0.54
9383.00,0.54
9382.00,0.55
9381.00,0.55
9380.00,0.55
9379.00,0.55
9378.00,0.55
9377.00,0.55
9376.00,0.55
9375.00,0.55
9374.00,0.55
9373.00,0.55
9372.00,0.55
9371.00,0.55
9370.00,0.55
9369.00,0.55
9368.00,0.55
9367.00,0.54
9366.00,0.54
9365.00,0.54
9364.00,0.54
9363.00,0.54
9362.00,0.54
9361.00,0.53
9360.00,0.53
9359.00,0.53
9358.00,0.53
9357.00,0.52
9356.00,0.52
9355.00,0.52
9354.00,0.52
9353.00,0.52
9352.00,0.52
9351.00,0.52
9350.00,0.52
9349.00,0.52
9348.00,0.52
9347.00,0.52
9346.00,0.52
9345.00,0.52
9344.00,0.52
9343.00,0.52
9342.00,0.52
9341.00,0.53
9340.00,0.53
9339.00,0.53
9338.00,0.53
9337.00,0.53
9336.00,0.53
9335.00,0.53
9334.00,0.53
9333.00,0.53
9332.00,0.53
9331.00,0.53
9330.00,0.54
9329.00,0.54
9328.00,0.54
9327.00,0.54
9326.00,0.54
9325.00,0.54
9324.00,0.54
9323.00,0.53
9322.00,0.53
9321.00,0.53
9320.00,0.53
9319.00,0.53
9318.00,0.53
9317.00,0.53
9316.00,0.53
9315.00,0.53
9314.00,0.53
9313.00,0.53
9312.00,0.53
9311.00,0.53
9310.00,0.52
9309.00,0.52
9308.00,0.52
9307.00,0.52
9306.00,0.52
9305.00,0.52
9304.00,0.52
9303.00,0.52
9302.00,0.53
9301.00,0.53
9300.00,0.53
9299.00,0.53
9298.00,0.53
9297.00,0.53
9296.00,0.53
9295.00,0.53
9294.00,0.53
9293.00,0.53
9292.00,0.53
9291.00,0.54
9290.00,0.54
9289.00,0.54
9288.00,0.54
9287.00,0.54
9286.00,0.54
9285.00,0.54
9284.00,0.55
9283.00,0.55
9282.00,0.55
9281.00,0.55
9280.00,0.55
9279.00,0.55
9278.00,0.54
9277.00,0.54
9276.00,0.54
9275.00,0.54
9274.00,0.54
9273.00,0.54
9272.00,0.54
9271.00,0.54
9270.00,0.54
9269.00,0.54
9268.00,0.54
9267.00,0.54
9266.00,0.54
9265.00,0.54
9264.00,0.54
9263.00,0.54
9262.00,0.54
9261.00,0.54
9260.00,0.54
9259.00,0.54
9258.00,0.54
9257.00,0.54
9256.00,0.54
9255.00,0.54
9254.00,0.54
9253.00,0.54
9252.00,0.54
9251.00,0.53
9250.00,0.53
9249.00,0.53
9248.00,0.53
9247.00,0.53
9246.00,0.52
9245.00,0.52
9244.00,0.52
9243.00,0.52
9242.00,0.52
9241.00,0.52
9240.00,0.52
9239.00,0.52
9238.00,0.52
9237.00,0.52
9236.00,0.52
9235.00,0.52
9234.00,0.52
9233.00,0.52
9232.00,0.52
9231.00,0.52
9230.00,0.52
9229.00,0.52
9228.00,0.52
9227.00,0.52
9226.00,0.52
9225.00,0.52
9224.00,0.52
9223.00,0.52
9222.00,0.52
9221.00,0.52
9220.00,0.52
9219.00,0.52
9218.00,0.52
9217.00,0.52
9216.00,0.52
9215.00,0.52
9214.00,0.52
9213.00,0.52
9212.00,0.52
9211.00,0.53
9210.00,0.53
9209.00,0.53
9208.00,0.53
9207.00,0.53
9206.00,0.53
9205.00,0.53
9204.00,0.53
9203.00,0.54
9202.00,0.54
9201.00,0.54
9200.00,0.54
9199.00,0.54
9198.00,0.54
9197.00,0.54
9196.00,0.54
9195.00,0.54
9194.00,0.54
9193.00,0.54
9192.00,0.54
9191.00,0.54
9190.00,0.54
9189.00,0.54
9188.00,0.54
9187.00,0.54
9186.00,0.54
9185.00,0.54
9184.00,0.54
9183.00,0.54
9182.00,0.54
9181.00,0.54
9180.00,0.54
9179.00,0.54
9178.00,0.54
9177.00,0.54
9176.00,0.54
9175.00,0.54
9174.00,0.54
9173.00,0.54
9172.00,0.54
9171.00,0.54
9170.00,0.54
9169.00,0.54
9168.00,0.54
9167.00,0.54
9166.00,0.54
9165.00,0.54
9164.00,0.54
9163.00,0.54
9162.00,0.54
9161.00,0.54
9160.00,0.54
9159.00,0.54
9158.00,0.54
9157.00,0.54
9156.00,0.54
9155.00,0.54
9154.00,0.54
9153.00,0.54
9152.00,0.54
9151.00,0.54
9150.00,0.54
9149.00,0.54
9148.00,0.54
9147.00,0.54
9146.00,0.54
9145.00,0.54
9144.00,0.54
9143.00,0.54
9142.00,0.54
9141.00,0.54
9140.00,0.54
9139.00,0.54
9138.00,0.54
9137.00,0.54
9136.00,0.54
9135.00,0.54
9134.00,0.54
9133.00,0.54
9132.00,0.53
9131.00,0.53
9130.00,0.53
9129.00,0.53
9128.00,0.53
9127.00,0.53
9126.00,0.53
9125.00,0.53
9124.00,0.53
9123.00,0.53
9122.00,0.53
9121.00,0.53
9120.00,0.53
9119.00,0.53
9118.00,0.53
9117.00,0.53
9116.00,0.53
9115.00,0.53
9114.00,0.53
9113.00,0.54
9112.00,0.54
9111.00,0.54
9110.00,0.54
9109.00,0.54
9108.00,0.54
9107.00,0.54
9106.00,0.54
9105.00,0.54
9104.00,0.54
9103.00,0.54
9102.00,0.54
9101.00,0.54
9100.00,0.54
9099.00,0.54
9098.00,0.54
9097.00,0.54
9096.00,0.54
9095.00,0.54
9094.00,0.54
9093.00,0.54
9092.00,0.54
9091.00,0.54
9090.00,0.54
9089.00,0.54
9088.00,0.54
9087.00,0.54
9086.00,0.54
9085.00,0.54
9084.00,0.54
9083.00,0.54
9082.00,0.54
9081.00,0.54
9080.00,0.54
9079.00,0.54
9078.00,0.54
9077.00,0.54
9076.00,0.54
9075.00,0.54
9074.00,0.54
9073.00,0.53
9072.00,0.53
9071.00,0.53
9070.00,0.53
9069.00,0.53
9068.00,0.53
9067.00,0.53
9066.00,0.53
9065.00,0.53
9064.00,0.53
9063.00,0.53
9062.00,0.53
9061.00,0.53
9060.00,0.53
9059.00,0.53
9058.00,0.53
9057.00,0.54
9056.00,0.54
9055.00,0.54
9054.00,0.54
9053.00,0.54
9052.00,0.54
9051.00,0.54
9050.00,0.55
9049.00,0.55
9048.00,0.55
9047.00,0.55
9046.00,0.55
9045.00,0.55
9044.00,0.55
9043.00,0.56
9042.00,0.56
9041.00,0.56
9040.00,0.56
9039.00,0.56
9038.00,0.56
9037.00,0.56
9036.00,0.56
9035.00,0.56
9034.00,0.55
9033.00,0.55
9032.00,0.55
9031.00,0.55
9030.00,0.55
9029.00,0.55
9028.00,0.55
9027.00,0.55
9026.00,0.54
9025.00,0.54
9024.00,0.54
9023.00,0.54
9022.00,0.54
9021.00,0.54
9020.00,0.54
9019.00,0.53
9018.00,0.53
9017.00,0.53
9016.00,0.53
9015.00,0.53
9014.00,0.53
9013.00,0.54
9012.00,0.54
9011.00,0.54
9010.00,0.54
9009.00,0.54
9008.00,0.54
9007.00,0.54
9006.00,0.55
9005.00,0.55
9004.00,0.55
9003.00,0.55
9002.00,0.55
9001.00,0.55
9000.00,0.55
8999.00,0.55
8998.00,0.55
8997.00,0.55
8996.00,0.55
8995.00,0.55
8994.00,0.55
8993.00,0.55
8992.00,0.55
8991.00,0.55
8990.00,0.55
8989.00,0.55
8988.00,0.55
8987.00,0.54
8986.00,0.54
8985.00,0.54
8984.00,0.54
8983.00,0.54
8982.00,0.54
8981.00,0.54
8980.00,0.54
8979.00,0.53
8978.00,0.53
8977.00,0.53
8976.00,0.53
8975.00,0.53
8974.00,0.53
8973.00,0.53
8972.00,0.53
8971.00,0.53
8970.00,0.53
8969.00,0.53
8968.00,0.53
8967.00,0.53
8966.00,0.53
8965.00,0.54
8964.00,0.54
8963.00,0.54
8962.00,0.54
8961.00,0.54
8960.00,0.54
8959.00,0.54
8958.00,0.54
8957.00,0.54
8956.00,0.54
8955.00,0.54
8954.00,0.54
8953.00,0.54
8952.00,0.54
8951.00,0.54
8950.00,0.54
8949.00,0.54
8948.00,0.54
8947.00,0.54
8946.00,0.54
8945.00,0.54
8944.00,0.54
8943.00,0.54
8942.00,0.54
8941.00,0.54
8940.00,0.54
8939.00,0.54
8938.00,0.54
8937.00,0.54
8936.00,0.54
8935.00,0.54
8934.00,0.54
8933.00,0.54
8932.00,0.54
8931.00,0.54
8930.00,0.54
8929.00,0.54
8928.00,0.54
8927.00,0.54
8926.00,0.54
8925.00,0.54
8924.00,0.54
8923.00,0.54
8922.00,0.54
8921.00,0.54
8920.00,0.54
8919.00,0.54
8918.00,0.54
8917.00,0.54
8916.00,0.54
8915.00,0.54
8914.00,0.54
8913.00,0.54
8912.00,0.54
8911.00,0.54
8910.00,0.54
8909.00,0.54
8908.00,0.54
8907.00,0.54
8906.00,0.54
8905.00,0.54
8904.00,0.54
8903.00,0.54
8902.00,0.54
8901.00,0.54
8900.00,0.55
8899.00,0.55
8898.00,0.55
8897.00,0.55
8896.00,0.55
8895.00,0.55
8894.00,0.55
8893.00,0.55
8892.00,0.55
8891.00,0.55
8890.00,0.55
8889.00,0.55
8888.00,0.55
8887.00,0.55
8886.00,0.55
8885.00,0.55
8884.00,0.55
8883.00,0.55
8882.00,0.55
8881.00,0.55
8880.00,0.55
8879.00,0.55
8878.00,0.55
8877.00,0.55
8876.00,0.55
8875.00,0.55
8874.00,0.54
8873.00,0.54
8872.00,0.54
8871.00,0.54
8870.00,0.54
8869.00,0.54
8868.00,0.54
8867.00,0.54
8866.00,0.54
8865.00,0.54
8864.00,0.54
8863.00,0.54
8862.00,0.54
8861.00,0.54
8860.00,0.54
8859.00,0.54
8858.00,0.54
8857.00,0.54
8856.00,0.54
8855.00,0.53
8854.00,0.53
8853.00,0.53
8852.00,0.53
8851.00,0.53
8850.00,0.53
8849.00,0.53
8848.00,0.53
8847.00,0.53
8846.00,0.53
8845.00,0.53
8844.00,0.53
8843.00,0.53
8842.00,0.53
8841.00,0.53
8840.00,0.53
8839.00,0.53
8838.00,0.53
8837.00,0.53
8836.00,0.53
8835.00,0.53
8834.00,0.53
8833.00,0.53
8832.00,0.53
8831.00,0.53
8830.00,0.53
8829.00,0.53
8828.00,0.53
8827.00,0.53
8826.00,0.53
8825.00,0.53
8824.00,0.52
8823.00,0.52
8822.00,0.52
8821.00,0.52
8820.00,0.52
8819.00,0.52
8818.00,0.52
8817.00,0.52
8816.00,0.51
8815.00,0.51
8814.00,0.51
8813.00,0.51
8812.00,0.51
8811.00,0.52
8810.00,0.52
8809.00,0.52
8808.00,0.52
8807.00,0.52
8806.00,0.52
8805.00,0.52
8804.00,0.52
8803.00,0.52
8802.00,0.53
8801.00,0.53
8800.00,0.53
8799.00,0.53
8798.00,0.53
8797.00,0.53
8796.00,0.53
8795.00,0.53
8794.00,0.53
8793.00,0.54
8792.00,0.54
8791.00,0.54
8790.00,0.54
8789.00,0.54
8788.00,0.54
8787.00,0.53
8786.00,0.53
8785.00,0.53
8784.00,0.53
8783.00,0.53
8782.00,0.53
8781.00,0.53
8780.00,0.53
8779.00,0.53
8778.00,0.53
8777.00,0.53
8776.00,0.53
8775.00,0.53
8774.00,0.53
8773.00,0.53
8772.00,0.53
8771.00,0.53
8770.00,0.53
8769.00,0.54
8768.00,0.54
8767.00,0.54
8766.00,0.54
8765.00,0.54
8764.00,0.54
8763.00,0.54
8762.00,0.54
8761.00,0.54
8760.00,0.54
8759.00,0.54
8758.00,0.54
8757.00,0.54
8756.00,0.54
8755.00,0.54
8754.00,0.54
8753.00,0.54
8752.00,0.54
8751.00,0.54
8750.00,0.53
8749.00,0.53
8748.00,0.53
8747.00,0.53
8746.00,0.52
8745.00,0.52
8744.00,0.52
8743.00,0.52
8742.00,0.51
8741.00,0.51
8740.00,0.51
8739.00,0.51
8738.00,0.51
8737.00,0.51
8736.00,0.51
8735.00,0.51
8734.00,0.51
8733.00,0.51
8732.00,0.51
8731.00,0.51
8730.00,0.52
8729.00,0.52
8728.00,0.52
8727.00,0.52
8726.00,0.52
8725.00,0.53
8724.00,0.53
8723.00,0.53
8722.00,0.53
8721.00,0.54
8720.00,0.54
8719.00,0.54
8718.00,0.54
8717.00,0.54
8716.00,0.54
8715.00,0.55
8714.00,0.55
8713.00,0.55
8712.00,0.55
8711.00,0.55
8710.00,0.55
8709.00,0.55
8708.00,0.55
8707.00,0.55
8706.00,0.55
8705.00,0.55
8704.00,0.55
8703.00,0.55
8702.00,0.55
8701.00,0.55
8700.00,0.55
8699.00,0.55
8698.00,0.55
8697.00,0.54
8696.00,0.54
8695.00,0.54
8694.00,0.54
8693.00,0.54
8692.00,0.54
8691.00,0.54
8690.00,0.54
8689.00,0.54
8688.00,0.54
8687.00,0.53
8686.00,0.53
8685.00,0.53
8684.00,0.53
8683.00,0.53
8682.00,0.53
8681.00,0.53
8680.00,0.53
8679.00,0.53
8678.00,0.53
8677.00,0.52
8676.00,0.52
8675.00,0.52
8674.00,0.52
8673.00,0.52
8672.00,0.52
8671.00,0.52
8670.00,0.52
8669.00,0.52
8668.00,0.52
8667.00,0.52
8666.00,0.52
8665.00,0.52
8664.00,0.52
8663.00,0.52
8662.00,0.52
8661.00,0.52
8660.00,0.52
8659.00,0.52
8658.00,0.53
8657.00,0.53
8656.00,0.53
8655.00,0.53
8654.00,0.53
8653.00,0.53
8652.00,0.53
8651.00,0.53
8650.00,0.53
8649.00,0.53
8648.00,0.52
8647.00,0.52
8646.00,0.52
8645.00,0.52
8644.00,0.52
8643.00,0.52
8642.00,0.52
8641.00,0.52
8640.00,0.52
8639.00,0.52
8638.00,0.52
8637.00,0.52
8636.00,0.52
8635.00,0.52
8634.00,0.52
8633.00,0.52
8632.00,0.52
8631.00,0.52
8630.00,0.52
8629.00,0.52
8628.00,0.52
8627.00,0.52
8626.00,0.52
8625.00,0.52
8624.00,0.52
8623.00,0.52
8622.00,0.52
8621.00,0.52
8620.00,0.52
8619.00,0.52
8618.00,0.52
8617.00,0.52
8616.00,0.52
8615.00,0.52
8614.00,0.52
8613.00,0.52
8612.00,0.52
8611.00,0.52
8610.00,0.52
8609.00,0.52
8608.00,0.52
8607.00,0.52
8606.00,0.52
8605.00,0.52
8604.00,0.52
8603.00,0.52
8602.00,0.52
8601.00,0.52
8600.00,0.52
8599.00,0.52
8598.00,0.52
8597.00,0.52
8596.00,0.52
8595.00,0.52
8594.00,0.52
8593.00,0.52
8592.00,0.52
8591.00,0.52
8590.00,0.52
8589.00,0.52
8588.00,0.52
8587.00,0.52
8586.00,0.52
8585.00,0.52
8584.00,0.52
8583.00,0.52
8582.00,0.52
8581.00,0.51
8580.00,0.51
8579.00,0.51
8578.00,0.51
8577.00,0.51
8576.00,0.51
8575.00,0.51
8574.00,0.51
8573.00,0.52
8572.00,0.52
8571.00,0.52
8570.00,0.52
8569.00,0.52
8568.00,0.51
8567.00,0.51
8566.00,0.51
8565.00,0.51
8564.00,0.51
8563.00,0.51
8562.00,0.51
8561.00,0.51
8560.00,0.51
8559.00,0.51
8558.00,0.51
8557.00,0.51
8556.00,0.51
8555.00,0.51
8554.00,0.51
8553.00,0.51
8552.00,0.51
8551.00,0.51
8550.00,0.51
8549.00,0.51
8548.00,0.51
8547.00,0.51
8546.00,0.51
8545.00,0.51
8544.00,0.51
8543.00,0.51
8542.00,0.51
8541.00,0.51
8540.00,0.51
8539.00,0.51
8538.00,0.51
8537.00,0.51
8536.00,0.51
8535.00,0.51
8534.00,0.51
8533.00,0.51
8532.00,0.51
8531.00,0.51
8530.00,0.51
8529.00,0.51
8528.00,0.51
8527.00,0.51
8526.00,0.51
8525.00,0.51
8524.00,0.51
8523.00,0.51
8522.00,0.51
8521.00,0.51
8520.00,0.51
8519.00,0.51
8518.00,0.51
8517.00,0.51
8516.00,0.51
8515.00,0.50
8514.00,0.50
8513.00,0.50
8512.00,0.50
8511.00,0.50
8510.00,0.50
8509.00,0.50
8508.00,0.50
8507.00,0.50
8506.00,0.50
8505.00,0.50
8504.00,0.50
8503.00,0.50
8502.00,0.50
8501.00,0.51
8500.00,0.51
8499.00,0.51
8498.00,0.51
8497.00,0.51
8496.00,0.51
8495.00,0.51
8494.00,0.51
8493.00,0.51
8492.00,0.51
8491.00,0.51
8490.00,0.51
8489.00,0.51
8488.00,0.51
8487.00,0.51
8486.00,0.51
8485.00,0.51
8484.00,0.51
8483.00,0.50
8482.00,0.50
8481.00,0.50
8480.00,0.50
8479.00,0.50
8478.00,0.50
8477.00,0.50
8476.00,0.49
8475.00,0.49
8474.00,0.49
8473.00,0.49
8472.00,0.49
8471.00,0.49
8470.00,0.49
8469.00,0.49
8468.00,0.49
8467.00,0.49
8466.00,0.49
8465.00,0.49
8464.00,0.49
8463.00,0.49
8462.00,0.49
8461.00,0.49
8460.00,0.49
8459.00,0.49
8458.00,0.49
8457.00,0.49
8456.00,0.49
8455.00,0.49
8454.00,0.49
8453.00,0.49
8452.00,0.49
8451.00,0.49
8450.00,0.49
8449.00,0.49
8448.00,0.49
8447.00,0.49
8446.00,0.49
8445.00,0.49
8444.00,0.49
8443.00,0.49
8442.00,0.49
8441.00,0.49
8440.00,0.49
8439.00,0.49
8438.00,0.49
8437.00,0.49
8436.00,0.49
8435.00,0.49
8434.00,0.49
8433.00,0.49
8432.00,0.49
8431.00,0.49
8430.00,0.49
8429.00,0.49
8428.00,0.49
8427.00,0.49
8426.00,0.49
8425.00,0.49
8424.00,0.49
8423.00,0.49
8422.00,0.49
8421.00,0.50
8420.00,0.50
8419.00,0.50
8418.00,0.50
8417.00,0.50
8416.00,0.50
8415.00,0.50
8414.00,0.50
8413.00,0.50
8412.00,0.50
8411.00,0.50
8410.00,0.50
8409.00,0.50
8408.00,0.50
8407.00,0.50
8406.00,0.50
8405.00,0.50
8404.00,0.49
8403.00,0.49
8402.00,0.49
8401.00,0.49
8400.00,0.49
8399.00,0.49
8398.00,0.49
8397.00,0.49
8396.00,0.49
8395.00,0.49
8394.00,0.49
8393.00,0.49
8392.00,0.49
8391.00,0.49
8390.00,0.49
8389.00,0.49
8388.00,0.49
8387.00,0.49
8386.00,0.49
8385.00,0.49
8384.00,0.49
8383.00,0.49
8382.00,0.49
8381.00,0.49
8380.00,0.49
8379.00,0.50
8378.00,0.50
8377.00,0.50
8376.00,0.50
8375.00,0.50
8374.00,0.50
8373.00,0.50
8372.00,0.50
8371.00,0.50
8370.00,0.50
8369.00,0.50
8368.00,0.50
8367.00,0.50
8366.00,0.50
8365.00,0.50
8364.00,0.50
8363.00,0.50
8362.00,0.50
8361.00,0.50
8360.00,0.50
8359.00,0.50
8358.00,0.50
8357.00,0.50
8356.00,0.50
8355.00,0.50
8354.00,0.50
8353.00,0.49
8352.00,0.49
8351.00,0.49
8350.00,0.49
8349.00,0.49
8348.00,0.49
8347.00,0.49
8346.00,0.49
8345.00,0.49
8344.00,0.49
8343.00,0.49
8342.00,0.49
8341.00,0.49
8340.00,0.49
8339.00,0.49
8338.00,0.49
8337.00,0.49
8336.00,0.49
8335.00,0.49
8334.00,0.49
8333.00,0.49
8332.00,0.49
8331.00,0.49
8330.00,0.50
8329.00,0.50
8328.00,0.50
8327.00,0.50
8326.00,0.50
8325.00,0.50
8324.00,0.50
8323.00,0.50
8322.00,0.50
8321.00,0.50
8320.00,0.50
8319.00,0.50
8318.00,0.50
8317.00,0.50
8316.00,0.50
8315.00,0.50
8314.00,0.50
8313.00,0.50
8312.00,0.50
8311.00,0.50
8310.00,0.50
8309.00,0.50
8308.00,0.50
8307.00,0.50
8306.00,0.50
8305.00,0.50
8304.00,0.50
8303.00,0.50
8302.00,0.50
8301.00,0.50
8300.00,0.50
8299.00,0.50
8298.00,0.50
8297.00,0.50
8296.00,0.50
8295.00,0.50
8294.00,0.50
8293.00,0.51
8292.00,0.51
8291.00,0.51
8290.00,0.51
8289.00,0.51
8288.00,0.51
8287.00,0.51
8286.00,0.51
8285.00,0.51
8284.00,0.52
8283.00,0.52
8282.00,0.52
8281.00,0.52
8280.00,0.52
8279.00,0.52
8278.00,0.52
8277.00,0.52
8276.00,0.52
8275.00,0.52
8274.00,0.52
8273.00,0.52
8272.00,0.52
8271.00,0.52
8270.00,0.51
8269.00,0.51
8268.00,0.51
8267.00,0.51
8266.00,0.51
8265.00,0.51
8264.00,0.50
8263.00,0.50
8262.00,0.50
8261.00,0.50
8260.00,0.50
8259.00,0.50
8258.00,0.50
8257.00,0.50
8256.00,0.50
8255.00,0.50
8254.00,0.50
8253.00,0.50
8252.00,0.50
8251.00,0.50
8250.00,0.51
8249.00,0.51
8248.00,0.51
8247.00,0.51
8246.00,0.51
8245.00,0.51
8244.00,0.51
8243.00,0.51
8242.00,0.51
8241.00,0.52
8240.00,0.52
8239.00,0.52
8238.00,0.52
8237.00,0.52
8236.00,0.52
8235.00,0.52
8234.00,0.52
8233.00,0.52
8232.00,0.51
8231.00,0.51
8230.00,0.51
8229.00,0.51
8228.00,0.51
8227.00,0.51
8226.00,0.51
8225.00,0.51
8224.00,0.51
8223.00,0.51
8222.00,0.51
8221.00,0.51
8220.00,0.51
8219.00,0.51
8218.00,0.51
8217.00,0.51
8216.00,0.51
8215.00,0.51
8214.00,0.51
8213.00,0.51
8212.00,0.51
8211.00,0.52
8210.00,0.52
8209.00,0.52
8208.00,0.52
8207.00,0.52
8206.00,0.52
8205.00,0.52
8204.00,0.52
8203.00,0.52
8202.00,0.52
8201.00,0.51
8200.00,0.51
8199.00,0.51
8198.00,0.51
8197.00,0.51
8196.00,0.51
8195.00,0.51
8194.00,0.51
8193.00,0.51
8192.00,0.51
8191.00,0.51
8190.00,0.51
8189.00,0.52
8188.00,0.52
8187.00,0.52
8186.00,0.52
8185.00,0.52
8184.00,0.52
8183.00,0.52
8182.00,0.52
8181.00,0.52
8180.00,0.52
8179.00,0.52
8178.00,0.52
8177.00,0.52
8176.00,0.52
8175.00,0.52
8174.00,0.52
8173.00,0.52
8172.00,0.52
8171.00,0.52
8170.00,0.52
8169.00,0.52
8168.00,0.52
8167.00,0.52
8166.00,0.52
8165.00,0.52
8164.00,0.52
8163.00,0.52
8162.00,0.52
8161.00,0.52
8160.00,0.52
8159.00,0.52
8158.00,0.52
8157.00,0.52
8156.00,0.52
8155.00,0.52
8154.00,0.52
8153.00,0.52
8152.00,0.52
8151.00,0.52
8150.00,0.52
8149.00,0.52
8148.00,0.52
8147.00,0.52
8146.00,0.52
8145.00,0.52
8144.00,0.52
8143.00,0.52
8142.00,0.52
8141.00,0.52
8140.00,0.52
8139.00,0.52
8138.00,0.52
8137.00,0.52
8136.00,0.52
8135.00,0.53
8134.00,0.53
8133.00,0.53
8132.00,0.53
8131.00,0.53
8130.00,0.53
8129.00,0.53
8128.00,0.53
8127.00,0.53
8126.00,0.53
8125.00,0.53
8124.00,0.53
8123.00,0.53
8122.00,0.53
8121.00,0.53
8120.00,0.53
8119.00,0.53
8118.00,0.53
8117.00,0.53
8116.00,0.53
8115.00,0.53
8114.00,0.53
8113.00,0.52
8112.00,0.52
8111.00,0.52
8110.00,0.53
8109.00,0.53
8108.00,0.53
8107.00,0.53
8106.00,0.53
8105.00,0.53
8104.00,0.53
8103.00,0.53
8102.00,0.53
8101.00,0.53
8100.00,0.53
8099.00,0.53
8098.00,0.53
8097.00,0.53
8096.00,0.53
8095.00,0.53
8094.00,0.53
8093.00,0.53
8092.00,0.53
8091.00,0.53
8090.00,0.53
8089.00,0.53
8088.00,0.53
8087.00,0.53
8086.00,0.53
8085.00,0.53
8084.00,0.53
8083.00,0.53
8082.00,0.53
8081.00,0.53
8080.00,0.53
8079.00,0.53
8078.00,0.53
8077.00,0.53
8076.00,0.53
8075.00,0.53
8074.00,0.53
8073.00,0.53
8072.00,0.53
8071.00,0.53
8070.00,0.53
8069.00,0.53
8068.00,0.53
8067.00,0.53
8066.00,0.53
8065.00,0.53
8064.00,0.53
8063.00,0.53
8062.00,0.53
8061.00,0.53
8060.00,0.53
8059.00,0.53
8058.00,0.53
8057.00,0.53
8056.00,0.53
8055.00,0.53
8054.00,0.53
8053.00,0.53
8052.00,0.53
8051.00,0.53
8050.00,0.53
8049.00,0.53
8048.00,0.53
8047.00,0.53
8046.00,0.54
8045.00,0.54
8044.00,0.54
8043.00,0.54
8042.00,0.54
8041.00,0.54
8040.00,0.54
8039.00,0.54
8038.00,0.54
8037.00,0.54
8036.00,0.54
8035.00,0.54
8034.00,0.54
8033.00,0.54
8032.00,0.54
8031.00,0.54
8030.00,0.54
8029.00,0.54
8028.00,0.54
8027.00,0.54
8026.00,0.54
8025.00,0.54
8024.00,0.54
8023.00,0.54
8022.00,0.54
8021.00,0.54
8020.00,0.54
8019.00,0.54
8018.00,0.54
8017.00,0.54
8016.00,0.54
8015.00,0.54
8014.00,0.54
8013.00,0.54
8012.00,0.54
8011.00,0.54
8010.00,0.54
8009.00,0.54
8008.00,0.54
8007.00,0.54
8006.00,0.54
8005.00,0.54
8004.00,0.54
8003.00,0.54
8002.00,0.54
8001.00,0.54
8000.00,0.54
7999.00,0.54
7998.00,0.54
7997.00,0.54
7996.00,0.54
7995.00,0.54
7994.00,0.54
7993.00,0.54
7992.00,0.54
7991.00,0.54
7990.00,0.54
7989.00,0.54
7988.00,0.54
7987.00,0.54
7986.00,0.54
7985.00,0.54
7984.00,0.54
7983.00,0.54
7982.00,0.54
7981.00,0.54
7980.00,0.53
7979.00,0.53
7978.00,0.53
7977.00,0.53
7976.00,0.53
7975.00,0.53
7974.00,0.53
7973.00,0.53
7972.00,0.53
7971.00,0.53
7970.00,0.53
7969.00,0.53
7968.00,0.53
7967.00,0.53
7966.00,0.53
7965.00,0.53
7964.00,0.53
7963.00,0.54
7962.00,0.54
7961.00,0.54
7960.00,0.54
7959.00,0.54
7958.00,0.54
7957.00,0.54
7956.00,0.54
7955.00,0.54
7954.00,0.55
7953.00,0.55
7952.00,0.55
7951.00,0.55
7950.00,0.55
7949.00,0.55
7948.00,0.55
7947.00,0.55
7946.00,0.55
7945.00,0.55
7944.00,0.55
7943.00,0.55
7942.00,0.55
7941.00,0.55
7940.00,0.55
7939.00,0.55
7938.00,0.55
7937.00,0.55
7936.00,0.55
7935.00,0.55
7934.00,0.55
7933.00,0.54
7932.00,0.54
7931.00,0.54
7930.00,0.54
7929.00,0.54
7928.00,0.54
7927.00,0.54
7926.00,0.54
7925.00,0.54
7924.00,0.54
7923.00,0.54
7922.00,0.54
7921.00,0.54
7920.00,0.54
7919.00,0.54
7918.00,0.54
7917.00,0.54
7916.00,0.54
7915.00,0.54
7914.00,0.54
7913.00,0.54
7912.00,0.54
7911.00,0.54
7910.00,0.54
7909.00,0.54
7908.00,0.54
7907.00,0.54
7906.00,0.54
7905.00,0.54
7904.00,0.54
7903.00,0.54
7902.00,0.54
7901.00,0.54
7900.00,0.54
7899.00,0.54
7898.00,0.54
7897.00,0.54
7896.00,0.54
7895.00,0.54
7894.00,0.54
7893.00,0.54
7892.00,0.54
7891.00,0.54
7890.00,0.54
7889.00,0.54
7888.00,0.54
7887.00,0.54
7886.00,0.54
7885.00,0.54
7884.00,0.54
7883.00,0.54
7882.00,0.54
7881.00,0.54
7880.00,0.54
7879.00,0.54
7878.00,0.54
7877.00,0.54
7876.00,0.54
7875.00,0.54
7874.00,0.54
7873.00,0.54
7872.00,0.54
7871.00,0.54
7870.00,0.54
7869.00,0.55
7868.00,0.55
7867.00,0.55
7866.00,0.55
7865.00,0.55
7864.00,0.55
7863.00,0.55
7862.00,0.55
7861.00,0.55
7860.00,0.55
7859.00,0.55
7858.00,0.55
7857.00,0.55
7856.00,0.55
7855.00,0.55
7854.00,0.55
7853.00,0.55
7852.00,0.55
7851.00,0.55
7850.00,0.55
7849.00,0.55
7848.00,0.55
7847.00,0.55
7846.00,0.55
7845.00,0.55
7844.00,0.55
7843.00,0.55
7842.00,0.55
7841.00,0.55
7840.00,0.55
7839.00,0.55
7838.00,0.55
7837.00,0.55
7836.00,0.55
7835.00,0.55
7834.00,0.55
7833.00,0.56
7832.00,0.56
7831.00,0.56
7830.00,0.56
7829.00,0.56
7828.00,0.56
7827.00,0.56
7826.00,0.56
7825.00,0.56
7824.00,0.56
7823.00,0.56
7822.00,0.56
7821.00,0.56
7820.00,0.56
7819.00,0.56
7818.00,0.55
7817.00,0.55
7816.00,0.55
7815.00,0.55
7814.00,0.55
7813.00,0.55
7812.00,0.55
7811.00,0.55
7810.00,0.55
7809.00,0.55
7808.00,0.55
7807.00,0.55
7806.00,0.55
7805.00,0.55
7804.00,0.55
7803.00,0.55
7802.00,0.55
7801.00,0.55
7800.00,0.55
7799.00,0.55
7798.00,0.55
7797.00,0.55
7796.00,0.55
7795.00,0.55
7794.00,0.55
7793.00,0.55
7792.00,0.55
7791.00,0.55
7790.00,0.55
7789.00,0.55
7788.00,0.55
7787.00,0.55
7786.00,0.55
7785.00,0.56
7784.00,0.56
7783.00,0.56
7782.00,0.56
7781.00,0.56
7780.00,0.56
7779.00,0.56
7778.00,0.56
7777.00,0.56
7776.00,0.56
7775.00,0.56
7774.00,0.56
7773.00,0.56
7772.00,0.56
7771.00,0.56
7770.00,0.56
7769.00,0.56
7768.00,0.55
7767.00,0.55
7766.00,0.55
7765.00,0.55
7764.00,0.55
7763.00,0.55
7762.00,0.55
7761.00,0.55
7760.00,0.55
7759.00,0.55
7758.00,0.55
7757.00,0.55
7756.00,0.55
7755.00,0.55
7754.00,0.55
7753.00,0.55
7752.00,0.55
7751.00,0.55
7750.00,0.55
7749.00,0.55
7748.00,0.55
7747.00,0.55
7746.00,0.55
7745.00,0.55
7744.00,0.55
7743.00,0.56
7742.00,0.56
7741.00,0.56
7740.00,0.56
7739.00,0.56
7738.00,0.56
7737.00,0.56
7736.00,0.56
7735.00,0.56
7734.00,0.56
7733.00,0.56
7732.00,0.56
7731.00,0.56
7730.00,0.56
7729.00,0.56
7728.00,0.56
7727.00,0.56
7726.00,0.56
7725.00,0.56
7724.00,0.56
7723.00,0.56
7722.00,0.56
7721.00,0.56
7720.00,0.56
7719.00,0.56
7718.00,0.56
7717.00,0.56
7716.00,0.56
7715.00,0.56
7714.00,0.55
7713.00,0.55
7712.00,0.55
7711.00,0.55
7710.00,0.55
7709.00,0.55
7708.00,0.55
7707.00,0.55
7706.00,0.55
7705.00,0.55
7704.00,0.55
7703.00,0.55
7702.00,0.55
7701.00,0.55
7700.00,0.55
7699.00,0.55
7698.00,0.55
7697.00,0.55
7696.00,0.55
7695.00,0.55
7694.00,0.55
7693.00,0.55
7692.00,0.55
7691.00,0.55
7690.00,0.55
7689.00,0.55
7688.00,0.55
7687.00,0.55
7686.00,0.55
7685.00,0.55
7684.00,0.55
7683.00,0.55
7682.00,0.55
7681.00,0.55
7680.00,0.55
7679.00,0.55
7678.00,0.55
7677.00,0.55
7676.00,0.55
7675.00,0.55
7674.00,0.55
7673.00,0.55
7672.00,0.55
7671.00,0.55
7670.00,0.55
7669.00,0.55
7668.00,0.55
7667.00,0.55
7666.00,0.55
7665.00,0.55
7664.00,0.55
7663.00,0.55
7662.00,0.55
7661.00,0.55
7660.00,0.55
7659.00,0.55
7658.00,0.55
7657.00,0.55
7656.00,0.55
7655.00,0.55
7654.00,0.55
7653.00,0.55
7652.00,0.55
7651.00,0.55
7650.00,0.55
7649.00,0.55
7648.00,0.55
7647.00,0.55
7646.00,0.55
7645.00,0.55
7644.00,0.55
7643.00,0.55
7642.00,0.55
7641.00,0.55
7640.00,0.55
7639.00,0.55
7638.00,0.55
7637.00,0.55
7636.00,0.55
7635.00,0.56
7634.00,0.56
7633.00,0.56
7632.00,0.56
7631.00,0.56
7630.00,0.56
7629.00,0.56
7628.00,0.56
7627.00,0.56
7626.00,0.56
7625.00,0.56
7624.00,0.56
7623.00,0.56
7622.00,0.56
7621.00,0.56
7620.00,0.56
7619.00,0.56
7618.00,0.56
7617.00,0.56
7616.00,0.56
7615.00,0.56
7614.00,0.56
7613.00,0.56
7612.00,0.56
7611.00,0.56
7610.00,0.56
7609.00,0.56
7608.00,0.56
7607.00,0.56
7606.00,0.56
7605.00,0.56
7604.00,0.56
7603.00,0.56
7602.00,0.56
7601.00,0.56
7600.00,0.56
7599.00,0.55
7598.00,0.55
7597.00,0.55
7596.00,0.55
7595.00,0.55
7594.00,0.55
7593.00,0.55
7592.00,0.55
7591.00,0.55
7590.00,0.55
7589.00,0.55
7588.00,0.55
7587.00,0.55
7586.00,0.55
7585.00,0.55
7584.00,0.55
7583.00,0.55
7582.00,0.55
7581.00,0.55
7580.00,0.55
7579.00,0.55
7578.00,0.55
7577.00,0.55
7576.00,0.55
7575.00,0.55
7574.00,0.55
7573.00,0.55
7572.00,0.55
7571.00,0.55
7570.00,0.55
7569.00,0.55
7568.00,0.55
7567.00,0.55
7566.00,0.55
7565.00,0.55
7564.00,0.55
7563.00,0.55
7562.00,0.55
7561.00,0.55
7560.00,0.55
7559.00,0.55
7558.00,0.55
7557.00,0.55
7556.00,0.55
7555.00,0.55
7554.00,0.55
7553.00,0.55
7552.00,0.55
7551.00,0.55
7550.00,0.55
7549.00,0.55
7548.00,0.55
7547.00,0.55
7546.00,0.55
7545.00,0.55
7544.00,0.55
7543.00,0.55
7542.00,0.55
7541.00,0.55
7540.00,0.55
7539.00,0.55
7538.00,0.55
7537.00,0.55
7536.00,0.55
7535.00,0.55
7534.00,0.55
7533.00,0.55
7532.00,0.55
7531.00,0.55
7530.00,0.55
7529.00,0.55
7528.00,0.55
7527.00,0.55
7526.00,0.55
7525.00,0.55
7524.00,0.55
7523.00,0.55
7522.00,0.55
7521.00,0.55
7520.00,0.55
7519.00,0.55
7518.00,0.55
7517.00,0.54
7516.00,0.54
7515.00,0.54
7514.00,0.54
7513.00,0.54
7512.00,0.54
7511.00,0.54
7510.00,0.54
7509.00,0.54
7508.00,0.54
7507.00,0.54
7506.00,0.54
7505.00,0.54
7504.00,0.54
7503.00,0.54
7502.00,0.54
7501.00,0.54
7500.00,0.54
7499.00,0.54
7498.00,0.54
7497.00,0.54
7496.00,0.54
7495.00,0.54
7494.00,0.54
7493.00,0.54
7492.00,0.54
7491.00,0.54
7490.00,0.54
7489.00,0.54
7488.00,0.54
7487.00,0.54
7486.00,0.54
7485.00,0.54
7484.00,0.54
7483.00,0.54
7482.00,0.54
7481.00,0.54
7480.00,0.54
7479.00,0.54
7478.00,0.54
7477.00,0.54
7476.00,0.54
7475.00,0.54
7474.00,0.54
7473.00,0.54
7472.00,0.54
7471.00,0.54
7470.00,0.54
7469.00,0.54
7468.00,0.54
7467.00,0.54
7466.00,0.55
7465.00,0.55
7464.00,0.55
7463.00,0.55
7462.00,0.55
7461.00,0.55
7460.00,0.55
7459.00,0.55
7458.00,0.55
7457.00,0.55
7456.00,0.55
7455.00,0.55
7454.00,0.54
7453.00,0.54
7452.00,0.54
7451.00,0.54
7450.00,0.54
7449.00,0.54
7448.00,0.54
7447.00,0.54
7446.00,0.54
7445.00,0.54
7444.00,0.54
7443.00,0.54
7442.00,0.54
7441.00,0.54
7440.00,0.54
7439.00,0.54
7438.00,0.54
7437.00,0.53
7436.00,0.53
7435.00,0.53
7434.00,0.53
7433.00,0.53
7432.00,0.53
7431.00,0.53
7430.00,0.53
7429.00,0.53
7428.00,0.53
7427.00,0.53
7426.00,0.53
7425.00,0.53
7424.00,0.53
7423.00,0.53
7422.00,0.53
7421.00,0.53
7420.00,0.53
7419.00,0.53
7418.00,0.53
7417.00,0.52
7416.00,0.52
7415.00,0.52
7414.00,0.52
7413.00,0.52
7412.00,0.52
7411.00,0.52
7410.00,0.52
7409.00,0.52
7408.00,0.52
7407.00,0.52
7406.00,0.52
7405.00,0.52
7404.00,0.52
7403.00,0.52
7402.00,0.52
7401.00,0.52
7400.00,0.52
7399.00,0.52
7398.00,0.52
7397.00,0.52
7396.00,0.52
7395.00,0.52
7394.00,0.52
7393.00,0.52
7392.00,0.52
7391.00,0.52
7390.00,0.52
7389.00,0.51
7388.00,0.51
7387.00,0.51
7386.00,0.51
7385.00,0.51
7384.00,0.51
7383.00,0.51
7382.00,0.51
7381.00,0.51
7380.00,0.51
7379.00,0.51
7378.00,0.51
7377.00,0.51
7376.00,0.51
7375.00,0.51
7374.00,0.51
7373.00,0.51
7372.00,0.51
7371.00,0.51
7370.00,0.51
7369.00,0.51
7368.00,0.51
7367.00,0.51
7366.00,0.51
7365.00,0.51
7364.00,0.51
7363.00,0.51
7362.00,0.51
7361.00,0.51
7360.00,0.51
7359.00,0.51
7358.00,0.51
7357.00,0.51
7356.00,0.51
7355.00,0.51
7354.00,0.50
7353.00,0.50
7352.00,0.50
7351.00,0.50
7350.00,0.50
7349.00,0.50
7348.00,0.50
7347.00,0.50
7346.00,0.50
7345.00,0.50
7344.00,0.50
7343.00,0.50
7342.00,0.50
7341.00,0.50
7340.00,0.50
7339.00,0.50
7338.00,0.50
7337.00,0.50
7336.00,0.50
7335.00,0.50
7334.00,0.50
7333.00,0.50
7332.00,0.50
7331.00,0.50
7330.00,0.50
7329.00,0.50
7328.00,0.50
7327.00,0.50
7326.00,0.50
7325.00,0.50
7324.00,0.50
7323.00,0.50
7322.00,0.50
7321.00,0.50
7320.00,0.50
7319.00,0.50
7318.00,0.50
7317.00,0.50
7316.00,0.50
7315.00,0.50
7314.00,0.50
7313.00,0.50
7312.00,0.50
7311.00,0.50
7310.00,0.50
7309.00,0.50
7308.00,0.50
7307.00,0.50
7306.00,0.50
7305.00,0.50
7304.00,0.50
7303.00,0.50
7302.00,0.50
7301.00,0.50
7300.00,0.50
7299.00,0.50
7298.00,0.50
7297.00,0.50
7296.00,0.50
7295.00,0.50
7294.00,0.50
7293.00,0.50
7292.00,0.50
7291.00,0.50
7290.00,0.50
7289.00,0.50
7288.00,0.50
7287.00,0.49
7286.00,0.49
7285.00,0.49
7284.00,0.49
7283.00,0.49
7282.00,0.49
7281.00,0.49
7280.00,0.49
7279.00,0.49
7278.00,0.49
7277.00,0.49
7276.00,0.49
7275.00,0.48
7274.00,0.48
7273.00,0.48
7272.00,0.48
7271.00,0.48
7270.00,0.48
7269.00,0.48
7268.00,0.48
7267.00,0.48
7266.00,0.48
7265.00,0.48
7264.00,0.48
7263.00,0.48
7262.00,0.48
7261.00,0.48
7260.00,0.48
7259.00,0.48
7258.00,0.48
7257.00,0.47
7256.00,0.47
7255.00,0.47
7254.00,0.47
7253.00,0.47
7252.00,0.47
7251.00,0.47
7250.00,0.47
7249.00,0.47
7248.00,0.46
7247.00,0.46
7246.00,0.46
7245.00,0.46
7244.00,0.46
7243.00,0.46
7242.00,0.46
7241.00,0.45
7240.00,0.45
7239.00,0.45
7238.00,0.45
7237.00,0.45
7236.00,0.45
7235.00,0.45
7234.00,0.45
7233.00,0.45
7232.00,0.45
7231.00,0.45
7230.00,0.45
7229.00,0.44
7228.00,0.44
7227.00,0.44
7226.00,0.44
7225.00,0.44
7224.00,0.44
7223.00,0.44
7222.00,0.44
7221.00,0.43
7220.00,0.43
7219.00,0.43
7218.00,0.43
7217.00,0.43
7216.00,0.43
7215.00,0.42
7214.00,0.42
7213.00,0.42
7212.00,0.42
7211.00,0.41
7210.00,0.41
7209.00,0.41
7208.00,0.41
7207.00,0.41
7206.00,0.41
7205.00,0.41
7204.00,0.40
7203.00,0.40
7202.00,0.40
7201.00,0.40
7200.00,0.40
7199.00,0.40
7198.00,0.40
7197.00,0.40
7196.00,0.39
7195.00,0.39
7194.00,0.39
7193.00,0.39
7192.00,0.39
7191.00,0.39
7190.00,0.39
7189.00,0.39
7188.00,0.38
7187.00,0.38
7186.00,0.38
7185.00,0.38
7184.00,0.38
7183.00,0.38
7182.00,0.38
7181.00,0.37
7180.00,0.37
7179.00,0.37
7178.00,0.37
7177.00,0.37
7176.00,0.37
7175.00,0.37
7174.00,0.36
7173.00,0.36
7172.00,0.36
7171.00,0.36
7170.00,0.36
7169.00,0.36
7168.00,0.35
7167.00,0.35
7166.00,0.35
7165.00,0.35
7164.00,0.35
7163.00,0.35
7162.00,0.34
7161.00,0.34
7160.00,0.34
7159.00,0.34
7158.00,0.34
7157.00,0.34
7156.00,0.34
7155.00,0.34
7154.00,0.33
7153.00,0.33
7152.00,0.33
7151.00,0.33
7150.00,0.33
7149.00,0.33
7148.00,0.33
7147.00,0.33
7146.00,0.33
7145.00,0.33
7144.00,0.32
7143.00,0.32
7142.00,0.32
7141.00,0.32
7140.00,0.32
7139.00,0.32
7138.00,0.32
7137.00,0.32
7136.00,0.31
7135.00,0.31
7134.00,0.31
7133.00,0.31
7132.00,0.31
7131.00,0.31
7130.00,0.31
7129.00,0.31
7128.00,0.30
7127.00,0.30
7126.00,0.30
7125.00,0.30
7124.00,0.30
7123.00,0.30
7122.00,0.30
7121.00,0.29
7120.00,0.29
7119.00,0.29
7118.00,0.29
7117.00,0.29
7116.00,0.29
7115.00,0.29
7114.00,0.29
7113.00,0.29
7112.00,0.29
7111.00,0.28
7110.00,0.28
7109.00,0.28
7108.00,0.28
7107.00,0.28
7106.00,0.28
7105.00,0.28
7104.00,0.28
7103.00,0.28
7102.00,0.28
7101.00,0.28
7100.00,0.28
7099.00,0.28
7098.00,0.28
7097.00,0.28
7096.00,0.28
7095.00,0.28
7094.00,0.27
7093.00,0.27
7092.00,0.27
7091.00,0.27
7090.00,0.27
7089.00,0.27
7088.00,0.27
7087.00,0.27
7086.00,0.26
7085.00,0.26
7084.00,0.26
7083.00,0.26
7082.00,0.26
7081.00,0.26
7080.00,0.26
7079.00,0.26
7078.00,0.26
7077.00,0.26
7076.00,0.26
7075.00,0.26
7074.00,0.26
7073.00,0.26
7072.00,0.26
7071.00,0.26
7070.00,0.26
7069.00,0.26
7068.00,0.26
7067.00,0.26
7066.00,0.26
7065.00,0.26
7064.00,0.26
7063.00,0.26
7062.00,0.26
7061.00,0.26
7060.00,0.26
7059.00,0.26
7058.00,0.26
7057.00,0.26
7056.00,0.26
7055.00,0.26
7054.00,0.26
7053.00,0.25
7052.00,0.25
7051.00,0.25
7050.00,0.25
7049.00,0.25
7048.00,0.25
7047.00,0.25
7046.00,0.25
7045.00,0.25
7044.00,0.25
7043.00,0.25
7042.00,0.25
7041.00,0.25
7040.00,0.25
7039.00,0.25
7038.00,0.24
7037.00,0.24
7036.00,0.24
7035.00,0.24
7034.00,0.24
7033.00,0.24
7032.00,0.24
7031.00,0.24
7030.00,0.24
7029.00,0.24
7028.00,0.24
7027.00,0.24
7026.00,0.24
7025.00,0.24
7024.00,0.24
7023.00,0.24
7022.00,0.24
7021.00,0.24
7020.00,0.24
7019.00,0.24
7018.00,0.24
7017.00,0.24
7016.00,0.24
7015.00,0.24
7014.00,0.24
7013.00,0.24
7012.00,0.24
7011.00,0.24
7010.00,0.24
7009.00,0.24
7008.00,0.24
7007.00,0.24
7006.00,0.24
7005.00,0.24
7004.00,0.24
7003.00,0.23
7002.00,0.23
7001.00,0.23
7000.00,0.23
6999.00,0.23
6998.00,0.23
6997.00,0.23
6996.00,0.23
6995.00,0.23
6994.00,0.23
6993.00,0.23
6992.00,0.23
6991.00,0.23
6990.00,0.23
6989.00,0.23
6988.00,0.23
6987.00,0.23
6986.00,0.23
6985.00,0.23
6984.00,0.23
6983.00,0.23
6982.00,0.23
6981.00,0.23
6980.00,0.23
6979.00,0.23
6978.00,0.23
6977.00,0.23
6976.00,0.23
6975.00,0.23
6974.00,0.23
6973.00,0.23
6972.00,0.23
6971.00,0.23
6970.00,0.23
6969.00,0.23
6968.00,0.23
6967.00,0.23
6966.00,0.23
6965.00,0.23
6964.00,0.23
6963.00,0.23
6962.00,0.23
6961.00,0.23
6960.00,0.23
6959.00,0.22
6958.00,0.22
6957.00,0.22
6956.00,0.22
6955.00,0.22
6954.00,0.22
6953.00,0.22
6952.00,0.22
6951.00,0.22
6950.00,0.22
6949.00,0.22
6948.00,0.22
6947.00,0.22
6946.00,0.22
6945.00,0.22
6944.00,0.22
6943.00,0.22
6942.00,0.22
6941.00,0.22
6940.00,0.22
6939.00,0.22
6938.00,0.22
6937.00,0.22
6936.00,0.22
6935.00,0.22
6934.00,0.22
6933.00,0.22
6932.00,0.22
6931.00,0.22
6930.00,0.22
6929.00,0.22
6928.00,0.22
6927.00,0.22
6926.00,0.22
6925.00,0.22
6924.00,0.22
6923.00,0.22
6922.00,0.22
6921.00,0.22
6920.00,0.22
6919.00,0.22
6918.00,0.22
6917.00,0.22
6916.00,0.22
6915.00,0.22
6914.00,0.22
6913.00,0.22
6912.00,0.22
6911.00,0.22
6910.00,0.22
6909.00,0.22
6908.00,0.22
6907.00,0.22
6906.00,0.22
6905.00,0.22
6904.00,0.22
6903.00,0.22
6902.00,0.22
6901.00,0.22
6900.00,0.22
6899.00,0.22
6898.00,0.22
6897.00,0.22
6896.00,0.22
6895.00,0.22
6894.00,0.22
6893.00,0.22
6892.00,0.22
6891.00,0.22
6890.00,0.22
6889.00,0.22
6888.00,0.22
6887.00,0.22
6886.00,0.22
6885.00,0.22
6884.00,0.22
6883.00,0.22
6882.00,0.22
6881.00,0.22
6880.00,0.22
6879.00,0.22
6878.00,0.22
6877.00,0.22
6876.00,0.22
6875.00,0.22
6874.00,0.22
6873.00,0.22
6872.00,0.22
6871.00,0.22
6870.00,0.22
6869.00,0.22
6868.00,0.22
6867.00,0.22
6866.00,0.22
6865.00,0.22
6864.00,0.22
6863.00,0.23
6862.00,0.23
6861.00,0.23
6860.00,0.23
6859.00,0.23
6858.00,0.23
6857.00,0.23
6856.00,0.23
6855.00,0.23
6854.00,0.23
6853.00,0.23
6852.00,0.23
6851.00,0.23
6850.00,0.23
6849.00,0.23
6848.00,0.23
6847.00,0.23
6846.00,0.23
6845.00,0.23
6844.00,0.23
6843.00,0.22
6842.00,0.22
6841.00,0.22
6840.00,0.22
6839.00,0.22
6838.00,0.22
6837.00,0.22
6836.00,0.22
6835.00,0.22
6834.00,0.22
6833.00,0.22
6832.00,0.22
6831.00,0.22
6830.00,0.22
6829.00,0.22
6828.00,0.22
6827.00,0.22
6826.00,0.22
6825.00,0.22
6824.00,0.22
6823.00,0.22
6822.00,0.22
6821.00,0.22
6820.00,0.22
6819.00,0.22
6818.00,0.22
6817.00,0.22
6816.00,0.22
6815.00,0.22
6814.00,0.22
6813.00,0.22
6812.00,0.22
6811.00,0.22
6810.00,0.22
6809.00,0.22
6808.00,0.22
6807.00,0.22
6806.00,0.22
6805.00,0.22
6804.00,0.22
6803.00,0.23
6802.00,0.23
6801.00,0.23
6800.00,0.23
6799.00,0.23
6798.00,0.23
6797.00,0.23
6796.00,0.23
6795.00,0.23
6794.00,0.23
6793.00,0.23
6792.00,0.23
6791.00,0.23
6790.00,0.23
6789.00,0.23
6788.00,0.23
6787.00,0.23
6786.00,0.23
6785.00,0.23
6784.00,0.23
6783.00,0.23
6782.00,0.23
6781.00,0.23
6780.00,0.23
6779.00,0.23
6778.00,0.23
6777.00,0.23
6776.00,0.23
6775.00,0.23
6774.00,0.23
6773.00,0.23
6772.00,0.23
6771.00,0.23
6770.00,0.23
6769.00,0.23
6768.00,0.24
6767.00,0.24
6766.00,0.24
6765.00,0.24
6764.00,0.24
6763.00,0.24
6762.00,0.24
6761.00,0.24
6760.00,0.24
6759.00,0.24
6758.00,0.24
6757.00,0.24
6756.00,0.24
6755.00,0.24
6754.00,0.24
6753.00,0.24
6752.00,0.24
6751.00,0.24
6750.00,0.24
6749.00,0.24
6748.00,0.24
6747.00,0.24
6746.00,0.24
6745.00,0.24
6744.00,0.24
6743.00,0.24
6742.00,0.24
6741.00,0.24
6740.00,0.24
6739.00,0.24
6738.00,0.24
6737.00,0.24
6736.00,0.24
6735.00,0.24
6734.00,0.24
6733.00,0.24
6732.00,0.24
6731.00,0.24
6730.00,0.24
6729.00,0.24
6728.00,0.24
6727.00,0.25
6726.00,0.25
6725.00,0.25
6724.00,0.25
6723.00,0.25
6722.00,0.25
6721.00,0.25
6720.00,0.25
6719.00,0.25
6718.00,0.25
6717.00,0.25
6716.00,0.25
6715.00,0.25
6714.00,0.25
6713.00,0.25
6712.00,0.25
6711.00,0.25
6710.00,0.25
6709.00,0.25
6708.00,0.25
6707.00,0.25
6706.00,0.25
6705.00,0.25
6704.00,0.25
6703.00,0.25
6702.00,0.25
6701.00,0.25
6700.00,0.25
6699.00,0.25
6698.00,0.25
6697.00,0.25
6696.00,0.25
6695.00,0.25
6694.00,0.25
6693.00,0.26
6692.00,0.26
6691.00,0.26
6690.00,0.26
6689.00,0.26
6688.00,0.26
6687.00,0.26
6686.00,0.26
6685.00,0.26
6684.00,0.26
6683.00,0.26
6682.00,0.26
6681.00,0.26
6680.00,0.26
6679.00,0.26
6678.00,0.27
6677.00,0.27
6676.00,0.27
6675.00,0.27
6674.00,0.27
6673.00,0.27
6672.00,0.27
6671.00,0.27
6670.00,0.27
6669.00,0.27
6668.00,0.27
6667.00,0.27
6666.00,0.27
6665.00,0.27
6664.00,0.27
6663.00,0.27
6662.00,0.27
6661.00,0.27
6660.00,0.27
6659.00,0.27
6658.00,0.27
6657.00,0.27
6656.00,0.27
6655.00,0.27
6654.00,0.27
6653.00,0.27
6652.00,0.27
6651.00,0.27
6650.00,0.27
6649.00,0.27
6648.00,0.27
6647.00,0.27
6646.00,0.27
6645.00,0.27
6644.00,0.27
6643.00,0.28
6642.00,0.28
6641.00,0.28
6640.00,0.28
6639.00,0.28
6638.00,0.28
6637.00,0.28
6636.00,0.28
6635.00,0.28
6634.00,0.28
6633.00,0.28
6632.00,0.28
6631.00,0.28
6630.00,0.28
6629.00,0.28
6628.00,0.28
6627.00,0.28
6626.00,0.28
6625.00,0.28
6624.00,0.28
6623.00,0.28
6622.00,0.28
6621.00,0.28
6620.00,0.28
6619.00,0.28
6618.00,0.29
6617.00,0.29
6616.00,0.29
6615.00,0.29
6614.00,0.29
6613.00,0.29
6612.00,0.29
6611.00,0.29
6610.00,0.29
6609.00,0.29
6608.00,0.29
6607.00,0.29
6606.00,0.29
6605.00,0.29
6604.00,0.29
6603.00,0.29
6602.00,0.29
6601.00,0.29
6600.00,0.29
6599.00,0.29
6598.00,0.29
6597.00,0.29
6596.00,0.30
6595.00,0.30
6594.00,0.30
6593.00,0.30
6592.00,0.30
6591.00,0.30
6590.00,0.30
6589.00,0.30
6588.00,0.30
6587.00,0.30
6586.00,0.30
6585.00,0.30
6584.00,0.31
6583.00,0.31
6582.00,0.31
6581.00,0.31
6580.00,0.31
6579.00,0.31
6578.00,0.31
6577.00,0.31
6576.00,0.31
6575.00,0.31
6574.00,0.31
6573.00,0.31
6572.00,0.31
6571.00,0.31
6570.00,0.31
6569.00,0.31
6568.00,0.31
6567.00,0.31
6566.00,0.31
6565.00,0.31
6564.00,0.31
6563.00,0.31
6562.00,0.31
6561.00,0.31
6560.00,0.31
6559.00,0.31
6558.00,0.31
6557.00,0.31
6556.00,0.31
6555.00,0.31
6554.00,0.31
6553.00,0.31
6552.00,0.31
6551.00,0.31
6550.00,0.32
6549.00,0.32
6548.00,0.32
6547.00,0.32
6546.00,0.32
6545.00,0.32
6544.00,0.32
6543.00,0.32
6542.00,0.32
6541.00,0.32
6540.00,0.32
6539.00,0.32
6538.00,0.32
6537.00,0.32
6536.00,0.32
6535.00,0.32
6534.00,0.32
6533.00,0.32
6532.00,0.32
6531.00,0.32
6530.00,0.32
6529.00,0.33
6528.00,0.33
6527.00,0.33
6526.00,0.33
6525.00,0.33
6524.00,0.33
6523.00,0.33
6522.00,0.33
6521.00,0.33
6520.00,0.33
6519.00,0.33
6518.00,0.33
6517.00,0.33
6516.00,0.33
6515.00,0.33
6514.00,0.33
6513.00,0.33
6512.00,0.33
6511.00,0.33
6510.00,0.33
6509.00,0.33
6508.00,0.33
6507.00,0.33
6506.00,0.33
6505.00,0.33
6504.00,0.33
6503.00,0.33
6502.00,0.33
6501.00,0.33
6500.00,0.33
6499.00,0.34
6498.00,0.34
6497.00,0.34
6496.00,0.34
6495.00,0.34
6494.00,0.34
6493.00,0.34
6492.00,0.34
6491.00,0.34
6490.00,0.34
6489.00,0.34
6488.00,0.34
6487.00,0.34
6486.00,0.34
6485.00,0.34
6484.00,0.35
6483.00,0.35
6482.00,0.35
6481.00,0.35
6480.00,0.35
6479.00,0.35
6478.00,0.35
6477.00,0.35
6476.00,0.35
6475.00,0.35
6474.00,0.35
6473.00,0.35
6472.00,0.35
6471.00,0.35
6470.00,0.35
6469.00,0.35
6468.00,0.35
6467.00,0.35
6466.00,0.35
6465.00,0.35
6464.00,0.35
6463.00,0.35
6462.00,0.35
6461.00,0.35
6460.00,0.35
6459.00,0.35
6458.00,0.35
6457.00,0.35
6456.00,0.35
6455.00,0.35
6454.00,0.35
6453.00,0.35
6452.00,0.35
6451.00,0.35
6450.00,0.35
6449.00,0.35
6448.00,0.35
6447.00,0.36
6446.00,0.36
6445.00,0.36
6444.00,0.36
6443.00,0.36
6442.00,0.36
6441.00,0.36
6440.00,0.36
6439.00,0.36
6438.00,0.36
6437.00,0.36
6436.00,0.36
6435.00,0.36
6434.00,0.36
6433.00,0.36
6432.00,0.36
6431.00,0.36
6430.00,0.36
6429.00,0.36
6428.00,0.36
6427.00,0.36
6426.00,0.36
6425.00,0.36
6424.00,0.36
6423.00,0.36
6422.00,0.36
6421.00,0.36
6420.00,0.36
6419.00,0.36
6418.00,0.36
6417.00,0.36
6416.00,0.36
6415.00,0.36
6414.00,0.37
6413.00,0.37
6412.00,0.37
6411.00,0.37
6410.00,0.37
6409.00,0.37
6408.00,0.37
6407.00,0.37
6406.00,0.37
6405.00,0.37
6404.00,0.37
6403.00,0.37
6402.00,0.37
6401.00,0.37
6400.00,0.37
6399.00,0.37
6398.00,0.37
6397.00,0.37
6396.00,0.37
6395.00,0.37
6394.00,0.37
6393.00,0.37
6392.00,0.38
6391.00,0.38
6390.00,0.38
6389.00,0.38
6388.00,0.38
6387.00,0.38
6386.00,0.38
6385.00,0.38
6384.00,0.38
6383.00,0.38
6382.00,0.38
6381.00,0.38
6380.00,0.38
6379.00,0.38
6378.00,0.38
6377.00,0.38
6376.00,0.38
6375.00,0.38
6374.00,0.38
6373.00,0.38
6372.00,0.38
6371.00,0.38
6370.00,0.38
6369.00,0.38
6368.00,0.38
6367.00,0.38
6366.00,0.38
6365.00,0.38
6364.00,0.38
6363.00,0.38
6362.00,0.38
6361.00,0.38
6360.00,0.38
6359.00,0.39
6358.00,0.39
6357.00,0.39
6356.00,0.39
6355.00,0.39
6354.00,0.39
6353.00,0.39
6352.00,0.39
6351.00,0.39
6350.00,0.39
6349.00,0.39
6348.00,0.39
6347.00,0.39
6346.00,0.39
6345.00,0.39
6344.00,0.39
6343.00,0.39
6342.00,0.39
6341.00,0.39
6340.00,0.39
6339.00,0.39
6338.00,0.39
6337.00,0.39
6336.00,0.40
6335.00,0.40
6334.00,0.40
6333.00,0.40
6332.00,0.40
6331.00,0.40
6330.00,0.40
6329.00,0.40
6328.00,0.40
6327.00,0.40
6326.00,0.40
6325.00,0.40
6324.00,0.40
6323.00,0.40
6322.00,0.40
6321.00,0.40
6320.00,0.40
6319.00,0.40
6318.00,0.40
6317.00,0.41
6316.00,0.41
6315.00,0.41
6314.00,0.41
6313.00,0.41
6312.00,0.41
6311.00,0.41
6310.00,0.41
6309.00,0.41
6308.00,0.41
6307.00,0.41
6306.00,0.41
6305.00,0.41
6304.00,0.41
6303.00,0.41
6302.00,0.41
6301.00,0.41
6300.00,0.41
6299.00,0.41
6298.00,0.41
6297.00,0.41
6296.00,0.41
6295.00,0.41
6294.00,0.41
6293.00,0.41
6292.00,0.41
6291.00,0.41
6290.00,0.42
6289.00,0.42
6288.00,0.42
6287.00,0.42
6286.00,0.42
6285.00,0.42
6284.00,0.42
6283.00,0.42
6282.00,0.42
6281.00,0.42
6280.00,0.42
6279.00,0.42
6278.00,0.42
6277.00,0.42
6276.00,0.42
6275.00,0.42
6274.00,0.42
6273.00,0.42
6272.00,0.42
6271.00,0.42
6270.00,0.42
6269.00,0.43
6268.00,0.43
6267.00,0.43
6266.00,0.43
6265.00,0.43
6264.00,0.43
6263.00,0.43
6262.00,0.43
6261.00,0.43
6260.00,0.43
6259.00,0.43
6258.00,0.43
6257.00,0.43
6256.00,0.43
6255.00,0.43
6254.00,0.43
6253.00,0.43
6252.00,0.43
6251.00,0.43
6250.00,0.43
6249.00,0.43
6248.00,0.43
6247.00,0.43
6246.00,0.43
6245.00,0.44
6244.00,0.44
6243.00,0.44
6242.00,0.44
6241.00,0.44
6240.00,0.44
6239.00,0.44
6238.00,0.44
6237.00,0.44
6236.00,0.44
6235.00,0.44
6234.00,0.44
6233.00,0.44
6232.00,0.44
6231.00,0.44
6230.00,0.45
6229.00,0.45
6228.00,0.45
6227.00,0.45
6226.00,0.45
6225.00,0.45
6224.00,0.45
6223.00,0.45
6222.00,0.45
6221.00,0.45
6220.00,0.45
6219.00,0.45
6218.00,0.45
6217.00,0.45
6216.00,0.45
6215.00,0.45
6214.00,0.45
6213.00,0.45
6212.00,0.46
6211.00,0.46
6210.00,0.46
6209.00,0.46
6208.00,0.46
6207.00,0.46
6206.00,0.46
6205.00,0.46
6204.00,0.46
6203.00,0.46
6202.00,0.46
6201.00,0.46
6200.00,0.46
6199.00,0.46
6198.00,0.46
6197.00,0.46
6196.00,0.46
6195.00,0.46
6194.00,0.46
6193.00,0.46
6192.00,0.46
6191.00,0.46
6190.00,0.46
6189.00,0.47
6188.00,0.47
6187.00,0.47
6186.00,0.47
6185.00,0.47
6184.00,0.47
6183.00,0.47
6182.00,0.47
6181.00,0.47
6180.00,0.47
6179.00,0.47
6178.00,0.47
6177.00,0.47
6176.00,0.47
6175.00,0.47
6174.00,0.47
6173.00,0.47
6172.00,0.47
6171.00,0.47
6170.00,0.47
6169.00,0.48
6168.00,0.48
6167.00,0.48
6166.00,0.48
6165.00,0.48
6164.00,0.48
6163.00,0.48
6162.00,0.48
6161.00,0.48
6160.00,0.48
6159.00,0.48
6158.00,0.48
6157.00,0.48
6156.00,0.48
6155.00,0.49
6154.00,0.49
6153.00,0.49
6152.00,0.49
6151.00,0.49
6150.00,0.49
6149.00,0.49
6148.00,0.49
6147.00,0.49
6146.00,0.49
6145.00,0.49
6144.00,0.49
6143.00,0.49
6142.00,0.49
6141.00,0.49
6140.00,0.49
6139.00,0.49
6138.00,0.49
6137.00,0.49
6136.00,0.49
6135.00,0.50
6134.00,0.50
6133.00,0.50
6132.00,0.50
6131.00,0.50
6130.00,0.50
6129.00,0.50
6128.00,0.50
6127.00,0.50
6126.00,0.50
6125.00,0.50
6124.00,0.50
6123.00,0.50
6122.00,0.50
6121.00,0.50
6120.00,0.50
6119.00,0.50
6118.00,0.50
6117.00,0.51
6116.00,0.51
6115.00,0.51
6114.00,0.51
6113.00,0.51
6112.00,0.51
6111.00,0.51
6110.00,0.51
6109.00,0.51
6108.00,0.51
6107.00,0.51
6106.00,0.51
6105.00,0.51
6104.00,0.51
6103.00,0.51
6102.00,0.51
6101.00,0.51
6100.00,0.51
6099.00,0.51
6098.00,0.51
6097.00,0.52
6096.00,0.52
6095.00,0.52
6094.00,0.52
6093.00,0.52
6092.00,0.52
6091.00,0.52
6090.00,0.52
6089.00,0.52
6088.00,0.52
6087.00,0.52
6086.00,0.52
6085.00,0.52
6084.00,0.52
6083.00,0.52
6082.00,0.52
6081.00,0.52
6080.00,0.52
6079.00,0.52
6078.00,0.53
6077.00,0.53
6076.00,0.53
6075.00,0.53
6074.00,0.53
6073.00,0.53
6072.00,0.53
6071.00,0.53
6070.00,0.53
6069.00,0.53
6068.00,0.53
6067.00,0.53
6066.00,0.53
6065.00,0.53
6064.00,0.53
6063.00,0.53
6062.00,0.53
6061.00,0.53
6060.00,0.53
6059.00,0.53
6058.00,0.53
6057.00,0.54
6056.00,0.54
6055.00,0.54
6054.00,0.54
6053.00,0.54
6052.00,0.54
6051.00,0.54
6050.00,0.54
6049.00,0.54
6048.00,0.54
6047.00,0.54
6046.00,0.54
6045.00,0.54
6044.00,0.54
6043.00,0.54
6042.00,0.54
6041.00,0.54
6040.00,0.54
6039.00,0.54
6038.00,0.54
6037.00,0.54
6036.00,0.54
6035.00,0.54
6034.00,0.54
6033.00,0.54
6032.00,0.54
6031.00,0.54
6030.00,0.54
6029.00,0.54
6028.00,0.54
6027.00,0.54
6026.00,0.54
6025.00,0.54
6024.00,0.54
6023.00,0.54
6022.00,0.54
6021.00,0.54
6020.00,0.54
6019.00,0.54
6018.00,0.54
6017.00,0.54
6016.00,0.54
6015.00,0.54
6014.00,0.54
6013.00,0.54
6012.00,0.54
6011.00,0.55
6010.00,0.55
6009.00,0.55
6008.00,0.55
6007.00,0.55
6006.00,0.55
6005.00,0.55
6004.00,0.55
6003.00,0.55
6002.00,0.55
6001.00,0.55
6000.00,0.54
5999.00,0.54
5998.00,0.54
5997.00,0.54
5996.00,0.54
5995.00,0.54
5994.00,0.54
5993.00,0.54
5992.00,0.54
5991.00,0.54
5990.00,0.54
5989.00,0.54
5988.00,0.54
5987.00,0.54
5986.00,0.53
5985.00,0.53
5984.00,0.53
5983.00,0.53
5982.00,0.53
5981.00,0.53
5980.00,0.53
5979.00,0.53
5978.00,0.53
5977.00,0.52
5976.00,0.52
5975.00,0.52
5974.00,0.52
5973.00,0.52
5972.00,0.52
5971.00,0.51
5970.00,0.51
5969.00,0.51
5968.00,0.51
5967.00,0.51
5966.00,0.50
5965.00,0.50
5964.00,0.50
5963.00,0.50
5962.00,0.50
5961.00,0.49
5960.00,0.49
5959.00,0.49
5958.00,0.49
5957.00,0.49
5956.00,0.48
5955.00,0.48
5954.00,0.48
5953.00,0.48
5952.00,0.48
5951.00,0.48
5950.00,0.47
5949.00,0.47
5948.00,0.47
5947.00,0.47
5946.00,0.47
5945.00,0.47
5944.00,0.47
5943.00,0.47
5942.00,0.47
5941.00,0.47
5940.00,0.47
5939.00,0.46
5938.00,0.46
5937.00,0.46
5936.00,0.46
5935.00,0.46
5934.00,0.46
5933.00,0.46
5932.00,0.46
5931.00,0.46
5930.00,0.46
5929.00,0.46
5928.00,0.46
5927.00,0.46
5926.00,0.46
5925.00,0.46
5924.00,0.45
5923.00,0.45
5922.00,0.45
5921.00,0.45
5920.00,0.45
5919.00,0.45
5918.00,0.45
5917.00,0.45
5916.00,0.44
5915.00,0.44
5914.00,0.44
5913.00,0.44
5912.00,0.44
5911.00,0.44
5910.00,0.44
5909.00,0.44
5908.00,0.44
5907.00,0.44
5906.00,0.44
5905.00,0.44
5904.00,0.44
5903.00,0.44
5902.00,0.44
5901.00,0.44
5900.00,0.44
5899.00,0.44
5898.00,0.44
5897.00,0.44
5896.00,0.44
5895.00,0.45
5894.00,0.45
5893.00,0.45
5892.00,0.45
5891.00,0.45
5890.00,0.45
5889.00,0.45
5888.00,0.45
5887.00,0.45
5886.00,0.45
5885.00,0.45
5884.00,0.45
5883.00,0.46
5882.00,0.46
5881.00,0.46
5880.00,0.46
5879.00,0.46
5878.00,0.46
5877.00,0.46
5876.00,0.46
5875.00,0.46
5874.00,0.46
5873.00,0.46
5872.00,0.47
5871.00,0.47
5870.00,0.47
5869.00,0.47
5868.00,0.47
5867.00,0.47
5866.00,0.47
5865.00,0.47
5864.00,0.47
5863.00,0.47
5862.00,0.47
5861.00,0.47
5860.00,0.47
5859.00,0.47
5858.00,0.47
5857.00,0.47
5856.00,0.47
5855.00,0.48
5854.00,0.48
5853.00,0.48
5852.00,0.48
5851.00,0.48
5850.00,0.48
5849.00,0.48
5848.00,0.48
5847.00,0.48
5846.00,0.48
5845.00,0.48
5844.00,0.48
5843.00,0.48
5842.00,0.48
5841.00,0.48
5840.00,0.48
5839.00,0.48
5838.00,0.48
5837.00,0.48
5836.00,0.48
5835.00,0.48
5834.00,0.48
5833.00,0.48
5832.00,0.48
5831.00,0.48
5830.00,0.48
5829.00,0.48
5828.00,0.47
5827.00,0.47
5826.00,0.47
5825.00,0.47
5824.00,0.47
5823.00,0.48
5822.00,0.48
5821.00,0.48
5820.00,0.48
5819.00,0.48
5818.00,0.48
5817.00,0.48
5816.00,0.48
5815.00,0.48
5814.00,0.48
5813.00,0.48
5812.00,0.48
5811.00,0.48
5810.00,0.48
5809.00,0.48
5808.00,0.48
5807.00,0.48
5806.00,0.48
5805.00,0.48
5804.00,0.48
5803.00,0.48
5802.00,0.48
5801.00,0.48
5800.00,0.48
5799.00,0.48
5798.00,0.48
5797.00,0.47
5796.00,0.47
5795.00,0.47
5794.00,0.47
5793.00,0.47
5792.00,0.47
5791.00,0.47
5790.00,0.47
5789.00,0.47
5788.00,0.47
5787.00,0.47
5786.00,0.46
5785.00,0.46
5784.00,0.46
5783.00,0.46
5782.00,0.46
5781.00,0.46
5780.00,0.46
5779.00,0.46
5778.00,0.46
5777.00,0.46
5776.00,0.46
5775.00,0.46
5774.00,0.46
5773.00,0.46
5772.00,0.46
5771.00,0.46
5770.00,0.46
5769.00,0.46
5768.00,0.46
5767.00,0.46
5766.00,0.46
5765.00,0.46
5764.00,0.46
5763.00,0.46
5762.00,0.46
5761.00,0.46
5760.00,0.46
5759.00,0.47
5758.00,0.47
5757.00,0.47
5756.00,0.47
5755.00,0.47
5754.00,0.47
5753.00,0.47
5752.00,0.47
5751.00,0.47
5750.00,0.48
5749.00,0.48
5748.00,0.48
5747.00,0.48
5746.00,0.48
5745.00,0.48
5744.00,0.48
5743.00,0.48
5742.00,0.48
5741.00,0.48
5740.00,0.49
5739.00,0.49
5738.00,0.49
5737.00,0.49
5736.00,0.49
5735.00,0.49
5734.00,0.49
5733.00,0.49
5732.00,0.49
5731.00,0.49
5730.00,0.49
5729.00,0.49
5728.00,0.49
5727.00,0.49
5726.00,0.49
5725.00,0.49
5724.00,0.49
5723.00,0.49
5722.00,0.49
5721.00,0.49
5720.00,0.49
5719.00,0.49
5718.00,0.49
5717.00,0.49
5716.00,0.49
5715.00,0.49
5714.00,0.49
5713.00,0.49
5712.00,0.49
5711.00,0.49
5710.00,0.49
5709.00,0.49
5708.00,0.49
5707.00,0.49
5706.00,0.49
5705.00,0.49
5704.00,0.49
5703.00,0.49
5702.00,0.49
5701.00,0.49
5700.00,0.48
5699.00,0.48
5698.00,0.48
5697.00,0.48
5696.00,0.48
5695.00,0.48
5694.00,0.48
5693.00,0.48
5692.00,0.48
5691.00,0.48
5690.00,0.48
5689.00,0.48
5688.00,0.48
5687.00,0.48
5686.00,0.48
5685.00,0.47
5684.00,0.47
5683.00,0.47
5682.00,0.47
5681.00,0.47
5680.00,0.47
5679.00,0.47
5678.00,0.47
5677.00,0.47
5676.00,0.47
5675.00,0.47
5674.00,0.47
5673.00,0.47
5672.00,0.47
5671.00,0.47
5670.00,0.47
5669.00,0.47
5668.00,0.47
5667.00,0.47
5666.00,0.47
5665.00,0.47
5664.00,0.47
5663.00,0.47
5662.00,0.47
5661.00,0.47
5660.00,0.47
5659.00,0.47
5658.00,0.48
5657.00,0.48
5656.00,0.48
5655.00,0.48
5654.00,0.48
5653.00,0.48
5652.00,0.48
5651.00,0.48
5650.00,0.48
5649.00,0.48
5648.00,0.48
5647.00,0.48
5646.00,0.48
5645.00,0.48
5644.00,0.48
5643.00,0.48
5642.00,0.48
5641.00,0.48
5640.00,0.48
5639.00,0.48
5638.00,0.49
5637.00,0.49
5636.00,0.49
5635.00,0.49
5634.00,0.49
5633.00,0.49
5632.00,0.49
5631.00,0.49
5630.00,0.49
5629.00,0.49
5628.00,0.49
5627.00,0.49
5626.00,0.49
5625.00,0.49
5624.00,0.49
5623.00,0.49
5622.00,0.49
5621.00,0.49
5620.00,0.49
5619.00,0.49
5618.00,0.50
5617.00,0.50
5616.00,0.50
5615.00,0.50
5614.00,0.50
5613.00,0.50
5612.00,0.50
5611.00,0.50
5610.00,0.50
5609.00,0.50
5608.00,0.50
5607.00,0.50
5606.00,0.50
5605.00,0.50
5604.00,0.50
5603.00,0.50
5602.00,0.50
5601.00,0.50
5600.00,0.51
5599.00,0.51
5598.00,0.51
5597.00,0.51
5596.00,0.51
5595.00,0.51
5594.00,0.51
5593.00,0.51
5592.00,0.51
5591.00,0.51
5590.00,0.51
5589.00,0.51
5588.00,0.51
5587.00,0.51
5586.00,0.51
5585.00,0.52
5584.00,0.52
5583.00,0.52
5582.00,0.52
5581.00,0.52
5580.00,0.52
5579.00,0.52
5578.00,0.52
5577.00,0.52
5576.00,0.52
5575.00,0.52
5574.00,0.52
5573.00,0.52
5572.00,0.52
5571.00,0.52
5570.00,0.52
5569.00,0.52
5568.00,0.52
5567.00,0.52
5566.00,0.52
5565.00,0.52
5564.00,0.52
5563.00,0.52
5562.00,0.52
5561.00,0.52
5560.00,0.52
5559.00,0.52
5558.00,0.53
5557.00,0.53
5556.00,0.53
5555.00,0.53
5554.00,0.53
5553.00,0.53
5552.00,0.53
5551.00,0.53
5550.00,0.53
5549.00,0.53
5548.00,0.53
5547.00,0.53
5546.00,0.53
5545.00,0.53
5544.00,0.53
5543.00,0.53
5542.00,0.53
5541.00,0.53
5540.00,0.53
5539.00,0.53
5538.00,0.53
5537.00,0.53
5536.00,0.53
5535.00,0.53
5534.00,0.53
5533.00,0.54
5532.00,0.54
5531.00,0.54
5530.00,0.54
5529.00,0.54
5528.00,0.54
5527.00,0.54
5526.00,0.54
5525.00,0.54
5524.00,0.54
5523.00,0.54
5522.00,0.54
5521.00,0.54
5520.00,0.54
5519.00,0.54
5518.00,0.54
5517.00,0.54
5516.00,0.54
5515.00,0.54
5514.00,0.54
5513.00,0.54
5512.00,0.54
5511.00,0.54
5510.00,0.54
5509.00,0.54
5508.00,0.54
5507.00,0.54
5506.00,0.54
5505.00,0.54
5504.00,0.54
5503.00,0.54
5502.00,0.54
5501.00,0.54
5500.00,0.54
5499.00,0.54
5498.00,0.54
5497.00,0.54
5496.00,0.54
5495.00,0.54
5494.00,0.54
5493.00,0.54
5492.00,0.54
5491.00,0.54
5490.00,0.54
5489.00,0.54
5488.00,0.54
5487.00,0.54
5486.00,0.55
5485.00,0.55
5484.00,0.55
5483.00,0.55
5482.00,0.55
5481.00,0.55
5480.00,0.55
5479.00,0.55
5478.00,0.55
5477.00,0.55
5476.00,0.55
5475.00,0.55
5474.00,0.55
5473.00,0.55
5472.00,0.55
5471.00,0.55
5470.00,0.55
5469.00,0.55
5468.00,0.56
5467.00,0.56
5466.00,0.56
5465.00,0.56
5464.00,0.56
5463.00,0.56
5462.00,0.56
5461.00,0.56
5460.00,0.56
5459.00,0.56
5458.00,0.56
5457.00,0.56
5456.00,0.56
5455.00,0.56
5454.00,0.56
5453.00,0.56
5452.00,0.56
5451.00,0.56
5450.00,0.56
5449.00,0.56
5448.00,0.56
5447.00,0.56
5446.00,0.56
5445.00,0.56
5444.00,0.56
5443.00,0.56
5442.00,0.56
5441.00,0.56
5440.00,0.56
5439.00,0.56
5438.00,0.56
5437.00,0.56
5436.00,0.56
5435.00,0.56
5434.00,0.56
5433.00,0.56
5432.00,0.56
5431.00,0.56
5430.00,0.56
5429.00,0.56
5428.00,0.56
5427.00,0.56
5426.00,0.56
5425.00,0.56
5424.00,0.56
5423.00,0.56
5422.00,0.56
5421.00,0.56
5420.00,0.56
5419.00,0.56
5418.00,0.56
5417.00,0.56
5416.00,0.56
5415.00,0.56
5414.00,0.56
5413.00,0.56
5412.00,0.56
5411.00,0.56
5410.00,0.56
5409.00,0.56
5408.00,0.56
5407.00,0.55
5406.00,0.55
5405.00,0.55
5404.00,0.55
5403.00,0.55
5402.00,0.55
5401.00,0.55
5400.00,0.55
5399.00,0.55
5398.00,0.55
5397.00,0.55
5396.00,0.55
5395.00,0.55
5394.00,0.55
5393.00,0.55
5392.00,0.55
5391.00,0.54
5390.00,0.54
5389.00,0.54
5388.00,0.54
5387.00,0.54
5386.00,0.54
5385.00,0.54
5384.00,0.54
5383.00,0.53
5382.00,0.53
5381.00,0.53
5380.00,0.53
5379.00,0.53
5378.00,0.53
5377.00,0.53
5376.00,0.52
5375.00,0.52
5374.00,0.52
5373.00,0.52
5372.00,0.52
5371.00,0.51
5370.00,0.51
5369.00,0.51
5368.00,0.51
5367.00,0.51
5366.00,0.50
5365.00,0.50
5364.00,0.50
5363.00,0.50
5362.00,0.49
5361.00,0.49
5360.00,0.49
5359.00,0.49
5358.00,0.48
5357.00,0.48
5356.00,0.48
5355.00,0.47
5354.00,0.47
5353.00,0.46
5352.00,0.46
5351.00,0.46
5350.00,0.45
5349.00,0.45
5348.00,0.45
5347.00,0.44
5346.00,0.44
5345.00,0.43
5344.00,0.43
5343.00,0.43
5342.00,0.42
5341.00,0.42
5340.00,0.42
5339.00,0.41
5338.00,0.41
5337.00,0.41
5336.00,0.40
5335.00,0.40
5334.00,0.39
5333.00,0.39
5332.00,0.39
5331.00,0.38
5330.00,0.38
5329.00,0.38
5328.00,0.37
5327.00,0.37
5326.00,0.37
5325.00,0.36
5324.00,0.36
5323.00,0.36
5322.00,0.35
5321.00,0.35
5320.00,0.35
5319.00,0.34
5318.00,0.34
5317.00,0.34
5316.00,0.33
5315.00,0.33
5314.00,0.33
5313.00,0.32
5312.00,0.32
5311.00,0.32
5310.00,0.32
5309.00,0.31
5308.00,0.31
5307.00,0.31
5306.00,0.31
5305.00,0.30
5304.00,0.30
5303.00,0.30
5302.00,0.30
5301.00,0.30
5300.00,0.29
5299.00,0.29
5298.00,0.29
5297.00,0.29
5296.00,0.29
5295.00,0.29
5294.00,0.29
5293.00,0.29
5292.00,0.28
5291.00,0.28
5290.00,0.28
5289.00,0.28
5288.00,0.28
5287.00,0.28
5286.00,0.28
5285.00,0.28
5284.00,0.28
5283.00,0.28
5282.00,0.28
5281.00,0.27
5280.00,0.27
5279.00,0.27
5278.00,0.27
5277.00,0.27
5276.00,0.27
5275.00,0.27
5274.00,0.27
5273.00,0.27
5272.00,0.27
5271.00,0.27
5270.00,0.27
5269.00,0.27
5268.00,0.27
5267.00,0.27
5266.00,0.27
5265.00,0.27
5264.00,0.27
5263.00,0.27
5262.00,0.27
5261.00,0.27
5260.00,0.27
5259.00,0.27
5258.00,0.27
5257.00,0.27
5256.00,0.27
5255.00,0.27
5254.00,0.27
5253.00,0.27
5252.00,0.27
5251.00,0.27
5250.00,0.27
5249.00,0.27
5248.00,0.27
5247.00,0.27
5246.00,0.27
5245.00,0.27
5244.00,0.27
5243.00,0.27
5242.00,0.27
5241.00,0.27
5240.00,0.27
5239.00,0.27
5238.00,0.27
5237.00,0.27
5236.00,0.27
5235.00,0.27
5234.00,0.27
5233.00,0.27
5232.00,0.27
5231.00,0.27
5230.00,0.27
5229.00,0.27
5228.00,0.27
5227.00,0.27
5226.00,0.27
5225.00,0.27
5224.00,0.27
5223.00,0.27
5222.00,0.27
5221.00,0.27
5220.00,0.27
5219.00,0.27
5218.00,0.27
5217.00,0.27
5216.00,0.27
5215.00,0.27
5214.00,0.27
5213.00,0.27
5212.00,0.27
5211.00,0.27
5210.00,0.27
5209.00,0.27
5208.00,0.27
5207.00,0.27
5206.00,0.27
5205.00,0.27
5204.00,0.28
5203.00,0.28
5202.00,0.28
5201.00,0.28
5200.00,0.28
5199.00,0.28
5198.00,0.28
5197.00,0.28
5196.00,0.28
5195.00,0.28
5194.00,0.28
5193.00,0.28
5192.00,0.28
5191.00,0.28
5190.00,0.28
5189.00,0.28
5188.00,0.28
5187.00,0.28
5186.00,0.28
5185.00,0.28
5184.00,0.28
5183.00,0.28
5182.00,0.28
5181.00,0.28
5180.00,0.28
5179.00,0.28
5178.00,0.28
5177.00,0.28
5176.00,0.28
5175.00,0.28
5174.00,0.28
5173.00,0.28
5172.00,0.28
5171.00,0.28
5170.00,0.28
5169.00,0.28
5168.00,0.28
5167.00,0.28
5166.00,0.28
5165.00,0.28
5164.00,0.28
5163.00,0.28
5162.00,0.28
5161.00,0.28
5160.00,0.28
5159.00,0.28
5158.00,0.28
5157.00,0.28
5156.00,0.28
5155.00,0.28
5154.00,0.28
5153.00,0.28
5152.00,0.28
5151.00,0.28
5150.00,0.29
5149.00,0.29
5148.00,0.29
5147.00,0.29
5146.00,0.29
5145.00,0.29
5144.00,0.29
5143.00,0.29
5142.00,0.29
5141.00,0.29
5140.00,0.29
5139.00,0.29
5138.00,0.29
5137.00,0.29
5136.00,0.29
5135.00,0.29
5134.00,0.29
5133.00,0.29
5132.00,0.29
5131.00,0.29
5130.00,0.29
5129.00,0.29
5128.00,0.29
5127.00,0.29
5126.00,0.29
5125.00,0.29
5124.00,0.29
5123.00,0.29
5122.00,0.29
5121.00,0.29
5120.00,0.29
5119.00,0.29
5118.00,0.29
5117.00,0.29
5116.00,0.29
5115.00,0.29
5114.00,0.29
5113.00,0.29
5112.00,0.29
5111.00,0.29
5110.00,0.29
5109.00,0.29
5108.00,0.29
5107.00,0.29
5106.00,0.29
5105.00,0.29
5104.00,0.29
5103.00,0.29
5102.00,0.29
5101.00,0.29
5100.00,0.29
5099.00,0.29
5098.00,0.29
5097.00,0.30
5096.00,0.30
5095.00,0.30
5094.00,0.30
5093.00,0.30
5092.00,0.30
5091.00,0.30
5090.00,0.30
5089.00,0.30
5088.00,0.30
5087.00,0.30
5086.00,0.30
5085.00,0.30
5084.00,0.30
5083.00,0.30
5082.00,0.30
5081.00,0.30
5080.00,0.30
5079.00,0.30
5078.00,0.30
5077.00,0.30
5076.00,0.30
5075.00,0.30
5074.00,0.30
5073.00,0.30
5072.00,0.30
5071.00,0.30
5070.00,0.30
5069.00,0.30
5068.00,0.30
5067.00,0.30
5066.00,0.30
5065.00,0.30
5064.00,0.30
5063.00,0.30
5062.00,0.30
5061.00,0.30
5060.00,0.30
5059.00,0.30
5058.00,0.30
5057.00,0.30
5056.00,0.30
5055.00,0.30
5054.00,0.30
5053.00,0.30
5052.00,0.30
5051.00,0.30
5050.00,0.31
5049.00,0.31
5048.00,0.31
5047.00,0.31
5046.00,0.31
5045.00,0.31
5044.00,0.31
5043.00,0.31
5042.00,0.31
5041.00,0.31
5040.00,0.31
5039.00,0.31
5038.00,0.31
5037.00,0.31
5036.00,0.31
5035.00,0.31
5034.00,0.31
5033.00,0.31
5032.00,0.31
5031.00,0.31
5030.00,0.31
5029.00,0.31
5028.00,0.31
5027.00,0.31
5026.00,0.31
5025.00,0.31
5024.00,0.31
5023.00,0.31
5022.00,0.31
5021.00,0.31
5020.00,0.31
5019.00,0.31
5018.00,0.31
5017.00,0.31
5016.00,0.31
5015.00,0.31
5014.00,0.31
5013.00,0.31
5012.00,0.32
5011.00,0.32
5010.00,0.32
5009.00,0.32
5008.00,0.32
5007.00,0.32
5006.00,0.32
5005.00,0.32
5004.00,0.32
5003.00,0.32
5002.00,0.32
5001.00,0.32
5000.00,0.32
4999.00,0.32
4998.00,0.32
4997.00,0.32
4996.00,0.32
4995.00,0.32
4994.00,0.32
4993.00,0.32
4992.00,0.32
4991.00,0.32
4990.00,0.32
4989.00,0.32
4988.00,0.32
4987.00,0.32
4986.00,0.32
4985.00,0.32
4984.00,0.32
4983.00,0.32
4982.00,0.32
4981.00,0.32
4980.00,0.32
4979.00,0.32
4978.00,0.33
4977.00,0.33
4976.00,0.33
4975.00,0.33
4974.00,0.33
4973.00,0.33
4972.00,0.33
4971.00,0.33
4970.00,0.33
4969.00,0.33
4968.00,0.33
4967.00,0.33
4966.00,0.33
4965.00,0.33
4964.00,0.33
4963.00,0.33
4962.00,0.33
4961.00,0.33
4960.00,0.33
4959.00,0.33
4958.00,0.33
4957.00,0.33
4956.00,0.33
4955.00,0.33
4954.00,0.33
4953.00,0.34
4952.00,0.34
4951.00,0.34
4950.00,0.34
4949.00,0.34
4948.00,0.34
4947.00,0.34
4946.00,0.34
4945.00,0.34
4944.00,0.34
4943.00,0.34
4942.00,0.34
4941.00,0.34
4940.00,0.34
4939.00,0.34
4938.00,0.34
4937.00,0.34
4936.00,0.34
4935.00,0.34
4934.00,0.34
4933.00,0.34
4932.00,0.34
4931.00,0.34
4930.00,0.34
4929.00,0.34
4928.00,0.34
4927.00,0.34
4926.00,0.34
4925.00,0.34
4924.00,0.35
4923.00,0.35
4922.00,0.35
4921.00,0.35
4920.00,0.35
4919.00,0.35
4918.00,0.35
4917.00,0.35
4916.00,0.35
4915.00,0.35
4914.00,0.35
4913.00,0.35
4912.00,0.35
4911.00,0.35
4910.00,0.35
4909.00,0.35
4908.00,0.35
4907.00,0.35
4906.00,0.35
4905.00,0.35
4904.00,0.35
4903.00,0.35
4902.00,0.35
4901.00,0.35
4900.00,0.35
4899.00,0.35
4898.00,0.35
4897.00,0.35
4896.00,0.35
4895.00,0.35
4894.00,0.35
4893.00,0.35
4892.00,0.35
4891.00,0.35
4890.00,0.35
4889.00,0.35
4888.00,0.35
4887.00,0.35
4886.00,0.35
4885.00,0.35
4884.00,0.36
4883.00,0.36
4882.00,0.36
4881.00,0.36
4880.00,0.36
4879.00,0.36
4878.00,0.36
4877.00,0.36
4876.00,0.36
4875.00,0.36
4874.00,0.36
4873.00,0.36
4872.00,0.36
4871.00,0.36
4870.00,0.36
4869.00,0.36
4868.00,0.36
4867.00,0.36
4866.00,0.36
4865.00,0.36
4864.00,0.36
4863.00,0.36
4862.00,0.36
4861.00,0.36
4860.00,0.36
4859.00,0.36
4858.00,0.36
4857.00,0.36
4856.00,0.37
4855.00,0.37
4854.00,0.37
4853.00,0.37
4852.00,0.37
4851.00,0.37
4850.00,0.37
4849.00,0.37
4848.00,0.37
4847.00,0.37
4846.00,0.37
4845.00,0.37
4844.00,0.37
4843.00,0.38
4842.00,0.38
4841.00,0.38
4840.00,0.38
4839.00,0.38
4838.00,0.38
4837.00,0.38
4836.00,0.38
4835.00,0.38
4834.00,0.38
4833.00,0.38
4832.00,0.38
4831.00,0.38
4830.00,0.38
4829.00,0.38
4828.00,0.38
4827.00,0.38
4826.00,0.38
4825.00,0.38
4824.00,0.38
4823.00,0.38
4822.00,0.38
4821.00,0.38
4820.00,0.38
4819.00,0.38
4818.00,0.38
4817.00,0.38
4816.00,0.38
4815.00,0.38
4814.00,0.38
4813.00,0.38
4812.00,0.38
4811.00,0.38
4810.00,0.38
4809.00,0.38
4808.00,0.38
4807.00,0.39
4806.00,0.39
4805.00,0.39
4804.00,0.39
4803.00,0.39
4802.00,0.39
4801.00,0.39
4800.00,0.39
4799.00,0.39
4798.00,0.39
4797.00,0.39
4796.00,0.39
4795.00,0.39
4794.00,0.39
4793.00,0.39
4792.00,0.39
4791.00,0.39
4790.00,0.39
4789.00,0.39
4788.00,0.39
4787.00,0.40
4786.00,0.40
4785.00,0.40
4784.00,0.40
4783.00,0.40
4782.00,0.40
4781.00,0.40
4780.00,0.40
4779.00,0.40
4778.00,0.40
4777.00,0.40
4776.00,0.40
4775.00,0.40
4774.00,0.40
4773.00,0.40
4772.00,0.40
4771.00,0.40
4770.00,0.40
4769.00,0.40
4768.00,0.40
4767.00,0.40
4766.00,0.40
4765.00,0.40
4764.00,0.40
4763.00,0.40
4762.00,0.40
4761.00,0.40
4760.00,0.41
4759.00,0.41
4758.00,0.41
4757.00,0.41
4756.00,0.41
4755.00,0.41
4754.00,0.41
4753.00,0.41
4752.00,0.41
4751.00,0.41
4750.00,0.41
4749.00,0.41
4748.00,0.41
4747.00,0.42
4746.00,0.42
4745.00,0.42
4744.00,0.42
4743.00,0.42
4742.00,0.42
4741.00,0.42
4740.00,0.42
4739.00,0.42
4738.00,0.42
4737.00,0.42
4736.00,0.43
4735.00,0.43
4734.00,0.43
4733.00,0.43
4732.00,0.43
4731.00,0.43
4730.00,0.43
4729.00,0.43
4728.00,0.43
4727.00,0.43
4726.00,0.43
4725.00,0.43
4724.00,0.43
4723.00,0.43
4722.00,0.43
4721.00,0.43
4720.00,0.43
4719.00,0.43
4718.00,0.43
4717.00,0.43
4716.00,0.43
4715.00,0.43
4714.00,0.43
4713.00,0.44
4712.00,0.44
4711.00,0.44
4710.00,0.44
4709.00,0.44
4708.00,0.44
4707.00,0.44
4706.00,0.44
4705.00,0.44
4704.00,0.44
4703.00,0.44
4702.00,0.44
4701.00,0.44
4700.00,0.44
4699.00,0.44
4698.00,0.45
4697.00,0.45
4696.00,0.45
4695.00,0.45
4694.00,0.45
4693.00,0.45
4692.00,0.45
4691.00,0.45
4690.00,0.45
4689.00,0.45
4688.00,0.45
4687.00,0.45
4686.00,0.45
4685.00,0.46
4684.00,0.46
4683.00,0.46
4682.00,0.46
4681.00,0.46
4680.00,0.46
4679.00,0.46
4678.00,0.46
4677.00,0.46
4676.00,0.46
4675.00,0.46
4674.00,0.46
4673.00,0.46
4672.00,0.46
4671.00,0.46
4670.00,0.46
4669.00,0.46
4668.00,0.47
4667.00,0.47
4666.00,0.47
4665.00,0.47
4664.00,0.47
4663.00,0.47
4662.00,0.47
4661.00,0.47
4660.00,0.47
4659.00,0.47
4658.00,0.47
4657.00,0.47
4656.00,0.47
4655.00,0.47
4654.00,0.47
4653.00,0.47
4652.00,0.47
4651.00,0.47
4650.00,0.47
4649.00,0.47
4648.00,0.47
4647.00,0.47
4646.00,0.47
4645.00,0.47
4644.00,0.48
4643.00,0.48
4642.00,0.48
4641.00,0.48
4640.00,0.48
4639.00,0.48
4638.00,0.48
4637.00,0.48
4636.00,0.48
4635.00,0.48
4634.00,0.48
4633.00,0.48
4632.00,0.48
4631.00,0.48
4630.00,0.48
4629.00,0.48
4628.00,0.48
4627.00,0.48
4626.00,0.48
4625.00,0.48
4624.00,0.48
4623.00,0.48
4622.00,0.48
4621.00,0.48
4620.00,0.48
4619.00,0.49
4618.00,0.49
4617.00,0.49
4616.00,0.49
4615.00,0.49
4614.00,0.49
4613.00,0.49
4612.00,0.49
4611.00,0.49
4610.00,0.49
4609.00,0.49
4608.00,0.49
4607.00,0.49
4606.00,0.49
4605.00,0.49
4604.00,0.49
4603.00,0.49
4602.00,0.49
4601.00,0.49
4600.00,0.49
4599.00,0.49
4598.00,0.49
4597.00,0.49
4596.00,0.49
4595.00,0.49
4594.00,0.49
4593.00,0.49
4592.00,0.49
4591.00,0.49
4590.00,0.49
4589.00,0.49
4588.00,0.50
4587.00,0.50
4586.00,0.50
4585.00,0.50
4584.00,0.50
4583.00,0.50
4582.00,0.50
4581.00,0.50
4580.00,0.50
4579.00,0.50
4578.00,0.50
4577.00,0.50
4576.00,0.50
4575.00,0.50
4574.00,0.50
4573.00,0.50
4572.00,0.50
4571.00,0.50
4570.00,0.50
4569.00,0.50
4568.00,0.50
4567.00,0.50
4566.00,0.50
4565.00,0.50
4564.00,0.50
4563.00,0.50
4562.00,0.50
4561.00,0.50
4560.00,0.50
4559.00,0.50
4558.00,0.50
4557.00,0.51
4556.00,0.51
4555.00,0.51
4554.00,0.51
4553.00,0.51
4552.00,0.51
4551.00,0.51
4550.00,0.51
4549.00,0.51
4548.00,0.51
4547.00,0.51
4546.00,0.51
4545.00,0.51
4544.00,0.51
4543.00,0.51
4542.00,0.51
4541.00,0.51
4540.00,0.51
4539.00,0.51
4538.00,0.51
4537.00,0.51
4536.00,0.51
4535.00,0.51
4534.00,0.52
4533.00,0.52
4532.00,0.52
4531.00,0.52
4530.00,0.52
4529.00,0.52
4528.00,0.52
4527.00,0.52
4526.00,0.52
4525.00,0.51
4524.00,0.51
4523.00,0.51
4522.00,0.51
4521.00,0.51
4520.00,0.51
4519.00,0.51
4518.00,0.51
4517.00,0.51
4516.00,0.51
4515.00,0.51
4514.00,0.51
4513.00,0.51
4512.00,0.51
4511.00,0.51
4510.00,0.51
4509.00,0.51
4508.00,0.51
4507.00,0.51
4506.00,0.51
4505.00,0.51
4504.00,0.52
4503.00,0.52
4502.00,0.52
4501.00,0.52
4500.00,0.52
4499.00,0.52
4498.00,0.52
4497.00,0.52
4496.00,0.52
4495.00,0.52
4494.00,0.52
4493.00,0.52
4492.00,0.52
4491.00,0.52
4490.00,0.52
4489.00,0.52
4488.00,0.52
4487.00,0.52
4486.00,0.52
4485.00,0.52
4484.00,0.52
4483.00,0.52
4482.00,0.52
4481.00,0.52
4480.00,0.51
4479.00,0.51
4478.00,0.51
4477.00,0.51
4476.00,0.51
4475.00,0.51
4474.00,0.51
4473.00,0.51
4472.00,0.51
4471.00,0.51
4470.00,0.51
4469.00,0.51
4468.00,0.51
4467.00,0.50
4466.00,0.50
4465.00,0.50
4464.00,0.50
4463.00,0.50
4462.00,0.50
4461.00,0.50
4460.00,0.50
4459.00,0.50
4458.00,0.50
4457.00,0.49
4456.00,0.49
4455.00,0.49
4454.00,0.49
4453.00,0.49
4452.00,0.49
4451.00,0.49
4450.00,0.49
4449.00,0.49
4448.00,0.48
4447.00,0.48
4446.00,0.48
4445.00,0.48
4444.00,0.48
4443.00,0.48
4442.00,0.47
4441.00,0.47
4440.00,0.47
4439.00,0.47
4438.00,0.47
4437.00,0.47
4436.00,0.46
4435.00,0.46
4434.00,0.46
4433.00,0.46
4432.00,0.46
4431.00,0.46
4430.00,0.45
4429.00,0.45
4428.00,0.45
4427.00,0.45
4426.00,0.45
4425.00,0.45
4424.00,0.45
4423.00,0.45
4422.00,0.45
4421.00,0.45
4420.00,0.45
4419.00,0.45
4418.00,0.45
4417.00,0.45
4416.00,0.45
4415.00,0.45
4414.00,0.45
4413.00,0.45
4412.00,0.45
4411.00,0.45
4410.00,0.45
4409.00,0.45
4408.00,0.45
4407.00,0.45
4406.00,0.45
4405.00,0.45
4404.00,0.45
4403.00,0.45
4402.00,0.45
4401.00,0.45
4400.00,0.45
4399.00,0.46
4398.00,0.46
4397.00,0.46
4396.00,0.46
4395.00,0.46
4394.00,0.46
4393.00,0.46
4392.00,0.46
4391.00,0.46
4390.00,0.46
4389.00,0.46
4388.00,0.46
4387.00,0.46
4386.00,0.46
4385.00,0.46
4384.00,0.46
4383.00,0.46
4382.00,0.46
4381.00,0.46
4380.00,0.47
4379.00,0.47
4378.00,0.47
4377.00,0.47
4376.00,0.47
4375.00,0.47
4374.00,0.47
4373.00,0.47
4372.00,0.47
4371.00,0.47
4370.00,0.47
4369.00,0.47
4368.00,0.47
4367.00,0.47
4366.00,0.47
4365.00,0.47
4364.00,0.47
4363.00,0.47
4362.00,0.47
4361.00,0.47
4360.00,0.47
4359.00,0.47
4358.00,0.47
4357.00,0.47
4356.00,0.47
4355.00,0.47
4354.00,0.47
4353.00,0.47
4352.00,0.47
4351.00,0.47
4350.00,0.47
4349.00,0.47
4348.00,0.47
4347.00,0.47
4346.00,0.47
4345.00,0.47
4344.00,0.47
4343.00,0.47
4342.00,0.47
4341.00,0.47
4340.00,0.47
4339.00,0.47
4338.00,0.47
4337.00,0.47
4336.00,0.47
4335.00,0.47
4334.00,0.47
4333.00,0.47
4332.00,0.47
4331.00,0.47
4330.00,0.47
4329.00,0.47
4328.00,0.47
4327.00,0.47
4326.00,0.47
4325.00,0.47
4324.00,0.47
4323.00,0.48
4322.00,0.48
4321.00,0.48
4320.00,0.48
4319.00,0.48
4318.00,0.48
4317.00,0.48
4316.00,0.48
4315.00,0.48
4314.00,0.48
4313.00,0.48
4312.00,0.49
4311.00,0.49
4310.00,0.49
4309.00,0.49
4308.00,0.49
4307.00,0.49
4306.00,0.49
4305.00,0.49
4304.00,0.49
4303.00,0.49
4302.00,0.49
4301.00,0.49
4300.00,0.50
4299.00,0.50
4298.00,0.50
4297.00,0.50
4296.00,0.50
4295.00,0.50
4294.00,0.50
4293.00,0.50
4292.00,0.50
4291.00,0.50
4290.00,0.50
4289.00,0.50
4288.00,0.50
4287.00,0.50
4286.00,0.50
4285.00,0.50
4284.00,0.50
4283.00,0.50
4282.00,0.50
4281.00,0.50
4280.00,0.50
4279.00,0.50
4278.00,0.50
4277.00,0.50
4276.00,0.50
4275.00,0.50
4274.00,0.50
4273.00,0.50
4272.00,0.50
4271.00,0.50
4270.00,0.50
4269.00,0.50
4268.00,0.50
4267.00,0.50
4266.00,0.50
4265.00,0.50
4264.00,0.50
4263.00,0.50
4262.00,0.50
4261.00,0.50
4260.00,0.50
4259.00,0.50
4258.00,0.50
4257.00,0.50
4256.00,0.50
4255.00,0.50
4254.00,0.50
4253.00,0.50
4252.00,0.50
4251.00,0.50
4250.00,0.50
4249.00,0.50
4248.00,0.50
4247.00,0.50
4246.00,0.50
4245.00,0.50
4244.00,0.50
4243.00,0.51
4242.00,0.51
4241.00,0.51
4240.00,0.51
4239.00,0.51
4238.00,0.51
4237.00,0.51
4236.00,0.51
4235.00,0.51
4234.00,0.51
4233.00,0.51
4232.00,0.51
4231.00,0.51
4230.00,0.51
4229.00,0.51
4228.00,0.51
4227.00,0.51
4226.00,0.51
4225.00,0.51
4224.00,0.51
4223.00,0.51
4222.00,0.51
4221.00,0.51
4220.00,0.51
4219.00,0.51
4218.00,0.52
4217.00,0.52
4216.00,0.52
4215.00,0.52
4214.00,0.52
4213.00,0.52
4212.00,0.52
4211.00,0.52
4210.00,0.52
4209.00,0.52
4208.00,0.52
4207.00,0.52
4206.00,0.52
4205.00,0.52
4204.00,0.52
4203.00,0.52
4202.00,0.52
4201.00,0.52
4200.00,0.52
4199.00,0.52
4198.00,0.51
4197.00,0.51
4196.00,0.51
4195.00,0.51
4194.00,0.51
4193.00,0.51
4192.00,0.51
4191.00,0.51
4190.00,0.51
4189.00,0.51
4188.00,0.51
4187.00,0.51
4186.00,0.51
4185.00,0.51
4184.00,0.51
4183.00,0.51
4182.00,0.51
4181.00,0.52
4180.00,0.52
4179.00,0.52
4178.00,0.52
4177.00,0.52
4176.00,0.52
4175.00,0.52
4174.00,0.52
4173.00,0.52
4172.00,0.52
4171.00,0.52
4170.00,0.52
4169.00,0.52
4168.00,0.52
4167.00,0.52
4166.00,0.52
4165.00,0.52
4164.00,0.52
4163.00,0.52
4162.00,0.52
4161.00,0.52
4160.00,0.52
4159.00,0.52
4158.00,0.52
4157.00,0.52
4156.00,0.52
4155.00,0.52
4154.00,0.52
4153.00,0.52
4152.00,0.52
4151.00,0.52
4150.00,0.52
4149.00,0.52
4148.00,0.52
4147.00,0.52
4146.00,0.52
4145.00,0.52
4144.00,0.52
4143.00,0.52
4142.00,0.52
4141.00,0.52
4140.00,0.52
4139.00,0.52
4138.00,0.52
4137.00,0.52
4136.00,0.52
4135.00,0.52
4134.00,0.52
4133.00,0.52
4132.00,0.52
4131.00,0.52
4130.00,0.52
4129.00,0.52
4128.00,0.52
4127.00,0.52
4126.00,0.52
4125.00,0.52
4124.00,0.52
4123.00,0.52
4122.00,0.52
4121.00,0.52
4120.00,0.52
4119.00,0.52
4118.00,0.52
4117.00,0.52
4116.00,0.53
4115.00,0.53
4114.00,0.53
4113.00,0.53
4112.00,0.53
4111.00,0.53
4110.00,0.53
4109.00,0.53
4108.00,0.53
4107.00,0.53
4106.00,0.53
4105.00,0.53
4104.00,0.53
4103.00,0.53
4102.00,0.53
4101.00,0.53
4100.00,0.53
4099.00,0.53
4098.00,0.53
4097.00,0.53
4096.00,0.53
4095.00,0.53
4094.00,0.53
4093.00,0.53
4092.00,0.53
4091.00,0.53
4090.00,0.53
4089.00,0.53
4088.00,0.53
4087.00,0.53
4086.00,0.53
4085.00,0.53
4084.00,0.53
4083.00,0.53
4082.00,0.53
4081.00,0.53
4080.00,0.54
4079.00,0.54
4078.00,0.54
4077.00,0.54
4076.00,0.54
4075.00,0.54
4074.00,0.54
4073.00,0.54
4072.00,0.54
4071.00,0.54
4070.00,0.54
4069.00,0.54
4068.00,0.54
4067.00,0.54
4066.00,0.54
4065.00,0.54
4064.00,0.54
4063.00,0.54
4062.00,0.54
4061.00,0.54
4060.00,0.54
4059.00,0.54
4058.00,0.54
4057.00,0.54
4056.00,0.54
4055.00,0.54
4054.00,0.54
4053.00,0.54
4052.00,0.54
4051.00,0.54
4050.00,0.54
4049.00,0.54
4048.00,0.54
4047.00,0.54
4046.00,0.54
4045.00,0.54
4044.00,0.54
4043.00,0.54
4042.00,0.54
4041.00,0.54
4040.00,0.54
4039.00,0.54
4038.00,0.54
4037.00,0.54
4036.00,0.54
4035.00,0.54
4034.00,0.54
4033.00,0.54
4032.00,0.54
4031.00,0.54
4030.00,0.54
4029.00,0.54
4028.00,0.54
4027.00,0.54
4026.00,0.54
4025.00,0.55
4024.00,0.55
4023.00,0.55
4022.00,0.55
4021.00,0.55
4020.00,0.55
4019.00,0.55
4018.00,0.55
4017.00,0.55
4016.00,0.55
4015.00,0.55
4014.00,0.55
4013.00,0.56
4012.00,0.56
4011.00,0.56
4010.00,0.56
4009.00,0.56
4008.00,0.56
4007.00,0.56
4006.00,0.56
4005.00,0.56
4004.00,0.56
4003.00,0.56
4002.00,0.56
4001.00,0.56
4000.00,0.56
