创建为新数据集,样品 455 用户 Administrator 日期 星期日, 七月 15 2018
cm-1,%T
10000.00,0.59
9999.00,0.60
9998.00,0.60
9997.00,0.60
9996.00,0.60
9995.00,0.60
9994.00,0.60
9993.00,0.60
9992.00,0.60
9991.00,0.60
9990.00,0.60
9989.00,0.60
9988.00,0.59
9987.00,0.59
9986.00,0.59
9985.00,0.59
9984.00,0.59
9983.00,0.58
9982.00,0.58
9981.00,0.58
9980.00,0.57
9979.00,0.57
9978.00,0.57
9977.00,0.57
9976.00,0.57
9975.00,0.56
9974.00,0.56
9973.00,0.56
9972.00,0.56
9971.00,0.56
9970.00,0.56
9969.00,0.56
9968.00,0.56
9967.00,0.57
9966.00,0.57
9965.00,0.57
9964.00,0.57
9963.00,0.57
9962.00,0.57
9961.00,0.58
9960.00,0.58
9959.00,0.58
9958.00,0.58
9957.00,0.58
9956.00,0.58
9955.00,0.58
9954.00,0.58
9953.00,0.58
9952.00,0.58
9951.00,0.58
9950.00,0.58
9949.00,0.58
9948.00,0.58
9947.00,0.58
9946.00,0.58
9945.00,0.58
9944.00,0.58
9943.00,0.58
9942.00,0.58
9941.00,0.58
9940.00,0.58
9939.00,0.58
9938.00,0.58
9937.00,0.58
9936.00,0.58
9935.00,0.58
9934.00,0.58
9933.00,0.59
9932.00,0.59
9931.00,0.59
9930.00,0.59
9929.00,0.59
9928.00,0.59
9927.00,0.59
9926.00,0.59
9925.00,0.59
9924.00,0.59
9923.00,0.59
9922.00,0.59
9921.00,0.58
9920.00,0.58
9919.00,0.58
9918.00,0.58
9917.00,0.58
9916.00,0.57
9915.00,0.57
9914.00,0.57
9913.00,0.57
9912.00,0.57
9911.00,0.57
9910.00,0.57
9909.00,0.57
9908.00,0.57
9907.00,0.57
9906.00,0.58
9905.00,0.58
9904.00,0.58
9903.00,0.58
9902.00,0.58
9901.00,0.58
9900.00,0.58
9899.00,0.58
9898.00,0.58
9897.00,0.58
9896.00,0.57
9895.00,0.57
9894.00,0.57
9893.00,0.57
9892.00,0.57
9891.00,0.57
9890.00,0.57
9889.00,0.57
9888.00,0.57
9887.00,0.57
9886.00,0.57
9885.00,0.57
9884.00,0.58
9883.00,0.58
9882.00,0.58
9881.00,0.58
9880.00,0.58
9879.00,0.58
9878.00,0.58
9877.00,0.58
9876.00,0.58
9875.00,0.58
9874.00,0.58
9873.00,0.58
9872.00,0.58
9871.00,0.58
9870.00,0.58
9869.00,0.58
9868.00,0.58
9867.00,0.58
9866.00,0.58
9865.00,0.59
9864.00,0.59
9863.00,0.59
9862.00,0.59
9861.00,0.59
9860.00,0.59
9859.00,0.59
9858.00,0.59
9857.00,0.59
9856.00,0.59
9855.00,0.58
9854.00,0.58
9853.00,0.58
9852.00,0.58
9851.00,0.58
9850.00,0.58
9849.00,0.57
9848.00,0.57
9847.00,0.57
9846.00,0.57
9845.00,0.57
9844.00,0.57
9843.00,0.57
9842.00,0.57
9841.00,0.57
9840.00,0.57
9839.00,0.57
9838.00,0.57
9837.00,0.58
9836.00,0.58
9835.00,0.58
9834.00,0.58
9833.00,0.58
9832.00,0.58
9831.00,0.58
9830.00,0.58
9829.00,0.58
9828.00,0.58
9827.00,0.58
9826.00,0.58
9825.00,0.58
9824.00,0.58
9823.00,0.58
9822.00,0.58
9821.00,0.58
9820.00,0.58
9819.00,0.58
9818.00,0.58
9817.00,0.58
9816.00,0.58
9815.00,0.58
9814.00,0.58
9813.00,0.58
9812.00,0.58
9811.00,0.58
9810.00,0.57
9809.00,0.57
9808.00,0.57
9807.00,0.57
9806.00,0.57
9805.00,0.57
9804.00,0.57
9803.00,0.56
9802.00,0.56
9801.00,0.56
9800.00,0.56
9799.00,0.55
9798.00,0.55
9797.00,0.55
9796.00,0.55
9795.00,0.55
9794.00,0.55
9793.00,0.55
9792.00,0.55
9791.00,0.55
9790.00,0.55
9789.00,0.55
9788.00,0.55
9787.00,0.55
9786.00,0.55
9785.00,0.55
9784.00,0.55
9783.00,0.55
9782.00,0.55
9781.00,0.55
9780.00,0.55
9779.00,0.55
9778.00,0.55
9777.00,0.56
9776.00,0.56
9775.00,0.56
9774.00,0.56
9773.00,0.56
9772.00,0.56
9771.00,0.56
9770.00,0.56
9769.00,0.56
9768.00,0.56
9767.00,0.56
9766.00,0.57
9765.00,0.57
9764.00,0.57
9763.00,0.57
9762.00,0.57
9761.00,0.57
9760.00,0.57
9759.00,0.57
9758.00,0.57
9757.00,0.58
9756.00,0.58
9755.00,0.58
9754.00,0.58
9753.00,0.58
9752.00,0.58
9751.00,0.57
9750.00,0.57
9749.00,0.57
9748.00,0.57
9747.00,0.57
9746.00,0.57
9745.00,0.57
9744.00,0.57
9743.00,0.57
9742.00,0.57
9741.00,0.57
9740.00,0.57
9739.00,0.57
9738.00,0.57
9737.00,0.57
9736.00,0.57
9735.00,0.58
9734.00,0.58
9733.00,0.58
9732.00,0.58
9731.00,0.58
9730.00,0.58
9729.00,0.58
9728.00,0.59
9727.00,0.59
9726.00,0.59
9725.00,0.59
9724.00,0.59
9723.00,0.59
9722.00,0.59
9721.00,0.60
9720.00,0.60
9719.00,0.60
9718.00,0.60
9717.00,0.60
9716.00,0.59
9715.00,0.59
9714.00,0.59
9713.00,0.59
9712.00,0.59
9711.00,0.59
9710.00,0.59
9709.00,0.58
9708.00,0.58
9707.00,0.58
9706.00,0.58
9705.00,0.58
9704.00,0.58
9703.00,0.58
9702.00,0.57
9701.00,0.57
9700.00,0.57
9699.00,0.57
9698.00,0.57
9697.00,0.57
9696.00,0.57
9695.00,0.57
9694.00,0.57
9693.00,0.57
9692.00,0.57
9691.00,0.58
9690.00,0.58
9689.00,0.58
9688.00,0.58
9687.00,0.58
9686.00,0.58
9685.00,0.58
9684.00,0.58
9683.00,0.58
9682.00,0.59
9681.00,0.59
9680.00,0.59
9679.00,0.59
9678.00,0.59
9677.00,0.59
9676.00,0.59
9675.00,0.59
9674.00,0.59
9673.00,0.58
9672.00,0.58
9671.00,0.58
9670.00,0.58
9669.00,0.58
9668.00,0.57
9667.00,0.57
9666.00,0.57
9665.00,0.57
9664.00,0.56
9663.00,0.56
9662.00,0.56
9661.00,0.56
9660.00,0.55
9659.00,0.55
9658.00,0.55
9657.00,0.55
9656.00,0.55
9655.00,0.55
9654.00,0.55
9653.00,0.55
9652.00,0.55
9651.00,0.55
9650.00,0.55
9649.00,0.55
9648.00,0.55
9647.00,0.55
9646.00,0.55
9645.00,0.55
9644.00,0.55
9643.00,0.55
9642.00,0.55
9641.00,0.55
9640.00,0.55
9639.00,0.56
9638.00,0.56
9637.00,0.56
9636.00,0.56
9635.00,0.56
9634.00,0.56
9633.00,0.56
9632.00,0.56
9631.00,0.56
9630.00,0.57
9629.00,0.57
9628.00,0.57
9627.00,0.57
9626.00,0.57
9625.00,0.57
9624.00,0.57
9623.00,0.57
9622.00,0.57
9621.00,0.57
9620.00,0.57
9619.00,0.57
9618.00,0.57
9617.00,0.58
9616.00,0.58
9615.00,0.58
9614.00,0.58
9613.00,0.58
9612.00,0.58
9611.00,0.58
9610.00,0.58
9609.00,0.58
9608.00,0.58
9607.00,0.58
9606.00,0.58
9605.00,0.58
9604.00,0.58
9603.00,0.58
9602.00,0.58
9601.00,0.58
9600.00,0.58
9599.00,0.58
9598.00,0.58
9597.00,0.58
9596.00,0.58
9595.00,0.58
9594.00,0.58
9593.00,0.58
9592.00,0.58
9591.00,0.57
9590.00,0.57
9589.00,0.57
9588.00,0.57
9587.00,0.57
9586.00,0.57
9585.00,0.57
9584.00,0.57
9583.00,0.57
9582.00,0.57
9581.00,0.57
9580.00,0.57
9579.00,0.57
9578.00,0.57
9577.00,0.57
9576.00,0.57
9575.00,0.57
9574.00,0.57
9573.00,0.57
9572.00,0.57
9571.00,0.57
9570.00,0.57
9569.00,0.57
9568.00,0.57
9567.00,0.57
9566.00,0.57
9565.00,0.57
9564.00,0.57
9563.00,0.57
9562.00,0.57
9561.00,0.57
9560.00,0.57
9559.00,0.57
9558.00,0.57
9557.00,0.57
9556.00,0.57
9555.00,0.57
9554.00,0.57
9553.00,0.57
9552.00,0.57
9551.00,0.57
9550.00,0.58
9549.00,0.58
9548.00,0.58
9547.00,0.58
9546.00,0.58
9545.00,0.58
9544.00,0.58
9543.00,0.58
9542.00,0.58
9541.00,0.58
9540.00,0.58
9539.00,0.58
9538.00,0.58
9537.00,0.58
9536.00,0.58
9535.00,0.58
9534.00,0.58
9533.00,0.58
9532.00,0.58
9531.00,0.58
9530.00,0.57
9529.00,0.57
9528.00,0.57
9527.00,0.57
9526.00,0.57
9525.00,0.57
9524.00,0.57
9523.00,0.57
9522.00,0.57
9521.00,0.57
9520.00,0.57
9519.00,0.57
9518.00,0.57
9517.00,0.57
9516.00,0.57
9515.00,0.57
9514.00,0.57
9513.00,0.57
9512.00,0.57
9511.00,0.57
9510.00,0.57
9509.00,0.57
9508.00,0.57
9507.00,0.57
9506.00,0.57
9505.00,0.57
9504.00,0.57
9503.00,0.57
9502.00,0.57
9501.00,0.57
9500.00,0.57
9499.00,0.57
9498.00,0.57
9497.00,0.57
9496.00,0.57
9495.00,0.57
9494.00,0.57
9493.00,0.57
9492.00,0.57
9491.00,0.56
9490.00,0.56
9489.00,0.56
9488.00,0.56
9487.00,0.56
9486.00,0.56
9485.00,0.56
9484.00,0.56
9483.00,0.56
9482.00,0.56
9481.00,0.56
9480.00,0.56
9479.00,0.56
9478.00,0.56
9477.00,0.56
9476.00,0.57
9475.00,0.57
9474.00,0.57
9473.00,0.57
9472.00,0.57
9471.00,0.57
9470.00,0.57
9469.00,0.57
9468.00,0.56
9467.00,0.56
9466.00,0.56
9465.00,0.56
9464.00,0.56
9463.00,0.56
9462.00,0.56
9461.00,0.56
9460.00,0.56
9459.00,0.55
9458.00,0.55
9457.00,0.55
9456.00,0.55
9455.00,0.55
9454.00,0.55
9453.00,0.55
9452.00,0.56
9451.00,0.56
9450.00,0.56
9449.00,0.56
9448.00,0.56
9447.00,0.57
9446.00,0.57
9445.00,0.57
9444.00,0.57
9443.00,0.58
9442.00,0.58
9441.00,0.58
9440.00,0.58
9439.00,0.58
9438.00,0.58
9437.00,0.58
9436.00,0.58
9435.00,0.58
9434.00,0.58
9433.00,0.58
9432.00,0.58
9431.00,0.58
9430.00,0.58
9429.00,0.58
9428.00,0.58
9427.00,0.58
9426.00,0.58
9425.00,0.58
9424.00,0.58
9423.00,0.58
9422.00,0.58
9421.00,0.58
9420.00,0.58
9419.00,0.58
9418.00,0.58
9417.00,0.58
9416.00,0.58
9415.00,0.58
9414.00,0.58
9413.00,0.59
9412.00,0.59
9411.00,0.58
9410.00,0.58
9409.00,0.58
9408.00,0.58
9407.00,0.58
9406.00,0.58
9405.00,0.58
9404.00,0.58
9403.00,0.57
9402.00,0.57
9401.00,0.57
9400.00,0.57
9399.00,0.57
9398.00,0.57
9397.00,0.57
9396.00,0.56
9395.00,0.56
9394.00,0.56
9393.00,0.57
9392.00,0.57
9391.00,0.57
9390.00,0.57
9389.00,0.57
9388.00,0.57
9387.00,0.58
9386.00,0.58
9385.00,0.58
9384.00,0.58
9383.00,0.58
9382.00,0.59
9381.00,0.59
9380.00,0.59
9379.00,0.59
9378.00,0.59
9377.00,0.59
9376.00,0.59
9375.00,0.60
9374.00,0.60
9373.00,0.60
9372.00,0.60
9371.00,0.60
9370.00,0.60
9369.00,0.60
9368.00,0.60
9367.00,0.60
9366.00,0.60
9365.00,0.60
9364.00,0.60
9363.00,0.60
9362.00,0.60
9361.00,0.60
9360.00,0.59
9359.00,0.59
9358.00,0.59
9357.00,0.59
9356.00,0.59
9355.00,0.59
9354.00,0.58
9353.00,0.58
9352.00,0.58
9351.00,0.58
9350.00,0.57
9349.00,0.57
9348.00,0.57
9347.00,0.57
9346.00,0.56
9345.00,0.56
9344.00,0.56
9343.00,0.55
9342.00,0.55
9341.00,0.55
9340.00,0.55
9339.00,0.55
9338.00,0.54
9337.00,0.54
9336.00,0.54
9335.00,0.54
9334.00,0.54
9333.00,0.54
9332.00,0.54
9331.00,0.54
9330.00,0.54
9329.00,0.54
9328.00,0.54
9327.00,0.54
9326.00,0.54
9325.00,0.54
9324.00,0.55
9323.00,0.55
9322.00,0.55
9321.00,0.56
9320.00,0.56
9319.00,0.56
9318.00,0.56
9317.00,0.57
9316.00,0.57
9315.00,0.57
9314.00,0.57
9313.00,0.58
9312.00,0.58
9311.00,0.58
9310.00,0.58
9309.00,0.58
9308.00,0.58
9307.00,0.58
9306.00,0.58
9305.00,0.58
9304.00,0.58
9303.00,0.58
9302.00,0.57
9301.00,0.57
9300.00,0.57
9299.00,0.57
9298.00,0.57
9297.00,0.56
9296.00,0.56
9295.00,0.56
9294.00,0.56
9293.00,0.56
9292.00,0.56
9291.00,0.56
9290.00,0.56
9289.00,0.56
9288.00,0.56
9287.00,0.56
9286.00,0.57
9285.00,0.57
9284.00,0.57
9283.00,0.57
9282.00,0.58
9281.00,0.58
9280.00,0.58
9279.00,0.59
9278.00,0.59
9277.00,0.59
9276.00,0.59
9275.00,0.59
9274.00,0.59
9273.00,0.60
9272.00,0.60
9271.00,0.60
9270.00,0.59
9269.00,0.59
9268.00,0.59
9267.00,0.59
9266.00,0.59
9265.00,0.59
9264.00,0.59
9263.00,0.59
9262.00,0.59
9261.00,0.59
9260.00,0.59
9259.00,0.59
9258.00,0.59
9257.00,0.58
9256.00,0.58
9255.00,0.58
9254.00,0.58
9253.00,0.58
9252.00,0.58
9251.00,0.58
9250.00,0.58
9249.00,0.58
9248.00,0.58
9247.00,0.58
9246.00,0.58
9245.00,0.58
9244.00,0.58
9243.00,0.58
9242.00,0.58
9241.00,0.57
9240.00,0.57
9239.00,0.57
9238.00,0.57
9237.00,0.57
9236.00,0.57
9235.00,0.57
9234.00,0.57
9233.00,0.57
9232.00,0.57
9231.00,0.56
9230.00,0.56
9229.00,0.56
9228.00,0.57
9227.00,0.57
9226.00,0.57
9225.00,0.57
9224.00,0.57
9223.00,0.57
9222.00,0.57
9221.00,0.57
9220.00,0.57
9219.00,0.57
9218.00,0.58
9217.00,0.58
9216.00,0.58
9215.00,0.58
9214.00,0.58
9213.00,0.58
9212.00,0.58
9211.00,0.58
9210.00,0.58
9209.00,0.58
9208.00,0.58
9207.00,0.58
9206.00,0.58
9205.00,0.58
9204.00,0.58
9203.00,0.58
9202.00,0.58
9201.00,0.58
9200.00,0.58
9199.00,0.58
9198.00,0.58
9197.00,0.58
9196.00,0.58
9195.00,0.58
9194.00,0.58
9193.00,0.58
9192.00,0.58
9191.00,0.58
9190.00,0.58
9189.00,0.58
9188.00,0.58
9187.00,0.58
9186.00,0.58
9185.00,0.58
9184.00,0.58
9183.00,0.58
9182.00,0.57
9181.00,0.57
9180.00,0.57
9179.00,0.57
9178.00,0.57
9177.00,0.57
9176.00,0.57
9175.00,0.57
9174.00,0.58
9173.00,0.58
9172.00,0.58
9171.00,0.58
9170.00,0.58
9169.00,0.58
9168.00,0.59
9167.00,0.59
9166.00,0.59
9165.00,0.59
9164.00,0.59
9163.00,0.59
9162.00,0.59
9161.00,0.60
9160.00,0.60
9159.00,0.60
9158.00,0.60
9157.00,0.60
9156.00,0.60
9155.00,0.60
9154.00,0.60
9153.00,0.60
9152.00,0.60
9151.00,0.60
9150.00,0.60
9149.00,0.60
9148.00,0.60
9147.00,0.60
9146.00,0.60
9145.00,0.60
9144.00,0.60
9143.00,0.60
9142.00,0.59
9141.00,0.59
9140.00,0.59
9139.00,0.59
9138.00,0.59
9137.00,0.59
9136.00,0.60
9135.00,0.60
9134.00,0.60
9133.00,0.60
9132.00,0.60
9131.00,0.60
9130.00,0.60
9129.00,0.60
9128.00,0.60
9127.00,0.60
9126.00,0.60
9125.00,0.60
9124.00,0.59
9123.00,0.59
9122.00,0.59
9121.00,0.59
9120.00,0.59
9119.00,0.59
9118.00,0.59
9117.00,0.58
9116.00,0.58
9115.00,0.58
9114.00,0.58
9113.00,0.58
9112.00,0.57
9111.00,0.57
9110.00,0.57
9109.00,0.57
9108.00,0.57
9107.00,0.57
9106.00,0.57
9105.00,0.57
9104.00,0.57
9103.00,0.57
9102.00,0.57
9101.00,0.57
9100.00,0.57
9099.00,0.58
9098.00,0.58
9097.00,0.58
9096.00,0.58
9095.00,0.58
9094.00,0.58
9093.00,0.58
9092.00,0.58
9091.00,0.59
9090.00,0.59
9089.00,0.59
9088.00,0.59
9087.00,0.59
9086.00,0.59
9085.00,0.59
9084.00,0.59
9083.00,0.59
9082.00,0.59
9081.00,0.59
9080.00,0.59
9079.00,0.59
9078.00,0.59
9077.00,0.59
9076.00,0.59
9075.00,0.59
9074.00,0.59
9073.00,0.59
9072.00,0.59
9071.00,0.59
9070.00,0.59
9069.00,0.59
9068.00,0.59
9067.00,0.59
9066.00,0.59
9065.00,0.59
9064.00,0.59
9063.00,0.59
9062.00,0.59
9061.00,0.59
9060.00,0.59
9059.00,0.59
9058.00,0.59
9057.00,0.59
9056.00,0.59
9055.00,0.59
9054.00,0.58
9053.00,0.58
9052.00,0.58
9051.00,0.58
9050.00,0.58
9049.00,0.58
9048.00,0.58
9047.00,0.58
9046.00,0.58
9045.00,0.58
9044.00,0.58
9043.00,0.58
9042.00,0.58
9041.00,0.58
9040.00,0.58
9039.00,0.58
9038.00,0.58
9037.00,0.58
9036.00,0.58
9035.00,0.58
9034.00,0.58
9033.00,0.59
9032.00,0.59
9031.00,0.59
9030.00,0.59
9029.00,0.59
9028.00,0.59
9027.00,0.59
9026.00,0.59
9025.00,0.59
9024.00,0.59
9023.00,0.59
9022.00,0.59
9021.00,0.59
9020.00,0.59
9019.00,0.59
9018.00,0.59
9017.00,0.59
9016.00,0.59
9015.00,0.60
9014.00,0.60
9013.00,0.60
9012.00,0.59
9011.00,0.59
9010.00,0.59
9009.00,0.59
9008.00,0.59
9007.00,0.59
9006.00,0.59
9005.00,0.59
9004.00,0.59
9003.00,0.58
9002.00,0.58
9001.00,0.58
9000.00,0.58
8999.00,0.58
8998.00,0.58
8997.00,0.58
8996.00,0.58
8995.00,0.58
8994.00,0.58
8993.00,0.58
8992.00,0.58
8991.00,0.58
8990.00,0.58
8989.00,0.58
8988.00,0.58
8987.00,0.58
8986.00,0.58
8985.00,0.58
8984.00,0.58
8983.00,0.58
8982.00,0.59
8981.00,0.59
8980.00,0.59
8979.00,0.59
8978.00,0.59
8977.00,0.59
8976.00,0.59
8975.00,0.59
8974.00,0.59
8973.00,0.59
8972.00,0.59
8971.00,0.59
8970.00,0.59
8969.00,0.59
8968.00,0.59
8967.00,0.59
8966.00,0.59
8965.00,0.59
8964.00,0.59
8963.00,0.59
8962.00,0.59
8961.00,0.59
8960.00,0.59
8959.00,0.59
8958.00,0.59
8957.00,0.59
8956.00,0.59
8955.00,0.59
8954.00,0.59
8953.00,0.59
8952.00,0.59
8951.00,0.59
8950.00,0.59
8949.00,0.58
8948.00,0.58
8947.00,0.58
8946.00,0.58
8945.00,0.58
8944.00,0.58
8943.00,0.58
8942.00,0.58
8941.00,0.58
8940.00,0.58
8939.00,0.58
8938.00,0.58
8937.00,0.58
8936.00,0.58
8935.00,0.58
8934.00,0.58
8933.00,0.58
8932.00,0.58
8931.00,0.58
8930.00,0.58
8929.00,0.58
8928.00,0.58
8927.00,0.58
8926.00,0.58
8925.00,0.58
8924.00,0.58
8923.00,0.59
8922.00,0.59
8921.00,0.59
8920.00,0.59
8919.00,0.59
8918.00,0.59
8917.00,0.59
8916.00,0.59
8915.00,0.59
8914.00,0.59
8913.00,0.59
8912.00,0.59
8911.00,0.59
8910.00,0.59
8909.00,0.59
8908.00,0.59
8907.00,0.59
8906.00,0.59
8905.00,0.59
8904.00,0.59
8903.00,0.59
8902.00,0.59
8901.00,0.59
8900.00,0.59
8899.00,0.58
8898.00,0.58
8897.00,0.58
8896.00,0.58
8895.00,0.58
8894.00,0.58
8893.00,0.58
8892.00,0.58
8891.00,0.58
8890.00,0.58
8889.00,0.58
8888.00,0.58
8887.00,0.58
8886.00,0.58
8885.00,0.58
8884.00,0.58
8883.00,0.58
8882.00,0.58
8881.00,0.58
8880.00,0.58
8879.00,0.58
8878.00,0.58
8877.00,0.58
8876.00,0.58
8875.00,0.58
8874.00,0.58
8873.00,0.58
8872.00,0.59
8871.00,0.59
8870.00,0.59
8869.00,0.59
8868.00,0.59
8867.00,0.59
8866.00,0.59
8865.00,0.59
8864.00,0.59
8863.00,0.59
8862.00,0.59
8861.00,0.59
8860.00,0.59
8859.00,0.59
8858.00,0.59
8857.00,0.58
8856.00,0.58
8855.00,0.58
8854.00,0.58
8853.00,0.58
8852.00,0.58
8851.00,0.58
8850.00,0.58
8849.00,0.58
8848.00,0.58
8847.00,0.58
8846.00,0.58
8845.00,0.58
8844.00,0.58
8843.00,0.58
8842.00,0.58
8841.00,0.58
8840.00,0.58
8839.00,0.58
8838.00,0.58
8837.00,0.58
8836.00,0.58
8835.00,0.58
8834.00,0.59
8833.00,0.59
8832.00,0.59
8831.00,0.59
8830.00,0.59
8829.00,0.59
8828.00,0.59
8827.00,0.59
8826.00,0.59
8825.00,0.59
8824.00,0.59
8823.00,0.59
8822.00,0.58
8821.00,0.58
8820.00,0.58
8819.00,0.58
8818.00,0.58
8817.00,0.58
8816.00,0.58
8815.00,0.58
8814.00,0.58
8813.00,0.58
8812.00,0.58
8811.00,0.58
8810.00,0.58
8809.00,0.58
8808.00,0.58
8807.00,0.58
8806.00,0.58
8805.00,0.58
8804.00,0.58
8803.00,0.58
8802.00,0.58
8801.00,0.58
8800.00,0.58
8799.00,0.58
8798.00,0.57
8797.00,0.57
8796.00,0.57
8795.00,0.57
8794.00,0.57
8793.00,0.57
8792.00,0.57
8791.00,0.57
8790.00,0.56
8789.00,0.56
8788.00,0.56
8787.00,0.56
8786.00,0.56
8785.00,0.56
8784.00,0.56
8783.00,0.56
8782.00,0.56
8781.00,0.56
8780.00,0.56
8779.00,0.56
8778.00,0.56
8777.00,0.56
8776.00,0.56
8775.00,0.57
8774.00,0.57
8773.00,0.57
8772.00,0.57
8771.00,0.57
8770.00,0.57
8769.00,0.57
8768.00,0.57
8767.00,0.58
8766.00,0.58
8765.00,0.58
8764.00,0.58
8763.00,0.58
8762.00,0.58
8761.00,0.58
8760.00,0.58
8759.00,0.58
8758.00,0.58
8757.00,0.58
8756.00,0.58
8755.00,0.58
8754.00,0.58
8753.00,0.58
8752.00,0.58
8751.00,0.57
8750.00,0.57
8749.00,0.57
8748.00,0.57
8747.00,0.57
8746.00,0.57
8745.00,0.57
8744.00,0.57
8743.00,0.57
8742.00,0.57
8741.00,0.57
8740.00,0.57
8739.00,0.57
8738.00,0.57
8737.00,0.57
8736.00,0.57
8735.00,0.57
8734.00,0.57
8733.00,0.57
8732.00,0.57
8731.00,0.57
8730.00,0.56
8729.00,0.56
8728.00,0.56
8727.00,0.56
8726.00,0.56
8725.00,0.56
8724.00,0.56
8723.00,0.56
8722.00,0.56
8721.00,0.56
8720.00,0.56
8719.00,0.56
8718.00,0.56
8717.00,0.56
8716.00,0.56
8715.00,0.55
8714.00,0.55
8713.00,0.55
8712.00,0.55
8711.00,0.55
8710.00,0.56
8709.00,0.56
8708.00,0.56
8707.00,0.56
8706.00,0.56
8705.00,0.56
8704.00,0.56
8703.00,0.56
8702.00,0.56
8701.00,0.56
8700.00,0.56
8699.00,0.56
8698.00,0.56
8697.00,0.56
8696.00,0.56
8695.00,0.56
8694.00,0.56
8693.00,0.56
8692.00,0.56
8691.00,0.56
8690.00,0.56
8689.00,0.56
8688.00,0.56
8687.00,0.56
8686.00,0.56
8685.00,0.56
8684.00,0.55
8683.00,0.55
8682.00,0.55
8681.00,0.55
8680.00,0.55
8679.00,0.55
8678.00,0.55
8677.00,0.55
8676.00,0.55
8675.00,0.55
8674.00,0.55
8673.00,0.55
8672.00,0.55
8671.00,0.55
8670.00,0.55
8669.00,0.55
8668.00,0.55
8667.00,0.55
8666.00,0.55
8665.00,0.55
8664.00,0.55
8663.00,0.55
8662.00,0.55
8661.00,0.55
8660.00,0.55
8659.00,0.55
8658.00,0.55
8657.00,0.55
8656.00,0.55
8655.00,0.55
8654.00,0.55
8653.00,0.55
8652.00,0.55
8651.00,0.54
8650.00,0.54
8649.00,0.54
8648.00,0.54
8647.00,0.54
8646.00,0.54
8645.00,0.54
8644.00,0.54
8643.00,0.54
8642.00,0.54
8641.00,0.54
8640.00,0.54
8639.00,0.54
8638.00,0.54
8637.00,0.54
8636.00,0.54
8635.00,0.55
8634.00,0.55
8633.00,0.55
8632.00,0.55
8631.00,0.55
8630.00,0.55
8629.00,0.55
8628.00,0.55
8627.00,0.55
8626.00,0.56
8625.00,0.56
8624.00,0.56
8623.00,0.56
8622.00,0.56
8621.00,0.56
8620.00,0.56
8619.00,0.56
8618.00,0.56
8617.00,0.56
8616.00,0.56
8615.00,0.56
8614.00,0.56
8613.00,0.56
8612.00,0.56
8611.00,0.55
8610.00,0.55
8609.00,0.55
8608.00,0.55
8607.00,0.55
8606.00,0.55
8605.00,0.55
8604.00,0.55
8603.00,0.55
8602.00,0.55
8601.00,0.54
8600.00,0.54
8599.00,0.54
8598.00,0.54
8597.00,0.54
8596.00,0.54
8595.00,0.54
8594.00,0.54
8593.00,0.54
8592.00,0.54
8591.00,0.54
8590.00,0.54
8589.00,0.54
8588.00,0.54
8587.00,0.54
8586.00,0.54
8585.00,0.54
8584.00,0.54
8583.00,0.54
8582.00,0.54
8581.00,0.54
8580.00,0.54
8579.00,0.54
8578.00,0.54
8577.00,0.53
8576.00,0.53
8575.00,0.53
8574.00,0.53
8573.00,0.53
8572.00,0.53
8571.00,0.53
8570.00,0.53
8569.00,0.53
8568.00,0.53
8567.00,0.53
8566.00,0.53
8565.00,0.53
8564.00,0.53
8563.00,0.53
8562.00,0.53
8561.00,0.53
8560.00,0.53
8559.00,0.53
8558.00,0.53
8557.00,0.53
8556.00,0.52
8555.00,0.52
8554.00,0.52
8553.00,0.52
8552.00,0.52
8551.00,0.52
8550.00,0.52
8549.00,0.52
8548.00,0.52
8547.00,0.52
8546.00,0.52
8545.00,0.52
8544.00,0.52
8543.00,0.53
8542.00,0.53
8541.00,0.53
8540.00,0.53
8539.00,0.53
8538.00,0.53
8537.00,0.53
8536.00,0.53
8535.00,0.53
8534.00,0.53
8533.00,0.53
8532.00,0.53
8531.00,0.53
8530.00,0.53
8529.00,0.53
8528.00,0.53
8527.00,0.53
8526.00,0.53
8525.00,0.53
8524.00,0.54
8523.00,0.54
8522.00,0.54
8521.00,0.54
8520.00,0.54
8519.00,0.54
8518.00,0.54
8517.00,0.53
8516.00,0.53
8515.00,0.53
8514.00,0.53
8513.00,0.53
8512.00,0.53
8511.00,0.53
8510.00,0.53
8509.00,0.53
8508.00,0.53
8507.00,0.53
8506.00,0.53
8505.00,0.53
8504.00,0.53
8503.00,0.53
8502.00,0.52
8501.00,0.52
8500.00,0.52
8499.00,0.52
8498.00,0.52
8497.00,0.52
8496.00,0.52
8495.00,0.52
8494.00,0.52
8493.00,0.51
8492.00,0.51
8491.00,0.51
8490.00,0.51
8489.00,0.51
8488.00,0.51
8487.00,0.51
8486.00,0.51
8485.00,0.51
8484.00,0.51
8483.00,0.51
8482.00,0.51
8481.00,0.51
8480.00,0.51
8479.00,0.51
8478.00,0.51
8477.00,0.51
8476.00,0.51
8475.00,0.51
8474.00,0.51
8473.00,0.51
8472.00,0.51
8471.00,0.52
8470.00,0.52
8469.00,0.52
8468.00,0.52
8467.00,0.52
8466.00,0.52
8465.00,0.52
8464.00,0.52
8463.00,0.52
8462.00,0.52
8461.00,0.52
8460.00,0.52
8459.00,0.52
8458.00,0.52
8457.00,0.52
8456.00,0.52
8455.00,0.51
8454.00,0.51
8453.00,0.51
8452.00,0.51
8451.00,0.51
8450.00,0.51
8449.00,0.51
8448.00,0.51
8447.00,0.50
8446.00,0.50
8445.00,0.50
8444.00,0.50
8443.00,0.50
8442.00,0.50
8441.00,0.50
8440.00,0.50
8439.00,0.50
8438.00,0.50
8437.00,0.50
8436.00,0.50
8435.00,0.51
8434.00,0.51
8433.00,0.51
8432.00,0.51
8431.00,0.51
8430.00,0.51
8429.00,0.51
8428.00,0.51
8427.00,0.51
8426.00,0.51
8425.00,0.51
8424.00,0.51
8423.00,0.51
8422.00,0.51
8421.00,0.51
8420.00,0.51
8419.00,0.51
8418.00,0.51
8417.00,0.51
8416.00,0.51
8415.00,0.51
8414.00,0.51
8413.00,0.51
8412.00,0.51
8411.00,0.51
8410.00,0.51
8409.00,0.51
8408.00,0.51
8407.00,0.52
8406.00,0.52
8405.00,0.52
8404.00,0.52
8403.00,0.51
8402.00,0.51
8401.00,0.51
8400.00,0.51
8399.00,0.51
8398.00,0.51
8397.00,0.51
8396.00,0.51
8395.00,0.51
8394.00,0.51
8393.00,0.51
8392.00,0.51
8391.00,0.51
8390.00,0.51
8389.00,0.51
8388.00,0.51
8387.00,0.51
8386.00,0.51
8385.00,0.51
8384.00,0.52
8383.00,0.52
8382.00,0.52
8381.00,0.52
8380.00,0.52
8379.00,0.52
8378.00,0.52
8377.00,0.52
8376.00,0.52
8375.00,0.52
8374.00,0.52
8373.00,0.52
8372.00,0.52
8371.00,0.52
8370.00,0.52
8369.00,0.52
8368.00,0.52
8367.00,0.52
8366.00,0.52
8365.00,0.52
8364.00,0.53
8363.00,0.53
8362.00,0.53
8361.00,0.53
8360.00,0.53
8359.00,0.53
8358.00,0.53
8357.00,0.53
8356.00,0.53
8355.00,0.53
8354.00,0.53
8353.00,0.53
8352.00,0.53
8351.00,0.53
8350.00,0.53
8349.00,0.53
8348.00,0.53
8347.00,0.53
8346.00,0.53
8345.00,0.53
8344.00,0.54
8343.00,0.54
8342.00,0.54
8341.00,0.54
8340.00,0.54
8339.00,0.54
8338.00,0.54
8337.00,0.54
8336.00,0.54
8335.00,0.54
8334.00,0.54
8333.00,0.54
8332.00,0.54
8331.00,0.54
8330.00,0.54
8329.00,0.54
8328.00,0.54
8327.00,0.54
8326.00,0.54
8325.00,0.54
8324.00,0.54
8323.00,0.54
8322.00,0.54
8321.00,0.54
8320.00,0.54
8319.00,0.54
8318.00,0.54
8317.00,0.54
8316.00,0.54
8315.00,0.54
8314.00,0.54
8313.00,0.54
8312.00,0.54
8311.00,0.54
8310.00,0.54
8309.00,0.54
8308.00,0.54
8307.00,0.54
8306.00,0.54
8305.00,0.54
8304.00,0.54
8303.00,0.54
8302.00,0.54
8301.00,0.54
8300.00,0.54
8299.00,0.54
8298.00,0.54
8297.00,0.54
8296.00,0.54
8295.00,0.54
8294.00,0.54
8293.00,0.54
8292.00,0.54
8291.00,0.54
8290.00,0.54
8289.00,0.54
8288.00,0.54
8287.00,0.54
8286.00,0.54
8285.00,0.54
8284.00,0.54
8283.00,0.54
8282.00,0.54
8281.00,0.54
8280.00,0.54
8279.00,0.54
8278.00,0.54
8277.00,0.54
8276.00,0.54
8275.00,0.54
8274.00,0.54
8273.00,0.54
8272.00,0.54
8271.00,0.54
8270.00,0.54
8269.00,0.54
8268.00,0.54
8267.00,0.54
8266.00,0.54
8265.00,0.54
8264.00,0.54
8263.00,0.54
8262.00,0.54
8261.00,0.54
8260.00,0.54
8259.00,0.54
8258.00,0.54
8257.00,0.54
8256.00,0.54
8255.00,0.54
8254.00,0.54
8253.00,0.54
8252.00,0.54
8251.00,0.54
8250.00,0.54
8249.00,0.54
8248.00,0.53
8247.00,0.53
8246.00,0.53
8245.00,0.53
8244.00,0.53
8243.00,0.53
8242.00,0.53
8241.00,0.53
8240.00,0.53
8239.00,0.53
8238.00,0.53
8237.00,0.53
8236.00,0.53
8235.00,0.53
8234.00,0.53
8233.00,0.53
8232.00,0.53
8231.00,0.53
8230.00,0.54
8229.00,0.54
8228.00,0.54
8227.00,0.54
8226.00,0.54
8225.00,0.54
8224.00,0.54
8223.00,0.54
8222.00,0.54
8221.00,0.54
8220.00,0.54
8219.00,0.54
8218.00,0.54
8217.00,0.54
8216.00,0.54
8215.00,0.54
8214.00,0.54
8213.00,0.54
8212.00,0.54
8211.00,0.54
8210.00,0.54
8209.00,0.54
8208.00,0.54
8207.00,0.54
8206.00,0.54
8205.00,0.54
8204.00,0.54
8203.00,0.54
8202.00,0.54
8201.00,0.54
8200.00,0.54
8199.00,0.54
8198.00,0.54
8197.00,0.54
8196.00,0.55
8195.00,0.55
8194.00,0.55
8193.00,0.55
8192.00,0.55
8191.00,0.55
8190.00,0.55
8189.00,0.55
8188.00,0.55
8187.00,0.55
8186.00,0.55
8185.00,0.55
8184.00,0.55
8183.00,0.55
8182.00,0.55
8181.00,0.55
8180.00,0.55
8179.00,0.55
8178.00,0.55
8177.00,0.55
8176.00,0.55
8175.00,0.55
8174.00,0.56
8173.00,0.56
8172.00,0.56
8171.00,0.56
8170.00,0.56
8169.00,0.56
8168.00,0.56
8167.00,0.56
8166.00,0.56
8165.00,0.56
8164.00,0.56
8163.00,0.56
8162.00,0.56
8161.00,0.56
8160.00,0.56
8159.00,0.56
8158.00,0.56
8157.00,0.56
8156.00,0.56
8155.00,0.56
8154.00,0.56
8153.00,0.55
8152.00,0.55
8151.00,0.55
8150.00,0.55
8149.00,0.55
8148.00,0.55
8147.00,0.55
8146.00,0.55
8145.00,0.55
8144.00,0.55
8143.00,0.55
8142.00,0.55
8141.00,0.55
8140.00,0.55
8139.00,0.55
8138.00,0.55
8137.00,0.55
8136.00,0.55
8135.00,0.55
8134.00,0.55
8133.00,0.55
8132.00,0.55
8131.00,0.55
8130.00,0.55
8129.00,0.55
8128.00,0.56
8127.00,0.56
8126.00,0.56
8125.00,0.56
8124.00,0.56
8123.00,0.56
8122.00,0.56
8121.00,0.56
8120.00,0.56
8119.00,0.56
8118.00,0.56
8117.00,0.56
8116.00,0.56
8115.00,0.56
8114.00,0.56
8113.00,0.56
8112.00,0.56
8111.00,0.56
8110.00,0.56
8109.00,0.56
8108.00,0.56
8107.00,0.56
8106.00,0.56
8105.00,0.56
8104.00,0.56
8103.00,0.56
8102.00,0.56
8101.00,0.56
8100.00,0.56
8099.00,0.56
8098.00,0.56
8097.00,0.56
8096.00,0.56
8095.00,0.56
8094.00,0.56
8093.00,0.56
8092.00,0.56
8091.00,0.56
8090.00,0.56
8089.00,0.56
8088.00,0.56
8087.00,0.56
8086.00,0.56
8085.00,0.56
8084.00,0.56
8083.00,0.56
8082.00,0.56
8081.00,0.56
8080.00,0.56
8079.00,0.56
8078.00,0.57
8077.00,0.57
8076.00,0.57
8075.00,0.57
8074.00,0.57
8073.00,0.57
8072.00,0.57
8071.00,0.57
8070.00,0.57
8069.00,0.57
8068.00,0.57
8067.00,0.57
8066.00,0.57
8065.00,0.57
8064.00,0.57
8063.00,0.57
8062.00,0.57
8061.00,0.57
8060.00,0.57
8059.00,0.57
8058.00,0.57
8057.00,0.57
8056.00,0.57
8055.00,0.57
8054.00,0.57
8053.00,0.57
8052.00,0.58
8051.00,0.58
8050.00,0.58
8049.00,0.58
8048.00,0.58
8047.00,0.57
8046.00,0.57
8045.00,0.57
8044.00,0.57
8043.00,0.57
8042.00,0.57
8041.00,0.57
8040.00,0.57
8039.00,0.57
8038.00,0.57
8037.00,0.57
8036.00,0.57
8035.00,0.57
8034.00,0.57
8033.00,0.57
8032.00,0.57
8031.00,0.57
8030.00,0.57
8029.00,0.57
8028.00,0.57
8027.00,0.57
8026.00,0.57
8025.00,0.57
8024.00,0.57
8023.00,0.57
8022.00,0.57
8021.00,0.57
8020.00,0.57
8019.00,0.57
8018.00,0.57
8017.00,0.57
8016.00,0.57
8015.00,0.57
8014.00,0.57
8013.00,0.57
8012.00,0.57
8011.00,0.57
8010.00,0.57
8009.00,0.57
8008.00,0.57
8007.00,0.57
8006.00,0.57
8005.00,0.57
8004.00,0.57
8003.00,0.57
8002.00,0.57
8001.00,0.57
8000.00,0.57
7999.00,0.57
7998.00,0.57
7997.00,0.57
7996.00,0.57
7995.00,0.57
7994.00,0.57
7993.00,0.57
7992.00,0.57
7991.00,0.57
7990.00,0.57
7989.00,0.57
7988.00,0.57
7987.00,0.57
7986.00,0.58
7985.00,0.58
7984.00,0.58
7983.00,0.58
7982.00,0.58
7981.00,0.58
7980.00,0.58
7979.00,0.58
7978.00,0.58
7977.00,0.58
7976.00,0.58
7975.00,0.58
7974.00,0.58
7973.00,0.58
7972.00,0.58
7971.00,0.58
7970.00,0.58
7969.00,0.58
7968.00,0.58
7967.00,0.58
7966.00,0.58
7965.00,0.58
7964.00,0.58
7963.00,0.58
7962.00,0.58
7961.00,0.58
7960.00,0.58
7959.00,0.58
7958.00,0.58
7957.00,0.58
7956.00,0.58
7955.00,0.58
7954.00,0.58
7953.00,0.58
7952.00,0.58
7951.00,0.58
7950.00,0.58
7949.00,0.58
7948.00,0.57
7947.00,0.57
7946.00,0.57
7945.00,0.57
7944.00,0.57
7943.00,0.57
7942.00,0.57
7941.00,0.57
7940.00,0.57
7939.00,0.57
7938.00,0.57
7937.00,0.57
7936.00,0.57
7935.00,0.57
7934.00,0.57
7933.00,0.58
7932.00,0.58
7931.00,0.58
7930.00,0.58
7929.00,0.58
7928.00,0.58
7927.00,0.58
7926.00,0.58
7925.00,0.58
7924.00,0.58
7923.00,0.58
7922.00,0.58
7921.00,0.58
7920.00,0.58
7919.00,0.58
7918.00,0.58
7917.00,0.58
7916.00,0.58
7915.00,0.58
7914.00,0.58
7913.00,0.58
7912.00,0.58
7911.00,0.58
7910.00,0.58
7909.00,0.58
7908.00,0.58
7907.00,0.58
7906.00,0.58
7905.00,0.58
7904.00,0.58
7903.00,0.58
7902.00,0.58
7901.00,0.58
7900.00,0.58
7899.00,0.58
7898.00,0.58
7897.00,0.58
7896.00,0.58
7895.00,0.58
7894.00,0.58
7893.00,0.58
7892.00,0.58
7891.00,0.58
7890.00,0.58
7889.00,0.58
7888.00,0.58
7887.00,0.58
7886.00,0.58
7885.00,0.58
7884.00,0.58
7883.00,0.58
7882.00,0.58
7881.00,0.58
7880.00,0.58
7879.00,0.58
7878.00,0.58
7877.00,0.58
7876.00,0.58
7875.00,0.58
7874.00,0.58
7873.00,0.58
7872.00,0.58
7871.00,0.58
7870.00,0.58
7869.00,0.58
7868.00,0.59
7867.00,0.59
7866.00,0.59
7865.00,0.59
7864.00,0.59
7863.00,0.59
7862.00,0.59
7861.00,0.59
7860.00,0.59
7859.00,0.59
7858.00,0.59
7857.00,0.59
7856.00,0.59
7855.00,0.59
7854.00,0.59
7853.00,0.59
7852.00,0.59
7851.00,0.59
7850.00,0.59
7849.00,0.59
7848.00,0.58
7847.00,0.58
7846.00,0.58
7845.00,0.58
7844.00,0.58
7843.00,0.58
7842.00,0.58
7841.00,0.58
7840.00,0.58
7839.00,0.58
7838.00,0.58
7837.00,0.58
7836.00,0.58
7835.00,0.58
7834.00,0.58
7833.00,0.58
7832.00,0.58
7831.00,0.58
7830.00,0.58
7829.00,0.58
7828.00,0.58
7827.00,0.58
7826.00,0.58
7825.00,0.58
7824.00,0.58
7823.00,0.58
7822.00,0.58
7821.00,0.58
7820.00,0.58
7819.00,0.58
7818.00,0.58
7817.00,0.58
7816.00,0.58
7815.00,0.58
7814.00,0.58
7813.00,0.58
7812.00,0.58
7811.00,0.58
7810.00,0.58
7809.00,0.58
7808.00,0.58
7807.00,0.58
7806.00,0.58
7805.00,0.58
7804.00,0.58
7803.00,0.58
7802.00,0.58
7801.00,0.58
7800.00,0.58
7799.00,0.58
7798.00,0.58
7797.00,0.58
7796.00,0.58
7795.00,0.58
7794.00,0.58
7793.00,0.58
7792.00,0.58
7791.00,0.58
7790.00,0.58
7789.00,0.58
7788.00,0.58
7787.00,0.58
7786.00,0.58
7785.00,0.58
7784.00,0.58
7783.00,0.58
7782.00,0.58
7781.00,0.59
7780.00,0.59
7779.00,0.59
7778.00,0.59
7777.00,0.59
7776.00,0.59
7775.00,0.59
7774.00,0.59
7773.00,0.59
7772.00,0.59
7771.00,0.59
7770.00,0.59
7769.00,0.59
7768.00,0.59
7767.00,0.60
7766.00,0.60
7765.00,0.60
7764.00,0.60
7763.00,0.60
7762.00,0.60
7761.00,0.60
7760.00,0.60
7759.00,0.60
7758.00,0.60
7757.00,0.59
7756.00,0.59
7755.00,0.59
7754.00,0.59
7753.00,0.59
7752.00,0.59
7751.00,0.59
7750.00,0.59
7749.00,0.59
7748.00,0.59
7747.00,0.59
7746.00,0.59
7745.00,0.59
7744.00,0.59
7743.00,0.59
7742.00,0.59
7741.00,0.59
7740.00,0.59
7739.00,0.59
7738.00,0.59
7737.00,0.59
7736.00,0.59
7735.00,0.59
7734.00,0.59
7733.00,0.59
7732.00,0.59
7731.00,0.59
7730.00,0.59
7729.00,0.59
7728.00,0.59
7727.00,0.59
7726.00,0.59
7725.00,0.59
7724.00,0.59
7723.00,0.59
7722.00,0.59
7721.00,0.59
7720.00,0.59
7719.00,0.59
7718.00,0.59
7717.00,0.59
7716.00,0.59
7715.00,0.59
7714.00,0.59
7713.00,0.59
7712.00,0.59
7711.00,0.59
7710.00,0.59
7709.00,0.59
7708.00,0.59
7707.00,0.59
7706.00,0.59
7705.00,0.59
7704.00,0.59
7703.00,0.59
7702.00,0.59
7701.00,0.59
7700.00,0.59
7699.00,0.59
7698.00,0.59
7697.00,0.59
7696.00,0.59
7695.00,0.59
7694.00,0.59
7693.00,0.59
7692.00,0.59
7691.00,0.59
7690.00,0.59
7689.00,0.59
7688.00,0.59
7687.00,0.59
7686.00,0.59
7685.00,0.59
7684.00,0.59
7683.00,0.59
7682.00,0.59
7681.00,0.59
7680.00,0.59
7679.00,0.59
7678.00,0.59
7677.00,0.59
7676.00,0.59
7675.00,0.59
7674.00,0.59
7673.00,0.59
7672.00,0.59
7671.00,0.59
7670.00,0.59
7669.00,0.59
7668.00,0.59
7667.00,0.59
7666.00,0.59
7665.00,0.59
7664.00,0.59
7663.00,0.59
7662.00,0.59
7661.00,0.59
7660.00,0.59
7659.00,0.59
7658.00,0.59
7657.00,0.59
7656.00,0.59
7655.00,0.59
7654.00,0.59
7653.00,0.59
7652.00,0.59
7651.00,0.59
7650.00,0.59
7649.00,0.59
7648.00,0.59
7647.00,0.59
7646.00,0.59
7645.00,0.59
7644.00,0.59
7643.00,0.59
7642.00,0.59
7641.00,0.59
7640.00,0.59
7639.00,0.59
7638.00,0.59
7637.00,0.59
7636.00,0.60
7635.00,0.60
7634.00,0.60
7633.00,0.60
7632.00,0.60
7631.00,0.60
7630.00,0.60
7629.00,0.60
7628.00,0.60
7627.00,0.60
7626.00,0.60
7625.00,0.60
7624.00,0.59
7623.00,0.59
7622.00,0.59
7621.00,0.59
7620.00,0.59
7619.00,0.59
7618.00,0.59
7617.00,0.59
7616.00,0.59
7615.00,0.59
7614.00,0.59
7613.00,0.59
7612.00,0.59
7611.00,0.59
7610.00,0.59
7609.00,0.59
7608.00,0.59
7607.00,0.59
7606.00,0.59
7605.00,0.59
7604.00,0.59
7603.00,0.59
7602.00,0.59
7601.00,0.59
7600.00,0.59
7599.00,0.59
7598.00,0.59
7597.00,0.59
7596.00,0.59
7595.00,0.59
7594.00,0.59
7593.00,0.59
7592.00,0.59
7591.00,0.59
7590.00,0.59
7589.00,0.59
7588.00,0.59
7587.00,0.59
7586.00,0.59
7585.00,0.59
7584.00,0.59
7583.00,0.59
7582.00,0.59
7581.00,0.59
7580.00,0.59
7579.00,0.59
7578.00,0.59
7577.00,0.59
7576.00,0.59
7575.00,0.59
7574.00,0.59
7573.00,0.59
7572.00,0.59
7571.00,0.59
7570.00,0.59
7569.00,0.59
7568.00,0.59
7567.00,0.59
7566.00,0.59
7565.00,0.59
7564.00,0.59
7563.00,0.59
7562.00,0.59
7561.00,0.59
7560.00,0.59
7559.00,0.59
7558.00,0.59
7557.00,0.59
7556.00,0.59
7555.00,0.59
7554.00,0.59
7553.00,0.59
7552.00,0.59
7551.00,0.59
7550.00,0.59
7549.00,0.59
7548.00,0.59
7547.00,0.59
7546.00,0.59
7545.00,0.59
7544.00,0.59
7543.00,0.59
7542.00,0.59
7541.00,0.59
7540.00,0.59
7539.00,0.59
7538.00,0.59
7537.00,0.59
7536.00,0.59
7535.00,0.59
7534.00,0.59
7533.00,0.59
7532.00,0.59
7531.00,0.59
7530.00,0.59
7529.00,0.59
7528.00,0.59
7527.00,0.59
7526.00,0.59
7525.00,0.59
7524.00,0.59
7523.00,0.59
7522.00,0.59
7521.00,0.59
7520.00,0.59
7519.00,0.59
7518.00,0.59
7517.00,0.59
7516.00,0.58
7515.00,0.58
7514.00,0.58
7513.00,0.58
7512.00,0.58
7511.00,0.58
7510.00,0.58
7509.00,0.58
7508.00,0.58
7507.00,0.58
7506.00,0.58
7505.00,0.58
7504.00,0.58
7503.00,0.58
7502.00,0.58
7501.00,0.58
7500.00,0.58
7499.00,0.58
7498.00,0.58
7497.00,0.58
7496.00,0.58
7495.00,0.58
7494.00,0.58
7493.00,0.58
7492.00,0.58
7491.00,0.58
7490.00,0.58
7489.00,0.58
7488.00,0.58
7487.00,0.58
7486.00,0.58
7485.00,0.58
7484.00,0.58
7483.00,0.58
7482.00,0.58
7481.00,0.58
7480.00,0.58
7479.00,0.58
7478.00,0.58
7477.00,0.58
7476.00,0.58
7475.00,0.57
7474.00,0.57
7473.00,0.57
7472.00,0.57
7471.00,0.57
7470.00,0.57
7469.00,0.57
7468.00,0.57
7467.00,0.57
7466.00,0.57
7465.00,0.57
7464.00,0.57
7463.00,0.57
7462.00,0.57
7461.00,0.57
7460.00,0.57
7459.00,0.57
7458.00,0.57
7457.00,0.57
7456.00,0.57
7455.00,0.57
7454.00,0.57
7453.00,0.57
7452.00,0.57
7451.00,0.57
7450.00,0.57
7449.00,0.57
7448.00,0.57
7447.00,0.57
7446.00,0.57
7445.00,0.57
7444.00,0.57
7443.00,0.57
7442.00,0.57
7441.00,0.57
7440.00,0.57
7439.00,0.57
7438.00,0.57
7437.00,0.57
7436.00,0.57
7435.00,0.57
7434.00,0.57
7433.00,0.57
7432.00,0.57
7431.00,0.57
7430.00,0.56
7429.00,0.56
7428.00,0.56
7427.00,0.56
7426.00,0.56
7425.00,0.56
7424.00,0.56
7423.00,0.56
7422.00,0.56
7421.00,0.56
7420.00,0.56
7419.00,0.56
7418.00,0.56
7417.00,0.56
7416.00,0.56
7415.00,0.56
7414.00,0.56
7413.00,0.56
7412.00,0.56
7411.00,0.56
7410.00,0.56
7409.00,0.56
7408.00,0.56
7407.00,0.56
7406.00,0.56
7405.00,0.56
7404.00,0.56
7403.00,0.56
7402.00,0.56
7401.00,0.56
7400.00,0.56
7399.00,0.56
7398.00,0.56
7397.00,0.56
7396.00,0.56
7395.00,0.56
7394.00,0.56
7393.00,0.56
7392.00,0.55
7391.00,0.55
7390.00,0.55
7389.00,0.55
7388.00,0.55
7387.00,0.55
7386.00,0.55
7385.00,0.55
7384.00,0.55
7383.00,0.55
7382.00,0.54
7381.00,0.54
7380.00,0.54
7379.00,0.54
7378.00,0.54
7377.00,0.54
7376.00,0.54
7375.00,0.54
7374.00,0.54
7373.00,0.54
7372.00,0.54
7371.00,0.54
7370.00,0.54
7369.00,0.54
7368.00,0.54
7367.00,0.54
7366.00,0.54
7365.00,0.54
7364.00,0.54
7363.00,0.54
7362.00,0.54
7361.00,0.53
7360.00,0.53
7359.00,0.53
7358.00,0.53
7357.00,0.54
7356.00,0.54
7355.00,0.54
7354.00,0.54
7353.00,0.54
7352.00,0.54
7351.00,0.54
7350.00,0.54
7349.00,0.54
7348.00,0.54
7347.00,0.54
7346.00,0.54
7345.00,0.54
7344.00,0.54
7343.00,0.54
7342.00,0.54
7341.00,0.54
7340.00,0.54
7339.00,0.54
7338.00,0.54
7337.00,0.54
7336.00,0.54
7335.00,0.54
7334.00,0.54
7333.00,0.54
7332.00,0.54
7331.00,0.54
7330.00,0.54
7329.00,0.54
7328.00,0.54
7327.00,0.54
7326.00,0.54
7325.00,0.54
7324.00,0.54
7323.00,0.54
7322.00,0.54
7321.00,0.54
7320.00,0.53
7319.00,0.53
7318.00,0.53
7317.00,0.53
7316.00,0.53
7315.00,0.53
7314.00,0.53
7313.00,0.53
7312.00,0.53
7311.00,0.53
7310.00,0.53
7309.00,0.53
7308.00,0.53
7307.00,0.53
7306.00,0.53
7305.00,0.53
7304.00,0.53
7303.00,0.53
7302.00,0.53
7301.00,0.53
7300.00,0.53
7299.00,0.53
7298.00,0.53
7297.00,0.53
7296.00,0.53
7295.00,0.53
7294.00,0.53
7293.00,0.53
7292.00,0.53
7291.00,0.53
7290.00,0.53
7289.00,0.53
7288.00,0.53
7287.00,0.53
7286.00,0.53
7285.00,0.53
7284.00,0.53
7283.00,0.53
7282.00,0.53
7281.00,0.53
7280.00,0.53
7279.00,0.53
7278.00,0.53
7277.00,0.53
7276.00,0.53
7275.00,0.52
7274.00,0.52
7273.00,0.52
7272.00,0.52
7271.00,0.52
7270.00,0.52
7269.00,0.52
7268.00,0.52
7267.00,0.52
7266.00,0.52
7265.00,0.52
7264.00,0.52
7263.00,0.52
7262.00,0.52
7261.00,0.52
7260.00,0.52
7259.00,0.52
7258.00,0.51
7257.00,0.51
7256.00,0.51
7255.00,0.51
7254.00,0.51
7253.00,0.51
7252.00,0.51
7251.00,0.51
7250.00,0.51
7249.00,0.50
7248.00,0.50
7247.00,0.50
7246.00,0.50
7245.00,0.50
7244.00,0.50
7243.00,0.49
7242.00,0.49
7241.00,0.49
7240.00,0.49
7239.00,0.49
7238.00,0.48
7237.00,0.48
7236.00,0.48
7235.00,0.48
7234.00,0.48
7233.00,0.48
7232.00,0.47
7231.00,0.47
7230.00,0.47
7229.00,0.47
7228.00,0.47
7227.00,0.47
7226.00,0.46
7225.00,0.46
7224.00,0.46
7223.00,0.46
7222.00,0.46
7221.00,0.46
7220.00,0.45
7219.00,0.45
7218.00,0.45
7217.00,0.45
7216.00,0.45
7215.00,0.45
7214.00,0.45
7213.00,0.44
7212.00,0.44
7211.00,0.44
7210.00,0.44
7209.00,0.44
7208.00,0.44
7207.00,0.44
7206.00,0.44
7205.00,0.43
7204.00,0.43
7203.00,0.43
7202.00,0.43
7201.00,0.43
7200.00,0.43
7199.00,0.42
7198.00,0.42
7197.00,0.42
7196.00,0.42
7195.00,0.42
7194.00,0.42
7193.00,0.42
7192.00,0.42
7191.00,0.42
7190.00,0.41
7189.00,0.41
7188.00,0.41
7187.00,0.41
7186.00,0.41
7185.00,0.41
7184.00,0.41
7183.00,0.41
7182.00,0.40
7181.00,0.40
7180.00,0.40
7179.00,0.40
7178.00,0.40
7177.00,0.40
7176.00,0.39
7175.00,0.39
7174.00,0.39
7173.00,0.39
7172.00,0.39
7171.00,0.38
7170.00,0.38
7169.00,0.38
7168.00,0.38
7167.00,0.38
7166.00,0.38
7165.00,0.37
7164.00,0.37
7163.00,0.37
7162.00,0.37
7161.00,0.37
7160.00,0.37
7159.00,0.37
7158.00,0.37
7157.00,0.37
7156.00,0.37
7155.00,0.37
7154.00,0.37
7153.00,0.37
7152.00,0.37
7151.00,0.36
7150.00,0.36
7149.00,0.36
7148.00,0.36
7147.00,0.36
7146.00,0.36
7145.00,0.36
7144.00,0.36
7143.00,0.36
7142.00,0.36
7141.00,0.36
7140.00,0.35
7139.00,0.35
7138.00,0.35
7137.00,0.35
7136.00,0.35
7135.00,0.35
7134.00,0.35
7133.00,0.35
7132.00,0.34
7131.00,0.34
7130.00,0.34
7129.00,0.34
7128.00,0.34
7127.00,0.34
7126.00,0.34
7125.00,0.34
7124.00,0.33
7123.00,0.33
7122.00,0.33
7121.00,0.33
7120.00,0.33
7119.00,0.33
7118.00,0.33
7117.00,0.33
7116.00,0.33
7115.00,0.33
7114.00,0.33
7113.00,0.33
7112.00,0.33
7111.00,0.32
7110.00,0.32
7109.00,0.32
7108.00,0.32
7107.00,0.32
7106.00,0.32
7105.00,0.32
7104.00,0.32
7103.00,0.32
7102.00,0.31
7101.00,0.31
7100.00,0.31
7099.00,0.31
7098.00,0.31
7097.00,0.31
7096.00,0.31
7095.00,0.31
7094.00,0.31
7093.00,0.30
7092.00,0.30
7091.00,0.30
7090.00,0.30
7089.00,0.30
7088.00,0.30
7087.00,0.30
7086.00,0.30
7085.00,0.30
7084.00,0.30
7083.00,0.30
7082.00,0.30
7081.00,0.30
7080.00,0.30
7079.00,0.30
7078.00,0.30
7077.00,0.30
7076.00,0.29
7075.00,0.29
7074.00,0.29
7073.00,0.29
7072.00,0.29
7071.00,0.29
7070.00,0.29
7069.00,0.29
7068.00,0.29
7067.00,0.29
7066.00,0.29
7065.00,0.29
7064.00,0.29
7063.00,0.29
7062.00,0.29
7061.00,0.29
7060.00,0.29
7059.00,0.29
7058.00,0.29
7057.00,0.29
7056.00,0.29
7055.00,0.29
7054.00,0.29
7053.00,0.29
7052.00,0.29
7051.00,0.29
7050.00,0.29
7049.00,0.29
7048.00,0.28
7047.00,0.28
7046.00,0.28
7045.00,0.28
7044.00,0.28
7043.00,0.28
7042.00,0.28
7041.00,0.28
7040.00,0.28
7039.00,0.28
7038.00,0.28
7037.00,0.28
7036.00,0.28
7035.00,0.28
7034.00,0.28
7033.00,0.28
7032.00,0.28
7031.00,0.28
7030.00,0.28
7029.00,0.27
7028.00,0.27
7027.00,0.27
7026.00,0.27
7025.00,0.27
7024.00,0.27
7023.00,0.27
7022.00,0.27
7021.00,0.27
7020.00,0.27
7019.00,0.27
7018.00,0.27
7017.00,0.27
7016.00,0.27
7015.00,0.27
7014.00,0.27
7013.00,0.27
7012.00,0.27
7011.00,0.27
7010.00,0.27
7009.00,0.27
7008.00,0.27
7007.00,0.27
7006.00,0.27
7005.00,0.27
7004.00,0.27
7003.00,0.27
7002.00,0.27
7001.00,0.27
7000.00,0.27
6999.00,0.27
6998.00,0.27
6997.00,0.27
6996.00,0.27
6995.00,0.27
6994.00,0.27
6993.00,0.27
6992.00,0.27
6991.00,0.27
6990.00,0.27
6989.00,0.27
6988.00,0.27
6987.00,0.27
6986.00,0.26
6985.00,0.26
6984.00,0.26
6983.00,0.26
6982.00,0.26
6981.00,0.26
6980.00,0.26
6979.00,0.26
6978.00,0.26
6977.00,0.26
6976.00,0.26
6975.00,0.26
6974.00,0.26
6973.00,0.26
6972.00,0.26
6971.00,0.26
6970.00,0.26
6969.00,0.26
6968.00,0.26
6967.00,0.26
6966.00,0.26
6965.00,0.26
6964.00,0.26
6963.00,0.26
6962.00,0.26
6961.00,0.26
6960.00,0.26
6959.00,0.26
6958.00,0.26
6957.00,0.26
6956.00,0.26
6955.00,0.26
6954.00,0.26
6953.00,0.26
6952.00,0.26
6951.00,0.26
6950.00,0.26
6949.00,0.26
6948.00,0.26
6947.00,0.26
6946.00,0.26
6945.00,0.26
6944.00,0.26
6943.00,0.26
6942.00,0.26
6941.00,0.26
6940.00,0.26
6939.00,0.26
6938.00,0.26
6937.00,0.26
6936.00,0.26
6935.00,0.26
6934.00,0.26
6933.00,0.26
6932.00,0.26
6931.00,0.26
6930.00,0.26
6929.00,0.26
6928.00,0.26
6927.00,0.26
6926.00,0.26
6925.00,0.26
6924.00,0.26
6923.00,0.26
6922.00,0.26
6921.00,0.26
6920.00,0.26
6919.00,0.25
6918.00,0.25
6917.00,0.25
6916.00,0.25
6915.00,0.25
6914.00,0.25
6913.00,0.25
6912.00,0.25
6911.00,0.25
6910.00,0.25
6909.00,0.25
6908.00,0.25
6907.00,0.25
6906.00,0.25
6905.00,0.25
6904.00,0.25
6903.00,0.25
6902.00,0.25
6901.00,0.25
6900.00,0.25
6899.00,0.25
6898.00,0.25
6897.00,0.25
6896.00,0.25
6895.00,0.25
6894.00,0.25
6893.00,0.25
6892.00,0.25
6891.00,0.25
6890.00,0.25
6889.00,0.25
6888.00,0.25
6887.00,0.25
6886.00,0.26
6885.00,0.26
6884.00,0.26
6883.00,0.26
6882.00,0.26
6881.00,0.26
6880.00,0.26
6879.00,0.26
6878.00,0.26
6877.00,0.26
6876.00,0.26
6875.00,0.26
6874.00,0.26
6873.00,0.26
6872.00,0.26
6871.00,0.26
6870.00,0.26
6869.00,0.26
6868.00,0.26
6867.00,0.26
6866.00,0.26
6865.00,0.26
6864.00,0.26
6863.00,0.26
6862.00,0.26
6861.00,0.26
6860.00,0.26
6859.00,0.26
6858.00,0.26
6857.00,0.26
6856.00,0.26
6855.00,0.26
6854.00,0.26
6853.00,0.26
6852.00,0.26
6851.00,0.26
6850.00,0.26
6849.00,0.26
6848.00,0.26
6847.00,0.26
6846.00,0.26
6845.00,0.26
6844.00,0.26
6843.00,0.26
6842.00,0.26
6841.00,0.26
6840.00,0.26
6839.00,0.26
6838.00,0.26
6837.00,0.26
6836.00,0.26
6835.00,0.26
6834.00,0.26
6833.00,0.26
6832.00,0.26
6831.00,0.26
6830.00,0.26
6829.00,0.26
6828.00,0.26
6827.00,0.26
6826.00,0.26
6825.00,0.26
6824.00,0.26
6823.00,0.26
6822.00,0.26
6821.00,0.26
6820.00,0.26
6819.00,0.26
6818.00,0.26
6817.00,0.26
6816.00,0.26
6815.00,0.26
6814.00,0.26
6813.00,0.26
6812.00,0.26
6811.00,0.26
6810.00,0.26
6809.00,0.26
6808.00,0.26
6807.00,0.26
6806.00,0.26
6805.00,0.26
6804.00,0.26
6803.00,0.26
6802.00,0.27
6801.00,0.27
6800.00,0.27
6799.00,0.27
6798.00,0.27
6797.00,0.27
6796.00,0.27
6795.00,0.27
6794.00,0.27
6793.00,0.27
6792.00,0.27
6791.00,0.27
6790.00,0.27
6789.00,0.27
6788.00,0.27
6787.00,0.27
6786.00,0.27
6785.00,0.27
6784.00,0.27
6783.00,0.27
6782.00,0.27
6781.00,0.27
6780.00,0.27
6779.00,0.27
6778.00,0.27
6777.00,0.27
6776.00,0.27
6775.00,0.27
6774.00,0.27
6773.00,0.27
6772.00,0.27
6771.00,0.27
6770.00,0.27
6769.00,0.27
6768.00,0.27
6767.00,0.27
6766.00,0.27
6765.00,0.27
6764.00,0.27
6763.00,0.27
6762.00,0.27
6761.00,0.27
6760.00,0.27
6759.00,0.27
6758.00,0.27
6757.00,0.27
6756.00,0.27
6755.00,0.27
6754.00,0.27
6753.00,0.27
6752.00,0.27
6751.00,0.27
6750.00,0.27
6749.00,0.27
6748.00,0.27
6747.00,0.27
6746.00,0.27
6745.00,0.27
6744.00,0.27
6743.00,0.27
6742.00,0.27
6741.00,0.27
6740.00,0.28
6739.00,0.28
6738.00,0.28
6737.00,0.28
6736.00,0.28
6735.00,0.28
6734.00,0.28
6733.00,0.28
6732.00,0.28
6731.00,0.28
6730.00,0.28
6729.00,0.28
6728.00,0.28
6727.00,0.28
6726.00,0.28
6725.00,0.28
6724.00,0.28
6723.00,0.28
6722.00,0.28
6721.00,0.28
6720.00,0.28
6719.00,0.28
6718.00,0.28
6717.00,0.28
6716.00,0.28
6715.00,0.28
6714.00,0.28
6713.00,0.29
6712.00,0.29
6711.00,0.29
6710.00,0.29
6709.00,0.29
6708.00,0.29
6707.00,0.29
6706.00,0.29
6705.00,0.29
6704.00,0.29
6703.00,0.29
6702.00,0.29
6701.00,0.29
6700.00,0.29
6699.00,0.29
6698.00,0.29
6697.00,0.29
6696.00,0.29
6695.00,0.29
6694.00,0.29
6693.00,0.29
6692.00,0.29
6691.00,0.29
6690.00,0.29
6689.00,0.29
6688.00,0.29
6687.00,0.29
6686.00,0.29
6685.00,0.29
6684.00,0.29
6683.00,0.29
6682.00,0.29
6681.00,0.29
6680.00,0.29
6679.00,0.29
6678.00,0.29
6677.00,0.29
6676.00,0.29
6675.00,0.29
6674.00,0.29
6673.00,0.30
6672.00,0.30
6671.00,0.30
6670.00,0.30
6669.00,0.30
6668.00,0.30
6667.00,0.30
6666.00,0.30
6665.00,0.30
6664.00,0.30
6663.00,0.30
6662.00,0.30
6661.00,0.30
6660.00,0.30
6659.00,0.30
6658.00,0.31
6657.00,0.31
6656.00,0.31
6655.00,0.31
6654.00,0.31
6653.00,0.31
6652.00,0.31
6651.00,0.31
6650.00,0.31
6649.00,0.31
6648.00,0.31
6647.00,0.31
6646.00,0.31
6645.00,0.31
6644.00,0.31
6643.00,0.31
6642.00,0.31
6641.00,0.31
6640.00,0.31
6639.00,0.31
6638.00,0.31
6637.00,0.31
6636.00,0.31
6635.00,0.31
6634.00,0.31
6633.00,0.31
6632.00,0.31
6631.00,0.31
6630.00,0.32
6629.00,0.32
6628.00,0.32
6627.00,0.32
6626.00,0.32
6625.00,0.32
6624.00,0.32
6623.00,0.32
6622.00,0.32
6621.00,0.32
6620.00,0.32
6619.00,0.32
6618.00,0.32
6617.00,0.32
6616.00,0.32
6615.00,0.32
6614.00,0.32
6613.00,0.32
6612.00,0.33
6611.00,0.33
6610.00,0.33
6609.00,0.33
6608.00,0.33
6607.00,0.33
6606.00,0.33
6605.00,0.33
6604.00,0.33
6603.00,0.33
6602.00,0.33
6601.00,0.33
6600.00,0.33
6599.00,0.33
6598.00,0.33
6597.00,0.33
6596.00,0.33
6595.00,0.33
6594.00,0.33
6593.00,0.33
6592.00,0.33
6591.00,0.33
6590.00,0.33
6589.00,0.33
6588.00,0.33
6587.00,0.33
6586.00,0.33
6585.00,0.33
6584.00,0.33
6583.00,0.33
6582.00,0.33
6581.00,0.33
6580.00,0.33
6579.00,0.33
6578.00,0.33
6577.00,0.34
6576.00,0.34
6575.00,0.34
6574.00,0.34
6573.00,0.34
6572.00,0.34
6571.00,0.34
6570.00,0.34
6569.00,0.34
6568.00,0.34
6567.00,0.34
6566.00,0.34
6565.00,0.34
6564.00,0.34
6563.00,0.34
6562.00,0.34
6561.00,0.34
6560.00,0.34
6559.00,0.34
6558.00,0.34
6557.00,0.34
6556.00,0.34
6555.00,0.34
6554.00,0.34
6553.00,0.34
6552.00,0.34
6551.00,0.34
6550.00,0.34
6549.00,0.35
6548.00,0.35
6547.00,0.35
6546.00,0.35
6545.00,0.35
6544.00,0.35
6543.00,0.35
6542.00,0.35
6541.00,0.35
6540.00,0.35
6539.00,0.35
6538.00,0.35
6537.00,0.35
6536.00,0.35
6535.00,0.35
6534.00,0.35
6533.00,0.35
6532.00,0.35
6531.00,0.35
6530.00,0.35
6529.00,0.35
6528.00,0.35
6527.00,0.36
6526.00,0.36
6525.00,0.36
6524.00,0.36
6523.00,0.36
6522.00,0.36
6521.00,0.36
6520.00,0.36
6519.00,0.36
6518.00,0.36
6517.00,0.36
6516.00,0.36
6515.00,0.36
6514.00,0.37
6513.00,0.37
6512.00,0.37
6511.00,0.37
6510.00,0.37
6509.00,0.37
6508.00,0.37
6507.00,0.37
6506.00,0.37
6505.00,0.37
6504.00,0.37
6503.00,0.37
6502.00,0.37
6501.00,0.37
6500.00,0.37
6499.00,0.37
6498.00,0.37
6497.00,0.37
6496.00,0.37
6495.00,0.37
6494.00,0.37
6493.00,0.37
6492.00,0.37
6491.00,0.37
6490.00,0.37
6489.00,0.37
6488.00,0.37
6487.00,0.37
6486.00,0.37
6485.00,0.37
6484.00,0.37
6483.00,0.37
6482.00,0.37
6481.00,0.37
6480.00,0.38
6479.00,0.38
6478.00,0.38
6477.00,0.38
6476.00,0.38
6475.00,0.38
6474.00,0.38
6473.00,0.38
6472.00,0.38
6471.00,0.38
6470.00,0.38
6469.00,0.38
6468.00,0.38
6467.00,0.38
6466.00,0.38
6465.00,0.38
6464.00,0.38
6463.00,0.38
6462.00,0.38
6461.00,0.38
6460.00,0.38
6459.00,0.38
6458.00,0.38
6457.00,0.38
6456.00,0.38
6455.00,0.38
6454.00,0.38
6453.00,0.38
6452.00,0.38
6451.00,0.38
6450.00,0.38
6449.00,0.38
6448.00,0.38
6447.00,0.38
6446.00,0.38
6445.00,0.38
6444.00,0.38
6443.00,0.38
6442.00,0.38
6441.00,0.38
6440.00,0.38
6439.00,0.38
6438.00,0.38
6437.00,0.38
6436.00,0.38
6435.00,0.38
6434.00,0.38
6433.00,0.38
6432.00,0.38
6431.00,0.38
6430.00,0.38
6429.00,0.38
6428.00,0.38
6427.00,0.38
6426.00,0.38
6425.00,0.39
6424.00,0.39
6423.00,0.39
6422.00,0.39
6421.00,0.39
6420.00,0.39
6419.00,0.39
6418.00,0.39
6417.00,0.39
6416.00,0.39
6415.00,0.39
6414.00,0.39
6413.00,0.39
6412.00,0.39
6411.00,0.39
6410.00,0.39
6409.00,0.39
6408.00,0.39
6407.00,0.39
6406.00,0.39
6405.00,0.39
6404.00,0.39
6403.00,0.39
6402.00,0.39
6401.00,0.39
6400.00,0.39
6399.00,0.39
6398.00,0.39
6397.00,0.39
6396.00,0.40
6395.00,0.40
6394.00,0.40
6393.00,0.40
6392.00,0.40
6391.00,0.40
6390.00,0.40
6389.00,0.40
6388.00,0.40
6387.00,0.40
6386.00,0.40
6385.00,0.40
6384.00,0.40
6383.00,0.40
6382.00,0.40
6381.00,0.40
6380.00,0.40
6379.00,0.40
6378.00,0.40
6377.00,0.40
6376.00,0.40
6375.00,0.40
6374.00,0.40
6373.00,0.41
6372.00,0.41
6371.00,0.41
6370.00,0.41
6369.00,0.41
6368.00,0.41
6367.00,0.41
6366.00,0.41
6365.00,0.41
6364.00,0.41
6363.00,0.41
6362.00,0.41
6361.00,0.41
6360.00,0.41
6359.00,0.41
6358.00,0.41
6357.00,0.41
6356.00,0.41
6355.00,0.41
6354.00,0.41
6353.00,0.41
6352.00,0.41
6351.00,0.41
6350.00,0.41
6349.00,0.41
6348.00,0.41
6347.00,0.41
6346.00,0.41
6345.00,0.41
6344.00,0.42
6343.00,0.42
6342.00,0.42
6341.00,0.42
6340.00,0.42
6339.00,0.42
6338.00,0.42
6337.00,0.42
6336.00,0.42
6335.00,0.42
6334.00,0.42
6333.00,0.42
6332.00,0.42
6331.00,0.42
6330.00,0.42
6329.00,0.42
6328.00,0.42
6327.00,0.42
6326.00,0.42
6325.00,0.42
6324.00,0.43
6323.00,0.43
6322.00,0.43
6321.00,0.43
6320.00,0.43
6319.00,0.43
6318.00,0.43
6317.00,0.43
6316.00,0.43
6315.00,0.43
6314.00,0.43
6313.00,0.43
6312.00,0.43
6311.00,0.43
6310.00,0.43
6309.00,0.43
6308.00,0.43
6307.00,0.43
6306.00,0.43
6305.00,0.43
6304.00,0.43
6303.00,0.43
6302.00,0.43
6301.00,0.43
6300.00,0.43
6299.00,0.43
6298.00,0.43
6297.00,0.43
6296.00,0.44
6295.00,0.44
6294.00,0.44
6293.00,0.44
6292.00,0.44
6291.00,0.44
6290.00,0.44
6289.00,0.44
6288.00,0.44
6287.00,0.44
6286.00,0.44
6285.00,0.44
6284.00,0.44
6283.00,0.44
6282.00,0.44
6281.00,0.44
6280.00,0.44
6279.00,0.44
6278.00,0.45
6277.00,0.45
6276.00,0.45
6275.00,0.45
6274.00,0.45
6273.00,0.45
6272.00,0.45
6271.00,0.45
6270.00,0.45
6269.00,0.45
6268.00,0.45
6267.00,0.45
6266.00,0.45
6265.00,0.45
6264.00,0.45
6263.00,0.45
6262.00,0.45
6261.00,0.45
6260.00,0.45
6259.00,0.45
6258.00,0.45
6257.00,0.46
6256.00,0.46
6255.00,0.46
6254.00,0.46
6253.00,0.46
6252.00,0.46
6251.00,0.46
6250.00,0.46
6249.00,0.46
6248.00,0.46
6247.00,0.46
6246.00,0.46
6245.00,0.46
6244.00,0.46
6243.00,0.46
6242.00,0.46
6241.00,0.46
6240.00,0.46
6239.00,0.47
6238.00,0.47
6237.00,0.47
6236.00,0.47
6235.00,0.47
6234.00,0.47
6233.00,0.47
6232.00,0.47
6231.00,0.47
6230.00,0.47
6229.00,0.47
6228.00,0.47
6227.00,0.47
6226.00,0.47
6225.00,0.47
6224.00,0.47
6223.00,0.47
6222.00,0.47
6221.00,0.47
6220.00,0.47
6219.00,0.48
6218.00,0.48
6217.00,0.48
6216.00,0.48
6215.00,0.48
6214.00,0.48
6213.00,0.48
6212.00,0.48
6211.00,0.48
6210.00,0.48
6209.00,0.48
6208.00,0.48
6207.00,0.48
6206.00,0.48
6205.00,0.48
6204.00,0.48
6203.00,0.48
6202.00,0.48
6201.00,0.48
6200.00,0.49
6199.00,0.49
6198.00,0.49
6197.00,0.49
6196.00,0.49
6195.00,0.49
6194.00,0.49
6193.00,0.49
6192.00,0.49
6191.00,0.49
6190.00,0.49
6189.00,0.49
6188.00,0.49
6187.00,0.49
6186.00,0.49
6185.00,0.49
6184.00,0.49
6183.00,0.49
6182.00,0.49
6181.00,0.50
6180.00,0.50
6179.00,0.50
6178.00,0.50
6177.00,0.50
6176.00,0.50
6175.00,0.50
6174.00,0.50
6173.00,0.50
6172.00,0.50
6171.00,0.50
6170.00,0.50
6169.00,0.50
6168.00,0.50
6167.00,0.51
6166.00,0.51
6165.00,0.51
6164.00,0.51
6163.00,0.51
6162.00,0.51
6161.00,0.51
6160.00,0.51
6159.00,0.51
6158.00,0.51
6157.00,0.51
6156.00,0.51
6155.00,0.51
6154.00,0.51
6153.00,0.52
6152.00,0.52
6151.00,0.52
6150.00,0.52
6149.00,0.52
6148.00,0.52
6147.00,0.52
6146.00,0.52
6145.00,0.52
6144.00,0.52
6143.00,0.52
6142.00,0.52
6141.00,0.52
6140.00,0.52
6139.00,0.52
6138.00,0.52
6137.00,0.52
6136.00,0.52
6135.00,0.52
6134.00,0.52
6133.00,0.53
6132.00,0.53
6131.00,0.53
6130.00,0.53
6129.00,0.53
6128.00,0.53
6127.00,0.53
6126.00,0.53
6125.00,0.53
6124.00,0.53
6123.00,0.53
6122.00,0.53
6121.00,0.54
6120.00,0.54
6119.00,0.54
6118.00,0.54
6117.00,0.54
6116.00,0.54
6115.00,0.54
6114.00,0.54
6113.00,0.54
6112.00,0.54
6111.00,0.54
6110.00,0.54
6109.00,0.54
6108.00,0.55
6107.00,0.55
6106.00,0.55
6105.00,0.55
6104.00,0.55
6103.00,0.55
6102.00,0.55
6101.00,0.55
6100.00,0.55
6099.00,0.55
6098.00,0.55
6097.00,0.55
6096.00,0.55
6095.00,0.55
6094.00,0.55
6093.00,0.55
6092.00,0.55
6091.00,0.55
6090.00,0.55
6089.00,0.55
6088.00,0.55
6087.00,0.55
6086.00,0.55
6085.00,0.55
6084.00,0.55
6083.00,0.56
6082.00,0.56
6081.00,0.56
6080.00,0.56
6079.00,0.56
6078.00,0.56
6077.00,0.56
6076.00,0.56
6075.00,0.56
6074.00,0.56
6073.00,0.56
6072.00,0.56
6071.00,0.56
6070.00,0.56
6069.00,0.56
6068.00,0.56
6067.00,0.56
6066.00,0.56
6065.00,0.56
6064.00,0.56
6063.00,0.57
6062.00,0.57
6061.00,0.57
6060.00,0.57
6059.00,0.57
6058.00,0.57
6057.00,0.57
6056.00,0.57
6055.00,0.57
6054.00,0.57
6053.00,0.57
6052.00,0.57
6051.00,0.57
6050.00,0.57
6049.00,0.57
6048.00,0.57
6047.00,0.57
6046.00,0.58
6045.00,0.58
6044.00,0.58
6043.00,0.58
6042.00,0.58
6041.00,0.58
6040.00,0.58
6039.00,0.58
6038.00,0.58
6037.00,0.58
6036.00,0.58
6035.00,0.58
6034.00,0.58
6033.00,0.58
6032.00,0.58
6031.00,0.58
6030.00,0.58
6029.00,0.58
6028.00,0.58
6027.00,0.58
6026.00,0.58
6025.00,0.58
6024.00,0.58
6023.00,0.58
6022.00,0.58
6021.00,0.58
6020.00,0.58
6019.00,0.58
6018.00,0.58
6017.00,0.58
6016.00,0.58
6015.00,0.58
6014.00,0.58
6013.00,0.58
6012.00,0.58
6011.00,0.58
6010.00,0.58
6009.00,0.58
6008.00,0.58
6007.00,0.58
6006.00,0.58
6005.00,0.58
6004.00,0.58
6003.00,0.58
6002.00,0.58
6001.00,0.58
6000.00,0.58
5999.00,0.58
5998.00,0.58
5997.00,0.58
5996.00,0.58
5995.00,0.58
5994.00,0.58
5993.00,0.57
5992.00,0.57
5991.00,0.57
5990.00,0.57
5989.00,0.57
5988.00,0.57
5987.00,0.57
5986.00,0.57
5985.00,0.57
5984.00,0.57
5983.00,0.56
5982.00,0.56
5981.00,0.56
5980.00,0.56
5979.00,0.56
5978.00,0.56
5977.00,0.56
5976.00,0.55
5975.00,0.55
5974.00,0.55
5973.00,0.55
5972.00,0.55
5971.00,0.54
5970.00,0.54
5969.00,0.54
5968.00,0.54
5967.00,0.53
5966.00,0.53
5965.00,0.53
5964.00,0.53
5963.00,0.52
5962.00,0.52
5961.00,0.52
5960.00,0.51
5959.00,0.51
5958.00,0.51
5957.00,0.51
5956.00,0.50
5955.00,0.50
5954.00,0.50
5953.00,0.50
5952.00,0.49
5951.00,0.49
5950.00,0.49
5949.00,0.49
5948.00,0.49
5947.00,0.48
5946.00,0.48
5945.00,0.48
5944.00,0.48
5943.00,0.48
5942.00,0.48
5941.00,0.48
5940.00,0.48
5939.00,0.48
5938.00,0.48
5937.00,0.48
5936.00,0.48
5935.00,0.48
5934.00,0.48
5933.00,0.48
5932.00,0.48
5931.00,0.47
5930.00,0.47
5929.00,0.47
5928.00,0.47
5927.00,0.47
5926.00,0.47
5925.00,0.47
5924.00,0.47
5923.00,0.47
5922.00,0.47
5921.00,0.47
5920.00,0.47
5919.00,0.47
5918.00,0.46
5917.00,0.46
5916.00,0.46
5915.00,0.46
5914.00,0.46
5913.00,0.46
5912.00,0.46
5911.00,0.46
5910.00,0.46
5909.00,0.45
5908.00,0.45
5907.00,0.45
5906.00,0.45
5905.00,0.45
5904.00,0.45
5903.00,0.45
5902.00,0.45
5901.00,0.45
5900.00,0.45
5899.00,0.45
5898.00,0.45
5897.00,0.45
5896.00,0.45
5895.00,0.45
5894.00,0.46
5893.00,0.46
5892.00,0.46
5891.00,0.46
5890.00,0.46
5889.00,0.46
5888.00,0.46
5887.00,0.46
5886.00,0.47
5885.00,0.47
5884.00,0.47
5883.00,0.47
5882.00,0.47
5881.00,0.47
5880.00,0.47
5879.00,0.47
5878.00,0.48
5877.00,0.48
5876.00,0.48
5875.00,0.48
5874.00,0.48
5873.00,0.48
5872.00,0.48
5871.00,0.48
5870.00,0.48
5869.00,0.48
5868.00,0.49
5867.00,0.49
5866.00,0.49
5865.00,0.49
5864.00,0.49
5863.00,0.49
5862.00,0.49
5861.00,0.49
5860.00,0.49
5859.00,0.49
5858.00,0.49
5857.00,0.49
5856.00,0.49
5855.00,0.49
5854.00,0.49
5853.00,0.49
5852.00,0.49
5851.00,0.49
5850.00,0.49
5849.00,0.49
5848.00,0.49
5847.00,0.49
5846.00,0.49
5845.00,0.49
5844.00,0.49
5843.00,0.49
5842.00,0.49
5841.00,0.49
5840.00,0.49
5839.00,0.49
5838.00,0.49
5837.00,0.49
5836.00,0.49
5835.00,0.49
5834.00,0.49
5833.00,0.49
5832.00,0.49
5831.00,0.49
5830.00,0.49
5829.00,0.49
5828.00,0.49
5827.00,0.49
5826.00,0.49
5825.00,0.49
5824.00,0.49
5823.00,0.49
5822.00,0.49
5821.00,0.49
5820.00,0.49
5819.00,0.49
5818.00,0.49
5817.00,0.49
5816.00,0.49
5815.00,0.49
5814.00,0.49
5813.00,0.49
5812.00,0.49
5811.00,0.49
5810.00,0.49
5809.00,0.49
5808.00,0.49
5807.00,0.49
5806.00,0.49
5805.00,0.49
5804.00,0.49
5803.00,0.49
5802.00,0.49
5801.00,0.49
5800.00,0.49
5799.00,0.49
5798.00,0.49
5797.00,0.49
5796.00,0.49
5795.00,0.49
5794.00,0.49
5793.00,0.49
5792.00,0.48
5791.00,0.48
5790.00,0.48
5789.00,0.48
5788.00,0.48
5787.00,0.48
5786.00,0.48
5785.00,0.48
5784.00,0.48
5783.00,0.48
5782.00,0.48
5781.00,0.47
5780.00,0.47
5779.00,0.47
5778.00,0.47
5777.00,0.47
5776.00,0.47
5775.00,0.47
5774.00,0.47
5773.00,0.47
5772.00,0.47
5771.00,0.47
5770.00,0.47
5769.00,0.47
5768.00,0.47
5767.00,0.47
5766.00,0.47
5765.00,0.48
5764.00,0.48
5763.00,0.48
5762.00,0.48
5761.00,0.48
5760.00,0.48
5759.00,0.48
5758.00,0.48
5757.00,0.48
5756.00,0.48
5755.00,0.48
5754.00,0.49
5753.00,0.49
5752.00,0.49
5751.00,0.49
5750.00,0.49
5749.00,0.49
5748.00,0.49
5747.00,0.49
5746.00,0.50
5745.00,0.50
5744.00,0.50
5743.00,0.50
5742.00,0.50
5741.00,0.50
5740.00,0.50
5739.00,0.50
5738.00,0.51
5737.00,0.51
5736.00,0.51
5735.00,0.51
5734.00,0.51
5733.00,0.51
5732.00,0.51
5731.00,0.51
5730.00,0.51
5729.00,0.51
5728.00,0.51
5727.00,0.51
5726.00,0.51
5725.00,0.51
5724.00,0.51
5723.00,0.51
5722.00,0.51
5721.00,0.51
5720.00,0.51
5719.00,0.51
5718.00,0.51
5717.00,0.51
5716.00,0.51
5715.00,0.51
5714.00,0.51
5713.00,0.51
5712.00,0.51
5711.00,0.51
5710.00,0.51
5709.00,0.51
5708.00,0.51
5707.00,0.51
5706.00,0.51
5705.00,0.51
5704.00,0.51
5703.00,0.51
5702.00,0.50
5701.00,0.50
5700.00,0.50
5699.00,0.50
5698.00,0.50
5697.00,0.50
5696.00,0.50
5695.00,0.50
5694.00,0.50
5693.00,0.50
5692.00,0.50
5691.00,0.50
5690.00,0.50
5689.00,0.50
5688.00,0.50
5687.00,0.50
5686.00,0.50
5685.00,0.50
5684.00,0.50
5683.00,0.49
5682.00,0.49
5681.00,0.49
5680.00,0.49
5679.00,0.49
5678.00,0.49
5677.00,0.49
5676.00,0.49
5675.00,0.49
5674.00,0.49
5673.00,0.49
5672.00,0.50
5671.00,0.50
5670.00,0.50
5669.00,0.50
5668.00,0.50
5667.00,0.50
5666.00,0.50
5665.00,0.50
5664.00,0.50
5663.00,0.50
5662.00,0.50
5661.00,0.50
5660.00,0.50
5659.00,0.50
5658.00,0.50
5657.00,0.50
5656.00,0.50
5655.00,0.50
5654.00,0.50
5653.00,0.50
5652.00,0.50
5651.00,0.51
5650.00,0.51
5649.00,0.51
5648.00,0.51
5647.00,0.51
5646.00,0.51
5645.00,0.51
5644.00,0.51
5643.00,0.51
5642.00,0.51
5641.00,0.51
5640.00,0.51
5639.00,0.51
5638.00,0.51
5637.00,0.51
5636.00,0.51
5635.00,0.51
5634.00,0.52
5633.00,0.52
5632.00,0.52
5631.00,0.52
5630.00,0.52
5629.00,0.52
5628.00,0.52
5627.00,0.52
5626.00,0.52
5625.00,0.52
5624.00,0.52
5623.00,0.52
5622.00,0.52
5621.00,0.52
5620.00,0.52
5619.00,0.53
5618.00,0.53
5617.00,0.53
5616.00,0.53
5615.00,0.53
5614.00,0.53
5613.00,0.53
5612.00,0.53
5611.00,0.53
5610.00,0.53
5609.00,0.53
5608.00,0.53
5607.00,0.53
5606.00,0.53
5605.00,0.54
5604.00,0.54
5603.00,0.54
5602.00,0.54
5601.00,0.54
5600.00,0.54
5599.00,0.54
5598.00,0.54
5597.00,0.54
5596.00,0.54
5595.00,0.54
5594.00,0.54
5593.00,0.54
5592.00,0.54
5591.00,0.54
5590.00,0.54
5589.00,0.54
5588.00,0.54
5587.00,0.54
5586.00,0.54
5585.00,0.55
5584.00,0.55
5583.00,0.55
5582.00,0.55
5581.00,0.55
5580.00,0.55
5579.00,0.55
5578.00,0.55
5577.00,0.55
5576.00,0.55
5575.00,0.55
5574.00,0.55
5573.00,0.55
5572.00,0.55
5571.00,0.55
5570.00,0.55
5569.00,0.55
5568.00,0.56
5567.00,0.56
5566.00,0.56
5565.00,0.56
5564.00,0.56
5563.00,0.56
5562.00,0.56
5561.00,0.56
5560.00,0.56
5559.00,0.56
5558.00,0.56
5557.00,0.56
5556.00,0.56
5555.00,0.56
5554.00,0.56
5553.00,0.56
5552.00,0.56
5551.00,0.56
5550.00,0.56
5549.00,0.56
5548.00,0.56
5547.00,0.56
5546.00,0.57
5545.00,0.57
5544.00,0.57
5543.00,0.57
5542.00,0.57
5541.00,0.57
5540.00,0.57
5539.00,0.57
5538.00,0.57
5537.00,0.57
5536.00,0.57
5535.00,0.57
5534.00,0.57
5533.00,0.57
5532.00,0.57
5531.00,0.57
5530.00,0.57
5529.00,0.57
5528.00,0.57
5527.00,0.57
5526.00,0.57
5525.00,0.57
5524.00,0.58
5523.00,0.58
5522.00,0.58
5521.00,0.58
5520.00,0.58
5519.00,0.58
5518.00,0.58
5517.00,0.58
5516.00,0.58
5515.00,0.58
5514.00,0.58
5513.00,0.58
5512.00,0.58
5511.00,0.58
5510.00,0.58
5509.00,0.58
5508.00,0.58
5507.00,0.58
5506.00,0.58
5505.00,0.58
5504.00,0.58
5503.00,0.58
5502.00,0.58
5501.00,0.58
5500.00,0.58
5499.00,0.58
5498.00,0.58
5497.00,0.58
5496.00,0.58
5495.00,0.58
5494.00,0.58
5493.00,0.58
5492.00,0.58
5491.00,0.58
5490.00,0.58
5489.00,0.58
5488.00,0.58
5487.00,0.58
5486.00,0.58
5485.00,0.58
5484.00,0.59
5483.00,0.59
5482.00,0.59
5481.00,0.59
5480.00,0.59
5479.00,0.59
5478.00,0.59
5477.00,0.59
5476.00,0.59
5475.00,0.59
5474.00,0.59
5473.00,0.59
5472.00,0.59
5471.00,0.59
5470.00,0.59
5469.00,0.59
5468.00,0.59
5467.00,0.59
5466.00,0.59
5465.00,0.59
5464.00,0.59
5463.00,0.59
5462.00,0.59
5461.00,0.59
5460.00,0.59
5459.00,0.59
5458.00,0.60
5457.00,0.60
5456.00,0.60
5455.00,0.60
5454.00,0.60
5453.00,0.60
5452.00,0.60
5451.00,0.60
5450.00,0.60
5449.00,0.60
5448.00,0.60
5447.00,0.60
5446.00,0.60
5445.00,0.60
5444.00,0.60
5443.00,0.60
5442.00,0.60
5441.00,0.60
5440.00,0.60
5439.00,0.60
5438.00,0.60
5437.00,0.60
5436.00,0.60
5435.00,0.60
5434.00,0.60
5433.00,0.60
5432.00,0.60
5431.00,0.60
5430.00,0.60
5429.00,0.60
5428.00,0.60
5427.00,0.60
5426.00,0.60
5425.00,0.60
5424.00,0.60
5423.00,0.60
5422.00,0.60
5421.00,0.60
5420.00,0.60
5419.00,0.60
5418.00,0.60
5417.00,0.60
5416.00,0.60
5415.00,0.60
5414.00,0.60
5413.00,0.60
5412.00,0.60
5411.00,0.60
5410.00,0.60
5409.00,0.60
5408.00,0.59
5407.00,0.59
5406.00,0.59
5405.00,0.59
5404.00,0.59
5403.00,0.59
5402.00,0.59
5401.00,0.59
5400.00,0.59
5399.00,0.59
5398.00,0.59
5397.00,0.59
5396.00,0.59
5395.00,0.59
5394.00,0.59
5393.00,0.59
5392.00,0.59
5391.00,0.58
5390.00,0.58
5389.00,0.58
5388.00,0.58
5387.00,0.58
5386.00,0.58
5385.00,0.58
5384.00,0.58
5383.00,0.58
5382.00,0.57
5381.00,0.57
5380.00,0.57
5379.00,0.57
5378.00,0.57
5377.00,0.57
5376.00,0.57
5375.00,0.56
5374.00,0.56
5373.00,0.56
5372.00,0.56
5371.00,0.56
5370.00,0.56
5369.00,0.56
5368.00,0.55
5367.00,0.55
5366.00,0.55
5365.00,0.55
5364.00,0.54
5363.00,0.54
5362.00,0.54
5361.00,0.54
5360.00,0.53
5359.00,0.53
5358.00,0.53
5357.00,0.52
5356.00,0.52
5355.00,0.52
5354.00,0.51
5353.00,0.51
5352.00,0.51
5351.00,0.50
5350.00,0.50
5349.00,0.49
5348.00,0.49
5347.00,0.49
5346.00,0.48
5345.00,0.48
5344.00,0.48
5343.00,0.47
5342.00,0.47
5341.00,0.46
5340.00,0.46
5339.00,0.46
5338.00,0.45
5337.00,0.45
5336.00,0.45
5335.00,0.44
5334.00,0.44
5333.00,0.44
5332.00,0.43
5331.00,0.43
5330.00,0.43
5329.00,0.42
5328.00,0.42
5327.00,0.42
5326.00,0.41
5325.00,0.41
5324.00,0.40
5323.00,0.40
5322.00,0.40
5321.00,0.39
5320.00,0.39
5319.00,0.39
5318.00,0.38
5317.00,0.38
5316.00,0.38
5315.00,0.37
5314.00,0.37
5313.00,0.37
5312.00,0.37
5311.00,0.36
5310.00,0.36
5309.00,0.36
5308.00,0.36
5307.00,0.35
5306.00,0.35
5305.00,0.35
5304.00,0.35
5303.00,0.34
5302.00,0.34
5301.00,0.34
5300.00,0.34
5299.00,0.34
5298.00,0.34
5297.00,0.34
5296.00,0.33
5295.00,0.33
5294.00,0.33
5293.00,0.33
5292.00,0.33
5291.00,0.33
5290.00,0.33
5289.00,0.33
5288.00,0.33
5287.00,0.33
5286.00,0.33
5285.00,0.33
5284.00,0.33
5283.00,0.32
5282.00,0.32
5281.00,0.32
5280.00,0.32
5279.00,0.32
5278.00,0.32
5277.00,0.32
5276.00,0.32
5275.00,0.32
5274.00,0.32
5273.00,0.32
5272.00,0.32
5271.00,0.32
5270.00,0.32
5269.00,0.32
5268.00,0.32
5267.00,0.32
5266.00,0.32
5265.00,0.32
5264.00,0.32
5263.00,0.32
5262.00,0.32
5261.00,0.32
5260.00,0.32
5259.00,0.32
5258.00,0.32
5257.00,0.32
5256.00,0.32
5255.00,0.32
5254.00,0.32
5253.00,0.32
5252.00,0.32
5251.00,0.32
5250.00,0.32
5249.00,0.32
5248.00,0.32
5247.00,0.32
5246.00,0.32
5245.00,0.32
5244.00,0.32
5243.00,0.32
5242.00,0.32
5241.00,0.32
5240.00,0.32
5239.00,0.32
5238.00,0.32
5237.00,0.32
5236.00,0.32
5235.00,0.32
5234.00,0.32
5233.00,0.32
5232.00,0.33
5231.00,0.33
5230.00,0.33
5229.00,0.33
5228.00,0.33
5227.00,0.33
5226.00,0.33
5225.00,0.33
5224.00,0.33
5223.00,0.33
5222.00,0.33
5221.00,0.33
5220.00,0.33
5219.00,0.33
5218.00,0.33
5217.00,0.33
5216.00,0.33
5215.00,0.33
5214.00,0.33
5213.00,0.33
5212.00,0.33
5211.00,0.33
5210.00,0.33
5209.00,0.33
5208.00,0.33
5207.00,0.33
5206.00,0.33
5205.00,0.33
5204.00,0.33
5203.00,0.33
5202.00,0.33
5201.00,0.33
5200.00,0.33
5199.00,0.33
5198.00,0.33
5197.00,0.33
5196.00,0.33
5195.00,0.33
5194.00,0.33
5193.00,0.33
5192.00,0.33
5191.00,0.33
5190.00,0.33
5189.00,0.33
5188.00,0.33
5187.00,0.33
5186.00,0.33
5185.00,0.33
5184.00,0.33
5183.00,0.33
5182.00,0.33
5181.00,0.33
5180.00,0.33
5179.00,0.33
5178.00,0.33
5177.00,0.33
5176.00,0.33
5175.00,0.33
5174.00,0.33
5173.00,0.33
5172.00,0.33
5171.00,0.33
5170.00,0.33
5169.00,0.34
5168.00,0.34
5167.00,0.34
5166.00,0.34
5165.00,0.34
5164.00,0.34
5163.00,0.34
5162.00,0.34
5161.00,0.34
5160.00,0.34
5159.00,0.34
5158.00,0.34
5157.00,0.34
5156.00,0.34
5155.00,0.34
5154.00,0.34
5153.00,0.34
5152.00,0.34
5151.00,0.34
5150.00,0.34
5149.00,0.34
5148.00,0.34
5147.00,0.34
5146.00,0.34
5145.00,0.34
5144.00,0.34
5143.00,0.34
5142.00,0.34
5141.00,0.34
5140.00,0.34
5139.00,0.34
5138.00,0.34
5137.00,0.34
5136.00,0.34
5135.00,0.34
5134.00,0.34
5133.00,0.34
5132.00,0.34
5131.00,0.34
5130.00,0.34
5129.00,0.34
5128.00,0.34
5127.00,0.34
5126.00,0.34
5125.00,0.34
5124.00,0.34
5123.00,0.34
5122.00,0.34
5121.00,0.34
5120.00,0.34
5119.00,0.34
5118.00,0.35
5117.00,0.35
5116.00,0.35
5115.00,0.35
5114.00,0.35
5113.00,0.35
5112.00,0.35
5111.00,0.35
5110.00,0.35
5109.00,0.35
5108.00,0.35
5107.00,0.35
5106.00,0.35
5105.00,0.35
5104.00,0.35
5103.00,0.35
5102.00,0.35
5101.00,0.35
5100.00,0.35
5099.00,0.35
5098.00,0.35
5097.00,0.35
5096.00,0.35
5095.00,0.35
5094.00,0.35
5093.00,0.35
5092.00,0.35
5091.00,0.35
5090.00,0.35
5089.00,0.35
5088.00,0.35
5087.00,0.35
5086.00,0.35
5085.00,0.35
5084.00,0.35
5083.00,0.35
5082.00,0.35
5081.00,0.35
5080.00,0.35
5079.00,0.35
5078.00,0.35
5077.00,0.35
5076.00,0.35
5075.00,0.35
5074.00,0.35
5073.00,0.35
5072.00,0.35
5071.00,0.35
5070.00,0.35
5069.00,0.36
5068.00,0.36
5067.00,0.36
5066.00,0.36
5065.00,0.36
5064.00,0.36
5063.00,0.36
5062.00,0.36
5061.00,0.36
5060.00,0.36
5059.00,0.36
5058.00,0.36
5057.00,0.36
5056.00,0.36
5055.00,0.36
5054.00,0.36
5053.00,0.36
5052.00,0.36
5051.00,0.36
5050.00,0.36
5049.00,0.36
5048.00,0.36
5047.00,0.36
5046.00,0.36
5045.00,0.36
5044.00,0.36
5043.00,0.36
5042.00,0.36
5041.00,0.36
5040.00,0.36
5039.00,0.36
5038.00,0.36
5037.00,0.36
5036.00,0.36
5035.00,0.36
5034.00,0.36
5033.00,0.36
5032.00,0.36
5031.00,0.36
5030.00,0.36
5029.00,0.36
5028.00,0.36
5027.00,0.36
5026.00,0.36
5025.00,0.36
5024.00,0.36
5023.00,0.36
5022.00,0.37
5021.00,0.37
5020.00,0.37
5019.00,0.37
5018.00,0.37
5017.00,0.37
5016.00,0.37
5015.00,0.37
5014.00,0.37
5013.00,0.37
5012.00,0.37
5011.00,0.37
5010.00,0.37
5009.00,0.37
5008.00,0.37
5007.00,0.37
5006.00,0.37
5005.00,0.37
5004.00,0.37
5003.00,0.37
5002.00,0.37
5001.00,0.37
5000.00,0.37
4999.00,0.37
4998.00,0.37
4997.00,0.37
4996.00,0.37
4995.00,0.37
4994.00,0.37
4993.00,0.37
4992.00,0.37
4991.00,0.37
4990.00,0.37
4989.00,0.37
4988.00,0.37
4987.00,0.37
4986.00,0.37
4985.00,0.37
4984.00,0.38
4983.00,0.38
4982.00,0.38
4981.00,0.38
4980.00,0.38
4979.00,0.38
4978.00,0.38
4977.00,0.38
4976.00,0.38
4975.00,0.38
4974.00,0.38
4973.00,0.38
4972.00,0.38
4971.00,0.38
4970.00,0.38
4969.00,0.38
4968.00,0.38
4967.00,0.38
4966.00,0.38
4965.00,0.38
4964.00,0.38
4963.00,0.38
4962.00,0.38
4961.00,0.38
4960.00,0.38
4959.00,0.38
4958.00,0.38
4957.00,0.38
4956.00,0.38
4955.00,0.38
4954.00,0.38
4953.00,0.38
4952.00,0.38
4951.00,0.39
4950.00,0.39
4949.00,0.39
4948.00,0.39
4947.00,0.39
4946.00,0.39
4945.00,0.39
4944.00,0.39
4943.00,0.39
4942.00,0.39
4941.00,0.39
4940.00,0.39
4939.00,0.39
4938.00,0.39
4937.00,0.39
4936.00,0.39
4935.00,0.39
4934.00,0.39
4933.00,0.39
4932.00,0.39
4931.00,0.39
4930.00,0.39
4929.00,0.39
4928.00,0.39
4927.00,0.39
4926.00,0.39
4925.00,0.39
4924.00,0.39
4923.00,0.39
4922.00,0.39
4921.00,0.39
4920.00,0.39
4919.00,0.39
4918.00,0.39
4917.00,0.39
4916.00,0.39
4915.00,0.39
4914.00,0.39
4913.00,0.39
4912.00,0.40
4911.00,0.40
4910.00,0.40
4909.00,0.40
4908.00,0.40
4907.00,0.40
4906.00,0.40
4905.00,0.40
4904.00,0.40
4903.00,0.40
4902.00,0.40
4901.00,0.40
4900.00,0.40
4899.00,0.40
4898.00,0.40
4897.00,0.40
4896.00,0.40
4895.00,0.40
4894.00,0.40
4893.00,0.40
4892.00,0.40
4891.00,0.40
4890.00,0.40
4889.00,0.40
4888.00,0.40
4887.00,0.40
4886.00,0.40
4885.00,0.40
4884.00,0.40
4883.00,0.40
4882.00,0.40
4881.00,0.40
4880.00,0.40
4879.00,0.40
4878.00,0.40
4877.00,0.40
4876.00,0.40
4875.00,0.40
4874.00,0.40
4873.00,0.40
4872.00,0.40
4871.00,0.40
4870.00,0.40
4869.00,0.41
4868.00,0.41
4867.00,0.41
4866.00,0.41
4865.00,0.41
4864.00,0.41
4863.00,0.41
4862.00,0.41
4861.00,0.41
4860.00,0.41
4859.00,0.41
4858.00,0.41
4857.00,0.41
4856.00,0.41
4855.00,0.41
4854.00,0.41
4853.00,0.41
4852.00,0.41
4851.00,0.41
4850.00,0.41
4849.00,0.41
4848.00,0.41
4847.00,0.41
4846.00,0.41
4845.00,0.41
4844.00,0.41
4843.00,0.41
4842.00,0.41
4841.00,0.41
4840.00,0.41
4839.00,0.41
4838.00,0.41
4837.00,0.41
4836.00,0.42
4835.00,0.42
4834.00,0.42
4833.00,0.42
4832.00,0.42
4831.00,0.42
4830.00,0.42
4829.00,0.42
4828.00,0.42
4827.00,0.42
4826.00,0.42
4825.00,0.42
4824.00,0.42
4823.00,0.42
4822.00,0.42
4821.00,0.42
4820.00,0.42
4819.00,0.42
4818.00,0.42
4817.00,0.42
4816.00,0.42
4815.00,0.42
4814.00,0.42
4813.00,0.42
4812.00,0.42
4811.00,0.42
4810.00,0.42
4809.00,0.42
4808.00,0.42
4807.00,0.42
4806.00,0.42
4805.00,0.42
4804.00,0.43
4803.00,0.43
4802.00,0.43
4801.00,0.43
4800.00,0.43
4799.00,0.43
4798.00,0.43
4797.00,0.43
4796.00,0.43
4795.00,0.43
4794.00,0.43
4793.00,0.43
4792.00,0.43
4791.00,0.43
4790.00,0.43
4789.00,0.43
4788.00,0.43
4787.00,0.43
4786.00,0.43
4785.00,0.43
4784.00,0.43
4783.00,0.43
4782.00,0.43
4781.00,0.43
4780.00,0.43
4779.00,0.43
4778.00,0.43
4777.00,0.44
4776.00,0.44
4775.00,0.44
4774.00,0.44
4773.00,0.44
4772.00,0.44
4771.00,0.44
4770.00,0.44
4769.00,0.44
4768.00,0.44
4767.00,0.44
4766.00,0.44
4765.00,0.44
4764.00,0.44
4763.00,0.44
4762.00,0.44
4761.00,0.44
4760.00,0.44
4759.00,0.44
4758.00,0.44
4757.00,0.44
4756.00,0.44
4755.00,0.44
4754.00,0.44
4753.00,0.44
4752.00,0.44
4751.00,0.44
4750.00,0.44
4749.00,0.45
4748.00,0.45
4747.00,0.45
4746.00,0.45
4745.00,0.45
4744.00,0.45
4743.00,0.45
4742.00,0.45
4741.00,0.45
4740.00,0.45
4739.00,0.45
4738.00,0.46
4737.00,0.46
4736.00,0.46
4735.00,0.46
4734.00,0.46
4733.00,0.46
4732.00,0.46
4731.00,0.46
4730.00,0.46
4729.00,0.46
4728.00,0.46
4727.00,0.46
4726.00,0.46
4725.00,0.46
4724.00,0.46
4723.00,0.46
4722.00,0.46
4721.00,0.46
4720.00,0.46
4719.00,0.46
4718.00,0.46
4717.00,0.46
4716.00,0.46
4715.00,0.47
4714.00,0.47
4713.00,0.47
4712.00,0.47
4711.00,0.47
4710.00,0.47
4709.00,0.47
4708.00,0.47
4707.00,0.47
4706.00,0.47
4705.00,0.47
4704.00,0.47
4703.00,0.47
4702.00,0.47
4701.00,0.47
4700.00,0.47
4699.00,0.47
4698.00,0.47
4697.00,0.47
4696.00,0.47
4695.00,0.47
4694.00,0.47
4693.00,0.48
4692.00,0.48
4691.00,0.48
4690.00,0.48
4689.00,0.48
4688.00,0.48
4687.00,0.48
4686.00,0.48
4685.00,0.48
4684.00,0.48
4683.00,0.48
4682.00,0.48
4681.00,0.48
4680.00,0.48
4679.00,0.48
4678.00,0.48
4677.00,0.48
4676.00,0.48
4675.00,0.49
4674.00,0.49
4673.00,0.49
4672.00,0.49
4671.00,0.49
4670.00,0.49
4669.00,0.49
4668.00,0.49
4667.00,0.49
4666.00,0.49
4665.00,0.49
4664.00,0.49
4663.00,0.49
4662.00,0.49
4661.00,0.49
4660.00,0.49
4659.00,0.50
4658.00,0.50
4657.00,0.50
4656.00,0.50
4655.00,0.50
4654.00,0.50
4653.00,0.50
4652.00,0.50
4651.00,0.50
4650.00,0.50
4649.00,0.50
4648.00,0.50
4647.00,0.50
4646.00,0.50
4645.00,0.50
4644.00,0.50
4643.00,0.50
4642.00,0.50
4641.00,0.50
4640.00,0.50
4639.00,0.50
4638.00,0.50
4637.00,0.51
4636.00,0.51
4635.00,0.51
4634.00,0.51
4633.00,0.51
4632.00,0.51
4631.00,0.51
4630.00,0.51
4629.00,0.51
4628.00,0.51
4627.00,0.51
4626.00,0.51
4625.00,0.51
4624.00,0.51
4623.00,0.51
4622.00,0.51
4621.00,0.51
4620.00,0.51
4619.00,0.51
4618.00,0.51
4617.00,0.51
4616.00,0.51
4615.00,0.51
4614.00,0.51
4613.00,0.51
4612.00,0.51
4611.00,0.51
4610.00,0.51
4609.00,0.51
4608.00,0.51
4607.00,0.51
4606.00,0.51
4605.00,0.51
4604.00,0.52
4603.00,0.52
4602.00,0.52
4601.00,0.52
4600.00,0.52
4599.00,0.52
4598.00,0.52
4597.00,0.52
4596.00,0.52
4595.00,0.52
4594.00,0.52
4593.00,0.52
4592.00,0.52
4591.00,0.52
4590.00,0.52
4589.00,0.52
4588.00,0.52
4587.00,0.52
4586.00,0.53
4585.00,0.53
4584.00,0.53
4583.00,0.53
4582.00,0.53
4581.00,0.53
4580.00,0.53
4579.00,0.53
4578.00,0.53
4577.00,0.53
4576.00,0.53
4575.00,0.53
4574.00,0.53
4573.00,0.53
4572.00,0.53
4571.00,0.53
4570.00,0.53
4569.00,0.53
4568.00,0.53
4567.00,0.53
4566.00,0.53
4565.00,0.53
4564.00,0.53
4563.00,0.53
4562.00,0.53
4561.00,0.53
4560.00,0.53
4559.00,0.53
4558.00,0.53
4557.00,0.53
4556.00,0.53
4555.00,0.53
4554.00,0.53
4553.00,0.53
4552.00,0.53
4551.00,0.53
4550.00,0.54
4549.00,0.54
4548.00,0.54
4547.00,0.54
4546.00,0.54
4545.00,0.54
4544.00,0.54
4543.00,0.54
4542.00,0.54
4541.00,0.54
4540.00,0.54
4539.00,0.54
4538.00,0.54
4537.00,0.54
4536.00,0.54
4535.00,0.54
4534.00,0.54
4533.00,0.54
4532.00,0.54
4531.00,0.54
4530.00,0.54
4529.00,0.54
4528.00,0.54
4527.00,0.54
4526.00,0.54
4525.00,0.54
4524.00,0.54
4523.00,0.54
4522.00,0.54
4521.00,0.54
4520.00,0.54
4519.00,0.54
4518.00,0.54
4517.00,0.54
4516.00,0.54
4515.00,0.54
4514.00,0.54
4513.00,0.54
4512.00,0.54
4511.00,0.54
4510.00,0.54
4509.00,0.54
4508.00,0.54
4507.00,0.54
4506.00,0.54
4505.00,0.54
4504.00,0.54
4503.00,0.54
4502.00,0.54
4501.00,0.54
4500.00,0.54
4499.00,0.54
4498.00,0.54
4497.00,0.54
4496.00,0.54
4495.00,0.54
4494.00,0.54
4493.00,0.54
4492.00,0.54
4491.00,0.54
4490.00,0.54
4489.00,0.54
4488.00,0.54
4487.00,0.54
4486.00,0.54
4485.00,0.54
4484.00,0.54
4483.00,0.54
4482.00,0.54
4481.00,0.54
4480.00,0.54
4479.00,0.54
4478.00,0.54
4477.00,0.54
4476.00,0.54
4475.00,0.53
4474.00,0.53
4473.00,0.53
4472.00,0.53
4471.00,0.53
4470.00,0.53
4469.00,0.53
4468.00,0.53
4467.00,0.53
4466.00,0.53
4465.00,0.53
4464.00,0.53
4463.00,0.53
4462.00,0.52
4461.00,0.52
4460.00,0.52
4459.00,0.52
4458.00,0.52
4457.00,0.52
4456.00,0.52
4455.00,0.52
4454.00,0.52
4453.00,0.52
4452.00,0.52
4451.00,0.52
4450.00,0.52
4449.00,0.52
4448.00,0.52
4447.00,0.51
4446.00,0.51
4445.00,0.51
4444.00,0.51
4443.00,0.51
4442.00,0.51
4441.00,0.51
4440.00,0.51
4439.00,0.50
4438.00,0.50
4437.00,0.50
4436.00,0.50
4435.00,0.50
4434.00,0.50
4433.00,0.50
4432.00,0.49
4431.00,0.49
4430.00,0.49
4429.00,0.49
4428.00,0.49
4427.00,0.49
4426.00,0.49
4425.00,0.49
4424.00,0.49
4423.00,0.49
4422.00,0.49
4421.00,0.49
4420.00,0.49
4419.00,0.49
4418.00,0.49
4417.00,0.49
4416.00,0.49
4415.00,0.49
4414.00,0.49
4413.00,0.49
4412.00,0.49
4411.00,0.49
4410.00,0.49
4409.00,0.49
4408.00,0.49
4407.00,0.49
4406.00,0.49
4405.00,0.49
4404.00,0.49
4403.00,0.49
4402.00,0.49
4401.00,0.49
4400.00,0.49
4399.00,0.49
4398.00,0.49
4397.00,0.49
4396.00,0.49
4395.00,0.49
4394.00,0.49
4393.00,0.49
4392.00,0.49
4391.00,0.49
4390.00,0.49
4389.00,0.49
4388.00,0.49
4387.00,0.50
4386.00,0.50
4385.00,0.50
4384.00,0.50
4383.00,0.50
4382.00,0.50
4381.00,0.50
4380.00,0.50
4379.00,0.50
4378.00,0.50
4377.00,0.50
4376.00,0.50
4375.00,0.50
4374.00,0.51
4373.00,0.51
4372.00,0.51
4371.00,0.51
4370.00,0.51
4369.00,0.51
4368.00,0.51
4367.00,0.51
4366.00,0.51
4365.00,0.51
4364.00,0.51
4363.00,0.51
4362.00,0.51
4361.00,0.51
4360.00,0.51
4359.00,0.51
4358.00,0.51
4357.00,0.51
4356.00,0.51
4355.00,0.51
4354.00,0.51
4353.00,0.51
4352.00,0.51
4351.00,0.51
4350.00,0.51
4349.00,0.51
4348.00,0.51
4347.00,0.51
4346.00,0.51
4345.00,0.51
4344.00,0.50
4343.00,0.51
4342.00,0.51
4341.00,0.51
4340.00,0.51
4339.00,0.51
4338.00,0.51
4337.00,0.51
4336.00,0.51
4335.00,0.51
4334.00,0.51
4333.00,0.51
4332.00,0.51
4331.00,0.51
4330.00,0.51
4329.00,0.51
4328.00,0.51
4327.00,0.51
4326.00,0.51
4325.00,0.51
4324.00,0.51
4323.00,0.51
4322.00,0.51
4321.00,0.51
4320.00,0.51
4319.00,0.51
4318.00,0.51
4317.00,0.51
4316.00,0.51
4315.00,0.51
4314.00,0.51
4313.00,0.51
4312.00,0.51
4311.00,0.51
4310.00,0.51
4309.00,0.51
4308.00,0.51
4307.00,0.52
4306.00,0.52
4305.00,0.52
4304.00,0.52
4303.00,0.52
4302.00,0.52
4301.00,0.52
4300.00,0.52
4299.00,0.52
4298.00,0.52
4297.00,0.52
4296.00,0.52
4295.00,0.53
4294.00,0.53
4293.00,0.53
4292.00,0.53
4291.00,0.53
4290.00,0.53
4289.00,0.53
4288.00,0.53
4287.00,0.53
4286.00,0.53
4285.00,0.53
4284.00,0.53
4283.00,0.53
4282.00,0.53
4281.00,0.53
4280.00,0.53
4279.00,0.53
4278.00,0.53
4277.00,0.53
4276.00,0.53
4275.00,0.53
4274.00,0.53
4273.00,0.53
4272.00,0.53
4271.00,0.53
4270.00,0.53
4269.00,0.53
4268.00,0.53
4267.00,0.53
4266.00,0.53
4265.00,0.53
4264.00,0.53
4263.00,0.53
4262.00,0.53
4261.00,0.53
4260.00,0.53
4259.00,0.53
4258.00,0.53
4257.00,0.53
4256.00,0.53
4255.00,0.53
4254.00,0.53
4253.00,0.53
4252.00,0.53
4251.00,0.53
4250.00,0.53
4249.00,0.53
4248.00,0.53
4247.00,0.53
4246.00,0.53
4245.00,0.53
4244.00,0.53
4243.00,0.53
4242.00,0.53
4241.00,0.53
4240.00,0.53
4239.00,0.53
4238.00,0.53
4237.00,0.53
4236.00,0.53
4235.00,0.53
4234.00,0.53
4233.00,0.53
4232.00,0.54
4231.00,0.54
4230.00,0.54
4229.00,0.54
4228.00,0.54
4227.00,0.54
4226.00,0.54
4225.00,0.54
4224.00,0.54
4223.00,0.54
4222.00,0.54
4221.00,0.54
4220.00,0.54
4219.00,0.54
4218.00,0.54
4217.00,0.54
4216.00,0.54
4215.00,0.54
4214.00,0.54
4213.00,0.54
4212.00,0.54
4211.00,0.55
4210.00,0.55
4209.00,0.55
4208.00,0.55
4207.00,0.55
4206.00,0.55
4205.00,0.55
4204.00,0.55
4203.00,0.55
4202.00,0.55
4201.00,0.55
4200.00,0.55
4199.00,0.55
4198.00,0.55
4197.00,0.55
4196.00,0.55
4195.00,0.55
4194.00,0.55
4193.00,0.55
4192.00,0.55
4191.00,0.55
4190.00,0.55
4189.00,0.55
4188.00,0.55
4187.00,0.55
4186.00,0.55
4185.00,0.55
4184.00,0.55
4183.00,0.55
4182.00,0.55
4181.00,0.55
4180.00,0.55
4179.00,0.55
4178.00,0.55
4177.00,0.55
4176.00,0.55
4175.00,0.55
4174.00,0.55
4173.00,0.55
4172.00,0.55
4171.00,0.55
4170.00,0.55
4169.00,0.55
4168.00,0.55
4167.00,0.55
4166.00,0.55
4165.00,0.55
4164.00,0.55
4163.00,0.55
4162.00,0.55
4161.00,0.55
4160.00,0.55
4159.00,0.55
4158.00,0.55
4157.00,0.55
4156.00,0.55
4155.00,0.55
4154.00,0.55
4153.00,0.55
4152.00,0.55
4151.00,0.55
4150.00,0.55
4149.00,0.55
4148.00,0.55
4147.00,0.55
4146.00,0.55
4145.00,0.55
4144.00,0.55
4143.00,0.55
4142.00,0.55
4141.00,0.55
4140.00,0.55
4139.00,0.55
4138.00,0.55
4137.00,0.55
4136.00,0.55
4135.00,0.55
4134.00,0.56
4133.00,0.56
4132.00,0.56
4131.00,0.56
4130.00,0.56
4129.00,0.56
4128.00,0.56
4127.00,0.56
4126.00,0.56
4125.00,0.56
4124.00,0.56
4123.00,0.56
4122.00,0.56
4121.00,0.56
4120.00,0.56
4119.00,0.56
4118.00,0.56
4117.00,0.56
4116.00,0.56
4115.00,0.56
4114.00,0.56
4113.00,0.56
4112.00,0.56
4111.00,0.56
4110.00,0.56
4109.00,0.56
4108.00,0.56
4107.00,0.56
4106.00,0.56
4105.00,0.56
4104.00,0.56
4103.00,0.56
4102.00,0.56
4101.00,0.56
4100.00,0.56
4099.00,0.56
4098.00,0.56
4097.00,0.56
4096.00,0.56
4095.00,0.56
4094.00,0.56
4093.00,0.56
4092.00,0.56
4091.00,0.56
4090.00,0.56
4089.00,0.56
4088.00,0.56
4087.00,0.57
4086.00,0.57
4085.00,0.57
4084.00,0.57
4083.00,0.57
4082.00,0.57
4081.00,0.57
4080.00,0.57
4079.00,0.57
4078.00,0.57
4077.00,0.57
4076.00,0.57
4075.00,0.57
4074.00,0.57
4073.00,0.57
4072.00,0.57
4071.00,0.57
4070.00,0.57
4069.00,0.57
4068.00,0.57
4067.00,0.57
4066.00,0.57
4065.00,0.57
4064.00,0.57
4063.00,0.57
4062.00,0.57
4061.00,0.58
4060.00,0.58
4059.00,0.58
4058.00,0.58
4057.00,0.58
4056.00,0.58
4055.00,0.57
4054.00,0.57
4053.00,0.57
4052.00,0.57
4051.00,0.57
4050.00,0.57
4049.00,0.57
4048.00,0.57
4047.00,0.57
4046.00,0.57
4045.00,0.57
4044.00,0.57
4043.00,0.57
4042.00,0.57
4041.00,0.58
4040.00,0.58
4039.00,0.58
4038.00,0.58
4037.00,0.58
4036.00,0.58
4035.00,0.58
4034.00,0.58
4033.00,0.58
4032.00,0.58
4031.00,0.58
4030.00,0.58
4029.00,0.58
4028.00,0.58
4027.00,0.58
4026.00,0.58
4025.00,0.58
4024.00,0.58
4023.00,0.58
4022.00,0.58
4021.00,0.58
4020.00,0.58
4019.00,0.58
4018.00,0.58
4017.00,0.58
4016.00,0.58
4015.00,0.59
4014.00,0.59
4013.00,0.59
4012.00,0.59
4011.00,0.59
4010.00,0.59
4009.00,0.59
4008.00,0.59
4007.00,0.59
4006.00,0.59
4005.00,0.59
4004.00,0.59
4003.00,0.60
4002.00,0.60
4001.00,0.60
4000.00,0.60
