创建为新数据集,样品 458 用户 Administrator 日期 星期日, 七月 15 2018
cm-1,%T
10000.00,0.55
9999.00,0.55
9998.00,0.55
9997.00,0.55
9996.00,0.55
9995.00,0.55
9994.00,0.55
9993.00,0.55
9992.00,0.55
9991.00,0.54
9990.00,0.54
9989.00,0.54
9988.00,0.54
9987.00,0.54
9986.00,0.53
9985.00,0.53
9984.00,0.53
9983.00,0.53
9982.00,0.53
9981.00,0.53
9980.00,0.52
9979.00,0.52
9978.00,0.52
9977.00,0.52
9976.00,0.52
9975.00,0.52
9974.00,0.52
9973.00,0.52
9972.00,0.52
9971.00,0.52
9970.00,0.52
9969.00,0.53
9968.00,0.53
9967.00,0.53
9966.00,0.53
9965.00,0.53
9964.00,0.53
9963.00,0.54
9962.00,0.54
9961.00,0.54
9960.00,0.54
9959.00,0.54
9958.00,0.54
9957.00,0.54
9956.00,0.54
9955.00,0.54
9954.00,0.54
9953.00,0.54
9952.00,0.54
9951.00,0.54
9950.00,0.54
9949.00,0.54
9948.00,0.53
9947.00,0.53
9946.00,0.53
9945.00,0.53
9944.00,0.53
9943.00,0.53
9942.00,0.53
9941.00,0.52
9940.00,0.52
9939.00,0.52
9938.00,0.53
9937.00,0.53
9936.00,0.53
9935.00,0.53
9934.00,0.53
9933.00,0.53
9932.00,0.53
9931.00,0.53
9930.00,0.53
9929.00,0.53
9928.00,0.53
9927.00,0.53
9926.00,0.53
9925.00,0.53
9924.00,0.53
9923.00,0.53
9922.00,0.53
9921.00,0.53
9920.00,0.53
9919.00,0.53
9918.00,0.53
9917.00,0.53
9916.00,0.53
9915.00,0.53
9914.00,0.53
9913.00,0.53
9912.00,0.53
9911.00,0.53
9910.00,0.53
9909.00,0.54
9908.00,0.54
9907.00,0.54
9906.00,0.54
9905.00,0.54
9904.00,0.54
9903.00,0.54
9902.00,0.55
9901.00,0.55
9900.00,0.55
9899.00,0.55
9898.00,0.54
9897.00,0.54
9896.00,0.54
9895.00,0.54
9894.00,0.54
9893.00,0.54
9892.00,0.53
9891.00,0.53
9890.00,0.53
9889.00,0.52
9888.00,0.52
9887.00,0.52
9886.00,0.52
9885.00,0.52
9884.00,0.51
9883.00,0.51
9882.00,0.51
9881.00,0.51
9880.00,0.51
9879.00,0.52
9878.00,0.52
9877.00,0.52
9876.00,0.52
9875.00,0.52
9874.00,0.53
9873.00,0.53
9872.00,0.53
9871.00,0.54
9870.00,0.54
9869.00,0.54
9868.00,0.54
9867.00,0.55
9866.00,0.55
9865.00,0.55
9864.00,0.55
9863.00,0.55
9862.00,0.55
9861.00,0.55
9860.00,0.55
9859.00,0.55
9858.00,0.55
9857.00,0.55
9856.00,0.55
9855.00,0.55
9854.00,0.55
9853.00,0.55
9852.00,0.55
9851.00,0.55
9850.00,0.55
9849.00,0.55
9848.00,0.55
9847.00,0.55
9846.00,0.55
9845.00,0.55
9844.00,0.55
9843.00,0.54
9842.00,0.54
9841.00,0.54
9840.00,0.54
9839.00,0.54
9838.00,0.54
9837.00,0.54
9836.00,0.54
9835.00,0.54
9834.00,0.53
9833.00,0.53
9832.00,0.53
9831.00,0.53
9830.00,0.53
9829.00,0.54
9828.00,0.54
9827.00,0.54
9826.00,0.54
9825.00,0.54
9824.00,0.54
9823.00,0.54
9822.00,0.54
9821.00,0.55
9820.00,0.55
9819.00,0.55
9818.00,0.55
9817.00,0.55
9816.00,0.55
9815.00,0.55
9814.00,0.55
9813.00,0.55
9812.00,0.54
9811.00,0.54
9810.00,0.54
9809.00,0.54
9808.00,0.54
9807.00,0.54
9806.00,0.53
9805.00,0.53
9804.00,0.53
9803.00,0.53
9802.00,0.53
9801.00,0.53
9800.00,0.54
9799.00,0.54
9798.00,0.54
9797.00,0.54
9796.00,0.54
9795.00,0.54
9794.00,0.55
9793.00,0.55
9792.00,0.55
9791.00,0.55
9790.00,0.55
9789.00,0.55
9788.00,0.55
9787.00,0.55
9786.00,0.54
9785.00,0.54
9784.00,0.54
9783.00,0.53
9782.00,0.53
9781.00,0.53
9780.00,0.52
9779.00,0.52
9778.00,0.52
9777.00,0.52
9776.00,0.51
9775.00,0.51
9774.00,0.51
9773.00,0.51
9772.00,0.51
9771.00,0.51
9770.00,0.52
9769.00,0.52
9768.00,0.52
9767.00,0.52
9766.00,0.53
9765.00,0.53
9764.00,0.53
9763.00,0.53
9762.00,0.53
9761.00,0.53
9760.00,0.53
9759.00,0.53
9758.00,0.53
9757.00,0.53
9756.00,0.53
9755.00,0.53
9754.00,0.52
9753.00,0.52
9752.00,0.52
9751.00,0.52
9750.00,0.51
9749.00,0.51
9748.00,0.51
9747.00,0.51
9746.00,0.51
9745.00,0.51
9744.00,0.51
9743.00,0.51
9742.00,0.51
9741.00,0.52
9740.00,0.52
9739.00,0.52
9738.00,0.52
9737.00,0.52
9736.00,0.53
9735.00,0.53
9734.00,0.53
9733.00,0.53
9732.00,0.53
9731.00,0.54
9730.00,0.54
9729.00,0.54
9728.00,0.54
9727.00,0.54
9726.00,0.54
9725.00,0.54
9724.00,0.53
9723.00,0.53
9722.00,0.53
9721.00,0.53
9720.00,0.53
9719.00,0.53
9718.00,0.53
9717.00,0.53
9716.00,0.52
9715.00,0.52
9714.00,0.52
9713.00,0.53
9712.00,0.53
9711.00,0.53
9710.00,0.53
9709.00,0.53
9708.00,0.53
9707.00,0.53
9706.00,0.54
9705.00,0.54
9704.00,0.54
9703.00,0.54
9702.00,0.54
9701.00,0.54
9700.00,0.54
9699.00,0.54
9698.00,0.54
9697.00,0.54
9696.00,0.54
9695.00,0.54
9694.00,0.54
9693.00,0.54
9692.00,0.53
9691.00,0.53
9690.00,0.53
9689.00,0.53
9688.00,0.52
9687.00,0.52
9686.00,0.52
9685.00,0.51
9684.00,0.51
9683.00,0.50
9682.00,0.50
9681.00,0.50
9680.00,0.50
9679.00,0.49
9678.00,0.49
9677.00,0.49
9676.00,0.49
9675.00,0.49
9674.00,0.49
9673.00,0.49
9672.00,0.49
9671.00,0.49
9670.00,0.49
9669.00,0.50
9668.00,0.50
9667.00,0.50
9666.00,0.50
9665.00,0.50
9664.00,0.51
9663.00,0.51
9662.00,0.51
9661.00,0.51
9660.00,0.51
9659.00,0.51
9658.00,0.51
9657.00,0.51
9656.00,0.51
9655.00,0.51
9654.00,0.51
9653.00,0.52
9652.00,0.52
9651.00,0.52
9650.00,0.52
9649.00,0.52
9648.00,0.52
9647.00,0.52
9646.00,0.52
9645.00,0.53
9644.00,0.53
9643.00,0.53
9642.00,0.53
9641.00,0.53
9640.00,0.53
9639.00,0.53
9638.00,0.53
9637.00,0.53
9636.00,0.53
9635.00,0.53
9634.00,0.53
9633.00,0.53
9632.00,0.53
9631.00,0.53
9630.00,0.53
9629.00,0.53
9628.00,0.53
9627.00,0.53
9626.00,0.53
9625.00,0.53
9624.00,0.52
9623.00,0.52
9622.00,0.52
9621.00,0.52
9620.00,0.52
9619.00,0.52
9618.00,0.52
9617.00,0.52
9616.00,0.52
9615.00,0.52
9614.00,0.52
9613.00,0.52
9612.00,0.52
9611.00,0.52
9610.00,0.52
9609.00,0.52
9608.00,0.52
9607.00,0.51
9606.00,0.51
9605.00,0.51
9604.00,0.51
9603.00,0.51
9602.00,0.50
9601.00,0.50
9600.00,0.50
9599.00,0.50
9598.00,0.50
9597.00,0.49
9596.00,0.49
9595.00,0.49
9594.00,0.49
9593.00,0.49
9592.00,0.49
9591.00,0.49
9590.00,0.49
9589.00,0.49
9588.00,0.49
9587.00,0.49
9586.00,0.49
9585.00,0.49
9584.00,0.49
9583.00,0.49
9582.00,0.49
9581.00,0.49
9580.00,0.50
9579.00,0.50
9578.00,0.50
9577.00,0.50
9576.00,0.50
9575.00,0.50
9574.00,0.50
9573.00,0.50
9572.00,0.50
9571.00,0.50
9570.00,0.50
9569.00,0.50
9568.00,0.50
9567.00,0.50
9566.00,0.50
9565.00,0.50
9564.00,0.50
9563.00,0.50
9562.00,0.50
9561.00,0.50
9560.00,0.51
9559.00,0.51
9558.00,0.51
9557.00,0.51
9556.00,0.52
9555.00,0.52
9554.00,0.52
9553.00,0.52
9552.00,0.53
9551.00,0.53
9550.00,0.53
9549.00,0.53
9548.00,0.53
9547.00,0.53
9546.00,0.54
9545.00,0.54
9544.00,0.54
9543.00,0.54
9542.00,0.54
9541.00,0.54
9540.00,0.54
9539.00,0.54
9538.00,0.54
9537.00,0.54
9536.00,0.54
9535.00,0.54
9534.00,0.54
9533.00,0.54
9532.00,0.54
9531.00,0.54
9530.00,0.54
9529.00,0.55
9528.00,0.55
9527.00,0.55
9526.00,0.55
9525.00,0.55
9524.00,0.55
9523.00,0.55
9522.00,0.55
9521.00,0.55
9520.00,0.55
9519.00,0.55
9518.00,0.55
9517.00,0.55
9516.00,0.55
9515.00,0.55
9514.00,0.55
9513.00,0.55
9512.00,0.55
9511.00,0.55
9510.00,0.55
9509.00,0.55
9508.00,0.55
9507.00,0.55
9506.00,0.55
9505.00,0.55
9504.00,0.54
9503.00,0.54
9502.00,0.54
9501.00,0.54
9500.00,0.54
9499.00,0.54
9498.00,0.54
9497.00,0.54
9496.00,0.53
9495.00,0.53
9494.00,0.53
9493.00,0.53
9492.00,0.53
9491.00,0.52
9490.00,0.52
9489.00,0.52
9488.00,0.52
9487.00,0.52
9486.00,0.52
9485.00,0.51
9484.00,0.51
9483.00,0.51
9482.00,0.51
9481.00,0.51
9480.00,0.51
9479.00,0.51
9478.00,0.51
9477.00,0.51
9476.00,0.51
9475.00,0.51
9474.00,0.51
9473.00,0.51
9472.00,0.51
9471.00,0.51
9470.00,0.51
9469.00,0.52
9468.00,0.52
9467.00,0.52
9466.00,0.52
9465.00,0.52
9464.00,0.52
9463.00,0.52
9462.00,0.52
9461.00,0.52
9460.00,0.51
9459.00,0.51
9458.00,0.51
9457.00,0.51
9456.00,0.51
9455.00,0.51
9454.00,0.51
9453.00,0.51
9452.00,0.52
9451.00,0.52
9450.00,0.52
9449.00,0.52
9448.00,0.52
9447.00,0.52
9446.00,0.53
9445.00,0.53
9444.00,0.53
9443.00,0.53
9442.00,0.54
9441.00,0.54
9440.00,0.54
9439.00,0.54
9438.00,0.54
9437.00,0.54
9436.00,0.54
9435.00,0.54
9434.00,0.54
9433.00,0.54
9432.00,0.54
9431.00,0.54
9430.00,0.54
9429.00,0.54
9428.00,0.54
9427.00,0.54
9426.00,0.54
9425.00,0.54
9424.00,0.54
9423.00,0.54
9422.00,0.54
9421.00,0.54
9420.00,0.54
9419.00,0.54
9418.00,0.54
9417.00,0.54
9416.00,0.54
9415.00,0.54
9414.00,0.54
9413.00,0.54
9412.00,0.54
9411.00,0.54
9410.00,0.54
9409.00,0.54
9408.00,0.54
9407.00,0.54
9406.00,0.54
9405.00,0.54
9404.00,0.54
9403.00,0.54
9402.00,0.54
9401.00,0.54
9400.00,0.54
9399.00,0.54
9398.00,0.54
9397.00,0.54
9396.00,0.54
9395.00,0.54
9394.00,0.54
9393.00,0.54
9392.00,0.54
9391.00,0.54
9390.00,0.54
9389.00,0.54
9388.00,0.54
9387.00,0.54
9386.00,0.54
9385.00,0.54
9384.00,0.54
9383.00,0.54
9382.00,0.54
9381.00,0.54
9380.00,0.54
9379.00,0.54
9378.00,0.54
9377.00,0.54
9376.00,0.54
9375.00,0.54
9374.00,0.54
9373.00,0.54
9372.00,0.54
9371.00,0.54
9370.00,0.54
9369.00,0.54
9368.00,0.54
9367.00,0.54
9366.00,0.54
9365.00,0.54
9364.00,0.54
9363.00,0.54
9362.00,0.54
9361.00,0.54
9360.00,0.54
9359.00,0.54
9358.00,0.54
9357.00,0.54
9356.00,0.54
9355.00,0.54
9354.00,0.54
9353.00,0.54
9352.00,0.54
9351.00,0.53
9350.00,0.53
9349.00,0.53
9348.00,0.53
9347.00,0.53
9346.00,0.53
9345.00,0.53
9344.00,0.53
9343.00,0.53
9342.00,0.53
9341.00,0.53
9340.00,0.53
9339.00,0.53
9338.00,0.53
9337.00,0.53
9336.00,0.53
9335.00,0.53
9334.00,0.53
9333.00,0.53
9332.00,0.53
9331.00,0.53
9330.00,0.53
9329.00,0.53
9328.00,0.53
9327.00,0.53
9326.00,0.53
9325.00,0.53
9324.00,0.53
9323.00,0.53
9322.00,0.53
9321.00,0.53
9320.00,0.53
9319.00,0.53
9318.00,0.53
9317.00,0.53
9316.00,0.53
9315.00,0.52
9314.00,0.52
9313.00,0.52
9312.00,0.52
9311.00,0.52
9310.00,0.52
9309.00,0.52
9308.00,0.52
9307.00,0.52
9306.00,0.52
9305.00,0.51
9304.00,0.51
9303.00,0.51
9302.00,0.51
9301.00,0.51
9300.00,0.51
9299.00,0.51
9298.00,0.52
9297.00,0.52
9296.00,0.52
9295.00,0.52
9294.00,0.52
9293.00,0.52
9292.00,0.52
9291.00,0.52
9290.00,0.52
9289.00,0.52
9288.00,0.52
9287.00,0.52
9286.00,0.52
9285.00,0.52
9284.00,0.52
9283.00,0.52
9282.00,0.52
9281.00,0.52
9280.00,0.52
9279.00,0.52
9278.00,0.51
9277.00,0.51
9276.00,0.51
9275.00,0.51
9274.00,0.51
9273.00,0.51
9272.00,0.51
9271.00,0.51
9270.00,0.51
9269.00,0.51
9268.00,0.51
9267.00,0.51
9266.00,0.50
9265.00,0.50
9264.00,0.50
9263.00,0.50
9262.00,0.50
9261.00,0.50
9260.00,0.50
9259.00,0.50
9258.00,0.51
9257.00,0.51
9256.00,0.51
9255.00,0.51
9254.00,0.51
9253.00,0.51
9252.00,0.52
9251.00,0.52
9250.00,0.52
9249.00,0.52
9248.00,0.52
9247.00,0.53
9246.00,0.53
9245.00,0.53
9244.00,0.53
9243.00,0.53
9242.00,0.53
9241.00,0.53
9240.00,0.53
9239.00,0.53
9238.00,0.53
9237.00,0.53
9236.00,0.53
9235.00,0.53
9234.00,0.53
9233.00,0.53
9232.00,0.53
9231.00,0.54
9230.00,0.54
9229.00,0.54
9228.00,0.54
9227.00,0.54
9226.00,0.54
9225.00,0.55
9224.00,0.55
9223.00,0.55
9222.00,0.55
9221.00,0.55
9220.00,0.55
9219.00,0.55
9218.00,0.55
9217.00,0.55
9216.00,0.55
9215.00,0.55
9214.00,0.55
9213.00,0.55
9212.00,0.55
9211.00,0.55
9210.00,0.55
9209.00,0.55
9208.00,0.55
9207.00,0.55
9206.00,0.55
9205.00,0.55
9204.00,0.55
9203.00,0.55
9202.00,0.55
9201.00,0.55
9200.00,0.55
9199.00,0.55
9198.00,0.55
9197.00,0.55
9196.00,0.55
9195.00,0.54
9194.00,0.54
9193.00,0.54
9192.00,0.54
9191.00,0.53
9190.00,0.53
9189.00,0.53
9188.00,0.53
9187.00,0.52
9186.00,0.52
9185.00,0.52
9184.00,0.52
9183.00,0.52
9182.00,0.52
9181.00,0.52
9180.00,0.52
9179.00,0.52
9178.00,0.52
9177.00,0.52
9176.00,0.52
9175.00,0.52
9174.00,0.52
9173.00,0.52
9172.00,0.52
9171.00,0.52
9170.00,0.52
9169.00,0.53
9168.00,0.53
9167.00,0.53
9166.00,0.53
9165.00,0.53
9164.00,0.53
9163.00,0.53
9162.00,0.53
9161.00,0.53
9160.00,0.53
9159.00,0.53
9158.00,0.53
9157.00,0.53
9156.00,0.53
9155.00,0.53
9154.00,0.53
9153.00,0.54
9152.00,0.54
9151.00,0.54
9150.00,0.54
9149.00,0.54
9148.00,0.54
9147.00,0.54
9146.00,0.54
9145.00,0.54
9144.00,0.54
9143.00,0.54
9142.00,0.54
9141.00,0.54
9140.00,0.54
9139.00,0.54
9138.00,0.54
9137.00,0.54
9136.00,0.54
9135.00,0.53
9134.00,0.53
9133.00,0.53
9132.00,0.53
9131.00,0.53
9130.00,0.53
9129.00,0.53
9128.00,0.53
9127.00,0.53
9126.00,0.53
9125.00,0.53
9124.00,0.53
9123.00,0.53
9122.00,0.53
9121.00,0.53
9120.00,0.53
9119.00,0.53
9118.00,0.53
9117.00,0.53
9116.00,0.53
9115.00,0.53
9114.00,0.53
9113.00,0.53
9112.00,0.53
9111.00,0.54
9110.00,0.54
9109.00,0.54
9108.00,0.54
9107.00,0.54
9106.00,0.54
9105.00,0.54
9104.00,0.54
9103.00,0.54
9102.00,0.54
9101.00,0.54
9100.00,0.54
9099.00,0.54
9098.00,0.54
9097.00,0.54
9096.00,0.54
9095.00,0.55
9094.00,0.55
9093.00,0.55
9092.00,0.55
9091.00,0.55
9090.00,0.55
9089.00,0.55
9088.00,0.55
9087.00,0.55
9086.00,0.55
9085.00,0.55
9084.00,0.55
9083.00,0.55
9082.00,0.55
9081.00,0.55
9080.00,0.55
9079.00,0.55
9078.00,0.55
9077.00,0.55
9076.00,0.55
9075.00,0.55
9074.00,0.55
9073.00,0.55
9072.00,0.55
9071.00,0.55
9070.00,0.55
9069.00,0.55
9068.00,0.55
9067.00,0.55
9066.00,0.55
9065.00,0.54
9064.00,0.54
9063.00,0.54
9062.00,0.54
9061.00,0.54
9060.00,0.54
9059.00,0.54
9058.00,0.54
9057.00,0.53
9056.00,0.53
9055.00,0.53
9054.00,0.53
9053.00,0.53
9052.00,0.53
9051.00,0.53
9050.00,0.53
9049.00,0.53
9048.00,0.53
9047.00,0.53
9046.00,0.53
9045.00,0.53
9044.00,0.53
9043.00,0.53
9042.00,0.53
9041.00,0.53
9040.00,0.52
9039.00,0.52
9038.00,0.52
9037.00,0.52
9036.00,0.52
9035.00,0.52
9034.00,0.52
9033.00,0.52
9032.00,0.52
9031.00,0.52
9030.00,0.51
9029.00,0.51
9028.00,0.51
9027.00,0.51
9026.00,0.51
9025.00,0.51
9024.00,0.51
9023.00,0.51
9022.00,0.51
9021.00,0.52
9020.00,0.52
9019.00,0.52
9018.00,0.52
9017.00,0.52
9016.00,0.52
9015.00,0.52
9014.00,0.52
9013.00,0.52
9012.00,0.53
9011.00,0.53
9010.00,0.53
9009.00,0.53
9008.00,0.53
9007.00,0.53
9006.00,0.53
9005.00,0.53
9004.00,0.53
9003.00,0.54
9002.00,0.54
9001.00,0.54
9000.00,0.54
8999.00,0.54
8998.00,0.54
8997.00,0.54
8996.00,0.54
8995.00,0.54
8994.00,0.55
8993.00,0.55
8992.00,0.55
8991.00,0.55
8990.00,0.55
8989.00,0.55
8988.00,0.55
8987.00,0.55
8986.00,0.55
8985.00,0.55
8984.00,0.55
8983.00,0.55
8982.00,0.55
8981.00,0.55
8980.00,0.55
8979.00,0.55
8978.00,0.55
8977.00,0.55
8976.00,0.55
8975.00,0.54
8974.00,0.54
8973.00,0.54
8972.00,0.54
8971.00,0.54
8970.00,0.54
8969.00,0.54
8968.00,0.54
8967.00,0.53
8966.00,0.53
8965.00,0.53
8964.00,0.53
8963.00,0.53
8962.00,0.53
8961.00,0.53
8960.00,0.53
8959.00,0.53
8958.00,0.54
8957.00,0.54
8956.00,0.54
8955.00,0.54
8954.00,0.54
8953.00,0.54
8952.00,0.54
8951.00,0.54
8950.00,0.54
8949.00,0.54
8948.00,0.54
8947.00,0.54
8946.00,0.54
8945.00,0.54
8944.00,0.54
8943.00,0.54
8942.00,0.54
8941.00,0.54
8940.00,0.54
8939.00,0.54
8938.00,0.54
8937.00,0.54
8936.00,0.54
8935.00,0.54
8934.00,0.53
8933.00,0.53
8932.00,0.53
8931.00,0.53
8930.00,0.53
8929.00,0.53
8928.00,0.53
8927.00,0.53
8926.00,0.53
8925.00,0.53
8924.00,0.53
8923.00,0.53
8922.00,0.53
8921.00,0.53
8920.00,0.53
8919.00,0.53
8918.00,0.53
8917.00,0.53
8916.00,0.53
8915.00,0.53
8914.00,0.53
8913.00,0.53
8912.00,0.53
8911.00,0.53
8910.00,0.53
8909.00,0.53
8908.00,0.53
8907.00,0.54
8906.00,0.54
8905.00,0.54
8904.00,0.54
8903.00,0.54
8902.00,0.54
8901.00,0.54
8900.00,0.54
8899.00,0.54
8898.00,0.54
8897.00,0.54
8896.00,0.54
8895.00,0.54
8894.00,0.54
8893.00,0.54
8892.00,0.54
8891.00,0.54
8890.00,0.54
8889.00,0.54
8888.00,0.54
8887.00,0.54
8886.00,0.54
8885.00,0.54
8884.00,0.54
8883.00,0.54
8882.00,0.54
8881.00,0.54
8880.00,0.54
8879.00,0.54
8878.00,0.54
8877.00,0.54
8876.00,0.54
8875.00,0.54
8874.00,0.54
8873.00,0.54
8872.00,0.53
8871.00,0.53
8870.00,0.53
8869.00,0.53
8868.00,0.53
8867.00,0.53
8866.00,0.53
8865.00,0.53
8864.00,0.53
8863.00,0.53
8862.00,0.53
8861.00,0.53
8860.00,0.53
8859.00,0.53
8858.00,0.53
8857.00,0.53
8856.00,0.53
8855.00,0.53
8854.00,0.53
8853.00,0.53
8852.00,0.53
8851.00,0.53
8850.00,0.53
8849.00,0.53
8848.00,0.53
8847.00,0.53
8846.00,0.53
8845.00,0.53
8844.00,0.53
8843.00,0.53
8842.00,0.53
8841.00,0.53
8840.00,0.53
8839.00,0.54
8838.00,0.54
8837.00,0.54
8836.00,0.54
8835.00,0.54
8834.00,0.54
8833.00,0.54
8832.00,0.54
8831.00,0.54
8830.00,0.54
8829.00,0.54
8828.00,0.54
8827.00,0.54
8826.00,0.54
8825.00,0.54
8824.00,0.54
8823.00,0.54
8822.00,0.53
8821.00,0.53
8820.00,0.53
8819.00,0.53
8818.00,0.53
8817.00,0.53
8816.00,0.53
8815.00,0.53
8814.00,0.53
8813.00,0.53
8812.00,0.53
8811.00,0.53
8810.00,0.53
8809.00,0.53
8808.00,0.53
8807.00,0.53
8806.00,0.53
8805.00,0.53
8804.00,0.53
8803.00,0.53
8802.00,0.53
8801.00,0.53
8800.00,0.53
8799.00,0.53
8798.00,0.53
8797.00,0.53
8796.00,0.53
8795.00,0.53
8794.00,0.53
8793.00,0.53
8792.00,0.53
8791.00,0.53
8790.00,0.53
8789.00,0.53
8788.00,0.53
8787.00,0.53
8786.00,0.53
8785.00,0.53
8784.00,0.53
8783.00,0.53
8782.00,0.53
8781.00,0.53
8780.00,0.53
8779.00,0.53
8778.00,0.53
8777.00,0.53
8776.00,0.53
8775.00,0.53
8774.00,0.54
8773.00,0.54
8772.00,0.54
8771.00,0.54
8770.00,0.54
8769.00,0.54
8768.00,0.54
8767.00,0.54
8766.00,0.54
8765.00,0.54
8764.00,0.54
8763.00,0.54
8762.00,0.53
8761.00,0.53
8760.00,0.53
8759.00,0.53
8758.00,0.53
8757.00,0.53
8756.00,0.53
8755.00,0.53
8754.00,0.53
8753.00,0.53
8752.00,0.53
8751.00,0.53
8750.00,0.53
8749.00,0.52
8748.00,0.52
8747.00,0.52
8746.00,0.52
8745.00,0.52
8744.00,0.52
8743.00,0.52
8742.00,0.52
8741.00,0.52
8740.00,0.51
8739.00,0.51
8738.00,0.51
8737.00,0.51
8736.00,0.51
8735.00,0.51
8734.00,0.51
8733.00,0.51
8732.00,0.51
8731.00,0.51
8730.00,0.51
8729.00,0.51
8728.00,0.51
8727.00,0.51
8726.00,0.51
8725.00,0.51
8724.00,0.51
8723.00,0.51
8722.00,0.52
8721.00,0.52
8720.00,0.52
8719.00,0.52
8718.00,0.52
8717.00,0.52
8716.00,0.52
8715.00,0.52
8714.00,0.52
8713.00,0.52
8712.00,0.52
8711.00,0.52
8710.00,0.52
8709.00,0.52
8708.00,0.52
8707.00,0.52
8706.00,0.52
8705.00,0.52
8704.00,0.52
8703.00,0.52
8702.00,0.52
8701.00,0.52
8700.00,0.52
8699.00,0.52
8698.00,0.52
8697.00,0.52
8696.00,0.52
8695.00,0.52
8694.00,0.52
8693.00,0.52
8692.00,0.52
8691.00,0.52
8690.00,0.52
8689.00,0.52
8688.00,0.52
8687.00,0.52
8686.00,0.52
8685.00,0.52
8684.00,0.52
8683.00,0.52
8682.00,0.52
8681.00,0.52
8680.00,0.52
8679.00,0.51
8678.00,0.51
8677.00,0.51
8676.00,0.51
8675.00,0.51
8674.00,0.51
8673.00,0.51
8672.00,0.51
8671.00,0.51
8670.00,0.51
8669.00,0.51
8668.00,0.51
8667.00,0.51
8666.00,0.51
8665.00,0.51
8664.00,0.51
8663.00,0.51
8662.00,0.51
8661.00,0.51
8660.00,0.51
8659.00,0.51
8658.00,0.51
8657.00,0.51
8656.00,0.50
8655.00,0.50
8654.00,0.50
8653.00,0.50
8652.00,0.50
8651.00,0.50
8650.00,0.50
8649.00,0.50
8648.00,0.50
8647.00,0.50
8646.00,0.50
8645.00,0.50
8644.00,0.50
8643.00,0.50
8642.00,0.50
8641.00,0.50
8640.00,0.50
8639.00,0.50
8638.00,0.50
8637.00,0.50
8636.00,0.50
8635.00,0.50
8634.00,0.50
8633.00,0.50
8632.00,0.50
8631.00,0.50
8630.00,0.50
8629.00,0.50
8628.00,0.50
8627.00,0.50
8626.00,0.50
8625.00,0.50
8624.00,0.50
8623.00,0.50
8622.00,0.50
8621.00,0.50
8620.00,0.50
8619.00,0.50
8618.00,0.50
8617.00,0.50
8616.00,0.50
8615.00,0.50
8614.00,0.50
8613.00,0.50
8612.00,0.50
8611.00,0.50
8610.00,0.49
8609.00,0.49
8608.00,0.49
8607.00,0.49
8606.00,0.49
8605.00,0.49
8604.00,0.49
8603.00,0.50
8602.00,0.50
8601.00,0.50
8600.00,0.50
8599.00,0.50
8598.00,0.50
8597.00,0.50
8596.00,0.50
8595.00,0.50
8594.00,0.50
8593.00,0.50
8592.00,0.50
8591.00,0.50
8590.00,0.50
8589.00,0.50
8588.00,0.50
8587.00,0.50
8586.00,0.50
8585.00,0.50
8584.00,0.50
8583.00,0.50
8582.00,0.49
8581.00,0.49
8580.00,0.49
8579.00,0.49
8578.00,0.49
8577.00,0.49
8576.00,0.49
8575.00,0.49
8574.00,0.49
8573.00,0.49
8572.00,0.49
8571.00,0.49
8570.00,0.49
8569.00,0.49
8568.00,0.49
8567.00,0.49
8566.00,0.49
8565.00,0.49
8564.00,0.49
8563.00,0.49
8562.00,0.49
8561.00,0.49
8560.00,0.49
8559.00,0.49
8558.00,0.49
8557.00,0.49
8556.00,0.49
8555.00,0.49
8554.00,0.49
8553.00,0.49
8552.00,0.49
8551.00,0.49
8550.00,0.49
8549.00,0.49
8548.00,0.49
8547.00,0.49
8546.00,0.49
8545.00,0.49
8544.00,0.49
8543.00,0.49
8542.00,0.49
8541.00,0.49
8540.00,0.49
8539.00,0.49
8538.00,0.49
8537.00,0.49
8536.00,0.49
8535.00,0.49
8534.00,0.49
8533.00,0.49
8532.00,0.49
8531.00,0.49
8530.00,0.49
8529.00,0.49
8528.00,0.49
8527.00,0.49
8526.00,0.49
8525.00,0.49
8524.00,0.49
8523.00,0.49
8522.00,0.49
8521.00,0.49
8520.00,0.49
8519.00,0.49
8518.00,0.49
8517.00,0.49
8516.00,0.49
8515.00,0.49
8514.00,0.49
8513.00,0.49
8512.00,0.49
8511.00,0.49
8510.00,0.49
8509.00,0.49
8508.00,0.49
8507.00,0.49
8506.00,0.49
8505.00,0.49
8504.00,0.49
8503.00,0.50
8502.00,0.50
8501.00,0.50
8500.00,0.50
8499.00,0.50
8498.00,0.50
8497.00,0.50
8496.00,0.50
8495.00,0.49
8494.00,0.49
8493.00,0.49
8492.00,0.49
8491.00,0.49
8490.00,0.49
8489.00,0.49
8488.00,0.49
8487.00,0.49
8486.00,0.48
8485.00,0.48
8484.00,0.48
8483.00,0.48
8482.00,0.48
8481.00,0.48
8480.00,0.48
8479.00,0.48
8478.00,0.48
8477.00,0.48
8476.00,0.48
8475.00,0.47
8474.00,0.47
8473.00,0.47
8472.00,0.47
8471.00,0.47
8470.00,0.47
8469.00,0.47
8468.00,0.47
8467.00,0.47
8466.00,0.47
8465.00,0.47
8464.00,0.47
8463.00,0.47
8462.00,0.47
8461.00,0.47
8460.00,0.47
8459.00,0.47
8458.00,0.47
8457.00,0.47
8456.00,0.47
8455.00,0.47
8454.00,0.47
8453.00,0.47
8452.00,0.47
8451.00,0.47
8450.00,0.47
8449.00,0.47
8448.00,0.47
8447.00,0.47
8446.00,0.47
8445.00,0.47
8444.00,0.47
8443.00,0.47
8442.00,0.47
8441.00,0.47
8440.00,0.46
8439.00,0.46
8438.00,0.46
8437.00,0.46
8436.00,0.46
8435.00,0.46
8434.00,0.46
8433.00,0.46
8432.00,0.46
8431.00,0.46
8430.00,0.46
8429.00,0.46
8428.00,0.46
8427.00,0.46
8426.00,0.46
8425.00,0.46
8424.00,0.46
8423.00,0.47
8422.00,0.47
8421.00,0.47
8420.00,0.47
8419.00,0.47
8418.00,0.47
8417.00,0.47
8416.00,0.47
8415.00,0.47
8414.00,0.47
8413.00,0.47
8412.00,0.48
8411.00,0.48
8410.00,0.48
8409.00,0.48
8408.00,0.48
8407.00,0.48
8406.00,0.48
8405.00,0.48
8404.00,0.48
8403.00,0.48
8402.00,0.48
8401.00,0.48
8400.00,0.48
8399.00,0.48
8398.00,0.48
8397.00,0.48
8396.00,0.48
8395.00,0.48
8394.00,0.48
8393.00,0.48
8392.00,0.48
8391.00,0.48
8390.00,0.48
8389.00,0.48
8388.00,0.48
8387.00,0.48
8386.00,0.48
8385.00,0.48
8384.00,0.48
8383.00,0.48
8382.00,0.48
8381.00,0.48
8380.00,0.48
8379.00,0.48
8378.00,0.48
8377.00,0.49
8376.00,0.49
8375.00,0.49
8374.00,0.49
8373.00,0.49
8372.00,0.49
8371.00,0.49
8370.00,0.49
8369.00,0.49
8368.00,0.49
8367.00,0.49
8366.00,0.49
8365.00,0.49
8364.00,0.49
8363.00,0.49
8362.00,0.49
8361.00,0.49
8360.00,0.49
8359.00,0.49
8358.00,0.49
8357.00,0.49
8356.00,0.49
8355.00,0.49
8354.00,0.49
8353.00,0.48
8352.00,0.48
8351.00,0.48
8350.00,0.48
8349.00,0.48
8348.00,0.48
8347.00,0.48
8346.00,0.48
8345.00,0.48
8344.00,0.47
8343.00,0.47
8342.00,0.47
8341.00,0.47
8340.00,0.47
8339.00,0.47
8338.00,0.47
8337.00,0.47
8336.00,0.48
8335.00,0.48
8334.00,0.48
8333.00,0.48
8332.00,0.48
8331.00,0.48
8330.00,0.48
8329.00,0.48
8328.00,0.49
8327.00,0.49
8326.00,0.49
8325.00,0.49
8324.00,0.49
8323.00,0.49
8322.00,0.49
8321.00,0.49
8320.00,0.49
8319.00,0.49
8318.00,0.49
8317.00,0.49
8316.00,0.49
8315.00,0.49
8314.00,0.49
8313.00,0.49
8312.00,0.49
8311.00,0.49
8310.00,0.49
8309.00,0.49
8308.00,0.49
8307.00,0.49
8306.00,0.49
8305.00,0.49
8304.00,0.49
8303.00,0.49
8302.00,0.49
8301.00,0.49
8300.00,0.49
8299.00,0.49
8298.00,0.49
8297.00,0.49
8296.00,0.49
8295.00,0.49
8294.00,0.49
8293.00,0.49
8292.00,0.49
8291.00,0.49
8290.00,0.49
8289.00,0.49
8288.00,0.49
8287.00,0.49
8286.00,0.49
8285.00,0.49
8284.00,0.49
8283.00,0.49
8282.00,0.49
8281.00,0.49
8280.00,0.49
8279.00,0.49
8278.00,0.49
8277.00,0.49
8276.00,0.49
8275.00,0.49
8274.00,0.49
8273.00,0.49
8272.00,0.49
8271.00,0.49
8270.00,0.49
8269.00,0.49
8268.00,0.49
8267.00,0.49
8266.00,0.49
8265.00,0.49
8264.00,0.49
8263.00,0.49
8262.00,0.49
8261.00,0.49
8260.00,0.49
8259.00,0.49
8258.00,0.49
8257.00,0.49
8256.00,0.49
8255.00,0.49
8254.00,0.49
8253.00,0.49
8252.00,0.49
8251.00,0.49
8250.00,0.49
8249.00,0.50
8248.00,0.50
8247.00,0.50
8246.00,0.50
8245.00,0.50
8244.00,0.50
8243.00,0.50
8242.00,0.50
8241.00,0.50
8240.00,0.50
8239.00,0.50
8238.00,0.50
8237.00,0.50
8236.00,0.50
8235.00,0.50
8234.00,0.50
8233.00,0.50
8232.00,0.50
8231.00,0.50
8230.00,0.51
8229.00,0.51
8228.00,0.51
8227.00,0.51
8226.00,0.51
8225.00,0.51
8224.00,0.51
8223.00,0.51
8222.00,0.51
8221.00,0.51
8220.00,0.51
8219.00,0.51
8218.00,0.51
8217.00,0.51
8216.00,0.51
8215.00,0.51
8214.00,0.51
8213.00,0.51
8212.00,0.51
8211.00,0.51
8210.00,0.51
8209.00,0.51
8208.00,0.51
8207.00,0.51
8206.00,0.50
8205.00,0.50
8204.00,0.50
8203.00,0.50
8202.00,0.50
8201.00,0.50
8200.00,0.50
8199.00,0.50
8198.00,0.50
8197.00,0.50
8196.00,0.50
8195.00,0.50
8194.00,0.50
8193.00,0.50
8192.00,0.50
8191.00,0.50
8190.00,0.50
8189.00,0.50
8188.00,0.50
8187.00,0.50
8186.00,0.51
8185.00,0.51
8184.00,0.51
8183.00,0.51
8182.00,0.51
8181.00,0.51
8180.00,0.51
8179.00,0.51
8178.00,0.51
8177.00,0.51
8176.00,0.51
8175.00,0.51
8174.00,0.51
8173.00,0.51
8172.00,0.51
8171.00,0.51
8170.00,0.51
8169.00,0.51
8168.00,0.52
8167.00,0.52
8166.00,0.52
8165.00,0.52
8164.00,0.52
8163.00,0.52
8162.00,0.52
8161.00,0.52
8160.00,0.52
8159.00,0.52
8158.00,0.52
8157.00,0.52
8156.00,0.52
8155.00,0.52
8154.00,0.52
8153.00,0.52
8152.00,0.52
8151.00,0.52
8150.00,0.52
8149.00,0.52
8148.00,0.52
8147.00,0.52
8146.00,0.52
8145.00,0.52
8144.00,0.52
8143.00,0.52
8142.00,0.52
8141.00,0.52
8140.00,0.52
8139.00,0.52
8138.00,0.52
8137.00,0.52
8136.00,0.52
8135.00,0.53
8134.00,0.53
8133.00,0.53
8132.00,0.53
8131.00,0.53
8130.00,0.53
8129.00,0.53
8128.00,0.53
8127.00,0.52
8126.00,0.52
8125.00,0.52
8124.00,0.52
8123.00,0.52
8122.00,0.52
8121.00,0.52
8120.00,0.52
8119.00,0.52
8118.00,0.52
8117.00,0.52
8116.00,0.51
8115.00,0.51
8114.00,0.51
8113.00,0.51
8112.00,0.51
8111.00,0.51
8110.00,0.51
8109.00,0.51
8108.00,0.51
8107.00,0.51
8106.00,0.51
8105.00,0.51
8104.00,0.51
8103.00,0.51
8102.00,0.51
8101.00,0.51
8100.00,0.51
8099.00,0.51
8098.00,0.51
8097.00,0.51
8096.00,0.51
8095.00,0.51
8094.00,0.51
8093.00,0.51
8092.00,0.52
8091.00,0.52
8090.00,0.52
8089.00,0.52
8088.00,0.52
8087.00,0.52
8086.00,0.52
8085.00,0.52
8084.00,0.52
8083.00,0.52
8082.00,0.52
8081.00,0.52
8080.00,0.52
8079.00,0.52
8078.00,0.52
8077.00,0.52
8076.00,0.52
8075.00,0.53
8074.00,0.53
8073.00,0.53
8072.00,0.53
8071.00,0.53
8070.00,0.53
8069.00,0.53
8068.00,0.53
8067.00,0.53
8066.00,0.53
8065.00,0.53
8064.00,0.53
8063.00,0.53
8062.00,0.53
8061.00,0.53
8060.00,0.53
8059.00,0.54
8058.00,0.54
8057.00,0.54
8056.00,0.54
8055.00,0.54
8054.00,0.54
8053.00,0.54
8052.00,0.54
8051.00,0.54
8050.00,0.54
8049.00,0.54
8048.00,0.54
8047.00,0.54
8046.00,0.54
8045.00,0.54
8044.00,0.53
8043.00,0.53
8042.00,0.53
8041.00,0.53
8040.00,0.53
8039.00,0.53
8038.00,0.53
8037.00,0.53
8036.00,0.53
8035.00,0.53
8034.00,0.53
8033.00,0.53
8032.00,0.53
8031.00,0.53
8030.00,0.53
8029.00,0.53
8028.00,0.53
8027.00,0.53
8026.00,0.53
8025.00,0.53
8024.00,0.53
8023.00,0.53
8022.00,0.53
8021.00,0.53
8020.00,0.53
8019.00,0.53
8018.00,0.53
8017.00,0.53
8016.00,0.53
8015.00,0.53
8014.00,0.53
8013.00,0.53
8012.00,0.53
8011.00,0.52
8010.00,0.52
8009.00,0.52
8008.00,0.52
8007.00,0.52
8006.00,0.52
8005.00,0.52
8004.00,0.52
8003.00,0.53
8002.00,0.53
8001.00,0.53
8000.00,0.53
7999.00,0.53
7998.00,0.53
7997.00,0.53
7996.00,0.53
7995.00,0.53
7994.00,0.53
7993.00,0.53
7992.00,0.53
7991.00,0.53
7990.00,0.53
7989.00,0.53
7988.00,0.53
7987.00,0.53
7986.00,0.53
7985.00,0.53
7984.00,0.53
7983.00,0.53
7982.00,0.53
7981.00,0.53
7980.00,0.53
7979.00,0.53
7978.00,0.53
7977.00,0.53
7976.00,0.53
7975.00,0.53
7974.00,0.53
7973.00,0.53
7972.00,0.53
7971.00,0.53
7970.00,0.53
7969.00,0.53
7968.00,0.53
7967.00,0.53
7966.00,0.53
7965.00,0.53
7964.00,0.53
7963.00,0.53
7962.00,0.53
7961.00,0.53
7960.00,0.53
7959.00,0.53
7958.00,0.53
7957.00,0.53
7956.00,0.53
7955.00,0.53
7954.00,0.53
7953.00,0.53
7952.00,0.53
7951.00,0.53
7950.00,0.53
7949.00,0.53
7948.00,0.53
7947.00,0.53
7946.00,0.53
7945.00,0.53
7944.00,0.53
7943.00,0.53
7942.00,0.53
7941.00,0.53
7940.00,0.53
7939.00,0.53
7938.00,0.53
7937.00,0.53
7936.00,0.53
7935.00,0.53
7934.00,0.53
7933.00,0.53
7932.00,0.53
7931.00,0.53
7930.00,0.53
7929.00,0.53
7928.00,0.53
7927.00,0.53
7926.00,0.53
7925.00,0.53
7924.00,0.53
7923.00,0.53
7922.00,0.53
7921.00,0.53
7920.00,0.53
7919.00,0.53
7918.00,0.53
7917.00,0.53
7916.00,0.53
7915.00,0.53
7914.00,0.53
7913.00,0.53
7912.00,0.53
7911.00,0.53
7910.00,0.53
7909.00,0.53
7908.00,0.53
7907.00,0.53
7906.00,0.53
7905.00,0.53
7904.00,0.53
7903.00,0.53
7902.00,0.53
7901.00,0.53
7900.00,0.53
7899.00,0.53
7898.00,0.53
7897.00,0.53
7896.00,0.53
7895.00,0.54
7894.00,0.54
7893.00,0.54
7892.00,0.54
7891.00,0.54
7890.00,0.54
7889.00,0.54
7888.00,0.54
7887.00,0.54
7886.00,0.54
7885.00,0.54
7884.00,0.54
7883.00,0.54
7882.00,0.54
7881.00,0.54
7880.00,0.54
7879.00,0.54
7878.00,0.54
7877.00,0.54
7876.00,0.54
7875.00,0.54
7874.00,0.54
7873.00,0.54
7872.00,0.54
7871.00,0.54
7870.00,0.54
7869.00,0.54
7868.00,0.54
7867.00,0.54
7866.00,0.54
7865.00,0.54
7864.00,0.54
7863.00,0.54
7862.00,0.54
7861.00,0.54
7860.00,0.54
7859.00,0.54
7858.00,0.54
7857.00,0.54
7856.00,0.54
7855.00,0.54
7854.00,0.54
7853.00,0.54
7852.00,0.54
7851.00,0.54
7850.00,0.54
7849.00,0.54
7848.00,0.54
7847.00,0.54
7846.00,0.54
7845.00,0.54
7844.00,0.54
7843.00,0.54
7842.00,0.54
7841.00,0.54
7840.00,0.54
7839.00,0.54
7838.00,0.54
7837.00,0.54
7836.00,0.54
7835.00,0.54
7834.00,0.54
7833.00,0.54
7832.00,0.54
7831.00,0.54
7830.00,0.54
7829.00,0.54
7828.00,0.54
7827.00,0.54
7826.00,0.54
7825.00,0.54
7824.00,0.54
7823.00,0.54
7822.00,0.54
7821.00,0.54
7820.00,0.54
7819.00,0.54
7818.00,0.54
7817.00,0.54
7816.00,0.54
7815.00,0.54
7814.00,0.54
7813.00,0.54
7812.00,0.54
7811.00,0.54
7810.00,0.54
7809.00,0.54
7808.00,0.54
7807.00,0.54
7806.00,0.54
7805.00,0.54
7804.00,0.54
7803.00,0.54
7802.00,0.54
7801.00,0.54
7800.00,0.54
7799.00,0.54
7798.00,0.54
7797.00,0.54
7796.00,0.55
7795.00,0.55
7794.00,0.55
7793.00,0.55
7792.00,0.55
7791.00,0.55
7790.00,0.55
7789.00,0.55
7788.00,0.55
7787.00,0.55
7786.00,0.55
7785.00,0.55
7784.00,0.55
7783.00,0.55
7782.00,0.55
7781.00,0.55
7780.00,0.55
7779.00,0.55
7778.00,0.55
7777.00,0.55
7776.00,0.55
7775.00,0.55
7774.00,0.55
7773.00,0.55
7772.00,0.55
7771.00,0.55
7770.00,0.55
7769.00,0.55
7768.00,0.55
7767.00,0.55
7766.00,0.55
7765.00,0.55
7764.00,0.55
7763.00,0.55
7762.00,0.55
7761.00,0.55
7760.00,0.54
7759.00,0.54
7758.00,0.54
7757.00,0.55
7756.00,0.55
7755.00,0.55
7754.00,0.55
7753.00,0.55
7752.00,0.55
7751.00,0.55
7750.00,0.55
7749.00,0.55
7748.00,0.55
7747.00,0.55
7746.00,0.55
7745.00,0.55
7744.00,0.55
7743.00,0.55
7742.00,0.55
7741.00,0.55
7740.00,0.55
7739.00,0.55
7738.00,0.55
7737.00,0.55
7736.00,0.55
7735.00,0.55
7734.00,0.55
7733.00,0.55
7732.00,0.54
7731.00,0.54
7730.00,0.54
7729.00,0.54
7728.00,0.54
7727.00,0.54
7726.00,0.54
7725.00,0.54
7724.00,0.54
7723.00,0.54
7722.00,0.54
7721.00,0.54
7720.00,0.54
7719.00,0.54
7718.00,0.54
7717.00,0.54
7716.00,0.54
7715.00,0.54
7714.00,0.54
7713.00,0.54
7712.00,0.54
7711.00,0.54
7710.00,0.54
7709.00,0.54
7708.00,0.54
7707.00,0.54
7706.00,0.54
7705.00,0.54
7704.00,0.54
7703.00,0.54
7702.00,0.54
7701.00,0.55
7700.00,0.55
7699.00,0.55
7698.00,0.55
7697.00,0.55
7696.00,0.55
7695.00,0.55
7694.00,0.55
7693.00,0.55
7692.00,0.55
7691.00,0.55
7690.00,0.55
7689.00,0.55
7688.00,0.55
7687.00,0.55
7686.00,0.55
7685.00,0.55
7684.00,0.55
7683.00,0.55
7682.00,0.55
7681.00,0.55
7680.00,0.55
7679.00,0.55
7678.00,0.55
7677.00,0.55
7676.00,0.55
7675.00,0.55
7674.00,0.55
7673.00,0.55
7672.00,0.55
7671.00,0.55
7670.00,0.55
7669.00,0.55
7668.00,0.55
7667.00,0.55
7666.00,0.55
7665.00,0.55
7664.00,0.55
7663.00,0.55
7662.00,0.55
7661.00,0.55
7660.00,0.55
7659.00,0.55
7658.00,0.55
7657.00,0.55
7656.00,0.55
7655.00,0.55
7654.00,0.55
7653.00,0.55
7652.00,0.55
7651.00,0.55
7650.00,0.55
7649.00,0.55
7648.00,0.55
7647.00,0.55
7646.00,0.55
7645.00,0.55
7644.00,0.55
7643.00,0.55
7642.00,0.55
7641.00,0.55
7640.00,0.55
7639.00,0.55
7638.00,0.55
7637.00,0.55
7636.00,0.55
7635.00,0.55
7634.00,0.55
7633.00,0.55
7632.00,0.55
7631.00,0.55
7630.00,0.55
7629.00,0.55
7628.00,0.55
7627.00,0.55
7626.00,0.55
7625.00,0.55
7624.00,0.55
7623.00,0.55
7622.00,0.55
7621.00,0.55
7620.00,0.55
7619.00,0.55
7618.00,0.55
7617.00,0.55
7616.00,0.55
7615.00,0.55
7614.00,0.55
7613.00,0.55
7612.00,0.55
7611.00,0.55
7610.00,0.55
7609.00,0.55
7608.00,0.55
7607.00,0.55
7606.00,0.55
7605.00,0.55
7604.00,0.55
7603.00,0.55
7602.00,0.55
7601.00,0.55
7600.00,0.55
7599.00,0.55
7598.00,0.55
7597.00,0.55
7596.00,0.55
7595.00,0.55
7594.00,0.55
7593.00,0.55
7592.00,0.54
7591.00,0.54
7590.00,0.54
7589.00,0.54
7588.00,0.54
7587.00,0.54
7586.00,0.54
7585.00,0.54
7584.00,0.54
7583.00,0.54
7582.00,0.54
7581.00,0.54
7580.00,0.54
7579.00,0.54
7578.00,0.54
7577.00,0.54
7576.00,0.54
7575.00,0.54
7574.00,0.54
7573.00,0.54
7572.00,0.54
7571.00,0.54
7570.00,0.54
7569.00,0.54
7568.00,0.55
7567.00,0.55
7566.00,0.55
7565.00,0.55
7564.00,0.55
7563.00,0.55
7562.00,0.55
7561.00,0.55
7560.00,0.55
7559.00,0.55
7558.00,0.55
7557.00,0.55
7556.00,0.55
7555.00,0.55
7554.00,0.54
7553.00,0.54
7552.00,0.54
7551.00,0.54
7550.00,0.54
7549.00,0.54
7548.00,0.54
7547.00,0.54
7546.00,0.54
7545.00,0.54
7544.00,0.54
7543.00,0.54
7542.00,0.54
7541.00,0.54
7540.00,0.54
7539.00,0.54
7538.00,0.54
7537.00,0.54
7536.00,0.54
7535.00,0.54
7534.00,0.54
7533.00,0.54
7532.00,0.54
7531.00,0.54
7530.00,0.54
7529.00,0.54
7528.00,0.54
7527.00,0.54
7526.00,0.54
7525.00,0.54
7524.00,0.54
7523.00,0.54
7522.00,0.54
7521.00,0.54
7520.00,0.54
7519.00,0.54
7518.00,0.54
7517.00,0.54
7516.00,0.54
7515.00,0.54
7514.00,0.54
7513.00,0.54
7512.00,0.54
7511.00,0.54
7510.00,0.54
7509.00,0.54
7508.00,0.54
7507.00,0.54
7506.00,0.54
7505.00,0.54
7504.00,0.54
7503.00,0.54
7502.00,0.54
7501.00,0.54
7500.00,0.54
7499.00,0.54
7498.00,0.54
7497.00,0.54
7496.00,0.54
7495.00,0.54
7494.00,0.54
7493.00,0.54
7492.00,0.53
7491.00,0.53
7490.00,0.53
7489.00,0.53
7488.00,0.53
7487.00,0.53
7486.00,0.53
7485.00,0.53
7484.00,0.53
7483.00,0.53
7482.00,0.53
7481.00,0.53
7480.00,0.53
7479.00,0.53
7478.00,0.53
7477.00,0.53
7476.00,0.53
7475.00,0.53
7474.00,0.53
7473.00,0.53
7472.00,0.53
7471.00,0.53
7470.00,0.53
7469.00,0.54
7468.00,0.54
7467.00,0.54
7466.00,0.54
7465.00,0.54
7464.00,0.54
7463.00,0.53
7462.00,0.53
7461.00,0.53
7460.00,0.53
7459.00,0.53
7458.00,0.53
7457.00,0.53
7456.00,0.53
7455.00,0.53
7454.00,0.53
7453.00,0.53
7452.00,0.53
7451.00,0.53
7450.00,0.53
7449.00,0.53
7448.00,0.53
7447.00,0.53
7446.00,0.53
7445.00,0.53
7444.00,0.53
7443.00,0.53
7442.00,0.53
7441.00,0.53
7440.00,0.53
7439.00,0.53
7438.00,0.53
7437.00,0.53
7436.00,0.53
7435.00,0.52
7434.00,0.52
7433.00,0.52
7432.00,0.52
7431.00,0.52
7430.00,0.52
7429.00,0.52
7428.00,0.52
7427.00,0.52
7426.00,0.52
7425.00,0.52
7424.00,0.52
7423.00,0.52
7422.00,0.52
7421.00,0.52
7420.00,0.52
7419.00,0.52
7418.00,0.52
7417.00,0.51
7416.00,0.51
7415.00,0.51
7414.00,0.51
7413.00,0.51
7412.00,0.51
7411.00,0.51
7410.00,0.51
7409.00,0.51
7408.00,0.51
7407.00,0.51
7406.00,0.51
7405.00,0.51
7404.00,0.51
7403.00,0.51
7402.00,0.51
7401.00,0.51
7400.00,0.51
7399.00,0.51
7398.00,0.51
7397.00,0.51
7396.00,0.51
7395.00,0.51
7394.00,0.51
7393.00,0.51
7392.00,0.51
7391.00,0.51
7390.00,0.51
7389.00,0.51
7388.00,0.51
7387.00,0.50
7386.00,0.50
7385.00,0.50
7384.00,0.50
7383.00,0.50
7382.00,0.50
7381.00,0.50
7380.00,0.50
7379.00,0.50
7378.00,0.50
7377.00,0.50
7376.00,0.50
7375.00,0.50
7374.00,0.50
7373.00,0.50
7372.00,0.50
7371.00,0.50
7370.00,0.50
7369.00,0.50
7368.00,0.50
7367.00,0.50
7366.00,0.50
7365.00,0.50
7364.00,0.50
7363.00,0.50
7362.00,0.50
7361.00,0.50
7360.00,0.50
7359.00,0.50
7358.00,0.50
7357.00,0.50
7356.00,0.50
7355.00,0.50
7354.00,0.50
7353.00,0.50
7352.00,0.50
7351.00,0.50
7350.00,0.50
7349.00,0.50
7348.00,0.50
7347.00,0.50
7346.00,0.50
7345.00,0.49
7344.00,0.49
7343.00,0.49
7342.00,0.49
7341.00,0.49
7340.00,0.49
7339.00,0.49
7338.00,0.49
7337.00,0.49
7336.00,0.49
7335.00,0.49
7334.00,0.49
7333.00,0.49
7332.00,0.49
7331.00,0.49
7330.00,0.49
7329.00,0.49
7328.00,0.49
7327.00,0.49
7326.00,0.49
7325.00,0.49
7324.00,0.49
7323.00,0.49
7322.00,0.49
7321.00,0.49
7320.00,0.49
7319.00,0.49
7318.00,0.49
7317.00,0.49
7316.00,0.49
7315.00,0.49
7314.00,0.49
7313.00,0.49
7312.00,0.49
7311.00,0.49
7310.00,0.49
7309.00,0.49
7308.00,0.49
7307.00,0.49
7306.00,0.49
7305.00,0.49
7304.00,0.49
7303.00,0.49
7302.00,0.49
7301.00,0.49
7300.00,0.49
7299.00,0.49
7298.00,0.49
7297.00,0.49
7296.00,0.49
7295.00,0.49
7294.00,0.49
7293.00,0.49
7292.00,0.49
7291.00,0.49
7290.00,0.49
7289.00,0.49
7288.00,0.49
7287.00,0.48
7286.00,0.48
7285.00,0.48
7284.00,0.48
7283.00,0.48
7282.00,0.48
7281.00,0.48
7280.00,0.48
7279.00,0.48
7278.00,0.48
7277.00,0.48
7276.00,0.48
7275.00,0.48
7274.00,0.48
7273.00,0.48
7272.00,0.48
7271.00,0.48
7270.00,0.48
7269.00,0.48
7268.00,0.48
7267.00,0.48
7266.00,0.48
7265.00,0.48
7264.00,0.47
7263.00,0.47
7262.00,0.47
7261.00,0.47
7260.00,0.47
7259.00,0.47
7258.00,0.47
7257.00,0.47
7256.00,0.47
7255.00,0.47
7254.00,0.47
7253.00,0.47
7252.00,0.47
7251.00,0.47
7250.00,0.46
7249.00,0.46
7248.00,0.46
7247.00,0.46
7246.00,0.46
7245.00,0.46
7244.00,0.46
7243.00,0.45
7242.00,0.45
7241.00,0.45
7240.00,0.45
7239.00,0.45
7238.00,0.45
7237.00,0.44
7236.00,0.44
7235.00,0.44
7234.00,0.44
7233.00,0.43
7232.00,0.43
7231.00,0.43
7230.00,0.43
7229.00,0.43
7228.00,0.42
7227.00,0.42
7226.00,0.42
7225.00,0.42
7224.00,0.42
7223.00,0.42
7222.00,0.42
7221.00,0.41
7220.00,0.41
7219.00,0.41
7218.00,0.41
7217.00,0.41
7216.00,0.41
7215.00,0.41
7214.00,0.41
7213.00,0.41
7212.00,0.41
7211.00,0.41
7210.00,0.41
7209.00,0.41
7208.00,0.41
7207.00,0.41
7206.00,0.41
7205.00,0.41
7204.00,0.40
7203.00,0.40
7202.00,0.40
7201.00,0.40
7200.00,0.40
7199.00,0.40
7198.00,0.40
7197.00,0.39
7196.00,0.39
7195.00,0.39
7194.00,0.39
7193.00,0.39
7192.00,0.39
7191.00,0.39
7190.00,0.38
7189.00,0.38
7188.00,0.38
7187.00,0.38
7186.00,0.38
7185.00,0.38
7184.00,0.38
7183.00,0.37
7182.00,0.37
7181.00,0.37
7180.00,0.37
7179.00,0.37
7178.00,0.37
7177.00,0.37
7176.00,0.37
7175.00,0.36
7174.00,0.36
7173.00,0.36
7172.00,0.36
7171.00,0.36
7170.00,0.36
7169.00,0.36
7168.00,0.36
7167.00,0.36
7166.00,0.36
7165.00,0.36
7164.00,0.36
7163.00,0.35
7162.00,0.35
7161.00,0.35
7160.00,0.35
7159.00,0.35
7158.00,0.35
7157.00,0.35
7156.00,0.35
7155.00,0.35
7154.00,0.35
7153.00,0.34
7152.00,0.34
7151.00,0.34
7150.00,0.34
7149.00,0.34
7148.00,0.34
7147.00,0.33
7146.00,0.33
7145.00,0.33
7144.00,0.33
7143.00,0.33
7142.00,0.32
7141.00,0.32
7140.00,0.32
7139.00,0.32
7138.00,0.32
7137.00,0.32
7136.00,0.32
7135.00,0.31
7134.00,0.31
7133.00,0.31
7132.00,0.31
7131.00,0.31
7130.00,0.31
7129.00,0.31
7128.00,0.31
7127.00,0.31
7126.00,0.31
7125.00,0.31
7124.00,0.31
7123.00,0.31
7122.00,0.31
7121.00,0.31
7120.00,0.31
7119.00,0.30
7118.00,0.30
7117.00,0.30
7116.00,0.30
7115.00,0.30
7114.00,0.30
7113.00,0.30
7112.00,0.30
7111.00,0.30
7110.00,0.30
7109.00,0.29
7108.00,0.29
7107.00,0.29
7106.00,0.29
7105.00,0.29
7104.00,0.29
7103.00,0.29
7102.00,0.29
7101.00,0.29
7100.00,0.29
7099.00,0.28
7098.00,0.28
7097.00,0.28
7096.00,0.28
7095.00,0.28
7094.00,0.28
7093.00,0.28
7092.00,0.28
7091.00,0.28
7090.00,0.28
7089.00,0.28
7088.00,0.28
7087.00,0.28
7086.00,0.28
7085.00,0.28
7084.00,0.28
7083.00,0.28
7082.00,0.28
7081.00,0.28
7080.00,0.27
7079.00,0.27
7078.00,0.27
7077.00,0.27
7076.00,0.27
7075.00,0.27
7074.00,0.27
7073.00,0.27
7072.00,0.27
7071.00,0.27
7070.00,0.27
7069.00,0.27
7068.00,0.27
7067.00,0.26
7066.00,0.26
7065.00,0.26
7064.00,0.26
7063.00,0.26
7062.00,0.26
7061.00,0.26
7060.00,0.26
7059.00,0.26
7058.00,0.26
7057.00,0.26
7056.00,0.26
7055.00,0.26
7054.00,0.26
7053.00,0.26
7052.00,0.26
7051.00,0.26
7050.00,0.26
7049.00,0.26
7048.00,0.26
7047.00,0.26
7046.00,0.26
7045.00,0.26
7044.00,0.25
7043.00,0.25
7042.00,0.25
7041.00,0.25
7040.00,0.25
7039.00,0.25
7038.00,0.25
7037.00,0.25
7036.00,0.25
7035.00,0.25
7034.00,0.25
7033.00,0.25
7032.00,0.25
7031.00,0.25
7030.00,0.25
7029.00,0.25
7028.00,0.25
7027.00,0.25
7026.00,0.25
7025.00,0.25
7024.00,0.25
7023.00,0.25
7022.00,0.25
7021.00,0.25
7020.00,0.25
7019.00,0.25
7018.00,0.25
7017.00,0.25
7016.00,0.25
7015.00,0.24
7014.00,0.24
7013.00,0.24
7012.00,0.24
7011.00,0.24
7010.00,0.24
7009.00,0.24
7008.00,0.24
7007.00,0.24
7006.00,0.24
7005.00,0.24
7004.00,0.24
7003.00,0.24
7002.00,0.24
7001.00,0.24
7000.00,0.24
6999.00,0.24
6998.00,0.24
6997.00,0.24
6996.00,0.24
6995.00,0.24
6994.00,0.24
6993.00,0.23
6992.00,0.23
6991.00,0.23
6990.00,0.23
6989.00,0.23
6988.00,0.23
6987.00,0.23
6986.00,0.23
6985.00,0.23
6984.00,0.23
6983.00,0.23
6982.00,0.23
6981.00,0.23
6980.00,0.23
6979.00,0.23
6978.00,0.23
6977.00,0.23
6976.00,0.23
6975.00,0.23
6974.00,0.23
6973.00,0.23
6972.00,0.23
6971.00,0.23
6970.00,0.23
6969.00,0.23
6968.00,0.23
6967.00,0.23
6966.00,0.23
6965.00,0.23
6964.00,0.23
6963.00,0.23
6962.00,0.23
6961.00,0.23
6960.00,0.23
6959.00,0.23
6958.00,0.23
6957.00,0.23
6956.00,0.23
6955.00,0.23
6954.00,0.23
6953.00,0.23
6952.00,0.23
6951.00,0.23
6950.00,0.23
6949.00,0.23
6948.00,0.23
6947.00,0.23
6946.00,0.23
6945.00,0.23
6944.00,0.23
6943.00,0.23
6942.00,0.23
6941.00,0.23
6940.00,0.23
6939.00,0.23
6938.00,0.23
6937.00,0.23
6936.00,0.23
6935.00,0.23
6934.00,0.23
6933.00,0.23
6932.00,0.23
6931.00,0.23
6930.00,0.23
6929.00,0.23
6928.00,0.23
6927.00,0.23
6926.00,0.23
6925.00,0.23
6924.00,0.23
6923.00,0.23
6922.00,0.23
6921.00,0.23
6920.00,0.23
6919.00,0.23
6918.00,0.23
6917.00,0.23
6916.00,0.23
6915.00,0.23
6914.00,0.23
6913.00,0.23
6912.00,0.23
6911.00,0.23
6910.00,0.23
6909.00,0.23
6908.00,0.23
6907.00,0.23
6906.00,0.23
6905.00,0.23
6904.00,0.23
6903.00,0.22
6902.00,0.22
6901.00,0.22
6900.00,0.22
6899.00,0.22
6898.00,0.22
6897.00,0.22
6896.00,0.22
6895.00,0.22
6894.00,0.22
6893.00,0.22
6892.00,0.22
6891.00,0.22
6890.00,0.22
6889.00,0.22
6888.00,0.22
6887.00,0.22
6886.00,0.22
6885.00,0.22
6884.00,0.22
6883.00,0.22
6882.00,0.22
6881.00,0.22
6880.00,0.22
6879.00,0.22
6878.00,0.22
6877.00,0.22
6876.00,0.22
6875.00,0.22
6874.00,0.22
6873.00,0.22
6872.00,0.22
6871.00,0.22
6870.00,0.22
6869.00,0.22
6868.00,0.22
6867.00,0.22
6866.00,0.22
6865.00,0.22
6864.00,0.22
6863.00,0.22
6862.00,0.22
6861.00,0.22
6860.00,0.22
6859.00,0.22
6858.00,0.22
6857.00,0.22
6856.00,0.22
6855.00,0.22
6854.00,0.22
6853.00,0.23
6852.00,0.23
6851.00,0.23
6850.00,0.23
6849.00,0.23
6848.00,0.23
6847.00,0.23
6846.00,0.23
6845.00,0.23
6844.00,0.23
6843.00,0.23
6842.00,0.23
6841.00,0.23
6840.00,0.23
6839.00,0.23
6838.00,0.23
6837.00,0.23
6836.00,0.23
6835.00,0.23
6834.00,0.23
6833.00,0.23
6832.00,0.23
6831.00,0.23
6830.00,0.23
6829.00,0.23
6828.00,0.23
6827.00,0.23
6826.00,0.23
6825.00,0.23
6824.00,0.23
6823.00,0.23
6822.00,0.23
6821.00,0.23
6820.00,0.23
6819.00,0.23
6818.00,0.23
6817.00,0.23
6816.00,0.23
6815.00,0.23
6814.00,0.23
6813.00,0.23
6812.00,0.23
6811.00,0.23
6810.00,0.23
6809.00,0.23
6808.00,0.23
6807.00,0.23
6806.00,0.23
6805.00,0.23
6804.00,0.23
6803.00,0.23
6802.00,0.23
6801.00,0.23
6800.00,0.23
6799.00,0.23
6798.00,0.23
6797.00,0.23
6796.00,0.23
6795.00,0.23
6794.00,0.23
6793.00,0.23
6792.00,0.23
6791.00,0.23
6790.00,0.23
6789.00,0.23
6788.00,0.24
6787.00,0.24
6786.00,0.24
6785.00,0.24
6784.00,0.24
6783.00,0.24
6782.00,0.24
6781.00,0.24
6780.00,0.24
6779.00,0.24
6778.00,0.24
6777.00,0.24
6776.00,0.24
6775.00,0.24
6774.00,0.24
6773.00,0.24
6772.00,0.24
6771.00,0.24
6770.00,0.24
6769.00,0.24
6768.00,0.24
6767.00,0.24
6766.00,0.24
6765.00,0.24
6764.00,0.24
6763.00,0.24
6762.00,0.24
6761.00,0.24
6760.00,0.24
6759.00,0.24
6758.00,0.24
6757.00,0.24
6756.00,0.24
6755.00,0.24
6754.00,0.24
6753.00,0.24
6752.00,0.24
6751.00,0.24
6750.00,0.24
6749.00,0.24
6748.00,0.24
6747.00,0.24
6746.00,0.24
6745.00,0.24
6744.00,0.24
6743.00,0.24
6742.00,0.24
6741.00,0.24
6740.00,0.24
6739.00,0.24
6738.00,0.24
6737.00,0.24
6736.00,0.24
6735.00,0.24
6734.00,0.24
6733.00,0.24
6732.00,0.24
6731.00,0.24
6730.00,0.24
6729.00,0.25
6728.00,0.25
6727.00,0.25
6726.00,0.25
6725.00,0.25
6724.00,0.25
6723.00,0.25
6722.00,0.25
6721.00,0.25
6720.00,0.25
6719.00,0.25
6718.00,0.25
6717.00,0.25
6716.00,0.25
6715.00,0.25
6714.00,0.25
6713.00,0.25
6712.00,0.25
6711.00,0.25
6710.00,0.25
6709.00,0.25
6708.00,0.25
6707.00,0.25
6706.00,0.25
6705.00,0.25
6704.00,0.25
6703.00,0.25
6702.00,0.25
6701.00,0.26
6700.00,0.26
6699.00,0.26
6698.00,0.26
6697.00,0.26
6696.00,0.26
6695.00,0.26
6694.00,0.26
6693.00,0.26
6692.00,0.26
6691.00,0.26
6690.00,0.26
6689.00,0.26
6688.00,0.26
6687.00,0.26
6686.00,0.26
6685.00,0.26
6684.00,0.26
6683.00,0.26
6682.00,0.26
6681.00,0.26
6680.00,0.26
6679.00,0.26
6678.00,0.26
6677.00,0.26
6676.00,0.27
6675.00,0.27
6674.00,0.27
6673.00,0.27
6672.00,0.27
6671.00,0.27
6670.00,0.27
6669.00,0.27
6668.00,0.27
6667.00,0.27
6666.00,0.27
6665.00,0.27
6664.00,0.27
6663.00,0.27
6662.00,0.27
6661.00,0.27
6660.00,0.27
6659.00,0.27
6658.00,0.27
6657.00,0.27
6656.00,0.27
6655.00,0.27
6654.00,0.27
6653.00,0.27
6652.00,0.27
6651.00,0.27
6650.00,0.28
6649.00,0.28
6648.00,0.28
6647.00,0.28
6646.00,0.28
6645.00,0.28
6644.00,0.28
6643.00,0.28
6642.00,0.28
6641.00,0.28
6640.00,0.28
6639.00,0.28
6638.00,0.28
6637.00,0.28
6636.00,0.28
6635.00,0.28
6634.00,0.28
6633.00,0.28
6632.00,0.28
6631.00,0.29
6630.00,0.29
6629.00,0.29
6628.00,0.29
6627.00,0.29
6626.00,0.29
6625.00,0.29
6624.00,0.29
6623.00,0.29
6622.00,0.29
6621.00,0.29
6620.00,0.29
6619.00,0.29
6618.00,0.29
6617.00,0.29
6616.00,0.29
6615.00,0.29
6614.00,0.29
6613.00,0.29
6612.00,0.29
6611.00,0.29
6610.00,0.29
6609.00,0.29
6608.00,0.29
6607.00,0.29
6606.00,0.29
6605.00,0.29
6604.00,0.29
6603.00,0.29
6602.00,0.30
6601.00,0.30
6600.00,0.30
6599.00,0.30
6598.00,0.30
6597.00,0.30
6596.00,0.30
6595.00,0.30
6594.00,0.30
6593.00,0.30
6592.00,0.30
6591.00,0.30
6590.00,0.30
6589.00,0.30
6588.00,0.30
6587.00,0.30
6586.00,0.30
6585.00,0.30
6584.00,0.30
6583.00,0.30
6582.00,0.30
6581.00,0.30
6580.00,0.30
6579.00,0.31
6578.00,0.31
6577.00,0.31
6576.00,0.31
6575.00,0.31
6574.00,0.31
6573.00,0.31
6572.00,0.31
6571.00,0.31
6570.00,0.31
6569.00,0.31
6568.00,0.31
6567.00,0.31
6566.00,0.31
6565.00,0.31
6564.00,0.31
6563.00,0.31
6562.00,0.31
6561.00,0.31
6560.00,0.31
6559.00,0.31
6558.00,0.31
6557.00,0.31
6556.00,0.31
6555.00,0.31
6554.00,0.31
6553.00,0.31
6552.00,0.31
6551.00,0.31
6550.00,0.31
6549.00,0.31
6548.00,0.31
6547.00,0.31
6546.00,0.31
6545.00,0.31
6544.00,0.31
6543.00,0.31
6542.00,0.31
6541.00,0.31
6540.00,0.31
6539.00,0.31
6538.00,0.32
6537.00,0.32
6536.00,0.32
6535.00,0.32
6534.00,0.32
6533.00,0.32
6532.00,0.32
6531.00,0.32
6530.00,0.32
6529.00,0.32
6528.00,0.32
6527.00,0.32
6526.00,0.32
6525.00,0.32
6524.00,0.32
6523.00,0.32
6522.00,0.32
6521.00,0.33
6520.00,0.33
6519.00,0.33
6518.00,0.33
6517.00,0.33
6516.00,0.33
6515.00,0.33
6514.00,0.33
6513.00,0.33
6512.00,0.33
6511.00,0.33
6510.00,0.33
6509.00,0.33
6508.00,0.33
6507.00,0.33
6506.00,0.33
6505.00,0.33
6504.00,0.33
6503.00,0.33
6502.00,0.33
6501.00,0.33
6500.00,0.33
6499.00,0.33
6498.00,0.33
6497.00,0.33
6496.00,0.33
6495.00,0.33
6494.00,0.33
6493.00,0.33
6492.00,0.33
6491.00,0.33
6490.00,0.33
6489.00,0.33
6488.00,0.33
6487.00,0.33
6486.00,0.33
6485.00,0.33
6484.00,0.33
6483.00,0.33
6482.00,0.33
6481.00,0.33
6480.00,0.33
6479.00,0.34
6478.00,0.34
6477.00,0.34
6476.00,0.34
6475.00,0.34
6474.00,0.34
6473.00,0.34
6472.00,0.34
6471.00,0.34
6470.00,0.34
6469.00,0.34
6468.00,0.34
6467.00,0.34
6466.00,0.34
6465.00,0.34
6464.00,0.34
6463.00,0.34
6462.00,0.34
6461.00,0.34
6460.00,0.34
6459.00,0.34
6458.00,0.34
6457.00,0.34
6456.00,0.34
6455.00,0.34
6454.00,0.34
6453.00,0.34
6452.00,0.34
6451.00,0.34
6450.00,0.34
6449.00,0.34
6448.00,0.34
6447.00,0.34
6446.00,0.34
6445.00,0.34
6444.00,0.35
6443.00,0.35
6442.00,0.35
6441.00,0.35
6440.00,0.35
6439.00,0.35
6438.00,0.35
6437.00,0.35
6436.00,0.35
6435.00,0.35
6434.00,0.35
6433.00,0.35
6432.00,0.35
6431.00,0.35
6430.00,0.35
6429.00,0.35
6428.00,0.35
6427.00,0.35
6426.00,0.35
6425.00,0.35
6424.00,0.35
6423.00,0.35
6422.00,0.35
6421.00,0.35
6420.00,0.35
6419.00,0.35
6418.00,0.35
6417.00,0.35
6416.00,0.35
6415.00,0.36
6414.00,0.36
6413.00,0.36
6412.00,0.36
6411.00,0.36
6410.00,0.36
6409.00,0.36
6408.00,0.36
6407.00,0.36
6406.00,0.36
6405.00,0.36
6404.00,0.36
6403.00,0.35
6402.00,0.35
6401.00,0.35
6400.00,0.35
6399.00,0.35
6398.00,0.35
6397.00,0.35
6396.00,0.35
6395.00,0.36
6394.00,0.36
6393.00,0.36
6392.00,0.36
6391.00,0.36
6390.00,0.36
6389.00,0.36
6388.00,0.36
6387.00,0.36
6386.00,0.36
6385.00,0.36
6384.00,0.36
6383.00,0.36
6382.00,0.36
6381.00,0.36
6380.00,0.36
6379.00,0.36
6378.00,0.36
6377.00,0.36
6376.00,0.36
6375.00,0.36
6374.00,0.36
6373.00,0.36
6372.00,0.36
6371.00,0.36
6370.00,0.36
6369.00,0.36
6368.00,0.36
6367.00,0.36
6366.00,0.36
6365.00,0.36
6364.00,0.36
6363.00,0.37
6362.00,0.37
6361.00,0.37
6360.00,0.37
6359.00,0.37
6358.00,0.37
6357.00,0.37
6356.00,0.37
6355.00,0.37
6354.00,0.37
6353.00,0.37
6352.00,0.37
6351.00,0.37
6350.00,0.37
6349.00,0.37
6348.00,0.37
6347.00,0.37
6346.00,0.37
6345.00,0.37
6344.00,0.37
6343.00,0.37
6342.00,0.37
6341.00,0.37
6340.00,0.38
6339.00,0.38
6338.00,0.38
6337.00,0.38
6336.00,0.38
6335.00,0.38
6334.00,0.38
6333.00,0.38
6332.00,0.38
6331.00,0.38
6330.00,0.38
6329.00,0.38
6328.00,0.38
6327.00,0.38
6326.00,0.38
6325.00,0.38
6324.00,0.38
6323.00,0.38
6322.00,0.38
6321.00,0.38
6320.00,0.38
6319.00,0.38
6318.00,0.38
6317.00,0.38
6316.00,0.38
6315.00,0.38
6314.00,0.38
6313.00,0.38
6312.00,0.38
6311.00,0.38
6310.00,0.38
6309.00,0.39
6308.00,0.39
6307.00,0.39
6306.00,0.39
6305.00,0.39
6304.00,0.39
6303.00,0.39
6302.00,0.39
6301.00,0.39
6300.00,0.39
6299.00,0.39
6298.00,0.39
6297.00,0.39
6296.00,0.39
6295.00,0.40
6294.00,0.40
6293.00,0.40
6292.00,0.40
6291.00,0.40
6290.00,0.40
6289.00,0.40
6288.00,0.40
6287.00,0.40
6286.00,0.40
6285.00,0.40
6284.00,0.40
6283.00,0.40
6282.00,0.40
6281.00,0.40
6280.00,0.40
6279.00,0.40
6278.00,0.40
6277.00,0.40
6276.00,0.40
6275.00,0.40
6274.00,0.40
6273.00,0.40
6272.00,0.40
6271.00,0.40
6270.00,0.40
6269.00,0.40
6268.00,0.40
6267.00,0.40
6266.00,0.40
6265.00,0.40
6264.00,0.40
6263.00,0.41
6262.00,0.41
6261.00,0.41
6260.00,0.41
6259.00,0.41
6258.00,0.41
6257.00,0.41
6256.00,0.41
6255.00,0.41
6254.00,0.41
6253.00,0.41
6252.00,0.41
6251.00,0.41
6250.00,0.42
6249.00,0.42
6248.00,0.42
6247.00,0.42
6246.00,0.42
6245.00,0.42
6244.00,0.42
6243.00,0.42
6242.00,0.42
6241.00,0.42
6240.00,0.42
6239.00,0.42
6238.00,0.42
6237.00,0.42
6236.00,0.42
6235.00,0.42
6234.00,0.42
6233.00,0.42
6232.00,0.42
6231.00,0.42
6230.00,0.42
6229.00,0.42
6228.00,0.42
6227.00,0.42
6226.00,0.42
6225.00,0.42
6224.00,0.42
6223.00,0.43
6222.00,0.43
6221.00,0.43
6220.00,0.43
6219.00,0.43
6218.00,0.43
6217.00,0.43
6216.00,0.43
6215.00,0.43
6214.00,0.43
6213.00,0.43
6212.00,0.43
6211.00,0.43
6210.00,0.43
6209.00,0.44
6208.00,0.44
6207.00,0.44
6206.00,0.44
6205.00,0.44
6204.00,0.44
6203.00,0.44
6202.00,0.44
6201.00,0.44
6200.00,0.44
6199.00,0.44
6198.00,0.44
6197.00,0.44
6196.00,0.44
6195.00,0.44
6194.00,0.44
6193.00,0.44
6192.00,0.44
6191.00,0.44
6190.00,0.44
6189.00,0.45
6188.00,0.45
6187.00,0.45
6186.00,0.45
6185.00,0.45
6184.00,0.45
6183.00,0.45
6182.00,0.45
6181.00,0.45
6180.00,0.45
6179.00,0.45
6178.00,0.45
6177.00,0.45
6176.00,0.45
6175.00,0.45
6174.00,0.45
6173.00,0.46
6172.00,0.46
6171.00,0.46
6170.00,0.46
6169.00,0.46
6168.00,0.46
6167.00,0.46
6166.00,0.46
6165.00,0.46
6164.00,0.46
6163.00,0.46
6162.00,0.46
6161.00,0.46
6160.00,0.46
6159.00,0.46
6158.00,0.46
6157.00,0.46
6156.00,0.46
6155.00,0.47
6154.00,0.47
6153.00,0.47
6152.00,0.47
6151.00,0.47
6150.00,0.47
6149.00,0.47
6148.00,0.47
6147.00,0.47
6146.00,0.47
6145.00,0.47
6144.00,0.47
6143.00,0.47
6142.00,0.47
6141.00,0.47
6140.00,0.47
6139.00,0.47
6138.00,0.47
6137.00,0.47
6136.00,0.47
6135.00,0.48
6134.00,0.48
6133.00,0.48
6132.00,0.48
6131.00,0.48
6130.00,0.48
6129.00,0.48
6128.00,0.48
6127.00,0.48
6126.00,0.48
6125.00,0.48
6124.00,0.48
6123.00,0.48
6122.00,0.48
6121.00,0.48
6120.00,0.48
6119.00,0.48
6118.00,0.48
6117.00,0.48
6116.00,0.48
6115.00,0.49
6114.00,0.49
6113.00,0.49
6112.00,0.49
6111.00,0.49
6110.00,0.49
6109.00,0.49
6108.00,0.49
6107.00,0.49
6106.00,0.49
6105.00,0.49
6104.00,0.49
6103.00,0.49
6102.00,0.49
6101.00,0.49
6100.00,0.50
6099.00,0.50
6098.00,0.50
6097.00,0.50
6096.00,0.50
6095.00,0.50
6094.00,0.50
6093.00,0.50
6092.00,0.50
6091.00,0.50
6090.00,0.50
6089.00,0.50
6088.00,0.50
6087.00,0.50
6086.00,0.50
6085.00,0.51
6084.00,0.51
6083.00,0.51
6082.00,0.51
6081.00,0.51
6080.00,0.51
6079.00,0.51
6078.00,0.51
6077.00,0.51
6076.00,0.51
6075.00,0.51
6074.00,0.51
6073.00,0.51
6072.00,0.51
6071.00,0.51
6070.00,0.51
6069.00,0.51
6068.00,0.51
6067.00,0.51
6066.00,0.51
6065.00,0.51
6064.00,0.51
6063.00,0.51
6062.00,0.51
6061.00,0.52
6060.00,0.52
6059.00,0.52
6058.00,0.52
6057.00,0.52
6056.00,0.52
6055.00,0.52
6054.00,0.52
6053.00,0.52
6052.00,0.52
6051.00,0.52
6050.00,0.52
6049.00,0.52
6048.00,0.52
6047.00,0.52
6046.00,0.52
6045.00,0.52
6044.00,0.52
6043.00,0.52
6042.00,0.52
6041.00,0.52
6040.00,0.52
6039.00,0.52
6038.00,0.52
6037.00,0.52
6036.00,0.52
6035.00,0.52
6034.00,0.52
6033.00,0.52
6032.00,0.52
6031.00,0.53
6030.00,0.53
6029.00,0.53
6028.00,0.53
6027.00,0.53
6026.00,0.53
6025.00,0.53
6024.00,0.53
6023.00,0.53
6022.00,0.53
6021.00,0.53
6020.00,0.53
6019.00,0.53
6018.00,0.52
6017.00,0.52
6016.00,0.52
6015.00,0.52
6014.00,0.52
6013.00,0.52
6012.00,0.52
6011.00,0.52
6010.00,0.52
6009.00,0.52
6008.00,0.52
6007.00,0.52
6006.00,0.52
6005.00,0.52
6004.00,0.52
6003.00,0.52
6002.00,0.52
6001.00,0.52
6000.00,0.52
5999.00,0.52
5998.00,0.52
5997.00,0.52
5996.00,0.52
5995.00,0.52
5994.00,0.52
5993.00,0.52
5992.00,0.52
5991.00,0.52
5990.00,0.52
5989.00,0.52
5988.00,0.52
5987.00,0.51
5986.00,0.51
5985.00,0.51
5984.00,0.51
5983.00,0.51
5982.00,0.51
5981.00,0.51
5980.00,0.51
5979.00,0.50
5978.00,0.50
5977.00,0.50
5976.00,0.50
5975.00,0.50
5974.00,0.50
5973.00,0.49
5972.00,0.49
5971.00,0.49
5970.00,0.49
5969.00,0.49
5968.00,0.48
5967.00,0.48
5966.00,0.48
5965.00,0.48
5964.00,0.48
5963.00,0.47
5962.00,0.47
5961.00,0.47
5960.00,0.46
5959.00,0.46
5958.00,0.46
5957.00,0.46
5956.00,0.45
5955.00,0.45
5954.00,0.45
5953.00,0.44
5952.00,0.44
5951.00,0.44
5950.00,0.44
5949.00,0.43
5948.00,0.43
5947.00,0.43
5946.00,0.43
5945.00,0.43
5944.00,0.43
5943.00,0.42
5942.00,0.42
5941.00,0.42
5940.00,0.42
5939.00,0.42
5938.00,0.42
5937.00,0.42
5936.00,0.42
5935.00,0.42
5934.00,0.42
5933.00,0.42
5932.00,0.42
5931.00,0.42
5930.00,0.42
5929.00,0.42
5928.00,0.42
5927.00,0.42
5926.00,0.42
5925.00,0.42
5924.00,0.42
5923.00,0.42
5922.00,0.41
5921.00,0.41
5920.00,0.41
5919.00,0.41
5918.00,0.41
5917.00,0.41
5916.00,0.41
5915.00,0.41
5914.00,0.40
5913.00,0.40
5912.00,0.40
5911.00,0.40
5910.00,0.40
5909.00,0.40
5908.00,0.40
5907.00,0.40
5906.00,0.40
5905.00,0.40
5904.00,0.39
5903.00,0.39
5902.00,0.39
5901.00,0.39
5900.00,0.39
5899.00,0.40
5898.00,0.40
5897.00,0.40
5896.00,0.40
5895.00,0.40
5894.00,0.40
5893.00,0.40
5892.00,0.40
5891.00,0.40
5890.00,0.40
5889.00,0.40
5888.00,0.40
5887.00,0.40
5886.00,0.41
5885.00,0.41
5884.00,0.41
5883.00,0.41
5882.00,0.41
5881.00,0.41
5880.00,0.41
5879.00,0.41
5878.00,0.42
5877.00,0.42
5876.00,0.42
5875.00,0.42
5874.00,0.42
5873.00,0.42
5872.00,0.42
5871.00,0.42
5870.00,0.42
5869.00,0.43
5868.00,0.43
5867.00,0.43
5866.00,0.43
5865.00,0.43
5864.00,0.43
5863.00,0.43
5862.00,0.43
5861.00,0.43
5860.00,0.43
5859.00,0.43
5858.00,0.43
5857.00,0.43
5856.00,0.43
5855.00,0.43
5854.00,0.43
5853.00,0.43
5852.00,0.43
5851.00,0.43
5850.00,0.43
5849.00,0.43
5848.00,0.43
5847.00,0.43
5846.00,0.43
5845.00,0.43
5844.00,0.43
5843.00,0.43
5842.00,0.43
5841.00,0.43
5840.00,0.43
5839.00,0.43
5838.00,0.43
5837.00,0.43
5836.00,0.43
5835.00,0.43
5834.00,0.43
5833.00,0.43
5832.00,0.43
5831.00,0.43
5830.00,0.43
5829.00,0.43
5828.00,0.43
5827.00,0.43
5826.00,0.43
5825.00,0.43
5824.00,0.43
5823.00,0.43
5822.00,0.43
5821.00,0.43
5820.00,0.44
5819.00,0.44
5818.00,0.44
5817.00,0.44
5816.00,0.44
5815.00,0.44
5814.00,0.44
5813.00,0.44
5812.00,0.44
5811.00,0.44
5810.00,0.44
5809.00,0.44
5808.00,0.43
5807.00,0.43
5806.00,0.43
5805.00,0.43
5804.00,0.43
5803.00,0.43
5802.00,0.43
5801.00,0.43
5800.00,0.43
5799.00,0.43
5798.00,0.43
5797.00,0.43
5796.00,0.43
5795.00,0.43
5794.00,0.43
5793.00,0.43
5792.00,0.43
5791.00,0.43
5790.00,0.43
5789.00,0.43
5788.00,0.43
5787.00,0.42
5786.00,0.42
5785.00,0.42
5784.00,0.42
5783.00,0.42
5782.00,0.42
5781.00,0.42
5780.00,0.42
5779.00,0.42
5778.00,0.42
5777.00,0.42
5776.00,0.42
5775.00,0.42
5774.00,0.42
5773.00,0.42
5772.00,0.42
5771.00,0.42
5770.00,0.42
5769.00,0.42
5768.00,0.42
5767.00,0.42
5766.00,0.42
5765.00,0.42
5764.00,0.42
5763.00,0.42
5762.00,0.42
5761.00,0.42
5760.00,0.42
5759.00,0.43
5758.00,0.43
5757.00,0.43
5756.00,0.43
5755.00,0.43
5754.00,0.43
5753.00,0.43
5752.00,0.43
5751.00,0.44
5750.00,0.44
5749.00,0.44
5748.00,0.44
5747.00,0.44
5746.00,0.44
5745.00,0.44
5744.00,0.44
5743.00,0.45
5742.00,0.45
5741.00,0.45
5740.00,0.45
5739.00,0.45
5738.00,0.45
5737.00,0.45
5736.00,0.45
5735.00,0.45
5734.00,0.45
5733.00,0.46
5732.00,0.46
5731.00,0.46
5730.00,0.46
5729.00,0.46
5728.00,0.46
5727.00,0.46
5726.00,0.46
5725.00,0.46
5724.00,0.46
5723.00,0.46
5722.00,0.46
5721.00,0.46
5720.00,0.46
5719.00,0.46
5718.00,0.46
5717.00,0.46
5716.00,0.46
5715.00,0.46
5714.00,0.46
5713.00,0.46
5712.00,0.46
5711.00,0.46
5710.00,0.46
5709.00,0.46
5708.00,0.46
5707.00,0.46
5706.00,0.46
5705.00,0.46
5704.00,0.46
5703.00,0.46
5702.00,0.46
5701.00,0.46
5700.00,0.46
5699.00,0.46
5698.00,0.46
5697.00,0.46
5696.00,0.46
5695.00,0.46
5694.00,0.46
5693.00,0.46
5692.00,0.46
5691.00,0.45
5690.00,0.45
5689.00,0.45
5688.00,0.45
5687.00,0.45
5686.00,0.45
5685.00,0.45
5684.00,0.45
5683.00,0.45
5682.00,0.45
5681.00,0.45
5680.00,0.45
5679.00,0.45
5678.00,0.45
5677.00,0.45
5676.00,0.44
5675.00,0.44
5674.00,0.44
5673.00,0.44
5672.00,0.44
5671.00,0.44
5670.00,0.44
5669.00,0.44
5668.00,0.44
5667.00,0.44
5666.00,0.44
5665.00,0.45
5664.00,0.45
5663.00,0.45
5662.00,0.45
5661.00,0.45
5660.00,0.45
5659.00,0.45
5658.00,0.45
5657.00,0.45
5656.00,0.45
5655.00,0.45
5654.00,0.45
5653.00,0.45
5652.00,0.45
5651.00,0.45
5650.00,0.46
5649.00,0.46
5648.00,0.46
5647.00,0.46
5646.00,0.46
5645.00,0.46
5644.00,0.46
5643.00,0.46
5642.00,0.46
5641.00,0.46
5640.00,0.46
5639.00,0.46
5638.00,0.47
5637.00,0.47
5636.00,0.47
5635.00,0.47
5634.00,0.47
5633.00,0.47
5632.00,0.47
5631.00,0.47
5630.00,0.47
5629.00,0.47
5628.00,0.47
5627.00,0.47
5626.00,0.47
5625.00,0.47
5624.00,0.47
5623.00,0.48
5622.00,0.48
5621.00,0.48
5620.00,0.48
5619.00,0.48
5618.00,0.48
5617.00,0.48
5616.00,0.48
5615.00,0.48
5614.00,0.48
5613.00,0.48
5612.00,0.48
5611.00,0.48
5610.00,0.48
5609.00,0.48
5608.00,0.48
5607.00,0.48
5606.00,0.49
5605.00,0.49
5604.00,0.49
5603.00,0.49
5602.00,0.49
5601.00,0.49
5600.00,0.49
5599.00,0.49
5598.00,0.49
5597.00,0.49
5596.00,0.49
5595.00,0.49
5594.00,0.49
5593.00,0.49
5592.00,0.49
5591.00,0.49
5590.00,0.49
5589.00,0.50
5588.00,0.50
5587.00,0.50
5586.00,0.50
5585.00,0.50
5584.00,0.50
5583.00,0.50
5582.00,0.50
5581.00,0.50
5580.00,0.50
5579.00,0.50
5578.00,0.50
5577.00,0.50
5576.00,0.50
5575.00,0.50
5574.00,0.50
5573.00,0.50
5572.00,0.50
5571.00,0.50
5570.00,0.51
5569.00,0.51
5568.00,0.51
5567.00,0.51
5566.00,0.51
5565.00,0.51
5564.00,0.51
5563.00,0.51
5562.00,0.51
5561.00,0.51
5560.00,0.51
5559.00,0.51
5558.00,0.51
5557.00,0.51
5556.00,0.51
5555.00,0.51
5554.00,0.51
5553.00,0.51
5552.00,0.52
5551.00,0.52
5550.00,0.52
5549.00,0.52
5548.00,0.52
5547.00,0.52
5546.00,0.52
5545.00,0.52
5544.00,0.52
5543.00,0.52
5542.00,0.52
5541.00,0.52
5540.00,0.52
5539.00,0.52
5538.00,0.52
5537.00,0.52
5536.00,0.52
5535.00,0.52
5534.00,0.52
5533.00,0.53
5532.00,0.53
5531.00,0.53
5530.00,0.53
5529.00,0.53
5528.00,0.53
5527.00,0.53
5526.00,0.53
5525.00,0.53
5524.00,0.53
5523.00,0.53
5522.00,0.53
5521.00,0.53
5520.00,0.53
5519.00,0.53
5518.00,0.53
5517.00,0.53
5516.00,0.53
5515.00,0.53
5514.00,0.53
5513.00,0.53
5512.00,0.53
5511.00,0.53
5510.00,0.53
5509.00,0.53
5508.00,0.53
5507.00,0.53
5506.00,0.53
5505.00,0.53
5504.00,0.53
5503.00,0.53
5502.00,0.53
5501.00,0.53
5500.00,0.53
5499.00,0.53
5498.00,0.53
5497.00,0.53
5496.00,0.53
5495.00,0.53
5494.00,0.53
5493.00,0.53
5492.00,0.53
5491.00,0.53
5490.00,0.53
5489.00,0.53
5488.00,0.54
5487.00,0.54
5486.00,0.54
5485.00,0.54
5484.00,0.54
5483.00,0.54
5482.00,0.54
5481.00,0.54
5480.00,0.54
5479.00,0.54
5478.00,0.54
5477.00,0.54
5476.00,0.54
5475.00,0.54
5474.00,0.54
5473.00,0.54
5472.00,0.54
5471.00,0.54
5470.00,0.54
5469.00,0.54
5468.00,0.54
5467.00,0.55
5466.00,0.55
5465.00,0.55
5464.00,0.55
5463.00,0.55
5462.00,0.55
5461.00,0.55
5460.00,0.55
5459.00,0.55
5458.00,0.55
5457.00,0.55
5456.00,0.55
5455.00,0.55
5454.00,0.55
5453.00,0.55
5452.00,0.55
5451.00,0.55
5450.00,0.55
5449.00,0.55
5448.00,0.55
5447.00,0.55
5446.00,0.55
5445.00,0.55
5444.00,0.55
5443.00,0.55
5442.00,0.55
5441.00,0.55
5440.00,0.55
5439.00,0.55
5438.00,0.55
5437.00,0.55
5436.00,0.55
5435.00,0.55
5434.00,0.55
5433.00,0.55
5432.00,0.55
5431.00,0.55
5430.00,0.55
5429.00,0.55
5428.00,0.55
5427.00,0.55
5426.00,0.55
5425.00,0.55
5424.00,0.55
5423.00,0.55
5422.00,0.55
5421.00,0.55
5420.00,0.55
5419.00,0.55
5418.00,0.55
5417.00,0.55
5416.00,0.55
5415.00,0.55
5414.00,0.55
5413.00,0.55
5412.00,0.55
5411.00,0.55
5410.00,0.55
5409.00,0.55
5408.00,0.55
5407.00,0.55
5406.00,0.55
5405.00,0.55
5404.00,0.55
5403.00,0.55
5402.00,0.55
5401.00,0.55
5400.00,0.55
5399.00,0.55
5398.00,0.55
5397.00,0.55
5396.00,0.55
5395.00,0.55
5394.00,0.55
5393.00,0.55
5392.00,0.55
5391.00,0.55
5390.00,0.55
5389.00,0.54
5388.00,0.54
5387.00,0.54
5386.00,0.54
5385.00,0.54
5384.00,0.54
5383.00,0.54
5382.00,0.54
5381.00,0.54
5380.00,0.54
5379.00,0.53
5378.00,0.53
5377.00,0.53
5376.00,0.53
5375.00,0.53
5374.00,0.53
5373.00,0.52
5372.00,0.52
5371.00,0.52
5370.00,0.52
5369.00,0.52
5368.00,0.52
5367.00,0.51
5366.00,0.51
5365.00,0.51
5364.00,0.51
5363.00,0.50
5362.00,0.50
5361.00,0.50
5360.00,0.50
5359.00,0.49
5358.00,0.49
5357.00,0.49
5356.00,0.48
5355.00,0.48
5354.00,0.48
5353.00,0.47
5352.00,0.47
5351.00,0.47
5350.00,0.46
5349.00,0.46
5348.00,0.46
5347.00,0.45
5346.00,0.45
5345.00,0.45
5344.00,0.44
5343.00,0.44
5342.00,0.43
5341.00,0.43
5340.00,0.43
5339.00,0.42
5338.00,0.42
5337.00,0.42
5336.00,0.41
5335.00,0.41
5334.00,0.40
5333.00,0.40
5332.00,0.40
5331.00,0.39
5330.00,0.39
5329.00,0.39
5328.00,0.38
5327.00,0.38
5326.00,0.37
5325.00,0.37
5324.00,0.37
5323.00,0.36
5322.00,0.36
5321.00,0.36
5320.00,0.35
5319.00,0.35
5318.00,0.35
5317.00,0.34
5316.00,0.34
5315.00,0.34
5314.00,0.33
5313.00,0.33
5312.00,0.33
5311.00,0.32
5310.00,0.32
5309.00,0.32
5308.00,0.32
5307.00,0.31
5306.00,0.31
5305.00,0.31
5304.00,0.31
5303.00,0.30
5302.00,0.30
5301.00,0.30
5300.00,0.30
5299.00,0.30
5298.00,0.30
5297.00,0.29
5296.00,0.29
5295.00,0.29
5294.00,0.29
5293.00,0.29
5292.00,0.29
5291.00,0.29
5290.00,0.29
5289.00,0.29
5288.00,0.28
5287.00,0.28
5286.00,0.28
5285.00,0.28
5284.00,0.28
5283.00,0.28
5282.00,0.28
5281.00,0.28
5280.00,0.28
5279.00,0.28
5278.00,0.28
5277.00,0.28
5276.00,0.28
5275.00,0.28
5274.00,0.28
5273.00,0.27
5272.00,0.27
5271.00,0.27
5270.00,0.27
5269.00,0.27
5268.00,0.27
5267.00,0.27
5266.00,0.27
5265.00,0.27
5264.00,0.27
5263.00,0.27
5262.00,0.27
5261.00,0.27
5260.00,0.27
5259.00,0.27
5258.00,0.27
5257.00,0.27
5256.00,0.27
5255.00,0.27
5254.00,0.27
5253.00,0.27
5252.00,0.27
5251.00,0.27
5250.00,0.27
5249.00,0.27
5248.00,0.27
5247.00,0.27
5246.00,0.27
5245.00,0.27
5244.00,0.27
5243.00,0.27
5242.00,0.27
5241.00,0.27
5240.00,0.27
5239.00,0.27
5238.00,0.27
5237.00,0.27
5236.00,0.27
5235.00,0.27
5234.00,0.27
5233.00,0.27
5232.00,0.27
5231.00,0.27
5230.00,0.27
5229.00,0.27
5228.00,0.28
5227.00,0.28
5226.00,0.28
5225.00,0.28
5224.00,0.28
5223.00,0.28
5222.00,0.28
5221.00,0.28
5220.00,0.28
5219.00,0.28
5218.00,0.28
5217.00,0.28
5216.00,0.28
5215.00,0.28
5214.00,0.28
5213.00,0.28
5212.00,0.28
5211.00,0.28
5210.00,0.28
5209.00,0.28
5208.00,0.28
5207.00,0.28
5206.00,0.28
5205.00,0.28
5204.00,0.28
5203.00,0.28
5202.00,0.28
5201.00,0.28
5200.00,0.28
5199.00,0.28
5198.00,0.28
5197.00,0.28
5196.00,0.28
5195.00,0.28
5194.00,0.28
5193.00,0.28
5192.00,0.28
5191.00,0.28
5190.00,0.28
5189.00,0.28
5188.00,0.28
5187.00,0.28
5186.00,0.28
5185.00,0.28
5184.00,0.28
5183.00,0.28
5182.00,0.28
5181.00,0.28
5180.00,0.28
5179.00,0.28
5178.00,0.28
5177.00,0.28
5176.00,0.28
5175.00,0.28
5174.00,0.28
5173.00,0.28
5172.00,0.29
5171.00,0.29
5170.00,0.29
5169.00,0.29
5168.00,0.29
5167.00,0.29
5166.00,0.29
5165.00,0.29
5164.00,0.29
5163.00,0.29
5162.00,0.29
5161.00,0.29
5160.00,0.29
5159.00,0.29
5158.00,0.29
5157.00,0.29
5156.00,0.29
5155.00,0.29
5154.00,0.29
5153.00,0.29
5152.00,0.29
5151.00,0.29
5150.00,0.29
5149.00,0.29
5148.00,0.29
5147.00,0.29
5146.00,0.29
5145.00,0.29
5144.00,0.29
5143.00,0.29
5142.00,0.29
5141.00,0.29
5140.00,0.29
5139.00,0.29
5138.00,0.29
5137.00,0.29
5136.00,0.29
5135.00,0.29
5134.00,0.29
5133.00,0.29
5132.00,0.30
5131.00,0.30
5130.00,0.30
5129.00,0.30
5128.00,0.30
5127.00,0.30
5126.00,0.30
5125.00,0.30
5124.00,0.30
5123.00,0.30
5122.00,0.30
5121.00,0.30
5120.00,0.30
5119.00,0.30
5118.00,0.30
5117.00,0.30
5116.00,0.30
5115.00,0.30
5114.00,0.30
5113.00,0.30
5112.00,0.30
5111.00,0.30
5110.00,0.30
5109.00,0.30
5108.00,0.30
5107.00,0.30
5106.00,0.30
5105.00,0.30
5104.00,0.30
5103.00,0.30
5102.00,0.30
5101.00,0.30
5100.00,0.30
5099.00,0.30
5098.00,0.30
5097.00,0.30
5096.00,0.30
5095.00,0.30
5094.00,0.30
5093.00,0.30
5092.00,0.30
5091.00,0.30
5090.00,0.30
5089.00,0.30
5088.00,0.30
5087.00,0.30
5086.00,0.30
5085.00,0.31
5084.00,0.31
5083.00,0.31
5082.00,0.31
5081.00,0.31
5080.00,0.31
5079.00,0.31
5078.00,0.31
5077.00,0.31
5076.00,0.31
5075.00,0.31
5074.00,0.31
5073.00,0.31
5072.00,0.31
5071.00,0.31
5070.00,0.31
5069.00,0.31
5068.00,0.31
5067.00,0.31
5066.00,0.31
5065.00,0.31
5064.00,0.31
5063.00,0.31
5062.00,0.31
5061.00,0.31
5060.00,0.31
5059.00,0.31
5058.00,0.31
5057.00,0.31
5056.00,0.31
5055.00,0.31
5054.00,0.31
5053.00,0.31
5052.00,0.31
5051.00,0.31
5050.00,0.31
5049.00,0.31
5048.00,0.31
5047.00,0.31
5046.00,0.31
5045.00,0.31
5044.00,0.31
5043.00,0.31
5042.00,0.31
5041.00,0.31
5040.00,0.31
5039.00,0.31
5038.00,0.31
5037.00,0.31
5036.00,0.31
5035.00,0.32
5034.00,0.32
5033.00,0.32
5032.00,0.32
5031.00,0.32
5030.00,0.32
5029.00,0.32
5028.00,0.32
5027.00,0.32
5026.00,0.32
5025.00,0.32
5024.00,0.32
5023.00,0.32
5022.00,0.32
5021.00,0.32
5020.00,0.32
5019.00,0.32
5018.00,0.32
5017.00,0.32
5016.00,0.32
5015.00,0.32
5014.00,0.32
5013.00,0.32
5012.00,0.32
5011.00,0.32
5010.00,0.32
5009.00,0.32
5008.00,0.32
5007.00,0.32
5006.00,0.32
5005.00,0.32
5004.00,0.32
5003.00,0.32
5002.00,0.32
5001.00,0.32
5000.00,0.32
4999.00,0.32
4998.00,0.32
4997.00,0.32
4996.00,0.33
4995.00,0.33
4994.00,0.33
4993.00,0.33
4992.00,0.33
4991.00,0.33
4990.00,0.33
4989.00,0.33
4988.00,0.33
4987.00,0.33
4986.00,0.33
4985.00,0.33
4984.00,0.33
4983.00,0.33
4982.00,0.33
4981.00,0.33
4980.00,0.33
4979.00,0.33
4978.00,0.33
4977.00,0.33
4976.00,0.33
4975.00,0.33
4974.00,0.33
4973.00,0.33
4972.00,0.33
4971.00,0.33
4970.00,0.33
4969.00,0.33
4968.00,0.34
4967.00,0.34
4966.00,0.34
4965.00,0.34
4964.00,0.34
4963.00,0.34
4962.00,0.34
4961.00,0.34
4960.00,0.34
4959.00,0.34
4958.00,0.34
4957.00,0.34
4956.00,0.34
4955.00,0.34
4954.00,0.34
4953.00,0.34
4952.00,0.34
4951.00,0.34
4950.00,0.34
4949.00,0.34
4948.00,0.34
4947.00,0.34
4946.00,0.34
4945.00,0.34
4944.00,0.34
4943.00,0.34
4942.00,0.34
4941.00,0.34
4940.00,0.34
4939.00,0.34
4938.00,0.34
4937.00,0.35
4936.00,0.35
4935.00,0.35
4934.00,0.35
4933.00,0.35
4932.00,0.35
4931.00,0.35
4930.00,0.35
4929.00,0.35
4928.00,0.35
4927.00,0.35
4926.00,0.35
4925.00,0.35
4924.00,0.35
4923.00,0.35
4922.00,0.35
4921.00,0.35
4920.00,0.35
4919.00,0.35
4918.00,0.35
4917.00,0.35
4916.00,0.35
4915.00,0.35
4914.00,0.35
4913.00,0.35
4912.00,0.36
4911.00,0.36
4910.00,0.36
4909.00,0.36
4908.00,0.36
4907.00,0.36
4906.00,0.36
4905.00,0.36
4904.00,0.36
4903.00,0.36
4902.00,0.36
4901.00,0.36
4900.00,0.36
4899.00,0.36
4898.00,0.36
4897.00,0.36
4896.00,0.36
4895.00,0.36
4894.00,0.36
4893.00,0.36
4892.00,0.36
4891.00,0.36
4890.00,0.36
4889.00,0.36
4888.00,0.36
4887.00,0.36
4886.00,0.36
4885.00,0.36
4884.00,0.36
4883.00,0.36
4882.00,0.36
4881.00,0.36
4880.00,0.36
4879.00,0.36
4878.00,0.36
4877.00,0.36
4876.00,0.36
4875.00,0.36
4874.00,0.36
4873.00,0.36
4872.00,0.36
4871.00,0.36
4870.00,0.36
4869.00,0.36
4868.00,0.36
4867.00,0.36
4866.00,0.36
4865.00,0.36
4864.00,0.36
4863.00,0.36
4862.00,0.36
4861.00,0.36
4860.00,0.36
4859.00,0.36
4858.00,0.36
4857.00,0.36
4856.00,0.36
4855.00,0.36
4854.00,0.36
4853.00,0.36
4852.00,0.36
4851.00,0.36
4850.00,0.36
4849.00,0.36
4848.00,0.37
4847.00,0.37
4846.00,0.37
4845.00,0.37
4844.00,0.37
4843.00,0.37
4842.00,0.37
4841.00,0.37
4840.00,0.37
4839.00,0.37
4838.00,0.37
4837.00,0.37
4836.00,0.37
4835.00,0.37
4834.00,0.37
4833.00,0.37
4832.00,0.37
4831.00,0.37
4830.00,0.37
4829.00,0.37
4828.00,0.37
4827.00,0.37
4826.00,0.37
4825.00,0.37
4824.00,0.37
4823.00,0.37
4822.00,0.38
4821.00,0.38
4820.00,0.38
4819.00,0.38
4818.00,0.38
4817.00,0.38
4816.00,0.38
4815.00,0.38
4814.00,0.38
4813.00,0.38
4812.00,0.38
4811.00,0.38
4810.00,0.38
4809.00,0.38
4808.00,0.38
4807.00,0.38
4806.00,0.38
4805.00,0.38
4804.00,0.38
4803.00,0.38
4802.00,0.38
4801.00,0.38
4800.00,0.38
4799.00,0.38
4798.00,0.38
4797.00,0.38
4796.00,0.38
4795.00,0.38
4794.00,0.38
4793.00,0.38
4792.00,0.38
4791.00,0.38
4790.00,0.38
4789.00,0.38
4788.00,0.39
4787.00,0.39
4786.00,0.39
4785.00,0.39
4784.00,0.39
4783.00,0.39
4782.00,0.39
4781.00,0.39
4780.00,0.39
4779.00,0.39
4778.00,0.39
4777.00,0.39
4776.00,0.39
4775.00,0.40
4774.00,0.40
4773.00,0.40
4772.00,0.40
4771.00,0.40
4770.00,0.40
4769.00,0.40
4768.00,0.40
4767.00,0.40
4766.00,0.40
4765.00,0.40
4764.00,0.40
4763.00,0.40
4762.00,0.40
4761.00,0.40
4760.00,0.40
4759.00,0.40
4758.00,0.40
4757.00,0.40
4756.00,0.40
4755.00,0.40
4754.00,0.40
4753.00,0.40
4752.00,0.40
4751.00,0.40
4750.00,0.40
4749.00,0.40
4748.00,0.41
4747.00,0.41
4746.00,0.41
4745.00,0.41
4744.00,0.41
4743.00,0.41
4742.00,0.41
4741.00,0.41
4740.00,0.41
4739.00,0.41
4738.00,0.41
4737.00,0.41
4736.00,0.41
4735.00,0.41
4734.00,0.41
4733.00,0.41
4732.00,0.42
4731.00,0.42
4730.00,0.42
4729.00,0.42
4728.00,0.42
4727.00,0.42
4726.00,0.42
4725.00,0.42
4724.00,0.42
4723.00,0.42
4722.00,0.42
4721.00,0.42
4720.00,0.42
4719.00,0.43
4718.00,0.43
4717.00,0.43
4716.00,0.43
4715.00,0.43
4714.00,0.43
4713.00,0.43
4712.00,0.43
4711.00,0.43
4710.00,0.43
4709.00,0.43
4708.00,0.43
4707.00,0.43
4706.00,0.43
4705.00,0.43
4704.00,0.43
4703.00,0.43
4702.00,0.43
4701.00,0.43
4700.00,0.44
4699.00,0.44
4698.00,0.44
4697.00,0.44
4696.00,0.44
4695.00,0.44
4694.00,0.44
4693.00,0.44
4692.00,0.44
4691.00,0.44
4690.00,0.44
4689.00,0.44
4688.00,0.44
4687.00,0.44
4686.00,0.44
4685.00,0.44
4684.00,0.44
4683.00,0.44
4682.00,0.44
4681.00,0.44
4680.00,0.44
4679.00,0.44
4678.00,0.44
4677.00,0.45
4676.00,0.45
4675.00,0.45
4674.00,0.45
4673.00,0.45
4672.00,0.45
4671.00,0.45
4670.00,0.45
4669.00,0.45
4668.00,0.45
4667.00,0.45
4666.00,0.45
4665.00,0.45
4664.00,0.46
4663.00,0.46
4662.00,0.46
4661.00,0.46
4660.00,0.46
4659.00,0.46
4658.00,0.46
4657.00,0.46
4656.00,0.46
4655.00,0.46
4654.00,0.46
4653.00,0.46
4652.00,0.46
4651.00,0.46
4650.00,0.46
4649.00,0.46
4648.00,0.46
4647.00,0.46
4646.00,0.47
4645.00,0.47
4644.00,0.47
4643.00,0.47
4642.00,0.47
4641.00,0.47
4640.00,0.47
4639.00,0.47
4638.00,0.47
4637.00,0.47
4636.00,0.47
4635.00,0.47
4634.00,0.47
4633.00,0.47
4632.00,0.47
4631.00,0.47
4630.00,0.47
4629.00,0.47
4628.00,0.47
4627.00,0.47
4626.00,0.47
4625.00,0.47
4624.00,0.47
4623.00,0.47
4622.00,0.47
4621.00,0.47
4620.00,0.47
4619.00,0.47
4618.00,0.48
4617.00,0.48
4616.00,0.48
4615.00,0.48
4614.00,0.48
4613.00,0.48
4612.00,0.48
4611.00,0.48
4610.00,0.48
4609.00,0.48
4608.00,0.48
4607.00,0.48
4606.00,0.48
4605.00,0.48
4604.00,0.48
4603.00,0.48
4602.00,0.48
4601.00,0.48
4600.00,0.48
4599.00,0.48
4598.00,0.48
4597.00,0.48
4596.00,0.48
4595.00,0.48
4594.00,0.48
4593.00,0.48
4592.00,0.48
4591.00,0.48
4590.00,0.49
4589.00,0.49
4588.00,0.49
4587.00,0.49
4586.00,0.49
4585.00,0.49
4584.00,0.49
4583.00,0.49
4582.00,0.49
4581.00,0.49
4580.00,0.49
4579.00,0.49
4578.00,0.49
4577.00,0.49
4576.00,0.49
4575.00,0.50
4574.00,0.50
4573.00,0.50
4572.00,0.50
4571.00,0.50
4570.00,0.50
4569.00,0.50
4568.00,0.50
4567.00,0.50
4566.00,0.50
4565.00,0.50
4564.00,0.50
4563.00,0.50
4562.00,0.50
4561.00,0.50
4560.00,0.50
4559.00,0.50
4558.00,0.50
4557.00,0.50
4556.00,0.50
4555.00,0.50
4554.00,0.50
4553.00,0.50
4552.00,0.50
4551.00,0.50
4550.00,0.50
4549.00,0.50
4548.00,0.50
4547.00,0.50
4546.00,0.50
4545.00,0.51
4544.00,0.51
4543.00,0.51
4542.00,0.51
4541.00,0.51
4540.00,0.51
4539.00,0.51
4538.00,0.51
4537.00,0.51
4536.00,0.51
4535.00,0.51
4534.00,0.51
4533.00,0.51
4532.00,0.51
4531.00,0.51
4530.00,0.51
4529.00,0.51
4528.00,0.51
4527.00,0.51
4526.00,0.51
4525.00,0.51
4524.00,0.51
4523.00,0.51
4522.00,0.51
4521.00,0.51
4520.00,0.51
4519.00,0.51
4518.00,0.51
4517.00,0.51
4516.00,0.51
4515.00,0.51
4514.00,0.51
4513.00,0.51
4512.00,0.51
4511.00,0.51
4510.00,0.51
4509.00,0.51
4508.00,0.51
4507.00,0.51
4506.00,0.51
4505.00,0.51
4504.00,0.51
4503.00,0.51
4502.00,0.51
4501.00,0.51
4500.00,0.51
4499.00,0.51
4498.00,0.51
4497.00,0.51
4496.00,0.51
4495.00,0.51
4494.00,0.51
4493.00,0.51
4492.00,0.51
4491.00,0.51
4490.00,0.51
4489.00,0.51
4488.00,0.51
4487.00,0.51
4486.00,0.51
4485.00,0.51
4484.00,0.51
4483.00,0.51
4482.00,0.51
4481.00,0.51
4480.00,0.51
4479.00,0.51
4478.00,0.50
4477.00,0.50
4476.00,0.50
4475.00,0.50
4474.00,0.50
4473.00,0.50
4472.00,0.50
4471.00,0.50
4470.00,0.50
4469.00,0.50
4468.00,0.50
4467.00,0.49
4466.00,0.49
4465.00,0.49
4464.00,0.49
4463.00,0.49
4462.00,0.49
4461.00,0.49
4460.00,0.49
4459.00,0.49
4458.00,0.48
4457.00,0.48
4456.00,0.48
4455.00,0.48
4454.00,0.48
4453.00,0.48
4452.00,0.48
4451.00,0.48
4450.00,0.47
4449.00,0.47
4448.00,0.47
4447.00,0.47
4446.00,0.47
4445.00,0.47
4444.00,0.47
4443.00,0.47
4442.00,0.46
4441.00,0.46
4440.00,0.46
4439.00,0.46
4438.00,0.46
4437.00,0.46
4436.00,0.46
4435.00,0.46
4434.00,0.45
4433.00,0.45
4432.00,0.45
4431.00,0.45
4430.00,0.45
4429.00,0.45
4428.00,0.45
4427.00,0.45
4426.00,0.45
4425.00,0.45
4424.00,0.45
4423.00,0.45
4422.00,0.45
4421.00,0.45
4420.00,0.45
4419.00,0.45
4418.00,0.45
4417.00,0.45
4416.00,0.45
4415.00,0.45
4414.00,0.45
4413.00,0.45
4412.00,0.45
4411.00,0.45
4410.00,0.45
4409.00,0.45
4408.00,0.45
4407.00,0.45
4406.00,0.45
4405.00,0.45
4404.00,0.45
4403.00,0.45
4402.00,0.45
4401.00,0.45
4400.00,0.45
4399.00,0.45
4398.00,0.45
4397.00,0.45
4396.00,0.45
4395.00,0.45
4394.00,0.46
4393.00,0.46
4392.00,0.46
4391.00,0.46
4390.00,0.46
4389.00,0.46
4388.00,0.46
4387.00,0.46
4386.00,0.46
4385.00,0.46
4384.00,0.46
4383.00,0.46
4382.00,0.46
4381.00,0.46
4380.00,0.46
4379.00,0.46
4378.00,0.46
4377.00,0.46
4376.00,0.46
4375.00,0.46
4374.00,0.46
4373.00,0.46
4372.00,0.46
4371.00,0.46
4370.00,0.46
4369.00,0.46
4368.00,0.46
4367.00,0.46
4366.00,0.46
4365.00,0.46
4364.00,0.46
4363.00,0.46
4362.00,0.46
4361.00,0.46
4360.00,0.46
4359.00,0.46
4358.00,0.46
4357.00,0.46
4356.00,0.46
4355.00,0.46
4354.00,0.46
4353.00,0.46
4352.00,0.46
4351.00,0.46
4350.00,0.46
4349.00,0.46
4348.00,0.46
4347.00,0.46
4346.00,0.46
4345.00,0.46
4344.00,0.46
4343.00,0.46
4342.00,0.46
4341.00,0.46
4340.00,0.46
4339.00,0.46
4338.00,0.46
4337.00,0.46
4336.00,0.47
4335.00,0.47
4334.00,0.47
4333.00,0.47
4332.00,0.47
4331.00,0.47
4330.00,0.47
4329.00,0.47
4328.00,0.47
4327.00,0.47
4326.00,0.47
4325.00,0.47
4324.00,0.47
4323.00,0.47
4322.00,0.47
4321.00,0.47
4320.00,0.47
4319.00,0.47
4318.00,0.47
4317.00,0.47
4316.00,0.47
4315.00,0.47
4314.00,0.47
4313.00,0.47
4312.00,0.47
4311.00,0.47
4310.00,0.47
4309.00,0.47
4308.00,0.48
4307.00,0.48
4306.00,0.48
4305.00,0.48
4304.00,0.48
4303.00,0.48
4302.00,0.48
4301.00,0.48
4300.00,0.48
4299.00,0.48
4298.00,0.48
4297.00,0.48
4296.00,0.49
4295.00,0.49
4294.00,0.49
4293.00,0.49
4292.00,0.49
4291.00,0.49
4290.00,0.49
4289.00,0.49
4288.00,0.49
4287.00,0.49
4286.00,0.49
4285.00,0.49
4284.00,0.49
4283.00,0.49
4282.00,0.49
4281.00,0.49
4280.00,0.49
4279.00,0.49
4278.00,0.49
4277.00,0.49
4276.00,0.49
4275.00,0.50
4274.00,0.50
4273.00,0.50
4272.00,0.50
4271.00,0.50
4270.00,0.50
4269.00,0.50
4268.00,0.50
4267.00,0.50
4266.00,0.50
4265.00,0.50
4264.00,0.49
4263.00,0.49
4262.00,0.49
4261.00,0.49
4260.00,0.49
4259.00,0.49
4258.00,0.49
4257.00,0.49
4256.00,0.49
4255.00,0.49
4254.00,0.49
4253.00,0.49
4252.00,0.49
4251.00,0.49
4250.00,0.49
4249.00,0.49
4248.00,0.49
4247.00,0.49
4246.00,0.49
4245.00,0.49
4244.00,0.49
4243.00,0.49
4242.00,0.49
4241.00,0.50
4240.00,0.50
4239.00,0.50
4238.00,0.50
4237.00,0.50
4236.00,0.50
4235.00,0.50
4234.00,0.50
4233.00,0.50
4232.00,0.50
4231.00,0.50
4230.00,0.50
4229.00,0.50
4228.00,0.50
4227.00,0.50
4226.00,0.50
4225.00,0.50
4224.00,0.50
4223.00,0.50
4222.00,0.50
4221.00,0.50
4220.00,0.50
4219.00,0.50
4218.00,0.50
4217.00,0.50
4216.00,0.50
4215.00,0.50
4214.00,0.50
4213.00,0.50
4212.00,0.50
4211.00,0.51
4210.00,0.51
4209.00,0.51
4208.00,0.51
4207.00,0.51
4206.00,0.51
4205.00,0.51
4204.00,0.51
4203.00,0.51
4202.00,0.51
4201.00,0.51
4200.00,0.51
4199.00,0.51
4198.00,0.51
4197.00,0.51
4196.00,0.51
4195.00,0.51
4194.00,0.51
4193.00,0.51
4192.00,0.51
4191.00,0.51
4190.00,0.51
4189.00,0.51
4188.00,0.51
4187.00,0.51
4186.00,0.51
4185.00,0.51
4184.00,0.51
4183.00,0.51
4182.00,0.51
4181.00,0.51
4180.00,0.51
4179.00,0.51
4178.00,0.51
4177.00,0.51
4176.00,0.51
4175.00,0.51
4174.00,0.51
4173.00,0.51
4172.00,0.51
4171.00,0.51
4170.00,0.51
4169.00,0.51
4168.00,0.51
4167.00,0.51
4166.00,0.51
4165.00,0.52
4164.00,0.52
4163.00,0.52
4162.00,0.52
4161.00,0.52
4160.00,0.52
4159.00,0.52
4158.00,0.52
4157.00,0.52
4156.00,0.52
4155.00,0.52
4154.00,0.52
4153.00,0.52
4152.00,0.52
4151.00,0.52
4150.00,0.52
4149.00,0.52
4148.00,0.52
4147.00,0.52
4146.00,0.52
4145.00,0.52
4144.00,0.52
4143.00,0.52
4142.00,0.52
4141.00,0.52
4140.00,0.52
4139.00,0.52
4138.00,0.52
4137.00,0.53
4136.00,0.53
4135.00,0.53
4134.00,0.53
4133.00,0.53
4132.00,0.53
4131.00,0.53
4130.00,0.53
4129.00,0.53
4128.00,0.53
4127.00,0.53
4126.00,0.53
4125.00,0.53
4124.00,0.53
4123.00,0.53
4122.00,0.53
4121.00,0.53
4120.00,0.53
4119.00,0.53
4118.00,0.53
4117.00,0.53
4116.00,0.53
4115.00,0.53
4114.00,0.53
4113.00,0.53
4112.00,0.53
4111.00,0.53
4110.00,0.53
4109.00,0.53
4108.00,0.53
4107.00,0.53
4106.00,0.53
4105.00,0.53
4104.00,0.53
4103.00,0.53
4102.00,0.53
4101.00,0.53
4100.00,0.53
4099.00,0.53
4098.00,0.53
4097.00,0.53
4096.00,0.53
4095.00,0.53
4094.00,0.53
4093.00,0.53
4092.00,0.53
4091.00,0.53
4090.00,0.53
4089.00,0.53
4088.00,0.53
4087.00,0.53
4086.00,0.53
4085.00,0.53
4084.00,0.53
4083.00,0.53
4082.00,0.53
4081.00,0.53
4080.00,0.53
4079.00,0.53
4078.00,0.54
4077.00,0.54
4076.00,0.54
4075.00,0.54
4074.00,0.54
4073.00,0.54
4072.00,0.54
4071.00,0.54
4070.00,0.54
4069.00,0.54
4068.00,0.54
4067.00,0.54
4066.00,0.54
4065.00,0.54
4064.00,0.54
4063.00,0.54
4062.00,0.54
4061.00,0.54
4060.00,0.54
4059.00,0.54
4058.00,0.54
4057.00,0.54
4056.00,0.54
4055.00,0.54
4054.00,0.54
4053.00,0.54
4052.00,0.54
4051.00,0.54
4050.00,0.54
4049.00,0.54
4048.00,0.54
4047.00,0.54
4046.00,0.54
4045.00,0.54
4044.00,0.54
4043.00,0.54
4042.00,0.55
4041.00,0.55
4040.00,0.55
4039.00,0.55
4038.00,0.55
4037.00,0.55
4036.00,0.55
4035.00,0.55
4034.00,0.55
4033.00,0.55
4032.00,0.55
4031.00,0.55
4030.00,0.55
4029.00,0.55
4028.00,0.55
4027.00,0.55
4026.00,0.55
4025.00,0.55
4024.00,0.55
4023.00,0.55
4022.00,0.55
4021.00,0.55
4020.00,0.55
4019.00,0.55
4018.00,0.55
4017.00,0.55
4016.00,0.55
4015.00,0.55
4014.00,0.55
4013.00,0.55
4012.00,0.55
4011.00,0.55
4010.00,0.55
4009.00,0.55
4008.00,0.55
4007.00,0.55
4006.00,0.55
4005.00,0.55
4004.00,0.55
4003.00,0.55
4002.00,0.55
4001.00,0.55
4000.00,0.55
