创建为新数据集,样品 464 用户 Administrator 日期 星期日, 七月 15 2018
cm-1,%T
10000.00,0.56
9999.00,0.56
9998.00,0.55
9997.00,0.55
9996.00,0.55
9995.00,0.55
9994.00,0.55
9993.00,0.54
9992.00,0.54
9991.00,0.54
9990.00,0.54
9989.00,0.53
9988.00,0.53
9987.00,0.53
9986.00,0.52
9985.00,0.52
9984.00,0.51
9983.00,0.51
9982.00,0.51
9981.00,0.50
9980.00,0.50
9979.00,0.49
9978.00,0.49
9977.00,0.49
9976.00,0.48
9975.00,0.48
9974.00,0.48
9973.00,0.48
9972.00,0.48
9971.00,0.48
9970.00,0.48
9969.00,0.48
9968.00,0.48
9967.00,0.48
9966.00,0.48
9965.00,0.48
9964.00,0.49
9963.00,0.49
9962.00,0.49
9961.00,0.49
9960.00,0.49
9959.00,0.50
9958.00,0.50
9957.00,0.50
9956.00,0.50
9955.00,0.50
9954.00,0.50
9953.00,0.50
9952.00,0.50
9951.00,0.50
9950.00,0.50
9949.00,0.50
9948.00,0.50
9947.00,0.50
9946.00,0.50
9945.00,0.50
9944.00,0.51
9943.00,0.51
9942.00,0.51
9941.00,0.52
9940.00,0.52
9939.00,0.53
9938.00,0.53
9937.00,0.54
9936.00,0.54
9935.00,0.55
9934.00,0.55
9933.00,0.55
9932.00,0.56
9931.00,0.56
9930.00,0.56
9929.00,0.56
9928.00,0.55
9927.00,0.55
9926.00,0.55
9925.00,0.54
9924.00,0.54
9923.00,0.53
9922.00,0.53
9921.00,0.53
9920.00,0.52
9919.00,0.52
9918.00,0.52
9917.00,0.51
9916.00,0.51
9915.00,0.51
9914.00,0.51
9913.00,0.51
9912.00,0.51
9911.00,0.52
9910.00,0.52
9909.00,0.52
9908.00,0.52
9907.00,0.53
9906.00,0.53
9905.00,0.53
9904.00,0.53
9903.00,0.54
9902.00,0.54
9901.00,0.54
9900.00,0.55
9899.00,0.55
9898.00,0.55
9897.00,0.55
9896.00,0.55
9895.00,0.55
9894.00,0.55
9893.00,0.55
9892.00,0.55
9891.00,0.55
9890.00,0.55
9889.00,0.55
9888.00,0.55
9887.00,0.55
9886.00,0.55
9885.00,0.54
9884.00,0.54
9883.00,0.54
9882.00,0.54
9881.00,0.54
9880.00,0.53
9879.00,0.53
9878.00,0.53
9877.00,0.53
9876.00,0.53
9875.00,0.53
9874.00,0.53
9873.00,0.53
9872.00,0.53
9871.00,0.53
9870.00,0.53
9869.00,0.52
9868.00,0.52
9867.00,0.52
9866.00,0.52
9865.00,0.51
9864.00,0.51
9863.00,0.51
9862.00,0.51
9861.00,0.50
9860.00,0.50
9859.00,0.50
9858.00,0.50
9857.00,0.49
9856.00,0.49
9855.00,0.49
9854.00,0.49
9853.00,0.49
9852.00,0.50
9851.00,0.50
9850.00,0.50
9849.00,0.51
9848.00,0.51
9847.00,0.51
9846.00,0.52
9845.00,0.52
9844.00,0.53
9843.00,0.53
9842.00,0.54
9841.00,0.54
9840.00,0.54
9839.00,0.55
9838.00,0.55
9837.00,0.55
9836.00,0.55
9835.00,0.55
9834.00,0.55
9833.00,0.55
9832.00,0.55
9831.00,0.55
9830.00,0.55
9829.00,0.55
9828.00,0.54
9827.00,0.54
9826.00,0.54
9825.00,0.53
9824.00,0.53
9823.00,0.53
9822.00,0.52
9821.00,0.52
9820.00,0.52
9819.00,0.51
9818.00,0.51
9817.00,0.51
9816.00,0.51
9815.00,0.51
9814.00,0.51
9813.00,0.51
9812.00,0.51
9811.00,0.51
9810.00,0.51
9809.00,0.51
9808.00,0.51
9807.00,0.51
9806.00,0.51
9805.00,0.51
9804.00,0.51
9803.00,0.51
9802.00,0.51
9801.00,0.51
9800.00,0.51
9799.00,0.50
9798.00,0.50
9797.00,0.50
9796.00,0.50
9795.00,0.50
9794.00,0.50
9793.00,0.50
9792.00,0.50
9791.00,0.50
9790.00,0.50
9789.00,0.50
9788.00,0.50
9787.00,0.51
9786.00,0.51
9785.00,0.51
9784.00,0.52
9783.00,0.52
9782.00,0.53
9781.00,0.53
9780.00,0.54
9779.00,0.54
9778.00,0.54
9777.00,0.55
9776.00,0.55
9775.00,0.55
9774.00,0.55
9773.00,0.55
9772.00,0.55
9771.00,0.55
9770.00,0.55
9769.00,0.55
9768.00,0.54
9767.00,0.54
9766.00,0.54
9765.00,0.53
9764.00,0.53
9763.00,0.53
9762.00,0.53
9761.00,0.52
9760.00,0.52
9759.00,0.52
9758.00,0.52
9757.00,0.52
9756.00,0.52
9755.00,0.52
9754.00,0.52
9753.00,0.52
9752.00,0.52
9751.00,0.53
9750.00,0.53
9749.00,0.53
9748.00,0.53
9747.00,0.53
9746.00,0.53
9745.00,0.53
9744.00,0.53
9743.00,0.53
9742.00,0.53
9741.00,0.53
9740.00,0.53
9739.00,0.53
9738.00,0.53
9737.00,0.53
9736.00,0.52
9735.00,0.52
9734.00,0.52
9733.00,0.52
9732.00,0.52
9731.00,0.51
9730.00,0.51
9729.00,0.51
9728.00,0.51
9727.00,0.51
9726.00,0.51
9725.00,0.51
9724.00,0.51
9723.00,0.50
9722.00,0.50
9721.00,0.50
9720.00,0.50
9719.00,0.50
9718.00,0.50
9717.00,0.51
9716.00,0.51
9715.00,0.51
9714.00,0.51
9713.00,0.51
9712.00,0.51
9711.00,0.51
9710.00,0.51
9709.00,0.51
9708.00,0.51
9707.00,0.51
9706.00,0.51
9705.00,0.51
9704.00,0.51
9703.00,0.51
9702.00,0.51
9701.00,0.51
9700.00,0.51
9699.00,0.51
9698.00,0.51
9697.00,0.51
9696.00,0.51
9695.00,0.51
9694.00,0.51
9693.00,0.51
9692.00,0.51
9691.00,0.52
9690.00,0.52
9689.00,0.52
9688.00,0.52
9687.00,0.52
9686.00,0.53
9685.00,0.53
9684.00,0.53
9683.00,0.53
9682.00,0.53
9681.00,0.54
9680.00,0.54
9679.00,0.54
9678.00,0.54
9677.00,0.54
9676.00,0.54
9675.00,0.54
9674.00,0.54
9673.00,0.54
9672.00,0.54
9671.00,0.53
9670.00,0.53
9669.00,0.53
9668.00,0.52
9667.00,0.52
9666.00,0.52
9665.00,0.51
9664.00,0.51
9663.00,0.51
9662.00,0.50
9661.00,0.50
9660.00,0.50
9659.00,0.50
9658.00,0.49
9657.00,0.49
9656.00,0.49
9655.00,0.49
9654.00,0.49
9653.00,0.49
9652.00,0.49
9651.00,0.49
9650.00,0.49
9649.00,0.49
9648.00,0.49
9647.00,0.49
9646.00,0.49
9645.00,0.49
9644.00,0.49
9643.00,0.49
9642.00,0.49
9641.00,0.50
9640.00,0.50
9639.00,0.50
9638.00,0.50
9637.00,0.50
9636.00,0.50
9635.00,0.50
9634.00,0.50
9633.00,0.50
9632.00,0.50
9631.00,0.50
9630.00,0.50
9629.00,0.50
9628.00,0.49
9627.00,0.49
9626.00,0.49
9625.00,0.49
9624.00,0.49
9623.00,0.49
9622.00,0.49
9621.00,0.49
9620.00,0.49
9619.00,0.49
9618.00,0.49
9617.00,0.49
9616.00,0.49
9615.00,0.49
9614.00,0.49
9613.00,0.49
9612.00,0.49
9611.00,0.49
9610.00,0.49
9609.00,0.49
9608.00,0.49
9607.00,0.49
9606.00,0.50
9605.00,0.50
9604.00,0.50
9603.00,0.50
9602.00,0.50
9601.00,0.50
9600.00,0.50
9599.00,0.51
9598.00,0.51
9597.00,0.51
9596.00,0.51
9595.00,0.51
9594.00,0.51
9593.00,0.51
9592.00,0.51
9591.00,0.51
9590.00,0.51
9589.00,0.51
9588.00,0.51
9587.00,0.51
9586.00,0.51
9585.00,0.51
9584.00,0.51
9583.00,0.51
9582.00,0.51
9581.00,0.50
9580.00,0.50
9579.00,0.50
9578.00,0.50
9577.00,0.49
9576.00,0.49
9575.00,0.49
9574.00,0.49
9573.00,0.49
9572.00,0.48
9571.00,0.48
9570.00,0.48
9569.00,0.48
9568.00,0.48
9567.00,0.48
9566.00,0.48
9565.00,0.49
9564.00,0.49
9563.00,0.49
9562.00,0.49
9561.00,0.50
9560.00,0.50
9559.00,0.50
9558.00,0.51
9557.00,0.51
9556.00,0.51
9555.00,0.52
9554.00,0.52
9553.00,0.53
9552.00,0.53
9551.00,0.53
9550.00,0.54
9549.00,0.54
9548.00,0.54
9547.00,0.55
9546.00,0.55
9545.00,0.55
9544.00,0.55
9543.00,0.55
9542.00,0.55
9541.00,0.55
9540.00,0.55
9539.00,0.55
9538.00,0.55
9537.00,0.55
9536.00,0.55
9535.00,0.55
9534.00,0.55
9533.00,0.54
9532.00,0.54
9531.00,0.54
9530.00,0.54
9529.00,0.53
9528.00,0.53
9527.00,0.53
9526.00,0.53
9525.00,0.52
9524.00,0.52
9523.00,0.52
9522.00,0.52
9521.00,0.52
9520.00,0.52
9519.00,0.52
9518.00,0.52
9517.00,0.52
9516.00,0.52
9515.00,0.52
9514.00,0.52
9513.00,0.52
9512.00,0.52
9511.00,0.51
9510.00,0.51
9509.00,0.51
9508.00,0.50
9507.00,0.50
9506.00,0.50
9505.00,0.49
9504.00,0.49
9503.00,0.48
9502.00,0.48
9501.00,0.48
9500.00,0.47
9499.00,0.47
9498.00,0.47
9497.00,0.47
9496.00,0.47
9495.00,0.46
9494.00,0.47
9493.00,0.47
9492.00,0.47
9491.00,0.47
9490.00,0.47
9489.00,0.47
9488.00,0.48
9487.00,0.48
9486.00,0.48
9485.00,0.48
9484.00,0.49
9483.00,0.49
9482.00,0.49
9481.00,0.50
9480.00,0.50
9479.00,0.50
9478.00,0.51
9477.00,0.51
9476.00,0.51
9475.00,0.52
9474.00,0.52
9473.00,0.52
9472.00,0.52
9471.00,0.52
9470.00,0.53
9469.00,0.53
9468.00,0.53
9467.00,0.53
9466.00,0.53
9465.00,0.53
9464.00,0.53
9463.00,0.53
9462.00,0.53
9461.00,0.53
9460.00,0.53
9459.00,0.53
9458.00,0.53
9457.00,0.53
9456.00,0.54
9455.00,0.54
9454.00,0.53
9453.00,0.53
9452.00,0.53
9451.00,0.53
9450.00,0.53
9449.00,0.53
9448.00,0.52
9447.00,0.52
9446.00,0.52
9445.00,0.51
9444.00,0.51
9443.00,0.51
9442.00,0.50
9441.00,0.50
9440.00,0.49
9439.00,0.49
9438.00,0.49
9437.00,0.48
9436.00,0.48
9435.00,0.48
9434.00,0.48
9433.00,0.47
9432.00,0.47
9431.00,0.47
9430.00,0.47
9429.00,0.48
9428.00,0.48
9427.00,0.48
9426.00,0.48
9425.00,0.49
9424.00,0.49
9423.00,0.49
9422.00,0.50
9421.00,0.50
9420.00,0.50
9419.00,0.50
9418.00,0.51
9417.00,0.51
9416.00,0.51
9415.00,0.52
9414.00,0.52
9413.00,0.52
9412.00,0.52
9411.00,0.52
9410.00,0.52
9409.00,0.53
9408.00,0.53
9407.00,0.53
9406.00,0.53
9405.00,0.53
9404.00,0.53
9403.00,0.53
9402.00,0.53
9401.00,0.53
9400.00,0.53
9399.00,0.53
9398.00,0.53
9397.00,0.53
9396.00,0.53
9395.00,0.53
9394.00,0.53
9393.00,0.53
9392.00,0.53
9391.00,0.53
9390.00,0.53
9389.00,0.53
9388.00,0.53
9387.00,0.52
9386.00,0.52
9385.00,0.52
9384.00,0.52
9383.00,0.52
9382.00,0.52
9381.00,0.52
9380.00,0.51
9379.00,0.51
9378.00,0.51
9377.00,0.51
9376.00,0.51
9375.00,0.51
9374.00,0.51
9373.00,0.51
9372.00,0.51
9371.00,0.51
9370.00,0.50
9369.00,0.50
9368.00,0.50
9367.00,0.51
9366.00,0.51
9365.00,0.51
9364.00,0.51
9363.00,0.51
9362.00,0.51
9361.00,0.51
9360.00,0.51
9359.00,0.51
9358.00,0.51
9357.00,0.51
9356.00,0.51
9355.00,0.51
9354.00,0.51
9353.00,0.51
9352.00,0.51
9351.00,0.51
9350.00,0.51
9349.00,0.51
9348.00,0.51
9347.00,0.51
9346.00,0.51
9345.00,0.51
9344.00,0.51
9343.00,0.51
9342.00,0.51
9341.00,0.51
9340.00,0.51
9339.00,0.51
9338.00,0.51
9337.00,0.51
9336.00,0.51
9335.00,0.51
9334.00,0.51
9333.00,0.51
9332.00,0.51
9331.00,0.51
9330.00,0.51
9329.00,0.51
9328.00,0.51
9327.00,0.51
9326.00,0.51
9325.00,0.51
9324.00,0.51
9323.00,0.51
9322.00,0.51
9321.00,0.51
9320.00,0.50
9319.00,0.50
9318.00,0.50
9317.00,0.50
9316.00,0.50
9315.00,0.50
9314.00,0.50
9313.00,0.50
9312.00,0.50
9311.00,0.50
9310.00,0.50
9309.00,0.50
9308.00,0.51
9307.00,0.51
9306.00,0.51
9305.00,0.51
9304.00,0.51
9303.00,0.51
9302.00,0.51
9301.00,0.51
9300.00,0.51
9299.00,0.51
9298.00,0.51
9297.00,0.51
9296.00,0.51
9295.00,0.51
9294.00,0.51
9293.00,0.50
9292.00,0.50
9291.00,0.50
9290.00,0.50
9289.00,0.50
9288.00,0.49
9287.00,0.49
9286.00,0.49
9285.00,0.49
9284.00,0.49
9283.00,0.49
9282.00,0.49
9281.00,0.49
9280.00,0.49
9279.00,0.50
9278.00,0.50
9277.00,0.50
9276.00,0.50
9275.00,0.51
9274.00,0.51
9273.00,0.51
9272.00,0.51
9271.00,0.51
9270.00,0.52
9269.00,0.52
9268.00,0.52
9267.00,0.52
9266.00,0.52
9265.00,0.52
9264.00,0.52
9263.00,0.52
9262.00,0.52
9261.00,0.52
9260.00,0.52
9259.00,0.52
9258.00,0.52
9257.00,0.52
9256.00,0.52
9255.00,0.53
9254.00,0.53
9253.00,0.53
9252.00,0.53
9251.00,0.53
9250.00,0.53
9249.00,0.53
9248.00,0.53
9247.00,0.53
9246.00,0.53
9245.00,0.53
9244.00,0.53
9243.00,0.52
9242.00,0.52
9241.00,0.52
9240.00,0.52
9239.00,0.52
9238.00,0.52
9237.00,0.52
9236.00,0.51
9235.00,0.51
9234.00,0.51
9233.00,0.51
9232.00,0.51
9231.00,0.51
9230.00,0.51
9229.00,0.50
9228.00,0.50
9227.00,0.50
9226.00,0.50
9225.00,0.50
9224.00,0.50
9223.00,0.50
9222.00,0.50
9221.00,0.50
9220.00,0.50
9219.00,0.50
9218.00,0.50
9217.00,0.51
9216.00,0.51
9215.00,0.51
9214.00,0.51
9213.00,0.51
9212.00,0.51
9211.00,0.51
9210.00,0.52
9209.00,0.52
9208.00,0.52
9207.00,0.52
9206.00,0.52
9205.00,0.52
9204.00,0.52
9203.00,0.52
9202.00,0.52
9201.00,0.52
9200.00,0.52
9199.00,0.53
9198.00,0.53
9197.00,0.53
9196.00,0.53
9195.00,0.53
9194.00,0.53
9193.00,0.53
9192.00,0.53
9191.00,0.53
9190.00,0.53
9189.00,0.53
9188.00,0.53
9187.00,0.53
9186.00,0.53
9185.00,0.54
9184.00,0.54
9183.00,0.54
9182.00,0.54
9181.00,0.54
9180.00,0.54
9179.00,0.54
9178.00,0.54
9177.00,0.54
9176.00,0.54
9175.00,0.54
9174.00,0.54
9173.00,0.54
9172.00,0.54
9171.00,0.54
9170.00,0.54
9169.00,0.54
9168.00,0.54
9167.00,0.54
9166.00,0.54
9165.00,0.54
9164.00,0.54
9163.00,0.54
9162.00,0.53
9161.00,0.53
9160.00,0.53
9159.00,0.53
9158.00,0.53
9157.00,0.53
9156.00,0.52
9155.00,0.52
9154.00,0.52
9153.00,0.52
9152.00,0.52
9151.00,0.51
9150.00,0.51
9149.00,0.51
9148.00,0.51
9147.00,0.51
9146.00,0.51
9145.00,0.51
9144.00,0.51
9143.00,0.51
9142.00,0.51
9141.00,0.51
9140.00,0.51
9139.00,0.51
9138.00,0.52
9137.00,0.52
9136.00,0.52
9135.00,0.52
9134.00,0.52
9133.00,0.52
9132.00,0.52
9131.00,0.52
9130.00,0.52
9129.00,0.52
9128.00,0.52
9127.00,0.52
9126.00,0.52
9125.00,0.52
9124.00,0.52
9123.00,0.52
9122.00,0.52
9121.00,0.52
9120.00,0.52
9119.00,0.52
9118.00,0.52
9117.00,0.52
9116.00,0.52
9115.00,0.52
9114.00,0.52
9113.00,0.52
9112.00,0.52
9111.00,0.52
9110.00,0.52
9109.00,0.52
9108.00,0.52
9107.00,0.52
9106.00,0.52
9105.00,0.52
9104.00,0.52
9103.00,0.52
9102.00,0.52
9101.00,0.52
9100.00,0.52
9099.00,0.52
9098.00,0.52
9097.00,0.52
9096.00,0.52
9095.00,0.52
9094.00,0.52
9093.00,0.52
9092.00,0.52
9091.00,0.52
9090.00,0.52
9089.00,0.53
9088.00,0.53
9087.00,0.53
9086.00,0.53
9085.00,0.53
9084.00,0.53
9083.00,0.53
9082.00,0.53
9081.00,0.53
9080.00,0.53
9079.00,0.53
9078.00,0.53
9077.00,0.53
9076.00,0.53
9075.00,0.53
9074.00,0.53
9073.00,0.53
9072.00,0.52
9071.00,0.52
9070.00,0.52
9069.00,0.52
9068.00,0.52
9067.00,0.52
9066.00,0.51
9065.00,0.51
9064.00,0.51
9063.00,0.51
9062.00,0.51
9061.00,0.51
9060.00,0.51
9059.00,0.51
9058.00,0.52
9057.00,0.52
9056.00,0.52
9055.00,0.52
9054.00,0.52
9053.00,0.52
9052.00,0.52
9051.00,0.52
9050.00,0.52
9049.00,0.53
9048.00,0.53
9047.00,0.53
9046.00,0.53
9045.00,0.53
9044.00,0.53
9043.00,0.53
9042.00,0.53
9041.00,0.53
9040.00,0.53
9039.00,0.53
9038.00,0.53
9037.00,0.54
9036.00,0.54
9035.00,0.54
9034.00,0.54
9033.00,0.54
9032.00,0.54
9031.00,0.55
9030.00,0.55
9029.00,0.55
9028.00,0.55
9027.00,0.55
9026.00,0.55
9025.00,0.55
9024.00,0.55
9023.00,0.55
9022.00,0.55
9021.00,0.55
9020.00,0.55
9019.00,0.55
9018.00,0.55
9017.00,0.55
9016.00,0.55
9015.00,0.55
9014.00,0.54
9013.00,0.54
9012.00,0.54
9011.00,0.54
9010.00,0.54
9009.00,0.53
9008.00,0.53
9007.00,0.53
9006.00,0.53
9005.00,0.53
9004.00,0.52
9003.00,0.52
9002.00,0.52
9001.00,0.52
9000.00,0.52
8999.00,0.51
8998.00,0.51
8997.00,0.51
8996.00,0.51
8995.00,0.51
8994.00,0.51
8993.00,0.51
8992.00,0.50
8991.00,0.50
8990.00,0.50
8989.00,0.50
8988.00,0.50
8987.00,0.50
8986.00,0.50
8985.00,0.50
8984.00,0.50
8983.00,0.50
8982.00,0.50
8981.00,0.50
8980.00,0.50
8979.00,0.50
8978.00,0.50
8977.00,0.50
8976.00,0.50
8975.00,0.50
8974.00,0.50
8973.00,0.50
8972.00,0.50
8971.00,0.50
8970.00,0.50
8969.00,0.50
8968.00,0.50
8967.00,0.50
8966.00,0.50
8965.00,0.50
8964.00,0.50
8963.00,0.51
8962.00,0.51
8961.00,0.51
8960.00,0.51
8959.00,0.51
8958.00,0.51
8957.00,0.51
8956.00,0.51
8955.00,0.51
8954.00,0.51
8953.00,0.51
8952.00,0.51
8951.00,0.51
8950.00,0.51
8949.00,0.51
8948.00,0.51
8947.00,0.51
8946.00,0.52
8945.00,0.52
8944.00,0.52
8943.00,0.52
8942.00,0.52
8941.00,0.52
8940.00,0.52
8939.00,0.52
8938.00,0.52
8937.00,0.53
8936.00,0.53
8935.00,0.53
8934.00,0.53
8933.00,0.53
8932.00,0.53
8931.00,0.53
8930.00,0.53
8929.00,0.53
8928.00,0.53
8927.00,0.53
8926.00,0.53
8925.00,0.52
8924.00,0.52
8923.00,0.52
8922.00,0.52
8921.00,0.52
8920.00,0.52
8919.00,0.52
8918.00,0.52
8917.00,0.52
8916.00,0.52
8915.00,0.52
8914.00,0.52
8913.00,0.52
8912.00,0.52
8911.00,0.52
8910.00,0.52
8909.00,0.52
8908.00,0.52
8907.00,0.52
8906.00,0.52
8905.00,0.52
8904.00,0.52
8903.00,0.52
8902.00,0.52
8901.00,0.52
8900.00,0.52
8899.00,0.52
8898.00,0.52
8897.00,0.52
8896.00,0.52
8895.00,0.52
8894.00,0.52
8893.00,0.52
8892.00,0.52
8891.00,0.52
8890.00,0.52
8889.00,0.52
8888.00,0.52
8887.00,0.52
8886.00,0.53
8885.00,0.53
8884.00,0.53
8883.00,0.53
8882.00,0.53
8881.00,0.53
8880.00,0.53
8879.00,0.53
8878.00,0.53
8877.00,0.52
8876.00,0.52
8875.00,0.52
8874.00,0.52
8873.00,0.52
8872.00,0.52
8871.00,0.52
8870.00,0.52
8869.00,0.52
8868.00,0.52
8867.00,0.52
8866.00,0.52
8865.00,0.52
8864.00,0.52
8863.00,0.52
8862.00,0.52
8861.00,0.52
8860.00,0.52
8859.00,0.52
8858.00,0.52
8857.00,0.52
8856.00,0.51
8855.00,0.51
8854.00,0.51
8853.00,0.51
8852.00,0.51
8851.00,0.51
8850.00,0.51
8849.00,0.51
8848.00,0.51
8847.00,0.51
8846.00,0.51
8845.00,0.51
8844.00,0.51
8843.00,0.51
8842.00,0.51
8841.00,0.51
8840.00,0.51
8839.00,0.51
8838.00,0.51
8837.00,0.51
8836.00,0.51
8835.00,0.51
8834.00,0.51
8833.00,0.51
8832.00,0.51
8831.00,0.51
8830.00,0.51
8829.00,0.51
8828.00,0.51
8827.00,0.51
8826.00,0.51
8825.00,0.50
8824.00,0.50
8823.00,0.50
8822.00,0.50
8821.00,0.50
8820.00,0.50
8819.00,0.50
8818.00,0.50
8817.00,0.50
8816.00,0.50
8815.00,0.50
8814.00,0.51
8813.00,0.51
8812.00,0.51
8811.00,0.51
8810.00,0.51
8809.00,0.51
8808.00,0.52
8807.00,0.52
8806.00,0.52
8805.00,0.52
8804.00,0.52
8803.00,0.52
8802.00,0.52
8801.00,0.52
8800.00,0.52
8799.00,0.52
8798.00,0.52
8797.00,0.52
8796.00,0.52
8795.00,0.52
8794.00,0.52
8793.00,0.52
8792.00,0.52
8791.00,0.52
8790.00,0.52
8789.00,0.51
8788.00,0.51
8787.00,0.51
8786.00,0.51
8785.00,0.51
8784.00,0.51
8783.00,0.51
8782.00,0.51
8781.00,0.51
8780.00,0.51
8779.00,0.51
8778.00,0.51
8777.00,0.51
8776.00,0.51
8775.00,0.51
8774.00,0.51
8773.00,0.51
8772.00,0.51
8771.00,0.51
8770.00,0.51
8769.00,0.51
8768.00,0.52
8767.00,0.52
8766.00,0.52
8765.00,0.52
8764.00,0.52
8763.00,0.52
8762.00,0.52
8761.00,0.52
8760.00,0.52
8759.00,0.52
8758.00,0.52
8757.00,0.52
8756.00,0.52
8755.00,0.52
8754.00,0.53
8753.00,0.53
8752.00,0.53
8751.00,0.53
8750.00,0.53
8749.00,0.53
8748.00,0.53
8747.00,0.53
8746.00,0.53
8745.00,0.53
8744.00,0.53
8743.00,0.53
8742.00,0.53
8741.00,0.53
8740.00,0.53
8739.00,0.53
8738.00,0.53
8737.00,0.53
8736.00,0.53
8735.00,0.53
8734.00,0.53
8733.00,0.53
8732.00,0.53
8731.00,0.53
8730.00,0.53
8729.00,0.53
8728.00,0.53
8727.00,0.53
8726.00,0.52
8725.00,0.52
8724.00,0.52
8723.00,0.52
8722.00,0.52
8721.00,0.51
8720.00,0.51
8719.00,0.51
8718.00,0.51
8717.00,0.51
8716.00,0.51
8715.00,0.51
8714.00,0.51
8713.00,0.51
8712.00,0.51
8711.00,0.51
8710.00,0.51
8709.00,0.51
8708.00,0.51
8707.00,0.51
8706.00,0.51
8705.00,0.51
8704.00,0.51
8703.00,0.51
8702.00,0.51
8701.00,0.51
8700.00,0.51
8699.00,0.51
8698.00,0.51
8697.00,0.51
8696.00,0.50
8695.00,0.50
8694.00,0.50
8693.00,0.50
8692.00,0.50
8691.00,0.50
8690.00,0.50
8689.00,0.50
8688.00,0.50
8687.00,0.50
8686.00,0.50
8685.00,0.50
8684.00,0.50
8683.00,0.51
8682.00,0.51
8681.00,0.51
8680.00,0.51
8679.00,0.51
8678.00,0.51
8677.00,0.51
8676.00,0.51
8675.00,0.51
8674.00,0.51
8673.00,0.51
8672.00,0.51
8671.00,0.51
8670.00,0.51
8669.00,0.51
8668.00,0.51
8667.00,0.51
8666.00,0.51
8665.00,0.51
8664.00,0.51
8663.00,0.51
8662.00,0.51
8661.00,0.50
8660.00,0.50
8659.00,0.50
8658.00,0.50
8657.00,0.50
8656.00,0.50
8655.00,0.50
8654.00,0.50
8653.00,0.50
8652.00,0.50
8651.00,0.50
8650.00,0.51
8649.00,0.51
8648.00,0.51
8647.00,0.51
8646.00,0.51
8645.00,0.51
8644.00,0.51
8643.00,0.51
8642.00,0.51
8641.00,0.52
8640.00,0.52
8639.00,0.52
8638.00,0.52
8637.00,0.52
8636.00,0.52
8635.00,0.52
8634.00,0.52
8633.00,0.51
8632.00,0.51
8631.00,0.51
8630.00,0.51
8629.00,0.51
8628.00,0.51
8627.00,0.51
8626.00,0.51
8625.00,0.50
8624.00,0.50
8623.00,0.50
8622.00,0.50
8621.00,0.50
8620.00,0.50
8619.00,0.50
8618.00,0.50
8617.00,0.50
8616.00,0.50
8615.00,0.50
8614.00,0.50
8613.00,0.50
8612.00,0.50
8611.00,0.50
8610.00,0.50
8609.00,0.50
8608.00,0.50
8607.00,0.51
8606.00,0.51
8605.00,0.51
8604.00,0.51
8603.00,0.51
8602.00,0.51
8601.00,0.51
8600.00,0.51
8599.00,0.51
8598.00,0.51
8597.00,0.51
8596.00,0.51
8595.00,0.51
8594.00,0.51
8593.00,0.51
8592.00,0.51
8591.00,0.51
8590.00,0.51
8589.00,0.51
8588.00,0.51
8587.00,0.51
8586.00,0.51
8585.00,0.51
8584.00,0.51
8583.00,0.51
8582.00,0.51
8581.00,0.51
8580.00,0.51
8579.00,0.51
8578.00,0.51
8577.00,0.51
8576.00,0.51
8575.00,0.51
8574.00,0.51
8573.00,0.51
8572.00,0.51
8571.00,0.51
8570.00,0.51
8569.00,0.51
8568.00,0.51
8567.00,0.51
8566.00,0.50
8565.00,0.50
8564.00,0.50
8563.00,0.50
8562.00,0.50
8561.00,0.50
8560.00,0.49
8559.00,0.49
8558.00,0.49
8557.00,0.49
8556.00,0.49
8555.00,0.49
8554.00,0.49
8553.00,0.49
8552.00,0.49
8551.00,0.49
8550.00,0.49
8549.00,0.49
8548.00,0.49
8547.00,0.49
8546.00,0.49
8545.00,0.49
8544.00,0.49
8543.00,0.49
8542.00,0.49
8541.00,0.49
8540.00,0.50
8539.00,0.50
8538.00,0.50
8537.00,0.50
8536.00,0.50
8535.00,0.50
8534.00,0.50
8533.00,0.50
8532.00,0.50
8531.00,0.50
8530.00,0.50
8529.00,0.50
8528.00,0.50
8527.00,0.50
8526.00,0.50
8525.00,0.50
8524.00,0.50
8523.00,0.50
8522.00,0.50
8521.00,0.50
8520.00,0.50
8519.00,0.50
8518.00,0.50
8517.00,0.49
8516.00,0.49
8515.00,0.49
8514.00,0.49
8513.00,0.49
8512.00,0.49
8511.00,0.50
8510.00,0.50
8509.00,0.50
8508.00,0.50
8507.00,0.50
8506.00,0.50
8505.00,0.50
8504.00,0.50
8503.00,0.50
8502.00,0.50
8501.00,0.49
8500.00,0.49
8499.00,0.49
8498.00,0.49
8497.00,0.49
8496.00,0.49
8495.00,0.49
8494.00,0.49
8493.00,0.49
8492.00,0.49
8491.00,0.49
8490.00,0.49
8489.00,0.49
8488.00,0.49
8487.00,0.49
8486.00,0.49
8485.00,0.49
8484.00,0.49
8483.00,0.49
8482.00,0.49
8481.00,0.49
8480.00,0.49
8479.00,0.49
8478.00,0.49
8477.00,0.49
8476.00,0.49
8475.00,0.49
8474.00,0.49
8473.00,0.49
8472.00,0.49
8471.00,0.49
8470.00,0.49
8469.00,0.49
8468.00,0.49
8467.00,0.49
8466.00,0.49
8465.00,0.49
8464.00,0.49
8463.00,0.49
8462.00,0.49
8461.00,0.49
8460.00,0.48
8459.00,0.48
8458.00,0.48
8457.00,0.48
8456.00,0.48
8455.00,0.48
8454.00,0.48
8453.00,0.48
8452.00,0.48
8451.00,0.47
8450.00,0.47
8449.00,0.47
8448.00,0.47
8447.00,0.47
8446.00,0.47
8445.00,0.47
8444.00,0.47
8443.00,0.47
8442.00,0.47
8441.00,0.47
8440.00,0.47
8439.00,0.47
8438.00,0.47
8437.00,0.47
8436.00,0.47
8435.00,0.47
8434.00,0.47
8433.00,0.47
8432.00,0.47
8431.00,0.47
8430.00,0.47
8429.00,0.47
8428.00,0.47
8427.00,0.47
8426.00,0.47
8425.00,0.47
8424.00,0.48
8423.00,0.48
8422.00,0.48
8421.00,0.48
8420.00,0.48
8419.00,0.48
8418.00,0.48
8417.00,0.48
8416.00,0.48
8415.00,0.48
8414.00,0.48
8413.00,0.48
8412.00,0.48
8411.00,0.48
8410.00,0.48
8409.00,0.48
8408.00,0.48
8407.00,0.48
8406.00,0.48
8405.00,0.48
8404.00,0.48
8403.00,0.48
8402.00,0.48
8401.00,0.48
8400.00,0.48
8399.00,0.48
8398.00,0.48
8397.00,0.48
8396.00,0.48
8395.00,0.48
8394.00,0.48
8393.00,0.48
8392.00,0.48
8391.00,0.48
8390.00,0.48
8389.00,0.48
8388.00,0.48
8387.00,0.48
8386.00,0.48
8385.00,0.48
8384.00,0.48
8383.00,0.48
8382.00,0.48
8381.00,0.48
8380.00,0.48
8379.00,0.48
8378.00,0.48
8377.00,0.48
8376.00,0.48
8375.00,0.49
8374.00,0.49
8373.00,0.49
8372.00,0.49
8371.00,0.49
8370.00,0.49
8369.00,0.49
8368.00,0.49
8367.00,0.49
8366.00,0.49
8365.00,0.50
8364.00,0.50
8363.00,0.50
8362.00,0.50
8361.00,0.50
8360.00,0.50
8359.00,0.50
8358.00,0.50
8357.00,0.50
8356.00,0.50
8355.00,0.50
8354.00,0.50
8353.00,0.50
8352.00,0.51
8351.00,0.51
8350.00,0.51
8349.00,0.51
8348.00,0.51
8347.00,0.51
8346.00,0.51
8345.00,0.51
8344.00,0.51
8343.00,0.51
8342.00,0.51
8341.00,0.51
8340.00,0.51
8339.00,0.51
8338.00,0.51
8337.00,0.51
8336.00,0.51
8335.00,0.51
8334.00,0.51
8333.00,0.50
8332.00,0.50
8331.00,0.50
8330.00,0.50
8329.00,0.50
8328.00,0.50
8327.00,0.50
8326.00,0.50
8325.00,0.50
8324.00,0.50
8323.00,0.50
8322.00,0.50
8321.00,0.50
8320.00,0.50
8319.00,0.50
8318.00,0.50
8317.00,0.50
8316.00,0.50
8315.00,0.50
8314.00,0.50
8313.00,0.50
8312.00,0.50
8311.00,0.50
8310.00,0.50
8309.00,0.50
8308.00,0.50
8307.00,0.50
8306.00,0.50
8305.00,0.50
8304.00,0.50
8303.00,0.50
8302.00,0.50
8301.00,0.49
8300.00,0.49
8299.00,0.49
8298.00,0.49
8297.00,0.49
8296.00,0.49
8295.00,0.49
8294.00,0.49
8293.00,0.49
8292.00,0.49
8291.00,0.49
8290.00,0.49
8289.00,0.49
8288.00,0.49
8287.00,0.49
8286.00,0.49
8285.00,0.49
8284.00,0.49
8283.00,0.49
8282.00,0.49
8281.00,0.49
8280.00,0.49
8279.00,0.49
8278.00,0.49
8277.00,0.49
8276.00,0.49
8275.00,0.49
8274.00,0.49
8273.00,0.49
8272.00,0.49
8271.00,0.49
8270.00,0.49
8269.00,0.49
8268.00,0.49
8267.00,0.49
8266.00,0.49
8265.00,0.49
8264.00,0.49
8263.00,0.49
8262.00,0.49
8261.00,0.49
8260.00,0.49
8259.00,0.49
8258.00,0.49
8257.00,0.49
8256.00,0.49
8255.00,0.49
8254.00,0.49
8253.00,0.49
8252.00,0.49
8251.00,0.49
8250.00,0.49
8249.00,0.49
8248.00,0.49
8247.00,0.49
8246.00,0.49
8245.00,0.49
8244.00,0.49
8243.00,0.50
8242.00,0.50
8241.00,0.50
8240.00,0.50
8239.00,0.50
8238.00,0.50
8237.00,0.50
8236.00,0.50
8235.00,0.50
8234.00,0.50
8233.00,0.50
8232.00,0.50
8231.00,0.50
8230.00,0.50
8229.00,0.50
8228.00,0.50
8227.00,0.50
8226.00,0.50
8225.00,0.50
8224.00,0.50
8223.00,0.50
8222.00,0.50
8221.00,0.50
8220.00,0.50
8219.00,0.50
8218.00,0.50
8217.00,0.50
8216.00,0.50
8215.00,0.50
8214.00,0.50
8213.00,0.51
8212.00,0.51
8211.00,0.51
8210.00,0.51
8209.00,0.51
8208.00,0.51
8207.00,0.51
8206.00,0.51
8205.00,0.52
8204.00,0.52
8203.00,0.52
8202.00,0.52
8201.00,0.52
8200.00,0.52
8199.00,0.52
8198.00,0.52
8197.00,0.52
8196.00,0.53
8195.00,0.53
8194.00,0.53
8193.00,0.53
8192.00,0.53
8191.00,0.53
8190.00,0.53
8189.00,0.53
8188.00,0.53
8187.00,0.53
8186.00,0.53
8185.00,0.53
8184.00,0.52
8183.00,0.52
8182.00,0.52
8181.00,0.52
8180.00,0.52
8179.00,0.52
8178.00,0.52
8177.00,0.51
8176.00,0.51
8175.00,0.51
8174.00,0.51
8173.00,0.51
8172.00,0.51
8171.00,0.51
8170.00,0.51
8169.00,0.51
8168.00,0.51
8167.00,0.51
8166.00,0.51
8165.00,0.51
8164.00,0.52
8163.00,0.52
8162.00,0.52
8161.00,0.52
8160.00,0.52
8159.00,0.52
8158.00,0.52
8157.00,0.52
8156.00,0.52
8155.00,0.52
8154.00,0.52
8153.00,0.52
8152.00,0.52
8151.00,0.53
8150.00,0.53
8149.00,0.53
8148.00,0.53
8147.00,0.53
8146.00,0.53
8145.00,0.52
8144.00,0.52
8143.00,0.52
8142.00,0.52
8141.00,0.52
8140.00,0.52
8139.00,0.52
8138.00,0.53
8137.00,0.53
8136.00,0.53
8135.00,0.53
8134.00,0.53
8133.00,0.53
8132.00,0.53
8131.00,0.53
8130.00,0.53
8129.00,0.52
8128.00,0.52
8127.00,0.52
8126.00,0.52
8125.00,0.52
8124.00,0.52
8123.00,0.52
8122.00,0.52
8121.00,0.52
8120.00,0.52
8119.00,0.52
8118.00,0.52
8117.00,0.52
8116.00,0.51
8115.00,0.51
8114.00,0.51
8113.00,0.51
8112.00,0.51
8111.00,0.52
8110.00,0.52
8109.00,0.52
8108.00,0.52
8107.00,0.52
8106.00,0.52
8105.00,0.52
8104.00,0.52
8103.00,0.52
8102.00,0.53
8101.00,0.53
8100.00,0.53
8099.00,0.53
8098.00,0.53
8097.00,0.53
8096.00,0.54
8095.00,0.54
8094.00,0.54
8093.00,0.54
8092.00,0.54
8091.00,0.54
8090.00,0.54
8089.00,0.54
8088.00,0.54
8087.00,0.54
8086.00,0.54
8085.00,0.54
8084.00,0.54
8083.00,0.54
8082.00,0.54
8081.00,0.54
8080.00,0.54
8079.00,0.54
8078.00,0.54
8077.00,0.54
8076.00,0.54
8075.00,0.54
8074.00,0.54
8073.00,0.54
8072.00,0.54
8071.00,0.54
8070.00,0.54
8069.00,0.54
8068.00,0.54
8067.00,0.54
8066.00,0.54
8065.00,0.54
8064.00,0.54
8063.00,0.54
8062.00,0.54
8061.00,0.54
8060.00,0.54
8059.00,0.54
8058.00,0.54
8057.00,0.54
8056.00,0.54
8055.00,0.54
8054.00,0.54
8053.00,0.54
8052.00,0.54
8051.00,0.54
8050.00,0.54
8049.00,0.54
8048.00,0.54
8047.00,0.54
8046.00,0.54
8045.00,0.54
8044.00,0.54
8043.00,0.54
8042.00,0.54
8041.00,0.54
8040.00,0.54
8039.00,0.54
8038.00,0.54
8037.00,0.54
8036.00,0.54
8035.00,0.54
8034.00,0.53
8033.00,0.53
8032.00,0.53
8031.00,0.53
8030.00,0.53
8029.00,0.53
8028.00,0.53
8027.00,0.53
8026.00,0.53
8025.00,0.53
8024.00,0.53
8023.00,0.53
8022.00,0.53
8021.00,0.53
8020.00,0.53
8019.00,0.53
8018.00,0.53
8017.00,0.53
8016.00,0.53
8015.00,0.53
8014.00,0.54
8013.00,0.54
8012.00,0.54
8011.00,0.54
8010.00,0.54
8009.00,0.54
8008.00,0.54
8007.00,0.54
8006.00,0.54
8005.00,0.54
8004.00,0.54
8003.00,0.54
8002.00,0.54
8001.00,0.53
8000.00,0.53
7999.00,0.53
7998.00,0.53
7997.00,0.53
7996.00,0.53
7995.00,0.53
7994.00,0.53
7993.00,0.53
7992.00,0.53
7991.00,0.53
7990.00,0.53
7989.00,0.53
7988.00,0.53
7987.00,0.53
7986.00,0.53
7985.00,0.53
7984.00,0.53
7983.00,0.53
7982.00,0.53
7981.00,0.54
7980.00,0.54
7979.00,0.54
7978.00,0.54
7977.00,0.54
7976.00,0.54
7975.00,0.54
7974.00,0.54
7973.00,0.54
7972.00,0.54
7971.00,0.54
7970.00,0.54
7969.00,0.54
7968.00,0.54
7967.00,0.54
7966.00,0.54
7965.00,0.54
7964.00,0.54
7963.00,0.54
7962.00,0.54
7961.00,0.53
7960.00,0.53
7959.00,0.53
7958.00,0.53
7957.00,0.53
7956.00,0.53
7955.00,0.53
7954.00,0.53
7953.00,0.53
7952.00,0.53
7951.00,0.53
7950.00,0.53
7949.00,0.53
7948.00,0.53
7947.00,0.53
7946.00,0.53
7945.00,0.53
7944.00,0.53
7943.00,0.53
7942.00,0.53
7941.00,0.53
7940.00,0.53
7939.00,0.53
7938.00,0.53
7937.00,0.53
7936.00,0.53
7935.00,0.53
7934.00,0.53
7933.00,0.54
7932.00,0.54
7931.00,0.54
7930.00,0.54
7929.00,0.54
7928.00,0.54
7927.00,0.54
7926.00,0.54
7925.00,0.54
7924.00,0.54
7923.00,0.53
7922.00,0.53
7921.00,0.53
7920.00,0.53
7919.00,0.53
7918.00,0.53
7917.00,0.53
7916.00,0.53
7915.00,0.53
7914.00,0.53
7913.00,0.54
7912.00,0.54
7911.00,0.54
7910.00,0.54
7909.00,0.54
7908.00,0.54
7907.00,0.54
7906.00,0.54
7905.00,0.54
7904.00,0.54
7903.00,0.54
7902.00,0.54
7901.00,0.54
7900.00,0.54
7899.00,0.54
7898.00,0.54
7897.00,0.54
7896.00,0.54
7895.00,0.54
7894.00,0.54
7893.00,0.54
7892.00,0.54
7891.00,0.54
7890.00,0.54
7889.00,0.54
7888.00,0.54
7887.00,0.54
7886.00,0.54
7885.00,0.54
7884.00,0.54
7883.00,0.54
7882.00,0.54
7881.00,0.54
7880.00,0.54
7879.00,0.54
7878.00,0.54
7877.00,0.54
7876.00,0.54
7875.00,0.54
7874.00,0.54
7873.00,0.54
7872.00,0.54
7871.00,0.54
7870.00,0.54
7869.00,0.54
7868.00,0.54
7867.00,0.54
7866.00,0.53
7865.00,0.53
7864.00,0.53
7863.00,0.53
7862.00,0.53
7861.00,0.53
7860.00,0.53
7859.00,0.53
7858.00,0.53
7857.00,0.53
7856.00,0.53
7855.00,0.53
7854.00,0.53
7853.00,0.53
7852.00,0.54
7851.00,0.54
7850.00,0.54
7849.00,0.54
7848.00,0.54
7847.00,0.54
7846.00,0.54
7845.00,0.54
7844.00,0.54
7843.00,0.54
7842.00,0.54
7841.00,0.54
7840.00,0.54
7839.00,0.54
7838.00,0.54
7837.00,0.54
7836.00,0.54
7835.00,0.54
7834.00,0.54
7833.00,0.54
7832.00,0.54
7831.00,0.54
7830.00,0.54
7829.00,0.54
7828.00,0.54
7827.00,0.54
7826.00,0.54
7825.00,0.54
7824.00,0.54
7823.00,0.54
7822.00,0.54
7821.00,0.55
7820.00,0.55
7819.00,0.55
7818.00,0.54
7817.00,0.54
7816.00,0.54
7815.00,0.54
7814.00,0.54
7813.00,0.54
7812.00,0.54
7811.00,0.54
7810.00,0.54
7809.00,0.54
7808.00,0.54
7807.00,0.54
7806.00,0.54
7805.00,0.54
7804.00,0.54
7803.00,0.54
7802.00,0.54
7801.00,0.54
7800.00,0.54
7799.00,0.54
7798.00,0.54
7797.00,0.54
7796.00,0.54
7795.00,0.54
7794.00,0.54
7793.00,0.54
7792.00,0.54
7791.00,0.54
7790.00,0.54
7789.00,0.54
7788.00,0.54
7787.00,0.54
7786.00,0.54
7785.00,0.54
7784.00,0.54
7783.00,0.54
7782.00,0.54
7781.00,0.55
7780.00,0.55
7779.00,0.55
7778.00,0.55
7777.00,0.55
7776.00,0.55
7775.00,0.55
7774.00,0.55
7773.00,0.55
7772.00,0.55
7771.00,0.55
7770.00,0.55
7769.00,0.55
7768.00,0.55
7767.00,0.55
7766.00,0.55
7765.00,0.55
7764.00,0.55
7763.00,0.55
7762.00,0.55
7761.00,0.55
7760.00,0.55
7759.00,0.55
7758.00,0.55
7757.00,0.55
7756.00,0.55
7755.00,0.55
7754.00,0.55
7753.00,0.55
7752.00,0.55
7751.00,0.55
7750.00,0.55
7749.00,0.55
7748.00,0.55
7747.00,0.55
7746.00,0.55
7745.00,0.55
7744.00,0.55
7743.00,0.55
7742.00,0.55
7741.00,0.55
7740.00,0.55
7739.00,0.55
7738.00,0.55
7737.00,0.55
7736.00,0.55
7735.00,0.55
7734.00,0.55
7733.00,0.55
7732.00,0.55
7731.00,0.55
7730.00,0.55
7729.00,0.55
7728.00,0.55
7727.00,0.55
7726.00,0.54
7725.00,0.54
7724.00,0.54
7723.00,0.54
7722.00,0.54
7721.00,0.55
7720.00,0.55
7719.00,0.55
7718.00,0.55
7717.00,0.55
7716.00,0.55
7715.00,0.55
7714.00,0.55
7713.00,0.55
7712.00,0.55
7711.00,0.55
7710.00,0.55
7709.00,0.55
7708.00,0.55
7707.00,0.56
7706.00,0.56
7705.00,0.55
7704.00,0.55
7703.00,0.55
7702.00,0.55
7701.00,0.55
7700.00,0.55
7699.00,0.55
7698.00,0.55
7697.00,0.55
7696.00,0.55
7695.00,0.55
7694.00,0.55
7693.00,0.55
7692.00,0.55
7691.00,0.55
7690.00,0.55
7689.00,0.55
7688.00,0.55
7687.00,0.55
7686.00,0.55
7685.00,0.55
7684.00,0.55
7683.00,0.55
7682.00,0.55
7681.00,0.55
7680.00,0.55
7679.00,0.55
7678.00,0.55
7677.00,0.55
7676.00,0.55
7675.00,0.55
7674.00,0.55
7673.00,0.55
7672.00,0.55
7671.00,0.55
7670.00,0.55
7669.00,0.55
7668.00,0.55
7667.00,0.55
7666.00,0.55
7665.00,0.55
7664.00,0.55
7663.00,0.55
7662.00,0.55
7661.00,0.55
7660.00,0.55
7659.00,0.55
7658.00,0.55
7657.00,0.55
7656.00,0.55
7655.00,0.55
7654.00,0.55
7653.00,0.55
7652.00,0.55
7651.00,0.55
7650.00,0.55
7649.00,0.55
7648.00,0.55
7647.00,0.55
7646.00,0.55
7645.00,0.55
7644.00,0.55
7643.00,0.55
7642.00,0.55
7641.00,0.55
7640.00,0.55
7639.00,0.55
7638.00,0.55
7637.00,0.55
7636.00,0.55
7635.00,0.55
7634.00,0.55
7633.00,0.55
7632.00,0.55
7631.00,0.55
7630.00,0.55
7629.00,0.55
7628.00,0.54
7627.00,0.54
7626.00,0.54
7625.00,0.54
7624.00,0.54
7623.00,0.54
7622.00,0.54
7621.00,0.54
7620.00,0.54
7619.00,0.55
7618.00,0.55
7617.00,0.55
7616.00,0.55
7615.00,0.55
7614.00,0.55
7613.00,0.55
7612.00,0.55
7611.00,0.55
7610.00,0.55
7609.00,0.55
7608.00,0.55
7607.00,0.55
7606.00,0.55
7605.00,0.55
7604.00,0.55
7603.00,0.55
7602.00,0.55
7601.00,0.55
7600.00,0.55
7599.00,0.55
7598.00,0.55
7597.00,0.55
7596.00,0.55
7595.00,0.55
7594.00,0.55
7593.00,0.55
7592.00,0.55
7591.00,0.55
7590.00,0.55
7589.00,0.55
7588.00,0.55
7587.00,0.55
7586.00,0.55
7585.00,0.55
7584.00,0.55
7583.00,0.55
7582.00,0.55
7581.00,0.55
7580.00,0.55
7579.00,0.55
7578.00,0.55
7577.00,0.55
7576.00,0.55
7575.00,0.55
7574.00,0.55
7573.00,0.55
7572.00,0.55
7571.00,0.55
7570.00,0.55
7569.00,0.55
7568.00,0.55
7567.00,0.55
7566.00,0.55
7565.00,0.55
7564.00,0.55
7563.00,0.55
7562.00,0.55
7561.00,0.55
7560.00,0.55
7559.00,0.55
7558.00,0.55
7557.00,0.55
7556.00,0.55
7555.00,0.55
7554.00,0.55
7553.00,0.55
7552.00,0.55
7551.00,0.55
7550.00,0.55
7549.00,0.55
7548.00,0.55
7547.00,0.55
7546.00,0.55
7545.00,0.55
7544.00,0.55
7543.00,0.55
7542.00,0.55
7541.00,0.55
7540.00,0.55
7539.00,0.55
7538.00,0.55
7537.00,0.55
7536.00,0.55
7535.00,0.55
7534.00,0.55
7533.00,0.56
7532.00,0.56
7531.00,0.56
7530.00,0.56
7529.00,0.56
7528.00,0.56
7527.00,0.56
7526.00,0.56
7525.00,0.56
7524.00,0.55
7523.00,0.55
7522.00,0.55
7521.00,0.55
7520.00,0.55
7519.00,0.55
7518.00,0.55
7517.00,0.55
7516.00,0.55
7515.00,0.55
7514.00,0.55
7513.00,0.55
7512.00,0.55
7511.00,0.55
7510.00,0.55
7509.00,0.55
7508.00,0.55
7507.00,0.54
7506.00,0.54
7505.00,0.54
7504.00,0.54
7503.00,0.54
7502.00,0.54
7501.00,0.54
7500.00,0.54
7499.00,0.54
7498.00,0.54
7497.00,0.54
7496.00,0.54
7495.00,0.54
7494.00,0.54
7493.00,0.54
7492.00,0.54
7491.00,0.54
7490.00,0.54
7489.00,0.54
7488.00,0.54
7487.00,0.54
7486.00,0.54
7485.00,0.54
7484.00,0.54
7483.00,0.54
7482.00,0.54
7481.00,0.54
7480.00,0.54
7479.00,0.54
7478.00,0.54
7477.00,0.54
7476.00,0.54
7475.00,0.54
7474.00,0.54
7473.00,0.54
7472.00,0.54
7471.00,0.54
7470.00,0.54
7469.00,0.54
7468.00,0.54
7467.00,0.54
7466.00,0.54
7465.00,0.54
7464.00,0.54
7463.00,0.54
7462.00,0.54
7461.00,0.54
7460.00,0.54
7459.00,0.54
7458.00,0.54
7457.00,0.54
7456.00,0.54
7455.00,0.54
7454.00,0.54
7453.00,0.54
7452.00,0.54
7451.00,0.54
7450.00,0.54
7449.00,0.54
7448.00,0.54
7447.00,0.54
7446.00,0.54
7445.00,0.54
7444.00,0.54
7443.00,0.54
7442.00,0.54
7441.00,0.54
7440.00,0.53
7439.00,0.53
7438.00,0.53
7437.00,0.53
7436.00,0.53
7435.00,0.53
7434.00,0.53
7433.00,0.53
7432.00,0.53
7431.00,0.53
7430.00,0.53
7429.00,0.53
7428.00,0.53
7427.00,0.53
7426.00,0.53
7425.00,0.53
7424.00,0.53
7423.00,0.53
7422.00,0.53
7421.00,0.53
7420.00,0.53
7419.00,0.53
7418.00,0.53
7417.00,0.53
7416.00,0.53
7415.00,0.53
7414.00,0.53
7413.00,0.53
7412.00,0.53
7411.00,0.53
7410.00,0.53
7409.00,0.53
7408.00,0.53
7407.00,0.53
7406.00,0.53
7405.00,0.53
7404.00,0.53
7403.00,0.53
7402.00,0.53
7401.00,0.53
7400.00,0.53
7399.00,0.53
7398.00,0.53
7397.00,0.52
7396.00,0.52
7395.00,0.52
7394.00,0.52
7393.00,0.52
7392.00,0.52
7391.00,0.52
7390.00,0.52
7389.00,0.52
7388.00,0.52
7387.00,0.52
7386.00,0.52
7385.00,0.52
7384.00,0.51
7383.00,0.51
7382.00,0.51
7381.00,0.51
7380.00,0.51
7379.00,0.51
7378.00,0.51
7377.00,0.51
7376.00,0.51
7375.00,0.51
7374.00,0.51
7373.00,0.51
7372.00,0.51
7371.00,0.51
7370.00,0.51
7369.00,0.51
7368.00,0.51
7367.00,0.51
7366.00,0.51
7365.00,0.51
7364.00,0.51
7363.00,0.51
7362.00,0.51
7361.00,0.51
7360.00,0.51
7359.00,0.51
7358.00,0.51
7357.00,0.51
7356.00,0.51
7355.00,0.51
7354.00,0.51
7353.00,0.51
7352.00,0.51
7351.00,0.51
7350.00,0.51
7349.00,0.51
7348.00,0.51
7347.00,0.51
7346.00,0.51
7345.00,0.51
7344.00,0.51
7343.00,0.51
7342.00,0.51
7341.00,0.51
7340.00,0.50
7339.00,0.50
7338.00,0.50
7337.00,0.50
7336.00,0.50
7335.00,0.50
7334.00,0.50
7333.00,0.50
7332.00,0.50
7331.00,0.50
7330.00,0.50
7329.00,0.50
7328.00,0.50
7327.00,0.50
7326.00,0.50
7325.00,0.50
7324.00,0.50
7323.00,0.50
7322.00,0.50
7321.00,0.50
7320.00,0.50
7319.00,0.50
7318.00,0.50
7317.00,0.50
7316.00,0.50
7315.00,0.50
7314.00,0.50
7313.00,0.50
7312.00,0.50
7311.00,0.50
7310.00,0.50
7309.00,0.50
7308.00,0.50
7307.00,0.50
7306.00,0.50
7305.00,0.50
7304.00,0.50
7303.00,0.50
7302.00,0.50
7301.00,0.50
7300.00,0.50
7299.00,0.50
7298.00,0.50
7297.00,0.50
7296.00,0.50
7295.00,0.50
7294.00,0.50
7293.00,0.50
7292.00,0.50
7291.00,0.50
7290.00,0.50
7289.00,0.50
7288.00,0.50
7287.00,0.50
7286.00,0.50
7285.00,0.50
7284.00,0.49
7283.00,0.49
7282.00,0.49
7281.00,0.49
7280.00,0.49
7279.00,0.49
7278.00,0.49
7277.00,0.49
7276.00,0.49
7275.00,0.49
7274.00,0.49
7273.00,0.49
7272.00,0.49
7271.00,0.49
7270.00,0.49
7269.00,0.49
7268.00,0.49
7267.00,0.49
7266.00,0.48
7265.00,0.48
7264.00,0.48
7263.00,0.48
7262.00,0.48
7261.00,0.48
7260.00,0.48
7259.00,0.48
7258.00,0.48
7257.00,0.48
7256.00,0.48
7255.00,0.48
7254.00,0.48
7253.00,0.48
7252.00,0.48
7251.00,0.48
7250.00,0.48
7249.00,0.48
7248.00,0.48
7247.00,0.48
7246.00,0.48
7245.00,0.48
7244.00,0.48
7243.00,0.48
7242.00,0.48
7241.00,0.48
7240.00,0.48
7239.00,0.48
7238.00,0.47
7237.00,0.47
7236.00,0.47
7235.00,0.47
7234.00,0.47
7233.00,0.47
7232.00,0.46
7231.00,0.46
7230.00,0.46
7229.00,0.46
7228.00,0.46
7227.00,0.46
7226.00,0.46
7225.00,0.45
7224.00,0.45
7223.00,0.45
7222.00,0.45
7221.00,0.45
7220.00,0.45
7219.00,0.45
7218.00,0.45
7217.00,0.45
7216.00,0.44
7215.00,0.44
7214.00,0.44
7213.00,0.44
7212.00,0.44
7211.00,0.44
7210.00,0.44
7209.00,0.44
7208.00,0.43
7207.00,0.43
7206.00,0.43
7205.00,0.43
7204.00,0.43
7203.00,0.43
7202.00,0.43
7201.00,0.42
7200.00,0.42
7199.00,0.42
7198.00,0.42
7197.00,0.42
7196.00,0.42
7195.00,0.42
7194.00,0.41
7193.00,0.41
7192.00,0.41
7191.00,0.41
7190.00,0.41
7189.00,0.41
7188.00,0.41
7187.00,0.41
7186.00,0.41
7185.00,0.41
7184.00,0.41
7183.00,0.41
7182.00,0.41
7181.00,0.40
7180.00,0.40
7179.00,0.40
7178.00,0.40
7177.00,0.40
7176.00,0.40
7175.00,0.40
7174.00,0.40
7173.00,0.40
7172.00,0.40
7171.00,0.40
7170.00,0.39
7169.00,0.39
7168.00,0.39
7167.00,0.39
7166.00,0.39
7165.00,0.39
7164.00,0.39
7163.00,0.39
7162.00,0.39
7161.00,0.38
7160.00,0.38
7159.00,0.38
7158.00,0.38
7157.00,0.38
7156.00,0.38
7155.00,0.38
7154.00,0.38
7153.00,0.38
7152.00,0.38
7151.00,0.38
7150.00,0.38
7149.00,0.38
7148.00,0.38
7147.00,0.37
7146.00,0.37
7145.00,0.37
7144.00,0.37
7143.00,0.37
7142.00,0.37
7141.00,0.37
7140.00,0.37
7139.00,0.36
7138.00,0.36
7137.00,0.36
7136.00,0.36
7135.00,0.36
7134.00,0.36
7133.00,0.36
7132.00,0.36
7131.00,0.36
7130.00,0.36
7129.00,0.36
7128.00,0.36
7127.00,0.36
7126.00,0.36
7125.00,0.36
7124.00,0.36
7123.00,0.35
7122.00,0.35
7121.00,0.35
7120.00,0.35
7119.00,0.35
7118.00,0.35
7117.00,0.35
7116.00,0.35
7115.00,0.34
7114.00,0.34
7113.00,0.34
7112.00,0.34
7111.00,0.34
7110.00,0.34
7109.00,0.34
7108.00,0.33
7107.00,0.33
7106.00,0.33
7105.00,0.33
7104.00,0.33
7103.00,0.33
7102.00,0.33
7101.00,0.33
7100.00,0.33
7099.00,0.33
7098.00,0.32
7097.00,0.32
7096.00,0.32
7095.00,0.32
7094.00,0.32
7093.00,0.32
7092.00,0.32
7091.00,0.32
7090.00,0.32
7089.00,0.32
7088.00,0.32
7087.00,0.32
7086.00,0.31
7085.00,0.31
7084.00,0.31
7083.00,0.31
7082.00,0.31
7081.00,0.31
7080.00,0.31
7079.00,0.31
7078.00,0.31
7077.00,0.31
7076.00,0.31
7075.00,0.31
7074.00,0.31
7073.00,0.31
7072.00,0.31
7071.00,0.31
7070.00,0.31
7069.00,0.31
7068.00,0.31
7067.00,0.31
7066.00,0.31
7065.00,0.31
7064.00,0.30
7063.00,0.30
7062.00,0.30
7061.00,0.30
7060.00,0.30
7059.00,0.30
7058.00,0.30
7057.00,0.30
7056.00,0.30
7055.00,0.30
7054.00,0.30
7053.00,0.30
7052.00,0.30
7051.00,0.29
7050.00,0.29
7049.00,0.29
7048.00,0.29
7047.00,0.29
7046.00,0.29
7045.00,0.29
7044.00,0.29
7043.00,0.29
7042.00,0.29
7041.00,0.29
7040.00,0.29
7039.00,0.29
7038.00,0.29
7037.00,0.29
7036.00,0.29
7035.00,0.29
7034.00,0.29
7033.00,0.29
7032.00,0.29
7031.00,0.29
7030.00,0.29
7029.00,0.29
7028.00,0.29
7027.00,0.28
7026.00,0.28
7025.00,0.28
7024.00,0.28
7023.00,0.28
7022.00,0.28
7021.00,0.28
7020.00,0.28
7019.00,0.28
7018.00,0.28
7017.00,0.28
7016.00,0.28
7015.00,0.28
7014.00,0.28
7013.00,0.28
7012.00,0.28
7011.00,0.28
7010.00,0.28
7009.00,0.28
7008.00,0.28
7007.00,0.28
7006.00,0.28
7005.00,0.28
7004.00,0.28
7003.00,0.28
7002.00,0.28
7001.00,0.28
7000.00,0.28
6999.00,0.28
6998.00,0.28
6997.00,0.28
6996.00,0.28
6995.00,0.28
6994.00,0.28
6993.00,0.28
6992.00,0.28
6991.00,0.28
6990.00,0.28
6989.00,0.28
6988.00,0.28
6987.00,0.28
6986.00,0.28
6985.00,0.28
6984.00,0.28
6983.00,0.28
6982.00,0.28
6981.00,0.28
6980.00,0.28
6979.00,0.28
6978.00,0.28
6977.00,0.27
6976.00,0.27
6975.00,0.27
6974.00,0.27
6973.00,0.27
6972.00,0.27
6971.00,0.27
6970.00,0.27
6969.00,0.27
6968.00,0.27
6967.00,0.27
6966.00,0.27
6965.00,0.27
6964.00,0.27
6963.00,0.27
6962.00,0.27
6961.00,0.27
6960.00,0.27
6959.00,0.27
6958.00,0.27
6957.00,0.27
6956.00,0.27
6955.00,0.27
6954.00,0.27
6953.00,0.27
6952.00,0.27
6951.00,0.27
6950.00,0.27
6949.00,0.27
6948.00,0.27
6947.00,0.27
6946.00,0.27
6945.00,0.27
6944.00,0.27
6943.00,0.27
6942.00,0.27
6941.00,0.27
6940.00,0.27
6939.00,0.27
6938.00,0.27
6937.00,0.27
6936.00,0.27
6935.00,0.27
6934.00,0.27
6933.00,0.27
6932.00,0.26
6931.00,0.26
6930.00,0.26
6929.00,0.26
6928.00,0.26
6927.00,0.26
6926.00,0.26
6925.00,0.26
6924.00,0.26
6923.00,0.26
6922.00,0.26
6921.00,0.26
6920.00,0.26
6919.00,0.26
6918.00,0.26
6917.00,0.26
6916.00,0.26
6915.00,0.26
6914.00,0.26
6913.00,0.26
6912.00,0.26
6911.00,0.26
6910.00,0.26
6909.00,0.26
6908.00,0.26
6907.00,0.26
6906.00,0.26
6905.00,0.26
6904.00,0.26
6903.00,0.26
6902.00,0.26
6901.00,0.26
6900.00,0.26
6899.00,0.26
6898.00,0.26
6897.00,0.26
6896.00,0.26
6895.00,0.26
6894.00,0.26
6893.00,0.26
6892.00,0.26
6891.00,0.26
6890.00,0.26
6889.00,0.26
6888.00,0.26
6887.00,0.26
6886.00,0.26
6885.00,0.26
6884.00,0.26
6883.00,0.26
6882.00,0.26
6881.00,0.26
6880.00,0.26
6879.00,0.26
6878.00,0.26
6877.00,0.26
6876.00,0.26
6875.00,0.26
6874.00,0.26
6873.00,0.26
6872.00,0.26
6871.00,0.26
6870.00,0.26
6869.00,0.26
6868.00,0.26
6867.00,0.26
6866.00,0.26
6865.00,0.26
6864.00,0.26
6863.00,0.26
6862.00,0.26
6861.00,0.26
6860.00,0.26
6859.00,0.26
6858.00,0.26
6857.00,0.26
6856.00,0.26
6855.00,0.26
6854.00,0.26
6853.00,0.26
6852.00,0.26
6851.00,0.26
6850.00,0.26
6849.00,0.26
6848.00,0.26
6847.00,0.26
6846.00,0.26
6845.00,0.26
6844.00,0.26
6843.00,0.26
6842.00,0.26
6841.00,0.26
6840.00,0.26
6839.00,0.26
6838.00,0.26
6837.00,0.26
6836.00,0.26
6835.00,0.26
6834.00,0.26
6833.00,0.26
6832.00,0.26
6831.00,0.26
6830.00,0.26
6829.00,0.26
6828.00,0.26
6827.00,0.26
6826.00,0.26
6825.00,0.26
6824.00,0.26
6823.00,0.26
6822.00,0.26
6821.00,0.26
6820.00,0.26
6819.00,0.26
6818.00,0.26
6817.00,0.27
6816.00,0.27
6815.00,0.27
6814.00,0.27
6813.00,0.27
6812.00,0.27
6811.00,0.27
6810.00,0.27
6809.00,0.27
6808.00,0.27
6807.00,0.27
6806.00,0.27
6805.00,0.27
6804.00,0.27
6803.00,0.27
6802.00,0.27
6801.00,0.27
6800.00,0.27
6799.00,0.27
6798.00,0.27
6797.00,0.27
6796.00,0.27
6795.00,0.27
6794.00,0.27
6793.00,0.27
6792.00,0.27
6791.00,0.27
6790.00,0.27
6789.00,0.27
6788.00,0.28
6787.00,0.28
6786.00,0.28
6785.00,0.28
6784.00,0.28
6783.00,0.28
6782.00,0.28
6781.00,0.28
6780.00,0.28
6779.00,0.28
6778.00,0.28
6777.00,0.28
6776.00,0.28
6775.00,0.28
6774.00,0.28
6773.00,0.28
6772.00,0.28
6771.00,0.28
6770.00,0.28
6769.00,0.28
6768.00,0.28
6767.00,0.28
6766.00,0.28
6765.00,0.28
6764.00,0.28
6763.00,0.28
6762.00,0.28
6761.00,0.28
6760.00,0.28
6759.00,0.28
6758.00,0.28
6757.00,0.28
6756.00,0.28
6755.00,0.28
6754.00,0.28
6753.00,0.28
6752.00,0.28
6751.00,0.28
6750.00,0.28
6749.00,0.28
6748.00,0.28
6747.00,0.28
6746.00,0.28
6745.00,0.28
6744.00,0.28
6743.00,0.28
6742.00,0.28
6741.00,0.28
6740.00,0.28
6739.00,0.28
6738.00,0.28
6737.00,0.28
6736.00,0.28
6735.00,0.29
6734.00,0.29
6733.00,0.29
6732.00,0.29
6731.00,0.29
6730.00,0.29
6729.00,0.29
6728.00,0.29
6727.00,0.29
6726.00,0.29
6725.00,0.29
6724.00,0.29
6723.00,0.29
6722.00,0.29
6721.00,0.29
6720.00,0.29
6719.00,0.29
6718.00,0.29
6717.00,0.29
6716.00,0.29
6715.00,0.29
6714.00,0.29
6713.00,0.29
6712.00,0.29
6711.00,0.29
6710.00,0.29
6709.00,0.29
6708.00,0.29
6707.00,0.30
6706.00,0.30
6705.00,0.30
6704.00,0.30
6703.00,0.30
6702.00,0.30
6701.00,0.30
6700.00,0.30
6699.00,0.30
6698.00,0.30
6697.00,0.30
6696.00,0.30
6695.00,0.30
6694.00,0.30
6693.00,0.30
6692.00,0.30
6691.00,0.30
6690.00,0.30
6689.00,0.30
6688.00,0.30
6687.00,0.30
6686.00,0.30
6685.00,0.31
6684.00,0.31
6683.00,0.31
6682.00,0.31
6681.00,0.31
6680.00,0.31
6679.00,0.31
6678.00,0.31
6677.00,0.31
6676.00,0.31
6675.00,0.31
6674.00,0.31
6673.00,0.31
6672.00,0.31
6671.00,0.31
6670.00,0.31
6669.00,0.31
6668.00,0.31
6667.00,0.31
6666.00,0.31
6665.00,0.32
6664.00,0.32
6663.00,0.32
6662.00,0.32
6661.00,0.32
6660.00,0.32
6659.00,0.32
6658.00,0.32
6657.00,0.32
6656.00,0.32
6655.00,0.32
6654.00,0.32
6653.00,0.32
6652.00,0.32
6651.00,0.32
6650.00,0.32
6649.00,0.32
6648.00,0.32
6647.00,0.32
6646.00,0.32
6645.00,0.32
6644.00,0.32
6643.00,0.32
6642.00,0.32
6641.00,0.32
6640.00,0.32
6639.00,0.32
6638.00,0.32
6637.00,0.32
6636.00,0.32
6635.00,0.32
6634.00,0.32
6633.00,0.32
6632.00,0.32
6631.00,0.32
6630.00,0.32
6629.00,0.32
6628.00,0.32
6627.00,0.32
6626.00,0.33
6625.00,0.33
6624.00,0.33
6623.00,0.33
6622.00,0.33
6621.00,0.33
6620.00,0.33
6619.00,0.33
6618.00,0.33
6617.00,0.33
6616.00,0.33
6615.00,0.33
6614.00,0.33
6613.00,0.33
6612.00,0.33
6611.00,0.33
6610.00,0.33
6609.00,0.33
6608.00,0.33
6607.00,0.33
6606.00,0.33
6605.00,0.33
6604.00,0.33
6603.00,0.33
6602.00,0.33
6601.00,0.33
6600.00,0.33
6599.00,0.33
6598.00,0.33
6597.00,0.33
6596.00,0.34
6595.00,0.34
6594.00,0.34
6593.00,0.34
6592.00,0.34
6591.00,0.34
6590.00,0.34
6589.00,0.34
6588.00,0.34
6587.00,0.34
6586.00,0.34
6585.00,0.34
6584.00,0.34
6583.00,0.34
6582.00,0.34
6581.00,0.34
6580.00,0.34
6579.00,0.35
6578.00,0.35
6577.00,0.35
6576.00,0.35
6575.00,0.35
6574.00,0.35
6573.00,0.35
6572.00,0.35
6571.00,0.35
6570.00,0.35
6569.00,0.35
6568.00,0.35
6567.00,0.35
6566.00,0.35
6565.00,0.35
6564.00,0.35
6563.00,0.35
6562.00,0.35
6561.00,0.35
6560.00,0.35
6559.00,0.35
6558.00,0.35
6557.00,0.35
6556.00,0.35
6555.00,0.35
6554.00,0.35
6553.00,0.36
6552.00,0.36
6551.00,0.36
6550.00,0.36
6549.00,0.36
6548.00,0.36
6547.00,0.36
6546.00,0.36
6545.00,0.36
6544.00,0.36
6543.00,0.36
6542.00,0.36
6541.00,0.36
6540.00,0.36
6539.00,0.36
6538.00,0.36
6537.00,0.36
6536.00,0.36
6535.00,0.36
6534.00,0.36
6533.00,0.36
6532.00,0.36
6531.00,0.36
6530.00,0.36
6529.00,0.36
6528.00,0.37
6527.00,0.37
6526.00,0.37
6525.00,0.37
6524.00,0.37
6523.00,0.37
6522.00,0.37
6521.00,0.37
6520.00,0.37
6519.00,0.37
6518.00,0.37
6517.00,0.37
6516.00,0.37
6515.00,0.37
6514.00,0.37
6513.00,0.37
6512.00,0.37
6511.00,0.37
6510.00,0.37
6509.00,0.37
6508.00,0.37
6507.00,0.37
6506.00,0.37
6505.00,0.37
6504.00,0.37
6503.00,0.37
6502.00,0.37
6501.00,0.37
6500.00,0.37
6499.00,0.37
6498.00,0.37
6497.00,0.37
6496.00,0.37
6495.00,0.37
6494.00,0.37
6493.00,0.37
6492.00,0.37
6491.00,0.37
6490.00,0.37
6489.00,0.37
6488.00,0.37
6487.00,0.37
6486.00,0.37
6485.00,0.37
6484.00,0.37
6483.00,0.37
6482.00,0.37
6481.00,0.37
6480.00,0.37
6479.00,0.37
6478.00,0.37
6477.00,0.37
6476.00,0.38
6475.00,0.38
6474.00,0.38
6473.00,0.38
6472.00,0.38
6471.00,0.38
6470.00,0.38
6469.00,0.38
6468.00,0.38
6467.00,0.38
6466.00,0.38
6465.00,0.38
6464.00,0.38
6463.00,0.38
6462.00,0.38
6461.00,0.38
6460.00,0.38
6459.00,0.38
6458.00,0.38
6457.00,0.38
6456.00,0.38
6455.00,0.38
6454.00,0.38
6453.00,0.38
6452.00,0.38
6451.00,0.38
6450.00,0.38
6449.00,0.39
6448.00,0.39
6447.00,0.39
6446.00,0.39
6445.00,0.39
6444.00,0.39
6443.00,0.39
6442.00,0.39
6441.00,0.39
6440.00,0.39
6439.00,0.39
6438.00,0.39
6437.00,0.39
6436.00,0.39
6435.00,0.39
6434.00,0.39
6433.00,0.39
6432.00,0.39
6431.00,0.39
6430.00,0.39
6429.00,0.39
6428.00,0.39
6427.00,0.39
6426.00,0.39
6425.00,0.39
6424.00,0.39
6423.00,0.39
6422.00,0.39
6421.00,0.39
6420.00,0.39
6419.00,0.39
6418.00,0.39
6417.00,0.39
6416.00,0.39
6415.00,0.39
6414.00,0.39
6413.00,0.39
6412.00,0.39
6411.00,0.39
6410.00,0.39
6409.00,0.39
6408.00,0.39
6407.00,0.39
6406.00,0.39
6405.00,0.39
6404.00,0.39
6403.00,0.39
6402.00,0.39
6401.00,0.39
6400.00,0.39
6399.00,0.39
6398.00,0.39
6397.00,0.39
6396.00,0.39
6395.00,0.39
6394.00,0.39
6393.00,0.39
6392.00,0.39
6391.00,0.39
6390.00,0.39
6389.00,0.39
6388.00,0.39
6387.00,0.39
6386.00,0.39
6385.00,0.39
6384.00,0.39
6383.00,0.40
6382.00,0.40
6381.00,0.40
6380.00,0.40
6379.00,0.40
6378.00,0.40
6377.00,0.40
6376.00,0.40
6375.00,0.40
6374.00,0.40
6373.00,0.40
6372.00,0.40
6371.00,0.40
6370.00,0.40
6369.00,0.40
6368.00,0.40
6367.00,0.40
6366.00,0.40
6365.00,0.40
6364.00,0.40
6363.00,0.40
6362.00,0.40
6361.00,0.40
6360.00,0.40
6359.00,0.40
6358.00,0.40
6357.00,0.40
6356.00,0.40
6355.00,0.40
6354.00,0.40
6353.00,0.41
6352.00,0.41
6351.00,0.41
6350.00,0.41
6349.00,0.41
6348.00,0.41
6347.00,0.41
6346.00,0.41
6345.00,0.41
6344.00,0.41
6343.00,0.41
6342.00,0.41
6341.00,0.41
6340.00,0.41
6339.00,0.41
6338.00,0.41
6337.00,0.41
6336.00,0.41
6335.00,0.41
6334.00,0.41
6333.00,0.41
6332.00,0.41
6331.00,0.41
6330.00,0.41
6329.00,0.41
6328.00,0.41
6327.00,0.41
6326.00,0.42
6325.00,0.42
6324.00,0.42
6323.00,0.42
6322.00,0.42
6321.00,0.42
6320.00,0.42
6319.00,0.42
6318.00,0.42
6317.00,0.42
6316.00,0.42
6315.00,0.42
6314.00,0.42
6313.00,0.42
6312.00,0.42
6311.00,0.42
6310.00,0.42
6309.00,0.42
6308.00,0.42
6307.00,0.42
6306.00,0.42
6305.00,0.42
6304.00,0.42
6303.00,0.42
6302.00,0.42
6301.00,0.42
6300.00,0.42
6299.00,0.42
6298.00,0.42
6297.00,0.42
6296.00,0.42
6295.00,0.42
6294.00,0.42
6293.00,0.42
6292.00,0.42
6291.00,0.43
6290.00,0.43
6289.00,0.43
6288.00,0.43
6287.00,0.43
6286.00,0.43
6285.00,0.43
6284.00,0.43
6283.00,0.43
6282.00,0.43
6281.00,0.43
6280.00,0.43
6279.00,0.43
6278.00,0.43
6277.00,0.43
6276.00,0.43
6275.00,0.43
6274.00,0.43
6273.00,0.43
6272.00,0.43
6271.00,0.43
6270.00,0.43
6269.00,0.43
6268.00,0.43
6267.00,0.43
6266.00,0.43
6265.00,0.43
6264.00,0.43
6263.00,0.43
6262.00,0.44
6261.00,0.44
6260.00,0.44
6259.00,0.44
6258.00,0.44
6257.00,0.44
6256.00,0.44
6255.00,0.44
6254.00,0.44
6253.00,0.44
6252.00,0.44
6251.00,0.44
6250.00,0.44
6249.00,0.44
6248.00,0.44
6247.00,0.45
6246.00,0.45
6245.00,0.45
6244.00,0.45
6243.00,0.45
6242.00,0.45
6241.00,0.45
6240.00,0.45
6239.00,0.45
6238.00,0.45
6237.00,0.45
6236.00,0.45
6235.00,0.45
6234.00,0.45
6233.00,0.45
6232.00,0.45
6231.00,0.45
6230.00,0.46
6229.00,0.46
6228.00,0.46
6227.00,0.46
6226.00,0.46
6225.00,0.46
6224.00,0.46
6223.00,0.46
6222.00,0.46
6221.00,0.46
6220.00,0.46
6219.00,0.46
6218.00,0.46
6217.00,0.46
6216.00,0.46
6215.00,0.46
6214.00,0.46
6213.00,0.46
6212.00,0.46
6211.00,0.46
6210.00,0.46
6209.00,0.46
6208.00,0.46
6207.00,0.46
6206.00,0.46
6205.00,0.46
6204.00,0.46
6203.00,0.46
6202.00,0.46
6201.00,0.46
6200.00,0.46
6199.00,0.46
6198.00,0.46
6197.00,0.46
6196.00,0.47
6195.00,0.47
6194.00,0.47
6193.00,0.47
6192.00,0.47
6191.00,0.47
6190.00,0.47
6189.00,0.47
6188.00,0.47
6187.00,0.47
6186.00,0.47
6185.00,0.47
6184.00,0.47
6183.00,0.47
6182.00,0.47
6181.00,0.48
6180.00,0.48
6179.00,0.48
6178.00,0.48
6177.00,0.48
6176.00,0.48
6175.00,0.48
6174.00,0.48
6173.00,0.48
6172.00,0.48
6171.00,0.48
6170.00,0.48
6169.00,0.48
6168.00,0.48
6167.00,0.48
6166.00,0.48
6165.00,0.49
6164.00,0.49
6163.00,0.49
6162.00,0.49
6161.00,0.49
6160.00,0.49
6159.00,0.49
6158.00,0.49
6157.00,0.49
6156.00,0.49
6155.00,0.49
6154.00,0.49
6153.00,0.49
6152.00,0.49
6151.00,0.49
6150.00,0.49
6149.00,0.49
6148.00,0.49
6147.00,0.49
6146.00,0.49
6145.00,0.49
6144.00,0.49
6143.00,0.49
6142.00,0.50
6141.00,0.50
6140.00,0.50
6139.00,0.50
6138.00,0.50
6137.00,0.50
6136.00,0.50
6135.00,0.50
6134.00,0.50
6133.00,0.50
6132.00,0.50
6131.00,0.50
6130.00,0.50
6129.00,0.50
6128.00,0.50
6127.00,0.50
6126.00,0.50
6125.00,0.50
6124.00,0.50
6123.00,0.50
6122.00,0.50
6121.00,0.50
6120.00,0.50
6119.00,0.50
6118.00,0.51
6117.00,0.51
6116.00,0.51
6115.00,0.51
6114.00,0.51
6113.00,0.51
6112.00,0.51
6111.00,0.51
6110.00,0.51
6109.00,0.51
6108.00,0.51
6107.00,0.51
6106.00,0.51
6105.00,0.51
6104.00,0.51
6103.00,0.52
6102.00,0.52
6101.00,0.52
6100.00,0.52
6099.00,0.52
6098.00,0.52
6097.00,0.52
6096.00,0.52
6095.00,0.52
6094.00,0.52
6093.00,0.52
6092.00,0.52
6091.00,0.52
6090.00,0.52
6089.00,0.52
6088.00,0.52
6087.00,0.52
6086.00,0.52
6085.00,0.53
6084.00,0.53
6083.00,0.53
6082.00,0.53
6081.00,0.53
6080.00,0.53
6079.00,0.53
6078.00,0.53
6077.00,0.53
6076.00,0.53
6075.00,0.53
6074.00,0.53
6073.00,0.53
6072.00,0.53
6071.00,0.53
6070.00,0.53
6069.00,0.53
6068.00,0.53
6067.00,0.53
6066.00,0.53
6065.00,0.53
6064.00,0.53
6063.00,0.53
6062.00,0.53
6061.00,0.53
6060.00,0.53
6059.00,0.53
6058.00,0.53
6057.00,0.53
6056.00,0.53
6055.00,0.53
6054.00,0.54
6053.00,0.54
6052.00,0.54
6051.00,0.54
6050.00,0.54
6049.00,0.54
6048.00,0.54
6047.00,0.54
6046.00,0.54
6045.00,0.54
6044.00,0.54
6043.00,0.54
6042.00,0.54
6041.00,0.54
6040.00,0.54
6039.00,0.54
6038.00,0.54
6037.00,0.54
6036.00,0.54
6035.00,0.54
6034.00,0.54
6033.00,0.54
6032.00,0.54
6031.00,0.54
6030.00,0.54
6029.00,0.54
6028.00,0.54
6027.00,0.54
6026.00,0.54
6025.00,0.54
6024.00,0.54
6023.00,0.54
6022.00,0.54
6021.00,0.54
6020.00,0.54
6019.00,0.54
6018.00,0.54
6017.00,0.54
6016.00,0.54
6015.00,0.54
6014.00,0.54
6013.00,0.54
6012.00,0.54
6011.00,0.54
6010.00,0.54
6009.00,0.54
6008.00,0.54
6007.00,0.54
6006.00,0.54
6005.00,0.54
6004.00,0.54
6003.00,0.54
6002.00,0.54
6001.00,0.54
6000.00,0.54
5999.00,0.54
5998.00,0.54
5997.00,0.54
5996.00,0.54
5995.00,0.54
5994.00,0.54
5993.00,0.54
5992.00,0.54
5991.00,0.54
5990.00,0.54
5989.00,0.53
5988.00,0.53
5987.00,0.53
5986.00,0.53
5985.00,0.53
5984.00,0.53
5983.00,0.53
5982.00,0.53
5981.00,0.53
5980.00,0.53
5979.00,0.52
5978.00,0.52
5977.00,0.52
5976.00,0.52
5975.00,0.52
5974.00,0.52
5973.00,0.52
5972.00,0.51
5971.00,0.51
5970.00,0.51
5969.00,0.51
5968.00,0.50
5967.00,0.50
5966.00,0.50
5965.00,0.50
5964.00,0.49
5963.00,0.49
5962.00,0.49
5961.00,0.49
5960.00,0.48
5959.00,0.48
5958.00,0.48
5957.00,0.47
5956.00,0.47
5955.00,0.47
5954.00,0.47
5953.00,0.46
5952.00,0.46
5951.00,0.46
5950.00,0.46
5949.00,0.46
5948.00,0.45
5947.00,0.45
5946.00,0.45
5945.00,0.45
5944.00,0.45
5943.00,0.45
5942.00,0.45
5941.00,0.45
5940.00,0.45
5939.00,0.45
5938.00,0.45
5937.00,0.45
5936.00,0.44
5935.00,0.44
5934.00,0.44
5933.00,0.44
5932.00,0.44
5931.00,0.44
5930.00,0.44
5929.00,0.44
5928.00,0.44
5927.00,0.44
5926.00,0.44
5925.00,0.44
5924.00,0.44
5923.00,0.44
5922.00,0.44
5921.00,0.44
5920.00,0.44
5919.00,0.44
5918.00,0.43
5917.00,0.43
5916.00,0.43
5915.00,0.43
5914.00,0.43
5913.00,0.43
5912.00,0.43
5911.00,0.43
5910.00,0.43
5909.00,0.43
5908.00,0.42
5907.00,0.42
5906.00,0.42
5905.00,0.42
5904.00,0.42
5903.00,0.42
5902.00,0.42
5901.00,0.42
5900.00,0.42
5899.00,0.42
5898.00,0.42
5897.00,0.42
5896.00,0.42
5895.00,0.42
5894.00,0.43
5893.00,0.43
5892.00,0.43
5891.00,0.43
5890.00,0.43
5889.00,0.43
5888.00,0.43
5887.00,0.43
5886.00,0.43
5885.00,0.44
5884.00,0.44
5883.00,0.44
5882.00,0.44
5881.00,0.44
5880.00,0.44
5879.00,0.44
5878.00,0.44
5877.00,0.44
5876.00,0.45
5875.00,0.45
5874.00,0.45
5873.00,0.45
5872.00,0.45
5871.00,0.45
5870.00,0.45
5869.00,0.45
5868.00,0.45
5867.00,0.45
5866.00,0.45
5865.00,0.45
5864.00,0.45
5863.00,0.45
5862.00,0.45
5861.00,0.46
5860.00,0.46
5859.00,0.46
5858.00,0.46
5857.00,0.46
5856.00,0.46
5855.00,0.46
5854.00,0.46
5853.00,0.46
5852.00,0.46
5851.00,0.46
5850.00,0.46
5849.00,0.46
5848.00,0.46
5847.00,0.46
5846.00,0.46
5845.00,0.46
5844.00,0.46
5843.00,0.46
5842.00,0.46
5841.00,0.46
5840.00,0.46
5839.00,0.46
5838.00,0.46
5837.00,0.46
5836.00,0.46
5835.00,0.46
5834.00,0.46
5833.00,0.46
5832.00,0.46
5831.00,0.46
5830.00,0.46
5829.00,0.46
5828.00,0.46
5827.00,0.46
5826.00,0.46
5825.00,0.46
5824.00,0.46
5823.00,0.46
5822.00,0.46
5821.00,0.46
5820.00,0.46
5819.00,0.46
5818.00,0.46
5817.00,0.46
5816.00,0.46
5815.00,0.46
5814.00,0.46
5813.00,0.46
5812.00,0.46
5811.00,0.46
5810.00,0.46
5809.00,0.46
5808.00,0.46
5807.00,0.46
5806.00,0.46
5805.00,0.46
5804.00,0.46
5803.00,0.46
5802.00,0.46
5801.00,0.46
5800.00,0.46
5799.00,0.46
5798.00,0.46
5797.00,0.45
5796.00,0.45
5795.00,0.45
5794.00,0.45
5793.00,0.45
5792.00,0.45
5791.00,0.45
5790.00,0.45
5789.00,0.45
5788.00,0.45
5787.00,0.45
5786.00,0.45
5785.00,0.44
5784.00,0.44
5783.00,0.44
5782.00,0.44
5781.00,0.44
5780.00,0.44
5779.00,0.44
5778.00,0.44
5777.00,0.44
5776.00,0.44
5775.00,0.44
5774.00,0.44
5773.00,0.44
5772.00,0.44
5771.00,0.44
5770.00,0.44
5769.00,0.44
5768.00,0.44
5767.00,0.44
5766.00,0.44
5765.00,0.44
5764.00,0.44
5763.00,0.44
5762.00,0.44
5761.00,0.44
5760.00,0.45
5759.00,0.45
5758.00,0.45
5757.00,0.45
5756.00,0.45
5755.00,0.45
5754.00,0.45
5753.00,0.45
5752.00,0.46
5751.00,0.46
5750.00,0.46
5749.00,0.46
5748.00,0.46
5747.00,0.46
5746.00,0.46
5745.00,0.46
5744.00,0.47
5743.00,0.47
5742.00,0.47
5741.00,0.47
5740.00,0.47
5739.00,0.47
5738.00,0.47
5737.00,0.47
5736.00,0.47
5735.00,0.47
5734.00,0.48
5733.00,0.48
5732.00,0.48
5731.00,0.48
5730.00,0.48
5729.00,0.48
5728.00,0.48
5727.00,0.48
5726.00,0.48
5725.00,0.48
5724.00,0.48
5723.00,0.48
5722.00,0.48
5721.00,0.48
5720.00,0.48
5719.00,0.48
5718.00,0.48
5717.00,0.48
5716.00,0.48
5715.00,0.48
5714.00,0.48
5713.00,0.48
5712.00,0.48
5711.00,0.48
5710.00,0.48
5709.00,0.48
5708.00,0.48
5707.00,0.48
5706.00,0.48
5705.00,0.48
5704.00,0.48
5703.00,0.48
5702.00,0.48
5701.00,0.48
5700.00,0.48
5699.00,0.48
5698.00,0.47
5697.00,0.47
5696.00,0.47
5695.00,0.47
5694.00,0.47
5693.00,0.47
5692.00,0.47
5691.00,0.47
5690.00,0.47
5689.00,0.47
5688.00,0.47
5687.00,0.47
5686.00,0.47
5685.00,0.47
5684.00,0.47
5683.00,0.47
5682.00,0.47
5681.00,0.47
5680.00,0.47
5679.00,0.47
5678.00,0.47
5677.00,0.47
5676.00,0.47
5675.00,0.47
5674.00,0.47
5673.00,0.47
5672.00,0.47
5671.00,0.47
5670.00,0.47
5669.00,0.47
5668.00,0.47
5667.00,0.47
5666.00,0.47
5665.00,0.47
5664.00,0.47
5663.00,0.47
5662.00,0.47
5661.00,0.47
5660.00,0.47
5659.00,0.47
5658.00,0.47
5657.00,0.47
5656.00,0.47
5655.00,0.47
5654.00,0.47
5653.00,0.47
5652.00,0.48
5651.00,0.48
5650.00,0.48
5649.00,0.48
5648.00,0.48
5647.00,0.48
5646.00,0.48
5645.00,0.48
5644.00,0.48
5643.00,0.48
5642.00,0.48
5641.00,0.48
5640.00,0.48
5639.00,0.48
5638.00,0.48
5637.00,0.48
5636.00,0.48
5635.00,0.48
5634.00,0.49
5633.00,0.49
5632.00,0.49
5631.00,0.49
5630.00,0.49
5629.00,0.49
5628.00,0.49
5627.00,0.49
5626.00,0.49
5625.00,0.49
5624.00,0.49
5623.00,0.49
5622.00,0.49
5621.00,0.49
5620.00,0.49
5619.00,0.49
5618.00,0.49
5617.00,0.49
5616.00,0.49
5615.00,0.49
5614.00,0.49
5613.00,0.49
5612.00,0.50
5611.00,0.50
5610.00,0.50
5609.00,0.50
5608.00,0.50
5607.00,0.50
5606.00,0.50
5605.00,0.50
5604.00,0.50
5603.00,0.50
5602.00,0.50
5601.00,0.50
5600.00,0.50
5599.00,0.51
5598.00,0.51
5597.00,0.51
5596.00,0.51
5595.00,0.51
5594.00,0.51
5593.00,0.51
5592.00,0.51
5591.00,0.51
5590.00,0.51
5589.00,0.51
5588.00,0.51
5587.00,0.51
5586.00,0.51
5585.00,0.51
5584.00,0.51
5583.00,0.51
5582.00,0.51
5581.00,0.51
5580.00,0.51
5579.00,0.52
5578.00,0.52
5577.00,0.52
5576.00,0.52
5575.00,0.52
5574.00,0.52
5573.00,0.52
5572.00,0.52
5571.00,0.52
5570.00,0.52
5569.00,0.52
5568.00,0.52
5567.00,0.52
5566.00,0.52
5565.00,0.52
5564.00,0.52
5563.00,0.53
5562.00,0.53
5561.00,0.53
5560.00,0.53
5559.00,0.53
5558.00,0.53
5557.00,0.53
5556.00,0.53
5555.00,0.53
5554.00,0.53
5553.00,0.53
5552.00,0.53
5551.00,0.53
5550.00,0.53
5549.00,0.53
5548.00,0.53
5547.00,0.53
5546.00,0.53
5545.00,0.53
5544.00,0.53
5543.00,0.53
5542.00,0.53
5541.00,0.53
5540.00,0.53
5539.00,0.53
5538.00,0.53
5537.00,0.53
5536.00,0.53
5535.00,0.53
5534.00,0.53
5533.00,0.53
5532.00,0.53
5531.00,0.53
5530.00,0.53
5529.00,0.54
5528.00,0.54
5527.00,0.54
5526.00,0.54
5525.00,0.54
5524.00,0.54
5523.00,0.54
5522.00,0.54
5521.00,0.54
5520.00,0.54
5519.00,0.54
5518.00,0.54
5517.00,0.54
5516.00,0.54
5515.00,0.54
5514.00,0.54
5513.00,0.54
5512.00,0.54
5511.00,0.54
5510.00,0.54
5509.00,0.54
5508.00,0.54
5507.00,0.54
5506.00,0.54
5505.00,0.54
5504.00,0.54
5503.00,0.54
5502.00,0.54
5501.00,0.54
5500.00,0.54
5499.00,0.54
5498.00,0.54
5497.00,0.54
5496.00,0.54
5495.00,0.54
5494.00,0.54
5493.00,0.54
5492.00,0.54
5491.00,0.54
5490.00,0.54
5489.00,0.54
5488.00,0.54
5487.00,0.54
5486.00,0.54
5485.00,0.54
5484.00,0.54
5483.00,0.54
5482.00,0.54
5481.00,0.54
5480.00,0.55
5479.00,0.55
5478.00,0.55
5477.00,0.55
5476.00,0.55
5475.00,0.55
5474.00,0.55
5473.00,0.55
5472.00,0.55
5471.00,0.55
5470.00,0.55
5469.00,0.55
5468.00,0.55
5467.00,0.55
5466.00,0.55
5465.00,0.55
5464.00,0.55
5463.00,0.55
5462.00,0.55
5461.00,0.55
5460.00,0.55
5459.00,0.55
5458.00,0.55
5457.00,0.55
5456.00,0.55
5455.00,0.55
5454.00,0.55
5453.00,0.55
5452.00,0.55
5451.00,0.55
5450.00,0.55
5449.00,0.55
5448.00,0.55
5447.00,0.55
5446.00,0.55
5445.00,0.55
5444.00,0.55
5443.00,0.55
5442.00,0.55
5441.00,0.55
5440.00,0.55
5439.00,0.55
5438.00,0.55
5437.00,0.55
5436.00,0.55
5435.00,0.55
5434.00,0.55
5433.00,0.55
5432.00,0.55
5431.00,0.55
5430.00,0.55
5429.00,0.55
5428.00,0.55
5427.00,0.55
5426.00,0.56
5425.00,0.56
5424.00,0.56
5423.00,0.56
5422.00,0.56
5421.00,0.56
5420.00,0.56
5419.00,0.56
5418.00,0.56
5417.00,0.56
5416.00,0.56
5415.00,0.55
5414.00,0.55
5413.00,0.55
5412.00,0.55
5411.00,0.55
5410.00,0.55
5409.00,0.55
5408.00,0.55
5407.00,0.55
5406.00,0.55
5405.00,0.55
5404.00,0.55
5403.00,0.55
5402.00,0.55
5401.00,0.55
5400.00,0.55
5399.00,0.55
5398.00,0.55
5397.00,0.55
5396.00,0.55
5395.00,0.55
5394.00,0.55
5393.00,0.55
5392.00,0.55
5391.00,0.55
5390.00,0.55
5389.00,0.55
5388.00,0.55
5387.00,0.55
5386.00,0.55
5385.00,0.55
5384.00,0.55
5383.00,0.55
5382.00,0.55
5381.00,0.55
5380.00,0.54
5379.00,0.54
5378.00,0.54
5377.00,0.54
5376.00,0.54
5375.00,0.54
5374.00,0.54
5373.00,0.54
5372.00,0.54
5371.00,0.53
5370.00,0.53
5369.00,0.53
5368.00,0.53
5367.00,0.53
5366.00,0.53
5365.00,0.53
5364.00,0.52
5363.00,0.52
5362.00,0.52
5361.00,0.52
5360.00,0.52
5359.00,0.51
5358.00,0.51
5357.00,0.51
5356.00,0.50
5355.00,0.50
5354.00,0.50
5353.00,0.50
5352.00,0.49
5351.00,0.49
5350.00,0.49
5349.00,0.48
5348.00,0.48
5347.00,0.48
5346.00,0.47
5345.00,0.47
5344.00,0.47
5343.00,0.46
5342.00,0.46
5341.00,0.45
5340.00,0.45
5339.00,0.45
5338.00,0.44
5337.00,0.44
5336.00,0.44
5335.00,0.43
5334.00,0.43
5333.00,0.43
5332.00,0.42
5331.00,0.42
5330.00,0.42
5329.00,0.41
5328.00,0.41
5327.00,0.40
5326.00,0.40
5325.00,0.40
5324.00,0.39
5323.00,0.39
5322.00,0.38
5321.00,0.38
5320.00,0.38
5319.00,0.37
5318.00,0.37
5317.00,0.36
5316.00,0.36
5315.00,0.36
5314.00,0.35
5313.00,0.35
5312.00,0.35
5311.00,0.34
5310.00,0.34
5309.00,0.33
5308.00,0.33
5307.00,0.33
5306.00,0.33
5305.00,0.32
5304.00,0.32
5303.00,0.32
5302.00,0.31
5301.00,0.31
5300.00,0.31
5299.00,0.31
5298.00,0.30
5297.00,0.30
5296.00,0.30
5295.00,0.30
5294.00,0.30
5293.00,0.29
5292.00,0.29
5291.00,0.29
5290.00,0.29
5289.00,0.29
5288.00,0.29
5287.00,0.29
5286.00,0.28
5285.00,0.28
5284.00,0.28
5283.00,0.28
5282.00,0.28
5281.00,0.28
5280.00,0.28
5279.00,0.28
5278.00,0.28
5277.00,0.28
5276.00,0.28
5275.00,0.27
5274.00,0.27
5273.00,0.27
5272.00,0.27
5271.00,0.27
5270.00,0.27
5269.00,0.27
5268.00,0.27
5267.00,0.27
5266.00,0.27
5265.00,0.27
5264.00,0.27
5263.00,0.27
5262.00,0.27
5261.00,0.27
5260.00,0.27
5259.00,0.27
5258.00,0.27
5257.00,0.27
5256.00,0.26
5255.00,0.26
5254.00,0.26
5253.00,0.26
5252.00,0.26
5251.00,0.26
5250.00,0.26
5249.00,0.26
5248.00,0.26
5247.00,0.26
5246.00,0.26
5245.00,0.26
5244.00,0.26
5243.00,0.26
5242.00,0.26
5241.00,0.26
5240.00,0.26
5239.00,0.26
5238.00,0.26
5237.00,0.26
5236.00,0.26
5235.00,0.26
5234.00,0.27
5233.00,0.27
5232.00,0.27
5231.00,0.27
5230.00,0.27
5229.00,0.27
5228.00,0.27
5227.00,0.27
5226.00,0.26
5225.00,0.26
5224.00,0.26
5223.00,0.26
5222.00,0.26
5221.00,0.26
5220.00,0.26
5219.00,0.26
5218.00,0.26
5217.00,0.27
5216.00,0.27
5215.00,0.27
5214.00,0.27
5213.00,0.27
5212.00,0.27
5211.00,0.27
5210.00,0.27
5209.00,0.27
5208.00,0.27
5207.00,0.27
5206.00,0.27
5205.00,0.27
5204.00,0.27
5203.00,0.27
5202.00,0.27
5201.00,0.27
5200.00,0.27
5199.00,0.27
5198.00,0.27
5197.00,0.27
5196.00,0.27
5195.00,0.27
5194.00,0.27
5193.00,0.27
5192.00,0.27
5191.00,0.27
5190.00,0.27
5189.00,0.27
5188.00,0.27
5187.00,0.27
5186.00,0.27
5185.00,0.27
5184.00,0.27
5183.00,0.27
5182.00,0.27
5181.00,0.27
5180.00,0.27
5179.00,0.27
5178.00,0.27
5177.00,0.27
5176.00,0.27
5175.00,0.27
5174.00,0.27
5173.00,0.27
5172.00,0.27
5171.00,0.27
5170.00,0.27
5169.00,0.27
5168.00,0.28
5167.00,0.28
5166.00,0.28
5165.00,0.28
5164.00,0.28
5163.00,0.28
5162.00,0.28
5161.00,0.28
5160.00,0.28
5159.00,0.28
5158.00,0.28
5157.00,0.28
5156.00,0.28
5155.00,0.28
5154.00,0.28
5153.00,0.28
5152.00,0.28
5151.00,0.28
5150.00,0.28
5149.00,0.28
5148.00,0.28
5147.00,0.28
5146.00,0.28
5145.00,0.28
5144.00,0.28
5143.00,0.28
5142.00,0.28
5141.00,0.28
5140.00,0.28
5139.00,0.28
5138.00,0.28
5137.00,0.28
5136.00,0.28
5135.00,0.28
5134.00,0.28
5133.00,0.28
5132.00,0.28
5131.00,0.28
5130.00,0.28
5129.00,0.28
5128.00,0.28
5127.00,0.28
5126.00,0.28
5125.00,0.28
5124.00,0.28
5123.00,0.28
5122.00,0.28
5121.00,0.29
5120.00,0.29
5119.00,0.29
5118.00,0.29
5117.00,0.29
5116.00,0.29
5115.00,0.29
5114.00,0.29
5113.00,0.29
5112.00,0.29
5111.00,0.29
5110.00,0.29
5109.00,0.29
5108.00,0.29
5107.00,0.29
5106.00,0.29
5105.00,0.29
5104.00,0.29
5103.00,0.29
5102.00,0.29
5101.00,0.29
5100.00,0.29
5099.00,0.29
5098.00,0.29
5097.00,0.29
5096.00,0.29
5095.00,0.29
5094.00,0.29
5093.00,0.29
5092.00,0.29
5091.00,0.29
5090.00,0.29
5089.00,0.30
5088.00,0.30
5087.00,0.30
5086.00,0.30
5085.00,0.30
5084.00,0.30
5083.00,0.30
5082.00,0.30
5081.00,0.30
5080.00,0.30
5079.00,0.30
5078.00,0.30
5077.00,0.30
5076.00,0.30
5075.00,0.30
5074.00,0.30
5073.00,0.30
5072.00,0.30
5071.00,0.30
5070.00,0.30
5069.00,0.30
5068.00,0.30
5067.00,0.30
5066.00,0.30
5065.00,0.30
5064.00,0.30
5063.00,0.30
5062.00,0.30
5061.00,0.30
5060.00,0.30
5059.00,0.30
5058.00,0.30
5057.00,0.30
5056.00,0.30
5055.00,0.30
5054.00,0.31
5053.00,0.31
5052.00,0.31
5051.00,0.31
5050.00,0.31
5049.00,0.31
5048.00,0.31
5047.00,0.31
5046.00,0.31
5045.00,0.31
5044.00,0.31
5043.00,0.31
5042.00,0.31
5041.00,0.31
5040.00,0.31
5039.00,0.31
5038.00,0.31
5037.00,0.31
5036.00,0.31
5035.00,0.31
5034.00,0.31
5033.00,0.31
5032.00,0.31
5031.00,0.31
5030.00,0.31
5029.00,0.31
5028.00,0.31
5027.00,0.31
5026.00,0.31
5025.00,0.31
5024.00,0.31
5023.00,0.31
5022.00,0.31
5021.00,0.32
5020.00,0.32
5019.00,0.32
5018.00,0.32
5017.00,0.32
5016.00,0.32
5015.00,0.32
5014.00,0.32
5013.00,0.32
5012.00,0.32
5011.00,0.32
5010.00,0.32
5009.00,0.32
5008.00,0.32
5007.00,0.32
5006.00,0.32
5005.00,0.32
5004.00,0.32
5003.00,0.32
5002.00,0.33
5001.00,0.33
5000.00,0.33
4999.00,0.33
4998.00,0.33
4997.00,0.33
4996.00,0.33
4995.00,0.33
4994.00,0.33
4993.00,0.33
4992.00,0.33
4991.00,0.33
4990.00,0.33
4989.00,0.33
4988.00,0.33
4987.00,0.33
4986.00,0.33
4985.00,0.33
4984.00,0.33
4983.00,0.33
4982.00,0.33
4981.00,0.33
4980.00,0.33
4979.00,0.34
4978.00,0.34
4977.00,0.34
4976.00,0.34
4975.00,0.34
4974.00,0.34
4973.00,0.34
4972.00,0.34
4971.00,0.34
4970.00,0.34
4969.00,0.34
4968.00,0.34
4967.00,0.34
4966.00,0.34
4965.00,0.34
4964.00,0.34
4963.00,0.34
4962.00,0.34
4961.00,0.34
4960.00,0.34
4959.00,0.34
4958.00,0.34
4957.00,0.34
4956.00,0.34
4955.00,0.34
4954.00,0.35
4953.00,0.35
4952.00,0.35
4951.00,0.35
4950.00,0.35
4949.00,0.35
4948.00,0.35
4947.00,0.35
4946.00,0.35
4945.00,0.35
4944.00,0.35
4943.00,0.35
4942.00,0.35
4941.00,0.35
4940.00,0.35
4939.00,0.35
4938.00,0.35
4937.00,0.35
4936.00,0.35
4935.00,0.35
4934.00,0.35
4933.00,0.35
4932.00,0.35
4931.00,0.35
4930.00,0.35
4929.00,0.35
4928.00,0.35
4927.00,0.35
4926.00,0.36
4925.00,0.36
4924.00,0.36
4923.00,0.36
4922.00,0.36
4921.00,0.36
4920.00,0.36
4919.00,0.36
4918.00,0.36
4917.00,0.36
4916.00,0.36
4915.00,0.36
4914.00,0.36
4913.00,0.36
4912.00,0.36
4911.00,0.36
4910.00,0.36
4909.00,0.36
4908.00,0.36
4907.00,0.36
4906.00,0.36
4905.00,0.36
4904.00,0.36
4903.00,0.36
4902.00,0.36
4901.00,0.36
4900.00,0.36
4899.00,0.36
4898.00,0.36
4897.00,0.36
4896.00,0.36
4895.00,0.36
4894.00,0.36
4893.00,0.36
4892.00,0.36
4891.00,0.37
4890.00,0.37
4889.00,0.37
4888.00,0.37
4887.00,0.37
4886.00,0.37
4885.00,0.37
4884.00,0.37
4883.00,0.37
4882.00,0.37
4881.00,0.37
4880.00,0.37
4879.00,0.37
4878.00,0.37
4877.00,0.37
4876.00,0.37
4875.00,0.37
4874.00,0.37
4873.00,0.37
4872.00,0.37
4871.00,0.37
4870.00,0.37
4869.00,0.37
4868.00,0.37
4867.00,0.37
4866.00,0.37
4865.00,0.37
4864.00,0.37
4863.00,0.37
4862.00,0.37
4861.00,0.37
4860.00,0.37
4859.00,0.37
4858.00,0.37
4857.00,0.37
4856.00,0.37
4855.00,0.37
4854.00,0.37
4853.00,0.37
4852.00,0.37
4851.00,0.37
4850.00,0.37
4849.00,0.38
4848.00,0.38
4847.00,0.38
4846.00,0.38
4845.00,0.38
4844.00,0.38
4843.00,0.38
4842.00,0.38
4841.00,0.38
4840.00,0.38
4839.00,0.38
4838.00,0.38
4837.00,0.38
4836.00,0.38
4835.00,0.38
4834.00,0.38
4833.00,0.38
4832.00,0.38
4831.00,0.38
4830.00,0.38
4829.00,0.38
4828.00,0.38
4827.00,0.38
4826.00,0.38
4825.00,0.38
4824.00,0.38
4823.00,0.38
4822.00,0.38
4821.00,0.39
4820.00,0.39
4819.00,0.39
4818.00,0.39
4817.00,0.39
4816.00,0.39
4815.00,0.39
4814.00,0.39
4813.00,0.39
4812.00,0.39
4811.00,0.39
4810.00,0.39
4809.00,0.39
4808.00,0.39
4807.00,0.39
4806.00,0.40
4805.00,0.40
4804.00,0.40
4803.00,0.40
4802.00,0.40
4801.00,0.40
4800.00,0.40
4799.00,0.40
4798.00,0.40
4797.00,0.40
4796.00,0.40
4795.00,0.40
4794.00,0.40
4793.00,0.40
4792.00,0.40
4791.00,0.40
4790.00,0.40
4789.00,0.40
4788.00,0.40
4787.00,0.40
4786.00,0.40
4785.00,0.40
4784.00,0.40
4783.00,0.40
4782.00,0.40
4781.00,0.40
4780.00,0.40
4779.00,0.40
4778.00,0.41
4777.00,0.41
4776.00,0.41
4775.00,0.41
4774.00,0.41
4773.00,0.41
4772.00,0.41
4771.00,0.41
4770.00,0.41
4769.00,0.41
4768.00,0.41
4767.00,0.41
4766.00,0.41
4765.00,0.41
4764.00,0.41
4763.00,0.42
4762.00,0.42
4761.00,0.42
4760.00,0.42
4759.00,0.42
4758.00,0.42
4757.00,0.42
4756.00,0.42
4755.00,0.42
4754.00,0.42
4753.00,0.42
4752.00,0.42
4751.00,0.42
4750.00,0.42
4749.00,0.42
4748.00,0.43
4747.00,0.43
4746.00,0.43
4745.00,0.43
4744.00,0.43
4743.00,0.43
4742.00,0.43
4741.00,0.43
4740.00,0.43
4739.00,0.43
4738.00,0.43
4737.00,0.43
4736.00,0.43
4735.00,0.44
4734.00,0.44
4733.00,0.44
4732.00,0.44
4731.00,0.44
4730.00,0.44
4729.00,0.44
4728.00,0.44
4727.00,0.44
4726.00,0.44
4725.00,0.44
4724.00,0.44
4723.00,0.44
4722.00,0.45
4721.00,0.45
4720.00,0.45
4719.00,0.45
4718.00,0.45
4717.00,0.45
4716.00,0.45
4715.00,0.45
4714.00,0.45
4713.00,0.45
4712.00,0.45
4711.00,0.45
4710.00,0.45
4709.00,0.45
4708.00,0.46
4707.00,0.46
4706.00,0.46
4705.00,0.46
4704.00,0.46
4703.00,0.46
4702.00,0.46
4701.00,0.46
4700.00,0.46
4699.00,0.46
4698.00,0.46
4697.00,0.47
4696.00,0.47
4695.00,0.47
4694.00,0.47
4693.00,0.47
4692.00,0.47
4691.00,0.47
4690.00,0.47
4689.00,0.47
4688.00,0.47
4687.00,0.47
4686.00,0.47
4685.00,0.47
4684.00,0.47
4683.00,0.47
4682.00,0.48
4681.00,0.48
4680.00,0.48
4679.00,0.48
4678.00,0.48
4677.00,0.48
4676.00,0.48
4675.00,0.48
4674.00,0.48
4673.00,0.48
4672.00,0.48
4671.00,0.48
4670.00,0.48
4669.00,0.48
4668.00,0.48
4667.00,0.49
4666.00,0.49
4665.00,0.49
4664.00,0.49
4663.00,0.49
4662.00,0.49
4661.00,0.49
4660.00,0.49
4659.00,0.49
4658.00,0.49
4657.00,0.49
4656.00,0.49
4655.00,0.49
4654.00,0.49
4653.00,0.49
4652.00,0.49
4651.00,0.49
4650.00,0.49
4649.00,0.49
4648.00,0.49
4647.00,0.49
4646.00,0.49
4645.00,0.49
4644.00,0.49
4643.00,0.49
4642.00,0.49
4641.00,0.49
4640.00,0.49
4639.00,0.49
4638.00,0.49
4637.00,0.50
4636.00,0.50
4635.00,0.50
4634.00,0.50
4633.00,0.50
4632.00,0.50
4631.00,0.50
4630.00,0.50
4629.00,0.50
4628.00,0.50
4627.00,0.50
4626.00,0.50
4625.00,0.51
4624.00,0.51
4623.00,0.51
4622.00,0.51
4621.00,0.51
4620.00,0.51
4619.00,0.51
4618.00,0.51
4617.00,0.51
4616.00,0.51
4615.00,0.51
4614.00,0.51
4613.00,0.51
4612.00,0.51
4611.00,0.51
4610.00,0.51
4609.00,0.51
4608.00,0.51
4607.00,0.51
4606.00,0.51
4605.00,0.51
4604.00,0.51
4603.00,0.51
4602.00,0.51
4601.00,0.51
4600.00,0.51
4599.00,0.51
4598.00,0.51
4597.00,0.51
4596.00,0.51
4595.00,0.51
4594.00,0.52
4593.00,0.52
4592.00,0.52
4591.00,0.52
4590.00,0.52
4589.00,0.52
4588.00,0.52
4587.00,0.52
4586.00,0.52
4585.00,0.52
4584.00,0.52
4583.00,0.52
4582.00,0.52
4581.00,0.52
4580.00,0.52
4579.00,0.52
4578.00,0.52
4577.00,0.52
4576.00,0.52
4575.00,0.52
4574.00,0.52
4573.00,0.52
4572.00,0.52
4571.00,0.52
4570.00,0.52
4569.00,0.52
4568.00,0.53
4567.00,0.53
4566.00,0.53
4565.00,0.53
4564.00,0.53
4563.00,0.53
4562.00,0.53
4561.00,0.53
4560.00,0.53
4559.00,0.53
4558.00,0.53
4557.00,0.53
4556.00,0.53
4555.00,0.53
4554.00,0.53
4553.00,0.53
4552.00,0.53
4551.00,0.53
4550.00,0.53
4549.00,0.53
4548.00,0.53
4547.00,0.53
4546.00,0.53
4545.00,0.53
4544.00,0.53
4543.00,0.54
4542.00,0.54
4541.00,0.54
4540.00,0.54
4539.00,0.54
4538.00,0.54
4537.00,0.54
4536.00,0.54
4535.00,0.54
4534.00,0.54
4533.00,0.54
4532.00,0.54
4531.00,0.54
4530.00,0.54
4529.00,0.54
4528.00,0.54
4527.00,0.54
4526.00,0.54
4525.00,0.54
4524.00,0.54
4523.00,0.54
4522.00,0.54
4521.00,0.54
4520.00,0.54
4519.00,0.54
4518.00,0.54
4517.00,0.54
4516.00,0.54
4515.00,0.54
4514.00,0.54
4513.00,0.54
4512.00,0.54
4511.00,0.54
4510.00,0.54
4509.00,0.54
4508.00,0.54
4507.00,0.54
4506.00,0.54
4505.00,0.54
4504.00,0.54
4503.00,0.54
4502.00,0.54
4501.00,0.54
4500.00,0.54
4499.00,0.54
4498.00,0.54
4497.00,0.54
4496.00,0.54
4495.00,0.54
4494.00,0.54
4493.00,0.54
4492.00,0.54
4491.00,0.54
4490.00,0.54
4489.00,0.54
4488.00,0.54
4487.00,0.54
4486.00,0.54
4485.00,0.54
4484.00,0.54
4483.00,0.54
4482.00,0.54
4481.00,0.54
4480.00,0.54
4479.00,0.53
4478.00,0.53
4477.00,0.53
4476.00,0.53
4475.00,0.53
4474.00,0.53
4473.00,0.53
4472.00,0.53
4471.00,0.53
4470.00,0.52
4469.00,0.52
4468.00,0.52
4467.00,0.52
4466.00,0.52
4465.00,0.52
4464.00,0.51
4463.00,0.51
4462.00,0.51
4461.00,0.51
4460.00,0.51
4459.00,0.51
4458.00,0.51
4457.00,0.50
4456.00,0.50
4455.00,0.50
4454.00,0.50
4453.00,0.50
4452.00,0.50
4451.00,0.50
4450.00,0.49
4449.00,0.49
4448.00,0.49
4447.00,0.49
4446.00,0.49
4445.00,0.49
4444.00,0.48
4443.00,0.48
4442.00,0.48
4441.00,0.48
4440.00,0.48
4439.00,0.48
4438.00,0.47
4437.00,0.47
4436.00,0.47
4435.00,0.47
4434.00,0.47
4433.00,0.46
4432.00,0.46
4431.00,0.46
4430.00,0.46
4429.00,0.46
4428.00,0.46
4427.00,0.46
4426.00,0.45
4425.00,0.45
4424.00,0.45
4423.00,0.45
4422.00,0.45
4421.00,0.45
4420.00,0.45
4419.00,0.45
4418.00,0.45
4417.00,0.45
4416.00,0.45
4415.00,0.45
4414.00,0.45
4413.00,0.45
4412.00,0.45
4411.00,0.45
4410.00,0.45
4409.00,0.45
4408.00,0.45
4407.00,0.45
4406.00,0.45
4405.00,0.45
4404.00,0.45
4403.00,0.45
4402.00,0.45
4401.00,0.45
4400.00,0.45
4399.00,0.45
4398.00,0.45
4397.00,0.45
4396.00,0.45
4395.00,0.45
4394.00,0.45
4393.00,0.45
4392.00,0.45
4391.00,0.45
4390.00,0.45
4389.00,0.45
4388.00,0.46
4387.00,0.46
4386.00,0.46
4385.00,0.46
4384.00,0.46
4383.00,0.46
4382.00,0.46
4381.00,0.46
4380.00,0.46
4379.00,0.46
4378.00,0.46
4377.00,0.47
4376.00,0.47
4375.00,0.47
4374.00,0.47
4373.00,0.47
4372.00,0.47
4371.00,0.47
4370.00,0.47
4369.00,0.47
4368.00,0.46
4367.00,0.46
4366.00,0.46
4365.00,0.46
4364.00,0.46
4363.00,0.46
4362.00,0.46
4361.00,0.46
4360.00,0.46
4359.00,0.46
4358.00,0.46
4357.00,0.46
4356.00,0.46
4355.00,0.46
4354.00,0.46
4353.00,0.46
4352.00,0.46
4351.00,0.46
4350.00,0.46
4349.00,0.46
4348.00,0.46
4347.00,0.46
4346.00,0.46
4345.00,0.46
4344.00,0.46
4343.00,0.47
4342.00,0.47
4341.00,0.47
4340.00,0.47
4339.00,0.47
4338.00,0.47
4337.00,0.47
4336.00,0.47
4335.00,0.47
4334.00,0.47
4333.00,0.47
4332.00,0.47
4331.00,0.47
4330.00,0.47
4329.00,0.47
4328.00,0.47
4327.00,0.47
4326.00,0.47
4325.00,0.47
4324.00,0.47
4323.00,0.47
4322.00,0.47
4321.00,0.47
4320.00,0.47
4319.00,0.47
4318.00,0.47
4317.00,0.47
4316.00,0.47
4315.00,0.47
4314.00,0.47
4313.00,0.48
4312.00,0.48
4311.00,0.48
4310.00,0.48
4309.00,0.48
4308.00,0.48
4307.00,0.48
4306.00,0.48
4305.00,0.48
4304.00,0.49
4303.00,0.49
4302.00,0.49
4301.00,0.49
4300.00,0.49
4299.00,0.49
4298.00,0.49
4297.00,0.49
4296.00,0.49
4295.00,0.49
4294.00,0.49
4293.00,0.49
4292.00,0.49
4291.00,0.49
4290.00,0.49
4289.00,0.49
4288.00,0.50
4287.00,0.50
4286.00,0.50
4285.00,0.50
4284.00,0.50
4283.00,0.50
4282.00,0.50
4281.00,0.50
4280.00,0.50
4279.00,0.50
4278.00,0.50
4277.00,0.50
4276.00,0.50
4275.00,0.50
4274.00,0.50
4273.00,0.50
4272.00,0.50
4271.00,0.50
4270.00,0.50
4269.00,0.50
4268.00,0.50
4267.00,0.50
4266.00,0.50
4265.00,0.50
4264.00,0.50
4263.00,0.50
4262.00,0.50
4261.00,0.50
4260.00,0.50
4259.00,0.50
4258.00,0.50
4257.00,0.50
4256.00,0.50
4255.00,0.50
4254.00,0.50
4253.00,0.50
4252.00,0.50
4251.00,0.50
4250.00,0.50
4249.00,0.50
4248.00,0.50
4247.00,0.50
4246.00,0.50
4245.00,0.50
4244.00,0.50
4243.00,0.50
4242.00,0.50
4241.00,0.50
4240.00,0.50
4239.00,0.50
4238.00,0.50
4237.00,0.51
4236.00,0.51
4235.00,0.51
4234.00,0.51
4233.00,0.51
4232.00,0.51
4231.00,0.51
4230.00,0.51
4229.00,0.52
4228.00,0.52
4227.00,0.52
4226.00,0.52
4225.00,0.52
4224.00,0.52
4223.00,0.52
4222.00,0.52
4221.00,0.52
4220.00,0.52
4219.00,0.52
4218.00,0.52
4217.00,0.52
4216.00,0.52
4215.00,0.52
4214.00,0.52
4213.00,0.52
4212.00,0.52
4211.00,0.52
4210.00,0.52
4209.00,0.52
4208.00,0.52
4207.00,0.52
4206.00,0.52
4205.00,0.52
4204.00,0.52
4203.00,0.52
4202.00,0.52
4201.00,0.52
4200.00,0.52
4199.00,0.52
4198.00,0.52
4197.00,0.52
4196.00,0.52
4195.00,0.52
4194.00,0.52
4193.00,0.52
4192.00,0.52
4191.00,0.52
4190.00,0.52
4189.00,0.52
4188.00,0.52
4187.00,0.52
4186.00,0.52
4185.00,0.52
4184.00,0.52
4183.00,0.52
4182.00,0.52
4181.00,0.52
4180.00,0.52
4179.00,0.52
4178.00,0.52
4177.00,0.52
4176.00,0.52
4175.00,0.52
4174.00,0.52
4173.00,0.52
4172.00,0.52
4171.00,0.52
4170.00,0.52
4169.00,0.52
4168.00,0.52
4167.00,0.52
4166.00,0.52
4165.00,0.52
4164.00,0.52
4163.00,0.52
4162.00,0.52
4161.00,0.52
4160.00,0.52
4159.00,0.52
4158.00,0.52
4157.00,0.52
4156.00,0.52
4155.00,0.52
4154.00,0.52
4153.00,0.52
4152.00,0.52
4151.00,0.53
4150.00,0.53
4149.00,0.53
4148.00,0.53
4147.00,0.53
4146.00,0.53
4145.00,0.52
4144.00,0.52
4143.00,0.52
4142.00,0.52
4141.00,0.52
4140.00,0.52
4139.00,0.52
4138.00,0.52
4137.00,0.52
4136.00,0.53
4135.00,0.53
4134.00,0.53
4133.00,0.53
4132.00,0.53
4131.00,0.53
4130.00,0.53
4129.00,0.53
4128.00,0.53
4127.00,0.53
4126.00,0.53
4125.00,0.53
4124.00,0.53
4123.00,0.53
4122.00,0.53
4121.00,0.53
4120.00,0.53
4119.00,0.53
4118.00,0.53
4117.00,0.53
4116.00,0.53
4115.00,0.53
4114.00,0.53
4113.00,0.53
4112.00,0.53
4111.00,0.53
4110.00,0.53
4109.00,0.53
4108.00,0.53
4107.00,0.53
4106.00,0.53
4105.00,0.53
4104.00,0.53
4103.00,0.53
4102.00,0.53
4101.00,0.53
4100.00,0.53
4099.00,0.53
4098.00,0.53
4097.00,0.53
4096.00,0.53
4095.00,0.53
4094.00,0.53
4093.00,0.53
4092.00,0.53
4091.00,0.53
4090.00,0.53
4089.00,0.53
4088.00,0.53
4087.00,0.53
4086.00,0.53
4085.00,0.53
4084.00,0.53
4083.00,0.53
4082.00,0.53
4081.00,0.53
4080.00,0.53
4079.00,0.53
4078.00,0.53
4077.00,0.53
4076.00,0.53
4075.00,0.53
4074.00,0.53
4073.00,0.53
4072.00,0.53
4071.00,0.53
4070.00,0.53
4069.00,0.53
4068.00,0.53
4067.00,0.53
4066.00,0.53
4065.00,0.53
4064.00,0.53
4063.00,0.54
4062.00,0.54
4061.00,0.54
4060.00,0.54
4059.00,0.54
4058.00,0.54
4057.00,0.54
4056.00,0.54
4055.00,0.54
4054.00,0.54
4053.00,0.54
4052.00,0.54
4051.00,0.54
4050.00,0.54
4049.00,0.54
4048.00,0.54
4047.00,0.54
4046.00,0.54
4045.00,0.54
4044.00,0.54
4043.00,0.54
4042.00,0.54
4041.00,0.54
4040.00,0.54
4039.00,0.54
4038.00,0.54
4037.00,0.54
4036.00,0.55
4035.00,0.55
4034.00,0.55
4033.00,0.55
4032.00,0.55
4031.00,0.55
4030.00,0.55
4029.00,0.55
4028.00,0.55
4027.00,0.55
4026.00,0.55
4025.00,0.55
4024.00,0.55
4023.00,0.56
4022.00,0.56
4021.00,0.56
4020.00,0.56
4019.00,0.56
4018.00,0.55
4017.00,0.55
4016.00,0.55
4015.00,0.55
4014.00,0.55
4013.00,0.55
4012.00,0.55
4011.00,0.55
4010.00,0.55
4009.00,0.55
4008.00,0.55
4007.00,0.55
4006.00,0.55
4005.00,0.55
4004.00,0.55
4003.00,0.55
4002.00,0.55
4001.00,0.56
4000.00,0.56
