创建为新数据集,样品 467 用户 Administrator 日期 星期日, 七月 15 2018
cm-1,%T
10000.00,0.47
9999.00,0.48
9998.00,0.48
9997.00,0.49
9996.00,0.49
9995.00,0.49
9994.00,0.50
9993.00,0.50
9992.00,0.50
9991.00,0.50
9990.00,0.50
9989.00,0.50
9988.00,0.50
9987.00,0.50
9986.00,0.50
9985.00,0.49
9984.00,0.49
9983.00,0.48
9982.00,0.48
9981.00,0.47
9980.00,0.47
9979.00,0.46
9978.00,0.46
9977.00,0.46
9976.00,0.45
9975.00,0.45
9974.00,0.44
9973.00,0.44
9972.00,0.44
9971.00,0.44
9970.00,0.44
9969.00,0.44
9968.00,0.44
9967.00,0.44
9966.00,0.44
9965.00,0.44
9964.00,0.44
9963.00,0.44
9962.00,0.44
9961.00,0.45
9960.00,0.45
9959.00,0.45
9958.00,0.45
9957.00,0.45
9956.00,0.45
9955.00,0.45
9954.00,0.45
9953.00,0.45
9952.00,0.45
9951.00,0.45
9950.00,0.45
9949.00,0.44
9948.00,0.44
9947.00,0.44
9946.00,0.44
9945.00,0.44
9944.00,0.44
9943.00,0.44
9942.00,0.44
9941.00,0.44
9940.00,0.44
9939.00,0.44
9938.00,0.44
9937.00,0.45
9936.00,0.45
9935.00,0.45
9934.00,0.45
9933.00,0.45
9932.00,0.45
9931.00,0.45
9930.00,0.45
9929.00,0.45
9928.00,0.45
9927.00,0.44
9926.00,0.44
9925.00,0.44
9924.00,0.43
9923.00,0.43
9922.00,0.43
9921.00,0.43
9920.00,0.42
9919.00,0.42
9918.00,0.42
9917.00,0.42
9916.00,0.42
9915.00,0.42
9914.00,0.42
9913.00,0.42
9912.00,0.42
9911.00,0.42
9910.00,0.42
9909.00,0.42
9908.00,0.42
9907.00,0.42
9906.00,0.42
9905.00,0.42
9904.00,0.42
9903.00,0.43
9902.00,0.43
9901.00,0.43
9900.00,0.43
9899.00,0.44
9898.00,0.44
9897.00,0.44
9896.00,0.45
9895.00,0.45
9894.00,0.45
9893.00,0.45
9892.00,0.46
9891.00,0.46
9890.00,0.46
9889.00,0.46
9888.00,0.46
9887.00,0.46
9886.00,0.46
9885.00,0.46
9884.00,0.46
9883.00,0.46
9882.00,0.46
9881.00,0.46
9880.00,0.45
9879.00,0.45
9878.00,0.45
9877.00,0.45
9876.00,0.45
9875.00,0.45
9874.00,0.45
9873.00,0.45
9872.00,0.45
9871.00,0.45
9870.00,0.44
9869.00,0.44
9868.00,0.44
9867.00,0.44
9866.00,0.44
9865.00,0.44
9864.00,0.44
9863.00,0.44
9862.00,0.43
9861.00,0.43
9860.00,0.43
9859.00,0.42
9858.00,0.42
9857.00,0.42
9856.00,0.42
9855.00,0.41
9854.00,0.41
9853.00,0.41
9852.00,0.41
9851.00,0.41
9850.00,0.42
9849.00,0.42
9848.00,0.42
9847.00,0.43
9846.00,0.43
9845.00,0.44
9844.00,0.44
9843.00,0.45
9842.00,0.45
9841.00,0.46
9840.00,0.46
9839.00,0.47
9838.00,0.47
9837.00,0.47
9836.00,0.48
9835.00,0.48
9834.00,0.48
9833.00,0.48
9832.00,0.48
9831.00,0.48
9830.00,0.48
9829.00,0.48
9828.00,0.49
9827.00,0.48
9826.00,0.48
9825.00,0.48
9824.00,0.48
9823.00,0.48
9822.00,0.48
9821.00,0.48
9820.00,0.48
9819.00,0.48
9818.00,0.48
9817.00,0.47
9816.00,0.47
9815.00,0.47
9814.00,0.47
9813.00,0.47
9812.00,0.47
9811.00,0.47
9810.00,0.47
9809.00,0.47
9808.00,0.47
9807.00,0.48
9806.00,0.48
9805.00,0.48
9804.00,0.48
9803.00,0.48
9802.00,0.48
9801.00,0.48
9800.00,0.49
9799.00,0.49
9798.00,0.49
9797.00,0.49
9796.00,0.49
9795.00,0.49
9794.00,0.49
9793.00,0.50
9792.00,0.50
9791.00,0.50
9790.00,0.50
9789.00,0.50
9788.00,0.50
9787.00,0.50
9786.00,0.50
9785.00,0.50
9784.00,0.50
9783.00,0.50
9782.00,0.49
9781.00,0.49
9780.00,0.49
9779.00,0.49
9778.00,0.49
9777.00,0.49
9776.00,0.49
9775.00,0.49
9774.00,0.49
9773.00,0.48
9772.00,0.48
9771.00,0.48
9770.00,0.48
9769.00,0.48
9768.00,0.48
9767.00,0.48
9766.00,0.48
9765.00,0.47
9764.00,0.47
9763.00,0.47
9762.00,0.47
9761.00,0.47
9760.00,0.47
9759.00,0.47
9758.00,0.47
9757.00,0.47
9756.00,0.47
9755.00,0.47
9754.00,0.47
9753.00,0.48
9752.00,0.48
9751.00,0.48
9750.00,0.48
9749.00,0.48
9748.00,0.49
9747.00,0.49
9746.00,0.49
9745.00,0.49
9744.00,0.49
9743.00,0.49
9742.00,0.49
9741.00,0.49
9740.00,0.49
9739.00,0.49
9738.00,0.48
9737.00,0.48
9736.00,0.48
9735.00,0.47
9734.00,0.47
9733.00,0.47
9732.00,0.46
9731.00,0.46
9730.00,0.46
9729.00,0.45
9728.00,0.45
9727.00,0.45
9726.00,0.44
9725.00,0.44
9724.00,0.44
9723.00,0.44
9722.00,0.44
9721.00,0.44
9720.00,0.43
9719.00,0.43
9718.00,0.44
9717.00,0.44
9716.00,0.44
9715.00,0.44
9714.00,0.44
9713.00,0.44
9712.00,0.44
9711.00,0.45
9710.00,0.45
9709.00,0.45
9708.00,0.45
9707.00,0.45
9706.00,0.45
9705.00,0.46
9704.00,0.46
9703.00,0.46
9702.00,0.46
9701.00,0.46
9700.00,0.46
9699.00,0.46
9698.00,0.46
9697.00,0.46
9696.00,0.45
9695.00,0.45
9694.00,0.45
9693.00,0.45
9692.00,0.46
9691.00,0.46
9690.00,0.46
9689.00,0.46
9688.00,0.46
9687.00,0.46
9686.00,0.46
9685.00,0.47
9684.00,0.47
9683.00,0.47
9682.00,0.48
9681.00,0.48
9680.00,0.48
9679.00,0.49
9678.00,0.49
9677.00,0.49
9676.00,0.49
9675.00,0.49
9674.00,0.49
9673.00,0.50
9672.00,0.49
9671.00,0.49
9670.00,0.49
9669.00,0.49
9668.00,0.49
9667.00,0.49
9666.00,0.48
9665.00,0.48
9664.00,0.48
9663.00,0.47
9662.00,0.47
9661.00,0.47
9660.00,0.46
9659.00,0.46
9658.00,0.46
9657.00,0.46
9656.00,0.46
9655.00,0.46
9654.00,0.46
9653.00,0.46
9652.00,0.47
9651.00,0.47
9650.00,0.47
9649.00,0.48
9648.00,0.48
9647.00,0.49
9646.00,0.49
9645.00,0.50
9644.00,0.50
9643.00,0.51
9642.00,0.51
9641.00,0.51
9640.00,0.52
9639.00,0.52
9638.00,0.52
9637.00,0.52
9636.00,0.52
9635.00,0.52
9634.00,0.52
9633.00,0.51
9632.00,0.51
9631.00,0.51
9630.00,0.50
9629.00,0.50
9628.00,0.50
9627.00,0.49
9626.00,0.49
9625.00,0.48
9624.00,0.48
9623.00,0.48
9622.00,0.48
9621.00,0.47
9620.00,0.47
9619.00,0.47
9618.00,0.47
9617.00,0.47
9616.00,0.47
9615.00,0.47
9614.00,0.47
9613.00,0.47
9612.00,0.47
9611.00,0.47
9610.00,0.47
9609.00,0.47
9608.00,0.47
9607.00,0.47
9606.00,0.47
9605.00,0.47
9604.00,0.47
9603.00,0.47
9602.00,0.47
9601.00,0.47
9600.00,0.47
9599.00,0.47
9598.00,0.47
9597.00,0.47
9596.00,0.48
9595.00,0.48
9594.00,0.48
9593.00,0.48
9592.00,0.48
9591.00,0.48
9590.00,0.48
9589.00,0.48
9588.00,0.48
9587.00,0.48
9586.00,0.48
9585.00,0.48
9584.00,0.48
9583.00,0.47
9582.00,0.47
9581.00,0.47
9580.00,0.46
9579.00,0.46
9578.00,0.45
9577.00,0.45
9576.00,0.45
9575.00,0.45
9574.00,0.44
9573.00,0.44
9572.00,0.44
9571.00,0.44
9570.00,0.44
9569.00,0.44
9568.00,0.44
9567.00,0.44
9566.00,0.44
9565.00,0.45
9564.00,0.45
9563.00,0.45
9562.00,0.46
9561.00,0.46
9560.00,0.46
9559.00,0.47
9558.00,0.47
9557.00,0.47
9556.00,0.48
9555.00,0.48
9554.00,0.48
9553.00,0.49
9552.00,0.49
9551.00,0.49
9550.00,0.49
9549.00,0.49
9548.00,0.50
9547.00,0.50
9546.00,0.50
9545.00,0.49
9544.00,0.49
9543.00,0.49
9542.00,0.49
9541.00,0.49
9540.00,0.48
9539.00,0.48
9538.00,0.48
9537.00,0.48
9536.00,0.48
9535.00,0.47
9534.00,0.47
9533.00,0.47
9532.00,0.47
9531.00,0.47
9530.00,0.47
9529.00,0.47
9528.00,0.48
9527.00,0.48
9526.00,0.48
9525.00,0.48
9524.00,0.48
9523.00,0.48
9522.00,0.48
9521.00,0.48
9520.00,0.48
9519.00,0.48
9518.00,0.48
9517.00,0.48
9516.00,0.48
9515.00,0.48
9514.00,0.48
9513.00,0.47
9512.00,0.47
9511.00,0.47
9510.00,0.46
9509.00,0.46
9508.00,0.46
9507.00,0.45
9506.00,0.45
9505.00,0.45
9504.00,0.44
9503.00,0.44
9502.00,0.44
9501.00,0.43
9500.00,0.43
9499.00,0.43
9498.00,0.43
9497.00,0.43
9496.00,0.43
9495.00,0.43
9494.00,0.43
9493.00,0.43
9492.00,0.44
9491.00,0.44
9490.00,0.44
9489.00,0.44
9488.00,0.44
9487.00,0.45
9486.00,0.45
9485.00,0.45
9484.00,0.45
9483.00,0.45
9482.00,0.45
9481.00,0.46
9480.00,0.46
9479.00,0.46
9478.00,0.46
9477.00,0.46
9476.00,0.46
9475.00,0.46
9474.00,0.46
9473.00,0.46
9472.00,0.47
9471.00,0.47
9470.00,0.47
9469.00,0.47
9468.00,0.47
9467.00,0.47
9466.00,0.47
9465.00,0.47
9464.00,0.47
9463.00,0.47
9462.00,0.47
9461.00,0.47
9460.00,0.47
9459.00,0.47
9458.00,0.47
9457.00,0.47
9456.00,0.47
9455.00,0.47
9454.00,0.47
9453.00,0.47
9452.00,0.47
9451.00,0.47
9450.00,0.47
9449.00,0.47
9448.00,0.47
9447.00,0.47
9446.00,0.47
9445.00,0.47
9444.00,0.48
9443.00,0.48
9442.00,0.48
9441.00,0.48
9440.00,0.48
9439.00,0.48
9438.00,0.48
9437.00,0.48
9436.00,0.48
9435.00,0.48
9434.00,0.48
9433.00,0.48
9432.00,0.49
9431.00,0.49
9430.00,0.49
9429.00,0.49
9428.00,0.49
9427.00,0.49
9426.00,0.49
9425.00,0.49
9424.00,0.48
9423.00,0.48
9422.00,0.48
9421.00,0.48
9420.00,0.48
9419.00,0.48
9418.00,0.48
9417.00,0.48
9416.00,0.48
9415.00,0.48
9414.00,0.48
9413.00,0.48
9412.00,0.48
9411.00,0.48
9410.00,0.48
9409.00,0.48
9408.00,0.48
9407.00,0.48
9406.00,0.48
9405.00,0.48
9404.00,0.48
9403.00,0.48
9402.00,0.48
9401.00,0.48
9400.00,0.48
9399.00,0.48
9398.00,0.48
9397.00,0.48
9396.00,0.48
9395.00,0.48
9394.00,0.48
9393.00,0.48
9392.00,0.48
9391.00,0.48
9390.00,0.49
9389.00,0.49
9388.00,0.49
9387.00,0.49
9386.00,0.49
9385.00,0.49
9384.00,0.49
9383.00,0.49
9382.00,0.49
9381.00,0.49
9380.00,0.49
9379.00,0.49
9378.00,0.49
9377.00,0.49
9376.00,0.49
9375.00,0.49
9374.00,0.49
9373.00,0.48
9372.00,0.48
9371.00,0.48
9370.00,0.47
9369.00,0.47
9368.00,0.47
9367.00,0.46
9366.00,0.46
9365.00,0.46
9364.00,0.46
9363.00,0.46
9362.00,0.45
9361.00,0.45
9360.00,0.45
9359.00,0.45
9358.00,0.45
9357.00,0.45
9356.00,0.46
9355.00,0.46
9354.00,0.46
9353.00,0.46
9352.00,0.46
9351.00,0.46
9350.00,0.47
9349.00,0.47
9348.00,0.47
9347.00,0.47
9346.00,0.47
9345.00,0.47
9344.00,0.47
9343.00,0.47
9342.00,0.47
9341.00,0.47
9340.00,0.47
9339.00,0.47
9338.00,0.47
9337.00,0.47
9336.00,0.47
9335.00,0.47
9334.00,0.46
9333.00,0.46
9332.00,0.46
9331.00,0.46
9330.00,0.46
9329.00,0.46
9328.00,0.46
9327.00,0.47
9326.00,0.47
9325.00,0.47
9324.00,0.47
9323.00,0.47
9322.00,0.47
9321.00,0.48
9320.00,0.48
9319.00,0.48
9318.00,0.48
9317.00,0.49
9316.00,0.49
9315.00,0.49
9314.00,0.50
9313.00,0.50
9312.00,0.50
9311.00,0.50
9310.00,0.50
9309.00,0.50
9308.00,0.50
9307.00,0.50
9306.00,0.50
9305.00,0.50
9304.00,0.50
9303.00,0.50
9302.00,0.50
9301.00,0.50
9300.00,0.50
9299.00,0.49
9298.00,0.49
9297.00,0.49
9296.00,0.49
9295.00,0.49
9294.00,0.49
9293.00,0.49
9292.00,0.49
9291.00,0.49
9290.00,0.49
9289.00,0.49
9288.00,0.49
9287.00,0.50
9286.00,0.50
9285.00,0.50
9284.00,0.50
9283.00,0.50
9282.00,0.50
9281.00,0.50
9280.00,0.51
9279.00,0.51
9278.00,0.51
9277.00,0.51
9276.00,0.50
9275.00,0.50
9274.00,0.50
9273.00,0.50
9272.00,0.50
9271.00,0.50
9270.00,0.49
9269.00,0.49
9268.00,0.49
9267.00,0.49
9266.00,0.48
9265.00,0.48
9264.00,0.48
9263.00,0.48
9262.00,0.47
9261.00,0.47
9260.00,0.47
9259.00,0.47
9258.00,0.47
9257.00,0.47
9256.00,0.47
9255.00,0.47
9254.00,0.47
9253.00,0.47
9252.00,0.47
9251.00,0.47
9250.00,0.47
9249.00,0.47
9248.00,0.47
9247.00,0.48
9246.00,0.48
9245.00,0.48
9244.00,0.48
9243.00,0.48
9242.00,0.48
9241.00,0.48
9240.00,0.48
9239.00,0.48
9238.00,0.48
9237.00,0.48
9236.00,0.48
9235.00,0.48
9234.00,0.48
9233.00,0.48
9232.00,0.48
9231.00,0.48
9230.00,0.47
9229.00,0.47
9228.00,0.47
9227.00,0.47
9226.00,0.47
9225.00,0.47
9224.00,0.47
9223.00,0.47
9222.00,0.46
9221.00,0.46
9220.00,0.46
9219.00,0.46
9218.00,0.47
9217.00,0.47
9216.00,0.47
9215.00,0.47
9214.00,0.47
9213.00,0.47
9212.00,0.47
9211.00,0.48
9210.00,0.48
9209.00,0.48
9208.00,0.48
9207.00,0.49
9206.00,0.49
9205.00,0.49
9204.00,0.49
9203.00,0.50
9202.00,0.50
9201.00,0.50
9200.00,0.50
9199.00,0.50
9198.00,0.50
9197.00,0.50
9196.00,0.50
9195.00,0.50
9194.00,0.50
9193.00,0.50
9192.00,0.50
9191.00,0.50
9190.00,0.50
9189.00,0.50
9188.00,0.49
9187.00,0.49
9186.00,0.49
9185.00,0.49
9184.00,0.49
9183.00,0.49
9182.00,0.49
9181.00,0.49
9180.00,0.49
9179.00,0.49
9178.00,0.49
9177.00,0.49
9176.00,0.49
9175.00,0.50
9174.00,0.50
9173.00,0.50
9172.00,0.50
9171.00,0.50
9170.00,0.50
9169.00,0.50
9168.00,0.50
9167.00,0.50
9166.00,0.50
9165.00,0.50
9164.00,0.50
9163.00,0.50
9162.00,0.50
9161.00,0.50
9160.00,0.50
9159.00,0.50
9158.00,0.50
9157.00,0.50
9156.00,0.49
9155.00,0.49
9154.00,0.49
9153.00,0.49
9152.00,0.49
9151.00,0.48
9150.00,0.48
9149.00,0.48
9148.00,0.48
9147.00,0.48
9146.00,0.47
9145.00,0.47
9144.00,0.47
9143.00,0.47
9142.00,0.47
9141.00,0.47
9140.00,0.47
9139.00,0.47
9138.00,0.47
9137.00,0.47
9136.00,0.47
9135.00,0.46
9134.00,0.46
9133.00,0.46
9132.00,0.47
9131.00,0.47
9130.00,0.47
9129.00,0.47
9128.00,0.47
9127.00,0.47
9126.00,0.47
9125.00,0.47
9124.00,0.47
9123.00,0.48
9122.00,0.48
9121.00,0.48
9120.00,0.48
9119.00,0.48
9118.00,0.48
9117.00,0.48
9116.00,0.48
9115.00,0.48
9114.00,0.48
9113.00,0.48
9112.00,0.48
9111.00,0.48
9110.00,0.48
9109.00,0.48
9108.00,0.48
9107.00,0.48
9106.00,0.48
9105.00,0.48
9104.00,0.48
9103.00,0.48
9102.00,0.48
9101.00,0.48
9100.00,0.48
9099.00,0.48
9098.00,0.48
9097.00,0.48
9096.00,0.48
9095.00,0.48
9094.00,0.48
9093.00,0.49
9092.00,0.49
9091.00,0.49
9090.00,0.49
9089.00,0.49
9088.00,0.49
9087.00,0.49
9086.00,0.49
9085.00,0.49
9084.00,0.49
9083.00,0.49
9082.00,0.49
9081.00,0.49
9080.00,0.49
9079.00,0.49
9078.00,0.49
9077.00,0.49
9076.00,0.49
9075.00,0.49
9074.00,0.49
9073.00,0.49
9072.00,0.49
9071.00,0.49
9070.00,0.49
9069.00,0.50
9068.00,0.50
9067.00,0.50
9066.00,0.50
9065.00,0.50
9064.00,0.50
9063.00,0.50
9062.00,0.50
9061.00,0.50
9060.00,0.49
9059.00,0.49
9058.00,0.49
9057.00,0.49
9056.00,0.49
9055.00,0.48
9054.00,0.48
9053.00,0.48
9052.00,0.48
9051.00,0.48
9050.00,0.47
9049.00,0.47
9048.00,0.47
9047.00,0.47
9046.00,0.47
9045.00,0.47
9044.00,0.47
9043.00,0.47
9042.00,0.47
9041.00,0.47
9040.00,0.47
9039.00,0.48
9038.00,0.48
9037.00,0.48
9036.00,0.48
9035.00,0.48
9034.00,0.48
9033.00,0.49
9032.00,0.49
9031.00,0.49
9030.00,0.49
9029.00,0.49
9028.00,0.49
9027.00,0.49
9026.00,0.49
9025.00,0.49
9024.00,0.49
9023.00,0.49
9022.00,0.49
9021.00,0.49
9020.00,0.49
9019.00,0.48
9018.00,0.48
9017.00,0.48
9016.00,0.48
9015.00,0.47
9014.00,0.47
9013.00,0.47
9012.00,0.47
9011.00,0.46
9010.00,0.46
9009.00,0.46
9008.00,0.46
9007.00,0.46
9006.00,0.46
9005.00,0.46
9004.00,0.46
9003.00,0.46
9002.00,0.46
9001.00,0.46
9000.00,0.46
8999.00,0.46
8998.00,0.46
8997.00,0.46
8996.00,0.47
8995.00,0.47
8994.00,0.47
8993.00,0.47
8992.00,0.47
8991.00,0.47
8990.00,0.48
8989.00,0.48
8988.00,0.48
8987.00,0.48
8986.00,0.48
8985.00,0.48
8984.00,0.48
8983.00,0.49
8982.00,0.49
8981.00,0.49
8980.00,0.49
8979.00,0.49
8978.00,0.49
8977.00,0.49
8976.00,0.49
8975.00,0.49
8974.00,0.49
8973.00,0.49
8972.00,0.48
8971.00,0.48
8970.00,0.48
8969.00,0.48
8968.00,0.48
8967.00,0.48
8966.00,0.48
8965.00,0.48
8964.00,0.47
8963.00,0.47
8962.00,0.47
8961.00,0.47
8960.00,0.47
8959.00,0.47
8958.00,0.47
8957.00,0.47
8956.00,0.48
8955.00,0.48
8954.00,0.48
8953.00,0.48
8952.00,0.48
8951.00,0.48
8950.00,0.48
8949.00,0.48
8948.00,0.48
8947.00,0.48
8946.00,0.48
8945.00,0.48
8944.00,0.48
8943.00,0.48
8942.00,0.48
8941.00,0.48
8940.00,0.48
8939.00,0.48
8938.00,0.48
8937.00,0.48
8936.00,0.48
8935.00,0.49
8934.00,0.49
8933.00,0.49
8932.00,0.49
8931.00,0.49
8930.00,0.49
8929.00,0.49
8928.00,0.49
8927.00,0.49
8926.00,0.50
8925.00,0.50
8924.00,0.50
8923.00,0.50
8922.00,0.50
8921.00,0.50
8920.00,0.50
8919.00,0.50
8918.00,0.50
8917.00,0.50
8916.00,0.50
8915.00,0.50
8914.00,0.50
8913.00,0.50
8912.00,0.51
8911.00,0.51
8910.00,0.51
8909.00,0.51
8908.00,0.51
8907.00,0.51
8906.00,0.51
8905.00,0.51
8904.00,0.51
8903.00,0.51
8902.00,0.51
8901.00,0.50
8900.00,0.50
8899.00,0.50
8898.00,0.50
8897.00,0.50
8896.00,0.50
8895.00,0.50
8894.00,0.50
8893.00,0.50
8892.00,0.49
8891.00,0.49
8890.00,0.49
8889.00,0.49
8888.00,0.49
8887.00,0.49
8886.00,0.49
8885.00,0.48
8884.00,0.48
8883.00,0.48
8882.00,0.48
8881.00,0.48
8880.00,0.48
8879.00,0.48
8878.00,0.48
8877.00,0.48
8876.00,0.48
8875.00,0.48
8874.00,0.48
8873.00,0.48
8872.00,0.47
8871.00,0.47
8870.00,0.47
8869.00,0.47
8868.00,0.47
8867.00,0.47
8866.00,0.47
8865.00,0.47
8864.00,0.46
8863.00,0.46
8862.00,0.46
8861.00,0.46
8860.00,0.46
8859.00,0.46
8858.00,0.46
8857.00,0.46
8856.00,0.46
8855.00,0.46
8854.00,0.46
8853.00,0.46
8852.00,0.46
8851.00,0.46
8850.00,0.46
8849.00,0.46
8848.00,0.46
8847.00,0.47
8846.00,0.47
8845.00,0.47
8844.00,0.47
8843.00,0.47
8842.00,0.47
8841.00,0.47
8840.00,0.47
8839.00,0.47
8838.00,0.47
8837.00,0.47
8836.00,0.47
8835.00,0.47
8834.00,0.47
8833.00,0.47
8832.00,0.48
8831.00,0.48
8830.00,0.48
8829.00,0.48
8828.00,0.48
8827.00,0.48
8826.00,0.48
8825.00,0.48
8824.00,0.48
8823.00,0.49
8822.00,0.49
8821.00,0.49
8820.00,0.49
8819.00,0.49
8818.00,0.49
8817.00,0.49
8816.00,0.48
8815.00,0.48
8814.00,0.48
8813.00,0.48
8812.00,0.48
8811.00,0.48
8810.00,0.48
8809.00,0.48
8808.00,0.48
8807.00,0.48
8806.00,0.48
8805.00,0.48
8804.00,0.48
8803.00,0.48
8802.00,0.48
8801.00,0.48
8800.00,0.48
8799.00,0.48
8798.00,0.48
8797.00,0.48
8796.00,0.48
8795.00,0.48
8794.00,0.48
8793.00,0.48
8792.00,0.48
8791.00,0.48
8790.00,0.48
8789.00,0.48
8788.00,0.48
8787.00,0.48
8786.00,0.47
8785.00,0.47
8784.00,0.47
8783.00,0.47
8782.00,0.47
8781.00,0.47
8780.00,0.46
8779.00,0.46
8778.00,0.46
8777.00,0.46
8776.00,0.46
8775.00,0.46
8774.00,0.46
8773.00,0.46
8772.00,0.46
8771.00,0.46
8770.00,0.46
8769.00,0.46
8768.00,0.46
8767.00,0.46
8766.00,0.47
8765.00,0.47
8764.00,0.47
8763.00,0.47
8762.00,0.47
8761.00,0.47
8760.00,0.47
8759.00,0.47
8758.00,0.48
8757.00,0.48
8756.00,0.48
8755.00,0.48
8754.00,0.48
8753.00,0.48
8752.00,0.48
8751.00,0.48
8750.00,0.48
8749.00,0.48
8748.00,0.48
8747.00,0.47
8746.00,0.47
8745.00,0.47
8744.00,0.47
8743.00,0.47
8742.00,0.47
8741.00,0.47
8740.00,0.46
8739.00,0.46
8738.00,0.46
8737.00,0.46
8736.00,0.46
8735.00,0.46
8734.00,0.46
8733.00,0.46
8732.00,0.46
8731.00,0.46
8730.00,0.46
8729.00,0.46
8728.00,0.46
8727.00,0.46
8726.00,0.46
8725.00,0.46
8724.00,0.46
8723.00,0.46
8722.00,0.46
8721.00,0.46
8720.00,0.46
8719.00,0.46
8718.00,0.47
8717.00,0.47
8716.00,0.47
8715.00,0.47
8714.00,0.47
8713.00,0.47
8712.00,0.46
8711.00,0.46
8710.00,0.46
8709.00,0.46
8708.00,0.46
8707.00,0.46
8706.00,0.46
8705.00,0.46
8704.00,0.46
8703.00,0.46
8702.00,0.46
8701.00,0.46
8700.00,0.46
8699.00,0.46
8698.00,0.46
8697.00,0.46
8696.00,0.46
8695.00,0.46
8694.00,0.46
8693.00,0.47
8692.00,0.47
8691.00,0.47
8690.00,0.47
8689.00,0.47
8688.00,0.46
8687.00,0.46
8686.00,0.46
8685.00,0.46
8684.00,0.46
8683.00,0.46
8682.00,0.46
8681.00,0.46
8680.00,0.46
8679.00,0.46
8678.00,0.46
8677.00,0.46
8676.00,0.46
8675.00,0.46
8674.00,0.46
8673.00,0.46
8672.00,0.46
8671.00,0.46
8670.00,0.46
8669.00,0.46
8668.00,0.46
8667.00,0.46
8666.00,0.46
8665.00,0.46
8664.00,0.46
8663.00,0.46
8662.00,0.45
8661.00,0.45
8660.00,0.45
8659.00,0.45
8658.00,0.45
8657.00,0.45
8656.00,0.45
8655.00,0.45
8654.00,0.45
8653.00,0.45
8652.00,0.46
8651.00,0.46
8650.00,0.46
8649.00,0.46
8648.00,0.46
8647.00,0.46
8646.00,0.46
8645.00,0.46
8644.00,0.46
8643.00,0.46
8642.00,0.46
8641.00,0.46
8640.00,0.46
8639.00,0.46
8638.00,0.46
8637.00,0.46
8636.00,0.46
8635.00,0.46
8634.00,0.46
8633.00,0.46
8632.00,0.46
8631.00,0.46
8630.00,0.46
8629.00,0.46
8628.00,0.45
8627.00,0.45
8626.00,0.45
8625.00,0.45
8624.00,0.45
8623.00,0.45
8622.00,0.45
8621.00,0.44
8620.00,0.44
8619.00,0.44
8618.00,0.44
8617.00,0.44
8616.00,0.44
8615.00,0.44
8614.00,0.44
8613.00,0.44
8612.00,0.44
8611.00,0.44
8610.00,0.44
8609.00,0.44
8608.00,0.44
8607.00,0.44
8606.00,0.45
8605.00,0.45
8604.00,0.45
8603.00,0.45
8602.00,0.45
8601.00,0.45
8600.00,0.45
8599.00,0.46
8598.00,0.46
8597.00,0.46
8596.00,0.46
8595.00,0.46
8594.00,0.46
8593.00,0.46
8592.00,0.46
8591.00,0.46
8590.00,0.46
8589.00,0.46
8588.00,0.46
8587.00,0.46
8586.00,0.46
8585.00,0.46
8584.00,0.46
8583.00,0.46
8582.00,0.46
8581.00,0.46
8580.00,0.46
8579.00,0.47
8578.00,0.47
8577.00,0.47
8576.00,0.47
8575.00,0.47
8574.00,0.46
8573.00,0.46
8572.00,0.46
8571.00,0.46
8570.00,0.46
8569.00,0.46
8568.00,0.46
8567.00,0.46
8566.00,0.46
8565.00,0.46
8564.00,0.46
8563.00,0.46
8562.00,0.46
8561.00,0.46
8560.00,0.46
8559.00,0.46
8558.00,0.46
8557.00,0.46
8556.00,0.46
8555.00,0.46
8554.00,0.46
8553.00,0.46
8552.00,0.46
8551.00,0.46
8550.00,0.46
8549.00,0.46
8548.00,0.46
8547.00,0.46
8546.00,0.47
8545.00,0.46
8544.00,0.46
8543.00,0.46
8542.00,0.46
8541.00,0.46
8540.00,0.46
8539.00,0.46
8538.00,0.46
8537.00,0.46
8536.00,0.46
8535.00,0.46
8534.00,0.46
8533.00,0.46
8532.00,0.46
8531.00,0.46
8530.00,0.46
8529.00,0.46
8528.00,0.46
8527.00,0.46
8526.00,0.46
8525.00,0.46
8524.00,0.46
8523.00,0.46
8522.00,0.46
8521.00,0.46
8520.00,0.46
8519.00,0.46
8518.00,0.45
8517.00,0.45
8516.00,0.45
8515.00,0.45
8514.00,0.45
8513.00,0.45
8512.00,0.45
8511.00,0.45
8510.00,0.45
8509.00,0.45
8508.00,0.45
8507.00,0.45
8506.00,0.45
8505.00,0.45
8504.00,0.45
8503.00,0.45
8502.00,0.45
8501.00,0.45
8500.00,0.45
8499.00,0.45
8498.00,0.45
8497.00,0.46
8496.00,0.46
8495.00,0.46
8494.00,0.46
8493.00,0.46
8492.00,0.46
8491.00,0.46
8490.00,0.46
8489.00,0.46
8488.00,0.46
8487.00,0.46
8486.00,0.46
8485.00,0.46
8484.00,0.46
8483.00,0.46
8482.00,0.46
8481.00,0.46
8480.00,0.46
8479.00,0.46
8478.00,0.46
8477.00,0.46
8476.00,0.45
8475.00,0.45
8474.00,0.45
8473.00,0.45
8472.00,0.45
8471.00,0.45
8470.00,0.45
8469.00,0.45
8468.00,0.45
8467.00,0.45
8466.00,0.44
8465.00,0.44
8464.00,0.44
8463.00,0.44
8462.00,0.44
8461.00,0.44
8460.00,0.45
8459.00,0.45
8458.00,0.45
8457.00,0.45
8456.00,0.45
8455.00,0.45
8454.00,0.45
8453.00,0.45
8452.00,0.45
8451.00,0.45
8450.00,0.45
8449.00,0.45
8448.00,0.45
8447.00,0.45
8446.00,0.45
8445.00,0.45
8444.00,0.45
8443.00,0.45
8442.00,0.45
8441.00,0.45
8440.00,0.45
8439.00,0.45
8438.00,0.45
8437.00,0.45
8436.00,0.45
8435.00,0.45
8434.00,0.45
8433.00,0.45
8432.00,0.45
8431.00,0.45
8430.00,0.45
8429.00,0.45
8428.00,0.45
8427.00,0.45
8426.00,0.45
8425.00,0.45
8424.00,0.45
8423.00,0.44
8422.00,0.44
8421.00,0.44
8420.00,0.44
8419.00,0.44
8418.00,0.44
8417.00,0.44
8416.00,0.44
8415.00,0.43
8414.00,0.43
8413.00,0.43
8412.00,0.43
8411.00,0.43
8410.00,0.43
8409.00,0.43
8408.00,0.43
8407.00,0.43
8406.00,0.43
8405.00,0.43
8404.00,0.43
8403.00,0.43
8402.00,0.43
8401.00,0.43
8400.00,0.43
8399.00,0.44
8398.00,0.44
8397.00,0.44
8396.00,0.44
8395.00,0.44
8394.00,0.44
8393.00,0.44
8392.00,0.45
8391.00,0.45
8390.00,0.45
8389.00,0.45
8388.00,0.45
8387.00,0.45
8386.00,0.45
8385.00,0.45
8384.00,0.45
8383.00,0.45
8382.00,0.45
8381.00,0.46
8380.00,0.46
8379.00,0.46
8378.00,0.46
8377.00,0.46
8376.00,0.46
8375.00,0.46
8374.00,0.46
8373.00,0.46
8372.00,0.46
8371.00,0.46
8370.00,0.45
8369.00,0.45
8368.00,0.45
8367.00,0.45
8366.00,0.45
8365.00,0.45
8364.00,0.45
8363.00,0.45
8362.00,0.45
8361.00,0.45
8360.00,0.45
8359.00,0.45
8358.00,0.45
8357.00,0.44
8356.00,0.44
8355.00,0.45
8354.00,0.45
8353.00,0.45
8352.00,0.45
8351.00,0.45
8350.00,0.45
8349.00,0.45
8348.00,0.45
8347.00,0.46
8346.00,0.46
8345.00,0.46
8344.00,0.46
8343.00,0.46
8342.00,0.46
8341.00,0.47
8340.00,0.47
8339.00,0.47
8338.00,0.47
8337.00,0.47
8336.00,0.47
8335.00,0.47
8334.00,0.47
8333.00,0.47
8332.00,0.47
8331.00,0.47
8330.00,0.46
8329.00,0.46
8328.00,0.46
8327.00,0.46
8326.00,0.46
8325.00,0.46
8324.00,0.46
8323.00,0.46
8322.00,0.46
8321.00,0.46
8320.00,0.45
8319.00,0.45
8318.00,0.45
8317.00,0.45
8316.00,0.45
8315.00,0.45
8314.00,0.45
8313.00,0.45
8312.00,0.45
8311.00,0.44
8310.00,0.44
8309.00,0.44
8308.00,0.44
8307.00,0.44
8306.00,0.44
8305.00,0.44
8304.00,0.44
8303.00,0.44
8302.00,0.44
8301.00,0.44
8300.00,0.44
8299.00,0.44
8298.00,0.44
8297.00,0.44
8296.00,0.44
8295.00,0.45
8294.00,0.45
8293.00,0.45
8292.00,0.45
8291.00,0.45
8290.00,0.45
8289.00,0.45
8288.00,0.45
8287.00,0.45
8286.00,0.45
8285.00,0.45
8284.00,0.45
8283.00,0.45
8282.00,0.45
8281.00,0.45
8280.00,0.45
8279.00,0.45
8278.00,0.45
8277.00,0.45
8276.00,0.45
8275.00,0.46
8274.00,0.46
8273.00,0.46
8272.00,0.46
8271.00,0.46
8270.00,0.46
8269.00,0.46
8268.00,0.46
8267.00,0.46
8266.00,0.46
8265.00,0.46
8264.00,0.46
8263.00,0.46
8262.00,0.46
8261.00,0.46
8260.00,0.46
8259.00,0.46
8258.00,0.46
8257.00,0.46
8256.00,0.46
8255.00,0.46
8254.00,0.46
8253.00,0.46
8252.00,0.46
8251.00,0.46
8250.00,0.46
8249.00,0.46
8248.00,0.46
8247.00,0.46
8246.00,0.46
8245.00,0.46
8244.00,0.46
8243.00,0.46
8242.00,0.46
8241.00,0.46
8240.00,0.46
8239.00,0.46
8238.00,0.46
8237.00,0.46
8236.00,0.46
8235.00,0.46
8234.00,0.46
8233.00,0.46
8232.00,0.46
8231.00,0.46
8230.00,0.46
8229.00,0.46
8228.00,0.46
8227.00,0.46
8226.00,0.46
8225.00,0.46
8224.00,0.46
8223.00,0.46
8222.00,0.46
8221.00,0.46
8220.00,0.47
8219.00,0.47
8218.00,0.47
8217.00,0.47
8216.00,0.47
8215.00,0.47
8214.00,0.47
8213.00,0.47
8212.00,0.47
8211.00,0.47
8210.00,0.47
8209.00,0.47
8208.00,0.47
8207.00,0.47
8206.00,0.47
8205.00,0.47
8204.00,0.47
8203.00,0.47
8202.00,0.47
8201.00,0.47
8200.00,0.47
8199.00,0.47
8198.00,0.47
8197.00,0.47
8196.00,0.47
8195.00,0.47
8194.00,0.47
8193.00,0.47
8192.00,0.47
8191.00,0.47
8190.00,0.47
8189.00,0.47
8188.00,0.47
8187.00,0.47
8186.00,0.47
8185.00,0.47
8184.00,0.47
8183.00,0.47
8182.00,0.47
8181.00,0.47
8180.00,0.48
8179.00,0.48
8178.00,0.48
8177.00,0.48
8176.00,0.48
8175.00,0.48
8174.00,0.49
8173.00,0.49
8172.00,0.49
8171.00,0.49
8170.00,0.49
8169.00,0.49
8168.00,0.49
8167.00,0.49
8166.00,0.49
8165.00,0.49
8164.00,0.49
8163.00,0.49
8162.00,0.49
8161.00,0.49
8160.00,0.49
8159.00,0.49
8158.00,0.49
8157.00,0.49
8156.00,0.48
8155.00,0.48
8154.00,0.48
8153.00,0.48
8152.00,0.48
8151.00,0.48
8150.00,0.48
8149.00,0.48
8148.00,0.48
8147.00,0.48
8146.00,0.48
8145.00,0.48
8144.00,0.48
8143.00,0.47
8142.00,0.47
8141.00,0.47
8140.00,0.47
8139.00,0.47
8138.00,0.47
8137.00,0.47
8136.00,0.47
8135.00,0.46
8134.00,0.46
8133.00,0.46
8132.00,0.46
8131.00,0.46
8130.00,0.46
8129.00,0.46
8128.00,0.46
8127.00,0.46
8126.00,0.46
8125.00,0.46
8124.00,0.46
8123.00,0.46
8122.00,0.46
8121.00,0.46
8120.00,0.46
8119.00,0.46
8118.00,0.46
8117.00,0.46
8116.00,0.46
8115.00,0.47
8114.00,0.47
8113.00,0.47
8112.00,0.47
8111.00,0.47
8110.00,0.47
8109.00,0.47
8108.00,0.47
8107.00,0.47
8106.00,0.47
8105.00,0.47
8104.00,0.47
8103.00,0.47
8102.00,0.47
8101.00,0.48
8100.00,0.48
8099.00,0.48
8098.00,0.48
8097.00,0.48
8096.00,0.48
8095.00,0.48
8094.00,0.48
8093.00,0.48
8092.00,0.48
8091.00,0.48
8090.00,0.48
8089.00,0.48
8088.00,0.48
8087.00,0.48
8086.00,0.48
8085.00,0.48
8084.00,0.48
8083.00,0.48
8082.00,0.48
8081.00,0.48
8080.00,0.47
8079.00,0.47
8078.00,0.47
8077.00,0.47
8076.00,0.47
8075.00,0.47
8074.00,0.47
8073.00,0.47
8072.00,0.48
8071.00,0.48
8070.00,0.48
8069.00,0.48
8068.00,0.48
8067.00,0.48
8066.00,0.48
8065.00,0.48
8064.00,0.48
8063.00,0.48
8062.00,0.48
8061.00,0.49
8060.00,0.49
8059.00,0.49
8058.00,0.49
8057.00,0.49
8056.00,0.49
8055.00,0.49
8054.00,0.49
8053.00,0.49
8052.00,0.49
8051.00,0.49
8050.00,0.49
8049.00,0.49
8048.00,0.49
8047.00,0.49
8046.00,0.49
8045.00,0.49
8044.00,0.48
8043.00,0.48
8042.00,0.48
8041.00,0.48
8040.00,0.48
8039.00,0.48
8038.00,0.48
8037.00,0.48
8036.00,0.48
8035.00,0.48
8034.00,0.48
8033.00,0.48
8032.00,0.48
8031.00,0.48
8030.00,0.48
8029.00,0.48
8028.00,0.48
8027.00,0.48
8026.00,0.48
8025.00,0.48
8024.00,0.48
8023.00,0.48
8022.00,0.48
8021.00,0.48
8020.00,0.48
8019.00,0.48
8018.00,0.49
8017.00,0.49
8016.00,0.49
8015.00,0.49
8014.00,0.49
8013.00,0.49
8012.00,0.49
8011.00,0.49
8010.00,0.49
8009.00,0.49
8008.00,0.49
8007.00,0.49
8006.00,0.49
8005.00,0.49
8004.00,0.49
8003.00,0.49
8002.00,0.49
8001.00,0.49
8000.00,0.49
7999.00,0.49
7998.00,0.49
7997.00,0.49
7996.00,0.49
7995.00,0.49
7994.00,0.49
7993.00,0.49
7992.00,0.48
7991.00,0.48
7990.00,0.48
7989.00,0.48
7988.00,0.48
7987.00,0.48
7986.00,0.48
7985.00,0.48
7984.00,0.48
7983.00,0.48
7982.00,0.48
7981.00,0.48
7980.00,0.48
7979.00,0.48
7978.00,0.48
7977.00,0.48
7976.00,0.48
7975.00,0.48
7974.00,0.48
7973.00,0.48
7972.00,0.48
7971.00,0.48
7970.00,0.48
7969.00,0.48
7968.00,0.48
7967.00,0.48
7966.00,0.48
7965.00,0.48
7964.00,0.48
7963.00,0.48
7962.00,0.48
7961.00,0.48
7960.00,0.48
7959.00,0.48
7958.00,0.48
7957.00,0.48
7956.00,0.48
7955.00,0.48
7954.00,0.48
7953.00,0.48
7952.00,0.48
7951.00,0.48
7950.00,0.48
7949.00,0.48
7948.00,0.48
7947.00,0.48
7946.00,0.48
7945.00,0.48
7944.00,0.48
7943.00,0.48
7942.00,0.48
7941.00,0.48
7940.00,0.48
7939.00,0.48
7938.00,0.48
7937.00,0.48
7936.00,0.48
7935.00,0.48
7934.00,0.48
7933.00,0.48
7932.00,0.48
7931.00,0.48
7930.00,0.48
7929.00,0.49
7928.00,0.49
7927.00,0.49
7926.00,0.49
7925.00,0.49
7924.00,0.49
7923.00,0.49
7922.00,0.49
7921.00,0.49
7920.00,0.49
7919.00,0.49
7918.00,0.49
7917.00,0.49
7916.00,0.49
7915.00,0.49
7914.00,0.49
7913.00,0.49
7912.00,0.49
7911.00,0.49
7910.00,0.49
7909.00,0.49
7908.00,0.49
7907.00,0.49
7906.00,0.49
7905.00,0.49
7904.00,0.49
7903.00,0.49
7902.00,0.49
7901.00,0.49
7900.00,0.49
7899.00,0.49
7898.00,0.49
7897.00,0.49
7896.00,0.49
7895.00,0.49
7894.00,0.49
7893.00,0.49
7892.00,0.49
7891.00,0.49
7890.00,0.49
7889.00,0.49
7888.00,0.49
7887.00,0.49
7886.00,0.49
7885.00,0.49
7884.00,0.49
7883.00,0.49
7882.00,0.49
7881.00,0.49
7880.00,0.49
7879.00,0.49
7878.00,0.49
7877.00,0.49
7876.00,0.49
7875.00,0.49
7874.00,0.49
7873.00,0.49
7872.00,0.49
7871.00,0.49
7870.00,0.49
7869.00,0.49
7868.00,0.49
7867.00,0.49
7866.00,0.49
7865.00,0.49
7864.00,0.49
7863.00,0.49
7862.00,0.49
7861.00,0.49
7860.00,0.49
7859.00,0.49
7858.00,0.49
7857.00,0.49
7856.00,0.49
7855.00,0.49
7854.00,0.49
7853.00,0.49
7852.00,0.49
7851.00,0.49
7850.00,0.49
7849.00,0.49
7848.00,0.49
7847.00,0.49
7846.00,0.49
7845.00,0.49
7844.00,0.49
7843.00,0.49
7842.00,0.49
7841.00,0.49
7840.00,0.50
7839.00,0.50
7838.00,0.50
7837.00,0.50
7836.00,0.50
7835.00,0.50
7834.00,0.50
7833.00,0.50
7832.00,0.51
7831.00,0.51
7830.00,0.51
7829.00,0.51
7828.00,0.51
7827.00,0.51
7826.00,0.51
7825.00,0.51
7824.00,0.50
7823.00,0.50
7822.00,0.50
7821.00,0.50
7820.00,0.50
7819.00,0.50
7818.00,0.50
7817.00,0.50
7816.00,0.50
7815.00,0.50
7814.00,0.50
7813.00,0.50
7812.00,0.50
7811.00,0.50
7810.00,0.50
7809.00,0.50
7808.00,0.50
7807.00,0.50
7806.00,0.50
7805.00,0.50
7804.00,0.50
7803.00,0.50
7802.00,0.50
7801.00,0.50
7800.00,0.50
7799.00,0.50
7798.00,0.50
7797.00,0.50
7796.00,0.50
7795.00,0.50
7794.00,0.50
7793.00,0.50
7792.00,0.49
7791.00,0.49
7790.00,0.49
7789.00,0.49
7788.00,0.49
7787.00,0.49
7786.00,0.49
7785.00,0.49
7784.00,0.49
7783.00,0.49
7782.00,0.49
7781.00,0.49
7780.00,0.49
7779.00,0.49
7778.00,0.49
7777.00,0.49
7776.00,0.49
7775.00,0.49
7774.00,0.49
7773.00,0.49
7772.00,0.50
7771.00,0.50
7770.00,0.50
7769.00,0.50
7768.00,0.50
7767.00,0.50
7766.00,0.50
7765.00,0.49
7764.00,0.49
7763.00,0.49
7762.00,0.49
7761.00,0.49
7760.00,0.49
7759.00,0.49
7758.00,0.49
7757.00,0.49
7756.00,0.49
7755.00,0.49
7754.00,0.49
7753.00,0.49
7752.00,0.49
7751.00,0.49
7750.00,0.49
7749.00,0.49
7748.00,0.49
7747.00,0.49
7746.00,0.49
7745.00,0.49
7744.00,0.49
7743.00,0.49
7742.00,0.49
7741.00,0.49
7740.00,0.49
7739.00,0.49
7738.00,0.49
7737.00,0.49
7736.00,0.49
7735.00,0.49
7734.00,0.49
7733.00,0.49
7732.00,0.49
7731.00,0.49
7730.00,0.49
7729.00,0.49
7728.00,0.49
7727.00,0.49
7726.00,0.49
7725.00,0.49
7724.00,0.49
7723.00,0.49
7722.00,0.49
7721.00,0.49
7720.00,0.49
7719.00,0.49
7718.00,0.49
7717.00,0.49
7716.00,0.49
7715.00,0.49
7714.00,0.49
7713.00,0.49
7712.00,0.49
7711.00,0.49
7710.00,0.49
7709.00,0.49
7708.00,0.49
7707.00,0.49
7706.00,0.49
7705.00,0.49
7704.00,0.49
7703.00,0.49
7702.00,0.50
7701.00,0.50
7700.00,0.50
7699.00,0.50
7698.00,0.50
7697.00,0.50
7696.00,0.50
7695.00,0.50
7694.00,0.50
7693.00,0.50
7692.00,0.50
7691.00,0.50
7690.00,0.50
7689.00,0.50
7688.00,0.50
7687.00,0.50
7686.00,0.50
7685.00,0.50
7684.00,0.50
7683.00,0.50
7682.00,0.49
7681.00,0.49
7680.00,0.49
7679.00,0.49
7678.00,0.49
7677.00,0.50
7676.00,0.50
7675.00,0.50
7674.00,0.50
7673.00,0.50
7672.00,0.50
7671.00,0.50
7670.00,0.50
7669.00,0.50
7668.00,0.50
7667.00,0.50
7666.00,0.50
7665.00,0.50
7664.00,0.50
7663.00,0.51
7662.00,0.51
7661.00,0.51
7660.00,0.51
7659.00,0.51
7658.00,0.51
7657.00,0.51
7656.00,0.51
7655.00,0.50
7654.00,0.50
7653.00,0.50
7652.00,0.50
7651.00,0.50
7650.00,0.50
7649.00,0.50
7648.00,0.50
7647.00,0.49
7646.00,0.49
7645.00,0.49
7644.00,0.49
7643.00,0.49
7642.00,0.49
7641.00,0.49
7640.00,0.49
7639.00,0.49
7638.00,0.49
7637.00,0.49
7636.00,0.49
7635.00,0.49
7634.00,0.49
7633.00,0.48
7632.00,0.48
7631.00,0.48
7630.00,0.48
7629.00,0.48
7628.00,0.48
7627.00,0.48
7626.00,0.48
7625.00,0.49
7624.00,0.49
7623.00,0.49
7622.00,0.49
7621.00,0.49
7620.00,0.49
7619.00,0.49
7618.00,0.49
7617.00,0.49
7616.00,0.49
7615.00,0.49
7614.00,0.49
7613.00,0.49
7612.00,0.49
7611.00,0.49
7610.00,0.49
7609.00,0.49
7608.00,0.49
7607.00,0.49
7606.00,0.49
7605.00,0.49
7604.00,0.49
7603.00,0.49
7602.00,0.49
7601.00,0.49
7600.00,0.49
7599.00,0.49
7598.00,0.49
7597.00,0.49
7596.00,0.49
7595.00,0.49
7594.00,0.49
7593.00,0.49
7592.00,0.49
7591.00,0.50
7590.00,0.50
7589.00,0.50
7588.00,0.50
7587.00,0.50
7586.00,0.50
7585.00,0.50
7584.00,0.50
7583.00,0.50
7582.00,0.50
7581.00,0.50
7580.00,0.50
7579.00,0.50
7578.00,0.50
7577.00,0.50
7576.00,0.50
7575.00,0.50
7574.00,0.50
7573.00,0.50
7572.00,0.50
7571.00,0.50
7570.00,0.50
7569.00,0.50
7568.00,0.50
7567.00,0.50
7566.00,0.50
7565.00,0.50
7564.00,0.50
7563.00,0.50
7562.00,0.50
7561.00,0.50
7560.00,0.50
7559.00,0.50
7558.00,0.50
7557.00,0.50
7556.00,0.50
7555.00,0.50
7554.00,0.50
7553.00,0.50
7552.00,0.50
7551.00,0.50
7550.00,0.50
7549.00,0.49
7548.00,0.49
7547.00,0.49
7546.00,0.49
7545.00,0.49
7544.00,0.49
7543.00,0.49
7542.00,0.49
7541.00,0.49
7540.00,0.49
7539.00,0.49
7538.00,0.49
7537.00,0.49
7536.00,0.49
7535.00,0.49
7534.00,0.49
7533.00,0.49
7532.00,0.49
7531.00,0.49
7530.00,0.49
7529.00,0.49
7528.00,0.49
7527.00,0.49
7526.00,0.49
7525.00,0.49
7524.00,0.49
7523.00,0.49
7522.00,0.49
7521.00,0.49
7520.00,0.49
7519.00,0.49
7518.00,0.49
7517.00,0.49
7516.00,0.49
7515.00,0.49
7514.00,0.50
7513.00,0.50
7512.00,0.50
7511.00,0.50
7510.00,0.50
7509.00,0.50
7508.00,0.50
7507.00,0.50
7506.00,0.50
7505.00,0.50
7504.00,0.50
7503.00,0.50
7502.00,0.50
7501.00,0.50
7500.00,0.50
7499.00,0.50
7498.00,0.50
7497.00,0.50
7496.00,0.50
7495.00,0.50
7494.00,0.50
7493.00,0.50
7492.00,0.50
7491.00,0.50
7490.00,0.50
7489.00,0.49
7488.00,0.49
7487.00,0.49
7486.00,0.49
7485.00,0.49
7484.00,0.49
7483.00,0.49
7482.00,0.49
7481.00,0.49
7480.00,0.49
7479.00,0.49
7478.00,0.49
7477.00,0.49
7476.00,0.49
7475.00,0.49
7474.00,0.49
7473.00,0.49
7472.00,0.49
7471.00,0.49
7470.00,0.49
7469.00,0.49
7468.00,0.49
7467.00,0.49
7466.00,0.49
7465.00,0.49
7464.00,0.49
7463.00,0.49
7462.00,0.49
7461.00,0.49
7460.00,0.49
7459.00,0.49
7458.00,0.49
7457.00,0.49
7456.00,0.49
7455.00,0.49
7454.00,0.49
7453.00,0.49
7452.00,0.49
7451.00,0.49
7450.00,0.49
7449.00,0.49
7448.00,0.49
7447.00,0.49
7446.00,0.49
7445.00,0.49
7444.00,0.48
7443.00,0.48
7442.00,0.48
7441.00,0.48
7440.00,0.48
7439.00,0.48
7438.00,0.48
7437.00,0.48
7436.00,0.48
7435.00,0.48
7434.00,0.48
7433.00,0.48
7432.00,0.48
7431.00,0.48
7430.00,0.48
7429.00,0.48
7428.00,0.48
7427.00,0.48
7426.00,0.48
7425.00,0.48
7424.00,0.48
7423.00,0.48
7422.00,0.48
7421.00,0.48
7420.00,0.48
7419.00,0.48
7418.00,0.48
7417.00,0.48
7416.00,0.48
7415.00,0.48
7414.00,0.48
7413.00,0.48
7412.00,0.48
7411.00,0.48
7410.00,0.48
7409.00,0.48
7408.00,0.48
7407.00,0.48
7406.00,0.48
7405.00,0.48
7404.00,0.48
7403.00,0.48
7402.00,0.48
7401.00,0.48
7400.00,0.48
7399.00,0.48
7398.00,0.48
7397.00,0.47
7396.00,0.47
7395.00,0.47
7394.00,0.47
7393.00,0.47
7392.00,0.47
7391.00,0.47
7390.00,0.47
7389.00,0.47
7388.00,0.47
7387.00,0.47
7386.00,0.46
7385.00,0.46
7384.00,0.46
7383.00,0.46
7382.00,0.46
7381.00,0.46
7380.00,0.46
7379.00,0.46
7378.00,0.46
7377.00,0.46
7376.00,0.46
7375.00,0.46
7374.00,0.46
7373.00,0.46
7372.00,0.46
7371.00,0.46
7370.00,0.46
7369.00,0.46
7368.00,0.46
7367.00,0.46
7366.00,0.46
7365.00,0.46
7364.00,0.47
7363.00,0.47
7362.00,0.47
7361.00,0.47
7360.00,0.47
7359.00,0.47
7358.00,0.47
7357.00,0.47
7356.00,0.47
7355.00,0.47
7354.00,0.47
7353.00,0.47
7352.00,0.47
7351.00,0.47
7350.00,0.47
7349.00,0.47
7348.00,0.47
7347.00,0.47
7346.00,0.47
7345.00,0.47
7344.00,0.47
7343.00,0.47
7342.00,0.47
7341.00,0.47
7340.00,0.47
7339.00,0.47
7338.00,0.47
7337.00,0.47
7336.00,0.47
7335.00,0.47
7334.00,0.47
7333.00,0.47
7332.00,0.47
7331.00,0.47
7330.00,0.47
7329.00,0.47
7328.00,0.47
7327.00,0.47
7326.00,0.47
7325.00,0.47
7324.00,0.46
7323.00,0.46
7322.00,0.46
7321.00,0.46
7320.00,0.46
7319.00,0.46
7318.00,0.46
7317.00,0.46
7316.00,0.46
7315.00,0.46
7314.00,0.46
7313.00,0.46
7312.00,0.46
7311.00,0.46
7310.00,0.46
7309.00,0.46
7308.00,0.46
7307.00,0.46
7306.00,0.46
7305.00,0.46
7304.00,0.46
7303.00,0.46
7302.00,0.46
7301.00,0.46
7300.00,0.46
7299.00,0.46
7298.00,0.46
7297.00,0.46
7296.00,0.46
7295.00,0.46
7294.00,0.46
7293.00,0.46
7292.00,0.46
7291.00,0.46
7290.00,0.46
7289.00,0.46
7288.00,0.46
7287.00,0.46
7286.00,0.45
7285.00,0.45
7284.00,0.45
7283.00,0.45
7282.00,0.45
7281.00,0.45
7280.00,0.45
7279.00,0.45
7278.00,0.45
7277.00,0.45
7276.00,0.45
7275.00,0.45
7274.00,0.45
7273.00,0.44
7272.00,0.44
7271.00,0.44
7270.00,0.44
7269.00,0.44
7268.00,0.44
7267.00,0.44
7266.00,0.44
7265.00,0.44
7264.00,0.45
7263.00,0.45
7262.00,0.45
7261.00,0.45
7260.00,0.44
7259.00,0.44
7258.00,0.44
7257.00,0.44
7256.00,0.44
7255.00,0.44
7254.00,0.44
7253.00,0.44
7252.00,0.44
7251.00,0.44
7250.00,0.44
7249.00,0.44
7248.00,0.44
7247.00,0.43
7246.00,0.43
7245.00,0.43
7244.00,0.43
7243.00,0.43
7242.00,0.43
7241.00,0.43
7240.00,0.42
7239.00,0.42
7238.00,0.42
7237.00,0.42
7236.00,0.42
7235.00,0.42
7234.00,0.42
7233.00,0.42
7232.00,0.42
7231.00,0.41
7230.00,0.41
7229.00,0.41
7228.00,0.41
7227.00,0.41
7226.00,0.41
7225.00,0.41
7224.00,0.41
7223.00,0.41
7222.00,0.41
7221.00,0.41
7220.00,0.41
7219.00,0.41
7218.00,0.41
7217.00,0.41
7216.00,0.41
7215.00,0.41
7214.00,0.41
7213.00,0.41
7212.00,0.41
7211.00,0.41
7210.00,0.40
7209.00,0.40
7208.00,0.40
7207.00,0.40
7206.00,0.40
7205.00,0.40
7204.00,0.40
7203.00,0.40
7202.00,0.40
7201.00,0.40
7200.00,0.39
7199.00,0.39
7198.00,0.39
7197.00,0.39
7196.00,0.39
7195.00,0.39
7194.00,0.39
7193.00,0.39
7192.00,0.38
7191.00,0.38
7190.00,0.38
7189.00,0.38
7188.00,0.38
7187.00,0.38
7186.00,0.38
7185.00,0.38
7184.00,0.38
7183.00,0.37
7182.00,0.37
7181.00,0.37
7180.00,0.37
7179.00,0.37
7178.00,0.37
7177.00,0.37
7176.00,0.36
7175.00,0.36
7174.00,0.36
7173.00,0.36
7172.00,0.36
7171.00,0.36
7170.00,0.35
7169.00,0.35
7168.00,0.35
7167.00,0.35
7166.00,0.35
7165.00,0.35
7164.00,0.35
7163.00,0.34
7162.00,0.34
7161.00,0.34
7160.00,0.34
7159.00,0.34
7158.00,0.34
7157.00,0.34
7156.00,0.34
7155.00,0.34
7154.00,0.34
7153.00,0.34
7152.00,0.33
7151.00,0.33
7150.00,0.33
7149.00,0.33
7148.00,0.33
7147.00,0.33
7146.00,0.33
7145.00,0.33
7144.00,0.33
7143.00,0.33
7142.00,0.33
7141.00,0.33
7140.00,0.33
7139.00,0.33
7138.00,0.32
7137.00,0.32
7136.00,0.32
7135.00,0.32
7134.00,0.32
7133.00,0.32
7132.00,0.32
7131.00,0.32
7130.00,0.32
7129.00,0.32
7128.00,0.32
7127.00,0.31
7126.00,0.31
7125.00,0.31
7124.00,0.31
7123.00,0.31
7122.00,0.31
7121.00,0.31
7120.00,0.31
7119.00,0.31
7118.00,0.30
7117.00,0.30
7116.00,0.30
7115.00,0.30
7114.00,0.30
7113.00,0.30
7112.00,0.30
7111.00,0.30
7110.00,0.30
7109.00,0.30
7108.00,0.30
7107.00,0.29
7106.00,0.29
7105.00,0.29
7104.00,0.29
7103.00,0.29
7102.00,0.29
7101.00,0.29
7100.00,0.29
7099.00,0.29
7098.00,0.29
7097.00,0.29
7096.00,0.29
7095.00,0.29
7094.00,0.29
7093.00,0.28
7092.00,0.28
7091.00,0.28
7090.00,0.28
7089.00,0.28
7088.00,0.28
7087.00,0.28
7086.00,0.28
7085.00,0.28
7084.00,0.28
7083.00,0.27
7082.00,0.27
7081.00,0.27
7080.00,0.27
7079.00,0.27
7078.00,0.27
7077.00,0.27
7076.00,0.27
7075.00,0.27
7074.00,0.27
7073.00,0.27
7072.00,0.27
7071.00,0.27
7070.00,0.26
7069.00,0.26
7068.00,0.26
7067.00,0.26
7066.00,0.26
7065.00,0.26
7064.00,0.26
7063.00,0.26
7062.00,0.26
7061.00,0.26
7060.00,0.26
7059.00,0.26
7058.00,0.26
7057.00,0.26
7056.00,0.26
7055.00,0.26
7054.00,0.26
7053.00,0.26
7052.00,0.26
7051.00,0.26
7050.00,0.26
7049.00,0.26
7048.00,0.25
7047.00,0.25
7046.00,0.25
7045.00,0.25
7044.00,0.25
7043.00,0.25
7042.00,0.25
7041.00,0.25
7040.00,0.25
7039.00,0.25
7038.00,0.25
7037.00,0.25
7036.00,0.25
7035.00,0.25
7034.00,0.25
7033.00,0.25
7032.00,0.25
7031.00,0.25
7030.00,0.25
7029.00,0.25
7028.00,0.25
7027.00,0.25
7026.00,0.25
7025.00,0.25
7024.00,0.25
7023.00,0.25
7022.00,0.25
7021.00,0.25
7020.00,0.25
7019.00,0.25
7018.00,0.25
7017.00,0.25
7016.00,0.25
7015.00,0.25
7014.00,0.25
7013.00,0.25
7012.00,0.25
7011.00,0.25
7010.00,0.25
7009.00,0.25
7008.00,0.24
7007.00,0.24
7006.00,0.24
7005.00,0.24
7004.00,0.24
7003.00,0.24
7002.00,0.24
7001.00,0.24
7000.00,0.24
6999.00,0.24
6998.00,0.24
6997.00,0.24
6996.00,0.23
6995.00,0.23
6994.00,0.23
6993.00,0.23
6992.00,0.23
6991.00,0.23
6990.00,0.23
6989.00,0.23
6988.00,0.23
6987.00,0.23
6986.00,0.23
6985.00,0.23
6984.00,0.24
6983.00,0.24
6982.00,0.24
6981.00,0.24
6980.00,0.24
6979.00,0.24
6978.00,0.24
6977.00,0.24
6976.00,0.24
6975.00,0.24
6974.00,0.24
6973.00,0.24
6972.00,0.24
6971.00,0.24
6970.00,0.24
6969.00,0.24
6968.00,0.24
6967.00,0.24
6966.00,0.24
6965.00,0.24
6964.00,0.24
6963.00,0.24
6962.00,0.24
6961.00,0.24
6960.00,0.24
6959.00,0.24
6958.00,0.24
6957.00,0.24
6956.00,0.24
6955.00,0.24
6954.00,0.24
6953.00,0.24
6952.00,0.23
6951.00,0.23
6950.00,0.23
6949.00,0.23
6948.00,0.23
6947.00,0.23
6946.00,0.23
6945.00,0.23
6944.00,0.23
6943.00,0.23
6942.00,0.23
6941.00,0.23
6940.00,0.23
6939.00,0.23
6938.00,0.23
6937.00,0.23
6936.00,0.23
6935.00,0.23
6934.00,0.23
6933.00,0.23
6932.00,0.23
6931.00,0.23
6930.00,0.23
6929.00,0.23
6928.00,0.23
6927.00,0.23
6926.00,0.23
6925.00,0.23
6924.00,0.23
6923.00,0.23
6922.00,0.23
6921.00,0.23
6920.00,0.23
6919.00,0.23
6918.00,0.23
6917.00,0.23
6916.00,0.23
6915.00,0.23
6914.00,0.23
6913.00,0.23
6912.00,0.23
6911.00,0.23
6910.00,0.23
6909.00,0.23
6908.00,0.23
6907.00,0.23
6906.00,0.23
6905.00,0.23
6904.00,0.23
6903.00,0.23
6902.00,0.23
6901.00,0.23
6900.00,0.23
6899.00,0.23
6898.00,0.23
6897.00,0.23
6896.00,0.23
6895.00,0.23
6894.00,0.23
6893.00,0.23
6892.00,0.23
6891.00,0.23
6890.00,0.23
6889.00,0.23
6888.00,0.23
6887.00,0.23
6886.00,0.23
6885.00,0.23
6884.00,0.23
6883.00,0.23
6882.00,0.23
6881.00,0.23
6880.00,0.23
6879.00,0.23
6878.00,0.23
6877.00,0.23
6876.00,0.23
6875.00,0.23
6874.00,0.23
6873.00,0.23
6872.00,0.23
6871.00,0.23
6870.00,0.23
6869.00,0.23
6868.00,0.23
6867.00,0.23
6866.00,0.23
6865.00,0.23
6864.00,0.23
6863.00,0.23
6862.00,0.23
6861.00,0.23
6860.00,0.23
6859.00,0.23
6858.00,0.23
6857.00,0.23
6856.00,0.23
6855.00,0.23
6854.00,0.23
6853.00,0.23
6852.00,0.23
6851.00,0.23
6850.00,0.23
6849.00,0.23
6848.00,0.23
6847.00,0.23
6846.00,0.23
6845.00,0.23
6844.00,0.23
6843.00,0.23
6842.00,0.23
6841.00,0.23
6840.00,0.23
6839.00,0.23
6838.00,0.23
6837.00,0.23
6836.00,0.23
6835.00,0.23
6834.00,0.23
6833.00,0.23
6832.00,0.23
6831.00,0.23
6830.00,0.23
6829.00,0.23
6828.00,0.23
6827.00,0.23
6826.00,0.23
6825.00,0.23
6824.00,0.23
6823.00,0.23
6822.00,0.23
6821.00,0.23
6820.00,0.23
6819.00,0.23
6818.00,0.23
6817.00,0.23
6816.00,0.23
6815.00,0.23
6814.00,0.23
6813.00,0.23
6812.00,0.23
6811.00,0.23
6810.00,0.23
6809.00,0.23
6808.00,0.23
6807.00,0.23
6806.00,0.23
6805.00,0.23
6804.00,0.23
6803.00,0.23
6802.00,0.23
6801.00,0.24
6800.00,0.24
6799.00,0.24
6798.00,0.24
6797.00,0.24
6796.00,0.24
6795.00,0.24
6794.00,0.24
6793.00,0.24
6792.00,0.24
6791.00,0.24
6790.00,0.24
6789.00,0.24
6788.00,0.24
6787.00,0.24
6786.00,0.24
6785.00,0.24
6784.00,0.24
6783.00,0.24
6782.00,0.24
6781.00,0.24
6780.00,0.24
6779.00,0.24
6778.00,0.24
6777.00,0.24
6776.00,0.24
6775.00,0.24
6774.00,0.24
6773.00,0.24
6772.00,0.24
6771.00,0.24
6770.00,0.24
6769.00,0.24
6768.00,0.24
6767.00,0.24
6766.00,0.24
6765.00,0.24
6764.00,0.24
6763.00,0.24
6762.00,0.24
6761.00,0.24
6760.00,0.24
6759.00,0.25
6758.00,0.25
6757.00,0.25
6756.00,0.25
6755.00,0.25
6754.00,0.25
6753.00,0.25
6752.00,0.25
6751.00,0.25
6750.00,0.25
6749.00,0.25
6748.00,0.25
6747.00,0.25
6746.00,0.25
6745.00,0.25
6744.00,0.25
6743.00,0.25
6742.00,0.25
6741.00,0.25
6740.00,0.25
6739.00,0.25
6738.00,0.25
6737.00,0.25
6736.00,0.25
6735.00,0.25
6734.00,0.25
6733.00,0.25
6732.00,0.25
6731.00,0.25
6730.00,0.25
6729.00,0.25
6728.00,0.25
6727.00,0.25
6726.00,0.25
6725.00,0.25
6724.00,0.25
6723.00,0.25
6722.00,0.25
6721.00,0.25
6720.00,0.25
6719.00,0.25
6718.00,0.25
6717.00,0.25
6716.00,0.25
6715.00,0.25
6714.00,0.25
6713.00,0.26
6712.00,0.26
6711.00,0.26
6710.00,0.26
6709.00,0.26
6708.00,0.26
6707.00,0.26
6706.00,0.26
6705.00,0.26
6704.00,0.26
6703.00,0.26
6702.00,0.26
6701.00,0.26
6700.00,0.26
6699.00,0.26
6698.00,0.26
6697.00,0.26
6696.00,0.26
6695.00,0.26
6694.00,0.26
6693.00,0.26
6692.00,0.26
6691.00,0.26
6690.00,0.26
6689.00,0.27
6688.00,0.27
6687.00,0.27
6686.00,0.27
6685.00,0.27
6684.00,0.27
6683.00,0.27
6682.00,0.27
6681.00,0.27
6680.00,0.27
6679.00,0.27
6678.00,0.27
6677.00,0.27
6676.00,0.27
6675.00,0.27
6674.00,0.27
6673.00,0.27
6672.00,0.27
6671.00,0.27
6670.00,0.27
6669.00,0.27
6668.00,0.27
6667.00,0.27
6666.00,0.27
6665.00,0.27
6664.00,0.27
6663.00,0.27
6662.00,0.27
6661.00,0.27
6660.00,0.27
6659.00,0.28
6658.00,0.28
6657.00,0.28
6656.00,0.28
6655.00,0.28
6654.00,0.28
6653.00,0.28
6652.00,0.28
6651.00,0.28
6650.00,0.28
6649.00,0.28
6648.00,0.28
6647.00,0.28
6646.00,0.28
6645.00,0.28
6644.00,0.28
6643.00,0.28
6642.00,0.28
6641.00,0.28
6640.00,0.28
6639.00,0.28
6638.00,0.29
6637.00,0.29
6636.00,0.29
6635.00,0.29
6634.00,0.29
6633.00,0.29
6632.00,0.29
6631.00,0.29
6630.00,0.29
6629.00,0.29
6628.00,0.29
6627.00,0.29
6626.00,0.29
6625.00,0.29
6624.00,0.29
6623.00,0.29
6622.00,0.29
6621.00,0.29
6620.00,0.29
6619.00,0.29
6618.00,0.29
6617.00,0.29
6616.00,0.29
6615.00,0.30
6614.00,0.30
6613.00,0.30
6612.00,0.30
6611.00,0.30
6610.00,0.30
6609.00,0.30
6608.00,0.30
6607.00,0.30
6606.00,0.30
6605.00,0.30
6604.00,0.30
6603.00,0.30
6602.00,0.30
6601.00,0.30
6600.00,0.30
6599.00,0.30
6598.00,0.30
6597.00,0.30
6596.00,0.30
6595.00,0.30
6594.00,0.30
6593.00,0.30
6592.00,0.30
6591.00,0.30
6590.00,0.30
6589.00,0.30
6588.00,0.30
6587.00,0.30
6586.00,0.30
6585.00,0.30
6584.00,0.31
6583.00,0.31
6582.00,0.31
6581.00,0.31
6580.00,0.31
6579.00,0.31
6578.00,0.31
6577.00,0.31
6576.00,0.31
6575.00,0.31
6574.00,0.31
6573.00,0.31
6572.00,0.31
6571.00,0.31
6570.00,0.31
6569.00,0.31
6568.00,0.31
6567.00,0.31
6566.00,0.31
6565.00,0.31
6564.00,0.31
6563.00,0.31
6562.00,0.31
6561.00,0.32
6560.00,0.32
6559.00,0.32
6558.00,0.32
6557.00,0.32
6556.00,0.32
6555.00,0.32
6554.00,0.32
6553.00,0.32
6552.00,0.32
6551.00,0.32
6550.00,0.32
6549.00,0.32
6548.00,0.32
6547.00,0.32
6546.00,0.32
6545.00,0.32
6544.00,0.32
6543.00,0.32
6542.00,0.32
6541.00,0.32
6540.00,0.33
6539.00,0.33
6538.00,0.33
6537.00,0.33
6536.00,0.33
6535.00,0.33
6534.00,0.33
6533.00,0.33
6532.00,0.33
6531.00,0.33
6530.00,0.33
6529.00,0.33
6528.00,0.33
6527.00,0.33
6526.00,0.33
6525.00,0.33
6524.00,0.33
6523.00,0.33
6522.00,0.33
6521.00,0.33
6520.00,0.33
6519.00,0.33
6518.00,0.33
6517.00,0.33
6516.00,0.33
6515.00,0.33
6514.00,0.33
6513.00,0.33
6512.00,0.33
6511.00,0.33
6510.00,0.33
6509.00,0.33
6508.00,0.33
6507.00,0.33
6506.00,0.33
6505.00,0.33
6504.00,0.33
6503.00,0.33
6502.00,0.33
6501.00,0.33
6500.00,0.33
6499.00,0.33
6498.00,0.33
6497.00,0.33
6496.00,0.33
6495.00,0.33
6494.00,0.33
6493.00,0.33
6492.00,0.33
6491.00,0.33
6490.00,0.33
6489.00,0.33
6488.00,0.33
6487.00,0.34
6486.00,0.34
6485.00,0.34
6484.00,0.34
6483.00,0.34
6482.00,0.34
6481.00,0.34
6480.00,0.34
6479.00,0.34
6478.00,0.34
6477.00,0.34
6476.00,0.34
6475.00,0.34
6474.00,0.34
6473.00,0.34
6472.00,0.34
6471.00,0.34
6470.00,0.35
6469.00,0.35
6468.00,0.35
6467.00,0.35
6466.00,0.35
6465.00,0.35
6464.00,0.35
6463.00,0.35
6462.00,0.35
6461.00,0.35
6460.00,0.35
6459.00,0.35
6458.00,0.35
6457.00,0.35
6456.00,0.35
6455.00,0.35
6454.00,0.35
6453.00,0.35
6452.00,0.35
6451.00,0.35
6450.00,0.35
6449.00,0.35
6448.00,0.35
6447.00,0.35
6446.00,0.35
6445.00,0.35
6444.00,0.35
6443.00,0.35
6442.00,0.35
6441.00,0.35
6440.00,0.35
6439.00,0.35
6438.00,0.35
6437.00,0.35
6436.00,0.36
6435.00,0.36
6434.00,0.36
6433.00,0.36
6432.00,0.36
6431.00,0.36
6430.00,0.36
6429.00,0.36
6428.00,0.36
6427.00,0.36
6426.00,0.36
6425.00,0.36
6424.00,0.36
6423.00,0.36
6422.00,0.36
6421.00,0.36
6420.00,0.36
6419.00,0.36
6418.00,0.36
6417.00,0.36
6416.00,0.36
6415.00,0.36
6414.00,0.36
6413.00,0.36
6412.00,0.36
6411.00,0.36
6410.00,0.36
6409.00,0.36
6408.00,0.36
6407.00,0.36
6406.00,0.36
6405.00,0.36
6404.00,0.36
6403.00,0.36
6402.00,0.36
6401.00,0.36
6400.00,0.36
6399.00,0.37
6398.00,0.37
6397.00,0.37
6396.00,0.37
6395.00,0.37
6394.00,0.37
6393.00,0.37
6392.00,0.37
6391.00,0.37
6390.00,0.37
6389.00,0.37
6388.00,0.37
6387.00,0.37
6386.00,0.37
6385.00,0.37
6384.00,0.37
6383.00,0.37
6382.00,0.37
6381.00,0.37
6380.00,0.37
6379.00,0.37
6378.00,0.37
6377.00,0.37
6376.00,0.37
6375.00,0.37
6374.00,0.37
6373.00,0.37
6372.00,0.37
6371.00,0.37
6370.00,0.37
6369.00,0.37
6368.00,0.37
6367.00,0.37
6366.00,0.37
6365.00,0.37
6364.00,0.37
6363.00,0.37
6362.00,0.37
6361.00,0.37
6360.00,0.38
6359.00,0.38
6358.00,0.38
6357.00,0.38
6356.00,0.38
6355.00,0.38
6354.00,0.38
6353.00,0.38
6352.00,0.38
6351.00,0.38
6350.00,0.38
6349.00,0.38
6348.00,0.38
6347.00,0.38
6346.00,0.38
6345.00,0.38
6344.00,0.38
6343.00,0.38
6342.00,0.38
6341.00,0.38
6340.00,0.38
6339.00,0.38
6338.00,0.38
6337.00,0.38
6336.00,0.38
6335.00,0.38
6334.00,0.38
6333.00,0.38
6332.00,0.38
6331.00,0.38
6330.00,0.38
6329.00,0.38
6328.00,0.38
6327.00,0.38
6326.00,0.38
6325.00,0.39
6324.00,0.39
6323.00,0.39
6322.00,0.39
6321.00,0.39
6320.00,0.39
6319.00,0.39
6318.00,0.39
6317.00,0.39
6316.00,0.39
6315.00,0.39
6314.00,0.39
6313.00,0.39
6312.00,0.39
6311.00,0.39
6310.00,0.39
6309.00,0.39
6308.00,0.39
6307.00,0.39
6306.00,0.39
6305.00,0.39
6304.00,0.39
6303.00,0.39
6302.00,0.39
6301.00,0.39
6300.00,0.39
6299.00,0.40
6298.00,0.40
6297.00,0.40
6296.00,0.40
6295.00,0.40
6294.00,0.40
6293.00,0.40
6292.00,0.40
6291.00,0.40
6290.00,0.40
6289.00,0.40
6288.00,0.40
6287.00,0.40
6286.00,0.40
6285.00,0.40
6284.00,0.40
6283.00,0.40
6282.00,0.40
6281.00,0.40
6280.00,0.40
6279.00,0.40
6278.00,0.40
6277.00,0.40
6276.00,0.41
6275.00,0.41
6274.00,0.41
6273.00,0.41
6272.00,0.41
6271.00,0.41
6270.00,0.41
6269.00,0.41
6268.00,0.41
6267.00,0.41
6266.00,0.41
6265.00,0.41
6264.00,0.41
6263.00,0.41
6262.00,0.41
6261.00,0.41
6260.00,0.41
6259.00,0.41
6258.00,0.41
6257.00,0.42
6256.00,0.42
6255.00,0.42
6254.00,0.42
6253.00,0.42
6252.00,0.42
6251.00,0.42
6250.00,0.42
6249.00,0.42
6248.00,0.42
6247.00,0.42
6246.00,0.42
6245.00,0.42
6244.00,0.42
6243.00,0.42
6242.00,0.42
6241.00,0.42
6240.00,0.42
6239.00,0.42
6238.00,0.42
6237.00,0.42
6236.00,0.42
6235.00,0.42
6234.00,0.42
6233.00,0.42
6232.00,0.43
6231.00,0.43
6230.00,0.43
6229.00,0.43
6228.00,0.43
6227.00,0.43
6226.00,0.43
6225.00,0.43
6224.00,0.43
6223.00,0.43
6222.00,0.43
6221.00,0.43
6220.00,0.43
6219.00,0.43
6218.00,0.43
6217.00,0.43
6216.00,0.43
6215.00,0.43
6214.00,0.43
6213.00,0.43
6212.00,0.43
6211.00,0.43
6210.00,0.43
6209.00,0.43
6208.00,0.43
6207.00,0.43
6206.00,0.43
6205.00,0.43
6204.00,0.43
6203.00,0.43
6202.00,0.44
6201.00,0.44
6200.00,0.44
6199.00,0.44
6198.00,0.44
6197.00,0.44
6196.00,0.44
6195.00,0.44
6194.00,0.44
6193.00,0.44
6192.00,0.44
6191.00,0.44
6190.00,0.44
6189.00,0.44
6188.00,0.44
6187.00,0.44
6186.00,0.44
6185.00,0.45
6184.00,0.45
6183.00,0.45
6182.00,0.45
6181.00,0.45
6180.00,0.45
6179.00,0.45
6178.00,0.45
6177.00,0.45
6176.00,0.45
6175.00,0.45
6174.00,0.45
6173.00,0.45
6172.00,0.45
6171.00,0.45
6170.00,0.45
6169.00,0.45
6168.00,0.45
6167.00,0.45
6166.00,0.45
6165.00,0.45
6164.00,0.45
6163.00,0.45
6162.00,0.45
6161.00,0.45
6160.00,0.45
6159.00,0.45
6158.00,0.46
6157.00,0.46
6156.00,0.46
6155.00,0.46
6154.00,0.46
6153.00,0.46
6152.00,0.46
6151.00,0.46
6150.00,0.46
6149.00,0.46
6148.00,0.46
6147.00,0.46
6146.00,0.46
6145.00,0.46
6144.00,0.46
6143.00,0.46
6142.00,0.46
6141.00,0.46
6140.00,0.46
6139.00,0.47
6138.00,0.47
6137.00,0.47
6136.00,0.47
6135.00,0.47
6134.00,0.47
6133.00,0.47
6132.00,0.47
6131.00,0.47
6130.00,0.47
6129.00,0.47
6128.00,0.47
6127.00,0.47
6126.00,0.47
6125.00,0.47
6124.00,0.47
6123.00,0.47
6122.00,0.47
6121.00,0.47
6120.00,0.47
6119.00,0.47
6118.00,0.47
6117.00,0.47
6116.00,0.47
6115.00,0.48
6114.00,0.48
6113.00,0.48
6112.00,0.48
6111.00,0.48
6110.00,0.48
6109.00,0.48
6108.00,0.48
6107.00,0.48
6106.00,0.48
6105.00,0.48
6104.00,0.48
6103.00,0.48
6102.00,0.48
6101.00,0.48
6100.00,0.48
6099.00,0.48
6098.00,0.48
6097.00,0.48
6096.00,0.48
6095.00,0.48
6094.00,0.48
6093.00,0.48
6092.00,0.48
6091.00,0.48
6090.00,0.48
6089.00,0.48
6088.00,0.48
6087.00,0.48
6086.00,0.48
6085.00,0.48
6084.00,0.48
6083.00,0.48
6082.00,0.48
6081.00,0.48
6080.00,0.48
6079.00,0.48
6078.00,0.49
6077.00,0.49
6076.00,0.49
6075.00,0.49
6074.00,0.49
6073.00,0.49
6072.00,0.49
6071.00,0.49
6070.00,0.49
6069.00,0.49
6068.00,0.49
6067.00,0.49
6066.00,0.49
6065.00,0.49
6064.00,0.49
6063.00,0.49
6062.00,0.49
6061.00,0.49
6060.00,0.49
6059.00,0.49
6058.00,0.49
6057.00,0.49
6056.00,0.49
6055.00,0.49
6054.00,0.49
6053.00,0.49
6052.00,0.49
6051.00,0.50
6050.00,0.50
6049.00,0.50
6048.00,0.50
6047.00,0.50
6046.00,0.50
6045.00,0.50
6044.00,0.50
6043.00,0.50
6042.00,0.50
6041.00,0.50
6040.00,0.50
6039.00,0.50
6038.00,0.50
6037.00,0.50
6036.00,0.50
6035.00,0.50
6034.00,0.50
6033.00,0.50
6032.00,0.50
6031.00,0.50
6030.00,0.50
6029.00,0.50
6028.00,0.50
6027.00,0.50
6026.00,0.50
6025.00,0.50
6024.00,0.50
6023.00,0.50
6022.00,0.50
6021.00,0.50
6020.00,0.50
6019.00,0.50
6018.00,0.50
6017.00,0.50
6016.00,0.50
6015.00,0.50
6014.00,0.50
6013.00,0.50
6012.00,0.50
6011.00,0.50
6010.00,0.50
6009.00,0.50
6008.00,0.50
6007.00,0.50
6006.00,0.50
6005.00,0.50
6004.00,0.50
6003.00,0.50
6002.00,0.50
6001.00,0.50
6000.00,0.50
5999.00,0.50
5998.00,0.50
5997.00,0.50
5996.00,0.50
5995.00,0.50
5994.00,0.50
5993.00,0.50
5992.00,0.50
5991.00,0.50
5990.00,0.50
5989.00,0.50
5988.00,0.50
5987.00,0.50
5986.00,0.50
5985.00,0.50
5984.00,0.50
5983.00,0.49
5982.00,0.49
5981.00,0.49
5980.00,0.49
5979.00,0.49
5978.00,0.49
5977.00,0.49
5976.00,0.49
5975.00,0.48
5974.00,0.48
5973.00,0.48
5972.00,0.48
5971.00,0.48
5970.00,0.48
5969.00,0.47
5968.00,0.47
5967.00,0.47
5966.00,0.47
5965.00,0.47
5964.00,0.46
5963.00,0.46
5962.00,0.46
5961.00,0.46
5960.00,0.46
5959.00,0.45
5958.00,0.45
5957.00,0.45
5956.00,0.45
5955.00,0.45
5954.00,0.45
5953.00,0.44
5952.00,0.44
5951.00,0.44
5950.00,0.44
5949.00,0.44
5948.00,0.44
5947.00,0.44
5946.00,0.43
5945.00,0.43
5944.00,0.43
5943.00,0.43
5942.00,0.43
5941.00,0.43
5940.00,0.43
5939.00,0.43
5938.00,0.43
5937.00,0.43
5936.00,0.43
5935.00,0.43
5934.00,0.43
5933.00,0.43
5932.00,0.43
5931.00,0.43
5930.00,0.43
5929.00,0.43
5928.00,0.43
5927.00,0.42
5926.00,0.42
5925.00,0.42
5924.00,0.42
5923.00,0.42
5922.00,0.42
5921.00,0.42
5920.00,0.42
5919.00,0.42
5918.00,0.42
5917.00,0.42
5916.00,0.42
5915.00,0.42
5914.00,0.42
5913.00,0.42
5912.00,0.42
5911.00,0.42
5910.00,0.41
5909.00,0.41
5908.00,0.41
5907.00,0.41
5906.00,0.41
5905.00,0.41
5904.00,0.41
5903.00,0.41
5902.00,0.41
5901.00,0.41
5900.00,0.41
5899.00,0.41
5898.00,0.41
5897.00,0.41
5896.00,0.41
5895.00,0.41
5894.00,0.41
5893.00,0.41
5892.00,0.41
5891.00,0.42
5890.00,0.42
5889.00,0.42
5888.00,0.42
5887.00,0.42
5886.00,0.42
5885.00,0.42
5884.00,0.42
5883.00,0.42
5882.00,0.42
5881.00,0.42
5880.00,0.42
5879.00,0.42
5878.00,0.42
5877.00,0.42
5876.00,0.43
5875.00,0.43
5874.00,0.43
5873.00,0.43
5872.00,0.43
5871.00,0.43
5870.00,0.43
5869.00,0.43
5868.00,0.43
5867.00,0.43
5866.00,0.43
5865.00,0.44
5864.00,0.44
5863.00,0.44
5862.00,0.44
5861.00,0.44
5860.00,0.44
5859.00,0.44
5858.00,0.44
5857.00,0.44
5856.00,0.44
5855.00,0.44
5854.00,0.44
5853.00,0.44
5852.00,0.44
5851.00,0.44
5850.00,0.44
5849.00,0.44
5848.00,0.44
5847.00,0.44
5846.00,0.44
5845.00,0.44
5844.00,0.44
5843.00,0.44
5842.00,0.44
5841.00,0.44
5840.00,0.44
5839.00,0.44
5838.00,0.44
5837.00,0.44
5836.00,0.44
5835.00,0.44
5834.00,0.44
5833.00,0.44
5832.00,0.44
5831.00,0.44
5830.00,0.44
5829.00,0.44
5828.00,0.44
5827.00,0.44
5826.00,0.44
5825.00,0.44
5824.00,0.44
5823.00,0.44
5822.00,0.44
5821.00,0.44
5820.00,0.44
5819.00,0.44
5818.00,0.44
5817.00,0.44
5816.00,0.44
5815.00,0.44
5814.00,0.44
5813.00,0.44
5812.00,0.44
5811.00,0.44
5810.00,0.44
5809.00,0.44
5808.00,0.44
5807.00,0.44
5806.00,0.44
5805.00,0.44
5804.00,0.44
5803.00,0.44
5802.00,0.44
5801.00,0.44
5800.00,0.44
5799.00,0.44
5798.00,0.44
5797.00,0.44
5796.00,0.43
5795.00,0.43
5794.00,0.43
5793.00,0.43
5792.00,0.43
5791.00,0.43
5790.00,0.43
5789.00,0.43
5788.00,0.43
5787.00,0.43
5786.00,0.43
5785.00,0.43
5784.00,0.43
5783.00,0.43
5782.00,0.43
5781.00,0.43
5780.00,0.43
5779.00,0.43
5778.00,0.43
5777.00,0.43
5776.00,0.43
5775.00,0.43
5774.00,0.43
5773.00,0.43
5772.00,0.43
5771.00,0.43
5770.00,0.43
5769.00,0.43
5768.00,0.43
5767.00,0.43
5766.00,0.43
5765.00,0.43
5764.00,0.43
5763.00,0.43
5762.00,0.43
5761.00,0.43
5760.00,0.43
5759.00,0.43
5758.00,0.43
5757.00,0.43
5756.00,0.43
5755.00,0.44
5754.00,0.44
5753.00,0.44
5752.00,0.44
5751.00,0.44
5750.00,0.44
5749.00,0.44
5748.00,0.44
5747.00,0.44
5746.00,0.44
5745.00,0.44
5744.00,0.45
5743.00,0.45
5742.00,0.45
5741.00,0.45
5740.00,0.45
5739.00,0.45
5738.00,0.45
5737.00,0.45
5736.00,0.45
5735.00,0.45
5734.00,0.45
5733.00,0.45
5732.00,0.45
5731.00,0.45
5730.00,0.45
5729.00,0.45
5728.00,0.45
5727.00,0.45
5726.00,0.45
5725.00,0.45
5724.00,0.45
5723.00,0.45
5722.00,0.46
5721.00,0.46
5720.00,0.46
5719.00,0.45
5718.00,0.45
5717.00,0.45
5716.00,0.45
5715.00,0.45
5714.00,0.45
5713.00,0.45
5712.00,0.45
5711.00,0.45
5710.00,0.45
5709.00,0.45
5708.00,0.45
5707.00,0.45
5706.00,0.45
5705.00,0.45
5704.00,0.45
5703.00,0.45
5702.00,0.45
5701.00,0.45
5700.00,0.45
5699.00,0.45
5698.00,0.45
5697.00,0.45
5696.00,0.45
5695.00,0.44
5694.00,0.44
5693.00,0.44
5692.00,0.44
5691.00,0.44
5690.00,0.44
5689.00,0.44
5688.00,0.44
5687.00,0.44
5686.00,0.44
5685.00,0.44
5684.00,0.44
5683.00,0.44
5682.00,0.44
5681.00,0.44
5680.00,0.44
5679.00,0.44
5678.00,0.44
5677.00,0.44
5676.00,0.44
5675.00,0.44
5674.00,0.44
5673.00,0.44
5672.00,0.44
5671.00,0.44
5670.00,0.44
5669.00,0.44
5668.00,0.44
5667.00,0.44
5666.00,0.44
5665.00,0.44
5664.00,0.44
5663.00,0.44
5662.00,0.44
5661.00,0.44
5660.00,0.44
5659.00,0.44
5658.00,0.44
5657.00,0.45
5656.00,0.45
5655.00,0.45
5654.00,0.45
5653.00,0.45
5652.00,0.45
5651.00,0.45
5650.00,0.45
5649.00,0.45
5648.00,0.45
5647.00,0.45
5646.00,0.45
5645.00,0.45
5644.00,0.45
5643.00,0.45
5642.00,0.45
5641.00,0.45
5640.00,0.45
5639.00,0.45
5638.00,0.45
5637.00,0.45
5636.00,0.45
5635.00,0.45
5634.00,0.46
5633.00,0.46
5632.00,0.46
5631.00,0.46
5630.00,0.46
5629.00,0.46
5628.00,0.46
5627.00,0.46
5626.00,0.46
5625.00,0.46
5624.00,0.46
5623.00,0.46
5622.00,0.46
5621.00,0.46
5620.00,0.46
5619.00,0.46
5618.00,0.46
5617.00,0.46
5616.00,0.46
5615.00,0.46
5614.00,0.46
5613.00,0.46
5612.00,0.47
5611.00,0.47
5610.00,0.47
5609.00,0.47
5608.00,0.47
5607.00,0.47
5606.00,0.47
5605.00,0.47
5604.00,0.47
5603.00,0.47
5602.00,0.47
5601.00,0.47
5600.00,0.47
5599.00,0.47
5598.00,0.47
5597.00,0.47
5596.00,0.47
5595.00,0.47
5594.00,0.47
5593.00,0.47
5592.00,0.47
5591.00,0.47
5590.00,0.47
5589.00,0.47
5588.00,0.47
5587.00,0.47
5586.00,0.48
5585.00,0.48
5584.00,0.48
5583.00,0.48
5582.00,0.48
5581.00,0.48
5580.00,0.48
5579.00,0.48
5578.00,0.48
5577.00,0.48
5576.00,0.48
5575.00,0.48
5574.00,0.48
5573.00,0.48
5572.00,0.48
5571.00,0.48
5570.00,0.48
5569.00,0.48
5568.00,0.48
5567.00,0.48
5566.00,0.48
5565.00,0.48
5564.00,0.48
5563.00,0.48
5562.00,0.48
5561.00,0.48
5560.00,0.48
5559.00,0.48
5558.00,0.48
5557.00,0.48
5556.00,0.48
5555.00,0.48
5554.00,0.49
5553.00,0.49
5552.00,0.49
5551.00,0.49
5550.00,0.49
5549.00,0.49
5548.00,0.49
5547.00,0.49
5546.00,0.49
5545.00,0.49
5544.00,0.49
5543.00,0.49
5542.00,0.49
5541.00,0.49
5540.00,0.49
5539.00,0.49
5538.00,0.49
5537.00,0.49
5536.00,0.49
5535.00,0.49
5534.00,0.49
5533.00,0.49
5532.00,0.49
5531.00,0.49
5530.00,0.49
5529.00,0.49
5528.00,0.49
5527.00,0.49
5526.00,0.49
5525.00,0.49
5524.00,0.49
5523.00,0.49
5522.00,0.49
5521.00,0.49
5520.00,0.49
5519.00,0.49
5518.00,0.49
5517.00,0.49
5516.00,0.49
5515.00,0.49
5514.00,0.49
5513.00,0.49
5512.00,0.49
5511.00,0.49
5510.00,0.49
5509.00,0.49
5508.00,0.49
5507.00,0.49
5506.00,0.49
5505.00,0.50
5504.00,0.50
5503.00,0.50
5502.00,0.50
5501.00,0.50
5500.00,0.50
5499.00,0.50
5498.00,0.50
5497.00,0.50
5496.00,0.50
5495.00,0.50
5494.00,0.50
5493.00,0.50
5492.00,0.50
5491.00,0.50
5490.00,0.50
5489.00,0.50
5488.00,0.50
5487.00,0.50
5486.00,0.50
5485.00,0.50
5484.00,0.50
5483.00,0.50
5482.00,0.50
5481.00,0.50
5480.00,0.50
5479.00,0.50
5478.00,0.50
5477.00,0.50
5476.00,0.51
5475.00,0.51
5474.00,0.51
5473.00,0.51
5472.00,0.51
5471.00,0.51
5470.00,0.51
5469.00,0.51
5468.00,0.51
5467.00,0.51
5466.00,0.51
5465.00,0.51
5464.00,0.51
5463.00,0.51
5462.00,0.51
5461.00,0.51
5460.00,0.51
5459.00,0.51
5458.00,0.51
5457.00,0.51
5456.00,0.51
5455.00,0.51
5454.00,0.51
5453.00,0.51
5452.00,0.51
5451.00,0.51
5450.00,0.51
5449.00,0.51
5448.00,0.51
5447.00,0.51
5446.00,0.51
5445.00,0.51
5444.00,0.51
5443.00,0.51
5442.00,0.51
5441.00,0.51
5440.00,0.51
5439.00,0.51
5438.00,0.51
5437.00,0.51
5436.00,0.51
5435.00,0.51
5434.00,0.51
5433.00,0.51
5432.00,0.51
5431.00,0.51
5430.00,0.51
5429.00,0.51
5428.00,0.51
5427.00,0.51
5426.00,0.51
5425.00,0.51
5424.00,0.51
5423.00,0.51
5422.00,0.51
5421.00,0.51
5420.00,0.51
5419.00,0.51
5418.00,0.51
5417.00,0.51
5416.00,0.51
5415.00,0.51
5414.00,0.51
5413.00,0.51
5412.00,0.51
5411.00,0.51
5410.00,0.51
5409.00,0.51
5408.00,0.51
5407.00,0.51
5406.00,0.51
5405.00,0.51
5404.00,0.51
5403.00,0.51
5402.00,0.51
5401.00,0.51
5400.00,0.51
5399.00,0.51
5398.00,0.51
5397.00,0.50
5396.00,0.50
5395.00,0.50
5394.00,0.50
5393.00,0.50
5392.00,0.50
5391.00,0.50
5390.00,0.50
5389.00,0.50
5388.00,0.50
5387.00,0.50
5386.00,0.50
5385.00,0.50
5384.00,0.50
5383.00,0.50
5382.00,0.49
5381.00,0.49
5380.00,0.49
5379.00,0.49
5378.00,0.49
5377.00,0.49
5376.00,0.49
5375.00,0.49
5374.00,0.49
5373.00,0.48
5372.00,0.48
5371.00,0.48
5370.00,0.48
5369.00,0.48
5368.00,0.48
5367.00,0.47
5366.00,0.47
5365.00,0.47
5364.00,0.47
5363.00,0.47
5362.00,0.47
5361.00,0.46
5360.00,0.46
5359.00,0.46
5358.00,0.46
5357.00,0.45
5356.00,0.45
5355.00,0.45
5354.00,0.44
5353.00,0.44
5352.00,0.44
5351.00,0.44
5350.00,0.43
5349.00,0.43
5348.00,0.43
5347.00,0.42
5346.00,0.42
5345.00,0.42
5344.00,0.41
5343.00,0.41
5342.00,0.41
5341.00,0.40
5340.00,0.40
5339.00,0.40
5338.00,0.39
5337.00,0.39
5336.00,0.39
5335.00,0.38
5334.00,0.38
5333.00,0.38
5332.00,0.37
5331.00,0.37
5330.00,0.37
5329.00,0.36
5328.00,0.36
5327.00,0.36
5326.00,0.35
5325.00,0.35
5324.00,0.35
5323.00,0.34
5322.00,0.34
5321.00,0.34
5320.00,0.33
5319.00,0.33
5318.00,0.33
5317.00,0.32
5316.00,0.32
5315.00,0.32
5314.00,0.31
5313.00,0.31
5312.00,0.31
5311.00,0.30
5310.00,0.30
5309.00,0.30
5308.00,0.30
5307.00,0.29
5306.00,0.29
5305.00,0.29
5304.00,0.28
5303.00,0.28
5302.00,0.28
5301.00,0.28
5300.00,0.28
5299.00,0.27
5298.00,0.27
5297.00,0.27
5296.00,0.27
5295.00,0.27
5294.00,0.26
5293.00,0.26
5292.00,0.26
5291.00,0.26
5290.00,0.26
5289.00,0.26
5288.00,0.26
5287.00,0.25
5286.00,0.25
5285.00,0.25
5284.00,0.25
5283.00,0.25
5282.00,0.25
5281.00,0.25
5280.00,0.25
5279.00,0.25
5278.00,0.25
5277.00,0.25
5276.00,0.25
5275.00,0.25
5274.00,0.24
5273.00,0.24
5272.00,0.24
5271.00,0.24
5270.00,0.24
5269.00,0.24
5268.00,0.24
5267.00,0.24
5266.00,0.24
5265.00,0.24
5264.00,0.24
5263.00,0.24
5262.00,0.24
5261.00,0.24
5260.00,0.24
5259.00,0.24
5258.00,0.24
5257.00,0.24
5256.00,0.24
5255.00,0.24
5254.00,0.24
5253.00,0.24
5252.00,0.24
5251.00,0.24
5250.00,0.24
5249.00,0.23
5248.00,0.23
5247.00,0.23
5246.00,0.23
5245.00,0.23
5244.00,0.23
5243.00,0.23
5242.00,0.23
5241.00,0.24
5240.00,0.24
5239.00,0.24
5238.00,0.24
5237.00,0.24
5236.00,0.24
5235.00,0.24
5234.00,0.24
5233.00,0.24
5232.00,0.24
5231.00,0.24
5230.00,0.24
5229.00,0.24
5228.00,0.24
5227.00,0.24
5226.00,0.24
5225.00,0.24
5224.00,0.24
5223.00,0.24
5222.00,0.24
5221.00,0.24
5220.00,0.24
5219.00,0.24
5218.00,0.24
5217.00,0.24
5216.00,0.24
5215.00,0.24
5214.00,0.24
5213.00,0.24
5212.00,0.24
5211.00,0.24
5210.00,0.24
5209.00,0.24
5208.00,0.24
5207.00,0.24
5206.00,0.24
5205.00,0.24
5204.00,0.24
5203.00,0.24
5202.00,0.24
5201.00,0.24
5200.00,0.24
5199.00,0.24
5198.00,0.24
5197.00,0.24
5196.00,0.24
5195.00,0.24
5194.00,0.24
5193.00,0.24
5192.00,0.24
5191.00,0.24
5190.00,0.25
5189.00,0.25
5188.00,0.25
5187.00,0.25
5186.00,0.25
5185.00,0.25
5184.00,0.25
5183.00,0.25
5182.00,0.25
5181.00,0.25
5180.00,0.25
5179.00,0.25
5178.00,0.25
5177.00,0.25
5176.00,0.25
5175.00,0.25
5174.00,0.25
5173.00,0.25
5172.00,0.25
5171.00,0.25
5170.00,0.25
5169.00,0.25
5168.00,0.25
5167.00,0.25
5166.00,0.25
5165.00,0.25
5164.00,0.25
5163.00,0.25
5162.00,0.25
5161.00,0.25
5160.00,0.25
5159.00,0.25
5158.00,0.25
5157.00,0.25
5156.00,0.25
5155.00,0.25
5154.00,0.25
5153.00,0.25
5152.00,0.25
5151.00,0.25
5150.00,0.25
5149.00,0.25
5148.00,0.25
5147.00,0.25
5146.00,0.25
5145.00,0.25
5144.00,0.25
5143.00,0.25
5142.00,0.25
5141.00,0.25
5140.00,0.25
5139.00,0.25
5138.00,0.25
5137.00,0.25
5136.00,0.25
5135.00,0.25
5134.00,0.25
5133.00,0.25
5132.00,0.25
5131.00,0.26
5130.00,0.26
5129.00,0.26
5128.00,0.26
5127.00,0.26
5126.00,0.26
5125.00,0.26
5124.00,0.26
5123.00,0.26
5122.00,0.26
5121.00,0.26
5120.00,0.26
5119.00,0.26
5118.00,0.26
5117.00,0.26
5116.00,0.26
5115.00,0.26
5114.00,0.26
5113.00,0.26
5112.00,0.26
5111.00,0.26
5110.00,0.26
5109.00,0.26
5108.00,0.26
5107.00,0.26
5106.00,0.26
5105.00,0.26
5104.00,0.26
5103.00,0.26
5102.00,0.26
5101.00,0.26
5100.00,0.26
5099.00,0.26
5098.00,0.26
5097.00,0.26
5096.00,0.26
5095.00,0.26
5094.00,0.26
5093.00,0.26
5092.00,0.26
5091.00,0.26
5090.00,0.26
5089.00,0.26
5088.00,0.26
5087.00,0.26
5086.00,0.26
5085.00,0.26
5084.00,0.26
5083.00,0.26
5082.00,0.26
5081.00,0.26
5080.00,0.26
5079.00,0.26
5078.00,0.27
5077.00,0.27
5076.00,0.27
5075.00,0.27
5074.00,0.27
5073.00,0.27
5072.00,0.27
5071.00,0.27
5070.00,0.27
5069.00,0.27
5068.00,0.27
5067.00,0.27
5066.00,0.27
5065.00,0.27
5064.00,0.27
5063.00,0.27
5062.00,0.27
5061.00,0.27
5060.00,0.27
5059.00,0.27
5058.00,0.27
5057.00,0.27
5056.00,0.27
5055.00,0.27
5054.00,0.27
5053.00,0.27
5052.00,0.28
5051.00,0.28
5050.00,0.28
5049.00,0.28
5048.00,0.28
5047.00,0.28
5046.00,0.28
5045.00,0.28
5044.00,0.28
5043.00,0.28
5042.00,0.28
5041.00,0.28
5040.00,0.28
5039.00,0.28
5038.00,0.28
5037.00,0.28
5036.00,0.28
5035.00,0.28
5034.00,0.28
5033.00,0.28
5032.00,0.28
5031.00,0.28
5030.00,0.28
5029.00,0.28
5028.00,0.28
5027.00,0.28
5026.00,0.28
5025.00,0.28
5024.00,0.28
5023.00,0.28
5022.00,0.28
5021.00,0.28
5020.00,0.28
5019.00,0.28
5018.00,0.28
5017.00,0.29
5016.00,0.29
5015.00,0.29
5014.00,0.29
5013.00,0.29
5012.00,0.29
5011.00,0.29
5010.00,0.29
5009.00,0.29
5008.00,0.29
5007.00,0.29
5006.00,0.29
5005.00,0.29
5004.00,0.29
5003.00,0.29
5002.00,0.29
5001.00,0.29
5000.00,0.29
4999.00,0.29
4998.00,0.29
4997.00,0.29
4996.00,0.29
4995.00,0.29
4994.00,0.29
4993.00,0.29
4992.00,0.29
4991.00,0.30
4990.00,0.30
4989.00,0.30
4988.00,0.30
4987.00,0.30
4986.00,0.30
4985.00,0.30
4984.00,0.30
4983.00,0.30
4982.00,0.30
4981.00,0.30
4980.00,0.30
4979.00,0.30
4978.00,0.30
4977.00,0.30
4976.00,0.30
4975.00,0.30
4974.00,0.30
4973.00,0.30
4972.00,0.30
4971.00,0.30
4970.00,0.30
4969.00,0.30
4968.00,0.30
4967.00,0.30
4966.00,0.30
4965.00,0.30
4964.00,0.30
4963.00,0.31
4962.00,0.31
4961.00,0.31
4960.00,0.31
4959.00,0.31
4958.00,0.31
4957.00,0.31
4956.00,0.31
4955.00,0.31
4954.00,0.31
4953.00,0.31
4952.00,0.31
4951.00,0.31
4950.00,0.31
4949.00,0.31
4948.00,0.31
4947.00,0.31
4946.00,0.31
4945.00,0.31
4944.00,0.31
4943.00,0.31
4942.00,0.31
4941.00,0.31
4940.00,0.31
4939.00,0.31
4938.00,0.31
4937.00,0.31
4936.00,0.31
4935.00,0.31
4934.00,0.31
4933.00,0.31
4932.00,0.31
4931.00,0.31
4930.00,0.31
4929.00,0.31
4928.00,0.31
4927.00,0.32
4926.00,0.32
4925.00,0.32
4924.00,0.32
4923.00,0.32
4922.00,0.32
4921.00,0.32
4920.00,0.32
4919.00,0.32
4918.00,0.32
4917.00,0.32
4916.00,0.32
4915.00,0.32
4914.00,0.32
4913.00,0.32
4912.00,0.32
4911.00,0.32
4910.00,0.32
4909.00,0.32
4908.00,0.32
4907.00,0.32
4906.00,0.33
4905.00,0.33
4904.00,0.33
4903.00,0.33
4902.00,0.33
4901.00,0.33
4900.00,0.33
4899.00,0.33
4898.00,0.33
4897.00,0.33
4896.00,0.33
4895.00,0.33
4894.00,0.33
4893.00,0.33
4892.00,0.33
4891.00,0.33
4890.00,0.33
4889.00,0.33
4888.00,0.33
4887.00,0.33
4886.00,0.33
4885.00,0.33
4884.00,0.33
4883.00,0.33
4882.00,0.33
4881.00,0.33
4880.00,0.33
4879.00,0.33
4878.00,0.33
4877.00,0.33
4876.00,0.33
4875.00,0.33
4874.00,0.34
4873.00,0.34
4872.00,0.34
4871.00,0.34
4870.00,0.34
4869.00,0.34
4868.00,0.34
4867.00,0.34
4866.00,0.34
4865.00,0.34
4864.00,0.34
4863.00,0.34
4862.00,0.34
4861.00,0.34
4860.00,0.34
4859.00,0.34
4858.00,0.34
4857.00,0.34
4856.00,0.34
4855.00,0.34
4854.00,0.34
4853.00,0.34
4852.00,0.34
4851.00,0.34
4850.00,0.34
4849.00,0.34
4848.00,0.34
4847.00,0.34
4846.00,0.34
4845.00,0.34
4844.00,0.34
4843.00,0.34
4842.00,0.34
4841.00,0.34
4840.00,0.34
4839.00,0.35
4838.00,0.35
4837.00,0.35
4836.00,0.35
4835.00,0.35
4834.00,0.35
4833.00,0.35
4832.00,0.35
4831.00,0.35
4830.00,0.35
4829.00,0.35
4828.00,0.35
4827.00,0.35
4826.00,0.35
4825.00,0.35
4824.00,0.35
4823.00,0.35
4822.00,0.35
4821.00,0.35
4820.00,0.35
4819.00,0.35
4818.00,0.35
4817.00,0.35
4816.00,0.35
4815.00,0.36
4814.00,0.36
4813.00,0.36
4812.00,0.36
4811.00,0.36
4810.00,0.36
4809.00,0.36
4808.00,0.36
4807.00,0.36
4806.00,0.36
4805.00,0.36
4804.00,0.36
4803.00,0.36
4802.00,0.36
4801.00,0.36
4800.00,0.36
4799.00,0.36
4798.00,0.36
4797.00,0.37
4796.00,0.37
4795.00,0.37
4794.00,0.37
4793.00,0.37
4792.00,0.37
4791.00,0.37
4790.00,0.37
4789.00,0.37
4788.00,0.37
4787.00,0.37
4786.00,0.37
4785.00,0.37
4784.00,0.37
4783.00,0.37
4782.00,0.37
4781.00,0.37
4780.00,0.37
4779.00,0.37
4778.00,0.37
4777.00,0.38
4776.00,0.38
4775.00,0.38
4774.00,0.38
4773.00,0.38
4772.00,0.38
4771.00,0.38
4770.00,0.38
4769.00,0.38
4768.00,0.38
4767.00,0.38
4766.00,0.38
4765.00,0.38
4764.00,0.38
4763.00,0.38
4762.00,0.38
4761.00,0.39
4760.00,0.39
4759.00,0.39
4758.00,0.39
4757.00,0.39
4756.00,0.39
4755.00,0.39
4754.00,0.39
4753.00,0.39
4752.00,0.39
4751.00,0.39
4750.00,0.39
4749.00,0.39
4748.00,0.40
4747.00,0.40
4746.00,0.40
4745.00,0.40
4744.00,0.40
4743.00,0.40
4742.00,0.40
4741.00,0.40
4740.00,0.40
4739.00,0.40
4738.00,0.41
4737.00,0.41
4736.00,0.41
4735.00,0.41
4734.00,0.41
4733.00,0.41
4732.00,0.41
4731.00,0.41
4730.00,0.41
4729.00,0.41
4728.00,0.41
4727.00,0.41
4726.00,0.42
4725.00,0.42
4724.00,0.42
4723.00,0.42
4722.00,0.42
4721.00,0.42
4720.00,0.42
4719.00,0.42
4718.00,0.42
4717.00,0.42
4716.00,0.42
4715.00,0.42
4714.00,0.42
4713.00,0.42
4712.00,0.42
4711.00,0.42
4710.00,0.42
4709.00,0.42
4708.00,0.42
4707.00,0.42
4706.00,0.43
4705.00,0.43
4704.00,0.43
4703.00,0.43
4702.00,0.43
4701.00,0.43
4700.00,0.43
4699.00,0.43
4698.00,0.43
4697.00,0.43
4696.00,0.43
4695.00,0.43
4694.00,0.43
4693.00,0.43
4692.00,0.43
4691.00,0.43
4690.00,0.43
4689.00,0.44
4688.00,0.44
4687.00,0.44
4686.00,0.44
4685.00,0.44
4684.00,0.44
4683.00,0.44
4682.00,0.44
4681.00,0.44
4680.00,0.44
4679.00,0.44
4678.00,0.44
4677.00,0.44
4676.00,0.44
4675.00,0.44
4674.00,0.45
4673.00,0.45
4672.00,0.45
4671.00,0.45
4670.00,0.45
4669.00,0.45
4668.00,0.45
4667.00,0.45
4666.00,0.45
4665.00,0.45
4664.00,0.45
4663.00,0.45
4662.00,0.45
4661.00,0.45
4660.00,0.45
4659.00,0.45
4658.00,0.45
4657.00,0.45
4656.00,0.45
4655.00,0.45
4654.00,0.45
4653.00,0.45
4652.00,0.45
4651.00,0.46
4650.00,0.46
4649.00,0.46
4648.00,0.46
4647.00,0.46
4646.00,0.46
4645.00,0.46
4644.00,0.46
4643.00,0.46
4642.00,0.46
4641.00,0.46
4640.00,0.46
4639.00,0.46
4638.00,0.46
4637.00,0.46
4636.00,0.47
4635.00,0.47
4634.00,0.47
4633.00,0.47
4632.00,0.47
4631.00,0.47
4630.00,0.47
4629.00,0.47
4628.00,0.47
4627.00,0.47
4626.00,0.47
4625.00,0.47
4624.00,0.47
4623.00,0.47
4622.00,0.47
4621.00,0.47
4620.00,0.47
4619.00,0.47
4618.00,0.47
4617.00,0.47
4616.00,0.47
4615.00,0.47
4614.00,0.47
4613.00,0.47
4612.00,0.47
4611.00,0.47
4610.00,0.47
4609.00,0.47
4608.00,0.47
4607.00,0.47
4606.00,0.47
4605.00,0.47
4604.00,0.47
4603.00,0.48
4602.00,0.48
4601.00,0.48
4600.00,0.48
4599.00,0.48
4598.00,0.48
4597.00,0.48
4596.00,0.48
4595.00,0.48
4594.00,0.48
4593.00,0.48
4592.00,0.48
4591.00,0.48
4590.00,0.48
4589.00,0.48
4588.00,0.48
4587.00,0.48
4586.00,0.49
4585.00,0.49
4584.00,0.49
4583.00,0.49
4582.00,0.49
4581.00,0.49
4580.00,0.49
4579.00,0.49
4578.00,0.49
4577.00,0.49
4576.00,0.49
4575.00,0.49
4574.00,0.49
4573.00,0.49
4572.00,0.49
4571.00,0.49
4570.00,0.49
4569.00,0.49
4568.00,0.49
4567.00,0.49
4566.00,0.49
4565.00,0.49
4564.00,0.49
4563.00,0.49
4562.00,0.49
4561.00,0.49
4560.00,0.49
4559.00,0.49
4558.00,0.50
4557.00,0.50
4556.00,0.50
4555.00,0.50
4554.00,0.50
4553.00,0.50
4552.00,0.50
4551.00,0.50
4550.00,0.50
4549.00,0.50
4548.00,0.50
4547.00,0.50
4546.00,0.50
4545.00,0.50
4544.00,0.50
4543.00,0.50
4542.00,0.50
4541.00,0.51
4540.00,0.51
4539.00,0.51
4538.00,0.51
4537.00,0.51
4536.00,0.51
4535.00,0.51
4534.00,0.51
4533.00,0.51
4532.00,0.51
4531.00,0.51
4530.00,0.51
4529.00,0.51
4528.00,0.51
4527.00,0.51
4526.00,0.51
4525.00,0.51
4524.00,0.51
4523.00,0.51
4522.00,0.51
4521.00,0.51
4520.00,0.51
4519.00,0.51
4518.00,0.51
4517.00,0.51
4516.00,0.51
4515.00,0.50
4514.00,0.50
4513.00,0.50
4512.00,0.50
4511.00,0.50
4510.00,0.50
4509.00,0.50
4508.00,0.50
4507.00,0.50
4506.00,0.50
4505.00,0.50
4504.00,0.50
4503.00,0.50
4502.00,0.50
4501.00,0.50
4500.00,0.50
4499.00,0.50
4498.00,0.50
4497.00,0.50
4496.00,0.50
4495.00,0.50
4494.00,0.50
4493.00,0.50
4492.00,0.50
4491.00,0.50
4490.00,0.50
4489.00,0.50
4488.00,0.50
4487.00,0.50
4486.00,0.50
4485.00,0.50
4484.00,0.50
4483.00,0.50
4482.00,0.50
4481.00,0.50
4480.00,0.50
4479.00,0.50
4478.00,0.50
4477.00,0.50
4476.00,0.50
4475.00,0.50
4474.00,0.50
4473.00,0.49
4472.00,0.49
4471.00,0.49
4470.00,0.49
4469.00,0.49
4468.00,0.49
4467.00,0.49
4466.00,0.49
4465.00,0.49
4464.00,0.49
4463.00,0.48
4462.00,0.48
4461.00,0.48
4460.00,0.48
4459.00,0.48
4458.00,0.48
4457.00,0.48
4456.00,0.47
4455.00,0.47
4454.00,0.47
4453.00,0.47
4452.00,0.47
4451.00,0.47
4450.00,0.46
4449.00,0.46
4448.00,0.46
4447.00,0.46
4446.00,0.46
4445.00,0.45
4444.00,0.45
4443.00,0.45
4442.00,0.45
4441.00,0.45
4440.00,0.44
4439.00,0.44
4438.00,0.44
4437.00,0.44
4436.00,0.43
4435.00,0.43
4434.00,0.43
4433.00,0.43
4432.00,0.43
4431.00,0.43
4430.00,0.42
4429.00,0.42
4428.00,0.42
4427.00,0.42
4426.00,0.42
4425.00,0.42
4424.00,0.41
4423.00,0.41
4422.00,0.41
4421.00,0.41
4420.00,0.41
4419.00,0.41
4418.00,0.41
4417.00,0.41
4416.00,0.41
4415.00,0.41
4414.00,0.41
4413.00,0.41
4412.00,0.41
4411.00,0.41
4410.00,0.41
4409.00,0.41
4408.00,0.41
4407.00,0.41
4406.00,0.41
4405.00,0.41
4404.00,0.41
4403.00,0.41
4402.00,0.41
4401.00,0.42
4400.00,0.42
4399.00,0.42
4398.00,0.42
4397.00,0.42
4396.00,0.42
4395.00,0.42
4394.00,0.42
4393.00,0.42
4392.00,0.42
4391.00,0.42
4390.00,0.42
4389.00,0.42
4388.00,0.42
4387.00,0.42
4386.00,0.42
4385.00,0.43
4384.00,0.43
4383.00,0.43
4382.00,0.43
4381.00,0.43
4380.00,0.43
4379.00,0.43
4378.00,0.43
4377.00,0.44
4376.00,0.44
4375.00,0.44
4374.00,0.44
4373.00,0.44
4372.00,0.44
4371.00,0.44
4370.00,0.44
4369.00,0.44
4368.00,0.44
4367.00,0.44
4366.00,0.44
4365.00,0.44
4364.00,0.44
4363.00,0.44
4362.00,0.44
4361.00,0.44
4360.00,0.44
4359.00,0.43
4358.00,0.43
4357.00,0.43
4356.00,0.43
4355.00,0.43
4354.00,0.43
4353.00,0.43
4352.00,0.43
4351.00,0.43
4350.00,0.43
4349.00,0.43
4348.00,0.43
4347.00,0.43
4346.00,0.43
4345.00,0.43
4344.00,0.43
4343.00,0.43
4342.00,0.43
4341.00,0.43
4340.00,0.43
4339.00,0.43
4338.00,0.43
4337.00,0.43
4336.00,0.43
4335.00,0.43
4334.00,0.43
4333.00,0.43
4332.00,0.43
4331.00,0.43
4330.00,0.43
4329.00,0.43
4328.00,0.43
4327.00,0.43
4326.00,0.43
4325.00,0.44
4324.00,0.44
4323.00,0.44
4322.00,0.44
4321.00,0.44
4320.00,0.44
4319.00,0.44
4318.00,0.44
4317.00,0.44
4316.00,0.44
4315.00,0.44
4314.00,0.45
4313.00,0.45
4312.00,0.45
4311.00,0.45
4310.00,0.45
4309.00,0.45
4308.00,0.45
4307.00,0.45
4306.00,0.46
4305.00,0.46
4304.00,0.46
4303.00,0.46
4302.00,0.46
4301.00,0.46
4300.00,0.46
4299.00,0.46
4298.00,0.46
4297.00,0.46
4296.00,0.47
4295.00,0.47
4294.00,0.47
4293.00,0.47
4292.00,0.47
4291.00,0.47
4290.00,0.47
4289.00,0.47
4288.00,0.47
4287.00,0.47
4286.00,0.47
4285.00,0.47
4284.00,0.47
4283.00,0.47
4282.00,0.47
4281.00,0.47
4280.00,0.47
4279.00,0.47
4278.00,0.47
4277.00,0.47
4276.00,0.47
4275.00,0.47
4274.00,0.47
4273.00,0.47
4272.00,0.47
4271.00,0.47
4270.00,0.47
4269.00,0.47
4268.00,0.47
4267.00,0.47
4266.00,0.47
4265.00,0.47
4264.00,0.47
4263.00,0.47
4262.00,0.47
4261.00,0.47
4260.00,0.47
4259.00,0.47
4258.00,0.47
4257.00,0.47
4256.00,0.47
4255.00,0.47
4254.00,0.47
4253.00,0.47
4252.00,0.47
4251.00,0.47
4250.00,0.47
4249.00,0.47
4248.00,0.47
4247.00,0.47
4246.00,0.47
4245.00,0.47
4244.00,0.47
4243.00,0.47
4242.00,0.47
4241.00,0.47
4240.00,0.47
4239.00,0.47
4238.00,0.47
4237.00,0.47
4236.00,0.47
4235.00,0.47
4234.00,0.48
4233.00,0.48
4232.00,0.48
4231.00,0.48
4230.00,0.48
4229.00,0.48
4228.00,0.48
4227.00,0.48
4226.00,0.48
4225.00,0.48
4224.00,0.48
4223.00,0.48
4222.00,0.48
4221.00,0.48
4220.00,0.48
4219.00,0.48
4218.00,0.48
4217.00,0.48
4216.00,0.48
4215.00,0.48
4214.00,0.48
4213.00,0.48
4212.00,0.48
4211.00,0.48
4210.00,0.48
4209.00,0.48
4208.00,0.48
4207.00,0.48
4206.00,0.48
4205.00,0.48
4204.00,0.48
4203.00,0.48
4202.00,0.48
4201.00,0.48
4200.00,0.48
4199.00,0.48
4198.00,0.48
4197.00,0.48
4196.00,0.48
4195.00,0.48
4194.00,0.48
4193.00,0.48
4192.00,0.48
4191.00,0.48
4190.00,0.48
4189.00,0.48
4188.00,0.48
4187.00,0.48
4186.00,0.48
4185.00,0.48
4184.00,0.48
4183.00,0.48
4182.00,0.48
4181.00,0.48
4180.00,0.48
4179.00,0.48
4178.00,0.48
4177.00,0.48
4176.00,0.48
4175.00,0.48
4174.00,0.48
4173.00,0.48
4172.00,0.48
4171.00,0.48
4170.00,0.48
4169.00,0.48
4168.00,0.48
4167.00,0.48
4166.00,0.48
4165.00,0.48
4164.00,0.48
4163.00,0.48
4162.00,0.48
4161.00,0.48
4160.00,0.48
4159.00,0.48
4158.00,0.48
4157.00,0.48
4156.00,0.48
4155.00,0.48
4154.00,0.48
4153.00,0.48
4152.00,0.48
4151.00,0.48
4150.00,0.48
4149.00,0.49
4148.00,0.49
4147.00,0.49
4146.00,0.49
4145.00,0.49
4144.00,0.49
4143.00,0.49
4142.00,0.49
4141.00,0.49
4140.00,0.49
4139.00,0.49
4138.00,0.49
4137.00,0.49
4136.00,0.49
4135.00,0.49
4134.00,0.49
4133.00,0.49
4132.00,0.49
4131.00,0.49
4130.00,0.49
4129.00,0.49
4128.00,0.49
4127.00,0.49
4126.00,0.49
4125.00,0.49
4124.00,0.49
4123.00,0.49
4122.00,0.49
4121.00,0.49
4120.00,0.49
4119.00,0.49
4118.00,0.49
4117.00,0.49
4116.00,0.49
4115.00,0.49
4114.00,0.48
4113.00,0.48
4112.00,0.48
4111.00,0.48
4110.00,0.48
4109.00,0.48
4108.00,0.48
4107.00,0.48
4106.00,0.48
4105.00,0.48
4104.00,0.48
4103.00,0.48
4102.00,0.48
4101.00,0.49
4100.00,0.49
4099.00,0.49
4098.00,0.49
4097.00,0.49
4096.00,0.49
4095.00,0.49
4094.00,0.49
4093.00,0.49
4092.00,0.49
4091.00,0.49
4090.00,0.49
4089.00,0.49
4088.00,0.49
4087.00,0.49
4086.00,0.49
4085.00,0.49
4084.00,0.49
4083.00,0.49
4082.00,0.49
4081.00,0.49
4080.00,0.49
4079.00,0.49
4078.00,0.49
4077.00,0.49
4076.00,0.49
4075.00,0.49
4074.00,0.49
4073.00,0.49
4072.00,0.49
4071.00,0.49
4070.00,0.49
4069.00,0.49
4068.00,0.49
4067.00,0.49
4066.00,0.49
4065.00,0.49
4064.00,0.50
4063.00,0.50
4062.00,0.50
4061.00,0.50
4060.00,0.50
4059.00,0.50
4058.00,0.50
4057.00,0.50
4056.00,0.50
4055.00,0.50
4054.00,0.50
4053.00,0.50
4052.00,0.50
4051.00,0.50
4050.00,0.50
4049.00,0.50
4048.00,0.50
4047.00,0.50
4046.00,0.50
4045.00,0.50
4044.00,0.50
4043.00,0.50
4042.00,0.50
4041.00,0.50
4040.00,0.50
4039.00,0.50
4038.00,0.50
4037.00,0.50
4036.00,0.50
4035.00,0.50
4034.00,0.50
4033.00,0.50
4032.00,0.50
4031.00,0.50
4030.00,0.50
4029.00,0.50
4028.00,0.50
4027.00,0.50
4026.00,0.50
4025.00,0.50
4024.00,0.50
4023.00,0.50
4022.00,0.50
4021.00,0.50
4020.00,0.50
4019.00,0.50
4018.00,0.50
4017.00,0.50
4016.00,0.50
4015.00,0.50
4014.00,0.50
4013.00,0.50
4012.00,0.50
4011.00,0.50
4010.00,0.50
4009.00,0.50
4008.00,0.50
4007.00,0.50
4006.00,0.50
4005.00,0.51
4004.00,0.51
4003.00,0.51
4002.00,0.51
4001.00,0.51
4000.00,0.51
