创建为新数据集,样品 473 用户 Administrator 日期 星期日, 七月 15 2018
cm-1,%T
10000.00,0.46
9999.00,0.46
9998.00,0.46
9997.00,0.46
9996.00,0.46
9995.00,0.46
9994.00,0.46
9993.00,0.45
9992.00,0.45
9991.00,0.45
9990.00,0.45
9989.00,0.44
9988.00,0.44
9987.00,0.44
9986.00,0.44
9985.00,0.44
9984.00,0.44
9983.00,0.43
9982.00,0.43
9981.00,0.43
9980.00,0.43
9979.00,0.43
9978.00,0.43
9977.00,0.44
9976.00,0.44
9975.00,0.44
9974.00,0.44
9973.00,0.44
9972.00,0.44
9971.00,0.44
9970.00,0.45
9969.00,0.45
9968.00,0.45
9967.00,0.45
9966.00,0.45
9965.00,0.45
9964.00,0.45
9963.00,0.45
9962.00,0.45
9961.00,0.45
9960.00,0.45
9959.00,0.45
9958.00,0.45
9957.00,0.45
9956.00,0.45
9955.00,0.45
9954.00,0.45
9953.00,0.45
9952.00,0.45
9951.00,0.45
9950.00,0.45
9949.00,0.45
9948.00,0.45
9947.00,0.45
9946.00,0.45
9945.00,0.45
9944.00,0.45
9943.00,0.45
9942.00,0.45
9941.00,0.45
9940.00,0.45
9939.00,0.44
9938.00,0.44
9937.00,0.44
9936.00,0.44
9935.00,0.44
9934.00,0.44
9933.00,0.45
9932.00,0.45
9931.00,0.45
9930.00,0.45
9929.00,0.45
9928.00,0.45
9927.00,0.45
9926.00,0.45
9925.00,0.45
9924.00,0.45
9923.00,0.45
9922.00,0.45
9921.00,0.45
9920.00,0.45
9919.00,0.45
9918.00,0.45
9917.00,0.45
9916.00,0.45
9915.00,0.45
9914.00,0.45
9913.00,0.45
9912.00,0.45
9911.00,0.45
9910.00,0.45
9909.00,0.45
9908.00,0.45
9907.00,0.45
9906.00,0.45
9905.00,0.44
9904.00,0.44
9903.00,0.44
9902.00,0.44
9901.00,0.44
9900.00,0.44
9899.00,0.44
9898.00,0.44
9897.00,0.44
9896.00,0.44
9895.00,0.44
9894.00,0.44
9893.00,0.45
9892.00,0.45
9891.00,0.45
9890.00,0.46
9889.00,0.46
9888.00,0.47
9887.00,0.48
9886.00,0.48
9885.00,0.49
9884.00,0.49
9883.00,0.50
9882.00,0.50
9881.00,0.50
9880.00,0.50
9879.00,0.50
9878.00,0.50
9877.00,0.50
9876.00,0.50
9875.00,0.50
9874.00,0.49
9873.00,0.49
9872.00,0.48
9871.00,0.48
9870.00,0.48
9869.00,0.47
9868.00,0.47
9867.00,0.47
9866.00,0.46
9865.00,0.46
9864.00,0.46
9863.00,0.46
9862.00,0.46
9861.00,0.46
9860.00,0.46
9859.00,0.46
9858.00,0.46
9857.00,0.46
9856.00,0.46
9855.00,0.46
9854.00,0.46
9853.00,0.46
9852.00,0.46
9851.00,0.46
9850.00,0.46
9849.00,0.46
9848.00,0.46
9847.00,0.46
9846.00,0.46
9845.00,0.46
9844.00,0.46
9843.00,0.46
9842.00,0.46
9841.00,0.46
9840.00,0.46
9839.00,0.46
9838.00,0.46
9837.00,0.46
9836.00,0.46
9835.00,0.46
9834.00,0.46
9833.00,0.45
9832.00,0.45
9831.00,0.45
9830.00,0.45
9829.00,0.45
9828.00,0.45
9827.00,0.44
9826.00,0.44
9825.00,0.44
9824.00,0.43
9823.00,0.43
9822.00,0.43
9821.00,0.43
9820.00,0.43
9819.00,0.42
9818.00,0.42
9817.00,0.42
9816.00,0.42
9815.00,0.42
9814.00,0.42
9813.00,0.42
9812.00,0.42
9811.00,0.42
9810.00,0.42
9809.00,0.42
9808.00,0.43
9807.00,0.43
9806.00,0.43
9805.00,0.43
9804.00,0.43
9803.00,0.43
9802.00,0.43
9801.00,0.43
9800.00,0.43
9799.00,0.43
9798.00,0.43
9797.00,0.43
9796.00,0.43
9795.00,0.43
9794.00,0.43
9793.00,0.43
9792.00,0.43
9791.00,0.43
9790.00,0.43
9789.00,0.43
9788.00,0.43
9787.00,0.43
9786.00,0.43
9785.00,0.43
9784.00,0.43
9783.00,0.43
9782.00,0.43
9781.00,0.44
9780.00,0.44
9779.00,0.44
9778.00,0.44
9777.00,0.44
9776.00,0.43
9775.00,0.43
9774.00,0.43
9773.00,0.43
9772.00,0.43
9771.00,0.43
9770.00,0.42
9769.00,0.42
9768.00,0.42
9767.00,0.42
9766.00,0.42
9765.00,0.41
9764.00,0.41
9763.00,0.41
9762.00,0.41
9761.00,0.41
9760.00,0.41
9759.00,0.41
9758.00,0.41
9757.00,0.42
9756.00,0.42
9755.00,0.42
9754.00,0.42
9753.00,0.43
9752.00,0.43
9751.00,0.43
9750.00,0.44
9749.00,0.44
9748.00,0.44
9747.00,0.45
9746.00,0.45
9745.00,0.46
9744.00,0.46
9743.00,0.46
9742.00,0.46
9741.00,0.47
9740.00,0.47
9739.00,0.47
9738.00,0.47
9737.00,0.46
9736.00,0.46
9735.00,0.46
9734.00,0.46
9733.00,0.45
9732.00,0.45
9731.00,0.44
9730.00,0.44
9729.00,0.44
9728.00,0.43
9727.00,0.43
9726.00,0.43
9725.00,0.43
9724.00,0.42
9723.00,0.42
9722.00,0.42
9721.00,0.42
9720.00,0.42
9719.00,0.42
9718.00,0.42
9717.00,0.42
9716.00,0.42
9715.00,0.42
9714.00,0.42
9713.00,0.42
9712.00,0.42
9711.00,0.42
9710.00,0.42
9709.00,0.42
9708.00,0.42
9707.00,0.42
9706.00,0.42
9705.00,0.42
9704.00,0.42
9703.00,0.42
9702.00,0.42
9701.00,0.42
9700.00,0.42
9699.00,0.42
9698.00,0.42
9697.00,0.43
9696.00,0.43
9695.00,0.43
9694.00,0.43
9693.00,0.43
9692.00,0.43
9691.00,0.43
9690.00,0.43
9689.00,0.43
9688.00,0.43
9687.00,0.43
9686.00,0.43
9685.00,0.43
9684.00,0.43
9683.00,0.43
9682.00,0.43
9681.00,0.43
9680.00,0.43
9679.00,0.43
9678.00,0.43
9677.00,0.43
9676.00,0.43
9675.00,0.43
9674.00,0.43
9673.00,0.43
9672.00,0.43
9671.00,0.43
9670.00,0.43
9669.00,0.43
9668.00,0.43
9667.00,0.43
9666.00,0.43
9665.00,0.42
9664.00,0.42
9663.00,0.42
9662.00,0.42
9661.00,0.41
9660.00,0.41
9659.00,0.41
9658.00,0.40
9657.00,0.40
9656.00,0.40
9655.00,0.39
9654.00,0.39
9653.00,0.39
9652.00,0.39
9651.00,0.39
9650.00,0.39
9649.00,0.39
9648.00,0.39
9647.00,0.39
9646.00,0.40
9645.00,0.40
9644.00,0.40
9643.00,0.40
9642.00,0.41
9641.00,0.41
9640.00,0.41
9639.00,0.41
9638.00,0.42
9637.00,0.42
9636.00,0.42
9635.00,0.42
9634.00,0.42
9633.00,0.43
9632.00,0.43
9631.00,0.43
9630.00,0.43
9629.00,0.44
9628.00,0.44
9627.00,0.44
9626.00,0.44
9625.00,0.44
9624.00,0.44
9623.00,0.45
9622.00,0.45
9621.00,0.45
9620.00,0.45
9619.00,0.45
9618.00,0.45
9617.00,0.45
9616.00,0.45
9615.00,0.45
9614.00,0.45
9613.00,0.45
9612.00,0.45
9611.00,0.45
9610.00,0.45
9609.00,0.45
9608.00,0.45
9607.00,0.45
9606.00,0.45
9605.00,0.45
9604.00,0.45
9603.00,0.45
9602.00,0.44
9601.00,0.44
9600.00,0.44
9599.00,0.44
9598.00,0.44
9597.00,0.43
9596.00,0.43
9595.00,0.43
9594.00,0.43
9593.00,0.42
9592.00,0.42
9591.00,0.42
9590.00,0.42
9589.00,0.42
9588.00,0.42
9587.00,0.42
9586.00,0.42
9585.00,0.42
9584.00,0.42
9583.00,0.42
9582.00,0.42
9581.00,0.42
9580.00,0.42
9579.00,0.43
9578.00,0.43
9577.00,0.43
9576.00,0.43
9575.00,0.44
9574.00,0.44
9573.00,0.44
9572.00,0.44
9571.00,0.44
9570.00,0.44
9569.00,0.44
9568.00,0.45
9567.00,0.45
9566.00,0.45
9565.00,0.45
9564.00,0.45
9563.00,0.44
9562.00,0.44
9561.00,0.44
9560.00,0.44
9559.00,0.44
9558.00,0.44
9557.00,0.44
9556.00,0.44
9555.00,0.44
9554.00,0.44
9553.00,0.43
9552.00,0.43
9551.00,0.43
9550.00,0.43
9549.00,0.43
9548.00,0.44
9547.00,0.44
9546.00,0.44
9545.00,0.44
9544.00,0.44
9543.00,0.44
9542.00,0.44
9541.00,0.44
9540.00,0.44
9539.00,0.44
9538.00,0.44
9537.00,0.44
9536.00,0.44
9535.00,0.44
9534.00,0.44
9533.00,0.44
9532.00,0.44
9531.00,0.45
9530.00,0.45
9529.00,0.45
9528.00,0.45
9527.00,0.45
9526.00,0.45
9525.00,0.45
9524.00,0.45
9523.00,0.45
9522.00,0.45
9521.00,0.45
9520.00,0.45
9519.00,0.45
9518.00,0.45
9517.00,0.45
9516.00,0.45
9515.00,0.44
9514.00,0.44
9513.00,0.44
9512.00,0.44
9511.00,0.44
9510.00,0.44
9509.00,0.44
9508.00,0.44
9507.00,0.44
9506.00,0.44
9505.00,0.44
9504.00,0.44
9503.00,0.44
9502.00,0.44
9501.00,0.44
9500.00,0.44
9499.00,0.44
9498.00,0.44
9497.00,0.44
9496.00,0.44
9495.00,0.44
9494.00,0.44
9493.00,0.44
9492.00,0.44
9491.00,0.44
9490.00,0.44
9489.00,0.44
9488.00,0.44
9487.00,0.44
9486.00,0.44
9485.00,0.44
9484.00,0.44
9483.00,0.44
9482.00,0.44
9481.00,0.44
9480.00,0.44
9479.00,0.44
9478.00,0.44
9477.00,0.45
9476.00,0.45
9475.00,0.45
9474.00,0.45
9473.00,0.45
9472.00,0.45
9471.00,0.45
9470.00,0.45
9469.00,0.46
9468.00,0.46
9467.00,0.46
9466.00,0.46
9465.00,0.46
9464.00,0.46
9463.00,0.46
9462.00,0.46
9461.00,0.46
9460.00,0.46
9459.00,0.46
9458.00,0.46
9457.00,0.46
9456.00,0.46
9455.00,0.46
9454.00,0.45
9453.00,0.45
9452.00,0.45
9451.00,0.45
9450.00,0.45
9449.00,0.44
9448.00,0.44
9447.00,0.44
9446.00,0.44
9445.00,0.44
9444.00,0.44
9443.00,0.44
9442.00,0.44
9441.00,0.44
9440.00,0.44
9439.00,0.44
9438.00,0.44
9437.00,0.44
9436.00,0.45
9435.00,0.45
9434.00,0.45
9433.00,0.45
9432.00,0.45
9431.00,0.45
9430.00,0.46
9429.00,0.46
9428.00,0.46
9427.00,0.45
9426.00,0.45
9425.00,0.45
9424.00,0.45
9423.00,0.45
9422.00,0.44
9421.00,0.44
9420.00,0.44
9419.00,0.44
9418.00,0.43
9417.00,0.43
9416.00,0.43
9415.00,0.43
9414.00,0.42
9413.00,0.42
9412.00,0.42
9411.00,0.42
9410.00,0.42
9409.00,0.42
9408.00,0.42
9407.00,0.42
9406.00,0.42
9405.00,0.42
9404.00,0.42
9403.00,0.43
9402.00,0.43
9401.00,0.43
9400.00,0.43
9399.00,0.43
9398.00,0.43
9397.00,0.43
9396.00,0.43
9395.00,0.44
9394.00,0.44
9393.00,0.44
9392.00,0.44
9391.00,0.44
9390.00,0.44
9389.00,0.44
9388.00,0.44
9387.00,0.45
9386.00,0.45
9385.00,0.45
9384.00,0.45
9383.00,0.45
9382.00,0.45
9381.00,0.45
9380.00,0.45
9379.00,0.45
9378.00,0.45
9377.00,0.45
9376.00,0.45
9375.00,0.44
9374.00,0.44
9373.00,0.44
9372.00,0.44
9371.00,0.44
9370.00,0.44
9369.00,0.43
9368.00,0.43
9367.00,0.43
9366.00,0.43
9365.00,0.43
9364.00,0.43
9363.00,0.43
9362.00,0.43
9361.00,0.43
9360.00,0.43
9359.00,0.43
9358.00,0.43
9357.00,0.43
9356.00,0.43
9355.00,0.43
9354.00,0.43
9353.00,0.43
9352.00,0.43
9351.00,0.43
9350.00,0.43
9349.00,0.43
9348.00,0.43
9347.00,0.43
9346.00,0.43
9345.00,0.43
9344.00,0.43
9343.00,0.43
9342.00,0.44
9341.00,0.44
9340.00,0.44
9339.00,0.44
9338.00,0.44
9337.00,0.44
9336.00,0.44
9335.00,0.44
9334.00,0.44
9333.00,0.45
9332.00,0.45
9331.00,0.45
9330.00,0.45
9329.00,0.45
9328.00,0.45
9327.00,0.45
9326.00,0.45
9325.00,0.45
9324.00,0.45
9323.00,0.45
9322.00,0.45
9321.00,0.45
9320.00,0.45
9319.00,0.45
9318.00,0.45
9317.00,0.45
9316.00,0.45
9315.00,0.45
9314.00,0.45
9313.00,0.45
9312.00,0.45
9311.00,0.45
9310.00,0.44
9309.00,0.44
9308.00,0.44
9307.00,0.44
9306.00,0.44
9305.00,0.44
9304.00,0.44
9303.00,0.44
9302.00,0.44
9301.00,0.44
9300.00,0.44
9299.00,0.44
9298.00,0.44
9297.00,0.44
9296.00,0.44
9295.00,0.44
9294.00,0.44
9293.00,0.44
9292.00,0.44
9291.00,0.44
9290.00,0.44
9289.00,0.44
9288.00,0.44
9287.00,0.44
9286.00,0.44
9285.00,0.44
9284.00,0.44
9283.00,0.44
9282.00,0.44
9281.00,0.44
9280.00,0.44
9279.00,0.45
9278.00,0.45
9277.00,0.45
9276.00,0.45
9275.00,0.45
9274.00,0.46
9273.00,0.46
9272.00,0.46
9271.00,0.46
9270.00,0.46
9269.00,0.46
9268.00,0.46
9267.00,0.46
9266.00,0.46
9265.00,0.46
9264.00,0.46
9263.00,0.46
9262.00,0.46
9261.00,0.45
9260.00,0.45
9259.00,0.45
9258.00,0.45
9257.00,0.44
9256.00,0.44
9255.00,0.44
9254.00,0.44
9253.00,0.43
9252.00,0.43
9251.00,0.43
9250.00,0.43
9249.00,0.43
9248.00,0.43
9247.00,0.43
9246.00,0.43
9245.00,0.43
9244.00,0.43
9243.00,0.43
9242.00,0.43
9241.00,0.43
9240.00,0.44
9239.00,0.44
9238.00,0.44
9237.00,0.44
9236.00,0.44
9235.00,0.45
9234.00,0.45
9233.00,0.45
9232.00,0.45
9231.00,0.45
9230.00,0.45
9229.00,0.45
9228.00,0.45
9227.00,0.45
9226.00,0.45
9225.00,0.45
9224.00,0.45
9223.00,0.45
9222.00,0.45
9221.00,0.45
9220.00,0.45
9219.00,0.44
9218.00,0.44
9217.00,0.44
9216.00,0.44
9215.00,0.44
9214.00,0.44
9213.00,0.44
9212.00,0.44
9211.00,0.44
9210.00,0.44
9209.00,0.44
9208.00,0.44
9207.00,0.44
9206.00,0.45
9205.00,0.45
9204.00,0.45
9203.00,0.45
9202.00,0.45
9201.00,0.46
9200.00,0.46
9199.00,0.46
9198.00,0.46
9197.00,0.46
9196.00,0.46
9195.00,0.46
9194.00,0.46
9193.00,0.46
9192.00,0.46
9191.00,0.45
9190.00,0.45
9189.00,0.45
9188.00,0.45
9187.00,0.45
9186.00,0.44
9185.00,0.44
9184.00,0.44
9183.00,0.44
9182.00,0.44
9181.00,0.44
9180.00,0.44
9179.00,0.44
9178.00,0.43
9177.00,0.43
9176.00,0.43
9175.00,0.43
9174.00,0.43
9173.00,0.43
9172.00,0.43
9171.00,0.43
9170.00,0.43
9169.00,0.43
9168.00,0.43
9167.00,0.43
9166.00,0.43
9165.00,0.43
9164.00,0.43
9163.00,0.43
9162.00,0.43
9161.00,0.43
9160.00,0.43
9159.00,0.43
9158.00,0.43
9157.00,0.43
9156.00,0.43
9155.00,0.43
9154.00,0.43
9153.00,0.43
9152.00,0.43
9151.00,0.43
9150.00,0.44
9149.00,0.44
9148.00,0.44
9147.00,0.44
9146.00,0.44
9145.00,0.44
9144.00,0.45
9143.00,0.45
9142.00,0.45
9141.00,0.45
9140.00,0.45
9139.00,0.46
9138.00,0.46
9137.00,0.46
9136.00,0.46
9135.00,0.46
9134.00,0.46
9133.00,0.46
9132.00,0.46
9131.00,0.46
9130.00,0.46
9129.00,0.46
9128.00,0.46
9127.00,0.45
9126.00,0.45
9125.00,0.45
9124.00,0.45
9123.00,0.44
9122.00,0.44
9121.00,0.44
9120.00,0.44
9119.00,0.44
9118.00,0.44
9117.00,0.43
9116.00,0.43
9115.00,0.43
9114.00,0.43
9113.00,0.43
9112.00,0.44
9111.00,0.44
9110.00,0.44
9109.00,0.44
9108.00,0.44
9107.00,0.44
9106.00,0.45
9105.00,0.45
9104.00,0.45
9103.00,0.45
9102.00,0.45
9101.00,0.45
9100.00,0.45
9099.00,0.45
9098.00,0.45
9097.00,0.45
9096.00,0.45
9095.00,0.45
9094.00,0.45
9093.00,0.45
9092.00,0.45
9091.00,0.44
9090.00,0.44
9089.00,0.44
9088.00,0.44
9087.00,0.44
9086.00,0.44
9085.00,0.44
9084.00,0.44
9083.00,0.44
9082.00,0.44
9081.00,0.44
9080.00,0.44
9079.00,0.44
9078.00,0.44
9077.00,0.44
9076.00,0.44
9075.00,0.44
9074.00,0.44
9073.00,0.44
9072.00,0.45
9071.00,0.45
9070.00,0.45
9069.00,0.45
9068.00,0.45
9067.00,0.45
9066.00,0.45
9065.00,0.45
9064.00,0.45
9063.00,0.45
9062.00,0.45
9061.00,0.45
9060.00,0.45
9059.00,0.45
9058.00,0.45
9057.00,0.45
9056.00,0.45
9055.00,0.45
9054.00,0.45
9053.00,0.45
9052.00,0.45
9051.00,0.45
9050.00,0.45
9049.00,0.45
9048.00,0.45
9047.00,0.46
9046.00,0.46
9045.00,0.46
9044.00,0.46
9043.00,0.46
9042.00,0.46
9041.00,0.46
9040.00,0.46
9039.00,0.46
9038.00,0.46
9037.00,0.46
9036.00,0.46
9035.00,0.46
9034.00,0.46
9033.00,0.46
9032.00,0.46
9031.00,0.45
9030.00,0.45
9029.00,0.45
9028.00,0.45
9027.00,0.45
9026.00,0.45
9025.00,0.45
9024.00,0.45
9023.00,0.45
9022.00,0.45
9021.00,0.45
9020.00,0.45
9019.00,0.45
9018.00,0.45
9017.00,0.45
9016.00,0.45
9015.00,0.45
9014.00,0.45
9013.00,0.45
9012.00,0.45
9011.00,0.45
9010.00,0.45
9009.00,0.45
9008.00,0.46
9007.00,0.46
9006.00,0.46
9005.00,0.46
9004.00,0.46
9003.00,0.45
9002.00,0.45
9001.00,0.45
9000.00,0.45
8999.00,0.45
8998.00,0.45
8997.00,0.45
8996.00,0.45
8995.00,0.45
8994.00,0.45
8993.00,0.45
8992.00,0.45
8991.00,0.45
8990.00,0.45
8989.00,0.45
8988.00,0.45
8987.00,0.45
8986.00,0.45
8985.00,0.45
8984.00,0.45
8983.00,0.45
8982.00,0.45
8981.00,0.45
8980.00,0.45
8979.00,0.46
8978.00,0.46
8977.00,0.46
8976.00,0.45
8975.00,0.45
8974.00,0.45
8973.00,0.45
8972.00,0.45
8971.00,0.45
8970.00,0.45
8969.00,0.45
8968.00,0.45
8967.00,0.45
8966.00,0.45
8965.00,0.45
8964.00,0.45
8963.00,0.44
8962.00,0.44
8961.00,0.44
8960.00,0.45
8959.00,0.45
8958.00,0.45
8957.00,0.45
8956.00,0.45
8955.00,0.45
8954.00,0.45
8953.00,0.45
8952.00,0.45
8951.00,0.45
8950.00,0.45
8949.00,0.46
8948.00,0.46
8947.00,0.46
8946.00,0.46
8945.00,0.46
8944.00,0.46
8943.00,0.46
8942.00,0.46
8941.00,0.46
8940.00,0.46
8939.00,0.46
8938.00,0.46
8937.00,0.46
8936.00,0.46
8935.00,0.46
8934.00,0.45
8933.00,0.45
8932.00,0.45
8931.00,0.45
8930.00,0.45
8929.00,0.45
8928.00,0.45
8927.00,0.45
8926.00,0.45
8925.00,0.45
8924.00,0.45
8923.00,0.45
8922.00,0.45
8921.00,0.45
8920.00,0.45
8919.00,0.45
8918.00,0.44
8917.00,0.44
8916.00,0.44
8915.00,0.44
8914.00,0.44
8913.00,0.44
8912.00,0.44
8911.00,0.44
8910.00,0.44
8909.00,0.44
8908.00,0.44
8907.00,0.44
8906.00,0.44
8905.00,0.44
8904.00,0.44
8903.00,0.44
8902.00,0.44
8901.00,0.44
8900.00,0.44
8899.00,0.44
8898.00,0.44
8897.00,0.44
8896.00,0.44
8895.00,0.44
8894.00,0.45
8893.00,0.45
8892.00,0.45
8891.00,0.45
8890.00,0.45
8889.00,0.45
8888.00,0.45
8887.00,0.45
8886.00,0.45
8885.00,0.45
8884.00,0.45
8883.00,0.45
8882.00,0.45
8881.00,0.45
8880.00,0.45
8879.00,0.45
8878.00,0.45
8877.00,0.45
8876.00,0.45
8875.00,0.45
8874.00,0.45
8873.00,0.45
8872.00,0.45
8871.00,0.45
8870.00,0.45
8869.00,0.45
8868.00,0.45
8867.00,0.45
8866.00,0.45
8865.00,0.45
8864.00,0.45
8863.00,0.45
8862.00,0.45
8861.00,0.45
8860.00,0.45
8859.00,0.45
8858.00,0.45
8857.00,0.45
8856.00,0.44
8855.00,0.44
8854.00,0.45
8853.00,0.45
8852.00,0.45
8851.00,0.45
8850.00,0.45
8849.00,0.45
8848.00,0.45
8847.00,0.44
8846.00,0.44
8845.00,0.44
8844.00,0.44
8843.00,0.44
8842.00,0.44
8841.00,0.44
8840.00,0.44
8839.00,0.44
8838.00,0.44
8837.00,0.44
8836.00,0.44
8835.00,0.45
8834.00,0.45
8833.00,0.45
8832.00,0.45
8831.00,0.45
8830.00,0.45
8829.00,0.45
8828.00,0.45
8827.00,0.45
8826.00,0.45
8825.00,0.45
8824.00,0.45
8823.00,0.45
8822.00,0.45
8821.00,0.45
8820.00,0.44
8819.00,0.44
8818.00,0.44
8817.00,0.44
8816.00,0.44
8815.00,0.44
8814.00,0.44
8813.00,0.44
8812.00,0.44
8811.00,0.44
8810.00,0.44
8809.00,0.44
8808.00,0.43
8807.00,0.43
8806.00,0.43
8805.00,0.43
8804.00,0.43
8803.00,0.43
8802.00,0.43
8801.00,0.43
8800.00,0.43
8799.00,0.44
8798.00,0.44
8797.00,0.44
8796.00,0.44
8795.00,0.44
8794.00,0.45
8793.00,0.45
8792.00,0.45
8791.00,0.45
8790.00,0.45
8789.00,0.45
8788.00,0.45
8787.00,0.45
8786.00,0.45
8785.00,0.45
8784.00,0.45
8783.00,0.45
8782.00,0.45
8781.00,0.45
8780.00,0.45
8779.00,0.45
8778.00,0.45
8777.00,0.44
8776.00,0.44
8775.00,0.44
8774.00,0.44
8773.00,0.44
8772.00,0.44
8771.00,0.44
8770.00,0.44
8769.00,0.44
8768.00,0.44
8767.00,0.44
8766.00,0.44
8765.00,0.43
8764.00,0.43
8763.00,0.43
8762.00,0.43
8761.00,0.43
8760.00,0.43
8759.00,0.43
8758.00,0.43
8757.00,0.43
8756.00,0.43
8755.00,0.43
8754.00,0.43
8753.00,0.43
8752.00,0.43
8751.00,0.44
8750.00,0.44
8749.00,0.44
8748.00,0.44
8747.00,0.44
8746.00,0.44
8745.00,0.44
8744.00,0.44
8743.00,0.44
8742.00,0.44
8741.00,0.44
8740.00,0.44
8739.00,0.44
8738.00,0.44
8737.00,0.44
8736.00,0.44
8735.00,0.44
8734.00,0.44
8733.00,0.44
8732.00,0.44
8731.00,0.43
8730.00,0.43
8729.00,0.43
8728.00,0.43
8727.00,0.43
8726.00,0.43
8725.00,0.43
8724.00,0.43
8723.00,0.43
8722.00,0.43
8721.00,0.43
8720.00,0.43
8719.00,0.42
8718.00,0.42
8717.00,0.42
8716.00,0.42
8715.00,0.42
8714.00,0.42
8713.00,0.42
8712.00,0.42
8711.00,0.42
8710.00,0.42
8709.00,0.41
8708.00,0.42
8707.00,0.42
8706.00,0.42
8705.00,0.42
8704.00,0.42
8703.00,0.42
8702.00,0.42
8701.00,0.42
8700.00,0.43
8699.00,0.43
8698.00,0.43
8697.00,0.44
8696.00,0.44
8695.00,0.44
8694.00,0.44
8693.00,0.45
8692.00,0.45
8691.00,0.45
8690.00,0.45
8689.00,0.45
8688.00,0.45
8687.00,0.46
8686.00,0.46
8685.00,0.46
8684.00,0.46
8683.00,0.45
8682.00,0.45
8681.00,0.45
8680.00,0.45
8679.00,0.45
8678.00,0.45
8677.00,0.45
8676.00,0.44
8675.00,0.44
8674.00,0.44
8673.00,0.44
8672.00,0.44
8671.00,0.44
8670.00,0.43
8669.00,0.43
8668.00,0.43
8667.00,0.43
8666.00,0.43
8665.00,0.43
8664.00,0.43
8663.00,0.43
8662.00,0.43
8661.00,0.43
8660.00,0.43
8659.00,0.43
8658.00,0.43
8657.00,0.43
8656.00,0.43
8655.00,0.43
8654.00,0.43
8653.00,0.43
8652.00,0.43
8651.00,0.43
8650.00,0.43
8649.00,0.43
8648.00,0.43
8647.00,0.43
8646.00,0.43
8645.00,0.43
8644.00,0.43
8643.00,0.43
8642.00,0.43
8641.00,0.43
8640.00,0.43
8639.00,0.43
8638.00,0.43
8637.00,0.43
8636.00,0.43
8635.00,0.43
8634.00,0.43
8633.00,0.43
8632.00,0.43
8631.00,0.43
8630.00,0.42
8629.00,0.42
8628.00,0.42
8627.00,0.42
8626.00,0.42
8625.00,0.42
8624.00,0.42
8623.00,0.42
8622.00,0.42
8621.00,0.42
8620.00,0.42
8619.00,0.42
8618.00,0.42
8617.00,0.42
8616.00,0.42
8615.00,0.42
8614.00,0.42
8613.00,0.42
8612.00,0.42
8611.00,0.42
8610.00,0.42
8609.00,0.42
8608.00,0.42
8607.00,0.42
8606.00,0.42
8605.00,0.42
8604.00,0.42
8603.00,0.42
8602.00,0.42
8601.00,0.42
8600.00,0.42
8599.00,0.42
8598.00,0.42
8597.00,0.42
8596.00,0.42
8595.00,0.42
8594.00,0.42
8593.00,0.42
8592.00,0.42
8591.00,0.42
8590.00,0.42
8589.00,0.43
8588.00,0.43
8587.00,0.43
8586.00,0.43
8585.00,0.43
8584.00,0.43
8583.00,0.43
8582.00,0.43
8581.00,0.43
8580.00,0.43
8579.00,0.43
8578.00,0.43
8577.00,0.43
8576.00,0.43
8575.00,0.43
8574.00,0.43
8573.00,0.43
8572.00,0.43
8571.00,0.43
8570.00,0.43
8569.00,0.43
8568.00,0.42
8567.00,0.42
8566.00,0.42
8565.00,0.42
8564.00,0.42
8563.00,0.42
8562.00,0.42
8561.00,0.42
8560.00,0.42
8559.00,0.42
8558.00,0.42
8557.00,0.42
8556.00,0.42
8555.00,0.42
8554.00,0.42
8553.00,0.42
8552.00,0.42
8551.00,0.42
8550.00,0.42
8549.00,0.42
8548.00,0.42
8547.00,0.42
8546.00,0.42
8545.00,0.42
8544.00,0.43
8543.00,0.43
8542.00,0.43
8541.00,0.43
8540.00,0.43
8539.00,0.43
8538.00,0.43
8537.00,0.43
8536.00,0.43
8535.00,0.43
8534.00,0.43
8533.00,0.43
8532.00,0.43
8531.00,0.43
8530.00,0.43
8529.00,0.43
8528.00,0.43
8527.00,0.43
8526.00,0.43
8525.00,0.43
8524.00,0.43
8523.00,0.43
8522.00,0.43
8521.00,0.43
8520.00,0.43
8519.00,0.43
8518.00,0.43
8517.00,0.43
8516.00,0.43
8515.00,0.43
8514.00,0.42
8513.00,0.42
8512.00,0.42
8511.00,0.42
8510.00,0.42
8509.00,0.42
8508.00,0.42
8507.00,0.42
8506.00,0.42
8505.00,0.42
8504.00,0.41
8503.00,0.41
8502.00,0.41
8501.00,0.41
8500.00,0.41
8499.00,0.41
8498.00,0.41
8497.00,0.41
8496.00,0.41
8495.00,0.41
8494.00,0.41
8493.00,0.41
8492.00,0.41
8491.00,0.41
8490.00,0.41
8489.00,0.41
8488.00,0.41
8487.00,0.41
8486.00,0.41
8485.00,0.41
8484.00,0.41
8483.00,0.41
8482.00,0.41
8481.00,0.41
8480.00,0.41
8479.00,0.41
8478.00,0.41
8477.00,0.41
8476.00,0.41
8475.00,0.41
8474.00,0.41
8473.00,0.41
8472.00,0.41
8471.00,0.41
8470.00,0.41
8469.00,0.41
8468.00,0.41
8467.00,0.41
8466.00,0.41
8465.00,0.41
8464.00,0.40
8463.00,0.40
8462.00,0.40
8461.00,0.40
8460.00,0.40
8459.00,0.40
8458.00,0.40
8457.00,0.40
8456.00,0.40
8455.00,0.40
8454.00,0.40
8453.00,0.40
8452.00,0.40
8451.00,0.40
8450.00,0.40
8449.00,0.40
8448.00,0.40
8447.00,0.40
8446.00,0.40
8445.00,0.40
8444.00,0.40
8443.00,0.40
8442.00,0.40
8441.00,0.40
8440.00,0.40
8439.00,0.40
8438.00,0.40
8437.00,0.40
8436.00,0.40
8435.00,0.40
8434.00,0.40
8433.00,0.40
8432.00,0.39
8431.00,0.39
8430.00,0.39
8429.00,0.39
8428.00,0.39
8427.00,0.39
8426.00,0.39
8425.00,0.39
8424.00,0.39
8423.00,0.39
8422.00,0.39
8421.00,0.39
8420.00,0.39
8419.00,0.39
8418.00,0.39
8417.00,0.39
8416.00,0.39
8415.00,0.39
8414.00,0.39
8413.00,0.39
8412.00,0.39
8411.00,0.39
8410.00,0.39
8409.00,0.39
8408.00,0.39
8407.00,0.39
8406.00,0.39
8405.00,0.39
8404.00,0.39
8403.00,0.39
8402.00,0.39
8401.00,0.39
8400.00,0.40
8399.00,0.40
8398.00,0.40
8397.00,0.40
8396.00,0.40
8395.00,0.40
8394.00,0.40
8393.00,0.40
8392.00,0.40
8391.00,0.40
8390.00,0.41
8389.00,0.41
8388.00,0.41
8387.00,0.41
8386.00,0.41
8385.00,0.41
8384.00,0.41
8383.00,0.41
8382.00,0.41
8381.00,0.41
8380.00,0.41
8379.00,0.41
8378.00,0.41
8377.00,0.41
8376.00,0.41
8375.00,0.41
8374.00,0.42
8373.00,0.42
8372.00,0.42
8371.00,0.42
8370.00,0.42
8369.00,0.42
8368.00,0.42
8367.00,0.42
8366.00,0.42
8365.00,0.42
8364.00,0.41
8363.00,0.41
8362.00,0.41
8361.00,0.41
8360.00,0.41
8359.00,0.41
8358.00,0.41
8357.00,0.41
8356.00,0.41
8355.00,0.41
8354.00,0.41
8353.00,0.41
8352.00,0.41
8351.00,0.41
8350.00,0.40
8349.00,0.40
8348.00,0.40
8347.00,0.40
8346.00,0.40
8345.00,0.40
8344.00,0.40
8343.00,0.40
8342.00,0.40
8341.00,0.40
8340.00,0.40
8339.00,0.40
8338.00,0.40
8337.00,0.40
8336.00,0.40
8335.00,0.40
8334.00,0.40
8333.00,0.41
8332.00,0.41
8331.00,0.41
8330.00,0.41
8329.00,0.41
8328.00,0.41
8327.00,0.41
8326.00,0.41
8325.00,0.41
8324.00,0.41
8323.00,0.41
8322.00,0.41
8321.00,0.42
8320.00,0.42
8319.00,0.42
8318.00,0.42
8317.00,0.42
8316.00,0.42
8315.00,0.42
8314.00,0.42
8313.00,0.42
8312.00,0.42
8311.00,0.42
8310.00,0.42
8309.00,0.42
8308.00,0.42
8307.00,0.42
8306.00,0.42
8305.00,0.42
8304.00,0.42
8303.00,0.42
8302.00,0.42
8301.00,0.42
8300.00,0.41
8299.00,0.41
8298.00,0.41
8297.00,0.41
8296.00,0.41
8295.00,0.41
8294.00,0.41
8293.00,0.41
8292.00,0.41
8291.00,0.41
8290.00,0.41
8289.00,0.41
8288.00,0.41
8287.00,0.42
8286.00,0.42
8285.00,0.42
8284.00,0.42
8283.00,0.42
8282.00,0.42
8281.00,0.42
8280.00,0.42
8279.00,0.42
8278.00,0.42
8277.00,0.42
8276.00,0.42
8275.00,0.42
8274.00,0.41
8273.00,0.41
8272.00,0.41
8271.00,0.41
8270.00,0.41
8269.00,0.41
8268.00,0.41
8267.00,0.41
8266.00,0.41
8265.00,0.41
8264.00,0.41
8263.00,0.41
8262.00,0.41
8261.00,0.41
8260.00,0.41
8259.00,0.41
8258.00,0.41
8257.00,0.41
8256.00,0.42
8255.00,0.42
8254.00,0.42
8253.00,0.42
8252.00,0.42
8251.00,0.42
8250.00,0.42
8249.00,0.42
8248.00,0.42
8247.00,0.42
8246.00,0.42
8245.00,0.42
8244.00,0.41
8243.00,0.41
8242.00,0.41
8241.00,0.41
8240.00,0.41
8239.00,0.41
8238.00,0.41
8237.00,0.41
8236.00,0.41
8235.00,0.41
8234.00,0.41
8233.00,0.41
8232.00,0.41
8231.00,0.41
8230.00,0.41
8229.00,0.41
8228.00,0.41
8227.00,0.41
8226.00,0.41
8225.00,0.41
8224.00,0.41
8223.00,0.41
8222.00,0.41
8221.00,0.41
8220.00,0.41
8219.00,0.41
8218.00,0.41
8217.00,0.41
8216.00,0.41
8215.00,0.41
8214.00,0.41
8213.00,0.41
8212.00,0.41
8211.00,0.41
8210.00,0.41
8209.00,0.41
8208.00,0.41
8207.00,0.41
8206.00,0.41
8205.00,0.41
8204.00,0.41
8203.00,0.41
8202.00,0.41
8201.00,0.41
8200.00,0.41
8199.00,0.42
8198.00,0.42
8197.00,0.42
8196.00,0.42
8195.00,0.42
8194.00,0.42
8193.00,0.42
8192.00,0.42
8191.00,0.42
8190.00,0.42
8189.00,0.42
8188.00,0.42
8187.00,0.42
8186.00,0.42
8185.00,0.42
8184.00,0.42
8183.00,0.42
8182.00,0.42
8181.00,0.42
8180.00,0.42
8179.00,0.42
8178.00,0.42
8177.00,0.42
8176.00,0.42
8175.00,0.42
8174.00,0.42
8173.00,0.43
8172.00,0.43
8171.00,0.43
8170.00,0.43
8169.00,0.43
8168.00,0.43
8167.00,0.43
8166.00,0.43
8165.00,0.43
8164.00,0.43
8163.00,0.43
8162.00,0.43
8161.00,0.43
8160.00,0.43
8159.00,0.43
8158.00,0.42
8157.00,0.42
8156.00,0.42
8155.00,0.42
8154.00,0.42
8153.00,0.42
8152.00,0.42
8151.00,0.42
8150.00,0.42
8149.00,0.42
8148.00,0.42
8147.00,0.42
8146.00,0.42
8145.00,0.42
8144.00,0.42
8143.00,0.42
8142.00,0.42
8141.00,0.42
8140.00,0.42
8139.00,0.42
8138.00,0.42
8137.00,0.42
8136.00,0.42
8135.00,0.42
8134.00,0.42
8133.00,0.42
8132.00,0.42
8131.00,0.42
8130.00,0.42
8129.00,0.42
8128.00,0.42
8127.00,0.42
8126.00,0.42
8125.00,0.42
8124.00,0.42
8123.00,0.42
8122.00,0.43
8121.00,0.43
8120.00,0.43
8119.00,0.43
8118.00,0.43
8117.00,0.43
8116.00,0.43
8115.00,0.44
8114.00,0.44
8113.00,0.44
8112.00,0.44
8111.00,0.44
8110.00,0.44
8109.00,0.44
8108.00,0.44
8107.00,0.44
8106.00,0.44
8105.00,0.44
8104.00,0.44
8103.00,0.44
8102.00,0.44
8101.00,0.44
8100.00,0.44
8099.00,0.44
8098.00,0.44
8097.00,0.43
8096.00,0.43
8095.00,0.43
8094.00,0.43
8093.00,0.43
8092.00,0.43
8091.00,0.43
8090.00,0.43
8089.00,0.43
8088.00,0.43
8087.00,0.43
8086.00,0.43
8085.00,0.43
8084.00,0.43
8083.00,0.43
8082.00,0.43
8081.00,0.43
8080.00,0.43
8079.00,0.43
8078.00,0.43
8077.00,0.43
8076.00,0.43
8075.00,0.43
8074.00,0.43
8073.00,0.44
8072.00,0.44
8071.00,0.44
8070.00,0.44
8069.00,0.44
8068.00,0.44
8067.00,0.44
8066.00,0.44
8065.00,0.44
8064.00,0.44
8063.00,0.44
8062.00,0.44
8061.00,0.44
8060.00,0.44
8059.00,0.44
8058.00,0.44
8057.00,0.44
8056.00,0.44
8055.00,0.44
8054.00,0.44
8053.00,0.44
8052.00,0.44
8051.00,0.44
8050.00,0.44
8049.00,0.44
8048.00,0.44
8047.00,0.44
8046.00,0.44
8045.00,0.44
8044.00,0.44
8043.00,0.44
8042.00,0.44
8041.00,0.44
8040.00,0.44
8039.00,0.44
8038.00,0.44
8037.00,0.44
8036.00,0.44
8035.00,0.44
8034.00,0.44
8033.00,0.44
8032.00,0.44
8031.00,0.44
8030.00,0.44
8029.00,0.44
8028.00,0.44
8027.00,0.44
8026.00,0.44
8025.00,0.44
8024.00,0.44
8023.00,0.44
8022.00,0.44
8021.00,0.44
8020.00,0.44
8019.00,0.44
8018.00,0.44
8017.00,0.44
8016.00,0.44
8015.00,0.44
8014.00,0.44
8013.00,0.44
8012.00,0.44
8011.00,0.44
8010.00,0.44
8009.00,0.44
8008.00,0.44
8007.00,0.44
8006.00,0.44
8005.00,0.44
8004.00,0.44
8003.00,0.44
8002.00,0.44
8001.00,0.44
8000.00,0.44
7999.00,0.44
7998.00,0.44
7997.00,0.44
7996.00,0.44
7995.00,0.44
7994.00,0.44
7993.00,0.44
7992.00,0.44
7991.00,0.44
7990.00,0.44
7989.00,0.44
7988.00,0.44
7987.00,0.44
7986.00,0.44
7985.00,0.44
7984.00,0.44
7983.00,0.45
7982.00,0.45
7981.00,0.45
7980.00,0.45
7979.00,0.45
7978.00,0.45
7977.00,0.45
7976.00,0.45
7975.00,0.45
7974.00,0.45
7973.00,0.45
7972.00,0.45
7971.00,0.45
7970.00,0.45
7969.00,0.45
7968.00,0.45
7967.00,0.45
7966.00,0.45
7965.00,0.45
7964.00,0.45
7963.00,0.45
7962.00,0.45
7961.00,0.45
7960.00,0.45
7959.00,0.45
7958.00,0.45
7957.00,0.45
7956.00,0.45
7955.00,0.45
7954.00,0.45
7953.00,0.45
7952.00,0.45
7951.00,0.45
7950.00,0.45
7949.00,0.45
7948.00,0.45
7947.00,0.45
7946.00,0.45
7945.00,0.45
7944.00,0.45
7943.00,0.45
7942.00,0.45
7941.00,0.45
7940.00,0.45
7939.00,0.45
7938.00,0.45
7937.00,0.45
7936.00,0.45
7935.00,0.45
7934.00,0.45
7933.00,0.45
7932.00,0.45
7931.00,0.45
7930.00,0.45
7929.00,0.45
7928.00,0.45
7927.00,0.45
7926.00,0.45
7925.00,0.45
7924.00,0.45
7923.00,0.45
7922.00,0.44
7921.00,0.44
7920.00,0.44
7919.00,0.45
7918.00,0.45
7917.00,0.45
7916.00,0.45
7915.00,0.45
7914.00,0.45
7913.00,0.45
7912.00,0.45
7911.00,0.45
7910.00,0.45
7909.00,0.45
7908.00,0.45
7907.00,0.46
7906.00,0.46
7905.00,0.46
7904.00,0.46
7903.00,0.46
7902.00,0.46
7901.00,0.46
7900.00,0.46
7899.00,0.46
7898.00,0.46
7897.00,0.46
7896.00,0.46
7895.00,0.46
7894.00,0.46
7893.00,0.46
7892.00,0.46
7891.00,0.46
7890.00,0.46
7889.00,0.46
7888.00,0.46
7887.00,0.46
7886.00,0.46
7885.00,0.46
7884.00,0.46
7883.00,0.46
7882.00,0.46
7881.00,0.46
7880.00,0.46
7879.00,0.46
7878.00,0.46
7877.00,0.46
7876.00,0.45
7875.00,0.45
7874.00,0.45
7873.00,0.45
7872.00,0.45
7871.00,0.45
7870.00,0.45
7869.00,0.45
7868.00,0.45
7867.00,0.45
7866.00,0.45
7865.00,0.45
7864.00,0.45
7863.00,0.45
7862.00,0.45
7861.00,0.45
7860.00,0.45
7859.00,0.45
7858.00,0.45
7857.00,0.45
7856.00,0.45
7855.00,0.45
7854.00,0.45
7853.00,0.45
7852.00,0.45
7851.00,0.45
7850.00,0.45
7849.00,0.45
7848.00,0.45
7847.00,0.45
7846.00,0.45
7845.00,0.45
7844.00,0.45
7843.00,0.45
7842.00,0.45
7841.00,0.45
7840.00,0.45
7839.00,0.45
7838.00,0.45
7837.00,0.45
7836.00,0.45
7835.00,0.45
7834.00,0.45
7833.00,0.45
7832.00,0.45
7831.00,0.45
7830.00,0.46
7829.00,0.46
7828.00,0.46
7827.00,0.46
7826.00,0.46
7825.00,0.46
7824.00,0.46
7823.00,0.45
7822.00,0.45
7821.00,0.45
7820.00,0.45
7819.00,0.45
7818.00,0.45
7817.00,0.45
7816.00,0.45
7815.00,0.45
7814.00,0.45
7813.00,0.45
7812.00,0.45
7811.00,0.45
7810.00,0.45
7809.00,0.45
7808.00,0.45
7807.00,0.45
7806.00,0.45
7805.00,0.45
7804.00,0.45
7803.00,0.45
7802.00,0.46
7801.00,0.46
7800.00,0.46
7799.00,0.46
7798.00,0.46
7797.00,0.46
7796.00,0.46
7795.00,0.46
7794.00,0.46
7793.00,0.46
7792.00,0.46
7791.00,0.46
7790.00,0.46
7789.00,0.46
7788.00,0.46
7787.00,0.46
7786.00,0.46
7785.00,0.46
7784.00,0.46
7783.00,0.46
7782.00,0.46
7781.00,0.46
7780.00,0.46
7779.00,0.46
7778.00,0.46
7777.00,0.46
7776.00,0.46
7775.00,0.46
7774.00,0.46
7773.00,0.46
7772.00,0.46
7771.00,0.46
7770.00,0.46
7769.00,0.46
7768.00,0.46
7767.00,0.46
7766.00,0.46
7765.00,0.46
7764.00,0.46
7763.00,0.46
7762.00,0.46
7761.00,0.46
7760.00,0.46
7759.00,0.46
7758.00,0.46
7757.00,0.46
7756.00,0.46
7755.00,0.46
7754.00,0.46
7753.00,0.46
7752.00,0.46
7751.00,0.46
7750.00,0.46
7749.00,0.46
7748.00,0.46
7747.00,0.46
7746.00,0.46
7745.00,0.46
7744.00,0.45
7743.00,0.45
7742.00,0.45
7741.00,0.45
7740.00,0.45
7739.00,0.45
7738.00,0.45
7737.00,0.45
7736.00,0.45
7735.00,0.45
7734.00,0.45
7733.00,0.45
7732.00,0.45
7731.00,0.45
7730.00,0.45
7729.00,0.45
7728.00,0.45
7727.00,0.45
7726.00,0.45
7725.00,0.45
7724.00,0.46
7723.00,0.46
7722.00,0.46
7721.00,0.46
7720.00,0.46
7719.00,0.46
7718.00,0.46
7717.00,0.46
7716.00,0.46
7715.00,0.46
7714.00,0.46
7713.00,0.46
7712.00,0.46
7711.00,0.46
7710.00,0.46
7709.00,0.46
7708.00,0.46
7707.00,0.46
7706.00,0.46
7705.00,0.46
7704.00,0.46
7703.00,0.46
7702.00,0.46
7701.00,0.46
7700.00,0.46
7699.00,0.46
7698.00,0.46
7697.00,0.46
7696.00,0.46
7695.00,0.46
7694.00,0.46
7693.00,0.46
7692.00,0.46
7691.00,0.46
7690.00,0.46
7689.00,0.46
7688.00,0.46
7687.00,0.46
7686.00,0.46
7685.00,0.46
7684.00,0.46
7683.00,0.46
7682.00,0.46
7681.00,0.46
7680.00,0.46
7679.00,0.45
7678.00,0.45
7677.00,0.45
7676.00,0.45
7675.00,0.45
7674.00,0.45
7673.00,0.45
7672.00,0.45
7671.00,0.45
7670.00,0.45
7669.00,0.45
7668.00,0.45
7667.00,0.45
7666.00,0.45
7665.00,0.45
7664.00,0.45
7663.00,0.45
7662.00,0.45
7661.00,0.45
7660.00,0.45
7659.00,0.45
7658.00,0.45
7657.00,0.45
7656.00,0.45
7655.00,0.45
7654.00,0.45
7653.00,0.45
7652.00,0.45
7651.00,0.45
7650.00,0.45
7649.00,0.45
7648.00,0.45
7647.00,0.45
7646.00,0.45
7645.00,0.45
7644.00,0.46
7643.00,0.46
7642.00,0.46
7641.00,0.46
7640.00,0.46
7639.00,0.46
7638.00,0.46
7637.00,0.46
7636.00,0.46
7635.00,0.46
7634.00,0.46
7633.00,0.46
7632.00,0.46
7631.00,0.46
7630.00,0.46
7629.00,0.46
7628.00,0.46
7627.00,0.46
7626.00,0.46
7625.00,0.46
7624.00,0.46
7623.00,0.46
7622.00,0.46
7621.00,0.46
7620.00,0.46
7619.00,0.46
7618.00,0.46
7617.00,0.46
7616.00,0.46
7615.00,0.46
7614.00,0.46
7613.00,0.46
7612.00,0.46
7611.00,0.46
7610.00,0.46
7609.00,0.46
7608.00,0.46
7607.00,0.46
7606.00,0.45
7605.00,0.45
7604.00,0.45
7603.00,0.45
7602.00,0.45
7601.00,0.45
7600.00,0.45
7599.00,0.45
7598.00,0.45
7597.00,0.45
7596.00,0.45
7595.00,0.45
7594.00,0.45
7593.00,0.45
7592.00,0.45
7591.00,0.45
7590.00,0.45
7589.00,0.45
7588.00,0.45
7587.00,0.45
7586.00,0.45
7585.00,0.45
7584.00,0.45
7583.00,0.45
7582.00,0.45
7581.00,0.45
7580.00,0.45
7579.00,0.45
7578.00,0.45
7577.00,0.45
7576.00,0.45
7575.00,0.45
7574.00,0.45
7573.00,0.45
7572.00,0.45
7571.00,0.45
7570.00,0.45
7569.00,0.45
7568.00,0.45
7567.00,0.45
7566.00,0.45
7565.00,0.45
7564.00,0.45
7563.00,0.45
7562.00,0.45
7561.00,0.45
7560.00,0.45
7559.00,0.45
7558.00,0.45
7557.00,0.45
7556.00,0.45
7555.00,0.45
7554.00,0.45
7553.00,0.45
7552.00,0.45
7551.00,0.45
7550.00,0.45
7549.00,0.45
7548.00,0.45
7547.00,0.45
7546.00,0.45
7545.00,0.45
7544.00,0.45
7543.00,0.45
7542.00,0.45
7541.00,0.45
7540.00,0.45
7539.00,0.45
7538.00,0.45
7537.00,0.45
7536.00,0.45
7535.00,0.45
7534.00,0.45
7533.00,0.45
7532.00,0.45
7531.00,0.45
7530.00,0.45
7529.00,0.45
7528.00,0.45
7527.00,0.45
7526.00,0.45
7525.00,0.45
7524.00,0.45
7523.00,0.45
7522.00,0.45
7521.00,0.45
7520.00,0.45
7519.00,0.45
7518.00,0.45
7517.00,0.45
7516.00,0.45
7515.00,0.45
7514.00,0.45
7513.00,0.45
7512.00,0.45
7511.00,0.45
7510.00,0.45
7509.00,0.46
7508.00,0.46
7507.00,0.46
7506.00,0.46
7505.00,0.46
7504.00,0.46
7503.00,0.46
7502.00,0.46
7501.00,0.46
7500.00,0.45
7499.00,0.45
7498.00,0.45
7497.00,0.45
7496.00,0.45
7495.00,0.45
7494.00,0.45
7493.00,0.45
7492.00,0.45
7491.00,0.45
7490.00,0.45
7489.00,0.45
7488.00,0.45
7487.00,0.45
7486.00,0.45
7485.00,0.45
7484.00,0.45
7483.00,0.45
7482.00,0.45
7481.00,0.45
7480.00,0.45
7479.00,0.45
7478.00,0.45
7477.00,0.45
7476.00,0.45
7475.00,0.45
7474.00,0.45
7473.00,0.45
7472.00,0.45
7471.00,0.45
7470.00,0.45
7469.00,0.45
7468.00,0.45
7467.00,0.45
7466.00,0.45
7465.00,0.45
7464.00,0.45
7463.00,0.45
7462.00,0.45
7461.00,0.45
7460.00,0.45
7459.00,0.45
7458.00,0.45
7457.00,0.45
7456.00,0.45
7455.00,0.45
7454.00,0.45
7453.00,0.45
7452.00,0.44
7451.00,0.44
7450.00,0.44
7449.00,0.44
7448.00,0.44
7447.00,0.44
7446.00,0.44
7445.00,0.44
7444.00,0.44
7443.00,0.44
7442.00,0.44
7441.00,0.44
7440.00,0.44
7439.00,0.44
7438.00,0.44
7437.00,0.44
7436.00,0.44
7435.00,0.44
7434.00,0.44
7433.00,0.44
7432.00,0.44
7431.00,0.44
7430.00,0.44
7429.00,0.44
7428.00,0.44
7427.00,0.44
7426.00,0.44
7425.00,0.44
7424.00,0.44
7423.00,0.44
7422.00,0.44
7421.00,0.44
7420.00,0.44
7419.00,0.44
7418.00,0.44
7417.00,0.44
7416.00,0.44
7415.00,0.44
7414.00,0.44
7413.00,0.44
7412.00,0.44
7411.00,0.44
7410.00,0.44
7409.00,0.44
7408.00,0.44
7407.00,0.44
7406.00,0.44
7405.00,0.44
7404.00,0.44
7403.00,0.44
7402.00,0.44
7401.00,0.43
7400.00,0.43
7399.00,0.43
7398.00,0.43
7397.00,0.43
7396.00,0.43
7395.00,0.43
7394.00,0.43
7393.00,0.43
7392.00,0.43
7391.00,0.43
7390.00,0.43
7389.00,0.43
7388.00,0.43
7387.00,0.43
7386.00,0.42
7385.00,0.42
7384.00,0.42
7383.00,0.42
7382.00,0.42
7381.00,0.42
7380.00,0.42
7379.00,0.42
7378.00,0.42
7377.00,0.42
7376.00,0.42
7375.00,0.42
7374.00,0.42
7373.00,0.42
7372.00,0.42
7371.00,0.42
7370.00,0.42
7369.00,0.42
7368.00,0.42
7367.00,0.42
7366.00,0.42
7365.00,0.42
7364.00,0.42
7363.00,0.42
7362.00,0.42
7361.00,0.42
7360.00,0.42
7359.00,0.42
7358.00,0.42
7357.00,0.42
7356.00,0.42
7355.00,0.42
7354.00,0.42
7353.00,0.42
7352.00,0.42
7351.00,0.42
7350.00,0.42
7349.00,0.42
7348.00,0.42
7347.00,0.42
7346.00,0.42
7345.00,0.42
7344.00,0.42
7343.00,0.42
7342.00,0.42
7341.00,0.42
7340.00,0.42
7339.00,0.42
7338.00,0.42
7337.00,0.42
7336.00,0.42
7335.00,0.42
7334.00,0.42
7333.00,0.42
7332.00,0.42
7331.00,0.42
7330.00,0.42
7329.00,0.42
7328.00,0.42
7327.00,0.42
7326.00,0.42
7325.00,0.42
7324.00,0.42
7323.00,0.42
7322.00,0.42
7321.00,0.42
7320.00,0.42
7319.00,0.42
7318.00,0.42
7317.00,0.42
7316.00,0.42
7315.00,0.42
7314.00,0.42
7313.00,0.42
7312.00,0.42
7311.00,0.42
7310.00,0.42
7309.00,0.42
7308.00,0.42
7307.00,0.42
7306.00,0.42
7305.00,0.42
7304.00,0.42
7303.00,0.42
7302.00,0.41
7301.00,0.41
7300.00,0.41
7299.00,0.41
7298.00,0.41
7297.00,0.41
7296.00,0.41
7295.00,0.41
7294.00,0.41
7293.00,0.41
7292.00,0.41
7291.00,0.41
7290.00,0.41
7289.00,0.41
7288.00,0.41
7287.00,0.41
7286.00,0.41
7285.00,0.41
7284.00,0.41
7283.00,0.41
7282.00,0.40
7281.00,0.40
7280.00,0.40
7279.00,0.40
7278.00,0.40
7277.00,0.40
7276.00,0.40
7275.00,0.40
7274.00,0.40
7273.00,0.40
7272.00,0.40
7271.00,0.40
7270.00,0.40
7269.00,0.40
7268.00,0.40
7267.00,0.40
7266.00,0.40
7265.00,0.40
7264.00,0.40
7263.00,0.40
7262.00,0.40
7261.00,0.40
7260.00,0.40
7259.00,0.40
7258.00,0.40
7257.00,0.40
7256.00,0.40
7255.00,0.40
7254.00,0.40
7253.00,0.39
7252.00,0.39
7251.00,0.39
7250.00,0.39
7249.00,0.39
7248.00,0.39
7247.00,0.39
7246.00,0.39
7245.00,0.39
7244.00,0.39
7243.00,0.39
7242.00,0.39
7241.00,0.38
7240.00,0.38
7239.00,0.38
7238.00,0.38
7237.00,0.38
7236.00,0.38
7235.00,0.37
7234.00,0.37
7233.00,0.37
7232.00,0.37
7231.00,0.37
7230.00,0.37
7229.00,0.37
7228.00,0.37
7227.00,0.36
7226.00,0.36
7225.00,0.36
7224.00,0.36
7223.00,0.36
7222.00,0.36
7221.00,0.36
7220.00,0.36
7219.00,0.36
7218.00,0.36
7217.00,0.36
7216.00,0.36
7215.00,0.36
7214.00,0.36
7213.00,0.36
7212.00,0.36
7211.00,0.35
7210.00,0.35
7209.00,0.35
7208.00,0.35
7207.00,0.35
7206.00,0.35
7205.00,0.35
7204.00,0.35
7203.00,0.35
7202.00,0.35
7201.00,0.35
7200.00,0.35
7199.00,0.34
7198.00,0.34
7197.00,0.34
7196.00,0.34
7195.00,0.34
7194.00,0.34
7193.00,0.34
7192.00,0.34
7191.00,0.34
7190.00,0.33
7189.00,0.33
7188.00,0.33
7187.00,0.33
7186.00,0.33
7185.00,0.33
7184.00,0.33
7183.00,0.33
7182.00,0.33
7181.00,0.32
7180.00,0.32
7179.00,0.32
7178.00,0.32
7177.00,0.32
7176.00,0.32
7175.00,0.32
7174.00,0.32
7173.00,0.32
7172.00,0.32
7171.00,0.32
7170.00,0.31
7169.00,0.31
7168.00,0.31
7167.00,0.31
7166.00,0.31
7165.00,0.31
7164.00,0.31
7163.00,0.31
7162.00,0.31
7161.00,0.31
7160.00,0.31
7159.00,0.31
7158.00,0.31
7157.00,0.31
7156.00,0.31
7155.00,0.31
7154.00,0.31
7153.00,0.30
7152.00,0.30
7151.00,0.30
7150.00,0.30
7149.00,0.30
7148.00,0.30
7147.00,0.30
7146.00,0.30
7145.00,0.30
7144.00,0.29
7143.00,0.29
7142.00,0.29
7141.00,0.29
7140.00,0.29
7139.00,0.29
7138.00,0.29
7137.00,0.29
7136.00,0.28
7135.00,0.28
7134.00,0.28
7133.00,0.28
7132.00,0.28
7131.00,0.28
7130.00,0.28
7129.00,0.28
7128.00,0.27
7127.00,0.27
7126.00,0.27
7125.00,0.27
7124.00,0.27
7123.00,0.27
7122.00,0.27
7121.00,0.26
7120.00,0.26
7119.00,0.26
7118.00,0.26
7117.00,0.26
7116.00,0.26
7115.00,0.26
7114.00,0.26
7113.00,0.26
7112.00,0.26
7111.00,0.26
7110.00,0.26
7109.00,0.26
7108.00,0.25
7107.00,0.25
7106.00,0.25
7105.00,0.25
7104.00,0.25
7103.00,0.25
7102.00,0.25
7101.00,0.25
7100.00,0.25
7099.00,0.25
7098.00,0.25
7097.00,0.25
7096.00,0.25
7095.00,0.25
7094.00,0.25
7093.00,0.25
7092.00,0.24
7091.00,0.24
7090.00,0.24
7089.00,0.24
7088.00,0.24
7087.00,0.24
7086.00,0.24
7085.00,0.24
7084.00,0.24
7083.00,0.24
7082.00,0.24
7081.00,0.24
7080.00,0.24
7079.00,0.24
7078.00,0.24
7077.00,0.24
7076.00,0.24
7075.00,0.24
7074.00,0.24
7073.00,0.24
7072.00,0.24
7071.00,0.24
7070.00,0.23
7069.00,0.23
7068.00,0.23
7067.00,0.23
7066.00,0.23
7065.00,0.23
7064.00,0.23
7063.00,0.23
7062.00,0.23
7061.00,0.23
7060.00,0.23
7059.00,0.23
7058.00,0.23
7057.00,0.23
7056.00,0.23
7055.00,0.23
7054.00,0.23
7053.00,0.23
7052.00,0.23
7051.00,0.22
7050.00,0.22
7049.00,0.22
7048.00,0.22
7047.00,0.22
7046.00,0.22
7045.00,0.22
7044.00,0.22
7043.00,0.22
7042.00,0.22
7041.00,0.22
7040.00,0.22
7039.00,0.22
7038.00,0.22
7037.00,0.22
7036.00,0.22
7035.00,0.22
7034.00,0.22
7033.00,0.22
7032.00,0.22
7031.00,0.22
7030.00,0.22
7029.00,0.22
7028.00,0.22
7027.00,0.22
7026.00,0.22
7025.00,0.22
7024.00,0.22
7023.00,0.22
7022.00,0.22
7021.00,0.22
7020.00,0.22
7019.00,0.22
7018.00,0.22
7017.00,0.22
7016.00,0.22
7015.00,0.21
7014.00,0.21
7013.00,0.21
7012.00,0.21
7011.00,0.21
7010.00,0.21
7009.00,0.21
7008.00,0.21
7007.00,0.21
7006.00,0.21
7005.00,0.21
7004.00,0.21
7003.00,0.21
7002.00,0.21
7001.00,0.21
7000.00,0.21
6999.00,0.21
6998.00,0.21
6997.00,0.21
6996.00,0.21
6995.00,0.21
6994.00,0.21
6993.00,0.21
6992.00,0.21
6991.00,0.21
6990.00,0.21
6989.00,0.20
6988.00,0.20
6987.00,0.20
6986.00,0.20
6985.00,0.20
6984.00,0.20
6983.00,0.20
6982.00,0.20
6981.00,0.20
6980.00,0.20
6979.00,0.20
6978.00,0.20
6977.00,0.20
6976.00,0.20
6975.00,0.20
6974.00,0.20
6973.00,0.20
6972.00,0.20
6971.00,0.20
6970.00,0.20
6969.00,0.20
6968.00,0.20
6967.00,0.20
6966.00,0.20
6965.00,0.20
6964.00,0.21
6963.00,0.21
6962.00,0.21
6961.00,0.21
6960.00,0.21
6959.00,0.21
6958.00,0.21
6957.00,0.21
6956.00,0.21
6955.00,0.21
6954.00,0.20
6953.00,0.20
6952.00,0.20
6951.00,0.20
6950.00,0.20
6949.00,0.20
6948.00,0.20
6947.00,0.20
6946.00,0.20
6945.00,0.20
6944.00,0.20
6943.00,0.20
6942.00,0.20
6941.00,0.20
6940.00,0.20
6939.00,0.20
6938.00,0.20
6937.00,0.20
6936.00,0.20
6935.00,0.20
6934.00,0.20
6933.00,0.20
6932.00,0.20
6931.00,0.20
6930.00,0.20
6929.00,0.20
6928.00,0.20
6927.00,0.20
6926.00,0.20
6925.00,0.20
6924.00,0.20
6923.00,0.20
6922.00,0.20
6921.00,0.20
6920.00,0.20
6919.00,0.20
6918.00,0.20
6917.00,0.20
6916.00,0.20
6915.00,0.20
6914.00,0.20
6913.00,0.20
6912.00,0.20
6911.00,0.20
6910.00,0.20
6909.00,0.20
6908.00,0.20
6907.00,0.20
6906.00,0.20
6905.00,0.20
6904.00,0.20
6903.00,0.20
6902.00,0.20
6901.00,0.20
6900.00,0.20
6899.00,0.20
6898.00,0.20
6897.00,0.20
6896.00,0.20
6895.00,0.20
6894.00,0.20
6893.00,0.20
6892.00,0.20
6891.00,0.20
6890.00,0.20
6889.00,0.20
6888.00,0.20
6887.00,0.20
6886.00,0.20
6885.00,0.20
6884.00,0.20
6883.00,0.20
6882.00,0.20
6881.00,0.20
6880.00,0.20
6879.00,0.19
6878.00,0.19
6877.00,0.19
6876.00,0.19
6875.00,0.19
6874.00,0.19
6873.00,0.19
6872.00,0.19
6871.00,0.19
6870.00,0.19
6869.00,0.19
6868.00,0.19
6867.00,0.19
6866.00,0.19
6865.00,0.19
6864.00,0.19
6863.00,0.19
6862.00,0.19
6861.00,0.19
6860.00,0.19
6859.00,0.19
6858.00,0.19
6857.00,0.19
6856.00,0.19
6855.00,0.19
6854.00,0.19
6853.00,0.19
6852.00,0.19
6851.00,0.20
6850.00,0.20
6849.00,0.20
6848.00,0.20
6847.00,0.20
6846.00,0.20
6845.00,0.20
6844.00,0.20
6843.00,0.20
6842.00,0.20
6841.00,0.20
6840.00,0.20
6839.00,0.20
6838.00,0.20
6837.00,0.20
6836.00,0.20
6835.00,0.20
6834.00,0.20
6833.00,0.20
6832.00,0.20
6831.00,0.20
6830.00,0.20
6829.00,0.20
6828.00,0.20
6827.00,0.20
6826.00,0.20
6825.00,0.20
6824.00,0.20
6823.00,0.20
6822.00,0.20
6821.00,0.20
6820.00,0.20
6819.00,0.20
6818.00,0.20
6817.00,0.20
6816.00,0.20
6815.00,0.20
6814.00,0.20
6813.00,0.20
6812.00,0.20
6811.00,0.20
6810.00,0.20
6809.00,0.20
6808.00,0.20
6807.00,0.20
6806.00,0.20
6805.00,0.20
6804.00,0.20
6803.00,0.20
6802.00,0.20
6801.00,0.20
6800.00,0.20
6799.00,0.20
6798.00,0.20
6797.00,0.20
6796.00,0.20
6795.00,0.20
6794.00,0.20
6793.00,0.20
6792.00,0.20
6791.00,0.20
6790.00,0.20
6789.00,0.20
6788.00,0.20
6787.00,0.20
6786.00,0.21
6785.00,0.21
6784.00,0.21
6783.00,0.21
6782.00,0.21
6781.00,0.21
6780.00,0.21
6779.00,0.21
6778.00,0.21
6777.00,0.21
6776.00,0.21
6775.00,0.21
6774.00,0.21
6773.00,0.21
6772.00,0.21
6771.00,0.21
6770.00,0.21
6769.00,0.21
6768.00,0.21
6767.00,0.21
6766.00,0.21
6765.00,0.21
6764.00,0.21
6763.00,0.21
6762.00,0.21
6761.00,0.21
6760.00,0.21
6759.00,0.21
6758.00,0.21
6757.00,0.21
6756.00,0.21
6755.00,0.21
6754.00,0.21
6753.00,0.21
6752.00,0.21
6751.00,0.21
6750.00,0.21
6749.00,0.21
6748.00,0.21
6747.00,0.21
6746.00,0.21
6745.00,0.21
6744.00,0.21
6743.00,0.21
6742.00,0.21
6741.00,0.21
6740.00,0.21
6739.00,0.21
6738.00,0.21
6737.00,0.21
6736.00,0.21
6735.00,0.21
6734.00,0.22
6733.00,0.22
6732.00,0.22
6731.00,0.22
6730.00,0.22
6729.00,0.22
6728.00,0.22
6727.00,0.22
6726.00,0.22
6725.00,0.22
6724.00,0.22
6723.00,0.22
6722.00,0.22
6721.00,0.22
6720.00,0.22
6719.00,0.22
6718.00,0.22
6717.00,0.22
6716.00,0.22
6715.00,0.22
6714.00,0.22
6713.00,0.22
6712.00,0.22
6711.00,0.22
6710.00,0.22
6709.00,0.22
6708.00,0.22
6707.00,0.22
6706.00,0.22
6705.00,0.22
6704.00,0.22
6703.00,0.22
6702.00,0.22
6701.00,0.22
6700.00,0.22
6699.00,0.22
6698.00,0.22
6697.00,0.22
6696.00,0.22
6695.00,0.22
6694.00,0.22
6693.00,0.22
6692.00,0.22
6691.00,0.22
6690.00,0.22
6689.00,0.22
6688.00,0.22
6687.00,0.23
6686.00,0.23
6685.00,0.23
6684.00,0.23
6683.00,0.23
6682.00,0.23
6681.00,0.23
6680.00,0.23
6679.00,0.23
6678.00,0.23
6677.00,0.23
6676.00,0.23
6675.00,0.23
6674.00,0.23
6673.00,0.23
6672.00,0.23
6671.00,0.23
6670.00,0.23
6669.00,0.23
6668.00,0.23
6667.00,0.23
6666.00,0.23
6665.00,0.23
6664.00,0.23
6663.00,0.23
6662.00,0.23
6661.00,0.23
6660.00,0.24
6659.00,0.24
6658.00,0.24
6657.00,0.24
6656.00,0.24
6655.00,0.24
6654.00,0.24
6653.00,0.24
6652.00,0.24
6651.00,0.24
6650.00,0.24
6649.00,0.24
6648.00,0.24
6647.00,0.24
6646.00,0.24
6645.00,0.24
6644.00,0.24
6643.00,0.24
6642.00,0.24
6641.00,0.24
6640.00,0.24
6639.00,0.24
6638.00,0.24
6637.00,0.24
6636.00,0.24
6635.00,0.24
6634.00,0.24
6633.00,0.24
6632.00,0.24
6631.00,0.24
6630.00,0.24
6629.00,0.24
6628.00,0.24
6627.00,0.24
6626.00,0.25
6625.00,0.25
6624.00,0.25
6623.00,0.25
6622.00,0.25
6621.00,0.25
6620.00,0.25
6619.00,0.25
6618.00,0.25
6617.00,0.25
6616.00,0.25
6615.00,0.25
6614.00,0.25
6613.00,0.25
6612.00,0.25
6611.00,0.25
6610.00,0.25
6609.00,0.25
6608.00,0.25
6607.00,0.25
6606.00,0.25
6605.00,0.25
6604.00,0.25
6603.00,0.25
6602.00,0.25
6601.00,0.25
6600.00,0.25
6599.00,0.25
6598.00,0.25
6597.00,0.25
6596.00,0.25
6595.00,0.25
6594.00,0.25
6593.00,0.25
6592.00,0.25
6591.00,0.25
6590.00,0.25
6589.00,0.25
6588.00,0.26
6587.00,0.26
6586.00,0.26
6585.00,0.26
6584.00,0.26
6583.00,0.26
6582.00,0.26
6581.00,0.26
6580.00,0.26
6579.00,0.26
6578.00,0.26
6577.00,0.26
6576.00,0.26
6575.00,0.26
6574.00,0.26
6573.00,0.26
6572.00,0.26
6571.00,0.26
6570.00,0.27
6569.00,0.27
6568.00,0.27
6567.00,0.27
6566.00,0.27
6565.00,0.27
6564.00,0.27
6563.00,0.27
6562.00,0.27
6561.00,0.27
6560.00,0.27
6559.00,0.27
6558.00,0.27
6557.00,0.27
6556.00,0.27
6555.00,0.27
6554.00,0.27
6553.00,0.27
6552.00,0.27
6551.00,0.27
6550.00,0.27
6549.00,0.27
6548.00,0.27
6547.00,0.27
6546.00,0.27
6545.00,0.27
6544.00,0.27
6543.00,0.27
6542.00,0.27
6541.00,0.27
6540.00,0.27
6539.00,0.27
6538.00,0.27
6537.00,0.27
6536.00,0.27
6535.00,0.27
6534.00,0.27
6533.00,0.27
6532.00,0.27
6531.00,0.27
6530.00,0.27
6529.00,0.27
6528.00,0.27
6527.00,0.27
6526.00,0.27
6525.00,0.28
6524.00,0.28
6523.00,0.28
6522.00,0.28
6521.00,0.28
6520.00,0.28
6519.00,0.28
6518.00,0.28
6517.00,0.28
6516.00,0.28
6515.00,0.28
6514.00,0.28
6513.00,0.28
6512.00,0.28
6511.00,0.28
6510.00,0.28
6509.00,0.28
6508.00,0.28
6507.00,0.28
6506.00,0.28
6505.00,0.28
6504.00,0.28
6503.00,0.28
6502.00,0.28
6501.00,0.28
6500.00,0.28
6499.00,0.28
6498.00,0.28
6497.00,0.28
6496.00,0.28
6495.00,0.28
6494.00,0.28
6493.00,0.28
6492.00,0.28
6491.00,0.28
6490.00,0.28
6489.00,0.28
6488.00,0.28
6487.00,0.28
6486.00,0.28
6485.00,0.28
6484.00,0.29
6483.00,0.29
6482.00,0.29
6481.00,0.29
6480.00,0.29
6479.00,0.29
6478.00,0.29
6477.00,0.29
6476.00,0.29
6475.00,0.29
6474.00,0.29
6473.00,0.29
6472.00,0.29
6471.00,0.29
6470.00,0.29
6469.00,0.29
6468.00,0.29
6467.00,0.29
6466.00,0.29
6465.00,0.29
6464.00,0.29
6463.00,0.29
6462.00,0.29
6461.00,0.29
6460.00,0.29
6459.00,0.29
6458.00,0.29
6457.00,0.29
6456.00,0.29
6455.00,0.29
6454.00,0.29
6453.00,0.29
6452.00,0.29
6451.00,0.29
6450.00,0.29
6449.00,0.29
6448.00,0.29
6447.00,0.29
6446.00,0.29
6445.00,0.29
6444.00,0.29
6443.00,0.29
6442.00,0.29
6441.00,0.29
6440.00,0.29
6439.00,0.29
6438.00,0.29
6437.00,0.29
6436.00,0.29
6435.00,0.29
6434.00,0.29
6433.00,0.29
6432.00,0.29
6431.00,0.29
6430.00,0.29
6429.00,0.29
6428.00,0.29
6427.00,0.29
6426.00,0.29
6425.00,0.29
6424.00,0.29
6423.00,0.29
6422.00,0.29
6421.00,0.29
6420.00,0.29
6419.00,0.29
6418.00,0.29
6417.00,0.29
6416.00,0.29
6415.00,0.29
6414.00,0.29
6413.00,0.29
6412.00,0.29
6411.00,0.29
6410.00,0.30
6409.00,0.30
6408.00,0.30
6407.00,0.30
6406.00,0.30
6405.00,0.30
6404.00,0.30
6403.00,0.30
6402.00,0.30
6401.00,0.30
6400.00,0.30
6399.00,0.30
6398.00,0.30
6397.00,0.30
6396.00,0.30
6395.00,0.30
6394.00,0.30
6393.00,0.30
6392.00,0.30
6391.00,0.30
6390.00,0.30
6389.00,0.30
6388.00,0.30
6387.00,0.30
6386.00,0.30
6385.00,0.30
6384.00,0.30
6383.00,0.30
6382.00,0.30
6381.00,0.30
6380.00,0.30
6379.00,0.30
6378.00,0.30
6377.00,0.30
6376.00,0.30
6375.00,0.30
6374.00,0.30
6373.00,0.31
6372.00,0.31
6371.00,0.31
6370.00,0.31
6369.00,0.31
6368.00,0.31
6367.00,0.31
6366.00,0.31
6365.00,0.31
6364.00,0.31
6363.00,0.31
6362.00,0.31
6361.00,0.31
6360.00,0.31
6359.00,0.31
6358.00,0.31
6357.00,0.31
6356.00,0.31
6355.00,0.31
6354.00,0.31
6353.00,0.31
6352.00,0.31
6351.00,0.31
6350.00,0.31
6349.00,0.31
6348.00,0.31
6347.00,0.31
6346.00,0.31
6345.00,0.31
6344.00,0.31
6343.00,0.31
6342.00,0.31
6341.00,0.31
6340.00,0.31
6339.00,0.31
6338.00,0.31
6337.00,0.31
6336.00,0.31
6335.00,0.31
6334.00,0.31
6333.00,0.31
6332.00,0.31
6331.00,0.31
6330.00,0.31
6329.00,0.31
6328.00,0.31
6327.00,0.31
6326.00,0.31
6325.00,0.32
6324.00,0.32
6323.00,0.32
6322.00,0.32
6321.00,0.32
6320.00,0.32
6319.00,0.32
6318.00,0.32
6317.00,0.32
6316.00,0.32
6315.00,0.32
6314.00,0.32
6313.00,0.32
6312.00,0.32
6311.00,0.32
6310.00,0.32
6309.00,0.32
6308.00,0.32
6307.00,0.32
6306.00,0.32
6305.00,0.32
6304.00,0.32
6303.00,0.32
6302.00,0.32
6301.00,0.32
6300.00,0.32
6299.00,0.32
6298.00,0.32
6297.00,0.32
6296.00,0.32
6295.00,0.32
6294.00,0.33
6293.00,0.33
6292.00,0.33
6291.00,0.33
6290.00,0.33
6289.00,0.33
6288.00,0.33
6287.00,0.33
6286.00,0.33
6285.00,0.33
6284.00,0.33
6283.00,0.33
6282.00,0.33
6281.00,0.33
6280.00,0.33
6279.00,0.33
6278.00,0.33
6277.00,0.33
6276.00,0.33
6275.00,0.33
6274.00,0.33
6273.00,0.33
6272.00,0.33
6271.00,0.33
6270.00,0.33
6269.00,0.33
6268.00,0.33
6267.00,0.33
6266.00,0.33
6265.00,0.33
6264.00,0.33
6263.00,0.33
6262.00,0.33
6261.00,0.34
6260.00,0.34
6259.00,0.34
6258.00,0.34
6257.00,0.34
6256.00,0.34
6255.00,0.34
6254.00,0.34
6253.00,0.34
6252.00,0.34
6251.00,0.34
6250.00,0.34
6249.00,0.34
6248.00,0.35
6247.00,0.35
6246.00,0.35
6245.00,0.35
6244.00,0.35
6243.00,0.35
6242.00,0.35
6241.00,0.35
6240.00,0.35
6239.00,0.35
6238.00,0.35
6237.00,0.35
6236.00,0.35
6235.00,0.35
6234.00,0.35
6233.00,0.35
6232.00,0.35
6231.00,0.35
6230.00,0.35
6229.00,0.35
6228.00,0.35
6227.00,0.35
6226.00,0.35
6225.00,0.35
6224.00,0.35
6223.00,0.35
6222.00,0.35
6221.00,0.36
6220.00,0.36
6219.00,0.36
6218.00,0.36
6217.00,0.36
6216.00,0.36
6215.00,0.36
6214.00,0.36
6213.00,0.36
6212.00,0.36
6211.00,0.36
6210.00,0.36
6209.00,0.36
6208.00,0.36
6207.00,0.36
6206.00,0.36
6205.00,0.36
6204.00,0.36
6203.00,0.36
6202.00,0.36
6201.00,0.36
6200.00,0.36
6199.00,0.36
6198.00,0.36
6197.00,0.36
6196.00,0.37
6195.00,0.37
6194.00,0.37
6193.00,0.37
6192.00,0.37
6191.00,0.37
6190.00,0.37
6189.00,0.37
6188.00,0.37
6187.00,0.37
6186.00,0.37
6185.00,0.37
6184.00,0.37
6183.00,0.37
6182.00,0.37
6181.00,0.37
6180.00,0.37
6179.00,0.37
6178.00,0.37
6177.00,0.37
6176.00,0.38
6175.00,0.38
6174.00,0.38
6173.00,0.38
6172.00,0.38
6171.00,0.38
6170.00,0.38
6169.00,0.38
6168.00,0.38
6167.00,0.38
6166.00,0.38
6165.00,0.38
6164.00,0.38
6163.00,0.38
6162.00,0.38
6161.00,0.39
6160.00,0.39
6159.00,0.39
6158.00,0.39
6157.00,0.39
6156.00,0.39
6155.00,0.39
6154.00,0.39
6153.00,0.39
6152.00,0.39
6151.00,0.39
6150.00,0.39
6149.00,0.39
6148.00,0.39
6147.00,0.39
6146.00,0.39
6145.00,0.39
6144.00,0.39
6143.00,0.39
6142.00,0.39
6141.00,0.39
6140.00,0.39
6139.00,0.40
6138.00,0.40
6137.00,0.40
6136.00,0.40
6135.00,0.40
6134.00,0.40
6133.00,0.40
6132.00,0.40
6131.00,0.40
6130.00,0.40
6129.00,0.40
6128.00,0.40
6127.00,0.40
6126.00,0.40
6125.00,0.40
6124.00,0.40
6123.00,0.40
6122.00,0.40
6121.00,0.40
6120.00,0.41
6119.00,0.41
6118.00,0.41
6117.00,0.41
6116.00,0.41
6115.00,0.41
6114.00,0.41
6113.00,0.41
6112.00,0.41
6111.00,0.41
6110.00,0.41
6109.00,0.41
6108.00,0.41
6107.00,0.41
6106.00,0.41
6105.00,0.41
6104.00,0.41
6103.00,0.41
6102.00,0.41
6101.00,0.41
6100.00,0.41
6099.00,0.41
6098.00,0.41
6097.00,0.41
6096.00,0.41
6095.00,0.41
6094.00,0.41
6093.00,0.42
6092.00,0.42
6091.00,0.42
6090.00,0.42
6089.00,0.42
6088.00,0.42
6087.00,0.42
6086.00,0.42
6085.00,0.42
6084.00,0.42
6083.00,0.42
6082.00,0.42
6081.00,0.42
6080.00,0.42
6079.00,0.42
6078.00,0.42
6077.00,0.42
6076.00,0.42
6075.00,0.42
6074.00,0.42
6073.00,0.42
6072.00,0.42
6071.00,0.42
6070.00,0.42
6069.00,0.42
6068.00,0.43
6067.00,0.43
6066.00,0.43
6065.00,0.43
6064.00,0.43
6063.00,0.43
6062.00,0.43
6061.00,0.43
6060.00,0.43
6059.00,0.43
6058.00,0.43
6057.00,0.43
6056.00,0.43
6055.00,0.43
6054.00,0.43
6053.00,0.43
6052.00,0.43
6051.00,0.43
6050.00,0.43
6049.00,0.43
6048.00,0.43
6047.00,0.43
6046.00,0.43
6045.00,0.43
6044.00,0.43
6043.00,0.43
6042.00,0.43
6041.00,0.43
6040.00,0.43
6039.00,0.43
6038.00,0.43
6037.00,0.43
6036.00,0.43
6035.00,0.43
6034.00,0.43
6033.00,0.44
6032.00,0.44
6031.00,0.44
6030.00,0.44
6029.00,0.44
6028.00,0.44
6027.00,0.44
6026.00,0.44
6025.00,0.44
6024.00,0.44
6023.00,0.44
6022.00,0.44
6021.00,0.44
6020.00,0.44
6019.00,0.44
6018.00,0.44
6017.00,0.44
6016.00,0.44
6015.00,0.44
6014.00,0.44
6013.00,0.44
6012.00,0.44
6011.00,0.44
6010.00,0.44
6009.00,0.44
6008.00,0.44
6007.00,0.44
6006.00,0.44
6005.00,0.44
6004.00,0.44
6003.00,0.44
6002.00,0.44
6001.00,0.44
6000.00,0.44
5999.00,0.44
5998.00,0.44
5997.00,0.44
5996.00,0.44
5995.00,0.43
5994.00,0.43
5993.00,0.43
5992.00,0.43
5991.00,0.43
5990.00,0.43
5989.00,0.43
5988.00,0.43
5987.00,0.43
5986.00,0.43
5985.00,0.43
5984.00,0.43
5983.00,0.43
5982.00,0.43
5981.00,0.42
5980.00,0.42
5979.00,0.42
5978.00,0.42
5977.00,0.42
5976.00,0.42
5975.00,0.42
5974.00,0.41
5973.00,0.41
5972.00,0.41
5971.00,0.41
5970.00,0.41
5969.00,0.40
5968.00,0.40
5967.00,0.40
5966.00,0.40
5965.00,0.40
5964.00,0.39
5963.00,0.39
5962.00,0.39
5961.00,0.39
5960.00,0.38
5959.00,0.38
5958.00,0.38
5957.00,0.37
5956.00,0.37
5955.00,0.37
5954.00,0.37
5953.00,0.36
5952.00,0.36
5951.00,0.36
5950.00,0.36
5949.00,0.35
5948.00,0.35
5947.00,0.35
5946.00,0.35
5945.00,0.35
5944.00,0.34
5943.00,0.34
5942.00,0.34
5941.00,0.34
5940.00,0.34
5939.00,0.34
5938.00,0.34
5937.00,0.34
5936.00,0.34
5935.00,0.34
5934.00,0.34
5933.00,0.34
5932.00,0.34
5931.00,0.34
5930.00,0.34
5929.00,0.34
5928.00,0.34
5927.00,0.33
5926.00,0.33
5925.00,0.33
5924.00,0.33
5923.00,0.33
5922.00,0.33
5921.00,0.33
5920.00,0.33
5919.00,0.33
5918.00,0.33
5917.00,0.33
5916.00,0.33
5915.00,0.33
5914.00,0.33
5913.00,0.33
5912.00,0.33
5911.00,0.32
5910.00,0.32
5909.00,0.32
5908.00,0.32
5907.00,0.32
5906.00,0.32
5905.00,0.32
5904.00,0.32
5903.00,0.32
5902.00,0.32
5901.00,0.32
5900.00,0.32
5899.00,0.32
5898.00,0.32
5897.00,0.32
5896.00,0.32
5895.00,0.32
5894.00,0.32
5893.00,0.32
5892.00,0.32
5891.00,0.32
5890.00,0.33
5889.00,0.33
5888.00,0.33
5887.00,0.33
5886.00,0.33
5885.00,0.33
5884.00,0.33
5883.00,0.33
5882.00,0.33
5881.00,0.33
5880.00,0.33
5879.00,0.33
5878.00,0.34
5877.00,0.34
5876.00,0.34
5875.00,0.34
5874.00,0.34
5873.00,0.34
5872.00,0.34
5871.00,0.34
5870.00,0.34
5869.00,0.34
5868.00,0.34
5867.00,0.34
5866.00,0.34
5865.00,0.34
5864.00,0.35
5863.00,0.35
5862.00,0.35
5861.00,0.35
5860.00,0.35
5859.00,0.35
5858.00,0.35
5857.00,0.35
5856.00,0.35
5855.00,0.35
5854.00,0.35
5853.00,0.35
5852.00,0.35
5851.00,0.35
5850.00,0.35
5849.00,0.35
5848.00,0.35
5847.00,0.35
5846.00,0.35
5845.00,0.35
5844.00,0.35
5843.00,0.35
5842.00,0.35
5841.00,0.35
5840.00,0.35
5839.00,0.35
5838.00,0.35
5837.00,0.35
5836.00,0.35
5835.00,0.35
5834.00,0.35
5833.00,0.35
5832.00,0.35
5831.00,0.35
5830.00,0.35
5829.00,0.35
5828.00,0.35
5827.00,0.35
5826.00,0.35
5825.00,0.35
5824.00,0.35
5823.00,0.35
5822.00,0.35
5821.00,0.35
5820.00,0.35
5819.00,0.35
5818.00,0.35
5817.00,0.35
5816.00,0.35
5815.00,0.35
5814.00,0.35
5813.00,0.35
5812.00,0.35
5811.00,0.35
5810.00,0.35
5809.00,0.35
5808.00,0.35
5807.00,0.35
5806.00,0.35
5805.00,0.35
5804.00,0.35
5803.00,0.35
5802.00,0.35
5801.00,0.35
5800.00,0.35
5799.00,0.35
5798.00,0.35
5797.00,0.35
5796.00,0.35
5795.00,0.35
5794.00,0.35
5793.00,0.35
5792.00,0.35
5791.00,0.35
5790.00,0.35
5789.00,0.35
5788.00,0.35
5787.00,0.35
5786.00,0.34
5785.00,0.34
5784.00,0.34
5783.00,0.34
5782.00,0.34
5781.00,0.34
5780.00,0.34
5779.00,0.34
5778.00,0.34
5777.00,0.34
5776.00,0.34
5775.00,0.34
5774.00,0.34
5773.00,0.34
5772.00,0.34
5771.00,0.34
5770.00,0.34
5769.00,0.34
5768.00,0.34
5767.00,0.34
5766.00,0.34
5765.00,0.34
5764.00,0.34
5763.00,0.34
5762.00,0.34
5761.00,0.34
5760.00,0.34
5759.00,0.34
5758.00,0.34
5757.00,0.34
5756.00,0.35
5755.00,0.35
5754.00,0.35
5753.00,0.35
5752.00,0.35
5751.00,0.35
5750.00,0.35
5749.00,0.36
5748.00,0.36
5747.00,0.36
5746.00,0.36
5745.00,0.36
5744.00,0.36
5743.00,0.36
5742.00,0.36
5741.00,0.37
5740.00,0.37
5739.00,0.37
5738.00,0.37
5737.00,0.37
5736.00,0.37
5735.00,0.37
5734.00,0.37
5733.00,0.37
5732.00,0.37
5731.00,0.37
5730.00,0.37
5729.00,0.37
5728.00,0.38
5727.00,0.38
5726.00,0.38
5725.00,0.38
5724.00,0.38
5723.00,0.38
5722.00,0.38
5721.00,0.38
5720.00,0.38
5719.00,0.38
5718.00,0.38
5717.00,0.38
5716.00,0.38
5715.00,0.38
5714.00,0.38
5713.00,0.38
5712.00,0.38
5711.00,0.38
5710.00,0.38
5709.00,0.38
5708.00,0.38
5707.00,0.38
5706.00,0.38
5705.00,0.38
5704.00,0.38
5703.00,0.38
5702.00,0.38
5701.00,0.38
5700.00,0.37
5699.00,0.37
5698.00,0.37
5697.00,0.37
5696.00,0.37
5695.00,0.37
5694.00,0.37
5693.00,0.37
5692.00,0.37
5691.00,0.37
5690.00,0.37
5689.00,0.37
5688.00,0.37
5687.00,0.37
5686.00,0.37
5685.00,0.37
5684.00,0.37
5683.00,0.37
5682.00,0.37
5681.00,0.37
5680.00,0.37
5679.00,0.37
5678.00,0.37
5677.00,0.37
5676.00,0.36
5675.00,0.36
5674.00,0.36
5673.00,0.36
5672.00,0.36
5671.00,0.36
5670.00,0.36
5669.00,0.36
5668.00,0.36
5667.00,0.36
5666.00,0.37
5665.00,0.37
5664.00,0.37
5663.00,0.37
5662.00,0.37
5661.00,0.37
5660.00,0.37
5659.00,0.37
5658.00,0.37
5657.00,0.37
5656.00,0.37
5655.00,0.37
5654.00,0.37
5653.00,0.37
5652.00,0.37
5651.00,0.37
5650.00,0.38
5649.00,0.38
5648.00,0.38
5647.00,0.38
5646.00,0.38
5645.00,0.38
5644.00,0.38
5643.00,0.38
5642.00,0.38
5641.00,0.38
5640.00,0.38
5639.00,0.39
5638.00,0.39
5637.00,0.39
5636.00,0.39
5635.00,0.39
5634.00,0.39
5633.00,0.39
5632.00,0.39
5631.00,0.39
5630.00,0.39
5629.00,0.39
5628.00,0.39
5627.00,0.39
5626.00,0.39
5625.00,0.39
5624.00,0.39
5623.00,0.40
5622.00,0.40
5621.00,0.40
5620.00,0.40
5619.00,0.40
5618.00,0.40
5617.00,0.40
5616.00,0.40
5615.00,0.40
5614.00,0.40
5613.00,0.40
5612.00,0.40
5611.00,0.40
5610.00,0.40
5609.00,0.40
5608.00,0.40
5607.00,0.40
5606.00,0.40
5605.00,0.40
5604.00,0.41
5603.00,0.41
5602.00,0.41
5601.00,0.41
5600.00,0.41
5599.00,0.41
5598.00,0.41
5597.00,0.41
5596.00,0.41
5595.00,0.41
5594.00,0.41
5593.00,0.41
5592.00,0.41
5591.00,0.41
5590.00,0.41
5589.00,0.41
5588.00,0.42
5587.00,0.42
5586.00,0.42
5585.00,0.42
5584.00,0.42
5583.00,0.42
5582.00,0.42
5581.00,0.42
5580.00,0.42
5579.00,0.42
5578.00,0.42
5577.00,0.42
5576.00,0.42
5575.00,0.42
5574.00,0.42
5573.00,0.42
5572.00,0.42
5571.00,0.42
5570.00,0.42
5569.00,0.42
5568.00,0.42
5567.00,0.42
5566.00,0.42
5565.00,0.42
5564.00,0.42
5563.00,0.42
5562.00,0.43
5561.00,0.43
5560.00,0.43
5559.00,0.43
5558.00,0.43
5557.00,0.43
5556.00,0.43
5555.00,0.43
5554.00,0.43
5553.00,0.43
5552.00,0.43
5551.00,0.43
5550.00,0.43
5549.00,0.43
5548.00,0.43
5547.00,0.43
5546.00,0.43
5545.00,0.43
5544.00,0.43
5543.00,0.43
5542.00,0.43
5541.00,0.43
5540.00,0.43
5539.00,0.44
5538.00,0.44
5537.00,0.44
5536.00,0.44
5535.00,0.44
5534.00,0.44
5533.00,0.44
5532.00,0.44
5531.00,0.44
5530.00,0.44
5529.00,0.44
5528.00,0.44
5527.00,0.44
5526.00,0.44
5525.00,0.44
5524.00,0.44
5523.00,0.44
5522.00,0.44
5521.00,0.44
5520.00,0.44
5519.00,0.44
5518.00,0.44
5517.00,0.44
5516.00,0.44
5515.00,0.44
5514.00,0.44
5513.00,0.44
5512.00,0.44
5511.00,0.44
5510.00,0.44
5509.00,0.44
5508.00,0.44
5507.00,0.44
5506.00,0.44
5505.00,0.44
5504.00,0.44
5503.00,0.44
5502.00,0.44
5501.00,0.44
5500.00,0.44
5499.00,0.44
5498.00,0.44
5497.00,0.44
5496.00,0.44
5495.00,0.44
5494.00,0.44
5493.00,0.44
5492.00,0.44
5491.00,0.44
5490.00,0.44
5489.00,0.44
5488.00,0.44
5487.00,0.45
5486.00,0.45
5485.00,0.45
5484.00,0.45
5483.00,0.45
5482.00,0.45
5481.00,0.45
5480.00,0.45
5479.00,0.45
5478.00,0.45
5477.00,0.45
5476.00,0.45
5475.00,0.45
5474.00,0.45
5473.00,0.45
5472.00,0.45
5471.00,0.45
5470.00,0.45
5469.00,0.45
5468.00,0.45
5467.00,0.45
5466.00,0.45
5465.00,0.46
5464.00,0.46
5463.00,0.46
5462.00,0.46
5461.00,0.46
5460.00,0.46
5459.00,0.46
5458.00,0.46
5457.00,0.46
5456.00,0.46
5455.00,0.46
5454.00,0.46
5453.00,0.46
5452.00,0.46
5451.00,0.46
5450.00,0.46
5449.00,0.46
5448.00,0.46
5447.00,0.46
5446.00,0.46
5445.00,0.46
5444.00,0.46
5443.00,0.46
5442.00,0.46
5441.00,0.46
5440.00,0.46
5439.00,0.46
5438.00,0.46
5437.00,0.46
5436.00,0.46
5435.00,0.46
5434.00,0.46
5433.00,0.46
5432.00,0.46
5431.00,0.46
5430.00,0.46
5429.00,0.46
5428.00,0.46
5427.00,0.46
5426.00,0.46
5425.00,0.46
5424.00,0.46
5423.00,0.46
5422.00,0.46
5421.00,0.46
5420.00,0.46
5419.00,0.46
5418.00,0.46
5417.00,0.46
5416.00,0.46
5415.00,0.46
5414.00,0.46
5413.00,0.46
5412.00,0.46
5411.00,0.46
5410.00,0.46
5409.00,0.46
5408.00,0.46
5407.00,0.46
5406.00,0.46
5405.00,0.46
5404.00,0.46
5403.00,0.46
5402.00,0.46
5401.00,0.46
5400.00,0.46
5399.00,0.46
5398.00,0.46
5397.00,0.46
5396.00,0.46
5395.00,0.46
5394.00,0.46
5393.00,0.46
5392.00,0.46
5391.00,0.46
5390.00,0.46
5389.00,0.46
5388.00,0.46
5387.00,0.46
5386.00,0.46
5385.00,0.46
5384.00,0.46
5383.00,0.46
5382.00,0.45
5381.00,0.45
5380.00,0.45
5379.00,0.45
5378.00,0.45
5377.00,0.45
5376.00,0.45
5375.00,0.45
5374.00,0.45
5373.00,0.45
5372.00,0.44
5371.00,0.44
5370.00,0.44
5369.00,0.44
5368.00,0.44
5367.00,0.44
5366.00,0.44
5365.00,0.43
5364.00,0.43
5363.00,0.43
5362.00,0.43
5361.00,0.43
5360.00,0.42
5359.00,0.42
5358.00,0.42
5357.00,0.42
5356.00,0.42
5355.00,0.41
5354.00,0.41
5353.00,0.41
5352.00,0.40
5351.00,0.40
5350.00,0.40
5349.00,0.40
5348.00,0.39
5347.00,0.39
5346.00,0.39
5345.00,0.38
5344.00,0.38
5343.00,0.38
5342.00,0.37
5341.00,0.37
5340.00,0.37
5339.00,0.36
5338.00,0.36
5337.00,0.36
5336.00,0.35
5335.00,0.35
5334.00,0.35
5333.00,0.34
5332.00,0.34
5331.00,0.34
5330.00,0.33
5329.00,0.33
5328.00,0.33
5327.00,0.32
5326.00,0.32
5325.00,0.32
5324.00,0.31
5323.00,0.31
5322.00,0.31
5321.00,0.30
5320.00,0.30
5319.00,0.30
5318.00,0.29
5317.00,0.29
5316.00,0.29
5315.00,0.28
5314.00,0.28
5313.00,0.28
5312.00,0.28
5311.00,0.27
5310.00,0.27
5309.00,0.27
5308.00,0.26
5307.00,0.26
5306.00,0.26
5305.00,0.26
5304.00,0.25
5303.00,0.25
5302.00,0.25
5301.00,0.25
5300.00,0.25
5299.00,0.24
5298.00,0.24
5297.00,0.24
5296.00,0.24
5295.00,0.24
5294.00,0.24
5293.00,0.24
5292.00,0.23
5291.00,0.23
5290.00,0.23
5289.00,0.23
5288.00,0.23
5287.00,0.23
5286.00,0.23
5285.00,0.23
5284.00,0.23
5283.00,0.23
5282.00,0.23
5281.00,0.23
5280.00,0.23
5279.00,0.23
5278.00,0.23
5277.00,0.23
5276.00,0.23
5275.00,0.23
5274.00,0.23
5273.00,0.23
5272.00,0.23
5271.00,0.23
5270.00,0.23
5269.00,0.23
5268.00,0.22
5267.00,0.22
5266.00,0.22
5265.00,0.22
5264.00,0.22
5263.00,0.22
5262.00,0.22
5261.00,0.22
5260.00,0.22
5259.00,0.22
5258.00,0.22
5257.00,0.22
5256.00,0.22
5255.00,0.22
5254.00,0.22
5253.00,0.22
5252.00,0.22
5251.00,0.22
5250.00,0.22
5249.00,0.22
5248.00,0.22
5247.00,0.22
5246.00,0.22
5245.00,0.22
5244.00,0.22
5243.00,0.22
5242.00,0.22
5241.00,0.22
5240.00,0.22
5239.00,0.22
5238.00,0.22
5237.00,0.22
5236.00,0.22
5235.00,0.22
5234.00,0.22
5233.00,0.22
5232.00,0.22
5231.00,0.22
5230.00,0.22
5229.00,0.22
5228.00,0.22
5227.00,0.22
5226.00,0.22
5225.00,0.22
5224.00,0.22
5223.00,0.22
5222.00,0.22
5221.00,0.22
5220.00,0.22
5219.00,0.22
5218.00,0.22
5217.00,0.22
5216.00,0.22
5215.00,0.22
5214.00,0.22
5213.00,0.22
5212.00,0.22
5211.00,0.22
5210.00,0.22
5209.00,0.22
5208.00,0.22
5207.00,0.22
5206.00,0.22
5205.00,0.22
5204.00,0.22
5203.00,0.22
5202.00,0.22
5201.00,0.22
5200.00,0.22
5199.00,0.22
5198.00,0.22
5197.00,0.22
5196.00,0.22
5195.00,0.22
5194.00,0.22
5193.00,0.22
5192.00,0.22
5191.00,0.22
5190.00,0.22
5189.00,0.22
5188.00,0.22
5187.00,0.22
5186.00,0.22
5185.00,0.22
5184.00,0.22
5183.00,0.22
5182.00,0.22
5181.00,0.22
5180.00,0.22
5179.00,0.22
5178.00,0.22
5177.00,0.22
5176.00,0.22
5175.00,0.22
5174.00,0.22
5173.00,0.22
5172.00,0.23
5171.00,0.23
5170.00,0.23
5169.00,0.23
5168.00,0.23
5167.00,0.23
5166.00,0.23
5165.00,0.23
5164.00,0.23
5163.00,0.23
5162.00,0.23
5161.00,0.23
5160.00,0.23
5159.00,0.23
5158.00,0.23
5157.00,0.23
5156.00,0.23
5155.00,0.23
5154.00,0.23
5153.00,0.23
5152.00,0.23
5151.00,0.23
5150.00,0.23
5149.00,0.23
5148.00,0.23
5147.00,0.23
5146.00,0.23
5145.00,0.23
5144.00,0.23
5143.00,0.23
5142.00,0.23
5141.00,0.23
5140.00,0.23
5139.00,0.23
5138.00,0.23
5137.00,0.23
5136.00,0.23
5135.00,0.23
5134.00,0.23
5133.00,0.23
5132.00,0.23
5131.00,0.23
5130.00,0.23
5129.00,0.23
5128.00,0.23
5127.00,0.23
5126.00,0.23
5125.00,0.24
5124.00,0.24
5123.00,0.24
5122.00,0.24
5121.00,0.24
5120.00,0.24
5119.00,0.24
5118.00,0.24
5117.00,0.24
5116.00,0.24
5115.00,0.24
5114.00,0.24
5113.00,0.24
5112.00,0.24
5111.00,0.24
5110.00,0.24
5109.00,0.24
5108.00,0.24
5107.00,0.24
5106.00,0.24
5105.00,0.24
5104.00,0.24
5103.00,0.24
5102.00,0.24
5101.00,0.24
5100.00,0.24
5099.00,0.24
5098.00,0.24
5097.00,0.24
5096.00,0.24
5095.00,0.24
5094.00,0.24
5093.00,0.24
5092.00,0.24
5091.00,0.24
5090.00,0.24
5089.00,0.24
5088.00,0.24
5087.00,0.24
5086.00,0.24
5085.00,0.24
5084.00,0.24
5083.00,0.24
5082.00,0.24
5081.00,0.24
5080.00,0.24
5079.00,0.24
5078.00,0.24
5077.00,0.24
5076.00,0.24
5075.00,0.24
5074.00,0.24
5073.00,0.24
5072.00,0.24
5071.00,0.24
5070.00,0.24
5069.00,0.25
5068.00,0.25
5067.00,0.25
5066.00,0.25
5065.00,0.25
5064.00,0.25
5063.00,0.25
5062.00,0.25
5061.00,0.25
5060.00,0.25
5059.00,0.25
5058.00,0.25
5057.00,0.25
5056.00,0.25
5055.00,0.25
5054.00,0.25
5053.00,0.25
5052.00,0.25
5051.00,0.25
5050.00,0.25
5049.00,0.25
5048.00,0.25
5047.00,0.25
5046.00,0.25
5045.00,0.25
5044.00,0.25
5043.00,0.25
5042.00,0.25
5041.00,0.25
5040.00,0.25
5039.00,0.26
5038.00,0.26
5037.00,0.26
5036.00,0.26
5035.00,0.26
5034.00,0.26
5033.00,0.26
5032.00,0.26
5031.00,0.26
5030.00,0.26
5029.00,0.26
5028.00,0.26
5027.00,0.26
5026.00,0.26
5025.00,0.26
5024.00,0.26
5023.00,0.26
5022.00,0.26
5021.00,0.26
5020.00,0.26
5019.00,0.26
5018.00,0.26
5017.00,0.26
5016.00,0.26
5015.00,0.26
5014.00,0.26
5013.00,0.26
5012.00,0.26
5011.00,0.26
5010.00,0.26
5009.00,0.26
5008.00,0.27
5007.00,0.27
5006.00,0.27
5005.00,0.27
5004.00,0.27
5003.00,0.27
5002.00,0.27
5001.00,0.27
5000.00,0.27
4999.00,0.27
4998.00,0.27
4997.00,0.27
4996.00,0.27
4995.00,0.27
4994.00,0.27
4993.00,0.27
4992.00,0.27
4991.00,0.27
4990.00,0.27
4989.00,0.27
4988.00,0.27
4987.00,0.27
4986.00,0.27
4985.00,0.27
4984.00,0.27
4983.00,0.27
4982.00,0.27
4981.00,0.27
4980.00,0.27
4979.00,0.27
4978.00,0.27
4977.00,0.27
4976.00,0.27
4975.00,0.27
4974.00,0.27
4973.00,0.27
4972.00,0.27
4971.00,0.27
4970.00,0.27
4969.00,0.27
4968.00,0.28
4967.00,0.28
4966.00,0.28
4965.00,0.28
4964.00,0.28
4963.00,0.28
4962.00,0.28
4961.00,0.28
4960.00,0.28
4959.00,0.28
4958.00,0.28
4957.00,0.28
4956.00,0.28
4955.00,0.28
4954.00,0.28
4953.00,0.28
4952.00,0.28
4951.00,0.28
4950.00,0.28
4949.00,0.28
4948.00,0.28
4947.00,0.28
4946.00,0.28
4945.00,0.28
4944.00,0.28
4943.00,0.28
4942.00,0.28
4941.00,0.29
4940.00,0.29
4939.00,0.29
4938.00,0.29
4937.00,0.29
4936.00,0.29
4935.00,0.29
4934.00,0.29
4933.00,0.29
4932.00,0.29
4931.00,0.29
4930.00,0.29
4929.00,0.29
4928.00,0.29
4927.00,0.29
4926.00,0.29
4925.00,0.29
4924.00,0.29
4923.00,0.29
4922.00,0.29
4921.00,0.29
4920.00,0.29
4919.00,0.29
4918.00,0.29
4917.00,0.29
4916.00,0.29
4915.00,0.29
4914.00,0.29
4913.00,0.29
4912.00,0.29
4911.00,0.29
4910.00,0.29
4909.00,0.29
4908.00,0.29
4907.00,0.29
4906.00,0.29
4905.00,0.29
4904.00,0.29
4903.00,0.29
4902.00,0.29
4901.00,0.29
4900.00,0.29
4899.00,0.29
4898.00,0.29
4897.00,0.30
4896.00,0.30
4895.00,0.30
4894.00,0.30
4893.00,0.30
4892.00,0.30
4891.00,0.30
4890.00,0.30
4889.00,0.30
4888.00,0.30
4887.00,0.30
4886.00,0.30
4885.00,0.30
4884.00,0.30
4883.00,0.30
4882.00,0.30
4881.00,0.30
4880.00,0.30
4879.00,0.30
4878.00,0.30
4877.00,0.30
4876.00,0.30
4875.00,0.30
4874.00,0.30
4873.00,0.30
4872.00,0.30
4871.00,0.30
4870.00,0.30
4869.00,0.30
4868.00,0.30
4867.00,0.30
4866.00,0.30
4865.00,0.30
4864.00,0.30
4863.00,0.30
4862.00,0.30
4861.00,0.30
4860.00,0.30
4859.00,0.30
4858.00,0.30
4857.00,0.30
4856.00,0.30
4855.00,0.30
4854.00,0.30
4853.00,0.30
4852.00,0.30
4851.00,0.30
4850.00,0.30
4849.00,0.30
4848.00,0.30
4847.00,0.30
4846.00,0.30
4845.00,0.30
4844.00,0.30
4843.00,0.30
4842.00,0.30
4841.00,0.30
4840.00,0.30
4839.00,0.30
4838.00,0.30
4837.00,0.30
4836.00,0.30
4835.00,0.30
4834.00,0.30
4833.00,0.30
4832.00,0.30
4831.00,0.30
4830.00,0.30
4829.00,0.30
4828.00,0.31
4827.00,0.31
4826.00,0.31
4825.00,0.31
4824.00,0.31
4823.00,0.31
4822.00,0.31
4821.00,0.31
4820.00,0.31
4819.00,0.31
4818.00,0.31
4817.00,0.31
4816.00,0.31
4815.00,0.31
4814.00,0.31
4813.00,0.31
4812.00,0.31
4811.00,0.31
4810.00,0.31
4809.00,0.31
4808.00,0.31
4807.00,0.31
4806.00,0.31
4805.00,0.31
4804.00,0.32
4803.00,0.32
4802.00,0.32
4801.00,0.32
4800.00,0.32
4799.00,0.32
4798.00,0.32
4797.00,0.32
4796.00,0.32
4795.00,0.32
4794.00,0.32
4793.00,0.32
4792.00,0.32
4791.00,0.32
4790.00,0.32
4789.00,0.32
4788.00,0.32
4787.00,0.32
4786.00,0.32
4785.00,0.32
4784.00,0.32
4783.00,0.32
4782.00,0.32
4781.00,0.32
4780.00,0.32
4779.00,0.32
4778.00,0.33
4777.00,0.33
4776.00,0.33
4775.00,0.33
4774.00,0.33
4773.00,0.33
4772.00,0.33
4771.00,0.33
4770.00,0.33
4769.00,0.33
4768.00,0.33
4767.00,0.33
4766.00,0.33
4765.00,0.33
4764.00,0.33
4763.00,0.33
4762.00,0.33
4761.00,0.33
4760.00,0.33
4759.00,0.33
4758.00,0.33
4757.00,0.33
4756.00,0.33
4755.00,0.33
4754.00,0.33
4753.00,0.34
4752.00,0.34
4751.00,0.34
4750.00,0.34
4749.00,0.34
4748.00,0.34
4747.00,0.34
4746.00,0.34
4745.00,0.34
4744.00,0.34
4743.00,0.34
4742.00,0.34
4741.00,0.34
4740.00,0.34
4739.00,0.34
4738.00,0.34
4737.00,0.34
4736.00,0.34
4735.00,0.34
4734.00,0.35
4733.00,0.35
4732.00,0.35
4731.00,0.35
4730.00,0.35
4729.00,0.35
4728.00,0.35
4727.00,0.35
4726.00,0.35
4725.00,0.35
4724.00,0.35
4723.00,0.35
4722.00,0.35
4721.00,0.35
4720.00,0.35
4719.00,0.35
4718.00,0.35
4717.00,0.35
4716.00,0.35
4715.00,0.36
4714.00,0.36
4713.00,0.36
4712.00,0.36
4711.00,0.36
4710.00,0.36
4709.00,0.36
4708.00,0.36
4707.00,0.36
4706.00,0.36
4705.00,0.36
4704.00,0.36
4703.00,0.36
4702.00,0.36
4701.00,0.36
4700.00,0.36
4699.00,0.36
4698.00,0.36
4697.00,0.36
4696.00,0.37
4695.00,0.37
4694.00,0.37
4693.00,0.37
4692.00,0.37
4691.00,0.37
4690.00,0.37
4689.00,0.37
4688.00,0.37
4687.00,0.37
4686.00,0.37
4685.00,0.37
4684.00,0.37
4683.00,0.37
4682.00,0.37
4681.00,0.37
4680.00,0.37
4679.00,0.38
4678.00,0.38
4677.00,0.38
4676.00,0.38
4675.00,0.38
4674.00,0.38
4673.00,0.38
4672.00,0.38
4671.00,0.38
4670.00,0.38
4669.00,0.38
4668.00,0.38
4667.00,0.38
4666.00,0.39
4665.00,0.39
4664.00,0.39
4663.00,0.39
4662.00,0.39
4661.00,0.39
4660.00,0.39
4659.00,0.39
4658.00,0.39
4657.00,0.39
4656.00,0.39
4655.00,0.39
4654.00,0.39
4653.00,0.39
4652.00,0.39
4651.00,0.39
4650.00,0.39
4649.00,0.39
4648.00,0.39
4647.00,0.39
4646.00,0.39
4645.00,0.39
4644.00,0.39
4643.00,0.39
4642.00,0.40
4641.00,0.40
4640.00,0.40
4639.00,0.40
4638.00,0.40
4637.00,0.40
4636.00,0.40
4635.00,0.40
4634.00,0.40
4633.00,0.40
4632.00,0.40
4631.00,0.40
4630.00,0.40
4629.00,0.40
4628.00,0.40
4627.00,0.40
4626.00,0.40
4625.00,0.40
4624.00,0.40
4623.00,0.40
4622.00,0.40
4621.00,0.40
4620.00,0.40
4619.00,0.40
4618.00,0.40
4617.00,0.40
4616.00,0.40
4615.00,0.40
4614.00,0.40
4613.00,0.40
4612.00,0.40
4611.00,0.40
4610.00,0.40
4609.00,0.40
4608.00,0.40
4607.00,0.40
4606.00,0.40
4605.00,0.40
4604.00,0.40
4603.00,0.40
4602.00,0.40
4601.00,0.40
4600.00,0.40
4599.00,0.40
4598.00,0.41
4597.00,0.41
4596.00,0.41
4595.00,0.41
4594.00,0.41
4593.00,0.41
4592.00,0.41
4591.00,0.41
4590.00,0.41
4589.00,0.41
4588.00,0.41
4587.00,0.41
4586.00,0.41
4585.00,0.41
4584.00,0.41
4583.00,0.41
4582.00,0.41
4581.00,0.41
4580.00,0.41
4579.00,0.41
4578.00,0.41
4577.00,0.41
4576.00,0.41
4575.00,0.41
4574.00,0.41
4573.00,0.41
4572.00,0.41
4571.00,0.41
4570.00,0.42
4569.00,0.42
4568.00,0.42
4567.00,0.42
4566.00,0.42
4565.00,0.42
4564.00,0.42
4563.00,0.42
4562.00,0.42
4561.00,0.42
4560.00,0.42
4559.00,0.42
4558.00,0.42
4557.00,0.42
4556.00,0.42
4555.00,0.42
4554.00,0.42
4553.00,0.42
4552.00,0.42
4551.00,0.42
4550.00,0.42
4549.00,0.42
4548.00,0.42
4547.00,0.42
4546.00,0.42
4545.00,0.42
4544.00,0.42
4543.00,0.42
4542.00,0.42
4541.00,0.42
4540.00,0.42
4539.00,0.42
4538.00,0.42
4537.00,0.42
4536.00,0.42
4535.00,0.42
4534.00,0.42
4533.00,0.42
4532.00,0.42
4531.00,0.42
4530.00,0.43
4529.00,0.43
4528.00,0.43
4527.00,0.43
4526.00,0.43
4525.00,0.43
4524.00,0.43
4523.00,0.43
4522.00,0.43
4521.00,0.43
4520.00,0.43
4519.00,0.43
4518.00,0.43
4517.00,0.43
4516.00,0.43
4515.00,0.43
4514.00,0.43
4513.00,0.43
4512.00,0.43
4511.00,0.43
4510.00,0.43
4509.00,0.43
4508.00,0.43
4507.00,0.43
4506.00,0.43
4505.00,0.43
4504.00,0.43
4503.00,0.43
4502.00,0.43
4501.00,0.43
4500.00,0.43
4499.00,0.42
4498.00,0.42
4497.00,0.42
4496.00,0.42
4495.00,0.42
4494.00,0.42
4493.00,0.42
4492.00,0.42
4491.00,0.42
4490.00,0.42
4489.00,0.42
4488.00,0.42
4487.00,0.42
4486.00,0.42
4485.00,0.42
4484.00,0.42
4483.00,0.42
4482.00,0.42
4481.00,0.42
4480.00,0.42
4479.00,0.42
4478.00,0.42
4477.00,0.42
4476.00,0.42
4475.00,0.42
4474.00,0.42
4473.00,0.42
4472.00,0.42
4471.00,0.42
4470.00,0.42
4469.00,0.41
4468.00,0.41
4467.00,0.41
4466.00,0.41
4465.00,0.41
4464.00,0.41
4463.00,0.41
4462.00,0.41
4461.00,0.41
4460.00,0.41
4459.00,0.41
4458.00,0.41
4457.00,0.41
4456.00,0.40
4455.00,0.40
4454.00,0.40
4453.00,0.40
4452.00,0.40
4451.00,0.40
4450.00,0.40
4449.00,0.40
4448.00,0.40
4447.00,0.39
4446.00,0.39
4445.00,0.39
4444.00,0.39
4443.00,0.39
4442.00,0.39
4441.00,0.39
4440.00,0.38
4439.00,0.38
4438.00,0.38
4437.00,0.38
4436.00,0.38
4435.00,0.38
4434.00,0.38
4433.00,0.38
4432.00,0.37
4431.00,0.37
4430.00,0.37
4429.00,0.37
4428.00,0.37
4427.00,0.37
4426.00,0.37
4425.00,0.37
4424.00,0.37
4423.00,0.37
4422.00,0.37
4421.00,0.37
4420.00,0.37
4419.00,0.37
4418.00,0.37
4417.00,0.37
4416.00,0.37
4415.00,0.37
4414.00,0.37
4413.00,0.37
4412.00,0.37
4411.00,0.37
4410.00,0.37
4409.00,0.37
4408.00,0.37
4407.00,0.37
4406.00,0.37
4405.00,0.37
4404.00,0.37
4403.00,0.37
4402.00,0.37
4401.00,0.37
4400.00,0.37
4399.00,0.37
4398.00,0.37
4397.00,0.37
4396.00,0.37
4395.00,0.37
4394.00,0.37
4393.00,0.37
4392.00,0.37
4391.00,0.37
4390.00,0.37
4389.00,0.37
4388.00,0.37
4387.00,0.37
4386.00,0.38
4385.00,0.38
4384.00,0.38
4383.00,0.38
4382.00,0.38
4381.00,0.38
4380.00,0.38
4379.00,0.38
4378.00,0.38
4377.00,0.38
4376.00,0.38
4375.00,0.38
4374.00,0.38
4373.00,0.38
4372.00,0.38
4371.00,0.38
4370.00,0.38
4369.00,0.38
4368.00,0.38
4367.00,0.38
4366.00,0.38
4365.00,0.38
4364.00,0.38
4363.00,0.38
4362.00,0.38
4361.00,0.38
4360.00,0.38
4359.00,0.38
4358.00,0.38
4357.00,0.38
4356.00,0.38
4355.00,0.38
4354.00,0.38
4353.00,0.38
4352.00,0.38
4351.00,0.38
4350.00,0.38
4349.00,0.38
4348.00,0.38
4347.00,0.38
4346.00,0.38
4345.00,0.38
4344.00,0.38
4343.00,0.38
4342.00,0.38
4341.00,0.38
4340.00,0.38
4339.00,0.38
4338.00,0.38
4337.00,0.38
4336.00,0.38
4335.00,0.38
4334.00,0.38
4333.00,0.38
4332.00,0.39
4331.00,0.39
4330.00,0.39
4329.00,0.39
4328.00,0.39
4327.00,0.39
4326.00,0.39
4325.00,0.39
4324.00,0.39
4323.00,0.39
4322.00,0.39
4321.00,0.39
4320.00,0.39
4319.00,0.39
4318.00,0.39
4317.00,0.39
4316.00,0.39
4315.00,0.39
4314.00,0.39
4313.00,0.39
4312.00,0.39
4311.00,0.39
4310.00,0.39
4309.00,0.39
4308.00,0.39
4307.00,0.39
4306.00,0.39
4305.00,0.39
4304.00,0.39
4303.00,0.40
4302.00,0.40
4301.00,0.40
4300.00,0.40
4299.00,0.40
4298.00,0.40
4297.00,0.40
4296.00,0.40
4295.00,0.40
4294.00,0.40
4293.00,0.40
4292.00,0.40
4291.00,0.40
4290.00,0.41
4289.00,0.41
4288.00,0.41
4287.00,0.41
4286.00,0.41
4285.00,0.41
4284.00,0.41
4283.00,0.41
4282.00,0.41
4281.00,0.41
4280.00,0.41
4279.00,0.41
4278.00,0.41
4277.00,0.41
4276.00,0.41
4275.00,0.41
4274.00,0.41
4273.00,0.41
4272.00,0.41
4271.00,0.41
4270.00,0.41
4269.00,0.41
4268.00,0.41
4267.00,0.41
4266.00,0.41
4265.00,0.41
4264.00,0.41
4263.00,0.41
4262.00,0.41
4261.00,0.41
4260.00,0.41
4259.00,0.41
4258.00,0.41
4257.00,0.41
4256.00,0.41
4255.00,0.41
4254.00,0.41
4253.00,0.41
4252.00,0.41
4251.00,0.41
4250.00,0.41
4249.00,0.41
4248.00,0.41
4247.00,0.41
4246.00,0.41
4245.00,0.41
4244.00,0.42
4243.00,0.42
4242.00,0.42
4241.00,0.42
4240.00,0.42
4239.00,0.42
4238.00,0.42
4237.00,0.42
4236.00,0.42
4235.00,0.42
4234.00,0.42
4233.00,0.43
4232.00,0.43
4231.00,0.43
4230.00,0.43
4229.00,0.43
4228.00,0.43
4227.00,0.43
4226.00,0.43
4225.00,0.43
4224.00,0.43
4223.00,0.43
4222.00,0.43
4221.00,0.43
4220.00,0.43
4219.00,0.43
4218.00,0.43
4217.00,0.43
4216.00,0.43
4215.00,0.43
4214.00,0.43
4213.00,0.43
4212.00,0.43
4211.00,0.43
4210.00,0.43
4209.00,0.43
4208.00,0.43
4207.00,0.43
4206.00,0.43
4205.00,0.43
4204.00,0.43
4203.00,0.43
4202.00,0.43
4201.00,0.43
4200.00,0.43
4199.00,0.43
4198.00,0.43
4197.00,0.43
4196.00,0.43
4195.00,0.43
4194.00,0.43
4193.00,0.43
4192.00,0.43
4191.00,0.43
4190.00,0.43
4189.00,0.43
4188.00,0.43
4187.00,0.43
4186.00,0.43
4185.00,0.43
4184.00,0.44
4183.00,0.44
4182.00,0.44
4181.00,0.44
4180.00,0.44
4179.00,0.44
4178.00,0.44
4177.00,0.43
4176.00,0.43
4175.00,0.43
4174.00,0.43
4173.00,0.43
4172.00,0.43
4171.00,0.43
4170.00,0.43
4169.00,0.44
4168.00,0.44
4167.00,0.44
4166.00,0.44
4165.00,0.44
4164.00,0.44
4163.00,0.44
4162.00,0.44
4161.00,0.44
4160.00,0.44
4159.00,0.44
4158.00,0.44
4157.00,0.44
4156.00,0.44
4155.00,0.44
4154.00,0.44
4153.00,0.44
4152.00,0.44
4151.00,0.44
4150.00,0.44
4149.00,0.44
4148.00,0.44
4147.00,0.44
4146.00,0.44
4145.00,0.44
4144.00,0.44
4143.00,0.44
4142.00,0.44
4141.00,0.44
4140.00,0.44
4139.00,0.44
4138.00,0.44
4137.00,0.44
4136.00,0.44
4135.00,0.44
4134.00,0.44
4133.00,0.44
4132.00,0.44
4131.00,0.44
4130.00,0.44
4129.00,0.44
4128.00,0.44
4127.00,0.44
4126.00,0.44
4125.00,0.44
4124.00,0.44
4123.00,0.44
4122.00,0.44
4121.00,0.44
4120.00,0.44
4119.00,0.44
4118.00,0.44
4117.00,0.44
4116.00,0.44
4115.00,0.44
4114.00,0.44
4113.00,0.44
4112.00,0.44
4111.00,0.45
4110.00,0.45
4109.00,0.45
4108.00,0.45
4107.00,0.45
4106.00,0.45
4105.00,0.45
4104.00,0.45
4103.00,0.45
4102.00,0.45
4101.00,0.45
4100.00,0.45
4099.00,0.45
4098.00,0.45
4097.00,0.44
4096.00,0.44
4095.00,0.44
4094.00,0.44
4093.00,0.44
4092.00,0.44
4091.00,0.44
4090.00,0.45
4089.00,0.45
4088.00,0.45
4087.00,0.45
4086.00,0.45
4085.00,0.45
4084.00,0.45
4083.00,0.45
4082.00,0.45
4081.00,0.45
4080.00,0.45
4079.00,0.45
4078.00,0.45
4077.00,0.45
4076.00,0.45
4075.00,0.45
4074.00,0.45
4073.00,0.45
4072.00,0.45
4071.00,0.45
4070.00,0.45
4069.00,0.45
4068.00,0.45
4067.00,0.45
4066.00,0.45
4065.00,0.45
4064.00,0.46
4063.00,0.46
4062.00,0.46
4061.00,0.46
4060.00,0.46
4059.00,0.46
4058.00,0.46
4057.00,0.46
4056.00,0.46
4055.00,0.46
4054.00,0.46
4053.00,0.46
4052.00,0.46
4051.00,0.46
4050.00,0.46
4049.00,0.46
4048.00,0.46
4047.00,0.46
4046.00,0.46
4045.00,0.46
4044.00,0.46
4043.00,0.46
4042.00,0.46
4041.00,0.46
4040.00,0.46
4039.00,0.46
4038.00,0.46
4037.00,0.46
4036.00,0.46
4035.00,0.46
4034.00,0.46
4033.00,0.46
4032.00,0.46
4031.00,0.46
4030.00,0.46
4029.00,0.46
4028.00,0.46
4027.00,0.46
4026.00,0.46
4025.00,0.46
4024.00,0.46
4023.00,0.46
4022.00,0.46
4021.00,0.46
4020.00,0.46
4019.00,0.46
4018.00,0.46
4017.00,0.46
4016.00,0.46
4015.00,0.46
4014.00,0.46
4013.00,0.46
4012.00,0.46
4011.00,0.46
4010.00,0.46
4009.00,0.46
4008.00,0.46
4007.00,0.46
4006.00,0.46
4005.00,0.46
4004.00,0.46
4003.00,0.46
4002.00,0.46
4001.00,0.46
4000.00,0.46
