创建为新数据集,样品 476 用户 Administrator 日期 星期日, 七月 15 2018
cm-1,%T
10000.00,0.48
9999.00,0.47
9998.00,0.47
9997.00,0.47
9996.00,0.47
9995.00,0.47
9994.00,0.47
9993.00,0.47
9992.00,0.47
9991.00,0.47
9990.00,0.47
9989.00,0.47
9988.00,0.46
9987.00,0.46
9986.00,0.46
9985.00,0.46
9984.00,0.46
9983.00,0.46
9982.00,0.47
9981.00,0.47
9980.00,0.47
9979.00,0.47
9978.00,0.47
9977.00,0.47
9976.00,0.47
9975.00,0.47
9974.00,0.47
9973.00,0.47
9972.00,0.48
9971.00,0.48
9970.00,0.48
9969.00,0.48
9968.00,0.48
9967.00,0.48
9966.00,0.48
9965.00,0.48
9964.00,0.47
9963.00,0.47
9962.00,0.47
9961.00,0.47
9960.00,0.47
9959.00,0.46
9958.00,0.46
9957.00,0.46
9956.00,0.45
9955.00,0.45
9954.00,0.44
9953.00,0.44
9952.00,0.43
9951.00,0.43
9950.00,0.42
9949.00,0.42
9948.00,0.41
9947.00,0.41
9946.00,0.40
9945.00,0.40
9944.00,0.40
9943.00,0.39
9942.00,0.39
9941.00,0.39
9940.00,0.39
9939.00,0.39
9938.00,0.39
9937.00,0.39
9936.00,0.38
9935.00,0.38
9934.00,0.38
9933.00,0.38
9932.00,0.39
9931.00,0.39
9930.00,0.39
9929.00,0.39
9928.00,0.39
9927.00,0.39
9926.00,0.39
9925.00,0.39
9924.00,0.40
9923.00,0.40
9922.00,0.40
9921.00,0.41
9920.00,0.41
9919.00,0.41
9918.00,0.42
9917.00,0.42
9916.00,0.42
9915.00,0.42
9914.00,0.43
9913.00,0.43
9912.00,0.43
9911.00,0.43
9910.00,0.43
9909.00,0.44
9908.00,0.44
9907.00,0.44
9906.00,0.44
9905.00,0.44
9904.00,0.44
9903.00,0.44
9902.00,0.44
9901.00,0.45
9900.00,0.45
9899.00,0.45
9898.00,0.45
9897.00,0.45
9896.00,0.45
9895.00,0.45
9894.00,0.45
9893.00,0.45
9892.00,0.45
9891.00,0.45
9890.00,0.46
9889.00,0.46
9888.00,0.46
9887.00,0.46
9886.00,0.46
9885.00,0.46
9884.00,0.46
9883.00,0.46
9882.00,0.46
9881.00,0.46
9880.00,0.46
9879.00,0.46
9878.00,0.45
9877.00,0.45
9876.00,0.45
9875.00,0.44
9874.00,0.44
9873.00,0.43
9872.00,0.43
9871.00,0.42
9870.00,0.42
9869.00,0.41
9868.00,0.41
9867.00,0.40
9866.00,0.40
9865.00,0.40
9864.00,0.40
9863.00,0.40
9862.00,0.39
9861.00,0.39
9860.00,0.39
9859.00,0.40
9858.00,0.40
9857.00,0.40
9856.00,0.40
9855.00,0.40
9854.00,0.40
9853.00,0.41
9852.00,0.41
9851.00,0.41
9850.00,0.41
9849.00,0.42
9848.00,0.42
9847.00,0.42
9846.00,0.42
9845.00,0.43
9844.00,0.43
9843.00,0.43
9842.00,0.43
9841.00,0.43
9840.00,0.44
9839.00,0.44
9838.00,0.44
9837.00,0.44
9836.00,0.44
9835.00,0.44
9834.00,0.44
9833.00,0.44
9832.00,0.44
9831.00,0.44
9830.00,0.44
9829.00,0.44
9828.00,0.43
9827.00,0.43
9826.00,0.43
9825.00,0.43
9824.00,0.43
9823.00,0.43
9822.00,0.43
9821.00,0.43
9820.00,0.43
9819.00,0.43
9818.00,0.43
9817.00,0.42
9816.00,0.42
9815.00,0.42
9814.00,0.42
9813.00,0.41
9812.00,0.41
9811.00,0.41
9810.00,0.40
9809.00,0.40
9808.00,0.40
9807.00,0.40
9806.00,0.40
9805.00,0.39
9804.00,0.39
9803.00,0.39
9802.00,0.40
9801.00,0.40
9800.00,0.40
9799.00,0.40
9798.00,0.40
9797.00,0.40
9796.00,0.41
9795.00,0.41
9794.00,0.41
9793.00,0.41
9792.00,0.41
9791.00,0.41
9790.00,0.41
9789.00,0.41
9788.00,0.41
9787.00,0.41
9786.00,0.41
9785.00,0.41
9784.00,0.41
9783.00,0.41
9782.00,0.41
9781.00,0.41
9780.00,0.41
9779.00,0.41
9778.00,0.41
9777.00,0.41
9776.00,0.41
9775.00,0.41
9774.00,0.41
9773.00,0.41
9772.00,0.41
9771.00,0.41
9770.00,0.41
9769.00,0.41
9768.00,0.41
9767.00,0.41
9766.00,0.41
9765.00,0.40
9764.00,0.41
9763.00,0.41
9762.00,0.41
9761.00,0.41
9760.00,0.41
9759.00,0.41
9758.00,0.42
9757.00,0.42
9756.00,0.42
9755.00,0.42
9754.00,0.43
9753.00,0.43
9752.00,0.43
9751.00,0.43
9750.00,0.44
9749.00,0.44
9748.00,0.44
9747.00,0.44
9746.00,0.44
9745.00,0.44
9744.00,0.43
9743.00,0.43
9742.00,0.43
9741.00,0.43
9740.00,0.43
9739.00,0.43
9738.00,0.43
9737.00,0.43
9736.00,0.43
9735.00,0.43
9734.00,0.43
9733.00,0.43
9732.00,0.43
9731.00,0.43
9730.00,0.43
9729.00,0.43
9728.00,0.43
9727.00,0.43
9726.00,0.43
9725.00,0.43
9724.00,0.43
9723.00,0.43
9722.00,0.43
9721.00,0.43
9720.00,0.43
9719.00,0.43
9718.00,0.43
9717.00,0.43
9716.00,0.44
9715.00,0.44
9714.00,0.44
9713.00,0.44
9712.00,0.44
9711.00,0.45
9710.00,0.45
9709.00,0.45
9708.00,0.46
9707.00,0.46
9706.00,0.46
9705.00,0.46
9704.00,0.46
9703.00,0.47
9702.00,0.47
9701.00,0.47
9700.00,0.47
9699.00,0.46
9698.00,0.46
9697.00,0.46
9696.00,0.46
9695.00,0.46
9694.00,0.45
9693.00,0.45
9692.00,0.45
9691.00,0.45
9690.00,0.44
9689.00,0.44
9688.00,0.44
9687.00,0.44
9686.00,0.44
9685.00,0.44
9684.00,0.44
9683.00,0.44
9682.00,0.44
9681.00,0.44
9680.00,0.44
9679.00,0.44
9678.00,0.44
9677.00,0.45
9676.00,0.45
9675.00,0.45
9674.00,0.45
9673.00,0.45
9672.00,0.45
9671.00,0.45
9670.00,0.45
9669.00,0.45
9668.00,0.45
9667.00,0.45
9666.00,0.45
9665.00,0.45
9664.00,0.46
9663.00,0.46
9662.00,0.46
9661.00,0.46
9660.00,0.46
9659.00,0.46
9658.00,0.46
9657.00,0.46
9656.00,0.46
9655.00,0.46
9654.00,0.46
9653.00,0.46
9652.00,0.46
9651.00,0.46
9650.00,0.46
9649.00,0.46
9648.00,0.46
9647.00,0.46
9646.00,0.46
9645.00,0.46
9644.00,0.46
9643.00,0.46
9642.00,0.46
9641.00,0.45
9640.00,0.45
9639.00,0.45
9638.00,0.45
9637.00,0.45
9636.00,0.45
9635.00,0.44
9634.00,0.44
9633.00,0.44
9632.00,0.44
9631.00,0.44
9630.00,0.44
9629.00,0.43
9628.00,0.43
9627.00,0.43
9626.00,0.43
9625.00,0.43
9624.00,0.43
9623.00,0.43
9622.00,0.43
9621.00,0.43
9620.00,0.43
9619.00,0.42
9618.00,0.42
9617.00,0.42
9616.00,0.42
9615.00,0.42
9614.00,0.42
9613.00,0.42
9612.00,0.42
9611.00,0.42
9610.00,0.42
9609.00,0.42
9608.00,0.42
9607.00,0.42
9606.00,0.42
9605.00,0.42
9604.00,0.42
9603.00,0.42
9602.00,0.41
9601.00,0.41
9600.00,0.41
9599.00,0.41
9598.00,0.41
9597.00,0.41
9596.00,0.41
9595.00,0.41
9594.00,0.41
9593.00,0.41
9592.00,0.41
9591.00,0.42
9590.00,0.42
9589.00,0.42
9588.00,0.42
9587.00,0.43
9586.00,0.43
9585.00,0.43
9584.00,0.43
9583.00,0.44
9582.00,0.44
9581.00,0.44
9580.00,0.44
9579.00,0.44
9578.00,0.44
9577.00,0.44
9576.00,0.44
9575.00,0.43
9574.00,0.43
9573.00,0.43
9572.00,0.43
9571.00,0.43
9570.00,0.43
9569.00,0.42
9568.00,0.42
9567.00,0.42
9566.00,0.42
9565.00,0.42
9564.00,0.42
9563.00,0.42
9562.00,0.42
9561.00,0.42
9560.00,0.42
9559.00,0.43
9558.00,0.43
9557.00,0.43
9556.00,0.43
9555.00,0.44
9554.00,0.44
9553.00,0.44
9552.00,0.44
9551.00,0.45
9550.00,0.45
9549.00,0.45
9548.00,0.46
9547.00,0.46
9546.00,0.46
9545.00,0.47
9544.00,0.47
9543.00,0.47
9542.00,0.47
9541.00,0.47
9540.00,0.47
9539.00,0.47
9538.00,0.47
9537.00,0.47
9536.00,0.47
9535.00,0.47
9534.00,0.47
9533.00,0.47
9532.00,0.47
9531.00,0.47
9530.00,0.47
9529.00,0.47
9528.00,0.46
9527.00,0.46
9526.00,0.46
9525.00,0.46
9524.00,0.45
9523.00,0.45
9522.00,0.45
9521.00,0.45
9520.00,0.44
9519.00,0.44
9518.00,0.44
9517.00,0.44
9516.00,0.43
9515.00,0.43
9514.00,0.43
9513.00,0.43
9512.00,0.43
9511.00,0.43
9510.00,0.44
9509.00,0.44
9508.00,0.44
9507.00,0.44
9506.00,0.44
9505.00,0.44
9504.00,0.44
9503.00,0.44
9502.00,0.44
9501.00,0.44
9500.00,0.44
9499.00,0.44
9498.00,0.44
9497.00,0.44
9496.00,0.44
9495.00,0.44
9494.00,0.44
9493.00,0.44
9492.00,0.44
9491.00,0.44
9490.00,0.44
9489.00,0.44
9488.00,0.44
9487.00,0.44
9486.00,0.44
9485.00,0.44
9484.00,0.44
9483.00,0.44
9482.00,0.45
9481.00,0.45
9480.00,0.45
9479.00,0.45
9478.00,0.45
9477.00,0.45
9476.00,0.45
9475.00,0.44
9474.00,0.44
9473.00,0.44
9472.00,0.43
9471.00,0.43
9470.00,0.43
9469.00,0.42
9468.00,0.42
9467.00,0.42
9466.00,0.41
9465.00,0.41
9464.00,0.41
9463.00,0.41
9462.00,0.41
9461.00,0.41
9460.00,0.42
9459.00,0.42
9458.00,0.42
9457.00,0.42
9456.00,0.43
9455.00,0.43
9454.00,0.43
9453.00,0.43
9452.00,0.44
9451.00,0.44
9450.00,0.44
9449.00,0.44
9448.00,0.44
9447.00,0.44
9446.00,0.44
9445.00,0.44
9444.00,0.44
9443.00,0.44
9442.00,0.44
9441.00,0.44
9440.00,0.44
9439.00,0.44
9438.00,0.44
9437.00,0.44
9436.00,0.45
9435.00,0.45
9434.00,0.45
9433.00,0.45
9432.00,0.45
9431.00,0.45
9430.00,0.45
9429.00,0.45
9428.00,0.45
9427.00,0.45
9426.00,0.45
9425.00,0.45
9424.00,0.45
9423.00,0.45
9422.00,0.45
9421.00,0.45
9420.00,0.45
9419.00,0.45
9418.00,0.45
9417.00,0.45
9416.00,0.46
9415.00,0.46
9414.00,0.46
9413.00,0.46
9412.00,0.46
9411.00,0.47
9410.00,0.47
9409.00,0.47
9408.00,0.47
9407.00,0.47
9406.00,0.47
9405.00,0.47
9404.00,0.47
9403.00,0.47
9402.00,0.47
9401.00,0.47
9400.00,0.47
9399.00,0.47
9398.00,0.47
9397.00,0.47
9396.00,0.46
9395.00,0.46
9394.00,0.46
9393.00,0.46
9392.00,0.46
9391.00,0.45
9390.00,0.45
9389.00,0.45
9388.00,0.45
9387.00,0.44
9386.00,0.44
9385.00,0.44
9384.00,0.44
9383.00,0.44
9382.00,0.44
9381.00,0.44
9380.00,0.44
9379.00,0.44
9378.00,0.44
9377.00,0.44
9376.00,0.44
9375.00,0.44
9374.00,0.45
9373.00,0.45
9372.00,0.45
9371.00,0.45
9370.00,0.45
9369.00,0.45
9368.00,0.45
9367.00,0.45
9366.00,0.45
9365.00,0.45
9364.00,0.45
9363.00,0.45
9362.00,0.45
9361.00,0.45
9360.00,0.45
9359.00,0.44
9358.00,0.44
9357.00,0.44
9356.00,0.44
9355.00,0.44
9354.00,0.44
9353.00,0.44
9352.00,0.44
9351.00,0.44
9350.00,0.44
9349.00,0.44
9348.00,0.44
9347.00,0.44
9346.00,0.44
9345.00,0.44
9344.00,0.44
9343.00,0.44
9342.00,0.43
9341.00,0.43
9340.00,0.43
9339.00,0.43
9338.00,0.43
9337.00,0.43
9336.00,0.43
9335.00,0.43
9334.00,0.43
9333.00,0.43
9332.00,0.42
9331.00,0.42
9330.00,0.42
9329.00,0.42
9328.00,0.42
9327.00,0.42
9326.00,0.43
9325.00,0.43
9324.00,0.43
9323.00,0.43
9322.00,0.43
9321.00,0.44
9320.00,0.44
9319.00,0.44
9318.00,0.45
9317.00,0.45
9316.00,0.45
9315.00,0.45
9314.00,0.46
9313.00,0.46
9312.00,0.46
9311.00,0.46
9310.00,0.46
9309.00,0.46
9308.00,0.46
9307.00,0.46
9306.00,0.46
9305.00,0.46
9304.00,0.46
9303.00,0.46
9302.00,0.45
9301.00,0.45
9300.00,0.45
9299.00,0.45
9298.00,0.44
9297.00,0.44
9296.00,0.44
9295.00,0.44
9294.00,0.44
9293.00,0.43
9292.00,0.43
9291.00,0.43
9290.00,0.43
9289.00,0.43
9288.00,0.43
9287.00,0.43
9286.00,0.43
9285.00,0.43
9284.00,0.43
9283.00,0.43
9282.00,0.43
9281.00,0.43
9280.00,0.43
9279.00,0.43
9278.00,0.43
9277.00,0.43
9276.00,0.43
9275.00,0.43
9274.00,0.44
9273.00,0.44
9272.00,0.44
9271.00,0.44
9270.00,0.44
9269.00,0.44
9268.00,0.44
9267.00,0.44
9266.00,0.44
9265.00,0.44
9264.00,0.44
9263.00,0.44
9262.00,0.44
9261.00,0.44
9260.00,0.44
9259.00,0.44
9258.00,0.44
9257.00,0.44
9256.00,0.44
9255.00,0.44
9254.00,0.44
9253.00,0.44
9252.00,0.44
9251.00,0.44
9250.00,0.44
9249.00,0.44
9248.00,0.44
9247.00,0.44
9246.00,0.44
9245.00,0.44
9244.00,0.44
9243.00,0.44
9242.00,0.44
9241.00,0.44
9240.00,0.44
9239.00,0.44
9238.00,0.44
9237.00,0.45
9236.00,0.45
9235.00,0.45
9234.00,0.45
9233.00,0.45
9232.00,0.45
9231.00,0.45
9230.00,0.45
9229.00,0.45
9228.00,0.45
9227.00,0.45
9226.00,0.45
9225.00,0.44
9224.00,0.44
9223.00,0.44
9222.00,0.44
9221.00,0.44
9220.00,0.43
9219.00,0.43
9218.00,0.43
9217.00,0.43
9216.00,0.43
9215.00,0.42
9214.00,0.42
9213.00,0.42
9212.00,0.42
9211.00,0.42
9210.00,0.42
9209.00,0.42
9208.00,0.42
9207.00,0.42
9206.00,0.42
9205.00,0.42
9204.00,0.42
9203.00,0.42
9202.00,0.42
9201.00,0.42
9200.00,0.42
9199.00,0.42
9198.00,0.43
9197.00,0.43
9196.00,0.43
9195.00,0.43
9194.00,0.43
9193.00,0.43
9192.00,0.43
9191.00,0.44
9190.00,0.44
9189.00,0.44
9188.00,0.44
9187.00,0.45
9186.00,0.45
9185.00,0.45
9184.00,0.45
9183.00,0.45
9182.00,0.46
9181.00,0.46
9180.00,0.46
9179.00,0.46
9178.00,0.46
9177.00,0.46
9176.00,0.46
9175.00,0.46
9174.00,0.46
9173.00,0.46
9172.00,0.46
9171.00,0.46
9170.00,0.46
9169.00,0.46
9168.00,0.46
9167.00,0.46
9166.00,0.46
9165.00,0.46
9164.00,0.46
9163.00,0.46
9162.00,0.45
9161.00,0.45
9160.00,0.45
9159.00,0.45
9158.00,0.45
9157.00,0.44
9156.00,0.44
9155.00,0.44
9154.00,0.44
9153.00,0.43
9152.00,0.43
9151.00,0.43
9150.00,0.43
9149.00,0.43
9148.00,0.43
9147.00,0.43
9146.00,0.43
9145.00,0.43
9144.00,0.43
9143.00,0.43
9142.00,0.43
9141.00,0.43
9140.00,0.43
9139.00,0.43
9138.00,0.43
9137.00,0.43
9136.00,0.43
9135.00,0.43
9134.00,0.43
9133.00,0.43
9132.00,0.43
9131.00,0.43
9130.00,0.43
9129.00,0.43
9128.00,0.43
9127.00,0.43
9126.00,0.43
9125.00,0.43
9124.00,0.43
9123.00,0.43
9122.00,0.44
9121.00,0.44
9120.00,0.44
9119.00,0.44
9118.00,0.44
9117.00,0.44
9116.00,0.44
9115.00,0.44
9114.00,0.44
9113.00,0.45
9112.00,0.45
9111.00,0.45
9110.00,0.45
9109.00,0.45
9108.00,0.45
9107.00,0.45
9106.00,0.45
9105.00,0.44
9104.00,0.44
9103.00,0.44
9102.00,0.44
9101.00,0.44
9100.00,0.44
9099.00,0.44
9098.00,0.43
9097.00,0.43
9096.00,0.43
9095.00,0.43
9094.00,0.43
9093.00,0.43
9092.00,0.42
9091.00,0.42
9090.00,0.42
9089.00,0.42
9088.00,0.42
9087.00,0.42
9086.00,0.42
9085.00,0.42
9084.00,0.42
9083.00,0.42
9082.00,0.42
9081.00,0.42
9080.00,0.42
9079.00,0.43
9078.00,0.43
9077.00,0.43
9076.00,0.43
9075.00,0.43
9074.00,0.43
9073.00,0.43
9072.00,0.44
9071.00,0.44
9070.00,0.44
9069.00,0.44
9068.00,0.44
9067.00,0.44
9066.00,0.44
9065.00,0.44
9064.00,0.44
9063.00,0.44
9062.00,0.44
9061.00,0.44
9060.00,0.45
9059.00,0.45
9058.00,0.45
9057.00,0.45
9056.00,0.46
9055.00,0.46
9054.00,0.46
9053.00,0.46
9052.00,0.46
9051.00,0.47
9050.00,0.47
9049.00,0.47
9048.00,0.47
9047.00,0.47
9046.00,0.47
9045.00,0.47
9044.00,0.47
9043.00,0.47
9042.00,0.47
9041.00,0.47
9040.00,0.47
9039.00,0.47
9038.00,0.47
9037.00,0.47
9036.00,0.47
9035.00,0.47
9034.00,0.47
9033.00,0.47
9032.00,0.47
9031.00,0.47
9030.00,0.46
9029.00,0.46
9028.00,0.46
9027.00,0.46
9026.00,0.46
9025.00,0.45
9024.00,0.45
9023.00,0.45
9022.00,0.45
9021.00,0.45
9020.00,0.45
9019.00,0.44
9018.00,0.44
9017.00,0.44
9016.00,0.44
9015.00,0.44
9014.00,0.44
9013.00,0.44
9012.00,0.44
9011.00,0.44
9010.00,0.45
9009.00,0.45
9008.00,0.45
9007.00,0.45
9006.00,0.45
9005.00,0.45
9004.00,0.45
9003.00,0.46
9002.00,0.46
9001.00,0.46
9000.00,0.46
8999.00,0.46
8998.00,0.46
8997.00,0.47
8996.00,0.47
8995.00,0.47
8994.00,0.47
8993.00,0.47
8992.00,0.47
8991.00,0.47
8990.00,0.47
8989.00,0.47
8988.00,0.47
8987.00,0.47
8986.00,0.47
8985.00,0.47
8984.00,0.46
8983.00,0.46
8982.00,0.46
8981.00,0.46
8980.00,0.46
8979.00,0.45
8978.00,0.45
8977.00,0.45
8976.00,0.45
8975.00,0.45
8974.00,0.44
8973.00,0.44
8972.00,0.44
8971.00,0.44
8970.00,0.44
8969.00,0.44
8968.00,0.44
8967.00,0.44
8966.00,0.44
8965.00,0.44
8964.00,0.45
8963.00,0.45
8962.00,0.45
8961.00,0.45
8960.00,0.45
8959.00,0.45
8958.00,0.45
8957.00,0.45
8956.00,0.45
8955.00,0.45
8954.00,0.45
8953.00,0.45
8952.00,0.44
8951.00,0.44
8950.00,0.44
8949.00,0.44
8948.00,0.44
8947.00,0.44
8946.00,0.44
8945.00,0.44
8944.00,0.44
8943.00,0.44
8942.00,0.44
8941.00,0.44
8940.00,0.44
8939.00,0.44
8938.00,0.44
8937.00,0.44
8936.00,0.44
8935.00,0.44
8934.00,0.44
8933.00,0.44
8932.00,0.44
8931.00,0.44
8930.00,0.45
8929.00,0.45
8928.00,0.45
8927.00,0.45
8926.00,0.45
8925.00,0.45
8924.00,0.45
8923.00,0.45
8922.00,0.46
8921.00,0.46
8920.00,0.46
8919.00,0.46
8918.00,0.46
8917.00,0.46
8916.00,0.46
8915.00,0.46
8914.00,0.46
8913.00,0.46
8912.00,0.46
8911.00,0.46
8910.00,0.46
8909.00,0.46
8908.00,0.46
8907.00,0.46
8906.00,0.46
8905.00,0.46
8904.00,0.46
8903.00,0.46
8902.00,0.46
8901.00,0.46
8900.00,0.46
8899.00,0.46
8898.00,0.46
8897.00,0.46
8896.00,0.45
8895.00,0.45
8894.00,0.45
8893.00,0.45
8892.00,0.45
8891.00,0.45
8890.00,0.45
8889.00,0.45
8888.00,0.45
8887.00,0.45
8886.00,0.45
8885.00,0.45
8884.00,0.45
8883.00,0.45
8882.00,0.45
8881.00,0.45
8880.00,0.45
8879.00,0.45
8878.00,0.46
8877.00,0.46
8876.00,0.46
8875.00,0.46
8874.00,0.46
8873.00,0.46
8872.00,0.46
8871.00,0.46
8870.00,0.46
8869.00,0.46
8868.00,0.47
8867.00,0.47
8866.00,0.47
8865.00,0.47
8864.00,0.47
8863.00,0.47
8862.00,0.47
8861.00,0.46
8860.00,0.46
8859.00,0.46
8858.00,0.46
8857.00,0.46
8856.00,0.46
8855.00,0.46
8854.00,0.46
8853.00,0.46
8852.00,0.46
8851.00,0.46
8850.00,0.46
8849.00,0.46
8848.00,0.46
8847.00,0.45
8846.00,0.45
8845.00,0.45
8844.00,0.45
8843.00,0.45
8842.00,0.45
8841.00,0.45
8840.00,0.45
8839.00,0.45
8838.00,0.45
8837.00,0.45
8836.00,0.45
8835.00,0.45
8834.00,0.45
8833.00,0.45
8832.00,0.45
8831.00,0.45
8830.00,0.45
8829.00,0.45
8828.00,0.45
8827.00,0.45
8826.00,0.44
8825.00,0.44
8824.00,0.44
8823.00,0.44
8822.00,0.44
8821.00,0.44
8820.00,0.44
8819.00,0.43
8818.00,0.43
8817.00,0.43
8816.00,0.43
8815.00,0.43
8814.00,0.43
8813.00,0.43
8812.00,0.44
8811.00,0.44
8810.00,0.44
8809.00,0.44
8808.00,0.44
8807.00,0.44
8806.00,0.45
8805.00,0.45
8804.00,0.45
8803.00,0.45
8802.00,0.45
8801.00,0.45
8800.00,0.45
8799.00,0.45
8798.00,0.45
8797.00,0.45
8796.00,0.45
8795.00,0.45
8794.00,0.45
8793.00,0.45
8792.00,0.45
8791.00,0.45
8790.00,0.45
8789.00,0.45
8788.00,0.45
8787.00,0.45
8786.00,0.45
8785.00,0.45
8784.00,0.45
8783.00,0.46
8782.00,0.46
8781.00,0.46
8780.00,0.46
8779.00,0.46
8778.00,0.46
8777.00,0.46
8776.00,0.46
8775.00,0.47
8774.00,0.47
8773.00,0.47
8772.00,0.46
8771.00,0.46
8770.00,0.46
8769.00,0.46
8768.00,0.46
8767.00,0.46
8766.00,0.46
8765.00,0.45
8764.00,0.45
8763.00,0.45
8762.00,0.45
8761.00,0.45
8760.00,0.45
8759.00,0.44
8758.00,0.44
8757.00,0.44
8756.00,0.44
8755.00,0.44
8754.00,0.44
8753.00,0.44
8752.00,0.44
8751.00,0.44
8750.00,0.44
8749.00,0.44
8748.00,0.44
8747.00,0.44
8746.00,0.44
8745.00,0.44
8744.00,0.44
8743.00,0.44
8742.00,0.44
8741.00,0.44
8740.00,0.44
8739.00,0.43
8738.00,0.43
8737.00,0.43
8736.00,0.43
8735.00,0.43
8734.00,0.43
8733.00,0.43
8732.00,0.43
8731.00,0.43
8730.00,0.43
8729.00,0.43
8728.00,0.43
8727.00,0.43
8726.00,0.43
8725.00,0.43
8724.00,0.43
8723.00,0.43
8722.00,0.43
8721.00,0.43
8720.00,0.43
8719.00,0.43
8718.00,0.43
8717.00,0.43
8716.00,0.43
8715.00,0.43
8714.00,0.43
8713.00,0.43
8712.00,0.43
8711.00,0.44
8710.00,0.44
8709.00,0.44
8708.00,0.44
8707.00,0.44
8706.00,0.44
8705.00,0.45
8704.00,0.45
8703.00,0.45
8702.00,0.45
8701.00,0.46
8700.00,0.46
8699.00,0.46
8698.00,0.46
8697.00,0.46
8696.00,0.46
8695.00,0.46
8694.00,0.46
8693.00,0.46
8692.00,0.46
8691.00,0.46
8690.00,0.46
8689.00,0.46
8688.00,0.46
8687.00,0.46
8686.00,0.46
8685.00,0.46
8684.00,0.46
8683.00,0.46
8682.00,0.46
8681.00,0.45
8680.00,0.45
8679.00,0.45
8678.00,0.45
8677.00,0.45
8676.00,0.45
8675.00,0.45
8674.00,0.45
8673.00,0.45
8672.00,0.45
8671.00,0.45
8670.00,0.45
8669.00,0.45
8668.00,0.45
8667.00,0.45
8666.00,0.45
8665.00,0.45
8664.00,0.46
8663.00,0.46
8662.00,0.46
8661.00,0.45
8660.00,0.45
8659.00,0.45
8658.00,0.45
8657.00,0.45
8656.00,0.45
8655.00,0.45
8654.00,0.45
8653.00,0.45
8652.00,0.45
8651.00,0.45
8650.00,0.45
8649.00,0.45
8648.00,0.45
8647.00,0.45
8646.00,0.45
8645.00,0.45
8644.00,0.45
8643.00,0.45
8642.00,0.45
8641.00,0.45
8640.00,0.45
8639.00,0.45
8638.00,0.45
8637.00,0.45
8636.00,0.45
8635.00,0.45
8634.00,0.45
8633.00,0.45
8632.00,0.45
8631.00,0.45
8630.00,0.45
8629.00,0.45
8628.00,0.45
8627.00,0.45
8626.00,0.45
8625.00,0.45
8624.00,0.45
8623.00,0.45
8622.00,0.45
8621.00,0.45
8620.00,0.45
8619.00,0.45
8618.00,0.45
8617.00,0.45
8616.00,0.45
8615.00,0.45
8614.00,0.45
8613.00,0.45
8612.00,0.45
8611.00,0.45
8610.00,0.45
8609.00,0.45
8608.00,0.45
8607.00,0.45
8606.00,0.45
8605.00,0.45
8604.00,0.45
8603.00,0.45
8602.00,0.45
8601.00,0.45
8600.00,0.45
8599.00,0.45
8598.00,0.45
8597.00,0.45
8596.00,0.45
8595.00,0.45
8594.00,0.45
8593.00,0.45
8592.00,0.45
8591.00,0.45
8590.00,0.45
8589.00,0.45
8588.00,0.45
8587.00,0.45
8586.00,0.45
8585.00,0.45
8584.00,0.45
8583.00,0.45
8582.00,0.45
8581.00,0.45
8580.00,0.45
8579.00,0.45
8578.00,0.45
8577.00,0.45
8576.00,0.45
8575.00,0.45
8574.00,0.45
8573.00,0.45
8572.00,0.45
8571.00,0.44
8570.00,0.44
8569.00,0.44
8568.00,0.44
8567.00,0.44
8566.00,0.44
8565.00,0.43
8564.00,0.43
8563.00,0.43
8562.00,0.43
8561.00,0.43
8560.00,0.43
8559.00,0.43
8558.00,0.43
8557.00,0.43
8556.00,0.43
8555.00,0.43
8554.00,0.43
8553.00,0.44
8552.00,0.44
8551.00,0.44
8550.00,0.44
8549.00,0.45
8548.00,0.45
8547.00,0.45
8546.00,0.45
8545.00,0.45
8544.00,0.46
8543.00,0.46
8542.00,0.46
8541.00,0.46
8540.00,0.46
8539.00,0.46
8538.00,0.46
8537.00,0.46
8536.00,0.46
8535.00,0.46
8534.00,0.46
8533.00,0.46
8532.00,0.45
8531.00,0.45
8530.00,0.45
8529.00,0.45
8528.00,0.45
8527.00,0.45
8526.00,0.45
8525.00,0.44
8524.00,0.44
8523.00,0.44
8522.00,0.44
8521.00,0.44
8520.00,0.43
8519.00,0.43
8518.00,0.43
8517.00,0.43
8516.00,0.43
8515.00,0.43
8514.00,0.43
8513.00,0.43
8512.00,0.42
8511.00,0.42
8510.00,0.42
8509.00,0.42
8508.00,0.42
8507.00,0.42
8506.00,0.42
8505.00,0.42
8504.00,0.43
8503.00,0.43
8502.00,0.43
8501.00,0.43
8500.00,0.43
8499.00,0.43
8498.00,0.43
8497.00,0.43
8496.00,0.43
8495.00,0.43
8494.00,0.43
8493.00,0.43
8492.00,0.43
8491.00,0.43
8490.00,0.43
8489.00,0.43
8488.00,0.42
8487.00,0.42
8486.00,0.42
8485.00,0.42
8484.00,0.42
8483.00,0.42
8482.00,0.42
8481.00,0.42
8480.00,0.41
8479.00,0.41
8478.00,0.41
8477.00,0.41
8476.00,0.41
8475.00,0.41
8474.00,0.41
8473.00,0.41
8472.00,0.41
8471.00,0.42
8470.00,0.42
8469.00,0.42
8468.00,0.42
8467.00,0.42
8466.00,0.42
8465.00,0.42
8464.00,0.43
8463.00,0.43
8462.00,0.43
8461.00,0.43
8460.00,0.43
8459.00,0.43
8458.00,0.43
8457.00,0.44
8456.00,0.44
8455.00,0.44
8454.00,0.44
8453.00,0.44
8452.00,0.44
8451.00,0.44
8450.00,0.44
8449.00,0.44
8448.00,0.44
8447.00,0.44
8446.00,0.44
8445.00,0.44
8444.00,0.44
8443.00,0.44
8442.00,0.43
8441.00,0.43
8440.00,0.43
8439.00,0.43
8438.00,0.43
8437.00,0.43
8436.00,0.43
8435.00,0.43
8434.00,0.42
8433.00,0.42
8432.00,0.42
8431.00,0.42
8430.00,0.42
8429.00,0.42
8428.00,0.42
8427.00,0.42
8426.00,0.43
8425.00,0.43
8424.00,0.43
8423.00,0.43
8422.00,0.43
8421.00,0.43
8420.00,0.43
8419.00,0.43
8418.00,0.44
8417.00,0.44
8416.00,0.44
8415.00,0.44
8414.00,0.44
8413.00,0.44
8412.00,0.44
8411.00,0.44
8410.00,0.44
8409.00,0.44
8408.00,0.44
8407.00,0.44
8406.00,0.44
8405.00,0.44
8404.00,0.44
8403.00,0.44
8402.00,0.44
8401.00,0.44
8400.00,0.44
8399.00,0.44
8398.00,0.44
8397.00,0.44
8396.00,0.44
8395.00,0.44
8394.00,0.43
8393.00,0.43
8392.00,0.43
8391.00,0.43
8390.00,0.43
8389.00,0.43
8388.00,0.43
8387.00,0.43
8386.00,0.43
8385.00,0.43
8384.00,0.43
8383.00,0.43
8382.00,0.44
8381.00,0.44
8380.00,0.44
8379.00,0.44
8378.00,0.44
8377.00,0.44
8376.00,0.44
8375.00,0.44
8374.00,0.44
8373.00,0.44
8372.00,0.44
8371.00,0.44
8370.00,0.44
8369.00,0.44
8368.00,0.44
8367.00,0.44
8366.00,0.44
8365.00,0.44
8364.00,0.44
8363.00,0.44
8362.00,0.44
8361.00,0.44
8360.00,0.44
8359.00,0.44
8358.00,0.44
8357.00,0.44
8356.00,0.44
8355.00,0.44
8354.00,0.44
8353.00,0.44
8352.00,0.44
8351.00,0.44
8350.00,0.44
8349.00,0.44
8348.00,0.44
8347.00,0.44
8346.00,0.44
8345.00,0.44
8344.00,0.44
8343.00,0.44
8342.00,0.44
8341.00,0.44
8340.00,0.43
8339.00,0.43
8338.00,0.43
8337.00,0.43
8336.00,0.43
8335.00,0.43
8334.00,0.43
8333.00,0.43
8332.00,0.43
8331.00,0.43
8330.00,0.43
8329.00,0.43
8328.00,0.43
8327.00,0.43
8326.00,0.43
8325.00,0.43
8324.00,0.43
8323.00,0.43
8322.00,0.43
8321.00,0.43
8320.00,0.43
8319.00,0.43
8318.00,0.43
8317.00,0.43
8316.00,0.44
8315.00,0.44
8314.00,0.44
8313.00,0.44
8312.00,0.44
8311.00,0.44
8310.00,0.44
8309.00,0.44
8308.00,0.44
8307.00,0.44
8306.00,0.44
8305.00,0.44
8304.00,0.44
8303.00,0.44
8302.00,0.44
8301.00,0.44
8300.00,0.44
8299.00,0.44
8298.00,0.44
8297.00,0.45
8296.00,0.45
8295.00,0.45
8294.00,0.45
8293.00,0.45
8292.00,0.45
8291.00,0.45
8290.00,0.45
8289.00,0.45
8288.00,0.45
8287.00,0.44
8286.00,0.44
8285.00,0.44
8284.00,0.44
8283.00,0.44
8282.00,0.44
8281.00,0.44
8280.00,0.44
8279.00,0.43
8278.00,0.43
8277.00,0.43
8276.00,0.43
8275.00,0.43
8274.00,0.43
8273.00,0.43
8272.00,0.43
8271.00,0.42
8270.00,0.42
8269.00,0.42
8268.00,0.42
8267.00,0.42
8266.00,0.42
8265.00,0.42
8264.00,0.42
8263.00,0.42
8262.00,0.43
8261.00,0.43
8260.00,0.43
8259.00,0.43
8258.00,0.43
8257.00,0.43
8256.00,0.43
8255.00,0.44
8254.00,0.44
8253.00,0.44
8252.00,0.44
8251.00,0.44
8250.00,0.44
8249.00,0.44
8248.00,0.44
8247.00,0.44
8246.00,0.44
8245.00,0.44
8244.00,0.44
8243.00,0.44
8242.00,0.44
8241.00,0.44
8240.00,0.44
8239.00,0.44
8238.00,0.44
8237.00,0.44
8236.00,0.44
8235.00,0.44
8234.00,0.44
8233.00,0.44
8232.00,0.44
8231.00,0.44
8230.00,0.44
8229.00,0.44
8228.00,0.44
8227.00,0.44
8226.00,0.44
8225.00,0.44
8224.00,0.44
8223.00,0.44
8222.00,0.44
8221.00,0.44
8220.00,0.44
8219.00,0.44
8218.00,0.44
8217.00,0.44
8216.00,0.44
8215.00,0.44
8214.00,0.45
8213.00,0.45
8212.00,0.45
8211.00,0.45
8210.00,0.45
8209.00,0.45
8208.00,0.45
8207.00,0.45
8206.00,0.45
8205.00,0.45
8204.00,0.45
8203.00,0.45
8202.00,0.45
8201.00,0.45
8200.00,0.45
8199.00,0.45
8198.00,0.45
8197.00,0.45
8196.00,0.45
8195.00,0.45
8194.00,0.45
8193.00,0.45
8192.00,0.45
8191.00,0.45
8190.00,0.45
8189.00,0.45
8188.00,0.45
8187.00,0.45
8186.00,0.45
8185.00,0.45
8184.00,0.45
8183.00,0.45
8182.00,0.45
8181.00,0.45
8180.00,0.45
8179.00,0.45
8178.00,0.45
8177.00,0.45
8176.00,0.45
8175.00,0.45
8174.00,0.45
8173.00,0.45
8172.00,0.45
8171.00,0.45
8170.00,0.45
8169.00,0.45
8168.00,0.45
8167.00,0.46
8166.00,0.46
8165.00,0.46
8164.00,0.46
8163.00,0.46
8162.00,0.46
8161.00,0.46
8160.00,0.46
8159.00,0.46
8158.00,0.46
8157.00,0.46
8156.00,0.46
8155.00,0.46
8154.00,0.46
8153.00,0.46
8152.00,0.46
8151.00,0.46
8150.00,0.46
8149.00,0.46
8148.00,0.46
8147.00,0.45
8146.00,0.45
8145.00,0.45
8144.00,0.45
8143.00,0.45
8142.00,0.45
8141.00,0.45
8140.00,0.45
8139.00,0.45
8138.00,0.45
8137.00,0.45
8136.00,0.45
8135.00,0.45
8134.00,0.45
8133.00,0.45
8132.00,0.45
8131.00,0.45
8130.00,0.45
8129.00,0.45
8128.00,0.45
8127.00,0.45
8126.00,0.45
8125.00,0.45
8124.00,0.45
8123.00,0.45
8122.00,0.45
8121.00,0.45
8120.00,0.45
8119.00,0.45
8118.00,0.45
8117.00,0.45
8116.00,0.45
8115.00,0.45
8114.00,0.45
8113.00,0.45
8112.00,0.45
8111.00,0.45
8110.00,0.45
8109.00,0.45
8108.00,0.45
8107.00,0.45
8106.00,0.45
8105.00,0.45
8104.00,0.45
8103.00,0.45
8102.00,0.45
8101.00,0.45
8100.00,0.45
8099.00,0.45
8098.00,0.45
8097.00,0.45
8096.00,0.45
8095.00,0.45
8094.00,0.45
8093.00,0.45
8092.00,0.45
8091.00,0.45
8090.00,0.45
8089.00,0.45
8088.00,0.45
8087.00,0.45
8086.00,0.45
8085.00,0.45
8084.00,0.45
8083.00,0.45
8082.00,0.45
8081.00,0.45
8080.00,0.45
8079.00,0.45
8078.00,0.45
8077.00,0.45
8076.00,0.45
8075.00,0.45
8074.00,0.46
8073.00,0.46
8072.00,0.46
8071.00,0.46
8070.00,0.46
8069.00,0.46
8068.00,0.46
8067.00,0.46
8066.00,0.46
8065.00,0.47
8064.00,0.47
8063.00,0.47
8062.00,0.47
8061.00,0.47
8060.00,0.47
8059.00,0.47
8058.00,0.47
8057.00,0.47
8056.00,0.47
8055.00,0.47
8054.00,0.47
8053.00,0.47
8052.00,0.46
8051.00,0.46
8050.00,0.46
8049.00,0.46
8048.00,0.46
8047.00,0.46
8046.00,0.46
8045.00,0.46
8044.00,0.46
8043.00,0.46
8042.00,0.46
8041.00,0.46
8040.00,0.46
8039.00,0.46
8038.00,0.46
8037.00,0.46
8036.00,0.46
8035.00,0.46
8034.00,0.46
8033.00,0.46
8032.00,0.46
8031.00,0.46
8030.00,0.46
8029.00,0.46
8028.00,0.46
8027.00,0.46
8026.00,0.46
8025.00,0.46
8024.00,0.46
8023.00,0.46
8022.00,0.46
8021.00,0.46
8020.00,0.46
8019.00,0.46
8018.00,0.45
8017.00,0.45
8016.00,0.45
8015.00,0.45
8014.00,0.45
8013.00,0.45
8012.00,0.45
8011.00,0.45
8010.00,0.45
8009.00,0.45
8008.00,0.45
8007.00,0.46
8006.00,0.46
8005.00,0.46
8004.00,0.46
8003.00,0.46
8002.00,0.46
8001.00,0.46
8000.00,0.46
7999.00,0.46
7998.00,0.46
7997.00,0.46
7996.00,0.46
7995.00,0.46
7994.00,0.46
7993.00,0.46
7992.00,0.46
7991.00,0.46
7990.00,0.46
7989.00,0.46
7988.00,0.46
7987.00,0.46
7986.00,0.46
7985.00,0.46
7984.00,0.46
7983.00,0.46
7982.00,0.46
7981.00,0.46
7980.00,0.46
7979.00,0.46
7978.00,0.46
7977.00,0.46
7976.00,0.46
7975.00,0.46
7974.00,0.46
7973.00,0.46
7972.00,0.46
7971.00,0.46
7970.00,0.46
7969.00,0.46
7968.00,0.46
7967.00,0.46
7966.00,0.46
7965.00,0.46
7964.00,0.46
7963.00,0.46
7962.00,0.46
7961.00,0.46
7960.00,0.46
7959.00,0.46
7958.00,0.46
7957.00,0.46
7956.00,0.46
7955.00,0.46
7954.00,0.47
7953.00,0.47
7952.00,0.47
7951.00,0.47
7950.00,0.47
7949.00,0.47
7948.00,0.47
7947.00,0.47
7946.00,0.47
7945.00,0.47
7944.00,0.47
7943.00,0.47
7942.00,0.47
7941.00,0.47
7940.00,0.47
7939.00,0.47
7938.00,0.47
7937.00,0.47
7936.00,0.47
7935.00,0.47
7934.00,0.47
7933.00,0.47
7932.00,0.47
7931.00,0.47
7930.00,0.47
7929.00,0.47
7928.00,0.48
7927.00,0.48
7926.00,0.48
7925.00,0.48
7924.00,0.48
7923.00,0.48
7922.00,0.47
7921.00,0.47
7920.00,0.47
7919.00,0.47
7918.00,0.47
7917.00,0.47
7916.00,0.47
7915.00,0.47
7914.00,0.47
7913.00,0.47
7912.00,0.47
7911.00,0.47
7910.00,0.47
7909.00,0.47
7908.00,0.47
7907.00,0.47
7906.00,0.47
7905.00,0.47
7904.00,0.47
7903.00,0.47
7902.00,0.46
7901.00,0.46
7900.00,0.46
7899.00,0.46
7898.00,0.46
7897.00,0.46
7896.00,0.46
7895.00,0.46
7894.00,0.46
7893.00,0.46
7892.00,0.46
7891.00,0.46
7890.00,0.46
7889.00,0.46
7888.00,0.46
7887.00,0.46
7886.00,0.45
7885.00,0.45
7884.00,0.45
7883.00,0.45
7882.00,0.45
7881.00,0.45
7880.00,0.45
7879.00,0.45
7878.00,0.45
7877.00,0.46
7876.00,0.46
7875.00,0.46
7874.00,0.46
7873.00,0.46
7872.00,0.46
7871.00,0.46
7870.00,0.46
7869.00,0.46
7868.00,0.46
7867.00,0.46
7866.00,0.46
7865.00,0.46
7864.00,0.46
7863.00,0.46
7862.00,0.46
7861.00,0.46
7860.00,0.46
7859.00,0.46
7858.00,0.46
7857.00,0.46
7856.00,0.46
7855.00,0.46
7854.00,0.46
7853.00,0.46
7852.00,0.46
7851.00,0.46
7850.00,0.46
7849.00,0.46
7848.00,0.45
7847.00,0.45
7846.00,0.45
7845.00,0.45
7844.00,0.45
7843.00,0.45
7842.00,0.45
7841.00,0.45
7840.00,0.45
7839.00,0.46
7838.00,0.46
7837.00,0.46
7836.00,0.46
7835.00,0.46
7834.00,0.46
7833.00,0.46
7832.00,0.46
7831.00,0.46
7830.00,0.46
7829.00,0.47
7828.00,0.47
7827.00,0.47
7826.00,0.47
7825.00,0.47
7824.00,0.47
7823.00,0.47
7822.00,0.47
7821.00,0.47
7820.00,0.47
7819.00,0.47
7818.00,0.47
7817.00,0.47
7816.00,0.47
7815.00,0.47
7814.00,0.47
7813.00,0.47
7812.00,0.47
7811.00,0.47
7810.00,0.47
7809.00,0.47
7808.00,0.47
7807.00,0.47
7806.00,0.47
7805.00,0.47
7804.00,0.47
7803.00,0.47
7802.00,0.47
7801.00,0.47
7800.00,0.47
7799.00,0.47
7798.00,0.47
7797.00,0.47
7796.00,0.47
7795.00,0.47
7794.00,0.47
7793.00,0.47
7792.00,0.47
7791.00,0.47
7790.00,0.47
7789.00,0.47
7788.00,0.47
7787.00,0.47
7786.00,0.47
7785.00,0.47
7784.00,0.47
7783.00,0.47
7782.00,0.47
7781.00,0.47
7780.00,0.47
7779.00,0.47
7778.00,0.47
7777.00,0.47
7776.00,0.47
7775.00,0.47
7774.00,0.47
7773.00,0.47
7772.00,0.47
7771.00,0.47
7770.00,0.47
7769.00,0.47
7768.00,0.47
7767.00,0.47
7766.00,0.47
7765.00,0.47
7764.00,0.47
7763.00,0.47
7762.00,0.47
7761.00,0.47
7760.00,0.47
7759.00,0.47
7758.00,0.47
7757.00,0.47
7756.00,0.47
7755.00,0.47
7754.00,0.47
7753.00,0.47
7752.00,0.47
7751.00,0.47
7750.00,0.47
7749.00,0.47
7748.00,0.46
7747.00,0.46
7746.00,0.46
7745.00,0.46
7744.00,0.46
7743.00,0.46
7742.00,0.46
7741.00,0.46
7740.00,0.46
7739.00,0.46
7738.00,0.46
7737.00,0.47
7736.00,0.47
7735.00,0.47
7734.00,0.47
7733.00,0.47
7732.00,0.47
7731.00,0.47
7730.00,0.47
7729.00,0.47
7728.00,0.47
7727.00,0.47
7726.00,0.47
7725.00,0.47
7724.00,0.47
7723.00,0.47
7722.00,0.47
7721.00,0.47
7720.00,0.47
7719.00,0.47
7718.00,0.47
7717.00,0.47
7716.00,0.47
7715.00,0.47
7714.00,0.47
7713.00,0.47
7712.00,0.47
7711.00,0.47
7710.00,0.47
7709.00,0.47
7708.00,0.47
7707.00,0.47
7706.00,0.47
7705.00,0.47
7704.00,0.47
7703.00,0.47
7702.00,0.47
7701.00,0.47
7700.00,0.47
7699.00,0.47
7698.00,0.47
7697.00,0.47
7696.00,0.47
7695.00,0.47
7694.00,0.47
7693.00,0.47
7692.00,0.47
7691.00,0.47
7690.00,0.47
7689.00,0.47
7688.00,0.47
7687.00,0.47
7686.00,0.47
7685.00,0.47
7684.00,0.47
7683.00,0.47
7682.00,0.47
7681.00,0.47
7680.00,0.47
7679.00,0.47
7678.00,0.47
7677.00,0.47
7676.00,0.47
7675.00,0.47
7674.00,0.47
7673.00,0.47
7672.00,0.47
7671.00,0.47
7670.00,0.47
7669.00,0.47
7668.00,0.47
7667.00,0.47
7666.00,0.47
7665.00,0.47
7664.00,0.47
7663.00,0.47
7662.00,0.47
7661.00,0.47
7660.00,0.48
7659.00,0.48
7658.00,0.48
7657.00,0.48
7656.00,0.48
7655.00,0.48
7654.00,0.48
7653.00,0.48
7652.00,0.48
7651.00,0.48
7650.00,0.48
7649.00,0.48
7648.00,0.48
7647.00,0.47
7646.00,0.47
7645.00,0.47
7644.00,0.47
7643.00,0.47
7642.00,0.47
7641.00,0.47
7640.00,0.47
7639.00,0.47
7638.00,0.47
7637.00,0.47
7636.00,0.47
7635.00,0.47
7634.00,0.47
7633.00,0.47
7632.00,0.47
7631.00,0.47
7630.00,0.47
7629.00,0.47
7628.00,0.47
7627.00,0.47
7626.00,0.47
7625.00,0.47
7624.00,0.47
7623.00,0.47
7622.00,0.47
7621.00,0.47
7620.00,0.47
7619.00,0.47
7618.00,0.47
7617.00,0.47
7616.00,0.47
7615.00,0.47
7614.00,0.47
7613.00,0.47
7612.00,0.47
7611.00,0.47
7610.00,0.47
7609.00,0.47
7608.00,0.47
7607.00,0.47
7606.00,0.47
7605.00,0.47
7604.00,0.47
7603.00,0.47
7602.00,0.47
7601.00,0.47
7600.00,0.47
7599.00,0.47
7598.00,0.47
7597.00,0.47
7596.00,0.47
7595.00,0.47
7594.00,0.47
7593.00,0.47
7592.00,0.47
7591.00,0.47
7590.00,0.47
7589.00,0.47
7588.00,0.47
7587.00,0.47
7586.00,0.47
7585.00,0.47
7584.00,0.47
7583.00,0.47
7582.00,0.47
7581.00,0.47
7580.00,0.47
7579.00,0.47
7578.00,0.47
7577.00,0.47
7576.00,0.47
7575.00,0.48
7574.00,0.48
7573.00,0.48
7572.00,0.48
7571.00,0.48
7570.00,0.48
7569.00,0.47
7568.00,0.47
7567.00,0.47
7566.00,0.47
7565.00,0.47
7564.00,0.47
7563.00,0.47
7562.00,0.47
7561.00,0.47
7560.00,0.47
7559.00,0.47
7558.00,0.47
7557.00,0.47
7556.00,0.47
7555.00,0.47
7554.00,0.47
7553.00,0.47
7552.00,0.47
7551.00,0.47
7550.00,0.47
7549.00,0.47
7548.00,0.47
7547.00,0.47
7546.00,0.47
7545.00,0.47
7544.00,0.47
7543.00,0.47
7542.00,0.47
7541.00,0.47
7540.00,0.47
7539.00,0.47
7538.00,0.47
7537.00,0.47
7536.00,0.47
7535.00,0.46
7534.00,0.46
7533.00,0.46
7532.00,0.46
7531.00,0.46
7530.00,0.46
7529.00,0.46
7528.00,0.46
7527.00,0.46
7526.00,0.46
7525.00,0.46
7524.00,0.46
7523.00,0.47
7522.00,0.47
7521.00,0.47
7520.00,0.47
7519.00,0.47
7518.00,0.47
7517.00,0.47
7516.00,0.47
7515.00,0.47
7514.00,0.47
7513.00,0.47
7512.00,0.47
7511.00,0.47
7510.00,0.47
7509.00,0.47
7508.00,0.47
7507.00,0.47
7506.00,0.47
7505.00,0.47
7504.00,0.47
7503.00,0.47
7502.00,0.47
7501.00,0.47
7500.00,0.47
7499.00,0.47
7498.00,0.47
7497.00,0.47
7496.00,0.47
7495.00,0.47
7494.00,0.47
7493.00,0.47
7492.00,0.47
7491.00,0.47
7490.00,0.47
7489.00,0.47
7488.00,0.47
7487.00,0.47
7486.00,0.47
7485.00,0.47
7484.00,0.47
7483.00,0.47
7482.00,0.47
7481.00,0.46
7480.00,0.46
7479.00,0.46
7478.00,0.46
7477.00,0.46
7476.00,0.46
7475.00,0.46
7474.00,0.46
7473.00,0.46
7472.00,0.46
7471.00,0.46
7470.00,0.46
7469.00,0.46
7468.00,0.46
7467.00,0.46
7466.00,0.46
7465.00,0.46
7464.00,0.46
7463.00,0.46
7462.00,0.46
7461.00,0.46
7460.00,0.46
7459.00,0.46
7458.00,0.46
7457.00,0.46
7456.00,0.46
7455.00,0.46
7454.00,0.46
7453.00,0.46
7452.00,0.46
7451.00,0.46
7450.00,0.46
7449.00,0.46
7448.00,0.46
7447.00,0.46
7446.00,0.46
7445.00,0.46
7444.00,0.46
7443.00,0.46
7442.00,0.46
7441.00,0.46
7440.00,0.46
7439.00,0.46
7438.00,0.46
7437.00,0.46
7436.00,0.46
7435.00,0.46
7434.00,0.46
7433.00,0.46
7432.00,0.46
7431.00,0.46
7430.00,0.46
7429.00,0.46
7428.00,0.46
7427.00,0.46
7426.00,0.46
7425.00,0.46
7424.00,0.46
7423.00,0.46
7422.00,0.46
7421.00,0.46
7420.00,0.46
7419.00,0.45
7418.00,0.45
7417.00,0.45
7416.00,0.45
7415.00,0.45
7414.00,0.45
7413.00,0.45
7412.00,0.45
7411.00,0.45
7410.00,0.45
7409.00,0.45
7408.00,0.45
7407.00,0.45
7406.00,0.45
7405.00,0.45
7404.00,0.45
7403.00,0.44
7402.00,0.44
7401.00,0.44
7400.00,0.44
7399.00,0.44
7398.00,0.44
7397.00,0.44
7396.00,0.44
7395.00,0.44
7394.00,0.44
7393.00,0.44
7392.00,0.44
7391.00,0.44
7390.00,0.44
7389.00,0.44
7388.00,0.44
7387.00,0.44
7386.00,0.44
7385.00,0.44
7384.00,0.44
7383.00,0.44
7382.00,0.44
7381.00,0.44
7380.00,0.44
7379.00,0.44
7378.00,0.44
7377.00,0.44
7376.00,0.44
7375.00,0.44
7374.00,0.44
7373.00,0.44
7372.00,0.44
7371.00,0.44
7370.00,0.44
7369.00,0.44
7368.00,0.44
7367.00,0.44
7366.00,0.44
7365.00,0.44
7364.00,0.44
7363.00,0.44
7362.00,0.44
7361.00,0.44
7360.00,0.44
7359.00,0.44
7358.00,0.44
7357.00,0.44
7356.00,0.44
7355.00,0.44
7354.00,0.44
7353.00,0.44
7352.00,0.44
7351.00,0.44
7350.00,0.44
7349.00,0.44
7348.00,0.44
7347.00,0.43
7346.00,0.43
7345.00,0.43
7344.00,0.43
7343.00,0.43
7342.00,0.43
7341.00,0.43
7340.00,0.43
7339.00,0.43
7338.00,0.43
7337.00,0.43
7336.00,0.44
7335.00,0.44
7334.00,0.44
7333.00,0.44
7332.00,0.44
7331.00,0.44
7330.00,0.44
7329.00,0.44
7328.00,0.44
7327.00,0.44
7326.00,0.44
7325.00,0.44
7324.00,0.44
7323.00,0.43
7322.00,0.43
7321.00,0.43
7320.00,0.43
7319.00,0.43
7318.00,0.43
7317.00,0.43
7316.00,0.43
7315.00,0.43
7314.00,0.43
7313.00,0.43
7312.00,0.43
7311.00,0.43
7310.00,0.43
7309.00,0.43
7308.00,0.43
7307.00,0.43
7306.00,0.43
7305.00,0.43
7304.00,0.43
7303.00,0.43
7302.00,0.43
7301.00,0.43
7300.00,0.43
7299.00,0.43
7298.00,0.43
7297.00,0.43
7296.00,0.43
7295.00,0.43
7294.00,0.43
7293.00,0.43
7292.00,0.43
7291.00,0.43
7290.00,0.43
7289.00,0.43
7288.00,0.43
7287.00,0.43
7286.00,0.43
7285.00,0.43
7284.00,0.43
7283.00,0.43
7282.00,0.43
7281.00,0.43
7280.00,0.43
7279.00,0.43
7278.00,0.43
7277.00,0.43
7276.00,0.43
7275.00,0.43
7274.00,0.43
7273.00,0.43
7272.00,0.43
7271.00,0.43
7270.00,0.43
7269.00,0.43
7268.00,0.43
7267.00,0.43
7266.00,0.42
7265.00,0.42
7264.00,0.42
7263.00,0.42
7262.00,0.42
7261.00,0.42
7260.00,0.42
7259.00,0.42
7258.00,0.42
7257.00,0.42
7256.00,0.42
7255.00,0.42
7254.00,0.42
7253.00,0.42
7252.00,0.42
7251.00,0.42
7250.00,0.42
7249.00,0.42
7248.00,0.42
7247.00,0.42
7246.00,0.41
7245.00,0.41
7244.00,0.41
7243.00,0.41
7242.00,0.41
7241.00,0.41
7240.00,0.41
7239.00,0.41
7238.00,0.40
7237.00,0.40
7236.00,0.40
7235.00,0.40
7234.00,0.40
7233.00,0.40
7232.00,0.40
7231.00,0.40
7230.00,0.39
7229.00,0.39
7228.00,0.39
7227.00,0.39
7226.00,0.39
7225.00,0.39
7224.00,0.39
7223.00,0.39
7222.00,0.39
7221.00,0.38
7220.00,0.38
7219.00,0.38
7218.00,0.38
7217.00,0.38
7216.00,0.38
7215.00,0.38
7214.00,0.38
7213.00,0.38
7212.00,0.37
7211.00,0.37
7210.00,0.37
7209.00,0.37
7208.00,0.37
7207.00,0.37
7206.00,0.37
7205.00,0.37
7204.00,0.37
7203.00,0.37
7202.00,0.36
7201.00,0.36
7200.00,0.36
7199.00,0.36
7198.00,0.36
7197.00,0.36
7196.00,0.36
7195.00,0.35
7194.00,0.35
7193.00,0.35
7192.00,0.35
7191.00,0.35
7190.00,0.35
7189.00,0.35
7188.00,0.35
7187.00,0.35
7186.00,0.35
7185.00,0.34
7184.00,0.34
7183.00,0.34
7182.00,0.34
7181.00,0.34
7180.00,0.34
7179.00,0.34
7178.00,0.34
7177.00,0.34
7176.00,0.34
7175.00,0.34
7174.00,0.34
7173.00,0.34
7172.00,0.34
7171.00,0.33
7170.00,0.33
7169.00,0.33
7168.00,0.33
7167.00,0.33
7166.00,0.33
7165.00,0.33
7164.00,0.33
7163.00,0.33
7162.00,0.32
7161.00,0.32
7160.00,0.32
7159.00,0.32
7158.00,0.32
7157.00,0.32
7156.00,0.32
7155.00,0.32
7154.00,0.32
7153.00,0.32
7152.00,0.32
7151.00,0.32
7150.00,0.32
7149.00,0.32
7148.00,0.31
7147.00,0.31
7146.00,0.31
7145.00,0.31
7144.00,0.31
7143.00,0.31
7142.00,0.30
7141.00,0.30
7140.00,0.30
7139.00,0.30
7138.00,0.30
7137.00,0.29
7136.00,0.29
7135.00,0.29
7134.00,0.29
7133.00,0.29
7132.00,0.29
7131.00,0.29
7130.00,0.29
7129.00,0.28
7128.00,0.28
7127.00,0.28
7126.00,0.28
7125.00,0.28
7124.00,0.28
7123.00,0.28
7122.00,0.28
7121.00,0.28
7120.00,0.28
7119.00,0.28
7118.00,0.28
7117.00,0.28
7116.00,0.28
7115.00,0.28
7114.00,0.27
7113.00,0.27
7112.00,0.27
7111.00,0.27
7110.00,0.27
7109.00,0.27
7108.00,0.27
7107.00,0.27
7106.00,0.27
7105.00,0.27
7104.00,0.27
7103.00,0.27
7102.00,0.27
7101.00,0.26
7100.00,0.26
7099.00,0.26
7098.00,0.26
7097.00,0.26
7096.00,0.26
7095.00,0.26
7094.00,0.26
7093.00,0.26
7092.00,0.26
7091.00,0.26
7090.00,0.26
7089.00,0.26
7088.00,0.26
7087.00,0.26
7086.00,0.26
7085.00,0.26
7084.00,0.26
7083.00,0.25
7082.00,0.25
7081.00,0.25
7080.00,0.25
7079.00,0.25
7078.00,0.25
7077.00,0.25
7076.00,0.25
7075.00,0.25
7074.00,0.25
7073.00,0.25
7072.00,0.24
7071.00,0.24
7070.00,0.24
7069.00,0.24
7068.00,0.24
7067.00,0.24
7066.00,0.24
7065.00,0.24
7064.00,0.24
7063.00,0.24
7062.00,0.24
7061.00,0.24
7060.00,0.24
7059.00,0.24
7058.00,0.24
7057.00,0.24
7056.00,0.24
7055.00,0.24
7054.00,0.24
7053.00,0.24
7052.00,0.24
7051.00,0.24
7050.00,0.24
7049.00,0.23
7048.00,0.23
7047.00,0.23
7046.00,0.23
7045.00,0.23
7044.00,0.23
7043.00,0.23
7042.00,0.23
7041.00,0.23
7040.00,0.23
7039.00,0.23
7038.00,0.23
7037.00,0.23
7036.00,0.23
7035.00,0.23
7034.00,0.23
7033.00,0.23
7032.00,0.23
7031.00,0.23
7030.00,0.23
7029.00,0.23
7028.00,0.23
7027.00,0.22
7026.00,0.22
7025.00,0.22
7024.00,0.22
7023.00,0.22
7022.00,0.22
7021.00,0.22
7020.00,0.22
7019.00,0.22
7018.00,0.22
7017.00,0.22
7016.00,0.22
7015.00,0.22
7014.00,0.22
7013.00,0.22
7012.00,0.22
7011.00,0.22
7010.00,0.22
7009.00,0.22
7008.00,0.22
7007.00,0.22
7006.00,0.22
7005.00,0.22
7004.00,0.22
7003.00,0.22
7002.00,0.22
7001.00,0.22
7000.00,0.22
6999.00,0.22
6998.00,0.22
6997.00,0.22
6996.00,0.22
6995.00,0.21
6994.00,0.21
6993.00,0.21
6992.00,0.21
6991.00,0.21
6990.00,0.21
6989.00,0.21
6988.00,0.21
6987.00,0.21
6986.00,0.21
6985.00,0.21
6984.00,0.21
6983.00,0.21
6982.00,0.21
6981.00,0.21
6980.00,0.21
6979.00,0.21
6978.00,0.21
6977.00,0.21
6976.00,0.21
6975.00,0.21
6974.00,0.21
6973.00,0.21
6972.00,0.21
6971.00,0.21
6970.00,0.21
6969.00,0.21
6968.00,0.21
6967.00,0.21
6966.00,0.21
6965.00,0.21
6964.00,0.21
6963.00,0.21
6962.00,0.21
6961.00,0.21
6960.00,0.21
6959.00,0.21
6958.00,0.21
6957.00,0.21
6956.00,0.21
6955.00,0.21
6954.00,0.21
6953.00,0.21
6952.00,0.21
6951.00,0.21
6950.00,0.21
6949.00,0.21
6948.00,0.21
6947.00,0.21
6946.00,0.21
6945.00,0.21
6944.00,0.21
6943.00,0.21
6942.00,0.21
6941.00,0.21
6940.00,0.21
6939.00,0.21
6938.00,0.21
6937.00,0.21
6936.00,0.21
6935.00,0.21
6934.00,0.21
6933.00,0.21
6932.00,0.21
6931.00,0.21
6930.00,0.21
6929.00,0.21
6928.00,0.21
6927.00,0.21
6926.00,0.21
6925.00,0.20
6924.00,0.20
6923.00,0.20
6922.00,0.20
6921.00,0.20
6920.00,0.20
6919.00,0.20
6918.00,0.20
6917.00,0.20
6916.00,0.20
6915.00,0.21
6914.00,0.21
6913.00,0.21
6912.00,0.21
6911.00,0.21
6910.00,0.21
6909.00,0.21
6908.00,0.21
6907.00,0.21
6906.00,0.21
6905.00,0.21
6904.00,0.21
6903.00,0.21
6902.00,0.21
6901.00,0.21
6900.00,0.21
6899.00,0.21
6898.00,0.21
6897.00,0.21
6896.00,0.21
6895.00,0.21
6894.00,0.21
6893.00,0.21
6892.00,0.21
6891.00,0.21
6890.00,0.21
6889.00,0.21
6888.00,0.21
6887.00,0.21
6886.00,0.21
6885.00,0.21
6884.00,0.21
6883.00,0.21
6882.00,0.21
6881.00,0.21
6880.00,0.21
6879.00,0.21
6878.00,0.20
6877.00,0.20
6876.00,0.20
6875.00,0.20
6874.00,0.20
6873.00,0.20
6872.00,0.20
6871.00,0.20
6870.00,0.20
6869.00,0.20
6868.00,0.20
6867.00,0.20
6866.00,0.20
6865.00,0.20
6864.00,0.20
6863.00,0.20
6862.00,0.20
6861.00,0.20
6860.00,0.20
6859.00,0.20
6858.00,0.20
6857.00,0.20
6856.00,0.20
6855.00,0.20
6854.00,0.20
6853.00,0.20
6852.00,0.20
6851.00,0.20
6850.00,0.21
6849.00,0.21
6848.00,0.21
6847.00,0.21
6846.00,0.21
6845.00,0.21
6844.00,0.21
6843.00,0.21
6842.00,0.21
6841.00,0.21
6840.00,0.21
6839.00,0.21
6838.00,0.21
6837.00,0.21
6836.00,0.21
6835.00,0.21
6834.00,0.21
6833.00,0.21
6832.00,0.21
6831.00,0.21
6830.00,0.21
6829.00,0.21
6828.00,0.21
6827.00,0.21
6826.00,0.21
6825.00,0.21
6824.00,0.21
6823.00,0.21
6822.00,0.21
6821.00,0.21
6820.00,0.21
6819.00,0.21
6818.00,0.21
6817.00,0.21
6816.00,0.21
6815.00,0.21
6814.00,0.21
6813.00,0.21
6812.00,0.21
6811.00,0.21
6810.00,0.21
6809.00,0.21
6808.00,0.21
6807.00,0.21
6806.00,0.21
6805.00,0.21
6804.00,0.21
6803.00,0.21
6802.00,0.21
6801.00,0.21
6800.00,0.21
6799.00,0.21
6798.00,0.21
6797.00,0.22
6796.00,0.22
6795.00,0.22
6794.00,0.22
6793.00,0.22
6792.00,0.22
6791.00,0.22
6790.00,0.22
6789.00,0.22
6788.00,0.22
6787.00,0.22
6786.00,0.21
6785.00,0.21
6784.00,0.21
6783.00,0.21
6782.00,0.21
6781.00,0.21
6780.00,0.21
6779.00,0.21
6778.00,0.21
6777.00,0.21
6776.00,0.21
6775.00,0.21
6774.00,0.21
6773.00,0.21
6772.00,0.21
6771.00,0.21
6770.00,0.21
6769.00,0.21
6768.00,0.21
6767.00,0.21
6766.00,0.21
6765.00,0.21
6764.00,0.21
6763.00,0.21
6762.00,0.21
6761.00,0.21
6760.00,0.21
6759.00,0.21
6758.00,0.21
6757.00,0.21
6756.00,0.22
6755.00,0.22
6754.00,0.22
6753.00,0.22
6752.00,0.22
6751.00,0.22
6750.00,0.22
6749.00,0.22
6748.00,0.22
6747.00,0.22
6746.00,0.22
6745.00,0.22
6744.00,0.22
6743.00,0.22
6742.00,0.22
6741.00,0.22
6740.00,0.22
6739.00,0.22
6738.00,0.22
6737.00,0.23
6736.00,0.23
6735.00,0.23
6734.00,0.23
6733.00,0.23
6732.00,0.23
6731.00,0.23
6730.00,0.23
6729.00,0.23
6728.00,0.23
6727.00,0.23
6726.00,0.23
6725.00,0.23
6724.00,0.23
6723.00,0.23
6722.00,0.23
6721.00,0.23
6720.00,0.23
6719.00,0.23
6718.00,0.23
6717.00,0.23
6716.00,0.23
6715.00,0.23
6714.00,0.23
6713.00,0.23
6712.00,0.23
6711.00,0.23
6710.00,0.23
6709.00,0.23
6708.00,0.23
6707.00,0.23
6706.00,0.23
6705.00,0.23
6704.00,0.23
6703.00,0.23
6702.00,0.23
6701.00,0.23
6700.00,0.23
6699.00,0.23
6698.00,0.23
6697.00,0.23
6696.00,0.23
6695.00,0.23
6694.00,0.23
6693.00,0.23
6692.00,0.23
6691.00,0.23
6690.00,0.23
6689.00,0.23
6688.00,0.23
6687.00,0.23
6686.00,0.23
6685.00,0.24
6684.00,0.24
6683.00,0.24
6682.00,0.24
6681.00,0.24
6680.00,0.24
6679.00,0.24
6678.00,0.24
6677.00,0.24
6676.00,0.24
6675.00,0.24
6674.00,0.24
6673.00,0.24
6672.00,0.24
6671.00,0.24
6670.00,0.24
6669.00,0.24
6668.00,0.24
6667.00,0.24
6666.00,0.24
6665.00,0.24
6664.00,0.24
6663.00,0.24
6662.00,0.25
6661.00,0.25
6660.00,0.25
6659.00,0.25
6658.00,0.25
6657.00,0.25
6656.00,0.25
6655.00,0.25
6654.00,0.25
6653.00,0.25
6652.00,0.25
6651.00,0.25
6650.00,0.25
6649.00,0.25
6648.00,0.25
6647.00,0.26
6646.00,0.26
6645.00,0.26
6644.00,0.26
6643.00,0.26
6642.00,0.26
6641.00,0.26
6640.00,0.26
6639.00,0.26
6638.00,0.26
6637.00,0.26
6636.00,0.26
6635.00,0.26
6634.00,0.26
6633.00,0.26
6632.00,0.26
6631.00,0.26
6630.00,0.26
6629.00,0.26
6628.00,0.26
6627.00,0.26
6626.00,0.26
6625.00,0.26
6624.00,0.26
6623.00,0.26
6622.00,0.27
6621.00,0.27
6620.00,0.27
6619.00,0.27
6618.00,0.27
6617.00,0.27
6616.00,0.27
6615.00,0.27
6614.00,0.27
6613.00,0.27
6612.00,0.27
6611.00,0.27
6610.00,0.27
6609.00,0.27
6608.00,0.27
6607.00,0.27
6606.00,0.27
6605.00,0.27
6604.00,0.27
6603.00,0.27
6602.00,0.27
6601.00,0.27
6600.00,0.27
6599.00,0.27
6598.00,0.27
6597.00,0.27
6596.00,0.27
6595.00,0.27
6594.00,0.27
6593.00,0.27
6592.00,0.27
6591.00,0.27
6590.00,0.28
6589.00,0.28
6588.00,0.28
6587.00,0.28
6586.00,0.28
6585.00,0.28
6584.00,0.28
6583.00,0.28
6582.00,0.28
6581.00,0.28
6580.00,0.28
6579.00,0.28
6578.00,0.28
6577.00,0.28
6576.00,0.28
6575.00,0.28
6574.00,0.29
6573.00,0.29
6572.00,0.29
6571.00,0.29
6570.00,0.29
6569.00,0.29
6568.00,0.29
6567.00,0.29
6566.00,0.29
6565.00,0.29
6564.00,0.29
6563.00,0.29
6562.00,0.29
6561.00,0.29
6560.00,0.29
6559.00,0.29
6558.00,0.29
6557.00,0.29
6556.00,0.29
6555.00,0.29
6554.00,0.29
6553.00,0.29
6552.00,0.29
6551.00,0.29
6550.00,0.29
6549.00,0.30
6548.00,0.30
6547.00,0.30
6546.00,0.30
6545.00,0.30
6544.00,0.30
6543.00,0.30
6542.00,0.30
6541.00,0.30
6540.00,0.30
6539.00,0.30
6538.00,0.30
6537.00,0.30
6536.00,0.30
6535.00,0.30
6534.00,0.30
6533.00,0.30
6532.00,0.30
6531.00,0.30
6530.00,0.30
6529.00,0.30
6528.00,0.30
6527.00,0.30
6526.00,0.30
6525.00,0.30
6524.00,0.30
6523.00,0.30
6522.00,0.30
6521.00,0.30
6520.00,0.30
6519.00,0.30
6518.00,0.30
6517.00,0.30
6516.00,0.30
6515.00,0.30
6514.00,0.30
6513.00,0.30
6512.00,0.30
6511.00,0.30
6510.00,0.30
6509.00,0.31
6508.00,0.31
6507.00,0.31
6506.00,0.31
6505.00,0.31
6504.00,0.31
6503.00,0.31
6502.00,0.31
6501.00,0.31
6500.00,0.31
6499.00,0.31
6498.00,0.31
6497.00,0.31
6496.00,0.31
6495.00,0.31
6494.00,0.31
6493.00,0.31
6492.00,0.31
6491.00,0.31
6490.00,0.31
6489.00,0.31
6488.00,0.31
6487.00,0.31
6486.00,0.31
6485.00,0.32
6484.00,0.32
6483.00,0.32
6482.00,0.32
6481.00,0.32
6480.00,0.32
6479.00,0.32
6478.00,0.32
6477.00,0.32
6476.00,0.32
6475.00,0.32
6474.00,0.32
6473.00,0.32
6472.00,0.32
6471.00,0.32
6470.00,0.32
6469.00,0.32
6468.00,0.32
6467.00,0.32
6466.00,0.32
6465.00,0.32
6464.00,0.32
6463.00,0.32
6462.00,0.32
6461.00,0.32
6460.00,0.32
6459.00,0.32
6458.00,0.32
6457.00,0.32
6456.00,0.33
6455.00,0.33
6454.00,0.33
6453.00,0.33
6452.00,0.33
6451.00,0.33
6450.00,0.33
6449.00,0.33
6448.00,0.33
6447.00,0.33
6446.00,0.33
6445.00,0.33
6444.00,0.33
6443.00,0.33
6442.00,0.33
6441.00,0.33
6440.00,0.33
6439.00,0.33
6438.00,0.33
6437.00,0.33
6436.00,0.33
6435.00,0.33
6434.00,0.33
6433.00,0.33
6432.00,0.33
6431.00,0.33
6430.00,0.33
6429.00,0.33
6428.00,0.33
6427.00,0.33
6426.00,0.33
6425.00,0.33
6424.00,0.33
6423.00,0.33
6422.00,0.33
6421.00,0.33
6420.00,0.33
6419.00,0.33
6418.00,0.33
6417.00,0.34
6416.00,0.34
6415.00,0.34
6414.00,0.34
6413.00,0.34
6412.00,0.34
6411.00,0.34
6410.00,0.34
6409.00,0.34
6408.00,0.34
6407.00,0.34
6406.00,0.34
6405.00,0.34
6404.00,0.34
6403.00,0.34
6402.00,0.34
6401.00,0.34
6400.00,0.34
6399.00,0.34
6398.00,0.34
6397.00,0.34
6396.00,0.34
6395.00,0.34
6394.00,0.34
6393.00,0.34
6392.00,0.34
6391.00,0.34
6390.00,0.34
6389.00,0.34
6388.00,0.34
6387.00,0.34
6386.00,0.34
6385.00,0.34
6384.00,0.34
6383.00,0.34
6382.00,0.34
6381.00,0.35
6380.00,0.35
6379.00,0.35
6378.00,0.35
6377.00,0.35
6376.00,0.35
6375.00,0.35
6374.00,0.35
6373.00,0.35
6372.00,0.35
6371.00,0.35
6370.00,0.35
6369.00,0.35
6368.00,0.35
6367.00,0.35
6366.00,0.35
6365.00,0.35
6364.00,0.35
6363.00,0.35
6362.00,0.35
6361.00,0.35
6360.00,0.35
6359.00,0.35
6358.00,0.35
6357.00,0.35
6356.00,0.35
6355.00,0.35
6354.00,0.35
6353.00,0.35
6352.00,0.35
6351.00,0.35
6350.00,0.35
6349.00,0.35
6348.00,0.35
6347.00,0.36
6346.00,0.36
6345.00,0.36
6344.00,0.36
6343.00,0.36
6342.00,0.36
6341.00,0.36
6340.00,0.36
6339.00,0.36
6338.00,0.36
6337.00,0.36
6336.00,0.36
6335.00,0.36
6334.00,0.36
6333.00,0.36
6332.00,0.36
6331.00,0.36
6330.00,0.36
6329.00,0.36
6328.00,0.36
6327.00,0.36
6326.00,0.36
6325.00,0.37
6324.00,0.37
6323.00,0.37
6322.00,0.37
6321.00,0.37
6320.00,0.37
6319.00,0.37
6318.00,0.37
6317.00,0.37
6316.00,0.37
6315.00,0.37
6314.00,0.37
6313.00,0.37
6312.00,0.37
6311.00,0.37
6310.00,0.37
6309.00,0.37
6308.00,0.37
6307.00,0.37
6306.00,0.37
6305.00,0.37
6304.00,0.37
6303.00,0.37
6302.00,0.37
6301.00,0.37
6300.00,0.37
6299.00,0.37
6298.00,0.37
6297.00,0.37
6296.00,0.37
6295.00,0.37
6294.00,0.37
6293.00,0.37
6292.00,0.37
6291.00,0.37
6290.00,0.37
6289.00,0.37
6288.00,0.37
6287.00,0.37
6286.00,0.37
6285.00,0.37
6284.00,0.37
6283.00,0.38
6282.00,0.38
6281.00,0.38
6280.00,0.38
6279.00,0.38
6278.00,0.38
6277.00,0.38
6276.00,0.38
6275.00,0.38
6274.00,0.38
6273.00,0.38
6272.00,0.38
6271.00,0.38
6270.00,0.38
6269.00,0.38
6268.00,0.38
6267.00,0.38
6266.00,0.39
6265.00,0.39
6264.00,0.39
6263.00,0.39
6262.00,0.39
6261.00,0.39
6260.00,0.39
6259.00,0.39
6258.00,0.39
6257.00,0.39
6256.00,0.39
6255.00,0.39
6254.00,0.39
6253.00,0.39
6252.00,0.39
6251.00,0.39
6250.00,0.39
6249.00,0.39
6248.00,0.39
6247.00,0.39
6246.00,0.39
6245.00,0.39
6244.00,0.39
6243.00,0.40
6242.00,0.40
6241.00,0.40
6240.00,0.40
6239.00,0.40
6238.00,0.40
6237.00,0.40
6236.00,0.40
6235.00,0.40
6234.00,0.40
6233.00,0.40
6232.00,0.40
6231.00,0.40
6230.00,0.40
6229.00,0.40
6228.00,0.40
6227.00,0.40
6226.00,0.40
6225.00,0.41
6224.00,0.41
6223.00,0.41
6222.00,0.41
6221.00,0.41
6220.00,0.41
6219.00,0.41
6218.00,0.41
6217.00,0.41
6216.00,0.41
6215.00,0.41
6214.00,0.41
6213.00,0.41
6212.00,0.41
6211.00,0.41
6210.00,0.41
6209.00,0.41
6208.00,0.41
6207.00,0.41
6206.00,0.41
6205.00,0.41
6204.00,0.41
6203.00,0.41
6202.00,0.41
6201.00,0.41
6200.00,0.41
6199.00,0.41
6198.00,0.41
6197.00,0.41
6196.00,0.41
6195.00,0.41
6194.00,0.41
6193.00,0.41
6192.00,0.41
6191.00,0.41
6190.00,0.41
6189.00,0.41
6188.00,0.41
6187.00,0.41
6186.00,0.41
6185.00,0.41
6184.00,0.42
6183.00,0.42
6182.00,0.42
6181.00,0.42
6180.00,0.42
6179.00,0.42
6178.00,0.42
6177.00,0.42
6176.00,0.42
6175.00,0.42
6174.00,0.42
6173.00,0.42
6172.00,0.42
6171.00,0.42
6170.00,0.42
6169.00,0.42
6168.00,0.42
6167.00,0.43
6166.00,0.43
6165.00,0.43
6164.00,0.43
6163.00,0.43
6162.00,0.43
6161.00,0.43
6160.00,0.43
6159.00,0.43
6158.00,0.43
6157.00,0.43
6156.00,0.43
6155.00,0.43
6154.00,0.43
6153.00,0.43
6152.00,0.43
6151.00,0.43
6150.00,0.43
6149.00,0.43
6148.00,0.43
6147.00,0.43
6146.00,0.43
6145.00,0.43
6144.00,0.43
6143.00,0.43
6142.00,0.43
6141.00,0.43
6140.00,0.43
6139.00,0.43
6138.00,0.43
6137.00,0.43
6136.00,0.43
6135.00,0.43
6134.00,0.44
6133.00,0.44
6132.00,0.44
6131.00,0.44
6130.00,0.44
6129.00,0.44
6128.00,0.44
6127.00,0.44
6126.00,0.44
6125.00,0.44
6124.00,0.44
6123.00,0.44
6122.00,0.44
6121.00,0.44
6120.00,0.44
6119.00,0.45
6118.00,0.45
6117.00,0.45
6116.00,0.45
6115.00,0.45
6114.00,0.45
6113.00,0.45
6112.00,0.45
6111.00,0.45
6110.00,0.45
6109.00,0.45
6108.00,0.45
6107.00,0.45
6106.00,0.45
6105.00,0.45
6104.00,0.45
6103.00,0.45
6102.00,0.45
6101.00,0.45
6100.00,0.45
6099.00,0.45
6098.00,0.45
6097.00,0.45
6096.00,0.45
6095.00,0.45
6094.00,0.45
6093.00,0.45
6092.00,0.45
6091.00,0.45
6090.00,0.45
6089.00,0.46
6088.00,0.46
6087.00,0.46
6086.00,0.46
6085.00,0.46
6084.00,0.46
6083.00,0.46
6082.00,0.46
6081.00,0.46
6080.00,0.46
6079.00,0.46
6078.00,0.46
6077.00,0.46
6076.00,0.46
6075.00,0.46
6074.00,0.46
6073.00,0.46
6072.00,0.46
6071.00,0.46
6070.00,0.46
6069.00,0.46
6068.00,0.46
6067.00,0.46
6066.00,0.46
6065.00,0.46
6064.00,0.46
6063.00,0.46
6062.00,0.46
6061.00,0.47
6060.00,0.47
6059.00,0.47
6058.00,0.47
6057.00,0.47
6056.00,0.47
6055.00,0.47
6054.00,0.47
6053.00,0.47
6052.00,0.47
6051.00,0.47
6050.00,0.47
6049.00,0.47
6048.00,0.47
6047.00,0.47
6046.00,0.47
6045.00,0.47
6044.00,0.47
6043.00,0.47
6042.00,0.47
6041.00,0.47
6040.00,0.47
6039.00,0.47
6038.00,0.47
6037.00,0.47
6036.00,0.47
6035.00,0.47
6034.00,0.47
6033.00,0.47
6032.00,0.47
6031.00,0.47
6030.00,0.47
6029.00,0.47
6028.00,0.47
6027.00,0.47
6026.00,0.47
6025.00,0.47
6024.00,0.47
6023.00,0.47
6022.00,0.47
6021.00,0.47
6020.00,0.47
6019.00,0.47
6018.00,0.47
6017.00,0.47
6016.00,0.47
6015.00,0.47
6014.00,0.47
6013.00,0.47
6012.00,0.47
6011.00,0.47
6010.00,0.47
6009.00,0.47
6008.00,0.47
6007.00,0.47
6006.00,0.47
6005.00,0.47
6004.00,0.47
6003.00,0.47
6002.00,0.47
6001.00,0.47
6000.00,0.47
5999.00,0.47
5998.00,0.47
5997.00,0.47
5996.00,0.47
5995.00,0.47
5994.00,0.47
5993.00,0.47
5992.00,0.47
5991.00,0.47
5990.00,0.47
5989.00,0.47
5988.00,0.47
5987.00,0.47
5986.00,0.47
5985.00,0.46
5984.00,0.46
5983.00,0.46
5982.00,0.46
5981.00,0.46
5980.00,0.46
5979.00,0.46
5978.00,0.46
5977.00,0.46
5976.00,0.46
5975.00,0.46
5974.00,0.45
5973.00,0.45
5972.00,0.45
5971.00,0.45
5970.00,0.45
5969.00,0.45
5968.00,0.45
5967.00,0.45
5966.00,0.44
5965.00,0.44
5964.00,0.44
5963.00,0.44
5962.00,0.44
5961.00,0.44
5960.00,0.43
5959.00,0.43
5958.00,0.43
5957.00,0.43
5956.00,0.43
5955.00,0.43
5954.00,0.43
5953.00,0.43
5952.00,0.42
5951.00,0.42
5950.00,0.42
5949.00,0.42
5948.00,0.42
5947.00,0.42
5946.00,0.42
5945.00,0.42
5944.00,0.42
5943.00,0.42
5942.00,0.42
5941.00,0.42
5940.00,0.42
5939.00,0.42
5938.00,0.42
5937.00,0.42
5936.00,0.41
5935.00,0.41
5934.00,0.41
5933.00,0.41
5932.00,0.41
5931.00,0.41
5930.00,0.41
5929.00,0.41
5928.00,0.41
5927.00,0.41
5926.00,0.41
5925.00,0.41
5924.00,0.41
5923.00,0.41
5922.00,0.41
5921.00,0.41
5920.00,0.41
5919.00,0.41
5918.00,0.41
5917.00,0.40
5916.00,0.40
5915.00,0.40
5914.00,0.40
5913.00,0.40
5912.00,0.40
5911.00,0.40
5910.00,0.40
5909.00,0.40
5908.00,0.40
5907.00,0.40
5906.00,0.40
5905.00,0.40
5904.00,0.40
5903.00,0.40
5902.00,0.40
5901.00,0.40
5900.00,0.40
5899.00,0.40
5898.00,0.40
5897.00,0.40
5896.00,0.40
5895.00,0.40
5894.00,0.40
5893.00,0.41
5892.00,0.41
5891.00,0.41
5890.00,0.41
5889.00,0.41
5888.00,0.41
5887.00,0.41
5886.00,0.41
5885.00,0.41
5884.00,0.41
5883.00,0.41
5882.00,0.41
5881.00,0.42
5880.00,0.42
5879.00,0.42
5878.00,0.42
5877.00,0.42
5876.00,0.42
5875.00,0.42
5874.00,0.42
5873.00,0.42
5872.00,0.42
5871.00,0.42
5870.00,0.43
5869.00,0.43
5868.00,0.43
5867.00,0.43
5866.00,0.43
5865.00,0.43
5864.00,0.43
5863.00,0.43
5862.00,0.43
5861.00,0.43
5860.00,0.43
5859.00,0.43
5858.00,0.43
5857.00,0.43
5856.00,0.43
5855.00,0.43
5854.00,0.43
5853.00,0.43
5852.00,0.43
5851.00,0.43
5850.00,0.43
5849.00,0.43
5848.00,0.43
5847.00,0.43
5846.00,0.43
5845.00,0.43
5844.00,0.43
5843.00,0.43
5842.00,0.43
5841.00,0.43
5840.00,0.43
5839.00,0.43
5838.00,0.43
5837.00,0.43
5836.00,0.43
5835.00,0.43
5834.00,0.43
5833.00,0.43
5832.00,0.43
5831.00,0.43
5830.00,0.43
5829.00,0.43
5828.00,0.43
5827.00,0.43
5826.00,0.43
5825.00,0.43
5824.00,0.43
5823.00,0.43
5822.00,0.43
5821.00,0.43
5820.00,0.43
5819.00,0.43
5818.00,0.43
5817.00,0.43
5816.00,0.43
5815.00,0.43
5814.00,0.43
5813.00,0.43
5812.00,0.43
5811.00,0.43
5810.00,0.43
5809.00,0.43
5808.00,0.43
5807.00,0.43
5806.00,0.43
5805.00,0.43
5804.00,0.43
5803.00,0.43
5802.00,0.43
5801.00,0.43
5800.00,0.43
5799.00,0.42
5798.00,0.42
5797.00,0.42
5796.00,0.42
5795.00,0.42
5794.00,0.42
5793.00,0.42
5792.00,0.42
5791.00,0.42
5790.00,0.42
5789.00,0.42
5788.00,0.42
5787.00,0.42
5786.00,0.42
5785.00,0.42
5784.00,0.41
5783.00,0.41
5782.00,0.41
5781.00,0.41
5780.00,0.41
5779.00,0.41
5778.00,0.41
5777.00,0.41
5776.00,0.41
5775.00,0.41
5774.00,0.41
5773.00,0.41
5772.00,0.41
5771.00,0.41
5770.00,0.41
5769.00,0.41
5768.00,0.41
5767.00,0.41
5766.00,0.42
5765.00,0.42
5764.00,0.42
5763.00,0.42
5762.00,0.42
5761.00,0.42
5760.00,0.42
5759.00,0.42
5758.00,0.42
5757.00,0.42
5756.00,0.42
5755.00,0.43
5754.00,0.43
5753.00,0.43
5752.00,0.43
5751.00,0.43
5750.00,0.43
5749.00,0.43
5748.00,0.43
5747.00,0.43
5746.00,0.43
5745.00,0.43
5744.00,0.43
5743.00,0.43
5742.00,0.43
5741.00,0.43
5740.00,0.43
5739.00,0.43
5738.00,0.43
5737.00,0.43
5736.00,0.43
5735.00,0.44
5734.00,0.44
5733.00,0.44
5732.00,0.44
5731.00,0.44
5730.00,0.44
5729.00,0.44
5728.00,0.44
5727.00,0.44
5726.00,0.44
5725.00,0.44
5724.00,0.44
5723.00,0.44
5722.00,0.44
5721.00,0.44
5720.00,0.44
5719.00,0.44
5718.00,0.44
5717.00,0.44
5716.00,0.44
5715.00,0.44
5714.00,0.43
5713.00,0.43
5712.00,0.43
5711.00,0.43
5710.00,0.43
5709.00,0.43
5708.00,0.43
5707.00,0.43
5706.00,0.43
5705.00,0.43
5704.00,0.43
5703.00,0.43
5702.00,0.43
5701.00,0.43
5700.00,0.43
5699.00,0.43
5698.00,0.43
5697.00,0.43
5696.00,0.43
5695.00,0.43
5694.00,0.43
5693.00,0.43
5692.00,0.43
5691.00,0.42
5690.00,0.42
5689.00,0.42
5688.00,0.42
5687.00,0.42
5686.00,0.42
5685.00,0.42
5684.00,0.42
5683.00,0.42
5682.00,0.42
5681.00,0.42
5680.00,0.42
5679.00,0.42
5678.00,0.42
5677.00,0.42
5676.00,0.42
5675.00,0.42
5674.00,0.42
5673.00,0.42
5672.00,0.42
5671.00,0.42
5670.00,0.42
5669.00,0.42
5668.00,0.42
5667.00,0.42
5666.00,0.42
5665.00,0.42
5664.00,0.42
5663.00,0.42
5662.00,0.42
5661.00,0.42
5660.00,0.42
5659.00,0.42
5658.00,0.42
5657.00,0.42
5656.00,0.42
5655.00,0.42
5654.00,0.42
5653.00,0.42
5652.00,0.42
5651.00,0.42
5650.00,0.42
5649.00,0.42
5648.00,0.42
5647.00,0.43
5646.00,0.43
5645.00,0.43
5644.00,0.43
5643.00,0.43
5642.00,0.43
5641.00,0.43
5640.00,0.43
5639.00,0.43
5638.00,0.43
5637.00,0.43
5636.00,0.43
5635.00,0.43
5634.00,0.43
5633.00,0.43
5632.00,0.43
5631.00,0.43
5630.00,0.43
5629.00,0.43
5628.00,0.43
5627.00,0.43
5626.00,0.43
5625.00,0.43
5624.00,0.43
5623.00,0.43
5622.00,0.43
5621.00,0.43
5620.00,0.43
5619.00,0.43
5618.00,0.43
5617.00,0.43
5616.00,0.43
5615.00,0.43
5614.00,0.43
5613.00,0.43
5612.00,0.43
5611.00,0.43
5610.00,0.43
5609.00,0.43
5608.00,0.43
5607.00,0.43
5606.00,0.44
5605.00,0.44
5604.00,0.44
5603.00,0.44
5602.00,0.44
5601.00,0.44
5600.00,0.44
5599.00,0.44
5598.00,0.44
5597.00,0.44
5596.00,0.44
5595.00,0.44
5594.00,0.44
5593.00,0.44
5592.00,0.44
5591.00,0.44
5590.00,0.44
5589.00,0.44
5588.00,0.44
5587.00,0.44
5586.00,0.44
5585.00,0.44
5584.00,0.45
5583.00,0.45
5582.00,0.45
5581.00,0.45
5580.00,0.45
5579.00,0.45
5578.00,0.45
5577.00,0.45
5576.00,0.45
5575.00,0.45
5574.00,0.45
5573.00,0.45
5572.00,0.45
5571.00,0.45
5570.00,0.45
5569.00,0.45
5568.00,0.45
5567.00,0.45
5566.00,0.45
5565.00,0.45
5564.00,0.45
5563.00,0.45
5562.00,0.45
5561.00,0.45
5560.00,0.45
5559.00,0.45
5558.00,0.45
5557.00,0.45
5556.00,0.45
5555.00,0.46
5554.00,0.46
5553.00,0.46
5552.00,0.46
5551.00,0.46
5550.00,0.46
5549.00,0.46
5548.00,0.46
5547.00,0.46
5546.00,0.46
5545.00,0.46
5544.00,0.46
5543.00,0.46
5542.00,0.46
5541.00,0.46
5540.00,0.46
5539.00,0.46
5538.00,0.46
5537.00,0.46
5536.00,0.46
5535.00,0.46
5534.00,0.46
5533.00,0.46
5532.00,0.46
5531.00,0.46
5530.00,0.46
5529.00,0.46
5528.00,0.46
5527.00,0.46
5526.00,0.46
5525.00,0.46
5524.00,0.46
5523.00,0.46
5522.00,0.46
5521.00,0.46
5520.00,0.46
5519.00,0.46
5518.00,0.46
5517.00,0.46
5516.00,0.46
5515.00,0.46
5514.00,0.46
5513.00,0.46
5512.00,0.46
5511.00,0.46
5510.00,0.46
5509.00,0.46
5508.00,0.46
5507.00,0.46
5506.00,0.46
5505.00,0.46
5504.00,0.46
5503.00,0.46
5502.00,0.46
5501.00,0.46
5500.00,0.46
5499.00,0.46
5498.00,0.46
5497.00,0.46
5496.00,0.46
5495.00,0.46
5494.00,0.47
5493.00,0.47
5492.00,0.47
5491.00,0.47
5490.00,0.47
5489.00,0.47
5488.00,0.47
5487.00,0.47
5486.00,0.47
5485.00,0.47
5484.00,0.47
5483.00,0.47
5482.00,0.47
5481.00,0.47
5480.00,0.47
5479.00,0.47
5478.00,0.47
5477.00,0.47
5476.00,0.47
5475.00,0.47
5474.00,0.47
5473.00,0.47
5472.00,0.47
5471.00,0.47
5470.00,0.47
5469.00,0.47
5468.00,0.47
5467.00,0.47
5466.00,0.47
5465.00,0.47
5464.00,0.47
5463.00,0.47
5462.00,0.47
5461.00,0.47
5460.00,0.48
5459.00,0.48
5458.00,0.48
5457.00,0.48
5456.00,0.48
5455.00,0.48
5454.00,0.48
5453.00,0.48
5452.00,0.48
5451.00,0.48
5450.00,0.47
5449.00,0.47
5448.00,0.47
5447.00,0.47
5446.00,0.47
5445.00,0.47
5444.00,0.47
5443.00,0.47
5442.00,0.47
5441.00,0.47
5440.00,0.47
5439.00,0.47
5438.00,0.47
5437.00,0.47
5436.00,0.47
5435.00,0.47
5434.00,0.47
5433.00,0.47
5432.00,0.47
5431.00,0.47
5430.00,0.47
5429.00,0.47
5428.00,0.47
5427.00,0.47
5426.00,0.47
5425.00,0.47
5424.00,0.47
5423.00,0.47
5422.00,0.47
5421.00,0.47
5420.00,0.47
5419.00,0.47
5418.00,0.47
5417.00,0.47
5416.00,0.47
5415.00,0.47
5414.00,0.47
5413.00,0.47
5412.00,0.47
5411.00,0.47
5410.00,0.47
5409.00,0.47
5408.00,0.47
5407.00,0.47
5406.00,0.47
5405.00,0.47
5404.00,0.47
5403.00,0.47
5402.00,0.47
5401.00,0.47
5400.00,0.47
5399.00,0.47
5398.00,0.47
5397.00,0.47
5396.00,0.47
5395.00,0.47
5394.00,0.47
5393.00,0.47
5392.00,0.47
5391.00,0.46
5390.00,0.46
5389.00,0.46
5388.00,0.46
5387.00,0.46
5386.00,0.46
5385.00,0.46
5384.00,0.46
5383.00,0.46
5382.00,0.46
5381.00,0.46
5380.00,0.45
5379.00,0.45
5378.00,0.45
5377.00,0.45
5376.00,0.45
5375.00,0.45
5374.00,0.45
5373.00,0.44
5372.00,0.44
5371.00,0.44
5370.00,0.44
5369.00,0.44
5368.00,0.44
5367.00,0.44
5366.00,0.43
5365.00,0.43
5364.00,0.43
5363.00,0.43
5362.00,0.42
5361.00,0.42
5360.00,0.42
5359.00,0.42
5358.00,0.41
5357.00,0.41
5356.00,0.41
5355.00,0.41
5354.00,0.40
5353.00,0.40
5352.00,0.40
5351.00,0.39
5350.00,0.39
5349.00,0.39
5348.00,0.38
5347.00,0.38
5346.00,0.38
5345.00,0.37
5344.00,0.37
5343.00,0.37
5342.00,0.36
5341.00,0.36
5340.00,0.36
5339.00,0.36
5338.00,0.35
5337.00,0.35
5336.00,0.35
5335.00,0.34
5334.00,0.34
5333.00,0.34
5332.00,0.33
5331.00,0.33
5330.00,0.33
5329.00,0.33
5328.00,0.32
5327.00,0.32
5326.00,0.32
5325.00,0.31
5324.00,0.31
5323.00,0.31
5322.00,0.31
5321.00,0.30
5320.00,0.30
5319.00,0.30
5318.00,0.29
5317.00,0.29
5316.00,0.29
5315.00,0.29
5314.00,0.28
5313.00,0.28
5312.00,0.28
5311.00,0.27
5310.00,0.27
5309.00,0.27
5308.00,0.27
5307.00,0.26
5306.00,0.26
5305.00,0.26
5304.00,0.26
5303.00,0.26
5302.00,0.25
5301.00,0.25
5300.00,0.25
5299.00,0.25
5298.00,0.25
5297.00,0.24
5296.00,0.24
5295.00,0.24
5294.00,0.24
5293.00,0.24
5292.00,0.24
5291.00,0.24
5290.00,0.24
5289.00,0.23
5288.00,0.23
5287.00,0.23
5286.00,0.23
5285.00,0.23
5284.00,0.23
5283.00,0.23
5282.00,0.23
5281.00,0.23
5280.00,0.23
5279.00,0.23
5278.00,0.23
5277.00,0.23
5276.00,0.23
5275.00,0.23
5274.00,0.23
5273.00,0.23
5272.00,0.23
5271.00,0.23
5270.00,0.23
5269.00,0.22
5268.00,0.22
5267.00,0.22
5266.00,0.22
5265.00,0.22
5264.00,0.22
5263.00,0.22
5262.00,0.22
5261.00,0.22
5260.00,0.22
5259.00,0.22
5258.00,0.22
5257.00,0.22
5256.00,0.22
5255.00,0.22
5254.00,0.22
5253.00,0.22
5252.00,0.22
5251.00,0.22
5250.00,0.22
5249.00,0.22
5248.00,0.22
5247.00,0.22
5246.00,0.22
5245.00,0.22
5244.00,0.22
5243.00,0.22
5242.00,0.22
5241.00,0.22
5240.00,0.22
5239.00,0.22
5238.00,0.22
5237.00,0.22
5236.00,0.22
5235.00,0.22
5234.00,0.22
5233.00,0.22
5232.00,0.22
5231.00,0.22
5230.00,0.22
5229.00,0.22
5228.00,0.22
5227.00,0.22
5226.00,0.22
5225.00,0.22
5224.00,0.22
5223.00,0.22
5222.00,0.22
5221.00,0.22
5220.00,0.22
5219.00,0.22
5218.00,0.22
5217.00,0.22
5216.00,0.22
5215.00,0.22
5214.00,0.22
5213.00,0.22
5212.00,0.22
5211.00,0.22
5210.00,0.22
5209.00,0.22
5208.00,0.22
5207.00,0.22
5206.00,0.22
5205.00,0.22
5204.00,0.22
5203.00,0.22
5202.00,0.22
5201.00,0.22
5200.00,0.22
5199.00,0.22
5198.00,0.22
5197.00,0.22
5196.00,0.22
5195.00,0.22
5194.00,0.22
5193.00,0.22
5192.00,0.22
5191.00,0.22
5190.00,0.22
5189.00,0.22
5188.00,0.22
5187.00,0.22
5186.00,0.22
5185.00,0.22
5184.00,0.22
5183.00,0.22
5182.00,0.22
5181.00,0.23
5180.00,0.23
5179.00,0.23
5178.00,0.23
5177.00,0.23
5176.00,0.23
5175.00,0.23
5174.00,0.23
5173.00,0.23
5172.00,0.23
5171.00,0.23
5170.00,0.23
5169.00,0.23
5168.00,0.23
5167.00,0.23
5166.00,0.23
5165.00,0.23
5164.00,0.23
5163.00,0.23
5162.00,0.23
5161.00,0.23
5160.00,0.23
5159.00,0.23
5158.00,0.23
5157.00,0.23
5156.00,0.23
5155.00,0.23
5154.00,0.23
5153.00,0.23
5152.00,0.23
5151.00,0.24
5150.00,0.24
5149.00,0.24
5148.00,0.24
5147.00,0.24
5146.00,0.24
5145.00,0.24
5144.00,0.24
5143.00,0.24
5142.00,0.24
5141.00,0.24
5140.00,0.24
5139.00,0.24
5138.00,0.24
5137.00,0.24
5136.00,0.24
5135.00,0.24
5134.00,0.24
5133.00,0.24
5132.00,0.24
5131.00,0.24
5130.00,0.24
5129.00,0.24
5128.00,0.24
5127.00,0.24
5126.00,0.24
5125.00,0.24
5124.00,0.24
5123.00,0.24
5122.00,0.24
5121.00,0.24
5120.00,0.24
5119.00,0.24
5118.00,0.24
5117.00,0.24
5116.00,0.24
5115.00,0.24
5114.00,0.24
5113.00,0.24
5112.00,0.24
5111.00,0.24
5110.00,0.24
5109.00,0.24
5108.00,0.24
5107.00,0.24
5106.00,0.24
5105.00,0.24
5104.00,0.24
5103.00,0.24
5102.00,0.24
5101.00,0.24
5100.00,0.24
5099.00,0.25
5098.00,0.25
5097.00,0.25
5096.00,0.25
5095.00,0.25
5094.00,0.25
5093.00,0.25
5092.00,0.25
5091.00,0.25
5090.00,0.25
5089.00,0.25
5088.00,0.25
5087.00,0.25
5086.00,0.25
5085.00,0.25
5084.00,0.25
5083.00,0.25
5082.00,0.25
5081.00,0.25
5080.00,0.25
5079.00,0.25
5078.00,0.25
5077.00,0.25
5076.00,0.25
5075.00,0.25
5074.00,0.25
5073.00,0.25
5072.00,0.25
5071.00,0.25
5070.00,0.25
5069.00,0.25
5068.00,0.25
5067.00,0.25
5066.00,0.25
5065.00,0.25
5064.00,0.25
5063.00,0.25
5062.00,0.25
5061.00,0.25
5060.00,0.25
5059.00,0.25
5058.00,0.25
5057.00,0.25
5056.00,0.25
5055.00,0.25
5054.00,0.25
5053.00,0.25
5052.00,0.25
5051.00,0.25
5050.00,0.25
5049.00,0.25
5048.00,0.25
5047.00,0.25
5046.00,0.25
5045.00,0.25
5044.00,0.26
5043.00,0.26
5042.00,0.26
5041.00,0.26
5040.00,0.26
5039.00,0.26
5038.00,0.26
5037.00,0.26
5036.00,0.26
5035.00,0.26
5034.00,0.26
5033.00,0.26
5032.00,0.26
5031.00,0.26
5030.00,0.26
5029.00,0.26
5028.00,0.26
5027.00,0.26
5026.00,0.26
5025.00,0.26
5024.00,0.26
5023.00,0.26
5022.00,0.26
5021.00,0.26
5020.00,0.26
5019.00,0.26
5018.00,0.26
5017.00,0.26
5016.00,0.26
5015.00,0.26
5014.00,0.26
5013.00,0.26
5012.00,0.26
5011.00,0.26
5010.00,0.26
5009.00,0.26
5008.00,0.26
5007.00,0.26
5006.00,0.26
5005.00,0.26
5004.00,0.26
5003.00,0.26
5002.00,0.26
5001.00,0.26
5000.00,0.26
4999.00,0.26
4998.00,0.27
4997.00,0.27
4996.00,0.27
4995.00,0.27
4994.00,0.27
4993.00,0.27
4992.00,0.27
4991.00,0.27
4990.00,0.27
4989.00,0.27
4988.00,0.27
4987.00,0.27
4986.00,0.27
4985.00,0.27
4984.00,0.27
4983.00,0.27
4982.00,0.27
4981.00,0.27
4980.00,0.27
4979.00,0.27
4978.00,0.27
4977.00,0.27
4976.00,0.27
4975.00,0.27
4974.00,0.27
4973.00,0.27
4972.00,0.27
4971.00,0.27
4970.00,0.27
4969.00,0.27
4968.00,0.28
4967.00,0.28
4966.00,0.28
4965.00,0.28
4964.00,0.28
4963.00,0.28
4962.00,0.28
4961.00,0.28
4960.00,0.28
4959.00,0.28
4958.00,0.28
4957.00,0.28
4956.00,0.28
4955.00,0.28
4954.00,0.28
4953.00,0.28
4952.00,0.28
4951.00,0.28
4950.00,0.28
4949.00,0.28
4948.00,0.28
4947.00,0.28
4946.00,0.28
4945.00,0.28
4944.00,0.28
4943.00,0.28
4942.00,0.28
4941.00,0.28
4940.00,0.28
4939.00,0.28
4938.00,0.28
4937.00,0.28
4936.00,0.28
4935.00,0.28
4934.00,0.28
4933.00,0.28
4932.00,0.28
4931.00,0.28
4930.00,0.28
4929.00,0.29
4928.00,0.29
4927.00,0.29
4926.00,0.29
4925.00,0.29
4924.00,0.29
4923.00,0.29
4922.00,0.29
4921.00,0.29
4920.00,0.29
4919.00,0.29
4918.00,0.29
4917.00,0.29
4916.00,0.29
4915.00,0.29
4914.00,0.30
4913.00,0.30
4912.00,0.30
4911.00,0.30
4910.00,0.30
4909.00,0.30
4908.00,0.30
4907.00,0.30
4906.00,0.30
4905.00,0.30
4904.00,0.30
4903.00,0.30
4902.00,0.30
4901.00,0.30
4900.00,0.30
4899.00,0.30
4898.00,0.30
4897.00,0.30
4896.00,0.30
4895.00,0.30
4894.00,0.30
4893.00,0.30
4892.00,0.30
4891.00,0.30
4890.00,0.30
4889.00,0.30
4888.00,0.30
4887.00,0.30
4886.00,0.30
4885.00,0.30
4884.00,0.30
4883.00,0.30
4882.00,0.30
4881.00,0.30
4880.00,0.30
4879.00,0.30
4878.00,0.30
4877.00,0.30
4876.00,0.30
4875.00,0.30
4874.00,0.30
4873.00,0.30
4872.00,0.30
4871.00,0.30
4870.00,0.31
4869.00,0.31
4868.00,0.31
4867.00,0.31
4866.00,0.31
4865.00,0.31
4864.00,0.31
4863.00,0.31
4862.00,0.31
4861.00,0.31
4860.00,0.31
4859.00,0.31
4858.00,0.31
4857.00,0.31
4856.00,0.31
4855.00,0.31
4854.00,0.31
4853.00,0.31
4852.00,0.31
4851.00,0.31
4850.00,0.31
4849.00,0.31
4848.00,0.31
4847.00,0.31
4846.00,0.31
4845.00,0.31
4844.00,0.31
4843.00,0.31
4842.00,0.31
4841.00,0.32
4840.00,0.32
4839.00,0.32
4838.00,0.32
4837.00,0.32
4836.00,0.32
4835.00,0.32
4834.00,0.32
4833.00,0.32
4832.00,0.32
4831.00,0.32
4830.00,0.32
4829.00,0.32
4828.00,0.32
4827.00,0.32
4826.00,0.32
4825.00,0.32
4824.00,0.32
4823.00,0.32
4822.00,0.32
4821.00,0.32
4820.00,0.32
4819.00,0.32
4818.00,0.32
4817.00,0.32
4816.00,0.32
4815.00,0.32
4814.00,0.32
4813.00,0.32
4812.00,0.32
4811.00,0.33
4810.00,0.33
4809.00,0.33
4808.00,0.33
4807.00,0.33
4806.00,0.33
4805.00,0.33
4804.00,0.33
4803.00,0.33
4802.00,0.33
4801.00,0.33
4800.00,0.33
4799.00,0.33
4798.00,0.33
4797.00,0.33
4796.00,0.34
4795.00,0.34
4794.00,0.34
4793.00,0.34
4792.00,0.34
4791.00,0.34
4790.00,0.34
4789.00,0.34
4788.00,0.34
4787.00,0.34
4786.00,0.34
4785.00,0.34
4784.00,0.34
4783.00,0.34
4782.00,0.34
4781.00,0.34
4780.00,0.34
4779.00,0.34
4778.00,0.34
4777.00,0.34
4776.00,0.35
4775.00,0.35
4774.00,0.35
4773.00,0.35
4772.00,0.35
4771.00,0.35
4770.00,0.35
4769.00,0.35
4768.00,0.35
4767.00,0.35
4766.00,0.35
4765.00,0.35
4764.00,0.35
4763.00,0.35
4762.00,0.35
4761.00,0.35
4760.00,0.35
4759.00,0.35
4758.00,0.35
4757.00,0.35
4756.00,0.35
4755.00,0.35
4754.00,0.35
4753.00,0.35
4752.00,0.35
4751.00,0.35
4750.00,0.36
4749.00,0.36
4748.00,0.36
4747.00,0.36
4746.00,0.36
4745.00,0.36
4744.00,0.36
4743.00,0.36
4742.00,0.36
4741.00,0.36
4740.00,0.36
4739.00,0.36
4738.00,0.36
4737.00,0.36
4736.00,0.36
4735.00,0.36
4734.00,0.37
4733.00,0.37
4732.00,0.37
4731.00,0.37
4730.00,0.37
4729.00,0.37
4728.00,0.37
4727.00,0.37
4726.00,0.37
4725.00,0.37
4724.00,0.38
4723.00,0.38
4722.00,0.38
4721.00,0.38
4720.00,0.38
4719.00,0.38
4718.00,0.38
4717.00,0.38
4716.00,0.38
4715.00,0.38
4714.00,0.38
4713.00,0.38
4712.00,0.38
4711.00,0.38
4710.00,0.38
4709.00,0.38
4708.00,0.38
4707.00,0.38
4706.00,0.38
4705.00,0.39
4704.00,0.39
4703.00,0.39
4702.00,0.39
4701.00,0.39
4700.00,0.39
4699.00,0.39
4698.00,0.39
4697.00,0.39
4696.00,0.39
4695.00,0.39
4694.00,0.40
4693.00,0.40
4692.00,0.40
4691.00,0.40
4690.00,0.40
4689.00,0.40
4688.00,0.40
4687.00,0.40
4686.00,0.40
4685.00,0.40
4684.00,0.40
4683.00,0.40
4682.00,0.40
4681.00,0.40
4680.00,0.40
4679.00,0.40
4678.00,0.40
4677.00,0.40
4676.00,0.40
4675.00,0.41
4674.00,0.41
4673.00,0.41
4672.00,0.41
4671.00,0.41
4670.00,0.41
4669.00,0.41
4668.00,0.41
4667.00,0.41
4666.00,0.41
4665.00,0.41
4664.00,0.41
4663.00,0.41
4662.00,0.41
4661.00,0.41
4660.00,0.41
4659.00,0.41
4658.00,0.41
4657.00,0.41
4656.00,0.41
4655.00,0.41
4654.00,0.41
4653.00,0.41
4652.00,0.41
4651.00,0.41
4650.00,0.41
4649.00,0.42
4648.00,0.42
4647.00,0.42
4646.00,0.42
4645.00,0.42
4644.00,0.42
4643.00,0.42
4642.00,0.42
4641.00,0.42
4640.00,0.42
4639.00,0.42
4638.00,0.42
4637.00,0.42
4636.00,0.42
4635.00,0.42
4634.00,0.42
4633.00,0.42
4632.00,0.42
4631.00,0.42
4630.00,0.43
4629.00,0.43
4628.00,0.43
4627.00,0.43
4626.00,0.43
4625.00,0.43
4624.00,0.43
4623.00,0.43
4622.00,0.43
4621.00,0.43
4620.00,0.43
4619.00,0.43
4618.00,0.43
4617.00,0.43
4616.00,0.43
4615.00,0.43
4614.00,0.43
4613.00,0.43
4612.00,0.43
4611.00,0.43
4610.00,0.43
4609.00,0.43
4608.00,0.43
4607.00,0.43
4606.00,0.43
4605.00,0.43
4604.00,0.43
4603.00,0.43
4602.00,0.43
4601.00,0.43
4600.00,0.43
4599.00,0.44
4598.00,0.44
4597.00,0.44
4596.00,0.44
4595.00,0.44
4594.00,0.44
4593.00,0.44
4592.00,0.44
4591.00,0.44
4590.00,0.44
4589.00,0.44
4588.00,0.44
4587.00,0.44
4586.00,0.44
4585.00,0.44
4584.00,0.44
4583.00,0.45
4582.00,0.45
4581.00,0.45
4580.00,0.45
4579.00,0.45
4578.00,0.45
4577.00,0.45
4576.00,0.45
4575.00,0.45
4574.00,0.45
4573.00,0.45
4572.00,0.45
4571.00,0.45
4570.00,0.45
4569.00,0.45
4568.00,0.45
4567.00,0.45
4566.00,0.45
4565.00,0.46
4564.00,0.46
4563.00,0.46
4562.00,0.46
4561.00,0.46
4560.00,0.46
4559.00,0.46
4558.00,0.46
4557.00,0.46
4556.00,0.46
4555.00,0.46
4554.00,0.46
4553.00,0.46
4552.00,0.46
4551.00,0.46
4550.00,0.46
4549.00,0.46
4548.00,0.46
4547.00,0.46
4546.00,0.46
4545.00,0.46
4544.00,0.46
4543.00,0.46
4542.00,0.46
4541.00,0.46
4540.00,0.46
4539.00,0.46
4538.00,0.46
4537.00,0.46
4536.00,0.46
4535.00,0.46
4534.00,0.46
4533.00,0.46
4532.00,0.46
4531.00,0.46
4530.00,0.46
4529.00,0.46
4528.00,0.46
4527.00,0.46
4526.00,0.46
4525.00,0.46
4524.00,0.46
4523.00,0.46
4522.00,0.46
4521.00,0.46
4520.00,0.47
4519.00,0.47
4518.00,0.47
4517.00,0.47
4516.00,0.47
4515.00,0.47
4514.00,0.47
4513.00,0.47
4512.00,0.47
4511.00,0.47
4510.00,0.47
4509.00,0.46
4508.00,0.46
4507.00,0.46
4506.00,0.46
4505.00,0.46
4504.00,0.46
4503.00,0.46
4502.00,0.46
4501.00,0.46
4500.00,0.46
4499.00,0.46
4498.00,0.46
4497.00,0.46
4496.00,0.46
4495.00,0.46
4494.00,0.46
4493.00,0.46
4492.00,0.46
4491.00,0.46
4490.00,0.46
4489.00,0.46
4488.00,0.46
4487.00,0.46
4486.00,0.46
4485.00,0.46
4484.00,0.46
4483.00,0.46
4482.00,0.46
4481.00,0.46
4480.00,0.46
4479.00,0.46
4478.00,0.46
4477.00,0.46
4476.00,0.46
4475.00,0.46
4474.00,0.46
4473.00,0.46
4472.00,0.45
4471.00,0.45
4470.00,0.45
4469.00,0.45
4468.00,0.45
4467.00,0.45
4466.00,0.45
4465.00,0.45
4464.00,0.45
4463.00,0.45
4462.00,0.45
4461.00,0.45
4460.00,0.44
4459.00,0.44
4458.00,0.44
4457.00,0.44
4456.00,0.44
4455.00,0.44
4454.00,0.44
4453.00,0.44
4452.00,0.43
4451.00,0.43
4450.00,0.43
4449.00,0.43
4448.00,0.43
4447.00,0.42
4446.00,0.42
4445.00,0.42
4444.00,0.42
4443.00,0.42
4442.00,0.41
4441.00,0.41
4440.00,0.41
4439.00,0.41
4438.00,0.41
4437.00,0.40
4436.00,0.40
4435.00,0.40
4434.00,0.40
4433.00,0.40
4432.00,0.40
4431.00,0.39
4430.00,0.39
4429.00,0.39
4428.00,0.39
4427.00,0.39
4426.00,0.39
4425.00,0.39
4424.00,0.39
4423.00,0.39
4422.00,0.38
4421.00,0.38
4420.00,0.38
4419.00,0.38
4418.00,0.38
4417.00,0.38
4416.00,0.38
4415.00,0.38
4414.00,0.38
4413.00,0.38
4412.00,0.38
4411.00,0.38
4410.00,0.38
4409.00,0.38
4408.00,0.38
4407.00,0.38
4406.00,0.38
4405.00,0.38
4404.00,0.38
4403.00,0.38
4402.00,0.38
4401.00,0.38
4400.00,0.38
4399.00,0.38
4398.00,0.39
4397.00,0.39
4396.00,0.39
4395.00,0.39
4394.00,0.39
4393.00,0.39
4392.00,0.39
4391.00,0.39
4390.00,0.39
4389.00,0.39
4388.00,0.40
4387.00,0.40
4386.00,0.40
4385.00,0.40
4384.00,0.40
4383.00,0.40
4382.00,0.40
4381.00,0.40
4380.00,0.40
4379.00,0.40
4378.00,0.40
4377.00,0.40
4376.00,0.40
4375.00,0.40
4374.00,0.40
4373.00,0.40
4372.00,0.40
4371.00,0.40
4370.00,0.40
4369.00,0.40
4368.00,0.40
4367.00,0.40
4366.00,0.40
4365.00,0.40
4364.00,0.40
4363.00,0.40
4362.00,0.40
4361.00,0.40
4360.00,0.40
4359.00,0.40
4358.00,0.39
4357.00,0.39
4356.00,0.39
4355.00,0.39
4354.00,0.39
4353.00,0.39
4352.00,0.39
4351.00,0.39
4350.00,0.39
4349.00,0.39
4348.00,0.39
4347.00,0.39
4346.00,0.39
4345.00,0.39
4344.00,0.39
4343.00,0.39
4342.00,0.39
4341.00,0.39
4340.00,0.39
4339.00,0.39
4338.00,0.39
4337.00,0.39
4336.00,0.39
4335.00,0.39
4334.00,0.39
4333.00,0.39
4332.00,0.39
4331.00,0.39
4330.00,0.40
4329.00,0.40
4328.00,0.40
4327.00,0.40
4326.00,0.40
4325.00,0.40
4324.00,0.40
4323.00,0.40
4322.00,0.40
4321.00,0.41
4320.00,0.41
4319.00,0.41
4318.00,0.41
4317.00,0.41
4316.00,0.41
4315.00,0.41
4314.00,0.41
4313.00,0.42
4312.00,0.42
4311.00,0.42
4310.00,0.42
4309.00,0.42
4308.00,0.42
4307.00,0.42
4306.00,0.42
4305.00,0.42
4304.00,0.42
4303.00,0.42
4302.00,0.42
4301.00,0.42
4300.00,0.42
4299.00,0.43
4298.00,0.43
4297.00,0.43
4296.00,0.43
4295.00,0.43
4294.00,0.43
4293.00,0.43
4292.00,0.43
4291.00,0.43
4290.00,0.43
4289.00,0.43
4288.00,0.43
4287.00,0.43
4286.00,0.43
4285.00,0.43
4284.00,0.43
4283.00,0.43
4282.00,0.43
4281.00,0.43
4280.00,0.43
4279.00,0.43
4278.00,0.43
4277.00,0.43
4276.00,0.43
4275.00,0.43
4274.00,0.43
4273.00,0.43
4272.00,0.43
4271.00,0.43
4270.00,0.42
4269.00,0.42
4268.00,0.42
4267.00,0.42
4266.00,0.42
4265.00,0.42
4264.00,0.42
4263.00,0.42
4262.00,0.42
4261.00,0.42
4260.00,0.42
4259.00,0.42
4258.00,0.42
4257.00,0.42
4256.00,0.42
4255.00,0.42
4254.00,0.42
4253.00,0.42
4252.00,0.42
4251.00,0.42
4250.00,0.42
4249.00,0.42
4248.00,0.42
4247.00,0.42
4246.00,0.43
4245.00,0.43
4244.00,0.43
4243.00,0.43
4242.00,0.43
4241.00,0.43
4240.00,0.43
4239.00,0.43
4238.00,0.43
4237.00,0.43
4236.00,0.43
4235.00,0.43
4234.00,0.43
4233.00,0.44
4232.00,0.44
4231.00,0.44
4230.00,0.44
4229.00,0.44
4228.00,0.44
4227.00,0.44
4226.00,0.44
4225.00,0.44
4224.00,0.44
4223.00,0.44
4222.00,0.44
4221.00,0.44
4220.00,0.44
4219.00,0.44
4218.00,0.44
4217.00,0.44
4216.00,0.44
4215.00,0.44
4214.00,0.44
4213.00,0.44
4212.00,0.44
4211.00,0.44
4210.00,0.44
4209.00,0.44
4208.00,0.44
4207.00,0.44
4206.00,0.44
4205.00,0.44
4204.00,0.44
4203.00,0.44
4202.00,0.44
4201.00,0.44
4200.00,0.44
4199.00,0.44
4198.00,0.44
4197.00,0.44
4196.00,0.44
4195.00,0.44
4194.00,0.44
4193.00,0.44
4192.00,0.44
4191.00,0.44
4190.00,0.44
4189.00,0.44
4188.00,0.44
4187.00,0.44
4186.00,0.44
4185.00,0.44
4184.00,0.44
4183.00,0.44
4182.00,0.44
4181.00,0.44
4180.00,0.44
4179.00,0.44
4178.00,0.44
4177.00,0.44
4176.00,0.44
4175.00,0.44
4174.00,0.44
4173.00,0.44
4172.00,0.44
4171.00,0.44
4170.00,0.44
4169.00,0.44
4168.00,0.44
4167.00,0.44
4166.00,0.44
4165.00,0.44
4164.00,0.44
4163.00,0.44
4162.00,0.44
4161.00,0.44
4160.00,0.44
4159.00,0.44
4158.00,0.44
4157.00,0.44
4156.00,0.44
4155.00,0.44
4154.00,0.44
4153.00,0.44
4152.00,0.44
4151.00,0.44
4150.00,0.44
4149.00,0.44
4148.00,0.44
4147.00,0.44
4146.00,0.44
4145.00,0.44
4144.00,0.44
4143.00,0.44
4142.00,0.44
4141.00,0.44
4140.00,0.44
4139.00,0.44
4138.00,0.44
4137.00,0.44
4136.00,0.44
4135.00,0.44
4134.00,0.44
4133.00,0.44
4132.00,0.44
4131.00,0.44
4130.00,0.44
4129.00,0.44
4128.00,0.44
4127.00,0.44
4126.00,0.44
4125.00,0.44
4124.00,0.44
4123.00,0.44
4122.00,0.44
4121.00,0.44
4120.00,0.44
4119.00,0.44
4118.00,0.44
4117.00,0.44
4116.00,0.44
4115.00,0.44
4114.00,0.44
4113.00,0.44
4112.00,0.44
4111.00,0.44
4110.00,0.44
4109.00,0.44
4108.00,0.44
4107.00,0.44
4106.00,0.44
4105.00,0.44
4104.00,0.44
4103.00,0.44
4102.00,0.44
4101.00,0.44
4100.00,0.44
4099.00,0.44
4098.00,0.44
4097.00,0.44
4096.00,0.44
4095.00,0.44
4094.00,0.44
4093.00,0.44
4092.00,0.44
4091.00,0.44
4090.00,0.45
4089.00,0.45
4088.00,0.45
4087.00,0.45
4086.00,0.45
4085.00,0.45
4084.00,0.45
4083.00,0.45
4082.00,0.45
4081.00,0.45
4080.00,0.45
4079.00,0.45
4078.00,0.45
4077.00,0.45
4076.00,0.45
4075.00,0.45
4074.00,0.45
4073.00,0.45
4072.00,0.45
4071.00,0.45
4070.00,0.45
4069.00,0.45
4068.00,0.45
4067.00,0.45
4066.00,0.45
4065.00,0.45
4064.00,0.45
4063.00,0.45
4062.00,0.45
4061.00,0.45
4060.00,0.45
4059.00,0.45
4058.00,0.45
4057.00,0.45
4056.00,0.45
4055.00,0.45
4054.00,0.45
4053.00,0.45
4052.00,0.45
4051.00,0.45
4050.00,0.45
4049.00,0.45
4048.00,0.45
4047.00,0.45
4046.00,0.45
4045.00,0.45
4044.00,0.45
4043.00,0.45
4042.00,0.45
4041.00,0.45
4040.00,0.45
4039.00,0.45
4038.00,0.46
4037.00,0.46
4036.00,0.46
4035.00,0.46
4034.00,0.46
4033.00,0.46
4032.00,0.46
4031.00,0.46
4030.00,0.46
4029.00,0.46
4028.00,0.46
4027.00,0.46
4026.00,0.46
4025.00,0.46
4024.00,0.46
4023.00,0.46
4022.00,0.46
4021.00,0.46
4020.00,0.46
4019.00,0.47
4018.00,0.47
4017.00,0.47
4016.00,0.47
4015.00,0.47
4014.00,0.47
4013.00,0.47
4012.00,0.47
4011.00,0.47
4010.00,0.47
4009.00,0.48
4008.00,0.48
4007.00,0.48
4006.00,0.48
4005.00,0.48
4004.00,0.48
4003.00,0.48
4002.00,0.48
4001.00,0.48
4000.00,0.47
