创建为新数据集,样品 496 用户 Administrator 日期 星期一, 七月 16 2018
cm-1,%T
10000.00,1.15
9999.00,1.15
9998.00,1.15
9997.00,1.14
9996.00,1.14
9995.00,1.14
9994.00,1.14
9993.00,1.14
9992.00,1.14
9991.00,1.14
9990.00,1.14
9989.00,1.14
9988.00,1.14
9987.00,1.14
9986.00,1.14
9985.00,1.14
9984.00,1.14
9983.00,1.14
9982.00,1.14
9981.00,1.14
9980.00,1.14
9979.00,1.14
9978.00,1.14
9977.00,1.14
9976.00,1.14
9975.00,1.14
9974.00,1.14
9973.00,1.14
9972.00,1.14
9971.00,1.14
9970.00,1.14
9969.00,1.14
9968.00,1.15
9967.00,1.15
9966.00,1.15
9965.00,1.15
9964.00,1.15
9963.00,1.15
9962.00,1.15
9961.00,1.15
9960.00,1.15
9959.00,1.15
9958.00,1.15
9957.00,1.15
9956.00,1.14
9955.00,1.14
9954.00,1.14
9953.00,1.14
9952.00,1.13
9951.00,1.13
9950.00,1.13
9949.00,1.12
9948.00,1.12
9947.00,1.11
9946.00,1.11
9945.00,1.11
9944.00,1.10
9943.00,1.10
9942.00,1.10
9941.00,1.09
9940.00,1.09
9939.00,1.09
9938.00,1.09
9937.00,1.09
9936.00,1.10
9935.00,1.10
9934.00,1.10
9933.00,1.10
9932.00,1.11
9931.00,1.11
9930.00,1.11
9929.00,1.12
9928.00,1.12
9927.00,1.12
9926.00,1.12
9925.00,1.12
9924.00,1.12
9923.00,1.12
9922.00,1.12
9921.00,1.12
9920.00,1.12
9919.00,1.12
9918.00,1.11
9917.00,1.11
9916.00,1.11
9915.00,1.10
9914.00,1.10
9913.00,1.10
9912.00,1.10
9911.00,1.10
9910.00,1.09
9909.00,1.09
9908.00,1.09
9907.00,1.09
9906.00,1.09
9905.00,1.09
9904.00,1.09
9903.00,1.09
9902.00,1.09
9901.00,1.09
9900.00,1.09
9899.00,1.10
9898.00,1.10
9897.00,1.10
9896.00,1.10
9895.00,1.10
9894.00,1.10
9893.00,1.10
9892.00,1.11
9891.00,1.11
9890.00,1.11
9889.00,1.11
9888.00,1.11
9887.00,1.11
9886.00,1.11
9885.00,1.12
9884.00,1.12
9883.00,1.12
9882.00,1.12
9881.00,1.12
9880.00,1.11
9879.00,1.11
9878.00,1.11
9877.00,1.11
9876.00,1.11
9875.00,1.11
9874.00,1.11
9873.00,1.10
9872.00,1.10
9871.00,1.10
9870.00,1.10
9869.00,1.10
9868.00,1.10
9867.00,1.10
9866.00,1.09
9865.00,1.09
9864.00,1.09
9863.00,1.09
9862.00,1.10
9861.00,1.10
9860.00,1.10
9859.00,1.10
9858.00,1.10
9857.00,1.10
9856.00,1.10
9855.00,1.10
9854.00,1.10
9853.00,1.10
9852.00,1.10
9851.00,1.10
9850.00,1.10
9849.00,1.11
9848.00,1.11
9847.00,1.11
9846.00,1.11
9845.00,1.11
9844.00,1.11
9843.00,1.11
9842.00,1.11
9841.00,1.11
9840.00,1.11
9839.00,1.11
9838.00,1.11
9837.00,1.11
9836.00,1.11
9835.00,1.11
9834.00,1.10
9833.00,1.10
9832.00,1.10
9831.00,1.10
9830.00,1.10
9829.00,1.11
9828.00,1.11
9827.00,1.11
9826.00,1.11
9825.00,1.11
9824.00,1.11
9823.00,1.12
9822.00,1.12
9821.00,1.12
9820.00,1.13
9819.00,1.13
9818.00,1.13
9817.00,1.13
9816.00,1.14
9815.00,1.14
9814.00,1.14
9813.00,1.14
9812.00,1.14
9811.00,1.14
9810.00,1.14
9809.00,1.14
9808.00,1.14
9807.00,1.14
9806.00,1.14
9805.00,1.14
9804.00,1.14
9803.00,1.14
9802.00,1.13
9801.00,1.13
9800.00,1.13
9799.00,1.13
9798.00,1.13
9797.00,1.13
9796.00,1.12
9795.00,1.12
9794.00,1.12
9793.00,1.12
9792.00,1.12
9791.00,1.12
9790.00,1.12
9789.00,1.12
9788.00,1.12
9787.00,1.12
9786.00,1.12
9785.00,1.12
9784.00,1.12
9783.00,1.13
9782.00,1.13
9781.00,1.13
9780.00,1.13
9779.00,1.13
9778.00,1.13
9777.00,1.13
9776.00,1.13
9775.00,1.13
9774.00,1.13
9773.00,1.13
9772.00,1.14
9771.00,1.14
9770.00,1.14
9769.00,1.14
9768.00,1.14
9767.00,1.14
9766.00,1.14
9765.00,1.14
9764.00,1.14
9763.00,1.14
9762.00,1.14
9761.00,1.14
9760.00,1.14
9759.00,1.14
9758.00,1.14
9757.00,1.14
9756.00,1.14
9755.00,1.14
9754.00,1.14
9753.00,1.14
9752.00,1.14
9751.00,1.14
9750.00,1.15
9749.00,1.15
9748.00,1.15
9747.00,1.15
9746.00,1.15
9745.00,1.14
9744.00,1.14
9743.00,1.14
9742.00,1.14
9741.00,1.14
9740.00,1.14
9739.00,1.13
9738.00,1.13
9737.00,1.13
9736.00,1.13
9735.00,1.12
9734.00,1.12
9733.00,1.12
9732.00,1.12
9731.00,1.11
9730.00,1.11
9729.00,1.11
9728.00,1.11
9727.00,1.11
9726.00,1.10
9725.00,1.10
9724.00,1.10
9723.00,1.10
9722.00,1.10
9721.00,1.10
9720.00,1.10
9719.00,1.11
9718.00,1.11
9717.00,1.11
9716.00,1.11
9715.00,1.11
9714.00,1.11
9713.00,1.11
9712.00,1.11
9711.00,1.11
9710.00,1.11
9709.00,1.11
9708.00,1.11
9707.00,1.11
9706.00,1.11
9705.00,1.11
9704.00,1.11
9703.00,1.10
9702.00,1.10
9701.00,1.10
9700.00,1.10
9699.00,1.10
9698.00,1.10
9697.00,1.10
9696.00,1.10
9695.00,1.11
9694.00,1.11
9693.00,1.11
9692.00,1.11
9691.00,1.12
9690.00,1.12
9689.00,1.12
9688.00,1.13
9687.00,1.13
9686.00,1.13
9685.00,1.13
9684.00,1.14
9683.00,1.14
9682.00,1.14
9681.00,1.14
9680.00,1.14
9679.00,1.14
9678.00,1.14
9677.00,1.14
9676.00,1.14
9675.00,1.14
9674.00,1.14
9673.00,1.14
9672.00,1.14
9671.00,1.14
9670.00,1.14
9669.00,1.14
9668.00,1.13
9667.00,1.13
9666.00,1.13
9665.00,1.13
9664.00,1.13
9663.00,1.13
9662.00,1.13
9661.00,1.13
9660.00,1.13
9659.00,1.13
9658.00,1.13
9657.00,1.13
9656.00,1.13
9655.00,1.13
9654.00,1.13
9653.00,1.13
9652.00,1.13
9651.00,1.13
9650.00,1.13
9649.00,1.13
9648.00,1.13
9647.00,1.13
9646.00,1.13
9645.00,1.13
9644.00,1.13
9643.00,1.13
9642.00,1.13
9641.00,1.13
9640.00,1.13
9639.00,1.13
9638.00,1.12
9637.00,1.12
9636.00,1.12
9635.00,1.12
9634.00,1.12
9633.00,1.12
9632.00,1.12
9631.00,1.11
9630.00,1.11
9629.00,1.11
9628.00,1.11
9627.00,1.11
9626.00,1.11
9625.00,1.11
9624.00,1.11
9623.00,1.11
9622.00,1.11
9621.00,1.11
9620.00,1.11
9619.00,1.11
9618.00,1.12
9617.00,1.12
9616.00,1.12
9615.00,1.12
9614.00,1.12
9613.00,1.13
9612.00,1.13
9611.00,1.13
9610.00,1.13
9609.00,1.14
9608.00,1.14
9607.00,1.14
9606.00,1.14
9605.00,1.14
9604.00,1.14
9603.00,1.14
9602.00,1.14
9601.00,1.14
9600.00,1.13
9599.00,1.13
9598.00,1.13
9597.00,1.13
9596.00,1.13
9595.00,1.13
9594.00,1.13
9593.00,1.12
9592.00,1.12
9591.00,1.12
9590.00,1.12
9589.00,1.12
9588.00,1.12
9587.00,1.12
9586.00,1.12
9585.00,1.12
9584.00,1.12
9583.00,1.13
9582.00,1.13
9581.00,1.13
9580.00,1.13
9579.00,1.12
9578.00,1.12
9577.00,1.12
9576.00,1.12
9575.00,1.12
9574.00,1.12
9573.00,1.12
9572.00,1.12
9571.00,1.11
9570.00,1.11
9569.00,1.11
9568.00,1.11
9567.00,1.11
9566.00,1.11
9565.00,1.10
9564.00,1.10
9563.00,1.10
9562.00,1.10
9561.00,1.10
9560.00,1.10
9559.00,1.10
9558.00,1.11
9557.00,1.11
9556.00,1.11
9555.00,1.11
9554.00,1.11
9553.00,1.11
9552.00,1.12
9551.00,1.12
9550.00,1.12
9549.00,1.12
9548.00,1.12
9547.00,1.12
9546.00,1.12
9545.00,1.12
9544.00,1.12
9543.00,1.12
9542.00,1.11
9541.00,1.11
9540.00,1.11
9539.00,1.11
9538.00,1.11
9537.00,1.11
9536.00,1.10
9535.00,1.10
9534.00,1.10
9533.00,1.10
9532.00,1.10
9531.00,1.10
9530.00,1.10
9529.00,1.10
9528.00,1.10
9527.00,1.10
9526.00,1.10
9525.00,1.11
9524.00,1.11
9523.00,1.11
9522.00,1.11
9521.00,1.12
9520.00,1.12
9519.00,1.12
9518.00,1.13
9517.00,1.13
9516.00,1.13
9515.00,1.13
9514.00,1.13
9513.00,1.14
9512.00,1.14
9511.00,1.14
9510.00,1.14
9509.00,1.14
9508.00,1.14
9507.00,1.14
9506.00,1.14
9505.00,1.13
9504.00,1.13
9503.00,1.13
9502.00,1.13
9501.00,1.13
9500.00,1.13
9499.00,1.12
9498.00,1.12
9497.00,1.12
9496.00,1.12
9495.00,1.12
9494.00,1.12
9493.00,1.12
9492.00,1.12
9491.00,1.12
9490.00,1.12
9489.00,1.12
9488.00,1.12
9487.00,1.12
9486.00,1.12
9485.00,1.12
9484.00,1.12
9483.00,1.12
9482.00,1.12
9481.00,1.12
9480.00,1.12
9479.00,1.12
9478.00,1.12
9477.00,1.12
9476.00,1.12
9475.00,1.12
9474.00,1.12
9473.00,1.12
9472.00,1.12
9471.00,1.12
9470.00,1.12
9469.00,1.12
9468.00,1.12
9467.00,1.12
9466.00,1.12
9465.00,1.12
9464.00,1.12
9463.00,1.12
9462.00,1.12
9461.00,1.12
9460.00,1.11
9459.00,1.11
9458.00,1.11
9457.00,1.11
9456.00,1.11
9455.00,1.10
9454.00,1.10
9453.00,1.10
9452.00,1.10
9451.00,1.10
9450.00,1.10
9449.00,1.10
9448.00,1.09
9447.00,1.09
9446.00,1.09
9445.00,1.09
9444.00,1.09
9443.00,1.09
9442.00,1.09
9441.00,1.09
9440.00,1.09
9439.00,1.09
9438.00,1.09
9437.00,1.09
9436.00,1.09
9435.00,1.09
9434.00,1.09
9433.00,1.09
9432.00,1.09
9431.00,1.09
9430.00,1.09
9429.00,1.09
9428.00,1.09
9427.00,1.09
9426.00,1.10
9425.00,1.10
9424.00,1.10
9423.00,1.10
9422.00,1.10
9421.00,1.11
9420.00,1.11
9419.00,1.11
9418.00,1.11
9417.00,1.11
9416.00,1.11
9415.00,1.11
9414.00,1.12
9413.00,1.12
9412.00,1.12
9411.00,1.12
9410.00,1.11
9409.00,1.11
9408.00,1.11
9407.00,1.11
9406.00,1.11
9405.00,1.11
9404.00,1.11
9403.00,1.11
9402.00,1.11
9401.00,1.10
9400.00,1.10
9399.00,1.10
9398.00,1.10
9397.00,1.10
9396.00,1.10
9395.00,1.10
9394.00,1.11
9393.00,1.11
9392.00,1.11
9391.00,1.11
9390.00,1.11
9389.00,1.11
9388.00,1.11
9387.00,1.12
9386.00,1.12
9385.00,1.12
9384.00,1.12
9383.00,1.12
9382.00,1.13
9381.00,1.13
9380.00,1.13
9379.00,1.13
9378.00,1.14
9377.00,1.14
9376.00,1.14
9375.00,1.14
9374.00,1.14
9373.00,1.14
9372.00,1.15
9371.00,1.15
9370.00,1.15
9369.00,1.15
9368.00,1.14
9367.00,1.14
9366.00,1.14
9365.00,1.14
9364.00,1.14
9363.00,1.14
9362.00,1.13
9361.00,1.13
9360.00,1.13
9359.00,1.13
9358.00,1.13
9357.00,1.13
9356.00,1.12
9355.00,1.12
9354.00,1.12
9353.00,1.12
9352.00,1.12
9351.00,1.12
9350.00,1.12
9349.00,1.13
9348.00,1.13
9347.00,1.13
9346.00,1.13
9345.00,1.13
9344.00,1.13
9343.00,1.13
9342.00,1.13
9341.00,1.13
9340.00,1.13
9339.00,1.14
9338.00,1.14
9337.00,1.14
9336.00,1.14
9335.00,1.14
9334.00,1.14
9333.00,1.14
9332.00,1.14
9331.00,1.14
9330.00,1.14
9329.00,1.14
9328.00,1.14
9327.00,1.14
9326.00,1.14
9325.00,1.14
9324.00,1.14
9323.00,1.14
9322.00,1.14
9321.00,1.13
9320.00,1.13
9319.00,1.13
9318.00,1.13
9317.00,1.13
9316.00,1.13
9315.00,1.13
9314.00,1.13
9313.00,1.13
9312.00,1.13
9311.00,1.13
9310.00,1.13
9309.00,1.13
9308.00,1.13
9307.00,1.13
9306.00,1.13
9305.00,1.13
9304.00,1.13
9303.00,1.13
9302.00,1.13
9301.00,1.13
9300.00,1.13
9299.00,1.13
9298.00,1.13
9297.00,1.13
9296.00,1.13
9295.00,1.13
9294.00,1.13
9293.00,1.13
9292.00,1.13
9291.00,1.13
9290.00,1.13
9289.00,1.13
9288.00,1.12
9287.00,1.12
9286.00,1.12
9285.00,1.12
9284.00,1.12
9283.00,1.12
9282.00,1.12
9281.00,1.13
9280.00,1.13
9279.00,1.13
9278.00,1.13
9277.00,1.13
9276.00,1.13
9275.00,1.14
9274.00,1.14
9273.00,1.14
9272.00,1.14
9271.00,1.14
9270.00,1.15
9269.00,1.15
9268.00,1.15
9267.00,1.15
9266.00,1.15
9265.00,1.15
9264.00,1.15
9263.00,1.15
9262.00,1.15
9261.00,1.15
9260.00,1.14
9259.00,1.14
9258.00,1.14
9257.00,1.14
9256.00,1.14
9255.00,1.14
9254.00,1.14
9253.00,1.14
9252.00,1.14
9251.00,1.14
9250.00,1.14
9249.00,1.13
9248.00,1.13
9247.00,1.13
9246.00,1.13
9245.00,1.13
9244.00,1.13
9243.00,1.13
9242.00,1.13
9241.00,1.12
9240.00,1.12
9239.00,1.12
9238.00,1.12
9237.00,1.12
9236.00,1.12
9235.00,1.12
9234.00,1.12
9233.00,1.12
9232.00,1.12
9231.00,1.12
9230.00,1.12
9229.00,1.12
9228.00,1.12
9227.00,1.12
9226.00,1.12
9225.00,1.12
9224.00,1.12
9223.00,1.12
9222.00,1.12
9221.00,1.12
9220.00,1.11
9219.00,1.11
9218.00,1.11
9217.00,1.11
9216.00,1.11
9215.00,1.11
9214.00,1.11
9213.00,1.11
9212.00,1.11
9211.00,1.11
9210.00,1.11
9209.00,1.11
9208.00,1.12
9207.00,1.12
9206.00,1.12
9205.00,1.12
9204.00,1.12
9203.00,1.12
9202.00,1.12
9201.00,1.12
9200.00,1.13
9199.00,1.13
9198.00,1.13
9197.00,1.13
9196.00,1.13
9195.00,1.13
9194.00,1.13
9193.00,1.13
9192.00,1.13
9191.00,1.12
9190.00,1.12
9189.00,1.12
9188.00,1.12
9187.00,1.12
9186.00,1.12
9185.00,1.11
9184.00,1.11
9183.00,1.11
9182.00,1.11
9181.00,1.11
9180.00,1.11
9179.00,1.11
9178.00,1.11
9177.00,1.11
9176.00,1.11
9175.00,1.12
9174.00,1.12
9173.00,1.12
9172.00,1.12
9171.00,1.12
9170.00,1.12
9169.00,1.13
9168.00,1.13
9167.00,1.13
9166.00,1.13
9165.00,1.13
9164.00,1.13
9163.00,1.13
9162.00,1.13
9161.00,1.13
9160.00,1.13
9159.00,1.13
9158.00,1.12
9157.00,1.12
9156.00,1.12
9155.00,1.12
9154.00,1.12
9153.00,1.12
9152.00,1.12
9151.00,1.12
9150.00,1.12
9149.00,1.12
9148.00,1.12
9147.00,1.13
9146.00,1.13
9145.00,1.13
9144.00,1.13
9143.00,1.13
9142.00,1.13
9141.00,1.13
9140.00,1.13
9139.00,1.14
9138.00,1.14
9137.00,1.14
9136.00,1.14
9135.00,1.14
9134.00,1.14
9133.00,1.14
9132.00,1.14
9131.00,1.13
9130.00,1.13
9129.00,1.13
9128.00,1.13
9127.00,1.13
9126.00,1.13
9125.00,1.12
9124.00,1.12
9123.00,1.12
9122.00,1.12
9121.00,1.12
9120.00,1.12
9119.00,1.12
9118.00,1.12
9117.00,1.12
9116.00,1.12
9115.00,1.12
9114.00,1.12
9113.00,1.12
9112.00,1.12
9111.00,1.12
9110.00,1.12
9109.00,1.12
9108.00,1.12
9107.00,1.13
9106.00,1.13
9105.00,1.13
9104.00,1.13
9103.00,1.13
9102.00,1.13
9101.00,1.13
9100.00,1.13
9099.00,1.13
9098.00,1.13
9097.00,1.12
9096.00,1.12
9095.00,1.12
9094.00,1.12
9093.00,1.12
9092.00,1.12
9091.00,1.12
9090.00,1.11
9089.00,1.11
9088.00,1.11
9087.00,1.11
9086.00,1.11
9085.00,1.11
9084.00,1.11
9083.00,1.11
9082.00,1.11
9081.00,1.11
9080.00,1.11
9079.00,1.11
9078.00,1.11
9077.00,1.12
9076.00,1.12
9075.00,1.12
9074.00,1.12
9073.00,1.12
9072.00,1.12
9071.00,1.12
9070.00,1.12
9069.00,1.12
9068.00,1.12
9067.00,1.12
9066.00,1.12
9065.00,1.12
9064.00,1.12
9063.00,1.12
9062.00,1.12
9061.00,1.12
9060.00,1.12
9059.00,1.13
9058.00,1.13
9057.00,1.13
9056.00,1.13
9055.00,1.13
9054.00,1.13
9053.00,1.13
9052.00,1.13
9051.00,1.13
9050.00,1.13
9049.00,1.13
9048.00,1.13
9047.00,1.13
9046.00,1.13
9045.00,1.13
9044.00,1.13
9043.00,1.13
9042.00,1.13
9041.00,1.13
9040.00,1.13
9039.00,1.13
9038.00,1.13
9037.00,1.12
9036.00,1.12
9035.00,1.12
9034.00,1.12
9033.00,1.12
9032.00,1.12
9031.00,1.12
9030.00,1.12
9029.00,1.11
9028.00,1.11
9027.00,1.11
9026.00,1.11
9025.00,1.11
9024.00,1.11
9023.00,1.11
9022.00,1.11
9021.00,1.11
9020.00,1.12
9019.00,1.12
9018.00,1.12
9017.00,1.12
9016.00,1.12
9015.00,1.13
9014.00,1.13
9013.00,1.13
9012.00,1.13
9011.00,1.13
9010.00,1.14
9009.00,1.14
9008.00,1.14
9007.00,1.14
9006.00,1.14
9005.00,1.14
9004.00,1.14
9003.00,1.14
9002.00,1.14
9001.00,1.14
9000.00,1.14
8999.00,1.14
8998.00,1.13
8997.00,1.13
8996.00,1.13
8995.00,1.13
8994.00,1.13
8993.00,1.13
8992.00,1.13
8991.00,1.13
8990.00,1.13
8989.00,1.13
8988.00,1.13
8987.00,1.13
8986.00,1.13
8985.00,1.13
8984.00,1.13
8983.00,1.13
8982.00,1.13
8981.00,1.13
8980.00,1.13
8979.00,1.13
8978.00,1.13
8977.00,1.13
8976.00,1.13
8975.00,1.13
8974.00,1.13
8973.00,1.13
8972.00,1.13
8971.00,1.13
8970.00,1.13
8969.00,1.13
8968.00,1.13
8967.00,1.13
8966.00,1.13
8965.00,1.13
8964.00,1.13
8963.00,1.13
8962.00,1.13
8961.00,1.13
8960.00,1.13
8959.00,1.13
8958.00,1.13
8957.00,1.13
8956.00,1.13
8955.00,1.13
8954.00,1.13
8953.00,1.13
8952.00,1.13
8951.00,1.13
8950.00,1.13
8949.00,1.13
8948.00,1.13
8947.00,1.13
8946.00,1.13
8945.00,1.13
8944.00,1.13
8943.00,1.13
8942.00,1.13
8941.00,1.13
8940.00,1.12
8939.00,1.12
8938.00,1.12
8937.00,1.12
8936.00,1.12
8935.00,1.12
8934.00,1.12
8933.00,1.12
8932.00,1.12
8931.00,1.12
8930.00,1.12
8929.00,1.12
8928.00,1.12
8927.00,1.12
8926.00,1.12
8925.00,1.12
8924.00,1.12
8923.00,1.12
8922.00,1.12
8921.00,1.12
8920.00,1.12
8919.00,1.12
8918.00,1.13
8917.00,1.13
8916.00,1.13
8915.00,1.13
8914.00,1.13
8913.00,1.13
8912.00,1.13
8911.00,1.13
8910.00,1.13
8909.00,1.13
8908.00,1.14
8907.00,1.14
8906.00,1.14
8905.00,1.14
8904.00,1.14
8903.00,1.14
8902.00,1.14
8901.00,1.14
8900.00,1.14
8899.00,1.13
8898.00,1.13
8897.00,1.13
8896.00,1.13
8895.00,1.13
8894.00,1.13
8893.00,1.13
8892.00,1.13
8891.00,1.13
8890.00,1.13
8889.00,1.13
8888.00,1.13
8887.00,1.13
8886.00,1.14
8885.00,1.14
8884.00,1.14
8883.00,1.14
8882.00,1.14
8881.00,1.14
8880.00,1.14
8879.00,1.14
8878.00,1.14
8877.00,1.14
8876.00,1.14
8875.00,1.14
8874.00,1.14
8873.00,1.14
8872.00,1.14
8871.00,1.14
8870.00,1.13
8869.00,1.13
8868.00,1.13
8867.00,1.13
8866.00,1.13
8865.00,1.13
8864.00,1.12
8863.00,1.12
8862.00,1.12
8861.00,1.12
8860.00,1.12
8859.00,1.12
8858.00,1.12
8857.00,1.12
8856.00,1.12
8855.00,1.12
8854.00,1.12
8853.00,1.12
8852.00,1.12
8851.00,1.12
8850.00,1.12
8849.00,1.12
8848.00,1.12
8847.00,1.12
8846.00,1.12
8845.00,1.13
8844.00,1.13
8843.00,1.13
8842.00,1.13
8841.00,1.13
8840.00,1.13
8839.00,1.13
8838.00,1.13
8837.00,1.12
8836.00,1.12
8835.00,1.12
8834.00,1.12
8833.00,1.12
8832.00,1.12
8831.00,1.12
8830.00,1.12
8829.00,1.12
8828.00,1.12
8827.00,1.12
8826.00,1.12
8825.00,1.12
8824.00,1.12
8823.00,1.12
8822.00,1.12
8821.00,1.11
8820.00,1.11
8819.00,1.11
8818.00,1.11
8817.00,1.11
8816.00,1.11
8815.00,1.11
8814.00,1.11
8813.00,1.11
8812.00,1.11
8811.00,1.11
8810.00,1.11
8809.00,1.11
8808.00,1.11
8807.00,1.11
8806.00,1.11
8805.00,1.11
8804.00,1.11
8803.00,1.11
8802.00,1.11
8801.00,1.11
8800.00,1.11
8799.00,1.12
8798.00,1.12
8797.00,1.12
8796.00,1.12
8795.00,1.12
8794.00,1.12
8793.00,1.12
8792.00,1.12
8791.00,1.12
8790.00,1.12
8789.00,1.12
8788.00,1.12
8787.00,1.12
8786.00,1.12
8785.00,1.12
8784.00,1.12
8783.00,1.11
8782.00,1.11
8781.00,1.11
8780.00,1.11
8779.00,1.11
8778.00,1.11
8777.00,1.11
8776.00,1.11
8775.00,1.11
8774.00,1.11
8773.00,1.10
8772.00,1.10
8771.00,1.10
8770.00,1.10
8769.00,1.10
8768.00,1.10
8767.00,1.10
8766.00,1.10
8765.00,1.10
8764.00,1.10
8763.00,1.10
8762.00,1.10
8761.00,1.10
8760.00,1.10
8759.00,1.10
8758.00,1.10
8757.00,1.10
8756.00,1.10
8755.00,1.10
8754.00,1.10
8753.00,1.11
8752.00,1.11
8751.00,1.11
8750.00,1.11
8749.00,1.11
8748.00,1.11
8747.00,1.11
8746.00,1.11
8745.00,1.11
8744.00,1.11
8743.00,1.11
8742.00,1.11
8741.00,1.11
8740.00,1.11
8739.00,1.11
8738.00,1.11
8737.00,1.11
8736.00,1.11
8735.00,1.10
8734.00,1.10
8733.00,1.10
8732.00,1.10
8731.00,1.10
8730.00,1.10
8729.00,1.10
8728.00,1.10
8727.00,1.10
8726.00,1.10
8725.00,1.10
8724.00,1.10
8723.00,1.09
8722.00,1.09
8721.00,1.09
8720.00,1.09
8719.00,1.09
8718.00,1.09
8717.00,1.09
8716.00,1.09
8715.00,1.08
8714.00,1.08
8713.00,1.08
8712.00,1.08
8711.00,1.08
8710.00,1.08
8709.00,1.08
8708.00,1.07
8707.00,1.07
8706.00,1.07
8705.00,1.07
8704.00,1.07
8703.00,1.07
8702.00,1.07
8701.00,1.07
8700.00,1.07
8699.00,1.07
8698.00,1.07
8697.00,1.07
8696.00,1.07
8695.00,1.07
8694.00,1.06
8693.00,1.06
8692.00,1.06
8691.00,1.06
8690.00,1.06
8689.00,1.06
8688.00,1.06
8687.00,1.06
8686.00,1.06
8685.00,1.06
8684.00,1.06
8683.00,1.06
8682.00,1.06
8681.00,1.06
8680.00,1.07
8679.00,1.07
8678.00,1.07
8677.00,1.07
8676.00,1.07
8675.00,1.07
8674.00,1.07
8673.00,1.08
8672.00,1.08
8671.00,1.08
8670.00,1.08
8669.00,1.08
8668.00,1.08
8667.00,1.08
8666.00,1.08
8665.00,1.08
8664.00,1.08
8663.00,1.08
8662.00,1.08
8661.00,1.08
8660.00,1.08
8659.00,1.08
8658.00,1.08
8657.00,1.08
8656.00,1.08
8655.00,1.08
8654.00,1.08
8653.00,1.08
8652.00,1.08
8651.00,1.08
8650.00,1.08
8649.00,1.08
8648.00,1.08
8647.00,1.08
8646.00,1.08
8645.00,1.08
8644.00,1.08
8643.00,1.08
8642.00,1.08
8641.00,1.08
8640.00,1.08
8639.00,1.08
8638.00,1.08
8637.00,1.08
8636.00,1.08
8635.00,1.08
8634.00,1.08
8633.00,1.08
8632.00,1.08
8631.00,1.09
8630.00,1.09
8629.00,1.09
8628.00,1.09
8627.00,1.09
8626.00,1.09
8625.00,1.09
8624.00,1.09
8623.00,1.09
8622.00,1.09
8621.00,1.08
8620.00,1.08
8619.00,1.08
8618.00,1.08
8617.00,1.08
8616.00,1.08
8615.00,1.08
8614.00,1.08
8613.00,1.07
8612.00,1.07
8611.00,1.07
8610.00,1.07
8609.00,1.07
8608.00,1.07
8607.00,1.07
8606.00,1.07
8605.00,1.07
8604.00,1.07
8603.00,1.07
8602.00,1.07
8601.00,1.07
8600.00,1.07
8599.00,1.07
8598.00,1.07
8597.00,1.07
8596.00,1.07
8595.00,1.07
8594.00,1.06
8593.00,1.06
8592.00,1.06
8591.00,1.06
8590.00,1.06
8589.00,1.06
8588.00,1.06
8587.00,1.06
8586.00,1.06
8585.00,1.06
8584.00,1.06
8583.00,1.06
8582.00,1.06
8581.00,1.06
8580.00,1.06
8579.00,1.07
8578.00,1.07
8577.00,1.07
8576.00,1.07
8575.00,1.07
8574.00,1.07
8573.00,1.07
8572.00,1.07
8571.00,1.07
8570.00,1.07
8569.00,1.07
8568.00,1.07
8567.00,1.07
8566.00,1.07
8565.00,1.07
8564.00,1.07
8563.00,1.07
8562.00,1.07
8561.00,1.07
8560.00,1.07
8559.00,1.07
8558.00,1.07
8557.00,1.07
8556.00,1.07
8555.00,1.07
8554.00,1.07
8553.00,1.07
8552.00,1.07
8551.00,1.07
8550.00,1.07
8549.00,1.07
8548.00,1.07
8547.00,1.07
8546.00,1.07
8545.00,1.07
8544.00,1.07
8543.00,1.06
8542.00,1.06
8541.00,1.06
8540.00,1.06
8539.00,1.06
8538.00,1.06
8537.00,1.06
8536.00,1.06
8535.00,1.06
8534.00,1.06
8533.00,1.05
8532.00,1.05
8531.00,1.05
8530.00,1.05
8529.00,1.05
8528.00,1.05
8527.00,1.05
8526.00,1.05
8525.00,1.05
8524.00,1.05
8523.00,1.05
8522.00,1.05
8521.00,1.05
8520.00,1.05
8519.00,1.05
8518.00,1.05
8517.00,1.05
8516.00,1.04
8515.00,1.04
8514.00,1.04
8513.00,1.04
8512.00,1.04
8511.00,1.04
8510.00,1.04
8509.00,1.04
8508.00,1.04
8507.00,1.04
8506.00,1.04
8505.00,1.04
8504.00,1.04
8503.00,1.04
8502.00,1.04
8501.00,1.04
8500.00,1.04
8499.00,1.04
8498.00,1.04
8497.00,1.04
8496.00,1.04
8495.00,1.04
8494.00,1.04
8493.00,1.04
8492.00,1.04
8491.00,1.04
8490.00,1.04
8489.00,1.04
8488.00,1.04
8487.00,1.04
8486.00,1.04
8485.00,1.04
8484.00,1.04
8483.00,1.04
8482.00,1.04
8481.00,1.04
8480.00,1.04
8479.00,1.04
8478.00,1.03
8477.00,1.03
8476.00,1.03
8475.00,1.03
8474.00,1.03
8473.00,1.03
8472.00,1.03
8471.00,1.03
8470.00,1.03
8469.00,1.03
8468.00,1.03
8467.00,1.03
8466.00,1.03
8465.00,1.03
8464.00,1.03
8463.00,1.03
8462.00,1.03
8461.00,1.02
8460.00,1.02
8459.00,1.02
8458.00,1.02
8457.00,1.02
8456.00,1.02
8455.00,1.02
8454.00,1.02
8453.00,1.02
8452.00,1.02
8451.00,1.02
8450.00,1.02
8449.00,1.02
8448.00,1.02
8447.00,1.02
8446.00,1.02
8445.00,1.02
8444.00,1.02
8443.00,1.02
8442.00,1.02
8441.00,1.02
8440.00,1.02
8439.00,1.02
8438.00,1.02
8437.00,1.03
8436.00,1.03
8435.00,1.03
8434.00,1.03
8433.00,1.03
8432.00,1.03
8431.00,1.03
8430.00,1.03
8429.00,1.03
8428.00,1.03
8427.00,1.03
8426.00,1.03
8425.00,1.03
8424.00,1.03
8423.00,1.03
8422.00,1.03
8421.00,1.03
8420.00,1.03
8419.00,1.03
8418.00,1.03
8417.00,1.03
8416.00,1.03
8415.00,1.03
8414.00,1.03
8413.00,1.03
8412.00,1.03
8411.00,1.03
8410.00,1.03
8409.00,1.03
8408.00,1.03
8407.00,1.03
8406.00,1.03
8405.00,1.03
8404.00,1.03
8403.00,1.03
8402.00,1.03
8401.00,1.03
8400.00,1.03
8399.00,1.03
8398.00,1.03
8397.00,1.03
8396.00,1.04
8395.00,1.04
8394.00,1.04
8393.00,1.04
8392.00,1.04
8391.00,1.04
8390.00,1.04
8389.00,1.04
8388.00,1.04
8387.00,1.04
8386.00,1.04
8385.00,1.04
8384.00,1.04
8383.00,1.04
8382.00,1.04
8381.00,1.04
8380.00,1.04
8379.00,1.04
8378.00,1.04
8377.00,1.04
8376.00,1.04
8375.00,1.04
8374.00,1.04
8373.00,1.04
8372.00,1.04
8371.00,1.04
8370.00,1.04
8369.00,1.04
8368.00,1.04
8367.00,1.04
8366.00,1.04
8365.00,1.04
8364.00,1.05
8363.00,1.05
8362.00,1.05
8361.00,1.05
8360.00,1.05
8359.00,1.05
8358.00,1.05
8357.00,1.05
8356.00,1.05
8355.00,1.05
8354.00,1.06
8353.00,1.06
8352.00,1.06
8351.00,1.06
8350.00,1.06
8349.00,1.06
8348.00,1.06
8347.00,1.06
8346.00,1.06
8345.00,1.06
8344.00,1.06
8343.00,1.07
8342.00,1.07
8341.00,1.07
8340.00,1.07
8339.00,1.07
8338.00,1.07
8337.00,1.07
8336.00,1.07
8335.00,1.07
8334.00,1.07
8333.00,1.06
8332.00,1.06
8331.00,1.06
8330.00,1.06
8329.00,1.06
8328.00,1.06
8327.00,1.06
8326.00,1.06
8325.00,1.06
8324.00,1.06
8323.00,1.06
8322.00,1.06
8321.00,1.06
8320.00,1.06
8319.00,1.05
8318.00,1.05
8317.00,1.05
8316.00,1.05
8315.00,1.05
8314.00,1.05
8313.00,1.05
8312.00,1.05
8311.00,1.06
8310.00,1.06
8309.00,1.05
8308.00,1.05
8307.00,1.05
8306.00,1.05
8305.00,1.05
8304.00,1.05
8303.00,1.05
8302.00,1.05
8301.00,1.05
8300.00,1.05
8299.00,1.05
8298.00,1.05
8297.00,1.05
8296.00,1.05
8295.00,1.05
8294.00,1.05
8293.00,1.06
8292.00,1.06
8291.00,1.06
8290.00,1.06
8289.00,1.06
8288.00,1.06
8287.00,1.06
8286.00,1.06
8285.00,1.06
8284.00,1.06
8283.00,1.06
8282.00,1.06
8281.00,1.06
8280.00,1.06
8279.00,1.06
8278.00,1.06
8277.00,1.06
8276.00,1.05
8275.00,1.05
8274.00,1.05
8273.00,1.05
8272.00,1.05
8271.00,1.05
8270.00,1.05
8269.00,1.05
8268.00,1.05
8267.00,1.05
8266.00,1.05
8265.00,1.05
8264.00,1.05
8263.00,1.05
8262.00,1.05
8261.00,1.05
8260.00,1.05
8259.00,1.05
8258.00,1.06
8257.00,1.06
8256.00,1.06
8255.00,1.06
8254.00,1.06
8253.00,1.06
8252.00,1.06
8251.00,1.06
8250.00,1.06
8249.00,1.06
8248.00,1.06
8247.00,1.06
8246.00,1.06
8245.00,1.06
8244.00,1.06
8243.00,1.06
8242.00,1.06
8241.00,1.06
8240.00,1.06
8239.00,1.06
8238.00,1.06
8237.00,1.06
8236.00,1.06
8235.00,1.06
8234.00,1.06
8233.00,1.06
8232.00,1.06
8231.00,1.07
8230.00,1.07
8229.00,1.07
8228.00,1.07
8227.00,1.07
8226.00,1.07
8225.00,1.07
8224.00,1.07
8223.00,1.07
8222.00,1.07
8221.00,1.07
8220.00,1.07
8219.00,1.07
8218.00,1.07
8217.00,1.07
8216.00,1.07
8215.00,1.08
8214.00,1.08
8213.00,1.08
8212.00,1.08
8211.00,1.08
8210.00,1.08
8209.00,1.08
8208.00,1.08
8207.00,1.08
8206.00,1.07
8205.00,1.07
8204.00,1.07
8203.00,1.07
8202.00,1.07
8201.00,1.07
8200.00,1.07
8199.00,1.07
8198.00,1.07
8197.00,1.07
8196.00,1.07
8195.00,1.07
8194.00,1.07
8193.00,1.07
8192.00,1.07
8191.00,1.07
8190.00,1.07
8189.00,1.07
8188.00,1.07
8187.00,1.07
8186.00,1.07
8185.00,1.07
8184.00,1.07
8183.00,1.07
8182.00,1.07
8181.00,1.07
8180.00,1.07
8179.00,1.07
8178.00,1.08
8177.00,1.08
8176.00,1.08
8175.00,1.08
8174.00,1.08
8173.00,1.07
8172.00,1.07
8171.00,1.07
8170.00,1.07
8169.00,1.07
8168.00,1.07
8167.00,1.07
8166.00,1.07
8165.00,1.07
8164.00,1.07
8163.00,1.07
8162.00,1.07
8161.00,1.07
8160.00,1.07
8159.00,1.07
8158.00,1.07
8157.00,1.07
8156.00,1.08
8155.00,1.08
8154.00,1.08
8153.00,1.08
8152.00,1.08
8151.00,1.08
8150.00,1.08
8149.00,1.08
8148.00,1.08
8147.00,1.08
8146.00,1.08
8145.00,1.08
8144.00,1.08
8143.00,1.09
8142.00,1.09
8141.00,1.09
8140.00,1.09
8139.00,1.09
8138.00,1.09
8137.00,1.09
8136.00,1.09
8135.00,1.09
8134.00,1.09
8133.00,1.09
8132.00,1.09
8131.00,1.09
8130.00,1.09
8129.00,1.09
8128.00,1.09
8127.00,1.09
8126.00,1.09
8125.00,1.09
8124.00,1.09
8123.00,1.09
8122.00,1.09
8121.00,1.09
8120.00,1.09
8119.00,1.09
8118.00,1.09
8117.00,1.09
8116.00,1.09
8115.00,1.09
8114.00,1.09
8113.00,1.09
8112.00,1.09
8111.00,1.09
8110.00,1.09
8109.00,1.09
8108.00,1.09
8107.00,1.09
8106.00,1.09
8105.00,1.09
8104.00,1.09
8103.00,1.09
8102.00,1.09
8101.00,1.09
8100.00,1.09
8099.00,1.09
8098.00,1.09
8097.00,1.09
8096.00,1.09
8095.00,1.09
8094.00,1.09
8093.00,1.09
8092.00,1.10
8091.00,1.10
8090.00,1.10
8089.00,1.10
8088.00,1.10
8087.00,1.10
8086.00,1.10
8085.00,1.10
8084.00,1.10
8083.00,1.09
8082.00,1.09
8081.00,1.09
8080.00,1.09
8079.00,1.09
8078.00,1.09
8077.00,1.09
8076.00,1.09
8075.00,1.09
8074.00,1.09
8073.00,1.09
8072.00,1.09
8071.00,1.09
8070.00,1.09
8069.00,1.09
8068.00,1.09
8067.00,1.09
8066.00,1.09
8065.00,1.09
8064.00,1.09
8063.00,1.09
8062.00,1.09
8061.00,1.09
8060.00,1.09
8059.00,1.09
8058.00,1.09
8057.00,1.09
8056.00,1.09
8055.00,1.09
8054.00,1.09
8053.00,1.10
8052.00,1.10
8051.00,1.10
8050.00,1.10
8049.00,1.10
8048.00,1.10
8047.00,1.10
8046.00,1.10
8045.00,1.10
8044.00,1.10
8043.00,1.10
8042.00,1.10
8041.00,1.10
8040.00,1.10
8039.00,1.10
8038.00,1.10
8037.00,1.10
8036.00,1.10
8035.00,1.10
8034.00,1.10
8033.00,1.10
8032.00,1.10
8031.00,1.10
8030.00,1.10
8029.00,1.10
8028.00,1.10
8027.00,1.10
8026.00,1.10
8025.00,1.10
8024.00,1.10
8023.00,1.10
8022.00,1.10
8021.00,1.10
8020.00,1.10
8019.00,1.10
8018.00,1.11
8017.00,1.11
8016.00,1.11
8015.00,1.11
8014.00,1.11
8013.00,1.11
8012.00,1.11
8011.00,1.11
8010.00,1.11
8009.00,1.11
8008.00,1.11
8007.00,1.11
8006.00,1.11
8005.00,1.11
8004.00,1.11
8003.00,1.11
8002.00,1.11
8001.00,1.11
8000.00,1.11
7999.00,1.11
7998.00,1.11
7997.00,1.11
7996.00,1.11
7995.00,1.11
7994.00,1.11
7993.00,1.11
7992.00,1.11
7991.00,1.11
7990.00,1.11
7989.00,1.11
7988.00,1.11
7987.00,1.11
7986.00,1.11
7985.00,1.11
7984.00,1.11
7983.00,1.11
7982.00,1.11
7981.00,1.11
7980.00,1.11
7979.00,1.11
7978.00,1.11
7977.00,1.11
7976.00,1.11
7975.00,1.11
7974.00,1.11
7973.00,1.11
7972.00,1.11
7971.00,1.11
7970.00,1.11
7969.00,1.11
7968.00,1.11
7967.00,1.11
7966.00,1.11
7965.00,1.11
7964.00,1.11
7963.00,1.11
7962.00,1.11
7961.00,1.11
7960.00,1.11
7959.00,1.11
7958.00,1.11
7957.00,1.11
7956.00,1.11
7955.00,1.12
7954.00,1.12
7953.00,1.12
7952.00,1.12
7951.00,1.12
7950.00,1.12
7949.00,1.12
7948.00,1.12
7947.00,1.12
7946.00,1.12
7945.00,1.12
7944.00,1.12
7943.00,1.12
7942.00,1.12
7941.00,1.12
7940.00,1.12
7939.00,1.12
7938.00,1.12
7937.00,1.12
7936.00,1.12
7935.00,1.12
7934.00,1.12
7933.00,1.12
7932.00,1.12
7931.00,1.12
7930.00,1.11
7929.00,1.11
7928.00,1.11
7927.00,1.11
7926.00,1.11
7925.00,1.11
7924.00,1.11
7923.00,1.11
7922.00,1.11
7921.00,1.11
7920.00,1.11
7919.00,1.11
7918.00,1.12
7917.00,1.12
7916.00,1.12
7915.00,1.12
7914.00,1.12
7913.00,1.12
7912.00,1.12
7911.00,1.12
7910.00,1.12
7909.00,1.12
7908.00,1.12
7907.00,1.12
7906.00,1.12
7905.00,1.12
7904.00,1.12
7903.00,1.12
7902.00,1.12
7901.00,1.12
7900.00,1.12
7899.00,1.12
7898.00,1.12
7897.00,1.12
7896.00,1.12
7895.00,1.13
7894.00,1.13
7893.00,1.13
7892.00,1.13
7891.00,1.13
7890.00,1.13
7889.00,1.13
7888.00,1.13
7887.00,1.13
7886.00,1.13
7885.00,1.13
7884.00,1.13
7883.00,1.13
7882.00,1.13
7881.00,1.13
7880.00,1.13
7879.00,1.13
7878.00,1.13
7877.00,1.13
7876.00,1.13
7875.00,1.13
7874.00,1.13
7873.00,1.13
7872.00,1.13
7871.00,1.13
7870.00,1.13
7869.00,1.13
7868.00,1.13
7867.00,1.13
7866.00,1.13
7865.00,1.13
7864.00,1.13
7863.00,1.13
7862.00,1.13
7861.00,1.13
7860.00,1.13
7859.00,1.13
7858.00,1.13
7857.00,1.13
7856.00,1.13
7855.00,1.13
7854.00,1.13
7853.00,1.13
7852.00,1.13
7851.00,1.13
7850.00,1.13
7849.00,1.13
7848.00,1.13
7847.00,1.13
7846.00,1.13
7845.00,1.13
7844.00,1.13
7843.00,1.12
7842.00,1.12
7841.00,1.12
7840.00,1.12
7839.00,1.12
7838.00,1.12
7837.00,1.12
7836.00,1.12
7835.00,1.12
7834.00,1.12
7833.00,1.12
7832.00,1.12
7831.00,1.12
7830.00,1.12
7829.00,1.12
7828.00,1.12
7827.00,1.12
7826.00,1.12
7825.00,1.13
7824.00,1.13
7823.00,1.13
7822.00,1.13
7821.00,1.13
7820.00,1.13
7819.00,1.13
7818.00,1.13
7817.00,1.13
7816.00,1.13
7815.00,1.13
7814.00,1.13
7813.00,1.13
7812.00,1.13
7811.00,1.13
7810.00,1.13
7809.00,1.13
7808.00,1.13
7807.00,1.13
7806.00,1.12
7805.00,1.12
7804.00,1.12
7803.00,1.12
7802.00,1.12
7801.00,1.12
7800.00,1.12
7799.00,1.12
7798.00,1.12
7797.00,1.12
7796.00,1.12
7795.00,1.12
7794.00,1.12
7793.00,1.12
7792.00,1.12
7791.00,1.12
7790.00,1.13
7789.00,1.13
7788.00,1.13
7787.00,1.13
7786.00,1.13
7785.00,1.13
7784.00,1.13
7783.00,1.13
7782.00,1.13
7781.00,1.13
7780.00,1.13
7779.00,1.13
7778.00,1.13
7777.00,1.13
7776.00,1.13
7775.00,1.13
7774.00,1.13
7773.00,1.12
7772.00,1.12
7771.00,1.12
7770.00,1.12
7769.00,1.12
7768.00,1.12
7767.00,1.12
7766.00,1.12
7765.00,1.12
7764.00,1.12
7763.00,1.12
7762.00,1.12
7761.00,1.13
7760.00,1.13
7759.00,1.13
7758.00,1.13
7757.00,1.13
7756.00,1.13
7755.00,1.13
7754.00,1.13
7753.00,1.14
7752.00,1.14
7751.00,1.14
7750.00,1.14
7749.00,1.14
7748.00,1.14
7747.00,1.14
7746.00,1.14
7745.00,1.15
7744.00,1.15
7743.00,1.15
7742.00,1.15
7741.00,1.15
7740.00,1.15
7739.00,1.15
7738.00,1.15
7737.00,1.15
7736.00,1.15
7735.00,1.15
7734.00,1.15
7733.00,1.14
7732.00,1.14
7731.00,1.14
7730.00,1.14
7729.00,1.14
7728.00,1.14
7727.00,1.14
7726.00,1.14
7725.00,1.14
7724.00,1.14
7723.00,1.14
7722.00,1.14
7721.00,1.14
7720.00,1.14
7719.00,1.14
7718.00,1.14
7717.00,1.14
7716.00,1.14
7715.00,1.13
7714.00,1.13
7713.00,1.13
7712.00,1.13
7711.00,1.13
7710.00,1.13
7709.00,1.13
7708.00,1.13
7707.00,1.13
7706.00,1.13
7705.00,1.13
7704.00,1.13
7703.00,1.13
7702.00,1.13
7701.00,1.14
7700.00,1.14
7699.00,1.14
7698.00,1.14
7697.00,1.14
7696.00,1.14
7695.00,1.14
7694.00,1.14
7693.00,1.15
7692.00,1.15
7691.00,1.15
7690.00,1.15
7689.00,1.15
7688.00,1.15
7687.00,1.15
7686.00,1.15
7685.00,1.15
7684.00,1.15
7683.00,1.15
7682.00,1.15
7681.00,1.15
7680.00,1.15
7679.00,1.14
7678.00,1.14
7677.00,1.14
7676.00,1.14
7675.00,1.14
7674.00,1.14
7673.00,1.14
7672.00,1.14
7671.00,1.14
7670.00,1.14
7669.00,1.14
7668.00,1.14
7667.00,1.14
7666.00,1.15
7665.00,1.15
7664.00,1.15
7663.00,1.15
7662.00,1.15
7661.00,1.15
7660.00,1.15
7659.00,1.15
7658.00,1.15
7657.00,1.15
7656.00,1.15
7655.00,1.15
7654.00,1.15
7653.00,1.14
7652.00,1.14
7651.00,1.14
7650.00,1.14
7649.00,1.14
7648.00,1.14
7647.00,1.14
7646.00,1.14
7645.00,1.14
7644.00,1.14
7643.00,1.14
7642.00,1.14
7641.00,1.14
7640.00,1.15
7639.00,1.15
7638.00,1.15
7637.00,1.15
7636.00,1.15
7635.00,1.15
7634.00,1.15
7633.00,1.15
7632.00,1.15
7631.00,1.14
7630.00,1.14
7629.00,1.14
7628.00,1.14
7627.00,1.14
7626.00,1.14
7625.00,1.14
7624.00,1.14
7623.00,1.14
7622.00,1.14
7621.00,1.14
7620.00,1.14
7619.00,1.14
7618.00,1.14
7617.00,1.14
7616.00,1.14
7615.00,1.14
7614.00,1.14
7613.00,1.14
7612.00,1.14
7611.00,1.14
7610.00,1.14
7609.00,1.14
7608.00,1.14
7607.00,1.14
7606.00,1.14
7605.00,1.14
7604.00,1.14
7603.00,1.14
7602.00,1.14
7601.00,1.14
7600.00,1.14
7599.00,1.14
7598.00,1.14
7597.00,1.14
7596.00,1.14
7595.00,1.14
7594.00,1.14
7593.00,1.14
7592.00,1.14
7591.00,1.14
7590.00,1.14
7589.00,1.14
7588.00,1.14
7587.00,1.14
7586.00,1.14
7585.00,1.14
7584.00,1.14
7583.00,1.14
7582.00,1.14
7581.00,1.14
7580.00,1.14
7579.00,1.14
7578.00,1.14
7577.00,1.14
7576.00,1.14
7575.00,1.14
7574.00,1.15
7573.00,1.15
7572.00,1.15
7571.00,1.15
7570.00,1.15
7569.00,1.15
7568.00,1.15
7567.00,1.15
7566.00,1.15
7565.00,1.15
7564.00,1.15
7563.00,1.15
7562.00,1.14
7561.00,1.14
7560.00,1.14
7559.00,1.14
7558.00,1.14
7557.00,1.14
7556.00,1.14
7555.00,1.14
7554.00,1.14
7553.00,1.14
7552.00,1.14
7551.00,1.14
7550.00,1.14
7549.00,1.14
7548.00,1.14
7547.00,1.13
7546.00,1.13
7545.00,1.13
7544.00,1.13
7543.00,1.13
7542.00,1.13
7541.00,1.13
7540.00,1.13
7539.00,1.13
7538.00,1.13
7537.00,1.13
7536.00,1.13
7535.00,1.13
7534.00,1.13
7533.00,1.13
7532.00,1.13
7531.00,1.13
7530.00,1.13
7529.00,1.13
7528.00,1.13
7527.00,1.13
7526.00,1.13
7525.00,1.13
7524.00,1.13
7523.00,1.13
7522.00,1.13
7521.00,1.13
7520.00,1.13
7519.00,1.13
7518.00,1.13
7517.00,1.13
7516.00,1.13
7515.00,1.13
7514.00,1.13
7513.00,1.13
7512.00,1.13
7511.00,1.13
7510.00,1.13
7509.00,1.13
7508.00,1.13
7507.00,1.13
7506.00,1.12
7505.00,1.12
7504.00,1.12
7503.00,1.12
7502.00,1.12
7501.00,1.12
7500.00,1.12
7499.00,1.12
7498.00,1.12
7497.00,1.12
7496.00,1.12
7495.00,1.12
7494.00,1.12
7493.00,1.12
7492.00,1.12
7491.00,1.12
7490.00,1.12
7489.00,1.12
7488.00,1.12
7487.00,1.12
7486.00,1.12
7485.00,1.12
7484.00,1.12
7483.00,1.12
7482.00,1.12
7481.00,1.12
7480.00,1.12
7479.00,1.12
7478.00,1.12
7477.00,1.12
7476.00,1.12
7475.00,1.12
7474.00,1.12
7473.00,1.12
7472.00,1.12
7471.00,1.12
7470.00,1.12
7469.00,1.12
7468.00,1.12
7467.00,1.12
7466.00,1.12
7465.00,1.12
7464.00,1.11
7463.00,1.11
7462.00,1.11
7461.00,1.11
7460.00,1.11
7459.00,1.11
7458.00,1.11
7457.00,1.11
7456.00,1.11
7455.00,1.11
7454.00,1.11
7453.00,1.11
7452.00,1.11
7451.00,1.11
7450.00,1.11
7449.00,1.11
7448.00,1.11
7447.00,1.11
7446.00,1.11
7445.00,1.11
7444.00,1.10
7443.00,1.10
7442.00,1.10
7441.00,1.10
7440.00,1.10
7439.00,1.10
7438.00,1.10
7437.00,1.10
7436.00,1.10
7435.00,1.10
7434.00,1.10
7433.00,1.10
7432.00,1.10
7431.00,1.10
7430.00,1.10
7429.00,1.10
7428.00,1.10
7427.00,1.10
7426.00,1.10
7425.00,1.10
7424.00,1.10
7423.00,1.09
7422.00,1.09
7421.00,1.09
7420.00,1.09
7419.00,1.09
7418.00,1.09
7417.00,1.09
7416.00,1.09
7415.00,1.09
7414.00,1.09
7413.00,1.09
7412.00,1.09
7411.00,1.09
7410.00,1.09
7409.00,1.09
7408.00,1.08
7407.00,1.08
7406.00,1.08
7405.00,1.08
7404.00,1.08
7403.00,1.08
7402.00,1.08
7401.00,1.08
7400.00,1.08
7399.00,1.08
7398.00,1.07
7397.00,1.07
7396.00,1.07
7395.00,1.07
7394.00,1.07
7393.00,1.07
7392.00,1.06
7391.00,1.06
7390.00,1.06
7389.00,1.06
7388.00,1.06
7387.00,1.06
7386.00,1.06
7385.00,1.06
7384.00,1.06
7383.00,1.06
7382.00,1.06
7381.00,1.06
7380.00,1.06
7379.00,1.06
7378.00,1.06
7377.00,1.06
7376.00,1.06
7375.00,1.06
7374.00,1.06
7373.00,1.06
7372.00,1.06
7371.00,1.06
7370.00,1.06
7369.00,1.06
7368.00,1.06
7367.00,1.06
7366.00,1.06
7365.00,1.06
7364.00,1.06
7363.00,1.06
7362.00,1.06
7361.00,1.06
7360.00,1.06
7359.00,1.06
7358.00,1.06
7357.00,1.06
7356.00,1.06
7355.00,1.06
7354.00,1.06
7353.00,1.06
7352.00,1.06
7351.00,1.06
7350.00,1.06
7349.00,1.06
7348.00,1.06
7347.00,1.06
7346.00,1.06
7345.00,1.06
7344.00,1.06
7343.00,1.06
7342.00,1.06
7341.00,1.06
7340.00,1.06
7339.00,1.06
7338.00,1.06
7337.00,1.06
7336.00,1.06
7335.00,1.06
7334.00,1.06
7333.00,1.06
7332.00,1.06
7331.00,1.06
7330.00,1.06
7329.00,1.06
7328.00,1.06
7327.00,1.05
7326.00,1.05
7325.00,1.05
7324.00,1.05
7323.00,1.05
7322.00,1.05
7321.00,1.05
7320.00,1.05
7319.00,1.05
7318.00,1.05
7317.00,1.05
7316.00,1.05
7315.00,1.05
7314.00,1.05
7313.00,1.05
7312.00,1.04
7311.00,1.04
7310.00,1.04
7309.00,1.04
7308.00,1.04
7307.00,1.04
7306.00,1.04
7305.00,1.04
7304.00,1.04
7303.00,1.04
7302.00,1.04
7301.00,1.03
7300.00,1.03
7299.00,1.03
7298.00,1.03
7297.00,1.03
7296.00,1.03
7295.00,1.03
7294.00,1.03
7293.00,1.03
7292.00,1.03
7291.00,1.03
7290.00,1.03
7289.00,1.03
7288.00,1.03
7287.00,1.03
7286.00,1.03
7285.00,1.03
7284.00,1.02
7283.00,1.02
7282.00,1.02
7281.00,1.02
7280.00,1.02
7279.00,1.02
7278.00,1.02
7277.00,1.02
7276.00,1.02
7275.00,1.02
7274.00,1.02
7273.00,1.02
7272.00,1.02
7271.00,1.02
7270.00,1.01
7269.00,1.01
7268.00,1.01
7267.00,1.01
7266.00,1.01
7265.00,1.01
7264.00,1.01
7263.00,1.01
7262.00,1.01
7261.00,1.00
7260.00,1.00
7259.00,1.00
7258.00,1.00
7257.00,1.00
7256.00,1.00
7255.00,1.00
7254.00,0.99
7253.00,0.99
7252.00,0.99
7251.00,0.99
7250.00,0.99
7249.00,0.99
7248.00,0.98
7247.00,0.98
7246.00,0.98
7245.00,0.98
7244.00,0.98
7243.00,0.97
7242.00,0.97
7241.00,0.97
7240.00,0.97
7239.00,0.96
7238.00,0.96
7237.00,0.96
7236.00,0.95
7235.00,0.95
7234.00,0.95
7233.00,0.95
7232.00,0.94
7231.00,0.94
7230.00,0.94
7229.00,0.94
7228.00,0.93
7227.00,0.93
7226.00,0.93
7225.00,0.92
7224.00,0.92
7223.00,0.92
7222.00,0.92
7221.00,0.91
7220.00,0.91
7219.00,0.91
7218.00,0.90
7217.00,0.90
7216.00,0.90
7215.00,0.90
7214.00,0.89
7213.00,0.89
7212.00,0.88
7211.00,0.88
7210.00,0.88
7209.00,0.87
7208.00,0.87
7207.00,0.87
7206.00,0.86
7205.00,0.86
7204.00,0.86
7203.00,0.85
7202.00,0.85
7201.00,0.84
7200.00,0.84
7199.00,0.84
7198.00,0.84
7197.00,0.83
7196.00,0.83
7195.00,0.83
7194.00,0.82
7193.00,0.82
7192.00,0.82
7191.00,0.82
7190.00,0.82
7189.00,0.81
7188.00,0.81
7187.00,0.81
7186.00,0.81
7185.00,0.80
7184.00,0.80
7183.00,0.80
7182.00,0.80
7181.00,0.80
7180.00,0.79
7179.00,0.79
7178.00,0.79
7177.00,0.79
7176.00,0.79
7175.00,0.78
7174.00,0.78
7173.00,0.78
7172.00,0.78
7171.00,0.77
7170.00,0.77
7169.00,0.77
7168.00,0.77
7167.00,0.76
7166.00,0.76
7165.00,0.76
7164.00,0.75
7163.00,0.75
7162.00,0.75
7161.00,0.74
7160.00,0.74
7159.00,0.74
7158.00,0.74
7157.00,0.73
7156.00,0.73
7155.00,0.73
7154.00,0.73
7153.00,0.72
7152.00,0.72
7151.00,0.72
7150.00,0.72
7149.00,0.71
7148.00,0.71
7147.00,0.71
7146.00,0.71
7145.00,0.70
7144.00,0.70
7143.00,0.70
7142.00,0.69
7141.00,0.69
7140.00,0.69
7139.00,0.69
7138.00,0.68
7137.00,0.68
7136.00,0.68
7135.00,0.67
7134.00,0.67
7133.00,0.67
7132.00,0.67
7131.00,0.66
7130.00,0.66
7129.00,0.66
7128.00,0.66
7127.00,0.65
7126.00,0.65
7125.00,0.65
7124.00,0.64
7123.00,0.64
7122.00,0.64
7121.00,0.64
7120.00,0.63
7119.00,0.63
7118.00,0.63
7117.00,0.63
7116.00,0.62
7115.00,0.62
7114.00,0.62
7113.00,0.62
7112.00,0.61
7111.00,0.61
7110.00,0.61
7109.00,0.61
7108.00,0.60
7107.00,0.60
7106.00,0.60
7105.00,0.60
7104.00,0.60
7103.00,0.60
7102.00,0.60
7101.00,0.59
7100.00,0.59
7099.00,0.59
7098.00,0.59
7097.00,0.59
7096.00,0.59
7095.00,0.59
7094.00,0.59
7093.00,0.59
7092.00,0.59
7091.00,0.58
7090.00,0.58
7089.00,0.58
7088.00,0.58
7087.00,0.58
7086.00,0.58
7085.00,0.57
7084.00,0.57
7083.00,0.57
7082.00,0.57
7081.00,0.57
7080.00,0.56
7079.00,0.56
7078.00,0.56
7077.00,0.56
7076.00,0.56
7075.00,0.55
7074.00,0.55
7073.00,0.55
7072.00,0.55
7071.00,0.55
7070.00,0.55
7069.00,0.55
7068.00,0.54
7067.00,0.54
7066.00,0.54
7065.00,0.54
7064.00,0.54
7063.00,0.54
7062.00,0.54
7061.00,0.54
7060.00,0.54
7059.00,0.54
7058.00,0.53
7057.00,0.53
7056.00,0.53
7055.00,0.53
7054.00,0.53
7053.00,0.53
7052.00,0.53
7051.00,0.53
7050.00,0.53
7049.00,0.52
7048.00,0.52
7047.00,0.52
7046.00,0.52
7045.00,0.52
7044.00,0.52
7043.00,0.52
7042.00,0.52
7041.00,0.52
7040.00,0.51
7039.00,0.51
7038.00,0.51
7037.00,0.51
7036.00,0.51
7035.00,0.51
7034.00,0.51
7033.00,0.51
7032.00,0.50
7031.00,0.50
7030.00,0.50
7029.00,0.50
7028.00,0.50
7027.00,0.50
7026.00,0.50
7025.00,0.50
7024.00,0.49
7023.00,0.49
7022.00,0.49
7021.00,0.49
7020.00,0.49
7019.00,0.49
7018.00,0.49
7017.00,0.49
7016.00,0.49
7015.00,0.49
7014.00,0.49
7013.00,0.49
7012.00,0.49
7011.00,0.49
7010.00,0.49
7009.00,0.49
7008.00,0.49
7007.00,0.49
7006.00,0.49
7005.00,0.49
7004.00,0.49
7003.00,0.49
7002.00,0.48
7001.00,0.48
7000.00,0.48
6999.00,0.48
6998.00,0.48
6997.00,0.48
6996.00,0.48
6995.00,0.48
6994.00,0.48
6993.00,0.48
6992.00,0.48
6991.00,0.48
6990.00,0.48
6989.00,0.48
6988.00,0.48
6987.00,0.47
6986.00,0.47
6985.00,0.47
6984.00,0.47
6983.00,0.47
6982.00,0.47
6981.00,0.47
6980.00,0.47
6979.00,0.47
6978.00,0.47
6977.00,0.47
6976.00,0.47
6975.00,0.47
6974.00,0.47
6973.00,0.47
6972.00,0.47
6971.00,0.47
6970.00,0.47
6969.00,0.47
6968.00,0.47
6967.00,0.47
6966.00,0.47
6965.00,0.47
6964.00,0.47
6963.00,0.47
6962.00,0.47
6961.00,0.47
6960.00,0.46
6959.00,0.46
6958.00,0.46
6957.00,0.46
6956.00,0.46
6955.00,0.46
6954.00,0.46
6953.00,0.46
6952.00,0.46
6951.00,0.46
6950.00,0.46
6949.00,0.46
6948.00,0.46
6947.00,0.46
6946.00,0.46
6945.00,0.46
6944.00,0.46
6943.00,0.46
6942.00,0.46
6941.00,0.46
6940.00,0.46
6939.00,0.46
6938.00,0.46
6937.00,0.46
6936.00,0.46
6935.00,0.46
6934.00,0.46
6933.00,0.46
6932.00,0.46
6931.00,0.46
6930.00,0.46
6929.00,0.46
6928.00,0.46
6927.00,0.46
6926.00,0.46
6925.00,0.46
6924.00,0.46
6923.00,0.46
6922.00,0.46
6921.00,0.46
6920.00,0.46
6919.00,0.46
6918.00,0.46
6917.00,0.46
6916.00,0.46
6915.00,0.46
6914.00,0.46
6913.00,0.46
6912.00,0.46
6911.00,0.46
6910.00,0.46
6909.00,0.46
6908.00,0.46
6907.00,0.46
6906.00,0.46
6905.00,0.46
6904.00,0.46
6903.00,0.46
6902.00,0.46
6901.00,0.46
6900.00,0.46
6899.00,0.46
6898.00,0.45
6897.00,0.45
6896.00,0.45
6895.00,0.45
6894.00,0.45
6893.00,0.45
6892.00,0.45
6891.00,0.45
6890.00,0.45
6889.00,0.45
6888.00,0.45
6887.00,0.45
6886.00,0.45
6885.00,0.45
6884.00,0.45
6883.00,0.45
6882.00,0.45
6881.00,0.45
6880.00,0.45
6879.00,0.45
6878.00,0.45
6877.00,0.45
6876.00,0.45
6875.00,0.45
6874.00,0.45
6873.00,0.45
6872.00,0.45
6871.00,0.45
6870.00,0.45
6869.00,0.45
6868.00,0.45
6867.00,0.45
6866.00,0.45
6865.00,0.45
6864.00,0.45
6863.00,0.45
6862.00,0.45
6861.00,0.45
6860.00,0.45
6859.00,0.45
6858.00,0.45
6857.00,0.45
6856.00,0.45
6855.00,0.45
6854.00,0.45
6853.00,0.46
6852.00,0.46
6851.00,0.46
6850.00,0.46
6849.00,0.46
6848.00,0.46
6847.00,0.46
6846.00,0.46
6845.00,0.46
6844.00,0.46
6843.00,0.46
6842.00,0.46
6841.00,0.46
6840.00,0.46
6839.00,0.46
6838.00,0.46
6837.00,0.46
6836.00,0.46
6835.00,0.46
6834.00,0.46
6833.00,0.46
6832.00,0.46
6831.00,0.46
6830.00,0.46
6829.00,0.46
6828.00,0.46
6827.00,0.46
6826.00,0.46
6825.00,0.46
6824.00,0.46
6823.00,0.46
6822.00,0.46
6821.00,0.46
6820.00,0.46
6819.00,0.46
6818.00,0.46
6817.00,0.46
6816.00,0.46
6815.00,0.46
6814.00,0.46
6813.00,0.46
6812.00,0.46
6811.00,0.46
6810.00,0.47
6809.00,0.47
6808.00,0.47
6807.00,0.47
6806.00,0.47
6805.00,0.47
6804.00,0.47
6803.00,0.47
6802.00,0.47
6801.00,0.47
6800.00,0.47
6799.00,0.47
6798.00,0.47
6797.00,0.47
6796.00,0.47
6795.00,0.47
6794.00,0.47
6793.00,0.47
6792.00,0.47
6791.00,0.47
6790.00,0.47
6789.00,0.47
6788.00,0.47
6787.00,0.47
6786.00,0.47
6785.00,0.47
6784.00,0.47
6783.00,0.47
6782.00,0.47
6781.00,0.48
6780.00,0.48
6779.00,0.48
6778.00,0.48
6777.00,0.48
6776.00,0.48
6775.00,0.48
6774.00,0.48
6773.00,0.48
6772.00,0.48
6771.00,0.48
6770.00,0.48
6769.00,0.48
6768.00,0.48
6767.00,0.48
6766.00,0.48
6765.00,0.48
6764.00,0.49
6763.00,0.49
6762.00,0.49
6761.00,0.49
6760.00,0.49
6759.00,0.49
6758.00,0.49
6757.00,0.49
6756.00,0.49
6755.00,0.49
6754.00,0.49
6753.00,0.49
6752.00,0.49
6751.00,0.49
6750.00,0.50
6749.00,0.50
6748.00,0.50
6747.00,0.50
6746.00,0.50
6745.00,0.50
6744.00,0.50
6743.00,0.50
6742.00,0.50
6741.00,0.50
6740.00,0.50
6739.00,0.50
6738.00,0.51
6737.00,0.51
6736.00,0.51
6735.00,0.51
6734.00,0.51
6733.00,0.51
6732.00,0.51
6731.00,0.51
6730.00,0.51
6729.00,0.51
6728.00,0.51
6727.00,0.51
6726.00,0.51
6725.00,0.51
6724.00,0.52
6723.00,0.52
6722.00,0.52
6721.00,0.52
6720.00,0.52
6719.00,0.52
6718.00,0.52
6717.00,0.52
6716.00,0.52
6715.00,0.52
6714.00,0.52
6713.00,0.52
6712.00,0.52
6711.00,0.53
6710.00,0.53
6709.00,0.53
6708.00,0.53
6707.00,0.53
6706.00,0.53
6705.00,0.53
6704.00,0.53
6703.00,0.53
6702.00,0.53
6701.00,0.53
6700.00,0.53
6699.00,0.53
6698.00,0.53
6697.00,0.54
6696.00,0.54
6695.00,0.54
6694.00,0.54
6693.00,0.54
6692.00,0.54
6691.00,0.54
6690.00,0.54
6689.00,0.54
6688.00,0.54
6687.00,0.54
6686.00,0.54
6685.00,0.54
6684.00,0.54
6683.00,0.54
6682.00,0.54
6681.00,0.54
6680.00,0.54
6679.00,0.55
6678.00,0.55
6677.00,0.55
6676.00,0.55
6675.00,0.55
6674.00,0.55
6673.00,0.55
6672.00,0.55
6671.00,0.55
6670.00,0.55
6669.00,0.55
6668.00,0.55
6667.00,0.55
6666.00,0.55
6665.00,0.56
6664.00,0.56
6663.00,0.56
6662.00,0.56
6661.00,0.56
6660.00,0.56
6659.00,0.56
6658.00,0.56
6657.00,0.56
6656.00,0.56
6655.00,0.56
6654.00,0.56
6653.00,0.57
6652.00,0.57
6651.00,0.57
6650.00,0.57
6649.00,0.57
6648.00,0.57
6647.00,0.57
6646.00,0.57
6645.00,0.58
6644.00,0.58
6643.00,0.58
6642.00,0.58
6641.00,0.58
6640.00,0.58
6639.00,0.58
6638.00,0.58
6637.00,0.58
6636.00,0.59
6635.00,0.59
6634.00,0.59
6633.00,0.59
6632.00,0.59
6631.00,0.59
6630.00,0.59
6629.00,0.60
6628.00,0.60
6627.00,0.60
6626.00,0.60
6625.00,0.60
6624.00,0.60
6623.00,0.61
6622.00,0.61
6621.00,0.61
6620.00,0.61
6619.00,0.61
6618.00,0.61
6617.00,0.61
6616.00,0.61
6615.00,0.61
6614.00,0.61
6613.00,0.61
6612.00,0.61
6611.00,0.61
6610.00,0.61
6609.00,0.62
6608.00,0.62
6607.00,0.62
6606.00,0.62
6605.00,0.62
6604.00,0.62
6603.00,0.62
6602.00,0.62
6601.00,0.62
6600.00,0.62
6599.00,0.62
6598.00,0.62
6597.00,0.62
6596.00,0.63
6595.00,0.63
6594.00,0.63
6593.00,0.63
6592.00,0.63
6591.00,0.63
6590.00,0.63
6589.00,0.63
6588.00,0.63
6587.00,0.63
6586.00,0.63
6585.00,0.64
6584.00,0.64
6583.00,0.64
6582.00,0.64
6581.00,0.64
6580.00,0.64
6579.00,0.64
6578.00,0.64
6577.00,0.64
6576.00,0.64
6575.00,0.64
6574.00,0.65
6573.00,0.65
6572.00,0.65
6571.00,0.65
6570.00,0.65
6569.00,0.65
6568.00,0.65
6567.00,0.65
6566.00,0.65
6565.00,0.65
6564.00,0.65
6563.00,0.65
6562.00,0.65
6561.00,0.66
6560.00,0.66
6559.00,0.66
6558.00,0.66
6557.00,0.66
6556.00,0.66
6555.00,0.66
6554.00,0.66
6553.00,0.67
6552.00,0.67
6551.00,0.67
6550.00,0.67
6549.00,0.67
6548.00,0.67
6547.00,0.67
6546.00,0.67
6545.00,0.67
6544.00,0.68
6543.00,0.68
6542.00,0.68
6541.00,0.68
6540.00,0.68
6539.00,0.68
6538.00,0.68
6537.00,0.68
6536.00,0.68
6535.00,0.69
6534.00,0.69
6533.00,0.69
6532.00,0.69
6531.00,0.69
6530.00,0.69
6529.00,0.69
6528.00,0.69
6527.00,0.69
6526.00,0.69
6525.00,0.69
6524.00,0.69
6523.00,0.69
6522.00,0.69
6521.00,0.70
6520.00,0.70
6519.00,0.70
6518.00,0.70
6517.00,0.70
6516.00,0.70
6515.00,0.70
6514.00,0.70
6513.00,0.70
6512.00,0.70
6511.00,0.70
6510.00,0.70
6509.00,0.70
6508.00,0.70
6507.00,0.70
6506.00,0.70
6505.00,0.70
6504.00,0.70
6503.00,0.70
6502.00,0.70
6501.00,0.70
6500.00,0.70
6499.00,0.70
6498.00,0.70
6497.00,0.70
6496.00,0.70
6495.00,0.71
6494.00,0.71
6493.00,0.71
6492.00,0.71
6491.00,0.71
6490.00,0.71
6489.00,0.71
6488.00,0.71
6487.00,0.71
6486.00,0.72
6485.00,0.72
6484.00,0.72
6483.00,0.72
6482.00,0.72
6481.00,0.72
6480.00,0.72
6479.00,0.72
6478.00,0.72
6477.00,0.72
6476.00,0.72
6475.00,0.73
6474.00,0.73
6473.00,0.73
6472.00,0.73
6471.00,0.73
6470.00,0.73
6469.00,0.73
6468.00,0.73
6467.00,0.73
6466.00,0.73
6465.00,0.73
6464.00,0.73
6463.00,0.73
6462.00,0.74
6461.00,0.74
6460.00,0.74
6459.00,0.74
6458.00,0.74
6457.00,0.74
6456.00,0.74
6455.00,0.74
6454.00,0.74
6453.00,0.74
6452.00,0.74
6451.00,0.74
6450.00,0.74
6449.00,0.74
6448.00,0.74
6447.00,0.74
6446.00,0.74
6445.00,0.75
6444.00,0.75
6443.00,0.75
6442.00,0.75
6441.00,0.75
6440.00,0.75
6439.00,0.75
6438.00,0.75
6437.00,0.75
6436.00,0.75
6435.00,0.75
6434.00,0.75
6433.00,0.75
6432.00,0.75
6431.00,0.76
6430.00,0.76
6429.00,0.76
6428.00,0.76
6427.00,0.76
6426.00,0.76
6425.00,0.76
6424.00,0.76
6423.00,0.76
6422.00,0.76
6421.00,0.76
6420.00,0.76
6419.00,0.76
6418.00,0.76
6417.00,0.76
6416.00,0.76
6415.00,0.76
6414.00,0.76
6413.00,0.76
6412.00,0.77
6411.00,0.77
6410.00,0.77
6409.00,0.77
6408.00,0.77
6407.00,0.77
6406.00,0.77
6405.00,0.77
6404.00,0.77
6403.00,0.77
6402.00,0.78
6401.00,0.78
6400.00,0.78
6399.00,0.78
6398.00,0.78
6397.00,0.78
6396.00,0.78
6395.00,0.78
6394.00,0.78
6393.00,0.78
6392.00,0.78
6391.00,0.78
6390.00,0.78
6389.00,0.79
6388.00,0.79
6387.00,0.79
6386.00,0.79
6385.00,0.79
6384.00,0.79
6383.00,0.79
6382.00,0.79
6381.00,0.79
6380.00,0.79
6379.00,0.79
6378.00,0.79
6377.00,0.79
6376.00,0.79
6375.00,0.80
6374.00,0.80
6373.00,0.80
6372.00,0.80
6371.00,0.80
6370.00,0.80
6369.00,0.80
6368.00,0.80
6367.00,0.80
6366.00,0.81
6365.00,0.81
6364.00,0.81
6363.00,0.81
6362.00,0.81
6361.00,0.81
6360.00,0.81
6359.00,0.81
6358.00,0.81
6357.00,0.81
6356.00,0.81
6355.00,0.81
6354.00,0.81
6353.00,0.82
6352.00,0.82
6351.00,0.82
6350.00,0.82
6349.00,0.82
6348.00,0.82
6347.00,0.82
6346.00,0.82
6345.00,0.82
6344.00,0.82
6343.00,0.82
6342.00,0.82
6341.00,0.83
6340.00,0.83
6339.00,0.83
6338.00,0.83
6337.00,0.83
6336.00,0.83
6335.00,0.83
6334.00,0.83
6333.00,0.83
6332.00,0.83
6331.00,0.83
6330.00,0.83
6329.00,0.83
6328.00,0.84
6327.00,0.84
6326.00,0.84
6325.00,0.84
6324.00,0.84
6323.00,0.84
6322.00,0.84
6321.00,0.84
6320.00,0.84
6319.00,0.84
6318.00,0.84
6317.00,0.84
6316.00,0.84
6315.00,0.85
6314.00,0.85
6313.00,0.85
6312.00,0.85
6311.00,0.85
6310.00,0.85
6309.00,0.85
6308.00,0.85
6307.00,0.85
6306.00,0.85
6305.00,0.85
6304.00,0.86
6303.00,0.86
6302.00,0.86
6301.00,0.86
6300.00,0.86
6299.00,0.86
6298.00,0.86
6297.00,0.86
6296.00,0.86
6295.00,0.86
6294.00,0.87
6293.00,0.87
6292.00,0.87
6291.00,0.87
6290.00,0.87
6289.00,0.87
6288.00,0.87
6287.00,0.87
6286.00,0.87
6285.00,0.88
6284.00,0.88
6283.00,0.88
6282.00,0.88
6281.00,0.88
6280.00,0.88
6279.00,0.88
6278.00,0.88
6277.00,0.88
6276.00,0.88
6275.00,0.88
6274.00,0.88
6273.00,0.89
6272.00,0.89
6271.00,0.89
6270.00,0.89
6269.00,0.89
6268.00,0.89
6267.00,0.89
6266.00,0.89
6265.00,0.89
6264.00,0.90
6263.00,0.90
6262.00,0.90
6261.00,0.90
6260.00,0.90
6259.00,0.90
6258.00,0.90
6257.00,0.90
6256.00,0.90
6255.00,0.90
6254.00,0.91
6253.00,0.91
6252.00,0.91
6251.00,0.91
6250.00,0.91
6249.00,0.91
6248.00,0.91
6247.00,0.91
6246.00,0.91
6245.00,0.91
6244.00,0.91
6243.00,0.91
6242.00,0.91
6241.00,0.91
6240.00,0.92
6239.00,0.92
6238.00,0.92
6237.00,0.92
6236.00,0.92
6235.00,0.92
6234.00,0.92
6233.00,0.92
6232.00,0.92
6231.00,0.93
6230.00,0.93
6229.00,0.93
6228.00,0.93
6227.00,0.93
6226.00,0.93
6225.00,0.93
6224.00,0.93
6223.00,0.94
6222.00,0.94
6221.00,0.94
6220.00,0.94
6219.00,0.94
6218.00,0.94
6217.00,0.94
6216.00,0.94
6215.00,0.94
6214.00,0.95
6213.00,0.95
6212.00,0.95
6211.00,0.95
6210.00,0.95
6209.00,0.95
6208.00,0.95
6207.00,0.95
6206.00,0.95
6205.00,0.95
6204.00,0.96
6203.00,0.96
6202.00,0.96
6201.00,0.96
6200.00,0.96
6199.00,0.96
6198.00,0.96
6197.00,0.96
6196.00,0.96
6195.00,0.96
6194.00,0.97
6193.00,0.97
6192.00,0.97
6191.00,0.97
6190.00,0.97
6189.00,0.97
6188.00,0.97
6187.00,0.97
6186.00,0.97
6185.00,0.98
6184.00,0.98
6183.00,0.98
6182.00,0.98
6181.00,0.98
6180.00,0.98
6179.00,0.98
6178.00,0.98
6177.00,0.98
6176.00,0.99
6175.00,0.99
6174.00,0.99
6173.00,0.99
6172.00,0.99
6171.00,0.99
6170.00,0.99
6169.00,0.99
6168.00,1.00
6167.00,1.00
6166.00,1.00
6165.00,1.00
6164.00,1.00
6163.00,1.00
6162.00,1.01
6161.00,1.01
6160.00,1.01
6159.00,1.01
6158.00,1.01
6157.00,1.01
6156.00,1.01
6155.00,1.01
6154.00,1.02
6153.00,1.02
6152.00,1.02
6151.00,1.02
6150.00,1.02
6149.00,1.02
6148.00,1.02
6147.00,1.02
6146.00,1.02
6145.00,1.03
6144.00,1.03
6143.00,1.03
6142.00,1.03
6141.00,1.03
6140.00,1.03
6139.00,1.03
6138.00,1.03
6137.00,1.04
6136.00,1.04
6135.00,1.04
6134.00,1.04
6133.00,1.04
6132.00,1.04
6131.00,1.04
6130.00,1.04
6129.00,1.05
6128.00,1.05
6127.00,1.05
6126.00,1.05
6125.00,1.05
6124.00,1.05
6123.00,1.05
6122.00,1.05
6121.00,1.05
6120.00,1.05
6119.00,1.05
6118.00,1.06
6117.00,1.06
6116.00,1.06
6115.00,1.06
6114.00,1.06
6113.00,1.06
6112.00,1.06
6111.00,1.06
6110.00,1.06
6109.00,1.06
6108.00,1.06
6107.00,1.06
6106.00,1.06
6105.00,1.06
6104.00,1.06
6103.00,1.07
6102.00,1.07
6101.00,1.07
6100.00,1.07
6099.00,1.07
6098.00,1.07
6097.00,1.07
6096.00,1.07
6095.00,1.07
6094.00,1.07
6093.00,1.08
6092.00,1.08
6091.00,1.08
6090.00,1.08
6089.00,1.08
6088.00,1.08
6087.00,1.08
6086.00,1.08
6085.00,1.08
6084.00,1.08
6083.00,1.09
6082.00,1.09
6081.00,1.09
6080.00,1.09
6079.00,1.09
6078.00,1.09
6077.00,1.09
6076.00,1.09
6075.00,1.09
6074.00,1.09
6073.00,1.09
6072.00,1.09
6071.00,1.10
6070.00,1.10
6069.00,1.10
6068.00,1.10
6067.00,1.10
6066.00,1.10
6065.00,1.10
6064.00,1.10
6063.00,1.10
6062.00,1.11
6061.00,1.11
6060.00,1.11
6059.00,1.11
6058.00,1.11
6057.00,1.11
6056.00,1.11
6055.00,1.11
6054.00,1.11
6053.00,1.11
6052.00,1.11
6051.00,1.11
6050.00,1.11
6049.00,1.11
6048.00,1.11
6047.00,1.11
6046.00,1.11
6045.00,1.11
6044.00,1.11
6043.00,1.11
6042.00,1.11
6041.00,1.11
6040.00,1.11
6039.00,1.11
6038.00,1.11
6037.00,1.11
6036.00,1.11
6035.00,1.11
6034.00,1.11
6033.00,1.11
6032.00,1.11
6031.00,1.11
6030.00,1.11
6029.00,1.11
6028.00,1.12
6027.00,1.12
6026.00,1.12
6025.00,1.12
6024.00,1.12
6023.00,1.12
6022.00,1.12
6021.00,1.12
6020.00,1.12
6019.00,1.12
6018.00,1.12
6017.00,1.12
6016.00,1.12
6015.00,1.12
6014.00,1.12
6013.00,1.12
6012.00,1.12
6011.00,1.12
6010.00,1.12
6009.00,1.12
6008.00,1.12
6007.00,1.12
6006.00,1.12
6005.00,1.12
6004.00,1.12
6003.00,1.12
6002.00,1.12
6001.00,1.12
6000.00,1.12
5999.00,1.12
5998.00,1.12
5997.00,1.12
5996.00,1.12
5995.00,1.12
5994.00,1.12
5993.00,1.12
5992.00,1.12
5991.00,1.12
5990.00,1.12
5989.00,1.12
5988.00,1.12
5987.00,1.11
5986.00,1.11
5985.00,1.11
5984.00,1.11
5983.00,1.11
5982.00,1.11
5981.00,1.11
5980.00,1.10
5979.00,1.10
5978.00,1.10
5977.00,1.10
5976.00,1.09
5975.00,1.09
5974.00,1.09
5973.00,1.08
5972.00,1.08
5971.00,1.08
5970.00,1.07
5969.00,1.07
5968.00,1.06
5967.00,1.06
5966.00,1.06
5965.00,1.05
5964.00,1.05
5963.00,1.04
5962.00,1.04
5961.00,1.03
5960.00,1.03
5959.00,1.03
5958.00,1.02
5957.00,1.02
5956.00,1.01
5955.00,1.01
5954.00,1.00
5953.00,1.00
5952.00,1.00
5951.00,0.99
5950.00,0.99
5949.00,0.99
5948.00,0.99
5947.00,0.98
5946.00,0.98
5945.00,0.98
5944.00,0.98
5943.00,0.98
5942.00,0.97
5941.00,0.97
5940.00,0.97
5939.00,0.97
5938.00,0.97
5937.00,0.97
5936.00,0.97
5935.00,0.97
5934.00,0.97
5933.00,0.97
5932.00,0.97
5931.00,0.97
5930.00,0.97
5929.00,0.97
5928.00,0.96
5927.00,0.96
5926.00,0.96
5925.00,0.96
5924.00,0.96
5923.00,0.96
5922.00,0.95
5921.00,0.95
5920.00,0.95
5919.00,0.95
5918.00,0.95
5917.00,0.94
5916.00,0.94
5915.00,0.94
5914.00,0.94
5913.00,0.94
5912.00,0.93
5911.00,0.93
5910.00,0.93
5909.00,0.93
5908.00,0.93
5907.00,0.93
5906.00,0.93
5905.00,0.93
5904.00,0.93
5903.00,0.93
5902.00,0.93
5901.00,0.93
5900.00,0.93
5899.00,0.93
5898.00,0.93
5897.00,0.93
5896.00,0.93
5895.00,0.93
5894.00,0.93
5893.00,0.94
5892.00,0.94
5891.00,0.94
5890.00,0.94
5889.00,0.94
5888.00,0.94
5887.00,0.95
5886.00,0.95
5885.00,0.95
5884.00,0.95
5883.00,0.95
5882.00,0.96
5881.00,0.96
5880.00,0.96
5879.00,0.96
5878.00,0.97
5877.00,0.97
5876.00,0.97
5875.00,0.97
5874.00,0.97
5873.00,0.97
5872.00,0.98
5871.00,0.98
5870.00,0.98
5869.00,0.98
5868.00,0.98
5867.00,0.98
5866.00,0.98
5865.00,0.99
5864.00,0.99
5863.00,0.99
5862.00,0.99
5861.00,0.99
5860.00,0.99
5859.00,0.99
5858.00,0.99
5857.00,0.99
5856.00,0.99
5855.00,0.99
5854.00,0.99
5853.00,0.99
5852.00,0.99
5851.00,0.99
5850.00,1.00
5849.00,1.00
5848.00,1.00
5847.00,1.00
5846.00,1.00
5845.00,1.00
5844.00,1.00
5843.00,1.00
5842.00,1.00
5841.00,1.00
5840.00,1.00
5839.00,1.00
5838.00,1.00
5837.00,1.00
5836.00,1.00
5835.00,1.00
5834.00,1.00
5833.00,1.00
5832.00,1.00
5831.00,1.00
5830.00,1.00
5829.00,1.00
5828.00,1.00
5827.00,1.00
5826.00,1.00
5825.00,1.00
5824.00,1.00
5823.00,1.00
5822.00,1.00
5821.00,1.00
5820.00,1.00
5819.00,1.00
5818.00,1.00
5817.00,1.00
5816.00,1.00
5815.00,1.00
5814.00,1.00
5813.00,1.00
5812.00,1.00
5811.00,1.00
5810.00,1.00
5809.00,1.00
5808.00,1.00
5807.00,1.00
5806.00,0.99
5805.00,0.99
5804.00,0.99
5803.00,0.99
5802.00,0.99
5801.00,0.99
5800.00,0.99
5799.00,0.99
5798.00,0.98
5797.00,0.98
5796.00,0.98
5795.00,0.98
5794.00,0.98
5793.00,0.98
5792.00,0.98
5791.00,0.97
5790.00,0.97
5789.00,0.97
5788.00,0.97
5787.00,0.97
5786.00,0.97
5785.00,0.97
5784.00,0.96
5783.00,0.96
5782.00,0.96
5781.00,0.96
5780.00,0.96
5779.00,0.96
5778.00,0.96
5777.00,0.96
5776.00,0.96
5775.00,0.96
5774.00,0.96
5773.00,0.96
5772.00,0.96
5771.00,0.96
5770.00,0.96
5769.00,0.96
5768.00,0.96
5767.00,0.96
5766.00,0.97
5765.00,0.97
5764.00,0.97
5763.00,0.97
5762.00,0.97
5761.00,0.97
5760.00,0.97
5759.00,0.98
5758.00,0.98
5757.00,0.98
5756.00,0.98
5755.00,0.98
5754.00,0.98
5753.00,0.99
5752.00,0.99
5751.00,0.99
5750.00,0.99
5749.00,0.99
5748.00,0.99
5747.00,1.00
5746.00,1.00
5745.00,1.00
5744.00,1.00
5743.00,1.00
5742.00,1.00
5741.00,1.00
5740.00,1.01
5739.00,1.01
5738.00,1.01
5737.00,1.01
5736.00,1.01
5735.00,1.01
5734.00,1.01
5733.00,1.01
5732.00,1.01
5731.00,1.02
5730.00,1.02
5729.00,1.02
5728.00,1.02
5727.00,1.02
5726.00,1.02
5725.00,1.02
5724.00,1.02
5723.00,1.02
5722.00,1.02
5721.00,1.02
5720.00,1.02
5719.00,1.02
5718.00,1.02
5717.00,1.01
5716.00,1.01
5715.00,1.01
5714.00,1.01
5713.00,1.01
5712.00,1.01
5711.00,1.01
5710.00,1.01
5709.00,1.01
5708.00,1.01
5707.00,1.01
5706.00,1.01
5705.00,1.01
5704.00,1.01
5703.00,1.01
5702.00,1.01
5701.00,1.01
5700.00,1.00
5699.00,1.00
5698.00,1.00
5697.00,1.00
5696.00,1.00
5695.00,1.00
5694.00,1.00
5693.00,1.00
5692.00,0.99
5691.00,0.99
5690.00,0.99
5689.00,0.99
5688.00,0.99
5687.00,0.99
5686.00,0.99
5685.00,0.98
5684.00,0.98
5683.00,0.98
5682.00,0.98
5681.00,0.98
5680.00,0.98
5679.00,0.98
5678.00,0.98
5677.00,0.98
5676.00,0.98
5675.00,0.98
5674.00,0.98
5673.00,0.98
5672.00,0.98
5671.00,0.98
5670.00,0.98
5669.00,0.98
5668.00,0.98
5667.00,0.98
5666.00,0.98
5665.00,0.98
5664.00,0.98
5663.00,0.98
5662.00,0.98
5661.00,0.99
5660.00,0.99
5659.00,0.99
5658.00,0.99
5657.00,0.99
5656.00,0.99
5655.00,0.99
5654.00,0.99
5653.00,0.99
5652.00,0.99
5651.00,0.99
5650.00,0.99
5649.00,1.00
5648.00,1.00
5647.00,1.00
5646.00,1.00
5645.00,1.00
5644.00,1.00
5643.00,1.00
5642.00,1.00
5641.00,1.00
5640.00,1.00
5639.00,1.01
5638.00,1.01
5637.00,1.01
5636.00,1.01
5635.00,1.01
5634.00,1.01
5633.00,1.01
5632.00,1.01
5631.00,1.01
5630.00,1.01
5629.00,1.01
5628.00,1.02
5627.00,1.02
5626.00,1.02
5625.00,1.02
5624.00,1.02
5623.00,1.02
5622.00,1.02
5621.00,1.02
5620.00,1.02
5619.00,1.02
5618.00,1.02
5617.00,1.02
5616.00,1.03
5615.00,1.03
5614.00,1.03
5613.00,1.03
5612.00,1.03
5611.00,1.03
5610.00,1.03
5609.00,1.03
5608.00,1.03
5607.00,1.03
5606.00,1.04
5605.00,1.04
5604.00,1.04
5603.00,1.04
5602.00,1.04
5601.00,1.04
5600.00,1.04
5599.00,1.04
5598.00,1.04
5597.00,1.05
5596.00,1.05
5595.00,1.05
5594.00,1.05
5593.00,1.05
5592.00,1.05
5591.00,1.05
5590.00,1.05
5589.00,1.05
5588.00,1.05
5587.00,1.05
5586.00,1.06
5585.00,1.06
5584.00,1.06
5583.00,1.06
5582.00,1.06
5581.00,1.06
5580.00,1.06
5579.00,1.06
5578.00,1.06
5577.00,1.06
5576.00,1.06
5575.00,1.06
5574.00,1.07
5573.00,1.07
5572.00,1.07
5571.00,1.07
5570.00,1.07
5569.00,1.07
5568.00,1.07
5567.00,1.07
5566.00,1.08
5565.00,1.08
5564.00,1.08
5563.00,1.08
5562.00,1.08
5561.00,1.08
5560.00,1.08
5559.00,1.08
5558.00,1.08
5557.00,1.08
5556.00,1.09
5555.00,1.09
5554.00,1.09
5553.00,1.09
5552.00,1.09
5551.00,1.09
5550.00,1.09
5549.00,1.09
5548.00,1.09
5547.00,1.09
5546.00,1.09
5545.00,1.09
5544.00,1.10
5543.00,1.10
5542.00,1.10
5541.00,1.10
5540.00,1.10
5539.00,1.10
5538.00,1.10
5537.00,1.10
5536.00,1.10
5535.00,1.10
5534.00,1.10
5533.00,1.10
5532.00,1.10
5531.00,1.11
5530.00,1.11
5529.00,1.11
5528.00,1.11
5527.00,1.11
5526.00,1.11
5525.00,1.11
5524.00,1.11
5523.00,1.11
5522.00,1.11
5521.00,1.11
5520.00,1.11
5519.00,1.11
5518.00,1.11
5517.00,1.11
5516.00,1.11
5515.00,1.11
5514.00,1.11
5513.00,1.11
5512.00,1.12
5511.00,1.12
5510.00,1.12
5509.00,1.12
5508.00,1.12
5507.00,1.12
5506.00,1.12
5505.00,1.12
5504.00,1.12
5503.00,1.12
5502.00,1.12
5501.00,1.12
5500.00,1.12
5499.00,1.12
5498.00,1.12
5497.00,1.12
5496.00,1.12
5495.00,1.12
5494.00,1.12
5493.00,1.12
5492.00,1.12
5491.00,1.12
5490.00,1.12
5489.00,1.12
5488.00,1.13
5487.00,1.13
5486.00,1.13
5485.00,1.13
5484.00,1.13
5483.00,1.13
5482.00,1.13
5481.00,1.13
5480.00,1.13
5479.00,1.13
5478.00,1.13
5477.00,1.13
5476.00,1.13
5475.00,1.14
5474.00,1.14
5473.00,1.14
5472.00,1.14
5471.00,1.14
5470.00,1.14
5469.00,1.14
5468.00,1.14
5467.00,1.14
5466.00,1.14
5465.00,1.14
5464.00,1.14
5463.00,1.14
5462.00,1.14
5461.00,1.14
5460.00,1.14
5459.00,1.14
5458.00,1.14
5457.00,1.14
5456.00,1.14
5455.00,1.14
5454.00,1.14
5453.00,1.14
5452.00,1.14
5451.00,1.14
5450.00,1.14
5449.00,1.14
5448.00,1.14
5447.00,1.14
5446.00,1.15
5445.00,1.15
5444.00,1.15
5443.00,1.15
5442.00,1.15
5441.00,1.15
5440.00,1.15
5439.00,1.15
5438.00,1.15
5437.00,1.15
5436.00,1.15
5435.00,1.15
5434.00,1.15
5433.00,1.15
5432.00,1.15
5431.00,1.15
5430.00,1.15
5429.00,1.15
5428.00,1.15
5427.00,1.15
5426.00,1.15
5425.00,1.15
5424.00,1.15
5423.00,1.15
5422.00,1.15
5421.00,1.15
5420.00,1.15
5419.00,1.15
5418.00,1.15
5417.00,1.15
5416.00,1.15
5415.00,1.15
5414.00,1.15
5413.00,1.15
5412.00,1.14
5411.00,1.14
5410.00,1.14
5409.00,1.14
5408.00,1.14
5407.00,1.14
5406.00,1.14
5405.00,1.14
5404.00,1.14
5403.00,1.14
5402.00,1.14
5401.00,1.14
5400.00,1.14
5399.00,1.13
5398.00,1.13
5397.00,1.13
5396.00,1.13
5395.00,1.13
5394.00,1.13
5393.00,1.13
5392.00,1.12
5391.00,1.12
5390.00,1.12
5389.00,1.12
5388.00,1.12
5387.00,1.11
5386.00,1.11
5385.00,1.11
5384.00,1.11
5383.00,1.10
5382.00,1.10
5381.00,1.10
5380.00,1.09
5379.00,1.09
5378.00,1.09
5377.00,1.08
5376.00,1.08
5375.00,1.08
5374.00,1.07
5373.00,1.07
5372.00,1.07
5371.00,1.06
5370.00,1.06
5369.00,1.05
5368.00,1.05
5367.00,1.04
5366.00,1.04
5365.00,1.04
5364.00,1.03
5363.00,1.03
5362.00,1.02
5361.00,1.01
5360.00,1.01
5359.00,1.00
5358.00,1.00
5357.00,0.99
5356.00,0.98
5355.00,0.98
5354.00,0.97
5353.00,0.96
5352.00,0.96
5351.00,0.95
5350.00,0.94
5349.00,0.93
5348.00,0.93
5347.00,0.92
5346.00,0.91
5345.00,0.90
5344.00,0.89
5343.00,0.89
5342.00,0.88
5341.00,0.87
5340.00,0.86
5339.00,0.85
5338.00,0.85
5337.00,0.84
5336.00,0.83
5335.00,0.82
5334.00,0.81
5333.00,0.80
5332.00,0.80
5331.00,0.79
5330.00,0.78
5329.00,0.77
5328.00,0.76
5327.00,0.76
5326.00,0.75
5325.00,0.74
5324.00,0.73
5323.00,0.72
5322.00,0.71
5321.00,0.71
5320.00,0.70
5319.00,0.69
5318.00,0.68
5317.00,0.68
5316.00,0.67
5315.00,0.66
5314.00,0.65
5313.00,0.65
5312.00,0.64
5311.00,0.63
5310.00,0.63
5309.00,0.62
5308.00,0.61
5307.00,0.61
5306.00,0.60
5305.00,0.60
5304.00,0.59
5303.00,0.59
5302.00,0.58
5301.00,0.58
5300.00,0.57
5299.00,0.57
5298.00,0.56
5297.00,0.56
5296.00,0.56
5295.00,0.55
5294.00,0.55
5293.00,0.55
5292.00,0.54
5291.00,0.54
5290.00,0.54
5289.00,0.54
5288.00,0.53
5287.00,0.53
5286.00,0.53
5285.00,0.53
5284.00,0.53
5283.00,0.52
5282.00,0.52
5281.00,0.52
5280.00,0.52
5279.00,0.52
5278.00,0.52
5277.00,0.52
5276.00,0.51
5275.00,0.51
5274.00,0.51
5273.00,0.51
5272.00,0.51
5271.00,0.51
5270.00,0.51
5269.00,0.51
5268.00,0.51
5267.00,0.51
5266.00,0.51
5265.00,0.50
5264.00,0.50
5263.00,0.50
5262.00,0.50
5261.00,0.50
5260.00,0.50
5259.00,0.50
5258.00,0.50
5257.00,0.50
5256.00,0.50
5255.00,0.50
5254.00,0.50
5253.00,0.50
5252.00,0.50
5251.00,0.50
5250.00,0.50
5249.00,0.50
5248.00,0.50
5247.00,0.50
5246.00,0.50
5245.00,0.50
5244.00,0.50
5243.00,0.50
5242.00,0.50
5241.00,0.50
5240.00,0.50
5239.00,0.50
5238.00,0.50
5237.00,0.50
5236.00,0.50
5235.00,0.50
5234.00,0.50
5233.00,0.50
5232.00,0.50
5231.00,0.50
5230.00,0.50
5229.00,0.50
5228.00,0.50
5227.00,0.51
5226.00,0.51
5225.00,0.51
5224.00,0.51
5223.00,0.51
5222.00,0.51
5221.00,0.51
5220.00,0.51
5219.00,0.51
5218.00,0.51
5217.00,0.51
5216.00,0.51
5215.00,0.51
5214.00,0.51
5213.00,0.51
5212.00,0.51
5211.00,0.51
5210.00,0.51
5209.00,0.51
5208.00,0.51
5207.00,0.51
5206.00,0.51
5205.00,0.51
5204.00,0.51
5203.00,0.51
5202.00,0.51
5201.00,0.51
5200.00,0.51
5199.00,0.51
5198.00,0.51
5197.00,0.51
5196.00,0.51
5195.00,0.51
5194.00,0.51
5193.00,0.51
5192.00,0.51
5191.00,0.51
5190.00,0.51
5189.00,0.51
5188.00,0.51
5187.00,0.51
5186.00,0.51
5185.00,0.52
5184.00,0.52
5183.00,0.52
5182.00,0.52
5181.00,0.52
5180.00,0.52
5179.00,0.52
5178.00,0.52
5177.00,0.52
5176.00,0.52
5175.00,0.52
5174.00,0.52
5173.00,0.52
5172.00,0.52
5171.00,0.52
5170.00,0.52
5169.00,0.52
5168.00,0.52
5167.00,0.52
5166.00,0.52
5165.00,0.52
5164.00,0.52
5163.00,0.52
5162.00,0.52
5161.00,0.52
5160.00,0.53
5159.00,0.53
5158.00,0.53
5157.00,0.53
5156.00,0.53
5155.00,0.53
5154.00,0.53
5153.00,0.53
5152.00,0.53
5151.00,0.53
5150.00,0.53
5149.00,0.53
5148.00,0.53
5147.00,0.53
5146.00,0.53
5145.00,0.53
5144.00,0.53
5143.00,0.53
5142.00,0.53
5141.00,0.53
5140.00,0.53
5139.00,0.53
5138.00,0.54
5137.00,0.54
5136.00,0.54
5135.00,0.54
5134.00,0.54
5133.00,0.54
5132.00,0.54
5131.00,0.54
5130.00,0.54
5129.00,0.54
5128.00,0.54
5127.00,0.54
5126.00,0.54
5125.00,0.54
5124.00,0.54
5123.00,0.54
5122.00,0.54
5121.00,0.55
5120.00,0.55
5119.00,0.55
5118.00,0.55
5117.00,0.55
5116.00,0.55
5115.00,0.55
5114.00,0.55
5113.00,0.55
5112.00,0.55
5111.00,0.55
5110.00,0.55
5109.00,0.55
5108.00,0.55
5107.00,0.55
5106.00,0.55
5105.00,0.55
5104.00,0.55
5103.00,0.55
5102.00,0.55
5101.00,0.55
5100.00,0.55
5099.00,0.55
5098.00,0.55
5097.00,0.55
5096.00,0.55
5095.00,0.55
5094.00,0.55
5093.00,0.56
5092.00,0.56
5091.00,0.56
5090.00,0.56
5089.00,0.56
5088.00,0.56
5087.00,0.56
5086.00,0.56
5085.00,0.56
5084.00,0.56
5083.00,0.56
5082.00,0.56
5081.00,0.56
5080.00,0.56
5079.00,0.57
5078.00,0.57
5077.00,0.57
5076.00,0.57
5075.00,0.57
5074.00,0.57
5073.00,0.57
5072.00,0.57
5071.00,0.57
5070.00,0.57
5069.00,0.57
5068.00,0.57
5067.00,0.57
5066.00,0.57
5065.00,0.57
5064.00,0.57
5063.00,0.57
5062.00,0.57
5061.00,0.57
5060.00,0.57
5059.00,0.57
5058.00,0.58
5057.00,0.58
5056.00,0.58
5055.00,0.58
5054.00,0.58
5053.00,0.58
5052.00,0.58
5051.00,0.58
5050.00,0.58
5049.00,0.58
5048.00,0.58
5047.00,0.58
5046.00,0.58
5045.00,0.58
5044.00,0.58
5043.00,0.58
5042.00,0.58
5041.00,0.58
5040.00,0.59
5039.00,0.59
5038.00,0.59
5037.00,0.59
5036.00,0.59
5035.00,0.59
5034.00,0.59
5033.00,0.59
5032.00,0.59
5031.00,0.59
5030.00,0.59
5029.00,0.59
5028.00,0.59
5027.00,0.59
5026.00,0.59
5025.00,0.59
5024.00,0.59
5023.00,0.59
5022.00,0.59
5021.00,0.60
5020.00,0.60
5019.00,0.60
5018.00,0.60
5017.00,0.60
5016.00,0.60
5015.00,0.60
5014.00,0.60
5013.00,0.60
5012.00,0.60
5011.00,0.60
5010.00,0.60
5009.00,0.60
5008.00,0.60
5007.00,0.60
5006.00,0.60
5005.00,0.61
5004.00,0.61
5003.00,0.61
5002.00,0.61
5001.00,0.61
5000.00,0.61
4999.00,0.61
4998.00,0.61
4997.00,0.61
4996.00,0.61
4995.00,0.61
4994.00,0.61
4993.00,0.62
4992.00,0.62
4991.00,0.62
4990.00,0.62
4989.00,0.62
4988.00,0.62
4987.00,0.62
4986.00,0.62
4985.00,0.62
4984.00,0.62
4983.00,0.62
4982.00,0.63
4981.00,0.63
4980.00,0.63
4979.00,0.63
4978.00,0.63
4977.00,0.63
4976.00,0.63
4975.00,0.63
4974.00,0.63
4973.00,0.64
4972.00,0.64
4971.00,0.64
4970.00,0.64
4969.00,0.64
4968.00,0.64
4967.00,0.64
4966.00,0.64
4965.00,0.64
4964.00,0.64
4963.00,0.64
4962.00,0.64
4961.00,0.64
4960.00,0.64
4959.00,0.64
4958.00,0.64
4957.00,0.64
4956.00,0.64
4955.00,0.65
4954.00,0.65
4953.00,0.65
4952.00,0.65
4951.00,0.65
4950.00,0.65
4949.00,0.65
4948.00,0.65
4947.00,0.66
4946.00,0.66
4945.00,0.66
4944.00,0.66
4943.00,0.66
4942.00,0.66
4941.00,0.66
4940.00,0.66
4939.00,0.66
4938.00,0.66
4937.00,0.67
4936.00,0.67
4935.00,0.67
4934.00,0.67
4933.00,0.67
4932.00,0.67
4931.00,0.67
4930.00,0.67
4929.00,0.67
4928.00,0.67
4927.00,0.67
4926.00,0.68
4925.00,0.68
4924.00,0.68
4923.00,0.68
4922.00,0.68
4921.00,0.68
4920.00,0.68
4919.00,0.68
4918.00,0.68
4917.00,0.68
4916.00,0.68
4915.00,0.68
4914.00,0.69
4913.00,0.69
4912.00,0.69
4911.00,0.69
4910.00,0.69
4909.00,0.69
4908.00,0.69
4907.00,0.69
4906.00,0.69
4905.00,0.69
4904.00,0.69
4903.00,0.69
4902.00,0.69
4901.00,0.69
4900.00,0.69
4899.00,0.70
4898.00,0.70
4897.00,0.70
4896.00,0.70
4895.00,0.70
4894.00,0.70
4893.00,0.70
4892.00,0.70
4891.00,0.70
4890.00,0.70
4889.00,0.70
4888.00,0.70
4887.00,0.70
4886.00,0.70
4885.00,0.70
4884.00,0.70
4883.00,0.70
4882.00,0.70
4881.00,0.70
4880.00,0.70
4879.00,0.70
4878.00,0.70
4877.00,0.71
4876.00,0.71
4875.00,0.71
4874.00,0.71
4873.00,0.71
4872.00,0.71
4871.00,0.71
4870.00,0.71
4869.00,0.71
4868.00,0.71
4867.00,0.72
4866.00,0.72
4865.00,0.72
4864.00,0.72
4863.00,0.72
4862.00,0.72
4861.00,0.72
4860.00,0.72
4859.00,0.72
4858.00,0.72
4857.00,0.72
4856.00,0.72
4855.00,0.72
4854.00,0.72
4853.00,0.72
4852.00,0.72
4851.00,0.72
4850.00,0.72
4849.00,0.73
4848.00,0.73
4847.00,0.73
4846.00,0.73
4845.00,0.73
4844.00,0.73
4843.00,0.73
4842.00,0.73
4841.00,0.73
4840.00,0.74
4839.00,0.74
4838.00,0.74
4837.00,0.74
4836.00,0.74
4835.00,0.74
4834.00,0.74
4833.00,0.74
4832.00,0.74
4831.00,0.75
4830.00,0.75
4829.00,0.75
4828.00,0.75
4827.00,0.75
4826.00,0.75
4825.00,0.75
4824.00,0.76
4823.00,0.76
4822.00,0.76
4821.00,0.76
4820.00,0.76
4819.00,0.76
4818.00,0.76
4817.00,0.76
4816.00,0.77
4815.00,0.77
4814.00,0.77
4813.00,0.77
4812.00,0.77
4811.00,0.77
4810.00,0.77
4809.00,0.77
4808.00,0.77
4807.00,0.77
4806.00,0.77
4805.00,0.77
4804.00,0.77
4803.00,0.78
4802.00,0.78
4801.00,0.78
4800.00,0.78
4799.00,0.78
4798.00,0.78
4797.00,0.78
4796.00,0.79
4795.00,0.79
4794.00,0.79
4793.00,0.79
4792.00,0.79
4791.00,0.80
4790.00,0.80
4789.00,0.80
4788.00,0.80
4787.00,0.80
4786.00,0.81
4785.00,0.81
4784.00,0.81
4783.00,0.81
4782.00,0.81
4781.00,0.81
4780.00,0.81
4779.00,0.82
4778.00,0.82
4777.00,0.82
4776.00,0.82
4775.00,0.82
4774.00,0.82
4773.00,0.82
4772.00,0.82
4771.00,0.82
4770.00,0.83
4769.00,0.83
4768.00,0.83
4767.00,0.83
4766.00,0.83
4765.00,0.83
4764.00,0.83
4763.00,0.83
4762.00,0.84
4761.00,0.84
4760.00,0.84
4759.00,0.84
4758.00,0.84
4757.00,0.84
4756.00,0.84
4755.00,0.85
4754.00,0.85
4753.00,0.85
4752.00,0.85
4751.00,0.85
4750.00,0.85
4749.00,0.85
4748.00,0.86
4747.00,0.86
4746.00,0.86
4745.00,0.86
4744.00,0.86
4743.00,0.86
4742.00,0.86
4741.00,0.86
4740.00,0.87
4739.00,0.87
4738.00,0.87
4737.00,0.87
4736.00,0.87
4735.00,0.87
4734.00,0.87
4733.00,0.88
4732.00,0.88
4731.00,0.88
4730.00,0.88
4729.00,0.88
4728.00,0.88
4727.00,0.89
4726.00,0.89
4725.00,0.89
4724.00,0.89
4723.00,0.89
4722.00,0.89
4721.00,0.90
4720.00,0.90
4719.00,0.90
4718.00,0.90
4717.00,0.90
4716.00,0.91
4715.00,0.91
4714.00,0.91
4713.00,0.91
4712.00,0.91
4711.00,0.91
4710.00,0.92
4709.00,0.92
4708.00,0.92
4707.00,0.92
4706.00,0.92
4705.00,0.92
4704.00,0.93
4703.00,0.93
4702.00,0.93
4701.00,0.93
4700.00,0.93
4699.00,0.93
4698.00,0.94
4697.00,0.94
4696.00,0.94
4695.00,0.94
4694.00,0.94
4693.00,0.94
4692.00,0.95
4691.00,0.95
4690.00,0.95
4689.00,0.95
4688.00,0.95
4687.00,0.95
4686.00,0.96
4685.00,0.96
4684.00,0.96
4683.00,0.96
4682.00,0.96
4681.00,0.96
4680.00,0.96
4679.00,0.97
4678.00,0.97
4677.00,0.97
4676.00,0.97
4675.00,0.97
4674.00,0.97
4673.00,0.97
4672.00,0.98
4671.00,0.98
4670.00,0.98
4669.00,0.98
4668.00,0.98
4667.00,0.98
4666.00,0.98
4665.00,0.98
4664.00,0.98
4663.00,0.99
4662.00,0.99
4661.00,0.99
4660.00,0.99
4659.00,0.99
4658.00,0.99
4657.00,0.99
4656.00,0.99
4655.00,1.00
4654.00,1.00
4653.00,1.00
4652.00,1.00
4651.00,1.00
4650.00,1.00
4649.00,1.00
4648.00,1.00
4647.00,1.01
4646.00,1.01
4645.00,1.01
4644.00,1.01
4643.00,1.01
4642.00,1.01
4641.00,1.01
4640.00,1.02
4639.00,1.02
4638.00,1.02
4637.00,1.02
4636.00,1.02
4635.00,1.02
4634.00,1.02
4633.00,1.02
4632.00,1.02
4631.00,1.02
4630.00,1.02
4629.00,1.02
4628.00,1.02
4627.00,1.03
4626.00,1.03
4625.00,1.03
4624.00,1.03
4623.00,1.03
4622.00,1.03
4621.00,1.03
4620.00,1.03
4619.00,1.03
4618.00,1.03
4617.00,1.03
4616.00,1.03
4615.00,1.03
4614.00,1.03
4613.00,1.04
4612.00,1.04
4611.00,1.04
4610.00,1.04
4609.00,1.04
4608.00,1.04
4607.00,1.04
4606.00,1.04
4605.00,1.05
4604.00,1.05
4603.00,1.05
4602.00,1.05
4601.00,1.05
4600.00,1.05
4599.00,1.05
4598.00,1.06
4597.00,1.06
4596.00,1.06
4595.00,1.06
4594.00,1.06
4593.00,1.06
4592.00,1.06
4591.00,1.06
4590.00,1.06
4589.00,1.07
4588.00,1.07
4587.00,1.07
4586.00,1.07
4585.00,1.07
4584.00,1.07
4583.00,1.07
4582.00,1.07
4581.00,1.07
4580.00,1.08
4579.00,1.08
4578.00,1.08
4577.00,1.08
4576.00,1.08
4575.00,1.08
4574.00,1.08
4573.00,1.08
4572.00,1.08
4571.00,1.08
4570.00,1.08
4569.00,1.08
4568.00,1.08
4567.00,1.09
4566.00,1.09
4565.00,1.09
4564.00,1.09
4563.00,1.09
4562.00,1.09
4561.00,1.09
4560.00,1.09
4559.00,1.10
4558.00,1.10
4557.00,1.10
4556.00,1.10
4555.00,1.10
4554.00,1.10
4553.00,1.10
4552.00,1.10
4551.00,1.10
4550.00,1.11
4549.00,1.11
4548.00,1.11
4547.00,1.11
4546.00,1.11
4545.00,1.11
4544.00,1.11
4543.00,1.11
4542.00,1.11
4541.00,1.11
4540.00,1.12
4539.00,1.12
4538.00,1.12
4537.00,1.12
4536.00,1.12
4535.00,1.12
4534.00,1.12
4533.00,1.12
4532.00,1.12
4531.00,1.12
4530.00,1.12
4529.00,1.12
4528.00,1.12
4527.00,1.12
4526.00,1.12
4525.00,1.12
4524.00,1.12
4523.00,1.12
4522.00,1.12
4521.00,1.12
4520.00,1.12
4519.00,1.12
4518.00,1.12
4517.00,1.12
4516.00,1.12
4515.00,1.12
4514.00,1.12
4513.00,1.12
4512.00,1.13
4511.00,1.13
4510.00,1.13
4509.00,1.13
4508.00,1.13
4507.00,1.13
4506.00,1.13
4505.00,1.13
4504.00,1.13
4503.00,1.13
4502.00,1.13
4501.00,1.13
4500.00,1.13
4499.00,1.13
4498.00,1.13
4497.00,1.13
4496.00,1.13
4495.00,1.13
4494.00,1.13
4493.00,1.13
4492.00,1.13
4491.00,1.12
4490.00,1.12
4489.00,1.12
4488.00,1.12
4487.00,1.12
4486.00,1.12
4485.00,1.11
4484.00,1.11
4483.00,1.11
4482.00,1.11
4481.00,1.11
4480.00,1.11
4479.00,1.10
4478.00,1.10
4477.00,1.10
4476.00,1.10
4475.00,1.10
4474.00,1.10
4473.00,1.10
4472.00,1.10
4471.00,1.10
4470.00,1.09
4469.00,1.09
4468.00,1.09
4467.00,1.09
4466.00,1.09
4465.00,1.08
4464.00,1.08
4463.00,1.08
4462.00,1.08
4461.00,1.07
4460.00,1.07
4459.00,1.07
4458.00,1.07
4457.00,1.06
4456.00,1.06
4455.00,1.05
4454.00,1.05
4453.00,1.05
4452.00,1.04
4451.00,1.04
4450.00,1.03
4449.00,1.03
4448.00,1.02
4447.00,1.02
4446.00,1.02
4445.00,1.01
4444.00,1.01
4443.00,1.00
4442.00,1.00
4441.00,0.99
4440.00,0.99
4439.00,0.98
4438.00,0.98
4437.00,0.97
4436.00,0.97
4435.00,0.96
4434.00,0.96
4433.00,0.95
4432.00,0.95
4431.00,0.94
4430.00,0.94
4429.00,0.94
4428.00,0.93
4427.00,0.93
4426.00,0.93
4425.00,0.92
4424.00,0.92
4423.00,0.92
4422.00,0.91
4421.00,0.91
4420.00,0.91
4419.00,0.91
4418.00,0.91
4417.00,0.91
4416.00,0.90
4415.00,0.90
4414.00,0.90
4413.00,0.90
4412.00,0.90
4411.00,0.90
4410.00,0.90
4409.00,0.90
4408.00,0.91
4407.00,0.91
4406.00,0.91
4405.00,0.91
4404.00,0.91
4403.00,0.91
4402.00,0.91
4401.00,0.91
4400.00,0.92
4399.00,0.92
4398.00,0.92
4397.00,0.92
4396.00,0.92
4395.00,0.92
4394.00,0.93
4393.00,0.93
4392.00,0.93
4391.00,0.93
4390.00,0.93
4389.00,0.94
4388.00,0.94
4387.00,0.94
4386.00,0.94
4385.00,0.95
4384.00,0.95
4383.00,0.95
4382.00,0.95
4381.00,0.95
4380.00,0.96
4379.00,0.96
4378.00,0.96
4377.00,0.96
4376.00,0.96
4375.00,0.96
4374.00,0.97
4373.00,0.97
4372.00,0.97
4371.00,0.97
4370.00,0.97
4369.00,0.97
4368.00,0.97
4367.00,0.97
4366.00,0.97
4365.00,0.97
4364.00,0.96
4363.00,0.96
4362.00,0.96
4361.00,0.96
4360.00,0.96
4359.00,0.96
4358.00,0.96
4357.00,0.96
4356.00,0.95
4355.00,0.95
4354.00,0.95
4353.00,0.95
4352.00,0.95
4351.00,0.95
4350.00,0.94
4349.00,0.94
4348.00,0.94
4347.00,0.94
4346.00,0.94
4345.00,0.94
4344.00,0.94
4343.00,0.94
4342.00,0.94
4341.00,0.94
4340.00,0.94
4339.00,0.94
4338.00,0.94
4337.00,0.94
4336.00,0.94
4335.00,0.94
4334.00,0.95
4333.00,0.95
4332.00,0.95
4331.00,0.95
4330.00,0.96
4329.00,0.96
4328.00,0.96
4327.00,0.96
4326.00,0.96
4325.00,0.97
4324.00,0.97
4323.00,0.97
4322.00,0.97
4321.00,0.97
4320.00,0.97
4319.00,0.97
4318.00,0.97
4317.00,0.98
4316.00,0.98
4315.00,0.98
4314.00,0.98
4313.00,0.98
4312.00,0.98
4311.00,0.99
4310.00,0.99
4309.00,0.99
4308.00,0.99
4307.00,1.00
4306.00,1.00
4305.00,1.00
4304.00,1.00
4303.00,1.01
4302.00,1.01
4301.00,1.01
4300.00,1.01
4299.00,1.02
4298.00,1.02
4297.00,1.02
4296.00,1.02
4295.00,1.02
4294.00,1.03
4293.00,1.03
4292.00,1.03
4291.00,1.03
4290.00,1.03
4289.00,1.03
4288.00,1.04
4287.00,1.04
4286.00,1.04
4285.00,1.04
4284.00,1.04
4283.00,1.04
4282.00,1.04
4281.00,1.04
4280.00,1.04
4279.00,1.04
4278.00,1.04
4277.00,1.04
4276.00,1.04
4275.00,1.03
4274.00,1.03
4273.00,1.03
4272.00,1.03
4271.00,1.03
4270.00,1.03
4269.00,1.03
4268.00,1.03
4267.00,1.03
4266.00,1.03
4265.00,1.03
4264.00,1.03
4263.00,1.03
4262.00,1.03
4261.00,1.03
4260.00,1.03
4259.00,1.03
4258.00,1.03
4257.00,1.03
4256.00,1.03
4255.00,1.03
4254.00,1.03
4253.00,1.03
4252.00,1.03
4251.00,1.03
4250.00,1.03
4249.00,1.03
4248.00,1.03
4247.00,1.03
4246.00,1.03
4245.00,1.03
4244.00,1.03
4243.00,1.03
4242.00,1.03
4241.00,1.04
4240.00,1.04
4239.00,1.04
4238.00,1.04
4237.00,1.04
4236.00,1.04
4235.00,1.05
4234.00,1.05
4233.00,1.05
4232.00,1.05
4231.00,1.05
4230.00,1.05
4229.00,1.06
4228.00,1.06
4227.00,1.06
4226.00,1.06
4225.00,1.06
4224.00,1.06
4223.00,1.06
4222.00,1.06
4221.00,1.06
4220.00,1.06
4219.00,1.06
4218.00,1.06
4217.00,1.06
4216.00,1.06
4215.00,1.06
4214.00,1.07
4213.00,1.07
4212.00,1.07
4211.00,1.07
4210.00,1.07
4209.00,1.07
4208.00,1.07
4207.00,1.07
4206.00,1.07
4205.00,1.07
4204.00,1.07
4203.00,1.07
4202.00,1.07
4201.00,1.07
4200.00,1.07
4199.00,1.07
4198.00,1.07
4197.00,1.07
4196.00,1.07
4195.00,1.07
4194.00,1.07
4193.00,1.07
4192.00,1.07
4191.00,1.07
4190.00,1.07
4189.00,1.07
4188.00,1.07
4187.00,1.07
4186.00,1.07
4185.00,1.07
4184.00,1.07
4183.00,1.07
4182.00,1.07
4181.00,1.08
4180.00,1.08
4179.00,1.08
4178.00,1.08
4177.00,1.08
4176.00,1.08
4175.00,1.07
4174.00,1.07
4173.00,1.07
4172.00,1.07
4171.00,1.07
4170.00,1.07
4169.00,1.07
4168.00,1.07
4167.00,1.08
4166.00,1.08
4165.00,1.08
4164.00,1.08
4163.00,1.08
4162.00,1.08
4161.00,1.08
4160.00,1.08
4159.00,1.08
4158.00,1.08
4157.00,1.08
4156.00,1.08
4155.00,1.08
4154.00,1.08
4153.00,1.08
4152.00,1.08
4151.00,1.08
4150.00,1.08
4149.00,1.08
4148.00,1.08
4147.00,1.08
4146.00,1.08
4145.00,1.08
4144.00,1.08
4143.00,1.08
4142.00,1.08
4141.00,1.08
4140.00,1.08
4139.00,1.08
4138.00,1.08
4137.00,1.08
4136.00,1.08
4135.00,1.08
4134.00,1.08
4133.00,1.08
4132.00,1.08
4131.00,1.08
4130.00,1.08
4129.00,1.08
4128.00,1.08
4127.00,1.08
4126.00,1.09
4125.00,1.09
4124.00,1.09
4123.00,1.09
4122.00,1.09
4121.00,1.09
4120.00,1.09
4119.00,1.09
4118.00,1.09
4117.00,1.09
4116.00,1.09
4115.00,1.09
4114.00,1.09
4113.00,1.09
4112.00,1.09
4111.00,1.09
4110.00,1.09
4109.00,1.08
4108.00,1.08
4107.00,1.08
4106.00,1.08
4105.00,1.08
4104.00,1.08
4103.00,1.08
4102.00,1.08
4101.00,1.08
4100.00,1.08
4099.00,1.08
4098.00,1.08
4097.00,1.08
4096.00,1.08
4095.00,1.08
4094.00,1.08
4093.00,1.08
4092.00,1.08
4091.00,1.08
4090.00,1.09
4089.00,1.09
4088.00,1.09
4087.00,1.09
4086.00,1.09
4085.00,1.09
4084.00,1.09
4083.00,1.09
4082.00,1.09
4081.00,1.10
4080.00,1.10
4079.00,1.10
4078.00,1.10
4077.00,1.10
4076.00,1.10
4075.00,1.10
4074.00,1.10
4073.00,1.10
4072.00,1.10
4071.00,1.10
4070.00,1.10
4069.00,1.10
4068.00,1.10
4067.00,1.10
4066.00,1.10
4065.00,1.10
4064.00,1.10
4063.00,1.10
4062.00,1.10
4061.00,1.10
4060.00,1.10
4059.00,1.10
4058.00,1.10
4057.00,1.10
4056.00,1.10
4055.00,1.10
4054.00,1.10
4053.00,1.10
4052.00,1.10
4051.00,1.11
4050.00,1.11
4049.00,1.11
4048.00,1.11
4047.00,1.11
4046.00,1.11
4045.00,1.11
4044.00,1.11
4043.00,1.11
4042.00,1.11
4041.00,1.11
4040.00,1.11
4039.00,1.11
4038.00,1.11
4037.00,1.11
4036.00,1.12
4035.00,1.12
4034.00,1.12
4033.00,1.12
4032.00,1.12
4031.00,1.12
4030.00,1.12
4029.00,1.12
4028.00,1.12
4027.00,1.12
4026.00,1.12
4025.00,1.12
4024.00,1.13
4023.00,1.13
4022.00,1.13
4021.00,1.13
4020.00,1.13
4019.00,1.13
4018.00,1.13
4017.00,1.13
4016.00,1.13
4015.00,1.13
4014.00,1.13
4013.00,1.13
4012.00,1.13
4011.00,1.13
4010.00,1.13
4009.00,1.14
4008.00,1.14
4007.00,1.14
4006.00,1.14
4005.00,1.14
4004.00,1.14
4003.00,1.14
4002.00,1.15
4001.00,1.15
4000.00,1.15
