创建为新数据集,样品 499 用户 Administrator 日期 星期一, 七月 16 2018
cm-1,%T
10000.00,1.10
9999.00,1.10
9998.00,1.10
9997.00,1.10
9996.00,1.10
9995.00,1.10
9994.00,1.10
9993.00,1.10
9992.00,1.09
9991.00,1.09
9990.00,1.09
9989.00,1.09
9988.00,1.09
9987.00,1.09
9986.00,1.09
9985.00,1.09
9984.00,1.09
9983.00,1.09
9982.00,1.09
9981.00,1.09
9980.00,1.09
9979.00,1.09
9978.00,1.09
9977.00,1.10
9976.00,1.10
9975.00,1.10
9974.00,1.10
9973.00,1.10
9972.00,1.10
9971.00,1.10
9970.00,1.10
9969.00,1.10
9968.00,1.10
9967.00,1.10
9966.00,1.10
9965.00,1.10
9964.00,1.10
9963.00,1.10
9962.00,1.10
9961.00,1.10
9960.00,1.10
9959.00,1.10
9958.00,1.10
9957.00,1.10
9956.00,1.10
9955.00,1.09
9954.00,1.09
9953.00,1.09
9952.00,1.09
9951.00,1.09
9950.00,1.09
9949.00,1.09
9948.00,1.09
9947.00,1.09
9946.00,1.08
9945.00,1.08
9944.00,1.08
9943.00,1.08
9942.00,1.08
9941.00,1.08
9940.00,1.08
9939.00,1.08
9938.00,1.07
9937.00,1.07
9936.00,1.07
9935.00,1.07
9934.00,1.07
9933.00,1.07
9932.00,1.07
9931.00,1.07
9930.00,1.07
9929.00,1.07
9928.00,1.07
9927.00,1.07
9926.00,1.07
9925.00,1.07
9924.00,1.07
9923.00,1.07
9922.00,1.07
9921.00,1.06
9920.00,1.06
9919.00,1.06
9918.00,1.06
9917.00,1.06
9916.00,1.06
9915.00,1.06
9914.00,1.06
9913.00,1.06
9912.00,1.07
9911.00,1.07
9910.00,1.07
9909.00,1.07
9908.00,1.07
9907.00,1.07
9906.00,1.07
9905.00,1.08
9904.00,1.08
9903.00,1.08
9902.00,1.08
9901.00,1.09
9900.00,1.09
9899.00,1.09
9898.00,1.09
9897.00,1.10
9896.00,1.10
9895.00,1.10
9894.00,1.10
9893.00,1.10
9892.00,1.10
9891.00,1.10
9890.00,1.10
9889.00,1.10
9888.00,1.09
9887.00,1.09
9886.00,1.08
9885.00,1.08
9884.00,1.07
9883.00,1.07
9882.00,1.07
9881.00,1.06
9880.00,1.06
9879.00,1.05
9878.00,1.05
9877.00,1.05
9876.00,1.04
9875.00,1.04
9874.00,1.04
9873.00,1.04
9872.00,1.05
9871.00,1.05
9870.00,1.05
9869.00,1.05
9868.00,1.05
9867.00,1.06
9866.00,1.06
9865.00,1.06
9864.00,1.06
9863.00,1.07
9862.00,1.07
9861.00,1.07
9860.00,1.07
9859.00,1.07
9858.00,1.07
9857.00,1.07
9856.00,1.07
9855.00,1.07
9854.00,1.07
9853.00,1.07
9852.00,1.07
9851.00,1.07
9850.00,1.07
9849.00,1.08
9848.00,1.08
9847.00,1.08
9846.00,1.08
9845.00,1.08
9844.00,1.08
9843.00,1.08
9842.00,1.08
9841.00,1.07
9840.00,1.07
9839.00,1.07
9838.00,1.07
9837.00,1.07
9836.00,1.07
9835.00,1.07
9834.00,1.06
9833.00,1.06
9832.00,1.06
9831.00,1.06
9830.00,1.05
9829.00,1.05
9828.00,1.05
9827.00,1.05
9826.00,1.05
9825.00,1.04
9824.00,1.04
9823.00,1.04
9822.00,1.04
9821.00,1.04
9820.00,1.04
9819.00,1.04
9818.00,1.04
9817.00,1.04
9816.00,1.04
9815.00,1.04
9814.00,1.04
9813.00,1.05
9812.00,1.05
9811.00,1.05
9810.00,1.05
9809.00,1.05
9808.00,1.05
9807.00,1.05
9806.00,1.05
9805.00,1.05
9804.00,1.05
9803.00,1.05
9802.00,1.06
9801.00,1.06
9800.00,1.06
9799.00,1.06
9798.00,1.06
9797.00,1.06
9796.00,1.06
9795.00,1.07
9794.00,1.07
9793.00,1.07
9792.00,1.07
9791.00,1.07
9790.00,1.07
9789.00,1.07
9788.00,1.07
9787.00,1.07
9786.00,1.07
9785.00,1.07
9784.00,1.07
9783.00,1.07
9782.00,1.07
9781.00,1.07
9780.00,1.07
9779.00,1.06
9778.00,1.06
9777.00,1.06
9776.00,1.06
9775.00,1.06
9774.00,1.06
9773.00,1.06
9772.00,1.06
9771.00,1.06
9770.00,1.06
9769.00,1.07
9768.00,1.07
9767.00,1.07
9766.00,1.07
9765.00,1.08
9764.00,1.08
9763.00,1.08
9762.00,1.09
9761.00,1.09
9760.00,1.09
9759.00,1.09
9758.00,1.09
9757.00,1.09
9756.00,1.09
9755.00,1.09
9754.00,1.09
9753.00,1.08
9752.00,1.08
9751.00,1.08
9750.00,1.08
9749.00,1.07
9748.00,1.07
9747.00,1.07
9746.00,1.07
9745.00,1.06
9744.00,1.06
9743.00,1.06
9742.00,1.06
9741.00,1.06
9740.00,1.06
9739.00,1.06
9738.00,1.06
9737.00,1.06
9736.00,1.06
9735.00,1.06
9734.00,1.06
9733.00,1.06
9732.00,1.06
9731.00,1.06
9730.00,1.06
9729.00,1.06
9728.00,1.05
9727.00,1.05
9726.00,1.05
9725.00,1.05
9724.00,1.05
9723.00,1.05
9722.00,1.05
9721.00,1.05
9720.00,1.05
9719.00,1.05
9718.00,1.05
9717.00,1.05
9716.00,1.05
9715.00,1.05
9714.00,1.05
9713.00,1.05
9712.00,1.05
9711.00,1.06
9710.00,1.06
9709.00,1.06
9708.00,1.06
9707.00,1.06
9706.00,1.06
9705.00,1.06
9704.00,1.06
9703.00,1.06
9702.00,1.06
9701.00,1.05
9700.00,1.05
9699.00,1.05
9698.00,1.05
9697.00,1.05
9696.00,1.05
9695.00,1.05
9694.00,1.05
9693.00,1.05
9692.00,1.05
9691.00,1.05
9690.00,1.05
9689.00,1.05
9688.00,1.05
9687.00,1.05
9686.00,1.06
9685.00,1.06
9684.00,1.06
9683.00,1.07
9682.00,1.07
9681.00,1.07
9680.00,1.08
9679.00,1.08
9678.00,1.08
9677.00,1.08
9676.00,1.08
9675.00,1.09
9674.00,1.09
9673.00,1.09
9672.00,1.09
9671.00,1.09
9670.00,1.08
9669.00,1.08
9668.00,1.08
9667.00,1.08
9666.00,1.08
9665.00,1.07
9664.00,1.07
9663.00,1.07
9662.00,1.07
9661.00,1.07
9660.00,1.07
9659.00,1.06
9658.00,1.06
9657.00,1.06
9656.00,1.06
9655.00,1.06
9654.00,1.06
9653.00,1.06
9652.00,1.06
9651.00,1.06
9650.00,1.06
9649.00,1.06
9648.00,1.06
9647.00,1.06
9646.00,1.06
9645.00,1.06
9644.00,1.06
9643.00,1.06
9642.00,1.06
9641.00,1.06
9640.00,1.06
9639.00,1.06
9638.00,1.07
9637.00,1.07
9636.00,1.07
9635.00,1.07
9634.00,1.07
9633.00,1.07
9632.00,1.07
9631.00,1.07
9630.00,1.07
9629.00,1.07
9628.00,1.07
9627.00,1.06
9626.00,1.06
9625.00,1.06
9624.00,1.06
9623.00,1.06
9622.00,1.06
9621.00,1.06
9620.00,1.07
9619.00,1.07
9618.00,1.07
9617.00,1.07
9616.00,1.07
9615.00,1.08
9614.00,1.08
9613.00,1.08
9612.00,1.08
9611.00,1.09
9610.00,1.09
9609.00,1.09
9608.00,1.09
9607.00,1.09
9606.00,1.09
9605.00,1.10
9604.00,1.10
9603.00,1.10
9602.00,1.10
9601.00,1.09
9600.00,1.09
9599.00,1.09
9598.00,1.09
9597.00,1.09
9596.00,1.09
9595.00,1.09
9594.00,1.08
9593.00,1.08
9592.00,1.08
9591.00,1.08
9590.00,1.08
9589.00,1.08
9588.00,1.08
9587.00,1.08
9586.00,1.08
9585.00,1.08
9584.00,1.08
9583.00,1.08
9582.00,1.08
9581.00,1.08
9580.00,1.08
9579.00,1.09
9578.00,1.09
9577.00,1.09
9576.00,1.09
9575.00,1.09
9574.00,1.09
9573.00,1.10
9572.00,1.10
9571.00,1.10
9570.00,1.10
9569.00,1.09
9568.00,1.09
9567.00,1.09
9566.00,1.09
9565.00,1.09
9564.00,1.09
9563.00,1.09
9562.00,1.08
9561.00,1.08
9560.00,1.08
9559.00,1.08
9558.00,1.08
9557.00,1.08
9556.00,1.08
9555.00,1.08
9554.00,1.08
9553.00,1.08
9552.00,1.08
9551.00,1.08
9550.00,1.08
9549.00,1.08
9548.00,1.08
9547.00,1.08
9546.00,1.09
9545.00,1.09
9544.00,1.09
9543.00,1.09
9542.00,1.09
9541.00,1.09
9540.00,1.09
9539.00,1.09
9538.00,1.09
9537.00,1.09
9536.00,1.09
9535.00,1.08
9534.00,1.08
9533.00,1.08
9532.00,1.08
9531.00,1.08
9530.00,1.07
9529.00,1.07
9528.00,1.07
9527.00,1.07
9526.00,1.07
9525.00,1.06
9524.00,1.06
9523.00,1.06
9522.00,1.06
9521.00,1.06
9520.00,1.06
9519.00,1.06
9518.00,1.06
9517.00,1.06
9516.00,1.06
9515.00,1.06
9514.00,1.06
9513.00,1.06
9512.00,1.06
9511.00,1.06
9510.00,1.06
9509.00,1.05
9508.00,1.05
9507.00,1.05
9506.00,1.05
9505.00,1.05
9504.00,1.05
9503.00,1.05
9502.00,1.05
9501.00,1.05
9500.00,1.05
9499.00,1.05
9498.00,1.06
9497.00,1.06
9496.00,1.06
9495.00,1.06
9494.00,1.07
9493.00,1.07
9492.00,1.07
9491.00,1.08
9490.00,1.08
9489.00,1.08
9488.00,1.08
9487.00,1.09
9486.00,1.09
9485.00,1.09
9484.00,1.09
9483.00,1.09
9482.00,1.09
9481.00,1.09
9480.00,1.09
9479.00,1.09
9478.00,1.09
9477.00,1.09
9476.00,1.09
9475.00,1.09
9474.00,1.08
9473.00,1.08
9472.00,1.08
9471.00,1.08
9470.00,1.08
9469.00,1.08
9468.00,1.08
9467.00,1.08
9466.00,1.08
9465.00,1.08
9464.00,1.08
9463.00,1.08
9462.00,1.08
9461.00,1.08
9460.00,1.08
9459.00,1.08
9458.00,1.08
9457.00,1.08
9456.00,1.08
9455.00,1.08
9454.00,1.08
9453.00,1.08
9452.00,1.08
9451.00,1.08
9450.00,1.08
9449.00,1.08
9448.00,1.08
9447.00,1.07
9446.00,1.07
9445.00,1.07
9444.00,1.07
9443.00,1.07
9442.00,1.07
9441.00,1.07
9440.00,1.06
9439.00,1.06
9438.00,1.06
9437.00,1.06
9436.00,1.06
9435.00,1.06
9434.00,1.06
9433.00,1.06
9432.00,1.06
9431.00,1.07
9430.00,1.07
9429.00,1.07
9428.00,1.07
9427.00,1.07
9426.00,1.07
9425.00,1.07
9424.00,1.07
9423.00,1.07
9422.00,1.07
9421.00,1.07
9420.00,1.07
9419.00,1.07
9418.00,1.07
9417.00,1.07
9416.00,1.07
9415.00,1.07
9414.00,1.07
9413.00,1.07
9412.00,1.07
9411.00,1.07
9410.00,1.07
9409.00,1.07
9408.00,1.07
9407.00,1.08
9406.00,1.08
9405.00,1.08
9404.00,1.08
9403.00,1.08
9402.00,1.08
9401.00,1.08
9400.00,1.08
9399.00,1.08
9398.00,1.09
9397.00,1.09
9396.00,1.09
9395.00,1.09
9394.00,1.09
9393.00,1.09
9392.00,1.09
9391.00,1.09
9390.00,1.09
9389.00,1.09
9388.00,1.09
9387.00,1.09
9386.00,1.09
9385.00,1.09
9384.00,1.09
9383.00,1.09
9382.00,1.09
9381.00,1.09
9380.00,1.08
9379.00,1.08
9378.00,1.08
9377.00,1.08
9376.00,1.08
9375.00,1.08
9374.00,1.08
9373.00,1.08
9372.00,1.08
9371.00,1.08
9370.00,1.08
9369.00,1.08
9368.00,1.08
9367.00,1.08
9366.00,1.08
9365.00,1.08
9364.00,1.08
9363.00,1.08
9362.00,1.08
9361.00,1.08
9360.00,1.08
9359.00,1.08
9358.00,1.08
9357.00,1.08
9356.00,1.08
9355.00,1.07
9354.00,1.07
9353.00,1.07
9352.00,1.07
9351.00,1.07
9350.00,1.07
9349.00,1.07
9348.00,1.07
9347.00,1.07
9346.00,1.07
9345.00,1.07
9344.00,1.07
9343.00,1.07
9342.00,1.07
9341.00,1.07
9340.00,1.07
9339.00,1.07
9338.00,1.07
9337.00,1.07
9336.00,1.07
9335.00,1.07
9334.00,1.07
9333.00,1.07
9332.00,1.07
9331.00,1.07
9330.00,1.07
9329.00,1.07
9328.00,1.07
9327.00,1.08
9326.00,1.08
9325.00,1.08
9324.00,1.08
9323.00,1.08
9322.00,1.08
9321.00,1.08
9320.00,1.07
9319.00,1.07
9318.00,1.07
9317.00,1.07
9316.00,1.07
9315.00,1.07
9314.00,1.07
9313.00,1.07
9312.00,1.07
9311.00,1.07
9310.00,1.07
9309.00,1.07
9308.00,1.07
9307.00,1.07
9306.00,1.07
9305.00,1.07
9304.00,1.07
9303.00,1.07
9302.00,1.08
9301.00,1.08
9300.00,1.08
9299.00,1.08
9298.00,1.08
9297.00,1.08
9296.00,1.08
9295.00,1.09
9294.00,1.09
9293.00,1.09
9292.00,1.09
9291.00,1.09
9290.00,1.09
9289.00,1.09
9288.00,1.08
9287.00,1.08
9286.00,1.08
9285.00,1.08
9284.00,1.08
9283.00,1.08
9282.00,1.08
9281.00,1.08
9280.00,1.08
9279.00,1.08
9278.00,1.08
9277.00,1.08
9276.00,1.08
9275.00,1.08
9274.00,1.08
9273.00,1.08
9272.00,1.08
9271.00,1.08
9270.00,1.08
9269.00,1.08
9268.00,1.08
9267.00,1.07
9266.00,1.07
9265.00,1.07
9264.00,1.07
9263.00,1.07
9262.00,1.07
9261.00,1.07
9260.00,1.07
9259.00,1.07
9258.00,1.08
9257.00,1.08
9256.00,1.08
9255.00,1.08
9254.00,1.08
9253.00,1.08
9252.00,1.08
9251.00,1.09
9250.00,1.09
9249.00,1.09
9248.00,1.09
9247.00,1.09
9246.00,1.09
9245.00,1.09
9244.00,1.09
9243.00,1.08
9242.00,1.08
9241.00,1.08
9240.00,1.08
9239.00,1.08
9238.00,1.08
9237.00,1.08
9236.00,1.08
9235.00,1.08
9234.00,1.08
9233.00,1.08
9232.00,1.08
9231.00,1.08
9230.00,1.08
9229.00,1.08
9228.00,1.08
9227.00,1.08
9226.00,1.08
9225.00,1.08
9224.00,1.08
9223.00,1.08
9222.00,1.08
9221.00,1.08
9220.00,1.08
9219.00,1.08
9218.00,1.08
9217.00,1.08
9216.00,1.08
9215.00,1.08
9214.00,1.08
9213.00,1.08
9212.00,1.08
9211.00,1.08
9210.00,1.08
9209.00,1.08
9208.00,1.08
9207.00,1.08
9206.00,1.08
9205.00,1.08
9204.00,1.08
9203.00,1.08
9202.00,1.08
9201.00,1.08
9200.00,1.08
9199.00,1.08
9198.00,1.08
9197.00,1.08
9196.00,1.08
9195.00,1.08
9194.00,1.08
9193.00,1.09
9192.00,1.09
9191.00,1.09
9190.00,1.09
9189.00,1.09
9188.00,1.09
9187.00,1.09
9186.00,1.09
9185.00,1.09
9184.00,1.09
9183.00,1.09
9182.00,1.09
9181.00,1.09
9180.00,1.09
9179.00,1.09
9178.00,1.09
9177.00,1.09
9176.00,1.09
9175.00,1.08
9174.00,1.08
9173.00,1.08
9172.00,1.08
9171.00,1.08
9170.00,1.08
9169.00,1.08
9168.00,1.08
9167.00,1.08
9166.00,1.08
9165.00,1.08
9164.00,1.08
9163.00,1.08
9162.00,1.08
9161.00,1.08
9160.00,1.08
9159.00,1.08
9158.00,1.08
9157.00,1.08
9156.00,1.07
9155.00,1.07
9154.00,1.07
9153.00,1.07
9152.00,1.07
9151.00,1.07
9150.00,1.07
9149.00,1.07
9148.00,1.07
9147.00,1.07
9146.00,1.07
9145.00,1.07
9144.00,1.07
9143.00,1.07
9142.00,1.07
9141.00,1.07
9140.00,1.07
9139.00,1.07
9138.00,1.07
9137.00,1.07
9136.00,1.07
9135.00,1.07
9134.00,1.07
9133.00,1.07
9132.00,1.08
9131.00,1.08
9130.00,1.08
9129.00,1.08
9128.00,1.08
9127.00,1.09
9126.00,1.09
9125.00,1.09
9124.00,1.09
9123.00,1.09
9122.00,1.09
9121.00,1.09
9120.00,1.09
9119.00,1.08
9118.00,1.08
9117.00,1.08
9116.00,1.08
9115.00,1.08
9114.00,1.08
9113.00,1.08
9112.00,1.07
9111.00,1.07
9110.00,1.07
9109.00,1.07
9108.00,1.07
9107.00,1.07
9106.00,1.07
9105.00,1.08
9104.00,1.08
9103.00,1.08
9102.00,1.08
9101.00,1.08
9100.00,1.08
9099.00,1.08
9098.00,1.08
9097.00,1.08
9096.00,1.08
9095.00,1.08
9094.00,1.08
9093.00,1.08
9092.00,1.08
9091.00,1.07
9090.00,1.07
9089.00,1.07
9088.00,1.07
9087.00,1.07
9086.00,1.07
9085.00,1.06
9084.00,1.06
9083.00,1.06
9082.00,1.06
9081.00,1.06
9080.00,1.06
9079.00,1.06
9078.00,1.06
9077.00,1.06
9076.00,1.06
9075.00,1.06
9074.00,1.06
9073.00,1.06
9072.00,1.06
9071.00,1.06
9070.00,1.06
9069.00,1.07
9068.00,1.07
9067.00,1.07
9066.00,1.07
9065.00,1.07
9064.00,1.07
9063.00,1.07
9062.00,1.07
9061.00,1.08
9060.00,1.08
9059.00,1.08
9058.00,1.08
9057.00,1.08
9056.00,1.08
9055.00,1.08
9054.00,1.08
9053.00,1.09
9052.00,1.09
9051.00,1.09
9050.00,1.09
9049.00,1.09
9048.00,1.09
9047.00,1.09
9046.00,1.09
9045.00,1.09
9044.00,1.09
9043.00,1.09
9042.00,1.09
9041.00,1.09
9040.00,1.09
9039.00,1.09
9038.00,1.09
9037.00,1.09
9036.00,1.09
9035.00,1.09
9034.00,1.09
9033.00,1.09
9032.00,1.09
9031.00,1.09
9030.00,1.09
9029.00,1.09
9028.00,1.09
9027.00,1.09
9026.00,1.09
9025.00,1.09
9024.00,1.09
9023.00,1.09
9022.00,1.09
9021.00,1.09
9020.00,1.09
9019.00,1.09
9018.00,1.09
9017.00,1.09
9016.00,1.09
9015.00,1.09
9014.00,1.09
9013.00,1.09
9012.00,1.09
9011.00,1.09
9010.00,1.09
9009.00,1.09
9008.00,1.09
9007.00,1.09
9006.00,1.09
9005.00,1.09
9004.00,1.09
9003.00,1.09
9002.00,1.08
9001.00,1.08
9000.00,1.08
8999.00,1.08
8998.00,1.08
8997.00,1.08
8996.00,1.08
8995.00,1.08
8994.00,1.08
8993.00,1.08
8992.00,1.08
8991.00,1.07
8990.00,1.07
8989.00,1.07
8988.00,1.07
8987.00,1.07
8986.00,1.07
8985.00,1.07
8984.00,1.07
8983.00,1.07
8982.00,1.07
8981.00,1.07
8980.00,1.07
8979.00,1.07
8978.00,1.07
8977.00,1.07
8976.00,1.07
8975.00,1.07
8974.00,1.08
8973.00,1.08
8972.00,1.08
8971.00,1.08
8970.00,1.08
8969.00,1.08
8968.00,1.08
8967.00,1.08
8966.00,1.09
8965.00,1.09
8964.00,1.09
8963.00,1.09
8962.00,1.08
8961.00,1.08
8960.00,1.08
8959.00,1.08
8958.00,1.08
8957.00,1.08
8956.00,1.08
8955.00,1.08
8954.00,1.08
8953.00,1.08
8952.00,1.08
8951.00,1.08
8950.00,1.08
8949.00,1.08
8948.00,1.08
8947.00,1.08
8946.00,1.08
8945.00,1.08
8944.00,1.08
8943.00,1.08
8942.00,1.08
8941.00,1.08
8940.00,1.08
8939.00,1.08
8938.00,1.08
8937.00,1.08
8936.00,1.08
8935.00,1.08
8934.00,1.08
8933.00,1.08
8932.00,1.08
8931.00,1.08
8930.00,1.08
8929.00,1.08
8928.00,1.08
8927.00,1.08
8926.00,1.08
8925.00,1.08
8924.00,1.07
8923.00,1.07
8922.00,1.07
8921.00,1.07
8920.00,1.07
8919.00,1.07
8918.00,1.07
8917.00,1.07
8916.00,1.07
8915.00,1.07
8914.00,1.07
8913.00,1.08
8912.00,1.08
8911.00,1.08
8910.00,1.08
8909.00,1.08
8908.00,1.08
8907.00,1.08
8906.00,1.09
8905.00,1.09
8904.00,1.09
8903.00,1.09
8902.00,1.09
8901.00,1.09
8900.00,1.10
8899.00,1.10
8898.00,1.10
8897.00,1.10
8896.00,1.10
8895.00,1.10
8894.00,1.10
8893.00,1.10
8892.00,1.10
8891.00,1.10
8890.00,1.10
8889.00,1.10
8888.00,1.10
8887.00,1.10
8886.00,1.10
8885.00,1.10
8884.00,1.09
8883.00,1.09
8882.00,1.09
8881.00,1.09
8880.00,1.09
8879.00,1.08
8878.00,1.08
8877.00,1.08
8876.00,1.08
8875.00,1.07
8874.00,1.07
8873.00,1.07
8872.00,1.07
8871.00,1.07
8870.00,1.07
8869.00,1.07
8868.00,1.07
8867.00,1.07
8866.00,1.07
8865.00,1.07
8864.00,1.07
8863.00,1.07
8862.00,1.07
8861.00,1.07
8860.00,1.07
8859.00,1.07
8858.00,1.08
8857.00,1.08
8856.00,1.08
8855.00,1.08
8854.00,1.08
8853.00,1.08
8852.00,1.08
8851.00,1.08
8850.00,1.08
8849.00,1.08
8848.00,1.08
8847.00,1.08
8846.00,1.08
8845.00,1.08
8844.00,1.08
8843.00,1.08
8842.00,1.08
8841.00,1.08
8840.00,1.08
8839.00,1.08
8838.00,1.08
8837.00,1.08
8836.00,1.08
8835.00,1.07
8834.00,1.07
8833.00,1.07
8832.00,1.07
8831.00,1.07
8830.00,1.07
8829.00,1.07
8828.00,1.07
8827.00,1.07
8826.00,1.06
8825.00,1.06
8824.00,1.06
8823.00,1.06
8822.00,1.06
8821.00,1.06
8820.00,1.06
8819.00,1.06
8818.00,1.06
8817.00,1.06
8816.00,1.06
8815.00,1.06
8814.00,1.07
8813.00,1.07
8812.00,1.07
8811.00,1.07
8810.00,1.07
8809.00,1.07
8808.00,1.07
8807.00,1.07
8806.00,1.07
8805.00,1.07
8804.00,1.07
8803.00,1.07
8802.00,1.07
8801.00,1.07
8800.00,1.07
8799.00,1.07
8798.00,1.07
8797.00,1.07
8796.00,1.07
8795.00,1.07
8794.00,1.07
8793.00,1.07
8792.00,1.07
8791.00,1.07
8790.00,1.07
8789.00,1.07
8788.00,1.07
8787.00,1.07
8786.00,1.07
8785.00,1.07
8784.00,1.07
8783.00,1.07
8782.00,1.07
8781.00,1.07
8780.00,1.07
8779.00,1.07
8778.00,1.07
8777.00,1.07
8776.00,1.07
8775.00,1.07
8774.00,1.07
8773.00,1.07
8772.00,1.07
8771.00,1.07
8770.00,1.07
8769.00,1.07
8768.00,1.07
8767.00,1.07
8766.00,1.07
8765.00,1.07
8764.00,1.06
8763.00,1.06
8762.00,1.06
8761.00,1.06
8760.00,1.06
8759.00,1.06
8758.00,1.06
8757.00,1.05
8756.00,1.05
8755.00,1.05
8754.00,1.05
8753.00,1.05
8752.00,1.05
8751.00,1.05
8750.00,1.05
8749.00,1.05
8748.00,1.05
8747.00,1.05
8746.00,1.05
8745.00,1.05
8744.00,1.04
8743.00,1.04
8742.00,1.04
8741.00,1.04
8740.00,1.04
8739.00,1.04
8738.00,1.04
8737.00,1.04
8736.00,1.04
8735.00,1.04
8734.00,1.04
8733.00,1.04
8732.00,1.04
8731.00,1.04
8730.00,1.04
8729.00,1.04
8728.00,1.04
8727.00,1.04
8726.00,1.04
8725.00,1.04
8724.00,1.04
8723.00,1.04
8722.00,1.04
8721.00,1.04
8720.00,1.04
8719.00,1.04
8718.00,1.05
8717.00,1.05
8716.00,1.05
8715.00,1.05
8714.00,1.05
8713.00,1.05
8712.00,1.05
8711.00,1.05
8710.00,1.06
8709.00,1.06
8708.00,1.06
8707.00,1.06
8706.00,1.06
8705.00,1.06
8704.00,1.06
8703.00,1.06
8702.00,1.06
8701.00,1.06
8700.00,1.06
8699.00,1.06
8698.00,1.06
8697.00,1.06
8696.00,1.06
8695.00,1.06
8694.00,1.06
8693.00,1.06
8692.00,1.06
8691.00,1.06
8690.00,1.06
8689.00,1.06
8688.00,1.06
8687.00,1.06
8686.00,1.06
8685.00,1.06
8684.00,1.06
8683.00,1.06
8682.00,1.06
8681.00,1.06
8680.00,1.06
8679.00,1.06
8678.00,1.06
8677.00,1.06
8676.00,1.05
8675.00,1.05
8674.00,1.05
8673.00,1.05
8672.00,1.05
8671.00,1.05
8670.00,1.05
8669.00,1.05
8668.00,1.05
8667.00,1.05
8666.00,1.05
8665.00,1.05
8664.00,1.05
8663.00,1.05
8662.00,1.05
8661.00,1.05
8660.00,1.05
8659.00,1.05
8658.00,1.05
8657.00,1.05
8656.00,1.05
8655.00,1.05
8654.00,1.05
8653.00,1.05
8652.00,1.05
8651.00,1.05
8650.00,1.05
8649.00,1.05
8648.00,1.05
8647.00,1.05
8646.00,1.05
8645.00,1.05
8644.00,1.05
8643.00,1.05
8642.00,1.05
8641.00,1.05
8640.00,1.05
8639.00,1.05
8638.00,1.05
8637.00,1.05
8636.00,1.05
8635.00,1.05
8634.00,1.05
8633.00,1.05
8632.00,1.05
8631.00,1.05
8630.00,1.05
8629.00,1.05
8628.00,1.05
8627.00,1.05
8626.00,1.04
8625.00,1.04
8624.00,1.04
8623.00,1.04
8622.00,1.04
8621.00,1.04
8620.00,1.04
8619.00,1.04
8618.00,1.04
8617.00,1.04
8616.00,1.04
8615.00,1.04
8614.00,1.04
8613.00,1.04
8612.00,1.04
8611.00,1.04
8610.00,1.04
8609.00,1.04
8608.00,1.04
8607.00,1.04
8606.00,1.04
8605.00,1.03
8604.00,1.03
8603.00,1.03
8602.00,1.03
8601.00,1.03
8600.00,1.03
8599.00,1.03
8598.00,1.03
8597.00,1.03
8596.00,1.03
8595.00,1.03
8594.00,1.03
8593.00,1.03
8592.00,1.03
8591.00,1.03
8590.00,1.03
8589.00,1.03
8588.00,1.03
8587.00,1.03
8586.00,1.03
8585.00,1.03
8584.00,1.03
8583.00,1.03
8582.00,1.03
8581.00,1.03
8580.00,1.03
8579.00,1.03
8578.00,1.03
8577.00,1.03
8576.00,1.03
8575.00,1.03
8574.00,1.03
8573.00,1.03
8572.00,1.03
8571.00,1.03
8570.00,1.03
8569.00,1.03
8568.00,1.03
8567.00,1.03
8566.00,1.03
8565.00,1.03
8564.00,1.03
8563.00,1.03
8562.00,1.03
8561.00,1.03
8560.00,1.03
8559.00,1.03
8558.00,1.03
8557.00,1.03
8556.00,1.03
8555.00,1.03
8554.00,1.03
8553.00,1.04
8552.00,1.04
8551.00,1.04
8550.00,1.04
8549.00,1.04
8548.00,1.03
8547.00,1.03
8546.00,1.03
8545.00,1.03
8544.00,1.03
8543.00,1.03
8542.00,1.03
8541.00,1.03
8540.00,1.03
8539.00,1.03
8538.00,1.03
8537.00,1.03
8536.00,1.03
8535.00,1.03
8534.00,1.03
8533.00,1.03
8532.00,1.03
8531.00,1.03
8530.00,1.04
8529.00,1.04
8528.00,1.04
8527.00,1.04
8526.00,1.04
8525.00,1.04
8524.00,1.04
8523.00,1.04
8522.00,1.03
8521.00,1.03
8520.00,1.03
8519.00,1.03
8518.00,1.03
8517.00,1.03
8516.00,1.03
8515.00,1.03
8514.00,1.03
8513.00,1.02
8512.00,1.02
8511.00,1.02
8510.00,1.02
8509.00,1.02
8508.00,1.02
8507.00,1.01
8506.00,1.01
8505.00,1.01
8504.00,1.01
8503.00,1.01
8502.00,1.01
8501.00,1.01
8500.00,1.01
8499.00,1.01
8498.00,1.01
8497.00,1.01
8496.00,1.01
8495.00,1.01
8494.00,1.01
8493.00,1.01
8492.00,1.01
8491.00,1.01
8490.00,1.01
8489.00,1.01
8488.00,1.01
8487.00,1.01
8486.00,1.01
8485.00,1.01
8484.00,1.01
8483.00,1.01
8482.00,1.01
8481.00,1.01
8480.00,1.01
8479.00,1.01
8478.00,1.01
8477.00,1.01
8476.00,1.01
8475.00,1.01
8474.00,1.01
8473.00,1.01
8472.00,1.01
8471.00,1.01
8470.00,1.01
8469.00,1.01
8468.00,1.00
8467.00,1.00
8466.00,1.00
8465.00,1.00
8464.00,1.00
8463.00,1.00
8462.00,1.00
8461.00,1.00
8460.00,1.00
8459.00,1.00
8458.00,1.00
8457.00,1.00
8456.00,1.00
8455.00,1.00
8454.00,1.00
8453.00,1.00
8452.00,1.00
8451.00,1.00
8450.00,1.00
8449.00,1.00
8448.00,0.99
8447.00,0.99
8446.00,0.99
8445.00,0.99
8444.00,0.99
8443.00,0.99
8442.00,0.99
8441.00,0.99
8440.00,0.99
8439.00,0.99
8438.00,0.99
8437.00,0.99
8436.00,0.99
8435.00,0.99
8434.00,0.99
8433.00,0.99
8432.00,1.00
8431.00,1.00
8430.00,1.00
8429.00,1.00
8428.00,1.00
8427.00,1.00
8426.00,1.00
8425.00,1.00
8424.00,1.00
8423.00,1.00
8422.00,1.00
8421.00,1.00
8420.00,1.00
8419.00,1.00
8418.00,1.00
8417.00,1.00
8416.00,1.00
8415.00,1.00
8414.00,1.00
8413.00,1.00
8412.00,1.00
8411.00,1.00
8410.00,1.00
8409.00,1.00
8408.00,1.00
8407.00,1.01
8406.00,1.01
8405.00,1.01
8404.00,1.01
8403.00,1.01
8402.00,1.01
8401.00,1.01
8400.00,1.01
8399.00,1.01
8398.00,1.01
8397.00,1.01
8396.00,1.01
8395.00,1.01
8394.00,1.01
8393.00,1.01
8392.00,1.01
8391.00,1.01
8390.00,1.01
8389.00,1.01
8388.00,1.01
8387.00,1.01
8386.00,1.01
8385.00,1.01
8384.00,1.01
8383.00,1.01
8382.00,1.01
8381.00,1.01
8380.00,1.01
8379.00,1.01
8378.00,1.01
8377.00,1.01
8376.00,1.01
8375.00,1.02
8374.00,1.02
8373.00,1.02
8372.00,1.02
8371.00,1.02
8370.00,1.02
8369.00,1.02
8368.00,1.02
8367.00,1.02
8366.00,1.02
8365.00,1.02
8364.00,1.02
8363.00,1.02
8362.00,1.02
8361.00,1.02
8360.00,1.02
8359.00,1.02
8358.00,1.02
8357.00,1.02
8356.00,1.02
8355.00,1.02
8354.00,1.02
8353.00,1.02
8352.00,1.02
8351.00,1.02
8350.00,1.02
8349.00,1.02
8348.00,1.02
8347.00,1.02
8346.00,1.02
8345.00,1.02
8344.00,1.02
8343.00,1.02
8342.00,1.02
8341.00,1.03
8340.00,1.03
8339.00,1.03
8338.00,1.03
8337.00,1.03
8336.00,1.03
8335.00,1.03
8334.00,1.03
8333.00,1.03
8332.00,1.04
8331.00,1.04
8330.00,1.04
8329.00,1.04
8328.00,1.04
8327.00,1.04
8326.00,1.04
8325.00,1.04
8324.00,1.04
8323.00,1.04
8322.00,1.04
8321.00,1.04
8320.00,1.04
8319.00,1.04
8318.00,1.04
8317.00,1.04
8316.00,1.04
8315.00,1.04
8314.00,1.04
8313.00,1.03
8312.00,1.03
8311.00,1.03
8310.00,1.03
8309.00,1.03
8308.00,1.03
8307.00,1.03
8306.00,1.03
8305.00,1.03
8304.00,1.02
8303.00,1.02
8302.00,1.02
8301.00,1.02
8300.00,1.02
8299.00,1.02
8298.00,1.02
8297.00,1.02
8296.00,1.02
8295.00,1.02
8294.00,1.02
8293.00,1.02
8292.00,1.02
8291.00,1.02
8290.00,1.02
8289.00,1.02
8288.00,1.02
8287.00,1.02
8286.00,1.02
8285.00,1.02
8284.00,1.02
8283.00,1.02
8282.00,1.02
8281.00,1.02
8280.00,1.02
8279.00,1.02
8278.00,1.02
8277.00,1.02
8276.00,1.02
8275.00,1.02
8274.00,1.02
8273.00,1.03
8272.00,1.03
8271.00,1.03
8270.00,1.03
8269.00,1.03
8268.00,1.03
8267.00,1.03
8266.00,1.03
8265.00,1.03
8264.00,1.03
8263.00,1.03
8262.00,1.03
8261.00,1.03
8260.00,1.03
8259.00,1.03
8258.00,1.03
8257.00,1.04
8256.00,1.04
8255.00,1.04
8254.00,1.04
8253.00,1.04
8252.00,1.04
8251.00,1.04
8250.00,1.04
8249.00,1.04
8248.00,1.04
8247.00,1.04
8246.00,1.04
8245.00,1.04
8244.00,1.04
8243.00,1.04
8242.00,1.04
8241.00,1.04
8240.00,1.04
8239.00,1.03
8238.00,1.03
8237.00,1.03
8236.00,1.03
8235.00,1.03
8234.00,1.03
8233.00,1.03
8232.00,1.03
8231.00,1.03
8230.00,1.03
8229.00,1.03
8228.00,1.03
8227.00,1.03
8226.00,1.03
8225.00,1.03
8224.00,1.03
8223.00,1.03
8222.00,1.03
8221.00,1.03
8220.00,1.03
8219.00,1.03
8218.00,1.03
8217.00,1.03
8216.00,1.03
8215.00,1.03
8214.00,1.03
8213.00,1.03
8212.00,1.03
8211.00,1.03
8210.00,1.03
8209.00,1.03
8208.00,1.03
8207.00,1.03
8206.00,1.03
8205.00,1.03
8204.00,1.03
8203.00,1.03
8202.00,1.03
8201.00,1.03
8200.00,1.03
8199.00,1.03
8198.00,1.03
8197.00,1.03
8196.00,1.04
8195.00,1.04
8194.00,1.04
8193.00,1.04
8192.00,1.04
8191.00,1.04
8190.00,1.04
8189.00,1.04
8188.00,1.04
8187.00,1.04
8186.00,1.04
8185.00,1.04
8184.00,1.04
8183.00,1.04
8182.00,1.04
8181.00,1.04
8180.00,1.04
8179.00,1.04
8178.00,1.04
8177.00,1.04
8176.00,1.04
8175.00,1.04
8174.00,1.04
8173.00,1.04
8172.00,1.05
8171.00,1.05
8170.00,1.05
8169.00,1.05
8168.00,1.05
8167.00,1.05
8166.00,1.05
8165.00,1.05
8164.00,1.05
8163.00,1.05
8162.00,1.05
8161.00,1.05
8160.00,1.05
8159.00,1.05
8158.00,1.05
8157.00,1.05
8156.00,1.05
8155.00,1.05
8154.00,1.05
8153.00,1.06
8152.00,1.06
8151.00,1.06
8150.00,1.06
8149.00,1.06
8148.00,1.06
8147.00,1.06
8146.00,1.06
8145.00,1.06
8144.00,1.06
8143.00,1.06
8142.00,1.06
8141.00,1.07
8140.00,1.07
8139.00,1.07
8138.00,1.07
8137.00,1.07
8136.00,1.06
8135.00,1.06
8134.00,1.06
8133.00,1.06
8132.00,1.06
8131.00,1.06
8130.00,1.06
8129.00,1.06
8128.00,1.06
8127.00,1.06
8126.00,1.06
8125.00,1.06
8124.00,1.06
8123.00,1.06
8122.00,1.06
8121.00,1.06
8120.00,1.06
8119.00,1.06
8118.00,1.06
8117.00,1.06
8116.00,1.06
8115.00,1.06
8114.00,1.06
8113.00,1.06
8112.00,1.06
8111.00,1.06
8110.00,1.06
8109.00,1.07
8108.00,1.07
8107.00,1.07
8106.00,1.07
8105.00,1.07
8104.00,1.07
8103.00,1.07
8102.00,1.07
8101.00,1.07
8100.00,1.07
8099.00,1.07
8098.00,1.07
8097.00,1.07
8096.00,1.07
8095.00,1.06
8094.00,1.06
8093.00,1.06
8092.00,1.06
8091.00,1.06
8090.00,1.06
8089.00,1.06
8088.00,1.06
8087.00,1.06
8086.00,1.06
8085.00,1.06
8084.00,1.06
8083.00,1.06
8082.00,1.06
8081.00,1.06
8080.00,1.06
8079.00,1.06
8078.00,1.06
8077.00,1.06
8076.00,1.06
8075.00,1.06
8074.00,1.06
8073.00,1.06
8072.00,1.06
8071.00,1.06
8070.00,1.06
8069.00,1.06
8068.00,1.06
8067.00,1.06
8066.00,1.06
8065.00,1.06
8064.00,1.06
8063.00,1.06
8062.00,1.06
8061.00,1.06
8060.00,1.06
8059.00,1.06
8058.00,1.06
8057.00,1.06
8056.00,1.06
8055.00,1.06
8054.00,1.06
8053.00,1.06
8052.00,1.07
8051.00,1.07
8050.00,1.07
8049.00,1.07
8048.00,1.07
8047.00,1.07
8046.00,1.07
8045.00,1.07
8044.00,1.07
8043.00,1.07
8042.00,1.07
8041.00,1.07
8040.00,1.07
8039.00,1.07
8038.00,1.07
8037.00,1.07
8036.00,1.07
8035.00,1.07
8034.00,1.07
8033.00,1.07
8032.00,1.07
8031.00,1.07
8030.00,1.07
8029.00,1.07
8028.00,1.07
8027.00,1.07
8026.00,1.07
8025.00,1.07
8024.00,1.06
8023.00,1.06
8022.00,1.06
8021.00,1.06
8020.00,1.06
8019.00,1.06
8018.00,1.06
8017.00,1.06
8016.00,1.06
8015.00,1.06
8014.00,1.07
8013.00,1.07
8012.00,1.07
8011.00,1.07
8010.00,1.07
8009.00,1.07
8008.00,1.07
8007.00,1.07
8006.00,1.07
8005.00,1.07
8004.00,1.07
8003.00,1.07
8002.00,1.07
8001.00,1.07
8000.00,1.07
7999.00,1.08
7998.00,1.08
7997.00,1.08
7996.00,1.08
7995.00,1.08
7994.00,1.07
7993.00,1.07
7992.00,1.07
7991.00,1.07
7990.00,1.07
7989.00,1.07
7988.00,1.07
7987.00,1.07
7986.00,1.07
7985.00,1.07
7984.00,1.07
7983.00,1.07
7982.00,1.07
7981.00,1.07
7980.00,1.07
7979.00,1.07
7978.00,1.07
7977.00,1.07
7976.00,1.07
7975.00,1.07
7974.00,1.07
7973.00,1.07
7972.00,1.07
7971.00,1.07
7970.00,1.07
7969.00,1.07
7968.00,1.07
7967.00,1.07
7966.00,1.07
7965.00,1.07
7964.00,1.07
7963.00,1.07
7962.00,1.07
7961.00,1.07
7960.00,1.07
7959.00,1.07
7958.00,1.08
7957.00,1.08
7956.00,1.08
7955.00,1.08
7954.00,1.08
7953.00,1.08
7952.00,1.08
7951.00,1.08
7950.00,1.08
7949.00,1.08
7948.00,1.08
7947.00,1.07
7946.00,1.07
7945.00,1.07
7944.00,1.07
7943.00,1.07
7942.00,1.07
7941.00,1.07
7940.00,1.07
7939.00,1.07
7938.00,1.07
7937.00,1.07
7936.00,1.07
7935.00,1.06
7934.00,1.06
7933.00,1.06
7932.00,1.06
7931.00,1.06
7930.00,1.07
7929.00,1.07
7928.00,1.07
7927.00,1.07
7926.00,1.07
7925.00,1.07
7924.00,1.07
7923.00,1.07
7922.00,1.07
7921.00,1.07
7920.00,1.07
7919.00,1.07
7918.00,1.07
7917.00,1.07
7916.00,1.07
7915.00,1.07
7914.00,1.07
7913.00,1.07
7912.00,1.07
7911.00,1.07
7910.00,1.07
7909.00,1.08
7908.00,1.08
7907.00,1.08
7906.00,1.08
7905.00,1.08
7904.00,1.08
7903.00,1.08
7902.00,1.08
7901.00,1.08
7900.00,1.08
7899.00,1.08
7898.00,1.08
7897.00,1.08
7896.00,1.08
7895.00,1.08
7894.00,1.08
7893.00,1.08
7892.00,1.08
7891.00,1.08
7890.00,1.08
7889.00,1.08
7888.00,1.08
7887.00,1.08
7886.00,1.08
7885.00,1.08
7884.00,1.08
7883.00,1.08
7882.00,1.08
7881.00,1.08
7880.00,1.08
7879.00,1.08
7878.00,1.08
7877.00,1.08
7876.00,1.08
7875.00,1.08
7874.00,1.08
7873.00,1.08
7872.00,1.08
7871.00,1.08
7870.00,1.08
7869.00,1.08
7868.00,1.08
7867.00,1.08
7866.00,1.08
7865.00,1.08
7864.00,1.08
7863.00,1.08
7862.00,1.08
7861.00,1.08
7860.00,1.08
7859.00,1.08
7858.00,1.08
7857.00,1.08
7856.00,1.08
7855.00,1.08
7854.00,1.08
7853.00,1.08
7852.00,1.08
7851.00,1.08
7850.00,1.08
7849.00,1.08
7848.00,1.09
7847.00,1.09
7846.00,1.09
7845.00,1.09
7844.00,1.09
7843.00,1.09
7842.00,1.09
7841.00,1.09
7840.00,1.09
7839.00,1.09
7838.00,1.09
7837.00,1.09
7836.00,1.09
7835.00,1.09
7834.00,1.09
7833.00,1.09
7832.00,1.09
7831.00,1.08
7830.00,1.08
7829.00,1.08
7828.00,1.08
7827.00,1.08
7826.00,1.08
7825.00,1.08
7824.00,1.08
7823.00,1.08
7822.00,1.08
7821.00,1.08
7820.00,1.08
7819.00,1.08
7818.00,1.08
7817.00,1.08
7816.00,1.08
7815.00,1.08
7814.00,1.08
7813.00,1.08
7812.00,1.08
7811.00,1.08
7810.00,1.08
7809.00,1.08
7808.00,1.08
7807.00,1.08
7806.00,1.08
7805.00,1.08
7804.00,1.08
7803.00,1.08
7802.00,1.08
7801.00,1.08
7800.00,1.08
7799.00,1.08
7798.00,1.08
7797.00,1.08
7796.00,1.09
7795.00,1.09
7794.00,1.09
7793.00,1.09
7792.00,1.09
7791.00,1.09
7790.00,1.09
7789.00,1.09
7788.00,1.09
7787.00,1.09
7786.00,1.09
7785.00,1.09
7784.00,1.09
7783.00,1.09
7782.00,1.09
7781.00,1.09
7780.00,1.09
7779.00,1.09
7778.00,1.09
7777.00,1.09
7776.00,1.09
7775.00,1.09
7774.00,1.09
7773.00,1.09
7772.00,1.09
7771.00,1.09
7770.00,1.09
7769.00,1.09
7768.00,1.09
7767.00,1.09
7766.00,1.09
7765.00,1.09
7764.00,1.09
7763.00,1.09
7762.00,1.09
7761.00,1.09
7760.00,1.09
7759.00,1.09
7758.00,1.09
7757.00,1.10
7756.00,1.10
7755.00,1.10
7754.00,1.10
7753.00,1.10
7752.00,1.10
7751.00,1.10
7750.00,1.10
7749.00,1.10
7748.00,1.10
7747.00,1.10
7746.00,1.10
7745.00,1.10
7744.00,1.10
7743.00,1.10
7742.00,1.10
7741.00,1.10
7740.00,1.10
7739.00,1.10
7738.00,1.10
7737.00,1.10
7736.00,1.10
7735.00,1.10
7734.00,1.10
7733.00,1.10
7732.00,1.10
7731.00,1.10
7730.00,1.10
7729.00,1.09
7728.00,1.09
7727.00,1.09
7726.00,1.09
7725.00,1.09
7724.00,1.09
7723.00,1.09
7722.00,1.09
7721.00,1.09
7720.00,1.09
7719.00,1.09
7718.00,1.09
7717.00,1.09
7716.00,1.09
7715.00,1.09
7714.00,1.09
7713.00,1.09
7712.00,1.09
7711.00,1.09
7710.00,1.09
7709.00,1.09
7708.00,1.09
7707.00,1.09
7706.00,1.09
7705.00,1.09
7704.00,1.09
7703.00,1.09
7702.00,1.09
7701.00,1.09
7700.00,1.09
7699.00,1.09
7698.00,1.09
7697.00,1.09
7696.00,1.09
7695.00,1.09
7694.00,1.09
7693.00,1.09
7692.00,1.09
7691.00,1.10
7690.00,1.10
7689.00,1.10
7688.00,1.10
7687.00,1.10
7686.00,1.10
7685.00,1.10
7684.00,1.10
7683.00,1.10
7682.00,1.10
7681.00,1.10
7680.00,1.10
7679.00,1.10
7678.00,1.10
7677.00,1.10
7676.00,1.10
7675.00,1.10
7674.00,1.10
7673.00,1.10
7672.00,1.10
7671.00,1.10
7670.00,1.10
7669.00,1.10
7668.00,1.10
7667.00,1.10
7666.00,1.10
7665.00,1.10
7664.00,1.10
7663.00,1.10
7662.00,1.10
7661.00,1.10
7660.00,1.10
7659.00,1.10
7658.00,1.10
7657.00,1.10
7656.00,1.10
7655.00,1.10
7654.00,1.10
7653.00,1.09
7652.00,1.09
7651.00,1.09
7650.00,1.09
7649.00,1.09
7648.00,1.09
7647.00,1.09
7646.00,1.09
7645.00,1.09
7644.00,1.09
7643.00,1.09
7642.00,1.09
7641.00,1.09
7640.00,1.09
7639.00,1.10
7638.00,1.10
7637.00,1.10
7636.00,1.10
7635.00,1.10
7634.00,1.10
7633.00,1.10
7632.00,1.10
7631.00,1.10
7630.00,1.10
7629.00,1.10
7628.00,1.10
7627.00,1.10
7626.00,1.10
7625.00,1.10
7624.00,1.10
7623.00,1.10
7622.00,1.10
7621.00,1.10
7620.00,1.10
7619.00,1.10
7618.00,1.10
7617.00,1.10
7616.00,1.10
7615.00,1.10
7614.00,1.10
7613.00,1.10
7612.00,1.10
7611.00,1.10
7610.00,1.10
7609.00,1.10
7608.00,1.10
7607.00,1.10
7606.00,1.10
7605.00,1.10
7604.00,1.10
7603.00,1.10
7602.00,1.10
7601.00,1.10
7600.00,1.10
7599.00,1.10
7598.00,1.10
7597.00,1.10
7596.00,1.10
7595.00,1.10
7594.00,1.10
7593.00,1.10
7592.00,1.10
7591.00,1.09
7590.00,1.09
7589.00,1.09
7588.00,1.09
7587.00,1.09
7586.00,1.09
7585.00,1.09
7584.00,1.09
7583.00,1.09
7582.00,1.09
7581.00,1.09
7580.00,1.09
7579.00,1.09
7578.00,1.09
7577.00,1.09
7576.00,1.09
7575.00,1.09
7574.00,1.09
7573.00,1.09
7572.00,1.09
7571.00,1.09
7570.00,1.09
7569.00,1.09
7568.00,1.09
7567.00,1.09
7566.00,1.09
7565.00,1.09
7564.00,1.09
7563.00,1.09
7562.00,1.09
7561.00,1.09
7560.00,1.09
7559.00,1.09
7558.00,1.09
7557.00,1.09
7556.00,1.09
7555.00,1.09
7554.00,1.10
7553.00,1.10
7552.00,1.10
7551.00,1.10
7550.00,1.10
7549.00,1.10
7548.00,1.10
7547.00,1.10
7546.00,1.10
7545.00,1.10
7544.00,1.10
7543.00,1.10
7542.00,1.10
7541.00,1.10
7540.00,1.10
7539.00,1.10
7538.00,1.10
7537.00,1.10
7536.00,1.10
7535.00,1.10
7534.00,1.10
7533.00,1.09
7532.00,1.09
7531.00,1.09
7530.00,1.09
7529.00,1.09
7528.00,1.09
7527.00,1.09
7526.00,1.09
7525.00,1.09
7524.00,1.09
7523.00,1.09
7522.00,1.09
7521.00,1.09
7520.00,1.09
7519.00,1.09
7518.00,1.09
7517.00,1.09
7516.00,1.09
7515.00,1.09
7514.00,1.09
7513.00,1.09
7512.00,1.09
7511.00,1.09
7510.00,1.09
7509.00,1.09
7508.00,1.09
7507.00,1.09
7506.00,1.09
7505.00,1.09
7504.00,1.09
7503.00,1.09
7502.00,1.09
7501.00,1.09
7500.00,1.09
7499.00,1.09
7498.00,1.09
7497.00,1.09
7496.00,1.09
7495.00,1.09
7494.00,1.09
7493.00,1.09
7492.00,1.09
7491.00,1.09
7490.00,1.08
7489.00,1.08
7488.00,1.08
7487.00,1.08
7486.00,1.08
7485.00,1.08
7484.00,1.08
7483.00,1.08
7482.00,1.08
7481.00,1.08
7480.00,1.08
7479.00,1.08
7478.00,1.08
7477.00,1.08
7476.00,1.08
7475.00,1.08
7474.00,1.08
7473.00,1.07
7472.00,1.07
7471.00,1.07
7470.00,1.07
7469.00,1.08
7468.00,1.08
7467.00,1.08
7466.00,1.08
7465.00,1.08
7464.00,1.08
7463.00,1.08
7462.00,1.08
7461.00,1.08
7460.00,1.08
7459.00,1.08
7458.00,1.08
7457.00,1.08
7456.00,1.08
7455.00,1.08
7454.00,1.08
7453.00,1.08
7452.00,1.08
7451.00,1.08
7450.00,1.08
7449.00,1.08
7448.00,1.08
7447.00,1.08
7446.00,1.08
7445.00,1.08
7444.00,1.08
7443.00,1.08
7442.00,1.08
7441.00,1.08
7440.00,1.08
7439.00,1.08
7438.00,1.08
7437.00,1.08
7436.00,1.08
7435.00,1.08
7434.00,1.07
7433.00,1.07
7432.00,1.07
7431.00,1.07
7430.00,1.07
7429.00,1.07
7428.00,1.07
7427.00,1.07
7426.00,1.07
7425.00,1.07
7424.00,1.07
7423.00,1.07
7422.00,1.06
7421.00,1.06
7420.00,1.06
7419.00,1.06
7418.00,1.06
7417.00,1.06
7416.00,1.06
7415.00,1.06
7414.00,1.06
7413.00,1.07
7412.00,1.07
7411.00,1.07
7410.00,1.07
7409.00,1.07
7408.00,1.07
7407.00,1.07
7406.00,1.07
7405.00,1.07
7404.00,1.07
7403.00,1.07
7402.00,1.07
7401.00,1.07
7400.00,1.06
7399.00,1.06
7398.00,1.06
7397.00,1.06
7396.00,1.06
7395.00,1.06
7394.00,1.06
7393.00,1.06
7392.00,1.06
7391.00,1.05
7390.00,1.05
7389.00,1.05
7388.00,1.05
7387.00,1.05
7386.00,1.05
7385.00,1.05
7384.00,1.04
7383.00,1.04
7382.00,1.04
7381.00,1.04
7380.00,1.04
7379.00,1.04
7378.00,1.04
7377.00,1.04
7376.00,1.04
7375.00,1.04
7374.00,1.04
7373.00,1.04
7372.00,1.04
7371.00,1.04
7370.00,1.04
7369.00,1.04
7368.00,1.04
7367.00,1.04
7366.00,1.04
7365.00,1.04
7364.00,1.04
7363.00,1.04
7362.00,1.04
7361.00,1.04
7360.00,1.04
7359.00,1.04
7358.00,1.04
7357.00,1.04
7356.00,1.04
7355.00,1.04
7354.00,1.04
7353.00,1.04
7352.00,1.04
7351.00,1.04
7350.00,1.04
7349.00,1.04
7348.00,1.04
7347.00,1.04
7346.00,1.04
7345.00,1.04
7344.00,1.04
7343.00,1.04
7342.00,1.04
7341.00,1.04
7340.00,1.04
7339.00,1.04
7338.00,1.04
7337.00,1.04
7336.00,1.04
7335.00,1.04
7334.00,1.04
7333.00,1.04
7332.00,1.04
7331.00,1.04
7330.00,1.04
7329.00,1.04
7328.00,1.04
7327.00,1.04
7326.00,1.04
7325.00,1.04
7324.00,1.04
7323.00,1.04
7322.00,1.04
7321.00,1.04
7320.00,1.03
7319.00,1.03
7318.00,1.03
7317.00,1.03
7316.00,1.03
7315.00,1.03
7314.00,1.03
7313.00,1.03
7312.00,1.03
7311.00,1.03
7310.00,1.02
7309.00,1.02
7308.00,1.02
7307.00,1.02
7306.00,1.02
7305.00,1.02
7304.00,1.02
7303.00,1.02
7302.00,1.02
7301.00,1.02
7300.00,1.02
7299.00,1.02
7298.00,1.02
7297.00,1.02
7296.00,1.02
7295.00,1.02
7294.00,1.02
7293.00,1.02
7292.00,1.02
7291.00,1.01
7290.00,1.01
7289.00,1.01
7288.00,1.01
7287.00,1.01
7286.00,1.01
7285.00,1.01
7284.00,1.01
7283.00,1.01
7282.00,1.01
7281.00,1.01
7280.00,1.01
7279.00,1.01
7278.00,1.01
7277.00,1.01
7276.00,1.01
7275.00,1.01
7274.00,1.01
7273.00,1.01
7272.00,1.01
7271.00,1.01
7270.00,1.01
7269.00,1.01
7268.00,1.01
7267.00,1.01
7266.00,1.01
7265.00,1.01
7264.00,1.01
7263.00,1.01
7262.00,1.01
7261.00,1.00
7260.00,1.00
7259.00,1.00
7258.00,1.00
7257.00,1.00
7256.00,1.00
7255.00,1.00
7254.00,1.00
7253.00,0.99
7252.00,0.99
7251.00,0.99
7250.00,0.99
7249.00,0.99
7248.00,0.99
7247.00,0.98
7246.00,0.98
7245.00,0.98
7244.00,0.98
7243.00,0.98
7242.00,0.98
7241.00,0.97
7240.00,0.97
7239.00,0.97
7238.00,0.97
7237.00,0.97
7236.00,0.96
7235.00,0.96
7234.00,0.96
7233.00,0.96
7232.00,0.96
7231.00,0.96
7230.00,0.95
7229.00,0.95
7228.00,0.95
7227.00,0.95
7226.00,0.95
7225.00,0.95
7224.00,0.95
7223.00,0.94
7222.00,0.94
7221.00,0.94
7220.00,0.94
7219.00,0.94
7218.00,0.94
7217.00,0.94
7216.00,0.93
7215.00,0.93
7214.00,0.93
7213.00,0.93
7212.00,0.93
7211.00,0.92
7210.00,0.92
7209.00,0.92
7208.00,0.92
7207.00,0.92
7206.00,0.91
7205.00,0.91
7204.00,0.91
7203.00,0.91
7202.00,0.90
7201.00,0.90
7200.00,0.90
7199.00,0.90
7198.00,0.89
7197.00,0.89
7196.00,0.89
7195.00,0.89
7194.00,0.88
7193.00,0.88
7192.00,0.88
7191.00,0.88
7190.00,0.88
7189.00,0.87
7188.00,0.87
7187.00,0.87
7186.00,0.87
7185.00,0.86
7184.00,0.86
7183.00,0.86
7182.00,0.86
7181.00,0.86
7180.00,0.85
7179.00,0.85
7178.00,0.85
7177.00,0.85
7176.00,0.85
7175.00,0.85
7174.00,0.84
7173.00,0.84
7172.00,0.84
7171.00,0.84
7170.00,0.84
7169.00,0.83
7168.00,0.83
7167.00,0.83
7166.00,0.83
7165.00,0.83
7164.00,0.83
7163.00,0.82
7162.00,0.82
7161.00,0.82
7160.00,0.82
7159.00,0.82
7158.00,0.82
7157.00,0.82
7156.00,0.82
7155.00,0.81
7154.00,0.81
7153.00,0.81
7152.00,0.81
7151.00,0.81
7150.00,0.81
7149.00,0.81
7148.00,0.80
7147.00,0.80
7146.00,0.80
7145.00,0.80
7144.00,0.80
7143.00,0.79
7142.00,0.79
7141.00,0.79
7140.00,0.79
7139.00,0.78
7138.00,0.78
7137.00,0.78
7136.00,0.78
7135.00,0.77
7134.00,0.77
7133.00,0.77
7132.00,0.77
7131.00,0.76
7130.00,0.76
7129.00,0.76
7128.00,0.76
7127.00,0.75
7126.00,0.75
7125.00,0.75
7124.00,0.75
7123.00,0.75
7122.00,0.74
7121.00,0.74
7120.00,0.74
7119.00,0.74
7118.00,0.74
7117.00,0.74
7116.00,0.73
7115.00,0.73
7114.00,0.73
7113.00,0.73
7112.00,0.73
7111.00,0.73
7110.00,0.73
7109.00,0.73
7108.00,0.73
7107.00,0.72
7106.00,0.72
7105.00,0.72
7104.00,0.72
7103.00,0.72
7102.00,0.72
7101.00,0.72
7100.00,0.71
7099.00,0.71
7098.00,0.71
7097.00,0.71
7096.00,0.71
7095.00,0.71
7094.00,0.70
7093.00,0.70
7092.00,0.70
7091.00,0.70
7090.00,0.70
7089.00,0.69
7088.00,0.69
7087.00,0.69
7086.00,0.69
7085.00,0.69
7084.00,0.68
7083.00,0.68
7082.00,0.68
7081.00,0.68
7080.00,0.68
7079.00,0.68
7078.00,0.67
7077.00,0.67
7076.00,0.67
7075.00,0.67
7074.00,0.67
7073.00,0.67
7072.00,0.67
7071.00,0.66
7070.00,0.66
7069.00,0.66
7068.00,0.66
7067.00,0.66
7066.00,0.66
7065.00,0.66
7064.00,0.66
7063.00,0.66
7062.00,0.66
7061.00,0.66
7060.00,0.66
7059.00,0.66
7058.00,0.66
7057.00,0.66
7056.00,0.65
7055.00,0.65
7054.00,0.65
7053.00,0.65
7052.00,0.65
7051.00,0.65
7050.00,0.65
7049.00,0.65
7048.00,0.64
7047.00,0.64
7046.00,0.64
7045.00,0.64
7044.00,0.64
7043.00,0.64
7042.00,0.64
7041.00,0.64
7040.00,0.64
7039.00,0.63
7038.00,0.63
7037.00,0.63
7036.00,0.63
7035.00,0.63
7034.00,0.63
7033.00,0.63
7032.00,0.63
7031.00,0.63
7030.00,0.63
7029.00,0.63
7028.00,0.63
7027.00,0.63
7026.00,0.63
7025.00,0.63
7024.00,0.63
7023.00,0.63
7022.00,0.63
7021.00,0.63
7020.00,0.63
7019.00,0.63
7018.00,0.63
7017.00,0.63
7016.00,0.63
7015.00,0.62
7014.00,0.62
7013.00,0.62
7012.00,0.62
7011.00,0.62
7010.00,0.62
7009.00,0.62
7008.00,0.62
7007.00,0.62
7006.00,0.61
7005.00,0.61
7004.00,0.61
7003.00,0.61
7002.00,0.61
7001.00,0.61
7000.00,0.61
6999.00,0.61
6998.00,0.61
6997.00,0.60
6996.00,0.60
6995.00,0.60
6994.00,0.60
6993.00,0.60
6992.00,0.60
6991.00,0.60
6990.00,0.60
6989.00,0.60
6988.00,0.60
6987.00,0.60
6986.00,0.60
6985.00,0.60
6984.00,0.60
6983.00,0.60
6982.00,0.59
6981.00,0.59
6980.00,0.59
6979.00,0.59
6978.00,0.59
6977.00,0.59
6976.00,0.59
6975.00,0.59
6974.00,0.59
6973.00,0.59
6972.00,0.59
6971.00,0.59
6970.00,0.59
6969.00,0.59
6968.00,0.59
6967.00,0.59
6966.00,0.59
6965.00,0.59
6964.00,0.59
6963.00,0.59
6962.00,0.59
6961.00,0.59
6960.00,0.59
6959.00,0.59
6958.00,0.59
6957.00,0.59
6956.00,0.59
6955.00,0.59
6954.00,0.59
6953.00,0.59
6952.00,0.59
6951.00,0.59
6950.00,0.59
6949.00,0.59
6948.00,0.58
6947.00,0.58
6946.00,0.58
6945.00,0.58
6944.00,0.58
6943.00,0.58
6942.00,0.58
6941.00,0.58
6940.00,0.58
6939.00,0.58
6938.00,0.58
6937.00,0.58
6936.00,0.58
6935.00,0.58
6934.00,0.58
6933.00,0.57
6932.00,0.57
6931.00,0.57
6930.00,0.57
6929.00,0.57
6928.00,0.57
6927.00,0.57
6926.00,0.57
6925.00,0.57
6924.00,0.57
6923.00,0.57
6922.00,0.57
6921.00,0.57
6920.00,0.57
6919.00,0.57
6918.00,0.57
6917.00,0.57
6916.00,0.57
6915.00,0.57
6914.00,0.57
6913.00,0.57
6912.00,0.57
6911.00,0.57
6910.00,0.57
6909.00,0.56
6908.00,0.56
6907.00,0.56
6906.00,0.56
6905.00,0.56
6904.00,0.56
6903.00,0.56
6902.00,0.56
6901.00,0.56
6900.00,0.56
6899.00,0.56
6898.00,0.56
6897.00,0.56
6896.00,0.56
6895.00,0.56
6894.00,0.56
6893.00,0.57
6892.00,0.57
6891.00,0.57
6890.00,0.57
6889.00,0.57
6888.00,0.57
6887.00,0.57
6886.00,0.57
6885.00,0.57
6884.00,0.57
6883.00,0.56
6882.00,0.56
6881.00,0.56
6880.00,0.56
6879.00,0.56
6878.00,0.56
6877.00,0.56
6876.00,0.56
6875.00,0.56
6874.00,0.56
6873.00,0.57
6872.00,0.57
6871.00,0.57
6870.00,0.57
6869.00,0.57
6868.00,0.57
6867.00,0.57
6866.00,0.57
6865.00,0.57
6864.00,0.57
6863.00,0.57
6862.00,0.57
6861.00,0.57
6860.00,0.57
6859.00,0.57
6858.00,0.57
6857.00,0.57
6856.00,0.57
6855.00,0.57
6854.00,0.57
6853.00,0.57
6852.00,0.57
6851.00,0.57
6850.00,0.57
6849.00,0.57
6848.00,0.57
6847.00,0.57
6846.00,0.57
6845.00,0.57
6844.00,0.57
6843.00,0.57
6842.00,0.57
6841.00,0.57
6840.00,0.57
6839.00,0.57
6838.00,0.57
6837.00,0.57
6836.00,0.57
6835.00,0.57
6834.00,0.57
6833.00,0.57
6832.00,0.57
6831.00,0.57
6830.00,0.57
6829.00,0.57
6828.00,0.57
6827.00,0.57
6826.00,0.57
6825.00,0.57
6824.00,0.57
6823.00,0.57
6822.00,0.57
6821.00,0.57
6820.00,0.57
6819.00,0.57
6818.00,0.57
6817.00,0.58
6816.00,0.58
6815.00,0.58
6814.00,0.58
6813.00,0.58
6812.00,0.58
6811.00,0.58
6810.00,0.58
6809.00,0.58
6808.00,0.58
6807.00,0.58
6806.00,0.58
6805.00,0.58
6804.00,0.58
6803.00,0.58
6802.00,0.58
6801.00,0.58
6800.00,0.58
6799.00,0.58
6798.00,0.58
6797.00,0.58
6796.00,0.58
6795.00,0.58
6794.00,0.58
6793.00,0.58
6792.00,0.58
6791.00,0.58
6790.00,0.58
6789.00,0.58
6788.00,0.59
6787.00,0.59
6786.00,0.59
6785.00,0.59
6784.00,0.59
6783.00,0.59
6782.00,0.59
6781.00,0.59
6780.00,0.59
6779.00,0.59
6778.00,0.59
6777.00,0.59
6776.00,0.59
6775.00,0.60
6774.00,0.60
6773.00,0.60
6772.00,0.60
6771.00,0.60
6770.00,0.60
6769.00,0.60
6768.00,0.60
6767.00,0.60
6766.00,0.60
6765.00,0.60
6764.00,0.60
6763.00,0.60
6762.00,0.60
6761.00,0.60
6760.00,0.60
6759.00,0.60
6758.00,0.60
6757.00,0.60
6756.00,0.60
6755.00,0.61
6754.00,0.61
6753.00,0.61
6752.00,0.61
6751.00,0.61
6750.00,0.61
6749.00,0.61
6748.00,0.61
6747.00,0.61
6746.00,0.61
6745.00,0.61
6744.00,0.61
6743.00,0.61
6742.00,0.61
6741.00,0.61
6740.00,0.62
6739.00,0.62
6738.00,0.62
6737.00,0.62
6736.00,0.62
6735.00,0.62
6734.00,0.62
6733.00,0.62
6732.00,0.62
6731.00,0.62
6730.00,0.63
6729.00,0.63
6728.00,0.63
6727.00,0.63
6726.00,0.63
6725.00,0.63
6724.00,0.63
6723.00,0.63
6722.00,0.63
6721.00,0.63
6720.00,0.63
6719.00,0.63
6718.00,0.63
6717.00,0.63
6716.00,0.64
6715.00,0.64
6714.00,0.64
6713.00,0.64
6712.00,0.64
6711.00,0.64
6710.00,0.64
6709.00,0.64
6708.00,0.64
6707.00,0.64
6706.00,0.64
6705.00,0.64
6704.00,0.64
6703.00,0.64
6702.00,0.64
6701.00,0.64
6700.00,0.64
6699.00,0.64
6698.00,0.64
6697.00,0.64
6696.00,0.64
6695.00,0.64
6694.00,0.64
6693.00,0.64
6692.00,0.64
6691.00,0.65
6690.00,0.65
6689.00,0.65
6688.00,0.65
6687.00,0.65
6686.00,0.65
6685.00,0.65
6684.00,0.65
6683.00,0.65
6682.00,0.66
6681.00,0.66
6680.00,0.66
6679.00,0.66
6678.00,0.66
6677.00,0.66
6676.00,0.66
6675.00,0.66
6674.00,0.66
6673.00,0.66
6672.00,0.66
6671.00,0.66
6670.00,0.66
6669.00,0.66
6668.00,0.66
6667.00,0.67
6666.00,0.67
6665.00,0.67
6664.00,0.67
6663.00,0.67
6662.00,0.67
6661.00,0.67
6660.00,0.67
6659.00,0.67
6658.00,0.67
6657.00,0.67
6656.00,0.67
6655.00,0.68
6654.00,0.68
6653.00,0.68
6652.00,0.68
6651.00,0.68
6650.00,0.68
6649.00,0.68
6648.00,0.68
6647.00,0.68
6646.00,0.69
6645.00,0.69
6644.00,0.69
6643.00,0.69
6642.00,0.69
6641.00,0.69
6640.00,0.69
6639.00,0.69
6638.00,0.69
6637.00,0.69
6636.00,0.70
6635.00,0.70
6634.00,0.70
6633.00,0.70
6632.00,0.70
6631.00,0.70
6630.00,0.70
6629.00,0.70
6628.00,0.70
6627.00,0.70
6626.00,0.70
6625.00,0.70
6624.00,0.70
6623.00,0.70
6622.00,0.71
6621.00,0.71
6620.00,0.71
6619.00,0.71
6618.00,0.71
6617.00,0.71
6616.00,0.71
6615.00,0.71
6614.00,0.71
6613.00,0.71
6612.00,0.71
6611.00,0.72
6610.00,0.72
6609.00,0.72
6608.00,0.72
6607.00,0.72
6606.00,0.72
6605.00,0.72
6604.00,0.72
6603.00,0.72
6602.00,0.72
6601.00,0.72
6600.00,0.73
6599.00,0.73
6598.00,0.73
6597.00,0.73
6596.00,0.73
6595.00,0.73
6594.00,0.73
6593.00,0.73
6592.00,0.73
6591.00,0.73
6590.00,0.73
6589.00,0.73
6588.00,0.73
6587.00,0.74
6586.00,0.74
6585.00,0.74
6584.00,0.74
6583.00,0.74
6582.00,0.74
6581.00,0.74
6580.00,0.74
6579.00,0.74
6578.00,0.74
6577.00,0.74
6576.00,0.74
6575.00,0.74
6574.00,0.74
6573.00,0.74
6572.00,0.74
6571.00,0.74
6570.00,0.74
6569.00,0.74
6568.00,0.74
6567.00,0.74
6566.00,0.74
6565.00,0.74
6564.00,0.75
6563.00,0.75
6562.00,0.75
6561.00,0.75
6560.00,0.75
6559.00,0.75
6558.00,0.75
6557.00,0.75
6556.00,0.75
6555.00,0.75
6554.00,0.75
6553.00,0.75
6552.00,0.75
6551.00,0.75
6550.00,0.76
6549.00,0.76
6548.00,0.76
6547.00,0.76
6546.00,0.76
6545.00,0.76
6544.00,0.76
6543.00,0.76
6542.00,0.76
6541.00,0.76
6540.00,0.76
6539.00,0.76
6538.00,0.76
6537.00,0.77
6536.00,0.77
6535.00,0.77
6534.00,0.77
6533.00,0.77
6532.00,0.77
6531.00,0.77
6530.00,0.77
6529.00,0.77
6528.00,0.77
6527.00,0.77
6526.00,0.77
6525.00,0.77
6524.00,0.77
6523.00,0.77
6522.00,0.77
6521.00,0.77
6520.00,0.77
6519.00,0.77
6518.00,0.77
6517.00,0.77
6516.00,0.78
6515.00,0.78
6514.00,0.78
6513.00,0.78
6512.00,0.78
6511.00,0.78
6510.00,0.78
6509.00,0.78
6508.00,0.78
6507.00,0.78
6506.00,0.78
6505.00,0.78
6504.00,0.79
6503.00,0.79
6502.00,0.79
6501.00,0.79
6500.00,0.79
6499.00,0.79
6498.00,0.79
6497.00,0.79
6496.00,0.79
6495.00,0.79
6494.00,0.79
6493.00,0.79
6492.00,0.79
6491.00,0.79
6490.00,0.80
6489.00,0.80
6488.00,0.80
6487.00,0.80
6486.00,0.80
6485.00,0.80
6484.00,0.80
6483.00,0.80
6482.00,0.80
6481.00,0.80
6480.00,0.80
6479.00,0.80
6478.00,0.80
6477.00,0.80
6476.00,0.80
6475.00,0.80
6474.00,0.80
6473.00,0.80
6472.00,0.80
6471.00,0.80
6470.00,0.80
6469.00,0.80
6468.00,0.80
6467.00,0.81
6466.00,0.81
6465.00,0.81
6464.00,0.81
6463.00,0.81
6462.00,0.81
6461.00,0.81
6460.00,0.81
6459.00,0.81
6458.00,0.81
6457.00,0.81
6456.00,0.81
6455.00,0.81
6454.00,0.81
6453.00,0.81
6452.00,0.81
6451.00,0.81
6450.00,0.81
6449.00,0.81
6448.00,0.81
6447.00,0.81
6446.00,0.81
6445.00,0.81
6444.00,0.81
6443.00,0.81
6442.00,0.81
6441.00,0.82
6440.00,0.82
6439.00,0.82
6438.00,0.82
6437.00,0.82
6436.00,0.82
6435.00,0.82
6434.00,0.82
6433.00,0.82
6432.00,0.82
6431.00,0.82
6430.00,0.82
6429.00,0.82
6428.00,0.82
6427.00,0.82
6426.00,0.82
6425.00,0.82
6424.00,0.82
6423.00,0.83
6422.00,0.83
6421.00,0.83
6420.00,0.83
6419.00,0.83
6418.00,0.83
6417.00,0.83
6416.00,0.83
6415.00,0.83
6414.00,0.83
6413.00,0.83
6412.00,0.83
6411.00,0.83
6410.00,0.83
6409.00,0.83
6408.00,0.83
6407.00,0.83
6406.00,0.83
6405.00,0.83
6404.00,0.83
6403.00,0.83
6402.00,0.83
6401.00,0.83
6400.00,0.83
6399.00,0.83
6398.00,0.83
6397.00,0.83
6396.00,0.83
6395.00,0.83
6394.00,0.83
6393.00,0.83
6392.00,0.83
6391.00,0.83
6390.00,0.83
6389.00,0.83
6388.00,0.84
6387.00,0.84
6386.00,0.84
6385.00,0.84
6384.00,0.84
6383.00,0.84
6382.00,0.84
6381.00,0.84
6380.00,0.84
6379.00,0.84
6378.00,0.84
6377.00,0.84
6376.00,0.84
6375.00,0.84
6374.00,0.84
6373.00,0.84
6372.00,0.85
6371.00,0.85
6370.00,0.85
6369.00,0.85
6368.00,0.85
6367.00,0.85
6366.00,0.85
6365.00,0.85
6364.00,0.85
6363.00,0.85
6362.00,0.85
6361.00,0.85
6360.00,0.85
6359.00,0.85
6358.00,0.85
6357.00,0.86
6356.00,0.86
6355.00,0.86
6354.00,0.86
6353.00,0.86
6352.00,0.86
6351.00,0.86
6350.00,0.86
6349.00,0.86
6348.00,0.86
6347.00,0.86
6346.00,0.86
6345.00,0.86
6344.00,0.86
6343.00,0.86
6342.00,0.87
6341.00,0.87
6340.00,0.87
6339.00,0.87
6338.00,0.87
6337.00,0.87
6336.00,0.87
6335.00,0.87
6334.00,0.87
6333.00,0.87
6332.00,0.87
6331.00,0.87
6330.00,0.87
6329.00,0.87
6328.00,0.87
6327.00,0.87
6326.00,0.87
6325.00,0.87
6324.00,0.87
6323.00,0.87
6322.00,0.87
6321.00,0.87
6320.00,0.88
6319.00,0.88
6318.00,0.88
6317.00,0.88
6316.00,0.88
6315.00,0.88
6314.00,0.88
6313.00,0.88
6312.00,0.88
6311.00,0.88
6310.00,0.88
6309.00,0.88
6308.00,0.88
6307.00,0.88
6306.00,0.88
6305.00,0.88
6304.00,0.88
6303.00,0.89
6302.00,0.89
6301.00,0.89
6300.00,0.89
6299.00,0.89
6298.00,0.89
6297.00,0.89
6296.00,0.89
6295.00,0.89
6294.00,0.89
6293.00,0.89
6292.00,0.89
6291.00,0.90
6290.00,0.90
6289.00,0.90
6288.00,0.90
6287.00,0.90
6286.00,0.90
6285.00,0.90
6284.00,0.90
6283.00,0.90
6282.00,0.91
6281.00,0.91
6280.00,0.91
6279.00,0.91
6278.00,0.91
6277.00,0.91
6276.00,0.91
6275.00,0.91
6274.00,0.91
6273.00,0.91
6272.00,0.91
6271.00,0.91
6270.00,0.91
6269.00,0.91
6268.00,0.91
6267.00,0.91
6266.00,0.91
6265.00,0.91
6264.00,0.91
6263.00,0.91
6262.00,0.91
6261.00,0.91
6260.00,0.91
6259.00,0.92
6258.00,0.92
6257.00,0.92
6256.00,0.92
6255.00,0.92
6254.00,0.92
6253.00,0.92
6252.00,0.92
6251.00,0.92
6250.00,0.92
6249.00,0.92
6248.00,0.92
6247.00,0.92
6246.00,0.92
6245.00,0.93
6244.00,0.93
6243.00,0.93
6242.00,0.93
6241.00,0.93
6240.00,0.93
6239.00,0.93
6238.00,0.93
6237.00,0.93
6236.00,0.93
6235.00,0.94
6234.00,0.94
6233.00,0.94
6232.00,0.94
6231.00,0.94
6230.00,0.94
6229.00,0.94
6228.00,0.94
6227.00,0.94
6226.00,0.95
6225.00,0.95
6224.00,0.95
6223.00,0.95
6222.00,0.95
6221.00,0.95
6220.00,0.95
6219.00,0.95
6218.00,0.95
6217.00,0.95
6216.00,0.95
6215.00,0.95
6214.00,0.95
6213.00,0.95
6212.00,0.95
6211.00,0.95
6210.00,0.96
6209.00,0.96
6208.00,0.96
6207.00,0.96
6206.00,0.96
6205.00,0.96
6204.00,0.96
6203.00,0.96
6202.00,0.96
6201.00,0.96
6200.00,0.97
6199.00,0.97
6198.00,0.97
6197.00,0.97
6196.00,0.97
6195.00,0.97
6194.00,0.97
6193.00,0.97
6192.00,0.97
6191.00,0.97
6190.00,0.97
6189.00,0.97
6188.00,0.97
6187.00,0.97
6186.00,0.97
6185.00,0.97
6184.00,0.97
6183.00,0.97
6182.00,0.98
6181.00,0.98
6180.00,0.98
6179.00,0.98
6178.00,0.98
6177.00,0.98
6176.00,0.98
6175.00,0.98
6174.00,0.98
6173.00,0.98
6172.00,0.98
6171.00,0.98
6170.00,0.99
6169.00,0.99
6168.00,0.99
6167.00,0.99
6166.00,0.99
6165.00,0.99
6164.00,0.99
6163.00,0.99
6162.00,0.99
6161.00,0.99
6160.00,0.99
6159.00,1.00
6158.00,1.00
6157.00,1.00
6156.00,1.00
6155.00,1.00
6154.00,1.00
6153.00,1.00
6152.00,1.00
6151.00,1.00
6150.00,1.00
6149.00,1.00
6148.00,1.00
6147.00,1.00
6146.00,1.01
6145.00,1.01
6144.00,1.01
6143.00,1.01
6142.00,1.01
6141.00,1.01
6140.00,1.01
6139.00,1.01
6138.00,1.01
6137.00,1.01
6136.00,1.01
6135.00,1.01
6134.00,1.01
6133.00,1.01
6132.00,1.02
6131.00,1.02
6130.00,1.02
6129.00,1.02
6128.00,1.02
6127.00,1.02
6126.00,1.02
6125.00,1.02
6124.00,1.02
6123.00,1.02
6122.00,1.03
6121.00,1.03
6120.00,1.03
6119.00,1.03
6118.00,1.03
6117.00,1.03
6116.00,1.03
6115.00,1.03
6114.00,1.03
6113.00,1.03
6112.00,1.03
6111.00,1.04
6110.00,1.04
6109.00,1.04
6108.00,1.04
6107.00,1.04
6106.00,1.04
6105.00,1.04
6104.00,1.04
6103.00,1.04
6102.00,1.04
6101.00,1.04
6100.00,1.04
6099.00,1.05
6098.00,1.05
6097.00,1.05
6096.00,1.05
6095.00,1.05
6094.00,1.05
6093.00,1.05
6092.00,1.05
6091.00,1.05
6090.00,1.05
6089.00,1.05
6088.00,1.05
6087.00,1.06
6086.00,1.06
6085.00,1.06
6084.00,1.06
6083.00,1.06
6082.00,1.06
6081.00,1.06
6080.00,1.06
6079.00,1.06
6078.00,1.06
6077.00,1.06
6076.00,1.06
6075.00,1.06
6074.00,1.06
6073.00,1.06
6072.00,1.06
6071.00,1.06
6070.00,1.06
6069.00,1.06
6068.00,1.06
6067.00,1.06
6066.00,1.06
6065.00,1.07
6064.00,1.07
6063.00,1.07
6062.00,1.07
6061.00,1.07
6060.00,1.07
6059.00,1.07
6058.00,1.07
6057.00,1.07
6056.00,1.07
6055.00,1.07
6054.00,1.07
6053.00,1.07
6052.00,1.07
6051.00,1.07
6050.00,1.07
6049.00,1.07
6048.00,1.07
6047.00,1.07
6046.00,1.07
6045.00,1.07
6044.00,1.07
6043.00,1.07
6042.00,1.08
6041.00,1.08
6040.00,1.08
6039.00,1.08
6038.00,1.08
6037.00,1.08
6036.00,1.08
6035.00,1.08
6034.00,1.08
6033.00,1.08
6032.00,1.08
6031.00,1.08
6030.00,1.08
6029.00,1.08
6028.00,1.08
6027.00,1.08
6026.00,1.08
6025.00,1.08
6024.00,1.08
6023.00,1.08
6022.00,1.08
6021.00,1.08
6020.00,1.08
6019.00,1.08
6018.00,1.08
6017.00,1.08
6016.00,1.08
6015.00,1.08
6014.00,1.08
6013.00,1.08
6012.00,1.08
6011.00,1.08
6010.00,1.08
6009.00,1.08
6008.00,1.08
6007.00,1.08
6006.00,1.08
6005.00,1.08
6004.00,1.08
6003.00,1.08
6002.00,1.08
6001.00,1.08
6000.00,1.08
5999.00,1.08
5998.00,1.08
5997.00,1.08
5996.00,1.08
5995.00,1.08
5994.00,1.07
5993.00,1.07
5992.00,1.07
5991.00,1.07
5990.00,1.07
5989.00,1.07
5988.00,1.07
5987.00,1.07
5986.00,1.07
5985.00,1.06
5984.00,1.06
5983.00,1.06
5982.00,1.06
5981.00,1.06
5980.00,1.06
5979.00,1.05
5978.00,1.05
5977.00,1.05
5976.00,1.05
5975.00,1.05
5974.00,1.04
5973.00,1.04
5972.00,1.04
5971.00,1.03
5970.00,1.03
5969.00,1.03
5968.00,1.02
5967.00,1.02
5966.00,1.02
5965.00,1.01
5964.00,1.01
5963.00,1.01
5962.00,1.00
5961.00,1.00
5960.00,0.99
5959.00,0.99
5958.00,0.99
5957.00,0.98
5956.00,0.98
5955.00,0.97
5954.00,0.97
5953.00,0.97
5952.00,0.96
5951.00,0.96
5950.00,0.96
5949.00,0.95
5948.00,0.95
5947.00,0.95
5946.00,0.95
5945.00,0.95
5944.00,0.94
5943.00,0.94
5942.00,0.94
5941.00,0.94
5940.00,0.94
5939.00,0.94
5938.00,0.94
5937.00,0.94
5936.00,0.93
5935.00,0.93
5934.00,0.93
5933.00,0.93
5932.00,0.93
5931.00,0.93
5930.00,0.93
5929.00,0.93
5928.00,0.93
5927.00,0.93
5926.00,0.92
5925.00,0.92
5924.00,0.92
5923.00,0.92
5922.00,0.92
5921.00,0.92
5920.00,0.91
5919.00,0.91
5918.00,0.91
5917.00,0.91
5916.00,0.91
5915.00,0.90
5914.00,0.90
5913.00,0.90
5912.00,0.90
5911.00,0.90
5910.00,0.90
5909.00,0.90
5908.00,0.89
5907.00,0.89
5906.00,0.89
5905.00,0.89
5904.00,0.89
5903.00,0.89
5902.00,0.89
5901.00,0.89
5900.00,0.89
5899.00,0.89
5898.00,0.89
5897.00,0.89
5896.00,0.90
5895.00,0.90
5894.00,0.90
5893.00,0.90
5892.00,0.90
5891.00,0.90
5890.00,0.90
5889.00,0.91
5888.00,0.91
5887.00,0.91
5886.00,0.91
5885.00,0.91
5884.00,0.92
5883.00,0.92
5882.00,0.92
5881.00,0.92
5880.00,0.92
5879.00,0.93
5878.00,0.93
5877.00,0.93
5876.00,0.93
5875.00,0.93
5874.00,0.93
5873.00,0.93
5872.00,0.94
5871.00,0.94
5870.00,0.94
5869.00,0.94
5868.00,0.94
5867.00,0.94
5866.00,0.94
5865.00,0.94
5864.00,0.94
5863.00,0.95
5862.00,0.95
5861.00,0.95
5860.00,0.95
5859.00,0.95
5858.00,0.95
5857.00,0.95
5856.00,0.95
5855.00,0.95
5854.00,0.95
5853.00,0.95
5852.00,0.95
5851.00,0.95
5850.00,0.95
5849.00,0.95
5848.00,0.95
5847.00,0.95
5846.00,0.95
5845.00,0.95
5844.00,0.95
5843.00,0.95
5842.00,0.95
5841.00,0.95
5840.00,0.95
5839.00,0.95
5838.00,0.95
5837.00,0.95
5836.00,0.95
5835.00,0.95
5834.00,0.95
5833.00,0.95
5832.00,0.95
5831.00,0.95
5830.00,0.95
5829.00,0.95
5828.00,0.95
5827.00,0.95
5826.00,0.95
5825.00,0.95
5824.00,0.95
5823.00,0.95
5822.00,0.95
5821.00,0.95
5820.00,0.95
5819.00,0.96
5818.00,0.96
5817.00,0.96
5816.00,0.96
5815.00,0.96
5814.00,0.96
5813.00,0.96
5812.00,0.96
5811.00,0.96
5810.00,0.95
5809.00,0.95
5808.00,0.95
5807.00,0.95
5806.00,0.95
5805.00,0.95
5804.00,0.95
5803.00,0.95
5802.00,0.95
5801.00,0.95
5800.00,0.95
5799.00,0.95
5798.00,0.94
5797.00,0.94
5796.00,0.94
5795.00,0.94
5794.00,0.94
5793.00,0.94
5792.00,0.94
5791.00,0.94
5790.00,0.93
5789.00,0.93
5788.00,0.93
5787.00,0.93
5786.00,0.93
5785.00,0.93
5784.00,0.93
5783.00,0.93
5782.00,0.93
5781.00,0.93
5780.00,0.93
5779.00,0.92
5778.00,0.92
5777.00,0.92
5776.00,0.92
5775.00,0.92
5774.00,0.92
5773.00,0.92
5772.00,0.92
5771.00,0.92
5770.00,0.93
5769.00,0.93
5768.00,0.93
5767.00,0.93
5766.00,0.93
5765.00,0.93
5764.00,0.93
5763.00,0.93
5762.00,0.93
5761.00,0.93
5760.00,0.94
5759.00,0.94
5758.00,0.94
5757.00,0.94
5756.00,0.94
5755.00,0.94
5754.00,0.95
5753.00,0.95
5752.00,0.95
5751.00,0.95
5750.00,0.95
5749.00,0.96
5748.00,0.96
5747.00,0.96
5746.00,0.96
5745.00,0.96
5744.00,0.97
5743.00,0.97
5742.00,0.97
5741.00,0.97
5740.00,0.97
5739.00,0.97
5738.00,0.97
5737.00,0.98
5736.00,0.98
5735.00,0.98
5734.00,0.98
5733.00,0.98
5732.00,0.98
5731.00,0.98
5730.00,0.98
5729.00,0.98
5728.00,0.98
5727.00,0.98
5726.00,0.98
5725.00,0.98
5724.00,0.98
5723.00,0.98
5722.00,0.98
5721.00,0.98
5720.00,0.98
5719.00,0.98
5718.00,0.98
5717.00,0.98
5716.00,0.98
5715.00,0.98
5714.00,0.98
5713.00,0.98
5712.00,0.98
5711.00,0.98
5710.00,0.98
5709.00,0.98
5708.00,0.98
5707.00,0.98
5706.00,0.98
5705.00,0.98
5704.00,0.98
5703.00,0.98
5702.00,0.98
5701.00,0.98
5700.00,0.97
5699.00,0.97
5698.00,0.97
5697.00,0.97
5696.00,0.97
5695.00,0.97
5694.00,0.97
5693.00,0.97
5692.00,0.97
5691.00,0.97
5690.00,0.97
5689.00,0.96
5688.00,0.96
5687.00,0.96
5686.00,0.96
5685.00,0.96
5684.00,0.96
5683.00,0.96
5682.00,0.96
5681.00,0.96
5680.00,0.96
5679.00,0.96
5678.00,0.96
5677.00,0.96
5676.00,0.96
5675.00,0.96
5674.00,0.96
5673.00,0.96
5672.00,0.96
5671.00,0.96
5670.00,0.96
5669.00,0.96
5668.00,0.96
5667.00,0.96
5666.00,0.96
5665.00,0.96
5664.00,0.96
5663.00,0.97
5662.00,0.97
5661.00,0.97
5660.00,0.97
5659.00,0.97
5658.00,0.97
5657.00,0.97
5656.00,0.97
5655.00,0.97
5654.00,0.97
5653.00,0.97
5652.00,0.97
5651.00,0.97
5650.00,0.98
5649.00,0.98
5648.00,0.98
5647.00,0.98
5646.00,0.98
5645.00,0.98
5644.00,0.98
5643.00,0.98
5642.00,0.98
5641.00,0.99
5640.00,0.99
5639.00,0.99
5638.00,0.99
5637.00,0.99
5636.00,0.99
5635.00,0.99
5634.00,0.99
5633.00,0.99
5632.00,0.99
5631.00,1.00
5630.00,1.00
5629.00,1.00
5628.00,1.00
5627.00,1.00
5626.00,1.00
5625.00,1.00
5624.00,1.00
5623.00,1.00
5622.00,1.00
5621.00,1.00
5620.00,1.01
5619.00,1.01
5618.00,1.01
5617.00,1.01
5616.00,1.01
5615.00,1.01
5614.00,1.01
5613.00,1.01
5612.00,1.01
5611.00,1.01
5610.00,1.01
5609.00,1.02
5608.00,1.02
5607.00,1.02
5606.00,1.02
5605.00,1.02
5604.00,1.02
5603.00,1.02
5602.00,1.02
5601.00,1.02
5600.00,1.02
5599.00,1.02
5598.00,1.03
5597.00,1.03
5596.00,1.03
5595.00,1.03
5594.00,1.03
5593.00,1.03
5592.00,1.03
5591.00,1.03
5590.00,1.03
5589.00,1.03
5588.00,1.03
5587.00,1.04
5586.00,1.04
5585.00,1.04
5584.00,1.04
5583.00,1.04
5582.00,1.04
5581.00,1.04
5580.00,1.04
5579.00,1.04
5578.00,1.05
5577.00,1.05
5576.00,1.05
5575.00,1.05
5574.00,1.05
5573.00,1.05
5572.00,1.05
5571.00,1.05
5570.00,1.05
5569.00,1.05
5568.00,1.05
5567.00,1.05
5566.00,1.05
5565.00,1.05
5564.00,1.05
5563.00,1.05
5562.00,1.05
5561.00,1.05
5560.00,1.06
5559.00,1.06
5558.00,1.06
5557.00,1.06
5556.00,1.06
5555.00,1.06
5554.00,1.06
5553.00,1.06
5552.00,1.06
5551.00,1.06
5550.00,1.06
5549.00,1.06
5548.00,1.06
5547.00,1.06
5546.00,1.06
5545.00,1.06
5544.00,1.06
5543.00,1.06
5542.00,1.06
5541.00,1.06
5540.00,1.06
5539.00,1.06
5538.00,1.06
5537.00,1.07
5536.00,1.07
5535.00,1.07
5534.00,1.07
5533.00,1.07
5532.00,1.07
5531.00,1.07
5530.00,1.07
5529.00,1.07
5528.00,1.07
5527.00,1.07
5526.00,1.07
5525.00,1.07
5524.00,1.07
5523.00,1.07
5522.00,1.08
5521.00,1.08
5520.00,1.08
5519.00,1.08
5518.00,1.08
5517.00,1.08
5516.00,1.08
5515.00,1.08
5514.00,1.08
5513.00,1.08
5512.00,1.08
5511.00,1.08
5510.00,1.08
5509.00,1.08
5508.00,1.08
5507.00,1.08
5506.00,1.08
5505.00,1.08
5504.00,1.08
5503.00,1.08
5502.00,1.08
5501.00,1.08
5500.00,1.08
5499.00,1.08
5498.00,1.08
5497.00,1.08
5496.00,1.08
5495.00,1.08
5494.00,1.08
5493.00,1.08
5492.00,1.08
5491.00,1.08
5490.00,1.08
5489.00,1.08
5488.00,1.08
5487.00,1.08
5486.00,1.08
5485.00,1.08
5484.00,1.08
5483.00,1.08
5482.00,1.09
5481.00,1.09
5480.00,1.09
5479.00,1.09
5478.00,1.09
5477.00,1.09
5476.00,1.09
5475.00,1.09
5474.00,1.09
5473.00,1.09
5472.00,1.09
5471.00,1.09
5470.00,1.09
5469.00,1.09
5468.00,1.09
5467.00,1.09
5466.00,1.09
5465.00,1.09
5464.00,1.09
5463.00,1.10
5462.00,1.10
5461.00,1.10
5460.00,1.10
5459.00,1.10
5458.00,1.10
5457.00,1.10
5456.00,1.10
5455.00,1.10
5454.00,1.10
5453.00,1.10
5452.00,1.10
5451.00,1.10
5450.00,1.10
5449.00,1.10
5448.00,1.10
5447.00,1.10
5446.00,1.10
5445.00,1.10
5444.00,1.10
5443.00,1.10
5442.00,1.10
5441.00,1.10
5440.00,1.10
5439.00,1.10
5438.00,1.10
5437.00,1.10
5436.00,1.10
5435.00,1.10
5434.00,1.10
5433.00,1.10
5432.00,1.10
5431.00,1.10
5430.00,1.10
5429.00,1.10
5428.00,1.10
5427.00,1.10
5426.00,1.10
5425.00,1.10
5424.00,1.10
5423.00,1.10
5422.00,1.10
5421.00,1.10
5420.00,1.10
5419.00,1.10
5418.00,1.10
5417.00,1.10
5416.00,1.10
5415.00,1.10
5414.00,1.10
5413.00,1.10
5412.00,1.10
5411.00,1.10
5410.00,1.10
5409.00,1.10
5408.00,1.10
5407.00,1.10
5406.00,1.10
5405.00,1.10
5404.00,1.10
5403.00,1.10
5402.00,1.10
5401.00,1.10
5400.00,1.10
5399.00,1.10
5398.00,1.10
5397.00,1.10
5396.00,1.10
5395.00,1.10
5394.00,1.10
5393.00,1.10
5392.00,1.10
5391.00,1.10
5390.00,1.10
5389.00,1.10
5388.00,1.09
5387.00,1.09
5386.00,1.09
5385.00,1.09
5384.00,1.09
5383.00,1.09
5382.00,1.09
5381.00,1.09
5380.00,1.08
5379.00,1.08
5378.00,1.08
5377.00,1.08
5376.00,1.08
5375.00,1.08
5374.00,1.08
5373.00,1.07
5372.00,1.07
5371.00,1.07
5370.00,1.07
5369.00,1.06
5368.00,1.06
5367.00,1.06
5366.00,1.06
5365.00,1.05
5364.00,1.05
5363.00,1.05
5362.00,1.04
5361.00,1.04
5360.00,1.04
5359.00,1.03
5358.00,1.03
5357.00,1.02
5356.00,1.02
5355.00,1.01
5354.00,1.01
5353.00,1.00
5352.00,1.00
5351.00,0.99
5350.00,0.98
5349.00,0.98
5348.00,0.97
5347.00,0.97
5346.00,0.96
5345.00,0.95
5344.00,0.95
5343.00,0.94
5342.00,0.94
5341.00,0.93
5340.00,0.92
5339.00,0.92
5338.00,0.91
5337.00,0.90
5336.00,0.90
5335.00,0.89
5334.00,0.88
5333.00,0.88
5332.00,0.87
5331.00,0.86
5330.00,0.86
5329.00,0.85
5328.00,0.84
5327.00,0.84
5326.00,0.83
5325.00,0.82
5324.00,0.81
5323.00,0.80
5322.00,0.80
5321.00,0.79
5320.00,0.78
5319.00,0.77
5318.00,0.76
5317.00,0.76
5316.00,0.75
5315.00,0.74
5314.00,0.73
5313.00,0.72
5312.00,0.71
5311.00,0.70
5310.00,0.70
5309.00,0.69
5308.00,0.68
5307.00,0.67
5306.00,0.67
5305.00,0.66
5304.00,0.65
5303.00,0.64
5302.00,0.64
5301.00,0.63
5300.00,0.62
5299.00,0.62
5298.00,0.61
5297.00,0.60
5296.00,0.60
5295.00,0.59
5294.00,0.59
5293.00,0.58
5292.00,0.58
5291.00,0.57
5290.00,0.57
5289.00,0.56
5288.00,0.56
5287.00,0.55
5286.00,0.55
5285.00,0.54
5284.00,0.54
5283.00,0.54
5282.00,0.53
5281.00,0.53
5280.00,0.52
5279.00,0.52
5278.00,0.52
5277.00,0.51
5276.00,0.51
5275.00,0.51
5274.00,0.51
5273.00,0.50
5272.00,0.50
5271.00,0.50
5270.00,0.50
5269.00,0.49
5268.00,0.49
5267.00,0.49
5266.00,0.49
5265.00,0.48
5264.00,0.48
5263.00,0.48
5262.00,0.48
5261.00,0.48
5260.00,0.48
5259.00,0.47
5258.00,0.47
5257.00,0.47
5256.00,0.47
5255.00,0.47
5254.00,0.47
5253.00,0.47
5252.00,0.47
5251.00,0.47
5250.00,0.46
5249.00,0.46
5248.00,0.46
5247.00,0.46
5246.00,0.46
5245.00,0.46
5244.00,0.46
5243.00,0.46
5242.00,0.46
5241.00,0.46
5240.00,0.46
5239.00,0.45
5238.00,0.45
5237.00,0.45
5236.00,0.45
5235.00,0.45
5234.00,0.45
5233.00,0.45
5232.00,0.45
5231.00,0.45
5230.00,0.45
5229.00,0.45
5228.00,0.45
5227.00,0.45
5226.00,0.45
5225.00,0.45
5224.00,0.45
5223.00,0.45
5222.00,0.45
5221.00,0.45
5220.00,0.44
5219.00,0.44
5218.00,0.44
5217.00,0.44
5216.00,0.44
5215.00,0.44
5214.00,0.44
5213.00,0.44
5212.00,0.44
5211.00,0.44
5210.00,0.44
5209.00,0.44
5208.00,0.44
5207.00,0.44
5206.00,0.44
5205.00,0.44
5204.00,0.44
5203.00,0.44
5202.00,0.44
5201.00,0.44
5200.00,0.44
5199.00,0.44
5198.00,0.44
5197.00,0.44
5196.00,0.44
5195.00,0.44
5194.00,0.44
5193.00,0.44
5192.00,0.44
5191.00,0.44
5190.00,0.44
5189.00,0.44
5188.00,0.44
5187.00,0.44
5186.00,0.44
5185.00,0.44
5184.00,0.44
5183.00,0.44
5182.00,0.44
5181.00,0.44
5180.00,0.44
5179.00,0.44
5178.00,0.44
5177.00,0.44
5176.00,0.44
5175.00,0.44
5174.00,0.44
5173.00,0.44
5172.00,0.44
5171.00,0.44
5170.00,0.44
5169.00,0.44
5168.00,0.44
5167.00,0.44
5166.00,0.45
5165.00,0.45
5164.00,0.45
5163.00,0.45
5162.00,0.45
5161.00,0.45
5160.00,0.45
5159.00,0.45
5158.00,0.45
5157.00,0.45
5156.00,0.45
5155.00,0.45
5154.00,0.45
5153.00,0.45
5152.00,0.45
5151.00,0.45
5150.00,0.45
5149.00,0.45
5148.00,0.45
5147.00,0.45
5146.00,0.46
5145.00,0.46
5144.00,0.46
5143.00,0.46
5142.00,0.46
5141.00,0.46
5140.00,0.46
5139.00,0.46
5138.00,0.46
5137.00,0.46
5136.00,0.46
5135.00,0.46
5134.00,0.46
5133.00,0.46
5132.00,0.46
5131.00,0.46
5130.00,0.46
5129.00,0.47
5128.00,0.47
5127.00,0.47
5126.00,0.47
5125.00,0.47
5124.00,0.47
5123.00,0.47
5122.00,0.47
5121.00,0.47
5120.00,0.47
5119.00,0.47
5118.00,0.47
5117.00,0.47
5116.00,0.47
5115.00,0.47
5114.00,0.48
5113.00,0.48
5112.00,0.48
5111.00,0.48
5110.00,0.48
5109.00,0.48
5108.00,0.48
5107.00,0.48
5106.00,0.48
5105.00,0.48
5104.00,0.48
5103.00,0.48
5102.00,0.48
5101.00,0.48
5100.00,0.48
5099.00,0.48
5098.00,0.49
5097.00,0.49
5096.00,0.49
5095.00,0.49
5094.00,0.49
5093.00,0.49
5092.00,0.49
5091.00,0.49
5090.00,0.49
5089.00,0.49
5088.00,0.50
5087.00,0.50
5086.00,0.50
5085.00,0.50
5084.00,0.50
5083.00,0.50
5082.00,0.50
5081.00,0.50
5080.00,0.50
5079.00,0.50
5078.00,0.51
5077.00,0.51
5076.00,0.51
5075.00,0.51
5074.00,0.51
5073.00,0.51
5072.00,0.51
5071.00,0.51
5070.00,0.51
5069.00,0.51
5068.00,0.51
5067.00,0.52
5066.00,0.52
5065.00,0.52
5064.00,0.52
5063.00,0.52
5062.00,0.52
5061.00,0.52
5060.00,0.52
5059.00,0.52
5058.00,0.53
5057.00,0.53
5056.00,0.53
5055.00,0.53
5054.00,0.53
5053.00,0.53
5052.00,0.53
5051.00,0.53
5050.00,0.54
5049.00,0.54
5048.00,0.54
5047.00,0.54
5046.00,0.54
5045.00,0.54
5044.00,0.54
5043.00,0.54
5042.00,0.55
5041.00,0.55
5040.00,0.55
5039.00,0.55
5038.00,0.55
5037.00,0.55
5036.00,0.55
5035.00,0.55
5034.00,0.56
5033.00,0.56
5032.00,0.56
5031.00,0.56
5030.00,0.56
5029.00,0.56
5028.00,0.56
5027.00,0.56
5026.00,0.56
5025.00,0.57
5024.00,0.57
5023.00,0.57
5022.00,0.57
5021.00,0.57
5020.00,0.57
5019.00,0.57
5018.00,0.57
5017.00,0.57
5016.00,0.58
5015.00,0.58
5014.00,0.58
5013.00,0.58
5012.00,0.58
5011.00,0.58
5010.00,0.59
5009.00,0.59
5008.00,0.59
5007.00,0.59
5006.00,0.59
5005.00,0.59
5004.00,0.59
5003.00,0.60
5002.00,0.60
5001.00,0.60
5000.00,0.60
4999.00,0.60
4998.00,0.60
4997.00,0.60
4996.00,0.60
4995.00,0.60
4994.00,0.60
4993.00,0.61
4992.00,0.61
4991.00,0.61
4990.00,0.61
4989.00,0.61
4988.00,0.61
4987.00,0.61
4986.00,0.61
4985.00,0.61
4984.00,0.62
4983.00,0.62
4982.00,0.62
4981.00,0.62
4980.00,0.62
4979.00,0.62
4978.00,0.62
4977.00,0.63
4976.00,0.63
4975.00,0.63
4974.00,0.63
4973.00,0.63
4972.00,0.63
4971.00,0.63
4970.00,0.64
4969.00,0.64
4968.00,0.64
4967.00,0.64
4966.00,0.64
4965.00,0.64
4964.00,0.64
4963.00,0.64
4962.00,0.65
4961.00,0.65
4960.00,0.65
4959.00,0.65
4958.00,0.65
4957.00,0.65
4956.00,0.65
4955.00,0.65
4954.00,0.66
4953.00,0.66
4952.00,0.66
4951.00,0.66
4950.00,0.66
4949.00,0.66
4948.00,0.66
4947.00,0.66
4946.00,0.66
4945.00,0.66
4944.00,0.66
4943.00,0.66
4942.00,0.66
4941.00,0.66
4940.00,0.67
4939.00,0.67
4938.00,0.67
4937.00,0.67
4936.00,0.67
4935.00,0.67
4934.00,0.67
4933.00,0.67
4932.00,0.67
4931.00,0.67
4930.00,0.67
4929.00,0.68
4928.00,0.68
4927.00,0.68
4926.00,0.68
4925.00,0.68
4924.00,0.68
4923.00,0.68
4922.00,0.68
4921.00,0.68
4920.00,0.68
4919.00,0.69
4918.00,0.69
4917.00,0.69
4916.00,0.69
4915.00,0.69
4914.00,0.69
4913.00,0.69
4912.00,0.69
4911.00,0.69
4910.00,0.69
4909.00,0.69
4908.00,0.69
4907.00,0.70
4906.00,0.70
4905.00,0.70
4904.00,0.70
4903.00,0.70
4902.00,0.70
4901.00,0.70
4900.00,0.70
4899.00,0.70
4898.00,0.70
4897.00,0.70
4896.00,0.70
4895.00,0.70
4894.00,0.70
4893.00,0.70
4892.00,0.70
4891.00,0.70
4890.00,0.70
4889.00,0.70
4888.00,0.70
4887.00,0.70
4886.00,0.71
4885.00,0.71
4884.00,0.71
4883.00,0.71
4882.00,0.71
4881.00,0.71
4880.00,0.71
4879.00,0.71
4878.00,0.71
4877.00,0.71
4876.00,0.71
4875.00,0.71
4874.00,0.71
4873.00,0.71
4872.00,0.71
4871.00,0.71
4870.00,0.72
4869.00,0.72
4868.00,0.72
4867.00,0.72
4866.00,0.72
4865.00,0.72
4864.00,0.72
4863.00,0.72
4862.00,0.72
4861.00,0.72
4860.00,0.72
4859.00,0.72
4858.00,0.73
4857.00,0.73
4856.00,0.73
4855.00,0.73
4854.00,0.73
4853.00,0.73
4852.00,0.73
4851.00,0.73
4850.00,0.73
4849.00,0.73
4848.00,0.73
4847.00,0.73
4846.00,0.73
4845.00,0.74
4844.00,0.74
4843.00,0.74
4842.00,0.74
4841.00,0.74
4840.00,0.74
4839.00,0.74
4838.00,0.74
4837.00,0.74
4836.00,0.74
4835.00,0.74
4834.00,0.74
4833.00,0.74
4832.00,0.74
4831.00,0.74
4830.00,0.75
4829.00,0.75
4828.00,0.75
4827.00,0.75
4826.00,0.75
4825.00,0.75
4824.00,0.75
4823.00,0.75
4822.00,0.75
4821.00,0.75
4820.00,0.75
4819.00,0.76
4818.00,0.76
4817.00,0.76
4816.00,0.76
4815.00,0.76
4814.00,0.76
4813.00,0.76
4812.00,0.76
4811.00,0.77
4810.00,0.77
4809.00,0.77
4808.00,0.77
4807.00,0.77
4806.00,0.77
4805.00,0.77
4804.00,0.77
4803.00,0.78
4802.00,0.78
4801.00,0.78
4800.00,0.78
4799.00,0.78
4798.00,0.78
4797.00,0.78
4796.00,0.78
4795.00,0.78
4794.00,0.78
4793.00,0.79
4792.00,0.79
4791.00,0.79
4790.00,0.79
4789.00,0.79
4788.00,0.79
4787.00,0.79
4786.00,0.79
4785.00,0.80
4784.00,0.80
4783.00,0.80
4782.00,0.80
4781.00,0.80
4780.00,0.80
4779.00,0.80
4778.00,0.81
4777.00,0.81
4776.00,0.81
4775.00,0.81
4774.00,0.81
4773.00,0.81
4772.00,0.81
4771.00,0.82
4770.00,0.82
4769.00,0.82
4768.00,0.82
4767.00,0.82
4766.00,0.83
4765.00,0.83
4764.00,0.83
4763.00,0.83
4762.00,0.83
4761.00,0.84
4760.00,0.84
4759.00,0.84
4758.00,0.84
4757.00,0.84
4756.00,0.84
4755.00,0.85
4754.00,0.85
4753.00,0.85
4752.00,0.85
4751.00,0.85
4750.00,0.85
4749.00,0.86
4748.00,0.86
4747.00,0.86
4746.00,0.86
4745.00,0.86
4744.00,0.86
4743.00,0.86
4742.00,0.86
4741.00,0.87
4740.00,0.87
4739.00,0.87
4738.00,0.87
4737.00,0.87
4736.00,0.87
4735.00,0.87
4734.00,0.88
4733.00,0.88
4732.00,0.88
4731.00,0.88
4730.00,0.88
4729.00,0.88
4728.00,0.88
4727.00,0.89
4726.00,0.89
4725.00,0.89
4724.00,0.89
4723.00,0.89
4722.00,0.89
4721.00,0.89
4720.00,0.90
4719.00,0.90
4718.00,0.90
4717.00,0.90
4716.00,0.90
4715.00,0.91
4714.00,0.91
4713.00,0.91
4712.00,0.91
4711.00,0.91
4710.00,0.92
4709.00,0.92
4708.00,0.92
4707.00,0.92
4706.00,0.92
4705.00,0.93
4704.00,0.93
4703.00,0.93
4702.00,0.93
4701.00,0.93
4700.00,0.93
4699.00,0.93
4698.00,0.94
4697.00,0.94
4696.00,0.94
4695.00,0.94
4694.00,0.94
4693.00,0.94
4692.00,0.94
4691.00,0.95
4690.00,0.95
4689.00,0.95
4688.00,0.95
4687.00,0.95
4686.00,0.95
4685.00,0.96
4684.00,0.96
4683.00,0.96
4682.00,0.96
4681.00,0.96
4680.00,0.96
4679.00,0.96
4678.00,0.97
4677.00,0.97
4676.00,0.97
4675.00,0.97
4674.00,0.97
4673.00,0.97
4672.00,0.97
4671.00,0.98
4670.00,0.98
4669.00,0.98
4668.00,0.98
4667.00,0.98
4666.00,0.98
4665.00,0.98
4664.00,0.98
4663.00,0.99
4662.00,0.99
4661.00,0.99
4660.00,0.99
4659.00,0.99
4658.00,0.99
4657.00,0.99
4656.00,0.99
4655.00,1.00
4654.00,1.00
4653.00,1.00
4652.00,1.00
4651.00,1.00
4650.00,1.00
4649.00,1.00
4648.00,1.00
4647.00,1.00
4646.00,1.00
4645.00,1.01
4644.00,1.01
4643.00,1.01
4642.00,1.01
4641.00,1.01
4640.00,1.01
4639.00,1.01
4638.00,1.01
4637.00,1.02
4636.00,1.02
4635.00,1.02
4634.00,1.02
4633.00,1.02
4632.00,1.02
4631.00,1.02
4630.00,1.02
4629.00,1.02
4628.00,1.03
4627.00,1.03
4626.00,1.03
4625.00,1.03
4624.00,1.03
4623.00,1.03
4622.00,1.03
4621.00,1.03
4620.00,1.03
4619.00,1.03
4618.00,1.03
4617.00,1.03
4616.00,1.03
4615.00,1.03
4614.00,1.03
4613.00,1.03
4612.00,1.03
4611.00,1.04
4610.00,1.04
4609.00,1.04
4608.00,1.04
4607.00,1.04
4606.00,1.04
4605.00,1.04
4604.00,1.04
4603.00,1.04
4602.00,1.04
4601.00,1.04
4600.00,1.04
4599.00,1.04
4598.00,1.04
4597.00,1.04
4596.00,1.04
4595.00,1.05
4594.00,1.05
4593.00,1.05
4592.00,1.05
4591.00,1.05
4590.00,1.05
4589.00,1.05
4588.00,1.05
4587.00,1.05
4586.00,1.05
4585.00,1.05
4584.00,1.06
4583.00,1.06
4582.00,1.06
4581.00,1.06
4580.00,1.06
4579.00,1.06
4578.00,1.06
4577.00,1.06
4576.00,1.06
4575.00,1.07
4574.00,1.07
4573.00,1.07
4572.00,1.07
4571.00,1.07
4570.00,1.07
4569.00,1.07
4568.00,1.07
4567.00,1.07
4566.00,1.07
4565.00,1.07
4564.00,1.07
4563.00,1.07
4562.00,1.08
4561.00,1.08
4560.00,1.08
4559.00,1.08
4558.00,1.08
4557.00,1.08
4556.00,1.08
4555.00,1.08
4554.00,1.08
4553.00,1.08
4552.00,1.08
4551.00,1.08
4550.00,1.08
4549.00,1.08
4548.00,1.09
4547.00,1.09
4546.00,1.09
4545.00,1.09
4544.00,1.09
4543.00,1.09
4542.00,1.09
4541.00,1.09
4540.00,1.09
4539.00,1.09
4538.00,1.09
4537.00,1.09
4536.00,1.09
4535.00,1.09
4534.00,1.09
4533.00,1.09
4532.00,1.10
4531.00,1.10
4530.00,1.10
4529.00,1.10
4528.00,1.10
4527.00,1.10
4526.00,1.10
4525.00,1.10
4524.00,1.10
4523.00,1.10
4522.00,1.10
4521.00,1.10
4520.00,1.10
4519.00,1.10
4518.00,1.10
4517.00,1.10
4516.00,1.10
4515.00,1.10
4514.00,1.10
4513.00,1.10
4512.00,1.10
4511.00,1.10
4510.00,1.10
4509.00,1.10
4508.00,1.10
4507.00,1.10
4506.00,1.10
4505.00,1.10
4504.00,1.10
4503.00,1.10
4502.00,1.10
4501.00,1.10
4500.00,1.10
4499.00,1.10
4498.00,1.10
4497.00,1.10
4496.00,1.10
4495.00,1.10
4494.00,1.10
4493.00,1.10
4492.00,1.10
4491.00,1.10
4490.00,1.10
4489.00,1.10
4488.00,1.10
4487.00,1.10
4486.00,1.10
4485.00,1.09
4484.00,1.09
4483.00,1.09
4482.00,1.09
4481.00,1.09
4480.00,1.09
4479.00,1.09
4478.00,1.08
4477.00,1.08
4476.00,1.08
4475.00,1.08
4474.00,1.08
4473.00,1.08
4472.00,1.07
4471.00,1.07
4470.00,1.07
4469.00,1.07
4468.00,1.06
4467.00,1.06
4466.00,1.06
4465.00,1.06
4464.00,1.05
4463.00,1.05
4462.00,1.05
4461.00,1.05
4460.00,1.04
4459.00,1.04
4458.00,1.03
4457.00,1.03
4456.00,1.03
4455.00,1.02
4454.00,1.02
4453.00,1.01
4452.00,1.01
4451.00,1.01
4450.00,1.00
4449.00,1.00
4448.00,0.99
4447.00,0.98
4446.00,0.98
4445.00,0.97
4444.00,0.97
4443.00,0.96
4442.00,0.95
4441.00,0.95
4440.00,0.94
4439.00,0.93
4438.00,0.93
4437.00,0.92
4436.00,0.91
4435.00,0.90
4434.00,0.90
4433.00,0.89
4432.00,0.88
4431.00,0.88
4430.00,0.87
4429.00,0.86
4428.00,0.86
4427.00,0.85
4426.00,0.84
4425.00,0.84
4424.00,0.83
4423.00,0.83
4422.00,0.82
4421.00,0.82
4420.00,0.82
4419.00,0.81
4418.00,0.81
4417.00,0.81
4416.00,0.81
4415.00,0.80
4414.00,0.80
4413.00,0.80
4412.00,0.80
4411.00,0.80
4410.00,0.80
4409.00,0.80
4408.00,0.80
4407.00,0.81
4406.00,0.81
4405.00,0.81
4404.00,0.81
4403.00,0.81
4402.00,0.81
4401.00,0.81
4400.00,0.82
4399.00,0.82
4398.00,0.82
4397.00,0.82
4396.00,0.82
4395.00,0.83
4394.00,0.83
4393.00,0.83
4392.00,0.83
4391.00,0.84
4390.00,0.84
4389.00,0.84
4388.00,0.85
4387.00,0.85
4386.00,0.85
4385.00,0.86
4384.00,0.86
4383.00,0.86
4382.00,0.87
4381.00,0.87
4380.00,0.87
4379.00,0.87
4378.00,0.88
4377.00,0.88
4376.00,0.88
4375.00,0.88
4374.00,0.88
4373.00,0.89
4372.00,0.89
4371.00,0.89
4370.00,0.89
4369.00,0.89
4368.00,0.89
4367.00,0.88
4366.00,0.88
4365.00,0.88
4364.00,0.88
4363.00,0.88
4362.00,0.88
4361.00,0.88
4360.00,0.87
4359.00,0.87
4358.00,0.87
4357.00,0.87
4356.00,0.86
4355.00,0.86
4354.00,0.86
4353.00,0.86
4352.00,0.85
4351.00,0.85
4350.00,0.85
4349.00,0.85
4348.00,0.85
4347.00,0.84
4346.00,0.84
4345.00,0.84
4344.00,0.84
4343.00,0.84
4342.00,0.84
4341.00,0.84
4340.00,0.84
4339.00,0.84
4338.00,0.84
4337.00,0.84
4336.00,0.84
4335.00,0.84
4334.00,0.85
4333.00,0.85
4332.00,0.85
4331.00,0.85
4330.00,0.86
4329.00,0.86
4328.00,0.86
4327.00,0.87
4326.00,0.87
4325.00,0.88
4324.00,0.88
4323.00,0.88
4322.00,0.89
4321.00,0.89
4320.00,0.90
4319.00,0.90
4318.00,0.90
4317.00,0.91
4316.00,0.91
4315.00,0.92
4314.00,0.92
4313.00,0.92
4312.00,0.93
4311.00,0.93
4310.00,0.94
4309.00,0.94
4308.00,0.95
4307.00,0.95
4306.00,0.95
4305.00,0.96
4304.00,0.96
4303.00,0.97
4302.00,0.97
4301.00,0.97
4300.00,0.98
4299.00,0.98
4298.00,0.99
4297.00,0.99
4296.00,0.99
4295.00,1.00
4294.00,1.00
4293.00,1.00
4292.00,1.00
4291.00,1.01
4290.00,1.01
4289.00,1.01
4288.00,1.01
4287.00,1.01
4286.00,1.01
4285.00,1.02
4284.00,1.02
4283.00,1.02
4282.00,1.02
4281.00,1.02
4280.00,1.02
4279.00,1.02
4278.00,1.01
4277.00,1.01
4276.00,1.01
4275.00,1.01
4274.00,1.01
4273.00,1.01
4272.00,1.01
4271.00,1.01
4270.00,1.01
4269.00,1.00
4268.00,1.00
4267.00,1.00
4266.00,1.00
4265.00,1.00
4264.00,1.00
4263.00,0.99
4262.00,0.99
4261.00,0.99
4260.00,0.99
4259.00,0.99
4258.00,0.99
4257.00,0.99
4256.00,0.99
4255.00,0.99
4254.00,0.99
4253.00,0.99
4252.00,0.99
4251.00,0.99
4250.00,0.99
4249.00,0.99
4248.00,0.99
4247.00,0.99
4246.00,0.99
4245.00,1.00
4244.00,1.00
4243.00,1.00
4242.00,1.00
4241.00,1.01
4240.00,1.01
4239.00,1.01
4238.00,1.01
4237.00,1.02
4236.00,1.02
4235.00,1.02
4234.00,1.03
4233.00,1.03
4232.00,1.03
4231.00,1.03
4230.00,1.04
4229.00,1.04
4228.00,1.04
4227.00,1.04
4226.00,1.05
4225.00,1.05
4224.00,1.05
4223.00,1.05
4222.00,1.05
4221.00,1.06
4220.00,1.06
4219.00,1.06
4218.00,1.06
4217.00,1.06
4216.00,1.06
4215.00,1.06
4214.00,1.06
4213.00,1.06
4212.00,1.06
4211.00,1.07
4210.00,1.07
4209.00,1.07
4208.00,1.07
4207.00,1.07
4206.00,1.07
4205.00,1.07
4204.00,1.07
4203.00,1.07
4202.00,1.07
4201.00,1.07
4200.00,1.07
4199.00,1.07
4198.00,1.07
4197.00,1.07
4196.00,1.07
4195.00,1.07
4194.00,1.07
4193.00,1.07
4192.00,1.07
4191.00,1.07
4190.00,1.07
4189.00,1.07
4188.00,1.07
4187.00,1.07
4186.00,1.07
4185.00,1.07
4184.00,1.07
4183.00,1.07
4182.00,1.07
4181.00,1.07
4180.00,1.07
4179.00,1.07
4178.00,1.07
4177.00,1.06
4176.00,1.06
4175.00,1.06
4174.00,1.06
4173.00,1.06
4172.00,1.06
4171.00,1.06
4170.00,1.06
4169.00,1.06
4168.00,1.06
4167.00,1.06
4166.00,1.06
4165.00,1.06
4164.00,1.06
4163.00,1.06
4162.00,1.06
4161.00,1.06
4160.00,1.06
4159.00,1.06
4158.00,1.06
4157.00,1.06
4156.00,1.06
4155.00,1.06
4154.00,1.06
4153.00,1.06
4152.00,1.06
4151.00,1.06
4150.00,1.06
4149.00,1.06
4148.00,1.06
4147.00,1.06
4146.00,1.06
4145.00,1.06
4144.00,1.06
4143.00,1.06
4142.00,1.06
4141.00,1.06
4140.00,1.06
4139.00,1.07
4138.00,1.07
4137.00,1.07
4136.00,1.07
4135.00,1.06
4134.00,1.06
4133.00,1.06
4132.00,1.06
4131.00,1.06
4130.00,1.06
4129.00,1.06
4128.00,1.06
4127.00,1.06
4126.00,1.06
4125.00,1.06
4124.00,1.06
4123.00,1.06
4122.00,1.06
4121.00,1.06
4120.00,1.06
4119.00,1.06
4118.00,1.06
4117.00,1.06
4116.00,1.06
4115.00,1.06
4114.00,1.06
4113.00,1.06
4112.00,1.06
4111.00,1.06
4110.00,1.06
4109.00,1.06
4108.00,1.06
4107.00,1.06
4106.00,1.06
4105.00,1.06
4104.00,1.06
4103.00,1.06
4102.00,1.06
4101.00,1.06
4100.00,1.06
4099.00,1.06
4098.00,1.06
4097.00,1.05
4096.00,1.05
4095.00,1.05
4094.00,1.05
4093.00,1.05
4092.00,1.05
4091.00,1.05
4090.00,1.05
4089.00,1.05
4088.00,1.05
4087.00,1.05
4086.00,1.05
4085.00,1.05
4084.00,1.05
4083.00,1.05
4082.00,1.05
4081.00,1.05
4080.00,1.05
4079.00,1.05
4078.00,1.05
4077.00,1.05
4076.00,1.05
4075.00,1.05
4074.00,1.05
4073.00,1.05
4072.00,1.05
4071.00,1.05
4070.00,1.05
4069.00,1.05
4068.00,1.04
4067.00,1.04
4066.00,1.04
4065.00,1.04
4064.00,1.04
4063.00,1.04
4062.00,1.04
4061.00,1.04
4060.00,1.04
4059.00,1.04
4058.00,1.04
4057.00,1.05
4056.00,1.05
4055.00,1.05
4054.00,1.05
4053.00,1.05
4052.00,1.05
4051.00,1.06
4050.00,1.06
4049.00,1.06
4048.00,1.06
4047.00,1.06
4046.00,1.06
4045.00,1.06
4044.00,1.07
4043.00,1.07
4042.00,1.07
4041.00,1.07
4040.00,1.07
4039.00,1.07
4038.00,1.07
4037.00,1.07
4036.00,1.07
4035.00,1.07
4034.00,1.07
4033.00,1.08
4032.00,1.08
4031.00,1.08
4030.00,1.08
4029.00,1.08
4028.00,1.08
4027.00,1.08
4026.00,1.08
4025.00,1.08
4024.00,1.09
4023.00,1.09
4022.00,1.09
4021.00,1.09
4020.00,1.09
4019.00,1.09
4018.00,1.09
4017.00,1.09
4016.00,1.09
4015.00,1.10
4014.00,1.10
4013.00,1.10
4012.00,1.10
4011.00,1.10
4010.00,1.10
4009.00,1.10
4008.00,1.10
4007.00,1.10
4006.00,1.10
4005.00,1.10
4004.00,1.10
4003.00,1.10
4002.00,1.10
4001.00,1.10
4000.00,1.10
