创建为新数据集,样品 506 用户 Administrator 日期 星期一, 七月 16 2018
cm-1,%T
10000.00,1.07
9999.00,1.07
9998.00,1.07
9997.00,1.07
9996.00,1.06
9995.00,1.06
9994.00,1.06
9993.00,1.06
9992.00,1.06
9991.00,1.06
9990.00,1.06
9989.00,1.06
9988.00,1.06
9987.00,1.06
9986.00,1.06
9985.00,1.06
9984.00,1.06
9983.00,1.06
9982.00,1.06
9981.00,1.06
9980.00,1.06
9979.00,1.06
9978.00,1.06
9977.00,1.06
9976.00,1.06
9975.00,1.06
9974.00,1.06
9973.00,1.06
9972.00,1.06
9971.00,1.06
9970.00,1.06
9969.00,1.06
9968.00,1.06
9967.00,1.06
9966.00,1.06
9965.00,1.06
9964.00,1.06
9963.00,1.06
9962.00,1.06
9961.00,1.06
9960.00,1.06
9959.00,1.06
9958.00,1.06
9957.00,1.06
9956.00,1.06
9955.00,1.06
9954.00,1.06
9953.00,1.06
9952.00,1.06
9951.00,1.06
9950.00,1.06
9949.00,1.07
9948.00,1.07
9947.00,1.07
9946.00,1.07
9945.00,1.07
9944.00,1.07
9943.00,1.07
9942.00,1.07
9941.00,1.07
9940.00,1.07
9939.00,1.07
9938.00,1.07
9937.00,1.07
9936.00,1.07
9935.00,1.07
9934.00,1.07
9933.00,1.07
9932.00,1.07
9931.00,1.06
9930.00,1.06
9929.00,1.06
9928.00,1.06
9927.00,1.06
9926.00,1.06
9925.00,1.06
9924.00,1.06
9923.00,1.06
9922.00,1.06
9921.00,1.06
9920.00,1.06
9919.00,1.06
9918.00,1.05
9917.00,1.05
9916.00,1.05
9915.00,1.05
9914.00,1.05
9913.00,1.05
9912.00,1.05
9911.00,1.05
9910.00,1.05
9909.00,1.05
9908.00,1.05
9907.00,1.05
9906.00,1.05
9905.00,1.06
9904.00,1.06
9903.00,1.06
9902.00,1.06
9901.00,1.06
9900.00,1.06
9899.00,1.06
9898.00,1.06
9897.00,1.06
9896.00,1.06
9895.00,1.06
9894.00,1.06
9893.00,1.06
9892.00,1.06
9891.00,1.06
9890.00,1.06
9889.00,1.06
9888.00,1.06
9887.00,1.06
9886.00,1.05
9885.00,1.05
9884.00,1.05
9883.00,1.05
9882.00,1.05
9881.00,1.05
9880.00,1.05
9879.00,1.05
9878.00,1.05
9877.00,1.04
9876.00,1.04
9875.00,1.04
9874.00,1.04
9873.00,1.04
9872.00,1.04
9871.00,1.04
9870.00,1.04
9869.00,1.04
9868.00,1.04
9867.00,1.04
9866.00,1.04
9865.00,1.04
9864.00,1.05
9863.00,1.05
9862.00,1.05
9861.00,1.05
9860.00,1.05
9859.00,1.05
9858.00,1.05
9857.00,1.05
9856.00,1.06
9855.00,1.06
9854.00,1.06
9853.00,1.06
9852.00,1.06
9851.00,1.06
9850.00,1.06
9849.00,1.06
9848.00,1.06
9847.00,1.06
9846.00,1.06
9845.00,1.06
9844.00,1.06
9843.00,1.06
9842.00,1.06
9841.00,1.06
9840.00,1.06
9839.00,1.06
9838.00,1.06
9837.00,1.06
9836.00,1.06
9835.00,1.06
9834.00,1.06
9833.00,1.06
9832.00,1.06
9831.00,1.06
9830.00,1.05
9829.00,1.05
9828.00,1.05
9827.00,1.05
9826.00,1.05
9825.00,1.05
9824.00,1.05
9823.00,1.05
9822.00,1.05
9821.00,1.05
9820.00,1.05
9819.00,1.05
9818.00,1.05
9817.00,1.05
9816.00,1.05
9815.00,1.05
9814.00,1.05
9813.00,1.05
9812.00,1.05
9811.00,1.04
9810.00,1.04
9809.00,1.04
9808.00,1.04
9807.00,1.04
9806.00,1.04
9805.00,1.04
9804.00,1.04
9803.00,1.03
9802.00,1.03
9801.00,1.03
9800.00,1.03
9799.00,1.03
9798.00,1.03
9797.00,1.03
9796.00,1.03
9795.00,1.03
9794.00,1.03
9793.00,1.03
9792.00,1.03
9791.00,1.03
9790.00,1.03
9789.00,1.03
9788.00,1.03
9787.00,1.03
9786.00,1.03
9785.00,1.03
9784.00,1.04
9783.00,1.04
9782.00,1.04
9781.00,1.04
9780.00,1.04
9779.00,1.04
9778.00,1.05
9777.00,1.05
9776.00,1.05
9775.00,1.05
9774.00,1.05
9773.00,1.05
9772.00,1.04
9771.00,1.04
9770.00,1.04
9769.00,1.04
9768.00,1.04
9767.00,1.04
9766.00,1.04
9765.00,1.04
9764.00,1.04
9763.00,1.04
9762.00,1.04
9761.00,1.04
9760.00,1.04
9759.00,1.04
9758.00,1.04
9757.00,1.04
9756.00,1.04
9755.00,1.05
9754.00,1.05
9753.00,1.05
9752.00,1.05
9751.00,1.06
9750.00,1.06
9749.00,1.06
9748.00,1.06
9747.00,1.07
9746.00,1.07
9745.00,1.07
9744.00,1.07
9743.00,1.07
9742.00,1.07
9741.00,1.07
9740.00,1.06
9739.00,1.06
9738.00,1.06
9737.00,1.06
9736.00,1.05
9735.00,1.05
9734.00,1.04
9733.00,1.04
9732.00,1.04
9731.00,1.03
9730.00,1.03
9729.00,1.02
9728.00,1.02
9727.00,1.02
9726.00,1.02
9725.00,1.02
9724.00,1.02
9723.00,1.02
9722.00,1.02
9721.00,1.02
9720.00,1.02
9719.00,1.02
9718.00,1.03
9717.00,1.03
9716.00,1.03
9715.00,1.03
9714.00,1.04
9713.00,1.04
9712.00,1.04
9711.00,1.04
9710.00,1.04
9709.00,1.04
9708.00,1.04
9707.00,1.04
9706.00,1.04
9705.00,1.04
9704.00,1.04
9703.00,1.04
9702.00,1.03
9701.00,1.03
9700.00,1.03
9699.00,1.03
9698.00,1.02
9697.00,1.02
9696.00,1.02
9695.00,1.02
9694.00,1.02
9693.00,1.02
9692.00,1.01
9691.00,1.01
9690.00,1.01
9689.00,1.01
9688.00,1.01
9687.00,1.01
9686.00,1.01
9685.00,1.01
9684.00,1.01
9683.00,1.02
9682.00,1.02
9681.00,1.02
9680.00,1.02
9679.00,1.02
9678.00,1.03
9677.00,1.03
9676.00,1.03
9675.00,1.03
9674.00,1.04
9673.00,1.04
9672.00,1.04
9671.00,1.04
9670.00,1.04
9669.00,1.04
9668.00,1.04
9667.00,1.04
9666.00,1.04
9665.00,1.04
9664.00,1.04
9663.00,1.04
9662.00,1.04
9661.00,1.04
9660.00,1.04
9659.00,1.04
9658.00,1.04
9657.00,1.04
9656.00,1.04
9655.00,1.03
9654.00,1.03
9653.00,1.03
9652.00,1.03
9651.00,1.03
9650.00,1.03
9649.00,1.02
9648.00,1.02
9647.00,1.02
9646.00,1.02
9645.00,1.02
9644.00,1.02
9643.00,1.01
9642.00,1.01
9641.00,1.01
9640.00,1.01
9639.00,1.01
9638.00,1.01
9637.00,1.01
9636.00,1.01
9635.00,1.01
9634.00,1.02
9633.00,1.02
9632.00,1.02
9631.00,1.02
9630.00,1.02
9629.00,1.03
9628.00,1.03
9627.00,1.03
9626.00,1.03
9625.00,1.04
9624.00,1.04
9623.00,1.04
9622.00,1.04
9621.00,1.04
9620.00,1.04
9619.00,1.04
9618.00,1.04
9617.00,1.04
9616.00,1.04
9615.00,1.04
9614.00,1.04
9613.00,1.04
9612.00,1.04
9611.00,1.04
9610.00,1.04
9609.00,1.04
9608.00,1.04
9607.00,1.04
9606.00,1.03
9605.00,1.03
9604.00,1.03
9603.00,1.03
9602.00,1.02
9601.00,1.02
9600.00,1.02
9599.00,1.02
9598.00,1.02
9597.00,1.01
9596.00,1.01
9595.00,1.01
9594.00,1.01
9593.00,1.01
9592.00,1.01
9591.00,1.01
9590.00,1.01
9589.00,1.01
9588.00,1.01
9587.00,1.02
9586.00,1.02
9585.00,1.02
9584.00,1.02
9583.00,1.03
9582.00,1.03
9581.00,1.03
9580.00,1.04
9579.00,1.04
9578.00,1.04
9577.00,1.04
9576.00,1.05
9575.00,1.05
9574.00,1.05
9573.00,1.05
9572.00,1.05
9571.00,1.05
9570.00,1.05
9569.00,1.05
9568.00,1.05
9567.00,1.05
9566.00,1.05
9565.00,1.05
9564.00,1.05
9563.00,1.05
9562.00,1.05
9561.00,1.05
9560.00,1.05
9559.00,1.04
9558.00,1.04
9557.00,1.04
9556.00,1.04
9555.00,1.04
9554.00,1.04
9553.00,1.04
9552.00,1.04
9551.00,1.04
9550.00,1.04
9549.00,1.04
9548.00,1.04
9547.00,1.04
9546.00,1.04
9545.00,1.04
9544.00,1.04
9543.00,1.05
9542.00,1.05
9541.00,1.05
9540.00,1.05
9539.00,1.05
9538.00,1.05
9537.00,1.04
9536.00,1.04
9535.00,1.04
9534.00,1.04
9533.00,1.04
9532.00,1.04
9531.00,1.03
9530.00,1.03
9529.00,1.03
9528.00,1.03
9527.00,1.03
9526.00,1.03
9525.00,1.03
9524.00,1.03
9523.00,1.03
9522.00,1.03
9521.00,1.03
9520.00,1.03
9519.00,1.03
9518.00,1.03
9517.00,1.03
9516.00,1.03
9515.00,1.04
9514.00,1.04
9513.00,1.04
9512.00,1.03
9511.00,1.03
9510.00,1.03
9509.00,1.03
9508.00,1.03
9507.00,1.03
9506.00,1.03
9505.00,1.03
9504.00,1.03
9503.00,1.03
9502.00,1.03
9501.00,1.03
9500.00,1.03
9499.00,1.03
9498.00,1.03
9497.00,1.03
9496.00,1.03
9495.00,1.04
9494.00,1.04
9493.00,1.04
9492.00,1.04
9491.00,1.04
9490.00,1.05
9489.00,1.05
9488.00,1.05
9487.00,1.05
9486.00,1.05
9485.00,1.05
9484.00,1.06
9483.00,1.06
9482.00,1.06
9481.00,1.06
9480.00,1.06
9479.00,1.06
9478.00,1.05
9477.00,1.05
9476.00,1.05
9475.00,1.05
9474.00,1.05
9473.00,1.05
9472.00,1.05
9471.00,1.04
9470.00,1.04
9469.00,1.04
9468.00,1.04
9467.00,1.04
9466.00,1.04
9465.00,1.04
9464.00,1.04
9463.00,1.04
9462.00,1.04
9461.00,1.04
9460.00,1.04
9459.00,1.04
9458.00,1.05
9457.00,1.05
9456.00,1.05
9455.00,1.06
9454.00,1.06
9453.00,1.06
9452.00,1.06
9451.00,1.06
9450.00,1.06
9449.00,1.06
9448.00,1.06
9447.00,1.06
9446.00,1.06
9445.00,1.06
9444.00,1.06
9443.00,1.05
9442.00,1.05
9441.00,1.05
9440.00,1.04
9439.00,1.04
9438.00,1.04
9437.00,1.04
9436.00,1.04
9435.00,1.04
9434.00,1.04
9433.00,1.03
9432.00,1.03
9431.00,1.04
9430.00,1.04
9429.00,1.04
9428.00,1.04
9427.00,1.04
9426.00,1.04
9425.00,1.04
9424.00,1.04
9423.00,1.04
9422.00,1.04
9421.00,1.04
9420.00,1.04
9419.00,1.04
9418.00,1.04
9417.00,1.04
9416.00,1.03
9415.00,1.03
9414.00,1.03
9413.00,1.03
9412.00,1.03
9411.00,1.03
9410.00,1.03
9409.00,1.03
9408.00,1.03
9407.00,1.03
9406.00,1.03
9405.00,1.03
9404.00,1.03
9403.00,1.03
9402.00,1.03
9401.00,1.03
9400.00,1.03
9399.00,1.03
9398.00,1.03
9397.00,1.03
9396.00,1.03
9395.00,1.03
9394.00,1.03
9393.00,1.03
9392.00,1.03
9391.00,1.03
9390.00,1.03
9389.00,1.03
9388.00,1.03
9387.00,1.03
9386.00,1.03
9385.00,1.03
9384.00,1.03
9383.00,1.03
9382.00,1.03
9381.00,1.03
9380.00,1.03
9379.00,1.03
9378.00,1.04
9377.00,1.04
9376.00,1.04
9375.00,1.04
9374.00,1.04
9373.00,1.04
9372.00,1.04
9371.00,1.04
9370.00,1.04
9369.00,1.05
9368.00,1.05
9367.00,1.05
9366.00,1.05
9365.00,1.05
9364.00,1.05
9363.00,1.05
9362.00,1.05
9361.00,1.04
9360.00,1.04
9359.00,1.04
9358.00,1.04
9357.00,1.04
9356.00,1.04
9355.00,1.04
9354.00,1.04
9353.00,1.04
9352.00,1.04
9351.00,1.04
9350.00,1.04
9349.00,1.04
9348.00,1.04
9347.00,1.03
9346.00,1.03
9345.00,1.03
9344.00,1.03
9343.00,1.03
9342.00,1.03
9341.00,1.03
9340.00,1.03
9339.00,1.03
9338.00,1.03
9337.00,1.03
9336.00,1.03
9335.00,1.03
9334.00,1.03
9333.00,1.03
9332.00,1.03
9331.00,1.03
9330.00,1.03
9329.00,1.03
9328.00,1.03
9327.00,1.03
9326.00,1.03
9325.00,1.03
9324.00,1.03
9323.00,1.03
9322.00,1.03
9321.00,1.03
9320.00,1.04
9319.00,1.04
9318.00,1.04
9317.00,1.04
9316.00,1.04
9315.00,1.04
9314.00,1.04
9313.00,1.04
9312.00,1.04
9311.00,1.04
9310.00,1.04
9309.00,1.04
9308.00,1.04
9307.00,1.04
9306.00,1.04
9305.00,1.04
9304.00,1.04
9303.00,1.04
9302.00,1.04
9301.00,1.04
9300.00,1.04
9299.00,1.05
9298.00,1.05
9297.00,1.05
9296.00,1.05
9295.00,1.05
9294.00,1.06
9293.00,1.06
9292.00,1.06
9291.00,1.06
9290.00,1.06
9289.00,1.07
9288.00,1.07
9287.00,1.07
9286.00,1.07
9285.00,1.07
9284.00,1.07
9283.00,1.07
9282.00,1.07
9281.00,1.07
9280.00,1.06
9279.00,1.06
9278.00,1.06
9277.00,1.06
9276.00,1.06
9275.00,1.06
9274.00,1.05
9273.00,1.05
9272.00,1.05
9271.00,1.05
9270.00,1.05
9269.00,1.05
9268.00,1.05
9267.00,1.05
9266.00,1.05
9265.00,1.05
9264.00,1.05
9263.00,1.05
9262.00,1.05
9261.00,1.05
9260.00,1.05
9259.00,1.05
9258.00,1.05
9257.00,1.05
9256.00,1.05
9255.00,1.05
9254.00,1.05
9253.00,1.04
9252.00,1.04
9251.00,1.04
9250.00,1.04
9249.00,1.04
9248.00,1.04
9247.00,1.04
9246.00,1.04
9245.00,1.04
9244.00,1.04
9243.00,1.04
9242.00,1.04
9241.00,1.04
9240.00,1.04
9239.00,1.04
9238.00,1.04
9237.00,1.04
9236.00,1.04
9235.00,1.04
9234.00,1.04
9233.00,1.04
9232.00,1.03
9231.00,1.03
9230.00,1.03
9229.00,1.03
9228.00,1.03
9227.00,1.03
9226.00,1.03
9225.00,1.02
9224.00,1.02
9223.00,1.02
9222.00,1.02
9221.00,1.02
9220.00,1.02
9219.00,1.02
9218.00,1.02
9217.00,1.02
9216.00,1.02
9215.00,1.02
9214.00,1.02
9213.00,1.03
9212.00,1.03
9211.00,1.03
9210.00,1.03
9209.00,1.03
9208.00,1.03
9207.00,1.03
9206.00,1.04
9205.00,1.04
9204.00,1.04
9203.00,1.04
9202.00,1.04
9201.00,1.04
9200.00,1.04
9199.00,1.04
9198.00,1.04
9197.00,1.04
9196.00,1.04
9195.00,1.04
9194.00,1.04
9193.00,1.04
9192.00,1.04
9191.00,1.04
9190.00,1.04
9189.00,1.04
9188.00,1.04
9187.00,1.04
9186.00,1.04
9185.00,1.04
9184.00,1.04
9183.00,1.04
9182.00,1.04
9181.00,1.04
9180.00,1.04
9179.00,1.03
9178.00,1.03
9177.00,1.03
9176.00,1.03
9175.00,1.03
9174.00,1.03
9173.00,1.03
9172.00,1.03
9171.00,1.03
9170.00,1.03
9169.00,1.03
9168.00,1.03
9167.00,1.03
9166.00,1.03
9165.00,1.03
9164.00,1.03
9163.00,1.03
9162.00,1.03
9161.00,1.03
9160.00,1.03
9159.00,1.03
9158.00,1.03
9157.00,1.03
9156.00,1.03
9155.00,1.03
9154.00,1.03
9153.00,1.03
9152.00,1.03
9151.00,1.03
9150.00,1.03
9149.00,1.03
9148.00,1.03
9147.00,1.03
9146.00,1.03
9145.00,1.04
9144.00,1.04
9143.00,1.04
9142.00,1.04
9141.00,1.04
9140.00,1.04
9139.00,1.04
9138.00,1.05
9137.00,1.05
9136.00,1.05
9135.00,1.05
9134.00,1.05
9133.00,1.05
9132.00,1.05
9131.00,1.04
9130.00,1.04
9129.00,1.04
9128.00,1.04
9127.00,1.04
9126.00,1.04
9125.00,1.04
9124.00,1.04
9123.00,1.04
9122.00,1.04
9121.00,1.04
9120.00,1.04
9119.00,1.04
9118.00,1.04
9117.00,1.04
9116.00,1.04
9115.00,1.04
9114.00,1.04
9113.00,1.04
9112.00,1.04
9111.00,1.04
9110.00,1.04
9109.00,1.04
9108.00,1.04
9107.00,1.04
9106.00,1.04
9105.00,1.04
9104.00,1.04
9103.00,1.04
9102.00,1.04
9101.00,1.04
9100.00,1.04
9099.00,1.04
9098.00,1.04
9097.00,1.04
9096.00,1.04
9095.00,1.04
9094.00,1.04
9093.00,1.04
9092.00,1.04
9091.00,1.04
9090.00,1.05
9089.00,1.05
9088.00,1.05
9087.00,1.05
9086.00,1.05
9085.00,1.05
9084.00,1.05
9083.00,1.05
9082.00,1.05
9081.00,1.05
9080.00,1.05
9079.00,1.05
9078.00,1.05
9077.00,1.05
9076.00,1.05
9075.00,1.05
9074.00,1.04
9073.00,1.04
9072.00,1.04
9071.00,1.04
9070.00,1.04
9069.00,1.04
9068.00,1.04
9067.00,1.03
9066.00,1.03
9065.00,1.03
9064.00,1.03
9063.00,1.03
9062.00,1.03
9061.00,1.03
9060.00,1.03
9059.00,1.03
9058.00,1.03
9057.00,1.03
9056.00,1.03
9055.00,1.03
9054.00,1.03
9053.00,1.03
9052.00,1.03
9051.00,1.03
9050.00,1.03
9049.00,1.04
9048.00,1.04
9047.00,1.04
9046.00,1.04
9045.00,1.04
9044.00,1.04
9043.00,1.04
9042.00,1.04
9041.00,1.04
9040.00,1.04
9039.00,1.04
9038.00,1.04
9037.00,1.04
9036.00,1.04
9035.00,1.04
9034.00,1.04
9033.00,1.04
9032.00,1.04
9031.00,1.04
9030.00,1.04
9029.00,1.04
9028.00,1.04
9027.00,1.05
9026.00,1.05
9025.00,1.05
9024.00,1.05
9023.00,1.05
9022.00,1.05
9021.00,1.05
9020.00,1.05
9019.00,1.05
9018.00,1.05
9017.00,1.05
9016.00,1.05
9015.00,1.05
9014.00,1.05
9013.00,1.05
9012.00,1.05
9011.00,1.05
9010.00,1.04
9009.00,1.04
9008.00,1.04
9007.00,1.04
9006.00,1.04
9005.00,1.04
9004.00,1.04
9003.00,1.04
9002.00,1.04
9001.00,1.04
9000.00,1.04
8999.00,1.03
8998.00,1.03
8997.00,1.03
8996.00,1.03
8995.00,1.03
8994.00,1.03
8993.00,1.03
8992.00,1.03
8991.00,1.03
8990.00,1.03
8989.00,1.03
8988.00,1.03
8987.00,1.03
8986.00,1.03
8985.00,1.03
8984.00,1.03
8983.00,1.03
8982.00,1.03
8981.00,1.03
8980.00,1.04
8979.00,1.04
8978.00,1.04
8977.00,1.04
8976.00,1.04
8975.00,1.04
8974.00,1.04
8973.00,1.05
8972.00,1.05
8971.00,1.05
8970.00,1.05
8969.00,1.05
8968.00,1.05
8967.00,1.05
8966.00,1.05
8965.00,1.05
8964.00,1.05
8963.00,1.05
8962.00,1.05
8961.00,1.05
8960.00,1.05
8959.00,1.05
8958.00,1.05
8957.00,1.05
8956.00,1.05
8955.00,1.05
8954.00,1.05
8953.00,1.05
8952.00,1.04
8951.00,1.04
8950.00,1.04
8949.00,1.04
8948.00,1.04
8947.00,1.04
8946.00,1.04
8945.00,1.04
8944.00,1.04
8943.00,1.04
8942.00,1.04
8941.00,1.04
8940.00,1.04
8939.00,1.04
8938.00,1.04
8937.00,1.04
8936.00,1.04
8935.00,1.04
8934.00,1.04
8933.00,1.04
8932.00,1.04
8931.00,1.04
8930.00,1.04
8929.00,1.04
8928.00,1.04
8927.00,1.04
8926.00,1.04
8925.00,1.04
8924.00,1.04
8923.00,1.05
8922.00,1.05
8921.00,1.05
8920.00,1.05
8919.00,1.05
8918.00,1.05
8917.00,1.05
8916.00,1.05
8915.00,1.05
8914.00,1.05
8913.00,1.05
8912.00,1.05
8911.00,1.05
8910.00,1.05
8909.00,1.05
8908.00,1.05
8907.00,1.05
8906.00,1.05
8905.00,1.04
8904.00,1.04
8903.00,1.04
8902.00,1.04
8901.00,1.04
8900.00,1.04
8899.00,1.04
8898.00,1.04
8897.00,1.04
8896.00,1.04
8895.00,1.04
8894.00,1.04
8893.00,1.04
8892.00,1.04
8891.00,1.04
8890.00,1.04
8889.00,1.04
8888.00,1.04
8887.00,1.04
8886.00,1.04
8885.00,1.04
8884.00,1.04
8883.00,1.04
8882.00,1.04
8881.00,1.04
8880.00,1.04
8879.00,1.04
8878.00,1.04
8877.00,1.04
8876.00,1.04
8875.00,1.04
8874.00,1.04
8873.00,1.04
8872.00,1.03
8871.00,1.03
8870.00,1.03
8869.00,1.03
8868.00,1.03
8867.00,1.03
8866.00,1.03
8865.00,1.03
8864.00,1.03
8863.00,1.03
8862.00,1.03
8861.00,1.03
8860.00,1.03
8859.00,1.03
8858.00,1.03
8857.00,1.03
8856.00,1.04
8855.00,1.04
8854.00,1.04
8853.00,1.04
8852.00,1.04
8851.00,1.04
8850.00,1.04
8849.00,1.04
8848.00,1.04
8847.00,1.04
8846.00,1.05
8845.00,1.05
8844.00,1.05
8843.00,1.05
8842.00,1.05
8841.00,1.05
8840.00,1.05
8839.00,1.05
8838.00,1.05
8837.00,1.05
8836.00,1.05
8835.00,1.05
8834.00,1.05
8833.00,1.05
8832.00,1.05
8831.00,1.05
8830.00,1.05
8829.00,1.05
8828.00,1.05
8827.00,1.04
8826.00,1.04
8825.00,1.04
8824.00,1.04
8823.00,1.04
8822.00,1.04
8821.00,1.03
8820.00,1.03
8819.00,1.03
8818.00,1.03
8817.00,1.03
8816.00,1.03
8815.00,1.02
8814.00,1.02
8813.00,1.02
8812.00,1.02
8811.00,1.02
8810.00,1.02
8809.00,1.02
8808.00,1.02
8807.00,1.02
8806.00,1.02
8805.00,1.02
8804.00,1.02
8803.00,1.02
8802.00,1.02
8801.00,1.03
8800.00,1.03
8799.00,1.03
8798.00,1.03
8797.00,1.03
8796.00,1.03
8795.00,1.03
8794.00,1.03
8793.00,1.03
8792.00,1.03
8791.00,1.03
8790.00,1.03
8789.00,1.03
8788.00,1.03
8787.00,1.03
8786.00,1.03
8785.00,1.03
8784.00,1.03
8783.00,1.03
8782.00,1.03
8781.00,1.03
8780.00,1.03
8779.00,1.03
8778.00,1.03
8777.00,1.03
8776.00,1.04
8775.00,1.04
8774.00,1.04
8773.00,1.04
8772.00,1.04
8771.00,1.04
8770.00,1.04
8769.00,1.04
8768.00,1.04
8767.00,1.04
8766.00,1.04
8765.00,1.04
8764.00,1.04
8763.00,1.04
8762.00,1.03
8761.00,1.03
8760.00,1.03
8759.00,1.03
8758.00,1.03
8757.00,1.03
8756.00,1.03
8755.00,1.03
8754.00,1.03
8753.00,1.03
8752.00,1.03
8751.00,1.03
8750.00,1.03
8749.00,1.02
8748.00,1.02
8747.00,1.02
8746.00,1.02
8745.00,1.02
8744.00,1.02
8743.00,1.02
8742.00,1.02
8741.00,1.02
8740.00,1.02
8739.00,1.02
8738.00,1.02
8737.00,1.02
8736.00,1.02
8735.00,1.02
8734.00,1.02
8733.00,1.02
8732.00,1.02
8731.00,1.02
8730.00,1.02
8729.00,1.02
8728.00,1.02
8727.00,1.02
8726.00,1.02
8725.00,1.02
8724.00,1.02
8723.00,1.02
8722.00,1.03
8721.00,1.03
8720.00,1.03
8719.00,1.03
8718.00,1.03
8717.00,1.03
8716.00,1.03
8715.00,1.03
8714.00,1.03
8713.00,1.03
8712.00,1.03
8711.00,1.03
8710.00,1.03
8709.00,1.03
8708.00,1.03
8707.00,1.04
8706.00,1.04
8705.00,1.04
8704.00,1.04
8703.00,1.04
8702.00,1.04
8701.00,1.04
8700.00,1.04
8699.00,1.04
8698.00,1.04
8697.00,1.04
8696.00,1.04
8695.00,1.04
8694.00,1.04
8693.00,1.04
8692.00,1.04
8691.00,1.04
8690.00,1.04
8689.00,1.03
8688.00,1.03
8687.00,1.03
8686.00,1.03
8685.00,1.02
8684.00,1.02
8683.00,1.02
8682.00,1.02
8681.00,1.02
8680.00,1.01
8679.00,1.01
8678.00,1.01
8677.00,1.01
8676.00,1.01
8675.00,1.01
8674.00,1.01
8673.00,1.01
8672.00,1.01
8671.00,1.01
8670.00,1.01
8669.00,1.01
8668.00,1.01
8667.00,1.01
8666.00,1.01
8665.00,1.01
8664.00,1.02
8663.00,1.02
8662.00,1.02
8661.00,1.02
8660.00,1.02
8659.00,1.02
8658.00,1.02
8657.00,1.02
8656.00,1.02
8655.00,1.02
8654.00,1.02
8653.00,1.02
8652.00,1.02
8651.00,1.02
8650.00,1.02
8649.00,1.02
8648.00,1.02
8647.00,1.02
8646.00,1.02
8645.00,1.02
8644.00,1.02
8643.00,1.02
8642.00,1.03
8641.00,1.03
8640.00,1.03
8639.00,1.03
8638.00,1.03
8637.00,1.03
8636.00,1.03
8635.00,1.03
8634.00,1.03
8633.00,1.03
8632.00,1.02
8631.00,1.02
8630.00,1.02
8629.00,1.02
8628.00,1.02
8627.00,1.02
8626.00,1.02
8625.00,1.02
8624.00,1.01
8623.00,1.01
8622.00,1.01
8621.00,1.01
8620.00,1.01
8619.00,1.01
8618.00,1.01
8617.00,1.01
8616.00,1.00
8615.00,1.00
8614.00,1.00
8613.00,1.00
8612.00,1.00
8611.00,1.00
8610.00,1.00
8609.00,1.00
8608.00,1.00
8607.00,1.00
8606.00,1.00
8605.00,1.00
8604.00,1.00
8603.00,1.00
8602.00,0.99
8601.00,0.99
8600.00,0.99
8599.00,0.99
8598.00,0.99
8597.00,0.99
8596.00,0.99
8595.00,0.99
8594.00,1.00
8593.00,1.00
8592.00,1.00
8591.00,1.00
8590.00,1.00
8589.00,1.00
8588.00,1.00
8587.00,1.00
8586.00,1.00
8585.00,1.00
8584.00,1.00
8583.00,1.00
8582.00,1.01
8581.00,1.01
8580.00,1.01
8579.00,1.01
8578.00,1.01
8577.00,1.01
8576.00,1.01
8575.00,1.01
8574.00,1.01
8573.00,1.01
8572.00,1.01
8571.00,1.01
8570.00,1.01
8569.00,1.01
8568.00,1.01
8567.00,1.01
8566.00,1.01
8565.00,1.01
8564.00,1.01
8563.00,1.01
8562.00,1.01
8561.00,1.01
8560.00,1.01
8559.00,1.01
8558.00,1.01
8557.00,1.01
8556.00,1.01
8555.00,1.01
8554.00,1.01
8553.00,1.01
8552.00,1.01
8551.00,1.01
8550.00,1.01
8549.00,1.01
8548.00,1.01
8547.00,1.00
8546.00,1.00
8545.00,1.00
8544.00,1.00
8543.00,1.00
8542.00,1.00
8541.00,1.00
8540.00,1.00
8539.00,1.00
8538.00,1.00
8537.00,1.00
8536.00,1.00
8535.00,1.00
8534.00,1.00
8533.00,1.00
8532.00,1.00
8531.00,1.00
8530.00,1.00
8529.00,1.00
8528.00,1.00
8527.00,1.00
8526.00,1.00
8525.00,1.00
8524.00,1.00
8523.00,1.00
8522.00,1.00
8521.00,1.00
8520.00,1.00
8519.00,1.00
8518.00,1.00
8517.00,1.00
8516.00,1.00
8515.00,0.99
8514.00,0.99
8513.00,0.99
8512.00,0.99
8511.00,0.99
8510.00,0.98
8509.00,0.98
8508.00,0.98
8507.00,0.98
8506.00,0.98
8505.00,0.97
8504.00,0.97
8503.00,0.97
8502.00,0.97
8501.00,0.97
8500.00,0.97
8499.00,0.97
8498.00,0.97
8497.00,0.97
8496.00,0.97
8495.00,0.97
8494.00,0.98
8493.00,0.98
8492.00,0.98
8491.00,0.98
8490.00,0.98
8489.00,0.98
8488.00,0.98
8487.00,0.98
8486.00,0.98
8485.00,0.98
8484.00,0.98
8483.00,0.98
8482.00,0.98
8481.00,0.98
8480.00,0.98
8479.00,0.98
8478.00,0.98
8477.00,0.98
8476.00,0.98
8475.00,0.98
8474.00,0.98
8473.00,0.98
8472.00,0.98
8471.00,0.98
8470.00,0.98
8469.00,0.98
8468.00,0.98
8467.00,0.99
8466.00,0.99
8465.00,0.99
8464.00,0.99
8463.00,0.99
8462.00,0.99
8461.00,0.99
8460.00,0.99
8459.00,0.99
8458.00,0.99
8457.00,0.99
8456.00,0.99
8455.00,0.99
8454.00,0.99
8453.00,0.98
8452.00,0.98
8451.00,0.98
8450.00,0.98
8449.00,0.98
8448.00,0.98
8447.00,0.98
8446.00,0.98
8445.00,0.97
8444.00,0.97
8443.00,0.97
8442.00,0.97
8441.00,0.97
8440.00,0.96
8439.00,0.96
8438.00,0.96
8437.00,0.96
8436.00,0.96
8435.00,0.96
8434.00,0.96
8433.00,0.96
8432.00,0.96
8431.00,0.96
8430.00,0.96
8429.00,0.96
8428.00,0.96
8427.00,0.96
8426.00,0.96
8425.00,0.96
8424.00,0.96
8423.00,0.96
8422.00,0.96
8421.00,0.97
8420.00,0.97
8419.00,0.97
8418.00,0.97
8417.00,0.97
8416.00,0.97
8415.00,0.97
8414.00,0.97
8413.00,0.97
8412.00,0.97
8411.00,0.97
8410.00,0.98
8409.00,0.98
8408.00,0.98
8407.00,0.98
8406.00,0.98
8405.00,0.98
8404.00,0.98
8403.00,0.98
8402.00,0.98
8401.00,0.99
8400.00,0.99
8399.00,0.99
8398.00,0.99
8397.00,0.99
8396.00,0.99
8395.00,0.99
8394.00,0.99
8393.00,0.99
8392.00,0.99
8391.00,0.98
8390.00,0.98
8389.00,0.98
8388.00,0.98
8387.00,0.98
8386.00,0.98
8385.00,0.98
8384.00,0.98
8383.00,0.98
8382.00,0.98
8381.00,0.98
8380.00,0.98
8379.00,0.98
8378.00,0.98
8377.00,0.98
8376.00,0.98
8375.00,0.98
8374.00,0.98
8373.00,0.98
8372.00,0.98
8371.00,0.99
8370.00,0.99
8369.00,0.99
8368.00,0.99
8367.00,0.99
8366.00,0.99
8365.00,0.99
8364.00,0.99
8363.00,0.99
8362.00,0.99
8361.00,0.99
8360.00,0.99
8359.00,0.99
8358.00,0.99
8357.00,0.99
8356.00,0.99
8355.00,0.99
8354.00,0.99
8353.00,0.99
8352.00,0.99
8351.00,0.99
8350.00,0.99
8349.00,0.99
8348.00,0.99
8347.00,0.99
8346.00,1.00
8345.00,1.00
8344.00,1.00
8343.00,1.00
8342.00,1.00
8341.00,1.00
8340.00,1.00
8339.00,1.00
8338.00,1.00
8337.00,1.00
8336.00,1.00
8335.00,1.00
8334.00,1.00
8333.00,1.00
8332.00,1.00
8331.00,1.00
8330.00,1.00
8329.00,1.00
8328.00,1.00
8327.00,1.00
8326.00,1.00
8325.00,1.00
8324.00,1.00
8323.00,1.00
8322.00,1.00
8321.00,1.00
8320.00,1.00
8319.00,0.99
8318.00,0.99
8317.00,0.99
8316.00,0.99
8315.00,0.99
8314.00,0.99
8313.00,0.99
8312.00,0.99
8311.00,0.99
8310.00,0.99
8309.00,0.99
8308.00,0.99
8307.00,0.99
8306.00,0.99
8305.00,0.99
8304.00,0.99
8303.00,1.00
8302.00,1.00
8301.00,1.00
8300.00,1.00
8299.00,1.00
8298.00,1.00
8297.00,1.00
8296.00,1.00
8295.00,1.00
8294.00,1.00
8293.00,1.00
8292.00,1.00
8291.00,1.00
8290.00,1.00
8289.00,1.00
8288.00,1.00
8287.00,1.00
8286.00,1.00
8285.00,1.00
8284.00,1.00
8283.00,1.00
8282.00,1.00
8281.00,1.00
8280.00,1.00
8279.00,1.00
8278.00,1.00
8277.00,1.00
8276.00,1.00
8275.00,1.00
8274.00,1.00
8273.00,1.00
8272.00,1.00
8271.00,1.00
8270.00,1.00
8269.00,1.00
8268.00,1.00
8267.00,1.00
8266.00,1.00
8265.00,1.00
8264.00,1.00
8263.00,1.00
8262.00,1.00
8261.00,1.00
8260.00,1.00
8259.00,1.00
8258.00,1.00
8257.00,1.00
8256.00,1.00
8255.00,0.99
8254.00,0.99
8253.00,0.99
8252.00,0.99
8251.00,0.99
8250.00,0.99
8249.00,0.99
8248.00,0.99
8247.00,0.99
8246.00,0.99
8245.00,0.99
8244.00,0.99
8243.00,0.99
8242.00,0.99
8241.00,0.99
8240.00,1.00
8239.00,1.00
8238.00,1.00
8237.00,1.00
8236.00,1.00
8235.00,1.00
8234.00,1.00
8233.00,1.00
8232.00,1.00
8231.00,1.00
8230.00,1.01
8229.00,1.01
8228.00,1.01
8227.00,1.01
8226.00,1.01
8225.00,1.01
8224.00,1.01
8223.00,1.01
8222.00,1.01
8221.00,1.01
8220.00,1.01
8219.00,1.01
8218.00,1.01
8217.00,1.01
8216.00,1.01
8215.00,1.01
8214.00,1.01
8213.00,1.01
8212.00,1.01
8211.00,1.01
8210.00,1.01
8209.00,1.01
8208.00,1.02
8207.00,1.02
8206.00,1.02
8205.00,1.02
8204.00,1.02
8203.00,1.02
8202.00,1.02
8201.00,1.02
8200.00,1.02
8199.00,1.02
8198.00,1.02
8197.00,1.02
8196.00,1.02
8195.00,1.02
8194.00,1.02
8193.00,1.02
8192.00,1.02
8191.00,1.02
8190.00,1.02
8189.00,1.02
8188.00,1.02
8187.00,1.02
8186.00,1.02
8185.00,1.02
8184.00,1.02
8183.00,1.02
8182.00,1.02
8181.00,1.02
8180.00,1.02
8179.00,1.02
8178.00,1.02
8177.00,1.02
8176.00,1.02
8175.00,1.03
8174.00,1.03
8173.00,1.03
8172.00,1.03
8171.00,1.02
8170.00,1.02
8169.00,1.02
8168.00,1.02
8167.00,1.02
8166.00,1.02
8165.00,1.02
8164.00,1.02
8163.00,1.02
8162.00,1.02
8161.00,1.02
8160.00,1.02
8159.00,1.02
8158.00,1.02
8157.00,1.02
8156.00,1.02
8155.00,1.02
8154.00,1.02
8153.00,1.02
8152.00,1.02
8151.00,1.02
8150.00,1.02
8149.00,1.03
8148.00,1.03
8147.00,1.03
8146.00,1.03
8145.00,1.03
8144.00,1.03
8143.00,1.03
8142.00,1.03
8141.00,1.03
8140.00,1.03
8139.00,1.03
8138.00,1.03
8137.00,1.03
8136.00,1.03
8135.00,1.03
8134.00,1.03
8133.00,1.03
8132.00,1.03
8131.00,1.03
8130.00,1.03
8129.00,1.03
8128.00,1.03
8127.00,1.03
8126.00,1.03
8125.00,1.03
8124.00,1.03
8123.00,1.03
8122.00,1.03
8121.00,1.03
8120.00,1.03
8119.00,1.03
8118.00,1.03
8117.00,1.03
8116.00,1.03
8115.00,1.03
8114.00,1.03
8113.00,1.03
8112.00,1.04
8111.00,1.04
8110.00,1.04
8109.00,1.04
8108.00,1.04
8107.00,1.04
8106.00,1.04
8105.00,1.04
8104.00,1.03
8103.00,1.03
8102.00,1.03
8101.00,1.03
8100.00,1.03
8099.00,1.03
8098.00,1.03
8097.00,1.03
8096.00,1.03
8095.00,1.03
8094.00,1.03
8093.00,1.03
8092.00,1.03
8091.00,1.03
8090.00,1.03
8089.00,1.03
8088.00,1.03
8087.00,1.03
8086.00,1.03
8085.00,1.03
8084.00,1.03
8083.00,1.03
8082.00,1.03
8081.00,1.03
8080.00,1.03
8079.00,1.04
8078.00,1.04
8077.00,1.04
8076.00,1.04
8075.00,1.04
8074.00,1.04
8073.00,1.04
8072.00,1.04
8071.00,1.04
8070.00,1.04
8069.00,1.04
8068.00,1.04
8067.00,1.04
8066.00,1.04
8065.00,1.04
8064.00,1.04
8063.00,1.04
8062.00,1.04
8061.00,1.04
8060.00,1.04
8059.00,1.04
8058.00,1.04
8057.00,1.04
8056.00,1.04
8055.00,1.04
8054.00,1.04
8053.00,1.04
8052.00,1.04
8051.00,1.04
8050.00,1.04
8049.00,1.04
8048.00,1.04
8047.00,1.04
8046.00,1.04
8045.00,1.04
8044.00,1.04
8043.00,1.04
8042.00,1.04
8041.00,1.04
8040.00,1.04
8039.00,1.04
8038.00,1.04
8037.00,1.04
8036.00,1.04
8035.00,1.04
8034.00,1.04
8033.00,1.04
8032.00,1.04
8031.00,1.04
8030.00,1.04
8029.00,1.04
8028.00,1.04
8027.00,1.04
8026.00,1.04
8025.00,1.04
8024.00,1.04
8023.00,1.05
8022.00,1.05
8021.00,1.05
8020.00,1.05
8019.00,1.05
8018.00,1.05
8017.00,1.05
8016.00,1.05
8015.00,1.05
8014.00,1.05
8013.00,1.05
8012.00,1.05
8011.00,1.04
8010.00,1.04
8009.00,1.04
8008.00,1.04
8007.00,1.04
8006.00,1.04
8005.00,1.04
8004.00,1.04
8003.00,1.04
8002.00,1.04
8001.00,1.04
8000.00,1.04
7999.00,1.04
7998.00,1.04
7997.00,1.04
7996.00,1.04
7995.00,1.04
7994.00,1.04
7993.00,1.04
7992.00,1.04
7991.00,1.04
7990.00,1.04
7989.00,1.04
7988.00,1.04
7987.00,1.04
7986.00,1.04
7985.00,1.04
7984.00,1.04
7983.00,1.04
7982.00,1.05
7981.00,1.05
7980.00,1.05
7979.00,1.05
7978.00,1.05
7977.00,1.05
7976.00,1.05
7975.00,1.05
7974.00,1.05
7973.00,1.05
7972.00,1.05
7971.00,1.04
7970.00,1.04
7969.00,1.04
7968.00,1.04
7967.00,1.04
7966.00,1.04
7965.00,1.04
7964.00,1.04
7963.00,1.04
7962.00,1.04
7961.00,1.04
7960.00,1.04
7959.00,1.04
7958.00,1.04
7957.00,1.04
7956.00,1.04
7955.00,1.04
7954.00,1.04
7953.00,1.04
7952.00,1.04
7951.00,1.04
7950.00,1.04
7949.00,1.04
7948.00,1.04
7947.00,1.05
7946.00,1.05
7945.00,1.05
7944.00,1.05
7943.00,1.05
7942.00,1.05
7941.00,1.05
7940.00,1.05
7939.00,1.05
7938.00,1.05
7937.00,1.05
7936.00,1.05
7935.00,1.05
7934.00,1.05
7933.00,1.05
7932.00,1.05
7931.00,1.05
7930.00,1.06
7929.00,1.06
7928.00,1.06
7927.00,1.06
7926.00,1.06
7925.00,1.06
7924.00,1.06
7923.00,1.06
7922.00,1.06
7921.00,1.06
7920.00,1.06
7919.00,1.06
7918.00,1.06
7917.00,1.06
7916.00,1.06
7915.00,1.06
7914.00,1.06
7913.00,1.06
7912.00,1.06
7911.00,1.06
7910.00,1.06
7909.00,1.06
7908.00,1.06
7907.00,1.06
7906.00,1.06
7905.00,1.05
7904.00,1.05
7903.00,1.05
7902.00,1.05
7901.00,1.05
7900.00,1.05
7899.00,1.05
7898.00,1.05
7897.00,1.05
7896.00,1.05
7895.00,1.05
7894.00,1.05
7893.00,1.05
7892.00,1.05
7891.00,1.05
7890.00,1.05
7889.00,1.05
7888.00,1.05
7887.00,1.05
7886.00,1.05
7885.00,1.05
7884.00,1.05
7883.00,1.05
7882.00,1.05
7881.00,1.05
7880.00,1.05
7879.00,1.05
7878.00,1.05
7877.00,1.05
7876.00,1.05
7875.00,1.05
7874.00,1.05
7873.00,1.05
7872.00,1.05
7871.00,1.05
7870.00,1.05
7869.00,1.05
7868.00,1.05
7867.00,1.05
7866.00,1.05
7865.00,1.05
7864.00,1.05
7863.00,1.05
7862.00,1.05
7861.00,1.05
7860.00,1.05
7859.00,1.05
7858.00,1.05
7857.00,1.05
7856.00,1.05
7855.00,1.05
7854.00,1.05
7853.00,1.05
7852.00,1.05
7851.00,1.05
7850.00,1.05
7849.00,1.06
7848.00,1.06
7847.00,1.06
7846.00,1.06
7845.00,1.06
7844.00,1.06
7843.00,1.06
7842.00,1.06
7841.00,1.06
7840.00,1.07
7839.00,1.07
7838.00,1.07
7837.00,1.07
7836.00,1.07
7835.00,1.07
7834.00,1.07
7833.00,1.07
7832.00,1.07
7831.00,1.07
7830.00,1.07
7829.00,1.07
7828.00,1.07
7827.00,1.07
7826.00,1.07
7825.00,1.07
7824.00,1.07
7823.00,1.07
7822.00,1.07
7821.00,1.07
7820.00,1.07
7819.00,1.07
7818.00,1.07
7817.00,1.07
7816.00,1.07
7815.00,1.07
7814.00,1.07
7813.00,1.07
7812.00,1.07
7811.00,1.07
7810.00,1.07
7809.00,1.07
7808.00,1.06
7807.00,1.06
7806.00,1.06
7805.00,1.06
7804.00,1.06
7803.00,1.06
7802.00,1.06
7801.00,1.06
7800.00,1.06
7799.00,1.06
7798.00,1.06
7797.00,1.06
7796.00,1.06
7795.00,1.06
7794.00,1.06
7793.00,1.06
7792.00,1.06
7791.00,1.07
7790.00,1.07
7789.00,1.07
7788.00,1.07
7787.00,1.07
7786.00,1.07
7785.00,1.07
7784.00,1.07
7783.00,1.07
7782.00,1.07
7781.00,1.07
7780.00,1.07
7779.00,1.07
7778.00,1.07
7777.00,1.07
7776.00,1.07
7775.00,1.07
7774.00,1.07
7773.00,1.07
7772.00,1.07
7771.00,1.07
7770.00,1.07
7769.00,1.07
7768.00,1.07
7767.00,1.07
7766.00,1.07
7765.00,1.07
7764.00,1.07
7763.00,1.07
7762.00,1.07
7761.00,1.07
7760.00,1.07
7759.00,1.07
7758.00,1.07
7757.00,1.07
7756.00,1.07
7755.00,1.07
7754.00,1.07
7753.00,1.07
7752.00,1.07
7751.00,1.06
7750.00,1.06
7749.00,1.06
7748.00,1.06
7747.00,1.06
7746.00,1.06
7745.00,1.06
7744.00,1.06
7743.00,1.06
7742.00,1.06
7741.00,1.06
7740.00,1.06
7739.00,1.06
7738.00,1.06
7737.00,1.06
7736.00,1.06
7735.00,1.06
7734.00,1.06
7733.00,1.06
7732.00,1.06
7731.00,1.06
7730.00,1.06
7729.00,1.06
7728.00,1.06
7727.00,1.06
7726.00,1.06
7725.00,1.07
7724.00,1.07
7723.00,1.07
7722.00,1.07
7721.00,1.07
7720.00,1.07
7719.00,1.07
7718.00,1.07
7717.00,1.07
7716.00,1.07
7715.00,1.07
7714.00,1.07
7713.00,1.07
7712.00,1.07
7711.00,1.07
7710.00,1.07
7709.00,1.07
7708.00,1.07
7707.00,1.07
7706.00,1.07
7705.00,1.07
7704.00,1.07
7703.00,1.07
7702.00,1.07
7701.00,1.07
7700.00,1.07
7699.00,1.07
7698.00,1.07
7697.00,1.07
7696.00,1.06
7695.00,1.06
7694.00,1.06
7693.00,1.06
7692.00,1.06
7691.00,1.06
7690.00,1.06
7689.00,1.06
7688.00,1.07
7687.00,1.07
7686.00,1.07
7685.00,1.07
7684.00,1.07
7683.00,1.07
7682.00,1.07
7681.00,1.07
7680.00,1.07
7679.00,1.07
7678.00,1.07
7677.00,1.07
7676.00,1.07
7675.00,1.07
7674.00,1.07
7673.00,1.07
7672.00,1.07
7671.00,1.07
7670.00,1.06
7669.00,1.06
7668.00,1.06
7667.00,1.06
7666.00,1.06
7665.00,1.06
7664.00,1.06
7663.00,1.06
7662.00,1.06
7661.00,1.06
7660.00,1.06
7659.00,1.06
7658.00,1.06
7657.00,1.06
7656.00,1.06
7655.00,1.06
7654.00,1.06
7653.00,1.06
7652.00,1.06
7651.00,1.06
7650.00,1.06
7649.00,1.06
7648.00,1.06
7647.00,1.06
7646.00,1.06
7645.00,1.06
7644.00,1.06
7643.00,1.06
7642.00,1.06
7641.00,1.06
7640.00,1.06
7639.00,1.06
7638.00,1.07
7637.00,1.07
7636.00,1.07
7635.00,1.07
7634.00,1.07
7633.00,1.07
7632.00,1.07
7631.00,1.07
7630.00,1.07
7629.00,1.07
7628.00,1.07
7627.00,1.07
7626.00,1.07
7625.00,1.07
7624.00,1.07
7623.00,1.07
7622.00,1.07
7621.00,1.07
7620.00,1.07
7619.00,1.07
7618.00,1.07
7617.00,1.07
7616.00,1.07
7615.00,1.07
7614.00,1.07
7613.00,1.07
7612.00,1.07
7611.00,1.07
7610.00,1.07
7609.00,1.07
7608.00,1.07
7607.00,1.07
7606.00,1.07
7605.00,1.07
7604.00,1.07
7603.00,1.07
7602.00,1.07
7601.00,1.07
7600.00,1.07
7599.00,1.07
7598.00,1.07
7597.00,1.07
7596.00,1.07
7595.00,1.07
7594.00,1.07
7593.00,1.07
7592.00,1.07
7591.00,1.07
7590.00,1.07
7589.00,1.07
7588.00,1.07
7587.00,1.07
7586.00,1.07
7585.00,1.07
7584.00,1.07
7583.00,1.07
7582.00,1.07
7581.00,1.07
7580.00,1.07
7579.00,1.07
7578.00,1.07
7577.00,1.07
7576.00,1.07
7575.00,1.07
7574.00,1.07
7573.00,1.07
7572.00,1.07
7571.00,1.07
7570.00,1.07
7569.00,1.07
7568.00,1.07
7567.00,1.07
7566.00,1.07
7565.00,1.07
7564.00,1.07
7563.00,1.07
7562.00,1.07
7561.00,1.07
7560.00,1.07
7559.00,1.07
7558.00,1.07
7557.00,1.06
7556.00,1.06
7555.00,1.06
7554.00,1.06
7553.00,1.06
7552.00,1.06
7551.00,1.06
7550.00,1.06
7549.00,1.06
7548.00,1.06
7547.00,1.06
7546.00,1.06
7545.00,1.06
7544.00,1.06
7543.00,1.06
7542.00,1.06
7541.00,1.06
7540.00,1.06
7539.00,1.06
7538.00,1.06
7537.00,1.06
7536.00,1.06
7535.00,1.06
7534.00,1.06
7533.00,1.06
7532.00,1.06
7531.00,1.06
7530.00,1.06
7529.00,1.06
7528.00,1.06
7527.00,1.07
7526.00,1.07
7525.00,1.07
7524.00,1.07
7523.00,1.07
7522.00,1.07
7521.00,1.07
7520.00,1.07
7519.00,1.07
7518.00,1.07
7517.00,1.07
7516.00,1.07
7515.00,1.07
7514.00,1.07
7513.00,1.07
7512.00,1.07
7511.00,1.07
7510.00,1.07
7509.00,1.06
7508.00,1.06
7507.00,1.06
7506.00,1.06
7505.00,1.06
7504.00,1.06
7503.00,1.06
7502.00,1.06
7501.00,1.06
7500.00,1.06
7499.00,1.06
7498.00,1.06
7497.00,1.06
7496.00,1.06
7495.00,1.06
7494.00,1.06
7493.00,1.06
7492.00,1.06
7491.00,1.06
7490.00,1.06
7489.00,1.06
7488.00,1.06
7487.00,1.06
7486.00,1.06
7485.00,1.06
7484.00,1.06
7483.00,1.06
7482.00,1.06
7481.00,1.06
7480.00,1.06
7479.00,1.06
7478.00,1.06
7477.00,1.06
7476.00,1.06
7475.00,1.06
7474.00,1.06
7473.00,1.06
7472.00,1.05
7471.00,1.05
7470.00,1.05
7469.00,1.05
7468.00,1.05
7467.00,1.05
7466.00,1.05
7465.00,1.05
7464.00,1.05
7463.00,1.05
7462.00,1.05
7461.00,1.05
7460.00,1.05
7459.00,1.05
7458.00,1.05
7457.00,1.05
7456.00,1.05
7455.00,1.05
7454.00,1.05
7453.00,1.05
7452.00,1.05
7451.00,1.05
7450.00,1.05
7449.00,1.05
7448.00,1.05
7447.00,1.05
7446.00,1.05
7445.00,1.05
7444.00,1.05
7443.00,1.05
7442.00,1.05
7441.00,1.05
7440.00,1.05
7439.00,1.05
7438.00,1.05
7437.00,1.04
7436.00,1.04
7435.00,1.04
7434.00,1.04
7433.00,1.04
7432.00,1.04
7431.00,1.04
7430.00,1.04
7429.00,1.04
7428.00,1.04
7427.00,1.04
7426.00,1.04
7425.00,1.04
7424.00,1.04
7423.00,1.04
7422.00,1.04
7421.00,1.04
7420.00,1.04
7419.00,1.04
7418.00,1.04
7417.00,1.04
7416.00,1.04
7415.00,1.04
7414.00,1.04
7413.00,1.04
7412.00,1.04
7411.00,1.04
7410.00,1.04
7409.00,1.04
7408.00,1.03
7407.00,1.03
7406.00,1.03
7405.00,1.03
7404.00,1.03
7403.00,1.03
7402.00,1.03
7401.00,1.03
7400.00,1.03
7399.00,1.03
7398.00,1.02
7397.00,1.02
7396.00,1.02
7395.00,1.02
7394.00,1.02
7393.00,1.02
7392.00,1.02
7391.00,1.02
7390.00,1.02
7389.00,1.02
7388.00,1.02
7387.00,1.02
7386.00,1.02
7385.00,1.02
7384.00,1.02
7383.00,1.02
7382.00,1.02
7381.00,1.02
7380.00,1.02
7379.00,1.02
7378.00,1.02
7377.00,1.02
7376.00,1.02
7375.00,1.02
7374.00,1.02
7373.00,1.02
7372.00,1.02
7371.00,1.02
7370.00,1.02
7369.00,1.02
7368.00,1.02
7367.00,1.01
7366.00,1.01
7365.00,1.01
7364.00,1.01
7363.00,1.01
7362.00,1.01
7361.00,1.01
7360.00,1.01
7359.00,1.00
7358.00,1.00
7357.00,1.00
7356.00,1.00
7355.00,1.00
7354.00,1.00
7353.00,1.00
7352.00,1.00
7351.00,1.00
7350.00,1.00
7349.00,1.00
7348.00,1.00
7347.00,1.00
7346.00,1.00
7345.00,1.00
7344.00,1.00
7343.00,1.00
7342.00,1.00
7341.00,1.00
7340.00,1.00
7339.00,1.00
7338.00,1.00
7337.00,1.00
7336.00,1.00
7335.00,1.00
7334.00,1.00
7333.00,1.00
7332.00,1.00
7331.00,1.00
7330.00,1.00
7329.00,1.00
7328.00,1.00
7327.00,1.00
7326.00,1.00
7325.00,1.00
7324.00,1.00
7323.00,1.00
7322.00,1.00
7321.00,1.00
7320.00,1.00
7319.00,1.00
7318.00,1.00
7317.00,1.00
7316.00,1.00
7315.00,1.00
7314.00,1.00
7313.00,1.00
7312.00,1.00
7311.00,1.00
7310.00,1.00
7309.00,1.00
7308.00,1.00
7307.00,1.00
7306.00,1.00
7305.00,1.00
7304.00,1.00
7303.00,0.99
7302.00,0.99
7301.00,0.99
7300.00,0.99
7299.00,0.99
7298.00,0.99
7297.00,0.99
7296.00,0.99
7295.00,0.99
7294.00,0.99
7293.00,0.99
7292.00,0.98
7291.00,0.98
7290.00,0.98
7289.00,0.98
7288.00,0.98
7287.00,0.98
7286.00,0.98
7285.00,0.98
7284.00,0.98
7283.00,0.98
7282.00,0.98
7281.00,0.98
7280.00,0.98
7279.00,0.98
7278.00,0.98
7277.00,0.98
7276.00,0.98
7275.00,0.98
7274.00,0.98
7273.00,0.98
7272.00,0.98
7271.00,0.98
7270.00,0.98
7269.00,0.98
7268.00,0.97
7267.00,0.97
7266.00,0.97
7265.00,0.97
7264.00,0.97
7263.00,0.97
7262.00,0.97
7261.00,0.97
7260.00,0.97
7259.00,0.97
7258.00,0.96
7257.00,0.96
7256.00,0.96
7255.00,0.96
7254.00,0.96
7253.00,0.96
7252.00,0.96
7251.00,0.96
7250.00,0.96
7249.00,0.96
7248.00,0.95
7247.00,0.95
7246.00,0.95
7245.00,0.95
7244.00,0.95
7243.00,0.95
7242.00,0.95
7241.00,0.94
7240.00,0.94
7239.00,0.94
7238.00,0.94
7237.00,0.94
7236.00,0.93
7235.00,0.93
7234.00,0.93
7233.00,0.93
7232.00,0.92
7231.00,0.92
7230.00,0.92
7229.00,0.92
7228.00,0.92
7227.00,0.91
7226.00,0.91
7225.00,0.91
7224.00,0.91
7223.00,0.90
7222.00,0.90
7221.00,0.90
7220.00,0.90
7219.00,0.90
7218.00,0.90
7217.00,0.89
7216.00,0.89
7215.00,0.89
7214.00,0.89
7213.00,0.89
7212.00,0.89
7211.00,0.89
7210.00,0.88
7209.00,0.88
7208.00,0.88
7207.00,0.88
7206.00,0.88
7205.00,0.88
7204.00,0.88
7203.00,0.88
7202.00,0.87
7201.00,0.87
7200.00,0.87
7199.00,0.87
7198.00,0.87
7197.00,0.87
7196.00,0.86
7195.00,0.86
7194.00,0.86
7193.00,0.86
7192.00,0.86
7191.00,0.86
7190.00,0.86
7189.00,0.85
7188.00,0.85
7187.00,0.85
7186.00,0.85
7185.00,0.85
7184.00,0.85
7183.00,0.85
7182.00,0.84
7181.00,0.84
7180.00,0.84
7179.00,0.84
7178.00,0.84
7177.00,0.84
7176.00,0.84
7175.00,0.84
7174.00,0.83
7173.00,0.83
7172.00,0.83
7171.00,0.83
7170.00,0.83
7169.00,0.83
7168.00,0.82
7167.00,0.82
7166.00,0.82
7165.00,0.82
7164.00,0.82
7163.00,0.82
7162.00,0.81
7161.00,0.81
7160.00,0.81
7159.00,0.81
7158.00,0.81
7157.00,0.81
7156.00,0.80
7155.00,0.80
7154.00,0.80
7153.00,0.80
7152.00,0.80
7151.00,0.79
7150.00,0.79
7149.00,0.79
7148.00,0.79
7147.00,0.79
7146.00,0.78
7145.00,0.78
7144.00,0.78
7143.00,0.78
7142.00,0.77
7141.00,0.77
7140.00,0.77
7139.00,0.77
7138.00,0.76
7137.00,0.76
7136.00,0.76
7135.00,0.76
7134.00,0.76
7133.00,0.76
7132.00,0.75
7131.00,0.75
7130.00,0.75
7129.00,0.75
7128.00,0.75
7127.00,0.75
7126.00,0.74
7125.00,0.74
7124.00,0.74
7123.00,0.74
7122.00,0.74
7121.00,0.74
7120.00,0.73
7119.00,0.73
7118.00,0.73
7117.00,0.73
7116.00,0.73
7115.00,0.73
7114.00,0.72
7113.00,0.72
7112.00,0.72
7111.00,0.72
7110.00,0.72
7109.00,0.72
7108.00,0.71
7107.00,0.71
7106.00,0.71
7105.00,0.71
7104.00,0.71
7103.00,0.71
7102.00,0.70
7101.00,0.70
7100.00,0.70
7099.00,0.70
7098.00,0.70
7097.00,0.70
7096.00,0.69
7095.00,0.69
7094.00,0.69
7093.00,0.69
7092.00,0.69
7091.00,0.69
7090.00,0.68
7089.00,0.68
7088.00,0.68
7087.00,0.68
7086.00,0.68
7085.00,0.68
7084.00,0.68
7083.00,0.67
7082.00,0.67
7081.00,0.67
7080.00,0.67
7079.00,0.67
7078.00,0.67
7077.00,0.67
7076.00,0.66
7075.00,0.66
7074.00,0.66
7073.00,0.66
7072.00,0.66
7071.00,0.66
7070.00,0.66
7069.00,0.66
7068.00,0.66
7067.00,0.65
7066.00,0.65
7065.00,0.65
7064.00,0.65
7063.00,0.65
7062.00,0.65
7061.00,0.65
7060.00,0.65
7059.00,0.65
7058.00,0.65
7057.00,0.65
7056.00,0.65
7055.00,0.65
7054.00,0.64
7053.00,0.64
7052.00,0.64
7051.00,0.64
7050.00,0.64
7049.00,0.64
7048.00,0.63
7047.00,0.63
7046.00,0.63
7045.00,0.63
7044.00,0.63
7043.00,0.63
7042.00,0.62
7041.00,0.62
7040.00,0.62
7039.00,0.62
7038.00,0.62
7037.00,0.62
7036.00,0.62
7035.00,0.62
7034.00,0.62
7033.00,0.62
7032.00,0.62
7031.00,0.62
7030.00,0.62
7029.00,0.62
7028.00,0.62
7027.00,0.62
7026.00,0.62
7025.00,0.62
7024.00,0.61
7023.00,0.61
7022.00,0.61
7021.00,0.61
7020.00,0.61
7019.00,0.61
7018.00,0.61
7017.00,0.61
7016.00,0.61
7015.00,0.61
7014.00,0.61
7013.00,0.61
7012.00,0.61
7011.00,0.61
7010.00,0.61
7009.00,0.60
7008.00,0.60
7007.00,0.60
7006.00,0.60
7005.00,0.60
7004.00,0.60
7003.00,0.60
7002.00,0.60
7001.00,0.60
7000.00,0.60
6999.00,0.60
6998.00,0.60
6997.00,0.60
6996.00,0.60
6995.00,0.60
6994.00,0.60
6993.00,0.60
6992.00,0.60
6991.00,0.60
6990.00,0.60
6989.00,0.60
6988.00,0.60
6987.00,0.60
6986.00,0.60
6985.00,0.60
6984.00,0.60
6983.00,0.59
6982.00,0.59
6981.00,0.59
6980.00,0.59
6979.00,0.59
6978.00,0.59
6977.00,0.59
6976.00,0.59
6975.00,0.59
6974.00,0.59
6973.00,0.58
6972.00,0.58
6971.00,0.58
6970.00,0.58
6969.00,0.58
6968.00,0.58
6967.00,0.58
6966.00,0.58
6965.00,0.58
6964.00,0.58
6963.00,0.58
6962.00,0.58
6961.00,0.58
6960.00,0.58
6959.00,0.58
6958.00,0.58
6957.00,0.58
6956.00,0.58
6955.00,0.57
6954.00,0.57
6953.00,0.57
6952.00,0.57
6951.00,0.57
6950.00,0.57
6949.00,0.57
6948.00,0.57
6947.00,0.57
6946.00,0.57
6945.00,0.57
6944.00,0.57
6943.00,0.57
6942.00,0.57
6941.00,0.57
6940.00,0.57
6939.00,0.57
6938.00,0.57
6937.00,0.57
6936.00,0.57
6935.00,0.57
6934.00,0.57
6933.00,0.57
6932.00,0.57
6931.00,0.57
6930.00,0.57
6929.00,0.57
6928.00,0.57
6927.00,0.57
6926.00,0.57
6925.00,0.57
6924.00,0.56
6923.00,0.56
6922.00,0.56
6921.00,0.56
6920.00,0.56
6919.00,0.56
6918.00,0.56
6917.00,0.56
6916.00,0.56
6915.00,0.56
6914.00,0.56
6913.00,0.56
6912.00,0.56
6911.00,0.56
6910.00,0.56
6909.00,0.56
6908.00,0.56
6907.00,0.56
6906.00,0.56
6905.00,0.56
6904.00,0.56
6903.00,0.56
6902.00,0.56
6901.00,0.56
6900.00,0.56
6899.00,0.56
6898.00,0.56
6897.00,0.56
6896.00,0.56
6895.00,0.56
6894.00,0.56
6893.00,0.56
6892.00,0.56
6891.00,0.55
6890.00,0.55
6889.00,0.55
6888.00,0.55
6887.00,0.55
6886.00,0.55
6885.00,0.55
6884.00,0.55
6883.00,0.55
6882.00,0.55
6881.00,0.55
6880.00,0.55
6879.00,0.55
6878.00,0.55
6877.00,0.55
6876.00,0.55
6875.00,0.55
6874.00,0.55
6873.00,0.55
6872.00,0.55
6871.00,0.55
6870.00,0.56
6869.00,0.56
6868.00,0.56
6867.00,0.56
6866.00,0.56
6865.00,0.56
6864.00,0.56
6863.00,0.56
6862.00,0.56
6861.00,0.56
6860.00,0.56
6859.00,0.56
6858.00,0.56
6857.00,0.56
6856.00,0.56
6855.00,0.56
6854.00,0.56
6853.00,0.56
6852.00,0.56
6851.00,0.56
6850.00,0.56
6849.00,0.56
6848.00,0.56
6847.00,0.56
6846.00,0.56
6845.00,0.56
6844.00,0.56
6843.00,0.56
6842.00,0.56
6841.00,0.56
6840.00,0.56
6839.00,0.56
6838.00,0.56
6837.00,0.56
6836.00,0.56
6835.00,0.56
6834.00,0.56
6833.00,0.56
6832.00,0.56
6831.00,0.56
6830.00,0.56
6829.00,0.56
6828.00,0.56
6827.00,0.56
6826.00,0.56
6825.00,0.56
6824.00,0.56
6823.00,0.56
6822.00,0.57
6821.00,0.57
6820.00,0.57
6819.00,0.57
6818.00,0.57
6817.00,0.57
6816.00,0.57
6815.00,0.57
6814.00,0.57
6813.00,0.57
6812.00,0.57
6811.00,0.57
6810.00,0.57
6809.00,0.57
6808.00,0.57
6807.00,0.57
6806.00,0.57
6805.00,0.57
6804.00,0.57
6803.00,0.57
6802.00,0.57
6801.00,0.57
6800.00,0.57
6799.00,0.57
6798.00,0.58
6797.00,0.58
6796.00,0.58
6795.00,0.58
6794.00,0.58
6793.00,0.58
6792.00,0.58
6791.00,0.58
6790.00,0.58
6789.00,0.58
6788.00,0.58
6787.00,0.58
6786.00,0.58
6785.00,0.58
6784.00,0.58
6783.00,0.58
6782.00,0.58
6781.00,0.58
6780.00,0.58
6779.00,0.58
6778.00,0.58
6777.00,0.58
6776.00,0.58
6775.00,0.58
6774.00,0.58
6773.00,0.58
6772.00,0.59
6771.00,0.59
6770.00,0.59
6769.00,0.59
6768.00,0.59
6767.00,0.59
6766.00,0.59
6765.00,0.59
6764.00,0.59
6763.00,0.59
6762.00,0.59
6761.00,0.59
6760.00,0.59
6759.00,0.59
6758.00,0.59
6757.00,0.59
6756.00,0.59
6755.00,0.59
6754.00,0.59
6753.00,0.59
6752.00,0.59
6751.00,0.59
6750.00,0.59
6749.00,0.59
6748.00,0.59
6747.00,0.59
6746.00,0.59
6745.00,0.59
6744.00,0.60
6743.00,0.60
6742.00,0.60
6741.00,0.60
6740.00,0.60
6739.00,0.60
6738.00,0.60
6737.00,0.60
6736.00,0.60
6735.00,0.60
6734.00,0.60
6733.00,0.60
6732.00,0.60
6731.00,0.60
6730.00,0.60
6729.00,0.60
6728.00,0.60
6727.00,0.60
6726.00,0.60
6725.00,0.60
6724.00,0.60
6723.00,0.60
6722.00,0.60
6721.00,0.61
6720.00,0.61
6719.00,0.61
6718.00,0.61
6717.00,0.61
6716.00,0.61
6715.00,0.61
6714.00,0.61
6713.00,0.61
6712.00,0.61
6711.00,0.61
6710.00,0.62
6709.00,0.62
6708.00,0.62
6707.00,0.62
6706.00,0.62
6705.00,0.62
6704.00,0.62
6703.00,0.62
6702.00,0.63
6701.00,0.63
6700.00,0.63
6699.00,0.63
6698.00,0.63
6697.00,0.63
6696.00,0.63
6695.00,0.63
6694.00,0.63
6693.00,0.63
6692.00,0.63
6691.00,0.64
6690.00,0.64
6689.00,0.64
6688.00,0.64
6687.00,0.64
6686.00,0.64
6685.00,0.64
6684.00,0.64
6683.00,0.64
6682.00,0.64
6681.00,0.64
6680.00,0.64
6679.00,0.64
6678.00,0.64
6677.00,0.64
6676.00,0.64
6675.00,0.64
6674.00,0.64
6673.00,0.64
6672.00,0.64
6671.00,0.64
6670.00,0.65
6669.00,0.65
6668.00,0.65
6667.00,0.65
6666.00,0.65
6665.00,0.65
6664.00,0.65
6663.00,0.65
6662.00,0.65
6661.00,0.65
6660.00,0.66
6659.00,0.66
6658.00,0.66
6657.00,0.66
6656.00,0.66
6655.00,0.66
6654.00,0.66
6653.00,0.66
6652.00,0.66
6651.00,0.66
6650.00,0.66
6649.00,0.66
6648.00,0.66
6647.00,0.66
6646.00,0.66
6645.00,0.66
6644.00,0.66
6643.00,0.66
6642.00,0.66
6641.00,0.66
6640.00,0.66
6639.00,0.66
6638.00,0.66
6637.00,0.66
6636.00,0.67
6635.00,0.67
6634.00,0.67
6633.00,0.67
6632.00,0.67
6631.00,0.67
6630.00,0.67
6629.00,0.67
6628.00,0.67
6627.00,0.67
6626.00,0.67
6625.00,0.68
6624.00,0.68
6623.00,0.68
6622.00,0.68
6621.00,0.68
6620.00,0.68
6619.00,0.68
6618.00,0.68
6617.00,0.68
6616.00,0.68
6615.00,0.68
6614.00,0.68
6613.00,0.68
6612.00,0.68
6611.00,0.68
6610.00,0.69
6609.00,0.69
6608.00,0.69
6607.00,0.69
6606.00,0.69
6605.00,0.69
6604.00,0.69
6603.00,0.69
6602.00,0.69
6601.00,0.69
6600.00,0.69
6599.00,0.69
6598.00,0.69
6597.00,0.69
6596.00,0.69
6595.00,0.69
6594.00,0.70
6593.00,0.70
6592.00,0.70
6591.00,0.70
6590.00,0.70
6589.00,0.70
6588.00,0.70
6587.00,0.70
6586.00,0.70
6585.00,0.70
6584.00,0.70
6583.00,0.70
6582.00,0.71
6581.00,0.71
6580.00,0.71
6579.00,0.71
6578.00,0.71
6577.00,0.71
6576.00,0.71
6575.00,0.71
6574.00,0.71
6573.00,0.71
6572.00,0.72
6571.00,0.72
6570.00,0.72
6569.00,0.72
6568.00,0.72
6567.00,0.72
6566.00,0.72
6565.00,0.72
6564.00,0.72
6563.00,0.72
6562.00,0.72
6561.00,0.72
6560.00,0.72
6559.00,0.72
6558.00,0.72
6557.00,0.72
6556.00,0.72
6555.00,0.72
6554.00,0.72
6553.00,0.72
6552.00,0.72
6551.00,0.72
6550.00,0.73
6549.00,0.73
6548.00,0.73
6547.00,0.73
6546.00,0.73
6545.00,0.73
6544.00,0.73
6543.00,0.73
6542.00,0.73
6541.00,0.73
6540.00,0.73
6539.00,0.73
6538.00,0.73
6537.00,0.73
6536.00,0.73
6535.00,0.73
6534.00,0.73
6533.00,0.73
6532.00,0.73
6531.00,0.73
6530.00,0.73
6529.00,0.73
6528.00,0.73
6527.00,0.73
6526.00,0.73
6525.00,0.73
6524.00,0.73
6523.00,0.73
6522.00,0.73
6521.00,0.73
6520.00,0.73
6519.00,0.73
6518.00,0.74
6517.00,0.74
6516.00,0.74
6515.00,0.74
6514.00,0.74
6513.00,0.74
6512.00,0.74
6511.00,0.74
6510.00,0.74
6509.00,0.75
6508.00,0.75
6507.00,0.75
6506.00,0.75
6505.00,0.75
6504.00,0.75
6503.00,0.75
6502.00,0.75
6501.00,0.75
6500.00,0.75
6499.00,0.75
6498.00,0.75
6497.00,0.75
6496.00,0.75
6495.00,0.75
6494.00,0.75
6493.00,0.75
6492.00,0.75
6491.00,0.76
6490.00,0.76
6489.00,0.76
6488.00,0.76
6487.00,0.76
6486.00,0.76
6485.00,0.76
6484.00,0.76
6483.00,0.76
6482.00,0.76
6481.00,0.76
6480.00,0.76
6479.00,0.76
6478.00,0.76
6477.00,0.76
6476.00,0.76
6475.00,0.76
6474.00,0.76
6473.00,0.76
6472.00,0.76
6471.00,0.76
6470.00,0.76
6469.00,0.76
6468.00,0.76
6467.00,0.76
6466.00,0.76
6465.00,0.77
6464.00,0.77
6463.00,0.77
6462.00,0.77
6461.00,0.77
6460.00,0.77
6459.00,0.77
6458.00,0.77
6457.00,0.77
6456.00,0.77
6455.00,0.77
6454.00,0.77
6453.00,0.77
6452.00,0.77
6451.00,0.77
6450.00,0.77
6449.00,0.77
6448.00,0.77
6447.00,0.77
6446.00,0.77
6445.00,0.77
6444.00,0.77
6443.00,0.77
6442.00,0.77
6441.00,0.77
6440.00,0.77
6439.00,0.77
6438.00,0.77
6437.00,0.77
6436.00,0.77
6435.00,0.77
6434.00,0.77
6433.00,0.77
6432.00,0.77
6431.00,0.77
6430.00,0.77
6429.00,0.77
6428.00,0.77
6427.00,0.78
6426.00,0.78
6425.00,0.78
6424.00,0.78
6423.00,0.78
6422.00,0.78
6421.00,0.78
6420.00,0.78
6419.00,0.78
6418.00,0.78
6417.00,0.78
6416.00,0.78
6415.00,0.78
6414.00,0.78
6413.00,0.78
6412.00,0.78
6411.00,0.78
6410.00,0.78
6409.00,0.78
6408.00,0.78
6407.00,0.78
6406.00,0.78
6405.00,0.78
6404.00,0.78
6403.00,0.78
6402.00,0.79
6401.00,0.79
6400.00,0.79
6399.00,0.79
6398.00,0.79
6397.00,0.79
6396.00,0.79
6395.00,0.79
6394.00,0.79
6393.00,0.79
6392.00,0.79
6391.00,0.79
6390.00,0.79
6389.00,0.79
6388.00,0.79
6387.00,0.80
6386.00,0.80
6385.00,0.80
6384.00,0.80
6383.00,0.80
6382.00,0.80
6381.00,0.80
6380.00,0.80
6379.00,0.80
6378.00,0.80
6377.00,0.80
6376.00,0.80
6375.00,0.80
6374.00,0.80
6373.00,0.80
6372.00,0.80
6371.00,0.80
6370.00,0.80
6369.00,0.80
6368.00,0.80
6367.00,0.80
6366.00,0.80
6365.00,0.80
6364.00,0.80
6363.00,0.80
6362.00,0.80
6361.00,0.80
6360.00,0.80
6359.00,0.81
6358.00,0.81
6357.00,0.81
6356.00,0.81
6355.00,0.81
6354.00,0.81
6353.00,0.81
6352.00,0.81
6351.00,0.81
6350.00,0.81
6349.00,0.81
6348.00,0.81
6347.00,0.81
6346.00,0.81
6345.00,0.81
6344.00,0.81
6343.00,0.81
6342.00,0.81
6341.00,0.81
6340.00,0.81
6339.00,0.81
6338.00,0.81
6337.00,0.81
6336.00,0.81
6335.00,0.81
6334.00,0.82
6333.00,0.82
6332.00,0.82
6331.00,0.82
6330.00,0.82
6329.00,0.82
6328.00,0.82
6327.00,0.82
6326.00,0.82
6325.00,0.82
6324.00,0.82
6323.00,0.82
6322.00,0.82
6321.00,0.82
6320.00,0.82
6319.00,0.82
6318.00,0.82
6317.00,0.82
6316.00,0.82
6315.00,0.82
6314.00,0.82
6313.00,0.82
6312.00,0.82
6311.00,0.82
6310.00,0.82
6309.00,0.82
6308.00,0.82
6307.00,0.82
6306.00,0.82
6305.00,0.83
6304.00,0.83
6303.00,0.83
6302.00,0.83
6301.00,0.83
6300.00,0.83
6299.00,0.83
6298.00,0.83
6297.00,0.83
6296.00,0.84
6295.00,0.84
6294.00,0.84
6293.00,0.84
6292.00,0.84
6291.00,0.84
6290.00,0.84
6289.00,0.84
6288.00,0.84
6287.00,0.84
6286.00,0.85
6285.00,0.85
6284.00,0.85
6283.00,0.85
6282.00,0.85
6281.00,0.85
6280.00,0.85
6279.00,0.85
6278.00,0.85
6277.00,0.85
6276.00,0.85
6275.00,0.85
6274.00,0.85
6273.00,0.85
6272.00,0.86
6271.00,0.86
6270.00,0.86
6269.00,0.86
6268.00,0.86
6267.00,0.86
6266.00,0.86
6265.00,0.86
6264.00,0.86
6263.00,0.86
6262.00,0.86
6261.00,0.86
6260.00,0.86
6259.00,0.86
6258.00,0.87
6257.00,0.87
6256.00,0.87
6255.00,0.87
6254.00,0.87
6253.00,0.87
6252.00,0.87
6251.00,0.87
6250.00,0.87
6249.00,0.87
6248.00,0.87
6247.00,0.87
6246.00,0.87
6245.00,0.88
6244.00,0.88
6243.00,0.88
6242.00,0.88
6241.00,0.88
6240.00,0.88
6239.00,0.88
6238.00,0.88
6237.00,0.88
6236.00,0.89
6235.00,0.89
6234.00,0.89
6233.00,0.89
6232.00,0.89
6231.00,0.89
6230.00,0.89
6229.00,0.89
6228.00,0.89
6227.00,0.89
6226.00,0.89
6225.00,0.90
6224.00,0.90
6223.00,0.90
6222.00,0.90
6221.00,0.90
6220.00,0.90
6219.00,0.90
6218.00,0.90
6217.00,0.90
6216.00,0.90
6215.00,0.90
6214.00,0.90
6213.00,0.90
6212.00,0.90
6211.00,0.90
6210.00,0.90
6209.00,0.90
6208.00,0.90
6207.00,0.90
6206.00,0.90
6205.00,0.90
6204.00,0.91
6203.00,0.91
6202.00,0.91
6201.00,0.91
6200.00,0.91
6199.00,0.91
6198.00,0.91
6197.00,0.91
6196.00,0.91
6195.00,0.91
6194.00,0.91
6193.00,0.92
6192.00,0.92
6191.00,0.92
6190.00,0.92
6189.00,0.92
6188.00,0.92
6187.00,0.92
6186.00,0.92
6185.00,0.93
6184.00,0.93
6183.00,0.93
6182.00,0.93
6181.00,0.93
6180.00,0.93
6179.00,0.93
6178.00,0.93
6177.00,0.93
6176.00,0.93
6175.00,0.93
6174.00,0.93
6173.00,0.93
6172.00,0.93
6171.00,0.93
6170.00,0.93
6169.00,0.93
6168.00,0.93
6167.00,0.93
6166.00,0.93
6165.00,0.93
6164.00,0.94
6163.00,0.94
6162.00,0.94
6161.00,0.94
6160.00,0.94
6159.00,0.94
6158.00,0.94
6157.00,0.94
6156.00,0.95
6155.00,0.95
6154.00,0.95
6153.00,0.95
6152.00,0.95
6151.00,0.95
6150.00,0.95
6149.00,0.95
6148.00,0.95
6147.00,0.95
6146.00,0.95
6145.00,0.96
6144.00,0.96
6143.00,0.96
6142.00,0.96
6141.00,0.96
6140.00,0.96
6139.00,0.96
6138.00,0.96
6137.00,0.96
6136.00,0.96
6135.00,0.96
6134.00,0.96
6133.00,0.96
6132.00,0.96
6131.00,0.97
6130.00,0.97
6129.00,0.97
6128.00,0.97
6127.00,0.97
6126.00,0.97
6125.00,0.97
6124.00,0.97
6123.00,0.97
6122.00,0.98
6121.00,0.98
6120.00,0.98
6119.00,0.98
6118.00,0.98
6117.00,0.98
6116.00,0.98
6115.00,0.98
6114.00,0.98
6113.00,0.98
6112.00,0.98
6111.00,0.99
6110.00,0.99
6109.00,0.99
6108.00,0.99
6107.00,0.99
6106.00,0.99
6105.00,0.99
6104.00,0.99
6103.00,0.99
6102.00,0.99
6101.00,0.99
6100.00,0.99
6099.00,0.99
6098.00,0.99
6097.00,0.99
6096.00,0.99
6095.00,0.99
6094.00,0.99
6093.00,0.99
6092.00,1.00
6091.00,1.00
6090.00,1.00
6089.00,1.00
6088.00,1.00
6087.00,1.00
6086.00,1.00
6085.00,1.00
6084.00,1.00
6083.00,1.00
6082.00,1.00
6081.00,1.00
6080.00,1.00
6079.00,1.00
6078.00,1.01
6077.00,1.01
6076.00,1.01
6075.00,1.01
6074.00,1.01
6073.00,1.01
6072.00,1.01
6071.00,1.01
6070.00,1.01
6069.00,1.01
6068.00,1.01
6067.00,1.01
6066.00,1.01
6065.00,1.01
6064.00,1.01
6063.00,1.01
6062.00,1.02
6061.00,1.02
6060.00,1.02
6059.00,1.02
6058.00,1.02
6057.00,1.02
6056.00,1.02
6055.00,1.02
6054.00,1.02
6053.00,1.02
6052.00,1.02
6051.00,1.02
6050.00,1.02
6049.00,1.02
6048.00,1.02
6047.00,1.02
6046.00,1.02
6045.00,1.02
6044.00,1.02
6043.00,1.02
6042.00,1.02
6041.00,1.02
6040.00,1.03
6039.00,1.03
6038.00,1.03
6037.00,1.03
6036.00,1.03
6035.00,1.03
6034.00,1.03
6033.00,1.03
6032.00,1.03
6031.00,1.03
6030.00,1.03
6029.00,1.03
6028.00,1.03
6027.00,1.03
6026.00,1.03
6025.00,1.03
6024.00,1.03
6023.00,1.03
6022.00,1.03
6021.00,1.03
6020.00,1.03
6019.00,1.03
6018.00,1.03
6017.00,1.03
6016.00,1.03
6015.00,1.03
6014.00,1.03
6013.00,1.03
6012.00,1.03
6011.00,1.03
6010.00,1.03
6009.00,1.03
6008.00,1.03
6007.00,1.03
6006.00,1.03
6005.00,1.03
6004.00,1.03
6003.00,1.03
6002.00,1.03
6001.00,1.03
6000.00,1.03
5999.00,1.03
5998.00,1.03
5997.00,1.03
5996.00,1.03
5995.00,1.03
5994.00,1.03
5993.00,1.03
5992.00,1.03
5991.00,1.02
5990.00,1.02
5989.00,1.02
5988.00,1.02
5987.00,1.02
5986.00,1.02
5985.00,1.01
5984.00,1.01
5983.00,1.01
5982.00,1.01
5981.00,1.01
5980.00,1.01
5979.00,1.00
5978.00,1.00
5977.00,1.00
5976.00,1.00
5975.00,0.99
5974.00,0.99
5973.00,0.99
5972.00,0.98
5971.00,0.98
5970.00,0.98
5969.00,0.97
5968.00,0.97
5967.00,0.97
5966.00,0.96
5965.00,0.96
5964.00,0.96
5963.00,0.95
5962.00,0.95
5961.00,0.94
5960.00,0.94
5959.00,0.94
5958.00,0.93
5957.00,0.93
5956.00,0.92
5955.00,0.92
5954.00,0.91
5953.00,0.91
5952.00,0.90
5951.00,0.90
5950.00,0.90
5949.00,0.89
5948.00,0.89
5947.00,0.89
5946.00,0.88
5945.00,0.88
5944.00,0.88
5943.00,0.88
5942.00,0.88
5941.00,0.87
5940.00,0.87
5939.00,0.87
5938.00,0.87
5937.00,0.87
5936.00,0.87
5935.00,0.87
5934.00,0.87
5933.00,0.87
5932.00,0.87
5931.00,0.87
5930.00,0.87
5929.00,0.86
5928.00,0.86
5927.00,0.86
5926.00,0.86
5925.00,0.86
5924.00,0.86
5923.00,0.86
5922.00,0.86
5921.00,0.85
5920.00,0.85
5919.00,0.85
5918.00,0.85
5917.00,0.85
5916.00,0.84
5915.00,0.84
5914.00,0.84
5913.00,0.84
5912.00,0.84
5911.00,0.84
5910.00,0.84
5909.00,0.83
5908.00,0.83
5907.00,0.83
5906.00,0.83
5905.00,0.83
5904.00,0.83
5903.00,0.83
5902.00,0.83
5901.00,0.83
5900.00,0.83
5899.00,0.83
5898.00,0.83
5897.00,0.83
5896.00,0.83
5895.00,0.84
5894.00,0.84
5893.00,0.84
5892.00,0.84
5891.00,0.84
5890.00,0.84
5889.00,0.84
5888.00,0.84
5887.00,0.85
5886.00,0.85
5885.00,0.85
5884.00,0.85
5883.00,0.85
5882.00,0.85
5881.00,0.85
5880.00,0.86
5879.00,0.86
5878.00,0.86
5877.00,0.86
5876.00,0.86
5875.00,0.87
5874.00,0.87
5873.00,0.87
5872.00,0.87
5871.00,0.87
5870.00,0.87
5869.00,0.87
5868.00,0.87
5867.00,0.88
5866.00,0.88
5865.00,0.88
5864.00,0.88
5863.00,0.88
5862.00,0.88
5861.00,0.88
5860.00,0.88
5859.00,0.88
5858.00,0.88
5857.00,0.88
5856.00,0.88
5855.00,0.89
5854.00,0.89
5853.00,0.89
5852.00,0.89
5851.00,0.89
5850.00,0.89
5849.00,0.89
5848.00,0.89
5847.00,0.89
5846.00,0.89
5845.00,0.89
5844.00,0.89
5843.00,0.89
5842.00,0.89
5841.00,0.89
5840.00,0.89
5839.00,0.89
5838.00,0.89
5837.00,0.89
5836.00,0.89
5835.00,0.89
5834.00,0.89
5833.00,0.90
5832.00,0.90
5831.00,0.90
5830.00,0.90
5829.00,0.90
5828.00,0.90
5827.00,0.90
5826.00,0.90
5825.00,0.90
5824.00,0.90
5823.00,0.90
5822.00,0.90
5821.00,0.90
5820.00,0.90
5819.00,0.90
5818.00,0.90
5817.00,0.90
5816.00,0.90
5815.00,0.90
5814.00,0.90
5813.00,0.90
5812.00,0.90
5811.00,0.90
5810.00,0.90
5809.00,0.90
5808.00,0.90
5807.00,0.90
5806.00,0.89
5805.00,0.89
5804.00,0.89
5803.00,0.89
5802.00,0.89
5801.00,0.89
5800.00,0.89
5799.00,0.89
5798.00,0.89
5797.00,0.89
5796.00,0.89
5795.00,0.89
5794.00,0.89
5793.00,0.89
5792.00,0.89
5791.00,0.88
5790.00,0.88
5789.00,0.88
5788.00,0.88
5787.00,0.88
5786.00,0.88
5785.00,0.87
5784.00,0.87
5783.00,0.87
5782.00,0.87
5781.00,0.87
5780.00,0.87
5779.00,0.86
5778.00,0.86
5777.00,0.86
5776.00,0.86
5775.00,0.86
5774.00,0.86
5773.00,0.86
5772.00,0.86
5771.00,0.86
5770.00,0.86
5769.00,0.86
5768.00,0.86
5767.00,0.86
5766.00,0.86
5765.00,0.86
5764.00,0.86
5763.00,0.86
5762.00,0.87
5761.00,0.87
5760.00,0.87
5759.00,0.87
5758.00,0.87
5757.00,0.88
5756.00,0.88
5755.00,0.88
5754.00,0.88
5753.00,0.89
5752.00,0.89
5751.00,0.89
5750.00,0.89
5749.00,0.90
5748.00,0.90
5747.00,0.90
5746.00,0.90
5745.00,0.91
5744.00,0.91
5743.00,0.91
5742.00,0.91
5741.00,0.92
5740.00,0.92
5739.00,0.92
5738.00,0.92
5737.00,0.92
5736.00,0.92
5735.00,0.92
5734.00,0.93
5733.00,0.93
5732.00,0.93
5731.00,0.93
5730.00,0.93
5729.00,0.93
5728.00,0.93
5727.00,0.93
5726.00,0.93
5725.00,0.93
5724.00,0.93
5723.00,0.93
5722.00,0.93
5721.00,0.93
5720.00,0.93
5719.00,0.93
5718.00,0.93
5717.00,0.93
5716.00,0.93
5715.00,0.93
5714.00,0.93
5713.00,0.93
5712.00,0.93
5711.00,0.93
5710.00,0.93
5709.00,0.93
5708.00,0.93
5707.00,0.93
5706.00,0.93
5705.00,0.93
5704.00,0.93
5703.00,0.93
5702.00,0.93
5701.00,0.93
5700.00,0.93
5699.00,0.93
5698.00,0.93
5697.00,0.93
5696.00,0.92
5695.00,0.92
5694.00,0.92
5693.00,0.92
5692.00,0.92
5691.00,0.92
5690.00,0.92
5689.00,0.92
5688.00,0.92
5687.00,0.92
5686.00,0.92
5685.00,0.92
5684.00,0.91
5683.00,0.91
5682.00,0.91
5681.00,0.91
5680.00,0.91
5679.00,0.91
5678.00,0.91
5677.00,0.91
5676.00,0.91
5675.00,0.91
5674.00,0.91
5673.00,0.91
5672.00,0.91
5671.00,0.91
5670.00,0.91
5669.00,0.91
5668.00,0.91
5667.00,0.91
5666.00,0.91
5665.00,0.91
5664.00,0.91
5663.00,0.91
5662.00,0.91
5661.00,0.91
5660.00,0.92
5659.00,0.92
5658.00,0.92
5657.00,0.92
5656.00,0.92
5655.00,0.92
5654.00,0.92
5653.00,0.92
5652.00,0.92
5651.00,0.93
5650.00,0.93
5649.00,0.93
5648.00,0.93
5647.00,0.93
5646.00,0.93
5645.00,0.93
5644.00,0.94
5643.00,0.94
5642.00,0.94
5641.00,0.94
5640.00,0.94
5639.00,0.94
5638.00,0.94
5637.00,0.94
5636.00,0.94
5635.00,0.94
5634.00,0.95
5633.00,0.95
5632.00,0.95
5631.00,0.95
5630.00,0.95
5629.00,0.95
5628.00,0.95
5627.00,0.95
5626.00,0.95
5625.00,0.96
5624.00,0.96
5623.00,0.96
5622.00,0.96
5621.00,0.96
5620.00,0.96
5619.00,0.96
5618.00,0.96
5617.00,0.97
5616.00,0.97
5615.00,0.97
5614.00,0.97
5613.00,0.97
5612.00,0.97
5611.00,0.97
5610.00,0.97
5609.00,0.97
5608.00,0.97
5607.00,0.98
5606.00,0.98
5605.00,0.98
5604.00,0.98
5603.00,0.98
5602.00,0.98
5601.00,0.98
5600.00,0.98
5599.00,0.98
5598.00,0.98
5597.00,0.99
5596.00,0.99
5595.00,0.99
5594.00,0.99
5593.00,0.99
5592.00,0.99
5591.00,0.99
5590.00,0.99
5589.00,0.99
5588.00,0.99
5587.00,0.99
5586.00,0.99
5585.00,0.99
5584.00,0.99
5583.00,0.99
5582.00,0.99
5581.00,1.00
5580.00,1.00
5579.00,1.00
5578.00,1.00
5577.00,1.00
5576.00,1.00
5575.00,1.00
5574.00,1.00
5573.00,1.00
5572.00,1.00
5571.00,1.00
5570.00,1.00
5569.00,1.01
5568.00,1.01
5567.00,1.01
5566.00,1.01
5565.00,1.01
5564.00,1.01
5563.00,1.01
5562.00,1.01
5561.00,1.01
5560.00,1.01
5559.00,1.01
5558.00,1.01
5557.00,1.01
5556.00,1.01
5555.00,1.01
5554.00,1.02
5553.00,1.02
5552.00,1.02
5551.00,1.02
5550.00,1.02
5549.00,1.02
5548.00,1.02
5547.00,1.02
5546.00,1.02
5545.00,1.02
5544.00,1.02
5543.00,1.02
5542.00,1.03
5541.00,1.03
5540.00,1.03
5539.00,1.03
5538.00,1.03
5537.00,1.03
5536.00,1.03
5535.00,1.03
5534.00,1.03
5533.00,1.03
5532.00,1.03
5531.00,1.03
5530.00,1.03
5529.00,1.03
5528.00,1.03
5527.00,1.03
5526.00,1.03
5525.00,1.03
5524.00,1.03
5523.00,1.03
5522.00,1.03
5521.00,1.03
5520.00,1.03
5519.00,1.03
5518.00,1.03
5517.00,1.03
5516.00,1.03
5515.00,1.03
5514.00,1.03
5513.00,1.04
5512.00,1.04
5511.00,1.04
5510.00,1.04
5509.00,1.04
5508.00,1.04
5507.00,1.04
5506.00,1.04
5505.00,1.04
5504.00,1.04
5503.00,1.04
5502.00,1.04
5501.00,1.04
5500.00,1.04
5499.00,1.04
5498.00,1.04
5497.00,1.04
5496.00,1.04
5495.00,1.04
5494.00,1.04
5493.00,1.05
5492.00,1.05
5491.00,1.05
5490.00,1.05
5489.00,1.05
5488.00,1.05
5487.00,1.05
5486.00,1.05
5485.00,1.05
5484.00,1.05
5483.00,1.05
5482.00,1.05
5481.00,1.05
5480.00,1.05
5479.00,1.05
5478.00,1.05
5477.00,1.05
5476.00,1.05
5475.00,1.05
5474.00,1.05
5473.00,1.05
5472.00,1.06
5471.00,1.06
5470.00,1.06
5469.00,1.06
5468.00,1.06
5467.00,1.06
5466.00,1.06
5465.00,1.06
5464.00,1.06
5463.00,1.06
5462.00,1.06
5461.00,1.06
5460.00,1.06
5459.00,1.07
5458.00,1.07
5457.00,1.07
5456.00,1.07
5455.00,1.07
5454.00,1.07
5453.00,1.07
5452.00,1.07
5451.00,1.07
5450.00,1.07
5449.00,1.07
5448.00,1.07
5447.00,1.07
5446.00,1.07
5445.00,1.07
5444.00,1.07
5443.00,1.07
5442.00,1.07
5441.00,1.07
5440.00,1.07
5439.00,1.07
5438.00,1.07
5437.00,1.07
5436.00,1.07
5435.00,1.07
5434.00,1.07
5433.00,1.07
5432.00,1.07
5431.00,1.07
5430.00,1.07
5429.00,1.07
5428.00,1.07
5427.00,1.07
5426.00,1.07
5425.00,1.07
5424.00,1.07
5423.00,1.07
5422.00,1.07
5421.00,1.07
5420.00,1.07
5419.00,1.07
5418.00,1.07
5417.00,1.07
5416.00,1.07
5415.00,1.07
5414.00,1.07
5413.00,1.07
5412.00,1.07
5411.00,1.07
5410.00,1.07
5409.00,1.07
5408.00,1.07
5407.00,1.07
5406.00,1.07
5405.00,1.07
5404.00,1.07
5403.00,1.07
5402.00,1.07
5401.00,1.07
5400.00,1.07
5399.00,1.07
5398.00,1.07
5397.00,1.07
5396.00,1.07
5395.00,1.07
5394.00,1.07
5393.00,1.07
5392.00,1.07
5391.00,1.07
5390.00,1.07
5389.00,1.07
5388.00,1.07
5387.00,1.07
5386.00,1.07
5385.00,1.07
5384.00,1.07
5383.00,1.07
5382.00,1.06
5381.00,1.06
5380.00,1.06
5379.00,1.06
5378.00,1.06
5377.00,1.06
5376.00,1.06
5375.00,1.05
5374.00,1.05
5373.00,1.05
5372.00,1.05
5371.00,1.05
5370.00,1.04
5369.00,1.04
5368.00,1.04
5367.00,1.04
5366.00,1.03
5365.00,1.03
5364.00,1.03
5363.00,1.02
5362.00,1.02
5361.00,1.02
5360.00,1.01
5359.00,1.01
5358.00,1.00
5357.00,1.00
5356.00,1.00
5355.00,0.99
5354.00,0.99
5353.00,0.98
5352.00,0.98
5351.00,0.97
5350.00,0.97
5349.00,0.96
5348.00,0.96
5347.00,0.95
5346.00,0.95
5345.00,0.94
5344.00,0.93
5343.00,0.93
5342.00,0.92
5341.00,0.91
5340.00,0.91
5339.00,0.90
5338.00,0.89
5337.00,0.89
5336.00,0.88
5335.00,0.87
5334.00,0.86
5333.00,0.86
5332.00,0.85
5331.00,0.84
5330.00,0.83
5329.00,0.83
5328.00,0.82
5327.00,0.81
5326.00,0.80
5325.00,0.80
5324.00,0.79
5323.00,0.78
5322.00,0.77
5321.00,0.77
5320.00,0.76
5319.00,0.75
5318.00,0.74
5317.00,0.73
5316.00,0.73
5315.00,0.72
5314.00,0.71
5313.00,0.70
5312.00,0.70
5311.00,0.69
5310.00,0.68
5309.00,0.67
5308.00,0.67
5307.00,0.66
5306.00,0.65
5305.00,0.65
5304.00,0.64
5303.00,0.63
5302.00,0.63
5301.00,0.62
5300.00,0.61
5299.00,0.61
5298.00,0.60
5297.00,0.60
5296.00,0.59
5295.00,0.59
5294.00,0.59
5293.00,0.58
5292.00,0.58
5291.00,0.57
5290.00,0.57
5289.00,0.57
5288.00,0.56
5287.00,0.56
5286.00,0.56
5285.00,0.55
5284.00,0.55
5283.00,0.55
5282.00,0.54
5281.00,0.54
5280.00,0.54
5279.00,0.54
5278.00,0.53
5277.00,0.53
5276.00,0.53
5275.00,0.53
5274.00,0.53
5273.00,0.52
5272.00,0.52
5271.00,0.52
5270.00,0.52
5269.00,0.52
5268.00,0.51
5267.00,0.51
5266.00,0.51
5265.00,0.51
5264.00,0.51
5263.00,0.50
5262.00,0.50
5261.00,0.50
5260.00,0.50
5259.00,0.50
5258.00,0.50
5257.00,0.50
5256.00,0.49
5255.00,0.49
5254.00,0.49
5253.00,0.49
5252.00,0.49
5251.00,0.49
5250.00,0.49
5249.00,0.49
5248.00,0.49
5247.00,0.48
5246.00,0.48
5245.00,0.48
5244.00,0.48
5243.00,0.48
5242.00,0.48
5241.00,0.48
5240.00,0.48
5239.00,0.48
5238.00,0.48
5237.00,0.48
5236.00,0.48
5235.00,0.48
5234.00,0.48
5233.00,0.48
5232.00,0.48
5231.00,0.48
5230.00,0.48
5229.00,0.48
5228.00,0.48
5227.00,0.48
5226.00,0.48
5225.00,0.48
5224.00,0.48
5223.00,0.48
5222.00,0.48
5221.00,0.48
5220.00,0.48
5219.00,0.48
5218.00,0.48
5217.00,0.48
5216.00,0.48
5215.00,0.48
5214.00,0.48
5213.00,0.48
5212.00,0.48
5211.00,0.48
5210.00,0.48
5209.00,0.48
5208.00,0.48
5207.00,0.48
5206.00,0.48
5205.00,0.48
5204.00,0.48
5203.00,0.48
5202.00,0.48
5201.00,0.48
5200.00,0.48
5199.00,0.48
5198.00,0.48
5197.00,0.48
5196.00,0.48
5195.00,0.48
5194.00,0.48
5193.00,0.48
5192.00,0.48
5191.00,0.48
5190.00,0.48
5189.00,0.48
5188.00,0.48
5187.00,0.48
5186.00,0.48
5185.00,0.48
5184.00,0.48
5183.00,0.48
5182.00,0.48
5181.00,0.48
5180.00,0.48
5179.00,0.48
5178.00,0.48
5177.00,0.49
5176.00,0.49
5175.00,0.49
5174.00,0.49
5173.00,0.49
5172.00,0.49
5171.00,0.49
5170.00,0.49
5169.00,0.49
5168.00,0.49
5167.00,0.49
5166.00,0.49
5165.00,0.49
5164.00,0.49
5163.00,0.49
5162.00,0.49
5161.00,0.49
5160.00,0.49
5159.00,0.49
5158.00,0.49
5157.00,0.49
5156.00,0.49
5155.00,0.49
5154.00,0.49
5153.00,0.49
5152.00,0.49
5151.00,0.49
5150.00,0.49
5149.00,0.49
5148.00,0.49
5147.00,0.49
5146.00,0.49
5145.00,0.49
5144.00,0.49
5143.00,0.49
5142.00,0.50
5141.00,0.50
5140.00,0.50
5139.00,0.50
5138.00,0.50
5137.00,0.50
5136.00,0.50
5135.00,0.50
5134.00,0.50
5133.00,0.50
5132.00,0.50
5131.00,0.50
5130.00,0.50
5129.00,0.50
5128.00,0.50
5127.00,0.50
5126.00,0.50
5125.00,0.50
5124.00,0.50
5123.00,0.50
5122.00,0.50
5121.00,0.50
5120.00,0.50
5119.00,0.51
5118.00,0.51
5117.00,0.51
5116.00,0.51
5115.00,0.51
5114.00,0.51
5113.00,0.51
5112.00,0.51
5111.00,0.51
5110.00,0.51
5109.00,0.51
5108.00,0.51
5107.00,0.52
5106.00,0.52
5105.00,0.52
5104.00,0.52
5103.00,0.52
5102.00,0.52
5101.00,0.52
5100.00,0.52
5099.00,0.52
5098.00,0.52
5097.00,0.52
5096.00,0.52
5095.00,0.52
5094.00,0.52
5093.00,0.52
5092.00,0.52
5091.00,0.53
5090.00,0.53
5089.00,0.53
5088.00,0.53
5087.00,0.53
5086.00,0.53
5085.00,0.53
5084.00,0.53
5083.00,0.53
5082.00,0.53
5081.00,0.53
5080.00,0.53
5079.00,0.53
5078.00,0.53
5077.00,0.54
5076.00,0.54
5075.00,0.54
5074.00,0.54
5073.00,0.54
5072.00,0.54
5071.00,0.54
5070.00,0.54
5069.00,0.54
5068.00,0.54
5067.00,0.54
5066.00,0.54
5065.00,0.55
5064.00,0.55
5063.00,0.55
5062.00,0.55
5061.00,0.55
5060.00,0.55
5059.00,0.55
5058.00,0.55
5057.00,0.55
5056.00,0.56
5055.00,0.56
5054.00,0.56
5053.00,0.56
5052.00,0.56
5051.00,0.56
5050.00,0.56
5049.00,0.56
5048.00,0.56
5047.00,0.56
5046.00,0.56
5045.00,0.56
5044.00,0.56
5043.00,0.57
5042.00,0.57
5041.00,0.57
5040.00,0.57
5039.00,0.57
5038.00,0.57
5037.00,0.57
5036.00,0.57
5035.00,0.57
5034.00,0.57
5033.00,0.58
5032.00,0.58
5031.00,0.58
5030.00,0.58
5029.00,0.58
5028.00,0.58
5027.00,0.58
5026.00,0.58
5025.00,0.58
5024.00,0.58
5023.00,0.58
5022.00,0.59
5021.00,0.59
5020.00,0.59
5019.00,0.59
5018.00,0.59
5017.00,0.59
5016.00,0.59
5015.00,0.59
5014.00,0.59
5013.00,0.60
5012.00,0.60
5011.00,0.60
5010.00,0.60
5009.00,0.60
5008.00,0.60
5007.00,0.60
5006.00,0.60
5005.00,0.60
5004.00,0.61
5003.00,0.61
5002.00,0.61
5001.00,0.61
5000.00,0.61
4999.00,0.61
4998.00,0.61
4997.00,0.61
4996.00,0.61
4995.00,0.61
4994.00,0.62
4993.00,0.62
4992.00,0.62
4991.00,0.62
4990.00,0.62
4989.00,0.62
4988.00,0.62
4987.00,0.62
4986.00,0.63
4985.00,0.63
4984.00,0.63
4983.00,0.63
4982.00,0.63
4981.00,0.63
4980.00,0.63
4979.00,0.64
4978.00,0.64
4977.00,0.64
4976.00,0.64
4975.00,0.64
4974.00,0.64
4973.00,0.64
4972.00,0.64
4971.00,0.64
4970.00,0.65
4969.00,0.65
4968.00,0.65
4967.00,0.65
4966.00,0.65
4965.00,0.65
4964.00,0.65
4963.00,0.65
4962.00,0.65
4961.00,0.65
4960.00,0.66
4959.00,0.66
4958.00,0.66
4957.00,0.66
4956.00,0.66
4955.00,0.66
4954.00,0.66
4953.00,0.66
4952.00,0.66
4951.00,0.67
4950.00,0.67
4949.00,0.67
4948.00,0.67
4947.00,0.67
4946.00,0.67
4945.00,0.67
4944.00,0.67
4943.00,0.67
4942.00,0.67
4941.00,0.67
4940.00,0.67
4939.00,0.68
4938.00,0.68
4937.00,0.68
4936.00,0.68
4935.00,0.68
4934.00,0.68
4933.00,0.68
4932.00,0.68
4931.00,0.68
4930.00,0.68
4929.00,0.68
4928.00,0.68
4927.00,0.68
4926.00,0.68
4925.00,0.68
4924.00,0.68
4923.00,0.68
4922.00,0.68
4921.00,0.68
4920.00,0.69
4919.00,0.69
4918.00,0.69
4917.00,0.69
4916.00,0.69
4915.00,0.69
4914.00,0.69
4913.00,0.69
4912.00,0.69
4911.00,0.69
4910.00,0.69
4909.00,0.69
4908.00,0.69
4907.00,0.70
4906.00,0.70
4905.00,0.70
4904.00,0.70
4903.00,0.70
4902.00,0.70
4901.00,0.70
4900.00,0.70
4899.00,0.70
4898.00,0.70
4897.00,0.70
4896.00,0.70
4895.00,0.70
4894.00,0.70
4893.00,0.70
4892.00,0.70
4891.00,0.70
4890.00,0.70
4889.00,0.70
4888.00,0.70
4887.00,0.70
4886.00,0.70
4885.00,0.70
4884.00,0.70
4883.00,0.70
4882.00,0.70
4881.00,0.70
4880.00,0.70
4879.00,0.70
4878.00,0.70
4877.00,0.70
4876.00,0.70
4875.00,0.70
4874.00,0.70
4873.00,0.70
4872.00,0.70
4871.00,0.70
4870.00,0.71
4869.00,0.71
4868.00,0.71
4867.00,0.71
4866.00,0.71
4865.00,0.71
4864.00,0.71
4863.00,0.71
4862.00,0.71
4861.00,0.71
4860.00,0.71
4859.00,0.71
4858.00,0.71
4857.00,0.71
4856.00,0.71
4855.00,0.71
4854.00,0.71
4853.00,0.71
4852.00,0.71
4851.00,0.71
4850.00,0.72
4849.00,0.72
4848.00,0.72
4847.00,0.72
4846.00,0.72
4845.00,0.72
4844.00,0.72
4843.00,0.72
4842.00,0.72
4841.00,0.72
4840.00,0.72
4839.00,0.72
4838.00,0.72
4837.00,0.72
4836.00,0.72
4835.00,0.73
4834.00,0.73
4833.00,0.73
4832.00,0.73
4831.00,0.73
4830.00,0.73
4829.00,0.73
4828.00,0.73
4827.00,0.73
4826.00,0.73
4825.00,0.73
4824.00,0.73
4823.00,0.73
4822.00,0.74
4821.00,0.74
4820.00,0.74
4819.00,0.74
4818.00,0.74
4817.00,0.74
4816.00,0.74
4815.00,0.74
4814.00,0.74
4813.00,0.74
4812.00,0.74
4811.00,0.75
4810.00,0.75
4809.00,0.75
4808.00,0.75
4807.00,0.75
4806.00,0.75
4805.00,0.75
4804.00,0.75
4803.00,0.75
4802.00,0.75
4801.00,0.75
4800.00,0.76
4799.00,0.76
4798.00,0.76
4797.00,0.76
4796.00,0.76
4795.00,0.76
4794.00,0.76
4793.00,0.76
4792.00,0.76
4791.00,0.76
4790.00,0.76
4789.00,0.77
4788.00,0.77
4787.00,0.77
4786.00,0.77
4785.00,0.77
4784.00,0.77
4783.00,0.77
4782.00,0.77
4781.00,0.78
4780.00,0.78
4779.00,0.78
4778.00,0.78
4777.00,0.78
4776.00,0.78
4775.00,0.79
4774.00,0.79
4773.00,0.79
4772.00,0.79
4771.00,0.79
4770.00,0.79
4769.00,0.79
4768.00,0.80
4767.00,0.80
4766.00,0.80
4765.00,0.80
4764.00,0.80
4763.00,0.80
4762.00,0.80
4761.00,0.81
4760.00,0.81
4759.00,0.81
4758.00,0.81
4757.00,0.81
4756.00,0.81
4755.00,0.81
4754.00,0.81
4753.00,0.82
4752.00,0.82
4751.00,0.82
4750.00,0.82
4749.00,0.82
4748.00,0.83
4747.00,0.83
4746.00,0.83
4745.00,0.83
4744.00,0.83
4743.00,0.83
4742.00,0.83
4741.00,0.84
4740.00,0.84
4739.00,0.84
4738.00,0.84
4737.00,0.84
4736.00,0.84
4735.00,0.84
4734.00,0.85
4733.00,0.85
4732.00,0.85
4731.00,0.85
4730.00,0.85
4729.00,0.85
4728.00,0.86
4727.00,0.86
4726.00,0.86
4725.00,0.86
4724.00,0.86
4723.00,0.86
4722.00,0.87
4721.00,0.87
4720.00,0.87
4719.00,0.87
4718.00,0.87
4717.00,0.88
4716.00,0.88
4715.00,0.88
4714.00,0.88
4713.00,0.88
4712.00,0.88
4711.00,0.89
4710.00,0.89
4709.00,0.89
4708.00,0.89
4707.00,0.89
4706.00,0.89
4705.00,0.89
4704.00,0.89
4703.00,0.90
4702.00,0.90
4701.00,0.90
4700.00,0.90
4699.00,0.90
4698.00,0.90
4697.00,0.90
4696.00,0.90
4695.00,0.91
4694.00,0.91
4693.00,0.91
4692.00,0.91
4691.00,0.91
4690.00,0.91
4689.00,0.91
4688.00,0.92
4687.00,0.92
4686.00,0.92
4685.00,0.92
4684.00,0.92
4683.00,0.92
4682.00,0.93
4681.00,0.93
4680.00,0.93
4679.00,0.93
4678.00,0.93
4677.00,0.93
4676.00,0.93
4675.00,0.94
4674.00,0.94
4673.00,0.94
4672.00,0.94
4671.00,0.94
4670.00,0.94
4669.00,0.94
4668.00,0.94
4667.00,0.94
4666.00,0.95
4665.00,0.95
4664.00,0.95
4663.00,0.95
4662.00,0.95
4661.00,0.95
4660.00,0.95
4659.00,0.95
4658.00,0.96
4657.00,0.96
4656.00,0.96
4655.00,0.96
4654.00,0.96
4653.00,0.96
4652.00,0.96
4651.00,0.97
4650.00,0.97
4649.00,0.97
4648.00,0.97
4647.00,0.97
4646.00,0.97
4645.00,0.97
4644.00,0.97
4643.00,0.98
4642.00,0.98
4641.00,0.98
4640.00,0.98
4639.00,0.98
4638.00,0.98
4637.00,0.98
4636.00,0.98
4635.00,0.98
4634.00,0.98
4633.00,0.98
4632.00,0.98
4631.00,0.98
4630.00,0.99
4629.00,0.99
4628.00,0.99
4627.00,0.99
4626.00,0.99
4625.00,0.99
4624.00,0.99
4623.00,0.99
4622.00,0.99
4621.00,0.99
4620.00,1.00
4619.00,1.00
4618.00,1.00
4617.00,1.00
4616.00,1.00
4615.00,1.00
4614.00,1.00
4613.00,1.00
4612.00,1.00
4611.00,1.00
4610.00,1.01
4609.00,1.01
4608.00,1.01
4607.00,1.01
4606.00,1.01
4605.00,1.01
4604.00,1.01
4603.00,1.01
4602.00,1.01
4601.00,1.01
4600.00,1.02
4599.00,1.02
4598.00,1.02
4597.00,1.02
4596.00,1.02
4595.00,1.02
4594.00,1.02
4593.00,1.02
4592.00,1.02
4591.00,1.02
4590.00,1.02
4589.00,1.02
4588.00,1.02
4587.00,1.02
4586.00,1.03
4585.00,1.03
4584.00,1.03
4583.00,1.03
4582.00,1.03
4581.00,1.03
4580.00,1.03
4579.00,1.04
4578.00,1.04
4577.00,1.04
4576.00,1.04
4575.00,1.04
4574.00,1.04
4573.00,1.04
4572.00,1.04
4571.00,1.04
4570.00,1.04
4569.00,1.04
4568.00,1.04
4567.00,1.05
4566.00,1.05
4565.00,1.05
4564.00,1.05
4563.00,1.05
4562.00,1.05
4561.00,1.05
4560.00,1.05
4559.00,1.05
4558.00,1.05
4557.00,1.06
4556.00,1.06
4555.00,1.06
4554.00,1.06
4553.00,1.06
4552.00,1.06
4551.00,1.06
4550.00,1.06
4549.00,1.06
4548.00,1.06
4547.00,1.06
4546.00,1.06
4545.00,1.06
4544.00,1.06
4543.00,1.06
4542.00,1.06
4541.00,1.06
4540.00,1.06
4539.00,1.06
4538.00,1.06
4537.00,1.06
4536.00,1.07
4535.00,1.07
4534.00,1.07
4533.00,1.07
4532.00,1.07
4531.00,1.07
4530.00,1.07
4529.00,1.07
4528.00,1.07
4527.00,1.07
4526.00,1.07
4525.00,1.07
4524.00,1.07
4523.00,1.07
4522.00,1.07
4521.00,1.07
4520.00,1.07
4519.00,1.07
4518.00,1.07
4517.00,1.07
4516.00,1.07
4515.00,1.07
4514.00,1.07
4513.00,1.07
4512.00,1.07
4511.00,1.07
4510.00,1.07
4509.00,1.07
4508.00,1.07
4507.00,1.07
4506.00,1.07
4505.00,1.07
4504.00,1.07
4503.00,1.07
4502.00,1.07
4501.00,1.07
4500.00,1.07
4499.00,1.07
4498.00,1.07
4497.00,1.07
4496.00,1.07
4495.00,1.06
4494.00,1.06
4493.00,1.06
4492.00,1.06
4491.00,1.06
4490.00,1.06
4489.00,1.06
4488.00,1.06
4487.00,1.06
4486.00,1.06
4485.00,1.06
4484.00,1.06
4483.00,1.06
4482.00,1.05
4481.00,1.05
4480.00,1.05
4479.00,1.05
4478.00,1.05
4477.00,1.05
4476.00,1.05
4475.00,1.04
4474.00,1.04
4473.00,1.04
4472.00,1.04
4471.00,1.04
4470.00,1.03
4469.00,1.03
4468.00,1.03
4467.00,1.02
4466.00,1.02
4465.00,1.02
4464.00,1.01
4463.00,1.01
4462.00,1.01
4461.00,1.00
4460.00,1.00
4459.00,1.00
4458.00,0.99
4457.00,0.99
4456.00,0.98
4455.00,0.98
4454.00,0.98
4453.00,0.97
4452.00,0.97
4451.00,0.96
4450.00,0.96
4449.00,0.96
4448.00,0.95
4447.00,0.95
4446.00,0.94
4445.00,0.94
4444.00,0.93
4443.00,0.93
4442.00,0.92
4441.00,0.92
4440.00,0.91
4439.00,0.90
4438.00,0.90
4437.00,0.89
4436.00,0.89
4435.00,0.88
4434.00,0.88
4433.00,0.87
4432.00,0.87
4431.00,0.86
4430.00,0.86
4429.00,0.85
4428.00,0.85
4427.00,0.84
4426.00,0.84
4425.00,0.83
4424.00,0.83
4423.00,0.83
4422.00,0.82
4421.00,0.82
4420.00,0.82
4419.00,0.82
4418.00,0.81
4417.00,0.81
4416.00,0.81
4415.00,0.81
4414.00,0.81
4413.00,0.81
4412.00,0.81
4411.00,0.81
4410.00,0.81
4409.00,0.81
4408.00,0.81
4407.00,0.81
4406.00,0.81
4405.00,0.81
4404.00,0.81
4403.00,0.81
4402.00,0.81
4401.00,0.81
4400.00,0.81
4399.00,0.81
4398.00,0.82
4397.00,0.82
4396.00,0.82
4395.00,0.82
4394.00,0.82
4393.00,0.82
4392.00,0.83
4391.00,0.83
4390.00,0.83
4389.00,0.83
4388.00,0.83
4387.00,0.84
4386.00,0.84
4385.00,0.84
4384.00,0.84
4383.00,0.85
4382.00,0.85
4381.00,0.85
4380.00,0.85
4379.00,0.85
4378.00,0.86
4377.00,0.86
4376.00,0.86
4375.00,0.86
4374.00,0.86
4373.00,0.86
4372.00,0.86
4371.00,0.86
4370.00,0.86
4369.00,0.86
4368.00,0.86
4367.00,0.86
4366.00,0.86
4365.00,0.86
4364.00,0.86
4363.00,0.86
4362.00,0.86
4361.00,0.86
4360.00,0.85
4359.00,0.85
4358.00,0.85
4357.00,0.85
4356.00,0.85
4355.00,0.85
4354.00,0.85
4353.00,0.85
4352.00,0.84
4351.00,0.84
4350.00,0.84
4349.00,0.84
4348.00,0.84
4347.00,0.84
4346.00,0.84
4345.00,0.84
4344.00,0.84
4343.00,0.84
4342.00,0.84
4341.00,0.84
4340.00,0.84
4339.00,0.84
4338.00,0.84
4337.00,0.84
4336.00,0.84
4335.00,0.85
4334.00,0.85
4333.00,0.85
4332.00,0.85
4331.00,0.85
4330.00,0.85
4329.00,0.86
4328.00,0.86
4327.00,0.86
4326.00,0.86
4325.00,0.86
4324.00,0.87
4323.00,0.87
4322.00,0.87
4321.00,0.88
4320.00,0.88
4319.00,0.88
4318.00,0.88
4317.00,0.89
4316.00,0.89
4315.00,0.89
4314.00,0.90
4313.00,0.90
4312.00,0.90
4311.00,0.90
4310.00,0.91
4309.00,0.91
4308.00,0.91
4307.00,0.92
4306.00,0.92
4305.00,0.92
4304.00,0.93
4303.00,0.93
4302.00,0.93
4301.00,0.94
4300.00,0.94
4299.00,0.94
4298.00,0.95
4297.00,0.95
4296.00,0.95
4295.00,0.96
4294.00,0.96
4293.00,0.96
4292.00,0.96
4291.00,0.97
4290.00,0.97
4289.00,0.97
4288.00,0.97
4287.00,0.97
4286.00,0.97
4285.00,0.97
4284.00,0.97
4283.00,0.97
4282.00,0.97
4281.00,0.97
4280.00,0.97
4279.00,0.97
4278.00,0.97
4277.00,0.96
4276.00,0.96
4275.00,0.96
4274.00,0.96
4273.00,0.96
4272.00,0.96
4271.00,0.96
4270.00,0.96
4269.00,0.96
4268.00,0.96
4267.00,0.96
4266.00,0.96
4265.00,0.96
4264.00,0.95
4263.00,0.95
4262.00,0.95
4261.00,0.95
4260.00,0.95
4259.00,0.95
4258.00,0.95
4257.00,0.95
4256.00,0.95
4255.00,0.95
4254.00,0.95
4253.00,0.95
4252.00,0.96
4251.00,0.96
4250.00,0.96
4249.00,0.96
4248.00,0.96
4247.00,0.96
4246.00,0.96
4245.00,0.96
4244.00,0.97
4243.00,0.97
4242.00,0.97
4241.00,0.97
4240.00,0.97
4239.00,0.98
4238.00,0.98
4237.00,0.98
4236.00,0.98
4235.00,0.98
4234.00,0.99
4233.00,0.99
4232.00,0.99
4231.00,0.99
4230.00,0.99
4229.00,1.00
4228.00,1.00
4227.00,1.00
4226.00,1.00
4225.00,1.00
4224.00,1.01
4223.00,1.01
4222.00,1.01
4221.00,1.01
4220.00,1.01
4219.00,1.01
4218.00,1.01
4217.00,1.01
4216.00,1.02
4215.00,1.02
4214.00,1.02
4213.00,1.02
4212.00,1.02
4211.00,1.02
4210.00,1.02
4209.00,1.02
4208.00,1.02
4207.00,1.02
4206.00,1.02
4205.00,1.02
4204.00,1.02
4203.00,1.02
4202.00,1.02
4201.00,1.02
4200.00,1.03
4199.00,1.03
4198.00,1.03
4197.00,1.03
4196.00,1.03
4195.00,1.03
4194.00,1.03
4193.00,1.03
4192.00,1.03
4191.00,1.03
4190.00,1.02
4189.00,1.02
4188.00,1.02
4187.00,1.02
4186.00,1.02
4185.00,1.02
4184.00,1.02
4183.00,1.02
4182.00,1.02
4181.00,1.02
4180.00,1.02
4179.00,1.02
4178.00,1.02
4177.00,1.02
4176.00,1.02
4175.00,1.02
4174.00,1.02
4173.00,1.02
4172.00,1.02
4171.00,1.02
4170.00,1.02
4169.00,1.02
4168.00,1.02
4167.00,1.02
4166.00,1.02
4165.00,1.01
4164.00,1.01
4163.00,1.01
4162.00,1.01
4161.00,1.01
4160.00,1.01
4159.00,1.01
4158.00,1.01
4157.00,1.01
4156.00,1.02
4155.00,1.02
4154.00,1.02
4153.00,1.02
4152.00,1.02
4151.00,1.02
4150.00,1.02
4149.00,1.02
4148.00,1.02
4147.00,1.02
4146.00,1.02
4145.00,1.02
4144.00,1.02
4143.00,1.02
4142.00,1.02
4141.00,1.02
4140.00,1.02
4139.00,1.02
4138.00,1.02
4137.00,1.02
4136.00,1.02
4135.00,1.02
4134.00,1.02
4133.00,1.02
4132.00,1.02
4131.00,1.02
4130.00,1.02
4129.00,1.02
4128.00,1.02
4127.00,1.02
4126.00,1.02
4125.00,1.01
4124.00,1.01
4123.00,1.01
4122.00,1.01
4121.00,1.01
4120.00,1.01
4119.00,1.01
4118.00,1.01
4117.00,1.01
4116.00,1.01
4115.00,1.01
4114.00,1.01
4113.00,1.01
4112.00,1.02
4111.00,1.02
4110.00,1.02
4109.00,1.02
4108.00,1.02
4107.00,1.02
4106.00,1.02
4105.00,1.02
4104.00,1.02
4103.00,1.02
4102.00,1.02
4101.00,1.02
4100.00,1.02
4099.00,1.02
4098.00,1.02
4097.00,1.02
4096.00,1.02
4095.00,1.02
4094.00,1.02
4093.00,1.02
4092.00,1.02
4091.00,1.02
4090.00,1.02
4089.00,1.02
4088.00,1.02
4087.00,1.03
4086.00,1.03
4085.00,1.03
4084.00,1.03
4083.00,1.03
4082.00,1.03
4081.00,1.03
4080.00,1.03
4079.00,1.03
4078.00,1.03
4077.00,1.03
4076.00,1.03
4075.00,1.03
4074.00,1.03
4073.00,1.03
4072.00,1.03
4071.00,1.03
4070.00,1.03
4069.00,1.03
4068.00,1.03
4067.00,1.03
4066.00,1.03
4065.00,1.03
4064.00,1.03
4063.00,1.03
4062.00,1.03
4061.00,1.03
4060.00,1.04
4059.00,1.04
4058.00,1.04
4057.00,1.04
4056.00,1.04
4055.00,1.04
4054.00,1.04
4053.00,1.04
4052.00,1.04
4051.00,1.04
4050.00,1.04
4049.00,1.04
4048.00,1.04
4047.00,1.04
4046.00,1.04
4045.00,1.05
4044.00,1.05
4043.00,1.05
4042.00,1.05
4041.00,1.05
4040.00,1.05
4039.00,1.06
4038.00,1.06
4037.00,1.06
4036.00,1.06
4035.00,1.06
4034.00,1.06
4033.00,1.06
4032.00,1.06
4031.00,1.07
4030.00,1.07
4029.00,1.07
4028.00,1.07
4027.00,1.07
4026.00,1.07
4025.00,1.07
4024.00,1.07
4023.00,1.07
4022.00,1.07
4021.00,1.07
4020.00,1.07
4019.00,1.07
4018.00,1.07
4017.00,1.07
4016.00,1.07
4015.00,1.07
4014.00,1.07
4013.00,1.07
4012.00,1.07
4011.00,1.07
4010.00,1.07
4009.00,1.07
4008.00,1.07
4007.00,1.07
4006.00,1.07
4005.00,1.07
4004.00,1.07
4003.00,1.07
4002.00,1.07
4001.00,1.07
4000.00,1.07
