创建为新数据集,样品 520 用户 Administrator 日期 星期一, 七月 16 2018
cm-1,%T
10000.00,1.76
9999.00,1.75
9998.00,1.75
9997.00,1.75
9996.00,1.75
9995.00,1.74
9994.00,1.74
9993.00,1.74
9992.00,1.73
9991.00,1.73
9990.00,1.73
9989.00,1.72
9988.00,1.72
9987.00,1.72
9986.00,1.71
9985.00,1.71
9984.00,1.71
9983.00,1.71
9982.00,1.70
9981.00,1.70
9980.00,1.70
9979.00,1.70
9978.00,1.70
9977.00,1.70
9976.00,1.70
9975.00,1.70
9974.00,1.70
9973.00,1.70
9972.00,1.70
9971.00,1.71
9970.00,1.71
9969.00,1.71
9968.00,1.71
9967.00,1.72
9966.00,1.72
9965.00,1.72
9964.00,1.72
9963.00,1.73
9962.00,1.73
9961.00,1.73
9960.00,1.74
9959.00,1.74
9958.00,1.74
9957.00,1.74
9956.00,1.75
9955.00,1.75
9954.00,1.75
9953.00,1.75
9952.00,1.75
9951.00,1.75
9950.00,1.75
9949.00,1.75
9948.00,1.75
9947.00,1.75
9946.00,1.75
9945.00,1.74
9944.00,1.74
9943.00,1.74
9942.00,1.73
9941.00,1.73
9940.00,1.73
9939.00,1.72
9938.00,1.72
9937.00,1.72
9936.00,1.72
9935.00,1.71
9934.00,1.71
9933.00,1.71
9932.00,1.71
9931.00,1.71
9930.00,1.71
9929.00,1.71
9928.00,1.70
9927.00,1.70
9926.00,1.70
9925.00,1.70
9924.00,1.70
9923.00,1.70
9922.00,1.70
9921.00,1.70
9920.00,1.70
9919.00,1.69
9918.00,1.69
9917.00,1.69
9916.00,1.69
9915.00,1.69
9914.00,1.69
9913.00,1.69
9912.00,1.69
9911.00,1.69
9910.00,1.69
9909.00,1.70
9908.00,1.70
9907.00,1.70
9906.00,1.70
9905.00,1.70
9904.00,1.70
9903.00,1.70
9902.00,1.71
9901.00,1.71
9900.00,1.71
9899.00,1.71
9898.00,1.71
9897.00,1.72
9896.00,1.72
9895.00,1.72
9894.00,1.72
9893.00,1.72
9892.00,1.72
9891.00,1.72
9890.00,1.72
9889.00,1.71
9888.00,1.71
9887.00,1.71
9886.00,1.71
9885.00,1.71
9884.00,1.71
9883.00,1.70
9882.00,1.70
9881.00,1.70
9880.00,1.70
9879.00,1.70
9878.00,1.70
9877.00,1.70
9876.00,1.69
9875.00,1.70
9874.00,1.70
9873.00,1.70
9872.00,1.70
9871.00,1.70
9870.00,1.70
9869.00,1.70
9868.00,1.70
9867.00,1.71
9866.00,1.71
9865.00,1.71
9864.00,1.71
9863.00,1.71
9862.00,1.71
9861.00,1.71
9860.00,1.71
9859.00,1.71
9858.00,1.71
9857.00,1.71
9856.00,1.72
9855.00,1.72
9854.00,1.72
9853.00,1.72
9852.00,1.72
9851.00,1.72
9850.00,1.72
9849.00,1.72
9848.00,1.72
9847.00,1.72
9846.00,1.72
9845.00,1.72
9844.00,1.72
9843.00,1.72
9842.00,1.72
9841.00,1.72
9840.00,1.72
9839.00,1.72
9838.00,1.72
9837.00,1.72
9836.00,1.72
9835.00,1.72
9834.00,1.71
9833.00,1.71
9832.00,1.71
9831.00,1.71
9830.00,1.71
9829.00,1.71
9828.00,1.71
9827.00,1.71
9826.00,1.71
9825.00,1.71
9824.00,1.71
9823.00,1.71
9822.00,1.71
9821.00,1.71
9820.00,1.71
9819.00,1.71
9818.00,1.71
9817.00,1.71
9816.00,1.71
9815.00,1.71
9814.00,1.71
9813.00,1.71
9812.00,1.71
9811.00,1.71
9810.00,1.72
9809.00,1.72
9808.00,1.72
9807.00,1.72
9806.00,1.72
9805.00,1.72
9804.00,1.72
9803.00,1.72
9802.00,1.72
9801.00,1.72
9800.00,1.72
9799.00,1.72
9798.00,1.72
9797.00,1.72
9796.00,1.72
9795.00,1.72
9794.00,1.71
9793.00,1.71
9792.00,1.71
9791.00,1.71
9790.00,1.71
9789.00,1.71
9788.00,1.71
9787.00,1.71
9786.00,1.71
9785.00,1.71
9784.00,1.71
9783.00,1.71
9782.00,1.71
9781.00,1.71
9780.00,1.72
9779.00,1.72
9778.00,1.72
9777.00,1.73
9776.00,1.73
9775.00,1.73
9774.00,1.74
9773.00,1.74
9772.00,1.74
9771.00,1.75
9770.00,1.75
9769.00,1.75
9768.00,1.75
9767.00,1.75
9766.00,1.75
9765.00,1.75
9764.00,1.75
9763.00,1.75
9762.00,1.75
9761.00,1.75
9760.00,1.74
9759.00,1.74
9758.00,1.74
9757.00,1.74
9756.00,1.74
9755.00,1.73
9754.00,1.73
9753.00,1.73
9752.00,1.73
9751.00,1.73
9750.00,1.73
9749.00,1.73
9748.00,1.73
9747.00,1.73
9746.00,1.73
9745.00,1.73
9744.00,1.73
9743.00,1.73
9742.00,1.73
9741.00,1.73
9740.00,1.73
9739.00,1.73
9738.00,1.73
9737.00,1.73
9736.00,1.72
9735.00,1.72
9734.00,1.72
9733.00,1.72
9732.00,1.72
9731.00,1.72
9730.00,1.72
9729.00,1.72
9728.00,1.72
9727.00,1.72
9726.00,1.72
9725.00,1.72
9724.00,1.72
9723.00,1.72
9722.00,1.72
9721.00,1.72
9720.00,1.72
9719.00,1.72
9718.00,1.72
9717.00,1.72
9716.00,1.72
9715.00,1.72
9714.00,1.72
9713.00,1.71
9712.00,1.71
9711.00,1.71
9710.00,1.71
9709.00,1.71
9708.00,1.70
9707.00,1.70
9706.00,1.70
9705.00,1.70
9704.00,1.70
9703.00,1.70
9702.00,1.70
9701.00,1.70
9700.00,1.70
9699.00,1.70
9698.00,1.70
9697.00,1.70
9696.00,1.71
9695.00,1.71
9694.00,1.71
9693.00,1.71
9692.00,1.71
9691.00,1.71
9690.00,1.71
9689.00,1.71
9688.00,1.72
9687.00,1.72
9686.00,1.72
9685.00,1.72
9684.00,1.72
9683.00,1.72
9682.00,1.72
9681.00,1.72
9680.00,1.72
9679.00,1.72
9678.00,1.72
9677.00,1.72
9676.00,1.72
9675.00,1.72
9674.00,1.72
9673.00,1.72
9672.00,1.72
9671.00,1.73
9670.00,1.73
9669.00,1.73
9668.00,1.73
9667.00,1.73
9666.00,1.73
9665.00,1.74
9664.00,1.74
9663.00,1.74
9662.00,1.74
9661.00,1.74
9660.00,1.74
9659.00,1.74
9658.00,1.74
9657.00,1.74
9656.00,1.73
9655.00,1.73
9654.00,1.73
9653.00,1.73
9652.00,1.73
9651.00,1.72
9650.00,1.72
9649.00,1.72
9648.00,1.72
9647.00,1.71
9646.00,1.71
9645.00,1.71
9644.00,1.71
9643.00,1.71
9642.00,1.70
9641.00,1.70
9640.00,1.70
9639.00,1.70
9638.00,1.70
9637.00,1.70
9636.00,1.70
9635.00,1.69
9634.00,1.69
9633.00,1.69
9632.00,1.69
9631.00,1.69
9630.00,1.70
9629.00,1.70
9628.00,1.70
9627.00,1.70
9626.00,1.70
9625.00,1.70
9624.00,1.70
9623.00,1.71
9622.00,1.71
9621.00,1.71
9620.00,1.71
9619.00,1.72
9618.00,1.72
9617.00,1.72
9616.00,1.72
9615.00,1.72
9614.00,1.72
9613.00,1.72
9612.00,1.72
9611.00,1.72
9610.00,1.72
9609.00,1.72
9608.00,1.72
9607.00,1.72
9606.00,1.72
9605.00,1.72
9604.00,1.72
9603.00,1.73
9602.00,1.73
9601.00,1.73
9600.00,1.73
9599.00,1.73
9598.00,1.73
9597.00,1.73
9596.00,1.73
9595.00,1.73
9594.00,1.73
9593.00,1.73
9592.00,1.73
9591.00,1.73
9590.00,1.73
9589.00,1.73
9588.00,1.73
9587.00,1.73
9586.00,1.73
9585.00,1.72
9584.00,1.72
9583.00,1.72
9582.00,1.72
9581.00,1.72
9580.00,1.72
9579.00,1.72
9578.00,1.72
9577.00,1.72
9576.00,1.72
9575.00,1.71
9574.00,1.71
9573.00,1.71
9572.00,1.71
9571.00,1.72
9570.00,1.72
9569.00,1.72
9568.00,1.72
9567.00,1.72
9566.00,1.72
9565.00,1.72
9564.00,1.72
9563.00,1.72
9562.00,1.72
9561.00,1.72
9560.00,1.72
9559.00,1.72
9558.00,1.71
9557.00,1.71
9556.00,1.71
9555.00,1.71
9554.00,1.71
9553.00,1.71
9552.00,1.71
9551.00,1.72
9550.00,1.72
9549.00,1.72
9548.00,1.72
9547.00,1.72
9546.00,1.72
9545.00,1.72
9544.00,1.73
9543.00,1.73
9542.00,1.73
9541.00,1.73
9540.00,1.73
9539.00,1.73
9538.00,1.73
9537.00,1.73
9536.00,1.73
9535.00,1.73
9534.00,1.73
9533.00,1.73
9532.00,1.73
9531.00,1.73
9530.00,1.72
9529.00,1.72
9528.00,1.72
9527.00,1.72
9526.00,1.71
9525.00,1.71
9524.00,1.71
9523.00,1.71
9522.00,1.71
9521.00,1.71
9520.00,1.71
9519.00,1.71
9518.00,1.71
9517.00,1.71
9516.00,1.71
9515.00,1.71
9514.00,1.71
9513.00,1.71
9512.00,1.71
9511.00,1.71
9510.00,1.72
9509.00,1.72
9508.00,1.72
9507.00,1.72
9506.00,1.72
9505.00,1.72
9504.00,1.72
9503.00,1.72
9502.00,1.73
9501.00,1.73
9500.00,1.73
9499.00,1.73
9498.00,1.73
9497.00,1.73
9496.00,1.73
9495.00,1.73
9494.00,1.73
9493.00,1.73
9492.00,1.72
9491.00,1.72
9490.00,1.72
9489.00,1.72
9488.00,1.72
9487.00,1.72
9486.00,1.72
9485.00,1.72
9484.00,1.72
9483.00,1.72
9482.00,1.72
9481.00,1.72
9480.00,1.72
9479.00,1.72
9478.00,1.72
9477.00,1.72
9476.00,1.72
9475.00,1.72
9474.00,1.72
9473.00,1.72
9472.00,1.72
9471.00,1.72
9470.00,1.72
9469.00,1.72
9468.00,1.72
9467.00,1.72
9466.00,1.72
9465.00,1.72
9464.00,1.72
9463.00,1.72
9462.00,1.72
9461.00,1.72
9460.00,1.72
9459.00,1.72
9458.00,1.72
9457.00,1.72
9456.00,1.72
9455.00,1.72
9454.00,1.72
9453.00,1.72
9452.00,1.72
9451.00,1.72
9450.00,1.72
9449.00,1.72
9448.00,1.72
9447.00,1.72
9446.00,1.72
9445.00,1.72
9444.00,1.72
9443.00,1.73
9442.00,1.73
9441.00,1.73
9440.00,1.73
9439.00,1.73
9438.00,1.73
9437.00,1.73
9436.00,1.73
9435.00,1.73
9434.00,1.73
9433.00,1.73
9432.00,1.73
9431.00,1.73
9430.00,1.74
9429.00,1.74
9428.00,1.74
9427.00,1.74
9426.00,1.74
9425.00,1.74
9424.00,1.74
9423.00,1.74
9422.00,1.74
9421.00,1.74
9420.00,1.75
9419.00,1.75
9418.00,1.75
9417.00,1.75
9416.00,1.75
9415.00,1.75
9414.00,1.75
9413.00,1.75
9412.00,1.75
9411.00,1.75
9410.00,1.75
9409.00,1.75
9408.00,1.75
9407.00,1.75
9406.00,1.74
9405.00,1.74
9404.00,1.74
9403.00,1.74
9402.00,1.73
9401.00,1.73
9400.00,1.73
9399.00,1.72
9398.00,1.72
9397.00,1.72
9396.00,1.72
9395.00,1.72
9394.00,1.72
9393.00,1.72
9392.00,1.72
9391.00,1.72
9390.00,1.72
9389.00,1.72
9388.00,1.72
9387.00,1.72
9386.00,1.72
9385.00,1.73
9384.00,1.73
9383.00,1.73
9382.00,1.73
9381.00,1.73
9380.00,1.73
9379.00,1.74
9378.00,1.74
9377.00,1.74
9376.00,1.74
9375.00,1.74
9374.00,1.73
9373.00,1.73
9372.00,1.73
9371.00,1.73
9370.00,1.73
9369.00,1.73
9368.00,1.72
9367.00,1.72
9366.00,1.72
9365.00,1.72
9364.00,1.72
9363.00,1.72
9362.00,1.72
9361.00,1.72
9360.00,1.72
9359.00,1.72
9358.00,1.72
9357.00,1.72
9356.00,1.72
9355.00,1.72
9354.00,1.73
9353.00,1.73
9352.00,1.73
9351.00,1.73
9350.00,1.73
9349.00,1.73
9348.00,1.73
9347.00,1.73
9346.00,1.73
9345.00,1.72
9344.00,1.72
9343.00,1.72
9342.00,1.72
9341.00,1.72
9340.00,1.71
9339.00,1.71
9338.00,1.71
9337.00,1.71
9336.00,1.71
9335.00,1.71
9334.00,1.71
9333.00,1.71
9332.00,1.71
9331.00,1.71
9330.00,1.71
9329.00,1.72
9328.00,1.72
9327.00,1.72
9326.00,1.72
9325.00,1.73
9324.00,1.73
9323.00,1.73
9322.00,1.73
9321.00,1.73
9320.00,1.74
9319.00,1.74
9318.00,1.74
9317.00,1.74
9316.00,1.74
9315.00,1.74
9314.00,1.74
9313.00,1.74
9312.00,1.73
9311.00,1.73
9310.00,1.73
9309.00,1.73
9308.00,1.73
9307.00,1.73
9306.00,1.72
9305.00,1.72
9304.00,1.72
9303.00,1.72
9302.00,1.72
9301.00,1.72
9300.00,1.72
9299.00,1.72
9298.00,1.71
9297.00,1.71
9296.00,1.72
9295.00,1.72
9294.00,1.72
9293.00,1.72
9292.00,1.72
9291.00,1.72
9290.00,1.72
9289.00,1.72
9288.00,1.72
9287.00,1.72
9286.00,1.72
9285.00,1.72
9284.00,1.72
9283.00,1.72
9282.00,1.72
9281.00,1.73
9280.00,1.73
9279.00,1.73
9278.00,1.73
9277.00,1.73
9276.00,1.73
9275.00,1.73
9274.00,1.73
9273.00,1.73
9272.00,1.73
9271.00,1.74
9270.00,1.74
9269.00,1.74
9268.00,1.74
9267.00,1.74
9266.00,1.74
9265.00,1.74
9264.00,1.74
9263.00,1.74
9262.00,1.74
9261.00,1.74
9260.00,1.74
9259.00,1.74
9258.00,1.74
9257.00,1.74
9256.00,1.74
9255.00,1.74
9254.00,1.75
9253.00,1.75
9252.00,1.75
9251.00,1.75
9250.00,1.75
9249.00,1.75
9248.00,1.75
9247.00,1.75
9246.00,1.75
9245.00,1.75
9244.00,1.75
9243.00,1.75
9242.00,1.75
9241.00,1.75
9240.00,1.75
9239.00,1.75
9238.00,1.75
9237.00,1.75
9236.00,1.75
9235.00,1.75
9234.00,1.75
9233.00,1.74
9232.00,1.74
9231.00,1.74
9230.00,1.73
9229.00,1.73
9228.00,1.73
9227.00,1.72
9226.00,1.72
9225.00,1.72
9224.00,1.71
9223.00,1.71
9222.00,1.71
9221.00,1.71
9220.00,1.70
9219.00,1.70
9218.00,1.70
9217.00,1.70
9216.00,1.70
9215.00,1.70
9214.00,1.70
9213.00,1.71
9212.00,1.71
9211.00,1.71
9210.00,1.71
9209.00,1.71
9208.00,1.71
9207.00,1.71
9206.00,1.72
9205.00,1.72
9204.00,1.72
9203.00,1.72
9202.00,1.72
9201.00,1.72
9200.00,1.72
9199.00,1.72
9198.00,1.72
9197.00,1.72
9196.00,1.73
9195.00,1.73
9194.00,1.73
9193.00,1.73
9192.00,1.73
9191.00,1.73
9190.00,1.73
9189.00,1.73
9188.00,1.73
9187.00,1.73
9186.00,1.73
9185.00,1.73
9184.00,1.73
9183.00,1.73
9182.00,1.74
9181.00,1.74
9180.00,1.74
9179.00,1.74
9178.00,1.74
9177.00,1.74
9176.00,1.74
9175.00,1.74
9174.00,1.75
9173.00,1.75
9172.00,1.75
9171.00,1.75
9170.00,1.75
9169.00,1.75
9168.00,1.75
9167.00,1.75
9166.00,1.75
9165.00,1.75
9164.00,1.75
9163.00,1.75
9162.00,1.75
9161.00,1.75
9160.00,1.74
9159.00,1.74
9158.00,1.74
9157.00,1.74
9156.00,1.74
9155.00,1.73
9154.00,1.73
9153.00,1.73
9152.00,1.73
9151.00,1.73
9150.00,1.72
9149.00,1.72
9148.00,1.72
9147.00,1.72
9146.00,1.72
9145.00,1.72
9144.00,1.72
9143.00,1.72
9142.00,1.72
9141.00,1.72
9140.00,1.72
9139.00,1.72
9138.00,1.72
9137.00,1.73
9136.00,1.73
9135.00,1.73
9134.00,1.73
9133.00,1.73
9132.00,1.73
9131.00,1.73
9130.00,1.73
9129.00,1.73
9128.00,1.73
9127.00,1.74
9126.00,1.74
9125.00,1.74
9124.00,1.74
9123.00,1.73
9122.00,1.73
9121.00,1.73
9120.00,1.73
9119.00,1.73
9118.00,1.73
9117.00,1.73
9116.00,1.73
9115.00,1.73
9114.00,1.73
9113.00,1.73
9112.00,1.72
9111.00,1.72
9110.00,1.72
9109.00,1.72
9108.00,1.72
9107.00,1.72
9106.00,1.72
9105.00,1.72
9104.00,1.72
9103.00,1.72
9102.00,1.72
9101.00,1.72
9100.00,1.72
9099.00,1.73
9098.00,1.73
9097.00,1.73
9096.00,1.73
9095.00,1.73
9094.00,1.73
9093.00,1.73
9092.00,1.73
9091.00,1.73
9090.00,1.73
9089.00,1.73
9088.00,1.73
9087.00,1.73
9086.00,1.73
9085.00,1.73
9084.00,1.73
9083.00,1.73
9082.00,1.73
9081.00,1.73
9080.00,1.73
9079.00,1.74
9078.00,1.74
9077.00,1.74
9076.00,1.74
9075.00,1.74
9074.00,1.74
9073.00,1.74
9072.00,1.74
9071.00,1.74
9070.00,1.74
9069.00,1.74
9068.00,1.74
9067.00,1.74
9066.00,1.74
9065.00,1.74
9064.00,1.74
9063.00,1.75
9062.00,1.75
9061.00,1.75
9060.00,1.75
9059.00,1.75
9058.00,1.75
9057.00,1.75
9056.00,1.75
9055.00,1.75
9054.00,1.75
9053.00,1.75
9052.00,1.75
9051.00,1.75
9050.00,1.75
9049.00,1.75
9048.00,1.75
9047.00,1.75
9046.00,1.75
9045.00,1.75
9044.00,1.74
9043.00,1.74
9042.00,1.74
9041.00,1.74
9040.00,1.74
9039.00,1.74
9038.00,1.74
9037.00,1.74
9036.00,1.74
9035.00,1.74
9034.00,1.74
9033.00,1.74
9032.00,1.75
9031.00,1.75
9030.00,1.75
9029.00,1.75
9028.00,1.75
9027.00,1.75
9026.00,1.75
9025.00,1.75
9024.00,1.75
9023.00,1.75
9022.00,1.75
9021.00,1.75
9020.00,1.75
9019.00,1.75
9018.00,1.75
9017.00,1.75
9016.00,1.75
9015.00,1.75
9014.00,1.75
9013.00,1.75
9012.00,1.75
9011.00,1.75
9010.00,1.75
9009.00,1.75
9008.00,1.75
9007.00,1.75
9006.00,1.75
9005.00,1.75
9004.00,1.75
9003.00,1.75
9002.00,1.75
9001.00,1.75
9000.00,1.75
8999.00,1.75
8998.00,1.75
8997.00,1.75
8996.00,1.75
8995.00,1.75
8994.00,1.75
8993.00,1.75
8992.00,1.75
8991.00,1.75
8990.00,1.75
8989.00,1.74
8988.00,1.74
8987.00,1.74
8986.00,1.74
8985.00,1.74
8984.00,1.74
8983.00,1.74
8982.00,1.74
8981.00,1.74
8980.00,1.74
8979.00,1.74
8978.00,1.74
8977.00,1.74
8976.00,1.74
8975.00,1.74
8974.00,1.74
8973.00,1.74
8972.00,1.74
8971.00,1.74
8970.00,1.75
8969.00,1.75
8968.00,1.75
8967.00,1.75
8966.00,1.74
8965.00,1.74
8964.00,1.74
8963.00,1.74
8962.00,1.74
8961.00,1.74
8960.00,1.74
8959.00,1.74
8958.00,1.74
8957.00,1.74
8956.00,1.74
8955.00,1.74
8954.00,1.74
8953.00,1.74
8952.00,1.74
8951.00,1.74
8950.00,1.74
8949.00,1.74
8948.00,1.74
8947.00,1.74
8946.00,1.74
8945.00,1.74
8944.00,1.74
8943.00,1.74
8942.00,1.74
8941.00,1.74
8940.00,1.75
8939.00,1.75
8938.00,1.75
8937.00,1.75
8936.00,1.75
8935.00,1.75
8934.00,1.75
8933.00,1.74
8932.00,1.74
8931.00,1.74
8930.00,1.74
8929.00,1.74
8928.00,1.74
8927.00,1.74
8926.00,1.74
8925.00,1.74
8924.00,1.74
8923.00,1.74
8922.00,1.74
8921.00,1.74
8920.00,1.74
8919.00,1.73
8918.00,1.73
8917.00,1.73
8916.00,1.73
8915.00,1.73
8914.00,1.73
8913.00,1.73
8912.00,1.73
8911.00,1.73
8910.00,1.73
8909.00,1.73
8908.00,1.73
8907.00,1.73
8906.00,1.73
8905.00,1.73
8904.00,1.73
8903.00,1.73
8902.00,1.74
8901.00,1.74
8900.00,1.74
8899.00,1.74
8898.00,1.74
8897.00,1.74
8896.00,1.74
8895.00,1.74
8894.00,1.74
8893.00,1.74
8892.00,1.74
8891.00,1.74
8890.00,1.74
8889.00,1.74
8888.00,1.74
8887.00,1.74
8886.00,1.74
8885.00,1.74
8884.00,1.74
8883.00,1.74
8882.00,1.74
8881.00,1.74
8880.00,1.74
8879.00,1.74
8878.00,1.73
8877.00,1.73
8876.00,1.73
8875.00,1.73
8874.00,1.73
8873.00,1.73
8872.00,1.73
8871.00,1.73
8870.00,1.73
8869.00,1.73
8868.00,1.73
8867.00,1.72
8866.00,1.72
8865.00,1.72
8864.00,1.72
8863.00,1.72
8862.00,1.72
8861.00,1.72
8860.00,1.72
8859.00,1.72
8858.00,1.72
8857.00,1.72
8856.00,1.72
8855.00,1.72
8854.00,1.72
8853.00,1.72
8852.00,1.72
8851.00,1.72
8850.00,1.72
8849.00,1.73
8848.00,1.73
8847.00,1.73
8846.00,1.73
8845.00,1.73
8844.00,1.73
8843.00,1.73
8842.00,1.73
8841.00,1.74
8840.00,1.74
8839.00,1.74
8838.00,1.74
8837.00,1.74
8836.00,1.74
8835.00,1.74
8834.00,1.74
8833.00,1.74
8832.00,1.74
8831.00,1.74
8830.00,1.74
8829.00,1.74
8828.00,1.74
8827.00,1.74
8826.00,1.74
8825.00,1.73
8824.00,1.73
8823.00,1.73
8822.00,1.73
8821.00,1.73
8820.00,1.73
8819.00,1.73
8818.00,1.73
8817.00,1.73
8816.00,1.73
8815.00,1.73
8814.00,1.73
8813.00,1.73
8812.00,1.73
8811.00,1.73
8810.00,1.73
8809.00,1.73
8808.00,1.73
8807.00,1.73
8806.00,1.72
8805.00,1.72
8804.00,1.72
8803.00,1.72
8802.00,1.72
8801.00,1.72
8800.00,1.71
8799.00,1.71
8798.00,1.71
8797.00,1.71
8796.00,1.71
8795.00,1.71
8794.00,1.71
8793.00,1.71
8792.00,1.71
8791.00,1.71
8790.00,1.71
8789.00,1.71
8788.00,1.71
8787.00,1.71
8786.00,1.71
8785.00,1.71
8784.00,1.71
8783.00,1.71
8782.00,1.71
8781.00,1.71
8780.00,1.71
8779.00,1.71
8778.00,1.71
8777.00,1.71
8776.00,1.71
8775.00,1.71
8774.00,1.71
8773.00,1.71
8772.00,1.71
8771.00,1.71
8770.00,1.71
8769.00,1.71
8768.00,1.70
8767.00,1.70
8766.00,1.70
8765.00,1.70
8764.00,1.70
8763.00,1.70
8762.00,1.70
8761.00,1.70
8760.00,1.70
8759.00,1.70
8758.00,1.70
8757.00,1.70
8756.00,1.70
8755.00,1.70
8754.00,1.70
8753.00,1.70
8752.00,1.70
8751.00,1.70
8750.00,1.70
8749.00,1.70
8748.00,1.70
8747.00,1.70
8746.00,1.70
8745.00,1.70
8744.00,1.70
8743.00,1.70
8742.00,1.70
8741.00,1.70
8740.00,1.70
8739.00,1.70
8738.00,1.70
8737.00,1.70
8736.00,1.70
8735.00,1.70
8734.00,1.70
8733.00,1.70
8732.00,1.70
8731.00,1.70
8730.00,1.70
8729.00,1.70
8728.00,1.70
8727.00,1.70
8726.00,1.69
8725.00,1.69
8724.00,1.69
8723.00,1.69
8722.00,1.69
8721.00,1.69
8720.00,1.69
8719.00,1.69
8718.00,1.69
8717.00,1.69
8716.00,1.69
8715.00,1.69
8714.00,1.69
8713.00,1.69
8712.00,1.69
8711.00,1.69
8710.00,1.68
8709.00,1.68
8708.00,1.68
8707.00,1.68
8706.00,1.68
8705.00,1.68
8704.00,1.68
8703.00,1.68
8702.00,1.68
8701.00,1.68
8700.00,1.68
8699.00,1.68
8698.00,1.68
8697.00,1.68
8696.00,1.68
8695.00,1.68
8694.00,1.68
8693.00,1.68
8692.00,1.68
8691.00,1.68
8690.00,1.68
8689.00,1.68
8688.00,1.68
8687.00,1.68
8686.00,1.69
8685.00,1.69
8684.00,1.69
8683.00,1.69
8682.00,1.69
8681.00,1.69
8680.00,1.69
8679.00,1.69
8678.00,1.69
8677.00,1.69
8676.00,1.69
8675.00,1.69
8674.00,1.69
8673.00,1.69
8672.00,1.69
8671.00,1.69
8670.00,1.69
8669.00,1.69
8668.00,1.69
8667.00,1.69
8666.00,1.69
8665.00,1.69
8664.00,1.69
8663.00,1.69
8662.00,1.69
8661.00,1.69
8660.00,1.69
8659.00,1.69
8658.00,1.69
8657.00,1.68
8656.00,1.68
8655.00,1.68
8654.00,1.68
8653.00,1.68
8652.00,1.68
8651.00,1.68
8650.00,1.68
8649.00,1.68
8648.00,1.68
8647.00,1.68
8646.00,1.68
8645.00,1.68
8644.00,1.68
8643.00,1.68
8642.00,1.68
8641.00,1.68
8640.00,1.68
8639.00,1.68
8638.00,1.68
8637.00,1.68
8636.00,1.68
8635.00,1.68
8634.00,1.68
8633.00,1.67
8632.00,1.67
8631.00,1.67
8630.00,1.67
8629.00,1.67
8628.00,1.67
8627.00,1.67
8626.00,1.67
8625.00,1.67
8624.00,1.67
8623.00,1.67
8622.00,1.67
8621.00,1.67
8620.00,1.67
8619.00,1.67
8618.00,1.67
8617.00,1.67
8616.00,1.67
8615.00,1.67
8614.00,1.67
8613.00,1.67
8612.00,1.67
8611.00,1.67
8610.00,1.67
8609.00,1.66
8608.00,1.66
8607.00,1.66
8606.00,1.66
8605.00,1.66
8604.00,1.66
8603.00,1.66
8602.00,1.66
8601.00,1.66
8600.00,1.66
8599.00,1.66
8598.00,1.66
8597.00,1.66
8596.00,1.66
8595.00,1.66
8594.00,1.66
8593.00,1.66
8592.00,1.66
8591.00,1.66
8590.00,1.66
8589.00,1.66
8588.00,1.66
8587.00,1.66
8586.00,1.66
8585.00,1.67
8584.00,1.67
8583.00,1.67
8582.00,1.67
8581.00,1.67
8580.00,1.67
8579.00,1.66
8578.00,1.66
8577.00,1.66
8576.00,1.66
8575.00,1.66
8574.00,1.66
8573.00,1.66
8572.00,1.66
8571.00,1.66
8570.00,1.66
8569.00,1.66
8568.00,1.66
8567.00,1.66
8566.00,1.66
8565.00,1.65
8564.00,1.65
8563.00,1.65
8562.00,1.65
8561.00,1.65
8560.00,1.65
8559.00,1.65
8558.00,1.65
8557.00,1.65
8556.00,1.65
8555.00,1.65
8554.00,1.65
8553.00,1.65
8552.00,1.65
8551.00,1.64
8550.00,1.64
8549.00,1.64
8548.00,1.64
8547.00,1.64
8546.00,1.64
8545.00,1.64
8544.00,1.64
8543.00,1.64
8542.00,1.64
8541.00,1.64
8540.00,1.64
8539.00,1.64
8538.00,1.64
8537.00,1.64
8536.00,1.64
8535.00,1.64
8534.00,1.64
8533.00,1.64
8532.00,1.64
8531.00,1.64
8530.00,1.64
8529.00,1.64
8528.00,1.64
8527.00,1.64
8526.00,1.64
8525.00,1.64
8524.00,1.64
8523.00,1.64
8522.00,1.64
8521.00,1.64
8520.00,1.63
8519.00,1.63
8518.00,1.63
8517.00,1.63
8516.00,1.63
8515.00,1.63
8514.00,1.63
8513.00,1.63
8512.00,1.63
8511.00,1.63
8510.00,1.63
8509.00,1.63
8508.00,1.63
8507.00,1.63
8506.00,1.63
8505.00,1.64
8504.00,1.64
8503.00,1.64
8502.00,1.64
8501.00,1.64
8500.00,1.64
8499.00,1.64
8498.00,1.64
8497.00,1.64
8496.00,1.64
8495.00,1.64
8494.00,1.64
8493.00,1.64
8492.00,1.64
8491.00,1.64
8490.00,1.64
8489.00,1.64
8488.00,1.64
8487.00,1.64
8486.00,1.64
8485.00,1.64
8484.00,1.64
8483.00,1.64
8482.00,1.64
8481.00,1.64
8480.00,1.64
8479.00,1.64
8478.00,1.63
8477.00,1.63
8476.00,1.63
8475.00,1.63
8474.00,1.63
8473.00,1.63
8472.00,1.63
8471.00,1.63
8470.00,1.62
8469.00,1.62
8468.00,1.62
8467.00,1.62
8466.00,1.62
8465.00,1.62
8464.00,1.61
8463.00,1.61
8462.00,1.61
8461.00,1.61
8460.00,1.61
8459.00,1.61
8458.00,1.60
8457.00,1.60
8456.00,1.60
8455.00,1.60
8454.00,1.60
8453.00,1.60
8452.00,1.60
8451.00,1.60
8450.00,1.60
8449.00,1.60
8448.00,1.59
8447.00,1.59
8446.00,1.59
8445.00,1.59
8444.00,1.59
8443.00,1.59
8442.00,1.60
8441.00,1.60
8440.00,1.60
8439.00,1.60
8438.00,1.60
8437.00,1.60
8436.00,1.60
8435.00,1.60
8434.00,1.60
8433.00,1.60
8432.00,1.61
8431.00,1.61
8430.00,1.61
8429.00,1.61
8428.00,1.61
8427.00,1.61
8426.00,1.61
8425.00,1.61
8424.00,1.61
8423.00,1.61
8422.00,1.61
8421.00,1.61
8420.00,1.61
8419.00,1.61
8418.00,1.61
8417.00,1.61
8416.00,1.60
8415.00,1.60
8414.00,1.60
8413.00,1.60
8412.00,1.60
8411.00,1.60
8410.00,1.60
8409.00,1.60
8408.00,1.60
8407.00,1.60
8406.00,1.60
8405.00,1.60
8404.00,1.60
8403.00,1.60
8402.00,1.60
8401.00,1.60
8400.00,1.61
8399.00,1.61
8398.00,1.61
8397.00,1.61
8396.00,1.61
8395.00,1.62
8394.00,1.62
8393.00,1.62
8392.00,1.62
8391.00,1.63
8390.00,1.63
8389.00,1.63
8388.00,1.63
8387.00,1.63
8386.00,1.64
8385.00,1.64
8384.00,1.64
8383.00,1.64
8382.00,1.64
8381.00,1.64
8380.00,1.64
8379.00,1.64
8378.00,1.64
8377.00,1.64
8376.00,1.64
8375.00,1.64
8374.00,1.64
8373.00,1.64
8372.00,1.64
8371.00,1.64
8370.00,1.64
8369.00,1.64
8368.00,1.64
8367.00,1.64
8366.00,1.64
8365.00,1.64
8364.00,1.64
8363.00,1.64
8362.00,1.64
8361.00,1.65
8360.00,1.65
8359.00,1.65
8358.00,1.65
8357.00,1.65
8356.00,1.65
8355.00,1.65
8354.00,1.65
8353.00,1.65
8352.00,1.65
8351.00,1.65
8350.00,1.65
8349.00,1.65
8348.00,1.65
8347.00,1.66
8346.00,1.66
8345.00,1.66
8344.00,1.66
8343.00,1.66
8342.00,1.66
8341.00,1.66
8340.00,1.66
8339.00,1.66
8338.00,1.66
8337.00,1.66
8336.00,1.66
8335.00,1.65
8334.00,1.65
8333.00,1.65
8332.00,1.65
8331.00,1.65
8330.00,1.65
8329.00,1.65
8328.00,1.65
8327.00,1.65
8326.00,1.65
8325.00,1.65
8324.00,1.65
8323.00,1.65
8322.00,1.65
8321.00,1.65
8320.00,1.65
8319.00,1.65
8318.00,1.65
8317.00,1.65
8316.00,1.65
8315.00,1.65
8314.00,1.64
8313.00,1.64
8312.00,1.64
8311.00,1.64
8310.00,1.64
8309.00,1.64
8308.00,1.64
8307.00,1.64
8306.00,1.64
8305.00,1.64
8304.00,1.64
8303.00,1.64
8302.00,1.64
8301.00,1.64
8300.00,1.64
8299.00,1.64
8298.00,1.64
8297.00,1.65
8296.00,1.65
8295.00,1.65
8294.00,1.65
8293.00,1.65
8292.00,1.66
8291.00,1.66
8290.00,1.66
8289.00,1.66
8288.00,1.66
8287.00,1.66
8286.00,1.66
8285.00,1.66
8284.00,1.67
8283.00,1.67
8282.00,1.67
8281.00,1.67
8280.00,1.66
8279.00,1.66
8278.00,1.66
8277.00,1.66
8276.00,1.66
8275.00,1.66
8274.00,1.66
8273.00,1.66
8272.00,1.66
8271.00,1.65
8270.00,1.65
8269.00,1.65
8268.00,1.65
8267.00,1.65
8266.00,1.65
8265.00,1.65
8264.00,1.65
8263.00,1.65
8262.00,1.65
8261.00,1.66
8260.00,1.66
8259.00,1.66
8258.00,1.66
8257.00,1.66
8256.00,1.66
8255.00,1.66
8254.00,1.67
8253.00,1.67
8252.00,1.67
8251.00,1.67
8250.00,1.67
8249.00,1.67
8248.00,1.67
8247.00,1.67
8246.00,1.67
8245.00,1.67
8244.00,1.67
8243.00,1.67
8242.00,1.67
8241.00,1.67
8240.00,1.67
8239.00,1.67
8238.00,1.67
8237.00,1.67
8236.00,1.67
8235.00,1.67
8234.00,1.67
8233.00,1.67
8232.00,1.67
8231.00,1.67
8230.00,1.67
8229.00,1.67
8228.00,1.67
8227.00,1.68
8226.00,1.68
8225.00,1.68
8224.00,1.68
8223.00,1.68
8222.00,1.68
8221.00,1.68
8220.00,1.68
8219.00,1.68
8218.00,1.68
8217.00,1.68
8216.00,1.68
8215.00,1.68
8214.00,1.67
8213.00,1.67
8212.00,1.67
8211.00,1.67
8210.00,1.67
8209.00,1.66
8208.00,1.66
8207.00,1.66
8206.00,1.66
8205.00,1.66
8204.00,1.66
8203.00,1.66
8202.00,1.66
8201.00,1.66
8200.00,1.66
8199.00,1.66
8198.00,1.66
8197.00,1.66
8196.00,1.67
8195.00,1.67
8194.00,1.67
8193.00,1.67
8192.00,1.67
8191.00,1.67
8190.00,1.67
8189.00,1.68
8188.00,1.68
8187.00,1.68
8186.00,1.68
8185.00,1.68
8184.00,1.68
8183.00,1.68
8182.00,1.68
8181.00,1.68
8180.00,1.68
8179.00,1.68
8178.00,1.68
8177.00,1.68
8176.00,1.68
8175.00,1.68
8174.00,1.68
8173.00,1.68
8172.00,1.68
8171.00,1.68
8170.00,1.68
8169.00,1.68
8168.00,1.68
8167.00,1.68
8166.00,1.68
8165.00,1.68
8164.00,1.68
8163.00,1.68
8162.00,1.68
8161.00,1.68
8160.00,1.68
8159.00,1.68
8158.00,1.68
8157.00,1.68
8156.00,1.68
8155.00,1.69
8154.00,1.69
8153.00,1.69
8152.00,1.69
8151.00,1.69
8150.00,1.69
8149.00,1.69
8148.00,1.69
8147.00,1.69
8146.00,1.69
8145.00,1.69
8144.00,1.69
8143.00,1.69
8142.00,1.69
8141.00,1.69
8140.00,1.69
8139.00,1.69
8138.00,1.69
8137.00,1.69
8136.00,1.69
8135.00,1.69
8134.00,1.69
8133.00,1.69
8132.00,1.69
8131.00,1.69
8130.00,1.69
8129.00,1.69
8128.00,1.70
8127.00,1.70
8126.00,1.70
8125.00,1.70
8124.00,1.70
8123.00,1.70
8122.00,1.70
8121.00,1.70
8120.00,1.70
8119.00,1.70
8118.00,1.70
8117.00,1.70
8116.00,1.70
8115.00,1.70
8114.00,1.70
8113.00,1.70
8112.00,1.70
8111.00,1.70
8110.00,1.70
8109.00,1.70
8108.00,1.70
8107.00,1.70
8106.00,1.70
8105.00,1.70
8104.00,1.70
8103.00,1.70
8102.00,1.70
8101.00,1.70
8100.00,1.70
8099.00,1.70
8098.00,1.70
8097.00,1.70
8096.00,1.70
8095.00,1.70
8094.00,1.70
8093.00,1.70
8092.00,1.70
8091.00,1.70
8090.00,1.70
8089.00,1.70
8088.00,1.70
8087.00,1.70
8086.00,1.70
8085.00,1.70
8084.00,1.70
8083.00,1.70
8082.00,1.70
8081.00,1.70
8080.00,1.70
8079.00,1.70
8078.00,1.70
8077.00,1.70
8076.00,1.70
8075.00,1.70
8074.00,1.70
8073.00,1.70
8072.00,1.70
8071.00,1.70
8070.00,1.70
8069.00,1.70
8068.00,1.70
8067.00,1.70
8066.00,1.70
8065.00,1.70
8064.00,1.70
8063.00,1.70
8062.00,1.70
8061.00,1.70
8060.00,1.71
8059.00,1.71
8058.00,1.71
8057.00,1.71
8056.00,1.71
8055.00,1.71
8054.00,1.71
8053.00,1.71
8052.00,1.71
8051.00,1.71
8050.00,1.71
8049.00,1.71
8048.00,1.71
8047.00,1.71
8046.00,1.71
8045.00,1.71
8044.00,1.71
8043.00,1.71
8042.00,1.71
8041.00,1.72
8040.00,1.72
8039.00,1.72
8038.00,1.72
8037.00,1.72
8036.00,1.72
8035.00,1.72
8034.00,1.72
8033.00,1.72
8032.00,1.72
8031.00,1.72
8030.00,1.72
8029.00,1.72
8028.00,1.72
8027.00,1.72
8026.00,1.72
8025.00,1.71
8024.00,1.71
8023.00,1.71
8022.00,1.71
8021.00,1.71
8020.00,1.71
8019.00,1.71
8018.00,1.71
8017.00,1.71
8016.00,1.71
8015.00,1.71
8014.00,1.71
8013.00,1.71
8012.00,1.71
8011.00,1.71
8010.00,1.71
8009.00,1.71
8008.00,1.71
8007.00,1.71
8006.00,1.71
8005.00,1.71
8004.00,1.71
8003.00,1.71
8002.00,1.71
8001.00,1.71
8000.00,1.72
7999.00,1.72
7998.00,1.72
7997.00,1.72
7996.00,1.72
7995.00,1.72
7994.00,1.72
7993.00,1.72
7992.00,1.72
7991.00,1.72
7990.00,1.72
7989.00,1.72
7988.00,1.72
7987.00,1.72
7986.00,1.72
7985.00,1.72
7984.00,1.72
7983.00,1.72
7982.00,1.72
7981.00,1.72
7980.00,1.72
7979.00,1.72
7978.00,1.72
7977.00,1.72
7976.00,1.71
7975.00,1.71
7974.00,1.71
7973.00,1.71
7972.00,1.71
7971.00,1.71
7970.00,1.71
7969.00,1.71
7968.00,1.71
7967.00,1.71
7966.00,1.71
7965.00,1.71
7964.00,1.72
7963.00,1.72
7962.00,1.72
7961.00,1.72
7960.00,1.72
7959.00,1.72
7958.00,1.72
7957.00,1.72
7956.00,1.72
7955.00,1.73
7954.00,1.73
7953.00,1.73
7952.00,1.73
7951.00,1.73
7950.00,1.73
7949.00,1.73
7948.00,1.73
7947.00,1.73
7946.00,1.73
7945.00,1.73
7944.00,1.72
7943.00,1.72
7942.00,1.72
7941.00,1.72
7940.00,1.72
7939.00,1.72
7938.00,1.72
7937.00,1.71
7936.00,1.71
7935.00,1.71
7934.00,1.71
7933.00,1.71
7932.00,1.71
7931.00,1.71
7930.00,1.71
7929.00,1.71
7928.00,1.71
7927.00,1.71
7926.00,1.71
7925.00,1.71
7924.00,1.71
7923.00,1.71
7922.00,1.72
7921.00,1.72
7920.00,1.72
7919.00,1.72
7918.00,1.72
7917.00,1.72
7916.00,1.72
7915.00,1.72
7914.00,1.73
7913.00,1.73
7912.00,1.73
7911.00,1.73
7910.00,1.73
7909.00,1.73
7908.00,1.73
7907.00,1.73
7906.00,1.73
7905.00,1.73
7904.00,1.73
7903.00,1.73
7902.00,1.73
7901.00,1.73
7900.00,1.73
7899.00,1.73
7898.00,1.72
7897.00,1.72
7896.00,1.72
7895.00,1.72
7894.00,1.72
7893.00,1.72
7892.00,1.72
7891.00,1.72
7890.00,1.72
7889.00,1.72
7888.00,1.72
7887.00,1.72
7886.00,1.72
7885.00,1.72
7884.00,1.73
7883.00,1.73
7882.00,1.73
7881.00,1.73
7880.00,1.73
7879.00,1.73
7878.00,1.73
7877.00,1.73
7876.00,1.73
7875.00,1.73
7874.00,1.73
7873.00,1.73
7872.00,1.73
7871.00,1.73
7870.00,1.73
7869.00,1.73
7868.00,1.73
7867.00,1.73
7866.00,1.73
7865.00,1.74
7864.00,1.74
7863.00,1.74
7862.00,1.74
7861.00,1.74
7860.00,1.74
7859.00,1.74
7858.00,1.74
7857.00,1.74
7856.00,1.74
7855.00,1.74
7854.00,1.74
7853.00,1.74
7852.00,1.74
7851.00,1.74
7850.00,1.74
7849.00,1.74
7848.00,1.74
7847.00,1.73
7846.00,1.73
7845.00,1.73
7844.00,1.73
7843.00,1.73
7842.00,1.73
7841.00,1.73
7840.00,1.73
7839.00,1.73
7838.00,1.73
7837.00,1.73
7836.00,1.73
7835.00,1.73
7834.00,1.73
7833.00,1.73
7832.00,1.73
7831.00,1.73
7830.00,1.73
7829.00,1.73
7828.00,1.73
7827.00,1.73
7826.00,1.73
7825.00,1.73
7824.00,1.73
7823.00,1.73
7822.00,1.74
7821.00,1.74
7820.00,1.74
7819.00,1.74
7818.00,1.74
7817.00,1.74
7816.00,1.74
7815.00,1.74
7814.00,1.74
7813.00,1.74
7812.00,1.74
7811.00,1.74
7810.00,1.74
7809.00,1.74
7808.00,1.74
7807.00,1.74
7806.00,1.74
7805.00,1.74
7804.00,1.74
7803.00,1.73
7802.00,1.73
7801.00,1.73
7800.00,1.73
7799.00,1.73
7798.00,1.73
7797.00,1.73
7796.00,1.73
7795.00,1.73
7794.00,1.73
7793.00,1.73
7792.00,1.73
7791.00,1.73
7790.00,1.74
7789.00,1.74
7788.00,1.74
7787.00,1.74
7786.00,1.74
7785.00,1.74
7784.00,1.74
7783.00,1.74
7782.00,1.74
7781.00,1.73
7780.00,1.73
7779.00,1.73
7778.00,1.73
7777.00,1.73
7776.00,1.73
7775.00,1.73
7774.00,1.73
7773.00,1.73
7772.00,1.73
7771.00,1.73
7770.00,1.73
7769.00,1.73
7768.00,1.73
7767.00,1.73
7766.00,1.73
7765.00,1.73
7764.00,1.73
7763.00,1.73
7762.00,1.74
7761.00,1.74
7760.00,1.74
7759.00,1.74
7758.00,1.74
7757.00,1.74
7756.00,1.74
7755.00,1.74
7754.00,1.74
7753.00,1.74
7752.00,1.74
7751.00,1.74
7750.00,1.74
7749.00,1.74
7748.00,1.74
7747.00,1.74
7746.00,1.74
7745.00,1.74
7744.00,1.74
7743.00,1.74
7742.00,1.74
7741.00,1.74
7740.00,1.74
7739.00,1.74
7738.00,1.74
7737.00,1.74
7736.00,1.74
7735.00,1.74
7734.00,1.74
7733.00,1.74
7732.00,1.74
7731.00,1.74
7730.00,1.74
7729.00,1.74
7728.00,1.74
7727.00,1.74
7726.00,1.74
7725.00,1.74
7724.00,1.74
7723.00,1.74
7722.00,1.74
7721.00,1.74
7720.00,1.74
7719.00,1.74
7718.00,1.75
7717.00,1.75
7716.00,1.75
7715.00,1.75
7714.00,1.75
7713.00,1.75
7712.00,1.75
7711.00,1.75
7710.00,1.75
7709.00,1.75
7708.00,1.75
7707.00,1.75
7706.00,1.75
7705.00,1.75
7704.00,1.75
7703.00,1.75
7702.00,1.75
7701.00,1.75
7700.00,1.75
7699.00,1.75
7698.00,1.75
7697.00,1.75
7696.00,1.75
7695.00,1.75
7694.00,1.75
7693.00,1.75
7692.00,1.75
7691.00,1.75
7690.00,1.75
7689.00,1.75
7688.00,1.75
7687.00,1.75
7686.00,1.75
7685.00,1.75
7684.00,1.75
7683.00,1.75
7682.00,1.75
7681.00,1.75
7680.00,1.75
7679.00,1.75
7678.00,1.75
7677.00,1.75
7676.00,1.75
7675.00,1.75
7674.00,1.75
7673.00,1.75
7672.00,1.75
7671.00,1.75
7670.00,1.75
7669.00,1.75
7668.00,1.75
7667.00,1.75
7666.00,1.75
7665.00,1.75
7664.00,1.75
7663.00,1.75
7662.00,1.75
7661.00,1.75
7660.00,1.75
7659.00,1.75
7658.00,1.75
7657.00,1.75
7656.00,1.75
7655.00,1.75
7654.00,1.75
7653.00,1.75
7652.00,1.75
7651.00,1.75
7650.00,1.75
7649.00,1.75
7648.00,1.75
7647.00,1.74
7646.00,1.74
7645.00,1.74
7644.00,1.74
7643.00,1.74
7642.00,1.74
7641.00,1.74
7640.00,1.74
7639.00,1.74
7638.00,1.74
7637.00,1.74
7636.00,1.74
7635.00,1.75
7634.00,1.75
7633.00,1.75
7632.00,1.75
7631.00,1.75
7630.00,1.75
7629.00,1.75
7628.00,1.75
7627.00,1.75
7626.00,1.75
7625.00,1.75
7624.00,1.75
7623.00,1.75
7622.00,1.75
7621.00,1.75
7620.00,1.75
7619.00,1.75
7618.00,1.75
7617.00,1.75
7616.00,1.75
7615.00,1.75
7614.00,1.75
7613.00,1.75
7612.00,1.75
7611.00,1.75
7610.00,1.75
7609.00,1.75
7608.00,1.75
7607.00,1.74
7606.00,1.74
7605.00,1.74
7604.00,1.74
7603.00,1.74
7602.00,1.74
7601.00,1.74
7600.00,1.74
7599.00,1.74
7598.00,1.74
7597.00,1.74
7596.00,1.74
7595.00,1.74
7594.00,1.74
7593.00,1.74
7592.00,1.74
7591.00,1.74
7590.00,1.74
7589.00,1.74
7588.00,1.74
7587.00,1.74
7586.00,1.74
7585.00,1.74
7584.00,1.74
7583.00,1.74
7582.00,1.74
7581.00,1.74
7580.00,1.74
7579.00,1.74
7578.00,1.74
7577.00,1.74
7576.00,1.74
7575.00,1.74
7574.00,1.74
7573.00,1.74
7572.00,1.74
7571.00,1.74
7570.00,1.74
7569.00,1.74
7568.00,1.74
7567.00,1.74
7566.00,1.74
7565.00,1.74
7564.00,1.73
7563.00,1.73
7562.00,1.73
7561.00,1.73
7560.00,1.73
7559.00,1.73
7558.00,1.73
7557.00,1.73
7556.00,1.73
7555.00,1.73
7554.00,1.73
7553.00,1.73
7552.00,1.73
7551.00,1.73
7550.00,1.73
7549.00,1.73
7548.00,1.73
7547.00,1.73
7546.00,1.73
7545.00,1.73
7544.00,1.73
7543.00,1.73
7542.00,1.73
7541.00,1.73
7540.00,1.73
7539.00,1.73
7538.00,1.73
7537.00,1.73
7536.00,1.73
7535.00,1.73
7534.00,1.73
7533.00,1.73
7532.00,1.73
7531.00,1.73
7530.00,1.73
7529.00,1.73
7528.00,1.73
7527.00,1.73
7526.00,1.73
7525.00,1.73
7524.00,1.73
7523.00,1.73
7522.00,1.72
7521.00,1.72
7520.00,1.72
7519.00,1.72
7518.00,1.72
7517.00,1.72
7516.00,1.72
7515.00,1.72
7514.00,1.72
7513.00,1.72
7512.00,1.72
7511.00,1.72
7510.00,1.72
7509.00,1.72
7508.00,1.72
7507.00,1.72
7506.00,1.72
7505.00,1.72
7504.00,1.72
7503.00,1.72
7502.00,1.72
7501.00,1.72
7500.00,1.72
7499.00,1.72
7498.00,1.72
7497.00,1.72
7496.00,1.72
7495.00,1.72
7494.00,1.71
7493.00,1.71
7492.00,1.71
7491.00,1.71
7490.00,1.71
7489.00,1.71
7488.00,1.71
7487.00,1.71
7486.00,1.71
7485.00,1.71
7484.00,1.71
7483.00,1.71
7482.00,1.71
7481.00,1.71
7480.00,1.71
7479.00,1.71
7478.00,1.71
7477.00,1.71
7476.00,1.71
7475.00,1.71
7474.00,1.70
7473.00,1.70
7472.00,1.70
7471.00,1.70
7470.00,1.70
7469.00,1.70
7468.00,1.70
7467.00,1.70
7466.00,1.70
7465.00,1.70
7464.00,1.70
7463.00,1.70
7462.00,1.70
7461.00,1.70
7460.00,1.70
7459.00,1.70
7458.00,1.70
7457.00,1.70
7456.00,1.70
7455.00,1.70
7454.00,1.70
7453.00,1.70
7452.00,1.70
7451.00,1.70
7450.00,1.70
7449.00,1.70
7448.00,1.70
7447.00,1.70
7446.00,1.69
7445.00,1.69
7444.00,1.69
7443.00,1.69
7442.00,1.69
7441.00,1.69
7440.00,1.69
7439.00,1.69
7438.00,1.69
7437.00,1.69
7436.00,1.69
7435.00,1.69
7434.00,1.69
7433.00,1.69
7432.00,1.69
7431.00,1.69
7430.00,1.69
7429.00,1.68
7428.00,1.68
7427.00,1.68
7426.00,1.68
7425.00,1.68
7424.00,1.68
7423.00,1.68
7422.00,1.68
7421.00,1.68
7420.00,1.68
7419.00,1.68
7418.00,1.68
7417.00,1.68
7416.00,1.67
7415.00,1.67
7414.00,1.67
7413.00,1.67
7412.00,1.67
7411.00,1.67
7410.00,1.67
7409.00,1.67
7408.00,1.67
7407.00,1.66
7406.00,1.66
7405.00,1.66
7404.00,1.66
7403.00,1.66
7402.00,1.66
7401.00,1.66
7400.00,1.66
7399.00,1.66
7398.00,1.66
7397.00,1.65
7396.00,1.65
7395.00,1.65
7394.00,1.65
7393.00,1.65
7392.00,1.65
7391.00,1.65
7390.00,1.65
7389.00,1.64
7388.00,1.64
7387.00,1.64
7386.00,1.64
7385.00,1.64
7384.00,1.64
7383.00,1.64
7382.00,1.64
7381.00,1.64
7380.00,1.64
7379.00,1.64
7378.00,1.64
7377.00,1.64
7376.00,1.64
7375.00,1.64
7374.00,1.64
7373.00,1.64
7372.00,1.64
7371.00,1.64
7370.00,1.64
7369.00,1.64
7368.00,1.64
7367.00,1.64
7366.00,1.64
7365.00,1.64
7364.00,1.64
7363.00,1.64
7362.00,1.64
7361.00,1.64
7360.00,1.64
7359.00,1.64
7358.00,1.63
7357.00,1.63
7356.00,1.63
7355.00,1.63
7354.00,1.63
7353.00,1.63
7352.00,1.63
7351.00,1.63
7350.00,1.63
7349.00,1.63
7348.00,1.62
7347.00,1.62
7346.00,1.62
7345.00,1.62
7344.00,1.62
7343.00,1.62
7342.00,1.62
7341.00,1.62
7340.00,1.62
7339.00,1.62
7338.00,1.62
7337.00,1.62
7336.00,1.62
7335.00,1.62
7334.00,1.62
7333.00,1.62
7332.00,1.62
7331.00,1.62
7330.00,1.62
7329.00,1.62
7328.00,1.62
7327.00,1.62
7326.00,1.62
7325.00,1.62
7324.00,1.62
7323.00,1.62
7322.00,1.62
7321.00,1.62
7320.00,1.62
7319.00,1.62
7318.00,1.62
7317.00,1.62
7316.00,1.62
7315.00,1.62
7314.00,1.62
7313.00,1.62
7312.00,1.61
7311.00,1.61
7310.00,1.61
7309.00,1.61
7308.00,1.61
7307.00,1.61
7306.00,1.61
7305.00,1.61
7304.00,1.61
7303.00,1.61
7302.00,1.61
7301.00,1.61
7300.00,1.61
7299.00,1.61
7298.00,1.61
7297.00,1.60
7296.00,1.60
7295.00,1.60
7294.00,1.60
7293.00,1.60
7292.00,1.60
7291.00,1.60
7290.00,1.60
7289.00,1.60
7288.00,1.59
7287.00,1.59
7286.00,1.59
7285.00,1.59
7284.00,1.59
7283.00,1.59
7282.00,1.59
7281.00,1.59
7280.00,1.59
7279.00,1.58
7278.00,1.58
7277.00,1.58
7276.00,1.58
7275.00,1.58
7274.00,1.58
7273.00,1.58
7272.00,1.58
7271.00,1.57
7270.00,1.57
7269.00,1.57
7268.00,1.57
7267.00,1.57
7266.00,1.57
7265.00,1.57
7264.00,1.57
7263.00,1.57
7262.00,1.57
7261.00,1.56
7260.00,1.56
7259.00,1.56
7258.00,1.56
7257.00,1.56
7256.00,1.56
7255.00,1.55
7254.00,1.55
7253.00,1.55
7252.00,1.55
7251.00,1.54
7250.00,1.54
7249.00,1.54
7248.00,1.54
7247.00,1.53
7246.00,1.53
7245.00,1.53
7244.00,1.52
7243.00,1.52
7242.00,1.52
7241.00,1.51
7240.00,1.51
7239.00,1.51
7238.00,1.50
7237.00,1.50
7236.00,1.50
7235.00,1.49
7234.00,1.49
7233.00,1.49
7232.00,1.49
7231.00,1.48
7230.00,1.48
7229.00,1.48
7228.00,1.48
7227.00,1.47
7226.00,1.47
7225.00,1.47
7224.00,1.47
7223.00,1.46
7222.00,1.46
7221.00,1.46
7220.00,1.45
7219.00,1.45
7218.00,1.45
7217.00,1.44
7216.00,1.44
7215.00,1.44
7214.00,1.43
7213.00,1.43
7212.00,1.42
7211.00,1.42
7210.00,1.42
7209.00,1.41
7208.00,1.41
7207.00,1.41
7206.00,1.40
7205.00,1.40
7204.00,1.39
7203.00,1.39
7202.00,1.39
7201.00,1.38
7200.00,1.38
7199.00,1.38
7198.00,1.37
7197.00,1.37
7196.00,1.37
7195.00,1.36
7194.00,1.36
7193.00,1.36
7192.00,1.35
7191.00,1.35
7190.00,1.34
7189.00,1.34
7188.00,1.34
7187.00,1.33
7186.00,1.33
7185.00,1.32
7184.00,1.32
7183.00,1.32
7182.00,1.31
7181.00,1.31
7180.00,1.30
7179.00,1.30
7178.00,1.29
7177.00,1.29
7176.00,1.29
7175.00,1.28
7174.00,1.28
7173.00,1.27
7172.00,1.27
7171.00,1.27
7170.00,1.26
7169.00,1.26
7168.00,1.26
7167.00,1.25
7166.00,1.25
7165.00,1.25
7164.00,1.25
7163.00,1.24
7162.00,1.24
7161.00,1.24
7160.00,1.24
7159.00,1.24
7158.00,1.23
7157.00,1.23
7156.00,1.23
7155.00,1.23
7154.00,1.23
7153.00,1.22
7152.00,1.22
7151.00,1.22
7150.00,1.22
7149.00,1.21
7148.00,1.21
7147.00,1.21
7146.00,1.20
7145.00,1.20
7144.00,1.20
7143.00,1.19
7142.00,1.19
7141.00,1.19
7140.00,1.18
7139.00,1.18
7138.00,1.18
7137.00,1.17
7136.00,1.17
7135.00,1.17
7134.00,1.16
7133.00,1.16
7132.00,1.16
7131.00,1.16
7130.00,1.15
7129.00,1.15
7128.00,1.15
7127.00,1.14
7126.00,1.14
7125.00,1.14
7124.00,1.13
7123.00,1.13
7122.00,1.13
7121.00,1.12
7120.00,1.12
7119.00,1.12
7118.00,1.11
7117.00,1.11
7116.00,1.11
7115.00,1.10
7114.00,1.10
7113.00,1.10
7112.00,1.09
7111.00,1.09
7110.00,1.09
7109.00,1.08
7108.00,1.08
7107.00,1.08
7106.00,1.07
7105.00,1.07
7104.00,1.07
7103.00,1.07
7102.00,1.06
7101.00,1.06
7100.00,1.06
7099.00,1.06
7098.00,1.06
7097.00,1.05
7096.00,1.05
7095.00,1.05
7094.00,1.05
7093.00,1.05
7092.00,1.05
7091.00,1.04
7090.00,1.04
7089.00,1.04
7088.00,1.04
7087.00,1.04
7086.00,1.04
7085.00,1.04
7084.00,1.03
7083.00,1.03
7082.00,1.03
7081.00,1.03
7080.00,1.02
7079.00,1.02
7078.00,1.02
7077.00,1.02
7076.00,1.01
7075.00,1.01
7074.00,1.01
7073.00,1.01
7072.00,1.00
7071.00,1.00
7070.00,1.00
7069.00,1.00
7068.00,0.99
7067.00,0.99
7066.00,0.99
7065.00,0.99
7064.00,0.99
7063.00,0.99
7062.00,0.98
7061.00,0.98
7060.00,0.98
7059.00,0.98
7058.00,0.98
7057.00,0.98
7056.00,0.98
7055.00,0.97
7054.00,0.97
7053.00,0.97
7052.00,0.97
7051.00,0.97
7050.00,0.97
7049.00,0.97
7048.00,0.97
7047.00,0.97
7046.00,0.97
7045.00,0.97
7044.00,0.97
7043.00,0.97
7042.00,0.97
7041.00,0.97
7040.00,0.96
7039.00,0.96
7038.00,0.96
7037.00,0.96
7036.00,0.96
7035.00,0.96
7034.00,0.96
7033.00,0.96
7032.00,0.96
7031.00,0.96
7030.00,0.95
7029.00,0.95
7028.00,0.95
7027.00,0.95
7026.00,0.95
7025.00,0.95
7024.00,0.95
7023.00,0.95
7022.00,0.94
7021.00,0.94
7020.00,0.94
7019.00,0.94
7018.00,0.94
7017.00,0.94
7016.00,0.94
7015.00,0.94
7014.00,0.94
7013.00,0.93
7012.00,0.93
7011.00,0.93
7010.00,0.93
7009.00,0.93
7008.00,0.93
7007.00,0.93
7006.00,0.93
7005.00,0.92
7004.00,0.92
7003.00,0.92
7002.00,0.92
7001.00,0.92
7000.00,0.92
6999.00,0.92
6998.00,0.92
6997.00,0.91
6996.00,0.91
6995.00,0.91
6994.00,0.91
6993.00,0.91
6992.00,0.91
6991.00,0.91
6990.00,0.91
6989.00,0.91
6988.00,0.91
6987.00,0.91
6986.00,0.91
6985.00,0.91
6984.00,0.91
6983.00,0.90
6982.00,0.90
6981.00,0.90
6980.00,0.90
6979.00,0.90
6978.00,0.90
6977.00,0.90
6976.00,0.90
6975.00,0.90
6974.00,0.90
6973.00,0.90
6972.00,0.90
6971.00,0.90
6970.00,0.90
6969.00,0.90
6968.00,0.90
6967.00,0.90
6966.00,0.89
6965.00,0.89
6964.00,0.89
6963.00,0.89
6962.00,0.89
6961.00,0.89
6960.00,0.89
6959.00,0.89
6958.00,0.89
6957.00,0.89
6956.00,0.89
6955.00,0.89
6954.00,0.89
6953.00,0.89
6952.00,0.89
6951.00,0.89
6950.00,0.89
6949.00,0.89
6948.00,0.89
6947.00,0.89
6946.00,0.89
6945.00,0.89
6944.00,0.89
6943.00,0.89
6942.00,0.88
6941.00,0.88
6940.00,0.88
6939.00,0.88
6938.00,0.88
6937.00,0.88
6936.00,0.88
6935.00,0.88
6934.00,0.88
6933.00,0.88
6932.00,0.88
6931.00,0.88
6930.00,0.88
6929.00,0.87
6928.00,0.87
6927.00,0.87
6926.00,0.87
6925.00,0.87
6924.00,0.87
6923.00,0.87
6922.00,0.87
6921.00,0.87
6920.00,0.87
6919.00,0.87
6918.00,0.87
6917.00,0.87
6916.00,0.87
6915.00,0.87
6914.00,0.87
6913.00,0.87
6912.00,0.87
6911.00,0.87
6910.00,0.87
6909.00,0.87
6908.00,0.87
6907.00,0.87
6906.00,0.87
6905.00,0.87
6904.00,0.87
6903.00,0.87
6902.00,0.87
6901.00,0.87
6900.00,0.87
6899.00,0.87
6898.00,0.87
6897.00,0.87
6896.00,0.87
6895.00,0.87
6894.00,0.87
6893.00,0.87
6892.00,0.87
6891.00,0.87
6890.00,0.87
6889.00,0.87
6888.00,0.87
6887.00,0.87
6886.00,0.87
6885.00,0.87
6884.00,0.87
6883.00,0.87
6882.00,0.87
6881.00,0.87
6880.00,0.87
6879.00,0.87
6878.00,0.87
6877.00,0.87
6876.00,0.87
6875.00,0.87
6874.00,0.87
6873.00,0.87
6872.00,0.87
6871.00,0.87
6870.00,0.87
6869.00,0.87
6868.00,0.87
6867.00,0.87
6866.00,0.87
6865.00,0.87
6864.00,0.87
6863.00,0.87
6862.00,0.88
6861.00,0.88
6860.00,0.88
6859.00,0.88
6858.00,0.88
6857.00,0.88
6856.00,0.88
6855.00,0.88
6854.00,0.88
6853.00,0.88
6852.00,0.88
6851.00,0.88
6850.00,0.88
6849.00,0.88
6848.00,0.88
6847.00,0.88
6846.00,0.88
6845.00,0.88
6844.00,0.88
6843.00,0.88
6842.00,0.88
6841.00,0.88
6840.00,0.88
6839.00,0.88
6838.00,0.88
6837.00,0.88
6836.00,0.88
6835.00,0.88
6834.00,0.88
6833.00,0.88
6832.00,0.88
6831.00,0.88
6830.00,0.88
6829.00,0.88
6828.00,0.88
6827.00,0.88
6826.00,0.88
6825.00,0.88
6824.00,0.88
6823.00,0.88
6822.00,0.88
6821.00,0.88
6820.00,0.88
6819.00,0.88
6818.00,0.88
6817.00,0.88
6816.00,0.88
6815.00,0.88
6814.00,0.88
6813.00,0.88
6812.00,0.88
6811.00,0.88
6810.00,0.88
6809.00,0.88
6808.00,0.88
6807.00,0.88
6806.00,0.88
6805.00,0.88
6804.00,0.88
6803.00,0.89
6802.00,0.89
6801.00,0.89
6800.00,0.89
6799.00,0.89
6798.00,0.89
6797.00,0.89
6796.00,0.89
6795.00,0.89
6794.00,0.89
6793.00,0.89
6792.00,0.89
6791.00,0.89
6790.00,0.89
6789.00,0.89
6788.00,0.89
6787.00,0.89
6786.00,0.89
6785.00,0.90
6784.00,0.90
6783.00,0.90
6782.00,0.90
6781.00,0.90
6780.00,0.90
6779.00,0.90
6778.00,0.90
6777.00,0.90
6776.00,0.90
6775.00,0.91
6774.00,0.91
6773.00,0.91
6772.00,0.91
6771.00,0.91
6770.00,0.91
6769.00,0.91
6768.00,0.91
6767.00,0.92
6766.00,0.92
6765.00,0.92
6764.00,0.92
6763.00,0.92
6762.00,0.92
6761.00,0.92
6760.00,0.92
6759.00,0.92
6758.00,0.92
6757.00,0.92
6756.00,0.92
6755.00,0.92
6754.00,0.93
6753.00,0.93
6752.00,0.93
6751.00,0.93
6750.00,0.93
6749.00,0.93
6748.00,0.93
6747.00,0.93
6746.00,0.93
6745.00,0.93
6744.00,0.93
6743.00,0.93
6742.00,0.94
6741.00,0.94
6740.00,0.94
6739.00,0.94
6738.00,0.94
6737.00,0.94
6736.00,0.94
6735.00,0.94
6734.00,0.95
6733.00,0.95
6732.00,0.95
6731.00,0.95
6730.00,0.95
6729.00,0.95
6728.00,0.95
6727.00,0.95
6726.00,0.95
6725.00,0.95
6724.00,0.95
6723.00,0.95
6722.00,0.95
6721.00,0.96
6720.00,0.96
6719.00,0.96
6718.00,0.96
6717.00,0.96
6716.00,0.96
6715.00,0.96
6714.00,0.96
6713.00,0.96
6712.00,0.96
6711.00,0.97
6710.00,0.97
6709.00,0.97
6708.00,0.97
6707.00,0.97
6706.00,0.97
6705.00,0.97
6704.00,0.97
6703.00,0.97
6702.00,0.98
6701.00,0.98
6700.00,0.98
6699.00,0.98
6698.00,0.98
6697.00,0.98
6696.00,0.98
6695.00,0.99
6694.00,0.99
6693.00,0.99
6692.00,0.99
6691.00,0.99
6690.00,0.99
6689.00,0.99
6688.00,1.00
6687.00,1.00
6686.00,1.00
6685.00,1.00
6684.00,1.00
6683.00,1.00
6682.00,1.00
6681.00,1.00
6680.00,1.00
6679.00,1.00
6678.00,1.00
6677.00,1.00
6676.00,1.00
6675.00,1.00
6674.00,1.00
6673.00,1.00
6672.00,1.01
6671.00,1.01
6670.00,1.01
6669.00,1.01
6668.00,1.01
6667.00,1.01
6666.00,1.01
6665.00,1.01
6664.00,1.02
6663.00,1.02
6662.00,1.02
6661.00,1.02
6660.00,1.02
6659.00,1.02
6658.00,1.02
6657.00,1.03
6656.00,1.03
6655.00,1.03
6654.00,1.03
6653.00,1.03
6652.00,1.03
6651.00,1.03
6650.00,1.04
6649.00,1.04
6648.00,1.04
6647.00,1.04
6646.00,1.04
6645.00,1.04
6644.00,1.04
6643.00,1.04
6642.00,1.05
6641.00,1.05
6640.00,1.05
6639.00,1.05
6638.00,1.05
6637.00,1.05
6636.00,1.05
6635.00,1.05
6634.00,1.05
6633.00,1.05
6632.00,1.05
6631.00,1.05
6630.00,1.06
6629.00,1.06
6628.00,1.06
6627.00,1.06
6626.00,1.06
6625.00,1.06
6624.00,1.06
6623.00,1.06
6622.00,1.06
6621.00,1.07
6620.00,1.07
6619.00,1.07
6618.00,1.07
6617.00,1.07
6616.00,1.07
6615.00,1.07
6614.00,1.07
6613.00,1.08
6612.00,1.08
6611.00,1.08
6610.00,1.08
6609.00,1.08
6608.00,1.08
6607.00,1.08
6606.00,1.08
6605.00,1.09
6604.00,1.09
6603.00,1.09
6602.00,1.09
6601.00,1.09
6600.00,1.09
6599.00,1.09
6598.00,1.09
6597.00,1.10
6596.00,1.10
6595.00,1.10
6594.00,1.10
6593.00,1.10
6592.00,1.10
6591.00,1.11
6590.00,1.11
6589.00,1.11
6588.00,1.11
6587.00,1.11
6586.00,1.12
6585.00,1.12
6584.00,1.12
6583.00,1.12
6582.00,1.12
6581.00,1.13
6580.00,1.13
6579.00,1.13
6578.00,1.13
6577.00,1.13
6576.00,1.14
6575.00,1.14
6574.00,1.14
6573.00,1.14
6572.00,1.14
6571.00,1.14
6570.00,1.14
6569.00,1.14
6568.00,1.14
6567.00,1.15
6566.00,1.15
6565.00,1.15
6564.00,1.15
6563.00,1.15
6562.00,1.15
6561.00,1.15
6560.00,1.15
6559.00,1.15
6558.00,1.15
6557.00,1.16
6556.00,1.16
6555.00,1.16
6554.00,1.16
6553.00,1.16
6552.00,1.16
6551.00,1.16
6550.00,1.16
6549.00,1.17
6548.00,1.17
6547.00,1.17
6546.00,1.17
6545.00,1.17
6544.00,1.17
6543.00,1.17
6542.00,1.17
6541.00,1.17
6540.00,1.17
6539.00,1.17
6538.00,1.18
6537.00,1.18
6536.00,1.18
6535.00,1.18
6534.00,1.18
6533.00,1.18
6532.00,1.18
6531.00,1.18
6530.00,1.18
6529.00,1.18
6528.00,1.19
6527.00,1.19
6526.00,1.19
6525.00,1.19
6524.00,1.19
6523.00,1.19
6522.00,1.19
6521.00,1.19
6520.00,1.19
6519.00,1.19
6518.00,1.19
6517.00,1.20
6516.00,1.20
6515.00,1.20
6514.00,1.20
6513.00,1.20
6512.00,1.20
6511.00,1.20
6510.00,1.20
6509.00,1.21
6508.00,1.21
6507.00,1.21
6506.00,1.21
6505.00,1.21
6504.00,1.21
6503.00,1.21
6502.00,1.21
6501.00,1.22
6500.00,1.22
6499.00,1.22
6498.00,1.22
6497.00,1.22
6496.00,1.22
6495.00,1.22
6494.00,1.22
6493.00,1.22
6492.00,1.22
6491.00,1.22
6490.00,1.23
6489.00,1.23
6488.00,1.23
6487.00,1.23
6486.00,1.23
6485.00,1.23
6484.00,1.23
6483.00,1.23
6482.00,1.23
6481.00,1.23
6480.00,1.23
6479.00,1.24
6478.00,1.24
6477.00,1.24
6476.00,1.24
6475.00,1.24
6474.00,1.24
6473.00,1.24
6472.00,1.24
6471.00,1.24
6470.00,1.24
6469.00,1.24
6468.00,1.24
6467.00,1.25
6466.00,1.25
6465.00,1.25
6464.00,1.25
6463.00,1.25
6462.00,1.25
6461.00,1.25
6460.00,1.25
6459.00,1.25
6458.00,1.25
6457.00,1.25
6456.00,1.26
6455.00,1.26
6454.00,1.26
6453.00,1.26
6452.00,1.26
6451.00,1.26
6450.00,1.26
6449.00,1.26
6448.00,1.26
6447.00,1.26
6446.00,1.26
6445.00,1.26
6444.00,1.26
6443.00,1.27
6442.00,1.27
6441.00,1.27
6440.00,1.27
6439.00,1.27
6438.00,1.27
6437.00,1.27
6436.00,1.27
6435.00,1.27
6434.00,1.27
6433.00,1.27
6432.00,1.27
6431.00,1.27
6430.00,1.27
6429.00,1.28
6428.00,1.28
6427.00,1.28
6426.00,1.28
6425.00,1.28
6424.00,1.28
6423.00,1.28
6422.00,1.28
6421.00,1.28
6420.00,1.28
6419.00,1.28
6418.00,1.28
6417.00,1.29
6416.00,1.29
6415.00,1.29
6414.00,1.29
6413.00,1.29
6412.00,1.29
6411.00,1.29
6410.00,1.29
6409.00,1.30
6408.00,1.30
6407.00,1.30
6406.00,1.30
6405.00,1.30
6404.00,1.30
6403.00,1.30
6402.00,1.30
6401.00,1.31
6400.00,1.31
6399.00,1.31
6398.00,1.31
6397.00,1.31
6396.00,1.31
6395.00,1.31
6394.00,1.31
6393.00,1.31
6392.00,1.31
6391.00,1.31
6390.00,1.31
6389.00,1.32
6388.00,1.32
6387.00,1.32
6386.00,1.32
6385.00,1.32
6384.00,1.32
6383.00,1.32
6382.00,1.32
6381.00,1.32
6380.00,1.32
6379.00,1.32
6378.00,1.32
6377.00,1.32
6376.00,1.32
6375.00,1.32
6374.00,1.32
6373.00,1.33
6372.00,1.33
6371.00,1.33
6370.00,1.33
6369.00,1.33
6368.00,1.33
6367.00,1.33
6366.00,1.33
6365.00,1.33
6364.00,1.33
6363.00,1.33
6362.00,1.34
6361.00,1.34
6360.00,1.34
6359.00,1.34
6358.00,1.34
6357.00,1.34
6356.00,1.34
6355.00,1.35
6354.00,1.35
6353.00,1.35
6352.00,1.35
6351.00,1.35
6350.00,1.35
6349.00,1.35
6348.00,1.35
6347.00,1.35
6346.00,1.35
6345.00,1.36
6344.00,1.36
6343.00,1.36
6342.00,1.36
6341.00,1.36
6340.00,1.36
6339.00,1.36
6338.00,1.36
6337.00,1.36
6336.00,1.36
6335.00,1.36
6334.00,1.37
6333.00,1.37
6332.00,1.37
6331.00,1.37
6330.00,1.37
6329.00,1.37
6328.00,1.37
6327.00,1.37
6326.00,1.37
6325.00,1.37
6324.00,1.38
6323.00,1.38
6322.00,1.38
6321.00,1.38
6320.00,1.38
6319.00,1.38
6318.00,1.38
6317.00,1.38
6316.00,1.39
6315.00,1.39
6314.00,1.39
6313.00,1.39
6312.00,1.39
6311.00,1.39
6310.00,1.39
6309.00,1.40
6308.00,1.40
6307.00,1.40
6306.00,1.40
6305.00,1.40
6304.00,1.40
6303.00,1.40
6302.00,1.41
6301.00,1.41
6300.00,1.41
6299.00,1.41
6298.00,1.41
6297.00,1.41
6296.00,1.41
6295.00,1.41
6294.00,1.41
6293.00,1.42
6292.00,1.42
6291.00,1.42
6290.00,1.42
6289.00,1.42
6288.00,1.42
6287.00,1.42
6286.00,1.42
6285.00,1.42
6284.00,1.42
6283.00,1.43
6282.00,1.43
6281.00,1.43
6280.00,1.43
6279.00,1.43
6278.00,1.43
6277.00,1.43
6276.00,1.44
6275.00,1.44
6274.00,1.44
6273.00,1.44
6272.00,1.44
6271.00,1.44
6270.00,1.44
6269.00,1.44
6268.00,1.45
6267.00,1.45
6266.00,1.45
6265.00,1.45
6264.00,1.45
6263.00,1.45
6262.00,1.45
6261.00,1.45
6260.00,1.45
6259.00,1.46
6258.00,1.46
6257.00,1.46
6256.00,1.46
6255.00,1.46
6254.00,1.46
6253.00,1.46
6252.00,1.46
6251.00,1.47
6250.00,1.47
6249.00,1.47
6248.00,1.47
6247.00,1.47
6246.00,1.47
6245.00,1.47
6244.00,1.48
6243.00,1.48
6242.00,1.48
6241.00,1.48
6240.00,1.48
6239.00,1.48
6238.00,1.48
6237.00,1.49
6236.00,1.49
6235.00,1.49
6234.00,1.49
6233.00,1.49
6232.00,1.49
6231.00,1.49
6230.00,1.49
6229.00,1.49
6228.00,1.49
6227.00,1.49
6226.00,1.49
6225.00,1.50
6224.00,1.50
6223.00,1.50
6222.00,1.50
6221.00,1.50
6220.00,1.50
6219.00,1.50
6218.00,1.50
6217.00,1.50
6216.00,1.50
6215.00,1.50
6214.00,1.51
6213.00,1.51
6212.00,1.51
6211.00,1.51
6210.00,1.51
6209.00,1.51
6208.00,1.52
6207.00,1.52
6206.00,1.52
6205.00,1.52
6204.00,1.52
6203.00,1.52
6202.00,1.53
6201.00,1.53
6200.00,1.53
6199.00,1.53
6198.00,1.53
6197.00,1.53
6196.00,1.53
6195.00,1.54
6194.00,1.54
6193.00,1.54
6192.00,1.54
6191.00,1.54
6190.00,1.54
6189.00,1.54
6188.00,1.54
6187.00,1.55
6186.00,1.55
6185.00,1.55
6184.00,1.55
6183.00,1.55
6182.00,1.55
6181.00,1.55
6180.00,1.56
6179.00,1.56
6178.00,1.56
6177.00,1.56
6176.00,1.56
6175.00,1.56
6174.00,1.56
6173.00,1.57
6172.00,1.57
6171.00,1.57
6170.00,1.57
6169.00,1.57
6168.00,1.57
6167.00,1.58
6166.00,1.58
6165.00,1.58
6164.00,1.58
6163.00,1.58
6162.00,1.58
6161.00,1.58
6160.00,1.58
6159.00,1.59
6158.00,1.59
6157.00,1.59
6156.00,1.59
6155.00,1.59
6154.00,1.59
6153.00,1.59
6152.00,1.59
6151.00,1.60
6150.00,1.60
6149.00,1.60
6148.00,1.60
6147.00,1.60
6146.00,1.60
6145.00,1.61
6144.00,1.61
6143.00,1.61
6142.00,1.61
6141.00,1.61
6140.00,1.61
6139.00,1.61
6138.00,1.61
6137.00,1.62
6136.00,1.62
6135.00,1.62
6134.00,1.62
6133.00,1.62
6132.00,1.62
6131.00,1.62
6130.00,1.62
6129.00,1.63
6128.00,1.63
6127.00,1.63
6126.00,1.63
6125.00,1.63
6124.00,1.63
6123.00,1.63
6122.00,1.63
6121.00,1.64
6120.00,1.64
6119.00,1.64
6118.00,1.64
6117.00,1.64
6116.00,1.64
6115.00,1.64
6114.00,1.65
6113.00,1.65
6112.00,1.65
6111.00,1.65
6110.00,1.65
6109.00,1.65
6108.00,1.65
6107.00,1.65
6106.00,1.65
6105.00,1.66
6104.00,1.66
6103.00,1.66
6102.00,1.66
6101.00,1.66
6100.00,1.66
6099.00,1.66
6098.00,1.66
6097.00,1.66
6096.00,1.66
6095.00,1.66
6094.00,1.66
6093.00,1.66
6092.00,1.66
6091.00,1.66
6090.00,1.67
6089.00,1.67
6088.00,1.67
6087.00,1.67
6086.00,1.67
6085.00,1.67
6084.00,1.67
6083.00,1.67
6082.00,1.68
6081.00,1.68
6080.00,1.68
6079.00,1.68
6078.00,1.68
6077.00,1.68
6076.00,1.69
6075.00,1.69
6074.00,1.69
6073.00,1.69
6072.00,1.69
6071.00,1.69
6070.00,1.69
6069.00,1.69
6068.00,1.70
6067.00,1.70
6066.00,1.70
6065.00,1.70
6064.00,1.70
6063.00,1.70
6062.00,1.70
6061.00,1.71
6060.00,1.71
6059.00,1.71
6058.00,1.71
6057.00,1.71
6056.00,1.71
6055.00,1.71
6054.00,1.71
6053.00,1.71
6052.00,1.71
6051.00,1.71
6050.00,1.71
6049.00,1.71
6048.00,1.71
6047.00,1.71
6046.00,1.72
6045.00,1.72
6044.00,1.72
6043.00,1.72
6042.00,1.72
6041.00,1.72
6040.00,1.72
6039.00,1.72
6038.00,1.72
6037.00,1.72
6036.00,1.72
6035.00,1.72
6034.00,1.72
6033.00,1.72
6032.00,1.72
6031.00,1.72
6030.00,1.72
6029.00,1.72
6028.00,1.72
6027.00,1.72
6026.00,1.72
6025.00,1.73
6024.00,1.73
6023.00,1.73
6022.00,1.73
6021.00,1.73
6020.00,1.73
6019.00,1.73
6018.00,1.73
6017.00,1.73
6016.00,1.73
6015.00,1.73
6014.00,1.73
6013.00,1.73
6012.00,1.73
6011.00,1.73
6010.00,1.73
6009.00,1.73
6008.00,1.73
6007.00,1.73
6006.00,1.73
6005.00,1.73
6004.00,1.73
6003.00,1.73
6002.00,1.72
6001.00,1.72
6000.00,1.72
5999.00,1.72
5998.00,1.72
5997.00,1.72
5996.00,1.72
5995.00,1.72
5994.00,1.72
5993.00,1.72
5992.00,1.72
5991.00,1.72
5990.00,1.72
5989.00,1.72
5988.00,1.71
5987.00,1.71
5986.00,1.71
5985.00,1.71
5984.00,1.71
5983.00,1.71
5982.00,1.71
5981.00,1.70
5980.00,1.70
5979.00,1.70
5978.00,1.70
5977.00,1.69
5976.00,1.69
5975.00,1.68
5974.00,1.68
5973.00,1.68
5972.00,1.67
5971.00,1.67
5970.00,1.66
5969.00,1.66
5968.00,1.65
5967.00,1.65
5966.00,1.64
5965.00,1.64
5964.00,1.63
5963.00,1.63
5962.00,1.62
5961.00,1.62
5960.00,1.61
5959.00,1.60
5958.00,1.60
5957.00,1.59
5956.00,1.59
5955.00,1.58
5954.00,1.58
5953.00,1.57
5952.00,1.57
5951.00,1.56
5950.00,1.56
5949.00,1.56
5948.00,1.55
5947.00,1.55
5946.00,1.55
5945.00,1.55
5944.00,1.54
5943.00,1.54
5942.00,1.54
5941.00,1.54
5940.00,1.54
5939.00,1.54
5938.00,1.54
5937.00,1.53
5936.00,1.53
5935.00,1.53
5934.00,1.53
5933.00,1.53
5932.00,1.53
5931.00,1.53
5930.00,1.53
5929.00,1.53
5928.00,1.53
5927.00,1.52
5926.00,1.52
5925.00,1.52
5924.00,1.52
5923.00,1.52
5922.00,1.52
5921.00,1.51
5920.00,1.51
5919.00,1.51
5918.00,1.51
5917.00,1.51
5916.00,1.50
5915.00,1.50
5914.00,1.50
5913.00,1.50
5912.00,1.50
5911.00,1.50
5910.00,1.50
5909.00,1.49
5908.00,1.49
5907.00,1.49
5906.00,1.49
5905.00,1.49
5904.00,1.49
5903.00,1.49
5902.00,1.49
5901.00,1.49
5900.00,1.49
5899.00,1.49
5898.00,1.49
5897.00,1.50
5896.00,1.50
5895.00,1.50
5894.00,1.50
5893.00,1.50
5892.00,1.50
5891.00,1.51
5890.00,1.51
5889.00,1.51
5888.00,1.51
5887.00,1.51
5886.00,1.52
5885.00,1.52
5884.00,1.52
5883.00,1.53
5882.00,1.53
5881.00,1.53
5880.00,1.53
5879.00,1.54
5878.00,1.54
5877.00,1.54
5876.00,1.55
5875.00,1.55
5874.00,1.55
5873.00,1.55
5872.00,1.56
5871.00,1.56
5870.00,1.56
5869.00,1.56
5868.00,1.57
5867.00,1.57
5866.00,1.57
5865.00,1.57
5864.00,1.57
5863.00,1.57
5862.00,1.58
5861.00,1.58
5860.00,1.58
5859.00,1.58
5858.00,1.58
5857.00,1.58
5856.00,1.58
5855.00,1.58
5854.00,1.58
5853.00,1.58
5852.00,1.58
5851.00,1.58
5850.00,1.58
5849.00,1.58
5848.00,1.58
5847.00,1.58
5846.00,1.58
5845.00,1.58
5844.00,1.58
5843.00,1.58
5842.00,1.58
5841.00,1.58
5840.00,1.58
5839.00,1.58
5838.00,1.58
5837.00,1.58
5836.00,1.58
5835.00,1.58
5834.00,1.58
5833.00,1.58
5832.00,1.58
5831.00,1.58
5830.00,1.58
5829.00,1.58
5828.00,1.58
5827.00,1.58
5826.00,1.58
5825.00,1.59
5824.00,1.59
5823.00,1.59
5822.00,1.59
5821.00,1.59
5820.00,1.59
5819.00,1.59
5818.00,1.59
5817.00,1.59
5816.00,1.59
5815.00,1.59
5814.00,1.59
5813.00,1.58
5812.00,1.58
5811.00,1.58
5810.00,1.58
5809.00,1.58
5808.00,1.58
5807.00,1.58
5806.00,1.58
5805.00,1.58
5804.00,1.57
5803.00,1.57
5802.00,1.57
5801.00,1.57
5800.00,1.57
5799.00,1.56
5798.00,1.56
5797.00,1.56
5796.00,1.56
5795.00,1.56
5794.00,1.56
5793.00,1.55
5792.00,1.55
5791.00,1.55
5790.00,1.55
5789.00,1.55
5788.00,1.54
5787.00,1.54
5786.00,1.54
5785.00,1.54
5784.00,1.54
5783.00,1.54
5782.00,1.54
5781.00,1.54
5780.00,1.54
5779.00,1.54
5778.00,1.54
5777.00,1.53
5776.00,1.53
5775.00,1.53
5774.00,1.53
5773.00,1.54
5772.00,1.54
5771.00,1.54
5770.00,1.54
5769.00,1.54
5768.00,1.54
5767.00,1.54
5766.00,1.54
5765.00,1.54
5764.00,1.54
5763.00,1.54
5762.00,1.55
5761.00,1.55
5760.00,1.55
5759.00,1.55
5758.00,1.55
5757.00,1.56
5756.00,1.56
5755.00,1.56
5754.00,1.56
5753.00,1.57
5752.00,1.57
5751.00,1.57
5750.00,1.57
5749.00,1.58
5748.00,1.58
5747.00,1.58
5746.00,1.58
5745.00,1.59
5744.00,1.59
5743.00,1.59
5742.00,1.59
5741.00,1.59
5740.00,1.60
5739.00,1.60
5738.00,1.60
5737.00,1.60
5736.00,1.60
5735.00,1.60
5734.00,1.60
5733.00,1.61
5732.00,1.61
5731.00,1.61
5730.00,1.61
5729.00,1.61
5728.00,1.61
5727.00,1.61
5726.00,1.61
5725.00,1.61
5724.00,1.61
5723.00,1.61
5722.00,1.61
5721.00,1.61
5720.00,1.61
5719.00,1.61
5718.00,1.61
5717.00,1.61
5716.00,1.61
5715.00,1.61
5714.00,1.61
5713.00,1.61
5712.00,1.61
5711.00,1.61
5710.00,1.61
5709.00,1.61
5708.00,1.60
5707.00,1.60
5706.00,1.60
5705.00,1.60
5704.00,1.60
5703.00,1.60
5702.00,1.60
5701.00,1.60
5700.00,1.60
5699.00,1.59
5698.00,1.59
5697.00,1.59
5696.00,1.59
5695.00,1.59
5694.00,1.59
5693.00,1.58
5692.00,1.58
5691.00,1.58
5690.00,1.58
5689.00,1.58
5688.00,1.57
5687.00,1.57
5686.00,1.57
5685.00,1.57
5684.00,1.57
5683.00,1.56
5682.00,1.56
5681.00,1.56
5680.00,1.56
5679.00,1.56
5678.00,1.56
5677.00,1.56
5676.00,1.56
5675.00,1.56
5674.00,1.56
5673.00,1.56
5672.00,1.56
5671.00,1.56
5670.00,1.56
5669.00,1.56
5668.00,1.56
5667.00,1.56
5666.00,1.56
5665.00,1.56
5664.00,1.56
5663.00,1.56
5662.00,1.56
5661.00,1.56
5660.00,1.57
5659.00,1.57
5658.00,1.57
5657.00,1.57
5656.00,1.57
5655.00,1.57
5654.00,1.57
5653.00,1.57
5652.00,1.58
5651.00,1.58
5650.00,1.58
5649.00,1.58
5648.00,1.58
5647.00,1.58
5646.00,1.58
5645.00,1.59
5644.00,1.59
5643.00,1.59
5642.00,1.59
5641.00,1.59
5640.00,1.59
5639.00,1.59
5638.00,1.60
5637.00,1.60
5636.00,1.60
5635.00,1.60
5634.00,1.60
5633.00,1.60
5632.00,1.60
5631.00,1.60
5630.00,1.60
5629.00,1.60
5628.00,1.60
5627.00,1.60
5626.00,1.61
5625.00,1.61
5624.00,1.61
5623.00,1.61
5622.00,1.61
5621.00,1.61
5620.00,1.61
5619.00,1.61
5618.00,1.61
5617.00,1.61
5616.00,1.61
5615.00,1.62
5614.00,1.62
5613.00,1.62
5612.00,1.62
5611.00,1.62
5610.00,1.62
5609.00,1.62
5608.00,1.62
5607.00,1.62
5606.00,1.63
5605.00,1.63
5604.00,1.63
5603.00,1.63
5602.00,1.63
5601.00,1.63
5600.00,1.63
5599.00,1.64
5598.00,1.64
5597.00,1.64
5596.00,1.64
5595.00,1.64
5594.00,1.64
5593.00,1.65
5592.00,1.65
5591.00,1.65
5590.00,1.65
5589.00,1.65
5588.00,1.65
5587.00,1.65
5586.00,1.66
5585.00,1.66
5584.00,1.66
5583.00,1.66
5582.00,1.66
5581.00,1.66
5580.00,1.66
5579.00,1.66
5578.00,1.66
5577.00,1.67
5576.00,1.67
5575.00,1.67
5574.00,1.67
5573.00,1.67
5572.00,1.67
5571.00,1.67
5570.00,1.67
5569.00,1.67
5568.00,1.68
5567.00,1.68
5566.00,1.68
5565.00,1.68
5564.00,1.68
5563.00,1.68
5562.00,1.68
5561.00,1.68
5560.00,1.68
5559.00,1.68
5558.00,1.68
5557.00,1.68
5556.00,1.69
5555.00,1.69
5554.00,1.69
5553.00,1.69
5552.00,1.69
5551.00,1.69
5550.00,1.69
5549.00,1.69
5548.00,1.69
5547.00,1.69
5546.00,1.69
5545.00,1.69
5544.00,1.70
5543.00,1.70
5542.00,1.70
5541.00,1.70
5540.00,1.70
5539.00,1.70
5538.00,1.70
5537.00,1.71
5536.00,1.71
5535.00,1.71
5534.00,1.71
5533.00,1.71
5532.00,1.71
5531.00,1.71
5530.00,1.71
5529.00,1.71
5528.00,1.71
5527.00,1.71
5526.00,1.71
5525.00,1.71
5524.00,1.72
5523.00,1.72
5522.00,1.72
5521.00,1.72
5520.00,1.72
5519.00,1.72
5518.00,1.72
5517.00,1.72
5516.00,1.72
5515.00,1.72
5514.00,1.72
5513.00,1.72
5512.00,1.72
5511.00,1.72
5510.00,1.72
5509.00,1.72
5508.00,1.72
5507.00,1.72
5506.00,1.72
5505.00,1.72
5504.00,1.72
5503.00,1.72
5502.00,1.72
5501.00,1.72
5500.00,1.72
5499.00,1.72
5498.00,1.72
5497.00,1.72
5496.00,1.72
5495.00,1.72
5494.00,1.72
5493.00,1.72
5492.00,1.72
5491.00,1.72
5490.00,1.72
5489.00,1.72
5488.00,1.73
5487.00,1.73
5486.00,1.73
5485.00,1.73
5484.00,1.73
5483.00,1.73
5482.00,1.73
5481.00,1.73
5480.00,1.73
5479.00,1.73
5478.00,1.73
5477.00,1.74
5476.00,1.74
5475.00,1.74
5474.00,1.74
5473.00,1.74
5472.00,1.74
5471.00,1.74
5470.00,1.74
5469.00,1.74
5468.00,1.74
5467.00,1.74
5466.00,1.74
5465.00,1.75
5464.00,1.75
5463.00,1.75
5462.00,1.75
5461.00,1.75
5460.00,1.75
5459.00,1.75
5458.00,1.75
5457.00,1.75
5456.00,1.75
5455.00,1.75
5454.00,1.75
5453.00,1.75
5452.00,1.75
5451.00,1.75
5450.00,1.75
5449.00,1.75
5448.00,1.75
5447.00,1.75
5446.00,1.75
5445.00,1.75
5444.00,1.75
5443.00,1.75
5442.00,1.75
5441.00,1.75
5440.00,1.75
5439.00,1.75
5438.00,1.75
5437.00,1.75
5436.00,1.75
5435.00,1.75
5434.00,1.75
5433.00,1.75
5432.00,1.75
5431.00,1.75
5430.00,1.75
5429.00,1.75
5428.00,1.75
5427.00,1.75
5426.00,1.75
5425.00,1.75
5424.00,1.75
5423.00,1.75
5422.00,1.75
5421.00,1.75
5420.00,1.75
5419.00,1.75
5418.00,1.75
5417.00,1.75
5416.00,1.75
5415.00,1.75
5414.00,1.75
5413.00,1.75
5412.00,1.75
5411.00,1.75
5410.00,1.75
5409.00,1.75
5408.00,1.75
5407.00,1.75
5406.00,1.75
5405.00,1.75
5404.00,1.75
5403.00,1.75
5402.00,1.75
5401.00,1.75
5400.00,1.75
5399.00,1.75
5398.00,1.75
5397.00,1.74
5396.00,1.74
5395.00,1.74
5394.00,1.74
5393.00,1.74
5392.00,1.73
5391.00,1.73
5390.00,1.73
5389.00,1.73
5388.00,1.72
5387.00,1.72
5386.00,1.72
5385.00,1.71
5384.00,1.71
5383.00,1.71
5382.00,1.70
5381.00,1.70
5380.00,1.69
5379.00,1.69
5378.00,1.69
5377.00,1.68
5376.00,1.68
5375.00,1.67
5374.00,1.67
5373.00,1.66
5372.00,1.66
5371.00,1.65
5370.00,1.65
5369.00,1.64
5368.00,1.64
5367.00,1.63
5366.00,1.62
5365.00,1.62
5364.00,1.61
5363.00,1.60
5362.00,1.60
5361.00,1.59
5360.00,1.58
5359.00,1.57
5358.00,1.56
5357.00,1.56
5356.00,1.55
5355.00,1.54
5354.00,1.53
5353.00,1.52
5352.00,1.51
5351.00,1.50
5350.00,1.49
5349.00,1.48
5348.00,1.47
5347.00,1.46
5346.00,1.45
5345.00,1.44
5344.00,1.43
5343.00,1.42
5342.00,1.41
5341.00,1.40
5340.00,1.39
5339.00,1.38
5338.00,1.36
5337.00,1.35
5336.00,1.34
5335.00,1.33
5334.00,1.32
5333.00,1.31
5332.00,1.30
5331.00,1.29
5330.00,1.28
5329.00,1.27
5328.00,1.26
5327.00,1.25
5326.00,1.24
5325.00,1.23
5324.00,1.22
5323.00,1.21
5322.00,1.20
5321.00,1.19
5320.00,1.18
5319.00,1.17
5318.00,1.15
5317.00,1.14
5316.00,1.13
5315.00,1.12
5314.00,1.11
5313.00,1.10
5312.00,1.09
5311.00,1.08
5310.00,1.07
5309.00,1.06
5308.00,1.06
5307.00,1.05
5306.00,1.04
5305.00,1.03
5304.00,1.02
5303.00,1.01
5302.00,1.01
5301.00,1.00
5300.00,0.99
5299.00,0.99
5298.00,0.98
5297.00,0.97
5296.00,0.97
5295.00,0.96
5294.00,0.95
5293.00,0.95
5292.00,0.94
5291.00,0.94
5290.00,0.93
5289.00,0.93
5288.00,0.92
5287.00,0.92
5286.00,0.92
5285.00,0.91
5284.00,0.91
5283.00,0.90
5282.00,0.90
5281.00,0.90
5280.00,0.90
5279.00,0.89
5278.00,0.89
5277.00,0.89
5276.00,0.89
5275.00,0.89
5274.00,0.89
5273.00,0.88
5272.00,0.88
5271.00,0.88
5270.00,0.88
5269.00,0.88
5268.00,0.88
5267.00,0.87
5266.00,0.87
5265.00,0.87
5264.00,0.87
5263.00,0.87
5262.00,0.87
5261.00,0.87
5260.00,0.87
5259.00,0.87
5258.00,0.86
5257.00,0.86
5256.00,0.86
5255.00,0.86
5254.00,0.86
5253.00,0.86
5252.00,0.86
5251.00,0.86
5250.00,0.86
5249.00,0.86
5248.00,0.86
5247.00,0.86
5246.00,0.86
5245.00,0.86
5244.00,0.86
5243.00,0.86
5242.00,0.86
5241.00,0.86
5240.00,0.86
5239.00,0.86
5238.00,0.86
5237.00,0.86
5236.00,0.86
5235.00,0.86
5234.00,0.86
5233.00,0.86
5232.00,0.86
5231.00,0.86
5230.00,0.86
5229.00,0.86
5228.00,0.86
5227.00,0.86
5226.00,0.86
5225.00,0.86
5224.00,0.86
5223.00,0.86
5222.00,0.86
5221.00,0.86
5220.00,0.86
5219.00,0.87
5218.00,0.87
5217.00,0.87
5216.00,0.87
5215.00,0.87
5214.00,0.87
5213.00,0.87
5212.00,0.87
5211.00,0.87
5210.00,0.87
5209.00,0.87
5208.00,0.87
5207.00,0.87
5206.00,0.87
5205.00,0.87
5204.00,0.87
5203.00,0.87
5202.00,0.87
5201.00,0.87
5200.00,0.87
5199.00,0.87
5198.00,0.87
5197.00,0.87
5196.00,0.87
5195.00,0.87
5194.00,0.87
5193.00,0.87
5192.00,0.87
5191.00,0.87
5190.00,0.87
5189.00,0.87
5188.00,0.88
5187.00,0.88
5186.00,0.88
5185.00,0.88
5184.00,0.88
5183.00,0.88
5182.00,0.88
5181.00,0.88
5180.00,0.88
5179.00,0.88
5178.00,0.88
5177.00,0.88
5176.00,0.88
5175.00,0.88
5174.00,0.88
5173.00,0.88
5172.00,0.88
5171.00,0.88
5170.00,0.88
5169.00,0.88
5168.00,0.88
5167.00,0.88
5166.00,0.89
5165.00,0.89
5164.00,0.89
5163.00,0.89
5162.00,0.89
5161.00,0.89
5160.00,0.89
5159.00,0.89
5158.00,0.89
5157.00,0.89
5156.00,0.89
5155.00,0.90
5154.00,0.90
5153.00,0.90
5152.00,0.90
5151.00,0.90
5150.00,0.90
5149.00,0.90
5148.00,0.90
5147.00,0.90
5146.00,0.90
5145.00,0.90
5144.00,0.90
5143.00,0.90
5142.00,0.90
5141.00,0.91
5140.00,0.91
5139.00,0.91
5138.00,0.91
5137.00,0.91
5136.00,0.91
5135.00,0.91
5134.00,0.91
5133.00,0.91
5132.00,0.91
5131.00,0.91
5130.00,0.91
5129.00,0.91
5128.00,0.91
5127.00,0.91
5126.00,0.92
5125.00,0.92
5124.00,0.92
5123.00,0.92
5122.00,0.92
5121.00,0.92
5120.00,0.92
5119.00,0.92
5118.00,0.92
5117.00,0.92
5116.00,0.92
5115.00,0.92
5114.00,0.92
5113.00,0.92
5112.00,0.92
5111.00,0.92
5110.00,0.92
5109.00,0.92
5108.00,0.93
5107.00,0.93
5106.00,0.93
5105.00,0.93
5104.00,0.93
5103.00,0.93
5102.00,0.93
5101.00,0.93
5100.00,0.93
5099.00,0.93
5098.00,0.93
5097.00,0.93
5096.00,0.94
5095.00,0.94
5094.00,0.94
5093.00,0.94
5092.00,0.94
5091.00,0.94
5090.00,0.94
5089.00,0.94
5088.00,0.94
5087.00,0.94
5086.00,0.94
5085.00,0.95
5084.00,0.95
5083.00,0.95
5082.00,0.95
5081.00,0.95
5080.00,0.95
5079.00,0.95
5078.00,0.95
5077.00,0.95
5076.00,0.95
5075.00,0.95
5074.00,0.96
5073.00,0.96
5072.00,0.96
5071.00,0.96
5070.00,0.96
5069.00,0.96
5068.00,0.96
5067.00,0.96
5066.00,0.96
5065.00,0.96
5064.00,0.96
5063.00,0.97
5062.00,0.97
5061.00,0.97
5060.00,0.97
5059.00,0.97
5058.00,0.97
5057.00,0.97
5056.00,0.97
5055.00,0.97
5054.00,0.97
5053.00,0.97
5052.00,0.97
5051.00,0.98
5050.00,0.98
5049.00,0.98
5048.00,0.98
5047.00,0.98
5046.00,0.98
5045.00,0.98
5044.00,0.98
5043.00,0.98
5042.00,0.99
5041.00,0.99
5040.00,0.99
5039.00,0.99
5038.00,0.99
5037.00,0.99
5036.00,0.99
5035.00,0.99
5034.00,1.00
5033.00,1.00
5032.00,1.00
5031.00,1.00
5030.00,1.00
5029.00,1.00
5028.00,1.00
5027.00,1.00
5026.00,1.00
5025.00,1.01
5024.00,1.01
5023.00,1.01
5022.00,1.01
5021.00,1.01
5020.00,1.01
5019.00,1.01
5018.00,1.01
5017.00,1.02
5016.00,1.02
5015.00,1.02
5014.00,1.02
5013.00,1.02
5012.00,1.02
5011.00,1.02
5010.00,1.02
5009.00,1.03
5008.00,1.03
5007.00,1.03
5006.00,1.03
5005.00,1.03
5004.00,1.03
5003.00,1.03
5002.00,1.03
5001.00,1.04
5000.00,1.04
4999.00,1.04
4998.00,1.04
4997.00,1.04
4996.00,1.04
4995.00,1.04
4994.00,1.04
4993.00,1.04
4992.00,1.04
4991.00,1.04
4990.00,1.05
4989.00,1.05
4988.00,1.05
4987.00,1.05
4986.00,1.05
4985.00,1.05
4984.00,1.05
4983.00,1.05
4982.00,1.05
4981.00,1.05
4980.00,1.05
4979.00,1.06
4978.00,1.06
4977.00,1.06
4976.00,1.06
4975.00,1.06
4974.00,1.06
4973.00,1.06
4972.00,1.06
4971.00,1.06
4970.00,1.06
4969.00,1.07
4968.00,1.07
4967.00,1.07
4966.00,1.07
4965.00,1.07
4964.00,1.07
4963.00,1.07
4962.00,1.07
4961.00,1.08
4960.00,1.08
4959.00,1.08
4958.00,1.08
4957.00,1.08
4956.00,1.08
4955.00,1.09
4954.00,1.09
4953.00,1.09
4952.00,1.09
4951.00,1.09
4950.00,1.10
4949.00,1.10
4948.00,1.10
4947.00,1.10
4946.00,1.10
4945.00,1.11
4944.00,1.11
4943.00,1.11
4942.00,1.11
4941.00,1.11
4940.00,1.11
4939.00,1.11
4938.00,1.11
4937.00,1.12
4936.00,1.12
4935.00,1.12
4934.00,1.12
4933.00,1.12
4932.00,1.12
4931.00,1.12
4930.00,1.12
4929.00,1.12
4928.00,1.12
4927.00,1.12
4926.00,1.13
4925.00,1.13
4924.00,1.13
4923.00,1.13
4922.00,1.13
4921.00,1.13
4920.00,1.13
4919.00,1.13
4918.00,1.14
4917.00,1.14
4916.00,1.14
4915.00,1.14
4914.00,1.14
4913.00,1.14
4912.00,1.14
4911.00,1.15
4910.00,1.15
4909.00,1.15
4908.00,1.15
4907.00,1.15
4906.00,1.15
4905.00,1.15
4904.00,1.15
4903.00,1.16
4902.00,1.16
4901.00,1.16
4900.00,1.16
4899.00,1.16
4898.00,1.16
4897.00,1.16
4896.00,1.16
4895.00,1.16
4894.00,1.16
4893.00,1.16
4892.00,1.16
4891.00,1.17
4890.00,1.17
4889.00,1.17
4888.00,1.17
4887.00,1.17
4886.00,1.17
4885.00,1.17
4884.00,1.17
4883.00,1.17
4882.00,1.17
4881.00,1.17
4880.00,1.17
4879.00,1.17
4878.00,1.18
4877.00,1.18
4876.00,1.18
4875.00,1.18
4874.00,1.18
4873.00,1.18
4872.00,1.18
4871.00,1.18
4870.00,1.19
4869.00,1.19
4868.00,1.19
4867.00,1.19
4866.00,1.19
4865.00,1.19
4864.00,1.19
4863.00,1.19
4862.00,1.20
4861.00,1.20
4860.00,1.20
4859.00,1.20
4858.00,1.20
4857.00,1.20
4856.00,1.20
4855.00,1.20
4854.00,1.20
4853.00,1.21
4852.00,1.21
4851.00,1.21
4850.00,1.21
4849.00,1.21
4848.00,1.21
4847.00,1.21
4846.00,1.22
4845.00,1.22
4844.00,1.22
4843.00,1.22
4842.00,1.22
4841.00,1.22
4840.00,1.22
4839.00,1.23
4838.00,1.23
4837.00,1.23
4836.00,1.23
4835.00,1.23
4834.00,1.23
4833.00,1.23
4832.00,1.23
4831.00,1.24
4830.00,1.24
4829.00,1.24
4828.00,1.24
4827.00,1.24
4826.00,1.24
4825.00,1.25
4824.00,1.25
4823.00,1.25
4822.00,1.25
4821.00,1.25
4820.00,1.26
4819.00,1.26
4818.00,1.26
4817.00,1.26
4816.00,1.26
4815.00,1.27
4814.00,1.27
4813.00,1.27
4812.00,1.27
4811.00,1.28
4810.00,1.28
4809.00,1.28
4808.00,1.28
4807.00,1.29
4806.00,1.29
4805.00,1.29
4804.00,1.29
4803.00,1.29
4802.00,1.30
4801.00,1.30
4800.00,1.30
4799.00,1.30
4798.00,1.30
4797.00,1.30
4796.00,1.30
4795.00,1.30
4794.00,1.30
4793.00,1.30
4792.00,1.30
4791.00,1.31
4790.00,1.31
4789.00,1.31
4788.00,1.31
4787.00,1.31
4786.00,1.31
4785.00,1.31
4784.00,1.32
4783.00,1.32
4782.00,1.32
4781.00,1.32
4780.00,1.33
4779.00,1.33
4778.00,1.33
4777.00,1.34
4776.00,1.34
4775.00,1.34
4774.00,1.34
4773.00,1.35
4772.00,1.35
4771.00,1.35
4770.00,1.35
4769.00,1.35
4768.00,1.36
4767.00,1.36
4766.00,1.36
4765.00,1.36
4764.00,1.36
4763.00,1.36
4762.00,1.36
4761.00,1.37
4760.00,1.37
4759.00,1.37
4758.00,1.37
4757.00,1.37
4756.00,1.37
4755.00,1.37
4754.00,1.38
4753.00,1.38
4752.00,1.38
4751.00,1.38
4750.00,1.38
4749.00,1.39
4748.00,1.39
4747.00,1.39
4746.00,1.39
4745.00,1.39
4744.00,1.39
4743.00,1.40
4742.00,1.40
4741.00,1.40
4740.00,1.40
4739.00,1.41
4738.00,1.41
4737.00,1.41
4736.00,1.41
4735.00,1.41
4734.00,1.42
4733.00,1.42
4732.00,1.42
4731.00,1.42
4730.00,1.42
4729.00,1.43
4728.00,1.43
4727.00,1.43
4726.00,1.43
4725.00,1.43
4724.00,1.44
4723.00,1.44
4722.00,1.44
4721.00,1.44
4720.00,1.44
4719.00,1.45
4718.00,1.45
4717.00,1.45
4716.00,1.46
4715.00,1.46
4714.00,1.46
4713.00,1.47
4712.00,1.47
4711.00,1.47
4710.00,1.48
4709.00,1.48
4708.00,1.48
4707.00,1.49
4706.00,1.49
4705.00,1.49
4704.00,1.49
4703.00,1.50
4702.00,1.50
4701.00,1.50
4700.00,1.50
4699.00,1.51
4698.00,1.51
4697.00,1.51
4696.00,1.51
4695.00,1.51
4694.00,1.52
4693.00,1.52
4692.00,1.52
4691.00,1.52
4690.00,1.52
4689.00,1.52
4688.00,1.52
4687.00,1.53
4686.00,1.53
4685.00,1.53
4684.00,1.53
4683.00,1.53
4682.00,1.53
4681.00,1.53
4680.00,1.54
4679.00,1.54
4678.00,1.54
4677.00,1.54
4676.00,1.54
4675.00,1.54
4674.00,1.54
4673.00,1.55
4672.00,1.55
4671.00,1.55
4670.00,1.55
4669.00,1.56
4668.00,1.56
4667.00,1.56
4666.00,1.56
4665.00,1.56
4664.00,1.57
4663.00,1.57
4662.00,1.57
4661.00,1.57
4660.00,1.58
4659.00,1.58
4658.00,1.58
4657.00,1.58
4656.00,1.59
4655.00,1.59
4654.00,1.59
4653.00,1.59
4652.00,1.59
4651.00,1.59
4650.00,1.60
4649.00,1.60
4648.00,1.60
4647.00,1.60
4646.00,1.60
4645.00,1.60
4644.00,1.61
4643.00,1.61
4642.00,1.61
4641.00,1.61
4640.00,1.61
4639.00,1.61
4638.00,1.61
4637.00,1.62
4636.00,1.62
4635.00,1.62
4634.00,1.62
4633.00,1.62
4632.00,1.62
4631.00,1.63
4630.00,1.63
4629.00,1.63
4628.00,1.63
4627.00,1.63
4626.00,1.63
4625.00,1.64
4624.00,1.64
4623.00,1.64
4622.00,1.64
4621.00,1.64
4620.00,1.64
4619.00,1.64
4618.00,1.64
4617.00,1.64
4616.00,1.64
4615.00,1.65
4614.00,1.65
4613.00,1.65
4612.00,1.65
4611.00,1.65
4610.00,1.65
4609.00,1.65
4608.00,1.65
4607.00,1.65
4606.00,1.65
4605.00,1.65
4604.00,1.66
4603.00,1.66
4602.00,1.66
4601.00,1.66
4600.00,1.66
4599.00,1.66
4598.00,1.66
4597.00,1.67
4596.00,1.67
4595.00,1.67
4594.00,1.67
4593.00,1.67
4592.00,1.67
4591.00,1.67
4590.00,1.67
4589.00,1.68
4588.00,1.68
4587.00,1.68
4586.00,1.68
4585.00,1.68
4584.00,1.68
4583.00,1.68
4582.00,1.69
4581.00,1.69
4580.00,1.69
4579.00,1.69
4578.00,1.69
4577.00,1.69
4576.00,1.69
4575.00,1.69
4574.00,1.69
4573.00,1.69
4572.00,1.70
4571.00,1.70
4570.00,1.70
4569.00,1.70
4568.00,1.70
4567.00,1.70
4566.00,1.70
4565.00,1.70
4564.00,1.70
4563.00,1.70
4562.00,1.71
4561.00,1.71
4560.00,1.71
4559.00,1.71
4558.00,1.71
4557.00,1.71
4556.00,1.72
4555.00,1.72
4554.00,1.72
4553.00,1.72
4552.00,1.72
4551.00,1.72
4550.00,1.73
4549.00,1.73
4548.00,1.73
4547.00,1.73
4546.00,1.73
4545.00,1.73
4544.00,1.73
4543.00,1.74
4542.00,1.74
4541.00,1.74
4540.00,1.74
4539.00,1.74
4538.00,1.74
4537.00,1.74
4536.00,1.74
4535.00,1.74
4534.00,1.74
4533.00,1.74
4532.00,1.74
4531.00,1.74
4530.00,1.75
4529.00,1.75
4528.00,1.75
4527.00,1.75
4526.00,1.75
4525.00,1.75
4524.00,1.75
4523.00,1.75
4522.00,1.75
4521.00,1.75
4520.00,1.75
4519.00,1.75
4518.00,1.75
4517.00,1.75
4516.00,1.75
4515.00,1.75
4514.00,1.75
4513.00,1.75
4512.00,1.75
4511.00,1.75
4510.00,1.75
4509.00,1.75
4508.00,1.75
4507.00,1.75
4506.00,1.75
4505.00,1.75
4504.00,1.75
4503.00,1.75
4502.00,1.75
4501.00,1.75
4500.00,1.75
4499.00,1.75
4498.00,1.75
4497.00,1.75
4496.00,1.75
4495.00,1.75
4494.00,1.75
4493.00,1.75
4492.00,1.75
4491.00,1.74
4490.00,1.74
4489.00,1.74
4488.00,1.74
4487.00,1.74
4486.00,1.74
4485.00,1.74
4484.00,1.73
4483.00,1.73
4482.00,1.73
4481.00,1.73
4480.00,1.73
4479.00,1.73
4478.00,1.72
4477.00,1.72
4476.00,1.72
4475.00,1.72
4474.00,1.72
4473.00,1.71
4472.00,1.71
4471.00,1.71
4470.00,1.71
4469.00,1.70
4468.00,1.70
4467.00,1.70
4466.00,1.70
4465.00,1.69
4464.00,1.69
4463.00,1.69
4462.00,1.68
4461.00,1.68
4460.00,1.67
4459.00,1.67
4458.00,1.66
4457.00,1.66
4456.00,1.66
4455.00,1.65
4454.00,1.65
4453.00,1.64
4452.00,1.64
4451.00,1.63
4450.00,1.62
4449.00,1.62
4448.00,1.61
4447.00,1.60
4446.00,1.60
4445.00,1.59
4444.00,1.58
4443.00,1.58
4442.00,1.57
4441.00,1.56
4440.00,1.55
4439.00,1.54
4438.00,1.54
4437.00,1.53
4436.00,1.52
4435.00,1.51
4434.00,1.51
4433.00,1.50
4432.00,1.49
4431.00,1.49
4430.00,1.48
4429.00,1.47
4428.00,1.47
4427.00,1.46
4426.00,1.46
4425.00,1.45
4424.00,1.45
4423.00,1.45
4422.00,1.44
4421.00,1.44
4420.00,1.44
4419.00,1.44
4418.00,1.43
4417.00,1.43
4416.00,1.43
4415.00,1.43
4414.00,1.43
4413.00,1.43
4412.00,1.43
4411.00,1.43
4410.00,1.43
4409.00,1.43
4408.00,1.43
4407.00,1.43
4406.00,1.43
4405.00,1.43
4404.00,1.44
4403.00,1.44
4402.00,1.44
4401.00,1.44
4400.00,1.44
4399.00,1.45
4398.00,1.45
4397.00,1.45
4396.00,1.46
4395.00,1.46
4394.00,1.46
4393.00,1.47
4392.00,1.47
4391.00,1.47
4390.00,1.48
4389.00,1.48
4388.00,1.48
4387.00,1.49
4386.00,1.49
4385.00,1.49
4384.00,1.49
4383.00,1.50
4382.00,1.50
4381.00,1.50
4380.00,1.51
4379.00,1.51
4378.00,1.51
4377.00,1.51
4376.00,1.51
4375.00,1.51
4374.00,1.51
4373.00,1.51
4372.00,1.51
4371.00,1.51
4370.00,1.51
4369.00,1.51
4368.00,1.51
4367.00,1.51
4366.00,1.50
4365.00,1.50
4364.00,1.50
4363.00,1.50
4362.00,1.50
4361.00,1.49
4360.00,1.49
4359.00,1.49
4358.00,1.49
4357.00,1.49
4356.00,1.48
4355.00,1.48
4354.00,1.48
4353.00,1.48
4352.00,1.48
4351.00,1.48
4350.00,1.48
4349.00,1.48
4348.00,1.48
4347.00,1.48
4346.00,1.48
4345.00,1.48
4344.00,1.48
4343.00,1.48
4342.00,1.48
4341.00,1.48
4340.00,1.48
4339.00,1.48
4338.00,1.48
4337.00,1.48
4336.00,1.48
4335.00,1.49
4334.00,1.49
4333.00,1.49
4332.00,1.49
4331.00,1.50
4330.00,1.50
4329.00,1.50
4328.00,1.51
4327.00,1.51
4326.00,1.51
4325.00,1.52
4324.00,1.52
4323.00,1.52
4322.00,1.53
4321.00,1.53
4320.00,1.53
4319.00,1.54
4318.00,1.54
4317.00,1.55
4316.00,1.55
4315.00,1.56
4314.00,1.56
4313.00,1.56
4312.00,1.57
4311.00,1.57
4310.00,1.58
4309.00,1.58
4308.00,1.59
4307.00,1.59
4306.00,1.60
4305.00,1.60
4304.00,1.60
4303.00,1.61
4302.00,1.61
4301.00,1.61
4300.00,1.62
4299.00,1.62
4298.00,1.62
4297.00,1.62
4296.00,1.62
4295.00,1.63
4294.00,1.63
4293.00,1.63
4292.00,1.63
4291.00,1.63
4290.00,1.63
4289.00,1.63
4288.00,1.64
4287.00,1.64
4286.00,1.64
4285.00,1.64
4284.00,1.64
4283.00,1.64
4282.00,1.64
4281.00,1.64
4280.00,1.64
4279.00,1.64
4278.00,1.64
4277.00,1.64
4276.00,1.64
4275.00,1.64
4274.00,1.64
4273.00,1.64
4272.00,1.63
4271.00,1.63
4270.00,1.63
4269.00,1.62
4268.00,1.62
4267.00,1.62
4266.00,1.61
4265.00,1.61
4264.00,1.60
4263.00,1.60
4262.00,1.60
4261.00,1.60
4260.00,1.59
4259.00,1.59
4258.00,1.59
4257.00,1.59
4256.00,1.59
4255.00,1.59
4254.00,1.59
4253.00,1.59
4252.00,1.59
4251.00,1.59
4250.00,1.59
4249.00,1.60
4248.00,1.60
4247.00,1.60
4246.00,1.60
4245.00,1.60
4244.00,1.61
4243.00,1.61
4242.00,1.61
4241.00,1.61
4240.00,1.62
4239.00,1.62
4238.00,1.62
4237.00,1.62
4236.00,1.62
4235.00,1.63
4234.00,1.63
4233.00,1.63
4232.00,1.63
4231.00,1.63
4230.00,1.63
4229.00,1.63
4228.00,1.63
4227.00,1.63
4226.00,1.63
4225.00,1.63
4224.00,1.64
4223.00,1.64
4222.00,1.64
4221.00,1.64
4220.00,1.64
4219.00,1.64
4218.00,1.64
4217.00,1.64
4216.00,1.64
4215.00,1.64
4214.00,1.65
4213.00,1.65
4212.00,1.65
4211.00,1.65
4210.00,1.65
4209.00,1.65
4208.00,1.65
4207.00,1.65
4206.00,1.65
4205.00,1.65
4204.00,1.65
4203.00,1.65
4202.00,1.65
4201.00,1.65
4200.00,1.65
4199.00,1.65
4198.00,1.65
4197.00,1.65
4196.00,1.65
4195.00,1.65
4194.00,1.65
4193.00,1.65
4192.00,1.65
4191.00,1.65
4190.00,1.64
4189.00,1.64
4188.00,1.64
4187.00,1.64
4186.00,1.64
4185.00,1.64
4184.00,1.64
4183.00,1.64
4182.00,1.64
4181.00,1.64
4180.00,1.64
4179.00,1.64
4178.00,1.64
4177.00,1.64
4176.00,1.64
4175.00,1.64
4174.00,1.64
4173.00,1.64
4172.00,1.64
4171.00,1.64
4170.00,1.64
4169.00,1.64
4168.00,1.64
4167.00,1.64
4166.00,1.64
4165.00,1.64
4164.00,1.64
4163.00,1.64
4162.00,1.64
4161.00,1.64
4160.00,1.64
4159.00,1.64
4158.00,1.64
4157.00,1.64
4156.00,1.64
4155.00,1.64
4154.00,1.64
4153.00,1.64
4152.00,1.64
4151.00,1.64
4150.00,1.64
4149.00,1.64
4148.00,1.64
4147.00,1.64
4146.00,1.65
4145.00,1.65
4144.00,1.65
4143.00,1.65
4142.00,1.65
4141.00,1.65
4140.00,1.65
4139.00,1.65
4138.00,1.65
4137.00,1.65
4136.00,1.66
4135.00,1.66
4134.00,1.66
4133.00,1.66
4132.00,1.66
4131.00,1.66
4130.00,1.66
4129.00,1.66
4128.00,1.66
4127.00,1.66
4126.00,1.66
4125.00,1.66
4124.00,1.66
4123.00,1.66
4122.00,1.66
4121.00,1.67
4120.00,1.67
4119.00,1.67
4118.00,1.67
4117.00,1.67
4116.00,1.67
4115.00,1.67
4114.00,1.67
4113.00,1.67
4112.00,1.67
4111.00,1.67
4110.00,1.67
4109.00,1.67
4108.00,1.67
4107.00,1.67
4106.00,1.67
4105.00,1.67
4104.00,1.67
4103.00,1.67
4102.00,1.67
4101.00,1.67
4100.00,1.67
4099.00,1.67
4098.00,1.67
4097.00,1.67
4096.00,1.66
4095.00,1.66
4094.00,1.66
4093.00,1.66
4092.00,1.66
4091.00,1.66
4090.00,1.66
4089.00,1.66
4088.00,1.66
4087.00,1.66
4086.00,1.66
4085.00,1.66
4084.00,1.66
4083.00,1.66
4082.00,1.66
4081.00,1.66
4080.00,1.66
4079.00,1.66
4078.00,1.66
4077.00,1.66
4076.00,1.66
4075.00,1.66
4074.00,1.67
4073.00,1.67
4072.00,1.67
4071.00,1.67
4070.00,1.67
4069.00,1.67
4068.00,1.67
4067.00,1.68
4066.00,1.68
4065.00,1.68
4064.00,1.68
4063.00,1.68
4062.00,1.69
4061.00,1.69
4060.00,1.69
4059.00,1.69
4058.00,1.69
4057.00,1.69
4056.00,1.69
4055.00,1.69
4054.00,1.69
4053.00,1.69
4052.00,1.69
4051.00,1.69
4050.00,1.69
4049.00,1.69
4048.00,1.69
4047.00,1.69
4046.00,1.69
4045.00,1.69
4044.00,1.69
4043.00,1.69
4042.00,1.69
4041.00,1.70
4040.00,1.70
4039.00,1.70
4038.00,1.70
4037.00,1.70
4036.00,1.70
4035.00,1.70
4034.00,1.70
4033.00,1.70
4032.00,1.71
4031.00,1.71
4030.00,1.71
4029.00,1.71
4028.00,1.71
4027.00,1.71
4026.00,1.71
4025.00,1.71
4024.00,1.71
4023.00,1.71
4022.00,1.71
4021.00,1.71
4020.00,1.71
4019.00,1.71
4018.00,1.71
4017.00,1.71
4016.00,1.71
4015.00,1.72
4014.00,1.72
4013.00,1.72
4012.00,1.72
4011.00,1.73
4010.00,1.73
4009.00,1.73
4008.00,1.73
4007.00,1.74
4006.00,1.74
4005.00,1.74
4004.00,1.75
4003.00,1.75
4002.00,1.75
4001.00,1.75
4000.00,1.75
