创建为新数据集,样品 531 用户 Administrator 日期 星期一, 七月 16 2018
cm-1,%T
10000.00,1.66
9999.00,1.66
9998.00,1.66
9997.00,1.67
9996.00,1.67
9995.00,1.67
9994.00,1.67
9993.00,1.68
9992.00,1.68
9991.00,1.68
9990.00,1.68
9989.00,1.68
9988.00,1.68
9987.00,1.68
9986.00,1.68
9985.00,1.68
9984.00,1.68
9983.00,1.67
9982.00,1.67
9981.00,1.67
9980.00,1.67
9979.00,1.66
9978.00,1.66
9977.00,1.66
9976.00,1.66
9975.00,1.66
9974.00,1.66
9973.00,1.65
9972.00,1.65
9971.00,1.65
9970.00,1.65
9969.00,1.65
9968.00,1.65
9967.00,1.65
9966.00,1.65
9965.00,1.65
9964.00,1.65
9963.00,1.65
9962.00,1.64
9961.00,1.64
9960.00,1.64
9959.00,1.64
9958.00,1.64
9957.00,1.64
9956.00,1.64
9955.00,1.64
9954.00,1.64
9953.00,1.64
9952.00,1.64
9951.00,1.64
9950.00,1.64
9949.00,1.64
9948.00,1.64
9947.00,1.64
9946.00,1.64
9945.00,1.64
9944.00,1.65
9943.00,1.65
9942.00,1.65
9941.00,1.65
9940.00,1.66
9939.00,1.66
9938.00,1.66
9937.00,1.66
9936.00,1.66
9935.00,1.66
9934.00,1.66
9933.00,1.66
9932.00,1.66
9931.00,1.66
9930.00,1.66
9929.00,1.66
9928.00,1.66
9927.00,1.67
9926.00,1.67
9925.00,1.67
9924.00,1.67
9923.00,1.67
9922.00,1.67
9921.00,1.67
9920.00,1.67
9919.00,1.67
9918.00,1.67
9917.00,1.67
9916.00,1.67
9915.00,1.67
9914.00,1.67
9913.00,1.66
9912.00,1.66
9911.00,1.66
9910.00,1.66
9909.00,1.66
9908.00,1.65
9907.00,1.65
9906.00,1.65
9905.00,1.65
9904.00,1.65
9903.00,1.65
9902.00,1.65
9901.00,1.65
9900.00,1.65
9899.00,1.65
9898.00,1.66
9897.00,1.66
9896.00,1.66
9895.00,1.66
9894.00,1.66
9893.00,1.66
9892.00,1.67
9891.00,1.67
9890.00,1.67
9889.00,1.67
9888.00,1.67
9887.00,1.67
9886.00,1.67
9885.00,1.66
9884.00,1.66
9883.00,1.66
9882.00,1.66
9881.00,1.65
9880.00,1.65
9879.00,1.65
9878.00,1.64
9877.00,1.64
9876.00,1.64
9875.00,1.63
9874.00,1.63
9873.00,1.63
9872.00,1.63
9871.00,1.63
9870.00,1.62
9869.00,1.62
9868.00,1.62
9867.00,1.62
9866.00,1.63
9865.00,1.63
9864.00,1.63
9863.00,1.63
9862.00,1.63
9861.00,1.63
9860.00,1.63
9859.00,1.63
9858.00,1.63
9857.00,1.63
9856.00,1.63
9855.00,1.63
9854.00,1.63
9853.00,1.63
9852.00,1.63
9851.00,1.63
9850.00,1.63
9849.00,1.63
9848.00,1.62
9847.00,1.62
9846.00,1.62
9845.00,1.62
9844.00,1.61
9843.00,1.61
9842.00,1.61
9841.00,1.61
9840.00,1.60
9839.00,1.60
9838.00,1.60
9837.00,1.60
9836.00,1.60
9835.00,1.59
9834.00,1.59
9833.00,1.59
9832.00,1.59
9831.00,1.59
9830.00,1.59
9829.00,1.60
9828.00,1.60
9827.00,1.60
9826.00,1.60
9825.00,1.60
9824.00,1.61
9823.00,1.61
9822.00,1.61
9821.00,1.61
9820.00,1.61
9819.00,1.62
9818.00,1.62
9817.00,1.62
9816.00,1.62
9815.00,1.62
9814.00,1.63
9813.00,1.63
9812.00,1.63
9811.00,1.63
9810.00,1.64
9809.00,1.64
9808.00,1.64
9807.00,1.64
9806.00,1.65
9805.00,1.65
9804.00,1.66
9803.00,1.66
9802.00,1.66
9801.00,1.67
9800.00,1.67
9799.00,1.67
9798.00,1.68
9797.00,1.68
9796.00,1.68
9795.00,1.68
9794.00,1.68
9793.00,1.68
9792.00,1.68
9791.00,1.68
9790.00,1.68
9789.00,1.68
9788.00,1.68
9787.00,1.67
9786.00,1.67
9785.00,1.67
9784.00,1.67
9783.00,1.66
9782.00,1.66
9781.00,1.66
9780.00,1.66
9779.00,1.66
9778.00,1.66
9777.00,1.66
9776.00,1.66
9775.00,1.66
9774.00,1.66
9773.00,1.66
9772.00,1.66
9771.00,1.66
9770.00,1.66
9769.00,1.66
9768.00,1.67
9767.00,1.67
9766.00,1.67
9765.00,1.66
9764.00,1.66
9763.00,1.66
9762.00,1.66
9761.00,1.66
9760.00,1.66
9759.00,1.66
9758.00,1.66
9757.00,1.66
9756.00,1.65
9755.00,1.65
9754.00,1.65
9753.00,1.65
9752.00,1.65
9751.00,1.65
9750.00,1.64
9749.00,1.64
9748.00,1.64
9747.00,1.64
9746.00,1.64
9745.00,1.64
9744.00,1.64
9743.00,1.64
9742.00,1.64
9741.00,1.64
9740.00,1.64
9739.00,1.64
9738.00,1.64
9737.00,1.64
9736.00,1.64
9735.00,1.64
9734.00,1.64
9733.00,1.65
9732.00,1.65
9731.00,1.65
9730.00,1.65
9729.00,1.65
9728.00,1.65
9727.00,1.65
9726.00,1.64
9725.00,1.64
9724.00,1.64
9723.00,1.64
9722.00,1.64
9721.00,1.63
9720.00,1.63
9719.00,1.63
9718.00,1.63
9717.00,1.63
9716.00,1.63
9715.00,1.62
9714.00,1.62
9713.00,1.62
9712.00,1.62
9711.00,1.62
9710.00,1.62
9709.00,1.62
9708.00,1.62
9707.00,1.62
9706.00,1.62
9705.00,1.62
9704.00,1.62
9703.00,1.62
9702.00,1.62
9701.00,1.62
9700.00,1.62
9699.00,1.62
9698.00,1.63
9697.00,1.63
9696.00,1.63
9695.00,1.63
9694.00,1.64
9693.00,1.64
9692.00,1.64
9691.00,1.65
9690.00,1.65
9689.00,1.65
9688.00,1.66
9687.00,1.66
9686.00,1.66
9685.00,1.66
9684.00,1.66
9683.00,1.66
9682.00,1.66
9681.00,1.66
9680.00,1.66
9679.00,1.66
9678.00,1.66
9677.00,1.66
9676.00,1.66
9675.00,1.66
9674.00,1.66
9673.00,1.66
9672.00,1.65
9671.00,1.65
9670.00,1.65
9669.00,1.65
9668.00,1.65
9667.00,1.65
9666.00,1.65
9665.00,1.65
9664.00,1.65
9663.00,1.65
9662.00,1.65
9661.00,1.64
9660.00,1.64
9659.00,1.64
9658.00,1.64
9657.00,1.65
9656.00,1.65
9655.00,1.65
9654.00,1.65
9653.00,1.65
9652.00,1.65
9651.00,1.65
9650.00,1.65
9649.00,1.65
9648.00,1.65
9647.00,1.65
9646.00,1.65
9645.00,1.65
9644.00,1.65
9643.00,1.65
9642.00,1.65
9641.00,1.65
9640.00,1.65
9639.00,1.65
9638.00,1.65
9637.00,1.65
9636.00,1.65
9635.00,1.65
9634.00,1.65
9633.00,1.65
9632.00,1.65
9631.00,1.65
9630.00,1.65
9629.00,1.65
9628.00,1.65
9627.00,1.65
9626.00,1.66
9625.00,1.66
9624.00,1.66
9623.00,1.66
9622.00,1.66
9621.00,1.66
9620.00,1.66
9619.00,1.66
9618.00,1.66
9617.00,1.66
9616.00,1.66
9615.00,1.65
9614.00,1.65
9613.00,1.65
9612.00,1.65
9611.00,1.65
9610.00,1.65
9609.00,1.65
9608.00,1.65
9607.00,1.65
9606.00,1.65
9605.00,1.65
9604.00,1.65
9603.00,1.65
9602.00,1.65
9601.00,1.65
9600.00,1.65
9599.00,1.65
9598.00,1.65
9597.00,1.65
9596.00,1.64
9595.00,1.64
9594.00,1.64
9593.00,1.64
9592.00,1.64
9591.00,1.64
9590.00,1.64
9589.00,1.64
9588.00,1.64
9587.00,1.65
9586.00,1.65
9585.00,1.65
9584.00,1.65
9583.00,1.65
9582.00,1.65
9581.00,1.65
9580.00,1.66
9579.00,1.66
9578.00,1.66
9577.00,1.66
9576.00,1.66
9575.00,1.66
9574.00,1.66
9573.00,1.66
9572.00,1.66
9571.00,1.66
9570.00,1.66
9569.00,1.66
9568.00,1.66
9567.00,1.65
9566.00,1.65
9565.00,1.65
9564.00,1.65
9563.00,1.65
9562.00,1.65
9561.00,1.65
9560.00,1.65
9559.00,1.65
9558.00,1.65
9557.00,1.65
9556.00,1.65
9555.00,1.65
9554.00,1.65
9553.00,1.65
9552.00,1.65
9551.00,1.64
9550.00,1.64
9549.00,1.64
9548.00,1.64
9547.00,1.64
9546.00,1.64
9545.00,1.64
9544.00,1.64
9543.00,1.64
9542.00,1.64
9541.00,1.64
9540.00,1.64
9539.00,1.64
9538.00,1.64
9537.00,1.64
9536.00,1.64
9535.00,1.64
9534.00,1.64
9533.00,1.64
9532.00,1.64
9531.00,1.64
9530.00,1.64
9529.00,1.64
9528.00,1.64
9527.00,1.63
9526.00,1.63
9525.00,1.63
9524.00,1.63
9523.00,1.63
9522.00,1.63
9521.00,1.63
9520.00,1.63
9519.00,1.62
9518.00,1.62
9517.00,1.62
9516.00,1.62
9515.00,1.62
9514.00,1.62
9513.00,1.63
9512.00,1.63
9511.00,1.63
9510.00,1.63
9509.00,1.63
9508.00,1.63
9507.00,1.64
9506.00,1.64
9505.00,1.64
9504.00,1.64
9503.00,1.64
9502.00,1.65
9501.00,1.65
9500.00,1.65
9499.00,1.65
9498.00,1.65
9497.00,1.65
9496.00,1.65
9495.00,1.66
9494.00,1.66
9493.00,1.66
9492.00,1.66
9491.00,1.66
9490.00,1.67
9489.00,1.67
9488.00,1.67
9487.00,1.67
9486.00,1.67
9485.00,1.68
9484.00,1.68
9483.00,1.68
9482.00,1.68
9481.00,1.68
9480.00,1.68
9479.00,1.68
9478.00,1.68
9477.00,1.68
9476.00,1.68
9475.00,1.67
9474.00,1.67
9473.00,1.67
9472.00,1.67
9471.00,1.66
9470.00,1.66
9469.00,1.65
9468.00,1.65
9467.00,1.65
9466.00,1.64
9465.00,1.64
9464.00,1.64
9463.00,1.64
9462.00,1.64
9461.00,1.63
9460.00,1.63
9459.00,1.63
9458.00,1.63
9457.00,1.63
9456.00,1.64
9455.00,1.64
9454.00,1.64
9453.00,1.64
9452.00,1.64
9451.00,1.65
9450.00,1.65
9449.00,1.65
9448.00,1.66
9447.00,1.66
9446.00,1.66
9445.00,1.66
9444.00,1.67
9443.00,1.67
9442.00,1.67
9441.00,1.67
9440.00,1.68
9439.00,1.68
9438.00,1.68
9437.00,1.68
9436.00,1.68
9435.00,1.68
9434.00,1.68
9433.00,1.68
9432.00,1.68
9431.00,1.68
9430.00,1.68
9429.00,1.68
9428.00,1.67
9427.00,1.67
9426.00,1.67
9425.00,1.67
9424.00,1.67
9423.00,1.66
9422.00,1.66
9421.00,1.66
9420.00,1.66
9419.00,1.66
9418.00,1.66
9417.00,1.66
9416.00,1.66
9415.00,1.65
9414.00,1.65
9413.00,1.65
9412.00,1.65
9411.00,1.65
9410.00,1.65
9409.00,1.65
9408.00,1.65
9407.00,1.65
9406.00,1.65
9405.00,1.65
9404.00,1.65
9403.00,1.65
9402.00,1.65
9401.00,1.65
9400.00,1.66
9399.00,1.66
9398.00,1.66
9397.00,1.66
9396.00,1.66
9395.00,1.66
9394.00,1.66
9393.00,1.66
9392.00,1.66
9391.00,1.66
9390.00,1.66
9389.00,1.66
9388.00,1.66
9387.00,1.66
9386.00,1.66
9385.00,1.66
9384.00,1.66
9383.00,1.66
9382.00,1.66
9381.00,1.67
9380.00,1.67
9379.00,1.67
9378.00,1.67
9377.00,1.67
9376.00,1.67
9375.00,1.67
9374.00,1.67
9373.00,1.67
9372.00,1.67
9371.00,1.68
9370.00,1.68
9369.00,1.68
9368.00,1.68
9367.00,1.68
9366.00,1.68
9365.00,1.68
9364.00,1.68
9363.00,1.68
9362.00,1.68
9361.00,1.68
9360.00,1.68
9359.00,1.68
9358.00,1.68
9357.00,1.68
9356.00,1.67
9355.00,1.67
9354.00,1.67
9353.00,1.67
9352.00,1.67
9351.00,1.67
9350.00,1.67
9349.00,1.67
9348.00,1.67
9347.00,1.66
9346.00,1.66
9345.00,1.66
9344.00,1.66
9343.00,1.66
9342.00,1.66
9341.00,1.66
9340.00,1.66
9339.00,1.66
9338.00,1.65
9337.00,1.65
9336.00,1.65
9335.00,1.65
9334.00,1.65
9333.00,1.65
9332.00,1.65
9331.00,1.65
9330.00,1.65
9329.00,1.65
9328.00,1.65
9327.00,1.65
9326.00,1.65
9325.00,1.65
9324.00,1.65
9323.00,1.65
9322.00,1.65
9321.00,1.65
9320.00,1.65
9319.00,1.65
9318.00,1.65
9317.00,1.64
9316.00,1.64
9315.00,1.64
9314.00,1.64
9313.00,1.64
9312.00,1.64
9311.00,1.64
9310.00,1.64
9309.00,1.64
9308.00,1.65
9307.00,1.65
9306.00,1.65
9305.00,1.65
9304.00,1.65
9303.00,1.65
9302.00,1.65
9301.00,1.66
9300.00,1.66
9299.00,1.66
9298.00,1.66
9297.00,1.66
9296.00,1.66
9295.00,1.66
9294.00,1.66
9293.00,1.66
9292.00,1.66
9291.00,1.66
9290.00,1.66
9289.00,1.66
9288.00,1.66
9287.00,1.66
9286.00,1.66
9285.00,1.66
9284.00,1.66
9283.00,1.66
9282.00,1.66
9281.00,1.66
9280.00,1.66
9279.00,1.66
9278.00,1.66
9277.00,1.66
9276.00,1.66
9275.00,1.66
9274.00,1.67
9273.00,1.67
9272.00,1.67
9271.00,1.67
9270.00,1.67
9269.00,1.67
9268.00,1.67
9267.00,1.67
9266.00,1.67
9265.00,1.67
9264.00,1.67
9263.00,1.67
9262.00,1.67
9261.00,1.67
9260.00,1.67
9259.00,1.67
9258.00,1.67
9257.00,1.67
9256.00,1.67
9255.00,1.67
9254.00,1.67
9253.00,1.67
9252.00,1.67
9251.00,1.67
9250.00,1.67
9249.00,1.66
9248.00,1.66
9247.00,1.66
9246.00,1.66
9245.00,1.66
9244.00,1.66
9243.00,1.66
9242.00,1.66
9241.00,1.65
9240.00,1.65
9239.00,1.65
9238.00,1.65
9237.00,1.65
9236.00,1.65
9235.00,1.66
9234.00,1.66
9233.00,1.66
9232.00,1.66
9231.00,1.66
9230.00,1.66
9229.00,1.66
9228.00,1.66
9227.00,1.66
9226.00,1.66
9225.00,1.66
9224.00,1.66
9223.00,1.66
9222.00,1.66
9221.00,1.66
9220.00,1.66
9219.00,1.66
9218.00,1.66
9217.00,1.66
9216.00,1.66
9215.00,1.66
9214.00,1.66
9213.00,1.66
9212.00,1.66
9211.00,1.65
9210.00,1.65
9209.00,1.65
9208.00,1.65
9207.00,1.65
9206.00,1.65
9205.00,1.65
9204.00,1.65
9203.00,1.65
9202.00,1.65
9201.00,1.65
9200.00,1.65
9199.00,1.65
9198.00,1.65
9197.00,1.65
9196.00,1.66
9195.00,1.66
9194.00,1.66
9193.00,1.66
9192.00,1.66
9191.00,1.66
9190.00,1.66
9189.00,1.66
9188.00,1.66
9187.00,1.67
9186.00,1.67
9185.00,1.67
9184.00,1.67
9183.00,1.67
9182.00,1.67
9181.00,1.66
9180.00,1.66
9179.00,1.66
9178.00,1.66
9177.00,1.66
9176.00,1.66
9175.00,1.66
9174.00,1.66
9173.00,1.66
9172.00,1.66
9171.00,1.66
9170.00,1.66
9169.00,1.66
9168.00,1.66
9167.00,1.66
9166.00,1.66
9165.00,1.66
9164.00,1.66
9163.00,1.66
9162.00,1.66
9161.00,1.66
9160.00,1.66
9159.00,1.66
9158.00,1.66
9157.00,1.66
9156.00,1.66
9155.00,1.66
9154.00,1.66
9153.00,1.66
9152.00,1.66
9151.00,1.66
9150.00,1.66
9149.00,1.66
9148.00,1.66
9147.00,1.66
9146.00,1.66
9145.00,1.66
9144.00,1.66
9143.00,1.66
9142.00,1.66
9141.00,1.67
9140.00,1.67
9139.00,1.67
9138.00,1.67
9137.00,1.67
9136.00,1.67
9135.00,1.67
9134.00,1.67
9133.00,1.67
9132.00,1.67
9131.00,1.67
9130.00,1.67
9129.00,1.67
9128.00,1.67
9127.00,1.67
9126.00,1.67
9125.00,1.67
9124.00,1.67
9123.00,1.66
9122.00,1.66
9121.00,1.66
9120.00,1.66
9119.00,1.66
9118.00,1.66
9117.00,1.66
9116.00,1.65
9115.00,1.65
9114.00,1.65
9113.00,1.65
9112.00,1.65
9111.00,1.65
9110.00,1.65
9109.00,1.65
9108.00,1.65
9107.00,1.65
9106.00,1.65
9105.00,1.65
9104.00,1.65
9103.00,1.65
9102.00,1.65
9101.00,1.65
9100.00,1.65
9099.00,1.66
9098.00,1.66
9097.00,1.66
9096.00,1.66
9095.00,1.66
9094.00,1.67
9093.00,1.67
9092.00,1.67
9091.00,1.67
9090.00,1.67
9089.00,1.67
9088.00,1.67
9087.00,1.67
9086.00,1.68
9085.00,1.68
9084.00,1.68
9083.00,1.68
9082.00,1.68
9081.00,1.68
9080.00,1.68
9079.00,1.68
9078.00,1.68
9077.00,1.68
9076.00,1.68
9075.00,1.68
9074.00,1.68
9073.00,1.68
9072.00,1.68
9071.00,1.68
9070.00,1.67
9069.00,1.67
9068.00,1.67
9067.00,1.67
9066.00,1.67
9065.00,1.67
9064.00,1.67
9063.00,1.67
9062.00,1.67
9061.00,1.66
9060.00,1.66
9059.00,1.66
9058.00,1.66
9057.00,1.66
9056.00,1.66
9055.00,1.66
9054.00,1.67
9053.00,1.67
9052.00,1.67
9051.00,1.67
9050.00,1.67
9049.00,1.67
9048.00,1.67
9047.00,1.67
9046.00,1.67
9045.00,1.67
9044.00,1.67
9043.00,1.67
9042.00,1.67
9041.00,1.67
9040.00,1.67
9039.00,1.67
9038.00,1.67
9037.00,1.67
9036.00,1.67
9035.00,1.67
9034.00,1.67
9033.00,1.67
9032.00,1.67
9031.00,1.67
9030.00,1.67
9029.00,1.67
9028.00,1.67
9027.00,1.67
9026.00,1.68
9025.00,1.68
9024.00,1.68
9023.00,1.68
9022.00,1.68
9021.00,1.68
9020.00,1.68
9019.00,1.68
9018.00,1.68
9017.00,1.68
9016.00,1.68
9015.00,1.68
9014.00,1.68
9013.00,1.68
9012.00,1.68
9011.00,1.67
9010.00,1.67
9009.00,1.67
9008.00,1.67
9007.00,1.67
9006.00,1.67
9005.00,1.67
9004.00,1.67
9003.00,1.67
9002.00,1.67
9001.00,1.67
9000.00,1.67
8999.00,1.67
8998.00,1.67
8997.00,1.67
8996.00,1.67
8995.00,1.67
8994.00,1.67
8993.00,1.67
8992.00,1.68
8991.00,1.68
8990.00,1.68
8989.00,1.68
8988.00,1.68
8987.00,1.68
8986.00,1.68
8985.00,1.68
8984.00,1.68
8983.00,1.68
8982.00,1.68
8981.00,1.68
8980.00,1.68
8979.00,1.68
8978.00,1.68
8977.00,1.68
8976.00,1.68
8975.00,1.68
8974.00,1.68
8973.00,1.68
8972.00,1.68
8971.00,1.68
8970.00,1.68
8969.00,1.68
8968.00,1.68
8967.00,1.68
8966.00,1.67
8965.00,1.67
8964.00,1.67
8963.00,1.67
8962.00,1.67
8961.00,1.67
8960.00,1.66
8959.00,1.66
8958.00,1.66
8957.00,1.66
8956.00,1.66
8955.00,1.66
8954.00,1.66
8953.00,1.65
8952.00,1.65
8951.00,1.65
8950.00,1.65
8949.00,1.66
8948.00,1.66
8947.00,1.66
8946.00,1.66
8945.00,1.66
8944.00,1.66
8943.00,1.66
8942.00,1.66
8941.00,1.66
8940.00,1.67
8939.00,1.67
8938.00,1.67
8937.00,1.67
8936.00,1.67
8935.00,1.67
8934.00,1.67
8933.00,1.66
8932.00,1.66
8931.00,1.66
8930.00,1.66
8929.00,1.66
8928.00,1.66
8927.00,1.66
8926.00,1.66
8925.00,1.66
8924.00,1.66
8923.00,1.66
8922.00,1.66
8921.00,1.66
8920.00,1.66
8919.00,1.66
8918.00,1.66
8917.00,1.66
8916.00,1.66
8915.00,1.66
8914.00,1.67
8913.00,1.67
8912.00,1.67
8911.00,1.67
8910.00,1.67
8909.00,1.67
8908.00,1.67
8907.00,1.67
8906.00,1.67
8905.00,1.67
8904.00,1.67
8903.00,1.67
8902.00,1.67
8901.00,1.67
8900.00,1.67
8899.00,1.67
8898.00,1.67
8897.00,1.66
8896.00,1.66
8895.00,1.66
8894.00,1.66
8893.00,1.66
8892.00,1.65
8891.00,1.65
8890.00,1.65
8889.00,1.65
8888.00,1.64
8887.00,1.64
8886.00,1.64
8885.00,1.64
8884.00,1.64
8883.00,1.63
8882.00,1.63
8881.00,1.63
8880.00,1.63
8879.00,1.64
8878.00,1.64
8877.00,1.64
8876.00,1.64
8875.00,1.64
8874.00,1.64
8873.00,1.64
8872.00,1.64
8871.00,1.65
8870.00,1.65
8869.00,1.65
8868.00,1.65
8867.00,1.65
8866.00,1.65
8865.00,1.65
8864.00,1.65
8863.00,1.65
8862.00,1.65
8861.00,1.65
8860.00,1.65
8859.00,1.65
8858.00,1.65
8857.00,1.65
8856.00,1.65
8855.00,1.65
8854.00,1.65
8853.00,1.65
8852.00,1.65
8851.00,1.64
8850.00,1.64
8849.00,1.64
8848.00,1.64
8847.00,1.64
8846.00,1.64
8845.00,1.64
8844.00,1.64
8843.00,1.64
8842.00,1.64
8841.00,1.64
8840.00,1.64
8839.00,1.64
8838.00,1.64
8837.00,1.64
8836.00,1.64
8835.00,1.64
8834.00,1.64
8833.00,1.64
8832.00,1.64
8831.00,1.65
8830.00,1.65
8829.00,1.65
8828.00,1.65
8827.00,1.65
8826.00,1.65
8825.00,1.65
8824.00,1.65
8823.00,1.65
8822.00,1.64
8821.00,1.64
8820.00,1.64
8819.00,1.64
8818.00,1.64
8817.00,1.64
8816.00,1.64
8815.00,1.64
8814.00,1.64
8813.00,1.64
8812.00,1.64
8811.00,1.64
8810.00,1.64
8809.00,1.64
8808.00,1.64
8807.00,1.64
8806.00,1.64
8805.00,1.64
8804.00,1.64
8803.00,1.64
8802.00,1.64
8801.00,1.64
8800.00,1.63
8799.00,1.63
8798.00,1.63
8797.00,1.63
8796.00,1.63
8795.00,1.63
8794.00,1.63
8793.00,1.63
8792.00,1.63
8791.00,1.63
8790.00,1.62
8789.00,1.62
8788.00,1.62
8787.00,1.62
8786.00,1.62
8785.00,1.62
8784.00,1.62
8783.00,1.62
8782.00,1.62
8781.00,1.62
8780.00,1.61
8779.00,1.61
8778.00,1.61
8777.00,1.61
8776.00,1.61
8775.00,1.61
8774.00,1.61
8773.00,1.61
8772.00,1.61
8771.00,1.61
8770.00,1.61
8769.00,1.61
8768.00,1.61
8767.00,1.61
8766.00,1.61
8765.00,1.61
8764.00,1.61
8763.00,1.61
8762.00,1.61
8761.00,1.61
8760.00,1.61
8759.00,1.61
8758.00,1.60
8757.00,1.60
8756.00,1.60
8755.00,1.60
8754.00,1.60
8753.00,1.60
8752.00,1.60
8751.00,1.60
8750.00,1.60
8749.00,1.60
8748.00,1.60
8747.00,1.60
8746.00,1.60
8745.00,1.60
8744.00,1.60
8743.00,1.60
8742.00,1.60
8741.00,1.60
8740.00,1.60
8739.00,1.59
8738.00,1.59
8737.00,1.59
8736.00,1.59
8735.00,1.59
8734.00,1.59
8733.00,1.59
8732.00,1.59
8731.00,1.59
8730.00,1.59
8729.00,1.59
8728.00,1.59
8727.00,1.59
8726.00,1.59
8725.00,1.59
8724.00,1.59
8723.00,1.59
8722.00,1.59
8721.00,1.59
8720.00,1.59
8719.00,1.59
8718.00,1.59
8717.00,1.59
8716.00,1.59
8715.00,1.59
8714.00,1.59
8713.00,1.59
8712.00,1.59
8711.00,1.59
8710.00,1.59
8709.00,1.59
8708.00,1.59
8707.00,1.59
8706.00,1.59
8705.00,1.59
8704.00,1.58
8703.00,1.58
8702.00,1.58
8701.00,1.58
8700.00,1.58
8699.00,1.58
8698.00,1.57
8697.00,1.57
8696.00,1.57
8695.00,1.57
8694.00,1.57
8693.00,1.56
8692.00,1.56
8691.00,1.56
8690.00,1.56
8689.00,1.56
8688.00,1.56
8687.00,1.56
8686.00,1.56
8685.00,1.56
8684.00,1.56
8683.00,1.56
8682.00,1.56
8681.00,1.56
8680.00,1.56
8679.00,1.56
8678.00,1.56
8677.00,1.56
8676.00,1.56
8675.00,1.56
8674.00,1.56
8673.00,1.56
8672.00,1.57
8671.00,1.57
8670.00,1.57
8669.00,1.57
8668.00,1.57
8667.00,1.57
8666.00,1.57
8665.00,1.56
8664.00,1.56
8663.00,1.56
8662.00,1.56
8661.00,1.56
8660.00,1.56
8659.00,1.56
8658.00,1.56
8657.00,1.56
8656.00,1.56
8655.00,1.55
8654.00,1.55
8653.00,1.55
8652.00,1.55
8651.00,1.55
8650.00,1.55
8649.00,1.55
8648.00,1.55
8647.00,1.54
8646.00,1.54
8645.00,1.54
8644.00,1.54
8643.00,1.54
8642.00,1.54
8641.00,1.54
8640.00,1.54
8639.00,1.54
8638.00,1.54
8637.00,1.54
8636.00,1.54
8635.00,1.54
8634.00,1.54
8633.00,1.54
8632.00,1.54
8631.00,1.54
8630.00,1.54
8629.00,1.54
8628.00,1.54
8627.00,1.54
8626.00,1.54
8625.00,1.54
8624.00,1.54
8623.00,1.54
8622.00,1.54
8621.00,1.54
8620.00,1.54
8619.00,1.54
8618.00,1.54
8617.00,1.53
8616.00,1.53
8615.00,1.53
8614.00,1.53
8613.00,1.53
8612.00,1.53
8611.00,1.53
8610.00,1.53
8609.00,1.53
8608.00,1.53
8607.00,1.53
8606.00,1.53
8605.00,1.53
8604.00,1.53
8603.00,1.53
8602.00,1.53
8601.00,1.53
8600.00,1.52
8599.00,1.52
8598.00,1.52
8597.00,1.52
8596.00,1.52
8595.00,1.51
8594.00,1.51
8593.00,1.51
8592.00,1.51
8591.00,1.51
8590.00,1.51
8589.00,1.51
8588.00,1.51
8587.00,1.51
8586.00,1.51
8585.00,1.51
8584.00,1.51
8583.00,1.51
8582.00,1.51
8581.00,1.51
8580.00,1.51
8579.00,1.51
8578.00,1.51
8577.00,1.52
8576.00,1.52
8575.00,1.52
8574.00,1.52
8573.00,1.52
8572.00,1.52
8571.00,1.52
8570.00,1.52
8569.00,1.51
8568.00,1.51
8567.00,1.51
8566.00,1.51
8565.00,1.51
8564.00,1.51
8563.00,1.51
8562.00,1.51
8561.00,1.51
8560.00,1.51
8559.00,1.51
8558.00,1.51
8557.00,1.50
8556.00,1.50
8555.00,1.50
8554.00,1.50
8553.00,1.50
8552.00,1.50
8551.00,1.49
8550.00,1.49
8549.00,1.49
8548.00,1.49
8547.00,1.49
8546.00,1.49
8545.00,1.49
8544.00,1.49
8543.00,1.49
8542.00,1.48
8541.00,1.48
8540.00,1.48
8539.00,1.48
8538.00,1.48
8537.00,1.48
8536.00,1.48
8535.00,1.48
8534.00,1.48
8533.00,1.48
8532.00,1.48
8531.00,1.48
8530.00,1.48
8529.00,1.48
8528.00,1.48
8527.00,1.48
8526.00,1.48
8525.00,1.48
8524.00,1.48
8523.00,1.48
8522.00,1.48
8521.00,1.48
8520.00,1.48
8519.00,1.48
8518.00,1.47
8517.00,1.47
8516.00,1.47
8515.00,1.47
8514.00,1.47
8513.00,1.47
8512.00,1.47
8511.00,1.47
8510.00,1.47
8509.00,1.47
8508.00,1.47
8507.00,1.47
8506.00,1.47
8505.00,1.47
8504.00,1.47
8503.00,1.47
8502.00,1.47
8501.00,1.47
8500.00,1.47
8499.00,1.47
8498.00,1.47
8497.00,1.47
8496.00,1.47
8495.00,1.47
8494.00,1.46
8493.00,1.46
8492.00,1.46
8491.00,1.46
8490.00,1.46
8489.00,1.46
8488.00,1.46
8487.00,1.46
8486.00,1.46
8485.00,1.45
8484.00,1.45
8483.00,1.45
8482.00,1.45
8481.00,1.45
8480.00,1.45
8479.00,1.45
8478.00,1.45
8477.00,1.45
8476.00,1.45
8475.00,1.45
8474.00,1.44
8473.00,1.44
8472.00,1.44
8471.00,1.44
8470.00,1.44
8469.00,1.44
8468.00,1.43
8467.00,1.43
8466.00,1.43
8465.00,1.43
8464.00,1.43
8463.00,1.43
8462.00,1.43
8461.00,1.43
8460.00,1.43
8459.00,1.43
8458.00,1.43
8457.00,1.43
8456.00,1.43
8455.00,1.43
8454.00,1.43
8453.00,1.43
8452.00,1.43
8451.00,1.43
8450.00,1.43
8449.00,1.43
8448.00,1.43
8447.00,1.43
8446.00,1.43
8445.00,1.43
8444.00,1.43
8443.00,1.42
8442.00,1.42
8441.00,1.42
8440.00,1.42
8439.00,1.42
8438.00,1.42
8437.00,1.42
8436.00,1.42
8435.00,1.42
8434.00,1.42
8433.00,1.42
8432.00,1.42
8431.00,1.42
8430.00,1.42
8429.00,1.42
8428.00,1.42
8427.00,1.42
8426.00,1.42
8425.00,1.42
8424.00,1.42
8423.00,1.42
8422.00,1.43
8421.00,1.43
8420.00,1.43
8419.00,1.43
8418.00,1.43
8417.00,1.44
8416.00,1.44
8415.00,1.44
8414.00,1.44
8413.00,1.44
8412.00,1.44
8411.00,1.45
8410.00,1.45
8409.00,1.45
8408.00,1.45
8407.00,1.45
8406.00,1.45
8405.00,1.45
8404.00,1.45
8403.00,1.45
8402.00,1.45
8401.00,1.45
8400.00,1.45
8399.00,1.45
8398.00,1.45
8397.00,1.45
8396.00,1.45
8395.00,1.45
8394.00,1.45
8393.00,1.45
8392.00,1.45
8391.00,1.45
8390.00,1.45
8389.00,1.45
8388.00,1.45
8387.00,1.45
8386.00,1.45
8385.00,1.45
8384.00,1.45
8383.00,1.46
8382.00,1.46
8381.00,1.46
8380.00,1.46
8379.00,1.46
8378.00,1.47
8377.00,1.47
8376.00,1.47
8375.00,1.47
8374.00,1.47
8373.00,1.48
8372.00,1.48
8371.00,1.48
8370.00,1.48
8369.00,1.48
8368.00,1.48
8367.00,1.48
8366.00,1.48
8365.00,1.48
8364.00,1.48
8363.00,1.48
8362.00,1.48
8361.00,1.48
8360.00,1.48
8359.00,1.48
8358.00,1.48
8357.00,1.48
8356.00,1.48
8355.00,1.48
8354.00,1.48
8353.00,1.47
8352.00,1.47
8351.00,1.47
8350.00,1.47
8349.00,1.47
8348.00,1.47
8347.00,1.47
8346.00,1.47
8345.00,1.47
8344.00,1.47
8343.00,1.47
8342.00,1.47
8341.00,1.47
8340.00,1.47
8339.00,1.47
8338.00,1.47
8337.00,1.48
8336.00,1.48
8335.00,1.48
8334.00,1.48
8333.00,1.48
8332.00,1.48
8331.00,1.49
8330.00,1.49
8329.00,1.49
8328.00,1.49
8327.00,1.49
8326.00,1.49
8325.00,1.49
8324.00,1.49
8323.00,1.49
8322.00,1.49
8321.00,1.49
8320.00,1.49
8319.00,1.49
8318.00,1.49
8317.00,1.49
8316.00,1.49
8315.00,1.49
8314.00,1.49
8313.00,1.50
8312.00,1.50
8311.00,1.50
8310.00,1.50
8309.00,1.50
8308.00,1.50
8307.00,1.50
8306.00,1.50
8305.00,1.50
8304.00,1.50
8303.00,1.50
8302.00,1.50
8301.00,1.50
8300.00,1.50
8299.00,1.50
8298.00,1.50
8297.00,1.50
8296.00,1.50
8295.00,1.50
8294.00,1.50
8293.00,1.50
8292.00,1.50
8291.00,1.50
8290.00,1.50
8289.00,1.50
8288.00,1.50
8287.00,1.50
8286.00,1.50
8285.00,1.50
8284.00,1.50
8283.00,1.50
8282.00,1.50
8281.00,1.49
8280.00,1.49
8279.00,1.49
8278.00,1.49
8277.00,1.49
8276.00,1.49
8275.00,1.49
8274.00,1.49
8273.00,1.49
8272.00,1.49
8271.00,1.50
8270.00,1.50
8269.00,1.50
8268.00,1.50
8267.00,1.50
8266.00,1.50
8265.00,1.50
8264.00,1.50
8263.00,1.50
8262.00,1.50
8261.00,1.50
8260.00,1.50
8259.00,1.50
8258.00,1.50
8257.00,1.51
8256.00,1.51
8255.00,1.51
8254.00,1.51
8253.00,1.51
8252.00,1.51
8251.00,1.51
8250.00,1.51
8249.00,1.51
8248.00,1.51
8247.00,1.51
8246.00,1.51
8245.00,1.51
8244.00,1.51
8243.00,1.51
8242.00,1.51
8241.00,1.51
8240.00,1.51
8239.00,1.51
8238.00,1.51
8237.00,1.51
8236.00,1.51
8235.00,1.51
8234.00,1.51
8233.00,1.51
8232.00,1.51
8231.00,1.51
8230.00,1.52
8229.00,1.52
8228.00,1.52
8227.00,1.52
8226.00,1.52
8225.00,1.52
8224.00,1.52
8223.00,1.53
8222.00,1.53
8221.00,1.53
8220.00,1.53
8219.00,1.53
8218.00,1.53
8217.00,1.54
8216.00,1.54
8215.00,1.54
8214.00,1.54
8213.00,1.54
8212.00,1.54
8211.00,1.55
8210.00,1.55
8209.00,1.55
8208.00,1.55
8207.00,1.55
8206.00,1.55
8205.00,1.55
8204.00,1.55
8203.00,1.55
8202.00,1.55
8201.00,1.55
8200.00,1.55
8199.00,1.55
8198.00,1.55
8197.00,1.55
8196.00,1.55
8195.00,1.55
8194.00,1.55
8193.00,1.55
8192.00,1.55
8191.00,1.55
8190.00,1.55
8189.00,1.55
8188.00,1.55
8187.00,1.55
8186.00,1.55
8185.00,1.55
8184.00,1.55
8183.00,1.55
8182.00,1.55
8181.00,1.55
8180.00,1.55
8179.00,1.55
8178.00,1.55
8177.00,1.55
8176.00,1.55
8175.00,1.55
8174.00,1.55
8173.00,1.55
8172.00,1.55
8171.00,1.55
8170.00,1.55
8169.00,1.55
8168.00,1.55
8167.00,1.56
8166.00,1.56
8165.00,1.56
8164.00,1.56
8163.00,1.56
8162.00,1.56
8161.00,1.57
8160.00,1.57
8159.00,1.57
8158.00,1.57
8157.00,1.57
8156.00,1.57
8155.00,1.58
8154.00,1.58
8153.00,1.58
8152.00,1.58
8151.00,1.58
8150.00,1.58
8149.00,1.58
8148.00,1.58
8147.00,1.58
8146.00,1.58
8145.00,1.58
8144.00,1.58
8143.00,1.58
8142.00,1.58
8141.00,1.58
8140.00,1.58
8139.00,1.58
8138.00,1.58
8137.00,1.58
8136.00,1.57
8135.00,1.57
8134.00,1.57
8133.00,1.57
8132.00,1.57
8131.00,1.57
8130.00,1.57
8129.00,1.57
8128.00,1.57
8127.00,1.57
8126.00,1.57
8125.00,1.57
8124.00,1.57
8123.00,1.58
8122.00,1.58
8121.00,1.58
8120.00,1.58
8119.00,1.58
8118.00,1.58
8117.00,1.58
8116.00,1.59
8115.00,1.59
8114.00,1.59
8113.00,1.59
8112.00,1.59
8111.00,1.59
8110.00,1.59
8109.00,1.59
8108.00,1.59
8107.00,1.59
8106.00,1.59
8105.00,1.59
8104.00,1.58
8103.00,1.58
8102.00,1.58
8101.00,1.58
8100.00,1.58
8099.00,1.58
8098.00,1.58
8097.00,1.58
8096.00,1.58
8095.00,1.58
8094.00,1.58
8093.00,1.58
8092.00,1.58
8091.00,1.58
8090.00,1.59
8089.00,1.59
8088.00,1.59
8087.00,1.59
8086.00,1.59
8085.00,1.59
8084.00,1.59
8083.00,1.59
8082.00,1.60
8081.00,1.60
8080.00,1.60
8079.00,1.60
8078.00,1.60
8077.00,1.60
8076.00,1.60
8075.00,1.60
8074.00,1.60
8073.00,1.60
8072.00,1.60
8071.00,1.60
8070.00,1.60
8069.00,1.60
8068.00,1.60
8067.00,1.60
8066.00,1.60
8065.00,1.60
8064.00,1.60
8063.00,1.59
8062.00,1.59
8061.00,1.59
8060.00,1.60
8059.00,1.60
8058.00,1.60
8057.00,1.60
8056.00,1.60
8055.00,1.60
8054.00,1.60
8053.00,1.60
8052.00,1.61
8051.00,1.61
8050.00,1.61
8049.00,1.61
8048.00,1.61
8047.00,1.62
8046.00,1.62
8045.00,1.62
8044.00,1.62
8043.00,1.62
8042.00,1.62
8041.00,1.62
8040.00,1.62
8039.00,1.62
8038.00,1.62
8037.00,1.62
8036.00,1.62
8035.00,1.61
8034.00,1.61
8033.00,1.61
8032.00,1.61
8031.00,1.61
8030.00,1.61
8029.00,1.61
8028.00,1.60
8027.00,1.60
8026.00,1.60
8025.00,1.60
8024.00,1.60
8023.00,1.60
8022.00,1.60
8021.00,1.60
8020.00,1.60
8019.00,1.60
8018.00,1.61
8017.00,1.61
8016.00,1.61
8015.00,1.61
8014.00,1.61
8013.00,1.61
8012.00,1.61
8011.00,1.62
8010.00,1.62
8009.00,1.62
8008.00,1.62
8007.00,1.62
8006.00,1.62
8005.00,1.62
8004.00,1.62
8003.00,1.62
8002.00,1.62
8001.00,1.62
8000.00,1.62
7999.00,1.62
7998.00,1.62
7997.00,1.62
7996.00,1.62
7995.00,1.62
7994.00,1.61
7993.00,1.61
7992.00,1.61
7991.00,1.61
7990.00,1.61
7989.00,1.61
7988.00,1.61
7987.00,1.61
7986.00,1.61
7985.00,1.61
7984.00,1.61
7983.00,1.61
7982.00,1.61
7981.00,1.61
7980.00,1.62
7979.00,1.62
7978.00,1.62
7977.00,1.62
7976.00,1.62
7975.00,1.62
7974.00,1.62
7973.00,1.62
7972.00,1.62
7971.00,1.62
7970.00,1.62
7969.00,1.62
7968.00,1.62
7967.00,1.62
7966.00,1.62
7965.00,1.62
7964.00,1.62
7963.00,1.62
7962.00,1.62
7961.00,1.62
7960.00,1.62
7959.00,1.62
7958.00,1.62
7957.00,1.62
7956.00,1.62
7955.00,1.62
7954.00,1.62
7953.00,1.62
7952.00,1.62
7951.00,1.62
7950.00,1.62
7949.00,1.62
7948.00,1.62
7947.00,1.62
7946.00,1.62
7945.00,1.62
7944.00,1.62
7943.00,1.62
7942.00,1.62
7941.00,1.62
7940.00,1.63
7939.00,1.63
7938.00,1.63
7937.00,1.63
7936.00,1.63
7935.00,1.63
7934.00,1.63
7933.00,1.63
7932.00,1.63
7931.00,1.64
7930.00,1.64
7929.00,1.64
7928.00,1.64
7927.00,1.64
7926.00,1.64
7925.00,1.64
7924.00,1.64
7923.00,1.64
7922.00,1.65
7921.00,1.64
7920.00,1.64
7919.00,1.64
7918.00,1.64
7917.00,1.64
7916.00,1.64
7915.00,1.64
7914.00,1.64
7913.00,1.64
7912.00,1.64
7911.00,1.64
7910.00,1.64
7909.00,1.64
7908.00,1.64
7907.00,1.64
7906.00,1.64
7905.00,1.64
7904.00,1.64
7903.00,1.64
7902.00,1.64
7901.00,1.64
7900.00,1.64
7899.00,1.65
7898.00,1.65
7897.00,1.65
7896.00,1.65
7895.00,1.65
7894.00,1.65
7893.00,1.65
7892.00,1.65
7891.00,1.66
7890.00,1.66
7889.00,1.66
7888.00,1.66
7887.00,1.66
7886.00,1.66
7885.00,1.66
7884.00,1.66
7883.00,1.66
7882.00,1.66
7881.00,1.66
7880.00,1.65
7879.00,1.65
7878.00,1.65
7877.00,1.65
7876.00,1.65
7875.00,1.65
7874.00,1.65
7873.00,1.65
7872.00,1.65
7871.00,1.65
7870.00,1.65
7869.00,1.65
7868.00,1.65
7867.00,1.65
7866.00,1.65
7865.00,1.65
7864.00,1.65
7863.00,1.65
7862.00,1.65
7861.00,1.65
7860.00,1.65
7859.00,1.65
7858.00,1.65
7857.00,1.65
7856.00,1.65
7855.00,1.65
7854.00,1.65
7853.00,1.65
7852.00,1.66
7851.00,1.66
7850.00,1.66
7849.00,1.66
7848.00,1.66
7847.00,1.66
7846.00,1.66
7845.00,1.66
7844.00,1.66
7843.00,1.66
7842.00,1.66
7841.00,1.66
7840.00,1.67
7839.00,1.67
7838.00,1.67
7837.00,1.67
7836.00,1.67
7835.00,1.67
7834.00,1.67
7833.00,1.67
7832.00,1.67
7831.00,1.67
7830.00,1.67
7829.00,1.67
7828.00,1.67
7827.00,1.67
7826.00,1.67
7825.00,1.66
7824.00,1.66
7823.00,1.66
7822.00,1.66
7821.00,1.66
7820.00,1.66
7819.00,1.66
7818.00,1.66
7817.00,1.66
7816.00,1.66
7815.00,1.66
7814.00,1.66
7813.00,1.66
7812.00,1.66
7811.00,1.66
7810.00,1.66
7809.00,1.66
7808.00,1.66
7807.00,1.67
7806.00,1.67
7805.00,1.67
7804.00,1.67
7803.00,1.67
7802.00,1.67
7801.00,1.67
7800.00,1.67
7799.00,1.67
7798.00,1.67
7797.00,1.67
7796.00,1.67
7795.00,1.67
7794.00,1.67
7793.00,1.67
7792.00,1.67
7791.00,1.67
7790.00,1.67
7789.00,1.67
7788.00,1.67
7787.00,1.67
7786.00,1.66
7785.00,1.66
7784.00,1.66
7783.00,1.66
7782.00,1.66
7781.00,1.66
7780.00,1.66
7779.00,1.66
7778.00,1.66
7777.00,1.67
7776.00,1.67
7775.00,1.67
7774.00,1.67
7773.00,1.67
7772.00,1.67
7771.00,1.67
7770.00,1.67
7769.00,1.68
7768.00,1.68
7767.00,1.68
7766.00,1.68
7765.00,1.68
7764.00,1.68
7763.00,1.68
7762.00,1.68
7761.00,1.68
7760.00,1.68
7759.00,1.67
7758.00,1.67
7757.00,1.67
7756.00,1.67
7755.00,1.67
7754.00,1.67
7753.00,1.67
7752.00,1.67
7751.00,1.67
7750.00,1.67
7749.00,1.67
7748.00,1.67
7747.00,1.67
7746.00,1.67
7745.00,1.67
7744.00,1.67
7743.00,1.67
7742.00,1.67
7741.00,1.67
7740.00,1.68
7739.00,1.68
7738.00,1.68
7737.00,1.68
7736.00,1.68
7735.00,1.68
7734.00,1.68
7733.00,1.68
7732.00,1.68
7731.00,1.68
7730.00,1.68
7729.00,1.68
7728.00,1.68
7727.00,1.68
7726.00,1.68
7725.00,1.68
7724.00,1.68
7723.00,1.68
7722.00,1.68
7721.00,1.68
7720.00,1.68
7719.00,1.68
7718.00,1.68
7717.00,1.68
7716.00,1.68
7715.00,1.68
7714.00,1.68
7713.00,1.68
7712.00,1.68
7711.00,1.68
7710.00,1.68
7709.00,1.68
7708.00,1.68
7707.00,1.68
7706.00,1.68
7705.00,1.68
7704.00,1.68
7703.00,1.68
7702.00,1.68
7701.00,1.68
7700.00,1.68
7699.00,1.68
7698.00,1.68
7697.00,1.68
7696.00,1.68
7695.00,1.68
7694.00,1.68
7693.00,1.68
7692.00,1.68
7691.00,1.68
7690.00,1.68
7689.00,1.68
7688.00,1.68
7687.00,1.68
7686.00,1.68
7685.00,1.68
7684.00,1.68
7683.00,1.68
7682.00,1.68
7681.00,1.68
7680.00,1.68
7679.00,1.68
7678.00,1.68
7677.00,1.68
7676.00,1.68
7675.00,1.68
7674.00,1.68
7673.00,1.68
7672.00,1.68
7671.00,1.68
7670.00,1.68
7669.00,1.68
7668.00,1.68
7667.00,1.68
7666.00,1.68
7665.00,1.68
7664.00,1.68
7663.00,1.68
7662.00,1.68
7661.00,1.68
7660.00,1.68
7659.00,1.68
7658.00,1.68
7657.00,1.68
7656.00,1.68
7655.00,1.68
7654.00,1.68
7653.00,1.68
7652.00,1.68
7651.00,1.68
7650.00,1.68
7649.00,1.68
7648.00,1.68
7647.00,1.68
7646.00,1.68
7645.00,1.68
7644.00,1.68
7643.00,1.68
7642.00,1.68
7641.00,1.68
7640.00,1.68
7639.00,1.68
7638.00,1.68
7637.00,1.68
7636.00,1.68
7635.00,1.68
7634.00,1.68
7633.00,1.68
7632.00,1.68
7631.00,1.68
7630.00,1.68
7629.00,1.68
7628.00,1.68
7627.00,1.68
7626.00,1.68
7625.00,1.68
7624.00,1.68
7623.00,1.68
7622.00,1.68
7621.00,1.68
7620.00,1.68
7619.00,1.68
7618.00,1.68
7617.00,1.68
7616.00,1.68
7615.00,1.68
7614.00,1.68
7613.00,1.68
7612.00,1.68
7611.00,1.68
7610.00,1.68
7609.00,1.68
7608.00,1.68
7607.00,1.68
7606.00,1.68
7605.00,1.68
7604.00,1.68
7603.00,1.68
7602.00,1.68
7601.00,1.68
7600.00,1.68
7599.00,1.68
7598.00,1.68
7597.00,1.68
7596.00,1.68
7595.00,1.68
7594.00,1.68
7593.00,1.68
7592.00,1.67
7591.00,1.67
7590.00,1.67
7589.00,1.67
7588.00,1.67
7587.00,1.67
7586.00,1.67
7585.00,1.67
7584.00,1.67
7583.00,1.67
7582.00,1.67
7581.00,1.67
7580.00,1.67
7579.00,1.67
7578.00,1.67
7577.00,1.67
7576.00,1.67
7575.00,1.67
7574.00,1.67
7573.00,1.67
7572.00,1.67
7571.00,1.67
7570.00,1.66
7569.00,1.66
7568.00,1.66
7567.00,1.66
7566.00,1.66
7565.00,1.66
7564.00,1.66
7563.00,1.66
7562.00,1.66
7561.00,1.66
7560.00,1.66
7559.00,1.66
7558.00,1.66
7557.00,1.66
7556.00,1.66
7555.00,1.66
7554.00,1.66
7553.00,1.66
7552.00,1.66
7551.00,1.65
7550.00,1.65
7549.00,1.65
7548.00,1.65
7547.00,1.65
7546.00,1.65
7545.00,1.65
7544.00,1.65
7543.00,1.65
7542.00,1.65
7541.00,1.65
7540.00,1.65
7539.00,1.64
7538.00,1.64
7537.00,1.64
7536.00,1.64
7535.00,1.64
7534.00,1.64
7533.00,1.64
7532.00,1.64
7531.00,1.64
7530.00,1.64
7529.00,1.64
7528.00,1.64
7527.00,1.64
7526.00,1.64
7525.00,1.64
7524.00,1.64
7523.00,1.63
7522.00,1.63
7521.00,1.63
7520.00,1.63
7519.00,1.63
7518.00,1.63
7517.00,1.63
7516.00,1.63
7515.00,1.63
7514.00,1.63
7513.00,1.63
7512.00,1.63
7511.00,1.63
7510.00,1.63
7509.00,1.63
7508.00,1.63
7507.00,1.63
7506.00,1.63
7505.00,1.63
7504.00,1.62
7503.00,1.62
7502.00,1.62
7501.00,1.62
7500.00,1.62
7499.00,1.62
7498.00,1.62
7497.00,1.62
7496.00,1.62
7495.00,1.62
7494.00,1.62
7493.00,1.62
7492.00,1.62
7491.00,1.62
7490.00,1.62
7489.00,1.62
7488.00,1.62
7487.00,1.62
7486.00,1.62
7485.00,1.62
7484.00,1.62
7483.00,1.62
7482.00,1.62
7481.00,1.62
7480.00,1.62
7479.00,1.62
7478.00,1.61
7477.00,1.61
7476.00,1.61
7475.00,1.61
7474.00,1.61
7473.00,1.60
7472.00,1.60
7471.00,1.60
7470.00,1.60
7469.00,1.60
7468.00,1.59
7467.00,1.59
7466.00,1.59
7465.00,1.59
7464.00,1.58
7463.00,1.58
7462.00,1.58
7461.00,1.58
7460.00,1.58
7459.00,1.57
7458.00,1.57
7457.00,1.57
7456.00,1.57
7455.00,1.57
7454.00,1.57
7453.00,1.57
7452.00,1.57
7451.00,1.57
7450.00,1.57
7449.00,1.57
7448.00,1.57
7447.00,1.57
7446.00,1.57
7445.00,1.57
7444.00,1.56
7443.00,1.56
7442.00,1.56
7441.00,1.56
7440.00,1.56
7439.00,1.56
7438.00,1.56
7437.00,1.56
7436.00,1.56
7435.00,1.56
7434.00,1.55
7433.00,1.55
7432.00,1.55
7431.00,1.55
7430.00,1.55
7429.00,1.55
7428.00,1.55
7427.00,1.55
7426.00,1.54
7425.00,1.54
7424.00,1.54
7423.00,1.54
7422.00,1.54
7421.00,1.54
7420.00,1.54
7419.00,1.53
7418.00,1.53
7417.00,1.53
7416.00,1.53
7415.00,1.53
7414.00,1.53
7413.00,1.53
7412.00,1.53
7411.00,1.52
7410.00,1.52
7409.00,1.52
7408.00,1.52
7407.00,1.52
7406.00,1.52
7405.00,1.52
7404.00,1.52
7403.00,1.51
7402.00,1.51
7401.00,1.51
7400.00,1.51
7399.00,1.51
7398.00,1.51
7397.00,1.50
7396.00,1.50
7395.00,1.50
7394.00,1.50
7393.00,1.50
7392.00,1.49
7391.00,1.49
7390.00,1.49
7389.00,1.49
7388.00,1.49
7387.00,1.48
7386.00,1.48
7385.00,1.48
7384.00,1.48
7383.00,1.48
7382.00,1.47
7381.00,1.47
7380.00,1.47
7379.00,1.47
7378.00,1.47
7377.00,1.47
7376.00,1.47
7375.00,1.46
7374.00,1.46
7373.00,1.46
7372.00,1.46
7371.00,1.46
7370.00,1.46
7369.00,1.46
7368.00,1.46
7367.00,1.46
7366.00,1.46
7365.00,1.46
7364.00,1.46
7363.00,1.46
7362.00,1.46
7361.00,1.46
7360.00,1.46
7359.00,1.46
7358.00,1.46
7357.00,1.46
7356.00,1.46
7355.00,1.46
7354.00,1.46
7353.00,1.46
7352.00,1.46
7351.00,1.46
7350.00,1.45
7349.00,1.45
7348.00,1.45
7347.00,1.45
7346.00,1.45
7345.00,1.45
7344.00,1.45
7343.00,1.45
7342.00,1.45
7341.00,1.45
7340.00,1.45
7339.00,1.45
7338.00,1.45
7337.00,1.45
7336.00,1.45
7335.00,1.45
7334.00,1.45
7333.00,1.45
7332.00,1.45
7331.00,1.45
7330.00,1.45
7329.00,1.45
7328.00,1.45
7327.00,1.45
7326.00,1.45
7325.00,1.44
7324.00,1.44
7323.00,1.44
7322.00,1.44
7321.00,1.44
7320.00,1.44
7319.00,1.43
7318.00,1.43
7317.00,1.43
7316.00,1.43
7315.00,1.43
7314.00,1.43
7313.00,1.42
7312.00,1.42
7311.00,1.42
7310.00,1.42
7309.00,1.42
7308.00,1.42
7307.00,1.42
7306.00,1.42
7305.00,1.41
7304.00,1.41
7303.00,1.41
7302.00,1.41
7301.00,1.41
7300.00,1.41
7299.00,1.41
7298.00,1.41
7297.00,1.41
7296.00,1.41
7295.00,1.40
7294.00,1.40
7293.00,1.40
7292.00,1.40
7291.00,1.40
7290.00,1.40
7289.00,1.40
7288.00,1.40
7287.00,1.39
7286.00,1.39
7285.00,1.39
7284.00,1.39
7283.00,1.39
7282.00,1.39
7281.00,1.39
7280.00,1.39
7279.00,1.39
7278.00,1.38
7277.00,1.38
7276.00,1.38
7275.00,1.38
7274.00,1.38
7273.00,1.38
7272.00,1.38
7271.00,1.38
7270.00,1.37
7269.00,1.37
7268.00,1.37
7267.00,1.37
7266.00,1.37
7265.00,1.36
7264.00,1.36
7263.00,1.36
7262.00,1.36
7261.00,1.35
7260.00,1.35
7259.00,1.35
7258.00,1.35
7257.00,1.34
7256.00,1.34
7255.00,1.34
7254.00,1.33
7253.00,1.33
7252.00,1.33
7251.00,1.33
7250.00,1.32
7249.00,1.32
7248.00,1.31
7247.00,1.31
7246.00,1.31
7245.00,1.30
7244.00,1.30
7243.00,1.29
7242.00,1.29
7241.00,1.29
7240.00,1.28
7239.00,1.28
7238.00,1.27
7237.00,1.27
7236.00,1.26
7235.00,1.26
7234.00,1.25
7233.00,1.25
7232.00,1.24
7231.00,1.24
7230.00,1.23
7229.00,1.23
7228.00,1.22
7227.00,1.22
7226.00,1.21
7225.00,1.21
7224.00,1.20
7223.00,1.20
7222.00,1.19
7221.00,1.19
7220.00,1.19
7219.00,1.18
7218.00,1.18
7217.00,1.18
7216.00,1.17
7215.00,1.17
7214.00,1.17
7213.00,1.16
7212.00,1.16
7211.00,1.16
7210.00,1.15
7209.00,1.15
7208.00,1.14
7207.00,1.14
7206.00,1.13
7205.00,1.13
7204.00,1.12
7203.00,1.12
7202.00,1.11
7201.00,1.11
7200.00,1.10
7199.00,1.10
7198.00,1.09
7197.00,1.09
7196.00,1.08
7195.00,1.07
7194.00,1.07
7193.00,1.06
7192.00,1.06
7191.00,1.05
7190.00,1.05
7189.00,1.04
7188.00,1.04
7187.00,1.03
7186.00,1.03
7185.00,1.02
7184.00,1.02
7183.00,1.01
7182.00,1.01
7181.00,1.01
7180.00,1.00
7179.00,1.00
7178.00,0.99
7177.00,0.99
7176.00,0.99
7175.00,0.98
7174.00,0.98
7173.00,0.98
7172.00,0.97
7171.00,0.97
7170.00,0.97
7169.00,0.96
7168.00,0.96
7167.00,0.95
7166.00,0.95
7165.00,0.95
7164.00,0.94
7163.00,0.94
7162.00,0.93
7161.00,0.93
7160.00,0.93
7159.00,0.92
7158.00,0.92
7157.00,0.92
7156.00,0.92
7155.00,0.91
7154.00,0.91
7153.00,0.91
7152.00,0.90
7151.00,0.90
7150.00,0.90
7149.00,0.89
7148.00,0.89
7147.00,0.89
7146.00,0.88
7145.00,0.88
7144.00,0.88
7143.00,0.88
7142.00,0.87
7141.00,0.87
7140.00,0.87
7139.00,0.86
7138.00,0.86
7137.00,0.86
7136.00,0.86
7135.00,0.86
7134.00,0.85
7133.00,0.85
7132.00,0.85
7131.00,0.85
7130.00,0.85
7129.00,0.85
7128.00,0.85
7127.00,0.84
7126.00,0.84
7125.00,0.84
7124.00,0.84
7123.00,0.83
7122.00,0.83
7121.00,0.83
7120.00,0.83
7119.00,0.82
7118.00,0.82
7117.00,0.82
7116.00,0.82
7115.00,0.81
7114.00,0.81
7113.00,0.81
7112.00,0.81
7111.00,0.80
7110.00,0.80
7109.00,0.80
7108.00,0.80
7107.00,0.79
7106.00,0.79
7105.00,0.79
7104.00,0.79
7103.00,0.79
7102.00,0.78
7101.00,0.78
7100.00,0.78
7099.00,0.78
7098.00,0.78
7097.00,0.77
7096.00,0.77
7095.00,0.77
7094.00,0.77
7093.00,0.77
7092.00,0.76
7091.00,0.76
7090.00,0.76
7089.00,0.76
7088.00,0.76
7087.00,0.76
7086.00,0.75
7085.00,0.75
7084.00,0.75
7083.00,0.75
7082.00,0.75
7081.00,0.75
7080.00,0.75
7079.00,0.75
7078.00,0.75
7077.00,0.75
7076.00,0.74
7075.00,0.74
7074.00,0.74
7073.00,0.74
7072.00,0.74
7071.00,0.74
7070.00,0.74
7069.00,0.74
7068.00,0.74
7067.00,0.73
7066.00,0.73
7065.00,0.73
7064.00,0.73
7063.00,0.73
7062.00,0.73
7061.00,0.73
7060.00,0.73
7059.00,0.72
7058.00,0.72
7057.00,0.72
7056.00,0.72
7055.00,0.72
7054.00,0.72
7053.00,0.72
7052.00,0.72
7051.00,0.72
7050.00,0.72
7049.00,0.72
7048.00,0.71
7047.00,0.71
7046.00,0.71
7045.00,0.71
7044.00,0.71
7043.00,0.71
7042.00,0.71
7041.00,0.71
7040.00,0.71
7039.00,0.71
7038.00,0.71
7037.00,0.70
7036.00,0.70
7035.00,0.70
7034.00,0.70
7033.00,0.70
7032.00,0.70
7031.00,0.70
7030.00,0.70
7029.00,0.70
7028.00,0.70
7027.00,0.70
7026.00,0.70
7025.00,0.70
7024.00,0.70
7023.00,0.70
7022.00,0.70
7021.00,0.70
7020.00,0.70
7019.00,0.70
7018.00,0.70
7017.00,0.70
7016.00,0.70
7015.00,0.70
7014.00,0.70
7013.00,0.70
7012.00,0.70
7011.00,0.70
7010.00,0.70
7009.00,0.70
7008.00,0.70
7007.00,0.70
7006.00,0.70
7005.00,0.70
7004.00,0.70
7003.00,0.70
7002.00,0.69
7001.00,0.69
7000.00,0.69
6999.00,0.69
6998.00,0.69
6997.00,0.69
6996.00,0.69
6995.00,0.69
6994.00,0.69
6993.00,0.69
6992.00,0.69
6991.00,0.69
6990.00,0.69
6989.00,0.69
6988.00,0.69
6987.00,0.69
6986.00,0.69
6985.00,0.69
6984.00,0.69
6983.00,0.69
6982.00,0.69
6981.00,0.69
6980.00,0.69
6979.00,0.69
6978.00,0.69
6977.00,0.69
6976.00,0.69
6975.00,0.69
6974.00,0.69
6973.00,0.69
6972.00,0.69
6971.00,0.69
6970.00,0.69
6969.00,0.69
6968.00,0.69
6967.00,0.69
6966.00,0.69
6965.00,0.70
6964.00,0.70
6963.00,0.70
6962.00,0.70
6961.00,0.70
6960.00,0.70
6959.00,0.70
6958.00,0.70
6957.00,0.70
6956.00,0.70
6955.00,0.70
6954.00,0.70
6953.00,0.70
6952.00,0.70
6951.00,0.70
6950.00,0.70
6949.00,0.70
6948.00,0.70
6947.00,0.70
6946.00,0.69
6945.00,0.69
6944.00,0.69
6943.00,0.69
6942.00,0.69
6941.00,0.69
6940.00,0.69
6939.00,0.69
6938.00,0.69
6937.00,0.69
6936.00,0.69
6935.00,0.69
6934.00,0.69
6933.00,0.69
6932.00,0.69
6931.00,0.69
6930.00,0.69
6929.00,0.69
6928.00,0.69
6927.00,0.69
6926.00,0.69
6925.00,0.69
6924.00,0.69
6923.00,0.69
6922.00,0.69
6921.00,0.69
6920.00,0.69
6919.00,0.69
6918.00,0.69
6917.00,0.69
6916.00,0.69
6915.00,0.69
6914.00,0.69
6913.00,0.69
6912.00,0.69
6911.00,0.69
6910.00,0.69
6909.00,0.69
6908.00,0.69
6907.00,0.69
6906.00,0.69
6905.00,0.69
6904.00,0.69
6903.00,0.69
6902.00,0.69
6901.00,0.69
6900.00,0.69
6899.00,0.68
6898.00,0.68
6897.00,0.68
6896.00,0.68
6895.00,0.68
6894.00,0.68
6893.00,0.68
6892.00,0.68
6891.00,0.68
6890.00,0.68
6889.00,0.68
6888.00,0.68
6887.00,0.68
6886.00,0.68
6885.00,0.69
6884.00,0.69
6883.00,0.69
6882.00,0.69
6881.00,0.69
6880.00,0.69
6879.00,0.69
6878.00,0.69
6877.00,0.69
6876.00,0.69
6875.00,0.69
6874.00,0.69
6873.00,0.69
6872.00,0.69
6871.00,0.69
6870.00,0.69
6869.00,0.69
6868.00,0.69
6867.00,0.69
6866.00,0.69
6865.00,0.69
6864.00,0.69
6863.00,0.69
6862.00,0.69
6861.00,0.69
6860.00,0.69
6859.00,0.70
6858.00,0.70
6857.00,0.70
6856.00,0.70
6855.00,0.69
6854.00,0.69
6853.00,0.69
6852.00,0.69
6851.00,0.69
6850.00,0.69
6849.00,0.69
6848.00,0.69
6847.00,0.69
6846.00,0.69
6845.00,0.70
6844.00,0.70
6843.00,0.70
6842.00,0.70
6841.00,0.70
6840.00,0.70
6839.00,0.70
6838.00,0.70
6837.00,0.70
6836.00,0.70
6835.00,0.70
6834.00,0.70
6833.00,0.70
6832.00,0.70
6831.00,0.70
6830.00,0.70
6829.00,0.70
6828.00,0.70
6827.00,0.70
6826.00,0.69
6825.00,0.69
6824.00,0.69
6823.00,0.69
6822.00,0.69
6821.00,0.69
6820.00,0.69
6819.00,0.69
6818.00,0.69
6817.00,0.69
6816.00,0.69
6815.00,0.69
6814.00,0.69
6813.00,0.69
6812.00,0.69
6811.00,0.69
6810.00,0.69
6809.00,0.69
6808.00,0.70
6807.00,0.70
6806.00,0.70
6805.00,0.70
6804.00,0.70
6803.00,0.70
6802.00,0.70
6801.00,0.70
6800.00,0.70
6799.00,0.70
6798.00,0.70
6797.00,0.70
6796.00,0.70
6795.00,0.70
6794.00,0.70
6793.00,0.70
6792.00,0.70
6791.00,0.70
6790.00,0.70
6789.00,0.70
6788.00,0.70
6787.00,0.70
6786.00,0.70
6785.00,0.70
6784.00,0.70
6783.00,0.70
6782.00,0.70
6781.00,0.70
6780.00,0.70
6779.00,0.70
6778.00,0.71
6777.00,0.71
6776.00,0.71
6775.00,0.71
6774.00,0.71
6773.00,0.71
6772.00,0.71
6771.00,0.71
6770.00,0.71
6769.00,0.71
6768.00,0.71
6767.00,0.72
6766.00,0.72
6765.00,0.72
6764.00,0.72
6763.00,0.72
6762.00,0.72
6761.00,0.72
6760.00,0.72
6759.00,0.72
6758.00,0.72
6757.00,0.72
6756.00,0.72
6755.00,0.72
6754.00,0.72
6753.00,0.72
6752.00,0.73
6751.00,0.73
6750.00,0.73
6749.00,0.73
6748.00,0.73
6747.00,0.73
6746.00,0.73
6745.00,0.73
6744.00,0.73
6743.00,0.73
6742.00,0.73
6741.00,0.73
6740.00,0.73
6739.00,0.73
6738.00,0.73
6737.00,0.73
6736.00,0.73
6735.00,0.73
6734.00,0.73
6733.00,0.73
6732.00,0.73
6731.00,0.73
6730.00,0.73
6729.00,0.73
6728.00,0.74
6727.00,0.74
6726.00,0.74
6725.00,0.74
6724.00,0.74
6723.00,0.74
6722.00,0.74
6721.00,0.74
6720.00,0.74
6719.00,0.75
6718.00,0.75
6717.00,0.75
6716.00,0.75
6715.00,0.75
6714.00,0.75
6713.00,0.75
6712.00,0.75
6711.00,0.75
6710.00,0.75
6709.00,0.75
6708.00,0.76
6707.00,0.76
6706.00,0.76
6705.00,0.76
6704.00,0.76
6703.00,0.76
6702.00,0.76
6701.00,0.76
6700.00,0.76
6699.00,0.76
6698.00,0.76
6697.00,0.76
6696.00,0.76
6695.00,0.76
6694.00,0.76
6693.00,0.77
6692.00,0.77
6691.00,0.77
6690.00,0.77
6689.00,0.77
6688.00,0.77
6687.00,0.77
6686.00,0.77
6685.00,0.77
6684.00,0.77
6683.00,0.77
6682.00,0.77
6681.00,0.77
6680.00,0.78
6679.00,0.78
6678.00,0.78
6677.00,0.78
6676.00,0.78
6675.00,0.78
6674.00,0.78
6673.00,0.78
6672.00,0.78
6671.00,0.78
6670.00,0.78
6669.00,0.79
6668.00,0.79
6667.00,0.79
6666.00,0.79
6665.00,0.79
6664.00,0.79
6663.00,0.79
6662.00,0.79
6661.00,0.79
6660.00,0.79
6659.00,0.79
6658.00,0.79
6657.00,0.79
6656.00,0.79
6655.00,0.79
6654.00,0.79
6653.00,0.79
6652.00,0.79
6651.00,0.79
6650.00,0.80
6649.00,0.80
6648.00,0.80
6647.00,0.80
6646.00,0.80
6645.00,0.80
6644.00,0.80
6643.00,0.80
6642.00,0.80
6641.00,0.80
6640.00,0.80
6639.00,0.80
6638.00,0.80
6637.00,0.80
6636.00,0.80
6635.00,0.80
6634.00,0.81
6633.00,0.81
6632.00,0.81
6631.00,0.81
6630.00,0.81
6629.00,0.81
6628.00,0.81
6627.00,0.82
6626.00,0.82
6625.00,0.82
6624.00,0.82
6623.00,0.82
6622.00,0.83
6621.00,0.83
6620.00,0.83
6619.00,0.83
6618.00,0.83
6617.00,0.83
6616.00,0.83
6615.00,0.84
6614.00,0.84
6613.00,0.84
6612.00,0.84
6611.00,0.84
6610.00,0.84
6609.00,0.84
6608.00,0.84
6607.00,0.84
6606.00,0.84
6605.00,0.84
6604.00,0.84
6603.00,0.84
6602.00,0.84
6601.00,0.84
6600.00,0.84
6599.00,0.84
6598.00,0.84
6597.00,0.84
6596.00,0.85
6595.00,0.85
6594.00,0.85
6593.00,0.85
6592.00,0.85
6591.00,0.85
6590.00,0.85
6589.00,0.85
6588.00,0.85
6587.00,0.85
6586.00,0.85
6585.00,0.85
6584.00,0.85
6583.00,0.85
6582.00,0.85
6581.00,0.86
6580.00,0.86
6579.00,0.86
6578.00,0.86
6577.00,0.86
6576.00,0.86
6575.00,0.86
6574.00,0.87
6573.00,0.87
6572.00,0.87
6571.00,0.87
6570.00,0.87
6569.00,0.87
6568.00,0.88
6567.00,0.88
6566.00,0.88
6565.00,0.88
6564.00,0.88
6563.00,0.88
6562.00,0.88
6561.00,0.88
6560.00,0.89
6559.00,0.89
6558.00,0.89
6557.00,0.89
6556.00,0.89
6555.00,0.89
6554.00,0.89
6553.00,0.89
6552.00,0.89
6551.00,0.89
6550.00,0.89
6549.00,0.89
6548.00,0.89
6547.00,0.90
6546.00,0.90
6545.00,0.90
6544.00,0.90
6543.00,0.90
6542.00,0.90
6541.00,0.90
6540.00,0.90
6539.00,0.90
6538.00,0.90
6537.00,0.90
6536.00,0.90
6535.00,0.91
6534.00,0.91
6533.00,0.91
6532.00,0.91
6531.00,0.91
6530.00,0.91
6529.00,0.91
6528.00,0.91
6527.00,0.91
6526.00,0.91
6525.00,0.92
6524.00,0.92
6523.00,0.92
6522.00,0.92
6521.00,0.92
6520.00,0.92
6519.00,0.92
6518.00,0.92
6517.00,0.92
6516.00,0.92
6515.00,0.93
6514.00,0.93
6513.00,0.93
6512.00,0.93
6511.00,0.93
6510.00,0.93
6509.00,0.93
6508.00,0.93
6507.00,0.93
6506.00,0.93
6505.00,0.93
6504.00,0.93
6503.00,0.93
6502.00,0.93
6501.00,0.94
6500.00,0.94
6499.00,0.94
6498.00,0.94
6497.00,0.94
6496.00,0.94
6495.00,0.94
6494.00,0.94
6493.00,0.94
6492.00,0.94
6491.00,0.94
6490.00,0.94
6489.00,0.94
6488.00,0.95
6487.00,0.95
6486.00,0.95
6485.00,0.95
6484.00,0.95
6483.00,0.95
6482.00,0.95
6481.00,0.96
6480.00,0.96
6479.00,0.96
6478.00,0.96
6477.00,0.96
6476.00,0.96
6475.00,0.96
6474.00,0.96
6473.00,0.97
6472.00,0.97
6471.00,0.97
6470.00,0.97
6469.00,0.97
6468.00,0.97
6467.00,0.97
6466.00,0.97
6465.00,0.97
6464.00,0.97
6463.00,0.97
6462.00,0.97
6461.00,0.97
6460.00,0.97
6459.00,0.97
6458.00,0.97
6457.00,0.97
6456.00,0.98
6455.00,0.98
6454.00,0.98
6453.00,0.98
6452.00,0.98
6451.00,0.98
6450.00,0.98
6449.00,0.98
6448.00,0.98
6447.00,0.98
6446.00,0.99
6445.00,0.99
6444.00,0.99
6443.00,0.99
6442.00,0.99
6441.00,0.99
6440.00,0.99
6439.00,0.99
6438.00,1.00
6437.00,1.00
6436.00,1.00
6435.00,1.00
6434.00,1.00
6433.00,1.00
6432.00,1.00
6431.00,1.00
6430.00,1.00
6429.00,1.00
6428.00,1.00
6427.00,1.00
6426.00,1.00
6425.00,1.00
6424.00,1.00
6423.00,1.01
6422.00,1.01
6421.00,1.01
6420.00,1.01
6419.00,1.01
6418.00,1.01
6417.00,1.01
6416.00,1.01
6415.00,1.01
6414.00,1.01
6413.00,1.01
6412.00,1.01
6411.00,1.02
6410.00,1.02
6409.00,1.02
6408.00,1.02
6407.00,1.02
6406.00,1.02
6405.00,1.02
6404.00,1.02
6403.00,1.03
6402.00,1.03
6401.00,1.03
6400.00,1.03
6399.00,1.03
6398.00,1.03
6397.00,1.03
6396.00,1.03
6395.00,1.03
6394.00,1.03
6393.00,1.03
6392.00,1.03
6391.00,1.04
6390.00,1.04
6389.00,1.04
6388.00,1.04
6387.00,1.04
6386.00,1.04
6385.00,1.04
6384.00,1.04
6383.00,1.04
6382.00,1.05
6381.00,1.05
6380.00,1.05
6379.00,1.05
6378.00,1.05
6377.00,1.05
6376.00,1.05
6375.00,1.05
6374.00,1.05
6373.00,1.06
6372.00,1.06
6371.00,1.06
6370.00,1.06
6369.00,1.06
6368.00,1.06
6367.00,1.06
6366.00,1.06
6365.00,1.06
6364.00,1.07
6363.00,1.07
6362.00,1.07
6361.00,1.07
6360.00,1.07
6359.00,1.07
6358.00,1.07
6357.00,1.07
6356.00,1.08
6355.00,1.08
6354.00,1.08
6353.00,1.08
6352.00,1.08
6351.00,1.08
6350.00,1.08
6349.00,1.08
6348.00,1.08
6347.00,1.08
6346.00,1.09
6345.00,1.09
6344.00,1.09
6343.00,1.09
6342.00,1.09
6341.00,1.09
6340.00,1.09
6339.00,1.09
6338.00,1.09
6337.00,1.09
6336.00,1.10
6335.00,1.10
6334.00,1.10
6333.00,1.10
6332.00,1.10
6331.00,1.10
6330.00,1.10
6329.00,1.10
6328.00,1.10
6327.00,1.11
6326.00,1.11
6325.00,1.11
6324.00,1.11
6323.00,1.11
6322.00,1.11
6321.00,1.11
6320.00,1.12
6319.00,1.12
6318.00,1.12
6317.00,1.12
6316.00,1.12
6315.00,1.12
6314.00,1.12
6313.00,1.13
6312.00,1.13
6311.00,1.13
6310.00,1.13
6309.00,1.13
6308.00,1.13
6307.00,1.13
6306.00,1.13
6305.00,1.14
6304.00,1.14
6303.00,1.14
6302.00,1.14
6301.00,1.14
6300.00,1.14
6299.00,1.14
6298.00,1.14
6297.00,1.14
6296.00,1.15
6295.00,1.15
6294.00,1.15
6293.00,1.15
6292.00,1.15
6291.00,1.15
6290.00,1.15
6289.00,1.15
6288.00,1.16
6287.00,1.16
6286.00,1.16
6285.00,1.16
6284.00,1.16
6283.00,1.16
6282.00,1.16
6281.00,1.17
6280.00,1.17
6279.00,1.17
6278.00,1.17
6277.00,1.17
6276.00,1.17
6275.00,1.17
6274.00,1.18
6273.00,1.18
6272.00,1.18
6271.00,1.18
6270.00,1.18
6269.00,1.18
6268.00,1.18
6267.00,1.18
6266.00,1.19
6265.00,1.19
6264.00,1.19
6263.00,1.19
6262.00,1.19
6261.00,1.19
6260.00,1.20
6259.00,1.20
6258.00,1.20
6257.00,1.20
6256.00,1.20
6255.00,1.21
6254.00,1.21
6253.00,1.21
6252.00,1.21
6251.00,1.21
6250.00,1.22
6249.00,1.22
6248.00,1.22
6247.00,1.22
6246.00,1.22
6245.00,1.22
6244.00,1.23
6243.00,1.23
6242.00,1.23
6241.00,1.23
6240.00,1.23
6239.00,1.23
6238.00,1.23
6237.00,1.23
6236.00,1.24
6235.00,1.24
6234.00,1.24
6233.00,1.24
6232.00,1.24
6231.00,1.24
6230.00,1.24
6229.00,1.24
6228.00,1.25
6227.00,1.25
6226.00,1.25
6225.00,1.25
6224.00,1.25
6223.00,1.25
6222.00,1.26
6221.00,1.26
6220.00,1.26
6219.00,1.26
6218.00,1.27
6217.00,1.27
6216.00,1.27
6215.00,1.27
6214.00,1.27
6213.00,1.28
6212.00,1.28
6211.00,1.28
6210.00,1.28
6209.00,1.28
6208.00,1.29
6207.00,1.29
6206.00,1.29
6205.00,1.29
6204.00,1.29
6203.00,1.29
6202.00,1.30
6201.00,1.30
6200.00,1.30
6199.00,1.30
6198.00,1.30
6197.00,1.31
6196.00,1.31
6195.00,1.31
6194.00,1.31
6193.00,1.31
6192.00,1.31
6191.00,1.31
6190.00,1.32
6189.00,1.32
6188.00,1.32
6187.00,1.32
6186.00,1.32
6185.00,1.32
6184.00,1.32
6183.00,1.33
6182.00,1.33
6181.00,1.33
6180.00,1.33
6179.00,1.33
6178.00,1.33
6177.00,1.33
6176.00,1.34
6175.00,1.34
6174.00,1.34
6173.00,1.34
6172.00,1.34
6171.00,1.34
6170.00,1.35
6169.00,1.35
6168.00,1.35
6167.00,1.35
6166.00,1.35
6165.00,1.35
6164.00,1.36
6163.00,1.36
6162.00,1.36
6161.00,1.36
6160.00,1.36
6159.00,1.36
6158.00,1.37
6157.00,1.37
6156.00,1.37
6155.00,1.37
6154.00,1.37
6153.00,1.37
6152.00,1.38
6151.00,1.38
6150.00,1.38
6149.00,1.38
6148.00,1.38
6147.00,1.39
6146.00,1.39
6145.00,1.39
6144.00,1.39
6143.00,1.39
6142.00,1.40
6141.00,1.40
6140.00,1.40
6139.00,1.40
6138.00,1.41
6137.00,1.41
6136.00,1.41
6135.00,1.41
6134.00,1.41
6133.00,1.42
6132.00,1.42
6131.00,1.42
6130.00,1.42
6129.00,1.43
6128.00,1.43
6127.00,1.43
6126.00,1.43
6125.00,1.43
6124.00,1.44
6123.00,1.44
6122.00,1.44
6121.00,1.44
6120.00,1.44
6119.00,1.45
6118.00,1.45
6117.00,1.45
6116.00,1.45
6115.00,1.45
6114.00,1.45
6113.00,1.45
6112.00,1.46
6111.00,1.46
6110.00,1.46
6109.00,1.46
6108.00,1.46
6107.00,1.46
6106.00,1.46
6105.00,1.47
6104.00,1.47
6103.00,1.47
6102.00,1.47
6101.00,1.47
6100.00,1.47
6099.00,1.48
6098.00,1.48
6097.00,1.48
6096.00,1.48
6095.00,1.48
6094.00,1.48
6093.00,1.49
6092.00,1.49
6091.00,1.49
6090.00,1.49
6089.00,1.49
6088.00,1.50
6087.00,1.50
6086.00,1.50
6085.00,1.50
6084.00,1.51
6083.00,1.51
6082.00,1.51
6081.00,1.51
6080.00,1.51
6079.00,1.52
6078.00,1.52
6077.00,1.52
6076.00,1.52
6075.00,1.52
6074.00,1.52
6073.00,1.52
6072.00,1.53
6071.00,1.53
6070.00,1.53
6069.00,1.53
6068.00,1.53
6067.00,1.53
6066.00,1.53
6065.00,1.53
6064.00,1.53
6063.00,1.53
6062.00,1.54
6061.00,1.54
6060.00,1.54
6059.00,1.54
6058.00,1.54
6057.00,1.54
6056.00,1.54
6055.00,1.54
6054.00,1.55
6053.00,1.55
6052.00,1.55
6051.00,1.55
6050.00,1.55
6049.00,1.55
6048.00,1.55
6047.00,1.56
6046.00,1.56
6045.00,1.56
6044.00,1.56
6043.00,1.56
6042.00,1.56
6041.00,1.56
6040.00,1.56
6039.00,1.56
6038.00,1.56
6037.00,1.56
6036.00,1.56
6035.00,1.57
6034.00,1.57
6033.00,1.57
6032.00,1.57
6031.00,1.57
6030.00,1.57
6029.00,1.57
6028.00,1.57
6027.00,1.57
6026.00,1.57
6025.00,1.57
6024.00,1.58
6023.00,1.58
6022.00,1.58
6021.00,1.58
6020.00,1.58
6019.00,1.58
6018.00,1.58
6017.00,1.58
6016.00,1.58
6015.00,1.58
6014.00,1.58
6013.00,1.58
6012.00,1.58
6011.00,1.58
6010.00,1.58
6009.00,1.58
6008.00,1.58
6007.00,1.58
6006.00,1.58
6005.00,1.58
6004.00,1.58
6003.00,1.57
6002.00,1.57
6001.00,1.57
6000.00,1.57
5999.00,1.57
5998.00,1.57
5997.00,1.57
5996.00,1.57
5995.00,1.57
5994.00,1.57
5993.00,1.56
5992.00,1.56
5991.00,1.56
5990.00,1.56
5989.00,1.56
5988.00,1.55
5987.00,1.55
5986.00,1.55
5985.00,1.55
5984.00,1.54
5983.00,1.54
5982.00,1.54
5981.00,1.53
5980.00,1.53
5979.00,1.53
5978.00,1.52
5977.00,1.52
5976.00,1.51
5975.00,1.51
5974.00,1.50
5973.00,1.50
5972.00,1.49
5971.00,1.49
5970.00,1.48
5969.00,1.47
5968.00,1.47
5967.00,1.46
5966.00,1.45
5965.00,1.45
5964.00,1.44
5963.00,1.43
5962.00,1.42
5961.00,1.42
5960.00,1.41
5959.00,1.40
5958.00,1.39
5957.00,1.39
5956.00,1.38
5955.00,1.37
5954.00,1.37
5953.00,1.36
5952.00,1.36
5951.00,1.35
5950.00,1.35
5949.00,1.34
5948.00,1.34
5947.00,1.33
5946.00,1.33
5945.00,1.33
5944.00,1.33
5943.00,1.32
5942.00,1.32
5941.00,1.32
5940.00,1.32
5939.00,1.32
5938.00,1.32
5937.00,1.32
5936.00,1.32
5935.00,1.32
5934.00,1.31
5933.00,1.31
5932.00,1.31
5931.00,1.31
5930.00,1.31
5929.00,1.31
5928.00,1.31
5927.00,1.31
5926.00,1.30
5925.00,1.30
5924.00,1.30
5923.00,1.30
5922.00,1.30
5921.00,1.29
5920.00,1.29
5919.00,1.29
5918.00,1.29
5917.00,1.28
5916.00,1.28
5915.00,1.28
5914.00,1.27
5913.00,1.27
5912.00,1.27
5911.00,1.27
5910.00,1.27
5909.00,1.26
5908.00,1.26
5907.00,1.26
5906.00,1.26
5905.00,1.26
5904.00,1.26
5903.00,1.26
5902.00,1.26
5901.00,1.26
5900.00,1.26
5899.00,1.26
5898.00,1.26
5897.00,1.26
5896.00,1.26
5895.00,1.27
5894.00,1.27
5893.00,1.27
5892.00,1.27
5891.00,1.28
5890.00,1.28
5889.00,1.28
5888.00,1.29
5887.00,1.29
5886.00,1.29
5885.00,1.30
5884.00,1.30
5883.00,1.31
5882.00,1.31
5881.00,1.31
5880.00,1.32
5879.00,1.32
5878.00,1.32
5877.00,1.33
5876.00,1.33
5875.00,1.33
5874.00,1.34
5873.00,1.34
5872.00,1.34
5871.00,1.34
5870.00,1.35
5869.00,1.35
5868.00,1.35
5867.00,1.35
5866.00,1.36
5865.00,1.36
5864.00,1.36
5863.00,1.36
5862.00,1.37
5861.00,1.37
5860.00,1.37
5859.00,1.37
5858.00,1.37
5857.00,1.37
5856.00,1.38
5855.00,1.38
5854.00,1.38
5853.00,1.38
5852.00,1.38
5851.00,1.38
5850.00,1.38
5849.00,1.38
5848.00,1.38
5847.00,1.38
5846.00,1.39
5845.00,1.39
5844.00,1.39
5843.00,1.39
5842.00,1.39
5841.00,1.39
5840.00,1.39
5839.00,1.39
5838.00,1.39
5837.00,1.38
5836.00,1.38
5835.00,1.38
5834.00,1.38
5833.00,1.38
5832.00,1.38
5831.00,1.38
5830.00,1.38
5829.00,1.38
5828.00,1.38
5827.00,1.38
5826.00,1.38
5825.00,1.38
5824.00,1.38
5823.00,1.38
5822.00,1.38
5821.00,1.38
5820.00,1.38
5819.00,1.38
5818.00,1.38
5817.00,1.38
5816.00,1.38
5815.00,1.38
5814.00,1.38
5813.00,1.38
5812.00,1.38
5811.00,1.38
5810.00,1.38
5809.00,1.38
5808.00,1.38
5807.00,1.38
5806.00,1.38
5805.00,1.38
5804.00,1.37
5803.00,1.37
5802.00,1.37
5801.00,1.37
5800.00,1.37
5799.00,1.36
5798.00,1.36
5797.00,1.36
5796.00,1.36
5795.00,1.35
5794.00,1.35
5793.00,1.35
5792.00,1.35
5791.00,1.34
5790.00,1.34
5789.00,1.34
5788.00,1.34
5787.00,1.33
5786.00,1.33
5785.00,1.33
5784.00,1.33
5783.00,1.33
5782.00,1.33
5781.00,1.32
5780.00,1.32
5779.00,1.32
5778.00,1.32
5777.00,1.32
5776.00,1.32
5775.00,1.32
5774.00,1.32
5773.00,1.32
5772.00,1.33
5771.00,1.33
5770.00,1.33
5769.00,1.33
5768.00,1.33
5767.00,1.33
5766.00,1.33
5765.00,1.34
5764.00,1.34
5763.00,1.34
5762.00,1.34
5761.00,1.34
5760.00,1.35
5759.00,1.35
5758.00,1.35
5757.00,1.36
5756.00,1.36
5755.00,1.36
5754.00,1.36
5753.00,1.37
5752.00,1.37
5751.00,1.37
5750.00,1.38
5749.00,1.38
5748.00,1.38
5747.00,1.39
5746.00,1.39
5745.00,1.39
5744.00,1.40
5743.00,1.40
5742.00,1.40
5741.00,1.41
5740.00,1.41
5739.00,1.41
5738.00,1.41
5737.00,1.41
5736.00,1.42
5735.00,1.42
5734.00,1.42
5733.00,1.42
5732.00,1.42
5731.00,1.42
5730.00,1.42
5729.00,1.42
5728.00,1.42
5727.00,1.42
5726.00,1.42
5725.00,1.43
5724.00,1.43
5723.00,1.43
5722.00,1.43
5721.00,1.43
5720.00,1.43
5719.00,1.43
5718.00,1.43
5717.00,1.43
5716.00,1.43
5715.00,1.43
5714.00,1.43
5713.00,1.43
5712.00,1.43
5711.00,1.43
5710.00,1.43
5709.00,1.43
5708.00,1.43
5707.00,1.43
5706.00,1.42
5705.00,1.42
5704.00,1.42
5703.00,1.42
5702.00,1.42
5701.00,1.42
5700.00,1.42
5699.00,1.42
5698.00,1.41
5697.00,1.41
5696.00,1.41
5695.00,1.41
5694.00,1.41
5693.00,1.40
5692.00,1.40
5691.00,1.40
5690.00,1.40
5689.00,1.40
5688.00,1.39
5687.00,1.39
5686.00,1.39
5685.00,1.39
5684.00,1.39
5683.00,1.39
5682.00,1.38
5681.00,1.38
5680.00,1.38
5679.00,1.38
5678.00,1.38
5677.00,1.38
5676.00,1.38
5675.00,1.38
5674.00,1.38
5673.00,1.38
5672.00,1.38
5671.00,1.38
5670.00,1.38
5669.00,1.38
5668.00,1.38
5667.00,1.38
5666.00,1.38
5665.00,1.39
5664.00,1.39
5663.00,1.39
5662.00,1.39
5661.00,1.39
5660.00,1.39
5659.00,1.39
5658.00,1.40
5657.00,1.40
5656.00,1.40
5655.00,1.40
5654.00,1.40
5653.00,1.40
5652.00,1.41
5651.00,1.41
5650.00,1.41
5649.00,1.41
5648.00,1.41
5647.00,1.42
5646.00,1.42
5645.00,1.42
5644.00,1.42
5643.00,1.42
5642.00,1.43
5641.00,1.43
5640.00,1.43
5639.00,1.43
5638.00,1.43
5637.00,1.44
5636.00,1.44
5635.00,1.44
5634.00,1.44
5633.00,1.45
5632.00,1.45
5631.00,1.45
5630.00,1.45
5629.00,1.45
5628.00,1.45
5627.00,1.46
5626.00,1.46
5625.00,1.46
5624.00,1.46
5623.00,1.46
5622.00,1.46
5621.00,1.46
5620.00,1.46
5619.00,1.46
5618.00,1.46
5617.00,1.46
5616.00,1.47
5615.00,1.47
5614.00,1.47
5613.00,1.47
5612.00,1.47
5611.00,1.47
5610.00,1.48
5609.00,1.48
5608.00,1.48
5607.00,1.48
5606.00,1.48
5605.00,1.48
5604.00,1.49
5603.00,1.49
5602.00,1.49
5601.00,1.49
5600.00,1.49
5599.00,1.49
5598.00,1.50
5597.00,1.50
5596.00,1.50
5595.00,1.50
5594.00,1.50
5593.00,1.50
5592.00,1.50
5591.00,1.51
5590.00,1.51
5589.00,1.51
5588.00,1.51
5587.00,1.51
5586.00,1.51
5585.00,1.52
5584.00,1.52
5583.00,1.52
5582.00,1.52
5581.00,1.52
5580.00,1.53
5579.00,1.53
5578.00,1.53
5577.00,1.53
5576.00,1.54
5575.00,1.54
5574.00,1.54
5573.00,1.54
5572.00,1.55
5571.00,1.55
5570.00,1.55
5569.00,1.55
5568.00,1.55
5567.00,1.55
5566.00,1.56
5565.00,1.56
5564.00,1.56
5563.00,1.56
5562.00,1.56
5561.00,1.56
5560.00,1.56
5559.00,1.56
5558.00,1.56
5557.00,1.57
5556.00,1.57
5555.00,1.57
5554.00,1.57
5553.00,1.57
5552.00,1.57
5551.00,1.57
5550.00,1.57
5549.00,1.58
5548.00,1.58
5547.00,1.58
5546.00,1.58
5545.00,1.58
5544.00,1.58
5543.00,1.58
5542.00,1.58
5541.00,1.59
5540.00,1.59
5539.00,1.59
5538.00,1.59
5537.00,1.59
5536.00,1.59
5535.00,1.59
5534.00,1.60
5533.00,1.60
5532.00,1.60
5531.00,1.60
5530.00,1.60
5529.00,1.60
5528.00,1.61
5527.00,1.61
5526.00,1.61
5525.00,1.61
5524.00,1.61
5523.00,1.61
5522.00,1.61
5521.00,1.61
5520.00,1.62
5519.00,1.62
5518.00,1.62
5517.00,1.62
5516.00,1.62
5515.00,1.62
5514.00,1.62
5513.00,1.62
5512.00,1.62
5511.00,1.62
5510.00,1.62
5509.00,1.62
5508.00,1.62
5507.00,1.62
5506.00,1.62
5505.00,1.62
5504.00,1.62
5503.00,1.62
5502.00,1.62
5501.00,1.62
5500.00,1.62
5499.00,1.62
5498.00,1.62
5497.00,1.62
5496.00,1.63
5495.00,1.63
5494.00,1.63
5493.00,1.63
5492.00,1.63
5491.00,1.63
5490.00,1.63
5489.00,1.63
5488.00,1.64
5487.00,1.64
5486.00,1.64
5485.00,1.64
5484.00,1.65
5483.00,1.65
5482.00,1.65
5481.00,1.65
5480.00,1.65
5479.00,1.65
5478.00,1.66
5477.00,1.66
5476.00,1.66
5475.00,1.66
5474.00,1.66
5473.00,1.66
5472.00,1.66
5471.00,1.66
5470.00,1.66
5469.00,1.67
5468.00,1.67
5467.00,1.67
5466.00,1.67
5465.00,1.67
5464.00,1.67
5463.00,1.67
5462.00,1.68
5461.00,1.68
5460.00,1.68
5459.00,1.68
5458.00,1.68
5457.00,1.68
5456.00,1.68
5455.00,1.68
5454.00,1.68
5453.00,1.68
5452.00,1.68
5451.00,1.68
5450.00,1.68
5449.00,1.68
5448.00,1.68
5447.00,1.67
5446.00,1.67
5445.00,1.67
5444.00,1.67
5443.00,1.67
5442.00,1.67
5441.00,1.67
5440.00,1.67
5439.00,1.67
5438.00,1.67
5437.00,1.67
5436.00,1.67
5435.00,1.67
5434.00,1.67
5433.00,1.67
5432.00,1.68
5431.00,1.68
5430.00,1.68
5429.00,1.68
5428.00,1.68
5427.00,1.68
5426.00,1.68
5425.00,1.68
5424.00,1.68
5423.00,1.68
5422.00,1.68
5421.00,1.68
5420.00,1.68
5419.00,1.67
5418.00,1.67
5417.00,1.67
5416.00,1.67
5415.00,1.67
5414.00,1.67
5413.00,1.67
5412.00,1.66
5411.00,1.66
5410.00,1.66
5409.00,1.66
5408.00,1.66
5407.00,1.66
5406.00,1.66
5405.00,1.66
5404.00,1.66
5403.00,1.66
5402.00,1.66
5401.00,1.66
5400.00,1.65
5399.00,1.65
5398.00,1.65
5397.00,1.65
5396.00,1.64
5395.00,1.64
5394.00,1.64
5393.00,1.63
5392.00,1.63
5391.00,1.63
5390.00,1.62
5389.00,1.62
5388.00,1.61
5387.00,1.61
5386.00,1.60
5385.00,1.60
5384.00,1.59
5383.00,1.59
5382.00,1.58
5381.00,1.58
5380.00,1.57
5379.00,1.57
5378.00,1.56
5377.00,1.56
5376.00,1.55
5375.00,1.55
5374.00,1.54
5373.00,1.54
5372.00,1.53
5371.00,1.52
5370.00,1.52
5369.00,1.51
5368.00,1.51
5367.00,1.50
5366.00,1.49
5365.00,1.48
5364.00,1.48
5363.00,1.47
5362.00,1.46
5361.00,1.45
5360.00,1.44
5359.00,1.43
5358.00,1.42
5357.00,1.41
5356.00,1.40
5355.00,1.39
5354.00,1.38
5353.00,1.37
5352.00,1.36
5351.00,1.35
5350.00,1.34
5349.00,1.33
5348.00,1.32
5347.00,1.31
5346.00,1.30
5345.00,1.29
5344.00,1.28
5343.00,1.27
5342.00,1.26
5341.00,1.25
5340.00,1.24
5339.00,1.23
5338.00,1.22
5337.00,1.21
5336.00,1.20
5335.00,1.20
5334.00,1.19
5333.00,1.18
5332.00,1.17
5331.00,1.17
5330.00,1.16
5329.00,1.16
5328.00,1.15
5327.00,1.14
5326.00,1.14
5325.00,1.13
5324.00,1.13
5323.00,1.12
5322.00,1.11
5321.00,1.11
5320.00,1.10
5319.00,1.10
5318.00,1.09
5317.00,1.09
5316.00,1.08
5315.00,1.08
5314.00,1.07
5313.00,1.07
5312.00,1.07
5311.00,1.06
5310.00,1.06
5309.00,1.06
5308.00,1.05
5307.00,1.05
5306.00,1.05
5305.00,1.05
5304.00,1.04
5303.00,1.04
5302.00,1.04
5301.00,1.04
5300.00,1.04
5299.00,1.04
5298.00,1.03
5297.00,1.03
5296.00,1.03
5295.00,1.03
5294.00,1.03
5293.00,1.03
5292.00,1.03
5291.00,1.03
5290.00,1.03
5289.00,1.02
5288.00,1.02
5287.00,1.02
5286.00,1.02
5285.00,1.02
5284.00,1.02
5283.00,1.02
5282.00,1.02
5281.00,1.02
5280.00,1.02
5279.00,1.02
5278.00,1.02
5277.00,1.02
5276.00,1.02
5275.00,1.02
5274.00,1.02
5273.00,1.02
5272.00,1.02
5271.00,1.02
5270.00,1.02
5269.00,1.02
5268.00,1.02
5267.00,1.02
5266.00,1.02
5265.00,1.02
5264.00,1.02
5263.00,1.02
5262.00,1.02
5261.00,1.02
5260.00,1.02
5259.00,1.02
5258.00,1.02
5257.00,1.02
5256.00,1.02
5255.00,1.02
5254.00,1.02
5253.00,1.02
5252.00,1.02
5251.00,1.02
5250.00,1.02
5249.00,1.02
5248.00,1.02
5247.00,1.02
5246.00,1.02
5245.00,1.02
5244.00,1.02
5243.00,1.02
5242.00,1.02
5241.00,1.02
5240.00,1.03
5239.00,1.03
5238.00,1.03
5237.00,1.03
5236.00,1.03
5235.00,1.03
5234.00,1.03
5233.00,1.03
5232.00,1.03
5231.00,1.03
5230.00,1.03
5229.00,1.03
5228.00,1.03
5227.00,1.03
5226.00,1.03
5225.00,1.03
5224.00,1.03
5223.00,1.03
5222.00,1.03
5221.00,1.03
5220.00,1.03
5219.00,1.03
5218.00,1.03
5217.00,1.03
5216.00,1.04
5215.00,1.04
5214.00,1.04
5213.00,1.04
5212.00,1.04
5211.00,1.04
5210.00,1.04
5209.00,1.04
5208.00,1.04
5207.00,1.04
5206.00,1.04
5205.00,1.04
5204.00,1.04
5203.00,1.04
5202.00,1.04
5201.00,1.04
5200.00,1.04
5199.00,1.04
5198.00,1.04
5197.00,1.05
5196.00,1.05
5195.00,1.05
5194.00,1.05
5193.00,1.05
5192.00,1.05
5191.00,1.05
5190.00,1.05
5189.00,1.05
5188.00,1.05
5187.00,1.05
5186.00,1.05
5185.00,1.05
5184.00,1.05
5183.00,1.05
5182.00,1.05
5181.00,1.05
5180.00,1.06
5179.00,1.06
5178.00,1.06
5177.00,1.06
5176.00,1.06
5175.00,1.06
5174.00,1.06
5173.00,1.06
5172.00,1.06
5171.00,1.06
5170.00,1.06
5169.00,1.06
5168.00,1.06
5167.00,1.07
5166.00,1.07
5165.00,1.07
5164.00,1.07
5163.00,1.07
5162.00,1.07
5161.00,1.07
5160.00,1.07
5159.00,1.07
5158.00,1.07
5157.00,1.07
5156.00,1.07
5155.00,1.07
5154.00,1.07
5153.00,1.08
5152.00,1.08
5151.00,1.08
5150.00,1.08
5149.00,1.08
5148.00,1.08
5147.00,1.07
5146.00,1.07
5145.00,1.07
5144.00,1.07
5143.00,1.07
5142.00,1.07
5141.00,1.08
5140.00,1.08
5139.00,1.08
5138.00,1.08
5137.00,1.08
5136.00,1.08
5135.00,1.08
5134.00,1.08
5133.00,1.08
5132.00,1.08
5131.00,1.08
5130.00,1.08
5129.00,1.09
5128.00,1.09
5127.00,1.09
5126.00,1.09
5125.00,1.09
5124.00,1.09
5123.00,1.09
5122.00,1.09
5121.00,1.09
5120.00,1.09
5119.00,1.09
5118.00,1.09
5117.00,1.09
5116.00,1.09
5115.00,1.09
5114.00,1.09
5113.00,1.09
5112.00,1.09
5111.00,1.09
5110.00,1.09
5109.00,1.09
5108.00,1.09
5107.00,1.09
5106.00,1.09
5105.00,1.09
5104.00,1.09
5103.00,1.09
5102.00,1.09
5101.00,1.09
5100.00,1.09
5099.00,1.09
5098.00,1.09
5097.00,1.09
5096.00,1.09
5095.00,1.09
5094.00,1.10
5093.00,1.10
5092.00,1.10
5091.00,1.10
5090.00,1.10
5089.00,1.10
5088.00,1.10
5087.00,1.10
5086.00,1.10
5085.00,1.10
5084.00,1.11
5083.00,1.11
5082.00,1.11
5081.00,1.11
5080.00,1.11
5079.00,1.11
5078.00,1.11
5077.00,1.11
5076.00,1.11
5075.00,1.11
5074.00,1.11
5073.00,1.11
5072.00,1.11
5071.00,1.11
5070.00,1.11
5069.00,1.11
5068.00,1.11
5067.00,1.11
5066.00,1.12
5065.00,1.12
5064.00,1.12
5063.00,1.12
5062.00,1.12
5061.00,1.12
5060.00,1.12
5059.00,1.12
5058.00,1.12
5057.00,1.12
5056.00,1.12
5055.00,1.12
5054.00,1.12
5053.00,1.12
5052.00,1.12
5051.00,1.12
5050.00,1.13
5049.00,1.13
5048.00,1.13
5047.00,1.13
5046.00,1.13
5045.00,1.13
5044.00,1.13
5043.00,1.13
5042.00,1.13
5041.00,1.13
5040.00,1.13
5039.00,1.13
5038.00,1.14
5037.00,1.14
5036.00,1.14
5035.00,1.14
5034.00,1.14
5033.00,1.14
5032.00,1.14
5031.00,1.14
5030.00,1.14
5029.00,1.14
5028.00,1.14
5027.00,1.14
5026.00,1.14
5025.00,1.14
5024.00,1.14
5023.00,1.14
5022.00,1.14
5021.00,1.14
5020.00,1.14
5019.00,1.15
5018.00,1.15
5017.00,1.15
5016.00,1.15
5015.00,1.15
5014.00,1.15
5013.00,1.15
5012.00,1.15
5011.00,1.15
5010.00,1.14
5009.00,1.14
5008.00,1.14
5007.00,1.14
5006.00,1.14
5005.00,1.14
5004.00,1.14
5003.00,1.14
5002.00,1.14
5001.00,1.14
5000.00,1.14
4999.00,1.14
4998.00,1.14
4997.00,1.14
4996.00,1.14
4995.00,1.14
4994.00,1.15
4993.00,1.15
4992.00,1.15
4991.00,1.15
4990.00,1.15
4989.00,1.15
4988.00,1.15
4987.00,1.15
4986.00,1.15
4985.00,1.15
4984.00,1.15
4983.00,1.15
4982.00,1.16
4981.00,1.16
4980.00,1.16
4979.00,1.16
4978.00,1.16
4977.00,1.16
4976.00,1.16
4975.00,1.16
4974.00,1.16
4973.00,1.16
4972.00,1.16
4971.00,1.16
4970.00,1.16
4969.00,1.16
4968.00,1.16
4967.00,1.16
4966.00,1.16
4965.00,1.16
4964.00,1.16
4963.00,1.16
4962.00,1.16
4961.00,1.16
4960.00,1.16
4959.00,1.16
4958.00,1.16
4957.00,1.16
4956.00,1.16
4955.00,1.17
4954.00,1.17
4953.00,1.17
4952.00,1.17
4951.00,1.17
4950.00,1.17
4949.00,1.17
4948.00,1.17
4947.00,1.17
4946.00,1.17
4945.00,1.17
4944.00,1.17
4943.00,1.17
4942.00,1.18
4941.00,1.18
4940.00,1.18
4939.00,1.18
4938.00,1.18
4937.00,1.18
4936.00,1.18
4935.00,1.18
4934.00,1.18
4933.00,1.18
4932.00,1.18
4931.00,1.18
4930.00,1.18
4929.00,1.18
4928.00,1.18
4927.00,1.18
4926.00,1.18
4925.00,1.18
4924.00,1.18
4923.00,1.18
4922.00,1.18
4921.00,1.18
4920.00,1.18
4919.00,1.18
4918.00,1.19
4917.00,1.19
4916.00,1.19
4915.00,1.19
4914.00,1.19
4913.00,1.19
4912.00,1.19
4911.00,1.19
4910.00,1.19
4909.00,1.20
4908.00,1.20
4907.00,1.20
4906.00,1.20
4905.00,1.20
4904.00,1.20
4903.00,1.20
4902.00,1.20
4901.00,1.20
4900.00,1.20
4899.00,1.20
4898.00,1.20
4897.00,1.20
4896.00,1.20
4895.00,1.20
4894.00,1.20
4893.00,1.20
4892.00,1.21
4891.00,1.21
4890.00,1.21
4889.00,1.21
4888.00,1.21
4887.00,1.21
4886.00,1.21
4885.00,1.21
4884.00,1.21
4883.00,1.21
4882.00,1.21
4881.00,1.21
4880.00,1.21
4879.00,1.21
4878.00,1.21
4877.00,1.21
4876.00,1.21
4875.00,1.21
4874.00,1.21
4873.00,1.21
4872.00,1.21
4871.00,1.21
4870.00,1.21
4869.00,1.21
4868.00,1.22
4867.00,1.22
4866.00,1.22
4865.00,1.22
4864.00,1.22
4863.00,1.22
4862.00,1.22
4861.00,1.22
4860.00,1.22
4859.00,1.22
4858.00,1.22
4857.00,1.22
4856.00,1.22
4855.00,1.22
4854.00,1.22
4853.00,1.22
4852.00,1.22
4851.00,1.22
4850.00,1.22
4849.00,1.22
4848.00,1.22
4847.00,1.23
4846.00,1.23
4845.00,1.23
4844.00,1.23
4843.00,1.23
4842.00,1.23
4841.00,1.23
4840.00,1.23
4839.00,1.23
4838.00,1.23
4837.00,1.24
4836.00,1.24
4835.00,1.24
4834.00,1.24
4833.00,1.24
4832.00,1.24
4831.00,1.24
4830.00,1.24
4829.00,1.24
4828.00,1.24
4827.00,1.24
4826.00,1.24
4825.00,1.24
4824.00,1.25
4823.00,1.25
4822.00,1.25
4821.00,1.25
4820.00,1.25
4819.00,1.25
4818.00,1.25
4817.00,1.25
4816.00,1.25
4815.00,1.25
4814.00,1.25
4813.00,1.25
4812.00,1.26
4811.00,1.26
4810.00,1.26
4809.00,1.26
4808.00,1.26
4807.00,1.26
4806.00,1.26
4805.00,1.26
4804.00,1.26
4803.00,1.26
4802.00,1.26
4801.00,1.27
4800.00,1.27
4799.00,1.27
4798.00,1.27
4797.00,1.27
4796.00,1.27
4795.00,1.27
4794.00,1.27
4793.00,1.27
4792.00,1.27
4791.00,1.27
4790.00,1.27
4789.00,1.27
4788.00,1.28
4787.00,1.28
4786.00,1.28
4785.00,1.28
4784.00,1.28
4783.00,1.28
4782.00,1.28
4781.00,1.28
4780.00,1.28
4779.00,1.28
4778.00,1.28
4777.00,1.28
4776.00,1.28
4775.00,1.28
4774.00,1.29
4773.00,1.29
4772.00,1.29
4771.00,1.29
4770.00,1.29
4769.00,1.29
4768.00,1.29
4767.00,1.30
4766.00,1.30
4765.00,1.30
4764.00,1.30
4763.00,1.30
4762.00,1.30
4761.00,1.30
4760.00,1.31
4759.00,1.31
4758.00,1.31
4757.00,1.31
4756.00,1.31
4755.00,1.31
4754.00,1.31
4753.00,1.31
4752.00,1.31
4751.00,1.31
4750.00,1.31
4749.00,1.31
4748.00,1.31
4747.00,1.31
4746.00,1.31
4745.00,1.31
4744.00,1.31
4743.00,1.32
4742.00,1.32
4741.00,1.32
4740.00,1.32
4739.00,1.32
4738.00,1.32
4737.00,1.32
4736.00,1.32
4735.00,1.32
4734.00,1.32
4733.00,1.32
4732.00,1.32
4731.00,1.32
4730.00,1.32
4729.00,1.32
4728.00,1.32
4727.00,1.33
4726.00,1.33
4725.00,1.33
4724.00,1.33
4723.00,1.33
4722.00,1.33
4721.00,1.33
4720.00,1.33
4719.00,1.34
4718.00,1.34
4717.00,1.34
4716.00,1.34
4715.00,1.34
4714.00,1.34
4713.00,1.35
4712.00,1.35
4711.00,1.35
4710.00,1.35
4709.00,1.35
4708.00,1.35
4707.00,1.35
4706.00,1.35
4705.00,1.35
4704.00,1.35
4703.00,1.35
4702.00,1.35
4701.00,1.35
4700.00,1.35
4699.00,1.35
4698.00,1.35
4697.00,1.35
4696.00,1.35
4695.00,1.35
4694.00,1.35
4693.00,1.36
4692.00,1.36
4691.00,1.36
4690.00,1.36
4689.00,1.36
4688.00,1.36
4687.00,1.36
4686.00,1.36
4685.00,1.36
4684.00,1.36
4683.00,1.36
4682.00,1.37
4681.00,1.37
4680.00,1.37
4679.00,1.37
4678.00,1.37
4677.00,1.37
4676.00,1.37
4675.00,1.37
4674.00,1.37
4673.00,1.37
4672.00,1.37
4671.00,1.37
4670.00,1.37
4669.00,1.38
4668.00,1.38
4667.00,1.38
4666.00,1.38
4665.00,1.38
4664.00,1.38
4663.00,1.38
4662.00,1.39
4661.00,1.39
4660.00,1.39
4659.00,1.39
4658.00,1.39
4657.00,1.39
4656.00,1.39
4655.00,1.39
4654.00,1.40
4653.00,1.40
4652.00,1.40
4651.00,1.40
4650.00,1.40
4649.00,1.40
4648.00,1.40
4647.00,1.40
4646.00,1.40
4645.00,1.40
4644.00,1.40
4643.00,1.40
4642.00,1.40
4641.00,1.40
4640.00,1.40
4639.00,1.40
4638.00,1.40
4637.00,1.40
4636.00,1.40
4635.00,1.40
4634.00,1.41
4633.00,1.41
4632.00,1.41
4631.00,1.41
4630.00,1.41
4629.00,1.41
4628.00,1.41
4627.00,1.42
4626.00,1.42
4625.00,1.42
4624.00,1.42
4623.00,1.42
4622.00,1.42
4621.00,1.42
4620.00,1.42
4619.00,1.43
4618.00,1.43
4617.00,1.43
4616.00,1.43
4615.00,1.43
4614.00,1.43
4613.00,1.43
4612.00,1.43
4611.00,1.43
4610.00,1.43
4609.00,1.43
4608.00,1.43
4607.00,1.43
4606.00,1.44
4605.00,1.44
4604.00,1.44
4603.00,1.44
4602.00,1.44
4601.00,1.44
4600.00,1.44
4599.00,1.44
4598.00,1.44
4597.00,1.44
4596.00,1.44
4595.00,1.44
4594.00,1.44
4593.00,1.44
4592.00,1.44
4591.00,1.44
4590.00,1.44
4589.00,1.44
4588.00,1.44
4587.00,1.45
4586.00,1.45
4585.00,1.45
4584.00,1.45
4583.00,1.45
4582.00,1.45
4581.00,1.45
4580.00,1.45
4579.00,1.45
4578.00,1.45
4577.00,1.45
4576.00,1.45
4575.00,1.45
4574.00,1.45
4573.00,1.45
4572.00,1.45
4571.00,1.46
4570.00,1.46
4569.00,1.46
4568.00,1.46
4567.00,1.46
4566.00,1.46
4565.00,1.46
4564.00,1.46
4563.00,1.46
4562.00,1.46
4561.00,1.46
4560.00,1.47
4559.00,1.47
4558.00,1.47
4557.00,1.47
4556.00,1.47
4555.00,1.47
4554.00,1.47
4553.00,1.47
4552.00,1.47
4551.00,1.47
4550.00,1.47
4549.00,1.47
4548.00,1.47
4547.00,1.47
4546.00,1.47
4545.00,1.47
4544.00,1.47
4543.00,1.48
4542.00,1.48
4541.00,1.48
4540.00,1.48
4539.00,1.48
4538.00,1.48
4537.00,1.48
4536.00,1.48
4535.00,1.48
4534.00,1.48
4533.00,1.48
4532.00,1.48
4531.00,1.48
4530.00,1.48
4529.00,1.48
4528.00,1.48
4527.00,1.48
4526.00,1.48
4525.00,1.48
4524.00,1.48
4523.00,1.48
4522.00,1.48
4521.00,1.49
4520.00,1.49
4519.00,1.48
4518.00,1.48
4517.00,1.48
4516.00,1.48
4515.00,1.48
4514.00,1.48
4513.00,1.48
4512.00,1.48
4511.00,1.48
4510.00,1.48
4509.00,1.48
4508.00,1.48
4507.00,1.48
4506.00,1.48
4505.00,1.48
4504.00,1.48
4503.00,1.48
4502.00,1.49
4501.00,1.49
4500.00,1.49
4499.00,1.49
4498.00,1.49
4497.00,1.49
4496.00,1.49
4495.00,1.49
4494.00,1.49
4493.00,1.49
4492.00,1.49
4491.00,1.49
4490.00,1.49
4489.00,1.49
4488.00,1.49
4487.00,1.49
4486.00,1.49
4485.00,1.49
4484.00,1.49
4483.00,1.49
4482.00,1.49
4481.00,1.49
4480.00,1.49
4479.00,1.49
4478.00,1.49
4477.00,1.49
4476.00,1.49
4475.00,1.49
4474.00,1.49
4473.00,1.49
4472.00,1.49
4471.00,1.48
4470.00,1.48
4469.00,1.48
4468.00,1.48
4467.00,1.48
4466.00,1.47
4465.00,1.47
4464.00,1.47
4463.00,1.46
4462.00,1.46
4461.00,1.46
4460.00,1.46
4459.00,1.46
4458.00,1.45
4457.00,1.45
4456.00,1.45
4455.00,1.45
4454.00,1.45
4453.00,1.45
4452.00,1.44
4451.00,1.44
4450.00,1.44
4449.00,1.44
4448.00,1.44
4447.00,1.44
4446.00,1.44
4445.00,1.44
4444.00,1.44
4443.00,1.43
4442.00,1.43
4441.00,1.43
4440.00,1.43
4439.00,1.43
4438.00,1.43
4437.00,1.43
4436.00,1.43
4435.00,1.42
4434.00,1.42
4433.00,1.42
4432.00,1.42
4431.00,1.42
4430.00,1.42
4429.00,1.42
4428.00,1.42
4427.00,1.42
4426.00,1.42
4425.00,1.42
4424.00,1.43
4423.00,1.43
4422.00,1.43
4421.00,1.43
4420.00,1.43
4419.00,1.43
4418.00,1.43
4417.00,1.43
4416.00,1.43
4415.00,1.43
4414.00,1.43
4413.00,1.44
4412.00,1.44
4411.00,1.44
4410.00,1.44
4409.00,1.44
4408.00,1.44
4407.00,1.44
4406.00,1.44
4405.00,1.44
4404.00,1.44
4403.00,1.44
4402.00,1.44
4401.00,1.44
4400.00,1.44
4399.00,1.44
4398.00,1.44
4397.00,1.44
4396.00,1.44
4395.00,1.44
4394.00,1.45
4393.00,1.45
4392.00,1.45
4391.00,1.45
4390.00,1.45
4389.00,1.45
4388.00,1.45
4387.00,1.45
4386.00,1.45
4385.00,1.45
4384.00,1.45
4383.00,1.45
4382.00,1.45
4381.00,1.45
4380.00,1.45
4379.00,1.46
4378.00,1.46
4377.00,1.46
4376.00,1.46
4375.00,1.46
4374.00,1.46
4373.00,1.46
4372.00,1.46
4371.00,1.46
4370.00,1.46
4369.00,1.47
4368.00,1.47
4367.00,1.47
4366.00,1.47
4365.00,1.47
4364.00,1.47
4363.00,1.47
4362.00,1.47
4361.00,1.47
4360.00,1.47
4359.00,1.47
4358.00,1.47
4357.00,1.47
4356.00,1.47
4355.00,1.47
4354.00,1.47
4353.00,1.47
4352.00,1.47
4351.00,1.47
4350.00,1.47
4349.00,1.47
4348.00,1.47
4347.00,1.47
4346.00,1.47
4345.00,1.47
4344.00,1.47
4343.00,1.47
4342.00,1.47
4341.00,1.47
4340.00,1.47
4339.00,1.47
4338.00,1.47
4337.00,1.47
4336.00,1.47
4335.00,1.48
4334.00,1.48
4333.00,1.48
4332.00,1.48
4331.00,1.48
4330.00,1.48
4329.00,1.48
4328.00,1.48
4327.00,1.49
4326.00,1.49
4325.00,1.49
4324.00,1.49
4323.00,1.49
4322.00,1.49
4321.00,1.49
4320.00,1.49
4319.00,1.49
4318.00,1.50
4317.00,1.50
4316.00,1.50
4315.00,1.50
4314.00,1.50
4313.00,1.50
4312.00,1.50
4311.00,1.50
4310.00,1.50
4309.00,1.50
4308.00,1.51
4307.00,1.51
4306.00,1.51
4305.00,1.51
4304.00,1.51
4303.00,1.51
4302.00,1.50
4301.00,1.50
4300.00,1.50
4299.00,1.50
4298.00,1.50
4297.00,1.50
4296.00,1.50
4295.00,1.50
4294.00,1.50
4293.00,1.50
4292.00,1.50
4291.00,1.50
4290.00,1.50
4289.00,1.50
4288.00,1.50
4287.00,1.50
4286.00,1.50
4285.00,1.50
4284.00,1.50
4283.00,1.50
4282.00,1.50
4281.00,1.51
4280.00,1.51
4279.00,1.51
4278.00,1.51
4277.00,1.51
4276.00,1.51
4275.00,1.51
4274.00,1.51
4273.00,1.52
4272.00,1.52
4271.00,1.52
4270.00,1.52
4269.00,1.52
4268.00,1.52
4267.00,1.52
4266.00,1.53
4265.00,1.53
4264.00,1.53
4263.00,1.53
4262.00,1.53
4261.00,1.53
4260.00,1.54
4259.00,1.54
4258.00,1.54
4257.00,1.54
4256.00,1.54
4255.00,1.54
4254.00,1.54
4253.00,1.54
4252.00,1.54
4251.00,1.54
4250.00,1.54
4249.00,1.54
4248.00,1.54
4247.00,1.54
4246.00,1.54
4245.00,1.54
4244.00,1.54
4243.00,1.54
4242.00,1.54
4241.00,1.54
4240.00,1.54
4239.00,1.54
4238.00,1.54
4237.00,1.54
4236.00,1.54
4235.00,1.54
4234.00,1.54
4233.00,1.54
4232.00,1.54
4231.00,1.54
4230.00,1.55
4229.00,1.55
4228.00,1.55
4227.00,1.55
4226.00,1.55
4225.00,1.55
4224.00,1.55
4223.00,1.55
4222.00,1.55
4221.00,1.56
4220.00,1.56
4219.00,1.56
4218.00,1.56
4217.00,1.56
4216.00,1.56
4215.00,1.57
4214.00,1.57
4213.00,1.57
4212.00,1.57
4211.00,1.58
4210.00,1.58
4209.00,1.58
4208.00,1.58
4207.00,1.59
4206.00,1.59
4205.00,1.59
4204.00,1.59
4203.00,1.60
4202.00,1.60
4201.00,1.60
4200.00,1.60
4199.00,1.60
4198.00,1.60
4197.00,1.60
4196.00,1.60
4195.00,1.60
4194.00,1.60
4193.00,1.60
4192.00,1.59
4191.00,1.59
4190.00,1.59
4189.00,1.59
4188.00,1.59
4187.00,1.59
4186.00,1.59
4185.00,1.59
4184.00,1.59
4183.00,1.58
4182.00,1.58
4181.00,1.58
4180.00,1.58
4179.00,1.58
4178.00,1.58
4177.00,1.58
4176.00,1.58
4175.00,1.57
4174.00,1.57
4173.00,1.57
4172.00,1.57
4171.00,1.57
4170.00,1.57
4169.00,1.57
4168.00,1.57
4167.00,1.57
4166.00,1.57
4165.00,1.57
4164.00,1.57
4163.00,1.57
4162.00,1.57
4161.00,1.57
4160.00,1.57
4159.00,1.57
4158.00,1.58
4157.00,1.58
4156.00,1.58
4155.00,1.58
4154.00,1.58
4153.00,1.58
4152.00,1.59
4151.00,1.59
4150.00,1.59
4149.00,1.59
4148.00,1.59
4147.00,1.59
4146.00,1.59
4145.00,1.60
4144.00,1.60
4143.00,1.60
4142.00,1.60
4141.00,1.60
4140.00,1.60
4139.00,1.60
4138.00,1.60
4137.00,1.60
4136.00,1.60
4135.00,1.60
4134.00,1.60
4133.00,1.60
4132.00,1.60
4131.00,1.60
4130.00,1.60
4129.00,1.60
4128.00,1.60
4127.00,1.60
4126.00,1.61
4125.00,1.61
4124.00,1.61
4123.00,1.61
4122.00,1.61
4121.00,1.61
4120.00,1.61
4119.00,1.62
4118.00,1.62
4117.00,1.62
4116.00,1.62
4115.00,1.62
4114.00,1.62
4113.00,1.63
4112.00,1.63
4111.00,1.63
4110.00,1.63
4109.00,1.63
4108.00,1.63
4107.00,1.63
4106.00,1.63
4105.00,1.63
4104.00,1.63
4103.00,1.63
4102.00,1.63
4101.00,1.63
4100.00,1.63
4099.00,1.63
4098.00,1.63
4097.00,1.63
4096.00,1.63
4095.00,1.63
4094.00,1.63
4093.00,1.63
4092.00,1.63
4091.00,1.63
4090.00,1.63
4089.00,1.63
4088.00,1.63
4087.00,1.63
4086.00,1.63
4085.00,1.64
4084.00,1.64
4083.00,1.64
4082.00,1.64
4081.00,1.64
4080.00,1.64
4079.00,1.64
4078.00,1.64
4077.00,1.64
4076.00,1.64
4075.00,1.64
4074.00,1.64
4073.00,1.64
4072.00,1.64
4071.00,1.64
4070.00,1.64
4069.00,1.64
4068.00,1.64
4067.00,1.64
4066.00,1.64
4065.00,1.64
4064.00,1.64
4063.00,1.64
4062.00,1.64
4061.00,1.65
4060.00,1.65
4059.00,1.65
4058.00,1.65
4057.00,1.65
4056.00,1.65
4055.00,1.65
4054.00,1.65
4053.00,1.65
4052.00,1.65
4051.00,1.65
4050.00,1.65
4049.00,1.65
4048.00,1.65
4047.00,1.65
4046.00,1.65
4045.00,1.65
4044.00,1.65
4043.00,1.65
4042.00,1.65
4041.00,1.65
4040.00,1.65
4039.00,1.65
4038.00,1.65
4037.00,1.65
4036.00,1.65
4035.00,1.65
4034.00,1.65
4033.00,1.65
4032.00,1.66
4031.00,1.66
4030.00,1.66
4029.00,1.66
4028.00,1.66
4027.00,1.66
4026.00,1.66
4025.00,1.66
4024.00,1.66
4023.00,1.66
4022.00,1.66
4021.00,1.66
4020.00,1.66
4019.00,1.67
4018.00,1.67
4017.00,1.67
4016.00,1.67
4015.00,1.67
4014.00,1.67
4013.00,1.67
4012.00,1.67
4011.00,1.67
4010.00,1.67
4009.00,1.67
4008.00,1.67
4007.00,1.67
4006.00,1.67
4005.00,1.67
4004.00,1.67
4003.00,1.68
4002.00,1.68
4001.00,1.68
4000.00,1.69
