创建为新数据集,样品 529 用户 Administrator 日期 星期一, 七月 16 2018
cm-1,%T
10000.00,2.27
9999.00,2.28
9998.00,2.28
9997.00,2.28
9996.00,2.28
9995.00,2.28
9994.00,2.28
9993.00,2.28
9992.00,2.28
9991.00,2.28
9990.00,2.28
9989.00,2.27
9988.00,2.27
9987.00,2.27
9986.00,2.27
9985.00,2.27
9984.00,2.27
9983.00,2.26
9982.00,2.26
9981.00,2.26
9980.00,2.26
9979.00,2.26
9978.00,2.25
9977.00,2.25
9976.00,2.25
9975.00,2.25
9974.00,2.25
9973.00,2.25
9972.00,2.25
9971.00,2.25
9970.00,2.25
9969.00,2.26
9968.00,2.26
9967.00,2.26
9966.00,2.26
9965.00,2.26
9964.00,2.26
9963.00,2.27
9962.00,2.27
9961.00,2.27
9960.00,2.27
9959.00,2.27
9958.00,2.27
9957.00,2.27
9956.00,2.27
9955.00,2.27
9954.00,2.27
9953.00,2.27
9952.00,2.27
9951.00,2.27
9950.00,2.27
9949.00,2.26
9948.00,2.26
9947.00,2.26
9946.00,2.26
9945.00,2.25
9944.00,2.25
9943.00,2.25
9942.00,2.25
9941.00,2.24
9940.00,2.24
9939.00,2.24
9938.00,2.24
9937.00,2.23
9936.00,2.23
9935.00,2.23
9934.00,2.23
9933.00,2.23
9932.00,2.23
9931.00,2.23
9930.00,2.23
9929.00,2.23
9928.00,2.24
9927.00,2.24
9926.00,2.24
9925.00,2.24
9924.00,2.24
9923.00,2.24
9922.00,2.24
9921.00,2.24
9920.00,2.25
9919.00,2.25
9918.00,2.25
9917.00,2.25
9916.00,2.25
9915.00,2.25
9914.00,2.25
9913.00,2.25
9912.00,2.25
9911.00,2.25
9910.00,2.25
9909.00,2.25
9908.00,2.25
9907.00,2.25
9906.00,2.25
9905.00,2.25
9904.00,2.25
9903.00,2.25
9902.00,2.25
9901.00,2.25
9900.00,2.25
9899.00,2.25
9898.00,2.25
9897.00,2.25
9896.00,2.25
9895.00,2.25
9894.00,2.25
9893.00,2.25
9892.00,2.25
9891.00,2.25
9890.00,2.25
9889.00,2.25
9888.00,2.25
9887.00,2.24
9886.00,2.24
9885.00,2.24
9884.00,2.24
9883.00,2.24
9882.00,2.24
9881.00,2.24
9880.00,2.24
9879.00,2.24
9878.00,2.24
9877.00,2.24
9876.00,2.24
9875.00,2.24
9874.00,2.24
9873.00,2.24
9872.00,2.24
9871.00,2.24
9870.00,2.24
9869.00,2.25
9868.00,2.25
9867.00,2.25
9866.00,2.25
9865.00,2.25
9864.00,2.25
9863.00,2.25
9862.00,2.25
9861.00,2.26
9860.00,2.26
9859.00,2.26
9858.00,2.26
9857.00,2.26
9856.00,2.26
9855.00,2.26
9854.00,2.26
9853.00,2.26
9852.00,2.27
9851.00,2.27
9850.00,2.27
9849.00,2.27
9848.00,2.26
9847.00,2.26
9846.00,2.26
9845.00,2.26
9844.00,2.26
9843.00,2.26
9842.00,2.26
9841.00,2.25
9840.00,2.25
9839.00,2.25
9838.00,2.25
9837.00,2.24
9836.00,2.24
9835.00,2.24
9834.00,2.24
9833.00,2.24
9832.00,2.23
9831.00,2.23
9830.00,2.23
9829.00,2.23
9828.00,2.23
9827.00,2.23
9826.00,2.23
9825.00,2.23
9824.00,2.24
9823.00,2.24
9822.00,2.24
9821.00,2.24
9820.00,2.24
9819.00,2.24
9818.00,2.25
9817.00,2.25
9816.00,2.25
9815.00,2.25
9814.00,2.25
9813.00,2.25
9812.00,2.25
9811.00,2.25
9810.00,2.25
9809.00,2.25
9808.00,2.25
9807.00,2.25
9806.00,2.25
9805.00,2.25
9804.00,2.25
9803.00,2.25
9802.00,2.25
9801.00,2.25
9800.00,2.25
9799.00,2.25
9798.00,2.25
9797.00,2.25
9796.00,2.25
9795.00,2.25
9794.00,2.25
9793.00,2.26
9792.00,2.26
9791.00,2.26
9790.00,2.26
9789.00,2.26
9788.00,2.26
9787.00,2.27
9786.00,2.27
9785.00,2.27
9784.00,2.27
9783.00,2.27
9782.00,2.27
9781.00,2.27
9780.00,2.27
9779.00,2.28
9778.00,2.28
9777.00,2.28
9776.00,2.28
9775.00,2.28
9774.00,2.28
9773.00,2.28
9772.00,2.28
9771.00,2.27
9770.00,2.27
9769.00,2.27
9768.00,2.27
9767.00,2.27
9766.00,2.27
9765.00,2.26
9764.00,2.26
9763.00,2.26
9762.00,2.26
9761.00,2.25
9760.00,2.25
9759.00,2.25
9758.00,2.25
9757.00,2.25
9756.00,2.24
9755.00,2.24
9754.00,2.24
9753.00,2.24
9752.00,2.24
9751.00,2.24
9750.00,2.24
9749.00,2.24
9748.00,2.24
9747.00,2.24
9746.00,2.24
9745.00,2.24
9744.00,2.24
9743.00,2.24
9742.00,2.24
9741.00,2.24
9740.00,2.24
9739.00,2.24
9738.00,2.24
9737.00,2.24
9736.00,2.24
9735.00,2.24
9734.00,2.24
9733.00,2.24
9732.00,2.24
9731.00,2.24
9730.00,2.24
9729.00,2.23
9728.00,2.23
9727.00,2.23
9726.00,2.23
9725.00,2.23
9724.00,2.23
9723.00,2.23
9722.00,2.23
9721.00,2.23
9720.00,2.23
9719.00,2.23
9718.00,2.23
9717.00,2.23
9716.00,2.23
9715.00,2.23
9714.00,2.23
9713.00,2.23
9712.00,2.23
9711.00,2.23
9710.00,2.23
9709.00,2.23
9708.00,2.23
9707.00,2.23
9706.00,2.23
9705.00,2.23
9704.00,2.23
9703.00,2.22
9702.00,2.22
9701.00,2.22
9700.00,2.22
9699.00,2.22
9698.00,2.22
9697.00,2.22
9696.00,2.23
9695.00,2.23
9694.00,2.23
9693.00,2.23
9692.00,2.24
9691.00,2.24
9690.00,2.24
9689.00,2.25
9688.00,2.25
9687.00,2.25
9686.00,2.25
9685.00,2.26
9684.00,2.26
9683.00,2.26
9682.00,2.26
9681.00,2.26
9680.00,2.26
9679.00,2.26
9678.00,2.26
9677.00,2.25
9676.00,2.25
9675.00,2.25
9674.00,2.25
9673.00,2.24
9672.00,2.24
9671.00,2.24
9670.00,2.24
9669.00,2.24
9668.00,2.24
9667.00,2.24
9666.00,2.24
9665.00,2.24
9664.00,2.24
9663.00,2.24
9662.00,2.24
9661.00,2.24
9660.00,2.24
9659.00,2.24
9658.00,2.25
9657.00,2.25
9656.00,2.25
9655.00,2.25
9654.00,2.25
9653.00,2.25
9652.00,2.25
9651.00,2.25
9650.00,2.25
9649.00,2.25
9648.00,2.25
9647.00,2.25
9646.00,2.25
9645.00,2.25
9644.00,2.25
9643.00,2.25
9642.00,2.25
9641.00,2.24
9640.00,2.24
9639.00,2.24
9638.00,2.24
9637.00,2.24
9636.00,2.23
9635.00,2.23
9634.00,2.23
9633.00,2.23
9632.00,2.23
9631.00,2.23
9630.00,2.23
9629.00,2.23
9628.00,2.23
9627.00,2.23
9626.00,2.23
9625.00,2.24
9624.00,2.24
9623.00,2.24
9622.00,2.24
9621.00,2.25
9620.00,2.25
9619.00,2.25
9618.00,2.25
9617.00,2.25
9616.00,2.25
9615.00,2.26
9614.00,2.26
9613.00,2.26
9612.00,2.26
9611.00,2.26
9610.00,2.26
9609.00,2.26
9608.00,2.26
9607.00,2.26
9606.00,2.26
9605.00,2.26
9604.00,2.26
9603.00,2.26
9602.00,2.26
9601.00,2.26
9600.00,2.25
9599.00,2.25
9598.00,2.25
9597.00,2.25
9596.00,2.25
9595.00,2.25
9594.00,2.25
9593.00,2.25
9592.00,2.24
9591.00,2.24
9590.00,2.24
9589.00,2.24
9588.00,2.24
9587.00,2.24
9586.00,2.23
9585.00,2.23
9584.00,2.23
9583.00,2.23
9582.00,2.23
9581.00,2.23
9580.00,2.23
9579.00,2.23
9578.00,2.23
9577.00,2.24
9576.00,2.24
9575.00,2.24
9574.00,2.24
9573.00,2.24
9572.00,2.25
9571.00,2.25
9570.00,2.25
9569.00,2.26
9568.00,2.26
9567.00,2.26
9566.00,2.26
9565.00,2.26
9564.00,2.27
9563.00,2.27
9562.00,2.27
9561.00,2.27
9560.00,2.27
9559.00,2.27
9558.00,2.27
9557.00,2.27
9556.00,2.27
9555.00,2.27
9554.00,2.27
9553.00,2.27
9552.00,2.27
9551.00,2.27
9550.00,2.27
9549.00,2.27
9548.00,2.27
9547.00,2.27
9546.00,2.27
9545.00,2.27
9544.00,2.27
9543.00,2.27
9542.00,2.27
9541.00,2.27
9540.00,2.27
9539.00,2.27
9538.00,2.26
9537.00,2.26
9536.00,2.26
9535.00,2.26
9534.00,2.26
9533.00,2.26
9532.00,2.26
9531.00,2.26
9530.00,2.26
9529.00,2.25
9528.00,2.25
9527.00,2.25
9526.00,2.25
9525.00,2.25
9524.00,2.25
9523.00,2.25
9522.00,2.25
9521.00,2.24
9520.00,2.24
9519.00,2.24
9518.00,2.24
9517.00,2.24
9516.00,2.24
9515.00,2.23
9514.00,2.23
9513.00,2.23
9512.00,2.23
9511.00,2.23
9510.00,2.22
9509.00,2.22
9508.00,2.22
9507.00,2.22
9506.00,2.22
9505.00,2.22
9504.00,2.22
9503.00,2.22
9502.00,2.22
9501.00,2.22
9500.00,2.22
9499.00,2.22
9498.00,2.22
9497.00,2.22
9496.00,2.22
9495.00,2.22
9494.00,2.22
9493.00,2.21
9492.00,2.21
9491.00,2.21
9490.00,2.21
9489.00,2.21
9488.00,2.21
9487.00,2.21
9486.00,2.21
9485.00,2.21
9484.00,2.21
9483.00,2.21
9482.00,2.21
9481.00,2.21
9480.00,2.21
9479.00,2.21
9478.00,2.21
9477.00,2.22
9476.00,2.22
9475.00,2.22
9474.00,2.22
9473.00,2.22
9472.00,2.23
9471.00,2.23
9470.00,2.23
9469.00,2.23
9468.00,2.24
9467.00,2.24
9466.00,2.24
9465.00,2.25
9464.00,2.25
9463.00,2.25
9462.00,2.26
9461.00,2.26
9460.00,2.26
9459.00,2.26
9458.00,2.27
9457.00,2.27
9456.00,2.27
9455.00,2.27
9454.00,2.27
9453.00,2.27
9452.00,2.27
9451.00,2.28
9450.00,2.28
9449.00,2.28
9448.00,2.28
9447.00,2.28
9446.00,2.28
9445.00,2.28
9444.00,2.28
9443.00,2.28
9442.00,2.28
9441.00,2.28
9440.00,2.27
9439.00,2.27
9438.00,2.27
9437.00,2.27
9436.00,2.27
9435.00,2.27
9434.00,2.27
9433.00,2.27
9432.00,2.27
9431.00,2.26
9430.00,2.26
9429.00,2.26
9428.00,2.26
9427.00,2.26
9426.00,2.25
9425.00,2.25
9424.00,2.25
9423.00,2.25
9422.00,2.25
9421.00,2.24
9420.00,2.24
9419.00,2.24
9418.00,2.24
9417.00,2.24
9416.00,2.24
9415.00,2.24
9414.00,2.24
9413.00,2.24
9412.00,2.24
9411.00,2.24
9410.00,2.24
9409.00,2.24
9408.00,2.24
9407.00,2.24
9406.00,2.25
9405.00,2.25
9404.00,2.25
9403.00,2.25
9402.00,2.25
9401.00,2.26
9400.00,2.26
9399.00,2.26
9398.00,2.26
9397.00,2.26
9396.00,2.26
9395.00,2.27
9394.00,2.27
9393.00,2.27
9392.00,2.27
9391.00,2.27
9390.00,2.27
9389.00,2.27
9388.00,2.26
9387.00,2.26
9386.00,2.26
9385.00,2.26
9384.00,2.26
9383.00,2.26
9382.00,2.26
9381.00,2.25
9380.00,2.25
9379.00,2.25
9378.00,2.25
9377.00,2.25
9376.00,2.25
9375.00,2.25
9374.00,2.25
9373.00,2.25
9372.00,2.25
9371.00,2.25
9370.00,2.25
9369.00,2.25
9368.00,2.25
9367.00,2.26
9366.00,2.26
9365.00,2.26
9364.00,2.26
9363.00,2.26
9362.00,2.26
9361.00,2.26
9360.00,2.26
9359.00,2.26
9358.00,2.26
9357.00,2.26
9356.00,2.26
9355.00,2.26
9354.00,2.26
9353.00,2.26
9352.00,2.26
9351.00,2.26
9350.00,2.26
9349.00,2.25
9348.00,2.25
9347.00,2.25
9346.00,2.25
9345.00,2.25
9344.00,2.25
9343.00,2.25
9342.00,2.25
9341.00,2.25
9340.00,2.25
9339.00,2.25
9338.00,2.25
9337.00,2.25
9336.00,2.25
9335.00,2.25
9334.00,2.25
9333.00,2.25
9332.00,2.25
9331.00,2.24
9330.00,2.24
9329.00,2.24
9328.00,2.24
9327.00,2.24
9326.00,2.24
9325.00,2.24
9324.00,2.24
9323.00,2.24
9322.00,2.24
9321.00,2.24
9320.00,2.24
9319.00,2.24
9318.00,2.25
9317.00,2.25
9316.00,2.25
9315.00,2.25
9314.00,2.25
9313.00,2.25
9312.00,2.26
9311.00,2.26
9310.00,2.26
9309.00,2.26
9308.00,2.26
9307.00,2.26
9306.00,2.26
9305.00,2.26
9304.00,2.26
9303.00,2.26
9302.00,2.26
9301.00,2.26
9300.00,2.25
9299.00,2.25
9298.00,2.25
9297.00,2.25
9296.00,2.25
9295.00,2.25
9294.00,2.25
9293.00,2.25
9292.00,2.25
9291.00,2.25
9290.00,2.25
9289.00,2.25
9288.00,2.25
9287.00,2.25
9286.00,2.25
9285.00,2.25
9284.00,2.25
9283.00,2.25
9282.00,2.25
9281.00,2.25
9280.00,2.25
9279.00,2.25
9278.00,2.25
9277.00,2.25
9276.00,2.25
9275.00,2.25
9274.00,2.25
9273.00,2.25
9272.00,2.25
9271.00,2.25
9270.00,2.25
9269.00,2.25
9268.00,2.25
9267.00,2.25
9266.00,2.25
9265.00,2.25
9264.00,2.25
9263.00,2.25
9262.00,2.25
9261.00,2.25
9260.00,2.25
9259.00,2.25
9258.00,2.25
9257.00,2.25
9256.00,2.25
9255.00,2.25
9254.00,2.26
9253.00,2.26
9252.00,2.26
9251.00,2.26
9250.00,2.26
9249.00,2.26
9248.00,2.26
9247.00,2.26
9246.00,2.26
9245.00,2.27
9244.00,2.26
9243.00,2.26
9242.00,2.26
9241.00,2.26
9240.00,2.26
9239.00,2.26
9238.00,2.26
9237.00,2.26
9236.00,2.25
9235.00,2.25
9234.00,2.25
9233.00,2.25
9232.00,2.25
9231.00,2.25
9230.00,2.25
9229.00,2.24
9228.00,2.24
9227.00,2.24
9226.00,2.24
9225.00,2.24
9224.00,2.25
9223.00,2.25
9222.00,2.25
9221.00,2.25
9220.00,2.25
9219.00,2.25
9218.00,2.25
9217.00,2.25
9216.00,2.25
9215.00,2.26
9214.00,2.26
9213.00,2.26
9212.00,2.26
9211.00,2.26
9210.00,2.26
9209.00,2.26
9208.00,2.27
9207.00,2.27
9206.00,2.27
9205.00,2.27
9204.00,2.27
9203.00,2.27
9202.00,2.27
9201.00,2.27
9200.00,2.28
9199.00,2.28
9198.00,2.28
9197.00,2.28
9196.00,2.27
9195.00,2.27
9194.00,2.27
9193.00,2.27
9192.00,2.27
9191.00,2.27
9190.00,2.26
9189.00,2.26
9188.00,2.26
9187.00,2.26
9186.00,2.26
9185.00,2.26
9184.00,2.25
9183.00,2.25
9182.00,2.25
9181.00,2.25
9180.00,2.25
9179.00,2.25
9178.00,2.25
9177.00,2.25
9176.00,2.25
9175.00,2.25
9174.00,2.25
9173.00,2.25
9172.00,2.25
9171.00,2.25
9170.00,2.25
9169.00,2.25
9168.00,2.25
9167.00,2.25
9166.00,2.24
9165.00,2.24
9164.00,2.24
9163.00,2.24
9162.00,2.24
9161.00,2.24
9160.00,2.24
9159.00,2.24
9158.00,2.24
9157.00,2.24
9156.00,2.24
9155.00,2.24
9154.00,2.24
9153.00,2.24
9152.00,2.24
9151.00,2.24
9150.00,2.24
9149.00,2.24
9148.00,2.24
9147.00,2.24
9146.00,2.24
9145.00,2.24
9144.00,2.24
9143.00,2.24
9142.00,2.24
9141.00,2.24
9140.00,2.24
9139.00,2.25
9138.00,2.25
9137.00,2.25
9136.00,2.25
9135.00,2.25
9134.00,2.25
9133.00,2.25
9132.00,2.25
9131.00,2.25
9130.00,2.25
9129.00,2.25
9128.00,2.25
9127.00,2.25
9126.00,2.25
9125.00,2.25
9124.00,2.26
9123.00,2.26
9122.00,2.25
9121.00,2.25
9120.00,2.25
9119.00,2.25
9118.00,2.25
9117.00,2.25
9116.00,2.25
9115.00,2.25
9114.00,2.25
9113.00,2.25
9112.00,2.25
9111.00,2.25
9110.00,2.25
9109.00,2.25
9108.00,2.25
9107.00,2.25
9106.00,2.25
9105.00,2.25
9104.00,2.25
9103.00,2.25
9102.00,2.25
9101.00,2.25
9100.00,2.25
9099.00,2.25
9098.00,2.25
9097.00,2.25
9096.00,2.24
9095.00,2.24
9094.00,2.24
9093.00,2.24
9092.00,2.24
9091.00,2.24
9090.00,2.24
9089.00,2.24
9088.00,2.24
9087.00,2.24
9086.00,2.24
9085.00,2.24
9084.00,2.25
9083.00,2.25
9082.00,2.25
9081.00,2.25
9080.00,2.25
9079.00,2.26
9078.00,2.26
9077.00,2.26
9076.00,2.26
9075.00,2.26
9074.00,2.26
9073.00,2.26
9072.00,2.26
9071.00,2.26
9070.00,2.26
9069.00,2.26
9068.00,2.26
9067.00,2.27
9066.00,2.27
9065.00,2.27
9064.00,2.27
9063.00,2.27
9062.00,2.27
9061.00,2.27
9060.00,2.27
9059.00,2.27
9058.00,2.27
9057.00,2.27
9056.00,2.27
9055.00,2.27
9054.00,2.27
9053.00,2.27
9052.00,2.27
9051.00,2.27
9050.00,2.27
9049.00,2.27
9048.00,2.26
9047.00,2.26
9046.00,2.26
9045.00,2.26
9044.00,2.26
9043.00,2.26
9042.00,2.25
9041.00,2.25
9040.00,2.25
9039.00,2.25
9038.00,2.25
9037.00,2.25
9036.00,2.25
9035.00,2.25
9034.00,2.25
9033.00,2.26
9032.00,2.26
9031.00,2.26
9030.00,2.26
9029.00,2.26
9028.00,2.26
9027.00,2.26
9026.00,2.26
9025.00,2.26
9024.00,2.26
9023.00,2.26
9022.00,2.26
9021.00,2.25
9020.00,2.25
9019.00,2.25
9018.00,2.25
9017.00,2.25
9016.00,2.25
9015.00,2.25
9014.00,2.25
9013.00,2.25
9012.00,2.25
9011.00,2.25
9010.00,2.25
9009.00,2.25
9008.00,2.25
9007.00,2.25
9006.00,2.25
9005.00,2.25
9004.00,2.25
9003.00,2.25
9002.00,2.25
9001.00,2.26
9000.00,2.26
8999.00,2.26
8998.00,2.26
8997.00,2.26
8996.00,2.26
8995.00,2.26
8994.00,2.26
8993.00,2.25
8992.00,2.25
8991.00,2.25
8990.00,2.25
8989.00,2.25
8988.00,2.25
8987.00,2.25
8986.00,2.24
8985.00,2.24
8984.00,2.24
8983.00,2.24
8982.00,2.24
8981.00,2.24
8980.00,2.24
8979.00,2.24
8978.00,2.24
8977.00,2.24
8976.00,2.24
8975.00,2.24
8974.00,2.24
8973.00,2.23
8972.00,2.23
8971.00,2.23
8970.00,2.23
8969.00,2.23
8968.00,2.23
8967.00,2.23
8966.00,2.23
8965.00,2.23
8964.00,2.23
8963.00,2.24
8962.00,2.24
8961.00,2.24
8960.00,2.24
8959.00,2.24
8958.00,2.24
8957.00,2.24
8956.00,2.24
8955.00,2.24
8954.00,2.25
8953.00,2.25
8952.00,2.25
8951.00,2.25
8950.00,2.25
8949.00,2.25
8948.00,2.26
8947.00,2.26
8946.00,2.26
8945.00,2.26
8944.00,2.26
8943.00,2.26
8942.00,2.26
8941.00,2.26
8940.00,2.26
8939.00,2.26
8938.00,2.26
8937.00,2.26
8936.00,2.26
8935.00,2.26
8934.00,2.26
8933.00,2.26
8932.00,2.26
8931.00,2.26
8930.00,2.26
8929.00,2.26
8928.00,2.26
8927.00,2.26
8926.00,2.26
8925.00,2.26
8924.00,2.26
8923.00,2.25
8922.00,2.25
8921.00,2.25
8920.00,2.25
8919.00,2.25
8918.00,2.25
8917.00,2.25
8916.00,2.25
8915.00,2.25
8914.00,2.25
8913.00,2.25
8912.00,2.25
8911.00,2.25
8910.00,2.25
8909.00,2.26
8908.00,2.26
8907.00,2.26
8906.00,2.26
8905.00,2.26
8904.00,2.26
8903.00,2.26
8902.00,2.27
8901.00,2.27
8900.00,2.27
8899.00,2.27
8898.00,2.27
8897.00,2.27
8896.00,2.27
8895.00,2.27
8894.00,2.28
8893.00,2.28
8892.00,2.28
8891.00,2.28
8890.00,2.28
8889.00,2.28
8888.00,2.28
8887.00,2.28
8886.00,2.27
8885.00,2.27
8884.00,2.27
8883.00,2.27
8882.00,2.27
8881.00,2.27
8880.00,2.27
8879.00,2.26
8878.00,2.26
8877.00,2.26
8876.00,2.26
8875.00,2.26
8874.00,2.26
8873.00,2.25
8872.00,2.25
8871.00,2.25
8870.00,2.25
8869.00,2.25
8868.00,2.25
8867.00,2.25
8866.00,2.25
8865.00,2.25
8864.00,2.25
8863.00,2.25
8862.00,2.25
8861.00,2.25
8860.00,2.25
8859.00,2.25
8858.00,2.25
8857.00,2.25
8856.00,2.25
8855.00,2.25
8854.00,2.25
8853.00,2.25
8852.00,2.25
8851.00,2.25
8850.00,2.25
8849.00,2.25
8848.00,2.25
8847.00,2.25
8846.00,2.25
8845.00,2.25
8844.00,2.25
8843.00,2.25
8842.00,2.25
8841.00,2.25
8840.00,2.25
8839.00,2.24
8838.00,2.24
8837.00,2.24
8836.00,2.24
8835.00,2.24
8834.00,2.24
8833.00,2.24
8832.00,2.24
8831.00,2.24
8830.00,2.24
8829.00,2.23
8828.00,2.23
8827.00,2.23
8826.00,2.23
8825.00,2.23
8824.00,2.23
8823.00,2.23
8822.00,2.23
8821.00,2.23
8820.00,2.23
8819.00,2.22
8818.00,2.22
8817.00,2.22
8816.00,2.22
8815.00,2.22
8814.00,2.22
8813.00,2.22
8812.00,2.22
8811.00,2.21
8810.00,2.21
8809.00,2.21
8808.00,2.21
8807.00,2.21
8806.00,2.21
8805.00,2.20
8804.00,2.20
8803.00,2.20
8802.00,2.20
8801.00,2.20
8800.00,2.20
8799.00,2.20
8798.00,2.19
8797.00,2.19
8796.00,2.19
8795.00,2.19
8794.00,2.19
8793.00,2.19
8792.00,2.19
8791.00,2.19
8790.00,2.19
8789.00,2.19
8788.00,2.20
8787.00,2.20
8786.00,2.20
8785.00,2.20
8784.00,2.20
8783.00,2.20
8782.00,2.20
8781.00,2.20
8780.00,2.20
8779.00,2.20
8778.00,2.21
8777.00,2.21
8776.00,2.21
8775.00,2.21
8774.00,2.21
8773.00,2.21
8772.00,2.20
8771.00,2.20
8770.00,2.20
8769.00,2.20
8768.00,2.20
8767.00,2.20
8766.00,2.20
8765.00,2.19
8764.00,2.19
8763.00,2.19
8762.00,2.19
8761.00,2.18
8760.00,2.18
8759.00,2.18
8758.00,2.18
8757.00,2.18
8756.00,2.18
8755.00,2.18
8754.00,2.17
8753.00,2.17
8752.00,2.17
8751.00,2.17
8750.00,2.17
8749.00,2.17
8748.00,2.17
8747.00,2.17
8746.00,2.17
8745.00,2.17
8744.00,2.17
8743.00,2.17
8742.00,2.17
8741.00,2.17
8740.00,2.17
8739.00,2.17
8738.00,2.17
8737.00,2.17
8736.00,2.17
8735.00,2.17
8734.00,2.17
8733.00,2.16
8732.00,2.16
8731.00,2.16
8730.00,2.16
8729.00,2.16
8728.00,2.16
8727.00,2.16
8726.00,2.16
8725.00,2.16
8724.00,2.15
8723.00,2.15
8722.00,2.15
8721.00,2.15
8720.00,2.15
8719.00,2.15
8718.00,2.15
8717.00,2.15
8716.00,2.16
8715.00,2.16
8714.00,2.16
8713.00,2.16
8712.00,2.16
8711.00,2.16
8710.00,2.16
8709.00,2.16
8708.00,2.16
8707.00,2.16
8706.00,2.16
8705.00,2.16
8704.00,2.16
8703.00,2.16
8702.00,2.16
8701.00,2.16
8700.00,2.16
8699.00,2.15
8698.00,2.15
8697.00,2.15
8696.00,2.15
8695.00,2.15
8694.00,2.15
8693.00,2.15
8692.00,2.15
8691.00,2.15
8690.00,2.15
8689.00,2.15
8688.00,2.15
8687.00,2.15
8686.00,2.14
8685.00,2.14
8684.00,2.14
8683.00,2.14
8682.00,2.14
8681.00,2.14
8680.00,2.14
8679.00,2.14
8678.00,2.14
8677.00,2.14
8676.00,2.14
8675.00,2.14
8674.00,2.14
8673.00,2.14
8672.00,2.14
8671.00,2.13
8670.00,2.13
8669.00,2.13
8668.00,2.13
8667.00,2.13
8666.00,2.13
8665.00,2.13
8664.00,2.12
8663.00,2.12
8662.00,2.12
8661.00,2.12
8660.00,2.12
8659.00,2.12
8658.00,2.12
8657.00,2.12
8656.00,2.12
8655.00,2.12
8654.00,2.12
8653.00,2.12
8652.00,2.12
8651.00,2.12
8650.00,2.12
8649.00,2.12
8648.00,2.12
8647.00,2.12
8646.00,2.12
8645.00,2.12
8644.00,2.12
8643.00,2.12
8642.00,2.12
8641.00,2.12
8640.00,2.12
8639.00,2.12
8638.00,2.12
8637.00,2.12
8636.00,2.12
8635.00,2.12
8634.00,2.12
8633.00,2.12
8632.00,2.12
8631.00,2.12
8630.00,2.11
8629.00,2.11
8628.00,2.11
8627.00,2.11
8626.00,2.11
8625.00,2.11
8624.00,2.11
8623.00,2.10
8622.00,2.10
8621.00,2.10
8620.00,2.10
8619.00,2.10
8618.00,2.10
8617.00,2.10
8616.00,2.10
8615.00,2.09
8614.00,2.09
8613.00,2.09
8612.00,2.09
8611.00,2.09
8610.00,2.09
8609.00,2.09
8608.00,2.09
8607.00,2.09
8606.00,2.09
8605.00,2.09
8604.00,2.09
8603.00,2.09
8602.00,2.09
8601.00,2.09
8600.00,2.09
8599.00,2.09
8598.00,2.09
8597.00,2.09
8596.00,2.09
8595.00,2.09
8594.00,2.09
8593.00,2.09
8592.00,2.09
8591.00,2.09
8590.00,2.09
8589.00,2.09
8588.00,2.09
8587.00,2.09
8586.00,2.08
8585.00,2.08
8584.00,2.08
8583.00,2.08
8582.00,2.08
8581.00,2.08
8580.00,2.08
8579.00,2.08
8578.00,2.08
8577.00,2.08
8576.00,2.07
8575.00,2.07
8574.00,2.07
8573.00,2.07
8572.00,2.07
8571.00,2.07
8570.00,2.07
8569.00,2.07
8568.00,2.07
8567.00,2.07
8566.00,2.07
8565.00,2.07
8564.00,2.07
8563.00,2.07
8562.00,2.07
8561.00,2.07
8560.00,2.07
8559.00,2.07
8558.00,2.07
8557.00,2.06
8556.00,2.06
8555.00,2.06
8554.00,2.06
8553.00,2.06
8552.00,2.06
8551.00,2.06
8550.00,2.06
8549.00,2.06
8548.00,2.06
8547.00,2.05
8546.00,2.05
8545.00,2.05
8544.00,2.05
8543.00,2.05
8542.00,2.05
8541.00,2.05
8540.00,2.05
8539.00,2.05
8538.00,2.05
8537.00,2.05
8536.00,2.05
8535.00,2.05
8534.00,2.05
8533.00,2.05
8532.00,2.05
8531.00,2.04
8530.00,2.04
8529.00,2.04
8528.00,2.04
8527.00,2.04
8526.00,2.04
8525.00,2.04
8524.00,2.03
8523.00,2.03
8522.00,2.03
8521.00,2.03
8520.00,2.03
8519.00,2.03
8518.00,2.03
8517.00,2.03
8516.00,2.03
8515.00,2.03
8514.00,2.03
8513.00,2.02
8512.00,2.02
8511.00,2.02
8510.00,2.02
8509.00,2.02
8508.00,2.02
8507.00,2.02
8506.00,2.02
8505.00,2.02
8504.00,2.01
8503.00,2.01
8502.00,2.01
8501.00,2.01
8500.00,2.01
8499.00,2.01
8498.00,2.01
8497.00,2.01
8496.00,2.01
8495.00,2.01
8494.00,2.01
8493.00,2.01
8492.00,2.01
8491.00,2.01
8490.00,2.01
8489.00,2.01
8488.00,2.01
8487.00,2.01
8486.00,2.01
8485.00,2.01
8484.00,2.01
8483.00,2.01
8482.00,2.01
8481.00,2.01
8480.00,2.00
8479.00,2.00
8478.00,2.00
8477.00,2.00
8476.00,2.00
8475.00,2.00
8474.00,2.00
8473.00,2.00
8472.00,2.00
8471.00,2.00
8470.00,2.00
8469.00,2.00
8468.00,2.00
8467.00,2.00
8466.00,2.00
8465.00,2.00
8464.00,2.00
8463.00,2.00
8462.00,2.00
8461.00,2.00
8460.00,2.00
8459.00,2.00
8458.00,1.99
8457.00,1.99
8456.00,1.99
8455.00,1.99
8454.00,1.99
8453.00,1.99
8452.00,1.99
8451.00,1.98
8450.00,1.98
8449.00,1.98
8448.00,1.98
8447.00,1.98
8446.00,1.98
8445.00,1.98
8444.00,1.98
8443.00,1.97
8442.00,1.97
8441.00,1.97
8440.00,1.97
8439.00,1.97
8438.00,1.97
8437.00,1.98
8436.00,1.98
8435.00,1.98
8434.00,1.98
8433.00,1.98
8432.00,1.98
8431.00,1.98
8430.00,1.98
8429.00,1.98
8428.00,1.98
8427.00,1.98
8426.00,1.98
8425.00,1.98
8424.00,1.98
8423.00,1.98
8422.00,1.98
8421.00,1.98
8420.00,1.99
8419.00,1.99
8418.00,1.99
8417.00,1.99
8416.00,1.99
8415.00,1.99
8414.00,1.99
8413.00,1.99
8412.00,2.00
8411.00,2.00
8410.00,2.00
8409.00,2.00
8408.00,2.00
8407.00,2.00
8406.00,2.00
8405.00,2.01
8404.00,2.01
8403.00,2.01
8402.00,2.01
8401.00,2.01
8400.00,2.01
8399.00,2.01
8398.00,2.01
8397.00,2.01
8396.00,2.02
8395.00,2.02
8394.00,2.02
8393.00,2.02
8392.00,2.02
8391.00,2.02
8390.00,2.02
8389.00,2.02
8388.00,2.02
8387.00,2.02
8386.00,2.02
8385.00,2.02
8384.00,2.02
8383.00,2.02
8382.00,2.02
8381.00,2.02
8380.00,2.02
8379.00,2.02
8378.00,2.02
8377.00,2.02
8376.00,2.02
8375.00,2.02
8374.00,2.02
8373.00,2.02
8372.00,2.02
8371.00,2.03
8370.00,2.03
8369.00,2.03
8368.00,2.03
8367.00,2.03
8366.00,2.04
8365.00,2.04
8364.00,2.04
8363.00,2.04
8362.00,2.04
8361.00,2.04
8360.00,2.04
8359.00,2.05
8358.00,2.05
8357.00,2.05
8356.00,2.05
8355.00,2.05
8354.00,2.05
8353.00,2.05
8352.00,2.05
8351.00,2.05
8350.00,2.05
8349.00,2.05
8348.00,2.05
8347.00,2.05
8346.00,2.05
8345.00,2.05
8344.00,2.05
8343.00,2.05
8342.00,2.05
8341.00,2.05
8340.00,2.04
8339.00,2.04
8338.00,2.04
8337.00,2.04
8336.00,2.04
8335.00,2.04
8334.00,2.04
8333.00,2.04
8332.00,2.04
8331.00,2.04
8330.00,2.04
8329.00,2.04
8328.00,2.04
8327.00,2.04
8326.00,2.04
8325.00,2.04
8324.00,2.04
8323.00,2.04
8322.00,2.04
8321.00,2.04
8320.00,2.04
8319.00,2.04
8318.00,2.04
8317.00,2.04
8316.00,2.04
8315.00,2.04
8314.00,2.04
8313.00,2.04
8312.00,2.04
8311.00,2.05
8310.00,2.05
8309.00,2.05
8308.00,2.05
8307.00,2.05
8306.00,2.05
8305.00,2.05
8304.00,2.05
8303.00,2.05
8302.00,2.05
8301.00,2.05
8300.00,2.05
8299.00,2.05
8298.00,2.05
8297.00,2.05
8296.00,2.05
8295.00,2.05
8294.00,2.05
8293.00,2.05
8292.00,2.05
8291.00,2.05
8290.00,2.05
8289.00,2.05
8288.00,2.05
8287.00,2.05
8286.00,2.05
8285.00,2.05
8284.00,2.06
8283.00,2.06
8282.00,2.06
8281.00,2.06
8280.00,2.06
8279.00,2.07
8278.00,2.07
8277.00,2.07
8276.00,2.07
8275.00,2.07
8274.00,2.07
8273.00,2.07
8272.00,2.07
8271.00,2.07
8270.00,2.07
8269.00,2.07
8268.00,2.07
8267.00,2.07
8266.00,2.07
8265.00,2.07
8264.00,2.07
8263.00,2.07
8262.00,2.07
8261.00,2.07
8260.00,2.07
8259.00,2.07
8258.00,2.07
8257.00,2.07
8256.00,2.07
8255.00,2.07
8254.00,2.07
8253.00,2.07
8252.00,2.07
8251.00,2.08
8250.00,2.08
8249.00,2.08
8248.00,2.08
8247.00,2.08
8246.00,2.08
8245.00,2.08
8244.00,2.08
8243.00,2.08
8242.00,2.08
8241.00,2.09
8240.00,2.09
8239.00,2.09
8238.00,2.09
8237.00,2.09
8236.00,2.09
8235.00,2.09
8234.00,2.10
8233.00,2.10
8232.00,2.10
8231.00,2.10
8230.00,2.10
8229.00,2.10
8228.00,2.10
8227.00,2.10
8226.00,2.11
8225.00,2.11
8224.00,2.11
8223.00,2.11
8222.00,2.11
8221.00,2.11
8220.00,2.11
8219.00,2.11
8218.00,2.11
8217.00,2.11
8216.00,2.11
8215.00,2.11
8214.00,2.11
8213.00,2.11
8212.00,2.11
8211.00,2.11
8210.00,2.11
8209.00,2.11
8208.00,2.11
8207.00,2.11
8206.00,2.11
8205.00,2.11
8204.00,2.11
8203.00,2.11
8202.00,2.11
8201.00,2.11
8200.00,2.11
8199.00,2.11
8198.00,2.11
8197.00,2.11
8196.00,2.11
8195.00,2.11
8194.00,2.11
8193.00,2.11
8192.00,2.11
8191.00,2.11
8190.00,2.12
8189.00,2.12
8188.00,2.12
8187.00,2.12
8186.00,2.12
8185.00,2.12
8184.00,2.12
8183.00,2.12
8182.00,2.12
8181.00,2.12
8180.00,2.12
8179.00,2.12
8178.00,2.12
8177.00,2.12
8176.00,2.12
8175.00,2.12
8174.00,2.12
8173.00,2.12
8172.00,2.12
8171.00,2.12
8170.00,2.12
8169.00,2.12
8168.00,2.12
8167.00,2.12
8166.00,2.12
8165.00,2.12
8164.00,2.12
8163.00,2.12
8162.00,2.13
8161.00,2.13
8160.00,2.13
8159.00,2.13
8158.00,2.13
8157.00,2.13
8156.00,2.13
8155.00,2.13
8154.00,2.13
8153.00,2.13
8152.00,2.14
8151.00,2.14
8150.00,2.14
8149.00,2.14
8148.00,2.14
8147.00,2.14
8146.00,2.14
8145.00,2.14
8144.00,2.15
8143.00,2.15
8142.00,2.15
8141.00,2.15
8140.00,2.15
8139.00,2.15
8138.00,2.15
8137.00,2.15
8136.00,2.15
8135.00,2.15
8134.00,2.15
8133.00,2.15
8132.00,2.15
8131.00,2.15
8130.00,2.15
8129.00,2.15
8128.00,2.15
8127.00,2.15
8126.00,2.15
8125.00,2.15
8124.00,2.15
8123.00,2.15
8122.00,2.15
8121.00,2.15
8120.00,2.15
8119.00,2.15
8118.00,2.15
8117.00,2.15
8116.00,2.15
8115.00,2.15
8114.00,2.15
8113.00,2.15
8112.00,2.15
8111.00,2.15
8110.00,2.15
8109.00,2.15
8108.00,2.15
8107.00,2.15
8106.00,2.15
8105.00,2.15
8104.00,2.15
8103.00,2.16
8102.00,2.16
8101.00,2.16
8100.00,2.16
8099.00,2.16
8098.00,2.16
8097.00,2.17
8096.00,2.17
8095.00,2.17
8094.00,2.17
8093.00,2.17
8092.00,2.17
8091.00,2.17
8090.00,2.17
8089.00,2.17
8088.00,2.17
8087.00,2.17
8086.00,2.17
8085.00,2.18
8084.00,2.18
8083.00,2.18
8082.00,2.18
8081.00,2.18
8080.00,2.18
8079.00,2.18
8078.00,2.18
8077.00,2.18
8076.00,2.18
8075.00,2.18
8074.00,2.18
8073.00,2.18
8072.00,2.18
8071.00,2.18
8070.00,2.19
8069.00,2.19
8068.00,2.19
8067.00,2.19
8066.00,2.19
8065.00,2.19
8064.00,2.19
8063.00,2.19
8062.00,2.19
8061.00,2.19
8060.00,2.19
8059.00,2.19
8058.00,2.19
8057.00,2.19
8056.00,2.19
8055.00,2.19
8054.00,2.19
8053.00,2.19
8052.00,2.19
8051.00,2.19
8050.00,2.19
8049.00,2.19
8048.00,2.19
8047.00,2.19
8046.00,2.19
8045.00,2.18
8044.00,2.18
8043.00,2.18
8042.00,2.18
8041.00,2.18
8040.00,2.18
8039.00,2.18
8038.00,2.18
8037.00,2.19
8036.00,2.19
8035.00,2.19
8034.00,2.19
8033.00,2.19
8032.00,2.19
8031.00,2.19
8030.00,2.19
8029.00,2.19
8028.00,2.19
8027.00,2.19
8026.00,2.19
8025.00,2.19
8024.00,2.19
8023.00,2.19
8022.00,2.19
8021.00,2.19
8020.00,2.19
8019.00,2.19
8018.00,2.19
8017.00,2.19
8016.00,2.19
8015.00,2.19
8014.00,2.19
8013.00,2.19
8012.00,2.19
8011.00,2.19
8010.00,2.19
8009.00,2.19
8008.00,2.19
8007.00,2.19
8006.00,2.19
8005.00,2.19
8004.00,2.19
8003.00,2.19
8002.00,2.19
8001.00,2.19
8000.00,2.20
7999.00,2.20
7998.00,2.20
7997.00,2.20
7996.00,2.20
7995.00,2.20
7994.00,2.20
7993.00,2.20
7992.00,2.20
7991.00,2.20
7990.00,2.20
7989.00,2.20
7988.00,2.20
7987.00,2.20
7986.00,2.20
7985.00,2.20
7984.00,2.21
7983.00,2.21
7982.00,2.21
7981.00,2.21
7980.00,2.21
7979.00,2.21
7978.00,2.21
7977.00,2.21
7976.00,2.21
7975.00,2.21
7974.00,2.21
7973.00,2.22
7972.00,2.22
7971.00,2.22
7970.00,2.22
7969.00,2.22
7968.00,2.22
7967.00,2.22
7966.00,2.22
7965.00,2.22
7964.00,2.22
7963.00,2.22
7962.00,2.22
7961.00,2.22
7960.00,2.22
7959.00,2.22
7958.00,2.22
7957.00,2.22
7956.00,2.22
7955.00,2.22
7954.00,2.22
7953.00,2.22
7952.00,2.22
7951.00,2.22
7950.00,2.22
7949.00,2.22
7948.00,2.22
7947.00,2.22
7946.00,2.22
7945.00,2.22
7944.00,2.22
7943.00,2.22
7942.00,2.22
7941.00,2.22
7940.00,2.22
7939.00,2.22
7938.00,2.22
7937.00,2.22
7936.00,2.22
7935.00,2.22
7934.00,2.22
7933.00,2.22
7932.00,2.22
7931.00,2.22
7930.00,2.22
7929.00,2.22
7928.00,2.23
7927.00,2.23
7926.00,2.23
7925.00,2.23
7924.00,2.23
7923.00,2.23
7922.00,2.23
7921.00,2.23
7920.00,2.23
7919.00,2.23
7918.00,2.23
7917.00,2.23
7916.00,2.23
7915.00,2.23
7914.00,2.24
7913.00,2.24
7912.00,2.24
7911.00,2.24
7910.00,2.24
7909.00,2.24
7908.00,2.24
7907.00,2.24
7906.00,2.24
7905.00,2.24
7904.00,2.24
7903.00,2.24
7902.00,2.24
7901.00,2.24
7900.00,2.24
7899.00,2.24
7898.00,2.24
7897.00,2.24
7896.00,2.24
7895.00,2.24
7894.00,2.24
7893.00,2.23
7892.00,2.23
7891.00,2.23
7890.00,2.24
7889.00,2.24
7888.00,2.24
7887.00,2.24
7886.00,2.24
7885.00,2.24
7884.00,2.24
7883.00,2.24
7882.00,2.23
7881.00,2.23
7880.00,2.23
7879.00,2.23
7878.00,2.23
7877.00,2.23
7876.00,2.23
7875.00,2.23
7874.00,2.23
7873.00,2.23
7872.00,2.23
7871.00,2.23
7870.00,2.23
7869.00,2.23
7868.00,2.23
7867.00,2.23
7866.00,2.24
7865.00,2.24
7864.00,2.24
7863.00,2.24
7862.00,2.24
7861.00,2.24
7860.00,2.24
7859.00,2.25
7858.00,2.25
7857.00,2.25
7856.00,2.25
7855.00,2.25
7854.00,2.25
7853.00,2.25
7852.00,2.25
7851.00,2.25
7850.00,2.25
7849.00,2.25
7848.00,2.25
7847.00,2.25
7846.00,2.25
7845.00,2.25
7844.00,2.25
7843.00,2.25
7842.00,2.25
7841.00,2.25
7840.00,2.25
7839.00,2.25
7838.00,2.25
7837.00,2.25
7836.00,2.25
7835.00,2.25
7834.00,2.25
7833.00,2.25
7832.00,2.25
7831.00,2.25
7830.00,2.25
7829.00,2.25
7828.00,2.25
7827.00,2.25
7826.00,2.25
7825.00,2.25
7824.00,2.25
7823.00,2.25
7822.00,2.25
7821.00,2.25
7820.00,2.25
7819.00,2.25
7818.00,2.25
7817.00,2.25
7816.00,2.25
7815.00,2.25
7814.00,2.25
7813.00,2.25
7812.00,2.25
7811.00,2.25
7810.00,2.25
7809.00,2.25
7808.00,2.25
7807.00,2.25
7806.00,2.25
7805.00,2.25
7804.00,2.25
7803.00,2.25
7802.00,2.25
7801.00,2.25
7800.00,2.25
7799.00,2.25
7798.00,2.25
7797.00,2.25
7796.00,2.25
7795.00,2.25
7794.00,2.26
7793.00,2.26
7792.00,2.26
7791.00,2.26
7790.00,2.26
7789.00,2.26
7788.00,2.26
7787.00,2.26
7786.00,2.26
7785.00,2.26
7784.00,2.26
7783.00,2.26
7782.00,2.26
7781.00,2.26
7780.00,2.26
7779.00,2.26
7778.00,2.26
7777.00,2.26
7776.00,2.26
7775.00,2.26
7774.00,2.25
7773.00,2.25
7772.00,2.25
7771.00,2.25
7770.00,2.25
7769.00,2.25
7768.00,2.25
7767.00,2.25
7766.00,2.25
7765.00,2.26
7764.00,2.26
7763.00,2.26
7762.00,2.26
7761.00,2.26
7760.00,2.26
7759.00,2.26
7758.00,2.26
7757.00,2.27
7756.00,2.27
7755.00,2.27
7754.00,2.27
7753.00,2.27
7752.00,2.27
7751.00,2.27
7750.00,2.27
7749.00,2.27
7748.00,2.27
7747.00,2.27
7746.00,2.27
7745.00,2.27
7744.00,2.27
7743.00,2.28
7742.00,2.28
7741.00,2.28
7740.00,2.28
7739.00,2.28
7738.00,2.28
7737.00,2.28
7736.00,2.28
7735.00,2.28
7734.00,2.28
7733.00,2.28
7732.00,2.28
7731.00,2.28
7730.00,2.28
7729.00,2.28
7728.00,2.28
7727.00,2.28
7726.00,2.28
7725.00,2.28
7724.00,2.28
7723.00,2.28
7722.00,2.28
7721.00,2.28
7720.00,2.28
7719.00,2.28
7718.00,2.28
7717.00,2.28
7716.00,2.28
7715.00,2.28
7714.00,2.28
7713.00,2.28
7712.00,2.28
7711.00,2.28
7710.00,2.28
7709.00,2.28
7708.00,2.28
7707.00,2.28
7706.00,2.28
7705.00,2.27
7704.00,2.27
7703.00,2.27
7702.00,2.27
7701.00,2.27
7700.00,2.27
7699.00,2.27
7698.00,2.27
7697.00,2.27
7696.00,2.27
7695.00,2.27
7694.00,2.27
7693.00,2.27
7692.00,2.27
7691.00,2.27
7690.00,2.27
7689.00,2.26
7688.00,2.26
7687.00,2.26
7686.00,2.26
7685.00,2.26
7684.00,2.26
7683.00,2.26
7682.00,2.26
7681.00,2.26
7680.00,2.26
7679.00,2.26
7678.00,2.26
7677.00,2.26
7676.00,2.26
7675.00,2.26
7674.00,2.26
7673.00,2.26
7672.00,2.26
7671.00,2.26
7670.00,2.27
7669.00,2.27
7668.00,2.27
7667.00,2.27
7666.00,2.27
7665.00,2.27
7664.00,2.27
7663.00,2.27
7662.00,2.27
7661.00,2.27
7660.00,2.28
7659.00,2.28
7658.00,2.28
7657.00,2.28
7656.00,2.28
7655.00,2.28
7654.00,2.28
7653.00,2.28
7652.00,2.28
7651.00,2.28
7650.00,2.28
7649.00,2.28
7648.00,2.28
7647.00,2.28
7646.00,2.28
7645.00,2.28
7644.00,2.28
7643.00,2.28
7642.00,2.28
7641.00,2.28
7640.00,2.27
7639.00,2.27
7638.00,2.27
7637.00,2.27
7636.00,2.27
7635.00,2.27
7634.00,2.27
7633.00,2.27
7632.00,2.27
7631.00,2.27
7630.00,2.27
7629.00,2.27
7628.00,2.27
7627.00,2.27
7626.00,2.27
7625.00,2.27
7624.00,2.27
7623.00,2.27
7622.00,2.27
7621.00,2.27
7620.00,2.27
7619.00,2.27
7618.00,2.27
7617.00,2.27
7616.00,2.27
7615.00,2.27
7614.00,2.27
7613.00,2.27
7612.00,2.27
7611.00,2.27
7610.00,2.27
7609.00,2.27
7608.00,2.27
7607.00,2.27
7606.00,2.27
7605.00,2.27
7604.00,2.27
7603.00,2.27
7602.00,2.27
7601.00,2.27
7600.00,2.27
7599.00,2.26
7598.00,2.26
7597.00,2.26
7596.00,2.26
7595.00,2.26
7594.00,2.26
7593.00,2.26
7592.00,2.26
7591.00,2.26
7590.00,2.26
7589.00,2.26
7588.00,2.26
7587.00,2.26
7586.00,2.26
7585.00,2.26
7584.00,2.26
7583.00,2.26
7582.00,2.26
7581.00,2.26
7580.00,2.26
7579.00,2.26
7578.00,2.26
7577.00,2.26
7576.00,2.26
7575.00,2.26
7574.00,2.26
7573.00,2.26
7572.00,2.26
7571.00,2.26
7570.00,2.26
7569.00,2.26
7568.00,2.26
7567.00,2.26
7566.00,2.26
7565.00,2.26
7564.00,2.26
7563.00,2.26
7562.00,2.26
7561.00,2.26
7560.00,2.26
7559.00,2.26
7558.00,2.26
7557.00,2.25
7556.00,2.25
7555.00,2.25
7554.00,2.25
7553.00,2.25
7552.00,2.25
7551.00,2.25
7550.00,2.25
7549.00,2.25
7548.00,2.25
7547.00,2.24
7546.00,2.24
7545.00,2.24
7544.00,2.24
7543.00,2.24
7542.00,2.24
7541.00,2.24
7540.00,2.24
7539.00,2.24
7538.00,2.24
7537.00,2.24
7536.00,2.24
7535.00,2.24
7534.00,2.24
7533.00,2.24
7532.00,2.24
7531.00,2.24
7530.00,2.24
7529.00,2.24
7528.00,2.24
7527.00,2.24
7526.00,2.24
7525.00,2.24
7524.00,2.24
7523.00,2.24
7522.00,2.24
7521.00,2.24
7520.00,2.24
7519.00,2.24
7518.00,2.23
7517.00,2.23
7516.00,2.23
7515.00,2.23
7514.00,2.23
7513.00,2.23
7512.00,2.23
7511.00,2.23
7510.00,2.23
7509.00,2.23
7508.00,2.23
7507.00,2.23
7506.00,2.23
7505.00,2.23
7504.00,2.23
7503.00,2.23
7502.00,2.23
7501.00,2.22
7500.00,2.22
7499.00,2.22
7498.00,2.22
7497.00,2.22
7496.00,2.22
7495.00,2.22
7494.00,2.22
7493.00,2.21
7492.00,2.21
7491.00,2.21
7490.00,2.21
7489.00,2.21
7488.00,2.21
7487.00,2.21
7486.00,2.21
7485.00,2.20
7484.00,2.20
7483.00,2.20
7482.00,2.20
7481.00,2.20
7480.00,2.20
7479.00,2.20
7478.00,2.20
7477.00,2.20
7476.00,2.20
7475.00,2.20
7474.00,2.20
7473.00,2.20
7472.00,2.19
7471.00,2.19
7470.00,2.19
7469.00,2.19
7468.00,2.19
7467.00,2.19
7466.00,2.19
7465.00,2.19
7464.00,2.19
7463.00,2.19
7462.00,2.19
7461.00,2.19
7460.00,2.18
7459.00,2.18
7458.00,2.18
7457.00,2.18
7456.00,2.18
7455.00,2.18
7454.00,2.18
7453.00,2.18
7452.00,2.18
7451.00,2.17
7450.00,2.17
7449.00,2.17
7448.00,2.17
7447.00,2.17
7446.00,2.17
7445.00,2.16
7444.00,2.16
7443.00,2.16
7442.00,2.16
7441.00,2.16
7440.00,2.15
7439.00,2.15
7438.00,2.15
7437.00,2.15
7436.00,2.15
7435.00,2.14
7434.00,2.14
7433.00,2.14
7432.00,2.14
7431.00,2.14
7430.00,2.13
7429.00,2.13
7428.00,2.13
7427.00,2.13
7426.00,2.13
7425.00,2.13
7424.00,2.13
7423.00,2.12
7422.00,2.12
7421.00,2.12
7420.00,2.12
7419.00,2.12
7418.00,2.12
7417.00,2.11
7416.00,2.11
7415.00,2.11
7414.00,2.11
7413.00,2.11
7412.00,2.11
7411.00,2.11
7410.00,2.10
7409.00,2.10
7408.00,2.10
7407.00,2.10
7406.00,2.10
7405.00,2.10
7404.00,2.10
7403.00,2.09
7402.00,2.09
7401.00,2.09
7400.00,2.09
7399.00,2.09
7398.00,2.09
7397.00,2.09
7396.00,2.09
7395.00,2.09
7394.00,2.08
7393.00,2.08
7392.00,2.08
7391.00,2.08
7390.00,2.08
7389.00,2.07
7388.00,2.07
7387.00,2.07
7386.00,2.07
7385.00,2.07
7384.00,2.06
7383.00,2.06
7382.00,2.06
7381.00,2.06
7380.00,2.05
7379.00,2.05
7378.00,2.05
7377.00,2.05
7376.00,2.05
7375.00,2.05
7374.00,2.05
7373.00,2.05
7372.00,2.05
7371.00,2.05
7370.00,2.05
7369.00,2.05
7368.00,2.05
7367.00,2.05
7366.00,2.05
7365.00,2.05
7364.00,2.05
7363.00,2.05
7362.00,2.05
7361.00,2.05
7360.00,2.05
7359.00,2.05
7358.00,2.05
7357.00,2.04
7356.00,2.04
7355.00,2.04
7354.00,2.04
7353.00,2.04
7352.00,2.04
7351.00,2.04
7350.00,2.04
7349.00,2.04
7348.00,2.04
7347.00,2.04
7346.00,2.04
7345.00,2.04
7344.00,2.04
7343.00,2.03
7342.00,2.03
7341.00,2.03
7340.00,2.03
7339.00,2.03
7338.00,2.03
7337.00,2.03
7336.00,2.03
7335.00,2.03
7334.00,2.03
7333.00,2.03
7332.00,2.03
7331.00,2.03
7330.00,2.03
7329.00,2.03
7328.00,2.02
7327.00,2.02
7326.00,2.02
7325.00,2.02
7324.00,2.02
7323.00,2.02
7322.00,2.02
7321.00,2.01
7320.00,2.01
7319.00,2.01
7318.00,2.01
7317.00,2.01
7316.00,2.01
7315.00,2.00
7314.00,2.00
7313.00,2.00
7312.00,2.00
7311.00,2.00
7310.00,2.00
7309.00,2.00
7308.00,2.00
7307.00,1.99
7306.00,1.99
7305.00,1.99
7304.00,1.99
7303.00,1.99
7302.00,1.99
7301.00,1.99
7300.00,1.99
7299.00,1.98
7298.00,1.98
7297.00,1.98
7296.00,1.98
7295.00,1.98
7294.00,1.98
7293.00,1.97
7292.00,1.97
7291.00,1.97
7290.00,1.97
7289.00,1.96
7288.00,1.96
7287.00,1.96
7286.00,1.96
7285.00,1.96
7284.00,1.95
7283.00,1.95
7282.00,1.95
7281.00,1.95
7280.00,1.95
7279.00,1.95
7278.00,1.95
7277.00,1.94
7276.00,1.94
7275.00,1.94
7274.00,1.94
7273.00,1.94
7272.00,1.94
7271.00,1.93
7270.00,1.93
7269.00,1.93
7268.00,1.93
7267.00,1.93
7266.00,1.92
7265.00,1.92
7264.00,1.92
7263.00,1.92
7262.00,1.91
7261.00,1.91
7260.00,1.91
7259.00,1.91
7258.00,1.90
7257.00,1.90
7256.00,1.90
7255.00,1.89
7254.00,1.89
7253.00,1.88
7252.00,1.88
7251.00,1.88
7250.00,1.87
7249.00,1.87
7248.00,1.86
7247.00,1.86
7246.00,1.85
7245.00,1.85
7244.00,1.84
7243.00,1.84
7242.00,1.83
7241.00,1.83
7240.00,1.82
7239.00,1.81
7238.00,1.81
7237.00,1.80
7236.00,1.79
7235.00,1.79
7234.00,1.78
7233.00,1.77
7232.00,1.77
7231.00,1.76
7230.00,1.76
7229.00,1.75
7228.00,1.75
7227.00,1.74
7226.00,1.74
7225.00,1.73
7224.00,1.73
7223.00,1.72
7222.00,1.72
7221.00,1.71
7220.00,1.71
7219.00,1.70
7218.00,1.70
7217.00,1.69
7216.00,1.69
7215.00,1.68
7214.00,1.68
7213.00,1.67
7212.00,1.67
7211.00,1.66
7210.00,1.66
7209.00,1.65
7208.00,1.64
7207.00,1.64
7206.00,1.63
7205.00,1.63
7204.00,1.62
7203.00,1.62
7202.00,1.61
7201.00,1.60
7200.00,1.60
7199.00,1.59
7198.00,1.59
7197.00,1.58
7196.00,1.58
7195.00,1.57
7194.00,1.56
7193.00,1.56
7192.00,1.55
7191.00,1.54
7190.00,1.54
7189.00,1.53
7188.00,1.53
7187.00,1.52
7186.00,1.51
7185.00,1.51
7184.00,1.50
7183.00,1.49
7182.00,1.49
7181.00,1.48
7180.00,1.48
7179.00,1.47
7178.00,1.46
7177.00,1.46
7176.00,1.45
7175.00,1.45
7174.00,1.44
7173.00,1.44
7172.00,1.43
7171.00,1.43
7170.00,1.42
7169.00,1.42
7168.00,1.41
7167.00,1.40
7166.00,1.40
7165.00,1.39
7164.00,1.39
7163.00,1.38
7162.00,1.38
7161.00,1.37
7160.00,1.37
7159.00,1.37
7158.00,1.36
7157.00,1.36
7156.00,1.35
7155.00,1.35
7154.00,1.35
7153.00,1.34
7152.00,1.34
7151.00,1.33
7150.00,1.33
7149.00,1.33
7148.00,1.32
7147.00,1.32
7146.00,1.32
7145.00,1.31
7144.00,1.31
7143.00,1.30
7142.00,1.30
7141.00,1.30
7140.00,1.29
7139.00,1.29
7138.00,1.29
7137.00,1.28
7136.00,1.28
7135.00,1.28
7134.00,1.27
7133.00,1.27
7132.00,1.27
7131.00,1.26
7130.00,1.26
7129.00,1.26
7128.00,1.25
7127.00,1.25
7126.00,1.25
7125.00,1.24
7124.00,1.24
7123.00,1.24
7122.00,1.23
7121.00,1.23
7120.00,1.23
7119.00,1.22
7118.00,1.22
7117.00,1.22
7116.00,1.22
7115.00,1.21
7114.00,1.21
7113.00,1.21
7112.00,1.20
7111.00,1.20
7110.00,1.20
7109.00,1.19
7108.00,1.19
7107.00,1.19
7106.00,1.19
7105.00,1.18
7104.00,1.18
7103.00,1.18
7102.00,1.17
7101.00,1.17
7100.00,1.17
7099.00,1.16
7098.00,1.16
7097.00,1.16
7096.00,1.16
7095.00,1.15
7094.00,1.15
7093.00,1.15
7092.00,1.15
7091.00,1.14
7090.00,1.14
7089.00,1.14
7088.00,1.14
7087.00,1.14
7086.00,1.13
7085.00,1.13
7084.00,1.13
7083.00,1.13
7082.00,1.13
7081.00,1.12
7080.00,1.12
7079.00,1.12
7078.00,1.12
7077.00,1.12
7076.00,1.11
7075.00,1.11
7074.00,1.11
7073.00,1.11
7072.00,1.11
7071.00,1.11
7070.00,1.10
7069.00,1.10
7068.00,1.10
7067.00,1.10
7066.00,1.10
7065.00,1.10
7064.00,1.10
7063.00,1.10
7062.00,1.09
7061.00,1.09
7060.00,1.09
7059.00,1.09
7058.00,1.09
7057.00,1.08
7056.00,1.08
7055.00,1.08
7054.00,1.08
7053.00,1.08
7052.00,1.07
7051.00,1.07
7050.00,1.07
7049.00,1.07
7048.00,1.07
7047.00,1.07
7046.00,1.07
7045.00,1.07
7044.00,1.06
7043.00,1.06
7042.00,1.06
7041.00,1.06
7040.00,1.06
7039.00,1.06
7038.00,1.06
7037.00,1.06
7036.00,1.06
7035.00,1.06
7034.00,1.06
7033.00,1.06
7032.00,1.06
7031.00,1.06
7030.00,1.06
7029.00,1.06
7028.00,1.06
7027.00,1.06
7026.00,1.06
7025.00,1.06
7024.00,1.06
7023.00,1.06
7022.00,1.05
7021.00,1.05
7020.00,1.05
7019.00,1.05
7018.00,1.05
7017.00,1.05
7016.00,1.05
7015.00,1.05
7014.00,1.05
7013.00,1.05
7012.00,1.05
7011.00,1.05
7010.00,1.05
7009.00,1.04
7008.00,1.04
7007.00,1.04
7006.00,1.04
7005.00,1.04
7004.00,1.04
7003.00,1.04
7002.00,1.04
7001.00,1.04
7000.00,1.04
6999.00,1.04
6998.00,1.04
6997.00,1.04
6996.00,1.04
6995.00,1.04
6994.00,1.03
6993.00,1.03
6992.00,1.03
6991.00,1.03
6990.00,1.03
6989.00,1.03
6988.00,1.03
6987.00,1.03
6986.00,1.03
6985.00,1.03
6984.00,1.03
6983.00,1.03
6982.00,1.03
6981.00,1.02
6980.00,1.02
6979.00,1.02
6978.00,1.02
6977.00,1.02
6976.00,1.02
6975.00,1.02
6974.00,1.02
6973.00,1.01
6972.00,1.01
6971.00,1.01
6970.00,1.01
6969.00,1.01
6968.00,1.01
6967.00,1.01
6966.00,1.01
6965.00,1.01
6964.00,1.01
6963.00,1.02
6962.00,1.02
6961.00,1.02
6960.00,1.02
6959.00,1.02
6958.00,1.02
6957.00,1.02
6956.00,1.02
6955.00,1.02
6954.00,1.02
6953.00,1.02
6952.00,1.02
6951.00,1.02
6950.00,1.02
6949.00,1.02
6948.00,1.02
6947.00,1.01
6946.00,1.01
6945.00,1.01
6944.00,1.01
6943.00,1.01
6942.00,1.01
6941.00,1.01
6940.00,1.01
6939.00,1.01
6938.00,1.01
6937.00,1.01
6936.00,1.01
6935.00,1.01
6934.00,1.01
6933.00,1.01
6932.00,1.01
6931.00,1.01
6930.00,1.01
6929.00,1.01
6928.00,1.01
6927.00,1.02
6926.00,1.02
6925.00,1.02
6924.00,1.02
6923.00,1.02
6922.00,1.02
6921.00,1.02
6920.00,1.02
6919.00,1.02
6918.00,1.02
6917.00,1.02
6916.00,1.02
6915.00,1.02
6914.00,1.02
6913.00,1.02
6912.00,1.01
6911.00,1.01
6910.00,1.01
6909.00,1.01
6908.00,1.01
6907.00,1.01
6906.00,1.01
6905.00,1.01
6904.00,1.01
6903.00,1.01
6902.00,1.01
6901.00,1.01
6900.00,1.01
6899.00,1.01
6898.00,1.01
6897.00,1.01
6896.00,1.01
6895.00,1.01
6894.00,1.01
6893.00,1.01
6892.00,1.01
6891.00,1.01
6890.00,1.01
6889.00,1.01
6888.00,1.01
6887.00,1.01
6886.00,1.02
6885.00,1.02
6884.00,1.02
6883.00,1.02
6882.00,1.02
6881.00,1.02
6880.00,1.02
6879.00,1.02
6878.00,1.02
6877.00,1.02
6876.00,1.02
6875.00,1.02
6874.00,1.02
6873.00,1.02
6872.00,1.02
6871.00,1.02
6870.00,1.02
6869.00,1.02
6868.00,1.02
6867.00,1.02
6866.00,1.02
6865.00,1.02
6864.00,1.02
6863.00,1.02
6862.00,1.02
6861.00,1.02
6860.00,1.02
6859.00,1.02
6858.00,1.02
6857.00,1.02
6856.00,1.02
6855.00,1.02
6854.00,1.02
6853.00,1.02
6852.00,1.02
6851.00,1.02
6850.00,1.02
6849.00,1.02
6848.00,1.02
6847.00,1.02
6846.00,1.03
6845.00,1.03
6844.00,1.03
6843.00,1.03
6842.00,1.03
6841.00,1.03
6840.00,1.03
6839.00,1.03
6838.00,1.03
6837.00,1.03
6836.00,1.03
6835.00,1.03
6834.00,1.03
6833.00,1.03
6832.00,1.03
6831.00,1.03
6830.00,1.04
6829.00,1.04
6828.00,1.04
6827.00,1.04
6826.00,1.04
6825.00,1.04
6824.00,1.04
6823.00,1.04
6822.00,1.04
6821.00,1.04
6820.00,1.04
6819.00,1.04
6818.00,1.04
6817.00,1.04
6816.00,1.04
6815.00,1.04
6814.00,1.04
6813.00,1.04
6812.00,1.04
6811.00,1.04
6810.00,1.04
6809.00,1.04
6808.00,1.04
6807.00,1.04
6806.00,1.04
6805.00,1.04
6804.00,1.04
6803.00,1.04
6802.00,1.04
6801.00,1.04
6800.00,1.04
6799.00,1.04
6798.00,1.05
6797.00,1.05
6796.00,1.05
6795.00,1.05
6794.00,1.05
6793.00,1.05
6792.00,1.05
6791.00,1.05
6790.00,1.05
6789.00,1.05
6788.00,1.05
6787.00,1.05
6786.00,1.05
6785.00,1.05
6784.00,1.06
6783.00,1.06
6782.00,1.06
6781.00,1.06
6780.00,1.06
6779.00,1.06
6778.00,1.06
6777.00,1.06
6776.00,1.06
6775.00,1.06
6774.00,1.06
6773.00,1.06
6772.00,1.06
6771.00,1.06
6770.00,1.06
6769.00,1.06
6768.00,1.06
6767.00,1.06
6766.00,1.06
6765.00,1.06
6764.00,1.06
6763.00,1.06
6762.00,1.06
6761.00,1.06
6760.00,1.06
6759.00,1.06
6758.00,1.06
6757.00,1.06
6756.00,1.07
6755.00,1.07
6754.00,1.07
6753.00,1.07
6752.00,1.07
6751.00,1.07
6750.00,1.07
6749.00,1.07
6748.00,1.07
6747.00,1.07
6746.00,1.08
6745.00,1.08
6744.00,1.08
6743.00,1.08
6742.00,1.08
6741.00,1.08
6740.00,1.08
6739.00,1.08
6738.00,1.08
6737.00,1.08
6736.00,1.09
6735.00,1.09
6734.00,1.09
6733.00,1.09
6732.00,1.09
6731.00,1.09
6730.00,1.09
6729.00,1.09
6728.00,1.10
6727.00,1.10
6726.00,1.10
6725.00,1.10
6724.00,1.10
6723.00,1.10
6722.00,1.10
6721.00,1.10
6720.00,1.10
6719.00,1.10
6718.00,1.11
6717.00,1.11
6716.00,1.11
6715.00,1.11
6714.00,1.11
6713.00,1.11
6712.00,1.11
6711.00,1.11
6710.00,1.11
6709.00,1.11
6708.00,1.11
6707.00,1.11
6706.00,1.11
6705.00,1.11
6704.00,1.11
6703.00,1.12
6702.00,1.12
6701.00,1.12
6700.00,1.12
6699.00,1.12
6698.00,1.12
6697.00,1.12
6696.00,1.13
6695.00,1.13
6694.00,1.13
6693.00,1.13
6692.00,1.13
6691.00,1.13
6690.00,1.13
6689.00,1.13
6688.00,1.13
6687.00,1.13
6686.00,1.14
6685.00,1.14
6684.00,1.14
6683.00,1.14
6682.00,1.14
6681.00,1.14
6680.00,1.14
6679.00,1.14
6678.00,1.14
6677.00,1.14
6676.00,1.15
6675.00,1.15
6674.00,1.15
6673.00,1.15
6672.00,1.15
6671.00,1.15
6670.00,1.16
6669.00,1.16
6668.00,1.16
6667.00,1.16
6666.00,1.16
6665.00,1.16
6664.00,1.17
6663.00,1.17
6662.00,1.17
6661.00,1.17
6660.00,1.17
6659.00,1.17
6658.00,1.17
6657.00,1.17
6656.00,1.18
6655.00,1.18
6654.00,1.18
6653.00,1.18
6652.00,1.18
6651.00,1.18
6650.00,1.18
6649.00,1.18
6648.00,1.18
6647.00,1.18
6646.00,1.19
6645.00,1.19
6644.00,1.19
6643.00,1.19
6642.00,1.19
6641.00,1.19
6640.00,1.19
6639.00,1.20
6638.00,1.20
6637.00,1.20
6636.00,1.20
6635.00,1.20
6634.00,1.20
6633.00,1.20
6632.00,1.21
6631.00,1.21
6630.00,1.21
6629.00,1.21
6628.00,1.21
6627.00,1.21
6626.00,1.21
6625.00,1.22
6624.00,1.22
6623.00,1.22
6622.00,1.22
6621.00,1.22
6620.00,1.22
6619.00,1.22
6618.00,1.22
6617.00,1.23
6616.00,1.23
6615.00,1.23
6614.00,1.23
6613.00,1.23
6612.00,1.23
6611.00,1.23
6610.00,1.24
6609.00,1.24
6608.00,1.24
6607.00,1.24
6606.00,1.24
6605.00,1.25
6604.00,1.25
6603.00,1.25
6602.00,1.25
6601.00,1.25
6600.00,1.26
6599.00,1.26
6598.00,1.26
6597.00,1.26
6596.00,1.26
6595.00,1.26
6594.00,1.26
6593.00,1.26
6592.00,1.26
6591.00,1.27
6590.00,1.27
6589.00,1.27
6588.00,1.27
6587.00,1.27
6586.00,1.27
6585.00,1.27
6584.00,1.28
6583.00,1.28
6582.00,1.28
6581.00,1.28
6580.00,1.28
6579.00,1.29
6578.00,1.29
6577.00,1.29
6576.00,1.29
6575.00,1.29
6574.00,1.29
6573.00,1.30
6572.00,1.30
6571.00,1.30
6570.00,1.30
6569.00,1.30
6568.00,1.30
6567.00,1.30
6566.00,1.30
6565.00,1.31
6564.00,1.31
6563.00,1.31
6562.00,1.31
6561.00,1.31
6560.00,1.31
6559.00,1.31
6558.00,1.31
6557.00,1.31
6556.00,1.32
6555.00,1.32
6554.00,1.32
6553.00,1.32
6552.00,1.32
6551.00,1.32
6550.00,1.32
6549.00,1.32
6548.00,1.32
6547.00,1.32
6546.00,1.32
6545.00,1.33
6544.00,1.33
6543.00,1.33
6542.00,1.33
6541.00,1.33
6540.00,1.33
6539.00,1.33
6538.00,1.33
6537.00,1.34
6536.00,1.34
6535.00,1.34
6534.00,1.34
6533.00,1.34
6532.00,1.34
6531.00,1.35
6530.00,1.35
6529.00,1.35
6528.00,1.35
6527.00,1.35
6526.00,1.35
6525.00,1.35
6524.00,1.36
6523.00,1.36
6522.00,1.36
6521.00,1.36
6520.00,1.36
6519.00,1.36
6518.00,1.36
6517.00,1.36
6516.00,1.36
6515.00,1.36
6514.00,1.36
6513.00,1.36
6512.00,1.36
6511.00,1.36
6510.00,1.36
6509.00,1.36
6508.00,1.36
6507.00,1.37
6506.00,1.37
6505.00,1.37
6504.00,1.37
6503.00,1.37
6502.00,1.38
6501.00,1.38
6500.00,1.38
6499.00,1.38
6498.00,1.38
6497.00,1.38
6496.00,1.39
6495.00,1.39
6494.00,1.39
6493.00,1.39
6492.00,1.39
6491.00,1.39
6490.00,1.39
6489.00,1.39
6488.00,1.39
6487.00,1.40
6486.00,1.40
6485.00,1.40
6484.00,1.40
6483.00,1.40
6482.00,1.40
6481.00,1.40
6480.00,1.41
6479.00,1.41
6478.00,1.41
6477.00,1.41
6476.00,1.41
6475.00,1.41
6474.00,1.42
6473.00,1.42
6472.00,1.42
6471.00,1.42
6470.00,1.42
6469.00,1.42
6468.00,1.42
6467.00,1.43
6466.00,1.43
6465.00,1.43
6464.00,1.43
6463.00,1.43
6462.00,1.43
6461.00,1.43
6460.00,1.43
6459.00,1.43
6458.00,1.43
6457.00,1.44
6456.00,1.44
6455.00,1.44
6454.00,1.44
6453.00,1.44
6452.00,1.44
6451.00,1.44
6450.00,1.44
6449.00,1.45
6448.00,1.45
6447.00,1.45
6446.00,1.45
6445.00,1.45
6444.00,1.45
6443.00,1.45
6442.00,1.45
6441.00,1.45
6440.00,1.45
6439.00,1.45
6438.00,1.46
6437.00,1.46
6436.00,1.46
6435.00,1.46
6434.00,1.46
6433.00,1.46
6432.00,1.46
6431.00,1.46
6430.00,1.46
6429.00,1.46
6428.00,1.47
6427.00,1.47
6426.00,1.47
6425.00,1.47
6424.00,1.47
6423.00,1.47
6422.00,1.48
6421.00,1.48
6420.00,1.48
6419.00,1.48
6418.00,1.48
6417.00,1.48
6416.00,1.49
6415.00,1.49
6414.00,1.49
6413.00,1.49
6412.00,1.49
6411.00,1.49
6410.00,1.49
6409.00,1.50
6408.00,1.50
6407.00,1.50
6406.00,1.50
6405.00,1.50
6404.00,1.50
6403.00,1.50
6402.00,1.50
6401.00,1.50
6400.00,1.50
6399.00,1.50
6398.00,1.51
6397.00,1.51
6396.00,1.51
6395.00,1.51
6394.00,1.51
6393.00,1.51
6392.00,1.51
6391.00,1.51
6390.00,1.51
6389.00,1.51
6388.00,1.51
6387.00,1.51
6386.00,1.51
6385.00,1.52
6384.00,1.52
6383.00,1.52
6382.00,1.52
6381.00,1.52
6380.00,1.52
6379.00,1.53
6378.00,1.53
6377.00,1.53
6376.00,1.53
6375.00,1.53
6374.00,1.53
6373.00,1.54
6372.00,1.54
6371.00,1.54
6370.00,1.54
6369.00,1.55
6368.00,1.55
6367.00,1.55
6366.00,1.55
6365.00,1.55
6364.00,1.56
6363.00,1.56
6362.00,1.56
6361.00,1.56
6360.00,1.56
6359.00,1.57
6358.00,1.57
6357.00,1.57
6356.00,1.57
6355.00,1.57
6354.00,1.57
6353.00,1.57
6352.00,1.57
6351.00,1.58
6350.00,1.58
6349.00,1.58
6348.00,1.58
6347.00,1.58
6346.00,1.58
6345.00,1.58
6344.00,1.58
6343.00,1.59
6342.00,1.59
6341.00,1.59
6340.00,1.59
6339.00,1.59
6338.00,1.59
6337.00,1.59
6336.00,1.60
6335.00,1.60
6334.00,1.60
6333.00,1.60
6332.00,1.60
6331.00,1.60
6330.00,1.61
6329.00,1.61
6328.00,1.61
6327.00,1.61
6326.00,1.61
6325.00,1.61
6324.00,1.61
6323.00,1.61
6322.00,1.62
6321.00,1.62
6320.00,1.62
6319.00,1.62
6318.00,1.62
6317.00,1.62
6316.00,1.62
6315.00,1.62
6314.00,1.63
6313.00,1.63
6312.00,1.63
6311.00,1.63
6310.00,1.63
6309.00,1.63
6308.00,1.64
6307.00,1.64
6306.00,1.64
6305.00,1.64
6304.00,1.64
6303.00,1.65
6302.00,1.65
6301.00,1.65
6300.00,1.65
6299.00,1.65
6298.00,1.66
6297.00,1.66
6296.00,1.66
6295.00,1.66
6294.00,1.66
6293.00,1.67
6292.00,1.67
6291.00,1.67
6290.00,1.67
6289.00,1.67
6288.00,1.68
6287.00,1.68
6286.00,1.68
6285.00,1.68
6284.00,1.68
6283.00,1.69
6282.00,1.69
6281.00,1.69
6280.00,1.69
6279.00,1.70
6278.00,1.70
6277.00,1.70
6276.00,1.70
6275.00,1.70
6274.00,1.71
6273.00,1.71
6272.00,1.71
6271.00,1.71
6270.00,1.71
6269.00,1.72
6268.00,1.72
6267.00,1.72
6266.00,1.72
6265.00,1.72
6264.00,1.73
6263.00,1.73
6262.00,1.73
6261.00,1.73
6260.00,1.74
6259.00,1.74
6258.00,1.74
6257.00,1.74
6256.00,1.74
6255.00,1.75
6254.00,1.75
6253.00,1.75
6252.00,1.75
6251.00,1.75
6250.00,1.76
6249.00,1.76
6248.00,1.76
6247.00,1.76
6246.00,1.76
6245.00,1.76
6244.00,1.77
6243.00,1.77
6242.00,1.77
6241.00,1.77
6240.00,1.77
6239.00,1.77
6238.00,1.78
6237.00,1.78
6236.00,1.78
6235.00,1.78
6234.00,1.78
6233.00,1.79
6232.00,1.79
6231.00,1.79
6230.00,1.79
6229.00,1.80
6228.00,1.80
6227.00,1.80
6226.00,1.80
6225.00,1.80
6224.00,1.81
6223.00,1.81
6222.00,1.81
6221.00,1.81
6220.00,1.81
6219.00,1.81
6218.00,1.82
6217.00,1.82
6216.00,1.82
6215.00,1.82
6214.00,1.82
6213.00,1.83
6212.00,1.83
6211.00,1.83
6210.00,1.83
6209.00,1.83
6208.00,1.83
6207.00,1.84
6206.00,1.84
6205.00,1.84
6204.00,1.84
6203.00,1.84
6202.00,1.85
6201.00,1.85
6200.00,1.85
6199.00,1.85
6198.00,1.85
6197.00,1.86
6196.00,1.86
6195.00,1.86
6194.00,1.86
6193.00,1.87
6192.00,1.87
6191.00,1.87
6190.00,1.87
6189.00,1.88
6188.00,1.88
6187.00,1.88
6186.00,1.88
6185.00,1.89
6184.00,1.89
6183.00,1.89
6182.00,1.89
6181.00,1.90
6180.00,1.90
6179.00,1.90
6178.00,1.90
6177.00,1.90
6176.00,1.91
6175.00,1.91
6174.00,1.91
6173.00,1.91
6172.00,1.91
6171.00,1.92
6170.00,1.92
6169.00,1.92
6168.00,1.92
6167.00,1.93
6166.00,1.93
6165.00,1.93
6164.00,1.93
6163.00,1.93
6162.00,1.94
6161.00,1.94
6160.00,1.94
6159.00,1.94
6158.00,1.94
6157.00,1.95
6156.00,1.95
6155.00,1.95
6154.00,1.95
6153.00,1.96
6152.00,1.96
6151.00,1.96
6150.00,1.96
6149.00,1.97
6148.00,1.97
6147.00,1.97
6146.00,1.97
6145.00,1.98
6144.00,1.98
6143.00,1.98
6142.00,1.98
6141.00,1.99
6140.00,1.99
6139.00,1.99
6138.00,1.99
6137.00,1.99
6136.00,2.00
6135.00,2.00
6134.00,2.00
6133.00,2.00
6132.00,2.00
6131.00,2.01
6130.00,2.01
6129.00,2.01
6128.00,2.01
6127.00,2.01
6126.00,2.02
6125.00,2.02
6124.00,2.02
6123.00,2.02
6122.00,2.03
6121.00,2.03
6120.00,2.03
6119.00,2.03
6118.00,2.03
6117.00,2.04
6116.00,2.04
6115.00,2.04
6114.00,2.04
6113.00,2.04
6112.00,2.05
6111.00,2.05
6110.00,2.05
6109.00,2.05
6108.00,2.06
6107.00,2.06
6106.00,2.06
6105.00,2.06
6104.00,2.07
6103.00,2.07
6102.00,2.07
6101.00,2.07
6100.00,2.08
6099.00,2.08
6098.00,2.08
6097.00,2.08
6096.00,2.08
6095.00,2.09
6094.00,2.09
6093.00,2.09
6092.00,2.09
6091.00,2.09
6090.00,2.10
6089.00,2.10
6088.00,2.10
6087.00,2.10
6086.00,2.11
6085.00,2.11
6084.00,2.11
6083.00,2.11
6082.00,2.12
6081.00,2.12
6080.00,2.12
6079.00,2.12
6078.00,2.12
6077.00,2.13
6076.00,2.13
6075.00,2.13
6074.00,2.13
6073.00,2.14
6072.00,2.14
6071.00,2.14
6070.00,2.14
6069.00,2.14
6068.00,2.14
6067.00,2.14
6066.00,2.15
6065.00,2.15
6064.00,2.15
6063.00,2.15
6062.00,2.15
6061.00,2.15
6060.00,2.15
6059.00,2.15
6058.00,2.15
6057.00,2.15
6056.00,2.16
6055.00,2.16
6054.00,2.16
6053.00,2.16
6052.00,2.16
6051.00,2.16
6050.00,2.16
6049.00,2.17
6048.00,2.17
6047.00,2.17
6046.00,2.17
6045.00,2.17
6044.00,2.17
6043.00,2.18
6042.00,2.18
6041.00,2.18
6040.00,2.18
6039.00,2.18
6038.00,2.19
6037.00,2.19
6036.00,2.19
6035.00,2.19
6034.00,2.19
6033.00,2.19
6032.00,2.19
6031.00,2.20
6030.00,2.20
6029.00,2.20
6028.00,2.20
6027.00,2.20
6026.00,2.20
6025.00,2.20
6024.00,2.20
6023.00,2.20
6022.00,2.20
6021.00,2.20
6020.00,2.20
6019.00,2.20
6018.00,2.20
6017.00,2.20
6016.00,2.20
6015.00,2.20
6014.00,2.20
6013.00,2.20
6012.00,2.20
6011.00,2.20
6010.00,2.20
6009.00,2.19
6008.00,2.19
6007.00,2.19
6006.00,2.19
6005.00,2.19
6004.00,2.19
6003.00,2.19
6002.00,2.19
6001.00,2.19
6000.00,2.19
5999.00,2.19
5998.00,2.19
5997.00,2.19
5996.00,2.19
5995.00,2.19
5994.00,2.19
5993.00,2.18
5992.00,2.18
5991.00,2.18
5990.00,2.18
5989.00,2.18
5988.00,2.17
5987.00,2.17
5986.00,2.17
5985.00,2.16
5984.00,2.16
5983.00,2.16
5982.00,2.15
5981.00,2.15
5980.00,2.14
5979.00,2.14
5978.00,2.13
5977.00,2.12
5976.00,2.12
5975.00,2.11
5974.00,2.10
5973.00,2.10
5972.00,2.09
5971.00,2.08
5970.00,2.07
5969.00,2.06
5968.00,2.06
5967.00,2.05
5966.00,2.04
5965.00,2.03
5964.00,2.02
5963.00,2.01
5962.00,2.00
5961.00,1.99
5960.00,1.98
5959.00,1.97
5958.00,1.96
5957.00,1.96
5956.00,1.95
5955.00,1.94
5954.00,1.93
5953.00,1.93
5952.00,1.92
5951.00,1.91
5950.00,1.91
5949.00,1.90
5948.00,1.90
5947.00,1.90
5946.00,1.89
5945.00,1.89
5944.00,1.89
5943.00,1.89
5942.00,1.88
5941.00,1.88
5940.00,1.88
5939.00,1.88
5938.00,1.88
5937.00,1.88
5936.00,1.88
5935.00,1.88
5934.00,1.87
5933.00,1.87
5932.00,1.87
5931.00,1.87
5930.00,1.87
5929.00,1.87
5928.00,1.86
5927.00,1.86
5926.00,1.86
5925.00,1.86
5924.00,1.85
5923.00,1.85
5922.00,1.85
5921.00,1.84
5920.00,1.84
5919.00,1.84
5918.00,1.83
5917.00,1.83
5916.00,1.82
5915.00,1.82
5914.00,1.82
5913.00,1.81
5912.00,1.81
5911.00,1.81
5910.00,1.80
5909.00,1.80
5908.00,1.80
5907.00,1.80
5906.00,1.80
5905.00,1.80
5904.00,1.80
5903.00,1.80
5902.00,1.80
5901.00,1.80
5900.00,1.80
5899.00,1.80
5898.00,1.81
5897.00,1.81
5896.00,1.81
5895.00,1.81
5894.00,1.82
5893.00,1.82
5892.00,1.82
5891.00,1.83
5890.00,1.83
5889.00,1.84
5888.00,1.84
5887.00,1.84
5886.00,1.85
5885.00,1.85
5884.00,1.85
5883.00,1.86
5882.00,1.86
5881.00,1.87
5880.00,1.87
5879.00,1.87
5878.00,1.88
5877.00,1.88
5876.00,1.88
5875.00,1.89
5874.00,1.89
5873.00,1.89
5872.00,1.90
5871.00,1.90
5870.00,1.90
5869.00,1.91
5868.00,1.91
5867.00,1.91
5866.00,1.91
5865.00,1.92
5864.00,1.92
5863.00,1.92
5862.00,1.92
5861.00,1.92
5860.00,1.92
5859.00,1.92
5858.00,1.93
5857.00,1.93
5856.00,1.93
5855.00,1.93
5854.00,1.93
5853.00,1.93
5852.00,1.93
5851.00,1.93
5850.00,1.93
5849.00,1.93
5848.00,1.93
5847.00,1.94
5846.00,1.94
5845.00,1.94
5844.00,1.94
5843.00,1.94
5842.00,1.94
5841.00,1.94
5840.00,1.94
5839.00,1.94
5838.00,1.94
5837.00,1.94
5836.00,1.94
5835.00,1.94
5834.00,1.94
5833.00,1.94
5832.00,1.94
5831.00,1.95
5830.00,1.95
5829.00,1.95
5828.00,1.95
5827.00,1.95
5826.00,1.95
5825.00,1.95
5824.00,1.95
5823.00,1.95
5822.00,1.95
5821.00,1.95
5820.00,1.95
5819.00,1.95
5818.00,1.95
5817.00,1.95
5816.00,1.95
5815.00,1.95
5814.00,1.95
5813.00,1.94
5812.00,1.94
5811.00,1.94
5810.00,1.94
5809.00,1.94
5808.00,1.94
5807.00,1.94
5806.00,1.94
5805.00,1.94
5804.00,1.93
5803.00,1.93
5802.00,1.93
5801.00,1.93
5800.00,1.92
5799.00,1.92
5798.00,1.92
5797.00,1.92
5796.00,1.91
5795.00,1.91
5794.00,1.91
5793.00,1.90
5792.00,1.90
5791.00,1.90
5790.00,1.89
5789.00,1.89
5788.00,1.89
5787.00,1.89
5786.00,1.88
5785.00,1.88
5784.00,1.88
5783.00,1.88
5782.00,1.88
5781.00,1.87
5780.00,1.87
5779.00,1.87
5778.00,1.87
5777.00,1.87
5776.00,1.87
5775.00,1.87
5774.00,1.87
5773.00,1.87
5772.00,1.87
5771.00,1.87
5770.00,1.88
5769.00,1.88
5768.00,1.88
5767.00,1.88
5766.00,1.88
5765.00,1.89
5764.00,1.89
5763.00,1.89
5762.00,1.89
5761.00,1.90
5760.00,1.90
5759.00,1.90
5758.00,1.91
5757.00,1.91
5756.00,1.91
5755.00,1.92
5754.00,1.92
5753.00,1.93
5752.00,1.93
5751.00,1.93
5750.00,1.94
5749.00,1.94
5748.00,1.94
5747.00,1.95
5746.00,1.95
5745.00,1.96
5744.00,1.96
5743.00,1.96
5742.00,1.96
5741.00,1.97
5740.00,1.97
5739.00,1.97
5738.00,1.97
5737.00,1.98
5736.00,1.98
5735.00,1.98
5734.00,1.98
5733.00,1.98
5732.00,1.99
5731.00,1.99
5730.00,1.99
5729.00,1.99
5728.00,1.99
5727.00,1.99
5726.00,1.99
5725.00,2.00
5724.00,2.00
5723.00,2.00
5722.00,2.00
5721.00,2.00
5720.00,2.00
5719.00,2.00
5718.00,2.00
5717.00,2.00
5716.00,2.00
5715.00,1.99
5714.00,1.99
5713.00,1.99
5712.00,1.99
5711.00,1.99
5710.00,1.99
5709.00,1.99
5708.00,1.99
5707.00,1.98
5706.00,1.98
5705.00,1.98
5704.00,1.98
5703.00,1.98
5702.00,1.97
5701.00,1.97
5700.00,1.97
5699.00,1.97
5698.00,1.96
5697.00,1.96
5696.00,1.96
5695.00,1.96
5694.00,1.95
5693.00,1.95
5692.00,1.95
5691.00,1.95
5690.00,1.95
5689.00,1.94
5688.00,1.94
5687.00,1.94
5686.00,1.94
5685.00,1.94
5684.00,1.93
5683.00,1.93
5682.00,1.93
5681.00,1.93
5680.00,1.93
5679.00,1.93
5678.00,1.93
5677.00,1.93
5676.00,1.93
5675.00,1.93
5674.00,1.93
5673.00,1.93
5672.00,1.93
5671.00,1.93
5670.00,1.93
5669.00,1.93
5668.00,1.93
5667.00,1.93
5666.00,1.93
5665.00,1.93
5664.00,1.93
5663.00,1.93
5662.00,1.93
5661.00,1.93
5660.00,1.94
5659.00,1.94
5658.00,1.94
5657.00,1.94
5656.00,1.94
5655.00,1.94
5654.00,1.95
5653.00,1.95
5652.00,1.95
5651.00,1.95
5650.00,1.95
5649.00,1.96
5648.00,1.96
5647.00,1.96
5646.00,1.96
5645.00,1.97
5644.00,1.97
5643.00,1.97
5642.00,1.97
5641.00,1.98
5640.00,1.98
5639.00,1.98
5638.00,1.99
5637.00,1.99
5636.00,1.99
5635.00,1.99
5634.00,2.00
5633.00,2.00
5632.00,2.00
5631.00,2.00
5630.00,2.00
5629.00,2.01
5628.00,2.01
5627.00,2.01
5626.00,2.01
5625.00,2.01
5624.00,2.01
5623.00,2.02
5622.00,2.02
5621.00,2.02
5620.00,2.02
5619.00,2.02
5618.00,2.02
5617.00,2.02
5616.00,2.03
5615.00,2.03
5614.00,2.03
5613.00,2.03
5612.00,2.03
5611.00,2.04
5610.00,2.04
5609.00,2.04
5608.00,2.04
5607.00,2.05
5606.00,2.05
5605.00,2.05
5604.00,2.05
5603.00,2.06
5602.00,2.06
5601.00,2.06
5600.00,2.06
5599.00,2.06
5598.00,2.07
5597.00,2.07
5596.00,2.07
5595.00,2.07
5594.00,2.07
5593.00,2.08
5592.00,2.08
5591.00,2.08
5590.00,2.08
5589.00,2.08
5588.00,2.09
5587.00,2.09
5586.00,2.09
5585.00,2.09
5584.00,2.09
5583.00,2.10
5582.00,2.10
5581.00,2.10
5580.00,2.10
5579.00,2.10
5578.00,2.11
5577.00,2.11
5576.00,2.11
5575.00,2.11
5574.00,2.12
5573.00,2.12
5572.00,2.12
5571.00,2.12
5570.00,2.12
5569.00,2.13
5568.00,2.13
5567.00,2.13
5566.00,2.13
5565.00,2.13
5564.00,2.13
5563.00,2.13
5562.00,2.14
5561.00,2.14
5560.00,2.14
5559.00,2.14
5558.00,2.14
5557.00,2.14
5556.00,2.14
5555.00,2.14
5554.00,2.15
5553.00,2.15
5552.00,2.15
5551.00,2.15
5550.00,2.15
5549.00,2.15
5548.00,2.16
5547.00,2.16
5546.00,2.16
5545.00,2.16
5544.00,2.17
5543.00,2.17
5542.00,2.17
5541.00,2.17
5540.00,2.18
5539.00,2.18
5538.00,2.18
5537.00,2.18
5536.00,2.19
5535.00,2.19
5534.00,2.19
5533.00,2.19
5532.00,2.19
5531.00,2.19
5530.00,2.19
5529.00,2.19
5528.00,2.20
5527.00,2.20
5526.00,2.20
5525.00,2.20
5524.00,2.20
5523.00,2.20
5522.00,2.20
5521.00,2.20
5520.00,2.20
5519.00,2.20
5518.00,2.20
5517.00,2.20
5516.00,2.20
5515.00,2.20
5514.00,2.20
5513.00,2.21
5512.00,2.21
5511.00,2.21
5510.00,2.21
5509.00,2.21
5508.00,2.21
5507.00,2.21
5506.00,2.21
5505.00,2.21
5504.00,2.21
5503.00,2.21
5502.00,2.21
5501.00,2.22
5500.00,2.22
5499.00,2.22
5498.00,2.22
5497.00,2.22
5496.00,2.22
5495.00,2.22
5494.00,2.22
5493.00,2.22
5492.00,2.22
5491.00,2.22
5490.00,2.23
5489.00,2.23
5488.00,2.23
5487.00,2.23
5486.00,2.23
5485.00,2.24
5484.00,2.24
5483.00,2.24
5482.00,2.24
5481.00,2.24
5480.00,2.25
5479.00,2.25
5478.00,2.25
5477.00,2.25
5476.00,2.25
5475.00,2.25
5474.00,2.25
5473.00,2.26
5472.00,2.26
5471.00,2.26
5470.00,2.26
5469.00,2.26
5468.00,2.26
5467.00,2.26
5466.00,2.26
5465.00,2.27
5464.00,2.27
5463.00,2.27
5462.00,2.27
5461.00,2.27
5460.00,2.27
5459.00,2.27
5458.00,2.27
5457.00,2.28
5456.00,2.28
5455.00,2.28
5454.00,2.28
5453.00,2.28
5452.00,2.28
5451.00,2.28
5450.00,2.27
5449.00,2.27
5448.00,2.27
5447.00,2.27
5446.00,2.27
5445.00,2.27
5444.00,2.27
5443.00,2.27
5442.00,2.27
5441.00,2.27
5440.00,2.27
5439.00,2.27
5438.00,2.27
5437.00,2.27
5436.00,2.27
5435.00,2.27
5434.00,2.27
5433.00,2.27
5432.00,2.27
5431.00,2.27
5430.00,2.27
5429.00,2.27
5428.00,2.27
5427.00,2.28
5426.00,2.28
5425.00,2.28
5424.00,2.28
5423.00,2.28
5422.00,2.28
5421.00,2.28
5420.00,2.27
5419.00,2.27
5418.00,2.27
5417.00,2.27
5416.00,2.27
5415.00,2.27
5414.00,2.26
5413.00,2.26
5412.00,2.26
5411.00,2.26
5410.00,2.26
5409.00,2.26
5408.00,2.26
5407.00,2.25
5406.00,2.25
5405.00,2.25
5404.00,2.25
5403.00,2.25
5402.00,2.25
5401.00,2.25
5400.00,2.25
5399.00,2.24
5398.00,2.24
5397.00,2.24
5396.00,2.24
5395.00,2.23
5394.00,2.23
5393.00,2.22
5392.00,2.22
5391.00,2.21
5390.00,2.21
5389.00,2.20
5388.00,2.20
5387.00,2.19
5386.00,2.19
5385.00,2.18
5384.00,2.18
5383.00,2.17
5382.00,2.17
5381.00,2.16
5380.00,2.15
5379.00,2.15
5378.00,2.14
5377.00,2.13
5376.00,2.13
5375.00,2.12
5374.00,2.11
5373.00,2.11
5372.00,2.10
5371.00,2.09
5370.00,2.08
5369.00,2.08
5368.00,2.07
5367.00,2.06
5366.00,2.05
5365.00,2.04
5364.00,2.03
5363.00,2.02
5362.00,2.01
5361.00,2.00
5360.00,1.98
5359.00,1.97
5358.00,1.96
5357.00,1.95
5356.00,1.94
5355.00,1.92
5354.00,1.91
5353.00,1.90
5352.00,1.88
5351.00,1.87
5350.00,1.86
5349.00,1.84
5348.00,1.83
5347.00,1.81
5346.00,1.80
5345.00,1.79
5344.00,1.77
5343.00,1.76
5342.00,1.75
5341.00,1.73
5340.00,1.72
5339.00,1.71
5338.00,1.69
5337.00,1.68
5336.00,1.67
5335.00,1.66
5334.00,1.65
5333.00,1.64
5332.00,1.62
5331.00,1.61
5330.00,1.60
5329.00,1.59
5328.00,1.58
5327.00,1.57
5326.00,1.56
5325.00,1.55
5324.00,1.54
5323.00,1.54
5322.00,1.53
5321.00,1.52
5320.00,1.51
5319.00,1.50
5318.00,1.49
5317.00,1.48
5316.00,1.47
5315.00,1.47
5314.00,1.46
5313.00,1.45
5312.00,1.44
5311.00,1.43
5310.00,1.43
5309.00,1.42
5308.00,1.42
5307.00,1.41
5306.00,1.40
5305.00,1.40
5304.00,1.39
5303.00,1.39
5302.00,1.39
5301.00,1.38
5300.00,1.38
5299.00,1.38
5298.00,1.37
5297.00,1.37
5296.00,1.37
5295.00,1.37
5294.00,1.36
5293.00,1.36
5292.00,1.36
5291.00,1.36
5290.00,1.36
5289.00,1.36
5288.00,1.36
5287.00,1.36
5286.00,1.36
5285.00,1.36
5284.00,1.36
5283.00,1.36
5282.00,1.36
5281.00,1.36
5280.00,1.36
5279.00,1.36
5278.00,1.36
5277.00,1.36
5276.00,1.36
5275.00,1.36
5274.00,1.36
5273.00,1.36
5272.00,1.36
5271.00,1.36
5270.00,1.36
5269.00,1.36
5268.00,1.36
5267.00,1.35
5266.00,1.35
5265.00,1.35
5264.00,1.35
5263.00,1.35
5262.00,1.35
5261.00,1.35
5260.00,1.35
5259.00,1.35
5258.00,1.35
5257.00,1.35
5256.00,1.35
5255.00,1.35
5254.00,1.35
5253.00,1.35
5252.00,1.35
5251.00,1.35
5250.00,1.35
5249.00,1.35
5248.00,1.35
5247.00,1.35
5246.00,1.35
5245.00,1.35
5244.00,1.35
5243.00,1.35
5242.00,1.35
5241.00,1.35
5240.00,1.35
5239.00,1.35
5238.00,1.35
5237.00,1.35
5236.00,1.35
5235.00,1.36
5234.00,1.36
5233.00,1.36
5232.00,1.36
5231.00,1.36
5230.00,1.36
5229.00,1.36
5228.00,1.36
5227.00,1.36
5226.00,1.36
5225.00,1.36
5224.00,1.36
5223.00,1.36
5222.00,1.36
5221.00,1.37
5220.00,1.37
5219.00,1.37
5218.00,1.37
5217.00,1.37
5216.00,1.37
5215.00,1.37
5214.00,1.37
5213.00,1.37
5212.00,1.37
5211.00,1.37
5210.00,1.37
5209.00,1.37
5208.00,1.37
5207.00,1.37
5206.00,1.38
5205.00,1.38
5204.00,1.38
5203.00,1.38
5202.00,1.38
5201.00,1.38
5200.00,1.38
5199.00,1.39
5198.00,1.39
5197.00,1.39
5196.00,1.39
5195.00,1.39
5194.00,1.39
5193.00,1.39
5192.00,1.39
5191.00,1.39
5190.00,1.39
5189.00,1.39
5188.00,1.39
5187.00,1.39
5186.00,1.39
5185.00,1.39
5184.00,1.39
5183.00,1.39
5182.00,1.39
5181.00,1.39
5180.00,1.39
5179.00,1.39
5178.00,1.39
5177.00,1.40
5176.00,1.40
5175.00,1.40
5174.00,1.40
5173.00,1.40
5172.00,1.40
5171.00,1.40
5170.00,1.40
5169.00,1.40
5168.00,1.40
5167.00,1.40
5166.00,1.40
5165.00,1.40
5164.00,1.41
5163.00,1.41
5162.00,1.41
5161.00,1.41
5160.00,1.41
5159.00,1.41
5158.00,1.41
5157.00,1.41
5156.00,1.41
5155.00,1.41
5154.00,1.41
5153.00,1.41
5152.00,1.41
5151.00,1.42
5150.00,1.42
5149.00,1.42
5148.00,1.42
5147.00,1.42
5146.00,1.42
5145.00,1.42
5144.00,1.42
5143.00,1.42
5142.00,1.43
5141.00,1.43
5140.00,1.43
5139.00,1.43
5138.00,1.43
5137.00,1.43
5136.00,1.43
5135.00,1.43
5134.00,1.43
5133.00,1.43
5132.00,1.43
5131.00,1.43
5130.00,1.44
5129.00,1.44
5128.00,1.44
5127.00,1.44
5126.00,1.44
5125.00,1.44
5124.00,1.44
5123.00,1.44
5122.00,1.44
5121.00,1.44
5120.00,1.44
5119.00,1.44
5118.00,1.44
5117.00,1.44
5116.00,1.44
5115.00,1.44
5114.00,1.45
5113.00,1.45
5112.00,1.45
5111.00,1.45
5110.00,1.45
5109.00,1.45
5108.00,1.45
5107.00,1.45
5106.00,1.45
5105.00,1.45
5104.00,1.45
5103.00,1.45
5102.00,1.45
5101.00,1.45
5100.00,1.46
5099.00,1.46
5098.00,1.46
5097.00,1.46
5096.00,1.46
5095.00,1.46
5094.00,1.46
5093.00,1.46
5092.00,1.46
5091.00,1.46
5090.00,1.46
5089.00,1.46
5088.00,1.46
5087.00,1.46
5086.00,1.46
5085.00,1.46
5084.00,1.46
5083.00,1.46
5082.00,1.46
5081.00,1.47
5080.00,1.47
5079.00,1.47
5078.00,1.47
5077.00,1.47
5076.00,1.47
5075.00,1.47
5074.00,1.47
5073.00,1.47
5072.00,1.47
5071.00,1.48
5070.00,1.48
5069.00,1.48
5068.00,1.48
5067.00,1.48
5066.00,1.48
5065.00,1.48
5064.00,1.48
5063.00,1.48
5062.00,1.48
5061.00,1.48
5060.00,1.48
5059.00,1.48
5058.00,1.49
5057.00,1.49
5056.00,1.49
5055.00,1.49
5054.00,1.49
5053.00,1.49
5052.00,1.49
5051.00,1.49
5050.00,1.49
5049.00,1.49
5048.00,1.49
5047.00,1.49
5046.00,1.49
5045.00,1.49
5044.00,1.49
5043.00,1.50
5042.00,1.50
5041.00,1.50
5040.00,1.50
5039.00,1.50
5038.00,1.50
5037.00,1.50
5036.00,1.51
5035.00,1.51
5034.00,1.51
5033.00,1.51
5032.00,1.51
5031.00,1.51
5030.00,1.51
5029.00,1.51
5028.00,1.51
5027.00,1.51
5026.00,1.51
5025.00,1.51
5024.00,1.51
5023.00,1.52
5022.00,1.52
5021.00,1.52
5020.00,1.52
5019.00,1.52
5018.00,1.52
5017.00,1.52
5016.00,1.52
5015.00,1.52
5014.00,1.52
5013.00,1.53
5012.00,1.53
5011.00,1.53
5010.00,1.53
5009.00,1.53
5008.00,1.53
5007.00,1.53
5006.00,1.53
5005.00,1.53
5004.00,1.53
5003.00,1.53
5002.00,1.53
5001.00,1.53
5000.00,1.53
4999.00,1.53
4998.00,1.53
4997.00,1.54
4996.00,1.54
4995.00,1.54
4994.00,1.54
4993.00,1.54
4992.00,1.54
4991.00,1.54
4990.00,1.54
4989.00,1.54
4988.00,1.54
4987.00,1.54
4986.00,1.54
4985.00,1.55
4984.00,1.55
4983.00,1.55
4982.00,1.55
4981.00,1.55
4980.00,1.55
4979.00,1.55
4978.00,1.55
4977.00,1.55
4976.00,1.55
4975.00,1.56
4974.00,1.56
4973.00,1.56
4972.00,1.56
4971.00,1.56
4970.00,1.56
4969.00,1.56
4968.00,1.56
4967.00,1.56
4966.00,1.56
4965.00,1.56
4964.00,1.56
4963.00,1.56
4962.00,1.56
4961.00,1.56
4960.00,1.56
4959.00,1.57
4958.00,1.57
4957.00,1.57
4956.00,1.57
4955.00,1.57
4954.00,1.57
4953.00,1.57
4952.00,1.57
4951.00,1.57
4950.00,1.57
4949.00,1.57
4948.00,1.57
4947.00,1.57
4946.00,1.57
4945.00,1.58
4944.00,1.58
4943.00,1.58
4942.00,1.58
4941.00,1.58
4940.00,1.58
4939.00,1.58
4938.00,1.58
4937.00,1.58
4936.00,1.59
4935.00,1.59
4934.00,1.59
4933.00,1.59
4932.00,1.59
4931.00,1.59
4930.00,1.59
4929.00,1.59
4928.00,1.59
4927.00,1.59
4926.00,1.59
4925.00,1.60
4924.00,1.60
4923.00,1.60
4922.00,1.60
4921.00,1.60
4920.00,1.60
4919.00,1.60
4918.00,1.60
4917.00,1.60
4916.00,1.60
4915.00,1.60
4914.00,1.60
4913.00,1.61
4912.00,1.61
4911.00,1.61
4910.00,1.61
4909.00,1.61
4908.00,1.61
4907.00,1.61
4906.00,1.61
4905.00,1.61
4904.00,1.62
4903.00,1.62
4902.00,1.62
4901.00,1.62
4900.00,1.62
4899.00,1.62
4898.00,1.63
4897.00,1.63
4896.00,1.63
4895.00,1.63
4894.00,1.63
4893.00,1.63
4892.00,1.63
4891.00,1.63
4890.00,1.64
4889.00,1.64
4888.00,1.64
4887.00,1.64
4886.00,1.64
4885.00,1.64
4884.00,1.64
4883.00,1.64
4882.00,1.64
4881.00,1.64
4880.00,1.64
4879.00,1.64
4878.00,1.64
4877.00,1.64
4876.00,1.64
4875.00,1.64
4874.00,1.64
4873.00,1.64
4872.00,1.64
4871.00,1.65
4870.00,1.65
4869.00,1.65
4868.00,1.65
4867.00,1.65
4866.00,1.65
4865.00,1.65
4864.00,1.65
4863.00,1.65
4862.00,1.65
4861.00,1.65
4860.00,1.66
4859.00,1.66
4858.00,1.66
4857.00,1.66
4856.00,1.66
4855.00,1.66
4854.00,1.66
4853.00,1.66
4852.00,1.66
4851.00,1.66
4850.00,1.67
4849.00,1.67
4848.00,1.67
4847.00,1.67
4846.00,1.67
4845.00,1.67
4844.00,1.67
4843.00,1.67
4842.00,1.67
4841.00,1.67
4840.00,1.67
4839.00,1.68
4838.00,1.68
4837.00,1.68
4836.00,1.68
4835.00,1.68
4834.00,1.68
4833.00,1.68
4832.00,1.68
4831.00,1.68
4830.00,1.69
4829.00,1.69
4828.00,1.69
4827.00,1.69
4826.00,1.69
4825.00,1.69
4824.00,1.69
4823.00,1.69
4822.00,1.69
4821.00,1.70
4820.00,1.70
4819.00,1.70
4818.00,1.70
4817.00,1.70
4816.00,1.70
4815.00,1.70
4814.00,1.70
4813.00,1.70
4812.00,1.70
4811.00,1.70
4810.00,1.70
4809.00,1.71
4808.00,1.71
4807.00,1.71
4806.00,1.71
4805.00,1.71
4804.00,1.71
4803.00,1.71
4802.00,1.71
4801.00,1.71
4800.00,1.71
4799.00,1.72
4798.00,1.72
4797.00,1.72
4796.00,1.72
4795.00,1.72
4794.00,1.72
4793.00,1.72
4792.00,1.72
4791.00,1.72
4790.00,1.73
4789.00,1.73
4788.00,1.73
4787.00,1.73
4786.00,1.73
4785.00,1.73
4784.00,1.73
4783.00,1.74
4782.00,1.74
4781.00,1.74
4780.00,1.74
4779.00,1.74
4778.00,1.74
4777.00,1.74
4776.00,1.74
4775.00,1.75
4774.00,1.75
4773.00,1.75
4772.00,1.75
4771.00,1.75
4770.00,1.75
4769.00,1.76
4768.00,1.76
4767.00,1.76
4766.00,1.76
4765.00,1.77
4764.00,1.77
4763.00,1.77
4762.00,1.77
4761.00,1.78
4760.00,1.78
4759.00,1.78
4758.00,1.78
4757.00,1.78
4756.00,1.78
4755.00,1.79
4754.00,1.79
4753.00,1.79
4752.00,1.79
4751.00,1.79
4750.00,1.79
4749.00,1.79
4748.00,1.80
4747.00,1.80
4746.00,1.80
4745.00,1.80
4744.00,1.80
4743.00,1.80
4742.00,1.80
4741.00,1.80
4740.00,1.81
4739.00,1.81
4738.00,1.81
4737.00,1.81
4736.00,1.81
4735.00,1.81
4734.00,1.82
4733.00,1.82
4732.00,1.82
4731.00,1.82
4730.00,1.82
4729.00,1.82
4728.00,1.82
4727.00,1.83
4726.00,1.83
4725.00,1.83
4724.00,1.83
4723.00,1.83
4722.00,1.83
4721.00,1.84
4720.00,1.84
4719.00,1.84
4718.00,1.84
4717.00,1.84
4716.00,1.85
4715.00,1.85
4714.00,1.85
4713.00,1.85
4712.00,1.85
4711.00,1.85
4710.00,1.86
4709.00,1.86
4708.00,1.86
4707.00,1.86
4706.00,1.86
4705.00,1.86
4704.00,1.86
4703.00,1.87
4702.00,1.87
4701.00,1.87
4700.00,1.87
4699.00,1.87
4698.00,1.88
4697.00,1.88
4696.00,1.88
4695.00,1.88
4694.00,1.88
4693.00,1.88
4692.00,1.89
4691.00,1.89
4690.00,1.89
4689.00,1.89
4688.00,1.89
4687.00,1.89
4686.00,1.90
4685.00,1.90
4684.00,1.90
4683.00,1.90
4682.00,1.90
4681.00,1.90
4680.00,1.90
4679.00,1.90
4678.00,1.90
4677.00,1.90
4676.00,1.91
4675.00,1.91
4674.00,1.91
4673.00,1.91
4672.00,1.91
4671.00,1.91
4670.00,1.91
4669.00,1.91
4668.00,1.91
4667.00,1.92
4666.00,1.92
4665.00,1.92
4664.00,1.92
4663.00,1.92
4662.00,1.93
4661.00,1.93
4660.00,1.93
4659.00,1.93
4658.00,1.94
4657.00,1.94
4656.00,1.94
4655.00,1.94
4654.00,1.95
4653.00,1.95
4652.00,1.95
4651.00,1.95
4650.00,1.95
4649.00,1.95
4648.00,1.96
4647.00,1.96
4646.00,1.96
4645.00,1.96
4644.00,1.96
4643.00,1.96
4642.00,1.96
4641.00,1.96
4640.00,1.96
4639.00,1.96
4638.00,1.96
4637.00,1.96
4636.00,1.97
4635.00,1.97
4634.00,1.97
4633.00,1.97
4632.00,1.97
4631.00,1.97
4630.00,1.97
4629.00,1.98
4628.00,1.98
4627.00,1.98
4626.00,1.98
4625.00,1.98
4624.00,1.98
4623.00,1.99
4622.00,1.99
4621.00,1.99
4620.00,1.99
4619.00,1.99
4618.00,1.99
4617.00,2.00
4616.00,2.00
4615.00,2.00
4614.00,2.00
4613.00,2.00
4612.00,2.00
4611.00,2.01
4610.00,2.01
4609.00,2.01
4608.00,2.01
4607.00,2.01
4606.00,2.01
4605.00,2.01
4604.00,2.01
4603.00,2.01
4602.00,2.01
4601.00,2.01
4600.00,2.01
4599.00,2.01
4598.00,2.01
4597.00,2.01
4596.00,2.01
4595.00,2.01
4594.00,2.01
4593.00,2.02
4592.00,2.02
4591.00,2.02
4590.00,2.02
4589.00,2.02
4588.00,2.02
4587.00,2.02
4586.00,2.02
4585.00,2.03
4584.00,2.03
4583.00,2.03
4582.00,2.03
4581.00,2.03
4580.00,2.03
4579.00,2.04
4578.00,2.04
4577.00,2.04
4576.00,2.04
4575.00,2.04
4574.00,2.04
4573.00,2.04
4572.00,2.04
4571.00,2.04
4570.00,2.04
4569.00,2.04
4568.00,2.04
4567.00,2.04
4566.00,2.04
4565.00,2.04
4564.00,2.05
4563.00,2.05
4562.00,2.05
4561.00,2.05
4560.00,2.05
4559.00,2.05
4558.00,2.05
4557.00,2.05
4556.00,2.05
4555.00,2.05
4554.00,2.05
4553.00,2.05
4552.00,2.06
4551.00,2.06
4550.00,2.06
4549.00,2.06
4548.00,2.06
4547.00,2.06
4546.00,2.06
4545.00,2.06
4544.00,2.06
4543.00,2.06
4542.00,2.06
4541.00,2.06
4540.00,2.06
4539.00,2.06
4538.00,2.06
4537.00,2.06
4536.00,2.06
4535.00,2.06
4534.00,2.06
4533.00,2.06
4532.00,2.06
4531.00,2.06
4530.00,2.06
4529.00,2.06
4528.00,2.06
4527.00,2.06
4526.00,2.07
4525.00,2.07
4524.00,2.07
4523.00,2.07
4522.00,2.07
4521.00,2.07
4520.00,2.07
4519.00,2.07
4518.00,2.07
4517.00,2.07
4516.00,2.07
4515.00,2.07
4514.00,2.07
4513.00,2.07
4512.00,2.07
4511.00,2.07
4510.00,2.07
4509.00,2.08
4508.00,2.08
4507.00,2.08
4506.00,2.08
4505.00,2.08
4504.00,2.08
4503.00,2.08
4502.00,2.08
4501.00,2.08
4500.00,2.08
4499.00,2.08
4498.00,2.08
4497.00,2.08
4496.00,2.08
4495.00,2.08
4494.00,2.08
4493.00,2.08
4492.00,2.08
4491.00,2.08
4490.00,2.08
4489.00,2.08
4488.00,2.08
4487.00,2.08
4486.00,2.07
4485.00,2.07
4484.00,2.07
4483.00,2.07
4482.00,2.07
4481.00,2.07
4480.00,2.06
4479.00,2.06
4478.00,2.06
4477.00,2.06
4476.00,2.06
4475.00,2.05
4474.00,2.05
4473.00,2.05
4472.00,2.05
4471.00,2.05
4470.00,2.05
4469.00,2.05
4468.00,2.04
4467.00,2.04
4466.00,2.04
4465.00,2.04
4464.00,2.04
4463.00,2.04
4462.00,2.04
4461.00,2.03
4460.00,2.03
4459.00,2.03
4458.00,2.03
4457.00,2.03
4456.00,2.02
4455.00,2.02
4454.00,2.02
4453.00,2.02
4452.00,2.01
4451.00,2.01
4450.00,2.01
4449.00,2.00
4448.00,2.00
4447.00,2.00
4446.00,1.99
4445.00,1.99
4444.00,1.99
4443.00,1.98
4442.00,1.98
4441.00,1.97
4440.00,1.97
4439.00,1.97
4438.00,1.96
4437.00,1.96
4436.00,1.96
4435.00,1.96
4434.00,1.95
4433.00,1.95
4432.00,1.95
4431.00,1.95
4430.00,1.95
4429.00,1.95
4428.00,1.94
4427.00,1.94
4426.00,1.94
4425.00,1.94
4424.00,1.94
4423.00,1.94
4422.00,1.94
4421.00,1.94
4420.00,1.94
4419.00,1.94
4418.00,1.94
4417.00,1.94
4416.00,1.94
4415.00,1.94
4414.00,1.94
4413.00,1.94
4412.00,1.94
4411.00,1.94
4410.00,1.94
4409.00,1.94
4408.00,1.94
4407.00,1.94
4406.00,1.95
4405.00,1.95
4404.00,1.95
4403.00,1.95
4402.00,1.95
4401.00,1.95
4400.00,1.95
4399.00,1.95
4398.00,1.95
4397.00,1.95
4396.00,1.95
4395.00,1.95
4394.00,1.95
4393.00,1.96
4392.00,1.96
4391.00,1.96
4390.00,1.96
4389.00,1.96
4388.00,1.96
4387.00,1.96
4386.00,1.97
4385.00,1.97
4384.00,1.97
4383.00,1.97
4382.00,1.97
4381.00,1.97
4380.00,1.98
4379.00,1.98
4378.00,1.98
4377.00,1.98
4376.00,1.98
4375.00,1.98
4374.00,1.98
4373.00,1.99
4372.00,1.99
4371.00,1.99
4370.00,1.99
4369.00,1.99
4368.00,1.99
4367.00,1.99
4366.00,1.99
4365.00,1.99
4364.00,1.99
4363.00,1.99
4362.00,1.99
4361.00,1.99
4360.00,1.99
4359.00,1.99
4358.00,1.99
4357.00,1.99
4356.00,1.99
4355.00,1.99
4354.00,1.99
4353.00,2.00
4352.00,2.00
4351.00,2.00
4350.00,2.00
4349.00,2.00
4348.00,2.00
4347.00,2.00
4346.00,2.00
4345.00,2.00
4344.00,2.00
4343.00,2.00
4342.00,2.00
4341.00,2.00
4340.00,2.00
4339.00,2.00
4338.00,2.00
4337.00,2.01
4336.00,2.01
4335.00,2.01
4334.00,2.01
4333.00,2.01
4332.00,2.01
4331.00,2.01
4330.00,2.01
4329.00,2.01
4328.00,2.02
4327.00,2.02
4326.00,2.02
4325.00,2.02
4324.00,2.02
4323.00,2.02
4322.00,2.03
4321.00,2.03
4320.00,2.03
4319.00,2.03
4318.00,2.04
4317.00,2.04
4316.00,2.04
4315.00,2.04
4314.00,2.05
4313.00,2.05
4312.00,2.05
4311.00,2.05
4310.00,2.05
4309.00,2.06
4308.00,2.06
4307.00,2.06
4306.00,2.06
4305.00,2.06
4304.00,2.06
4303.00,2.06
4302.00,2.06
4301.00,2.06
4300.00,2.06
4299.00,2.06
4298.00,2.06
4297.00,2.06
4296.00,2.06
4295.00,2.06
4294.00,2.06
4293.00,2.06
4292.00,2.06
4291.00,2.07
4290.00,2.07
4289.00,2.07
4288.00,2.07
4287.00,2.07
4286.00,2.07
4285.00,2.07
4284.00,2.07
4283.00,2.07
4282.00,2.08
4281.00,2.08
4280.00,2.08
4279.00,2.08
4278.00,2.08
4277.00,2.08
4276.00,2.08
4275.00,2.08
4274.00,2.08
4273.00,2.08
4272.00,2.08
4271.00,2.08
4270.00,2.08
4269.00,2.08
4268.00,2.08
4267.00,2.08
4266.00,2.08
4265.00,2.08
4264.00,2.08
4263.00,2.08
4262.00,2.08
4261.00,2.08
4260.00,2.08
4259.00,2.08
4258.00,2.08
4257.00,2.08
4256.00,2.08
4255.00,2.08
4254.00,2.08
4253.00,2.08
4252.00,2.09
4251.00,2.09
4250.00,2.09
4249.00,2.09
4248.00,2.09
4247.00,2.09
4246.00,2.10
4245.00,2.10
4244.00,2.10
4243.00,2.10
4242.00,2.10
4241.00,2.10
4240.00,2.10
4239.00,2.10
4238.00,2.10
4237.00,2.10
4236.00,2.10
4235.00,2.10
4234.00,2.10
4233.00,2.10
4232.00,2.10
4231.00,2.10
4230.00,2.10
4229.00,2.10
4228.00,2.10
4227.00,2.11
4226.00,2.11
4225.00,2.11
4224.00,2.11
4223.00,2.11
4222.00,2.11
4221.00,2.11
4220.00,2.11
4219.00,2.11
4218.00,2.12
4217.00,2.12
4216.00,2.12
4215.00,2.12
4214.00,2.12
4213.00,2.12
4212.00,2.12
4211.00,2.13
4210.00,2.13
4209.00,2.13
4208.00,2.13
4207.00,2.13
4206.00,2.13
4205.00,2.13
4204.00,2.13
4203.00,2.13
4202.00,2.13
4201.00,2.13
4200.00,2.13
4199.00,2.13
4198.00,2.13
4197.00,2.13
4196.00,2.12
4195.00,2.12
4194.00,2.12
4193.00,2.12
4192.00,2.12
4191.00,2.12
4190.00,2.13
4189.00,2.13
4188.00,2.13
4187.00,2.13
4186.00,2.13
4185.00,2.13
4184.00,2.13
4183.00,2.13
4182.00,2.14
4181.00,2.14
4180.00,2.14
4179.00,2.14
4178.00,2.14
4177.00,2.14
4176.00,2.14
4175.00,2.14
4174.00,2.14
4173.00,2.15
4172.00,2.15
4171.00,2.15
4170.00,2.15
4169.00,2.15
4168.00,2.15
4167.00,2.15
4166.00,2.15
4165.00,2.15
4164.00,2.15
4163.00,2.15
4162.00,2.15
4161.00,2.16
4160.00,2.16
4159.00,2.16
4158.00,2.16
4157.00,2.16
4156.00,2.16
4155.00,2.16
4154.00,2.16
4153.00,2.16
4152.00,2.16
4151.00,2.16
4150.00,2.16
4149.00,2.16
4148.00,2.16
4147.00,2.16
4146.00,2.17
4145.00,2.17
4144.00,2.17
4143.00,2.17
4142.00,2.17
4141.00,2.17
4140.00,2.18
4139.00,2.18
4138.00,2.18
4137.00,2.18
4136.00,2.18
4135.00,2.19
4134.00,2.19
4133.00,2.19
4132.00,2.19
4131.00,2.19
4130.00,2.19
4129.00,2.20
4128.00,2.20
4127.00,2.20
4126.00,2.20
4125.00,2.20
4124.00,2.20
4123.00,2.20
4122.00,2.20
4121.00,2.20
4120.00,2.20
4119.00,2.21
4118.00,2.21
4117.00,2.21
4116.00,2.21
4115.00,2.21
4114.00,2.21
4113.00,2.20
4112.00,2.20
4111.00,2.20
4110.00,2.20
4109.00,2.20
4108.00,2.20
4107.00,2.20
4106.00,2.20
4105.00,2.20
4104.00,2.20
4103.00,2.20
4102.00,2.20
4101.00,2.20
4100.00,2.20
4099.00,2.20
4098.00,2.20
4097.00,2.20
4096.00,2.20
4095.00,2.20
4094.00,2.20
4093.00,2.20
4092.00,2.20
4091.00,2.20
4090.00,2.20
4089.00,2.20
4088.00,2.20
4087.00,2.21
4086.00,2.21
4085.00,2.21
4084.00,2.21
4083.00,2.21
4082.00,2.21
4081.00,2.21
4080.00,2.21
4079.00,2.22
4078.00,2.22
4077.00,2.22
4076.00,2.22
4075.00,2.22
4074.00,2.22
4073.00,2.22
4072.00,2.22
4071.00,2.22
4070.00,2.22
4069.00,2.22
4068.00,2.22
4067.00,2.22
4066.00,2.22
4065.00,2.22
4064.00,2.22
4063.00,2.22
4062.00,2.22
4061.00,2.22
4060.00,2.22
4059.00,2.22
4058.00,2.22
4057.00,2.22
4056.00,2.22
4055.00,2.22
4054.00,2.22
4053.00,2.22
4052.00,2.22
4051.00,2.23
4050.00,2.23
4049.00,2.23
4048.00,2.23
4047.00,2.23
4046.00,2.23
4045.00,2.23
4044.00,2.23
4043.00,2.23
4042.00,2.23
4041.00,2.23
4040.00,2.23
4039.00,2.24
4038.00,2.24
4037.00,2.24
4036.00,2.24
4035.00,2.24
4034.00,2.24
4033.00,2.24
4032.00,2.24
4031.00,2.24
4030.00,2.24
4029.00,2.24
4028.00,2.24
4027.00,2.24
4026.00,2.24
4025.00,2.24
4024.00,2.25
4023.00,2.25
4022.00,2.25
4021.00,2.25
4020.00,2.25
4019.00,2.25
4018.00,2.25
4017.00,2.26
4016.00,2.26
4015.00,2.26
4014.00,2.26
4013.00,2.26
4012.00,2.26
4011.00,2.26
4010.00,2.26
4009.00,2.26
4008.00,2.26
4007.00,2.26
4006.00,2.27
4005.00,2.27
4004.00,2.27
4003.00,2.27
4002.00,2.27
4001.00,2.28
4000.00,2.28
