创建为新数据集,样品 537 用户 Administrator 日期 星期一, 七月 16 2018
cm-1,%T
10000.00,1.67
9999.00,1.67
9998.00,1.67
9997.00,1.66
9996.00,1.66
9995.00,1.66
9994.00,1.65
9993.00,1.65
9992.00,1.65
9991.00,1.64
9990.00,1.64
9989.00,1.64
9988.00,1.63
9987.00,1.63
9986.00,1.62
9985.00,1.62
9984.00,1.62
9983.00,1.62
9982.00,1.61
9981.00,1.61
9980.00,1.61
9979.00,1.61
9978.00,1.61
9977.00,1.61
9976.00,1.61
9975.00,1.61
9974.00,1.62
9973.00,1.62
9972.00,1.62
9971.00,1.63
9970.00,1.63
9969.00,1.64
9968.00,1.64
9967.00,1.64
9966.00,1.65
9965.00,1.65
9964.00,1.66
9963.00,1.66
9962.00,1.66
9961.00,1.66
9960.00,1.67
9959.00,1.67
9958.00,1.67
9957.00,1.66
9956.00,1.66
9955.00,1.66
9954.00,1.66
9953.00,1.65
9952.00,1.65
9951.00,1.64
9950.00,1.64
9949.00,1.63
9948.00,1.63
9947.00,1.63
9946.00,1.62
9945.00,1.62
9944.00,1.62
9943.00,1.61
9942.00,1.61
9941.00,1.61
9940.00,1.61
9939.00,1.61
9938.00,1.61
9937.00,1.61
9936.00,1.62
9935.00,1.62
9934.00,1.62
9933.00,1.63
9932.00,1.63
9931.00,1.63
9930.00,1.64
9929.00,1.64
9928.00,1.64
9927.00,1.64
9926.00,1.64
9925.00,1.64
9924.00,1.64
9923.00,1.64
9922.00,1.64
9921.00,1.64
9920.00,1.64
9919.00,1.64
9918.00,1.64
9917.00,1.64
9916.00,1.64
9915.00,1.64
9914.00,1.64
9913.00,1.64
9912.00,1.64
9911.00,1.64
9910.00,1.64
9909.00,1.64
9908.00,1.65
9907.00,1.65
9906.00,1.65
9905.00,1.65
9904.00,1.65
9903.00,1.65
9902.00,1.65
9901.00,1.65
9900.00,1.65
9899.00,1.65
9898.00,1.65
9897.00,1.65
9896.00,1.65
9895.00,1.65
9894.00,1.64
9893.00,1.64
9892.00,1.64
9891.00,1.64
9890.00,1.64
9889.00,1.63
9888.00,1.63
9887.00,1.63
9886.00,1.63
9885.00,1.63
9884.00,1.63
9883.00,1.63
9882.00,1.64
9881.00,1.64
9880.00,1.64
9879.00,1.64
9878.00,1.64
9877.00,1.64
9876.00,1.65
9875.00,1.65
9874.00,1.65
9873.00,1.65
9872.00,1.65
9871.00,1.65
9870.00,1.65
9869.00,1.65
9868.00,1.65
9867.00,1.65
9866.00,1.65
9865.00,1.65
9864.00,1.64
9863.00,1.64
9862.00,1.64
9861.00,1.64
9860.00,1.64
9859.00,1.64
9858.00,1.63
9857.00,1.63
9856.00,1.63
9855.00,1.63
9854.00,1.63
9853.00,1.63
9852.00,1.63
9851.00,1.63
9850.00,1.63
9849.00,1.63
9848.00,1.63
9847.00,1.63
9846.00,1.63
9845.00,1.63
9844.00,1.63
9843.00,1.63
9842.00,1.63
9841.00,1.63
9840.00,1.63
9839.00,1.63
9838.00,1.63
9837.00,1.63
9836.00,1.64
9835.00,1.64
9834.00,1.64
9833.00,1.64
9832.00,1.64
9831.00,1.64
9830.00,1.64
9829.00,1.64
9828.00,1.65
9827.00,1.65
9826.00,1.65
9825.00,1.65
9824.00,1.65
9823.00,1.65
9822.00,1.65
9821.00,1.65
9820.00,1.65
9819.00,1.64
9818.00,1.64
9817.00,1.64
9816.00,1.64
9815.00,1.64
9814.00,1.64
9813.00,1.64
9812.00,1.64
9811.00,1.64
9810.00,1.64
9809.00,1.64
9808.00,1.64
9807.00,1.64
9806.00,1.64
9805.00,1.65
9804.00,1.65
9803.00,1.65
9802.00,1.65
9801.00,1.66
9800.00,1.66
9799.00,1.66
9798.00,1.66
9797.00,1.67
9796.00,1.67
9795.00,1.67
9794.00,1.67
9793.00,1.67
9792.00,1.67
9791.00,1.66
9790.00,1.66
9789.00,1.66
9788.00,1.66
9787.00,1.66
9786.00,1.66
9785.00,1.65
9784.00,1.65
9783.00,1.65
9782.00,1.65
9781.00,1.65
9780.00,1.65
9779.00,1.64
9778.00,1.64
9777.00,1.64
9776.00,1.64
9775.00,1.64
9774.00,1.64
9773.00,1.64
9772.00,1.64
9771.00,1.64
9770.00,1.64
9769.00,1.63
9768.00,1.63
9767.00,1.63
9766.00,1.63
9765.00,1.63
9764.00,1.63
9763.00,1.63
9762.00,1.63
9761.00,1.63
9760.00,1.63
9759.00,1.63
9758.00,1.63
9757.00,1.63
9756.00,1.63
9755.00,1.63
9754.00,1.63
9753.00,1.63
9752.00,1.63
9751.00,1.62
9750.00,1.62
9749.00,1.62
9748.00,1.62
9747.00,1.62
9746.00,1.62
9745.00,1.62
9744.00,1.62
9743.00,1.62
9742.00,1.61
9741.00,1.61
9740.00,1.61
9739.00,1.61
9738.00,1.62
9737.00,1.62
9736.00,1.62
9735.00,1.62
9734.00,1.62
9733.00,1.62
9732.00,1.62
9731.00,1.63
9730.00,1.63
9729.00,1.63
9728.00,1.63
9727.00,1.63
9726.00,1.64
9725.00,1.64
9724.00,1.64
9723.00,1.64
9722.00,1.64
9721.00,1.64
9720.00,1.64
9719.00,1.65
9718.00,1.65
9717.00,1.65
9716.00,1.65
9715.00,1.65
9714.00,1.65
9713.00,1.65
9712.00,1.65
9711.00,1.65
9710.00,1.65
9709.00,1.65
9708.00,1.65
9707.00,1.65
9706.00,1.65
9705.00,1.65
9704.00,1.64
9703.00,1.64
9702.00,1.64
9701.00,1.64
9700.00,1.64
9699.00,1.63
9698.00,1.63
9697.00,1.63
9696.00,1.63
9695.00,1.63
9694.00,1.63
9693.00,1.62
9692.00,1.62
9691.00,1.62
9690.00,1.62
9689.00,1.63
9688.00,1.63
9687.00,1.63
9686.00,1.63
9685.00,1.63
9684.00,1.63
9683.00,1.64
9682.00,1.64
9681.00,1.64
9680.00,1.64
9679.00,1.64
9678.00,1.65
9677.00,1.65
9676.00,1.65
9675.00,1.65
9674.00,1.65
9673.00,1.65
9672.00,1.65
9671.00,1.65
9670.00,1.65
9669.00,1.64
9668.00,1.64
9667.00,1.64
9666.00,1.64
9665.00,1.64
9664.00,1.64
9663.00,1.63
9662.00,1.63
9661.00,1.63
9660.00,1.63
9659.00,1.62
9658.00,1.62
9657.00,1.62
9656.00,1.62
9655.00,1.62
9654.00,1.62
9653.00,1.62
9652.00,1.62
9651.00,1.62
9650.00,1.62
9649.00,1.62
9648.00,1.62
9647.00,1.63
9646.00,1.63
9645.00,1.63
9644.00,1.64
9643.00,1.64
9642.00,1.64
9641.00,1.65
9640.00,1.65
9639.00,1.65
9638.00,1.65
9637.00,1.66
9636.00,1.66
9635.00,1.66
9634.00,1.66
9633.00,1.66
9632.00,1.66
9631.00,1.66
9630.00,1.66
9629.00,1.66
9628.00,1.66
9627.00,1.66
9626.00,1.65
9625.00,1.65
9624.00,1.65
9623.00,1.65
9622.00,1.65
9621.00,1.65
9620.00,1.65
9619.00,1.65
9618.00,1.64
9617.00,1.64
9616.00,1.64
9615.00,1.64
9614.00,1.64
9613.00,1.64
9612.00,1.64
9611.00,1.64
9610.00,1.64
9609.00,1.64
9608.00,1.64
9607.00,1.63
9606.00,1.63
9605.00,1.63
9604.00,1.63
9603.00,1.63
9602.00,1.63
9601.00,1.63
9600.00,1.63
9599.00,1.63
9598.00,1.62
9597.00,1.62
9596.00,1.62
9595.00,1.62
9594.00,1.62
9593.00,1.62
9592.00,1.62
9591.00,1.62
9590.00,1.62
9589.00,1.62
9588.00,1.62
9587.00,1.62
9586.00,1.62
9585.00,1.62
9584.00,1.63
9583.00,1.63
9582.00,1.63
9581.00,1.63
9580.00,1.63
9579.00,1.63
9578.00,1.63
9577.00,1.63
9576.00,1.63
9575.00,1.63
9574.00,1.63
9573.00,1.63
9572.00,1.63
9571.00,1.63
9570.00,1.63
9569.00,1.63
9568.00,1.63
9567.00,1.63
9566.00,1.64
9565.00,1.64
9564.00,1.64
9563.00,1.64
9562.00,1.64
9561.00,1.64
9560.00,1.64
9559.00,1.65
9558.00,1.65
9557.00,1.65
9556.00,1.65
9555.00,1.65
9554.00,1.65
9553.00,1.65
9552.00,1.65
9551.00,1.65
9550.00,1.65
9549.00,1.65
9548.00,1.65
9547.00,1.65
9546.00,1.65
9545.00,1.65
9544.00,1.65
9543.00,1.65
9542.00,1.65
9541.00,1.64
9540.00,1.64
9539.00,1.64
9538.00,1.64
9537.00,1.64
9536.00,1.63
9535.00,1.63
9534.00,1.63
9533.00,1.63
9532.00,1.63
9531.00,1.63
9530.00,1.63
9529.00,1.63
9528.00,1.63
9527.00,1.63
9526.00,1.63
9525.00,1.63
9524.00,1.64
9523.00,1.64
9522.00,1.64
9521.00,1.64
9520.00,1.65
9519.00,1.65
9518.00,1.65
9517.00,1.66
9516.00,1.66
9515.00,1.66
9514.00,1.66
9513.00,1.66
9512.00,1.67
9511.00,1.67
9510.00,1.67
9509.00,1.67
9508.00,1.67
9507.00,1.67
9506.00,1.67
9505.00,1.66
9504.00,1.66
9503.00,1.66
9502.00,1.66
9501.00,1.66
9500.00,1.65
9499.00,1.65
9498.00,1.65
9497.00,1.65
9496.00,1.65
9495.00,1.64
9494.00,1.64
9493.00,1.64
9492.00,1.64
9491.00,1.64
9490.00,1.64
9489.00,1.64
9488.00,1.64
9487.00,1.64
9486.00,1.64
9485.00,1.63
9484.00,1.63
9483.00,1.63
9482.00,1.63
9481.00,1.64
9480.00,1.64
9479.00,1.64
9478.00,1.64
9477.00,1.64
9476.00,1.64
9475.00,1.64
9474.00,1.64
9473.00,1.64
9472.00,1.64
9471.00,1.64
9470.00,1.65
9469.00,1.65
9468.00,1.65
9467.00,1.65
9466.00,1.65
9465.00,1.65
9464.00,1.65
9463.00,1.64
9462.00,1.64
9461.00,1.64
9460.00,1.64
9459.00,1.64
9458.00,1.64
9457.00,1.64
9456.00,1.63
9455.00,1.63
9454.00,1.63
9453.00,1.63
9452.00,1.63
9451.00,1.62
9450.00,1.62
9449.00,1.62
9448.00,1.62
9447.00,1.62
9446.00,1.62
9445.00,1.62
9444.00,1.62
9443.00,1.62
9442.00,1.62
9441.00,1.62
9440.00,1.62
9439.00,1.63
9438.00,1.63
9437.00,1.63
9436.00,1.63
9435.00,1.63
9434.00,1.64
9433.00,1.64
9432.00,1.64
9431.00,1.64
9430.00,1.64
9429.00,1.64
9428.00,1.65
9427.00,1.65
9426.00,1.65
9425.00,1.65
9424.00,1.65
9423.00,1.65
9422.00,1.65
9421.00,1.65
9420.00,1.65
9419.00,1.65
9418.00,1.65
9417.00,1.65
9416.00,1.65
9415.00,1.65
9414.00,1.65
9413.00,1.64
9412.00,1.64
9411.00,1.64
9410.00,1.64
9409.00,1.64
9408.00,1.64
9407.00,1.64
9406.00,1.64
9405.00,1.64
9404.00,1.64
9403.00,1.64
9402.00,1.64
9401.00,1.64
9400.00,1.64
9399.00,1.65
9398.00,1.65
9397.00,1.65
9396.00,1.65
9395.00,1.65
9394.00,1.65
9393.00,1.65
9392.00,1.65
9391.00,1.65
9390.00,1.65
9389.00,1.65
9388.00,1.65
9387.00,1.65
9386.00,1.65
9385.00,1.65
9384.00,1.65
9383.00,1.65
9382.00,1.65
9381.00,1.65
9380.00,1.65
9379.00,1.65
9378.00,1.65
9377.00,1.65
9376.00,1.65
9375.00,1.65
9374.00,1.65
9373.00,1.65
9372.00,1.65
9371.00,1.64
9370.00,1.64
9369.00,1.64
9368.00,1.64
9367.00,1.63
9366.00,1.63
9365.00,1.63
9364.00,1.63
9363.00,1.63
9362.00,1.62
9361.00,1.62
9360.00,1.62
9359.00,1.62
9358.00,1.62
9357.00,1.62
9356.00,1.61
9355.00,1.61
9354.00,1.61
9353.00,1.61
9352.00,1.61
9351.00,1.61
9350.00,1.62
9349.00,1.62
9348.00,1.62
9347.00,1.62
9346.00,1.62
9345.00,1.62
9344.00,1.62
9343.00,1.63
9342.00,1.63
9341.00,1.63
9340.00,1.63
9339.00,1.63
9338.00,1.63
9337.00,1.64
9336.00,1.64
9335.00,1.64
9334.00,1.64
9333.00,1.64
9332.00,1.65
9331.00,1.65
9330.00,1.65
9329.00,1.65
9328.00,1.65
9327.00,1.65
9326.00,1.66
9325.00,1.66
9324.00,1.66
9323.00,1.66
9322.00,1.66
9321.00,1.66
9320.00,1.65
9319.00,1.65
9318.00,1.65
9317.00,1.65
9316.00,1.65
9315.00,1.65
9314.00,1.65
9313.00,1.64
9312.00,1.64
9311.00,1.64
9310.00,1.64
9309.00,1.64
9308.00,1.64
9307.00,1.63
9306.00,1.63
9305.00,1.63
9304.00,1.63
9303.00,1.63
9302.00,1.63
9301.00,1.63
9300.00,1.63
9299.00,1.63
9298.00,1.64
9297.00,1.64
9296.00,1.64
9295.00,1.64
9294.00,1.64
9293.00,1.64
9292.00,1.64
9291.00,1.64
9290.00,1.64
9289.00,1.64
9288.00,1.64
9287.00,1.64
9286.00,1.64
9285.00,1.64
9284.00,1.64
9283.00,1.64
9282.00,1.63
9281.00,1.63
9280.00,1.63
9279.00,1.63
9278.00,1.62
9277.00,1.62
9276.00,1.62
9275.00,1.62
9274.00,1.62
9273.00,1.62
9272.00,1.62
9271.00,1.62
9270.00,1.62
9269.00,1.62
9268.00,1.62
9267.00,1.62
9266.00,1.62
9265.00,1.62
9264.00,1.62
9263.00,1.62
9262.00,1.63
9261.00,1.63
9260.00,1.63
9259.00,1.63
9258.00,1.63
9257.00,1.63
9256.00,1.64
9255.00,1.64
9254.00,1.64
9253.00,1.64
9252.00,1.64
9251.00,1.64
9250.00,1.64
9249.00,1.65
9248.00,1.65
9247.00,1.65
9246.00,1.65
9245.00,1.65
9244.00,1.64
9243.00,1.64
9242.00,1.64
9241.00,1.64
9240.00,1.64
9239.00,1.64
9238.00,1.64
9237.00,1.63
9236.00,1.63
9235.00,1.63
9234.00,1.63
9233.00,1.63
9232.00,1.63
9231.00,1.64
9230.00,1.64
9229.00,1.64
9228.00,1.64
9227.00,1.64
9226.00,1.64
9225.00,1.64
9224.00,1.64
9223.00,1.64
9222.00,1.64
9221.00,1.64
9220.00,1.65
9219.00,1.64
9218.00,1.64
9217.00,1.64
9216.00,1.64
9215.00,1.64
9214.00,1.64
9213.00,1.64
9212.00,1.64
9211.00,1.64
9210.00,1.64
9209.00,1.64
9208.00,1.64
9207.00,1.65
9206.00,1.65
9205.00,1.65
9204.00,1.65
9203.00,1.65
9202.00,1.65
9201.00,1.65
9200.00,1.65
9199.00,1.65
9198.00,1.65
9197.00,1.65
9196.00,1.66
9195.00,1.66
9194.00,1.66
9193.00,1.66
9192.00,1.66
9191.00,1.66
9190.00,1.66
9189.00,1.66
9188.00,1.66
9187.00,1.65
9186.00,1.65
9185.00,1.65
9184.00,1.65
9183.00,1.65
9182.00,1.65
9181.00,1.65
9180.00,1.65
9179.00,1.64
9178.00,1.64
9177.00,1.64
9176.00,1.64
9175.00,1.64
9174.00,1.64
9173.00,1.64
9172.00,1.64
9171.00,1.64
9170.00,1.64
9169.00,1.64
9168.00,1.64
9167.00,1.64
9166.00,1.64
9165.00,1.64
9164.00,1.64
9163.00,1.65
9162.00,1.65
9161.00,1.65
9160.00,1.65
9159.00,1.65
9158.00,1.66
9157.00,1.66
9156.00,1.66
9155.00,1.66
9154.00,1.66
9153.00,1.66
9152.00,1.66
9151.00,1.66
9150.00,1.66
9149.00,1.66
9148.00,1.66
9147.00,1.66
9146.00,1.66
9145.00,1.66
9144.00,1.66
9143.00,1.66
9142.00,1.66
9141.00,1.66
9140.00,1.66
9139.00,1.66
9138.00,1.66
9137.00,1.66
9136.00,1.66
9135.00,1.66
9134.00,1.66
9133.00,1.66
9132.00,1.66
9131.00,1.66
9130.00,1.66
9129.00,1.66
9128.00,1.66
9127.00,1.66
9126.00,1.66
9125.00,1.65
9124.00,1.65
9123.00,1.65
9122.00,1.65
9121.00,1.65
9120.00,1.65
9119.00,1.65
9118.00,1.65
9117.00,1.65
9116.00,1.64
9115.00,1.64
9114.00,1.64
9113.00,1.64
9112.00,1.64
9111.00,1.64
9110.00,1.64
9109.00,1.64
9108.00,1.64
9107.00,1.64
9106.00,1.63
9105.00,1.63
9104.00,1.64
9103.00,1.64
9102.00,1.64
9101.00,1.64
9100.00,1.64
9099.00,1.64
9098.00,1.64
9097.00,1.64
9096.00,1.64
9095.00,1.64
9094.00,1.64
9093.00,1.65
9092.00,1.65
9091.00,1.65
9090.00,1.65
9089.00,1.65
9088.00,1.65
9087.00,1.65
9086.00,1.65
9085.00,1.65
9084.00,1.65
9083.00,1.65
9082.00,1.64
9081.00,1.64
9080.00,1.64
9079.00,1.64
9078.00,1.64
9077.00,1.64
9076.00,1.64
9075.00,1.64
9074.00,1.64
9073.00,1.64
9072.00,1.64
9071.00,1.64
9070.00,1.65
9069.00,1.65
9068.00,1.65
9067.00,1.65
9066.00,1.65
9065.00,1.65
9064.00,1.65
9063.00,1.65
9062.00,1.65
9061.00,1.65
9060.00,1.65
9059.00,1.65
9058.00,1.65
9057.00,1.65
9056.00,1.65
9055.00,1.66
9054.00,1.66
9053.00,1.66
9052.00,1.66
9051.00,1.66
9050.00,1.66
9049.00,1.66
9048.00,1.66
9047.00,1.66
9046.00,1.66
9045.00,1.66
9044.00,1.66
9043.00,1.66
9042.00,1.66
9041.00,1.66
9040.00,1.66
9039.00,1.66
9038.00,1.66
9037.00,1.66
9036.00,1.66
9035.00,1.66
9034.00,1.66
9033.00,1.66
9032.00,1.66
9031.00,1.66
9030.00,1.66
9029.00,1.66
9028.00,1.66
9027.00,1.66
9026.00,1.66
9025.00,1.66
9024.00,1.66
9023.00,1.66
9022.00,1.66
9021.00,1.66
9020.00,1.66
9019.00,1.66
9018.00,1.66
9017.00,1.66
9016.00,1.66
9015.00,1.66
9014.00,1.66
9013.00,1.66
9012.00,1.66
9011.00,1.66
9010.00,1.66
9009.00,1.66
9008.00,1.66
9007.00,1.66
9006.00,1.66
9005.00,1.66
9004.00,1.66
9003.00,1.66
9002.00,1.66
9001.00,1.66
9000.00,1.66
8999.00,1.66
8998.00,1.66
8997.00,1.67
8996.00,1.67
8995.00,1.67
8994.00,1.67
8993.00,1.67
8992.00,1.67
8991.00,1.67
8990.00,1.66
8989.00,1.66
8988.00,1.66
8987.00,1.66
8986.00,1.66
8985.00,1.66
8984.00,1.66
8983.00,1.66
8982.00,1.65
8981.00,1.65
8980.00,1.65
8979.00,1.65
8978.00,1.65
8977.00,1.65
8976.00,1.65
8975.00,1.65
8974.00,1.65
8973.00,1.65
8972.00,1.65
8971.00,1.65
8970.00,1.64
8969.00,1.64
8968.00,1.64
8967.00,1.64
8966.00,1.64
8965.00,1.64
8964.00,1.64
8963.00,1.63
8962.00,1.63
8961.00,1.63
8960.00,1.63
8959.00,1.63
8958.00,1.63
8957.00,1.62
8956.00,1.62
8955.00,1.62
8954.00,1.62
8953.00,1.62
8952.00,1.62
8951.00,1.63
8950.00,1.63
8949.00,1.63
8948.00,1.63
8947.00,1.63
8946.00,1.63
8945.00,1.63
8944.00,1.63
8943.00,1.64
8942.00,1.64
8941.00,1.64
8940.00,1.64
8939.00,1.64
8938.00,1.64
8937.00,1.64
8936.00,1.64
8935.00,1.64
8934.00,1.64
8933.00,1.64
8932.00,1.64
8931.00,1.64
8930.00,1.65
8929.00,1.65
8928.00,1.65
8927.00,1.65
8926.00,1.65
8925.00,1.65
8924.00,1.65
8923.00,1.65
8922.00,1.65
8921.00,1.65
8920.00,1.65
8919.00,1.65
8918.00,1.66
8917.00,1.66
8916.00,1.66
8915.00,1.66
8914.00,1.66
8913.00,1.66
8912.00,1.66
8911.00,1.66
8910.00,1.66
8909.00,1.66
8908.00,1.66
8907.00,1.66
8906.00,1.66
8905.00,1.66
8904.00,1.66
8903.00,1.66
8902.00,1.66
8901.00,1.67
8900.00,1.67
8899.00,1.67
8898.00,1.67
8897.00,1.67
8896.00,1.67
8895.00,1.67
8894.00,1.67
8893.00,1.67
8892.00,1.67
8891.00,1.67
8890.00,1.67
8889.00,1.67
8888.00,1.67
8887.00,1.67
8886.00,1.67
8885.00,1.67
8884.00,1.67
8883.00,1.67
8882.00,1.67
8881.00,1.67
8880.00,1.67
8879.00,1.67
8878.00,1.67
8877.00,1.67
8876.00,1.67
8875.00,1.67
8874.00,1.67
8873.00,1.67
8872.00,1.67
8871.00,1.67
8870.00,1.67
8869.00,1.67
8868.00,1.67
8867.00,1.67
8866.00,1.67
8865.00,1.67
8864.00,1.67
8863.00,1.67
8862.00,1.67
8861.00,1.67
8860.00,1.66
8859.00,1.66
8858.00,1.66
8857.00,1.66
8856.00,1.66
8855.00,1.66
8854.00,1.66
8853.00,1.65
8852.00,1.65
8851.00,1.65
8850.00,1.65
8849.00,1.65
8848.00,1.65
8847.00,1.64
8846.00,1.64
8845.00,1.64
8844.00,1.64
8843.00,1.64
8842.00,1.64
8841.00,1.63
8840.00,1.63
8839.00,1.63
8838.00,1.63
8837.00,1.63
8836.00,1.63
8835.00,1.63
8834.00,1.63
8833.00,1.63
8832.00,1.63
8831.00,1.63
8830.00,1.63
8829.00,1.63
8828.00,1.63
8827.00,1.63
8826.00,1.63
8825.00,1.63
8824.00,1.63
8823.00,1.63
8822.00,1.63
8821.00,1.63
8820.00,1.63
8819.00,1.63
8818.00,1.62
8817.00,1.62
8816.00,1.62
8815.00,1.62
8814.00,1.62
8813.00,1.62
8812.00,1.62
8811.00,1.62
8810.00,1.62
8809.00,1.62
8808.00,1.62
8807.00,1.62
8806.00,1.62
8805.00,1.62
8804.00,1.62
8803.00,1.61
8802.00,1.61
8801.00,1.61
8800.00,1.61
8799.00,1.61
8798.00,1.61
8797.00,1.61
8796.00,1.60
8795.00,1.60
8794.00,1.60
8793.00,1.60
8792.00,1.60
8791.00,1.60
8790.00,1.60
8789.00,1.60
8788.00,1.60
8787.00,1.60
8786.00,1.60
8785.00,1.60
8784.00,1.60
8783.00,1.60
8782.00,1.60
8781.00,1.60
8780.00,1.60
8779.00,1.60
8778.00,1.60
8777.00,1.60
8776.00,1.60
8775.00,1.61
8774.00,1.61
8773.00,1.61
8772.00,1.61
8771.00,1.61
8770.00,1.61
8769.00,1.61
8768.00,1.61
8767.00,1.61
8766.00,1.60
8765.00,1.60
8764.00,1.60
8763.00,1.60
8762.00,1.60
8761.00,1.60
8760.00,1.60
8759.00,1.60
8758.00,1.60
8757.00,1.60
8756.00,1.60
8755.00,1.60
8754.00,1.60
8753.00,1.60
8752.00,1.60
8751.00,1.60
8750.00,1.60
8749.00,1.60
8748.00,1.60
8747.00,1.59
8746.00,1.59
8745.00,1.59
8744.00,1.59
8743.00,1.59
8742.00,1.59
8741.00,1.59
8740.00,1.59
8739.00,1.59
8738.00,1.59
8737.00,1.59
8736.00,1.59
8735.00,1.58
8734.00,1.58
8733.00,1.58
8732.00,1.58
8731.00,1.58
8730.00,1.58
8729.00,1.58
8728.00,1.58
8727.00,1.58
8726.00,1.58
8725.00,1.58
8724.00,1.58
8723.00,1.58
8722.00,1.58
8721.00,1.58
8720.00,1.58
8719.00,1.58
8718.00,1.58
8717.00,1.59
8716.00,1.59
8715.00,1.59
8714.00,1.59
8713.00,1.59
8712.00,1.59
8711.00,1.59
8710.00,1.59
8709.00,1.59
8708.00,1.59
8707.00,1.59
8706.00,1.59
8705.00,1.59
8704.00,1.59
8703.00,1.58
8702.00,1.58
8701.00,1.58
8700.00,1.58
8699.00,1.58
8698.00,1.58
8697.00,1.57
8696.00,1.57
8695.00,1.57
8694.00,1.57
8693.00,1.57
8692.00,1.57
8691.00,1.57
8690.00,1.56
8689.00,1.56
8688.00,1.56
8687.00,1.56
8686.00,1.56
8685.00,1.56
8684.00,1.56
8683.00,1.57
8682.00,1.57
8681.00,1.57
8680.00,1.57
8679.00,1.57
8678.00,1.57
8677.00,1.57
8676.00,1.57
8675.00,1.57
8674.00,1.57
8673.00,1.57
8672.00,1.57
8671.00,1.57
8670.00,1.57
8669.00,1.56
8668.00,1.56
8667.00,1.56
8666.00,1.56
8665.00,1.56
8664.00,1.56
8663.00,1.56
8662.00,1.56
8661.00,1.56
8660.00,1.56
8659.00,1.56
8658.00,1.56
8657.00,1.56
8656.00,1.56
8655.00,1.56
8654.00,1.56
8653.00,1.56
8652.00,1.56
8651.00,1.56
8650.00,1.56
8649.00,1.56
8648.00,1.56
8647.00,1.56
8646.00,1.56
8645.00,1.56
8644.00,1.56
8643.00,1.55
8642.00,1.55
8641.00,1.55
8640.00,1.55
8639.00,1.55
8638.00,1.55
8637.00,1.55
8636.00,1.55
8635.00,1.55
8634.00,1.55
8633.00,1.55
8632.00,1.55
8631.00,1.55
8630.00,1.55
8629.00,1.56
8628.00,1.56
8627.00,1.55
8626.00,1.55
8625.00,1.55
8624.00,1.55
8623.00,1.55
8622.00,1.55
8621.00,1.55
8620.00,1.55
8619.00,1.55
8618.00,1.55
8617.00,1.54
8616.00,1.54
8615.00,1.54
8614.00,1.54
8613.00,1.54
8612.00,1.54
8611.00,1.54
8610.00,1.54
8609.00,1.54
8608.00,1.54
8607.00,1.54
8606.00,1.54
8605.00,1.54
8604.00,1.54
8603.00,1.54
8602.00,1.54
8601.00,1.54
8600.00,1.54
8599.00,1.54
8598.00,1.54
8597.00,1.54
8596.00,1.54
8595.00,1.54
8594.00,1.55
8593.00,1.55
8592.00,1.55
8591.00,1.55
8590.00,1.55
8589.00,1.54
8588.00,1.54
8587.00,1.54
8586.00,1.54
8585.00,1.54
8584.00,1.54
8583.00,1.54
8582.00,1.54
8581.00,1.53
8580.00,1.53
8579.00,1.53
8578.00,1.53
8577.00,1.53
8576.00,1.53
8575.00,1.52
8574.00,1.52
8573.00,1.52
8572.00,1.52
8571.00,1.52
8570.00,1.52
8569.00,1.52
8568.00,1.52
8567.00,1.51
8566.00,1.51
8565.00,1.51
8564.00,1.51
8563.00,1.51
8562.00,1.51
8561.00,1.51
8560.00,1.52
8559.00,1.52
8558.00,1.52
8557.00,1.52
8556.00,1.52
8555.00,1.52
8554.00,1.52
8553.00,1.52
8552.00,1.52
8551.00,1.52
8550.00,1.52
8549.00,1.52
8548.00,1.52
8547.00,1.52
8546.00,1.51
8545.00,1.51
8544.00,1.51
8543.00,1.51
8542.00,1.51
8541.00,1.51
8540.00,1.51
8539.00,1.51
8538.00,1.51
8537.00,1.51
8536.00,1.51
8535.00,1.51
8534.00,1.51
8533.00,1.51
8532.00,1.51
8531.00,1.51
8530.00,1.51
8529.00,1.51
8528.00,1.51
8527.00,1.51
8526.00,1.51
8525.00,1.51
8524.00,1.51
8523.00,1.51
8522.00,1.51
8521.00,1.51
8520.00,1.51
8519.00,1.51
8518.00,1.51
8517.00,1.51
8516.00,1.51
8515.00,1.51
8514.00,1.51
8513.00,1.51
8512.00,1.51
8511.00,1.50
8510.00,1.50
8509.00,1.50
8508.00,1.50
8507.00,1.50
8506.00,1.50
8505.00,1.50
8504.00,1.50
8503.00,1.49
8502.00,1.49
8501.00,1.49
8500.00,1.49
8499.00,1.49
8498.00,1.49
8497.00,1.49
8496.00,1.49
8495.00,1.48
8494.00,1.48
8493.00,1.48
8492.00,1.48
8491.00,1.48
8490.00,1.48
8489.00,1.48
8488.00,1.47
8487.00,1.47
8486.00,1.47
8485.00,1.47
8484.00,1.47
8483.00,1.47
8482.00,1.47
8481.00,1.47
8480.00,1.47
8479.00,1.47
8478.00,1.47
8477.00,1.47
8476.00,1.47
8475.00,1.47
8474.00,1.47
8473.00,1.47
8472.00,1.47
8471.00,1.47
8470.00,1.47
8469.00,1.47
8468.00,1.47
8467.00,1.47
8466.00,1.47
8465.00,1.47
8464.00,1.47
8463.00,1.47
8462.00,1.47
8461.00,1.47
8460.00,1.46
8459.00,1.46
8458.00,1.46
8457.00,1.46
8456.00,1.46
8455.00,1.46
8454.00,1.45
8453.00,1.45
8452.00,1.45
8451.00,1.45
8450.00,1.45
8449.00,1.45
8448.00,1.44
8447.00,1.44
8446.00,1.44
8445.00,1.44
8444.00,1.44
8443.00,1.44
8442.00,1.44
8441.00,1.44
8440.00,1.44
8439.00,1.44
8438.00,1.44
8437.00,1.44
8436.00,1.44
8435.00,1.44
8434.00,1.44
8433.00,1.44
8432.00,1.44
8431.00,1.44
8430.00,1.44
8429.00,1.44
8428.00,1.44
8427.00,1.44
8426.00,1.44
8425.00,1.44
8424.00,1.44
8423.00,1.44
8422.00,1.44
8421.00,1.44
8420.00,1.44
8419.00,1.44
8418.00,1.45
8417.00,1.45
8416.00,1.45
8415.00,1.45
8414.00,1.45
8413.00,1.45
8412.00,1.45
8411.00,1.45
8410.00,1.45
8409.00,1.45
8408.00,1.45
8407.00,1.45
8406.00,1.45
8405.00,1.45
8404.00,1.45
8403.00,1.45
8402.00,1.45
8401.00,1.45
8400.00,1.45
8399.00,1.46
8398.00,1.46
8397.00,1.46
8396.00,1.46
8395.00,1.46
8394.00,1.46
8393.00,1.46
8392.00,1.46
8391.00,1.46
8390.00,1.46
8389.00,1.46
8388.00,1.46
8387.00,1.46
8386.00,1.46
8385.00,1.47
8384.00,1.47
8383.00,1.47
8382.00,1.47
8381.00,1.48
8380.00,1.48
8379.00,1.48
8378.00,1.48
8377.00,1.48
8376.00,1.49
8375.00,1.49
8374.00,1.49
8373.00,1.49
8372.00,1.49
8371.00,1.49
8370.00,1.49
8369.00,1.49
8368.00,1.50
8367.00,1.50
8366.00,1.50
8365.00,1.50
8364.00,1.50
8363.00,1.50
8362.00,1.50
8361.00,1.50
8360.00,1.50
8359.00,1.50
8358.00,1.50
8357.00,1.49
8356.00,1.49
8355.00,1.49
8354.00,1.49
8353.00,1.49
8352.00,1.49
8351.00,1.49
8350.00,1.49
8349.00,1.48
8348.00,1.48
8347.00,1.48
8346.00,1.48
8345.00,1.48
8344.00,1.48
8343.00,1.48
8342.00,1.48
8341.00,1.48
8340.00,1.48
8339.00,1.49
8338.00,1.49
8337.00,1.49
8336.00,1.49
8335.00,1.49
8334.00,1.50
8333.00,1.50
8332.00,1.50
8331.00,1.50
8330.00,1.51
8329.00,1.51
8328.00,1.51
8327.00,1.51
8326.00,1.52
8325.00,1.52
8324.00,1.52
8323.00,1.52
8322.00,1.52
8321.00,1.52
8320.00,1.52
8319.00,1.52
8318.00,1.52
8317.00,1.52
8316.00,1.52
8315.00,1.52
8314.00,1.52
8313.00,1.52
8312.00,1.52
8311.00,1.52
8310.00,1.51
8309.00,1.51
8308.00,1.51
8307.00,1.51
8306.00,1.51
8305.00,1.51
8304.00,1.51
8303.00,1.51
8302.00,1.51
8301.00,1.50
8300.00,1.50
8299.00,1.50
8298.00,1.50
8297.00,1.50
8296.00,1.50
8295.00,1.50
8294.00,1.51
8293.00,1.51
8292.00,1.51
8291.00,1.51
8290.00,1.51
8289.00,1.51
8288.00,1.51
8287.00,1.51
8286.00,1.51
8285.00,1.51
8284.00,1.51
8283.00,1.51
8282.00,1.51
8281.00,1.51
8280.00,1.51
8279.00,1.51
8278.00,1.51
8277.00,1.51
8276.00,1.51
8275.00,1.51
8274.00,1.52
8273.00,1.52
8272.00,1.52
8271.00,1.52
8270.00,1.52
8269.00,1.52
8268.00,1.52
8267.00,1.52
8266.00,1.52
8265.00,1.52
8264.00,1.52
8263.00,1.52
8262.00,1.52
8261.00,1.52
8260.00,1.52
8259.00,1.52
8258.00,1.52
8257.00,1.52
8256.00,1.52
8255.00,1.52
8254.00,1.52
8253.00,1.52
8252.00,1.52
8251.00,1.52
8250.00,1.52
8249.00,1.52
8248.00,1.52
8247.00,1.52
8246.00,1.52
8245.00,1.52
8244.00,1.52
8243.00,1.52
8242.00,1.52
8241.00,1.52
8240.00,1.52
8239.00,1.52
8238.00,1.52
8237.00,1.52
8236.00,1.52
8235.00,1.52
8234.00,1.52
8233.00,1.52
8232.00,1.52
8231.00,1.53
8230.00,1.53
8229.00,1.53
8228.00,1.53
8227.00,1.53
8226.00,1.53
8225.00,1.53
8224.00,1.53
8223.00,1.53
8222.00,1.53
8221.00,1.53
8220.00,1.53
8219.00,1.53
8218.00,1.53
8217.00,1.53
8216.00,1.53
8215.00,1.53
8214.00,1.54
8213.00,1.54
8212.00,1.54
8211.00,1.54
8210.00,1.54
8209.00,1.54
8208.00,1.54
8207.00,1.54
8206.00,1.54
8205.00,1.55
8204.00,1.55
8203.00,1.55
8202.00,1.55
8201.00,1.55
8200.00,1.55
8199.00,1.55
8198.00,1.55
8197.00,1.55
8196.00,1.55
8195.00,1.55
8194.00,1.55
8193.00,1.55
8192.00,1.55
8191.00,1.55
8190.00,1.55
8189.00,1.55
8188.00,1.55
8187.00,1.55
8186.00,1.55
8185.00,1.55
8184.00,1.55
8183.00,1.55
8182.00,1.55
8181.00,1.55
8180.00,1.55
8179.00,1.55
8178.00,1.55
8177.00,1.55
8176.00,1.55
8175.00,1.55
8174.00,1.55
8173.00,1.55
8172.00,1.55
8171.00,1.56
8170.00,1.56
8169.00,1.56
8168.00,1.56
8167.00,1.56
8166.00,1.56
8165.00,1.56
8164.00,1.56
8163.00,1.56
8162.00,1.56
8161.00,1.56
8160.00,1.56
8159.00,1.56
8158.00,1.56
8157.00,1.56
8156.00,1.56
8155.00,1.56
8154.00,1.56
8153.00,1.56
8152.00,1.56
8151.00,1.56
8150.00,1.56
8149.00,1.56
8148.00,1.56
8147.00,1.57
8146.00,1.57
8145.00,1.57
8144.00,1.57
8143.00,1.57
8142.00,1.57
8141.00,1.57
8140.00,1.57
8139.00,1.57
8138.00,1.57
8137.00,1.57
8136.00,1.57
8135.00,1.57
8134.00,1.57
8133.00,1.57
8132.00,1.57
8131.00,1.57
8130.00,1.57
8129.00,1.57
8128.00,1.57
8127.00,1.57
8126.00,1.57
8125.00,1.57
8124.00,1.57
8123.00,1.57
8122.00,1.57
8121.00,1.57
8120.00,1.57
8119.00,1.57
8118.00,1.57
8117.00,1.57
8116.00,1.57
8115.00,1.57
8114.00,1.57
8113.00,1.57
8112.00,1.57
8111.00,1.57
8110.00,1.57
8109.00,1.57
8108.00,1.57
8107.00,1.57
8106.00,1.57
8105.00,1.57
8104.00,1.57
8103.00,1.58
8102.00,1.58
8101.00,1.58
8100.00,1.58
8099.00,1.58
8098.00,1.58
8097.00,1.58
8096.00,1.58
8095.00,1.58
8094.00,1.58
8093.00,1.58
8092.00,1.58
8091.00,1.58
8090.00,1.58
8089.00,1.58
8088.00,1.58
8087.00,1.58
8086.00,1.58
8085.00,1.58
8084.00,1.59
8083.00,1.59
8082.00,1.59
8081.00,1.59
8080.00,1.59
8079.00,1.59
8078.00,1.59
8077.00,1.59
8076.00,1.59
8075.00,1.59
8074.00,1.59
8073.00,1.59
8072.00,1.59
8071.00,1.59
8070.00,1.59
8069.00,1.59
8068.00,1.59
8067.00,1.59
8066.00,1.59
8065.00,1.59
8064.00,1.59
8063.00,1.59
8062.00,1.59
8061.00,1.59
8060.00,1.59
8059.00,1.59
8058.00,1.59
8057.00,1.59
8056.00,1.59
8055.00,1.59
8054.00,1.59
8053.00,1.59
8052.00,1.59
8051.00,1.60
8050.00,1.60
8049.00,1.60
8048.00,1.60
8047.00,1.60
8046.00,1.60
8045.00,1.61
8044.00,1.61
8043.00,1.61
8042.00,1.61
8041.00,1.61
8040.00,1.61
8039.00,1.61
8038.00,1.61
8037.00,1.61
8036.00,1.61
8035.00,1.61
8034.00,1.61
8033.00,1.61
8032.00,1.61
8031.00,1.61
8030.00,1.61
8029.00,1.61
8028.00,1.60
8027.00,1.60
8026.00,1.60
8025.00,1.60
8024.00,1.60
8023.00,1.60
8022.00,1.60
8021.00,1.60
8020.00,1.60
8019.00,1.60
8018.00,1.60
8017.00,1.60
8016.00,1.60
8015.00,1.60
8014.00,1.60
8013.00,1.60
8012.00,1.60
8011.00,1.60
8010.00,1.60
8009.00,1.60
8008.00,1.60
8007.00,1.60
8006.00,1.60
8005.00,1.60
8004.00,1.60
8003.00,1.60
8002.00,1.60
8001.00,1.60
8000.00,1.60
7999.00,1.60
7998.00,1.60
7997.00,1.60
7996.00,1.60
7995.00,1.60
7994.00,1.60
7993.00,1.60
7992.00,1.60
7991.00,1.60
7990.00,1.60
7989.00,1.60
7988.00,1.60
7987.00,1.60
7986.00,1.60
7985.00,1.60
7984.00,1.60
7983.00,1.60
7982.00,1.61
7981.00,1.61
7980.00,1.61
7979.00,1.61
7978.00,1.61
7977.00,1.61
7976.00,1.61
7975.00,1.61
7974.00,1.61
7973.00,1.62
7972.00,1.62
7971.00,1.62
7970.00,1.62
7969.00,1.62
7968.00,1.62
7967.00,1.62
7966.00,1.62
7965.00,1.62
7964.00,1.63
7963.00,1.63
7962.00,1.63
7961.00,1.63
7960.00,1.63
7959.00,1.63
7958.00,1.63
7957.00,1.63
7956.00,1.63
7955.00,1.63
7954.00,1.63
7953.00,1.63
7952.00,1.63
7951.00,1.63
7950.00,1.63
7949.00,1.62
7948.00,1.62
7947.00,1.62
7946.00,1.62
7945.00,1.62
7944.00,1.62
7943.00,1.62
7942.00,1.62
7941.00,1.62
7940.00,1.62
7939.00,1.62
7938.00,1.62
7937.00,1.62
7936.00,1.62
7935.00,1.62
7934.00,1.62
7933.00,1.62
7932.00,1.62
7931.00,1.62
7930.00,1.63
7929.00,1.63
7928.00,1.63
7927.00,1.63
7926.00,1.63
7925.00,1.62
7924.00,1.62
7923.00,1.62
7922.00,1.62
7921.00,1.62
7920.00,1.62
7919.00,1.62
7918.00,1.62
7917.00,1.62
7916.00,1.62
7915.00,1.62
7914.00,1.62
7913.00,1.62
7912.00,1.62
7911.00,1.62
7910.00,1.62
7909.00,1.63
7908.00,1.63
7907.00,1.63
7906.00,1.63
7905.00,1.63
7904.00,1.63
7903.00,1.63
7902.00,1.63
7901.00,1.63
7900.00,1.63
7899.00,1.63
7898.00,1.63
7897.00,1.63
7896.00,1.63
7895.00,1.63
7894.00,1.63
7893.00,1.63
7892.00,1.63
7891.00,1.63
7890.00,1.63
7889.00,1.63
7888.00,1.63
7887.00,1.63
7886.00,1.63
7885.00,1.63
7884.00,1.63
7883.00,1.63
7882.00,1.63
7881.00,1.63
7880.00,1.63
7879.00,1.63
7878.00,1.63
7877.00,1.63
7876.00,1.63
7875.00,1.64
7874.00,1.64
7873.00,1.64
7872.00,1.64
7871.00,1.64
7870.00,1.64
7869.00,1.64
7868.00,1.64
7867.00,1.64
7866.00,1.64
7865.00,1.64
7864.00,1.64
7863.00,1.64
7862.00,1.64
7861.00,1.64
7860.00,1.64
7859.00,1.64
7858.00,1.64
7857.00,1.64
7856.00,1.64
7855.00,1.64
7854.00,1.64
7853.00,1.64
7852.00,1.64
7851.00,1.64
7850.00,1.64
7849.00,1.64
7848.00,1.64
7847.00,1.64
7846.00,1.64
7845.00,1.64
7844.00,1.64
7843.00,1.64
7842.00,1.64
7841.00,1.64
7840.00,1.64
7839.00,1.65
7838.00,1.65
7837.00,1.65
7836.00,1.65
7835.00,1.65
7834.00,1.65
7833.00,1.65
7832.00,1.65
7831.00,1.65
7830.00,1.65
7829.00,1.65
7828.00,1.65
7827.00,1.65
7826.00,1.65
7825.00,1.65
7824.00,1.65
7823.00,1.65
7822.00,1.65
7821.00,1.65
7820.00,1.65
7819.00,1.65
7818.00,1.65
7817.00,1.66
7816.00,1.66
7815.00,1.66
7814.00,1.66
7813.00,1.66
7812.00,1.66
7811.00,1.66
7810.00,1.66
7809.00,1.66
7808.00,1.67
7807.00,1.67
7806.00,1.67
7805.00,1.67
7804.00,1.67
7803.00,1.67
7802.00,1.67
7801.00,1.67
7800.00,1.67
7799.00,1.67
7798.00,1.67
7797.00,1.67
7796.00,1.67
7795.00,1.67
7794.00,1.66
7793.00,1.66
7792.00,1.66
7791.00,1.66
7790.00,1.66
7789.00,1.66
7788.00,1.66
7787.00,1.66
7786.00,1.66
7785.00,1.66
7784.00,1.66
7783.00,1.65
7782.00,1.65
7781.00,1.65
7780.00,1.65
7779.00,1.65
7778.00,1.65
7777.00,1.65
7776.00,1.65
7775.00,1.65
7774.00,1.65
7773.00,1.65
7772.00,1.65
7771.00,1.65
7770.00,1.65
7769.00,1.65
7768.00,1.65
7767.00,1.65
7766.00,1.65
7765.00,1.65
7764.00,1.66
7763.00,1.66
7762.00,1.66
7761.00,1.66
7760.00,1.66
7759.00,1.66
7758.00,1.66
7757.00,1.66
7756.00,1.66
7755.00,1.66
7754.00,1.66
7753.00,1.66
7752.00,1.67
7751.00,1.67
7750.00,1.67
7749.00,1.67
7748.00,1.67
7747.00,1.67
7746.00,1.67
7745.00,1.66
7744.00,1.66
7743.00,1.66
7742.00,1.66
7741.00,1.66
7740.00,1.66
7739.00,1.66
7738.00,1.66
7737.00,1.66
7736.00,1.66
7735.00,1.66
7734.00,1.65
7733.00,1.65
7732.00,1.65
7731.00,1.65
7730.00,1.65
7729.00,1.65
7728.00,1.65
7727.00,1.65
7726.00,1.65
7725.00,1.65
7724.00,1.65
7723.00,1.65
7722.00,1.65
7721.00,1.65
7720.00,1.65
7719.00,1.65
7718.00,1.66
7717.00,1.66
7716.00,1.66
7715.00,1.66
7714.00,1.65
7713.00,1.65
7712.00,1.65
7711.00,1.66
7710.00,1.66
7709.00,1.66
7708.00,1.66
7707.00,1.66
7706.00,1.66
7705.00,1.66
7704.00,1.66
7703.00,1.66
7702.00,1.66
7701.00,1.66
7700.00,1.66
7699.00,1.66
7698.00,1.66
7697.00,1.66
7696.00,1.67
7695.00,1.67
7694.00,1.67
7693.00,1.67
7692.00,1.67
7691.00,1.67
7690.00,1.67
7689.00,1.67
7688.00,1.67
7687.00,1.67
7686.00,1.67
7685.00,1.67
7684.00,1.67
7683.00,1.67
7682.00,1.67
7681.00,1.67
7680.00,1.67
7679.00,1.67
7678.00,1.67
7677.00,1.67
7676.00,1.67
7675.00,1.67
7674.00,1.67
7673.00,1.67
7672.00,1.67
7671.00,1.67
7670.00,1.67
7669.00,1.67
7668.00,1.67
7667.00,1.67
7666.00,1.66
7665.00,1.66
7664.00,1.66
7663.00,1.66
7662.00,1.66
7661.00,1.66
7660.00,1.66
7659.00,1.66
7658.00,1.66
7657.00,1.66
7656.00,1.66
7655.00,1.66
7654.00,1.66
7653.00,1.66
7652.00,1.66
7651.00,1.66
7650.00,1.66
7649.00,1.66
7648.00,1.66
7647.00,1.66
7646.00,1.66
7645.00,1.66
7644.00,1.66
7643.00,1.66
7642.00,1.66
7641.00,1.66
7640.00,1.66
7639.00,1.65
7638.00,1.65
7637.00,1.65
7636.00,1.65
7635.00,1.65
7634.00,1.65
7633.00,1.65
7632.00,1.65
7631.00,1.66
7630.00,1.66
7629.00,1.66
7628.00,1.66
7627.00,1.66
7626.00,1.66
7625.00,1.66
7624.00,1.66
7623.00,1.66
7622.00,1.66
7621.00,1.66
7620.00,1.66
7619.00,1.66
7618.00,1.66
7617.00,1.66
7616.00,1.66
7615.00,1.66
7614.00,1.66
7613.00,1.66
7612.00,1.66
7611.00,1.66
7610.00,1.66
7609.00,1.66
7608.00,1.66
7607.00,1.66
7606.00,1.66
7605.00,1.66
7604.00,1.66
7603.00,1.66
7602.00,1.66
7601.00,1.66
7600.00,1.66
7599.00,1.66
7598.00,1.66
7597.00,1.66
7596.00,1.66
7595.00,1.66
7594.00,1.66
7593.00,1.66
7592.00,1.66
7591.00,1.66
7590.00,1.66
7589.00,1.66
7588.00,1.66
7587.00,1.66
7586.00,1.66
7585.00,1.66
7584.00,1.66
7583.00,1.66
7582.00,1.66
7581.00,1.66
7580.00,1.66
7579.00,1.66
7578.00,1.66
7577.00,1.66
7576.00,1.66
7575.00,1.66
7574.00,1.66
7573.00,1.66
7572.00,1.66
7571.00,1.66
7570.00,1.66
7569.00,1.66
7568.00,1.66
7567.00,1.66
7566.00,1.66
7565.00,1.66
7564.00,1.66
7563.00,1.65
7562.00,1.65
7561.00,1.65
7560.00,1.65
7559.00,1.65
7558.00,1.65
7557.00,1.65
7556.00,1.64
7555.00,1.64
7554.00,1.64
7553.00,1.64
7552.00,1.64
7551.00,1.64
7550.00,1.64
7549.00,1.64
7548.00,1.64
7547.00,1.64
7546.00,1.64
7545.00,1.64
7544.00,1.64
7543.00,1.64
7542.00,1.64
7541.00,1.64
7540.00,1.64
7539.00,1.64
7538.00,1.64
7537.00,1.64
7536.00,1.64
7535.00,1.64
7534.00,1.64
7533.00,1.64
7532.00,1.64
7531.00,1.64
7530.00,1.64
7529.00,1.64
7528.00,1.64
7527.00,1.64
7526.00,1.64
7525.00,1.64
7524.00,1.63
7523.00,1.63
7522.00,1.63
7521.00,1.63
7520.00,1.63
7519.00,1.63
7518.00,1.63
7517.00,1.63
7516.00,1.63
7515.00,1.63
7514.00,1.63
7513.00,1.63
7512.00,1.63
7511.00,1.63
7510.00,1.63
7509.00,1.63
7508.00,1.63
7507.00,1.63
7506.00,1.63
7505.00,1.63
7504.00,1.63
7503.00,1.63
7502.00,1.63
7501.00,1.63
7500.00,1.63
7499.00,1.63
7498.00,1.63
7497.00,1.63
7496.00,1.63
7495.00,1.63
7494.00,1.63
7493.00,1.63
7492.00,1.63
7491.00,1.63
7490.00,1.63
7489.00,1.63
7488.00,1.62
7487.00,1.62
7486.00,1.62
7485.00,1.62
7484.00,1.62
7483.00,1.62
7482.00,1.62
7481.00,1.62
7480.00,1.62
7479.00,1.62
7478.00,1.62
7477.00,1.62
7476.00,1.62
7475.00,1.62
7474.00,1.61
7473.00,1.61
7472.00,1.61
7471.00,1.61
7470.00,1.61
7469.00,1.61
7468.00,1.61
7467.00,1.61
7466.00,1.61
7465.00,1.61
7464.00,1.61
7463.00,1.60
7462.00,1.60
7461.00,1.60
7460.00,1.60
7459.00,1.60
7458.00,1.60
7457.00,1.60
7456.00,1.60
7455.00,1.60
7454.00,1.60
7453.00,1.60
7452.00,1.59
7451.00,1.59
7450.00,1.59
7449.00,1.59
7448.00,1.59
7447.00,1.59
7446.00,1.59
7445.00,1.59
7444.00,1.59
7443.00,1.59
7442.00,1.59
7441.00,1.59
7440.00,1.59
7439.00,1.59
7438.00,1.59
7437.00,1.59
7436.00,1.59
7435.00,1.59
7434.00,1.59
7433.00,1.59
7432.00,1.59
7431.00,1.58
7430.00,1.58
7429.00,1.58
7428.00,1.58
7427.00,1.58
7426.00,1.58
7425.00,1.58
7424.00,1.57
7423.00,1.57
7422.00,1.57
7421.00,1.57
7420.00,1.57
7419.00,1.57
7418.00,1.57
7417.00,1.57
7416.00,1.57
7415.00,1.56
7414.00,1.56
7413.00,1.56
7412.00,1.56
7411.00,1.56
7410.00,1.56
7409.00,1.56
7408.00,1.55
7407.00,1.55
7406.00,1.55
7405.00,1.55
7404.00,1.55
7403.00,1.54
7402.00,1.54
7401.00,1.54
7400.00,1.54
7399.00,1.54
7398.00,1.54
7397.00,1.54
7396.00,1.53
7395.00,1.53
7394.00,1.53
7393.00,1.53
7392.00,1.53
7391.00,1.53
7390.00,1.53
7389.00,1.53
7388.00,1.53
7387.00,1.52
7386.00,1.52
7385.00,1.52
7384.00,1.52
7383.00,1.52
7382.00,1.52
7381.00,1.51
7380.00,1.51
7379.00,1.51
7378.00,1.51
7377.00,1.51
7376.00,1.51
7375.00,1.51
7374.00,1.51
7373.00,1.51
7372.00,1.51
7371.00,1.51
7370.00,1.51
7369.00,1.51
7368.00,1.51
7367.00,1.51
7366.00,1.51
7365.00,1.51
7364.00,1.51
7363.00,1.51
7362.00,1.51
7361.00,1.51
7360.00,1.51
7359.00,1.51
7358.00,1.51
7357.00,1.51
7356.00,1.50
7355.00,1.50
7354.00,1.50
7353.00,1.50
7352.00,1.50
7351.00,1.50
7350.00,1.50
7349.00,1.49
7348.00,1.49
7347.00,1.49
7346.00,1.49
7345.00,1.49
7344.00,1.48
7343.00,1.48
7342.00,1.48
7341.00,1.48
7340.00,1.48
7339.00,1.48
7338.00,1.48
7337.00,1.48
7336.00,1.48
7335.00,1.48
7334.00,1.48
7333.00,1.48
7332.00,1.48
7331.00,1.48
7330.00,1.48
7329.00,1.48
7328.00,1.48
7327.00,1.48
7326.00,1.48
7325.00,1.48
7324.00,1.48
7323.00,1.48
7322.00,1.48
7321.00,1.48
7320.00,1.48
7319.00,1.48
7318.00,1.48
7317.00,1.48
7316.00,1.47
7315.00,1.47
7314.00,1.47
7313.00,1.47
7312.00,1.47
7311.00,1.47
7310.00,1.47
7309.00,1.47
7308.00,1.47
7307.00,1.47
7306.00,1.46
7305.00,1.46
7304.00,1.46
7303.00,1.46
7302.00,1.46
7301.00,1.46
7300.00,1.46
7299.00,1.46
7298.00,1.46
7297.00,1.46
7296.00,1.46
7295.00,1.46
7294.00,1.46
7293.00,1.45
7292.00,1.45
7291.00,1.45
7290.00,1.45
7289.00,1.45
7288.00,1.45
7287.00,1.45
7286.00,1.45
7285.00,1.45
7284.00,1.44
7283.00,1.44
7282.00,1.44
7281.00,1.44
7280.00,1.44
7279.00,1.44
7278.00,1.44
7277.00,1.44
7276.00,1.44
7275.00,1.43
7274.00,1.43
7273.00,1.43
7272.00,1.43
7271.00,1.43
7270.00,1.43
7269.00,1.42
7268.00,1.42
7267.00,1.42
7266.00,1.42
7265.00,1.42
7264.00,1.41
7263.00,1.41
7262.00,1.41
7261.00,1.41
7260.00,1.41
7259.00,1.40
7258.00,1.40
7257.00,1.40
7256.00,1.40
7255.00,1.40
7254.00,1.40
7253.00,1.39
7252.00,1.39
7251.00,1.39
7250.00,1.39
7249.00,1.38
7248.00,1.38
7247.00,1.38
7246.00,1.38
7245.00,1.37
7244.00,1.37
7243.00,1.36
7242.00,1.36
7241.00,1.36
7240.00,1.35
7239.00,1.35
7238.00,1.34
7237.00,1.34
7236.00,1.33
7235.00,1.33
7234.00,1.32
7233.00,1.32
7232.00,1.32
7231.00,1.31
7230.00,1.31
7229.00,1.30
7228.00,1.30
7227.00,1.30
7226.00,1.29
7225.00,1.29
7224.00,1.28
7223.00,1.28
7222.00,1.28
7221.00,1.27
7220.00,1.27
7219.00,1.27
7218.00,1.26
7217.00,1.26
7216.00,1.26
7215.00,1.25
7214.00,1.25
7213.00,1.25
7212.00,1.24
7211.00,1.24
7210.00,1.24
7209.00,1.23
7208.00,1.23
7207.00,1.23
7206.00,1.22
7205.00,1.22
7204.00,1.22
7203.00,1.21
7202.00,1.21
7201.00,1.21
7200.00,1.20
7199.00,1.20
7198.00,1.20
7197.00,1.19
7196.00,1.19
7195.00,1.19
7194.00,1.18
7193.00,1.18
7192.00,1.18
7191.00,1.17
7190.00,1.17
7189.00,1.17
7188.00,1.16
7187.00,1.16
7186.00,1.16
7185.00,1.15
7184.00,1.15
7183.00,1.15
7182.00,1.14
7181.00,1.14
7180.00,1.13
7179.00,1.13
7178.00,1.13
7177.00,1.12
7176.00,1.12
7175.00,1.11
7174.00,1.11
7173.00,1.10
7172.00,1.10
7171.00,1.10
7170.00,1.09
7169.00,1.09
7168.00,1.09
7167.00,1.08
7166.00,1.08
7165.00,1.08
7164.00,1.07
7163.00,1.07
7162.00,1.07
7161.00,1.07
7160.00,1.07
7159.00,1.06
7158.00,1.06
7157.00,1.06
7156.00,1.06
7155.00,1.06
7154.00,1.06
7153.00,1.05
7152.00,1.05
7151.00,1.05
7150.00,1.04
7149.00,1.04
7148.00,1.04
7147.00,1.04
7146.00,1.03
7145.00,1.03
7144.00,1.02
7143.00,1.02
7142.00,1.02
7141.00,1.01
7140.00,1.01
7139.00,1.01
7138.00,1.00
7137.00,1.00
7136.00,1.00
7135.00,1.00
7134.00,0.99
7133.00,0.99
7132.00,0.99
7131.00,0.99
7130.00,0.98
7129.00,0.98
7128.00,0.98
7127.00,0.97
7126.00,0.97
7125.00,0.97
7124.00,0.97
7123.00,0.96
7122.00,0.96
7121.00,0.96
7120.00,0.95
7119.00,0.95
7118.00,0.95
7117.00,0.95
7116.00,0.94
7115.00,0.94
7114.00,0.94
7113.00,0.94
7112.00,0.93
7111.00,0.93
7110.00,0.93
7109.00,0.93
7108.00,0.93
7107.00,0.93
7106.00,0.92
7105.00,0.92
7104.00,0.92
7103.00,0.92
7102.00,0.92
7101.00,0.91
7100.00,0.91
7099.00,0.91
7098.00,0.91
7097.00,0.90
7096.00,0.90
7095.00,0.90
7094.00,0.89
7093.00,0.89
7092.00,0.89
7091.00,0.89
7090.00,0.88
7089.00,0.88
7088.00,0.88
7087.00,0.88
7086.00,0.88
7085.00,0.87
7084.00,0.87
7083.00,0.87
7082.00,0.87
7081.00,0.87
7080.00,0.87
7079.00,0.86
7078.00,0.86
7077.00,0.86
7076.00,0.86
7075.00,0.86
7074.00,0.86
7073.00,0.86
7072.00,0.86
7071.00,0.86
7070.00,0.86
7069.00,0.85
7068.00,0.85
7067.00,0.85
7066.00,0.85
7065.00,0.85
7064.00,0.85
7063.00,0.85
7062.00,0.85
7061.00,0.85
7060.00,0.85
7059.00,0.84
7058.00,0.84
7057.00,0.84
7056.00,0.84
7055.00,0.84
7054.00,0.84
7053.00,0.84
7052.00,0.83
7051.00,0.83
7050.00,0.83
7049.00,0.83
7048.00,0.83
7047.00,0.83
7046.00,0.83
7045.00,0.83
7044.00,0.83
7043.00,0.83
7042.00,0.83
7041.00,0.82
7040.00,0.82
7039.00,0.82
7038.00,0.82
7037.00,0.82
7036.00,0.82
7035.00,0.82
7034.00,0.82
7033.00,0.82
7032.00,0.82
7031.00,0.82
7030.00,0.82
7029.00,0.82
7028.00,0.82
7027.00,0.82
7026.00,0.81
7025.00,0.81
7024.00,0.81
7023.00,0.81
7022.00,0.81
7021.00,0.81
7020.00,0.81
7019.00,0.81
7018.00,0.81
7017.00,0.81
7016.00,0.81
7015.00,0.81
7014.00,0.81
7013.00,0.81
7012.00,0.80
7011.00,0.80
7010.00,0.80
7009.00,0.80
7008.00,0.80
7007.00,0.80
7006.00,0.80
7005.00,0.80
7004.00,0.80
7003.00,0.80
7002.00,0.79
7001.00,0.79
7000.00,0.79
6999.00,0.79
6998.00,0.79
6997.00,0.79
6996.00,0.79
6995.00,0.79
6994.00,0.79
6993.00,0.79
6992.00,0.79
6991.00,0.79
6990.00,0.79
6989.00,0.79
6988.00,0.79
6987.00,0.79
6986.00,0.79
6985.00,0.79
6984.00,0.79
6983.00,0.79
6982.00,0.78
6981.00,0.78
6980.00,0.78
6979.00,0.78
6978.00,0.78
6977.00,0.78
6976.00,0.78
6975.00,0.78
6974.00,0.78
6973.00,0.78
6972.00,0.78
6971.00,0.78
6970.00,0.78
6969.00,0.78
6968.00,0.78
6967.00,0.78
6966.00,0.78
6965.00,0.78
6964.00,0.78
6963.00,0.78
6962.00,0.78
6961.00,0.78
6960.00,0.78
6959.00,0.78
6958.00,0.78
6957.00,0.78
6956.00,0.78
6955.00,0.78
6954.00,0.78
6953.00,0.78
6952.00,0.78
6951.00,0.78
6950.00,0.78
6949.00,0.78
6948.00,0.78
6947.00,0.78
6946.00,0.78
6945.00,0.78
6944.00,0.78
6943.00,0.78
6942.00,0.78
6941.00,0.78
6940.00,0.78
6939.00,0.78
6938.00,0.78
6937.00,0.78
6936.00,0.78
6935.00,0.78
6934.00,0.78
6933.00,0.78
6932.00,0.78
6931.00,0.78
6930.00,0.78
6929.00,0.78
6928.00,0.78
6927.00,0.78
6926.00,0.78
6925.00,0.78
6924.00,0.78
6923.00,0.78
6922.00,0.78
6921.00,0.78
6920.00,0.78
6919.00,0.78
6918.00,0.78
6917.00,0.77
6916.00,0.77
6915.00,0.77
6914.00,0.77
6913.00,0.77
6912.00,0.77
6911.00,0.77
6910.00,0.77
6909.00,0.77
6908.00,0.77
6907.00,0.77
6906.00,0.77
6905.00,0.77
6904.00,0.77
6903.00,0.77
6902.00,0.77
6901.00,0.77
6900.00,0.77
6899.00,0.77
6898.00,0.77
6897.00,0.77
6896.00,0.77
6895.00,0.77
6894.00,0.77
6893.00,0.77
6892.00,0.77
6891.00,0.77
6890.00,0.77
6889.00,0.77
6888.00,0.77
6887.00,0.77
6886.00,0.77
6885.00,0.77
6884.00,0.77
6883.00,0.77
6882.00,0.77
6881.00,0.77
6880.00,0.77
6879.00,0.77
6878.00,0.77
6877.00,0.77
6876.00,0.77
6875.00,0.77
6874.00,0.77
6873.00,0.77
6872.00,0.77
6871.00,0.78
6870.00,0.78
6869.00,0.78
6868.00,0.78
6867.00,0.78
6866.00,0.78
6865.00,0.78
6864.00,0.78
6863.00,0.78
6862.00,0.78
6861.00,0.78
6860.00,0.78
6859.00,0.78
6858.00,0.78
6857.00,0.78
6856.00,0.78
6855.00,0.78
6854.00,0.78
6853.00,0.78
6852.00,0.78
6851.00,0.78
6850.00,0.78
6849.00,0.78
6848.00,0.78
6847.00,0.77
6846.00,0.77
6845.00,0.77
6844.00,0.77
6843.00,0.77
6842.00,0.77
6841.00,0.77
6840.00,0.77
6839.00,0.77
6838.00,0.77
6837.00,0.77
6836.00,0.77
6835.00,0.77
6834.00,0.78
6833.00,0.78
6832.00,0.78
6831.00,0.78
6830.00,0.78
6829.00,0.78
6828.00,0.78
6827.00,0.78
6826.00,0.78
6825.00,0.78
6824.00,0.79
6823.00,0.79
6822.00,0.79
6821.00,0.79
6820.00,0.79
6819.00,0.79
6818.00,0.79
6817.00,0.79
6816.00,0.79
6815.00,0.79
6814.00,0.79
6813.00,0.79
6812.00,0.79
6811.00,0.79
6810.00,0.79
6809.00,0.79
6808.00,0.79
6807.00,0.79
6806.00,0.79
6805.00,0.80
6804.00,0.80
6803.00,0.80
6802.00,0.80
6801.00,0.80
6800.00,0.80
6799.00,0.80
6798.00,0.80
6797.00,0.80
6796.00,0.80
6795.00,0.80
6794.00,0.80
6793.00,0.80
6792.00,0.80
6791.00,0.80
6790.00,0.80
6789.00,0.80
6788.00,0.80
6787.00,0.80
6786.00,0.80
6785.00,0.80
6784.00,0.80
6783.00,0.80
6782.00,0.80
6781.00,0.80
6780.00,0.80
6779.00,0.80
6778.00,0.80
6777.00,0.80
6776.00,0.80
6775.00,0.80
6774.00,0.81
6773.00,0.81
6772.00,0.81
6771.00,0.81
6770.00,0.81
6769.00,0.81
6768.00,0.81
6767.00,0.81
6766.00,0.81
6765.00,0.81
6764.00,0.81
6763.00,0.81
6762.00,0.81
6761.00,0.81
6760.00,0.81
6759.00,0.81
6758.00,0.81
6757.00,0.81
6756.00,0.82
6755.00,0.82
6754.00,0.82
6753.00,0.82
6752.00,0.82
6751.00,0.82
6750.00,0.82
6749.00,0.82
6748.00,0.82
6747.00,0.82
6746.00,0.82
6745.00,0.82
6744.00,0.82
6743.00,0.82
6742.00,0.83
6741.00,0.83
6740.00,0.83
6739.00,0.83
6738.00,0.83
6737.00,0.83
6736.00,0.83
6735.00,0.83
6734.00,0.84
6733.00,0.84
6732.00,0.84
6731.00,0.84
6730.00,0.84
6729.00,0.84
6728.00,0.84
6727.00,0.84
6726.00,0.84
6725.00,0.84
6724.00,0.84
6723.00,0.84
6722.00,0.84
6721.00,0.84
6720.00,0.84
6719.00,0.84
6718.00,0.85
6717.00,0.85
6716.00,0.85
6715.00,0.85
6714.00,0.85
6713.00,0.85
6712.00,0.85
6711.00,0.85
6710.00,0.85
6709.00,0.85
6708.00,0.85
6707.00,0.85
6706.00,0.85
6705.00,0.86
6704.00,0.86
6703.00,0.86
6702.00,0.86
6701.00,0.86
6700.00,0.86
6699.00,0.86
6698.00,0.86
6697.00,0.86
6696.00,0.86
6695.00,0.86
6694.00,0.86
6693.00,0.86
6692.00,0.86
6691.00,0.87
6690.00,0.87
6689.00,0.87
6688.00,0.87
6687.00,0.87
6686.00,0.87
6685.00,0.87
6684.00,0.87
6683.00,0.87
6682.00,0.87
6681.00,0.87
6680.00,0.87
6679.00,0.87
6678.00,0.87
6677.00,0.87
6676.00,0.88
6675.00,0.88
6674.00,0.88
6673.00,0.88
6672.00,0.88
6671.00,0.88
6670.00,0.88
6669.00,0.88
6668.00,0.88
6667.00,0.88
6666.00,0.88
6665.00,0.88
6664.00,0.89
6663.00,0.89
6662.00,0.89
6661.00,0.89
6660.00,0.89
6659.00,0.89
6658.00,0.89
6657.00,0.89
6656.00,0.89
6655.00,0.90
6654.00,0.90
6653.00,0.90
6652.00,0.90
6651.00,0.90
6650.00,0.90
6649.00,0.90
6648.00,0.90
6647.00,0.91
6646.00,0.91
6645.00,0.91
6644.00,0.91
6643.00,0.91
6642.00,0.91
6641.00,0.91
6640.00,0.92
6639.00,0.92
6638.00,0.92
6637.00,0.92
6636.00,0.92
6635.00,0.92
6634.00,0.92
6633.00,0.92
6632.00,0.93
6631.00,0.93
6630.00,0.93
6629.00,0.93
6628.00,0.93
6627.00,0.93
6626.00,0.93
6625.00,0.93
6624.00,0.93
6623.00,0.93
6622.00,0.93
6621.00,0.93
6620.00,0.93
6619.00,0.94
6618.00,0.94
6617.00,0.94
6616.00,0.94
6615.00,0.94
6614.00,0.94
6613.00,0.94
6612.00,0.94
6611.00,0.94
6610.00,0.94
6609.00,0.94
6608.00,0.95
6607.00,0.95
6606.00,0.95
6605.00,0.95
6604.00,0.95
6603.00,0.95
6602.00,0.95
6601.00,0.95
6600.00,0.96
6599.00,0.96
6598.00,0.96
6597.00,0.96
6596.00,0.96
6595.00,0.96
6594.00,0.97
6593.00,0.97
6592.00,0.97
6591.00,0.97
6590.00,0.97
6589.00,0.97
6588.00,0.98
6587.00,0.98
6586.00,0.98
6585.00,0.98
6584.00,0.98
6583.00,0.98
6582.00,0.98
6581.00,0.98
6580.00,0.98
6579.00,0.98
6578.00,0.98
6577.00,0.98
6576.00,0.98
6575.00,0.98
6574.00,0.99
6573.00,0.99
6572.00,0.99
6571.00,0.99
6570.00,0.99
6569.00,0.99
6568.00,0.99
6567.00,0.99
6566.00,0.99
6565.00,1.00
6564.00,1.00
6563.00,1.00
6562.00,1.00
6561.00,1.00
6560.00,1.00
6559.00,1.00
6558.00,1.00
6557.00,1.00
6556.00,1.01
6555.00,1.01
6554.00,1.01
6553.00,1.01
6552.00,1.01
6551.00,1.01
6550.00,1.01
6549.00,1.01
6548.00,1.01
6547.00,1.01
6546.00,1.01
6545.00,1.01
6544.00,1.02
6543.00,1.02
6542.00,1.02
6541.00,1.02
6540.00,1.02
6539.00,1.02
6538.00,1.02
6537.00,1.02
6536.00,1.02
6535.00,1.02
6534.00,1.02
6533.00,1.02
6532.00,1.02
6531.00,1.02
6530.00,1.02
6529.00,1.02
6528.00,1.02
6527.00,1.03
6526.00,1.03
6525.00,1.03
6524.00,1.03
6523.00,1.03
6522.00,1.03
6521.00,1.03
6520.00,1.03
6519.00,1.03
6518.00,1.03
6517.00,1.03
6516.00,1.03
6515.00,1.03
6514.00,1.03
6513.00,1.03
6512.00,1.04
6511.00,1.04
6510.00,1.04
6509.00,1.04
6508.00,1.04
6507.00,1.04
6506.00,1.04
6505.00,1.04
6504.00,1.04
6503.00,1.05
6502.00,1.05
6501.00,1.05
6500.00,1.05
6499.00,1.05
6498.00,1.05
6497.00,1.05
6496.00,1.05
6495.00,1.05
6494.00,1.06
6493.00,1.06
6492.00,1.06
6491.00,1.06
6490.00,1.06
6489.00,1.06
6488.00,1.06
6487.00,1.06
6486.00,1.06
6485.00,1.06
6484.00,1.07
6483.00,1.07
6482.00,1.07
6481.00,1.07
6480.00,1.07
6479.00,1.07
6478.00,1.07
6477.00,1.07
6476.00,1.07
6475.00,1.07
6474.00,1.07
6473.00,1.07
6472.00,1.07
6471.00,1.07
6470.00,1.07
6469.00,1.07
6468.00,1.07
6467.00,1.07
6466.00,1.08
6465.00,1.08
6464.00,1.08
6463.00,1.08
6462.00,1.08
6461.00,1.08
6460.00,1.08
6459.00,1.08
6458.00,1.08
6457.00,1.08
6456.00,1.08
6455.00,1.08
6454.00,1.08
6453.00,1.08
6452.00,1.08
6451.00,1.09
6450.00,1.09
6449.00,1.09
6448.00,1.09
6447.00,1.09
6446.00,1.09
6445.00,1.09
6444.00,1.09
6443.00,1.09
6442.00,1.09
6441.00,1.09
6440.00,1.09
6439.00,1.09
6438.00,1.09
6437.00,1.09
6436.00,1.09
6435.00,1.09
6434.00,1.09
6433.00,1.10
6432.00,1.10
6431.00,1.10
6430.00,1.10
6429.00,1.10
6428.00,1.10
6427.00,1.10
6426.00,1.10
6425.00,1.10
6424.00,1.10
6423.00,1.10
6422.00,1.10
6421.00,1.10
6420.00,1.10
6419.00,1.10
6418.00,1.11
6417.00,1.11
6416.00,1.11
6415.00,1.11
6414.00,1.11
6413.00,1.11
6412.00,1.11
6411.00,1.11
6410.00,1.11
6409.00,1.12
6408.00,1.12
6407.00,1.12
6406.00,1.12
6405.00,1.12
6404.00,1.12
6403.00,1.12
6402.00,1.12
6401.00,1.12
6400.00,1.13
6399.00,1.13
6398.00,1.13
6397.00,1.13
6396.00,1.13
6395.00,1.13
6394.00,1.13
6393.00,1.13
6392.00,1.13
6391.00,1.13
6390.00,1.13
6389.00,1.13
6388.00,1.13
6387.00,1.13
6386.00,1.13
6385.00,1.13
6384.00,1.13
6383.00,1.13
6382.00,1.14
6381.00,1.14
6380.00,1.14
6379.00,1.14
6378.00,1.14
6377.00,1.14
6376.00,1.14
6375.00,1.14
6374.00,1.14
6373.00,1.15
6372.00,1.15
6371.00,1.15
6370.00,1.15
6369.00,1.15
6368.00,1.15
6367.00,1.15
6366.00,1.15
6365.00,1.15
6364.00,1.15
6363.00,1.15
6362.00,1.15
6361.00,1.15
6360.00,1.15
6359.00,1.15
6358.00,1.15
6357.00,1.16
6356.00,1.16
6355.00,1.16
6354.00,1.16
6353.00,1.16
6352.00,1.16
6351.00,1.16
6350.00,1.17
6349.00,1.17
6348.00,1.17
6347.00,1.17
6346.00,1.17
6345.00,1.17
6344.00,1.17
6343.00,1.17
6342.00,1.18
6341.00,1.18
6340.00,1.18
6339.00,1.18
6338.00,1.18
6337.00,1.18
6336.00,1.18
6335.00,1.18
6334.00,1.18
6333.00,1.18
6332.00,1.18
6331.00,1.18
6330.00,1.18
6329.00,1.18
6328.00,1.19
6327.00,1.19
6326.00,1.19
6325.00,1.19
6324.00,1.19
6323.00,1.19
6322.00,1.19
6321.00,1.20
6320.00,1.20
6319.00,1.20
6318.00,1.20
6317.00,1.20
6316.00,1.20
6315.00,1.21
6314.00,1.21
6313.00,1.21
6312.00,1.21
6311.00,1.21
6310.00,1.21
6309.00,1.21
6308.00,1.21
6307.00,1.21
6306.00,1.21
6305.00,1.21
6304.00,1.21
6303.00,1.21
6302.00,1.21
6301.00,1.22
6300.00,1.22
6299.00,1.22
6298.00,1.22
6297.00,1.22
6296.00,1.22
6295.00,1.22
6294.00,1.22
6293.00,1.22
6292.00,1.22
6291.00,1.22
6290.00,1.23
6289.00,1.23
6288.00,1.23
6287.00,1.23
6286.00,1.23
6285.00,1.23
6284.00,1.23
6283.00,1.23
6282.00,1.23
6281.00,1.23
6280.00,1.24
6279.00,1.24
6278.00,1.24
6277.00,1.24
6276.00,1.24
6275.00,1.24
6274.00,1.25
6273.00,1.25
6272.00,1.25
6271.00,1.25
6270.00,1.25
6269.00,1.26
6268.00,1.26
6267.00,1.26
6266.00,1.26
6265.00,1.26
6264.00,1.26
6263.00,1.27
6262.00,1.27
6261.00,1.27
6260.00,1.27
6259.00,1.27
6258.00,1.28
6257.00,1.28
6256.00,1.28
6255.00,1.28
6254.00,1.28
6253.00,1.28
6252.00,1.28
6251.00,1.29
6250.00,1.29
6249.00,1.29
6248.00,1.29
6247.00,1.29
6246.00,1.29
6245.00,1.29
6244.00,1.29
6243.00,1.30
6242.00,1.30
6241.00,1.30
6240.00,1.30
6239.00,1.30
6238.00,1.30
6237.00,1.30
6236.00,1.31
6235.00,1.31
6234.00,1.31
6233.00,1.31
6232.00,1.31
6231.00,1.31
6230.00,1.31
6229.00,1.32
6228.00,1.32
6227.00,1.32
6226.00,1.32
6225.00,1.32
6224.00,1.32
6223.00,1.32
6222.00,1.32
6221.00,1.32
6220.00,1.33
6219.00,1.33
6218.00,1.33
6217.00,1.33
6216.00,1.33
6215.00,1.33
6214.00,1.33
6213.00,1.34
6212.00,1.34
6211.00,1.34
6210.00,1.34
6209.00,1.34
6208.00,1.34
6207.00,1.35
6206.00,1.35
6205.00,1.35
6204.00,1.35
6203.00,1.35
6202.00,1.35
6201.00,1.35
6200.00,1.35
6199.00,1.35
6198.00,1.36
6197.00,1.36
6196.00,1.36
6195.00,1.36
6194.00,1.36
6193.00,1.36
6192.00,1.36
6191.00,1.36
6190.00,1.37
6189.00,1.37
6188.00,1.37
6187.00,1.37
6186.00,1.37
6185.00,1.38
6184.00,1.38
6183.00,1.38
6182.00,1.38
6181.00,1.38
6180.00,1.38
6179.00,1.39
6178.00,1.39
6177.00,1.39
6176.00,1.39
6175.00,1.39
6174.00,1.39
6173.00,1.40
6172.00,1.40
6171.00,1.40
6170.00,1.40
6169.00,1.40
6168.00,1.40
6167.00,1.40
6166.00,1.41
6165.00,1.41
6164.00,1.41
6163.00,1.41
6162.00,1.41
6161.00,1.41
6160.00,1.42
6159.00,1.42
6158.00,1.42
6157.00,1.42
6156.00,1.42
6155.00,1.42
6154.00,1.43
6153.00,1.43
6152.00,1.43
6151.00,1.43
6150.00,1.43
6149.00,1.43
6148.00,1.43
6147.00,1.44
6146.00,1.44
6145.00,1.44
6144.00,1.44
6143.00,1.44
6142.00,1.44
6141.00,1.45
6140.00,1.45
6139.00,1.45
6138.00,1.45
6137.00,1.45
6136.00,1.46
6135.00,1.46
6134.00,1.46
6133.00,1.46
6132.00,1.46
6131.00,1.47
6130.00,1.47
6129.00,1.47
6128.00,1.47
6127.00,1.47
6126.00,1.48
6125.00,1.48
6124.00,1.48
6123.00,1.48
6122.00,1.48
6121.00,1.48
6120.00,1.48
6119.00,1.49
6118.00,1.49
6117.00,1.49
6116.00,1.49
6115.00,1.49
6114.00,1.49
6113.00,1.49
6112.00,1.49
6111.00,1.50
6110.00,1.50
6109.00,1.50
6108.00,1.50
6107.00,1.50
6106.00,1.50
6105.00,1.50
6104.00,1.51
6103.00,1.51
6102.00,1.51
6101.00,1.51
6100.00,1.51
6099.00,1.51
6098.00,1.52
6097.00,1.52
6096.00,1.52
6095.00,1.52
6094.00,1.52
6093.00,1.52
6092.00,1.53
6091.00,1.53
6090.00,1.53
6089.00,1.53
6088.00,1.53
6087.00,1.53
6086.00,1.54
6085.00,1.54
6084.00,1.54
6083.00,1.54
6082.00,1.54
6081.00,1.54
6080.00,1.54
6079.00,1.55
6078.00,1.55
6077.00,1.55
6076.00,1.55
6075.00,1.55
6074.00,1.55
6073.00,1.55
6072.00,1.55
6071.00,1.55
6070.00,1.56
6069.00,1.56
6068.00,1.56
6067.00,1.56
6066.00,1.56
6065.00,1.56
6064.00,1.56
6063.00,1.56
6062.00,1.57
6061.00,1.57
6060.00,1.57
6059.00,1.57
6058.00,1.57
6057.00,1.57
6056.00,1.57
6055.00,1.57
6054.00,1.58
6053.00,1.58
6052.00,1.58
6051.00,1.58
6050.00,1.58
6049.00,1.58
6048.00,1.58
6047.00,1.58
6046.00,1.58
6045.00,1.58
6044.00,1.58
6043.00,1.58
6042.00,1.58
6041.00,1.58
6040.00,1.58
6039.00,1.58
6038.00,1.58
6037.00,1.58
6036.00,1.59
6035.00,1.59
6034.00,1.59
6033.00,1.59
6032.00,1.59
6031.00,1.59
6030.00,1.59
6029.00,1.59
6028.00,1.59
6027.00,1.59
6026.00,1.59
6025.00,1.60
6024.00,1.60
6023.00,1.60
6022.00,1.60
6021.00,1.60
6020.00,1.60
6019.00,1.60
6018.00,1.60
6017.00,1.60
6016.00,1.60
6015.00,1.60
6014.00,1.60
6013.00,1.60
6012.00,1.60
6011.00,1.60
6010.00,1.60
6009.00,1.60
6008.00,1.60
6007.00,1.60
6006.00,1.60
6005.00,1.60
6004.00,1.60
6003.00,1.60
6002.00,1.59
6001.00,1.59
6000.00,1.59
5999.00,1.59
5998.00,1.59
5997.00,1.59
5996.00,1.58
5995.00,1.58
5994.00,1.58
5993.00,1.58
5992.00,1.58
5991.00,1.57
5990.00,1.57
5989.00,1.57
5988.00,1.57
5987.00,1.57
5986.00,1.56
5985.00,1.56
5984.00,1.56
5983.00,1.56
5982.00,1.55
5981.00,1.55
5980.00,1.55
5979.00,1.54
5978.00,1.54
5977.00,1.53
5976.00,1.53
5975.00,1.53
5974.00,1.52
5973.00,1.52
5972.00,1.51
5971.00,1.51
5970.00,1.50
5969.00,1.49
5968.00,1.49
5967.00,1.48
5966.00,1.47
5965.00,1.47
5964.00,1.46
5963.00,1.45
5962.00,1.45
5961.00,1.44
5960.00,1.43
5959.00,1.42
5958.00,1.42
5957.00,1.41
5956.00,1.40
5955.00,1.39
5954.00,1.39
5953.00,1.38
5952.00,1.37
5951.00,1.37
5950.00,1.36
5949.00,1.36
5948.00,1.35
5947.00,1.35
5946.00,1.34
5945.00,1.34
5944.00,1.33
5943.00,1.33
5942.00,1.33
5941.00,1.33
5940.00,1.32
5939.00,1.32
5938.00,1.32
5937.00,1.32
5936.00,1.32
5935.00,1.32
5934.00,1.32
5933.00,1.32
5932.00,1.31
5931.00,1.31
5930.00,1.31
5929.00,1.31
5928.00,1.31
5927.00,1.31
5926.00,1.31
5925.00,1.31
5924.00,1.30
5923.00,1.30
5922.00,1.30
5921.00,1.30
5920.00,1.30
5919.00,1.29
5918.00,1.29
5917.00,1.29
5916.00,1.29
5915.00,1.28
5914.00,1.28
5913.00,1.28
5912.00,1.28
5911.00,1.28
5910.00,1.27
5909.00,1.27
5908.00,1.27
5907.00,1.27
5906.00,1.27
5905.00,1.26
5904.00,1.26
5903.00,1.26
5902.00,1.26
5901.00,1.26
5900.00,1.26
5899.00,1.26
5898.00,1.26
5897.00,1.26
5896.00,1.27
5895.00,1.27
5894.00,1.27
5893.00,1.27
5892.00,1.27
5891.00,1.28
5890.00,1.28
5889.00,1.28
5888.00,1.28
5887.00,1.29
5886.00,1.29
5885.00,1.29
5884.00,1.30
5883.00,1.30
5882.00,1.30
5881.00,1.31
5880.00,1.31
5879.00,1.31
5878.00,1.31
5877.00,1.32
5876.00,1.32
5875.00,1.32
5874.00,1.33
5873.00,1.33
5872.00,1.33
5871.00,1.33
5870.00,1.34
5869.00,1.34
5868.00,1.34
5867.00,1.34
5866.00,1.35
5865.00,1.35
5864.00,1.35
5863.00,1.35
5862.00,1.35
5861.00,1.36
5860.00,1.36
5859.00,1.36
5858.00,1.36
5857.00,1.36
5856.00,1.36
5855.00,1.36
5854.00,1.36
5853.00,1.36
5852.00,1.37
5851.00,1.37
5850.00,1.37
5849.00,1.37
5848.00,1.37
5847.00,1.37
5846.00,1.37
5845.00,1.37
5844.00,1.37
5843.00,1.37
5842.00,1.37
5841.00,1.37
5840.00,1.37
5839.00,1.37
5838.00,1.37
5837.00,1.37
5836.00,1.37
5835.00,1.37
5834.00,1.37
5833.00,1.37
5832.00,1.37
5831.00,1.37
5830.00,1.37
5829.00,1.37
5828.00,1.37
5827.00,1.37
5826.00,1.37
5825.00,1.37
5824.00,1.37
5823.00,1.37
5822.00,1.37
5821.00,1.37
5820.00,1.37
5819.00,1.37
5818.00,1.37
5817.00,1.37
5816.00,1.37
5815.00,1.37
5814.00,1.37
5813.00,1.37
5812.00,1.37
5811.00,1.38
5810.00,1.38
5809.00,1.38
5808.00,1.38
5807.00,1.38
5806.00,1.37
5805.00,1.37
5804.00,1.37
5803.00,1.37
5802.00,1.37
5801.00,1.37
5800.00,1.37
5799.00,1.36
5798.00,1.36
5797.00,1.36
5796.00,1.36
5795.00,1.35
5794.00,1.35
5793.00,1.35
5792.00,1.35
5791.00,1.34
5790.00,1.34
5789.00,1.34
5788.00,1.33
5787.00,1.33
5786.00,1.33
5785.00,1.33
5784.00,1.32
5783.00,1.32
5782.00,1.32
5781.00,1.32
5780.00,1.32
5779.00,1.32
5778.00,1.31
5777.00,1.31
5776.00,1.31
5775.00,1.31
5774.00,1.31
5773.00,1.31
5772.00,1.31
5771.00,1.31
5770.00,1.31
5769.00,1.32
5768.00,1.32
5767.00,1.32
5766.00,1.32
5765.00,1.32
5764.00,1.32
5763.00,1.33
5762.00,1.33
5761.00,1.33
5760.00,1.34
5759.00,1.34
5758.00,1.34
5757.00,1.35
5756.00,1.35
5755.00,1.35
5754.00,1.36
5753.00,1.36
5752.00,1.36
5751.00,1.37
5750.00,1.37
5749.00,1.38
5748.00,1.38
5747.00,1.38
5746.00,1.39
5745.00,1.39
5744.00,1.39
5743.00,1.40
5742.00,1.40
5741.00,1.40
5740.00,1.40
5739.00,1.41
5738.00,1.41
5737.00,1.41
5736.00,1.42
5735.00,1.42
5734.00,1.42
5733.00,1.42
5732.00,1.42
5731.00,1.42
5730.00,1.43
5729.00,1.43
5728.00,1.43
5727.00,1.43
5726.00,1.43
5725.00,1.43
5724.00,1.43
5723.00,1.43
5722.00,1.43
5721.00,1.43
5720.00,1.43
5719.00,1.43
5718.00,1.43
5717.00,1.43
5716.00,1.43
5715.00,1.43
5714.00,1.43
5713.00,1.43
5712.00,1.43
5711.00,1.43
5710.00,1.43
5709.00,1.43
5708.00,1.43
5707.00,1.43
5706.00,1.43
5705.00,1.43
5704.00,1.43
5703.00,1.42
5702.00,1.42
5701.00,1.42
5700.00,1.42
5699.00,1.42
5698.00,1.42
5697.00,1.41
5696.00,1.41
5695.00,1.41
5694.00,1.41
5693.00,1.41
5692.00,1.40
5691.00,1.40
5690.00,1.40
5689.00,1.40
5688.00,1.40
5687.00,1.40
5686.00,1.39
5685.00,1.39
5684.00,1.39
5683.00,1.39
5682.00,1.39
5681.00,1.39
5680.00,1.39
5679.00,1.39
5678.00,1.39
5677.00,1.38
5676.00,1.38
5675.00,1.38
5674.00,1.38
5673.00,1.38
5672.00,1.38
5671.00,1.38
5670.00,1.38
5669.00,1.38
5668.00,1.39
5667.00,1.39
5666.00,1.39
5665.00,1.39
5664.00,1.39
5663.00,1.39
5662.00,1.39
5661.00,1.40
5660.00,1.40
5659.00,1.40
5658.00,1.40
5657.00,1.40
5656.00,1.41
5655.00,1.41
5654.00,1.41
5653.00,1.41
5652.00,1.41
5651.00,1.42
5650.00,1.42
5649.00,1.42
5648.00,1.42
5647.00,1.42
5646.00,1.42
5645.00,1.43
5644.00,1.43
5643.00,1.43
5642.00,1.43
5641.00,1.43
5640.00,1.43
5639.00,1.43
5638.00,1.44
5637.00,1.44
5636.00,1.44
5635.00,1.44
5634.00,1.44
5633.00,1.45
5632.00,1.45
5631.00,1.45
5630.00,1.45
5629.00,1.45
5628.00,1.45
5627.00,1.46
5626.00,1.46
5625.00,1.46
5624.00,1.46
5623.00,1.46
5622.00,1.47
5621.00,1.47
5620.00,1.47
5619.00,1.47
5618.00,1.47
5617.00,1.48
5616.00,1.48
5615.00,1.48
5614.00,1.48
5613.00,1.48
5612.00,1.48
5611.00,1.49
5610.00,1.49
5609.00,1.49
5608.00,1.49
5607.00,1.49
5606.00,1.49
5605.00,1.50
5604.00,1.50
5603.00,1.50
5602.00,1.50
5601.00,1.50
5600.00,1.50
5599.00,1.50
5598.00,1.51
5597.00,1.51
5596.00,1.51
5595.00,1.51
5594.00,1.51
5593.00,1.51
5592.00,1.52
5591.00,1.52
5590.00,1.52
5589.00,1.52
5588.00,1.52
5587.00,1.52
5586.00,1.53
5585.00,1.53
5584.00,1.53
5583.00,1.53
5582.00,1.53
5581.00,1.53
5580.00,1.53
5579.00,1.54
5578.00,1.54
5577.00,1.54
5576.00,1.54
5575.00,1.54
5574.00,1.54
5573.00,1.54
5572.00,1.55
5571.00,1.55
5570.00,1.55
5569.00,1.55
5568.00,1.55
5567.00,1.55
5566.00,1.55
5565.00,1.55
5564.00,1.55
5563.00,1.56
5562.00,1.56
5561.00,1.56
5560.00,1.56
5559.00,1.56
5558.00,1.56
5557.00,1.56
5556.00,1.56
5555.00,1.56
5554.00,1.57
5553.00,1.57
5552.00,1.57
5551.00,1.57
5550.00,1.57
5549.00,1.57
5548.00,1.57
5547.00,1.57
5546.00,1.58
5545.00,1.58
5544.00,1.58
5543.00,1.58
5542.00,1.58
5541.00,1.58
5540.00,1.59
5539.00,1.59
5538.00,1.59
5537.00,1.59
5536.00,1.59
5535.00,1.59
5534.00,1.59
5533.00,1.59
5532.00,1.60
5531.00,1.60
5530.00,1.60
5529.00,1.60
5528.00,1.60
5527.00,1.60
5526.00,1.60
5525.00,1.60
5524.00,1.60
5523.00,1.60
5522.00,1.60
5521.00,1.60
5520.00,1.60
5519.00,1.61
5518.00,1.61
5517.00,1.61
5516.00,1.61
5515.00,1.61
5514.00,1.61
5513.00,1.61
5512.00,1.61
5511.00,1.61
5510.00,1.61
5509.00,1.61
5508.00,1.61
5507.00,1.61
5506.00,1.61
5505.00,1.61
5504.00,1.61
5503.00,1.61
5502.00,1.61
5501.00,1.61
5500.00,1.62
5499.00,1.62
5498.00,1.62
5497.00,1.62
5496.00,1.62
5495.00,1.62
5494.00,1.62
5493.00,1.62
5492.00,1.62
5491.00,1.62
5490.00,1.62
5489.00,1.62
5488.00,1.62
5487.00,1.62
5486.00,1.62
5485.00,1.63
5484.00,1.63
5483.00,1.63
5482.00,1.63
5481.00,1.63
5480.00,1.63
5479.00,1.63
5478.00,1.63
5477.00,1.63
5476.00,1.64
5475.00,1.64
5474.00,1.64
5473.00,1.64
5472.00,1.64
5471.00,1.64
5470.00,1.64
5469.00,1.64
5468.00,1.65
5467.00,1.65
5466.00,1.65
5465.00,1.65
5464.00,1.65
5463.00,1.66
5462.00,1.66
5461.00,1.66
5460.00,1.66
5459.00,1.66
5458.00,1.66
5457.00,1.67
5456.00,1.67
5455.00,1.67
5454.00,1.67
5453.00,1.67
5452.00,1.67
5451.00,1.67
5450.00,1.67
5449.00,1.67
5448.00,1.67
5447.00,1.67
5446.00,1.67
5445.00,1.66
5444.00,1.66
5443.00,1.66
5442.00,1.66
5441.00,1.66
5440.00,1.66
5439.00,1.66
5438.00,1.66
5437.00,1.66
5436.00,1.66
5435.00,1.66
5434.00,1.66
5433.00,1.66
5432.00,1.67
5431.00,1.67
5430.00,1.67
5429.00,1.67
5428.00,1.67
5427.00,1.67
5426.00,1.67
5425.00,1.67
5424.00,1.67
5423.00,1.67
5422.00,1.67
5421.00,1.67
5420.00,1.67
5419.00,1.67
5418.00,1.67
5417.00,1.67
5416.00,1.66
5415.00,1.66
5414.00,1.66
5413.00,1.66
5412.00,1.66
5411.00,1.66
5410.00,1.66
5409.00,1.66
5408.00,1.66
5407.00,1.66
5406.00,1.66
5405.00,1.66
5404.00,1.66
5403.00,1.66
5402.00,1.66
5401.00,1.66
5400.00,1.66
5399.00,1.66
5398.00,1.66
5397.00,1.66
5396.00,1.66
5395.00,1.66
5394.00,1.66
5393.00,1.66
5392.00,1.65
5391.00,1.65
5390.00,1.65
5389.00,1.65
5388.00,1.64
5387.00,1.64
5386.00,1.64
5385.00,1.63
5384.00,1.63
5383.00,1.63
5382.00,1.62
5381.00,1.62
5380.00,1.61
5379.00,1.61
5378.00,1.60
5377.00,1.60
5376.00,1.60
5375.00,1.59
5374.00,1.59
5373.00,1.58
5372.00,1.58
5371.00,1.57
5370.00,1.56
5369.00,1.56
5368.00,1.55
5367.00,1.55
5366.00,1.54
5365.00,1.54
5364.00,1.53
5363.00,1.52
5362.00,1.52
5361.00,1.51
5360.00,1.50
5359.00,1.49
5358.00,1.48
5357.00,1.48
5356.00,1.47
5355.00,1.46
5354.00,1.45
5353.00,1.44
5352.00,1.43
5351.00,1.42
5350.00,1.41
5349.00,1.40
5348.00,1.39
5347.00,1.38
5346.00,1.37
5345.00,1.36
5344.00,1.35
5343.00,1.34
5342.00,1.33
5341.00,1.32
5340.00,1.31
5339.00,1.30
5338.00,1.29
5337.00,1.28
5336.00,1.27
5335.00,1.26
5334.00,1.25
5333.00,1.25
5332.00,1.24
5331.00,1.23
5330.00,1.22
5329.00,1.21
5328.00,1.20
5327.00,1.19
5326.00,1.18
5325.00,1.17
5324.00,1.16
5323.00,1.16
5322.00,1.15
5321.00,1.14
5320.00,1.13
5319.00,1.12
5318.00,1.11
5317.00,1.10
5316.00,1.09
5315.00,1.09
5314.00,1.08
5313.00,1.07
5312.00,1.06
5311.00,1.06
5310.00,1.05
5309.00,1.04
5308.00,1.04
5307.00,1.03
5306.00,1.03
5305.00,1.02
5304.00,1.02
5303.00,1.01
5302.00,1.01
5301.00,1.00
5300.00,1.00
5299.00,0.99
5298.00,0.99
5297.00,0.99
5296.00,0.98
5295.00,0.98
5294.00,0.98
5293.00,0.97
5292.00,0.97
5291.00,0.97
5290.00,0.97
5289.00,0.97
5288.00,0.96
5287.00,0.96
5286.00,0.96
5285.00,0.96
5284.00,0.96
5283.00,0.96
5282.00,0.96
5281.00,0.96
5280.00,0.96
5279.00,0.96
5278.00,0.96
5277.00,0.95
5276.00,0.95
5275.00,0.95
5274.00,0.95
5273.00,0.95
5272.00,0.95
5271.00,0.95
5270.00,0.95
5269.00,0.95
5268.00,0.95
5267.00,0.95
5266.00,0.95
5265.00,0.95
5264.00,0.94
5263.00,0.94
5262.00,0.94
5261.00,0.94
5260.00,0.94
5259.00,0.94
5258.00,0.94
5257.00,0.94
5256.00,0.94
5255.00,0.94
5254.00,0.94
5253.00,0.94
5252.00,0.94
5251.00,0.94
5250.00,0.94
5249.00,0.94
5248.00,0.94
5247.00,0.94
5246.00,0.94
5245.00,0.94
5244.00,0.94
5243.00,0.94
5242.00,0.94
5241.00,0.95
5240.00,0.95
5239.00,0.95
5238.00,0.95
5237.00,0.95
5236.00,0.95
5235.00,0.95
5234.00,0.95
5233.00,0.95
5232.00,0.95
5231.00,0.95
5230.00,0.95
5229.00,0.95
5228.00,0.95
5227.00,0.95
5226.00,0.95
5225.00,0.96
5224.00,0.96
5223.00,0.96
5222.00,0.96
5221.00,0.96
5220.00,0.96
5219.00,0.96
5218.00,0.96
5217.00,0.96
5216.00,0.96
5215.00,0.96
5214.00,0.96
5213.00,0.96
5212.00,0.96
5211.00,0.96
5210.00,0.96
5209.00,0.96
5208.00,0.96
5207.00,0.96
5206.00,0.96
5205.00,0.96
5204.00,0.96
5203.00,0.96
5202.00,0.96
5201.00,0.96
5200.00,0.96
5199.00,0.96
5198.00,0.96
5197.00,0.96
5196.00,0.97
5195.00,0.97
5194.00,0.97
5193.00,0.97
5192.00,0.97
5191.00,0.97
5190.00,0.97
5189.00,0.97
5188.00,0.97
5187.00,0.97
5186.00,0.97
5185.00,0.97
5184.00,0.98
5183.00,0.98
5182.00,0.98
5181.00,0.98
5180.00,0.98
5179.00,0.98
5178.00,0.98
5177.00,0.98
5176.00,0.98
5175.00,0.98
5174.00,0.98
5173.00,0.99
5172.00,0.99
5171.00,0.99
5170.00,0.99
5169.00,0.99
5168.00,0.99
5167.00,0.99
5166.00,0.99
5165.00,0.99
5164.00,0.99
5163.00,0.99
5162.00,0.99
5161.00,0.99
5160.00,0.99
5159.00,0.99
5158.00,0.99
5157.00,0.99
5156.00,0.99
5155.00,0.99
5154.00,0.99
5153.00,0.99
5152.00,0.99
5151.00,0.99
5150.00,0.99
5149.00,0.99
5148.00,0.99
5147.00,1.00
5146.00,1.00
5145.00,1.00
5144.00,1.00
5143.00,1.00
5142.00,1.00
5141.00,1.00
5140.00,1.00
5139.00,1.00
5138.00,1.00
5137.00,1.01
5136.00,1.01
5135.00,1.01
5134.00,1.01
5133.00,1.01
5132.00,1.01
5131.00,1.01
5130.00,1.01
5129.00,1.01
5128.00,1.01
5127.00,1.02
5126.00,1.02
5125.00,1.02
5124.00,1.02
5123.00,1.02
5122.00,1.02
5121.00,1.02
5120.00,1.02
5119.00,1.02
5118.00,1.02
5117.00,1.02
5116.00,1.02
5115.00,1.02
5114.00,1.02
5113.00,1.02
5112.00,1.02
5111.00,1.02
5110.00,1.02
5109.00,1.02
5108.00,1.02
5107.00,1.02
5106.00,1.02
5105.00,1.02
5104.00,1.02
5103.00,1.02
5102.00,1.02
5101.00,1.02
5100.00,1.02
5099.00,1.02
5098.00,1.02
5097.00,1.03
5096.00,1.03
5095.00,1.03
5094.00,1.03
5093.00,1.03
5092.00,1.03
5091.00,1.03
5090.00,1.03
5089.00,1.03
5088.00,1.03
5087.00,1.04
5086.00,1.04
5085.00,1.04
5084.00,1.04
5083.00,1.04
5082.00,1.04
5081.00,1.04
5080.00,1.04
5079.00,1.04
5078.00,1.04
5077.00,1.04
5076.00,1.04
5075.00,1.04
5074.00,1.04
5073.00,1.04
5072.00,1.04
5071.00,1.04
5070.00,1.05
5069.00,1.05
5068.00,1.05
5067.00,1.05
5066.00,1.05
5065.00,1.05
5064.00,1.05
5063.00,1.05
5062.00,1.05
5061.00,1.05
5060.00,1.05
5059.00,1.05
5058.00,1.05
5057.00,1.05
5056.00,1.05
5055.00,1.05
5054.00,1.05
5053.00,1.05
5052.00,1.05
5051.00,1.05
5050.00,1.05
5049.00,1.05
5048.00,1.06
5047.00,1.06
5046.00,1.06
5045.00,1.06
5044.00,1.06
5043.00,1.06
5042.00,1.06
5041.00,1.06
5040.00,1.06
5039.00,1.06
5038.00,1.06
5037.00,1.07
5036.00,1.07
5035.00,1.07
5034.00,1.07
5033.00,1.07
5032.00,1.07
5031.00,1.07
5030.00,1.07
5029.00,1.07
5028.00,1.07
5027.00,1.07
5026.00,1.07
5025.00,1.07
5024.00,1.07
5023.00,1.07
5022.00,1.07
5021.00,1.07
5020.00,1.07
5019.00,1.07
5018.00,1.07
5017.00,1.07
5016.00,1.07
5015.00,1.07
5014.00,1.08
5013.00,1.08
5012.00,1.08
5011.00,1.08
5010.00,1.08
5009.00,1.08
5008.00,1.08
5007.00,1.08
5006.00,1.08
5005.00,1.08
5004.00,1.08
5003.00,1.09
5002.00,1.09
5001.00,1.09
5000.00,1.09
4999.00,1.09
4998.00,1.09
4997.00,1.09
4996.00,1.09
4995.00,1.09
4994.00,1.09
4993.00,1.09
4992.00,1.09
4991.00,1.10
4990.00,1.10
4989.00,1.10
4988.00,1.10
4987.00,1.10
4986.00,1.10
4985.00,1.10
4984.00,1.10
4983.00,1.10
4982.00,1.10
4981.00,1.10
4980.00,1.11
4979.00,1.11
4978.00,1.11
4977.00,1.11
4976.00,1.11
4975.00,1.11
4974.00,1.11
4973.00,1.11
4972.00,1.11
4971.00,1.11
4970.00,1.11
4969.00,1.11
4968.00,1.11
4967.00,1.12
4966.00,1.12
4965.00,1.12
4964.00,1.12
4963.00,1.12
4962.00,1.12
4961.00,1.12
4960.00,1.12
4959.00,1.12
4958.00,1.12
4957.00,1.12
4956.00,1.12
4955.00,1.12
4954.00,1.12
4953.00,1.12
4952.00,1.13
4951.00,1.13
4950.00,1.13
4949.00,1.13
4948.00,1.13
4947.00,1.13
4946.00,1.13
4945.00,1.13
4944.00,1.13
4943.00,1.13
4942.00,1.13
4941.00,1.13
4940.00,1.13
4939.00,1.13
4938.00,1.13
4937.00,1.14
4936.00,1.14
4935.00,1.14
4934.00,1.14
4933.00,1.14
4932.00,1.14
4931.00,1.14
4930.00,1.14
4929.00,1.14
4928.00,1.15
4927.00,1.15
4926.00,1.15
4925.00,1.15
4924.00,1.15
4923.00,1.15
4922.00,1.15
4921.00,1.16
4920.00,1.16
4919.00,1.16
4918.00,1.16
4917.00,1.16
4916.00,1.16
4915.00,1.16
4914.00,1.16
4913.00,1.16
4912.00,1.16
4911.00,1.16
4910.00,1.16
4909.00,1.16
4908.00,1.16
4907.00,1.16
4906.00,1.16
4905.00,1.16
4904.00,1.16
4903.00,1.16
4902.00,1.16
4901.00,1.16
4900.00,1.16
4899.00,1.16
4898.00,1.16
4897.00,1.16
4896.00,1.16
4895.00,1.16
4894.00,1.16
4893.00,1.16
4892.00,1.16
4891.00,1.16
4890.00,1.16
4889.00,1.16
4888.00,1.16
4887.00,1.16
4886.00,1.17
4885.00,1.17
4884.00,1.17
4883.00,1.17
4882.00,1.17
4881.00,1.17
4880.00,1.17
4879.00,1.17
4878.00,1.17
4877.00,1.17
4876.00,1.18
4875.00,1.18
4874.00,1.18
4873.00,1.18
4872.00,1.18
4871.00,1.18
4870.00,1.18
4869.00,1.18
4868.00,1.18
4867.00,1.18
4866.00,1.19
4865.00,1.19
4864.00,1.19
4863.00,1.19
4862.00,1.19
4861.00,1.19
4860.00,1.19
4859.00,1.19
4858.00,1.19
4857.00,1.19
4856.00,1.19
4855.00,1.19
4854.00,1.19
4853.00,1.19
4852.00,1.19
4851.00,1.19
4850.00,1.19
4849.00,1.19
4848.00,1.20
4847.00,1.20
4846.00,1.20
4845.00,1.20
4844.00,1.20
4843.00,1.20
4842.00,1.20
4841.00,1.20
4840.00,1.21
4839.00,1.21
4838.00,1.21
4837.00,1.21
4836.00,1.21
4835.00,1.21
4834.00,1.21
4833.00,1.21
4832.00,1.22
4831.00,1.22
4830.00,1.22
4829.00,1.22
4828.00,1.22
4827.00,1.22
4826.00,1.22
4825.00,1.22
4824.00,1.22
4823.00,1.22
4822.00,1.22
4821.00,1.22
4820.00,1.22
4819.00,1.22
4818.00,1.22
4817.00,1.22
4816.00,1.22
4815.00,1.23
4814.00,1.23
4813.00,1.23
4812.00,1.23
4811.00,1.23
4810.00,1.23
4809.00,1.23
4808.00,1.23
4807.00,1.23
4806.00,1.23
4805.00,1.23
4804.00,1.24
4803.00,1.24
4802.00,1.24
4801.00,1.24
4800.00,1.24
4799.00,1.24
4798.00,1.24
4797.00,1.25
4796.00,1.25
4795.00,1.25
4794.00,1.25
4793.00,1.25
4792.00,1.25
4791.00,1.25
4790.00,1.25
4789.00,1.25
4788.00,1.25
4787.00,1.26
4786.00,1.26
4785.00,1.26
4784.00,1.26
4783.00,1.26
4782.00,1.26
4781.00,1.26
4780.00,1.26
4779.00,1.26
4778.00,1.26
4777.00,1.26
4776.00,1.26
4775.00,1.27
4774.00,1.27
4773.00,1.27
4772.00,1.27
4771.00,1.27
4770.00,1.27
4769.00,1.27
4768.00,1.28
4767.00,1.28
4766.00,1.28
4765.00,1.28
4764.00,1.28
4763.00,1.28
4762.00,1.28
4761.00,1.29
4760.00,1.29
4759.00,1.29
4758.00,1.29
4757.00,1.29
4756.00,1.29
4755.00,1.30
4754.00,1.30
4753.00,1.30
4752.00,1.30
4751.00,1.30
4750.00,1.30
4749.00,1.31
4748.00,1.31
4747.00,1.31
4746.00,1.31
4745.00,1.31
4744.00,1.31
4743.00,1.31
4742.00,1.31
4741.00,1.31
4740.00,1.31
4739.00,1.31
4738.00,1.32
4737.00,1.32
4736.00,1.32
4735.00,1.32
4734.00,1.32
4733.00,1.32
4732.00,1.32
4731.00,1.32
4730.00,1.32
4729.00,1.32
4728.00,1.32
4727.00,1.32
4726.00,1.32
4725.00,1.32
4724.00,1.32
4723.00,1.33
4722.00,1.33
4721.00,1.33
4720.00,1.33
4719.00,1.33
4718.00,1.33
4717.00,1.34
4716.00,1.34
4715.00,1.34
4714.00,1.34
4713.00,1.34
4712.00,1.34
4711.00,1.35
4710.00,1.35
4709.00,1.35
4708.00,1.35
4707.00,1.35
4706.00,1.35
4705.00,1.36
4704.00,1.36
4703.00,1.36
4702.00,1.36
4701.00,1.36
4700.00,1.36
4699.00,1.36
4698.00,1.36
4697.00,1.36
4696.00,1.37
4695.00,1.37
4694.00,1.37
4693.00,1.37
4692.00,1.37
4691.00,1.37
4690.00,1.37
4689.00,1.37
4688.00,1.37
4687.00,1.37
4686.00,1.38
4685.00,1.38
4684.00,1.38
4683.00,1.38
4682.00,1.38
4681.00,1.39
4680.00,1.39
4679.00,1.39
4678.00,1.39
4677.00,1.39
4676.00,1.40
4675.00,1.40
4674.00,1.40
4673.00,1.40
4672.00,1.40
4671.00,1.40
4670.00,1.40
4669.00,1.40
4668.00,1.40
4667.00,1.41
4666.00,1.41
4665.00,1.41
4664.00,1.41
4663.00,1.41
4662.00,1.41
4661.00,1.41
4660.00,1.41
4659.00,1.41
4658.00,1.41
4657.00,1.42
4656.00,1.42
4655.00,1.42
4654.00,1.42
4653.00,1.42
4652.00,1.42
4651.00,1.42
4650.00,1.43
4649.00,1.43
4648.00,1.43
4647.00,1.43
4646.00,1.43
4645.00,1.43
4644.00,1.43
4643.00,1.44
4642.00,1.44
4641.00,1.44
4640.00,1.44
4639.00,1.44
4638.00,1.44
4637.00,1.44
4636.00,1.44
4635.00,1.44
4634.00,1.44
4633.00,1.45
4632.00,1.45
4631.00,1.45
4630.00,1.45
4629.00,1.45
4628.00,1.45
4627.00,1.45
4626.00,1.45
4625.00,1.45
4624.00,1.45
4623.00,1.45
4622.00,1.45
4621.00,1.45
4620.00,1.45
4619.00,1.45
4618.00,1.45
4617.00,1.45
4616.00,1.46
4615.00,1.46
4614.00,1.46
4613.00,1.46
4612.00,1.46
4611.00,1.46
4610.00,1.46
4609.00,1.46
4608.00,1.46
4607.00,1.46
4606.00,1.46
4605.00,1.47
4604.00,1.47
4603.00,1.47
4602.00,1.47
4601.00,1.47
4600.00,1.47
4599.00,1.47
4598.00,1.47
4597.00,1.47
4596.00,1.47
4595.00,1.47
4594.00,1.47
4593.00,1.47
4592.00,1.47
4591.00,1.48
4590.00,1.48
4589.00,1.48
4588.00,1.48
4587.00,1.48
4586.00,1.48
4585.00,1.48
4584.00,1.48
4583.00,1.48
4582.00,1.48
4581.00,1.48
4580.00,1.48
4579.00,1.48
4578.00,1.49
4577.00,1.49
4576.00,1.49
4575.00,1.49
4574.00,1.49
4573.00,1.49
4572.00,1.49
4571.00,1.49
4570.00,1.49
4569.00,1.49
4568.00,1.49
4567.00,1.50
4566.00,1.50
4565.00,1.50
4564.00,1.50
4563.00,1.50
4562.00,1.50
4561.00,1.50
4560.00,1.50
4559.00,1.51
4558.00,1.51
4557.00,1.51
4556.00,1.51
4555.00,1.51
4554.00,1.51
4553.00,1.51
4552.00,1.51
4551.00,1.51
4550.00,1.51
4549.00,1.51
4548.00,1.51
4547.00,1.51
4546.00,1.51
4545.00,1.51
4544.00,1.51
4543.00,1.51
4542.00,1.51
4541.00,1.52
4540.00,1.52
4539.00,1.52
4538.00,1.52
4537.00,1.52
4536.00,1.52
4535.00,1.52
4534.00,1.52
4533.00,1.52
4532.00,1.52
4531.00,1.52
4530.00,1.52
4529.00,1.52
4528.00,1.52
4527.00,1.52
4526.00,1.52
4525.00,1.52
4524.00,1.52
4523.00,1.52
4522.00,1.52
4521.00,1.52
4520.00,1.52
4519.00,1.52
4518.00,1.52
4517.00,1.52
4516.00,1.52
4515.00,1.52
4514.00,1.52
4513.00,1.52
4512.00,1.52
4511.00,1.52
4510.00,1.53
4509.00,1.53
4508.00,1.53
4507.00,1.53
4506.00,1.53
4505.00,1.53
4504.00,1.53
4503.00,1.53
4502.00,1.53
4501.00,1.53
4500.00,1.52
4499.00,1.52
4498.00,1.52
4497.00,1.52
4496.00,1.52
4495.00,1.52
4494.00,1.52
4493.00,1.52
4492.00,1.52
4491.00,1.52
4490.00,1.52
4489.00,1.52
4488.00,1.52
4487.00,1.52
4486.00,1.52
4485.00,1.52
4484.00,1.52
4483.00,1.52
4482.00,1.52
4481.00,1.52
4480.00,1.51
4479.00,1.51
4478.00,1.51
4477.00,1.51
4476.00,1.51
4475.00,1.51
4474.00,1.51
4473.00,1.51
4472.00,1.51
4471.00,1.50
4470.00,1.50
4469.00,1.50
4468.00,1.50
4467.00,1.50
4466.00,1.49
4465.00,1.49
4464.00,1.49
4463.00,1.49
4462.00,1.49
4461.00,1.48
4460.00,1.48
4459.00,1.48
4458.00,1.48
4457.00,1.47
4456.00,1.47
4455.00,1.47
4454.00,1.46
4453.00,1.46
4452.00,1.46
4451.00,1.46
4450.00,1.45
4449.00,1.45
4448.00,1.45
4447.00,1.44
4446.00,1.44
4445.00,1.44
4444.00,1.43
4443.00,1.43
4442.00,1.43
4441.00,1.43
4440.00,1.42
4439.00,1.42
4438.00,1.42
4437.00,1.42
4436.00,1.41
4435.00,1.41
4434.00,1.41
4433.00,1.41
4432.00,1.41
4431.00,1.41
4430.00,1.40
4429.00,1.40
4428.00,1.40
4427.00,1.40
4426.00,1.40
4425.00,1.40
4424.00,1.40
4423.00,1.40
4422.00,1.40
4421.00,1.40
4420.00,1.40
4419.00,1.40
4418.00,1.40
4417.00,1.40
4416.00,1.40
4415.00,1.40
4414.00,1.40
4413.00,1.40
4412.00,1.40
4411.00,1.40
4410.00,1.40
4409.00,1.40
4408.00,1.40
4407.00,1.40
4406.00,1.40
4405.00,1.40
4404.00,1.40
4403.00,1.40
4402.00,1.40
4401.00,1.40
4400.00,1.40
4399.00,1.41
4398.00,1.41
4397.00,1.41
4396.00,1.41
4395.00,1.41
4394.00,1.41
4393.00,1.42
4392.00,1.42
4391.00,1.42
4390.00,1.42
4389.00,1.42
4388.00,1.43
4387.00,1.43
4386.00,1.43
4385.00,1.43
4384.00,1.43
4383.00,1.43
4382.00,1.44
4381.00,1.44
4380.00,1.44
4379.00,1.44
4378.00,1.44
4377.00,1.44
4376.00,1.44
4375.00,1.44
4374.00,1.44
4373.00,1.44
4372.00,1.44
4371.00,1.44
4370.00,1.44
4369.00,1.44
4368.00,1.44
4367.00,1.44
4366.00,1.44
4365.00,1.44
4364.00,1.44
4363.00,1.44
4362.00,1.44
4361.00,1.44
4360.00,1.44
4359.00,1.44
4358.00,1.44
4357.00,1.44
4356.00,1.44
4355.00,1.44
4354.00,1.44
4353.00,1.44
4352.00,1.44
4351.00,1.44
4350.00,1.45
4349.00,1.45
4348.00,1.45
4347.00,1.45
4346.00,1.45
4345.00,1.45
4344.00,1.45
4343.00,1.45
4342.00,1.45
4341.00,1.45
4340.00,1.45
4339.00,1.45
4338.00,1.45
4337.00,1.45
4336.00,1.45
4335.00,1.45
4334.00,1.45
4333.00,1.45
4332.00,1.46
4331.00,1.46
4330.00,1.46
4329.00,1.46
4328.00,1.46
4327.00,1.46
4326.00,1.46
4325.00,1.46
4324.00,1.46
4323.00,1.47
4322.00,1.47
4321.00,1.47
4320.00,1.47
4319.00,1.47
4318.00,1.47
4317.00,1.47
4316.00,1.47
4315.00,1.47
4314.00,1.48
4313.00,1.48
4312.00,1.48
4311.00,1.48
4310.00,1.48
4309.00,1.48
4308.00,1.48
4307.00,1.48
4306.00,1.48
4305.00,1.48
4304.00,1.48
4303.00,1.48
4302.00,1.48
4301.00,1.48
4300.00,1.48
4299.00,1.49
4298.00,1.49
4297.00,1.49
4296.00,1.49
4295.00,1.49
4294.00,1.49
4293.00,1.49
4292.00,1.49
4291.00,1.50
4290.00,1.50
4289.00,1.50
4288.00,1.50
4287.00,1.50
4286.00,1.50
4285.00,1.50
4284.00,1.50
4283.00,1.50
4282.00,1.50
4281.00,1.50
4280.00,1.50
4279.00,1.50
4278.00,1.50
4277.00,1.50
4276.00,1.50
4275.00,1.50
4274.00,1.50
4273.00,1.50
4272.00,1.50
4271.00,1.50
4270.00,1.50
4269.00,1.50
4268.00,1.50
4267.00,1.50
4266.00,1.50
4265.00,1.50
4264.00,1.50
4263.00,1.50
4262.00,1.50
4261.00,1.50
4260.00,1.50
4259.00,1.50
4258.00,1.50
4257.00,1.50
4256.00,1.50
4255.00,1.50
4254.00,1.50
4253.00,1.51
4252.00,1.51
4251.00,1.51
4250.00,1.51
4249.00,1.51
4248.00,1.51
4247.00,1.51
4246.00,1.51
4245.00,1.51
4244.00,1.51
4243.00,1.52
4242.00,1.52
4241.00,1.52
4240.00,1.52
4239.00,1.52
4238.00,1.52
4237.00,1.52
4236.00,1.52
4235.00,1.53
4234.00,1.53
4233.00,1.53
4232.00,1.53
4231.00,1.53
4230.00,1.53
4229.00,1.53
4228.00,1.53
4227.00,1.53
4226.00,1.53
4225.00,1.53
4224.00,1.53
4223.00,1.54
4222.00,1.54
4221.00,1.54
4220.00,1.54
4219.00,1.54
4218.00,1.54
4217.00,1.54
4216.00,1.54
4215.00,1.54
4214.00,1.54
4213.00,1.55
4212.00,1.55
4211.00,1.55
4210.00,1.55
4209.00,1.55
4208.00,1.55
4207.00,1.55
4206.00,1.55
4205.00,1.55
4204.00,1.55
4203.00,1.55
4202.00,1.55
4201.00,1.55
4200.00,1.55
4199.00,1.55
4198.00,1.55
4197.00,1.55
4196.00,1.55
4195.00,1.55
4194.00,1.55
4193.00,1.55
4192.00,1.55
4191.00,1.55
4190.00,1.55
4189.00,1.55
4188.00,1.55
4187.00,1.55
4186.00,1.55
4185.00,1.55
4184.00,1.55
4183.00,1.55
4182.00,1.55
4181.00,1.55
4180.00,1.55
4179.00,1.55
4178.00,1.55
4177.00,1.56
4176.00,1.56
4175.00,1.56
4174.00,1.56
4173.00,1.56
4172.00,1.56
4171.00,1.56
4170.00,1.57
4169.00,1.57
4168.00,1.57
4167.00,1.57
4166.00,1.57
4165.00,1.57
4164.00,1.57
4163.00,1.57
4162.00,1.57
4161.00,1.57
4160.00,1.57
4159.00,1.57
4158.00,1.57
4157.00,1.57
4156.00,1.57
4155.00,1.57
4154.00,1.57
4153.00,1.58
4152.00,1.58
4151.00,1.58
4150.00,1.58
4149.00,1.58
4148.00,1.58
4147.00,1.58
4146.00,1.58
4145.00,1.58
4144.00,1.59
4143.00,1.59
4142.00,1.59
4141.00,1.59
4140.00,1.59
4139.00,1.59
4138.00,1.59
4137.00,1.59
4136.00,1.59
4135.00,1.59
4134.00,1.60
4133.00,1.60
4132.00,1.60
4131.00,1.60
4130.00,1.60
4129.00,1.60
4128.00,1.60
4127.00,1.60
4126.00,1.60
4125.00,1.60
4124.00,1.60
4123.00,1.61
4122.00,1.61
4121.00,1.61
4120.00,1.61
4119.00,1.61
4118.00,1.61
4117.00,1.61
4116.00,1.61
4115.00,1.61
4114.00,1.61
4113.00,1.61
4112.00,1.61
4111.00,1.61
4110.00,1.61
4109.00,1.61
4108.00,1.61
4107.00,1.61
4106.00,1.61
4105.00,1.61
4104.00,1.61
4103.00,1.61
4102.00,1.61
4101.00,1.61
4100.00,1.61
4099.00,1.61
4098.00,1.61
4097.00,1.61
4096.00,1.61
4095.00,1.61
4094.00,1.61
4093.00,1.61
4092.00,1.61
4091.00,1.61
4090.00,1.61
4089.00,1.61
4088.00,1.61
4087.00,1.61
4086.00,1.60
4085.00,1.60
4084.00,1.60
4083.00,1.60
4082.00,1.60
4081.00,1.60
4080.00,1.60
4079.00,1.60
4078.00,1.60
4077.00,1.60
4076.00,1.60
4075.00,1.60
4074.00,1.61
4073.00,1.61
4072.00,1.61
4071.00,1.61
4070.00,1.61
4069.00,1.61
4068.00,1.61
4067.00,1.61
4066.00,1.62
4065.00,1.62
4064.00,1.62
4063.00,1.62
4062.00,1.62
4061.00,1.62
4060.00,1.63
4059.00,1.63
4058.00,1.63
4057.00,1.63
4056.00,1.63
4055.00,1.63
4054.00,1.63
4053.00,1.63
4052.00,1.63
4051.00,1.64
4050.00,1.64
4049.00,1.64
4048.00,1.64
4047.00,1.64
4046.00,1.64
4045.00,1.64
4044.00,1.64
4043.00,1.64
4042.00,1.64
4041.00,1.64
4040.00,1.64
4039.00,1.64
4038.00,1.64
4037.00,1.65
4036.00,1.65
4035.00,1.65
4034.00,1.65
4033.00,1.65
4032.00,1.65
4031.00,1.65
4030.00,1.65
4029.00,1.65
4028.00,1.66
4027.00,1.66
4026.00,1.66
4025.00,1.66
4024.00,1.66
4023.00,1.66
4022.00,1.66
4021.00,1.66
4020.00,1.66
4019.00,1.66
4018.00,1.66
4017.00,1.66
4016.00,1.66
4015.00,1.66
4014.00,1.66
4013.00,1.66
4012.00,1.66
4011.00,1.66
4010.00,1.66
4009.00,1.66
4008.00,1.66
4007.00,1.66
4006.00,1.67
4005.00,1.67
4004.00,1.67
4003.00,1.67
4002.00,1.67
4001.00,1.67
4000.00,1.67
