创建为新数据集,样品 540 用户 Administrator 日期 星期一, 七月 16 2018
cm-1,%T
10000.00,1.45
9999.00,1.45
9998.00,1.45
9997.00,1.44
9996.00,1.44
9995.00,1.44
9994.00,1.44
9993.00,1.44
9992.00,1.44
9991.00,1.44
9990.00,1.44
9989.00,1.44
9988.00,1.44
9987.00,1.43
9986.00,1.43
9985.00,1.43
9984.00,1.43
9983.00,1.43
9982.00,1.43
9981.00,1.43
9980.00,1.43
9979.00,1.43
9978.00,1.44
9977.00,1.44
9976.00,1.44
9975.00,1.44
9974.00,1.44
9973.00,1.44
9972.00,1.44
9971.00,1.45
9970.00,1.45
9969.00,1.45
9968.00,1.45
9967.00,1.45
9966.00,1.45
9965.00,1.45
9964.00,1.45
9963.00,1.45
9962.00,1.45
9961.00,1.45
9960.00,1.45
9959.00,1.45
9958.00,1.45
9957.00,1.45
9956.00,1.45
9955.00,1.45
9954.00,1.45
9953.00,1.45
9952.00,1.45
9951.00,1.45
9950.00,1.45
9949.00,1.45
9948.00,1.44
9947.00,1.44
9946.00,1.44
9945.00,1.44
9944.00,1.44
9943.00,1.43
9942.00,1.43
9941.00,1.43
9940.00,1.42
9939.00,1.42
9938.00,1.42
9937.00,1.42
9936.00,1.41
9935.00,1.41
9934.00,1.41
9933.00,1.41
9932.00,1.41
9931.00,1.41
9930.00,1.41
9929.00,1.41
9928.00,1.41
9927.00,1.41
9926.00,1.40
9925.00,1.40
9924.00,1.40
9923.00,1.40
9922.00,1.40
9921.00,1.40
9920.00,1.39
9919.00,1.39
9918.00,1.39
9917.00,1.39
9916.00,1.39
9915.00,1.39
9914.00,1.39
9913.00,1.39
9912.00,1.39
9911.00,1.39
9910.00,1.39
9909.00,1.39
9908.00,1.39
9907.00,1.39
9906.00,1.39
9905.00,1.39
9904.00,1.39
9903.00,1.39
9902.00,1.39
9901.00,1.39
9900.00,1.39
9899.00,1.39
9898.00,1.39
9897.00,1.39
9896.00,1.40
9895.00,1.40
9894.00,1.40
9893.00,1.40
9892.00,1.40
9891.00,1.41
9890.00,1.41
9889.00,1.41
9888.00,1.41
9887.00,1.41
9886.00,1.42
9885.00,1.42
9884.00,1.42
9883.00,1.42
9882.00,1.42
9881.00,1.42
9880.00,1.42
9879.00,1.42
9878.00,1.42
9877.00,1.42
9876.00,1.42
9875.00,1.42
9874.00,1.42
9873.00,1.42
9872.00,1.42
9871.00,1.42
9870.00,1.42
9869.00,1.42
9868.00,1.42
9867.00,1.42
9866.00,1.42
9865.00,1.42
9864.00,1.42
9863.00,1.42
9862.00,1.42
9861.00,1.42
9860.00,1.43
9859.00,1.43
9858.00,1.43
9857.00,1.43
9856.00,1.43
9855.00,1.43
9854.00,1.44
9853.00,1.44
9852.00,1.44
9851.00,1.44
9850.00,1.44
9849.00,1.44
9848.00,1.44
9847.00,1.44
9846.00,1.44
9845.00,1.44
9844.00,1.44
9843.00,1.43
9842.00,1.43
9841.00,1.43
9840.00,1.43
9839.00,1.42
9838.00,1.42
9837.00,1.42
9836.00,1.42
9835.00,1.41
9834.00,1.41
9833.00,1.41
9832.00,1.40
9831.00,1.40
9830.00,1.40
9829.00,1.40
9828.00,1.40
9827.00,1.39
9826.00,1.39
9825.00,1.39
9824.00,1.39
9823.00,1.39
9822.00,1.39
9821.00,1.39
9820.00,1.39
9819.00,1.39
9818.00,1.39
9817.00,1.39
9816.00,1.39
9815.00,1.39
9814.00,1.39
9813.00,1.39
9812.00,1.39
9811.00,1.39
9810.00,1.39
9809.00,1.39
9808.00,1.40
9807.00,1.40
9806.00,1.40
9805.00,1.40
9804.00,1.40
9803.00,1.40
9802.00,1.40
9801.00,1.40
9800.00,1.40
9799.00,1.41
9798.00,1.41
9797.00,1.41
9796.00,1.41
9795.00,1.41
9794.00,1.41
9793.00,1.41
9792.00,1.41
9791.00,1.41
9790.00,1.41
9789.00,1.41
9788.00,1.41
9787.00,1.41
9786.00,1.41
9785.00,1.41
9784.00,1.42
9783.00,1.42
9782.00,1.42
9781.00,1.42
9780.00,1.42
9779.00,1.42
9778.00,1.42
9777.00,1.43
9776.00,1.43
9775.00,1.43
9774.00,1.43
9773.00,1.43
9772.00,1.43
9771.00,1.43
9770.00,1.43
9769.00,1.43
9768.00,1.43
9767.00,1.43
9766.00,1.43
9765.00,1.43
9764.00,1.43
9763.00,1.43
9762.00,1.43
9761.00,1.43
9760.00,1.43
9759.00,1.43
9758.00,1.43
9757.00,1.43
9756.00,1.43
9755.00,1.43
9754.00,1.43
9753.00,1.43
9752.00,1.43
9751.00,1.43
9750.00,1.43
9749.00,1.43
9748.00,1.43
9747.00,1.43
9746.00,1.43
9745.00,1.43
9744.00,1.43
9743.00,1.43
9742.00,1.43
9741.00,1.43
9740.00,1.43
9739.00,1.43
9738.00,1.43
9737.00,1.43
9736.00,1.43
9735.00,1.44
9734.00,1.44
9733.00,1.44
9732.00,1.44
9731.00,1.44
9730.00,1.44
9729.00,1.43
9728.00,1.43
9727.00,1.43
9726.00,1.43
9725.00,1.43
9724.00,1.43
9723.00,1.43
9722.00,1.43
9721.00,1.43
9720.00,1.43
9719.00,1.43
9718.00,1.43
9717.00,1.43
9716.00,1.43
9715.00,1.42
9714.00,1.42
9713.00,1.42
9712.00,1.42
9711.00,1.42
9710.00,1.42
9709.00,1.42
9708.00,1.42
9707.00,1.42
9706.00,1.42
9705.00,1.42
9704.00,1.42
9703.00,1.42
9702.00,1.42
9701.00,1.42
9700.00,1.42
9699.00,1.42
9698.00,1.42
9697.00,1.42
9696.00,1.42
9695.00,1.42
9694.00,1.42
9693.00,1.42
9692.00,1.41
9691.00,1.41
9690.00,1.41
9689.00,1.41
9688.00,1.41
9687.00,1.41
9686.00,1.41
9685.00,1.41
9684.00,1.41
9683.00,1.41
9682.00,1.41
9681.00,1.41
9680.00,1.41
9679.00,1.41
9678.00,1.42
9677.00,1.42
9676.00,1.42
9675.00,1.42
9674.00,1.42
9673.00,1.42
9672.00,1.43
9671.00,1.43
9670.00,1.43
9669.00,1.43
9668.00,1.43
9667.00,1.44
9666.00,1.44
9665.00,1.44
9664.00,1.44
9663.00,1.44
9662.00,1.44
9661.00,1.45
9660.00,1.45
9659.00,1.45
9658.00,1.45
9657.00,1.45
9656.00,1.44
9655.00,1.44
9654.00,1.44
9653.00,1.44
9652.00,1.44
9651.00,1.44
9650.00,1.43
9649.00,1.43
9648.00,1.43
9647.00,1.43
9646.00,1.42
9645.00,1.42
9644.00,1.42
9643.00,1.42
9642.00,1.42
9641.00,1.42
9640.00,1.42
9639.00,1.42
9638.00,1.41
9637.00,1.41
9636.00,1.41
9635.00,1.41
9634.00,1.41
9633.00,1.41
9632.00,1.41
9631.00,1.41
9630.00,1.41
9629.00,1.41
9628.00,1.41
9627.00,1.41
9626.00,1.41
9625.00,1.41
9624.00,1.40
9623.00,1.40
9622.00,1.40
9621.00,1.41
9620.00,1.41
9619.00,1.41
9618.00,1.41
9617.00,1.41
9616.00,1.41
9615.00,1.41
9614.00,1.41
9613.00,1.41
9612.00,1.41
9611.00,1.41
9610.00,1.41
9609.00,1.41
9608.00,1.41
9607.00,1.41
9606.00,1.41
9605.00,1.41
9604.00,1.41
9603.00,1.41
9602.00,1.41
9601.00,1.41
9600.00,1.41
9599.00,1.41
9598.00,1.41
9597.00,1.41
9596.00,1.41
9595.00,1.42
9594.00,1.42
9593.00,1.42
9592.00,1.42
9591.00,1.42
9590.00,1.42
9589.00,1.42
9588.00,1.42
9587.00,1.42
9586.00,1.42
9585.00,1.42
9584.00,1.42
9583.00,1.42
9582.00,1.42
9581.00,1.42
9580.00,1.42
9579.00,1.42
9578.00,1.42
9577.00,1.41
9576.00,1.41
9575.00,1.41
9574.00,1.41
9573.00,1.41
9572.00,1.41
9571.00,1.41
9570.00,1.41
9569.00,1.41
9568.00,1.41
9567.00,1.41
9566.00,1.41
9565.00,1.41
9564.00,1.41
9563.00,1.41
9562.00,1.41
9561.00,1.41
9560.00,1.41
9559.00,1.41
9558.00,1.41
9557.00,1.41
9556.00,1.41
9555.00,1.41
9554.00,1.41
9553.00,1.41
9552.00,1.41
9551.00,1.41
9550.00,1.41
9549.00,1.41
9548.00,1.41
9547.00,1.41
9546.00,1.41
9545.00,1.41
9544.00,1.41
9543.00,1.41
9542.00,1.42
9541.00,1.42
9540.00,1.42
9539.00,1.42
9538.00,1.42
9537.00,1.42
9536.00,1.42
9535.00,1.41
9534.00,1.41
9533.00,1.41
9532.00,1.41
9531.00,1.41
9530.00,1.41
9529.00,1.41
9528.00,1.41
9527.00,1.41
9526.00,1.41
9525.00,1.41
9524.00,1.41
9523.00,1.41
9522.00,1.41
9521.00,1.41
9520.00,1.41
9519.00,1.41
9518.00,1.41
9517.00,1.41
9516.00,1.41
9515.00,1.41
9514.00,1.41
9513.00,1.41
9512.00,1.41
9511.00,1.41
9510.00,1.40
9509.00,1.40
9508.00,1.40
9507.00,1.40
9506.00,1.39
9505.00,1.39
9504.00,1.39
9503.00,1.39
9502.00,1.39
9501.00,1.39
9500.00,1.39
9499.00,1.39
9498.00,1.39
9497.00,1.39
9496.00,1.40
9495.00,1.40
9494.00,1.40
9493.00,1.41
9492.00,1.41
9491.00,1.42
9490.00,1.42
9489.00,1.42
9488.00,1.43
9487.00,1.43
9486.00,1.43
9485.00,1.43
9484.00,1.43
9483.00,1.43
9482.00,1.43
9481.00,1.43
9480.00,1.43
9479.00,1.43
9478.00,1.42
9477.00,1.42
9476.00,1.42
9475.00,1.42
9474.00,1.42
9473.00,1.41
9472.00,1.41
9471.00,1.41
9470.00,1.41
9469.00,1.41
9468.00,1.41
9467.00,1.41
9466.00,1.42
9465.00,1.42
9464.00,1.42
9463.00,1.42
9462.00,1.43
9461.00,1.43
9460.00,1.43
9459.00,1.44
9458.00,1.44
9457.00,1.44
9456.00,1.44
9455.00,1.44
9454.00,1.45
9453.00,1.45
9452.00,1.45
9451.00,1.44
9450.00,1.44
9449.00,1.44
9448.00,1.44
9447.00,1.44
9446.00,1.44
9445.00,1.43
9444.00,1.43
9443.00,1.43
9442.00,1.43
9441.00,1.43
9440.00,1.42
9439.00,1.42
9438.00,1.42
9437.00,1.42
9436.00,1.42
9435.00,1.41
9434.00,1.41
9433.00,1.41
9432.00,1.41
9431.00,1.41
9430.00,1.41
9429.00,1.41
9428.00,1.41
9427.00,1.41
9426.00,1.41
9425.00,1.41
9424.00,1.41
9423.00,1.41
9422.00,1.41
9421.00,1.41
9420.00,1.41
9419.00,1.41
9418.00,1.41
9417.00,1.41
9416.00,1.41
9415.00,1.41
9414.00,1.41
9413.00,1.41
9412.00,1.41
9411.00,1.41
9410.00,1.41
9409.00,1.42
9408.00,1.42
9407.00,1.42
9406.00,1.42
9405.00,1.42
9404.00,1.42
9403.00,1.42
9402.00,1.42
9401.00,1.42
9400.00,1.42
9399.00,1.42
9398.00,1.42
9397.00,1.42
9396.00,1.42
9395.00,1.42
9394.00,1.42
9393.00,1.42
9392.00,1.42
9391.00,1.42
9390.00,1.41
9389.00,1.41
9388.00,1.41
9387.00,1.41
9386.00,1.41
9385.00,1.40
9384.00,1.40
9383.00,1.40
9382.00,1.40
9381.00,1.40
9380.00,1.40
9379.00,1.40
9378.00,1.40
9377.00,1.40
9376.00,1.40
9375.00,1.40
9374.00,1.40
9373.00,1.40
9372.00,1.40
9371.00,1.40
9370.00,1.40
9369.00,1.40
9368.00,1.40
9367.00,1.40
9366.00,1.40
9365.00,1.40
9364.00,1.40
9363.00,1.40
9362.00,1.40
9361.00,1.40
9360.00,1.41
9359.00,1.41
9358.00,1.41
9357.00,1.41
9356.00,1.41
9355.00,1.41
9354.00,1.42
9353.00,1.42
9352.00,1.42
9351.00,1.42
9350.00,1.42
9349.00,1.42
9348.00,1.43
9347.00,1.43
9346.00,1.43
9345.00,1.43
9344.00,1.43
9343.00,1.44
9342.00,1.44
9341.00,1.44
9340.00,1.44
9339.00,1.44
9338.00,1.44
9337.00,1.45
9336.00,1.45
9335.00,1.45
9334.00,1.45
9333.00,1.45
9332.00,1.45
9331.00,1.45
9330.00,1.44
9329.00,1.44
9328.00,1.44
9327.00,1.44
9326.00,1.44
9325.00,1.44
9324.00,1.43
9323.00,1.43
9322.00,1.43
9321.00,1.43
9320.00,1.43
9319.00,1.43
9318.00,1.42
9317.00,1.42
9316.00,1.42
9315.00,1.42
9314.00,1.42
9313.00,1.42
9312.00,1.42
9311.00,1.42
9310.00,1.42
9309.00,1.42
9308.00,1.42
9307.00,1.42
9306.00,1.42
9305.00,1.42
9304.00,1.42
9303.00,1.42
9302.00,1.42
9301.00,1.42
9300.00,1.42
9299.00,1.42
9298.00,1.42
9297.00,1.42
9296.00,1.41
9295.00,1.41
9294.00,1.41
9293.00,1.41
9292.00,1.41
9291.00,1.41
9290.00,1.41
9289.00,1.41
9288.00,1.41
9287.00,1.41
9286.00,1.41
9285.00,1.41
9284.00,1.41
9283.00,1.41
9282.00,1.40
9281.00,1.40
9280.00,1.40
9279.00,1.40
9278.00,1.40
9277.00,1.40
9276.00,1.40
9275.00,1.40
9274.00,1.40
9273.00,1.40
9272.00,1.40
9271.00,1.39
9270.00,1.39
9269.00,1.39
9268.00,1.39
9267.00,1.39
9266.00,1.39
9265.00,1.39
9264.00,1.39
9263.00,1.39
9262.00,1.39
9261.00,1.39
9260.00,1.39
9259.00,1.39
9258.00,1.39
9257.00,1.40
9256.00,1.40
9255.00,1.40
9254.00,1.40
9253.00,1.41
9252.00,1.41
9251.00,1.41
9250.00,1.42
9249.00,1.42
9248.00,1.42
9247.00,1.42
9246.00,1.43
9245.00,1.43
9244.00,1.43
9243.00,1.43
9242.00,1.43
9241.00,1.43
9240.00,1.43
9239.00,1.43
9238.00,1.43
9237.00,1.42
9236.00,1.42
9235.00,1.42
9234.00,1.42
9233.00,1.42
9232.00,1.41
9231.00,1.41
9230.00,1.41
9229.00,1.41
9228.00,1.41
9227.00,1.41
9226.00,1.41
9225.00,1.41
9224.00,1.41
9223.00,1.42
9222.00,1.42
9221.00,1.42
9220.00,1.42
9219.00,1.42
9218.00,1.42
9217.00,1.42
9216.00,1.42
9215.00,1.42
9214.00,1.42
9213.00,1.42
9212.00,1.42
9211.00,1.42
9210.00,1.42
9209.00,1.42
9208.00,1.42
9207.00,1.42
9206.00,1.42
9205.00,1.41
9204.00,1.41
9203.00,1.41
9202.00,1.41
9201.00,1.41
9200.00,1.41
9199.00,1.41
9198.00,1.42
9197.00,1.42
9196.00,1.42
9195.00,1.42
9194.00,1.42
9193.00,1.42
9192.00,1.42
9191.00,1.42
9190.00,1.42
9189.00,1.42
9188.00,1.42
9187.00,1.42
9186.00,1.42
9185.00,1.42
9184.00,1.42
9183.00,1.42
9182.00,1.42
9181.00,1.42
9180.00,1.42
9179.00,1.42
9178.00,1.42
9177.00,1.42
9176.00,1.42
9175.00,1.42
9174.00,1.42
9173.00,1.42
9172.00,1.42
9171.00,1.42
9170.00,1.42
9169.00,1.42
9168.00,1.42
9167.00,1.42
9166.00,1.42
9165.00,1.42
9164.00,1.42
9163.00,1.42
9162.00,1.41
9161.00,1.41
9160.00,1.41
9159.00,1.41
9158.00,1.41
9157.00,1.41
9156.00,1.41
9155.00,1.41
9154.00,1.41
9153.00,1.41
9152.00,1.42
9151.00,1.42
9150.00,1.42
9149.00,1.42
9148.00,1.42
9147.00,1.42
9146.00,1.42
9145.00,1.42
9144.00,1.43
9143.00,1.43
9142.00,1.43
9141.00,1.43
9140.00,1.43
9139.00,1.43
9138.00,1.43
9137.00,1.43
9136.00,1.43
9135.00,1.43
9134.00,1.43
9133.00,1.43
9132.00,1.43
9131.00,1.43
9130.00,1.43
9129.00,1.43
9128.00,1.43
9127.00,1.43
9126.00,1.43
9125.00,1.43
9124.00,1.43
9123.00,1.43
9122.00,1.43
9121.00,1.43
9120.00,1.42
9119.00,1.42
9118.00,1.42
9117.00,1.42
9116.00,1.42
9115.00,1.42
9114.00,1.42
9113.00,1.42
9112.00,1.42
9111.00,1.41
9110.00,1.41
9109.00,1.41
9108.00,1.41
9107.00,1.41
9106.00,1.41
9105.00,1.41
9104.00,1.41
9103.00,1.41
9102.00,1.41
9101.00,1.41
9100.00,1.41
9099.00,1.41
9098.00,1.41
9097.00,1.41
9096.00,1.41
9095.00,1.41
9094.00,1.41
9093.00,1.41
9092.00,1.41
9091.00,1.41
9090.00,1.41
9089.00,1.41
9088.00,1.41
9087.00,1.41
9086.00,1.41
9085.00,1.41
9084.00,1.41
9083.00,1.41
9082.00,1.41
9081.00,1.41
9080.00,1.41
9079.00,1.41
9078.00,1.41
9077.00,1.41
9076.00,1.41
9075.00,1.41
9074.00,1.41
9073.00,1.41
9072.00,1.41
9071.00,1.41
9070.00,1.41
9069.00,1.42
9068.00,1.41
9067.00,1.41
9066.00,1.41
9065.00,1.41
9064.00,1.41
9063.00,1.41
9062.00,1.41
9061.00,1.41
9060.00,1.41
9059.00,1.41
9058.00,1.41
9057.00,1.41
9056.00,1.41
9055.00,1.41
9054.00,1.41
9053.00,1.41
9052.00,1.41
9051.00,1.41
9050.00,1.42
9049.00,1.42
9048.00,1.42
9047.00,1.42
9046.00,1.43
9045.00,1.43
9044.00,1.43
9043.00,1.44
9042.00,1.44
9041.00,1.44
9040.00,1.44
9039.00,1.44
9038.00,1.45
9037.00,1.45
9036.00,1.45
9035.00,1.44
9034.00,1.44
9033.00,1.44
9032.00,1.44
9031.00,1.44
9030.00,1.44
9029.00,1.44
9028.00,1.44
9027.00,1.43
9026.00,1.43
9025.00,1.43
9024.00,1.43
9023.00,1.43
9022.00,1.43
9021.00,1.43
9020.00,1.43
9019.00,1.43
9018.00,1.43
9017.00,1.43
9016.00,1.43
9015.00,1.44
9014.00,1.44
9013.00,1.44
9012.00,1.44
9011.00,1.44
9010.00,1.44
9009.00,1.44
9008.00,1.44
9007.00,1.43
9006.00,1.43
9005.00,1.43
9004.00,1.43
9003.00,1.43
9002.00,1.43
9001.00,1.43
9000.00,1.43
8999.00,1.42
8998.00,1.42
8997.00,1.42
8996.00,1.42
8995.00,1.42
8994.00,1.42
8993.00,1.42
8992.00,1.41
8991.00,1.41
8990.00,1.41
8989.00,1.41
8988.00,1.41
8987.00,1.41
8986.00,1.41
8985.00,1.41
8984.00,1.41
8983.00,1.41
8982.00,1.41
8981.00,1.41
8980.00,1.41
8979.00,1.41
8978.00,1.41
8977.00,1.41
8976.00,1.42
8975.00,1.42
8974.00,1.42
8973.00,1.42
8972.00,1.42
8971.00,1.43
8970.00,1.43
8969.00,1.43
8968.00,1.43
8967.00,1.43
8966.00,1.44
8965.00,1.44
8964.00,1.44
8963.00,1.44
8962.00,1.44
8961.00,1.44
8960.00,1.44
8959.00,1.44
8958.00,1.44
8957.00,1.44
8956.00,1.43
8955.00,1.43
8954.00,1.43
8953.00,1.43
8952.00,1.43
8951.00,1.43
8950.00,1.43
8949.00,1.43
8948.00,1.42
8947.00,1.42
8946.00,1.42
8945.00,1.42
8944.00,1.42
8943.00,1.42
8942.00,1.42
8941.00,1.42
8940.00,1.42
8939.00,1.42
8938.00,1.42
8937.00,1.42
8936.00,1.42
8935.00,1.42
8934.00,1.42
8933.00,1.42
8932.00,1.42
8931.00,1.42
8930.00,1.42
8929.00,1.42
8928.00,1.42
8927.00,1.42
8926.00,1.42
8925.00,1.42
8924.00,1.42
8923.00,1.42
8922.00,1.42
8921.00,1.42
8920.00,1.42
8919.00,1.42
8918.00,1.42
8917.00,1.42
8916.00,1.42
8915.00,1.42
8914.00,1.42
8913.00,1.42
8912.00,1.42
8911.00,1.42
8910.00,1.42
8909.00,1.42
8908.00,1.42
8907.00,1.42
8906.00,1.42
8905.00,1.42
8904.00,1.42
8903.00,1.42
8902.00,1.42
8901.00,1.42
8900.00,1.42
8899.00,1.42
8898.00,1.42
8897.00,1.42
8896.00,1.42
8895.00,1.42
8894.00,1.42
8893.00,1.42
8892.00,1.42
8891.00,1.42
8890.00,1.42
8889.00,1.42
8888.00,1.42
8887.00,1.42
8886.00,1.41
8885.00,1.41
8884.00,1.41
8883.00,1.41
8882.00,1.41
8881.00,1.41
8880.00,1.41
8879.00,1.41
8878.00,1.40
8877.00,1.40
8876.00,1.40
8875.00,1.40
8874.00,1.40
8873.00,1.40
8872.00,1.40
8871.00,1.40
8870.00,1.40
8869.00,1.40
8868.00,1.40
8867.00,1.40
8866.00,1.40
8865.00,1.40
8864.00,1.40
8863.00,1.40
8862.00,1.40
8861.00,1.40
8860.00,1.40
8859.00,1.40
8858.00,1.40
8857.00,1.40
8856.00,1.40
8855.00,1.40
8854.00,1.40
8853.00,1.40
8852.00,1.40
8851.00,1.40
8850.00,1.40
8849.00,1.40
8848.00,1.40
8847.00,1.40
8846.00,1.41
8845.00,1.41
8844.00,1.41
8843.00,1.41
8842.00,1.41
8841.00,1.41
8840.00,1.41
8839.00,1.41
8838.00,1.41
8837.00,1.41
8836.00,1.41
8835.00,1.41
8834.00,1.42
8833.00,1.42
8832.00,1.42
8831.00,1.42
8830.00,1.42
8829.00,1.42
8828.00,1.42
8827.00,1.42
8826.00,1.42
8825.00,1.42
8824.00,1.42
8823.00,1.42
8822.00,1.42
8821.00,1.42
8820.00,1.42
8819.00,1.42
8818.00,1.42
8817.00,1.42
8816.00,1.42
8815.00,1.42
8814.00,1.42
8813.00,1.42
8812.00,1.41
8811.00,1.41
8810.00,1.41
8809.00,1.41
8808.00,1.41
8807.00,1.41
8806.00,1.41
8805.00,1.41
8804.00,1.41
8803.00,1.41
8802.00,1.41
8801.00,1.40
8800.00,1.40
8799.00,1.40
8798.00,1.40
8797.00,1.40
8796.00,1.40
8795.00,1.40
8794.00,1.39
8793.00,1.39
8792.00,1.39
8791.00,1.39
8790.00,1.39
8789.00,1.39
8788.00,1.39
8787.00,1.39
8786.00,1.39
8785.00,1.39
8784.00,1.39
8783.00,1.39
8782.00,1.39
8781.00,1.39
8780.00,1.39
8779.00,1.39
8778.00,1.39
8777.00,1.39
8776.00,1.39
8775.00,1.39
8774.00,1.39
8773.00,1.39
8772.00,1.39
8771.00,1.38
8770.00,1.38
8769.00,1.38
8768.00,1.38
8767.00,1.38
8766.00,1.38
8765.00,1.38
8764.00,1.38
8763.00,1.38
8762.00,1.38
8761.00,1.37
8760.00,1.37
8759.00,1.37
8758.00,1.37
8757.00,1.37
8756.00,1.37
8755.00,1.37
8754.00,1.37
8753.00,1.37
8752.00,1.37
8751.00,1.37
8750.00,1.37
8749.00,1.37
8748.00,1.37
8747.00,1.38
8746.00,1.38
8745.00,1.38
8744.00,1.38
8743.00,1.38
8742.00,1.38
8741.00,1.38
8740.00,1.38
8739.00,1.38
8738.00,1.38
8737.00,1.38
8736.00,1.38
8735.00,1.38
8734.00,1.38
8733.00,1.38
8732.00,1.38
8731.00,1.38
8730.00,1.38
8729.00,1.38
8728.00,1.38
8727.00,1.38
8726.00,1.38
8725.00,1.38
8724.00,1.38
8723.00,1.38
8722.00,1.38
8721.00,1.38
8720.00,1.38
8719.00,1.38
8718.00,1.38
8717.00,1.38
8716.00,1.38
8715.00,1.38
8714.00,1.38
8713.00,1.38
8712.00,1.38
8711.00,1.38
8710.00,1.38
8709.00,1.38
8708.00,1.38
8707.00,1.37
8706.00,1.37
8705.00,1.37
8704.00,1.37
8703.00,1.37
8702.00,1.37
8701.00,1.37
8700.00,1.37
8699.00,1.36
8698.00,1.36
8697.00,1.36
8696.00,1.36
8695.00,1.36
8694.00,1.36
8693.00,1.36
8692.00,1.36
8691.00,1.36
8690.00,1.36
8689.00,1.36
8688.00,1.36
8687.00,1.36
8686.00,1.36
8685.00,1.36
8684.00,1.36
8683.00,1.36
8682.00,1.36
8681.00,1.36
8680.00,1.36
8679.00,1.36
8678.00,1.36
8677.00,1.36
8676.00,1.36
8675.00,1.36
8674.00,1.35
8673.00,1.35
8672.00,1.35
8671.00,1.35
8670.00,1.35
8669.00,1.34
8668.00,1.34
8667.00,1.34
8666.00,1.34
8665.00,1.34
8664.00,1.34
8663.00,1.33
8662.00,1.33
8661.00,1.33
8660.00,1.33
8659.00,1.33
8658.00,1.33
8657.00,1.34
8656.00,1.34
8655.00,1.34
8654.00,1.34
8653.00,1.34
8652.00,1.34
8651.00,1.34
8650.00,1.34
8649.00,1.35
8648.00,1.35
8647.00,1.35
8646.00,1.35
8645.00,1.35
8644.00,1.35
8643.00,1.35
8642.00,1.35
8641.00,1.35
8640.00,1.35
8639.00,1.35
8638.00,1.35
8637.00,1.35
8636.00,1.35
8635.00,1.35
8634.00,1.35
8633.00,1.35
8632.00,1.34
8631.00,1.34
8630.00,1.34
8629.00,1.34
8628.00,1.34
8627.00,1.34
8626.00,1.34
8625.00,1.34
8624.00,1.34
8623.00,1.34
8622.00,1.34
8621.00,1.34
8620.00,1.34
8619.00,1.33
8618.00,1.33
8617.00,1.33
8616.00,1.33
8615.00,1.33
8614.00,1.33
8613.00,1.33
8612.00,1.33
8611.00,1.33
8610.00,1.33
8609.00,1.33
8608.00,1.33
8607.00,1.33
8606.00,1.33
8605.00,1.33
8604.00,1.33
8603.00,1.33
8602.00,1.33
8601.00,1.33
8600.00,1.33
8599.00,1.33
8598.00,1.33
8597.00,1.33
8596.00,1.33
8595.00,1.33
8594.00,1.33
8593.00,1.33
8592.00,1.33
8591.00,1.33
8590.00,1.33
8589.00,1.33
8588.00,1.33
8587.00,1.33
8586.00,1.33
8585.00,1.33
8584.00,1.33
8583.00,1.33
8582.00,1.33
8581.00,1.33
8580.00,1.32
8579.00,1.32
8578.00,1.32
8577.00,1.32
8576.00,1.32
8575.00,1.32
8574.00,1.32
8573.00,1.32
8572.00,1.32
8571.00,1.32
8570.00,1.32
8569.00,1.31
8568.00,1.31
8567.00,1.31
8566.00,1.31
8565.00,1.31
8564.00,1.31
8563.00,1.31
8562.00,1.30
8561.00,1.30
8560.00,1.30
8559.00,1.30
8558.00,1.30
8557.00,1.30
8556.00,1.30
8555.00,1.30
8554.00,1.30
8553.00,1.30
8552.00,1.30
8551.00,1.31
8550.00,1.31
8549.00,1.31
8548.00,1.31
8547.00,1.31
8546.00,1.31
8545.00,1.31
8544.00,1.31
8543.00,1.31
8542.00,1.31
8541.00,1.31
8540.00,1.32
8539.00,1.32
8538.00,1.31
8537.00,1.31
8536.00,1.31
8535.00,1.31
8534.00,1.31
8533.00,1.31
8532.00,1.31
8531.00,1.31
8530.00,1.30
8529.00,1.30
8528.00,1.30
8527.00,1.30
8526.00,1.30
8525.00,1.30
8524.00,1.29
8523.00,1.29
8522.00,1.29
8521.00,1.29
8520.00,1.29
8519.00,1.29
8518.00,1.29
8517.00,1.29
8516.00,1.29
8515.00,1.29
8514.00,1.29
8513.00,1.29
8512.00,1.29
8511.00,1.29
8510.00,1.29
8509.00,1.29
8508.00,1.29
8507.00,1.29
8506.00,1.29
8505.00,1.29
8504.00,1.29
8503.00,1.29
8502.00,1.29
8501.00,1.29
8500.00,1.29
8499.00,1.29
8498.00,1.29
8497.00,1.29
8496.00,1.29
8495.00,1.29
8494.00,1.29
8493.00,1.29
8492.00,1.29
8491.00,1.29
8490.00,1.29
8489.00,1.29
8488.00,1.29
8487.00,1.28
8486.00,1.28
8485.00,1.28
8484.00,1.28
8483.00,1.28
8482.00,1.28
8481.00,1.28
8480.00,1.28
8479.00,1.27
8478.00,1.27
8477.00,1.27
8476.00,1.27
8475.00,1.27
8474.00,1.27
8473.00,1.27
8472.00,1.27
8471.00,1.27
8470.00,1.27
8469.00,1.27
8468.00,1.27
8467.00,1.27
8466.00,1.27
8465.00,1.27
8464.00,1.27
8463.00,1.27
8462.00,1.27
8461.00,1.27
8460.00,1.27
8459.00,1.27
8458.00,1.27
8457.00,1.27
8456.00,1.27
8455.00,1.27
8454.00,1.26
8453.00,1.26
8452.00,1.26
8451.00,1.26
8450.00,1.26
8449.00,1.26
8448.00,1.26
8447.00,1.26
8446.00,1.26
8445.00,1.25
8444.00,1.25
8443.00,1.25
8442.00,1.25
8441.00,1.25
8440.00,1.25
8439.00,1.25
8438.00,1.25
8437.00,1.25
8436.00,1.25
8435.00,1.25
8434.00,1.25
8433.00,1.25
8432.00,1.25
8431.00,1.25
8430.00,1.25
8429.00,1.25
8428.00,1.25
8427.00,1.26
8426.00,1.26
8425.00,1.26
8424.00,1.26
8423.00,1.26
8422.00,1.26
8421.00,1.26
8420.00,1.26
8419.00,1.26
8418.00,1.26
8417.00,1.26
8416.00,1.26
8415.00,1.26
8414.00,1.27
8413.00,1.27
8412.00,1.27
8411.00,1.27
8410.00,1.27
8409.00,1.27
8408.00,1.27
8407.00,1.27
8406.00,1.27
8405.00,1.27
8404.00,1.27
8403.00,1.27
8402.00,1.27
8401.00,1.27
8400.00,1.28
8399.00,1.28
8398.00,1.28
8397.00,1.28
8396.00,1.28
8395.00,1.28
8394.00,1.28
8393.00,1.28
8392.00,1.28
8391.00,1.28
8390.00,1.28
8389.00,1.28
8388.00,1.28
8387.00,1.28
8386.00,1.28
8385.00,1.28
8384.00,1.29
8383.00,1.29
8382.00,1.29
8381.00,1.29
8380.00,1.29
8379.00,1.29
8378.00,1.29
8377.00,1.29
8376.00,1.29
8375.00,1.29
8374.00,1.29
8373.00,1.29
8372.00,1.29
8371.00,1.29
8370.00,1.30
8369.00,1.30
8368.00,1.30
8367.00,1.30
8366.00,1.30
8365.00,1.30
8364.00,1.30
8363.00,1.29
8362.00,1.29
8361.00,1.29
8360.00,1.29
8359.00,1.29
8358.00,1.29
8357.00,1.29
8356.00,1.29
8355.00,1.29
8354.00,1.29
8353.00,1.29
8352.00,1.29
8351.00,1.29
8350.00,1.29
8349.00,1.29
8348.00,1.29
8347.00,1.29
8346.00,1.29
8345.00,1.30
8344.00,1.30
8343.00,1.30
8342.00,1.30
8341.00,1.30
8340.00,1.30
8339.00,1.30
8338.00,1.30
8337.00,1.31
8336.00,1.31
8335.00,1.31
8334.00,1.31
8333.00,1.31
8332.00,1.31
8331.00,1.31
8330.00,1.31
8329.00,1.31
8328.00,1.31
8327.00,1.31
8326.00,1.31
8325.00,1.31
8324.00,1.31
8323.00,1.31
8322.00,1.31
8321.00,1.31
8320.00,1.31
8319.00,1.31
8318.00,1.31
8317.00,1.31
8316.00,1.31
8315.00,1.31
8314.00,1.31
8313.00,1.31
8312.00,1.31
8311.00,1.31
8310.00,1.31
8309.00,1.31
8308.00,1.31
8307.00,1.31
8306.00,1.31
8305.00,1.31
8304.00,1.31
8303.00,1.31
8302.00,1.31
8301.00,1.32
8300.00,1.32
8299.00,1.32
8298.00,1.32
8297.00,1.32
8296.00,1.32
8295.00,1.32
8294.00,1.32
8293.00,1.32
8292.00,1.32
8291.00,1.32
8290.00,1.32
8289.00,1.32
8288.00,1.32
8287.00,1.32
8286.00,1.32
8285.00,1.32
8284.00,1.32
8283.00,1.32
8282.00,1.32
8281.00,1.32
8280.00,1.32
8279.00,1.32
8278.00,1.32
8277.00,1.32
8276.00,1.32
8275.00,1.32
8274.00,1.32
8273.00,1.32
8272.00,1.32
8271.00,1.32
8270.00,1.32
8269.00,1.32
8268.00,1.32
8267.00,1.32
8266.00,1.32
8265.00,1.32
8264.00,1.32
8263.00,1.32
8262.00,1.32
8261.00,1.32
8260.00,1.32
8259.00,1.32
8258.00,1.32
8257.00,1.32
8256.00,1.32
8255.00,1.32
8254.00,1.32
8253.00,1.32
8252.00,1.32
8251.00,1.32
8250.00,1.32
8249.00,1.32
8248.00,1.32
8247.00,1.32
8246.00,1.33
8245.00,1.33
8244.00,1.33
8243.00,1.33
8242.00,1.33
8241.00,1.33
8240.00,1.33
8239.00,1.33
8238.00,1.33
8237.00,1.33
8236.00,1.33
8235.00,1.32
8234.00,1.32
8233.00,1.32
8232.00,1.32
8231.00,1.32
8230.00,1.32
8229.00,1.32
8228.00,1.32
8227.00,1.32
8226.00,1.32
8225.00,1.32
8224.00,1.32
8223.00,1.32
8222.00,1.33
8221.00,1.33
8220.00,1.33
8219.00,1.33
8218.00,1.33
8217.00,1.33
8216.00,1.33
8215.00,1.33
8214.00,1.33
8213.00,1.33
8212.00,1.33
8211.00,1.33
8210.00,1.33
8209.00,1.33
8208.00,1.33
8207.00,1.33
8206.00,1.33
8205.00,1.33
8204.00,1.33
8203.00,1.34
8202.00,1.34
8201.00,1.34
8200.00,1.34
8199.00,1.34
8198.00,1.34
8197.00,1.34
8196.00,1.34
8195.00,1.34
8194.00,1.34
8193.00,1.34
8192.00,1.34
8191.00,1.34
8190.00,1.34
8189.00,1.34
8188.00,1.34
8187.00,1.34
8186.00,1.34
8185.00,1.34
8184.00,1.34
8183.00,1.34
8182.00,1.34
8181.00,1.34
8180.00,1.34
8179.00,1.35
8178.00,1.35
8177.00,1.35
8176.00,1.35
8175.00,1.35
8174.00,1.35
8173.00,1.35
8172.00,1.35
8171.00,1.35
8170.00,1.35
8169.00,1.35
8168.00,1.35
8167.00,1.35
8166.00,1.35
8165.00,1.35
8164.00,1.35
8163.00,1.35
8162.00,1.35
8161.00,1.35
8160.00,1.35
8159.00,1.35
8158.00,1.35
8157.00,1.35
8156.00,1.35
8155.00,1.35
8154.00,1.35
8153.00,1.35
8152.00,1.35
8151.00,1.35
8150.00,1.35
8149.00,1.35
8148.00,1.35
8147.00,1.35
8146.00,1.35
8145.00,1.35
8144.00,1.35
8143.00,1.35
8142.00,1.35
8141.00,1.35
8140.00,1.35
8139.00,1.35
8138.00,1.35
8137.00,1.35
8136.00,1.35
8135.00,1.35
8134.00,1.36
8133.00,1.36
8132.00,1.36
8131.00,1.36
8130.00,1.36
8129.00,1.35
8128.00,1.35
8127.00,1.35
8126.00,1.35
8125.00,1.35
8124.00,1.35
8123.00,1.35
8122.00,1.35
8121.00,1.35
8120.00,1.35
8119.00,1.35
8118.00,1.35
8117.00,1.35
8116.00,1.35
8115.00,1.35
8114.00,1.35
8113.00,1.35
8112.00,1.35
8111.00,1.35
8110.00,1.36
8109.00,1.36
8108.00,1.36
8107.00,1.36
8106.00,1.36
8105.00,1.36
8104.00,1.36
8103.00,1.36
8102.00,1.36
8101.00,1.36
8100.00,1.37
8099.00,1.37
8098.00,1.37
8097.00,1.37
8096.00,1.37
8095.00,1.37
8094.00,1.37
8093.00,1.37
8092.00,1.37
8091.00,1.37
8090.00,1.37
8089.00,1.37
8088.00,1.37
8087.00,1.37
8086.00,1.37
8085.00,1.37
8084.00,1.37
8083.00,1.37
8082.00,1.37
8081.00,1.37
8080.00,1.37
8079.00,1.37
8078.00,1.37
8077.00,1.37
8076.00,1.37
8075.00,1.37
8074.00,1.38
8073.00,1.38
8072.00,1.38
8071.00,1.38
8070.00,1.38
8069.00,1.38
8068.00,1.38
8067.00,1.38
8066.00,1.38
8065.00,1.38
8064.00,1.38
8063.00,1.38
8062.00,1.38
8061.00,1.38
8060.00,1.38
8059.00,1.38
8058.00,1.38
8057.00,1.38
8056.00,1.38
8055.00,1.38
8054.00,1.38
8053.00,1.38
8052.00,1.38
8051.00,1.38
8050.00,1.38
8049.00,1.38
8048.00,1.38
8047.00,1.38
8046.00,1.39
8045.00,1.39
8044.00,1.39
8043.00,1.39
8042.00,1.39
8041.00,1.39
8040.00,1.39
8039.00,1.40
8038.00,1.40
8037.00,1.40
8036.00,1.40
8035.00,1.40
8034.00,1.40
8033.00,1.40
8032.00,1.40
8031.00,1.40
8030.00,1.40
8029.00,1.40
8028.00,1.40
8027.00,1.40
8026.00,1.40
8025.00,1.40
8024.00,1.40
8023.00,1.40
8022.00,1.40
8021.00,1.40
8020.00,1.39
8019.00,1.39
8018.00,1.39
8017.00,1.39
8016.00,1.39
8015.00,1.39
8014.00,1.39
8013.00,1.39
8012.00,1.39
8011.00,1.39
8010.00,1.39
8009.00,1.39
8008.00,1.39
8007.00,1.40
8006.00,1.40
8005.00,1.40
8004.00,1.40
8003.00,1.40
8002.00,1.40
8001.00,1.40
8000.00,1.40
7999.00,1.40
7998.00,1.40
7997.00,1.40
7996.00,1.40
7995.00,1.40
7994.00,1.40
7993.00,1.40
7992.00,1.40
7991.00,1.40
7990.00,1.40
7989.00,1.40
7988.00,1.40
7987.00,1.40
7986.00,1.40
7985.00,1.40
7984.00,1.40
7983.00,1.40
7982.00,1.40
7981.00,1.40
7980.00,1.40
7979.00,1.40
7978.00,1.40
7977.00,1.40
7976.00,1.40
7975.00,1.41
7974.00,1.41
7973.00,1.41
7972.00,1.41
7971.00,1.41
7970.00,1.41
7969.00,1.41
7968.00,1.41
7967.00,1.41
7966.00,1.40
7965.00,1.40
7964.00,1.40
7963.00,1.40
7962.00,1.40
7961.00,1.41
7960.00,1.41
7959.00,1.41
7958.00,1.41
7957.00,1.41
7956.00,1.41
7955.00,1.41
7954.00,1.41
7953.00,1.41
7952.00,1.41
7951.00,1.41
7950.00,1.41
7949.00,1.41
7948.00,1.41
7947.00,1.41
7946.00,1.42
7945.00,1.42
7944.00,1.42
7943.00,1.41
7942.00,1.41
7941.00,1.41
7940.00,1.41
7939.00,1.41
7938.00,1.41
7937.00,1.41
7936.00,1.41
7935.00,1.41
7934.00,1.41
7933.00,1.41
7932.00,1.41
7931.00,1.41
7930.00,1.41
7929.00,1.41
7928.00,1.41
7927.00,1.41
7926.00,1.41
7925.00,1.41
7924.00,1.41
7923.00,1.41
7922.00,1.41
7921.00,1.41
7920.00,1.41
7919.00,1.41
7918.00,1.41
7917.00,1.40
7916.00,1.40
7915.00,1.40
7914.00,1.40
7913.00,1.40
7912.00,1.41
7911.00,1.41
7910.00,1.41
7909.00,1.41
7908.00,1.41
7907.00,1.41
7906.00,1.41
7905.00,1.41
7904.00,1.41
7903.00,1.41
7902.00,1.41
7901.00,1.41
7900.00,1.42
7899.00,1.42
7898.00,1.42
7897.00,1.42
7896.00,1.42
7895.00,1.42
7894.00,1.42
7893.00,1.42
7892.00,1.42
7891.00,1.42
7890.00,1.42
7889.00,1.42
7888.00,1.42
7887.00,1.42
7886.00,1.42
7885.00,1.42
7884.00,1.42
7883.00,1.42
7882.00,1.42
7881.00,1.42
7880.00,1.42
7879.00,1.42
7878.00,1.42
7877.00,1.42
7876.00,1.42
7875.00,1.42
7874.00,1.42
7873.00,1.43
7872.00,1.43
7871.00,1.43
7870.00,1.43
7869.00,1.43
7868.00,1.43
7867.00,1.43
7866.00,1.43
7865.00,1.43
7864.00,1.43
7863.00,1.43
7862.00,1.43
7861.00,1.42
7860.00,1.42
7859.00,1.42
7858.00,1.42
7857.00,1.42
7856.00,1.42
7855.00,1.42
7854.00,1.42
7853.00,1.42
7852.00,1.42
7851.00,1.42
7850.00,1.42
7849.00,1.42
7848.00,1.42
7847.00,1.42
7846.00,1.42
7845.00,1.42
7844.00,1.43
7843.00,1.43
7842.00,1.43
7841.00,1.43
7840.00,1.43
7839.00,1.43
7838.00,1.43
7837.00,1.43
7836.00,1.43
7835.00,1.43
7834.00,1.43
7833.00,1.43
7832.00,1.43
7831.00,1.43
7830.00,1.43
7829.00,1.43
7828.00,1.43
7827.00,1.43
7826.00,1.43
7825.00,1.43
7824.00,1.43
7823.00,1.43
7822.00,1.43
7821.00,1.43
7820.00,1.43
7819.00,1.43
7818.00,1.43
7817.00,1.43
7816.00,1.43
7815.00,1.43
7814.00,1.43
7813.00,1.43
7812.00,1.43
7811.00,1.43
7810.00,1.43
7809.00,1.43
7808.00,1.43
7807.00,1.43
7806.00,1.43
7805.00,1.43
7804.00,1.43
7803.00,1.43
7802.00,1.43
7801.00,1.43
7800.00,1.43
7799.00,1.43
7798.00,1.43
7797.00,1.43
7796.00,1.44
7795.00,1.44
7794.00,1.44
7793.00,1.44
7792.00,1.44
7791.00,1.44
7790.00,1.44
7789.00,1.44
7788.00,1.43
7787.00,1.43
7786.00,1.43
7785.00,1.43
7784.00,1.43
7783.00,1.43
7782.00,1.43
7781.00,1.43
7780.00,1.43
7779.00,1.43
7778.00,1.43
7777.00,1.43
7776.00,1.43
7775.00,1.43
7774.00,1.43
7773.00,1.43
7772.00,1.43
7771.00,1.43
7770.00,1.43
7769.00,1.43
7768.00,1.43
7767.00,1.43
7766.00,1.43
7765.00,1.43
7764.00,1.43
7763.00,1.43
7762.00,1.43
7761.00,1.43
7760.00,1.43
7759.00,1.43
7758.00,1.43
7757.00,1.43
7756.00,1.43
7755.00,1.43
7754.00,1.43
7753.00,1.43
7752.00,1.43
7751.00,1.43
7750.00,1.43
7749.00,1.43
7748.00,1.43
7747.00,1.43
7746.00,1.43
7745.00,1.44
7744.00,1.44
7743.00,1.44
7742.00,1.44
7741.00,1.44
7740.00,1.44
7739.00,1.44
7738.00,1.43
7737.00,1.43
7736.00,1.43
7735.00,1.43
7734.00,1.43
7733.00,1.44
7732.00,1.44
7731.00,1.44
7730.00,1.44
7729.00,1.44
7728.00,1.44
7727.00,1.44
7726.00,1.44
7725.00,1.44
7724.00,1.44
7723.00,1.44
7722.00,1.44
7721.00,1.44
7720.00,1.44
7719.00,1.44
7718.00,1.44
7717.00,1.44
7716.00,1.44
7715.00,1.44
7714.00,1.44
7713.00,1.44
7712.00,1.44
7711.00,1.44
7710.00,1.44
7709.00,1.44
7708.00,1.44
7707.00,1.44
7706.00,1.44
7705.00,1.44
7704.00,1.44
7703.00,1.44
7702.00,1.44
7701.00,1.44
7700.00,1.44
7699.00,1.44
7698.00,1.44
7697.00,1.44
7696.00,1.44
7695.00,1.44
7694.00,1.44
7693.00,1.44
7692.00,1.44
7691.00,1.44
7690.00,1.44
7689.00,1.44
7688.00,1.44
7687.00,1.44
7686.00,1.44
7685.00,1.44
7684.00,1.44
7683.00,1.44
7682.00,1.44
7681.00,1.44
7680.00,1.44
7679.00,1.45
7678.00,1.45
7677.00,1.45
7676.00,1.45
7675.00,1.45
7674.00,1.45
7673.00,1.45
7672.00,1.45
7671.00,1.45
7670.00,1.45
7669.00,1.45
7668.00,1.45
7667.00,1.45
7666.00,1.45
7665.00,1.45
7664.00,1.44
7663.00,1.44
7662.00,1.44
7661.00,1.44
7660.00,1.44
7659.00,1.44
7658.00,1.44
7657.00,1.44
7656.00,1.44
7655.00,1.44
7654.00,1.44
7653.00,1.44
7652.00,1.44
7651.00,1.44
7650.00,1.44
7649.00,1.44
7648.00,1.44
7647.00,1.44
7646.00,1.44
7645.00,1.44
7644.00,1.44
7643.00,1.44
7642.00,1.44
7641.00,1.44
7640.00,1.44
7639.00,1.44
7638.00,1.44
7637.00,1.44
7636.00,1.44
7635.00,1.44
7634.00,1.44
7633.00,1.44
7632.00,1.44
7631.00,1.44
7630.00,1.44
7629.00,1.44
7628.00,1.44
7627.00,1.44
7626.00,1.44
7625.00,1.44
7624.00,1.44
7623.00,1.44
7622.00,1.43
7621.00,1.43
7620.00,1.43
7619.00,1.43
7618.00,1.43
7617.00,1.43
7616.00,1.43
7615.00,1.43
7614.00,1.43
7613.00,1.43
7612.00,1.43
7611.00,1.43
7610.00,1.43
7609.00,1.44
7608.00,1.44
7607.00,1.44
7606.00,1.44
7605.00,1.44
7604.00,1.44
7603.00,1.44
7602.00,1.44
7601.00,1.44
7600.00,1.44
7599.00,1.44
7598.00,1.44
7597.00,1.44
7596.00,1.44
7595.00,1.44
7594.00,1.44
7593.00,1.44
7592.00,1.44
7591.00,1.44
7590.00,1.44
7589.00,1.44
7588.00,1.44
7587.00,1.44
7586.00,1.44
7585.00,1.44
7584.00,1.44
7583.00,1.44
7582.00,1.44
7581.00,1.44
7580.00,1.44
7579.00,1.44
7578.00,1.44
7577.00,1.44
7576.00,1.44
7575.00,1.44
7574.00,1.44
7573.00,1.44
7572.00,1.44
7571.00,1.44
7570.00,1.44
7569.00,1.44
7568.00,1.44
7567.00,1.44
7566.00,1.44
7565.00,1.44
7564.00,1.44
7563.00,1.44
7562.00,1.44
7561.00,1.44
7560.00,1.44
7559.00,1.44
7558.00,1.44
7557.00,1.44
7556.00,1.44
7555.00,1.43
7554.00,1.43
7553.00,1.43
7552.00,1.43
7551.00,1.43
7550.00,1.43
7549.00,1.43
7548.00,1.43
7547.00,1.43
7546.00,1.43
7545.00,1.43
7544.00,1.42
7543.00,1.42
7542.00,1.42
7541.00,1.42
7540.00,1.42
7539.00,1.42
7538.00,1.42
7537.00,1.42
7536.00,1.42
7535.00,1.42
7534.00,1.42
7533.00,1.42
7532.00,1.42
7531.00,1.42
7530.00,1.42
7529.00,1.42
7528.00,1.42
7527.00,1.42
7526.00,1.42
7525.00,1.42
7524.00,1.42
7523.00,1.42
7522.00,1.42
7521.00,1.42
7520.00,1.42
7519.00,1.42
7518.00,1.42
7517.00,1.42
7516.00,1.42
7515.00,1.42
7514.00,1.42
7513.00,1.41
7512.00,1.41
7511.00,1.41
7510.00,1.41
7509.00,1.41
7508.00,1.41
7507.00,1.41
7506.00,1.41
7505.00,1.41
7504.00,1.41
7503.00,1.41
7502.00,1.41
7501.00,1.41
7500.00,1.41
7499.00,1.41
7498.00,1.41
7497.00,1.41
7496.00,1.41
7495.00,1.41
7494.00,1.41
7493.00,1.41
7492.00,1.41
7491.00,1.41
7490.00,1.41
7489.00,1.41
7488.00,1.41
7487.00,1.41
7486.00,1.41
7485.00,1.40
7484.00,1.40
7483.00,1.40
7482.00,1.40
7481.00,1.40
7480.00,1.40
7479.00,1.40
7478.00,1.40
7477.00,1.40
7476.00,1.40
7475.00,1.40
7474.00,1.40
7473.00,1.40
7472.00,1.40
7471.00,1.40
7470.00,1.40
7469.00,1.40
7468.00,1.40
7467.00,1.40
7466.00,1.40
7465.00,1.40
7464.00,1.39
7463.00,1.39
7462.00,1.39
7461.00,1.39
7460.00,1.39
7459.00,1.39
7458.00,1.39
7457.00,1.39
7456.00,1.39
7455.00,1.39
7454.00,1.39
7453.00,1.39
7452.00,1.39
7451.00,1.39
7450.00,1.39
7449.00,1.39
7448.00,1.39
7447.00,1.39
7446.00,1.39
7445.00,1.39
7444.00,1.39
7443.00,1.39
7442.00,1.39
7441.00,1.39
7440.00,1.39
7439.00,1.39
7438.00,1.39
7437.00,1.39
7436.00,1.39
7435.00,1.39
7434.00,1.39
7433.00,1.38
7432.00,1.38
7431.00,1.38
7430.00,1.38
7429.00,1.38
7428.00,1.38
7427.00,1.37
7426.00,1.37
7425.00,1.37
7424.00,1.37
7423.00,1.37
7422.00,1.36
7421.00,1.36
7420.00,1.36
7419.00,1.36
7418.00,1.36
7417.00,1.35
7416.00,1.35
7415.00,1.35
7414.00,1.35
7413.00,1.35
7412.00,1.35
7411.00,1.35
7410.00,1.35
7409.00,1.34
7408.00,1.34
7407.00,1.34
7406.00,1.34
7405.00,1.34
7404.00,1.34
7403.00,1.34
7402.00,1.34
7401.00,1.34
7400.00,1.34
7399.00,1.34
7398.00,1.34
7397.00,1.34
7396.00,1.34
7395.00,1.34
7394.00,1.34
7393.00,1.34
7392.00,1.33
7391.00,1.33
7390.00,1.33
7389.00,1.33
7388.00,1.33
7387.00,1.33
7386.00,1.33
7385.00,1.33
7384.00,1.33
7383.00,1.33
7382.00,1.33
7381.00,1.33
7380.00,1.33
7379.00,1.33
7378.00,1.33
7377.00,1.33
7376.00,1.32
7375.00,1.32
7374.00,1.32
7373.00,1.32
7372.00,1.32
7371.00,1.32
7370.00,1.32
7369.00,1.32
7368.00,1.32
7367.00,1.31
7366.00,1.31
7365.00,1.31
7364.00,1.31
7363.00,1.31
7362.00,1.31
7361.00,1.31
7360.00,1.30
7359.00,1.30
7358.00,1.30
7357.00,1.30
7356.00,1.30
7355.00,1.30
7354.00,1.30
7353.00,1.30
7352.00,1.29
7351.00,1.29
7350.00,1.29
7349.00,1.29
7348.00,1.29
7347.00,1.29
7346.00,1.29
7345.00,1.29
7344.00,1.29
7343.00,1.29
7342.00,1.29
7341.00,1.29
7340.00,1.29
7339.00,1.30
7338.00,1.30
7337.00,1.30
7336.00,1.30
7335.00,1.30
7334.00,1.30
7333.00,1.30
7332.00,1.30
7331.00,1.30
7330.00,1.30
7329.00,1.29
7328.00,1.29
7327.00,1.29
7326.00,1.29
7325.00,1.29
7324.00,1.29
7323.00,1.29
7322.00,1.29
7321.00,1.29
7320.00,1.29
7319.00,1.28
7318.00,1.28
7317.00,1.28
7316.00,1.28
7315.00,1.28
7314.00,1.28
7313.00,1.28
7312.00,1.28
7311.00,1.28
7310.00,1.28
7309.00,1.28
7308.00,1.28
7307.00,1.28
7306.00,1.28
7305.00,1.28
7304.00,1.28
7303.00,1.28
7302.00,1.28
7301.00,1.28
7300.00,1.27
7299.00,1.27
7298.00,1.27
7297.00,1.27
7296.00,1.27
7295.00,1.27
7294.00,1.27
7293.00,1.27
7292.00,1.27
7291.00,1.27
7290.00,1.27
7289.00,1.27
7288.00,1.27
7287.00,1.26
7286.00,1.26
7285.00,1.26
7284.00,1.26
7283.00,1.26
7282.00,1.26
7281.00,1.26
7280.00,1.26
7279.00,1.26
7278.00,1.26
7277.00,1.26
7276.00,1.25
7275.00,1.25
7274.00,1.25
7273.00,1.25
7272.00,1.25
7271.00,1.25
7270.00,1.25
7269.00,1.25
7268.00,1.24
7267.00,1.24
7266.00,1.24
7265.00,1.24
7264.00,1.24
7263.00,1.24
7262.00,1.24
7261.00,1.24
7260.00,1.24
7259.00,1.24
7258.00,1.24
7257.00,1.23
7256.00,1.23
7255.00,1.23
7254.00,1.23
7253.00,1.22
7252.00,1.22
7251.00,1.22
7250.00,1.21
7249.00,1.21
7248.00,1.21
7247.00,1.20
7246.00,1.20
7245.00,1.19
7244.00,1.19
7243.00,1.18
7242.00,1.18
7241.00,1.17
7240.00,1.17
7239.00,1.17
7238.00,1.16
7237.00,1.16
7236.00,1.15
7235.00,1.15
7234.00,1.15
7233.00,1.14
7232.00,1.14
7231.00,1.14
7230.00,1.13
7229.00,1.13
7228.00,1.13
7227.00,1.13
7226.00,1.12
7225.00,1.12
7224.00,1.12
7223.00,1.12
7222.00,1.11
7221.00,1.11
7220.00,1.11
7219.00,1.11
7218.00,1.10
7217.00,1.10
7216.00,1.10
7215.00,1.09
7214.00,1.09
7213.00,1.09
7212.00,1.08
7211.00,1.08
7210.00,1.08
7209.00,1.07
7208.00,1.07
7207.00,1.07
7206.00,1.06
7205.00,1.06
7204.00,1.06
7203.00,1.05
7202.00,1.05
7201.00,1.05
7200.00,1.04
7199.00,1.04
7198.00,1.04
7197.00,1.03
7196.00,1.03
7195.00,1.03
7194.00,1.02
7193.00,1.02
7192.00,1.02
7191.00,1.01
7190.00,1.01
7189.00,1.01
7188.00,1.00
7187.00,1.00
7186.00,1.00
7185.00,0.99
7184.00,0.99
7183.00,0.98
7182.00,0.98
7181.00,0.98
7180.00,0.97
7179.00,0.97
7178.00,0.96
7177.00,0.96
7176.00,0.96
7175.00,0.95
7174.00,0.95
7173.00,0.95
7172.00,0.94
7171.00,0.94
7170.00,0.94
7169.00,0.93
7168.00,0.93
7167.00,0.93
7166.00,0.92
7165.00,0.92
7164.00,0.92
7163.00,0.91
7162.00,0.91
7161.00,0.91
7160.00,0.91
7159.00,0.91
7158.00,0.90
7157.00,0.90
7156.00,0.90
7155.00,0.90
7154.00,0.90
7153.00,0.90
7152.00,0.90
7151.00,0.89
7150.00,0.89
7149.00,0.89
7148.00,0.89
7147.00,0.89
7146.00,0.88
7145.00,0.88
7144.00,0.88
7143.00,0.87
7142.00,0.87
7141.00,0.87
7140.00,0.86
7139.00,0.86
7138.00,0.86
7137.00,0.85
7136.00,0.85
7135.00,0.85
7134.00,0.84
7133.00,0.84
7132.00,0.84
7131.00,0.83
7130.00,0.83
7129.00,0.83
7128.00,0.82
7127.00,0.82
7126.00,0.82
7125.00,0.81
7124.00,0.81
7123.00,0.81
7122.00,0.80
7121.00,0.80
7120.00,0.80
7119.00,0.80
7118.00,0.79
7117.00,0.79
7116.00,0.79
7115.00,0.78
7114.00,0.78
7113.00,0.78
7112.00,0.78
7111.00,0.77
7110.00,0.77
7109.00,0.77
7108.00,0.77
7107.00,0.76
7106.00,0.76
7105.00,0.76
7104.00,0.76
7103.00,0.76
7102.00,0.75
7101.00,0.75
7100.00,0.75
7099.00,0.75
7098.00,0.74
7097.00,0.74
7096.00,0.74
7095.00,0.74
7094.00,0.73
7093.00,0.73
7092.00,0.73
7091.00,0.73
7090.00,0.72
7089.00,0.72
7088.00,0.72
7087.00,0.72
7086.00,0.72
7085.00,0.71
7084.00,0.71
7083.00,0.71
7082.00,0.71
7081.00,0.71
7080.00,0.70
7079.00,0.70
7078.00,0.70
7077.00,0.70
7076.00,0.70
7075.00,0.69
7074.00,0.69
7073.00,0.69
7072.00,0.69
7071.00,0.69
7070.00,0.69
7069.00,0.68
7068.00,0.68
7067.00,0.68
7066.00,0.68
7065.00,0.68
7064.00,0.68
7063.00,0.68
7062.00,0.68
7061.00,0.68
7060.00,0.68
7059.00,0.68
7058.00,0.68
7057.00,0.68
7056.00,0.68
7055.00,0.68
7054.00,0.68
7053.00,0.68
7052.00,0.67
7051.00,0.67
7050.00,0.67
7049.00,0.67
7048.00,0.67
7047.00,0.67
7046.00,0.67
7045.00,0.67
7044.00,0.67
7043.00,0.66
7042.00,0.66
7041.00,0.66
7040.00,0.66
7039.00,0.66
7038.00,0.66
7037.00,0.66
7036.00,0.66
7035.00,0.65
7034.00,0.65
7033.00,0.65
7032.00,0.65
7031.00,0.65
7030.00,0.65
7029.00,0.64
7028.00,0.64
7027.00,0.64
7026.00,0.64
7025.00,0.64
7024.00,0.63
7023.00,0.63
7022.00,0.63
7021.00,0.63
7020.00,0.63
7019.00,0.63
7018.00,0.63
7017.00,0.63
7016.00,0.63
7015.00,0.63
7014.00,0.62
7013.00,0.62
7012.00,0.62
7011.00,0.62
7010.00,0.62
7009.00,0.62
7008.00,0.62
7007.00,0.62
7006.00,0.62
7005.00,0.62
7004.00,0.62
7003.00,0.62
7002.00,0.62
7001.00,0.62
7000.00,0.62
6999.00,0.62
6998.00,0.62
6997.00,0.62
6996.00,0.62
6995.00,0.62
6994.00,0.61
6993.00,0.61
6992.00,0.61
6991.00,0.61
6990.00,0.61
6989.00,0.61
6988.00,0.61
6987.00,0.61
6986.00,0.61
6985.00,0.61
6984.00,0.61
6983.00,0.61
6982.00,0.60
6981.00,0.60
6980.00,0.60
6979.00,0.60
6978.00,0.60
6977.00,0.60
6976.00,0.60
6975.00,0.60
6974.00,0.60
6973.00,0.60
6972.00,0.60
6971.00,0.60
6970.00,0.60
6969.00,0.59
6968.00,0.59
6967.00,0.59
6966.00,0.59
6965.00,0.59
6964.00,0.59
6963.00,0.59
6962.00,0.59
6961.00,0.59
6960.00,0.59
6959.00,0.59
6958.00,0.60
6957.00,0.60
6956.00,0.60
6955.00,0.60
6954.00,0.60
6953.00,0.60
6952.00,0.60
6951.00,0.60
6950.00,0.60
6949.00,0.60
6948.00,0.60
6947.00,0.60
6946.00,0.60
6945.00,0.60
6944.00,0.60
6943.00,0.60
6942.00,0.60
6941.00,0.60
6940.00,0.60
6939.00,0.60
6938.00,0.60
6937.00,0.60
6936.00,0.60
6935.00,0.59
6934.00,0.59
6933.00,0.59
6932.00,0.59
6931.00,0.59
6930.00,0.59
6929.00,0.59
6928.00,0.59
6927.00,0.59
6926.00,0.59
6925.00,0.59
6924.00,0.59
6923.00,0.58
6922.00,0.58
6921.00,0.58
6920.00,0.58
6919.00,0.58
6918.00,0.58
6917.00,0.58
6916.00,0.58
6915.00,0.58
6914.00,0.58
6913.00,0.58
6912.00,0.58
6911.00,0.58
6910.00,0.59
6909.00,0.59
6908.00,0.59
6907.00,0.59
6906.00,0.59
6905.00,0.59
6904.00,0.59
6903.00,0.59
6902.00,0.59
6901.00,0.59
6900.00,0.59
6899.00,0.59
6898.00,0.59
6897.00,0.59
6896.00,0.58
6895.00,0.58
6894.00,0.58
6893.00,0.58
6892.00,0.58
6891.00,0.58
6890.00,0.58
6889.00,0.58
6888.00,0.58
6887.00,0.58
6886.00,0.58
6885.00,0.58
6884.00,0.58
6883.00,0.58
6882.00,0.58
6881.00,0.58
6880.00,0.58
6879.00,0.58
6878.00,0.58
6877.00,0.58
6876.00,0.58
6875.00,0.58
6874.00,0.58
6873.00,0.58
6872.00,0.58
6871.00,0.58
6870.00,0.58
6869.00,0.58
6868.00,0.58
6867.00,0.58
6866.00,0.58
6865.00,0.58
6864.00,0.58
6863.00,0.58
6862.00,0.58
6861.00,0.58
6860.00,0.58
6859.00,0.58
6858.00,0.58
6857.00,0.58
6856.00,0.59
6855.00,0.59
6854.00,0.59
6853.00,0.59
6852.00,0.59
6851.00,0.59
6850.00,0.59
6849.00,0.59
6848.00,0.59
6847.00,0.59
6846.00,0.59
6845.00,0.59
6844.00,0.59
6843.00,0.59
6842.00,0.59
6841.00,0.59
6840.00,0.59
6839.00,0.59
6838.00,0.59
6837.00,0.59
6836.00,0.59
6835.00,0.59
6834.00,0.59
6833.00,0.59
6832.00,0.59
6831.00,0.59
6830.00,0.59
6829.00,0.59
6828.00,0.59
6827.00,0.59
6826.00,0.59
6825.00,0.59
6824.00,0.59
6823.00,0.59
6822.00,0.59
6821.00,0.59
6820.00,0.60
6819.00,0.60
6818.00,0.60
6817.00,0.60
6816.00,0.60
6815.00,0.60
6814.00,0.60
6813.00,0.60
6812.00,0.60
6811.00,0.60
6810.00,0.60
6809.00,0.60
6808.00,0.60
6807.00,0.60
6806.00,0.60
6805.00,0.60
6804.00,0.60
6803.00,0.60
6802.00,0.60
6801.00,0.60
6800.00,0.60
6799.00,0.60
6798.00,0.60
6797.00,0.60
6796.00,0.60
6795.00,0.60
6794.00,0.60
6793.00,0.60
6792.00,0.60
6791.00,0.60
6790.00,0.60
6789.00,0.61
6788.00,0.61
6787.00,0.61
6786.00,0.61
6785.00,0.61
6784.00,0.61
6783.00,0.61
6782.00,0.61
6781.00,0.61
6780.00,0.61
6779.00,0.61
6778.00,0.61
6777.00,0.61
6776.00,0.62
6775.00,0.62
6774.00,0.62
6773.00,0.62
6772.00,0.62
6771.00,0.62
6770.00,0.62
6769.00,0.62
6768.00,0.62
6767.00,0.62
6766.00,0.62
6765.00,0.62
6764.00,0.62
6763.00,0.63
6762.00,0.63
6761.00,0.63
6760.00,0.63
6759.00,0.63
6758.00,0.63
6757.00,0.63
6756.00,0.63
6755.00,0.63
6754.00,0.63
6753.00,0.63
6752.00,0.63
6751.00,0.63
6750.00,0.63
6749.00,0.63
6748.00,0.64
6747.00,0.64
6746.00,0.64
6745.00,0.64
6744.00,0.64
6743.00,0.64
6742.00,0.64
6741.00,0.64
6740.00,0.64
6739.00,0.64
6738.00,0.64
6737.00,0.64
6736.00,0.64
6735.00,0.64
6734.00,0.64
6733.00,0.64
6732.00,0.64
6731.00,0.64
6730.00,0.64
6729.00,0.64
6728.00,0.64
6727.00,0.64
6726.00,0.64
6725.00,0.64
6724.00,0.65
6723.00,0.65
6722.00,0.65
6721.00,0.65
6720.00,0.65
6719.00,0.65
6718.00,0.65
6717.00,0.65
6716.00,0.65
6715.00,0.65
6714.00,0.65
6713.00,0.65
6712.00,0.66
6711.00,0.66
6710.00,0.66
6709.00,0.66
6708.00,0.66
6707.00,0.66
6706.00,0.66
6705.00,0.66
6704.00,0.66
6703.00,0.66
6702.00,0.67
6701.00,0.67
6700.00,0.67
6699.00,0.67
6698.00,0.67
6697.00,0.67
6696.00,0.67
6695.00,0.67
6694.00,0.67
6693.00,0.68
6692.00,0.68
6691.00,0.68
6690.00,0.68
6689.00,0.68
6688.00,0.68
6687.00,0.68
6686.00,0.68
6685.00,0.69
6684.00,0.69
6683.00,0.69
6682.00,0.69
6681.00,0.69
6680.00,0.69
6679.00,0.69
6678.00,0.69
6677.00,0.69
6676.00,0.70
6675.00,0.70
6674.00,0.70
6673.00,0.70
6672.00,0.70
6671.00,0.70
6670.00,0.70
6669.00,0.70
6668.00,0.70
6667.00,0.70
6666.00,0.70
6665.00,0.70
6664.00,0.70
6663.00,0.70
6662.00,0.70
6661.00,0.71
6660.00,0.71
6659.00,0.71
6658.00,0.71
6657.00,0.71
6656.00,0.71
6655.00,0.71
6654.00,0.71
6653.00,0.71
6652.00,0.71
6651.00,0.72
6650.00,0.72
6649.00,0.72
6648.00,0.72
6647.00,0.72
6646.00,0.72
6645.00,0.72
6644.00,0.72
6643.00,0.72
6642.00,0.73
6641.00,0.73
6640.00,0.73
6639.00,0.73
6638.00,0.73
6637.00,0.73
6636.00,0.73
6635.00,0.73
6634.00,0.73
6633.00,0.73
6632.00,0.73
6631.00,0.73
6630.00,0.74
6629.00,0.74
6628.00,0.74
6627.00,0.74
6626.00,0.74
6625.00,0.74
6624.00,0.74
6623.00,0.75
6622.00,0.75
6621.00,0.75
6620.00,0.75
6619.00,0.75
6618.00,0.75
6617.00,0.75
6616.00,0.76
6615.00,0.76
6614.00,0.76
6613.00,0.76
6612.00,0.76
6611.00,0.76
6610.00,0.76
6609.00,0.76
6608.00,0.76
6607.00,0.76
6606.00,0.76
6605.00,0.76
6604.00,0.76
6603.00,0.76
6602.00,0.76
6601.00,0.76
6600.00,0.76
6599.00,0.77
6598.00,0.77
6597.00,0.77
6596.00,0.77
6595.00,0.77
6594.00,0.77
6593.00,0.77
6592.00,0.77
6591.00,0.78
6590.00,0.78
6589.00,0.78
6588.00,0.78
6587.00,0.78
6586.00,0.78
6585.00,0.78
6584.00,0.79
6583.00,0.79
6582.00,0.79
6581.00,0.79
6580.00,0.79
6579.00,0.79
6578.00,0.79
6577.00,0.79
6576.00,0.79
6575.00,0.79
6574.00,0.80
6573.00,0.80
6572.00,0.80
6571.00,0.80
6570.00,0.80
6569.00,0.80
6568.00,0.80
6567.00,0.80
6566.00,0.80
6565.00,0.81
6564.00,0.81
6563.00,0.81
6562.00,0.81
6561.00,0.81
6560.00,0.81
6559.00,0.81
6558.00,0.81
6557.00,0.81
6556.00,0.82
6555.00,0.82
6554.00,0.82
6553.00,0.82
6552.00,0.82
6551.00,0.82
6550.00,0.82
6549.00,0.82
6548.00,0.82
6547.00,0.82
6546.00,0.82
6545.00,0.82
6544.00,0.82
6543.00,0.82
6542.00,0.82
6541.00,0.83
6540.00,0.83
6539.00,0.83
6538.00,0.83
6537.00,0.83
6536.00,0.83
6535.00,0.83
6534.00,0.83
6533.00,0.83
6532.00,0.84
6531.00,0.84
6530.00,0.84
6529.00,0.84
6528.00,0.84
6527.00,0.84
6526.00,0.85
6525.00,0.85
6524.00,0.85
6523.00,0.85
6522.00,0.85
6521.00,0.85
6520.00,0.85
6519.00,0.85
6518.00,0.85
6517.00,0.86
6516.00,0.86
6515.00,0.86
6514.00,0.86
6513.00,0.86
6512.00,0.86
6511.00,0.86
6510.00,0.86
6509.00,0.86
6508.00,0.86
6507.00,0.86
6506.00,0.86
6505.00,0.87
6504.00,0.87
6503.00,0.87
6502.00,0.87
6501.00,0.87
6500.00,0.87
6499.00,0.87
6498.00,0.87
6497.00,0.87
6496.00,0.87
6495.00,0.87
6494.00,0.88
6493.00,0.88
6492.00,0.88
6491.00,0.88
6490.00,0.88
6489.00,0.88
6488.00,0.88
6487.00,0.88
6486.00,0.88
6485.00,0.88
6484.00,0.88
6483.00,0.89
6482.00,0.89
6481.00,0.89
6480.00,0.89
6479.00,0.89
6478.00,0.89
6477.00,0.89
6476.00,0.89
6475.00,0.89
6474.00,0.89
6473.00,0.90
6472.00,0.90
6471.00,0.90
6470.00,0.90
6469.00,0.90
6468.00,0.90
6467.00,0.90
6466.00,0.90
6465.00,0.90
6464.00,0.90
6463.00,0.90
6462.00,0.90
6461.00,0.90
6460.00,0.90
6459.00,0.90
6458.00,0.90
6457.00,0.90
6456.00,0.90
6455.00,0.90
6454.00,0.90
6453.00,0.90
6452.00,0.90
6451.00,0.90
6450.00,0.91
6449.00,0.91
6448.00,0.91
6447.00,0.91
6446.00,0.91
6445.00,0.91
6444.00,0.91
6443.00,0.91
6442.00,0.91
6441.00,0.91
6440.00,0.91
6439.00,0.91
6438.00,0.91
6437.00,0.91
6436.00,0.91
6435.00,0.91
6434.00,0.92
6433.00,0.92
6432.00,0.92
6431.00,0.92
6430.00,0.92
6429.00,0.92
6428.00,0.92
6427.00,0.92
6426.00,0.92
6425.00,0.92
6424.00,0.92
6423.00,0.93
6422.00,0.93
6421.00,0.93
6420.00,0.93
6419.00,0.93
6418.00,0.93
6417.00,0.93
6416.00,0.93
6415.00,0.93
6414.00,0.93
6413.00,0.93
6412.00,0.93
6411.00,0.93
6410.00,0.93
6409.00,0.93
6408.00,0.93
6407.00,0.93
6406.00,0.93
6405.00,0.93
6404.00,0.93
6403.00,0.93
6402.00,0.94
6401.00,0.94
6400.00,0.94
6399.00,0.94
6398.00,0.94
6397.00,0.94
6396.00,0.94
6395.00,0.94
6394.00,0.95
6393.00,0.95
6392.00,0.95
6391.00,0.95
6390.00,0.95
6389.00,0.95
6388.00,0.95
6387.00,0.95
6386.00,0.95
6385.00,0.95
6384.00,0.95
6383.00,0.95
6382.00,0.95
6381.00,0.95
6380.00,0.96
6379.00,0.96
6378.00,0.96
6377.00,0.96
6376.00,0.96
6375.00,0.96
6374.00,0.96
6373.00,0.96
6372.00,0.96
6371.00,0.96
6370.00,0.96
6369.00,0.96
6368.00,0.96
6367.00,0.96
6366.00,0.96
6365.00,0.96
6364.00,0.96
6363.00,0.97
6362.00,0.97
6361.00,0.97
6360.00,0.97
6359.00,0.97
6358.00,0.97
6357.00,0.97
6356.00,0.97
6355.00,0.97
6354.00,0.97
6353.00,0.97
6352.00,0.97
6351.00,0.97
6350.00,0.98
6349.00,0.98
6348.00,0.98
6347.00,0.98
6346.00,0.98
6345.00,0.98
6344.00,0.98
6343.00,0.98
6342.00,0.99
6341.00,0.99
6340.00,0.99
6339.00,0.99
6338.00,0.99
6337.00,0.99
6336.00,0.99
6335.00,0.99
6334.00,0.99
6333.00,0.99
6332.00,1.00
6331.00,1.00
6330.00,1.00
6329.00,1.00
6328.00,1.00
6327.00,1.00
6326.00,1.00
6325.00,1.00
6324.00,1.00
6323.00,1.01
6322.00,1.01
6321.00,1.01
6320.00,1.01
6319.00,1.01
6318.00,1.01
6317.00,1.01
6316.00,1.01
6315.00,1.02
6314.00,1.02
6313.00,1.02
6312.00,1.02
6311.00,1.02
6310.00,1.02
6309.00,1.02
6308.00,1.03
6307.00,1.03
6306.00,1.03
6305.00,1.03
6304.00,1.03
6303.00,1.03
6302.00,1.04
6301.00,1.04
6300.00,1.04
6299.00,1.04
6298.00,1.04
6297.00,1.04
6296.00,1.04
6295.00,1.05
6294.00,1.05
6293.00,1.05
6292.00,1.05
6291.00,1.05
6290.00,1.05
6289.00,1.05
6288.00,1.05
6287.00,1.05
6286.00,1.05
6285.00,1.06
6284.00,1.06
6283.00,1.06
6282.00,1.06
6281.00,1.06
6280.00,1.06
6279.00,1.06
6278.00,1.06
6277.00,1.06
6276.00,1.06
6275.00,1.06
6274.00,1.06
6273.00,1.06
6272.00,1.06
6271.00,1.06
6270.00,1.06
6269.00,1.06
6268.00,1.07
6267.00,1.07
6266.00,1.07
6265.00,1.07
6264.00,1.07
6263.00,1.07
6262.00,1.07
6261.00,1.07
6260.00,1.07
6259.00,1.08
6258.00,1.08
6257.00,1.08
6256.00,1.08
6255.00,1.08
6254.00,1.08
6253.00,1.08
6252.00,1.09
6251.00,1.09
6250.00,1.09
6249.00,1.09
6248.00,1.09
6247.00,1.09
6246.00,1.09
6245.00,1.10
6244.00,1.10
6243.00,1.10
6242.00,1.10
6241.00,1.10
6240.00,1.11
6239.00,1.11
6238.00,1.11
6237.00,1.11
6236.00,1.11
6235.00,1.11
6234.00,1.12
6233.00,1.12
6232.00,1.12
6231.00,1.12
6230.00,1.12
6229.00,1.12
6228.00,1.13
6227.00,1.13
6226.00,1.13
6225.00,1.13
6224.00,1.13
6223.00,1.13
6222.00,1.13
6221.00,1.13
6220.00,1.14
6219.00,1.14
6218.00,1.14
6217.00,1.14
6216.00,1.14
6215.00,1.14
6214.00,1.14
6213.00,1.14
6212.00,1.14
6211.00,1.15
6210.00,1.15
6209.00,1.15
6208.00,1.15
6207.00,1.15
6206.00,1.15
6205.00,1.15
6204.00,1.15
6203.00,1.15
6202.00,1.16
6201.00,1.16
6200.00,1.16
6199.00,1.16
6198.00,1.16
6197.00,1.16
6196.00,1.16
6195.00,1.17
6194.00,1.17
6193.00,1.17
6192.00,1.17
6191.00,1.17
6190.00,1.17
6189.00,1.18
6188.00,1.18
6187.00,1.18
6186.00,1.18
6185.00,1.18
6184.00,1.18
6183.00,1.18
6182.00,1.19
6181.00,1.19
6180.00,1.19
6179.00,1.19
6178.00,1.19
6177.00,1.19
6176.00,1.19
6175.00,1.19
6174.00,1.20
6173.00,1.20
6172.00,1.20
6171.00,1.20
6170.00,1.20
6169.00,1.20
6168.00,1.20
6167.00,1.21
6166.00,1.21
6165.00,1.21
6164.00,1.21
6163.00,1.21
6162.00,1.21
6161.00,1.22
6160.00,1.22
6159.00,1.22
6158.00,1.22
6157.00,1.22
6156.00,1.22
6155.00,1.23
6154.00,1.23
6153.00,1.23
6152.00,1.23
6151.00,1.23
6150.00,1.23
6149.00,1.23
6148.00,1.24
6147.00,1.24
6146.00,1.24
6145.00,1.24
6144.00,1.24
6143.00,1.24
6142.00,1.24
6141.00,1.24
6140.00,1.25
6139.00,1.25
6138.00,1.25
6137.00,1.25
6136.00,1.25
6135.00,1.25
6134.00,1.26
6133.00,1.26
6132.00,1.26
6131.00,1.26
6130.00,1.26
6129.00,1.27
6128.00,1.27
6127.00,1.27
6126.00,1.27
6125.00,1.27
6124.00,1.28
6123.00,1.28
6122.00,1.28
6121.00,1.28
6120.00,1.28
6119.00,1.28
6118.00,1.29
6117.00,1.29
6116.00,1.29
6115.00,1.29
6114.00,1.29
6113.00,1.29
6112.00,1.29
6111.00,1.29
6110.00,1.29
6109.00,1.30
6108.00,1.30
6107.00,1.30
6106.00,1.30
6105.00,1.30
6104.00,1.30
6103.00,1.30
6102.00,1.30
6101.00,1.31
6100.00,1.31
6099.00,1.31
6098.00,1.31
6097.00,1.31
6096.00,1.31
6095.00,1.31
6094.00,1.32
6093.00,1.32
6092.00,1.32
6091.00,1.32
6090.00,1.32
6089.00,1.32
6088.00,1.33
6087.00,1.33
6086.00,1.33
6085.00,1.33
6084.00,1.33
6083.00,1.33
6082.00,1.33
6081.00,1.33
6080.00,1.33
6079.00,1.33
6078.00,1.34
6077.00,1.34
6076.00,1.34
6075.00,1.34
6074.00,1.34
6073.00,1.34
6072.00,1.34
6071.00,1.34
6070.00,1.34
6069.00,1.35
6068.00,1.35
6067.00,1.35
6066.00,1.35
6065.00,1.35
6064.00,1.35
6063.00,1.35
6062.00,1.35
6061.00,1.35
6060.00,1.35
6059.00,1.35
6058.00,1.35
6057.00,1.35
6056.00,1.35
6055.00,1.35
6054.00,1.35
6053.00,1.35
6052.00,1.35
6051.00,1.35
6050.00,1.36
6049.00,1.36
6048.00,1.36
6047.00,1.36
6046.00,1.36
6045.00,1.36
6044.00,1.36
6043.00,1.36
6042.00,1.37
6041.00,1.37
6040.00,1.37
6039.00,1.37
6038.00,1.37
6037.00,1.37
6036.00,1.37
6035.00,1.37
6034.00,1.38
6033.00,1.38
6032.00,1.38
6031.00,1.38
6030.00,1.38
6029.00,1.38
6028.00,1.38
6027.00,1.38
6026.00,1.38
6025.00,1.38
6024.00,1.38
6023.00,1.38
6022.00,1.38
6021.00,1.38
6020.00,1.38
6019.00,1.38
6018.00,1.38
6017.00,1.38
6016.00,1.38
6015.00,1.38
6014.00,1.39
6013.00,1.39
6012.00,1.39
6011.00,1.39
6010.00,1.39
6009.00,1.39
6008.00,1.39
6007.00,1.39
6006.00,1.39
6005.00,1.38
6004.00,1.38
6003.00,1.38
6002.00,1.38
6001.00,1.38
6000.00,1.38
5999.00,1.38
5998.00,1.38
5997.00,1.38
5996.00,1.38
5995.00,1.37
5994.00,1.37
5993.00,1.37
5992.00,1.37
5991.00,1.37
5990.00,1.36
5989.00,1.36
5988.00,1.36
5987.00,1.36
5986.00,1.36
5985.00,1.35
5984.00,1.35
5983.00,1.35
5982.00,1.34
5981.00,1.34
5980.00,1.34
5979.00,1.33
5978.00,1.33
5977.00,1.33
5976.00,1.32
5975.00,1.32
5974.00,1.31
5973.00,1.31
5972.00,1.30
5971.00,1.30
5970.00,1.29
5969.00,1.29
5968.00,1.28
5967.00,1.27
5966.00,1.27
5965.00,1.26
5964.00,1.25
5963.00,1.25
5962.00,1.24
5961.00,1.23
5960.00,1.22
5959.00,1.22
5958.00,1.21
5957.00,1.20
5956.00,1.20
5955.00,1.19
5954.00,1.18
5953.00,1.18
5952.00,1.17
5951.00,1.16
5950.00,1.16
5949.00,1.15
5948.00,1.15
5947.00,1.15
5946.00,1.14
5945.00,1.14
5944.00,1.13
5943.00,1.13
5942.00,1.13
5941.00,1.13
5940.00,1.13
5939.00,1.12
5938.00,1.12
5937.00,1.12
5936.00,1.12
5935.00,1.12
5934.00,1.12
5933.00,1.12
5932.00,1.12
5931.00,1.12
5930.00,1.12
5929.00,1.11
5928.00,1.11
5927.00,1.11
5926.00,1.11
5925.00,1.11
5924.00,1.11
5923.00,1.10
5922.00,1.10
5921.00,1.10
5920.00,1.10
5919.00,1.09
5918.00,1.09
5917.00,1.09
5916.00,1.08
5915.00,1.08
5914.00,1.08
5913.00,1.07
5912.00,1.07
5911.00,1.07
5910.00,1.07
5909.00,1.06
5908.00,1.06
5907.00,1.06
5906.00,1.06
5905.00,1.06
5904.00,1.06
5903.00,1.06
5902.00,1.06
5901.00,1.06
5900.00,1.06
5899.00,1.06
5898.00,1.06
5897.00,1.06
5896.00,1.06
5895.00,1.07
5894.00,1.07
5893.00,1.07
5892.00,1.07
5891.00,1.08
5890.00,1.08
5889.00,1.08
5888.00,1.08
5887.00,1.09
5886.00,1.09
5885.00,1.09
5884.00,1.10
5883.00,1.10
5882.00,1.10
5881.00,1.10
5880.00,1.11
5879.00,1.11
5878.00,1.11
5877.00,1.12
5876.00,1.12
5875.00,1.12
5874.00,1.12
5873.00,1.13
5872.00,1.13
5871.00,1.13
5870.00,1.13
5869.00,1.14
5868.00,1.14
5867.00,1.14
5866.00,1.14
5865.00,1.15
5864.00,1.15
5863.00,1.15
5862.00,1.15
5861.00,1.15
5860.00,1.15
5859.00,1.16
5858.00,1.16
5857.00,1.16
5856.00,1.16
5855.00,1.16
5854.00,1.16
5853.00,1.16
5852.00,1.16
5851.00,1.16
5850.00,1.16
5849.00,1.16
5848.00,1.16
5847.00,1.16
5846.00,1.16
5845.00,1.16
5844.00,1.16
5843.00,1.16
5842.00,1.17
5841.00,1.17
5840.00,1.17
5839.00,1.17
5838.00,1.17
5837.00,1.17
5836.00,1.17
5835.00,1.17
5834.00,1.17
5833.00,1.17
5832.00,1.17
5831.00,1.17
5830.00,1.17
5829.00,1.17
5828.00,1.17
5827.00,1.17
5826.00,1.17
5825.00,1.17
5824.00,1.17
5823.00,1.17
5822.00,1.16
5821.00,1.16
5820.00,1.16
5819.00,1.16
5818.00,1.16
5817.00,1.17
5816.00,1.17
5815.00,1.17
5814.00,1.17
5813.00,1.17
5812.00,1.17
5811.00,1.17
5810.00,1.17
5809.00,1.17
5808.00,1.17
5807.00,1.17
5806.00,1.17
5805.00,1.16
5804.00,1.16
5803.00,1.16
5802.00,1.16
5801.00,1.16
5800.00,1.16
5799.00,1.16
5798.00,1.16
5797.00,1.15
5796.00,1.15
5795.00,1.15
5794.00,1.15
5793.00,1.14
5792.00,1.14
5791.00,1.14
5790.00,1.14
5789.00,1.13
5788.00,1.13
5787.00,1.13
5786.00,1.13
5785.00,1.12
5784.00,1.12
5783.00,1.12
5782.00,1.12
5781.00,1.12
5780.00,1.12
5779.00,1.11
5778.00,1.11
5777.00,1.11
5776.00,1.11
5775.00,1.11
5774.00,1.11
5773.00,1.11
5772.00,1.11
5771.00,1.11
5770.00,1.11
5769.00,1.11
5768.00,1.11
5767.00,1.11
5766.00,1.12
5765.00,1.12
5764.00,1.12
5763.00,1.12
5762.00,1.12
5761.00,1.13
5760.00,1.13
5759.00,1.13
5758.00,1.13
5757.00,1.14
5756.00,1.14
5755.00,1.14
5754.00,1.15
5753.00,1.15
5752.00,1.15
5751.00,1.16
5750.00,1.16
5749.00,1.16
5748.00,1.17
5747.00,1.17
5746.00,1.18
5745.00,1.18
5744.00,1.18
5743.00,1.19
5742.00,1.19
5741.00,1.19
5740.00,1.20
5739.00,1.20
5738.00,1.20
5737.00,1.20
5736.00,1.21
5735.00,1.21
5734.00,1.21
5733.00,1.21
5732.00,1.21
5731.00,1.22
5730.00,1.22
5729.00,1.22
5728.00,1.22
5727.00,1.22
5726.00,1.22
5725.00,1.22
5724.00,1.22
5723.00,1.22
5722.00,1.22
5721.00,1.22
5720.00,1.22
5719.00,1.22
5718.00,1.22
5717.00,1.22
5716.00,1.22
5715.00,1.22
5714.00,1.22
5713.00,1.22
5712.00,1.22
5711.00,1.22
5710.00,1.22
5709.00,1.22
5708.00,1.22
5707.00,1.22
5706.00,1.22
5705.00,1.22
5704.00,1.22
5703.00,1.21
5702.00,1.21
5701.00,1.21
5700.00,1.21
5699.00,1.21
5698.00,1.21
5697.00,1.21
5696.00,1.21
5695.00,1.21
5694.00,1.21
5693.00,1.20
5692.00,1.20
5691.00,1.20
5690.00,1.20
5689.00,1.20
5688.00,1.20
5687.00,1.19
5686.00,1.19
5685.00,1.19
5684.00,1.19
5683.00,1.19
5682.00,1.19
5681.00,1.18
5680.00,1.18
5679.00,1.18
5678.00,1.18
5677.00,1.18
5676.00,1.18
5675.00,1.18
5674.00,1.18
5673.00,1.18
5672.00,1.18
5671.00,1.18
5670.00,1.18
5669.00,1.18
5668.00,1.18
5667.00,1.18
5666.00,1.18
5665.00,1.18
5664.00,1.18
5663.00,1.18
5662.00,1.18
5661.00,1.18
5660.00,1.19
5659.00,1.19
5658.00,1.19
5657.00,1.19
5656.00,1.19
5655.00,1.19
5654.00,1.20
5653.00,1.20
5652.00,1.20
5651.00,1.20
5650.00,1.20
5649.00,1.21
5648.00,1.21
5647.00,1.21
5646.00,1.21
5645.00,1.21
5644.00,1.22
5643.00,1.22
5642.00,1.22
5641.00,1.22
5640.00,1.22
5639.00,1.23
5638.00,1.23
5637.00,1.23
5636.00,1.23
5635.00,1.23
5634.00,1.23
5633.00,1.24
5632.00,1.24
5631.00,1.24
5630.00,1.24
5629.00,1.24
5628.00,1.24
5627.00,1.25
5626.00,1.25
5625.00,1.25
5624.00,1.25
5623.00,1.25
5622.00,1.25
5621.00,1.26
5620.00,1.26
5619.00,1.26
5618.00,1.26
5617.00,1.26
5616.00,1.26
5615.00,1.27
5614.00,1.27
5613.00,1.27
5612.00,1.27
5611.00,1.27
5610.00,1.27
5609.00,1.28
5608.00,1.28
5607.00,1.28
5606.00,1.28
5605.00,1.28
5604.00,1.28
5603.00,1.28
5602.00,1.29
5601.00,1.29
5600.00,1.29
5599.00,1.29
5598.00,1.29
5597.00,1.29
5596.00,1.30
5595.00,1.30
5594.00,1.30
5593.00,1.30
5592.00,1.30
5591.00,1.30
5590.00,1.30
5589.00,1.31
5588.00,1.31
5587.00,1.31
5586.00,1.31
5585.00,1.31
5584.00,1.31
5583.00,1.31
5582.00,1.32
5581.00,1.32
5580.00,1.32
5579.00,1.32
5578.00,1.32
5577.00,1.32
5576.00,1.32
5575.00,1.32
5574.00,1.33
5573.00,1.33
5572.00,1.33
5571.00,1.33
5570.00,1.33
5569.00,1.33
5568.00,1.33
5567.00,1.34
5566.00,1.34
5565.00,1.34
5564.00,1.34
5563.00,1.34
5562.00,1.34
5561.00,1.34
5560.00,1.35
5559.00,1.35
5558.00,1.35
5557.00,1.35
5556.00,1.35
5555.00,1.35
5554.00,1.35
5553.00,1.35
5552.00,1.36
5551.00,1.36
5550.00,1.36
5549.00,1.36
5548.00,1.36
5547.00,1.36
5546.00,1.36
5545.00,1.37
5544.00,1.37
5543.00,1.37
5542.00,1.37
5541.00,1.37
5540.00,1.37
5539.00,1.37
5538.00,1.37
5537.00,1.37
5536.00,1.38
5535.00,1.38
5534.00,1.38
5533.00,1.38
5532.00,1.38
5531.00,1.38
5530.00,1.38
5529.00,1.38
5528.00,1.38
5527.00,1.38
5526.00,1.38
5525.00,1.38
5524.00,1.38
5523.00,1.38
5522.00,1.38
5521.00,1.39
5520.00,1.39
5519.00,1.39
5518.00,1.39
5517.00,1.39
5516.00,1.39
5515.00,1.39
5514.00,1.39
5513.00,1.39
5512.00,1.39
5511.00,1.39
5510.00,1.39
5509.00,1.39
5508.00,1.39
5507.00,1.39
5506.00,1.39
5505.00,1.39
5504.00,1.39
5503.00,1.39
5502.00,1.39
5501.00,1.39
5500.00,1.39
5499.00,1.39
5498.00,1.40
5497.00,1.40
5496.00,1.40
5495.00,1.40
5494.00,1.40
5493.00,1.40
5492.00,1.40
5491.00,1.40
5490.00,1.40
5489.00,1.40
5488.00,1.41
5487.00,1.41
5486.00,1.41
5485.00,1.41
5484.00,1.41
5483.00,1.41
5482.00,1.42
5481.00,1.42
5480.00,1.42
5479.00,1.42
5478.00,1.42
5477.00,1.42
5476.00,1.42
5475.00,1.42
5474.00,1.42
5473.00,1.42
5472.00,1.42
5471.00,1.43
5470.00,1.43
5469.00,1.43
5468.00,1.43
5467.00,1.43
5466.00,1.43
5465.00,1.43
5464.00,1.43
5463.00,1.43
5462.00,1.44
5461.00,1.44
5460.00,1.44
5459.00,1.44
5458.00,1.44
5457.00,1.44
5456.00,1.44
5455.00,1.44
5454.00,1.44
5453.00,1.44
5452.00,1.44
5451.00,1.44
5450.00,1.44
5449.00,1.44
5448.00,1.44
5447.00,1.44
5446.00,1.44
5445.00,1.44
5444.00,1.44
5443.00,1.44
5442.00,1.44
5441.00,1.44
5440.00,1.44
5439.00,1.44
5438.00,1.44
5437.00,1.44
5436.00,1.44
5435.00,1.44
5434.00,1.44
5433.00,1.44
5432.00,1.44
5431.00,1.44
5430.00,1.44
5429.00,1.44
5428.00,1.44
5427.00,1.45
5426.00,1.45
5425.00,1.45
5424.00,1.45
5423.00,1.45
5422.00,1.45
5421.00,1.45
5420.00,1.45
5419.00,1.45
5418.00,1.45
5417.00,1.45
5416.00,1.45
5415.00,1.45
5414.00,1.45
5413.00,1.45
5412.00,1.44
5411.00,1.44
5410.00,1.44
5409.00,1.44
5408.00,1.44
5407.00,1.44
5406.00,1.44
5405.00,1.44
5404.00,1.44
5403.00,1.44
5402.00,1.44
5401.00,1.44
5400.00,1.44
5399.00,1.44
5398.00,1.44
5397.00,1.44
5396.00,1.44
5395.00,1.43
5394.00,1.43
5393.00,1.43
5392.00,1.43
5391.00,1.43
5390.00,1.42
5389.00,1.42
5388.00,1.42
5387.00,1.41
5386.00,1.41
5385.00,1.41
5384.00,1.41
5383.00,1.40
5382.00,1.40
5381.00,1.40
5380.00,1.39
5379.00,1.39
5378.00,1.39
5377.00,1.38
5376.00,1.38
5375.00,1.38
5374.00,1.37
5373.00,1.37
5372.00,1.36
5371.00,1.36
5370.00,1.36
5369.00,1.35
5368.00,1.35
5367.00,1.34
5366.00,1.34
5365.00,1.33
5364.00,1.32
5363.00,1.32
5362.00,1.31
5361.00,1.30
5360.00,1.30
5359.00,1.29
5358.00,1.28
5357.00,1.27
5356.00,1.26
5355.00,1.25
5354.00,1.24
5353.00,1.23
5352.00,1.22
5351.00,1.21
5350.00,1.20
5349.00,1.19
5348.00,1.18
5347.00,1.17
5346.00,1.16
5345.00,1.15
5344.00,1.14
5343.00,1.13
5342.00,1.12
5341.00,1.11
5340.00,1.10
5339.00,1.09
5338.00,1.08
5337.00,1.07
5336.00,1.06
5335.00,1.05
5334.00,1.04
5333.00,1.03
5332.00,1.02
5331.00,1.01
5330.00,1.00
5329.00,0.99
5328.00,0.98
5327.00,0.97
5326.00,0.96
5325.00,0.95
5324.00,0.94
5323.00,0.93
5322.00,0.92
5321.00,0.92
5320.00,0.91
5319.00,0.90
5318.00,0.89
5317.00,0.88
5316.00,0.87
5315.00,0.86
5314.00,0.85
5313.00,0.84
5312.00,0.83
5311.00,0.82
5310.00,0.82
5309.00,0.81
5308.00,0.80
5307.00,0.79
5306.00,0.78
5305.00,0.78
5304.00,0.77
5303.00,0.76
5302.00,0.76
5301.00,0.75
5300.00,0.75
5299.00,0.74
5298.00,0.74
5297.00,0.73
5296.00,0.73
5295.00,0.73
5294.00,0.72
5293.00,0.72
5292.00,0.72
5291.00,0.71
5290.00,0.71
5289.00,0.71
5288.00,0.70
5287.00,0.70
5286.00,0.70
5285.00,0.70
5284.00,0.70
5283.00,0.69
5282.00,0.69
5281.00,0.69
5280.00,0.69
5279.00,0.69
5278.00,0.69
5277.00,0.68
5276.00,0.68
5275.00,0.68
5274.00,0.68
5273.00,0.68
5272.00,0.68
5271.00,0.68
5270.00,0.68
5269.00,0.67
5268.00,0.67
5267.00,0.67
5266.00,0.67
5265.00,0.67
5264.00,0.67
5263.00,0.67
5262.00,0.67
5261.00,0.67
5260.00,0.67
5259.00,0.67
5258.00,0.67
5257.00,0.67
5256.00,0.67
5255.00,0.67
5254.00,0.67
5253.00,0.67
5252.00,0.67
5251.00,0.67
5250.00,0.67
5249.00,0.67
5248.00,0.67
5247.00,0.67
5246.00,0.67
5245.00,0.67
5244.00,0.67
5243.00,0.67
5242.00,0.67
5241.00,0.67
5240.00,0.67
5239.00,0.67
5238.00,0.67
5237.00,0.67
5236.00,0.67
5235.00,0.67
5234.00,0.67
5233.00,0.67
5232.00,0.67
5231.00,0.67
5230.00,0.67
5229.00,0.67
5228.00,0.67
5227.00,0.67
5226.00,0.67
5225.00,0.67
5224.00,0.67
5223.00,0.67
5222.00,0.67
5221.00,0.67
5220.00,0.67
5219.00,0.67
5218.00,0.67
5217.00,0.68
5216.00,0.68
5215.00,0.68
5214.00,0.68
5213.00,0.68
5212.00,0.68
5211.00,0.68
5210.00,0.68
5209.00,0.68
5208.00,0.68
5207.00,0.68
5206.00,0.68
5205.00,0.68
5204.00,0.68
5203.00,0.68
5202.00,0.68
5201.00,0.68
5200.00,0.68
5199.00,0.68
5198.00,0.69
5197.00,0.69
5196.00,0.69
5195.00,0.69
5194.00,0.69
5193.00,0.69
5192.00,0.69
5191.00,0.69
5190.00,0.69
5189.00,0.69
5188.00,0.69
5187.00,0.69
5186.00,0.69
5185.00,0.69
5184.00,0.69
5183.00,0.69
5182.00,0.69
5181.00,0.69
5180.00,0.69
5179.00,0.70
5178.00,0.70
5177.00,0.70
5176.00,0.70
5175.00,0.70
5174.00,0.70
5173.00,0.70
5172.00,0.70
5171.00,0.70
5170.00,0.70
5169.00,0.70
5168.00,0.70
5167.00,0.70
5166.00,0.70
5165.00,0.70
5164.00,0.70
5163.00,0.70
5162.00,0.70
5161.00,0.70
5160.00,0.70
5159.00,0.71
5158.00,0.71
5157.00,0.71
5156.00,0.71
5155.00,0.71
5154.00,0.71
5153.00,0.71
5152.00,0.71
5151.00,0.71
5150.00,0.71
5149.00,0.71
5148.00,0.72
5147.00,0.72
5146.00,0.72
5145.00,0.72
5144.00,0.72
5143.00,0.72
5142.00,0.72
5141.00,0.72
5140.00,0.72
5139.00,0.72
5138.00,0.72
5137.00,0.72
5136.00,0.72
5135.00,0.72
5134.00,0.72
5133.00,0.72
5132.00,0.72
5131.00,0.72
5130.00,0.72
5129.00,0.72
5128.00,0.73
5127.00,0.73
5126.00,0.73
5125.00,0.73
5124.00,0.73
5123.00,0.73
5122.00,0.73
5121.00,0.73
5120.00,0.73
5119.00,0.73
5118.00,0.73
5117.00,0.73
5116.00,0.73
5115.00,0.73
5114.00,0.73
5113.00,0.73
5112.00,0.73
5111.00,0.73
5110.00,0.73
5109.00,0.73
5108.00,0.73
5107.00,0.73
5106.00,0.73
5105.00,0.73
5104.00,0.73
5103.00,0.74
5102.00,0.74
5101.00,0.74
5100.00,0.74
5099.00,0.74
5098.00,0.74
5097.00,0.74
5096.00,0.74
5095.00,0.74
5094.00,0.74
5093.00,0.74
5092.00,0.74
5091.00,0.75
5090.00,0.75
5089.00,0.75
5088.00,0.75
5087.00,0.75
5086.00,0.75
5085.00,0.75
5084.00,0.75
5083.00,0.75
5082.00,0.75
5081.00,0.75
5080.00,0.75
5079.00,0.75
5078.00,0.75
5077.00,0.75
5076.00,0.75
5075.00,0.75
5074.00,0.75
5073.00,0.75
5072.00,0.75
5071.00,0.75
5070.00,0.76
5069.00,0.76
5068.00,0.76
5067.00,0.76
5066.00,0.76
5065.00,0.76
5064.00,0.76
5063.00,0.76
5062.00,0.76
5061.00,0.76
5060.00,0.76
5059.00,0.76
5058.00,0.77
5057.00,0.77
5056.00,0.77
5055.00,0.77
5054.00,0.77
5053.00,0.77
5052.00,0.77
5051.00,0.77
5050.00,0.77
5049.00,0.77
5048.00,0.77
5047.00,0.77
5046.00,0.77
5045.00,0.77
5044.00,0.77
5043.00,0.77
5042.00,0.77
5041.00,0.77
5040.00,0.77
5039.00,0.78
5038.00,0.78
5037.00,0.78
5036.00,0.78
5035.00,0.78
5034.00,0.78
5033.00,0.78
5032.00,0.78
5031.00,0.79
5030.00,0.79
5029.00,0.79
5028.00,0.79
5027.00,0.79
5026.00,0.79
5025.00,0.80
5024.00,0.80
5023.00,0.80
5022.00,0.80
5021.00,0.80
5020.00,0.80
5019.00,0.80
5018.00,0.81
5017.00,0.81
5016.00,0.81
5015.00,0.81
5014.00,0.81
5013.00,0.81
5012.00,0.81
5011.00,0.81
5010.00,0.81
5009.00,0.81
5008.00,0.81
5007.00,0.81
5006.00,0.81
5005.00,0.81
5004.00,0.81
5003.00,0.81
5002.00,0.81
5001.00,0.81
5000.00,0.81
4999.00,0.81
4998.00,0.81
4997.00,0.82
4996.00,0.82
4995.00,0.82
4994.00,0.82
4993.00,0.82
4992.00,0.82
4991.00,0.82
4990.00,0.82
4989.00,0.82
4988.00,0.82
4987.00,0.82
4986.00,0.83
4985.00,0.83
4984.00,0.83
4983.00,0.83
4982.00,0.83
4981.00,0.83
4980.00,0.83
4979.00,0.83
4978.00,0.83
4977.00,0.83
4976.00,0.83
4975.00,0.83
4974.00,0.83
4973.00,0.83
4972.00,0.83
4971.00,0.83
4970.00,0.83
4969.00,0.83
4968.00,0.84
4967.00,0.84
4966.00,0.84
4965.00,0.84
4964.00,0.84
4963.00,0.84
4962.00,0.84
4961.00,0.84
4960.00,0.84
4959.00,0.84
4958.00,0.85
4957.00,0.85
4956.00,0.85
4955.00,0.85
4954.00,0.85
4953.00,0.85
4952.00,0.85
4951.00,0.86
4950.00,0.86
4949.00,0.86
4948.00,0.86
4947.00,0.86
4946.00,0.86
4945.00,0.86
4944.00,0.87
4943.00,0.87
4942.00,0.87
4941.00,0.87
4940.00,0.87
4939.00,0.87
4938.00,0.87
4937.00,0.87
4936.00,0.87
4935.00,0.88
4934.00,0.88
4933.00,0.88
4932.00,0.88
4931.00,0.88
4930.00,0.88
4929.00,0.88
4928.00,0.88
4927.00,0.88
4926.00,0.88
4925.00,0.88
4924.00,0.88
4923.00,0.88
4922.00,0.88
4921.00,0.88
4920.00,0.89
4919.00,0.89
4918.00,0.89
4917.00,0.89
4916.00,0.89
4915.00,0.89
4914.00,0.89
4913.00,0.89
4912.00,0.89
4911.00,0.89
4910.00,0.89
4909.00,0.89
4908.00,0.89
4907.00,0.90
4906.00,0.90
4905.00,0.90
4904.00,0.90
4903.00,0.90
4902.00,0.90
4901.00,0.90
4900.00,0.90
4899.00,0.90
4898.00,0.90
4897.00,0.90
4896.00,0.90
4895.00,0.91
4894.00,0.91
4893.00,0.91
4892.00,0.91
4891.00,0.91
4890.00,0.91
4889.00,0.91
4888.00,0.91
4887.00,0.91
4886.00,0.91
4885.00,0.91
4884.00,0.91
4883.00,0.91
4882.00,0.91
4881.00,0.91
4880.00,0.92
4879.00,0.92
4878.00,0.92
4877.00,0.92
4876.00,0.92
4875.00,0.92
4874.00,0.92
4873.00,0.92
4872.00,0.92
4871.00,0.92
4870.00,0.92
4869.00,0.92
4868.00,0.93
4867.00,0.93
4866.00,0.93
4865.00,0.93
4864.00,0.93
4863.00,0.93
4862.00,0.93
4861.00,0.93
4860.00,0.93
4859.00,0.93
4858.00,0.94
4857.00,0.94
4856.00,0.94
4855.00,0.94
4854.00,0.94
4853.00,0.94
4852.00,0.94
4851.00,0.94
4850.00,0.95
4849.00,0.95
4848.00,0.95
4847.00,0.95
4846.00,0.95
4845.00,0.95
4844.00,0.95
4843.00,0.95
4842.00,0.95
4841.00,0.95
4840.00,0.96
4839.00,0.96
4838.00,0.96
4837.00,0.96
4836.00,0.96
4835.00,0.96
4834.00,0.96
4833.00,0.96
4832.00,0.96
4831.00,0.96
4830.00,0.96
4829.00,0.96
4828.00,0.96
4827.00,0.97
4826.00,0.97
4825.00,0.97
4824.00,0.97
4823.00,0.97
4822.00,0.97
4821.00,0.97
4820.00,0.97
4819.00,0.97
4818.00,0.97
4817.00,0.97
4816.00,0.97
4815.00,0.97
4814.00,0.97
4813.00,0.98
4812.00,0.98
4811.00,0.98
4810.00,0.98
4809.00,0.98
4808.00,0.98
4807.00,0.98
4806.00,0.98
4805.00,0.98
4804.00,0.98
4803.00,0.98
4802.00,0.98
4801.00,0.99
4800.00,0.99
4799.00,0.99
4798.00,0.99
4797.00,0.99
4796.00,0.99
4795.00,0.99
4794.00,1.00
4793.00,1.00
4792.00,1.00
4791.00,1.00
4790.00,1.01
4789.00,1.01
4788.00,1.01
4787.00,1.01
4786.00,1.01
4785.00,1.01
4784.00,1.02
4783.00,1.02
4782.00,1.02
4781.00,1.02
4780.00,1.02
4779.00,1.02
4778.00,1.02
4777.00,1.02
4776.00,1.02
4775.00,1.03
4774.00,1.03
4773.00,1.03
4772.00,1.03
4771.00,1.03
4770.00,1.03
4769.00,1.03
4768.00,1.03
4767.00,1.03
4766.00,1.03
4765.00,1.04
4764.00,1.04
4763.00,1.04
4762.00,1.04
4761.00,1.04
4760.00,1.04
4759.00,1.04
4758.00,1.05
4757.00,1.05
4756.00,1.05
4755.00,1.05
4754.00,1.05
4753.00,1.05
4752.00,1.06
4751.00,1.06
4750.00,1.06
4749.00,1.06
4748.00,1.06
4747.00,1.06
4746.00,1.06
4745.00,1.07
4744.00,1.07
4743.00,1.07
4742.00,1.07
4741.00,1.07
4740.00,1.07
4739.00,1.08
4738.00,1.08
4737.00,1.08
4736.00,1.08
4735.00,1.08
4734.00,1.08
4733.00,1.09
4732.00,1.09
4731.00,1.09
4730.00,1.09
4729.00,1.09
4728.00,1.09
4727.00,1.10
4726.00,1.10
4725.00,1.10
4724.00,1.10
4723.00,1.10
4722.00,1.11
4721.00,1.11
4720.00,1.11
4719.00,1.11
4718.00,1.11
4717.00,1.12
4716.00,1.12
4715.00,1.12
4714.00,1.12
4713.00,1.12
4712.00,1.13
4711.00,1.13
4710.00,1.13
4709.00,1.13
4708.00,1.13
4707.00,1.13
4706.00,1.14
4705.00,1.14
4704.00,1.14
4703.00,1.14
4702.00,1.14
4701.00,1.14
4700.00,1.14
4699.00,1.14
4698.00,1.15
4697.00,1.15
4696.00,1.15
4695.00,1.15
4694.00,1.15
4693.00,1.15
4692.00,1.16
4691.00,1.16
4690.00,1.16
4689.00,1.16
4688.00,1.16
4687.00,1.17
4686.00,1.17
4685.00,1.17
4684.00,1.17
4683.00,1.17
4682.00,1.17
4681.00,1.18
4680.00,1.18
4679.00,1.18
4678.00,1.18
4677.00,1.18
4676.00,1.18
4675.00,1.19
4674.00,1.19
4673.00,1.19
4672.00,1.19
4671.00,1.19
4670.00,1.20
4669.00,1.20
4668.00,1.20
4667.00,1.20
4666.00,1.20
4665.00,1.20
4664.00,1.21
4663.00,1.21
4662.00,1.21
4661.00,1.21
4660.00,1.21
4659.00,1.21
4658.00,1.21
4657.00,1.21
4656.00,1.22
4655.00,1.22
4654.00,1.22
4653.00,1.22
4652.00,1.22
4651.00,1.22
4650.00,1.22
4649.00,1.22
4648.00,1.23
4647.00,1.23
4646.00,1.23
4645.00,1.23
4644.00,1.23
4643.00,1.23
4642.00,1.24
4641.00,1.24
4640.00,1.24
4639.00,1.24
4638.00,1.24
4637.00,1.24
4636.00,1.25
4635.00,1.25
4634.00,1.25
4633.00,1.25
4632.00,1.25
4631.00,1.25
4630.00,1.25
4629.00,1.25
4628.00,1.25
4627.00,1.25
4626.00,1.26
4625.00,1.26
4624.00,1.26
4623.00,1.26
4622.00,1.26
4621.00,1.26
4620.00,1.26
4619.00,1.26
4618.00,1.26
4617.00,1.26
4616.00,1.26
4615.00,1.26
4614.00,1.26
4613.00,1.26
4612.00,1.26
4611.00,1.27
4610.00,1.27
4609.00,1.27
4608.00,1.27
4607.00,1.27
4606.00,1.27
4605.00,1.28
4604.00,1.28
4603.00,1.28
4602.00,1.28
4601.00,1.28
4600.00,1.28
4599.00,1.28
4598.00,1.29
4597.00,1.29
4596.00,1.29
4595.00,1.29
4594.00,1.29
4593.00,1.29
4592.00,1.29
4591.00,1.29
4590.00,1.29
4589.00,1.29
4588.00,1.29
4587.00,1.30
4586.00,1.30
4585.00,1.30
4584.00,1.30
4583.00,1.30
4582.00,1.30
4581.00,1.30
4580.00,1.30
4579.00,1.30
4578.00,1.30
4577.00,1.30
4576.00,1.30
4575.00,1.30
4574.00,1.30
4573.00,1.30
4572.00,1.31
4571.00,1.31
4570.00,1.31
4569.00,1.31
4568.00,1.31
4567.00,1.31
4566.00,1.31
4565.00,1.31
4564.00,1.31
4563.00,1.31
4562.00,1.31
4561.00,1.31
4560.00,1.31
4559.00,1.32
4558.00,1.32
4557.00,1.32
4556.00,1.32
4555.00,1.32
4554.00,1.32
4553.00,1.33
4552.00,1.33
4551.00,1.33
4550.00,1.33
4549.00,1.33
4548.00,1.33
4547.00,1.33
4546.00,1.33
4545.00,1.34
4544.00,1.34
4543.00,1.34
4542.00,1.34
4541.00,1.34
4540.00,1.34
4539.00,1.34
4538.00,1.34
4537.00,1.34
4536.00,1.34
4535.00,1.34
4534.00,1.34
4533.00,1.34
4532.00,1.34
4531.00,1.34
4530.00,1.34
4529.00,1.35
4528.00,1.35
4527.00,1.35
4526.00,1.35
4525.00,1.35
4524.00,1.35
4523.00,1.35
4522.00,1.35
4521.00,1.35
4520.00,1.35
4519.00,1.35
4518.00,1.35
4517.00,1.35
4516.00,1.35
4515.00,1.35
4514.00,1.35
4513.00,1.35
4512.00,1.35
4511.00,1.35
4510.00,1.35
4509.00,1.35
4508.00,1.35
4507.00,1.34
4506.00,1.34
4505.00,1.34
4504.00,1.34
4503.00,1.34
4502.00,1.34
4501.00,1.34
4500.00,1.34
4499.00,1.34
4498.00,1.34
4497.00,1.34
4496.00,1.34
4495.00,1.34
4494.00,1.34
4493.00,1.34
4492.00,1.34
4491.00,1.34
4490.00,1.34
4489.00,1.34
4488.00,1.34
4487.00,1.34
4486.00,1.34
4485.00,1.33
4484.00,1.33
4483.00,1.33
4482.00,1.33
4481.00,1.33
4480.00,1.33
4479.00,1.33
4478.00,1.32
4477.00,1.32
4476.00,1.32
4475.00,1.32
4474.00,1.32
4473.00,1.32
4472.00,1.31
4471.00,1.31
4470.00,1.31
4469.00,1.31
4468.00,1.30
4467.00,1.30
4466.00,1.30
4465.00,1.29
4464.00,1.29
4463.00,1.29
4462.00,1.28
4461.00,1.28
4460.00,1.28
4459.00,1.27
4458.00,1.27
4457.00,1.26
4456.00,1.26
4455.00,1.26
4454.00,1.25
4453.00,1.25
4452.00,1.25
4451.00,1.24
4450.00,1.24
4449.00,1.23
4448.00,1.23
4447.00,1.23
4446.00,1.22
4445.00,1.22
4444.00,1.22
4443.00,1.21
4442.00,1.21
4441.00,1.20
4440.00,1.20
4439.00,1.20
4438.00,1.19
4437.00,1.19
4436.00,1.19
4435.00,1.18
4434.00,1.18
4433.00,1.18
4432.00,1.17
4431.00,1.17
4430.00,1.17
4429.00,1.17
4428.00,1.16
4427.00,1.16
4426.00,1.16
4425.00,1.16
4424.00,1.16
4423.00,1.16
4422.00,1.15
4421.00,1.15
4420.00,1.15
4419.00,1.15
4418.00,1.15
4417.00,1.15
4416.00,1.15
4415.00,1.15
4414.00,1.15
4413.00,1.15
4412.00,1.15
4411.00,1.15
4410.00,1.15
4409.00,1.15
4408.00,1.15
4407.00,1.15
4406.00,1.15
4405.00,1.15
4404.00,1.15
4403.00,1.15
4402.00,1.15
4401.00,1.15
4400.00,1.15
4399.00,1.15
4398.00,1.15
4397.00,1.16
4396.00,1.16
4395.00,1.16
4394.00,1.16
4393.00,1.16
4392.00,1.16
4391.00,1.17
4390.00,1.17
4389.00,1.17
4388.00,1.17
4387.00,1.17
4386.00,1.17
4385.00,1.18
4384.00,1.18
4383.00,1.18
4382.00,1.18
4381.00,1.18
4380.00,1.18
4379.00,1.19
4378.00,1.19
4377.00,1.19
4376.00,1.19
4375.00,1.19
4374.00,1.19
4373.00,1.19
4372.00,1.19
4371.00,1.19
4370.00,1.19
4369.00,1.19
4368.00,1.19
4367.00,1.19
4366.00,1.19
4365.00,1.19
4364.00,1.19
4363.00,1.19
4362.00,1.19
4361.00,1.19
4360.00,1.19
4359.00,1.19
4358.00,1.19
4357.00,1.19
4356.00,1.19
4355.00,1.19
4354.00,1.19
4353.00,1.19
4352.00,1.19
4351.00,1.19
4350.00,1.19
4349.00,1.19
4348.00,1.19
4347.00,1.19
4346.00,1.19
4345.00,1.19
4344.00,1.19
4343.00,1.19
4342.00,1.19
4341.00,1.19
4340.00,1.19
4339.00,1.19
4338.00,1.19
4337.00,1.19
4336.00,1.19
4335.00,1.19
4334.00,1.19
4333.00,1.20
4332.00,1.20
4331.00,1.20
4330.00,1.20
4329.00,1.20
4328.00,1.20
4327.00,1.20
4326.00,1.21
4325.00,1.21
4324.00,1.21
4323.00,1.21
4322.00,1.22
4321.00,1.22
4320.00,1.22
4319.00,1.22
4318.00,1.23
4317.00,1.23
4316.00,1.23
4315.00,1.23
4314.00,1.23
4313.00,1.23
4312.00,1.24
4311.00,1.24
4310.00,1.24
4309.00,1.24
4308.00,1.24
4307.00,1.25
4306.00,1.25
4305.00,1.25
4304.00,1.25
4303.00,1.25
4302.00,1.26
4301.00,1.26
4300.00,1.26
4299.00,1.26
4298.00,1.27
4297.00,1.27
4296.00,1.27
4295.00,1.27
4294.00,1.28
4293.00,1.28
4292.00,1.28
4291.00,1.28
4290.00,1.28
4289.00,1.28
4288.00,1.28
4287.00,1.29
4286.00,1.29
4285.00,1.29
4284.00,1.29
4283.00,1.29
4282.00,1.29
4281.00,1.29
4280.00,1.29
4279.00,1.29
4278.00,1.29
4277.00,1.29
4276.00,1.29
4275.00,1.28
4274.00,1.28
4273.00,1.28
4272.00,1.28
4271.00,1.28
4270.00,1.28
4269.00,1.28
4268.00,1.28
4267.00,1.28
4266.00,1.28
4265.00,1.28
4264.00,1.28
4263.00,1.28
4262.00,1.28
4261.00,1.28
4260.00,1.28
4259.00,1.28
4258.00,1.28
4257.00,1.28
4256.00,1.28
4255.00,1.28
4254.00,1.28
4253.00,1.28
4252.00,1.28
4251.00,1.29
4250.00,1.29
4249.00,1.29
4248.00,1.29
4247.00,1.29
4246.00,1.29
4245.00,1.29
4244.00,1.29
4243.00,1.30
4242.00,1.30
4241.00,1.30
4240.00,1.30
4239.00,1.30
4238.00,1.31
4237.00,1.31
4236.00,1.31
4235.00,1.31
4234.00,1.32
4233.00,1.32
4232.00,1.32
4231.00,1.32
4230.00,1.33
4229.00,1.33
4228.00,1.33
4227.00,1.33
4226.00,1.33
4225.00,1.33
4224.00,1.33
4223.00,1.33
4222.00,1.33
4221.00,1.34
4220.00,1.34
4219.00,1.34
4218.00,1.34
4217.00,1.33
4216.00,1.33
4215.00,1.33
4214.00,1.33
4213.00,1.33
4212.00,1.33
4211.00,1.33
4210.00,1.33
4209.00,1.33
4208.00,1.33
4207.00,1.33
4206.00,1.33
4205.00,1.34
4204.00,1.34
4203.00,1.34
4202.00,1.34
4201.00,1.34
4200.00,1.34
4199.00,1.34
4198.00,1.34
4197.00,1.34
4196.00,1.34
4195.00,1.34
4194.00,1.34
4193.00,1.34
4192.00,1.34
4191.00,1.34
4190.00,1.34
4189.00,1.34
4188.00,1.34
4187.00,1.34
4186.00,1.34
4185.00,1.34
4184.00,1.34
4183.00,1.34
4182.00,1.34
4181.00,1.34
4180.00,1.34
4179.00,1.34
4178.00,1.34
4177.00,1.34
4176.00,1.34
4175.00,1.34
4174.00,1.34
4173.00,1.34
4172.00,1.34
4171.00,1.34
4170.00,1.34
4169.00,1.34
4168.00,1.34
4167.00,1.35
4166.00,1.35
4165.00,1.35
4164.00,1.35
4163.00,1.35
4162.00,1.35
4161.00,1.35
4160.00,1.35
4159.00,1.35
4158.00,1.35
4157.00,1.35
4156.00,1.35
4155.00,1.35
4154.00,1.35
4153.00,1.35
4152.00,1.35
4151.00,1.35
4150.00,1.35
4149.00,1.35
4148.00,1.35
4147.00,1.35
4146.00,1.36
4145.00,1.36
4144.00,1.36
4143.00,1.36
4142.00,1.36
4141.00,1.36
4140.00,1.36
4139.00,1.36
4138.00,1.36
4137.00,1.36
4136.00,1.36
4135.00,1.36
4134.00,1.36
4133.00,1.36
4132.00,1.36
4131.00,1.36
4130.00,1.37
4129.00,1.37
4128.00,1.37
4127.00,1.37
4126.00,1.37
4125.00,1.37
4124.00,1.37
4123.00,1.37
4122.00,1.38
4121.00,1.38
4120.00,1.38
4119.00,1.38
4118.00,1.38
4117.00,1.38
4116.00,1.38
4115.00,1.38
4114.00,1.38
4113.00,1.38
4112.00,1.38
4111.00,1.38
4110.00,1.38
4109.00,1.38
4108.00,1.38
4107.00,1.38
4106.00,1.38
4105.00,1.38
4104.00,1.38
4103.00,1.38
4102.00,1.38
4101.00,1.38
4100.00,1.38
4099.00,1.38
4098.00,1.38
4097.00,1.38
4096.00,1.38
4095.00,1.38
4094.00,1.38
4093.00,1.39
4092.00,1.39
4091.00,1.39
4090.00,1.39
4089.00,1.39
4088.00,1.39
4087.00,1.39
4086.00,1.39
4085.00,1.39
4084.00,1.39
4083.00,1.39
4082.00,1.39
4081.00,1.39
4080.00,1.39
4079.00,1.39
4078.00,1.39
4077.00,1.39
4076.00,1.39
4075.00,1.39
4074.00,1.40
4073.00,1.40
4072.00,1.40
4071.00,1.40
4070.00,1.40
4069.00,1.40
4068.00,1.40
4067.00,1.40
4066.00,1.40
4065.00,1.41
4064.00,1.41
4063.00,1.41
4062.00,1.41
4061.00,1.41
4060.00,1.41
4059.00,1.41
4058.00,1.41
4057.00,1.41
4056.00,1.41
4055.00,1.41
4054.00,1.42
4053.00,1.42
4052.00,1.42
4051.00,1.42
4050.00,1.42
4049.00,1.42
4048.00,1.42
4047.00,1.42
4046.00,1.42
4045.00,1.42
4044.00,1.42
4043.00,1.42
4042.00,1.42
4041.00,1.42
4040.00,1.42
4039.00,1.42
4038.00,1.42
4037.00,1.43
4036.00,1.43
4035.00,1.43
4034.00,1.43
4033.00,1.43
4032.00,1.43
4031.00,1.43
4030.00,1.43
4029.00,1.43
4028.00,1.43
4027.00,1.43
4026.00,1.43
4025.00,1.43
4024.00,1.43
4023.00,1.43
4022.00,1.42
4021.00,1.42
4020.00,1.42
4019.00,1.42
4018.00,1.42
4017.00,1.42
4016.00,1.42
4015.00,1.42
4014.00,1.42
4013.00,1.43
4012.00,1.43
4011.00,1.43
4010.00,1.43
4009.00,1.43
4008.00,1.44
4007.00,1.44
4006.00,1.44
4005.00,1.44
4004.00,1.44
4003.00,1.44
4002.00,1.45
4001.00,1.45
4000.00,1.45
