创建为新数据集,样品 546 用户 Administrator 日期 星期一, 七月 16 2018
cm-1,%T
10000.00,1.28
9999.00,1.28
9998.00,1.28
9997.00,1.28
9996.00,1.28
9995.00,1.28
9994.00,1.28
9993.00,1.28
9992.00,1.28
9991.00,1.28
9990.00,1.28
9989.00,1.29
9988.00,1.29
9987.00,1.29
9986.00,1.29
9985.00,1.29
9984.00,1.29
9983.00,1.29
9982.00,1.29
9981.00,1.29
9980.00,1.29
9979.00,1.29
9978.00,1.29
9977.00,1.28
9976.00,1.28
9975.00,1.28
9974.00,1.28
9973.00,1.28
9972.00,1.28
9971.00,1.28
9970.00,1.28
9969.00,1.27
9968.00,1.27
9967.00,1.27
9966.00,1.27
9965.00,1.26
9964.00,1.26
9963.00,1.26
9962.00,1.26
9961.00,1.25
9960.00,1.25
9959.00,1.25
9958.00,1.25
9957.00,1.25
9956.00,1.25
9955.00,1.25
9954.00,1.25
9953.00,1.25
9952.00,1.26
9951.00,1.26
9950.00,1.26
9949.00,1.26
9948.00,1.27
9947.00,1.27
9946.00,1.27
9945.00,1.27
9944.00,1.27
9943.00,1.27
9942.00,1.27
9941.00,1.28
9940.00,1.28
9939.00,1.28
9938.00,1.28
9937.00,1.28
9936.00,1.28
9935.00,1.28
9934.00,1.28
9933.00,1.28
9932.00,1.28
9931.00,1.28
9930.00,1.28
9929.00,1.28
9928.00,1.28
9927.00,1.28
9926.00,1.28
9925.00,1.28
9924.00,1.28
9923.00,1.28
9922.00,1.28
9921.00,1.28
9920.00,1.28
9919.00,1.28
9918.00,1.27
9917.00,1.27
9916.00,1.27
9915.00,1.27
9914.00,1.26
9913.00,1.26
9912.00,1.26
9911.00,1.25
9910.00,1.25
9909.00,1.25
9908.00,1.25
9907.00,1.25
9906.00,1.24
9905.00,1.24
9904.00,1.24
9903.00,1.24
9902.00,1.24
9901.00,1.23
9900.00,1.23
9899.00,1.23
9898.00,1.23
9897.00,1.23
9896.00,1.23
9895.00,1.23
9894.00,1.23
9893.00,1.22
9892.00,1.23
9891.00,1.23
9890.00,1.23
9889.00,1.23
9888.00,1.23
9887.00,1.23
9886.00,1.24
9885.00,1.24
9884.00,1.24
9883.00,1.25
9882.00,1.25
9881.00,1.26
9880.00,1.26
9879.00,1.26
9878.00,1.27
9877.00,1.27
9876.00,1.27
9875.00,1.27
9874.00,1.28
9873.00,1.28
9872.00,1.28
9871.00,1.28
9870.00,1.28
9869.00,1.28
9868.00,1.27
9867.00,1.27
9866.00,1.27
9865.00,1.27
9864.00,1.27
9863.00,1.26
9862.00,1.26
9861.00,1.26
9860.00,1.26
9859.00,1.26
9858.00,1.25
9857.00,1.25
9856.00,1.25
9855.00,1.25
9854.00,1.24
9853.00,1.24
9852.00,1.24
9851.00,1.24
9850.00,1.24
9849.00,1.24
9848.00,1.23
9847.00,1.23
9846.00,1.23
9845.00,1.23
9844.00,1.23
9843.00,1.23
9842.00,1.23
9841.00,1.23
9840.00,1.22
9839.00,1.22
9838.00,1.22
9837.00,1.22
9836.00,1.22
9835.00,1.22
9834.00,1.22
9833.00,1.21
9832.00,1.21
9831.00,1.21
9830.00,1.21
9829.00,1.21
9828.00,1.21
9827.00,1.21
9826.00,1.21
9825.00,1.21
9824.00,1.21
9823.00,1.21
9822.00,1.21
9821.00,1.21
9820.00,1.21
9819.00,1.22
9818.00,1.22
9817.00,1.22
9816.00,1.23
9815.00,1.23
9814.00,1.23
9813.00,1.24
9812.00,1.24
9811.00,1.24
9810.00,1.25
9809.00,1.25
9808.00,1.25
9807.00,1.25
9806.00,1.25
9805.00,1.26
9804.00,1.26
9803.00,1.26
9802.00,1.26
9801.00,1.26
9800.00,1.26
9799.00,1.27
9798.00,1.27
9797.00,1.27
9796.00,1.27
9795.00,1.27
9794.00,1.28
9793.00,1.28
9792.00,1.28
9791.00,1.28
9790.00,1.28
9789.00,1.28
9788.00,1.28
9787.00,1.28
9786.00,1.28
9785.00,1.28
9784.00,1.28
9783.00,1.28
9782.00,1.28
9781.00,1.28
9780.00,1.27
9779.00,1.27
9778.00,1.27
9777.00,1.27
9776.00,1.26
9775.00,1.26
9774.00,1.26
9773.00,1.26
9772.00,1.25
9771.00,1.25
9770.00,1.25
9769.00,1.25
9768.00,1.25
9767.00,1.25
9766.00,1.25
9765.00,1.25
9764.00,1.25
9763.00,1.25
9762.00,1.25
9761.00,1.25
9760.00,1.25
9759.00,1.25
9758.00,1.25
9757.00,1.25
9756.00,1.25
9755.00,1.25
9754.00,1.25
9753.00,1.25
9752.00,1.24
9751.00,1.24
9750.00,1.24
9749.00,1.24
9748.00,1.24
9747.00,1.23
9746.00,1.23
9745.00,1.23
9744.00,1.23
9743.00,1.23
9742.00,1.23
9741.00,1.23
9740.00,1.23
9739.00,1.23
9738.00,1.23
9737.00,1.24
9736.00,1.24
9735.00,1.24
9734.00,1.24
9733.00,1.24
9732.00,1.25
9731.00,1.25
9730.00,1.25
9729.00,1.25
9728.00,1.25
9727.00,1.25
9726.00,1.25
9725.00,1.25
9724.00,1.25
9723.00,1.25
9722.00,1.25
9721.00,1.25
9720.00,1.25
9719.00,1.25
9718.00,1.25
9717.00,1.25
9716.00,1.25
9715.00,1.25
9714.00,1.24
9713.00,1.24
9712.00,1.24
9711.00,1.24
9710.00,1.24
9709.00,1.24
9708.00,1.24
9707.00,1.24
9706.00,1.24
9705.00,1.24
9704.00,1.23
9703.00,1.23
9702.00,1.24
9701.00,1.24
9700.00,1.24
9699.00,1.24
9698.00,1.24
9697.00,1.24
9696.00,1.24
9695.00,1.24
9694.00,1.25
9693.00,1.25
9692.00,1.25
9691.00,1.25
9690.00,1.25
9689.00,1.25
9688.00,1.25
9687.00,1.25
9686.00,1.25
9685.00,1.25
9684.00,1.25
9683.00,1.25
9682.00,1.25
9681.00,1.25
9680.00,1.25
9679.00,1.25
9678.00,1.25
9677.00,1.25
9676.00,1.25
9675.00,1.24
9674.00,1.24
9673.00,1.24
9672.00,1.24
9671.00,1.24
9670.00,1.24
9669.00,1.24
9668.00,1.24
9667.00,1.24
9666.00,1.24
9665.00,1.23
9664.00,1.23
9663.00,1.23
9662.00,1.23
9661.00,1.23
9660.00,1.23
9659.00,1.23
9658.00,1.23
9657.00,1.23
9656.00,1.23
9655.00,1.23
9654.00,1.23
9653.00,1.23
9652.00,1.23
9651.00,1.23
9650.00,1.23
9649.00,1.23
9648.00,1.24
9647.00,1.24
9646.00,1.24
9645.00,1.24
9644.00,1.24
9643.00,1.25
9642.00,1.25
9641.00,1.25
9640.00,1.25
9639.00,1.25
9638.00,1.25
9637.00,1.25
9636.00,1.26
9635.00,1.26
9634.00,1.26
9633.00,1.26
9632.00,1.26
9631.00,1.26
9630.00,1.25
9629.00,1.25
9628.00,1.25
9627.00,1.25
9626.00,1.25
9625.00,1.25
9624.00,1.25
9623.00,1.25
9622.00,1.25
9621.00,1.25
9620.00,1.24
9619.00,1.24
9618.00,1.24
9617.00,1.24
9616.00,1.24
9615.00,1.24
9614.00,1.24
9613.00,1.24
9612.00,1.24
9611.00,1.24
9610.00,1.24
9609.00,1.24
9608.00,1.24
9607.00,1.24
9606.00,1.24
9605.00,1.24
9604.00,1.24
9603.00,1.24
9602.00,1.24
9601.00,1.24
9600.00,1.24
9599.00,1.24
9598.00,1.24
9597.00,1.24
9596.00,1.24
9595.00,1.24
9594.00,1.24
9593.00,1.24
9592.00,1.24
9591.00,1.24
9590.00,1.24
9589.00,1.24
9588.00,1.24
9587.00,1.24
9586.00,1.24
9585.00,1.24
9584.00,1.24
9583.00,1.24
9582.00,1.24
9581.00,1.24
9580.00,1.24
9579.00,1.24
9578.00,1.24
9577.00,1.24
9576.00,1.24
9575.00,1.24
9574.00,1.24
9573.00,1.24
9572.00,1.24
9571.00,1.24
9570.00,1.23
9569.00,1.23
9568.00,1.23
9567.00,1.23
9566.00,1.23
9565.00,1.23
9564.00,1.23
9563.00,1.24
9562.00,1.24
9561.00,1.24
9560.00,1.24
9559.00,1.24
9558.00,1.24
9557.00,1.24
9556.00,1.24
9555.00,1.24
9554.00,1.24
9553.00,1.24
9552.00,1.24
9551.00,1.24
9550.00,1.24
9549.00,1.24
9548.00,1.24
9547.00,1.24
9546.00,1.24
9545.00,1.24
9544.00,1.24
9543.00,1.24
9542.00,1.24
9541.00,1.24
9540.00,1.24
9539.00,1.24
9538.00,1.24
9537.00,1.24
9536.00,1.25
9535.00,1.25
9534.00,1.25
9533.00,1.25
9532.00,1.24
9531.00,1.24
9530.00,1.24
9529.00,1.24
9528.00,1.24
9527.00,1.24
9526.00,1.24
9525.00,1.24
9524.00,1.24
9523.00,1.24
9522.00,1.23
9521.00,1.23
9520.00,1.23
9519.00,1.23
9518.00,1.23
9517.00,1.23
9516.00,1.23
9515.00,1.23
9514.00,1.23
9513.00,1.23
9512.00,1.23
9511.00,1.24
9510.00,1.24
9509.00,1.24
9508.00,1.24
9507.00,1.24
9506.00,1.24
9505.00,1.25
9504.00,1.25
9503.00,1.25
9502.00,1.25
9501.00,1.25
9500.00,1.25
9499.00,1.25
9498.00,1.25
9497.00,1.25
9496.00,1.25
9495.00,1.25
9494.00,1.25
9493.00,1.25
9492.00,1.25
9491.00,1.25
9490.00,1.24
9489.00,1.24
9488.00,1.24
9487.00,1.24
9486.00,1.24
9485.00,1.24
9484.00,1.24
9483.00,1.23
9482.00,1.23
9481.00,1.23
9480.00,1.23
9479.00,1.23
9478.00,1.23
9477.00,1.23
9476.00,1.23
9475.00,1.24
9474.00,1.24
9473.00,1.24
9472.00,1.24
9471.00,1.24
9470.00,1.24
9469.00,1.24
9468.00,1.24
9467.00,1.25
9466.00,1.25
9465.00,1.25
9464.00,1.25
9463.00,1.25
9462.00,1.25
9461.00,1.25
9460.00,1.25
9459.00,1.24
9458.00,1.24
9457.00,1.24
9456.00,1.24
9455.00,1.24
9454.00,1.23
9453.00,1.23
9452.00,1.23
9451.00,1.22
9450.00,1.22
9449.00,1.22
9448.00,1.22
9447.00,1.22
9446.00,1.22
9445.00,1.22
9444.00,1.22
9443.00,1.22
9442.00,1.22
9441.00,1.22
9440.00,1.22
9439.00,1.23
9438.00,1.23
9437.00,1.23
9436.00,1.24
9435.00,1.24
9434.00,1.24
9433.00,1.25
9432.00,1.25
9431.00,1.25
9430.00,1.26
9429.00,1.26
9428.00,1.26
9427.00,1.27
9426.00,1.27
9425.00,1.27
9424.00,1.28
9423.00,1.28
9422.00,1.28
9421.00,1.28
9420.00,1.28
9419.00,1.28
9418.00,1.28
9417.00,1.28
9416.00,1.28
9415.00,1.28
9414.00,1.28
9413.00,1.28
9412.00,1.28
9411.00,1.27
9410.00,1.27
9409.00,1.27
9408.00,1.27
9407.00,1.27
9406.00,1.26
9405.00,1.26
9404.00,1.26
9403.00,1.26
9402.00,1.25
9401.00,1.25
9400.00,1.25
9399.00,1.25
9398.00,1.25
9397.00,1.24
9396.00,1.24
9395.00,1.24
9394.00,1.24
9393.00,1.24
9392.00,1.24
9391.00,1.24
9390.00,1.23
9389.00,1.23
9388.00,1.23
9387.00,1.23
9386.00,1.23
9385.00,1.23
9384.00,1.23
9383.00,1.24
9382.00,1.24
9381.00,1.24
9380.00,1.24
9379.00,1.24
9378.00,1.24
9377.00,1.24
9376.00,1.24
9375.00,1.24
9374.00,1.24
9373.00,1.24
9372.00,1.24
9371.00,1.24
9370.00,1.24
9369.00,1.24
9368.00,1.24
9367.00,1.24
9366.00,1.24
9365.00,1.24
9364.00,1.24
9363.00,1.24
9362.00,1.24
9361.00,1.25
9360.00,1.25
9359.00,1.25
9358.00,1.25
9357.00,1.25
9356.00,1.25
9355.00,1.25
9354.00,1.25
9353.00,1.25
9352.00,1.25
9351.00,1.25
9350.00,1.26
9349.00,1.26
9348.00,1.26
9347.00,1.26
9346.00,1.26
9345.00,1.26
9344.00,1.26
9343.00,1.26
9342.00,1.26
9341.00,1.26
9340.00,1.26
9339.00,1.26
9338.00,1.26
9337.00,1.26
9336.00,1.26
9335.00,1.26
9334.00,1.26
9333.00,1.26
9332.00,1.26
9331.00,1.26
9330.00,1.26
9329.00,1.26
9328.00,1.26
9327.00,1.25
9326.00,1.25
9325.00,1.25
9324.00,1.25
9323.00,1.25
9322.00,1.25
9321.00,1.25
9320.00,1.25
9319.00,1.25
9318.00,1.25
9317.00,1.25
9316.00,1.25
9315.00,1.24
9314.00,1.24
9313.00,1.24
9312.00,1.24
9311.00,1.24
9310.00,1.24
9309.00,1.24
9308.00,1.24
9307.00,1.23
9306.00,1.23
9305.00,1.23
9304.00,1.23
9303.00,1.23
9302.00,1.23
9301.00,1.23
9300.00,1.23
9299.00,1.23
9298.00,1.23
9297.00,1.23
9296.00,1.22
9295.00,1.22
9294.00,1.22
9293.00,1.22
9292.00,1.22
9291.00,1.22
9290.00,1.22
9289.00,1.23
9288.00,1.23
9287.00,1.23
9286.00,1.23
9285.00,1.23
9284.00,1.23
9283.00,1.24
9282.00,1.24
9281.00,1.24
9280.00,1.24
9279.00,1.25
9278.00,1.25
9277.00,1.25
9276.00,1.25
9275.00,1.25
9274.00,1.26
9273.00,1.26
9272.00,1.26
9271.00,1.26
9270.00,1.26
9269.00,1.26
9268.00,1.26
9267.00,1.25
9266.00,1.25
9265.00,1.25
9264.00,1.25
9263.00,1.25
9262.00,1.25
9261.00,1.25
9260.00,1.25
9259.00,1.25
9258.00,1.25
9257.00,1.25
9256.00,1.25
9255.00,1.25
9254.00,1.25
9253.00,1.25
9252.00,1.25
9251.00,1.25
9250.00,1.26
9249.00,1.26
9248.00,1.26
9247.00,1.26
9246.00,1.26
9245.00,1.26
9244.00,1.27
9243.00,1.27
9242.00,1.27
9241.00,1.27
9240.00,1.27
9239.00,1.27
9238.00,1.28
9237.00,1.28
9236.00,1.28
9235.00,1.28
9234.00,1.28
9233.00,1.28
9232.00,1.28
9231.00,1.28
9230.00,1.28
9229.00,1.27
9228.00,1.27
9227.00,1.27
9226.00,1.27
9225.00,1.27
9224.00,1.27
9223.00,1.27
9222.00,1.26
9221.00,1.26
9220.00,1.26
9219.00,1.26
9218.00,1.26
9217.00,1.26
9216.00,1.26
9215.00,1.26
9214.00,1.26
9213.00,1.26
9212.00,1.26
9211.00,1.26
9210.00,1.26
9209.00,1.26
9208.00,1.26
9207.00,1.26
9206.00,1.26
9205.00,1.26
9204.00,1.25
9203.00,1.25
9202.00,1.25
9201.00,1.25
9200.00,1.25
9199.00,1.25
9198.00,1.25
9197.00,1.25
9196.00,1.25
9195.00,1.25
9194.00,1.24
9193.00,1.24
9192.00,1.24
9191.00,1.24
9190.00,1.24
9189.00,1.24
9188.00,1.24
9187.00,1.23
9186.00,1.23
9185.00,1.23
9184.00,1.23
9183.00,1.23
9182.00,1.23
9181.00,1.22
9180.00,1.22
9179.00,1.22
9178.00,1.22
9177.00,1.22
9176.00,1.22
9175.00,1.22
9174.00,1.22
9173.00,1.23
9172.00,1.23
9171.00,1.23
9170.00,1.23
9169.00,1.23
9168.00,1.24
9167.00,1.24
9166.00,1.24
9165.00,1.25
9164.00,1.25
9163.00,1.25
9162.00,1.25
9161.00,1.25
9160.00,1.25
9159.00,1.26
9158.00,1.26
9157.00,1.26
9156.00,1.25
9155.00,1.25
9154.00,1.25
9153.00,1.25
9152.00,1.25
9151.00,1.25
9150.00,1.25
9149.00,1.25
9148.00,1.25
9147.00,1.25
9146.00,1.25
9145.00,1.25
9144.00,1.25
9143.00,1.25
9142.00,1.25
9141.00,1.25
9140.00,1.25
9139.00,1.26
9138.00,1.26
9137.00,1.26
9136.00,1.26
9135.00,1.27
9134.00,1.27
9133.00,1.27
9132.00,1.27
9131.00,1.28
9130.00,1.28
9129.00,1.28
9128.00,1.28
9127.00,1.28
9126.00,1.28
9125.00,1.28
9124.00,1.28
9123.00,1.28
9122.00,1.28
9121.00,1.28
9120.00,1.27
9119.00,1.27
9118.00,1.27
9117.00,1.27
9116.00,1.27
9115.00,1.26
9114.00,1.26
9113.00,1.26
9112.00,1.26
9111.00,1.26
9110.00,1.26
9109.00,1.26
9108.00,1.26
9107.00,1.26
9106.00,1.26
9105.00,1.26
9104.00,1.26
9103.00,1.26
9102.00,1.26
9101.00,1.27
9100.00,1.27
9099.00,1.27
9098.00,1.27
9097.00,1.27
9096.00,1.27
9095.00,1.27
9094.00,1.27
9093.00,1.27
9092.00,1.27
9091.00,1.28
9090.00,1.28
9089.00,1.28
9088.00,1.28
9087.00,1.28
9086.00,1.28
9085.00,1.28
9084.00,1.28
9083.00,1.28
9082.00,1.28
9081.00,1.28
9080.00,1.28
9079.00,1.28
9078.00,1.28
9077.00,1.27
9076.00,1.27
9075.00,1.27
9074.00,1.27
9073.00,1.27
9072.00,1.26
9071.00,1.26
9070.00,1.26
9069.00,1.26
9068.00,1.26
9067.00,1.26
9066.00,1.26
9065.00,1.25
9064.00,1.25
9063.00,1.25
9062.00,1.25
9061.00,1.25
9060.00,1.25
9059.00,1.25
9058.00,1.25
9057.00,1.25
9056.00,1.26
9055.00,1.26
9054.00,1.26
9053.00,1.26
9052.00,1.26
9051.00,1.26
9050.00,1.26
9049.00,1.26
9048.00,1.26
9047.00,1.26
9046.00,1.26
9045.00,1.26
9044.00,1.26
9043.00,1.27
9042.00,1.27
9041.00,1.27
9040.00,1.27
9039.00,1.27
9038.00,1.27
9037.00,1.27
9036.00,1.28
9035.00,1.28
9034.00,1.28
9033.00,1.28
9032.00,1.28
9031.00,1.28
9030.00,1.28
9029.00,1.28
9028.00,1.28
9027.00,1.27
9026.00,1.27
9025.00,1.27
9024.00,1.27
9023.00,1.27
9022.00,1.27
9021.00,1.27
9020.00,1.27
9019.00,1.27
9018.00,1.26
9017.00,1.26
9016.00,1.26
9015.00,1.26
9014.00,1.26
9013.00,1.26
9012.00,1.26
9011.00,1.26
9010.00,1.26
9009.00,1.26
9008.00,1.26
9007.00,1.26
9006.00,1.26
9005.00,1.26
9004.00,1.26
9003.00,1.26
9002.00,1.26
9001.00,1.26
9000.00,1.26
8999.00,1.26
8998.00,1.26
8997.00,1.26
8996.00,1.26
8995.00,1.26
8994.00,1.26
8993.00,1.26
8992.00,1.26
8991.00,1.26
8990.00,1.26
8989.00,1.26
8988.00,1.26
8987.00,1.26
8986.00,1.26
8985.00,1.27
8984.00,1.27
8983.00,1.27
8982.00,1.27
8981.00,1.26
8980.00,1.26
8979.00,1.26
8978.00,1.26
8977.00,1.26
8976.00,1.26
8975.00,1.26
8974.00,1.26
8973.00,1.26
8972.00,1.26
8971.00,1.26
8970.00,1.26
8969.00,1.26
8968.00,1.26
8967.00,1.26
8966.00,1.26
8965.00,1.25
8964.00,1.26
8963.00,1.26
8962.00,1.26
8961.00,1.26
8960.00,1.26
8959.00,1.26
8958.00,1.26
8957.00,1.26
8956.00,1.27
8955.00,1.27
8954.00,1.27
8953.00,1.27
8952.00,1.27
8951.00,1.28
8950.00,1.28
8949.00,1.28
8948.00,1.28
8947.00,1.28
8946.00,1.28
8945.00,1.28
8944.00,1.28
8943.00,1.28
8942.00,1.28
8941.00,1.28
8940.00,1.28
8939.00,1.28
8938.00,1.28
8937.00,1.28
8936.00,1.28
8935.00,1.28
8934.00,1.28
8933.00,1.28
8932.00,1.28
8931.00,1.28
8930.00,1.28
8929.00,1.28
8928.00,1.28
8927.00,1.28
8926.00,1.28
8925.00,1.28
8924.00,1.28
8923.00,1.28
8922.00,1.28
8921.00,1.28
8920.00,1.28
8919.00,1.28
8918.00,1.28
8917.00,1.28
8916.00,1.28
8915.00,1.28
8914.00,1.28
8913.00,1.28
8912.00,1.28
8911.00,1.27
8910.00,1.27
8909.00,1.27
8908.00,1.27
8907.00,1.27
8906.00,1.27
8905.00,1.27
8904.00,1.26
8903.00,1.26
8902.00,1.26
8901.00,1.26
8900.00,1.26
8899.00,1.25
8898.00,1.25
8897.00,1.25
8896.00,1.25
8895.00,1.25
8894.00,1.25
8893.00,1.25
8892.00,1.25
8891.00,1.25
8890.00,1.25
8889.00,1.25
8888.00,1.25
8887.00,1.25
8886.00,1.25
8885.00,1.25
8884.00,1.25
8883.00,1.25
8882.00,1.25
8881.00,1.26
8880.00,1.26
8879.00,1.26
8878.00,1.26
8877.00,1.26
8876.00,1.26
8875.00,1.26
8874.00,1.26
8873.00,1.26
8872.00,1.26
8871.00,1.26
8870.00,1.26
8869.00,1.26
8868.00,1.26
8867.00,1.26
8866.00,1.26
8865.00,1.26
8864.00,1.26
8863.00,1.26
8862.00,1.26
8861.00,1.26
8860.00,1.25
8859.00,1.25
8858.00,1.25
8857.00,1.25
8856.00,1.25
8855.00,1.25
8854.00,1.25
8853.00,1.25
8852.00,1.24
8851.00,1.24
8850.00,1.24
8849.00,1.24
8848.00,1.24
8847.00,1.24
8846.00,1.24
8845.00,1.24
8844.00,1.24
8843.00,1.24
8842.00,1.24
8841.00,1.24
8840.00,1.24
8839.00,1.24
8838.00,1.24
8837.00,1.24
8836.00,1.24
8835.00,1.24
8834.00,1.25
8833.00,1.25
8832.00,1.25
8831.00,1.25
8830.00,1.25
8829.00,1.25
8828.00,1.25
8827.00,1.26
8826.00,1.26
8825.00,1.26
8824.00,1.26
8823.00,1.26
8822.00,1.26
8821.00,1.25
8820.00,1.25
8819.00,1.25
8818.00,1.25
8817.00,1.25
8816.00,1.25
8815.00,1.25
8814.00,1.25
8813.00,1.25
8812.00,1.25
8811.00,1.25
8810.00,1.25
8809.00,1.25
8808.00,1.25
8807.00,1.25
8806.00,1.25
8805.00,1.25
8804.00,1.25
8803.00,1.25
8802.00,1.25
8801.00,1.25
8800.00,1.25
8799.00,1.25
8798.00,1.25
8797.00,1.25
8796.00,1.25
8795.00,1.25
8794.00,1.25
8793.00,1.25
8792.00,1.25
8791.00,1.24
8790.00,1.24
8789.00,1.24
8788.00,1.24
8787.00,1.24
8786.00,1.24
8785.00,1.24
8784.00,1.23
8783.00,1.23
8782.00,1.23
8781.00,1.23
8780.00,1.23
8779.00,1.23
8778.00,1.23
8777.00,1.23
8776.00,1.23
8775.00,1.23
8774.00,1.23
8773.00,1.23
8772.00,1.23
8771.00,1.23
8770.00,1.23
8769.00,1.23
8768.00,1.23
8767.00,1.23
8766.00,1.23
8765.00,1.23
8764.00,1.23
8763.00,1.23
8762.00,1.23
8761.00,1.23
8760.00,1.23
8759.00,1.23
8758.00,1.23
8757.00,1.23
8756.00,1.23
8755.00,1.22
8754.00,1.22
8753.00,1.22
8752.00,1.22
8751.00,1.22
8750.00,1.22
8749.00,1.22
8748.00,1.22
8747.00,1.21
8746.00,1.21
8745.00,1.21
8744.00,1.21
8743.00,1.21
8742.00,1.21
8741.00,1.21
8740.00,1.21
8739.00,1.21
8738.00,1.21
8737.00,1.21
8736.00,1.21
8735.00,1.21
8734.00,1.21
8733.00,1.21
8732.00,1.21
8731.00,1.21
8730.00,1.21
8729.00,1.21
8728.00,1.21
8727.00,1.21
8726.00,1.21
8725.00,1.21
8724.00,1.21
8723.00,1.21
8722.00,1.21
8721.00,1.21
8720.00,1.21
8719.00,1.20
8718.00,1.20
8717.00,1.20
8716.00,1.20
8715.00,1.20
8714.00,1.20
8713.00,1.20
8712.00,1.20
8711.00,1.20
8710.00,1.20
8709.00,1.20
8708.00,1.20
8707.00,1.20
8706.00,1.20
8705.00,1.20
8704.00,1.20
8703.00,1.20
8702.00,1.20
8701.00,1.20
8700.00,1.20
8699.00,1.19
8698.00,1.19
8697.00,1.19
8696.00,1.19
8695.00,1.19
8694.00,1.19
8693.00,1.19
8692.00,1.19
8691.00,1.19
8690.00,1.19
8689.00,1.19
8688.00,1.19
8687.00,1.20
8686.00,1.20
8685.00,1.20
8684.00,1.20
8683.00,1.20
8682.00,1.20
8681.00,1.20
8680.00,1.20
8679.00,1.20
8678.00,1.20
8677.00,1.20
8676.00,1.20
8675.00,1.20
8674.00,1.20
8673.00,1.20
8672.00,1.20
8671.00,1.20
8670.00,1.20
8669.00,1.20
8668.00,1.20
8667.00,1.20
8666.00,1.19
8665.00,1.19
8664.00,1.19
8663.00,1.19
8662.00,1.19
8661.00,1.19
8660.00,1.19
8659.00,1.19
8658.00,1.19
8657.00,1.19
8656.00,1.19
8655.00,1.19
8654.00,1.19
8653.00,1.19
8652.00,1.19
8651.00,1.19
8650.00,1.19
8649.00,1.19
8648.00,1.19
8647.00,1.19
8646.00,1.19
8645.00,1.19
8644.00,1.19
8643.00,1.19
8642.00,1.19
8641.00,1.19
8640.00,1.19
8639.00,1.19
8638.00,1.20
8637.00,1.20
8636.00,1.20
8635.00,1.20
8634.00,1.20
8633.00,1.20
8632.00,1.20
8631.00,1.20
8630.00,1.20
8629.00,1.20
8628.00,1.20
8627.00,1.19
8626.00,1.19
8625.00,1.19
8624.00,1.19
8623.00,1.19
8622.00,1.19
8621.00,1.19
8620.00,1.19
8619.00,1.19
8618.00,1.19
8617.00,1.19
8616.00,1.19
8615.00,1.19
8614.00,1.19
8613.00,1.19
8612.00,1.19
8611.00,1.19
8610.00,1.18
8609.00,1.18
8608.00,1.18
8607.00,1.18
8606.00,1.18
8605.00,1.18
8604.00,1.18
8603.00,1.18
8602.00,1.18
8601.00,1.18
8600.00,1.17
8599.00,1.17
8598.00,1.17
8597.00,1.17
8596.00,1.17
8595.00,1.17
8594.00,1.17
8593.00,1.17
8592.00,1.18
8591.00,1.18
8590.00,1.18
8589.00,1.18
8588.00,1.18
8587.00,1.18
8586.00,1.18
8585.00,1.18
8584.00,1.18
8583.00,1.18
8582.00,1.18
8581.00,1.18
8580.00,1.18
8579.00,1.18
8578.00,1.18
8577.00,1.18
8576.00,1.18
8575.00,1.18
8574.00,1.18
8573.00,1.17
8572.00,1.17
8571.00,1.17
8570.00,1.17
8569.00,1.17
8568.00,1.17
8567.00,1.16
8566.00,1.16
8565.00,1.16
8564.00,1.16
8563.00,1.16
8562.00,1.16
8561.00,1.16
8560.00,1.15
8559.00,1.15
8558.00,1.15
8557.00,1.15
8556.00,1.15
8555.00,1.15
8554.00,1.15
8553.00,1.15
8552.00,1.15
8551.00,1.15
8550.00,1.15
8549.00,1.15
8548.00,1.15
8547.00,1.15
8546.00,1.15
8545.00,1.15
8544.00,1.15
8543.00,1.15
8542.00,1.15
8541.00,1.15
8540.00,1.15
8539.00,1.15
8538.00,1.15
8537.00,1.15
8536.00,1.15
8535.00,1.15
8534.00,1.15
8533.00,1.15
8532.00,1.15
8531.00,1.15
8530.00,1.15
8529.00,1.15
8528.00,1.15
8527.00,1.15
8526.00,1.15
8525.00,1.15
8524.00,1.15
8523.00,1.14
8522.00,1.14
8521.00,1.14
8520.00,1.14
8519.00,1.14
8518.00,1.14
8517.00,1.14
8516.00,1.13
8515.00,1.13
8514.00,1.13
8513.00,1.13
8512.00,1.13
8511.00,1.13
8510.00,1.12
8509.00,1.12
8508.00,1.12
8507.00,1.12
8506.00,1.12
8505.00,1.12
8504.00,1.12
8503.00,1.12
8502.00,1.12
8501.00,1.12
8500.00,1.12
8499.00,1.12
8498.00,1.12
8497.00,1.12
8496.00,1.12
8495.00,1.12
8494.00,1.12
8493.00,1.12
8492.00,1.12
8491.00,1.12
8490.00,1.12
8489.00,1.12
8488.00,1.12
8487.00,1.12
8486.00,1.12
8485.00,1.12
8484.00,1.12
8483.00,1.11
8482.00,1.11
8481.00,1.11
8480.00,1.11
8479.00,1.11
8478.00,1.11
8477.00,1.11
8476.00,1.11
8475.00,1.11
8474.00,1.11
8473.00,1.11
8472.00,1.11
8471.00,1.11
8470.00,1.11
8469.00,1.11
8468.00,1.11
8467.00,1.11
8466.00,1.11
8465.00,1.11
8464.00,1.11
8463.00,1.11
8462.00,1.11
8461.00,1.11
8460.00,1.11
8459.00,1.11
8458.00,1.11
8457.00,1.11
8456.00,1.10
8455.00,1.10
8454.00,1.10
8453.00,1.10
8452.00,1.10
8451.00,1.10
8450.00,1.10
8449.00,1.10
8448.00,1.10
8447.00,1.10
8446.00,1.09
8445.00,1.09
8444.00,1.09
8443.00,1.09
8442.00,1.09
8441.00,1.09
8440.00,1.10
8439.00,1.10
8438.00,1.10
8437.00,1.10
8436.00,1.10
8435.00,1.10
8434.00,1.10
8433.00,1.10
8432.00,1.10
8431.00,1.10
8430.00,1.10
8429.00,1.10
8428.00,1.10
8427.00,1.10
8426.00,1.10
8425.00,1.10
8424.00,1.10
8423.00,1.10
8422.00,1.10
8421.00,1.10
8420.00,1.10
8419.00,1.10
8418.00,1.10
8417.00,1.10
8416.00,1.10
8415.00,1.10
8414.00,1.10
8413.00,1.10
8412.00,1.10
8411.00,1.10
8410.00,1.10
8409.00,1.10
8408.00,1.10
8407.00,1.10
8406.00,1.10
8405.00,1.10
8404.00,1.11
8403.00,1.11
8402.00,1.11
8401.00,1.11
8400.00,1.11
8399.00,1.12
8398.00,1.12
8397.00,1.12
8396.00,1.12
8395.00,1.13
8394.00,1.13
8393.00,1.13
8392.00,1.13
8391.00,1.13
8390.00,1.13
8389.00,1.14
8388.00,1.14
8387.00,1.14
8386.00,1.14
8385.00,1.14
8384.00,1.14
8383.00,1.14
8382.00,1.14
8381.00,1.14
8380.00,1.14
8379.00,1.14
8378.00,1.14
8377.00,1.14
8376.00,1.14
8375.00,1.13
8374.00,1.13
8373.00,1.13
8372.00,1.13
8371.00,1.13
8370.00,1.13
8369.00,1.13
8368.00,1.13
8367.00,1.13
8366.00,1.13
8365.00,1.13
8364.00,1.13
8363.00,1.13
8362.00,1.13
8361.00,1.13
8360.00,1.13
8359.00,1.14
8358.00,1.14
8357.00,1.14
8356.00,1.14
8355.00,1.14
8354.00,1.14
8353.00,1.14
8352.00,1.14
8351.00,1.14
8350.00,1.14
8349.00,1.14
8348.00,1.14
8347.00,1.15
8346.00,1.15
8345.00,1.15
8344.00,1.15
8343.00,1.15
8342.00,1.15
8341.00,1.15
8340.00,1.15
8339.00,1.15
8338.00,1.15
8337.00,1.15
8336.00,1.15
8335.00,1.15
8334.00,1.15
8333.00,1.15
8332.00,1.15
8331.00,1.15
8330.00,1.15
8329.00,1.15
8328.00,1.15
8327.00,1.15
8326.00,1.15
8325.00,1.15
8324.00,1.15
8323.00,1.15
8322.00,1.14
8321.00,1.14
8320.00,1.14
8319.00,1.14
8318.00,1.14
8317.00,1.14
8316.00,1.14
8315.00,1.14
8314.00,1.14
8313.00,1.14
8312.00,1.14
8311.00,1.14
8310.00,1.14
8309.00,1.14
8308.00,1.14
8307.00,1.14
8306.00,1.14
8305.00,1.14
8304.00,1.14
8303.00,1.14
8302.00,1.14
8301.00,1.14
8300.00,1.14
8299.00,1.14
8298.00,1.14
8297.00,1.14
8296.00,1.14
8295.00,1.14
8294.00,1.14
8293.00,1.14
8292.00,1.14
8291.00,1.14
8290.00,1.14
8289.00,1.15
8288.00,1.15
8287.00,1.15
8286.00,1.15
8285.00,1.15
8284.00,1.15
8283.00,1.15
8282.00,1.15
8281.00,1.15
8280.00,1.15
8279.00,1.16
8278.00,1.16
8277.00,1.16
8276.00,1.16
8275.00,1.16
8274.00,1.16
8273.00,1.16
8272.00,1.16
8271.00,1.16
8270.00,1.16
8269.00,1.16
8268.00,1.16
8267.00,1.16
8266.00,1.16
8265.00,1.16
8264.00,1.16
8263.00,1.16
8262.00,1.16
8261.00,1.16
8260.00,1.16
8259.00,1.16
8258.00,1.16
8257.00,1.16
8256.00,1.16
8255.00,1.16
8254.00,1.16
8253.00,1.17
8252.00,1.17
8251.00,1.17
8250.00,1.17
8249.00,1.17
8248.00,1.17
8247.00,1.17
8246.00,1.17
8245.00,1.17
8244.00,1.17
8243.00,1.17
8242.00,1.17
8241.00,1.17
8240.00,1.17
8239.00,1.17
8238.00,1.17
8237.00,1.17
8236.00,1.17
8235.00,1.17
8234.00,1.17
8233.00,1.17
8232.00,1.17
8231.00,1.17
8230.00,1.17
8229.00,1.17
8228.00,1.17
8227.00,1.17
8226.00,1.17
8225.00,1.17
8224.00,1.17
8223.00,1.17
8222.00,1.17
8221.00,1.17
8220.00,1.17
8219.00,1.17
8218.00,1.17
8217.00,1.17
8216.00,1.17
8215.00,1.17
8214.00,1.17
8213.00,1.17
8212.00,1.18
8211.00,1.18
8210.00,1.18
8209.00,1.18
8208.00,1.18
8207.00,1.18
8206.00,1.18
8205.00,1.18
8204.00,1.18
8203.00,1.18
8202.00,1.18
8201.00,1.18
8200.00,1.18
8199.00,1.18
8198.00,1.19
8197.00,1.19
8196.00,1.19
8195.00,1.19
8194.00,1.19
8193.00,1.19
8192.00,1.19
8191.00,1.19
8190.00,1.19
8189.00,1.19
8188.00,1.19
8187.00,1.19
8186.00,1.19
8185.00,1.19
8184.00,1.20
8183.00,1.20
8182.00,1.20
8181.00,1.20
8180.00,1.20
8179.00,1.20
8178.00,1.20
8177.00,1.20
8176.00,1.20
8175.00,1.20
8174.00,1.20
8173.00,1.20
8172.00,1.20
8171.00,1.20
8170.00,1.20
8169.00,1.20
8168.00,1.20
8167.00,1.19
8166.00,1.19
8165.00,1.19
8164.00,1.19
8163.00,1.19
8162.00,1.19
8161.00,1.19
8160.00,1.19
8159.00,1.19
8158.00,1.19
8157.00,1.19
8156.00,1.19
8155.00,1.19
8154.00,1.19
8153.00,1.19
8152.00,1.19
8151.00,1.19
8150.00,1.19
8149.00,1.19
8148.00,1.19
8147.00,1.19
8146.00,1.19
8145.00,1.19
8144.00,1.19
8143.00,1.19
8142.00,1.19
8141.00,1.19
8140.00,1.19
8139.00,1.19
8138.00,1.19
8137.00,1.19
8136.00,1.19
8135.00,1.20
8134.00,1.20
8133.00,1.20
8132.00,1.20
8131.00,1.20
8130.00,1.20
8129.00,1.20
8128.00,1.20
8127.00,1.21
8126.00,1.21
8125.00,1.21
8124.00,1.21
8123.00,1.21
8122.00,1.21
8121.00,1.21
8120.00,1.22
8119.00,1.22
8118.00,1.22
8117.00,1.22
8116.00,1.22
8115.00,1.22
8114.00,1.22
8113.00,1.22
8112.00,1.22
8111.00,1.22
8110.00,1.22
8109.00,1.22
8108.00,1.22
8107.00,1.22
8106.00,1.22
8105.00,1.21
8104.00,1.21
8103.00,1.21
8102.00,1.21
8101.00,1.21
8100.00,1.21
8099.00,1.21
8098.00,1.21
8097.00,1.21
8096.00,1.21
8095.00,1.21
8094.00,1.21
8093.00,1.22
8092.00,1.22
8091.00,1.22
8090.00,1.22
8089.00,1.22
8088.00,1.22
8087.00,1.22
8086.00,1.22
8085.00,1.22
8084.00,1.22
8083.00,1.22
8082.00,1.22
8081.00,1.22
8080.00,1.22
8079.00,1.22
8078.00,1.22
8077.00,1.22
8076.00,1.22
8075.00,1.22
8074.00,1.22
8073.00,1.22
8072.00,1.22
8071.00,1.22
8070.00,1.23
8069.00,1.23
8068.00,1.23
8067.00,1.23
8066.00,1.23
8065.00,1.23
8064.00,1.23
8063.00,1.23
8062.00,1.24
8061.00,1.24
8060.00,1.24
8059.00,1.24
8058.00,1.24
8057.00,1.24
8056.00,1.24
8055.00,1.24
8054.00,1.24
8053.00,1.24
8052.00,1.24
8051.00,1.24
8050.00,1.24
8049.00,1.24
8048.00,1.24
8047.00,1.24
8046.00,1.24
8045.00,1.24
8044.00,1.24
8043.00,1.24
8042.00,1.24
8041.00,1.24
8040.00,1.24
8039.00,1.24
8038.00,1.24
8037.00,1.24
8036.00,1.24
8035.00,1.24
8034.00,1.24
8033.00,1.24
8032.00,1.24
8031.00,1.24
8030.00,1.24
8029.00,1.24
8028.00,1.24
8027.00,1.24
8026.00,1.24
8025.00,1.24
8024.00,1.24
8023.00,1.24
8022.00,1.24
8021.00,1.24
8020.00,1.24
8019.00,1.25
8018.00,1.25
8017.00,1.25
8016.00,1.25
8015.00,1.25
8014.00,1.25
8013.00,1.25
8012.00,1.25
8011.00,1.25
8010.00,1.25
8009.00,1.25
8008.00,1.25
8007.00,1.25
8006.00,1.25
8005.00,1.25
8004.00,1.25
8003.00,1.25
8002.00,1.25
8001.00,1.25
8000.00,1.25
7999.00,1.25
7998.00,1.25
7997.00,1.25
7996.00,1.25
7995.00,1.25
7994.00,1.25
7993.00,1.25
7992.00,1.25
7991.00,1.25
7990.00,1.25
7989.00,1.25
7988.00,1.25
7987.00,1.25
7986.00,1.25
7985.00,1.25
7984.00,1.25
7983.00,1.25
7982.00,1.25
7981.00,1.25
7980.00,1.25
7979.00,1.25
7978.00,1.25
7977.00,1.25
7976.00,1.25
7975.00,1.25
7974.00,1.25
7973.00,1.25
7972.00,1.25
7971.00,1.25
7970.00,1.25
7969.00,1.25
7968.00,1.25
7967.00,1.25
7966.00,1.25
7965.00,1.25
7964.00,1.25
7963.00,1.25
7962.00,1.25
7961.00,1.25
7960.00,1.25
7959.00,1.25
7958.00,1.25
7957.00,1.25
7956.00,1.25
7955.00,1.25
7954.00,1.25
7953.00,1.25
7952.00,1.25
7951.00,1.25
7950.00,1.25
7949.00,1.25
7948.00,1.24
7947.00,1.24
7946.00,1.24
7945.00,1.24
7944.00,1.24
7943.00,1.24
7942.00,1.24
7941.00,1.24
7940.00,1.24
7939.00,1.24
7938.00,1.24
7937.00,1.24
7936.00,1.24
7935.00,1.24
7934.00,1.24
7933.00,1.24
7932.00,1.24
7931.00,1.24
7930.00,1.24
7929.00,1.24
7928.00,1.24
7927.00,1.24
7926.00,1.24
7925.00,1.24
7924.00,1.24
7923.00,1.24
7922.00,1.24
7921.00,1.25
7920.00,1.25
7919.00,1.25
7918.00,1.25
7917.00,1.25
7916.00,1.25
7915.00,1.25
7914.00,1.26
7913.00,1.26
7912.00,1.26
7911.00,1.26
7910.00,1.26
7909.00,1.26
7908.00,1.26
7907.00,1.26
7906.00,1.26
7905.00,1.26
7904.00,1.26
7903.00,1.26
7902.00,1.26
7901.00,1.26
7900.00,1.26
7899.00,1.26
7898.00,1.26
7897.00,1.26
7896.00,1.26
7895.00,1.26
7894.00,1.26
7893.00,1.26
7892.00,1.26
7891.00,1.26
7890.00,1.26
7889.00,1.26
7888.00,1.26
7887.00,1.26
7886.00,1.26
7885.00,1.26
7884.00,1.26
7883.00,1.26
7882.00,1.26
7881.00,1.26
7880.00,1.26
7879.00,1.26
7878.00,1.26
7877.00,1.26
7876.00,1.26
7875.00,1.26
7874.00,1.26
7873.00,1.26
7872.00,1.26
7871.00,1.26
7870.00,1.26
7869.00,1.25
7868.00,1.25
7867.00,1.25
7866.00,1.25
7865.00,1.25
7864.00,1.25
7863.00,1.25
7862.00,1.25
7861.00,1.25
7860.00,1.25
7859.00,1.25
7858.00,1.25
7857.00,1.25
7856.00,1.25
7855.00,1.25
7854.00,1.25
7853.00,1.25
7852.00,1.25
7851.00,1.25
7850.00,1.25
7849.00,1.25
7848.00,1.26
7847.00,1.26
7846.00,1.26
7845.00,1.26
7844.00,1.26
7843.00,1.26
7842.00,1.26
7841.00,1.26
7840.00,1.26
7839.00,1.26
7838.00,1.26
7837.00,1.26
7836.00,1.27
7835.00,1.27
7834.00,1.27
7833.00,1.27
7832.00,1.27
7831.00,1.27
7830.00,1.27
7829.00,1.27
7828.00,1.27
7827.00,1.27
7826.00,1.27
7825.00,1.27
7824.00,1.27
7823.00,1.27
7822.00,1.28
7821.00,1.28
7820.00,1.28
7819.00,1.28
7818.00,1.28
7817.00,1.28
7816.00,1.27
7815.00,1.27
7814.00,1.27
7813.00,1.27
7812.00,1.27
7811.00,1.27
7810.00,1.27
7809.00,1.27
7808.00,1.27
7807.00,1.27
7806.00,1.27
7805.00,1.27
7804.00,1.27
7803.00,1.27
7802.00,1.27
7801.00,1.27
7800.00,1.27
7799.00,1.27
7798.00,1.27
7797.00,1.27
7796.00,1.27
7795.00,1.27
7794.00,1.27
7793.00,1.27
7792.00,1.27
7791.00,1.27
7790.00,1.27
7789.00,1.27
7788.00,1.27
7787.00,1.27
7786.00,1.28
7785.00,1.28
7784.00,1.28
7783.00,1.28
7782.00,1.28
7781.00,1.28
7780.00,1.28
7779.00,1.28
7778.00,1.28
7777.00,1.28
7776.00,1.28
7775.00,1.28
7774.00,1.28
7773.00,1.28
7772.00,1.28
7771.00,1.28
7770.00,1.28
7769.00,1.28
7768.00,1.28
7767.00,1.28
7766.00,1.28
7765.00,1.28
7764.00,1.28
7763.00,1.28
7762.00,1.28
7761.00,1.28
7760.00,1.28
7759.00,1.28
7758.00,1.28
7757.00,1.28
7756.00,1.28
7755.00,1.28
7754.00,1.28
7753.00,1.28
7752.00,1.28
7751.00,1.28
7750.00,1.28
7749.00,1.28
7748.00,1.28
7747.00,1.28
7746.00,1.28
7745.00,1.28
7744.00,1.28
7743.00,1.28
7742.00,1.28
7741.00,1.28
7740.00,1.28
7739.00,1.28
7738.00,1.28
7737.00,1.28
7736.00,1.28
7735.00,1.28
7734.00,1.28
7733.00,1.28
7732.00,1.28
7731.00,1.28
7730.00,1.28
7729.00,1.28
7728.00,1.28
7727.00,1.28
7726.00,1.28
7725.00,1.28
7724.00,1.28
7723.00,1.28
7722.00,1.28
7721.00,1.28
7720.00,1.28
7719.00,1.28
7718.00,1.28
7717.00,1.28
7716.00,1.28
7715.00,1.28
7714.00,1.28
7713.00,1.28
7712.00,1.28
7711.00,1.28
7710.00,1.28
7709.00,1.28
7708.00,1.28
7707.00,1.28
7706.00,1.28
7705.00,1.28
7704.00,1.28
7703.00,1.28
7702.00,1.28
7701.00,1.28
7700.00,1.28
7699.00,1.28
7698.00,1.28
7697.00,1.28
7696.00,1.28
7695.00,1.28
7694.00,1.28
7693.00,1.28
7692.00,1.28
7691.00,1.28
7690.00,1.28
7689.00,1.28
7688.00,1.28
7687.00,1.28
7686.00,1.28
7685.00,1.28
7684.00,1.28
7683.00,1.28
7682.00,1.28
7681.00,1.28
7680.00,1.28
7679.00,1.28
7678.00,1.28
7677.00,1.28
7676.00,1.28
7675.00,1.28
7674.00,1.28
7673.00,1.28
7672.00,1.28
7671.00,1.28
7670.00,1.28
7669.00,1.28
7668.00,1.28
7667.00,1.28
7666.00,1.28
7665.00,1.28
7664.00,1.28
7663.00,1.28
7662.00,1.28
7661.00,1.28
7660.00,1.28
7659.00,1.28
7658.00,1.28
7657.00,1.28
7656.00,1.28
7655.00,1.28
7654.00,1.28
7653.00,1.28
7652.00,1.28
7651.00,1.28
7650.00,1.28
7649.00,1.28
7648.00,1.28
7647.00,1.28
7646.00,1.28
7645.00,1.28
7644.00,1.28
7643.00,1.28
7642.00,1.28
7641.00,1.28
7640.00,1.28
7639.00,1.28
7638.00,1.28
7637.00,1.28
7636.00,1.28
7635.00,1.28
7634.00,1.28
7633.00,1.28
7632.00,1.28
7631.00,1.28
7630.00,1.28
7629.00,1.28
7628.00,1.28
7627.00,1.28
7626.00,1.28
7625.00,1.28
7624.00,1.28
7623.00,1.28
7622.00,1.28
7621.00,1.28
7620.00,1.28
7619.00,1.28
7618.00,1.28
7617.00,1.28
7616.00,1.28
7615.00,1.28
7614.00,1.28
7613.00,1.28
7612.00,1.28
7611.00,1.28
7610.00,1.28
7609.00,1.28
7608.00,1.28
7607.00,1.28
7606.00,1.28
7605.00,1.28
7604.00,1.28
7603.00,1.28
7602.00,1.28
7601.00,1.28
7600.00,1.28
7599.00,1.28
7598.00,1.28
7597.00,1.28
7596.00,1.28
7595.00,1.28
7594.00,1.28
7593.00,1.28
7592.00,1.28
7591.00,1.28
7590.00,1.28
7589.00,1.28
7588.00,1.28
7587.00,1.28
7586.00,1.28
7585.00,1.28
7584.00,1.28
7583.00,1.28
7582.00,1.28
7581.00,1.28
7580.00,1.28
7579.00,1.28
7578.00,1.28
7577.00,1.28
7576.00,1.28
7575.00,1.28
7574.00,1.28
7573.00,1.28
7572.00,1.28
7571.00,1.28
7570.00,1.28
7569.00,1.28
7568.00,1.28
7567.00,1.28
7566.00,1.28
7565.00,1.28
7564.00,1.28
7563.00,1.28
7562.00,1.28
7561.00,1.28
7560.00,1.28
7559.00,1.28
7558.00,1.28
7557.00,1.28
7556.00,1.28
7555.00,1.28
7554.00,1.28
7553.00,1.28
7552.00,1.28
7551.00,1.28
7550.00,1.28
7549.00,1.28
7548.00,1.28
7547.00,1.28
7546.00,1.28
7545.00,1.27
7544.00,1.27
7543.00,1.27
7542.00,1.27
7541.00,1.27
7540.00,1.27
7539.00,1.27
7538.00,1.27
7537.00,1.27
7536.00,1.27
7535.00,1.27
7534.00,1.26
7533.00,1.26
7532.00,1.26
7531.00,1.26
7530.00,1.26
7529.00,1.26
7528.00,1.26
7527.00,1.26
7526.00,1.26
7525.00,1.26
7524.00,1.26
7523.00,1.26
7522.00,1.26
7521.00,1.26
7520.00,1.26
7519.00,1.26
7518.00,1.26
7517.00,1.26
7516.00,1.26
7515.00,1.26
7514.00,1.26
7513.00,1.26
7512.00,1.26
7511.00,1.26
7510.00,1.26
7509.00,1.26
7508.00,1.25
7507.00,1.25
7506.00,1.25
7505.00,1.25
7504.00,1.25
7503.00,1.25
7502.00,1.25
7501.00,1.25
7500.00,1.25
7499.00,1.25
7498.00,1.25
7497.00,1.25
7496.00,1.25
7495.00,1.25
7494.00,1.25
7493.00,1.25
7492.00,1.25
7491.00,1.25
7490.00,1.25
7489.00,1.25
7488.00,1.25
7487.00,1.25
7486.00,1.25
7485.00,1.25
7484.00,1.25
7483.00,1.25
7482.00,1.25
7481.00,1.25
7480.00,1.25
7479.00,1.25
7478.00,1.24
7477.00,1.24
7476.00,1.24
7475.00,1.24
7474.00,1.24
7473.00,1.24
7472.00,1.24
7471.00,1.23
7470.00,1.23
7469.00,1.23
7468.00,1.23
7467.00,1.23
7466.00,1.23
7465.00,1.23
7464.00,1.23
7463.00,1.23
7462.00,1.23
7461.00,1.23
7460.00,1.23
7459.00,1.23
7458.00,1.23
7457.00,1.23
7456.00,1.23
7455.00,1.23
7454.00,1.23
7453.00,1.23
7452.00,1.23
7451.00,1.23
7450.00,1.23
7449.00,1.23
7448.00,1.23
7447.00,1.23
7446.00,1.23
7445.00,1.23
7444.00,1.23
7443.00,1.23
7442.00,1.22
7441.00,1.22
7440.00,1.22
7439.00,1.22
7438.00,1.22
7437.00,1.22
7436.00,1.22
7435.00,1.22
7434.00,1.22
7433.00,1.22
7432.00,1.22
7431.00,1.22
7430.00,1.21
7429.00,1.21
7428.00,1.21
7427.00,1.21
7426.00,1.21
7425.00,1.21
7424.00,1.21
7423.00,1.21
7422.00,1.21
7421.00,1.21
7420.00,1.20
7419.00,1.20
7418.00,1.20
7417.00,1.20
7416.00,1.20
7415.00,1.20
7414.00,1.20
7413.00,1.20
7412.00,1.20
7411.00,1.20
7410.00,1.20
7409.00,1.20
7408.00,1.20
7407.00,1.20
7406.00,1.20
7405.00,1.20
7404.00,1.20
7403.00,1.20
7402.00,1.20
7401.00,1.19
7400.00,1.19
7399.00,1.19
7398.00,1.19
7397.00,1.19
7396.00,1.18
7395.00,1.18
7394.00,1.18
7393.00,1.18
7392.00,1.17
7391.00,1.17
7390.00,1.17
7389.00,1.17
7388.00,1.17
7387.00,1.16
7386.00,1.16
7385.00,1.16
7384.00,1.16
7383.00,1.16
7382.00,1.16
7381.00,1.16
7380.00,1.16
7379.00,1.16
7378.00,1.16
7377.00,1.16
7376.00,1.16
7375.00,1.16
7374.00,1.16
7373.00,1.16
7372.00,1.16
7371.00,1.16
7370.00,1.16
7369.00,1.16
7368.00,1.16
7367.00,1.16
7366.00,1.16
7365.00,1.16
7364.00,1.16
7363.00,1.16
7362.00,1.16
7361.00,1.16
7360.00,1.16
7359.00,1.16
7358.00,1.16
7357.00,1.16
7356.00,1.16
7355.00,1.16
7354.00,1.16
7353.00,1.15
7352.00,1.15
7351.00,1.15
7350.00,1.15
7349.00,1.15
7348.00,1.15
7347.00,1.15
7346.00,1.14
7345.00,1.14
7344.00,1.14
7343.00,1.14
7342.00,1.14
7341.00,1.14
7340.00,1.14
7339.00,1.14
7338.00,1.14
7337.00,1.14
7336.00,1.14
7335.00,1.14
7334.00,1.14
7333.00,1.14
7332.00,1.14
7331.00,1.14
7330.00,1.14
7329.00,1.14
7328.00,1.14
7327.00,1.14
7326.00,1.14
7325.00,1.14
7324.00,1.14
7323.00,1.14
7322.00,1.14
7321.00,1.14
7320.00,1.14
7319.00,1.14
7318.00,1.14
7317.00,1.14
7316.00,1.14
7315.00,1.14
7314.00,1.14
7313.00,1.14
7312.00,1.14
7311.00,1.14
7310.00,1.14
7309.00,1.14
7308.00,1.14
7307.00,1.14
7306.00,1.13
7305.00,1.13
7304.00,1.13
7303.00,1.13
7302.00,1.13
7301.00,1.13
7300.00,1.13
7299.00,1.13
7298.00,1.12
7297.00,1.12
7296.00,1.12
7295.00,1.12
7294.00,1.12
7293.00,1.12
7292.00,1.12
7291.00,1.12
7290.00,1.11
7289.00,1.11
7288.00,1.11
7287.00,1.11
7286.00,1.11
7285.00,1.11
7284.00,1.11
7283.00,1.11
7282.00,1.11
7281.00,1.11
7280.00,1.10
7279.00,1.10
7278.00,1.10
7277.00,1.10
7276.00,1.10
7275.00,1.10
7274.00,1.10
7273.00,1.10
7272.00,1.10
7271.00,1.10
7270.00,1.10
7269.00,1.10
7268.00,1.10
7267.00,1.09
7266.00,1.09
7265.00,1.09
7264.00,1.09
7263.00,1.09
7262.00,1.09
7261.00,1.09
7260.00,1.09
7259.00,1.09
7258.00,1.09
7257.00,1.09
7256.00,1.08
7255.00,1.08
7254.00,1.08
7253.00,1.08
7252.00,1.08
7251.00,1.07
7250.00,1.07
7249.00,1.07
7248.00,1.06
7247.00,1.06
7246.00,1.06
7245.00,1.06
7244.00,1.05
7243.00,1.05
7242.00,1.05
7241.00,1.04
7240.00,1.04
7239.00,1.04
7238.00,1.03
7237.00,1.03
7236.00,1.03
7235.00,1.02
7234.00,1.02
7233.00,1.01
7232.00,1.01
7231.00,1.01
7230.00,1.00
7229.00,1.00
7228.00,1.00
7227.00,0.99
7226.00,0.99
7225.00,0.99
7224.00,0.98
7223.00,0.98
7222.00,0.98
7221.00,0.97
7220.00,0.97
7219.00,0.97
7218.00,0.96
7217.00,0.96
7216.00,0.96
7215.00,0.95
7214.00,0.95
7213.00,0.95
7212.00,0.94
7211.00,0.94
7210.00,0.94
7209.00,0.93
7208.00,0.93
7207.00,0.93
7206.00,0.92
7205.00,0.92
7204.00,0.92
7203.00,0.91
7202.00,0.91
7201.00,0.91
7200.00,0.91
7199.00,0.90
7198.00,0.90
7197.00,0.90
7196.00,0.90
7195.00,0.89
7194.00,0.89
7193.00,0.89
7192.00,0.89
7191.00,0.88
7190.00,0.88
7189.00,0.88
7188.00,0.87
7187.00,0.87
7186.00,0.87
7185.00,0.87
7184.00,0.86
7183.00,0.86
7182.00,0.86
7181.00,0.86
7180.00,0.85
7179.00,0.85
7178.00,0.85
7177.00,0.85
7176.00,0.84
7175.00,0.84
7174.00,0.84
7173.00,0.84
7172.00,0.83
7171.00,0.83
7170.00,0.83
7169.00,0.82
7168.00,0.82
7167.00,0.82
7166.00,0.81
7165.00,0.81
7164.00,0.81
7163.00,0.80
7162.00,0.80
7161.00,0.80
7160.00,0.79
7159.00,0.79
7158.00,0.79
7157.00,0.79
7156.00,0.78
7155.00,0.78
7154.00,0.78
7153.00,0.78
7152.00,0.77
7151.00,0.77
7150.00,0.77
7149.00,0.77
7148.00,0.76
7147.00,0.76
7146.00,0.76
7145.00,0.75
7144.00,0.75
7143.00,0.75
7142.00,0.74
7141.00,0.74
7140.00,0.74
7139.00,0.73
7138.00,0.73
7137.00,0.73
7136.00,0.72
7135.00,0.72
7134.00,0.72
7133.00,0.72
7132.00,0.71
7131.00,0.71
7130.00,0.71
7129.00,0.71
7128.00,0.70
7127.00,0.70
7126.00,0.70
7125.00,0.70
7124.00,0.69
7123.00,0.69
7122.00,0.69
7121.00,0.69
7120.00,0.68
7119.00,0.68
7118.00,0.68
7117.00,0.68
7116.00,0.67
7115.00,0.67
7114.00,0.67
7113.00,0.67
7112.00,0.66
7111.00,0.66
7110.00,0.66
7109.00,0.66
7108.00,0.65
7107.00,0.65
7106.00,0.65
7105.00,0.65
7104.00,0.65
7103.00,0.64
7102.00,0.64
7101.00,0.64
7100.00,0.64
7099.00,0.64
7098.00,0.64
7097.00,0.63
7096.00,0.63
7095.00,0.63
7094.00,0.63
7093.00,0.63
7092.00,0.63
7091.00,0.63
7090.00,0.63
7089.00,0.63
7088.00,0.62
7087.00,0.62
7086.00,0.62
7085.00,0.62
7084.00,0.62
7083.00,0.62
7082.00,0.62
7081.00,0.62
7080.00,0.62
7079.00,0.61
7078.00,0.61
7077.00,0.61
7076.00,0.61
7075.00,0.61
7074.00,0.61
7073.00,0.60
7072.00,0.60
7071.00,0.60
7070.00,0.60
7069.00,0.60
7068.00,0.60
7067.00,0.60
7066.00,0.59
7065.00,0.59
7064.00,0.59
7063.00,0.59
7062.00,0.59
7061.00,0.59
7060.00,0.59
7059.00,0.59
7058.00,0.58
7057.00,0.58
7056.00,0.58
7055.00,0.58
7054.00,0.58
7053.00,0.58
7052.00,0.58
7051.00,0.57
7050.00,0.57
7049.00,0.57
7048.00,0.57
7047.00,0.57
7046.00,0.57
7045.00,0.56
7044.00,0.56
7043.00,0.56
7042.00,0.56
7041.00,0.56
7040.00,0.56
7039.00,0.55
7038.00,0.55
7037.00,0.55
7036.00,0.55
7035.00,0.55
7034.00,0.55
7033.00,0.55
7032.00,0.55
7031.00,0.55
7030.00,0.55
7029.00,0.55
7028.00,0.55
7027.00,0.55
7026.00,0.55
7025.00,0.55
7024.00,0.55
7023.00,0.55
7022.00,0.55
7021.00,0.55
7020.00,0.55
7019.00,0.55
7018.00,0.54
7017.00,0.54
7016.00,0.54
7015.00,0.54
7014.00,0.54
7013.00,0.54
7012.00,0.54
7011.00,0.54
7010.00,0.54
7009.00,0.53
7008.00,0.53
7007.00,0.53
7006.00,0.53
7005.00,0.53
7004.00,0.53
7003.00,0.53
7002.00,0.53
7001.00,0.53
7000.00,0.53
6999.00,0.52
6998.00,0.52
6997.00,0.52
6996.00,0.52
6995.00,0.52
6994.00,0.52
6993.00,0.52
6992.00,0.52
6991.00,0.52
6990.00,0.52
6989.00,0.52
6988.00,0.52
6987.00,0.52
6986.00,0.52
6985.00,0.52
6984.00,0.52
6983.00,0.52
6982.00,0.52
6981.00,0.52
6980.00,0.52
6979.00,0.52
6978.00,0.52
6977.00,0.52
6976.00,0.52
6975.00,0.52
6974.00,0.52
6973.00,0.52
6972.00,0.52
6971.00,0.52
6970.00,0.52
6969.00,0.52
6968.00,0.52
6967.00,0.52
6966.00,0.52
6965.00,0.52
6964.00,0.52
6963.00,0.52
6962.00,0.52
6961.00,0.51
6960.00,0.51
6959.00,0.51
6958.00,0.51
6957.00,0.51
6956.00,0.51
6955.00,0.51
6954.00,0.51
6953.00,0.51
6952.00,0.51
6951.00,0.51
6950.00,0.50
6949.00,0.50
6948.00,0.50
6947.00,0.50
6946.00,0.50
6945.00,0.50
6944.00,0.50
6943.00,0.50
6942.00,0.50
6941.00,0.50
6940.00,0.50
6939.00,0.50
6938.00,0.50
6937.00,0.50
6936.00,0.50
6935.00,0.50
6934.00,0.50
6933.00,0.50
6932.00,0.50
6931.00,0.50
6930.00,0.50
6929.00,0.50
6928.00,0.50
6927.00,0.50
6926.00,0.50
6925.00,0.49
6924.00,0.49
6923.00,0.49
6922.00,0.49
6921.00,0.49
6920.00,0.49
6919.00,0.49
6918.00,0.49
6917.00,0.49
6916.00,0.49
6915.00,0.49
6914.00,0.49
6913.00,0.49
6912.00,0.49
6911.00,0.49
6910.00,0.49
6909.00,0.49
6908.00,0.49
6907.00,0.49
6906.00,0.49
6905.00,0.49
6904.00,0.49
6903.00,0.49
6902.00,0.49
6901.00,0.49
6900.00,0.49
6899.00,0.49
6898.00,0.49
6897.00,0.49
6896.00,0.49
6895.00,0.49
6894.00,0.49
6893.00,0.49
6892.00,0.49
6891.00,0.49
6890.00,0.49
6889.00,0.50
6888.00,0.50
6887.00,0.50
6886.00,0.50
6885.00,0.50
6884.00,0.50
6883.00,0.50
6882.00,0.50
6881.00,0.50
6880.00,0.50
6879.00,0.50
6878.00,0.50
6877.00,0.50
6876.00,0.50
6875.00,0.50
6874.00,0.50
6873.00,0.50
6872.00,0.50
6871.00,0.50
6870.00,0.50
6869.00,0.50
6868.00,0.50
6867.00,0.50
6866.00,0.50
6865.00,0.50
6864.00,0.50
6863.00,0.50
6862.00,0.50
6861.00,0.50
6860.00,0.50
6859.00,0.50
6858.00,0.50
6857.00,0.50
6856.00,0.50
6855.00,0.50
6854.00,0.50
6853.00,0.50
6852.00,0.50
6851.00,0.50
6850.00,0.50
6849.00,0.50
6848.00,0.50
6847.00,0.50
6846.00,0.50
6845.00,0.50
6844.00,0.50
6843.00,0.50
6842.00,0.50
6841.00,0.50
6840.00,0.50
6839.00,0.50
6838.00,0.50
6837.00,0.50
6836.00,0.50
6835.00,0.50
6834.00,0.50
6833.00,0.50
6832.00,0.50
6831.00,0.50
6830.00,0.50
6829.00,0.50
6828.00,0.50
6827.00,0.50
6826.00,0.50
6825.00,0.50
6824.00,0.50
6823.00,0.50
6822.00,0.50
6821.00,0.50
6820.00,0.50
6819.00,0.50
6818.00,0.50
6817.00,0.50
6816.00,0.50
6815.00,0.50
6814.00,0.50
6813.00,0.50
6812.00,0.50
6811.00,0.51
6810.00,0.51
6809.00,0.51
6808.00,0.51
6807.00,0.51
6806.00,0.51
6805.00,0.51
6804.00,0.51
6803.00,0.51
6802.00,0.51
6801.00,0.51
6800.00,0.51
6799.00,0.51
6798.00,0.52
6797.00,0.52
6796.00,0.52
6795.00,0.52
6794.00,0.52
6793.00,0.52
6792.00,0.52
6791.00,0.52
6790.00,0.52
6789.00,0.52
6788.00,0.52
6787.00,0.52
6786.00,0.52
6785.00,0.52
6784.00,0.52
6783.00,0.52
6782.00,0.52
6781.00,0.52
6780.00,0.52
6779.00,0.52
6778.00,0.52
6777.00,0.52
6776.00,0.52
6775.00,0.53
6774.00,0.53
6773.00,0.53
6772.00,0.53
6771.00,0.53
6770.00,0.53
6769.00,0.53
6768.00,0.53
6767.00,0.53
6766.00,0.53
6765.00,0.53
6764.00,0.53
6763.00,0.53
6762.00,0.53
6761.00,0.53
6760.00,0.53
6759.00,0.53
6758.00,0.53
6757.00,0.53
6756.00,0.53
6755.00,0.53
6754.00,0.53
6753.00,0.53
6752.00,0.53
6751.00,0.53
6750.00,0.54
6749.00,0.54
6748.00,0.54
6747.00,0.54
6746.00,0.54
6745.00,0.54
6744.00,0.54
6743.00,0.54
6742.00,0.54
6741.00,0.54
6740.00,0.54
6739.00,0.54
6738.00,0.55
6737.00,0.55
6736.00,0.55
6735.00,0.55
6734.00,0.55
6733.00,0.55
6732.00,0.55
6731.00,0.55
6730.00,0.56
6729.00,0.56
6728.00,0.56
6727.00,0.56
6726.00,0.56
6725.00,0.56
6724.00,0.56
6723.00,0.56
6722.00,0.56
6721.00,0.56
6720.00,0.56
6719.00,0.56
6718.00,0.56
6717.00,0.56
6716.00,0.56
6715.00,0.56
6714.00,0.56
6713.00,0.56
6712.00,0.57
6711.00,0.57
6710.00,0.57
6709.00,0.57
6708.00,0.57
6707.00,0.57
6706.00,0.57
6705.00,0.57
6704.00,0.57
6703.00,0.57
6702.00,0.57
6701.00,0.57
6700.00,0.57
6699.00,0.58
6698.00,0.58
6697.00,0.58
6696.00,0.58
6695.00,0.58
6694.00,0.58
6693.00,0.58
6692.00,0.58
6691.00,0.58
6690.00,0.58
6689.00,0.59
6688.00,0.59
6687.00,0.59
6686.00,0.59
6685.00,0.59
6684.00,0.59
6683.00,0.59
6682.00,0.59
6681.00,0.59
6680.00,0.59
6679.00,0.59
6678.00,0.59
6677.00,0.59
6676.00,0.59
6675.00,0.59
6674.00,0.59
6673.00,0.59
6672.00,0.59
6671.00,0.59
6670.00,0.59
6669.00,0.59
6668.00,0.59
6667.00,0.60
6666.00,0.60
6665.00,0.60
6664.00,0.60
6663.00,0.60
6662.00,0.60
6661.00,0.60
6660.00,0.60
6659.00,0.61
6658.00,0.61
6657.00,0.61
6656.00,0.61
6655.00,0.61
6654.00,0.61
6653.00,0.62
6652.00,0.62
6651.00,0.62
6650.00,0.62
6649.00,0.62
6648.00,0.62
6647.00,0.62
6646.00,0.63
6645.00,0.63
6644.00,0.63
6643.00,0.63
6642.00,0.63
6641.00,0.63
6640.00,0.63
6639.00,0.63
6638.00,0.63
6637.00,0.63
6636.00,0.63
6635.00,0.64
6634.00,0.64
6633.00,0.64
6632.00,0.64
6631.00,0.64
6630.00,0.64
6629.00,0.64
6628.00,0.64
6627.00,0.64
6626.00,0.64
6625.00,0.64
6624.00,0.64
6623.00,0.64
6622.00,0.64
6621.00,0.64
6620.00,0.64
6619.00,0.64
6618.00,0.64
6617.00,0.65
6616.00,0.65
6615.00,0.65
6614.00,0.65
6613.00,0.65
6612.00,0.65
6611.00,0.65
6610.00,0.65
6609.00,0.65
6608.00,0.65
6607.00,0.65
6606.00,0.65
6605.00,0.65
6604.00,0.65
6603.00,0.66
6602.00,0.66
6601.00,0.66
6600.00,0.66
6599.00,0.66
6598.00,0.66
6597.00,0.66
6596.00,0.66
6595.00,0.66
6594.00,0.66
6593.00,0.67
6592.00,0.67
6591.00,0.67
6590.00,0.67
6589.00,0.67
6588.00,0.67
6587.00,0.67
6586.00,0.67
6585.00,0.67
6584.00,0.67
6583.00,0.67
6582.00,0.67
6581.00,0.67
6580.00,0.68
6579.00,0.68
6578.00,0.68
6577.00,0.68
6576.00,0.68
6575.00,0.68
6574.00,0.68
6573.00,0.68
6572.00,0.68
6571.00,0.68
6570.00,0.68
6569.00,0.68
6568.00,0.68
6567.00,0.68
6566.00,0.69
6565.00,0.69
6564.00,0.69
6563.00,0.69
6562.00,0.69
6561.00,0.69
6560.00,0.69
6559.00,0.69
6558.00,0.69
6557.00,0.69
6556.00,0.69
6555.00,0.70
6554.00,0.70
6553.00,0.70
6552.00,0.70
6551.00,0.70
6550.00,0.70
6549.00,0.70
6548.00,0.70
6547.00,0.70
6546.00,0.70
6545.00,0.70
6544.00,0.71
6543.00,0.71
6542.00,0.71
6541.00,0.71
6540.00,0.71
6539.00,0.71
6538.00,0.71
6537.00,0.71
6536.00,0.71
6535.00,0.72
6534.00,0.72
6533.00,0.72
6532.00,0.72
6531.00,0.72
6530.00,0.72
6529.00,0.72
6528.00,0.72
6527.00,0.72
6526.00,0.72
6525.00,0.72
6524.00,0.73
6523.00,0.73
6522.00,0.73
6521.00,0.73
6520.00,0.73
6519.00,0.73
6518.00,0.73
6517.00,0.73
6516.00,0.73
6515.00,0.73
6514.00,0.73
6513.00,0.73
6512.00,0.73
6511.00,0.73
6510.00,0.74
6509.00,0.74
6508.00,0.74
6507.00,0.74
6506.00,0.74
6505.00,0.74
6504.00,0.74
6503.00,0.74
6502.00,0.74
6501.00,0.74
6500.00,0.74
6499.00,0.74
6498.00,0.74
6497.00,0.74
6496.00,0.74
6495.00,0.74
6494.00,0.74
6493.00,0.74
6492.00,0.75
6491.00,0.75
6490.00,0.75
6489.00,0.75
6488.00,0.75
6487.00,0.75
6486.00,0.75
6485.00,0.75
6484.00,0.75
6483.00,0.75
6482.00,0.75
6481.00,0.75
6480.00,0.75
6479.00,0.75
6478.00,0.75
6477.00,0.75
6476.00,0.75
6475.00,0.75
6474.00,0.76
6473.00,0.76
6472.00,0.76
6471.00,0.76
6470.00,0.76
6469.00,0.76
6468.00,0.76
6467.00,0.76
6466.00,0.76
6465.00,0.76
6464.00,0.76
6463.00,0.76
6462.00,0.76
6461.00,0.77
6460.00,0.77
6459.00,0.77
6458.00,0.77
6457.00,0.77
6456.00,0.77
6455.00,0.77
6454.00,0.77
6453.00,0.77
6452.00,0.77
6451.00,0.77
6450.00,0.77
6449.00,0.77
6448.00,0.77
6447.00,0.77
6446.00,0.77
6445.00,0.77
6444.00,0.77
6443.00,0.77
6442.00,0.77
6441.00,0.77
6440.00,0.78
6439.00,0.78
6438.00,0.78
6437.00,0.78
6436.00,0.78
6435.00,0.78
6434.00,0.78
6433.00,0.78
6432.00,0.78
6431.00,0.78
6430.00,0.78
6429.00,0.78
6428.00,0.78
6427.00,0.78
6426.00,0.78
6425.00,0.78
6424.00,0.78
6423.00,0.78
6422.00,0.78
6421.00,0.79
6420.00,0.79
6419.00,0.79
6418.00,0.79
6417.00,0.79
6416.00,0.79
6415.00,0.79
6414.00,0.79
6413.00,0.79
6412.00,0.79
6411.00,0.79
6410.00,0.79
6409.00,0.79
6408.00,0.79
6407.00,0.79
6406.00,0.79
6405.00,0.79
6404.00,0.79
6403.00,0.79
6402.00,0.79
6401.00,0.79
6400.00,0.79
6399.00,0.79
6398.00,0.80
6397.00,0.80
6396.00,0.80
6395.00,0.80
6394.00,0.80
6393.00,0.80
6392.00,0.80
6391.00,0.80
6390.00,0.80
6389.00,0.80
6388.00,0.80
6387.00,0.81
6386.00,0.81
6385.00,0.81
6384.00,0.81
6383.00,0.81
6382.00,0.81
6381.00,0.81
6380.00,0.81
6379.00,0.81
6378.00,0.81
6377.00,0.82
6376.00,0.82
6375.00,0.82
6374.00,0.82
6373.00,0.82
6372.00,0.82
6371.00,0.82
6370.00,0.82
6369.00,0.82
6368.00,0.82
6367.00,0.82
6366.00,0.82
6365.00,0.82
6364.00,0.82
6363.00,0.82
6362.00,0.82
6361.00,0.82
6360.00,0.83
6359.00,0.83
6358.00,0.83
6357.00,0.83
6356.00,0.83
6355.00,0.83
6354.00,0.83
6353.00,0.83
6352.00,0.83
6351.00,0.83
6350.00,0.83
6349.00,0.83
6348.00,0.83
6347.00,0.83
6346.00,0.83
6345.00,0.83
6344.00,0.83
6343.00,0.83
6342.00,0.84
6341.00,0.84
6340.00,0.84
6339.00,0.84
6338.00,0.84
6337.00,0.84
6336.00,0.84
6335.00,0.84
6334.00,0.84
6333.00,0.84
6332.00,0.85
6331.00,0.85
6330.00,0.85
6329.00,0.85
6328.00,0.85
6327.00,0.85
6326.00,0.85
6325.00,0.85
6324.00,0.85
6323.00,0.86
6322.00,0.86
6321.00,0.86
6320.00,0.86
6319.00,0.86
6318.00,0.86
6317.00,0.86
6316.00,0.86
6315.00,0.86
6314.00,0.86
6313.00,0.86
6312.00,0.86
6311.00,0.87
6310.00,0.87
6309.00,0.87
6308.00,0.87
6307.00,0.87
6306.00,0.87
6305.00,0.87
6304.00,0.87
6303.00,0.87
6302.00,0.87
6301.00,0.88
6300.00,0.88
6299.00,0.88
6298.00,0.88
6297.00,0.88
6296.00,0.88
6295.00,0.88
6294.00,0.88
6293.00,0.88
6292.00,0.88
6291.00,0.89
6290.00,0.89
6289.00,0.89
6288.00,0.89
6287.00,0.89
6286.00,0.89
6285.00,0.89
6284.00,0.89
6283.00,0.89
6282.00,0.89
6281.00,0.90
6280.00,0.90
6279.00,0.90
6278.00,0.90
6277.00,0.90
6276.00,0.90
6275.00,0.90
6274.00,0.90
6273.00,0.90
6272.00,0.91
6271.00,0.91
6270.00,0.91
6269.00,0.91
6268.00,0.91
6267.00,0.91
6266.00,0.91
6265.00,0.91
6264.00,0.91
6263.00,0.91
6262.00,0.92
6261.00,0.92
6260.00,0.92
6259.00,0.92
6258.00,0.92
6257.00,0.92
6256.00,0.92
6255.00,0.92
6254.00,0.92
6253.00,0.92
6252.00,0.93
6251.00,0.93
6250.00,0.93
6249.00,0.93
6248.00,0.93
6247.00,0.93
6246.00,0.93
6245.00,0.94
6244.00,0.94
6243.00,0.94
6242.00,0.94
6241.00,0.94
6240.00,0.94
6239.00,0.94
6238.00,0.94
6237.00,0.95
6236.00,0.95
6235.00,0.95
6234.00,0.95
6233.00,0.95
6232.00,0.95
6231.00,0.95
6230.00,0.95
6229.00,0.96
6228.00,0.96
6227.00,0.96
6226.00,0.96
6225.00,0.96
6224.00,0.96
6223.00,0.96
6222.00,0.97
6221.00,0.97
6220.00,0.97
6219.00,0.97
6218.00,0.97
6217.00,0.97
6216.00,0.97
6215.00,0.98
6214.00,0.98
6213.00,0.98
6212.00,0.98
6211.00,0.98
6210.00,0.98
6209.00,0.98
6208.00,0.98
6207.00,0.98
6206.00,0.99
6205.00,0.99
6204.00,0.99
6203.00,0.99
6202.00,0.99
6201.00,0.99
6200.00,0.99
6199.00,0.99
6198.00,0.99
6197.00,1.00
6196.00,1.00
6195.00,1.00
6194.00,1.00
6193.00,1.00
6192.00,1.00
6191.00,1.00
6190.00,1.00
6189.00,1.00
6188.00,1.01
6187.00,1.01
6186.00,1.01
6185.00,1.01
6184.00,1.01
6183.00,1.01
6182.00,1.01
6181.00,1.02
6180.00,1.02
6179.00,1.02
6178.00,1.02
6177.00,1.02
6176.00,1.02
6175.00,1.02
6174.00,1.03
6173.00,1.03
6172.00,1.03
6171.00,1.03
6170.00,1.03
6169.00,1.03
6168.00,1.04
6167.00,1.04
6166.00,1.04
6165.00,1.04
6164.00,1.04
6163.00,1.04
6162.00,1.04
6161.00,1.05
6160.00,1.05
6159.00,1.05
6158.00,1.05
6157.00,1.05
6156.00,1.05
6155.00,1.06
6154.00,1.06
6153.00,1.06
6152.00,1.06
6151.00,1.06
6150.00,1.06
6149.00,1.07
6148.00,1.07
6147.00,1.07
6146.00,1.07
6145.00,1.07
6144.00,1.07
6143.00,1.07
6142.00,1.07
6141.00,1.08
6140.00,1.08
6139.00,1.08
6138.00,1.08
6137.00,1.08
6136.00,1.08
6135.00,1.08
6134.00,1.08
6133.00,1.08
6132.00,1.08
6131.00,1.09
6130.00,1.09
6129.00,1.09
6128.00,1.09
6127.00,1.09
6126.00,1.09
6125.00,1.09
6124.00,1.10
6123.00,1.10
6122.00,1.10
6121.00,1.10
6120.00,1.10
6119.00,1.10
6118.00,1.11
6117.00,1.11
6116.00,1.11
6115.00,1.11
6114.00,1.11
6113.00,1.11
6112.00,1.11
6111.00,1.11
6110.00,1.12
6109.00,1.12
6108.00,1.12
6107.00,1.12
6106.00,1.12
6105.00,1.12
6104.00,1.12
6103.00,1.12
6102.00,1.13
6101.00,1.13
6100.00,1.13
6099.00,1.13
6098.00,1.13
6097.00,1.13
6096.00,1.13
6095.00,1.14
6094.00,1.14
6093.00,1.14
6092.00,1.14
6091.00,1.14
6090.00,1.14
6089.00,1.15
6088.00,1.15
6087.00,1.15
6086.00,1.15
6085.00,1.15
6084.00,1.15
6083.00,1.15
6082.00,1.16
6081.00,1.16
6080.00,1.16
6079.00,1.16
6078.00,1.16
6077.00,1.16
6076.00,1.16
6075.00,1.16
6074.00,1.17
6073.00,1.17
6072.00,1.17
6071.00,1.17
6070.00,1.17
6069.00,1.17
6068.00,1.17
6067.00,1.17
6066.00,1.17
6065.00,1.17
6064.00,1.17
6063.00,1.17
6062.00,1.18
6061.00,1.18
6060.00,1.18
6059.00,1.18
6058.00,1.18
6057.00,1.18
6056.00,1.18
6055.00,1.18
6054.00,1.18
6053.00,1.18
6052.00,1.18
6051.00,1.18
6050.00,1.18
6049.00,1.18
6048.00,1.19
6047.00,1.19
6046.00,1.19
6045.00,1.19
6044.00,1.19
6043.00,1.19
6042.00,1.19
6041.00,1.19
6040.00,1.19
6039.00,1.19
6038.00,1.19
6037.00,1.19
6036.00,1.19
6035.00,1.20
6034.00,1.20
6033.00,1.20
6032.00,1.20
6031.00,1.20
6030.00,1.20
6029.00,1.20
6028.00,1.20
6027.00,1.20
6026.00,1.20
6025.00,1.20
6024.00,1.20
6023.00,1.20
6022.00,1.20
6021.00,1.20
6020.00,1.20
6019.00,1.20
6018.00,1.20
6017.00,1.20
6016.00,1.20
6015.00,1.20
6014.00,1.20
6013.00,1.20
6012.00,1.20
6011.00,1.20
6010.00,1.20
6009.00,1.20
6008.00,1.20
6007.00,1.20
6006.00,1.20
6005.00,1.20
6004.00,1.20
6003.00,1.20
6002.00,1.19
6001.00,1.19
6000.00,1.19
5999.00,1.19
5998.00,1.19
5997.00,1.19
5996.00,1.19
5995.00,1.19
5994.00,1.18
5993.00,1.18
5992.00,1.18
5991.00,1.18
5990.00,1.18
5989.00,1.18
5988.00,1.18
5987.00,1.17
5986.00,1.17
5985.00,1.17
5984.00,1.17
5983.00,1.16
5982.00,1.16
5981.00,1.16
5980.00,1.16
5979.00,1.15
5978.00,1.15
5977.00,1.14
5976.00,1.14
5975.00,1.14
5974.00,1.13
5973.00,1.13
5972.00,1.12
5971.00,1.12
5970.00,1.11
5969.00,1.10
5968.00,1.10
5967.00,1.09
5966.00,1.09
5965.00,1.08
5964.00,1.07
5963.00,1.07
5962.00,1.06
5961.00,1.05
5960.00,1.04
5959.00,1.04
5958.00,1.03
5957.00,1.02
5956.00,1.02
5955.00,1.01
5954.00,1.00
5953.00,0.99
5952.00,0.99
5951.00,0.98
5950.00,0.98
5949.00,0.97
5948.00,0.96
5947.00,0.96
5946.00,0.96
5945.00,0.95
5944.00,0.95
5943.00,0.95
5942.00,0.94
5941.00,0.94
5940.00,0.94
5939.00,0.94
5938.00,0.94
5937.00,0.93
5936.00,0.93
5935.00,0.93
5934.00,0.93
5933.00,0.93
5932.00,0.93
5931.00,0.93
5930.00,0.93
5929.00,0.93
5928.00,0.93
5927.00,0.93
5926.00,0.92
5925.00,0.92
5924.00,0.92
5923.00,0.92
5922.00,0.92
5921.00,0.92
5920.00,0.91
5919.00,0.91
5918.00,0.91
5917.00,0.91
5916.00,0.90
5915.00,0.90
5914.00,0.90
5913.00,0.89
5912.00,0.89
5911.00,0.89
5910.00,0.89
5909.00,0.89
5908.00,0.88
5907.00,0.88
5906.00,0.88
5905.00,0.88
5904.00,0.88
5903.00,0.88
5902.00,0.88
5901.00,0.88
5900.00,0.88
5899.00,0.88
5898.00,0.88
5897.00,0.88
5896.00,0.89
5895.00,0.89
5894.00,0.89
5893.00,0.89
5892.00,0.89
5891.00,0.90
5890.00,0.90
5889.00,0.90
5888.00,0.91
5887.00,0.91
5886.00,0.91
5885.00,0.92
5884.00,0.92
5883.00,0.92
5882.00,0.92
5881.00,0.93
5880.00,0.93
5879.00,0.93
5878.00,0.93
5877.00,0.94
5876.00,0.94
5875.00,0.94
5874.00,0.94
5873.00,0.94
5872.00,0.95
5871.00,0.95
5870.00,0.95
5869.00,0.95
5868.00,0.95
5867.00,0.96
5866.00,0.96
5865.00,0.96
5864.00,0.96
5863.00,0.96
5862.00,0.96
5861.00,0.97
5860.00,0.97
5859.00,0.97
5858.00,0.97
5857.00,0.97
5856.00,0.97
5855.00,0.97
5854.00,0.97
5853.00,0.98
5852.00,0.98
5851.00,0.98
5850.00,0.98
5849.00,0.98
5848.00,0.98
5847.00,0.98
5846.00,0.98
5845.00,0.98
5844.00,0.98
5843.00,0.98
5842.00,0.98
5841.00,0.98
5840.00,0.98
5839.00,0.98
5838.00,0.98
5837.00,0.98
5836.00,0.98
5835.00,0.98
5834.00,0.98
5833.00,0.98
5832.00,0.98
5831.00,0.98
5830.00,0.98
5829.00,0.98
5828.00,0.98
5827.00,0.98
5826.00,0.98
5825.00,0.98
5824.00,0.98
5823.00,0.98
5822.00,0.98
5821.00,0.98
5820.00,0.98
5819.00,0.98
5818.00,0.98
5817.00,0.98
5816.00,0.98
5815.00,0.98
5814.00,0.98
5813.00,0.98
5812.00,0.98
5811.00,0.98
5810.00,0.98
5809.00,0.98
5808.00,0.98
5807.00,0.98
5806.00,0.98
5805.00,0.98
5804.00,0.98
5803.00,0.98
5802.00,0.98
5801.00,0.98
5800.00,0.98
5799.00,0.97
5798.00,0.97
5797.00,0.97
5796.00,0.97
5795.00,0.97
5794.00,0.96
5793.00,0.96
5792.00,0.96
5791.00,0.96
5790.00,0.95
5789.00,0.95
5788.00,0.95
5787.00,0.95
5786.00,0.94
5785.00,0.94
5784.00,0.94
5783.00,0.94
5782.00,0.94
5781.00,0.94
5780.00,0.93
5779.00,0.93
5778.00,0.93
5777.00,0.93
5776.00,0.93
5775.00,0.93
5774.00,0.93
5773.00,0.93
5772.00,0.93
5771.00,0.93
5770.00,0.93
5769.00,0.93
5768.00,0.93
5767.00,0.93
5766.00,0.93
5765.00,0.94
5764.00,0.94
5763.00,0.94
5762.00,0.94
5761.00,0.94
5760.00,0.95
5759.00,0.95
5758.00,0.95
5757.00,0.96
5756.00,0.96
5755.00,0.96
5754.00,0.97
5753.00,0.97
5752.00,0.97
5751.00,0.98
5750.00,0.98
5749.00,0.98
5748.00,0.99
5747.00,0.99
5746.00,0.99
5745.00,1.00
5744.00,1.00
5743.00,1.00
5742.00,1.01
5741.00,1.01
5740.00,1.01
5739.00,1.01
5738.00,1.02
5737.00,1.02
5736.00,1.02
5735.00,1.02
5734.00,1.03
5733.00,1.03
5732.00,1.03
5731.00,1.03
5730.00,1.03
5729.00,1.03
5728.00,1.04
5727.00,1.04
5726.00,1.04
5725.00,1.04
5724.00,1.04
5723.00,1.04
5722.00,1.04
5721.00,1.04
5720.00,1.04
5719.00,1.04
5718.00,1.04
5717.00,1.04
5716.00,1.04
5715.00,1.04
5714.00,1.04
5713.00,1.04
5712.00,1.04
5711.00,1.04
5710.00,1.04
5709.00,1.04
5708.00,1.04
5707.00,1.04
5706.00,1.04
5705.00,1.04
5704.00,1.04
5703.00,1.04
5702.00,1.03
5701.00,1.03
5700.00,1.03
5699.00,1.03
5698.00,1.03
5697.00,1.03
5696.00,1.03
5695.00,1.02
5694.00,1.02
5693.00,1.02
5692.00,1.02
5691.00,1.02
5690.00,1.02
5689.00,1.02
5688.00,1.01
5687.00,1.01
5686.00,1.01
5685.00,1.01
5684.00,1.01
5683.00,1.01
5682.00,1.01
5681.00,1.01
5680.00,1.01
5679.00,1.00
5678.00,1.00
5677.00,1.00
5676.00,1.00
5675.00,1.00
5674.00,1.00
5673.00,1.00
5672.00,1.00
5671.00,1.00
5670.00,1.00
5669.00,1.00
5668.00,1.01
5667.00,1.01
5666.00,1.01
5665.00,1.01
5664.00,1.01
5663.00,1.01
5662.00,1.01
5661.00,1.02
5660.00,1.02
5659.00,1.02
5658.00,1.02
5657.00,1.02
5656.00,1.02
5655.00,1.03
5654.00,1.03
5653.00,1.03
5652.00,1.03
5651.00,1.04
5650.00,1.04
5649.00,1.04
5648.00,1.04
5647.00,1.04
5646.00,1.05
5645.00,1.05
5644.00,1.05
5643.00,1.05
5642.00,1.05
5641.00,1.05
5640.00,1.06
5639.00,1.06
5638.00,1.06
5637.00,1.06
5636.00,1.06
5635.00,1.06
5634.00,1.07
5633.00,1.07
5632.00,1.07
5631.00,1.07
5630.00,1.07
5629.00,1.07
5628.00,1.07
5627.00,1.07
5626.00,1.08
5625.00,1.08
5624.00,1.08
5623.00,1.08
5622.00,1.08
5621.00,1.08
5620.00,1.08
5619.00,1.09
5618.00,1.09
5617.00,1.09
5616.00,1.09
5615.00,1.09
5614.00,1.09
5613.00,1.10
5612.00,1.10
5611.00,1.10
5610.00,1.10
5609.00,1.10
5608.00,1.11
5607.00,1.11
5606.00,1.11
5605.00,1.11
5604.00,1.11
5603.00,1.12
5602.00,1.12
5601.00,1.12
5600.00,1.12
5599.00,1.12
5598.00,1.12
5597.00,1.13
5596.00,1.13
5595.00,1.13
5594.00,1.13
5593.00,1.13
5592.00,1.13
5591.00,1.13
5590.00,1.13
5589.00,1.14
5588.00,1.14
5587.00,1.14
5586.00,1.14
5585.00,1.14
5584.00,1.14
5583.00,1.14
5582.00,1.15
5581.00,1.15
5580.00,1.15
5579.00,1.15
5578.00,1.15
5577.00,1.15
5576.00,1.15
5575.00,1.16
5574.00,1.16
5573.00,1.16
5572.00,1.16
5571.00,1.16
5570.00,1.16
5569.00,1.16
5568.00,1.16
5567.00,1.17
5566.00,1.17
5565.00,1.17
5564.00,1.17
5563.00,1.17
5562.00,1.17
5561.00,1.17
5560.00,1.17
5559.00,1.17
5558.00,1.17
5557.00,1.17
5556.00,1.17
5555.00,1.18
5554.00,1.18
5553.00,1.18
5552.00,1.18
5551.00,1.18
5550.00,1.18
5549.00,1.18
5548.00,1.18
5547.00,1.18
5546.00,1.19
5545.00,1.19
5544.00,1.19
5543.00,1.19
5542.00,1.19
5541.00,1.19
5540.00,1.20
5539.00,1.20
5538.00,1.20
5537.00,1.20
5536.00,1.20
5535.00,1.20
5534.00,1.21
5533.00,1.21
5532.00,1.21
5531.00,1.21
5530.00,1.21
5529.00,1.21
5528.00,1.21
5527.00,1.21
5526.00,1.21
5525.00,1.22
5524.00,1.22
5523.00,1.22
5522.00,1.22
5521.00,1.22
5520.00,1.22
5519.00,1.22
5518.00,1.22
5517.00,1.22
5516.00,1.22
5515.00,1.22
5514.00,1.22
5513.00,1.22
5512.00,1.22
5511.00,1.22
5510.00,1.22
5509.00,1.22
5508.00,1.22
5507.00,1.22
5506.00,1.22
5505.00,1.22
5504.00,1.22
5503.00,1.22
5502.00,1.22
5501.00,1.22
5500.00,1.22
5499.00,1.22
5498.00,1.22
5497.00,1.22
5496.00,1.22
5495.00,1.22
5494.00,1.22
5493.00,1.23
5492.00,1.23
5491.00,1.23
5490.00,1.23
5489.00,1.23
5488.00,1.23
5487.00,1.24
5486.00,1.24
5485.00,1.24
5484.00,1.24
5483.00,1.24
5482.00,1.24
5481.00,1.24
5480.00,1.25
5479.00,1.25
5478.00,1.25
5477.00,1.25
5476.00,1.25
5475.00,1.25
5474.00,1.25
5473.00,1.25
5472.00,1.26
5471.00,1.26
5470.00,1.26
5469.00,1.26
5468.00,1.26
5467.00,1.26
5466.00,1.26
5465.00,1.26
5464.00,1.26
5463.00,1.26
5462.00,1.27
5461.00,1.27
5460.00,1.27
5459.00,1.27
5458.00,1.27
5457.00,1.27
5456.00,1.27
5455.00,1.27
5454.00,1.27
5453.00,1.27
5452.00,1.27
5451.00,1.27
5450.00,1.27
5449.00,1.27
5448.00,1.27
5447.00,1.27
5446.00,1.27
5445.00,1.27
5444.00,1.27
5443.00,1.27
5442.00,1.27
5441.00,1.27
5440.00,1.27
5439.00,1.27
5438.00,1.27
5437.00,1.27
5436.00,1.27
5435.00,1.27
5434.00,1.28
5433.00,1.28
5432.00,1.28
5431.00,1.28
5430.00,1.28
5429.00,1.28
5428.00,1.28
5427.00,1.28
5426.00,1.28
5425.00,1.28
5424.00,1.28
5423.00,1.28
5422.00,1.28
5421.00,1.28
5420.00,1.28
5419.00,1.28
5418.00,1.28
5417.00,1.28
5416.00,1.28
5415.00,1.28
5414.00,1.28
5413.00,1.28
5412.00,1.28
5411.00,1.28
5410.00,1.28
5409.00,1.28
5408.00,1.28
5407.00,1.28
5406.00,1.28
5405.00,1.28
5404.00,1.28
5403.00,1.28
5402.00,1.28
5401.00,1.28
5400.00,1.28
5399.00,1.28
5398.00,1.28
5397.00,1.28
5396.00,1.28
5395.00,1.28
5394.00,1.28
5393.00,1.27
5392.00,1.27
5391.00,1.27
5390.00,1.27
5389.00,1.27
5388.00,1.26
5387.00,1.26
5386.00,1.26
5385.00,1.26
5384.00,1.25
5383.00,1.25
5382.00,1.25
5381.00,1.24
5380.00,1.24
5379.00,1.24
5378.00,1.23
5377.00,1.23
5376.00,1.23
5375.00,1.22
5374.00,1.22
5373.00,1.22
5372.00,1.21
5371.00,1.21
5370.00,1.20
5369.00,1.20
5368.00,1.20
5367.00,1.19
5366.00,1.19
5365.00,1.18
5364.00,1.17
5363.00,1.17
5362.00,1.16
5361.00,1.16
5360.00,1.15
5359.00,1.14
5358.00,1.13
5357.00,1.13
5356.00,1.12
5355.00,1.11
5354.00,1.10
5353.00,1.09
5352.00,1.08
5351.00,1.07
5350.00,1.06
5349.00,1.05
5348.00,1.04
5347.00,1.03
5346.00,1.02
5345.00,1.01
5344.00,1.00
5343.00,0.99
5342.00,0.98
5341.00,0.97
5340.00,0.96
5339.00,0.95
5338.00,0.94
5337.00,0.93
5336.00,0.93
5335.00,0.92
5334.00,0.91
5333.00,0.90
5332.00,0.89
5331.00,0.88
5330.00,0.87
5329.00,0.86
5328.00,0.85
5327.00,0.84
5326.00,0.83
5325.00,0.82
5324.00,0.82
5323.00,0.81
5322.00,0.80
5321.00,0.79
5320.00,0.78
5319.00,0.77
5318.00,0.76
5317.00,0.75
5316.00,0.75
5315.00,0.74
5314.00,0.73
5313.00,0.72
5312.00,0.71
5311.00,0.71
5310.00,0.70
5309.00,0.69
5308.00,0.69
5307.00,0.68
5306.00,0.67
5305.00,0.67
5304.00,0.66
5303.00,0.66
5302.00,0.65
5301.00,0.65
5300.00,0.64
5299.00,0.64
5298.00,0.64
5297.00,0.63
5296.00,0.63
5295.00,0.63
5294.00,0.62
5293.00,0.62
5292.00,0.62
5291.00,0.62
5290.00,0.61
5289.00,0.61
5288.00,0.61
5287.00,0.61
5286.00,0.61
5285.00,0.60
5284.00,0.60
5283.00,0.60
5282.00,0.60
5281.00,0.60
5280.00,0.60
5279.00,0.60
5278.00,0.60
5277.00,0.60
5276.00,0.60
5275.00,0.60
5274.00,0.60
5273.00,0.60
5272.00,0.60
5271.00,0.60
5270.00,0.60
5269.00,0.59
5268.00,0.59
5267.00,0.59
5266.00,0.59
5265.00,0.59
5264.00,0.59
5263.00,0.59
5262.00,0.59
5261.00,0.59
5260.00,0.59
5259.00,0.59
5258.00,0.59
5257.00,0.59
5256.00,0.59
5255.00,0.59
5254.00,0.59
5253.00,0.59
5252.00,0.59
5251.00,0.58
5250.00,0.58
5249.00,0.58
5248.00,0.58
5247.00,0.58
5246.00,0.58
5245.00,0.58
5244.00,0.58
5243.00,0.58
5242.00,0.59
5241.00,0.59
5240.00,0.59
5239.00,0.59
5238.00,0.59
5237.00,0.59
5236.00,0.59
5235.00,0.59
5234.00,0.59
5233.00,0.59
5232.00,0.59
5231.00,0.59
5230.00,0.59
5229.00,0.59
5228.00,0.59
5227.00,0.59
5226.00,0.59
5225.00,0.59
5224.00,0.59
5223.00,0.59
5222.00,0.59
5221.00,0.59
5220.00,0.59
5219.00,0.59
5218.00,0.59
5217.00,0.59
5216.00,0.59
5215.00,0.59
5214.00,0.59
5213.00,0.59
5212.00,0.59
5211.00,0.59
5210.00,0.59
5209.00,0.59
5208.00,0.59
5207.00,0.59
5206.00,0.59
5205.00,0.59
5204.00,0.60
5203.00,0.60
5202.00,0.60
5201.00,0.60
5200.00,0.60
5199.00,0.60
5198.00,0.60
5197.00,0.60
5196.00,0.60
5195.00,0.60
5194.00,0.60
5193.00,0.60
5192.00,0.61
5191.00,0.61
5190.00,0.61
5189.00,0.61
5188.00,0.61
5187.00,0.61
5186.00,0.61
5185.00,0.61
5184.00,0.61
5183.00,0.61
5182.00,0.61
5181.00,0.62
5180.00,0.62
5179.00,0.62
5178.00,0.62
5177.00,0.62
5176.00,0.62
5175.00,0.62
5174.00,0.62
5173.00,0.62
5172.00,0.62
5171.00,0.62
5170.00,0.62
5169.00,0.62
5168.00,0.62
5167.00,0.62
5166.00,0.62
5165.00,0.62
5164.00,0.62
5163.00,0.62
5162.00,0.62
5161.00,0.62
5160.00,0.62
5159.00,0.62
5158.00,0.62
5157.00,0.62
5156.00,0.62
5155.00,0.62
5154.00,0.62
5153.00,0.62
5152.00,0.62
5151.00,0.62
5150.00,0.62
5149.00,0.62
5148.00,0.63
5147.00,0.63
5146.00,0.63
5145.00,0.63
5144.00,0.63
5143.00,0.63
5142.00,0.63
5141.00,0.63
5140.00,0.63
5139.00,0.63
5138.00,0.63
5137.00,0.63
5136.00,0.63
5135.00,0.63
5134.00,0.63
5133.00,0.63
5132.00,0.63
5131.00,0.63
5130.00,0.63
5129.00,0.63
5128.00,0.64
5127.00,0.64
5126.00,0.64
5125.00,0.64
5124.00,0.64
5123.00,0.64
5122.00,0.64
5121.00,0.64
5120.00,0.64
5119.00,0.64
5118.00,0.65
5117.00,0.65
5116.00,0.65
5115.00,0.65
5114.00,0.65
5113.00,0.65
5112.00,0.65
5111.00,0.65
5110.00,0.65
5109.00,0.65
5108.00,0.65
5107.00,0.65
5106.00,0.65
5105.00,0.65
5104.00,0.65
5103.00,0.65
5102.00,0.65
5101.00,0.65
5100.00,0.65
5099.00,0.65
5098.00,0.66
5097.00,0.66
5096.00,0.66
5095.00,0.66
5094.00,0.66
5093.00,0.66
5092.00,0.66
5091.00,0.66
5090.00,0.66
5089.00,0.66
5088.00,0.66
5087.00,0.66
5086.00,0.66
5085.00,0.66
5084.00,0.66
5083.00,0.66
5082.00,0.66
5081.00,0.66
5080.00,0.66
5079.00,0.66
5078.00,0.66
5077.00,0.66
5076.00,0.67
5075.00,0.67
5074.00,0.67
5073.00,0.67
5072.00,0.67
5071.00,0.67
5070.00,0.67
5069.00,0.67
5068.00,0.67
5067.00,0.67
5066.00,0.67
5065.00,0.67
5064.00,0.67
5063.00,0.67
5062.00,0.67
5061.00,0.67
5060.00,0.67
5059.00,0.67
5058.00,0.67
5057.00,0.67
5056.00,0.67
5055.00,0.68
5054.00,0.68
5053.00,0.68
5052.00,0.68
5051.00,0.68
5050.00,0.68
5049.00,0.68
5048.00,0.68
5047.00,0.68
5046.00,0.68
5045.00,0.68
5044.00,0.68
5043.00,0.68
5042.00,0.68
5041.00,0.68
5040.00,0.69
5039.00,0.69
5038.00,0.69
5037.00,0.69
5036.00,0.69
5035.00,0.69
5034.00,0.69
5033.00,0.69
5032.00,0.69
5031.00,0.70
5030.00,0.70
5029.00,0.70
5028.00,0.70
5027.00,0.70
5026.00,0.70
5025.00,0.70
5024.00,0.70
5023.00,0.70
5022.00,0.70
5021.00,0.70
5020.00,0.70
5019.00,0.70
5018.00,0.70
5017.00,0.70
5016.00,0.70
5015.00,0.70
5014.00,0.71
5013.00,0.71
5012.00,0.71
5011.00,0.71
5010.00,0.71
5009.00,0.71
5008.00,0.71
5007.00,0.71
5006.00,0.71
5005.00,0.71
5004.00,0.71
5003.00,0.71
5002.00,0.71
5001.00,0.71
5000.00,0.71
4999.00,0.71
4998.00,0.71
4997.00,0.71
4996.00,0.71
4995.00,0.72
4994.00,0.72
4993.00,0.72
4992.00,0.72
4991.00,0.72
4990.00,0.72
4989.00,0.72
4988.00,0.72
4987.00,0.72
4986.00,0.72
4985.00,0.73
4984.00,0.73
4983.00,0.73
4982.00,0.73
4981.00,0.73
4980.00,0.73
4979.00,0.73
4978.00,0.73
4977.00,0.73
4976.00,0.73
4975.00,0.73
4974.00,0.73
4973.00,0.74
4972.00,0.74
4971.00,0.74
4970.00,0.74
4969.00,0.74
4968.00,0.74
4967.00,0.74
4966.00,0.74
4965.00,0.74
4964.00,0.74
4963.00,0.74
4962.00,0.74
4961.00,0.74
4960.00,0.75
4959.00,0.75
4958.00,0.75
4957.00,0.75
4956.00,0.75
4955.00,0.75
4954.00,0.75
4953.00,0.75
4952.00,0.75
4951.00,0.75
4950.00,0.75
4949.00,0.75
4948.00,0.75
4947.00,0.75
4946.00,0.75
4945.00,0.76
4944.00,0.76
4943.00,0.76
4942.00,0.76
4941.00,0.76
4940.00,0.76
4939.00,0.76
4938.00,0.76
4937.00,0.76
4936.00,0.76
4935.00,0.76
4934.00,0.77
4933.00,0.77
4932.00,0.77
4931.00,0.77
4930.00,0.77
4929.00,0.77
4928.00,0.77
4927.00,0.77
4926.00,0.77
4925.00,0.77
4924.00,0.77
4923.00,0.77
4922.00,0.78
4921.00,0.78
4920.00,0.78
4919.00,0.78
4918.00,0.78
4917.00,0.78
4916.00,0.78
4915.00,0.78
4914.00,0.78
4913.00,0.78
4912.00,0.78
4911.00,0.78
4910.00,0.78
4909.00,0.78
4908.00,0.78
4907.00,0.78
4906.00,0.78
4905.00,0.78
4904.00,0.78
4903.00,0.78
4902.00,0.78
4901.00,0.78
4900.00,0.78
4899.00,0.78
4898.00,0.78
4897.00,0.79
4896.00,0.79
4895.00,0.79
4894.00,0.79
4893.00,0.79
4892.00,0.79
4891.00,0.79
4890.00,0.79
4889.00,0.79
4888.00,0.79
4887.00,0.79
4886.00,0.79
4885.00,0.79
4884.00,0.79
4883.00,0.79
4882.00,0.80
4881.00,0.80
4880.00,0.80
4879.00,0.80
4878.00,0.80
4877.00,0.80
4876.00,0.80
4875.00,0.80
4874.00,0.80
4873.00,0.80
4872.00,0.80
4871.00,0.80
4870.00,0.81
4869.00,0.81
4868.00,0.81
4867.00,0.81
4866.00,0.81
4865.00,0.81
4864.00,0.81
4863.00,0.81
4862.00,0.81
4861.00,0.81
4860.00,0.81
4859.00,0.81
4858.00,0.81
4857.00,0.81
4856.00,0.81
4855.00,0.81
4854.00,0.81
4853.00,0.82
4852.00,0.82
4851.00,0.82
4850.00,0.82
4849.00,0.82
4848.00,0.82
4847.00,0.82
4846.00,0.82
4845.00,0.82
4844.00,0.83
4843.00,0.83
4842.00,0.83
4841.00,0.83
4840.00,0.83
4839.00,0.83
4838.00,0.83
4837.00,0.83
4836.00,0.83
4835.00,0.83
4834.00,0.83
4833.00,0.83
4832.00,0.84
4831.00,0.84
4830.00,0.84
4829.00,0.84
4828.00,0.84
4827.00,0.84
4826.00,0.84
4825.00,0.84
4824.00,0.84
4823.00,0.84
4822.00,0.84
4821.00,0.84
4820.00,0.84
4819.00,0.84
4818.00,0.84
4817.00,0.84
4816.00,0.84
4815.00,0.85
4814.00,0.85
4813.00,0.85
4812.00,0.85
4811.00,0.85
4810.00,0.85
4809.00,0.85
4808.00,0.85
4807.00,0.85
4806.00,0.85
4805.00,0.85
4804.00,0.85
4803.00,0.85
4802.00,0.86
4801.00,0.86
4800.00,0.86
4799.00,0.86
4798.00,0.86
4797.00,0.86
4796.00,0.86
4795.00,0.87
4794.00,0.87
4793.00,0.87
4792.00,0.87
4791.00,0.87
4790.00,0.87
4789.00,0.87
4788.00,0.88
4787.00,0.88
4786.00,0.88
4785.00,0.88
4784.00,0.88
4783.00,0.88
4782.00,0.88
4781.00,0.88
4780.00,0.88
4779.00,0.88
4778.00,0.88
4777.00,0.88
4776.00,0.89
4775.00,0.89
4774.00,0.89
4773.00,0.89
4772.00,0.89
4771.00,0.89
4770.00,0.89
4769.00,0.89
4768.00,0.89
4767.00,0.89
4766.00,0.90
4765.00,0.90
4764.00,0.90
4763.00,0.90
4762.00,0.90
4761.00,0.90
4760.00,0.90
4759.00,0.91
4758.00,0.91
4757.00,0.91
4756.00,0.91
4755.00,0.91
4754.00,0.91
4753.00,0.92
4752.00,0.92
4751.00,0.92
4750.00,0.92
4749.00,0.92
4748.00,0.93
4747.00,0.93
4746.00,0.93
4745.00,0.93
4744.00,0.93
4743.00,0.94
4742.00,0.94
4741.00,0.94
4740.00,0.94
4739.00,0.94
4738.00,0.94
4737.00,0.94
4736.00,0.95
4735.00,0.95
4734.00,0.95
4733.00,0.95
4732.00,0.95
4731.00,0.95
4730.00,0.95
4729.00,0.96
4728.00,0.96
4727.00,0.96
4726.00,0.96
4725.00,0.96
4724.00,0.96
4723.00,0.97
4722.00,0.97
4721.00,0.97
4720.00,0.97
4719.00,0.97
4718.00,0.98
4717.00,0.98
4716.00,0.98
4715.00,0.98
4714.00,0.98
4713.00,0.98
4712.00,0.99
4711.00,0.99
4710.00,0.99
4709.00,0.99
4708.00,0.99
4707.00,0.99
4706.00,1.00
4705.00,1.00
4704.00,1.00
4703.00,1.00
4702.00,1.00
4701.00,1.00
4700.00,1.00
4699.00,1.00
4698.00,1.01
4697.00,1.01
4696.00,1.01
4695.00,1.01
4694.00,1.01
4693.00,1.01
4692.00,1.01
4691.00,1.01
4690.00,1.01
4689.00,1.01
4688.00,1.02
4687.00,1.02
4686.00,1.02
4685.00,1.02
4684.00,1.02
4683.00,1.02
4682.00,1.02
4681.00,1.03
4680.00,1.03
4679.00,1.03
4678.00,1.03
4677.00,1.03
4676.00,1.03
4675.00,1.04
4674.00,1.04
4673.00,1.04
4672.00,1.04
4671.00,1.04
4670.00,1.04
4669.00,1.05
4668.00,1.05
4667.00,1.05
4666.00,1.05
4665.00,1.05
4664.00,1.05
4663.00,1.05
4662.00,1.05
4661.00,1.05
4660.00,1.06
4659.00,1.06
4658.00,1.06
4657.00,1.06
4656.00,1.06
4655.00,1.06
4654.00,1.06
4653.00,1.07
4652.00,1.07
4651.00,1.07
4650.00,1.07
4649.00,1.07
4648.00,1.07
4647.00,1.08
4646.00,1.08
4645.00,1.08
4644.00,1.08
4643.00,1.08
4642.00,1.09
4641.00,1.09
4640.00,1.09
4639.00,1.09
4638.00,1.09
4637.00,1.09
4636.00,1.09
4635.00,1.10
4634.00,1.10
4633.00,1.10
4632.00,1.10
4631.00,1.10
4630.00,1.10
4629.00,1.10
4628.00,1.10
4627.00,1.10
4626.00,1.10
4625.00,1.10
4624.00,1.10
4623.00,1.10
4622.00,1.11
4621.00,1.11
4620.00,1.11
4619.00,1.11
4618.00,1.11
4617.00,1.11
4616.00,1.11
4615.00,1.11
4614.00,1.11
4613.00,1.11
4612.00,1.11
4611.00,1.11
4610.00,1.11
4609.00,1.12
4608.00,1.12
4607.00,1.12
4606.00,1.12
4605.00,1.12
4604.00,1.12
4603.00,1.12
4602.00,1.12
4601.00,1.12
4600.00,1.12
4599.00,1.12
4598.00,1.13
4597.00,1.13
4596.00,1.13
4595.00,1.13
4594.00,1.13
4593.00,1.13
4592.00,1.13
4591.00,1.13
4590.00,1.13
4589.00,1.14
4588.00,1.14
4587.00,1.14
4586.00,1.14
4585.00,1.14
4584.00,1.14
4583.00,1.14
4582.00,1.14
4581.00,1.14
4580.00,1.14
4579.00,1.15
4578.00,1.15
4577.00,1.15
4576.00,1.15
4575.00,1.15
4574.00,1.15
4573.00,1.15
4572.00,1.15
4571.00,1.15
4570.00,1.15
4569.00,1.15
4568.00,1.15
4567.00,1.15
4566.00,1.16
4565.00,1.16
4564.00,1.16
4563.00,1.16
4562.00,1.16
4561.00,1.16
4560.00,1.16
4559.00,1.16
4558.00,1.16
4557.00,1.16
4556.00,1.16
4555.00,1.16
4554.00,1.16
4553.00,1.16
4552.00,1.16
4551.00,1.17
4550.00,1.17
4549.00,1.17
4548.00,1.17
4547.00,1.17
4546.00,1.17
4545.00,1.17
4544.00,1.17
4543.00,1.18
4542.00,1.18
4541.00,1.18
4540.00,1.18
4539.00,1.18
4538.00,1.18
4537.00,1.18
4536.00,1.18
4535.00,1.18
4534.00,1.18
4533.00,1.18
4532.00,1.18
4531.00,1.18
4530.00,1.18
4529.00,1.18
4528.00,1.18
4527.00,1.18
4526.00,1.18
4525.00,1.18
4524.00,1.18
4523.00,1.18
4522.00,1.18
4521.00,1.18
4520.00,1.18
4519.00,1.18
4518.00,1.18
4517.00,1.19
4516.00,1.19
4515.00,1.19
4514.00,1.19
4513.00,1.18
4512.00,1.18
4511.00,1.18
4510.00,1.18
4509.00,1.18
4508.00,1.18
4507.00,1.18
4506.00,1.18
4505.00,1.18
4504.00,1.18
4503.00,1.18
4502.00,1.18
4501.00,1.18
4500.00,1.18
4499.00,1.18
4498.00,1.18
4497.00,1.18
4496.00,1.18
4495.00,1.18
4494.00,1.18
4493.00,1.18
4492.00,1.18
4491.00,1.18
4490.00,1.18
4489.00,1.17
4488.00,1.17
4487.00,1.17
4486.00,1.17
4485.00,1.17
4484.00,1.17
4483.00,1.16
4482.00,1.16
4481.00,1.16
4480.00,1.16
4479.00,1.16
4478.00,1.15
4477.00,1.15
4476.00,1.15
4475.00,1.15
4474.00,1.14
4473.00,1.14
4472.00,1.14
4471.00,1.14
4470.00,1.13
4469.00,1.13
4468.00,1.13
4467.00,1.13
4466.00,1.13
4465.00,1.12
4464.00,1.12
4463.00,1.12
4462.00,1.12
4461.00,1.11
4460.00,1.11
4459.00,1.11
4458.00,1.11
4457.00,1.10
4456.00,1.10
4455.00,1.10
4454.00,1.10
4453.00,1.09
4452.00,1.09
4451.00,1.09
4450.00,1.09
4449.00,1.08
4448.00,1.08
4447.00,1.08
4446.00,1.07
4445.00,1.07
4444.00,1.06
4443.00,1.06
4442.00,1.06
4441.00,1.05
4440.00,1.05
4439.00,1.05
4438.00,1.04
4437.00,1.04
4436.00,1.04
4435.00,1.04
4434.00,1.03
4433.00,1.03
4432.00,1.03
4431.00,1.03
4430.00,1.02
4429.00,1.02
4428.00,1.02
4427.00,1.02
4426.00,1.02
4425.00,1.02
4424.00,1.02
4423.00,1.02
4422.00,1.01
4421.00,1.01
4420.00,1.01
4419.00,1.01
4418.00,1.01
4417.00,1.01
4416.00,1.01
4415.00,1.01
4414.00,1.01
4413.00,1.01
4412.00,1.01
4411.00,1.01
4410.00,1.01
4409.00,1.01
4408.00,1.01
4407.00,1.01
4406.00,1.01
4405.00,1.01
4404.00,1.01
4403.00,1.01
4402.00,1.01
4401.00,1.02
4400.00,1.02
4399.00,1.02
4398.00,1.02
4397.00,1.02
4396.00,1.02
4395.00,1.02
4394.00,1.03
4393.00,1.03
4392.00,1.03
4391.00,1.03
4390.00,1.03
4389.00,1.03
4388.00,1.04
4387.00,1.04
4386.00,1.04
4385.00,1.04
4384.00,1.04
4383.00,1.04
4382.00,1.04
4381.00,1.04
4380.00,1.04
4379.00,1.04
4378.00,1.05
4377.00,1.05
4376.00,1.05
4375.00,1.05
4374.00,1.05
4373.00,1.05
4372.00,1.05
4371.00,1.05
4370.00,1.05
4369.00,1.05
4368.00,1.05
4367.00,1.05
4366.00,1.05
4365.00,1.05
4364.00,1.05
4363.00,1.05
4362.00,1.05
4361.00,1.05
4360.00,1.05
4359.00,1.05
4358.00,1.05
4357.00,1.05
4356.00,1.05
4355.00,1.05
4354.00,1.05
4353.00,1.05
4352.00,1.05
4351.00,1.04
4350.00,1.04
4349.00,1.04
4348.00,1.04
4347.00,1.04
4346.00,1.05
4345.00,1.05
4344.00,1.05
4343.00,1.05
4342.00,1.05
4341.00,1.05
4340.00,1.05
4339.00,1.05
4338.00,1.05
4337.00,1.05
4336.00,1.05
4335.00,1.05
4334.00,1.05
4333.00,1.06
4332.00,1.06
4331.00,1.06
4330.00,1.06
4329.00,1.06
4328.00,1.06
4327.00,1.06
4326.00,1.07
4325.00,1.07
4324.00,1.07
4323.00,1.07
4322.00,1.07
4321.00,1.07
4320.00,1.08
4319.00,1.08
4318.00,1.08
4317.00,1.08
4316.00,1.08
4315.00,1.08
4314.00,1.08
4313.00,1.09
4312.00,1.09
4311.00,1.09
4310.00,1.09
4309.00,1.09
4308.00,1.09
4307.00,1.09
4306.00,1.10
4305.00,1.10
4304.00,1.10
4303.00,1.10
4302.00,1.10
4301.00,1.10
4300.00,1.11
4299.00,1.11
4298.00,1.11
4297.00,1.11
4296.00,1.11
4295.00,1.11
4294.00,1.11
4293.00,1.11
4292.00,1.11
4291.00,1.12
4290.00,1.12
4289.00,1.12
4288.00,1.12
4287.00,1.12
4286.00,1.12
4285.00,1.12
4284.00,1.12
4283.00,1.13
4282.00,1.13
4281.00,1.13
4280.00,1.13
4279.00,1.13
4278.00,1.13
4277.00,1.13
4276.00,1.13
4275.00,1.13
4274.00,1.12
4273.00,1.12
4272.00,1.12
4271.00,1.12
4270.00,1.12
4269.00,1.12
4268.00,1.12
4267.00,1.12
4266.00,1.12
4265.00,1.12
4264.00,1.12
4263.00,1.12
4262.00,1.12
4261.00,1.12
4260.00,1.12
4259.00,1.13
4258.00,1.13
4257.00,1.13
4256.00,1.13
4255.00,1.13
4254.00,1.13
4253.00,1.14
4252.00,1.14
4251.00,1.14
4250.00,1.14
4249.00,1.14
4248.00,1.14
4247.00,1.15
4246.00,1.15
4245.00,1.15
4244.00,1.15
4243.00,1.15
4242.00,1.15
4241.00,1.15
4240.00,1.15
4239.00,1.16
4238.00,1.16
4237.00,1.16
4236.00,1.16
4235.00,1.16
4234.00,1.16
4233.00,1.16
4232.00,1.16
4231.00,1.16
4230.00,1.17
4229.00,1.17
4228.00,1.17
4227.00,1.17
4226.00,1.17
4225.00,1.17
4224.00,1.17
4223.00,1.17
4222.00,1.17
4221.00,1.17
4220.00,1.17
4219.00,1.17
4218.00,1.17
4217.00,1.17
4216.00,1.17
4215.00,1.17
4214.00,1.17
4213.00,1.17
4212.00,1.17
4211.00,1.17
4210.00,1.17
4209.00,1.17
4208.00,1.17
4207.00,1.17
4206.00,1.17
4205.00,1.17
4204.00,1.17
4203.00,1.18
4202.00,1.18
4201.00,1.18
4200.00,1.18
4199.00,1.18
4198.00,1.18
4197.00,1.18
4196.00,1.18
4195.00,1.18
4194.00,1.18
4193.00,1.18
4192.00,1.19
4191.00,1.19
4190.00,1.19
4189.00,1.19
4188.00,1.19
4187.00,1.19
4186.00,1.19
4185.00,1.19
4184.00,1.19
4183.00,1.19
4182.00,1.19
4181.00,1.19
4180.00,1.18
4179.00,1.18
4178.00,1.18
4177.00,1.18
4176.00,1.18
4175.00,1.18
4174.00,1.18
4173.00,1.18
4172.00,1.18
4171.00,1.18
4170.00,1.18
4169.00,1.19
4168.00,1.19
4167.00,1.19
4166.00,1.19
4165.00,1.19
4164.00,1.19
4163.00,1.19
4162.00,1.19
4161.00,1.19
4160.00,1.19
4159.00,1.19
4158.00,1.19
4157.00,1.19
4156.00,1.19
4155.00,1.19
4154.00,1.19
4153.00,1.19
4152.00,1.19
4151.00,1.20
4150.00,1.20
4149.00,1.20
4148.00,1.20
4147.00,1.20
4146.00,1.20
4145.00,1.20
4144.00,1.20
4143.00,1.20
4142.00,1.20
4141.00,1.20
4140.00,1.20
4139.00,1.20
4138.00,1.20
4137.00,1.20
4136.00,1.21
4135.00,1.21
4134.00,1.21
4133.00,1.21
4132.00,1.21
4131.00,1.21
4130.00,1.21
4129.00,1.21
4128.00,1.21
4127.00,1.21
4126.00,1.21
4125.00,1.22
4124.00,1.22
4123.00,1.22
4122.00,1.22
4121.00,1.22
4120.00,1.22
4119.00,1.22
4118.00,1.22
4117.00,1.22
4116.00,1.23
4115.00,1.23
4114.00,1.23
4113.00,1.23
4112.00,1.23
4111.00,1.23
4110.00,1.23
4109.00,1.23
4108.00,1.23
4107.00,1.23
4106.00,1.23
4105.00,1.23
4104.00,1.23
4103.00,1.23
4102.00,1.23
4101.00,1.23
4100.00,1.23
4099.00,1.23
4098.00,1.23
4097.00,1.23
4096.00,1.23
4095.00,1.23
4094.00,1.23
4093.00,1.23
4092.00,1.23
4091.00,1.23
4090.00,1.23
4089.00,1.23
4088.00,1.23
4087.00,1.23
4086.00,1.23
4085.00,1.24
4084.00,1.24
4083.00,1.24
4082.00,1.24
4081.00,1.24
4080.00,1.24
4079.00,1.24
4078.00,1.25
4077.00,1.25
4076.00,1.25
4075.00,1.25
4074.00,1.25
4073.00,1.26
4072.00,1.26
4071.00,1.26
4070.00,1.26
4069.00,1.26
4068.00,1.26
4067.00,1.26
4066.00,1.27
4065.00,1.27
4064.00,1.27
4063.00,1.27
4062.00,1.27
4061.00,1.27
4060.00,1.27
4059.00,1.27
4058.00,1.27
4057.00,1.27
4056.00,1.27
4055.00,1.27
4054.00,1.27
4053.00,1.27
4052.00,1.27
4051.00,1.27
4050.00,1.27
4049.00,1.27
4048.00,1.26
4047.00,1.26
4046.00,1.26
4045.00,1.26
4044.00,1.26
4043.00,1.26
4042.00,1.26
4041.00,1.26
4040.00,1.26
4039.00,1.26
4038.00,1.26
4037.00,1.26
4036.00,1.26
4035.00,1.26
4034.00,1.26
4033.00,1.26
4032.00,1.27
4031.00,1.27
4030.00,1.27
4029.00,1.27
4028.00,1.27
4027.00,1.27
4026.00,1.27
4025.00,1.28
4024.00,1.28
4023.00,1.28
4022.00,1.28
4021.00,1.28
4020.00,1.28
4019.00,1.28
4018.00,1.28
4017.00,1.28
4016.00,1.28
4015.00,1.29
4014.00,1.29
4013.00,1.29
4012.00,1.29
4011.00,1.29
4010.00,1.29
4009.00,1.29
4008.00,1.29
4007.00,1.29
4006.00,1.28
4005.00,1.28
4004.00,1.28
4003.00,1.28
4002.00,1.28
4001.00,1.28
4000.00,1.28
