创建为新数据集,样品 553 用户 Administrator 日期 星期一, 七月 16 2018
cm-1,%T
10000.00,1.73
9999.00,1.73
9998.00,1.73
9997.00,1.73
9996.00,1.73
9995.00,1.73
9994.00,1.73
9993.00,1.73
9992.00,1.73
9991.00,1.73
9990.00,1.73
9989.00,1.73
9988.00,1.73
9987.00,1.73
9986.00,1.73
9985.00,1.73
9984.00,1.73
9983.00,1.73
9982.00,1.73
9981.00,1.73
9980.00,1.73
9979.00,1.73
9978.00,1.72
9977.00,1.72
9976.00,1.72
9975.00,1.72
9974.00,1.72
9973.00,1.72
9972.00,1.72
9971.00,1.72
9970.00,1.72
9969.00,1.72
9968.00,1.72
9967.00,1.72
9966.00,1.72
9965.00,1.72
9964.00,1.72
9963.00,1.72
9962.00,1.72
9961.00,1.72
9960.00,1.72
9959.00,1.72
9958.00,1.72
9957.00,1.72
9956.00,1.72
9955.00,1.71
9954.00,1.71
9953.00,1.71
9952.00,1.71
9951.00,1.71
9950.00,1.71
9949.00,1.71
9948.00,1.70
9947.00,1.70
9946.00,1.70
9945.00,1.70
9944.00,1.70
9943.00,1.70
9942.00,1.70
9941.00,1.70
9940.00,1.70
9939.00,1.70
9938.00,1.70
9937.00,1.69
9936.00,1.69
9935.00,1.69
9934.00,1.70
9933.00,1.70
9932.00,1.70
9931.00,1.70
9930.00,1.70
9929.00,1.70
9928.00,1.70
9927.00,1.70
9926.00,1.70
9925.00,1.70
9924.00,1.70
9923.00,1.70
9922.00,1.70
9921.00,1.70
9920.00,1.70
9919.00,1.70
9918.00,1.70
9917.00,1.70
9916.00,1.70
9915.00,1.70
9914.00,1.69
9913.00,1.69
9912.00,1.69
9911.00,1.69
9910.00,1.69
9909.00,1.69
9908.00,1.69
9907.00,1.69
9906.00,1.69
9905.00,1.69
9904.00,1.70
9903.00,1.70
9902.00,1.70
9901.00,1.70
9900.00,1.70
9899.00,1.70
9898.00,1.71
9897.00,1.71
9896.00,1.71
9895.00,1.71
9894.00,1.71
9893.00,1.71
9892.00,1.71
9891.00,1.71
9890.00,1.71
9889.00,1.71
9888.00,1.71
9887.00,1.71
9886.00,1.71
9885.00,1.71
9884.00,1.70
9883.00,1.70
9882.00,1.70
9881.00,1.70
9880.00,1.70
9879.00,1.70
9878.00,1.70
9877.00,1.70
9876.00,1.70
9875.00,1.70
9874.00,1.70
9873.00,1.70
9872.00,1.70
9871.00,1.70
9870.00,1.70
9869.00,1.70
9868.00,1.70
9867.00,1.70
9866.00,1.70
9865.00,1.71
9864.00,1.71
9863.00,1.71
9862.00,1.71
9861.00,1.71
9860.00,1.72
9859.00,1.72
9858.00,1.72
9857.00,1.72
9856.00,1.72
9855.00,1.72
9854.00,1.72
9853.00,1.72
9852.00,1.72
9851.00,1.72
9850.00,1.72
9849.00,1.72
9848.00,1.72
9847.00,1.72
9846.00,1.72
9845.00,1.72
9844.00,1.72
9843.00,1.72
9842.00,1.71
9841.00,1.71
9840.00,1.71
9839.00,1.71
9838.00,1.71
9837.00,1.71
9836.00,1.71
9835.00,1.71
9834.00,1.71
9833.00,1.71
9832.00,1.71
9831.00,1.71
9830.00,1.71
9829.00,1.71
9828.00,1.71
9827.00,1.71
9826.00,1.71
9825.00,1.71
9824.00,1.71
9823.00,1.71
9822.00,1.71
9821.00,1.71
9820.00,1.71
9819.00,1.71
9818.00,1.71
9817.00,1.71
9816.00,1.71
9815.00,1.71
9814.00,1.71
9813.00,1.71
9812.00,1.71
9811.00,1.71
9810.00,1.71
9809.00,1.71
9808.00,1.72
9807.00,1.72
9806.00,1.72
9805.00,1.72
9804.00,1.72
9803.00,1.72
9802.00,1.72
9801.00,1.72
9800.00,1.72
9799.00,1.72
9798.00,1.72
9797.00,1.72
9796.00,1.73
9795.00,1.73
9794.00,1.73
9793.00,1.73
9792.00,1.73
9791.00,1.73
9790.00,1.73
9789.00,1.73
9788.00,1.73
9787.00,1.73
9786.00,1.73
9785.00,1.73
9784.00,1.73
9783.00,1.73
9782.00,1.73
9781.00,1.73
9780.00,1.73
9779.00,1.73
9778.00,1.73
9777.00,1.73
9776.00,1.73
9775.00,1.73
9774.00,1.72
9773.00,1.72
9772.00,1.72
9771.00,1.72
9770.00,1.72
9769.00,1.72
9768.00,1.72
9767.00,1.72
9766.00,1.72
9765.00,1.71
9764.00,1.71
9763.00,1.71
9762.00,1.71
9761.00,1.71
9760.00,1.71
9759.00,1.71
9758.00,1.71
9757.00,1.71
9756.00,1.71
9755.00,1.70
9754.00,1.70
9753.00,1.70
9752.00,1.70
9751.00,1.70
9750.00,1.70
9749.00,1.70
9748.00,1.70
9747.00,1.70
9746.00,1.70
9745.00,1.70
9744.00,1.70
9743.00,1.70
9742.00,1.70
9741.00,1.70
9740.00,1.70
9739.00,1.70
9738.00,1.71
9737.00,1.71
9736.00,1.71
9735.00,1.71
9734.00,1.71
9733.00,1.71
9732.00,1.72
9731.00,1.72
9730.00,1.72
9729.00,1.72
9728.00,1.72
9727.00,1.72
9726.00,1.72
9725.00,1.72
9724.00,1.72
9723.00,1.72
9722.00,1.72
9721.00,1.72
9720.00,1.72
9719.00,1.72
9718.00,1.72
9717.00,1.72
9716.00,1.72
9715.00,1.72
9714.00,1.71
9713.00,1.71
9712.00,1.71
9711.00,1.71
9710.00,1.71
9709.00,1.71
9708.00,1.71
9707.00,1.71
9706.00,1.71
9705.00,1.71
9704.00,1.71
9703.00,1.71
9702.00,1.71
9701.00,1.71
9700.00,1.71
9699.00,1.71
9698.00,1.71
9697.00,1.71
9696.00,1.71
9695.00,1.71
9694.00,1.71
9693.00,1.71
9692.00,1.71
9691.00,1.71
9690.00,1.70
9689.00,1.70
9688.00,1.70
9687.00,1.70
9686.00,1.70
9685.00,1.70
9684.00,1.70
9683.00,1.70
9682.00,1.70
9681.00,1.70
9680.00,1.71
9679.00,1.71
9678.00,1.71
9677.00,1.70
9676.00,1.70
9675.00,1.70
9674.00,1.70
9673.00,1.70
9672.00,1.70
9671.00,1.70
9670.00,1.70
9669.00,1.69
9668.00,1.69
9667.00,1.69
9666.00,1.69
9665.00,1.69
9664.00,1.68
9663.00,1.68
9662.00,1.68
9661.00,1.68
9660.00,1.68
9659.00,1.68
9658.00,1.68
9657.00,1.68
9656.00,1.69
9655.00,1.69
9654.00,1.69
9653.00,1.69
9652.00,1.69
9651.00,1.70
9650.00,1.70
9649.00,1.70
9648.00,1.70
9647.00,1.71
9646.00,1.71
9645.00,1.71
9644.00,1.71
9643.00,1.71
9642.00,1.72
9641.00,1.72
9640.00,1.72
9639.00,1.72
9638.00,1.72
9637.00,1.72
9636.00,1.72
9635.00,1.72
9634.00,1.72
9633.00,1.72
9632.00,1.71
9631.00,1.71
9630.00,1.71
9629.00,1.71
9628.00,1.71
9627.00,1.71
9626.00,1.71
9625.00,1.71
9624.00,1.71
9623.00,1.71
9622.00,1.71
9621.00,1.71
9620.00,1.71
9619.00,1.71
9618.00,1.71
9617.00,1.71
9616.00,1.70
9615.00,1.70
9614.00,1.70
9613.00,1.70
9612.00,1.70
9611.00,1.70
9610.00,1.70
9609.00,1.70
9608.00,1.71
9607.00,1.71
9606.00,1.71
9605.00,1.71
9604.00,1.71
9603.00,1.71
9602.00,1.71
9601.00,1.71
9600.00,1.71
9599.00,1.72
9598.00,1.72
9597.00,1.72
9596.00,1.72
9595.00,1.72
9594.00,1.73
9593.00,1.73
9592.00,1.73
9591.00,1.73
9590.00,1.73
9589.00,1.73
9588.00,1.73
9587.00,1.73
9586.00,1.73
9585.00,1.73
9584.00,1.73
9583.00,1.73
9582.00,1.73
9581.00,1.73
9580.00,1.72
9579.00,1.72
9578.00,1.72
9577.00,1.72
9576.00,1.72
9575.00,1.71
9574.00,1.71
9573.00,1.71
9572.00,1.71
9571.00,1.71
9570.00,1.71
9569.00,1.71
9568.00,1.71
9567.00,1.71
9566.00,1.71
9565.00,1.71
9564.00,1.71
9563.00,1.71
9562.00,1.71
9561.00,1.71
9560.00,1.71
9559.00,1.71
9558.00,1.71
9557.00,1.71
9556.00,1.72
9555.00,1.72
9554.00,1.71
9553.00,1.71
9552.00,1.71
9551.00,1.71
9550.00,1.71
9549.00,1.71
9548.00,1.71
9547.00,1.71
9546.00,1.71
9545.00,1.71
9544.00,1.71
9543.00,1.71
9542.00,1.70
9541.00,1.70
9540.00,1.70
9539.00,1.70
9538.00,1.70
9537.00,1.70
9536.00,1.70
9535.00,1.70
9534.00,1.70
9533.00,1.70
9532.00,1.71
9531.00,1.71
9530.00,1.71
9529.00,1.71
9528.00,1.71
9527.00,1.71
9526.00,1.71
9525.00,1.71
9524.00,1.71
9523.00,1.71
9522.00,1.71
9521.00,1.71
9520.00,1.71
9519.00,1.71
9518.00,1.71
9517.00,1.71
9516.00,1.71
9515.00,1.71
9514.00,1.71
9513.00,1.71
9512.00,1.71
9511.00,1.71
9510.00,1.71
9509.00,1.71
9508.00,1.71
9507.00,1.71
9506.00,1.71
9505.00,1.71
9504.00,1.71
9503.00,1.71
9502.00,1.71
9501.00,1.71
9500.00,1.71
9499.00,1.71
9498.00,1.71
9497.00,1.71
9496.00,1.71
9495.00,1.72
9494.00,1.72
9493.00,1.72
9492.00,1.72
9491.00,1.72
9490.00,1.72
9489.00,1.72
9488.00,1.72
9487.00,1.72
9486.00,1.72
9485.00,1.72
9484.00,1.72
9483.00,1.72
9482.00,1.72
9481.00,1.72
9480.00,1.72
9479.00,1.72
9478.00,1.72
9477.00,1.72
9476.00,1.72
9475.00,1.72
9474.00,1.72
9473.00,1.72
9472.00,1.72
9471.00,1.72
9470.00,1.72
9469.00,1.72
9468.00,1.72
9467.00,1.72
9466.00,1.72
9465.00,1.72
9464.00,1.72
9463.00,1.72
9462.00,1.72
9461.00,1.72
9460.00,1.72
9459.00,1.72
9458.00,1.72
9457.00,1.72
9456.00,1.72
9455.00,1.72
9454.00,1.72
9453.00,1.72
9452.00,1.72
9451.00,1.72
9450.00,1.72
9449.00,1.72
9448.00,1.72
9447.00,1.72
9446.00,1.72
9445.00,1.72
9444.00,1.72
9443.00,1.72
9442.00,1.72
9441.00,1.72
9440.00,1.72
9439.00,1.72
9438.00,1.72
9437.00,1.72
9436.00,1.72
9435.00,1.72
9434.00,1.72
9433.00,1.72
9432.00,1.72
9431.00,1.72
9430.00,1.72
9429.00,1.72
9428.00,1.72
9427.00,1.72
9426.00,1.72
9425.00,1.72
9424.00,1.72
9423.00,1.72
9422.00,1.72
9421.00,1.72
9420.00,1.72
9419.00,1.72
9418.00,1.72
9417.00,1.72
9416.00,1.72
9415.00,1.71
9414.00,1.71
9413.00,1.71
9412.00,1.71
9411.00,1.71
9410.00,1.71
9409.00,1.71
9408.00,1.71
9407.00,1.71
9406.00,1.71
9405.00,1.71
9404.00,1.71
9403.00,1.71
9402.00,1.71
9401.00,1.71
9400.00,1.71
9399.00,1.71
9398.00,1.71
9397.00,1.71
9396.00,1.71
9395.00,1.71
9394.00,1.71
9393.00,1.71
9392.00,1.71
9391.00,1.71
9390.00,1.71
9389.00,1.72
9388.00,1.72
9387.00,1.72
9386.00,1.72
9385.00,1.72
9384.00,1.71
9383.00,1.71
9382.00,1.71
9381.00,1.71
9380.00,1.71
9379.00,1.71
9378.00,1.71
9377.00,1.71
9376.00,1.71
9375.00,1.71
9374.00,1.71
9373.00,1.72
9372.00,1.72
9371.00,1.72
9370.00,1.72
9369.00,1.72
9368.00,1.72
9367.00,1.72
9366.00,1.72
9365.00,1.72
9364.00,1.72
9363.00,1.72
9362.00,1.72
9361.00,1.72
9360.00,1.72
9359.00,1.72
9358.00,1.72
9357.00,1.72
9356.00,1.72
9355.00,1.72
9354.00,1.72
9353.00,1.71
9352.00,1.71
9351.00,1.71
9350.00,1.71
9349.00,1.71
9348.00,1.71
9347.00,1.71
9346.00,1.71
9345.00,1.71
9344.00,1.70
9343.00,1.70
9342.00,1.70
9341.00,1.70
9340.00,1.70
9339.00,1.70
9338.00,1.70
9337.00,1.70
9336.00,1.70
9335.00,1.71
9334.00,1.71
9333.00,1.71
9332.00,1.71
9331.00,1.71
9330.00,1.71
9329.00,1.71
9328.00,1.71
9327.00,1.71
9326.00,1.71
9325.00,1.71
9324.00,1.71
9323.00,1.71
9322.00,1.71
9321.00,1.71
9320.00,1.71
9319.00,1.71
9318.00,1.71
9317.00,1.71
9316.00,1.72
9315.00,1.72
9314.00,1.72
9313.00,1.72
9312.00,1.72
9311.00,1.72
9310.00,1.72
9309.00,1.72
9308.00,1.72
9307.00,1.72
9306.00,1.72
9305.00,1.72
9304.00,1.72
9303.00,1.72
9302.00,1.72
9301.00,1.72
9300.00,1.72
9299.00,1.72
9298.00,1.72
9297.00,1.71
9296.00,1.71
9295.00,1.71
9294.00,1.71
9293.00,1.71
9292.00,1.71
9291.00,1.71
9290.00,1.71
9289.00,1.71
9288.00,1.71
9287.00,1.71
9286.00,1.70
9285.00,1.70
9284.00,1.70
9283.00,1.70
9282.00,1.71
9281.00,1.71
9280.00,1.71
9279.00,1.71
9278.00,1.71
9277.00,1.71
9276.00,1.71
9275.00,1.71
9274.00,1.71
9273.00,1.71
9272.00,1.71
9271.00,1.71
9270.00,1.71
9269.00,1.71
9268.00,1.71
9267.00,1.71
9266.00,1.71
9265.00,1.71
9264.00,1.71
9263.00,1.71
9262.00,1.71
9261.00,1.71
9260.00,1.71
9259.00,1.71
9258.00,1.71
9257.00,1.71
9256.00,1.71
9255.00,1.71
9254.00,1.71
9253.00,1.71
9252.00,1.71
9251.00,1.71
9250.00,1.71
9249.00,1.71
9248.00,1.71
9247.00,1.71
9246.00,1.71
9245.00,1.71
9244.00,1.71
9243.00,1.71
9242.00,1.71
9241.00,1.71
9240.00,1.71
9239.00,1.71
9238.00,1.71
9237.00,1.71
9236.00,1.71
9235.00,1.71
9234.00,1.71
9233.00,1.71
9232.00,1.71
9231.00,1.71
9230.00,1.71
9229.00,1.71
9228.00,1.70
9227.00,1.70
9226.00,1.70
9225.00,1.70
9224.00,1.70
9223.00,1.70
9222.00,1.70
9221.00,1.70
9220.00,1.70
9219.00,1.70
9218.00,1.70
9217.00,1.70
9216.00,1.70
9215.00,1.70
9214.00,1.70
9213.00,1.70
9212.00,1.70
9211.00,1.70
9210.00,1.70
9209.00,1.71
9208.00,1.71
9207.00,1.71
9206.00,1.71
9205.00,1.72
9204.00,1.72
9203.00,1.72
9202.00,1.72
9201.00,1.72
9200.00,1.73
9199.00,1.73
9198.00,1.73
9197.00,1.73
9196.00,1.73
9195.00,1.73
9194.00,1.73
9193.00,1.73
9192.00,1.73
9191.00,1.73
9190.00,1.73
9189.00,1.73
9188.00,1.73
9187.00,1.73
9186.00,1.72
9185.00,1.72
9184.00,1.72
9183.00,1.72
9182.00,1.72
9181.00,1.72
9180.00,1.72
9179.00,1.72
9178.00,1.72
9177.00,1.72
9176.00,1.72
9175.00,1.72
9174.00,1.71
9173.00,1.71
9172.00,1.71
9171.00,1.71
9170.00,1.71
9169.00,1.71
9168.00,1.71
9167.00,1.71
9166.00,1.71
9165.00,1.71
9164.00,1.71
9163.00,1.71
9162.00,1.71
9161.00,1.71
9160.00,1.71
9159.00,1.71
9158.00,1.71
9157.00,1.71
9156.00,1.71
9155.00,1.71
9154.00,1.71
9153.00,1.71
9152.00,1.71
9151.00,1.71
9150.00,1.71
9149.00,1.71
9148.00,1.71
9147.00,1.71
9146.00,1.70
9145.00,1.70
9144.00,1.70
9143.00,1.70
9142.00,1.70
9141.00,1.70
9140.00,1.70
9139.00,1.70
9138.00,1.70
9137.00,1.70
9136.00,1.70
9135.00,1.70
9134.00,1.70
9133.00,1.70
9132.00,1.70
9131.00,1.70
9130.00,1.70
9129.00,1.70
9128.00,1.70
9127.00,1.70
9126.00,1.70
9125.00,1.71
9124.00,1.71
9123.00,1.71
9122.00,1.71
9121.00,1.71
9120.00,1.71
9119.00,1.71
9118.00,1.71
9117.00,1.71
9116.00,1.71
9115.00,1.72
9114.00,1.72
9113.00,1.72
9112.00,1.72
9111.00,1.72
9110.00,1.72
9109.00,1.72
9108.00,1.72
9107.00,1.72
9106.00,1.72
9105.00,1.72
9104.00,1.72
9103.00,1.72
9102.00,1.72
9101.00,1.72
9100.00,1.72
9099.00,1.72
9098.00,1.72
9097.00,1.72
9096.00,1.72
9095.00,1.72
9094.00,1.72
9093.00,1.72
9092.00,1.72
9091.00,1.72
9090.00,1.72
9089.00,1.72
9088.00,1.72
9087.00,1.72
9086.00,1.72
9085.00,1.72
9084.00,1.72
9083.00,1.72
9082.00,1.72
9081.00,1.72
9080.00,1.72
9079.00,1.71
9078.00,1.71
9077.00,1.71
9076.00,1.71
9075.00,1.71
9074.00,1.71
9073.00,1.71
9072.00,1.71
9071.00,1.71
9070.00,1.71
9069.00,1.71
9068.00,1.71
9067.00,1.71
9066.00,1.70
9065.00,1.70
9064.00,1.70
9063.00,1.70
9062.00,1.70
9061.00,1.70
9060.00,1.70
9059.00,1.70
9058.00,1.70
9057.00,1.70
9056.00,1.70
9055.00,1.70
9054.00,1.70
9053.00,1.70
9052.00,1.70
9051.00,1.70
9050.00,1.70
9049.00,1.70
9048.00,1.70
9047.00,1.70
9046.00,1.70
9045.00,1.70
9044.00,1.70
9043.00,1.70
9042.00,1.70
9041.00,1.70
9040.00,1.70
9039.00,1.70
9038.00,1.70
9037.00,1.70
9036.00,1.70
9035.00,1.70
9034.00,1.70
9033.00,1.70
9032.00,1.70
9031.00,1.70
9030.00,1.70
9029.00,1.70
9028.00,1.70
9027.00,1.70
9026.00,1.70
9025.00,1.70
9024.00,1.70
9023.00,1.70
9022.00,1.70
9021.00,1.70
9020.00,1.70
9019.00,1.70
9018.00,1.70
9017.00,1.70
9016.00,1.70
9015.00,1.70
9014.00,1.70
9013.00,1.70
9012.00,1.70
9011.00,1.70
9010.00,1.69
9009.00,1.69
9008.00,1.69
9007.00,1.69
9006.00,1.69
9005.00,1.69
9004.00,1.69
9003.00,1.69
9002.00,1.69
9001.00,1.70
9000.00,1.70
8999.00,1.70
8998.00,1.70
8997.00,1.70
8996.00,1.70
8995.00,1.70
8994.00,1.70
8993.00,1.70
8992.00,1.70
8991.00,1.70
8990.00,1.71
8989.00,1.71
8988.00,1.71
8987.00,1.71
8986.00,1.71
8985.00,1.71
8984.00,1.71
8983.00,1.71
8982.00,1.71
8981.00,1.71
8980.00,1.71
8979.00,1.71
8978.00,1.71
8977.00,1.71
8976.00,1.71
8975.00,1.71
8974.00,1.70
8973.00,1.70
8972.00,1.70
8971.00,1.70
8970.00,1.70
8969.00,1.70
8968.00,1.70
8967.00,1.70
8966.00,1.70
8965.00,1.70
8964.00,1.70
8963.00,1.70
8962.00,1.70
8961.00,1.70
8960.00,1.70
8959.00,1.70
8958.00,1.70
8957.00,1.70
8956.00,1.70
8955.00,1.71
8954.00,1.71
8953.00,1.71
8952.00,1.71
8951.00,1.71
8950.00,1.71
8949.00,1.71
8948.00,1.71
8947.00,1.71
8946.00,1.71
8945.00,1.71
8944.00,1.71
8943.00,1.71
8942.00,1.71
8941.00,1.71
8940.00,1.71
8939.00,1.72
8938.00,1.72
8937.00,1.72
8936.00,1.72
8935.00,1.72
8934.00,1.72
8933.00,1.72
8932.00,1.72
8931.00,1.71
8930.00,1.71
8929.00,1.71
8928.00,1.71
8927.00,1.71
8926.00,1.71
8925.00,1.71
8924.00,1.71
8923.00,1.70
8922.00,1.70
8921.00,1.70
8920.00,1.70
8919.00,1.70
8918.00,1.70
8917.00,1.70
8916.00,1.70
8915.00,1.70
8914.00,1.70
8913.00,1.70
8912.00,1.70
8911.00,1.70
8910.00,1.70
8909.00,1.70
8908.00,1.70
8907.00,1.70
8906.00,1.71
8905.00,1.71
8904.00,1.71
8903.00,1.71
8902.00,1.71
8901.00,1.71
8900.00,1.72
8899.00,1.72
8898.00,1.72
8897.00,1.72
8896.00,1.72
8895.00,1.72
8894.00,1.72
8893.00,1.72
8892.00,1.72
8891.00,1.72
8890.00,1.72
8889.00,1.71
8888.00,1.71
8887.00,1.71
8886.00,1.71
8885.00,1.71
8884.00,1.71
8883.00,1.70
8882.00,1.70
8881.00,1.70
8880.00,1.70
8879.00,1.70
8878.00,1.70
8877.00,1.70
8876.00,1.70
8875.00,1.70
8874.00,1.70
8873.00,1.70
8872.00,1.70
8871.00,1.70
8870.00,1.70
8869.00,1.70
8868.00,1.70
8867.00,1.70
8866.00,1.70
8865.00,1.70
8864.00,1.70
8863.00,1.70
8862.00,1.70
8861.00,1.70
8860.00,1.70
8859.00,1.70
8858.00,1.70
8857.00,1.70
8856.00,1.70
8855.00,1.70
8854.00,1.70
8853.00,1.71
8852.00,1.71
8851.00,1.71
8850.00,1.71
8849.00,1.71
8848.00,1.71
8847.00,1.71
8846.00,1.71
8845.00,1.71
8844.00,1.71
8843.00,1.71
8842.00,1.71
8841.00,1.71
8840.00,1.71
8839.00,1.71
8838.00,1.71
8837.00,1.71
8836.00,1.71
8835.00,1.71
8834.00,1.71
8833.00,1.71
8832.00,1.71
8831.00,1.71
8830.00,1.71
8829.00,1.71
8828.00,1.71
8827.00,1.71
8826.00,1.71
8825.00,1.71
8824.00,1.71
8823.00,1.71
8822.00,1.71
8821.00,1.71
8820.00,1.71
8819.00,1.71
8818.00,1.71
8817.00,1.70
8816.00,1.70
8815.00,1.70
8814.00,1.70
8813.00,1.70
8812.00,1.70
8811.00,1.70
8810.00,1.70
8809.00,1.70
8808.00,1.70
8807.00,1.70
8806.00,1.70
8805.00,1.70
8804.00,1.70
8803.00,1.70
8802.00,1.70
8801.00,1.70
8800.00,1.70
8799.00,1.70
8798.00,1.70
8797.00,1.70
8796.00,1.70
8795.00,1.70
8794.00,1.70
8793.00,1.70
8792.00,1.70
8791.00,1.70
8790.00,1.70
8789.00,1.70
8788.00,1.70
8787.00,1.70
8786.00,1.70
8785.00,1.70
8784.00,1.70
8783.00,1.70
8782.00,1.70
8781.00,1.70
8780.00,1.70
8779.00,1.70
8778.00,1.70
8777.00,1.70
8776.00,1.70
8775.00,1.70
8774.00,1.70
8773.00,1.69
8772.00,1.69
8771.00,1.69
8770.00,1.69
8769.00,1.69
8768.00,1.69
8767.00,1.69
8766.00,1.69
8765.00,1.69
8764.00,1.69
8763.00,1.68
8762.00,1.68
8761.00,1.68
8760.00,1.68
8759.00,1.68
8758.00,1.68
8757.00,1.68
8756.00,1.68
8755.00,1.68
8754.00,1.68
8753.00,1.68
8752.00,1.68
8751.00,1.68
8750.00,1.68
8749.00,1.68
8748.00,1.68
8747.00,1.68
8746.00,1.68
8745.00,1.68
8744.00,1.68
8743.00,1.68
8742.00,1.68
8741.00,1.68
8740.00,1.68
8739.00,1.68
8738.00,1.68
8737.00,1.68
8736.00,1.68
8735.00,1.68
8734.00,1.68
8733.00,1.68
8732.00,1.68
8731.00,1.68
8730.00,1.68
8729.00,1.68
8728.00,1.68
8727.00,1.68
8726.00,1.68
8725.00,1.68
8724.00,1.68
8723.00,1.68
8722.00,1.68
8721.00,1.68
8720.00,1.68
8719.00,1.68
8718.00,1.68
8717.00,1.68
8716.00,1.68
8715.00,1.68
8714.00,1.68
8713.00,1.68
8712.00,1.68
8711.00,1.68
8710.00,1.67
8709.00,1.67
8708.00,1.67
8707.00,1.67
8706.00,1.67
8705.00,1.67
8704.00,1.67
8703.00,1.67
8702.00,1.67
8701.00,1.67
8700.00,1.67
8699.00,1.67
8698.00,1.67
8697.00,1.67
8696.00,1.67
8695.00,1.67
8694.00,1.67
8693.00,1.67
8692.00,1.66
8691.00,1.66
8690.00,1.66
8689.00,1.66
8688.00,1.66
8687.00,1.66
8686.00,1.66
8685.00,1.66
8684.00,1.66
8683.00,1.66
8682.00,1.66
8681.00,1.66
8680.00,1.66
8679.00,1.66
8678.00,1.66
8677.00,1.66
8676.00,1.66
8675.00,1.66
8674.00,1.66
8673.00,1.66
8672.00,1.66
8671.00,1.66
8670.00,1.66
8669.00,1.66
8668.00,1.66
8667.00,1.66
8666.00,1.66
8665.00,1.66
8664.00,1.66
8663.00,1.66
8662.00,1.66
8661.00,1.66
8660.00,1.66
8659.00,1.66
8658.00,1.66
8657.00,1.66
8656.00,1.66
8655.00,1.66
8654.00,1.66
8653.00,1.65
8652.00,1.65
8651.00,1.65
8650.00,1.65
8649.00,1.65
8648.00,1.65
8647.00,1.65
8646.00,1.65
8645.00,1.65
8644.00,1.65
8643.00,1.65
8642.00,1.65
8641.00,1.65
8640.00,1.65
8639.00,1.65
8638.00,1.65
8637.00,1.65
8636.00,1.65
8635.00,1.65
8634.00,1.65
8633.00,1.65
8632.00,1.65
8631.00,1.65
8630.00,1.65
8629.00,1.65
8628.00,1.65
8627.00,1.65
8626.00,1.65
8625.00,1.65
8624.00,1.65
8623.00,1.65
8622.00,1.65
8621.00,1.65
8620.00,1.65
8619.00,1.65
8618.00,1.65
8617.00,1.65
8616.00,1.65
8615.00,1.65
8614.00,1.65
8613.00,1.64
8612.00,1.64
8611.00,1.64
8610.00,1.65
8609.00,1.65
8608.00,1.65
8607.00,1.65
8606.00,1.65
8605.00,1.65
8604.00,1.65
8603.00,1.65
8602.00,1.65
8601.00,1.65
8600.00,1.65
8599.00,1.65
8598.00,1.65
8597.00,1.65
8596.00,1.65
8595.00,1.65
8594.00,1.65
8593.00,1.65
8592.00,1.65
8591.00,1.65
8590.00,1.65
8589.00,1.65
8588.00,1.65
8587.00,1.65
8586.00,1.65
8585.00,1.65
8584.00,1.65
8583.00,1.65
8582.00,1.65
8581.00,1.65
8580.00,1.65
8579.00,1.65
8578.00,1.65
8577.00,1.65
8576.00,1.64
8575.00,1.64
8574.00,1.64
8573.00,1.64
8572.00,1.63
8571.00,1.63
8570.00,1.63
8569.00,1.63
8568.00,1.63
8567.00,1.62
8566.00,1.62
8565.00,1.62
8564.00,1.62
8563.00,1.62
8562.00,1.62
8561.00,1.62
8560.00,1.62
8559.00,1.62
8558.00,1.63
8557.00,1.63
8556.00,1.63
8555.00,1.63
8554.00,1.63
8553.00,1.63
8552.00,1.63
8551.00,1.63
8550.00,1.63
8549.00,1.63
8548.00,1.63
8547.00,1.63
8546.00,1.63
8545.00,1.63
8544.00,1.63
8543.00,1.63
8542.00,1.64
8541.00,1.64
8540.00,1.64
8539.00,1.64
8538.00,1.64
8537.00,1.64
8536.00,1.64
8535.00,1.64
8534.00,1.64
8533.00,1.64
8532.00,1.64
8531.00,1.64
8530.00,1.64
8529.00,1.64
8528.00,1.63
8527.00,1.63
8526.00,1.63
8525.00,1.63
8524.00,1.63
8523.00,1.63
8522.00,1.63
8521.00,1.62
8520.00,1.62
8519.00,1.62
8518.00,1.62
8517.00,1.62
8516.00,1.62
8515.00,1.62
8514.00,1.62
8513.00,1.61
8512.00,1.61
8511.00,1.61
8510.00,1.61
8509.00,1.61
8508.00,1.61
8507.00,1.61
8506.00,1.61
8505.00,1.61
8504.00,1.61
8503.00,1.61
8502.00,1.61
8501.00,1.61
8500.00,1.61
8499.00,1.61
8498.00,1.61
8497.00,1.61
8496.00,1.61
8495.00,1.61
8494.00,1.61
8493.00,1.61
8492.00,1.61
8491.00,1.61
8490.00,1.61
8489.00,1.61
8488.00,1.61
8487.00,1.61
8486.00,1.61
8485.00,1.61
8484.00,1.61
8483.00,1.60
8482.00,1.60
8481.00,1.60
8480.00,1.60
8479.00,1.60
8478.00,1.60
8477.00,1.59
8476.00,1.59
8475.00,1.59
8474.00,1.59
8473.00,1.59
8472.00,1.59
8471.00,1.59
8470.00,1.59
8469.00,1.59
8468.00,1.59
8467.00,1.59
8466.00,1.59
8465.00,1.59
8464.00,1.59
8463.00,1.59
8462.00,1.59
8461.00,1.59
8460.00,1.60
8459.00,1.60
8458.00,1.60
8457.00,1.60
8456.00,1.60
8455.00,1.60
8454.00,1.60
8453.00,1.60
8452.00,1.60
8451.00,1.60
8450.00,1.60
8449.00,1.59
8448.00,1.59
8447.00,1.59
8446.00,1.59
8445.00,1.59
8444.00,1.59
8443.00,1.59
8442.00,1.59
8441.00,1.59
8440.00,1.58
8439.00,1.58
8438.00,1.58
8437.00,1.58
8436.00,1.58
8435.00,1.58
8434.00,1.58
8433.00,1.58
8432.00,1.59
8431.00,1.59
8430.00,1.59
8429.00,1.59
8428.00,1.59
8427.00,1.59
8426.00,1.59
8425.00,1.59
8424.00,1.59
8423.00,1.59
8422.00,1.59
8421.00,1.59
8420.00,1.59
8419.00,1.59
8418.00,1.59
8417.00,1.59
8416.00,1.59
8415.00,1.60
8414.00,1.60
8413.00,1.60
8412.00,1.60
8411.00,1.60
8410.00,1.60
8409.00,1.60
8408.00,1.60
8407.00,1.60
8406.00,1.60
8405.00,1.60
8404.00,1.61
8403.00,1.61
8402.00,1.61
8401.00,1.61
8400.00,1.61
8399.00,1.61
8398.00,1.61
8397.00,1.61
8396.00,1.61
8395.00,1.61
8394.00,1.61
8393.00,1.61
8392.00,1.61
8391.00,1.61
8390.00,1.61
8389.00,1.61
8388.00,1.61
8387.00,1.61
8386.00,1.61
8385.00,1.61
8384.00,1.61
8383.00,1.61
8382.00,1.61
8381.00,1.62
8380.00,1.62
8379.00,1.62
8378.00,1.62
8377.00,1.62
8376.00,1.62
8375.00,1.62
8374.00,1.63
8373.00,1.63
8372.00,1.63
8371.00,1.63
8370.00,1.63
8369.00,1.63
8368.00,1.63
8367.00,1.63
8366.00,1.63
8365.00,1.63
8364.00,1.63
8363.00,1.63
8362.00,1.63
8361.00,1.63
8360.00,1.63
8359.00,1.63
8358.00,1.62
8357.00,1.62
8356.00,1.62
8355.00,1.62
8354.00,1.62
8353.00,1.62
8352.00,1.62
8351.00,1.62
8350.00,1.62
8349.00,1.62
8348.00,1.62
8347.00,1.62
8346.00,1.62
8345.00,1.62
8344.00,1.62
8343.00,1.62
8342.00,1.62
8341.00,1.62
8340.00,1.62
8339.00,1.62
8338.00,1.62
8337.00,1.62
8336.00,1.62
8335.00,1.62
8334.00,1.62
8333.00,1.62
8332.00,1.62
8331.00,1.62
8330.00,1.62
8329.00,1.62
8328.00,1.62
8327.00,1.62
8326.00,1.62
8325.00,1.62
8324.00,1.62
8323.00,1.62
8322.00,1.62
8321.00,1.62
8320.00,1.62
8319.00,1.62
8318.00,1.62
8317.00,1.62
8316.00,1.62
8315.00,1.62
8314.00,1.62
8313.00,1.62
8312.00,1.62
8311.00,1.63
8310.00,1.63
8309.00,1.63
8308.00,1.63
8307.00,1.63
8306.00,1.63
8305.00,1.63
8304.00,1.63
8303.00,1.63
8302.00,1.63
8301.00,1.63
8300.00,1.63
8299.00,1.63
8298.00,1.63
8297.00,1.63
8296.00,1.63
8295.00,1.63
8294.00,1.63
8293.00,1.63
8292.00,1.63
8291.00,1.63
8290.00,1.63
8289.00,1.63
8288.00,1.63
8287.00,1.63
8286.00,1.63
8285.00,1.63
8284.00,1.62
8283.00,1.62
8282.00,1.62
8281.00,1.62
8280.00,1.62
8279.00,1.62
8278.00,1.62
8277.00,1.62
8276.00,1.62
8275.00,1.62
8274.00,1.62
8273.00,1.62
8272.00,1.62
8271.00,1.62
8270.00,1.62
8269.00,1.62
8268.00,1.62
8267.00,1.62
8266.00,1.62
8265.00,1.62
8264.00,1.62
8263.00,1.62
8262.00,1.62
8261.00,1.62
8260.00,1.62
8259.00,1.63
8258.00,1.63
8257.00,1.63
8256.00,1.63
8255.00,1.63
8254.00,1.63
8253.00,1.63
8252.00,1.64
8251.00,1.64
8250.00,1.64
8249.00,1.64
8248.00,1.64
8247.00,1.64
8246.00,1.64
8245.00,1.64
8244.00,1.64
8243.00,1.64
8242.00,1.64
8241.00,1.64
8240.00,1.64
8239.00,1.64
8238.00,1.64
8237.00,1.64
8236.00,1.64
8235.00,1.64
8234.00,1.64
8233.00,1.64
8232.00,1.64
8231.00,1.64
8230.00,1.64
8229.00,1.64
8228.00,1.64
8227.00,1.64
8226.00,1.64
8225.00,1.65
8224.00,1.65
8223.00,1.65
8222.00,1.65
8221.00,1.65
8220.00,1.65
8219.00,1.65
8218.00,1.65
8217.00,1.65
8216.00,1.65
8215.00,1.65
8214.00,1.65
8213.00,1.65
8212.00,1.65
8211.00,1.65
8210.00,1.65
8209.00,1.65
8208.00,1.65
8207.00,1.65
8206.00,1.65
8205.00,1.65
8204.00,1.64
8203.00,1.64
8202.00,1.64
8201.00,1.64
8200.00,1.64
8199.00,1.64
8198.00,1.64
8197.00,1.64
8196.00,1.64
8195.00,1.64
8194.00,1.64
8193.00,1.64
8192.00,1.64
8191.00,1.64
8190.00,1.65
8189.00,1.65
8188.00,1.65
8187.00,1.65
8186.00,1.65
8185.00,1.65
8184.00,1.65
8183.00,1.65
8182.00,1.65
8181.00,1.65
8180.00,1.65
8179.00,1.65
8178.00,1.65
8177.00,1.65
8176.00,1.65
8175.00,1.65
8174.00,1.65
8173.00,1.65
8172.00,1.65
8171.00,1.65
8170.00,1.66
8169.00,1.66
8168.00,1.66
8167.00,1.66
8166.00,1.66
8165.00,1.66
8164.00,1.66
8163.00,1.66
8162.00,1.66
8161.00,1.66
8160.00,1.66
8159.00,1.66
8158.00,1.66
8157.00,1.67
8156.00,1.67
8155.00,1.67
8154.00,1.67
8153.00,1.67
8152.00,1.67
8151.00,1.67
8150.00,1.67
8149.00,1.67
8148.00,1.67
8147.00,1.67
8146.00,1.67
8145.00,1.67
8144.00,1.67
8143.00,1.67
8142.00,1.67
8141.00,1.67
8140.00,1.67
8139.00,1.67
8138.00,1.67
8137.00,1.67
8136.00,1.67
8135.00,1.67
8134.00,1.67
8133.00,1.67
8132.00,1.67
8131.00,1.67
8130.00,1.67
8129.00,1.67
8128.00,1.67
8127.00,1.67
8126.00,1.67
8125.00,1.67
8124.00,1.67
8123.00,1.67
8122.00,1.67
8121.00,1.67
8120.00,1.67
8119.00,1.67
8118.00,1.67
8117.00,1.67
8116.00,1.67
8115.00,1.67
8114.00,1.67
8113.00,1.67
8112.00,1.67
8111.00,1.67
8110.00,1.67
8109.00,1.67
8108.00,1.67
8107.00,1.67
8106.00,1.67
8105.00,1.67
8104.00,1.67
8103.00,1.67
8102.00,1.67
8101.00,1.68
8100.00,1.68
8099.00,1.68
8098.00,1.68
8097.00,1.68
8096.00,1.68
8095.00,1.68
8094.00,1.68
8093.00,1.68
8092.00,1.68
8091.00,1.68
8090.00,1.68
8089.00,1.68
8088.00,1.68
8087.00,1.68
8086.00,1.68
8085.00,1.68
8084.00,1.67
8083.00,1.67
8082.00,1.67
8081.00,1.67
8080.00,1.67
8079.00,1.67
8078.00,1.67
8077.00,1.67
8076.00,1.67
8075.00,1.67
8074.00,1.67
8073.00,1.67
8072.00,1.67
8071.00,1.67
8070.00,1.67
8069.00,1.67
8068.00,1.67
8067.00,1.67
8066.00,1.67
8065.00,1.67
8064.00,1.67
8063.00,1.67
8062.00,1.67
8061.00,1.67
8060.00,1.67
8059.00,1.67
8058.00,1.67
8057.00,1.67
8056.00,1.67
8055.00,1.68
8054.00,1.68
8053.00,1.68
8052.00,1.68
8051.00,1.68
8050.00,1.68
8049.00,1.68
8048.00,1.68
8047.00,1.68
8046.00,1.68
8045.00,1.68
8044.00,1.68
8043.00,1.68
8042.00,1.68
8041.00,1.69
8040.00,1.69
8039.00,1.69
8038.00,1.69
8037.00,1.69
8036.00,1.69
8035.00,1.69
8034.00,1.69
8033.00,1.69
8032.00,1.69
8031.00,1.69
8030.00,1.70
8029.00,1.70
8028.00,1.70
8027.00,1.70
8026.00,1.70
8025.00,1.70
8024.00,1.70
8023.00,1.70
8022.00,1.70
8021.00,1.70
8020.00,1.70
8019.00,1.70
8018.00,1.70
8017.00,1.70
8016.00,1.69
8015.00,1.69
8014.00,1.69
8013.00,1.69
8012.00,1.69
8011.00,1.69
8010.00,1.69
8009.00,1.69
8008.00,1.69
8007.00,1.69
8006.00,1.69
8005.00,1.69
8004.00,1.69
8003.00,1.69
8002.00,1.69
8001.00,1.69
8000.00,1.69
7999.00,1.69
7998.00,1.69
7997.00,1.69
7996.00,1.69
7995.00,1.69
7994.00,1.69
7993.00,1.69
7992.00,1.69
7991.00,1.69
7990.00,1.69
7989.00,1.69
7988.00,1.69
7987.00,1.69
7986.00,1.69
7985.00,1.69
7984.00,1.69
7983.00,1.69
7982.00,1.69
7981.00,1.69
7980.00,1.69
7979.00,1.69
7978.00,1.69
7977.00,1.69
7976.00,1.69
7975.00,1.69
7974.00,1.69
7973.00,1.69
7972.00,1.69
7971.00,1.69
7970.00,1.69
7969.00,1.69
7968.00,1.69
7967.00,1.69
7966.00,1.69
7965.00,1.69
7964.00,1.69
7963.00,1.69
7962.00,1.69
7961.00,1.70
7960.00,1.70
7959.00,1.70
7958.00,1.70
7957.00,1.70
7956.00,1.70
7955.00,1.70
7954.00,1.70
7953.00,1.70
7952.00,1.70
7951.00,1.70
7950.00,1.70
7949.00,1.70
7948.00,1.70
7947.00,1.71
7946.00,1.71
7945.00,1.71
7944.00,1.71
7943.00,1.71
7942.00,1.71
7941.00,1.71
7940.00,1.71
7939.00,1.71
7938.00,1.71
7937.00,1.71
7936.00,1.71
7935.00,1.71
7934.00,1.71
7933.00,1.71
7932.00,1.71
7931.00,1.71
7930.00,1.71
7929.00,1.71
7928.00,1.71
7927.00,1.71
7926.00,1.71
7925.00,1.71
7924.00,1.71
7923.00,1.71
7922.00,1.71
7921.00,1.72
7920.00,1.72
7919.00,1.72
7918.00,1.72
7917.00,1.72
7916.00,1.72
7915.00,1.72
7914.00,1.72
7913.00,1.72
7912.00,1.72
7911.00,1.71
7910.00,1.71
7909.00,1.71
7908.00,1.71
7907.00,1.71
7906.00,1.71
7905.00,1.71
7904.00,1.71
7903.00,1.71
7902.00,1.71
7901.00,1.71
7900.00,1.71
7899.00,1.71
7898.00,1.71
7897.00,1.71
7896.00,1.71
7895.00,1.71
7894.00,1.72
7893.00,1.72
7892.00,1.72
7891.00,1.72
7890.00,1.72
7889.00,1.72
7888.00,1.72
7887.00,1.71
7886.00,1.71
7885.00,1.71
7884.00,1.71
7883.00,1.71
7882.00,1.71
7881.00,1.71
7880.00,1.71
7879.00,1.71
7878.00,1.71
7877.00,1.71
7876.00,1.71
7875.00,1.71
7874.00,1.71
7873.00,1.71
7872.00,1.71
7871.00,1.71
7870.00,1.71
7869.00,1.71
7868.00,1.71
7867.00,1.71
7866.00,1.71
7865.00,1.71
7864.00,1.71
7863.00,1.71
7862.00,1.71
7861.00,1.71
7860.00,1.71
7859.00,1.71
7858.00,1.71
7857.00,1.71
7856.00,1.71
7855.00,1.71
7854.00,1.71
7853.00,1.71
7852.00,1.71
7851.00,1.71
7850.00,1.71
7849.00,1.72
7848.00,1.72
7847.00,1.72
7846.00,1.72
7845.00,1.72
7844.00,1.72
7843.00,1.72
7842.00,1.72
7841.00,1.72
7840.00,1.72
7839.00,1.72
7838.00,1.72
7837.00,1.72
7836.00,1.72
7835.00,1.72
7834.00,1.72
7833.00,1.72
7832.00,1.72
7831.00,1.72
7830.00,1.72
7829.00,1.72
7828.00,1.72
7827.00,1.72
7826.00,1.72
7825.00,1.72
7824.00,1.72
7823.00,1.72
7822.00,1.72
7821.00,1.72
7820.00,1.72
7819.00,1.72
7818.00,1.71
7817.00,1.71
7816.00,1.71
7815.00,1.71
7814.00,1.71
7813.00,1.71
7812.00,1.71
7811.00,1.71
7810.00,1.72
7809.00,1.72
7808.00,1.72
7807.00,1.72
7806.00,1.72
7805.00,1.72
7804.00,1.72
7803.00,1.72
7802.00,1.72
7801.00,1.72
7800.00,1.72
7799.00,1.72
7798.00,1.72
7797.00,1.72
7796.00,1.73
7795.00,1.73
7794.00,1.73
7793.00,1.73
7792.00,1.73
7791.00,1.72
7790.00,1.72
7789.00,1.72
7788.00,1.72
7787.00,1.72
7786.00,1.72
7785.00,1.72
7784.00,1.72
7783.00,1.72
7782.00,1.72
7781.00,1.72
7780.00,1.72
7779.00,1.72
7778.00,1.72
7777.00,1.72
7776.00,1.72
7775.00,1.72
7774.00,1.72
7773.00,1.72
7772.00,1.72
7771.00,1.72
7770.00,1.72
7769.00,1.72
7768.00,1.72
7767.00,1.72
7766.00,1.72
7765.00,1.72
7764.00,1.72
7763.00,1.72
7762.00,1.72
7761.00,1.72
7760.00,1.72
7759.00,1.72
7758.00,1.72
7757.00,1.72
7756.00,1.72
7755.00,1.72
7754.00,1.72
7753.00,1.72
7752.00,1.72
7751.00,1.72
7750.00,1.72
7749.00,1.72
7748.00,1.72
7747.00,1.72
7746.00,1.72
7745.00,1.72
7744.00,1.72
7743.00,1.72
7742.00,1.72
7741.00,1.72
7740.00,1.72
7739.00,1.72
7738.00,1.72
7737.00,1.72
7736.00,1.72
7735.00,1.72
7734.00,1.72
7733.00,1.72
7732.00,1.72
7731.00,1.72
7730.00,1.73
7729.00,1.73
7728.00,1.73
7727.00,1.73
7726.00,1.73
7725.00,1.73
7724.00,1.73
7723.00,1.73
7722.00,1.73
7721.00,1.73
7720.00,1.73
7719.00,1.73
7718.00,1.73
7717.00,1.73
7716.00,1.73
7715.00,1.73
7714.00,1.73
7713.00,1.73
7712.00,1.73
7711.00,1.73
7710.00,1.73
7709.00,1.73
7708.00,1.73
7707.00,1.73
7706.00,1.73
7705.00,1.73
7704.00,1.73
7703.00,1.73
7702.00,1.73
7701.00,1.73
7700.00,1.73
7699.00,1.73
7698.00,1.73
7697.00,1.73
7696.00,1.73
7695.00,1.73
7694.00,1.73
7693.00,1.73
7692.00,1.73
7691.00,1.73
7690.00,1.73
7689.00,1.73
7688.00,1.73
7687.00,1.73
7686.00,1.73
7685.00,1.73
7684.00,1.73
7683.00,1.73
7682.00,1.73
7681.00,1.73
7680.00,1.73
7679.00,1.73
7678.00,1.73
7677.00,1.73
7676.00,1.73
7675.00,1.73
7674.00,1.73
7673.00,1.73
7672.00,1.73
7671.00,1.73
7670.00,1.73
7669.00,1.73
7668.00,1.73
7667.00,1.73
7666.00,1.73
7665.00,1.73
7664.00,1.73
7663.00,1.73
7662.00,1.73
7661.00,1.73
7660.00,1.73
7659.00,1.73
7658.00,1.73
7657.00,1.72
7656.00,1.72
7655.00,1.72
7654.00,1.72
7653.00,1.72
7652.00,1.72
7651.00,1.72
7650.00,1.72
7649.00,1.72
7648.00,1.72
7647.00,1.72
7646.00,1.72
7645.00,1.72
7644.00,1.72
7643.00,1.72
7642.00,1.72
7641.00,1.72
7640.00,1.72
7639.00,1.72
7638.00,1.72
7637.00,1.72
7636.00,1.72
7635.00,1.72
7634.00,1.72
7633.00,1.72
7632.00,1.72
7631.00,1.72
7630.00,1.72
7629.00,1.73
7628.00,1.73
7627.00,1.73
7626.00,1.73
7625.00,1.73
7624.00,1.73
7623.00,1.73
7622.00,1.73
7621.00,1.73
7620.00,1.73
7619.00,1.73
7618.00,1.73
7617.00,1.73
7616.00,1.73
7615.00,1.73
7614.00,1.73
7613.00,1.73
7612.00,1.73
7611.00,1.73
7610.00,1.73
7609.00,1.73
7608.00,1.73
7607.00,1.73
7606.00,1.73
7605.00,1.73
7604.00,1.73
7603.00,1.73
7602.00,1.73
7601.00,1.73
7600.00,1.73
7599.00,1.73
7598.00,1.73
7597.00,1.73
7596.00,1.73
7595.00,1.73
7594.00,1.73
7593.00,1.73
7592.00,1.73
7591.00,1.73
7590.00,1.73
7589.00,1.73
7588.00,1.73
7587.00,1.73
7586.00,1.73
7585.00,1.73
7584.00,1.73
7583.00,1.73
7582.00,1.73
7581.00,1.73
7580.00,1.73
7579.00,1.73
7578.00,1.73
7577.00,1.73
7576.00,1.73
7575.00,1.73
7574.00,1.73
7573.00,1.73
7572.00,1.73
7571.00,1.73
7570.00,1.73
7569.00,1.73
7568.00,1.73
7567.00,1.73
7566.00,1.73
7565.00,1.73
7564.00,1.73
7563.00,1.73
7562.00,1.73
7561.00,1.73
7560.00,1.73
7559.00,1.73
7558.00,1.73
7557.00,1.73
7556.00,1.73
7555.00,1.73
7554.00,1.73
7553.00,1.73
7552.00,1.73
7551.00,1.73
7550.00,1.73
7549.00,1.73
7548.00,1.73
7547.00,1.73
7546.00,1.73
7545.00,1.73
7544.00,1.73
7543.00,1.72
7542.00,1.72
7541.00,1.72
7540.00,1.72
7539.00,1.72
7538.00,1.72
7537.00,1.72
7536.00,1.72
7535.00,1.72
7534.00,1.72
7533.00,1.72
7532.00,1.72
7531.00,1.72
7530.00,1.72
7529.00,1.72
7528.00,1.72
7527.00,1.72
7526.00,1.72
7525.00,1.72
7524.00,1.72
7523.00,1.72
7522.00,1.72
7521.00,1.72
7520.00,1.72
7519.00,1.72
7518.00,1.72
7517.00,1.72
7516.00,1.72
7515.00,1.72
7514.00,1.72
7513.00,1.72
7512.00,1.72
7511.00,1.72
7510.00,1.72
7509.00,1.72
7508.00,1.72
7507.00,1.72
7506.00,1.72
7505.00,1.72
7504.00,1.72
7503.00,1.72
7502.00,1.72
7501.00,1.72
7500.00,1.72
7499.00,1.72
7498.00,1.72
7497.00,1.72
7496.00,1.72
7495.00,1.72
7494.00,1.72
7493.00,1.72
7492.00,1.72
7491.00,1.72
7490.00,1.72
7489.00,1.72
7488.00,1.72
7487.00,1.72
7486.00,1.72
7485.00,1.72
7484.00,1.72
7483.00,1.72
7482.00,1.72
7481.00,1.71
7480.00,1.71
7479.00,1.71
7478.00,1.71
7477.00,1.71
7476.00,1.71
7475.00,1.71
7474.00,1.71
7473.00,1.71
7472.00,1.71
7471.00,1.71
7470.00,1.71
7469.00,1.71
7468.00,1.71
7467.00,1.71
7466.00,1.71
7465.00,1.71
7464.00,1.71
7463.00,1.71
7462.00,1.71
7461.00,1.71
7460.00,1.71
7459.00,1.71
7458.00,1.71
7457.00,1.71
7456.00,1.71
7455.00,1.71
7454.00,1.71
7453.00,1.71
7452.00,1.71
7451.00,1.70
7450.00,1.70
7449.00,1.70
7448.00,1.70
7447.00,1.70
7446.00,1.70
7445.00,1.70
7444.00,1.70
7443.00,1.70
7442.00,1.70
7441.00,1.70
7440.00,1.70
7439.00,1.70
7438.00,1.70
7437.00,1.70
7436.00,1.70
7435.00,1.70
7434.00,1.70
7433.00,1.70
7432.00,1.70
7431.00,1.70
7430.00,1.70
7429.00,1.70
7428.00,1.70
7427.00,1.70
7426.00,1.70
7425.00,1.69
7424.00,1.69
7423.00,1.69
7422.00,1.69
7421.00,1.69
7420.00,1.69
7419.00,1.69
7418.00,1.69
7417.00,1.69
7416.00,1.69
7415.00,1.69
7414.00,1.69
7413.00,1.69
7412.00,1.69
7411.00,1.69
7410.00,1.68
7409.00,1.68
7408.00,1.68
7407.00,1.68
7406.00,1.68
7405.00,1.68
7404.00,1.68
7403.00,1.68
7402.00,1.68
7401.00,1.68
7400.00,1.68
7399.00,1.68
7398.00,1.68
7397.00,1.68
7396.00,1.68
7395.00,1.68
7394.00,1.68
7393.00,1.68
7392.00,1.68
7391.00,1.68
7390.00,1.68
7389.00,1.67
7388.00,1.67
7387.00,1.67
7386.00,1.67
7385.00,1.67
7384.00,1.67
7383.00,1.67
7382.00,1.67
7381.00,1.66
7380.00,1.66
7379.00,1.66
7378.00,1.66
7377.00,1.66
7376.00,1.66
7375.00,1.66
7374.00,1.66
7373.00,1.66
7372.00,1.66
7371.00,1.66
7370.00,1.66
7369.00,1.66
7368.00,1.66
7367.00,1.66
7366.00,1.66
7365.00,1.66
7364.00,1.66
7363.00,1.66
7362.00,1.66
7361.00,1.66
7360.00,1.66
7359.00,1.66
7358.00,1.66
7357.00,1.66
7356.00,1.66
7355.00,1.66
7354.00,1.66
7353.00,1.66
7352.00,1.66
7351.00,1.66
7350.00,1.66
7349.00,1.66
7348.00,1.66
7347.00,1.66
7346.00,1.66
7345.00,1.66
7344.00,1.66
7343.00,1.66
7342.00,1.66
7341.00,1.66
7340.00,1.66
7339.00,1.66
7338.00,1.66
7337.00,1.66
7336.00,1.66
7335.00,1.66
7334.00,1.66
7333.00,1.66
7332.00,1.66
7331.00,1.66
7330.00,1.65
7329.00,1.65
7328.00,1.65
7327.00,1.65
7326.00,1.65
7325.00,1.65
7324.00,1.65
7323.00,1.65
7322.00,1.65
7321.00,1.65
7320.00,1.65
7319.00,1.65
7318.00,1.65
7317.00,1.65
7316.00,1.65
7315.00,1.65
7314.00,1.65
7313.00,1.65
7312.00,1.65
7311.00,1.65
7310.00,1.65
7309.00,1.64
7308.00,1.64
7307.00,1.64
7306.00,1.64
7305.00,1.64
7304.00,1.64
7303.00,1.64
7302.00,1.64
7301.00,1.64
7300.00,1.64
7299.00,1.64
7298.00,1.64
7297.00,1.64
7296.00,1.63
7295.00,1.63
7294.00,1.63
7293.00,1.63
7292.00,1.63
7291.00,1.63
7290.00,1.63
7289.00,1.63
7288.00,1.63
7287.00,1.63
7286.00,1.63
7285.00,1.62
7284.00,1.62
7283.00,1.62
7282.00,1.62
7281.00,1.62
7280.00,1.62
7279.00,1.62
7278.00,1.62
7277.00,1.61
7276.00,1.61
7275.00,1.61
7274.00,1.61
7273.00,1.61
7272.00,1.61
7271.00,1.61
7270.00,1.61
7269.00,1.61
7268.00,1.61
7267.00,1.60
7266.00,1.60
7265.00,1.60
7264.00,1.60
7263.00,1.60
7262.00,1.60
7261.00,1.60
7260.00,1.60
7259.00,1.60
7258.00,1.60
7257.00,1.60
7256.00,1.59
7255.00,1.59
7254.00,1.59
7253.00,1.59
7252.00,1.59
7251.00,1.59
7250.00,1.59
7249.00,1.58
7248.00,1.58
7247.00,1.58
7246.00,1.58
7245.00,1.58
7244.00,1.57
7243.00,1.57
7242.00,1.57
7241.00,1.57
7240.00,1.57
7239.00,1.56
7238.00,1.56
7237.00,1.56
7236.00,1.56
7235.00,1.55
7234.00,1.55
7233.00,1.55
7232.00,1.55
7231.00,1.54
7230.00,1.54
7229.00,1.54
7228.00,1.54
7227.00,1.54
7226.00,1.53
7225.00,1.53
7224.00,1.53
7223.00,1.53
7222.00,1.52
7221.00,1.52
7220.00,1.52
7219.00,1.52
7218.00,1.51
7217.00,1.51
7216.00,1.51
7215.00,1.50
7214.00,1.50
7213.00,1.50
7212.00,1.49
7211.00,1.49
7210.00,1.49
7209.00,1.48
7208.00,1.48
7207.00,1.48
7206.00,1.47
7205.00,1.47
7204.00,1.47
7203.00,1.46
7202.00,1.46
7201.00,1.46
7200.00,1.45
7199.00,1.45
7198.00,1.45
7197.00,1.45
7196.00,1.44
7195.00,1.44
7194.00,1.44
7193.00,1.44
7192.00,1.43
7191.00,1.43
7190.00,1.43
7189.00,1.42
7188.00,1.42
7187.00,1.42
7186.00,1.42
7185.00,1.41
7184.00,1.41
7183.00,1.41
7182.00,1.40
7181.00,1.40
7180.00,1.40
7179.00,1.40
7178.00,1.40
7177.00,1.39
7176.00,1.39
7175.00,1.39
7174.00,1.39
7173.00,1.38
7172.00,1.38
7171.00,1.38
7170.00,1.38
7169.00,1.37
7168.00,1.37
7167.00,1.37
7166.00,1.36
7165.00,1.36
7164.00,1.36
7163.00,1.36
7162.00,1.35
7161.00,1.35
7160.00,1.35
7159.00,1.35
7158.00,1.34
7157.00,1.34
7156.00,1.34
7155.00,1.34
7154.00,1.33
7153.00,1.33
7152.00,1.33
7151.00,1.33
7150.00,1.32
7149.00,1.32
7148.00,1.32
7147.00,1.32
7146.00,1.31
7145.00,1.31
7144.00,1.31
7143.00,1.31
7142.00,1.30
7141.00,1.30
7140.00,1.30
7139.00,1.30
7138.00,1.29
7137.00,1.29
7136.00,1.29
7135.00,1.28
7134.00,1.28
7133.00,1.28
7132.00,1.28
7131.00,1.27
7130.00,1.27
7129.00,1.27
7128.00,1.27
7127.00,1.26
7126.00,1.26
7125.00,1.26
7124.00,1.26
7123.00,1.25
7122.00,1.25
7121.00,1.25
7120.00,1.25
7119.00,1.24
7118.00,1.24
7117.00,1.24
7116.00,1.23
7115.00,1.23
7114.00,1.23
7113.00,1.22
7112.00,1.22
7111.00,1.22
7110.00,1.21
7109.00,1.21
7108.00,1.21
7107.00,1.21
7106.00,1.20
7105.00,1.20
7104.00,1.20
7103.00,1.19
7102.00,1.19
7101.00,1.19
7100.00,1.18
7099.00,1.18
7098.00,1.18
7097.00,1.18
7096.00,1.17
7095.00,1.17
7094.00,1.17
7093.00,1.17
7092.00,1.16
7091.00,1.16
7090.00,1.16
7089.00,1.16
7088.00,1.15
7087.00,1.15
7086.00,1.15
7085.00,1.15
7084.00,1.15
7083.00,1.14
7082.00,1.14
7081.00,1.14
7080.00,1.14
7079.00,1.14
7078.00,1.14
7077.00,1.13
7076.00,1.13
7075.00,1.13
7074.00,1.13
7073.00,1.13
7072.00,1.12
7071.00,1.12
7070.00,1.12
7069.00,1.12
7068.00,1.12
7067.00,1.12
7066.00,1.11
7065.00,1.11
7064.00,1.11
7063.00,1.11
7062.00,1.11
7061.00,1.10
7060.00,1.10
7059.00,1.10
7058.00,1.10
7057.00,1.10
7056.00,1.09
7055.00,1.09
7054.00,1.09
7053.00,1.09
7052.00,1.09
7051.00,1.09
7050.00,1.08
7049.00,1.08
7048.00,1.08
7047.00,1.08
7046.00,1.08
7045.00,1.08
7044.00,1.08
7043.00,1.07
7042.00,1.07
7041.00,1.07
7040.00,1.07
7039.00,1.07
7038.00,1.07
7037.00,1.07
7036.00,1.06
7035.00,1.06
7034.00,1.06
7033.00,1.06
7032.00,1.06
7031.00,1.05
7030.00,1.05
7029.00,1.05
7028.00,1.05
7027.00,1.05
7026.00,1.04
7025.00,1.04
7024.00,1.04
7023.00,1.04
7022.00,1.04
7021.00,1.04
7020.00,1.04
7019.00,1.04
7018.00,1.03
7017.00,1.03
7016.00,1.03
7015.00,1.03
7014.00,1.03
7013.00,1.03
7012.00,1.03
7011.00,1.03
7010.00,1.03
7009.00,1.03
7008.00,1.03
7007.00,1.03
7006.00,1.03
7005.00,1.03
7004.00,1.03
7003.00,1.02
7002.00,1.02
7001.00,1.02
7000.00,1.02
6999.00,1.02
6998.00,1.02
6997.00,1.02
6996.00,1.02
6995.00,1.01
6994.00,1.01
6993.00,1.01
6992.00,1.01
6991.00,1.01
6990.00,1.01
6989.00,1.01
6988.00,1.01
6987.00,1.00
6986.00,1.00
6985.00,1.00
6984.00,1.00
6983.00,1.00
6982.00,1.00
6981.00,1.00
6980.00,1.00
6979.00,1.00
6978.00,1.00
6977.00,1.00
6976.00,1.00
6975.00,1.00
6974.00,1.00
6973.00,1.00
6972.00,1.00
6971.00,0.99
6970.00,0.99
6969.00,0.99
6968.00,0.99
6967.00,0.99
6966.00,0.99
6965.00,0.99
6964.00,0.99
6963.00,0.99
6962.00,0.99
6961.00,0.99
6960.00,0.99
6959.00,0.98
6958.00,0.98
6957.00,0.98
6956.00,0.98
6955.00,0.98
6954.00,0.98
6953.00,0.98
6952.00,0.98
6951.00,0.98
6950.00,0.97
6949.00,0.97
6948.00,0.97
6947.00,0.97
6946.00,0.97
6945.00,0.97
6944.00,0.97
6943.00,0.97
6942.00,0.97
6941.00,0.97
6940.00,0.97
6939.00,0.97
6938.00,0.97
6937.00,0.97
6936.00,0.97
6935.00,0.97
6934.00,0.97
6933.00,0.97
6932.00,0.97
6931.00,0.97
6930.00,0.97
6929.00,0.97
6928.00,0.97
6927.00,0.96
6926.00,0.96
6925.00,0.96
6924.00,0.96
6923.00,0.96
6922.00,0.96
6921.00,0.96
6920.00,0.96
6919.00,0.96
6918.00,0.96
6917.00,0.96
6916.00,0.96
6915.00,0.96
6914.00,0.96
6913.00,0.96
6912.00,0.96
6911.00,0.96
6910.00,0.96
6909.00,0.96
6908.00,0.96
6907.00,0.96
6906.00,0.96
6905.00,0.96
6904.00,0.96
6903.00,0.96
6902.00,0.95
6901.00,0.95
6900.00,0.95
6899.00,0.95
6898.00,0.95
6897.00,0.95
6896.00,0.95
6895.00,0.95
6894.00,0.95
6893.00,0.95
6892.00,0.95
6891.00,0.95
6890.00,0.95
6889.00,0.95
6888.00,0.95
6887.00,0.94
6886.00,0.94
6885.00,0.94
6884.00,0.94
6883.00,0.94
6882.00,0.94
6881.00,0.94
6880.00,0.94
6879.00,0.94
6878.00,0.94
6877.00,0.94
6876.00,0.94
6875.00,0.94
6874.00,0.94
6873.00,0.94
6872.00,0.94
6871.00,0.94
6870.00,0.94
6869.00,0.94
6868.00,0.94
6867.00,0.94
6866.00,0.94
6865.00,0.94
6864.00,0.94
6863.00,0.95
6862.00,0.95
6861.00,0.95
6860.00,0.95
6859.00,0.95
6858.00,0.95
6857.00,0.95
6856.00,0.95
6855.00,0.95
6854.00,0.95
6853.00,0.95
6852.00,0.95
6851.00,0.95
6850.00,0.95
6849.00,0.95
6848.00,0.95
6847.00,0.95
6846.00,0.95
6845.00,0.95
6844.00,0.95
6843.00,0.95
6842.00,0.95
6841.00,0.95
6840.00,0.95
6839.00,0.95
6838.00,0.95
6837.00,0.95
6836.00,0.95
6835.00,0.95
6834.00,0.95
6833.00,0.95
6832.00,0.95
6831.00,0.95
6830.00,0.95
6829.00,0.95
6828.00,0.95
6827.00,0.95
6826.00,0.95
6825.00,0.95
6824.00,0.95
6823.00,0.95
6822.00,0.95
6821.00,0.95
6820.00,0.95
6819.00,0.95
6818.00,0.95
6817.00,0.95
6816.00,0.96
6815.00,0.96
6814.00,0.96
6813.00,0.96
6812.00,0.96
6811.00,0.96
6810.00,0.96
6809.00,0.96
6808.00,0.96
6807.00,0.96
6806.00,0.96
6805.00,0.96
6804.00,0.96
6803.00,0.97
6802.00,0.97
6801.00,0.97
6800.00,0.97
6799.00,0.97
6798.00,0.97
6797.00,0.97
6796.00,0.97
6795.00,0.97
6794.00,0.97
6793.00,0.97
6792.00,0.98
6791.00,0.98
6790.00,0.98
6789.00,0.98
6788.00,0.98
6787.00,0.98
6786.00,0.98
6785.00,0.98
6784.00,0.98
6783.00,0.98
6782.00,0.98
6781.00,0.98
6780.00,0.98
6779.00,0.98
6778.00,0.98
6777.00,0.98
6776.00,0.99
6775.00,0.99
6774.00,0.99
6773.00,0.99
6772.00,0.99
6771.00,0.99
6770.00,0.99
6769.00,0.99
6768.00,0.99
6767.00,0.99
6766.00,0.99
6765.00,0.99
6764.00,0.99
6763.00,0.99
6762.00,0.99
6761.00,1.00
6760.00,1.00
6759.00,1.00
6758.00,1.00
6757.00,1.00
6756.00,1.00
6755.00,1.00
6754.00,1.00
6753.00,1.00
6752.00,1.00
6751.00,1.01
6750.00,1.01
6749.00,1.01
6748.00,1.01
6747.00,1.01
6746.00,1.01
6745.00,1.01
6744.00,1.01
6743.00,1.01
6742.00,1.02
6741.00,1.02
6740.00,1.02
6739.00,1.02
6738.00,1.02
6737.00,1.02
6736.00,1.02
6735.00,1.02
6734.00,1.03
6733.00,1.03
6732.00,1.03
6731.00,1.03
6730.00,1.03
6729.00,1.03
6728.00,1.03
6727.00,1.03
6726.00,1.03
6725.00,1.04
6724.00,1.04
6723.00,1.04
6722.00,1.04
6721.00,1.04
6720.00,1.04
6719.00,1.04
6718.00,1.04
6717.00,1.04
6716.00,1.04
6715.00,1.04
6714.00,1.04
6713.00,1.04
6712.00,1.04
6711.00,1.05
6710.00,1.05
6709.00,1.05
6708.00,1.05
6707.00,1.05
6706.00,1.05
6705.00,1.05
6704.00,1.05
6703.00,1.06
6702.00,1.06
6701.00,1.06
6700.00,1.06
6699.00,1.06
6698.00,1.06
6697.00,1.06
6696.00,1.07
6695.00,1.07
6694.00,1.07
6693.00,1.07
6692.00,1.07
6691.00,1.07
6690.00,1.07
6689.00,1.07
6688.00,1.07
6687.00,1.07
6686.00,1.07
6685.00,1.08
6684.00,1.08
6683.00,1.08
6682.00,1.08
6681.00,1.08
6680.00,1.08
6679.00,1.08
6678.00,1.08
6677.00,1.09
6676.00,1.09
6675.00,1.09
6674.00,1.09
6673.00,1.09
6672.00,1.09
6671.00,1.09
6670.00,1.10
6669.00,1.10
6668.00,1.10
6667.00,1.10
6666.00,1.10
6665.00,1.10
6664.00,1.10
6663.00,1.10
6662.00,1.10
6661.00,1.10
6660.00,1.11
6659.00,1.11
6658.00,1.11
6657.00,1.11
6656.00,1.11
6655.00,1.11
6654.00,1.11
6653.00,1.11
6652.00,1.11
6651.00,1.12
6650.00,1.12
6649.00,1.12
6648.00,1.12
6647.00,1.12
6646.00,1.12
6645.00,1.13
6644.00,1.13
6643.00,1.13
6642.00,1.13
6641.00,1.13
6640.00,1.13
6639.00,1.14
6638.00,1.14
6637.00,1.14
6636.00,1.14
6635.00,1.14
6634.00,1.14
6633.00,1.14
6632.00,1.14
6631.00,1.14
6630.00,1.15
6629.00,1.15
6628.00,1.15
6627.00,1.15
6626.00,1.15
6625.00,1.15
6624.00,1.15
6623.00,1.15
6622.00,1.15
6621.00,1.15
6620.00,1.15
6619.00,1.15
6618.00,1.15
6617.00,1.15
6616.00,1.16
6615.00,1.16
6614.00,1.16
6613.00,1.16
6612.00,1.16
6611.00,1.16
6610.00,1.16
6609.00,1.16
6608.00,1.17
6607.00,1.17
6606.00,1.17
6605.00,1.17
6604.00,1.17
6603.00,1.17
6602.00,1.18
6601.00,1.18
6600.00,1.18
6599.00,1.18
6598.00,1.18
6597.00,1.18
6596.00,1.18
6595.00,1.19
6594.00,1.19
6593.00,1.19
6592.00,1.19
6591.00,1.19
6590.00,1.19
6589.00,1.19
6588.00,1.19
6587.00,1.19
6586.00,1.19
6585.00,1.19
6584.00,1.19
6583.00,1.20
6582.00,1.20
6581.00,1.20
6580.00,1.20
6579.00,1.20
6578.00,1.20
6577.00,1.20
6576.00,1.20
6575.00,1.20
6574.00,1.20
6573.00,1.20
6572.00,1.20
6571.00,1.20
6570.00,1.21
6569.00,1.21
6568.00,1.21
6567.00,1.21
6566.00,1.21
6565.00,1.21
6564.00,1.21
6563.00,1.22
6562.00,1.22
6561.00,1.22
6560.00,1.22
6559.00,1.22
6558.00,1.22
6557.00,1.22
6556.00,1.22
6555.00,1.23
6554.00,1.23
6553.00,1.23
6552.00,1.23
6551.00,1.23
6550.00,1.23
6549.00,1.23
6548.00,1.23
6547.00,1.23
6546.00,1.23
6545.00,1.24
6544.00,1.24
6543.00,1.24
6542.00,1.24
6541.00,1.24
6540.00,1.24
6539.00,1.24
6538.00,1.24
6537.00,1.24
6536.00,1.24
6535.00,1.24
6534.00,1.24
6533.00,1.24
6532.00,1.25
6531.00,1.25
6530.00,1.25
6529.00,1.25
6528.00,1.25
6527.00,1.25
6526.00,1.25
6525.00,1.25
6524.00,1.25
6523.00,1.25
6522.00,1.25
6521.00,1.25
6520.00,1.26
6519.00,1.26
6518.00,1.26
6517.00,1.26
6516.00,1.26
6515.00,1.26
6514.00,1.26
6513.00,1.26
6512.00,1.26
6511.00,1.26
6510.00,1.27
6509.00,1.27
6508.00,1.27
6507.00,1.27
6506.00,1.27
6505.00,1.27
6504.00,1.27
6503.00,1.27
6502.00,1.27
6501.00,1.27
6500.00,1.27
6499.00,1.27
6498.00,1.27
6497.00,1.28
6496.00,1.28
6495.00,1.28
6494.00,1.28
6493.00,1.28
6492.00,1.28
6491.00,1.28
6490.00,1.28
6489.00,1.28
6488.00,1.28
6487.00,1.28
6486.00,1.28
6485.00,1.28
6484.00,1.28
6483.00,1.28
6482.00,1.28
6481.00,1.28
6480.00,1.28
6479.00,1.28
6478.00,1.28
6477.00,1.28
6476.00,1.28
6475.00,1.28
6474.00,1.28
6473.00,1.28
6472.00,1.29
6471.00,1.29
6470.00,1.29
6469.00,1.29
6468.00,1.29
6467.00,1.29
6466.00,1.29
6465.00,1.29
6464.00,1.29
6463.00,1.29
6462.00,1.29
6461.00,1.29
6460.00,1.29
6459.00,1.29
6458.00,1.30
6457.00,1.30
6456.00,1.30
6455.00,1.30
6454.00,1.30
6453.00,1.30
6452.00,1.30
6451.00,1.30
6450.00,1.30
6449.00,1.30
6448.00,1.30
6447.00,1.30
6446.00,1.30
6445.00,1.30
6444.00,1.31
6443.00,1.31
6442.00,1.31
6441.00,1.31
6440.00,1.31
6439.00,1.31
6438.00,1.31
6437.00,1.31
6436.00,1.31
6435.00,1.31
6434.00,1.31
6433.00,1.31
6432.00,1.31
6431.00,1.31
6430.00,1.31
6429.00,1.31
6428.00,1.31
6427.00,1.31
6426.00,1.31
6425.00,1.31
6424.00,1.31
6423.00,1.31
6422.00,1.31
6421.00,1.31
6420.00,1.31
6419.00,1.31
6418.00,1.31
6417.00,1.32
6416.00,1.32
6415.00,1.32
6414.00,1.32
6413.00,1.32
6412.00,1.32
6411.00,1.32
6410.00,1.32
6409.00,1.32
6408.00,1.32
6407.00,1.32
6406.00,1.32
6405.00,1.32
6404.00,1.32
6403.00,1.33
6402.00,1.33
6401.00,1.33
6400.00,1.33
6399.00,1.33
6398.00,1.33
6397.00,1.33
6396.00,1.33
6395.00,1.33
6394.00,1.33
6393.00,1.33
6392.00,1.33
6391.00,1.33
6390.00,1.33
6389.00,1.33
6388.00,1.33
6387.00,1.33
6386.00,1.34
6385.00,1.34
6384.00,1.34
6383.00,1.34
6382.00,1.34
6381.00,1.34
6380.00,1.34
6379.00,1.34
6378.00,1.34
6377.00,1.34
6376.00,1.34
6375.00,1.34
6374.00,1.34
6373.00,1.34
6372.00,1.34
6371.00,1.34
6370.00,1.34
6369.00,1.35
6368.00,1.35
6367.00,1.35
6366.00,1.35
6365.00,1.35
6364.00,1.35
6363.00,1.35
6362.00,1.35
6361.00,1.35
6360.00,1.35
6359.00,1.35
6358.00,1.35
6357.00,1.35
6356.00,1.36
6355.00,1.36
6354.00,1.36
6353.00,1.36
6352.00,1.36
6351.00,1.36
6350.00,1.36
6349.00,1.36
6348.00,1.36
6347.00,1.37
6346.00,1.37
6345.00,1.37
6344.00,1.37
6343.00,1.37
6342.00,1.37
6341.00,1.37
6340.00,1.37
6339.00,1.37
6338.00,1.37
6337.00,1.38
6336.00,1.38
6335.00,1.38
6334.00,1.38
6333.00,1.38
6332.00,1.38
6331.00,1.38
6330.00,1.38
6329.00,1.38
6328.00,1.38
6327.00,1.38
6326.00,1.39
6325.00,1.39
6324.00,1.39
6323.00,1.39
6322.00,1.39
6321.00,1.39
6320.00,1.39
6319.00,1.39
6318.00,1.39
6317.00,1.39
6316.00,1.39
6315.00,1.39
6314.00,1.39
6313.00,1.39
6312.00,1.39
6311.00,1.40
6310.00,1.40
6309.00,1.40
6308.00,1.40
6307.00,1.40
6306.00,1.40
6305.00,1.40
6304.00,1.40
6303.00,1.40
6302.00,1.40
6301.00,1.40
6300.00,1.41
6299.00,1.41
6298.00,1.41
6297.00,1.41
6296.00,1.41
6295.00,1.41
6294.00,1.41
6293.00,1.41
6292.00,1.41
6291.00,1.42
6290.00,1.42
6289.00,1.42
6288.00,1.42
6287.00,1.42
6286.00,1.42
6285.00,1.42
6284.00,1.42
6283.00,1.42
6282.00,1.43
6281.00,1.43
6280.00,1.43
6279.00,1.43
6278.00,1.43
6277.00,1.43
6276.00,1.43
6275.00,1.43
6274.00,1.43
6273.00,1.44
6272.00,1.44
6271.00,1.44
6270.00,1.44
6269.00,1.44
6268.00,1.44
6267.00,1.44
6266.00,1.44
6265.00,1.44
6264.00,1.44
6263.00,1.44
6262.00,1.44
6261.00,1.44
6260.00,1.44
6259.00,1.45
6258.00,1.45
6257.00,1.45
6256.00,1.45
6255.00,1.45
6254.00,1.45
6253.00,1.45
6252.00,1.45
6251.00,1.45
6250.00,1.46
6249.00,1.46
6248.00,1.46
6247.00,1.46
6246.00,1.46
6245.00,1.46
6244.00,1.46
6243.00,1.47
6242.00,1.47
6241.00,1.47
6240.00,1.47
6239.00,1.47
6238.00,1.47
6237.00,1.47
6236.00,1.48
6235.00,1.48
6234.00,1.48
6233.00,1.48
6232.00,1.48
6231.00,1.48
6230.00,1.48
6229.00,1.48
6228.00,1.48
6227.00,1.48
6226.00,1.49
6225.00,1.49
6224.00,1.49
6223.00,1.49
6222.00,1.49
6221.00,1.49
6220.00,1.49
6219.00,1.49
6218.00,1.49
6217.00,1.49
6216.00,1.49
6215.00,1.49
6214.00,1.50
6213.00,1.50
6212.00,1.50
6211.00,1.50
6210.00,1.50
6209.00,1.50
6208.00,1.50
6207.00,1.50
6206.00,1.50
6205.00,1.50
6204.00,1.50
6203.00,1.51
6202.00,1.51
6201.00,1.51
6200.00,1.51
6199.00,1.51
6198.00,1.51
6197.00,1.51
6196.00,1.51
6195.00,1.51
6194.00,1.52
6193.00,1.52
6192.00,1.52
6191.00,1.52
6190.00,1.52
6189.00,1.52
6188.00,1.53
6187.00,1.53
6186.00,1.53
6185.00,1.53
6184.00,1.53
6183.00,1.53
6182.00,1.53
6181.00,1.53
6180.00,1.54
6179.00,1.54
6178.00,1.54
6177.00,1.54
6176.00,1.54
6175.00,1.54
6174.00,1.54
6173.00,1.54
6172.00,1.55
6171.00,1.55
6170.00,1.55
6169.00,1.55
6168.00,1.55
6167.00,1.55
6166.00,1.55
6165.00,1.55
6164.00,1.55
6163.00,1.56
6162.00,1.56
6161.00,1.56
6160.00,1.56
6159.00,1.56
6158.00,1.56
6157.00,1.56
6156.00,1.56
6155.00,1.57
6154.00,1.57
6153.00,1.57
6152.00,1.57
6151.00,1.57
6150.00,1.57
6149.00,1.57
6148.00,1.57
6147.00,1.57
6146.00,1.58
6145.00,1.58
6144.00,1.58
6143.00,1.58
6142.00,1.58
6141.00,1.58
6140.00,1.58
6139.00,1.58
6138.00,1.58
6137.00,1.59
6136.00,1.59
6135.00,1.59
6134.00,1.59
6133.00,1.59
6132.00,1.59
6131.00,1.59
6130.00,1.59
6129.00,1.59
6128.00,1.60
6127.00,1.60
6126.00,1.60
6125.00,1.60
6124.00,1.60
6123.00,1.60
6122.00,1.60
6121.00,1.61
6120.00,1.61
6119.00,1.61
6118.00,1.61
6117.00,1.61
6116.00,1.61
6115.00,1.61
6114.00,1.62
6113.00,1.62
6112.00,1.62
6111.00,1.62
6110.00,1.62
6109.00,1.62
6108.00,1.62
6107.00,1.62
6106.00,1.63
6105.00,1.63
6104.00,1.63
6103.00,1.63
6102.00,1.63
6101.00,1.63
6100.00,1.63
6099.00,1.63
6098.00,1.63
6097.00,1.63
6096.00,1.63
6095.00,1.64
6094.00,1.64
6093.00,1.64
6092.00,1.64
6091.00,1.64
6090.00,1.64
6089.00,1.64
6088.00,1.64
6087.00,1.64
6086.00,1.64
6085.00,1.64
6084.00,1.64
6083.00,1.64
6082.00,1.65
6081.00,1.65
6080.00,1.65
6079.00,1.65
6078.00,1.65
6077.00,1.65
6076.00,1.65
6075.00,1.65
6074.00,1.65
6073.00,1.65
6072.00,1.65
6071.00,1.65
6070.00,1.66
6069.00,1.66
6068.00,1.66
6067.00,1.66
6066.00,1.66
6065.00,1.66
6064.00,1.66
6063.00,1.66
6062.00,1.66
6061.00,1.66
6060.00,1.66
6059.00,1.66
6058.00,1.66
6057.00,1.67
6056.00,1.67
6055.00,1.67
6054.00,1.67
6053.00,1.67
6052.00,1.67
6051.00,1.67
6050.00,1.67
6049.00,1.67
6048.00,1.67
6047.00,1.67
6046.00,1.67
6045.00,1.67
6044.00,1.67
6043.00,1.67
6042.00,1.68
6041.00,1.68
6040.00,1.68
6039.00,1.68
6038.00,1.68
6037.00,1.68
6036.00,1.68
6035.00,1.68
6034.00,1.68
6033.00,1.68
6032.00,1.68
6031.00,1.68
6030.00,1.68
6029.00,1.68
6028.00,1.68
6027.00,1.68
6026.00,1.68
6025.00,1.68
6024.00,1.68
6023.00,1.68
6022.00,1.68
6021.00,1.69
6020.00,1.69
6019.00,1.69
6018.00,1.69
6017.00,1.69
6016.00,1.69
6015.00,1.69
6014.00,1.69
6013.00,1.69
6012.00,1.69
6011.00,1.69
6010.00,1.69
6009.00,1.69
6008.00,1.69
6007.00,1.69
6006.00,1.69
6005.00,1.69
6004.00,1.68
6003.00,1.68
6002.00,1.68
6001.00,1.68
6000.00,1.68
5999.00,1.68
5998.00,1.68
5997.00,1.68
5996.00,1.68
5995.00,1.68
5994.00,1.68
5993.00,1.68
5992.00,1.67
5991.00,1.67
5990.00,1.67
5989.00,1.67
5988.00,1.67
5987.00,1.66
5986.00,1.66
5985.00,1.66
5984.00,1.66
5983.00,1.66
5982.00,1.65
5981.00,1.65
5980.00,1.65
5979.00,1.64
5978.00,1.64
5977.00,1.64
5976.00,1.63
5975.00,1.63
5974.00,1.63
5973.00,1.62
5972.00,1.62
5971.00,1.62
5970.00,1.61
5969.00,1.61
5968.00,1.60
5967.00,1.60
5966.00,1.59
5965.00,1.58
5964.00,1.58
5963.00,1.57
5962.00,1.57
5961.00,1.56
5960.00,1.55
5959.00,1.55
5958.00,1.54
5957.00,1.53
5956.00,1.53
5955.00,1.52
5954.00,1.51
5953.00,1.51
5952.00,1.50
5951.00,1.49
5950.00,1.49
5949.00,1.48
5948.00,1.48
5947.00,1.47
5946.00,1.47
5945.00,1.47
5944.00,1.46
5943.00,1.46
5942.00,1.46
5941.00,1.46
5940.00,1.45
5939.00,1.45
5938.00,1.45
5937.00,1.45
5936.00,1.45
5935.00,1.45
5934.00,1.45
5933.00,1.44
5932.00,1.44
5931.00,1.44
5930.00,1.44
5929.00,1.44
5928.00,1.44
5927.00,1.44
5926.00,1.44
5925.00,1.44
5924.00,1.43
5923.00,1.43
5922.00,1.43
5921.00,1.43
5920.00,1.43
5919.00,1.42
5918.00,1.42
5917.00,1.42
5916.00,1.42
5915.00,1.41
5914.00,1.41
5913.00,1.41
5912.00,1.41
5911.00,1.40
5910.00,1.40
5909.00,1.40
5908.00,1.40
5907.00,1.40
5906.00,1.39
5905.00,1.39
5904.00,1.39
5903.00,1.39
5902.00,1.39
5901.00,1.39
5900.00,1.39
5899.00,1.39
5898.00,1.39
5897.00,1.39
5896.00,1.39
5895.00,1.39
5894.00,1.40
5893.00,1.40
5892.00,1.40
5891.00,1.40
5890.00,1.41
5889.00,1.41
5888.00,1.41
5887.00,1.41
5886.00,1.42
5885.00,1.42
5884.00,1.42
5883.00,1.43
5882.00,1.43
5881.00,1.43
5880.00,1.44
5879.00,1.44
5878.00,1.44
5877.00,1.44
5876.00,1.45
5875.00,1.45
5874.00,1.45
5873.00,1.46
5872.00,1.46
5871.00,1.46
5870.00,1.46
5869.00,1.46
5868.00,1.47
5867.00,1.47
5866.00,1.47
5865.00,1.47
5864.00,1.47
5863.00,1.48
5862.00,1.48
5861.00,1.48
5860.00,1.48
5859.00,1.48
5858.00,1.48
5857.00,1.48
5856.00,1.48
5855.00,1.48
5854.00,1.48
5853.00,1.49
5852.00,1.49
5851.00,1.49
5850.00,1.49
5849.00,1.49
5848.00,1.49
5847.00,1.49
5846.00,1.49
5845.00,1.49
5844.00,1.49
5843.00,1.49
5842.00,1.49
5841.00,1.49
5840.00,1.49
5839.00,1.49
5838.00,1.49
5837.00,1.49
5836.00,1.49
5835.00,1.49
5834.00,1.49
5833.00,1.49
5832.00,1.49
5831.00,1.49
5830.00,1.49
5829.00,1.49
5828.00,1.49
5827.00,1.49
5826.00,1.49
5825.00,1.49
5824.00,1.49
5823.00,1.49
5822.00,1.49
5821.00,1.49
5820.00,1.49
5819.00,1.49
5818.00,1.49
5817.00,1.49
5816.00,1.49
5815.00,1.49
5814.00,1.49
5813.00,1.49
5812.00,1.49
5811.00,1.49
5810.00,1.49
5809.00,1.49
5808.00,1.49
5807.00,1.49
5806.00,1.49
5805.00,1.49
5804.00,1.49
5803.00,1.49
5802.00,1.48
5801.00,1.48
5800.00,1.48
5799.00,1.48
5798.00,1.48
5797.00,1.48
5796.00,1.47
5795.00,1.47
5794.00,1.47
5793.00,1.47
5792.00,1.47
5791.00,1.46
5790.00,1.46
5789.00,1.46
5788.00,1.46
5787.00,1.45
5786.00,1.45
5785.00,1.45
5784.00,1.45
5783.00,1.45
5782.00,1.44
5781.00,1.44
5780.00,1.44
5779.00,1.44
5778.00,1.44
5777.00,1.44
5776.00,1.43
5775.00,1.43
5774.00,1.43
5773.00,1.43
5772.00,1.43
5771.00,1.43
5770.00,1.43
5769.00,1.43
5768.00,1.43
5767.00,1.43
5766.00,1.44
5765.00,1.44
5764.00,1.44
5763.00,1.44
5762.00,1.44
5761.00,1.44
5760.00,1.45
5759.00,1.45
5758.00,1.45
5757.00,1.45
5756.00,1.46
5755.00,1.46
5754.00,1.46
5753.00,1.47
5752.00,1.47
5751.00,1.47
5750.00,1.48
5749.00,1.48
5748.00,1.48
5747.00,1.49
5746.00,1.49
5745.00,1.49
5744.00,1.50
5743.00,1.50
5742.00,1.50
5741.00,1.51
5740.00,1.51
5739.00,1.51
5738.00,1.51
5737.00,1.52
5736.00,1.52
5735.00,1.52
5734.00,1.52
5733.00,1.52
5732.00,1.53
5731.00,1.53
5730.00,1.53
5729.00,1.53
5728.00,1.53
5727.00,1.53
5726.00,1.53
5725.00,1.53
5724.00,1.53
5723.00,1.54
5722.00,1.54
5721.00,1.54
5720.00,1.54
5719.00,1.54
5718.00,1.54
5717.00,1.54
5716.00,1.54
5715.00,1.54
5714.00,1.54
5713.00,1.54
5712.00,1.54
5711.00,1.54
5710.00,1.54
5709.00,1.54
5708.00,1.53
5707.00,1.53
5706.00,1.53
5705.00,1.53
5704.00,1.53
5703.00,1.53
5702.00,1.53
5701.00,1.53
5700.00,1.53
5699.00,1.52
5698.00,1.52
5697.00,1.52
5696.00,1.52
5695.00,1.52
5694.00,1.52
5693.00,1.51
5692.00,1.51
5691.00,1.51
5690.00,1.51
5689.00,1.51
5688.00,1.51
5687.00,1.51
5686.00,1.50
5685.00,1.50
5684.00,1.50
5683.00,1.50
5682.00,1.50
5681.00,1.50
5680.00,1.50
5679.00,1.50
5678.00,1.50
5677.00,1.50
5676.00,1.49
5675.00,1.49
5674.00,1.49
5673.00,1.49
5672.00,1.49
5671.00,1.49
5670.00,1.49
5669.00,1.49
5668.00,1.50
5667.00,1.50
5666.00,1.50
5665.00,1.50
5664.00,1.50
5663.00,1.50
5662.00,1.50
5661.00,1.50
5660.00,1.50
5659.00,1.51
5658.00,1.51
5657.00,1.51
5656.00,1.51
5655.00,1.51
5654.00,1.51
5653.00,1.51
5652.00,1.52
5651.00,1.52
5650.00,1.52
5649.00,1.52
5648.00,1.52
5647.00,1.52
5646.00,1.53
5645.00,1.53
5644.00,1.53
5643.00,1.53
5642.00,1.53
5641.00,1.53
5640.00,1.54
5639.00,1.54
5638.00,1.54
5637.00,1.54
5636.00,1.54
5635.00,1.54
5634.00,1.55
5633.00,1.55
5632.00,1.55
5631.00,1.55
5630.00,1.55
5629.00,1.55
5628.00,1.56
5627.00,1.56
5626.00,1.56
5625.00,1.56
5624.00,1.56
5623.00,1.56
5622.00,1.57
5621.00,1.57
5620.00,1.57
5619.00,1.57
5618.00,1.57
5617.00,1.57
5616.00,1.58
5615.00,1.58
5614.00,1.58
5613.00,1.58
5612.00,1.58
5611.00,1.58
5610.00,1.58
5609.00,1.58
5608.00,1.58
5607.00,1.59
5606.00,1.59
5605.00,1.59
5604.00,1.59
5603.00,1.59
5602.00,1.59
5601.00,1.59
5600.00,1.59
5599.00,1.60
5598.00,1.60
5597.00,1.60
5596.00,1.60
5595.00,1.60
5594.00,1.60
5593.00,1.60
5592.00,1.60
5591.00,1.61
5590.00,1.61
5589.00,1.61
5588.00,1.61
5587.00,1.61
5586.00,1.61
5585.00,1.61
5584.00,1.62
5583.00,1.62
5582.00,1.62
5581.00,1.62
5580.00,1.62
5579.00,1.62
5578.00,1.62
5577.00,1.62
5576.00,1.63
5575.00,1.63
5574.00,1.63
5573.00,1.63
5572.00,1.63
5571.00,1.63
5570.00,1.63
5569.00,1.63
5568.00,1.63
5567.00,1.63
5566.00,1.63
5565.00,1.64
5564.00,1.64
5563.00,1.64
5562.00,1.64
5561.00,1.64
5560.00,1.64
5559.00,1.64
5558.00,1.64
5557.00,1.64
5556.00,1.65
5555.00,1.65
5554.00,1.65
5553.00,1.65
5552.00,1.65
5551.00,1.65
5550.00,1.65
5549.00,1.65
5548.00,1.65
5547.00,1.66
5546.00,1.66
5545.00,1.66
5544.00,1.66
5543.00,1.66
5542.00,1.66
5541.00,1.66
5540.00,1.66
5539.00,1.66
5538.00,1.66
5537.00,1.67
5536.00,1.67
5535.00,1.67
5534.00,1.67
5533.00,1.67
5532.00,1.67
5531.00,1.67
5530.00,1.67
5529.00,1.67
5528.00,1.67
5527.00,1.68
5526.00,1.68
5525.00,1.68
5524.00,1.68
5523.00,1.68
5522.00,1.68
5521.00,1.68
5520.00,1.68
5519.00,1.68
5518.00,1.68
5517.00,1.68
5516.00,1.68
5515.00,1.68
5514.00,1.68
5513.00,1.68
5512.00,1.68
5511.00,1.68
5510.00,1.68
5509.00,1.68
5508.00,1.68
5507.00,1.69
5506.00,1.69
5505.00,1.69
5504.00,1.69
5503.00,1.69
5502.00,1.69
5501.00,1.69
5500.00,1.69
5499.00,1.69
5498.00,1.69
5497.00,1.69
5496.00,1.69
5495.00,1.69
5494.00,1.69
5493.00,1.70
5492.00,1.70
5491.00,1.70
5490.00,1.70
5489.00,1.70
5488.00,1.70
5487.00,1.70
5486.00,1.70
5485.00,1.70
5484.00,1.70
5483.00,1.71
5482.00,1.71
5481.00,1.71
5480.00,1.71
5479.00,1.71
5478.00,1.71
5477.00,1.71
5476.00,1.71
5475.00,1.71
5474.00,1.71
5473.00,1.71
5472.00,1.71
5471.00,1.72
5470.00,1.72
5469.00,1.72
5468.00,1.72
5467.00,1.72
5466.00,1.72
5465.00,1.72
5464.00,1.72
5463.00,1.72
5462.00,1.72
5461.00,1.72
5460.00,1.72
5459.00,1.72
5458.00,1.72
5457.00,1.72
5456.00,1.72
5455.00,1.73
5454.00,1.73
5453.00,1.73
5452.00,1.73
5451.00,1.73
5450.00,1.73
5449.00,1.73
5448.00,1.73
5447.00,1.73
5446.00,1.73
5445.00,1.73
5444.00,1.73
5443.00,1.73
5442.00,1.73
5441.00,1.73
5440.00,1.73
5439.00,1.73
5438.00,1.73
5437.00,1.73
5436.00,1.73
5435.00,1.73
5434.00,1.73
5433.00,1.73
5432.00,1.73
5431.00,1.73
5430.00,1.73
5429.00,1.73
5428.00,1.73
5427.00,1.73
5426.00,1.73
5425.00,1.73
5424.00,1.73
5423.00,1.73
5422.00,1.73
5421.00,1.73
5420.00,1.73
5419.00,1.73
5418.00,1.73
5417.00,1.73
5416.00,1.73
5415.00,1.73
5414.00,1.73
5413.00,1.73
5412.00,1.73
5411.00,1.73
5410.00,1.73
5409.00,1.73
5408.00,1.73
5407.00,1.73
5406.00,1.73
5405.00,1.73
5404.00,1.73
5403.00,1.73
5402.00,1.73
5401.00,1.73
5400.00,1.73
5399.00,1.73
5398.00,1.73
5397.00,1.73
5396.00,1.73
5395.00,1.73
5394.00,1.73
5393.00,1.73
5392.00,1.73
5391.00,1.73
5390.00,1.72
5389.00,1.72
5388.00,1.72
5387.00,1.72
5386.00,1.72
5385.00,1.72
5384.00,1.72
5383.00,1.71
5382.00,1.71
5381.00,1.71
5380.00,1.71
5379.00,1.71
5378.00,1.70
5377.00,1.70
5376.00,1.70
5375.00,1.70
5374.00,1.69
5373.00,1.69
5372.00,1.69
5371.00,1.69
5370.00,1.68
5369.00,1.68
5368.00,1.67
5367.00,1.67
5366.00,1.67
5365.00,1.66
5364.00,1.66
5363.00,1.65
5362.00,1.65
5361.00,1.64
5360.00,1.64
5359.00,1.63
5358.00,1.63
5357.00,1.62
5356.00,1.61
5355.00,1.61
5354.00,1.60
5353.00,1.59
5352.00,1.58
5351.00,1.58
5350.00,1.57
5349.00,1.56
5348.00,1.55
5347.00,1.55
5346.00,1.54
5345.00,1.53
5344.00,1.52
5343.00,1.51
5342.00,1.50
5341.00,1.49
5340.00,1.48
5339.00,1.47
5338.00,1.46
5337.00,1.45
5336.00,1.44
5335.00,1.43
5334.00,1.42
5333.00,1.40
5332.00,1.39
5331.00,1.38
5330.00,1.37
5329.00,1.36
5328.00,1.34
5327.00,1.33
5326.00,1.32
5325.00,1.30
5324.00,1.29
5323.00,1.28
5322.00,1.26
5321.00,1.25
5320.00,1.23
5319.00,1.22
5318.00,1.21
5317.00,1.19
5316.00,1.18
5315.00,1.16
5314.00,1.15
5313.00,1.14
5312.00,1.12
5311.00,1.11
5310.00,1.09
5309.00,1.08
5308.00,1.07
5307.00,1.05
5306.00,1.04
5305.00,1.03
5304.00,1.02
5303.00,1.00
5302.00,0.99
5301.00,0.98
5300.00,0.97
5299.00,0.96
5298.00,0.95
5297.00,0.94
5296.00,0.93
5295.00,0.92
5294.00,0.91
5293.00,0.90
5292.00,0.89
5291.00,0.88
5290.00,0.88
5289.00,0.87
5288.00,0.86
5287.00,0.85
5286.00,0.85
5285.00,0.84
5284.00,0.83
5283.00,0.83
5282.00,0.82
5281.00,0.82
5280.00,0.81
5279.00,0.81
5278.00,0.80
5277.00,0.80
5276.00,0.79
5275.00,0.79
5274.00,0.78
5273.00,0.78
5272.00,0.77
5271.00,0.77
5270.00,0.77
5269.00,0.76
5268.00,0.76
5267.00,0.76
5266.00,0.75
5265.00,0.75
5264.00,0.75
5263.00,0.74
5262.00,0.74
5261.00,0.74
5260.00,0.73
5259.00,0.73
5258.00,0.73
5257.00,0.73
5256.00,0.72
5255.00,0.72
5254.00,0.72
5253.00,0.72
5252.00,0.71
5251.00,0.71
5250.00,0.71
5249.00,0.71
5248.00,0.71
5247.00,0.70
5246.00,0.70
5245.00,0.70
5244.00,0.70
5243.00,0.70
5242.00,0.70
5241.00,0.69
5240.00,0.69
5239.00,0.69
5238.00,0.69
5237.00,0.69
5236.00,0.69
5235.00,0.69
5234.00,0.69
5233.00,0.69
5232.00,0.68
5231.00,0.68
5230.00,0.68
5229.00,0.68
5228.00,0.68
5227.00,0.68
5226.00,0.68
5225.00,0.68
5224.00,0.68
5223.00,0.68
5222.00,0.68
5221.00,0.67
5220.00,0.67
5219.00,0.67
5218.00,0.67
5217.00,0.67
5216.00,0.67
5215.00,0.67
5214.00,0.67
5213.00,0.67
5212.00,0.67
5211.00,0.67
5210.00,0.67
5209.00,0.67
5208.00,0.67
5207.00,0.67
5206.00,0.67
5205.00,0.67
5204.00,0.67
5203.00,0.67
5202.00,0.67
5201.00,0.67
5200.00,0.67
5199.00,0.67
5198.00,0.67
5197.00,0.67
5196.00,0.67
5195.00,0.67
5194.00,0.67
5193.00,0.67
5192.00,0.67
5191.00,0.67
5190.00,0.67
5189.00,0.67
5188.00,0.67
5187.00,0.67
5186.00,0.67
5185.00,0.67
5184.00,0.67
5183.00,0.67
5182.00,0.67
5181.00,0.67
5180.00,0.67
5179.00,0.67
5178.00,0.67
5177.00,0.67
5176.00,0.67
5175.00,0.67
5174.00,0.67
5173.00,0.67
5172.00,0.67
5171.00,0.67
5170.00,0.67
5169.00,0.67
5168.00,0.67
5167.00,0.67
5166.00,0.67
5165.00,0.67
5164.00,0.67
5163.00,0.67
5162.00,0.67
5161.00,0.67
5160.00,0.67
5159.00,0.67
5158.00,0.67
5157.00,0.67
5156.00,0.67
5155.00,0.67
5154.00,0.68
5153.00,0.68
5152.00,0.68
5151.00,0.68
5150.00,0.68
5149.00,0.68
5148.00,0.68
5147.00,0.68
5146.00,0.68
5145.00,0.68
5144.00,0.68
5143.00,0.68
5142.00,0.68
5141.00,0.68
5140.00,0.68
5139.00,0.69
5138.00,0.69
5137.00,0.69
5136.00,0.69
5135.00,0.69
5134.00,0.69
5133.00,0.69
5132.00,0.69
5131.00,0.69
5130.00,0.70
5129.00,0.70
5128.00,0.70
5127.00,0.70
5126.00,0.70
5125.00,0.70
5124.00,0.70
5123.00,0.70
5122.00,0.70
5121.00,0.70
5120.00,0.70
5119.00,0.71
5118.00,0.71
5117.00,0.71
5116.00,0.71
5115.00,0.71
5114.00,0.71
5113.00,0.71
5112.00,0.71
5111.00,0.71
5110.00,0.71
5109.00,0.71
5108.00,0.72
5107.00,0.72
5106.00,0.72
5105.00,0.72
5104.00,0.72
5103.00,0.72
5102.00,0.72
5101.00,0.72
5100.00,0.72
5099.00,0.73
5098.00,0.73
5097.00,0.73
5096.00,0.73
5095.00,0.73
5094.00,0.73
5093.00,0.73
5092.00,0.73
5091.00,0.74
5090.00,0.74
5089.00,0.74
5088.00,0.74
5087.00,0.74
5086.00,0.74
5085.00,0.74
5084.00,0.75
5083.00,0.75
5082.00,0.75
5081.00,0.75
5080.00,0.75
5079.00,0.75
5078.00,0.75
5077.00,0.76
5076.00,0.76
5075.00,0.76
5074.00,0.76
5073.00,0.76
5072.00,0.76
5071.00,0.76
5070.00,0.77
5069.00,0.77
5068.00,0.77
5067.00,0.77
5066.00,0.77
5065.00,0.77
5064.00,0.78
5063.00,0.78
5062.00,0.78
5061.00,0.78
5060.00,0.78
5059.00,0.79
5058.00,0.79
5057.00,0.79
5056.00,0.79
5055.00,0.79
5054.00,0.80
5053.00,0.80
5052.00,0.80
5051.00,0.80
5050.00,0.80
5049.00,0.81
5048.00,0.81
5047.00,0.81
5046.00,0.81
5045.00,0.81
5044.00,0.82
5043.00,0.82
5042.00,0.82
5041.00,0.82
5040.00,0.83
5039.00,0.83
5038.00,0.83
5037.00,0.83
5036.00,0.84
5035.00,0.84
5034.00,0.84
5033.00,0.84
5032.00,0.85
5031.00,0.85
5030.00,0.85
5029.00,0.85
5028.00,0.85
5027.00,0.86
5026.00,0.86
5025.00,0.86
5024.00,0.86
5023.00,0.87
5022.00,0.87
5021.00,0.87
5020.00,0.87
5019.00,0.87
5018.00,0.88
5017.00,0.88
5016.00,0.88
5015.00,0.88
5014.00,0.88
5013.00,0.89
5012.00,0.89
5011.00,0.89
5010.00,0.89
5009.00,0.90
5008.00,0.90
5007.00,0.90
5006.00,0.90
5005.00,0.91
5004.00,0.91
5003.00,0.91
5002.00,0.91
5001.00,0.92
5000.00,0.92
4999.00,0.92
4998.00,0.92
4997.00,0.92
4996.00,0.93
4995.00,0.93
4994.00,0.93
4993.00,0.93
4992.00,0.93
4991.00,0.94
4990.00,0.94
4989.00,0.94
4988.00,0.94
4987.00,0.94
4986.00,0.95
4985.00,0.95
4984.00,0.95
4983.00,0.95
4982.00,0.95
4981.00,0.96
4980.00,0.96
4979.00,0.96
4978.00,0.96
4977.00,0.96
4976.00,0.97
4975.00,0.97
4974.00,0.97
4973.00,0.97
4972.00,0.97
4971.00,0.98
4970.00,0.98
4969.00,0.98
4968.00,0.98
4967.00,0.98
4966.00,0.99
4965.00,0.99
4964.00,0.99
4963.00,0.99
4962.00,0.99
4961.00,1.00
4960.00,1.00
4959.00,1.00
4958.00,1.00
4957.00,1.00
4956.00,1.00
4955.00,1.01
4954.00,1.01
4953.00,1.01
4952.00,1.01
4951.00,1.01
4950.00,1.01
4949.00,1.02
4948.00,1.02
4947.00,1.02
4946.00,1.02
4945.00,1.02
4944.00,1.02
4943.00,1.03
4942.00,1.03
4941.00,1.03
4940.00,1.03
4939.00,1.03
4938.00,1.03
4937.00,1.03
4936.00,1.04
4935.00,1.04
4934.00,1.04
4933.00,1.04
4932.00,1.04
4931.00,1.04
4930.00,1.04
4929.00,1.05
4928.00,1.05
4927.00,1.05
4926.00,1.05
4925.00,1.05
4924.00,1.05
4923.00,1.05
4922.00,1.06
4921.00,1.06
4920.00,1.06
4919.00,1.06
4918.00,1.06
4917.00,1.06
4916.00,1.06
4915.00,1.06
4914.00,1.07
4913.00,1.07
4912.00,1.07
4911.00,1.07
4910.00,1.07
4909.00,1.07
4908.00,1.07
4907.00,1.07
4906.00,1.07
4905.00,1.07
4904.00,1.07
4903.00,1.07
4902.00,1.08
4901.00,1.08
4900.00,1.08
4899.00,1.08
4898.00,1.08
4897.00,1.08
4896.00,1.08
4895.00,1.08
4894.00,1.08
4893.00,1.08
4892.00,1.08
4891.00,1.08
4890.00,1.08
4889.00,1.08
4888.00,1.08
4887.00,1.08
4886.00,1.09
4885.00,1.09
4884.00,1.09
4883.00,1.09
4882.00,1.09
4881.00,1.09
4880.00,1.09
4879.00,1.09
4878.00,1.09
4877.00,1.09
4876.00,1.09
4875.00,1.09
4874.00,1.09
4873.00,1.09
4872.00,1.09
4871.00,1.10
4870.00,1.10
4869.00,1.10
4868.00,1.10
4867.00,1.10
4866.00,1.10
4865.00,1.10
4864.00,1.10
4863.00,1.10
4862.00,1.10
4861.00,1.10
4860.00,1.11
4859.00,1.11
4858.00,1.11
4857.00,1.11
4856.00,1.11
4855.00,1.11
4854.00,1.11
4853.00,1.11
4852.00,1.12
4851.00,1.12
4850.00,1.12
4849.00,1.12
4848.00,1.12
4847.00,1.12
4846.00,1.12
4845.00,1.12
4844.00,1.12
4843.00,1.13
4842.00,1.13
4841.00,1.13
4840.00,1.13
4839.00,1.13
4838.00,1.13
4837.00,1.13
4836.00,1.13
4835.00,1.13
4834.00,1.13
4833.00,1.13
4832.00,1.14
4831.00,1.14
4830.00,1.14
4829.00,1.14
4828.00,1.14
4827.00,1.14
4826.00,1.14
4825.00,1.15
4824.00,1.15
4823.00,1.15
4822.00,1.15
4821.00,1.15
4820.00,1.15
4819.00,1.16
4818.00,1.16
4817.00,1.16
4816.00,1.16
4815.00,1.17
4814.00,1.17
4813.00,1.17
4812.00,1.17
4811.00,1.17
4810.00,1.18
4809.00,1.18
4808.00,1.18
4807.00,1.18
4806.00,1.19
4805.00,1.19
4804.00,1.19
4803.00,1.19
4802.00,1.20
4801.00,1.20
4800.00,1.20
4799.00,1.20
4798.00,1.20
4797.00,1.21
4796.00,1.21
4795.00,1.21
4794.00,1.21
4793.00,1.22
4792.00,1.22
4791.00,1.22
4790.00,1.22
4789.00,1.23
4788.00,1.23
4787.00,1.23
4786.00,1.23
4785.00,1.23
4784.00,1.24
4783.00,1.24
4782.00,1.24
4781.00,1.24
4780.00,1.25
4779.00,1.25
4778.00,1.25
4777.00,1.26
4776.00,1.26
4775.00,1.26
4774.00,1.26
4773.00,1.27
4772.00,1.27
4771.00,1.27
4770.00,1.28
4769.00,1.28
4768.00,1.28
4767.00,1.28
4766.00,1.29
4765.00,1.29
4764.00,1.29
4763.00,1.30
4762.00,1.30
4761.00,1.30
4760.00,1.31
4759.00,1.31
4758.00,1.31
4757.00,1.32
4756.00,1.32
4755.00,1.32
4754.00,1.33
4753.00,1.33
4752.00,1.33
4751.00,1.33
4750.00,1.34
4749.00,1.34
4748.00,1.34
4747.00,1.34
4746.00,1.35
4745.00,1.35
4744.00,1.35
4743.00,1.35
4742.00,1.36
4741.00,1.36
4740.00,1.36
4739.00,1.36
4738.00,1.36
4737.00,1.37
4736.00,1.37
4735.00,1.37
4734.00,1.37
4733.00,1.38
4732.00,1.38
4731.00,1.38
4730.00,1.39
4729.00,1.39
4728.00,1.39
4727.00,1.40
4726.00,1.40
4725.00,1.40
4724.00,1.41
4723.00,1.41
4722.00,1.41
4721.00,1.42
4720.00,1.42
4719.00,1.42
4718.00,1.43
4717.00,1.43
4716.00,1.43
4715.00,1.44
4714.00,1.44
4713.00,1.44
4712.00,1.45
4711.00,1.45
4710.00,1.45
4709.00,1.46
4708.00,1.46
4707.00,1.46
4706.00,1.47
4705.00,1.47
4704.00,1.47
4703.00,1.48
4702.00,1.48
4701.00,1.48
4700.00,1.48
4699.00,1.49
4698.00,1.49
4697.00,1.49
4696.00,1.49
4695.00,1.50
4694.00,1.50
4693.00,1.50
4692.00,1.51
4691.00,1.51
4690.00,1.51
4689.00,1.51
4688.00,1.52
4687.00,1.52
4686.00,1.52
4685.00,1.53
4684.00,1.53
4683.00,1.53
4682.00,1.54
4681.00,1.54
4680.00,1.54
4679.00,1.55
4678.00,1.55
4677.00,1.55
4676.00,1.55
4675.00,1.56
4674.00,1.56
4673.00,1.56
4672.00,1.56
4671.00,1.57
4670.00,1.57
4669.00,1.57
4668.00,1.57
4667.00,1.57
4666.00,1.57
4665.00,1.58
4664.00,1.58
4663.00,1.58
4662.00,1.58
4661.00,1.58
4660.00,1.58
4659.00,1.59
4658.00,1.59
4657.00,1.59
4656.00,1.59
4655.00,1.59
4654.00,1.60
4653.00,1.60
4652.00,1.60
4651.00,1.60
4650.00,1.60
4649.00,1.61
4648.00,1.61
4647.00,1.61
4646.00,1.61
4645.00,1.62
4644.00,1.62
4643.00,1.62
4642.00,1.62
4641.00,1.63
4640.00,1.63
4639.00,1.63
4638.00,1.63
4637.00,1.63
4636.00,1.64
4635.00,1.64
4634.00,1.64
4633.00,1.64
4632.00,1.64
4631.00,1.64
4630.00,1.64
4629.00,1.64
4628.00,1.65
4627.00,1.65
4626.00,1.65
4625.00,1.65
4624.00,1.65
4623.00,1.65
4622.00,1.65
4621.00,1.65
4620.00,1.65
4619.00,1.65
4618.00,1.65
4617.00,1.66
4616.00,1.66
4615.00,1.66
4614.00,1.66
4613.00,1.66
4612.00,1.66
4611.00,1.66
4610.00,1.66
4609.00,1.66
4608.00,1.66
4607.00,1.66
4606.00,1.66
4605.00,1.66
4604.00,1.67
4603.00,1.67
4602.00,1.67
4601.00,1.67
4600.00,1.67
4599.00,1.67
4598.00,1.67
4597.00,1.67
4596.00,1.67
4595.00,1.67
4594.00,1.67
4593.00,1.67
4592.00,1.68
4591.00,1.68
4590.00,1.68
4589.00,1.68
4588.00,1.68
4587.00,1.68
4586.00,1.68
4585.00,1.68
4584.00,1.68
4583.00,1.68
4582.00,1.69
4581.00,1.69
4580.00,1.69
4579.00,1.69
4578.00,1.69
4577.00,1.69
4576.00,1.69
4575.00,1.69
4574.00,1.69
4573.00,1.69
4572.00,1.70
4571.00,1.70
4570.00,1.70
4569.00,1.70
4568.00,1.70
4567.00,1.70
4566.00,1.70
4565.00,1.70
4564.00,1.70
4563.00,1.70
4562.00,1.71
4561.00,1.71
4560.00,1.71
4559.00,1.71
4558.00,1.71
4557.00,1.71
4556.00,1.71
4555.00,1.71
4554.00,1.71
4553.00,1.71
4552.00,1.71
4551.00,1.71
4550.00,1.71
4549.00,1.72
4548.00,1.72
4547.00,1.72
4546.00,1.72
4545.00,1.72
4544.00,1.72
4543.00,1.72
4542.00,1.72
4541.00,1.72
4540.00,1.72
4539.00,1.72
4538.00,1.72
4537.00,1.72
4536.00,1.72
4535.00,1.72
4534.00,1.73
4533.00,1.73
4532.00,1.73
4531.00,1.73
4530.00,1.73
4529.00,1.73
4528.00,1.73
4527.00,1.73
4526.00,1.73
4525.00,1.73
4524.00,1.73
4523.00,1.73
4522.00,1.73
4521.00,1.73
4520.00,1.73
4519.00,1.73
4518.00,1.73
4517.00,1.73
4516.00,1.73
4515.00,1.73
4514.00,1.73
4513.00,1.73
4512.00,1.73
4511.00,1.73
4510.00,1.73
4509.00,1.73
4508.00,1.73
4507.00,1.73
4506.00,1.73
4505.00,1.73
4504.00,1.73
4503.00,1.73
4502.00,1.73
4501.00,1.73
4500.00,1.73
4499.00,1.73
4498.00,1.73
4497.00,1.73
4496.00,1.73
4495.00,1.73
4494.00,1.73
4493.00,1.73
4492.00,1.73
4491.00,1.73
4490.00,1.73
4489.00,1.72
4488.00,1.72
4487.00,1.72
4486.00,1.72
4485.00,1.72
4484.00,1.71
4483.00,1.71
4482.00,1.71
4481.00,1.71
4480.00,1.70
4479.00,1.70
4478.00,1.70
4477.00,1.70
4476.00,1.69
4475.00,1.69
4474.00,1.69
4473.00,1.68
4472.00,1.68
4471.00,1.68
4470.00,1.67
4469.00,1.67
4468.00,1.66
4467.00,1.66
4466.00,1.66
4465.00,1.65
4464.00,1.65
4463.00,1.64
4462.00,1.64
4461.00,1.63
4460.00,1.62
4459.00,1.62
4458.00,1.61
4457.00,1.61
4456.00,1.60
4455.00,1.59
4454.00,1.58
4453.00,1.57
4452.00,1.57
4451.00,1.56
4450.00,1.55
4449.00,1.54
4448.00,1.53
4447.00,1.52
4446.00,1.51
4445.00,1.50
4444.00,1.48
4443.00,1.47
4442.00,1.46
4441.00,1.45
4440.00,1.43
4439.00,1.42
4438.00,1.41
4437.00,1.39
4436.00,1.38
4435.00,1.37
4434.00,1.35
4433.00,1.34
4432.00,1.33
4431.00,1.31
4430.00,1.30
4429.00,1.29
4428.00,1.28
4427.00,1.27
4426.00,1.26
4425.00,1.25
4424.00,1.24
4423.00,1.23
4422.00,1.22
4421.00,1.22
4420.00,1.21
4419.00,1.20
4418.00,1.20
4417.00,1.19
4416.00,1.19
4415.00,1.19
4414.00,1.18
4413.00,1.18
4412.00,1.18
4411.00,1.18
4410.00,1.18
4409.00,1.18
4408.00,1.18
4407.00,1.18
4406.00,1.18
4405.00,1.18
4404.00,1.18
4403.00,1.19
4402.00,1.19
4401.00,1.19
4400.00,1.20
4399.00,1.20
4398.00,1.20
4397.00,1.21
4396.00,1.21
4395.00,1.22
4394.00,1.22
4393.00,1.23
4392.00,1.23
4391.00,1.24
4390.00,1.24
4389.00,1.25
4388.00,1.25
4387.00,1.26
4386.00,1.27
4385.00,1.27
4384.00,1.28
4383.00,1.28
4382.00,1.29
4381.00,1.29
4380.00,1.30
4379.00,1.30
4378.00,1.31
4377.00,1.31
4376.00,1.32
4375.00,1.32
4374.00,1.32
4373.00,1.32
4372.00,1.33
4371.00,1.33
4370.00,1.33
4369.00,1.33
4368.00,1.33
4367.00,1.33
4366.00,1.33
4365.00,1.32
4364.00,1.32
4363.00,1.32
4362.00,1.32
4361.00,1.31
4360.00,1.31
4359.00,1.31
4358.00,1.30
4357.00,1.30
4356.00,1.29
4355.00,1.29
4354.00,1.29
4353.00,1.28
4352.00,1.28
4351.00,1.27
4350.00,1.27
4349.00,1.27
4348.00,1.26
4347.00,1.26
4346.00,1.26
4345.00,1.25
4344.00,1.25
4343.00,1.25
4342.00,1.25
4341.00,1.25
4340.00,1.25
4339.00,1.25
4338.00,1.25
4337.00,1.25
4336.00,1.25
4335.00,1.25
4334.00,1.25
4333.00,1.25
4332.00,1.26
4331.00,1.26
4330.00,1.27
4329.00,1.27
4328.00,1.28
4327.00,1.28
4326.00,1.29
4325.00,1.30
4324.00,1.30
4323.00,1.31
4322.00,1.32
4321.00,1.33
4320.00,1.33
4319.00,1.34
4318.00,1.35
4317.00,1.36
4316.00,1.37
4315.00,1.38
4314.00,1.39
4313.00,1.40
4312.00,1.41
4311.00,1.42
4310.00,1.43
4309.00,1.44
4308.00,1.44
4307.00,1.45
4306.00,1.46
4305.00,1.47
4304.00,1.48
4303.00,1.48
4302.00,1.49
4301.00,1.49
4300.00,1.50
4299.00,1.51
4298.00,1.51
4297.00,1.52
4296.00,1.52
4295.00,1.53
4294.00,1.53
4293.00,1.54
4292.00,1.54
4291.00,1.55
4290.00,1.55
4289.00,1.55
4288.00,1.56
4287.00,1.56
4286.00,1.56
4285.00,1.57
4284.00,1.57
4283.00,1.57
4282.00,1.58
4281.00,1.58
4280.00,1.58
4279.00,1.58
4278.00,1.58
4277.00,1.58
4276.00,1.58
4275.00,1.57
4274.00,1.57
4273.00,1.57
4272.00,1.56
4271.00,1.56
4270.00,1.56
4269.00,1.55
4268.00,1.55
4267.00,1.54
4266.00,1.54
4265.00,1.53
4264.00,1.53
4263.00,1.52
4262.00,1.52
4261.00,1.52
4260.00,1.51
4259.00,1.51
4258.00,1.51
4257.00,1.51
4256.00,1.51
4255.00,1.50
4254.00,1.50
4253.00,1.51
4252.00,1.51
4251.00,1.51
4250.00,1.51
4249.00,1.51
4248.00,1.52
4247.00,1.52
4246.00,1.53
4245.00,1.53
4244.00,1.54
4243.00,1.54
4242.00,1.55
4241.00,1.55
4240.00,1.56
4239.00,1.57
4238.00,1.57
4237.00,1.58
4236.00,1.59
4235.00,1.59
4234.00,1.60
4233.00,1.61
4232.00,1.61
4231.00,1.62
4230.00,1.62
4229.00,1.63
4228.00,1.63
4227.00,1.64
4226.00,1.64
4225.00,1.64
4224.00,1.65
4223.00,1.65
4222.00,1.65
4221.00,1.66
4220.00,1.66
4219.00,1.66
4218.00,1.66
4217.00,1.67
4216.00,1.67
4215.00,1.67
4214.00,1.67
4213.00,1.67
4212.00,1.67
4211.00,1.67
4210.00,1.67
4209.00,1.67
4208.00,1.67
4207.00,1.67
4206.00,1.67
4205.00,1.67
4204.00,1.67
4203.00,1.67
4202.00,1.68
4201.00,1.68
4200.00,1.68
4199.00,1.68
4198.00,1.68
4197.00,1.68
4196.00,1.68
4195.00,1.67
4194.00,1.67
4193.00,1.67
4192.00,1.67
4191.00,1.67
4190.00,1.67
4189.00,1.67
4188.00,1.67
4187.00,1.67
4186.00,1.67
4185.00,1.67
4184.00,1.67
4183.00,1.67
4182.00,1.67
4181.00,1.67
4180.00,1.67
4179.00,1.67
4178.00,1.66
4177.00,1.66
4176.00,1.66
4175.00,1.66
4174.00,1.66
4173.00,1.66
4172.00,1.66
4171.00,1.66
4170.00,1.66
4169.00,1.66
4168.00,1.66
4167.00,1.66
4166.00,1.65
4165.00,1.65
4164.00,1.65
4163.00,1.65
4162.00,1.65
4161.00,1.65
4160.00,1.65
4159.00,1.65
4158.00,1.65
4157.00,1.65
4156.00,1.65
4155.00,1.65
4154.00,1.65
4153.00,1.65
4152.00,1.65
4151.00,1.65
4150.00,1.65
4149.00,1.65
4148.00,1.65
4147.00,1.65
4146.00,1.65
4145.00,1.65
4144.00,1.65
4143.00,1.65
4142.00,1.65
4141.00,1.66
4140.00,1.66
4139.00,1.66
4138.00,1.66
4137.00,1.66
4136.00,1.66
4135.00,1.66
4134.00,1.65
4133.00,1.65
4132.00,1.65
4131.00,1.65
4130.00,1.65
4129.00,1.65
4128.00,1.65
4127.00,1.65
4126.00,1.65
4125.00,1.65
4124.00,1.64
4123.00,1.64
4122.00,1.64
4121.00,1.64
4120.00,1.64
4119.00,1.64
4118.00,1.64
4117.00,1.64
4116.00,1.64
4115.00,1.64
4114.00,1.64
4113.00,1.64
4112.00,1.64
4111.00,1.64
4110.00,1.64
4109.00,1.64
4108.00,1.63
4107.00,1.63
4106.00,1.63
4105.00,1.63
4104.00,1.63
4103.00,1.63
4102.00,1.62
4101.00,1.62
4100.00,1.62
4099.00,1.62
4098.00,1.61
4097.00,1.61
4096.00,1.61
4095.00,1.61
4094.00,1.61
4093.00,1.61
4092.00,1.61
4091.00,1.61
4090.00,1.61
4089.00,1.61
4088.00,1.61
4087.00,1.61
4086.00,1.61
4085.00,1.61
4084.00,1.61
4083.00,1.61
4082.00,1.61
4081.00,1.61
4080.00,1.61
4079.00,1.61
4078.00,1.61
4077.00,1.62
4076.00,1.62
4075.00,1.62
4074.00,1.62
4073.00,1.62
4072.00,1.62
4071.00,1.62
4070.00,1.62
4069.00,1.62
4068.00,1.62
4067.00,1.62
4066.00,1.62
4065.00,1.62
4064.00,1.62
4063.00,1.62
4062.00,1.62
4061.00,1.62
4060.00,1.62
4059.00,1.62
4058.00,1.62
4057.00,1.62
4056.00,1.62
4055.00,1.62
4054.00,1.62
4053.00,1.62
4052.00,1.62
4051.00,1.62
4050.00,1.62
4049.00,1.62
4048.00,1.63
4047.00,1.63
4046.00,1.63
4045.00,1.63
4044.00,1.64
4043.00,1.64
4042.00,1.64
4041.00,1.64
4040.00,1.65
4039.00,1.65
4038.00,1.65
4037.00,1.66
4036.00,1.66
4035.00,1.66
4034.00,1.66
4033.00,1.66
4032.00,1.67
4031.00,1.67
4030.00,1.67
4029.00,1.67
4028.00,1.67
4027.00,1.67
4026.00,1.67
4025.00,1.67
4024.00,1.67
4023.00,1.67
4022.00,1.68
4021.00,1.68
4020.00,1.68
4019.00,1.68
4018.00,1.68
4017.00,1.69
4016.00,1.69
4015.00,1.69
4014.00,1.70
4013.00,1.70
4012.00,1.70
4011.00,1.71
4010.00,1.71
4009.00,1.71
4008.00,1.72
4007.00,1.72
4006.00,1.72
4005.00,1.72
4004.00,1.72
4003.00,1.73
4002.00,1.73
4001.00,1.73
4000.00,1.73
