创建为新数据集,样品 559 用户 Administrator 日期 星期一, 七月 16 2018
cm-1,%T
10000.00,1.59
9999.00,1.59
9998.00,1.58
9997.00,1.58
9996.00,1.58
9995.00,1.58
9994.00,1.57
9993.00,1.57
9992.00,1.57
9991.00,1.57
9990.00,1.57
9989.00,1.57
9988.00,1.57
9987.00,1.57
9986.00,1.57
9985.00,1.57
9984.00,1.57
9983.00,1.57
9982.00,1.57
9981.00,1.58
9980.00,1.58
9979.00,1.58
9978.00,1.58
9977.00,1.58
9976.00,1.58
9975.00,1.58
9974.00,1.59
9973.00,1.59
9972.00,1.59
9971.00,1.59
9970.00,1.59
9969.00,1.59
9968.00,1.59
9967.00,1.58
9966.00,1.58
9965.00,1.58
9964.00,1.58
9963.00,1.58
9962.00,1.58
9961.00,1.58
9960.00,1.58
9959.00,1.57
9958.00,1.57
9957.00,1.57
9956.00,1.57
9955.00,1.57
9954.00,1.57
9953.00,1.57
9952.00,1.57
9951.00,1.57
9950.00,1.57
9949.00,1.57
9948.00,1.57
9947.00,1.57
9946.00,1.57
9945.00,1.57
9944.00,1.57
9943.00,1.57
9942.00,1.58
9941.00,1.58
9940.00,1.58
9939.00,1.58
9938.00,1.58
9937.00,1.58
9936.00,1.58
9935.00,1.59
9934.00,1.59
9933.00,1.59
9932.00,1.59
9931.00,1.59
9930.00,1.59
9929.00,1.58
9928.00,1.58
9927.00,1.58
9926.00,1.58
9925.00,1.58
9924.00,1.57
9923.00,1.57
9922.00,1.57
9921.00,1.57
9920.00,1.56
9919.00,1.56
9918.00,1.56
9917.00,1.56
9916.00,1.56
9915.00,1.56
9914.00,1.56
9913.00,1.56
9912.00,1.56
9911.00,1.56
9910.00,1.56
9909.00,1.56
9908.00,1.56
9907.00,1.56
9906.00,1.56
9905.00,1.56
9904.00,1.56
9903.00,1.56
9902.00,1.57
9901.00,1.57
9900.00,1.57
9899.00,1.57
9898.00,1.57
9897.00,1.56
9896.00,1.56
9895.00,1.56
9894.00,1.56
9893.00,1.56
9892.00,1.56
9891.00,1.56
9890.00,1.55
9889.00,1.55
9888.00,1.55
9887.00,1.55
9886.00,1.55
9885.00,1.54
9884.00,1.54
9883.00,1.54
9882.00,1.54
9881.00,1.54
9880.00,1.54
9879.00,1.54
9878.00,1.54
9877.00,1.54
9876.00,1.55
9875.00,1.55
9874.00,1.55
9873.00,1.55
9872.00,1.55
9871.00,1.56
9870.00,1.56
9869.00,1.56
9868.00,1.56
9867.00,1.57
9866.00,1.57
9865.00,1.57
9864.00,1.57
9863.00,1.57
9862.00,1.57
9861.00,1.57
9860.00,1.57
9859.00,1.58
9858.00,1.58
9857.00,1.58
9856.00,1.58
9855.00,1.58
9854.00,1.58
9853.00,1.58
9852.00,1.58
9851.00,1.58
9850.00,1.58
9849.00,1.58
9848.00,1.57
9847.00,1.57
9846.00,1.57
9845.00,1.57
9844.00,1.57
9843.00,1.57
9842.00,1.57
9841.00,1.57
9840.00,1.56
9839.00,1.56
9838.00,1.56
9837.00,1.56
9836.00,1.56
9835.00,1.55
9834.00,1.55
9833.00,1.55
9832.00,1.55
9831.00,1.54
9830.00,1.54
9829.00,1.54
9828.00,1.54
9827.00,1.54
9826.00,1.53
9825.00,1.53
9824.00,1.53
9823.00,1.53
9822.00,1.53
9821.00,1.53
9820.00,1.53
9819.00,1.53
9818.00,1.53
9817.00,1.53
9816.00,1.53
9815.00,1.53
9814.00,1.53
9813.00,1.53
9812.00,1.53
9811.00,1.53
9810.00,1.54
9809.00,1.54
9808.00,1.54
9807.00,1.54
9806.00,1.55
9805.00,1.55
9804.00,1.55
9803.00,1.55
9802.00,1.55
9801.00,1.56
9800.00,1.56
9799.00,1.56
9798.00,1.56
9797.00,1.56
9796.00,1.57
9795.00,1.57
9794.00,1.57
9793.00,1.57
9792.00,1.57
9791.00,1.57
9790.00,1.57
9789.00,1.57
9788.00,1.58
9787.00,1.58
9786.00,1.58
9785.00,1.58
9784.00,1.58
9783.00,1.58
9782.00,1.58
9781.00,1.58
9780.00,1.58
9779.00,1.58
9778.00,1.58
9777.00,1.58
9776.00,1.58
9775.00,1.58
9774.00,1.58
9773.00,1.57
9772.00,1.57
9771.00,1.57
9770.00,1.57
9769.00,1.57
9768.00,1.57
9767.00,1.57
9766.00,1.57
9765.00,1.57
9764.00,1.57
9763.00,1.57
9762.00,1.57
9761.00,1.56
9760.00,1.56
9759.00,1.56
9758.00,1.56
9757.00,1.56
9756.00,1.56
9755.00,1.56
9754.00,1.56
9753.00,1.56
9752.00,1.56
9751.00,1.56
9750.00,1.56
9749.00,1.56
9748.00,1.56
9747.00,1.56
9746.00,1.56
9745.00,1.56
9744.00,1.57
9743.00,1.57
9742.00,1.57
9741.00,1.57
9740.00,1.57
9739.00,1.57
9738.00,1.57
9737.00,1.57
9736.00,1.57
9735.00,1.57
9734.00,1.57
9733.00,1.57
9732.00,1.57
9731.00,1.57
9730.00,1.57
9729.00,1.57
9728.00,1.57
9727.00,1.57
9726.00,1.57
9725.00,1.57
9724.00,1.57
9723.00,1.56
9722.00,1.56
9721.00,1.56
9720.00,1.56
9719.00,1.56
9718.00,1.56
9717.00,1.56
9716.00,1.56
9715.00,1.57
9714.00,1.57
9713.00,1.57
9712.00,1.57
9711.00,1.57
9710.00,1.57
9709.00,1.57
9708.00,1.57
9707.00,1.57
9706.00,1.57
9705.00,1.57
9704.00,1.57
9703.00,1.57
9702.00,1.57
9701.00,1.57
9700.00,1.57
9699.00,1.57
9698.00,1.57
9697.00,1.57
9696.00,1.57
9695.00,1.57
9694.00,1.57
9693.00,1.57
9692.00,1.57
9691.00,1.57
9690.00,1.58
9689.00,1.58
9688.00,1.58
9687.00,1.58
9686.00,1.58
9685.00,1.58
9684.00,1.58
9683.00,1.58
9682.00,1.58
9681.00,1.58
9680.00,1.58
9679.00,1.58
9678.00,1.58
9677.00,1.58
9676.00,1.58
9675.00,1.58
9674.00,1.58
9673.00,1.57
9672.00,1.57
9671.00,1.57
9670.00,1.57
9669.00,1.57
9668.00,1.57
9667.00,1.57
9666.00,1.57
9665.00,1.57
9664.00,1.57
9663.00,1.57
9662.00,1.57
9661.00,1.57
9660.00,1.57
9659.00,1.57
9658.00,1.57
9657.00,1.57
9656.00,1.57
9655.00,1.57
9654.00,1.57
9653.00,1.57
9652.00,1.57
9651.00,1.57
9650.00,1.57
9649.00,1.57
9648.00,1.57
9647.00,1.57
9646.00,1.57
9645.00,1.57
9644.00,1.57
9643.00,1.57
9642.00,1.57
9641.00,1.57
9640.00,1.57
9639.00,1.57
9638.00,1.57
9637.00,1.57
9636.00,1.57
9635.00,1.57
9634.00,1.57
9633.00,1.57
9632.00,1.57
9631.00,1.57
9630.00,1.57
9629.00,1.57
9628.00,1.57
9627.00,1.57
9626.00,1.57
9625.00,1.57
9624.00,1.57
9623.00,1.58
9622.00,1.58
9621.00,1.58
9620.00,1.58
9619.00,1.58
9618.00,1.58
9617.00,1.57
9616.00,1.57
9615.00,1.57
9614.00,1.57
9613.00,1.57
9612.00,1.57
9611.00,1.57
9610.00,1.57
9609.00,1.57
9608.00,1.57
9607.00,1.57
9606.00,1.57
9605.00,1.57
9604.00,1.57
9603.00,1.57
9602.00,1.58
9601.00,1.58
9600.00,1.58
9599.00,1.58
9598.00,1.58
9597.00,1.58
9596.00,1.58
9595.00,1.58
9594.00,1.58
9593.00,1.58
9592.00,1.58
9591.00,1.58
9590.00,1.58
9589.00,1.58
9588.00,1.58
9587.00,1.58
9586.00,1.58
9585.00,1.58
9584.00,1.58
9583.00,1.58
9582.00,1.58
9581.00,1.58
9580.00,1.57
9579.00,1.57
9578.00,1.57
9577.00,1.57
9576.00,1.57
9575.00,1.57
9574.00,1.57
9573.00,1.57
9572.00,1.57
9571.00,1.57
9570.00,1.57
9569.00,1.57
9568.00,1.57
9567.00,1.57
9566.00,1.57
9565.00,1.57
9564.00,1.57
9563.00,1.58
9562.00,1.58
9561.00,1.58
9560.00,1.58
9559.00,1.58
9558.00,1.58
9557.00,1.58
9556.00,1.58
9555.00,1.58
9554.00,1.57
9553.00,1.57
9552.00,1.57
9551.00,1.57
9550.00,1.57
9549.00,1.57
9548.00,1.57
9547.00,1.57
9546.00,1.57
9545.00,1.57
9544.00,1.57
9543.00,1.57
9542.00,1.57
9541.00,1.57
9540.00,1.57
9539.00,1.57
9538.00,1.57
9537.00,1.57
9536.00,1.57
9535.00,1.57
9534.00,1.57
9533.00,1.57
9532.00,1.57
9531.00,1.57
9530.00,1.57
9529.00,1.57
9528.00,1.57
9527.00,1.57
9526.00,1.56
9525.00,1.56
9524.00,1.56
9523.00,1.56
9522.00,1.56
9521.00,1.56
9520.00,1.56
9519.00,1.56
9518.00,1.56
9517.00,1.56
9516.00,1.56
9515.00,1.56
9514.00,1.57
9513.00,1.57
9512.00,1.57
9511.00,1.57
9510.00,1.57
9509.00,1.57
9508.00,1.57
9507.00,1.58
9506.00,1.58
9505.00,1.58
9504.00,1.58
9503.00,1.58
9502.00,1.58
9501.00,1.58
9500.00,1.58
9499.00,1.58
9498.00,1.58
9497.00,1.58
9496.00,1.58
9495.00,1.58
9494.00,1.58
9493.00,1.58
9492.00,1.58
9491.00,1.58
9490.00,1.58
9489.00,1.58
9488.00,1.58
9487.00,1.58
9486.00,1.58
9485.00,1.58
9484.00,1.58
9483.00,1.58
9482.00,1.58
9481.00,1.58
9480.00,1.58
9479.00,1.58
9478.00,1.58
9477.00,1.58
9476.00,1.58
9475.00,1.58
9474.00,1.58
9473.00,1.58
9472.00,1.58
9471.00,1.58
9470.00,1.58
9469.00,1.58
9468.00,1.58
9467.00,1.58
9466.00,1.58
9465.00,1.58
9464.00,1.58
9463.00,1.58
9462.00,1.57
9461.00,1.57
9460.00,1.58
9459.00,1.58
9458.00,1.58
9457.00,1.58
9456.00,1.58
9455.00,1.58
9454.00,1.58
9453.00,1.58
9452.00,1.58
9451.00,1.58
9450.00,1.58
9449.00,1.58
9448.00,1.58
9447.00,1.58
9446.00,1.58
9445.00,1.58
9444.00,1.58
9443.00,1.58
9442.00,1.58
9441.00,1.58
9440.00,1.58
9439.00,1.58
9438.00,1.58
9437.00,1.58
9436.00,1.57
9435.00,1.57
9434.00,1.57
9433.00,1.57
9432.00,1.56
9431.00,1.56
9430.00,1.56
9429.00,1.56
9428.00,1.56
9427.00,1.55
9426.00,1.55
9425.00,1.55
9424.00,1.55
9423.00,1.55
9422.00,1.55
9421.00,1.55
9420.00,1.55
9419.00,1.55
9418.00,1.55
9417.00,1.55
9416.00,1.56
9415.00,1.56
9414.00,1.56
9413.00,1.56
9412.00,1.56
9411.00,1.56
9410.00,1.56
9409.00,1.57
9408.00,1.57
9407.00,1.57
9406.00,1.57
9405.00,1.57
9404.00,1.57
9403.00,1.58
9402.00,1.58
9401.00,1.58
9400.00,1.58
9399.00,1.58
9398.00,1.58
9397.00,1.58
9396.00,1.58
9395.00,1.58
9394.00,1.58
9393.00,1.58
9392.00,1.58
9391.00,1.58
9390.00,1.58
9389.00,1.58
9388.00,1.58
9387.00,1.57
9386.00,1.57
9385.00,1.57
9384.00,1.57
9383.00,1.57
9382.00,1.57
9381.00,1.57
9380.00,1.56
9379.00,1.56
9378.00,1.56
9377.00,1.56
9376.00,1.56
9375.00,1.57
9374.00,1.57
9373.00,1.57
9372.00,1.57
9371.00,1.57
9370.00,1.57
9369.00,1.57
9368.00,1.57
9367.00,1.57
9366.00,1.57
9365.00,1.57
9364.00,1.57
9363.00,1.57
9362.00,1.57
9361.00,1.57
9360.00,1.57
9359.00,1.57
9358.00,1.57
9357.00,1.57
9356.00,1.57
9355.00,1.57
9354.00,1.57
9353.00,1.57
9352.00,1.57
9351.00,1.57
9350.00,1.57
9349.00,1.57
9348.00,1.57
9347.00,1.57
9346.00,1.57
9345.00,1.57
9344.00,1.57
9343.00,1.57
9342.00,1.57
9341.00,1.58
9340.00,1.58
9339.00,1.58
9338.00,1.58
9337.00,1.58
9336.00,1.58
9335.00,1.58
9334.00,1.57
9333.00,1.57
9332.00,1.57
9331.00,1.57
9330.00,1.57
9329.00,1.57
9328.00,1.57
9327.00,1.57
9326.00,1.57
9325.00,1.57
9324.00,1.57
9323.00,1.57
9322.00,1.56
9321.00,1.56
9320.00,1.56
9319.00,1.56
9318.00,1.56
9317.00,1.56
9316.00,1.56
9315.00,1.56
9314.00,1.56
9313.00,1.56
9312.00,1.56
9311.00,1.56
9310.00,1.56
9309.00,1.56
9308.00,1.56
9307.00,1.56
9306.00,1.56
9305.00,1.56
9304.00,1.56
9303.00,1.56
9302.00,1.56
9301.00,1.57
9300.00,1.57
9299.00,1.57
9298.00,1.57
9297.00,1.57
9296.00,1.57
9295.00,1.57
9294.00,1.57
9293.00,1.57
9292.00,1.58
9291.00,1.58
9290.00,1.58
9289.00,1.58
9288.00,1.58
9287.00,1.58
9286.00,1.57
9285.00,1.57
9284.00,1.57
9283.00,1.57
9282.00,1.57
9281.00,1.57
9280.00,1.57
9279.00,1.57
9278.00,1.57
9277.00,1.57
9276.00,1.57
9275.00,1.57
9274.00,1.57
9273.00,1.57
9272.00,1.57
9271.00,1.57
9270.00,1.58
9269.00,1.58
9268.00,1.58
9267.00,1.58
9266.00,1.58
9265.00,1.58
9264.00,1.58
9263.00,1.58
9262.00,1.58
9261.00,1.58
9260.00,1.58
9259.00,1.58
9258.00,1.58
9257.00,1.58
9256.00,1.58
9255.00,1.58
9254.00,1.58
9253.00,1.58
9252.00,1.58
9251.00,1.58
9250.00,1.57
9249.00,1.57
9248.00,1.57
9247.00,1.57
9246.00,1.57
9245.00,1.57
9244.00,1.57
9243.00,1.57
9242.00,1.57
9241.00,1.57
9240.00,1.57
9239.00,1.57
9238.00,1.57
9237.00,1.57
9236.00,1.57
9235.00,1.56
9234.00,1.56
9233.00,1.56
9232.00,1.56
9231.00,1.56
9230.00,1.56
9229.00,1.55
9228.00,1.55
9227.00,1.55
9226.00,1.55
9225.00,1.55
9224.00,1.54
9223.00,1.54
9222.00,1.54
9221.00,1.54
9220.00,1.54
9219.00,1.54
9218.00,1.54
9217.00,1.54
9216.00,1.54
9215.00,1.54
9214.00,1.54
9213.00,1.54
9212.00,1.54
9211.00,1.54
9210.00,1.54
9209.00,1.54
9208.00,1.54
9207.00,1.55
9206.00,1.55
9205.00,1.55
9204.00,1.55
9203.00,1.55
9202.00,1.55
9201.00,1.56
9200.00,1.56
9199.00,1.56
9198.00,1.56
9197.00,1.56
9196.00,1.57
9195.00,1.57
9194.00,1.57
9193.00,1.57
9192.00,1.58
9191.00,1.58
9190.00,1.58
9189.00,1.58
9188.00,1.58
9187.00,1.58
9186.00,1.59
9185.00,1.59
9184.00,1.59
9183.00,1.59
9182.00,1.58
9181.00,1.58
9180.00,1.58
9179.00,1.58
9178.00,1.58
9177.00,1.57
9176.00,1.57
9175.00,1.57
9174.00,1.57
9173.00,1.56
9172.00,1.56
9171.00,1.56
9170.00,1.56
9169.00,1.56
9168.00,1.56
9167.00,1.56
9166.00,1.55
9165.00,1.55
9164.00,1.55
9163.00,1.55
9162.00,1.56
9161.00,1.56
9160.00,1.56
9159.00,1.56
9158.00,1.56
9157.00,1.56
9156.00,1.56
9155.00,1.56
9154.00,1.56
9153.00,1.56
9152.00,1.56
9151.00,1.56
9150.00,1.56
9149.00,1.56
9148.00,1.56
9147.00,1.56
9146.00,1.56
9145.00,1.56
9144.00,1.56
9143.00,1.56
9142.00,1.57
9141.00,1.57
9140.00,1.57
9139.00,1.57
9138.00,1.57
9137.00,1.57
9136.00,1.57
9135.00,1.57
9134.00,1.57
9133.00,1.57
9132.00,1.57
9131.00,1.58
9130.00,1.58
9129.00,1.58
9128.00,1.58
9127.00,1.58
9126.00,1.58
9125.00,1.58
9124.00,1.58
9123.00,1.58
9122.00,1.58
9121.00,1.58
9120.00,1.58
9119.00,1.58
9118.00,1.58
9117.00,1.58
9116.00,1.58
9115.00,1.58
9114.00,1.58
9113.00,1.58
9112.00,1.58
9111.00,1.58
9110.00,1.58
9109.00,1.58
9108.00,1.58
9107.00,1.58
9106.00,1.58
9105.00,1.58
9104.00,1.58
9103.00,1.57
9102.00,1.57
9101.00,1.57
9100.00,1.57
9099.00,1.57
9098.00,1.57
9097.00,1.57
9096.00,1.57
9095.00,1.57
9094.00,1.57
9093.00,1.56
9092.00,1.56
9091.00,1.56
9090.00,1.56
9089.00,1.56
9088.00,1.56
9087.00,1.56
9086.00,1.56
9085.00,1.56
9084.00,1.56
9083.00,1.56
9082.00,1.56
9081.00,1.56
9080.00,1.56
9079.00,1.56
9078.00,1.56
9077.00,1.56
9076.00,1.56
9075.00,1.55
9074.00,1.55
9073.00,1.55
9072.00,1.55
9071.00,1.55
9070.00,1.55
9069.00,1.55
9068.00,1.55
9067.00,1.55
9066.00,1.55
9065.00,1.55
9064.00,1.55
9063.00,1.55
9062.00,1.56
9061.00,1.56
9060.00,1.56
9059.00,1.56
9058.00,1.56
9057.00,1.56
9056.00,1.56
9055.00,1.56
9054.00,1.57
9053.00,1.57
9052.00,1.57
9051.00,1.57
9050.00,1.57
9049.00,1.57
9048.00,1.57
9047.00,1.57
9046.00,1.57
9045.00,1.57
9044.00,1.57
9043.00,1.57
9042.00,1.57
9041.00,1.57
9040.00,1.57
9039.00,1.56
9038.00,1.56
9037.00,1.56
9036.00,1.56
9035.00,1.56
9034.00,1.56
9033.00,1.56
9032.00,1.56
9031.00,1.56
9030.00,1.56
9029.00,1.55
9028.00,1.55
9027.00,1.55
9026.00,1.55
9025.00,1.55
9024.00,1.55
9023.00,1.55
9022.00,1.55
9021.00,1.56
9020.00,1.56
9019.00,1.56
9018.00,1.56
9017.00,1.56
9016.00,1.56
9015.00,1.56
9014.00,1.56
9013.00,1.57
9012.00,1.57
9011.00,1.57
9010.00,1.57
9009.00,1.57
9008.00,1.57
9007.00,1.57
9006.00,1.57
9005.00,1.57
9004.00,1.57
9003.00,1.57
9002.00,1.57
9001.00,1.57
9000.00,1.57
8999.00,1.57
8998.00,1.57
8997.00,1.57
8996.00,1.57
8995.00,1.57
8994.00,1.58
8993.00,1.58
8992.00,1.58
8991.00,1.58
8990.00,1.58
8989.00,1.58
8988.00,1.58
8987.00,1.58
8986.00,1.59
8985.00,1.59
8984.00,1.59
8983.00,1.59
8982.00,1.59
8981.00,1.59
8980.00,1.59
8979.00,1.59
8978.00,1.59
8977.00,1.58
8976.00,1.58
8975.00,1.58
8974.00,1.58
8973.00,1.58
8972.00,1.58
8971.00,1.58
8970.00,1.58
8969.00,1.58
8968.00,1.58
8967.00,1.58
8966.00,1.58
8965.00,1.57
8964.00,1.57
8963.00,1.57
8962.00,1.57
8961.00,1.57
8960.00,1.57
8959.00,1.57
8958.00,1.57
8957.00,1.57
8956.00,1.57
8955.00,1.57
8954.00,1.57
8953.00,1.57
8952.00,1.57
8951.00,1.57
8950.00,1.57
8949.00,1.57
8948.00,1.57
8947.00,1.57
8946.00,1.57
8945.00,1.57
8944.00,1.57
8943.00,1.57
8942.00,1.57
8941.00,1.57
8940.00,1.57
8939.00,1.57
8938.00,1.57
8937.00,1.57
8936.00,1.57
8935.00,1.57
8934.00,1.57
8933.00,1.57
8932.00,1.57
8931.00,1.57
8930.00,1.57
8929.00,1.57
8928.00,1.57
8927.00,1.57
8926.00,1.57
8925.00,1.57
8924.00,1.57
8923.00,1.57
8922.00,1.57
8921.00,1.57
8920.00,1.57
8919.00,1.56
8918.00,1.56
8917.00,1.56
8916.00,1.56
8915.00,1.56
8914.00,1.56
8913.00,1.56
8912.00,1.56
8911.00,1.55
8910.00,1.55
8909.00,1.55
8908.00,1.55
8907.00,1.55
8906.00,1.55
8905.00,1.55
8904.00,1.55
8903.00,1.55
8902.00,1.55
8901.00,1.55
8900.00,1.55
8899.00,1.55
8898.00,1.55
8897.00,1.55
8896.00,1.55
8895.00,1.55
8894.00,1.55
8893.00,1.56
8892.00,1.56
8891.00,1.56
8890.00,1.56
8889.00,1.56
8888.00,1.56
8887.00,1.56
8886.00,1.56
8885.00,1.56
8884.00,1.56
8883.00,1.56
8882.00,1.56
8881.00,1.56
8880.00,1.56
8879.00,1.56
8878.00,1.55
8877.00,1.56
8876.00,1.56
8875.00,1.56
8874.00,1.56
8873.00,1.56
8872.00,1.56
8871.00,1.56
8870.00,1.56
8869.00,1.56
8868.00,1.56
8867.00,1.56
8866.00,1.56
8865.00,1.55
8864.00,1.55
8863.00,1.55
8862.00,1.55
8861.00,1.55
8860.00,1.55
8859.00,1.55
8858.00,1.55
8857.00,1.55
8856.00,1.55
8855.00,1.55
8854.00,1.55
8853.00,1.55
8852.00,1.55
8851.00,1.55
8850.00,1.55
8849.00,1.55
8848.00,1.55
8847.00,1.55
8846.00,1.55
8845.00,1.55
8844.00,1.55
8843.00,1.55
8842.00,1.55
8841.00,1.55
8840.00,1.55
8839.00,1.55
8838.00,1.55
8837.00,1.55
8836.00,1.55
8835.00,1.55
8834.00,1.55
8833.00,1.55
8832.00,1.55
8831.00,1.55
8830.00,1.55
8829.00,1.55
8828.00,1.55
8827.00,1.55
8826.00,1.55
8825.00,1.55
8824.00,1.55
8823.00,1.54
8822.00,1.54
8821.00,1.54
8820.00,1.54
8819.00,1.54
8818.00,1.54
8817.00,1.54
8816.00,1.54
8815.00,1.53
8814.00,1.53
8813.00,1.53
8812.00,1.53
8811.00,1.53
8810.00,1.53
8809.00,1.53
8808.00,1.53
8807.00,1.54
8806.00,1.54
8805.00,1.54
8804.00,1.54
8803.00,1.54
8802.00,1.54
8801.00,1.54
8800.00,1.54
8799.00,1.53
8798.00,1.53
8797.00,1.53
8796.00,1.53
8795.00,1.53
8794.00,1.53
8793.00,1.53
8792.00,1.53
8791.00,1.53
8790.00,1.53
8789.00,1.53
8788.00,1.53
8787.00,1.53
8786.00,1.53
8785.00,1.53
8784.00,1.53
8783.00,1.53
8782.00,1.53
8781.00,1.53
8780.00,1.53
8779.00,1.53
8778.00,1.53
8777.00,1.53
8776.00,1.53
8775.00,1.53
8774.00,1.54
8773.00,1.54
8772.00,1.54
8771.00,1.54
8770.00,1.54
8769.00,1.54
8768.00,1.53
8767.00,1.53
8766.00,1.53
8765.00,1.53
8764.00,1.53
8763.00,1.53
8762.00,1.53
8761.00,1.53
8760.00,1.53
8759.00,1.53
8758.00,1.52
8757.00,1.52
8756.00,1.52
8755.00,1.52
8754.00,1.52
8753.00,1.52
8752.00,1.52
8751.00,1.52
8750.00,1.52
8749.00,1.51
8748.00,1.51
8747.00,1.51
8746.00,1.51
8745.00,1.51
8744.00,1.51
8743.00,1.51
8742.00,1.51
8741.00,1.51
8740.00,1.51
8739.00,1.51
8738.00,1.51
8737.00,1.50
8736.00,1.50
8735.00,1.50
8734.00,1.50
8733.00,1.50
8732.00,1.50
8731.00,1.50
8730.00,1.50
8729.00,1.50
8728.00,1.50
8727.00,1.49
8726.00,1.49
8725.00,1.49
8724.00,1.49
8723.00,1.49
8722.00,1.49
8721.00,1.49
8720.00,1.49
8719.00,1.49
8718.00,1.49
8717.00,1.49
8716.00,1.49
8715.00,1.49
8714.00,1.49
8713.00,1.49
8712.00,1.49
8711.00,1.49
8710.00,1.49
8709.00,1.49
8708.00,1.49
8707.00,1.50
8706.00,1.50
8705.00,1.50
8704.00,1.50
8703.00,1.50
8702.00,1.50
8701.00,1.50
8700.00,1.50
8699.00,1.50
8698.00,1.50
8697.00,1.50
8696.00,1.50
8695.00,1.50
8694.00,1.50
8693.00,1.50
8692.00,1.50
8691.00,1.49
8690.00,1.49
8689.00,1.49
8688.00,1.49
8687.00,1.49
8686.00,1.49
8685.00,1.49
8684.00,1.49
8683.00,1.49
8682.00,1.49
8681.00,1.49
8680.00,1.49
8679.00,1.49
8678.00,1.49
8677.00,1.49
8676.00,1.49
8675.00,1.48
8674.00,1.48
8673.00,1.48
8672.00,1.48
8671.00,1.48
8670.00,1.48
8669.00,1.48
8668.00,1.48
8667.00,1.48
8666.00,1.48
8665.00,1.47
8664.00,1.47
8663.00,1.47
8662.00,1.47
8661.00,1.47
8660.00,1.47
8659.00,1.47
8658.00,1.47
8657.00,1.47
8656.00,1.47
8655.00,1.47
8654.00,1.47
8653.00,1.47
8652.00,1.47
8651.00,1.47
8650.00,1.47
8649.00,1.47
8648.00,1.47
8647.00,1.47
8646.00,1.47
8645.00,1.47
8644.00,1.47
8643.00,1.47
8642.00,1.47
8641.00,1.47
8640.00,1.47
8639.00,1.47
8638.00,1.47
8637.00,1.47
8636.00,1.47
8635.00,1.47
8634.00,1.47
8633.00,1.47
8632.00,1.47
8631.00,1.47
8630.00,1.47
8629.00,1.47
8628.00,1.47
8627.00,1.47
8626.00,1.47
8625.00,1.47
8624.00,1.47
8623.00,1.48
8622.00,1.48
8621.00,1.48
8620.00,1.48
8619.00,1.48
8618.00,1.48
8617.00,1.48
8616.00,1.48
8615.00,1.48
8614.00,1.48
8613.00,1.48
8612.00,1.48
8611.00,1.48
8610.00,1.48
8609.00,1.48
8608.00,1.48
8607.00,1.48
8606.00,1.47
8605.00,1.47
8604.00,1.47
8603.00,1.47
8602.00,1.47
8601.00,1.47
8600.00,1.47
8599.00,1.47
8598.00,1.46
8597.00,1.46
8596.00,1.46
8595.00,1.46
8594.00,1.46
8593.00,1.46
8592.00,1.46
8591.00,1.46
8590.00,1.46
8589.00,1.46
8588.00,1.46
8587.00,1.46
8586.00,1.46
8585.00,1.46
8584.00,1.46
8583.00,1.46
8582.00,1.46
8581.00,1.46
8580.00,1.45
8579.00,1.45
8578.00,1.45
8577.00,1.45
8576.00,1.45
8575.00,1.45
8574.00,1.45
8573.00,1.45
8572.00,1.44
8571.00,1.44
8570.00,1.44
8569.00,1.44
8568.00,1.44
8567.00,1.44
8566.00,1.44
8565.00,1.44
8564.00,1.44
8563.00,1.44
8562.00,1.44
8561.00,1.44
8560.00,1.44
8559.00,1.44
8558.00,1.44
8557.00,1.44
8556.00,1.44
8555.00,1.44
8554.00,1.44
8553.00,1.44
8552.00,1.44
8551.00,1.44
8550.00,1.44
8549.00,1.44
8548.00,1.44
8547.00,1.44
8546.00,1.44
8545.00,1.44
8544.00,1.44
8543.00,1.44
8542.00,1.44
8541.00,1.44
8540.00,1.44
8539.00,1.44
8538.00,1.44
8537.00,1.44
8536.00,1.44
8535.00,1.44
8534.00,1.44
8533.00,1.43
8532.00,1.43
8531.00,1.43
8530.00,1.43
8529.00,1.43
8528.00,1.43
8527.00,1.43
8526.00,1.43
8525.00,1.43
8524.00,1.43
8523.00,1.43
8522.00,1.43
8521.00,1.42
8520.00,1.42
8519.00,1.42
8518.00,1.42
8517.00,1.42
8516.00,1.42
8515.00,1.42
8514.00,1.42
8513.00,1.41
8512.00,1.41
8511.00,1.41
8510.00,1.41
8509.00,1.41
8508.00,1.41
8507.00,1.41
8506.00,1.41
8505.00,1.40
8504.00,1.40
8503.00,1.40
8502.00,1.40
8501.00,1.40
8500.00,1.40
8499.00,1.40
8498.00,1.40
8497.00,1.40
8496.00,1.40
8495.00,1.40
8494.00,1.40
8493.00,1.40
8492.00,1.40
8491.00,1.40
8490.00,1.40
8489.00,1.40
8488.00,1.40
8487.00,1.40
8486.00,1.40
8485.00,1.40
8484.00,1.40
8483.00,1.40
8482.00,1.40
8481.00,1.40
8480.00,1.39
8479.00,1.39
8478.00,1.39
8477.00,1.39
8476.00,1.39
8475.00,1.39
8474.00,1.39
8473.00,1.38
8472.00,1.38
8471.00,1.38
8470.00,1.38
8469.00,1.38
8468.00,1.38
8467.00,1.38
8466.00,1.38
8465.00,1.38
8464.00,1.38
8463.00,1.37
8462.00,1.37
8461.00,1.37
8460.00,1.37
8459.00,1.38
8458.00,1.38
8457.00,1.38
8456.00,1.38
8455.00,1.38
8454.00,1.38
8453.00,1.38
8452.00,1.38
8451.00,1.38
8450.00,1.38
8449.00,1.38
8448.00,1.38
8447.00,1.38
8446.00,1.38
8445.00,1.37
8444.00,1.37
8443.00,1.37
8442.00,1.37
8441.00,1.37
8440.00,1.37
8439.00,1.37
8438.00,1.37
8437.00,1.37
8436.00,1.37
8435.00,1.37
8434.00,1.37
8433.00,1.38
8432.00,1.38
8431.00,1.38
8430.00,1.38
8429.00,1.38
8428.00,1.38
8427.00,1.38
8426.00,1.38
8425.00,1.38
8424.00,1.38
8423.00,1.38
8422.00,1.38
8421.00,1.38
8420.00,1.38
8419.00,1.38
8418.00,1.38
8417.00,1.38
8416.00,1.38
8415.00,1.39
8414.00,1.39
8413.00,1.39
8412.00,1.39
8411.00,1.39
8410.00,1.39
8409.00,1.39
8408.00,1.39
8407.00,1.39
8406.00,1.39
8405.00,1.39
8404.00,1.39
8403.00,1.39
8402.00,1.39
8401.00,1.40
8400.00,1.40
8399.00,1.40
8398.00,1.40
8397.00,1.40
8396.00,1.40
8395.00,1.41
8394.00,1.41
8393.00,1.41
8392.00,1.41
8391.00,1.41
8390.00,1.41
8389.00,1.42
8388.00,1.42
8387.00,1.42
8386.00,1.42
8385.00,1.42
8384.00,1.42
8383.00,1.42
8382.00,1.42
8381.00,1.42
8380.00,1.42
8379.00,1.43
8378.00,1.43
8377.00,1.43
8376.00,1.43
8375.00,1.43
8374.00,1.43
8373.00,1.43
8372.00,1.43
8371.00,1.42
8370.00,1.42
8369.00,1.42
8368.00,1.42
8367.00,1.42
8366.00,1.42
8365.00,1.42
8364.00,1.42
8363.00,1.42
8362.00,1.42
8361.00,1.42
8360.00,1.41
8359.00,1.41
8358.00,1.41
8357.00,1.41
8356.00,1.41
8355.00,1.41
8354.00,1.41
8353.00,1.41
8352.00,1.41
8351.00,1.41
8350.00,1.41
8349.00,1.42
8348.00,1.42
8347.00,1.42
8346.00,1.42
8345.00,1.42
8344.00,1.42
8343.00,1.42
8342.00,1.42
8341.00,1.42
8340.00,1.42
8339.00,1.43
8338.00,1.43
8337.00,1.43
8336.00,1.43
8335.00,1.43
8334.00,1.43
8333.00,1.43
8332.00,1.43
8331.00,1.43
8330.00,1.43
8329.00,1.43
8328.00,1.43
8327.00,1.43
8326.00,1.43
8325.00,1.43
8324.00,1.43
8323.00,1.43
8322.00,1.43
8321.00,1.43
8320.00,1.43
8319.00,1.43
8318.00,1.43
8317.00,1.43
8316.00,1.43
8315.00,1.43
8314.00,1.43
8313.00,1.43
8312.00,1.43
8311.00,1.43
8310.00,1.43
8309.00,1.43
8308.00,1.43
8307.00,1.43
8306.00,1.43
8305.00,1.43
8304.00,1.43
8303.00,1.43
8302.00,1.43
8301.00,1.43
8300.00,1.43
8299.00,1.43
8298.00,1.43
8297.00,1.43
8296.00,1.43
8295.00,1.43
8294.00,1.43
8293.00,1.43
8292.00,1.43
8291.00,1.43
8290.00,1.43
8289.00,1.43
8288.00,1.43
8287.00,1.43
8286.00,1.43
8285.00,1.44
8284.00,1.44
8283.00,1.44
8282.00,1.44
8281.00,1.44
8280.00,1.44
8279.00,1.44
8278.00,1.44
8277.00,1.44
8276.00,1.44
8275.00,1.44
8274.00,1.44
8273.00,1.44
8272.00,1.44
8271.00,1.45
8270.00,1.45
8269.00,1.45
8268.00,1.45
8267.00,1.45
8266.00,1.45
8265.00,1.45
8264.00,1.45
8263.00,1.45
8262.00,1.45
8261.00,1.45
8260.00,1.46
8259.00,1.46
8258.00,1.46
8257.00,1.46
8256.00,1.46
8255.00,1.46
8254.00,1.46
8253.00,1.46
8252.00,1.46
8251.00,1.46
8250.00,1.46
8249.00,1.46
8248.00,1.46
8247.00,1.46
8246.00,1.46
8245.00,1.46
8244.00,1.46
8243.00,1.46
8242.00,1.46
8241.00,1.46
8240.00,1.46
8239.00,1.46
8238.00,1.46
8237.00,1.46
8236.00,1.47
8235.00,1.47
8234.00,1.47
8233.00,1.47
8232.00,1.47
8231.00,1.47
8230.00,1.46
8229.00,1.46
8228.00,1.46
8227.00,1.46
8226.00,1.46
8225.00,1.46
8224.00,1.46
8223.00,1.46
8222.00,1.46
8221.00,1.46
8220.00,1.46
8219.00,1.46
8218.00,1.46
8217.00,1.46
8216.00,1.46
8215.00,1.46
8214.00,1.46
8213.00,1.46
8212.00,1.46
8211.00,1.46
8210.00,1.47
8209.00,1.47
8208.00,1.47
8207.00,1.47
8206.00,1.47
8205.00,1.47
8204.00,1.47
8203.00,1.47
8202.00,1.47
8201.00,1.47
8200.00,1.47
8199.00,1.47
8198.00,1.47
8197.00,1.47
8196.00,1.47
8195.00,1.47
8194.00,1.47
8193.00,1.47
8192.00,1.47
8191.00,1.47
8190.00,1.47
8189.00,1.47
8188.00,1.47
8187.00,1.47
8186.00,1.47
8185.00,1.47
8184.00,1.47
8183.00,1.47
8182.00,1.47
8181.00,1.47
8180.00,1.47
8179.00,1.47
8178.00,1.47
8177.00,1.47
8176.00,1.47
8175.00,1.48
8174.00,1.48
8173.00,1.48
8172.00,1.48
8171.00,1.48
8170.00,1.48
8169.00,1.48
8168.00,1.48
8167.00,1.48
8166.00,1.48
8165.00,1.48
8164.00,1.48
8163.00,1.48
8162.00,1.49
8161.00,1.49
8160.00,1.49
8159.00,1.49
8158.00,1.49
8157.00,1.49
8156.00,1.49
8155.00,1.49
8154.00,1.49
8153.00,1.49
8152.00,1.49
8151.00,1.49
8150.00,1.49
8149.00,1.49
8148.00,1.49
8147.00,1.49
8146.00,1.49
8145.00,1.49
8144.00,1.50
8143.00,1.50
8142.00,1.50
8141.00,1.50
8140.00,1.50
8139.00,1.50
8138.00,1.50
8137.00,1.50
8136.00,1.50
8135.00,1.50
8134.00,1.50
8133.00,1.50
8132.00,1.50
8131.00,1.50
8130.00,1.50
8129.00,1.50
8128.00,1.50
8127.00,1.50
8126.00,1.50
8125.00,1.50
8124.00,1.50
8123.00,1.50
8122.00,1.50
8121.00,1.50
8120.00,1.50
8119.00,1.50
8118.00,1.50
8117.00,1.50
8116.00,1.50
8115.00,1.51
8114.00,1.51
8113.00,1.51
8112.00,1.51
8111.00,1.51
8110.00,1.51
8109.00,1.51
8108.00,1.51
8107.00,1.51
8106.00,1.51
8105.00,1.51
8104.00,1.51
8103.00,1.51
8102.00,1.51
8101.00,1.51
8100.00,1.51
8099.00,1.51
8098.00,1.51
8097.00,1.51
8096.00,1.51
8095.00,1.51
8094.00,1.51
8093.00,1.51
8092.00,1.51
8091.00,1.51
8090.00,1.51
8089.00,1.51
8088.00,1.51
8087.00,1.51
8086.00,1.51
8085.00,1.51
8084.00,1.51
8083.00,1.51
8082.00,1.51
8081.00,1.51
8080.00,1.51
8079.00,1.51
8078.00,1.51
8077.00,1.51
8076.00,1.51
8075.00,1.51
8074.00,1.51
8073.00,1.51
8072.00,1.51
8071.00,1.51
8070.00,1.51
8069.00,1.51
8068.00,1.52
8067.00,1.52
8066.00,1.52
8065.00,1.52
8064.00,1.52
8063.00,1.52
8062.00,1.52
8061.00,1.52
8060.00,1.52
8059.00,1.52
8058.00,1.52
8057.00,1.52
8056.00,1.52
8055.00,1.52
8054.00,1.52
8053.00,1.52
8052.00,1.52
8051.00,1.52
8050.00,1.52
8049.00,1.52
8048.00,1.52
8047.00,1.52
8046.00,1.51
8045.00,1.51
8044.00,1.51
8043.00,1.51
8042.00,1.51
8041.00,1.51
8040.00,1.51
8039.00,1.51
8038.00,1.52
8037.00,1.52
8036.00,1.52
8035.00,1.52
8034.00,1.52
8033.00,1.52
8032.00,1.52
8031.00,1.52
8030.00,1.52
8029.00,1.52
8028.00,1.52
8027.00,1.53
8026.00,1.53
8025.00,1.53
8024.00,1.53
8023.00,1.53
8022.00,1.53
8021.00,1.53
8020.00,1.53
8019.00,1.53
8018.00,1.53
8017.00,1.53
8016.00,1.53
8015.00,1.53
8014.00,1.53
8013.00,1.53
8012.00,1.53
8011.00,1.53
8010.00,1.53
8009.00,1.53
8008.00,1.53
8007.00,1.53
8006.00,1.53
8005.00,1.53
8004.00,1.54
8003.00,1.54
8002.00,1.54
8001.00,1.54
8000.00,1.54
7999.00,1.54
7998.00,1.54
7997.00,1.54
7996.00,1.54
7995.00,1.54
7994.00,1.54
7993.00,1.54
7992.00,1.54
7991.00,1.54
7990.00,1.54
7989.00,1.54
7988.00,1.54
7987.00,1.54
7986.00,1.54
7985.00,1.54
7984.00,1.54
7983.00,1.54
7982.00,1.54
7981.00,1.54
7980.00,1.54
7979.00,1.54
7978.00,1.54
7977.00,1.54
7976.00,1.54
7975.00,1.54
7974.00,1.54
7973.00,1.54
7972.00,1.55
7971.00,1.55
7970.00,1.55
7969.00,1.55
7968.00,1.55
7967.00,1.55
7966.00,1.55
7965.00,1.55
7964.00,1.55
7963.00,1.55
7962.00,1.55
7961.00,1.55
7960.00,1.55
7959.00,1.55
7958.00,1.55
7957.00,1.55
7956.00,1.55
7955.00,1.55
7954.00,1.55
7953.00,1.55
7952.00,1.55
7951.00,1.55
7950.00,1.55
7949.00,1.55
7948.00,1.55
7947.00,1.55
7946.00,1.55
7945.00,1.55
7944.00,1.55
7943.00,1.55
7942.00,1.55
7941.00,1.55
7940.00,1.55
7939.00,1.55
7938.00,1.55
7937.00,1.55
7936.00,1.55
7935.00,1.56
7934.00,1.56
7933.00,1.56
7932.00,1.56
7931.00,1.56
7930.00,1.56
7929.00,1.56
7928.00,1.56
7927.00,1.56
7926.00,1.56
7925.00,1.56
7924.00,1.56
7923.00,1.55
7922.00,1.55
7921.00,1.55
7920.00,1.55
7919.00,1.55
7918.00,1.55
7917.00,1.55
7916.00,1.55
7915.00,1.55
7914.00,1.55
7913.00,1.55
7912.00,1.55
7911.00,1.55
7910.00,1.55
7909.00,1.55
7908.00,1.55
7907.00,1.55
7906.00,1.55
7905.00,1.55
7904.00,1.56
7903.00,1.56
7902.00,1.56
7901.00,1.56
7900.00,1.56
7899.00,1.56
7898.00,1.56
7897.00,1.56
7896.00,1.56
7895.00,1.56
7894.00,1.56
7893.00,1.57
7892.00,1.57
7891.00,1.57
7890.00,1.57
7889.00,1.57
7888.00,1.57
7887.00,1.57
7886.00,1.57
7885.00,1.57
7884.00,1.57
7883.00,1.57
7882.00,1.57
7881.00,1.57
7880.00,1.57
7879.00,1.57
7878.00,1.57
7877.00,1.57
7876.00,1.57
7875.00,1.57
7874.00,1.57
7873.00,1.57
7872.00,1.57
7871.00,1.57
7870.00,1.57
7869.00,1.57
7868.00,1.57
7867.00,1.57
7866.00,1.57
7865.00,1.57
7864.00,1.57
7863.00,1.57
7862.00,1.57
7861.00,1.57
7860.00,1.57
7859.00,1.57
7858.00,1.57
7857.00,1.57
7856.00,1.57
7855.00,1.57
7854.00,1.57
7853.00,1.57
7852.00,1.57
7851.00,1.57
7850.00,1.57
7849.00,1.57
7848.00,1.57
7847.00,1.57
7846.00,1.57
7845.00,1.57
7844.00,1.57
7843.00,1.57
7842.00,1.57
7841.00,1.57
7840.00,1.57
7839.00,1.57
7838.00,1.57
7837.00,1.57
7836.00,1.57
7835.00,1.57
7834.00,1.57
7833.00,1.58
7832.00,1.58
7831.00,1.58
7830.00,1.58
7829.00,1.58
7828.00,1.58
7827.00,1.58
7826.00,1.58
7825.00,1.58
7824.00,1.57
7823.00,1.57
7822.00,1.57
7821.00,1.57
7820.00,1.57
7819.00,1.57
7818.00,1.57
7817.00,1.57
7816.00,1.57
7815.00,1.57
7814.00,1.57
7813.00,1.57
7812.00,1.57
7811.00,1.57
7810.00,1.57
7809.00,1.57
7808.00,1.57
7807.00,1.57
7806.00,1.57
7805.00,1.57
7804.00,1.57
7803.00,1.57
7802.00,1.58
7801.00,1.58
7800.00,1.58
7799.00,1.58
7798.00,1.58
7797.00,1.58
7796.00,1.58
7795.00,1.58
7794.00,1.58
7793.00,1.58
7792.00,1.58
7791.00,1.58
7790.00,1.58
7789.00,1.58
7788.00,1.58
7787.00,1.58
7786.00,1.58
7785.00,1.58
7784.00,1.58
7783.00,1.58
7782.00,1.58
7781.00,1.58
7780.00,1.58
7779.00,1.58
7778.00,1.58
7777.00,1.58
7776.00,1.58
7775.00,1.58
7774.00,1.58
7773.00,1.58
7772.00,1.58
7771.00,1.58
7770.00,1.58
7769.00,1.58
7768.00,1.58
7767.00,1.58
7766.00,1.58
7765.00,1.58
7764.00,1.58
7763.00,1.58
7762.00,1.58
7761.00,1.58
7760.00,1.58
7759.00,1.58
7758.00,1.58
7757.00,1.58
7756.00,1.58
7755.00,1.58
7754.00,1.58
7753.00,1.58
7752.00,1.58
7751.00,1.58
7750.00,1.58
7749.00,1.58
7748.00,1.58
7747.00,1.58
7746.00,1.58
7745.00,1.58
7744.00,1.58
7743.00,1.58
7742.00,1.58
7741.00,1.58
7740.00,1.58
7739.00,1.58
7738.00,1.58
7737.00,1.58
7736.00,1.58
7735.00,1.58
7734.00,1.58
7733.00,1.58
7732.00,1.58
7731.00,1.58
7730.00,1.58
7729.00,1.58
7728.00,1.58
7727.00,1.58
7726.00,1.58
7725.00,1.58
7724.00,1.58
7723.00,1.58
7722.00,1.58
7721.00,1.58
7720.00,1.58
7719.00,1.58
7718.00,1.59
7717.00,1.59
7716.00,1.59
7715.00,1.59
7714.00,1.59
7713.00,1.59
7712.00,1.59
7711.00,1.59
7710.00,1.59
7709.00,1.59
7708.00,1.59
7707.00,1.59
7706.00,1.59
7705.00,1.59
7704.00,1.58
7703.00,1.58
7702.00,1.58
7701.00,1.58
7700.00,1.58
7699.00,1.58
7698.00,1.58
7697.00,1.58
7696.00,1.58
7695.00,1.58
7694.00,1.58
7693.00,1.58
7692.00,1.58
7691.00,1.58
7690.00,1.58
7689.00,1.58
7688.00,1.58
7687.00,1.58
7686.00,1.58
7685.00,1.58
7684.00,1.58
7683.00,1.58
7682.00,1.58
7681.00,1.58
7680.00,1.58
7679.00,1.58
7678.00,1.58
7677.00,1.58
7676.00,1.58
7675.00,1.58
7674.00,1.58
7673.00,1.58
7672.00,1.58
7671.00,1.58
7670.00,1.58
7669.00,1.58
7668.00,1.58
7667.00,1.58
7666.00,1.58
7665.00,1.58
7664.00,1.58
7663.00,1.58
7662.00,1.58
7661.00,1.58
7660.00,1.58
7659.00,1.58
7658.00,1.58
7657.00,1.58
7656.00,1.58
7655.00,1.58
7654.00,1.58
7653.00,1.58
7652.00,1.58
7651.00,1.58
7650.00,1.58
7649.00,1.58
7648.00,1.58
7647.00,1.58
7646.00,1.58
7645.00,1.58
7644.00,1.58
7643.00,1.58
7642.00,1.59
7641.00,1.59
7640.00,1.59
7639.00,1.59
7638.00,1.59
7637.00,1.59
7636.00,1.59
7635.00,1.59
7634.00,1.59
7633.00,1.59
7632.00,1.59
7631.00,1.59
7630.00,1.59
7629.00,1.58
7628.00,1.58
7627.00,1.58
7626.00,1.58
7625.00,1.58
7624.00,1.58
7623.00,1.58
7622.00,1.58
7621.00,1.58
7620.00,1.58
7619.00,1.58
7618.00,1.58
7617.00,1.58
7616.00,1.58
7615.00,1.58
7614.00,1.58
7613.00,1.58
7612.00,1.58
7611.00,1.58
7610.00,1.58
7609.00,1.58
7608.00,1.58
7607.00,1.58
7606.00,1.58
7605.00,1.58
7604.00,1.58
7603.00,1.58
7602.00,1.58
7601.00,1.58
7600.00,1.58
7599.00,1.58
7598.00,1.58
7597.00,1.58
7596.00,1.58
7595.00,1.58
7594.00,1.58
7593.00,1.58
7592.00,1.58
7591.00,1.57
7590.00,1.57
7589.00,1.57
7588.00,1.57
7587.00,1.57
7586.00,1.57
7585.00,1.57
7584.00,1.57
7583.00,1.57
7582.00,1.57
7581.00,1.58
7580.00,1.58
7579.00,1.58
7578.00,1.58
7577.00,1.58
7576.00,1.58
7575.00,1.58
7574.00,1.58
7573.00,1.58
7572.00,1.58
7571.00,1.58
7570.00,1.58
7569.00,1.58
7568.00,1.58
7567.00,1.58
7566.00,1.58
7565.00,1.58
7564.00,1.58
7563.00,1.58
7562.00,1.58
7561.00,1.58
7560.00,1.58
7559.00,1.58
7558.00,1.58
7557.00,1.58
7556.00,1.58
7555.00,1.58
7554.00,1.58
7553.00,1.57
7552.00,1.57
7551.00,1.57
7550.00,1.57
7549.00,1.57
7548.00,1.57
7547.00,1.57
7546.00,1.57
7545.00,1.57
7544.00,1.57
7543.00,1.57
7542.00,1.57
7541.00,1.57
7540.00,1.57
7539.00,1.57
7538.00,1.57
7537.00,1.57
7536.00,1.56
7535.00,1.56
7534.00,1.56
7533.00,1.56
7532.00,1.56
7531.00,1.56
7530.00,1.56
7529.00,1.56
7528.00,1.56
7527.00,1.56
7526.00,1.56
7525.00,1.56
7524.00,1.56
7523.00,1.56
7522.00,1.56
7521.00,1.56
7520.00,1.56
7519.00,1.56
7518.00,1.56
7517.00,1.56
7516.00,1.56
7515.00,1.56
7514.00,1.56
7513.00,1.56
7512.00,1.56
7511.00,1.56
7510.00,1.56
7509.00,1.56
7508.00,1.55
7507.00,1.55
7506.00,1.55
7505.00,1.55
7504.00,1.55
7503.00,1.55
7502.00,1.55
7501.00,1.55
7500.00,1.55
7499.00,1.55
7498.00,1.55
7497.00,1.55
7496.00,1.55
7495.00,1.55
7494.00,1.54
7493.00,1.54
7492.00,1.54
7491.00,1.54
7490.00,1.54
7489.00,1.54
7488.00,1.54
7487.00,1.54
7486.00,1.54
7485.00,1.54
7484.00,1.54
7483.00,1.53
7482.00,1.53
7481.00,1.53
7480.00,1.53
7479.00,1.53
7478.00,1.53
7477.00,1.53
7476.00,1.53
7475.00,1.53
7474.00,1.52
7473.00,1.52
7472.00,1.52
7471.00,1.52
7470.00,1.52
7469.00,1.52
7468.00,1.52
7467.00,1.52
7466.00,1.52
7465.00,1.52
7464.00,1.52
7463.00,1.52
7462.00,1.52
7461.00,1.52
7460.00,1.52
7459.00,1.52
7458.00,1.52
7457.00,1.52
7456.00,1.52
7455.00,1.52
7454.00,1.52
7453.00,1.52
7452.00,1.52
7451.00,1.52
7450.00,1.52
7449.00,1.52
7448.00,1.52
7447.00,1.51
7446.00,1.51
7445.00,1.51
7444.00,1.51
7443.00,1.51
7442.00,1.51
7441.00,1.51
7440.00,1.51
7439.00,1.51
7438.00,1.51
7437.00,1.51
7436.00,1.51
7435.00,1.50
7434.00,1.50
7433.00,1.50
7432.00,1.50
7431.00,1.50
7430.00,1.50
7429.00,1.50
7428.00,1.50
7427.00,1.50
7426.00,1.50
7425.00,1.50
7424.00,1.49
7423.00,1.49
7422.00,1.49
7421.00,1.49
7420.00,1.49
7419.00,1.49
7418.00,1.49
7417.00,1.49
7416.00,1.49
7415.00,1.48
7414.00,1.48
7413.00,1.48
7412.00,1.48
7411.00,1.48
7410.00,1.48
7409.00,1.48
7408.00,1.48
7407.00,1.47
7406.00,1.47
7405.00,1.47
7404.00,1.47
7403.00,1.47
7402.00,1.47
7401.00,1.47
7400.00,1.46
7399.00,1.46
7398.00,1.46
7397.00,1.46
7396.00,1.46
7395.00,1.46
7394.00,1.46
7393.00,1.45
7392.00,1.45
7391.00,1.45
7390.00,1.45
7389.00,1.45
7388.00,1.45
7387.00,1.45
7386.00,1.45
7385.00,1.45
7384.00,1.45
7383.00,1.45
7382.00,1.45
7381.00,1.45
7380.00,1.45
7379.00,1.45
7378.00,1.45
7377.00,1.45
7376.00,1.45
7375.00,1.45
7374.00,1.45
7373.00,1.45
7372.00,1.45
7371.00,1.45
7370.00,1.45
7369.00,1.45
7368.00,1.45
7367.00,1.45
7366.00,1.45
7365.00,1.45
7364.00,1.45
7363.00,1.45
7362.00,1.45
7361.00,1.45
7360.00,1.45
7359.00,1.45
7358.00,1.45
7357.00,1.45
7356.00,1.45
7355.00,1.45
7354.00,1.45
7353.00,1.45
7352.00,1.45
7351.00,1.44
7350.00,1.44
7349.00,1.44
7348.00,1.44
7347.00,1.44
7346.00,1.44
7345.00,1.44
7344.00,1.44
7343.00,1.44
7342.00,1.44
7341.00,1.43
7340.00,1.43
7339.00,1.43
7338.00,1.43
7337.00,1.43
7336.00,1.43
7335.00,1.43
7334.00,1.43
7333.00,1.43
7332.00,1.43
7331.00,1.43
7330.00,1.43
7329.00,1.43
7328.00,1.43
7327.00,1.43
7326.00,1.43
7325.00,1.43
7324.00,1.43
7323.00,1.43
7322.00,1.43
7321.00,1.43
7320.00,1.43
7319.00,1.43
7318.00,1.43
7317.00,1.42
7316.00,1.42
7315.00,1.42
7314.00,1.42
7313.00,1.42
7312.00,1.42
7311.00,1.42
7310.00,1.42
7309.00,1.41
7308.00,1.41
7307.00,1.41
7306.00,1.41
7305.00,1.41
7304.00,1.40
7303.00,1.40
7302.00,1.40
7301.00,1.40
7300.00,1.40
7299.00,1.40
7298.00,1.39
7297.00,1.39
7296.00,1.39
7295.00,1.39
7294.00,1.39
7293.00,1.39
7292.00,1.39
7291.00,1.38
7290.00,1.38
7289.00,1.38
7288.00,1.38
7287.00,1.38
7286.00,1.38
7285.00,1.37
7284.00,1.37
7283.00,1.37
7282.00,1.37
7281.00,1.37
7280.00,1.37
7279.00,1.37
7278.00,1.36
7277.00,1.36
7276.00,1.36
7275.00,1.36
7274.00,1.36
7273.00,1.36
7272.00,1.36
7271.00,1.36
7270.00,1.36
7269.00,1.36
7268.00,1.35
7267.00,1.35
7266.00,1.35
7265.00,1.35
7264.00,1.35
7263.00,1.35
7262.00,1.35
7261.00,1.34
7260.00,1.34
7259.00,1.34
7258.00,1.34
7257.00,1.34
7256.00,1.33
7255.00,1.33
7254.00,1.33
7253.00,1.32
7252.00,1.32
7251.00,1.32
7250.00,1.32
7249.00,1.31
7248.00,1.31
7247.00,1.31
7246.00,1.30
7245.00,1.30
7244.00,1.30
7243.00,1.29
7242.00,1.29
7241.00,1.29
7240.00,1.28
7239.00,1.28
7238.00,1.28
7237.00,1.27
7236.00,1.27
7235.00,1.26
7234.00,1.26
7233.00,1.26
7232.00,1.25
7231.00,1.25
7230.00,1.25
7229.00,1.24
7228.00,1.24
7227.00,1.23
7226.00,1.23
7225.00,1.22
7224.00,1.22
7223.00,1.22
7222.00,1.21
7221.00,1.21
7220.00,1.20
7219.00,1.20
7218.00,1.19
7217.00,1.19
7216.00,1.19
7215.00,1.18
7214.00,1.18
7213.00,1.17
7212.00,1.17
7211.00,1.16
7210.00,1.16
7209.00,1.15
7208.00,1.15
7207.00,1.14
7206.00,1.14
7205.00,1.13
7204.00,1.13
7203.00,1.12
7202.00,1.12
7201.00,1.11
7200.00,1.11
7199.00,1.10
7198.00,1.10
7197.00,1.10
7196.00,1.09
7195.00,1.09
7194.00,1.08
7193.00,1.08
7192.00,1.07
7191.00,1.07
7190.00,1.07
7189.00,1.06
7188.00,1.06
7187.00,1.05
7186.00,1.05
7185.00,1.04
7184.00,1.04
7183.00,1.04
7182.00,1.03
7181.00,1.03
7180.00,1.02
7179.00,1.02
7178.00,1.01
7177.00,1.01
7176.00,1.01
7175.00,1.00
7174.00,1.00
7173.00,0.99
7172.00,0.99
7171.00,0.99
7170.00,0.98
7169.00,0.98
7168.00,0.97
7167.00,0.97
7166.00,0.96
7165.00,0.96
7164.00,0.96
7163.00,0.95
7162.00,0.95
7161.00,0.95
7160.00,0.94
7159.00,0.94
7158.00,0.94
7157.00,0.93
7156.00,0.93
7155.00,0.93
7154.00,0.92
7153.00,0.92
7152.00,0.92
7151.00,0.92
7150.00,0.91
7149.00,0.91
7148.00,0.91
7147.00,0.91
7146.00,0.90
7145.00,0.90
7144.00,0.90
7143.00,0.90
7142.00,0.89
7141.00,0.89
7140.00,0.89
7139.00,0.89
7138.00,0.88
7137.00,0.88
7136.00,0.88
7135.00,0.87
7134.00,0.87
7133.00,0.87
7132.00,0.86
7131.00,0.86
7130.00,0.86
7129.00,0.85
7128.00,0.85
7127.00,0.85
7126.00,0.84
7125.00,0.84
7124.00,0.84
7123.00,0.83
7122.00,0.83
7121.00,0.83
7120.00,0.82
7119.00,0.82
7118.00,0.82
7117.00,0.81
7116.00,0.81
7115.00,0.81
7114.00,0.80
7113.00,0.80
7112.00,0.80
7111.00,0.79
7110.00,0.79
7109.00,0.79
7108.00,0.78
7107.00,0.78
7106.00,0.78
7105.00,0.78
7104.00,0.77
7103.00,0.77
7102.00,0.77
7101.00,0.77
7100.00,0.77
7099.00,0.76
7098.00,0.76
7097.00,0.76
7096.00,0.76
7095.00,0.76
7094.00,0.76
7093.00,0.76
7092.00,0.75
7091.00,0.75
7090.00,0.75
7089.00,0.75
7088.00,0.75
7087.00,0.75
7086.00,0.75
7085.00,0.74
7084.00,0.74
7083.00,0.74
7082.00,0.74
7081.00,0.74
7080.00,0.73
7079.00,0.73
7078.00,0.73
7077.00,0.73
7076.00,0.73
7075.00,0.72
7074.00,0.72
7073.00,0.72
7072.00,0.72
7071.00,0.72
7070.00,0.71
7069.00,0.71
7068.00,0.71
7067.00,0.71
7066.00,0.70
7065.00,0.70
7064.00,0.70
7063.00,0.70
7062.00,0.70
7061.00,0.70
7060.00,0.69
7059.00,0.69
7058.00,0.69
7057.00,0.69
7056.00,0.69
7055.00,0.69
7054.00,0.68
7053.00,0.68
7052.00,0.68
7051.00,0.68
7050.00,0.68
7049.00,0.68
7048.00,0.68
7047.00,0.68
7046.00,0.67
7045.00,0.67
7044.00,0.67
7043.00,0.67
7042.00,0.67
7041.00,0.67
7040.00,0.67
7039.00,0.67
7038.00,0.67
7037.00,0.67
7036.00,0.67
7035.00,0.67
7034.00,0.67
7033.00,0.67
7032.00,0.67
7031.00,0.66
7030.00,0.66
7029.00,0.66
7028.00,0.66
7027.00,0.66
7026.00,0.66
7025.00,0.66
7024.00,0.66
7023.00,0.66
7022.00,0.66
7021.00,0.66
7020.00,0.66
7019.00,0.66
7018.00,0.66
7017.00,0.66
7016.00,0.66
7015.00,0.65
7014.00,0.65
7013.00,0.65
7012.00,0.65
7011.00,0.65
7010.00,0.65
7009.00,0.65
7008.00,0.64
7007.00,0.64
7006.00,0.64
7005.00,0.64
7004.00,0.64
7003.00,0.64
7002.00,0.64
7001.00,0.64
7000.00,0.64
6999.00,0.64
6998.00,0.63
6997.00,0.63
6996.00,0.63
6995.00,0.63
6994.00,0.64
6993.00,0.64
6992.00,0.64
6991.00,0.64
6990.00,0.64
6989.00,0.64
6988.00,0.64
6987.00,0.64
6986.00,0.64
6985.00,0.64
6984.00,0.64
6983.00,0.64
6982.00,0.64
6981.00,0.64
6980.00,0.64
6979.00,0.64
6978.00,0.64
6977.00,0.64
6976.00,0.63
6975.00,0.63
6974.00,0.63
6973.00,0.63
6972.00,0.63
6971.00,0.63
6970.00,0.63
6969.00,0.63
6968.00,0.63
6967.00,0.63
6966.00,0.63
6965.00,0.63
6964.00,0.63
6963.00,0.63
6962.00,0.63
6961.00,0.63
6960.00,0.63
6959.00,0.63
6958.00,0.63
6957.00,0.62
6956.00,0.62
6955.00,0.62
6954.00,0.62
6953.00,0.62
6952.00,0.62
6951.00,0.62
6950.00,0.62
6949.00,0.62
6948.00,0.62
6947.00,0.62
6946.00,0.62
6945.00,0.62
6944.00,0.62
6943.00,0.62
6942.00,0.62
6941.00,0.62
6940.00,0.62
6939.00,0.62
6938.00,0.62
6937.00,0.62
6936.00,0.62
6935.00,0.62
6934.00,0.62
6933.00,0.62
6932.00,0.62
6931.00,0.62
6930.00,0.62
6929.00,0.62
6928.00,0.62
6927.00,0.62
6926.00,0.62
6925.00,0.62
6924.00,0.62
6923.00,0.62
6922.00,0.62
6921.00,0.62
6920.00,0.62
6919.00,0.62
6918.00,0.62
6917.00,0.62
6916.00,0.62
6915.00,0.62
6914.00,0.62
6913.00,0.62
6912.00,0.62
6911.00,0.62
6910.00,0.62
6909.00,0.62
6908.00,0.62
6907.00,0.62
6906.00,0.62
6905.00,0.62
6904.00,0.62
6903.00,0.62
6902.00,0.61
6901.00,0.61
6900.00,0.61
6899.00,0.61
6898.00,0.61
6897.00,0.61
6896.00,0.61
6895.00,0.61
6894.00,0.61
6893.00,0.61
6892.00,0.61
6891.00,0.61
6890.00,0.61
6889.00,0.61
6888.00,0.61
6887.00,0.61
6886.00,0.61
6885.00,0.61
6884.00,0.61
6883.00,0.61
6882.00,0.61
6881.00,0.61
6880.00,0.61
6879.00,0.61
6878.00,0.61
6877.00,0.61
6876.00,0.61
6875.00,0.61
6874.00,0.61
6873.00,0.61
6872.00,0.61
6871.00,0.61
6870.00,0.61
6869.00,0.61
6868.00,0.61
6867.00,0.61
6866.00,0.61
6865.00,0.61
6864.00,0.61
6863.00,0.61
6862.00,0.61
6861.00,0.61
6860.00,0.61
6859.00,0.61
6858.00,0.61
6857.00,0.61
6856.00,0.61
6855.00,0.61
6854.00,0.61
6853.00,0.61
6852.00,0.61
6851.00,0.61
6850.00,0.61
6849.00,0.62
6848.00,0.62
6847.00,0.62
6846.00,0.62
6845.00,0.62
6844.00,0.62
6843.00,0.62
6842.00,0.62
6841.00,0.62
6840.00,0.62
6839.00,0.62
6838.00,0.62
6837.00,0.62
6836.00,0.62
6835.00,0.62
6834.00,0.62
6833.00,0.62
6832.00,0.62
6831.00,0.62
6830.00,0.62
6829.00,0.62
6828.00,0.62
6827.00,0.62
6826.00,0.62
6825.00,0.63
6824.00,0.63
6823.00,0.63
6822.00,0.63
6821.00,0.63
6820.00,0.63
6819.00,0.63
6818.00,0.63
6817.00,0.63
6816.00,0.63
6815.00,0.63
6814.00,0.63
6813.00,0.63
6812.00,0.63
6811.00,0.63
6810.00,0.63
6809.00,0.63
6808.00,0.63
6807.00,0.63
6806.00,0.63
6805.00,0.63
6804.00,0.63
6803.00,0.63
6802.00,0.63
6801.00,0.63
6800.00,0.63
6799.00,0.63
6798.00,0.63
6797.00,0.63
6796.00,0.63
6795.00,0.64
6794.00,0.64
6793.00,0.64
6792.00,0.64
6791.00,0.64
6790.00,0.64
6789.00,0.64
6788.00,0.64
6787.00,0.64
6786.00,0.64
6785.00,0.64
6784.00,0.64
6783.00,0.64
6782.00,0.64
6781.00,0.65
6780.00,0.65
6779.00,0.65
6778.00,0.65
6777.00,0.65
6776.00,0.65
6775.00,0.65
6774.00,0.65
6773.00,0.65
6772.00,0.65
6771.00,0.65
6770.00,0.65
6769.00,0.65
6768.00,0.65
6767.00,0.65
6766.00,0.65
6765.00,0.65
6764.00,0.65
6763.00,0.66
6762.00,0.66
6761.00,0.66
6760.00,0.66
6759.00,0.66
6758.00,0.66
6757.00,0.66
6756.00,0.66
6755.00,0.66
6754.00,0.66
6753.00,0.66
6752.00,0.66
6751.00,0.66
6750.00,0.66
6749.00,0.66
6748.00,0.66
6747.00,0.66
6746.00,0.66
6745.00,0.66
6744.00,0.66
6743.00,0.66
6742.00,0.67
6741.00,0.67
6740.00,0.67
6739.00,0.67
6738.00,0.67
6737.00,0.67
6736.00,0.67
6735.00,0.67
6734.00,0.67
6733.00,0.67
6732.00,0.68
6731.00,0.68
6730.00,0.68
6729.00,0.68
6728.00,0.68
6727.00,0.68
6726.00,0.68
6725.00,0.68
6724.00,0.69
6723.00,0.69
6722.00,0.69
6721.00,0.69
6720.00,0.69
6719.00,0.69
6718.00,0.69
6717.00,0.69
6716.00,0.69
6715.00,0.69
6714.00,0.69
6713.00,0.69
6712.00,0.69
6711.00,0.69
6710.00,0.69
6709.00,0.70
6708.00,0.70
6707.00,0.70
6706.00,0.70
6705.00,0.70
6704.00,0.70
6703.00,0.70
6702.00,0.70
6701.00,0.70
6700.00,0.70
6699.00,0.70
6698.00,0.70
6697.00,0.70
6696.00,0.70
6695.00,0.71
6694.00,0.71
6693.00,0.71
6692.00,0.71
6691.00,0.71
6690.00,0.71
6689.00,0.71
6688.00,0.71
6687.00,0.71
6686.00,0.71
6685.00,0.72
6684.00,0.72
6683.00,0.72
6682.00,0.72
6681.00,0.72
6680.00,0.72
6679.00,0.72
6678.00,0.72
6677.00,0.72
6676.00,0.73
6675.00,0.73
6674.00,0.73
6673.00,0.73
6672.00,0.73
6671.00,0.73
6670.00,0.73
6669.00,0.73
6668.00,0.73
6667.00,0.73
6666.00,0.74
6665.00,0.74
6664.00,0.74
6663.00,0.74
6662.00,0.74
6661.00,0.74
6660.00,0.74
6659.00,0.74
6658.00,0.74
6657.00,0.75
6656.00,0.75
6655.00,0.75
6654.00,0.75
6653.00,0.75
6652.00,0.75
6651.00,0.75
6650.00,0.75
6649.00,0.76
6648.00,0.76
6647.00,0.76
6646.00,0.76
6645.00,0.76
6644.00,0.76
6643.00,0.76
6642.00,0.76
6641.00,0.77
6640.00,0.77
6639.00,0.77
6638.00,0.77
6637.00,0.77
6636.00,0.77
6635.00,0.77
6634.00,0.77
6633.00,0.77
6632.00,0.77
6631.00,0.77
6630.00,0.78
6629.00,0.78
6628.00,0.78
6627.00,0.78
6626.00,0.78
6625.00,0.78
6624.00,0.78
6623.00,0.78
6622.00,0.78
6621.00,0.78
6620.00,0.78
6619.00,0.78
6618.00,0.79
6617.00,0.79
6616.00,0.79
6615.00,0.79
6614.00,0.79
6613.00,0.79
6612.00,0.79
6611.00,0.79
6610.00,0.79
6609.00,0.80
6608.00,0.80
6607.00,0.80
6606.00,0.80
6605.00,0.80
6604.00,0.80
6603.00,0.80
6602.00,0.81
6601.00,0.81
6600.00,0.81
6599.00,0.81
6598.00,0.81
6597.00,0.81
6596.00,0.81
6595.00,0.81
6594.00,0.82
6593.00,0.82
6592.00,0.82
6591.00,0.82
6590.00,0.82
6589.00,0.82
6588.00,0.82
6587.00,0.82
6586.00,0.82
6585.00,0.82
6584.00,0.82
6583.00,0.83
6582.00,0.83
6581.00,0.83
6580.00,0.83
6579.00,0.83
6578.00,0.83
6577.00,0.83
6576.00,0.83
6575.00,0.83
6574.00,0.84
6573.00,0.84
6572.00,0.84
6571.00,0.84
6570.00,0.84
6569.00,0.84
6568.00,0.84
6567.00,0.84
6566.00,0.84
6565.00,0.84
6564.00,0.84
6563.00,0.85
6562.00,0.85
6561.00,0.85
6560.00,0.85
6559.00,0.85
6558.00,0.85
6557.00,0.85
6556.00,0.85
6555.00,0.85
6554.00,0.85
6553.00,0.85
6552.00,0.85
6551.00,0.86
6550.00,0.86
6549.00,0.86
6548.00,0.86
6547.00,0.86
6546.00,0.86
6545.00,0.86
6544.00,0.86
6543.00,0.86
6542.00,0.87
6541.00,0.87
6540.00,0.87
6539.00,0.87
6538.00,0.87
6537.00,0.87
6536.00,0.87
6535.00,0.88
6534.00,0.88
6533.00,0.88
6532.00,0.88
6531.00,0.88
6530.00,0.88
6529.00,0.88
6528.00,0.89
6527.00,0.89
6526.00,0.89
6525.00,0.89
6524.00,0.89
6523.00,0.89
6522.00,0.89
6521.00,0.89
6520.00,0.89
6519.00,0.89
6518.00,0.89
6517.00,0.90
6516.00,0.90
6515.00,0.90
6514.00,0.90
6513.00,0.90
6512.00,0.90
6511.00,0.90
6510.00,0.90
6509.00,0.91
6508.00,0.91
6507.00,0.91
6506.00,0.91
6505.00,0.91
6504.00,0.91
6503.00,0.91
6502.00,0.92
6501.00,0.92
6500.00,0.92
6499.00,0.92
6498.00,0.92
6497.00,0.92
6496.00,0.92
6495.00,0.92
6494.00,0.92
6493.00,0.92
6492.00,0.92
6491.00,0.93
6490.00,0.93
6489.00,0.93
6488.00,0.93
6487.00,0.93
6486.00,0.93
6485.00,0.93
6484.00,0.93
6483.00,0.93
6482.00,0.93
6481.00,0.94
6480.00,0.94
6479.00,0.94
6478.00,0.94
6477.00,0.94
6476.00,0.94
6475.00,0.94
6474.00,0.94
6473.00,0.94
6472.00,0.94
6471.00,0.94
6470.00,0.94
6469.00,0.94
6468.00,0.94
6467.00,0.94
6466.00,0.94
6465.00,0.94
6464.00,0.94
6463.00,0.94
6462.00,0.94
6461.00,0.94
6460.00,0.94
6459.00,0.94
6458.00,0.94
6457.00,0.94
6456.00,0.94
6455.00,0.95
6454.00,0.95
6453.00,0.95
6452.00,0.95
6451.00,0.95
6450.00,0.95
6449.00,0.95
6448.00,0.95
6447.00,0.96
6446.00,0.96
6445.00,0.96
6444.00,0.96
6443.00,0.96
6442.00,0.96
6441.00,0.96
6440.00,0.96
6439.00,0.97
6438.00,0.97
6437.00,0.97
6436.00,0.97
6435.00,0.97
6434.00,0.97
6433.00,0.97
6432.00,0.97
6431.00,0.97
6430.00,0.97
6429.00,0.97
6428.00,0.97
6427.00,0.98
6426.00,0.98
6425.00,0.98
6424.00,0.98
6423.00,0.98
6422.00,0.98
6421.00,0.98
6420.00,0.98
6419.00,0.98
6418.00,0.98
6417.00,0.98
6416.00,0.98
6415.00,0.98
6414.00,0.98
6413.00,0.98
6412.00,0.98
6411.00,0.98
6410.00,0.99
6409.00,0.99
6408.00,0.99
6407.00,0.99
6406.00,0.99
6405.00,0.99
6404.00,0.99
6403.00,0.99
6402.00,0.99
6401.00,0.99
6400.00,0.99
6399.00,0.99
6398.00,1.00
6397.00,1.00
6396.00,1.00
6395.00,1.00
6394.00,1.00
6393.00,1.00
6392.00,1.00
6391.00,1.00
6390.00,1.00
6389.00,1.00
6388.00,1.00
6387.00,1.00
6386.00,1.00
6385.00,1.00
6384.00,1.01
6383.00,1.01
6382.00,1.01
6381.00,1.01
6380.00,1.01
6379.00,1.01
6378.00,1.01
6377.00,1.01
6376.00,1.01
6375.00,1.02
6374.00,1.02
6373.00,1.02
6372.00,1.02
6371.00,1.02
6370.00,1.02
6369.00,1.02
6368.00,1.02
6367.00,1.02
6366.00,1.02
6365.00,1.03
6364.00,1.03
6363.00,1.03
6362.00,1.03
6361.00,1.03
6360.00,1.03
6359.00,1.03
6358.00,1.03
6357.00,1.03
6356.00,1.04
6355.00,1.04
6354.00,1.04
6353.00,1.04
6352.00,1.04
6351.00,1.04
6350.00,1.04
6349.00,1.04
6348.00,1.04
6347.00,1.04
6346.00,1.05
6345.00,1.05
6344.00,1.05
6343.00,1.05
6342.00,1.05
6341.00,1.05
6340.00,1.05
6339.00,1.05
6338.00,1.06
6337.00,1.06
6336.00,1.06
6335.00,1.06
6334.00,1.06
6333.00,1.06
6332.00,1.06
6331.00,1.07
6330.00,1.07
6329.00,1.07
6328.00,1.07
6327.00,1.07
6326.00,1.07
6325.00,1.08
6324.00,1.08
6323.00,1.08
6322.00,1.08
6321.00,1.08
6320.00,1.08
6319.00,1.08
6318.00,1.08
6317.00,1.09
6316.00,1.09
6315.00,1.09
6314.00,1.09
6313.00,1.09
6312.00,1.09
6311.00,1.09
6310.00,1.09
6309.00,1.09
6308.00,1.09
6307.00,1.09
6306.00,1.09
6305.00,1.09
6304.00,1.10
6303.00,1.10
6302.00,1.10
6301.00,1.10
6300.00,1.10
6299.00,1.10
6298.00,1.10
6297.00,1.10
6296.00,1.11
6295.00,1.11
6294.00,1.11
6293.00,1.11
6292.00,1.11
6291.00,1.12
6290.00,1.12
6289.00,1.12
6288.00,1.12
6287.00,1.12
6286.00,1.12
6285.00,1.13
6284.00,1.13
6283.00,1.13
6282.00,1.13
6281.00,1.13
6280.00,1.13
6279.00,1.14
6278.00,1.14
6277.00,1.14
6276.00,1.14
6275.00,1.14
6274.00,1.14
6273.00,1.14
6272.00,1.15
6271.00,1.15
6270.00,1.15
6269.00,1.15
6268.00,1.15
6267.00,1.15
6266.00,1.15
6265.00,1.15
6264.00,1.16
6263.00,1.16
6262.00,1.16
6261.00,1.16
6260.00,1.16
6259.00,1.16
6258.00,1.17
6257.00,1.17
6256.00,1.17
6255.00,1.17
6254.00,1.17
6253.00,1.17
6252.00,1.17
6251.00,1.18
6250.00,1.18
6249.00,1.18
6248.00,1.18
6247.00,1.18
6246.00,1.18
6245.00,1.18
6244.00,1.18
6243.00,1.19
6242.00,1.19
6241.00,1.19
6240.00,1.19
6239.00,1.19
6238.00,1.19
6237.00,1.19
6236.00,1.20
6235.00,1.20
6234.00,1.20
6233.00,1.20
6232.00,1.20
6231.00,1.21
6230.00,1.21
6229.00,1.21
6228.00,1.21
6227.00,1.21
6226.00,1.21
6225.00,1.22
6224.00,1.22
6223.00,1.22
6222.00,1.22
6221.00,1.22
6220.00,1.22
6219.00,1.22
6218.00,1.22
6217.00,1.23
6216.00,1.23
6215.00,1.23
6214.00,1.23
6213.00,1.23
6212.00,1.23
6211.00,1.23
6210.00,1.23
6209.00,1.23
6208.00,1.23
6207.00,1.24
6206.00,1.24
6205.00,1.24
6204.00,1.24
6203.00,1.24
6202.00,1.24
6201.00,1.24
6200.00,1.25
6199.00,1.25
6198.00,1.25
6197.00,1.25
6196.00,1.25
6195.00,1.26
6194.00,1.26
6193.00,1.26
6192.00,1.26
6191.00,1.27
6190.00,1.27
6189.00,1.27
6188.00,1.27
6187.00,1.27
6186.00,1.27
6185.00,1.28
6184.00,1.28
6183.00,1.28
6182.00,1.28
6181.00,1.28
6180.00,1.28
6179.00,1.29
6178.00,1.29
6177.00,1.29
6176.00,1.29
6175.00,1.29
6174.00,1.29
6173.00,1.29
6172.00,1.30
6171.00,1.30
6170.00,1.30
6169.00,1.30
6168.00,1.30
6167.00,1.30
6166.00,1.31
6165.00,1.31
6164.00,1.31
6163.00,1.31
6162.00,1.31
6161.00,1.32
6160.00,1.32
6159.00,1.32
6158.00,1.32
6157.00,1.32
6156.00,1.32
6155.00,1.33
6154.00,1.33
6153.00,1.33
6152.00,1.33
6151.00,1.33
6150.00,1.34
6149.00,1.34
6148.00,1.34
6147.00,1.34
6146.00,1.34
6145.00,1.35
6144.00,1.35
6143.00,1.35
6142.00,1.35
6141.00,1.35
6140.00,1.36
6139.00,1.36
6138.00,1.36
6137.00,1.36
6136.00,1.36
6135.00,1.36
6134.00,1.36
6133.00,1.37
6132.00,1.37
6131.00,1.37
6130.00,1.37
6129.00,1.37
6128.00,1.37
6127.00,1.37
6126.00,1.37
6125.00,1.38
6124.00,1.38
6123.00,1.38
6122.00,1.38
6121.00,1.38
6120.00,1.38
6119.00,1.39
6118.00,1.39
6117.00,1.39
6116.00,1.39
6115.00,1.39
6114.00,1.39
6113.00,1.40
6112.00,1.40
6111.00,1.40
6110.00,1.40
6109.00,1.40
6108.00,1.40
6107.00,1.41
6106.00,1.41
6105.00,1.41
6104.00,1.41
6103.00,1.41
6102.00,1.41
6101.00,1.42
6100.00,1.42
6099.00,1.42
6098.00,1.42
6097.00,1.42
6096.00,1.42
6095.00,1.42
6094.00,1.43
6093.00,1.43
6092.00,1.43
6091.00,1.43
6090.00,1.43
6089.00,1.43
6088.00,1.43
6087.00,1.43
6086.00,1.43
6085.00,1.44
6084.00,1.44
6083.00,1.44
6082.00,1.44
6081.00,1.44
6080.00,1.44
6079.00,1.44
6078.00,1.45
6077.00,1.45
6076.00,1.45
6075.00,1.45
6074.00,1.45
6073.00,1.46
6072.00,1.46
6071.00,1.46
6070.00,1.46
6069.00,1.46
6068.00,1.46
6067.00,1.46
6066.00,1.47
6065.00,1.47
6064.00,1.47
6063.00,1.47
6062.00,1.47
6061.00,1.47
6060.00,1.47
6059.00,1.47
6058.00,1.47
6057.00,1.48
6056.00,1.48
6055.00,1.48
6054.00,1.48
6053.00,1.48
6052.00,1.48
6051.00,1.48
6050.00,1.48
6049.00,1.48
6048.00,1.48
6047.00,1.48
6046.00,1.49
6045.00,1.49
6044.00,1.49
6043.00,1.49
6042.00,1.49
6041.00,1.49
6040.00,1.49
6039.00,1.50
6038.00,1.50
6037.00,1.50
6036.00,1.50
6035.00,1.50
6034.00,1.50
6033.00,1.50
6032.00,1.50
6031.00,1.50
6030.00,1.50
6029.00,1.50
6028.00,1.51
6027.00,1.51
6026.00,1.51
6025.00,1.51
6024.00,1.51
6023.00,1.51
6022.00,1.51
6021.00,1.51
6020.00,1.51
6019.00,1.51
6018.00,1.51
6017.00,1.51
6016.00,1.51
6015.00,1.51
6014.00,1.51
6013.00,1.51
6012.00,1.51
6011.00,1.51
6010.00,1.51
6009.00,1.51
6008.00,1.51
6007.00,1.51
6006.00,1.51
6005.00,1.51
6004.00,1.51
6003.00,1.51
6002.00,1.51
6001.00,1.51
6000.00,1.51
5999.00,1.51
5998.00,1.51
5997.00,1.51
5996.00,1.50
5995.00,1.50
5994.00,1.50
5993.00,1.50
5992.00,1.50
5991.00,1.50
5990.00,1.49
5989.00,1.49
5988.00,1.49
5987.00,1.49
5986.00,1.48
5985.00,1.48
5984.00,1.48
5983.00,1.47
5982.00,1.47
5981.00,1.47
5980.00,1.46
5979.00,1.46
5978.00,1.45
5977.00,1.45
5976.00,1.44
5975.00,1.44
5974.00,1.43
5973.00,1.43
5972.00,1.42
5971.00,1.41
5970.00,1.41
5969.00,1.40
5968.00,1.39
5967.00,1.39
5966.00,1.38
5965.00,1.37
5964.00,1.37
5963.00,1.36
5962.00,1.35
5961.00,1.34
5960.00,1.34
5959.00,1.33
5958.00,1.32
5957.00,1.31
5956.00,1.31
5955.00,1.30
5954.00,1.29
5953.00,1.29
5952.00,1.28
5951.00,1.28
5950.00,1.27
5949.00,1.27
5948.00,1.26
5947.00,1.26
5946.00,1.26
5945.00,1.25
5944.00,1.25
5943.00,1.25
5942.00,1.25
5941.00,1.24
5940.00,1.24
5939.00,1.24
5938.00,1.24
5937.00,1.24
5936.00,1.24
5935.00,1.24
5934.00,1.24
5933.00,1.24
5932.00,1.23
5931.00,1.23
5930.00,1.23
5929.00,1.23
5928.00,1.23
5927.00,1.23
5926.00,1.23
5925.00,1.22
5924.00,1.22
5923.00,1.22
5922.00,1.22
5921.00,1.21
5920.00,1.21
5919.00,1.21
5918.00,1.21
5917.00,1.20
5916.00,1.20
5915.00,1.20
5914.00,1.19
5913.00,1.19
5912.00,1.19
5911.00,1.19
5910.00,1.18
5909.00,1.18
5908.00,1.18
5907.00,1.18
5906.00,1.18
5905.00,1.18
5904.00,1.18
5903.00,1.18
5902.00,1.18
5901.00,1.18
5900.00,1.18
5899.00,1.18
5898.00,1.18
5897.00,1.18
5896.00,1.18
5895.00,1.19
5894.00,1.19
5893.00,1.19
5892.00,1.19
5891.00,1.20
5890.00,1.20
5889.00,1.20
5888.00,1.21
5887.00,1.21
5886.00,1.21
5885.00,1.22
5884.00,1.22
5883.00,1.22
5882.00,1.23
5881.00,1.23
5880.00,1.23
5879.00,1.24
5878.00,1.24
5877.00,1.24
5876.00,1.24
5875.00,1.25
5874.00,1.25
5873.00,1.25
5872.00,1.26
5871.00,1.26
5870.00,1.26
5869.00,1.26
5868.00,1.27
5867.00,1.27
5866.00,1.27
5865.00,1.27
5864.00,1.28
5863.00,1.28
5862.00,1.28
5861.00,1.28
5860.00,1.28
5859.00,1.29
5858.00,1.29
5857.00,1.29
5856.00,1.29
5855.00,1.29
5854.00,1.29
5853.00,1.29
5852.00,1.29
5851.00,1.30
5850.00,1.30
5849.00,1.30
5848.00,1.30
5847.00,1.30
5846.00,1.30
5845.00,1.30
5844.00,1.30
5843.00,1.30
5842.00,1.30
5841.00,1.30
5840.00,1.29
5839.00,1.29
5838.00,1.29
5837.00,1.29
5836.00,1.29
5835.00,1.29
5834.00,1.29
5833.00,1.29
5832.00,1.29
5831.00,1.29
5830.00,1.29
5829.00,1.29
5828.00,1.29
5827.00,1.29
5826.00,1.29
5825.00,1.29
5824.00,1.29
5823.00,1.29
5822.00,1.29
5821.00,1.29
5820.00,1.29
5819.00,1.29
5818.00,1.29
5817.00,1.29
5816.00,1.29
5815.00,1.29
5814.00,1.29
5813.00,1.29
5812.00,1.29
5811.00,1.29
5810.00,1.29
5809.00,1.29
5808.00,1.29
5807.00,1.29
5806.00,1.29
5805.00,1.29
5804.00,1.28
5803.00,1.28
5802.00,1.28
5801.00,1.28
5800.00,1.28
5799.00,1.28
5798.00,1.27
5797.00,1.27
5796.00,1.27
5795.00,1.27
5794.00,1.26
5793.00,1.26
5792.00,1.26
5791.00,1.26
5790.00,1.26
5789.00,1.25
5788.00,1.25
5787.00,1.25
5786.00,1.25
5785.00,1.24
5784.00,1.24
5783.00,1.24
5782.00,1.24
5781.00,1.24
5780.00,1.24
5779.00,1.23
5778.00,1.23
5777.00,1.23
5776.00,1.23
5775.00,1.23
5774.00,1.23
5773.00,1.23
5772.00,1.23
5771.00,1.23
5770.00,1.23
5769.00,1.23
5768.00,1.23
5767.00,1.23
5766.00,1.24
5765.00,1.24
5764.00,1.24
5763.00,1.24
5762.00,1.24
5761.00,1.25
5760.00,1.25
5759.00,1.25
5758.00,1.26
5757.00,1.26
5756.00,1.26
5755.00,1.27
5754.00,1.27
5753.00,1.27
5752.00,1.28
5751.00,1.28
5750.00,1.29
5749.00,1.29
5748.00,1.29
5747.00,1.30
5746.00,1.30
5745.00,1.30
5744.00,1.31
5743.00,1.31
5742.00,1.31
5741.00,1.31
5740.00,1.32
5739.00,1.32
5738.00,1.32
5737.00,1.32
5736.00,1.33
5735.00,1.33
5734.00,1.33
5733.00,1.33
5732.00,1.33
5731.00,1.33
5730.00,1.33
5729.00,1.33
5728.00,1.33
5727.00,1.33
5726.00,1.33
5725.00,1.33
5724.00,1.33
5723.00,1.33
5722.00,1.33
5721.00,1.33
5720.00,1.33
5719.00,1.33
5718.00,1.33
5717.00,1.33
5716.00,1.33
5715.00,1.33
5714.00,1.33
5713.00,1.33
5712.00,1.33
5711.00,1.33
5710.00,1.33
5709.00,1.33
5708.00,1.33
5707.00,1.33
5706.00,1.32
5705.00,1.32
5704.00,1.32
5703.00,1.32
5702.00,1.32
5701.00,1.32
5700.00,1.32
5699.00,1.32
5698.00,1.32
5697.00,1.31
5696.00,1.31
5695.00,1.31
5694.00,1.31
5693.00,1.31
5692.00,1.31
5691.00,1.30
5690.00,1.30
5689.00,1.30
5688.00,1.30
5687.00,1.30
5686.00,1.29
5685.00,1.29
5684.00,1.29
5683.00,1.29
5682.00,1.29
5681.00,1.29
5680.00,1.29
5679.00,1.29
5678.00,1.28
5677.00,1.28
5676.00,1.28
5675.00,1.28
5674.00,1.28
5673.00,1.28
5672.00,1.28
5671.00,1.28
5670.00,1.28
5669.00,1.28
5668.00,1.28
5667.00,1.29
5666.00,1.29
5665.00,1.29
5664.00,1.29
5663.00,1.29
5662.00,1.29
5661.00,1.29
5660.00,1.29
5659.00,1.30
5658.00,1.30
5657.00,1.30
5656.00,1.30
5655.00,1.30
5654.00,1.30
5653.00,1.31
5652.00,1.31
5651.00,1.31
5650.00,1.31
5649.00,1.31
5648.00,1.31
5647.00,1.32
5646.00,1.32
5645.00,1.32
5644.00,1.32
5643.00,1.32
5642.00,1.32
5641.00,1.32
5640.00,1.33
5639.00,1.33
5638.00,1.33
5637.00,1.33
5636.00,1.33
5635.00,1.33
5634.00,1.33
5633.00,1.33
5632.00,1.34
5631.00,1.34
5630.00,1.34
5629.00,1.34
5628.00,1.34
5627.00,1.34
5626.00,1.35
5625.00,1.35
5624.00,1.35
5623.00,1.35
5622.00,1.35
5621.00,1.36
5620.00,1.36
5619.00,1.36
5618.00,1.36
5617.00,1.36
5616.00,1.37
5615.00,1.37
5614.00,1.37
5613.00,1.37
5612.00,1.37
5611.00,1.37
5610.00,1.38
5609.00,1.38
5608.00,1.38
5607.00,1.38
5606.00,1.38
5605.00,1.38
5604.00,1.39
5603.00,1.39
5602.00,1.39
5601.00,1.39
5600.00,1.39
5599.00,1.39
5598.00,1.40
5597.00,1.40
5596.00,1.40
5595.00,1.40
5594.00,1.40
5593.00,1.40
5592.00,1.40
5591.00,1.41
5590.00,1.41
5589.00,1.41
5588.00,1.41
5587.00,1.41
5586.00,1.41
5585.00,1.41
5584.00,1.42
5583.00,1.42
5582.00,1.42
5581.00,1.42
5580.00,1.42
5579.00,1.43
5578.00,1.43
5577.00,1.43
5576.00,1.43
5575.00,1.43
5574.00,1.43
5573.00,1.44
5572.00,1.44
5571.00,1.44
5570.00,1.44
5569.00,1.44
5568.00,1.45
5567.00,1.45
5566.00,1.45
5565.00,1.45
5564.00,1.45
5563.00,1.45
5562.00,1.46
5561.00,1.46
5560.00,1.46
5559.00,1.46
5558.00,1.46
5557.00,1.46
5556.00,1.47
5555.00,1.47
5554.00,1.47
5553.00,1.47
5552.00,1.47
5551.00,1.47
5550.00,1.47
5549.00,1.48
5548.00,1.48
5547.00,1.48
5546.00,1.48
5545.00,1.48
5544.00,1.48
5543.00,1.48
5542.00,1.48
5541.00,1.48
5540.00,1.49
5539.00,1.49
5538.00,1.49
5537.00,1.49
5536.00,1.49
5535.00,1.49
5534.00,1.49
5533.00,1.49
5532.00,1.50
5531.00,1.50
5530.00,1.50
5529.00,1.50
5528.00,1.50
5527.00,1.50
5526.00,1.50
5525.00,1.50
5524.00,1.51
5523.00,1.51
5522.00,1.51
5521.00,1.51
5520.00,1.51
5519.00,1.51
5518.00,1.51
5517.00,1.51
5516.00,1.52
5515.00,1.52
5514.00,1.52
5513.00,1.52
5512.00,1.52
5511.00,1.52
5510.00,1.52
5509.00,1.52
5508.00,1.52
5507.00,1.52
5506.00,1.52
5505.00,1.53
5504.00,1.53
5503.00,1.53
5502.00,1.53
5501.00,1.53
5500.00,1.53
5499.00,1.53
5498.00,1.53
5497.00,1.53
5496.00,1.53
5495.00,1.53
5494.00,1.54
5493.00,1.54
5492.00,1.54
5491.00,1.54
5490.00,1.54
5489.00,1.54
5488.00,1.54
5487.00,1.54
5486.00,1.54
5485.00,1.55
5484.00,1.55
5483.00,1.55
5482.00,1.55
5481.00,1.55
5480.00,1.55
5479.00,1.55
5478.00,1.55
5477.00,1.55
5476.00,1.56
5475.00,1.56
5474.00,1.56
5473.00,1.56
5472.00,1.56
5471.00,1.56
5470.00,1.56
5469.00,1.57
5468.00,1.57
5467.00,1.57
5466.00,1.57
5465.00,1.57
5464.00,1.57
5463.00,1.57
5462.00,1.58
5461.00,1.58
5460.00,1.58
5459.00,1.58
5458.00,1.58
5457.00,1.58
5456.00,1.58
5455.00,1.58
5454.00,1.58
5453.00,1.58
5452.00,1.59
5451.00,1.59
5450.00,1.59
5449.00,1.59
5448.00,1.59
5447.00,1.59
5446.00,1.59
5445.00,1.59
5444.00,1.59
5443.00,1.59
5442.00,1.59
5441.00,1.59
5440.00,1.59
5439.00,1.59
5438.00,1.59
5437.00,1.59
5436.00,1.59
5435.00,1.59
5434.00,1.59
5433.00,1.59
5432.00,1.59
5431.00,1.59
5430.00,1.59
5429.00,1.59
5428.00,1.59
5427.00,1.59
5426.00,1.59
5425.00,1.59
5424.00,1.59
5423.00,1.59
5422.00,1.59
5421.00,1.59
5420.00,1.59
5419.00,1.59
5418.00,1.59
5417.00,1.59
5416.00,1.59
5415.00,1.59
5414.00,1.59
5413.00,1.59
5412.00,1.59
5411.00,1.59
5410.00,1.59
5409.00,1.59
5408.00,1.58
5407.00,1.58
5406.00,1.58
5405.00,1.58
5404.00,1.58
5403.00,1.58
5402.00,1.58
5401.00,1.58
5400.00,1.58
5399.00,1.57
5398.00,1.57
5397.00,1.57
5396.00,1.57
5395.00,1.57
5394.00,1.56
5393.00,1.56
5392.00,1.56
5391.00,1.56
5390.00,1.55
5389.00,1.55
5388.00,1.55
5387.00,1.54
5386.00,1.54
5385.00,1.53
5384.00,1.53
5383.00,1.52
5382.00,1.52
5381.00,1.51
5380.00,1.51
5379.00,1.50
5378.00,1.50
5377.00,1.49
5376.00,1.48
5375.00,1.48
5374.00,1.47
5373.00,1.47
5372.00,1.46
5371.00,1.45
5370.00,1.45
5369.00,1.44
5368.00,1.43
5367.00,1.43
5366.00,1.42
5365.00,1.41
5364.00,1.41
5363.00,1.40
5362.00,1.39
5361.00,1.38
5360.00,1.38
5359.00,1.37
5358.00,1.36
5357.00,1.35
5356.00,1.34
5355.00,1.33
5354.00,1.32
5353.00,1.31
5352.00,1.30
5351.00,1.29
5350.00,1.28
5349.00,1.27
5348.00,1.26
5347.00,1.25
5346.00,1.24
5345.00,1.23
5344.00,1.21
5343.00,1.20
5342.00,1.19
5341.00,1.18
5340.00,1.17
5339.00,1.15
5338.00,1.14
5337.00,1.13
5336.00,1.12
5335.00,1.10
5334.00,1.09
5333.00,1.08
5332.00,1.07
5331.00,1.06
5330.00,1.04
5329.00,1.03
5328.00,1.02
5327.00,1.01
5326.00,1.00
5325.00,0.99
5324.00,0.98
5323.00,0.97
5322.00,0.96
5321.00,0.95
5320.00,0.94
5319.00,0.93
5318.00,0.92
5317.00,0.91
5316.00,0.91
5315.00,0.90
5314.00,0.89
5313.00,0.88
5312.00,0.88
5311.00,0.87
5310.00,0.86
5309.00,0.86
5308.00,0.85
5307.00,0.84
5306.00,0.84
5305.00,0.83
5304.00,0.83
5303.00,0.83
5302.00,0.82
5301.00,0.82
5300.00,0.81
5299.00,0.81
5298.00,0.81
5297.00,0.81
5296.00,0.80
5295.00,0.80
5294.00,0.80
5293.00,0.80
5292.00,0.79
5291.00,0.79
5290.00,0.79
5289.00,0.79
5288.00,0.79
5287.00,0.78
5286.00,0.78
5285.00,0.78
5284.00,0.78
5283.00,0.78
5282.00,0.78
5281.00,0.78
5280.00,0.78
5279.00,0.78
5278.00,0.78
5277.00,0.77
5276.00,0.77
5275.00,0.77
5274.00,0.77
5273.00,0.77
5272.00,0.77
5271.00,0.77
5270.00,0.77
5269.00,0.77
5268.00,0.77
5267.00,0.77
5266.00,0.77
5265.00,0.77
5264.00,0.77
5263.00,0.77
5262.00,0.77
5261.00,0.77
5260.00,0.77
5259.00,0.77
5258.00,0.77
5257.00,0.77
5256.00,0.77
5255.00,0.77
5254.00,0.77
5253.00,0.77
5252.00,0.77
5251.00,0.77
5250.00,0.77
5249.00,0.77
5248.00,0.77
5247.00,0.77
5246.00,0.77
5245.00,0.77
5244.00,0.77
5243.00,0.78
5242.00,0.78
5241.00,0.78
5240.00,0.78
5239.00,0.78
5238.00,0.78
5237.00,0.78
5236.00,0.78
5235.00,0.78
5234.00,0.78
5233.00,0.78
5232.00,0.78
5231.00,0.78
5230.00,0.78
5229.00,0.78
5228.00,0.78
5227.00,0.78
5226.00,0.78
5225.00,0.78
5224.00,0.78
5223.00,0.78
5222.00,0.78
5221.00,0.78
5220.00,0.78
5219.00,0.78
5218.00,0.78
5217.00,0.78
5216.00,0.78
5215.00,0.78
5214.00,0.78
5213.00,0.78
5212.00,0.78
5211.00,0.79
5210.00,0.79
5209.00,0.79
5208.00,0.79
5207.00,0.79
5206.00,0.79
5205.00,0.79
5204.00,0.79
5203.00,0.79
5202.00,0.79
5201.00,0.79
5200.00,0.79
5199.00,0.79
5198.00,0.79
5197.00,0.79
5196.00,0.79
5195.00,0.79
5194.00,0.80
5193.00,0.80
5192.00,0.80
5191.00,0.80
5190.00,0.80
5189.00,0.80
5188.00,0.80
5187.00,0.80
5186.00,0.80
5185.00,0.80
5184.00,0.80
5183.00,0.80
5182.00,0.80
5181.00,0.80
5180.00,0.80
5179.00,0.80
5178.00,0.80
5177.00,0.80
5176.00,0.80
5175.00,0.81
5174.00,0.81
5173.00,0.81
5172.00,0.81
5171.00,0.81
5170.00,0.81
5169.00,0.81
5168.00,0.81
5167.00,0.81
5166.00,0.81
5165.00,0.81
5164.00,0.81
5163.00,0.81
5162.00,0.81
5161.00,0.82
5160.00,0.82
5159.00,0.82
5158.00,0.82
5157.00,0.82
5156.00,0.82
5155.00,0.82
5154.00,0.82
5153.00,0.82
5152.00,0.82
5151.00,0.82
5150.00,0.82
5149.00,0.82
5148.00,0.82
5147.00,0.82
5146.00,0.82
5145.00,0.82
5144.00,0.82
5143.00,0.82
5142.00,0.82
5141.00,0.82
5140.00,0.82
5139.00,0.82
5138.00,0.82
5137.00,0.82
5136.00,0.82
5135.00,0.82
5134.00,0.82
5133.00,0.82
5132.00,0.82
5131.00,0.82
5130.00,0.83
5129.00,0.83
5128.00,0.83
5127.00,0.83
5126.00,0.83
5125.00,0.83
5124.00,0.83
5123.00,0.83
5122.00,0.83
5121.00,0.83
5120.00,0.83
5119.00,0.83
5118.00,0.83
5117.00,0.84
5116.00,0.84
5115.00,0.84
5114.00,0.84
5113.00,0.84
5112.00,0.84
5111.00,0.84
5110.00,0.84
5109.00,0.84
5108.00,0.84
5107.00,0.84
5106.00,0.84
5105.00,0.84
5104.00,0.84
5103.00,0.84
5102.00,0.84
5101.00,0.84
5100.00,0.84
5099.00,0.84
5098.00,0.85
5097.00,0.85
5096.00,0.85
5095.00,0.85
5094.00,0.85
5093.00,0.85
5092.00,0.85
5091.00,0.85
5090.00,0.85
5089.00,0.85
5088.00,0.85
5087.00,0.85
5086.00,0.85
5085.00,0.85
5084.00,0.85
5083.00,0.85
5082.00,0.85
5081.00,0.85
5080.00,0.85
5079.00,0.85
5078.00,0.85
5077.00,0.85
5076.00,0.85
5075.00,0.86
5074.00,0.86
5073.00,0.86
5072.00,0.86
5071.00,0.86
5070.00,0.86
5069.00,0.86
5068.00,0.86
5067.00,0.86
5066.00,0.86
5065.00,0.86
5064.00,0.86
5063.00,0.86
5062.00,0.87
5061.00,0.87
5060.00,0.87
5059.00,0.87
5058.00,0.87
5057.00,0.87
5056.00,0.87
5055.00,0.87
5054.00,0.87
5053.00,0.87
5052.00,0.87
5051.00,0.87
5050.00,0.87
5049.00,0.87
5048.00,0.87
5047.00,0.87
5046.00,0.87
5045.00,0.88
5044.00,0.88
5043.00,0.88
5042.00,0.88
5041.00,0.88
5040.00,0.88
5039.00,0.88
5038.00,0.88
5037.00,0.88
5036.00,0.88
5035.00,0.88
5034.00,0.88
5033.00,0.88
5032.00,0.88
5031.00,0.88
5030.00,0.88
5029.00,0.88
5028.00,0.88
5027.00,0.88
5026.00,0.88
5025.00,0.89
5024.00,0.89
5023.00,0.89
5022.00,0.89
5021.00,0.89
5020.00,0.89
5019.00,0.89
5018.00,0.89
5017.00,0.89
5016.00,0.89
5015.00,0.89
5014.00,0.89
5013.00,0.89
5012.00,0.89
5011.00,0.89
5010.00,0.89
5009.00,0.90
5008.00,0.90
5007.00,0.90
5006.00,0.90
5005.00,0.90
5004.00,0.90
5003.00,0.90
5002.00,0.90
5001.00,0.90
5000.00,0.90
4999.00,0.91
4998.00,0.91
4997.00,0.91
4996.00,0.91
4995.00,0.91
4994.00,0.91
4993.00,0.91
4992.00,0.91
4991.00,0.91
4990.00,0.91
4989.00,0.91
4988.00,0.91
4987.00,0.91
4986.00,0.91
4985.00,0.91
4984.00,0.91
4983.00,0.92
4982.00,0.92
4981.00,0.92
4980.00,0.92
4979.00,0.92
4978.00,0.92
4977.00,0.92
4976.00,0.92
4975.00,0.92
4974.00,0.92
4973.00,0.92
4972.00,0.92
4971.00,0.92
4970.00,0.92
4969.00,0.93
4968.00,0.93
4967.00,0.93
4966.00,0.93
4965.00,0.93
4964.00,0.93
4963.00,0.93
4962.00,0.93
4961.00,0.93
4960.00,0.93
4959.00,0.93
4958.00,0.93
4957.00,0.93
4956.00,0.93
4955.00,0.93
4954.00,0.94
4953.00,0.94
4952.00,0.94
4951.00,0.94
4950.00,0.94
4949.00,0.94
4948.00,0.94
4947.00,0.94
4946.00,0.94
4945.00,0.95
4944.00,0.95
4943.00,0.95
4942.00,0.95
4941.00,0.95
4940.00,0.95
4939.00,0.95
4938.00,0.95
4937.00,0.95
4936.00,0.95
4935.00,0.95
4934.00,0.95
4933.00,0.95
4932.00,0.95
4931.00,0.96
4930.00,0.96
4929.00,0.96
4928.00,0.96
4927.00,0.96
4926.00,0.96
4925.00,0.96
4924.00,0.96
4923.00,0.96
4922.00,0.97
4921.00,0.97
4920.00,0.97
4919.00,0.97
4918.00,0.97
4917.00,0.97
4916.00,0.97
4915.00,0.97
4914.00,0.97
4913.00,0.98
4912.00,0.98
4911.00,0.98
4910.00,0.98
4909.00,0.98
4908.00,0.98
4907.00,0.98
4906.00,0.98
4905.00,0.98
4904.00,0.98
4903.00,0.98
4902.00,0.98
4901.00,0.98
4900.00,0.98
4899.00,0.98
4898.00,0.98
4897.00,0.98
4896.00,0.99
4895.00,0.99
4894.00,0.99
4893.00,0.99
4892.00,0.99
4891.00,0.99
4890.00,0.99
4889.00,0.99
4888.00,0.99
4887.00,0.99
4886.00,0.99
4885.00,1.00
4884.00,1.00
4883.00,1.00
4882.00,1.00
4881.00,1.00
4880.00,1.00
4879.00,1.00
4878.00,1.00
4877.00,1.00
4876.00,1.00
4875.00,1.00
4874.00,1.00
4873.00,1.00
4872.00,1.00
4871.00,1.00
4870.00,1.00
4869.00,1.00
4868.00,1.00
4867.00,1.00
4866.00,1.00
4865.00,1.01
4864.00,1.01
4863.00,1.01
4862.00,1.01
4861.00,1.01
4860.00,1.01
4859.00,1.01
4858.00,1.01
4857.00,1.01
4856.00,1.01
4855.00,1.01
4854.00,1.01
4853.00,1.02
4852.00,1.02
4851.00,1.02
4850.00,1.02
4849.00,1.02
4848.00,1.02
4847.00,1.02
4846.00,1.02
4845.00,1.02
4844.00,1.02
4843.00,1.03
4842.00,1.03
4841.00,1.03
4840.00,1.03
4839.00,1.03
4838.00,1.03
4837.00,1.03
4836.00,1.03
4835.00,1.03
4834.00,1.03
4833.00,1.03
4832.00,1.04
4831.00,1.04
4830.00,1.04
4829.00,1.04
4828.00,1.04
4827.00,1.04
4826.00,1.04
4825.00,1.04
4824.00,1.05
4823.00,1.05
4822.00,1.05
4821.00,1.05
4820.00,1.05
4819.00,1.05
4818.00,1.05
4817.00,1.06
4816.00,1.06
4815.00,1.06
4814.00,1.06
4813.00,1.06
4812.00,1.06
4811.00,1.06
4810.00,1.06
4809.00,1.07
4808.00,1.07
4807.00,1.07
4806.00,1.07
4805.00,1.07
4804.00,1.07
4803.00,1.07
4802.00,1.07
4801.00,1.07
4800.00,1.07
4799.00,1.07
4798.00,1.07
4797.00,1.07
4796.00,1.07
4795.00,1.07
4794.00,1.08
4793.00,1.08
4792.00,1.08
4791.00,1.08
4790.00,1.08
4789.00,1.08
4788.00,1.08
4787.00,1.09
4786.00,1.09
4785.00,1.09
4784.00,1.09
4783.00,1.09
4782.00,1.10
4781.00,1.10
4780.00,1.10
4779.00,1.10
4778.00,1.10
4777.00,1.10
4776.00,1.11
4775.00,1.11
4774.00,1.11
4773.00,1.11
4772.00,1.11
4771.00,1.11
4770.00,1.11
4769.00,1.11
4768.00,1.11
4767.00,1.11
4766.00,1.11
4765.00,1.11
4764.00,1.12
4763.00,1.12
4762.00,1.12
4761.00,1.12
4760.00,1.12
4759.00,1.12
4758.00,1.12
4757.00,1.12
4756.00,1.13
4755.00,1.13
4754.00,1.13
4753.00,1.13
4752.00,1.13
4751.00,1.13
4750.00,1.13
4749.00,1.14
4748.00,1.14
4747.00,1.14
4746.00,1.14
4745.00,1.14
4744.00,1.14
4743.00,1.15
4742.00,1.15
4741.00,1.15
4740.00,1.15
4739.00,1.15
4738.00,1.15
4737.00,1.15
4736.00,1.16
4735.00,1.16
4734.00,1.16
4733.00,1.16
4732.00,1.16
4731.00,1.17
4730.00,1.17
4729.00,1.17
4728.00,1.17
4727.00,1.17
4726.00,1.18
4725.00,1.18
4724.00,1.18
4723.00,1.18
4722.00,1.19
4721.00,1.19
4720.00,1.19
4719.00,1.19
4718.00,1.19
4717.00,1.20
4716.00,1.20
4715.00,1.20
4714.00,1.20
4713.00,1.20
4712.00,1.21
4711.00,1.21
4710.00,1.21
4709.00,1.21
4708.00,1.21
4707.00,1.21
4706.00,1.22
4705.00,1.22
4704.00,1.22
4703.00,1.22
4702.00,1.22
4701.00,1.22
4700.00,1.22
4699.00,1.22
4698.00,1.22
4697.00,1.23
4696.00,1.23
4695.00,1.23
4694.00,1.23
4693.00,1.23
4692.00,1.23
4691.00,1.23
4690.00,1.23
4689.00,1.24
4688.00,1.24
4687.00,1.24
4686.00,1.24
4685.00,1.24
4684.00,1.24
4683.00,1.24
4682.00,1.25
4681.00,1.25
4680.00,1.25
4679.00,1.25
4678.00,1.25
4677.00,1.25
4676.00,1.26
4675.00,1.26
4674.00,1.26
4673.00,1.26
4672.00,1.26
4671.00,1.26
4670.00,1.27
4669.00,1.27
4668.00,1.27
4667.00,1.27
4666.00,1.27
4665.00,1.27
4664.00,1.28
4663.00,1.28
4662.00,1.28
4661.00,1.28
4660.00,1.28
4659.00,1.29
4658.00,1.29
4657.00,1.29
4656.00,1.29
4655.00,1.29
4654.00,1.30
4653.00,1.30
4652.00,1.30
4651.00,1.30
4650.00,1.30
4649.00,1.31
4648.00,1.31
4647.00,1.31
4646.00,1.31
4645.00,1.31
4644.00,1.31
4643.00,1.31
4642.00,1.31
4641.00,1.31
4640.00,1.32
4639.00,1.32
4638.00,1.32
4637.00,1.32
4636.00,1.32
4635.00,1.32
4634.00,1.32
4633.00,1.32
4632.00,1.32
4631.00,1.32
4630.00,1.32
4629.00,1.32
4628.00,1.33
4627.00,1.33
4626.00,1.33
4625.00,1.33
4624.00,1.33
4623.00,1.33
4622.00,1.33
4621.00,1.33
4620.00,1.33
4619.00,1.33
4618.00,1.34
4617.00,1.34
4616.00,1.34
4615.00,1.34
4614.00,1.34
4613.00,1.34
4612.00,1.34
4611.00,1.34
4610.00,1.34
4609.00,1.34
4608.00,1.34
4607.00,1.34
4606.00,1.34
4605.00,1.34
4604.00,1.35
4603.00,1.35
4602.00,1.35
4601.00,1.35
4600.00,1.35
4599.00,1.35
4598.00,1.35
4597.00,1.35
4596.00,1.35
4595.00,1.36
4594.00,1.36
4593.00,1.36
4592.00,1.36
4591.00,1.36
4590.00,1.36
4589.00,1.37
4588.00,1.37
4587.00,1.37
4586.00,1.37
4585.00,1.37
4584.00,1.38
4583.00,1.38
4582.00,1.38
4581.00,1.38
4580.00,1.38
4579.00,1.38
4578.00,1.39
4577.00,1.39
4576.00,1.39
4575.00,1.39
4574.00,1.39
4573.00,1.39
4572.00,1.39
4571.00,1.39
4570.00,1.39
4569.00,1.39
4568.00,1.39
4567.00,1.39
4566.00,1.39
4565.00,1.39
4564.00,1.39
4563.00,1.39
4562.00,1.39
4561.00,1.40
4560.00,1.40
4559.00,1.40
4558.00,1.40
4557.00,1.40
4556.00,1.40
4555.00,1.40
4554.00,1.40
4553.00,1.40
4552.00,1.40
4551.00,1.40
4550.00,1.41
4549.00,1.41
4548.00,1.41
4547.00,1.41
4546.00,1.41
4545.00,1.41
4544.00,1.41
4543.00,1.41
4542.00,1.41
4541.00,1.41
4540.00,1.41
4539.00,1.41
4538.00,1.41
4537.00,1.42
4536.00,1.42
4535.00,1.42
4534.00,1.42
4533.00,1.42
4532.00,1.42
4531.00,1.42
4530.00,1.42
4529.00,1.42
4528.00,1.42
4527.00,1.42
4526.00,1.42
4525.00,1.42
4524.00,1.42
4523.00,1.42
4522.00,1.42
4521.00,1.42
4520.00,1.42
4519.00,1.42
4518.00,1.42
4517.00,1.42
4516.00,1.42
4515.00,1.42
4514.00,1.42
4513.00,1.42
4512.00,1.42
4511.00,1.42
4510.00,1.42
4509.00,1.42
4508.00,1.42
4507.00,1.42
4506.00,1.43
4505.00,1.43
4504.00,1.43
4503.00,1.43
4502.00,1.43
4501.00,1.43
4500.00,1.43
4499.00,1.43
4498.00,1.43
4497.00,1.43
4496.00,1.43
4495.00,1.43
4494.00,1.43
4493.00,1.43
4492.00,1.43
4491.00,1.42
4490.00,1.42
4489.00,1.42
4488.00,1.42
4487.00,1.42
4486.00,1.42
4485.00,1.42
4484.00,1.42
4483.00,1.41
4482.00,1.41
4481.00,1.41
4480.00,1.41
4479.00,1.41
4478.00,1.40
4477.00,1.40
4476.00,1.40
4475.00,1.40
4474.00,1.40
4473.00,1.40
4472.00,1.39
4471.00,1.39
4470.00,1.39
4469.00,1.39
4468.00,1.38
4467.00,1.38
4466.00,1.38
4465.00,1.38
4464.00,1.37
4463.00,1.37
4462.00,1.37
4461.00,1.37
4460.00,1.36
4459.00,1.36
4458.00,1.36
4457.00,1.35
4456.00,1.35
4455.00,1.35
4454.00,1.34
4453.00,1.34
4452.00,1.34
4451.00,1.33
4450.00,1.33
4449.00,1.32
4448.00,1.32
4447.00,1.32
4446.00,1.31
4445.00,1.31
4444.00,1.30
4443.00,1.30
4442.00,1.29
4441.00,1.29
4440.00,1.29
4439.00,1.28
4438.00,1.28
4437.00,1.27
4436.00,1.27
4435.00,1.27
4434.00,1.26
4433.00,1.26
4432.00,1.26
4431.00,1.26
4430.00,1.26
4429.00,1.25
4428.00,1.25
4427.00,1.25
4426.00,1.25
4425.00,1.25
4424.00,1.25
4423.00,1.25
4422.00,1.25
4421.00,1.25
4420.00,1.25
4419.00,1.25
4418.00,1.25
4417.00,1.25
4416.00,1.25
4415.00,1.25
4414.00,1.25
4413.00,1.25
4412.00,1.25
4411.00,1.25
4410.00,1.25
4409.00,1.25
4408.00,1.25
4407.00,1.25
4406.00,1.25
4405.00,1.25
4404.00,1.25
4403.00,1.25
4402.00,1.25
4401.00,1.25
4400.00,1.25
4399.00,1.25
4398.00,1.26
4397.00,1.26
4396.00,1.26
4395.00,1.26
4394.00,1.26
4393.00,1.26
4392.00,1.26
4391.00,1.26
4390.00,1.27
4389.00,1.27
4388.00,1.27
4387.00,1.27
4386.00,1.27
4385.00,1.27
4384.00,1.28
4383.00,1.28
4382.00,1.28
4381.00,1.28
4380.00,1.28
4379.00,1.28
4378.00,1.28
4377.00,1.29
4376.00,1.29
4375.00,1.29
4374.00,1.29
4373.00,1.29
4372.00,1.29
4371.00,1.29
4370.00,1.29
4369.00,1.29
4368.00,1.29
4367.00,1.29
4366.00,1.29
4365.00,1.29
4364.00,1.28
4363.00,1.28
4362.00,1.28
4361.00,1.28
4360.00,1.28
4359.00,1.28
4358.00,1.28
4357.00,1.28
4356.00,1.28
4355.00,1.28
4354.00,1.28
4353.00,1.28
4352.00,1.29
4351.00,1.29
4350.00,1.29
4349.00,1.29
4348.00,1.29
4347.00,1.29
4346.00,1.29
4345.00,1.29
4344.00,1.29
4343.00,1.29
4342.00,1.29
4341.00,1.29
4340.00,1.29
4339.00,1.29
4338.00,1.29
4337.00,1.29
4336.00,1.29
4335.00,1.29
4334.00,1.30
4333.00,1.30
4332.00,1.30
4331.00,1.30
4330.00,1.30
4329.00,1.30
4328.00,1.30
4327.00,1.30
4326.00,1.30
4325.00,1.31
4324.00,1.31
4323.00,1.31
4322.00,1.31
4321.00,1.31
4320.00,1.31
4319.00,1.32
4318.00,1.32
4317.00,1.32
4316.00,1.32
4315.00,1.32
4314.00,1.33
4313.00,1.33
4312.00,1.33
4311.00,1.33
4310.00,1.34
4309.00,1.34
4308.00,1.34
4307.00,1.34
4306.00,1.35
4305.00,1.35
4304.00,1.35
4303.00,1.35
4302.00,1.36
4301.00,1.36
4300.00,1.36
4299.00,1.36
4298.00,1.36
4297.00,1.36
4296.00,1.37
4295.00,1.37
4294.00,1.37
4293.00,1.37
4292.00,1.37
4291.00,1.37
4290.00,1.37
4289.00,1.37
4288.00,1.37
4287.00,1.37
4286.00,1.38
4285.00,1.38
4284.00,1.38
4283.00,1.38
4282.00,1.38
4281.00,1.38
4280.00,1.38
4279.00,1.38
4278.00,1.38
4277.00,1.38
4276.00,1.38
4275.00,1.38
4274.00,1.38
4273.00,1.38
4272.00,1.38
4271.00,1.38
4270.00,1.38
4269.00,1.38
4268.00,1.38
4267.00,1.38
4266.00,1.38
4265.00,1.38
4264.00,1.38
4263.00,1.38
4262.00,1.38
4261.00,1.38
4260.00,1.38
4259.00,1.39
4258.00,1.39
4257.00,1.39
4256.00,1.39
4255.00,1.39
4254.00,1.39
4253.00,1.39
4252.00,1.39
4251.00,1.39
4250.00,1.39
4249.00,1.40
4248.00,1.40
4247.00,1.40
4246.00,1.40
4245.00,1.40
4244.00,1.40
4243.00,1.40
4242.00,1.40
4241.00,1.41
4240.00,1.41
4239.00,1.41
4238.00,1.41
4237.00,1.41
4236.00,1.41
4235.00,1.41
4234.00,1.41
4233.00,1.41
4232.00,1.41
4231.00,1.41
4230.00,1.41
4229.00,1.41
4228.00,1.41
4227.00,1.41
4226.00,1.41
4225.00,1.41
4224.00,1.41
4223.00,1.41
4222.00,1.41
4221.00,1.41
4220.00,1.41
4219.00,1.41
4218.00,1.41
4217.00,1.41
4216.00,1.42
4215.00,1.42
4214.00,1.42
4213.00,1.42
4212.00,1.42
4211.00,1.42
4210.00,1.42
4209.00,1.42
4208.00,1.42
4207.00,1.42
4206.00,1.43
4205.00,1.43
4204.00,1.43
4203.00,1.43
4202.00,1.43
4201.00,1.43
4200.00,1.43
4199.00,1.43
4198.00,1.43
4197.00,1.43
4196.00,1.43
4195.00,1.43
4194.00,1.43
4193.00,1.43
4192.00,1.43
4191.00,1.43
4190.00,1.43
4189.00,1.43
4188.00,1.43
4187.00,1.43
4186.00,1.43
4185.00,1.43
4184.00,1.43
4183.00,1.43
4182.00,1.43
4181.00,1.43
4180.00,1.43
4179.00,1.43
4178.00,1.43
4177.00,1.43
4176.00,1.43
4175.00,1.43
4174.00,1.43
4173.00,1.43
4172.00,1.43
4171.00,1.43
4170.00,1.43
4169.00,1.43
4168.00,1.44
4167.00,1.44
4166.00,1.44
4165.00,1.44
4164.00,1.44
4163.00,1.44
4162.00,1.44
4161.00,1.44
4160.00,1.44
4159.00,1.44
4158.00,1.44
4157.00,1.44
4156.00,1.44
4155.00,1.44
4154.00,1.45
4153.00,1.45
4152.00,1.45
4151.00,1.45
4150.00,1.45
4149.00,1.45
4148.00,1.45
4147.00,1.45
4146.00,1.45
4145.00,1.45
4144.00,1.45
4143.00,1.45
4142.00,1.46
4141.00,1.46
4140.00,1.46
4139.00,1.46
4138.00,1.46
4137.00,1.46
4136.00,1.46
4135.00,1.46
4134.00,1.46
4133.00,1.47
4132.00,1.47
4131.00,1.47
4130.00,1.47
4129.00,1.47
4128.00,1.47
4127.00,1.47
4126.00,1.47
4125.00,1.47
4124.00,1.47
4123.00,1.47
4122.00,1.47
4121.00,1.47
4120.00,1.47
4119.00,1.47
4118.00,1.47
4117.00,1.47
4116.00,1.47
4115.00,1.47
4114.00,1.47
4113.00,1.47
4112.00,1.47
4111.00,1.47
4110.00,1.47
4109.00,1.47
4108.00,1.48
4107.00,1.48
4106.00,1.48
4105.00,1.48
4104.00,1.48
4103.00,1.48
4102.00,1.49
4101.00,1.49
4100.00,1.49
4099.00,1.49
4098.00,1.49
4097.00,1.49
4096.00,1.50
4095.00,1.50
4094.00,1.50
4093.00,1.50
4092.00,1.50
4091.00,1.50
4090.00,1.50
4089.00,1.50
4088.00,1.50
4087.00,1.51
4086.00,1.51
4085.00,1.51
4084.00,1.51
4083.00,1.51
4082.00,1.51
4081.00,1.51
4080.00,1.51
4079.00,1.51
4078.00,1.51
4077.00,1.51
4076.00,1.51
4075.00,1.51
4074.00,1.51
4073.00,1.51
4072.00,1.51
4071.00,1.51
4070.00,1.51
4069.00,1.51
4068.00,1.51
4067.00,1.51
4066.00,1.51
4065.00,1.51
4064.00,1.51
4063.00,1.51
4062.00,1.50
4061.00,1.50
4060.00,1.50
4059.00,1.50
4058.00,1.50
4057.00,1.50
4056.00,1.50
4055.00,1.50
4054.00,1.50
4053.00,1.50
4052.00,1.50
4051.00,1.50
4050.00,1.50
4049.00,1.51
4048.00,1.51
4047.00,1.51
4046.00,1.51
4045.00,1.51
4044.00,1.51
4043.00,1.51
4042.00,1.51
4041.00,1.51
4040.00,1.51
4039.00,1.52
4038.00,1.52
4037.00,1.52
4036.00,1.52
4035.00,1.52
4034.00,1.53
4033.00,1.53
4032.00,1.53
4031.00,1.53
4030.00,1.53
4029.00,1.53
4028.00,1.54
4027.00,1.54
4026.00,1.54
4025.00,1.54
4024.00,1.54
4023.00,1.54
4022.00,1.54
4021.00,1.54
4020.00,1.54
4019.00,1.54
4018.00,1.54
4017.00,1.54
4016.00,1.54
4015.00,1.54
4014.00,1.55
4013.00,1.55
4012.00,1.55
4011.00,1.55
4010.00,1.56
4009.00,1.56
4008.00,1.56
4007.00,1.57
4006.00,1.57
4005.00,1.57
4004.00,1.58
4003.00,1.58
4002.00,1.58
4001.00,1.59
4000.00,1.59
