创建为新数据集,样品 562 用户 Administrator 日期 星期一, 七月 16 2018
cm-1,%T
10000.00,1.32
9999.00,1.32
9998.00,1.32
9997.00,1.31
9996.00,1.31
9995.00,1.31
9994.00,1.31
9993.00,1.31
9992.00,1.31
9991.00,1.31
9990.00,1.31
9989.00,1.31
9988.00,1.31
9987.00,1.31
9986.00,1.31
9985.00,1.31
9984.00,1.32
9983.00,1.32
9982.00,1.32
9981.00,1.32
9980.00,1.32
9979.00,1.32
9978.00,1.32
9977.00,1.32
9976.00,1.32
9975.00,1.32
9974.00,1.32
9973.00,1.32
9972.00,1.32
9971.00,1.32
9970.00,1.31
9969.00,1.31
9968.00,1.31
9967.00,1.31
9966.00,1.31
9965.00,1.31
9964.00,1.31
9963.00,1.31
9962.00,1.31
9961.00,1.31
9960.00,1.30
9959.00,1.30
9958.00,1.30
9957.00,1.30
9956.00,1.30
9955.00,1.30
9954.00,1.30
9953.00,1.30
9952.00,1.29
9951.00,1.29
9950.00,1.29
9949.00,1.29
9948.00,1.29
9947.00,1.29
9946.00,1.29
9945.00,1.29
9944.00,1.29
9943.00,1.29
9942.00,1.29
9941.00,1.29
9940.00,1.29
9939.00,1.29
9938.00,1.29
9937.00,1.29
9936.00,1.29
9935.00,1.29
9934.00,1.29
9933.00,1.29
9932.00,1.29
9931.00,1.29
9930.00,1.29
9929.00,1.29
9928.00,1.29
9927.00,1.29
9926.00,1.30
9925.00,1.30
9924.00,1.30
9923.00,1.30
9922.00,1.30
9921.00,1.30
9920.00,1.30
9919.00,1.30
9918.00,1.30
9917.00,1.30
9916.00,1.30
9915.00,1.30
9914.00,1.30
9913.00,1.30
9912.00,1.29
9911.00,1.29
9910.00,1.29
9909.00,1.29
9908.00,1.29
9907.00,1.29
9906.00,1.29
9905.00,1.29
9904.00,1.29
9903.00,1.29
9902.00,1.29
9901.00,1.29
9900.00,1.29
9899.00,1.29
9898.00,1.29
9897.00,1.29
9896.00,1.29
9895.00,1.30
9894.00,1.30
9893.00,1.30
9892.00,1.30
9891.00,1.30
9890.00,1.30
9889.00,1.30
9888.00,1.30
9887.00,1.30
9886.00,1.30
9885.00,1.30
9884.00,1.30
9883.00,1.30
9882.00,1.30
9881.00,1.30
9880.00,1.30
9879.00,1.30
9878.00,1.30
9877.00,1.30
9876.00,1.29
9875.00,1.29
9874.00,1.29
9873.00,1.29
9872.00,1.29
9871.00,1.29
9870.00,1.29
9869.00,1.29
9868.00,1.29
9867.00,1.29
9866.00,1.29
9865.00,1.29
9864.00,1.29
9863.00,1.29
9862.00,1.29
9861.00,1.29
9860.00,1.29
9859.00,1.29
9858.00,1.29
9857.00,1.29
9856.00,1.29
9855.00,1.29
9854.00,1.29
9853.00,1.29
9852.00,1.30
9851.00,1.30
9850.00,1.30
9849.00,1.30
9848.00,1.30
9847.00,1.30
9846.00,1.31
9845.00,1.31
9844.00,1.31
9843.00,1.31
9842.00,1.31
9841.00,1.31
9840.00,1.31
9839.00,1.31
9838.00,1.31
9837.00,1.31
9836.00,1.31
9835.00,1.31
9834.00,1.31
9833.00,1.31
9832.00,1.31
9831.00,1.31
9830.00,1.31
9829.00,1.30
9828.00,1.30
9827.00,1.30
9826.00,1.30
9825.00,1.30
9824.00,1.30
9823.00,1.30
9822.00,1.30
9821.00,1.30
9820.00,1.30
9819.00,1.30
9818.00,1.30
9817.00,1.30
9816.00,1.30
9815.00,1.30
9814.00,1.30
9813.00,1.30
9812.00,1.30
9811.00,1.30
9810.00,1.30
9809.00,1.30
9808.00,1.30
9807.00,1.30
9806.00,1.30
9805.00,1.30
9804.00,1.30
9803.00,1.30
9802.00,1.30
9801.00,1.30
9800.00,1.30
9799.00,1.30
9798.00,1.30
9797.00,1.30
9796.00,1.30
9795.00,1.29
9794.00,1.29
9793.00,1.29
9792.00,1.29
9791.00,1.29
9790.00,1.29
9789.00,1.29
9788.00,1.29
9787.00,1.29
9786.00,1.29
9785.00,1.29
9784.00,1.29
9783.00,1.29
9782.00,1.29
9781.00,1.29
9780.00,1.29
9779.00,1.30
9778.00,1.30
9777.00,1.30
9776.00,1.30
9775.00,1.30
9774.00,1.30
9773.00,1.30
9772.00,1.30
9771.00,1.30
9770.00,1.30
9769.00,1.30
9768.00,1.29
9767.00,1.29
9766.00,1.29
9765.00,1.29
9764.00,1.29
9763.00,1.29
9762.00,1.29
9761.00,1.29
9760.00,1.29
9759.00,1.29
9758.00,1.29
9757.00,1.29
9756.00,1.30
9755.00,1.30
9754.00,1.30
9753.00,1.30
9752.00,1.30
9751.00,1.30
9750.00,1.31
9749.00,1.31
9748.00,1.31
9747.00,1.31
9746.00,1.31
9745.00,1.31
9744.00,1.31
9743.00,1.31
9742.00,1.31
9741.00,1.31
9740.00,1.31
9739.00,1.31
9738.00,1.31
9737.00,1.31
9736.00,1.31
9735.00,1.30
9734.00,1.30
9733.00,1.30
9732.00,1.30
9731.00,1.30
9730.00,1.30
9729.00,1.30
9728.00,1.30
9727.00,1.30
9726.00,1.30
9725.00,1.30
9724.00,1.30
9723.00,1.30
9722.00,1.30
9721.00,1.30
9720.00,1.29
9719.00,1.29
9718.00,1.29
9717.00,1.29
9716.00,1.29
9715.00,1.29
9714.00,1.29
9713.00,1.29
9712.00,1.29
9711.00,1.29
9710.00,1.29
9709.00,1.29
9708.00,1.29
9707.00,1.29
9706.00,1.29
9705.00,1.29
9704.00,1.29
9703.00,1.30
9702.00,1.30
9701.00,1.30
9700.00,1.30
9699.00,1.30
9698.00,1.30
9697.00,1.30
9696.00,1.30
9695.00,1.31
9694.00,1.31
9693.00,1.31
9692.00,1.31
9691.00,1.31
9690.00,1.31
9689.00,1.31
9688.00,1.31
9687.00,1.31
9686.00,1.31
9685.00,1.31
9684.00,1.31
9683.00,1.31
9682.00,1.31
9681.00,1.31
9680.00,1.31
9679.00,1.31
9678.00,1.31
9677.00,1.31
9676.00,1.31
9675.00,1.31
9674.00,1.30
9673.00,1.30
9672.00,1.30
9671.00,1.30
9670.00,1.30
9669.00,1.30
9668.00,1.30
9667.00,1.29
9666.00,1.29
9665.00,1.29
9664.00,1.29
9663.00,1.29
9662.00,1.29
9661.00,1.29
9660.00,1.29
9659.00,1.29
9658.00,1.29
9657.00,1.29
9656.00,1.29
9655.00,1.29
9654.00,1.29
9653.00,1.30
9652.00,1.30
9651.00,1.30
9650.00,1.30
9649.00,1.30
9648.00,1.30
9647.00,1.31
9646.00,1.31
9645.00,1.31
9644.00,1.31
9643.00,1.31
9642.00,1.31
9641.00,1.31
9640.00,1.31
9639.00,1.31
9638.00,1.31
9637.00,1.31
9636.00,1.31
9635.00,1.31
9634.00,1.30
9633.00,1.30
9632.00,1.30
9631.00,1.30
9630.00,1.30
9629.00,1.29
9628.00,1.29
9627.00,1.29
9626.00,1.29
9625.00,1.29
9624.00,1.29
9623.00,1.29
9622.00,1.29
9621.00,1.29
9620.00,1.30
9619.00,1.30
9618.00,1.30
9617.00,1.30
9616.00,1.30
9615.00,1.31
9614.00,1.31
9613.00,1.31
9612.00,1.31
9611.00,1.31
9610.00,1.31
9609.00,1.31
9608.00,1.31
9607.00,1.31
9606.00,1.31
9605.00,1.31
9604.00,1.31
9603.00,1.31
9602.00,1.31
9601.00,1.31
9600.00,1.31
9599.00,1.30
9598.00,1.30
9597.00,1.30
9596.00,1.30
9595.00,1.30
9594.00,1.30
9593.00,1.30
9592.00,1.29
9591.00,1.29
9590.00,1.29
9589.00,1.29
9588.00,1.29
9587.00,1.29
9586.00,1.29
9585.00,1.29
9584.00,1.29
9583.00,1.28
9582.00,1.28
9581.00,1.28
9580.00,1.28
9579.00,1.28
9578.00,1.28
9577.00,1.28
9576.00,1.29
9575.00,1.29
9574.00,1.29
9573.00,1.29
9572.00,1.29
9571.00,1.29
9570.00,1.29
9569.00,1.30
9568.00,1.30
9567.00,1.30
9566.00,1.30
9565.00,1.30
9564.00,1.30
9563.00,1.30
9562.00,1.30
9561.00,1.30
9560.00,1.30
9559.00,1.30
9558.00,1.30
9557.00,1.30
9556.00,1.30
9555.00,1.30
9554.00,1.30
9553.00,1.30
9552.00,1.30
9551.00,1.30
9550.00,1.30
9549.00,1.30
9548.00,1.30
9547.00,1.30
9546.00,1.30
9545.00,1.30
9544.00,1.30
9543.00,1.30
9542.00,1.31
9541.00,1.31
9540.00,1.31
9539.00,1.31
9538.00,1.31
9537.00,1.31
9536.00,1.31
9535.00,1.31
9534.00,1.31
9533.00,1.31
9532.00,1.31
9531.00,1.30
9530.00,1.30
9529.00,1.30
9528.00,1.30
9527.00,1.30
9526.00,1.30
9525.00,1.30
9524.00,1.30
9523.00,1.29
9522.00,1.29
9521.00,1.29
9520.00,1.29
9519.00,1.29
9518.00,1.29
9517.00,1.29
9516.00,1.29
9515.00,1.29
9514.00,1.29
9513.00,1.29
9512.00,1.29
9511.00,1.29
9510.00,1.29
9509.00,1.30
9508.00,1.30
9507.00,1.30
9506.00,1.30
9505.00,1.29
9504.00,1.29
9503.00,1.29
9502.00,1.29
9501.00,1.29
9500.00,1.29
9499.00,1.29
9498.00,1.29
9497.00,1.29
9496.00,1.29
9495.00,1.29
9494.00,1.29
9493.00,1.29
9492.00,1.29
9491.00,1.30
9490.00,1.30
9489.00,1.30
9488.00,1.30
9487.00,1.30
9486.00,1.30
9485.00,1.30
9484.00,1.31
9483.00,1.31
9482.00,1.31
9481.00,1.31
9480.00,1.31
9479.00,1.31
9478.00,1.31
9477.00,1.31
9476.00,1.31
9475.00,1.31
9474.00,1.31
9473.00,1.30
9472.00,1.30
9471.00,1.30
9470.00,1.30
9469.00,1.30
9468.00,1.30
9467.00,1.30
9466.00,1.30
9465.00,1.30
9464.00,1.30
9463.00,1.30
9462.00,1.30
9461.00,1.30
9460.00,1.30
9459.00,1.30
9458.00,1.30
9457.00,1.30
9456.00,1.30
9455.00,1.30
9454.00,1.30
9453.00,1.30
9452.00,1.30
9451.00,1.30
9450.00,1.30
9449.00,1.30
9448.00,1.30
9447.00,1.30
9446.00,1.30
9445.00,1.30
9444.00,1.30
9443.00,1.30
9442.00,1.30
9441.00,1.29
9440.00,1.29
9439.00,1.29
9438.00,1.29
9437.00,1.29
9436.00,1.29
9435.00,1.28
9434.00,1.28
9433.00,1.28
9432.00,1.28
9431.00,1.28
9430.00,1.28
9429.00,1.28
9428.00,1.28
9427.00,1.28
9426.00,1.28
9425.00,1.28
9424.00,1.28
9423.00,1.28
9422.00,1.28
9421.00,1.29
9420.00,1.29
9419.00,1.29
9418.00,1.29
9417.00,1.30
9416.00,1.30
9415.00,1.30
9414.00,1.30
9413.00,1.30
9412.00,1.31
9411.00,1.31
9410.00,1.31
9409.00,1.31
9408.00,1.31
9407.00,1.31
9406.00,1.31
9405.00,1.32
9404.00,1.32
9403.00,1.32
9402.00,1.32
9401.00,1.32
9400.00,1.32
9399.00,1.32
9398.00,1.32
9397.00,1.32
9396.00,1.32
9395.00,1.32
9394.00,1.32
9393.00,1.32
9392.00,1.32
9391.00,1.31
9390.00,1.31
9389.00,1.31
9388.00,1.31
9387.00,1.31
9386.00,1.31
9385.00,1.31
9384.00,1.30
9383.00,1.30
9382.00,1.30
9381.00,1.30
9380.00,1.30
9379.00,1.30
9378.00,1.29
9377.00,1.29
9376.00,1.29
9375.00,1.29
9374.00,1.29
9373.00,1.29
9372.00,1.29
9371.00,1.29
9370.00,1.29
9369.00,1.29
9368.00,1.29
9367.00,1.29
9366.00,1.29
9365.00,1.28
9364.00,1.28
9363.00,1.28
9362.00,1.28
9361.00,1.28
9360.00,1.28
9359.00,1.28
9358.00,1.28
9357.00,1.28
9356.00,1.28
9355.00,1.28
9354.00,1.28
9353.00,1.28
9352.00,1.28
9351.00,1.28
9350.00,1.28
9349.00,1.28
9348.00,1.28
9347.00,1.28
9346.00,1.28
9345.00,1.28
9344.00,1.28
9343.00,1.28
9342.00,1.28
9341.00,1.29
9340.00,1.29
9339.00,1.29
9338.00,1.29
9337.00,1.29
9336.00,1.29
9335.00,1.29
9334.00,1.29
9333.00,1.29
9332.00,1.29
9331.00,1.29
9330.00,1.30
9329.00,1.30
9328.00,1.30
9327.00,1.30
9326.00,1.30
9325.00,1.30
9324.00,1.30
9323.00,1.30
9322.00,1.30
9321.00,1.30
9320.00,1.30
9319.00,1.30
9318.00,1.30
9317.00,1.30
9316.00,1.30
9315.00,1.30
9314.00,1.30
9313.00,1.30
9312.00,1.29
9311.00,1.29
9310.00,1.29
9309.00,1.29
9308.00,1.29
9307.00,1.29
9306.00,1.29
9305.00,1.29
9304.00,1.29
9303.00,1.29
9302.00,1.29
9301.00,1.30
9300.00,1.30
9299.00,1.30
9298.00,1.30
9297.00,1.30
9296.00,1.30
9295.00,1.30
9294.00,1.30
9293.00,1.30
9292.00,1.30
9291.00,1.30
9290.00,1.30
9289.00,1.30
9288.00,1.30
9287.00,1.30
9286.00,1.29
9285.00,1.29
9284.00,1.29
9283.00,1.29
9282.00,1.29
9281.00,1.28
9280.00,1.28
9279.00,1.28
9278.00,1.28
9277.00,1.28
9276.00,1.28
9275.00,1.28
9274.00,1.28
9273.00,1.28
9272.00,1.28
9271.00,1.28
9270.00,1.28
9269.00,1.28
9268.00,1.28
9267.00,1.28
9266.00,1.28
9265.00,1.28
9264.00,1.28
9263.00,1.29
9262.00,1.29
9261.00,1.29
9260.00,1.29
9259.00,1.29
9258.00,1.29
9257.00,1.29
9256.00,1.29
9255.00,1.29
9254.00,1.29
9253.00,1.30
9252.00,1.30
9251.00,1.30
9250.00,1.30
9249.00,1.30
9248.00,1.30
9247.00,1.30
9246.00,1.30
9245.00,1.30
9244.00,1.30
9243.00,1.30
9242.00,1.30
9241.00,1.30
9240.00,1.30
9239.00,1.30
9238.00,1.30
9237.00,1.30
9236.00,1.30
9235.00,1.30
9234.00,1.30
9233.00,1.30
9232.00,1.30
9231.00,1.31
9230.00,1.31
9229.00,1.31
9228.00,1.31
9227.00,1.31
9226.00,1.31
9225.00,1.31
9224.00,1.30
9223.00,1.30
9222.00,1.30
9221.00,1.30
9220.00,1.30
9219.00,1.30
9218.00,1.30
9217.00,1.30
9216.00,1.30
9215.00,1.30
9214.00,1.30
9213.00,1.30
9212.00,1.30
9211.00,1.30
9210.00,1.30
9209.00,1.30
9208.00,1.30
9207.00,1.30
9206.00,1.30
9205.00,1.30
9204.00,1.30
9203.00,1.30
9202.00,1.30
9201.00,1.30
9200.00,1.30
9199.00,1.30
9198.00,1.30
9197.00,1.30
9196.00,1.30
9195.00,1.30
9194.00,1.30
9193.00,1.30
9192.00,1.30
9191.00,1.29
9190.00,1.29
9189.00,1.29
9188.00,1.29
9187.00,1.29
9186.00,1.29
9185.00,1.29
9184.00,1.29
9183.00,1.29
9182.00,1.29
9181.00,1.29
9180.00,1.29
9179.00,1.29
9178.00,1.29
9177.00,1.29
9176.00,1.29
9175.00,1.29
9174.00,1.29
9173.00,1.29
9172.00,1.29
9171.00,1.29
9170.00,1.29
9169.00,1.29
9168.00,1.29
9167.00,1.29
9166.00,1.29
9165.00,1.29
9164.00,1.29
9163.00,1.29
9162.00,1.29
9161.00,1.29
9160.00,1.29
9159.00,1.29
9158.00,1.29
9157.00,1.29
9156.00,1.29
9155.00,1.29
9154.00,1.29
9153.00,1.29
9152.00,1.29
9151.00,1.29
9150.00,1.29
9149.00,1.29
9148.00,1.29
9147.00,1.29
9146.00,1.29
9145.00,1.29
9144.00,1.29
9143.00,1.29
9142.00,1.29
9141.00,1.29
9140.00,1.29
9139.00,1.29
9138.00,1.29
9137.00,1.29
9136.00,1.29
9135.00,1.29
9134.00,1.29
9133.00,1.29
9132.00,1.29
9131.00,1.29
9130.00,1.29
9129.00,1.29
9128.00,1.29
9127.00,1.29
9126.00,1.29
9125.00,1.29
9124.00,1.30
9123.00,1.30
9122.00,1.30
9121.00,1.30
9120.00,1.30
9119.00,1.30
9118.00,1.30
9117.00,1.30
9116.00,1.30
9115.00,1.30
9114.00,1.30
9113.00,1.30
9112.00,1.30
9111.00,1.30
9110.00,1.30
9109.00,1.30
9108.00,1.30
9107.00,1.30
9106.00,1.30
9105.00,1.30
9104.00,1.30
9103.00,1.30
9102.00,1.30
9101.00,1.30
9100.00,1.30
9099.00,1.30
9098.00,1.30
9097.00,1.30
9096.00,1.30
9095.00,1.30
9094.00,1.30
9093.00,1.30
9092.00,1.30
9091.00,1.29
9090.00,1.29
9089.00,1.29
9088.00,1.29
9087.00,1.29
9086.00,1.29
9085.00,1.29
9084.00,1.29
9083.00,1.29
9082.00,1.29
9081.00,1.29
9080.00,1.29
9079.00,1.29
9078.00,1.29
9077.00,1.29
9076.00,1.29
9075.00,1.29
9074.00,1.29
9073.00,1.29
9072.00,1.29
9071.00,1.29
9070.00,1.29
9069.00,1.29
9068.00,1.29
9067.00,1.29
9066.00,1.29
9065.00,1.29
9064.00,1.30
9063.00,1.30
9062.00,1.30
9061.00,1.30
9060.00,1.30
9059.00,1.30
9058.00,1.30
9057.00,1.30
9056.00,1.30
9055.00,1.30
9054.00,1.30
9053.00,1.30
9052.00,1.30
9051.00,1.30
9050.00,1.29
9049.00,1.29
9048.00,1.29
9047.00,1.29
9046.00,1.29
9045.00,1.29
9044.00,1.29
9043.00,1.29
9042.00,1.29
9041.00,1.29
9040.00,1.29
9039.00,1.30
9038.00,1.30
9037.00,1.30
9036.00,1.30
9035.00,1.30
9034.00,1.30
9033.00,1.30
9032.00,1.30
9031.00,1.30
9030.00,1.30
9029.00,1.30
9028.00,1.30
9027.00,1.30
9026.00,1.30
9025.00,1.30
9024.00,1.30
9023.00,1.30
9022.00,1.30
9021.00,1.30
9020.00,1.30
9019.00,1.30
9018.00,1.30
9017.00,1.30
9016.00,1.30
9015.00,1.30
9014.00,1.31
9013.00,1.31
9012.00,1.31
9011.00,1.31
9010.00,1.31
9009.00,1.31
9008.00,1.31
9007.00,1.31
9006.00,1.30
9005.00,1.30
9004.00,1.30
9003.00,1.30
9002.00,1.30
9001.00,1.30
9000.00,1.30
8999.00,1.30
8998.00,1.30
8997.00,1.30
8996.00,1.30
8995.00,1.30
8994.00,1.30
8993.00,1.30
8992.00,1.30
8991.00,1.30
8990.00,1.30
8989.00,1.30
8988.00,1.30
8987.00,1.30
8986.00,1.30
8985.00,1.31
8984.00,1.31
8983.00,1.31
8982.00,1.31
8981.00,1.31
8980.00,1.31
8979.00,1.31
8978.00,1.31
8977.00,1.32
8976.00,1.32
8975.00,1.32
8974.00,1.32
8973.00,1.32
8972.00,1.32
8971.00,1.32
8970.00,1.32
8969.00,1.31
8968.00,1.31
8967.00,1.31
8966.00,1.31
8965.00,1.31
8964.00,1.31
8963.00,1.31
8962.00,1.31
8961.00,1.31
8960.00,1.30
8959.00,1.30
8958.00,1.30
8957.00,1.30
8956.00,1.30
8955.00,1.30
8954.00,1.30
8953.00,1.30
8952.00,1.30
8951.00,1.30
8950.00,1.30
8949.00,1.30
8948.00,1.30
8947.00,1.30
8946.00,1.30
8945.00,1.30
8944.00,1.30
8943.00,1.30
8942.00,1.30
8941.00,1.30
8940.00,1.30
8939.00,1.30
8938.00,1.30
8937.00,1.30
8936.00,1.30
8935.00,1.30
8934.00,1.30
8933.00,1.30
8932.00,1.30
8931.00,1.30
8930.00,1.30
8929.00,1.30
8928.00,1.30
8927.00,1.30
8926.00,1.30
8925.00,1.30
8924.00,1.30
8923.00,1.30
8922.00,1.30
8921.00,1.30
8920.00,1.30
8919.00,1.30
8918.00,1.30
8917.00,1.30
8916.00,1.30
8915.00,1.30
8914.00,1.29
8913.00,1.29
8912.00,1.29
8911.00,1.29
8910.00,1.29
8909.00,1.29
8908.00,1.29
8907.00,1.29
8906.00,1.29
8905.00,1.29
8904.00,1.29
8903.00,1.29
8902.00,1.29
8901.00,1.29
8900.00,1.29
8899.00,1.29
8898.00,1.29
8897.00,1.29
8896.00,1.29
8895.00,1.29
8894.00,1.29
8893.00,1.29
8892.00,1.29
8891.00,1.29
8890.00,1.29
8889.00,1.29
8888.00,1.29
8887.00,1.29
8886.00,1.29
8885.00,1.29
8884.00,1.29
8883.00,1.29
8882.00,1.29
8881.00,1.29
8880.00,1.30
8879.00,1.30
8878.00,1.30
8877.00,1.30
8876.00,1.30
8875.00,1.30
8874.00,1.30
8873.00,1.30
8872.00,1.30
8871.00,1.30
8870.00,1.30
8869.00,1.30
8868.00,1.30
8867.00,1.30
8866.00,1.30
8865.00,1.30
8864.00,1.30
8863.00,1.30
8862.00,1.30
8861.00,1.30
8860.00,1.30
8859.00,1.30
8858.00,1.30
8857.00,1.30
8856.00,1.30
8855.00,1.30
8854.00,1.30
8853.00,1.30
8852.00,1.30
8851.00,1.30
8850.00,1.30
8849.00,1.30
8848.00,1.30
8847.00,1.30
8846.00,1.30
8845.00,1.30
8844.00,1.30
8843.00,1.30
8842.00,1.30
8841.00,1.30
8840.00,1.30
8839.00,1.30
8838.00,1.30
8837.00,1.30
8836.00,1.29
8835.00,1.29
8834.00,1.29
8833.00,1.29
8832.00,1.29
8831.00,1.29
8830.00,1.29
8829.00,1.28
8828.00,1.28
8827.00,1.28
8826.00,1.28
8825.00,1.27
8824.00,1.27
8823.00,1.27
8822.00,1.27
8821.00,1.27
8820.00,1.27
8819.00,1.26
8818.00,1.26
8817.00,1.26
8816.00,1.26
8815.00,1.26
8814.00,1.26
8813.00,1.26
8812.00,1.26
8811.00,1.26
8810.00,1.26
8809.00,1.26
8808.00,1.26
8807.00,1.26
8806.00,1.27
8805.00,1.27
8804.00,1.27
8803.00,1.27
8802.00,1.27
8801.00,1.27
8800.00,1.27
8799.00,1.27
8798.00,1.27
8797.00,1.27
8796.00,1.27
8795.00,1.28
8794.00,1.28
8793.00,1.28
8792.00,1.28
8791.00,1.28
8790.00,1.28
8789.00,1.28
8788.00,1.28
8787.00,1.28
8786.00,1.28
8785.00,1.28
8784.00,1.28
8783.00,1.28
8782.00,1.28
8781.00,1.28
8780.00,1.28
8779.00,1.27
8778.00,1.27
8777.00,1.27
8776.00,1.27
8775.00,1.27
8774.00,1.27
8773.00,1.26
8772.00,1.26
8771.00,1.26
8770.00,1.26
8769.00,1.26
8768.00,1.25
8767.00,1.25
8766.00,1.25
8765.00,1.25
8764.00,1.25
8763.00,1.25
8762.00,1.25
8761.00,1.25
8760.00,1.25
8759.00,1.25
8758.00,1.26
8757.00,1.26
8756.00,1.26
8755.00,1.26
8754.00,1.26
8753.00,1.26
8752.00,1.26
8751.00,1.26
8750.00,1.26
8749.00,1.26
8748.00,1.26
8747.00,1.26
8746.00,1.26
8745.00,1.26
8744.00,1.26
8743.00,1.26
8742.00,1.25
8741.00,1.25
8740.00,1.25
8739.00,1.25
8738.00,1.25
8737.00,1.25
8736.00,1.25
8735.00,1.25
8734.00,1.25
8733.00,1.24
8732.00,1.24
8731.00,1.24
8730.00,1.24
8729.00,1.24
8728.00,1.24
8727.00,1.24
8726.00,1.24
8725.00,1.24
8724.00,1.24
8723.00,1.24
8722.00,1.24
8721.00,1.24
8720.00,1.24
8719.00,1.24
8718.00,1.24
8717.00,1.24
8716.00,1.24
8715.00,1.24
8714.00,1.24
8713.00,1.24
8712.00,1.24
8711.00,1.24
8710.00,1.24
8709.00,1.24
8708.00,1.24
8707.00,1.24
8706.00,1.25
8705.00,1.25
8704.00,1.25
8703.00,1.25
8702.00,1.25
8701.00,1.25
8700.00,1.24
8699.00,1.24
8698.00,1.24
8697.00,1.24
8696.00,1.24
8695.00,1.24
8694.00,1.24
8693.00,1.24
8692.00,1.24
8691.00,1.23
8690.00,1.23
8689.00,1.23
8688.00,1.23
8687.00,1.23
8686.00,1.23
8685.00,1.23
8684.00,1.23
8683.00,1.23
8682.00,1.23
8681.00,1.23
8680.00,1.23
8679.00,1.23
8678.00,1.23
8677.00,1.23
8676.00,1.23
8675.00,1.23
8674.00,1.23
8673.00,1.23
8672.00,1.23
8671.00,1.24
8670.00,1.24
8669.00,1.24
8668.00,1.24
8667.00,1.24
8666.00,1.24
8665.00,1.24
8664.00,1.24
8663.00,1.25
8662.00,1.25
8661.00,1.25
8660.00,1.25
8659.00,1.25
8658.00,1.25
8657.00,1.25
8656.00,1.25
8655.00,1.25
8654.00,1.25
8653.00,1.25
8652.00,1.25
8651.00,1.25
8650.00,1.25
8649.00,1.25
8648.00,1.25
8647.00,1.25
8646.00,1.25
8645.00,1.25
8644.00,1.25
8643.00,1.25
8642.00,1.25
8641.00,1.24
8640.00,1.24
8639.00,1.24
8638.00,1.24
8637.00,1.24
8636.00,1.23
8635.00,1.23
8634.00,1.23
8633.00,1.23
8632.00,1.22
8631.00,1.22
8630.00,1.22
8629.00,1.22
8628.00,1.22
8627.00,1.22
8626.00,1.22
8625.00,1.21
8624.00,1.21
8623.00,1.21
8622.00,1.21
8621.00,1.22
8620.00,1.22
8619.00,1.22
8618.00,1.22
8617.00,1.22
8616.00,1.22
8615.00,1.22
8614.00,1.22
8613.00,1.22
8612.00,1.22
8611.00,1.22
8610.00,1.22
8609.00,1.22
8608.00,1.22
8607.00,1.22
8606.00,1.22
8605.00,1.22
8604.00,1.22
8603.00,1.22
8602.00,1.22
8601.00,1.22
8600.00,1.21
8599.00,1.21
8598.00,1.21
8597.00,1.21
8596.00,1.21
8595.00,1.21
8594.00,1.21
8593.00,1.21
8592.00,1.21
8591.00,1.21
8590.00,1.21
8589.00,1.21
8588.00,1.21
8587.00,1.21
8586.00,1.21
8585.00,1.21
8584.00,1.21
8583.00,1.21
8582.00,1.21
8581.00,1.21
8580.00,1.20
8579.00,1.20
8578.00,1.20
8577.00,1.20
8576.00,1.20
8575.00,1.20
8574.00,1.20
8573.00,1.20
8572.00,1.20
8571.00,1.20
8570.00,1.20
8569.00,1.20
8568.00,1.20
8567.00,1.20
8566.00,1.20
8565.00,1.20
8564.00,1.20
8563.00,1.20
8562.00,1.20
8561.00,1.21
8560.00,1.21
8559.00,1.21
8558.00,1.21
8557.00,1.21
8556.00,1.21
8555.00,1.20
8554.00,1.20
8553.00,1.20
8552.00,1.20
8551.00,1.20
8550.00,1.20
8549.00,1.20
8548.00,1.20
8547.00,1.20
8546.00,1.20
8545.00,1.20
8544.00,1.20
8543.00,1.20
8542.00,1.20
8541.00,1.20
8540.00,1.20
8539.00,1.20
8538.00,1.20
8537.00,1.19
8536.00,1.19
8535.00,1.19
8534.00,1.19
8533.00,1.19
8532.00,1.19
8531.00,1.19
8530.00,1.19
8529.00,1.19
8528.00,1.19
8527.00,1.19
8526.00,1.18
8525.00,1.18
8524.00,1.18
8523.00,1.18
8522.00,1.18
8521.00,1.18
8520.00,1.18
8519.00,1.18
8518.00,1.18
8517.00,1.18
8516.00,1.18
8515.00,1.18
8514.00,1.18
8513.00,1.18
8512.00,1.18
8511.00,1.18
8510.00,1.18
8509.00,1.18
8508.00,1.18
8507.00,1.18
8506.00,1.18
8505.00,1.18
8504.00,1.18
8503.00,1.18
8502.00,1.18
8501.00,1.18
8500.00,1.18
8499.00,1.18
8498.00,1.18
8497.00,1.18
8496.00,1.18
8495.00,1.18
8494.00,1.18
8493.00,1.18
8492.00,1.17
8491.00,1.17
8490.00,1.17
8489.00,1.17
8488.00,1.17
8487.00,1.17
8486.00,1.17
8485.00,1.16
8484.00,1.16
8483.00,1.16
8482.00,1.16
8481.00,1.16
8480.00,1.15
8479.00,1.15
8478.00,1.15
8477.00,1.15
8476.00,1.15
8475.00,1.15
8474.00,1.15
8473.00,1.15
8472.00,1.15
8471.00,1.15
8470.00,1.15
8469.00,1.15
8468.00,1.15
8467.00,1.15
8466.00,1.15
8465.00,1.15
8464.00,1.15
8463.00,1.15
8462.00,1.15
8461.00,1.15
8460.00,1.15
8459.00,1.15
8458.00,1.15
8457.00,1.15
8456.00,1.15
8455.00,1.15
8454.00,1.15
8453.00,1.15
8452.00,1.15
8451.00,1.15
8450.00,1.15
8449.00,1.15
8448.00,1.15
8447.00,1.15
8446.00,1.15
8445.00,1.15
8444.00,1.15
8443.00,1.14
8442.00,1.14
8441.00,1.14
8440.00,1.14
8439.00,1.14
8438.00,1.14
8437.00,1.14
8436.00,1.14
8435.00,1.14
8434.00,1.14
8433.00,1.14
8432.00,1.14
8431.00,1.14
8430.00,1.14
8429.00,1.15
8428.00,1.15
8427.00,1.15
8426.00,1.15
8425.00,1.15
8424.00,1.15
8423.00,1.15
8422.00,1.15
8421.00,1.15
8420.00,1.16
8419.00,1.16
8418.00,1.16
8417.00,1.16
8416.00,1.16
8415.00,1.16
8414.00,1.16
8413.00,1.16
8412.00,1.16
8411.00,1.16
8410.00,1.16
8409.00,1.16
8408.00,1.16
8407.00,1.16
8406.00,1.16
8405.00,1.17
8404.00,1.17
8403.00,1.17
8402.00,1.17
8401.00,1.17
8400.00,1.17
8399.00,1.17
8398.00,1.17
8397.00,1.17
8396.00,1.17
8395.00,1.17
8394.00,1.17
8393.00,1.17
8392.00,1.17
8391.00,1.17
8390.00,1.18
8389.00,1.18
8388.00,1.18
8387.00,1.18
8386.00,1.18
8385.00,1.18
8384.00,1.18
8383.00,1.18
8382.00,1.19
8381.00,1.19
8380.00,1.19
8379.00,1.19
8378.00,1.19
8377.00,1.19
8376.00,1.19
8375.00,1.19
8374.00,1.18
8373.00,1.18
8372.00,1.18
8371.00,1.18
8370.00,1.18
8369.00,1.18
8368.00,1.18
8367.00,1.18
8366.00,1.18
8365.00,1.17
8364.00,1.17
8363.00,1.17
8362.00,1.17
8361.00,1.17
8360.00,1.17
8359.00,1.17
8358.00,1.17
8357.00,1.17
8356.00,1.17
8355.00,1.17
8354.00,1.17
8353.00,1.17
8352.00,1.18
8351.00,1.18
8350.00,1.18
8349.00,1.18
8348.00,1.18
8347.00,1.18
8346.00,1.18
8345.00,1.18
8344.00,1.18
8343.00,1.19
8342.00,1.19
8341.00,1.19
8340.00,1.19
8339.00,1.19
8338.00,1.19
8337.00,1.19
8336.00,1.19
8335.00,1.19
8334.00,1.19
8333.00,1.19
8332.00,1.20
8331.00,1.20
8330.00,1.20
8329.00,1.20
8328.00,1.19
8327.00,1.19
8326.00,1.19
8325.00,1.19
8324.00,1.19
8323.00,1.19
8322.00,1.19
8321.00,1.19
8320.00,1.19
8319.00,1.19
8318.00,1.19
8317.00,1.19
8316.00,1.19
8315.00,1.19
8314.00,1.19
8313.00,1.19
8312.00,1.19
8311.00,1.19
8310.00,1.19
8309.00,1.19
8308.00,1.19
8307.00,1.19
8306.00,1.19
8305.00,1.19
8304.00,1.19
8303.00,1.19
8302.00,1.19
8301.00,1.19
8300.00,1.20
8299.00,1.20
8298.00,1.20
8297.00,1.20
8296.00,1.20
8295.00,1.20
8294.00,1.19
8293.00,1.19
8292.00,1.19
8291.00,1.19
8290.00,1.19
8289.00,1.19
8288.00,1.19
8287.00,1.19
8286.00,1.19
8285.00,1.19
8284.00,1.19
8283.00,1.19
8282.00,1.19
8281.00,1.19
8280.00,1.19
8279.00,1.19
8278.00,1.19
8277.00,1.19
8276.00,1.20
8275.00,1.20
8274.00,1.20
8273.00,1.20
8272.00,1.20
8271.00,1.20
8270.00,1.21
8269.00,1.21
8268.00,1.21
8267.00,1.21
8266.00,1.21
8265.00,1.21
8264.00,1.21
8263.00,1.21
8262.00,1.21
8261.00,1.21
8260.00,1.21
8259.00,1.21
8258.00,1.21
8257.00,1.21
8256.00,1.21
8255.00,1.21
8254.00,1.21
8253.00,1.21
8252.00,1.21
8251.00,1.21
8250.00,1.21
8249.00,1.21
8248.00,1.21
8247.00,1.21
8246.00,1.21
8245.00,1.21
8244.00,1.21
8243.00,1.21
8242.00,1.21
8241.00,1.22
8240.00,1.22
8239.00,1.22
8238.00,1.22
8237.00,1.22
8236.00,1.22
8235.00,1.22
8234.00,1.22
8233.00,1.22
8232.00,1.22
8231.00,1.22
8230.00,1.22
8229.00,1.22
8228.00,1.22
8227.00,1.22
8226.00,1.22
8225.00,1.22
8224.00,1.22
8223.00,1.22
8222.00,1.22
8221.00,1.22
8220.00,1.22
8219.00,1.22
8218.00,1.22
8217.00,1.22
8216.00,1.22
8215.00,1.22
8214.00,1.22
8213.00,1.22
8212.00,1.22
8211.00,1.22
8210.00,1.22
8209.00,1.22
8208.00,1.22
8207.00,1.22
8206.00,1.22
8205.00,1.22
8204.00,1.22
8203.00,1.22
8202.00,1.22
8201.00,1.22
8200.00,1.22
8199.00,1.22
8198.00,1.22
8197.00,1.22
8196.00,1.22
8195.00,1.22
8194.00,1.22
8193.00,1.22
8192.00,1.22
8191.00,1.22
8190.00,1.22
8189.00,1.22
8188.00,1.22
8187.00,1.22
8186.00,1.22
8185.00,1.22
8184.00,1.22
8183.00,1.22
8182.00,1.22
8181.00,1.22
8180.00,1.22
8179.00,1.23
8178.00,1.23
8177.00,1.23
8176.00,1.23
8175.00,1.23
8174.00,1.23
8173.00,1.23
8172.00,1.23
8171.00,1.23
8170.00,1.23
8169.00,1.23
8168.00,1.24
8167.00,1.24
8166.00,1.24
8165.00,1.24
8164.00,1.24
8163.00,1.24
8162.00,1.24
8161.00,1.24
8160.00,1.24
8159.00,1.24
8158.00,1.24
8157.00,1.24
8156.00,1.24
8155.00,1.24
8154.00,1.24
8153.00,1.24
8152.00,1.24
8151.00,1.24
8150.00,1.24
8149.00,1.24
8148.00,1.24
8147.00,1.24
8146.00,1.24
8145.00,1.24
8144.00,1.24
8143.00,1.24
8142.00,1.24
8141.00,1.24
8140.00,1.24
8139.00,1.24
8138.00,1.24
8137.00,1.24
8136.00,1.24
8135.00,1.24
8134.00,1.24
8133.00,1.24
8132.00,1.24
8131.00,1.24
8130.00,1.24
8129.00,1.24
8128.00,1.24
8127.00,1.24
8126.00,1.24
8125.00,1.24
8124.00,1.24
8123.00,1.24
8122.00,1.24
8121.00,1.24
8120.00,1.24
8119.00,1.24
8118.00,1.24
8117.00,1.24
8116.00,1.24
8115.00,1.24
8114.00,1.24
8113.00,1.24
8112.00,1.25
8111.00,1.25
8110.00,1.25
8109.00,1.25
8108.00,1.25
8107.00,1.25
8106.00,1.25
8105.00,1.25
8104.00,1.25
8103.00,1.25
8102.00,1.25
8101.00,1.25
8100.00,1.26
8099.00,1.26
8098.00,1.26
8097.00,1.26
8096.00,1.26
8095.00,1.26
8094.00,1.26
8093.00,1.26
8092.00,1.26
8091.00,1.26
8090.00,1.26
8089.00,1.26
8088.00,1.26
8087.00,1.26
8086.00,1.26
8085.00,1.26
8084.00,1.26
8083.00,1.26
8082.00,1.26
8081.00,1.26
8080.00,1.26
8079.00,1.26
8078.00,1.26
8077.00,1.26
8076.00,1.26
8075.00,1.26
8074.00,1.26
8073.00,1.26
8072.00,1.26
8071.00,1.26
8070.00,1.26
8069.00,1.26
8068.00,1.26
8067.00,1.26
8066.00,1.26
8065.00,1.26
8064.00,1.27
8063.00,1.27
8062.00,1.27
8061.00,1.27
8060.00,1.27
8059.00,1.27
8058.00,1.27
8057.00,1.27
8056.00,1.27
8055.00,1.27
8054.00,1.27
8053.00,1.27
8052.00,1.27
8051.00,1.27
8050.00,1.27
8049.00,1.27
8048.00,1.27
8047.00,1.27
8046.00,1.27
8045.00,1.27
8044.00,1.27
8043.00,1.27
8042.00,1.27
8041.00,1.27
8040.00,1.27
8039.00,1.27
8038.00,1.27
8037.00,1.27
8036.00,1.27
8035.00,1.27
8034.00,1.28
8033.00,1.28
8032.00,1.28
8031.00,1.28
8030.00,1.28
8029.00,1.28
8028.00,1.28
8027.00,1.28
8026.00,1.28
8025.00,1.28
8024.00,1.28
8023.00,1.28
8022.00,1.28
8021.00,1.28
8020.00,1.28
8019.00,1.28
8018.00,1.28
8017.00,1.28
8016.00,1.27
8015.00,1.27
8014.00,1.27
8013.00,1.27
8012.00,1.27
8011.00,1.27
8010.00,1.28
8009.00,1.28
8008.00,1.28
8007.00,1.28
8006.00,1.28
8005.00,1.28
8004.00,1.28
8003.00,1.28
8002.00,1.28
8001.00,1.28
8000.00,1.28
7999.00,1.28
7998.00,1.28
7997.00,1.28
7996.00,1.28
7995.00,1.29
7994.00,1.29
7993.00,1.29
7992.00,1.29
7991.00,1.29
7990.00,1.29
7989.00,1.29
7988.00,1.29
7987.00,1.29
7986.00,1.29
7985.00,1.29
7984.00,1.29
7983.00,1.29
7982.00,1.29
7981.00,1.29
7980.00,1.29
7979.00,1.29
7978.00,1.29
7977.00,1.29
7976.00,1.29
7975.00,1.29
7974.00,1.29
7973.00,1.29
7972.00,1.28
7971.00,1.28
7970.00,1.28
7969.00,1.28
7968.00,1.28
7967.00,1.28
7966.00,1.28
7965.00,1.28
7964.00,1.28
7963.00,1.28
7962.00,1.28
7961.00,1.28
7960.00,1.28
7959.00,1.28
7958.00,1.28
7957.00,1.28
7956.00,1.28
7955.00,1.28
7954.00,1.28
7953.00,1.28
7952.00,1.28
7951.00,1.29
7950.00,1.29
7949.00,1.29
7948.00,1.29
7947.00,1.29
7946.00,1.29
7945.00,1.29
7944.00,1.29
7943.00,1.29
7942.00,1.29
7941.00,1.29
7940.00,1.30
7939.00,1.30
7938.00,1.30
7937.00,1.30
7936.00,1.30
7935.00,1.30
7934.00,1.30
7933.00,1.30
7932.00,1.30
7931.00,1.30
7930.00,1.30
7929.00,1.30
7928.00,1.30
7927.00,1.30
7926.00,1.30
7925.00,1.30
7924.00,1.29
7923.00,1.29
7922.00,1.29
7921.00,1.29
7920.00,1.29
7919.00,1.29
7918.00,1.29
7917.00,1.29
7916.00,1.29
7915.00,1.29
7914.00,1.29
7913.00,1.29
7912.00,1.29
7911.00,1.29
7910.00,1.29
7909.00,1.29
7908.00,1.29
7907.00,1.29
7906.00,1.29
7905.00,1.29
7904.00,1.29
7903.00,1.29
7902.00,1.29
7901.00,1.29
7900.00,1.29
7899.00,1.29
7898.00,1.30
7897.00,1.30
7896.00,1.30
7895.00,1.30
7894.00,1.30
7893.00,1.30
7892.00,1.30
7891.00,1.30
7890.00,1.30
7889.00,1.30
7888.00,1.30
7887.00,1.30
7886.00,1.30
7885.00,1.30
7884.00,1.30
7883.00,1.30
7882.00,1.30
7881.00,1.29
7880.00,1.29
7879.00,1.29
7878.00,1.29
7877.00,1.29
7876.00,1.29
7875.00,1.29
7874.00,1.29
7873.00,1.29
7872.00,1.29
7871.00,1.29
7870.00,1.29
7869.00,1.29
7868.00,1.29
7867.00,1.29
7866.00,1.29
7865.00,1.29
7864.00,1.29
7863.00,1.30
7862.00,1.30
7861.00,1.30
7860.00,1.30
7859.00,1.30
7858.00,1.30
7857.00,1.30
7856.00,1.30
7855.00,1.30
7854.00,1.30
7853.00,1.30
7852.00,1.30
7851.00,1.30
7850.00,1.30
7849.00,1.30
7848.00,1.30
7847.00,1.30
7846.00,1.30
7845.00,1.30
7844.00,1.30
7843.00,1.30
7842.00,1.30
7841.00,1.30
7840.00,1.30
7839.00,1.31
7838.00,1.31
7837.00,1.31
7836.00,1.31
7835.00,1.31
7834.00,1.31
7833.00,1.31
7832.00,1.31
7831.00,1.31
7830.00,1.31
7829.00,1.31
7828.00,1.31
7827.00,1.31
7826.00,1.31
7825.00,1.31
7824.00,1.31
7823.00,1.31
7822.00,1.31
7821.00,1.31
7820.00,1.31
7819.00,1.31
7818.00,1.31
7817.00,1.31
7816.00,1.31
7815.00,1.31
7814.00,1.31
7813.00,1.31
7812.00,1.31
7811.00,1.31
7810.00,1.31
7809.00,1.31
7808.00,1.31
7807.00,1.31
7806.00,1.30
7805.00,1.30
7804.00,1.30
7803.00,1.30
7802.00,1.30
7801.00,1.30
7800.00,1.30
7799.00,1.30
7798.00,1.30
7797.00,1.30
7796.00,1.30
7795.00,1.30
7794.00,1.30
7793.00,1.30
7792.00,1.30
7791.00,1.31
7790.00,1.31
7789.00,1.31
7788.00,1.31
7787.00,1.31
7786.00,1.31
7785.00,1.31
7784.00,1.31
7783.00,1.31
7782.00,1.31
7781.00,1.31
7780.00,1.31
7779.00,1.31
7778.00,1.31
7777.00,1.31
7776.00,1.32
7775.00,1.32
7774.00,1.32
7773.00,1.32
7772.00,1.32
7771.00,1.32
7770.00,1.32
7769.00,1.32
7768.00,1.32
7767.00,1.32
7766.00,1.32
7765.00,1.32
7764.00,1.32
7763.00,1.32
7762.00,1.32
7761.00,1.32
7760.00,1.32
7759.00,1.31
7758.00,1.31
7757.00,1.31
7756.00,1.31
7755.00,1.31
7754.00,1.31
7753.00,1.31
7752.00,1.31
7751.00,1.31
7750.00,1.31
7749.00,1.31
7748.00,1.31
7747.00,1.31
7746.00,1.31
7745.00,1.31
7744.00,1.31
7743.00,1.31
7742.00,1.31
7741.00,1.31
7740.00,1.31
7739.00,1.31
7738.00,1.31
7737.00,1.31
7736.00,1.31
7735.00,1.31
7734.00,1.31
7733.00,1.32
7732.00,1.32
7731.00,1.32
7730.00,1.32
7729.00,1.32
7728.00,1.32
7727.00,1.32
7726.00,1.32
7725.00,1.32
7724.00,1.32
7723.00,1.32
7722.00,1.32
7721.00,1.32
7720.00,1.32
7719.00,1.32
7718.00,1.32
7717.00,1.32
7716.00,1.32
7715.00,1.32
7714.00,1.32
7713.00,1.32
7712.00,1.32
7711.00,1.32
7710.00,1.32
7709.00,1.32
7708.00,1.32
7707.00,1.32
7706.00,1.32
7705.00,1.32
7704.00,1.32
7703.00,1.32
7702.00,1.32
7701.00,1.32
7700.00,1.32
7699.00,1.32
7698.00,1.32
7697.00,1.32
7696.00,1.31
7695.00,1.31
7694.00,1.31
7693.00,1.31
7692.00,1.31
7691.00,1.31
7690.00,1.31
7689.00,1.31
7688.00,1.31
7687.00,1.31
7686.00,1.31
7685.00,1.31
7684.00,1.31
7683.00,1.31
7682.00,1.31
7681.00,1.31
7680.00,1.31
7679.00,1.31
7678.00,1.31
7677.00,1.31
7676.00,1.31
7675.00,1.31
7674.00,1.31
7673.00,1.31
7672.00,1.31
7671.00,1.31
7670.00,1.31
7669.00,1.31
7668.00,1.31
7667.00,1.31
7666.00,1.31
7665.00,1.31
7664.00,1.31
7663.00,1.31
7662.00,1.31
7661.00,1.31
7660.00,1.31
7659.00,1.31
7658.00,1.31
7657.00,1.31
7656.00,1.31
7655.00,1.31
7654.00,1.31
7653.00,1.31
7652.00,1.31
7651.00,1.31
7650.00,1.31
7649.00,1.31
7648.00,1.31
7647.00,1.30
7646.00,1.30
7645.00,1.30
7644.00,1.30
7643.00,1.30
7642.00,1.30
7641.00,1.31
7640.00,1.31
7639.00,1.31
7638.00,1.31
7637.00,1.31
7636.00,1.31
7635.00,1.31
7634.00,1.31
7633.00,1.31
7632.00,1.31
7631.00,1.31
7630.00,1.31
7629.00,1.31
7628.00,1.31
7627.00,1.31
7626.00,1.32
7625.00,1.32
7624.00,1.32
7623.00,1.32
7622.00,1.32
7621.00,1.32
7620.00,1.32
7619.00,1.32
7618.00,1.32
7617.00,1.32
7616.00,1.32
7615.00,1.32
7614.00,1.32
7613.00,1.32
7612.00,1.32
7611.00,1.32
7610.00,1.31
7609.00,1.31
7608.00,1.31
7607.00,1.31
7606.00,1.31
7605.00,1.31
7604.00,1.31
7603.00,1.31
7602.00,1.31
7601.00,1.31
7600.00,1.31
7599.00,1.31
7598.00,1.31
7597.00,1.31
7596.00,1.31
7595.00,1.31
7594.00,1.31
7593.00,1.31
7592.00,1.31
7591.00,1.31
7590.00,1.31
7589.00,1.31
7588.00,1.31
7587.00,1.31
7586.00,1.31
7585.00,1.31
7584.00,1.31
7583.00,1.31
7582.00,1.31
7581.00,1.31
7580.00,1.31
7579.00,1.31
7578.00,1.31
7577.00,1.31
7576.00,1.31
7575.00,1.31
7574.00,1.31
7573.00,1.31
7572.00,1.31
7571.00,1.31
7570.00,1.31
7569.00,1.31
7568.00,1.31
7567.00,1.31
7566.00,1.31
7565.00,1.31
7564.00,1.31
7563.00,1.31
7562.00,1.31
7561.00,1.31
7560.00,1.31
7559.00,1.31
7558.00,1.31
7557.00,1.31
7556.00,1.31
7555.00,1.31
7554.00,1.31
7553.00,1.31
7552.00,1.31
7551.00,1.32
7550.00,1.32
7549.00,1.32
7548.00,1.32
7547.00,1.32
7546.00,1.32
7545.00,1.32
7544.00,1.32
7543.00,1.32
7542.00,1.32
7541.00,1.32
7540.00,1.32
7539.00,1.31
7538.00,1.31
7537.00,1.31
7536.00,1.31
7535.00,1.31
7534.00,1.31
7533.00,1.31
7532.00,1.31
7531.00,1.31
7530.00,1.31
7529.00,1.31
7528.00,1.31
7527.00,1.31
7526.00,1.31
7525.00,1.31
7524.00,1.31
7523.00,1.31
7522.00,1.31
7521.00,1.31
7520.00,1.30
7519.00,1.30
7518.00,1.30
7517.00,1.30
7516.00,1.30
7515.00,1.30
7514.00,1.30
7513.00,1.30
7512.00,1.30
7511.00,1.30
7510.00,1.30
7509.00,1.30
7508.00,1.30
7507.00,1.30
7506.00,1.30
7505.00,1.30
7504.00,1.30
7503.00,1.30
7502.00,1.30
7501.00,1.30
7500.00,1.30
7499.00,1.30
7498.00,1.30
7497.00,1.30
7496.00,1.30
7495.00,1.30
7494.00,1.30
7493.00,1.30
7492.00,1.30
7491.00,1.30
7490.00,1.29
7489.00,1.29
7488.00,1.29
7487.00,1.29
7486.00,1.29
7485.00,1.29
7484.00,1.29
7483.00,1.29
7482.00,1.29
7481.00,1.29
7480.00,1.29
7479.00,1.29
7478.00,1.29
7477.00,1.28
7476.00,1.28
7475.00,1.28
7474.00,1.28
7473.00,1.28
7472.00,1.28
7471.00,1.28
7470.00,1.28
7469.00,1.28
7468.00,1.27
7467.00,1.27
7466.00,1.27
7465.00,1.27
7464.00,1.27
7463.00,1.27
7462.00,1.27
7461.00,1.27
7460.00,1.26
7459.00,1.26
7458.00,1.26
7457.00,1.26
7456.00,1.26
7455.00,1.26
7454.00,1.26
7453.00,1.26
7452.00,1.26
7451.00,1.26
7450.00,1.26
7449.00,1.26
7448.00,1.26
7447.00,1.26
7446.00,1.26
7445.00,1.26
7444.00,1.26
7443.00,1.26
7442.00,1.26
7441.00,1.25
7440.00,1.25
7439.00,1.25
7438.00,1.25
7437.00,1.25
7436.00,1.25
7435.00,1.25
7434.00,1.25
7433.00,1.25
7432.00,1.25
7431.00,1.25
7430.00,1.25
7429.00,1.25
7428.00,1.25
7427.00,1.25
7426.00,1.25
7425.00,1.25
7424.00,1.25
7423.00,1.25
7422.00,1.25
7421.00,1.25
7420.00,1.25
7419.00,1.25
7418.00,1.25
7417.00,1.25
7416.00,1.25
7415.00,1.24
7414.00,1.24
7413.00,1.24
7412.00,1.24
7411.00,1.24
7410.00,1.24
7409.00,1.24
7408.00,1.24
7407.00,1.24
7406.00,1.24
7405.00,1.24
7404.00,1.24
7403.00,1.23
7402.00,1.23
7401.00,1.23
7400.00,1.23
7399.00,1.23
7398.00,1.23
7397.00,1.23
7396.00,1.23
7395.00,1.23
7394.00,1.22
7393.00,1.22
7392.00,1.22
7391.00,1.22
7390.00,1.22
7389.00,1.22
7388.00,1.22
7387.00,1.22
7386.00,1.22
7385.00,1.22
7384.00,1.21
7383.00,1.21
7382.00,1.21
7381.00,1.21
7380.00,1.21
7379.00,1.21
7378.00,1.21
7377.00,1.21
7376.00,1.21
7375.00,1.21
7374.00,1.21
7373.00,1.21
7372.00,1.21
7371.00,1.21
7370.00,1.21
7369.00,1.21
7368.00,1.21
7367.00,1.21
7366.00,1.21
7365.00,1.21
7364.00,1.21
7363.00,1.21
7362.00,1.21
7361.00,1.21
7360.00,1.21
7359.00,1.21
7358.00,1.21
7357.00,1.21
7356.00,1.21
7355.00,1.21
7354.00,1.21
7353.00,1.20
7352.00,1.20
7351.00,1.20
7350.00,1.20
7349.00,1.20
7348.00,1.20
7347.00,1.20
7346.00,1.20
7345.00,1.20
7344.00,1.20
7343.00,1.20
7342.00,1.19
7341.00,1.19
7340.00,1.19
7339.00,1.19
7338.00,1.19
7337.00,1.19
7336.00,1.19
7335.00,1.19
7334.00,1.19
7333.00,1.19
7332.00,1.19
7331.00,1.19
7330.00,1.19
7329.00,1.19
7328.00,1.19
7327.00,1.19
7326.00,1.19
7325.00,1.19
7324.00,1.19
7323.00,1.19
7322.00,1.19
7321.00,1.19
7320.00,1.19
7319.00,1.19
7318.00,1.18
7317.00,1.18
7316.00,1.18
7315.00,1.18
7314.00,1.18
7313.00,1.18
7312.00,1.18
7311.00,1.18
7310.00,1.18
7309.00,1.18
7308.00,1.18
7307.00,1.18
7306.00,1.18
7305.00,1.18
7304.00,1.18
7303.00,1.18
7302.00,1.18
7301.00,1.18
7300.00,1.18
7299.00,1.18
7298.00,1.18
7297.00,1.17
7296.00,1.17
7295.00,1.17
7294.00,1.17
7293.00,1.17
7292.00,1.17
7291.00,1.17
7290.00,1.16
7289.00,1.16
7288.00,1.16
7287.00,1.16
7286.00,1.16
7285.00,1.16
7284.00,1.16
7283.00,1.15
7282.00,1.15
7281.00,1.15
7280.00,1.15
7279.00,1.15
7278.00,1.15
7277.00,1.15
7276.00,1.15
7275.00,1.15
7274.00,1.15
7273.00,1.15
7272.00,1.14
7271.00,1.14
7270.00,1.14
7269.00,1.14
7268.00,1.14
7267.00,1.14
7266.00,1.14
7265.00,1.14
7264.00,1.14
7263.00,1.14
7262.00,1.14
7261.00,1.14
7260.00,1.14
7259.00,1.13
7258.00,1.13
7257.00,1.13
7256.00,1.13
7255.00,1.13
7254.00,1.12
7253.00,1.12
7252.00,1.12
7251.00,1.12
7250.00,1.11
7249.00,1.11
7248.00,1.11
7247.00,1.11
7246.00,1.11
7245.00,1.10
7244.00,1.10
7243.00,1.10
7242.00,1.10
7241.00,1.09
7240.00,1.09
7239.00,1.09
7238.00,1.09
7237.00,1.09
7236.00,1.08
7235.00,1.08
7234.00,1.08
7233.00,1.07
7232.00,1.07
7231.00,1.07
7230.00,1.07
7229.00,1.06
7228.00,1.06
7227.00,1.06
7226.00,1.05
7225.00,1.05
7224.00,1.05
7223.00,1.05
7222.00,1.04
7221.00,1.04
7220.00,1.04
7219.00,1.03
7218.00,1.03
7217.00,1.03
7216.00,1.03
7215.00,1.02
7214.00,1.02
7213.00,1.02
7212.00,1.01
7211.00,1.01
7210.00,1.01
7209.00,1.00
7208.00,1.00
7207.00,1.00
7206.00,0.99
7205.00,0.99
7204.00,0.99
7203.00,0.99
7202.00,0.98
7201.00,0.98
7200.00,0.98
7199.00,0.98
7198.00,0.97
7197.00,0.97
7196.00,0.97
7195.00,0.97
7194.00,0.96
7193.00,0.96
7192.00,0.96
7191.00,0.96
7190.00,0.95
7189.00,0.95
7188.00,0.95
7187.00,0.95
7186.00,0.94
7185.00,0.94
7184.00,0.94
7183.00,0.94
7182.00,0.93
7181.00,0.93
7180.00,0.93
7179.00,0.93
7178.00,0.93
7177.00,0.93
7176.00,0.92
7175.00,0.92
7174.00,0.92
7173.00,0.92
7172.00,0.92
7171.00,0.91
7170.00,0.91
7169.00,0.91
7168.00,0.91
7167.00,0.91
7166.00,0.90
7165.00,0.90
7164.00,0.90
7163.00,0.90
7162.00,0.89
7161.00,0.89
7160.00,0.89
7159.00,0.89
7158.00,0.88
7157.00,0.88
7156.00,0.88
7155.00,0.88
7154.00,0.87
7153.00,0.87
7152.00,0.87
7151.00,0.87
7150.00,0.86
7149.00,0.86
7148.00,0.86
7147.00,0.86
7146.00,0.85
7145.00,0.85
7144.00,0.85
7143.00,0.85
7142.00,0.84
7141.00,0.84
7140.00,0.84
7139.00,0.84
7138.00,0.83
7137.00,0.83
7136.00,0.83
7135.00,0.83
7134.00,0.83
7133.00,0.83
7132.00,0.82
7131.00,0.82
7130.00,0.82
7129.00,0.82
7128.00,0.82
7127.00,0.82
7126.00,0.81
7125.00,0.81
7124.00,0.81
7123.00,0.81
7122.00,0.80
7121.00,0.80
7120.00,0.80
7119.00,0.80
7118.00,0.79
7117.00,0.79
7116.00,0.79
7115.00,0.79
7114.00,0.78
7113.00,0.78
7112.00,0.78
7111.00,0.78
7110.00,0.78
7109.00,0.77
7108.00,0.77
7107.00,0.77
7106.00,0.77
7105.00,0.77
7104.00,0.77
7103.00,0.77
7102.00,0.76
7101.00,0.76
7100.00,0.76
7099.00,0.76
7098.00,0.76
7097.00,0.76
7096.00,0.76
7095.00,0.75
7094.00,0.75
7093.00,0.75
7092.00,0.75
7091.00,0.75
7090.00,0.75
7089.00,0.75
7088.00,0.74
7087.00,0.74
7086.00,0.74
7085.00,0.74
7084.00,0.74
7083.00,0.74
7082.00,0.74
7081.00,0.74
7080.00,0.74
7079.00,0.74
7078.00,0.73
7077.00,0.73
7076.00,0.73
7075.00,0.73
7074.00,0.73
7073.00,0.73
7072.00,0.73
7071.00,0.73
7070.00,0.73
7069.00,0.73
7068.00,0.73
7067.00,0.72
7066.00,0.72
7065.00,0.72
7064.00,0.72
7063.00,0.72
7062.00,0.72
7061.00,0.72
7060.00,0.72
7059.00,0.72
7058.00,0.71
7057.00,0.71
7056.00,0.71
7055.00,0.71
7054.00,0.71
7053.00,0.71
7052.00,0.71
7051.00,0.71
7050.00,0.71
7049.00,0.70
7048.00,0.70
7047.00,0.70
7046.00,0.70
7045.00,0.70
7044.00,0.70
7043.00,0.70
7042.00,0.70
7041.00,0.70
7040.00,0.70
7039.00,0.70
7038.00,0.69
7037.00,0.69
7036.00,0.69
7035.00,0.69
7034.00,0.69
7033.00,0.69
7032.00,0.69
7031.00,0.69
7030.00,0.69
7029.00,0.69
7028.00,0.69
7027.00,0.69
7026.00,0.69
7025.00,0.69
7024.00,0.69
7023.00,0.69
7022.00,0.69
7021.00,0.69
7020.00,0.69
7019.00,0.68
7018.00,0.68
7017.00,0.68
7016.00,0.68
7015.00,0.68
7014.00,0.68
7013.00,0.68
7012.00,0.68
7011.00,0.68
7010.00,0.68
7009.00,0.68
7008.00,0.68
7007.00,0.68
7006.00,0.68
7005.00,0.67
7004.00,0.67
7003.00,0.67
7002.00,0.67
7001.00,0.67
7000.00,0.67
6999.00,0.67
6998.00,0.67
6997.00,0.67
6996.00,0.67
6995.00,0.67
6994.00,0.67
6993.00,0.67
6992.00,0.67
6991.00,0.67
6990.00,0.67
6989.00,0.67
6988.00,0.67
6987.00,0.67
6986.00,0.67
6985.00,0.67
6984.00,0.67
6983.00,0.67
6982.00,0.67
6981.00,0.67
6980.00,0.67
6979.00,0.66
6978.00,0.66
6977.00,0.66
6976.00,0.66
6975.00,0.66
6974.00,0.66
6973.00,0.66
6972.00,0.66
6971.00,0.66
6970.00,0.66
6969.00,0.66
6968.00,0.66
6967.00,0.66
6966.00,0.66
6965.00,0.66
6964.00,0.66
6963.00,0.66
6962.00,0.66
6961.00,0.66
6960.00,0.66
6959.00,0.66
6958.00,0.66
6957.00,0.66
6956.00,0.66
6955.00,0.66
6954.00,0.66
6953.00,0.66
6952.00,0.66
6951.00,0.66
6950.00,0.66
6949.00,0.66
6948.00,0.66
6947.00,0.66
6946.00,0.66
6945.00,0.66
6944.00,0.66
6943.00,0.66
6942.00,0.66
6941.00,0.66
6940.00,0.66
6939.00,0.66
6938.00,0.66
6937.00,0.66
6936.00,0.65
6935.00,0.65
6934.00,0.65
6933.00,0.65
6932.00,0.65
6931.00,0.65
6930.00,0.65
6929.00,0.65
6928.00,0.65
6927.00,0.65
6926.00,0.65
6925.00,0.65
6924.00,0.65
6923.00,0.65
6922.00,0.65
6921.00,0.65
6920.00,0.65
6919.00,0.65
6918.00,0.65
6917.00,0.65
6916.00,0.65
6915.00,0.65
6914.00,0.65
6913.00,0.65
6912.00,0.65
6911.00,0.65
6910.00,0.65
6909.00,0.65
6908.00,0.65
6907.00,0.65
6906.00,0.65
6905.00,0.65
6904.00,0.65
6903.00,0.65
6902.00,0.65
6901.00,0.65
6900.00,0.65
6899.00,0.65
6898.00,0.65
6897.00,0.65
6896.00,0.65
6895.00,0.65
6894.00,0.65
6893.00,0.65
6892.00,0.65
6891.00,0.65
6890.00,0.65
6889.00,0.65
6888.00,0.65
6887.00,0.65
6886.00,0.65
6885.00,0.65
6884.00,0.65
6883.00,0.65
6882.00,0.65
6881.00,0.65
6880.00,0.65
6879.00,0.65
6878.00,0.65
6877.00,0.65
6876.00,0.65
6875.00,0.65
6874.00,0.65
6873.00,0.65
6872.00,0.65
6871.00,0.65
6870.00,0.65
6869.00,0.65
6868.00,0.65
6867.00,0.65
6866.00,0.65
6865.00,0.65
6864.00,0.65
6863.00,0.65
6862.00,0.65
6861.00,0.65
6860.00,0.65
6859.00,0.65
6858.00,0.65
6857.00,0.65
6856.00,0.65
6855.00,0.65
6854.00,0.65
6853.00,0.65
6852.00,0.65
6851.00,0.65
6850.00,0.65
6849.00,0.65
6848.00,0.65
6847.00,0.65
6846.00,0.65
6845.00,0.65
6844.00,0.65
6843.00,0.65
6842.00,0.65
6841.00,0.65
6840.00,0.65
6839.00,0.65
6838.00,0.65
6837.00,0.66
6836.00,0.66
6835.00,0.66
6834.00,0.66
6833.00,0.66
6832.00,0.66
6831.00,0.66
6830.00,0.66
6829.00,0.66
6828.00,0.66
6827.00,0.66
6826.00,0.66
6825.00,0.66
6824.00,0.66
6823.00,0.66
6822.00,0.66
6821.00,0.66
6820.00,0.66
6819.00,0.66
6818.00,0.66
6817.00,0.66
6816.00,0.66
6815.00,0.66
6814.00,0.66
6813.00,0.66
6812.00,0.66
6811.00,0.66
6810.00,0.66
6809.00,0.66
6808.00,0.66
6807.00,0.66
6806.00,0.66
6805.00,0.66
6804.00,0.66
6803.00,0.66
6802.00,0.66
6801.00,0.66
6800.00,0.66
6799.00,0.66
6798.00,0.66
6797.00,0.66
6796.00,0.66
6795.00,0.67
6794.00,0.67
6793.00,0.67
6792.00,0.67
6791.00,0.67
6790.00,0.67
6789.00,0.67
6788.00,0.67
6787.00,0.67
6786.00,0.67
6785.00,0.67
6784.00,0.67
6783.00,0.67
6782.00,0.67
6781.00,0.67
6780.00,0.67
6779.00,0.67
6778.00,0.68
6777.00,0.68
6776.00,0.68
6775.00,0.68
6774.00,0.68
6773.00,0.68
6772.00,0.68
6771.00,0.68
6770.00,0.68
6769.00,0.68
6768.00,0.68
6767.00,0.68
6766.00,0.68
6765.00,0.68
6764.00,0.68
6763.00,0.68
6762.00,0.68
6761.00,0.68
6760.00,0.68
6759.00,0.68
6758.00,0.68
6757.00,0.68
6756.00,0.68
6755.00,0.68
6754.00,0.68
6753.00,0.68
6752.00,0.68
6751.00,0.68
6750.00,0.68
6749.00,0.68
6748.00,0.68
6747.00,0.69
6746.00,0.69
6745.00,0.69
6744.00,0.69
6743.00,0.69
6742.00,0.69
6741.00,0.69
6740.00,0.69
6739.00,0.69
6738.00,0.69
6737.00,0.69
6736.00,0.69
6735.00,0.69
6734.00,0.69
6733.00,0.69
6732.00,0.69
6731.00,0.69
6730.00,0.69
6729.00,0.69
6728.00,0.69
6727.00,0.69
6726.00,0.69
6725.00,0.69
6724.00,0.69
6723.00,0.69
6722.00,0.70
6721.00,0.70
6720.00,0.70
6719.00,0.70
6718.00,0.70
6717.00,0.70
6716.00,0.70
6715.00,0.70
6714.00,0.70
6713.00,0.70
6712.00,0.70
6711.00,0.71
6710.00,0.71
6709.00,0.71
6708.00,0.71
6707.00,0.71
6706.00,0.71
6705.00,0.71
6704.00,0.71
6703.00,0.71
6702.00,0.71
6701.00,0.71
6700.00,0.72
6699.00,0.72
6698.00,0.72
6697.00,0.72
6696.00,0.72
6695.00,0.72
6694.00,0.72
6693.00,0.72
6692.00,0.72
6691.00,0.72
6690.00,0.72
6689.00,0.72
6688.00,0.72
6687.00,0.72
6686.00,0.72
6685.00,0.72
6684.00,0.72
6683.00,0.72
6682.00,0.73
6681.00,0.73
6680.00,0.73
6679.00,0.73
6678.00,0.73
6677.00,0.73
6676.00,0.73
6675.00,0.73
6674.00,0.73
6673.00,0.73
6672.00,0.73
6671.00,0.73
6670.00,0.73
6669.00,0.74
6668.00,0.74
6667.00,0.74
6666.00,0.74
6665.00,0.74
6664.00,0.74
6663.00,0.74
6662.00,0.74
6661.00,0.74
6660.00,0.74
6659.00,0.74
6658.00,0.74
6657.00,0.74
6656.00,0.74
6655.00,0.74
6654.00,0.74
6653.00,0.74
6652.00,0.75
6651.00,0.75
6650.00,0.75
6649.00,0.75
6648.00,0.75
6647.00,0.75
6646.00,0.75
6645.00,0.75
6644.00,0.75
6643.00,0.75
6642.00,0.75
6641.00,0.75
6640.00,0.75
6639.00,0.75
6638.00,0.76
6637.00,0.76
6636.00,0.76
6635.00,0.76
6634.00,0.76
6633.00,0.76
6632.00,0.76
6631.00,0.76
6630.00,0.76
6629.00,0.76
6628.00,0.76
6627.00,0.76
6626.00,0.76
6625.00,0.76
6624.00,0.76
6623.00,0.76
6622.00,0.76
6621.00,0.77
6620.00,0.77
6619.00,0.77
6618.00,0.77
6617.00,0.77
6616.00,0.77
6615.00,0.77
6614.00,0.77
6613.00,0.77
6612.00,0.77
6611.00,0.78
6610.00,0.78
6609.00,0.78
6608.00,0.78
6607.00,0.78
6606.00,0.78
6605.00,0.78
6604.00,0.78
6603.00,0.78
6602.00,0.78
6601.00,0.78
6600.00,0.78
6599.00,0.78
6598.00,0.78
6597.00,0.78
6596.00,0.78
6595.00,0.78
6594.00,0.78
6593.00,0.79
6592.00,0.79
6591.00,0.79
6590.00,0.79
6589.00,0.79
6588.00,0.79
6587.00,0.79
6586.00,0.79
6585.00,0.79
6584.00,0.79
6583.00,0.79
6582.00,0.80
6581.00,0.80
6580.00,0.80
6579.00,0.80
6578.00,0.80
6577.00,0.80
6576.00,0.80
6575.00,0.80
6574.00,0.80
6573.00,0.80
6572.00,0.80
6571.00,0.80
6570.00,0.80
6569.00,0.80
6568.00,0.80
6567.00,0.81
6566.00,0.81
6565.00,0.81
6564.00,0.81
6563.00,0.81
6562.00,0.81
6561.00,0.81
6560.00,0.81
6559.00,0.81
6558.00,0.81
6557.00,0.81
6556.00,0.81
6555.00,0.81
6554.00,0.81
6553.00,0.82
6552.00,0.82
6551.00,0.82
6550.00,0.82
6549.00,0.82
6548.00,0.82
6547.00,0.82
6546.00,0.82
6545.00,0.82
6544.00,0.83
6543.00,0.83
6542.00,0.83
6541.00,0.83
6540.00,0.83
6539.00,0.83
6538.00,0.83
6537.00,0.83
6536.00,0.83
6535.00,0.83
6534.00,0.83
6533.00,0.83
6532.00,0.83
6531.00,0.83
6530.00,0.83
6529.00,0.83
6528.00,0.83
6527.00,0.83
6526.00,0.83
6525.00,0.83
6524.00,0.83
6523.00,0.83
6522.00,0.83
6521.00,0.83
6520.00,0.84
6519.00,0.84
6518.00,0.84
6517.00,0.84
6516.00,0.84
6515.00,0.84
6514.00,0.84
6513.00,0.84
6512.00,0.84
6511.00,0.84
6510.00,0.84
6509.00,0.84
6508.00,0.84
6507.00,0.84
6506.00,0.84
6505.00,0.84
6504.00,0.84
6503.00,0.84
6502.00,0.84
6501.00,0.85
6500.00,0.85
6499.00,0.85
6498.00,0.85
6497.00,0.85
6496.00,0.85
6495.00,0.85
6494.00,0.85
6493.00,0.85
6492.00,0.85
6491.00,0.85
6490.00,0.85
6489.00,0.85
6488.00,0.85
6487.00,0.85
6486.00,0.86
6485.00,0.86
6484.00,0.86
6483.00,0.86
6482.00,0.86
6481.00,0.86
6480.00,0.86
6479.00,0.86
6478.00,0.86
6477.00,0.86
6476.00,0.86
6475.00,0.86
6474.00,0.86
6473.00,0.86
6472.00,0.86
6471.00,0.86
6470.00,0.86
6469.00,0.86
6468.00,0.86
6467.00,0.86
6466.00,0.86
6465.00,0.86
6464.00,0.87
6463.00,0.87
6462.00,0.87
6461.00,0.87
6460.00,0.87
6459.00,0.87
6458.00,0.87
6457.00,0.87
6456.00,0.87
6455.00,0.87
6454.00,0.87
6453.00,0.87
6452.00,0.87
6451.00,0.87
6450.00,0.87
6449.00,0.87
6448.00,0.87
6447.00,0.88
6446.00,0.88
6445.00,0.88
6444.00,0.88
6443.00,0.88
6442.00,0.88
6441.00,0.88
6440.00,0.88
6439.00,0.88
6438.00,0.88
6437.00,0.88
6436.00,0.88
6435.00,0.88
6434.00,0.88
6433.00,0.88
6432.00,0.88
6431.00,0.88
6430.00,0.88
6429.00,0.88
6428.00,0.88
6427.00,0.89
6426.00,0.89
6425.00,0.89
6424.00,0.89
6423.00,0.89
6422.00,0.89
6421.00,0.89
6420.00,0.89
6419.00,0.89
6418.00,0.89
6417.00,0.89
6416.00,0.89
6415.00,0.89
6414.00,0.89
6413.00,0.89
6412.00,0.89
6411.00,0.89
6410.00,0.89
6409.00,0.89
6408.00,0.89
6407.00,0.89
6406.00,0.89
6405.00,0.89
6404.00,0.90
6403.00,0.90
6402.00,0.90
6401.00,0.90
6400.00,0.90
6399.00,0.90
6398.00,0.90
6397.00,0.90
6396.00,0.90
6395.00,0.90
6394.00,0.90
6393.00,0.90
6392.00,0.90
6391.00,0.90
6390.00,0.90
6389.00,0.90
6388.00,0.90
6387.00,0.90
6386.00,0.91
6385.00,0.91
6384.00,0.91
6383.00,0.91
6382.00,0.91
6381.00,0.91
6380.00,0.91
6379.00,0.91
6378.00,0.91
6377.00,0.91
6376.00,0.91
6375.00,0.91
6374.00,0.91
6373.00,0.91
6372.00,0.91
6371.00,0.91
6370.00,0.91
6369.00,0.91
6368.00,0.91
6367.00,0.91
6366.00,0.91
6365.00,0.91
6364.00,0.91
6363.00,0.91
6362.00,0.91
6361.00,0.92
6360.00,0.92
6359.00,0.92
6358.00,0.92
6357.00,0.92
6356.00,0.92
6355.00,0.92
6354.00,0.92
6353.00,0.92
6352.00,0.93
6351.00,0.93
6350.00,0.93
6349.00,0.93
6348.00,0.93
6347.00,0.93
6346.00,0.93
6345.00,0.93
6344.00,0.93
6343.00,0.93
6342.00,0.93
6341.00,0.93
6340.00,0.93
6339.00,0.93
6338.00,0.93
6337.00,0.93
6336.00,0.93
6335.00,0.93
6334.00,0.93
6333.00,0.93
6332.00,0.93
6331.00,0.93
6330.00,0.93
6329.00,0.93
6328.00,0.93
6327.00,0.93
6326.00,0.94
6325.00,0.94
6324.00,0.94
6323.00,0.94
6322.00,0.94
6321.00,0.94
6320.00,0.94
6319.00,0.95
6318.00,0.95
6317.00,0.95
6316.00,0.95
6315.00,0.95
6314.00,0.95
6313.00,0.96
6312.00,0.96
6311.00,0.96
6310.00,0.96
6309.00,0.96
6308.00,0.96
6307.00,0.96
6306.00,0.96
6305.00,0.96
6304.00,0.96
6303.00,0.96
6302.00,0.96
6301.00,0.96
6300.00,0.96
6299.00,0.97
6298.00,0.97
6297.00,0.97
6296.00,0.97
6295.00,0.97
6294.00,0.97
6293.00,0.97
6292.00,0.97
6291.00,0.97
6290.00,0.97
6289.00,0.97
6288.00,0.97
6287.00,0.97
6286.00,0.97
6285.00,0.97
6284.00,0.97
6283.00,0.97
6282.00,0.97
6281.00,0.97
6280.00,0.97
6279.00,0.97
6278.00,0.97
6277.00,0.97
6276.00,0.97
6275.00,0.98
6274.00,0.98
6273.00,0.98
6272.00,0.98
6271.00,0.98
6270.00,0.98
6269.00,0.98
6268.00,0.99
6267.00,0.99
6266.00,0.99
6265.00,0.99
6264.00,0.99
6263.00,0.99
6262.00,0.99
6261.00,0.99
6260.00,1.00
6259.00,1.00
6258.00,1.00
6257.00,1.00
6256.00,1.00
6255.00,1.00
6254.00,1.00
6253.00,1.00
6252.00,1.00
6251.00,1.01
6250.00,1.01
6249.00,1.01
6248.00,1.01
6247.00,1.01
6246.00,1.01
6245.00,1.01
6244.00,1.01
6243.00,1.01
6242.00,1.02
6241.00,1.02
6240.00,1.02
6239.00,1.02
6238.00,1.02
6237.00,1.02
6236.00,1.02
6235.00,1.02
6234.00,1.03
6233.00,1.03
6232.00,1.03
6231.00,1.03
6230.00,1.03
6229.00,1.03
6228.00,1.03
6227.00,1.03
6226.00,1.03
6225.00,1.03
6224.00,1.03
6223.00,1.03
6222.00,1.03
6221.00,1.04
6220.00,1.04
6219.00,1.04
6218.00,1.04
6217.00,1.04
6216.00,1.04
6215.00,1.04
6214.00,1.04
6213.00,1.04
6212.00,1.04
6211.00,1.05
6210.00,1.05
6209.00,1.05
6208.00,1.05
6207.00,1.05
6206.00,1.05
6205.00,1.05
6204.00,1.05
6203.00,1.06
6202.00,1.06
6201.00,1.06
6200.00,1.06
6199.00,1.06
6198.00,1.06
6197.00,1.06
6196.00,1.06
6195.00,1.07
6194.00,1.07
6193.00,1.07
6192.00,1.07
6191.00,1.07
6190.00,1.07
6189.00,1.07
6188.00,1.07
6187.00,1.07
6186.00,1.08
6185.00,1.08
6184.00,1.08
6183.00,1.08
6182.00,1.08
6181.00,1.08
6180.00,1.08
6179.00,1.08
6178.00,1.08
6177.00,1.08
6176.00,1.08
6175.00,1.09
6174.00,1.09
6173.00,1.09
6172.00,1.09
6171.00,1.09
6170.00,1.09
6169.00,1.09
6168.00,1.09
6167.00,1.09
6166.00,1.10
6165.00,1.10
6164.00,1.10
6163.00,1.10
6162.00,1.10
6161.00,1.10
6160.00,1.10
6159.00,1.11
6158.00,1.11
6157.00,1.11
6156.00,1.11
6155.00,1.11
6154.00,1.11
6153.00,1.11
6152.00,1.12
6151.00,1.12
6150.00,1.12
6149.00,1.12
6148.00,1.12
6147.00,1.12
6146.00,1.12
6145.00,1.12
6144.00,1.13
6143.00,1.13
6142.00,1.13
6141.00,1.13
6140.00,1.13
6139.00,1.13
6138.00,1.13
6137.00,1.13
6136.00,1.13
6135.00,1.13
6134.00,1.14
6133.00,1.14
6132.00,1.14
6131.00,1.14
6130.00,1.14
6129.00,1.14
6128.00,1.14
6127.00,1.14
6126.00,1.14
6125.00,1.15
6124.00,1.15
6123.00,1.15
6122.00,1.15
6121.00,1.15
6120.00,1.15
6119.00,1.15
6118.00,1.16
6117.00,1.16
6116.00,1.16
6115.00,1.16
6114.00,1.16
6113.00,1.16
6112.00,1.16
6111.00,1.17
6110.00,1.17
6109.00,1.17
6108.00,1.17
6107.00,1.17
6106.00,1.17
6105.00,1.17
6104.00,1.17
6103.00,1.17
6102.00,1.17
6101.00,1.18
6100.00,1.18
6099.00,1.18
6098.00,1.18
6097.00,1.18
6096.00,1.18
6095.00,1.18
6094.00,1.18
6093.00,1.18
6092.00,1.18
6091.00,1.18
6090.00,1.18
6089.00,1.18
6088.00,1.19
6087.00,1.19
6086.00,1.19
6085.00,1.19
6084.00,1.19
6083.00,1.19
6082.00,1.19
6081.00,1.19
6080.00,1.20
6079.00,1.20
6078.00,1.20
6077.00,1.20
6076.00,1.20
6075.00,1.20
6074.00,1.20
6073.00,1.20
6072.00,1.21
6071.00,1.21
6070.00,1.21
6069.00,1.21
6068.00,1.21
6067.00,1.21
6066.00,1.21
6065.00,1.21
6064.00,1.21
6063.00,1.21
6062.00,1.21
6061.00,1.21
6060.00,1.21
6059.00,1.22
6058.00,1.22
6057.00,1.22
6056.00,1.22
6055.00,1.22
6054.00,1.22
6053.00,1.22
6052.00,1.22
6051.00,1.22
6050.00,1.22
6049.00,1.22
6048.00,1.22
6047.00,1.22
6046.00,1.22
6045.00,1.22
6044.00,1.22
6043.00,1.22
6042.00,1.22
6041.00,1.22
6040.00,1.23
6039.00,1.23
6038.00,1.23
6037.00,1.23
6036.00,1.23
6035.00,1.23
6034.00,1.23
6033.00,1.23
6032.00,1.23
6031.00,1.23
6030.00,1.23
6029.00,1.23
6028.00,1.23
6027.00,1.23
6026.00,1.23
6025.00,1.23
6024.00,1.23
6023.00,1.23
6022.00,1.24
6021.00,1.24
6020.00,1.24
6019.00,1.24
6018.00,1.24
6017.00,1.24
6016.00,1.24
6015.00,1.24
6014.00,1.24
6013.00,1.24
6012.00,1.24
6011.00,1.24
6010.00,1.23
6009.00,1.23
6008.00,1.23
6007.00,1.23
6006.00,1.23
6005.00,1.23
6004.00,1.23
6003.00,1.23
6002.00,1.23
6001.00,1.23
6000.00,1.23
5999.00,1.23
5998.00,1.23
5997.00,1.23
5996.00,1.22
5995.00,1.22
5994.00,1.22
5993.00,1.22
5992.00,1.22
5991.00,1.22
5990.00,1.22
5989.00,1.21
5988.00,1.21
5987.00,1.21
5986.00,1.21
5985.00,1.21
5984.00,1.20
5983.00,1.20
5982.00,1.20
5981.00,1.20
5980.00,1.20
5979.00,1.19
5978.00,1.19
5977.00,1.19
5976.00,1.19
5975.00,1.18
5974.00,1.18
5973.00,1.17
5972.00,1.17
5971.00,1.17
5970.00,1.16
5969.00,1.16
5968.00,1.15
5967.00,1.15
5966.00,1.14
5965.00,1.13
5964.00,1.13
5963.00,1.12
5962.00,1.12
5961.00,1.11
5960.00,1.10
5959.00,1.10
5958.00,1.09
5957.00,1.09
5956.00,1.08
5955.00,1.07
5954.00,1.07
5953.00,1.06
5952.00,1.06
5951.00,1.06
5950.00,1.05
5949.00,1.05
5948.00,1.04
5947.00,1.04
5946.00,1.04
5945.00,1.04
5944.00,1.03
5943.00,1.03
5942.00,1.03
5941.00,1.03
5940.00,1.03
5939.00,1.03
5938.00,1.03
5937.00,1.02
5936.00,1.02
5935.00,1.02
5934.00,1.02
5933.00,1.02
5932.00,1.02
5931.00,1.02
5930.00,1.02
5929.00,1.02
5928.00,1.02
5927.00,1.02
5926.00,1.01
5925.00,1.01
5924.00,1.01
5923.00,1.01
5922.00,1.01
5921.00,1.01
5920.00,1.00
5919.00,1.00
5918.00,1.00
5917.00,1.00
5916.00,1.00
5915.00,0.99
5914.00,0.99
5913.00,0.99
5912.00,0.99
5911.00,0.99
5910.00,0.98
5909.00,0.98
5908.00,0.98
5907.00,0.98
5906.00,0.98
5905.00,0.98
5904.00,0.98
5903.00,0.98
5902.00,0.98
5901.00,0.98
5900.00,0.98
5899.00,0.98
5898.00,0.98
5897.00,0.98
5896.00,0.98
5895.00,0.98
5894.00,0.99
5893.00,0.99
5892.00,0.99
5891.00,0.99
5890.00,0.99
5889.00,1.00
5888.00,1.00
5887.00,1.00
5886.00,1.00
5885.00,1.00
5884.00,1.01
5883.00,1.01
5882.00,1.01
5881.00,1.01
5880.00,1.02
5879.00,1.02
5878.00,1.02
5877.00,1.02
5876.00,1.03
5875.00,1.03
5874.00,1.03
5873.00,1.03
5872.00,1.03
5871.00,1.03
5870.00,1.04
5869.00,1.04
5868.00,1.04
5867.00,1.04
5866.00,1.04
5865.00,1.04
5864.00,1.04
5863.00,1.04
5862.00,1.04
5861.00,1.04
5860.00,1.04
5859.00,1.05
5858.00,1.05
5857.00,1.05
5856.00,1.05
5855.00,1.05
5854.00,1.05
5853.00,1.05
5852.00,1.05
5851.00,1.05
5850.00,1.05
5849.00,1.05
5848.00,1.05
5847.00,1.06
5846.00,1.06
5845.00,1.06
5844.00,1.06
5843.00,1.06
5842.00,1.06
5841.00,1.06
5840.00,1.06
5839.00,1.06
5838.00,1.06
5837.00,1.06
5836.00,1.06
5835.00,1.06
5834.00,1.06
5833.00,1.06
5832.00,1.06
5831.00,1.06
5830.00,1.06
5829.00,1.06
5828.00,1.06
5827.00,1.06
5826.00,1.06
5825.00,1.06
5824.00,1.06
5823.00,1.06
5822.00,1.06
5821.00,1.06
5820.00,1.06
5819.00,1.06
5818.00,1.06
5817.00,1.06
5816.00,1.06
5815.00,1.06
5814.00,1.06
5813.00,1.06
5812.00,1.06
5811.00,1.06
5810.00,1.06
5809.00,1.06
5808.00,1.06
5807.00,1.06
5806.00,1.06
5805.00,1.06
5804.00,1.06
5803.00,1.06
5802.00,1.05
5801.00,1.05
5800.00,1.05
5799.00,1.05
5798.00,1.05
5797.00,1.05
5796.00,1.05
5795.00,1.04
5794.00,1.04
5793.00,1.04
5792.00,1.04
5791.00,1.04
5790.00,1.04
5789.00,1.03
5788.00,1.03
5787.00,1.03
5786.00,1.03
5785.00,1.03
5784.00,1.02
5783.00,1.02
5782.00,1.02
5781.00,1.02
5780.00,1.02
5779.00,1.02
5778.00,1.02
5777.00,1.02
5776.00,1.02
5775.00,1.02
5774.00,1.02
5773.00,1.02
5772.00,1.02
5771.00,1.02
5770.00,1.02
5769.00,1.02
5768.00,1.02
5767.00,1.02
5766.00,1.02
5765.00,1.03
5764.00,1.03
5763.00,1.03
5762.00,1.03
5761.00,1.03
5760.00,1.04
5759.00,1.04
5758.00,1.04
5757.00,1.04
5756.00,1.05
5755.00,1.05
5754.00,1.05
5753.00,1.06
5752.00,1.06
5751.00,1.06
5750.00,1.06
5749.00,1.07
5748.00,1.07
5747.00,1.07
5746.00,1.08
5745.00,1.08
5744.00,1.08
5743.00,1.08
5742.00,1.09
5741.00,1.09
5740.00,1.09
5739.00,1.09
5738.00,1.09
5737.00,1.09
5736.00,1.10
5735.00,1.10
5734.00,1.10
5733.00,1.10
5732.00,1.10
5731.00,1.10
5730.00,1.10
5729.00,1.10
5728.00,1.10
5727.00,1.11
5726.00,1.11
5725.00,1.11
5724.00,1.11
5723.00,1.11
5722.00,1.11
5721.00,1.11
5720.00,1.11
5719.00,1.11
5718.00,1.11
5717.00,1.11
5716.00,1.11
5715.00,1.11
5714.00,1.11
5713.00,1.11
5712.00,1.11
5711.00,1.11
5710.00,1.11
5709.00,1.11
5708.00,1.11
5707.00,1.11
5706.00,1.11
5705.00,1.11
5704.00,1.10
5703.00,1.10
5702.00,1.10
5701.00,1.10
5700.00,1.10
5699.00,1.10
5698.00,1.10
5697.00,1.10
5696.00,1.10
5695.00,1.10
5694.00,1.09
5693.00,1.09
5692.00,1.09
5691.00,1.09
5690.00,1.09
5689.00,1.09
5688.00,1.09
5687.00,1.09
5686.00,1.08
5685.00,1.08
5684.00,1.08
5683.00,1.08
5682.00,1.08
5681.00,1.08
5680.00,1.08
5679.00,1.08
5678.00,1.08
5677.00,1.08
5676.00,1.08
5675.00,1.08
5674.00,1.08
5673.00,1.08
5672.00,1.08
5671.00,1.08
5670.00,1.08
5669.00,1.08
5668.00,1.08
5667.00,1.08
5666.00,1.08
5665.00,1.08
5664.00,1.09
5663.00,1.09
5662.00,1.09
5661.00,1.09
5660.00,1.09
5659.00,1.09
5658.00,1.09
5657.00,1.10
5656.00,1.10
5655.00,1.10
5654.00,1.10
5653.00,1.10
5652.00,1.10
5651.00,1.11
5650.00,1.11
5649.00,1.11
5648.00,1.11
5647.00,1.11
5646.00,1.11
5645.00,1.11
5644.00,1.12
5643.00,1.12
5642.00,1.12
5641.00,1.12
5640.00,1.12
5639.00,1.12
5638.00,1.12
5637.00,1.13
5636.00,1.13
5635.00,1.13
5634.00,1.13
5633.00,1.13
5632.00,1.13
5631.00,1.13
5630.00,1.14
5629.00,1.14
5628.00,1.14
5627.00,1.14
5626.00,1.14
5625.00,1.14
5624.00,1.14
5623.00,1.14
5622.00,1.14
5621.00,1.15
5620.00,1.15
5619.00,1.15
5618.00,1.15
5617.00,1.15
5616.00,1.15
5615.00,1.15
5614.00,1.15
5613.00,1.15
5612.00,1.16
5611.00,1.16
5610.00,1.16
5609.00,1.16
5608.00,1.16
5607.00,1.16
5606.00,1.16
5605.00,1.16
5604.00,1.17
5603.00,1.17
5602.00,1.17
5601.00,1.17
5600.00,1.17
5599.00,1.17
5598.00,1.17
5597.00,1.18
5596.00,1.18
5595.00,1.18
5594.00,1.18
5593.00,1.18
5592.00,1.18
5591.00,1.18
5590.00,1.18
5589.00,1.19
5588.00,1.19
5587.00,1.19
5586.00,1.19
5585.00,1.19
5584.00,1.19
5583.00,1.19
5582.00,1.20
5581.00,1.20
5580.00,1.20
5579.00,1.20
5578.00,1.20
5577.00,1.20
5576.00,1.20
5575.00,1.20
5574.00,1.21
5573.00,1.21
5572.00,1.21
5571.00,1.21
5570.00,1.21
5569.00,1.21
5568.00,1.21
5567.00,1.21
5566.00,1.21
5565.00,1.22
5564.00,1.22
5563.00,1.22
5562.00,1.22
5561.00,1.22
5560.00,1.22
5559.00,1.22
5558.00,1.22
5557.00,1.22
5556.00,1.23
5555.00,1.23
5554.00,1.23
5553.00,1.23
5552.00,1.23
5551.00,1.23
5550.00,1.23
5549.00,1.23
5548.00,1.23
5547.00,1.24
5546.00,1.24
5545.00,1.24
5544.00,1.24
5543.00,1.24
5542.00,1.24
5541.00,1.24
5540.00,1.24
5539.00,1.25
5538.00,1.25
5537.00,1.25
5536.00,1.25
5535.00,1.25
5534.00,1.25
5533.00,1.25
5532.00,1.25
5531.00,1.25
5530.00,1.25
5529.00,1.25
5528.00,1.25
5527.00,1.25
5526.00,1.26
5525.00,1.26
5524.00,1.26
5523.00,1.26
5522.00,1.26
5521.00,1.26
5520.00,1.26
5519.00,1.26
5518.00,1.26
5517.00,1.26
5516.00,1.26
5515.00,1.26
5514.00,1.26
5513.00,1.26
5512.00,1.26
5511.00,1.26
5510.00,1.26
5509.00,1.26
5508.00,1.27
5507.00,1.27
5506.00,1.27
5505.00,1.27
5504.00,1.27
5503.00,1.27
5502.00,1.27
5501.00,1.27
5500.00,1.27
5499.00,1.27
5498.00,1.27
5497.00,1.27
5496.00,1.27
5495.00,1.27
5494.00,1.27
5493.00,1.27
5492.00,1.27
5491.00,1.27
5490.00,1.28
5489.00,1.28
5488.00,1.28
5487.00,1.28
5486.00,1.28
5485.00,1.28
5484.00,1.28
5483.00,1.28
5482.00,1.28
5481.00,1.29
5480.00,1.29
5479.00,1.29
5478.00,1.29
5477.00,1.29
5476.00,1.29
5475.00,1.29
5474.00,1.29
5473.00,1.29
5472.00,1.30
5471.00,1.30
5470.00,1.30
5469.00,1.30
5468.00,1.30
5467.00,1.30
5466.00,1.30
5465.00,1.30
5464.00,1.30
5463.00,1.30
5462.00,1.31
5461.00,1.31
5460.00,1.31
5459.00,1.31
5458.00,1.31
5457.00,1.31
5456.00,1.31
5455.00,1.31
5454.00,1.31
5453.00,1.31
5452.00,1.31
5451.00,1.31
5450.00,1.31
5449.00,1.31
5448.00,1.31
5447.00,1.31
5446.00,1.31
5445.00,1.31
5444.00,1.31
5443.00,1.31
5442.00,1.31
5441.00,1.31
5440.00,1.31
5439.00,1.31
5438.00,1.31
5437.00,1.31
5436.00,1.31
5435.00,1.31
5434.00,1.31
5433.00,1.31
5432.00,1.32
5431.00,1.32
5430.00,1.32
5429.00,1.32
5428.00,1.32
5427.00,1.32
5426.00,1.32
5425.00,1.32
5424.00,1.32
5423.00,1.32
5422.00,1.32
5421.00,1.32
5420.00,1.32
5419.00,1.32
5418.00,1.32
5417.00,1.32
5416.00,1.32
5415.00,1.32
5414.00,1.31
5413.00,1.31
5412.00,1.31
5411.00,1.31
5410.00,1.31
5409.00,1.31
5408.00,1.31
5407.00,1.31
5406.00,1.31
5405.00,1.31
5404.00,1.31
5403.00,1.31
5402.00,1.31
5401.00,1.31
5400.00,1.31
5399.00,1.31
5398.00,1.31
5397.00,1.31
5396.00,1.31
5395.00,1.31
5394.00,1.31
5393.00,1.30
5392.00,1.30
5391.00,1.30
5390.00,1.30
5389.00,1.30
5388.00,1.30
5387.00,1.29
5386.00,1.29
5385.00,1.29
5384.00,1.29
5383.00,1.29
5382.00,1.28
5381.00,1.28
5380.00,1.28
5379.00,1.28
5378.00,1.27
5377.00,1.27
5376.00,1.27
5375.00,1.26
5374.00,1.26
5373.00,1.26
5372.00,1.25
5371.00,1.25
5370.00,1.25
5369.00,1.24
5368.00,1.24
5367.00,1.24
5366.00,1.23
5365.00,1.23
5364.00,1.22
5363.00,1.22
5362.00,1.21
5361.00,1.21
5360.00,1.20
5359.00,1.20
5358.00,1.19
5357.00,1.19
5356.00,1.18
5355.00,1.17
5354.00,1.17
5353.00,1.16
5352.00,1.15
5351.00,1.15
5350.00,1.14
5349.00,1.13
5348.00,1.13
5347.00,1.12
5346.00,1.11
5345.00,1.10
5344.00,1.09
5343.00,1.09
5342.00,1.08
5341.00,1.07
5340.00,1.06
5339.00,1.05
5338.00,1.05
5337.00,1.04
5336.00,1.03
5335.00,1.02
5334.00,1.01
5333.00,1.01
5332.00,1.00
5331.00,0.99
5330.00,0.98
5329.00,0.98
5328.00,0.97
5327.00,0.96
5326.00,0.96
5325.00,0.95
5324.00,0.94
5323.00,0.94
5322.00,0.93
5321.00,0.92
5320.00,0.92
5319.00,0.91
5318.00,0.91
5317.00,0.90
5316.00,0.89
5315.00,0.89
5314.00,0.88
5313.00,0.88
5312.00,0.87
5311.00,0.87
5310.00,0.86
5309.00,0.86
5308.00,0.85
5307.00,0.85
5306.00,0.85
5305.00,0.84
5304.00,0.84
5303.00,0.83
5302.00,0.83
5301.00,0.83
5300.00,0.83
5299.00,0.82
5298.00,0.82
5297.00,0.82
5296.00,0.81
5295.00,0.81
5294.00,0.81
5293.00,0.81
5292.00,0.81
5291.00,0.81
5290.00,0.80
5289.00,0.80
5288.00,0.80
5287.00,0.80
5286.00,0.80
5285.00,0.80
5284.00,0.80
5283.00,0.80
5282.00,0.80
5281.00,0.80
5280.00,0.79
5279.00,0.79
5278.00,0.79
5277.00,0.79
5276.00,0.79
5275.00,0.79
5274.00,0.79
5273.00,0.79
5272.00,0.79
5271.00,0.79
5270.00,0.79
5269.00,0.79
5268.00,0.79
5267.00,0.79
5266.00,0.79
5265.00,0.79
5264.00,0.79
5263.00,0.79
5262.00,0.79
5261.00,0.79
5260.00,0.79
5259.00,0.79
5258.00,0.79
5257.00,0.79
5256.00,0.79
5255.00,0.79
5254.00,0.79
5253.00,0.79
5252.00,0.79
5251.00,0.79
5250.00,0.79
5249.00,0.79
5248.00,0.79
5247.00,0.79
5246.00,0.79
5245.00,0.79
5244.00,0.79
5243.00,0.79
5242.00,0.79
5241.00,0.79
5240.00,0.79
5239.00,0.79
5238.00,0.79
5237.00,0.79
5236.00,0.79
5235.00,0.79
5234.00,0.79
5233.00,0.79
5232.00,0.79
5231.00,0.79
5230.00,0.79
5229.00,0.79
5228.00,0.79
5227.00,0.79
5226.00,0.79
5225.00,0.79
5224.00,0.79
5223.00,0.79
5222.00,0.79
5221.00,0.80
5220.00,0.80
5219.00,0.80
5218.00,0.80
5217.00,0.80
5216.00,0.80
5215.00,0.80
5214.00,0.80
5213.00,0.80
5212.00,0.80
5211.00,0.80
5210.00,0.80
5209.00,0.80
5208.00,0.80
5207.00,0.80
5206.00,0.80
5205.00,0.80
5204.00,0.80
5203.00,0.80
5202.00,0.80
5201.00,0.80
5200.00,0.81
5199.00,0.81
5198.00,0.81
5197.00,0.81
5196.00,0.81
5195.00,0.81
5194.00,0.81
5193.00,0.81
5192.00,0.81
5191.00,0.81
5190.00,0.81
5189.00,0.81
5188.00,0.81
5187.00,0.81
5186.00,0.81
5185.00,0.81
5184.00,0.82
5183.00,0.82
5182.00,0.82
5181.00,0.82
5180.00,0.82
5179.00,0.82
5178.00,0.82
5177.00,0.82
5176.00,0.82
5175.00,0.82
5174.00,0.82
5173.00,0.82
5172.00,0.82
5171.00,0.82
5170.00,0.82
5169.00,0.82
5168.00,0.82
5167.00,0.82
5166.00,0.82
5165.00,0.82
5164.00,0.82
5163.00,0.82
5162.00,0.82
5161.00,0.82
5160.00,0.82
5159.00,0.82
5158.00,0.82
5157.00,0.82
5156.00,0.82
5155.00,0.82
5154.00,0.82
5153.00,0.82
5152.00,0.82
5151.00,0.82
5150.00,0.82
5149.00,0.82
5148.00,0.82
5147.00,0.83
5146.00,0.83
5145.00,0.83
5144.00,0.83
5143.00,0.83
5142.00,0.83
5141.00,0.83
5140.00,0.83
5139.00,0.83
5138.00,0.83
5137.00,0.83
5136.00,0.83
5135.00,0.83
5134.00,0.83
5133.00,0.83
5132.00,0.83
5131.00,0.83
5130.00,0.83
5129.00,0.83
5128.00,0.83
5127.00,0.83
5126.00,0.83
5125.00,0.83
5124.00,0.83
5123.00,0.83
5122.00,0.83
5121.00,0.84
5120.00,0.84
5119.00,0.84
5118.00,0.84
5117.00,0.84
5116.00,0.84
5115.00,0.84
5114.00,0.84
5113.00,0.84
5112.00,0.84
5111.00,0.84
5110.00,0.84
5109.00,0.84
5108.00,0.84
5107.00,0.84
5106.00,0.84
5105.00,0.84
5104.00,0.84
5103.00,0.84
5102.00,0.84
5101.00,0.84
5100.00,0.84
5099.00,0.84
5098.00,0.84
5097.00,0.84
5096.00,0.84
5095.00,0.85
5094.00,0.85
5093.00,0.85
5092.00,0.85
5091.00,0.85
5090.00,0.85
5089.00,0.85
5088.00,0.85
5087.00,0.85
5086.00,0.85
5085.00,0.85
5084.00,0.85
5083.00,0.85
5082.00,0.85
5081.00,0.85
5080.00,0.86
5079.00,0.86
5078.00,0.86
5077.00,0.86
5076.00,0.86
5075.00,0.86
5074.00,0.86
5073.00,0.86
5072.00,0.86
5071.00,0.86
5070.00,0.86
5069.00,0.86
5068.00,0.86
5067.00,0.86
5066.00,0.86
5065.00,0.86
5064.00,0.86
5063.00,0.86
5062.00,0.86
5061.00,0.86
5060.00,0.86
5059.00,0.86
5058.00,0.86
5057.00,0.86
5056.00,0.86
5055.00,0.86
5054.00,0.87
5053.00,0.87
5052.00,0.87
5051.00,0.87
5050.00,0.87
5049.00,0.87
5048.00,0.87
5047.00,0.87
5046.00,0.87
5045.00,0.87
5044.00,0.87
5043.00,0.87
5042.00,0.88
5041.00,0.88
5040.00,0.88
5039.00,0.88
5038.00,0.88
5037.00,0.88
5036.00,0.88
5035.00,0.88
5034.00,0.88
5033.00,0.88
5032.00,0.88
5031.00,0.88
5030.00,0.88
5029.00,0.88
5028.00,0.88
5027.00,0.88
5026.00,0.88
5025.00,0.88
5024.00,0.88
5023.00,0.88
5022.00,0.88
5021.00,0.88
5020.00,0.88
5019.00,0.88
5018.00,0.88
5017.00,0.88
5016.00,0.88
5015.00,0.88
5014.00,0.89
5013.00,0.89
5012.00,0.89
5011.00,0.89
5010.00,0.89
5009.00,0.89
5008.00,0.89
5007.00,0.89
5006.00,0.89
5005.00,0.89
5004.00,0.89
5003.00,0.89
5002.00,0.89
5001.00,0.89
5000.00,0.89
4999.00,0.89
4998.00,0.89
4997.00,0.89
4996.00,0.89
4995.00,0.89
4994.00,0.90
4993.00,0.90
4992.00,0.90
4991.00,0.90
4990.00,0.90
4989.00,0.90
4988.00,0.90
4987.00,0.90
4986.00,0.90
4985.00,0.90
4984.00,0.90
4983.00,0.90
4982.00,0.90
4981.00,0.90
4980.00,0.90
4979.00,0.90
4978.00,0.90
4977.00,0.91
4976.00,0.91
4975.00,0.91
4974.00,0.91
4973.00,0.91
4972.00,0.91
4971.00,0.91
4970.00,0.91
4969.00,0.91
4968.00,0.91
4967.00,0.91
4966.00,0.91
4965.00,0.91
4964.00,0.91
4963.00,0.91
4962.00,0.92
4961.00,0.92
4960.00,0.92
4959.00,0.92
4958.00,0.92
4957.00,0.92
4956.00,0.92
4955.00,0.92
4954.00,0.92
4953.00,0.92
4952.00,0.92
4951.00,0.92
4950.00,0.92
4949.00,0.92
4948.00,0.92
4947.00,0.92
4946.00,0.93
4945.00,0.93
4944.00,0.93
4943.00,0.93
4942.00,0.93
4941.00,0.93
4940.00,0.93
4939.00,0.93
4938.00,0.93
4937.00,0.93
4936.00,0.93
4935.00,0.93
4934.00,0.93
4933.00,0.93
4932.00,0.93
4931.00,0.93
4930.00,0.93
4929.00,0.94
4928.00,0.94
4927.00,0.94
4926.00,0.94
4925.00,0.94
4924.00,0.94
4923.00,0.94
4922.00,0.94
4921.00,0.94
4920.00,0.94
4919.00,0.94
4918.00,0.94
4917.00,0.94
4916.00,0.94
4915.00,0.94
4914.00,0.94
4913.00,0.94
4912.00,0.94
4911.00,0.94
4910.00,0.94
4909.00,0.94
4908.00,0.94
4907.00,0.94
4906.00,0.94
4905.00,0.94
4904.00,0.94
4903.00,0.94
4902.00,0.94
4901.00,0.94
4900.00,0.94
4899.00,0.94
4898.00,0.95
4897.00,0.95
4896.00,0.95
4895.00,0.95
4894.00,0.95
4893.00,0.95
4892.00,0.95
4891.00,0.95
4890.00,0.95
4889.00,0.95
4888.00,0.95
4887.00,0.95
4886.00,0.96
4885.00,0.96
4884.00,0.96
4883.00,0.96
4882.00,0.96
4881.00,0.96
4880.00,0.96
4879.00,0.96
4878.00,0.96
4877.00,0.96
4876.00,0.96
4875.00,0.96
4874.00,0.96
4873.00,0.96
4872.00,0.96
4871.00,0.96
4870.00,0.96
4869.00,0.96
4868.00,0.96
4867.00,0.96
4866.00,0.96
4865.00,0.96
4864.00,0.96
4863.00,0.96
4862.00,0.96
4861.00,0.96
4860.00,0.96
4859.00,0.96
4858.00,0.97
4857.00,0.97
4856.00,0.97
4855.00,0.97
4854.00,0.97
4853.00,0.97
4852.00,0.97
4851.00,0.97
4850.00,0.97
4849.00,0.97
4848.00,0.97
4847.00,0.97
4846.00,0.97
4845.00,0.97
4844.00,0.97
4843.00,0.97
4842.00,0.97
4841.00,0.97
4840.00,0.97
4839.00,0.97
4838.00,0.97
4837.00,0.97
4836.00,0.98
4835.00,0.98
4834.00,0.98
4833.00,0.98
4832.00,0.98
4831.00,0.98
4830.00,0.98
4829.00,0.98
4828.00,0.98
4827.00,0.98
4826.00,0.98
4825.00,0.98
4824.00,0.98
4823.00,0.98
4822.00,0.98
4821.00,0.98
4820.00,0.98
4819.00,0.98
4818.00,0.98
4817.00,0.98
4816.00,0.98
4815.00,0.98
4814.00,0.98
4813.00,0.98
4812.00,0.99
4811.00,0.99
4810.00,0.99
4809.00,0.99
4808.00,0.99
4807.00,0.99
4806.00,0.99
4805.00,0.99
4804.00,0.99
4803.00,0.99
4802.00,0.99
4801.00,0.99
4800.00,0.99
4799.00,0.99
4798.00,1.00
4797.00,1.00
4796.00,1.00
4795.00,1.00
4794.00,1.00
4793.00,1.00
4792.00,1.00
4791.00,1.00
4790.00,1.00
4789.00,1.00
4788.00,1.00
4787.00,1.01
4786.00,1.01
4785.00,1.01
4784.00,1.01
4783.00,1.01
4782.00,1.01
4781.00,1.01
4780.00,1.01
4779.00,1.01
4778.00,1.02
4777.00,1.02
4776.00,1.02
4775.00,1.02
4774.00,1.02
4773.00,1.02
4772.00,1.02
4771.00,1.02
4770.00,1.03
4769.00,1.03
4768.00,1.03
4767.00,1.03
4766.00,1.03
4765.00,1.03
4764.00,1.03
4763.00,1.03
4762.00,1.03
4761.00,1.03
4760.00,1.04
4759.00,1.04
4758.00,1.04
4757.00,1.04
4756.00,1.04
4755.00,1.04
4754.00,1.04
4753.00,1.04
4752.00,1.04
4751.00,1.04
4750.00,1.04
4749.00,1.04
4748.00,1.04
4747.00,1.04
4746.00,1.04
4745.00,1.05
4744.00,1.05
4743.00,1.05
4742.00,1.05
4741.00,1.05
4740.00,1.05
4739.00,1.05
4738.00,1.05
4737.00,1.05
4736.00,1.05
4735.00,1.05
4734.00,1.06
4733.00,1.06
4732.00,1.06
4731.00,1.06
4730.00,1.06
4729.00,1.06
4728.00,1.06
4727.00,1.07
4726.00,1.07
4725.00,1.07
4724.00,1.07
4723.00,1.07
4722.00,1.07
4721.00,1.07
4720.00,1.07
4719.00,1.08
4718.00,1.08
4717.00,1.08
4716.00,1.08
4715.00,1.08
4714.00,1.08
4713.00,1.08
4712.00,1.08
4711.00,1.08
4710.00,1.08
4709.00,1.08
4708.00,1.09
4707.00,1.09
4706.00,1.09
4705.00,1.09
4704.00,1.09
4703.00,1.09
4702.00,1.09
4701.00,1.09
4700.00,1.09
4699.00,1.09
4698.00,1.09
4697.00,1.09
4696.00,1.10
4695.00,1.10
4694.00,1.10
4693.00,1.10
4692.00,1.10
4691.00,1.10
4690.00,1.10
4689.00,1.10
4688.00,1.10
4687.00,1.10
4686.00,1.11
4685.00,1.11
4684.00,1.11
4683.00,1.11
4682.00,1.11
4681.00,1.11
4680.00,1.11
4679.00,1.12
4678.00,1.12
4677.00,1.12
4676.00,1.12
4675.00,1.12
4674.00,1.12
4673.00,1.12
4672.00,1.13
4671.00,1.13
4670.00,1.13
4669.00,1.13
4668.00,1.13
4667.00,1.13
4666.00,1.13
4665.00,1.13
4664.00,1.13
4663.00,1.14
4662.00,1.14
4661.00,1.14
4660.00,1.14
4659.00,1.14
4658.00,1.14
4657.00,1.14
4656.00,1.14
4655.00,1.14
4654.00,1.14
4653.00,1.14
4652.00,1.14
4651.00,1.14
4650.00,1.14
4649.00,1.14
4648.00,1.14
4647.00,1.14
4646.00,1.14
4645.00,1.14
4644.00,1.14
4643.00,1.14
4642.00,1.14
4641.00,1.14
4640.00,1.15
4639.00,1.15
4638.00,1.15
4637.00,1.15
4636.00,1.15
4635.00,1.15
4634.00,1.15
4633.00,1.15
4632.00,1.15
4631.00,1.16
4630.00,1.16
4629.00,1.16
4628.00,1.16
4627.00,1.16
4626.00,1.16
4625.00,1.16
4624.00,1.16
4623.00,1.16
4622.00,1.16
4621.00,1.16
4620.00,1.17
4619.00,1.17
4618.00,1.17
4617.00,1.17
4616.00,1.17
4615.00,1.17
4614.00,1.17
4613.00,1.17
4612.00,1.17
4611.00,1.17
4610.00,1.17
4609.00,1.17
4608.00,1.18
4607.00,1.18
4606.00,1.18
4605.00,1.18
4604.00,1.18
4603.00,1.18
4602.00,1.18
4601.00,1.18
4600.00,1.18
4599.00,1.18
4598.00,1.18
4597.00,1.18
4596.00,1.18
4595.00,1.18
4594.00,1.18
4593.00,1.18
4592.00,1.19
4591.00,1.19
4590.00,1.19
4589.00,1.19
4588.00,1.19
4587.00,1.19
4586.00,1.19
4585.00,1.19
4584.00,1.19
4583.00,1.19
4582.00,1.19
4581.00,1.19
4580.00,1.19
4579.00,1.19
4578.00,1.19
4577.00,1.19
4576.00,1.19
4575.00,1.19
4574.00,1.19
4573.00,1.19
4572.00,1.19
4571.00,1.20
4570.00,1.20
4569.00,1.20
4568.00,1.20
4567.00,1.20
4566.00,1.20
4565.00,1.20
4564.00,1.20
4563.00,1.20
4562.00,1.20
4561.00,1.20
4560.00,1.20
4559.00,1.20
4558.00,1.20
4557.00,1.20
4556.00,1.20
4555.00,1.20
4554.00,1.20
4553.00,1.20
4552.00,1.20
4551.00,1.20
4550.00,1.21
4549.00,1.21
4548.00,1.21
4547.00,1.21
4546.00,1.21
4545.00,1.21
4544.00,1.21
4543.00,1.21
4542.00,1.21
4541.00,1.21
4540.00,1.21
4539.00,1.21
4538.00,1.21
4537.00,1.22
4536.00,1.22
4535.00,1.22
4534.00,1.22
4533.00,1.22
4532.00,1.22
4531.00,1.22
4530.00,1.22
4529.00,1.22
4528.00,1.22
4527.00,1.22
4526.00,1.22
4525.00,1.22
4524.00,1.22
4523.00,1.22
4522.00,1.23
4521.00,1.23
4520.00,1.23
4519.00,1.23
4518.00,1.23
4517.00,1.23
4516.00,1.23
4515.00,1.23
4514.00,1.23
4513.00,1.23
4512.00,1.23
4511.00,1.23
4510.00,1.23
4509.00,1.23
4508.00,1.23
4507.00,1.23
4506.00,1.23
4505.00,1.23
4504.00,1.23
4503.00,1.23
4502.00,1.23
4501.00,1.23
4500.00,1.22
4499.00,1.22
4498.00,1.22
4497.00,1.22
4496.00,1.22
4495.00,1.22
4494.00,1.22
4493.00,1.22
4492.00,1.22
4491.00,1.22
4490.00,1.22
4489.00,1.22
4488.00,1.22
4487.00,1.22
4486.00,1.22
4485.00,1.22
4484.00,1.21
4483.00,1.21
4482.00,1.21
4481.00,1.21
4480.00,1.21
4479.00,1.21
4478.00,1.21
4477.00,1.21
4476.00,1.21
4475.00,1.21
4474.00,1.20
4473.00,1.20
4472.00,1.20
4471.00,1.20
4470.00,1.20
4469.00,1.20
4468.00,1.19
4467.00,1.19
4466.00,1.19
4465.00,1.19
4464.00,1.19
4463.00,1.18
4462.00,1.18
4461.00,1.18
4460.00,1.18
4459.00,1.18
4458.00,1.18
4457.00,1.18
4456.00,1.17
4455.00,1.17
4454.00,1.17
4453.00,1.17
4452.00,1.17
4451.00,1.17
4450.00,1.17
4449.00,1.16
4448.00,1.16
4447.00,1.16
4446.00,1.16
4445.00,1.16
4444.00,1.16
4443.00,1.15
4442.00,1.15
4441.00,1.15
4440.00,1.15
4439.00,1.15
4438.00,1.14
4437.00,1.14
4436.00,1.14
4435.00,1.14
4434.00,1.14
4433.00,1.14
4432.00,1.14
4431.00,1.13
4430.00,1.13
4429.00,1.13
4428.00,1.13
4427.00,1.13
4426.00,1.13
4425.00,1.13
4424.00,1.13
4423.00,1.13
4422.00,1.13
4421.00,1.13
4420.00,1.13
4419.00,1.13
4418.00,1.13
4417.00,1.13
4416.00,1.13
4415.00,1.13
4414.00,1.13
4413.00,1.13
4412.00,1.13
4411.00,1.13
4410.00,1.13
4409.00,1.13
4408.00,1.13
4407.00,1.13
4406.00,1.13
4405.00,1.13
4404.00,1.13
4403.00,1.13
4402.00,1.13
4401.00,1.13
4400.00,1.13
4399.00,1.13
4398.00,1.13
4397.00,1.13
4396.00,1.13
4395.00,1.13
4394.00,1.13
4393.00,1.13
4392.00,1.13
4391.00,1.13
4390.00,1.13
4389.00,1.13
4388.00,1.13
4387.00,1.13
4386.00,1.14
4385.00,1.14
4384.00,1.14
4383.00,1.14
4382.00,1.14
4381.00,1.14
4380.00,1.14
4379.00,1.14
4378.00,1.14
4377.00,1.14
4376.00,1.14
4375.00,1.15
4374.00,1.15
4373.00,1.15
4372.00,1.15
4371.00,1.15
4370.00,1.15
4369.00,1.15
4368.00,1.15
4367.00,1.15
4366.00,1.15
4365.00,1.15
4364.00,1.15
4363.00,1.15
4362.00,1.15
4361.00,1.15
4360.00,1.15
4359.00,1.15
4358.00,1.15
4357.00,1.15
4356.00,1.15
4355.00,1.15
4354.00,1.15
4353.00,1.15
4352.00,1.15
4351.00,1.15
4350.00,1.15
4349.00,1.15
4348.00,1.15
4347.00,1.15
4346.00,1.16
4345.00,1.16
4344.00,1.16
4343.00,1.16
4342.00,1.16
4341.00,1.16
4340.00,1.16
4339.00,1.16
4338.00,1.16
4337.00,1.16
4336.00,1.16
4335.00,1.16
4334.00,1.17
4333.00,1.17
4332.00,1.17
4331.00,1.17
4330.00,1.17
4329.00,1.17
4328.00,1.17
4327.00,1.18
4326.00,1.18
4325.00,1.18
4324.00,1.18
4323.00,1.18
4322.00,1.18
4321.00,1.18
4320.00,1.18
4319.00,1.18
4318.00,1.18
4317.00,1.18
4316.00,1.19
4315.00,1.19
4314.00,1.19
4313.00,1.19
4312.00,1.19
4311.00,1.19
4310.00,1.19
4309.00,1.19
4308.00,1.19
4307.00,1.19
4306.00,1.19
4305.00,1.19
4304.00,1.19
4303.00,1.19
4302.00,1.19
4301.00,1.19
4300.00,1.19
4299.00,1.19
4298.00,1.19
4297.00,1.19
4296.00,1.19
4295.00,1.19
4294.00,1.19
4293.00,1.20
4292.00,1.20
4291.00,1.20
4290.00,1.20
4289.00,1.20
4288.00,1.20
4287.00,1.20
4286.00,1.20
4285.00,1.20
4284.00,1.20
4283.00,1.20
4282.00,1.20
4281.00,1.20
4280.00,1.21
4279.00,1.21
4278.00,1.21
4277.00,1.21
4276.00,1.21
4275.00,1.21
4274.00,1.21
4273.00,1.21
4272.00,1.21
4271.00,1.21
4270.00,1.21
4269.00,1.21
4268.00,1.21
4267.00,1.21
4266.00,1.21
4265.00,1.21
4264.00,1.21
4263.00,1.21
4262.00,1.21
4261.00,1.21
4260.00,1.21
4259.00,1.21
4258.00,1.21
4257.00,1.21
4256.00,1.21
4255.00,1.22
4254.00,1.22
4253.00,1.22
4252.00,1.22
4251.00,1.22
4250.00,1.22
4249.00,1.22
4248.00,1.22
4247.00,1.22
4246.00,1.22
4245.00,1.22
4244.00,1.22
4243.00,1.22
4242.00,1.22
4241.00,1.22
4240.00,1.22
4239.00,1.23
4238.00,1.23
4237.00,1.23
4236.00,1.23
4235.00,1.23
4234.00,1.23
4233.00,1.23
4232.00,1.23
4231.00,1.23
4230.00,1.23
4229.00,1.23
4228.00,1.23
4227.00,1.24
4226.00,1.24
4225.00,1.24
4224.00,1.24
4223.00,1.24
4222.00,1.24
4221.00,1.24
4220.00,1.24
4219.00,1.25
4218.00,1.25
4217.00,1.25
4216.00,1.25
4215.00,1.25
4214.00,1.25
4213.00,1.25
4212.00,1.25
4211.00,1.25
4210.00,1.25
4209.00,1.25
4208.00,1.25
4207.00,1.25
4206.00,1.25
4205.00,1.25
4204.00,1.25
4203.00,1.25
4202.00,1.25
4201.00,1.25
4200.00,1.25
4199.00,1.25
4198.00,1.25
4197.00,1.25
4196.00,1.25
4195.00,1.25
4194.00,1.25
4193.00,1.25
4192.00,1.25
4191.00,1.25
4190.00,1.25
4189.00,1.25
4188.00,1.25
4187.00,1.25
4186.00,1.25
4185.00,1.25
4184.00,1.25
4183.00,1.25
4182.00,1.25
4181.00,1.25
4180.00,1.25
4179.00,1.25
4178.00,1.25
4177.00,1.25
4176.00,1.25
4175.00,1.25
4174.00,1.25
4173.00,1.25
4172.00,1.25
4171.00,1.25
4170.00,1.25
4169.00,1.25
4168.00,1.25
4167.00,1.25
4166.00,1.25
4165.00,1.25
4164.00,1.26
4163.00,1.26
4162.00,1.26
4161.00,1.26
4160.00,1.26
4159.00,1.26
4158.00,1.26
4157.00,1.26
4156.00,1.26
4155.00,1.26
4154.00,1.26
4153.00,1.26
4152.00,1.27
4151.00,1.27
4150.00,1.27
4149.00,1.27
4148.00,1.27
4147.00,1.27
4146.00,1.27
4145.00,1.27
4144.00,1.27
4143.00,1.28
4142.00,1.28
4141.00,1.28
4140.00,1.28
4139.00,1.28
4138.00,1.28
4137.00,1.28
4136.00,1.28
4135.00,1.28
4134.00,1.28
4133.00,1.28
4132.00,1.28
4131.00,1.28
4130.00,1.27
4129.00,1.27
4128.00,1.27
4127.00,1.27
4126.00,1.27
4125.00,1.27
4124.00,1.28
4123.00,1.28
4122.00,1.28
4121.00,1.28
4120.00,1.28
4119.00,1.28
4118.00,1.28
4117.00,1.28
4116.00,1.28
4115.00,1.28
4114.00,1.28
4113.00,1.29
4112.00,1.29
4111.00,1.29
4110.00,1.29
4109.00,1.29
4108.00,1.29
4107.00,1.29
4106.00,1.29
4105.00,1.29
4104.00,1.29
4103.00,1.29
4102.00,1.29
4101.00,1.29
4100.00,1.28
4099.00,1.28
4098.00,1.28
4097.00,1.28
4096.00,1.28
4095.00,1.28
4094.00,1.28
4093.00,1.28
4092.00,1.28
4091.00,1.28
4090.00,1.29
4089.00,1.29
4088.00,1.29
4087.00,1.29
4086.00,1.29
4085.00,1.29
4084.00,1.29
4083.00,1.29
4082.00,1.29
4081.00,1.29
4080.00,1.29
4079.00,1.29
4078.00,1.29
4077.00,1.29
4076.00,1.29
4075.00,1.29
4074.00,1.29
4073.00,1.29
4072.00,1.29
4071.00,1.29
4070.00,1.29
4069.00,1.29
4068.00,1.29
4067.00,1.29
4066.00,1.30
4065.00,1.30
4064.00,1.30
4063.00,1.30
4062.00,1.30
4061.00,1.30
4060.00,1.30
4059.00,1.30
4058.00,1.30
4057.00,1.30
4056.00,1.30
4055.00,1.30
4054.00,1.30
4053.00,1.30
4052.00,1.30
4051.00,1.30
4050.00,1.30
4049.00,1.30
4048.00,1.30
4047.00,1.30
4046.00,1.30
4045.00,1.30
4044.00,1.30
4043.00,1.30
4042.00,1.30
4041.00,1.30
4040.00,1.30
4039.00,1.31
4038.00,1.31
4037.00,1.31
4036.00,1.31
4035.00,1.31
4034.00,1.31
4033.00,1.31
4032.00,1.31
4031.00,1.31
4030.00,1.31
4029.00,1.31
4028.00,1.32
4027.00,1.32
4026.00,1.32
4025.00,1.32
4024.00,1.32
4023.00,1.31
4022.00,1.31
4021.00,1.31
4020.00,1.31
4019.00,1.31
4018.00,1.31
4017.00,1.31
4016.00,1.31
4015.00,1.31
4014.00,1.31
4013.00,1.31
4012.00,1.31
4011.00,1.31
4010.00,1.31
4009.00,1.31
4008.00,1.31
4007.00,1.31
4006.00,1.31
4005.00,1.31
4004.00,1.31
4003.00,1.31
4002.00,1.32
4001.00,1.32
4000.00,1.32
