创建为新数据集,样品 569 用户 Administrator 日期 星期一, 七月 16 2018
cm-1,%T
10000.00,1.35
9999.00,1.35
9998.00,1.35
9997.00,1.34
9996.00,1.34
9995.00,1.34
9994.00,1.34
9993.00,1.34
9992.00,1.34
9991.00,1.34
9990.00,1.34
9989.00,1.34
9988.00,1.34
9987.00,1.34
9986.00,1.34
9985.00,1.34
9984.00,1.34
9983.00,1.34
9982.00,1.34
9981.00,1.34
9980.00,1.34
9979.00,1.34
9978.00,1.34
9977.00,1.34
9976.00,1.34
9975.00,1.34
9974.00,1.34
9973.00,1.34
9972.00,1.34
9971.00,1.34
9970.00,1.34
9969.00,1.34
9968.00,1.34
9967.00,1.34
9966.00,1.34
9965.00,1.34
9964.00,1.33
9963.00,1.33
9962.00,1.33
9961.00,1.33
9960.00,1.33
9959.00,1.32
9958.00,1.32
9957.00,1.32
9956.00,1.32
9955.00,1.32
9954.00,1.32
9953.00,1.32
9952.00,1.32
9951.00,1.32
9950.00,1.32
9949.00,1.32
9948.00,1.32
9947.00,1.32
9946.00,1.32
9945.00,1.32
9944.00,1.32
9943.00,1.32
9942.00,1.32
9941.00,1.32
9940.00,1.32
9939.00,1.32
9938.00,1.32
9937.00,1.32
9936.00,1.32
9935.00,1.32
9934.00,1.32
9933.00,1.32
9932.00,1.32
9931.00,1.32
9930.00,1.32
9929.00,1.32
9928.00,1.32
9927.00,1.32
9926.00,1.32
9925.00,1.32
9924.00,1.32
9923.00,1.32
9922.00,1.33
9921.00,1.33
9920.00,1.33
9919.00,1.33
9918.00,1.33
9917.00,1.33
9916.00,1.33
9915.00,1.33
9914.00,1.34
9913.00,1.34
9912.00,1.34
9911.00,1.34
9910.00,1.34
9909.00,1.34
9908.00,1.34
9907.00,1.34
9906.00,1.34
9905.00,1.34
9904.00,1.34
9903.00,1.34
9902.00,1.34
9901.00,1.34
9900.00,1.34
9899.00,1.34
9898.00,1.34
9897.00,1.34
9896.00,1.34
9895.00,1.34
9894.00,1.34
9893.00,1.34
9892.00,1.34
9891.00,1.34
9890.00,1.35
9889.00,1.35
9888.00,1.35
9887.00,1.35
9886.00,1.35
9885.00,1.35
9884.00,1.35
9883.00,1.35
9882.00,1.35
9881.00,1.34
9880.00,1.34
9879.00,1.34
9878.00,1.34
9877.00,1.34
9876.00,1.34
9875.00,1.34
9874.00,1.34
9873.00,1.34
9872.00,1.33
9871.00,1.33
9870.00,1.33
9869.00,1.33
9868.00,1.33
9867.00,1.33
9866.00,1.33
9865.00,1.33
9864.00,1.33
9863.00,1.33
9862.00,1.33
9861.00,1.33
9860.00,1.33
9859.00,1.33
9858.00,1.33
9857.00,1.33
9856.00,1.33
9855.00,1.33
9854.00,1.33
9853.00,1.33
9852.00,1.33
9851.00,1.33
9850.00,1.33
9849.00,1.33
9848.00,1.33
9847.00,1.33
9846.00,1.33
9845.00,1.33
9844.00,1.33
9843.00,1.33
9842.00,1.33
9841.00,1.33
9840.00,1.33
9839.00,1.33
9838.00,1.33
9837.00,1.33
9836.00,1.32
9835.00,1.32
9834.00,1.32
9833.00,1.32
9832.00,1.32
9831.00,1.32
9830.00,1.31
9829.00,1.31
9828.00,1.31
9827.00,1.31
9826.00,1.31
9825.00,1.30
9824.00,1.30
9823.00,1.30
9822.00,1.30
9821.00,1.30
9820.00,1.30
9819.00,1.30
9818.00,1.30
9817.00,1.30
9816.00,1.30
9815.00,1.30
9814.00,1.31
9813.00,1.31
9812.00,1.31
9811.00,1.31
9810.00,1.31
9809.00,1.32
9808.00,1.32
9807.00,1.32
9806.00,1.32
9805.00,1.32
9804.00,1.32
9803.00,1.32
9802.00,1.32
9801.00,1.32
9800.00,1.32
9799.00,1.32
9798.00,1.32
9797.00,1.32
9796.00,1.32
9795.00,1.32
9794.00,1.32
9793.00,1.32
9792.00,1.31
9791.00,1.31
9790.00,1.31
9789.00,1.31
9788.00,1.31
9787.00,1.31
9786.00,1.31
9785.00,1.31
9784.00,1.30
9783.00,1.30
9782.00,1.30
9781.00,1.30
9780.00,1.30
9779.00,1.30
9778.00,1.30
9777.00,1.30
9776.00,1.30
9775.00,1.30
9774.00,1.30
9773.00,1.30
9772.00,1.30
9771.00,1.30
9770.00,1.30
9769.00,1.31
9768.00,1.31
9767.00,1.31
9766.00,1.31
9765.00,1.32
9764.00,1.32
9763.00,1.32
9762.00,1.32
9761.00,1.33
9760.00,1.33
9759.00,1.33
9758.00,1.33
9757.00,1.33
9756.00,1.33
9755.00,1.33
9754.00,1.33
9753.00,1.32
9752.00,1.32
9751.00,1.32
9750.00,1.32
9749.00,1.32
9748.00,1.31
9747.00,1.31
9746.00,1.31
9745.00,1.31
9744.00,1.31
9743.00,1.30
9742.00,1.30
9741.00,1.30
9740.00,1.30
9739.00,1.30
9738.00,1.30
9737.00,1.30
9736.00,1.30
9735.00,1.30
9734.00,1.30
9733.00,1.30
9732.00,1.30
9731.00,1.30
9730.00,1.30
9729.00,1.30
9728.00,1.30
9727.00,1.31
9726.00,1.31
9725.00,1.31
9724.00,1.31
9723.00,1.31
9722.00,1.32
9721.00,1.32
9720.00,1.32
9719.00,1.32
9718.00,1.33
9717.00,1.33
9716.00,1.33
9715.00,1.33
9714.00,1.33
9713.00,1.33
9712.00,1.33
9711.00,1.33
9710.00,1.33
9709.00,1.33
9708.00,1.33
9707.00,1.33
9706.00,1.32
9705.00,1.32
9704.00,1.32
9703.00,1.32
9702.00,1.32
9701.00,1.32
9700.00,1.32
9699.00,1.32
9698.00,1.32
9697.00,1.32
9696.00,1.32
9695.00,1.32
9694.00,1.32
9693.00,1.32
9692.00,1.32
9691.00,1.32
9690.00,1.32
9689.00,1.32
9688.00,1.32
9687.00,1.33
9686.00,1.33
9685.00,1.33
9684.00,1.33
9683.00,1.33
9682.00,1.33
9681.00,1.33
9680.00,1.34
9679.00,1.34
9678.00,1.34
9677.00,1.34
9676.00,1.34
9675.00,1.34
9674.00,1.34
9673.00,1.34
9672.00,1.34
9671.00,1.34
9670.00,1.34
9669.00,1.34
9668.00,1.34
9667.00,1.33
9666.00,1.33
9665.00,1.33
9664.00,1.33
9663.00,1.33
9662.00,1.33
9661.00,1.33
9660.00,1.33
9659.00,1.33
9658.00,1.32
9657.00,1.32
9656.00,1.32
9655.00,1.32
9654.00,1.33
9653.00,1.33
9652.00,1.33
9651.00,1.33
9650.00,1.33
9649.00,1.33
9648.00,1.34
9647.00,1.34
9646.00,1.34
9645.00,1.34
9644.00,1.34
9643.00,1.34
9642.00,1.34
9641.00,1.34
9640.00,1.34
9639.00,1.34
9638.00,1.34
9637.00,1.34
9636.00,1.34
9635.00,1.34
9634.00,1.34
9633.00,1.34
9632.00,1.34
9631.00,1.33
9630.00,1.33
9629.00,1.33
9628.00,1.33
9627.00,1.33
9626.00,1.33
9625.00,1.33
9624.00,1.33
9623.00,1.33
9622.00,1.33
9621.00,1.33
9620.00,1.33
9619.00,1.33
9618.00,1.33
9617.00,1.33
9616.00,1.33
9615.00,1.33
9614.00,1.33
9613.00,1.33
9612.00,1.33
9611.00,1.33
9610.00,1.33
9609.00,1.33
9608.00,1.33
9607.00,1.33
9606.00,1.33
9605.00,1.33
9604.00,1.33
9603.00,1.33
9602.00,1.33
9601.00,1.33
9600.00,1.33
9599.00,1.33
9598.00,1.33
9597.00,1.33
9596.00,1.33
9595.00,1.33
9594.00,1.32
9593.00,1.32
9592.00,1.32
9591.00,1.32
9590.00,1.32
9589.00,1.33
9588.00,1.33
9587.00,1.33
9586.00,1.33
9585.00,1.33
9584.00,1.33
9583.00,1.33
9582.00,1.33
9581.00,1.33
9580.00,1.33
9579.00,1.33
9578.00,1.33
9577.00,1.33
9576.00,1.33
9575.00,1.33
9574.00,1.33
9573.00,1.33
9572.00,1.33
9571.00,1.33
9570.00,1.32
9569.00,1.32
9568.00,1.32
9567.00,1.32
9566.00,1.32
9565.00,1.32
9564.00,1.32
9563.00,1.32
9562.00,1.32
9561.00,1.32
9560.00,1.32
9559.00,1.32
9558.00,1.32
9557.00,1.32
9556.00,1.32
9555.00,1.32
9554.00,1.32
9553.00,1.32
9552.00,1.32
9551.00,1.32
9550.00,1.32
9549.00,1.32
9548.00,1.33
9547.00,1.33
9546.00,1.33
9545.00,1.33
9544.00,1.33
9543.00,1.33
9542.00,1.33
9541.00,1.33
9540.00,1.33
9539.00,1.32
9538.00,1.32
9537.00,1.32
9536.00,1.33
9535.00,1.33
9534.00,1.33
9533.00,1.33
9532.00,1.33
9531.00,1.33
9530.00,1.33
9529.00,1.33
9528.00,1.33
9527.00,1.33
9526.00,1.33
9525.00,1.33
9524.00,1.33
9523.00,1.33
9522.00,1.33
9521.00,1.33
9520.00,1.33
9519.00,1.33
9518.00,1.33
9517.00,1.33
9516.00,1.33
9515.00,1.33
9514.00,1.33
9513.00,1.33
9512.00,1.33
9511.00,1.33
9510.00,1.33
9509.00,1.33
9508.00,1.33
9507.00,1.33
9506.00,1.33
9505.00,1.33
9504.00,1.33
9503.00,1.33
9502.00,1.33
9501.00,1.33
9500.00,1.34
9499.00,1.34
9498.00,1.34
9497.00,1.34
9496.00,1.34
9495.00,1.34
9494.00,1.34
9493.00,1.34
9492.00,1.34
9491.00,1.34
9490.00,1.34
9489.00,1.34
9488.00,1.34
9487.00,1.34
9486.00,1.34
9485.00,1.34
9484.00,1.34
9483.00,1.34
9482.00,1.34
9481.00,1.34
9480.00,1.34
9479.00,1.34
9478.00,1.35
9477.00,1.35
9476.00,1.35
9475.00,1.35
9474.00,1.35
9473.00,1.34
9472.00,1.34
9471.00,1.34
9470.00,1.34
9469.00,1.34
9468.00,1.34
9467.00,1.34
9466.00,1.34
9465.00,1.34
9464.00,1.34
9463.00,1.34
9462.00,1.34
9461.00,1.34
9460.00,1.34
9459.00,1.34
9458.00,1.34
9457.00,1.34
9456.00,1.34
9455.00,1.34
9454.00,1.34
9453.00,1.34
9452.00,1.34
9451.00,1.34
9450.00,1.34
9449.00,1.34
9448.00,1.34
9447.00,1.34
9446.00,1.34
9445.00,1.34
9444.00,1.34
9443.00,1.34
9442.00,1.34
9441.00,1.34
9440.00,1.34
9439.00,1.34
9438.00,1.34
9437.00,1.34
9436.00,1.34
9435.00,1.34
9434.00,1.34
9433.00,1.34
9432.00,1.34
9431.00,1.33
9430.00,1.33
9429.00,1.33
9428.00,1.33
9427.00,1.33
9426.00,1.33
9425.00,1.33
9424.00,1.33
9423.00,1.33
9422.00,1.33
9421.00,1.33
9420.00,1.33
9419.00,1.33
9418.00,1.32
9417.00,1.32
9416.00,1.32
9415.00,1.32
9414.00,1.32
9413.00,1.32
9412.00,1.32
9411.00,1.32
9410.00,1.32
9409.00,1.33
9408.00,1.33
9407.00,1.33
9406.00,1.33
9405.00,1.33
9404.00,1.33
9403.00,1.33
9402.00,1.33
9401.00,1.33
9400.00,1.33
9399.00,1.33
9398.00,1.33
9397.00,1.33
9396.00,1.33
9395.00,1.33
9394.00,1.33
9393.00,1.32
9392.00,1.32
9391.00,1.32
9390.00,1.32
9389.00,1.32
9388.00,1.32
9387.00,1.31
9386.00,1.31
9385.00,1.31
9384.00,1.31
9383.00,1.31
9382.00,1.31
9381.00,1.31
9380.00,1.31
9379.00,1.31
9378.00,1.31
9377.00,1.31
9376.00,1.31
9375.00,1.31
9374.00,1.31
9373.00,1.32
9372.00,1.32
9371.00,1.32
9370.00,1.32
9369.00,1.32
9368.00,1.33
9367.00,1.33
9366.00,1.33
9365.00,1.33
9364.00,1.33
9363.00,1.34
9362.00,1.34
9361.00,1.34
9360.00,1.34
9359.00,1.34
9358.00,1.34
9357.00,1.34
9356.00,1.35
9355.00,1.35
9354.00,1.35
9353.00,1.35
9352.00,1.35
9351.00,1.35
9350.00,1.34
9349.00,1.34
9348.00,1.34
9347.00,1.34
9346.00,1.34
9345.00,1.34
9344.00,1.34
9343.00,1.34
9342.00,1.34
9341.00,1.34
9340.00,1.34
9339.00,1.34
9338.00,1.34
9337.00,1.34
9336.00,1.34
9335.00,1.34
9334.00,1.34
9333.00,1.34
9332.00,1.34
9331.00,1.34
9330.00,1.34
9329.00,1.34
9328.00,1.34
9327.00,1.33
9326.00,1.33
9325.00,1.33
9324.00,1.33
9323.00,1.33
9322.00,1.33
9321.00,1.33
9320.00,1.33
9319.00,1.33
9318.00,1.33
9317.00,1.33
9316.00,1.33
9315.00,1.33
9314.00,1.32
9313.00,1.32
9312.00,1.32
9311.00,1.32
9310.00,1.32
9309.00,1.32
9308.00,1.32
9307.00,1.32
9306.00,1.32
9305.00,1.33
9304.00,1.33
9303.00,1.33
9302.00,1.33
9301.00,1.33
9300.00,1.33
9299.00,1.33
9298.00,1.33
9297.00,1.33
9296.00,1.34
9295.00,1.34
9294.00,1.34
9293.00,1.34
9292.00,1.34
9291.00,1.34
9290.00,1.34
9289.00,1.34
9288.00,1.34
9287.00,1.34
9286.00,1.34
9285.00,1.34
9284.00,1.34
9283.00,1.34
9282.00,1.33
9281.00,1.33
9280.00,1.33
9279.00,1.33
9278.00,1.33
9277.00,1.33
9276.00,1.33
9275.00,1.33
9274.00,1.33
9273.00,1.33
9272.00,1.33
9271.00,1.33
9270.00,1.33
9269.00,1.33
9268.00,1.33
9267.00,1.33
9266.00,1.33
9265.00,1.33
9264.00,1.33
9263.00,1.33
9262.00,1.33
9261.00,1.33
9260.00,1.33
9259.00,1.33
9258.00,1.33
9257.00,1.33
9256.00,1.33
9255.00,1.33
9254.00,1.33
9253.00,1.33
9252.00,1.33
9251.00,1.34
9250.00,1.34
9249.00,1.34
9248.00,1.34
9247.00,1.34
9246.00,1.34
9245.00,1.34
9244.00,1.34
9243.00,1.35
9242.00,1.35
9241.00,1.35
9240.00,1.35
9239.00,1.35
9238.00,1.35
9237.00,1.34
9236.00,1.34
9235.00,1.34
9234.00,1.34
9233.00,1.34
9232.00,1.34
9231.00,1.34
9230.00,1.34
9229.00,1.33
9228.00,1.33
9227.00,1.33
9226.00,1.33
9225.00,1.33
9224.00,1.33
9223.00,1.32
9222.00,1.32
9221.00,1.32
9220.00,1.32
9219.00,1.32
9218.00,1.32
9217.00,1.32
9216.00,1.32
9215.00,1.32
9214.00,1.32
9213.00,1.32
9212.00,1.32
9211.00,1.32
9210.00,1.32
9209.00,1.32
9208.00,1.32
9207.00,1.32
9206.00,1.32
9205.00,1.32
9204.00,1.32
9203.00,1.33
9202.00,1.33
9201.00,1.33
9200.00,1.33
9199.00,1.33
9198.00,1.33
9197.00,1.34
9196.00,1.34
9195.00,1.34
9194.00,1.34
9193.00,1.34
9192.00,1.34
9191.00,1.34
9190.00,1.34
9189.00,1.34
9188.00,1.34
9187.00,1.34
9186.00,1.34
9185.00,1.34
9184.00,1.34
9183.00,1.34
9182.00,1.34
9181.00,1.33
9180.00,1.33
9179.00,1.33
9178.00,1.33
9177.00,1.33
9176.00,1.33
9175.00,1.33
9174.00,1.33
9173.00,1.33
9172.00,1.33
9171.00,1.33
9170.00,1.33
9169.00,1.33
9168.00,1.33
9167.00,1.33
9166.00,1.33
9165.00,1.33
9164.00,1.33
9163.00,1.33
9162.00,1.33
9161.00,1.33
9160.00,1.33
9159.00,1.33
9158.00,1.33
9157.00,1.33
9156.00,1.33
9155.00,1.34
9154.00,1.34
9153.00,1.34
9152.00,1.34
9151.00,1.34
9150.00,1.34
9149.00,1.34
9148.00,1.34
9147.00,1.34
9146.00,1.34
9145.00,1.34
9144.00,1.34
9143.00,1.33
9142.00,1.33
9141.00,1.33
9140.00,1.33
9139.00,1.33
9138.00,1.33
9137.00,1.33
9136.00,1.33
9135.00,1.33
9134.00,1.33
9133.00,1.33
9132.00,1.33
9131.00,1.34
9130.00,1.34
9129.00,1.34
9128.00,1.34
9127.00,1.34
9126.00,1.34
9125.00,1.34
9124.00,1.34
9123.00,1.34
9122.00,1.34
9121.00,1.34
9120.00,1.34
9119.00,1.34
9118.00,1.34
9117.00,1.34
9116.00,1.34
9115.00,1.34
9114.00,1.34
9113.00,1.34
9112.00,1.34
9111.00,1.34
9110.00,1.33
9109.00,1.33
9108.00,1.33
9107.00,1.33
9106.00,1.33
9105.00,1.33
9104.00,1.33
9103.00,1.33
9102.00,1.33
9101.00,1.32
9100.00,1.32
9099.00,1.32
9098.00,1.32
9097.00,1.32
9096.00,1.32
9095.00,1.32
9094.00,1.32
9093.00,1.32
9092.00,1.32
9091.00,1.32
9090.00,1.32
9089.00,1.32
9088.00,1.32
9087.00,1.32
9086.00,1.32
9085.00,1.32
9084.00,1.32
9083.00,1.32
9082.00,1.32
9081.00,1.32
9080.00,1.32
9079.00,1.32
9078.00,1.32
9077.00,1.32
9076.00,1.32
9075.00,1.32
9074.00,1.32
9073.00,1.32
9072.00,1.33
9071.00,1.33
9070.00,1.33
9069.00,1.33
9068.00,1.33
9067.00,1.34
9066.00,1.34
9065.00,1.34
9064.00,1.34
9063.00,1.34
9062.00,1.34
9061.00,1.34
9060.00,1.34
9059.00,1.35
9058.00,1.35
9057.00,1.35
9056.00,1.35
9055.00,1.35
9054.00,1.35
9053.00,1.35
9052.00,1.35
9051.00,1.35
9050.00,1.35
9049.00,1.35
9048.00,1.35
9047.00,1.35
9046.00,1.34
9045.00,1.34
9044.00,1.34
9043.00,1.34
9042.00,1.34
9041.00,1.34
9040.00,1.34
9039.00,1.34
9038.00,1.34
9037.00,1.33
9036.00,1.33
9035.00,1.33
9034.00,1.33
9033.00,1.33
9032.00,1.33
9031.00,1.33
9030.00,1.32
9029.00,1.32
9028.00,1.32
9027.00,1.32
9026.00,1.32
9025.00,1.32
9024.00,1.32
9023.00,1.32
9022.00,1.32
9021.00,1.32
9020.00,1.32
9019.00,1.32
9018.00,1.32
9017.00,1.32
9016.00,1.32
9015.00,1.32
9014.00,1.33
9013.00,1.33
9012.00,1.33
9011.00,1.33
9010.00,1.33
9009.00,1.33
9008.00,1.33
9007.00,1.33
9006.00,1.33
9005.00,1.33
9004.00,1.33
9003.00,1.33
9002.00,1.33
9001.00,1.32
9000.00,1.32
8999.00,1.32
8998.00,1.32
8997.00,1.32
8996.00,1.32
8995.00,1.32
8994.00,1.32
8993.00,1.32
8992.00,1.32
8991.00,1.32
8990.00,1.32
8989.00,1.32
8988.00,1.32
8987.00,1.33
8986.00,1.33
8985.00,1.33
8984.00,1.33
8983.00,1.33
8982.00,1.33
8981.00,1.33
8980.00,1.33
8979.00,1.33
8978.00,1.33
8977.00,1.33
8976.00,1.33
8975.00,1.33
8974.00,1.33
8973.00,1.33
8972.00,1.33
8971.00,1.33
8970.00,1.33
8969.00,1.33
8968.00,1.33
8967.00,1.34
8966.00,1.34
8965.00,1.34
8964.00,1.34
8963.00,1.34
8962.00,1.34
8961.00,1.34
8960.00,1.34
8959.00,1.34
8958.00,1.34
8957.00,1.34
8956.00,1.34
8955.00,1.34
8954.00,1.34
8953.00,1.34
8952.00,1.34
8951.00,1.34
8950.00,1.34
8949.00,1.34
8948.00,1.34
8947.00,1.34
8946.00,1.35
8945.00,1.35
8944.00,1.35
8943.00,1.35
8942.00,1.35
8941.00,1.35
8940.00,1.35
8939.00,1.35
8938.00,1.35
8937.00,1.35
8936.00,1.35
8935.00,1.34
8934.00,1.34
8933.00,1.34
8932.00,1.34
8931.00,1.34
8930.00,1.34
8929.00,1.34
8928.00,1.34
8927.00,1.34
8926.00,1.34
8925.00,1.33
8924.00,1.33
8923.00,1.33
8922.00,1.33
8921.00,1.33
8920.00,1.33
8919.00,1.33
8918.00,1.32
8917.00,1.32
8916.00,1.32
8915.00,1.32
8914.00,1.32
8913.00,1.32
8912.00,1.32
8911.00,1.32
8910.00,1.32
8909.00,1.32
8908.00,1.32
8907.00,1.32
8906.00,1.32
8905.00,1.32
8904.00,1.32
8903.00,1.32
8902.00,1.32
8901.00,1.32
8900.00,1.32
8899.00,1.32
8898.00,1.32
8897.00,1.32
8896.00,1.32
8895.00,1.32
8894.00,1.32
8893.00,1.32
8892.00,1.32
8891.00,1.32
8890.00,1.32
8889.00,1.32
8888.00,1.32
8887.00,1.32
8886.00,1.32
8885.00,1.32
8884.00,1.32
8883.00,1.32
8882.00,1.32
8881.00,1.32
8880.00,1.32
8879.00,1.32
8878.00,1.32
8877.00,1.32
8876.00,1.32
8875.00,1.32
8874.00,1.32
8873.00,1.32
8872.00,1.32
8871.00,1.32
8870.00,1.32
8869.00,1.33
8868.00,1.33
8867.00,1.33
8866.00,1.33
8865.00,1.33
8864.00,1.33
8863.00,1.33
8862.00,1.33
8861.00,1.33
8860.00,1.33
8859.00,1.33
8858.00,1.33
8857.00,1.33
8856.00,1.33
8855.00,1.33
8854.00,1.33
8853.00,1.33
8852.00,1.33
8851.00,1.33
8850.00,1.33
8849.00,1.33
8848.00,1.33
8847.00,1.33
8846.00,1.33
8845.00,1.33
8844.00,1.33
8843.00,1.33
8842.00,1.33
8841.00,1.33
8840.00,1.33
8839.00,1.33
8838.00,1.33
8837.00,1.33
8836.00,1.33
8835.00,1.33
8834.00,1.33
8833.00,1.33
8832.00,1.33
8831.00,1.33
8830.00,1.33
8829.00,1.33
8828.00,1.33
8827.00,1.33
8826.00,1.33
8825.00,1.33
8824.00,1.32
8823.00,1.32
8822.00,1.32
8821.00,1.32
8820.00,1.32
8819.00,1.32
8818.00,1.32
8817.00,1.32
8816.00,1.32
8815.00,1.32
8814.00,1.32
8813.00,1.32
8812.00,1.32
8811.00,1.32
8810.00,1.32
8809.00,1.32
8808.00,1.31
8807.00,1.31
8806.00,1.31
8805.00,1.31
8804.00,1.31
8803.00,1.31
8802.00,1.31
8801.00,1.31
8800.00,1.31
8799.00,1.31
8798.00,1.31
8797.00,1.30
8796.00,1.30
8795.00,1.30
8794.00,1.30
8793.00,1.30
8792.00,1.30
8791.00,1.31
8790.00,1.31
8789.00,1.31
8788.00,1.31
8787.00,1.31
8786.00,1.31
8785.00,1.31
8784.00,1.31
8783.00,1.31
8782.00,1.31
8781.00,1.30
8780.00,1.30
8779.00,1.30
8778.00,1.30
8777.00,1.30
8776.00,1.30
8775.00,1.30
8774.00,1.30
8773.00,1.30
8772.00,1.30
8771.00,1.30
8770.00,1.30
8769.00,1.29
8768.00,1.29
8767.00,1.29
8766.00,1.29
8765.00,1.29
8764.00,1.29
8763.00,1.29
8762.00,1.30
8761.00,1.30
8760.00,1.30
8759.00,1.30
8758.00,1.30
8757.00,1.30
8756.00,1.30
8755.00,1.30
8754.00,1.30
8753.00,1.30
8752.00,1.30
8751.00,1.30
8750.00,1.30
8749.00,1.30
8748.00,1.30
8747.00,1.30
8746.00,1.30
8745.00,1.30
8744.00,1.29
8743.00,1.29
8742.00,1.29
8741.00,1.29
8740.00,1.29
8739.00,1.29
8738.00,1.28
8737.00,1.28
8736.00,1.28
8735.00,1.28
8734.00,1.28
8733.00,1.28
8732.00,1.28
8731.00,1.28
8730.00,1.28
8729.00,1.28
8728.00,1.28
8727.00,1.28
8726.00,1.28
8725.00,1.28
8724.00,1.28
8723.00,1.28
8722.00,1.28
8721.00,1.28
8720.00,1.28
8719.00,1.28
8718.00,1.28
8717.00,1.28
8716.00,1.28
8715.00,1.28
8714.00,1.28
8713.00,1.27
8712.00,1.27
8711.00,1.27
8710.00,1.27
8709.00,1.27
8708.00,1.27
8707.00,1.27
8706.00,1.27
8705.00,1.28
8704.00,1.28
8703.00,1.28
8702.00,1.28
8701.00,1.28
8700.00,1.28
8699.00,1.28
8698.00,1.28
8697.00,1.28
8696.00,1.28
8695.00,1.28
8694.00,1.28
8693.00,1.28
8692.00,1.28
8691.00,1.28
8690.00,1.28
8689.00,1.28
8688.00,1.28
8687.00,1.28
8686.00,1.28
8685.00,1.28
8684.00,1.28
8683.00,1.28
8682.00,1.28
8681.00,1.28
8680.00,1.28
8679.00,1.28
8678.00,1.28
8677.00,1.28
8676.00,1.28
8675.00,1.28
8674.00,1.29
8673.00,1.29
8672.00,1.29
8671.00,1.29
8670.00,1.29
8669.00,1.29
8668.00,1.29
8667.00,1.29
8666.00,1.30
8665.00,1.30
8664.00,1.30
8663.00,1.30
8662.00,1.30
8661.00,1.30
8660.00,1.30
8659.00,1.30
8658.00,1.30
8657.00,1.30
8656.00,1.30
8655.00,1.30
8654.00,1.30
8653.00,1.30
8652.00,1.30
8651.00,1.30
8650.00,1.30
8649.00,1.30
8648.00,1.29
8647.00,1.29
8646.00,1.29
8645.00,1.29
8644.00,1.28
8643.00,1.28
8642.00,1.28
8641.00,1.28
8640.00,1.27
8639.00,1.27
8638.00,1.27
8637.00,1.27
8636.00,1.27
8635.00,1.26
8634.00,1.26
8633.00,1.26
8632.00,1.26
8631.00,1.26
8630.00,1.26
8629.00,1.26
8628.00,1.26
8627.00,1.27
8626.00,1.27
8625.00,1.27
8624.00,1.27
8623.00,1.27
8622.00,1.27
8621.00,1.27
8620.00,1.28
8619.00,1.28
8618.00,1.28
8617.00,1.28
8616.00,1.28
8615.00,1.28
8614.00,1.28
8613.00,1.28
8612.00,1.28
8611.00,1.28
8610.00,1.28
8609.00,1.28
8608.00,1.28
8607.00,1.28
8606.00,1.28
8605.00,1.28
8604.00,1.28
8603.00,1.28
8602.00,1.28
8601.00,1.28
8600.00,1.28
8599.00,1.28
8598.00,1.28
8597.00,1.28
8596.00,1.28
8595.00,1.28
8594.00,1.28
8593.00,1.28
8592.00,1.28
8591.00,1.28
8590.00,1.28
8589.00,1.28
8588.00,1.28
8587.00,1.28
8586.00,1.28
8585.00,1.28
8584.00,1.28
8583.00,1.28
8582.00,1.28
8581.00,1.27
8580.00,1.27
8579.00,1.27
8578.00,1.27
8577.00,1.27
8576.00,1.27
8575.00,1.27
8574.00,1.27
8573.00,1.27
8572.00,1.27
8571.00,1.27
8570.00,1.27
8569.00,1.27
8568.00,1.27
8567.00,1.27
8566.00,1.27
8565.00,1.27
8564.00,1.27
8563.00,1.27
8562.00,1.27
8561.00,1.27
8560.00,1.27
8559.00,1.27
8558.00,1.26
8557.00,1.26
8556.00,1.26
8555.00,1.26
8554.00,1.26
8553.00,1.26
8552.00,1.26
8551.00,1.26
8550.00,1.26
8549.00,1.26
8548.00,1.26
8547.00,1.26
8546.00,1.26
8545.00,1.26
8544.00,1.26
8543.00,1.26
8542.00,1.26
8541.00,1.26
8540.00,1.26
8539.00,1.26
8538.00,1.26
8537.00,1.26
8536.00,1.26
8535.00,1.26
8534.00,1.26
8533.00,1.26
8532.00,1.26
8531.00,1.26
8530.00,1.26
8529.00,1.26
8528.00,1.26
8527.00,1.26
8526.00,1.26
8525.00,1.26
8524.00,1.26
8523.00,1.26
8522.00,1.26
8521.00,1.26
8520.00,1.26
8519.00,1.26
8518.00,1.26
8517.00,1.25
8516.00,1.25
8515.00,1.25
8514.00,1.25
8513.00,1.25
8512.00,1.25
8511.00,1.25
8510.00,1.25
8509.00,1.25
8508.00,1.24
8507.00,1.24
8506.00,1.24
8505.00,1.24
8504.00,1.24
8503.00,1.24
8502.00,1.24
8501.00,1.24
8500.00,1.24
8499.00,1.24
8498.00,1.24
8497.00,1.24
8496.00,1.24
8495.00,1.24
8494.00,1.24
8493.00,1.24
8492.00,1.24
8491.00,1.24
8490.00,1.25
8489.00,1.25
8488.00,1.25
8487.00,1.25
8486.00,1.25
8485.00,1.25
8484.00,1.25
8483.00,1.25
8482.00,1.25
8481.00,1.25
8480.00,1.25
8479.00,1.25
8478.00,1.25
8477.00,1.25
8476.00,1.25
8475.00,1.24
8474.00,1.24
8473.00,1.24
8472.00,1.24
8471.00,1.24
8470.00,1.24
8469.00,1.24
8468.00,1.24
8467.00,1.23
8466.00,1.23
8465.00,1.23
8464.00,1.23
8463.00,1.23
8462.00,1.23
8461.00,1.23
8460.00,1.23
8459.00,1.23
8458.00,1.23
8457.00,1.23
8456.00,1.23
8455.00,1.23
8454.00,1.23
8453.00,1.23
8452.00,1.23
8451.00,1.23
8450.00,1.23
8449.00,1.22
8448.00,1.22
8447.00,1.22
8446.00,1.22
8445.00,1.22
8444.00,1.22
8443.00,1.22
8442.00,1.22
8441.00,1.22
8440.00,1.22
8439.00,1.22
8438.00,1.22
8437.00,1.22
8436.00,1.22
8435.00,1.22
8434.00,1.22
8433.00,1.22
8432.00,1.22
8431.00,1.23
8430.00,1.23
8429.00,1.23
8428.00,1.23
8427.00,1.23
8426.00,1.23
8425.00,1.23
8424.00,1.23
8423.00,1.24
8422.00,1.24
8421.00,1.24
8420.00,1.24
8419.00,1.24
8418.00,1.24
8417.00,1.24
8416.00,1.24
8415.00,1.24
8414.00,1.24
8413.00,1.23
8412.00,1.23
8411.00,1.23
8410.00,1.23
8409.00,1.23
8408.00,1.23
8407.00,1.23
8406.00,1.23
8405.00,1.23
8404.00,1.23
8403.00,1.23
8402.00,1.23
8401.00,1.23
8400.00,1.23
8399.00,1.23
8398.00,1.23
8397.00,1.24
8396.00,1.24
8395.00,1.24
8394.00,1.24
8393.00,1.24
8392.00,1.24
8391.00,1.23
8390.00,1.23
8389.00,1.23
8388.00,1.23
8387.00,1.23
8386.00,1.23
8385.00,1.23
8384.00,1.23
8383.00,1.24
8382.00,1.24
8381.00,1.24
8380.00,1.24
8379.00,1.24
8378.00,1.24
8377.00,1.24
8376.00,1.24
8375.00,1.24
8374.00,1.24
8373.00,1.24
8372.00,1.24
8371.00,1.24
8370.00,1.24
8369.00,1.24
8368.00,1.24
8367.00,1.24
8366.00,1.24
8365.00,1.24
8364.00,1.25
8363.00,1.25
8362.00,1.25
8361.00,1.25
8360.00,1.25
8359.00,1.25
8358.00,1.25
8357.00,1.25
8356.00,1.25
8355.00,1.25
8354.00,1.25
8353.00,1.25
8352.00,1.25
8351.00,1.25
8350.00,1.25
8349.00,1.25
8348.00,1.25
8347.00,1.25
8346.00,1.25
8345.00,1.25
8344.00,1.25
8343.00,1.25
8342.00,1.25
8341.00,1.25
8340.00,1.25
8339.00,1.25
8338.00,1.25
8337.00,1.25
8336.00,1.25
8335.00,1.25
8334.00,1.25
8333.00,1.25
8332.00,1.25
8331.00,1.25
8330.00,1.25
8329.00,1.25
8328.00,1.26
8327.00,1.26
8326.00,1.26
8325.00,1.26
8324.00,1.26
8323.00,1.26
8322.00,1.26
8321.00,1.26
8320.00,1.25
8319.00,1.25
8318.00,1.25
8317.00,1.25
8316.00,1.25
8315.00,1.25
8314.00,1.25
8313.00,1.25
8312.00,1.25
8311.00,1.25
8310.00,1.25
8309.00,1.25
8308.00,1.25
8307.00,1.25
8306.00,1.25
8305.00,1.25
8304.00,1.25
8303.00,1.25
8302.00,1.25
8301.00,1.25
8300.00,1.25
8299.00,1.25
8298.00,1.25
8297.00,1.25
8296.00,1.25
8295.00,1.25
8294.00,1.25
8293.00,1.25
8292.00,1.25
8291.00,1.25
8290.00,1.25
8289.00,1.25
8288.00,1.25
8287.00,1.25
8286.00,1.25
8285.00,1.25
8284.00,1.25
8283.00,1.25
8282.00,1.25
8281.00,1.26
8280.00,1.26
8279.00,1.26
8278.00,1.26
8277.00,1.26
8276.00,1.26
8275.00,1.26
8274.00,1.26
8273.00,1.26
8272.00,1.26
8271.00,1.26
8270.00,1.26
8269.00,1.26
8268.00,1.26
8267.00,1.26
8266.00,1.26
8265.00,1.26
8264.00,1.27
8263.00,1.27
8262.00,1.27
8261.00,1.27
8260.00,1.27
8259.00,1.26
8258.00,1.26
8257.00,1.26
8256.00,1.26
8255.00,1.26
8254.00,1.26
8253.00,1.26
8252.00,1.26
8251.00,1.26
8250.00,1.26
8249.00,1.26
8248.00,1.26
8247.00,1.26
8246.00,1.26
8245.00,1.26
8244.00,1.26
8243.00,1.26
8242.00,1.26
8241.00,1.26
8240.00,1.26
8239.00,1.26
8238.00,1.26
8237.00,1.26
8236.00,1.27
8235.00,1.27
8234.00,1.27
8233.00,1.27
8232.00,1.27
8231.00,1.27
8230.00,1.27
8229.00,1.27
8228.00,1.28
8227.00,1.28
8226.00,1.28
8225.00,1.28
8224.00,1.28
8223.00,1.28
8222.00,1.28
8221.00,1.28
8220.00,1.28
8219.00,1.28
8218.00,1.28
8217.00,1.28
8216.00,1.28
8215.00,1.28
8214.00,1.28
8213.00,1.28
8212.00,1.28
8211.00,1.28
8210.00,1.28
8209.00,1.28
8208.00,1.28
8207.00,1.28
8206.00,1.28
8205.00,1.28
8204.00,1.28
8203.00,1.28
8202.00,1.28
8201.00,1.28
8200.00,1.28
8199.00,1.28
8198.00,1.28
8197.00,1.28
8196.00,1.28
8195.00,1.28
8194.00,1.28
8193.00,1.28
8192.00,1.28
8191.00,1.28
8190.00,1.28
8189.00,1.28
8188.00,1.28
8187.00,1.28
8186.00,1.28
8185.00,1.28
8184.00,1.28
8183.00,1.28
8182.00,1.28
8181.00,1.28
8180.00,1.28
8179.00,1.29
8178.00,1.29
8177.00,1.29
8176.00,1.29
8175.00,1.29
8174.00,1.29
8173.00,1.29
8172.00,1.29
8171.00,1.29
8170.00,1.29
8169.00,1.29
8168.00,1.29
8167.00,1.29
8166.00,1.29
8165.00,1.29
8164.00,1.29
8163.00,1.29
8162.00,1.29
8161.00,1.29
8160.00,1.29
8159.00,1.29
8158.00,1.29
8157.00,1.29
8156.00,1.29
8155.00,1.29
8154.00,1.29
8153.00,1.29
8152.00,1.29
8151.00,1.29
8150.00,1.29
8149.00,1.29
8148.00,1.29
8147.00,1.29
8146.00,1.29
8145.00,1.29
8144.00,1.29
8143.00,1.29
8142.00,1.29
8141.00,1.29
8140.00,1.29
8139.00,1.29
8138.00,1.29
8137.00,1.29
8136.00,1.29
8135.00,1.29
8134.00,1.29
8133.00,1.29
8132.00,1.29
8131.00,1.29
8130.00,1.29
8129.00,1.29
8128.00,1.29
8127.00,1.29
8126.00,1.29
8125.00,1.29
8124.00,1.29
8123.00,1.29
8122.00,1.30
8121.00,1.30
8120.00,1.30
8119.00,1.30
8118.00,1.30
8117.00,1.30
8116.00,1.30
8115.00,1.30
8114.00,1.30
8113.00,1.30
8112.00,1.30
8111.00,1.30
8110.00,1.30
8109.00,1.30
8108.00,1.30
8107.00,1.30
8106.00,1.30
8105.00,1.30
8104.00,1.30
8103.00,1.30
8102.00,1.30
8101.00,1.30
8100.00,1.30
8099.00,1.30
8098.00,1.30
8097.00,1.30
8096.00,1.30
8095.00,1.30
8094.00,1.30
8093.00,1.30
8092.00,1.30
8091.00,1.30
8090.00,1.30
8089.00,1.30
8088.00,1.30
8087.00,1.30
8086.00,1.30
8085.00,1.30
8084.00,1.30
8083.00,1.30
8082.00,1.30
8081.00,1.30
8080.00,1.30
8079.00,1.30
8078.00,1.30
8077.00,1.30
8076.00,1.30
8075.00,1.30
8074.00,1.30
8073.00,1.30
8072.00,1.30
8071.00,1.30
8070.00,1.30
8069.00,1.30
8068.00,1.30
8067.00,1.31
8066.00,1.31
8065.00,1.31
8064.00,1.31
8063.00,1.31
8062.00,1.31
8061.00,1.31
8060.00,1.31
8059.00,1.31
8058.00,1.31
8057.00,1.31
8056.00,1.31
8055.00,1.31
8054.00,1.31
8053.00,1.31
8052.00,1.31
8051.00,1.31
8050.00,1.31
8049.00,1.32
8048.00,1.32
8047.00,1.32
8046.00,1.32
8045.00,1.32
8044.00,1.32
8043.00,1.32
8042.00,1.32
8041.00,1.32
8040.00,1.32
8039.00,1.32
8038.00,1.32
8037.00,1.32
8036.00,1.32
8035.00,1.32
8034.00,1.32
8033.00,1.32
8032.00,1.32
8031.00,1.32
8030.00,1.32
8029.00,1.32
8028.00,1.32
8027.00,1.32
8026.00,1.32
8025.00,1.32
8024.00,1.32
8023.00,1.32
8022.00,1.32
8021.00,1.32
8020.00,1.32
8019.00,1.32
8018.00,1.32
8017.00,1.32
8016.00,1.32
8015.00,1.32
8014.00,1.32
8013.00,1.32
8012.00,1.32
8011.00,1.32
8010.00,1.32
8009.00,1.32
8008.00,1.32
8007.00,1.32
8006.00,1.32
8005.00,1.32
8004.00,1.32
8003.00,1.32
8002.00,1.32
8001.00,1.32
8000.00,1.32
7999.00,1.32
7998.00,1.32
7997.00,1.32
7996.00,1.32
7995.00,1.32
7994.00,1.32
7993.00,1.32
7992.00,1.32
7991.00,1.32
7990.00,1.32
7989.00,1.32
7988.00,1.32
7987.00,1.32
7986.00,1.32
7985.00,1.32
7984.00,1.32
7983.00,1.32
7982.00,1.32
7981.00,1.31
7980.00,1.31
7979.00,1.31
7978.00,1.31
7977.00,1.32
7976.00,1.32
7975.00,1.32
7974.00,1.32
7973.00,1.32
7972.00,1.32
7971.00,1.32
7970.00,1.32
7969.00,1.32
7968.00,1.32
7967.00,1.32
7966.00,1.32
7965.00,1.32
7964.00,1.32
7963.00,1.32
7962.00,1.32
7961.00,1.32
7960.00,1.32
7959.00,1.32
7958.00,1.32
7957.00,1.32
7956.00,1.32
7955.00,1.32
7954.00,1.31
7953.00,1.31
7952.00,1.31
7951.00,1.31
7950.00,1.31
7949.00,1.31
7948.00,1.31
7947.00,1.31
7946.00,1.31
7945.00,1.31
7944.00,1.31
7943.00,1.31
7942.00,1.31
7941.00,1.31
7940.00,1.31
7939.00,1.32
7938.00,1.32
7937.00,1.32
7936.00,1.32
7935.00,1.32
7934.00,1.32
7933.00,1.32
7932.00,1.32
7931.00,1.32
7930.00,1.32
7929.00,1.32
7928.00,1.32
7927.00,1.32
7926.00,1.33
7925.00,1.33
7924.00,1.33
7923.00,1.33
7922.00,1.33
7921.00,1.33
7920.00,1.33
7919.00,1.33
7918.00,1.33
7917.00,1.33
7916.00,1.33
7915.00,1.33
7914.00,1.33
7913.00,1.33
7912.00,1.33
7911.00,1.33
7910.00,1.33
7909.00,1.33
7908.00,1.33
7907.00,1.33
7906.00,1.33
7905.00,1.33
7904.00,1.33
7903.00,1.33
7902.00,1.33
7901.00,1.33
7900.00,1.33
7899.00,1.33
7898.00,1.33
7897.00,1.33
7896.00,1.33
7895.00,1.33
7894.00,1.33
7893.00,1.33
7892.00,1.33
7891.00,1.33
7890.00,1.33
7889.00,1.33
7888.00,1.33
7887.00,1.33
7886.00,1.33
7885.00,1.33
7884.00,1.33
7883.00,1.33
7882.00,1.33
7881.00,1.33
7880.00,1.33
7879.00,1.33
7878.00,1.32
7877.00,1.32
7876.00,1.32
7875.00,1.32
7874.00,1.32
7873.00,1.32
7872.00,1.32
7871.00,1.32
7870.00,1.32
7869.00,1.32
7868.00,1.32
7867.00,1.32
7866.00,1.32
7865.00,1.33
7864.00,1.33
7863.00,1.33
7862.00,1.33
7861.00,1.33
7860.00,1.33
7859.00,1.33
7858.00,1.33
7857.00,1.33
7856.00,1.33
7855.00,1.33
7854.00,1.33
7853.00,1.33
7852.00,1.34
7851.00,1.34
7850.00,1.34
7849.00,1.34
7848.00,1.34
7847.00,1.34
7846.00,1.34
7845.00,1.34
7844.00,1.34
7843.00,1.34
7842.00,1.34
7841.00,1.34
7840.00,1.34
7839.00,1.34
7838.00,1.34
7837.00,1.34
7836.00,1.34
7835.00,1.34
7834.00,1.34
7833.00,1.34
7832.00,1.34
7831.00,1.34
7830.00,1.34
7829.00,1.33
7828.00,1.33
7827.00,1.33
7826.00,1.33
7825.00,1.33
7824.00,1.33
7823.00,1.33
7822.00,1.33
7821.00,1.33
7820.00,1.33
7819.00,1.33
7818.00,1.33
7817.00,1.33
7816.00,1.33
7815.00,1.33
7814.00,1.32
7813.00,1.32
7812.00,1.32
7811.00,1.32
7810.00,1.32
7809.00,1.32
7808.00,1.32
7807.00,1.32
7806.00,1.32
7805.00,1.32
7804.00,1.33
7803.00,1.33
7802.00,1.33
7801.00,1.33
7800.00,1.33
7799.00,1.33
7798.00,1.33
7797.00,1.33
7796.00,1.33
7795.00,1.33
7794.00,1.34
7793.00,1.34
7792.00,1.34
7791.00,1.34
7790.00,1.34
7789.00,1.34
7788.00,1.34
7787.00,1.34
7786.00,1.34
7785.00,1.34
7784.00,1.34
7783.00,1.34
7782.00,1.34
7781.00,1.34
7780.00,1.34
7779.00,1.34
7778.00,1.33
7777.00,1.33
7776.00,1.33
7775.00,1.33
7774.00,1.33
7773.00,1.33
7772.00,1.33
7771.00,1.33
7770.00,1.33
7769.00,1.33
7768.00,1.33
7767.00,1.34
7766.00,1.34
7765.00,1.34
7764.00,1.34
7763.00,1.34
7762.00,1.34
7761.00,1.34
7760.00,1.34
7759.00,1.34
7758.00,1.34
7757.00,1.34
7756.00,1.34
7755.00,1.34
7754.00,1.34
7753.00,1.34
7752.00,1.34
7751.00,1.34
7750.00,1.34
7749.00,1.34
7748.00,1.34
7747.00,1.34
7746.00,1.34
7745.00,1.34
7744.00,1.34
7743.00,1.34
7742.00,1.34
7741.00,1.34
7740.00,1.34
7739.00,1.34
7738.00,1.34
7737.00,1.34
7736.00,1.33
7735.00,1.33
7734.00,1.33
7733.00,1.33
7732.00,1.33
7731.00,1.33
7730.00,1.33
7729.00,1.33
7728.00,1.33
7727.00,1.33
7726.00,1.33
7725.00,1.33
7724.00,1.33
7723.00,1.33
7722.00,1.34
7721.00,1.34
7720.00,1.34
7719.00,1.34
7718.00,1.34
7717.00,1.34
7716.00,1.34
7715.00,1.34
7714.00,1.34
7713.00,1.34
7712.00,1.35
7711.00,1.35
7710.00,1.35
7709.00,1.35
7708.00,1.35
7707.00,1.35
7706.00,1.35
7705.00,1.35
7704.00,1.35
7703.00,1.35
7702.00,1.34
7701.00,1.34
7700.00,1.34
7699.00,1.34
7698.00,1.34
7697.00,1.34
7696.00,1.34
7695.00,1.34
7694.00,1.34
7693.00,1.34
7692.00,1.34
7691.00,1.34
7690.00,1.34
7689.00,1.34
7688.00,1.34
7687.00,1.34
7686.00,1.34
7685.00,1.34
7684.00,1.34
7683.00,1.34
7682.00,1.34
7681.00,1.34
7680.00,1.34
7679.00,1.34
7678.00,1.34
7677.00,1.34
7676.00,1.34
7675.00,1.34
7674.00,1.34
7673.00,1.34
7672.00,1.34
7671.00,1.34
7670.00,1.34
7669.00,1.34
7668.00,1.34
7667.00,1.34
7666.00,1.34
7665.00,1.34
7664.00,1.34
7663.00,1.34
7662.00,1.34
7661.00,1.34
7660.00,1.34
7659.00,1.34
7658.00,1.34
7657.00,1.34
7656.00,1.34
7655.00,1.34
7654.00,1.34
7653.00,1.34
7652.00,1.34
7651.00,1.34
7650.00,1.34
7649.00,1.34
7648.00,1.34
7647.00,1.34
7646.00,1.34
7645.00,1.34
7644.00,1.34
7643.00,1.34
7642.00,1.34
7641.00,1.34
7640.00,1.34
7639.00,1.34
7638.00,1.34
7637.00,1.34
7636.00,1.34
7635.00,1.34
7634.00,1.34
7633.00,1.34
7632.00,1.34
7631.00,1.34
7630.00,1.34
7629.00,1.34
7628.00,1.34
7627.00,1.34
7626.00,1.34
7625.00,1.34
7624.00,1.35
7623.00,1.35
7622.00,1.35
7621.00,1.35
7620.00,1.35
7619.00,1.35
7618.00,1.35
7617.00,1.35
7616.00,1.35
7615.00,1.35
7614.00,1.35
7613.00,1.35
7612.00,1.35
7611.00,1.35
7610.00,1.34
7609.00,1.34
7608.00,1.34
7607.00,1.34
7606.00,1.34
7605.00,1.34
7604.00,1.34
7603.00,1.34
7602.00,1.34
7601.00,1.34
7600.00,1.34
7599.00,1.34
7598.00,1.34
7597.00,1.34
7596.00,1.34
7595.00,1.34
7594.00,1.34
7593.00,1.34
7592.00,1.34
7591.00,1.34
7590.00,1.33
7589.00,1.33
7588.00,1.33
7587.00,1.33
7586.00,1.33
7585.00,1.33
7584.00,1.33
7583.00,1.33
7582.00,1.34
7581.00,1.34
7580.00,1.34
7579.00,1.34
7578.00,1.34
7577.00,1.34
7576.00,1.34
7575.00,1.34
7574.00,1.34
7573.00,1.34
7572.00,1.34
7571.00,1.34
7570.00,1.34
7569.00,1.34
7568.00,1.34
7567.00,1.34
7566.00,1.34
7565.00,1.34
7564.00,1.34
7563.00,1.34
7562.00,1.34
7561.00,1.34
7560.00,1.34
7559.00,1.34
7558.00,1.34
7557.00,1.34
7556.00,1.34
7555.00,1.34
7554.00,1.34
7553.00,1.34
7552.00,1.34
7551.00,1.34
7550.00,1.34
7549.00,1.34
7548.00,1.34
7547.00,1.34
7546.00,1.34
7545.00,1.34
7544.00,1.34
7543.00,1.34
7542.00,1.34
7541.00,1.34
7540.00,1.34
7539.00,1.34
7538.00,1.34
7537.00,1.34
7536.00,1.34
7535.00,1.34
7534.00,1.34
7533.00,1.34
7532.00,1.34
7531.00,1.34
7530.00,1.34
7529.00,1.34
7528.00,1.34
7527.00,1.34
7526.00,1.34
7525.00,1.34
7524.00,1.33
7523.00,1.33
7522.00,1.33
7521.00,1.33
7520.00,1.33
7519.00,1.33
7518.00,1.33
7517.00,1.33
7516.00,1.33
7515.00,1.33
7514.00,1.33
7513.00,1.33
7512.00,1.33
7511.00,1.33
7510.00,1.33
7509.00,1.33
7508.00,1.33
7507.00,1.33
7506.00,1.33
7505.00,1.33
7504.00,1.33
7503.00,1.33
7502.00,1.33
7501.00,1.33
7500.00,1.33
7499.00,1.33
7498.00,1.33
7497.00,1.33
7496.00,1.33
7495.00,1.33
7494.00,1.33
7493.00,1.33
7492.00,1.33
7491.00,1.33
7490.00,1.32
7489.00,1.32
7488.00,1.32
7487.00,1.32
7486.00,1.32
7485.00,1.32
7484.00,1.32
7483.00,1.32
7482.00,1.32
7481.00,1.32
7480.00,1.32
7479.00,1.32
7478.00,1.32
7477.00,1.32
7476.00,1.32
7475.00,1.32
7474.00,1.32
7473.00,1.32
7472.00,1.32
7471.00,1.32
7470.00,1.32
7469.00,1.31
7468.00,1.31
7467.00,1.31
7466.00,1.31
7465.00,1.31
7464.00,1.31
7463.00,1.31
7462.00,1.31
7461.00,1.31
7460.00,1.31
7459.00,1.31
7458.00,1.31
7457.00,1.31
7456.00,1.31
7455.00,1.31
7454.00,1.31
7453.00,1.31
7452.00,1.31
7451.00,1.31
7450.00,1.31
7449.00,1.31
7448.00,1.31
7447.00,1.31
7446.00,1.31
7445.00,1.31
7444.00,1.31
7443.00,1.31
7442.00,1.31
7441.00,1.31
7440.00,1.31
7439.00,1.31
7438.00,1.31
7437.00,1.31
7436.00,1.31
7435.00,1.31
7434.00,1.31
7433.00,1.31
7432.00,1.31
7431.00,1.31
7430.00,1.31
7429.00,1.31
7428.00,1.31
7427.00,1.30
7426.00,1.30
7425.00,1.30
7424.00,1.30
7423.00,1.30
7422.00,1.30
7421.00,1.30
7420.00,1.30
7419.00,1.30
7418.00,1.30
7417.00,1.30
7416.00,1.30
7415.00,1.29
7414.00,1.29
7413.00,1.29
7412.00,1.29
7411.00,1.29
7410.00,1.29
7409.00,1.29
7408.00,1.29
7407.00,1.29
7406.00,1.29
7405.00,1.29
7404.00,1.28
7403.00,1.28
7402.00,1.28
7401.00,1.28
7400.00,1.28
7399.00,1.28
7398.00,1.28
7397.00,1.28
7396.00,1.28
7395.00,1.28
7394.00,1.28
7393.00,1.28
7392.00,1.28
7391.00,1.28
7390.00,1.27
7389.00,1.27
7388.00,1.27
7387.00,1.27
7386.00,1.27
7385.00,1.27
7384.00,1.27
7383.00,1.27
7382.00,1.27
7381.00,1.27
7380.00,1.26
7379.00,1.26
7378.00,1.26
7377.00,1.26
7376.00,1.26
7375.00,1.26
7374.00,1.26
7373.00,1.26
7372.00,1.26
7371.00,1.26
7370.00,1.26
7369.00,1.26
7368.00,1.26
7367.00,1.26
7366.00,1.26
7365.00,1.26
7364.00,1.26
7363.00,1.26
7362.00,1.26
7361.00,1.26
7360.00,1.26
7359.00,1.26
7358.00,1.25
7357.00,1.25
7356.00,1.25
7355.00,1.25
7354.00,1.25
7353.00,1.25
7352.00,1.25
7351.00,1.25
7350.00,1.25
7349.00,1.25
7348.00,1.25
7347.00,1.25
7346.00,1.25
7345.00,1.25
7344.00,1.25
7343.00,1.25
7342.00,1.25
7341.00,1.25
7340.00,1.25
7339.00,1.25
7338.00,1.25
7337.00,1.25
7336.00,1.25
7335.00,1.25
7334.00,1.25
7333.00,1.25
7332.00,1.25
7331.00,1.25
7330.00,1.24
7329.00,1.24
7328.00,1.24
7327.00,1.24
7326.00,1.24
7325.00,1.24
7324.00,1.24
7323.00,1.24
7322.00,1.24
7321.00,1.24
7320.00,1.24
7319.00,1.24
7318.00,1.24
7317.00,1.24
7316.00,1.25
7315.00,1.25
7314.00,1.25
7313.00,1.25
7312.00,1.25
7311.00,1.25
7310.00,1.25
7309.00,1.25
7308.00,1.25
7307.00,1.25
7306.00,1.24
7305.00,1.24
7304.00,1.24
7303.00,1.24
7302.00,1.24
7301.00,1.24
7300.00,1.24
7299.00,1.23
7298.00,1.23
7297.00,1.23
7296.00,1.23
7295.00,1.23
7294.00,1.23
7293.00,1.22
7292.00,1.22
7291.00,1.22
7290.00,1.22
7289.00,1.22
7288.00,1.22
7287.00,1.22
7286.00,1.22
7285.00,1.22
7284.00,1.22
7283.00,1.22
7282.00,1.22
7281.00,1.22
7280.00,1.22
7279.00,1.22
7278.00,1.22
7277.00,1.22
7276.00,1.22
7275.00,1.22
7274.00,1.22
7273.00,1.22
7272.00,1.22
7271.00,1.22
7270.00,1.22
7269.00,1.22
7268.00,1.22
7267.00,1.22
7266.00,1.22
7265.00,1.21
7264.00,1.21
7263.00,1.21
7262.00,1.21
7261.00,1.21
7260.00,1.21
7259.00,1.21
7258.00,1.20
7257.00,1.20
7256.00,1.20
7255.00,1.20
7254.00,1.20
7253.00,1.20
7252.00,1.20
7251.00,1.19
7250.00,1.19
7249.00,1.19
7248.00,1.19
7247.00,1.19
7246.00,1.19
7245.00,1.19
7244.00,1.18
7243.00,1.18
7242.00,1.18
7241.00,1.18
7240.00,1.18
7239.00,1.17
7238.00,1.17
7237.00,1.17
7236.00,1.17
7235.00,1.16
7234.00,1.16
7233.00,1.16
7232.00,1.16
7231.00,1.15
7230.00,1.15
7229.00,1.15
7228.00,1.15
7227.00,1.14
7226.00,1.14
7225.00,1.14
7224.00,1.14
7223.00,1.14
7222.00,1.13
7221.00,1.13
7220.00,1.13
7219.00,1.13
7218.00,1.13
7217.00,1.12
7216.00,1.12
7215.00,1.12
7214.00,1.12
7213.00,1.12
7212.00,1.11
7211.00,1.11
7210.00,1.11
7209.00,1.11
7208.00,1.10
7207.00,1.10
7206.00,1.10
7205.00,1.09
7204.00,1.09
7203.00,1.09
7202.00,1.09
7201.00,1.08
7200.00,1.08
7199.00,1.08
7198.00,1.07
7197.00,1.07
7196.00,1.07
7195.00,1.07
7194.00,1.07
7193.00,1.06
7192.00,1.06
7191.00,1.06
7190.00,1.06
7189.00,1.06
7188.00,1.05
7187.00,1.05
7186.00,1.05
7185.00,1.05
7184.00,1.04
7183.00,1.04
7182.00,1.04
7181.00,1.04
7180.00,1.04
7179.00,1.03
7178.00,1.03
7177.00,1.03
7176.00,1.03
7175.00,1.02
7174.00,1.02
7173.00,1.02
7172.00,1.02
7171.00,1.02
7170.00,1.01
7169.00,1.01
7168.00,1.01
7167.00,1.01
7166.00,1.00
7165.00,1.00
7164.00,1.00
7163.00,1.00
7162.00,1.00
7161.00,0.99
7160.00,0.99
7159.00,0.99
7158.00,0.99
7157.00,0.99
7156.00,0.98
7155.00,0.98
7154.00,0.98
7153.00,0.98
7152.00,0.98
7151.00,0.97
7150.00,0.97
7149.00,0.97
7148.00,0.97
7147.00,0.96
7146.00,0.96
7145.00,0.96
7144.00,0.96
7143.00,0.95
7142.00,0.95
7141.00,0.95
7140.00,0.95
7139.00,0.94
7138.00,0.94
7137.00,0.94
7136.00,0.94
7135.00,0.94
7134.00,0.93
7133.00,0.93
7132.00,0.93
7131.00,0.93
7130.00,0.92
7129.00,0.92
7128.00,0.92
7127.00,0.92
7126.00,0.92
7125.00,0.91
7124.00,0.91
7123.00,0.91
7122.00,0.91
7121.00,0.90
7120.00,0.90
7119.00,0.90
7118.00,0.90
7117.00,0.89
7116.00,0.89
7115.00,0.89
7114.00,0.89
7113.00,0.89
7112.00,0.88
7111.00,0.88
7110.00,0.88
7109.00,0.88
7108.00,0.88
7107.00,0.87
7106.00,0.87
7105.00,0.87
7104.00,0.87
7103.00,0.87
7102.00,0.87
7101.00,0.86
7100.00,0.86
7099.00,0.86
7098.00,0.86
7097.00,0.86
7096.00,0.85
7095.00,0.85
7094.00,0.85
7093.00,0.85
7092.00,0.85
7091.00,0.85
7090.00,0.85
7089.00,0.84
7088.00,0.84
7087.00,0.84
7086.00,0.84
7085.00,0.84
7084.00,0.84
7083.00,0.84
7082.00,0.84
7081.00,0.84
7080.00,0.83
7079.00,0.83
7078.00,0.83
7077.00,0.83
7076.00,0.83
7075.00,0.83
7074.00,0.83
7073.00,0.82
7072.00,0.82
7071.00,0.82
7070.00,0.82
7069.00,0.82
7068.00,0.82
7067.00,0.82
7066.00,0.82
7065.00,0.82
7064.00,0.81
7063.00,0.81
7062.00,0.81
7061.00,0.81
7060.00,0.81
7059.00,0.81
7058.00,0.81
7057.00,0.81
7056.00,0.81
7055.00,0.81
7054.00,0.81
7053.00,0.80
7052.00,0.80
7051.00,0.80
7050.00,0.80
7049.00,0.80
7048.00,0.80
7047.00,0.80
7046.00,0.80
7045.00,0.79
7044.00,0.79
7043.00,0.79
7042.00,0.79
7041.00,0.79
7040.00,0.79
7039.00,0.79
7038.00,0.79
7037.00,0.78
7036.00,0.78
7035.00,0.78
7034.00,0.78
7033.00,0.78
7032.00,0.78
7031.00,0.78
7030.00,0.78
7029.00,0.78
7028.00,0.77
7027.00,0.77
7026.00,0.77
7025.00,0.77
7024.00,0.77
7023.00,0.77
7022.00,0.77
7021.00,0.77
7020.00,0.77
7019.00,0.77
7018.00,0.77
7017.00,0.77
7016.00,0.77
7015.00,0.77
7014.00,0.77
7013.00,0.77
7012.00,0.77
7011.00,0.77
7010.00,0.77
7009.00,0.77
7008.00,0.76
7007.00,0.76
7006.00,0.76
7005.00,0.76
7004.00,0.76
7003.00,0.76
7002.00,0.76
7001.00,0.76
7000.00,0.75
6999.00,0.75
6998.00,0.75
6997.00,0.75
6996.00,0.75
6995.00,0.75
6994.00,0.75
6993.00,0.75
6992.00,0.75
6991.00,0.75
6990.00,0.75
6989.00,0.75
6988.00,0.75
6987.00,0.75
6986.00,0.75
6985.00,0.74
6984.00,0.74
6983.00,0.74
6982.00,0.74
6981.00,0.74
6980.00,0.74
6979.00,0.74
6978.00,0.74
6977.00,0.74
6976.00,0.74
6975.00,0.74
6974.00,0.74
6973.00,0.73
6972.00,0.73
6971.00,0.73
6970.00,0.73
6969.00,0.73
6968.00,0.73
6967.00,0.73
6966.00,0.73
6965.00,0.73
6964.00,0.73
6963.00,0.73
6962.00,0.73
6961.00,0.73
6960.00,0.73
6959.00,0.73
6958.00,0.73
6957.00,0.73
6956.00,0.73
6955.00,0.73
6954.00,0.73
6953.00,0.73
6952.00,0.73
6951.00,0.73
6950.00,0.73
6949.00,0.73
6948.00,0.73
6947.00,0.73
6946.00,0.73
6945.00,0.73
6944.00,0.73
6943.00,0.73
6942.00,0.73
6941.00,0.73
6940.00,0.73
6939.00,0.72
6938.00,0.72
6937.00,0.72
6936.00,0.72
6935.00,0.72
6934.00,0.72
6933.00,0.72
6932.00,0.72
6931.00,0.72
6930.00,0.72
6929.00,0.72
6928.00,0.72
6927.00,0.72
6926.00,0.72
6925.00,0.72
6924.00,0.72
6923.00,0.72
6922.00,0.72
6921.00,0.72
6920.00,0.72
6919.00,0.72
6918.00,0.72
6917.00,0.72
6916.00,0.72
6915.00,0.71
6914.00,0.71
6913.00,0.71
6912.00,0.71
6911.00,0.71
6910.00,0.71
6909.00,0.71
6908.00,0.71
6907.00,0.71
6906.00,0.71
6905.00,0.71
6904.00,0.71
6903.00,0.71
6902.00,0.71
6901.00,0.71
6900.00,0.71
6899.00,0.71
6898.00,0.71
6897.00,0.71
6896.00,0.71
6895.00,0.71
6894.00,0.71
6893.00,0.71
6892.00,0.71
6891.00,0.71
6890.00,0.71
6889.00,0.71
6888.00,0.71
6887.00,0.71
6886.00,0.71
6885.00,0.71
6884.00,0.71
6883.00,0.71
6882.00,0.71
6881.00,0.71
6880.00,0.71
6879.00,0.71
6878.00,0.71
6877.00,0.71
6876.00,0.71
6875.00,0.71
6874.00,0.71
6873.00,0.71
6872.00,0.71
6871.00,0.71
6870.00,0.71
6869.00,0.71
6868.00,0.71
6867.00,0.71
6866.00,0.71
6865.00,0.71
6864.00,0.71
6863.00,0.71
6862.00,0.71
6861.00,0.71
6860.00,0.71
6859.00,0.71
6858.00,0.71
6857.00,0.71
6856.00,0.71
6855.00,0.71
6854.00,0.71
6853.00,0.71
6852.00,0.71
6851.00,0.71
6850.00,0.71
6849.00,0.71
6848.00,0.71
6847.00,0.71
6846.00,0.71
6845.00,0.71
6844.00,0.71
6843.00,0.71
6842.00,0.71
6841.00,0.71
6840.00,0.71
6839.00,0.71
6838.00,0.71
6837.00,0.71
6836.00,0.71
6835.00,0.71
6834.00,0.71
6833.00,0.71
6832.00,0.71
6831.00,0.71
6830.00,0.71
6829.00,0.71
6828.00,0.71
6827.00,0.71
6826.00,0.71
6825.00,0.71
6824.00,0.71
6823.00,0.72
6822.00,0.72
6821.00,0.72
6820.00,0.72
6819.00,0.72
6818.00,0.72
6817.00,0.72
6816.00,0.72
6815.00,0.72
6814.00,0.72
6813.00,0.72
6812.00,0.72
6811.00,0.72
6810.00,0.72
6809.00,0.72
6808.00,0.72
6807.00,0.72
6806.00,0.72
6805.00,0.73
6804.00,0.73
6803.00,0.73
6802.00,0.73
6801.00,0.73
6800.00,0.73
6799.00,0.73
6798.00,0.73
6797.00,0.73
6796.00,0.73
6795.00,0.73
6794.00,0.73
6793.00,0.73
6792.00,0.73
6791.00,0.73
6790.00,0.73
6789.00,0.73
6788.00,0.73
6787.00,0.74
6786.00,0.74
6785.00,0.74
6784.00,0.74
6783.00,0.74
6782.00,0.74
6781.00,0.74
6780.00,0.74
6779.00,0.74
6778.00,0.74
6777.00,0.74
6776.00,0.74
6775.00,0.74
6774.00,0.75
6773.00,0.75
6772.00,0.75
6771.00,0.75
6770.00,0.75
6769.00,0.75
6768.00,0.75
6767.00,0.75
6766.00,0.75
6765.00,0.75
6764.00,0.75
6763.00,0.75
6762.00,0.75
6761.00,0.75
6760.00,0.75
6759.00,0.75
6758.00,0.75
6757.00,0.75
6756.00,0.75
6755.00,0.75
6754.00,0.75
6753.00,0.75
6752.00,0.75
6751.00,0.76
6750.00,0.76
6749.00,0.76
6748.00,0.76
6747.00,0.76
6746.00,0.76
6745.00,0.76
6744.00,0.76
6743.00,0.76
6742.00,0.76
6741.00,0.76
6740.00,0.76
6739.00,0.76
6738.00,0.76
6737.00,0.76
6736.00,0.76
6735.00,0.76
6734.00,0.76
6733.00,0.76
6732.00,0.76
6731.00,0.76
6730.00,0.76
6729.00,0.76
6728.00,0.77
6727.00,0.77
6726.00,0.77
6725.00,0.77
6724.00,0.77
6723.00,0.77
6722.00,0.77
6721.00,0.77
6720.00,0.77
6719.00,0.77
6718.00,0.77
6717.00,0.77
6716.00,0.78
6715.00,0.78
6714.00,0.78
6713.00,0.78
6712.00,0.78
6711.00,0.78
6710.00,0.78
6709.00,0.78
6708.00,0.78
6707.00,0.78
6706.00,0.78
6705.00,0.78
6704.00,0.78
6703.00,0.78
6702.00,0.78
6701.00,0.79
6700.00,0.79
6699.00,0.79
6698.00,0.79
6697.00,0.79
6696.00,0.79
6695.00,0.79
6694.00,0.79
6693.00,0.79
6692.00,0.80
6691.00,0.80
6690.00,0.80
6689.00,0.80
6688.00,0.80
6687.00,0.80
6686.00,0.80
6685.00,0.80
6684.00,0.81
6683.00,0.81
6682.00,0.81
6681.00,0.81
6680.00,0.81
6679.00,0.81
6678.00,0.81
6677.00,0.81
6676.00,0.81
6675.00,0.81
6674.00,0.82
6673.00,0.82
6672.00,0.82
6671.00,0.82
6670.00,0.82
6669.00,0.82
6668.00,0.82
6667.00,0.82
6666.00,0.82
6665.00,0.82
6664.00,0.82
6663.00,0.82
6662.00,0.82
6661.00,0.82
6660.00,0.82
6659.00,0.82
6658.00,0.82
6657.00,0.82
6656.00,0.82
6655.00,0.82
6654.00,0.82
6653.00,0.82
6652.00,0.82
6651.00,0.82
6650.00,0.83
6649.00,0.83
6648.00,0.83
6647.00,0.83
6646.00,0.83
6645.00,0.83
6644.00,0.83
6643.00,0.84
6642.00,0.84
6641.00,0.84
6640.00,0.84
6639.00,0.84
6638.00,0.84
6637.00,0.84
6636.00,0.85
6635.00,0.85
6634.00,0.85
6633.00,0.85
6632.00,0.85
6631.00,0.85
6630.00,0.85
6629.00,0.85
6628.00,0.85
6627.00,0.86
6626.00,0.86
6625.00,0.86
6624.00,0.86
6623.00,0.86
6622.00,0.86
6621.00,0.86
6620.00,0.86
6619.00,0.86
6618.00,0.86
6617.00,0.86
6616.00,0.86
6615.00,0.86
6614.00,0.86
6613.00,0.86
6612.00,0.86
6611.00,0.86
6610.00,0.87
6609.00,0.87
6608.00,0.87
6607.00,0.87
6606.00,0.87
6605.00,0.87
6604.00,0.87
6603.00,0.87
6602.00,0.87
6601.00,0.88
6600.00,0.88
6599.00,0.88
6598.00,0.88
6597.00,0.88
6596.00,0.88
6595.00,0.88
6594.00,0.88
6593.00,0.88
6592.00,0.88
6591.00,0.88
6590.00,0.88
6589.00,0.88
6588.00,0.88
6587.00,0.88
6586.00,0.88
6585.00,0.88
6584.00,0.89
6583.00,0.89
6582.00,0.89
6581.00,0.89
6580.00,0.89
6579.00,0.89
6578.00,0.89
6577.00,0.89
6576.00,0.89
6575.00,0.89
6574.00,0.90
6573.00,0.90
6572.00,0.90
6571.00,0.90
6570.00,0.90
6569.00,0.90
6568.00,0.90
6567.00,0.90
6566.00,0.91
6565.00,0.91
6564.00,0.91
6563.00,0.91
6562.00,0.91
6561.00,0.91
6560.00,0.91
6559.00,0.91
6558.00,0.91
6557.00,0.91
6556.00,0.91
6555.00,0.91
6554.00,0.91
6553.00,0.91
6552.00,0.91
6551.00,0.92
6550.00,0.92
6549.00,0.92
6548.00,0.92
6547.00,0.92
6546.00,0.92
6545.00,0.92
6544.00,0.92
6543.00,0.92
6542.00,0.92
6541.00,0.92
6540.00,0.92
6539.00,0.92
6538.00,0.92
6537.00,0.92
6536.00,0.92
6535.00,0.92
6534.00,0.92
6533.00,0.92
6532.00,0.92
6531.00,0.92
6530.00,0.93
6529.00,0.93
6528.00,0.93
6527.00,0.93
6526.00,0.93
6525.00,0.93
6524.00,0.93
6523.00,0.93
6522.00,0.93
6521.00,0.93
6520.00,0.93
6519.00,0.93
6518.00,0.94
6517.00,0.94
6516.00,0.94
6515.00,0.94
6514.00,0.94
6513.00,0.94
6512.00,0.94
6511.00,0.94
6510.00,0.94
6509.00,0.94
6508.00,0.94
6507.00,0.94
6506.00,0.94
6505.00,0.94
6504.00,0.94
6503.00,0.94
6502.00,0.95
6501.00,0.95
6500.00,0.95
6499.00,0.95
6498.00,0.95
6497.00,0.95
6496.00,0.95
6495.00,0.95
6494.00,0.95
6493.00,0.95
6492.00,0.95
6491.00,0.95
6490.00,0.95
6489.00,0.95
6488.00,0.95
6487.00,0.96
6486.00,0.96
6485.00,0.96
6484.00,0.96
6483.00,0.96
6482.00,0.96
6481.00,0.96
6480.00,0.96
6479.00,0.96
6478.00,0.96
6477.00,0.96
6476.00,0.96
6475.00,0.96
6474.00,0.96
6473.00,0.96
6472.00,0.96
6471.00,0.96
6470.00,0.96
6469.00,0.96
6468.00,0.96
6467.00,0.96
6466.00,0.96
6465.00,0.96
6464.00,0.96
6463.00,0.96
6462.00,0.96
6461.00,0.96
6460.00,0.96
6459.00,0.96
6458.00,0.96
6457.00,0.97
6456.00,0.97
6455.00,0.97
6454.00,0.97
6453.00,0.97
6452.00,0.97
6451.00,0.97
6450.00,0.97
6449.00,0.97
6448.00,0.97
6447.00,0.97
6446.00,0.97
6445.00,0.97
6444.00,0.98
6443.00,0.98
6442.00,0.98
6441.00,0.98
6440.00,0.98
6439.00,0.98
6438.00,0.98
6437.00,0.98
6436.00,0.98
6435.00,0.98
6434.00,0.98
6433.00,0.98
6432.00,0.98
6431.00,0.98
6430.00,0.98
6429.00,0.98
6428.00,0.98
6427.00,0.99
6426.00,0.99
6425.00,0.99
6424.00,0.99
6423.00,0.99
6422.00,0.99
6421.00,0.99
6420.00,0.99
6419.00,0.99
6418.00,0.99
6417.00,0.99
6416.00,0.99
6415.00,0.99
6414.00,0.99
6413.00,0.99
6412.00,0.99
6411.00,0.99
6410.00,0.99
6409.00,0.99
6408.00,0.99
6407.00,0.99
6406.00,0.99
6405.00,0.99
6404.00,0.99
6403.00,0.99
6402.00,0.99
6401.00,0.99
6400.00,0.99
6399.00,0.99
6398.00,1.00
6397.00,1.00
6396.00,1.00
6395.00,1.00
6394.00,1.00
6393.00,1.00
6392.00,1.00
6391.00,1.00
6390.00,1.00
6389.00,1.00
6388.00,1.00
6387.00,1.00
6386.00,1.00
6385.00,1.00
6384.00,1.00
6383.00,1.00
6382.00,1.00
6381.00,1.00
6380.00,1.00
6379.00,1.00
6378.00,1.00
6377.00,1.00
6376.00,1.00
6375.00,1.00
6374.00,1.00
6373.00,1.00
6372.00,1.00
6371.00,1.00
6370.00,1.01
6369.00,1.01
6368.00,1.01
6367.00,1.01
6366.00,1.01
6365.00,1.01
6364.00,1.01
6363.00,1.01
6362.00,1.01
6361.00,1.01
6360.00,1.01
6359.00,1.01
6358.00,1.01
6357.00,1.02
6356.00,1.02
6355.00,1.02
6354.00,1.02
6353.00,1.02
6352.00,1.02
6351.00,1.02
6350.00,1.02
6349.00,1.02
6348.00,1.02
6347.00,1.02
6346.00,1.02
6345.00,1.03
6344.00,1.03
6343.00,1.03
6342.00,1.03
6341.00,1.03
6340.00,1.03
6339.00,1.03
6338.00,1.03
6337.00,1.03
6336.00,1.03
6335.00,1.03
6334.00,1.03
6333.00,1.03
6332.00,1.03
6331.00,1.04
6330.00,1.04
6329.00,1.04
6328.00,1.04
6327.00,1.04
6326.00,1.04
6325.00,1.04
6324.00,1.04
6323.00,1.04
6322.00,1.04
6321.00,1.04
6320.00,1.04
6319.00,1.04
6318.00,1.04
6317.00,1.04
6316.00,1.04
6315.00,1.05
6314.00,1.05
6313.00,1.05
6312.00,1.05
6311.00,1.05
6310.00,1.05
6309.00,1.05
6308.00,1.05
6307.00,1.05
6306.00,1.05
6305.00,1.06
6304.00,1.06
6303.00,1.06
6302.00,1.06
6301.00,1.06
6300.00,1.06
6299.00,1.06
6298.00,1.06
6297.00,1.06
6296.00,1.06
6295.00,1.06
6294.00,1.06
6293.00,1.06
6292.00,1.07
6291.00,1.07
6290.00,1.07
6289.00,1.07
6288.00,1.07
6287.00,1.07
6286.00,1.07
6285.00,1.07
6284.00,1.07
6283.00,1.07
6282.00,1.07
6281.00,1.07
6280.00,1.07
6279.00,1.07
6278.00,1.07
6277.00,1.08
6276.00,1.08
6275.00,1.08
6274.00,1.08
6273.00,1.08
6272.00,1.08
6271.00,1.08
6270.00,1.08
6269.00,1.08
6268.00,1.08
6267.00,1.08
6266.00,1.08
6265.00,1.08
6264.00,1.09
6263.00,1.09
6262.00,1.09
6261.00,1.09
6260.00,1.09
6259.00,1.09
6258.00,1.09
6257.00,1.09
6256.00,1.09
6255.00,1.10
6254.00,1.10
6253.00,1.10
6252.00,1.10
6251.00,1.10
6250.00,1.10
6249.00,1.10
6248.00,1.10
6247.00,1.10
6246.00,1.11
6245.00,1.11
6244.00,1.11
6243.00,1.11
6242.00,1.11
6241.00,1.11
6240.00,1.11
6239.00,1.11
6238.00,1.11
6237.00,1.11
6236.00,1.11
6235.00,1.12
6234.00,1.12
6233.00,1.12
6232.00,1.12
6231.00,1.12
6230.00,1.12
6229.00,1.12
6228.00,1.12
6227.00,1.12
6226.00,1.12
6225.00,1.12
6224.00,1.13
6223.00,1.13
6222.00,1.13
6221.00,1.13
6220.00,1.13
6219.00,1.13
6218.00,1.13
6217.00,1.13
6216.00,1.13
6215.00,1.13
6214.00,1.14
6213.00,1.14
6212.00,1.14
6211.00,1.14
6210.00,1.14
6209.00,1.14
6208.00,1.14
6207.00,1.14
6206.00,1.14
6205.00,1.14
6204.00,1.14
6203.00,1.14
6202.00,1.14
6201.00,1.14
6200.00,1.15
6199.00,1.15
6198.00,1.15
6197.00,1.15
6196.00,1.15
6195.00,1.15
6194.00,1.15
6193.00,1.15
6192.00,1.15
6191.00,1.15
6190.00,1.16
6189.00,1.16
6188.00,1.16
6187.00,1.16
6186.00,1.16
6185.00,1.16
6184.00,1.16
6183.00,1.17
6182.00,1.17
6181.00,1.17
6180.00,1.17
6179.00,1.17
6178.00,1.17
6177.00,1.17
6176.00,1.17
6175.00,1.17
6174.00,1.17
6173.00,1.18
6172.00,1.18
6171.00,1.18
6170.00,1.18
6169.00,1.18
6168.00,1.18
6167.00,1.18
6166.00,1.18
6165.00,1.18
6164.00,1.18
6163.00,1.18
6162.00,1.18
6161.00,1.19
6160.00,1.19
6159.00,1.19
6158.00,1.19
6157.00,1.19
6156.00,1.19
6155.00,1.19
6154.00,1.19
6153.00,1.20
6152.00,1.20
6151.00,1.20
6150.00,1.20
6149.00,1.20
6148.00,1.20
6147.00,1.20
6146.00,1.20
6145.00,1.20
6144.00,1.21
6143.00,1.21
6142.00,1.21
6141.00,1.21
6140.00,1.21
6139.00,1.21
6138.00,1.21
6137.00,1.21
6136.00,1.21
6135.00,1.21
6134.00,1.21
6133.00,1.21
6132.00,1.22
6131.00,1.22
6130.00,1.22
6129.00,1.22
6128.00,1.22
6127.00,1.22
6126.00,1.22
6125.00,1.22
6124.00,1.22
6123.00,1.23
6122.00,1.23
6121.00,1.23
6120.00,1.23
6119.00,1.23
6118.00,1.23
6117.00,1.23
6116.00,1.23
6115.00,1.24
6114.00,1.24
6113.00,1.24
6112.00,1.24
6111.00,1.24
6110.00,1.24
6109.00,1.24
6108.00,1.25
6107.00,1.25
6106.00,1.25
6105.00,1.25
6104.00,1.25
6103.00,1.25
6102.00,1.25
6101.00,1.25
6100.00,1.25
6099.00,1.25
6098.00,1.25
6097.00,1.26
6096.00,1.26
6095.00,1.26
6094.00,1.26
6093.00,1.26
6092.00,1.26
6091.00,1.26
6090.00,1.26
6089.00,1.26
6088.00,1.26
6087.00,1.26
6086.00,1.26
6085.00,1.26
6084.00,1.26
6083.00,1.26
6082.00,1.26
6081.00,1.26
6080.00,1.27
6079.00,1.27
6078.00,1.27
6077.00,1.27
6076.00,1.27
6075.00,1.27
6074.00,1.27
6073.00,1.27
6072.00,1.27
6071.00,1.28
6070.00,1.28
6069.00,1.28
6068.00,1.28
6067.00,1.28
6066.00,1.28
6065.00,1.28
6064.00,1.28
6063.00,1.28
6062.00,1.28
6061.00,1.28
6060.00,1.28
6059.00,1.28
6058.00,1.28
6057.00,1.28
6056.00,1.28
6055.00,1.28
6054.00,1.28
6053.00,1.28
6052.00,1.28
6051.00,1.28
6050.00,1.29
6049.00,1.29
6048.00,1.29
6047.00,1.29
6046.00,1.29
6045.00,1.29
6044.00,1.29
6043.00,1.29
6042.00,1.29
6041.00,1.29
6040.00,1.29
6039.00,1.29
6038.00,1.29
6037.00,1.29
6036.00,1.29
6035.00,1.30
6034.00,1.30
6033.00,1.30
6032.00,1.30
6031.00,1.30
6030.00,1.30
6029.00,1.30
6028.00,1.30
6027.00,1.30
6026.00,1.30
6025.00,1.30
6024.00,1.30
6023.00,1.30
6022.00,1.30
6021.00,1.30
6020.00,1.30
6019.00,1.30
6018.00,1.30
6017.00,1.30
6016.00,1.30
6015.00,1.30
6014.00,1.30
6013.00,1.30
6012.00,1.30
6011.00,1.30
6010.00,1.30
6009.00,1.30
6008.00,1.30
6007.00,1.30
6006.00,1.30
6005.00,1.30
6004.00,1.30
6003.00,1.30
6002.00,1.30
6001.00,1.30
6000.00,1.30
5999.00,1.30
5998.00,1.30
5997.00,1.30
5996.00,1.30
5995.00,1.30
5994.00,1.29
5993.00,1.29
5992.00,1.29
5991.00,1.29
5990.00,1.29
5989.00,1.29
5988.00,1.29
5987.00,1.29
5986.00,1.28
5985.00,1.28
5984.00,1.28
5983.00,1.28
5982.00,1.28
5981.00,1.27
5980.00,1.27
5979.00,1.27
5978.00,1.26
5977.00,1.26
5976.00,1.26
5975.00,1.25
5974.00,1.25
5973.00,1.25
5972.00,1.24
5971.00,1.24
5970.00,1.23
5969.00,1.23
5968.00,1.23
5967.00,1.22
5966.00,1.22
5965.00,1.21
5964.00,1.21
5963.00,1.20
5962.00,1.19
5961.00,1.19
5960.00,1.18
5959.00,1.18
5958.00,1.17
5957.00,1.17
5956.00,1.16
5955.00,1.16
5954.00,1.15
5953.00,1.15
5952.00,1.14
5951.00,1.14
5950.00,1.13
5949.00,1.13
5948.00,1.13
5947.00,1.12
5946.00,1.12
5945.00,1.12
5944.00,1.11
5943.00,1.11
5942.00,1.11
5941.00,1.11
5940.00,1.11
5939.00,1.11
5938.00,1.10
5937.00,1.10
5936.00,1.10
5935.00,1.10
5934.00,1.10
5933.00,1.10
5932.00,1.10
5931.00,1.10
5930.00,1.10
5929.00,1.10
5928.00,1.10
5927.00,1.09
5926.00,1.09
5925.00,1.09
5924.00,1.09
5923.00,1.09
5922.00,1.09
5921.00,1.09
5920.00,1.08
5919.00,1.08
5918.00,1.08
5917.00,1.08
5916.00,1.07
5915.00,1.07
5914.00,1.07
5913.00,1.07
5912.00,1.07
5911.00,1.06
5910.00,1.06
5909.00,1.06
5908.00,1.06
5907.00,1.06
5906.00,1.06
5905.00,1.06
5904.00,1.05
5903.00,1.05
5902.00,1.05
5901.00,1.05
5900.00,1.06
5899.00,1.06
5898.00,1.06
5897.00,1.06
5896.00,1.06
5895.00,1.06
5894.00,1.06
5893.00,1.06
5892.00,1.07
5891.00,1.07
5890.00,1.07
5889.00,1.07
5888.00,1.08
5887.00,1.08
5886.00,1.08
5885.00,1.08
5884.00,1.09
5883.00,1.09
5882.00,1.09
5881.00,1.09
5880.00,1.10
5879.00,1.10
5878.00,1.10
5877.00,1.10
5876.00,1.10
5875.00,1.11
5874.00,1.11
5873.00,1.11
5872.00,1.11
5871.00,1.11
5870.00,1.11
5869.00,1.12
5868.00,1.12
5867.00,1.12
5866.00,1.12
5865.00,1.12
5864.00,1.13
5863.00,1.13
5862.00,1.13
5861.00,1.13
5860.00,1.13
5859.00,1.13
5858.00,1.13
5857.00,1.14
5856.00,1.14
5855.00,1.14
5854.00,1.14
5853.00,1.14
5852.00,1.14
5851.00,1.14
5850.00,1.14
5849.00,1.14
5848.00,1.14
5847.00,1.14
5846.00,1.14
5845.00,1.14
5844.00,1.14
5843.00,1.14
5842.00,1.14
5841.00,1.14
5840.00,1.14
5839.00,1.14
5838.00,1.14
5837.00,1.14
5836.00,1.14
5835.00,1.14
5834.00,1.14
5833.00,1.14
5832.00,1.13
5831.00,1.13
5830.00,1.13
5829.00,1.13
5828.00,1.13
5827.00,1.13
5826.00,1.13
5825.00,1.13
5824.00,1.13
5823.00,1.13
5822.00,1.13
5821.00,1.13
5820.00,1.13
5819.00,1.13
5818.00,1.13
5817.00,1.13
5816.00,1.13
5815.00,1.13
5814.00,1.13
5813.00,1.13
5812.00,1.13
5811.00,1.13
5810.00,1.13
5809.00,1.13
5808.00,1.13
5807.00,1.13
5806.00,1.13
5805.00,1.13
5804.00,1.13
5803.00,1.13
5802.00,1.13
5801.00,1.13
5800.00,1.13
5799.00,1.13
5798.00,1.13
5797.00,1.13
5796.00,1.13
5795.00,1.13
5794.00,1.13
5793.00,1.12
5792.00,1.12
5791.00,1.12
5790.00,1.12
5789.00,1.12
5788.00,1.11
5787.00,1.11
5786.00,1.11
5785.00,1.11
5784.00,1.11
5783.00,1.10
5782.00,1.10
5781.00,1.10
5780.00,1.10
5779.00,1.10
5778.00,1.09
5777.00,1.09
5776.00,1.09
5775.00,1.09
5774.00,1.09
5773.00,1.09
5772.00,1.09
5771.00,1.09
5770.00,1.09
5769.00,1.09
5768.00,1.09
5767.00,1.09
5766.00,1.09
5765.00,1.09
5764.00,1.10
5763.00,1.10
5762.00,1.10
5761.00,1.10
5760.00,1.10
5759.00,1.10
5758.00,1.11
5757.00,1.11
5756.00,1.11
5755.00,1.11
5754.00,1.12
5753.00,1.12
5752.00,1.12
5751.00,1.12
5750.00,1.13
5749.00,1.13
5748.00,1.13
5747.00,1.14
5746.00,1.14
5745.00,1.14
5744.00,1.14
5743.00,1.15
5742.00,1.15
5741.00,1.15
5740.00,1.15
5739.00,1.16
5738.00,1.16
5737.00,1.16
5736.00,1.16
5735.00,1.16
5734.00,1.17
5733.00,1.17
5732.00,1.17
5731.00,1.17
5730.00,1.17
5729.00,1.17
5728.00,1.17
5727.00,1.17
5726.00,1.18
5725.00,1.18
5724.00,1.18
5723.00,1.18
5722.00,1.18
5721.00,1.18
5720.00,1.18
5719.00,1.18
5718.00,1.18
5717.00,1.18
5716.00,1.18
5715.00,1.18
5714.00,1.18
5713.00,1.18
5712.00,1.18
5711.00,1.18
5710.00,1.18
5709.00,1.18
5708.00,1.18
5707.00,1.18
5706.00,1.18
5705.00,1.18
5704.00,1.17
5703.00,1.17
5702.00,1.17
5701.00,1.17
5700.00,1.17
5699.00,1.17
5698.00,1.17
5697.00,1.17
5696.00,1.17
5695.00,1.17
5694.00,1.17
5693.00,1.17
5692.00,1.16
5691.00,1.16
5690.00,1.16
5689.00,1.16
5688.00,1.16
5687.00,1.16
5686.00,1.16
5685.00,1.16
5684.00,1.16
5683.00,1.16
5682.00,1.15
5681.00,1.15
5680.00,1.15
5679.00,1.15
5678.00,1.15
5677.00,1.15
5676.00,1.15
5675.00,1.15
5674.00,1.15
5673.00,1.15
5672.00,1.15
5671.00,1.15
5670.00,1.15
5669.00,1.15
5668.00,1.15
5667.00,1.15
5666.00,1.15
5665.00,1.15
5664.00,1.15
5663.00,1.15
5662.00,1.15
5661.00,1.15
5660.00,1.16
5659.00,1.16
5658.00,1.16
5657.00,1.16
5656.00,1.16
5655.00,1.16
5654.00,1.16
5653.00,1.16
5652.00,1.17
5651.00,1.17
5650.00,1.17
5649.00,1.17
5648.00,1.17
5647.00,1.17
5646.00,1.17
5645.00,1.18
5644.00,1.18
5643.00,1.18
5642.00,1.18
5641.00,1.18
5640.00,1.18
5639.00,1.19
5638.00,1.19
5637.00,1.19
5636.00,1.19
5635.00,1.19
5634.00,1.19
5633.00,1.20
5632.00,1.20
5631.00,1.20
5630.00,1.20
5629.00,1.20
5628.00,1.20
5627.00,1.20
5626.00,1.21
5625.00,1.21
5624.00,1.21
5623.00,1.21
5622.00,1.21
5621.00,1.21
5620.00,1.21
5619.00,1.21
5618.00,1.21
5617.00,1.21
5616.00,1.22
5615.00,1.22
5614.00,1.22
5613.00,1.22
5612.00,1.22
5611.00,1.22
5610.00,1.22
5609.00,1.22
5608.00,1.23
5607.00,1.23
5606.00,1.23
5605.00,1.23
5604.00,1.23
5603.00,1.23
5602.00,1.23
5601.00,1.23
5600.00,1.24
5599.00,1.24
5598.00,1.24
5597.00,1.24
5596.00,1.24
5595.00,1.24
5594.00,1.24
5593.00,1.24
5592.00,1.24
5591.00,1.24
5590.00,1.25
5589.00,1.25
5588.00,1.25
5587.00,1.25
5586.00,1.25
5585.00,1.25
5584.00,1.25
5583.00,1.25
5582.00,1.25
5581.00,1.25
5580.00,1.26
5579.00,1.26
5578.00,1.26
5577.00,1.26
5576.00,1.26
5575.00,1.26
5574.00,1.26
5573.00,1.26
5572.00,1.26
5571.00,1.27
5570.00,1.27
5569.00,1.27
5568.00,1.27
5567.00,1.27
5566.00,1.27
5565.00,1.27
5564.00,1.27
5563.00,1.27
5562.00,1.27
5561.00,1.27
5560.00,1.27
5559.00,1.28
5558.00,1.28
5557.00,1.28
5556.00,1.28
5555.00,1.28
5554.00,1.28
5553.00,1.28
5552.00,1.28
5551.00,1.28
5550.00,1.28
5549.00,1.28
5548.00,1.28
5547.00,1.28
5546.00,1.28
5545.00,1.29
5544.00,1.29
5543.00,1.29
5542.00,1.29
5541.00,1.29
5540.00,1.29
5539.00,1.29
5538.00,1.29
5537.00,1.29
5536.00,1.30
5535.00,1.30
5534.00,1.30
5533.00,1.30
5532.00,1.30
5531.00,1.30
5530.00,1.30
5529.00,1.30
5528.00,1.30
5527.00,1.30
5526.00,1.30
5525.00,1.30
5524.00,1.30
5523.00,1.30
5522.00,1.30
5521.00,1.30
5520.00,1.30
5519.00,1.30
5518.00,1.30
5517.00,1.30
5516.00,1.30
5515.00,1.31
5514.00,1.31
5513.00,1.31
5512.00,1.31
5511.00,1.31
5510.00,1.31
5509.00,1.31
5508.00,1.31
5507.00,1.31
5506.00,1.31
5505.00,1.31
5504.00,1.31
5503.00,1.31
5502.00,1.31
5501.00,1.31
5500.00,1.31
5499.00,1.31
5498.00,1.31
5497.00,1.31
5496.00,1.31
5495.00,1.31
5494.00,1.31
5493.00,1.31
5492.00,1.31
5491.00,1.31
5490.00,1.31
5489.00,1.31
5488.00,1.31
5487.00,1.32
5486.00,1.32
5485.00,1.32
5484.00,1.32
5483.00,1.32
5482.00,1.32
5481.00,1.32
5480.00,1.32
5479.00,1.33
5478.00,1.33
5477.00,1.33
5476.00,1.33
5475.00,1.33
5474.00,1.33
5473.00,1.33
5472.00,1.33
5471.00,1.33
5470.00,1.33
5469.00,1.33
5468.00,1.34
5467.00,1.34
5466.00,1.34
5465.00,1.34
5464.00,1.34
5463.00,1.34
5462.00,1.34
5461.00,1.34
5460.00,1.34
5459.00,1.34
5458.00,1.34
5457.00,1.34
5456.00,1.34
5455.00,1.34
5454.00,1.34
5453.00,1.34
5452.00,1.34
5451.00,1.34
5450.00,1.34
5449.00,1.34
5448.00,1.34
5447.00,1.34
5446.00,1.34
5445.00,1.34
5444.00,1.34
5443.00,1.34
5442.00,1.34
5441.00,1.34
5440.00,1.34
5439.00,1.34
5438.00,1.34
5437.00,1.34
5436.00,1.34
5435.00,1.34
5434.00,1.35
5433.00,1.35
5432.00,1.35
5431.00,1.35
5430.00,1.35
5429.00,1.35
5428.00,1.35
5427.00,1.35
5426.00,1.35
5425.00,1.35
5424.00,1.35
5423.00,1.35
5422.00,1.35
5421.00,1.35
5420.00,1.35
5419.00,1.35
5418.00,1.35
5417.00,1.35
5416.00,1.35
5415.00,1.35
5414.00,1.35
5413.00,1.34
5412.00,1.34
5411.00,1.34
5410.00,1.34
5409.00,1.34
5408.00,1.34
5407.00,1.34
5406.00,1.34
5405.00,1.34
5404.00,1.35
5403.00,1.35
5402.00,1.35
5401.00,1.35
5400.00,1.35
5399.00,1.35
5398.00,1.35
5397.00,1.35
5396.00,1.35
5395.00,1.35
5394.00,1.35
5393.00,1.34
5392.00,1.34
5391.00,1.34
5390.00,1.34
5389.00,1.34
5388.00,1.34
5387.00,1.34
5386.00,1.34
5385.00,1.33
5384.00,1.33
5383.00,1.33
5382.00,1.33
5381.00,1.33
5380.00,1.32
5379.00,1.32
5378.00,1.32
5377.00,1.32
5376.00,1.31
5375.00,1.31
5374.00,1.31
5373.00,1.31
5372.00,1.30
5371.00,1.30
5370.00,1.30
5369.00,1.29
5368.00,1.29
5367.00,1.29
5366.00,1.28
5365.00,1.28
5364.00,1.27
5363.00,1.27
5362.00,1.26
5361.00,1.26
5360.00,1.25
5359.00,1.25
5358.00,1.24
5357.00,1.24
5356.00,1.23
5355.00,1.23
5354.00,1.22
5353.00,1.21
5352.00,1.21
5351.00,1.20
5350.00,1.19
5349.00,1.19
5348.00,1.18
5347.00,1.17
5346.00,1.17
5345.00,1.16
5344.00,1.15
5343.00,1.14
5342.00,1.14
5341.00,1.13
5340.00,1.12
5339.00,1.11
5338.00,1.10
5337.00,1.10
5336.00,1.09
5335.00,1.08
5334.00,1.07
5333.00,1.06
5332.00,1.05
5331.00,1.04
5330.00,1.04
5329.00,1.03
5328.00,1.02
5327.00,1.01
5326.00,1.00
5325.00,0.99
5324.00,0.98
5323.00,0.97
5322.00,0.97
5321.00,0.96
5320.00,0.95
5319.00,0.94
5318.00,0.93
5317.00,0.92
5316.00,0.91
5315.00,0.91
5314.00,0.90
5313.00,0.89
5312.00,0.88
5311.00,0.87
5310.00,0.86
5309.00,0.86
5308.00,0.85
5307.00,0.84
5306.00,0.83
5305.00,0.82
5304.00,0.82
5303.00,0.81
5302.00,0.80
5301.00,0.80
5300.00,0.79
5299.00,0.79
5298.00,0.78
5297.00,0.78
5296.00,0.77
5295.00,0.77
5294.00,0.76
5293.00,0.76
5292.00,0.75
5291.00,0.75
5290.00,0.75
5289.00,0.74
5288.00,0.74
5287.00,0.73
5286.00,0.73
5285.00,0.73
5284.00,0.73
5283.00,0.72
5282.00,0.72
5281.00,0.72
5280.00,0.72
5279.00,0.72
5278.00,0.71
5277.00,0.71
5276.00,0.71
5275.00,0.71
5274.00,0.71
5273.00,0.71
5272.00,0.71
5271.00,0.70
5270.00,0.70
5269.00,0.70
5268.00,0.70
5267.00,0.70
5266.00,0.70
5265.00,0.70
5264.00,0.70
5263.00,0.69
5262.00,0.69
5261.00,0.69
5260.00,0.69
5259.00,0.69
5258.00,0.69
5257.00,0.69
5256.00,0.69
5255.00,0.69
5254.00,0.68
5253.00,0.68
5252.00,0.68
5251.00,0.68
5250.00,0.68
5249.00,0.68
5248.00,0.68
5247.00,0.68
5246.00,0.68
5245.00,0.68
5244.00,0.68
5243.00,0.68
5242.00,0.68
5241.00,0.68
5240.00,0.68
5239.00,0.68
5238.00,0.68
5237.00,0.68
5236.00,0.68
5235.00,0.68
5234.00,0.68
5233.00,0.68
5232.00,0.68
5231.00,0.68
5230.00,0.68
5229.00,0.68
5228.00,0.68
5227.00,0.68
5226.00,0.68
5225.00,0.68
5224.00,0.68
5223.00,0.68
5222.00,0.68
5221.00,0.68
5220.00,0.68
5219.00,0.68
5218.00,0.68
5217.00,0.68
5216.00,0.68
5215.00,0.68
5214.00,0.68
5213.00,0.68
5212.00,0.68
5211.00,0.68
5210.00,0.68
5209.00,0.68
5208.00,0.68
5207.00,0.68
5206.00,0.68
5205.00,0.68
5204.00,0.69
5203.00,0.69
5202.00,0.69
5201.00,0.69
5200.00,0.69
5199.00,0.69
5198.00,0.69
5197.00,0.69
5196.00,0.69
5195.00,0.69
5194.00,0.69
5193.00,0.69
5192.00,0.69
5191.00,0.69
5190.00,0.69
5189.00,0.69
5188.00,0.69
5187.00,0.69
5186.00,0.69
5185.00,0.69
5184.00,0.69
5183.00,0.69
5182.00,0.69
5181.00,0.69
5180.00,0.69
5179.00,0.69
5178.00,0.69
5177.00,0.69
5176.00,0.69
5175.00,0.69
5174.00,0.69
5173.00,0.69
5172.00,0.70
5171.00,0.70
5170.00,0.70
5169.00,0.70
5168.00,0.70
5167.00,0.70
5166.00,0.70
5165.00,0.70
5164.00,0.70
5163.00,0.70
5162.00,0.70
5161.00,0.70
5160.00,0.70
5159.00,0.70
5158.00,0.71
5157.00,0.71
5156.00,0.71
5155.00,0.71
5154.00,0.71
5153.00,0.71
5152.00,0.71
5151.00,0.71
5150.00,0.71
5149.00,0.71
5148.00,0.71
5147.00,0.71
5146.00,0.71
5145.00,0.71
5144.00,0.71
5143.00,0.71
5142.00,0.71
5141.00,0.71
5140.00,0.71
5139.00,0.71
5138.00,0.71
5137.00,0.71
5136.00,0.71
5135.00,0.71
5134.00,0.72
5133.00,0.72
5132.00,0.72
5131.00,0.72
5130.00,0.72
5129.00,0.72
5128.00,0.72
5127.00,0.72
5126.00,0.72
5125.00,0.72
5124.00,0.72
5123.00,0.72
5122.00,0.72
5121.00,0.72
5120.00,0.72
5119.00,0.73
5118.00,0.73
5117.00,0.73
5116.00,0.73
5115.00,0.73
5114.00,0.73
5113.00,0.73
5112.00,0.73
5111.00,0.73
5110.00,0.73
5109.00,0.73
5108.00,0.73
5107.00,0.73
5106.00,0.73
5105.00,0.73
5104.00,0.73
5103.00,0.73
5102.00,0.73
5101.00,0.73
5100.00,0.73
5099.00,0.73
5098.00,0.73
5097.00,0.73
5096.00,0.73
5095.00,0.73
5094.00,0.73
5093.00,0.73
5092.00,0.73
5091.00,0.73
5090.00,0.74
5089.00,0.74
5088.00,0.74
5087.00,0.74
5086.00,0.74
5085.00,0.74
5084.00,0.74
5083.00,0.74
5082.00,0.74
5081.00,0.74
5080.00,0.74
5079.00,0.74
5078.00,0.75
5077.00,0.75
5076.00,0.75
5075.00,0.75
5074.00,0.75
5073.00,0.75
5072.00,0.75
5071.00,0.75
5070.00,0.75
5069.00,0.75
5068.00,0.75
5067.00,0.75
5066.00,0.76
5065.00,0.76
5064.00,0.76
5063.00,0.76
5062.00,0.76
5061.00,0.76
5060.00,0.76
5059.00,0.76
5058.00,0.76
5057.00,0.76
5056.00,0.77
5055.00,0.77
5054.00,0.77
5053.00,0.77
5052.00,0.77
5051.00,0.77
5050.00,0.77
5049.00,0.77
5048.00,0.77
5047.00,0.77
5046.00,0.77
5045.00,0.78
5044.00,0.78
5043.00,0.78
5042.00,0.78
5041.00,0.78
5040.00,0.78
5039.00,0.78
5038.00,0.78
5037.00,0.78
5036.00,0.78
5035.00,0.79
5034.00,0.79
5033.00,0.79
5032.00,0.79
5031.00,0.79
5030.00,0.79
5029.00,0.79
5028.00,0.79
5027.00,0.79
5026.00,0.79
5025.00,0.79
5024.00,0.79
5023.00,0.80
5022.00,0.80
5021.00,0.80
5020.00,0.80
5019.00,0.80
5018.00,0.80
5017.00,0.80
5016.00,0.80
5015.00,0.81
5014.00,0.81
5013.00,0.81
5012.00,0.81
5011.00,0.81
5010.00,0.81
5009.00,0.81
5008.00,0.81
5007.00,0.81
5006.00,0.81
5005.00,0.81
5004.00,0.81
5003.00,0.82
5002.00,0.82
5001.00,0.82
5000.00,0.82
4999.00,0.82
4998.00,0.82
4997.00,0.82
4996.00,0.82
4995.00,0.82
4994.00,0.83
4993.00,0.83
4992.00,0.83
4991.00,0.83
4990.00,0.83
4989.00,0.83
4988.00,0.83
4987.00,0.84
4986.00,0.84
4985.00,0.84
4984.00,0.84
4983.00,0.84
4982.00,0.84
4981.00,0.84
4980.00,0.85
4979.00,0.85
4978.00,0.85
4977.00,0.85
4976.00,0.85
4975.00,0.85
4974.00,0.85
4973.00,0.85
4972.00,0.85
4971.00,0.86
4970.00,0.86
4969.00,0.86
4968.00,0.86
4967.00,0.86
4966.00,0.86
4965.00,0.86
4964.00,0.86
4963.00,0.86
4962.00,0.86
4961.00,0.86
4960.00,0.86
4959.00,0.86
4958.00,0.87
4957.00,0.87
4956.00,0.87
4955.00,0.87
4954.00,0.87
4953.00,0.87
4952.00,0.87
4951.00,0.87
4950.00,0.87
4949.00,0.88
4948.00,0.88
4947.00,0.88
4946.00,0.88
4945.00,0.88
4944.00,0.88
4943.00,0.88
4942.00,0.88
4941.00,0.89
4940.00,0.89
4939.00,0.89
4938.00,0.89
4937.00,0.89
4936.00,0.89
4935.00,0.89
4934.00,0.89
4933.00,0.89
4932.00,0.89
4931.00,0.90
4930.00,0.90
4929.00,0.90
4928.00,0.90
4927.00,0.90
4926.00,0.90
4925.00,0.90
4924.00,0.90
4923.00,0.90
4922.00,0.90
4921.00,0.90
4920.00,0.90
4919.00,0.90
4918.00,0.90
4917.00,0.90
4916.00,0.91
4915.00,0.91
4914.00,0.91
4913.00,0.91
4912.00,0.91
4911.00,0.91
4910.00,0.91
4909.00,0.91
4908.00,0.91
4907.00,0.91
4906.00,0.91
4905.00,0.91
4904.00,0.91
4903.00,0.91
4902.00,0.91
4901.00,0.91
4900.00,0.91
4899.00,0.91
4898.00,0.91
4897.00,0.91
4896.00,0.91
4895.00,0.91
4894.00,0.91
4893.00,0.91
4892.00,0.91
4891.00,0.91
4890.00,0.92
4889.00,0.92
4888.00,0.92
4887.00,0.92
4886.00,0.92
4885.00,0.92
4884.00,0.92
4883.00,0.92
4882.00,0.92
4881.00,0.92
4880.00,0.92
4879.00,0.92
4878.00,0.92
4877.00,0.92
4876.00,0.92
4875.00,0.92
4874.00,0.92
4873.00,0.92
4872.00,0.92
4871.00,0.92
4870.00,0.93
4869.00,0.93
4868.00,0.93
4867.00,0.93
4866.00,0.93
4865.00,0.93
4864.00,0.93
4863.00,0.93
4862.00,0.93
4861.00,0.93
4860.00,0.93
4859.00,0.93
4858.00,0.93
4857.00,0.93
4856.00,0.94
4855.00,0.94
4854.00,0.94
4853.00,0.94
4852.00,0.94
4851.00,0.94
4850.00,0.94
4849.00,0.94
4848.00,0.94
4847.00,0.94
4846.00,0.94
4845.00,0.94
4844.00,0.94
4843.00,0.94
4842.00,0.94
4841.00,0.94
4840.00,0.95
4839.00,0.95
4838.00,0.95
4837.00,0.95
4836.00,0.95
4835.00,0.95
4834.00,0.95
4833.00,0.95
4832.00,0.95
4831.00,0.95
4830.00,0.95
4829.00,0.95
4828.00,0.95
4827.00,0.95
4826.00,0.95
4825.00,0.96
4824.00,0.96
4823.00,0.96
4822.00,0.96
4821.00,0.96
4820.00,0.96
4819.00,0.96
4818.00,0.97
4817.00,0.97
4816.00,0.97
4815.00,0.97
4814.00,0.97
4813.00,0.97
4812.00,0.98
4811.00,0.98
4810.00,0.98
4809.00,0.98
4808.00,0.98
4807.00,0.99
4806.00,0.99
4805.00,0.99
4804.00,0.99
4803.00,0.99
4802.00,0.99
4801.00,0.99
4800.00,1.00
4799.00,1.00
4798.00,1.00
4797.00,1.00
4796.00,1.00
4795.00,1.00
4794.00,1.00
4793.00,1.01
4792.00,1.01
4791.00,1.01
4790.00,1.01
4789.00,1.01
4788.00,1.01
4787.00,1.01
4786.00,1.02
4785.00,1.02
4784.00,1.02
4783.00,1.02
4782.00,1.02
4781.00,1.02
4780.00,1.02
4779.00,1.03
4778.00,1.03
4777.00,1.03
4776.00,1.03
4775.00,1.03
4774.00,1.03
4773.00,1.03
4772.00,1.03
4771.00,1.03
4770.00,1.03
4769.00,1.04
4768.00,1.04
4767.00,1.04
4766.00,1.04
4765.00,1.04
4764.00,1.04
4763.00,1.04
4762.00,1.04
4761.00,1.04
4760.00,1.05
4759.00,1.05
4758.00,1.05
4757.00,1.05
4756.00,1.05
4755.00,1.05
4754.00,1.06
4753.00,1.06
4752.00,1.06
4751.00,1.06
4750.00,1.06
4749.00,1.06
4748.00,1.07
4747.00,1.07
4746.00,1.07
4745.00,1.07
4744.00,1.07
4743.00,1.08
4742.00,1.08
4741.00,1.08
4740.00,1.08
4739.00,1.08
4738.00,1.08
4737.00,1.09
4736.00,1.09
4735.00,1.09
4734.00,1.09
4733.00,1.09
4732.00,1.10
4731.00,1.10
4730.00,1.10
4729.00,1.10
4728.00,1.10
4727.00,1.11
4726.00,1.11
4725.00,1.11
4724.00,1.11
4723.00,1.11
4722.00,1.12
4721.00,1.12
4720.00,1.12
4719.00,1.12
4718.00,1.13
4717.00,1.13
4716.00,1.13
4715.00,1.13
4714.00,1.13
4713.00,1.14
4712.00,1.14
4711.00,1.14
4710.00,1.14
4709.00,1.14
4708.00,1.14
4707.00,1.15
4706.00,1.15
4705.00,1.15
4704.00,1.15
4703.00,1.15
4702.00,1.15
4701.00,1.15
4700.00,1.16
4699.00,1.16
4698.00,1.16
4697.00,1.16
4696.00,1.16
4695.00,1.16
4694.00,1.16
4693.00,1.16
4692.00,1.17
4691.00,1.17
4690.00,1.17
4689.00,1.17
4688.00,1.17
4687.00,1.17
4686.00,1.17
4685.00,1.18
4684.00,1.18
4683.00,1.18
4682.00,1.18
4681.00,1.18
4680.00,1.18
4679.00,1.18
4678.00,1.18
4677.00,1.19
4676.00,1.19
4675.00,1.19
4674.00,1.19
4673.00,1.19
4672.00,1.19
4671.00,1.20
4670.00,1.20
4669.00,1.20
4668.00,1.20
4667.00,1.20
4666.00,1.20
4665.00,1.20
4664.00,1.21
4663.00,1.21
4662.00,1.21
4661.00,1.21
4660.00,1.21
4659.00,1.21
4658.00,1.21
4657.00,1.21
4656.00,1.22
4655.00,1.22
4654.00,1.22
4653.00,1.22
4652.00,1.22
4651.00,1.22
4650.00,1.22
4649.00,1.22
4648.00,1.22
4647.00,1.22
4646.00,1.23
4645.00,1.23
4644.00,1.23
4643.00,1.23
4642.00,1.23
4641.00,1.23
4640.00,1.23
4639.00,1.23
4638.00,1.24
4637.00,1.24
4636.00,1.24
4635.00,1.24
4634.00,1.24
4633.00,1.24
4632.00,1.24
4631.00,1.24
4630.00,1.24
4629.00,1.24
4628.00,1.24
4627.00,1.24
4626.00,1.25
4625.00,1.25
4624.00,1.25
4623.00,1.25
4622.00,1.25
4621.00,1.25
4620.00,1.25
4619.00,1.25
4618.00,1.25
4617.00,1.26
4616.00,1.26
4615.00,1.26
4614.00,1.26
4613.00,1.26
4612.00,1.26
4611.00,1.26
4610.00,1.26
4609.00,1.26
4608.00,1.27
4607.00,1.27
4606.00,1.27
4605.00,1.27
4604.00,1.27
4603.00,1.27
4602.00,1.27
4601.00,1.27
4600.00,1.27
4599.00,1.28
4598.00,1.28
4597.00,1.28
4596.00,1.28
4595.00,1.28
4594.00,1.28
4593.00,1.28
4592.00,1.28
4591.00,1.29
4590.00,1.29
4589.00,1.29
4588.00,1.29
4587.00,1.29
4586.00,1.29
4585.00,1.30
4584.00,1.30
4583.00,1.30
4582.00,1.30
4581.00,1.30
4580.00,1.30
4579.00,1.30
4578.00,1.30
4577.00,1.30
4576.00,1.31
4575.00,1.31
4574.00,1.31
4573.00,1.31
4572.00,1.31
4571.00,1.31
4570.00,1.31
4569.00,1.31
4568.00,1.31
4567.00,1.31
4566.00,1.31
4565.00,1.31
4564.00,1.32
4563.00,1.32
4562.00,1.32
4561.00,1.32
4560.00,1.32
4559.00,1.32
4558.00,1.32
4557.00,1.32
4556.00,1.32
4555.00,1.32
4554.00,1.32
4553.00,1.32
4552.00,1.32
4551.00,1.32
4550.00,1.32
4549.00,1.32
4548.00,1.32
4547.00,1.32
4546.00,1.32
4545.00,1.32
4544.00,1.32
4543.00,1.32
4542.00,1.32
4541.00,1.32
4540.00,1.32
4539.00,1.33
4538.00,1.33
4537.00,1.33
4536.00,1.33
4535.00,1.33
4534.00,1.33
4533.00,1.33
4532.00,1.34
4531.00,1.34
4530.00,1.34
4529.00,1.34
4528.00,1.34
4527.00,1.34
4526.00,1.34
4525.00,1.34
4524.00,1.35
4523.00,1.35
4522.00,1.35
4521.00,1.35
4520.00,1.35
4519.00,1.35
4518.00,1.35
4517.00,1.35
4516.00,1.35
4515.00,1.35
4514.00,1.35
4513.00,1.35
4512.00,1.35
4511.00,1.35
4510.00,1.35
4509.00,1.35
4508.00,1.35
4507.00,1.35
4506.00,1.35
4505.00,1.35
4504.00,1.35
4503.00,1.35
4502.00,1.35
4501.00,1.35
4500.00,1.35
4499.00,1.34
4498.00,1.34
4497.00,1.34
4496.00,1.34
4495.00,1.34
4494.00,1.34
4493.00,1.34
4492.00,1.34
4491.00,1.33
4490.00,1.33
4489.00,1.33
4488.00,1.33
4487.00,1.33
4486.00,1.33
4485.00,1.32
4484.00,1.32
4483.00,1.32
4482.00,1.32
4481.00,1.32
4480.00,1.31
4479.00,1.31
4478.00,1.31
4477.00,1.31
4476.00,1.31
4475.00,1.30
4474.00,1.30
4473.00,1.30
4472.00,1.30
4471.00,1.29
4470.00,1.29
4469.00,1.29
4468.00,1.29
4467.00,1.28
4466.00,1.28
4465.00,1.28
4464.00,1.28
4463.00,1.27
4462.00,1.27
4461.00,1.27
4460.00,1.26
4459.00,1.26
4458.00,1.26
4457.00,1.25
4456.00,1.25
4455.00,1.25
4454.00,1.24
4453.00,1.24
4452.00,1.23
4451.00,1.23
4450.00,1.23
4449.00,1.22
4448.00,1.22
4447.00,1.21
4446.00,1.21
4445.00,1.20
4444.00,1.20
4443.00,1.19
4442.00,1.18
4441.00,1.18
4440.00,1.17
4439.00,1.17
4438.00,1.16
4437.00,1.16
4436.00,1.15
4435.00,1.14
4434.00,1.14
4433.00,1.13
4432.00,1.13
4431.00,1.12
4430.00,1.12
4429.00,1.11
4428.00,1.11
4427.00,1.11
4426.00,1.10
4425.00,1.10
4424.00,1.09
4423.00,1.09
4422.00,1.09
4421.00,1.08
4420.00,1.08
4419.00,1.08
4418.00,1.08
4417.00,1.07
4416.00,1.07
4415.00,1.07
4414.00,1.07
4413.00,1.07
4412.00,1.07
4411.00,1.07
4410.00,1.07
4409.00,1.07
4408.00,1.07
4407.00,1.07
4406.00,1.07
4405.00,1.07
4404.00,1.07
4403.00,1.07
4402.00,1.08
4401.00,1.08
4400.00,1.08
4399.00,1.08
4398.00,1.08
4397.00,1.08
4396.00,1.08
4395.00,1.09
4394.00,1.09
4393.00,1.09
4392.00,1.09
4391.00,1.09
4390.00,1.09
4389.00,1.09
4388.00,1.10
4387.00,1.10
4386.00,1.10
4385.00,1.10
4384.00,1.10
4383.00,1.10
4382.00,1.11
4381.00,1.11
4380.00,1.11
4379.00,1.11
4378.00,1.11
4377.00,1.11
4376.00,1.12
4375.00,1.12
4374.00,1.12
4373.00,1.12
4372.00,1.12
4371.00,1.12
4370.00,1.12
4369.00,1.13
4368.00,1.13
4367.00,1.13
4366.00,1.13
4365.00,1.13
4364.00,1.13
4363.00,1.13
4362.00,1.13
4361.00,1.13
4360.00,1.13
4359.00,1.13
4358.00,1.13
4357.00,1.13
4356.00,1.12
4355.00,1.12
4354.00,1.12
4353.00,1.12
4352.00,1.12
4351.00,1.12
4350.00,1.12
4349.00,1.12
4348.00,1.11
4347.00,1.11
4346.00,1.11
4345.00,1.11
4344.00,1.11
4343.00,1.11
4342.00,1.11
4341.00,1.11
4340.00,1.11
4339.00,1.11
4338.00,1.11
4337.00,1.11
4336.00,1.12
4335.00,1.12
4334.00,1.12
4333.00,1.12
4332.00,1.12
4331.00,1.12
4330.00,1.12
4329.00,1.13
4328.00,1.13
4327.00,1.13
4326.00,1.13
4325.00,1.13
4324.00,1.14
4323.00,1.14
4322.00,1.14
4321.00,1.14
4320.00,1.14
4319.00,1.15
4318.00,1.15
4317.00,1.15
4316.00,1.15
4315.00,1.16
4314.00,1.16
4313.00,1.16
4312.00,1.16
4311.00,1.17
4310.00,1.17
4309.00,1.17
4308.00,1.17
4307.00,1.18
4306.00,1.18
4305.00,1.18
4304.00,1.19
4303.00,1.19
4302.00,1.19
4301.00,1.19
4300.00,1.20
4299.00,1.20
4298.00,1.20
4297.00,1.20
4296.00,1.21
4295.00,1.21
4294.00,1.21
4293.00,1.21
4292.00,1.21
4291.00,1.22
4290.00,1.22
4289.00,1.22
4288.00,1.22
4287.00,1.22
4286.00,1.22
4285.00,1.22
4284.00,1.22
4283.00,1.22
4282.00,1.22
4281.00,1.22
4280.00,1.22
4279.00,1.22
4278.00,1.22
4277.00,1.22
4276.00,1.22
4275.00,1.22
4274.00,1.22
4273.00,1.22
4272.00,1.22
4271.00,1.21
4270.00,1.21
4269.00,1.21
4268.00,1.21
4267.00,1.21
4266.00,1.21
4265.00,1.21
4264.00,1.20
4263.00,1.20
4262.00,1.20
4261.00,1.20
4260.00,1.20
4259.00,1.20
4258.00,1.20
4257.00,1.20
4256.00,1.20
4255.00,1.20
4254.00,1.20
4253.00,1.20
4252.00,1.21
4251.00,1.21
4250.00,1.21
4249.00,1.21
4248.00,1.21
4247.00,1.21
4246.00,1.21
4245.00,1.21
4244.00,1.21
4243.00,1.22
4242.00,1.22
4241.00,1.22
4240.00,1.22
4239.00,1.22
4238.00,1.22
4237.00,1.22
4236.00,1.23
4235.00,1.23
4234.00,1.23
4233.00,1.23
4232.00,1.23
4231.00,1.24
4230.00,1.24
4229.00,1.24
4228.00,1.24
4227.00,1.24
4226.00,1.24
4225.00,1.25
4224.00,1.25
4223.00,1.25
4222.00,1.25
4221.00,1.25
4220.00,1.25
4219.00,1.25
4218.00,1.25
4217.00,1.26
4216.00,1.26
4215.00,1.26
4214.00,1.26
4213.00,1.26
4212.00,1.26
4211.00,1.26
4210.00,1.26
4209.00,1.26
4208.00,1.26
4207.00,1.26
4206.00,1.27
4205.00,1.27
4204.00,1.27
4203.00,1.27
4202.00,1.27
4201.00,1.27
4200.00,1.27
4199.00,1.27
4198.00,1.27
4197.00,1.27
4196.00,1.27
4195.00,1.27
4194.00,1.27
4193.00,1.27
4192.00,1.27
4191.00,1.27
4190.00,1.27
4189.00,1.27
4188.00,1.27
4187.00,1.27
4186.00,1.27
4185.00,1.27
4184.00,1.27
4183.00,1.27
4182.00,1.27
4181.00,1.27
4180.00,1.27
4179.00,1.27
4178.00,1.27
4177.00,1.27
4176.00,1.27
4175.00,1.27
4174.00,1.27
4173.00,1.27
4172.00,1.27
4171.00,1.27
4170.00,1.27
4169.00,1.27
4168.00,1.27
4167.00,1.27
4166.00,1.27
4165.00,1.27
4164.00,1.27
4163.00,1.27
4162.00,1.26
4161.00,1.26
4160.00,1.26
4159.00,1.26
4158.00,1.26
4157.00,1.26
4156.00,1.26
4155.00,1.26
4154.00,1.26
4153.00,1.26
4152.00,1.26
4151.00,1.26
4150.00,1.26
4149.00,1.26
4148.00,1.26
4147.00,1.26
4146.00,1.26
4145.00,1.26
4144.00,1.26
4143.00,1.27
4142.00,1.27
4141.00,1.27
4140.00,1.27
4139.00,1.27
4138.00,1.27
4137.00,1.27
4136.00,1.27
4135.00,1.27
4134.00,1.27
4133.00,1.27
4132.00,1.27
4131.00,1.27
4130.00,1.27
4129.00,1.27
4128.00,1.27
4127.00,1.27
4126.00,1.27
4125.00,1.27
4124.00,1.28
4123.00,1.28
4122.00,1.28
4121.00,1.28
4120.00,1.28
4119.00,1.28
4118.00,1.28
4117.00,1.28
4116.00,1.28
4115.00,1.28
4114.00,1.28
4113.00,1.28
4112.00,1.28
4111.00,1.28
4110.00,1.28
4109.00,1.28
4108.00,1.28
4107.00,1.28
4106.00,1.28
4105.00,1.28
4104.00,1.28
4103.00,1.28
4102.00,1.28
4101.00,1.28
4100.00,1.28
4099.00,1.28
4098.00,1.28
4097.00,1.28
4096.00,1.28
4095.00,1.28
4094.00,1.28
4093.00,1.28
4092.00,1.27
4091.00,1.27
4090.00,1.27
4089.00,1.27
4088.00,1.27
4087.00,1.27
4086.00,1.27
4085.00,1.27
4084.00,1.27
4083.00,1.27
4082.00,1.27
4081.00,1.27
4080.00,1.27
4079.00,1.27
4078.00,1.27
4077.00,1.27
4076.00,1.27
4075.00,1.27
4074.00,1.27
4073.00,1.27
4072.00,1.27
4071.00,1.27
4070.00,1.27
4069.00,1.27
4068.00,1.27
4067.00,1.28
4066.00,1.28
4065.00,1.28
4064.00,1.28
4063.00,1.28
4062.00,1.28
4061.00,1.28
4060.00,1.28
4059.00,1.29
4058.00,1.29
4057.00,1.29
4056.00,1.29
4055.00,1.29
4054.00,1.29
4053.00,1.29
4052.00,1.29
4051.00,1.29
4050.00,1.29
4049.00,1.29
4048.00,1.30
4047.00,1.30
4046.00,1.30
4045.00,1.30
4044.00,1.30
4043.00,1.30
4042.00,1.30
4041.00,1.30
4040.00,1.30
4039.00,1.30
4038.00,1.30
4037.00,1.30
4036.00,1.30
4035.00,1.30
4034.00,1.30
4033.00,1.30
4032.00,1.30
4031.00,1.30
4030.00,1.30
4029.00,1.30
4028.00,1.30
4027.00,1.30
4026.00,1.30
4025.00,1.30
4024.00,1.31
4023.00,1.31
4022.00,1.31
4021.00,1.31
4020.00,1.31
4019.00,1.31
4018.00,1.31
4017.00,1.32
4016.00,1.32
4015.00,1.32
4014.00,1.32
4013.00,1.32
4012.00,1.33
4011.00,1.33
4010.00,1.33
4009.00,1.33
4008.00,1.34
4007.00,1.34
4006.00,1.34
4005.00,1.34
4004.00,1.34
4003.00,1.34
4002.00,1.34
4001.00,1.35
4000.00,1.35
