创建为新数据集,样品 572 用户 Administrator 日期 星期一, 七月 16 2018
cm-1,%T
10000.00,1.33
9999.00,1.33
9998.00,1.33
9997.00,1.33
9996.00,1.33
9995.00,1.33
9994.00,1.33
9993.00,1.33
9992.00,1.33
9991.00,1.33
9990.00,1.33
9989.00,1.33
9988.00,1.33
9987.00,1.33
9986.00,1.33
9985.00,1.33
9984.00,1.33
9983.00,1.33
9982.00,1.33
9981.00,1.33
9980.00,1.33
9979.00,1.33
9978.00,1.33
9977.00,1.33
9976.00,1.33
9975.00,1.33
9974.00,1.33
9973.00,1.33
9972.00,1.33
9971.00,1.33
9970.00,1.33
9969.00,1.33
9968.00,1.33
9967.00,1.33
9966.00,1.33
9965.00,1.33
9964.00,1.33
9963.00,1.33
9962.00,1.33
9961.00,1.33
9960.00,1.33
9959.00,1.33
9958.00,1.33
9957.00,1.33
9956.00,1.33
9955.00,1.33
9954.00,1.33
9953.00,1.33
9952.00,1.32
9951.00,1.32
9950.00,1.32
9949.00,1.32
9948.00,1.32
9947.00,1.32
9946.00,1.32
9945.00,1.32
9944.00,1.32
9943.00,1.32
9942.00,1.32
9941.00,1.32
9940.00,1.32
9939.00,1.32
9938.00,1.32
9937.00,1.32
9936.00,1.32
9935.00,1.32
9934.00,1.32
9933.00,1.32
9932.00,1.32
9931.00,1.32
9930.00,1.32
9929.00,1.32
9928.00,1.32
9927.00,1.32
9926.00,1.32
9925.00,1.32
9924.00,1.32
9923.00,1.32
9922.00,1.32
9921.00,1.32
9920.00,1.32
9919.00,1.32
9918.00,1.32
9917.00,1.32
9916.00,1.32
9915.00,1.32
9914.00,1.31
9913.00,1.31
9912.00,1.31
9911.00,1.31
9910.00,1.31
9909.00,1.31
9908.00,1.31
9907.00,1.31
9906.00,1.31
9905.00,1.31
9904.00,1.31
9903.00,1.31
9902.00,1.31
9901.00,1.31
9900.00,1.31
9899.00,1.31
9898.00,1.30
9897.00,1.30
9896.00,1.30
9895.00,1.30
9894.00,1.30
9893.00,1.30
9892.00,1.30
9891.00,1.30
9890.00,1.30
9889.00,1.30
9888.00,1.30
9887.00,1.30
9886.00,1.30
9885.00,1.30
9884.00,1.30
9883.00,1.31
9882.00,1.31
9881.00,1.31
9880.00,1.31
9879.00,1.31
9878.00,1.31
9877.00,1.31
9876.00,1.32
9875.00,1.32
9874.00,1.32
9873.00,1.32
9872.00,1.32
9871.00,1.32
9870.00,1.32
9869.00,1.32
9868.00,1.32
9867.00,1.32
9866.00,1.32
9865.00,1.32
9864.00,1.32
9863.00,1.32
9862.00,1.32
9861.00,1.31
9860.00,1.31
9859.00,1.31
9858.00,1.31
9857.00,1.31
9856.00,1.30
9855.00,1.30
9854.00,1.30
9853.00,1.30
9852.00,1.30
9851.00,1.30
9850.00,1.30
9849.00,1.30
9848.00,1.30
9847.00,1.30
9846.00,1.30
9845.00,1.30
9844.00,1.30
9843.00,1.30
9842.00,1.31
9841.00,1.31
9840.00,1.31
9839.00,1.31
9838.00,1.31
9837.00,1.31
9836.00,1.30
9835.00,1.30
9834.00,1.30
9833.00,1.30
9832.00,1.30
9831.00,1.30
9830.00,1.30
9829.00,1.30
9828.00,1.30
9827.00,1.30
9826.00,1.30
9825.00,1.30
9824.00,1.30
9823.00,1.30
9822.00,1.31
9821.00,1.31
9820.00,1.31
9819.00,1.31
9818.00,1.31
9817.00,1.32
9816.00,1.32
9815.00,1.32
9814.00,1.32
9813.00,1.32
9812.00,1.32
9811.00,1.32
9810.00,1.32
9809.00,1.32
9808.00,1.32
9807.00,1.32
9806.00,1.32
9805.00,1.32
9804.00,1.32
9803.00,1.31
9802.00,1.31
9801.00,1.31
9800.00,1.31
9799.00,1.31
9798.00,1.30
9797.00,1.30
9796.00,1.30
9795.00,1.30
9794.00,1.30
9793.00,1.29
9792.00,1.29
9791.00,1.29
9790.00,1.29
9789.00,1.29
9788.00,1.29
9787.00,1.29
9786.00,1.29
9785.00,1.29
9784.00,1.29
9783.00,1.29
9782.00,1.30
9781.00,1.30
9780.00,1.30
9779.00,1.30
9778.00,1.30
9777.00,1.30
9776.00,1.30
9775.00,1.30
9774.00,1.30
9773.00,1.30
9772.00,1.30
9771.00,1.30
9770.00,1.30
9769.00,1.30
9768.00,1.30
9767.00,1.31
9766.00,1.31
9765.00,1.31
9764.00,1.30
9763.00,1.30
9762.00,1.30
9761.00,1.30
9760.00,1.30
9759.00,1.30
9758.00,1.30
9757.00,1.30
9756.00,1.30
9755.00,1.30
9754.00,1.30
9753.00,1.30
9752.00,1.30
9751.00,1.30
9750.00,1.30
9749.00,1.30
9748.00,1.30
9747.00,1.30
9746.00,1.30
9745.00,1.30
9744.00,1.30
9743.00,1.30
9742.00,1.31
9741.00,1.31
9740.00,1.31
9739.00,1.31
9738.00,1.31
9737.00,1.31
9736.00,1.31
9735.00,1.32
9734.00,1.32
9733.00,1.32
9732.00,1.32
9731.00,1.32
9730.00,1.33
9729.00,1.33
9728.00,1.33
9727.00,1.33
9726.00,1.33
9725.00,1.33
9724.00,1.33
9723.00,1.33
9722.00,1.33
9721.00,1.33
9720.00,1.33
9719.00,1.33
9718.00,1.33
9717.00,1.32
9716.00,1.32
9715.00,1.32
9714.00,1.32
9713.00,1.31
9712.00,1.31
9711.00,1.31
9710.00,1.31
9709.00,1.30
9708.00,1.30
9707.00,1.30
9706.00,1.30
9705.00,1.30
9704.00,1.29
9703.00,1.29
9702.00,1.29
9701.00,1.29
9700.00,1.29
9699.00,1.29
9698.00,1.29
9697.00,1.29
9696.00,1.29
9695.00,1.29
9694.00,1.29
9693.00,1.29
9692.00,1.29
9691.00,1.29
9690.00,1.29
9689.00,1.29
9688.00,1.29
9687.00,1.30
9686.00,1.30
9685.00,1.30
9684.00,1.30
9683.00,1.30
9682.00,1.31
9681.00,1.31
9680.00,1.31
9679.00,1.31
9678.00,1.31
9677.00,1.31
9676.00,1.32
9675.00,1.32
9674.00,1.32
9673.00,1.32
9672.00,1.32
9671.00,1.32
9670.00,1.32
9669.00,1.32
9668.00,1.32
9667.00,1.33
9666.00,1.33
9665.00,1.33
9664.00,1.33
9663.00,1.33
9662.00,1.33
9661.00,1.33
9660.00,1.33
9659.00,1.33
9658.00,1.33
9657.00,1.33
9656.00,1.33
9655.00,1.33
9654.00,1.33
9653.00,1.33
9652.00,1.33
9651.00,1.33
9650.00,1.33
9649.00,1.32
9648.00,1.32
9647.00,1.32
9646.00,1.32
9645.00,1.32
9644.00,1.31
9643.00,1.31
9642.00,1.31
9641.00,1.30
9640.00,1.30
9639.00,1.30
9638.00,1.30
9637.00,1.29
9636.00,1.29
9635.00,1.29
9634.00,1.29
9633.00,1.29
9632.00,1.28
9631.00,1.28
9630.00,1.28
9629.00,1.28
9628.00,1.28
9627.00,1.28
9626.00,1.28
9625.00,1.28
9624.00,1.28
9623.00,1.28
9622.00,1.29
9621.00,1.29
9620.00,1.29
9619.00,1.29
9618.00,1.29
9617.00,1.29
9616.00,1.29
9615.00,1.29
9614.00,1.29
9613.00,1.29
9612.00,1.29
9611.00,1.29
9610.00,1.29
9609.00,1.29
9608.00,1.29
9607.00,1.28
9606.00,1.28
9605.00,1.28
9604.00,1.28
9603.00,1.28
9602.00,1.28
9601.00,1.28
9600.00,1.28
9599.00,1.28
9598.00,1.28
9597.00,1.28
9596.00,1.28
9595.00,1.28
9594.00,1.28
9593.00,1.28
9592.00,1.29
9591.00,1.29
9590.00,1.29
9589.00,1.29
9588.00,1.29
9587.00,1.30
9586.00,1.30
9585.00,1.30
9584.00,1.30
9583.00,1.30
9582.00,1.31
9581.00,1.31
9580.00,1.31
9579.00,1.31
9578.00,1.31
9577.00,1.31
9576.00,1.31
9575.00,1.31
9574.00,1.31
9573.00,1.31
9572.00,1.31
9571.00,1.30
9570.00,1.30
9569.00,1.30
9568.00,1.30
9567.00,1.30
9566.00,1.30
9565.00,1.30
9564.00,1.30
9563.00,1.30
9562.00,1.30
9561.00,1.30
9560.00,1.30
9559.00,1.30
9558.00,1.30
9557.00,1.31
9556.00,1.31
9555.00,1.31
9554.00,1.31
9553.00,1.31
9552.00,1.31
9551.00,1.31
9550.00,1.31
9549.00,1.31
9548.00,1.31
9547.00,1.31
9546.00,1.32
9545.00,1.32
9544.00,1.32
9543.00,1.32
9542.00,1.31
9541.00,1.31
9540.00,1.31
9539.00,1.31
9538.00,1.31
9537.00,1.31
9536.00,1.31
9535.00,1.31
9534.00,1.31
9533.00,1.31
9532.00,1.31
9531.00,1.31
9530.00,1.31
9529.00,1.31
9528.00,1.31
9527.00,1.31
9526.00,1.31
9525.00,1.31
9524.00,1.31
9523.00,1.31
9522.00,1.31
9521.00,1.31
9520.00,1.31
9519.00,1.31
9518.00,1.31
9517.00,1.31
9516.00,1.31
9515.00,1.31
9514.00,1.31
9513.00,1.31
9512.00,1.31
9511.00,1.31
9510.00,1.31
9509.00,1.31
9508.00,1.31
9507.00,1.31
9506.00,1.31
9505.00,1.31
9504.00,1.31
9503.00,1.31
9502.00,1.31
9501.00,1.31
9500.00,1.31
9499.00,1.31
9498.00,1.31
9497.00,1.31
9496.00,1.31
9495.00,1.32
9494.00,1.32
9493.00,1.32
9492.00,1.32
9491.00,1.32
9490.00,1.32
9489.00,1.33
9488.00,1.33
9487.00,1.33
9486.00,1.33
9485.00,1.33
9484.00,1.33
9483.00,1.33
9482.00,1.33
9481.00,1.33
9480.00,1.33
9479.00,1.33
9478.00,1.33
9477.00,1.33
9476.00,1.33
9475.00,1.32
9474.00,1.32
9473.00,1.32
9472.00,1.32
9471.00,1.32
9470.00,1.31
9469.00,1.31
9468.00,1.31
9467.00,1.31
9466.00,1.31
9465.00,1.31
9464.00,1.31
9463.00,1.31
9462.00,1.31
9461.00,1.31
9460.00,1.31
9459.00,1.31
9458.00,1.31
9457.00,1.31
9456.00,1.31
9455.00,1.31
9454.00,1.31
9453.00,1.31
9452.00,1.31
9451.00,1.31
9450.00,1.31
9449.00,1.31
9448.00,1.31
9447.00,1.31
9446.00,1.31
9445.00,1.31
9444.00,1.31
9443.00,1.31
9442.00,1.31
9441.00,1.31
9440.00,1.31
9439.00,1.31
9438.00,1.31
9437.00,1.31
9436.00,1.31
9435.00,1.31
9434.00,1.31
9433.00,1.31
9432.00,1.31
9431.00,1.31
9430.00,1.31
9429.00,1.31
9428.00,1.32
9427.00,1.32
9426.00,1.32
9425.00,1.32
9424.00,1.32
9423.00,1.32
9422.00,1.32
9421.00,1.32
9420.00,1.32
9419.00,1.33
9418.00,1.33
9417.00,1.33
9416.00,1.33
9415.00,1.33
9414.00,1.33
9413.00,1.33
9412.00,1.33
9411.00,1.33
9410.00,1.33
9409.00,1.33
9408.00,1.33
9407.00,1.32
9406.00,1.32
9405.00,1.32
9404.00,1.32
9403.00,1.32
9402.00,1.31
9401.00,1.31
9400.00,1.31
9399.00,1.31
9398.00,1.30
9397.00,1.30
9396.00,1.30
9395.00,1.30
9394.00,1.30
9393.00,1.30
9392.00,1.30
9391.00,1.30
9390.00,1.30
9389.00,1.30
9388.00,1.30
9387.00,1.30
9386.00,1.30
9385.00,1.31
9384.00,1.31
9383.00,1.31
9382.00,1.31
9381.00,1.31
9380.00,1.31
9379.00,1.31
9378.00,1.32
9377.00,1.32
9376.00,1.32
9375.00,1.32
9374.00,1.32
9373.00,1.32
9372.00,1.32
9371.00,1.32
9370.00,1.32
9369.00,1.32
9368.00,1.32
9367.00,1.32
9366.00,1.32
9365.00,1.32
9364.00,1.32
9363.00,1.32
9362.00,1.32
9361.00,1.32
9360.00,1.32
9359.00,1.32
9358.00,1.32
9357.00,1.32
9356.00,1.31
9355.00,1.31
9354.00,1.31
9353.00,1.31
9352.00,1.31
9351.00,1.30
9350.00,1.30
9349.00,1.30
9348.00,1.30
9347.00,1.30
9346.00,1.29
9345.00,1.29
9344.00,1.29
9343.00,1.29
9342.00,1.29
9341.00,1.29
9340.00,1.29
9339.00,1.29
9338.00,1.29
9337.00,1.29
9336.00,1.29
9335.00,1.29
9334.00,1.29
9333.00,1.29
9332.00,1.29
9331.00,1.29
9330.00,1.29
9329.00,1.29
9328.00,1.29
9327.00,1.29
9326.00,1.29
9325.00,1.29
9324.00,1.29
9323.00,1.29
9322.00,1.29
9321.00,1.29
9320.00,1.29
9319.00,1.29
9318.00,1.29
9317.00,1.30
9316.00,1.30
9315.00,1.30
9314.00,1.30
9313.00,1.30
9312.00,1.30
9311.00,1.30
9310.00,1.30
9309.00,1.30
9308.00,1.30
9307.00,1.29
9306.00,1.29
9305.00,1.29
9304.00,1.29
9303.00,1.29
9302.00,1.29
9301.00,1.29
9300.00,1.29
9299.00,1.29
9298.00,1.30
9297.00,1.30
9296.00,1.30
9295.00,1.30
9294.00,1.30
9293.00,1.30
9292.00,1.30
9291.00,1.30
9290.00,1.30
9289.00,1.30
9288.00,1.30
9287.00,1.31
9286.00,1.31
9285.00,1.31
9284.00,1.31
9283.00,1.31
9282.00,1.31
9281.00,1.31
9280.00,1.31
9279.00,1.31
9278.00,1.31
9277.00,1.31
9276.00,1.31
9275.00,1.31
9274.00,1.31
9273.00,1.31
9272.00,1.31
9271.00,1.31
9270.00,1.31
9269.00,1.31
9268.00,1.30
9267.00,1.30
9266.00,1.30
9265.00,1.30
9264.00,1.30
9263.00,1.30
9262.00,1.30
9261.00,1.30
9260.00,1.30
9259.00,1.30
9258.00,1.30
9257.00,1.30
9256.00,1.30
9255.00,1.30
9254.00,1.30
9253.00,1.30
9252.00,1.30
9251.00,1.30
9250.00,1.30
9249.00,1.30
9248.00,1.30
9247.00,1.30
9246.00,1.30
9245.00,1.30
9244.00,1.30
9243.00,1.30
9242.00,1.30
9241.00,1.30
9240.00,1.30
9239.00,1.30
9238.00,1.30
9237.00,1.30
9236.00,1.30
9235.00,1.30
9234.00,1.30
9233.00,1.30
9232.00,1.31
9231.00,1.31
9230.00,1.31
9229.00,1.31
9228.00,1.31
9227.00,1.31
9226.00,1.31
9225.00,1.31
9224.00,1.31
9223.00,1.31
9222.00,1.32
9221.00,1.32
9220.00,1.32
9219.00,1.32
9218.00,1.32
9217.00,1.32
9216.00,1.32
9215.00,1.32
9214.00,1.32
9213.00,1.32
9212.00,1.32
9211.00,1.32
9210.00,1.31
9209.00,1.31
9208.00,1.31
9207.00,1.31
9206.00,1.31
9205.00,1.31
9204.00,1.31
9203.00,1.31
9202.00,1.31
9201.00,1.31
9200.00,1.31
9199.00,1.31
9198.00,1.31
9197.00,1.30
9196.00,1.30
9195.00,1.30
9194.00,1.30
9193.00,1.30
9192.00,1.30
9191.00,1.30
9190.00,1.30
9189.00,1.30
9188.00,1.30
9187.00,1.30
9186.00,1.30
9185.00,1.30
9184.00,1.31
9183.00,1.31
9182.00,1.31
9181.00,1.31
9180.00,1.31
9179.00,1.31
9178.00,1.31
9177.00,1.31
9176.00,1.31
9175.00,1.31
9174.00,1.31
9173.00,1.31
9172.00,1.31
9171.00,1.31
9170.00,1.31
9169.00,1.31
9168.00,1.31
9167.00,1.31
9166.00,1.31
9165.00,1.31
9164.00,1.31
9163.00,1.31
9162.00,1.31
9161.00,1.31
9160.00,1.31
9159.00,1.31
9158.00,1.31
9157.00,1.32
9156.00,1.32
9155.00,1.32
9154.00,1.32
9153.00,1.32
9152.00,1.32
9151.00,1.32
9150.00,1.32
9149.00,1.32
9148.00,1.32
9147.00,1.32
9146.00,1.32
9145.00,1.32
9144.00,1.32
9143.00,1.32
9142.00,1.31
9141.00,1.31
9140.00,1.31
9139.00,1.31
9138.00,1.31
9137.00,1.31
9136.00,1.30
9135.00,1.30
9134.00,1.30
9133.00,1.30
9132.00,1.30
9131.00,1.30
9130.00,1.30
9129.00,1.30
9128.00,1.30
9127.00,1.30
9126.00,1.30
9125.00,1.31
9124.00,1.31
9123.00,1.31
9122.00,1.31
9121.00,1.31
9120.00,1.31
9119.00,1.31
9118.00,1.32
9117.00,1.32
9116.00,1.32
9115.00,1.32
9114.00,1.32
9113.00,1.32
9112.00,1.32
9111.00,1.32
9110.00,1.32
9109.00,1.32
9108.00,1.32
9107.00,1.32
9106.00,1.32
9105.00,1.32
9104.00,1.32
9103.00,1.32
9102.00,1.32
9101.00,1.32
9100.00,1.32
9099.00,1.32
9098.00,1.32
9097.00,1.32
9096.00,1.32
9095.00,1.32
9094.00,1.32
9093.00,1.32
9092.00,1.32
9091.00,1.32
9090.00,1.32
9089.00,1.32
9088.00,1.32
9087.00,1.32
9086.00,1.32
9085.00,1.32
9084.00,1.32
9083.00,1.32
9082.00,1.32
9081.00,1.32
9080.00,1.32
9079.00,1.32
9078.00,1.32
9077.00,1.32
9076.00,1.32
9075.00,1.32
9074.00,1.32
9073.00,1.32
9072.00,1.32
9071.00,1.32
9070.00,1.32
9069.00,1.32
9068.00,1.32
9067.00,1.32
9066.00,1.32
9065.00,1.32
9064.00,1.32
9063.00,1.32
9062.00,1.32
9061.00,1.32
9060.00,1.32
9059.00,1.33
9058.00,1.33
9057.00,1.33
9056.00,1.33
9055.00,1.33
9054.00,1.33
9053.00,1.33
9052.00,1.32
9051.00,1.32
9050.00,1.32
9049.00,1.32
9048.00,1.32
9047.00,1.32
9046.00,1.32
9045.00,1.31
9044.00,1.31
9043.00,1.31
9042.00,1.31
9041.00,1.31
9040.00,1.31
9039.00,1.31
9038.00,1.31
9037.00,1.31
9036.00,1.31
9035.00,1.32
9034.00,1.32
9033.00,1.32
9032.00,1.32
9031.00,1.32
9030.00,1.32
9029.00,1.32
9028.00,1.32
9027.00,1.32
9026.00,1.32
9025.00,1.31
9024.00,1.31
9023.00,1.31
9022.00,1.31
9021.00,1.31
9020.00,1.31
9019.00,1.31
9018.00,1.31
9017.00,1.31
9016.00,1.31
9015.00,1.31
9014.00,1.31
9013.00,1.31
9012.00,1.31
9011.00,1.31
9010.00,1.31
9009.00,1.31
9008.00,1.31
9007.00,1.31
9006.00,1.31
9005.00,1.31
9004.00,1.31
9003.00,1.31
9002.00,1.31
9001.00,1.31
9000.00,1.31
8999.00,1.31
8998.00,1.31
8997.00,1.31
8996.00,1.31
8995.00,1.31
8994.00,1.31
8993.00,1.31
8992.00,1.31
8991.00,1.32
8990.00,1.32
8989.00,1.32
8988.00,1.32
8987.00,1.32
8986.00,1.32
8985.00,1.32
8984.00,1.32
8983.00,1.32
8982.00,1.32
8981.00,1.32
8980.00,1.32
8979.00,1.32
8978.00,1.32
8977.00,1.32
8976.00,1.32
8975.00,1.32
8974.00,1.32
8973.00,1.32
8972.00,1.32
8971.00,1.32
8970.00,1.31
8969.00,1.31
8968.00,1.31
8967.00,1.31
8966.00,1.31
8965.00,1.31
8964.00,1.31
8963.00,1.31
8962.00,1.31
8961.00,1.31
8960.00,1.31
8959.00,1.31
8958.00,1.31
8957.00,1.31
8956.00,1.31
8955.00,1.31
8954.00,1.31
8953.00,1.31
8952.00,1.31
8951.00,1.32
8950.00,1.32
8949.00,1.32
8948.00,1.32
8947.00,1.32
8946.00,1.32
8945.00,1.32
8944.00,1.32
8943.00,1.33
8942.00,1.33
8941.00,1.33
8940.00,1.33
8939.00,1.33
8938.00,1.33
8937.00,1.33
8936.00,1.33
8935.00,1.33
8934.00,1.33
8933.00,1.33
8932.00,1.33
8931.00,1.33
8930.00,1.33
8929.00,1.33
8928.00,1.33
8927.00,1.33
8926.00,1.33
8925.00,1.33
8924.00,1.32
8923.00,1.32
8922.00,1.32
8921.00,1.32
8920.00,1.32
8919.00,1.32
8918.00,1.32
8917.00,1.32
8916.00,1.32
8915.00,1.32
8914.00,1.32
8913.00,1.32
8912.00,1.32
8911.00,1.32
8910.00,1.32
8909.00,1.32
8908.00,1.32
8907.00,1.32
8906.00,1.32
8905.00,1.32
8904.00,1.32
8903.00,1.32
8902.00,1.32
8901.00,1.32
8900.00,1.32
8899.00,1.33
8898.00,1.33
8897.00,1.33
8896.00,1.33
8895.00,1.33
8894.00,1.32
8893.00,1.32
8892.00,1.32
8891.00,1.32
8890.00,1.32
8889.00,1.32
8888.00,1.32
8887.00,1.32
8886.00,1.32
8885.00,1.32
8884.00,1.32
8883.00,1.32
8882.00,1.31
8881.00,1.31
8880.00,1.31
8879.00,1.31
8878.00,1.31
8877.00,1.31
8876.00,1.31
8875.00,1.31
8874.00,1.31
8873.00,1.32
8872.00,1.32
8871.00,1.32
8870.00,1.32
8869.00,1.32
8868.00,1.32
8867.00,1.32
8866.00,1.32
8865.00,1.32
8864.00,1.32
8863.00,1.32
8862.00,1.32
8861.00,1.32
8860.00,1.33
8859.00,1.33
8858.00,1.33
8857.00,1.33
8856.00,1.33
8855.00,1.33
8854.00,1.33
8853.00,1.33
8852.00,1.33
8851.00,1.33
8850.00,1.33
8849.00,1.32
8848.00,1.32
8847.00,1.32
8846.00,1.32
8845.00,1.32
8844.00,1.32
8843.00,1.32
8842.00,1.32
8841.00,1.31
8840.00,1.31
8839.00,1.31
8838.00,1.31
8837.00,1.31
8836.00,1.31
8835.00,1.31
8834.00,1.30
8833.00,1.30
8832.00,1.30
8831.00,1.30
8830.00,1.30
8829.00,1.30
8828.00,1.29
8827.00,1.29
8826.00,1.29
8825.00,1.29
8824.00,1.29
8823.00,1.29
8822.00,1.28
8821.00,1.28
8820.00,1.28
8819.00,1.28
8818.00,1.28
8817.00,1.28
8816.00,1.27
8815.00,1.27
8814.00,1.27
8813.00,1.27
8812.00,1.27
8811.00,1.27
8810.00,1.27
8809.00,1.28
8808.00,1.28
8807.00,1.28
8806.00,1.28
8805.00,1.28
8804.00,1.28
8803.00,1.29
8802.00,1.29
8801.00,1.29
8800.00,1.29
8799.00,1.29
8798.00,1.30
8797.00,1.30
8796.00,1.30
8795.00,1.30
8794.00,1.30
8793.00,1.30
8792.00,1.30
8791.00,1.30
8790.00,1.30
8789.00,1.30
8788.00,1.30
8787.00,1.30
8786.00,1.30
8785.00,1.30
8784.00,1.29
8783.00,1.29
8782.00,1.29
8781.00,1.29
8780.00,1.29
8779.00,1.29
8778.00,1.29
8777.00,1.28
8776.00,1.28
8775.00,1.28
8774.00,1.28
8773.00,1.28
8772.00,1.28
8771.00,1.27
8770.00,1.27
8769.00,1.27
8768.00,1.27
8767.00,1.27
8766.00,1.27
8765.00,1.27
8764.00,1.27
8763.00,1.27
8762.00,1.27
8761.00,1.26
8760.00,1.26
8759.00,1.26
8758.00,1.26
8757.00,1.26
8756.00,1.26
8755.00,1.26
8754.00,1.26
8753.00,1.26
8752.00,1.26
8751.00,1.25
8750.00,1.25
8749.00,1.25
8748.00,1.25
8747.00,1.25
8746.00,1.25
8745.00,1.25
8744.00,1.24
8743.00,1.24
8742.00,1.24
8741.00,1.24
8740.00,1.24
8739.00,1.24
8738.00,1.24
8737.00,1.24
8736.00,1.24
8735.00,1.24
8734.00,1.24
8733.00,1.24
8732.00,1.24
8731.00,1.24
8730.00,1.24
8729.00,1.24
8728.00,1.25
8727.00,1.25
8726.00,1.25
8725.00,1.25
8724.00,1.25
8723.00,1.26
8722.00,1.26
8721.00,1.26
8720.00,1.26
8719.00,1.26
8718.00,1.26
8717.00,1.26
8716.00,1.26
8715.00,1.27
8714.00,1.27
8713.00,1.27
8712.00,1.27
8711.00,1.27
8710.00,1.27
8709.00,1.27
8708.00,1.26
8707.00,1.26
8706.00,1.26
8705.00,1.26
8704.00,1.26
8703.00,1.26
8702.00,1.26
8701.00,1.26
8700.00,1.26
8699.00,1.26
8698.00,1.26
8697.00,1.26
8696.00,1.26
8695.00,1.25
8694.00,1.25
8693.00,1.25
8692.00,1.25
8691.00,1.25
8690.00,1.25
8689.00,1.25
8688.00,1.25
8687.00,1.25
8686.00,1.25
8685.00,1.25
8684.00,1.25
8683.00,1.25
8682.00,1.25
8681.00,1.25
8680.00,1.25
8679.00,1.25
8678.00,1.25
8677.00,1.25
8676.00,1.25
8675.00,1.25
8674.00,1.25
8673.00,1.25
8672.00,1.25
8671.00,1.25
8670.00,1.25
8669.00,1.25
8668.00,1.25
8667.00,1.25
8666.00,1.25
8665.00,1.25
8664.00,1.25
8663.00,1.25
8662.00,1.25
8661.00,1.25
8660.00,1.25
8659.00,1.25
8658.00,1.25
8657.00,1.25
8656.00,1.25
8655.00,1.25
8654.00,1.25
8653.00,1.25
8652.00,1.25
8651.00,1.25
8650.00,1.25
8649.00,1.24
8648.00,1.24
8647.00,1.24
8646.00,1.24
8645.00,1.24
8644.00,1.24
8643.00,1.24
8642.00,1.24
8641.00,1.24
8640.00,1.24
8639.00,1.24
8638.00,1.24
8637.00,1.24
8636.00,1.24
8635.00,1.24
8634.00,1.24
8633.00,1.24
8632.00,1.24
8631.00,1.24
8630.00,1.24
8629.00,1.24
8628.00,1.24
8627.00,1.24
8626.00,1.24
8625.00,1.24
8624.00,1.23
8623.00,1.23
8622.00,1.23
8621.00,1.23
8620.00,1.23
8619.00,1.23
8618.00,1.23
8617.00,1.23
8616.00,1.23
8615.00,1.23
8614.00,1.23
8613.00,1.23
8612.00,1.23
8611.00,1.23
8610.00,1.23
8609.00,1.23
8608.00,1.23
8607.00,1.23
8606.00,1.23
8605.00,1.23
8604.00,1.23
8603.00,1.23
8602.00,1.23
8601.00,1.23
8600.00,1.23
8599.00,1.23
8598.00,1.23
8597.00,1.23
8596.00,1.23
8595.00,1.23
8594.00,1.23
8593.00,1.23
8592.00,1.23
8591.00,1.23
8590.00,1.23
8589.00,1.22
8588.00,1.22
8587.00,1.22
8586.00,1.22
8585.00,1.22
8584.00,1.21
8583.00,1.21
8582.00,1.21
8581.00,1.21
8580.00,1.21
8579.00,1.20
8578.00,1.20
8577.00,1.20
8576.00,1.20
8575.00,1.20
8574.00,1.20
8573.00,1.20
8572.00,1.20
8571.00,1.20
8570.00,1.20
8569.00,1.20
8568.00,1.20
8567.00,1.20
8566.00,1.20
8565.00,1.20
8564.00,1.20
8563.00,1.20
8562.00,1.20
8561.00,1.20
8560.00,1.19
8559.00,1.19
8558.00,1.19
8557.00,1.19
8556.00,1.19
8555.00,1.19
8554.00,1.19
8553.00,1.19
8552.00,1.19
8551.00,1.19
8550.00,1.19
8549.00,1.19
8548.00,1.19
8547.00,1.19
8546.00,1.19
8545.00,1.20
8544.00,1.20
8543.00,1.20
8542.00,1.20
8541.00,1.20
8540.00,1.20
8539.00,1.20
8538.00,1.20
8537.00,1.20
8536.00,1.20
8535.00,1.20
8534.00,1.20
8533.00,1.20
8532.00,1.20
8531.00,1.20
8530.00,1.20
8529.00,1.19
8528.00,1.19
8527.00,1.19
8526.00,1.19
8525.00,1.19
8524.00,1.19
8523.00,1.19
8522.00,1.19
8521.00,1.19
8520.00,1.19
8519.00,1.19
8518.00,1.19
8517.00,1.19
8516.00,1.19
8515.00,1.19
8514.00,1.19
8513.00,1.19
8512.00,1.19
8511.00,1.19
8510.00,1.19
8509.00,1.19
8508.00,1.19
8507.00,1.18
8506.00,1.18
8505.00,1.18
8504.00,1.18
8503.00,1.18
8502.00,1.18
8501.00,1.18
8500.00,1.18
8499.00,1.18
8498.00,1.18
8497.00,1.18
8496.00,1.18
8495.00,1.18
8494.00,1.18
8493.00,1.18
8492.00,1.18
8491.00,1.18
8490.00,1.18
8489.00,1.18
8488.00,1.18
8487.00,1.18
8486.00,1.17
8485.00,1.17
8484.00,1.17
8483.00,1.17
8482.00,1.17
8481.00,1.17
8480.00,1.16
8479.00,1.16
8478.00,1.16
8477.00,1.16
8476.00,1.16
8475.00,1.16
8474.00,1.16
8473.00,1.16
8472.00,1.15
8471.00,1.15
8470.00,1.15
8469.00,1.15
8468.00,1.15
8467.00,1.15
8466.00,1.15
8465.00,1.15
8464.00,1.15
8463.00,1.15
8462.00,1.15
8461.00,1.14
8460.00,1.14
8459.00,1.14
8458.00,1.14
8457.00,1.14
8456.00,1.14
8455.00,1.14
8454.00,1.14
8453.00,1.14
8452.00,1.14
8451.00,1.14
8450.00,1.14
8449.00,1.14
8448.00,1.14
8447.00,1.14
8446.00,1.14
8445.00,1.14
8444.00,1.14
8443.00,1.14
8442.00,1.14
8441.00,1.14
8440.00,1.14
8439.00,1.14
8438.00,1.14
8437.00,1.14
8436.00,1.14
8435.00,1.14
8434.00,1.14
8433.00,1.14
8432.00,1.14
8431.00,1.14
8430.00,1.14
8429.00,1.14
8428.00,1.14
8427.00,1.14
8426.00,1.14
8425.00,1.14
8424.00,1.14
8423.00,1.14
8422.00,1.14
8421.00,1.14
8420.00,1.14
8419.00,1.14
8418.00,1.14
8417.00,1.14
8416.00,1.14
8415.00,1.14
8414.00,1.14
8413.00,1.14
8412.00,1.14
8411.00,1.14
8410.00,1.15
8409.00,1.15
8408.00,1.15
8407.00,1.15
8406.00,1.15
8405.00,1.15
8404.00,1.16
8403.00,1.16
8402.00,1.16
8401.00,1.16
8400.00,1.16
8399.00,1.16
8398.00,1.17
8397.00,1.17
8396.00,1.17
8395.00,1.17
8394.00,1.17
8393.00,1.17
8392.00,1.17
8391.00,1.17
8390.00,1.17
8389.00,1.17
8388.00,1.17
8387.00,1.17
8386.00,1.17
8385.00,1.17
8384.00,1.17
8383.00,1.17
8382.00,1.17
8381.00,1.17
8380.00,1.17
8379.00,1.17
8378.00,1.17
8377.00,1.17
8376.00,1.17
8375.00,1.17
8374.00,1.17
8373.00,1.17
8372.00,1.17
8371.00,1.17
8370.00,1.17
8369.00,1.18
8368.00,1.18
8367.00,1.18
8366.00,1.18
8365.00,1.18
8364.00,1.18
8363.00,1.18
8362.00,1.18
8361.00,1.18
8360.00,1.18
8359.00,1.18
8358.00,1.18
8357.00,1.18
8356.00,1.18
8355.00,1.18
8354.00,1.18
8353.00,1.19
8352.00,1.19
8351.00,1.19
8350.00,1.19
8349.00,1.19
8348.00,1.19
8347.00,1.19
8346.00,1.19
8345.00,1.19
8344.00,1.19
8343.00,1.19
8342.00,1.20
8341.00,1.20
8340.00,1.20
8339.00,1.20
8338.00,1.20
8337.00,1.20
8336.00,1.20
8335.00,1.19
8334.00,1.19
8333.00,1.19
8332.00,1.19
8331.00,1.19
8330.00,1.19
8329.00,1.19
8328.00,1.19
8327.00,1.19
8326.00,1.19
8325.00,1.19
8324.00,1.19
8323.00,1.18
8322.00,1.18
8321.00,1.18
8320.00,1.18
8319.00,1.18
8318.00,1.18
8317.00,1.18
8316.00,1.18
8315.00,1.18
8314.00,1.18
8313.00,1.18
8312.00,1.18
8311.00,1.18
8310.00,1.18
8309.00,1.18
8308.00,1.18
8307.00,1.18
8306.00,1.18
8305.00,1.18
8304.00,1.19
8303.00,1.19
8302.00,1.19
8301.00,1.19
8300.00,1.19
8299.00,1.19
8298.00,1.19
8297.00,1.19
8296.00,1.19
8295.00,1.19
8294.00,1.19
8293.00,1.19
8292.00,1.20
8291.00,1.20
8290.00,1.20
8289.00,1.20
8288.00,1.20
8287.00,1.20
8286.00,1.19
8285.00,1.19
8284.00,1.19
8283.00,1.19
8282.00,1.19
8281.00,1.19
8280.00,1.19
8279.00,1.19
8278.00,1.19
8277.00,1.19
8276.00,1.19
8275.00,1.19
8274.00,1.19
8273.00,1.19
8272.00,1.19
8271.00,1.19
8270.00,1.19
8269.00,1.19
8268.00,1.20
8267.00,1.20
8266.00,1.20
8265.00,1.20
8264.00,1.20
8263.00,1.20
8262.00,1.20
8261.00,1.20
8260.00,1.20
8259.00,1.21
8258.00,1.21
8257.00,1.21
8256.00,1.21
8255.00,1.21
8254.00,1.21
8253.00,1.21
8252.00,1.21
8251.00,1.21
8250.00,1.21
8249.00,1.21
8248.00,1.21
8247.00,1.21
8246.00,1.21
8245.00,1.21
8244.00,1.21
8243.00,1.21
8242.00,1.21
8241.00,1.21
8240.00,1.21
8239.00,1.21
8238.00,1.21
8237.00,1.21
8236.00,1.21
8235.00,1.21
8234.00,1.21
8233.00,1.21
8232.00,1.22
8231.00,1.22
8230.00,1.22
8229.00,1.22
8228.00,1.22
8227.00,1.22
8226.00,1.22
8225.00,1.22
8224.00,1.22
8223.00,1.22
8222.00,1.22
8221.00,1.22
8220.00,1.22
8219.00,1.22
8218.00,1.22
8217.00,1.22
8216.00,1.22
8215.00,1.22
8214.00,1.22
8213.00,1.22
8212.00,1.22
8211.00,1.22
8210.00,1.22
8209.00,1.22
8208.00,1.23
8207.00,1.23
8206.00,1.23
8205.00,1.23
8204.00,1.23
8203.00,1.23
8202.00,1.23
8201.00,1.23
8200.00,1.24
8199.00,1.24
8198.00,1.24
8197.00,1.24
8196.00,1.24
8195.00,1.24
8194.00,1.24
8193.00,1.24
8192.00,1.24
8191.00,1.24
8190.00,1.24
8189.00,1.24
8188.00,1.24
8187.00,1.24
8186.00,1.24
8185.00,1.24
8184.00,1.24
8183.00,1.24
8182.00,1.23
8181.00,1.23
8180.00,1.23
8179.00,1.23
8178.00,1.23
8177.00,1.23
8176.00,1.23
8175.00,1.23
8174.00,1.23
8173.00,1.23
8172.00,1.23
8171.00,1.23
8170.00,1.23
8169.00,1.23
8168.00,1.23
8167.00,1.23
8166.00,1.24
8165.00,1.24
8164.00,1.24
8163.00,1.24
8162.00,1.24
8161.00,1.24
8160.00,1.24
8159.00,1.24
8158.00,1.24
8157.00,1.24
8156.00,1.25
8155.00,1.25
8154.00,1.25
8153.00,1.25
8152.00,1.25
8151.00,1.25
8150.00,1.25
8149.00,1.25
8148.00,1.25
8147.00,1.25
8146.00,1.25
8145.00,1.25
8144.00,1.25
8143.00,1.26
8142.00,1.26
8141.00,1.26
8140.00,1.26
8139.00,1.26
8138.00,1.25
8137.00,1.25
8136.00,1.25
8135.00,1.25
8134.00,1.25
8133.00,1.25
8132.00,1.25
8131.00,1.25
8130.00,1.25
8129.00,1.25
8128.00,1.25
8127.00,1.25
8126.00,1.25
8125.00,1.26
8124.00,1.26
8123.00,1.26
8122.00,1.26
8121.00,1.26
8120.00,1.26
8119.00,1.26
8118.00,1.26
8117.00,1.26
8116.00,1.26
8115.00,1.26
8114.00,1.26
8113.00,1.26
8112.00,1.26
8111.00,1.26
8110.00,1.26
8109.00,1.26
8108.00,1.26
8107.00,1.26
8106.00,1.25
8105.00,1.25
8104.00,1.25
8103.00,1.25
8102.00,1.25
8101.00,1.25
8100.00,1.25
8099.00,1.25
8098.00,1.25
8097.00,1.25
8096.00,1.25
8095.00,1.25
8094.00,1.25
8093.00,1.25
8092.00,1.25
8091.00,1.25
8090.00,1.25
8089.00,1.25
8088.00,1.25
8087.00,1.25
8086.00,1.25
8085.00,1.26
8084.00,1.26
8083.00,1.26
8082.00,1.26
8081.00,1.26
8080.00,1.26
8079.00,1.26
8078.00,1.26
8077.00,1.26
8076.00,1.26
8075.00,1.26
8074.00,1.26
8073.00,1.26
8072.00,1.26
8071.00,1.26
8070.00,1.26
8069.00,1.27
8068.00,1.27
8067.00,1.27
8066.00,1.27
8065.00,1.27
8064.00,1.27
8063.00,1.27
8062.00,1.27
8061.00,1.27
8060.00,1.27
8059.00,1.27
8058.00,1.27
8057.00,1.28
8056.00,1.28
8055.00,1.28
8054.00,1.28
8053.00,1.28
8052.00,1.28
8051.00,1.28
8050.00,1.28
8049.00,1.28
8048.00,1.28
8047.00,1.28
8046.00,1.28
8045.00,1.28
8044.00,1.28
8043.00,1.28
8042.00,1.28
8041.00,1.28
8040.00,1.28
8039.00,1.28
8038.00,1.28
8037.00,1.28
8036.00,1.28
8035.00,1.28
8034.00,1.28
8033.00,1.28
8032.00,1.28
8031.00,1.28
8030.00,1.28
8029.00,1.28
8028.00,1.28
8027.00,1.28
8026.00,1.28
8025.00,1.28
8024.00,1.28
8023.00,1.28
8022.00,1.28
8021.00,1.28
8020.00,1.28
8019.00,1.28
8018.00,1.28
8017.00,1.28
8016.00,1.28
8015.00,1.28
8014.00,1.28
8013.00,1.28
8012.00,1.28
8011.00,1.28
8010.00,1.28
8009.00,1.29
8008.00,1.29
8007.00,1.29
8006.00,1.29
8005.00,1.29
8004.00,1.29
8003.00,1.29
8002.00,1.29
8001.00,1.29
8000.00,1.29
7999.00,1.29
7998.00,1.29
7997.00,1.29
7996.00,1.29
7995.00,1.29
7994.00,1.29
7993.00,1.29
7992.00,1.29
7991.00,1.29
7990.00,1.29
7989.00,1.29
7988.00,1.29
7987.00,1.29
7986.00,1.29
7985.00,1.29
7984.00,1.29
7983.00,1.29
7982.00,1.29
7981.00,1.29
7980.00,1.29
7979.00,1.29
7978.00,1.30
7977.00,1.30
7976.00,1.30
7975.00,1.30
7974.00,1.30
7973.00,1.30
7972.00,1.30
7971.00,1.30
7970.00,1.30
7969.00,1.30
7968.00,1.30
7967.00,1.30
7966.00,1.30
7965.00,1.30
7964.00,1.30
7963.00,1.30
7962.00,1.29
7961.00,1.29
7960.00,1.29
7959.00,1.29
7958.00,1.29
7957.00,1.29
7956.00,1.29
7955.00,1.29
7954.00,1.29
7953.00,1.29
7952.00,1.29
7951.00,1.29
7950.00,1.29
7949.00,1.29
7948.00,1.29
7947.00,1.30
7946.00,1.30
7945.00,1.30
7944.00,1.30
7943.00,1.30
7942.00,1.30
7941.00,1.30
7940.00,1.30
7939.00,1.30
7938.00,1.30
7937.00,1.30
7936.00,1.30
7935.00,1.30
7934.00,1.30
7933.00,1.30
7932.00,1.30
7931.00,1.30
7930.00,1.30
7929.00,1.30
7928.00,1.30
7927.00,1.30
7926.00,1.30
7925.00,1.30
7924.00,1.30
7923.00,1.30
7922.00,1.30
7921.00,1.30
7920.00,1.30
7919.00,1.30
7918.00,1.30
7917.00,1.30
7916.00,1.30
7915.00,1.31
7914.00,1.31
7913.00,1.31
7912.00,1.31
7911.00,1.31
7910.00,1.31
7909.00,1.31
7908.00,1.31
7907.00,1.31
7906.00,1.31
7905.00,1.31
7904.00,1.31
7903.00,1.31
7902.00,1.31
7901.00,1.32
7900.00,1.32
7899.00,1.32
7898.00,1.32
7897.00,1.32
7896.00,1.32
7895.00,1.32
7894.00,1.32
7893.00,1.32
7892.00,1.32
7891.00,1.32
7890.00,1.32
7889.00,1.32
7888.00,1.32
7887.00,1.32
7886.00,1.32
7885.00,1.32
7884.00,1.32
7883.00,1.32
7882.00,1.32
7881.00,1.31
7880.00,1.31
7879.00,1.31
7878.00,1.31
7877.00,1.31
7876.00,1.31
7875.00,1.31
7874.00,1.31
7873.00,1.31
7872.00,1.32
7871.00,1.32
7870.00,1.32
7869.00,1.32
7868.00,1.32
7867.00,1.32
7866.00,1.32
7865.00,1.32
7864.00,1.32
7863.00,1.32
7862.00,1.32
7861.00,1.32
7860.00,1.32
7859.00,1.32
7858.00,1.32
7857.00,1.32
7856.00,1.32
7855.00,1.32
7854.00,1.32
7853.00,1.32
7852.00,1.32
7851.00,1.32
7850.00,1.32
7849.00,1.32
7848.00,1.32
7847.00,1.32
7846.00,1.32
7845.00,1.32
7844.00,1.32
7843.00,1.32
7842.00,1.32
7841.00,1.32
7840.00,1.32
7839.00,1.32
7838.00,1.32
7837.00,1.32
7836.00,1.32
7835.00,1.32
7834.00,1.32
7833.00,1.32
7832.00,1.32
7831.00,1.32
7830.00,1.32
7829.00,1.32
7828.00,1.32
7827.00,1.33
7826.00,1.33
7825.00,1.33
7824.00,1.33
7823.00,1.33
7822.00,1.33
7821.00,1.33
7820.00,1.33
7819.00,1.33
7818.00,1.33
7817.00,1.33
7816.00,1.33
7815.00,1.33
7814.00,1.33
7813.00,1.33
7812.00,1.33
7811.00,1.33
7810.00,1.33
7809.00,1.33
7808.00,1.33
7807.00,1.33
7806.00,1.33
7805.00,1.33
7804.00,1.33
7803.00,1.33
7802.00,1.33
7801.00,1.33
7800.00,1.33
7799.00,1.33
7798.00,1.33
7797.00,1.33
7796.00,1.33
7795.00,1.33
7794.00,1.33
7793.00,1.33
7792.00,1.33
7791.00,1.33
7790.00,1.33
7789.00,1.33
7788.00,1.33
7787.00,1.33
7786.00,1.33
7785.00,1.33
7784.00,1.33
7783.00,1.33
7782.00,1.33
7781.00,1.33
7780.00,1.33
7779.00,1.33
7778.00,1.33
7777.00,1.33
7776.00,1.33
7775.00,1.33
7774.00,1.33
7773.00,1.33
7772.00,1.33
7771.00,1.33
7770.00,1.33
7769.00,1.33
7768.00,1.33
7767.00,1.33
7766.00,1.33
7765.00,1.33
7764.00,1.33
7763.00,1.33
7762.00,1.33
7761.00,1.33
7760.00,1.33
7759.00,1.33
7758.00,1.33
7757.00,1.33
7756.00,1.33
7755.00,1.33
7754.00,1.33
7753.00,1.33
7752.00,1.33
7751.00,1.33
7750.00,1.33
7749.00,1.33
7748.00,1.33
7747.00,1.33
7746.00,1.33
7745.00,1.33
7744.00,1.33
7743.00,1.33
7742.00,1.33
7741.00,1.33
7740.00,1.33
7739.00,1.33
7738.00,1.33
7737.00,1.33
7736.00,1.33
7735.00,1.33
7734.00,1.33
7733.00,1.33
7732.00,1.33
7731.00,1.33
7730.00,1.33
7729.00,1.33
7728.00,1.33
7727.00,1.33
7726.00,1.33
7725.00,1.33
7724.00,1.33
7723.00,1.33
7722.00,1.33
7721.00,1.33
7720.00,1.33
7719.00,1.33
7718.00,1.33
7717.00,1.33
7716.00,1.33
7715.00,1.33
7714.00,1.33
7713.00,1.33
7712.00,1.33
7711.00,1.33
7710.00,1.33
7709.00,1.33
7708.00,1.33
7707.00,1.33
7706.00,1.33
7705.00,1.33
7704.00,1.33
7703.00,1.33
7702.00,1.33
7701.00,1.33
7700.00,1.33
7699.00,1.33
7698.00,1.33
7697.00,1.33
7696.00,1.33
7695.00,1.33
7694.00,1.33
7693.00,1.33
7692.00,1.33
7691.00,1.33
7690.00,1.33
7689.00,1.33
7688.00,1.33
7687.00,1.33
7686.00,1.33
7685.00,1.33
7684.00,1.33
7683.00,1.33
7682.00,1.33
7681.00,1.33
7680.00,1.33
7679.00,1.33
7678.00,1.33
7677.00,1.33
7676.00,1.33
7675.00,1.33
7674.00,1.33
7673.00,1.33
7672.00,1.33
7671.00,1.33
7670.00,1.33
7669.00,1.33
7668.00,1.33
7667.00,1.33
7666.00,1.33
7665.00,1.33
7664.00,1.33
7663.00,1.33
7662.00,1.33
7661.00,1.33
7660.00,1.33
7659.00,1.33
7658.00,1.33
7657.00,1.33
7656.00,1.33
7655.00,1.33
7654.00,1.33
7653.00,1.33
7652.00,1.33
7651.00,1.33
7650.00,1.33
7649.00,1.33
7648.00,1.33
7647.00,1.33
7646.00,1.33
7645.00,1.33
7644.00,1.33
7643.00,1.33
7642.00,1.33
7641.00,1.33
7640.00,1.33
7639.00,1.33
7638.00,1.33
7637.00,1.33
7636.00,1.33
7635.00,1.33
7634.00,1.33
7633.00,1.33
7632.00,1.33
7631.00,1.33
7630.00,1.33
7629.00,1.33
7628.00,1.33
7627.00,1.33
7626.00,1.33
7625.00,1.33
7624.00,1.33
7623.00,1.33
7622.00,1.33
7621.00,1.33
7620.00,1.33
7619.00,1.33
7618.00,1.33
7617.00,1.33
7616.00,1.33
7615.00,1.33
7614.00,1.33
7613.00,1.33
7612.00,1.33
7611.00,1.33
7610.00,1.33
7609.00,1.33
7608.00,1.33
7607.00,1.33
7606.00,1.33
7605.00,1.33
7604.00,1.33
7603.00,1.33
7602.00,1.33
7601.00,1.33
7600.00,1.33
7599.00,1.33
7598.00,1.33
7597.00,1.33
7596.00,1.33
7595.00,1.33
7594.00,1.33
7593.00,1.33
7592.00,1.33
7591.00,1.33
7590.00,1.33
7589.00,1.33
7588.00,1.33
7587.00,1.33
7586.00,1.33
7585.00,1.33
7584.00,1.33
7583.00,1.33
7582.00,1.33
7581.00,1.33
7580.00,1.33
7579.00,1.33
7578.00,1.33
7577.00,1.33
7576.00,1.33
7575.00,1.33
7574.00,1.33
7573.00,1.33
7572.00,1.33
7571.00,1.33
7570.00,1.33
7569.00,1.33
7568.00,1.33
7567.00,1.33
7566.00,1.33
7565.00,1.33
7564.00,1.33
7563.00,1.33
7562.00,1.33
7561.00,1.33
7560.00,1.33
7559.00,1.33
7558.00,1.33
7557.00,1.33
7556.00,1.33
7555.00,1.33
7554.00,1.33
7553.00,1.33
7552.00,1.33
7551.00,1.33
7550.00,1.33
7549.00,1.33
7548.00,1.33
7547.00,1.33
7546.00,1.33
7545.00,1.33
7544.00,1.33
7543.00,1.33
7542.00,1.33
7541.00,1.33
7540.00,1.33
7539.00,1.33
7538.00,1.33
7537.00,1.32
7536.00,1.32
7535.00,1.32
7534.00,1.32
7533.00,1.32
7532.00,1.32
7531.00,1.32
7530.00,1.32
7529.00,1.31
7528.00,1.31
7527.00,1.31
7526.00,1.31
7525.00,1.31
7524.00,1.31
7523.00,1.31
7522.00,1.31
7521.00,1.31
7520.00,1.31
7519.00,1.31
7518.00,1.31
7517.00,1.31
7516.00,1.31
7515.00,1.31
7514.00,1.31
7513.00,1.31
7512.00,1.31
7511.00,1.31
7510.00,1.31
7509.00,1.31
7508.00,1.31
7507.00,1.31
7506.00,1.31
7505.00,1.31
7504.00,1.31
7503.00,1.31
7502.00,1.31
7501.00,1.31
7500.00,1.31
7499.00,1.30
7498.00,1.30
7497.00,1.30
7496.00,1.30
7495.00,1.30
7494.00,1.30
7493.00,1.30
7492.00,1.30
7491.00,1.29
7490.00,1.29
7489.00,1.29
7488.00,1.29
7487.00,1.29
7486.00,1.29
7485.00,1.29
7484.00,1.29
7483.00,1.29
7482.00,1.29
7481.00,1.29
7480.00,1.28
7479.00,1.28
7478.00,1.28
7477.00,1.28
7476.00,1.28
7475.00,1.28
7474.00,1.28
7473.00,1.28
7472.00,1.28
7471.00,1.28
7470.00,1.28
7469.00,1.28
7468.00,1.28
7467.00,1.28
7466.00,1.28
7465.00,1.28
7464.00,1.28
7463.00,1.28
7462.00,1.28
7461.00,1.28
7460.00,1.28
7459.00,1.28
7458.00,1.28
7457.00,1.28
7456.00,1.28
7455.00,1.28
7454.00,1.28
7453.00,1.28
7452.00,1.28
7451.00,1.28
7450.00,1.28
7449.00,1.28
7448.00,1.27
7447.00,1.27
7446.00,1.27
7445.00,1.27
7444.00,1.27
7443.00,1.27
7442.00,1.27
7441.00,1.27
7440.00,1.27
7439.00,1.27
7438.00,1.27
7437.00,1.26
7436.00,1.26
7435.00,1.26
7434.00,1.26
7433.00,1.26
7432.00,1.26
7431.00,1.26
7430.00,1.26
7429.00,1.26
7428.00,1.26
7427.00,1.26
7426.00,1.26
7425.00,1.26
7424.00,1.26
7423.00,1.26
7422.00,1.25
7421.00,1.25
7420.00,1.25
7419.00,1.25
7418.00,1.25
7417.00,1.25
7416.00,1.25
7415.00,1.25
7414.00,1.25
7413.00,1.25
7412.00,1.25
7411.00,1.25
7410.00,1.24
7409.00,1.24
7408.00,1.24
7407.00,1.24
7406.00,1.24
7405.00,1.24
7404.00,1.24
7403.00,1.24
7402.00,1.23
7401.00,1.23
7400.00,1.23
7399.00,1.23
7398.00,1.23
7397.00,1.23
7396.00,1.23
7395.00,1.23
7394.00,1.23
7393.00,1.23
7392.00,1.23
7391.00,1.23
7390.00,1.22
7389.00,1.22
7388.00,1.22
7387.00,1.22
7386.00,1.22
7385.00,1.22
7384.00,1.22
7383.00,1.22
7382.00,1.21
7381.00,1.21
7380.00,1.21
7379.00,1.21
7378.00,1.21
7377.00,1.21
7376.00,1.21
7375.00,1.21
7374.00,1.21
7373.00,1.21
7372.00,1.21
7371.00,1.21
7370.00,1.21
7369.00,1.21
7368.00,1.21
7367.00,1.21
7366.00,1.21
7365.00,1.21
7364.00,1.21
7363.00,1.21
7362.00,1.21
7361.00,1.21
7360.00,1.21
7359.00,1.21
7358.00,1.21
7357.00,1.21
7356.00,1.21
7355.00,1.21
7354.00,1.21
7353.00,1.21
7352.00,1.21
7351.00,1.21
7350.00,1.21
7349.00,1.21
7348.00,1.21
7347.00,1.21
7346.00,1.21
7345.00,1.21
7344.00,1.21
7343.00,1.21
7342.00,1.21
7341.00,1.20
7340.00,1.20
7339.00,1.20
7338.00,1.20
7337.00,1.20
7336.00,1.20
7335.00,1.20
7334.00,1.20
7333.00,1.20
7332.00,1.20
7331.00,1.20
7330.00,1.20
7329.00,1.20
7328.00,1.20
7327.00,1.19
7326.00,1.19
7325.00,1.19
7324.00,1.19
7323.00,1.19
7322.00,1.18
7321.00,1.18
7320.00,1.18
7319.00,1.18
7318.00,1.18
7317.00,1.18
7316.00,1.17
7315.00,1.17
7314.00,1.17
7313.00,1.17
7312.00,1.17
7311.00,1.17
7310.00,1.17
7309.00,1.17
7308.00,1.17
7307.00,1.17
7306.00,1.17
7305.00,1.17
7304.00,1.17
7303.00,1.17
7302.00,1.17
7301.00,1.16
7300.00,1.16
7299.00,1.16
7298.00,1.16
7297.00,1.16
7296.00,1.16
7295.00,1.16
7294.00,1.16
7293.00,1.16
7292.00,1.15
7291.00,1.15
7290.00,1.15
7289.00,1.15
7288.00,1.15
7287.00,1.15
7286.00,1.15
7285.00,1.15
7284.00,1.15
7283.00,1.15
7282.00,1.15
7281.00,1.15
7280.00,1.15
7279.00,1.15
7278.00,1.15
7277.00,1.15
7276.00,1.15
7275.00,1.15
7274.00,1.15
7273.00,1.14
7272.00,1.14
7271.00,1.14
7270.00,1.14
7269.00,1.14
7268.00,1.14
7267.00,1.14
7266.00,1.14
7265.00,1.13
7264.00,1.13
7263.00,1.13
7262.00,1.13
7261.00,1.13
7260.00,1.13
7259.00,1.12
7258.00,1.12
7257.00,1.12
7256.00,1.12
7255.00,1.12
7254.00,1.11
7253.00,1.11
7252.00,1.11
7251.00,1.11
7250.00,1.10
7249.00,1.10
7248.00,1.10
7247.00,1.10
7246.00,1.09
7245.00,1.09
7244.00,1.09
7243.00,1.09
7242.00,1.08
7241.00,1.08
7240.00,1.08
7239.00,1.08
7238.00,1.07
7237.00,1.07
7236.00,1.06
7235.00,1.06
7234.00,1.06
7233.00,1.05
7232.00,1.05
7231.00,1.05
7230.00,1.04
7229.00,1.04
7228.00,1.03
7227.00,1.03
7226.00,1.03
7225.00,1.02
7224.00,1.02
7223.00,1.02
7222.00,1.02
7221.00,1.01
7220.00,1.01
7219.00,1.01
7218.00,1.01
7217.00,1.00
7216.00,1.00
7215.00,1.00
7214.00,1.00
7213.00,0.99
7212.00,0.99
7211.00,0.99
7210.00,0.98
7209.00,0.98
7208.00,0.98
7207.00,0.98
7206.00,0.97
7205.00,0.97
7204.00,0.97
7203.00,0.96
7202.00,0.96
7201.00,0.96
7200.00,0.95
7199.00,0.95
7198.00,0.95
7197.00,0.94
7196.00,0.94
7195.00,0.94
7194.00,0.93
7193.00,0.93
7192.00,0.93
7191.00,0.93
7190.00,0.92
7189.00,0.92
7188.00,0.92
7187.00,0.91
7186.00,0.91
7185.00,0.91
7184.00,0.90
7183.00,0.90
7182.00,0.90
7181.00,0.89
7180.00,0.89
7179.00,0.89
7178.00,0.88
7177.00,0.88
7176.00,0.88
7175.00,0.88
7174.00,0.87
7173.00,0.87
7172.00,0.87
7171.00,0.87
7170.00,0.86
7169.00,0.86
7168.00,0.86
7167.00,0.86
7166.00,0.85
7165.00,0.85
7164.00,0.85
7163.00,0.85
7162.00,0.85
7161.00,0.85
7160.00,0.84
7159.00,0.84
7158.00,0.84
7157.00,0.84
7156.00,0.84
7155.00,0.84
7154.00,0.84
7153.00,0.84
7152.00,0.84
7151.00,0.83
7150.00,0.83
7149.00,0.83
7148.00,0.83
7147.00,0.82
7146.00,0.82
7145.00,0.82
7144.00,0.82
7143.00,0.81
7142.00,0.81
7141.00,0.81
7140.00,0.81
7139.00,0.80
7138.00,0.80
7137.00,0.80
7136.00,0.79
7135.00,0.79
7134.00,0.79
7133.00,0.79
7132.00,0.78
7131.00,0.78
7130.00,0.78
7129.00,0.77
7128.00,0.77
7127.00,0.77
7126.00,0.77
7125.00,0.76
7124.00,0.76
7123.00,0.76
7122.00,0.76
7121.00,0.75
7120.00,0.75
7119.00,0.75
7118.00,0.75
7117.00,0.75
7116.00,0.75
7115.00,0.74
7114.00,0.74
7113.00,0.74
7112.00,0.74
7111.00,0.74
7110.00,0.74
7109.00,0.73
7108.00,0.73
7107.00,0.73
7106.00,0.73
7105.00,0.73
7104.00,0.73
7103.00,0.73
7102.00,0.73
7101.00,0.72
7100.00,0.72
7099.00,0.72
7098.00,0.72
7097.00,0.72
7096.00,0.72
7095.00,0.71
7094.00,0.71
7093.00,0.71
7092.00,0.71
7091.00,0.71
7090.00,0.71
7089.00,0.70
7088.00,0.70
7087.00,0.70
7086.00,0.70
7085.00,0.70
7084.00,0.70
7083.00,0.70
7082.00,0.70
7081.00,0.70
7080.00,0.69
7079.00,0.69
7078.00,0.69
7077.00,0.69
7076.00,0.69
7075.00,0.69
7074.00,0.69
7073.00,0.69
7072.00,0.69
7071.00,0.69
7070.00,0.68
7069.00,0.68
7068.00,0.68
7067.00,0.68
7066.00,0.68
7065.00,0.68
7064.00,0.68
7063.00,0.68
7062.00,0.67
7061.00,0.67
7060.00,0.67
7059.00,0.67
7058.00,0.67
7057.00,0.67
7056.00,0.67
7055.00,0.67
7054.00,0.67
7053.00,0.67
7052.00,0.67
7051.00,0.66
7050.00,0.66
7049.00,0.66
7048.00,0.66
7047.00,0.66
7046.00,0.66
7045.00,0.66
7044.00,0.65
7043.00,0.65
7042.00,0.65
7041.00,0.65
7040.00,0.65
7039.00,0.65
7038.00,0.65
7037.00,0.65
7036.00,0.65
7035.00,0.65
7034.00,0.65
7033.00,0.65
7032.00,0.65
7031.00,0.65
7030.00,0.65
7029.00,0.65
7028.00,0.65
7027.00,0.65
7026.00,0.65
7025.00,0.65
7024.00,0.65
7023.00,0.65
7022.00,0.65
7021.00,0.65
7020.00,0.65
7019.00,0.64
7018.00,0.64
7017.00,0.64
7016.00,0.64
7015.00,0.64
7014.00,0.64
7013.00,0.64
7012.00,0.64
7011.00,0.64
7010.00,0.63
7009.00,0.63
7008.00,0.63
7007.00,0.63
7006.00,0.63
7005.00,0.63
7004.00,0.63
7003.00,0.63
7002.00,0.63
7001.00,0.63
7000.00,0.63
6999.00,0.63
6998.00,0.63
6997.00,0.63
6996.00,0.63
6995.00,0.63
6994.00,0.63
6993.00,0.63
6992.00,0.63
6991.00,0.63
6990.00,0.63
6989.00,0.63
6988.00,0.63
6987.00,0.63
6986.00,0.63
6985.00,0.63
6984.00,0.63
6983.00,0.63
6982.00,0.63
6981.00,0.63
6980.00,0.63
6979.00,0.63
6978.00,0.63
6977.00,0.63
6976.00,0.63
6975.00,0.62
6974.00,0.62
6973.00,0.62
6972.00,0.62
6971.00,0.62
6970.00,0.62
6969.00,0.62
6968.00,0.62
6967.00,0.62
6966.00,0.62
6965.00,0.62
6964.00,0.62
6963.00,0.62
6962.00,0.62
6961.00,0.62
6960.00,0.62
6959.00,0.62
6958.00,0.62
6957.00,0.62
6956.00,0.62
6955.00,0.62
6954.00,0.62
6953.00,0.62
6952.00,0.62
6951.00,0.62
6950.00,0.62
6949.00,0.62
6948.00,0.62
6947.00,0.62
6946.00,0.62
6945.00,0.62
6944.00,0.62
6943.00,0.62
6942.00,0.62
6941.00,0.62
6940.00,0.62
6939.00,0.62
6938.00,0.62
6937.00,0.62
6936.00,0.62
6935.00,0.62
6934.00,0.62
6933.00,0.62
6932.00,0.62
6931.00,0.62
6930.00,0.62
6929.00,0.62
6928.00,0.62
6927.00,0.62
6926.00,0.62
6925.00,0.62
6924.00,0.62
6923.00,0.62
6922.00,0.62
6921.00,0.62
6920.00,0.62
6919.00,0.62
6918.00,0.62
6917.00,0.62
6916.00,0.62
6915.00,0.62
6914.00,0.62
6913.00,0.62
6912.00,0.62
6911.00,0.62
6910.00,0.62
6909.00,0.62
6908.00,0.62
6907.00,0.62
6906.00,0.61
6905.00,0.61
6904.00,0.61
6903.00,0.61
6902.00,0.61
6901.00,0.61
6900.00,0.61
6899.00,0.61
6898.00,0.61
6897.00,0.61
6896.00,0.61
6895.00,0.61
6894.00,0.62
6893.00,0.62
6892.00,0.62
6891.00,0.62
6890.00,0.62
6889.00,0.62
6888.00,0.62
6887.00,0.62
6886.00,0.62
6885.00,0.62
6884.00,0.62
6883.00,0.62
6882.00,0.62
6881.00,0.62
6880.00,0.62
6879.00,0.62
6878.00,0.62
6877.00,0.62
6876.00,0.62
6875.00,0.62
6874.00,0.62
6873.00,0.62
6872.00,0.62
6871.00,0.62
6870.00,0.62
6869.00,0.62
6868.00,0.62
6867.00,0.62
6866.00,0.62
6865.00,0.62
6864.00,0.62
6863.00,0.62
6862.00,0.62
6861.00,0.62
6860.00,0.62
6859.00,0.62
6858.00,0.62
6857.00,0.62
6856.00,0.62
6855.00,0.62
6854.00,0.62
6853.00,0.62
6852.00,0.62
6851.00,0.62
6850.00,0.62
6849.00,0.62
6848.00,0.62
6847.00,0.62
6846.00,0.62
6845.00,0.62
6844.00,0.62
6843.00,0.62
6842.00,0.62
6841.00,0.62
6840.00,0.62
6839.00,0.62
6838.00,0.62
6837.00,0.62
6836.00,0.62
6835.00,0.62
6834.00,0.62
6833.00,0.62
6832.00,0.62
6831.00,0.62
6830.00,0.62
6829.00,0.62
6828.00,0.62
6827.00,0.62
6826.00,0.62
6825.00,0.62
6824.00,0.62
6823.00,0.62
6822.00,0.62
6821.00,0.62
6820.00,0.62
6819.00,0.62
6818.00,0.62
6817.00,0.62
6816.00,0.62
6815.00,0.62
6814.00,0.62
6813.00,0.62
6812.00,0.62
6811.00,0.63
6810.00,0.63
6809.00,0.63
6808.00,0.63
6807.00,0.63
6806.00,0.63
6805.00,0.63
6804.00,0.63
6803.00,0.63
6802.00,0.63
6801.00,0.63
6800.00,0.63
6799.00,0.63
6798.00,0.63
6797.00,0.63
6796.00,0.63
6795.00,0.63
6794.00,0.63
6793.00,0.63
6792.00,0.63
6791.00,0.63
6790.00,0.63
6789.00,0.63
6788.00,0.63
6787.00,0.63
6786.00,0.63
6785.00,0.63
6784.00,0.63
6783.00,0.63
6782.00,0.63
6781.00,0.63
6780.00,0.63
6779.00,0.63
6778.00,0.64
6777.00,0.64
6776.00,0.64
6775.00,0.64
6774.00,0.64
6773.00,0.64
6772.00,0.64
6771.00,0.64
6770.00,0.64
6769.00,0.65
6768.00,0.65
6767.00,0.65
6766.00,0.65
6765.00,0.65
6764.00,0.65
6763.00,0.65
6762.00,0.65
6761.00,0.65
6760.00,0.66
6759.00,0.66
6758.00,0.66
6757.00,0.66
6756.00,0.66
6755.00,0.66
6754.00,0.66
6753.00,0.66
6752.00,0.66
6751.00,0.66
6750.00,0.66
6749.00,0.66
6748.00,0.66
6747.00,0.66
6746.00,0.66
6745.00,0.66
6744.00,0.66
6743.00,0.66
6742.00,0.66
6741.00,0.66
6740.00,0.66
6739.00,0.65
6738.00,0.65
6737.00,0.65
6736.00,0.65
6735.00,0.65
6734.00,0.65
6733.00,0.65
6732.00,0.65
6731.00,0.65
6730.00,0.65
6729.00,0.65
6728.00,0.65
6727.00,0.65
6726.00,0.66
6725.00,0.66
6724.00,0.66
6723.00,0.66
6722.00,0.66
6721.00,0.66
6720.00,0.66
6719.00,0.66
6718.00,0.66
6717.00,0.66
6716.00,0.67
6715.00,0.67
6714.00,0.67
6713.00,0.67
6712.00,0.67
6711.00,0.67
6710.00,0.67
6709.00,0.67
6708.00,0.67
6707.00,0.68
6706.00,0.68
6705.00,0.68
6704.00,0.68
6703.00,0.68
6702.00,0.68
6701.00,0.68
6700.00,0.68
6699.00,0.68
6698.00,0.68
6697.00,0.69
6696.00,0.69
6695.00,0.69
6694.00,0.69
6693.00,0.69
6692.00,0.69
6691.00,0.69
6690.00,0.69
6689.00,0.69
6688.00,0.69
6687.00,0.69
6686.00,0.69
6685.00,0.69
6684.00,0.69
6683.00,0.69
6682.00,0.69
6681.00,0.69
6680.00,0.69
6679.00,0.69
6678.00,0.69
6677.00,0.69
6676.00,0.69
6675.00,0.70
6674.00,0.70
6673.00,0.70
6672.00,0.70
6671.00,0.70
6670.00,0.70
6669.00,0.70
6668.00,0.70
6667.00,0.70
6666.00,0.70
6665.00,0.70
6664.00,0.70
6663.00,0.70
6662.00,0.70
6661.00,0.70
6660.00,0.70
6659.00,0.70
6658.00,0.70
6657.00,0.71
6656.00,0.71
6655.00,0.71
6654.00,0.71
6653.00,0.71
6652.00,0.71
6651.00,0.71
6650.00,0.71
6649.00,0.71
6648.00,0.71
6647.00,0.71
6646.00,0.71
6645.00,0.71
6644.00,0.71
6643.00,0.71
6642.00,0.71
6641.00,0.71
6640.00,0.71
6639.00,0.71
6638.00,0.72
6637.00,0.72
6636.00,0.72
6635.00,0.72
6634.00,0.72
6633.00,0.72
6632.00,0.72
6631.00,0.72
6630.00,0.72
6629.00,0.72
6628.00,0.72
6627.00,0.73
6626.00,0.73
6625.00,0.73
6624.00,0.73
6623.00,0.73
6622.00,0.73
6621.00,0.73
6620.00,0.73
6619.00,0.73
6618.00,0.73
6617.00,0.73
6616.00,0.73
6615.00,0.74
6614.00,0.74
6613.00,0.74
6612.00,0.74
6611.00,0.74
6610.00,0.74
6609.00,0.74
6608.00,0.74
6607.00,0.74
6606.00,0.74
6605.00,0.74
6604.00,0.75
6603.00,0.75
6602.00,0.75
6601.00,0.75
6600.00,0.75
6599.00,0.75
6598.00,0.75
6597.00,0.75
6596.00,0.75
6595.00,0.75
6594.00,0.75
6593.00,0.76
6592.00,0.76
6591.00,0.76
6590.00,0.76
6589.00,0.76
6588.00,0.76
6587.00,0.76
6586.00,0.76
6585.00,0.76
6584.00,0.76
6583.00,0.76
6582.00,0.77
6581.00,0.77
6580.00,0.77
6579.00,0.77
6578.00,0.77
6577.00,0.77
6576.00,0.77
6575.00,0.77
6574.00,0.78
6573.00,0.78
6572.00,0.78
6571.00,0.78
6570.00,0.78
6569.00,0.78
6568.00,0.78
6567.00,0.78
6566.00,0.78
6565.00,0.78
6564.00,0.79
6563.00,0.79
6562.00,0.79
6561.00,0.79
6560.00,0.79
6559.00,0.79
6558.00,0.79
6557.00,0.79
6556.00,0.79
6555.00,0.79
6554.00,0.79
6553.00,0.79
6552.00,0.79
6551.00,0.79
6550.00,0.79
6549.00,0.79
6548.00,0.79
6547.00,0.79
6546.00,0.79
6545.00,0.79
6544.00,0.79
6543.00,0.79
6542.00,0.79
6541.00,0.79
6540.00,0.79
6539.00,0.79
6538.00,0.79
6537.00,0.79
6536.00,0.79
6535.00,0.79
6534.00,0.80
6533.00,0.80
6532.00,0.80
6531.00,0.80
6530.00,0.80
6529.00,0.80
6528.00,0.80
6527.00,0.80
6526.00,0.81
6525.00,0.81
6524.00,0.81
6523.00,0.81
6522.00,0.81
6521.00,0.81
6520.00,0.81
6519.00,0.81
6518.00,0.81
6517.00,0.82
6516.00,0.82
6515.00,0.82
6514.00,0.82
6513.00,0.82
6512.00,0.82
6511.00,0.82
6510.00,0.82
6509.00,0.82
6508.00,0.82
6507.00,0.82
6506.00,0.82
6505.00,0.82
6504.00,0.82
6503.00,0.82
6502.00,0.82
6501.00,0.82
6500.00,0.82
6499.00,0.82
6498.00,0.82
6497.00,0.82
6496.00,0.82
6495.00,0.83
6494.00,0.83
6493.00,0.83
6492.00,0.83
6491.00,0.83
6490.00,0.83
6489.00,0.83
6488.00,0.83
6487.00,0.83
6486.00,0.83
6485.00,0.83
6484.00,0.83
6483.00,0.83
6482.00,0.83
6481.00,0.83
6480.00,0.83
6479.00,0.83
6478.00,0.83
6477.00,0.83
6476.00,0.83
6475.00,0.84
6474.00,0.84
6473.00,0.84
6472.00,0.84
6471.00,0.84
6470.00,0.84
6469.00,0.84
6468.00,0.84
6467.00,0.84
6466.00,0.84
6465.00,0.84
6464.00,0.84
6463.00,0.84
6462.00,0.84
6461.00,0.84
6460.00,0.84
6459.00,0.84
6458.00,0.84
6457.00,0.84
6456.00,0.85
6455.00,0.85
6454.00,0.85
6453.00,0.85
6452.00,0.85
6451.00,0.85
6450.00,0.85
6449.00,0.85
6448.00,0.85
6447.00,0.85
6446.00,0.85
6445.00,0.85
6444.00,0.85
6443.00,0.85
6442.00,0.85
6441.00,0.85
6440.00,0.85
6439.00,0.85
6438.00,0.85
6437.00,0.85
6436.00,0.85
6435.00,0.85
6434.00,0.86
6433.00,0.86
6432.00,0.86
6431.00,0.86
6430.00,0.86
6429.00,0.86
6428.00,0.86
6427.00,0.86
6426.00,0.86
6425.00,0.86
6424.00,0.86
6423.00,0.86
6422.00,0.86
6421.00,0.86
6420.00,0.86
6419.00,0.87
6418.00,0.87
6417.00,0.87
6416.00,0.87
6415.00,0.87
6414.00,0.87
6413.00,0.87
6412.00,0.87
6411.00,0.87
6410.00,0.87
6409.00,0.87
6408.00,0.87
6407.00,0.87
6406.00,0.87
6405.00,0.87
6404.00,0.87
6403.00,0.87
6402.00,0.87
6401.00,0.87
6400.00,0.87
6399.00,0.87
6398.00,0.87
6397.00,0.87
6396.00,0.88
6395.00,0.88
6394.00,0.88
6393.00,0.88
6392.00,0.88
6391.00,0.88
6390.00,0.88
6389.00,0.88
6388.00,0.88
6387.00,0.88
6386.00,0.88
6385.00,0.88
6384.00,0.89
6383.00,0.89
6382.00,0.89
6381.00,0.89
6380.00,0.89
6379.00,0.89
6378.00,0.89
6377.00,0.89
6376.00,0.89
6375.00,0.89
6374.00,0.89
6373.00,0.89
6372.00,0.89
6371.00,0.90
6370.00,0.90
6369.00,0.90
6368.00,0.90
6367.00,0.90
6366.00,0.90
6365.00,0.90
6364.00,0.90
6363.00,0.90
6362.00,0.90
6361.00,0.91
6360.00,0.91
6359.00,0.91
6358.00,0.91
6357.00,0.91
6356.00,0.91
6355.00,0.91
6354.00,0.91
6353.00,0.91
6352.00,0.91
6351.00,0.91
6350.00,0.91
6349.00,0.91
6348.00,0.91
6347.00,0.91
6346.00,0.91
6345.00,0.91
6344.00,0.91
6343.00,0.91
6342.00,0.91
6341.00,0.91
6340.00,0.92
6339.00,0.92
6338.00,0.92
6337.00,0.92
6336.00,0.92
6335.00,0.92
6334.00,0.92
6333.00,0.92
6332.00,0.92
6331.00,0.92
6330.00,0.92
6329.00,0.92
6328.00,0.92
6327.00,0.92
6326.00,0.92
6325.00,0.92
6324.00,0.92
6323.00,0.92
6322.00,0.93
6321.00,0.93
6320.00,0.93
6319.00,0.93
6318.00,0.93
6317.00,0.93
6316.00,0.93
6315.00,0.93
6314.00,0.93
6313.00,0.93
6312.00,0.93
6311.00,0.93
6310.00,0.94
6309.00,0.94
6308.00,0.94
6307.00,0.94
6306.00,0.94
6305.00,0.94
6304.00,0.94
6303.00,0.94
6302.00,0.94
6301.00,0.95
6300.00,0.95
6299.00,0.95
6298.00,0.95
6297.00,0.95
6296.00,0.95
6295.00,0.95
6294.00,0.95
6293.00,0.95
6292.00,0.95
6291.00,0.96
6290.00,0.96
6289.00,0.96
6288.00,0.96
6287.00,0.96
6286.00,0.96
6285.00,0.96
6284.00,0.96
6283.00,0.96
6282.00,0.97
6281.00,0.97
6280.00,0.97
6279.00,0.97
6278.00,0.97
6277.00,0.97
6276.00,0.97
6275.00,0.97
6274.00,0.97
6273.00,0.97
6272.00,0.97
6271.00,0.98
6270.00,0.98
6269.00,0.98
6268.00,0.98
6267.00,0.98
6266.00,0.98
6265.00,0.98
6264.00,0.98
6263.00,0.98
6262.00,0.98
6261.00,0.99
6260.00,0.99
6259.00,0.99
6258.00,0.99
6257.00,0.99
6256.00,0.99
6255.00,0.99
6254.00,1.00
6253.00,1.00
6252.00,1.00
6251.00,1.00
6250.00,1.00
6249.00,1.00
6248.00,1.01
6247.00,1.01
6246.00,1.01
6245.00,1.01
6244.00,1.01
6243.00,1.01
6242.00,1.01
6241.00,1.01
6240.00,1.02
6239.00,1.02
6238.00,1.02
6237.00,1.02
6236.00,1.02
6235.00,1.02
6234.00,1.02
6233.00,1.02
6232.00,1.02
6231.00,1.02
6230.00,1.02
6229.00,1.03
6228.00,1.03
6227.00,1.03
6226.00,1.03
6225.00,1.03
6224.00,1.03
6223.00,1.03
6222.00,1.03
6221.00,1.03
6220.00,1.03
6219.00,1.03
6218.00,1.04
6217.00,1.04
6216.00,1.04
6215.00,1.04
6214.00,1.04
6213.00,1.04
6212.00,1.04
6211.00,1.04
6210.00,1.05
6209.00,1.05
6208.00,1.05
6207.00,1.05
6206.00,1.05
6205.00,1.05
6204.00,1.05
6203.00,1.05
6202.00,1.06
6201.00,1.06
6200.00,1.06
6199.00,1.06
6198.00,1.06
6197.00,1.06
6196.00,1.06
6195.00,1.06
6194.00,1.07
6193.00,1.07
6192.00,1.07
6191.00,1.07
6190.00,1.07
6189.00,1.07
6188.00,1.07
6187.00,1.07
6186.00,1.07
6185.00,1.07
6184.00,1.08
6183.00,1.08
6182.00,1.08
6181.00,1.08
6180.00,1.08
6179.00,1.08
6178.00,1.08
6177.00,1.08
6176.00,1.08
6175.00,1.08
6174.00,1.09
6173.00,1.09
6172.00,1.09
6171.00,1.09
6170.00,1.09
6169.00,1.09
6168.00,1.09
6167.00,1.09
6166.00,1.09
6165.00,1.10
6164.00,1.10
6163.00,1.10
6162.00,1.10
6161.00,1.10
6160.00,1.10
6159.00,1.10
6158.00,1.10
6157.00,1.10
6156.00,1.11
6155.00,1.11
6154.00,1.11
6153.00,1.11
6152.00,1.11
6151.00,1.11
6150.00,1.11
6149.00,1.12
6148.00,1.12
6147.00,1.12
6146.00,1.12
6145.00,1.12
6144.00,1.12
6143.00,1.13
6142.00,1.13
6141.00,1.13
6140.00,1.13
6139.00,1.13
6138.00,1.13
6137.00,1.14
6136.00,1.14
6135.00,1.14
6134.00,1.14
6133.00,1.14
6132.00,1.14
6131.00,1.14
6130.00,1.14
6129.00,1.15
6128.00,1.15
6127.00,1.15
6126.00,1.15
6125.00,1.15
6124.00,1.15
6123.00,1.15
6122.00,1.16
6121.00,1.16
6120.00,1.16
6119.00,1.16
6118.00,1.16
6117.00,1.16
6116.00,1.17
6115.00,1.17
6114.00,1.17
6113.00,1.17
6112.00,1.17
6111.00,1.17
6110.00,1.17
6109.00,1.17
6108.00,1.18
6107.00,1.18
6106.00,1.18
6105.00,1.18
6104.00,1.18
6103.00,1.18
6102.00,1.18
6101.00,1.18
6100.00,1.18
6099.00,1.18
6098.00,1.18
6097.00,1.19
6096.00,1.19
6095.00,1.19
6094.00,1.19
6093.00,1.19
6092.00,1.19
6091.00,1.19
6090.00,1.19
6089.00,1.19
6088.00,1.19
6087.00,1.20
6086.00,1.20
6085.00,1.20
6084.00,1.20
6083.00,1.20
6082.00,1.20
6081.00,1.20
6080.00,1.21
6079.00,1.21
6078.00,1.21
6077.00,1.21
6076.00,1.21
6075.00,1.21
6074.00,1.21
6073.00,1.22
6072.00,1.22
6071.00,1.22
6070.00,1.22
6069.00,1.22
6068.00,1.22
6067.00,1.22
6066.00,1.22
6065.00,1.22
6064.00,1.23
6063.00,1.23
6062.00,1.23
6061.00,1.23
6060.00,1.23
6059.00,1.23
6058.00,1.23
6057.00,1.23
6056.00,1.23
6055.00,1.23
6054.00,1.24
6053.00,1.24
6052.00,1.24
6051.00,1.24
6050.00,1.24
6049.00,1.24
6048.00,1.24
6047.00,1.24
6046.00,1.24
6045.00,1.24
6044.00,1.24
6043.00,1.25
6042.00,1.25
6041.00,1.25
6040.00,1.25
6039.00,1.25
6038.00,1.25
6037.00,1.25
6036.00,1.25
6035.00,1.25
6034.00,1.25
6033.00,1.25
6032.00,1.25
6031.00,1.25
6030.00,1.25
6029.00,1.25
6028.00,1.26
6027.00,1.26
6026.00,1.26
6025.00,1.26
6024.00,1.26
6023.00,1.26
6022.00,1.26
6021.00,1.26
6020.00,1.26
6019.00,1.26
6018.00,1.26
6017.00,1.26
6016.00,1.26
6015.00,1.26
6014.00,1.26
6013.00,1.25
6012.00,1.25
6011.00,1.25
6010.00,1.25
6009.00,1.25
6008.00,1.25
6007.00,1.25
6006.00,1.25
6005.00,1.25
6004.00,1.25
6003.00,1.25
6002.00,1.25
6001.00,1.25
6000.00,1.25
5999.00,1.25
5998.00,1.25
5997.00,1.25
5996.00,1.25
5995.00,1.25
5994.00,1.24
5993.00,1.24
5992.00,1.24
5991.00,1.24
5990.00,1.24
5989.00,1.24
5988.00,1.24
5987.00,1.23
5986.00,1.23
5985.00,1.23
5984.00,1.23
5983.00,1.22
5982.00,1.22
5981.00,1.22
5980.00,1.22
5979.00,1.21
5978.00,1.21
5977.00,1.20
5976.00,1.20
5975.00,1.20
5974.00,1.19
5973.00,1.19
5972.00,1.18
5971.00,1.18
5970.00,1.17
5969.00,1.17
5968.00,1.16
5967.00,1.15
5966.00,1.15
5965.00,1.14
5964.00,1.14
5963.00,1.13
5962.00,1.12
5961.00,1.12
5960.00,1.11
5959.00,1.10
5958.00,1.10
5957.00,1.09
5956.00,1.09
5955.00,1.08
5954.00,1.07
5953.00,1.07
5952.00,1.06
5951.00,1.06
5950.00,1.05
5949.00,1.05
5948.00,1.05
5947.00,1.04
5946.00,1.04
5945.00,1.04
5944.00,1.03
5943.00,1.03
5942.00,1.03
5941.00,1.03
5940.00,1.03
5939.00,1.03
5938.00,1.03
5937.00,1.03
5936.00,1.02
5935.00,1.02
5934.00,1.02
5933.00,1.02
5932.00,1.02
5931.00,1.02
5930.00,1.02
5929.00,1.02
5928.00,1.02
5927.00,1.02
5926.00,1.02
5925.00,1.02
5924.00,1.02
5923.00,1.01
5922.00,1.01
5921.00,1.01
5920.00,1.01
5919.00,1.01
5918.00,1.00
5917.00,1.00
5916.00,1.00
5915.00,1.00
5914.00,1.00
5913.00,0.99
5912.00,0.99
5911.00,0.99
5910.00,0.99
5909.00,0.98
5908.00,0.98
5907.00,0.98
5906.00,0.98
5905.00,0.98
5904.00,0.98
5903.00,0.97
5902.00,0.97
5901.00,0.97
5900.00,0.97
5899.00,0.97
5898.00,0.97
5897.00,0.98
5896.00,0.98
5895.00,0.98
5894.00,0.98
5893.00,0.98
5892.00,0.98
5891.00,0.99
5890.00,0.99
5889.00,0.99
5888.00,0.99
5887.00,1.00
5886.00,1.00
5885.00,1.00
5884.00,1.00
5883.00,1.01
5882.00,1.01
5881.00,1.01
5880.00,1.01
5879.00,1.02
5878.00,1.02
5877.00,1.02
5876.00,1.02
5875.00,1.03
5874.00,1.03
5873.00,1.03
5872.00,1.03
5871.00,1.03
5870.00,1.04
5869.00,1.04
5868.00,1.04
5867.00,1.04
5866.00,1.04
5865.00,1.04
5864.00,1.04
5863.00,1.05
5862.00,1.05
5861.00,1.05
5860.00,1.05
5859.00,1.05
5858.00,1.05
5857.00,1.05
5856.00,1.06
5855.00,1.06
5854.00,1.06
5853.00,1.06
5852.00,1.06
5851.00,1.06
5850.00,1.06
5849.00,1.06
5848.00,1.07
5847.00,1.07
5846.00,1.07
5845.00,1.07
5844.00,1.07
5843.00,1.07
5842.00,1.07
5841.00,1.07
5840.00,1.07
5839.00,1.07
5838.00,1.07
5837.00,1.07
5836.00,1.07
5835.00,1.07
5834.00,1.07
5833.00,1.07
5832.00,1.06
5831.00,1.06
5830.00,1.06
5829.00,1.06
5828.00,1.06
5827.00,1.06
5826.00,1.06
5825.00,1.06
5824.00,1.06
5823.00,1.06
5822.00,1.06
5821.00,1.06
5820.00,1.06
5819.00,1.06
5818.00,1.06
5817.00,1.06
5816.00,1.06
5815.00,1.06
5814.00,1.06
5813.00,1.06
5812.00,1.06
5811.00,1.06
5810.00,1.06
5809.00,1.06
5808.00,1.06
5807.00,1.06
5806.00,1.06
5805.00,1.06
5804.00,1.06
5803.00,1.06
5802.00,1.06
5801.00,1.06
5800.00,1.06
5799.00,1.06
5798.00,1.06
5797.00,1.05
5796.00,1.05
5795.00,1.05
5794.00,1.05
5793.00,1.05
5792.00,1.05
5791.00,1.04
5790.00,1.04
5789.00,1.04
5788.00,1.04
5787.00,1.04
5786.00,1.03
5785.00,1.03
5784.00,1.03
5783.00,1.03
5782.00,1.03
5781.00,1.03
5780.00,1.03
5779.00,1.02
5778.00,1.02
5777.00,1.02
5776.00,1.02
5775.00,1.02
5774.00,1.02
5773.00,1.02
5772.00,1.02
5771.00,1.02
5770.00,1.02
5769.00,1.02
5768.00,1.02
5767.00,1.03
5766.00,1.03
5765.00,1.03
5764.00,1.03
5763.00,1.03
5762.00,1.03
5761.00,1.04
5760.00,1.04
5759.00,1.04
5758.00,1.04
5757.00,1.05
5756.00,1.05
5755.00,1.05
5754.00,1.06
5753.00,1.06
5752.00,1.06
5751.00,1.06
5750.00,1.07
5749.00,1.07
5748.00,1.07
5747.00,1.08
5746.00,1.08
5745.00,1.08
5744.00,1.08
5743.00,1.09
5742.00,1.09
5741.00,1.09
5740.00,1.09
5739.00,1.09
5738.00,1.10
5737.00,1.10
5736.00,1.10
5735.00,1.10
5734.00,1.10
5733.00,1.10
5732.00,1.10
5731.00,1.11
5730.00,1.11
5729.00,1.11
5728.00,1.11
5727.00,1.11
5726.00,1.11
5725.00,1.11
5724.00,1.11
5723.00,1.11
5722.00,1.11
5721.00,1.11
5720.00,1.11
5719.00,1.12
5718.00,1.12
5717.00,1.12
5716.00,1.12
5715.00,1.12
5714.00,1.12
5713.00,1.12
5712.00,1.12
5711.00,1.12
5710.00,1.12
5709.00,1.12
5708.00,1.12
5707.00,1.12
5706.00,1.12
5705.00,1.12
5704.00,1.11
5703.00,1.11
5702.00,1.11
5701.00,1.11
5700.00,1.11
5699.00,1.11
5698.00,1.11
5697.00,1.11
5696.00,1.11
5695.00,1.11
5694.00,1.10
5693.00,1.10
5692.00,1.10
5691.00,1.10
5690.00,1.10
5689.00,1.10
5688.00,1.09
5687.00,1.09
5686.00,1.09
5685.00,1.09
5684.00,1.09
5683.00,1.09
5682.00,1.09
5681.00,1.09
5680.00,1.09
5679.00,1.09
5678.00,1.09
5677.00,1.08
5676.00,1.08
5675.00,1.08
5674.00,1.08
5673.00,1.08
5672.00,1.09
5671.00,1.09
5670.00,1.09
5669.00,1.09
5668.00,1.09
5667.00,1.09
5666.00,1.09
5665.00,1.09
5664.00,1.09
5663.00,1.09
5662.00,1.09
5661.00,1.09
5660.00,1.09
5659.00,1.10
5658.00,1.10
5657.00,1.10
5656.00,1.10
5655.00,1.10
5654.00,1.10
5653.00,1.10
5652.00,1.10
5651.00,1.11
5650.00,1.11
5649.00,1.11
5648.00,1.11
5647.00,1.11
5646.00,1.11
5645.00,1.12
5644.00,1.12
5643.00,1.12
5642.00,1.12
5641.00,1.12
5640.00,1.12
5639.00,1.13
5638.00,1.13
5637.00,1.13
5636.00,1.13
5635.00,1.13
5634.00,1.13
5633.00,1.14
5632.00,1.14
5631.00,1.14
5630.00,1.14
5629.00,1.14
5628.00,1.14
5627.00,1.14
5626.00,1.15
5625.00,1.15
5624.00,1.15
5623.00,1.15
5622.00,1.15
5621.00,1.15
5620.00,1.15
5619.00,1.15
5618.00,1.16
5617.00,1.16
5616.00,1.16
5615.00,1.16
5614.00,1.16
5613.00,1.16
5612.00,1.16
5611.00,1.16
5610.00,1.17
5609.00,1.17
5608.00,1.17
5607.00,1.17
5606.00,1.17
5605.00,1.18
5604.00,1.18
5603.00,1.18
5602.00,1.18
5601.00,1.18
5600.00,1.18
5599.00,1.18
5598.00,1.19
5597.00,1.19
5596.00,1.19
5595.00,1.19
5594.00,1.19
5593.00,1.19
5592.00,1.19
5591.00,1.20
5590.00,1.20
5589.00,1.20
5588.00,1.20
5587.00,1.20
5586.00,1.20
5585.00,1.20
5584.00,1.20
5583.00,1.21
5582.00,1.21
5581.00,1.21
5580.00,1.21
5579.00,1.21
5578.00,1.21
5577.00,1.21
5576.00,1.22
5575.00,1.22
5574.00,1.22
5573.00,1.22
5572.00,1.22
5571.00,1.22
5570.00,1.22
5569.00,1.22
5568.00,1.23
5567.00,1.23
5566.00,1.23
5565.00,1.23
5564.00,1.23
5563.00,1.23
5562.00,1.23
5561.00,1.23
5560.00,1.23
5559.00,1.23
5558.00,1.23
5557.00,1.23
5556.00,1.23
5555.00,1.24
5554.00,1.24
5553.00,1.24
5552.00,1.24
5551.00,1.24
5550.00,1.24
5549.00,1.24
5548.00,1.24
5547.00,1.24
5546.00,1.25
5545.00,1.25
5544.00,1.25
5543.00,1.25
5542.00,1.25
5541.00,1.25
5540.00,1.25
5539.00,1.26
5538.00,1.26
5537.00,1.26
5536.00,1.26
5535.00,1.26
5534.00,1.26
5533.00,1.26
5532.00,1.26
5531.00,1.26
5530.00,1.26
5529.00,1.27
5528.00,1.27
5527.00,1.27
5526.00,1.27
5525.00,1.27
5524.00,1.27
5523.00,1.27
5522.00,1.27
5521.00,1.27
5520.00,1.28
5519.00,1.28
5518.00,1.28
5517.00,1.28
5516.00,1.28
5515.00,1.28
5514.00,1.28
5513.00,1.28
5512.00,1.28
5511.00,1.28
5510.00,1.28
5509.00,1.28
5508.00,1.28
5507.00,1.28
5506.00,1.28
5505.00,1.29
5504.00,1.29
5503.00,1.29
5502.00,1.29
5501.00,1.29
5500.00,1.29
5499.00,1.29
5498.00,1.29
5497.00,1.29
5496.00,1.29
5495.00,1.29
5494.00,1.29
5493.00,1.29
5492.00,1.29
5491.00,1.29
5490.00,1.29
5489.00,1.29
5488.00,1.30
5487.00,1.30
5486.00,1.30
5485.00,1.30
5484.00,1.30
5483.00,1.30
5482.00,1.30
5481.00,1.30
5480.00,1.31
5479.00,1.31
5478.00,1.31
5477.00,1.31
5476.00,1.31
5475.00,1.31
5474.00,1.31
5473.00,1.31
5472.00,1.31
5471.00,1.32
5470.00,1.32
5469.00,1.32
5468.00,1.32
5467.00,1.32
5466.00,1.32
5465.00,1.32
5464.00,1.32
5463.00,1.32
5462.00,1.32
5461.00,1.33
5460.00,1.33
5459.00,1.33
5458.00,1.33
5457.00,1.33
5456.00,1.33
5455.00,1.33
5454.00,1.33
5453.00,1.33
5452.00,1.33
5451.00,1.33
5450.00,1.33
5449.00,1.33
5448.00,1.33
5447.00,1.33
5446.00,1.33
5445.00,1.33
5444.00,1.33
5443.00,1.33
5442.00,1.33
5441.00,1.33
5440.00,1.33
5439.00,1.33
5438.00,1.33
5437.00,1.33
5436.00,1.33
5435.00,1.33
5434.00,1.33
5433.00,1.33
5432.00,1.33
5431.00,1.33
5430.00,1.33
5429.00,1.33
5428.00,1.33
5427.00,1.33
5426.00,1.33
5425.00,1.33
5424.00,1.33
5423.00,1.33
5422.00,1.33
5421.00,1.33
5420.00,1.33
5419.00,1.33
5418.00,1.33
5417.00,1.33
5416.00,1.33
5415.00,1.33
5414.00,1.33
5413.00,1.33
5412.00,1.33
5411.00,1.33
5410.00,1.33
5409.00,1.33
5408.00,1.33
5407.00,1.33
5406.00,1.33
5405.00,1.33
5404.00,1.33
5403.00,1.33
5402.00,1.33
5401.00,1.33
5400.00,1.33
5399.00,1.33
5398.00,1.33
5397.00,1.33
5396.00,1.32
5395.00,1.32
5394.00,1.32
5393.00,1.32
5392.00,1.32
5391.00,1.32
5390.00,1.31
5389.00,1.31
5388.00,1.31
5387.00,1.31
5386.00,1.30
5385.00,1.30
5384.00,1.30
5383.00,1.30
5382.00,1.29
5381.00,1.29
5380.00,1.29
5379.00,1.28
5378.00,1.28
5377.00,1.28
5376.00,1.27
5375.00,1.27
5374.00,1.26
5373.00,1.26
5372.00,1.26
5371.00,1.25
5370.00,1.25
5369.00,1.24
5368.00,1.24
5367.00,1.24
5366.00,1.23
5365.00,1.23
5364.00,1.22
5363.00,1.22
5362.00,1.21
5361.00,1.21
5360.00,1.20
5359.00,1.20
5358.00,1.19
5357.00,1.18
5356.00,1.18
5355.00,1.17
5354.00,1.16
5353.00,1.16
5352.00,1.15
5351.00,1.14
5350.00,1.13
5349.00,1.13
5348.00,1.12
5347.00,1.11
5346.00,1.10
5345.00,1.09
5344.00,1.08
5343.00,1.07
5342.00,1.07
5341.00,1.06
5340.00,1.05
5339.00,1.04
5338.00,1.03
5337.00,1.02
5336.00,1.02
5335.00,1.01
5334.00,1.00
5333.00,0.99
5332.00,0.99
5331.00,0.98
5330.00,0.97
5329.00,0.96
5328.00,0.96
5327.00,0.95
5326.00,0.94
5325.00,0.94
5324.00,0.93
5323.00,0.92
5322.00,0.92
5321.00,0.91
5320.00,0.91
5319.00,0.90
5318.00,0.89
5317.00,0.89
5316.00,0.88
5315.00,0.88
5314.00,0.87
5313.00,0.86
5312.00,0.86
5311.00,0.85
5310.00,0.85
5309.00,0.84
5308.00,0.84
5307.00,0.83
5306.00,0.83
5305.00,0.83
5304.00,0.82
5303.00,0.82
5302.00,0.82
5301.00,0.81
5300.00,0.81
5299.00,0.81
5298.00,0.80
5297.00,0.80
5296.00,0.80
5295.00,0.80
5294.00,0.80
5293.00,0.80
5292.00,0.79
5291.00,0.79
5290.00,0.79
5289.00,0.79
5288.00,0.79
5287.00,0.79
5286.00,0.79
5285.00,0.79
5284.00,0.79
5283.00,0.79
5282.00,0.79
5281.00,0.79
5280.00,0.79
5279.00,0.79
5278.00,0.79
5277.00,0.79
5276.00,0.79
5275.00,0.79
5274.00,0.79
5273.00,0.79
5272.00,0.79
5271.00,0.79
5270.00,0.79
5269.00,0.79
5268.00,0.79
5267.00,0.79
5266.00,0.78
5265.00,0.78
5264.00,0.78
5263.00,0.78
5262.00,0.78
5261.00,0.78
5260.00,0.78
5259.00,0.78
5258.00,0.78
5257.00,0.78
5256.00,0.78
5255.00,0.78
5254.00,0.78
5253.00,0.78
5252.00,0.78
5251.00,0.78
5250.00,0.78
5249.00,0.78
5248.00,0.78
5247.00,0.78
5246.00,0.78
5245.00,0.78
5244.00,0.79
5243.00,0.79
5242.00,0.79
5241.00,0.79
5240.00,0.79
5239.00,0.79
5238.00,0.79
5237.00,0.79
5236.00,0.79
5235.00,0.79
5234.00,0.79
5233.00,0.79
5232.00,0.79
5231.00,0.79
5230.00,0.79
5229.00,0.79
5228.00,0.79
5227.00,0.79
5226.00,0.79
5225.00,0.79
5224.00,0.79
5223.00,0.79
5222.00,0.79
5221.00,0.79
5220.00,0.79
5219.00,0.79
5218.00,0.79
5217.00,0.79
5216.00,0.80
5215.00,0.80
5214.00,0.80
5213.00,0.80
5212.00,0.80
5211.00,0.80
5210.00,0.80
5209.00,0.80
5208.00,0.80
5207.00,0.80
5206.00,0.80
5205.00,0.80
5204.00,0.80
5203.00,0.80
5202.00,0.80
5201.00,0.80
5200.00,0.80
5199.00,0.80
5198.00,0.80
5197.00,0.80
5196.00,0.80
5195.00,0.80
5194.00,0.80
5193.00,0.80
5192.00,0.80
5191.00,0.80
5190.00,0.81
5189.00,0.81
5188.00,0.81
5187.00,0.81
5186.00,0.81
5185.00,0.81
5184.00,0.81
5183.00,0.81
5182.00,0.81
5181.00,0.81
5180.00,0.81
5179.00,0.81
5178.00,0.81
5177.00,0.81
5176.00,0.81
5175.00,0.81
5174.00,0.81
5173.00,0.81
5172.00,0.81
5171.00,0.81
5170.00,0.81
5169.00,0.81
5168.00,0.81
5167.00,0.81
5166.00,0.81
5165.00,0.81
5164.00,0.81
5163.00,0.81
5162.00,0.81
5161.00,0.81
5160.00,0.81
5159.00,0.81
5158.00,0.81
5157.00,0.81
5156.00,0.81
5155.00,0.81
5154.00,0.81
5153.00,0.82
5152.00,0.82
5151.00,0.82
5150.00,0.82
5149.00,0.82
5148.00,0.82
5147.00,0.82
5146.00,0.82
5145.00,0.82
5144.00,0.82
5143.00,0.82
5142.00,0.82
5141.00,0.82
5140.00,0.82
5139.00,0.82
5138.00,0.82
5137.00,0.82
5136.00,0.82
5135.00,0.83
5134.00,0.83
5133.00,0.83
5132.00,0.83
5131.00,0.83
5130.00,0.83
5129.00,0.83
5128.00,0.83
5127.00,0.83
5126.00,0.83
5125.00,0.83
5124.00,0.83
5123.00,0.83
5122.00,0.83
5121.00,0.83
5120.00,0.83
5119.00,0.83
5118.00,0.83
5117.00,0.83
5116.00,0.83
5115.00,0.83
5114.00,0.83
5113.00,0.83
5112.00,0.83
5111.00,0.83
5110.00,0.83
5109.00,0.83
5108.00,0.83
5107.00,0.84
5106.00,0.84
5105.00,0.84
5104.00,0.84
5103.00,0.84
5102.00,0.84
5101.00,0.84
5100.00,0.84
5099.00,0.84
5098.00,0.84
5097.00,0.84
5096.00,0.84
5095.00,0.84
5094.00,0.84
5093.00,0.84
5092.00,0.84
5091.00,0.84
5090.00,0.85
5089.00,0.85
5088.00,0.85
5087.00,0.85
5086.00,0.85
5085.00,0.85
5084.00,0.85
5083.00,0.85
5082.00,0.85
5081.00,0.85
5080.00,0.85
5079.00,0.85
5078.00,0.85
5077.00,0.85
5076.00,0.85
5075.00,0.85
5074.00,0.85
5073.00,0.85
5072.00,0.85
5071.00,0.85
5070.00,0.85
5069.00,0.85
5068.00,0.85
5067.00,0.85
5066.00,0.85
5065.00,0.85
5064.00,0.85
5063.00,0.85
5062.00,0.85
5061.00,0.85
5060.00,0.85
5059.00,0.85
5058.00,0.85
5057.00,0.85
5056.00,0.86
5055.00,0.86
5054.00,0.86
5053.00,0.86
5052.00,0.86
5051.00,0.86
5050.00,0.86
5049.00,0.86
5048.00,0.86
5047.00,0.86
5046.00,0.86
5045.00,0.86
5044.00,0.86
5043.00,0.86
5042.00,0.86
5041.00,0.86
5040.00,0.86
5039.00,0.86
5038.00,0.86
5037.00,0.86
5036.00,0.87
5035.00,0.87
5034.00,0.87
5033.00,0.87
5032.00,0.87
5031.00,0.87
5030.00,0.87
5029.00,0.87
5028.00,0.87
5027.00,0.87
5026.00,0.87
5025.00,0.87
5024.00,0.88
5023.00,0.88
5022.00,0.88
5021.00,0.88
5020.00,0.88
5019.00,0.88
5018.00,0.88
5017.00,0.88
5016.00,0.88
5015.00,0.88
5014.00,0.88
5013.00,0.88
5012.00,0.88
5011.00,0.88
5010.00,0.88
5009.00,0.89
5008.00,0.89
5007.00,0.89
5006.00,0.89
5005.00,0.89
5004.00,0.89
5003.00,0.89
5002.00,0.89
5001.00,0.89
5000.00,0.89
4999.00,0.89
4998.00,0.89
4997.00,0.89
4996.00,0.89
4995.00,0.89
4994.00,0.89
4993.00,0.89
4992.00,0.89
4991.00,0.89
4990.00,0.89
4989.00,0.89
4988.00,0.89
4987.00,0.89
4986.00,0.89
4985.00,0.89
4984.00,0.89
4983.00,0.89
4982.00,0.89
4981.00,0.89
4980.00,0.90
4979.00,0.90
4978.00,0.90
4977.00,0.90
4976.00,0.90
4975.00,0.90
4974.00,0.90
4973.00,0.90
4972.00,0.90
4971.00,0.90
4970.00,0.90
4969.00,0.90
4968.00,0.90
4967.00,0.91
4966.00,0.91
4965.00,0.91
4964.00,0.91
4963.00,0.91
4962.00,0.91
4961.00,0.91
4960.00,0.91
4959.00,0.91
4958.00,0.91
4957.00,0.91
4956.00,0.91
4955.00,0.91
4954.00,0.91
4953.00,0.92
4952.00,0.92
4951.00,0.92
4950.00,0.92
4949.00,0.92
4948.00,0.92
4947.00,0.92
4946.00,0.92
4945.00,0.92
4944.00,0.92
4943.00,0.92
4942.00,0.92
4941.00,0.92
4940.00,0.92
4939.00,0.92
4938.00,0.92
4937.00,0.93
4936.00,0.93
4935.00,0.93
4934.00,0.93
4933.00,0.93
4932.00,0.93
4931.00,0.93
4930.00,0.93
4929.00,0.93
4928.00,0.93
4927.00,0.93
4926.00,0.93
4925.00,0.93
4924.00,0.93
4923.00,0.93
4922.00,0.93
4921.00,0.93
4920.00,0.93
4919.00,0.93
4918.00,0.93
4917.00,0.93
4916.00,0.94
4915.00,0.94
4914.00,0.94
4913.00,0.94
4912.00,0.94
4911.00,0.94
4910.00,0.94
4909.00,0.94
4908.00,0.94
4907.00,0.94
4906.00,0.94
4905.00,0.94
4904.00,0.94
4903.00,0.94
4902.00,0.94
4901.00,0.94
4900.00,0.94
4899.00,0.94
4898.00,0.94
4897.00,0.94
4896.00,0.94
4895.00,0.94
4894.00,0.94
4893.00,0.94
4892.00,0.94
4891.00,0.94
4890.00,0.94
4889.00,0.95
4888.00,0.95
4887.00,0.95
4886.00,0.95
4885.00,0.95
4884.00,0.95
4883.00,0.95
4882.00,0.95
4881.00,0.95
4880.00,0.95
4879.00,0.95
4878.00,0.95
4877.00,0.95
4876.00,0.95
4875.00,0.95
4874.00,0.95
4873.00,0.96
4872.00,0.96
4871.00,0.96
4870.00,0.96
4869.00,0.96
4868.00,0.96
4867.00,0.96
4866.00,0.96
4865.00,0.95
4864.00,0.95
4863.00,0.95
4862.00,0.95
4861.00,0.96
4860.00,0.96
4859.00,0.96
4858.00,0.96
4857.00,0.96
4856.00,0.96
4855.00,0.96
4854.00,0.96
4853.00,0.96
4852.00,0.96
4851.00,0.96
4850.00,0.96
4849.00,0.96
4848.00,0.96
4847.00,0.96
4846.00,0.97
4845.00,0.97
4844.00,0.97
4843.00,0.97
4842.00,0.97
4841.00,0.97
4840.00,0.97
4839.00,0.97
4838.00,0.98
4837.00,0.98
4836.00,0.98
4835.00,0.98
4834.00,0.98
4833.00,0.98
4832.00,0.98
4831.00,0.98
4830.00,0.98
4829.00,0.98
4828.00,0.98
4827.00,0.98
4826.00,0.98
4825.00,0.98
4824.00,0.98
4823.00,0.98
4822.00,0.98
4821.00,0.98
4820.00,0.98
4819.00,0.99
4818.00,0.99
4817.00,0.99
4816.00,0.99
4815.00,0.99
4814.00,0.99
4813.00,0.99
4812.00,0.99
4811.00,0.99
4810.00,0.99
4809.00,0.99
4808.00,0.99
4807.00,0.99
4806.00,0.99
4805.00,0.99
4804.00,0.99
4803.00,0.99
4802.00,0.99
4801.00,0.99
4800.00,0.99
4799.00,0.99
4798.00,0.99
4797.00,1.00
4796.00,1.00
4795.00,1.00
4794.00,1.00
4793.00,1.00
4792.00,1.00
4791.00,1.00
4790.00,1.00
4789.00,1.00
4788.00,1.00
4787.00,1.00
4786.00,1.00
4785.00,1.00
4784.00,1.00
4783.00,1.00
4782.00,1.01
4781.00,1.01
4780.00,1.01
4779.00,1.01
4778.00,1.01
4777.00,1.01
4776.00,1.01
4775.00,1.01
4774.00,1.01
4773.00,1.02
4772.00,1.02
4771.00,1.02
4770.00,1.02
4769.00,1.02
4768.00,1.02
4767.00,1.02
4766.00,1.02
4765.00,1.03
4764.00,1.03
4763.00,1.03
4762.00,1.03
4761.00,1.03
4760.00,1.03
4759.00,1.03
4758.00,1.03
4757.00,1.03
4756.00,1.03
4755.00,1.03
4754.00,1.03
4753.00,1.03
4752.00,1.03
4751.00,1.03
4750.00,1.04
4749.00,1.04
4748.00,1.04
4747.00,1.04
4746.00,1.04
4745.00,1.04
4744.00,1.04
4743.00,1.04
4742.00,1.04
4741.00,1.04
4740.00,1.05
4739.00,1.05
4738.00,1.05
4737.00,1.05
4736.00,1.05
4735.00,1.05
4734.00,1.05
4733.00,1.05
4732.00,1.05
4731.00,1.05
4730.00,1.06
4729.00,1.06
4728.00,1.06
4727.00,1.06
4726.00,1.06
4725.00,1.06
4724.00,1.06
4723.00,1.06
4722.00,1.06
4721.00,1.06
4720.00,1.06
4719.00,1.07
4718.00,1.07
4717.00,1.07
4716.00,1.07
4715.00,1.07
4714.00,1.07
4713.00,1.07
4712.00,1.07
4711.00,1.07
4710.00,1.07
4709.00,1.07
4708.00,1.07
4707.00,1.08
4706.00,1.08
4705.00,1.08
4704.00,1.08
4703.00,1.08
4702.00,1.08
4701.00,1.08
4700.00,1.08
4699.00,1.08
4698.00,1.08
4697.00,1.09
4696.00,1.09
4695.00,1.09
4694.00,1.09
4693.00,1.09
4692.00,1.09
4691.00,1.09
4690.00,1.09
4689.00,1.09
4688.00,1.10
4687.00,1.10
4686.00,1.10
4685.00,1.10
4684.00,1.10
4683.00,1.10
4682.00,1.11
4681.00,1.11
4680.00,1.11
4679.00,1.11
4678.00,1.11
4677.00,1.11
4676.00,1.11
4675.00,1.11
4674.00,1.12
4673.00,1.12
4672.00,1.12
4671.00,1.12
4670.00,1.12
4669.00,1.12
4668.00,1.12
4667.00,1.12
4666.00,1.12
4665.00,1.12
4664.00,1.12
4663.00,1.12
4662.00,1.12
4661.00,1.13
4660.00,1.13
4659.00,1.13
4658.00,1.13
4657.00,1.13
4656.00,1.13
4655.00,1.13
4654.00,1.13
4653.00,1.13
4652.00,1.13
4651.00,1.14
4650.00,1.14
4649.00,1.14
4648.00,1.14
4647.00,1.14
4646.00,1.14
4645.00,1.14
4644.00,1.14
4643.00,1.14
4642.00,1.14
4641.00,1.14
4640.00,1.14
4639.00,1.14
4638.00,1.14
4637.00,1.14
4636.00,1.15
4635.00,1.15
4634.00,1.15
4633.00,1.15
4632.00,1.15
4631.00,1.15
4630.00,1.15
4629.00,1.15
4628.00,1.15
4627.00,1.15
4626.00,1.15
4625.00,1.15
4624.00,1.16
4623.00,1.16
4622.00,1.16
4621.00,1.16
4620.00,1.16
4619.00,1.16
4618.00,1.16
4617.00,1.16
4616.00,1.16
4615.00,1.16
4614.00,1.16
4613.00,1.16
4612.00,1.16
4611.00,1.16
4610.00,1.16
4609.00,1.16
4608.00,1.17
4607.00,1.17
4606.00,1.17
4605.00,1.17
4604.00,1.17
4603.00,1.17
4602.00,1.17
4601.00,1.17
4600.00,1.17
4599.00,1.17
4598.00,1.17
4597.00,1.17
4596.00,1.17
4595.00,1.17
4594.00,1.17
4593.00,1.17
4592.00,1.17
4591.00,1.17
4590.00,1.17
4589.00,1.17
4588.00,1.17
4587.00,1.17
4586.00,1.17
4585.00,1.17
4584.00,1.17
4583.00,1.17
4582.00,1.17
4581.00,1.18
4580.00,1.18
4579.00,1.18
4578.00,1.18
4577.00,1.18
4576.00,1.18
4575.00,1.18
4574.00,1.18
4573.00,1.18
4572.00,1.19
4571.00,1.19
4570.00,1.19
4569.00,1.19
4568.00,1.19
4567.00,1.19
4566.00,1.19
4565.00,1.19
4564.00,1.19
4563.00,1.19
4562.00,1.19
4561.00,1.19
4560.00,1.19
4559.00,1.19
4558.00,1.19
4557.00,1.19
4556.00,1.19
4555.00,1.19
4554.00,1.19
4553.00,1.19
4552.00,1.19
4551.00,1.20
4550.00,1.20
4549.00,1.20
4548.00,1.20
4547.00,1.20
4546.00,1.20
4545.00,1.20
4544.00,1.20
4543.00,1.20
4542.00,1.20
4541.00,1.20
4540.00,1.20
4539.00,1.20
4538.00,1.20
4537.00,1.20
4536.00,1.20
4535.00,1.20
4534.00,1.20
4533.00,1.20
4532.00,1.20
4531.00,1.20
4530.00,1.20
4529.00,1.20
4528.00,1.20
4527.00,1.20
4526.00,1.20
4525.00,1.21
4524.00,1.21
4523.00,1.21
4522.00,1.21
4521.00,1.21
4520.00,1.21
4519.00,1.21
4518.00,1.21
4517.00,1.21
4516.00,1.21
4515.00,1.21
4514.00,1.21
4513.00,1.21
4512.00,1.21
4511.00,1.21
4510.00,1.21
4509.00,1.21
4508.00,1.21
4507.00,1.21
4506.00,1.21
4505.00,1.21
4504.00,1.21
4503.00,1.21
4502.00,1.21
4501.00,1.21
4500.00,1.21
4499.00,1.21
4498.00,1.21
4497.00,1.21
4496.00,1.21
4495.00,1.21
4494.00,1.21
4493.00,1.21
4492.00,1.21
4491.00,1.21
4490.00,1.21
4489.00,1.21
4488.00,1.21
4487.00,1.20
4486.00,1.20
4485.00,1.20
4484.00,1.20
4483.00,1.20
4482.00,1.20
4481.00,1.20
4480.00,1.20
4479.00,1.20
4478.00,1.20
4477.00,1.20
4476.00,1.19
4475.00,1.19
4474.00,1.19
4473.00,1.19
4472.00,1.19
4471.00,1.19
4470.00,1.18
4469.00,1.18
4468.00,1.18
4467.00,1.18
4466.00,1.18
4465.00,1.18
4464.00,1.17
4463.00,1.17
4462.00,1.17
4461.00,1.17
4460.00,1.17
4459.00,1.17
4458.00,1.16
4457.00,1.16
4456.00,1.16
4455.00,1.16
4454.00,1.16
4453.00,1.16
4452.00,1.16
4451.00,1.15
4450.00,1.15
4449.00,1.15
4448.00,1.15
4447.00,1.15
4446.00,1.15
4445.00,1.15
4444.00,1.14
4443.00,1.14
4442.00,1.14
4441.00,1.14
4440.00,1.14
4439.00,1.14
4438.00,1.14
4437.00,1.13
4436.00,1.13
4435.00,1.13
4434.00,1.13
4433.00,1.13
4432.00,1.13
4431.00,1.13
4430.00,1.12
4429.00,1.12
4428.00,1.12
4427.00,1.12
4426.00,1.12
4425.00,1.12
4424.00,1.12
4423.00,1.12
4422.00,1.12
4421.00,1.12
4420.00,1.12
4419.00,1.12
4418.00,1.12
4417.00,1.12
4416.00,1.12
4415.00,1.12
4414.00,1.12
4413.00,1.12
4412.00,1.12
4411.00,1.12
4410.00,1.12
4409.00,1.12
4408.00,1.12
4407.00,1.12
4406.00,1.12
4405.00,1.12
4404.00,1.12
4403.00,1.13
4402.00,1.13
4401.00,1.13
4400.00,1.13
4399.00,1.13
4398.00,1.13
4397.00,1.13
4396.00,1.13
4395.00,1.13
4394.00,1.13
4393.00,1.13
4392.00,1.14
4391.00,1.14
4390.00,1.14
4389.00,1.14
4388.00,1.14
4387.00,1.14
4386.00,1.14
4385.00,1.14
4384.00,1.14
4383.00,1.15
4382.00,1.15
4381.00,1.15
4380.00,1.15
4379.00,1.15
4378.00,1.15
4377.00,1.15
4376.00,1.15
4375.00,1.15
4374.00,1.15
4373.00,1.15
4372.00,1.15
4371.00,1.15
4370.00,1.15
4369.00,1.15
4368.00,1.15
4367.00,1.15
4366.00,1.15
4365.00,1.15
4364.00,1.15
4363.00,1.15
4362.00,1.15
4361.00,1.15
4360.00,1.15
4359.00,1.15
4358.00,1.15
4357.00,1.15
4356.00,1.15
4355.00,1.15
4354.00,1.15
4353.00,1.15
4352.00,1.15
4351.00,1.15
4350.00,1.15
4349.00,1.15
4348.00,1.15
4347.00,1.15
4346.00,1.15
4345.00,1.15
4344.00,1.15
4343.00,1.15
4342.00,1.16
4341.00,1.16
4340.00,1.16
4339.00,1.16
4338.00,1.16
4337.00,1.16
4336.00,1.16
4335.00,1.16
4334.00,1.16
4333.00,1.16
4332.00,1.17
4331.00,1.17
4330.00,1.17
4329.00,1.17
4328.00,1.17
4327.00,1.17
4326.00,1.17
4325.00,1.17
4324.00,1.17
4323.00,1.17
4322.00,1.17
4321.00,1.17
4320.00,1.17
4319.00,1.17
4318.00,1.17
4317.00,1.17
4316.00,1.18
4315.00,1.18
4314.00,1.18
4313.00,1.18
4312.00,1.18
4311.00,1.18
4310.00,1.18
4309.00,1.18
4308.00,1.18
4307.00,1.19
4306.00,1.19
4305.00,1.19
4304.00,1.19
4303.00,1.19
4302.00,1.19
4301.00,1.19
4300.00,1.20
4299.00,1.20
4298.00,1.20
4297.00,1.20
4296.00,1.20
4295.00,1.20
4294.00,1.20
4293.00,1.20
4292.00,1.20
4291.00,1.20
4290.00,1.20
4289.00,1.20
4288.00,1.20
4287.00,1.20
4286.00,1.20
4285.00,1.20
4284.00,1.20
4283.00,1.20
4282.00,1.20
4281.00,1.20
4280.00,1.20
4279.00,1.21
4278.00,1.21
4277.00,1.21
4276.00,1.21
4275.00,1.21
4274.00,1.21
4273.00,1.21
4272.00,1.21
4271.00,1.21
4270.00,1.21
4269.00,1.21
4268.00,1.21
4267.00,1.21
4266.00,1.21
4265.00,1.21
4264.00,1.21
4263.00,1.21
4262.00,1.21
4261.00,1.21
4260.00,1.21
4259.00,1.21
4258.00,1.21
4257.00,1.21
4256.00,1.21
4255.00,1.21
4254.00,1.22
4253.00,1.22
4252.00,1.22
4251.00,1.22
4250.00,1.22
4249.00,1.22
4248.00,1.22
4247.00,1.22
4246.00,1.22
4245.00,1.22
4244.00,1.22
4243.00,1.22
4242.00,1.22
4241.00,1.22
4240.00,1.22
4239.00,1.22
4238.00,1.22
4237.00,1.23
4236.00,1.23
4235.00,1.23
4234.00,1.23
4233.00,1.23
4232.00,1.23
4231.00,1.23
4230.00,1.24
4229.00,1.24
4228.00,1.24
4227.00,1.24
4226.00,1.24
4225.00,1.24
4224.00,1.24
4223.00,1.24
4222.00,1.24
4221.00,1.24
4220.00,1.24
4219.00,1.24
4218.00,1.24
4217.00,1.24
4216.00,1.24
4215.00,1.24
4214.00,1.24
4213.00,1.24
4212.00,1.24
4211.00,1.24
4210.00,1.24
4209.00,1.24
4208.00,1.24
4207.00,1.24
4206.00,1.24
4205.00,1.24
4204.00,1.24
4203.00,1.24
4202.00,1.25
4201.00,1.25
4200.00,1.25
4199.00,1.25
4198.00,1.25
4197.00,1.25
4196.00,1.25
4195.00,1.25
4194.00,1.25
4193.00,1.25
4192.00,1.25
4191.00,1.25
4190.00,1.25
4189.00,1.25
4188.00,1.25
4187.00,1.25
4186.00,1.25
4185.00,1.25
4184.00,1.25
4183.00,1.25
4182.00,1.25
4181.00,1.26
4180.00,1.26
4179.00,1.26
4178.00,1.26
4177.00,1.26
4176.00,1.26
4175.00,1.26
4174.00,1.26
4173.00,1.26
4172.00,1.26
4171.00,1.26
4170.00,1.26
4169.00,1.26
4168.00,1.26
4167.00,1.26
4166.00,1.26
4165.00,1.26
4164.00,1.26
4163.00,1.26
4162.00,1.26
4161.00,1.26
4160.00,1.26
4159.00,1.26
4158.00,1.26
4157.00,1.26
4156.00,1.26
4155.00,1.26
4154.00,1.26
4153.00,1.26
4152.00,1.26
4151.00,1.26
4150.00,1.26
4149.00,1.26
4148.00,1.26
4147.00,1.26
4146.00,1.26
4145.00,1.27
4144.00,1.27
4143.00,1.27
4142.00,1.27
4141.00,1.27
4140.00,1.27
4139.00,1.27
4138.00,1.27
4137.00,1.27
4136.00,1.27
4135.00,1.27
4134.00,1.28
4133.00,1.28
4132.00,1.28
4131.00,1.28
4130.00,1.28
4129.00,1.28
4128.00,1.28
4127.00,1.28
4126.00,1.28
4125.00,1.28
4124.00,1.28
4123.00,1.28
4122.00,1.28
4121.00,1.28
4120.00,1.28
4119.00,1.28
4118.00,1.28
4117.00,1.28
4116.00,1.27
4115.00,1.27
4114.00,1.27
4113.00,1.27
4112.00,1.27
4111.00,1.28
4110.00,1.28
4109.00,1.28
4108.00,1.28
4107.00,1.28
4106.00,1.28
4105.00,1.28
4104.00,1.28
4103.00,1.28
4102.00,1.28
4101.00,1.28
4100.00,1.29
4099.00,1.29
4098.00,1.29
4097.00,1.29
4096.00,1.29
4095.00,1.29
4094.00,1.29
4093.00,1.29
4092.00,1.29
4091.00,1.29
4090.00,1.30
4089.00,1.30
4088.00,1.30
4087.00,1.30
4086.00,1.30
4085.00,1.30
4084.00,1.30
4083.00,1.30
4082.00,1.30
4081.00,1.30
4080.00,1.30
4079.00,1.30
4078.00,1.30
4077.00,1.30
4076.00,1.30
4075.00,1.30
4074.00,1.30
4073.00,1.30
4072.00,1.30
4071.00,1.30
4070.00,1.30
4069.00,1.30
4068.00,1.30
4067.00,1.30
4066.00,1.30
4065.00,1.30
4064.00,1.30
4063.00,1.30
4062.00,1.30
4061.00,1.31
4060.00,1.31
4059.00,1.31
4058.00,1.31
4057.00,1.31
4056.00,1.31
4055.00,1.32
4054.00,1.32
4053.00,1.32
4052.00,1.32
4051.00,1.32
4050.00,1.32
4049.00,1.32
4048.00,1.32
4047.00,1.32
4046.00,1.32
4045.00,1.32
4044.00,1.32
4043.00,1.32
4042.00,1.32
4041.00,1.32
4040.00,1.32
4039.00,1.32
4038.00,1.32
4037.00,1.32
4036.00,1.32
4035.00,1.32
4034.00,1.32
4033.00,1.32
4032.00,1.32
4031.00,1.32
4030.00,1.32
4029.00,1.32
4028.00,1.31
4027.00,1.31
4026.00,1.31
4025.00,1.31
4024.00,1.31
4023.00,1.31
4022.00,1.31
4021.00,1.31
4020.00,1.31
4019.00,1.31
4018.00,1.31
4017.00,1.31
4016.00,1.31
4015.00,1.31
4014.00,1.31
4013.00,1.31
4012.00,1.31
4011.00,1.31
4010.00,1.32
4009.00,1.32
4008.00,1.32
4007.00,1.32
4006.00,1.32
4005.00,1.32
4004.00,1.33
4003.00,1.33
4002.00,1.33
4001.00,1.33
4000.00,1.34
