创建为新数据集,样品 581 用户 Administrator 日期 星期一, 七月 16 2018
cm-1,%T
10000.00,1.79
9999.00,1.78
9998.00,1.78
9997.00,1.78
9996.00,1.78
9995.00,1.77
9994.00,1.77
9993.00,1.77
9992.00,1.77
9991.00,1.77
9990.00,1.76
9989.00,1.76
9988.00,1.76
9987.00,1.76
9986.00,1.76
9985.00,1.76
9984.00,1.76
9983.00,1.76
9982.00,1.76
9981.00,1.76
9980.00,1.76
9979.00,1.76
9978.00,1.76
9977.00,1.77
9976.00,1.77
9975.00,1.77
9974.00,1.77
9973.00,1.77
9972.00,1.77
9971.00,1.77
9970.00,1.77
9969.00,1.77
9968.00,1.77
9967.00,1.77
9966.00,1.77
9965.00,1.77
9964.00,1.77
9963.00,1.77
9962.00,1.77
9961.00,1.77
9960.00,1.77
9959.00,1.77
9958.00,1.77
9957.00,1.77
9956.00,1.78
9955.00,1.78
9954.00,1.78
9953.00,1.78
9952.00,1.78
9951.00,1.78
9950.00,1.78
9949.00,1.78
9948.00,1.78
9947.00,1.78
9946.00,1.78
9945.00,1.78
9944.00,1.78
9943.00,1.78
9942.00,1.78
9941.00,1.78
9940.00,1.78
9939.00,1.78
9938.00,1.78
9937.00,1.78
9936.00,1.78
9935.00,1.78
9934.00,1.78
9933.00,1.78
9932.00,1.77
9931.00,1.77
9930.00,1.77
9929.00,1.77
9928.00,1.77
9927.00,1.77
9926.00,1.77
9925.00,1.77
9924.00,1.77
9923.00,1.77
9922.00,1.77
9921.00,1.77
9920.00,1.77
9919.00,1.77
9918.00,1.77
9917.00,1.77
9916.00,1.77
9915.00,1.77
9914.00,1.77
9913.00,1.78
9912.00,1.78
9911.00,1.78
9910.00,1.78
9909.00,1.78
9908.00,1.78
9907.00,1.78
9906.00,1.78
9905.00,1.78
9904.00,1.78
9903.00,1.78
9902.00,1.78
9901.00,1.77
9900.00,1.77
9899.00,1.77
9898.00,1.77
9897.00,1.77
9896.00,1.77
9895.00,1.77
9894.00,1.77
9893.00,1.77
9892.00,1.77
9891.00,1.77
9890.00,1.76
9889.00,1.76
9888.00,1.76
9887.00,1.76
9886.00,1.76
9885.00,1.76
9884.00,1.76
9883.00,1.76
9882.00,1.76
9881.00,1.77
9880.00,1.77
9879.00,1.77
9878.00,1.77
9877.00,1.77
9876.00,1.77
9875.00,1.77
9874.00,1.77
9873.00,1.77
9872.00,1.77
9871.00,1.77
9870.00,1.77
9869.00,1.77
9868.00,1.77
9867.00,1.77
9866.00,1.77
9865.00,1.77
9864.00,1.77
9863.00,1.77
9862.00,1.77
9861.00,1.77
9860.00,1.77
9859.00,1.77
9858.00,1.77
9857.00,1.77
9856.00,1.77
9855.00,1.77
9854.00,1.77
9853.00,1.77
9852.00,1.78
9851.00,1.78
9850.00,1.78
9849.00,1.78
9848.00,1.78
9847.00,1.78
9846.00,1.78
9845.00,1.78
9844.00,1.78
9843.00,1.78
9842.00,1.78
9841.00,1.78
9840.00,1.78
9839.00,1.78
9838.00,1.78
9837.00,1.77
9836.00,1.77
9835.00,1.77
9834.00,1.77
9833.00,1.76
9832.00,1.76
9831.00,1.76
9830.00,1.76
9829.00,1.75
9828.00,1.75
9827.00,1.75
9826.00,1.75
9825.00,1.75
9824.00,1.75
9823.00,1.75
9822.00,1.75
9821.00,1.75
9820.00,1.75
9819.00,1.75
9818.00,1.75
9817.00,1.75
9816.00,1.75
9815.00,1.75
9814.00,1.76
9813.00,1.76
9812.00,1.76
9811.00,1.76
9810.00,1.76
9809.00,1.76
9808.00,1.76
9807.00,1.76
9806.00,1.76
9805.00,1.76
9804.00,1.76
9803.00,1.76
9802.00,1.76
9801.00,1.76
9800.00,1.76
9799.00,1.77
9798.00,1.77
9797.00,1.77
9796.00,1.77
9795.00,1.77
9794.00,1.77
9793.00,1.77
9792.00,1.77
9791.00,1.77
9790.00,1.77
9789.00,1.77
9788.00,1.77
9787.00,1.77
9786.00,1.77
9785.00,1.77
9784.00,1.77
9783.00,1.77
9782.00,1.77
9781.00,1.77
9780.00,1.77
9779.00,1.77
9778.00,1.77
9777.00,1.77
9776.00,1.77
9775.00,1.77
9774.00,1.77
9773.00,1.78
9772.00,1.78
9771.00,1.78
9770.00,1.78
9769.00,1.78
9768.00,1.78
9767.00,1.78
9766.00,1.78
9765.00,1.78
9764.00,1.78
9763.00,1.78
9762.00,1.78
9761.00,1.78
9760.00,1.78
9759.00,1.78
9758.00,1.78
9757.00,1.78
9756.00,1.78
9755.00,1.78
9754.00,1.78
9753.00,1.77
9752.00,1.77
9751.00,1.77
9750.00,1.77
9749.00,1.78
9748.00,1.78
9747.00,1.78
9746.00,1.78
9745.00,1.78
9744.00,1.78
9743.00,1.78
9742.00,1.78
9741.00,1.78
9740.00,1.78
9739.00,1.78
9738.00,1.78
9737.00,1.78
9736.00,1.78
9735.00,1.78
9734.00,1.78
9733.00,1.78
9732.00,1.78
9731.00,1.78
9730.00,1.78
9729.00,1.78
9728.00,1.77
9727.00,1.77
9726.00,1.77
9725.00,1.77
9724.00,1.77
9723.00,1.77
9722.00,1.76
9721.00,1.76
9720.00,1.76
9719.00,1.76
9718.00,1.76
9717.00,1.76
9716.00,1.76
9715.00,1.76
9714.00,1.76
9713.00,1.76
9712.00,1.75
9711.00,1.75
9710.00,1.75
9709.00,1.75
9708.00,1.75
9707.00,1.75
9706.00,1.75
9705.00,1.75
9704.00,1.75
9703.00,1.75
9702.00,1.75
9701.00,1.75
9700.00,1.76
9699.00,1.76
9698.00,1.76
9697.00,1.76
9696.00,1.76
9695.00,1.76
9694.00,1.76
9693.00,1.76
9692.00,1.77
9691.00,1.77
9690.00,1.77
9689.00,1.77
9688.00,1.77
9687.00,1.77
9686.00,1.77
9685.00,1.77
9684.00,1.77
9683.00,1.77
9682.00,1.77
9681.00,1.77
9680.00,1.77
9679.00,1.77
9678.00,1.77
9677.00,1.77
9676.00,1.77
9675.00,1.76
9674.00,1.76
9673.00,1.76
9672.00,1.76
9671.00,1.76
9670.00,1.76
9669.00,1.76
9668.00,1.76
9667.00,1.76
9666.00,1.76
9665.00,1.76
9664.00,1.76
9663.00,1.76
9662.00,1.77
9661.00,1.77
9660.00,1.77
9659.00,1.77
9658.00,1.77
9657.00,1.77
9656.00,1.76
9655.00,1.76
9654.00,1.76
9653.00,1.76
9652.00,1.76
9651.00,1.76
9650.00,1.76
9649.00,1.76
9648.00,1.76
9647.00,1.76
9646.00,1.76
9645.00,1.76
9644.00,1.76
9643.00,1.76
9642.00,1.76
9641.00,1.76
9640.00,1.77
9639.00,1.77
9638.00,1.77
9637.00,1.77
9636.00,1.77
9635.00,1.77
9634.00,1.77
9633.00,1.77
9632.00,1.77
9631.00,1.77
9630.00,1.77
9629.00,1.77
9628.00,1.77
9627.00,1.77
9626.00,1.77
9625.00,1.77
9624.00,1.77
9623.00,1.77
9622.00,1.77
9621.00,1.77
9620.00,1.77
9619.00,1.77
9618.00,1.77
9617.00,1.77
9616.00,1.77
9615.00,1.77
9614.00,1.77
9613.00,1.76
9612.00,1.76
9611.00,1.76
9610.00,1.76
9609.00,1.76
9608.00,1.76
9607.00,1.76
9606.00,1.76
9605.00,1.76
9604.00,1.76
9603.00,1.76
9602.00,1.76
9601.00,1.76
9600.00,1.76
9599.00,1.76
9598.00,1.76
9597.00,1.76
9596.00,1.76
9595.00,1.76
9594.00,1.76
9593.00,1.76
9592.00,1.76
9591.00,1.76
9590.00,1.76
9589.00,1.76
9588.00,1.76
9587.00,1.76
9586.00,1.76
9585.00,1.76
9584.00,1.76
9583.00,1.76
9582.00,1.76
9581.00,1.76
9580.00,1.76
9579.00,1.76
9578.00,1.76
9577.00,1.76
9576.00,1.76
9575.00,1.76
9574.00,1.76
9573.00,1.76
9572.00,1.76
9571.00,1.76
9570.00,1.76
9569.00,1.76
9568.00,1.76
9567.00,1.76
9566.00,1.76
9565.00,1.77
9564.00,1.77
9563.00,1.77
9562.00,1.77
9561.00,1.77
9560.00,1.77
9559.00,1.77
9558.00,1.77
9557.00,1.78
9556.00,1.78
9555.00,1.78
9554.00,1.78
9553.00,1.78
9552.00,1.78
9551.00,1.78
9550.00,1.78
9549.00,1.78
9548.00,1.78
9547.00,1.78
9546.00,1.78
9545.00,1.77
9544.00,1.77
9543.00,1.77
9542.00,1.77
9541.00,1.77
9540.00,1.77
9539.00,1.77
9538.00,1.76
9537.00,1.76
9536.00,1.76
9535.00,1.76
9534.00,1.76
9533.00,1.75
9532.00,1.75
9531.00,1.75
9530.00,1.75
9529.00,1.75
9528.00,1.75
9527.00,1.74
9526.00,1.74
9525.00,1.74
9524.00,1.74
9523.00,1.74
9522.00,1.74
9521.00,1.74
9520.00,1.74
9519.00,1.74
9518.00,1.74
9517.00,1.74
9516.00,1.74
9515.00,1.74
9514.00,1.74
9513.00,1.74
9512.00,1.74
9511.00,1.74
9510.00,1.74
9509.00,1.74
9508.00,1.74
9507.00,1.74
9506.00,1.75
9505.00,1.75
9504.00,1.75
9503.00,1.75
9502.00,1.75
9501.00,1.75
9500.00,1.75
9499.00,1.75
9498.00,1.75
9497.00,1.75
9496.00,1.75
9495.00,1.75
9494.00,1.75
9493.00,1.75
9492.00,1.75
9491.00,1.75
9490.00,1.75
9489.00,1.74
9488.00,1.74
9487.00,1.74
9486.00,1.74
9485.00,1.74
9484.00,1.74
9483.00,1.74
9482.00,1.74
9481.00,1.74
9480.00,1.74
9479.00,1.75
9478.00,1.75
9477.00,1.75
9476.00,1.75
9475.00,1.75
9474.00,1.75
9473.00,1.76
9472.00,1.76
9471.00,1.76
9470.00,1.76
9469.00,1.76
9468.00,1.76
9467.00,1.76
9466.00,1.76
9465.00,1.76
9464.00,1.76
9463.00,1.76
9462.00,1.76
9461.00,1.76
9460.00,1.76
9459.00,1.76
9458.00,1.76
9457.00,1.76
9456.00,1.76
9455.00,1.76
9454.00,1.76
9453.00,1.76
9452.00,1.76
9451.00,1.76
9450.00,1.76
9449.00,1.76
9448.00,1.76
9447.00,1.76
9446.00,1.76
9445.00,1.76
9444.00,1.76
9443.00,1.76
9442.00,1.76
9441.00,1.76
9440.00,1.76
9439.00,1.75
9438.00,1.75
9437.00,1.75
9436.00,1.75
9435.00,1.75
9434.00,1.75
9433.00,1.75
9432.00,1.75
9431.00,1.75
9430.00,1.75
9429.00,1.75
9428.00,1.75
9427.00,1.75
9426.00,1.75
9425.00,1.76
9424.00,1.76
9423.00,1.76
9422.00,1.76
9421.00,1.76
9420.00,1.76
9419.00,1.77
9418.00,1.77
9417.00,1.77
9416.00,1.77
9415.00,1.77
9414.00,1.77
9413.00,1.77
9412.00,1.77
9411.00,1.78
9410.00,1.78
9409.00,1.78
9408.00,1.78
9407.00,1.78
9406.00,1.78
9405.00,1.78
9404.00,1.78
9403.00,1.78
9402.00,1.78
9401.00,1.78
9400.00,1.78
9399.00,1.78
9398.00,1.78
9397.00,1.78
9396.00,1.78
9395.00,1.78
9394.00,1.78
9393.00,1.78
9392.00,1.77
9391.00,1.77
9390.00,1.77
9389.00,1.77
9388.00,1.77
9387.00,1.77
9386.00,1.77
9385.00,1.76
9384.00,1.76
9383.00,1.76
9382.00,1.76
9381.00,1.76
9380.00,1.76
9379.00,1.76
9378.00,1.76
9377.00,1.76
9376.00,1.76
9375.00,1.76
9374.00,1.76
9373.00,1.76
9372.00,1.76
9371.00,1.75
9370.00,1.75
9369.00,1.75
9368.00,1.75
9367.00,1.75
9366.00,1.75
9365.00,1.75
9364.00,1.75
9363.00,1.75
9362.00,1.75
9361.00,1.75
9360.00,1.75
9359.00,1.75
9358.00,1.75
9357.00,1.75
9356.00,1.76
9355.00,1.76
9354.00,1.76
9353.00,1.76
9352.00,1.76
9351.00,1.76
9350.00,1.76
9349.00,1.76
9348.00,1.76
9347.00,1.76
9346.00,1.76
9345.00,1.76
9344.00,1.76
9343.00,1.76
9342.00,1.76
9341.00,1.76
9340.00,1.76
9339.00,1.76
9338.00,1.76
9337.00,1.76
9336.00,1.76
9335.00,1.76
9334.00,1.76
9333.00,1.76
9332.00,1.76
9331.00,1.76
9330.00,1.76
9329.00,1.76
9328.00,1.76
9327.00,1.76
9326.00,1.76
9325.00,1.76
9324.00,1.76
9323.00,1.76
9322.00,1.76
9321.00,1.76
9320.00,1.76
9319.00,1.76
9318.00,1.76
9317.00,1.76
9316.00,1.76
9315.00,1.76
9314.00,1.75
9313.00,1.75
9312.00,1.75
9311.00,1.75
9310.00,1.75
9309.00,1.76
9308.00,1.76
9307.00,1.76
9306.00,1.76
9305.00,1.76
9304.00,1.76
9303.00,1.76
9302.00,1.76
9301.00,1.76
9300.00,1.76
9299.00,1.76
9298.00,1.76
9297.00,1.76
9296.00,1.76
9295.00,1.76
9294.00,1.77
9293.00,1.77
9292.00,1.77
9291.00,1.77
9290.00,1.77
9289.00,1.77
9288.00,1.77
9287.00,1.77
9286.00,1.77
9285.00,1.77
9284.00,1.77
9283.00,1.77
9282.00,1.77
9281.00,1.77
9280.00,1.77
9279.00,1.77
9278.00,1.76
9277.00,1.76
9276.00,1.76
9275.00,1.76
9274.00,1.76
9273.00,1.76
9272.00,1.76
9271.00,1.76
9270.00,1.76
9269.00,1.76
9268.00,1.76
9267.00,1.75
9266.00,1.75
9265.00,1.75
9264.00,1.75
9263.00,1.75
9262.00,1.75
9261.00,1.75
9260.00,1.75
9259.00,1.75
9258.00,1.75
9257.00,1.75
9256.00,1.75
9255.00,1.75
9254.00,1.75
9253.00,1.75
9252.00,1.75
9251.00,1.75
9250.00,1.75
9249.00,1.75
9248.00,1.75
9247.00,1.75
9246.00,1.75
9245.00,1.75
9244.00,1.75
9243.00,1.75
9242.00,1.75
9241.00,1.75
9240.00,1.75
9239.00,1.75
9238.00,1.75
9237.00,1.75
9236.00,1.75
9235.00,1.76
9234.00,1.76
9233.00,1.76
9232.00,1.76
9231.00,1.76
9230.00,1.76
9229.00,1.76
9228.00,1.76
9227.00,1.77
9226.00,1.77
9225.00,1.77
9224.00,1.77
9223.00,1.77
9222.00,1.77
9221.00,1.77
9220.00,1.77
9219.00,1.77
9218.00,1.77
9217.00,1.77
9216.00,1.77
9215.00,1.77
9214.00,1.77
9213.00,1.77
9212.00,1.77
9211.00,1.76
9210.00,1.76
9209.00,1.76
9208.00,1.76
9207.00,1.76
9206.00,1.76
9205.00,1.76
9204.00,1.76
9203.00,1.76
9202.00,1.76
9201.00,1.76
9200.00,1.75
9199.00,1.75
9198.00,1.75
9197.00,1.75
9196.00,1.75
9195.00,1.75
9194.00,1.75
9193.00,1.75
9192.00,1.75
9191.00,1.75
9190.00,1.75
9189.00,1.75
9188.00,1.75
9187.00,1.75
9186.00,1.75
9185.00,1.75
9184.00,1.76
9183.00,1.76
9182.00,1.76
9181.00,1.76
9180.00,1.76
9179.00,1.76
9178.00,1.76
9177.00,1.76
9176.00,1.76
9175.00,1.76
9174.00,1.76
9173.00,1.76
9172.00,1.76
9171.00,1.76
9170.00,1.76
9169.00,1.76
9168.00,1.76
9167.00,1.76
9166.00,1.76
9165.00,1.76
9164.00,1.76
9163.00,1.76
9162.00,1.76
9161.00,1.76
9160.00,1.76
9159.00,1.77
9158.00,1.77
9157.00,1.77
9156.00,1.77
9155.00,1.77
9154.00,1.78
9153.00,1.78
9152.00,1.78
9151.00,1.78
9150.00,1.78
9149.00,1.78
9148.00,1.78
9147.00,1.78
9146.00,1.78
9145.00,1.78
9144.00,1.78
9143.00,1.78
9142.00,1.78
9141.00,1.78
9140.00,1.78
9139.00,1.77
9138.00,1.77
9137.00,1.77
9136.00,1.77
9135.00,1.77
9134.00,1.77
9133.00,1.77
9132.00,1.77
9131.00,1.77
9130.00,1.77
9129.00,1.77
9128.00,1.76
9127.00,1.76
9126.00,1.76
9125.00,1.76
9124.00,1.76
9123.00,1.76
9122.00,1.76
9121.00,1.76
9120.00,1.76
9119.00,1.76
9118.00,1.76
9117.00,1.76
9116.00,1.76
9115.00,1.76
9114.00,1.76
9113.00,1.76
9112.00,1.76
9111.00,1.76
9110.00,1.76
9109.00,1.76
9108.00,1.77
9107.00,1.77
9106.00,1.77
9105.00,1.77
9104.00,1.77
9103.00,1.77
9102.00,1.77
9101.00,1.77
9100.00,1.77
9099.00,1.77
9098.00,1.77
9097.00,1.77
9096.00,1.77
9095.00,1.77
9094.00,1.77
9093.00,1.77
9092.00,1.77
9091.00,1.77
9090.00,1.77
9089.00,1.77
9088.00,1.77
9087.00,1.77
9086.00,1.77
9085.00,1.77
9084.00,1.77
9083.00,1.77
9082.00,1.77
9081.00,1.77
9080.00,1.77
9079.00,1.77
9078.00,1.77
9077.00,1.77
9076.00,1.77
9075.00,1.77
9074.00,1.77
9073.00,1.77
9072.00,1.77
9071.00,1.77
9070.00,1.77
9069.00,1.77
9068.00,1.77
9067.00,1.77
9066.00,1.77
9065.00,1.77
9064.00,1.77
9063.00,1.77
9062.00,1.77
9061.00,1.77
9060.00,1.77
9059.00,1.77
9058.00,1.77
9057.00,1.77
9056.00,1.77
9055.00,1.77
9054.00,1.77
9053.00,1.77
9052.00,1.77
9051.00,1.77
9050.00,1.77
9049.00,1.77
9048.00,1.77
9047.00,1.77
9046.00,1.77
9045.00,1.77
9044.00,1.77
9043.00,1.77
9042.00,1.77
9041.00,1.76
9040.00,1.76
9039.00,1.76
9038.00,1.76
9037.00,1.76
9036.00,1.76
9035.00,1.76
9034.00,1.76
9033.00,1.76
9032.00,1.75
9031.00,1.75
9030.00,1.75
9029.00,1.75
9028.00,1.75
9027.00,1.75
9026.00,1.75
9025.00,1.75
9024.00,1.75
9023.00,1.75
9022.00,1.75
9021.00,1.75
9020.00,1.74
9019.00,1.74
9018.00,1.74
9017.00,1.74
9016.00,1.74
9015.00,1.74
9014.00,1.75
9013.00,1.75
9012.00,1.75
9011.00,1.75
9010.00,1.75
9009.00,1.75
9008.00,1.75
9007.00,1.75
9006.00,1.75
9005.00,1.75
9004.00,1.75
9003.00,1.75
9002.00,1.76
9001.00,1.76
9000.00,1.76
8999.00,1.76
8998.00,1.76
8997.00,1.76
8996.00,1.76
8995.00,1.76
8994.00,1.76
8993.00,1.76
8992.00,1.76
8991.00,1.76
8990.00,1.76
8989.00,1.76
8988.00,1.76
8987.00,1.76
8986.00,1.76
8985.00,1.76
8984.00,1.76
8983.00,1.76
8982.00,1.76
8981.00,1.76
8980.00,1.76
8979.00,1.77
8978.00,1.77
8977.00,1.77
8976.00,1.77
8975.00,1.77
8974.00,1.77
8973.00,1.77
8972.00,1.77
8971.00,1.77
8970.00,1.77
8969.00,1.77
8968.00,1.77
8967.00,1.77
8966.00,1.77
8965.00,1.77
8964.00,1.77
8963.00,1.77
8962.00,1.77
8961.00,1.77
8960.00,1.77
8959.00,1.77
8958.00,1.77
8957.00,1.77
8956.00,1.78
8955.00,1.78
8954.00,1.78
8953.00,1.78
8952.00,1.78
8951.00,1.78
8950.00,1.77
8949.00,1.77
8948.00,1.77
8947.00,1.77
8946.00,1.77
8945.00,1.77
8944.00,1.77
8943.00,1.77
8942.00,1.77
8941.00,1.76
8940.00,1.76
8939.00,1.76
8938.00,1.76
8937.00,1.76
8936.00,1.76
8935.00,1.76
8934.00,1.75
8933.00,1.75
8932.00,1.75
8931.00,1.75
8930.00,1.75
8929.00,1.75
8928.00,1.75
8927.00,1.75
8926.00,1.75
8925.00,1.75
8924.00,1.76
8923.00,1.76
8922.00,1.76
8921.00,1.76
8920.00,1.76
8919.00,1.76
8918.00,1.76
8917.00,1.76
8916.00,1.76
8915.00,1.77
8914.00,1.77
8913.00,1.77
8912.00,1.77
8911.00,1.77
8910.00,1.77
8909.00,1.77
8908.00,1.76
8907.00,1.76
8906.00,1.76
8905.00,1.76
8904.00,1.76
8903.00,1.76
8902.00,1.76
8901.00,1.76
8900.00,1.76
8899.00,1.76
8898.00,1.76
8897.00,1.76
8896.00,1.76
8895.00,1.76
8894.00,1.76
8893.00,1.76
8892.00,1.76
8891.00,1.76
8890.00,1.76
8889.00,1.76
8888.00,1.76
8887.00,1.77
8886.00,1.77
8885.00,1.77
8884.00,1.77
8883.00,1.77
8882.00,1.77
8881.00,1.77
8880.00,1.77
8879.00,1.77
8878.00,1.77
8877.00,1.77
8876.00,1.77
8875.00,1.77
8874.00,1.77
8873.00,1.77
8872.00,1.77
8871.00,1.77
8870.00,1.76
8869.00,1.76
8868.00,1.76
8867.00,1.76
8866.00,1.76
8865.00,1.76
8864.00,1.76
8863.00,1.76
8862.00,1.76
8861.00,1.76
8860.00,1.76
8859.00,1.76
8858.00,1.75
8857.00,1.75
8856.00,1.75
8855.00,1.75
8854.00,1.75
8853.00,1.75
8852.00,1.75
8851.00,1.75
8850.00,1.75
8849.00,1.75
8848.00,1.75
8847.00,1.75
8846.00,1.75
8845.00,1.75
8844.00,1.75
8843.00,1.75
8842.00,1.75
8841.00,1.75
8840.00,1.75
8839.00,1.75
8838.00,1.75
8837.00,1.75
8836.00,1.75
8835.00,1.75
8834.00,1.75
8833.00,1.75
8832.00,1.75
8831.00,1.75
8830.00,1.75
8829.00,1.75
8828.00,1.75
8827.00,1.75
8826.00,1.75
8825.00,1.75
8824.00,1.75
8823.00,1.75
8822.00,1.74
8821.00,1.74
8820.00,1.74
8819.00,1.74
8818.00,1.74
8817.00,1.74
8816.00,1.74
8815.00,1.73
8814.00,1.73
8813.00,1.73
8812.00,1.73
8811.00,1.73
8810.00,1.73
8809.00,1.73
8808.00,1.73
8807.00,1.73
8806.00,1.73
8805.00,1.73
8804.00,1.73
8803.00,1.73
8802.00,1.73
8801.00,1.73
8800.00,1.73
8799.00,1.73
8798.00,1.73
8797.00,1.73
8796.00,1.73
8795.00,1.73
8794.00,1.73
8793.00,1.73
8792.00,1.73
8791.00,1.72
8790.00,1.72
8789.00,1.72
8788.00,1.72
8787.00,1.72
8786.00,1.72
8785.00,1.72
8784.00,1.72
8783.00,1.72
8782.00,1.72
8781.00,1.72
8780.00,1.72
8779.00,1.72
8778.00,1.72
8777.00,1.71
8776.00,1.71
8775.00,1.71
8774.00,1.71
8773.00,1.71
8772.00,1.71
8771.00,1.71
8770.00,1.71
8769.00,1.71
8768.00,1.71
8767.00,1.71
8766.00,1.71
8765.00,1.71
8764.00,1.71
8763.00,1.71
8762.00,1.70
8761.00,1.70
8760.00,1.70
8759.00,1.70
8758.00,1.70
8757.00,1.70
8756.00,1.69
8755.00,1.69
8754.00,1.69
8753.00,1.69
8752.00,1.69
8751.00,1.69
8750.00,1.68
8749.00,1.68
8748.00,1.68
8747.00,1.68
8746.00,1.68
8745.00,1.68
8744.00,1.68
8743.00,1.67
8742.00,1.67
8741.00,1.67
8740.00,1.67
8739.00,1.67
8738.00,1.67
8737.00,1.67
8736.00,1.67
8735.00,1.67
8734.00,1.67
8733.00,1.67
8732.00,1.67
8731.00,1.67
8730.00,1.67
8729.00,1.67
8728.00,1.67
8727.00,1.67
8726.00,1.68
8725.00,1.68
8724.00,1.68
8723.00,1.68
8722.00,1.68
8721.00,1.68
8720.00,1.68
8719.00,1.68
8718.00,1.68
8717.00,1.68
8716.00,1.68
8715.00,1.68
8714.00,1.68
8713.00,1.68
8712.00,1.67
8711.00,1.67
8710.00,1.67
8709.00,1.67
8708.00,1.67
8707.00,1.67
8706.00,1.67
8705.00,1.67
8704.00,1.67
8703.00,1.67
8702.00,1.67
8701.00,1.67
8700.00,1.67
8699.00,1.67
8698.00,1.66
8697.00,1.66
8696.00,1.66
8695.00,1.66
8694.00,1.66
8693.00,1.66
8692.00,1.66
8691.00,1.66
8690.00,1.66
8689.00,1.66
8688.00,1.65
8687.00,1.65
8686.00,1.65
8685.00,1.65
8684.00,1.65
8683.00,1.65
8682.00,1.64
8681.00,1.64
8680.00,1.64
8679.00,1.64
8678.00,1.64
8677.00,1.64
8676.00,1.64
8675.00,1.64
8674.00,1.64
8673.00,1.64
8672.00,1.64
8671.00,1.64
8670.00,1.64
8669.00,1.64
8668.00,1.64
8667.00,1.64
8666.00,1.64
8665.00,1.64
8664.00,1.64
8663.00,1.64
8662.00,1.64
8661.00,1.65
8660.00,1.65
8659.00,1.65
8658.00,1.65
8657.00,1.65
8656.00,1.65
8655.00,1.65
8654.00,1.65
8653.00,1.65
8652.00,1.65
8651.00,1.65
8650.00,1.65
8649.00,1.65
8648.00,1.65
8647.00,1.65
8646.00,1.64
8645.00,1.64
8644.00,1.64
8643.00,1.64
8642.00,1.64
8641.00,1.64
8640.00,1.63
8639.00,1.63
8638.00,1.63
8637.00,1.63
8636.00,1.63
8635.00,1.63
8634.00,1.63
8633.00,1.63
8632.00,1.63
8631.00,1.63
8630.00,1.63
8629.00,1.63
8628.00,1.63
8627.00,1.63
8626.00,1.63
8625.00,1.63
8624.00,1.63
8623.00,1.63
8622.00,1.63
8621.00,1.63
8620.00,1.63
8619.00,1.63
8618.00,1.63
8617.00,1.63
8616.00,1.63
8615.00,1.63
8614.00,1.63
8613.00,1.63
8612.00,1.63
8611.00,1.63
8610.00,1.63
8609.00,1.63
8608.00,1.63
8607.00,1.63
8606.00,1.62
8605.00,1.62
8604.00,1.62
8603.00,1.62
8602.00,1.62
8601.00,1.62
8600.00,1.62
8599.00,1.61
8598.00,1.61
8597.00,1.61
8596.00,1.61
8595.00,1.61
8594.00,1.61
8593.00,1.61
8592.00,1.61
8591.00,1.61
8590.00,1.61
8589.00,1.61
8588.00,1.61
8587.00,1.60
8586.00,1.60
8585.00,1.60
8584.00,1.60
8583.00,1.60
8582.00,1.60
8581.00,1.60
8580.00,1.60
8579.00,1.60
8578.00,1.60
8577.00,1.60
8576.00,1.60
8575.00,1.60
8574.00,1.60
8573.00,1.60
8572.00,1.60
8571.00,1.60
8570.00,1.60
8569.00,1.60
8568.00,1.60
8567.00,1.60
8566.00,1.60
8565.00,1.59
8564.00,1.59
8563.00,1.59
8562.00,1.59
8561.00,1.59
8560.00,1.59
8559.00,1.59
8558.00,1.59
8557.00,1.58
8556.00,1.58
8555.00,1.58
8554.00,1.58
8553.00,1.58
8552.00,1.58
8551.00,1.58
8550.00,1.58
8549.00,1.58
8548.00,1.58
8547.00,1.58
8546.00,1.58
8545.00,1.58
8544.00,1.58
8543.00,1.58
8542.00,1.58
8541.00,1.58
8540.00,1.58
8539.00,1.58
8538.00,1.58
8537.00,1.58
8536.00,1.58
8535.00,1.58
8534.00,1.58
8533.00,1.58
8532.00,1.58
8531.00,1.58
8530.00,1.58
8529.00,1.58
8528.00,1.58
8527.00,1.58
8526.00,1.58
8525.00,1.58
8524.00,1.58
8523.00,1.58
8522.00,1.58
8521.00,1.58
8520.00,1.58
8519.00,1.58
8518.00,1.58
8517.00,1.57
8516.00,1.57
8515.00,1.57
8514.00,1.57
8513.00,1.57
8512.00,1.57
8511.00,1.57
8510.00,1.57
8509.00,1.57
8508.00,1.57
8507.00,1.57
8506.00,1.57
8505.00,1.56
8504.00,1.56
8503.00,1.56
8502.00,1.56
8501.00,1.56
8500.00,1.56
8499.00,1.55
8498.00,1.55
8497.00,1.55
8496.00,1.55
8495.00,1.55
8494.00,1.55
8493.00,1.55
8492.00,1.55
8491.00,1.55
8490.00,1.54
8489.00,1.54
8488.00,1.54
8487.00,1.54
8486.00,1.54
8485.00,1.54
8484.00,1.54
8483.00,1.54
8482.00,1.54
8481.00,1.53
8480.00,1.53
8479.00,1.53
8478.00,1.53
8477.00,1.53
8476.00,1.53
8475.00,1.53
8474.00,1.53
8473.00,1.52
8472.00,1.52
8471.00,1.52
8470.00,1.52
8469.00,1.52
8468.00,1.52
8467.00,1.52
8466.00,1.52
8465.00,1.52
8464.00,1.52
8463.00,1.52
8462.00,1.52
8461.00,1.52
8460.00,1.52
8459.00,1.52
8458.00,1.52
8457.00,1.52
8456.00,1.52
8455.00,1.52
8454.00,1.52
8453.00,1.52
8452.00,1.52
8451.00,1.51
8450.00,1.51
8449.00,1.51
8448.00,1.51
8447.00,1.51
8446.00,1.51
8445.00,1.51
8444.00,1.51
8443.00,1.51
8442.00,1.51
8441.00,1.51
8440.00,1.51
8439.00,1.51
8438.00,1.51
8437.00,1.51
8436.00,1.51
8435.00,1.51
8434.00,1.51
8433.00,1.51
8432.00,1.51
8431.00,1.51
8430.00,1.51
8429.00,1.51
8428.00,1.51
8427.00,1.51
8426.00,1.51
8425.00,1.51
8424.00,1.51
8423.00,1.51
8422.00,1.51
8421.00,1.52
8420.00,1.52
8419.00,1.52
8418.00,1.52
8417.00,1.52
8416.00,1.52
8415.00,1.52
8414.00,1.52
8413.00,1.53
8412.00,1.53
8411.00,1.53
8410.00,1.53
8409.00,1.53
8408.00,1.53
8407.00,1.54
8406.00,1.54
8405.00,1.54
8404.00,1.54
8403.00,1.54
8402.00,1.54
8401.00,1.54
8400.00,1.54
8399.00,1.54
8398.00,1.55
8397.00,1.55
8396.00,1.55
8395.00,1.55
8394.00,1.55
8393.00,1.55
8392.00,1.55
8391.00,1.55
8390.00,1.55
8389.00,1.55
8388.00,1.55
8387.00,1.55
8386.00,1.55
8385.00,1.55
8384.00,1.55
8383.00,1.55
8382.00,1.55
8381.00,1.55
8380.00,1.55
8379.00,1.55
8378.00,1.55
8377.00,1.55
8376.00,1.55
8375.00,1.55
8374.00,1.55
8373.00,1.55
8372.00,1.55
8371.00,1.55
8370.00,1.55
8369.00,1.55
8368.00,1.55
8367.00,1.55
8366.00,1.55
8365.00,1.55
8364.00,1.55
8363.00,1.55
8362.00,1.55
8361.00,1.55
8360.00,1.55
8359.00,1.55
8358.00,1.55
8357.00,1.55
8356.00,1.55
8355.00,1.56
8354.00,1.56
8353.00,1.56
8352.00,1.56
8351.00,1.56
8350.00,1.56
8349.00,1.56
8348.00,1.56
8347.00,1.56
8346.00,1.56
8345.00,1.56
8344.00,1.56
8343.00,1.56
8342.00,1.56
8341.00,1.56
8340.00,1.56
8339.00,1.56
8338.00,1.56
8337.00,1.56
8336.00,1.56
8335.00,1.56
8334.00,1.56
8333.00,1.56
8332.00,1.56
8331.00,1.56
8330.00,1.56
8329.00,1.56
8328.00,1.56
8327.00,1.56
8326.00,1.56
8325.00,1.56
8324.00,1.56
8323.00,1.56
8322.00,1.56
8321.00,1.56
8320.00,1.56
8319.00,1.56
8318.00,1.56
8317.00,1.56
8316.00,1.56
8315.00,1.56
8314.00,1.56
8313.00,1.56
8312.00,1.57
8311.00,1.57
8310.00,1.57
8309.00,1.57
8308.00,1.57
8307.00,1.57
8306.00,1.57
8305.00,1.57
8304.00,1.57
8303.00,1.57
8302.00,1.57
8301.00,1.57
8300.00,1.57
8299.00,1.57
8298.00,1.57
8297.00,1.57
8296.00,1.57
8295.00,1.57
8294.00,1.57
8293.00,1.57
8292.00,1.57
8291.00,1.57
8290.00,1.58
8289.00,1.58
8288.00,1.58
8287.00,1.58
8286.00,1.58
8285.00,1.58
8284.00,1.58
8283.00,1.58
8282.00,1.58
8281.00,1.58
8280.00,1.58
8279.00,1.58
8278.00,1.58
8277.00,1.58
8276.00,1.58
8275.00,1.58
8274.00,1.58
8273.00,1.58
8272.00,1.58
8271.00,1.58
8270.00,1.59
8269.00,1.59
8268.00,1.59
8267.00,1.59
8266.00,1.59
8265.00,1.59
8264.00,1.59
8263.00,1.59
8262.00,1.59
8261.00,1.59
8260.00,1.59
8259.00,1.59
8258.00,1.59
8257.00,1.59
8256.00,1.59
8255.00,1.59
8254.00,1.59
8253.00,1.59
8252.00,1.59
8251.00,1.59
8250.00,1.59
8249.00,1.59
8248.00,1.59
8247.00,1.59
8246.00,1.60
8245.00,1.60
8244.00,1.60
8243.00,1.60
8242.00,1.60
8241.00,1.60
8240.00,1.60
8239.00,1.60
8238.00,1.60
8237.00,1.60
8236.00,1.60
8235.00,1.60
8234.00,1.60
8233.00,1.60
8232.00,1.61
8231.00,1.61
8230.00,1.61
8229.00,1.61
8228.00,1.61
8227.00,1.61
8226.00,1.61
8225.00,1.61
8224.00,1.61
8223.00,1.61
8222.00,1.61
8221.00,1.61
8220.00,1.61
8219.00,1.61
8218.00,1.61
8217.00,1.62
8216.00,1.62
8215.00,1.62
8214.00,1.62
8213.00,1.62
8212.00,1.62
8211.00,1.62
8210.00,1.62
8209.00,1.62
8208.00,1.62
8207.00,1.62
8206.00,1.62
8205.00,1.62
8204.00,1.62
8203.00,1.62
8202.00,1.62
8201.00,1.62
8200.00,1.62
8199.00,1.62
8198.00,1.62
8197.00,1.62
8196.00,1.62
8195.00,1.62
8194.00,1.62
8193.00,1.62
8192.00,1.62
8191.00,1.62
8190.00,1.62
8189.00,1.63
8188.00,1.63
8187.00,1.63
8186.00,1.63
8185.00,1.63
8184.00,1.63
8183.00,1.63
8182.00,1.63
8181.00,1.63
8180.00,1.63
8179.00,1.63
8178.00,1.63
8177.00,1.63
8176.00,1.63
8175.00,1.63
8174.00,1.63
8173.00,1.64
8172.00,1.64
8171.00,1.64
8170.00,1.64
8169.00,1.64
8168.00,1.64
8167.00,1.64
8166.00,1.64
8165.00,1.64
8164.00,1.64
8163.00,1.64
8162.00,1.65
8161.00,1.65
8160.00,1.65
8159.00,1.65
8158.00,1.65
8157.00,1.65
8156.00,1.65
8155.00,1.65
8154.00,1.65
8153.00,1.65
8152.00,1.65
8151.00,1.65
8150.00,1.65
8149.00,1.65
8148.00,1.65
8147.00,1.65
8146.00,1.65
8145.00,1.65
8144.00,1.65
8143.00,1.65
8142.00,1.65
8141.00,1.65
8140.00,1.65
8139.00,1.65
8138.00,1.65
8137.00,1.66
8136.00,1.66
8135.00,1.66
8134.00,1.66
8133.00,1.66
8132.00,1.66
8131.00,1.66
8130.00,1.66
8129.00,1.66
8128.00,1.66
8127.00,1.66
8126.00,1.66
8125.00,1.66
8124.00,1.66
8123.00,1.66
8122.00,1.66
8121.00,1.66
8120.00,1.66
8119.00,1.66
8118.00,1.66
8117.00,1.66
8116.00,1.66
8115.00,1.66
8114.00,1.66
8113.00,1.67
8112.00,1.67
8111.00,1.67
8110.00,1.67
8109.00,1.67
8108.00,1.67
8107.00,1.67
8106.00,1.67
8105.00,1.67
8104.00,1.67
8103.00,1.67
8102.00,1.67
8101.00,1.67
8100.00,1.67
8099.00,1.68
8098.00,1.68
8097.00,1.68
8096.00,1.68
8095.00,1.68
8094.00,1.68
8093.00,1.68
8092.00,1.68
8091.00,1.68
8090.00,1.68
8089.00,1.68
8088.00,1.69
8087.00,1.69
8086.00,1.69
8085.00,1.69
8084.00,1.69
8083.00,1.69
8082.00,1.69
8081.00,1.69
8080.00,1.70
8079.00,1.70
8078.00,1.70
8077.00,1.70
8076.00,1.70
8075.00,1.70
8074.00,1.70
8073.00,1.70
8072.00,1.70
8071.00,1.70
8070.00,1.70
8069.00,1.70
8068.00,1.70
8067.00,1.70
8066.00,1.70
8065.00,1.70
8064.00,1.70
8063.00,1.70
8062.00,1.70
8061.00,1.70
8060.00,1.70
8059.00,1.70
8058.00,1.70
8057.00,1.70
8056.00,1.70
8055.00,1.70
8054.00,1.70
8053.00,1.70
8052.00,1.70
8051.00,1.70
8050.00,1.70
8049.00,1.70
8048.00,1.70
8047.00,1.70
8046.00,1.70
8045.00,1.70
8044.00,1.70
8043.00,1.70
8042.00,1.70
8041.00,1.70
8040.00,1.71
8039.00,1.71
8038.00,1.71
8037.00,1.71
8036.00,1.71
8035.00,1.71
8034.00,1.71
8033.00,1.71
8032.00,1.71
8031.00,1.71
8030.00,1.71
8029.00,1.71
8028.00,1.71
8027.00,1.71
8026.00,1.71
8025.00,1.71
8024.00,1.71
8023.00,1.71
8022.00,1.71
8021.00,1.71
8020.00,1.71
8019.00,1.71
8018.00,1.71
8017.00,1.71
8016.00,1.71
8015.00,1.71
8014.00,1.71
8013.00,1.71
8012.00,1.72
8011.00,1.72
8010.00,1.72
8009.00,1.72
8008.00,1.72
8007.00,1.72
8006.00,1.72
8005.00,1.72
8004.00,1.72
8003.00,1.72
8002.00,1.72
8001.00,1.72
8000.00,1.72
7999.00,1.72
7998.00,1.72
7997.00,1.72
7996.00,1.72
7995.00,1.72
7994.00,1.72
7993.00,1.72
7992.00,1.72
7991.00,1.73
7990.00,1.73
7989.00,1.73
7988.00,1.73
7987.00,1.73
7986.00,1.73
7985.00,1.73
7984.00,1.73
7983.00,1.73
7982.00,1.73
7981.00,1.73
7980.00,1.73
7979.00,1.73
7978.00,1.73
7977.00,1.74
7976.00,1.74
7975.00,1.74
7974.00,1.74
7973.00,1.74
7972.00,1.74
7971.00,1.73
7970.00,1.73
7969.00,1.73
7968.00,1.73
7967.00,1.73
7966.00,1.73
7965.00,1.73
7964.00,1.73
7963.00,1.73
7962.00,1.73
7961.00,1.73
7960.00,1.73
7959.00,1.73
7958.00,1.73
7957.00,1.73
7956.00,1.73
7955.00,1.73
7954.00,1.73
7953.00,1.74
7952.00,1.74
7951.00,1.74
7950.00,1.73
7949.00,1.73
7948.00,1.73
7947.00,1.73
7946.00,1.73
7945.00,1.73
7944.00,1.73
7943.00,1.73
7942.00,1.73
7941.00,1.73
7940.00,1.73
7939.00,1.73
7938.00,1.73
7937.00,1.73
7936.00,1.73
7935.00,1.73
7934.00,1.73
7933.00,1.74
7932.00,1.74
7931.00,1.74
7930.00,1.74
7929.00,1.74
7928.00,1.74
7927.00,1.74
7926.00,1.74
7925.00,1.75
7924.00,1.75
7923.00,1.75
7922.00,1.75
7921.00,1.75
7920.00,1.75
7919.00,1.75
7918.00,1.75
7917.00,1.75
7916.00,1.75
7915.00,1.75
7914.00,1.75
7913.00,1.75
7912.00,1.75
7911.00,1.75
7910.00,1.75
7909.00,1.75
7908.00,1.75
7907.00,1.75
7906.00,1.75
7905.00,1.75
7904.00,1.75
7903.00,1.75
7902.00,1.75
7901.00,1.75
7900.00,1.75
7899.00,1.75
7898.00,1.75
7897.00,1.75
7896.00,1.75
7895.00,1.75
7894.00,1.75
7893.00,1.75
7892.00,1.75
7891.00,1.75
7890.00,1.75
7889.00,1.75
7888.00,1.75
7887.00,1.75
7886.00,1.75
7885.00,1.75
7884.00,1.75
7883.00,1.75
7882.00,1.75
7881.00,1.75
7880.00,1.75
7879.00,1.75
7878.00,1.75
7877.00,1.76
7876.00,1.76
7875.00,1.76
7874.00,1.76
7873.00,1.76
7872.00,1.76
7871.00,1.76
7870.00,1.76
7869.00,1.76
7868.00,1.77
7867.00,1.77
7866.00,1.77
7865.00,1.77
7864.00,1.77
7863.00,1.77
7862.00,1.77
7861.00,1.77
7860.00,1.76
7859.00,1.76
7858.00,1.76
7857.00,1.76
7856.00,1.76
7855.00,1.76
7854.00,1.76
7853.00,1.76
7852.00,1.76
7851.00,1.76
7850.00,1.76
7849.00,1.76
7848.00,1.76
7847.00,1.76
7846.00,1.76
7845.00,1.76
7844.00,1.76
7843.00,1.76
7842.00,1.76
7841.00,1.76
7840.00,1.76
7839.00,1.76
7838.00,1.76
7837.00,1.76
7836.00,1.76
7835.00,1.76
7834.00,1.76
7833.00,1.76
7832.00,1.76
7831.00,1.76
7830.00,1.76
7829.00,1.76
7828.00,1.76
7827.00,1.76
7826.00,1.76
7825.00,1.76
7824.00,1.76
7823.00,1.77
7822.00,1.77
7821.00,1.77
7820.00,1.77
7819.00,1.77
7818.00,1.77
7817.00,1.77
7816.00,1.77
7815.00,1.77
7814.00,1.77
7813.00,1.77
7812.00,1.77
7811.00,1.77
7810.00,1.77
7809.00,1.77
7808.00,1.77
7807.00,1.77
7806.00,1.77
7805.00,1.77
7804.00,1.76
7803.00,1.76
7802.00,1.76
7801.00,1.76
7800.00,1.76
7799.00,1.76
7798.00,1.76
7797.00,1.76
7796.00,1.76
7795.00,1.76
7794.00,1.76
7793.00,1.76
7792.00,1.76
7791.00,1.76
7790.00,1.76
7789.00,1.77
7788.00,1.77
7787.00,1.77
7786.00,1.77
7785.00,1.77
7784.00,1.77
7783.00,1.77
7782.00,1.77
7781.00,1.77
7780.00,1.77
7779.00,1.77
7778.00,1.77
7777.00,1.77
7776.00,1.77
7775.00,1.77
7774.00,1.77
7773.00,1.77
7772.00,1.78
7771.00,1.78
7770.00,1.78
7769.00,1.78
7768.00,1.78
7767.00,1.78
7766.00,1.78
7765.00,1.78
7764.00,1.78
7763.00,1.77
7762.00,1.77
7761.00,1.77
7760.00,1.77
7759.00,1.77
7758.00,1.77
7757.00,1.77
7756.00,1.77
7755.00,1.77
7754.00,1.77
7753.00,1.77
7752.00,1.76
7751.00,1.76
7750.00,1.76
7749.00,1.76
7748.00,1.76
7747.00,1.76
7746.00,1.76
7745.00,1.77
7744.00,1.77
7743.00,1.77
7742.00,1.77
7741.00,1.77
7740.00,1.77
7739.00,1.77
7738.00,1.77
7737.00,1.77
7736.00,1.78
7735.00,1.78
7734.00,1.78
7733.00,1.78
7732.00,1.78
7731.00,1.78
7730.00,1.78
7729.00,1.78
7728.00,1.78
7727.00,1.78
7726.00,1.78
7725.00,1.78
7724.00,1.78
7723.00,1.78
7722.00,1.78
7721.00,1.78
7720.00,1.78
7719.00,1.78
7718.00,1.78
7717.00,1.78
7716.00,1.78
7715.00,1.78
7714.00,1.77
7713.00,1.77
7712.00,1.77
7711.00,1.77
7710.00,1.77
7709.00,1.77
7708.00,1.77
7707.00,1.77
7706.00,1.77
7705.00,1.77
7704.00,1.77
7703.00,1.77
7702.00,1.77
7701.00,1.77
7700.00,1.77
7699.00,1.77
7698.00,1.77
7697.00,1.77
7696.00,1.77
7695.00,1.77
7694.00,1.77
7693.00,1.77
7692.00,1.77
7691.00,1.78
7690.00,1.78
7689.00,1.78
7688.00,1.78
7687.00,1.78
7686.00,1.78
7685.00,1.78
7684.00,1.78
7683.00,1.78
7682.00,1.78
7681.00,1.78
7680.00,1.78
7679.00,1.78
7678.00,1.78
7677.00,1.78
7676.00,1.78
7675.00,1.78
7674.00,1.78
7673.00,1.78
7672.00,1.78
7671.00,1.78
7670.00,1.78
7669.00,1.78
7668.00,1.78
7667.00,1.78
7666.00,1.78
7665.00,1.78
7664.00,1.78
7663.00,1.78
7662.00,1.78
7661.00,1.78
7660.00,1.78
7659.00,1.78
7658.00,1.78
7657.00,1.78
7656.00,1.78
7655.00,1.78
7654.00,1.78
7653.00,1.78
7652.00,1.78
7651.00,1.78
7650.00,1.78
7649.00,1.78
7648.00,1.78
7647.00,1.78
7646.00,1.78
7645.00,1.78
7644.00,1.78
7643.00,1.78
7642.00,1.78
7641.00,1.78
7640.00,1.78
7639.00,1.78
7638.00,1.78
7637.00,1.78
7636.00,1.78
7635.00,1.78
7634.00,1.78
7633.00,1.78
7632.00,1.78
7631.00,1.78
7630.00,1.78
7629.00,1.78
7628.00,1.78
7627.00,1.78
7626.00,1.78
7625.00,1.78
7624.00,1.77
7623.00,1.77
7622.00,1.77
7621.00,1.77
7620.00,1.77
7619.00,1.77
7618.00,1.77
7617.00,1.77
7616.00,1.77
7615.00,1.77
7614.00,1.77
7613.00,1.77
7612.00,1.77
7611.00,1.77
7610.00,1.77
7609.00,1.77
7608.00,1.77
7607.00,1.77
7606.00,1.77
7605.00,1.77
7604.00,1.77
7603.00,1.77
7602.00,1.77
7601.00,1.77
7600.00,1.77
7599.00,1.77
7598.00,1.77
7597.00,1.77
7596.00,1.77
7595.00,1.77
7594.00,1.77
7593.00,1.77
7592.00,1.77
7591.00,1.77
7590.00,1.77
7589.00,1.77
7588.00,1.77
7587.00,1.77
7586.00,1.77
7585.00,1.77
7584.00,1.77
7583.00,1.77
7582.00,1.77
7581.00,1.77
7580.00,1.77
7579.00,1.77
7578.00,1.77
7577.00,1.77
7576.00,1.77
7575.00,1.77
7574.00,1.77
7573.00,1.77
7572.00,1.77
7571.00,1.77
7570.00,1.77
7569.00,1.77
7568.00,1.76
7567.00,1.76
7566.00,1.76
7565.00,1.76
7564.00,1.76
7563.00,1.76
7562.00,1.76
7561.00,1.76
7560.00,1.76
7559.00,1.76
7558.00,1.76
7557.00,1.76
7556.00,1.76
7555.00,1.76
7554.00,1.76
7553.00,1.76
7552.00,1.76
7551.00,1.76
7550.00,1.76
7549.00,1.76
7548.00,1.75
7547.00,1.75
7546.00,1.75
7545.00,1.75
7544.00,1.75
7543.00,1.75
7542.00,1.75
7541.00,1.75
7540.00,1.75
7539.00,1.75
7538.00,1.75
7537.00,1.75
7536.00,1.75
7535.00,1.75
7534.00,1.75
7533.00,1.75
7532.00,1.74
7531.00,1.74
7530.00,1.74
7529.00,1.74
7528.00,1.74
7527.00,1.74
7526.00,1.74
7525.00,1.73
7524.00,1.73
7523.00,1.73
7522.00,1.73
7521.00,1.73
7520.00,1.73
7519.00,1.73
7518.00,1.73
7517.00,1.73
7516.00,1.73
7515.00,1.73
7514.00,1.73
7513.00,1.73
7512.00,1.73
7511.00,1.73
7510.00,1.73
7509.00,1.73
7508.00,1.73
7507.00,1.73
7506.00,1.73
7505.00,1.73
7504.00,1.73
7503.00,1.73
7502.00,1.73
7501.00,1.73
7500.00,1.73
7499.00,1.73
7498.00,1.73
7497.00,1.73
7496.00,1.72
7495.00,1.72
7494.00,1.72
7493.00,1.72
7492.00,1.72
7491.00,1.72
7490.00,1.72
7489.00,1.72
7488.00,1.72
7487.00,1.72
7486.00,1.71
7485.00,1.71
7484.00,1.71
7483.00,1.71
7482.00,1.71
7481.00,1.71
7480.00,1.71
7479.00,1.71
7478.00,1.71
7477.00,1.71
7476.00,1.71
7475.00,1.71
7474.00,1.70
7473.00,1.70
7472.00,1.70
7471.00,1.70
7470.00,1.70
7469.00,1.70
7468.00,1.70
7467.00,1.69
7466.00,1.69
7465.00,1.69
7464.00,1.69
7463.00,1.69
7462.00,1.69
7461.00,1.68
7460.00,1.68
7459.00,1.68
7458.00,1.68
7457.00,1.68
7456.00,1.68
7455.00,1.68
7454.00,1.68
7453.00,1.67
7452.00,1.67
7451.00,1.67
7450.00,1.67
7449.00,1.67
7448.00,1.67
7447.00,1.67
7446.00,1.67
7445.00,1.67
7444.00,1.67
7443.00,1.67
7442.00,1.67
7441.00,1.67
7440.00,1.67
7439.00,1.67
7438.00,1.66
7437.00,1.66
7436.00,1.66
7435.00,1.66
7434.00,1.66
7433.00,1.65
7432.00,1.65
7431.00,1.65
7430.00,1.65
7429.00,1.65
7428.00,1.64
7427.00,1.64
7426.00,1.64
7425.00,1.64
7424.00,1.64
7423.00,1.64
7422.00,1.63
7421.00,1.63
7420.00,1.63
7419.00,1.63
7418.00,1.63
7417.00,1.63
7416.00,1.63
7415.00,1.63
7414.00,1.63
7413.00,1.63
7412.00,1.63
7411.00,1.63
7410.00,1.63
7409.00,1.62
7408.00,1.62
7407.00,1.62
7406.00,1.62
7405.00,1.62
7404.00,1.62
7403.00,1.62
7402.00,1.62
7401.00,1.62
7400.00,1.61
7399.00,1.61
7398.00,1.61
7397.00,1.61
7396.00,1.61
7395.00,1.61
7394.00,1.61
7393.00,1.61
7392.00,1.60
7391.00,1.60
7390.00,1.60
7389.00,1.60
7388.00,1.60
7387.00,1.60
7386.00,1.60
7385.00,1.60
7384.00,1.60
7383.00,1.60
7382.00,1.59
7381.00,1.59
7380.00,1.59
7379.00,1.59
7378.00,1.59
7377.00,1.59
7376.00,1.59
7375.00,1.59
7374.00,1.58
7373.00,1.58
7372.00,1.58
7371.00,1.58
7370.00,1.58
7369.00,1.57
7368.00,1.57
7367.00,1.57
7366.00,1.57
7365.00,1.57
7364.00,1.57
7363.00,1.57
7362.00,1.56
7361.00,1.56
7360.00,1.56
7359.00,1.56
7358.00,1.56
7357.00,1.56
7356.00,1.56
7355.00,1.56
7354.00,1.56
7353.00,1.56
7352.00,1.56
7351.00,1.56
7350.00,1.56
7349.00,1.56
7348.00,1.56
7347.00,1.56
7346.00,1.56
7345.00,1.56
7344.00,1.55
7343.00,1.55
7342.00,1.55
7341.00,1.55
7340.00,1.55
7339.00,1.55
7338.00,1.55
7337.00,1.55
7336.00,1.55
7335.00,1.55
7334.00,1.55
7333.00,1.55
7332.00,1.55
7331.00,1.55
7330.00,1.55
7329.00,1.55
7328.00,1.54
7327.00,1.54
7326.00,1.54
7325.00,1.54
7324.00,1.54
7323.00,1.54
7322.00,1.54
7321.00,1.54
7320.00,1.54
7319.00,1.54
7318.00,1.54
7317.00,1.54
7316.00,1.54
7315.00,1.54
7314.00,1.53
7313.00,1.53
7312.00,1.53
7311.00,1.53
7310.00,1.53
7309.00,1.53
7308.00,1.53
7307.00,1.52
7306.00,1.52
7305.00,1.52
7304.00,1.52
7303.00,1.52
7302.00,1.51
7301.00,1.51
7300.00,1.51
7299.00,1.51
7298.00,1.51
7297.00,1.50
7296.00,1.50
7295.00,1.50
7294.00,1.50
7293.00,1.49
7292.00,1.49
7291.00,1.49
7290.00,1.49
7289.00,1.49
7288.00,1.48
7287.00,1.48
7286.00,1.48
7285.00,1.48
7284.00,1.48
7283.00,1.48
7282.00,1.47
7281.00,1.47
7280.00,1.47
7279.00,1.47
7278.00,1.47
7277.00,1.47
7276.00,1.46
7275.00,1.46
7274.00,1.46
7273.00,1.46
7272.00,1.45
7271.00,1.45
7270.00,1.45
7269.00,1.45
7268.00,1.44
7267.00,1.44
7266.00,1.44
7265.00,1.44
7264.00,1.43
7263.00,1.43
7262.00,1.43
7261.00,1.43
7260.00,1.43
7259.00,1.42
7258.00,1.42
7257.00,1.42
7256.00,1.42
7255.00,1.41
7254.00,1.41
7253.00,1.41
7252.00,1.40
7251.00,1.40
7250.00,1.40
7249.00,1.39
7248.00,1.39
7247.00,1.38
7246.00,1.38
7245.00,1.38
7244.00,1.37
7243.00,1.37
7242.00,1.36
7241.00,1.35
7240.00,1.35
7239.00,1.34
7238.00,1.34
7237.00,1.33
7236.00,1.33
7235.00,1.32
7234.00,1.32
7233.00,1.31
7232.00,1.31
7231.00,1.30
7230.00,1.30
7229.00,1.29
7228.00,1.29
7227.00,1.28
7226.00,1.28
7225.00,1.27
7224.00,1.27
7223.00,1.26
7222.00,1.26
7221.00,1.25
7220.00,1.25
7219.00,1.24
7218.00,1.24
7217.00,1.23
7216.00,1.22
7215.00,1.22
7214.00,1.21
7213.00,1.21
7212.00,1.20
7211.00,1.20
7210.00,1.19
7209.00,1.19
7208.00,1.18
7207.00,1.17
7206.00,1.17
7205.00,1.16
7204.00,1.16
7203.00,1.15
7202.00,1.14
7201.00,1.14
7200.00,1.13
7199.00,1.13
7198.00,1.12
7197.00,1.12
7196.00,1.11
7195.00,1.10
7194.00,1.10
7193.00,1.09
7192.00,1.09
7191.00,1.08
7190.00,1.08
7189.00,1.07
7188.00,1.07
7187.00,1.06
7186.00,1.06
7185.00,1.05
7184.00,1.05
7183.00,1.04
7182.00,1.04
7181.00,1.03
7180.00,1.03
7179.00,1.02
7178.00,1.02
7177.00,1.01
7176.00,1.01
7175.00,1.00
7174.00,1.00
7173.00,1.00
7172.00,0.99
7171.00,0.99
7170.00,0.98
7169.00,0.98
7168.00,0.97
7167.00,0.97
7166.00,0.96
7165.00,0.96
7164.00,0.95
7163.00,0.95
7162.00,0.94
7161.00,0.94
7160.00,0.93
7159.00,0.93
7158.00,0.92
7157.00,0.92
7156.00,0.92
7155.00,0.91
7154.00,0.91
7153.00,0.91
7152.00,0.90
7151.00,0.90
7150.00,0.90
7149.00,0.90
7148.00,0.89
7147.00,0.89
7146.00,0.89
7145.00,0.88
7144.00,0.88
7143.00,0.88
7142.00,0.87
7141.00,0.87
7140.00,0.87
7139.00,0.86
7138.00,0.86
7137.00,0.86
7136.00,0.85
7135.00,0.85
7134.00,0.85
7133.00,0.84
7132.00,0.84
7131.00,0.84
7130.00,0.83
7129.00,0.83
7128.00,0.83
7127.00,0.82
7126.00,0.82
7125.00,0.82
7124.00,0.81
7123.00,0.81
7122.00,0.81
7121.00,0.80
7120.00,0.80
7119.00,0.80
7118.00,0.80
7117.00,0.79
7116.00,0.79
7115.00,0.79
7114.00,0.79
7113.00,0.78
7112.00,0.78
7111.00,0.78
7110.00,0.78
7109.00,0.77
7108.00,0.77
7107.00,0.77
7106.00,0.77
7105.00,0.76
7104.00,0.76
7103.00,0.76
7102.00,0.76
7101.00,0.75
7100.00,0.75
7099.00,0.75
7098.00,0.75
7097.00,0.75
7096.00,0.74
7095.00,0.74
7094.00,0.74
7093.00,0.74
7092.00,0.73
7091.00,0.73
7090.00,0.73
7089.00,0.73
7088.00,0.73
7087.00,0.72
7086.00,0.72
7085.00,0.72
7084.00,0.72
7083.00,0.72
7082.00,0.72
7081.00,0.71
7080.00,0.71
7079.00,0.71
7078.00,0.71
7077.00,0.71
7076.00,0.71
7075.00,0.71
7074.00,0.71
7073.00,0.71
7072.00,0.70
7071.00,0.70
7070.00,0.70
7069.00,0.70
7068.00,0.70
7067.00,0.70
7066.00,0.70
7065.00,0.70
7064.00,0.70
7063.00,0.69
7062.00,0.69
7061.00,0.69
7060.00,0.69
7059.00,0.69
7058.00,0.69
7057.00,0.69
7056.00,0.69
7055.00,0.69
7054.00,0.69
7053.00,0.69
7052.00,0.69
7051.00,0.68
7050.00,0.68
7049.00,0.68
7048.00,0.68
7047.00,0.68
7046.00,0.68
7045.00,0.68
7044.00,0.68
7043.00,0.68
7042.00,0.67
7041.00,0.67
7040.00,0.67
7039.00,0.67
7038.00,0.67
7037.00,0.67
7036.00,0.67
7035.00,0.67
7034.00,0.66
7033.00,0.66
7032.00,0.66
7031.00,0.66
7030.00,0.66
7029.00,0.66
7028.00,0.66
7027.00,0.66
7026.00,0.66
7025.00,0.66
7024.00,0.66
7023.00,0.65
7022.00,0.65
7021.00,0.65
7020.00,0.65
7019.00,0.65
7018.00,0.65
7017.00,0.65
7016.00,0.65
7015.00,0.65
7014.00,0.65
7013.00,0.65
7012.00,0.65
7011.00,0.65
7010.00,0.65
7009.00,0.65
7008.00,0.65
7007.00,0.65
7006.00,0.65
7005.00,0.65
7004.00,0.65
7003.00,0.65
7002.00,0.65
7001.00,0.65
7000.00,0.65
6999.00,0.65
6998.00,0.65
6997.00,0.65
6996.00,0.65
6995.00,0.65
6994.00,0.65
6993.00,0.65
6992.00,0.65
6991.00,0.65
6990.00,0.65
6989.00,0.65
6988.00,0.65
6987.00,0.65
6986.00,0.65
6985.00,0.65
6984.00,0.65
6983.00,0.65
6982.00,0.65
6981.00,0.65
6980.00,0.64
6979.00,0.64
6978.00,0.64
6977.00,0.64
6976.00,0.64
6975.00,0.64
6974.00,0.64
6973.00,0.64
6972.00,0.64
6971.00,0.64
6970.00,0.64
6969.00,0.64
6968.00,0.64
6967.00,0.64
6966.00,0.64
6965.00,0.64
6964.00,0.64
6963.00,0.64
6962.00,0.64
6961.00,0.64
6960.00,0.64
6959.00,0.64
6958.00,0.64
6957.00,0.64
6956.00,0.64
6955.00,0.64
6954.00,0.64
6953.00,0.64
6952.00,0.64
6951.00,0.64
6950.00,0.64
6949.00,0.64
6948.00,0.64
6947.00,0.64
6946.00,0.64
6945.00,0.64
6944.00,0.64
6943.00,0.64
6942.00,0.64
6941.00,0.64
6940.00,0.64
6939.00,0.64
6938.00,0.63
6937.00,0.63
6936.00,0.63
6935.00,0.63
6934.00,0.63
6933.00,0.63
6932.00,0.63
6931.00,0.63
6930.00,0.63
6929.00,0.63
6928.00,0.63
6927.00,0.63
6926.00,0.63
6925.00,0.63
6924.00,0.63
6923.00,0.63
6922.00,0.63
6921.00,0.63
6920.00,0.64
6919.00,0.64
6918.00,0.64
6917.00,0.64
6916.00,0.64
6915.00,0.64
6914.00,0.64
6913.00,0.64
6912.00,0.64
6911.00,0.64
6910.00,0.64
6909.00,0.64
6908.00,0.64
6907.00,0.64
6906.00,0.64
6905.00,0.64
6904.00,0.64
6903.00,0.64
6902.00,0.64
6901.00,0.64
6900.00,0.63
6899.00,0.63
6898.00,0.63
6897.00,0.63
6896.00,0.63
6895.00,0.63
6894.00,0.63
6893.00,0.63
6892.00,0.63
6891.00,0.63
6890.00,0.63
6889.00,0.63
6888.00,0.63
6887.00,0.63
6886.00,0.63
6885.00,0.63
6884.00,0.64
6883.00,0.64
6882.00,0.64
6881.00,0.64
6880.00,0.64
6879.00,0.64
6878.00,0.64
6877.00,0.64
6876.00,0.64
6875.00,0.64
6874.00,0.64
6873.00,0.64
6872.00,0.64
6871.00,0.64
6870.00,0.64
6869.00,0.64
6868.00,0.63
6867.00,0.63
6866.00,0.64
6865.00,0.64
6864.00,0.64
6863.00,0.64
6862.00,0.64
6861.00,0.64
6860.00,0.64
6859.00,0.64
6858.00,0.64
6857.00,0.64
6856.00,0.64
6855.00,0.64
6854.00,0.64
6853.00,0.64
6852.00,0.64
6851.00,0.64
6850.00,0.64
6849.00,0.64
6848.00,0.64
6847.00,0.64
6846.00,0.64
6845.00,0.65
6844.00,0.65
6843.00,0.65
6842.00,0.65
6841.00,0.65
6840.00,0.65
6839.00,0.65
6838.00,0.65
6837.00,0.65
6836.00,0.65
6835.00,0.65
6834.00,0.65
6833.00,0.65
6832.00,0.65
6831.00,0.65
6830.00,0.65
6829.00,0.65
6828.00,0.65
6827.00,0.65
6826.00,0.65
6825.00,0.65
6824.00,0.65
6823.00,0.65
6822.00,0.65
6821.00,0.65
6820.00,0.65
6819.00,0.65
6818.00,0.65
6817.00,0.65
6816.00,0.65
6815.00,0.65
6814.00,0.65
6813.00,0.65
6812.00,0.65
6811.00,0.65
6810.00,0.65
6809.00,0.65
6808.00,0.65
6807.00,0.65
6806.00,0.65
6805.00,0.65
6804.00,0.65
6803.00,0.65
6802.00,0.66
6801.00,0.66
6800.00,0.66
6799.00,0.66
6798.00,0.66
6797.00,0.66
6796.00,0.66
6795.00,0.66
6794.00,0.66
6793.00,0.66
6792.00,0.66
6791.00,0.66
6790.00,0.66
6789.00,0.66
6788.00,0.66
6787.00,0.66
6786.00,0.66
6785.00,0.66
6784.00,0.66
6783.00,0.66
6782.00,0.66
6781.00,0.67
6780.00,0.67
6779.00,0.67
6778.00,0.67
6777.00,0.67
6776.00,0.67
6775.00,0.67
6774.00,0.67
6773.00,0.67
6772.00,0.67
6771.00,0.68
6770.00,0.68
6769.00,0.68
6768.00,0.68
6767.00,0.68
6766.00,0.68
6765.00,0.68
6764.00,0.68
6763.00,0.68
6762.00,0.68
6761.00,0.68
6760.00,0.68
6759.00,0.69
6758.00,0.69
6757.00,0.69
6756.00,0.69
6755.00,0.69
6754.00,0.69
6753.00,0.69
6752.00,0.69
6751.00,0.69
6750.00,0.69
6749.00,0.69
6748.00,0.69
6747.00,0.69
6746.00,0.69
6745.00,0.69
6744.00,0.69
6743.00,0.69
6742.00,0.70
6741.00,0.70
6740.00,0.70
6739.00,0.70
6738.00,0.70
6737.00,0.70
6736.00,0.70
6735.00,0.70
6734.00,0.70
6733.00,0.70
6732.00,0.70
6731.00,0.70
6730.00,0.70
6729.00,0.70
6728.00,0.70
6727.00,0.70
6726.00,0.70
6725.00,0.70
6724.00,0.71
6723.00,0.71
6722.00,0.71
6721.00,0.71
6720.00,0.71
6719.00,0.71
6718.00,0.71
6717.00,0.71
6716.00,0.71
6715.00,0.71
6714.00,0.71
6713.00,0.71
6712.00,0.71
6711.00,0.71
6710.00,0.71
6709.00,0.71
6708.00,0.71
6707.00,0.72
6706.00,0.72
6705.00,0.72
6704.00,0.72
6703.00,0.72
6702.00,0.72
6701.00,0.72
6700.00,0.72
6699.00,0.72
6698.00,0.73
6697.00,0.73
6696.00,0.73
6695.00,0.73
6694.00,0.73
6693.00,0.73
6692.00,0.73
6691.00,0.73
6690.00,0.74
6689.00,0.74
6688.00,0.74
6687.00,0.74
6686.00,0.74
6685.00,0.74
6684.00,0.74
6683.00,0.74
6682.00,0.74
6681.00,0.74
6680.00,0.74
6679.00,0.75
6678.00,0.75
6677.00,0.75
6676.00,0.75
6675.00,0.75
6674.00,0.75
6673.00,0.75
6672.00,0.75
6671.00,0.75
6670.00,0.75
6669.00,0.75
6668.00,0.75
6667.00,0.75
6666.00,0.76
6665.00,0.76
6664.00,0.76
6663.00,0.76
6662.00,0.76
6661.00,0.76
6660.00,0.76
6659.00,0.76
6658.00,0.76
6657.00,0.77
6656.00,0.77
6655.00,0.77
6654.00,0.77
6653.00,0.77
6652.00,0.77
6651.00,0.77
6650.00,0.78
6649.00,0.78
6648.00,0.78
6647.00,0.78
6646.00,0.78
6645.00,0.78
6644.00,0.78
6643.00,0.78
6642.00,0.78
6641.00,0.79
6640.00,0.79
6639.00,0.79
6638.00,0.79
6637.00,0.79
6636.00,0.79
6635.00,0.79
6634.00,0.79
6633.00,0.79
6632.00,0.80
6631.00,0.80
6630.00,0.80
6629.00,0.80
6628.00,0.80
6627.00,0.80
6626.00,0.80
6625.00,0.80
6624.00,0.80
6623.00,0.80
6622.00,0.81
6621.00,0.81
6620.00,0.81
6619.00,0.81
6618.00,0.81
6617.00,0.81
6616.00,0.81
6615.00,0.81
6614.00,0.81
6613.00,0.81
6612.00,0.82
6611.00,0.82
6610.00,0.82
6609.00,0.82
6608.00,0.82
6607.00,0.82
6606.00,0.82
6605.00,0.83
6604.00,0.83
6603.00,0.83
6602.00,0.83
6601.00,0.83
6600.00,0.83
6599.00,0.83
6598.00,0.84
6597.00,0.84
6596.00,0.84
6595.00,0.84
6594.00,0.84
6593.00,0.84
6592.00,0.84
6591.00,0.84
6590.00,0.84
6589.00,0.85
6588.00,0.85
6587.00,0.85
6586.00,0.85
6585.00,0.85
6584.00,0.85
6583.00,0.85
6582.00,0.85
6581.00,0.86
6580.00,0.86
6579.00,0.86
6578.00,0.86
6577.00,0.86
6576.00,0.86
6575.00,0.87
6574.00,0.87
6573.00,0.87
6572.00,0.87
6571.00,0.87
6570.00,0.87
6569.00,0.87
6568.00,0.87
6567.00,0.88
6566.00,0.88
6565.00,0.88
6564.00,0.88
6563.00,0.88
6562.00,0.88
6561.00,0.88
6560.00,0.88
6559.00,0.88
6558.00,0.88
6557.00,0.88
6556.00,0.88
6555.00,0.88
6554.00,0.88
6553.00,0.88
6552.00,0.88
6551.00,0.89
6550.00,0.89
6549.00,0.89
6548.00,0.89
6547.00,0.89
6546.00,0.89
6545.00,0.89
6544.00,0.90
6543.00,0.90
6542.00,0.90
6541.00,0.90
6540.00,0.90
6539.00,0.90
6538.00,0.91
6537.00,0.91
6536.00,0.91
6535.00,0.91
6534.00,0.91
6533.00,0.91
6532.00,0.91
6531.00,0.92
6530.00,0.92
6529.00,0.92
6528.00,0.92
6527.00,0.92
6526.00,0.92
6525.00,0.92
6524.00,0.92
6523.00,0.92
6522.00,0.93
6521.00,0.93
6520.00,0.93
6519.00,0.93
6518.00,0.93
6517.00,0.93
6516.00,0.93
6515.00,0.93
6514.00,0.93
6513.00,0.93
6512.00,0.94
6511.00,0.94
6510.00,0.94
6509.00,0.94
6508.00,0.94
6507.00,0.94
6506.00,0.94
6505.00,0.95
6504.00,0.95
6503.00,0.95
6502.00,0.95
6501.00,0.95
6500.00,0.95
6499.00,0.95
6498.00,0.95
6497.00,0.95
6496.00,0.95
6495.00,0.96
6494.00,0.96
6493.00,0.96
6492.00,0.96
6491.00,0.96
6490.00,0.96
6489.00,0.96
6488.00,0.96
6487.00,0.96
6486.00,0.96
6485.00,0.96
6484.00,0.96
6483.00,0.96
6482.00,0.96
6481.00,0.97
6480.00,0.97
6479.00,0.97
6478.00,0.97
6477.00,0.97
6476.00,0.97
6475.00,0.97
6474.00,0.97
6473.00,0.97
6472.00,0.98
6471.00,0.98
6470.00,0.98
6469.00,0.98
6468.00,0.98
6467.00,0.98
6466.00,0.98
6465.00,0.98
6464.00,0.99
6463.00,0.99
6462.00,0.99
6461.00,0.99
6460.00,0.99
6459.00,0.99
6458.00,0.99
6457.00,0.99
6456.00,0.99
6455.00,0.99
6454.00,1.00
6453.00,1.00
6452.00,1.00
6451.00,1.00
6450.00,1.00
6449.00,1.00
6448.00,1.00
6447.00,1.00
6446.00,1.00
6445.00,1.00
6444.00,1.01
6443.00,1.01
6442.00,1.01
6441.00,1.01
6440.00,1.01
6439.00,1.01
6438.00,1.02
6437.00,1.02
6436.00,1.02
6435.00,1.02
6434.00,1.02
6433.00,1.02
6432.00,1.03
6431.00,1.03
6430.00,1.03
6429.00,1.03
6428.00,1.03
6427.00,1.03
6426.00,1.03
6425.00,1.03
6424.00,1.04
6423.00,1.04
6422.00,1.04
6421.00,1.04
6420.00,1.04
6419.00,1.04
6418.00,1.04
6417.00,1.04
6416.00,1.04
6415.00,1.04
6414.00,1.04
6413.00,1.04
6412.00,1.04
6411.00,1.04
6410.00,1.04
6409.00,1.04
6408.00,1.05
6407.00,1.05
6406.00,1.05
6405.00,1.05
6404.00,1.05
6403.00,1.05
6402.00,1.05
6401.00,1.05
6400.00,1.06
6399.00,1.06
6398.00,1.06
6397.00,1.06
6396.00,1.06
6395.00,1.06
6394.00,1.06
6393.00,1.07
6392.00,1.07
6391.00,1.07
6390.00,1.07
6389.00,1.07
6388.00,1.07
6387.00,1.07
6386.00,1.07
6385.00,1.08
6384.00,1.08
6383.00,1.08
6382.00,1.08
6381.00,1.08
6380.00,1.08
6379.00,1.08
6378.00,1.09
6377.00,1.09
6376.00,1.09
6375.00,1.09
6374.00,1.09
6373.00,1.09
6372.00,1.09
6371.00,1.09
6370.00,1.09
6369.00,1.10
6368.00,1.10
6367.00,1.10
6366.00,1.10
6365.00,1.10
6364.00,1.10
6363.00,1.10
6362.00,1.10
6361.00,1.10
6360.00,1.10
6359.00,1.10
6358.00,1.11
6357.00,1.11
6356.00,1.11
6355.00,1.11
6354.00,1.11
6353.00,1.11
6352.00,1.11
6351.00,1.11
6350.00,1.11
6349.00,1.12
6348.00,1.12
6347.00,1.12
6346.00,1.12
6345.00,1.12
6344.00,1.13
6343.00,1.13
6342.00,1.13
6341.00,1.13
6340.00,1.13
6339.00,1.13
6338.00,1.14
6337.00,1.14
6336.00,1.14
6335.00,1.14
6334.00,1.14
6333.00,1.15
6332.00,1.15
6331.00,1.15
6330.00,1.15
6329.00,1.15
6328.00,1.16
6327.00,1.16
6326.00,1.16
6325.00,1.16
6324.00,1.16
6323.00,1.16
6322.00,1.17
6321.00,1.17
6320.00,1.17
6319.00,1.17
6318.00,1.17
6317.00,1.17
6316.00,1.18
6315.00,1.18
6314.00,1.18
6313.00,1.18
6312.00,1.18
6311.00,1.18
6310.00,1.19
6309.00,1.19
6308.00,1.19
6307.00,1.19
6306.00,1.19
6305.00,1.19
6304.00,1.20
6303.00,1.20
6302.00,1.20
6301.00,1.20
6300.00,1.20
6299.00,1.20
6298.00,1.21
6297.00,1.21
6296.00,1.21
6295.00,1.21
6294.00,1.21
6293.00,1.21
6292.00,1.21
6291.00,1.22
6290.00,1.22
6289.00,1.22
6288.00,1.22
6287.00,1.22
6286.00,1.22
6285.00,1.23
6284.00,1.23
6283.00,1.23
6282.00,1.23
6281.00,1.23
6280.00,1.23
6279.00,1.24
6278.00,1.24
6277.00,1.24
6276.00,1.24
6275.00,1.25
6274.00,1.25
6273.00,1.25
6272.00,1.25
6271.00,1.25
6270.00,1.26
6269.00,1.26
6268.00,1.26
6267.00,1.26
6266.00,1.27
6265.00,1.27
6264.00,1.27
6263.00,1.27
6262.00,1.27
6261.00,1.27
6260.00,1.28
6259.00,1.28
6258.00,1.28
6257.00,1.28
6256.00,1.28
6255.00,1.28
6254.00,1.28
6253.00,1.29
6252.00,1.29
6251.00,1.29
6250.00,1.29
6249.00,1.29
6248.00,1.29
6247.00,1.30
6246.00,1.30
6245.00,1.30
6244.00,1.30
6243.00,1.30
6242.00,1.30
6241.00,1.31
6240.00,1.31
6239.00,1.31
6238.00,1.31
6237.00,1.31
6236.00,1.32
6235.00,1.32
6234.00,1.32
6233.00,1.32
6232.00,1.32
6231.00,1.33
6230.00,1.33
6229.00,1.33
6228.00,1.33
6227.00,1.33
6226.00,1.34
6225.00,1.34
6224.00,1.34
6223.00,1.34
6222.00,1.34
6221.00,1.35
6220.00,1.35
6219.00,1.35
6218.00,1.35
6217.00,1.35
6216.00,1.35
6215.00,1.36
6214.00,1.36
6213.00,1.36
6212.00,1.36
6211.00,1.36
6210.00,1.36
6209.00,1.37
6208.00,1.37
6207.00,1.37
6206.00,1.37
6205.00,1.37
6204.00,1.37
6203.00,1.38
6202.00,1.38
6201.00,1.38
6200.00,1.38
6199.00,1.38
6198.00,1.39
6197.00,1.39
6196.00,1.39
6195.00,1.39
6194.00,1.40
6193.00,1.40
6192.00,1.40
6191.00,1.40
6190.00,1.40
6189.00,1.41
6188.00,1.41
6187.00,1.41
6186.00,1.41
6185.00,1.42
6184.00,1.42
6183.00,1.42
6182.00,1.42
6181.00,1.43
6180.00,1.43
6179.00,1.43
6178.00,1.43
6177.00,1.43
6176.00,1.44
6175.00,1.44
6174.00,1.44
6173.00,1.44
6172.00,1.45
6171.00,1.45
6170.00,1.45
6169.00,1.45
6168.00,1.45
6167.00,1.46
6166.00,1.46
6165.00,1.46
6164.00,1.46
6163.00,1.46
6162.00,1.47
6161.00,1.47
6160.00,1.47
6159.00,1.47
6158.00,1.48
6157.00,1.48
6156.00,1.48
6155.00,1.48
6154.00,1.48
6153.00,1.49
6152.00,1.49
6151.00,1.49
6150.00,1.49
6149.00,1.49
6148.00,1.50
6147.00,1.50
6146.00,1.50
6145.00,1.50
6144.00,1.50
6143.00,1.50
6142.00,1.51
6141.00,1.51
6140.00,1.51
6139.00,1.51
6138.00,1.52
6137.00,1.52
6136.00,1.52
6135.00,1.52
6134.00,1.53
6133.00,1.53
6132.00,1.53
6131.00,1.53
6130.00,1.54
6129.00,1.54
6128.00,1.54
6127.00,1.54
6126.00,1.55
6125.00,1.55
6124.00,1.55
6123.00,1.55
6122.00,1.55
6121.00,1.56
6120.00,1.56
6119.00,1.56
6118.00,1.56
6117.00,1.56
6116.00,1.57
6115.00,1.57
6114.00,1.57
6113.00,1.57
6112.00,1.57
6111.00,1.58
6110.00,1.58
6109.00,1.58
6108.00,1.58
6107.00,1.58
6106.00,1.59
6105.00,1.59
6104.00,1.59
6103.00,1.59
6102.00,1.60
6101.00,1.60
6100.00,1.60
6099.00,1.60
6098.00,1.60
6097.00,1.61
6096.00,1.61
6095.00,1.61
6094.00,1.61
6093.00,1.61
6092.00,1.62
6091.00,1.62
6090.00,1.62
6089.00,1.62
6088.00,1.62
6087.00,1.62
6086.00,1.63
6085.00,1.63
6084.00,1.63
6083.00,1.63
6082.00,1.63
6081.00,1.63
6080.00,1.63
6079.00,1.64
6078.00,1.64
6077.00,1.64
6076.00,1.64
6075.00,1.64
6074.00,1.64
6073.00,1.65
6072.00,1.65
6071.00,1.65
6070.00,1.65
6069.00,1.66
6068.00,1.66
6067.00,1.66
6066.00,1.66
6065.00,1.66
6064.00,1.66
6063.00,1.67
6062.00,1.67
6061.00,1.67
6060.00,1.67
6059.00,1.67
6058.00,1.67
6057.00,1.67
6056.00,1.67
6055.00,1.68
6054.00,1.68
6053.00,1.68
6052.00,1.68
6051.00,1.68
6050.00,1.68
6049.00,1.68
6048.00,1.69
6047.00,1.69
6046.00,1.69
6045.00,1.69
6044.00,1.69
6043.00,1.69
6042.00,1.69
6041.00,1.69
6040.00,1.70
6039.00,1.70
6038.00,1.70
6037.00,1.70
6036.00,1.70
6035.00,1.70
6034.00,1.70
6033.00,1.70
6032.00,1.70
6031.00,1.70
6030.00,1.70
6029.00,1.70
6028.00,1.70
6027.00,1.71
6026.00,1.71
6025.00,1.71
6024.00,1.71
6023.00,1.71
6022.00,1.71
6021.00,1.71
6020.00,1.71
6019.00,1.71
6018.00,1.71
6017.00,1.72
6016.00,1.72
6015.00,1.72
6014.00,1.72
6013.00,1.72
6012.00,1.72
6011.00,1.72
6010.00,1.72
6009.00,1.72
6008.00,1.72
6007.00,1.72
6006.00,1.72
6005.00,1.72
6004.00,1.72
6003.00,1.71
6002.00,1.71
6001.00,1.71
6000.00,1.71
5999.00,1.71
5998.00,1.71
5997.00,1.71
5996.00,1.71
5995.00,1.70
5994.00,1.70
5993.00,1.70
5992.00,1.70
5991.00,1.70
5990.00,1.69
5989.00,1.69
5988.00,1.69
5987.00,1.68
5986.00,1.68
5985.00,1.68
5984.00,1.67
5983.00,1.67
5982.00,1.67
5981.00,1.66
5980.00,1.66
5979.00,1.66
5978.00,1.65
5977.00,1.65
5976.00,1.64
5975.00,1.64
5974.00,1.63
5973.00,1.62
5972.00,1.62
5971.00,1.61
5970.00,1.60
5969.00,1.60
5968.00,1.59
5967.00,1.58
5966.00,1.57
5965.00,1.56
5964.00,1.55
5963.00,1.55
5962.00,1.54
5961.00,1.53
5960.00,1.52
5959.00,1.51
5958.00,1.50
5957.00,1.50
5956.00,1.49
5955.00,1.48
5954.00,1.47
5953.00,1.47
5952.00,1.46
5951.00,1.46
5950.00,1.45
5949.00,1.45
5948.00,1.44
5947.00,1.44
5946.00,1.43
5945.00,1.43
5944.00,1.43
5943.00,1.42
5942.00,1.42
5941.00,1.42
5940.00,1.42
5939.00,1.42
5938.00,1.42
5937.00,1.41
5936.00,1.41
5935.00,1.41
5934.00,1.41
5933.00,1.41
5932.00,1.41
5931.00,1.41
5930.00,1.40
5929.00,1.40
5928.00,1.40
5927.00,1.40
5926.00,1.40
5925.00,1.39
5924.00,1.39
5923.00,1.39
5922.00,1.39
5921.00,1.38
5920.00,1.38
5919.00,1.38
5918.00,1.37
5917.00,1.37
5916.00,1.37
5915.00,1.37
5914.00,1.36
5913.00,1.36
5912.00,1.36
5911.00,1.35
5910.00,1.35
5909.00,1.35
5908.00,1.35
5907.00,1.35
5906.00,1.35
5905.00,1.35
5904.00,1.35
5903.00,1.35
5902.00,1.35
5901.00,1.35
5900.00,1.35
5899.00,1.35
5898.00,1.35
5897.00,1.36
5896.00,1.36
5895.00,1.36
5894.00,1.36
5893.00,1.37
5892.00,1.37
5891.00,1.37
5890.00,1.38
5889.00,1.38
5888.00,1.38
5887.00,1.39
5886.00,1.39
5885.00,1.40
5884.00,1.40
5883.00,1.40
5882.00,1.41
5881.00,1.41
5880.00,1.41
5879.00,1.42
5878.00,1.42
5877.00,1.42
5876.00,1.43
5875.00,1.43
5874.00,1.43
5873.00,1.44
5872.00,1.44
5871.00,1.44
5870.00,1.44
5869.00,1.45
5868.00,1.45
5867.00,1.45
5866.00,1.45
5865.00,1.45
5864.00,1.45
5863.00,1.45
5862.00,1.46
5861.00,1.46
5860.00,1.46
5859.00,1.46
5858.00,1.46
5857.00,1.46
5856.00,1.46
5855.00,1.46
5854.00,1.46
5853.00,1.46
5852.00,1.46
5851.00,1.46
5850.00,1.46
5849.00,1.46
5848.00,1.46
5847.00,1.46
5846.00,1.46
5845.00,1.47
5844.00,1.47
5843.00,1.47
5842.00,1.47
5841.00,1.47
5840.00,1.47
5839.00,1.47
5838.00,1.47
5837.00,1.47
5836.00,1.47
5835.00,1.47
5834.00,1.47
5833.00,1.47
5832.00,1.47
5831.00,1.47
5830.00,1.47
5829.00,1.47
5828.00,1.47
5827.00,1.47
5826.00,1.47
5825.00,1.47
5824.00,1.47
5823.00,1.47
5822.00,1.47
5821.00,1.47
5820.00,1.47
5819.00,1.47
5818.00,1.47
5817.00,1.47
5816.00,1.47
5815.00,1.47
5814.00,1.47
5813.00,1.47
5812.00,1.47
5811.00,1.47
5810.00,1.47
5809.00,1.47
5808.00,1.47
5807.00,1.47
5806.00,1.47
5805.00,1.46
5804.00,1.46
5803.00,1.46
5802.00,1.46
5801.00,1.46
5800.00,1.46
5799.00,1.45
5798.00,1.45
5797.00,1.45
5796.00,1.45
5795.00,1.44
5794.00,1.44
5793.00,1.44
5792.00,1.43
5791.00,1.43
5790.00,1.43
5789.00,1.43
5788.00,1.42
5787.00,1.42
5786.00,1.42
5785.00,1.42
5784.00,1.41
5783.00,1.41
5782.00,1.41
5781.00,1.41
5780.00,1.41
5779.00,1.41
5778.00,1.41
5777.00,1.40
5776.00,1.40
5775.00,1.40
5774.00,1.40
5773.00,1.40
5772.00,1.40
5771.00,1.41
5770.00,1.41
5769.00,1.41
5768.00,1.41
5767.00,1.41
5766.00,1.41
5765.00,1.42
5764.00,1.42
5763.00,1.42
5762.00,1.42
5761.00,1.43
5760.00,1.43
5759.00,1.43
5758.00,1.44
5757.00,1.44
5756.00,1.44
5755.00,1.45
5754.00,1.45
5753.00,1.46
5752.00,1.46
5751.00,1.46
5750.00,1.47
5749.00,1.47
5748.00,1.47
5747.00,1.48
5746.00,1.48
5745.00,1.48
5744.00,1.49
5743.00,1.49
5742.00,1.49
5741.00,1.50
5740.00,1.50
5739.00,1.50
5738.00,1.51
5737.00,1.51
5736.00,1.51
5735.00,1.51
5734.00,1.51
5733.00,1.51
5732.00,1.52
5731.00,1.52
5730.00,1.52
5729.00,1.52
5728.00,1.52
5727.00,1.52
5726.00,1.52
5725.00,1.52
5724.00,1.52
5723.00,1.52
5722.00,1.52
5721.00,1.52
5720.00,1.51
5719.00,1.51
5718.00,1.51
5717.00,1.51
5716.00,1.51
5715.00,1.51
5714.00,1.51
5713.00,1.51
5712.00,1.51
5711.00,1.51
5710.00,1.50
5709.00,1.50
5708.00,1.50
5707.00,1.50
5706.00,1.50
5705.00,1.50
5704.00,1.49
5703.00,1.49
5702.00,1.49
5701.00,1.49
5700.00,1.49
5699.00,1.48
5698.00,1.48
5697.00,1.48
5696.00,1.48
5695.00,1.47
5694.00,1.47
5693.00,1.47
5692.00,1.47
5691.00,1.47
5690.00,1.46
5689.00,1.46
5688.00,1.46
5687.00,1.46
5686.00,1.46
5685.00,1.46
5684.00,1.46
5683.00,1.45
5682.00,1.45
5681.00,1.45
5680.00,1.45
5679.00,1.45
5678.00,1.45
5677.00,1.45
5676.00,1.45
5675.00,1.45
5674.00,1.45
5673.00,1.45
5672.00,1.45
5671.00,1.45
5670.00,1.45
5669.00,1.45
5668.00,1.45
5667.00,1.45
5666.00,1.45
5665.00,1.45
5664.00,1.46
5663.00,1.46
5662.00,1.46
5661.00,1.46
5660.00,1.46
5659.00,1.46
5658.00,1.46
5657.00,1.46
5656.00,1.47
5655.00,1.47
5654.00,1.47
5653.00,1.47
5652.00,1.47
5651.00,1.48
5650.00,1.48
5649.00,1.48
5648.00,1.48
5647.00,1.48
5646.00,1.49
5645.00,1.49
5644.00,1.49
5643.00,1.49
5642.00,1.49
5641.00,1.50
5640.00,1.50
5639.00,1.50
5638.00,1.50
5637.00,1.50
5636.00,1.51
5635.00,1.51
5634.00,1.51
5633.00,1.51
5632.00,1.51
5631.00,1.51
5630.00,1.52
5629.00,1.52
5628.00,1.52
5627.00,1.52
5626.00,1.52
5625.00,1.52
5624.00,1.52
5623.00,1.53
5622.00,1.53
5621.00,1.53
5620.00,1.53
5619.00,1.53
5618.00,1.54
5617.00,1.54
5616.00,1.54
5615.00,1.54
5614.00,1.54
5613.00,1.55
5612.00,1.55
5611.00,1.55
5610.00,1.55
5609.00,1.55
5608.00,1.56
5607.00,1.56
5606.00,1.56
5605.00,1.56
5604.00,1.56
5603.00,1.57
5602.00,1.57
5601.00,1.57
5600.00,1.57
5599.00,1.57
5598.00,1.58
5597.00,1.58
5596.00,1.58
5595.00,1.58
5594.00,1.59
5593.00,1.59
5592.00,1.59
5591.00,1.59
5590.00,1.59
5589.00,1.60
5588.00,1.60
5587.00,1.60
5586.00,1.60
5585.00,1.60
5584.00,1.60
5583.00,1.60
5582.00,1.61
5581.00,1.61
5580.00,1.61
5579.00,1.61
5578.00,1.61
5577.00,1.61
5576.00,1.61
5575.00,1.62
5574.00,1.62
5573.00,1.62
5572.00,1.62
5571.00,1.62
5570.00,1.62
5569.00,1.63
5568.00,1.63
5567.00,1.63
5566.00,1.63
5565.00,1.63
5564.00,1.63
5563.00,1.64
5562.00,1.64
5561.00,1.64
5560.00,1.64
5559.00,1.64
5558.00,1.65
5557.00,1.65
5556.00,1.65
5555.00,1.65
5554.00,1.65
5553.00,1.66
5552.00,1.66
5551.00,1.66
5550.00,1.66
5549.00,1.66
5548.00,1.67
5547.00,1.67
5546.00,1.67
5545.00,1.67
5544.00,1.68
5543.00,1.68
5542.00,1.68
5541.00,1.68
5540.00,1.68
5539.00,1.69
5538.00,1.69
5537.00,1.69
5536.00,1.69
5535.00,1.69
5534.00,1.69
5533.00,1.69
5532.00,1.69
5531.00,1.70
5530.00,1.70
5529.00,1.70
5528.00,1.70
5527.00,1.70
5526.00,1.70
5525.00,1.70
5524.00,1.70
5523.00,1.70
5522.00,1.71
5521.00,1.71
5520.00,1.71
5519.00,1.71
5518.00,1.71
5517.00,1.71
5516.00,1.71
5515.00,1.71
5514.00,1.71
5513.00,1.71
5512.00,1.72
5511.00,1.72
5510.00,1.72
5509.00,1.72
5508.00,1.72
5507.00,1.72
5506.00,1.72
5505.00,1.72
5504.00,1.72
5503.00,1.72
5502.00,1.72
5501.00,1.72
5500.00,1.72
5499.00,1.73
5498.00,1.73
5497.00,1.73
5496.00,1.73
5495.00,1.73
5494.00,1.73
5493.00,1.73
5492.00,1.73
5491.00,1.74
5490.00,1.74
5489.00,1.74
5488.00,1.74
5487.00,1.74
5486.00,1.75
5485.00,1.75
5484.00,1.75
5483.00,1.75
5482.00,1.76
5481.00,1.76
5480.00,1.76
5479.00,1.76
5478.00,1.76
5477.00,1.76
5476.00,1.77
5475.00,1.77
5474.00,1.77
5473.00,1.77
5472.00,1.77
5471.00,1.77
5470.00,1.77
5469.00,1.77
5468.00,1.78
5467.00,1.78
5466.00,1.78
5465.00,1.78
5464.00,1.78
5463.00,1.78
5462.00,1.78
5461.00,1.78
5460.00,1.78
5459.00,1.78
5458.00,1.78
5457.00,1.78
5456.00,1.78
5455.00,1.78
5454.00,1.78
5453.00,1.78
5452.00,1.78
5451.00,1.78
5450.00,1.78
5449.00,1.78
5448.00,1.78
5447.00,1.78
5446.00,1.78
5445.00,1.78
5444.00,1.78
5443.00,1.78
5442.00,1.78
5441.00,1.78
5440.00,1.78
5439.00,1.78
5438.00,1.78
5437.00,1.78
5436.00,1.78
5435.00,1.78
5434.00,1.78
5433.00,1.78
5432.00,1.78
5431.00,1.78
5430.00,1.78
5429.00,1.78
5428.00,1.78
5427.00,1.78
5426.00,1.78
5425.00,1.78
5424.00,1.78
5423.00,1.78
5422.00,1.78
5421.00,1.78
5420.00,1.78
5419.00,1.78
5418.00,1.78
5417.00,1.78
5416.00,1.78
5415.00,1.78
5414.00,1.78
5413.00,1.77
5412.00,1.77
5411.00,1.77
5410.00,1.77
5409.00,1.77
5408.00,1.77
5407.00,1.76
5406.00,1.76
5405.00,1.76
5404.00,1.76
5403.00,1.76
5402.00,1.75
5401.00,1.75
5400.00,1.75
5399.00,1.75
5398.00,1.74
5397.00,1.74
5396.00,1.74
5395.00,1.73
5394.00,1.73
5393.00,1.72
5392.00,1.72
5391.00,1.72
5390.00,1.71
5389.00,1.71
5388.00,1.70
5387.00,1.70
5386.00,1.69
5385.00,1.69
5384.00,1.68
5383.00,1.68
5382.00,1.67
5381.00,1.66
5380.00,1.66
5379.00,1.65
5378.00,1.64
5377.00,1.64
5376.00,1.63
5375.00,1.62
5374.00,1.61
5373.00,1.60
5372.00,1.60
5371.00,1.59
5370.00,1.58
5369.00,1.57
5368.00,1.56
5367.00,1.56
5366.00,1.55
5365.00,1.54
5364.00,1.53
5363.00,1.52
5362.00,1.51
5361.00,1.50
5360.00,1.49
5359.00,1.48
5358.00,1.47
5357.00,1.46
5356.00,1.44
5355.00,1.43
5354.00,1.42
5353.00,1.41
5352.00,1.40
5351.00,1.38
5350.00,1.37
5349.00,1.36
5348.00,1.35
5347.00,1.33
5346.00,1.32
5345.00,1.31
5344.00,1.30
5343.00,1.28
5342.00,1.27
5341.00,1.26
5340.00,1.25
5339.00,1.24
5338.00,1.23
5337.00,1.22
5336.00,1.20
5335.00,1.19
5334.00,1.18
5333.00,1.17
5332.00,1.16
5331.00,1.15
5330.00,1.15
5329.00,1.14
5328.00,1.13
5327.00,1.12
5326.00,1.11
5325.00,1.10
5324.00,1.09
5323.00,1.09
5322.00,1.08
5321.00,1.07
5320.00,1.06
5319.00,1.06
5318.00,1.05
5317.00,1.04
5316.00,1.04
5315.00,1.03
5314.00,1.02
5313.00,1.02
5312.00,1.01
5311.00,1.01
5310.00,1.00
5309.00,1.00
5308.00,0.99
5307.00,0.99
5306.00,0.98
5305.00,0.98
5304.00,0.97
5303.00,0.97
5302.00,0.97
5301.00,0.96
5300.00,0.96
5299.00,0.96
5298.00,0.96
5297.00,0.95
5296.00,0.95
5295.00,0.95
5294.00,0.95
5293.00,0.95
5292.00,0.95
5291.00,0.95
5290.00,0.94
5289.00,0.94
5288.00,0.94
5287.00,0.94
5286.00,0.94
5285.00,0.94
5284.00,0.94
5283.00,0.94
5282.00,0.94
5281.00,0.93
5280.00,0.93
5279.00,0.93
5278.00,0.93
5277.00,0.93
5276.00,0.93
5275.00,0.93
5274.00,0.93
5273.00,0.93
5272.00,0.93
5271.00,0.93
5270.00,0.93
5269.00,0.93
5268.00,0.93
5267.00,0.93
5266.00,0.93
5265.00,0.93
5264.00,0.93
5263.00,0.93
5262.00,0.93
5261.00,0.93
5260.00,0.93
5259.00,0.93
5258.00,0.93
5257.00,0.93
5256.00,0.93
5255.00,0.93
5254.00,0.93
5253.00,0.93
5252.00,0.93
5251.00,0.93
5250.00,0.93
5249.00,0.93
5248.00,0.93
5247.00,0.93
5246.00,0.93
5245.00,0.93
5244.00,0.93
5243.00,0.93
5242.00,0.93
5241.00,0.93
5240.00,0.93
5239.00,0.94
5238.00,0.94
5237.00,0.94
5236.00,0.94
5235.00,0.94
5234.00,0.94
5233.00,0.94
5232.00,0.94
5231.00,0.94
5230.00,0.94
5229.00,0.94
5228.00,0.94
5227.00,0.94
5226.00,0.94
5225.00,0.95
5224.00,0.95
5223.00,0.95
5222.00,0.95
5221.00,0.95
5220.00,0.95
5219.00,0.95
5218.00,0.95
5217.00,0.95
5216.00,0.95
5215.00,0.95
5214.00,0.95
5213.00,0.95
5212.00,0.95
5211.00,0.95
5210.00,0.95
5209.00,0.95
5208.00,0.95
5207.00,0.95
5206.00,0.95
5205.00,0.95
5204.00,0.95
5203.00,0.95
5202.00,0.95
5201.00,0.95
5200.00,0.95
5199.00,0.95
5198.00,0.95
5197.00,0.95
5196.00,0.95
5195.00,0.95
5194.00,0.95
5193.00,0.95
5192.00,0.96
5191.00,0.96
5190.00,0.96
5189.00,0.96
5188.00,0.96
5187.00,0.96
5186.00,0.97
5185.00,0.97
5184.00,0.97
5183.00,0.97
5182.00,0.97
5181.00,0.97
5180.00,0.97
5179.00,0.97
5178.00,0.97
5177.00,0.97
5176.00,0.97
5175.00,0.97
5174.00,0.97
5173.00,0.97
5172.00,0.97
5171.00,0.97
5170.00,0.97
5169.00,0.97
5168.00,0.97
5167.00,0.97
5166.00,0.97
5165.00,0.97
5164.00,0.97
5163.00,0.97
5162.00,0.98
5161.00,0.98
5160.00,0.98
5159.00,0.98
5158.00,0.98
5157.00,0.98
5156.00,0.98
5155.00,0.98
5154.00,0.98
5153.00,0.98
5152.00,0.98
5151.00,0.98
5150.00,0.99
5149.00,0.99
5148.00,0.99
5147.00,0.99
5146.00,0.99
5145.00,0.99
5144.00,0.99
5143.00,0.99
5142.00,0.99
5141.00,0.99
5140.00,0.99
5139.00,0.99
5138.00,0.99
5137.00,0.99
5136.00,0.99
5135.00,0.99
5134.00,0.99
5133.00,0.99
5132.00,0.99
5131.00,0.99
5130.00,0.99
5129.00,0.99
5128.00,1.00
5127.00,1.00
5126.00,1.00
5125.00,1.00
5124.00,1.00
5123.00,1.00
5122.00,1.00
5121.00,1.00
5120.00,1.00
5119.00,1.00
5118.00,1.00
5117.00,1.00
5116.00,1.00
5115.00,1.00
5114.00,1.00
5113.00,1.00
5112.00,1.00
5111.00,1.01
5110.00,1.01
5109.00,1.01
5108.00,1.01
5107.00,1.01
5106.00,1.01
5105.00,1.01
5104.00,1.01
5103.00,1.01
5102.00,1.01
5101.00,1.01
5100.00,1.01
5099.00,1.01
5098.00,1.01
5097.00,1.01
5096.00,1.01
5095.00,1.01
5094.00,1.01
5093.00,1.01
5092.00,1.01
5091.00,1.01
5090.00,1.01
5089.00,1.01
5088.00,1.01
5087.00,1.01
5086.00,1.01
5085.00,1.01
5084.00,1.01
5083.00,1.01
5082.00,1.01
5081.00,1.01
5080.00,1.02
5079.00,1.02
5078.00,1.02
5077.00,1.02
5076.00,1.02
5075.00,1.02
5074.00,1.02
5073.00,1.02
5072.00,1.02
5071.00,1.02
5070.00,1.02
5069.00,1.02
5068.00,1.03
5067.00,1.03
5066.00,1.03
5065.00,1.03
5064.00,1.03
5063.00,1.03
5062.00,1.03
5061.00,1.03
5060.00,1.03
5059.00,1.03
5058.00,1.04
5057.00,1.04
5056.00,1.04
5055.00,1.04
5054.00,1.04
5053.00,1.04
5052.00,1.04
5051.00,1.04
5050.00,1.04
5049.00,1.04
5048.00,1.04
5047.00,1.05
5046.00,1.05
5045.00,1.05
5044.00,1.05
5043.00,1.05
5042.00,1.05
5041.00,1.05
5040.00,1.05
5039.00,1.05
5038.00,1.05
5037.00,1.05
5036.00,1.05
5035.00,1.05
5034.00,1.05
5033.00,1.05
5032.00,1.05
5031.00,1.05
5030.00,1.05
5029.00,1.05
5028.00,1.05
5027.00,1.06
5026.00,1.06
5025.00,1.06
5024.00,1.06
5023.00,1.06
5022.00,1.06
5021.00,1.06
5020.00,1.06
5019.00,1.06
5018.00,1.06
5017.00,1.06
5016.00,1.06
5015.00,1.06
5014.00,1.06
5013.00,1.06
5012.00,1.06
5011.00,1.06
5010.00,1.06
5009.00,1.06
5008.00,1.06
5007.00,1.06
5006.00,1.06
5005.00,1.06
5004.00,1.06
5003.00,1.07
5002.00,1.07
5001.00,1.07
5000.00,1.07
4999.00,1.07
4998.00,1.07
4997.00,1.07
4996.00,1.07
4995.00,1.07
4994.00,1.07
4993.00,1.07
4992.00,1.07
4991.00,1.07
4990.00,1.07
4989.00,1.08
4988.00,1.08
4987.00,1.08
4986.00,1.08
4985.00,1.08
4984.00,1.08
4983.00,1.08
4982.00,1.08
4981.00,1.08
4980.00,1.08
4979.00,1.08
4978.00,1.08
4977.00,1.08
4976.00,1.09
4975.00,1.09
4974.00,1.09
4973.00,1.09
4972.00,1.09
4971.00,1.09
4970.00,1.09
4969.00,1.09
4968.00,1.09
4967.00,1.09
4966.00,1.09
4965.00,1.09
4964.00,1.09
4963.00,1.09
4962.00,1.09
4961.00,1.09
4960.00,1.09
4959.00,1.10
4958.00,1.10
4957.00,1.10
4956.00,1.10
4955.00,1.10
4954.00,1.10
4953.00,1.10
4952.00,1.10
4951.00,1.10
4950.00,1.11
4949.00,1.11
4948.00,1.11
4947.00,1.11
4946.00,1.11
4945.00,1.11
4944.00,1.11
4943.00,1.12
4942.00,1.12
4941.00,1.12
4940.00,1.12
4939.00,1.12
4938.00,1.12
4937.00,1.13
4936.00,1.13
4935.00,1.13
4934.00,1.13
4933.00,1.13
4932.00,1.13
4931.00,1.13
4930.00,1.13
4929.00,1.13
4928.00,1.14
4927.00,1.14
4926.00,1.14
4925.00,1.14
4924.00,1.14
4923.00,1.14
4922.00,1.14
4921.00,1.14
4920.00,1.14
4919.00,1.14
4918.00,1.14
4917.00,1.14
4916.00,1.14
4915.00,1.14
4914.00,1.14
4913.00,1.14
4912.00,1.15
4911.00,1.15
4910.00,1.15
4909.00,1.15
4908.00,1.15
4907.00,1.15
4906.00,1.15
4905.00,1.15
4904.00,1.15
4903.00,1.15
4902.00,1.15
4901.00,1.15
4900.00,1.15
4899.00,1.15
4898.00,1.15
4897.00,1.15
4896.00,1.15
4895.00,1.15
4894.00,1.15
4893.00,1.15
4892.00,1.15
4891.00,1.15
4890.00,1.16
4889.00,1.16
4888.00,1.16
4887.00,1.16
4886.00,1.16
4885.00,1.16
4884.00,1.16
4883.00,1.16
4882.00,1.16
4881.00,1.16
4880.00,1.16
4879.00,1.16
4878.00,1.16
4877.00,1.16
4876.00,1.17
4875.00,1.17
4874.00,1.17
4873.00,1.17
4872.00,1.17
4871.00,1.17
4870.00,1.17
4869.00,1.17
4868.00,1.18
4867.00,1.18
4866.00,1.18
4865.00,1.18
4864.00,1.18
4863.00,1.18
4862.00,1.18
4861.00,1.18
4860.00,1.18
4859.00,1.19
4858.00,1.19
4857.00,1.19
4856.00,1.19
4855.00,1.19
4854.00,1.19
4853.00,1.19
4852.00,1.19
4851.00,1.19
4850.00,1.19
4849.00,1.19
4848.00,1.19
4847.00,1.19
4846.00,1.19
4845.00,1.19
4844.00,1.19
4843.00,1.19
4842.00,1.19
4841.00,1.20
4840.00,1.20
4839.00,1.20
4838.00,1.20
4837.00,1.20
4836.00,1.20
4835.00,1.20
4834.00,1.20
4833.00,1.20
4832.00,1.20
4831.00,1.21
4830.00,1.21
4829.00,1.21
4828.00,1.21
4827.00,1.21
4826.00,1.21
4825.00,1.21
4824.00,1.21
4823.00,1.22
4822.00,1.22
4821.00,1.22
4820.00,1.22
4819.00,1.22
4818.00,1.22
4817.00,1.22
4816.00,1.22
4815.00,1.22
4814.00,1.22
4813.00,1.22
4812.00,1.22
4811.00,1.22
4810.00,1.22
4809.00,1.22
4808.00,1.22
4807.00,1.22
4806.00,1.23
4805.00,1.23
4804.00,1.23
4803.00,1.23
4802.00,1.23
4801.00,1.23
4800.00,1.23
4799.00,1.23
4798.00,1.23
4797.00,1.23
4796.00,1.23
4795.00,1.23
4794.00,1.23
4793.00,1.23
4792.00,1.24
4791.00,1.24
4790.00,1.24
4789.00,1.24
4788.00,1.24
4787.00,1.24
4786.00,1.24
4785.00,1.24
4784.00,1.24
4783.00,1.25
4782.00,1.25
4781.00,1.25
4780.00,1.25
4779.00,1.25
4778.00,1.25
4777.00,1.26
4776.00,1.26
4775.00,1.26
4774.00,1.26
4773.00,1.26
4772.00,1.27
4771.00,1.27
4770.00,1.27
4769.00,1.27
4768.00,1.27
4767.00,1.27
4766.00,1.28
4765.00,1.28
4764.00,1.28
4763.00,1.28
4762.00,1.28
4761.00,1.28
4760.00,1.28
4759.00,1.29
4758.00,1.29
4757.00,1.29
4756.00,1.29
4755.00,1.29
4754.00,1.29
4753.00,1.29
4752.00,1.29
4751.00,1.29
4750.00,1.29
4749.00,1.29
4748.00,1.29
4747.00,1.29
4746.00,1.29
4745.00,1.29
4744.00,1.29
4743.00,1.29
4742.00,1.29
4741.00,1.30
4740.00,1.30
4739.00,1.30
4738.00,1.30
4737.00,1.30
4736.00,1.30
4735.00,1.30
4734.00,1.30
4733.00,1.31
4732.00,1.31
4731.00,1.31
4730.00,1.31
4729.00,1.31
4728.00,1.31
4727.00,1.31
4726.00,1.32
4725.00,1.32
4724.00,1.32
4723.00,1.32
4722.00,1.32
4721.00,1.32
4720.00,1.33
4719.00,1.33
4718.00,1.33
4717.00,1.33
4716.00,1.34
4715.00,1.34
4714.00,1.34
4713.00,1.34
4712.00,1.35
4711.00,1.35
4710.00,1.35
4709.00,1.35
4708.00,1.35
4707.00,1.36
4706.00,1.36
4705.00,1.36
4704.00,1.36
4703.00,1.36
4702.00,1.36
4701.00,1.36
4700.00,1.36
4699.00,1.36
4698.00,1.37
4697.00,1.37
4696.00,1.37
4695.00,1.37
4694.00,1.37
4693.00,1.37
4692.00,1.37
4691.00,1.37
4690.00,1.37
4689.00,1.37
4688.00,1.37
4687.00,1.37
4686.00,1.37
4685.00,1.37
4684.00,1.38
4683.00,1.38
4682.00,1.38
4681.00,1.38
4680.00,1.38
4679.00,1.38
4678.00,1.38
4677.00,1.39
4676.00,1.39
4675.00,1.39
4674.00,1.39
4673.00,1.39
4672.00,1.39
4671.00,1.39
4670.00,1.39
4669.00,1.40
4668.00,1.40
4667.00,1.40
4666.00,1.40
4665.00,1.40
4664.00,1.40
4663.00,1.41
4662.00,1.41
4661.00,1.41
4660.00,1.41
4659.00,1.41
4658.00,1.42
4657.00,1.42
4656.00,1.42
4655.00,1.42
4654.00,1.42
4653.00,1.42
4652.00,1.42
4651.00,1.43
4650.00,1.43
4649.00,1.43
4648.00,1.43
4647.00,1.43
4646.00,1.43
4645.00,1.43
4644.00,1.43
4643.00,1.43
4642.00,1.43
4641.00,1.43
4640.00,1.44
4639.00,1.44
4638.00,1.44
4637.00,1.44
4636.00,1.44
4635.00,1.44
4634.00,1.44
4633.00,1.44
4632.00,1.44
4631.00,1.44
4630.00,1.44
4629.00,1.45
4628.00,1.45
4627.00,1.45
4626.00,1.45
4625.00,1.45
4624.00,1.45
4623.00,1.45
4622.00,1.45
4621.00,1.45
4620.00,1.45
4619.00,1.46
4618.00,1.46
4617.00,1.46
4616.00,1.46
4615.00,1.46
4614.00,1.46
4613.00,1.46
4612.00,1.46
4611.00,1.46
4610.00,1.46
4609.00,1.46
4608.00,1.46
4607.00,1.46
4606.00,1.46
4605.00,1.46
4604.00,1.47
4603.00,1.47
4602.00,1.47
4601.00,1.47
4600.00,1.47
4599.00,1.47
4598.00,1.47
4597.00,1.47
4596.00,1.47
4595.00,1.47
4594.00,1.48
4593.00,1.48
4592.00,1.48
4591.00,1.48
4590.00,1.48
4589.00,1.48
4588.00,1.48
4587.00,1.48
4586.00,1.49
4585.00,1.49
4584.00,1.49
4583.00,1.49
4582.00,1.49
4581.00,1.49
4580.00,1.49
4579.00,1.50
4578.00,1.50
4577.00,1.50
4576.00,1.50
4575.00,1.50
4574.00,1.50
4573.00,1.50
4572.00,1.50
4571.00,1.50
4570.00,1.50
4569.00,1.50
4568.00,1.51
4567.00,1.51
4566.00,1.51
4565.00,1.51
4564.00,1.51
4563.00,1.51
4562.00,1.51
4561.00,1.51
4560.00,1.51
4559.00,1.52
4558.00,1.52
4557.00,1.52
4556.00,1.52
4555.00,1.52
4554.00,1.52
4553.00,1.52
4552.00,1.53
4551.00,1.53
4550.00,1.53
4549.00,1.53
4548.00,1.53
4547.00,1.53
4546.00,1.53
4545.00,1.53
4544.00,1.53
4543.00,1.53
4542.00,1.53
4541.00,1.53
4540.00,1.53
4539.00,1.54
4538.00,1.54
4537.00,1.54
4536.00,1.54
4535.00,1.54
4534.00,1.54
4533.00,1.54
4532.00,1.54
4531.00,1.54
4530.00,1.54
4529.00,1.54
4528.00,1.54
4527.00,1.54
4526.00,1.54
4525.00,1.54
4524.00,1.54
4523.00,1.54
4522.00,1.54
4521.00,1.54
4520.00,1.54
4519.00,1.54
4518.00,1.54
4517.00,1.54
4516.00,1.54
4515.00,1.54
4514.00,1.54
4513.00,1.54
4512.00,1.54
4511.00,1.54
4510.00,1.54
4509.00,1.54
4508.00,1.54
4507.00,1.54
4506.00,1.54
4505.00,1.54
4504.00,1.54
4503.00,1.54
4502.00,1.54
4501.00,1.54
4500.00,1.54
4499.00,1.54
4498.00,1.54
4497.00,1.54
4496.00,1.54
4495.00,1.54
4494.00,1.54
4493.00,1.54
4492.00,1.53
4491.00,1.53
4490.00,1.53
4489.00,1.53
4488.00,1.53
4487.00,1.53
4486.00,1.53
4485.00,1.53
4484.00,1.53
4483.00,1.53
4482.00,1.53
4481.00,1.53
4480.00,1.53
4479.00,1.53
4478.00,1.53
4477.00,1.53
4476.00,1.53
4475.00,1.53
4474.00,1.52
4473.00,1.52
4472.00,1.52
4471.00,1.52
4470.00,1.52
4469.00,1.52
4468.00,1.52
4467.00,1.51
4466.00,1.51
4465.00,1.51
4464.00,1.51
4463.00,1.51
4462.00,1.51
4461.00,1.51
4460.00,1.50
4459.00,1.50
4458.00,1.50
4457.00,1.50
4456.00,1.50
4455.00,1.50
4454.00,1.49
4453.00,1.49
4452.00,1.49
4451.00,1.49
4450.00,1.48
4449.00,1.48
4448.00,1.48
4447.00,1.48
4446.00,1.48
4445.00,1.47
4444.00,1.47
4443.00,1.47
4442.00,1.47
4441.00,1.46
4440.00,1.46
4439.00,1.46
4438.00,1.46
4437.00,1.46
4436.00,1.45
4435.00,1.45
4434.00,1.45
4433.00,1.45
4432.00,1.45
4431.00,1.45
4430.00,1.45
4429.00,1.45
4428.00,1.45
4427.00,1.45
4426.00,1.44
4425.00,1.44
4424.00,1.44
4423.00,1.44
4422.00,1.44
4421.00,1.44
4420.00,1.44
4419.00,1.44
4418.00,1.44
4417.00,1.44
4416.00,1.44
4415.00,1.44
4414.00,1.44
4413.00,1.44
4412.00,1.44
4411.00,1.45
4410.00,1.45
4409.00,1.45
4408.00,1.45
4407.00,1.45
4406.00,1.45
4405.00,1.45
4404.00,1.45
4403.00,1.45
4402.00,1.45
4401.00,1.45
4400.00,1.45
4399.00,1.45
4398.00,1.45
4397.00,1.45
4396.00,1.45
4395.00,1.45
4394.00,1.45
4393.00,1.45
4392.00,1.46
4391.00,1.46
4390.00,1.46
4389.00,1.46
4388.00,1.46
4387.00,1.46
4386.00,1.47
4385.00,1.47
4384.00,1.47
4383.00,1.47
4382.00,1.47
4381.00,1.47
4380.00,1.47
4379.00,1.47
4378.00,1.48
4377.00,1.48
4376.00,1.48
4375.00,1.48
4374.00,1.48
4373.00,1.48
4372.00,1.48
4371.00,1.48
4370.00,1.47
4369.00,1.47
4368.00,1.47
4367.00,1.47
4366.00,1.47
4365.00,1.47
4364.00,1.47
4363.00,1.47
4362.00,1.47
4361.00,1.47
4360.00,1.47
4359.00,1.47
4358.00,1.47
4357.00,1.47
4356.00,1.47
4355.00,1.47
4354.00,1.47
4353.00,1.47
4352.00,1.48
4351.00,1.48
4350.00,1.48
4349.00,1.48
4348.00,1.48
4347.00,1.48
4346.00,1.48
4345.00,1.48
4344.00,1.48
4343.00,1.48
4342.00,1.49
4341.00,1.49
4340.00,1.49
4339.00,1.49
4338.00,1.49
4337.00,1.49
4336.00,1.49
4335.00,1.49
4334.00,1.49
4333.00,1.49
4332.00,1.49
4331.00,1.50
4330.00,1.50
4329.00,1.50
4328.00,1.50
4327.00,1.50
4326.00,1.50
4325.00,1.50
4324.00,1.50
4323.00,1.50
4322.00,1.50
4321.00,1.50
4320.00,1.50
4319.00,1.50
4318.00,1.50
4317.00,1.50
4316.00,1.50
4315.00,1.50
4314.00,1.50
4313.00,1.51
4312.00,1.51
4311.00,1.51
4310.00,1.51
4309.00,1.51
4308.00,1.51
4307.00,1.51
4306.00,1.52
4305.00,1.52
4304.00,1.52
4303.00,1.52
4302.00,1.52
4301.00,1.52
4300.00,1.53
4299.00,1.53
4298.00,1.53
4297.00,1.53
4296.00,1.53
4295.00,1.54
4294.00,1.54
4293.00,1.54
4292.00,1.54
4291.00,1.54
4290.00,1.55
4289.00,1.55
4288.00,1.55
4287.00,1.55
4286.00,1.55
4285.00,1.55
4284.00,1.56
4283.00,1.56
4282.00,1.56
4281.00,1.56
4280.00,1.56
4279.00,1.56
4278.00,1.56
4277.00,1.56
4276.00,1.56
4275.00,1.56
4274.00,1.56
4273.00,1.56
4272.00,1.56
4271.00,1.56
4270.00,1.56
4269.00,1.56
4268.00,1.56
4267.00,1.56
4266.00,1.56
4265.00,1.56
4264.00,1.56
4263.00,1.56
4262.00,1.55
4261.00,1.55
4260.00,1.55
4259.00,1.55
4258.00,1.55
4257.00,1.56
4256.00,1.56
4255.00,1.56
4254.00,1.56
4253.00,1.56
4252.00,1.56
4251.00,1.56
4250.00,1.56
4249.00,1.56
4248.00,1.57
4247.00,1.57
4246.00,1.57
4245.00,1.57
4244.00,1.57
4243.00,1.57
4242.00,1.58
4241.00,1.58
4240.00,1.58
4239.00,1.58
4238.00,1.59
4237.00,1.59
4236.00,1.59
4235.00,1.59
4234.00,1.60
4233.00,1.60
4232.00,1.60
4231.00,1.60
4230.00,1.60
4229.00,1.60
4228.00,1.60
4227.00,1.60
4226.00,1.60
4225.00,1.60
4224.00,1.60
4223.00,1.60
4222.00,1.60
4221.00,1.60
4220.00,1.60
4219.00,1.60
4218.00,1.60
4217.00,1.59
4216.00,1.59
4215.00,1.59
4214.00,1.59
4213.00,1.59
4212.00,1.59
4211.00,1.59
4210.00,1.59
4209.00,1.59
4208.00,1.59
4207.00,1.59
4206.00,1.59
4205.00,1.59
4204.00,1.59
4203.00,1.59
4202.00,1.59
4201.00,1.59
4200.00,1.59
4199.00,1.60
4198.00,1.60
4197.00,1.60
4196.00,1.60
4195.00,1.60
4194.00,1.60
4193.00,1.60
4192.00,1.60
4191.00,1.60
4190.00,1.61
4189.00,1.61
4188.00,1.61
4187.00,1.61
4186.00,1.61
4185.00,1.61
4184.00,1.61
4183.00,1.61
4182.00,1.61
4181.00,1.62
4180.00,1.62
4179.00,1.62
4178.00,1.62
4177.00,1.62
4176.00,1.62
4175.00,1.63
4174.00,1.63
4173.00,1.63
4172.00,1.63
4171.00,1.63
4170.00,1.64
4169.00,1.64
4168.00,1.64
4167.00,1.64
4166.00,1.64
4165.00,1.64
4164.00,1.64
4163.00,1.65
4162.00,1.65
4161.00,1.65
4160.00,1.65
4159.00,1.65
4158.00,1.65
4157.00,1.65
4156.00,1.65
4155.00,1.65
4154.00,1.65
4153.00,1.65
4152.00,1.65
4151.00,1.65
4150.00,1.65
4149.00,1.65
4148.00,1.65
4147.00,1.66
4146.00,1.66
4145.00,1.66
4144.00,1.66
4143.00,1.66
4142.00,1.66
4141.00,1.66
4140.00,1.66
4139.00,1.66
4138.00,1.66
4137.00,1.66
4136.00,1.66
4135.00,1.66
4134.00,1.66
4133.00,1.66
4132.00,1.66
4131.00,1.66
4130.00,1.66
4129.00,1.66
4128.00,1.66
4127.00,1.66
4126.00,1.66
4125.00,1.66
4124.00,1.66
4123.00,1.66
4122.00,1.66
4121.00,1.66
4120.00,1.66
4119.00,1.67
4118.00,1.67
4117.00,1.67
4116.00,1.67
4115.00,1.67
4114.00,1.67
4113.00,1.67
4112.00,1.67
4111.00,1.68
4110.00,1.68
4109.00,1.68
4108.00,1.68
4107.00,1.68
4106.00,1.68
4105.00,1.68
4104.00,1.68
4103.00,1.68
4102.00,1.68
4101.00,1.69
4100.00,1.69
4099.00,1.69
4098.00,1.69
4097.00,1.69
4096.00,1.69
4095.00,1.69
4094.00,1.69
4093.00,1.69
4092.00,1.69
4091.00,1.69
4090.00,1.69
4089.00,1.69
4088.00,1.69
4087.00,1.69
4086.00,1.69
4085.00,1.69
4084.00,1.68
4083.00,1.68
4082.00,1.68
4081.00,1.68
4080.00,1.68
4079.00,1.68
4078.00,1.68
4077.00,1.68
4076.00,1.68
4075.00,1.69
4074.00,1.69
4073.00,1.69
4072.00,1.69
4071.00,1.69
4070.00,1.69
4069.00,1.69
4068.00,1.70
4067.00,1.70
4066.00,1.70
4065.00,1.70
4064.00,1.70
4063.00,1.70
4062.00,1.70
4061.00,1.71
4060.00,1.71
4059.00,1.71
4058.00,1.71
4057.00,1.71
4056.00,1.71
4055.00,1.71
4054.00,1.71
4053.00,1.71
4052.00,1.72
4051.00,1.72
4050.00,1.72
4049.00,1.72
4048.00,1.72
4047.00,1.73
4046.00,1.73
4045.00,1.73
4044.00,1.73
4043.00,1.73
4042.00,1.73
4041.00,1.74
4040.00,1.74
4039.00,1.74
4038.00,1.74
4037.00,1.74
4036.00,1.74
4035.00,1.74
4034.00,1.74
4033.00,1.74
4032.00,1.74
4031.00,1.74
4030.00,1.74
4029.00,1.74
4028.00,1.74
4027.00,1.74
4026.00,1.74
4025.00,1.73
4024.00,1.73
4023.00,1.74
4022.00,1.74
4021.00,1.74
4020.00,1.74
4019.00,1.74
4018.00,1.74
4017.00,1.74
4016.00,1.74
4015.00,1.75
4014.00,1.75
4013.00,1.75
4012.00,1.76
4011.00,1.76
4010.00,1.76
4009.00,1.77
4008.00,1.77
4007.00,1.77
4006.00,1.77
4005.00,1.78
4004.00,1.78
4003.00,1.78
4002.00,1.78
4001.00,1.78
4000.00,1.78
