创建为新数据集,样品 590 用户 Administrator 日期 星期一, 七月 16 2018
cm-1,%T
10000.00,1.64
9999.00,1.64
9998.00,1.64
9997.00,1.63
9996.00,1.63
9995.00,1.63
9994.00,1.63
9993.00,1.63
9992.00,1.62
9991.00,1.62
9990.00,1.62
9989.00,1.62
9988.00,1.62
9987.00,1.62
9986.00,1.63
9985.00,1.63
9984.00,1.63
9983.00,1.63
9982.00,1.63
9981.00,1.63
9980.00,1.63
9979.00,1.63
9978.00,1.63
9977.00,1.64
9976.00,1.64
9975.00,1.64
9974.00,1.64
9973.00,1.64
9972.00,1.64
9971.00,1.64
9970.00,1.64
9969.00,1.64
9968.00,1.64
9967.00,1.63
9966.00,1.63
9965.00,1.63
9964.00,1.63
9963.00,1.63
9962.00,1.63
9961.00,1.63
9960.00,1.62
9959.00,1.62
9958.00,1.62
9957.00,1.62
9956.00,1.62
9955.00,1.62
9954.00,1.62
9953.00,1.62
9952.00,1.62
9951.00,1.62
9950.00,1.62
9949.00,1.62
9948.00,1.62
9947.00,1.62
9946.00,1.62
9945.00,1.62
9944.00,1.62
9943.00,1.62
9942.00,1.62
9941.00,1.62
9940.00,1.62
9939.00,1.62
9938.00,1.62
9937.00,1.62
9936.00,1.63
9935.00,1.63
9934.00,1.63
9933.00,1.63
9932.00,1.62
9931.00,1.62
9930.00,1.62
9929.00,1.62
9928.00,1.62
9927.00,1.62
9926.00,1.62
9925.00,1.62
9924.00,1.62
9923.00,1.62
9922.00,1.62
9921.00,1.62
9920.00,1.62
9919.00,1.62
9918.00,1.62
9917.00,1.62
9916.00,1.62
9915.00,1.62
9914.00,1.62
9913.00,1.62
9912.00,1.61
9911.00,1.61
9910.00,1.61
9909.00,1.61
9908.00,1.61
9907.00,1.61
9906.00,1.61
9905.00,1.61
9904.00,1.61
9903.00,1.61
9902.00,1.61
9901.00,1.61
9900.00,1.61
9899.00,1.61
9898.00,1.61
9897.00,1.61
9896.00,1.61
9895.00,1.60
9894.00,1.60
9893.00,1.60
9892.00,1.60
9891.00,1.60
9890.00,1.60
9889.00,1.60
9888.00,1.59
9887.00,1.59
9886.00,1.59
9885.00,1.59
9884.00,1.59
9883.00,1.59
9882.00,1.59
9881.00,1.59
9880.00,1.59
9879.00,1.59
9878.00,1.59
9877.00,1.59
9876.00,1.59
9875.00,1.60
9874.00,1.60
9873.00,1.60
9872.00,1.60
9871.00,1.60
9870.00,1.60
9869.00,1.60
9868.00,1.60
9867.00,1.60
9866.00,1.60
9865.00,1.60
9864.00,1.60
9863.00,1.61
9862.00,1.61
9861.00,1.61
9860.00,1.61
9859.00,1.61
9858.00,1.61
9857.00,1.61
9856.00,1.61
9855.00,1.61
9854.00,1.61
9853.00,1.61
9852.00,1.62
9851.00,1.62
9850.00,1.62
9849.00,1.61
9848.00,1.61
9847.00,1.61
9846.00,1.61
9845.00,1.61
9844.00,1.61
9843.00,1.61
9842.00,1.61
9841.00,1.61
9840.00,1.61
9839.00,1.61
9838.00,1.61
9837.00,1.61
9836.00,1.61
9835.00,1.61
9834.00,1.61
9833.00,1.61
9832.00,1.61
9831.00,1.61
9830.00,1.61
9829.00,1.61
9828.00,1.61
9827.00,1.61
9826.00,1.61
9825.00,1.61
9824.00,1.61
9823.00,1.61
9822.00,1.62
9821.00,1.62
9820.00,1.62
9819.00,1.62
9818.00,1.62
9817.00,1.62
9816.00,1.62
9815.00,1.62
9814.00,1.62
9813.00,1.62
9812.00,1.62
9811.00,1.62
9810.00,1.62
9809.00,1.63
9808.00,1.63
9807.00,1.63
9806.00,1.63
9805.00,1.63
9804.00,1.63
9803.00,1.63
9802.00,1.63
9801.00,1.64
9800.00,1.64
9799.00,1.64
9798.00,1.64
9797.00,1.64
9796.00,1.64
9795.00,1.64
9794.00,1.64
9793.00,1.63
9792.00,1.63
9791.00,1.63
9790.00,1.63
9789.00,1.63
9788.00,1.63
9787.00,1.62
9786.00,1.62
9785.00,1.62
9784.00,1.62
9783.00,1.62
9782.00,1.61
9781.00,1.61
9780.00,1.61
9779.00,1.61
9778.00,1.61
9777.00,1.61
9776.00,1.61
9775.00,1.61
9774.00,1.61
9773.00,1.61
9772.00,1.61
9771.00,1.61
9770.00,1.61
9769.00,1.61
9768.00,1.61
9767.00,1.61
9766.00,1.61
9765.00,1.61
9764.00,1.61
9763.00,1.61
9762.00,1.61
9761.00,1.61
9760.00,1.62
9759.00,1.62
9758.00,1.62
9757.00,1.62
9756.00,1.62
9755.00,1.62
9754.00,1.62
9753.00,1.62
9752.00,1.62
9751.00,1.62
9750.00,1.62
9749.00,1.61
9748.00,1.61
9747.00,1.61
9746.00,1.61
9745.00,1.61
9744.00,1.61
9743.00,1.61
9742.00,1.61
9741.00,1.61
9740.00,1.61
9739.00,1.61
9738.00,1.61
9737.00,1.61
9736.00,1.61
9735.00,1.61
9734.00,1.61
9733.00,1.61
9732.00,1.61
9731.00,1.61
9730.00,1.61
9729.00,1.61
9728.00,1.62
9727.00,1.62
9726.00,1.62
9725.00,1.62
9724.00,1.62
9723.00,1.62
9722.00,1.62
9721.00,1.62
9720.00,1.62
9719.00,1.62
9718.00,1.62
9717.00,1.62
9716.00,1.62
9715.00,1.62
9714.00,1.62
9713.00,1.62
9712.00,1.62
9711.00,1.62
9710.00,1.62
9709.00,1.62
9708.00,1.62
9707.00,1.62
9706.00,1.62
9705.00,1.62
9704.00,1.63
9703.00,1.63
9702.00,1.63
9701.00,1.63
9700.00,1.63
9699.00,1.63
9698.00,1.63
9697.00,1.63
9696.00,1.64
9695.00,1.64
9694.00,1.64
9693.00,1.64
9692.00,1.64
9691.00,1.64
9690.00,1.64
9689.00,1.64
9688.00,1.63
9687.00,1.63
9686.00,1.63
9685.00,1.63
9684.00,1.63
9683.00,1.63
9682.00,1.63
9681.00,1.62
9680.00,1.62
9679.00,1.62
9678.00,1.62
9677.00,1.62
9676.00,1.62
9675.00,1.62
9674.00,1.62
9673.00,1.62
9672.00,1.62
9671.00,1.62
9670.00,1.62
9669.00,1.62
9668.00,1.63
9667.00,1.63
9666.00,1.63
9665.00,1.63
9664.00,1.63
9663.00,1.63
9662.00,1.63
9661.00,1.63
9660.00,1.63
9659.00,1.63
9658.00,1.62
9657.00,1.62
9656.00,1.62
9655.00,1.62
9654.00,1.62
9653.00,1.62
9652.00,1.62
9651.00,1.62
9650.00,1.62
9649.00,1.62
9648.00,1.62
9647.00,1.62
9646.00,1.62
9645.00,1.62
9644.00,1.62
9643.00,1.62
9642.00,1.62
9641.00,1.62
9640.00,1.62
9639.00,1.62
9638.00,1.62
9637.00,1.62
9636.00,1.62
9635.00,1.62
9634.00,1.62
9633.00,1.62
9632.00,1.62
9631.00,1.62
9630.00,1.62
9629.00,1.62
9628.00,1.61
9627.00,1.61
9626.00,1.61
9625.00,1.61
9624.00,1.61
9623.00,1.61
9622.00,1.61
9621.00,1.61
9620.00,1.61
9619.00,1.61
9618.00,1.61
9617.00,1.61
9616.00,1.61
9615.00,1.61
9614.00,1.61
9613.00,1.61
9612.00,1.61
9611.00,1.61
9610.00,1.62
9609.00,1.62
9608.00,1.62
9607.00,1.62
9606.00,1.62
9605.00,1.62
9604.00,1.62
9603.00,1.62
9602.00,1.62
9601.00,1.62
9600.00,1.62
9599.00,1.62
9598.00,1.62
9597.00,1.62
9596.00,1.62
9595.00,1.62
9594.00,1.62
9593.00,1.62
9592.00,1.62
9591.00,1.62
9590.00,1.62
9589.00,1.62
9588.00,1.62
9587.00,1.62
9586.00,1.62
9585.00,1.62
9584.00,1.62
9583.00,1.62
9582.00,1.62
9581.00,1.63
9580.00,1.63
9579.00,1.63
9578.00,1.63
9577.00,1.63
9576.00,1.63
9575.00,1.63
9574.00,1.63
9573.00,1.63
9572.00,1.63
9571.00,1.63
9570.00,1.63
9569.00,1.63
9568.00,1.63
9567.00,1.63
9566.00,1.63
9565.00,1.62
9564.00,1.62
9563.00,1.62
9562.00,1.62
9561.00,1.62
9560.00,1.62
9559.00,1.62
9558.00,1.62
9557.00,1.62
9556.00,1.62
9555.00,1.62
9554.00,1.62
9553.00,1.62
9552.00,1.62
9551.00,1.62
9550.00,1.62
9549.00,1.62
9548.00,1.62
9547.00,1.62
9546.00,1.62
9545.00,1.62
9544.00,1.63
9543.00,1.63
9542.00,1.63
9541.00,1.63
9540.00,1.63
9539.00,1.63
9538.00,1.63
9537.00,1.63
9536.00,1.63
9535.00,1.63
9534.00,1.63
9533.00,1.63
9532.00,1.63
9531.00,1.63
9530.00,1.63
9529.00,1.63
9528.00,1.62
9527.00,1.62
9526.00,1.62
9525.00,1.62
9524.00,1.62
9523.00,1.62
9522.00,1.62
9521.00,1.61
9520.00,1.61
9519.00,1.61
9518.00,1.61
9517.00,1.61
9516.00,1.61
9515.00,1.61
9514.00,1.61
9513.00,1.61
9512.00,1.61
9511.00,1.61
9510.00,1.61
9509.00,1.61
9508.00,1.61
9507.00,1.61
9506.00,1.62
9505.00,1.62
9504.00,1.62
9503.00,1.62
9502.00,1.62
9501.00,1.62
9500.00,1.62
9499.00,1.62
9498.00,1.62
9497.00,1.62
9496.00,1.62
9495.00,1.62
9494.00,1.62
9493.00,1.62
9492.00,1.62
9491.00,1.62
9490.00,1.62
9489.00,1.61
9488.00,1.61
9487.00,1.61
9486.00,1.61
9485.00,1.61
9484.00,1.61
9483.00,1.61
9482.00,1.61
9481.00,1.61
9480.00,1.61
9479.00,1.61
9478.00,1.61
9477.00,1.61
9476.00,1.62
9475.00,1.62
9474.00,1.62
9473.00,1.62
9472.00,1.62
9471.00,1.62
9470.00,1.62
9469.00,1.62
9468.00,1.62
9467.00,1.62
9466.00,1.62
9465.00,1.62
9464.00,1.62
9463.00,1.62
9462.00,1.62
9461.00,1.62
9460.00,1.62
9459.00,1.62
9458.00,1.62
9457.00,1.62
9456.00,1.62
9455.00,1.62
9454.00,1.62
9453.00,1.62
9452.00,1.62
9451.00,1.61
9450.00,1.61
9449.00,1.61
9448.00,1.61
9447.00,1.61
9446.00,1.61
9445.00,1.61
9444.00,1.61
9443.00,1.61
9442.00,1.61
9441.00,1.61
9440.00,1.61
9439.00,1.60
9438.00,1.60
9437.00,1.60
9436.00,1.60
9435.00,1.60
9434.00,1.60
9433.00,1.60
9432.00,1.60
9431.00,1.60
9430.00,1.60
9429.00,1.60
9428.00,1.61
9427.00,1.61
9426.00,1.61
9425.00,1.61
9424.00,1.61
9423.00,1.62
9422.00,1.62
9421.00,1.62
9420.00,1.62
9419.00,1.63
9418.00,1.63
9417.00,1.63
9416.00,1.63
9415.00,1.63
9414.00,1.63
9413.00,1.63
9412.00,1.63
9411.00,1.63
9410.00,1.63
9409.00,1.63
9408.00,1.63
9407.00,1.63
9406.00,1.63
9405.00,1.63
9404.00,1.63
9403.00,1.63
9402.00,1.63
9401.00,1.62
9400.00,1.62
9399.00,1.62
9398.00,1.62
9397.00,1.62
9396.00,1.62
9395.00,1.62
9394.00,1.62
9393.00,1.62
9392.00,1.62
9391.00,1.62
9390.00,1.62
9389.00,1.62
9388.00,1.62
9387.00,1.62
9386.00,1.62
9385.00,1.62
9384.00,1.63
9383.00,1.63
9382.00,1.63
9381.00,1.63
9380.00,1.63
9379.00,1.63
9378.00,1.63
9377.00,1.63
9376.00,1.63
9375.00,1.63
9374.00,1.63
9373.00,1.63
9372.00,1.63
9371.00,1.63
9370.00,1.63
9369.00,1.63
9368.00,1.63
9367.00,1.63
9366.00,1.63
9365.00,1.62
9364.00,1.62
9363.00,1.62
9362.00,1.62
9361.00,1.62
9360.00,1.62
9359.00,1.62
9358.00,1.62
9357.00,1.62
9356.00,1.62
9355.00,1.62
9354.00,1.62
9353.00,1.62
9352.00,1.62
9351.00,1.62
9350.00,1.62
9349.00,1.62
9348.00,1.62
9347.00,1.62
9346.00,1.62
9345.00,1.62
9344.00,1.62
9343.00,1.62
9342.00,1.62
9341.00,1.62
9340.00,1.62
9339.00,1.62
9338.00,1.61
9337.00,1.61
9336.00,1.61
9335.00,1.61
9334.00,1.61
9333.00,1.61
9332.00,1.61
9331.00,1.61
9330.00,1.61
9329.00,1.61
9328.00,1.61
9327.00,1.61
9326.00,1.61
9325.00,1.61
9324.00,1.61
9323.00,1.61
9322.00,1.61
9321.00,1.61
9320.00,1.62
9319.00,1.62
9318.00,1.62
9317.00,1.62
9316.00,1.62
9315.00,1.62
9314.00,1.62
9313.00,1.62
9312.00,1.62
9311.00,1.62
9310.00,1.62
9309.00,1.62
9308.00,1.62
9307.00,1.62
9306.00,1.62
9305.00,1.62
9304.00,1.62
9303.00,1.62
9302.00,1.62
9301.00,1.62
9300.00,1.62
9299.00,1.62
9298.00,1.62
9297.00,1.62
9296.00,1.62
9295.00,1.62
9294.00,1.62
9293.00,1.62
9292.00,1.62
9291.00,1.62
9290.00,1.62
9289.00,1.62
9288.00,1.62
9287.00,1.62
9286.00,1.62
9285.00,1.62
9284.00,1.62
9283.00,1.62
9282.00,1.62
9281.00,1.62
9280.00,1.62
9279.00,1.62
9278.00,1.62
9277.00,1.62
9276.00,1.62
9275.00,1.62
9274.00,1.62
9273.00,1.62
9272.00,1.62
9271.00,1.61
9270.00,1.61
9269.00,1.61
9268.00,1.61
9267.00,1.61
9266.00,1.61
9265.00,1.61
9264.00,1.61
9263.00,1.60
9262.00,1.60
9261.00,1.60
9260.00,1.60
9259.00,1.60
9258.00,1.60
9257.00,1.60
9256.00,1.59
9255.00,1.59
9254.00,1.59
9253.00,1.59
9252.00,1.59
9251.00,1.59
9250.00,1.59
9249.00,1.59
9248.00,1.59
9247.00,1.59
9246.00,1.59
9245.00,1.59
9244.00,1.59
9243.00,1.59
9242.00,1.59
9241.00,1.60
9240.00,1.60
9239.00,1.60
9238.00,1.60
9237.00,1.60
9236.00,1.60
9235.00,1.61
9234.00,1.61
9233.00,1.61
9232.00,1.61
9231.00,1.61
9230.00,1.61
9229.00,1.61
9228.00,1.62
9227.00,1.62
9226.00,1.62
9225.00,1.62
9224.00,1.62
9223.00,1.62
9222.00,1.62
9221.00,1.62
9220.00,1.62
9219.00,1.62
9218.00,1.62
9217.00,1.62
9216.00,1.62
9215.00,1.62
9214.00,1.62
9213.00,1.62
9212.00,1.62
9211.00,1.62
9210.00,1.61
9209.00,1.61
9208.00,1.61
9207.00,1.61
9206.00,1.61
9205.00,1.61
9204.00,1.61
9203.00,1.61
9202.00,1.61
9201.00,1.61
9200.00,1.61
9199.00,1.61
9198.00,1.61
9197.00,1.61
9196.00,1.61
9195.00,1.61
9194.00,1.61
9193.00,1.61
9192.00,1.61
9191.00,1.61
9190.00,1.61
9189.00,1.61
9188.00,1.61
9187.00,1.61
9186.00,1.61
9185.00,1.61
9184.00,1.61
9183.00,1.61
9182.00,1.61
9181.00,1.61
9180.00,1.61
9179.00,1.61
9178.00,1.61
9177.00,1.61
9176.00,1.61
9175.00,1.61
9174.00,1.61
9173.00,1.61
9172.00,1.61
9171.00,1.61
9170.00,1.61
9169.00,1.61
9168.00,1.61
9167.00,1.61
9166.00,1.61
9165.00,1.61
9164.00,1.61
9163.00,1.61
9162.00,1.61
9161.00,1.61
9160.00,1.61
9159.00,1.61
9158.00,1.61
9157.00,1.61
9156.00,1.61
9155.00,1.60
9154.00,1.60
9153.00,1.60
9152.00,1.60
9151.00,1.60
9150.00,1.60
9149.00,1.60
9148.00,1.60
9147.00,1.60
9146.00,1.60
9145.00,1.60
9144.00,1.60
9143.00,1.60
9142.00,1.60
9141.00,1.60
9140.00,1.60
9139.00,1.60
9138.00,1.60
9137.00,1.60
9136.00,1.60
9135.00,1.60
9134.00,1.60
9133.00,1.60
9132.00,1.60
9131.00,1.60
9130.00,1.60
9129.00,1.60
9128.00,1.61
9127.00,1.61
9126.00,1.61
9125.00,1.61
9124.00,1.61
9123.00,1.61
9122.00,1.61
9121.00,1.61
9120.00,1.61
9119.00,1.61
9118.00,1.61
9117.00,1.61
9116.00,1.61
9115.00,1.61
9114.00,1.61
9113.00,1.61
9112.00,1.61
9111.00,1.61
9110.00,1.61
9109.00,1.61
9108.00,1.61
9107.00,1.61
9106.00,1.62
9105.00,1.62
9104.00,1.62
9103.00,1.62
9102.00,1.62
9101.00,1.62
9100.00,1.62
9099.00,1.63
9098.00,1.63
9097.00,1.63
9096.00,1.63
9095.00,1.63
9094.00,1.63
9093.00,1.63
9092.00,1.63
9091.00,1.63
9090.00,1.63
9089.00,1.63
9088.00,1.63
9087.00,1.63
9086.00,1.63
9085.00,1.63
9084.00,1.63
9083.00,1.63
9082.00,1.63
9081.00,1.63
9080.00,1.63
9079.00,1.63
9078.00,1.63
9077.00,1.63
9076.00,1.64
9075.00,1.64
9074.00,1.64
9073.00,1.64
9072.00,1.64
9071.00,1.64
9070.00,1.64
9069.00,1.64
9068.00,1.64
9067.00,1.63
9066.00,1.63
9065.00,1.63
9064.00,1.63
9063.00,1.63
9062.00,1.63
9061.00,1.63
9060.00,1.63
9059.00,1.63
9058.00,1.63
9057.00,1.62
9056.00,1.62
9055.00,1.62
9054.00,1.62
9053.00,1.62
9052.00,1.62
9051.00,1.62
9050.00,1.62
9049.00,1.62
9048.00,1.62
9047.00,1.62
9046.00,1.62
9045.00,1.62
9044.00,1.62
9043.00,1.62
9042.00,1.62
9041.00,1.62
9040.00,1.62
9039.00,1.62
9038.00,1.62
9037.00,1.62
9036.00,1.62
9035.00,1.62
9034.00,1.62
9033.00,1.62
9032.00,1.62
9031.00,1.61
9030.00,1.61
9029.00,1.61
9028.00,1.61
9027.00,1.61
9026.00,1.61
9025.00,1.61
9024.00,1.61
9023.00,1.61
9022.00,1.61
9021.00,1.61
9020.00,1.61
9019.00,1.61
9018.00,1.61
9017.00,1.61
9016.00,1.61
9015.00,1.61
9014.00,1.61
9013.00,1.61
9012.00,1.61
9011.00,1.62
9010.00,1.62
9009.00,1.62
9008.00,1.62
9007.00,1.62
9006.00,1.62
9005.00,1.62
9004.00,1.62
9003.00,1.62
9002.00,1.62
9001.00,1.62
9000.00,1.62
8999.00,1.62
8998.00,1.62
8997.00,1.62
8996.00,1.62
8995.00,1.62
8994.00,1.62
8993.00,1.62
8992.00,1.62
8991.00,1.62
8990.00,1.62
8989.00,1.62
8988.00,1.62
8987.00,1.62
8986.00,1.62
8985.00,1.62
8984.00,1.62
8983.00,1.62
8982.00,1.62
8981.00,1.62
8980.00,1.62
8979.00,1.62
8978.00,1.62
8977.00,1.62
8976.00,1.62
8975.00,1.61
8974.00,1.61
8973.00,1.61
8972.00,1.61
8971.00,1.61
8970.00,1.61
8969.00,1.61
8968.00,1.60
8967.00,1.60
8966.00,1.60
8965.00,1.60
8964.00,1.60
8963.00,1.60
8962.00,1.60
8961.00,1.60
8960.00,1.60
8959.00,1.60
8958.00,1.60
8957.00,1.60
8956.00,1.60
8955.00,1.60
8954.00,1.60
8953.00,1.60
8952.00,1.60
8951.00,1.60
8950.00,1.60
8949.00,1.60
8948.00,1.60
8947.00,1.60
8946.00,1.60
8945.00,1.61
8944.00,1.61
8943.00,1.61
8942.00,1.61
8941.00,1.61
8940.00,1.61
8939.00,1.61
8938.00,1.61
8937.00,1.61
8936.00,1.61
8935.00,1.61
8934.00,1.61
8933.00,1.61
8932.00,1.61
8931.00,1.61
8930.00,1.61
8929.00,1.61
8928.00,1.61
8927.00,1.61
8926.00,1.62
8925.00,1.62
8924.00,1.62
8923.00,1.62
8922.00,1.62
8921.00,1.62
8920.00,1.62
8919.00,1.62
8918.00,1.62
8917.00,1.62
8916.00,1.62
8915.00,1.62
8914.00,1.62
8913.00,1.62
8912.00,1.62
8911.00,1.62
8910.00,1.62
8909.00,1.62
8908.00,1.62
8907.00,1.62
8906.00,1.62
8905.00,1.62
8904.00,1.62
8903.00,1.62
8902.00,1.62
8901.00,1.62
8900.00,1.62
8899.00,1.62
8898.00,1.62
8897.00,1.62
8896.00,1.62
8895.00,1.62
8894.00,1.62
8893.00,1.62
8892.00,1.62
8891.00,1.62
8890.00,1.62
8889.00,1.62
8888.00,1.62
8887.00,1.62
8886.00,1.62
8885.00,1.62
8884.00,1.62
8883.00,1.62
8882.00,1.62
8881.00,1.62
8880.00,1.62
8879.00,1.62
8878.00,1.62
8877.00,1.63
8876.00,1.63
8875.00,1.63
8874.00,1.63
8873.00,1.63
8872.00,1.63
8871.00,1.63
8870.00,1.63
8869.00,1.63
8868.00,1.63
8867.00,1.63
8866.00,1.63
8865.00,1.63
8864.00,1.63
8863.00,1.63
8862.00,1.63
8861.00,1.62
8860.00,1.62
8859.00,1.62
8858.00,1.62
8857.00,1.62
8856.00,1.62
8855.00,1.62
8854.00,1.62
8853.00,1.62
8852.00,1.62
8851.00,1.62
8850.00,1.62
8849.00,1.62
8848.00,1.62
8847.00,1.62
8846.00,1.62
8845.00,1.62
8844.00,1.62
8843.00,1.62
8842.00,1.62
8841.00,1.62
8840.00,1.62
8839.00,1.63
8838.00,1.63
8837.00,1.63
8836.00,1.63
8835.00,1.63
8834.00,1.62
8833.00,1.62
8832.00,1.62
8831.00,1.62
8830.00,1.62
8829.00,1.62
8828.00,1.62
8827.00,1.62
8826.00,1.62
8825.00,1.62
8824.00,1.62
8823.00,1.61
8822.00,1.61
8821.00,1.61
8820.00,1.61
8819.00,1.61
8818.00,1.61
8817.00,1.61
8816.00,1.60
8815.00,1.60
8814.00,1.60
8813.00,1.60
8812.00,1.60
8811.00,1.60
8810.00,1.60
8809.00,1.60
8808.00,1.59
8807.00,1.59
8806.00,1.59
8805.00,1.59
8804.00,1.59
8803.00,1.59
8802.00,1.59
8801.00,1.59
8800.00,1.59
8799.00,1.59
8798.00,1.59
8797.00,1.59
8796.00,1.59
8795.00,1.59
8794.00,1.59
8793.00,1.59
8792.00,1.59
8791.00,1.59
8790.00,1.59
8789.00,1.59
8788.00,1.59
8787.00,1.58
8786.00,1.58
8785.00,1.58
8784.00,1.58
8783.00,1.58
8782.00,1.58
8781.00,1.58
8780.00,1.58
8779.00,1.58
8778.00,1.58
8777.00,1.58
8776.00,1.58
8775.00,1.58
8774.00,1.58
8773.00,1.58
8772.00,1.57
8771.00,1.57
8770.00,1.57
8769.00,1.57
8768.00,1.57
8767.00,1.57
8766.00,1.57
8765.00,1.57
8764.00,1.57
8763.00,1.57
8762.00,1.57
8761.00,1.57
8760.00,1.57
8759.00,1.57
8758.00,1.57
8757.00,1.57
8756.00,1.58
8755.00,1.58
8754.00,1.58
8753.00,1.58
8752.00,1.58
8751.00,1.58
8750.00,1.58
8749.00,1.58
8748.00,1.58
8747.00,1.58
8746.00,1.58
8745.00,1.58
8744.00,1.58
8743.00,1.58
8742.00,1.58
8741.00,1.58
8740.00,1.58
8739.00,1.58
8738.00,1.58
8737.00,1.58
8736.00,1.58
8735.00,1.58
8734.00,1.58
8733.00,1.58
8732.00,1.58
8731.00,1.58
8730.00,1.58
8729.00,1.58
8728.00,1.58
8727.00,1.58
8726.00,1.58
8725.00,1.58
8724.00,1.58
8723.00,1.58
8722.00,1.58
8721.00,1.58
8720.00,1.58
8719.00,1.58
8718.00,1.57
8717.00,1.57
8716.00,1.57
8715.00,1.57
8714.00,1.57
8713.00,1.57
8712.00,1.57
8711.00,1.57
8710.00,1.57
8709.00,1.56
8708.00,1.56
8707.00,1.56
8706.00,1.56
8705.00,1.56
8704.00,1.56
8703.00,1.56
8702.00,1.56
8701.00,1.56
8700.00,1.56
8699.00,1.56
8698.00,1.56
8697.00,1.56
8696.00,1.56
8695.00,1.56
8694.00,1.56
8693.00,1.56
8692.00,1.56
8691.00,1.56
8690.00,1.56
8689.00,1.56
8688.00,1.56
8687.00,1.56
8686.00,1.56
8685.00,1.56
8684.00,1.56
8683.00,1.56
8682.00,1.56
8681.00,1.56
8680.00,1.56
8679.00,1.56
8678.00,1.56
8677.00,1.56
8676.00,1.56
8675.00,1.56
8674.00,1.56
8673.00,1.56
8672.00,1.56
8671.00,1.56
8670.00,1.56
8669.00,1.56
8668.00,1.56
8667.00,1.57
8666.00,1.57
8665.00,1.57
8664.00,1.57
8663.00,1.57
8662.00,1.57
8661.00,1.57
8660.00,1.57
8659.00,1.57
8658.00,1.57
8657.00,1.57
8656.00,1.56
8655.00,1.56
8654.00,1.56
8653.00,1.56
8652.00,1.56
8651.00,1.56
8650.00,1.56
8649.00,1.55
8648.00,1.55
8647.00,1.55
8646.00,1.55
8645.00,1.55
8644.00,1.55
8643.00,1.55
8642.00,1.55
8641.00,1.55
8640.00,1.55
8639.00,1.55
8638.00,1.55
8637.00,1.55
8636.00,1.55
8635.00,1.55
8634.00,1.56
8633.00,1.56
8632.00,1.56
8631.00,1.56
8630.00,1.56
8629.00,1.56
8628.00,1.56
8627.00,1.56
8626.00,1.56
8625.00,1.56
8624.00,1.56
8623.00,1.56
8622.00,1.56
8621.00,1.56
8620.00,1.56
8619.00,1.56
8618.00,1.56
8617.00,1.56
8616.00,1.56
8615.00,1.56
8614.00,1.56
8613.00,1.56
8612.00,1.56
8611.00,1.56
8610.00,1.56
8609.00,1.56
8608.00,1.56
8607.00,1.56
8606.00,1.56
8605.00,1.56
8604.00,1.56
8603.00,1.55
8602.00,1.55
8601.00,1.55
8600.00,1.55
8599.00,1.55
8598.00,1.55
8597.00,1.55
8596.00,1.55
8595.00,1.55
8594.00,1.55
8593.00,1.55
8592.00,1.55
8591.00,1.56
8590.00,1.56
8589.00,1.56
8588.00,1.56
8587.00,1.56
8586.00,1.56
8585.00,1.56
8584.00,1.56
8583.00,1.56
8582.00,1.56
8581.00,1.56
8580.00,1.56
8579.00,1.56
8578.00,1.56
8577.00,1.55
8576.00,1.55
8575.00,1.55
8574.00,1.55
8573.00,1.55
8572.00,1.55
8571.00,1.55
8570.00,1.54
8569.00,1.54
8568.00,1.54
8567.00,1.54
8566.00,1.54
8565.00,1.54
8564.00,1.54
8563.00,1.54
8562.00,1.53
8561.00,1.53
8560.00,1.53
8559.00,1.53
8558.00,1.53
8557.00,1.53
8556.00,1.53
8555.00,1.53
8554.00,1.53
8553.00,1.53
8552.00,1.53
8551.00,1.53
8550.00,1.53
8549.00,1.53
8548.00,1.53
8547.00,1.53
8546.00,1.53
8545.00,1.53
8544.00,1.53
8543.00,1.53
8542.00,1.53
8541.00,1.53
8540.00,1.53
8539.00,1.53
8538.00,1.53
8537.00,1.53
8536.00,1.53
8535.00,1.53
8534.00,1.53
8533.00,1.53
8532.00,1.53
8531.00,1.53
8530.00,1.53
8529.00,1.53
8528.00,1.53
8527.00,1.53
8526.00,1.53
8525.00,1.53
8524.00,1.53
8523.00,1.53
8522.00,1.53
8521.00,1.53
8520.00,1.53
8519.00,1.53
8518.00,1.53
8517.00,1.53
8516.00,1.53
8515.00,1.53
8514.00,1.53
8513.00,1.53
8512.00,1.53
8511.00,1.53
8510.00,1.52
8509.00,1.52
8508.00,1.52
8507.00,1.52
8506.00,1.52
8505.00,1.52
8504.00,1.51
8503.00,1.51
8502.00,1.51
8501.00,1.51
8500.00,1.51
8499.00,1.50
8498.00,1.50
8497.00,1.50
8496.00,1.50
8495.00,1.50
8494.00,1.49
8493.00,1.49
8492.00,1.49
8491.00,1.49
8490.00,1.49
8489.00,1.49
8488.00,1.49
8487.00,1.49
8486.00,1.49
8485.00,1.49
8484.00,1.49
8483.00,1.49
8482.00,1.49
8481.00,1.49
8480.00,1.49
8479.00,1.49
8478.00,1.49
8477.00,1.49
8476.00,1.49
8475.00,1.49
8474.00,1.49
8473.00,1.49
8472.00,1.49
8471.00,1.49
8470.00,1.49
8469.00,1.49
8468.00,1.49
8467.00,1.49
8466.00,1.49
8465.00,1.49
8464.00,1.48
8463.00,1.48
8462.00,1.48
8461.00,1.48
8460.00,1.48
8459.00,1.48
8458.00,1.48
8457.00,1.48
8456.00,1.48
8455.00,1.48
8454.00,1.48
8453.00,1.48
8452.00,1.47
8451.00,1.47
8450.00,1.47
8449.00,1.47
8448.00,1.47
8447.00,1.47
8446.00,1.47
8445.00,1.47
8444.00,1.47
8443.00,1.47
8442.00,1.47
8441.00,1.47
8440.00,1.47
8439.00,1.47
8438.00,1.47
8437.00,1.47
8436.00,1.47
8435.00,1.47
8434.00,1.47
8433.00,1.47
8432.00,1.47
8431.00,1.47
8430.00,1.47
8429.00,1.47
8428.00,1.47
8427.00,1.47
8426.00,1.47
8425.00,1.47
8424.00,1.47
8423.00,1.47
8422.00,1.47
8421.00,1.48
8420.00,1.48
8419.00,1.48
8418.00,1.48
8417.00,1.48
8416.00,1.48
8415.00,1.48
8414.00,1.48
8413.00,1.48
8412.00,1.48
8411.00,1.48
8410.00,1.48
8409.00,1.48
8408.00,1.49
8407.00,1.49
8406.00,1.49
8405.00,1.49
8404.00,1.49
8403.00,1.50
8402.00,1.50
8401.00,1.50
8400.00,1.50
8399.00,1.50
8398.00,1.50
8397.00,1.50
8396.00,1.50
8395.00,1.50
8394.00,1.50
8393.00,1.50
8392.00,1.50
8391.00,1.50
8390.00,1.50
8389.00,1.50
8388.00,1.50
8387.00,1.50
8386.00,1.50
8385.00,1.50
8384.00,1.50
8383.00,1.50
8382.00,1.51
8381.00,1.51
8380.00,1.51
8379.00,1.51
8378.00,1.51
8377.00,1.51
8376.00,1.51
8375.00,1.51
8374.00,1.51
8373.00,1.51
8372.00,1.51
8371.00,1.51
8370.00,1.51
8369.00,1.51
8368.00,1.51
8367.00,1.51
8366.00,1.51
8365.00,1.52
8364.00,1.52
8363.00,1.52
8362.00,1.52
8361.00,1.52
8360.00,1.52
8359.00,1.52
8358.00,1.52
8357.00,1.52
8356.00,1.52
8355.00,1.52
8354.00,1.52
8353.00,1.52
8352.00,1.52
8351.00,1.52
8350.00,1.52
8349.00,1.52
8348.00,1.51
8347.00,1.51
8346.00,1.51
8345.00,1.51
8344.00,1.51
8343.00,1.51
8342.00,1.51
8341.00,1.51
8340.00,1.51
8339.00,1.51
8338.00,1.51
8337.00,1.51
8336.00,1.51
8335.00,1.51
8334.00,1.51
8333.00,1.52
8332.00,1.52
8331.00,1.52
8330.00,1.52
8329.00,1.52
8328.00,1.52
8327.00,1.52
8326.00,1.52
8325.00,1.52
8324.00,1.52
8323.00,1.52
8322.00,1.53
8321.00,1.53
8320.00,1.53
8319.00,1.53
8318.00,1.53
8317.00,1.53
8316.00,1.53
8315.00,1.53
8314.00,1.53
8313.00,1.53
8312.00,1.53
8311.00,1.53
8310.00,1.53
8309.00,1.53
8308.00,1.53
8307.00,1.53
8306.00,1.53
8305.00,1.53
8304.00,1.53
8303.00,1.52
8302.00,1.52
8301.00,1.52
8300.00,1.52
8299.00,1.52
8298.00,1.52
8297.00,1.52
8296.00,1.52
8295.00,1.52
8294.00,1.52
8293.00,1.52
8292.00,1.52
8291.00,1.52
8290.00,1.52
8289.00,1.52
8288.00,1.52
8287.00,1.52
8286.00,1.52
8285.00,1.52
8284.00,1.52
8283.00,1.52
8282.00,1.52
8281.00,1.52
8280.00,1.52
8279.00,1.53
8278.00,1.53
8277.00,1.53
8276.00,1.53
8275.00,1.53
8274.00,1.53
8273.00,1.53
8272.00,1.53
8271.00,1.53
8270.00,1.53
8269.00,1.53
8268.00,1.53
8267.00,1.53
8266.00,1.53
8265.00,1.53
8264.00,1.53
8263.00,1.53
8262.00,1.53
8261.00,1.53
8260.00,1.53
8259.00,1.53
8258.00,1.54
8257.00,1.54
8256.00,1.54
8255.00,1.54
8254.00,1.54
8253.00,1.54
8252.00,1.54
8251.00,1.54
8250.00,1.54
8249.00,1.54
8248.00,1.54
8247.00,1.54
8246.00,1.54
8245.00,1.54
8244.00,1.54
8243.00,1.54
8242.00,1.54
8241.00,1.54
8240.00,1.54
8239.00,1.54
8238.00,1.54
8237.00,1.54
8236.00,1.54
8235.00,1.54
8234.00,1.54
8233.00,1.54
8232.00,1.54
8231.00,1.54
8230.00,1.54
8229.00,1.54
8228.00,1.54
8227.00,1.54
8226.00,1.54
8225.00,1.54
8224.00,1.54
8223.00,1.54
8222.00,1.55
8221.00,1.55
8220.00,1.55
8219.00,1.55
8218.00,1.55
8217.00,1.55
8216.00,1.55
8215.00,1.55
8214.00,1.55
8213.00,1.55
8212.00,1.55
8211.00,1.55
8210.00,1.55
8209.00,1.55
8208.00,1.55
8207.00,1.55
8206.00,1.55
8205.00,1.55
8204.00,1.55
8203.00,1.55
8202.00,1.55
8201.00,1.55
8200.00,1.55
8199.00,1.55
8198.00,1.55
8197.00,1.55
8196.00,1.55
8195.00,1.55
8194.00,1.55
8193.00,1.55
8192.00,1.55
8191.00,1.55
8190.00,1.55
8189.00,1.55
8188.00,1.55
8187.00,1.55
8186.00,1.55
8185.00,1.55
8184.00,1.55
8183.00,1.55
8182.00,1.55
8181.00,1.55
8180.00,1.55
8179.00,1.55
8178.00,1.55
8177.00,1.55
8176.00,1.55
8175.00,1.55
8174.00,1.55
8173.00,1.55
8172.00,1.55
8171.00,1.55
8170.00,1.55
8169.00,1.56
8168.00,1.56
8167.00,1.56
8166.00,1.56
8165.00,1.56
8164.00,1.56
8163.00,1.56
8162.00,1.56
8161.00,1.56
8160.00,1.56
8159.00,1.56
8158.00,1.56
8157.00,1.56
8156.00,1.56
8155.00,1.56
8154.00,1.57
8153.00,1.57
8152.00,1.57
8151.00,1.57
8150.00,1.57
8149.00,1.57
8148.00,1.57
8147.00,1.57
8146.00,1.57
8145.00,1.57
8144.00,1.57
8143.00,1.57
8142.00,1.57
8141.00,1.57
8140.00,1.57
8139.00,1.57
8138.00,1.57
8137.00,1.57
8136.00,1.57
8135.00,1.57
8134.00,1.57
8133.00,1.57
8132.00,1.57
8131.00,1.57
8130.00,1.57
8129.00,1.57
8128.00,1.57
8127.00,1.57
8126.00,1.57
8125.00,1.57
8124.00,1.57
8123.00,1.57
8122.00,1.57
8121.00,1.57
8120.00,1.57
8119.00,1.57
8118.00,1.57
8117.00,1.57
8116.00,1.58
8115.00,1.58
8114.00,1.58
8113.00,1.58
8112.00,1.58
8111.00,1.58
8110.00,1.58
8109.00,1.58
8108.00,1.58
8107.00,1.58
8106.00,1.58
8105.00,1.58
8104.00,1.58
8103.00,1.58
8102.00,1.57
8101.00,1.57
8100.00,1.57
8099.00,1.57
8098.00,1.57
8097.00,1.57
8096.00,1.57
8095.00,1.57
8094.00,1.57
8093.00,1.57
8092.00,1.57
8091.00,1.57
8090.00,1.57
8089.00,1.57
8088.00,1.57
8087.00,1.57
8086.00,1.57
8085.00,1.57
8084.00,1.57
8083.00,1.57
8082.00,1.57
8081.00,1.57
8080.00,1.57
8079.00,1.57
8078.00,1.57
8077.00,1.57
8076.00,1.57
8075.00,1.58
8074.00,1.58
8073.00,1.58
8072.00,1.58
8071.00,1.58
8070.00,1.58
8069.00,1.58
8068.00,1.58
8067.00,1.58
8066.00,1.58
8065.00,1.58
8064.00,1.58
8063.00,1.58
8062.00,1.58
8061.00,1.58
8060.00,1.58
8059.00,1.58
8058.00,1.58
8057.00,1.58
8056.00,1.58
8055.00,1.58
8054.00,1.58
8053.00,1.58
8052.00,1.58
8051.00,1.58
8050.00,1.58
8049.00,1.58
8048.00,1.58
8047.00,1.58
8046.00,1.58
8045.00,1.58
8044.00,1.58
8043.00,1.58
8042.00,1.58
8041.00,1.58
8040.00,1.58
8039.00,1.58
8038.00,1.58
8037.00,1.58
8036.00,1.58
8035.00,1.58
8034.00,1.58
8033.00,1.58
8032.00,1.58
8031.00,1.58
8030.00,1.58
8029.00,1.58
8028.00,1.58
8027.00,1.58
8026.00,1.58
8025.00,1.58
8024.00,1.58
8023.00,1.58
8022.00,1.58
8021.00,1.58
8020.00,1.58
8019.00,1.58
8018.00,1.58
8017.00,1.58
8016.00,1.58
8015.00,1.58
8014.00,1.58
8013.00,1.58
8012.00,1.58
8011.00,1.58
8010.00,1.58
8009.00,1.58
8008.00,1.58
8007.00,1.58
8006.00,1.59
8005.00,1.59
8004.00,1.59
8003.00,1.59
8002.00,1.59
8001.00,1.59
8000.00,1.59
7999.00,1.59
7998.00,1.59
7997.00,1.59
7996.00,1.59
7995.00,1.59
7994.00,1.59
7993.00,1.59
7992.00,1.59
7991.00,1.59
7990.00,1.59
7989.00,1.59
7988.00,1.59
7987.00,1.59
7986.00,1.59
7985.00,1.59
7984.00,1.59
7983.00,1.59
7982.00,1.59
7981.00,1.59
7980.00,1.60
7979.00,1.60
7978.00,1.60
7977.00,1.60
7976.00,1.60
7975.00,1.60
7974.00,1.60
7973.00,1.60
7972.00,1.60
7971.00,1.60
7970.00,1.60
7969.00,1.60
7968.00,1.60
7967.00,1.60
7966.00,1.60
7965.00,1.60
7964.00,1.60
7963.00,1.60
7962.00,1.60
7961.00,1.60
7960.00,1.60
7959.00,1.60
7958.00,1.60
7957.00,1.60
7956.00,1.60
7955.00,1.60
7954.00,1.60
7953.00,1.60
7952.00,1.60
7951.00,1.60
7950.00,1.60
7949.00,1.60
7948.00,1.60
7947.00,1.60
7946.00,1.60
7945.00,1.60
7944.00,1.60
7943.00,1.60
7942.00,1.60
7941.00,1.60
7940.00,1.60
7939.00,1.60
7938.00,1.60
7937.00,1.60
7936.00,1.60
7935.00,1.60
7934.00,1.60
7933.00,1.60
7932.00,1.60
7931.00,1.60
7930.00,1.60
7929.00,1.60
7928.00,1.60
7927.00,1.60
7926.00,1.60
7925.00,1.60
7924.00,1.60
7923.00,1.60
7922.00,1.60
7921.00,1.60
7920.00,1.60
7919.00,1.60
7918.00,1.60
7917.00,1.60
7916.00,1.60
7915.00,1.60
7914.00,1.60
7913.00,1.60
7912.00,1.60
7911.00,1.60
7910.00,1.60
7909.00,1.60
7908.00,1.60
7907.00,1.60
7906.00,1.60
7905.00,1.60
7904.00,1.60
7903.00,1.60
7902.00,1.60
7901.00,1.60
7900.00,1.60
7899.00,1.60
7898.00,1.60
7897.00,1.60
7896.00,1.60
7895.00,1.60
7894.00,1.60
7893.00,1.60
7892.00,1.60
7891.00,1.60
7890.00,1.60
7889.00,1.60
7888.00,1.60
7887.00,1.60
7886.00,1.60
7885.00,1.60
7884.00,1.60
7883.00,1.60
7882.00,1.60
7881.00,1.60
7880.00,1.60
7879.00,1.60
7878.00,1.60
7877.00,1.60
7876.00,1.60
7875.00,1.60
7874.00,1.60
7873.00,1.61
7872.00,1.61
7871.00,1.61
7870.00,1.61
7869.00,1.61
7868.00,1.61
7867.00,1.61
7866.00,1.61
7865.00,1.61
7864.00,1.61
7863.00,1.61
7862.00,1.61
7861.00,1.61
7860.00,1.61
7859.00,1.61
7858.00,1.61
7857.00,1.61
7856.00,1.61
7855.00,1.61
7854.00,1.61
7853.00,1.61
7852.00,1.62
7851.00,1.62
7850.00,1.62
7849.00,1.62
7848.00,1.62
7847.00,1.62
7846.00,1.62
7845.00,1.62
7844.00,1.62
7843.00,1.62
7842.00,1.62
7841.00,1.62
7840.00,1.62
7839.00,1.62
7838.00,1.62
7837.00,1.62
7836.00,1.62
7835.00,1.62
7834.00,1.62
7833.00,1.62
7832.00,1.62
7831.00,1.62
7830.00,1.62
7829.00,1.62
7828.00,1.62
7827.00,1.62
7826.00,1.62
7825.00,1.62
7824.00,1.62
7823.00,1.62
7822.00,1.62
7821.00,1.62
7820.00,1.62
7819.00,1.62
7818.00,1.62
7817.00,1.62
7816.00,1.62
7815.00,1.62
7814.00,1.62
7813.00,1.62
7812.00,1.62
7811.00,1.62
7810.00,1.62
7809.00,1.62
7808.00,1.62
7807.00,1.62
7806.00,1.62
7805.00,1.62
7804.00,1.62
7803.00,1.62
7802.00,1.62
7801.00,1.62
7800.00,1.62
7799.00,1.62
7798.00,1.62
7797.00,1.62
7796.00,1.62
7795.00,1.62
7794.00,1.62
7793.00,1.62
7792.00,1.62
7791.00,1.62
7790.00,1.62
7789.00,1.62
7788.00,1.62
7787.00,1.62
7786.00,1.62
7785.00,1.62
7784.00,1.62
7783.00,1.62
7782.00,1.62
7781.00,1.62
7780.00,1.62
7779.00,1.62
7778.00,1.62
7777.00,1.62
7776.00,1.62
7775.00,1.62
7774.00,1.62
7773.00,1.62
7772.00,1.62
7771.00,1.62
7770.00,1.62
7769.00,1.62
7768.00,1.62
7767.00,1.62
7766.00,1.62
7765.00,1.62
7764.00,1.62
7763.00,1.62
7762.00,1.62
7761.00,1.62
7760.00,1.62
7759.00,1.62
7758.00,1.62
7757.00,1.62
7756.00,1.62
7755.00,1.62
7754.00,1.62
7753.00,1.62
7752.00,1.62
7751.00,1.62
7750.00,1.62
7749.00,1.62
7748.00,1.62
7747.00,1.62
7746.00,1.62
7745.00,1.62
7744.00,1.62
7743.00,1.62
7742.00,1.62
7741.00,1.62
7740.00,1.62
7739.00,1.62
7738.00,1.63
7737.00,1.63
7736.00,1.63
7735.00,1.63
7734.00,1.63
7733.00,1.63
7732.00,1.63
7731.00,1.63
7730.00,1.63
7729.00,1.63
7728.00,1.64
7727.00,1.64
7726.00,1.64
7725.00,1.64
7724.00,1.64
7723.00,1.64
7722.00,1.64
7721.00,1.64
7720.00,1.64
7719.00,1.64
7718.00,1.64
7717.00,1.64
7716.00,1.64
7715.00,1.64
7714.00,1.64
7713.00,1.64
7712.00,1.63
7711.00,1.63
7710.00,1.63
7709.00,1.63
7708.00,1.63
7707.00,1.63
7706.00,1.63
7705.00,1.63
7704.00,1.63
7703.00,1.63
7702.00,1.63
7701.00,1.63
7700.00,1.63
7699.00,1.63
7698.00,1.63
7697.00,1.63
7696.00,1.63
7695.00,1.63
7694.00,1.63
7693.00,1.63
7692.00,1.63
7691.00,1.63
7690.00,1.63
7689.00,1.63
7688.00,1.63
7687.00,1.63
7686.00,1.63
7685.00,1.63
7684.00,1.63
7683.00,1.63
7682.00,1.63
7681.00,1.63
7680.00,1.63
7679.00,1.63
7678.00,1.63
7677.00,1.63
7676.00,1.63
7675.00,1.63
7674.00,1.63
7673.00,1.63
7672.00,1.64
7671.00,1.64
7670.00,1.64
7669.00,1.64
7668.00,1.64
7667.00,1.64
7666.00,1.64
7665.00,1.64
7664.00,1.64
7663.00,1.64
7662.00,1.64
7661.00,1.64
7660.00,1.64
7659.00,1.64
7658.00,1.64
7657.00,1.64
7656.00,1.64
7655.00,1.64
7654.00,1.64
7653.00,1.64
7652.00,1.64
7651.00,1.64
7650.00,1.64
7649.00,1.64
7648.00,1.64
7647.00,1.64
7646.00,1.64
7645.00,1.64
7644.00,1.63
7643.00,1.63
7642.00,1.63
7641.00,1.63
7640.00,1.63
7639.00,1.63
7638.00,1.63
7637.00,1.63
7636.00,1.63
7635.00,1.63
7634.00,1.63
7633.00,1.63
7632.00,1.63
7631.00,1.63
7630.00,1.63
7629.00,1.63
7628.00,1.63
7627.00,1.63
7626.00,1.63
7625.00,1.63
7624.00,1.63
7623.00,1.63
7622.00,1.63
7621.00,1.63
7620.00,1.63
7619.00,1.63
7618.00,1.63
7617.00,1.63
7616.00,1.63
7615.00,1.63
7614.00,1.64
7613.00,1.64
7612.00,1.64
7611.00,1.64
7610.00,1.64
7609.00,1.64
7608.00,1.64
7607.00,1.64
7606.00,1.64
7605.00,1.64
7604.00,1.63
7603.00,1.63
7602.00,1.63
7601.00,1.63
7600.00,1.63
7599.00,1.63
7598.00,1.63
7597.00,1.63
7596.00,1.63
7595.00,1.63
7594.00,1.63
7593.00,1.63
7592.00,1.63
7591.00,1.63
7590.00,1.63
7589.00,1.63
7588.00,1.63
7587.00,1.63
7586.00,1.63
7585.00,1.63
7584.00,1.63
7583.00,1.63
7582.00,1.63
7581.00,1.63
7580.00,1.63
7579.00,1.63
7578.00,1.62
7577.00,1.62
7576.00,1.62
7575.00,1.62
7574.00,1.62
7573.00,1.62
7572.00,1.62
7571.00,1.62
7570.00,1.63
7569.00,1.63
7568.00,1.63
7567.00,1.63
7566.00,1.63
7565.00,1.63
7564.00,1.63
7563.00,1.63
7562.00,1.63
7561.00,1.63
7560.00,1.63
7559.00,1.63
7558.00,1.63
7557.00,1.63
7556.00,1.63
7555.00,1.63
7554.00,1.63
7553.00,1.63
7552.00,1.63
7551.00,1.63
7550.00,1.63
7549.00,1.63
7548.00,1.63
7547.00,1.63
7546.00,1.63
7545.00,1.63
7544.00,1.63
7543.00,1.63
7542.00,1.63
7541.00,1.63
7540.00,1.63
7539.00,1.63
7538.00,1.63
7537.00,1.63
7536.00,1.63
7535.00,1.63
7534.00,1.63
7533.00,1.63
7532.00,1.63
7531.00,1.63
7530.00,1.63
7529.00,1.63
7528.00,1.62
7527.00,1.62
7526.00,1.62
7525.00,1.62
7524.00,1.62
7523.00,1.62
7522.00,1.62
7521.00,1.62
7520.00,1.62
7519.00,1.62
7518.00,1.62
7517.00,1.62
7516.00,1.62
7515.00,1.62
7514.00,1.62
7513.00,1.62
7512.00,1.62
7511.00,1.62
7510.00,1.62
7509.00,1.62
7508.00,1.62
7507.00,1.62
7506.00,1.62
7505.00,1.62
7504.00,1.62
7503.00,1.62
7502.00,1.62
7501.00,1.62
7500.00,1.62
7499.00,1.62
7498.00,1.62
7497.00,1.62
7496.00,1.62
7495.00,1.62
7494.00,1.62
7493.00,1.62
7492.00,1.62
7491.00,1.61
7490.00,1.61
7489.00,1.61
7488.00,1.61
7487.00,1.61
7486.00,1.61
7485.00,1.61
7484.00,1.61
7483.00,1.61
7482.00,1.61
7481.00,1.61
7480.00,1.61
7479.00,1.61
7478.00,1.60
7477.00,1.60
7476.00,1.60
7475.00,1.60
7474.00,1.60
7473.00,1.60
7472.00,1.60
7471.00,1.60
7470.00,1.60
7469.00,1.60
7468.00,1.60
7467.00,1.60
7466.00,1.60
7465.00,1.60
7464.00,1.60
7463.00,1.60
7462.00,1.60
7461.00,1.60
7460.00,1.60
7459.00,1.60
7458.00,1.60
7457.00,1.60
7456.00,1.60
7455.00,1.60
7454.00,1.60
7453.00,1.60
7452.00,1.60
7451.00,1.60
7450.00,1.60
7449.00,1.60
7448.00,1.59
7447.00,1.59
7446.00,1.59
7445.00,1.59
7444.00,1.59
7443.00,1.59
7442.00,1.59
7441.00,1.59
7440.00,1.59
7439.00,1.59
7438.00,1.59
7437.00,1.59
7436.00,1.59
7435.00,1.59
7434.00,1.59
7433.00,1.59
7432.00,1.59
7431.00,1.59
7430.00,1.59
7429.00,1.59
7428.00,1.59
7427.00,1.58
7426.00,1.58
7425.00,1.58
7424.00,1.58
7423.00,1.58
7422.00,1.58
7421.00,1.58
7420.00,1.58
7419.00,1.58
7418.00,1.58
7417.00,1.57
7416.00,1.57
7415.00,1.57
7414.00,1.57
7413.00,1.57
7412.00,1.57
7411.00,1.57
7410.00,1.57
7409.00,1.57
7408.00,1.57
7407.00,1.57
7406.00,1.57
7405.00,1.57
7404.00,1.57
7403.00,1.57
7402.00,1.57
7401.00,1.57
7400.00,1.57
7399.00,1.57
7398.00,1.57
7397.00,1.57
7396.00,1.56
7395.00,1.56
7394.00,1.56
7393.00,1.56
7392.00,1.56
7391.00,1.56
7390.00,1.56
7389.00,1.55
7388.00,1.55
7387.00,1.55
7386.00,1.55
7385.00,1.55
7384.00,1.55
7383.00,1.54
7382.00,1.54
7381.00,1.54
7380.00,1.54
7379.00,1.54
7378.00,1.54
7377.00,1.54
7376.00,1.54
7375.00,1.54
7374.00,1.54
7373.00,1.54
7372.00,1.54
7371.00,1.53
7370.00,1.53
7369.00,1.53
7368.00,1.53
7367.00,1.53
7366.00,1.53
7365.00,1.53
7364.00,1.53
7363.00,1.53
7362.00,1.53
7361.00,1.53
7360.00,1.53
7359.00,1.53
7358.00,1.53
7357.00,1.53
7356.00,1.53
7355.00,1.53
7354.00,1.53
7353.00,1.53
7352.00,1.53
7351.00,1.53
7350.00,1.53
7349.00,1.53
7348.00,1.53
7347.00,1.53
7346.00,1.53
7345.00,1.52
7344.00,1.52
7343.00,1.52
7342.00,1.52
7341.00,1.52
7340.00,1.52
7339.00,1.52
7338.00,1.52
7337.00,1.52
7336.00,1.52
7335.00,1.52
7334.00,1.52
7333.00,1.52
7332.00,1.52
7331.00,1.52
7330.00,1.52
7329.00,1.52
7328.00,1.52
7327.00,1.52
7326.00,1.52
7325.00,1.52
7324.00,1.52
7323.00,1.52
7322.00,1.52
7321.00,1.52
7320.00,1.51
7319.00,1.51
7318.00,1.51
7317.00,1.51
7316.00,1.51
7315.00,1.51
7314.00,1.51
7313.00,1.51
7312.00,1.51
7311.00,1.51
7310.00,1.51
7309.00,1.51
7308.00,1.51
7307.00,1.51
7306.00,1.51
7305.00,1.51
7304.00,1.51
7303.00,1.50
7302.00,1.50
7301.00,1.50
7300.00,1.50
7299.00,1.50
7298.00,1.50
7297.00,1.50
7296.00,1.50
7295.00,1.50
7294.00,1.50
7293.00,1.49
7292.00,1.49
7291.00,1.49
7290.00,1.49
7289.00,1.49
7288.00,1.49
7287.00,1.49
7286.00,1.49
7285.00,1.49
7284.00,1.49
7283.00,1.49
7282.00,1.49
7281.00,1.49
7280.00,1.49
7279.00,1.49
7278.00,1.49
7277.00,1.49
7276.00,1.49
7275.00,1.49
7274.00,1.49
7273.00,1.48
7272.00,1.48
7271.00,1.48
7270.00,1.48
7269.00,1.48
7268.00,1.48
7267.00,1.48
7266.00,1.48
7265.00,1.48
7264.00,1.48
7263.00,1.47
7262.00,1.47
7261.00,1.47
7260.00,1.47
7259.00,1.47
7258.00,1.47
7257.00,1.47
7256.00,1.47
7255.00,1.46
7254.00,1.46
7253.00,1.46
7252.00,1.46
7251.00,1.46
7250.00,1.46
7249.00,1.45
7248.00,1.45
7247.00,1.45
7246.00,1.45
7245.00,1.45
7244.00,1.44
7243.00,1.44
7242.00,1.44
7241.00,1.44
7240.00,1.43
7239.00,1.43
7238.00,1.43
7237.00,1.42
7236.00,1.42
7235.00,1.42
7234.00,1.42
7233.00,1.41
7232.00,1.41
7231.00,1.41
7230.00,1.40
7229.00,1.40
7228.00,1.40
7227.00,1.39
7226.00,1.39
7225.00,1.39
7224.00,1.39
7223.00,1.38
7222.00,1.38
7221.00,1.38
7220.00,1.37
7219.00,1.37
7218.00,1.37
7217.00,1.36
7216.00,1.36
7215.00,1.36
7214.00,1.35
7213.00,1.35
7212.00,1.35
7211.00,1.34
7210.00,1.34
7209.00,1.34
7208.00,1.34
7207.00,1.33
7206.00,1.33
7205.00,1.33
7204.00,1.33
7203.00,1.32
7202.00,1.32
7201.00,1.32
7200.00,1.32
7199.00,1.32
7198.00,1.31
7197.00,1.31
7196.00,1.31
7195.00,1.31
7194.00,1.31
7193.00,1.31
7192.00,1.31
7191.00,1.30
7190.00,1.30
7189.00,1.30
7188.00,1.30
7187.00,1.30
7186.00,1.29
7185.00,1.29
7184.00,1.29
7183.00,1.29
7182.00,1.28
7181.00,1.28
7180.00,1.28
7179.00,1.28
7178.00,1.27
7177.00,1.27
7176.00,1.27
7175.00,1.26
7174.00,1.26
7173.00,1.26
7172.00,1.25
7171.00,1.25
7170.00,1.25
7169.00,1.24
7168.00,1.24
7167.00,1.24
7166.00,1.23
7165.00,1.23
7164.00,1.23
7163.00,1.23
7162.00,1.22
7161.00,1.22
7160.00,1.22
7159.00,1.22
7158.00,1.22
7157.00,1.22
7156.00,1.22
7155.00,1.21
7154.00,1.21
7153.00,1.21
7152.00,1.21
7151.00,1.21
7150.00,1.21
7149.00,1.20
7148.00,1.20
7147.00,1.20
7146.00,1.20
7145.00,1.19
7144.00,1.19
7143.00,1.19
7142.00,1.19
7141.00,1.19
7140.00,1.18
7139.00,1.18
7138.00,1.18
7137.00,1.18
7136.00,1.18
7135.00,1.18
7134.00,1.18
7133.00,1.17
7132.00,1.17
7131.00,1.17
7130.00,1.17
7129.00,1.17
7128.00,1.16
7127.00,1.16
7126.00,1.16
7125.00,1.16
7124.00,1.15
7123.00,1.15
7122.00,1.15
7121.00,1.14
7120.00,1.14
7119.00,1.14
7118.00,1.13
7117.00,1.13
7116.00,1.13
7115.00,1.13
7114.00,1.12
7113.00,1.12
7112.00,1.12
7111.00,1.11
7110.00,1.11
7109.00,1.11
7108.00,1.11
7107.00,1.10
7106.00,1.10
7105.00,1.10
7104.00,1.10
7103.00,1.10
7102.00,1.09
7101.00,1.09
7100.00,1.09
7099.00,1.09
7098.00,1.09
7097.00,1.09
7096.00,1.08
7095.00,1.08
7094.00,1.08
7093.00,1.08
7092.00,1.08
7091.00,1.08
7090.00,1.08
7089.00,1.08
7088.00,1.07
7087.00,1.07
7086.00,1.07
7085.00,1.07
7084.00,1.07
7083.00,1.07
7082.00,1.07
7081.00,1.07
7080.00,1.06
7079.00,1.06
7078.00,1.06
7077.00,1.06
7076.00,1.06
7075.00,1.06
7074.00,1.06
7073.00,1.06
7072.00,1.06
7071.00,1.06
7070.00,1.05
7069.00,1.05
7068.00,1.05
7067.00,1.05
7066.00,1.05
7065.00,1.05
7064.00,1.05
7063.00,1.05
7062.00,1.04
7061.00,1.04
7060.00,1.04
7059.00,1.04
7058.00,1.04
7057.00,1.04
7056.00,1.04
7055.00,1.04
7054.00,1.03
7053.00,1.03
7052.00,1.03
7051.00,1.03
7050.00,1.03
7049.00,1.03
7048.00,1.03
7047.00,1.03
7046.00,1.03
7045.00,1.02
7044.00,1.02
7043.00,1.02
7042.00,1.02
7041.00,1.02
7040.00,1.02
7039.00,1.02
7038.00,1.02
7037.00,1.02
7036.00,1.02
7035.00,1.02
7034.00,1.02
7033.00,1.02
7032.00,1.01
7031.00,1.01
7030.00,1.01
7029.00,1.01
7028.00,1.01
7027.00,1.01
7026.00,1.01
7025.00,1.01
7024.00,1.01
7023.00,1.01
7022.00,1.00
7021.00,1.00
7020.00,1.00
7019.00,1.00
7018.00,1.00
7017.00,1.00
7016.00,1.00
7015.00,0.99
7014.00,0.99
7013.00,0.99
7012.00,0.99
7011.00,0.99
7010.00,0.99
7009.00,0.99
7008.00,0.99
7007.00,0.99
7006.00,0.99
7005.00,0.99
7004.00,0.98
7003.00,0.98
7002.00,0.98
7001.00,0.98
7000.00,0.98
6999.00,0.98
6998.00,0.98
6997.00,0.98
6996.00,0.98
6995.00,0.98
6994.00,0.98
6993.00,0.98
6992.00,0.98
6991.00,0.98
6990.00,0.98
6989.00,0.98
6988.00,0.97
6987.00,0.97
6986.00,0.97
6985.00,0.97
6984.00,0.97
6983.00,0.97
6982.00,0.97
6981.00,0.97
6980.00,0.97
6979.00,0.97
6978.00,0.97
6977.00,0.97
6976.00,0.97
6975.00,0.97
6974.00,0.97
6973.00,0.97
6972.00,0.97
6971.00,0.97
6970.00,0.97
6969.00,0.97
6968.00,0.97
6967.00,0.97
6966.00,0.97
6965.00,0.97
6964.00,0.96
6963.00,0.96
6962.00,0.96
6961.00,0.96
6960.00,0.96
6959.00,0.96
6958.00,0.96
6957.00,0.96
6956.00,0.96
6955.00,0.96
6954.00,0.96
6953.00,0.96
6952.00,0.96
6951.00,0.96
6950.00,0.96
6949.00,0.96
6948.00,0.96
6947.00,0.96
6946.00,0.96
6945.00,0.96
6944.00,0.96
6943.00,0.96
6942.00,0.96
6941.00,0.96
6940.00,0.96
6939.00,0.96
6938.00,0.96
6937.00,0.96
6936.00,0.96
6935.00,0.96
6934.00,0.96
6933.00,0.96
6932.00,0.96
6931.00,0.96
6930.00,0.96
6929.00,0.96
6928.00,0.96
6927.00,0.96
6926.00,0.95
6925.00,0.95
6924.00,0.95
6923.00,0.95
6922.00,0.95
6921.00,0.95
6920.00,0.95
6919.00,0.95
6918.00,0.95
6917.00,0.95
6916.00,0.95
6915.00,0.95
6914.00,0.95
6913.00,0.95
6912.00,0.95
6911.00,0.95
6910.00,0.95
6909.00,0.95
6908.00,0.95
6907.00,0.95
6906.00,0.95
6905.00,0.95
6904.00,0.95
6903.00,0.95
6902.00,0.95
6901.00,0.95
6900.00,0.95
6899.00,0.95
6898.00,0.95
6897.00,0.95
6896.00,0.95
6895.00,0.95
6894.00,0.95
6893.00,0.95
6892.00,0.95
6891.00,0.95
6890.00,0.95
6889.00,0.95
6888.00,0.95
6887.00,0.95
6886.00,0.95
6885.00,0.95
6884.00,0.95
6883.00,0.95
6882.00,0.95
6881.00,0.95
6880.00,0.96
6879.00,0.96
6878.00,0.96
6877.00,0.96
6876.00,0.96
6875.00,0.95
6874.00,0.95
6873.00,0.95
6872.00,0.95
6871.00,0.95
6870.00,0.95
6869.00,0.95
6868.00,0.95
6867.00,0.95
6866.00,0.95
6865.00,0.95
6864.00,0.95
6863.00,0.95
6862.00,0.95
6861.00,0.95
6860.00,0.95
6859.00,0.95
6858.00,0.95
6857.00,0.95
6856.00,0.95
6855.00,0.95
6854.00,0.95
6853.00,0.95
6852.00,0.95
6851.00,0.95
6850.00,0.95
6849.00,0.95
6848.00,0.95
6847.00,0.95
6846.00,0.95
6845.00,0.95
6844.00,0.95
6843.00,0.95
6842.00,0.95
6841.00,0.95
6840.00,0.95
6839.00,0.95
6838.00,0.95
6837.00,0.95
6836.00,0.95
6835.00,0.95
6834.00,0.95
6833.00,0.95
6832.00,0.95
6831.00,0.95
6830.00,0.95
6829.00,0.95
6828.00,0.95
6827.00,0.95
6826.00,0.95
6825.00,0.95
6824.00,0.95
6823.00,0.95
6822.00,0.95
6821.00,0.95
6820.00,0.95
6819.00,0.95
6818.00,0.95
6817.00,0.95
6816.00,0.95
6815.00,0.96
6814.00,0.96
6813.00,0.96
6812.00,0.96
6811.00,0.96
6810.00,0.96
6809.00,0.96
6808.00,0.96
6807.00,0.96
6806.00,0.96
6805.00,0.96
6804.00,0.96
6803.00,0.96
6802.00,0.96
6801.00,0.96
6800.00,0.96
6799.00,0.96
6798.00,0.96
6797.00,0.96
6796.00,0.96
6795.00,0.96
6794.00,0.97
6793.00,0.97
6792.00,0.97
6791.00,0.97
6790.00,0.97
6789.00,0.97
6788.00,0.97
6787.00,0.97
6786.00,0.97
6785.00,0.97
6784.00,0.97
6783.00,0.97
6782.00,0.97
6781.00,0.97
6780.00,0.98
6779.00,0.98
6778.00,0.98
6777.00,0.98
6776.00,0.98
6775.00,0.98
6774.00,0.98
6773.00,0.98
6772.00,0.98
6771.00,0.98
6770.00,0.98
6769.00,0.98
6768.00,0.98
6767.00,0.98
6766.00,0.98
6765.00,0.98
6764.00,0.99
6763.00,0.99
6762.00,0.99
6761.00,0.99
6760.00,0.99
6759.00,0.99
6758.00,0.99
6757.00,0.99
6756.00,0.99
6755.00,0.99
6754.00,0.99
6753.00,0.99
6752.00,0.99
6751.00,1.00
6750.00,1.00
6749.00,1.00
6748.00,1.00
6747.00,1.00
6746.00,1.00
6745.00,1.00
6744.00,1.00
6743.00,1.00
6742.00,1.00
6741.00,1.00
6740.00,1.00
6739.00,1.00
6738.00,1.01
6737.00,1.01
6736.00,1.01
6735.00,1.01
6734.00,1.01
6733.00,1.01
6732.00,1.01
6731.00,1.01
6730.00,1.01
6729.00,1.01
6728.00,1.01
6727.00,1.01
6726.00,1.01
6725.00,1.01
6724.00,1.02
6723.00,1.02
6722.00,1.02
6721.00,1.02
6720.00,1.02
6719.00,1.02
6718.00,1.02
6717.00,1.02
6716.00,1.02
6715.00,1.02
6714.00,1.02
6713.00,1.02
6712.00,1.02
6711.00,1.02
6710.00,1.02
6709.00,1.02
6708.00,1.02
6707.00,1.03
6706.00,1.03
6705.00,1.03
6704.00,1.03
6703.00,1.03
6702.00,1.03
6701.00,1.03
6700.00,1.03
6699.00,1.03
6698.00,1.03
6697.00,1.03
6696.00,1.03
6695.00,1.04
6694.00,1.04
6693.00,1.04
6692.00,1.04
6691.00,1.04
6690.00,1.04
6689.00,1.04
6688.00,1.04
6687.00,1.05
6686.00,1.05
6685.00,1.05
6684.00,1.05
6683.00,1.05
6682.00,1.05
6681.00,1.05
6680.00,1.05
6679.00,1.05
6678.00,1.05
6677.00,1.05
6676.00,1.05
6675.00,1.05
6674.00,1.05
6673.00,1.05
6672.00,1.06
6671.00,1.06
6670.00,1.06
6669.00,1.06
6668.00,1.06
6667.00,1.06
6666.00,1.06
6665.00,1.06
6664.00,1.06
6663.00,1.06
6662.00,1.06
6661.00,1.07
6660.00,1.07
6659.00,1.07
6658.00,1.07
6657.00,1.07
6656.00,1.07
6655.00,1.07
6654.00,1.07
6653.00,1.07
6652.00,1.08
6651.00,1.08
6650.00,1.08
6649.00,1.08
6648.00,1.08
6647.00,1.08
6646.00,1.08
6645.00,1.08
6644.00,1.08
6643.00,1.08
6642.00,1.08
6641.00,1.08
6640.00,1.08
6639.00,1.08
6638.00,1.08
6637.00,1.09
6636.00,1.09
6635.00,1.09
6634.00,1.09
6633.00,1.09
6632.00,1.09
6631.00,1.09
6630.00,1.09
6629.00,1.09
6628.00,1.09
6627.00,1.10
6626.00,1.10
6625.00,1.10
6624.00,1.10
6623.00,1.10
6622.00,1.10
6621.00,1.10
6620.00,1.11
6619.00,1.11
6618.00,1.11
6617.00,1.11
6616.00,1.11
6615.00,1.11
6614.00,1.11
6613.00,1.12
6612.00,1.12
6611.00,1.12
6610.00,1.12
6609.00,1.12
6608.00,1.12
6607.00,1.12
6606.00,1.12
6605.00,1.12
6604.00,1.12
6603.00,1.12
6602.00,1.12
6601.00,1.13
6600.00,1.13
6599.00,1.13
6598.00,1.13
6597.00,1.13
6596.00,1.13
6595.00,1.13
6594.00,1.13
6593.00,1.13
6592.00,1.13
6591.00,1.13
6590.00,1.13
6589.00,1.13
6588.00,1.13
6587.00,1.13
6586.00,1.13
6585.00,1.13
6584.00,1.14
6583.00,1.14
6582.00,1.14
6581.00,1.14
6580.00,1.14
6579.00,1.14
6578.00,1.14
6577.00,1.14
6576.00,1.14
6575.00,1.14
6574.00,1.14
6573.00,1.15
6572.00,1.15
6571.00,1.15
6570.00,1.15
6569.00,1.15
6568.00,1.15
6567.00,1.15
6566.00,1.15
6565.00,1.15
6564.00,1.15
6563.00,1.15
6562.00,1.15
6561.00,1.15
6560.00,1.16
6559.00,1.16
6558.00,1.16
6557.00,1.16
6556.00,1.16
6555.00,1.16
6554.00,1.16
6553.00,1.16
6552.00,1.16
6551.00,1.16
6550.00,1.16
6549.00,1.17
6548.00,1.17
6547.00,1.17
6546.00,1.17
6545.00,1.17
6544.00,1.17
6543.00,1.17
6542.00,1.17
6541.00,1.17
6540.00,1.17
6539.00,1.17
6538.00,1.17
6537.00,1.17
6536.00,1.17
6535.00,1.17
6534.00,1.17
6533.00,1.17
6532.00,1.17
6531.00,1.17
6530.00,1.17
6529.00,1.17
6528.00,1.17
6527.00,1.17
6526.00,1.17
6525.00,1.17
6524.00,1.18
6523.00,1.18
6522.00,1.18
6521.00,1.18
6520.00,1.18
6519.00,1.18
6518.00,1.18
6517.00,1.18
6516.00,1.18
6515.00,1.18
6514.00,1.18
6513.00,1.18
6512.00,1.18
6511.00,1.19
6510.00,1.19
6509.00,1.19
6508.00,1.19
6507.00,1.19
6506.00,1.19
6505.00,1.19
6504.00,1.19
6503.00,1.19
6502.00,1.19
6501.00,1.19
6500.00,1.19
6499.00,1.20
6498.00,1.20
6497.00,1.20
6496.00,1.20
6495.00,1.20
6494.00,1.20
6493.00,1.20
6492.00,1.20
6491.00,1.20
6490.00,1.20
6489.00,1.20
6488.00,1.20
6487.00,1.20
6486.00,1.20
6485.00,1.20
6484.00,1.20
6483.00,1.20
6482.00,1.20
6481.00,1.20
6480.00,1.20
6479.00,1.20
6478.00,1.20
6477.00,1.20
6476.00,1.20
6475.00,1.20
6474.00,1.20
6473.00,1.21
6472.00,1.21
6471.00,1.21
6470.00,1.21
6469.00,1.21
6468.00,1.21
6467.00,1.21
6466.00,1.21
6465.00,1.21
6464.00,1.21
6463.00,1.21
6462.00,1.21
6461.00,1.21
6460.00,1.21
6459.00,1.21
6458.00,1.21
6457.00,1.21
6456.00,1.21
6455.00,1.21
6454.00,1.22
6453.00,1.22
6452.00,1.22
6451.00,1.22
6450.00,1.22
6449.00,1.22
6448.00,1.22
6447.00,1.22
6446.00,1.22
6445.00,1.22
6444.00,1.22
6443.00,1.22
6442.00,1.22
6441.00,1.22
6440.00,1.22
6439.00,1.22
6438.00,1.23
6437.00,1.23
6436.00,1.23
6435.00,1.23
6434.00,1.23
6433.00,1.23
6432.00,1.23
6431.00,1.23
6430.00,1.23
6429.00,1.23
6428.00,1.23
6427.00,1.23
6426.00,1.23
6425.00,1.23
6424.00,1.23
6423.00,1.23
6422.00,1.23
6421.00,1.23
6420.00,1.23
6419.00,1.23
6418.00,1.23
6417.00,1.23
6416.00,1.23
6415.00,1.23
6414.00,1.23
6413.00,1.23
6412.00,1.23
6411.00,1.23
6410.00,1.23
6409.00,1.23
6408.00,1.23
6407.00,1.23
6406.00,1.23
6405.00,1.23
6404.00,1.24
6403.00,1.24
6402.00,1.24
6401.00,1.24
6400.00,1.24
6399.00,1.24
6398.00,1.24
6397.00,1.24
6396.00,1.24
6395.00,1.24
6394.00,1.24
6393.00,1.24
6392.00,1.24
6391.00,1.25
6390.00,1.25
6389.00,1.25
6388.00,1.25
6387.00,1.25
6386.00,1.25
6385.00,1.25
6384.00,1.25
6383.00,1.25
6382.00,1.25
6381.00,1.25
6380.00,1.25
6379.00,1.26
6378.00,1.26
6377.00,1.26
6376.00,1.26
6375.00,1.26
6374.00,1.26
6373.00,1.26
6372.00,1.26
6371.00,1.26
6370.00,1.26
6369.00,1.26
6368.00,1.26
6367.00,1.26
6366.00,1.26
6365.00,1.26
6364.00,1.27
6363.00,1.27
6362.00,1.27
6361.00,1.27
6360.00,1.27
6359.00,1.27
6358.00,1.27
6357.00,1.27
6356.00,1.27
6355.00,1.27
6354.00,1.27
6353.00,1.27
6352.00,1.28
6351.00,1.28
6350.00,1.28
6349.00,1.28
6348.00,1.28
6347.00,1.28
6346.00,1.28
6345.00,1.28
6344.00,1.28
6343.00,1.28
6342.00,1.28
6341.00,1.28
6340.00,1.28
6339.00,1.28
6338.00,1.28
6337.00,1.28
6336.00,1.28
6335.00,1.28
6334.00,1.28
6333.00,1.28
6332.00,1.28
6331.00,1.29
6330.00,1.29
6329.00,1.29
6328.00,1.29
6327.00,1.29
6326.00,1.29
6325.00,1.29
6324.00,1.29
6323.00,1.29
6322.00,1.29
6321.00,1.30
6320.00,1.30
6319.00,1.30
6318.00,1.30
6317.00,1.30
6316.00,1.30
6315.00,1.30
6314.00,1.30
6313.00,1.30
6312.00,1.30
6311.00,1.30
6310.00,1.30
6309.00,1.30
6308.00,1.31
6307.00,1.31
6306.00,1.31
6305.00,1.31
6304.00,1.31
6303.00,1.31
6302.00,1.31
6301.00,1.31
6300.00,1.31
6299.00,1.31
6298.00,1.31
6297.00,1.31
6296.00,1.31
6295.00,1.32
6294.00,1.32
6293.00,1.32
6292.00,1.32
6291.00,1.32
6290.00,1.32
6289.00,1.32
6288.00,1.32
6287.00,1.32
6286.00,1.33
6285.00,1.33
6284.00,1.33
6283.00,1.33
6282.00,1.33
6281.00,1.33
6280.00,1.33
6279.00,1.33
6278.00,1.33
6277.00,1.33
6276.00,1.34
6275.00,1.34
6274.00,1.34
6273.00,1.34
6272.00,1.34
6271.00,1.34
6270.00,1.34
6269.00,1.34
6268.00,1.34
6267.00,1.34
6266.00,1.34
6265.00,1.34
6264.00,1.35
6263.00,1.35
6262.00,1.35
6261.00,1.35
6260.00,1.35
6259.00,1.35
6258.00,1.35
6257.00,1.35
6256.00,1.35
6255.00,1.36
6254.00,1.36
6253.00,1.36
6252.00,1.36
6251.00,1.36
6250.00,1.36
6249.00,1.36
6248.00,1.36
6247.00,1.36
6246.00,1.36
6245.00,1.36
6244.00,1.37
6243.00,1.37
6242.00,1.37
6241.00,1.37
6240.00,1.37
6239.00,1.37
6238.00,1.37
6237.00,1.37
6236.00,1.37
6235.00,1.37
6234.00,1.38
6233.00,1.38
6232.00,1.38
6231.00,1.38
6230.00,1.38
6229.00,1.38
6228.00,1.38
6227.00,1.38
6226.00,1.38
6225.00,1.38
6224.00,1.39
6223.00,1.39
6222.00,1.39
6221.00,1.39
6220.00,1.39
6219.00,1.39
6218.00,1.39
6217.00,1.39
6216.00,1.40
6215.00,1.40
6214.00,1.40
6213.00,1.40
6212.00,1.40
6211.00,1.40
6210.00,1.40
6209.00,1.40
6208.00,1.40
6207.00,1.40
6206.00,1.40
6205.00,1.41
6204.00,1.41
6203.00,1.41
6202.00,1.41
6201.00,1.41
6200.00,1.41
6199.00,1.41
6198.00,1.41
6197.00,1.41
6196.00,1.41
6195.00,1.41
6194.00,1.42
6193.00,1.42
6192.00,1.42
6191.00,1.42
6190.00,1.42
6189.00,1.42
6188.00,1.42
6187.00,1.42
6186.00,1.43
6185.00,1.43
6184.00,1.43
6183.00,1.43
6182.00,1.43
6181.00,1.43
6180.00,1.43
6179.00,1.43
6178.00,1.44
6177.00,1.44
6176.00,1.44
6175.00,1.44
6174.00,1.44
6173.00,1.44
6172.00,1.44
6171.00,1.44
6170.00,1.45
6169.00,1.45
6168.00,1.45
6167.00,1.45
6166.00,1.45
6165.00,1.45
6164.00,1.45
6163.00,1.45
6162.00,1.46
6161.00,1.46
6160.00,1.46
6159.00,1.46
6158.00,1.46
6157.00,1.46
6156.00,1.46
6155.00,1.47
6154.00,1.47
6153.00,1.47
6152.00,1.47
6151.00,1.47
6150.00,1.47
6149.00,1.48
6148.00,1.48
6147.00,1.48
6146.00,1.48
6145.00,1.48
6144.00,1.48
6143.00,1.48
6142.00,1.49
6141.00,1.49
6140.00,1.49
6139.00,1.49
6138.00,1.49
6137.00,1.49
6136.00,1.49
6135.00,1.49
6134.00,1.49
6133.00,1.50
6132.00,1.50
6131.00,1.50
6130.00,1.50
6129.00,1.50
6128.00,1.50
6127.00,1.50
6126.00,1.50
6125.00,1.50
6124.00,1.50
6123.00,1.51
6122.00,1.51
6121.00,1.51
6120.00,1.51
6119.00,1.51
6118.00,1.51
6117.00,1.51
6116.00,1.51
6115.00,1.51
6114.00,1.51
6113.00,1.51
6112.00,1.51
6111.00,1.51
6110.00,1.51
6109.00,1.51
6108.00,1.52
6107.00,1.52
6106.00,1.52
6105.00,1.52
6104.00,1.52
6103.00,1.52
6102.00,1.52
6101.00,1.52
6100.00,1.53
6099.00,1.53
6098.00,1.53
6097.00,1.53
6096.00,1.53
6095.00,1.53
6094.00,1.53
6093.00,1.54
6092.00,1.54
6091.00,1.54
6090.00,1.54
6089.00,1.54
6088.00,1.54
6087.00,1.54
6086.00,1.54
6085.00,1.54
6084.00,1.54
6083.00,1.54
6082.00,1.54
6081.00,1.55
6080.00,1.55
6079.00,1.55
6078.00,1.55
6077.00,1.55
6076.00,1.55
6075.00,1.55
6074.00,1.55
6073.00,1.55
6072.00,1.55
6071.00,1.55
6070.00,1.55
6069.00,1.55
6068.00,1.55
6067.00,1.55
6066.00,1.56
6065.00,1.56
6064.00,1.56
6063.00,1.56
6062.00,1.56
6061.00,1.56
6060.00,1.56
6059.00,1.56
6058.00,1.56
6057.00,1.57
6056.00,1.57
6055.00,1.57
6054.00,1.57
6053.00,1.57
6052.00,1.57
6051.00,1.57
6050.00,1.57
6049.00,1.57
6048.00,1.57
6047.00,1.58
6046.00,1.58
6045.00,1.58
6044.00,1.58
6043.00,1.58
6042.00,1.58
6041.00,1.58
6040.00,1.58
6039.00,1.58
6038.00,1.58
6037.00,1.58
6036.00,1.58
6035.00,1.58
6034.00,1.58
6033.00,1.58
6032.00,1.58
6031.00,1.58
6030.00,1.58
6029.00,1.58
6028.00,1.58
6027.00,1.58
6026.00,1.58
6025.00,1.58
6024.00,1.58
6023.00,1.58
6022.00,1.58
6021.00,1.58
6020.00,1.58
6019.00,1.58
6018.00,1.58
6017.00,1.58
6016.00,1.58
6015.00,1.58
6014.00,1.58
6013.00,1.58
6012.00,1.58
6011.00,1.58
6010.00,1.58
6009.00,1.58
6008.00,1.58
6007.00,1.58
6006.00,1.58
6005.00,1.58
6004.00,1.58
6003.00,1.58
6002.00,1.58
6001.00,1.58
6000.00,1.58
5999.00,1.58
5998.00,1.58
5997.00,1.58
5996.00,1.58
5995.00,1.58
5994.00,1.58
5993.00,1.57
5992.00,1.57
5991.00,1.57
5990.00,1.57
5989.00,1.57
5988.00,1.56
5987.00,1.56
5986.00,1.56
5985.00,1.56
5984.00,1.55
5983.00,1.55
5982.00,1.55
5981.00,1.55
5980.00,1.54
5979.00,1.54
5978.00,1.54
5977.00,1.53
5976.00,1.53
5975.00,1.53
5974.00,1.52
5973.00,1.52
5972.00,1.52
5971.00,1.51
5970.00,1.51
5969.00,1.50
5968.00,1.50
5967.00,1.49
5966.00,1.49
5965.00,1.48
5964.00,1.48
5963.00,1.47
5962.00,1.47
5961.00,1.46
5960.00,1.45
5959.00,1.45
5958.00,1.44
5957.00,1.43
5956.00,1.43
5955.00,1.42
5954.00,1.42
5953.00,1.41
5952.00,1.41
5951.00,1.40
5950.00,1.40
5949.00,1.39
5948.00,1.39
5947.00,1.38
5946.00,1.38
5945.00,1.38
5944.00,1.37
5943.00,1.37
5942.00,1.37
5941.00,1.37
5940.00,1.37
5939.00,1.36
5938.00,1.36
5937.00,1.36
5936.00,1.36
5935.00,1.36
5934.00,1.36
5933.00,1.36
5932.00,1.36
5931.00,1.36
5930.00,1.36
5929.00,1.36
5928.00,1.35
5927.00,1.35
5926.00,1.35
5925.00,1.35
5924.00,1.35
5923.00,1.35
5922.00,1.34
5921.00,1.34
5920.00,1.34
5919.00,1.34
5918.00,1.33
5917.00,1.33
5916.00,1.33
5915.00,1.33
5914.00,1.32
5913.00,1.32
5912.00,1.32
5911.00,1.32
5910.00,1.32
5909.00,1.31
5908.00,1.31
5907.00,1.31
5906.00,1.31
5905.00,1.31
5904.00,1.31
5903.00,1.31
5902.00,1.31
5901.00,1.31
5900.00,1.31
5899.00,1.31
5898.00,1.31
5897.00,1.31
5896.00,1.31
5895.00,1.31
5894.00,1.32
5893.00,1.32
5892.00,1.32
5891.00,1.32
5890.00,1.32
5889.00,1.33
5888.00,1.33
5887.00,1.33
5886.00,1.33
5885.00,1.34
5884.00,1.34
5883.00,1.34
5882.00,1.34
5881.00,1.34
5880.00,1.35
5879.00,1.35
5878.00,1.35
5877.00,1.35
5876.00,1.36
5875.00,1.36
5874.00,1.36
5873.00,1.36
5872.00,1.36
5871.00,1.37
5870.00,1.37
5869.00,1.37
5868.00,1.37
5867.00,1.37
5866.00,1.38
5865.00,1.38
5864.00,1.38
5863.00,1.38
5862.00,1.38
5861.00,1.38
5860.00,1.39
5859.00,1.39
5858.00,1.39
5857.00,1.39
5856.00,1.39
5855.00,1.39
5854.00,1.39
5853.00,1.39
5852.00,1.39
5851.00,1.39
5850.00,1.39
5849.00,1.39
5848.00,1.39
5847.00,1.39
5846.00,1.39
5845.00,1.39
5844.00,1.39
5843.00,1.39
5842.00,1.39
5841.00,1.39
5840.00,1.39
5839.00,1.39
5838.00,1.39
5837.00,1.39
5836.00,1.39
5835.00,1.39
5834.00,1.39
5833.00,1.39
5832.00,1.39
5831.00,1.39
5830.00,1.39
5829.00,1.39
5828.00,1.39
5827.00,1.39
5826.00,1.39
5825.00,1.39
5824.00,1.39
5823.00,1.39
5822.00,1.39
5821.00,1.39
5820.00,1.39
5819.00,1.39
5818.00,1.39
5817.00,1.39
5816.00,1.39
5815.00,1.39
5814.00,1.39
5813.00,1.39
5812.00,1.39
5811.00,1.39
5810.00,1.39
5809.00,1.39
5808.00,1.39
5807.00,1.39
5806.00,1.39
5805.00,1.39
5804.00,1.39
5803.00,1.39
5802.00,1.39
5801.00,1.39
5800.00,1.39
5799.00,1.39
5798.00,1.38
5797.00,1.38
5796.00,1.38
5795.00,1.38
5794.00,1.38
5793.00,1.38
5792.00,1.37
5791.00,1.37
5790.00,1.37
5789.00,1.37
5788.00,1.37
5787.00,1.37
5786.00,1.36
5785.00,1.36
5784.00,1.36
5783.00,1.36
5782.00,1.36
5781.00,1.35
5780.00,1.35
5779.00,1.35
5778.00,1.35
5777.00,1.35
5776.00,1.35
5775.00,1.35
5774.00,1.35
5773.00,1.35
5772.00,1.34
5771.00,1.34
5770.00,1.34
5769.00,1.35
5768.00,1.35
5767.00,1.35
5766.00,1.35
5765.00,1.35
5764.00,1.35
5763.00,1.35
5762.00,1.35
5761.00,1.36
5760.00,1.36
5759.00,1.36
5758.00,1.36
5757.00,1.37
5756.00,1.37
5755.00,1.37
5754.00,1.37
5753.00,1.38
5752.00,1.38
5751.00,1.38
5750.00,1.39
5749.00,1.39
5748.00,1.39
5747.00,1.40
5746.00,1.40
5745.00,1.40
5744.00,1.40
5743.00,1.41
5742.00,1.41
5741.00,1.41
5740.00,1.42
5739.00,1.42
5738.00,1.42
5737.00,1.42
5736.00,1.43
5735.00,1.43
5734.00,1.43
5733.00,1.43
5732.00,1.44
5731.00,1.44
5730.00,1.44
5729.00,1.44
5728.00,1.44
5727.00,1.44
5726.00,1.44
5725.00,1.44
5724.00,1.44
5723.00,1.44
5722.00,1.44
5721.00,1.44
5720.00,1.45
5719.00,1.45
5718.00,1.45
5717.00,1.45
5716.00,1.44
5715.00,1.44
5714.00,1.44
5713.00,1.44
5712.00,1.44
5711.00,1.44
5710.00,1.44
5709.00,1.44
5708.00,1.44
5707.00,1.44
5706.00,1.44
5705.00,1.44
5704.00,1.44
5703.00,1.44
5702.00,1.44
5701.00,1.44
5700.00,1.44
5699.00,1.44
5698.00,1.44
5697.00,1.43
5696.00,1.43
5695.00,1.43
5694.00,1.43
5693.00,1.43
5692.00,1.43
5691.00,1.43
5690.00,1.42
5689.00,1.42
5688.00,1.42
5687.00,1.42
5686.00,1.42
5685.00,1.42
5684.00,1.41
5683.00,1.41
5682.00,1.41
5681.00,1.41
5680.00,1.41
5679.00,1.41
5678.00,1.41
5677.00,1.41
5676.00,1.41
5675.00,1.41
5674.00,1.41
5673.00,1.41
5672.00,1.41
5671.00,1.41
5670.00,1.41
5669.00,1.41
5668.00,1.41
5667.00,1.41
5666.00,1.41
5665.00,1.41
5664.00,1.42
5663.00,1.42
5662.00,1.42
5661.00,1.42
5660.00,1.42
5659.00,1.42
5658.00,1.42
5657.00,1.43
5656.00,1.43
5655.00,1.43
5654.00,1.43
5653.00,1.43
5652.00,1.43
5651.00,1.44
5650.00,1.44
5649.00,1.44
5648.00,1.44
5647.00,1.44
5646.00,1.45
5645.00,1.45
5644.00,1.45
5643.00,1.45
5642.00,1.45
5641.00,1.45
5640.00,1.46
5639.00,1.46
5638.00,1.46
5637.00,1.46
5636.00,1.46
5635.00,1.46
5634.00,1.46
5633.00,1.47
5632.00,1.47
5631.00,1.47
5630.00,1.47
5629.00,1.47
5628.00,1.47
5627.00,1.47
5626.00,1.47
5625.00,1.48
5624.00,1.48
5623.00,1.48
5622.00,1.48
5621.00,1.48
5620.00,1.48
5619.00,1.48
5618.00,1.49
5617.00,1.49
5616.00,1.49
5615.00,1.49
5614.00,1.49
5613.00,1.49
5612.00,1.49
5611.00,1.50
5610.00,1.50
5609.00,1.50
5608.00,1.50
5607.00,1.50
5606.00,1.50
5605.00,1.50
5604.00,1.50
5603.00,1.51
5602.00,1.51
5601.00,1.51
5600.00,1.51
5599.00,1.51
5598.00,1.51
5597.00,1.52
5596.00,1.52
5595.00,1.52
5594.00,1.52
5593.00,1.52
5592.00,1.52
5591.00,1.52
5590.00,1.53
5589.00,1.53
5588.00,1.53
5587.00,1.53
5586.00,1.53
5585.00,1.53
5584.00,1.53
5583.00,1.53
5582.00,1.53
5581.00,1.54
5580.00,1.54
5579.00,1.54
5578.00,1.54
5577.00,1.54
5576.00,1.54
5575.00,1.54
5574.00,1.54
5573.00,1.54
5572.00,1.55
5571.00,1.55
5570.00,1.55
5569.00,1.55
5568.00,1.55
5567.00,1.55
5566.00,1.55
5565.00,1.55
5564.00,1.55
5563.00,1.56
5562.00,1.56
5561.00,1.56
5560.00,1.56
5559.00,1.56
5558.00,1.56
5557.00,1.56
5556.00,1.56
5555.00,1.56
5554.00,1.56
5553.00,1.56
5552.00,1.57
5551.00,1.57
5550.00,1.57
5549.00,1.57
5548.00,1.57
5547.00,1.57
5546.00,1.57
5545.00,1.57
5544.00,1.57
5543.00,1.57
5542.00,1.58
5541.00,1.58
5540.00,1.58
5539.00,1.58
5538.00,1.58
5537.00,1.58
5536.00,1.58
5535.00,1.58
5534.00,1.58
5533.00,1.58
5532.00,1.59
5531.00,1.59
5530.00,1.59
5529.00,1.59
5528.00,1.59
5527.00,1.59
5526.00,1.59
5525.00,1.59
5524.00,1.59
5523.00,1.59
5522.00,1.59
5521.00,1.59
5520.00,1.59
5519.00,1.59
5518.00,1.59
5517.00,1.59
5516.00,1.59
5515.00,1.59
5514.00,1.60
5513.00,1.60
5512.00,1.60
5511.00,1.60
5510.00,1.60
5509.00,1.60
5508.00,1.60
5507.00,1.60
5506.00,1.60
5505.00,1.60
5504.00,1.60
5503.00,1.60
5502.00,1.60
5501.00,1.60
5500.00,1.60
5499.00,1.60
5498.00,1.60
5497.00,1.60
5496.00,1.60
5495.00,1.60
5494.00,1.60
5493.00,1.60
5492.00,1.60
5491.00,1.60
5490.00,1.60
5489.00,1.60
5488.00,1.60
5487.00,1.60
5486.00,1.61
5485.00,1.61
5484.00,1.61
5483.00,1.61
5482.00,1.61
5481.00,1.61
5480.00,1.61
5479.00,1.61
5478.00,1.61
5477.00,1.61
5476.00,1.61
5475.00,1.61
5474.00,1.62
5473.00,1.62
5472.00,1.62
5471.00,1.62
5470.00,1.62
5469.00,1.62
5468.00,1.62
5467.00,1.62
5466.00,1.62
5465.00,1.62
5464.00,1.62
5463.00,1.62
5462.00,1.63
5461.00,1.63
5460.00,1.63
5459.00,1.63
5458.00,1.63
5457.00,1.63
5456.00,1.63
5455.00,1.63
5454.00,1.63
5453.00,1.63
5452.00,1.63
5451.00,1.63
5450.00,1.63
5449.00,1.63
5448.00,1.63
5447.00,1.63
5446.00,1.63
5445.00,1.63
5444.00,1.63
5443.00,1.63
5442.00,1.63
5441.00,1.63
5440.00,1.63
5439.00,1.63
5438.00,1.63
5437.00,1.63
5436.00,1.63
5435.00,1.63
5434.00,1.63
5433.00,1.63
5432.00,1.63
5431.00,1.63
5430.00,1.63
5429.00,1.63
5428.00,1.63
5427.00,1.64
5426.00,1.64
5425.00,1.64
5424.00,1.64
5423.00,1.64
5422.00,1.64
5421.00,1.64
5420.00,1.64
5419.00,1.64
5418.00,1.64
5417.00,1.64
5416.00,1.64
5415.00,1.64
5414.00,1.64
5413.00,1.64
5412.00,1.64
5411.00,1.64
5410.00,1.64
5409.00,1.64
5408.00,1.64
5407.00,1.64
5406.00,1.64
5405.00,1.64
5404.00,1.64
5403.00,1.64
5402.00,1.64
5401.00,1.64
5400.00,1.64
5399.00,1.64
5398.00,1.64
5397.00,1.64
5396.00,1.64
5395.00,1.64
5394.00,1.64
5393.00,1.63
5392.00,1.63
5391.00,1.63
5390.00,1.63
5389.00,1.63
5388.00,1.63
5387.00,1.63
5386.00,1.62
5385.00,1.62
5384.00,1.62
5383.00,1.62
5382.00,1.62
5381.00,1.61
5380.00,1.61
5379.00,1.61
5378.00,1.61
5377.00,1.60
5376.00,1.60
5375.00,1.60
5374.00,1.60
5373.00,1.59
5372.00,1.59
5371.00,1.59
5370.00,1.59
5369.00,1.58
5368.00,1.58
5367.00,1.57
5366.00,1.57
5365.00,1.57
5364.00,1.56
5363.00,1.56
5362.00,1.55
5361.00,1.55
5360.00,1.54
5359.00,1.53
5358.00,1.53
5357.00,1.52
5356.00,1.51
5355.00,1.51
5354.00,1.50
5353.00,1.49
5352.00,1.48
5351.00,1.48
5350.00,1.47
5349.00,1.46
5348.00,1.45
5347.00,1.44
5346.00,1.44
5345.00,1.43
5344.00,1.42
5343.00,1.41
5342.00,1.40
5341.00,1.39
5340.00,1.39
5339.00,1.38
5338.00,1.37
5337.00,1.36
5336.00,1.35
5335.00,1.34
5334.00,1.34
5333.00,1.33
5332.00,1.32
5331.00,1.31
5330.00,1.30
5329.00,1.29
5328.00,1.28
5327.00,1.28
5326.00,1.27
5325.00,1.26
5324.00,1.25
5323.00,1.24
5322.00,1.23
5321.00,1.22
5320.00,1.21
5319.00,1.20
5318.00,1.19
5317.00,1.19
5316.00,1.18
5315.00,1.17
5314.00,1.16
5313.00,1.15
5312.00,1.14
5311.00,1.13
5310.00,1.13
5309.00,1.12
5308.00,1.11
5307.00,1.10
5306.00,1.10
5305.00,1.09
5304.00,1.08
5303.00,1.08
5302.00,1.07
5301.00,1.06
5300.00,1.06
5299.00,1.05
5298.00,1.05
5297.00,1.05
5296.00,1.04
5295.00,1.04
5294.00,1.03
5293.00,1.03
5292.00,1.03
5291.00,1.02
5290.00,1.02
5289.00,1.02
5288.00,1.01
5287.00,1.01
5286.00,1.01
5285.00,1.01
5284.00,1.00
5283.00,1.00
5282.00,1.00
5281.00,1.00
5280.00,1.00
5279.00,0.99
5278.00,0.99
5277.00,0.99
5276.00,0.99
5275.00,0.99
5274.00,0.99
5273.00,0.98
5272.00,0.98
5271.00,0.98
5270.00,0.98
5269.00,0.98
5268.00,0.98
5267.00,0.98
5266.00,0.97
5265.00,0.97
5264.00,0.97
5263.00,0.97
5262.00,0.97
5261.00,0.97
5260.00,0.97
5259.00,0.97
5258.00,0.97
5257.00,0.97
5256.00,0.97
5255.00,0.97
5254.00,0.97
5253.00,0.97
5252.00,0.97
5251.00,0.97
5250.00,0.97
5249.00,0.97
5248.00,0.97
5247.00,0.97
5246.00,0.97
5245.00,0.97
5244.00,0.97
5243.00,0.97
5242.00,0.97
5241.00,0.97
5240.00,0.97
5239.00,0.97
5238.00,0.97
5237.00,0.97
5236.00,0.97
5235.00,0.97
5234.00,0.97
5233.00,0.97
5232.00,0.97
5231.00,0.97
5230.00,0.97
5229.00,0.97
5228.00,0.97
5227.00,0.97
5226.00,0.97
5225.00,0.97
5224.00,0.97
5223.00,0.97
5222.00,0.97
5221.00,0.97
5220.00,0.97
5219.00,0.97
5218.00,0.97
5217.00,0.97
5216.00,0.97
5215.00,0.97
5214.00,0.97
5213.00,0.97
5212.00,0.97
5211.00,0.97
5210.00,0.97
5209.00,0.97
5208.00,0.97
5207.00,0.98
5206.00,0.98
5205.00,0.98
5204.00,0.98
5203.00,0.98
5202.00,0.98
5201.00,0.98
5200.00,0.98
5199.00,0.98
5198.00,0.98
5197.00,0.98
5196.00,0.98
5195.00,0.98
5194.00,0.98
5193.00,0.98
5192.00,0.98
5191.00,0.98
5190.00,0.99
5189.00,0.99
5188.00,0.99
5187.00,0.99
5186.00,0.99
5185.00,0.99
5184.00,0.99
5183.00,0.99
5182.00,0.99
5181.00,0.99
5180.00,0.99
5179.00,0.99
5178.00,0.99
5177.00,0.99
5176.00,0.99
5175.00,0.99
5174.00,0.99
5173.00,0.99
5172.00,0.99
5171.00,0.99
5170.00,0.99
5169.00,0.99
5168.00,0.99
5167.00,0.99
5166.00,0.99
5165.00,0.99
5164.00,0.99
5163.00,1.00
5162.00,1.00
5161.00,1.00
5160.00,1.00
5159.00,1.00
5158.00,1.00
5157.00,1.00
5156.00,1.00
5155.00,1.00
5154.00,1.00
5153.00,1.00
5152.00,1.00
5151.00,1.01
5150.00,1.01
5149.00,1.01
5148.00,1.01
5147.00,1.01
5146.00,1.01
5145.00,1.01
5144.00,1.01
5143.00,1.01
5142.00,1.01
5141.00,1.01
5140.00,1.01
5139.00,1.01
5138.00,1.01
5137.00,1.01
5136.00,1.01
5135.00,1.02
5134.00,1.02
5133.00,1.02
5132.00,1.02
5131.00,1.02
5130.00,1.02
5129.00,1.02
5128.00,1.02
5127.00,1.02
5126.00,1.02
5125.00,1.02
5124.00,1.02
5123.00,1.02
5122.00,1.02
5121.00,1.02
5120.00,1.02
5119.00,1.02
5118.00,1.02
5117.00,1.02
5116.00,1.03
5115.00,1.03
5114.00,1.03
5113.00,1.03
5112.00,1.03
5111.00,1.03
5110.00,1.03
5109.00,1.03
5108.00,1.03
5107.00,1.03
5106.00,1.03
5105.00,1.03
5104.00,1.03
5103.00,1.03
5102.00,1.03
5101.00,1.04
5100.00,1.04
5099.00,1.04
5098.00,1.04
5097.00,1.04
5096.00,1.04
5095.00,1.04
5094.00,1.04
5093.00,1.04
5092.00,1.04
5091.00,1.04
5090.00,1.04
5089.00,1.04
5088.00,1.04
5087.00,1.04
5086.00,1.05
5085.00,1.05
5084.00,1.05
5083.00,1.05
5082.00,1.05
5081.00,1.05
5080.00,1.05
5079.00,1.05
5078.00,1.05
5077.00,1.05
5076.00,1.06
5075.00,1.06
5074.00,1.06
5073.00,1.06
5072.00,1.06
5071.00,1.06
5070.00,1.06
5069.00,1.06
5068.00,1.06
5067.00,1.06
5066.00,1.06
5065.00,1.06
5064.00,1.06
5063.00,1.06
5062.00,1.06
5061.00,1.07
5060.00,1.07
5059.00,1.07
5058.00,1.07
5057.00,1.07
5056.00,1.07
5055.00,1.07
5054.00,1.07
5053.00,1.07
5052.00,1.07
5051.00,1.07
5050.00,1.07
5049.00,1.07
5048.00,1.07
5047.00,1.07
5046.00,1.07
5045.00,1.07
5044.00,1.08
5043.00,1.08
5042.00,1.08
5041.00,1.08
5040.00,1.08
5039.00,1.08
5038.00,1.08
5037.00,1.09
5036.00,1.09
5035.00,1.09
5034.00,1.09
5033.00,1.09
5032.00,1.09
5031.00,1.09
5030.00,1.09
5029.00,1.09
5028.00,1.09
5027.00,1.10
5026.00,1.10
5025.00,1.10
5024.00,1.10
5023.00,1.10
5022.00,1.10
5021.00,1.10
5020.00,1.10
5019.00,1.10
5018.00,1.10
5017.00,1.10
5016.00,1.10
5015.00,1.10
5014.00,1.10
5013.00,1.11
5012.00,1.11
5011.00,1.11
5010.00,1.11
5009.00,1.11
5008.00,1.11
5007.00,1.11
5006.00,1.11
5005.00,1.11
5004.00,1.12
5003.00,1.12
5002.00,1.12
5001.00,1.12
5000.00,1.12
4999.00,1.12
4998.00,1.12
4997.00,1.13
4996.00,1.13
4995.00,1.13
4994.00,1.13
4993.00,1.13
4992.00,1.13
4991.00,1.13
4990.00,1.13
4989.00,1.13
4988.00,1.13
4987.00,1.14
4986.00,1.14
4985.00,1.14
4984.00,1.14
4983.00,1.14
4982.00,1.14
4981.00,1.14
4980.00,1.14
4979.00,1.14
4978.00,1.15
4977.00,1.15
4976.00,1.15
4975.00,1.15
4974.00,1.15
4973.00,1.15
4972.00,1.15
4971.00,1.16
4970.00,1.16
4969.00,1.16
4968.00,1.16
4967.00,1.16
4966.00,1.16
4965.00,1.16
4964.00,1.16
4963.00,1.16
4962.00,1.16
4961.00,1.16
4960.00,1.17
4959.00,1.17
4958.00,1.17
4957.00,1.17
4956.00,1.17
4955.00,1.17
4954.00,1.17
4953.00,1.17
4952.00,1.17
4951.00,1.17
4950.00,1.17
4949.00,1.17
4948.00,1.18
4947.00,1.18
4946.00,1.18
4945.00,1.18
4944.00,1.18
4943.00,1.18
4942.00,1.18
4941.00,1.18
4940.00,1.18
4939.00,1.19
4938.00,1.19
4937.00,1.19
4936.00,1.19
4935.00,1.19
4934.00,1.19
4933.00,1.19
4932.00,1.19
4931.00,1.19
4930.00,1.19
4929.00,1.19
4928.00,1.20
4927.00,1.20
4926.00,1.20
4925.00,1.20
4924.00,1.20
4923.00,1.20
4922.00,1.20
4921.00,1.20
4920.00,1.20
4919.00,1.20
4918.00,1.20
4917.00,1.20
4916.00,1.20
4915.00,1.20
4914.00,1.20
4913.00,1.20
4912.00,1.20
4911.00,1.20
4910.00,1.21
4909.00,1.21
4908.00,1.21
4907.00,1.21
4906.00,1.21
4905.00,1.21
4904.00,1.21
4903.00,1.21
4902.00,1.21
4901.00,1.21
4900.00,1.21
4899.00,1.21
4898.00,1.21
4897.00,1.21
4896.00,1.21
4895.00,1.21
4894.00,1.21
4893.00,1.21
4892.00,1.21
4891.00,1.21
4890.00,1.21
4889.00,1.21
4888.00,1.22
4887.00,1.22
4886.00,1.22
4885.00,1.22
4884.00,1.22
4883.00,1.22
4882.00,1.22
4881.00,1.22
4880.00,1.22
4879.00,1.22
4878.00,1.22
4877.00,1.22
4876.00,1.22
4875.00,1.23
4874.00,1.23
4873.00,1.23
4872.00,1.23
4871.00,1.23
4870.00,1.23
4869.00,1.23
4868.00,1.23
4867.00,1.23
4866.00,1.23
4865.00,1.23
4864.00,1.24
4863.00,1.24
4862.00,1.24
4861.00,1.24
4860.00,1.24
4859.00,1.24
4858.00,1.24
4857.00,1.24
4856.00,1.24
4855.00,1.24
4854.00,1.24
4853.00,1.24
4852.00,1.24
4851.00,1.24
4850.00,1.24
4849.00,1.24
4848.00,1.24
4847.00,1.24
4846.00,1.24
4845.00,1.24
4844.00,1.24
4843.00,1.24
4842.00,1.24
4841.00,1.25
4840.00,1.25
4839.00,1.25
4838.00,1.25
4837.00,1.25
4836.00,1.25
4835.00,1.25
4834.00,1.25
4833.00,1.25
4832.00,1.25
4831.00,1.26
4830.00,1.26
4829.00,1.26
4828.00,1.26
4827.00,1.26
4826.00,1.26
4825.00,1.26
4824.00,1.26
4823.00,1.27
4822.00,1.27
4821.00,1.27
4820.00,1.27
4819.00,1.27
4818.00,1.27
4817.00,1.27
4816.00,1.28
4815.00,1.28
4814.00,1.28
4813.00,1.28
4812.00,1.28
4811.00,1.28
4810.00,1.28
4809.00,1.29
4808.00,1.29
4807.00,1.29
4806.00,1.29
4805.00,1.29
4804.00,1.29
4803.00,1.29
4802.00,1.29
4801.00,1.29
4800.00,1.30
4799.00,1.30
4798.00,1.30
4797.00,1.30
4796.00,1.30
4795.00,1.30
4794.00,1.30
4793.00,1.30
4792.00,1.31
4791.00,1.31
4790.00,1.31
4789.00,1.31
4788.00,1.31
4787.00,1.31
4786.00,1.31
4785.00,1.32
4784.00,1.32
4783.00,1.32
4782.00,1.32
4781.00,1.32
4780.00,1.32
4779.00,1.32
4778.00,1.32
4777.00,1.32
4776.00,1.33
4775.00,1.33
4774.00,1.33
4773.00,1.33
4772.00,1.33
4771.00,1.33
4770.00,1.33
4769.00,1.33
4768.00,1.33
4767.00,1.33
4766.00,1.34
4765.00,1.34
4764.00,1.34
4763.00,1.34
4762.00,1.34
4761.00,1.34
4760.00,1.35
4759.00,1.35
4758.00,1.35
4757.00,1.35
4756.00,1.35
4755.00,1.36
4754.00,1.36
4753.00,1.36
4752.00,1.36
4751.00,1.36
4750.00,1.37
4749.00,1.37
4748.00,1.37
4747.00,1.37
4746.00,1.37
4745.00,1.38
4744.00,1.38
4743.00,1.38
4742.00,1.38
4741.00,1.38
4740.00,1.39
4739.00,1.39
4738.00,1.39
4737.00,1.39
4736.00,1.39
4735.00,1.39
4734.00,1.40
4733.00,1.40
4732.00,1.40
4731.00,1.40
4730.00,1.40
4729.00,1.40
4728.00,1.41
4727.00,1.41
4726.00,1.41
4725.00,1.41
4724.00,1.41
4723.00,1.41
4722.00,1.41
4721.00,1.42
4720.00,1.42
4719.00,1.42
4718.00,1.42
4717.00,1.42
4716.00,1.42
4715.00,1.42
4714.00,1.42
4713.00,1.43
4712.00,1.43
4711.00,1.43
4710.00,1.43
4709.00,1.43
4708.00,1.43
4707.00,1.44
4706.00,1.44
4705.00,1.44
4704.00,1.44
4703.00,1.44
4702.00,1.45
4701.00,1.45
4700.00,1.45
4699.00,1.45
4698.00,1.45
4697.00,1.46
4696.00,1.46
4695.00,1.46
4694.00,1.46
4693.00,1.46
4692.00,1.47
4691.00,1.47
4690.00,1.47
4689.00,1.47
4688.00,1.47
4687.00,1.47
4686.00,1.48
4685.00,1.48
4684.00,1.48
4683.00,1.48
4682.00,1.48
4681.00,1.48
4680.00,1.49
4679.00,1.49
4678.00,1.49
4677.00,1.49
4676.00,1.49
4675.00,1.49
4674.00,1.49
4673.00,1.50
4672.00,1.50
4671.00,1.50
4670.00,1.50
4669.00,1.50
4668.00,1.50
4667.00,1.51
4666.00,1.51
4665.00,1.51
4664.00,1.51
4663.00,1.51
4662.00,1.51
4661.00,1.51
4660.00,1.51
4659.00,1.51
4658.00,1.51
4657.00,1.51
4656.00,1.51
4655.00,1.52
4654.00,1.52
4653.00,1.52
4652.00,1.52
4651.00,1.52
4650.00,1.52
4649.00,1.52
4648.00,1.52
4647.00,1.52
4646.00,1.52
4645.00,1.52
4644.00,1.52
4643.00,1.53
4642.00,1.53
4641.00,1.53
4640.00,1.53
4639.00,1.53
4638.00,1.53
4637.00,1.53
4636.00,1.53
4635.00,1.53
4634.00,1.53
4633.00,1.53
4632.00,1.53
4631.00,1.53
4630.00,1.54
4629.00,1.54
4628.00,1.54
4627.00,1.54
4626.00,1.54
4625.00,1.54
4624.00,1.54
4623.00,1.54
4622.00,1.54
4621.00,1.54
4620.00,1.54
4619.00,1.54
4618.00,1.54
4617.00,1.55
4616.00,1.55
4615.00,1.55
4614.00,1.55
4613.00,1.55
4612.00,1.55
4611.00,1.55
4610.00,1.55
4609.00,1.55
4608.00,1.56
4607.00,1.56
4606.00,1.56
4605.00,1.56
4604.00,1.56
4603.00,1.56
4602.00,1.56
4601.00,1.56
4600.00,1.56
4599.00,1.56
4598.00,1.56
4597.00,1.56
4596.00,1.56
4595.00,1.57
4594.00,1.57
4593.00,1.57
4592.00,1.57
4591.00,1.57
4590.00,1.57
4589.00,1.57
4588.00,1.57
4587.00,1.57
4586.00,1.58
4585.00,1.58
4584.00,1.58
4583.00,1.58
4582.00,1.58
4581.00,1.58
4580.00,1.58
4579.00,1.58
4578.00,1.58
4577.00,1.58
4576.00,1.58
4575.00,1.59
4574.00,1.59
4573.00,1.59
4572.00,1.59
4571.00,1.59
4570.00,1.59
4569.00,1.59
4568.00,1.59
4567.00,1.59
4566.00,1.59
4565.00,1.59
4564.00,1.59
4563.00,1.59
4562.00,1.59
4561.00,1.59
4560.00,1.59
4559.00,1.59
4558.00,1.59
4557.00,1.60
4556.00,1.60
4555.00,1.60
4554.00,1.60
4553.00,1.60
4552.00,1.60
4551.00,1.60
4550.00,1.60
4549.00,1.60
4548.00,1.60
4547.00,1.61
4546.00,1.61
4545.00,1.61
4544.00,1.61
4543.00,1.61
4542.00,1.61
4541.00,1.61
4540.00,1.61
4539.00,1.61
4538.00,1.61
4537.00,1.61
4536.00,1.61
4535.00,1.61
4534.00,1.61
4533.00,1.61
4532.00,1.61
4531.00,1.61
4530.00,1.61
4529.00,1.62
4528.00,1.62
4527.00,1.62
4526.00,1.62
4525.00,1.62
4524.00,1.62
4523.00,1.62
4522.00,1.62
4521.00,1.62
4520.00,1.62
4519.00,1.62
4518.00,1.62
4517.00,1.62
4516.00,1.62
4515.00,1.62
4514.00,1.62
4513.00,1.62
4512.00,1.62
4511.00,1.62
4510.00,1.62
4509.00,1.62
4508.00,1.62
4507.00,1.62
4506.00,1.62
4505.00,1.62
4504.00,1.62
4503.00,1.62
4502.00,1.62
4501.00,1.61
4500.00,1.61
4499.00,1.61
4498.00,1.61
4497.00,1.61
4496.00,1.61
4495.00,1.61
4494.00,1.61
4493.00,1.61
4492.00,1.60
4491.00,1.60
4490.00,1.60
4489.00,1.60
4488.00,1.60
4487.00,1.60
4486.00,1.59
4485.00,1.59
4484.00,1.59
4483.00,1.59
4482.00,1.59
4481.00,1.59
4480.00,1.58
4479.00,1.58
4478.00,1.58
4477.00,1.58
4476.00,1.58
4475.00,1.58
4474.00,1.57
4473.00,1.57
4472.00,1.57
4471.00,1.57
4470.00,1.57
4469.00,1.56
4468.00,1.56
4467.00,1.56
4466.00,1.56
4465.00,1.55
4464.00,1.55
4463.00,1.55
4462.00,1.55
4461.00,1.54
4460.00,1.54
4459.00,1.54
4458.00,1.53
4457.00,1.53
4456.00,1.53
4455.00,1.52
4454.00,1.52
4453.00,1.51
4452.00,1.51
4451.00,1.50
4450.00,1.50
4449.00,1.49
4448.00,1.49
4447.00,1.49
4446.00,1.48
4445.00,1.48
4444.00,1.47
4443.00,1.47
4442.00,1.46
4441.00,1.46
4440.00,1.45
4439.00,1.45
4438.00,1.44
4437.00,1.44
4436.00,1.44
4435.00,1.43
4434.00,1.43
4433.00,1.43
4432.00,1.42
4431.00,1.42
4430.00,1.42
4429.00,1.42
4428.00,1.41
4427.00,1.41
4426.00,1.41
4425.00,1.41
4424.00,1.41
4423.00,1.40
4422.00,1.40
4421.00,1.40
4420.00,1.40
4419.00,1.40
4418.00,1.40
4417.00,1.40
4416.00,1.40
4415.00,1.40
4414.00,1.40
4413.00,1.40
4412.00,1.40
4411.00,1.40
4410.00,1.40
4409.00,1.40
4408.00,1.40
4407.00,1.40
4406.00,1.40
4405.00,1.40
4404.00,1.40
4403.00,1.40
4402.00,1.40
4401.00,1.40
4400.00,1.40
4399.00,1.40
4398.00,1.41
4397.00,1.41
4396.00,1.41
4395.00,1.41
4394.00,1.41
4393.00,1.41
4392.00,1.41
4391.00,1.42
4390.00,1.42
4389.00,1.42
4388.00,1.42
4387.00,1.42
4386.00,1.42
4385.00,1.42
4384.00,1.43
4383.00,1.43
4382.00,1.43
4381.00,1.43
4380.00,1.43
4379.00,1.43
4378.00,1.43
4377.00,1.43
4376.00,1.43
4375.00,1.43
4374.00,1.43
4373.00,1.43
4372.00,1.43
4371.00,1.44
4370.00,1.44
4369.00,1.44
4368.00,1.44
4367.00,1.44
4366.00,1.44
4365.00,1.44
4364.00,1.44
4363.00,1.44
4362.00,1.43
4361.00,1.43
4360.00,1.43
4359.00,1.43
4358.00,1.43
4357.00,1.43
4356.00,1.43
4355.00,1.43
4354.00,1.43
4353.00,1.43
4352.00,1.43
4351.00,1.43
4350.00,1.43
4349.00,1.43
4348.00,1.43
4347.00,1.43
4346.00,1.43
4345.00,1.43
4344.00,1.43
4343.00,1.43
4342.00,1.43
4341.00,1.43
4340.00,1.43
4339.00,1.44
4338.00,1.44
4337.00,1.44
4336.00,1.44
4335.00,1.44
4334.00,1.44
4333.00,1.44
4332.00,1.44
4331.00,1.44
4330.00,1.44
4329.00,1.44
4328.00,1.44
4327.00,1.44
4326.00,1.45
4325.00,1.45
4324.00,1.45
4323.00,1.45
4322.00,1.45
4321.00,1.45
4320.00,1.45
4319.00,1.46
4318.00,1.46
4317.00,1.46
4316.00,1.46
4315.00,1.46
4314.00,1.47
4313.00,1.47
4312.00,1.47
4311.00,1.47
4310.00,1.47
4309.00,1.48
4308.00,1.48
4307.00,1.48
4306.00,1.48
4305.00,1.48
4304.00,1.49
4303.00,1.49
4302.00,1.49
4301.00,1.49
4300.00,1.50
4299.00,1.50
4298.00,1.50
4297.00,1.50
4296.00,1.51
4295.00,1.51
4294.00,1.51
4293.00,1.51
4292.00,1.51
4291.00,1.51
4290.00,1.52
4289.00,1.52
4288.00,1.52
4287.00,1.52
4286.00,1.52
4285.00,1.52
4284.00,1.53
4283.00,1.53
4282.00,1.53
4281.00,1.53
4280.00,1.53
4279.00,1.53
4278.00,1.53
4277.00,1.53
4276.00,1.53
4275.00,1.53
4274.00,1.53
4273.00,1.53
4272.00,1.53
4271.00,1.53
4270.00,1.53
4269.00,1.52
4268.00,1.52
4267.00,1.52
4266.00,1.52
4265.00,1.52
4264.00,1.52
4263.00,1.52
4262.00,1.52
4261.00,1.52
4260.00,1.52
4259.00,1.52
4258.00,1.52
4257.00,1.52
4256.00,1.52
4255.00,1.52
4254.00,1.52
4253.00,1.52
4252.00,1.52
4251.00,1.52
4250.00,1.52
4249.00,1.52
4248.00,1.52
4247.00,1.52
4246.00,1.53
4245.00,1.53
4244.00,1.53
4243.00,1.53
4242.00,1.53
4241.00,1.53
4240.00,1.53
4239.00,1.53
4238.00,1.53
4237.00,1.54
4236.00,1.54
4235.00,1.54
4234.00,1.54
4233.00,1.54
4232.00,1.54
4231.00,1.54
4230.00,1.54
4229.00,1.54
4228.00,1.55
4227.00,1.55
4226.00,1.55
4225.00,1.55
4224.00,1.55
4223.00,1.55
4222.00,1.55
4221.00,1.55
4220.00,1.56
4219.00,1.56
4218.00,1.56
4217.00,1.56
4216.00,1.56
4215.00,1.56
4214.00,1.56
4213.00,1.56
4212.00,1.56
4211.00,1.56
4210.00,1.56
4209.00,1.57
4208.00,1.57
4207.00,1.57
4206.00,1.57
4205.00,1.57
4204.00,1.57
4203.00,1.57
4202.00,1.57
4201.00,1.57
4200.00,1.57
4199.00,1.57
4198.00,1.57
4197.00,1.57
4196.00,1.57
4195.00,1.57
4194.00,1.57
4193.00,1.57
4192.00,1.57
4191.00,1.57
4190.00,1.57
4189.00,1.57
4188.00,1.57
4187.00,1.57
4186.00,1.57
4185.00,1.57
4184.00,1.57
4183.00,1.56
4182.00,1.56
4181.00,1.56
4180.00,1.56
4179.00,1.56
4178.00,1.56
4177.00,1.56
4176.00,1.56
4175.00,1.56
4174.00,1.56
4173.00,1.56
4172.00,1.56
4171.00,1.56
4170.00,1.57
4169.00,1.57
4168.00,1.57
4167.00,1.57
4166.00,1.57
4165.00,1.57
4164.00,1.57
4163.00,1.57
4162.00,1.57
4161.00,1.57
4160.00,1.57
4159.00,1.57
4158.00,1.57
4157.00,1.57
4156.00,1.57
4155.00,1.57
4154.00,1.57
4153.00,1.57
4152.00,1.57
4151.00,1.57
4150.00,1.57
4149.00,1.57
4148.00,1.57
4147.00,1.57
4146.00,1.57
4145.00,1.57
4144.00,1.57
4143.00,1.58
4142.00,1.58
4141.00,1.58
4140.00,1.58
4139.00,1.58
4138.00,1.58
4137.00,1.58
4136.00,1.58
4135.00,1.58
4134.00,1.58
4133.00,1.58
4132.00,1.58
4131.00,1.58
4130.00,1.58
4129.00,1.58
4128.00,1.58
4127.00,1.58
4126.00,1.58
4125.00,1.58
4124.00,1.58
4123.00,1.58
4122.00,1.58
4121.00,1.59
4120.00,1.59
4119.00,1.59
4118.00,1.59
4117.00,1.59
4116.00,1.59
4115.00,1.59
4114.00,1.59
4113.00,1.59
4112.00,1.59
4111.00,1.59
4110.00,1.59
4109.00,1.60
4108.00,1.60
4107.00,1.60
4106.00,1.60
4105.00,1.60
4104.00,1.60
4103.00,1.60
4102.00,1.60
4101.00,1.60
4100.00,1.60
4099.00,1.60
4098.00,1.60
4097.00,1.60
4096.00,1.60
4095.00,1.60
4094.00,1.60
4093.00,1.60
4092.00,1.60
4091.00,1.60
4090.00,1.60
4089.00,1.60
4088.00,1.60
4087.00,1.60
4086.00,1.60
4085.00,1.60
4084.00,1.60
4083.00,1.60
4082.00,1.60
4081.00,1.60
4080.00,1.60
4079.00,1.60
4078.00,1.60
4077.00,1.60
4076.00,1.61
4075.00,1.61
4074.00,1.61
4073.00,1.61
4072.00,1.61
4071.00,1.61
4070.00,1.61
4069.00,1.61
4068.00,1.61
4067.00,1.61
4066.00,1.61
4065.00,1.61
4064.00,1.61
4063.00,1.61
4062.00,1.61
4061.00,1.61
4060.00,1.61
4059.00,1.61
4058.00,1.61
4057.00,1.61
4056.00,1.61
4055.00,1.61
4054.00,1.61
4053.00,1.61
4052.00,1.61
4051.00,1.61
4050.00,1.61
4049.00,1.62
4048.00,1.62
4047.00,1.62
4046.00,1.62
4045.00,1.62
4044.00,1.62
4043.00,1.62
4042.00,1.63
4041.00,1.63
4040.00,1.63
4039.00,1.63
4038.00,1.63
4037.00,1.63
4036.00,1.64
4035.00,1.64
4034.00,1.64
4033.00,1.64
4032.00,1.64
4031.00,1.64
4030.00,1.64
4029.00,1.63
4028.00,1.63
4027.00,1.63
4026.00,1.63
4025.00,1.63
4024.00,1.63
4023.00,1.63
4022.00,1.63
4021.00,1.63
4020.00,1.62
4019.00,1.62
4018.00,1.62
4017.00,1.62
4016.00,1.62
4015.00,1.62
4014.00,1.62
4013.00,1.62
4012.00,1.62
4011.00,1.62
4010.00,1.62
4009.00,1.62
4008.00,1.62
4007.00,1.62
4006.00,1.63
4005.00,1.63
4004.00,1.63
4003.00,1.63
4002.00,1.64
4001.00,1.64
4000.00,1.64
