创建为新数据集,样品 594 用户 Administrator 日期 星期一, 七月 16 2018
cm-1,%T
10000.00,1.57
9999.00,1.57
9998.00,1.57
9997.00,1.56
9996.00,1.56
9995.00,1.56
9994.00,1.56
9993.00,1.56
9992.00,1.56
9991.00,1.56
9990.00,1.56
9989.00,1.56
9988.00,1.56
9987.00,1.56
9986.00,1.56
9985.00,1.56
9984.00,1.56
9983.00,1.56
9982.00,1.56
9981.00,1.56
9980.00,1.56
9979.00,1.56
9978.00,1.57
9977.00,1.57
9976.00,1.57
9975.00,1.57
9974.00,1.57
9973.00,1.57
9972.00,1.57
9971.00,1.57
9970.00,1.57
9969.00,1.57
9968.00,1.57
9967.00,1.57
9966.00,1.57
9965.00,1.57
9964.00,1.57
9963.00,1.57
9962.00,1.57
9961.00,1.57
9960.00,1.57
9959.00,1.57
9958.00,1.56
9957.00,1.56
9956.00,1.56
9955.00,1.56
9954.00,1.56
9953.00,1.56
9952.00,1.56
9951.00,1.56
9950.00,1.56
9949.00,1.56
9948.00,1.56
9947.00,1.56
9946.00,1.56
9945.00,1.56
9944.00,1.56
9943.00,1.56
9942.00,1.56
9941.00,1.56
9940.00,1.56
9939.00,1.56
9938.00,1.56
9937.00,1.56
9936.00,1.56
9935.00,1.56
9934.00,1.57
9933.00,1.57
9932.00,1.57
9931.00,1.57
9930.00,1.57
9929.00,1.57
9928.00,1.57
9927.00,1.57
9926.00,1.57
9925.00,1.57
9924.00,1.57
9923.00,1.57
9922.00,1.57
9921.00,1.57
9920.00,1.57
9919.00,1.57
9918.00,1.57
9917.00,1.57
9916.00,1.57
9915.00,1.57
9914.00,1.57
9913.00,1.57
9912.00,1.57
9911.00,1.57
9910.00,1.57
9909.00,1.57
9908.00,1.57
9907.00,1.56
9906.00,1.56
9905.00,1.56
9904.00,1.56
9903.00,1.56
9902.00,1.56
9901.00,1.56
9900.00,1.56
9899.00,1.56
9898.00,1.56
9897.00,1.56
9896.00,1.55
9895.00,1.55
9894.00,1.55
9893.00,1.55
9892.00,1.55
9891.00,1.55
9890.00,1.55
9889.00,1.55
9888.00,1.55
9887.00,1.55
9886.00,1.55
9885.00,1.55
9884.00,1.55
9883.00,1.55
9882.00,1.55
9881.00,1.55
9880.00,1.55
9879.00,1.55
9878.00,1.55
9877.00,1.55
9876.00,1.55
9875.00,1.55
9874.00,1.55
9873.00,1.56
9872.00,1.56
9871.00,1.56
9870.00,1.56
9869.00,1.56
9868.00,1.56
9867.00,1.56
9866.00,1.56
9865.00,1.56
9864.00,1.56
9863.00,1.56
9862.00,1.56
9861.00,1.56
9860.00,1.56
9859.00,1.56
9858.00,1.56
9857.00,1.57
9856.00,1.57
9855.00,1.56
9854.00,1.56
9853.00,1.56
9852.00,1.56
9851.00,1.56
9850.00,1.56
9849.00,1.56
9848.00,1.56
9847.00,1.56
9846.00,1.56
9845.00,1.56
9844.00,1.56
9843.00,1.55
9842.00,1.55
9841.00,1.55
9840.00,1.55
9839.00,1.55
9838.00,1.55
9837.00,1.55
9836.00,1.55
9835.00,1.55
9834.00,1.55
9833.00,1.55
9832.00,1.55
9831.00,1.55
9830.00,1.54
9829.00,1.54
9828.00,1.54
9827.00,1.54
9826.00,1.54
9825.00,1.54
9824.00,1.54
9823.00,1.54
9822.00,1.54
9821.00,1.54
9820.00,1.54
9819.00,1.54
9818.00,1.54
9817.00,1.54
9816.00,1.54
9815.00,1.54
9814.00,1.54
9813.00,1.54
9812.00,1.54
9811.00,1.54
9810.00,1.54
9809.00,1.54
9808.00,1.54
9807.00,1.54
9806.00,1.54
9805.00,1.54
9804.00,1.54
9803.00,1.54
9802.00,1.54
9801.00,1.54
9800.00,1.54
9799.00,1.54
9798.00,1.54
9797.00,1.53
9796.00,1.53
9795.00,1.53
9794.00,1.53
9793.00,1.53
9792.00,1.53
9791.00,1.53
9790.00,1.53
9789.00,1.53
9788.00,1.53
9787.00,1.53
9786.00,1.53
9785.00,1.53
9784.00,1.54
9783.00,1.54
9782.00,1.54
9781.00,1.54
9780.00,1.54
9779.00,1.54
9778.00,1.54
9777.00,1.54
9776.00,1.54
9775.00,1.55
9774.00,1.55
9773.00,1.55
9772.00,1.55
9771.00,1.55
9770.00,1.55
9769.00,1.55
9768.00,1.55
9767.00,1.55
9766.00,1.55
9765.00,1.55
9764.00,1.55
9763.00,1.55
9762.00,1.55
9761.00,1.55
9760.00,1.55
9759.00,1.55
9758.00,1.55
9757.00,1.55
9756.00,1.55
9755.00,1.55
9754.00,1.55
9753.00,1.55
9752.00,1.55
9751.00,1.56
9750.00,1.56
9749.00,1.56
9748.00,1.56
9747.00,1.56
9746.00,1.56
9745.00,1.56
9744.00,1.56
9743.00,1.56
9742.00,1.57
9741.00,1.57
9740.00,1.57
9739.00,1.57
9738.00,1.57
9737.00,1.57
9736.00,1.56
9735.00,1.56
9734.00,1.56
9733.00,1.56
9732.00,1.56
9731.00,1.56
9730.00,1.56
9729.00,1.55
9728.00,1.55
9727.00,1.55
9726.00,1.55
9725.00,1.55
9724.00,1.54
9723.00,1.54
9722.00,1.54
9721.00,1.54
9720.00,1.54
9719.00,1.54
9718.00,1.54
9717.00,1.54
9716.00,1.54
9715.00,1.54
9714.00,1.54
9713.00,1.54
9712.00,1.54
9711.00,1.55
9710.00,1.55
9709.00,1.55
9708.00,1.55
9707.00,1.55
9706.00,1.55
9705.00,1.55
9704.00,1.56
9703.00,1.56
9702.00,1.56
9701.00,1.56
9700.00,1.56
9699.00,1.56
9698.00,1.55
9697.00,1.55
9696.00,1.55
9695.00,1.55
9694.00,1.55
9693.00,1.55
9692.00,1.55
9691.00,1.55
9690.00,1.55
9689.00,1.55
9688.00,1.55
9687.00,1.55
9686.00,1.55
9685.00,1.55
9684.00,1.55
9683.00,1.56
9682.00,1.56
9681.00,1.56
9680.00,1.56
9679.00,1.56
9678.00,1.56
9677.00,1.56
9676.00,1.56
9675.00,1.56
9674.00,1.56
9673.00,1.56
9672.00,1.56
9671.00,1.56
9670.00,1.56
9669.00,1.56
9668.00,1.56
9667.00,1.56
9666.00,1.56
9665.00,1.56
9664.00,1.56
9663.00,1.56
9662.00,1.56
9661.00,1.55
9660.00,1.55
9659.00,1.55
9658.00,1.55
9657.00,1.55
9656.00,1.55
9655.00,1.55
9654.00,1.55
9653.00,1.55
9652.00,1.55
9651.00,1.55
9650.00,1.55
9649.00,1.55
9648.00,1.54
9647.00,1.54
9646.00,1.54
9645.00,1.54
9644.00,1.54
9643.00,1.54
9642.00,1.54
9641.00,1.54
9640.00,1.54
9639.00,1.54
9638.00,1.54
9637.00,1.54
9636.00,1.54
9635.00,1.54
9634.00,1.54
9633.00,1.54
9632.00,1.53
9631.00,1.53
9630.00,1.53
9629.00,1.53
9628.00,1.53
9627.00,1.53
9626.00,1.54
9625.00,1.54
9624.00,1.54
9623.00,1.54
9622.00,1.54
9621.00,1.54
9620.00,1.54
9619.00,1.54
9618.00,1.54
9617.00,1.54
9616.00,1.54
9615.00,1.54
9614.00,1.54
9613.00,1.54
9612.00,1.54
9611.00,1.53
9610.00,1.53
9609.00,1.53
9608.00,1.53
9607.00,1.53
9606.00,1.53
9605.00,1.53
9604.00,1.53
9603.00,1.53
9602.00,1.53
9601.00,1.53
9600.00,1.52
9599.00,1.52
9598.00,1.52
9597.00,1.52
9596.00,1.52
9595.00,1.52
9594.00,1.52
9593.00,1.52
9592.00,1.53
9591.00,1.53
9590.00,1.53
9589.00,1.53
9588.00,1.53
9587.00,1.53
9586.00,1.53
9585.00,1.53
9584.00,1.53
9583.00,1.53
9582.00,1.53
9581.00,1.53
9580.00,1.53
9579.00,1.53
9578.00,1.53
9577.00,1.54
9576.00,1.54
9575.00,1.54
9574.00,1.54
9573.00,1.54
9572.00,1.54
9571.00,1.54
9570.00,1.54
9569.00,1.54
9568.00,1.55
9567.00,1.55
9566.00,1.55
9565.00,1.55
9564.00,1.55
9563.00,1.55
9562.00,1.55
9561.00,1.55
9560.00,1.55
9559.00,1.55
9558.00,1.55
9557.00,1.55
9556.00,1.55
9555.00,1.55
9554.00,1.55
9553.00,1.55
9552.00,1.55
9551.00,1.55
9550.00,1.55
9549.00,1.55
9548.00,1.54
9547.00,1.54
9546.00,1.54
9545.00,1.54
9544.00,1.54
9543.00,1.54
9542.00,1.54
9541.00,1.54
9540.00,1.54
9539.00,1.54
9538.00,1.54
9537.00,1.54
9536.00,1.55
9535.00,1.55
9534.00,1.55
9533.00,1.55
9532.00,1.55
9531.00,1.55
9530.00,1.55
9529.00,1.55
9528.00,1.55
9527.00,1.55
9526.00,1.56
9525.00,1.56
9524.00,1.56
9523.00,1.56
9522.00,1.56
9521.00,1.56
9520.00,1.56
9519.00,1.56
9518.00,1.56
9517.00,1.56
9516.00,1.56
9515.00,1.56
9514.00,1.56
9513.00,1.56
9512.00,1.56
9511.00,1.56
9510.00,1.56
9509.00,1.56
9508.00,1.56
9507.00,1.56
9506.00,1.56
9505.00,1.56
9504.00,1.56
9503.00,1.56
9502.00,1.57
9501.00,1.57
9500.00,1.57
9499.00,1.57
9498.00,1.57
9497.00,1.57
9496.00,1.57
9495.00,1.57
9494.00,1.57
9493.00,1.57
9492.00,1.57
9491.00,1.56
9490.00,1.56
9489.00,1.56
9488.00,1.56
9487.00,1.56
9486.00,1.56
9485.00,1.56
9484.00,1.56
9483.00,1.55
9482.00,1.55
9481.00,1.55
9480.00,1.55
9479.00,1.55
9478.00,1.55
9477.00,1.55
9476.00,1.55
9475.00,1.55
9474.00,1.54
9473.00,1.54
9472.00,1.54
9471.00,1.54
9470.00,1.55
9469.00,1.55
9468.00,1.55
9467.00,1.55
9466.00,1.55
9465.00,1.55
9464.00,1.55
9463.00,1.55
9462.00,1.56
9461.00,1.56
9460.00,1.56
9459.00,1.56
9458.00,1.56
9457.00,1.56
9456.00,1.56
9455.00,1.56
9454.00,1.56
9453.00,1.56
9452.00,1.55
9451.00,1.55
9450.00,1.55
9449.00,1.55
9448.00,1.55
9447.00,1.55
9446.00,1.54
9445.00,1.54
9444.00,1.54
9443.00,1.54
9442.00,1.54
9441.00,1.54
9440.00,1.54
9439.00,1.53
9438.00,1.53
9437.00,1.53
9436.00,1.53
9435.00,1.53
9434.00,1.53
9433.00,1.53
9432.00,1.53
9431.00,1.53
9430.00,1.53
9429.00,1.53
9428.00,1.53
9427.00,1.53
9426.00,1.52
9425.00,1.52
9424.00,1.53
9423.00,1.53
9422.00,1.53
9421.00,1.53
9420.00,1.53
9419.00,1.53
9418.00,1.53
9417.00,1.53
9416.00,1.53
9415.00,1.54
9414.00,1.54
9413.00,1.54
9412.00,1.54
9411.00,1.54
9410.00,1.55
9409.00,1.55
9408.00,1.55
9407.00,1.55
9406.00,1.55
9405.00,1.55
9404.00,1.55
9403.00,1.55
9402.00,1.55
9401.00,1.56
9400.00,1.56
9399.00,1.56
9398.00,1.56
9397.00,1.56
9396.00,1.56
9395.00,1.56
9394.00,1.55
9393.00,1.55
9392.00,1.55
9391.00,1.55
9390.00,1.55
9389.00,1.55
9388.00,1.55
9387.00,1.55
9386.00,1.55
9385.00,1.55
9384.00,1.54
9383.00,1.54
9382.00,1.54
9381.00,1.54
9380.00,1.54
9379.00,1.54
9378.00,1.54
9377.00,1.54
9376.00,1.54
9375.00,1.54
9374.00,1.54
9373.00,1.54
9372.00,1.54
9371.00,1.55
9370.00,1.55
9369.00,1.55
9368.00,1.55
9367.00,1.55
9366.00,1.55
9365.00,1.55
9364.00,1.55
9363.00,1.55
9362.00,1.55
9361.00,1.55
9360.00,1.55
9359.00,1.55
9358.00,1.55
9357.00,1.55
9356.00,1.54
9355.00,1.54
9354.00,1.54
9353.00,1.54
9352.00,1.54
9351.00,1.54
9350.00,1.54
9349.00,1.54
9348.00,1.54
9347.00,1.54
9346.00,1.54
9345.00,1.54
9344.00,1.54
9343.00,1.54
9342.00,1.54
9341.00,1.54
9340.00,1.55
9339.00,1.55
9338.00,1.55
9337.00,1.55
9336.00,1.55
9335.00,1.55
9334.00,1.55
9333.00,1.55
9332.00,1.55
9331.00,1.55
9330.00,1.55
9329.00,1.55
9328.00,1.55
9327.00,1.55
9326.00,1.55
9325.00,1.55
9324.00,1.55
9323.00,1.54
9322.00,1.54
9321.00,1.54
9320.00,1.54
9319.00,1.54
9318.00,1.54
9317.00,1.54
9316.00,1.54
9315.00,1.54
9314.00,1.54
9313.00,1.54
9312.00,1.54
9311.00,1.54
9310.00,1.54
9309.00,1.54
9308.00,1.54
9307.00,1.54
9306.00,1.54
9305.00,1.54
9304.00,1.54
9303.00,1.54
9302.00,1.54
9301.00,1.54
9300.00,1.54
9299.00,1.55
9298.00,1.55
9297.00,1.55
9296.00,1.55
9295.00,1.55
9294.00,1.55
9293.00,1.55
9292.00,1.55
9291.00,1.55
9290.00,1.55
9289.00,1.55
9288.00,1.55
9287.00,1.55
9286.00,1.55
9285.00,1.55
9284.00,1.55
9283.00,1.56
9282.00,1.56
9281.00,1.56
9280.00,1.56
9279.00,1.56
9278.00,1.56
9277.00,1.56
9276.00,1.56
9275.00,1.56
9274.00,1.56
9273.00,1.56
9272.00,1.56
9271.00,1.56
9270.00,1.56
9269.00,1.56
9268.00,1.56
9267.00,1.56
9266.00,1.56
9265.00,1.56
9264.00,1.56
9263.00,1.56
9262.00,1.56
9261.00,1.56
9260.00,1.56
9259.00,1.55
9258.00,1.55
9257.00,1.55
9256.00,1.55
9255.00,1.55
9254.00,1.55
9253.00,1.55
9252.00,1.55
9251.00,1.55
9250.00,1.56
9249.00,1.56
9248.00,1.56
9247.00,1.56
9246.00,1.56
9245.00,1.56
9244.00,1.56
9243.00,1.56
9242.00,1.56
9241.00,1.57
9240.00,1.57
9239.00,1.57
9238.00,1.57
9237.00,1.57
9236.00,1.57
9235.00,1.57
9234.00,1.57
9233.00,1.57
9232.00,1.57
9231.00,1.57
9230.00,1.56
9229.00,1.56
9228.00,1.56
9227.00,1.56
9226.00,1.56
9225.00,1.56
9224.00,1.56
9223.00,1.56
9222.00,1.56
9221.00,1.56
9220.00,1.56
9219.00,1.56
9218.00,1.56
9217.00,1.56
9216.00,1.56
9215.00,1.56
9214.00,1.56
9213.00,1.55
9212.00,1.55
9211.00,1.55
9210.00,1.55
9209.00,1.55
9208.00,1.55
9207.00,1.55
9206.00,1.55
9205.00,1.55
9204.00,1.55
9203.00,1.55
9202.00,1.55
9201.00,1.55
9200.00,1.55
9199.00,1.54
9198.00,1.54
9197.00,1.54
9196.00,1.54
9195.00,1.54
9194.00,1.55
9193.00,1.55
9192.00,1.55
9191.00,1.55
9190.00,1.55
9189.00,1.55
9188.00,1.55
9187.00,1.55
9186.00,1.55
9185.00,1.55
9184.00,1.55
9183.00,1.55
9182.00,1.55
9181.00,1.56
9180.00,1.56
9179.00,1.56
9178.00,1.56
9177.00,1.55
9176.00,1.55
9175.00,1.55
9174.00,1.55
9173.00,1.55
9172.00,1.55
9171.00,1.55
9170.00,1.55
9169.00,1.55
9168.00,1.55
9167.00,1.55
9166.00,1.55
9165.00,1.55
9164.00,1.56
9163.00,1.56
9162.00,1.56
9161.00,1.56
9160.00,1.56
9159.00,1.56
9158.00,1.56
9157.00,1.56
9156.00,1.56
9155.00,1.56
9154.00,1.56
9153.00,1.56
9152.00,1.56
9151.00,1.56
9150.00,1.56
9149.00,1.56
9148.00,1.56
9147.00,1.56
9146.00,1.56
9145.00,1.56
9144.00,1.56
9143.00,1.55
9142.00,1.55
9141.00,1.55
9140.00,1.55
9139.00,1.55
9138.00,1.55
9137.00,1.55
9136.00,1.54
9135.00,1.54
9134.00,1.54
9133.00,1.54
9132.00,1.54
9131.00,1.54
9130.00,1.54
9129.00,1.54
9128.00,1.54
9127.00,1.54
9126.00,1.54
9125.00,1.54
9124.00,1.54
9123.00,1.54
9122.00,1.54
9121.00,1.54
9120.00,1.54
9119.00,1.55
9118.00,1.55
9117.00,1.55
9116.00,1.55
9115.00,1.55
9114.00,1.55
9113.00,1.55
9112.00,1.55
9111.00,1.55
9110.00,1.55
9109.00,1.55
9108.00,1.55
9107.00,1.56
9106.00,1.56
9105.00,1.56
9104.00,1.56
9103.00,1.56
9102.00,1.56
9101.00,1.56
9100.00,1.56
9099.00,1.56
9098.00,1.56
9097.00,1.56
9096.00,1.56
9095.00,1.56
9094.00,1.55
9093.00,1.55
9092.00,1.55
9091.00,1.55
9090.00,1.55
9089.00,1.55
9088.00,1.55
9087.00,1.55
9086.00,1.54
9085.00,1.54
9084.00,1.54
9083.00,1.54
9082.00,1.54
9081.00,1.54
9080.00,1.54
9079.00,1.54
9078.00,1.54
9077.00,1.54
9076.00,1.54
9075.00,1.54
9074.00,1.54
9073.00,1.54
9072.00,1.54
9071.00,1.54
9070.00,1.54
9069.00,1.54
9068.00,1.54
9067.00,1.55
9066.00,1.55
9065.00,1.55
9064.00,1.55
9063.00,1.55
9062.00,1.55
9061.00,1.55
9060.00,1.55
9059.00,1.56
9058.00,1.56
9057.00,1.56
9056.00,1.56
9055.00,1.56
9054.00,1.56
9053.00,1.56
9052.00,1.56
9051.00,1.56
9050.00,1.56
9049.00,1.56
9048.00,1.56
9047.00,1.56
9046.00,1.56
9045.00,1.56
9044.00,1.56
9043.00,1.56
9042.00,1.55
9041.00,1.55
9040.00,1.55
9039.00,1.55
9038.00,1.55
9037.00,1.55
9036.00,1.55
9035.00,1.55
9034.00,1.54
9033.00,1.54
9032.00,1.54
9031.00,1.54
9030.00,1.54
9029.00,1.54
9028.00,1.54
9027.00,1.54
9026.00,1.55
9025.00,1.55
9024.00,1.55
9023.00,1.55
9022.00,1.55
9021.00,1.55
9020.00,1.55
9019.00,1.55
9018.00,1.55
9017.00,1.55
9016.00,1.55
9015.00,1.55
9014.00,1.55
9013.00,1.55
9012.00,1.55
9011.00,1.56
9010.00,1.56
9009.00,1.56
9008.00,1.56
9007.00,1.56
9006.00,1.56
9005.00,1.56
9004.00,1.56
9003.00,1.56
9002.00,1.56
9001.00,1.56
9000.00,1.56
8999.00,1.56
8998.00,1.56
8997.00,1.56
8996.00,1.56
8995.00,1.56
8994.00,1.56
8993.00,1.56
8992.00,1.56
8991.00,1.56
8990.00,1.56
8989.00,1.56
8988.00,1.56
8987.00,1.56
8986.00,1.56
8985.00,1.56
8984.00,1.56
8983.00,1.56
8982.00,1.56
8981.00,1.57
8980.00,1.57
8979.00,1.57
8978.00,1.57
8977.00,1.57
8976.00,1.57
8975.00,1.57
8974.00,1.57
8973.00,1.56
8972.00,1.56
8971.00,1.56
8970.00,1.56
8969.00,1.56
8968.00,1.56
8967.00,1.56
8966.00,1.56
8965.00,1.56
8964.00,1.56
8963.00,1.56
8962.00,1.56
8961.00,1.56
8960.00,1.56
8959.00,1.56
8958.00,1.56
8957.00,1.56
8956.00,1.56
8955.00,1.56
8954.00,1.56
8953.00,1.56
8952.00,1.56
8951.00,1.56
8950.00,1.56
8949.00,1.56
8948.00,1.56
8947.00,1.56
8946.00,1.56
8945.00,1.56
8944.00,1.56
8943.00,1.56
8942.00,1.56
8941.00,1.56
8940.00,1.56
8939.00,1.56
8938.00,1.56
8937.00,1.56
8936.00,1.56
8935.00,1.56
8934.00,1.56
8933.00,1.56
8932.00,1.56
8931.00,1.56
8930.00,1.56
8929.00,1.56
8928.00,1.56
8927.00,1.56
8926.00,1.56
8925.00,1.56
8924.00,1.56
8923.00,1.56
8922.00,1.55
8921.00,1.55
8920.00,1.55
8919.00,1.55
8918.00,1.55
8917.00,1.55
8916.00,1.55
8915.00,1.55
8914.00,1.55
8913.00,1.55
8912.00,1.55
8911.00,1.55
8910.00,1.55
8909.00,1.55
8908.00,1.56
8907.00,1.56
8906.00,1.56
8905.00,1.56
8904.00,1.56
8903.00,1.56
8902.00,1.56
8901.00,1.56
8900.00,1.56
8899.00,1.56
8898.00,1.57
8897.00,1.57
8896.00,1.57
8895.00,1.57
8894.00,1.57
8893.00,1.57
8892.00,1.57
8891.00,1.57
8890.00,1.57
8889.00,1.57
8888.00,1.57
8887.00,1.56
8886.00,1.56
8885.00,1.56
8884.00,1.56
8883.00,1.56
8882.00,1.56
8881.00,1.56
8880.00,1.56
8879.00,1.56
8878.00,1.56
8877.00,1.56
8876.00,1.56
8875.00,1.56
8874.00,1.56
8873.00,1.56
8872.00,1.56
8871.00,1.55
8870.00,1.55
8869.00,1.55
8868.00,1.55
8867.00,1.55
8866.00,1.55
8865.00,1.54
8864.00,1.54
8863.00,1.54
8862.00,1.54
8861.00,1.54
8860.00,1.54
8859.00,1.54
8858.00,1.53
8857.00,1.53
8856.00,1.53
8855.00,1.53
8854.00,1.53
8853.00,1.53
8852.00,1.53
8851.00,1.53
8850.00,1.53
8849.00,1.53
8848.00,1.53
8847.00,1.53
8846.00,1.53
8845.00,1.53
8844.00,1.54
8843.00,1.54
8842.00,1.54
8841.00,1.54
8840.00,1.54
8839.00,1.54
8838.00,1.54
8837.00,1.54
8836.00,1.55
8835.00,1.55
8834.00,1.55
8833.00,1.55
8832.00,1.55
8831.00,1.55
8830.00,1.55
8829.00,1.55
8828.00,1.55
8827.00,1.55
8826.00,1.55
8825.00,1.55
8824.00,1.55
8823.00,1.55
8822.00,1.54
8821.00,1.54
8820.00,1.54
8819.00,1.54
8818.00,1.54
8817.00,1.54
8816.00,1.54
8815.00,1.53
8814.00,1.53
8813.00,1.53
8812.00,1.53
8811.00,1.53
8810.00,1.53
8809.00,1.53
8808.00,1.53
8807.00,1.53
8806.00,1.53
8805.00,1.53
8804.00,1.54
8803.00,1.54
8802.00,1.54
8801.00,1.54
8800.00,1.54
8799.00,1.54
8798.00,1.54
8797.00,1.54
8796.00,1.54
8795.00,1.53
8794.00,1.53
8793.00,1.53
8792.00,1.53
8791.00,1.53
8790.00,1.53
8789.00,1.53
8788.00,1.53
8787.00,1.53
8786.00,1.53
8785.00,1.53
8784.00,1.53
8783.00,1.53
8782.00,1.53
8781.00,1.53
8780.00,1.53
8779.00,1.53
8778.00,1.53
8777.00,1.54
8776.00,1.54
8775.00,1.54
8774.00,1.54
8773.00,1.54
8772.00,1.54
8771.00,1.54
8770.00,1.53
8769.00,1.53
8768.00,1.53
8767.00,1.53
8766.00,1.53
8765.00,1.53
8764.00,1.53
8763.00,1.52
8762.00,1.52
8761.00,1.52
8760.00,1.52
8759.00,1.52
8758.00,1.52
8757.00,1.52
8756.00,1.52
8755.00,1.51
8754.00,1.51
8753.00,1.51
8752.00,1.51
8751.00,1.51
8750.00,1.51
8749.00,1.51
8748.00,1.51
8747.00,1.51
8746.00,1.51
8745.00,1.51
8744.00,1.51
8743.00,1.51
8742.00,1.51
8741.00,1.51
8740.00,1.50
8739.00,1.50
8738.00,1.50
8737.00,1.50
8736.00,1.50
8735.00,1.50
8734.00,1.50
8733.00,1.50
8732.00,1.49
8731.00,1.49
8730.00,1.49
8729.00,1.49
8728.00,1.49
8727.00,1.49
8726.00,1.49
8725.00,1.49
8724.00,1.49
8723.00,1.49
8722.00,1.49
8721.00,1.49
8720.00,1.49
8719.00,1.49
8718.00,1.49
8717.00,1.49
8716.00,1.49
8715.00,1.49
8714.00,1.49
8713.00,1.49
8712.00,1.49
8711.00,1.49
8710.00,1.49
8709.00,1.49
8708.00,1.49
8707.00,1.49
8706.00,1.49
8705.00,1.49
8704.00,1.49
8703.00,1.49
8702.00,1.49
8701.00,1.49
8700.00,1.49
8699.00,1.49
8698.00,1.49
8697.00,1.49
8696.00,1.49
8695.00,1.49
8694.00,1.49
8693.00,1.49
8692.00,1.49
8691.00,1.49
8690.00,1.48
8689.00,1.48
8688.00,1.48
8687.00,1.48
8686.00,1.48
8685.00,1.48
8684.00,1.48
8683.00,1.48
8682.00,1.48
8681.00,1.48
8680.00,1.48
8679.00,1.48
8678.00,1.48
8677.00,1.48
8676.00,1.48
8675.00,1.48
8674.00,1.48
8673.00,1.48
8672.00,1.48
8671.00,1.48
8670.00,1.48
8669.00,1.48
8668.00,1.48
8667.00,1.48
8666.00,1.48
8665.00,1.48
8664.00,1.48
8663.00,1.48
8662.00,1.48
8661.00,1.48
8660.00,1.47
8659.00,1.47
8658.00,1.47
8657.00,1.47
8656.00,1.48
8655.00,1.48
8654.00,1.48
8653.00,1.48
8652.00,1.48
8651.00,1.48
8650.00,1.48
8649.00,1.48
8648.00,1.48
8647.00,1.48
8646.00,1.48
8645.00,1.48
8644.00,1.48
8643.00,1.48
8642.00,1.48
8641.00,1.48
8640.00,1.48
8639.00,1.48
8638.00,1.47
8637.00,1.47
8636.00,1.47
8635.00,1.47
8634.00,1.47
8633.00,1.47
8632.00,1.47
8631.00,1.47
8630.00,1.47
8629.00,1.47
8628.00,1.46
8627.00,1.46
8626.00,1.46
8625.00,1.46
8624.00,1.46
8623.00,1.46
8622.00,1.46
8621.00,1.46
8620.00,1.46
8619.00,1.46
8618.00,1.46
8617.00,1.46
8616.00,1.46
8615.00,1.46
8614.00,1.45
8613.00,1.45
8612.00,1.45
8611.00,1.45
8610.00,1.45
8609.00,1.45
8608.00,1.45
8607.00,1.45
8606.00,1.45
8605.00,1.45
8604.00,1.45
8603.00,1.45
8602.00,1.45
8601.00,1.45
8600.00,1.45
8599.00,1.44
8598.00,1.44
8597.00,1.44
8596.00,1.44
8595.00,1.44
8594.00,1.45
8593.00,1.45
8592.00,1.45
8591.00,1.45
8590.00,1.45
8589.00,1.45
8588.00,1.45
8587.00,1.45
8586.00,1.45
8585.00,1.45
8584.00,1.45
8583.00,1.45
8582.00,1.45
8581.00,1.45
8580.00,1.46
8579.00,1.46
8578.00,1.46
8577.00,1.46
8576.00,1.46
8575.00,1.46
8574.00,1.46
8573.00,1.46
8572.00,1.46
8571.00,1.46
8570.00,1.46
8569.00,1.46
8568.00,1.46
8567.00,1.46
8566.00,1.46
8565.00,1.46
8564.00,1.46
8563.00,1.46
8562.00,1.46
8561.00,1.46
8560.00,1.46
8559.00,1.46
8558.00,1.46
8557.00,1.46
8556.00,1.46
8555.00,1.46
8554.00,1.46
8553.00,1.46
8552.00,1.46
8551.00,1.46
8550.00,1.46
8549.00,1.46
8548.00,1.45
8547.00,1.45
8546.00,1.45
8545.00,1.45
8544.00,1.45
8543.00,1.45
8542.00,1.45
8541.00,1.45
8540.00,1.45
8539.00,1.44
8538.00,1.44
8537.00,1.44
8536.00,1.44
8535.00,1.44
8534.00,1.44
8533.00,1.44
8532.00,1.44
8531.00,1.44
8530.00,1.44
8529.00,1.44
8528.00,1.44
8527.00,1.44
8526.00,1.44
8525.00,1.44
8524.00,1.44
8523.00,1.44
8522.00,1.44
8521.00,1.44
8520.00,1.44
8519.00,1.44
8518.00,1.44
8517.00,1.44
8516.00,1.44
8515.00,1.44
8514.00,1.44
8513.00,1.44
8512.00,1.44
8511.00,1.44
8510.00,1.43
8509.00,1.43
8508.00,1.43
8507.00,1.43
8506.00,1.43
8505.00,1.43
8504.00,1.43
8503.00,1.43
8502.00,1.43
8501.00,1.43
8500.00,1.42
8499.00,1.42
8498.00,1.42
8497.00,1.42
8496.00,1.42
8495.00,1.42
8494.00,1.42
8493.00,1.42
8492.00,1.42
8491.00,1.42
8490.00,1.42
8489.00,1.42
8488.00,1.42
8487.00,1.42
8486.00,1.42
8485.00,1.42
8484.00,1.42
8483.00,1.42
8482.00,1.42
8481.00,1.42
8480.00,1.42
8479.00,1.42
8478.00,1.42
8477.00,1.42
8476.00,1.42
8475.00,1.42
8474.00,1.42
8473.00,1.42
8472.00,1.42
8471.00,1.42
8470.00,1.42
8469.00,1.41
8468.00,1.41
8467.00,1.41
8466.00,1.41
8465.00,1.41
8464.00,1.41
8463.00,1.41
8462.00,1.41
8461.00,1.41
8460.00,1.41
8459.00,1.41
8458.00,1.41
8457.00,1.41
8456.00,1.41
8455.00,1.41
8454.00,1.41
8453.00,1.41
8452.00,1.41
8451.00,1.41
8450.00,1.41
8449.00,1.41
8448.00,1.41
8447.00,1.41
8446.00,1.41
8445.00,1.41
8444.00,1.42
8443.00,1.42
8442.00,1.42
8441.00,1.42
8440.00,1.42
8439.00,1.42
8438.00,1.42
8437.00,1.42
8436.00,1.42
8435.00,1.42
8434.00,1.42
8433.00,1.42
8432.00,1.42
8431.00,1.42
8430.00,1.42
8429.00,1.42
8428.00,1.42
8427.00,1.42
8426.00,1.42
8425.00,1.42
8424.00,1.42
8423.00,1.42
8422.00,1.43
8421.00,1.43
8420.00,1.43
8419.00,1.43
8418.00,1.43
8417.00,1.43
8416.00,1.43
8415.00,1.43
8414.00,1.43
8413.00,1.43
8412.00,1.43
8411.00,1.43
8410.00,1.43
8409.00,1.43
8408.00,1.43
8407.00,1.43
8406.00,1.43
8405.00,1.43
8404.00,1.43
8403.00,1.43
8402.00,1.43
8401.00,1.43
8400.00,1.42
8399.00,1.42
8398.00,1.42
8397.00,1.42
8396.00,1.42
8395.00,1.43
8394.00,1.43
8393.00,1.43
8392.00,1.43
8391.00,1.43
8390.00,1.43
8389.00,1.43
8388.00,1.43
8387.00,1.43
8386.00,1.43
8385.00,1.44
8384.00,1.44
8383.00,1.44
8382.00,1.44
8381.00,1.44
8380.00,1.44
8379.00,1.44
8378.00,1.44
8377.00,1.45
8376.00,1.45
8375.00,1.45
8374.00,1.45
8373.00,1.45
8372.00,1.45
8371.00,1.45
8370.00,1.45
8369.00,1.45
8368.00,1.45
8367.00,1.44
8366.00,1.44
8365.00,1.44
8364.00,1.44
8363.00,1.44
8362.00,1.44
8361.00,1.44
8360.00,1.44
8359.00,1.44
8358.00,1.44
8357.00,1.44
8356.00,1.44
8355.00,1.44
8354.00,1.44
8353.00,1.44
8352.00,1.44
8351.00,1.44
8350.00,1.44
8349.00,1.44
8348.00,1.44
8347.00,1.44
8346.00,1.44
8345.00,1.44
8344.00,1.44
8343.00,1.44
8342.00,1.45
8341.00,1.45
8340.00,1.45
8339.00,1.45
8338.00,1.45
8337.00,1.45
8336.00,1.45
8335.00,1.45
8334.00,1.45
8333.00,1.45
8332.00,1.45
8331.00,1.45
8330.00,1.45
8329.00,1.45
8328.00,1.45
8327.00,1.45
8326.00,1.45
8325.00,1.45
8324.00,1.45
8323.00,1.45
8322.00,1.45
8321.00,1.45
8320.00,1.45
8319.00,1.45
8318.00,1.45
8317.00,1.45
8316.00,1.45
8315.00,1.45
8314.00,1.45
8313.00,1.45
8312.00,1.45
8311.00,1.45
8310.00,1.45
8309.00,1.45
8308.00,1.45
8307.00,1.45
8306.00,1.45
8305.00,1.45
8304.00,1.45
8303.00,1.45
8302.00,1.45
8301.00,1.45
8300.00,1.45
8299.00,1.45
8298.00,1.45
8297.00,1.45
8296.00,1.45
8295.00,1.45
8294.00,1.45
8293.00,1.45
8292.00,1.45
8291.00,1.45
8290.00,1.45
8289.00,1.45
8288.00,1.46
8287.00,1.46
8286.00,1.46
8285.00,1.46
8284.00,1.46
8283.00,1.46
8282.00,1.46
8281.00,1.46
8280.00,1.46
8279.00,1.46
8278.00,1.46
8277.00,1.46
8276.00,1.46
8275.00,1.46
8274.00,1.46
8273.00,1.46
8272.00,1.46
8271.00,1.46
8270.00,1.46
8269.00,1.46
8268.00,1.46
8267.00,1.46
8266.00,1.45
8265.00,1.45
8264.00,1.45
8263.00,1.45
8262.00,1.45
8261.00,1.45
8260.00,1.45
8259.00,1.45
8258.00,1.46
8257.00,1.46
8256.00,1.46
8255.00,1.46
8254.00,1.46
8253.00,1.46
8252.00,1.46
8251.00,1.47
8250.00,1.47
8249.00,1.47
8248.00,1.47
8247.00,1.47
8246.00,1.47
8245.00,1.47
8244.00,1.47
8243.00,1.47
8242.00,1.47
8241.00,1.48
8240.00,1.48
8239.00,1.48
8238.00,1.48
8237.00,1.48
8236.00,1.48
8235.00,1.48
8234.00,1.48
8233.00,1.48
8232.00,1.48
8231.00,1.48
8230.00,1.48
8229.00,1.48
8228.00,1.48
8227.00,1.48
8226.00,1.48
8225.00,1.48
8224.00,1.48
8223.00,1.48
8222.00,1.48
8221.00,1.48
8220.00,1.48
8219.00,1.48
8218.00,1.48
8217.00,1.48
8216.00,1.48
8215.00,1.48
8214.00,1.48
8213.00,1.48
8212.00,1.48
8211.00,1.48
8210.00,1.48
8209.00,1.48
8208.00,1.48
8207.00,1.48
8206.00,1.48
8205.00,1.48
8204.00,1.48
8203.00,1.49
8202.00,1.49
8201.00,1.49
8200.00,1.49
8199.00,1.49
8198.00,1.49
8197.00,1.49
8196.00,1.49
8195.00,1.49
8194.00,1.50
8193.00,1.50
8192.00,1.50
8191.00,1.50
8190.00,1.50
8189.00,1.50
8188.00,1.50
8187.00,1.50
8186.00,1.50
8185.00,1.50
8184.00,1.50
8183.00,1.50
8182.00,1.50
8181.00,1.49
8180.00,1.49
8179.00,1.49
8178.00,1.49
8177.00,1.49
8176.00,1.49
8175.00,1.49
8174.00,1.49
8173.00,1.49
8172.00,1.49
8171.00,1.49
8170.00,1.49
8169.00,1.49
8168.00,1.49
8167.00,1.49
8166.00,1.49
8165.00,1.49
8164.00,1.49
8163.00,1.49
8162.00,1.49
8161.00,1.49
8160.00,1.49
8159.00,1.49
8158.00,1.49
8157.00,1.49
8156.00,1.49
8155.00,1.50
8154.00,1.50
8153.00,1.50
8152.00,1.50
8151.00,1.50
8150.00,1.50
8149.00,1.50
8148.00,1.50
8147.00,1.50
8146.00,1.50
8145.00,1.50
8144.00,1.50
8143.00,1.50
8142.00,1.50
8141.00,1.50
8140.00,1.50
8139.00,1.50
8138.00,1.50
8137.00,1.50
8136.00,1.50
8135.00,1.50
8134.00,1.50
8133.00,1.50
8132.00,1.50
8131.00,1.51
8130.00,1.51
8129.00,1.51
8128.00,1.51
8127.00,1.51
8126.00,1.51
8125.00,1.51
8124.00,1.51
8123.00,1.51
8122.00,1.51
8121.00,1.51
8120.00,1.51
8119.00,1.51
8118.00,1.51
8117.00,1.51
8116.00,1.51
8115.00,1.51
8114.00,1.51
8113.00,1.51
8112.00,1.51
8111.00,1.51
8110.00,1.51
8109.00,1.51
8108.00,1.50
8107.00,1.50
8106.00,1.50
8105.00,1.50
8104.00,1.50
8103.00,1.50
8102.00,1.50
8101.00,1.50
8100.00,1.50
8099.00,1.50
8098.00,1.50
8097.00,1.50
8096.00,1.51
8095.00,1.51
8094.00,1.51
8093.00,1.51
8092.00,1.51
8091.00,1.51
8090.00,1.51
8089.00,1.51
8088.00,1.51
8087.00,1.51
8086.00,1.51
8085.00,1.52
8084.00,1.52
8083.00,1.52
8082.00,1.52
8081.00,1.52
8080.00,1.52
8079.00,1.52
8078.00,1.52
8077.00,1.52
8076.00,1.52
8075.00,1.52
8074.00,1.52
8073.00,1.52
8072.00,1.52
8071.00,1.52
8070.00,1.52
8069.00,1.52
8068.00,1.52
8067.00,1.52
8066.00,1.52
8065.00,1.52
8064.00,1.52
8063.00,1.52
8062.00,1.52
8061.00,1.52
8060.00,1.52
8059.00,1.52
8058.00,1.52
8057.00,1.52
8056.00,1.52
8055.00,1.52
8054.00,1.52
8053.00,1.52
8052.00,1.52
8051.00,1.52
8050.00,1.52
8049.00,1.52
8048.00,1.52
8047.00,1.52
8046.00,1.52
8045.00,1.52
8044.00,1.52
8043.00,1.52
8042.00,1.52
8041.00,1.52
8040.00,1.52
8039.00,1.52
8038.00,1.52
8037.00,1.52
8036.00,1.52
8035.00,1.52
8034.00,1.52
8033.00,1.53
8032.00,1.53
8031.00,1.53
8030.00,1.53
8029.00,1.53
8028.00,1.53
8027.00,1.53
8026.00,1.53
8025.00,1.53
8024.00,1.53
8023.00,1.53
8022.00,1.53
8021.00,1.53
8020.00,1.53
8019.00,1.53
8018.00,1.53
8017.00,1.53
8016.00,1.53
8015.00,1.53
8014.00,1.53
8013.00,1.53
8012.00,1.53
8011.00,1.53
8010.00,1.53
8009.00,1.53
8008.00,1.53
8007.00,1.53
8006.00,1.53
8005.00,1.53
8004.00,1.52
8003.00,1.52
8002.00,1.52
8001.00,1.52
8000.00,1.52
7999.00,1.52
7998.00,1.52
7997.00,1.52
7996.00,1.52
7995.00,1.52
7994.00,1.52
7993.00,1.52
7992.00,1.52
7991.00,1.52
7990.00,1.52
7989.00,1.52
7988.00,1.52
7987.00,1.52
7986.00,1.52
7985.00,1.53
7984.00,1.53
7983.00,1.53
7982.00,1.53
7981.00,1.53
7980.00,1.53
7979.00,1.53
7978.00,1.53
7977.00,1.53
7976.00,1.53
7975.00,1.53
7974.00,1.53
7973.00,1.53
7972.00,1.53
7971.00,1.53
7970.00,1.53
7969.00,1.53
7968.00,1.53
7967.00,1.53
7966.00,1.53
7965.00,1.53
7964.00,1.53
7963.00,1.53
7962.00,1.53
7961.00,1.53
7960.00,1.53
7959.00,1.53
7958.00,1.53
7957.00,1.53
7956.00,1.53
7955.00,1.54
7954.00,1.54
7953.00,1.54
7952.00,1.54
7951.00,1.54
7950.00,1.54
7949.00,1.54
7948.00,1.54
7947.00,1.54
7946.00,1.54
7945.00,1.54
7944.00,1.54
7943.00,1.54
7942.00,1.54
7941.00,1.54
7940.00,1.54
7939.00,1.54
7938.00,1.54
7937.00,1.54
7936.00,1.54
7935.00,1.54
7934.00,1.54
7933.00,1.54
7932.00,1.54
7931.00,1.53
7930.00,1.53
7929.00,1.53
7928.00,1.53
7927.00,1.53
7926.00,1.53
7925.00,1.53
7924.00,1.53
7923.00,1.53
7922.00,1.53
7921.00,1.54
7920.00,1.54
7919.00,1.54
7918.00,1.54
7917.00,1.54
7916.00,1.54
7915.00,1.54
7914.00,1.54
7913.00,1.54
7912.00,1.54
7911.00,1.54
7910.00,1.54
7909.00,1.54
7908.00,1.54
7907.00,1.55
7906.00,1.55
7905.00,1.55
7904.00,1.55
7903.00,1.55
7902.00,1.55
7901.00,1.55
7900.00,1.55
7899.00,1.55
7898.00,1.55
7897.00,1.55
7896.00,1.56
7895.00,1.56
7894.00,1.56
7893.00,1.56
7892.00,1.56
7891.00,1.56
7890.00,1.56
7889.00,1.56
7888.00,1.56
7887.00,1.56
7886.00,1.56
7885.00,1.56
7884.00,1.56
7883.00,1.56
7882.00,1.56
7881.00,1.56
7880.00,1.56
7879.00,1.56
7878.00,1.56
7877.00,1.55
7876.00,1.55
7875.00,1.55
7874.00,1.55
7873.00,1.55
7872.00,1.55
7871.00,1.55
7870.00,1.55
7869.00,1.55
7868.00,1.55
7867.00,1.55
7866.00,1.55
7865.00,1.55
7864.00,1.55
7863.00,1.55
7862.00,1.55
7861.00,1.55
7860.00,1.55
7859.00,1.55
7858.00,1.55
7857.00,1.55
7856.00,1.55
7855.00,1.55
7854.00,1.55
7853.00,1.55
7852.00,1.55
7851.00,1.55
7850.00,1.55
7849.00,1.55
7848.00,1.55
7847.00,1.55
7846.00,1.55
7845.00,1.55
7844.00,1.55
7843.00,1.55
7842.00,1.55
7841.00,1.55
7840.00,1.55
7839.00,1.55
7838.00,1.55
7837.00,1.56
7836.00,1.56
7835.00,1.56
7834.00,1.56
7833.00,1.56
7832.00,1.56
7831.00,1.56
7830.00,1.56
7829.00,1.56
7828.00,1.56
7827.00,1.56
7826.00,1.56
7825.00,1.56
7824.00,1.56
7823.00,1.56
7822.00,1.56
7821.00,1.55
7820.00,1.55
7819.00,1.56
7818.00,1.56
7817.00,1.56
7816.00,1.56
7815.00,1.56
7814.00,1.56
7813.00,1.56
7812.00,1.56
7811.00,1.56
7810.00,1.56
7809.00,1.56
7808.00,1.56
7807.00,1.56
7806.00,1.56
7805.00,1.56
7804.00,1.56
7803.00,1.56
7802.00,1.56
7801.00,1.56
7800.00,1.56
7799.00,1.56
7798.00,1.56
7797.00,1.56
7796.00,1.56
7795.00,1.56
7794.00,1.56
7793.00,1.56
7792.00,1.56
7791.00,1.56
7790.00,1.56
7789.00,1.56
7788.00,1.56
7787.00,1.57
7786.00,1.57
7785.00,1.57
7784.00,1.57
7783.00,1.57
7782.00,1.57
7781.00,1.57
7780.00,1.57
7779.00,1.57
7778.00,1.57
7777.00,1.57
7776.00,1.57
7775.00,1.57
7774.00,1.57
7773.00,1.57
7772.00,1.56
7771.00,1.56
7770.00,1.56
7769.00,1.56
7768.00,1.56
7767.00,1.56
7766.00,1.56
7765.00,1.56
7764.00,1.56
7763.00,1.56
7762.00,1.56
7761.00,1.56
7760.00,1.56
7759.00,1.56
7758.00,1.56
7757.00,1.56
7756.00,1.56
7755.00,1.56
7754.00,1.56
7753.00,1.56
7752.00,1.55
7751.00,1.55
7750.00,1.56
7749.00,1.56
7748.00,1.56
7747.00,1.56
7746.00,1.56
7745.00,1.56
7744.00,1.56
7743.00,1.56
7742.00,1.56
7741.00,1.56
7740.00,1.56
7739.00,1.56
7738.00,1.56
7737.00,1.56
7736.00,1.56
7735.00,1.56
7734.00,1.56
7733.00,1.56
7732.00,1.56
7731.00,1.56
7730.00,1.56
7729.00,1.56
7728.00,1.56
7727.00,1.56
7726.00,1.56
7725.00,1.56
7724.00,1.56
7723.00,1.56
7722.00,1.57
7721.00,1.57
7720.00,1.57
7719.00,1.57
7718.00,1.57
7717.00,1.57
7716.00,1.57
7715.00,1.57
7714.00,1.57
7713.00,1.57
7712.00,1.57
7711.00,1.57
7710.00,1.57
7709.00,1.57
7708.00,1.57
7707.00,1.57
7706.00,1.57
7705.00,1.57
7704.00,1.57
7703.00,1.57
7702.00,1.57
7701.00,1.56
7700.00,1.56
7699.00,1.56
7698.00,1.56
7697.00,1.56
7696.00,1.56
7695.00,1.56
7694.00,1.56
7693.00,1.56
7692.00,1.56
7691.00,1.56
7690.00,1.56
7689.00,1.56
7688.00,1.56
7687.00,1.56
7686.00,1.56
7685.00,1.56
7684.00,1.56
7683.00,1.56
7682.00,1.56
7681.00,1.56
7680.00,1.56
7679.00,1.56
7678.00,1.56
7677.00,1.56
7676.00,1.56
7675.00,1.56
7674.00,1.56
7673.00,1.56
7672.00,1.56
7671.00,1.56
7670.00,1.56
7669.00,1.56
7668.00,1.56
7667.00,1.56
7666.00,1.56
7665.00,1.56
7664.00,1.56
7663.00,1.56
7662.00,1.56
7661.00,1.56
7660.00,1.56
7659.00,1.56
7658.00,1.56
7657.00,1.56
7656.00,1.56
7655.00,1.57
7654.00,1.57
7653.00,1.57
7652.00,1.57
7651.00,1.57
7650.00,1.57
7649.00,1.57
7648.00,1.57
7647.00,1.57
7646.00,1.57
7645.00,1.57
7644.00,1.57
7643.00,1.57
7642.00,1.57
7641.00,1.57
7640.00,1.57
7639.00,1.57
7638.00,1.57
7637.00,1.57
7636.00,1.57
7635.00,1.57
7634.00,1.57
7633.00,1.56
7632.00,1.56
7631.00,1.56
7630.00,1.56
7629.00,1.56
7628.00,1.56
7627.00,1.56
7626.00,1.56
7625.00,1.56
7624.00,1.56
7623.00,1.56
7622.00,1.56
7621.00,1.56
7620.00,1.56
7619.00,1.56
7618.00,1.56
7617.00,1.56
7616.00,1.56
7615.00,1.56
7614.00,1.56
7613.00,1.56
7612.00,1.56
7611.00,1.56
7610.00,1.56
7609.00,1.56
7608.00,1.56
7607.00,1.56
7606.00,1.57
7605.00,1.57
7604.00,1.57
7603.00,1.57
7602.00,1.57
7601.00,1.57
7600.00,1.57
7599.00,1.57
7598.00,1.57
7597.00,1.57
7596.00,1.56
7595.00,1.56
7594.00,1.56
7593.00,1.56
7592.00,1.56
7591.00,1.56
7590.00,1.56
7589.00,1.56
7588.00,1.56
7587.00,1.56
7586.00,1.56
7585.00,1.56
7584.00,1.56
7583.00,1.56
7582.00,1.56
7581.00,1.56
7580.00,1.56
7579.00,1.56
7578.00,1.56
7577.00,1.56
7576.00,1.56
7575.00,1.56
7574.00,1.56
7573.00,1.55
7572.00,1.55
7571.00,1.55
7570.00,1.55
7569.00,1.55
7568.00,1.55
7567.00,1.55
7566.00,1.55
7565.00,1.55
7564.00,1.55
7563.00,1.55
7562.00,1.55
7561.00,1.55
7560.00,1.55
7559.00,1.54
7558.00,1.54
7557.00,1.54
7556.00,1.54
7555.00,1.54
7554.00,1.54
7553.00,1.54
7552.00,1.54
7551.00,1.54
7550.00,1.54
7549.00,1.54
7548.00,1.54
7547.00,1.54
7546.00,1.54
7545.00,1.54
7544.00,1.54
7543.00,1.54
7542.00,1.54
7541.00,1.54
7540.00,1.54
7539.00,1.54
7538.00,1.54
7537.00,1.54
7536.00,1.54
7535.00,1.54
7534.00,1.54
7533.00,1.54
7532.00,1.54
7531.00,1.54
7530.00,1.54
7529.00,1.54
7528.00,1.54
7527.00,1.54
7526.00,1.54
7525.00,1.53
7524.00,1.53
7523.00,1.53
7522.00,1.53
7521.00,1.53
7520.00,1.53
7519.00,1.53
7518.00,1.53
7517.00,1.53
7516.00,1.53
7515.00,1.53
7514.00,1.53
7513.00,1.53
7512.00,1.53
7511.00,1.53
7510.00,1.53
7509.00,1.53
7508.00,1.53
7507.00,1.53
7506.00,1.53
7505.00,1.53
7504.00,1.53
7503.00,1.53
7502.00,1.53
7501.00,1.53
7500.00,1.52
7499.00,1.52
7498.00,1.52
7497.00,1.52
7496.00,1.52
7495.00,1.52
7494.00,1.52
7493.00,1.51
7492.00,1.51
7491.00,1.51
7490.00,1.51
7489.00,1.51
7488.00,1.51
7487.00,1.51
7486.00,1.51
7485.00,1.51
7484.00,1.51
7483.00,1.51
7482.00,1.50
7481.00,1.50
7480.00,1.50
7479.00,1.50
7478.00,1.50
7477.00,1.50
7476.00,1.50
7475.00,1.50
7474.00,1.50
7473.00,1.50
7472.00,1.50
7471.00,1.50
7470.00,1.50
7469.00,1.50
7468.00,1.50
7467.00,1.50
7466.00,1.50
7465.00,1.50
7464.00,1.50
7463.00,1.50
7462.00,1.50
7461.00,1.50
7460.00,1.50
7459.00,1.50
7458.00,1.49
7457.00,1.49
7456.00,1.49
7455.00,1.49
7454.00,1.49
7453.00,1.49
7452.00,1.49
7451.00,1.49
7450.00,1.49
7449.00,1.49
7448.00,1.49
7447.00,1.49
7446.00,1.49
7445.00,1.48
7444.00,1.48
7443.00,1.48
7442.00,1.48
7441.00,1.48
7440.00,1.48
7439.00,1.48
7438.00,1.48
7437.00,1.48
7436.00,1.48
7435.00,1.48
7434.00,1.48
7433.00,1.48
7432.00,1.48
7431.00,1.48
7430.00,1.48
7429.00,1.48
7428.00,1.48
7427.00,1.48
7426.00,1.48
7425.00,1.48
7424.00,1.48
7423.00,1.47
7422.00,1.47
7421.00,1.47
7420.00,1.47
7419.00,1.47
7418.00,1.47
7417.00,1.46
7416.00,1.46
7415.00,1.46
7414.00,1.46
7413.00,1.46
7412.00,1.46
7411.00,1.46
7410.00,1.46
7409.00,1.46
7408.00,1.46
7407.00,1.46
7406.00,1.46
7405.00,1.46
7404.00,1.46
7403.00,1.46
7402.00,1.46
7401.00,1.46
7400.00,1.46
7399.00,1.46
7398.00,1.45
7397.00,1.45
7396.00,1.45
7395.00,1.45
7394.00,1.45
7393.00,1.45
7392.00,1.45
7391.00,1.45
7390.00,1.45
7389.00,1.44
7388.00,1.44
7387.00,1.44
7386.00,1.44
7385.00,1.44
7384.00,1.44
7383.00,1.44
7382.00,1.43
7381.00,1.43
7380.00,1.43
7379.00,1.43
7378.00,1.43
7377.00,1.43
7376.00,1.43
7375.00,1.43
7374.00,1.43
7373.00,1.43
7372.00,1.43
7371.00,1.43
7370.00,1.43
7369.00,1.43
7368.00,1.43
7367.00,1.43
7366.00,1.43
7365.00,1.43
7364.00,1.43
7363.00,1.43
7362.00,1.43
7361.00,1.43
7360.00,1.43
7359.00,1.43
7358.00,1.43
7357.00,1.43
7356.00,1.43
7355.00,1.42
7354.00,1.42
7353.00,1.42
7352.00,1.42
7351.00,1.42
7350.00,1.42
7349.00,1.42
7348.00,1.42
7347.00,1.42
7346.00,1.42
7345.00,1.42
7344.00,1.42
7343.00,1.42
7342.00,1.42
7341.00,1.42
7340.00,1.42
7339.00,1.42
7338.00,1.42
7337.00,1.42
7336.00,1.42
7335.00,1.42
7334.00,1.42
7333.00,1.42
7332.00,1.42
7331.00,1.42
7330.00,1.42
7329.00,1.41
7328.00,1.41
7327.00,1.41
7326.00,1.41
7325.00,1.41
7324.00,1.41
7323.00,1.41
7322.00,1.41
7321.00,1.41
7320.00,1.41
7319.00,1.41
7318.00,1.41
7317.00,1.41
7316.00,1.41
7315.00,1.41
7314.00,1.41
7313.00,1.41
7312.00,1.41
7311.00,1.41
7310.00,1.41
7309.00,1.41
7308.00,1.41
7307.00,1.41
7306.00,1.41
7305.00,1.41
7304.00,1.41
7303.00,1.41
7302.00,1.41
7301.00,1.41
7300.00,1.41
7299.00,1.40
7298.00,1.40
7297.00,1.40
7296.00,1.40
7295.00,1.40
7294.00,1.40
7293.00,1.39
7292.00,1.39
7291.00,1.39
7290.00,1.39
7289.00,1.39
7288.00,1.38
7287.00,1.38
7286.00,1.38
7285.00,1.38
7284.00,1.38
7283.00,1.38
7282.00,1.37
7281.00,1.37
7280.00,1.37
7279.00,1.37
7278.00,1.37
7277.00,1.36
7276.00,1.36
7275.00,1.36
7274.00,1.36
7273.00,1.36
7272.00,1.35
7271.00,1.35
7270.00,1.35
7269.00,1.35
7268.00,1.35
7267.00,1.34
7266.00,1.34
7265.00,1.34
7264.00,1.34
7263.00,1.34
7262.00,1.34
7261.00,1.33
7260.00,1.33
7259.00,1.33
7258.00,1.33
7257.00,1.33
7256.00,1.32
7255.00,1.32
7254.00,1.32
7253.00,1.32
7252.00,1.31
7251.00,1.31
7250.00,1.31
7249.00,1.30
7248.00,1.30
7247.00,1.30
7246.00,1.29
7245.00,1.29
7244.00,1.28
7243.00,1.28
7242.00,1.28
7241.00,1.27
7240.00,1.27
7239.00,1.26
7238.00,1.26
7237.00,1.26
7236.00,1.25
7235.00,1.25
7234.00,1.24
7233.00,1.24
7232.00,1.24
7231.00,1.23
7230.00,1.23
7229.00,1.23
7228.00,1.22
7227.00,1.22
7226.00,1.22
7225.00,1.21
7224.00,1.21
7223.00,1.21
7222.00,1.20
7221.00,1.20
7220.00,1.20
7219.00,1.19
7218.00,1.19
7217.00,1.19
7216.00,1.18
7215.00,1.18
7214.00,1.17
7213.00,1.17
7212.00,1.16
7211.00,1.16
7210.00,1.15
7209.00,1.15
7208.00,1.14
7207.00,1.14
7206.00,1.13
7205.00,1.13
7204.00,1.12
7203.00,1.12
7202.00,1.11
7201.00,1.11
7200.00,1.10
7199.00,1.10
7198.00,1.09
7197.00,1.09
7196.00,1.09
7195.00,1.08
7194.00,1.08
7193.00,1.07
7192.00,1.07
7191.00,1.07
7190.00,1.06
7189.00,1.06
7188.00,1.06
7187.00,1.05
7186.00,1.05
7185.00,1.04
7184.00,1.04
7183.00,1.04
7182.00,1.03
7181.00,1.03
7180.00,1.02
7179.00,1.02
7178.00,1.02
7177.00,1.01
7176.00,1.01
7175.00,1.00
7174.00,1.00
7173.00,0.99
7172.00,0.99
7171.00,0.99
7170.00,0.98
7169.00,0.98
7168.00,0.97
7167.00,0.97
7166.00,0.96
7165.00,0.96
7164.00,0.96
7163.00,0.95
7162.00,0.95
7161.00,0.94
7160.00,0.94
7159.00,0.94
7158.00,0.93
7157.00,0.93
7156.00,0.93
7155.00,0.93
7154.00,0.92
7153.00,0.92
7152.00,0.92
7151.00,0.91
7150.00,0.91
7149.00,0.90
7148.00,0.90
7147.00,0.90
7146.00,0.89
7145.00,0.89
7144.00,0.88
7143.00,0.88
7142.00,0.88
7141.00,0.87
7140.00,0.87
7139.00,0.87
7138.00,0.86
7137.00,0.86
7136.00,0.86
7135.00,0.85
7134.00,0.85
7133.00,0.85
7132.00,0.85
7131.00,0.84
7130.00,0.84
7129.00,0.84
7128.00,0.84
7127.00,0.83
7126.00,0.83
7125.00,0.83
7124.00,0.82
7123.00,0.82
7122.00,0.82
7121.00,0.82
7120.00,0.81
7119.00,0.81
7118.00,0.81
7117.00,0.80
7116.00,0.80
7115.00,0.80
7114.00,0.80
7113.00,0.79
7112.00,0.79
7111.00,0.79
7110.00,0.79
7109.00,0.79
7108.00,0.78
7107.00,0.78
7106.00,0.78
7105.00,0.78
7104.00,0.78
7103.00,0.78
7102.00,0.78
7101.00,0.77
7100.00,0.77
7099.00,0.77
7098.00,0.77
7097.00,0.77
7096.00,0.77
7095.00,0.77
7094.00,0.76
7093.00,0.76
7092.00,0.76
7091.00,0.76
7090.00,0.76
7089.00,0.76
7088.00,0.76
7087.00,0.75
7086.00,0.75
7085.00,0.75
7084.00,0.75
7083.00,0.75
7082.00,0.74
7081.00,0.74
7080.00,0.74
7079.00,0.74
7078.00,0.74
7077.00,0.74
7076.00,0.73
7075.00,0.73
7074.00,0.73
7073.00,0.73
7072.00,0.73
7071.00,0.73
7070.00,0.72
7069.00,0.72
7068.00,0.72
7067.00,0.72
7066.00,0.72
7065.00,0.72
7064.00,0.72
7063.00,0.71
7062.00,0.71
7061.00,0.71
7060.00,0.71
7059.00,0.71
7058.00,0.71
7057.00,0.71
7056.00,0.71
7055.00,0.70
7054.00,0.70
7053.00,0.70
7052.00,0.70
7051.00,0.70
7050.00,0.70
7049.00,0.70
7048.00,0.70
7047.00,0.70
7046.00,0.70
7045.00,0.69
7044.00,0.69
7043.00,0.69
7042.00,0.69
7041.00,0.69
7040.00,0.69
7039.00,0.69
7038.00,0.69
7037.00,0.69
7036.00,0.69
7035.00,0.69
7034.00,0.69
7033.00,0.69
7032.00,0.69
7031.00,0.69
7030.00,0.69
7029.00,0.69
7028.00,0.69
7027.00,0.69
7026.00,0.69
7025.00,0.69
7024.00,0.69
7023.00,0.69
7022.00,0.69
7021.00,0.69
7020.00,0.69
7019.00,0.69
7018.00,0.69
7017.00,0.68
7016.00,0.68
7015.00,0.68
7014.00,0.68
7013.00,0.68
7012.00,0.68
7011.00,0.68
7010.00,0.68
7009.00,0.68
7008.00,0.68
7007.00,0.68
7006.00,0.68
7005.00,0.68
7004.00,0.68
7003.00,0.68
7002.00,0.68
7001.00,0.68
7000.00,0.68
6999.00,0.68
6998.00,0.68
6997.00,0.67
6996.00,0.67
6995.00,0.67
6994.00,0.67
6993.00,0.67
6992.00,0.67
6991.00,0.67
6990.00,0.67
6989.00,0.67
6988.00,0.67
6987.00,0.67
6986.00,0.67
6985.00,0.67
6984.00,0.67
6983.00,0.66
6982.00,0.66
6981.00,0.66
6980.00,0.66
6979.00,0.66
6978.00,0.66
6977.00,0.66
6976.00,0.66
6975.00,0.66
6974.00,0.66
6973.00,0.66
6972.00,0.66
6971.00,0.66
6970.00,0.66
6969.00,0.66
6968.00,0.66
6967.00,0.66
6966.00,0.66
6965.00,0.66
6964.00,0.66
6963.00,0.66
6962.00,0.66
6961.00,0.66
6960.00,0.66
6959.00,0.66
6958.00,0.66
6957.00,0.66
6956.00,0.66
6955.00,0.66
6954.00,0.66
6953.00,0.66
6952.00,0.66
6951.00,0.66
6950.00,0.66
6949.00,0.66
6948.00,0.66
6947.00,0.66
6946.00,0.66
6945.00,0.66
6944.00,0.66
6943.00,0.66
6942.00,0.66
6941.00,0.66
6940.00,0.66
6939.00,0.66
6938.00,0.66
6937.00,0.66
6936.00,0.66
6935.00,0.66
6934.00,0.66
6933.00,0.66
6932.00,0.66
6931.00,0.66
6930.00,0.66
6929.00,0.66
6928.00,0.66
6927.00,0.65
6926.00,0.65
6925.00,0.65
6924.00,0.65
6923.00,0.65
6922.00,0.65
6921.00,0.65
6920.00,0.65
6919.00,0.65
6918.00,0.65
6917.00,0.65
6916.00,0.65
6915.00,0.65
6914.00,0.65
6913.00,0.65
6912.00,0.65
6911.00,0.65
6910.00,0.65
6909.00,0.65
6908.00,0.65
6907.00,0.65
6906.00,0.65
6905.00,0.65
6904.00,0.65
6903.00,0.65
6902.00,0.65
6901.00,0.65
6900.00,0.65
6899.00,0.65
6898.00,0.65
6897.00,0.65
6896.00,0.66
6895.00,0.66
6894.00,0.66
6893.00,0.66
6892.00,0.66
6891.00,0.66
6890.00,0.66
6889.00,0.66
6888.00,0.66
6887.00,0.66
6886.00,0.66
6885.00,0.66
6884.00,0.66
6883.00,0.66
6882.00,0.66
6881.00,0.66
6880.00,0.66
6879.00,0.66
6878.00,0.66
6877.00,0.66
6876.00,0.66
6875.00,0.66
6874.00,0.66
6873.00,0.66
6872.00,0.66
6871.00,0.65
6870.00,0.65
6869.00,0.65
6868.00,0.65
6867.00,0.65
6866.00,0.65
6865.00,0.65
6864.00,0.65
6863.00,0.65
6862.00,0.65
6861.00,0.65
6860.00,0.65
6859.00,0.65
6858.00,0.65
6857.00,0.65
6856.00,0.65
6855.00,0.65
6854.00,0.66
6853.00,0.66
6852.00,0.66
6851.00,0.66
6850.00,0.66
6849.00,0.66
6848.00,0.66
6847.00,0.66
6846.00,0.66
6845.00,0.66
6844.00,0.66
6843.00,0.66
6842.00,0.66
6841.00,0.66
6840.00,0.66
6839.00,0.66
6838.00,0.66
6837.00,0.66
6836.00,0.66
6835.00,0.66
6834.00,0.66
6833.00,0.66
6832.00,0.66
6831.00,0.66
6830.00,0.66
6829.00,0.66
6828.00,0.66
6827.00,0.66
6826.00,0.66
6825.00,0.66
6824.00,0.66
6823.00,0.66
6822.00,0.66
6821.00,0.66
6820.00,0.66
6819.00,0.66
6818.00,0.66
6817.00,0.66
6816.00,0.66
6815.00,0.66
6814.00,0.66
6813.00,0.66
6812.00,0.66
6811.00,0.67
6810.00,0.67
6809.00,0.67
6808.00,0.67
6807.00,0.67
6806.00,0.67
6805.00,0.67
6804.00,0.67
6803.00,0.67
6802.00,0.67
6801.00,0.67
6800.00,0.67
6799.00,0.67
6798.00,0.67
6797.00,0.67
6796.00,0.68
6795.00,0.68
6794.00,0.68
6793.00,0.68
6792.00,0.68
6791.00,0.68
6790.00,0.68
6789.00,0.68
6788.00,0.68
6787.00,0.68
6786.00,0.68
6785.00,0.68
6784.00,0.68
6783.00,0.68
6782.00,0.68
6781.00,0.68
6780.00,0.68
6779.00,0.68
6778.00,0.68
6777.00,0.68
6776.00,0.68
6775.00,0.68
6774.00,0.68
6773.00,0.68
6772.00,0.68
6771.00,0.68
6770.00,0.68
6769.00,0.68
6768.00,0.68
6767.00,0.69
6766.00,0.69
6765.00,0.69
6764.00,0.69
6763.00,0.69
6762.00,0.69
6761.00,0.69
6760.00,0.69
6759.00,0.69
6758.00,0.69
6757.00,0.70
6756.00,0.70
6755.00,0.70
6754.00,0.70
6753.00,0.70
6752.00,0.70
6751.00,0.70
6750.00,0.70
6749.00,0.70
6748.00,0.70
6747.00,0.70
6746.00,0.70
6745.00,0.70
6744.00,0.70
6743.00,0.70
6742.00,0.71
6741.00,0.71
6740.00,0.71
6739.00,0.71
6738.00,0.71
6737.00,0.71
6736.00,0.71
6735.00,0.71
6734.00,0.71
6733.00,0.71
6732.00,0.72
6731.00,0.72
6730.00,0.72
6729.00,0.72
6728.00,0.72
6727.00,0.72
6726.00,0.72
6725.00,0.72
6724.00,0.73
6723.00,0.73
6722.00,0.73
6721.00,0.73
6720.00,0.73
6719.00,0.73
6718.00,0.73
6717.00,0.73
6716.00,0.73
6715.00,0.73
6714.00,0.73
6713.00,0.73
6712.00,0.73
6711.00,0.73
6710.00,0.73
6709.00,0.73
6708.00,0.74
6707.00,0.74
6706.00,0.74
6705.00,0.74
6704.00,0.74
6703.00,0.74
6702.00,0.74
6701.00,0.74
6700.00,0.74
6699.00,0.74
6698.00,0.74
6697.00,0.74
6696.00,0.74
6695.00,0.74
6694.00,0.74
6693.00,0.74
6692.00,0.75
6691.00,0.75
6690.00,0.75
6689.00,0.75
6688.00,0.75
6687.00,0.75
6686.00,0.75
6685.00,0.75
6684.00,0.75
6683.00,0.76
6682.00,0.76
6681.00,0.76
6680.00,0.76
6679.00,0.76
6678.00,0.76
6677.00,0.76
6676.00,0.76
6675.00,0.77
6674.00,0.77
6673.00,0.77
6672.00,0.77
6671.00,0.77
6670.00,0.77
6669.00,0.77
6668.00,0.77
6667.00,0.78
6666.00,0.78
6665.00,0.78
6664.00,0.78
6663.00,0.78
6662.00,0.78
6661.00,0.78
6660.00,0.78
6659.00,0.78
6658.00,0.78
6657.00,0.78
6656.00,0.78
6655.00,0.78
6654.00,0.79
6653.00,0.79
6652.00,0.79
6651.00,0.79
6650.00,0.79
6649.00,0.79
6648.00,0.79
6647.00,0.79
6646.00,0.79
6645.00,0.80
6644.00,0.80
6643.00,0.80
6642.00,0.80
6641.00,0.80
6640.00,0.80
6639.00,0.80
6638.00,0.80
6637.00,0.81
6636.00,0.81
6635.00,0.81
6634.00,0.81
6633.00,0.81
6632.00,0.81
6631.00,0.82
6630.00,0.82
6629.00,0.82
6628.00,0.82
6627.00,0.82
6626.00,0.82
6625.00,0.82
6624.00,0.83
6623.00,0.83
6622.00,0.83
6621.00,0.83
6620.00,0.83
6619.00,0.83
6618.00,0.83
6617.00,0.83
6616.00,0.83
6615.00,0.83
6614.00,0.83
6613.00,0.83
6612.00,0.83
6611.00,0.84
6610.00,0.84
6609.00,0.84
6608.00,0.84
6607.00,0.84
6606.00,0.84
6605.00,0.84
6604.00,0.84
6603.00,0.84
6602.00,0.84
6601.00,0.84
6600.00,0.84
6599.00,0.84
6598.00,0.84
6597.00,0.85
6596.00,0.85
6595.00,0.85
6594.00,0.85
6593.00,0.85
6592.00,0.85
6591.00,0.85
6590.00,0.85
6589.00,0.86
6588.00,0.86
6587.00,0.86
6586.00,0.86
6585.00,0.86
6584.00,0.86
6583.00,0.86
6582.00,0.86
6581.00,0.87
6580.00,0.87
6579.00,0.87
6578.00,0.87
6577.00,0.87
6576.00,0.87
6575.00,0.87
6574.00,0.87
6573.00,0.88
6572.00,0.88
6571.00,0.88
6570.00,0.88
6569.00,0.88
6568.00,0.88
6567.00,0.89
6566.00,0.89
6565.00,0.89
6564.00,0.89
6563.00,0.89
6562.00,0.89
6561.00,0.90
6560.00,0.90
6559.00,0.90
6558.00,0.90
6557.00,0.90
6556.00,0.90
6555.00,0.90
6554.00,0.91
6553.00,0.91
6552.00,0.91
6551.00,0.91
6550.00,0.91
6549.00,0.91
6548.00,0.91
6547.00,0.91
6546.00,0.91
6545.00,0.91
6544.00,0.92
6543.00,0.92
6542.00,0.92
6541.00,0.92
6540.00,0.92
6539.00,0.92
6538.00,0.92
6537.00,0.92
6536.00,0.92
6535.00,0.92
6534.00,0.92
6533.00,0.92
6532.00,0.93
6531.00,0.93
6530.00,0.93
6529.00,0.93
6528.00,0.93
6527.00,0.93
6526.00,0.93
6525.00,0.93
6524.00,0.93
6523.00,0.94
6522.00,0.94
6521.00,0.94
6520.00,0.94
6519.00,0.94
6518.00,0.94
6517.00,0.94
6516.00,0.94
6515.00,0.94
6514.00,0.95
6513.00,0.95
6512.00,0.95
6511.00,0.95
6510.00,0.95
6509.00,0.95
6508.00,0.95
6507.00,0.96
6506.00,0.96
6505.00,0.96
6504.00,0.96
6503.00,0.96
6502.00,0.96
6501.00,0.96
6500.00,0.97
6499.00,0.97
6498.00,0.97
6497.00,0.97
6496.00,0.97
6495.00,0.97
6494.00,0.97
6493.00,0.98
6492.00,0.98
6491.00,0.98
6490.00,0.98
6489.00,0.98
6488.00,0.98
6487.00,0.98
6486.00,0.99
6485.00,0.99
6484.00,0.99
6483.00,0.99
6482.00,0.99
6481.00,0.99
6480.00,0.99
6479.00,0.99
6478.00,0.99
6477.00,0.99
6476.00,1.00
6475.00,1.00
6474.00,1.00
6473.00,1.00
6472.00,1.00
6471.00,1.00
6470.00,1.00
6469.00,1.00
6468.00,1.00
6467.00,1.00
6466.00,1.01
6465.00,1.01
6464.00,1.01
6463.00,1.01
6462.00,1.01
6461.00,1.01
6460.00,1.01
6459.00,1.01
6458.00,1.01
6457.00,1.01
6456.00,1.01
6455.00,1.02
6454.00,1.02
6453.00,1.02
6452.00,1.02
6451.00,1.02
6450.00,1.02
6449.00,1.02
6448.00,1.02
6447.00,1.02
6446.00,1.03
6445.00,1.03
6444.00,1.03
6443.00,1.03
6442.00,1.03
6441.00,1.03
6440.00,1.03
6439.00,1.03
6438.00,1.03
6437.00,1.04
6436.00,1.04
6435.00,1.04
6434.00,1.04
6433.00,1.04
6432.00,1.04
6431.00,1.04
6430.00,1.05
6429.00,1.05
6428.00,1.05
6427.00,1.05
6426.00,1.05
6425.00,1.05
6424.00,1.05
6423.00,1.05
6422.00,1.05
6421.00,1.06
6420.00,1.06
6419.00,1.06
6418.00,1.06
6417.00,1.06
6416.00,1.06
6415.00,1.06
6414.00,1.06
6413.00,1.07
6412.00,1.07
6411.00,1.07
6410.00,1.07
6409.00,1.07
6408.00,1.07
6407.00,1.07
6406.00,1.07
6405.00,1.07
6404.00,1.07
6403.00,1.07
6402.00,1.07
6401.00,1.07
6400.00,1.07
6399.00,1.08
6398.00,1.08
6397.00,1.08
6396.00,1.08
6395.00,1.08
6394.00,1.08
6393.00,1.08
6392.00,1.08
6391.00,1.08
6390.00,1.08
6389.00,1.08
6388.00,1.09
6387.00,1.09
6386.00,1.09
6385.00,1.09
6384.00,1.09
6383.00,1.09
6382.00,1.09
6381.00,1.10
6380.00,1.10
6379.00,1.10
6378.00,1.10
6377.00,1.10
6376.00,1.10
6375.00,1.10
6374.00,1.11
6373.00,1.11
6372.00,1.11
6371.00,1.11
6370.00,1.11
6369.00,1.11
6368.00,1.12
6367.00,1.12
6366.00,1.12
6365.00,1.12
6364.00,1.12
6363.00,1.12
6362.00,1.12
6361.00,1.13
6360.00,1.13
6359.00,1.13
6358.00,1.13
6357.00,1.13
6356.00,1.13
6355.00,1.13
6354.00,1.14
6353.00,1.14
6352.00,1.14
6351.00,1.14
6350.00,1.14
6349.00,1.14
6348.00,1.14
6347.00,1.15
6346.00,1.15
6345.00,1.15
6344.00,1.15
6343.00,1.15
6342.00,1.15
6341.00,1.15
6340.00,1.16
6339.00,1.16
6338.00,1.16
6337.00,1.16
6336.00,1.16
6335.00,1.16
6334.00,1.16
6333.00,1.17
6332.00,1.17
6331.00,1.17
6330.00,1.17
6329.00,1.17
6328.00,1.17
6327.00,1.17
6326.00,1.17
6325.00,1.18
6324.00,1.18
6323.00,1.18
6322.00,1.18
6321.00,1.18
6320.00,1.18
6319.00,1.18
6318.00,1.18
6317.00,1.18
6316.00,1.18
6315.00,1.18
6314.00,1.19
6313.00,1.19
6312.00,1.19
6311.00,1.19
6310.00,1.19
6309.00,1.19
6308.00,1.19
6307.00,1.20
6306.00,1.20
6305.00,1.20
6304.00,1.20
6303.00,1.20
6302.00,1.21
6301.00,1.21
6300.00,1.21
6299.00,1.21
6298.00,1.21
6297.00,1.22
6296.00,1.22
6295.00,1.22
6294.00,1.22
6293.00,1.22
6292.00,1.22
6291.00,1.22
6290.00,1.22
6289.00,1.23
6288.00,1.23
6287.00,1.23
6286.00,1.23
6285.00,1.23
6284.00,1.23
6283.00,1.23
6282.00,1.23
6281.00,1.23
6280.00,1.24
6279.00,1.24
6278.00,1.24
6277.00,1.24
6276.00,1.24
6275.00,1.24
6274.00,1.24
6273.00,1.25
6272.00,1.25
6271.00,1.25
6270.00,1.25
6269.00,1.25
6268.00,1.25
6267.00,1.25
6266.00,1.26
6265.00,1.26
6264.00,1.26
6263.00,1.26
6262.00,1.26
6261.00,1.26
6260.00,1.26
6259.00,1.26
6258.00,1.26
6257.00,1.26
6256.00,1.27
6255.00,1.27
6254.00,1.27
6253.00,1.27
6252.00,1.27
6251.00,1.27
6250.00,1.27
6249.00,1.28
6248.00,1.28
6247.00,1.28
6246.00,1.28
6245.00,1.28
6244.00,1.28
6243.00,1.29
6242.00,1.29
6241.00,1.29
6240.00,1.29
6239.00,1.29
6238.00,1.29
6237.00,1.30
6236.00,1.30
6235.00,1.30
6234.00,1.30
6233.00,1.30
6232.00,1.30
6231.00,1.31
6230.00,1.31
6229.00,1.31
6228.00,1.31
6227.00,1.31
6226.00,1.31
6225.00,1.31
6224.00,1.32
6223.00,1.32
6222.00,1.32
6221.00,1.32
6220.00,1.32
6219.00,1.32
6218.00,1.32
6217.00,1.32
6216.00,1.33
6215.00,1.33
6214.00,1.33
6213.00,1.33
6212.00,1.33
6211.00,1.33
6210.00,1.33
6209.00,1.33
6208.00,1.34
6207.00,1.34
6206.00,1.34
6205.00,1.34
6204.00,1.34
6203.00,1.34
6202.00,1.34
6201.00,1.34
6200.00,1.34
6199.00,1.34
6198.00,1.35
6197.00,1.35
6196.00,1.35
6195.00,1.35
6194.00,1.35
6193.00,1.35
6192.00,1.35
6191.00,1.36
6190.00,1.36
6189.00,1.36
6188.00,1.36
6187.00,1.36
6186.00,1.36
6185.00,1.37
6184.00,1.37
6183.00,1.37
6182.00,1.37
6181.00,1.37
6180.00,1.37
6179.00,1.37
6178.00,1.38
6177.00,1.38
6176.00,1.38
6175.00,1.38
6174.00,1.38
6173.00,1.38
6172.00,1.38
6171.00,1.39
6170.00,1.39
6169.00,1.39
6168.00,1.39
6167.00,1.39
6166.00,1.39
6165.00,1.40
6164.00,1.40
6163.00,1.40
6162.00,1.40
6161.00,1.40
6160.00,1.41
6159.00,1.41
6158.00,1.41
6157.00,1.41
6156.00,1.42
6155.00,1.42
6154.00,1.42
6153.00,1.42
6152.00,1.42
6151.00,1.42
6150.00,1.43
6149.00,1.43
6148.00,1.43
6147.00,1.43
6146.00,1.43
6145.00,1.43
6144.00,1.43
6143.00,1.43
6142.00,1.43
6141.00,1.44
6140.00,1.44
6139.00,1.44
6138.00,1.44
6137.00,1.44
6136.00,1.44
6135.00,1.44
6134.00,1.44
6133.00,1.45
6132.00,1.45
6131.00,1.45
6130.00,1.45
6129.00,1.45
6128.00,1.45
6127.00,1.45
6126.00,1.45
6125.00,1.46
6124.00,1.46
6123.00,1.46
6122.00,1.46
6121.00,1.46
6120.00,1.46
6119.00,1.46
6118.00,1.46
6117.00,1.46
6116.00,1.46
6115.00,1.47
6114.00,1.47
6113.00,1.47
6112.00,1.47
6111.00,1.47
6110.00,1.47
6109.00,1.47
6108.00,1.47
6107.00,1.47
6106.00,1.48
6105.00,1.48
6104.00,1.48
6103.00,1.48
6102.00,1.48
6101.00,1.48
6100.00,1.48
6099.00,1.48
6098.00,1.49
6097.00,1.49
6096.00,1.49
6095.00,1.49
6094.00,1.49
6093.00,1.49
6092.00,1.50
6091.00,1.50
6090.00,1.50
6089.00,1.50
6088.00,1.50
6087.00,1.50
6086.00,1.51
6085.00,1.51
6084.00,1.51
6083.00,1.51
6082.00,1.51
6081.00,1.51
6080.00,1.52
6079.00,1.52
6078.00,1.52
6077.00,1.52
6076.00,1.52
6075.00,1.52
6074.00,1.52
6073.00,1.52
6072.00,1.52
6071.00,1.53
6070.00,1.53
6069.00,1.53
6068.00,1.53
6067.00,1.53
6066.00,1.53
6065.00,1.53
6064.00,1.53
6063.00,1.53
6062.00,1.53
6061.00,1.53
6060.00,1.53
6059.00,1.53
6058.00,1.53
6057.00,1.54
6056.00,1.54
6055.00,1.54
6054.00,1.54
6053.00,1.54
6052.00,1.54
6051.00,1.54
6050.00,1.54
6049.00,1.54
6048.00,1.54
6047.00,1.55
6046.00,1.55
6045.00,1.55
6044.00,1.55
6043.00,1.55
6042.00,1.55
6041.00,1.55
6040.00,1.55
6039.00,1.55
6038.00,1.56
6037.00,1.56
6036.00,1.56
6035.00,1.56
6034.00,1.56
6033.00,1.56
6032.00,1.56
6031.00,1.56
6030.00,1.56
6029.00,1.56
6028.00,1.56
6027.00,1.56
6026.00,1.56
6025.00,1.56
6024.00,1.56
6023.00,1.56
6022.00,1.56
6021.00,1.56
6020.00,1.56
6019.00,1.56
6018.00,1.56
6017.00,1.56
6016.00,1.56
6015.00,1.56
6014.00,1.56
6013.00,1.56
6012.00,1.56
6011.00,1.57
6010.00,1.57
6009.00,1.57
6008.00,1.57
6007.00,1.57
6006.00,1.57
6005.00,1.57
6004.00,1.57
6003.00,1.57
6002.00,1.57
6001.00,1.57
6000.00,1.57
5999.00,1.57
5998.00,1.57
5997.00,1.57
5996.00,1.57
5995.00,1.56
5994.00,1.56
5993.00,1.56
5992.00,1.56
5991.00,1.56
5990.00,1.56
5989.00,1.56
5988.00,1.56
5987.00,1.56
5986.00,1.55
5985.00,1.55
5984.00,1.55
5983.00,1.55
5982.00,1.55
5981.00,1.54
5980.00,1.54
5979.00,1.54
5978.00,1.54
5977.00,1.53
5976.00,1.53
5975.00,1.53
5974.00,1.52
5973.00,1.52
5972.00,1.52
5971.00,1.51
5970.00,1.51
5969.00,1.50
5968.00,1.50
5967.00,1.50
5966.00,1.49
5965.00,1.49
5964.00,1.48
5963.00,1.48
5962.00,1.48
5961.00,1.47
5960.00,1.47
5959.00,1.46
5958.00,1.46
5957.00,1.46
5956.00,1.45
5955.00,1.45
5954.00,1.45
5953.00,1.44
5952.00,1.44
5951.00,1.44
5950.00,1.43
5949.00,1.43
5948.00,1.43
5947.00,1.43
5946.00,1.43
5945.00,1.42
5944.00,1.42
5943.00,1.42
5942.00,1.42
5941.00,1.42
5940.00,1.42
5939.00,1.42
5938.00,1.42
5937.00,1.42
5936.00,1.42
5935.00,1.42
5934.00,1.41
5933.00,1.41
5932.00,1.41
5931.00,1.41
5930.00,1.41
5929.00,1.41
5928.00,1.41
5927.00,1.41
5926.00,1.41
5925.00,1.40
5924.00,1.40
5923.00,1.40
5922.00,1.40
5921.00,1.40
5920.00,1.40
5919.00,1.39
5918.00,1.39
5917.00,1.39
5916.00,1.39
5915.00,1.39
5914.00,1.39
5913.00,1.39
5912.00,1.39
5911.00,1.38
5910.00,1.38
5909.00,1.38
5908.00,1.38
5907.00,1.38
5906.00,1.38
5905.00,1.38
5904.00,1.38
5903.00,1.38
5902.00,1.38
5901.00,1.39
5900.00,1.39
5899.00,1.39
5898.00,1.39
5897.00,1.39
5896.00,1.39
5895.00,1.39
5894.00,1.40
5893.00,1.40
5892.00,1.40
5891.00,1.40
5890.00,1.40
5889.00,1.41
5888.00,1.41
5887.00,1.41
5886.00,1.41
5885.00,1.41
5884.00,1.42
5883.00,1.42
5882.00,1.42
5881.00,1.42
5880.00,1.42
5879.00,1.43
5878.00,1.43
5877.00,1.43
5876.00,1.43
5875.00,1.43
5874.00,1.44
5873.00,1.44
5872.00,1.44
5871.00,1.44
5870.00,1.44
5869.00,1.45
5868.00,1.45
5867.00,1.45
5866.00,1.45
5865.00,1.45
5864.00,1.46
5863.00,1.46
5862.00,1.46
5861.00,1.46
5860.00,1.46
5859.00,1.46
5858.00,1.46
5857.00,1.46
5856.00,1.46
5855.00,1.46
5854.00,1.47
5853.00,1.47
5852.00,1.47
5851.00,1.47
5850.00,1.47
5849.00,1.47
5848.00,1.47
5847.00,1.47
5846.00,1.47
5845.00,1.47
5844.00,1.47
5843.00,1.47
5842.00,1.47
5841.00,1.47
5840.00,1.47
5839.00,1.47
5838.00,1.47
5837.00,1.47
5836.00,1.47
5835.00,1.47
5834.00,1.47
5833.00,1.47
5832.00,1.47
5831.00,1.47
5830.00,1.47
5829.00,1.47
5828.00,1.47
5827.00,1.47
5826.00,1.47
5825.00,1.47
5824.00,1.47
5823.00,1.47
5822.00,1.47
5821.00,1.47
5820.00,1.47
5819.00,1.47
5818.00,1.47
5817.00,1.47
5816.00,1.47
5815.00,1.47
5814.00,1.47
5813.00,1.47
5812.00,1.46
5811.00,1.46
5810.00,1.46
5809.00,1.46
5808.00,1.46
5807.00,1.46
5806.00,1.46
5805.00,1.46
5804.00,1.46
5803.00,1.45
5802.00,1.45
5801.00,1.45
5800.00,1.45
5799.00,1.45
5798.00,1.45
5797.00,1.45
5796.00,1.44
5795.00,1.44
5794.00,1.44
5793.00,1.44
5792.00,1.44
5791.00,1.44
5790.00,1.43
5789.00,1.43
5788.00,1.43
5787.00,1.43
5786.00,1.43
5785.00,1.42
5784.00,1.42
5783.00,1.42
5782.00,1.42
5781.00,1.42
5780.00,1.42
5779.00,1.42
5778.00,1.42
5777.00,1.42
5776.00,1.42
5775.00,1.42
5774.00,1.42
5773.00,1.42
5772.00,1.42
5771.00,1.42
5770.00,1.42
5769.00,1.42
5768.00,1.42
5767.00,1.42
5766.00,1.42
5765.00,1.42
5764.00,1.43
5763.00,1.43
5762.00,1.43
5761.00,1.43
5760.00,1.43
5759.00,1.43
5758.00,1.43
5757.00,1.44
5756.00,1.44
5755.00,1.44
5754.00,1.44
5753.00,1.44
5752.00,1.44
5751.00,1.45
5750.00,1.45
5749.00,1.45
5748.00,1.45
5747.00,1.45
5746.00,1.45
5745.00,1.45
5744.00,1.46
5743.00,1.46
5742.00,1.46
5741.00,1.46
5740.00,1.46
5739.00,1.46
5738.00,1.46
5737.00,1.46
5736.00,1.46
5735.00,1.46
5734.00,1.46
5733.00,1.46
5732.00,1.46
5731.00,1.46
5730.00,1.46
5729.00,1.46
5728.00,1.46
5727.00,1.46
5726.00,1.46
5725.00,1.46
5724.00,1.46
5723.00,1.46
5722.00,1.46
5721.00,1.46
5720.00,1.45
5719.00,1.45
5718.00,1.45
5717.00,1.45
5716.00,1.45
5715.00,1.45
5714.00,1.45
5713.00,1.45
5712.00,1.45
5711.00,1.45
5710.00,1.45
5709.00,1.44
5708.00,1.44
5707.00,1.44
5706.00,1.44
5705.00,1.44
5704.00,1.44
5703.00,1.44
5702.00,1.44
5701.00,1.44
5700.00,1.43
5699.00,1.43
5698.00,1.43
5697.00,1.43
5696.00,1.43
5695.00,1.43
5694.00,1.43
5693.00,1.43
5692.00,1.42
5691.00,1.42
5690.00,1.42
5689.00,1.42
5688.00,1.42
5687.00,1.42
5686.00,1.42
5685.00,1.42
5684.00,1.41
5683.00,1.41
5682.00,1.41
5681.00,1.41
5680.00,1.41
5679.00,1.41
5678.00,1.41
5677.00,1.41
5676.00,1.41
5675.00,1.41
5674.00,1.41
5673.00,1.40
5672.00,1.40
5671.00,1.40
5670.00,1.40
5669.00,1.40
5668.00,1.40
5667.00,1.40
5666.00,1.40
5665.00,1.40
5664.00,1.40
5663.00,1.40
5662.00,1.41
5661.00,1.41
5660.00,1.41
5659.00,1.41
5658.00,1.41
5657.00,1.41
5656.00,1.41
5655.00,1.41
5654.00,1.41
5653.00,1.41
5652.00,1.41
5651.00,1.41
5650.00,1.41
5649.00,1.41
5648.00,1.41
5647.00,1.41
5646.00,1.42
5645.00,1.42
5644.00,1.42
5643.00,1.42
5642.00,1.42
5641.00,1.42
5640.00,1.42
5639.00,1.42
5638.00,1.42
5637.00,1.42
5636.00,1.42
5635.00,1.42
5634.00,1.42
5633.00,1.42
5632.00,1.43
5631.00,1.43
5630.00,1.43
5629.00,1.43
5628.00,1.43
5627.00,1.43
5626.00,1.43
5625.00,1.43
5624.00,1.43
5623.00,1.43
5622.00,1.43
5621.00,1.44
5620.00,1.44
5619.00,1.44
5618.00,1.44
5617.00,1.44
5616.00,1.44
5615.00,1.44
5614.00,1.44
5613.00,1.44
5612.00,1.45
5611.00,1.45
5610.00,1.45
5609.00,1.45
5608.00,1.45
5607.00,1.45
5606.00,1.45
5605.00,1.45
5604.00,1.45
5603.00,1.45
5602.00,1.45
5601.00,1.45
5600.00,1.45
5599.00,1.45
5598.00,1.46
5597.00,1.46
5596.00,1.46
5595.00,1.46
5594.00,1.46
5593.00,1.46
5592.00,1.46
5591.00,1.46
5590.00,1.46
5589.00,1.46
5588.00,1.47
5587.00,1.47
5586.00,1.47
5585.00,1.47
5584.00,1.47
5583.00,1.47
5582.00,1.47
5581.00,1.47
5580.00,1.47
5579.00,1.48
5578.00,1.48
5577.00,1.48
5576.00,1.48
5575.00,1.48
5574.00,1.48
5573.00,1.48
5572.00,1.48
5571.00,1.48
5570.00,1.49
5569.00,1.49
5568.00,1.49
5567.00,1.49
5566.00,1.49
5565.00,1.49
5564.00,1.49
5563.00,1.49
5562.00,1.49
5561.00,1.50
5560.00,1.50
5559.00,1.50
5558.00,1.50
5557.00,1.50
5556.00,1.50
5555.00,1.50
5554.00,1.50
5553.00,1.50
5552.00,1.50
5551.00,1.51
5550.00,1.51
5549.00,1.51
5548.00,1.51
5547.00,1.51
5546.00,1.51
5545.00,1.51
5544.00,1.51
5543.00,1.51
5542.00,1.51
5541.00,1.51
5540.00,1.51
5539.00,1.52
5538.00,1.52
5537.00,1.52
5536.00,1.52
5535.00,1.52
5534.00,1.52
5533.00,1.52
5532.00,1.52
5531.00,1.52
5530.00,1.52
5529.00,1.52
5528.00,1.52
5527.00,1.52
5526.00,1.52
5525.00,1.52
5524.00,1.52
5523.00,1.52
5522.00,1.52
5521.00,1.52
5520.00,1.52
5519.00,1.52
5518.00,1.52
5517.00,1.53
5516.00,1.53
5515.00,1.53
5514.00,1.53
5513.00,1.53
5512.00,1.53
5511.00,1.53
5510.00,1.53
5509.00,1.53
5508.00,1.53
5507.00,1.53
5506.00,1.53
5505.00,1.53
5504.00,1.53
5503.00,1.53
5502.00,1.54
5501.00,1.54
5500.00,1.54
5499.00,1.54
5498.00,1.54
5497.00,1.54
5496.00,1.54
5495.00,1.54
5494.00,1.54
5493.00,1.54
5492.00,1.54
5491.00,1.54
5490.00,1.54
5489.00,1.54
5488.00,1.55
5487.00,1.55
5486.00,1.55
5485.00,1.55
5484.00,1.55
5483.00,1.55
5482.00,1.55
5481.00,1.55
5480.00,1.55
5479.00,1.56
5478.00,1.56
5477.00,1.56
5476.00,1.56
5475.00,1.56
5474.00,1.56
5473.00,1.56
5472.00,1.56
5471.00,1.56
5470.00,1.56
5469.00,1.56
5468.00,1.56
5467.00,1.56
5466.00,1.56
5465.00,1.56
5464.00,1.56
5463.00,1.57
5462.00,1.57
5461.00,1.57
5460.00,1.57
5459.00,1.57
5458.00,1.57
5457.00,1.57
5456.00,1.57
5455.00,1.57
5454.00,1.57
5453.00,1.57
5452.00,1.57
5451.00,1.57
5450.00,1.57
5449.00,1.56
5448.00,1.56
5447.00,1.56
5446.00,1.56
5445.00,1.56
5444.00,1.56
5443.00,1.56
5442.00,1.56
5441.00,1.56
5440.00,1.56
5439.00,1.56
5438.00,1.56
5437.00,1.56
5436.00,1.56
5435.00,1.56
5434.00,1.56
5433.00,1.56
5432.00,1.56
5431.00,1.56
5430.00,1.56
5429.00,1.56
5428.00,1.56
5427.00,1.56
5426.00,1.56
5425.00,1.56
5424.00,1.56
5423.00,1.56
5422.00,1.56
5421.00,1.56
5420.00,1.56
5419.00,1.55
5418.00,1.55
5417.00,1.55
5416.00,1.55
5415.00,1.55
5414.00,1.54
5413.00,1.54
5412.00,1.54
5411.00,1.54
5410.00,1.54
5409.00,1.54
5408.00,1.53
5407.00,1.53
5406.00,1.53
5405.00,1.53
5404.00,1.53
5403.00,1.53
5402.00,1.52
5401.00,1.52
5400.00,1.52
5399.00,1.52
5398.00,1.52
5397.00,1.51
5396.00,1.51
5395.00,1.51
5394.00,1.50
5393.00,1.50
5392.00,1.50
5391.00,1.49
5390.00,1.49
5389.00,1.48
5388.00,1.48
5387.00,1.48
5386.00,1.47
5385.00,1.47
5384.00,1.46
5383.00,1.46
5382.00,1.45
5381.00,1.45
5380.00,1.45
5379.00,1.44
5378.00,1.44
5377.00,1.43
5376.00,1.43
5375.00,1.42
5374.00,1.41
5373.00,1.41
5372.00,1.40
5371.00,1.40
5370.00,1.39
5369.00,1.38
5368.00,1.38
5367.00,1.37
5366.00,1.36
5365.00,1.36
5364.00,1.35
5363.00,1.34
5362.00,1.34
5361.00,1.33
5360.00,1.32
5359.00,1.31
5358.00,1.30
5357.00,1.29
5356.00,1.28
5355.00,1.27
5354.00,1.26
5353.00,1.25
5352.00,1.24
5351.00,1.23
5350.00,1.22
5349.00,1.21
5348.00,1.20
5347.00,1.19
5346.00,1.18
5345.00,1.17
5344.00,1.16
5343.00,1.15
5342.00,1.14
5341.00,1.13
5340.00,1.12
5339.00,1.11
5338.00,1.10
5337.00,1.09
5336.00,1.09
5335.00,1.08
5334.00,1.07
5333.00,1.06
5332.00,1.05
5331.00,1.04
5330.00,1.04
5329.00,1.03
5328.00,1.02
5327.00,1.01
5326.00,1.01
5325.00,1.00
5324.00,0.99
5323.00,0.99
5322.00,0.98
5321.00,0.97
5320.00,0.97
5319.00,0.96
5318.00,0.96
5317.00,0.95
5316.00,0.94
5315.00,0.94
5314.00,0.93
5313.00,0.93
5312.00,0.92
5311.00,0.92
5310.00,0.91
5309.00,0.91
5308.00,0.90
5307.00,0.90
5306.00,0.89
5305.00,0.89
5304.00,0.89
5303.00,0.88
5302.00,0.88
5301.00,0.88
5300.00,0.87
5299.00,0.87
5298.00,0.87
5297.00,0.87
5296.00,0.87
5295.00,0.86
5294.00,0.86
5293.00,0.86
5292.00,0.86
5291.00,0.86
5290.00,0.86
5289.00,0.86
5288.00,0.85
5287.00,0.85
5286.00,0.85
5285.00,0.85
5284.00,0.85
5283.00,0.85
5282.00,0.85
5281.00,0.85
5280.00,0.85
5279.00,0.85
5278.00,0.85
5277.00,0.85
5276.00,0.85
5275.00,0.85
5274.00,0.85
5273.00,0.85
5272.00,0.85
5271.00,0.84
5270.00,0.84
5269.00,0.84
5268.00,0.84
5267.00,0.84
5266.00,0.84
5265.00,0.84
5264.00,0.84
5263.00,0.84
5262.00,0.84
5261.00,0.84
5260.00,0.84
5259.00,0.84
5258.00,0.84
5257.00,0.84
5256.00,0.84
5255.00,0.84
5254.00,0.84
5253.00,0.84
5252.00,0.84
5251.00,0.84
5250.00,0.84
5249.00,0.84
5248.00,0.84
5247.00,0.84
5246.00,0.84
5245.00,0.84
5244.00,0.84
5243.00,0.84
5242.00,0.84
5241.00,0.84
5240.00,0.85
5239.00,0.85
5238.00,0.85
5237.00,0.85
5236.00,0.85
5235.00,0.85
5234.00,0.85
5233.00,0.85
5232.00,0.85
5231.00,0.85
5230.00,0.85
5229.00,0.85
5228.00,0.85
5227.00,0.85
5226.00,0.85
5225.00,0.85
5224.00,0.85
5223.00,0.85
5222.00,0.85
5221.00,0.86
5220.00,0.86
5219.00,0.86
5218.00,0.86
5217.00,0.86
5216.00,0.86
5215.00,0.86
5214.00,0.86
5213.00,0.86
5212.00,0.86
5211.00,0.86
5210.00,0.86
5209.00,0.86
5208.00,0.86
5207.00,0.86
5206.00,0.86
5205.00,0.86
5204.00,0.86
5203.00,0.86
5202.00,0.86
5201.00,0.86
5200.00,0.87
5199.00,0.87
5198.00,0.87
5197.00,0.87
5196.00,0.87
5195.00,0.87
5194.00,0.87
5193.00,0.87
5192.00,0.87
5191.00,0.87
5190.00,0.87
5189.00,0.87
5188.00,0.87
5187.00,0.87
5186.00,0.87
5185.00,0.87
5184.00,0.87
5183.00,0.87
5182.00,0.87
5181.00,0.87
5180.00,0.87
5179.00,0.87
5178.00,0.87
5177.00,0.87
5176.00,0.87
5175.00,0.87
5174.00,0.87
5173.00,0.87
5172.00,0.87
5171.00,0.87
5170.00,0.87
5169.00,0.87
5168.00,0.87
5167.00,0.88
5166.00,0.88
5165.00,0.88
5164.00,0.88
5163.00,0.88
5162.00,0.88
5161.00,0.88
5160.00,0.88
5159.00,0.88
5158.00,0.88
5157.00,0.88
5156.00,0.88
5155.00,0.88
5154.00,0.89
5153.00,0.89
5152.00,0.89
5151.00,0.89
5150.00,0.89
5149.00,0.89
5148.00,0.89
5147.00,0.89
5146.00,0.89
5145.00,0.89
5144.00,0.89
5143.00,0.89
5142.00,0.89
5141.00,0.89
5140.00,0.89
5139.00,0.89
5138.00,0.89
5137.00,0.89
5136.00,0.89
5135.00,0.89
5134.00,0.89
5133.00,0.90
5132.00,0.90
5131.00,0.90
5130.00,0.90
5129.00,0.90
5128.00,0.90
5127.00,0.90
5126.00,0.90
5125.00,0.90
5124.00,0.90
5123.00,0.90
5122.00,0.90
5121.00,0.90
5120.00,0.90
5119.00,0.90
5118.00,0.90
5117.00,0.90
5116.00,0.90
5115.00,0.90
5114.00,0.91
5113.00,0.91
5112.00,0.91
5111.00,0.91
5110.00,0.91
5109.00,0.91
5108.00,0.91
5107.00,0.91
5106.00,0.91
5105.00,0.91
5104.00,0.91
5103.00,0.91
5102.00,0.91
5101.00,0.92
5100.00,0.92
5099.00,0.92
5098.00,0.92
5097.00,0.92
5096.00,0.92
5095.00,0.92
5094.00,0.92
5093.00,0.92
5092.00,0.92
5091.00,0.92
5090.00,0.92
5089.00,0.92
5088.00,0.92
5087.00,0.92
5086.00,0.92
5085.00,0.92
5084.00,0.92
5083.00,0.92
5082.00,0.92
5081.00,0.92
5080.00,0.92
5079.00,0.92
5078.00,0.92
5077.00,0.92
5076.00,0.92
5075.00,0.92
5074.00,0.93
5073.00,0.93
5072.00,0.93
5071.00,0.93
5070.00,0.93
5069.00,0.93
5068.00,0.93
5067.00,0.93
5066.00,0.93
5065.00,0.93
5064.00,0.93
5063.00,0.93
5062.00,0.93
5061.00,0.93
5060.00,0.93
5059.00,0.93
5058.00,0.93
5057.00,0.93
5056.00,0.93
5055.00,0.93
5054.00,0.93
5053.00,0.93
5052.00,0.93
5051.00,0.93
5050.00,0.93
5049.00,0.93
5048.00,0.93
5047.00,0.93
5046.00,0.93
5045.00,0.94
5044.00,0.94
5043.00,0.94
5042.00,0.94
5041.00,0.94
5040.00,0.94
5039.00,0.94
5038.00,0.94
5037.00,0.94
5036.00,0.94
5035.00,0.94
5034.00,0.95
5033.00,0.95
5032.00,0.95
5031.00,0.95
5030.00,0.95
5029.00,0.95
5028.00,0.95
5027.00,0.95
5026.00,0.95
5025.00,0.95
5024.00,0.95
5023.00,0.95
5022.00,0.95
5021.00,0.95
5020.00,0.95
5019.00,0.95
5018.00,0.96
5017.00,0.96
5016.00,0.96
5015.00,0.96
5014.00,0.96
5013.00,0.96
5012.00,0.96
5011.00,0.96
5010.00,0.96
5009.00,0.97
5008.00,0.97
5007.00,0.97
5006.00,0.97
5005.00,0.97
5004.00,0.97
5003.00,0.97
5002.00,0.97
5001.00,0.97
5000.00,0.97
4999.00,0.97
4998.00,0.97
4997.00,0.97
4996.00,0.97
4995.00,0.97
4994.00,0.97
4993.00,0.97
4992.00,0.97
4991.00,0.98
4990.00,0.98
4989.00,0.98
4988.00,0.98
4987.00,0.98
4986.00,0.98
4985.00,0.98
4984.00,0.98
4983.00,0.98
4982.00,0.98
4981.00,0.98
4980.00,0.98
4979.00,0.98
4978.00,0.98
4977.00,0.99
4976.00,0.99
4975.00,0.99
4974.00,0.99
4973.00,0.99
4972.00,0.99
4971.00,0.99
4970.00,0.99
4969.00,0.99
4968.00,0.99
4967.00,0.99
4966.00,0.99
4965.00,0.99
4964.00,0.99
4963.00,0.99
4962.00,0.99
4961.00,0.99
4960.00,1.00
4959.00,1.00
4958.00,1.00
4957.00,1.00
4956.00,1.00
4955.00,1.00
4954.00,1.00
4953.00,1.00
4952.00,1.00
4951.00,1.00
4950.00,1.01
4949.00,1.01
4948.00,1.01
4947.00,1.01
4946.00,1.01
4945.00,1.01
4944.00,1.01
4943.00,1.01
4942.00,1.01
4941.00,1.01
4940.00,1.02
4939.00,1.02
4938.00,1.02
4937.00,1.02
4936.00,1.02
4935.00,1.02
4934.00,1.02
4933.00,1.02
4932.00,1.02
4931.00,1.02
4930.00,1.02
4929.00,1.02
4928.00,1.02
4927.00,1.02
4926.00,1.03
4925.00,1.03
4924.00,1.03
4923.00,1.03
4922.00,1.03
4921.00,1.03
4920.00,1.03
4919.00,1.03
4918.00,1.03
4917.00,1.03
4916.00,1.03
4915.00,1.04
4914.00,1.04
4913.00,1.04
4912.00,1.04
4911.00,1.04
4910.00,1.04
4909.00,1.04
4908.00,1.04
4907.00,1.05
4906.00,1.05
4905.00,1.05
4904.00,1.05
4903.00,1.05
4902.00,1.05
4901.00,1.05
4900.00,1.05
4899.00,1.05
4898.00,1.05
4897.00,1.05
4896.00,1.05
4895.00,1.05
4894.00,1.05
4893.00,1.05
4892.00,1.05
4891.00,1.06
4890.00,1.06
4889.00,1.06
4888.00,1.06
4887.00,1.06
4886.00,1.06
4885.00,1.06
4884.00,1.06
4883.00,1.06
4882.00,1.06
4881.00,1.06
4880.00,1.06
4879.00,1.06
4878.00,1.06
4877.00,1.06
4876.00,1.06
4875.00,1.06
4874.00,1.07
4873.00,1.07
4872.00,1.07
4871.00,1.07
4870.00,1.07
4869.00,1.07
4868.00,1.07
4867.00,1.07
4866.00,1.07
4865.00,1.07
4864.00,1.07
4863.00,1.08
4862.00,1.08
4861.00,1.08
4860.00,1.08
4859.00,1.08
4858.00,1.08
4857.00,1.08
4856.00,1.08
4855.00,1.08
4854.00,1.09
4853.00,1.09
4852.00,1.09
4851.00,1.09
4850.00,1.09
4849.00,1.09
4848.00,1.09
4847.00,1.09
4846.00,1.09
4845.00,1.09
4844.00,1.09
4843.00,1.10
4842.00,1.10
4841.00,1.10
4840.00,1.10
4839.00,1.10
4838.00,1.10
4837.00,1.10
4836.00,1.10
4835.00,1.10
4834.00,1.10
4833.00,1.10
4832.00,1.10
4831.00,1.11
4830.00,1.11
4829.00,1.11
4828.00,1.11
4827.00,1.11
4826.00,1.11
4825.00,1.11
4824.00,1.11
4823.00,1.12
4822.00,1.12
4821.00,1.12
4820.00,1.12
4819.00,1.12
4818.00,1.12
4817.00,1.12
4816.00,1.13
4815.00,1.13
4814.00,1.13
4813.00,1.13
4812.00,1.13
4811.00,1.13
4810.00,1.13
4809.00,1.13
4808.00,1.14
4807.00,1.14
4806.00,1.14
4805.00,1.14
4804.00,1.14
4803.00,1.14
4802.00,1.14
4801.00,1.14
4800.00,1.15
4799.00,1.15
4798.00,1.15
4797.00,1.15
4796.00,1.15
4795.00,1.15
4794.00,1.15
4793.00,1.15
4792.00,1.15
4791.00,1.15
4790.00,1.16
4789.00,1.16
4788.00,1.16
4787.00,1.16
4786.00,1.16
4785.00,1.16
4784.00,1.16
4783.00,1.16
4782.00,1.16
4781.00,1.16
4780.00,1.17
4779.00,1.17
4778.00,1.17
4777.00,1.17
4776.00,1.17
4775.00,1.17
4774.00,1.17
4773.00,1.18
4772.00,1.18
4771.00,1.18
4770.00,1.18
4769.00,1.18
4768.00,1.18
4767.00,1.18
4766.00,1.19
4765.00,1.19
4764.00,1.19
4763.00,1.19
4762.00,1.19
4761.00,1.19
4760.00,1.19
4759.00,1.20
4758.00,1.20
4757.00,1.20
4756.00,1.20
4755.00,1.20
4754.00,1.20
4753.00,1.20
4752.00,1.21
4751.00,1.21
4750.00,1.21
4749.00,1.21
4748.00,1.21
4747.00,1.21
4746.00,1.21
4745.00,1.22
4744.00,1.22
4743.00,1.22
4742.00,1.22
4741.00,1.22
4740.00,1.22
4739.00,1.23
4738.00,1.23
4737.00,1.23
4736.00,1.23
4735.00,1.23
4734.00,1.23
4733.00,1.24
4732.00,1.24
4731.00,1.24
4730.00,1.24
4729.00,1.24
4728.00,1.24
4727.00,1.25
4726.00,1.25
4725.00,1.25
4724.00,1.25
4723.00,1.25
4722.00,1.26
4721.00,1.26
4720.00,1.26
4719.00,1.26
4718.00,1.26
4717.00,1.26
4716.00,1.27
4715.00,1.27
4714.00,1.27
4713.00,1.27
4712.00,1.27
4711.00,1.27
4710.00,1.27
4709.00,1.28
4708.00,1.28
4707.00,1.28
4706.00,1.28
4705.00,1.28
4704.00,1.28
4703.00,1.28
4702.00,1.28
4701.00,1.29
4700.00,1.29
4699.00,1.29
4698.00,1.29
4697.00,1.29
4696.00,1.29
4695.00,1.29
4694.00,1.30
4693.00,1.30
4692.00,1.30
4691.00,1.30
4690.00,1.30
4689.00,1.31
4688.00,1.31
4687.00,1.31
4686.00,1.31
4685.00,1.31
4684.00,1.31
4683.00,1.32
4682.00,1.32
4681.00,1.32
4680.00,1.32
4679.00,1.32
4678.00,1.32
4677.00,1.32
4676.00,1.32
4675.00,1.32
4674.00,1.32
4673.00,1.32
4672.00,1.33
4671.00,1.33
4670.00,1.33
4669.00,1.33
4668.00,1.33
4667.00,1.33
4666.00,1.34
4665.00,1.34
4664.00,1.34
4663.00,1.34
4662.00,1.34
4661.00,1.34
4660.00,1.35
4659.00,1.35
4658.00,1.35
4657.00,1.35
4656.00,1.35
4655.00,1.35
4654.00,1.35
4653.00,1.36
4652.00,1.36
4651.00,1.36
4650.00,1.36
4649.00,1.36
4648.00,1.36
4647.00,1.36
4646.00,1.37
4645.00,1.37
4644.00,1.37
4643.00,1.37
4642.00,1.37
4641.00,1.37
4640.00,1.37
4639.00,1.37
4638.00,1.37
4637.00,1.37
4636.00,1.37
4635.00,1.37
4634.00,1.38
4633.00,1.38
4632.00,1.38
4631.00,1.38
4630.00,1.38
4629.00,1.38
4628.00,1.38
4627.00,1.38
4626.00,1.38
4625.00,1.38
4624.00,1.39
4623.00,1.39
4622.00,1.39
4621.00,1.39
4620.00,1.39
4619.00,1.39
4618.00,1.39
4617.00,1.39
4616.00,1.39
4615.00,1.39
4614.00,1.39
4613.00,1.39
4612.00,1.40
4611.00,1.40
4610.00,1.40
4609.00,1.40
4608.00,1.40
4607.00,1.40
4606.00,1.40
4605.00,1.41
4604.00,1.41
4603.00,1.41
4602.00,1.41
4601.00,1.41
4600.00,1.41
4599.00,1.42
4598.00,1.42
4597.00,1.42
4596.00,1.42
4595.00,1.42
4594.00,1.42
4593.00,1.42
4592.00,1.42
4591.00,1.42
4590.00,1.43
4589.00,1.43
4588.00,1.43
4587.00,1.43
4586.00,1.43
4585.00,1.43
4584.00,1.43
4583.00,1.43
4582.00,1.43
4581.00,1.43
4580.00,1.43
4579.00,1.43
4578.00,1.43
4577.00,1.44
4576.00,1.44
4575.00,1.44
4574.00,1.44
4573.00,1.44
4572.00,1.44
4571.00,1.44
4570.00,1.44
4569.00,1.44
4568.00,1.44
4567.00,1.44
4566.00,1.44
4565.00,1.45
4564.00,1.45
4563.00,1.45
4562.00,1.45
4561.00,1.45
4560.00,1.45
4559.00,1.45
4558.00,1.45
4557.00,1.45
4556.00,1.45
4555.00,1.45
4554.00,1.45
4553.00,1.45
4552.00,1.45
4551.00,1.45
4550.00,1.45
4549.00,1.45
4548.00,1.45
4547.00,1.45
4546.00,1.46
4545.00,1.46
4544.00,1.46
4543.00,1.46
4542.00,1.46
4541.00,1.46
4540.00,1.46
4539.00,1.47
4538.00,1.47
4537.00,1.47
4536.00,1.47
4535.00,1.47
4534.00,1.47
4533.00,1.47
4532.00,1.47
4531.00,1.47
4530.00,1.47
4529.00,1.47
4528.00,1.47
4527.00,1.47
4526.00,1.47
4525.00,1.48
4524.00,1.48
4523.00,1.48
4522.00,1.48
4521.00,1.48
4520.00,1.48
4519.00,1.47
4518.00,1.47
4517.00,1.47
4516.00,1.47
4515.00,1.47
4514.00,1.47
4513.00,1.47
4512.00,1.48
4511.00,1.48
4510.00,1.48
4509.00,1.48
4508.00,1.48
4507.00,1.48
4506.00,1.48
4505.00,1.48
4504.00,1.48
4503.00,1.48
4502.00,1.48
4501.00,1.48
4500.00,1.48
4499.00,1.48
4498.00,1.48
4497.00,1.49
4496.00,1.49
4495.00,1.49
4494.00,1.49
4493.00,1.49
4492.00,1.48
4491.00,1.48
4490.00,1.48
4489.00,1.48
4488.00,1.48
4487.00,1.48
4486.00,1.48
4485.00,1.48
4484.00,1.48
4483.00,1.48
4482.00,1.48
4481.00,1.48
4480.00,1.47
4479.00,1.47
4478.00,1.47
4477.00,1.47
4476.00,1.47
4475.00,1.47
4474.00,1.47
4473.00,1.47
4472.00,1.46
4471.00,1.46
4470.00,1.46
4469.00,1.46
4468.00,1.46
4467.00,1.46
4466.00,1.45
4465.00,1.45
4464.00,1.45
4463.00,1.45
4462.00,1.45
4461.00,1.45
4460.00,1.44
4459.00,1.44
4458.00,1.44
4457.00,1.44
4456.00,1.44
4455.00,1.43
4454.00,1.43
4453.00,1.43
4452.00,1.42
4451.00,1.42
4450.00,1.42
4449.00,1.41
4448.00,1.41
4447.00,1.40
4446.00,1.40
4445.00,1.40
4444.00,1.39
4443.00,1.39
4442.00,1.38
4441.00,1.38
4440.00,1.37
4439.00,1.37
4438.00,1.37
4437.00,1.36
4436.00,1.36
4435.00,1.36
4434.00,1.35
4433.00,1.35
4432.00,1.35
4431.00,1.34
4430.00,1.34
4429.00,1.34
4428.00,1.34
4427.00,1.33
4426.00,1.33
4425.00,1.33
4424.00,1.33
4423.00,1.33
4422.00,1.33
4421.00,1.33
4420.00,1.33
4419.00,1.33
4418.00,1.33
4417.00,1.33
4416.00,1.33
4415.00,1.33
4414.00,1.33
4413.00,1.33
4412.00,1.33
4411.00,1.33
4410.00,1.33
4409.00,1.33
4408.00,1.33
4407.00,1.33
4406.00,1.33
4405.00,1.33
4404.00,1.33
4403.00,1.33
4402.00,1.33
4401.00,1.34
4400.00,1.34
4399.00,1.34
4398.00,1.34
4397.00,1.34
4396.00,1.34
4395.00,1.34
4394.00,1.35
4393.00,1.35
4392.00,1.35
4391.00,1.35
4390.00,1.35
4389.00,1.36
4388.00,1.36
4387.00,1.36
4386.00,1.36
4385.00,1.36
4384.00,1.36
4383.00,1.36
4382.00,1.37
4381.00,1.37
4380.00,1.37
4379.00,1.37
4378.00,1.37
4377.00,1.37
4376.00,1.37
4375.00,1.38
4374.00,1.38
4373.00,1.38
4372.00,1.38
4371.00,1.38
4370.00,1.38
4369.00,1.38
4368.00,1.38
4367.00,1.38
4366.00,1.38
4365.00,1.38
4364.00,1.37
4363.00,1.37
4362.00,1.37
4361.00,1.37
4360.00,1.37
4359.00,1.37
4358.00,1.37
4357.00,1.36
4356.00,1.36
4355.00,1.36
4354.00,1.36
4353.00,1.36
4352.00,1.36
4351.00,1.36
4350.00,1.36
4349.00,1.36
4348.00,1.36
4347.00,1.36
4346.00,1.36
4345.00,1.36
4344.00,1.36
4343.00,1.36
4342.00,1.36
4341.00,1.36
4340.00,1.36
4339.00,1.36
4338.00,1.36
4337.00,1.36
4336.00,1.36
4335.00,1.37
4334.00,1.37
4333.00,1.37
4332.00,1.37
4331.00,1.37
4330.00,1.38
4329.00,1.38
4328.00,1.38
4327.00,1.38
4326.00,1.38
4325.00,1.39
4324.00,1.39
4323.00,1.39
4322.00,1.39
4321.00,1.39
4320.00,1.40
4319.00,1.40
4318.00,1.40
4317.00,1.40
4316.00,1.40
4315.00,1.41
4314.00,1.41
4313.00,1.41
4312.00,1.41
4311.00,1.42
4310.00,1.42
4309.00,1.42
4308.00,1.42
4307.00,1.42
4306.00,1.42
4305.00,1.42
4304.00,1.43
4303.00,1.43
4302.00,1.43
4301.00,1.43
4300.00,1.43
4299.00,1.43
4298.00,1.43
4297.00,1.43
4296.00,1.43
4295.00,1.43
4294.00,1.43
4293.00,1.43
4292.00,1.43
4291.00,1.43
4290.00,1.43
4289.00,1.43
4288.00,1.43
4287.00,1.43
4286.00,1.43
4285.00,1.43
4284.00,1.43
4283.00,1.43
4282.00,1.43
4281.00,1.43
4280.00,1.43
4279.00,1.43
4278.00,1.43
4277.00,1.43
4276.00,1.43
4275.00,1.43
4274.00,1.43
4273.00,1.43
4272.00,1.43
4271.00,1.43
4270.00,1.43
4269.00,1.43
4268.00,1.43
4267.00,1.42
4266.00,1.42
4265.00,1.42
4264.00,1.42
4263.00,1.42
4262.00,1.42
4261.00,1.42
4260.00,1.42
4259.00,1.42
4258.00,1.42
4257.00,1.42
4256.00,1.42
4255.00,1.42
4254.00,1.42
4253.00,1.42
4252.00,1.42
4251.00,1.42
4250.00,1.43
4249.00,1.43
4248.00,1.43
4247.00,1.43
4246.00,1.43
4245.00,1.43
4244.00,1.43
4243.00,1.43
4242.00,1.43
4241.00,1.43
4240.00,1.43
4239.00,1.43
4238.00,1.43
4237.00,1.43
4236.00,1.43
4235.00,1.43
4234.00,1.43
4233.00,1.43
4232.00,1.43
4231.00,1.44
4230.00,1.44
4229.00,1.44
4228.00,1.44
4227.00,1.44
4226.00,1.44
4225.00,1.44
4224.00,1.44
4223.00,1.44
4222.00,1.45
4221.00,1.45
4220.00,1.45
4219.00,1.45
4218.00,1.45
4217.00,1.45
4216.00,1.45
4215.00,1.46
4214.00,1.46
4213.00,1.46
4212.00,1.46
4211.00,1.46
4210.00,1.46
4209.00,1.47
4208.00,1.47
4207.00,1.47
4206.00,1.47
4205.00,1.47
4204.00,1.47
4203.00,1.47
4202.00,1.47
4201.00,1.47
4200.00,1.47
4199.00,1.47
4198.00,1.47
4197.00,1.47
4196.00,1.47
4195.00,1.47
4194.00,1.47
4193.00,1.47
4192.00,1.47
4191.00,1.47
4190.00,1.47
4189.00,1.47
4188.00,1.47
4187.00,1.47
4186.00,1.47
4185.00,1.47
4184.00,1.47
4183.00,1.48
4182.00,1.48
4181.00,1.48
4180.00,1.48
4179.00,1.48
4178.00,1.48
4177.00,1.48
4176.00,1.48
4175.00,1.48
4174.00,1.47
4173.00,1.47
4172.00,1.47
4171.00,1.47
4170.00,1.47
4169.00,1.47
4168.00,1.47
4167.00,1.47
4166.00,1.47
4165.00,1.47
4164.00,1.47
4163.00,1.47
4162.00,1.47
4161.00,1.47
4160.00,1.47
4159.00,1.47
4158.00,1.48
4157.00,1.48
4156.00,1.48
4155.00,1.48
4154.00,1.48
4153.00,1.48
4152.00,1.48
4151.00,1.48
4150.00,1.48
4149.00,1.48
4148.00,1.48
4147.00,1.48
4146.00,1.48
4145.00,1.48
4144.00,1.48
4143.00,1.48
4142.00,1.48
4141.00,1.48
4140.00,1.47
4139.00,1.47
4138.00,1.47
4137.00,1.47
4136.00,1.47
4135.00,1.47
4134.00,1.48
4133.00,1.48
4132.00,1.48
4131.00,1.48
4130.00,1.48
4129.00,1.48
4128.00,1.48
4127.00,1.48
4126.00,1.49
4125.00,1.49
4124.00,1.49
4123.00,1.49
4122.00,1.49
4121.00,1.49
4120.00,1.49
4119.00,1.49
4118.00,1.50
4117.00,1.50
4116.00,1.50
4115.00,1.50
4114.00,1.50
4113.00,1.50
4112.00,1.50
4111.00,1.50
4110.00,1.50
4109.00,1.50
4108.00,1.50
4107.00,1.50
4106.00,1.50
4105.00,1.50
4104.00,1.51
4103.00,1.51
4102.00,1.51
4101.00,1.51
4100.00,1.51
4099.00,1.51
4098.00,1.51
4097.00,1.51
4096.00,1.51
4095.00,1.51
4094.00,1.51
4093.00,1.51
4092.00,1.51
4091.00,1.50
4090.00,1.50
4089.00,1.50
4088.00,1.50
4087.00,1.50
4086.00,1.50
4085.00,1.51
4084.00,1.51
4083.00,1.51
4082.00,1.51
4081.00,1.51
4080.00,1.52
4079.00,1.52
4078.00,1.52
4077.00,1.53
4076.00,1.53
4075.00,1.53
4074.00,1.54
4073.00,1.54
4072.00,1.54
4071.00,1.54
4070.00,1.54
4069.00,1.55
4068.00,1.55
4067.00,1.55
4066.00,1.55
4065.00,1.55
4064.00,1.55
4063.00,1.55
4062.00,1.55
4061.00,1.55
4060.00,1.55
4059.00,1.55
4058.00,1.55
4057.00,1.55
4056.00,1.55
4055.00,1.55
4054.00,1.55
4053.00,1.55
4052.00,1.55
4051.00,1.54
4050.00,1.54
4049.00,1.54
4048.00,1.54
4047.00,1.54
4046.00,1.54
4045.00,1.54
4044.00,1.54
4043.00,1.54
4042.00,1.54
4041.00,1.54
4040.00,1.54
4039.00,1.54
4038.00,1.54
4037.00,1.54
4036.00,1.54
4035.00,1.53
4034.00,1.53
4033.00,1.53
4032.00,1.53
4031.00,1.53
4030.00,1.53
4029.00,1.53
4028.00,1.53
4027.00,1.53
4026.00,1.53
4025.00,1.53
4024.00,1.53
4023.00,1.54
4022.00,1.54
4021.00,1.54
4020.00,1.54
4019.00,1.54
4018.00,1.54
4017.00,1.55
4016.00,1.55
4015.00,1.55
4014.00,1.55
4013.00,1.55
4012.00,1.56
4011.00,1.56
4010.00,1.56
4009.00,1.56
4008.00,1.56
4007.00,1.56
4006.00,1.56
4005.00,1.56
4004.00,1.56
4003.00,1.57
4002.00,1.57
4001.00,1.57
4000.00,1.57
