创建为新数据集,样品 603 用户 Administrator 日期 星期一, 七月 16 2018
cm-1,%T
10000.00,1.40
9999.00,1.40
9998.00,1.40
9997.00,1.40
9996.00,1.40
9995.00,1.40
9994.00,1.40
9993.00,1.40
9992.00,1.40
9991.00,1.40
9990.00,1.40
9989.00,1.40
9988.00,1.40
9987.00,1.40
9986.00,1.40
9985.00,1.40
9984.00,1.40
9983.00,1.40
9982.00,1.40
9981.00,1.40
9980.00,1.40
9979.00,1.40
9978.00,1.40
9977.00,1.39
9976.00,1.39
9975.00,1.39
9974.00,1.39
9973.00,1.39
9972.00,1.39
9971.00,1.39
9970.00,1.39
9969.00,1.39
9968.00,1.39
9967.00,1.39
9966.00,1.39
9965.00,1.39
9964.00,1.39
9963.00,1.39
9962.00,1.39
9961.00,1.39
9960.00,1.39
9959.00,1.39
9958.00,1.39
9957.00,1.39
9956.00,1.39
9955.00,1.40
9954.00,1.40
9953.00,1.40
9952.00,1.40
9951.00,1.40
9950.00,1.40
9949.00,1.40
9948.00,1.40
9947.00,1.40
9946.00,1.40
9945.00,1.40
9944.00,1.40
9943.00,1.40
9942.00,1.40
9941.00,1.40
9940.00,1.40
9939.00,1.40
9938.00,1.40
9937.00,1.40
9936.00,1.40
9935.00,1.40
9934.00,1.40
9933.00,1.40
9932.00,1.40
9931.00,1.40
9930.00,1.40
9929.00,1.40
9928.00,1.40
9927.00,1.40
9926.00,1.40
9925.00,1.40
9924.00,1.40
9923.00,1.40
9922.00,1.40
9921.00,1.39
9920.00,1.39
9919.00,1.39
9918.00,1.39
9917.00,1.39
9916.00,1.39
9915.00,1.39
9914.00,1.39
9913.00,1.39
9912.00,1.39
9911.00,1.39
9910.00,1.38
9909.00,1.38
9908.00,1.38
9907.00,1.38
9906.00,1.38
9905.00,1.38
9904.00,1.38
9903.00,1.38
9902.00,1.38
9901.00,1.38
9900.00,1.38
9899.00,1.38
9898.00,1.38
9897.00,1.38
9896.00,1.38
9895.00,1.38
9894.00,1.38
9893.00,1.38
9892.00,1.38
9891.00,1.38
9890.00,1.38
9889.00,1.38
9888.00,1.38
9887.00,1.38
9886.00,1.37
9885.00,1.37
9884.00,1.37
9883.00,1.37
9882.00,1.37
9881.00,1.36
9880.00,1.36
9879.00,1.36
9878.00,1.36
9877.00,1.36
9876.00,1.36
9875.00,1.36
9874.00,1.36
9873.00,1.36
9872.00,1.36
9871.00,1.36
9870.00,1.37
9869.00,1.37
9868.00,1.37
9867.00,1.37
9866.00,1.37
9865.00,1.37
9864.00,1.38
9863.00,1.38
9862.00,1.38
9861.00,1.38
9860.00,1.38
9859.00,1.38
9858.00,1.38
9857.00,1.38
9856.00,1.38
9855.00,1.38
9854.00,1.38
9853.00,1.38
9852.00,1.38
9851.00,1.38
9850.00,1.38
9849.00,1.38
9848.00,1.38
9847.00,1.38
9846.00,1.38
9845.00,1.38
9844.00,1.38
9843.00,1.38
9842.00,1.38
9841.00,1.38
9840.00,1.38
9839.00,1.38
9838.00,1.38
9837.00,1.38
9836.00,1.38
9835.00,1.38
9834.00,1.38
9833.00,1.39
9832.00,1.39
9831.00,1.39
9830.00,1.39
9829.00,1.39
9828.00,1.39
9827.00,1.38
9826.00,1.38
9825.00,1.38
9824.00,1.38
9823.00,1.38
9822.00,1.38
9821.00,1.38
9820.00,1.38
9819.00,1.38
9818.00,1.38
9817.00,1.38
9816.00,1.38
9815.00,1.38
9814.00,1.38
9813.00,1.38
9812.00,1.39
9811.00,1.39
9810.00,1.39
9809.00,1.39
9808.00,1.39
9807.00,1.39
9806.00,1.39
9805.00,1.39
9804.00,1.39
9803.00,1.39
9802.00,1.40
9801.00,1.40
9800.00,1.40
9799.00,1.40
9798.00,1.40
9797.00,1.40
9796.00,1.40
9795.00,1.40
9794.00,1.40
9793.00,1.40
9792.00,1.39
9791.00,1.39
9790.00,1.39
9789.00,1.39
9788.00,1.39
9787.00,1.39
9786.00,1.39
9785.00,1.39
9784.00,1.38
9783.00,1.38
9782.00,1.38
9781.00,1.38
9780.00,1.38
9779.00,1.38
9778.00,1.38
9777.00,1.38
9776.00,1.38
9775.00,1.38
9774.00,1.38
9773.00,1.38
9772.00,1.38
9771.00,1.38
9770.00,1.38
9769.00,1.38
9768.00,1.38
9767.00,1.38
9766.00,1.38
9765.00,1.38
9764.00,1.38
9763.00,1.38
9762.00,1.38
9761.00,1.38
9760.00,1.38
9759.00,1.38
9758.00,1.38
9757.00,1.38
9756.00,1.38
9755.00,1.38
9754.00,1.38
9753.00,1.38
9752.00,1.39
9751.00,1.39
9750.00,1.39
9749.00,1.39
9748.00,1.39
9747.00,1.39
9746.00,1.39
9745.00,1.39
9744.00,1.39
9743.00,1.39
9742.00,1.39
9741.00,1.39
9740.00,1.38
9739.00,1.38
9738.00,1.38
9737.00,1.38
9736.00,1.38
9735.00,1.38
9734.00,1.38
9733.00,1.38
9732.00,1.37
9731.00,1.37
9730.00,1.37
9729.00,1.37
9728.00,1.37
9727.00,1.37
9726.00,1.37
9725.00,1.37
9724.00,1.38
9723.00,1.38
9722.00,1.38
9721.00,1.38
9720.00,1.38
9719.00,1.38
9718.00,1.38
9717.00,1.38
9716.00,1.38
9715.00,1.38
9714.00,1.38
9713.00,1.38
9712.00,1.38
9711.00,1.38
9710.00,1.38
9709.00,1.38
9708.00,1.38
9707.00,1.38
9706.00,1.38
9705.00,1.38
9704.00,1.38
9703.00,1.37
9702.00,1.37
9701.00,1.37
9700.00,1.37
9699.00,1.37
9698.00,1.37
9697.00,1.37
9696.00,1.37
9695.00,1.37
9694.00,1.37
9693.00,1.37
9692.00,1.37
9691.00,1.37
9690.00,1.37
9689.00,1.37
9688.00,1.37
9687.00,1.37
9686.00,1.37
9685.00,1.37
9684.00,1.37
9683.00,1.37
9682.00,1.37
9681.00,1.37
9680.00,1.38
9679.00,1.38
9678.00,1.38
9677.00,1.38
9676.00,1.38
9675.00,1.38
9674.00,1.38
9673.00,1.38
9672.00,1.38
9671.00,1.38
9670.00,1.38
9669.00,1.38
9668.00,1.38
9667.00,1.38
9666.00,1.38
9665.00,1.38
9664.00,1.38
9663.00,1.38
9662.00,1.38
9661.00,1.38
9660.00,1.38
9659.00,1.38
9658.00,1.38
9657.00,1.38
9656.00,1.38
9655.00,1.38
9654.00,1.38
9653.00,1.38
9652.00,1.38
9651.00,1.38
9650.00,1.38
9649.00,1.38
9648.00,1.38
9647.00,1.38
9646.00,1.38
9645.00,1.38
9644.00,1.38
9643.00,1.38
9642.00,1.38
9641.00,1.39
9640.00,1.39
9639.00,1.39
9638.00,1.39
9637.00,1.39
9636.00,1.39
9635.00,1.39
9634.00,1.39
9633.00,1.39
9632.00,1.39
9631.00,1.39
9630.00,1.39
9629.00,1.39
9628.00,1.39
9627.00,1.39
9626.00,1.39
9625.00,1.39
9624.00,1.39
9623.00,1.39
9622.00,1.39
9621.00,1.39
9620.00,1.39
9619.00,1.39
9618.00,1.39
9617.00,1.39
9616.00,1.39
9615.00,1.39
9614.00,1.38
9613.00,1.38
9612.00,1.38
9611.00,1.38
9610.00,1.38
9609.00,1.38
9608.00,1.38
9607.00,1.38
9606.00,1.38
9605.00,1.38
9604.00,1.38
9603.00,1.38
9602.00,1.38
9601.00,1.38
9600.00,1.38
9599.00,1.38
9598.00,1.38
9597.00,1.38
9596.00,1.38
9595.00,1.38
9594.00,1.38
9593.00,1.38
9592.00,1.38
9591.00,1.38
9590.00,1.38
9589.00,1.38
9588.00,1.38
9587.00,1.38
9586.00,1.38
9585.00,1.38
9584.00,1.38
9583.00,1.39
9582.00,1.39
9581.00,1.39
9580.00,1.39
9579.00,1.38
9578.00,1.38
9577.00,1.38
9576.00,1.38
9575.00,1.38
9574.00,1.38
9573.00,1.38
9572.00,1.38
9571.00,1.38
9570.00,1.38
9569.00,1.37
9568.00,1.37
9567.00,1.37
9566.00,1.37
9565.00,1.37
9564.00,1.37
9563.00,1.37
9562.00,1.37
9561.00,1.37
9560.00,1.37
9559.00,1.37
9558.00,1.37
9557.00,1.36
9556.00,1.36
9555.00,1.36
9554.00,1.36
9553.00,1.36
9552.00,1.36
9551.00,1.36
9550.00,1.36
9549.00,1.36
9548.00,1.36
9547.00,1.36
9546.00,1.36
9545.00,1.36
9544.00,1.36
9543.00,1.36
9542.00,1.36
9541.00,1.36
9540.00,1.36
9539.00,1.36
9538.00,1.36
9537.00,1.36
9536.00,1.36
9535.00,1.36
9534.00,1.37
9533.00,1.37
9532.00,1.37
9531.00,1.37
9530.00,1.37
9529.00,1.37
9528.00,1.37
9527.00,1.37
9526.00,1.37
9525.00,1.37
9524.00,1.37
9523.00,1.37
9522.00,1.37
9521.00,1.37
9520.00,1.37
9519.00,1.37
9518.00,1.37
9517.00,1.37
9516.00,1.37
9515.00,1.37
9514.00,1.36
9513.00,1.36
9512.00,1.36
9511.00,1.36
9510.00,1.36
9509.00,1.36
9508.00,1.36
9507.00,1.36
9506.00,1.36
9505.00,1.36
9504.00,1.36
9503.00,1.36
9502.00,1.36
9501.00,1.35
9500.00,1.35
9499.00,1.35
9498.00,1.35
9497.00,1.35
9496.00,1.35
9495.00,1.35
9494.00,1.35
9493.00,1.35
9492.00,1.35
9491.00,1.36
9490.00,1.36
9489.00,1.36
9488.00,1.36
9487.00,1.36
9486.00,1.36
9485.00,1.36
9484.00,1.36
9483.00,1.36
9482.00,1.36
9481.00,1.36
9480.00,1.37
9479.00,1.37
9478.00,1.37
9477.00,1.37
9476.00,1.37
9475.00,1.37
9474.00,1.37
9473.00,1.37
9472.00,1.37
9471.00,1.37
9470.00,1.37
9469.00,1.37
9468.00,1.37
9467.00,1.37
9466.00,1.37
9465.00,1.37
9464.00,1.37
9463.00,1.37
9462.00,1.37
9461.00,1.38
9460.00,1.38
9459.00,1.38
9458.00,1.38
9457.00,1.38
9456.00,1.38
9455.00,1.38
9454.00,1.38
9453.00,1.38
9452.00,1.38
9451.00,1.39
9450.00,1.39
9449.00,1.39
9448.00,1.39
9447.00,1.39
9446.00,1.39
9445.00,1.39
9444.00,1.39
9443.00,1.39
9442.00,1.39
9441.00,1.39
9440.00,1.39
9439.00,1.39
9438.00,1.39
9437.00,1.39
9436.00,1.39
9435.00,1.38
9434.00,1.38
9433.00,1.38
9432.00,1.38
9431.00,1.38
9430.00,1.38
9429.00,1.38
9428.00,1.38
9427.00,1.38
9426.00,1.38
9425.00,1.37
9424.00,1.37
9423.00,1.37
9422.00,1.37
9421.00,1.37
9420.00,1.37
9419.00,1.37
9418.00,1.37
9417.00,1.37
9416.00,1.37
9415.00,1.37
9414.00,1.37
9413.00,1.37
9412.00,1.37
9411.00,1.37
9410.00,1.36
9409.00,1.36
9408.00,1.36
9407.00,1.36
9406.00,1.36
9405.00,1.36
9404.00,1.36
9403.00,1.36
9402.00,1.36
9401.00,1.36
9400.00,1.36
9399.00,1.36
9398.00,1.36
9397.00,1.36
9396.00,1.36
9395.00,1.36
9394.00,1.36
9393.00,1.36
9392.00,1.37
9391.00,1.37
9390.00,1.37
9389.00,1.37
9388.00,1.37
9387.00,1.37
9386.00,1.37
9385.00,1.37
9384.00,1.37
9383.00,1.38
9382.00,1.38
9381.00,1.38
9380.00,1.38
9379.00,1.38
9378.00,1.38
9377.00,1.38
9376.00,1.38
9375.00,1.38
9374.00,1.38
9373.00,1.38
9372.00,1.38
9371.00,1.38
9370.00,1.39
9369.00,1.39
9368.00,1.39
9367.00,1.39
9366.00,1.39
9365.00,1.39
9364.00,1.39
9363.00,1.39
9362.00,1.39
9361.00,1.39
9360.00,1.38
9359.00,1.38
9358.00,1.38
9357.00,1.38
9356.00,1.38
9355.00,1.38
9354.00,1.37
9353.00,1.37
9352.00,1.37
9351.00,1.37
9350.00,1.37
9349.00,1.37
9348.00,1.37
9347.00,1.37
9346.00,1.37
9345.00,1.37
9344.00,1.37
9343.00,1.37
9342.00,1.37
9341.00,1.37
9340.00,1.37
9339.00,1.37
9338.00,1.37
9337.00,1.37
9336.00,1.37
9335.00,1.37
9334.00,1.37
9333.00,1.37
9332.00,1.37
9331.00,1.37
9330.00,1.37
9329.00,1.37
9328.00,1.37
9327.00,1.37
9326.00,1.37
9325.00,1.37
9324.00,1.37
9323.00,1.37
9322.00,1.38
9321.00,1.38
9320.00,1.38
9319.00,1.38
9318.00,1.38
9317.00,1.39
9316.00,1.39
9315.00,1.39
9314.00,1.39
9313.00,1.39
9312.00,1.40
9311.00,1.40
9310.00,1.40
9309.00,1.40
9308.00,1.40
9307.00,1.40
9306.00,1.40
9305.00,1.40
9304.00,1.40
9303.00,1.40
9302.00,1.40
9301.00,1.40
9300.00,1.39
9299.00,1.39
9298.00,1.39
9297.00,1.39
9296.00,1.39
9295.00,1.39
9294.00,1.38
9293.00,1.38
9292.00,1.38
9291.00,1.38
9290.00,1.38
9289.00,1.37
9288.00,1.37
9287.00,1.37
9286.00,1.37
9285.00,1.37
9284.00,1.37
9283.00,1.36
9282.00,1.36
9281.00,1.36
9280.00,1.36
9279.00,1.36
9278.00,1.36
9277.00,1.36
9276.00,1.36
9275.00,1.36
9274.00,1.36
9273.00,1.36
9272.00,1.36
9271.00,1.36
9270.00,1.37
9269.00,1.37
9268.00,1.37
9267.00,1.37
9266.00,1.37
9265.00,1.37
9264.00,1.37
9263.00,1.37
9262.00,1.37
9261.00,1.37
9260.00,1.37
9259.00,1.37
9258.00,1.37
9257.00,1.37
9256.00,1.37
9255.00,1.37
9254.00,1.37
9253.00,1.37
9252.00,1.37
9251.00,1.37
9250.00,1.37
9249.00,1.37
9248.00,1.37
9247.00,1.37
9246.00,1.37
9245.00,1.38
9244.00,1.38
9243.00,1.38
9242.00,1.38
9241.00,1.38
9240.00,1.38
9239.00,1.38
9238.00,1.38
9237.00,1.38
9236.00,1.38
9235.00,1.38
9234.00,1.38
9233.00,1.38
9232.00,1.38
9231.00,1.38
9230.00,1.38
9229.00,1.38
9228.00,1.38
9227.00,1.38
9226.00,1.38
9225.00,1.38
9224.00,1.38
9223.00,1.38
9222.00,1.38
9221.00,1.38
9220.00,1.38
9219.00,1.38
9218.00,1.38
9217.00,1.38
9216.00,1.38
9215.00,1.38
9214.00,1.38
9213.00,1.38
9212.00,1.38
9211.00,1.38
9210.00,1.38
9209.00,1.38
9208.00,1.38
9207.00,1.37
9206.00,1.37
9205.00,1.37
9204.00,1.37
9203.00,1.37
9202.00,1.37
9201.00,1.37
9200.00,1.36
9199.00,1.36
9198.00,1.36
9197.00,1.36
9196.00,1.36
9195.00,1.36
9194.00,1.36
9193.00,1.36
9192.00,1.36
9191.00,1.36
9190.00,1.37
9189.00,1.37
9188.00,1.37
9187.00,1.37
9186.00,1.37
9185.00,1.37
9184.00,1.37
9183.00,1.37
9182.00,1.37
9181.00,1.37
9180.00,1.37
9179.00,1.37
9178.00,1.37
9177.00,1.37
9176.00,1.37
9175.00,1.36
9174.00,1.36
9173.00,1.36
9172.00,1.36
9171.00,1.36
9170.00,1.36
9169.00,1.36
9168.00,1.36
9167.00,1.36
9166.00,1.36
9165.00,1.36
9164.00,1.36
9163.00,1.36
9162.00,1.36
9161.00,1.36
9160.00,1.36
9159.00,1.36
9158.00,1.37
9157.00,1.37
9156.00,1.37
9155.00,1.37
9154.00,1.37
9153.00,1.37
9152.00,1.37
9151.00,1.37
9150.00,1.37
9149.00,1.37
9148.00,1.37
9147.00,1.37
9146.00,1.37
9145.00,1.37
9144.00,1.37
9143.00,1.37
9142.00,1.37
9141.00,1.37
9140.00,1.37
9139.00,1.37
9138.00,1.37
9137.00,1.37
9136.00,1.37
9135.00,1.37
9134.00,1.37
9133.00,1.37
9132.00,1.37
9131.00,1.37
9130.00,1.37
9129.00,1.37
9128.00,1.37
9127.00,1.37
9126.00,1.37
9125.00,1.37
9124.00,1.38
9123.00,1.38
9122.00,1.38
9121.00,1.38
9120.00,1.38
9119.00,1.38
9118.00,1.38
9117.00,1.38
9116.00,1.38
9115.00,1.38
9114.00,1.38
9113.00,1.38
9112.00,1.38
9111.00,1.38
9110.00,1.38
9109.00,1.38
9108.00,1.38
9107.00,1.38
9106.00,1.38
9105.00,1.38
9104.00,1.38
9103.00,1.38
9102.00,1.38
9101.00,1.38
9100.00,1.38
9099.00,1.38
9098.00,1.38
9097.00,1.38
9096.00,1.38
9095.00,1.38
9094.00,1.38
9093.00,1.38
9092.00,1.38
9091.00,1.38
9090.00,1.38
9089.00,1.38
9088.00,1.38
9087.00,1.38
9086.00,1.38
9085.00,1.38
9084.00,1.38
9083.00,1.38
9082.00,1.38
9081.00,1.38
9080.00,1.38
9079.00,1.38
9078.00,1.38
9077.00,1.38
9076.00,1.38
9075.00,1.38
9074.00,1.38
9073.00,1.38
9072.00,1.38
9071.00,1.38
9070.00,1.38
9069.00,1.38
9068.00,1.37
9067.00,1.37
9066.00,1.37
9065.00,1.37
9064.00,1.37
9063.00,1.37
9062.00,1.37
9061.00,1.37
9060.00,1.37
9059.00,1.37
9058.00,1.37
9057.00,1.36
9056.00,1.36
9055.00,1.36
9054.00,1.36
9053.00,1.36
9052.00,1.36
9051.00,1.36
9050.00,1.36
9049.00,1.36
9048.00,1.36
9047.00,1.36
9046.00,1.36
9045.00,1.36
9044.00,1.36
9043.00,1.36
9042.00,1.36
9041.00,1.36
9040.00,1.36
9039.00,1.36
9038.00,1.37
9037.00,1.37
9036.00,1.37
9035.00,1.37
9034.00,1.37
9033.00,1.37
9032.00,1.37
9031.00,1.38
9030.00,1.38
9029.00,1.38
9028.00,1.38
9027.00,1.38
9026.00,1.38
9025.00,1.39
9024.00,1.39
9023.00,1.39
9022.00,1.39
9021.00,1.39
9020.00,1.39
9019.00,1.39
9018.00,1.39
9017.00,1.39
9016.00,1.39
9015.00,1.39
9014.00,1.39
9013.00,1.39
9012.00,1.39
9011.00,1.39
9010.00,1.39
9009.00,1.39
9008.00,1.39
9007.00,1.39
9006.00,1.39
9005.00,1.39
9004.00,1.39
9003.00,1.39
9002.00,1.39
9001.00,1.39
9000.00,1.39
8999.00,1.39
8998.00,1.39
8997.00,1.39
8996.00,1.39
8995.00,1.39
8994.00,1.39
8993.00,1.39
8992.00,1.39
8991.00,1.39
8990.00,1.39
8989.00,1.39
8988.00,1.39
8987.00,1.39
8986.00,1.39
8985.00,1.39
8984.00,1.39
8983.00,1.39
8982.00,1.39
8981.00,1.39
8980.00,1.39
8979.00,1.39
8978.00,1.39
8977.00,1.39
8976.00,1.39
8975.00,1.39
8974.00,1.38
8973.00,1.38
8972.00,1.38
8971.00,1.38
8970.00,1.38
8969.00,1.38
8968.00,1.38
8967.00,1.38
8966.00,1.38
8965.00,1.38
8964.00,1.38
8963.00,1.38
8962.00,1.38
8961.00,1.38
8960.00,1.38
8959.00,1.38
8958.00,1.38
8957.00,1.38
8956.00,1.38
8955.00,1.38
8954.00,1.37
8953.00,1.37
8952.00,1.37
8951.00,1.37
8950.00,1.37
8949.00,1.37
8948.00,1.37
8947.00,1.37
8946.00,1.37
8945.00,1.37
8944.00,1.37
8943.00,1.37
8942.00,1.37
8941.00,1.37
8940.00,1.37
8939.00,1.37
8938.00,1.37
8937.00,1.37
8936.00,1.38
8935.00,1.38
8934.00,1.38
8933.00,1.38
8932.00,1.38
8931.00,1.38
8930.00,1.38
8929.00,1.38
8928.00,1.38
8927.00,1.38
8926.00,1.39
8925.00,1.39
8924.00,1.38
8923.00,1.38
8922.00,1.38
8921.00,1.38
8920.00,1.38
8919.00,1.38
8918.00,1.38
8917.00,1.38
8916.00,1.38
8915.00,1.38
8914.00,1.38
8913.00,1.38
8912.00,1.37
8911.00,1.37
8910.00,1.37
8909.00,1.37
8908.00,1.37
8907.00,1.37
8906.00,1.37
8905.00,1.37
8904.00,1.37
8903.00,1.37
8902.00,1.37
8901.00,1.37
8900.00,1.37
8899.00,1.37
8898.00,1.37
8897.00,1.37
8896.00,1.37
8895.00,1.38
8894.00,1.38
8893.00,1.38
8892.00,1.38
8891.00,1.38
8890.00,1.39
8889.00,1.39
8888.00,1.39
8887.00,1.39
8886.00,1.39
8885.00,1.39
8884.00,1.40
8883.00,1.40
8882.00,1.40
8881.00,1.40
8880.00,1.40
8879.00,1.40
8878.00,1.40
8877.00,1.40
8876.00,1.40
8875.00,1.39
8874.00,1.39
8873.00,1.39
8872.00,1.39
8871.00,1.39
8870.00,1.39
8869.00,1.38
8868.00,1.38
8867.00,1.38
8866.00,1.38
8865.00,1.38
8864.00,1.38
8863.00,1.38
8862.00,1.38
8861.00,1.37
8860.00,1.37
8859.00,1.37
8858.00,1.37
8857.00,1.37
8856.00,1.37
8855.00,1.37
8854.00,1.37
8853.00,1.37
8852.00,1.37
8851.00,1.36
8850.00,1.36
8849.00,1.36
8848.00,1.36
8847.00,1.36
8846.00,1.36
8845.00,1.36
8844.00,1.36
8843.00,1.36
8842.00,1.36
8841.00,1.36
8840.00,1.36
8839.00,1.36
8838.00,1.36
8837.00,1.36
8836.00,1.36
8835.00,1.37
8834.00,1.37
8833.00,1.37
8832.00,1.37
8831.00,1.37
8830.00,1.37
8829.00,1.37
8828.00,1.37
8827.00,1.37
8826.00,1.36
8825.00,1.36
8824.00,1.36
8823.00,1.36
8822.00,1.36
8821.00,1.36
8820.00,1.36
8819.00,1.36
8818.00,1.35
8817.00,1.35
8816.00,1.35
8815.00,1.35
8814.00,1.35
8813.00,1.35
8812.00,1.35
8811.00,1.35
8810.00,1.35
8809.00,1.35
8808.00,1.35
8807.00,1.35
8806.00,1.35
8805.00,1.35
8804.00,1.35
8803.00,1.35
8802.00,1.35
8801.00,1.35
8800.00,1.35
8799.00,1.35
8798.00,1.35
8797.00,1.35
8796.00,1.35
8795.00,1.35
8794.00,1.35
8793.00,1.35
8792.00,1.35
8791.00,1.35
8790.00,1.35
8789.00,1.35
8788.00,1.35
8787.00,1.35
8786.00,1.34
8785.00,1.34
8784.00,1.34
8783.00,1.34
8782.00,1.34
8781.00,1.34
8780.00,1.34
8779.00,1.34
8778.00,1.34
8777.00,1.34
8776.00,1.34
8775.00,1.34
8774.00,1.34
8773.00,1.34
8772.00,1.34
8771.00,1.34
8770.00,1.34
8769.00,1.34
8768.00,1.34
8767.00,1.34
8766.00,1.34
8765.00,1.34
8764.00,1.34
8763.00,1.34
8762.00,1.34
8761.00,1.34
8760.00,1.34
8759.00,1.34
8758.00,1.34
8757.00,1.34
8756.00,1.34
8755.00,1.34
8754.00,1.34
8753.00,1.34
8752.00,1.33
8751.00,1.33
8750.00,1.33
8749.00,1.33
8748.00,1.33
8747.00,1.33
8746.00,1.33
8745.00,1.33
8744.00,1.33
8743.00,1.33
8742.00,1.33
8741.00,1.33
8740.00,1.33
8739.00,1.33
8738.00,1.33
8737.00,1.33
8736.00,1.34
8735.00,1.34
8734.00,1.34
8733.00,1.34
8732.00,1.34
8731.00,1.34
8730.00,1.34
8729.00,1.34
8728.00,1.34
8727.00,1.34
8726.00,1.34
8725.00,1.34
8724.00,1.34
8723.00,1.34
8722.00,1.34
8721.00,1.34
8720.00,1.34
8719.00,1.34
8718.00,1.34
8717.00,1.34
8716.00,1.34
8715.00,1.34
8714.00,1.34
8713.00,1.33
8712.00,1.33
8711.00,1.33
8710.00,1.33
8709.00,1.33
8708.00,1.33
8707.00,1.33
8706.00,1.33
8705.00,1.33
8704.00,1.33
8703.00,1.33
8702.00,1.33
8701.00,1.33
8700.00,1.33
8699.00,1.33
8698.00,1.33
8697.00,1.33
8696.00,1.33
8695.00,1.33
8694.00,1.33
8693.00,1.33
8692.00,1.33
8691.00,1.33
8690.00,1.33
8689.00,1.33
8688.00,1.33
8687.00,1.34
8686.00,1.34
8685.00,1.34
8684.00,1.34
8683.00,1.34
8682.00,1.34
8681.00,1.34
8680.00,1.34
8679.00,1.34
8678.00,1.34
8677.00,1.34
8676.00,1.34
8675.00,1.34
8674.00,1.34
8673.00,1.34
8672.00,1.34
8671.00,1.33
8670.00,1.33
8669.00,1.33
8668.00,1.33
8667.00,1.33
8666.00,1.33
8665.00,1.33
8664.00,1.32
8663.00,1.32
8662.00,1.32
8661.00,1.32
8660.00,1.32
8659.00,1.32
8658.00,1.32
8657.00,1.31
8656.00,1.31
8655.00,1.31
8654.00,1.31
8653.00,1.31
8652.00,1.31
8651.00,1.31
8650.00,1.31
8649.00,1.31
8648.00,1.31
8647.00,1.31
8646.00,1.31
8645.00,1.31
8644.00,1.31
8643.00,1.31
8642.00,1.31
8641.00,1.31
8640.00,1.31
8639.00,1.31
8638.00,1.31
8637.00,1.31
8636.00,1.31
8635.00,1.31
8634.00,1.31
8633.00,1.31
8632.00,1.32
8631.00,1.32
8630.00,1.32
8629.00,1.32
8628.00,1.32
8627.00,1.31
8626.00,1.31
8625.00,1.31
8624.00,1.31
8623.00,1.31
8622.00,1.31
8621.00,1.31
8620.00,1.31
8619.00,1.31
8618.00,1.31
8617.00,1.31
8616.00,1.31
8615.00,1.31
8614.00,1.31
8613.00,1.31
8612.00,1.31
8611.00,1.31
8610.00,1.31
8609.00,1.31
8608.00,1.31
8607.00,1.31
8606.00,1.31
8605.00,1.31
8604.00,1.31
8603.00,1.31
8602.00,1.31
8601.00,1.31
8600.00,1.31
8599.00,1.31
8598.00,1.31
8597.00,1.31
8596.00,1.30
8595.00,1.30
8594.00,1.30
8593.00,1.30
8592.00,1.30
8591.00,1.30
8590.00,1.30
8589.00,1.30
8588.00,1.30
8587.00,1.30
8586.00,1.30
8585.00,1.30
8584.00,1.30
8583.00,1.30
8582.00,1.30
8581.00,1.30
8580.00,1.30
8579.00,1.30
8578.00,1.30
8577.00,1.30
8576.00,1.30
8575.00,1.30
8574.00,1.30
8573.00,1.30
8572.00,1.30
8571.00,1.30
8570.00,1.30
8569.00,1.30
8568.00,1.30
8567.00,1.30
8566.00,1.30
8565.00,1.30
8564.00,1.30
8563.00,1.30
8562.00,1.30
8561.00,1.30
8560.00,1.30
8559.00,1.30
8558.00,1.30
8557.00,1.30
8556.00,1.30
8555.00,1.29
8554.00,1.29
8553.00,1.29
8552.00,1.29
8551.00,1.29
8550.00,1.29
8549.00,1.28
8548.00,1.28
8547.00,1.28
8546.00,1.28
8545.00,1.28
8544.00,1.28
8543.00,1.27
8542.00,1.27
8541.00,1.27
8540.00,1.27
8539.00,1.27
8538.00,1.27
8537.00,1.27
8536.00,1.27
8535.00,1.27
8534.00,1.27
8533.00,1.27
8532.00,1.27
8531.00,1.27
8530.00,1.27
8529.00,1.27
8528.00,1.27
8527.00,1.27
8526.00,1.27
8525.00,1.27
8524.00,1.28
8523.00,1.28
8522.00,1.28
8521.00,1.28
8520.00,1.28
8519.00,1.28
8518.00,1.28
8517.00,1.28
8516.00,1.28
8515.00,1.28
8514.00,1.28
8513.00,1.28
8512.00,1.28
8511.00,1.28
8510.00,1.28
8509.00,1.29
8508.00,1.29
8507.00,1.29
8506.00,1.29
8505.00,1.29
8504.00,1.29
8503.00,1.29
8502.00,1.29
8501.00,1.29
8500.00,1.28
8499.00,1.28
8498.00,1.28
8497.00,1.28
8496.00,1.28
8495.00,1.28
8494.00,1.28
8493.00,1.27
8492.00,1.27
8491.00,1.27
8490.00,1.27
8489.00,1.26
8488.00,1.26
8487.00,1.26
8486.00,1.26
8485.00,1.26
8484.00,1.25
8483.00,1.25
8482.00,1.25
8481.00,1.25
8480.00,1.25
8479.00,1.24
8478.00,1.24
8477.00,1.24
8476.00,1.24
8475.00,1.24
8474.00,1.24
8473.00,1.24
8472.00,1.24
8471.00,1.24
8470.00,1.24
8469.00,1.24
8468.00,1.24
8467.00,1.24
8466.00,1.24
8465.00,1.24
8464.00,1.24
8463.00,1.24
8462.00,1.24
8461.00,1.24
8460.00,1.24
8459.00,1.24
8458.00,1.24
8457.00,1.24
8456.00,1.24
8455.00,1.24
8454.00,1.24
8453.00,1.24
8452.00,1.25
8451.00,1.25
8450.00,1.25
8449.00,1.25
8448.00,1.25
8447.00,1.25
8446.00,1.25
8445.00,1.25
8444.00,1.25
8443.00,1.25
8442.00,1.25
8441.00,1.24
8440.00,1.24
8439.00,1.24
8438.00,1.24
8437.00,1.24
8436.00,1.24
8435.00,1.24
8434.00,1.24
8433.00,1.24
8432.00,1.24
8431.00,1.24
8430.00,1.23
8429.00,1.23
8428.00,1.24
8427.00,1.24
8426.00,1.24
8425.00,1.24
8424.00,1.24
8423.00,1.24
8422.00,1.24
8421.00,1.24
8420.00,1.24
8419.00,1.24
8418.00,1.24
8417.00,1.24
8416.00,1.24
8415.00,1.25
8414.00,1.25
8413.00,1.25
8412.00,1.25
8411.00,1.25
8410.00,1.25
8409.00,1.25
8408.00,1.25
8407.00,1.25
8406.00,1.25
8405.00,1.25
8404.00,1.25
8403.00,1.26
8402.00,1.26
8401.00,1.26
8400.00,1.26
8399.00,1.26
8398.00,1.26
8397.00,1.26
8396.00,1.26
8395.00,1.26
8394.00,1.26
8393.00,1.26
8392.00,1.26
8391.00,1.26
8390.00,1.26
8389.00,1.26
8388.00,1.26
8387.00,1.26
8386.00,1.26
8385.00,1.26
8384.00,1.26
8383.00,1.27
8382.00,1.27
8381.00,1.27
8380.00,1.27
8379.00,1.27
8378.00,1.27
8377.00,1.27
8376.00,1.27
8375.00,1.27
8374.00,1.27
8373.00,1.27
8372.00,1.27
8371.00,1.27
8370.00,1.27
8369.00,1.27
8368.00,1.28
8367.00,1.28
8366.00,1.28
8365.00,1.28
8364.00,1.28
8363.00,1.28
8362.00,1.28
8361.00,1.28
8360.00,1.28
8359.00,1.28
8358.00,1.28
8357.00,1.28
8356.00,1.28
8355.00,1.28
8354.00,1.28
8353.00,1.27
8352.00,1.27
8351.00,1.27
8350.00,1.27
8349.00,1.27
8348.00,1.27
8347.00,1.27
8346.00,1.27
8345.00,1.27
8344.00,1.27
8343.00,1.27
8342.00,1.27
8341.00,1.27
8340.00,1.27
8339.00,1.27
8338.00,1.28
8337.00,1.28
8336.00,1.28
8335.00,1.28
8334.00,1.28
8333.00,1.28
8332.00,1.28
8331.00,1.28
8330.00,1.28
8329.00,1.28
8328.00,1.28
8327.00,1.28
8326.00,1.29
8325.00,1.29
8324.00,1.29
8323.00,1.29
8322.00,1.29
8321.00,1.29
8320.00,1.29
8319.00,1.29
8318.00,1.29
8317.00,1.29
8316.00,1.29
8315.00,1.29
8314.00,1.29
8313.00,1.29
8312.00,1.28
8311.00,1.28
8310.00,1.28
8309.00,1.28
8308.00,1.28
8307.00,1.28
8306.00,1.28
8305.00,1.28
8304.00,1.28
8303.00,1.28
8302.00,1.28
8301.00,1.28
8300.00,1.28
8299.00,1.29
8298.00,1.29
8297.00,1.29
8296.00,1.29
8295.00,1.29
8294.00,1.29
8293.00,1.30
8292.00,1.30
8291.00,1.30
8290.00,1.30
8289.00,1.30
8288.00,1.30
8287.00,1.30
8286.00,1.30
8285.00,1.30
8284.00,1.30
8283.00,1.30
8282.00,1.30
8281.00,1.30
8280.00,1.30
8279.00,1.30
8278.00,1.29
8277.00,1.29
8276.00,1.29
8275.00,1.29
8274.00,1.29
8273.00,1.29
8272.00,1.29
8271.00,1.29
8270.00,1.29
8269.00,1.29
8268.00,1.29
8267.00,1.29
8266.00,1.29
8265.00,1.29
8264.00,1.29
8263.00,1.29
8262.00,1.29
8261.00,1.29
8260.00,1.29
8259.00,1.29
8258.00,1.29
8257.00,1.29
8256.00,1.29
8255.00,1.29
8254.00,1.29
8253.00,1.29
8252.00,1.29
8251.00,1.29
8250.00,1.29
8249.00,1.29
8248.00,1.29
8247.00,1.30
8246.00,1.30
8245.00,1.30
8244.00,1.30
8243.00,1.30
8242.00,1.30
8241.00,1.30
8240.00,1.30
8239.00,1.30
8238.00,1.30
8237.00,1.30
8236.00,1.30
8235.00,1.31
8234.00,1.31
8233.00,1.31
8232.00,1.31
8231.00,1.31
8230.00,1.31
8229.00,1.31
8228.00,1.31
8227.00,1.31
8226.00,1.31
8225.00,1.31
8224.00,1.31
8223.00,1.32
8222.00,1.32
8221.00,1.32
8220.00,1.32
8219.00,1.32
8218.00,1.32
8217.00,1.32
8216.00,1.31
8215.00,1.31
8214.00,1.31
8213.00,1.31
8212.00,1.31
8211.00,1.31
8210.00,1.31
8209.00,1.31
8208.00,1.31
8207.00,1.31
8206.00,1.31
8205.00,1.31
8204.00,1.31
8203.00,1.31
8202.00,1.31
8201.00,1.31
8200.00,1.31
8199.00,1.31
8198.00,1.31
8197.00,1.31
8196.00,1.31
8195.00,1.31
8194.00,1.31
8193.00,1.31
8192.00,1.31
8191.00,1.31
8190.00,1.30
8189.00,1.30
8188.00,1.30
8187.00,1.30
8186.00,1.30
8185.00,1.30
8184.00,1.31
8183.00,1.31
8182.00,1.31
8181.00,1.31
8180.00,1.31
8179.00,1.31
8178.00,1.31
8177.00,1.31
8176.00,1.31
8175.00,1.31
8174.00,1.31
8173.00,1.31
8172.00,1.32
8171.00,1.32
8170.00,1.32
8169.00,1.32
8168.00,1.32
8167.00,1.32
8166.00,1.32
8165.00,1.32
8164.00,1.32
8163.00,1.32
8162.00,1.32
8161.00,1.32
8160.00,1.33
8159.00,1.33
8158.00,1.33
8157.00,1.33
8156.00,1.33
8155.00,1.33
8154.00,1.33
8153.00,1.33
8152.00,1.33
8151.00,1.33
8150.00,1.33
8149.00,1.33
8148.00,1.33
8147.00,1.33
8146.00,1.33
8145.00,1.33
8144.00,1.33
8143.00,1.33
8142.00,1.33
8141.00,1.33
8140.00,1.33
8139.00,1.33
8138.00,1.33
8137.00,1.33
8136.00,1.33
8135.00,1.33
8134.00,1.33
8133.00,1.33
8132.00,1.33
8131.00,1.33
8130.00,1.33
8129.00,1.33
8128.00,1.33
8127.00,1.33
8126.00,1.33
8125.00,1.33
8124.00,1.34
8123.00,1.34
8122.00,1.34
8121.00,1.34
8120.00,1.34
8119.00,1.34
8118.00,1.34
8117.00,1.34
8116.00,1.34
8115.00,1.34
8114.00,1.34
8113.00,1.34
8112.00,1.34
8111.00,1.34
8110.00,1.34
8109.00,1.34
8108.00,1.34
8107.00,1.34
8106.00,1.34
8105.00,1.34
8104.00,1.34
8103.00,1.34
8102.00,1.34
8101.00,1.35
8100.00,1.35
8099.00,1.35
8098.00,1.35
8097.00,1.35
8096.00,1.35
8095.00,1.35
8094.00,1.35
8093.00,1.35
8092.00,1.35
8091.00,1.35
8090.00,1.35
8089.00,1.35
8088.00,1.35
8087.00,1.35
8086.00,1.35
8085.00,1.35
8084.00,1.35
8083.00,1.35
8082.00,1.35
8081.00,1.35
8080.00,1.35
8079.00,1.35
8078.00,1.35
8077.00,1.35
8076.00,1.35
8075.00,1.35
8074.00,1.35
8073.00,1.36
8072.00,1.36
8071.00,1.36
8070.00,1.36
8069.00,1.36
8068.00,1.36
8067.00,1.36
8066.00,1.36
8065.00,1.36
8064.00,1.36
8063.00,1.36
8062.00,1.35
8061.00,1.35
8060.00,1.35
8059.00,1.35
8058.00,1.35
8057.00,1.35
8056.00,1.35
8055.00,1.35
8054.00,1.35
8053.00,1.35
8052.00,1.35
8051.00,1.35
8050.00,1.35
8049.00,1.35
8048.00,1.35
8047.00,1.35
8046.00,1.35
8045.00,1.35
8044.00,1.35
8043.00,1.35
8042.00,1.35
8041.00,1.35
8040.00,1.35
8039.00,1.35
8038.00,1.35
8037.00,1.35
8036.00,1.35
8035.00,1.35
8034.00,1.36
8033.00,1.36
8032.00,1.36
8031.00,1.36
8030.00,1.36
8029.00,1.36
8028.00,1.36
8027.00,1.36
8026.00,1.36
8025.00,1.36
8024.00,1.36
8023.00,1.36
8022.00,1.36
8021.00,1.36
8020.00,1.36
8019.00,1.36
8018.00,1.36
8017.00,1.36
8016.00,1.36
8015.00,1.36
8014.00,1.36
8013.00,1.36
8012.00,1.36
8011.00,1.36
8010.00,1.36
8009.00,1.36
8008.00,1.36
8007.00,1.36
8006.00,1.36
8005.00,1.36
8004.00,1.36
8003.00,1.36
8002.00,1.36
8001.00,1.36
8000.00,1.36
7999.00,1.36
7998.00,1.36
7997.00,1.36
7996.00,1.36
7995.00,1.36
7994.00,1.36
7993.00,1.36
7992.00,1.36
7991.00,1.36
7990.00,1.36
7989.00,1.36
7988.00,1.36
7987.00,1.36
7986.00,1.36
7985.00,1.36
7984.00,1.36
7983.00,1.36
7982.00,1.36
7981.00,1.36
7980.00,1.36
7979.00,1.37
7978.00,1.37
7977.00,1.37
7976.00,1.37
7975.00,1.37
7974.00,1.37
7973.00,1.37
7972.00,1.37
7971.00,1.37
7970.00,1.37
7969.00,1.37
7968.00,1.37
7967.00,1.37
7966.00,1.37
7965.00,1.37
7964.00,1.37
7963.00,1.37
7962.00,1.37
7961.00,1.37
7960.00,1.37
7959.00,1.37
7958.00,1.37
7957.00,1.37
7956.00,1.37
7955.00,1.37
7954.00,1.37
7953.00,1.37
7952.00,1.37
7951.00,1.37
7950.00,1.37
7949.00,1.37
7948.00,1.37
7947.00,1.37
7946.00,1.37
7945.00,1.37
7944.00,1.38
7943.00,1.38
7942.00,1.38
7941.00,1.38
7940.00,1.38
7939.00,1.38
7938.00,1.38
7937.00,1.38
7936.00,1.38
7935.00,1.38
7934.00,1.38
7933.00,1.38
7932.00,1.38
7931.00,1.38
7930.00,1.38
7929.00,1.38
7928.00,1.38
7927.00,1.38
7926.00,1.38
7925.00,1.37
7924.00,1.37
7923.00,1.37
7922.00,1.37
7921.00,1.38
7920.00,1.38
7919.00,1.38
7918.00,1.38
7917.00,1.38
7916.00,1.38
7915.00,1.38
7914.00,1.38
7913.00,1.38
7912.00,1.38
7911.00,1.38
7910.00,1.38
7909.00,1.38
7908.00,1.38
7907.00,1.38
7906.00,1.38
7905.00,1.38
7904.00,1.38
7903.00,1.38
7902.00,1.38
7901.00,1.38
7900.00,1.38
7899.00,1.38
7898.00,1.38
7897.00,1.38
7896.00,1.38
7895.00,1.38
7894.00,1.38
7893.00,1.38
7892.00,1.38
7891.00,1.38
7890.00,1.38
7889.00,1.38
7888.00,1.38
7887.00,1.38
7886.00,1.38
7885.00,1.38
7884.00,1.38
7883.00,1.38
7882.00,1.38
7881.00,1.38
7880.00,1.38
7879.00,1.38
7878.00,1.38
7877.00,1.38
7876.00,1.38
7875.00,1.38
7874.00,1.38
7873.00,1.38
7872.00,1.38
7871.00,1.38
7870.00,1.38
7869.00,1.38
7868.00,1.38
7867.00,1.38
7866.00,1.38
7865.00,1.38
7864.00,1.38
7863.00,1.38
7862.00,1.39
7861.00,1.39
7860.00,1.39
7859.00,1.39
7858.00,1.39
7857.00,1.39
7856.00,1.39
7855.00,1.39
7854.00,1.39
7853.00,1.39
7852.00,1.39
7851.00,1.39
7850.00,1.39
7849.00,1.39
7848.00,1.39
7847.00,1.39
7846.00,1.39
7845.00,1.39
7844.00,1.39
7843.00,1.39
7842.00,1.40
7841.00,1.40
7840.00,1.40
7839.00,1.40
7838.00,1.40
7837.00,1.40
7836.00,1.40
7835.00,1.40
7834.00,1.40
7833.00,1.40
7832.00,1.40
7831.00,1.40
7830.00,1.40
7829.00,1.40
7828.00,1.40
7827.00,1.40
7826.00,1.40
7825.00,1.39
7824.00,1.39
7823.00,1.39
7822.00,1.39
7821.00,1.39
7820.00,1.39
7819.00,1.39
7818.00,1.39
7817.00,1.39
7816.00,1.39
7815.00,1.39
7814.00,1.39
7813.00,1.39
7812.00,1.39
7811.00,1.39
7810.00,1.39
7809.00,1.39
7808.00,1.39
7807.00,1.40
7806.00,1.40
7805.00,1.40
7804.00,1.40
7803.00,1.40
7802.00,1.40
7801.00,1.40
7800.00,1.40
7799.00,1.40
7798.00,1.40
7797.00,1.40
7796.00,1.40
7795.00,1.40
7794.00,1.40
7793.00,1.40
7792.00,1.40
7791.00,1.40
7790.00,1.40
7789.00,1.40
7788.00,1.40
7787.00,1.40
7786.00,1.40
7785.00,1.39
7784.00,1.39
7783.00,1.39
7782.00,1.39
7781.00,1.39
7780.00,1.39
7779.00,1.39
7778.00,1.39
7777.00,1.39
7776.00,1.39
7775.00,1.39
7774.00,1.39
7773.00,1.39
7772.00,1.39
7771.00,1.39
7770.00,1.39
7769.00,1.39
7768.00,1.39
7767.00,1.39
7766.00,1.39
7765.00,1.39
7764.00,1.39
7763.00,1.39
7762.00,1.39
7761.00,1.39
7760.00,1.39
7759.00,1.39
7758.00,1.39
7757.00,1.39
7756.00,1.39
7755.00,1.39
7754.00,1.39
7753.00,1.39
7752.00,1.39
7751.00,1.39
7750.00,1.39
7749.00,1.39
7748.00,1.39
7747.00,1.39
7746.00,1.39
7745.00,1.39
7744.00,1.39
7743.00,1.39
7742.00,1.39
7741.00,1.39
7740.00,1.39
7739.00,1.39
7738.00,1.39
7737.00,1.39
7736.00,1.39
7735.00,1.39
7734.00,1.39
7733.00,1.39
7732.00,1.39
7731.00,1.39
7730.00,1.39
7729.00,1.39
7728.00,1.39
7727.00,1.39
7726.00,1.39
7725.00,1.39
7724.00,1.39
7723.00,1.39
7722.00,1.39
7721.00,1.39
7720.00,1.39
7719.00,1.39
7718.00,1.39
7717.00,1.39
7716.00,1.39
7715.00,1.40
7714.00,1.40
7713.00,1.40
7712.00,1.40
7711.00,1.40
7710.00,1.40
7709.00,1.40
7708.00,1.40
7707.00,1.40
7706.00,1.40
7705.00,1.40
7704.00,1.40
7703.00,1.40
7702.00,1.40
7701.00,1.40
7700.00,1.40
7699.00,1.40
7698.00,1.40
7697.00,1.40
7696.00,1.40
7695.00,1.40
7694.00,1.40
7693.00,1.40
7692.00,1.40
7691.00,1.40
7690.00,1.40
7689.00,1.40
7688.00,1.40
7687.00,1.40
7686.00,1.40
7685.00,1.40
7684.00,1.40
7683.00,1.40
7682.00,1.40
7681.00,1.40
7680.00,1.40
7679.00,1.40
7678.00,1.40
7677.00,1.40
7676.00,1.40
7675.00,1.39
7674.00,1.39
7673.00,1.39
7672.00,1.39
7671.00,1.39
7670.00,1.39
7669.00,1.39
7668.00,1.39
7667.00,1.39
7666.00,1.39
7665.00,1.39
7664.00,1.39
7663.00,1.39
7662.00,1.39
7661.00,1.39
7660.00,1.39
7659.00,1.39
7658.00,1.39
7657.00,1.39
7656.00,1.39
7655.00,1.39
7654.00,1.39
7653.00,1.40
7652.00,1.40
7651.00,1.40
7650.00,1.40
7649.00,1.40
7648.00,1.40
7647.00,1.40
7646.00,1.40
7645.00,1.40
7644.00,1.40
7643.00,1.40
7642.00,1.40
7641.00,1.40
7640.00,1.40
7639.00,1.40
7638.00,1.40
7637.00,1.39
7636.00,1.39
7635.00,1.39
7634.00,1.39
7633.00,1.39
7632.00,1.39
7631.00,1.39
7630.00,1.39
7629.00,1.40
7628.00,1.40
7627.00,1.40
7626.00,1.40
7625.00,1.40
7624.00,1.40
7623.00,1.40
7622.00,1.40
7621.00,1.40
7620.00,1.40
7619.00,1.40
7618.00,1.40
7617.00,1.40
7616.00,1.40
7615.00,1.40
7614.00,1.40
7613.00,1.40
7612.00,1.40
7611.00,1.40
7610.00,1.40
7609.00,1.40
7608.00,1.40
7607.00,1.40
7606.00,1.40
7605.00,1.40
7604.00,1.40
7603.00,1.40
7602.00,1.40
7601.00,1.40
7600.00,1.40
7599.00,1.40
7598.00,1.40
7597.00,1.40
7596.00,1.40
7595.00,1.40
7594.00,1.40
7593.00,1.40
7592.00,1.40
7591.00,1.40
7590.00,1.39
7589.00,1.39
7588.00,1.39
7587.00,1.39
7586.00,1.39
7585.00,1.39
7584.00,1.39
7583.00,1.39
7582.00,1.39
7581.00,1.39
7580.00,1.39
7579.00,1.39
7578.00,1.39
7577.00,1.39
7576.00,1.39
7575.00,1.39
7574.00,1.39
7573.00,1.39
7572.00,1.39
7571.00,1.39
7570.00,1.39
7569.00,1.39
7568.00,1.39
7567.00,1.39
7566.00,1.39
7565.00,1.39
7564.00,1.39
7563.00,1.39
7562.00,1.39
7561.00,1.39
7560.00,1.39
7559.00,1.39
7558.00,1.39
7557.00,1.39
7556.00,1.39
7555.00,1.39
7554.00,1.39
7553.00,1.39
7552.00,1.39
7551.00,1.39
7550.00,1.39
7549.00,1.39
7548.00,1.39
7547.00,1.39
7546.00,1.39
7545.00,1.39
7544.00,1.39
7543.00,1.39
7542.00,1.39
7541.00,1.39
7540.00,1.39
7539.00,1.39
7538.00,1.39
7537.00,1.39
7536.00,1.39
7535.00,1.39
7534.00,1.39
7533.00,1.39
7532.00,1.39
7531.00,1.39
7530.00,1.39
7529.00,1.39
7528.00,1.39
7527.00,1.39
7526.00,1.39
7525.00,1.39
7524.00,1.39
7523.00,1.39
7522.00,1.39
7521.00,1.39
7520.00,1.39
7519.00,1.39
7518.00,1.39
7517.00,1.39
7516.00,1.39
7515.00,1.39
7514.00,1.39
7513.00,1.39
7512.00,1.39
7511.00,1.39
7510.00,1.39
7509.00,1.38
7508.00,1.38
7507.00,1.38
7506.00,1.38
7505.00,1.38
7504.00,1.38
7503.00,1.38
7502.00,1.38
7501.00,1.38
7500.00,1.38
7499.00,1.38
7498.00,1.38
7497.00,1.37
7496.00,1.37
7495.00,1.37
7494.00,1.37
7493.00,1.37
7492.00,1.37
7491.00,1.37
7490.00,1.37
7489.00,1.37
7488.00,1.37
7487.00,1.37
7486.00,1.37
7485.00,1.37
7484.00,1.37
7483.00,1.37
7482.00,1.37
7481.00,1.37
7480.00,1.37
7479.00,1.37
7478.00,1.37
7477.00,1.36
7476.00,1.36
7475.00,1.36
7474.00,1.36
7473.00,1.36
7472.00,1.36
7471.00,1.36
7470.00,1.36
7469.00,1.36
7468.00,1.36
7467.00,1.36
7466.00,1.36
7465.00,1.36
7464.00,1.36
7463.00,1.36
7462.00,1.35
7461.00,1.35
7460.00,1.35
7459.00,1.35
7458.00,1.35
7457.00,1.35
7456.00,1.35
7455.00,1.35
7454.00,1.35
7453.00,1.35
7452.00,1.35
7451.00,1.35
7450.00,1.35
7449.00,1.35
7448.00,1.35
7447.00,1.35
7446.00,1.35
7445.00,1.35
7444.00,1.35
7443.00,1.35
7442.00,1.35
7441.00,1.35
7440.00,1.35
7439.00,1.35
7438.00,1.35
7437.00,1.35
7436.00,1.35
7435.00,1.35
7434.00,1.35
7433.00,1.35
7432.00,1.34
7431.00,1.34
7430.00,1.34
7429.00,1.34
7428.00,1.34
7427.00,1.34
7426.00,1.34
7425.00,1.34
7424.00,1.34
7423.00,1.34
7422.00,1.34
7421.00,1.34
7420.00,1.34
7419.00,1.33
7418.00,1.33
7417.00,1.33
7416.00,1.33
7415.00,1.33
7414.00,1.33
7413.00,1.33
7412.00,1.33
7411.00,1.33
7410.00,1.32
7409.00,1.32
7408.00,1.32
7407.00,1.32
7406.00,1.32
7405.00,1.32
7404.00,1.32
7403.00,1.32
7402.00,1.31
7401.00,1.31
7400.00,1.31
7399.00,1.31
7398.00,1.31
7397.00,1.31
7396.00,1.31
7395.00,1.30
7394.00,1.30
7393.00,1.30
7392.00,1.30
7391.00,1.30
7390.00,1.30
7389.00,1.30
7388.00,1.29
7387.00,1.29
7386.00,1.29
7385.00,1.29
7384.00,1.29
7383.00,1.29
7382.00,1.29
7381.00,1.29
7380.00,1.29
7379.00,1.29
7378.00,1.28
7377.00,1.28
7376.00,1.28
7375.00,1.28
7374.00,1.28
7373.00,1.28
7372.00,1.28
7371.00,1.28
7370.00,1.28
7369.00,1.28
7368.00,1.28
7367.00,1.28
7366.00,1.28
7365.00,1.28
7364.00,1.28
7363.00,1.28
7362.00,1.28
7361.00,1.28
7360.00,1.28
7359.00,1.28
7358.00,1.28
7357.00,1.28
7356.00,1.27
7355.00,1.27
7354.00,1.27
7353.00,1.27
7352.00,1.27
7351.00,1.27
7350.00,1.27
7349.00,1.27
7348.00,1.27
7347.00,1.27
7346.00,1.27
7345.00,1.27
7344.00,1.27
7343.00,1.27
7342.00,1.27
7341.00,1.27
7340.00,1.27
7339.00,1.27
7338.00,1.27
7337.00,1.27
7336.00,1.27
7335.00,1.27
7334.00,1.27
7333.00,1.27
7332.00,1.27
7331.00,1.27
7330.00,1.27
7329.00,1.27
7328.00,1.27
7327.00,1.27
7326.00,1.27
7325.00,1.27
7324.00,1.27
7323.00,1.27
7322.00,1.27
7321.00,1.27
7320.00,1.27
7319.00,1.27
7318.00,1.27
7317.00,1.26
7316.00,1.26
7315.00,1.26
7314.00,1.26
7313.00,1.26
7312.00,1.26
7311.00,1.26
7310.00,1.26
7309.00,1.26
7308.00,1.26
7307.00,1.26
7306.00,1.25
7305.00,1.25
7304.00,1.25
7303.00,1.25
7302.00,1.25
7301.00,1.25
7300.00,1.25
7299.00,1.25
7298.00,1.25
7297.00,1.25
7296.00,1.25
7295.00,1.25
7294.00,1.25
7293.00,1.25
7292.00,1.25
7291.00,1.25
7290.00,1.25
7289.00,1.25
7288.00,1.25
7287.00,1.25
7286.00,1.25
7285.00,1.24
7284.00,1.24
7283.00,1.24
7282.00,1.24
7281.00,1.24
7280.00,1.24
7279.00,1.24
7278.00,1.24
7277.00,1.24
7276.00,1.24
7275.00,1.24
7274.00,1.23
7273.00,1.23
7272.00,1.23
7271.00,1.23
7270.00,1.23
7269.00,1.23
7268.00,1.23
7267.00,1.23
7266.00,1.23
7265.00,1.22
7264.00,1.22
7263.00,1.22
7262.00,1.22
7261.00,1.22
7260.00,1.22
7259.00,1.22
7258.00,1.22
7257.00,1.22
7256.00,1.22
7255.00,1.22
7254.00,1.21
7253.00,1.21
7252.00,1.21
7251.00,1.21
7250.00,1.20
7249.00,1.20
7248.00,1.20
7247.00,1.20
7246.00,1.19
7245.00,1.19
7244.00,1.19
7243.00,1.18
7242.00,1.18
7241.00,1.18
7240.00,1.17
7239.00,1.17
7238.00,1.17
7237.00,1.16
7236.00,1.16
7235.00,1.16
7234.00,1.15
7233.00,1.15
7232.00,1.15
7231.00,1.14
7230.00,1.14
7229.00,1.14
7228.00,1.13
7227.00,1.13
7226.00,1.13
7225.00,1.13
7224.00,1.12
7223.00,1.12
7222.00,1.12
7221.00,1.12
7220.00,1.11
7219.00,1.11
7218.00,1.11
7217.00,1.11
7216.00,1.10
7215.00,1.10
7214.00,1.10
7213.00,1.10
7212.00,1.09
7211.00,1.09
7210.00,1.09
7209.00,1.08
7208.00,1.08
7207.00,1.08
7206.00,1.08
7205.00,1.07
7204.00,1.07
7203.00,1.07
7202.00,1.06
7201.00,1.06
7200.00,1.06
7199.00,1.06
7198.00,1.05
7197.00,1.05
7196.00,1.05
7195.00,1.05
7194.00,1.04
7193.00,1.04
7192.00,1.04
7191.00,1.04
7190.00,1.03
7189.00,1.03
7188.00,1.03
7187.00,1.02
7186.00,1.02
7185.00,1.02
7184.00,1.02
7183.00,1.01
7182.00,1.01
7181.00,1.01
7180.00,1.00
7179.00,1.00
7178.00,1.00
7177.00,0.99
7176.00,0.99
7175.00,0.99
7174.00,0.99
7173.00,0.98
7172.00,0.98
7171.00,0.98
7170.00,0.98
7169.00,0.97
7168.00,0.97
7167.00,0.97
7166.00,0.97
7165.00,0.96
7164.00,0.96
7163.00,0.96
7162.00,0.96
7161.00,0.96
7160.00,0.95
7159.00,0.95
7158.00,0.95
7157.00,0.95
7156.00,0.95
7155.00,0.94
7154.00,0.94
7153.00,0.94
7152.00,0.94
7151.00,0.94
7150.00,0.93
7149.00,0.93
7148.00,0.93
7147.00,0.93
7146.00,0.92
7145.00,0.92
7144.00,0.92
7143.00,0.92
7142.00,0.91
7141.00,0.91
7140.00,0.91
7139.00,0.91
7138.00,0.90
7137.00,0.90
7136.00,0.90
7135.00,0.90
7134.00,0.90
7133.00,0.89
7132.00,0.89
7131.00,0.89
7130.00,0.89
7129.00,0.89
7128.00,0.89
7127.00,0.88
7126.00,0.88
7125.00,0.88
7124.00,0.88
7123.00,0.88
7122.00,0.87
7121.00,0.87
7120.00,0.87
7119.00,0.87
7118.00,0.86
7117.00,0.86
7116.00,0.86
7115.00,0.86
7114.00,0.85
7113.00,0.85
7112.00,0.85
7111.00,0.85
7110.00,0.84
7109.00,0.84
7108.00,0.84
7107.00,0.84
7106.00,0.83
7105.00,0.83
7104.00,0.83
7103.00,0.83
7102.00,0.83
7101.00,0.82
7100.00,0.82
7099.00,0.82
7098.00,0.82
7097.00,0.82
7096.00,0.82
7095.00,0.81
7094.00,0.81
7093.00,0.81
7092.00,0.81
7091.00,0.81
7090.00,0.81
7089.00,0.80
7088.00,0.80
7087.00,0.80
7086.00,0.80
7085.00,0.80
7084.00,0.80
7083.00,0.79
7082.00,0.79
7081.00,0.79
7080.00,0.79
7079.00,0.79
7078.00,0.79
7077.00,0.78
7076.00,0.78
7075.00,0.78
7074.00,0.78
7073.00,0.78
7072.00,0.78
7071.00,0.78
7070.00,0.77
7069.00,0.77
7068.00,0.77
7067.00,0.77
7066.00,0.77
7065.00,0.77
7064.00,0.77
7063.00,0.77
7062.00,0.77
7061.00,0.77
7060.00,0.77
7059.00,0.77
7058.00,0.77
7057.00,0.77
7056.00,0.77
7055.00,0.77
7054.00,0.77
7053.00,0.77
7052.00,0.76
7051.00,0.76
7050.00,0.76
7049.00,0.76
7048.00,0.76
7047.00,0.76
7046.00,0.76
7045.00,0.76
7044.00,0.76
7043.00,0.75
7042.00,0.75
7041.00,0.75
7040.00,0.75
7039.00,0.75
7038.00,0.75
7037.00,0.75
7036.00,0.75
7035.00,0.74
7034.00,0.74
7033.00,0.74
7032.00,0.74
7031.00,0.74
7030.00,0.74
7029.00,0.74
7028.00,0.73
7027.00,0.73
7026.00,0.73
7025.00,0.73
7024.00,0.73
7023.00,0.73
7022.00,0.73
7021.00,0.73
7020.00,0.73
7019.00,0.73
7018.00,0.72
7017.00,0.72
7016.00,0.72
7015.00,0.72
7014.00,0.72
7013.00,0.72
7012.00,0.72
7011.00,0.72
7010.00,0.72
7009.00,0.72
7008.00,0.72
7007.00,0.72
7006.00,0.72
7005.00,0.72
7004.00,0.71
7003.00,0.71
7002.00,0.71
7001.00,0.71
7000.00,0.71
6999.00,0.71
6998.00,0.71
6997.00,0.71
6996.00,0.71
6995.00,0.71
6994.00,0.71
6993.00,0.71
6992.00,0.71
6991.00,0.71
6990.00,0.71
6989.00,0.71
6988.00,0.71
6987.00,0.71
6986.00,0.71
6985.00,0.71
6984.00,0.71
6983.00,0.71
6982.00,0.71
6981.00,0.71
6980.00,0.71
6979.00,0.71
6978.00,0.71
6977.00,0.71
6976.00,0.70
6975.00,0.70
6974.00,0.70
6973.00,0.70
6972.00,0.70
6971.00,0.70
6970.00,0.70
6969.00,0.70
6968.00,0.70
6967.00,0.70
6966.00,0.70
6965.00,0.70
6964.00,0.70
6963.00,0.70
6962.00,0.70
6961.00,0.70
6960.00,0.70
6959.00,0.70
6958.00,0.70
6957.00,0.70
6956.00,0.70
6955.00,0.70
6954.00,0.70
6953.00,0.70
6952.00,0.70
6951.00,0.70
6950.00,0.69
6949.00,0.69
6948.00,0.69
6947.00,0.69
6946.00,0.69
6945.00,0.69
6944.00,0.69
6943.00,0.69
6942.00,0.69
6941.00,0.69
6940.00,0.69
6939.00,0.69
6938.00,0.69
6937.00,0.69
6936.00,0.69
6935.00,0.69
6934.00,0.69
6933.00,0.69
6932.00,0.69
6931.00,0.69
6930.00,0.70
6929.00,0.70
6928.00,0.70
6927.00,0.70
6926.00,0.70
6925.00,0.70
6924.00,0.70
6923.00,0.70
6922.00,0.69
6921.00,0.69
6920.00,0.69
6919.00,0.69
6918.00,0.69
6917.00,0.69
6916.00,0.69
6915.00,0.69
6914.00,0.69
6913.00,0.69
6912.00,0.69
6911.00,0.69
6910.00,0.69
6909.00,0.69
6908.00,0.69
6907.00,0.69
6906.00,0.69
6905.00,0.69
6904.00,0.69
6903.00,0.69
6902.00,0.69
6901.00,0.69
6900.00,0.69
6899.00,0.69
6898.00,0.69
6897.00,0.69
6896.00,0.69
6895.00,0.69
6894.00,0.69
6893.00,0.69
6892.00,0.69
6891.00,0.69
6890.00,0.69
6889.00,0.69
6888.00,0.69
6887.00,0.69
6886.00,0.69
6885.00,0.69
6884.00,0.69
6883.00,0.68
6882.00,0.68
6881.00,0.68
6880.00,0.68
6879.00,0.68
6878.00,0.68
6877.00,0.68
6876.00,0.68
6875.00,0.68
6874.00,0.68
6873.00,0.68
6872.00,0.68
6871.00,0.68
6870.00,0.68
6869.00,0.68
6868.00,0.68
6867.00,0.68
6866.00,0.68
6865.00,0.68
6864.00,0.68
6863.00,0.68
6862.00,0.68
6861.00,0.68
6860.00,0.68
6859.00,0.68
6858.00,0.68
6857.00,0.68
6856.00,0.68
6855.00,0.68
6854.00,0.68
6853.00,0.68
6852.00,0.68
6851.00,0.68
6850.00,0.68
6849.00,0.68
6848.00,0.68
6847.00,0.68
6846.00,0.68
6845.00,0.68
6844.00,0.68
6843.00,0.68
6842.00,0.68
6841.00,0.68
6840.00,0.68
6839.00,0.69
6838.00,0.69
6837.00,0.69
6836.00,0.69
6835.00,0.69
6834.00,0.69
6833.00,0.69
6832.00,0.69
6831.00,0.69
6830.00,0.69
6829.00,0.69
6828.00,0.69
6827.00,0.69
6826.00,0.69
6825.00,0.69
6824.00,0.69
6823.00,0.69
6822.00,0.69
6821.00,0.69
6820.00,0.69
6819.00,0.69
6818.00,0.69
6817.00,0.69
6816.00,0.69
6815.00,0.69
6814.00,0.69
6813.00,0.69
6812.00,0.69
6811.00,0.69
6810.00,0.69
6809.00,0.69
6808.00,0.69
6807.00,0.69
6806.00,0.69
6805.00,0.69
6804.00,0.69
6803.00,0.69
6802.00,0.69
6801.00,0.69
6800.00,0.69
6799.00,0.69
6798.00,0.69
6797.00,0.69
6796.00,0.69
6795.00,0.70
6794.00,0.70
6793.00,0.70
6792.00,0.70
6791.00,0.70
6790.00,0.70
6789.00,0.70
6788.00,0.70
6787.00,0.70
6786.00,0.70
6785.00,0.71
6784.00,0.71
6783.00,0.71
6782.00,0.71
6781.00,0.71
6780.00,0.71
6779.00,0.71
6778.00,0.71
6777.00,0.72
6776.00,0.72
6775.00,0.72
6774.00,0.72
6773.00,0.72
6772.00,0.72
6771.00,0.72
6770.00,0.72
6769.00,0.72
6768.00,0.72
6767.00,0.72
6766.00,0.72
6765.00,0.72
6764.00,0.72
6763.00,0.72
6762.00,0.72
6761.00,0.72
6760.00,0.72
6759.00,0.72
6758.00,0.72
6757.00,0.72
6756.00,0.72
6755.00,0.72
6754.00,0.72
6753.00,0.72
6752.00,0.72
6751.00,0.73
6750.00,0.73
6749.00,0.73
6748.00,0.73
6747.00,0.73
6746.00,0.73
6745.00,0.73
6744.00,0.73
6743.00,0.73
6742.00,0.73
6741.00,0.73
6740.00,0.73
6739.00,0.73
6738.00,0.74
6737.00,0.74
6736.00,0.74
6735.00,0.74
6734.00,0.74
6733.00,0.74
6732.00,0.74
6731.00,0.74
6730.00,0.74
6729.00,0.74
6728.00,0.74
6727.00,0.74
6726.00,0.74
6725.00,0.74
6724.00,0.75
6723.00,0.75
6722.00,0.75
6721.00,0.75
6720.00,0.75
6719.00,0.75
6718.00,0.75
6717.00,0.75
6716.00,0.75
6715.00,0.75
6714.00,0.75
6713.00,0.75
6712.00,0.75
6711.00,0.75
6710.00,0.75
6709.00,0.76
6708.00,0.76
6707.00,0.76
6706.00,0.76
6705.00,0.76
6704.00,0.76
6703.00,0.76
6702.00,0.76
6701.00,0.76
6700.00,0.76
6699.00,0.76
6698.00,0.76
6697.00,0.76
6696.00,0.76
6695.00,0.76
6694.00,0.76
6693.00,0.76
6692.00,0.76
6691.00,0.77
6690.00,0.77
6689.00,0.77
6688.00,0.77
6687.00,0.77
6686.00,0.77
6685.00,0.77
6684.00,0.77
6683.00,0.78
6682.00,0.78
6681.00,0.78
6680.00,0.78
6679.00,0.78
6678.00,0.78
6677.00,0.78
6676.00,0.79
6675.00,0.79
6674.00,0.79
6673.00,0.79
6672.00,0.79
6671.00,0.79
6670.00,0.79
6669.00,0.79
6668.00,0.79
6667.00,0.79
6666.00,0.79
6665.00,0.80
6664.00,0.80
6663.00,0.80
6662.00,0.80
6661.00,0.80
6660.00,0.80
6659.00,0.80
6658.00,0.80
6657.00,0.80
6656.00,0.80
6655.00,0.80
6654.00,0.80
6653.00,0.80
6652.00,0.80
6651.00,0.80
6650.00,0.80
6649.00,0.80
6648.00,0.80
6647.00,0.81
6646.00,0.81
6645.00,0.81
6644.00,0.81
6643.00,0.81
6642.00,0.81
6641.00,0.81
6640.00,0.81
6639.00,0.81
6638.00,0.81
6637.00,0.82
6636.00,0.82
6635.00,0.82
6634.00,0.82
6633.00,0.82
6632.00,0.82
6631.00,0.82
6630.00,0.82
6629.00,0.82
6628.00,0.82
6627.00,0.82
6626.00,0.82
6625.00,0.82
6624.00,0.83
6623.00,0.83
6622.00,0.83
6621.00,0.83
6620.00,0.83
6619.00,0.83
6618.00,0.83
6617.00,0.83
6616.00,0.83
6615.00,0.83
6614.00,0.83
6613.00,0.83
6612.00,0.84
6611.00,0.84
6610.00,0.84
6609.00,0.84
6608.00,0.84
6607.00,0.84
6606.00,0.84
6605.00,0.84
6604.00,0.84
6603.00,0.84
6602.00,0.84
6601.00,0.84
6600.00,0.84
6599.00,0.84
6598.00,0.84
6597.00,0.85
6596.00,0.85
6595.00,0.85
6594.00,0.85
6593.00,0.85
6592.00,0.85
6591.00,0.85
6590.00,0.85
6589.00,0.85
6588.00,0.85
6587.00,0.86
6586.00,0.86
6585.00,0.86
6584.00,0.86
6583.00,0.86
6582.00,0.86
6581.00,0.86
6580.00,0.86
6579.00,0.87
6578.00,0.87
6577.00,0.87
6576.00,0.87
6575.00,0.87
6574.00,0.87
6573.00,0.87
6572.00,0.87
6571.00,0.88
6570.00,0.88
6569.00,0.88
6568.00,0.88
6567.00,0.88
6566.00,0.88
6565.00,0.88
6564.00,0.88
6563.00,0.88
6562.00,0.88
6561.00,0.88
6560.00,0.88
6559.00,0.88
6558.00,0.88
6557.00,0.88
6556.00,0.88
6555.00,0.88
6554.00,0.88
6553.00,0.88
6552.00,0.88
6551.00,0.88
6550.00,0.88
6549.00,0.89
6548.00,0.89
6547.00,0.89
6546.00,0.89
6545.00,0.89
6544.00,0.89
6543.00,0.89
6542.00,0.89
6541.00,0.89
6540.00,0.89
6539.00,0.89
6538.00,0.89
6537.00,0.90
6536.00,0.90
6535.00,0.90
6534.00,0.90
6533.00,0.90
6532.00,0.90
6531.00,0.90
6530.00,0.90
6529.00,0.90
6528.00,0.91
6527.00,0.91
6526.00,0.91
6525.00,0.91
6524.00,0.91
6523.00,0.91
6522.00,0.91
6521.00,0.91
6520.00,0.91
6519.00,0.91
6518.00,0.91
6517.00,0.91
6516.00,0.91
6515.00,0.91
6514.00,0.91
6513.00,0.92
6512.00,0.92
6511.00,0.92
6510.00,0.92
6509.00,0.92
6508.00,0.92
6507.00,0.92
6506.00,0.92
6505.00,0.92
6504.00,0.92
6503.00,0.92
6502.00,0.92
6501.00,0.92
6500.00,0.92
6499.00,0.92
6498.00,0.92
6497.00,0.93
6496.00,0.93
6495.00,0.93
6494.00,0.93
6493.00,0.93
6492.00,0.93
6491.00,0.93
6490.00,0.93
6489.00,0.93
6488.00,0.93
6487.00,0.93
6486.00,0.94
6485.00,0.94
6484.00,0.94
6483.00,0.94
6482.00,0.94
6481.00,0.94
6480.00,0.94
6479.00,0.94
6478.00,0.94
6477.00,0.94
6476.00,0.94
6475.00,0.94
6474.00,0.94
6473.00,0.94
6472.00,0.94
6471.00,0.94
6470.00,0.94
6469.00,0.94
6468.00,0.94
6467.00,0.94
6466.00,0.94
6465.00,0.94
6464.00,0.94
6463.00,0.94
6462.00,0.94
6461.00,0.94
6460.00,0.94
6459.00,0.94
6458.00,0.94
6457.00,0.95
6456.00,0.95
6455.00,0.95
6454.00,0.95
6453.00,0.95
6452.00,0.95
6451.00,0.95
6450.00,0.95
6449.00,0.95
6448.00,0.95
6447.00,0.95
6446.00,0.95
6445.00,0.95
6444.00,0.95
6443.00,0.95
6442.00,0.95
6441.00,0.95
6440.00,0.95
6439.00,0.95
6438.00,0.95
6437.00,0.96
6436.00,0.96
6435.00,0.96
6434.00,0.96
6433.00,0.96
6432.00,0.96
6431.00,0.96
6430.00,0.96
6429.00,0.96
6428.00,0.96
6427.00,0.96
6426.00,0.96
6425.00,0.97
6424.00,0.97
6423.00,0.97
6422.00,0.97
6421.00,0.97
6420.00,0.97
6419.00,0.97
6418.00,0.97
6417.00,0.97
6416.00,0.97
6415.00,0.97
6414.00,0.97
6413.00,0.97
6412.00,0.97
6411.00,0.97
6410.00,0.97
6409.00,0.97
6408.00,0.97
6407.00,0.97
6406.00,0.97
6405.00,0.97
6404.00,0.97
6403.00,0.97
6402.00,0.97
6401.00,0.97
6400.00,0.97
6399.00,0.97
6398.00,0.98
6397.00,0.98
6396.00,0.98
6395.00,0.98
6394.00,0.98
6393.00,0.98
6392.00,0.98
6391.00,0.98
6390.00,0.98
6389.00,0.98
6388.00,0.99
6387.00,0.99
6386.00,0.99
6385.00,0.99
6384.00,0.99
6383.00,0.99
6382.00,0.99
6381.00,0.99
6380.00,0.99
6379.00,0.99
6378.00,0.99
6377.00,0.99
6376.00,0.99
6375.00,0.99
6374.00,0.99
6373.00,0.99
6372.00,0.99
6371.00,0.99
6370.00,0.99
6369.00,0.99
6368.00,0.99
6367.00,0.99
6366.00,0.99
6365.00,1.00
6364.00,1.00
6363.00,1.00
6362.00,1.00
6361.00,1.00
6360.00,1.00
6359.00,1.00
6358.00,1.00
6357.00,1.00
6356.00,1.00
6355.00,1.00
6354.00,1.00
6353.00,1.00
6352.00,1.00
6351.00,1.00
6350.00,1.01
6349.00,1.01
6348.00,1.01
6347.00,1.01
6346.00,1.01
6345.00,1.01
6344.00,1.01
6343.00,1.01
6342.00,1.01
6341.00,1.01
6340.00,1.01
6339.00,1.02
6338.00,1.02
6337.00,1.02
6336.00,1.02
6335.00,1.02
6334.00,1.02
6333.00,1.02
6332.00,1.02
6331.00,1.02
6330.00,1.02
6329.00,1.02
6328.00,1.02
6327.00,1.02
6326.00,1.03
6325.00,1.03
6324.00,1.03
6323.00,1.03
6322.00,1.03
6321.00,1.03
6320.00,1.03
6319.00,1.03
6318.00,1.03
6317.00,1.03
6316.00,1.03
6315.00,1.04
6314.00,1.04
6313.00,1.04
6312.00,1.04
6311.00,1.04
6310.00,1.04
6309.00,1.04
6308.00,1.04
6307.00,1.05
6306.00,1.05
6305.00,1.05
6304.00,1.05
6303.00,1.05
6302.00,1.05
6301.00,1.05
6300.00,1.05
6299.00,1.06
6298.00,1.06
6297.00,1.06
6296.00,1.06
6295.00,1.06
6294.00,1.06
6293.00,1.06
6292.00,1.06
6291.00,1.06
6290.00,1.06
6289.00,1.06
6288.00,1.06
6287.00,1.06
6286.00,1.07
6285.00,1.07
6284.00,1.07
6283.00,1.07
6282.00,1.07
6281.00,1.07
6280.00,1.07
6279.00,1.07
6278.00,1.07
6277.00,1.07
6276.00,1.08
6275.00,1.08
6274.00,1.08
6273.00,1.08
6272.00,1.08
6271.00,1.08
6270.00,1.08
6269.00,1.09
6268.00,1.09
6267.00,1.09
6266.00,1.09
6265.00,1.09
6264.00,1.09
6263.00,1.09
6262.00,1.10
6261.00,1.10
6260.00,1.10
6259.00,1.10
6258.00,1.10
6257.00,1.10
6256.00,1.10
6255.00,1.10
6254.00,1.10
6253.00,1.10
6252.00,1.10
6251.00,1.10
6250.00,1.10
6249.00,1.10
6248.00,1.10
6247.00,1.10
6246.00,1.11
6245.00,1.11
6244.00,1.11
6243.00,1.11
6242.00,1.11
6241.00,1.11
6240.00,1.11
6239.00,1.11
6238.00,1.11
6237.00,1.11
6236.00,1.11
6235.00,1.12
6234.00,1.12
6233.00,1.12
6232.00,1.12
6231.00,1.12
6230.00,1.12
6229.00,1.12
6228.00,1.12
6227.00,1.13
6226.00,1.13
6225.00,1.13
6224.00,1.13
6223.00,1.13
6222.00,1.13
6221.00,1.13
6220.00,1.13
6219.00,1.13
6218.00,1.13
6217.00,1.13
6216.00,1.14
6215.00,1.14
6214.00,1.14
6213.00,1.14
6212.00,1.14
6211.00,1.14
6210.00,1.14
6209.00,1.14
6208.00,1.15
6207.00,1.15
6206.00,1.15
6205.00,1.15
6204.00,1.15
6203.00,1.15
6202.00,1.15
6201.00,1.15
6200.00,1.16
6199.00,1.16
6198.00,1.16
6197.00,1.16
6196.00,1.16
6195.00,1.16
6194.00,1.16
6193.00,1.16
6192.00,1.17
6191.00,1.17
6190.00,1.17
6189.00,1.17
6188.00,1.17
6187.00,1.17
6186.00,1.17
6185.00,1.17
6184.00,1.17
6183.00,1.17
6182.00,1.18
6181.00,1.18
6180.00,1.18
6179.00,1.18
6178.00,1.18
6177.00,1.18
6176.00,1.18
6175.00,1.19
6174.00,1.19
6173.00,1.19
6172.00,1.19
6171.00,1.19
6170.00,1.20
6169.00,1.20
6168.00,1.20
6167.00,1.20
6166.00,1.20
6165.00,1.20
6164.00,1.21
6163.00,1.21
6162.00,1.21
6161.00,1.21
6160.00,1.21
6159.00,1.21
6158.00,1.22
6157.00,1.22
6156.00,1.22
6155.00,1.22
6154.00,1.22
6153.00,1.22
6152.00,1.22
6151.00,1.22
6150.00,1.22
6149.00,1.22
6148.00,1.22
6147.00,1.23
6146.00,1.23
6145.00,1.23
6144.00,1.23
6143.00,1.23
6142.00,1.23
6141.00,1.23
6140.00,1.23
6139.00,1.23
6138.00,1.23
6137.00,1.23
6136.00,1.23
6135.00,1.23
6134.00,1.24
6133.00,1.24
6132.00,1.24
6131.00,1.24
6130.00,1.24
6129.00,1.24
6128.00,1.24
6127.00,1.24
6126.00,1.25
6125.00,1.25
6124.00,1.25
6123.00,1.25
6122.00,1.25
6121.00,1.25
6120.00,1.25
6119.00,1.26
6118.00,1.26
6117.00,1.26
6116.00,1.26
6115.00,1.26
6114.00,1.26
6113.00,1.26
6112.00,1.26
6111.00,1.26
6110.00,1.27
6109.00,1.27
6108.00,1.27
6107.00,1.27
6106.00,1.27
6105.00,1.27
6104.00,1.27
6103.00,1.27
6102.00,1.27
6101.00,1.28
6100.00,1.28
6099.00,1.28
6098.00,1.28
6097.00,1.28
6096.00,1.28
6095.00,1.28
6094.00,1.28
6093.00,1.29
6092.00,1.29
6091.00,1.29
6090.00,1.29
6089.00,1.29
6088.00,1.29
6087.00,1.29
6086.00,1.29
6085.00,1.29
6084.00,1.29
6083.00,1.30
6082.00,1.30
6081.00,1.30
6080.00,1.30
6079.00,1.30
6078.00,1.30
6077.00,1.30
6076.00,1.30
6075.00,1.30
6074.00,1.30
6073.00,1.30
6072.00,1.30
6071.00,1.31
6070.00,1.31
6069.00,1.31
6068.00,1.31
6067.00,1.31
6066.00,1.31
6065.00,1.31
6064.00,1.31
6063.00,1.31
6062.00,1.32
6061.00,1.32
6060.00,1.32
6059.00,1.32
6058.00,1.32
6057.00,1.32
6056.00,1.32
6055.00,1.32
6054.00,1.32
6053.00,1.32
6052.00,1.32
6051.00,1.32
6050.00,1.32
6049.00,1.32
6048.00,1.32
6047.00,1.32
6046.00,1.32
6045.00,1.33
6044.00,1.33
6043.00,1.33
6042.00,1.33
6041.00,1.33
6040.00,1.33
6039.00,1.33
6038.00,1.33
6037.00,1.33
6036.00,1.33
6035.00,1.33
6034.00,1.33
6033.00,1.34
6032.00,1.34
6031.00,1.34
6030.00,1.34
6029.00,1.34
6028.00,1.34
6027.00,1.34
6026.00,1.34
6025.00,1.34
6024.00,1.34
6023.00,1.34
6022.00,1.34
6021.00,1.34
6020.00,1.34
6019.00,1.34
6018.00,1.34
6017.00,1.34
6016.00,1.34
6015.00,1.34
6014.00,1.34
6013.00,1.34
6012.00,1.34
6011.00,1.34
6010.00,1.34
6009.00,1.33
6008.00,1.33
6007.00,1.33
6006.00,1.33
6005.00,1.33
6004.00,1.33
6003.00,1.33
6002.00,1.33
6001.00,1.33
6000.00,1.33
5999.00,1.33
5998.00,1.33
5997.00,1.33
5996.00,1.33
5995.00,1.33
5994.00,1.33
5993.00,1.33
5992.00,1.32
5991.00,1.32
5990.00,1.32
5989.00,1.32
5988.00,1.32
5987.00,1.32
5986.00,1.31
5985.00,1.31
5984.00,1.31
5983.00,1.31
5982.00,1.31
5981.00,1.30
5980.00,1.30
5979.00,1.30
5978.00,1.29
5977.00,1.29
5976.00,1.29
5975.00,1.28
5974.00,1.28
5973.00,1.28
5972.00,1.27
5971.00,1.27
5970.00,1.26
5969.00,1.26
5968.00,1.25
5967.00,1.24
5966.00,1.24
5965.00,1.23
5964.00,1.23
5963.00,1.22
5962.00,1.21
5961.00,1.21
5960.00,1.20
5959.00,1.19
5958.00,1.19
5957.00,1.18
5956.00,1.18
5955.00,1.17
5954.00,1.16
5953.00,1.16
5952.00,1.15
5951.00,1.15
5950.00,1.14
5949.00,1.14
5948.00,1.14
5947.00,1.13
5946.00,1.13
5945.00,1.13
5944.00,1.12
5943.00,1.12
5942.00,1.12
5941.00,1.12
5940.00,1.12
5939.00,1.11
5938.00,1.11
5937.00,1.11
5936.00,1.11
5935.00,1.11
5934.00,1.11
5933.00,1.11
5932.00,1.11
5931.00,1.11
5930.00,1.11
5929.00,1.11
5928.00,1.11
5927.00,1.10
5926.00,1.10
5925.00,1.10
5924.00,1.10
5923.00,1.10
5922.00,1.10
5921.00,1.09
5920.00,1.09
5919.00,1.09
5918.00,1.09
5917.00,1.09
5916.00,1.08
5915.00,1.08
5914.00,1.08
5913.00,1.08
5912.00,1.08
5911.00,1.07
5910.00,1.07
5909.00,1.07
5908.00,1.07
5907.00,1.07
5906.00,1.06
5905.00,1.06
5904.00,1.06
5903.00,1.06
5902.00,1.06
5901.00,1.06
5900.00,1.06
5899.00,1.06
5898.00,1.06
5897.00,1.06
5896.00,1.06
5895.00,1.07
5894.00,1.07
5893.00,1.07
5892.00,1.07
5891.00,1.07
5890.00,1.08
5889.00,1.08
5888.00,1.08
5887.00,1.09
5886.00,1.09
5885.00,1.09
5884.00,1.09
5883.00,1.10
5882.00,1.10
5881.00,1.10
5880.00,1.10
5879.00,1.11
5878.00,1.11
5877.00,1.11
5876.00,1.11
5875.00,1.12
5874.00,1.12
5873.00,1.12
5872.00,1.12
5871.00,1.12
5870.00,1.13
5869.00,1.13
5868.00,1.13
5867.00,1.13
5866.00,1.13
5865.00,1.14
5864.00,1.14
5863.00,1.14
5862.00,1.14
5861.00,1.14
5860.00,1.14
5859.00,1.14
5858.00,1.15
5857.00,1.15
5856.00,1.15
5855.00,1.15
5854.00,1.15
5853.00,1.15
5852.00,1.15
5851.00,1.15
5850.00,1.15
5849.00,1.15
5848.00,1.15
5847.00,1.15
5846.00,1.15
5845.00,1.15
5844.00,1.15
5843.00,1.15
5842.00,1.15
5841.00,1.15
5840.00,1.15
5839.00,1.15
5838.00,1.15
5837.00,1.15
5836.00,1.15
5835.00,1.15
5834.00,1.15
5833.00,1.15
5832.00,1.15
5831.00,1.15
5830.00,1.15
5829.00,1.15
5828.00,1.15
5827.00,1.15
5826.00,1.15
5825.00,1.15
5824.00,1.15
5823.00,1.15
5822.00,1.15
5821.00,1.15
5820.00,1.15
5819.00,1.15
5818.00,1.15
5817.00,1.15
5816.00,1.15
5815.00,1.15
5814.00,1.15
5813.00,1.15
5812.00,1.15
5811.00,1.15
5810.00,1.15
5809.00,1.15
5808.00,1.15
5807.00,1.15
5806.00,1.15
5805.00,1.15
5804.00,1.15
5803.00,1.15
5802.00,1.15
5801.00,1.15
5800.00,1.15
5799.00,1.15
5798.00,1.15
5797.00,1.14
5796.00,1.14
5795.00,1.14
5794.00,1.14
5793.00,1.14
5792.00,1.14
5791.00,1.13
5790.00,1.13
5789.00,1.13
5788.00,1.13
5787.00,1.13
5786.00,1.12
5785.00,1.12
5784.00,1.12
5783.00,1.12
5782.00,1.12
5781.00,1.11
5780.00,1.11
5779.00,1.11
5778.00,1.11
5777.00,1.11
5776.00,1.11
5775.00,1.11
5774.00,1.11
5773.00,1.11
5772.00,1.11
5771.00,1.11
5770.00,1.11
5769.00,1.11
5768.00,1.11
5767.00,1.11
5766.00,1.11
5765.00,1.11
5764.00,1.11
5763.00,1.11
5762.00,1.12
5761.00,1.12
5760.00,1.12
5759.00,1.12
5758.00,1.13
5757.00,1.13
5756.00,1.13
5755.00,1.13
5754.00,1.14
5753.00,1.14
5752.00,1.14
5751.00,1.15
5750.00,1.15
5749.00,1.15
5748.00,1.16
5747.00,1.16
5746.00,1.16
5745.00,1.17
5744.00,1.17
5743.00,1.17
5742.00,1.17
5741.00,1.18
5740.00,1.18
5739.00,1.18
5738.00,1.18
5737.00,1.18
5736.00,1.19
5735.00,1.19
5734.00,1.19
5733.00,1.19
5732.00,1.19
5731.00,1.19
5730.00,1.20
5729.00,1.20
5728.00,1.20
5727.00,1.20
5726.00,1.20
5725.00,1.20
5724.00,1.20
5723.00,1.20
5722.00,1.20
5721.00,1.20
5720.00,1.20
5719.00,1.20
5718.00,1.20
5717.00,1.20
5716.00,1.20
5715.00,1.20
5714.00,1.20
5713.00,1.20
5712.00,1.20
5711.00,1.20
5710.00,1.20
5709.00,1.20
5708.00,1.20
5707.00,1.20
5706.00,1.20
5705.00,1.20
5704.00,1.19
5703.00,1.19
5702.00,1.19
5701.00,1.19
5700.00,1.19
5699.00,1.19
5698.00,1.19
5697.00,1.19
5696.00,1.19
5695.00,1.19
5694.00,1.19
5693.00,1.18
5692.00,1.18
5691.00,1.18
5690.00,1.18
5689.00,1.18
5688.00,1.18
5687.00,1.18
5686.00,1.18
5685.00,1.18
5684.00,1.17
5683.00,1.17
5682.00,1.17
5681.00,1.17
5680.00,1.17
5679.00,1.17
5678.00,1.17
5677.00,1.17
5676.00,1.17
5675.00,1.17
5674.00,1.17
5673.00,1.17
5672.00,1.17
5671.00,1.17
5670.00,1.17
5669.00,1.17
5668.00,1.17
5667.00,1.17
5666.00,1.17
5665.00,1.18
5664.00,1.18
5663.00,1.18
5662.00,1.18
5661.00,1.18
5660.00,1.18
5659.00,1.18
5658.00,1.19
5657.00,1.19
5656.00,1.19
5655.00,1.19
5654.00,1.19
5653.00,1.19
5652.00,1.20
5651.00,1.20
5650.00,1.20
5649.00,1.20
5648.00,1.20
5647.00,1.20
5646.00,1.21
5645.00,1.21
5644.00,1.21
5643.00,1.21
5642.00,1.21
5641.00,1.21
5640.00,1.21
5639.00,1.21
5638.00,1.22
5637.00,1.22
5636.00,1.22
5635.00,1.22
5634.00,1.22
5633.00,1.22
5632.00,1.22
5631.00,1.23
5630.00,1.23
5629.00,1.23
5628.00,1.23
5627.00,1.23
5626.00,1.23
5625.00,1.23
5624.00,1.23
5623.00,1.24
5622.00,1.24
5621.00,1.24
5620.00,1.24
5619.00,1.24
5618.00,1.24
5617.00,1.24
5616.00,1.24
5615.00,1.25
5614.00,1.25
5613.00,1.25
5612.00,1.25
5611.00,1.25
5610.00,1.25
5609.00,1.26
5608.00,1.26
5607.00,1.26
5606.00,1.26
5605.00,1.26
5604.00,1.26
5603.00,1.27
5602.00,1.27
5601.00,1.27
5600.00,1.27
5599.00,1.27
5598.00,1.27
5597.00,1.27
5596.00,1.27
5595.00,1.28
5594.00,1.28
5593.00,1.28
5592.00,1.28
5591.00,1.28
5590.00,1.28
5589.00,1.28
5588.00,1.28
5587.00,1.28
5586.00,1.28
5585.00,1.28
5584.00,1.28
5583.00,1.29
5582.00,1.29
5581.00,1.29
5580.00,1.29
5579.00,1.29
5578.00,1.29
5577.00,1.29
5576.00,1.29
5575.00,1.30
5574.00,1.30
5573.00,1.30
5572.00,1.30
5571.00,1.30
5570.00,1.30
5569.00,1.30
5568.00,1.31
5567.00,1.31
5566.00,1.31
5565.00,1.31
5564.00,1.31
5563.00,1.31
5562.00,1.31
5561.00,1.31
5560.00,1.31
5559.00,1.32
5558.00,1.32
5557.00,1.32
5556.00,1.32
5555.00,1.32
5554.00,1.32
5553.00,1.32
5552.00,1.32
5551.00,1.32
5550.00,1.32
5549.00,1.33
5548.00,1.33
5547.00,1.33
5546.00,1.33
5545.00,1.33
5544.00,1.33
5543.00,1.33
5542.00,1.33
5541.00,1.33
5540.00,1.33
5539.00,1.33
5538.00,1.34
5537.00,1.34
5536.00,1.34
5535.00,1.34
5534.00,1.34
5533.00,1.34
5532.00,1.34
5531.00,1.34
5530.00,1.34
5529.00,1.34
5528.00,1.34
5527.00,1.34
5526.00,1.34
5525.00,1.34
5524.00,1.35
5523.00,1.35
5522.00,1.35
5521.00,1.35
5520.00,1.35
5519.00,1.35
5518.00,1.35
5517.00,1.35
5516.00,1.35
5515.00,1.35
5514.00,1.35
5513.00,1.35
5512.00,1.35
5511.00,1.35
5510.00,1.35
5509.00,1.35
5508.00,1.35
5507.00,1.35
5506.00,1.35
5505.00,1.35
5504.00,1.35
5503.00,1.35
5502.00,1.35
5501.00,1.35
5500.00,1.35
5499.00,1.35
5498.00,1.35
5497.00,1.35
5496.00,1.35
5495.00,1.36
5494.00,1.36
5493.00,1.36
5492.00,1.36
5491.00,1.36
5490.00,1.36
5489.00,1.36
5488.00,1.36
5487.00,1.36
5486.00,1.37
5485.00,1.37
5484.00,1.37
5483.00,1.37
5482.00,1.37
5481.00,1.37
5480.00,1.37
5479.00,1.38
5478.00,1.38
5477.00,1.38
5476.00,1.38
5475.00,1.38
5474.00,1.38
5473.00,1.38
5472.00,1.38
5471.00,1.38
5470.00,1.38
5469.00,1.38
5468.00,1.39
5467.00,1.39
5466.00,1.39
5465.00,1.39
5464.00,1.39
5463.00,1.39
5462.00,1.39
5461.00,1.39
5460.00,1.39
5459.00,1.39
5458.00,1.39
5457.00,1.39
5456.00,1.39
5455.00,1.39
5454.00,1.39
5453.00,1.39
5452.00,1.39
5451.00,1.39
5450.00,1.39
5449.00,1.39
5448.00,1.39
5447.00,1.39
5446.00,1.39
5445.00,1.39
5444.00,1.39
5443.00,1.39
5442.00,1.39
5441.00,1.39
5440.00,1.39
5439.00,1.39
5438.00,1.39
5437.00,1.39
5436.00,1.39
5435.00,1.39
5434.00,1.39
5433.00,1.39
5432.00,1.39
5431.00,1.39
5430.00,1.39
5429.00,1.39
5428.00,1.39
5427.00,1.40
5426.00,1.40
5425.00,1.40
5424.00,1.40
5423.00,1.40
5422.00,1.40
5421.00,1.40
5420.00,1.40
5419.00,1.40
5418.00,1.40
5417.00,1.40
5416.00,1.40
5415.00,1.40
5414.00,1.40
5413.00,1.40
5412.00,1.40
5411.00,1.40
5410.00,1.40
5409.00,1.40
5408.00,1.40
5407.00,1.40
5406.00,1.40
5405.00,1.40
5404.00,1.40
5403.00,1.40
5402.00,1.40
5401.00,1.40
5400.00,1.40
5399.00,1.40
5398.00,1.40
5397.00,1.40
5396.00,1.39
5395.00,1.39
5394.00,1.39
5393.00,1.39
5392.00,1.39
5391.00,1.39
5390.00,1.39
5389.00,1.38
5388.00,1.38
5387.00,1.38
5386.00,1.38
5385.00,1.38
5384.00,1.37
5383.00,1.37
5382.00,1.37
5381.00,1.37
5380.00,1.36
5379.00,1.36
5378.00,1.36
5377.00,1.36
5376.00,1.35
5375.00,1.35
5374.00,1.35
5373.00,1.34
5372.00,1.34
5371.00,1.34
5370.00,1.33
5369.00,1.33
5368.00,1.32
5367.00,1.32
5366.00,1.31
5365.00,1.31
5364.00,1.30
5363.00,1.30
5362.00,1.29
5361.00,1.29
5360.00,1.28
5359.00,1.27
5358.00,1.27
5357.00,1.26
5356.00,1.25
5355.00,1.24
5354.00,1.24
5353.00,1.23
5352.00,1.22
5351.00,1.21
5350.00,1.20
5349.00,1.20
5348.00,1.19
5347.00,1.18
5346.00,1.17
5345.00,1.16
5344.00,1.15
5343.00,1.15
5342.00,1.14
5341.00,1.13
5340.00,1.12
5339.00,1.11
5338.00,1.10
5337.00,1.10
5336.00,1.09
5335.00,1.08
5334.00,1.07
5333.00,1.06
5332.00,1.05
5331.00,1.04
5330.00,1.04
5329.00,1.03
5328.00,1.02
5327.00,1.01
5326.00,1.00
5325.00,0.99
5324.00,0.99
5323.00,0.98
5322.00,0.97
5321.00,0.96
5320.00,0.95
5319.00,0.95
5318.00,0.94
5317.00,0.93
5316.00,0.92
5315.00,0.91
5314.00,0.91
5313.00,0.90
5312.00,0.89
5311.00,0.89
5310.00,0.88
5309.00,0.87
5308.00,0.87
5307.00,0.86
5306.00,0.85
5305.00,0.85
5304.00,0.84
5303.00,0.84
5302.00,0.83
5301.00,0.83
5300.00,0.82
5299.00,0.82
5298.00,0.81
5297.00,0.81
5296.00,0.81
5295.00,0.81
5294.00,0.80
5293.00,0.80
5292.00,0.80
5291.00,0.80
5290.00,0.79
5289.00,0.79
5288.00,0.79
5287.00,0.79
5286.00,0.79
5285.00,0.79
5284.00,0.78
5283.00,0.78
5282.00,0.78
5281.00,0.78
5280.00,0.78
5279.00,0.78
5278.00,0.78
5277.00,0.78
5276.00,0.77
5275.00,0.77
5274.00,0.77
5273.00,0.77
5272.00,0.77
5271.00,0.77
5270.00,0.77
5269.00,0.77
5268.00,0.77
5267.00,0.77
5266.00,0.77
5265.00,0.76
5264.00,0.76
5263.00,0.76
5262.00,0.76
5261.00,0.76
5260.00,0.76
5259.00,0.76
5258.00,0.76
5257.00,0.76
5256.00,0.76
5255.00,0.76
5254.00,0.76
5253.00,0.76
5252.00,0.76
5251.00,0.76
5250.00,0.76
5249.00,0.76
5248.00,0.76
5247.00,0.76
5246.00,0.76
5245.00,0.76
5244.00,0.76
5243.00,0.76
5242.00,0.76
5241.00,0.76
5240.00,0.76
5239.00,0.76
5238.00,0.76
5237.00,0.76
5236.00,0.76
5235.00,0.76
5234.00,0.76
5233.00,0.76
5232.00,0.76
5231.00,0.76
5230.00,0.76
5229.00,0.76
5228.00,0.76
5227.00,0.77
5226.00,0.77
5225.00,0.77
5224.00,0.77
5223.00,0.77
5222.00,0.77
5221.00,0.77
5220.00,0.77
5219.00,0.77
5218.00,0.77
5217.00,0.77
5216.00,0.77
5215.00,0.77
5214.00,0.77
5213.00,0.77
5212.00,0.77
5211.00,0.77
5210.00,0.77
5209.00,0.77
5208.00,0.77
5207.00,0.77
5206.00,0.77
5205.00,0.77
5204.00,0.77
5203.00,0.77
5202.00,0.77
5201.00,0.77
5200.00,0.77
5199.00,0.77
5198.00,0.77
5197.00,0.77
5196.00,0.77
5195.00,0.78
5194.00,0.78
5193.00,0.78
5192.00,0.78
5191.00,0.78
5190.00,0.78
5189.00,0.78
5188.00,0.78
5187.00,0.78
5186.00,0.78
5185.00,0.78
5184.00,0.78
5183.00,0.78
5182.00,0.78
5181.00,0.78
5180.00,0.78
5179.00,0.78
5178.00,0.78
5177.00,0.78
5176.00,0.78
5175.00,0.78
5174.00,0.78
5173.00,0.78
5172.00,0.78
5171.00,0.78
5170.00,0.78
5169.00,0.79
5168.00,0.79
5167.00,0.79
5166.00,0.79
5165.00,0.79
5164.00,0.79
5163.00,0.79
5162.00,0.79
5161.00,0.79
5160.00,0.79
5159.00,0.79
5158.00,0.79
5157.00,0.79
5156.00,0.79
5155.00,0.79
5154.00,0.79
5153.00,0.79
5152.00,0.80
5151.00,0.80
5150.00,0.80
5149.00,0.80
5148.00,0.80
5147.00,0.80
5146.00,0.80
5145.00,0.80
5144.00,0.80
5143.00,0.80
5142.00,0.80
5141.00,0.80
5140.00,0.80
5139.00,0.80
5138.00,0.80
5137.00,0.80
5136.00,0.80
5135.00,0.80
5134.00,0.80
5133.00,0.80
5132.00,0.80
5131.00,0.80
5130.00,0.80
5129.00,0.80
5128.00,0.80
5127.00,0.80
5126.00,0.80
5125.00,0.81
5124.00,0.81
5123.00,0.81
5122.00,0.81
5121.00,0.81
5120.00,0.81
5119.00,0.81
5118.00,0.81
5117.00,0.81
5116.00,0.81
5115.00,0.81
5114.00,0.81
5113.00,0.81
5112.00,0.82
5111.00,0.82
5110.00,0.82
5109.00,0.82
5108.00,0.82
5107.00,0.82
5106.00,0.82
5105.00,0.82
5104.00,0.82
5103.00,0.82
5102.00,0.82
5101.00,0.82
5100.00,0.82
5099.00,0.82
5098.00,0.82
5097.00,0.82
5096.00,0.82
5095.00,0.82
5094.00,0.82
5093.00,0.82
5092.00,0.82
5091.00,0.82
5090.00,0.82
5089.00,0.82
5088.00,0.82
5087.00,0.82
5086.00,0.83
5085.00,0.83
5084.00,0.83
5083.00,0.83
5082.00,0.83
5081.00,0.83
5080.00,0.83
5079.00,0.83
5078.00,0.83
5077.00,0.83
5076.00,0.83
5075.00,0.83
5074.00,0.83
5073.00,0.83
5072.00,0.83
5071.00,0.83
5070.00,0.83
5069.00,0.83
5068.00,0.84
5067.00,0.84
5066.00,0.84
5065.00,0.84
5064.00,0.84
5063.00,0.84
5062.00,0.84
5061.00,0.84
5060.00,0.84
5059.00,0.84
5058.00,0.84
5057.00,0.85
5056.00,0.85
5055.00,0.85
5054.00,0.85
5053.00,0.85
5052.00,0.85
5051.00,0.85
5050.00,0.85
5049.00,0.85
5048.00,0.85
5047.00,0.85
5046.00,0.85
5045.00,0.85
5044.00,0.85
5043.00,0.85
5042.00,0.85
5041.00,0.85
5040.00,0.85
5039.00,0.85
5038.00,0.86
5037.00,0.86
5036.00,0.86
5035.00,0.86
5034.00,0.86
5033.00,0.86
5032.00,0.86
5031.00,0.86
5030.00,0.86
5029.00,0.86
5028.00,0.86
5027.00,0.87
5026.00,0.87
5025.00,0.87
5024.00,0.87
5023.00,0.87
5022.00,0.87
5021.00,0.87
5020.00,0.87
5019.00,0.87
5018.00,0.87
5017.00,0.87
5016.00,0.87
5015.00,0.87
5014.00,0.88
5013.00,0.88
5012.00,0.88
5011.00,0.88
5010.00,0.88
5009.00,0.88
5008.00,0.88
5007.00,0.88
5006.00,0.88
5005.00,0.89
5004.00,0.89
5003.00,0.89
5002.00,0.89
5001.00,0.89
5000.00,0.89
4999.00,0.89
4998.00,0.89
4997.00,0.89
4996.00,0.89
4995.00,0.89
4994.00,0.89
4993.00,0.89
4992.00,0.89
4991.00,0.90
4990.00,0.90
4989.00,0.90
4988.00,0.90
4987.00,0.90
4986.00,0.90
4985.00,0.90
4984.00,0.90
4983.00,0.90
4982.00,0.90
4981.00,0.90
4980.00,0.91
4979.00,0.91
4978.00,0.91
4977.00,0.91
4976.00,0.91
4975.00,0.91
4974.00,0.91
4973.00,0.91
4972.00,0.91
4971.00,0.91
4970.00,0.91
4969.00,0.92
4968.00,0.92
4967.00,0.92
4966.00,0.92
4965.00,0.92
4964.00,0.92
4963.00,0.92
4962.00,0.92
4961.00,0.92
4960.00,0.92
4959.00,0.92
4958.00,0.92
4957.00,0.92
4956.00,0.92
4955.00,0.92
4954.00,0.92
4953.00,0.92
4952.00,0.92
4951.00,0.92
4950.00,0.92
4949.00,0.92
4948.00,0.93
4947.00,0.93
4946.00,0.93
4945.00,0.93
4944.00,0.93
4943.00,0.93
4942.00,0.93
4941.00,0.93
4940.00,0.93
4939.00,0.93
4938.00,0.93
4937.00,0.93
4936.00,0.93
4935.00,0.94
4934.00,0.94
4933.00,0.94
4932.00,0.94
4931.00,0.94
4930.00,0.94
4929.00,0.94
4928.00,0.94
4927.00,0.94
4926.00,0.94
4925.00,0.94
4924.00,0.94
4923.00,0.94
4922.00,0.95
4921.00,0.95
4920.00,0.95
4919.00,0.95
4918.00,0.95
4917.00,0.95
4916.00,0.95
4915.00,0.95
4914.00,0.95
4913.00,0.95
4912.00,0.95
4911.00,0.95
4910.00,0.95
4909.00,0.95
4908.00,0.95
4907.00,0.95
4906.00,0.95
4905.00,0.96
4904.00,0.96
4903.00,0.96
4902.00,0.96
4901.00,0.96
4900.00,0.96
4899.00,0.96
4898.00,0.96
4897.00,0.96
4896.00,0.96
4895.00,0.96
4894.00,0.96
4893.00,0.96
4892.00,0.97
4891.00,0.97
4890.00,0.97
4889.00,0.97
4888.00,0.97
4887.00,0.97
4886.00,0.97
4885.00,0.97
4884.00,0.97
4883.00,0.97
4882.00,0.97
4881.00,0.97
4880.00,0.97
4879.00,0.97
4878.00,0.97
4877.00,0.97
4876.00,0.97
4875.00,0.98
4874.00,0.98
4873.00,0.98
4872.00,0.98
4871.00,0.98
4870.00,0.98
4869.00,0.98
4868.00,0.98
4867.00,0.98
4866.00,0.98
4865.00,0.98
4864.00,0.98
4863.00,0.98
4862.00,0.98
4861.00,0.98
4860.00,0.99
4859.00,0.99
4858.00,0.99
4857.00,0.99
4856.00,0.99
4855.00,0.99
4854.00,0.99
4853.00,0.99
4852.00,0.99
4851.00,0.99
4850.00,0.99
4849.00,0.99
4848.00,0.99
4847.00,0.99
4846.00,0.99
4845.00,0.99
4844.00,0.99
4843.00,0.99
4842.00,1.00
4841.00,1.00
4840.00,1.00
4839.00,1.00
4838.00,1.00
4837.00,1.00
4836.00,1.00
4835.00,1.00
4834.00,1.00
4833.00,1.00
4832.00,1.00
4831.00,1.00
4830.00,1.00
4829.00,1.00
4828.00,1.00
4827.00,1.00
4826.00,1.01
4825.00,1.01
4824.00,1.01
4823.00,1.01
4822.00,1.01
4821.00,1.01
4820.00,1.01
4819.00,1.01
4818.00,1.01
4817.00,1.01
4816.00,1.02
4815.00,1.02
4814.00,1.02
4813.00,1.02
4812.00,1.02
4811.00,1.02
4810.00,1.02
4809.00,1.02
4808.00,1.02
4807.00,1.02
4806.00,1.02
4805.00,1.02
4804.00,1.02
4803.00,1.03
4802.00,1.03
4801.00,1.03
4800.00,1.03
4799.00,1.03
4798.00,1.03
4797.00,1.03
4796.00,1.03
4795.00,1.04
4794.00,1.04
4793.00,1.04
4792.00,1.04
4791.00,1.04
4790.00,1.04
4789.00,1.04
4788.00,1.04
4787.00,1.04
4786.00,1.04
4785.00,1.05
4784.00,1.05
4783.00,1.05
4782.00,1.05
4781.00,1.05
4780.00,1.05
4779.00,1.05
4778.00,1.05
4777.00,1.05
4776.00,1.05
4775.00,1.05
4774.00,1.06
4773.00,1.06
4772.00,1.06
4771.00,1.06
4770.00,1.06
4769.00,1.06
4768.00,1.06
4767.00,1.06
4766.00,1.07
4765.00,1.07
4764.00,1.07
4763.00,1.07
4762.00,1.07
4761.00,1.07
4760.00,1.07
4759.00,1.08
4758.00,1.08
4757.00,1.08
4756.00,1.08
4755.00,1.08
4754.00,1.08
4753.00,1.09
4752.00,1.09
4751.00,1.09
4750.00,1.09
4749.00,1.09
4748.00,1.09
4747.00,1.09
4746.00,1.10
4745.00,1.10
4744.00,1.10
4743.00,1.10
4742.00,1.10
4741.00,1.10
4740.00,1.11
4739.00,1.11
4738.00,1.11
4737.00,1.11
4736.00,1.11
4735.00,1.11
4734.00,1.11
4733.00,1.11
4732.00,1.12
4731.00,1.12
4730.00,1.12
4729.00,1.12
4728.00,1.12
4727.00,1.12
4726.00,1.12
4725.00,1.12
4724.00,1.13
4723.00,1.13
4722.00,1.13
4721.00,1.13
4720.00,1.13
4719.00,1.13
4718.00,1.13
4717.00,1.14
4716.00,1.14
4715.00,1.14
4714.00,1.14
4713.00,1.14
4712.00,1.14
4711.00,1.14
4710.00,1.15
4709.00,1.15
4708.00,1.15
4707.00,1.15
4706.00,1.15
4705.00,1.15
4704.00,1.16
4703.00,1.16
4702.00,1.16
4701.00,1.16
4700.00,1.16
4699.00,1.16
4698.00,1.16
4697.00,1.17
4696.00,1.17
4695.00,1.17
4694.00,1.17
4693.00,1.17
4692.00,1.17
4691.00,1.17
4690.00,1.18
4689.00,1.18
4688.00,1.18
4687.00,1.18
4686.00,1.18
4685.00,1.18
4684.00,1.18
4683.00,1.19
4682.00,1.19
4681.00,1.19
4680.00,1.19
4679.00,1.19
4678.00,1.19
4677.00,1.19
4676.00,1.20
4675.00,1.20
4674.00,1.20
4673.00,1.20
4672.00,1.20
4671.00,1.20
4670.00,1.20
4669.00,1.20
4668.00,1.20
4667.00,1.20
4666.00,1.20
4665.00,1.21
4664.00,1.21
4663.00,1.21
4662.00,1.21
4661.00,1.21
4660.00,1.21
4659.00,1.21
4658.00,1.21
4657.00,1.21
4656.00,1.22
4655.00,1.22
4654.00,1.22
4653.00,1.22
4652.00,1.22
4651.00,1.22
4650.00,1.22
4649.00,1.22
4648.00,1.23
4647.00,1.23
4646.00,1.23
4645.00,1.23
4644.00,1.23
4643.00,1.23
4642.00,1.23
4641.00,1.23
4640.00,1.23
4639.00,1.23
4638.00,1.23
4637.00,1.23
4636.00,1.23
4635.00,1.23
4634.00,1.23
4633.00,1.23
4632.00,1.23
4631.00,1.24
4630.00,1.24
4629.00,1.24
4628.00,1.24
4627.00,1.24
4626.00,1.24
4625.00,1.24
4624.00,1.24
4623.00,1.24
4622.00,1.25
4621.00,1.25
4620.00,1.25
4619.00,1.25
4618.00,1.25
4617.00,1.25
4616.00,1.26
4615.00,1.26
4614.00,1.26
4613.00,1.26
4612.00,1.26
4611.00,1.26
4610.00,1.26
4609.00,1.26
4608.00,1.26
4607.00,1.27
4606.00,1.27
4605.00,1.27
4604.00,1.27
4603.00,1.27
4602.00,1.27
4601.00,1.27
4600.00,1.27
4599.00,1.27
4598.00,1.27
4597.00,1.27
4596.00,1.27
4595.00,1.27
4594.00,1.27
4593.00,1.27
4592.00,1.27
4591.00,1.27
4590.00,1.27
4589.00,1.27
4588.00,1.27
4587.00,1.27
4586.00,1.27
4585.00,1.27
4584.00,1.27
4583.00,1.27
4582.00,1.27
4581.00,1.27
4580.00,1.27
4579.00,1.27
4578.00,1.27
4577.00,1.27
4576.00,1.28
4575.00,1.28
4574.00,1.28
4573.00,1.28
4572.00,1.28
4571.00,1.28
4570.00,1.28
4569.00,1.28
4568.00,1.29
4567.00,1.29
4566.00,1.29
4565.00,1.29
4564.00,1.29
4563.00,1.29
4562.00,1.29
4561.00,1.30
4560.00,1.30
4559.00,1.30
4558.00,1.30
4557.00,1.30
4556.00,1.30
4555.00,1.30
4554.00,1.30
4553.00,1.30
4552.00,1.31
4551.00,1.31
4550.00,1.31
4549.00,1.31
4548.00,1.31
4547.00,1.31
4546.00,1.31
4545.00,1.31
4544.00,1.31
4543.00,1.31
4542.00,1.31
4541.00,1.31
4540.00,1.31
4539.00,1.31
4538.00,1.31
4537.00,1.31
4536.00,1.31
4535.00,1.31
4534.00,1.31
4533.00,1.31
4532.00,1.31
4531.00,1.31
4530.00,1.31
4529.00,1.31
4528.00,1.31
4527.00,1.31
4526.00,1.31
4525.00,1.31
4524.00,1.31
4523.00,1.31
4522.00,1.31
4521.00,1.31
4520.00,1.31
4519.00,1.31
4518.00,1.31
4517.00,1.31
4516.00,1.31
4515.00,1.31
4514.00,1.31
4513.00,1.31
4512.00,1.31
4511.00,1.31
4510.00,1.31
4509.00,1.31
4508.00,1.31
4507.00,1.31
4506.00,1.31
4505.00,1.31
4504.00,1.31
4503.00,1.32
4502.00,1.32
4501.00,1.32
4500.00,1.32
4499.00,1.32
4498.00,1.32
4497.00,1.32
4496.00,1.32
4495.00,1.31
4494.00,1.31
4493.00,1.31
4492.00,1.31
4491.00,1.31
4490.00,1.31
4489.00,1.31
4488.00,1.31
4487.00,1.31
4486.00,1.31
4485.00,1.31
4484.00,1.30
4483.00,1.30
4482.00,1.30
4481.00,1.30
4480.00,1.30
4479.00,1.30
4478.00,1.30
4477.00,1.29
4476.00,1.29
4475.00,1.29
4474.00,1.29
4473.00,1.29
4472.00,1.28
4471.00,1.28
4470.00,1.28
4469.00,1.28
4468.00,1.28
4467.00,1.27
4466.00,1.27
4465.00,1.27
4464.00,1.27
4463.00,1.27
4462.00,1.26
4461.00,1.26
4460.00,1.26
4459.00,1.25
4458.00,1.25
4457.00,1.25
4456.00,1.24
4455.00,1.24
4454.00,1.24
4453.00,1.23
4452.00,1.23
4451.00,1.23
4450.00,1.22
4449.00,1.22
4448.00,1.21
4447.00,1.21
4446.00,1.21
4445.00,1.20
4444.00,1.20
4443.00,1.20
4442.00,1.19
4441.00,1.19
4440.00,1.18
4439.00,1.18
4438.00,1.18
4437.00,1.17
4436.00,1.17
4435.00,1.17
4434.00,1.16
4433.00,1.16
4432.00,1.16
4431.00,1.16
4430.00,1.15
4429.00,1.15
4428.00,1.15
4427.00,1.15
4426.00,1.15
4425.00,1.15
4424.00,1.15
4423.00,1.15
4422.00,1.15
4421.00,1.15
4420.00,1.15
4419.00,1.15
4418.00,1.15
4417.00,1.15
4416.00,1.15
4415.00,1.15
4414.00,1.15
4413.00,1.15
4412.00,1.15
4411.00,1.15
4410.00,1.15
4409.00,1.15
4408.00,1.15
4407.00,1.15
4406.00,1.15
4405.00,1.15
4404.00,1.15
4403.00,1.15
4402.00,1.15
4401.00,1.15
4400.00,1.15
4399.00,1.15
4398.00,1.15
4397.00,1.16
4396.00,1.16
4395.00,1.16
4394.00,1.16
4393.00,1.16
4392.00,1.16
4391.00,1.16
4390.00,1.17
4389.00,1.17
4388.00,1.17
4387.00,1.17
4386.00,1.17
4385.00,1.17
4384.00,1.17
4383.00,1.17
4382.00,1.18
4381.00,1.18
4380.00,1.18
4379.00,1.18
4378.00,1.18
4377.00,1.18
4376.00,1.18
4375.00,1.18
4374.00,1.18
4373.00,1.19
4372.00,1.19
4371.00,1.19
4370.00,1.19
4369.00,1.19
4368.00,1.19
4367.00,1.19
4366.00,1.19
4365.00,1.19
4364.00,1.19
4363.00,1.19
4362.00,1.19
4361.00,1.19
4360.00,1.19
4359.00,1.19
4358.00,1.18
4357.00,1.18
4356.00,1.18
4355.00,1.18
4354.00,1.18
4353.00,1.18
4352.00,1.18
4351.00,1.18
4350.00,1.18
4349.00,1.18
4348.00,1.18
4347.00,1.18
4346.00,1.18
4345.00,1.18
4344.00,1.18
4343.00,1.18
4342.00,1.18
4341.00,1.18
4340.00,1.18
4339.00,1.18
4338.00,1.18
4337.00,1.19
4336.00,1.19
4335.00,1.19
4334.00,1.19
4333.00,1.19
4332.00,1.19
4331.00,1.20
4330.00,1.20
4329.00,1.20
4328.00,1.20
4327.00,1.20
4326.00,1.20
4325.00,1.20
4324.00,1.20
4323.00,1.20
4322.00,1.21
4321.00,1.21
4320.00,1.21
4319.00,1.21
4318.00,1.21
4317.00,1.21
4316.00,1.21
4315.00,1.21
4314.00,1.21
4313.00,1.21
4312.00,1.22
4311.00,1.22
4310.00,1.22
4309.00,1.22
4308.00,1.22
4307.00,1.22
4306.00,1.23
4305.00,1.23
4304.00,1.23
4303.00,1.23
4302.00,1.23
4301.00,1.23
4300.00,1.24
4299.00,1.24
4298.00,1.24
4297.00,1.24
4296.00,1.24
4295.00,1.24
4294.00,1.25
4293.00,1.25
4292.00,1.25
4291.00,1.25
4290.00,1.25
4289.00,1.25
4288.00,1.25
4287.00,1.25
4286.00,1.25
4285.00,1.25
4284.00,1.25
4283.00,1.25
4282.00,1.25
4281.00,1.26
4280.00,1.26
4279.00,1.26
4278.00,1.26
4277.00,1.26
4276.00,1.26
4275.00,1.26
4274.00,1.26
4273.00,1.26
4272.00,1.26
4271.00,1.26
4270.00,1.26
4269.00,1.26
4268.00,1.26
4267.00,1.26
4266.00,1.26
4265.00,1.26
4264.00,1.26
4263.00,1.25
4262.00,1.25
4261.00,1.25
4260.00,1.25
4259.00,1.25
4258.00,1.25
4257.00,1.25
4256.00,1.25
4255.00,1.25
4254.00,1.25
4253.00,1.25
4252.00,1.25
4251.00,1.26
4250.00,1.26
4249.00,1.26
4248.00,1.26
4247.00,1.26
4246.00,1.26
4245.00,1.26
4244.00,1.26
4243.00,1.26
4242.00,1.27
4241.00,1.27
4240.00,1.27
4239.00,1.27
4238.00,1.27
4237.00,1.27
4236.00,1.27
4235.00,1.28
4234.00,1.28
4233.00,1.28
4232.00,1.28
4231.00,1.28
4230.00,1.28
4229.00,1.28
4228.00,1.28
4227.00,1.29
4226.00,1.29
4225.00,1.29
4224.00,1.29
4223.00,1.29
4222.00,1.29
4221.00,1.29
4220.00,1.29
4219.00,1.29
4218.00,1.29
4217.00,1.29
4216.00,1.29
4215.00,1.29
4214.00,1.29
4213.00,1.29
4212.00,1.29
4211.00,1.29
4210.00,1.29
4209.00,1.29
4208.00,1.29
4207.00,1.29
4206.00,1.29
4205.00,1.29
4204.00,1.29
4203.00,1.29
4202.00,1.29
4201.00,1.29
4200.00,1.29
4199.00,1.29
4198.00,1.30
4197.00,1.30
4196.00,1.30
4195.00,1.30
4194.00,1.30
4193.00,1.30
4192.00,1.30
4191.00,1.30
4190.00,1.30
4189.00,1.30
4188.00,1.30
4187.00,1.30
4186.00,1.30
4185.00,1.30
4184.00,1.30
4183.00,1.30
4182.00,1.30
4181.00,1.31
4180.00,1.31
4179.00,1.31
4178.00,1.31
4177.00,1.31
4176.00,1.31
4175.00,1.31
4174.00,1.31
4173.00,1.31
4172.00,1.31
4171.00,1.31
4170.00,1.31
4169.00,1.31
4168.00,1.31
4167.00,1.31
4166.00,1.31
4165.00,1.31
4164.00,1.31
4163.00,1.31
4162.00,1.31
4161.00,1.31
4160.00,1.31
4159.00,1.31
4158.00,1.31
4157.00,1.31
4156.00,1.31
4155.00,1.31
4154.00,1.31
4153.00,1.31
4152.00,1.31
4151.00,1.31
4150.00,1.31
4149.00,1.31
4148.00,1.31
4147.00,1.31
4146.00,1.31
4145.00,1.32
4144.00,1.32
4143.00,1.32
4142.00,1.32
4141.00,1.32
4140.00,1.32
4139.00,1.32
4138.00,1.32
4137.00,1.32
4136.00,1.32
4135.00,1.32
4134.00,1.32
4133.00,1.32
4132.00,1.32
4131.00,1.32
4130.00,1.32
4129.00,1.32
4128.00,1.32
4127.00,1.32
4126.00,1.32
4125.00,1.32
4124.00,1.32
4123.00,1.32
4122.00,1.32
4121.00,1.33
4120.00,1.33
4119.00,1.33
4118.00,1.33
4117.00,1.33
4116.00,1.33
4115.00,1.33
4114.00,1.33
4113.00,1.33
4112.00,1.34
4111.00,1.34
4110.00,1.34
4109.00,1.34
4108.00,1.34
4107.00,1.34
4106.00,1.34
4105.00,1.34
4104.00,1.35
4103.00,1.35
4102.00,1.35
4101.00,1.35
4100.00,1.35
4099.00,1.35
4098.00,1.35
4097.00,1.35
4096.00,1.35
4095.00,1.35
4094.00,1.35
4093.00,1.35
4092.00,1.34
4091.00,1.34
4090.00,1.34
4089.00,1.34
4088.00,1.34
4087.00,1.34
4086.00,1.34
4085.00,1.34
4084.00,1.34
4083.00,1.34
4082.00,1.34
4081.00,1.34
4080.00,1.34
4079.00,1.34
4078.00,1.34
4077.00,1.35
4076.00,1.35
4075.00,1.35
4074.00,1.35
4073.00,1.35
4072.00,1.35
4071.00,1.35
4070.00,1.35
4069.00,1.35
4068.00,1.35
4067.00,1.35
4066.00,1.36
4065.00,1.36
4064.00,1.36
4063.00,1.36
4062.00,1.36
4061.00,1.36
4060.00,1.36
4059.00,1.36
4058.00,1.36
4057.00,1.36
4056.00,1.36
4055.00,1.36
4054.00,1.36
4053.00,1.36
4052.00,1.36
4051.00,1.36
4050.00,1.36
4049.00,1.36
4048.00,1.36
4047.00,1.36
4046.00,1.37
4045.00,1.37
4044.00,1.37
4043.00,1.37
4042.00,1.37
4041.00,1.37
4040.00,1.38
4039.00,1.38
4038.00,1.38
4037.00,1.38
4036.00,1.38
4035.00,1.38
4034.00,1.38
4033.00,1.39
4032.00,1.39
4031.00,1.39
4030.00,1.39
4029.00,1.39
4028.00,1.39
4027.00,1.39
4026.00,1.39
4025.00,1.39
4024.00,1.39
4023.00,1.39
4022.00,1.39
4021.00,1.39
4020.00,1.39
4019.00,1.39
4018.00,1.39
4017.00,1.39
4016.00,1.39
4015.00,1.39
4014.00,1.39
4013.00,1.39
4012.00,1.39
4011.00,1.39
4010.00,1.39
4009.00,1.39
4008.00,1.39
4007.00,1.39
4006.00,1.39
4005.00,1.39
4004.00,1.40
4003.00,1.40
4002.00,1.40
4001.00,1.40
4000.00,1.40
