创建为新数据集,样品 607 用户 Administrator 日期 星期一, 七月 16 2018
cm-1,%T
10000.00,1.34
9999.00,1.34
9998.00,1.34
9997.00,1.34
9996.00,1.34
9995.00,1.34
9994.00,1.34
9993.00,1.34
9992.00,1.34
9991.00,1.34
9990.00,1.34
9989.00,1.34
9988.00,1.33
9987.00,1.33
9986.00,1.33
9985.00,1.33
9984.00,1.33
9983.00,1.33
9982.00,1.33
9981.00,1.33
9980.00,1.33
9979.00,1.33
9978.00,1.32
9977.00,1.32
9976.00,1.32
9975.00,1.32
9974.00,1.32
9973.00,1.32
9972.00,1.32
9971.00,1.32
9970.00,1.32
9969.00,1.32
9968.00,1.32
9967.00,1.33
9966.00,1.33
9965.00,1.33
9964.00,1.33
9963.00,1.33
9962.00,1.33
9961.00,1.33
9960.00,1.33
9959.00,1.33
9958.00,1.33
9957.00,1.33
9956.00,1.33
9955.00,1.33
9954.00,1.32
9953.00,1.32
9952.00,1.32
9951.00,1.32
9950.00,1.32
9949.00,1.32
9948.00,1.32
9947.00,1.32
9946.00,1.32
9945.00,1.33
9944.00,1.33
9943.00,1.33
9942.00,1.33
9941.00,1.33
9940.00,1.33
9939.00,1.33
9938.00,1.33
9937.00,1.33
9936.00,1.34
9935.00,1.34
9934.00,1.34
9933.00,1.34
9932.00,1.33
9931.00,1.33
9930.00,1.33
9929.00,1.33
9928.00,1.33
9927.00,1.33
9926.00,1.33
9925.00,1.32
9924.00,1.32
9923.00,1.32
9922.00,1.32
9921.00,1.32
9920.00,1.31
9919.00,1.31
9918.00,1.31
9917.00,1.31
9916.00,1.31
9915.00,1.31
9914.00,1.31
9913.00,1.31
9912.00,1.31
9911.00,1.31
9910.00,1.31
9909.00,1.31
9908.00,1.31
9907.00,1.31
9906.00,1.31
9905.00,1.31
9904.00,1.31
9903.00,1.32
9902.00,1.32
9901.00,1.32
9900.00,1.32
9899.00,1.32
9898.00,1.32
9897.00,1.32
9896.00,1.32
9895.00,1.32
9894.00,1.32
9893.00,1.32
9892.00,1.32
9891.00,1.32
9890.00,1.32
9889.00,1.32
9888.00,1.32
9887.00,1.31
9886.00,1.31
9885.00,1.31
9884.00,1.31
9883.00,1.31
9882.00,1.31
9881.00,1.31
9880.00,1.31
9879.00,1.31
9878.00,1.31
9877.00,1.31
9876.00,1.31
9875.00,1.31
9874.00,1.31
9873.00,1.31
9872.00,1.31
9871.00,1.31
9870.00,1.31
9869.00,1.31
9868.00,1.30
9867.00,1.30
9866.00,1.30
9865.00,1.30
9864.00,1.30
9863.00,1.30
9862.00,1.30
9861.00,1.31
9860.00,1.31
9859.00,1.31
9858.00,1.31
9857.00,1.31
9856.00,1.32
9855.00,1.32
9854.00,1.32
9853.00,1.32
9852.00,1.33
9851.00,1.33
9850.00,1.33
9849.00,1.33
9848.00,1.33
9847.00,1.33
9846.00,1.34
9845.00,1.34
9844.00,1.34
9843.00,1.33
9842.00,1.33
9841.00,1.33
9840.00,1.33
9839.00,1.33
9838.00,1.33
9837.00,1.33
9836.00,1.32
9835.00,1.32
9834.00,1.32
9833.00,1.32
9832.00,1.31
9831.00,1.31
9830.00,1.31
9829.00,1.31
9828.00,1.30
9827.00,1.30
9826.00,1.30
9825.00,1.30
9824.00,1.30
9823.00,1.30
9822.00,1.30
9821.00,1.29
9820.00,1.29
9819.00,1.29
9818.00,1.29
9817.00,1.29
9816.00,1.29
9815.00,1.29
9814.00,1.29
9813.00,1.28
9812.00,1.28
9811.00,1.28
9810.00,1.28
9809.00,1.28
9808.00,1.27
9807.00,1.27
9806.00,1.27
9805.00,1.27
9804.00,1.27
9803.00,1.27
9802.00,1.27
9801.00,1.27
9800.00,1.27
9799.00,1.27
9798.00,1.27
9797.00,1.28
9796.00,1.28
9795.00,1.28
9794.00,1.29
9793.00,1.29
9792.00,1.30
9791.00,1.30
9790.00,1.30
9789.00,1.31
9788.00,1.31
9787.00,1.31
9786.00,1.32
9785.00,1.32
9784.00,1.32
9783.00,1.32
9782.00,1.32
9781.00,1.32
9780.00,1.32
9779.00,1.32
9778.00,1.32
9777.00,1.32
9776.00,1.32
9775.00,1.32
9774.00,1.32
9773.00,1.31
9772.00,1.31
9771.00,1.31
9770.00,1.31
9769.00,1.31
9768.00,1.31
9767.00,1.31
9766.00,1.31
9765.00,1.31
9764.00,1.31
9763.00,1.31
9762.00,1.31
9761.00,1.31
9760.00,1.31
9759.00,1.32
9758.00,1.32
9757.00,1.32
9756.00,1.32
9755.00,1.32
9754.00,1.32
9753.00,1.32
9752.00,1.32
9751.00,1.32
9750.00,1.32
9749.00,1.32
9748.00,1.32
9747.00,1.32
9746.00,1.32
9745.00,1.32
9744.00,1.32
9743.00,1.32
9742.00,1.32
9741.00,1.32
9740.00,1.32
9739.00,1.32
9738.00,1.32
9737.00,1.32
9736.00,1.31
9735.00,1.31
9734.00,1.31
9733.00,1.31
9732.00,1.30
9731.00,1.30
9730.00,1.30
9729.00,1.30
9728.00,1.30
9727.00,1.29
9726.00,1.29
9725.00,1.29
9724.00,1.29
9723.00,1.29
9722.00,1.29
9721.00,1.29
9720.00,1.29
9719.00,1.29
9718.00,1.29
9717.00,1.29
9716.00,1.29
9715.00,1.30
9714.00,1.30
9713.00,1.30
9712.00,1.30
9711.00,1.30
9710.00,1.30
9709.00,1.30
9708.00,1.30
9707.00,1.31
9706.00,1.31
9705.00,1.31
9704.00,1.31
9703.00,1.31
9702.00,1.31
9701.00,1.32
9700.00,1.32
9699.00,1.32
9698.00,1.32
9697.00,1.32
9696.00,1.32
9695.00,1.32
9694.00,1.33
9693.00,1.33
9692.00,1.33
9691.00,1.33
9690.00,1.33
9689.00,1.33
9688.00,1.33
9687.00,1.33
9686.00,1.33
9685.00,1.33
9684.00,1.33
9683.00,1.33
9682.00,1.33
9681.00,1.33
9680.00,1.33
9679.00,1.33
9678.00,1.33
9677.00,1.33
9676.00,1.33
9675.00,1.33
9674.00,1.33
9673.00,1.34
9672.00,1.34
9671.00,1.34
9670.00,1.34
9669.00,1.34
9668.00,1.34
9667.00,1.34
9666.00,1.34
9665.00,1.33
9664.00,1.33
9663.00,1.33
9662.00,1.33
9661.00,1.33
9660.00,1.33
9659.00,1.33
9658.00,1.33
9657.00,1.32
9656.00,1.32
9655.00,1.32
9654.00,1.32
9653.00,1.32
9652.00,1.32
9651.00,1.32
9650.00,1.32
9649.00,1.32
9648.00,1.32
9647.00,1.32
9646.00,1.32
9645.00,1.32
9644.00,1.32
9643.00,1.32
9642.00,1.32
9641.00,1.32
9640.00,1.32
9639.00,1.32
9638.00,1.32
9637.00,1.32
9636.00,1.32
9635.00,1.32
9634.00,1.32
9633.00,1.32
9632.00,1.32
9631.00,1.32
9630.00,1.32
9629.00,1.32
9628.00,1.32
9627.00,1.32
9626.00,1.32
9625.00,1.32
9624.00,1.32
9623.00,1.32
9622.00,1.32
9621.00,1.32
9620.00,1.32
9619.00,1.32
9618.00,1.32
9617.00,1.32
9616.00,1.32
9615.00,1.31
9614.00,1.31
9613.00,1.31
9612.00,1.31
9611.00,1.31
9610.00,1.31
9609.00,1.31
9608.00,1.31
9607.00,1.32
9606.00,1.32
9605.00,1.32
9604.00,1.32
9603.00,1.32
9602.00,1.32
9601.00,1.32
9600.00,1.33
9599.00,1.33
9598.00,1.33
9597.00,1.33
9596.00,1.33
9595.00,1.33
9594.00,1.33
9593.00,1.33
9592.00,1.33
9591.00,1.33
9590.00,1.33
9589.00,1.33
9588.00,1.33
9587.00,1.33
9586.00,1.33
9585.00,1.33
9584.00,1.33
9583.00,1.33
9582.00,1.33
9581.00,1.33
9580.00,1.33
9579.00,1.33
9578.00,1.33
9577.00,1.33
9576.00,1.33
9575.00,1.33
9574.00,1.33
9573.00,1.33
9572.00,1.33
9571.00,1.33
9570.00,1.33
9569.00,1.33
9568.00,1.33
9567.00,1.33
9566.00,1.33
9565.00,1.33
9564.00,1.33
9563.00,1.33
9562.00,1.33
9561.00,1.33
9560.00,1.33
9559.00,1.33
9558.00,1.33
9557.00,1.32
9556.00,1.32
9555.00,1.32
9554.00,1.32
9553.00,1.32
9552.00,1.32
9551.00,1.32
9550.00,1.32
9549.00,1.32
9548.00,1.32
9547.00,1.32
9546.00,1.32
9545.00,1.32
9544.00,1.32
9543.00,1.32
9542.00,1.32
9541.00,1.31
9540.00,1.31
9539.00,1.31
9538.00,1.31
9537.00,1.31
9536.00,1.31
9535.00,1.31
9534.00,1.31
9533.00,1.31
9532.00,1.31
9531.00,1.31
9530.00,1.31
9529.00,1.31
9528.00,1.31
9527.00,1.31
9526.00,1.31
9525.00,1.31
9524.00,1.31
9523.00,1.31
9522.00,1.31
9521.00,1.31
9520.00,1.31
9519.00,1.31
9518.00,1.31
9517.00,1.31
9516.00,1.31
9515.00,1.31
9514.00,1.31
9513.00,1.31
9512.00,1.31
9511.00,1.31
9510.00,1.32
9509.00,1.32
9508.00,1.32
9507.00,1.32
9506.00,1.32
9505.00,1.32
9504.00,1.32
9503.00,1.32
9502.00,1.32
9501.00,1.32
9500.00,1.32
9499.00,1.32
9498.00,1.32
9497.00,1.32
9496.00,1.32
9495.00,1.32
9494.00,1.32
9493.00,1.32
9492.00,1.32
9491.00,1.32
9490.00,1.31
9489.00,1.31
9488.00,1.31
9487.00,1.31
9486.00,1.31
9485.00,1.31
9484.00,1.31
9483.00,1.31
9482.00,1.31
9481.00,1.31
9480.00,1.31
9479.00,1.31
9478.00,1.31
9477.00,1.31
9476.00,1.31
9475.00,1.31
9474.00,1.31
9473.00,1.31
9472.00,1.31
9471.00,1.31
9470.00,1.31
9469.00,1.31
9468.00,1.31
9467.00,1.31
9466.00,1.31
9465.00,1.31
9464.00,1.31
9463.00,1.31
9462.00,1.31
9461.00,1.31
9460.00,1.31
9459.00,1.31
9458.00,1.31
9457.00,1.31
9456.00,1.31
9455.00,1.31
9454.00,1.31
9453.00,1.31
9452.00,1.31
9451.00,1.31
9450.00,1.31
9449.00,1.31
9448.00,1.31
9447.00,1.31
9446.00,1.32
9445.00,1.32
9444.00,1.32
9443.00,1.32
9442.00,1.32
9441.00,1.32
9440.00,1.33
9439.00,1.33
9438.00,1.33
9437.00,1.33
9436.00,1.33
9435.00,1.33
9434.00,1.33
9433.00,1.34
9432.00,1.34
9431.00,1.34
9430.00,1.34
9429.00,1.34
9428.00,1.33
9427.00,1.33
9426.00,1.33
9425.00,1.33
9424.00,1.33
9423.00,1.33
9422.00,1.33
9421.00,1.33
9420.00,1.33
9419.00,1.33
9418.00,1.33
9417.00,1.33
9416.00,1.33
9415.00,1.33
9414.00,1.33
9413.00,1.33
9412.00,1.33
9411.00,1.33
9410.00,1.33
9409.00,1.33
9408.00,1.33
9407.00,1.33
9406.00,1.33
9405.00,1.33
9404.00,1.33
9403.00,1.33
9402.00,1.33
9401.00,1.33
9400.00,1.33
9399.00,1.33
9398.00,1.33
9397.00,1.33
9396.00,1.33
9395.00,1.32
9394.00,1.32
9393.00,1.32
9392.00,1.32
9391.00,1.32
9390.00,1.32
9389.00,1.32
9388.00,1.32
9387.00,1.31
9386.00,1.31
9385.00,1.31
9384.00,1.31
9383.00,1.31
9382.00,1.31
9381.00,1.30
9380.00,1.30
9379.00,1.30
9378.00,1.30
9377.00,1.30
9376.00,1.30
9375.00,1.30
9374.00,1.30
9373.00,1.30
9372.00,1.30
9371.00,1.30
9370.00,1.30
9369.00,1.30
9368.00,1.30
9367.00,1.30
9366.00,1.30
9365.00,1.30
9364.00,1.30
9363.00,1.30
9362.00,1.30
9361.00,1.30
9360.00,1.30
9359.00,1.30
9358.00,1.30
9357.00,1.30
9356.00,1.30
9355.00,1.30
9354.00,1.30
9353.00,1.30
9352.00,1.30
9351.00,1.30
9350.00,1.30
9349.00,1.30
9348.00,1.30
9347.00,1.30
9346.00,1.30
9345.00,1.30
9344.00,1.30
9343.00,1.30
9342.00,1.31
9341.00,1.31
9340.00,1.31
9339.00,1.31
9338.00,1.31
9337.00,1.31
9336.00,1.32
9335.00,1.32
9334.00,1.32
9333.00,1.32
9332.00,1.32
9331.00,1.32
9330.00,1.33
9329.00,1.33
9328.00,1.33
9327.00,1.33
9326.00,1.33
9325.00,1.33
9324.00,1.33
9323.00,1.33
9322.00,1.33
9321.00,1.33
9320.00,1.33
9319.00,1.33
9318.00,1.33
9317.00,1.33
9316.00,1.33
9315.00,1.33
9314.00,1.33
9313.00,1.33
9312.00,1.32
9311.00,1.32
9310.00,1.32
9309.00,1.32
9308.00,1.32
9307.00,1.32
9306.00,1.32
9305.00,1.32
9304.00,1.32
9303.00,1.32
9302.00,1.32
9301.00,1.32
9300.00,1.32
9299.00,1.32
9298.00,1.32
9297.00,1.32
9296.00,1.32
9295.00,1.32
9294.00,1.32
9293.00,1.32
9292.00,1.32
9291.00,1.32
9290.00,1.32
9289.00,1.32
9288.00,1.32
9287.00,1.32
9286.00,1.32
9285.00,1.32
9284.00,1.32
9283.00,1.32
9282.00,1.32
9281.00,1.32
9280.00,1.32
9279.00,1.32
9278.00,1.32
9277.00,1.32
9276.00,1.32
9275.00,1.32
9274.00,1.32
9273.00,1.32
9272.00,1.32
9271.00,1.32
9270.00,1.32
9269.00,1.32
9268.00,1.32
9267.00,1.32
9266.00,1.32
9265.00,1.32
9264.00,1.32
9263.00,1.32
9262.00,1.32
9261.00,1.32
9260.00,1.32
9259.00,1.32
9258.00,1.32
9257.00,1.32
9256.00,1.32
9255.00,1.32
9254.00,1.32
9253.00,1.32
9252.00,1.32
9251.00,1.33
9250.00,1.33
9249.00,1.33
9248.00,1.33
9247.00,1.33
9246.00,1.33
9245.00,1.33
9244.00,1.33
9243.00,1.33
9242.00,1.33
9241.00,1.33
9240.00,1.33
9239.00,1.33
9238.00,1.33
9237.00,1.33
9236.00,1.33
9235.00,1.33
9234.00,1.33
9233.00,1.33
9232.00,1.33
9231.00,1.33
9230.00,1.33
9229.00,1.33
9228.00,1.32
9227.00,1.32
9226.00,1.32
9225.00,1.32
9224.00,1.32
9223.00,1.32
9222.00,1.32
9221.00,1.32
9220.00,1.32
9219.00,1.32
9218.00,1.32
9217.00,1.32
9216.00,1.32
9215.00,1.32
9214.00,1.32
9213.00,1.32
9212.00,1.32
9211.00,1.32
9210.00,1.32
9209.00,1.32
9208.00,1.32
9207.00,1.32
9206.00,1.32
9205.00,1.32
9204.00,1.32
9203.00,1.32
9202.00,1.32
9201.00,1.32
9200.00,1.32
9199.00,1.32
9198.00,1.32
9197.00,1.32
9196.00,1.32
9195.00,1.32
9194.00,1.32
9193.00,1.32
9192.00,1.32
9191.00,1.32
9190.00,1.32
9189.00,1.32
9188.00,1.32
9187.00,1.32
9186.00,1.32
9185.00,1.32
9184.00,1.32
9183.00,1.32
9182.00,1.32
9181.00,1.32
9180.00,1.32
9179.00,1.32
9178.00,1.32
9177.00,1.32
9176.00,1.32
9175.00,1.32
9174.00,1.32
9173.00,1.32
9172.00,1.32
9171.00,1.32
9170.00,1.32
9169.00,1.32
9168.00,1.32
9167.00,1.32
9166.00,1.32
9165.00,1.32
9164.00,1.32
9163.00,1.32
9162.00,1.32
9161.00,1.32
9160.00,1.32
9159.00,1.32
9158.00,1.32
9157.00,1.32
9156.00,1.33
9155.00,1.33
9154.00,1.33
9153.00,1.33
9152.00,1.33
9151.00,1.33
9150.00,1.33
9149.00,1.33
9148.00,1.33
9147.00,1.33
9146.00,1.33
9145.00,1.33
9144.00,1.33
9143.00,1.33
9142.00,1.33
9141.00,1.33
9140.00,1.33
9139.00,1.33
9138.00,1.33
9137.00,1.33
9136.00,1.33
9135.00,1.33
9134.00,1.32
9133.00,1.32
9132.00,1.32
9131.00,1.32
9130.00,1.32
9129.00,1.32
9128.00,1.32
9127.00,1.32
9126.00,1.32
9125.00,1.32
9124.00,1.32
9123.00,1.32
9122.00,1.32
9121.00,1.32
9120.00,1.32
9119.00,1.32
9118.00,1.32
9117.00,1.32
9116.00,1.32
9115.00,1.32
9114.00,1.32
9113.00,1.32
9112.00,1.32
9111.00,1.32
9110.00,1.32
9109.00,1.32
9108.00,1.32
9107.00,1.32
9106.00,1.32
9105.00,1.32
9104.00,1.32
9103.00,1.32
9102.00,1.32
9101.00,1.31
9100.00,1.31
9099.00,1.31
9098.00,1.31
9097.00,1.31
9096.00,1.31
9095.00,1.31
9094.00,1.31
9093.00,1.31
9092.00,1.31
9091.00,1.32
9090.00,1.32
9089.00,1.32
9088.00,1.32
9087.00,1.32
9086.00,1.32
9085.00,1.32
9084.00,1.33
9083.00,1.33
9082.00,1.33
9081.00,1.33
9080.00,1.33
9079.00,1.33
9078.00,1.33
9077.00,1.33
9076.00,1.34
9075.00,1.34
9074.00,1.34
9073.00,1.34
9072.00,1.33
9071.00,1.33
9070.00,1.33
9069.00,1.33
9068.00,1.33
9067.00,1.33
9066.00,1.32
9065.00,1.32
9064.00,1.32
9063.00,1.32
9062.00,1.32
9061.00,1.31
9060.00,1.31
9059.00,1.31
9058.00,1.31
9057.00,1.31
9056.00,1.31
9055.00,1.30
9054.00,1.30
9053.00,1.30
9052.00,1.30
9051.00,1.30
9050.00,1.31
9049.00,1.31
9048.00,1.31
9047.00,1.31
9046.00,1.31
9045.00,1.31
9044.00,1.31
9043.00,1.31
9042.00,1.31
9041.00,1.32
9040.00,1.32
9039.00,1.32
9038.00,1.32
9037.00,1.32
9036.00,1.32
9035.00,1.32
9034.00,1.32
9033.00,1.32
9032.00,1.32
9031.00,1.32
9030.00,1.33
9029.00,1.33
9028.00,1.33
9027.00,1.33
9026.00,1.33
9025.00,1.33
9024.00,1.33
9023.00,1.33
9022.00,1.33
9021.00,1.33
9020.00,1.33
9019.00,1.33
9018.00,1.33
9017.00,1.33
9016.00,1.33
9015.00,1.33
9014.00,1.33
9013.00,1.33
9012.00,1.33
9011.00,1.33
9010.00,1.33
9009.00,1.33
9008.00,1.33
9007.00,1.33
9006.00,1.33
9005.00,1.33
9004.00,1.33
9003.00,1.33
9002.00,1.33
9001.00,1.33
9000.00,1.33
8999.00,1.33
8998.00,1.33
8997.00,1.33
8996.00,1.33
8995.00,1.33
8994.00,1.33
8993.00,1.33
8992.00,1.33
8991.00,1.33
8990.00,1.33
8989.00,1.33
8988.00,1.33
8987.00,1.33
8986.00,1.33
8985.00,1.34
8984.00,1.34
8983.00,1.34
8982.00,1.34
8981.00,1.34
8980.00,1.33
8979.00,1.33
8978.00,1.33
8977.00,1.33
8976.00,1.33
8975.00,1.33
8974.00,1.33
8973.00,1.33
8972.00,1.33
8971.00,1.33
8970.00,1.33
8969.00,1.33
8968.00,1.33
8967.00,1.33
8966.00,1.33
8965.00,1.33
8964.00,1.33
8963.00,1.33
8962.00,1.33
8961.00,1.33
8960.00,1.33
8959.00,1.33
8958.00,1.33
8957.00,1.33
8956.00,1.33
8955.00,1.33
8954.00,1.33
8953.00,1.33
8952.00,1.33
8951.00,1.33
8950.00,1.33
8949.00,1.33
8948.00,1.33
8947.00,1.33
8946.00,1.33
8945.00,1.33
8944.00,1.33
8943.00,1.32
8942.00,1.32
8941.00,1.32
8940.00,1.32
8939.00,1.32
8938.00,1.32
8937.00,1.32
8936.00,1.32
8935.00,1.32
8934.00,1.32
8933.00,1.32
8932.00,1.32
8931.00,1.32
8930.00,1.32
8929.00,1.32
8928.00,1.32
8927.00,1.32
8926.00,1.32
8925.00,1.33
8924.00,1.33
8923.00,1.33
8922.00,1.33
8921.00,1.33
8920.00,1.33
8919.00,1.33
8918.00,1.33
8917.00,1.33
8916.00,1.33
8915.00,1.33
8914.00,1.33
8913.00,1.33
8912.00,1.33
8911.00,1.33
8910.00,1.33
8909.00,1.33
8908.00,1.33
8907.00,1.33
8906.00,1.33
8905.00,1.33
8904.00,1.33
8903.00,1.33
8902.00,1.33
8901.00,1.33
8900.00,1.33
8899.00,1.33
8898.00,1.33
8897.00,1.33
8896.00,1.33
8895.00,1.33
8894.00,1.33
8893.00,1.33
8892.00,1.33
8891.00,1.33
8890.00,1.33
8889.00,1.33
8888.00,1.33
8887.00,1.33
8886.00,1.33
8885.00,1.33
8884.00,1.33
8883.00,1.33
8882.00,1.33
8881.00,1.33
8880.00,1.33
8879.00,1.33
8878.00,1.33
8877.00,1.33
8876.00,1.33
8875.00,1.33
8874.00,1.33
8873.00,1.33
8872.00,1.33
8871.00,1.33
8870.00,1.33
8869.00,1.33
8868.00,1.33
8867.00,1.33
8866.00,1.33
8865.00,1.33
8864.00,1.33
8863.00,1.33
8862.00,1.33
8861.00,1.33
8860.00,1.33
8859.00,1.33
8858.00,1.32
8857.00,1.32
8856.00,1.32
8855.00,1.32
8854.00,1.32
8853.00,1.32
8852.00,1.32
8851.00,1.31
8850.00,1.31
8849.00,1.31
8848.00,1.31
8847.00,1.31
8846.00,1.31
8845.00,1.31
8844.00,1.31
8843.00,1.31
8842.00,1.31
8841.00,1.31
8840.00,1.31
8839.00,1.32
8838.00,1.32
8837.00,1.32
8836.00,1.32
8835.00,1.32
8834.00,1.32
8833.00,1.32
8832.00,1.32
8831.00,1.32
8830.00,1.32
8829.00,1.32
8828.00,1.32
8827.00,1.32
8826.00,1.32
8825.00,1.32
8824.00,1.32
8823.00,1.32
8822.00,1.31
8821.00,1.31
8820.00,1.31
8819.00,1.31
8818.00,1.31
8817.00,1.30
8816.00,1.30
8815.00,1.30
8814.00,1.30
8813.00,1.29
8812.00,1.29
8811.00,1.29
8810.00,1.29
8809.00,1.29
8808.00,1.29
8807.00,1.29
8806.00,1.29
8805.00,1.29
8804.00,1.29
8803.00,1.28
8802.00,1.28
8801.00,1.29
8800.00,1.29
8799.00,1.29
8798.00,1.29
8797.00,1.29
8796.00,1.29
8795.00,1.29
8794.00,1.29
8793.00,1.29
8792.00,1.29
8791.00,1.29
8790.00,1.29
8789.00,1.30
8788.00,1.30
8787.00,1.30
8786.00,1.30
8785.00,1.30
8784.00,1.30
8783.00,1.30
8782.00,1.30
8781.00,1.30
8780.00,1.29
8779.00,1.29
8778.00,1.29
8777.00,1.29
8776.00,1.29
8775.00,1.29
8774.00,1.29
8773.00,1.28
8772.00,1.28
8771.00,1.28
8770.00,1.28
8769.00,1.28
8768.00,1.28
8767.00,1.28
8766.00,1.28
8765.00,1.28
8764.00,1.29
8763.00,1.29
8762.00,1.29
8761.00,1.29
8760.00,1.29
8759.00,1.29
8758.00,1.29
8757.00,1.30
8756.00,1.30
8755.00,1.30
8754.00,1.30
8753.00,1.30
8752.00,1.30
8751.00,1.30
8750.00,1.30
8749.00,1.30
8748.00,1.30
8747.00,1.29
8746.00,1.29
8745.00,1.29
8744.00,1.29
8743.00,1.29
8742.00,1.28
8741.00,1.28
8740.00,1.28
8739.00,1.28
8738.00,1.28
8737.00,1.28
8736.00,1.28
8735.00,1.28
8734.00,1.27
8733.00,1.28
8732.00,1.28
8731.00,1.28
8730.00,1.28
8729.00,1.28
8728.00,1.28
8727.00,1.28
8726.00,1.28
8725.00,1.29
8724.00,1.29
8723.00,1.29
8722.00,1.29
8721.00,1.29
8720.00,1.29
8719.00,1.29
8718.00,1.29
8717.00,1.29
8716.00,1.29
8715.00,1.29
8714.00,1.29
8713.00,1.29
8712.00,1.29
8711.00,1.29
8710.00,1.29
8709.00,1.28
8708.00,1.28
8707.00,1.28
8706.00,1.28
8705.00,1.28
8704.00,1.28
8703.00,1.27
8702.00,1.27
8701.00,1.27
8700.00,1.27
8699.00,1.27
8698.00,1.27
8697.00,1.27
8696.00,1.27
8695.00,1.27
8694.00,1.27
8693.00,1.27
8692.00,1.27
8691.00,1.27
8690.00,1.27
8689.00,1.27
8688.00,1.27
8687.00,1.27
8686.00,1.27
8685.00,1.27
8684.00,1.27
8683.00,1.27
8682.00,1.27
8681.00,1.27
8680.00,1.27
8679.00,1.27
8678.00,1.27
8677.00,1.27
8676.00,1.27
8675.00,1.27
8674.00,1.27
8673.00,1.27
8672.00,1.27
8671.00,1.27
8670.00,1.27
8669.00,1.27
8668.00,1.27
8667.00,1.27
8666.00,1.27
8665.00,1.27
8664.00,1.27
8663.00,1.27
8662.00,1.27
8661.00,1.27
8660.00,1.27
8659.00,1.27
8658.00,1.27
8657.00,1.27
8656.00,1.27
8655.00,1.27
8654.00,1.27
8653.00,1.27
8652.00,1.27
8651.00,1.27
8650.00,1.27
8649.00,1.27
8648.00,1.27
8647.00,1.27
8646.00,1.27
8645.00,1.27
8644.00,1.27
8643.00,1.27
8642.00,1.27
8641.00,1.27
8640.00,1.27
8639.00,1.26
8638.00,1.26
8637.00,1.26
8636.00,1.26
8635.00,1.26
8634.00,1.26
8633.00,1.26
8632.00,1.26
8631.00,1.26
8630.00,1.26
8629.00,1.26
8628.00,1.26
8627.00,1.26
8626.00,1.26
8625.00,1.26
8624.00,1.26
8623.00,1.26
8622.00,1.26
8621.00,1.26
8620.00,1.26
8619.00,1.26
8618.00,1.26
8617.00,1.26
8616.00,1.26
8615.00,1.26
8614.00,1.26
8613.00,1.26
8612.00,1.26
8611.00,1.26
8610.00,1.26
8609.00,1.26
8608.00,1.26
8607.00,1.26
8606.00,1.26
8605.00,1.26
8604.00,1.26
8603.00,1.25
8602.00,1.25
8601.00,1.25
8600.00,1.25
8599.00,1.25
8598.00,1.25
8597.00,1.25
8596.00,1.25
8595.00,1.25
8594.00,1.25
8593.00,1.26
8592.00,1.26
8591.00,1.26
8590.00,1.26
8589.00,1.26
8588.00,1.26
8587.00,1.26
8586.00,1.26
8585.00,1.26
8584.00,1.26
8583.00,1.26
8582.00,1.26
8581.00,1.26
8580.00,1.26
8579.00,1.26
8578.00,1.26
8577.00,1.26
8576.00,1.26
8575.00,1.26
8574.00,1.25
8573.00,1.25
8572.00,1.25
8571.00,1.25
8570.00,1.25
8569.00,1.25
8568.00,1.24
8567.00,1.24
8566.00,1.24
8565.00,1.24
8564.00,1.24
8563.00,1.24
8562.00,1.24
8561.00,1.24
8560.00,1.24
8559.00,1.24
8558.00,1.24
8557.00,1.24
8556.00,1.24
8555.00,1.24
8554.00,1.24
8553.00,1.24
8552.00,1.24
8551.00,1.24
8550.00,1.24
8549.00,1.24
8548.00,1.24
8547.00,1.24
8546.00,1.24
8545.00,1.24
8544.00,1.24
8543.00,1.24
8542.00,1.24
8541.00,1.24
8540.00,1.24
8539.00,1.24
8538.00,1.24
8537.00,1.24
8536.00,1.23
8535.00,1.23
8534.00,1.23
8533.00,1.23
8532.00,1.23
8531.00,1.23
8530.00,1.23
8529.00,1.23
8528.00,1.23
8527.00,1.23
8526.00,1.23
8525.00,1.23
8524.00,1.23
8523.00,1.23
8522.00,1.23
8521.00,1.23
8520.00,1.23
8519.00,1.23
8518.00,1.23
8517.00,1.23
8516.00,1.23
8515.00,1.23
8514.00,1.23
8513.00,1.23
8512.00,1.22
8511.00,1.22
8510.00,1.22
8509.00,1.22
8508.00,1.22
8507.00,1.22
8506.00,1.22
8505.00,1.22
8504.00,1.22
8503.00,1.21
8502.00,1.21
8501.00,1.21
8500.00,1.21
8499.00,1.21
8498.00,1.21
8497.00,1.21
8496.00,1.21
8495.00,1.21
8494.00,1.21
8493.00,1.21
8492.00,1.20
8491.00,1.20
8490.00,1.20
8489.00,1.20
8488.00,1.20
8487.00,1.20
8486.00,1.20
8485.00,1.20
8484.00,1.20
8483.00,1.20
8482.00,1.20
8481.00,1.20
8480.00,1.20
8479.00,1.20
8478.00,1.20
8477.00,1.20
8476.00,1.20
8475.00,1.19
8474.00,1.19
8473.00,1.19
8472.00,1.19
8471.00,1.19
8470.00,1.19
8469.00,1.19
8468.00,1.19
8467.00,1.19
8466.00,1.19
8465.00,1.19
8464.00,1.19
8463.00,1.19
8462.00,1.18
8461.00,1.18
8460.00,1.18
8459.00,1.18
8458.00,1.18
8457.00,1.18
8456.00,1.18
8455.00,1.18
8454.00,1.18
8453.00,1.18
8452.00,1.18
8451.00,1.18
8450.00,1.17
8449.00,1.17
8448.00,1.17
8447.00,1.17
8446.00,1.17
8445.00,1.17
8444.00,1.17
8443.00,1.17
8442.00,1.17
8441.00,1.17
8440.00,1.17
8439.00,1.17
8438.00,1.17
8437.00,1.17
8436.00,1.18
8435.00,1.18
8434.00,1.18
8433.00,1.18
8432.00,1.18
8431.00,1.18
8430.00,1.18
8429.00,1.18
8428.00,1.18
8427.00,1.18
8426.00,1.18
8425.00,1.18
8424.00,1.18
8423.00,1.19
8422.00,1.19
8421.00,1.19
8420.00,1.19
8419.00,1.19
8418.00,1.19
8417.00,1.20
8416.00,1.20
8415.00,1.20
8414.00,1.20
8413.00,1.20
8412.00,1.20
8411.00,1.21
8410.00,1.21
8409.00,1.21
8408.00,1.21
8407.00,1.21
8406.00,1.21
8405.00,1.21
8404.00,1.21
8403.00,1.21
8402.00,1.21
8401.00,1.21
8400.00,1.21
8399.00,1.21
8398.00,1.21
8397.00,1.21
8396.00,1.21
8395.00,1.21
8394.00,1.21
8393.00,1.21
8392.00,1.21
8391.00,1.21
8390.00,1.21
8389.00,1.21
8388.00,1.21
8387.00,1.21
8386.00,1.21
8385.00,1.21
8384.00,1.21
8383.00,1.21
8382.00,1.21
8381.00,1.21
8380.00,1.21
8379.00,1.21
8378.00,1.21
8377.00,1.21
8376.00,1.21
8375.00,1.21
8374.00,1.21
8373.00,1.21
8372.00,1.21
8371.00,1.21
8370.00,1.22
8369.00,1.22
8368.00,1.22
8367.00,1.22
8366.00,1.22
8365.00,1.22
8364.00,1.22
8363.00,1.22
8362.00,1.22
8361.00,1.22
8360.00,1.22
8359.00,1.22
8358.00,1.22
8357.00,1.22
8356.00,1.22
8355.00,1.22
8354.00,1.22
8353.00,1.22
8352.00,1.22
8351.00,1.22
8350.00,1.22
8349.00,1.22
8348.00,1.22
8347.00,1.22
8346.00,1.22
8345.00,1.22
8344.00,1.22
8343.00,1.22
8342.00,1.22
8341.00,1.22
8340.00,1.22
8339.00,1.22
8338.00,1.22
8337.00,1.22
8336.00,1.22
8335.00,1.22
8334.00,1.22
8333.00,1.22
8332.00,1.22
8331.00,1.22
8330.00,1.22
8329.00,1.22
8328.00,1.22
8327.00,1.22
8326.00,1.22
8325.00,1.22
8324.00,1.23
8323.00,1.23
8322.00,1.23
8321.00,1.23
8320.00,1.23
8319.00,1.23
8318.00,1.23
8317.00,1.23
8316.00,1.23
8315.00,1.23
8314.00,1.23
8313.00,1.23
8312.00,1.23
8311.00,1.23
8310.00,1.23
8309.00,1.23
8308.00,1.24
8307.00,1.24
8306.00,1.24
8305.00,1.24
8304.00,1.24
8303.00,1.24
8302.00,1.24
8301.00,1.24
8300.00,1.24
8299.00,1.24
8298.00,1.24
8297.00,1.24
8296.00,1.24
8295.00,1.24
8294.00,1.24
8293.00,1.24
8292.00,1.24
8291.00,1.24
8290.00,1.24
8289.00,1.24
8288.00,1.24
8287.00,1.23
8286.00,1.23
8285.00,1.23
8284.00,1.23
8283.00,1.23
8282.00,1.23
8281.00,1.23
8280.00,1.23
8279.00,1.23
8278.00,1.24
8277.00,1.24
8276.00,1.24
8275.00,1.24
8274.00,1.24
8273.00,1.24
8272.00,1.24
8271.00,1.24
8270.00,1.24
8269.00,1.25
8268.00,1.25
8267.00,1.25
8266.00,1.25
8265.00,1.25
8264.00,1.25
8263.00,1.25
8262.00,1.24
8261.00,1.24
8260.00,1.24
8259.00,1.24
8258.00,1.24
8257.00,1.24
8256.00,1.24
8255.00,1.24
8254.00,1.24
8253.00,1.24
8252.00,1.24
8251.00,1.23
8250.00,1.23
8249.00,1.23
8248.00,1.23
8247.00,1.23
8246.00,1.23
8245.00,1.23
8244.00,1.24
8243.00,1.24
8242.00,1.24
8241.00,1.24
8240.00,1.24
8239.00,1.24
8238.00,1.24
8237.00,1.24
8236.00,1.24
8235.00,1.24
8234.00,1.24
8233.00,1.24
8232.00,1.24
8231.00,1.24
8230.00,1.25
8229.00,1.25
8228.00,1.25
8227.00,1.25
8226.00,1.25
8225.00,1.25
8224.00,1.25
8223.00,1.25
8222.00,1.25
8221.00,1.25
8220.00,1.25
8219.00,1.25
8218.00,1.25
8217.00,1.25
8216.00,1.25
8215.00,1.25
8214.00,1.25
8213.00,1.25
8212.00,1.25
8211.00,1.25
8210.00,1.25
8209.00,1.25
8208.00,1.26
8207.00,1.26
8206.00,1.26
8205.00,1.26
8204.00,1.26
8203.00,1.26
8202.00,1.26
8201.00,1.26
8200.00,1.26
8199.00,1.26
8198.00,1.26
8197.00,1.26
8196.00,1.26
8195.00,1.26
8194.00,1.26
8193.00,1.26
8192.00,1.26
8191.00,1.26
8190.00,1.26
8189.00,1.26
8188.00,1.26
8187.00,1.26
8186.00,1.26
8185.00,1.26
8184.00,1.26
8183.00,1.26
8182.00,1.26
8181.00,1.26
8180.00,1.26
8179.00,1.26
8178.00,1.25
8177.00,1.25
8176.00,1.25
8175.00,1.25
8174.00,1.25
8173.00,1.25
8172.00,1.25
8171.00,1.26
8170.00,1.26
8169.00,1.26
8168.00,1.26
8167.00,1.26
8166.00,1.26
8165.00,1.26
8164.00,1.26
8163.00,1.26
8162.00,1.26
8161.00,1.26
8160.00,1.26
8159.00,1.26
8158.00,1.26
8157.00,1.26
8156.00,1.26
8155.00,1.26
8154.00,1.27
8153.00,1.27
8152.00,1.27
8151.00,1.27
8150.00,1.27
8149.00,1.27
8148.00,1.27
8147.00,1.27
8146.00,1.27
8145.00,1.27
8144.00,1.27
8143.00,1.27
8142.00,1.27
8141.00,1.27
8140.00,1.27
8139.00,1.27
8138.00,1.27
8137.00,1.27
8136.00,1.27
8135.00,1.27
8134.00,1.27
8133.00,1.27
8132.00,1.27
8131.00,1.27
8130.00,1.27
8129.00,1.27
8128.00,1.27
8127.00,1.27
8126.00,1.27
8125.00,1.27
8124.00,1.27
8123.00,1.27
8122.00,1.27
8121.00,1.27
8120.00,1.27
8119.00,1.27
8118.00,1.27
8117.00,1.27
8116.00,1.27
8115.00,1.27
8114.00,1.27
8113.00,1.28
8112.00,1.28
8111.00,1.28
8110.00,1.28
8109.00,1.28
8108.00,1.28
8107.00,1.28
8106.00,1.28
8105.00,1.28
8104.00,1.28
8103.00,1.28
8102.00,1.29
8101.00,1.29
8100.00,1.29
8099.00,1.29
8098.00,1.29
8097.00,1.29
8096.00,1.29
8095.00,1.29
8094.00,1.29
8093.00,1.29
8092.00,1.29
8091.00,1.29
8090.00,1.29
8089.00,1.29
8088.00,1.29
8087.00,1.29
8086.00,1.29
8085.00,1.29
8084.00,1.29
8083.00,1.29
8082.00,1.29
8081.00,1.29
8080.00,1.29
8079.00,1.29
8078.00,1.29
8077.00,1.29
8076.00,1.29
8075.00,1.29
8074.00,1.29
8073.00,1.28
8072.00,1.28
8071.00,1.28
8070.00,1.28
8069.00,1.28
8068.00,1.28
8067.00,1.28
8066.00,1.28
8065.00,1.28
8064.00,1.28
8063.00,1.28
8062.00,1.28
8061.00,1.28
8060.00,1.28
8059.00,1.28
8058.00,1.28
8057.00,1.28
8056.00,1.28
8055.00,1.28
8054.00,1.28
8053.00,1.28
8052.00,1.28
8051.00,1.29
8050.00,1.29
8049.00,1.29
8048.00,1.29
8047.00,1.29
8046.00,1.29
8045.00,1.29
8044.00,1.29
8043.00,1.29
8042.00,1.29
8041.00,1.29
8040.00,1.29
8039.00,1.29
8038.00,1.29
8037.00,1.29
8036.00,1.29
8035.00,1.29
8034.00,1.29
8033.00,1.29
8032.00,1.29
8031.00,1.29
8030.00,1.29
8029.00,1.29
8028.00,1.29
8027.00,1.29
8026.00,1.29
8025.00,1.29
8024.00,1.29
8023.00,1.29
8022.00,1.29
8021.00,1.29
8020.00,1.29
8019.00,1.29
8018.00,1.29
8017.00,1.29
8016.00,1.29
8015.00,1.29
8014.00,1.29
8013.00,1.29
8012.00,1.29
8011.00,1.29
8010.00,1.29
8009.00,1.29
8008.00,1.29
8007.00,1.30
8006.00,1.30
8005.00,1.30
8004.00,1.30
8003.00,1.30
8002.00,1.30
8001.00,1.30
8000.00,1.30
7999.00,1.30
7998.00,1.30
7997.00,1.30
7996.00,1.30
7995.00,1.30
7994.00,1.30
7993.00,1.30
7992.00,1.30
7991.00,1.30
7990.00,1.30
7989.00,1.30
7988.00,1.30
7987.00,1.30
7986.00,1.30
7985.00,1.30
7984.00,1.30
7983.00,1.30
7982.00,1.30
7981.00,1.30
7980.00,1.30
7979.00,1.30
7978.00,1.30
7977.00,1.30
7976.00,1.30
7975.00,1.30
7974.00,1.30
7973.00,1.30
7972.00,1.30
7971.00,1.30
7970.00,1.30
7969.00,1.30
7968.00,1.30
7967.00,1.30
7966.00,1.30
7965.00,1.31
7964.00,1.31
7963.00,1.31
7962.00,1.31
7961.00,1.31
7960.00,1.31
7959.00,1.31
7958.00,1.31
7957.00,1.31
7956.00,1.31
7955.00,1.31
7954.00,1.31
7953.00,1.31
7952.00,1.31
7951.00,1.31
7950.00,1.31
7949.00,1.31
7948.00,1.31
7947.00,1.31
7946.00,1.31
7945.00,1.31
7944.00,1.31
7943.00,1.31
7942.00,1.31
7941.00,1.31
7940.00,1.31
7939.00,1.31
7938.00,1.31
7937.00,1.31
7936.00,1.31
7935.00,1.31
7934.00,1.31
7933.00,1.31
7932.00,1.31
7931.00,1.31
7930.00,1.31
7929.00,1.31
7928.00,1.31
7927.00,1.31
7926.00,1.31
7925.00,1.31
7924.00,1.31
7923.00,1.31
7922.00,1.31
7921.00,1.31
7920.00,1.31
7919.00,1.31
7918.00,1.31
7917.00,1.31
7916.00,1.31
7915.00,1.31
7914.00,1.31
7913.00,1.31
7912.00,1.31
7911.00,1.31
7910.00,1.31
7909.00,1.31
7908.00,1.31
7907.00,1.31
7906.00,1.31
7905.00,1.31
7904.00,1.31
7903.00,1.31
7902.00,1.31
7901.00,1.31
7900.00,1.31
7899.00,1.31
7898.00,1.31
7897.00,1.31
7896.00,1.31
7895.00,1.31
7894.00,1.31
7893.00,1.31
7892.00,1.31
7891.00,1.31
7890.00,1.31
7889.00,1.31
7888.00,1.31
7887.00,1.31
7886.00,1.31
7885.00,1.31
7884.00,1.31
7883.00,1.32
7882.00,1.32
7881.00,1.32
7880.00,1.32
7879.00,1.32
7878.00,1.32
7877.00,1.32
7876.00,1.32
7875.00,1.32
7874.00,1.32
7873.00,1.32
7872.00,1.32
7871.00,1.32
7870.00,1.32
7869.00,1.32
7868.00,1.32
7867.00,1.32
7866.00,1.32
7865.00,1.32
7864.00,1.32
7863.00,1.32
7862.00,1.32
7861.00,1.32
7860.00,1.32
7859.00,1.32
7858.00,1.32
7857.00,1.32
7856.00,1.32
7855.00,1.32
7854.00,1.32
7853.00,1.32
7852.00,1.32
7851.00,1.32
7850.00,1.32
7849.00,1.32
7848.00,1.32
7847.00,1.32
7846.00,1.32
7845.00,1.32
7844.00,1.32
7843.00,1.32
7842.00,1.32
7841.00,1.32
7840.00,1.32
7839.00,1.32
7838.00,1.32
7837.00,1.32
7836.00,1.32
7835.00,1.31
7834.00,1.31
7833.00,1.31
7832.00,1.31
7831.00,1.31
7830.00,1.31
7829.00,1.31
7828.00,1.31
7827.00,1.31
7826.00,1.31
7825.00,1.31
7824.00,1.31
7823.00,1.31
7822.00,1.31
7821.00,1.31
7820.00,1.31
7819.00,1.32
7818.00,1.32
7817.00,1.32
7816.00,1.32
7815.00,1.32
7814.00,1.32
7813.00,1.32
7812.00,1.32
7811.00,1.32
7810.00,1.32
7809.00,1.32
7808.00,1.32
7807.00,1.32
7806.00,1.32
7805.00,1.32
7804.00,1.32
7803.00,1.32
7802.00,1.32
7801.00,1.32
7800.00,1.32
7799.00,1.32
7798.00,1.32
7797.00,1.32
7796.00,1.32
7795.00,1.32
7794.00,1.32
7793.00,1.32
7792.00,1.32
7791.00,1.32
7790.00,1.32
7789.00,1.32
7788.00,1.32
7787.00,1.32
7786.00,1.32
7785.00,1.32
7784.00,1.32
7783.00,1.32
7782.00,1.32
7781.00,1.32
7780.00,1.32
7779.00,1.32
7778.00,1.32
7777.00,1.32
7776.00,1.32
7775.00,1.32
7774.00,1.32
7773.00,1.32
7772.00,1.32
7771.00,1.33
7770.00,1.33
7769.00,1.33
7768.00,1.33
7767.00,1.33
7766.00,1.33
7765.00,1.33
7764.00,1.33
7763.00,1.33
7762.00,1.33
7761.00,1.33
7760.00,1.33
7759.00,1.33
7758.00,1.33
7757.00,1.33
7756.00,1.33
7755.00,1.33
7754.00,1.33
7753.00,1.33
7752.00,1.33
7751.00,1.33
7750.00,1.33
7749.00,1.33
7748.00,1.33
7747.00,1.32
7746.00,1.32
7745.00,1.32
7744.00,1.32
7743.00,1.32
7742.00,1.32
7741.00,1.32
7740.00,1.32
7739.00,1.32
7738.00,1.32
7737.00,1.32
7736.00,1.32
7735.00,1.32
7734.00,1.32
7733.00,1.33
7732.00,1.33
7731.00,1.33
7730.00,1.33
7729.00,1.33
7728.00,1.33
7727.00,1.33
7726.00,1.33
7725.00,1.33
7724.00,1.33
7723.00,1.33
7722.00,1.33
7721.00,1.33
7720.00,1.33
7719.00,1.33
7718.00,1.33
7717.00,1.33
7716.00,1.33
7715.00,1.33
7714.00,1.33
7713.00,1.33
7712.00,1.33
7711.00,1.33
7710.00,1.33
7709.00,1.33
7708.00,1.33
7707.00,1.33
7706.00,1.33
7705.00,1.33
7704.00,1.33
7703.00,1.33
7702.00,1.33
7701.00,1.33
7700.00,1.33
7699.00,1.34
7698.00,1.34
7697.00,1.34
7696.00,1.34
7695.00,1.34
7694.00,1.34
7693.00,1.34
7692.00,1.34
7691.00,1.34
7690.00,1.34
7689.00,1.34
7688.00,1.34
7687.00,1.34
7686.00,1.34
7685.00,1.34
7684.00,1.34
7683.00,1.33
7682.00,1.33
7681.00,1.33
7680.00,1.33
7679.00,1.33
7678.00,1.33
7677.00,1.33
7676.00,1.33
7675.00,1.33
7674.00,1.33
7673.00,1.33
7672.00,1.33
7671.00,1.33
7670.00,1.33
7669.00,1.33
7668.00,1.33
7667.00,1.33
7666.00,1.33
7665.00,1.33
7664.00,1.33
7663.00,1.33
7662.00,1.33
7661.00,1.33
7660.00,1.33
7659.00,1.33
7658.00,1.33
7657.00,1.33
7656.00,1.33
7655.00,1.33
7654.00,1.33
7653.00,1.33
7652.00,1.33
7651.00,1.33
7650.00,1.33
7649.00,1.33
7648.00,1.33
7647.00,1.33
7646.00,1.33
7645.00,1.33
7644.00,1.33
7643.00,1.33
7642.00,1.33
7641.00,1.33
7640.00,1.33
7639.00,1.33
7638.00,1.33
7637.00,1.33
7636.00,1.33
7635.00,1.33
7634.00,1.33
7633.00,1.33
7632.00,1.33
7631.00,1.33
7630.00,1.33
7629.00,1.33
7628.00,1.33
7627.00,1.33
7626.00,1.33
7625.00,1.33
7624.00,1.33
7623.00,1.33
7622.00,1.33
7621.00,1.33
7620.00,1.33
7619.00,1.33
7618.00,1.33
7617.00,1.33
7616.00,1.33
7615.00,1.33
7614.00,1.33
7613.00,1.33
7612.00,1.33
7611.00,1.33
7610.00,1.33
7609.00,1.33
7608.00,1.33
7607.00,1.33
7606.00,1.33
7605.00,1.33
7604.00,1.33
7603.00,1.33
7602.00,1.33
7601.00,1.33
7600.00,1.33
7599.00,1.34
7598.00,1.34
7597.00,1.34
7596.00,1.34
7595.00,1.34
7594.00,1.34
7593.00,1.34
7592.00,1.33
7591.00,1.33
7590.00,1.33
7589.00,1.33
7588.00,1.33
7587.00,1.33
7586.00,1.33
7585.00,1.33
7584.00,1.33
7583.00,1.33
7582.00,1.33
7581.00,1.33
7580.00,1.33
7579.00,1.33
7578.00,1.33
7577.00,1.33
7576.00,1.33
7575.00,1.33
7574.00,1.33
7573.00,1.33
7572.00,1.33
7571.00,1.33
7570.00,1.33
7569.00,1.33
7568.00,1.33
7567.00,1.33
7566.00,1.33
7565.00,1.32
7564.00,1.32
7563.00,1.32
7562.00,1.32
7561.00,1.32
7560.00,1.32
7559.00,1.32
7558.00,1.32
7557.00,1.32
7556.00,1.32
7555.00,1.32
7554.00,1.32
7553.00,1.32
7552.00,1.33
7551.00,1.33
7550.00,1.33
7549.00,1.33
7548.00,1.33
7547.00,1.33
7546.00,1.33
7545.00,1.33
7544.00,1.33
7543.00,1.33
7542.00,1.33
7541.00,1.33
7540.00,1.33
7539.00,1.33
7538.00,1.33
7537.00,1.33
7536.00,1.33
7535.00,1.33
7534.00,1.33
7533.00,1.33
7532.00,1.33
7531.00,1.33
7530.00,1.33
7529.00,1.33
7528.00,1.33
7527.00,1.33
7526.00,1.33
7525.00,1.32
7524.00,1.32
7523.00,1.32
7522.00,1.32
7521.00,1.32
7520.00,1.32
7519.00,1.32
7518.00,1.32
7517.00,1.32
7516.00,1.32
7515.00,1.32
7514.00,1.32
7513.00,1.32
7512.00,1.31
7511.00,1.31
7510.00,1.31
7509.00,1.31
7508.00,1.31
7507.00,1.31
7506.00,1.31
7505.00,1.31
7504.00,1.31
7503.00,1.31
7502.00,1.31
7501.00,1.31
7500.00,1.31
7499.00,1.31
7498.00,1.31
7497.00,1.30
7496.00,1.30
7495.00,1.30
7494.00,1.30
7493.00,1.30
7492.00,1.30
7491.00,1.30
7490.00,1.30
7489.00,1.30
7488.00,1.30
7487.00,1.30
7486.00,1.30
7485.00,1.30
7484.00,1.30
7483.00,1.30
7482.00,1.30
7481.00,1.30
7480.00,1.30
7479.00,1.30
7478.00,1.30
7477.00,1.30
7476.00,1.30
7475.00,1.30
7474.00,1.30
7473.00,1.30
7472.00,1.30
7471.00,1.30
7470.00,1.30
7469.00,1.30
7468.00,1.30
7467.00,1.30
7466.00,1.30
7465.00,1.29
7464.00,1.29
7463.00,1.29
7462.00,1.29
7461.00,1.29
7460.00,1.29
7459.00,1.29
7458.00,1.29
7457.00,1.29
7456.00,1.29
7455.00,1.29
7454.00,1.28
7453.00,1.28
7452.00,1.28
7451.00,1.28
7450.00,1.28
7449.00,1.28
7448.00,1.28
7447.00,1.28
7446.00,1.28
7445.00,1.28
7444.00,1.28
7443.00,1.28
7442.00,1.28
7441.00,1.28
7440.00,1.28
7439.00,1.28
7438.00,1.28
7437.00,1.28
7436.00,1.28
7435.00,1.28
7434.00,1.28
7433.00,1.28
7432.00,1.28
7431.00,1.28
7430.00,1.28
7429.00,1.28
7428.00,1.28
7427.00,1.28
7426.00,1.28
7425.00,1.27
7424.00,1.27
7423.00,1.27
7422.00,1.27
7421.00,1.27
7420.00,1.27
7419.00,1.27
7418.00,1.27
7417.00,1.27
7416.00,1.26
7415.00,1.26
7414.00,1.26
7413.00,1.26
7412.00,1.26
7411.00,1.26
7410.00,1.26
7409.00,1.26
7408.00,1.26
7407.00,1.26
7406.00,1.26
7405.00,1.26
7404.00,1.26
7403.00,1.26
7402.00,1.26
7401.00,1.26
7400.00,1.26
7399.00,1.26
7398.00,1.25
7397.00,1.25
7396.00,1.25
7395.00,1.25
7394.00,1.25
7393.00,1.25
7392.00,1.25
7391.00,1.25
7390.00,1.25
7389.00,1.24
7388.00,1.24
7387.00,1.24
7386.00,1.24
7385.00,1.24
7384.00,1.24
7383.00,1.23
7382.00,1.23
7381.00,1.23
7380.00,1.23
7379.00,1.23
7378.00,1.23
7377.00,1.23
7376.00,1.23
7375.00,1.23
7374.00,1.23
7373.00,1.23
7372.00,1.23
7371.00,1.23
7370.00,1.23
7369.00,1.23
7368.00,1.23
7367.00,1.23
7366.00,1.23
7365.00,1.23
7364.00,1.23
7363.00,1.23
7362.00,1.23
7361.00,1.23
7360.00,1.23
7359.00,1.23
7358.00,1.22
7357.00,1.22
7356.00,1.22
7355.00,1.22
7354.00,1.22
7353.00,1.22
7352.00,1.22
7351.00,1.22
7350.00,1.21
7349.00,1.21
7348.00,1.21
7347.00,1.21
7346.00,1.21
7345.00,1.21
7344.00,1.21
7343.00,1.21
7342.00,1.21
7341.00,1.21
7340.00,1.21
7339.00,1.21
7338.00,1.21
7337.00,1.21
7336.00,1.21
7335.00,1.21
7334.00,1.21
7333.00,1.21
7332.00,1.21
7331.00,1.21
7330.00,1.20
7329.00,1.20
7328.00,1.20
7327.00,1.20
7326.00,1.20
7325.00,1.20
7324.00,1.20
7323.00,1.20
7322.00,1.20
7321.00,1.20
7320.00,1.20
7319.00,1.20
7318.00,1.20
7317.00,1.20
7316.00,1.20
7315.00,1.20
7314.00,1.20
7313.00,1.20
7312.00,1.20
7311.00,1.20
7310.00,1.20
7309.00,1.20
7308.00,1.20
7307.00,1.20
7306.00,1.20
7305.00,1.20
7304.00,1.20
7303.00,1.20
7302.00,1.20
7301.00,1.20
7300.00,1.20
7299.00,1.20
7298.00,1.20
7297.00,1.19
7296.00,1.19
7295.00,1.19
7294.00,1.19
7293.00,1.19
7292.00,1.19
7291.00,1.19
7290.00,1.19
7289.00,1.19
7288.00,1.19
7287.00,1.19
7286.00,1.19
7285.00,1.19
7284.00,1.19
7283.00,1.19
7282.00,1.19
7281.00,1.19
7280.00,1.19
7279.00,1.19
7278.00,1.18
7277.00,1.18
7276.00,1.18
7275.00,1.18
7274.00,1.18
7273.00,1.18
7272.00,1.17
7271.00,1.17
7270.00,1.17
7269.00,1.17
7268.00,1.17
7267.00,1.17
7266.00,1.16
7265.00,1.16
7264.00,1.16
7263.00,1.16
7262.00,1.16
7261.00,1.16
7260.00,1.16
7259.00,1.16
7258.00,1.15
7257.00,1.15
7256.00,1.15
7255.00,1.15
7254.00,1.15
7253.00,1.15
7252.00,1.15
7251.00,1.14
7250.00,1.14
7249.00,1.14
7248.00,1.14
7247.00,1.14
7246.00,1.13
7245.00,1.13
7244.00,1.13
7243.00,1.12
7242.00,1.12
7241.00,1.12
7240.00,1.11
7239.00,1.11
7238.00,1.11
7237.00,1.10
7236.00,1.10
7235.00,1.10
7234.00,1.09
7233.00,1.09
7232.00,1.09
7231.00,1.09
7230.00,1.08
7229.00,1.08
7228.00,1.08
7227.00,1.08
7226.00,1.07
7225.00,1.07
7224.00,1.07
7223.00,1.07
7222.00,1.07
7221.00,1.06
7220.00,1.06
7219.00,1.06
7218.00,1.06
7217.00,1.05
7216.00,1.05
7215.00,1.05
7214.00,1.05
7213.00,1.04
7212.00,1.04
7211.00,1.04
7210.00,1.03
7209.00,1.03
7208.00,1.03
7207.00,1.03
7206.00,1.02
7205.00,1.02
7204.00,1.02
7203.00,1.02
7202.00,1.01
7201.00,1.01
7200.00,1.01
7199.00,1.01
7198.00,1.01
7197.00,1.00
7196.00,1.00
7195.00,1.00
7194.00,1.00
7193.00,0.99
7192.00,0.99
7191.00,0.99
7190.00,0.99
7189.00,0.98
7188.00,0.98
7187.00,0.98
7186.00,0.97
7185.00,0.97
7184.00,0.97
7183.00,0.96
7182.00,0.96
7181.00,0.96
7180.00,0.95
7179.00,0.95
7178.00,0.94
7177.00,0.94
7176.00,0.94
7175.00,0.93
7174.00,0.93
7173.00,0.93
7172.00,0.92
7171.00,0.92
7170.00,0.92
7169.00,0.91
7168.00,0.91
7167.00,0.91
7166.00,0.91
7165.00,0.90
7164.00,0.90
7163.00,0.90
7162.00,0.90
7161.00,0.90
7160.00,0.89
7159.00,0.89
7158.00,0.89
7157.00,0.89
7156.00,0.89
7155.00,0.89
7154.00,0.89
7153.00,0.88
7152.00,0.88
7151.00,0.88
7150.00,0.88
7149.00,0.88
7148.00,0.87
7147.00,0.87
7146.00,0.87
7145.00,0.87
7144.00,0.86
7143.00,0.86
7142.00,0.86
7141.00,0.86
7140.00,0.85
7139.00,0.85
7138.00,0.85
7137.00,0.85
7136.00,0.84
7135.00,0.84
7134.00,0.84
7133.00,0.84
7132.00,0.84
7131.00,0.83
7130.00,0.83
7129.00,0.83
7128.00,0.83
7127.00,0.82
7126.00,0.82
7125.00,0.82
7124.00,0.82
7123.00,0.81
7122.00,0.81
7121.00,0.81
7120.00,0.81
7119.00,0.80
7118.00,0.80
7117.00,0.80
7116.00,0.80
7115.00,0.79
7114.00,0.79
7113.00,0.79
7112.00,0.79
7111.00,0.79
7110.00,0.78
7109.00,0.78
7108.00,0.78
7107.00,0.78
7106.00,0.78
7105.00,0.77
7104.00,0.77
7103.00,0.77
7102.00,0.77
7101.00,0.77
7100.00,0.77
7099.00,0.76
7098.00,0.76
7097.00,0.76
7096.00,0.76
7095.00,0.76
7094.00,0.76
7093.00,0.75
7092.00,0.75
7091.00,0.75
7090.00,0.75
7089.00,0.75
7088.00,0.75
7087.00,0.75
7086.00,0.75
7085.00,0.74
7084.00,0.74
7083.00,0.74
7082.00,0.74
7081.00,0.74
7080.00,0.74
7079.00,0.74
7078.00,0.73
7077.00,0.73
7076.00,0.73
7075.00,0.73
7074.00,0.73
7073.00,0.73
7072.00,0.72
7071.00,0.72
7070.00,0.72
7069.00,0.72
7068.00,0.72
7067.00,0.72
7066.00,0.72
7065.00,0.72
7064.00,0.72
7063.00,0.72
7062.00,0.72
7061.00,0.72
7060.00,0.72
7059.00,0.72
7058.00,0.72
7057.00,0.71
7056.00,0.71
7055.00,0.71
7054.00,0.71
7053.00,0.71
7052.00,0.71
7051.00,0.71
7050.00,0.71
7049.00,0.71
7048.00,0.70
7047.00,0.70
7046.00,0.70
7045.00,0.70
7044.00,0.70
7043.00,0.70
7042.00,0.69
7041.00,0.69
7040.00,0.69
7039.00,0.69
7038.00,0.69
7037.00,0.69
7036.00,0.69
7035.00,0.69
7034.00,0.69
7033.00,0.69
7032.00,0.69
7031.00,0.69
7030.00,0.69
7029.00,0.69
7028.00,0.69
7027.00,0.68
7026.00,0.68
7025.00,0.68
7024.00,0.68
7023.00,0.68
7022.00,0.68
7021.00,0.68
7020.00,0.68
7019.00,0.68
7018.00,0.68
7017.00,0.68
7016.00,0.68
7015.00,0.68
7014.00,0.68
7013.00,0.68
7012.00,0.68
7011.00,0.68
7010.00,0.68
7009.00,0.67
7008.00,0.67
7007.00,0.67
7006.00,0.67
7005.00,0.67
7004.00,0.67
7003.00,0.67
7002.00,0.67
7001.00,0.67
7000.00,0.67
6999.00,0.67
6998.00,0.67
6997.00,0.67
6996.00,0.67
6995.00,0.67
6994.00,0.66
6993.00,0.66
6992.00,0.66
6991.00,0.66
6990.00,0.66
6989.00,0.66
6988.00,0.66
6987.00,0.66
6986.00,0.66
6985.00,0.66
6984.00,0.66
6983.00,0.66
6982.00,0.66
6981.00,0.66
6980.00,0.66
6979.00,0.66
6978.00,0.66
6977.00,0.66
6976.00,0.66
6975.00,0.65
6974.00,0.65
6973.00,0.65
6972.00,0.65
6971.00,0.65
6970.00,0.65
6969.00,0.65
6968.00,0.65
6967.00,0.65
6966.00,0.65
6965.00,0.65
6964.00,0.65
6963.00,0.65
6962.00,0.64
6961.00,0.64
6960.00,0.64
6959.00,0.64
6958.00,0.64
6957.00,0.64
6956.00,0.64
6955.00,0.64
6954.00,0.64
6953.00,0.64
6952.00,0.64
6951.00,0.64
6950.00,0.64
6949.00,0.64
6948.00,0.64
6947.00,0.64
6946.00,0.64
6945.00,0.64
6944.00,0.64
6943.00,0.64
6942.00,0.64
6941.00,0.64
6940.00,0.64
6939.00,0.64
6938.00,0.64
6937.00,0.64
6936.00,0.64
6935.00,0.64
6934.00,0.64
6933.00,0.64
6932.00,0.64
6931.00,0.64
6930.00,0.64
6929.00,0.64
6928.00,0.64
6927.00,0.64
6926.00,0.64
6925.00,0.64
6924.00,0.64
6923.00,0.64
6922.00,0.64
6921.00,0.64
6920.00,0.64
6919.00,0.64
6918.00,0.64
6917.00,0.64
6916.00,0.64
6915.00,0.64
6914.00,0.64
6913.00,0.64
6912.00,0.64
6911.00,0.64
6910.00,0.64
6909.00,0.64
6908.00,0.64
6907.00,0.64
6906.00,0.64
6905.00,0.64
6904.00,0.64
6903.00,0.64
6902.00,0.64
6901.00,0.64
6900.00,0.64
6899.00,0.64
6898.00,0.64
6897.00,0.63
6896.00,0.63
6895.00,0.63
6894.00,0.63
6893.00,0.63
6892.00,0.63
6891.00,0.63
6890.00,0.63
6889.00,0.63
6888.00,0.63
6887.00,0.63
6886.00,0.63
6885.00,0.63
6884.00,0.63
6883.00,0.63
6882.00,0.63
6881.00,0.63
6880.00,0.63
6879.00,0.63
6878.00,0.63
6877.00,0.63
6876.00,0.63
6875.00,0.63
6874.00,0.63
6873.00,0.63
6872.00,0.63
6871.00,0.63
6870.00,0.63
6869.00,0.63
6868.00,0.63
6867.00,0.63
6866.00,0.63
6865.00,0.64
6864.00,0.64
6863.00,0.64
6862.00,0.64
6861.00,0.64
6860.00,0.64
6859.00,0.64
6858.00,0.64
6857.00,0.64
6856.00,0.64
6855.00,0.64
6854.00,0.64
6853.00,0.64
6852.00,0.64
6851.00,0.64
6850.00,0.64
6849.00,0.64
6848.00,0.64
6847.00,0.64
6846.00,0.64
6845.00,0.64
6844.00,0.64
6843.00,0.64
6842.00,0.64
6841.00,0.64
6840.00,0.64
6839.00,0.64
6838.00,0.64
6837.00,0.64
6836.00,0.64
6835.00,0.64
6834.00,0.64
6833.00,0.64
6832.00,0.64
6831.00,0.64
6830.00,0.64
6829.00,0.64
6828.00,0.64
6827.00,0.64
6826.00,0.64
6825.00,0.64
6824.00,0.64
6823.00,0.64
6822.00,0.64
6821.00,0.64
6820.00,0.64
6819.00,0.64
6818.00,0.64
6817.00,0.64
6816.00,0.64
6815.00,0.64
6814.00,0.64
6813.00,0.64
6812.00,0.64
6811.00,0.64
6810.00,0.65
6809.00,0.65
6808.00,0.65
6807.00,0.65
6806.00,0.65
6805.00,0.65
6804.00,0.65
6803.00,0.65
6802.00,0.65
6801.00,0.65
6800.00,0.65
6799.00,0.65
6798.00,0.65
6797.00,0.65
6796.00,0.65
6795.00,0.65
6794.00,0.65
6793.00,0.65
6792.00,0.65
6791.00,0.65
6790.00,0.65
6789.00,0.65
6788.00,0.65
6787.00,0.65
6786.00,0.65
6785.00,0.66
6784.00,0.66
6783.00,0.66
6782.00,0.66
6781.00,0.66
6780.00,0.66
6779.00,0.66
6778.00,0.66
6777.00,0.66
6776.00,0.66
6775.00,0.66
6774.00,0.66
6773.00,0.66
6772.00,0.66
6771.00,0.66
6770.00,0.66
6769.00,0.66
6768.00,0.66
6767.00,0.66
6766.00,0.66
6765.00,0.67
6764.00,0.67
6763.00,0.67
6762.00,0.67
6761.00,0.67
6760.00,0.67
6759.00,0.67
6758.00,0.67
6757.00,0.67
6756.00,0.67
6755.00,0.67
6754.00,0.67
6753.00,0.67
6752.00,0.67
6751.00,0.67
6750.00,0.67
6749.00,0.68
6748.00,0.68
6747.00,0.68
6746.00,0.68
6745.00,0.68
6744.00,0.68
6743.00,0.68
6742.00,0.68
6741.00,0.68
6740.00,0.69
6739.00,0.69
6738.00,0.69
6737.00,0.69
6736.00,0.69
6735.00,0.69
6734.00,0.69
6733.00,0.69
6732.00,0.69
6731.00,0.69
6730.00,0.69
6729.00,0.69
6728.00,0.69
6727.00,0.69
6726.00,0.69
6725.00,0.69
6724.00,0.69
6723.00,0.69
6722.00,0.69
6721.00,0.69
6720.00,0.69
6719.00,0.70
6718.00,0.70
6717.00,0.70
6716.00,0.70
6715.00,0.70
6714.00,0.70
6713.00,0.70
6712.00,0.70
6711.00,0.70
6710.00,0.70
6709.00,0.70
6708.00,0.70
6707.00,0.71
6706.00,0.71
6705.00,0.71
6704.00,0.71
6703.00,0.71
6702.00,0.71
6701.00,0.71
6700.00,0.71
6699.00,0.71
6698.00,0.71
6697.00,0.71
6696.00,0.72
6695.00,0.72
6694.00,0.72
6693.00,0.72
6692.00,0.72
6691.00,0.72
6690.00,0.72
6689.00,0.72
6688.00,0.72
6687.00,0.72
6686.00,0.72
6685.00,0.72
6684.00,0.73
6683.00,0.73
6682.00,0.73
6681.00,0.73
6680.00,0.73
6679.00,0.73
6678.00,0.73
6677.00,0.73
6676.00,0.73
6675.00,0.73
6674.00,0.73
6673.00,0.73
6672.00,0.73
6671.00,0.73
6670.00,0.73
6669.00,0.73
6668.00,0.73
6667.00,0.73
6666.00,0.73
6665.00,0.73
6664.00,0.73
6663.00,0.73
6662.00,0.73
6661.00,0.74
6660.00,0.74
6659.00,0.74
6658.00,0.74
6657.00,0.74
6656.00,0.74
6655.00,0.74
6654.00,0.74
6653.00,0.75
6652.00,0.75
6651.00,0.75
6650.00,0.75
6649.00,0.75
6648.00,0.75
6647.00,0.75
6646.00,0.75
6645.00,0.75
6644.00,0.75
6643.00,0.76
6642.00,0.76
6641.00,0.76
6640.00,0.76
6639.00,0.76
6638.00,0.76
6637.00,0.76
6636.00,0.76
6635.00,0.76
6634.00,0.76
6633.00,0.76
6632.00,0.77
6631.00,0.77
6630.00,0.77
6629.00,0.77
6628.00,0.77
6627.00,0.77
6626.00,0.77
6625.00,0.77
6624.00,0.77
6623.00,0.78
6622.00,0.78
6621.00,0.78
6620.00,0.78
6619.00,0.78
6618.00,0.78
6617.00,0.78
6616.00,0.78
6615.00,0.78
6614.00,0.78
6613.00,0.78
6612.00,0.79
6611.00,0.79
6610.00,0.79
6609.00,0.79
6608.00,0.79
6607.00,0.79
6606.00,0.79
6605.00,0.79
6604.00,0.79
6603.00,0.79
6602.00,0.79
6601.00,0.79
6600.00,0.80
6599.00,0.80
6598.00,0.80
6597.00,0.80
6596.00,0.80
6595.00,0.80
6594.00,0.80
6593.00,0.80
6592.00,0.80
6591.00,0.80
6590.00,0.80
6589.00,0.81
6588.00,0.81
6587.00,0.81
6586.00,0.81
6585.00,0.81
6584.00,0.81
6583.00,0.81
6582.00,0.81
6581.00,0.81
6580.00,0.81
6579.00,0.81
6578.00,0.81
6577.00,0.82
6576.00,0.82
6575.00,0.82
6574.00,0.82
6573.00,0.82
6572.00,0.82
6571.00,0.82
6570.00,0.82
6569.00,0.82
6568.00,0.82
6567.00,0.82
6566.00,0.82
6565.00,0.82
6564.00,0.83
6563.00,0.83
6562.00,0.83
6561.00,0.83
6560.00,0.83
6559.00,0.83
6558.00,0.83
6557.00,0.83
6556.00,0.83
6555.00,0.83
6554.00,0.83
6553.00,0.83
6552.00,0.83
6551.00,0.83
6550.00,0.84
6549.00,0.84
6548.00,0.84
6547.00,0.84
6546.00,0.84
6545.00,0.84
6544.00,0.84
6543.00,0.84
6542.00,0.84
6541.00,0.85
6540.00,0.85
6539.00,0.85
6538.00,0.85
6537.00,0.85
6536.00,0.85
6535.00,0.85
6534.00,0.85
6533.00,0.85
6532.00,0.85
6531.00,0.85
6530.00,0.85
6529.00,0.86
6528.00,0.86
6527.00,0.86
6526.00,0.86
6525.00,0.86
6524.00,0.86
6523.00,0.86
6522.00,0.86
6521.00,0.86
6520.00,0.86
6519.00,0.86
6518.00,0.86
6517.00,0.86
6516.00,0.86
6515.00,0.86
6514.00,0.86
6513.00,0.86
6512.00,0.86
6511.00,0.86
6510.00,0.86
6509.00,0.86
6508.00,0.87
6507.00,0.87
6506.00,0.87
6505.00,0.87
6504.00,0.87
6503.00,0.87
6502.00,0.87
6501.00,0.87
6500.00,0.87
6499.00,0.88
6498.00,0.88
6497.00,0.88
6496.00,0.88
6495.00,0.88
6494.00,0.88
6493.00,0.88
6492.00,0.88
6491.00,0.88
6490.00,0.88
6489.00,0.88
6488.00,0.88
6487.00,0.88
6486.00,0.89
6485.00,0.89
6484.00,0.89
6483.00,0.89
6482.00,0.89
6481.00,0.89
6480.00,0.89
6479.00,0.89
6478.00,0.89
6477.00,0.89
6476.00,0.89
6475.00,0.89
6474.00,0.89
6473.00,0.89
6472.00,0.89
6471.00,0.89
6470.00,0.89
6469.00,0.89
6468.00,0.89
6467.00,0.89
6466.00,0.89
6465.00,0.89
6464.00,0.90
6463.00,0.90
6462.00,0.90
6461.00,0.90
6460.00,0.90
6459.00,0.90
6458.00,0.90
6457.00,0.90
6456.00,0.90
6455.00,0.90
6454.00,0.90
6453.00,0.90
6452.00,0.90
6451.00,0.90
6450.00,0.90
6449.00,0.90
6448.00,0.90
6447.00,0.90
6446.00,0.90
6445.00,0.90
6444.00,0.91
6443.00,0.91
6442.00,0.91
6441.00,0.91
6440.00,0.91
6439.00,0.91
6438.00,0.91
6437.00,0.91
6436.00,0.91
6435.00,0.91
6434.00,0.91
6433.00,0.91
6432.00,0.91
6431.00,0.91
6430.00,0.91
6429.00,0.91
6428.00,0.91
6427.00,0.91
6426.00,0.92
6425.00,0.92
6424.00,0.92
6423.00,0.92
6422.00,0.92
6421.00,0.92
6420.00,0.92
6419.00,0.92
6418.00,0.92
6417.00,0.92
6416.00,0.92
6415.00,0.92
6414.00,0.92
6413.00,0.93
6412.00,0.93
6411.00,0.93
6410.00,0.93
6409.00,0.93
6408.00,0.93
6407.00,0.93
6406.00,0.93
6405.00,0.93
6404.00,0.93
6403.00,0.93
6402.00,0.93
6401.00,0.93
6400.00,0.93
6399.00,0.94
6398.00,0.94
6397.00,0.94
6396.00,0.94
6395.00,0.94
6394.00,0.94
6393.00,0.94
6392.00,0.94
6391.00,0.94
6390.00,0.94
6389.00,0.94
6388.00,0.94
6387.00,0.94
6386.00,0.94
6385.00,0.94
6384.00,0.94
6383.00,0.94
6382.00,0.94
6381.00,0.94
6380.00,0.94
6379.00,0.94
6378.00,0.94
6377.00,0.94
6376.00,0.94
6375.00,0.94
6374.00,0.94
6373.00,0.94
6372.00,0.95
6371.00,0.95
6370.00,0.95
6369.00,0.95
6368.00,0.95
6367.00,0.95
6366.00,0.95
6365.00,0.95
6364.00,0.95
6363.00,0.95
6362.00,0.95
6361.00,0.95
6360.00,0.95
6359.00,0.95
6358.00,0.95
6357.00,0.96
6356.00,0.96
6355.00,0.96
6354.00,0.96
6353.00,0.96
6352.00,0.96
6351.00,0.96
6350.00,0.96
6349.00,0.96
6348.00,0.97
6347.00,0.97
6346.00,0.97
6345.00,0.97
6344.00,0.97
6343.00,0.97
6342.00,0.97
6341.00,0.97
6340.00,0.97
6339.00,0.97
6338.00,0.97
6337.00,0.97
6336.00,0.97
6335.00,0.98
6334.00,0.98
6333.00,0.98
6332.00,0.98
6331.00,0.98
6330.00,0.98
6329.00,0.98
6328.00,0.98
6327.00,0.98
6326.00,0.98
6325.00,0.98
6324.00,0.98
6323.00,0.98
6322.00,0.99
6321.00,0.99
6320.00,0.99
6319.00,0.99
6318.00,0.99
6317.00,0.99
6316.00,0.99
6315.00,0.99
6314.00,0.99
6313.00,0.99
6312.00,0.99
6311.00,0.99
6310.00,0.99
6309.00,0.99
6308.00,0.99
6307.00,1.00
6306.00,1.00
6305.00,1.00
6304.00,1.00
6303.00,1.00
6302.00,1.00
6301.00,1.00
6300.00,1.00
6299.00,1.00
6298.00,1.01
6297.00,1.01
6296.00,1.01
6295.00,1.01
6294.00,1.01
6293.00,1.01
6292.00,1.01
6291.00,1.01
6290.00,1.02
6289.00,1.02
6288.00,1.02
6287.00,1.02
6286.00,1.02
6285.00,1.02
6284.00,1.02
6283.00,1.02
6282.00,1.02
6281.00,1.02
6280.00,1.02
6279.00,1.02
6278.00,1.03
6277.00,1.03
6276.00,1.03
6275.00,1.03
6274.00,1.03
6273.00,1.03
6272.00,1.03
6271.00,1.03
6270.00,1.03
6269.00,1.03
6268.00,1.03
6267.00,1.03
6266.00,1.04
6265.00,1.04
6264.00,1.04
6263.00,1.04
6262.00,1.04
6261.00,1.04
6260.00,1.04
6259.00,1.04
6258.00,1.04
6257.00,1.05
6256.00,1.05
6255.00,1.05
6254.00,1.05
6253.00,1.05
6252.00,1.05
6251.00,1.05
6250.00,1.06
6249.00,1.06
6248.00,1.06
6247.00,1.06
6246.00,1.06
6245.00,1.06
6244.00,1.06
6243.00,1.06
6242.00,1.07
6241.00,1.07
6240.00,1.07
6239.00,1.07
6238.00,1.07
6237.00,1.07
6236.00,1.07
6235.00,1.07
6234.00,1.07
6233.00,1.08
6232.00,1.08
6231.00,1.08
6230.00,1.08
6229.00,1.08
6228.00,1.08
6227.00,1.08
6226.00,1.08
6225.00,1.08
6224.00,1.08
6223.00,1.09
6222.00,1.09
6221.00,1.09
6220.00,1.09
6219.00,1.09
6218.00,1.09
6217.00,1.09
6216.00,1.09
6215.00,1.09
6214.00,1.09
6213.00,1.09
6212.00,1.10
6211.00,1.10
6210.00,1.10
6209.00,1.10
6208.00,1.10
6207.00,1.10
6206.00,1.10
6205.00,1.10
6204.00,1.11
6203.00,1.11
6202.00,1.11
6201.00,1.11
6200.00,1.11
6199.00,1.11
6198.00,1.11
6197.00,1.12
6196.00,1.12
6195.00,1.12
6194.00,1.12
6193.00,1.12
6192.00,1.12
6191.00,1.12
6190.00,1.12
6189.00,1.12
6188.00,1.12
6187.00,1.12
6186.00,1.13
6185.00,1.13
6184.00,1.13
6183.00,1.13
6182.00,1.13
6181.00,1.13
6180.00,1.13
6179.00,1.13
6178.00,1.13
6177.00,1.13
6176.00,1.13
6175.00,1.14
6174.00,1.14
6173.00,1.14
6172.00,1.14
6171.00,1.14
6170.00,1.14
6169.00,1.14
6168.00,1.14
6167.00,1.14
6166.00,1.15
6165.00,1.15
6164.00,1.15
6163.00,1.15
6162.00,1.15
6161.00,1.15
6160.00,1.16
6159.00,1.16
6158.00,1.16
6157.00,1.16
6156.00,1.16
6155.00,1.16
6154.00,1.16
6153.00,1.17
6152.00,1.17
6151.00,1.17
6150.00,1.17
6149.00,1.17
6148.00,1.17
6147.00,1.18
6146.00,1.18
6145.00,1.18
6144.00,1.18
6143.00,1.18
6142.00,1.18
6141.00,1.18
6140.00,1.18
6139.00,1.19
6138.00,1.19
6137.00,1.19
6136.00,1.19
6135.00,1.19
6134.00,1.19
6133.00,1.19
6132.00,1.19
6131.00,1.19
6130.00,1.19
6129.00,1.19
6128.00,1.20
6127.00,1.20
6126.00,1.20
6125.00,1.20
6124.00,1.20
6123.00,1.20
6122.00,1.20
6121.00,1.20
6120.00,1.20
6119.00,1.20
6118.00,1.21
6117.00,1.21
6116.00,1.21
6115.00,1.21
6114.00,1.21
6113.00,1.21
6112.00,1.21
6111.00,1.21
6110.00,1.21
6109.00,1.21
6108.00,1.22
6107.00,1.22
6106.00,1.22
6105.00,1.22
6104.00,1.22
6103.00,1.22
6102.00,1.22
6101.00,1.22
6100.00,1.22
6099.00,1.22
6098.00,1.22
6097.00,1.23
6096.00,1.23
6095.00,1.23
6094.00,1.23
6093.00,1.23
6092.00,1.23
6091.00,1.23
6090.00,1.23
6089.00,1.23
6088.00,1.24
6087.00,1.24
6086.00,1.24
6085.00,1.24
6084.00,1.24
6083.00,1.24
6082.00,1.24
6081.00,1.24
6080.00,1.25
6079.00,1.25
6078.00,1.25
6077.00,1.25
6076.00,1.25
6075.00,1.25
6074.00,1.26
6073.00,1.26
6072.00,1.26
6071.00,1.26
6070.00,1.26
6069.00,1.26
6068.00,1.26
6067.00,1.26
6066.00,1.26
6065.00,1.26
6064.00,1.27
6063.00,1.27
6062.00,1.27
6061.00,1.27
6060.00,1.27
6059.00,1.27
6058.00,1.27
6057.00,1.27
6056.00,1.27
6055.00,1.27
6054.00,1.27
6053.00,1.27
6052.00,1.27
6051.00,1.27
6050.00,1.27
6049.00,1.27
6048.00,1.27
6047.00,1.27
6046.00,1.27
6045.00,1.27
6044.00,1.27
6043.00,1.27
6042.00,1.27
6041.00,1.28
6040.00,1.28
6039.00,1.28
6038.00,1.28
6037.00,1.28
6036.00,1.28
6035.00,1.28
6034.00,1.28
6033.00,1.28
6032.00,1.28
6031.00,1.28
6030.00,1.28
6029.00,1.29
6028.00,1.29
6027.00,1.29
6026.00,1.29
6025.00,1.29
6024.00,1.29
6023.00,1.29
6022.00,1.29
6021.00,1.29
6020.00,1.29
6019.00,1.29
6018.00,1.29
6017.00,1.29
6016.00,1.29
6015.00,1.29
6014.00,1.29
6013.00,1.29
6012.00,1.29
6011.00,1.29
6010.00,1.29
6009.00,1.28
6008.00,1.28
6007.00,1.28
6006.00,1.28
6005.00,1.28
6004.00,1.28
6003.00,1.28
6002.00,1.28
6001.00,1.28
6000.00,1.28
5999.00,1.28
5998.00,1.28
5997.00,1.28
5996.00,1.28
5995.00,1.28
5994.00,1.28
5993.00,1.28
5992.00,1.28
5991.00,1.27
5990.00,1.27
5989.00,1.27
5988.00,1.27
5987.00,1.27
5986.00,1.27
5985.00,1.26
5984.00,1.26
5983.00,1.26
5982.00,1.26
5981.00,1.25
5980.00,1.25
5979.00,1.25
5978.00,1.25
5977.00,1.24
5976.00,1.24
5975.00,1.24
5974.00,1.23
5973.00,1.23
5972.00,1.22
5971.00,1.22
5970.00,1.21
5969.00,1.21
5968.00,1.20
5967.00,1.20
5966.00,1.19
5965.00,1.19
5964.00,1.18
5963.00,1.18
5962.00,1.17
5961.00,1.16
5960.00,1.16
5959.00,1.15
5958.00,1.15
5957.00,1.14
5956.00,1.13
5955.00,1.13
5954.00,1.12
5953.00,1.12
5952.00,1.11
5951.00,1.11
5950.00,1.11
5949.00,1.10
5948.00,1.10
5947.00,1.09
5946.00,1.09
5945.00,1.09
5944.00,1.09
5943.00,1.08
5942.00,1.08
5941.00,1.08
5940.00,1.08
5939.00,1.08
5938.00,1.08
5937.00,1.08
5936.00,1.07
5935.00,1.07
5934.00,1.07
5933.00,1.07
5932.00,1.07
5931.00,1.07
5930.00,1.07
5929.00,1.07
5928.00,1.07
5927.00,1.07
5926.00,1.06
5925.00,1.06
5924.00,1.06
5923.00,1.06
5922.00,1.06
5921.00,1.06
5920.00,1.05
5919.00,1.05
5918.00,1.05
5917.00,1.05
5916.00,1.04
5915.00,1.04
5914.00,1.04
5913.00,1.04
5912.00,1.03
5911.00,1.03
5910.00,1.03
5909.00,1.03
5908.00,1.03
5907.00,1.03
5906.00,1.03
5905.00,1.03
5904.00,1.03
5903.00,1.03
5902.00,1.02
5901.00,1.02
5900.00,1.03
5899.00,1.03
5898.00,1.03
5897.00,1.03
5896.00,1.03
5895.00,1.03
5894.00,1.03
5893.00,1.03
5892.00,1.03
5891.00,1.04
5890.00,1.04
5889.00,1.04
5888.00,1.04
5887.00,1.04
5886.00,1.05
5885.00,1.05
5884.00,1.05
5883.00,1.05
5882.00,1.06
5881.00,1.06
5880.00,1.06
5879.00,1.07
5878.00,1.07
5877.00,1.07
5876.00,1.07
5875.00,1.07
5874.00,1.08
5873.00,1.08
5872.00,1.08
5871.00,1.08
5870.00,1.08
5869.00,1.09
5868.00,1.09
5867.00,1.09
5866.00,1.09
5865.00,1.09
5864.00,1.09
5863.00,1.10
5862.00,1.10
5861.00,1.10
5860.00,1.10
5859.00,1.10
5858.00,1.10
5857.00,1.10
5856.00,1.10
5855.00,1.11
5854.00,1.11
5853.00,1.11
5852.00,1.11
5851.00,1.11
5850.00,1.11
5849.00,1.11
5848.00,1.11
5847.00,1.11
5846.00,1.11
5845.00,1.11
5844.00,1.11
5843.00,1.11
5842.00,1.11
5841.00,1.11
5840.00,1.11
5839.00,1.11
5838.00,1.11
5837.00,1.11
5836.00,1.11
5835.00,1.11
5834.00,1.11
5833.00,1.11
5832.00,1.11
5831.00,1.11
5830.00,1.11
5829.00,1.11
5828.00,1.11
5827.00,1.11
5826.00,1.11
5825.00,1.11
5824.00,1.11
5823.00,1.11
5822.00,1.11
5821.00,1.11
5820.00,1.11
5819.00,1.11
5818.00,1.11
5817.00,1.11
5816.00,1.11
5815.00,1.11
5814.00,1.11
5813.00,1.11
5812.00,1.11
5811.00,1.11
5810.00,1.11
5809.00,1.11
5808.00,1.11
5807.00,1.11
5806.00,1.11
5805.00,1.11
5804.00,1.11
5803.00,1.11
5802.00,1.11
5801.00,1.11
5800.00,1.11
5799.00,1.11
5798.00,1.11
5797.00,1.10
5796.00,1.10
5795.00,1.10
5794.00,1.10
5793.00,1.10
5792.00,1.09
5791.00,1.09
5790.00,1.09
5789.00,1.09
5788.00,1.09
5787.00,1.08
5786.00,1.08
5785.00,1.08
5784.00,1.08
5783.00,1.08
5782.00,1.07
5781.00,1.07
5780.00,1.07
5779.00,1.07
5778.00,1.07
5777.00,1.07
5776.00,1.07
5775.00,1.07
5774.00,1.07
5773.00,1.07
5772.00,1.07
5771.00,1.07
5770.00,1.07
5769.00,1.07
5768.00,1.07
5767.00,1.07
5766.00,1.07
5765.00,1.07
5764.00,1.07
5763.00,1.08
5762.00,1.08
5761.00,1.08
5760.00,1.08
5759.00,1.08
5758.00,1.09
5757.00,1.09
5756.00,1.09
5755.00,1.10
5754.00,1.10
5753.00,1.10
5752.00,1.10
5751.00,1.11
5750.00,1.11
5749.00,1.11
5748.00,1.12
5747.00,1.12
5746.00,1.12
5745.00,1.12
5744.00,1.13
5743.00,1.13
5742.00,1.13
5741.00,1.13
5740.00,1.13
5739.00,1.14
5738.00,1.14
5737.00,1.14
5736.00,1.14
5735.00,1.14
5734.00,1.15
5733.00,1.15
5732.00,1.15
5731.00,1.15
5730.00,1.15
5729.00,1.15
5728.00,1.15
5727.00,1.16
5726.00,1.16
5725.00,1.16
5724.00,1.16
5723.00,1.16
5722.00,1.16
5721.00,1.16
5720.00,1.16
5719.00,1.16
5718.00,1.16
5717.00,1.16
5716.00,1.16
5715.00,1.16
5714.00,1.16
5713.00,1.16
5712.00,1.16
5711.00,1.15
5710.00,1.15
5709.00,1.15
5708.00,1.15
5707.00,1.15
5706.00,1.15
5705.00,1.15
5704.00,1.15
5703.00,1.15
5702.00,1.15
5701.00,1.15
5700.00,1.15
5699.00,1.15
5698.00,1.14
5697.00,1.14
5696.00,1.14
5695.00,1.14
5694.00,1.14
5693.00,1.14
5692.00,1.14
5691.00,1.14
5690.00,1.14
5689.00,1.14
5688.00,1.13
5687.00,1.13
5686.00,1.13
5685.00,1.13
5684.00,1.13
5683.00,1.13
5682.00,1.13
5681.00,1.13
5680.00,1.13
5679.00,1.13
5678.00,1.12
5677.00,1.12
5676.00,1.12
5675.00,1.12
5674.00,1.12
5673.00,1.12
5672.00,1.12
5671.00,1.12
5670.00,1.12
5669.00,1.12
5668.00,1.12
5667.00,1.12
5666.00,1.13
5665.00,1.13
5664.00,1.13
5663.00,1.13
5662.00,1.13
5661.00,1.13
5660.00,1.13
5659.00,1.13
5658.00,1.13
5657.00,1.14
5656.00,1.14
5655.00,1.14
5654.00,1.14
5653.00,1.14
5652.00,1.14
5651.00,1.15
5650.00,1.15
5649.00,1.15
5648.00,1.15
5647.00,1.15
5646.00,1.15
5645.00,1.16
5644.00,1.16
5643.00,1.16
5642.00,1.16
5641.00,1.16
5640.00,1.16
5639.00,1.17
5638.00,1.17
5637.00,1.17
5636.00,1.17
5635.00,1.17
5634.00,1.17
5633.00,1.18
5632.00,1.18
5631.00,1.18
5630.00,1.18
5629.00,1.18
5628.00,1.18
5627.00,1.18
5626.00,1.18
5625.00,1.18
5624.00,1.19
5623.00,1.19
5622.00,1.19
5621.00,1.19
5620.00,1.19
5619.00,1.19
5618.00,1.19
5617.00,1.19
5616.00,1.19
5615.00,1.19
5614.00,1.20
5613.00,1.20
5612.00,1.20
5611.00,1.20
5610.00,1.20
5609.00,1.20
5608.00,1.20
5607.00,1.21
5606.00,1.21
5605.00,1.21
5604.00,1.21
5603.00,1.21
5602.00,1.21
5601.00,1.21
5600.00,1.22
5599.00,1.22
5598.00,1.22
5597.00,1.22
5596.00,1.22
5595.00,1.22
5594.00,1.22
5593.00,1.22
5592.00,1.23
5591.00,1.23
5590.00,1.23
5589.00,1.23
5588.00,1.23
5587.00,1.23
5586.00,1.23
5585.00,1.23
5584.00,1.24
5583.00,1.24
5582.00,1.24
5581.00,1.24
5580.00,1.24
5579.00,1.24
5578.00,1.24
5577.00,1.24
5576.00,1.25
5575.00,1.25
5574.00,1.25
5573.00,1.25
5572.00,1.25
5571.00,1.25
5570.00,1.25
5569.00,1.26
5568.00,1.26
5567.00,1.26
5566.00,1.26
5565.00,1.26
5564.00,1.26
5563.00,1.26
5562.00,1.26
5561.00,1.26
5560.00,1.26
5559.00,1.26
5558.00,1.26
5557.00,1.27
5556.00,1.27
5555.00,1.27
5554.00,1.27
5553.00,1.27
5552.00,1.27
5551.00,1.27
5550.00,1.27
5549.00,1.27
5548.00,1.27
5547.00,1.27
5546.00,1.27
5545.00,1.27
5544.00,1.28
5543.00,1.28
5542.00,1.28
5541.00,1.28
5540.00,1.28
5539.00,1.28
5538.00,1.28
5537.00,1.29
5536.00,1.29
5535.00,1.29
5534.00,1.29
5533.00,1.29
5532.00,1.29
5531.00,1.29
5530.00,1.29
5529.00,1.29
5528.00,1.29
5527.00,1.29
5526.00,1.29
5525.00,1.29
5524.00,1.29
5523.00,1.30
5522.00,1.30
5521.00,1.30
5520.00,1.30
5519.00,1.30
5518.00,1.30
5517.00,1.30
5516.00,1.30
5515.00,1.30
5514.00,1.30
5513.00,1.30
5512.00,1.30
5511.00,1.30
5510.00,1.30
5509.00,1.30
5508.00,1.30
5507.00,1.30
5506.00,1.30
5505.00,1.30
5504.00,1.30
5503.00,1.30
5502.00,1.30
5501.00,1.30
5500.00,1.30
5499.00,1.30
5498.00,1.30
5497.00,1.30
5496.00,1.30
5495.00,1.31
5494.00,1.31
5493.00,1.31
5492.00,1.31
5491.00,1.31
5490.00,1.31
5489.00,1.31
5488.00,1.31
5487.00,1.31
5486.00,1.32
5485.00,1.32
5484.00,1.32
5483.00,1.32
5482.00,1.32
5481.00,1.32
5480.00,1.32
5479.00,1.33
5478.00,1.33
5477.00,1.33
5476.00,1.33
5475.00,1.33
5474.00,1.33
5473.00,1.33
5472.00,1.33
5471.00,1.33
5470.00,1.33
5469.00,1.33
5468.00,1.33
5467.00,1.33
5466.00,1.33
5465.00,1.33
5464.00,1.33
5463.00,1.33
5462.00,1.33
5461.00,1.33
5460.00,1.33
5459.00,1.33
5458.00,1.33
5457.00,1.33
5456.00,1.33
5455.00,1.33
5454.00,1.33
5453.00,1.33
5452.00,1.33
5451.00,1.33
5450.00,1.33
5449.00,1.33
5448.00,1.33
5447.00,1.33
5446.00,1.33
5445.00,1.33
5444.00,1.33
5443.00,1.33
5442.00,1.33
5441.00,1.33
5440.00,1.33
5439.00,1.33
5438.00,1.33
5437.00,1.33
5436.00,1.33
5435.00,1.33
5434.00,1.33
5433.00,1.33
5432.00,1.33
5431.00,1.33
5430.00,1.33
5429.00,1.33
5428.00,1.33
5427.00,1.33
5426.00,1.33
5425.00,1.34
5424.00,1.34
5423.00,1.34
5422.00,1.34
5421.00,1.34
5420.00,1.34
5419.00,1.34
5418.00,1.34
5417.00,1.34
5416.00,1.34
5415.00,1.34
5414.00,1.34
5413.00,1.34
5412.00,1.34
5411.00,1.34
5410.00,1.34
5409.00,1.34
5408.00,1.34
5407.00,1.34
5406.00,1.34
5405.00,1.34
5404.00,1.34
5403.00,1.34
5402.00,1.34
5401.00,1.34
5400.00,1.34
5399.00,1.34
5398.00,1.34
5397.00,1.33
5396.00,1.33
5395.00,1.33
5394.00,1.33
5393.00,1.33
5392.00,1.33
5391.00,1.33
5390.00,1.33
5389.00,1.32
5388.00,1.32
5387.00,1.32
5386.00,1.32
5385.00,1.32
5384.00,1.31
5383.00,1.31
5382.00,1.31
5381.00,1.31
5380.00,1.30
5379.00,1.30
5378.00,1.30
5377.00,1.29
5376.00,1.29
5375.00,1.28
5374.00,1.28
5373.00,1.28
5372.00,1.27
5371.00,1.27
5370.00,1.27
5369.00,1.26
5368.00,1.26
5367.00,1.25
5366.00,1.25
5365.00,1.24
5364.00,1.24
5363.00,1.23
5362.00,1.23
5361.00,1.22
5360.00,1.22
5359.00,1.21
5358.00,1.20
5357.00,1.20
5356.00,1.19
5355.00,1.18
5354.00,1.18
5353.00,1.17
5352.00,1.16
5351.00,1.15
5350.00,1.14
5349.00,1.13
5348.00,1.12
5347.00,1.12
5346.00,1.11
5345.00,1.10
5344.00,1.09
5343.00,1.08
5342.00,1.07
5341.00,1.06
5340.00,1.06
5339.00,1.05
5338.00,1.04
5337.00,1.03
5336.00,1.02
5335.00,1.02
5334.00,1.01
5333.00,1.00
5332.00,0.99
5331.00,0.98
5330.00,0.98
5329.00,0.97
5328.00,0.96
5327.00,0.95
5326.00,0.94
5325.00,0.94
5324.00,0.93
5323.00,0.92
5322.00,0.91
5321.00,0.90
5320.00,0.90
5319.00,0.89
5318.00,0.88
5317.00,0.87
5316.00,0.87
5315.00,0.86
5314.00,0.85
5313.00,0.84
5312.00,0.84
5311.00,0.83
5310.00,0.82
5309.00,0.82
5308.00,0.81
5307.00,0.81
5306.00,0.80
5305.00,0.79
5304.00,0.79
5303.00,0.78
5302.00,0.78
5301.00,0.78
5300.00,0.77
5299.00,0.77
5298.00,0.76
5297.00,0.76
5296.00,0.76
5295.00,0.75
5294.00,0.75
5293.00,0.75
5292.00,0.75
5291.00,0.74
5290.00,0.74
5289.00,0.74
5288.00,0.74
5287.00,0.74
5286.00,0.73
5285.00,0.73
5284.00,0.73
5283.00,0.73
5282.00,0.73
5281.00,0.73
5280.00,0.73
5279.00,0.73
5278.00,0.72
5277.00,0.72
5276.00,0.72
5275.00,0.72
5274.00,0.72
5273.00,0.72
5272.00,0.72
5271.00,0.72
5270.00,0.72
5269.00,0.72
5268.00,0.72
5267.00,0.72
5266.00,0.71
5265.00,0.71
5264.00,0.71
5263.00,0.71
5262.00,0.71
5261.00,0.71
5260.00,0.71
5259.00,0.71
5258.00,0.71
5257.00,0.71
5256.00,0.71
5255.00,0.71
5254.00,0.71
5253.00,0.71
5252.00,0.71
5251.00,0.71
5250.00,0.71
5249.00,0.71
5248.00,0.71
5247.00,0.71
5246.00,0.71
5245.00,0.71
5244.00,0.71
5243.00,0.71
5242.00,0.71
5241.00,0.71
5240.00,0.71
5239.00,0.71
5238.00,0.71
5237.00,0.71
5236.00,0.71
5235.00,0.71
5234.00,0.71
5233.00,0.71
5232.00,0.71
5231.00,0.71
5230.00,0.71
5229.00,0.71
5228.00,0.71
5227.00,0.71
5226.00,0.71
5225.00,0.71
5224.00,0.71
5223.00,0.72
5222.00,0.72
5221.00,0.72
5220.00,0.72
5219.00,0.72
5218.00,0.72
5217.00,0.72
5216.00,0.72
5215.00,0.72
5214.00,0.72
5213.00,0.72
5212.00,0.72
5211.00,0.72
5210.00,0.72
5209.00,0.72
5208.00,0.72
5207.00,0.72
5206.00,0.72
5205.00,0.72
5204.00,0.72
5203.00,0.72
5202.00,0.72
5201.00,0.72
5200.00,0.72
5199.00,0.72
5198.00,0.72
5197.00,0.72
5196.00,0.73
5195.00,0.73
5194.00,0.73
5193.00,0.73
5192.00,0.73
5191.00,0.73
5190.00,0.73
5189.00,0.73
5188.00,0.73
5187.00,0.73
5186.00,0.73
5185.00,0.74
5184.00,0.74
5183.00,0.74
5182.00,0.74
5181.00,0.74
5180.00,0.74
5179.00,0.74
5178.00,0.74
5177.00,0.74
5176.00,0.74
5175.00,0.74
5174.00,0.74
5173.00,0.74
5172.00,0.74
5171.00,0.74
5170.00,0.74
5169.00,0.74
5168.00,0.74
5167.00,0.74
5166.00,0.74
5165.00,0.74
5164.00,0.74
5163.00,0.74
5162.00,0.74
5161.00,0.74
5160.00,0.74
5159.00,0.74
5158.00,0.74
5157.00,0.74
5156.00,0.74
5155.00,0.74
5154.00,0.74
5153.00,0.74
5152.00,0.74
5151.00,0.74
5150.00,0.74
5149.00,0.75
5148.00,0.75
5147.00,0.75
5146.00,0.75
5145.00,0.75
5144.00,0.75
5143.00,0.75
5142.00,0.75
5141.00,0.75
5140.00,0.75
5139.00,0.75
5138.00,0.75
5137.00,0.75
5136.00,0.75
5135.00,0.75
5134.00,0.76
5133.00,0.76
5132.00,0.76
5131.00,0.76
5130.00,0.76
5129.00,0.76
5128.00,0.76
5127.00,0.76
5126.00,0.76
5125.00,0.76
5124.00,0.76
5123.00,0.76
5122.00,0.76
5121.00,0.76
5120.00,0.76
5119.00,0.76
5118.00,0.76
5117.00,0.76
5116.00,0.76
5115.00,0.76
5114.00,0.76
5113.00,0.76
5112.00,0.76
5111.00,0.76
5110.00,0.76
5109.00,0.77
5108.00,0.77
5107.00,0.77
5106.00,0.77
5105.00,0.77
5104.00,0.77
5103.00,0.77
5102.00,0.77
5101.00,0.77
5100.00,0.77
5099.00,0.77
5098.00,0.77
5097.00,0.77
5096.00,0.77
5095.00,0.77
5094.00,0.77
5093.00,0.78
5092.00,0.78
5091.00,0.78
5090.00,0.78
5089.00,0.78
5088.00,0.78
5087.00,0.78
5086.00,0.78
5085.00,0.78
5084.00,0.78
5083.00,0.78
5082.00,0.78
5081.00,0.78
5080.00,0.78
5079.00,0.78
5078.00,0.78
5077.00,0.78
5076.00,0.78
5075.00,0.78
5074.00,0.78
5073.00,0.79
5072.00,0.79
5071.00,0.79
5070.00,0.79
5069.00,0.79
5068.00,0.79
5067.00,0.79
5066.00,0.79
5065.00,0.79
5064.00,0.79
5063.00,0.79
5062.00,0.79
5061.00,0.79
5060.00,0.80
5059.00,0.80
5058.00,0.80
5057.00,0.80
5056.00,0.80
5055.00,0.80
5054.00,0.80
5053.00,0.80
5052.00,0.80
5051.00,0.80
5050.00,0.80
5049.00,0.80
5048.00,0.80
5047.00,0.80
5046.00,0.80
5045.00,0.80
5044.00,0.80
5043.00,0.80
5042.00,0.80
5041.00,0.80
5040.00,0.80
5039.00,0.80
5038.00,0.80
5037.00,0.80
5036.00,0.80
5035.00,0.80
5034.00,0.80
5033.00,0.81
5032.00,0.81
5031.00,0.81
5030.00,0.81
5029.00,0.81
5028.00,0.81
5027.00,0.81
5026.00,0.81
5025.00,0.81
5024.00,0.81
5023.00,0.81
5022.00,0.82
5021.00,0.82
5020.00,0.82
5019.00,0.82
5018.00,0.82
5017.00,0.82
5016.00,0.82
5015.00,0.82
5014.00,0.82
5013.00,0.83
5012.00,0.83
5011.00,0.83
5010.00,0.83
5009.00,0.83
5008.00,0.83
5007.00,0.83
5006.00,0.83
5005.00,0.83
5004.00,0.83
5003.00,0.83
5002.00,0.83
5001.00,0.83
5000.00,0.83
4999.00,0.83
4998.00,0.84
4997.00,0.84
4996.00,0.84
4995.00,0.84
4994.00,0.84
4993.00,0.84
4992.00,0.84
4991.00,0.84
4990.00,0.84
4989.00,0.84
4988.00,0.84
4987.00,0.85
4986.00,0.85
4985.00,0.85
4984.00,0.85
4983.00,0.85
4982.00,0.85
4981.00,0.85
4980.00,0.85
4979.00,0.85
4978.00,0.85
4977.00,0.85
4976.00,0.85
4975.00,0.85
4974.00,0.86
4973.00,0.86
4972.00,0.86
4971.00,0.86
4970.00,0.86
4969.00,0.86
4968.00,0.86
4967.00,0.86
4966.00,0.86
4965.00,0.86
4964.00,0.86
4963.00,0.86
4962.00,0.86
4961.00,0.87
4960.00,0.87
4959.00,0.87
4958.00,0.87
4957.00,0.87
4956.00,0.87
4955.00,0.87
4954.00,0.87
4953.00,0.87
4952.00,0.87
4951.00,0.88
4950.00,0.88
4949.00,0.88
4948.00,0.88
4947.00,0.88
4946.00,0.88
4945.00,0.88
4944.00,0.88
4943.00,0.88
4942.00,0.88
4941.00,0.88
4940.00,0.88
4939.00,0.88
4938.00,0.88
4937.00,0.88
4936.00,0.89
4935.00,0.89
4934.00,0.89
4933.00,0.89
4932.00,0.89
4931.00,0.89
4930.00,0.89
4929.00,0.89
4928.00,0.89
4927.00,0.89
4926.00,0.89
4925.00,0.89
4924.00,0.90
4923.00,0.90
4922.00,0.90
4921.00,0.90
4920.00,0.90
4919.00,0.90
4918.00,0.90
4917.00,0.90
4916.00,0.90
4915.00,0.90
4914.00,0.90
4913.00,0.90
4912.00,0.91
4911.00,0.91
4910.00,0.91
4909.00,0.91
4908.00,0.91
4907.00,0.91
4906.00,0.91
4905.00,0.91
4904.00,0.91
4903.00,0.91
4902.00,0.91
4901.00,0.91
4900.00,0.91
4899.00,0.91
4898.00,0.91
4897.00,0.91
4896.00,0.91
4895.00,0.91
4894.00,0.91
4893.00,0.91
4892.00,0.91
4891.00,0.91
4890.00,0.91
4889.00,0.91
4888.00,0.91
4887.00,0.92
4886.00,0.92
4885.00,0.92
4884.00,0.92
4883.00,0.92
4882.00,0.92
4881.00,0.92
4880.00,0.92
4879.00,0.92
4878.00,0.92
4877.00,0.92
4876.00,0.92
4875.00,0.92
4874.00,0.92
4873.00,0.92
4872.00,0.92
4871.00,0.92
4870.00,0.92
4869.00,0.92
4868.00,0.92
4867.00,0.93
4866.00,0.93
4865.00,0.93
4864.00,0.93
4863.00,0.93
4862.00,0.93
4861.00,0.93
4860.00,0.93
4859.00,0.93
4858.00,0.93
4857.00,0.93
4856.00,0.93
4855.00,0.93
4854.00,0.93
4853.00,0.93
4852.00,0.93
4851.00,0.93
4850.00,0.94
4849.00,0.94
4848.00,0.94
4847.00,0.94
4846.00,0.94
4845.00,0.94
4844.00,0.94
4843.00,0.94
4842.00,0.94
4841.00,0.94
4840.00,0.94
4839.00,0.94
4838.00,0.94
4837.00,0.94
4836.00,0.94
4835.00,0.94
4834.00,0.95
4833.00,0.95
4832.00,0.95
4831.00,0.95
4830.00,0.95
4829.00,0.95
4828.00,0.95
4827.00,0.95
4826.00,0.95
4825.00,0.95
4824.00,0.96
4823.00,0.96
4822.00,0.96
4821.00,0.96
4820.00,0.96
4819.00,0.96
4818.00,0.96
4817.00,0.96
4816.00,0.96
4815.00,0.96
4814.00,0.96
4813.00,0.96
4812.00,0.96
4811.00,0.96
4810.00,0.97
4809.00,0.97
4808.00,0.97
4807.00,0.97
4806.00,0.97
4805.00,0.97
4804.00,0.97
4803.00,0.97
4802.00,0.97
4801.00,0.97
4800.00,0.97
4799.00,0.98
4798.00,0.98
4797.00,0.98
4796.00,0.98
4795.00,0.98
4794.00,0.98
4793.00,0.98
4792.00,0.99
4791.00,0.99
4790.00,0.99
4789.00,0.99
4788.00,0.99
4787.00,0.99
4786.00,0.99
4785.00,1.00
4784.00,1.00
4783.00,1.00
4782.00,1.00
4781.00,1.00
4780.00,1.00
4779.00,1.00
4778.00,1.00
4777.00,1.00
4776.00,1.01
4775.00,1.01
4774.00,1.01
4773.00,1.01
4772.00,1.01
4771.00,1.01
4770.00,1.01
4769.00,1.01
4768.00,1.01
4767.00,1.01
4766.00,1.02
4765.00,1.02
4764.00,1.02
4763.00,1.02
4762.00,1.02
4761.00,1.02
4760.00,1.02
4759.00,1.02
4758.00,1.03
4757.00,1.03
4756.00,1.03
4755.00,1.03
4754.00,1.03
4753.00,1.03
4752.00,1.03
4751.00,1.03
4750.00,1.04
4749.00,1.04
4748.00,1.04
4747.00,1.04
4746.00,1.04
4745.00,1.04
4744.00,1.05
4743.00,1.05
4742.00,1.05
4741.00,1.05
4740.00,1.05
4739.00,1.05
4738.00,1.06
4737.00,1.06
4736.00,1.06
4735.00,1.06
4734.00,1.06
4733.00,1.07
4732.00,1.07
4731.00,1.07
4730.00,1.07
4729.00,1.07
4728.00,1.07
4727.00,1.07
4726.00,1.08
4725.00,1.08
4724.00,1.08
4723.00,1.08
4722.00,1.08
4721.00,1.08
4720.00,1.08
4719.00,1.08
4718.00,1.08
4717.00,1.09
4716.00,1.09
4715.00,1.09
4714.00,1.09
4713.00,1.09
4712.00,1.09
4711.00,1.09
4710.00,1.09
4709.00,1.09
4708.00,1.09
4707.00,1.10
4706.00,1.10
4705.00,1.10
4704.00,1.10
4703.00,1.10
4702.00,1.10
4701.00,1.10
4700.00,1.10
4699.00,1.11
4698.00,1.11
4697.00,1.11
4696.00,1.11
4695.00,1.11
4694.00,1.11
4693.00,1.12
4692.00,1.12
4691.00,1.12
4690.00,1.12
4689.00,1.12
4688.00,1.13
4687.00,1.13
4686.00,1.13
4685.00,1.13
4684.00,1.13
4683.00,1.13
4682.00,1.14
4681.00,1.14
4680.00,1.14
4679.00,1.14
4678.00,1.14
4677.00,1.14
4676.00,1.14
4675.00,1.14
4674.00,1.14
4673.00,1.15
4672.00,1.15
4671.00,1.15
4670.00,1.15
4669.00,1.15
4668.00,1.15
4667.00,1.15
4666.00,1.15
4665.00,1.15
4664.00,1.16
4663.00,1.16
4662.00,1.16
4661.00,1.16
4660.00,1.16
4659.00,1.16
4658.00,1.16
4657.00,1.16
4656.00,1.16
4655.00,1.16
4654.00,1.16
4653.00,1.17
4652.00,1.17
4651.00,1.17
4650.00,1.17
4649.00,1.17
4648.00,1.17
4647.00,1.17
4646.00,1.17
4645.00,1.17
4644.00,1.17
4643.00,1.18
4642.00,1.18
4641.00,1.18
4640.00,1.18
4639.00,1.18
4638.00,1.18
4637.00,1.18
4636.00,1.18
4635.00,1.18
4634.00,1.19
4633.00,1.19
4632.00,1.19
4631.00,1.19
4630.00,1.19
4629.00,1.19
4628.00,1.19
4627.00,1.19
4626.00,1.19
4625.00,1.19
4624.00,1.19
4623.00,1.19
4622.00,1.20
4621.00,1.20
4620.00,1.20
4619.00,1.20
4618.00,1.20
4617.00,1.20
4616.00,1.20
4615.00,1.20
4614.00,1.20
4613.00,1.20
4612.00,1.21
4611.00,1.21
4610.00,1.21
4609.00,1.21
4608.00,1.21
4607.00,1.21
4606.00,1.21
4605.00,1.21
4604.00,1.21
4603.00,1.21
4602.00,1.21
4601.00,1.22
4600.00,1.22
4599.00,1.22
4598.00,1.22
4597.00,1.22
4596.00,1.22
4595.00,1.22
4594.00,1.22
4593.00,1.22
4592.00,1.23
4591.00,1.23
4590.00,1.23
4589.00,1.23
4588.00,1.23
4587.00,1.23
4586.00,1.23
4585.00,1.23
4584.00,1.23
4583.00,1.24
4582.00,1.24
4581.00,1.24
4580.00,1.24
4579.00,1.24
4578.00,1.24
4577.00,1.24
4576.00,1.24
4575.00,1.24
4574.00,1.24
4573.00,1.25
4572.00,1.25
4571.00,1.25
4570.00,1.25
4569.00,1.25
4568.00,1.25
4567.00,1.25
4566.00,1.25
4565.00,1.25
4564.00,1.25
4563.00,1.25
4562.00,1.25
4561.00,1.25
4560.00,1.26
4559.00,1.26
4558.00,1.26
4557.00,1.26
4556.00,1.26
4555.00,1.26
4554.00,1.26
4553.00,1.26
4552.00,1.26
4551.00,1.26
4550.00,1.26
4549.00,1.26
4548.00,1.26
4547.00,1.26
4546.00,1.26
4545.00,1.26
4544.00,1.26
4543.00,1.26
4542.00,1.27
4541.00,1.27
4540.00,1.27
4539.00,1.27
4538.00,1.27
4537.00,1.27
4536.00,1.27
4535.00,1.27
4534.00,1.27
4533.00,1.27
4532.00,1.27
4531.00,1.27
4530.00,1.27
4529.00,1.27
4528.00,1.27
4527.00,1.27
4526.00,1.27
4525.00,1.27
4524.00,1.27
4523.00,1.28
4522.00,1.28
4521.00,1.28
4520.00,1.28
4519.00,1.28
4518.00,1.28
4517.00,1.28
4516.00,1.28
4515.00,1.28
4514.00,1.28
4513.00,1.28
4512.00,1.28
4511.00,1.28
4510.00,1.28
4509.00,1.28
4508.00,1.28
4507.00,1.28
4506.00,1.28
4505.00,1.28
4504.00,1.27
4503.00,1.27
4502.00,1.27
4501.00,1.27
4500.00,1.27
4499.00,1.27
4498.00,1.27
4497.00,1.27
4496.00,1.27
4495.00,1.27
4494.00,1.27
4493.00,1.27
4492.00,1.27
4491.00,1.27
4490.00,1.27
4489.00,1.27
4488.00,1.27
4487.00,1.27
4486.00,1.27
4485.00,1.27
4484.00,1.26
4483.00,1.26
4482.00,1.26
4481.00,1.26
4480.00,1.26
4479.00,1.26
4478.00,1.26
4477.00,1.26
4476.00,1.25
4475.00,1.25
4474.00,1.25
4473.00,1.25
4472.00,1.25
4471.00,1.25
4470.00,1.24
4469.00,1.24
4468.00,1.24
4467.00,1.24
4466.00,1.24
4465.00,1.23
4464.00,1.23
4463.00,1.23
4462.00,1.23
4461.00,1.22
4460.00,1.22
4459.00,1.22
4458.00,1.21
4457.00,1.21
4456.00,1.21
4455.00,1.20
4454.00,1.20
4453.00,1.20
4452.00,1.19
4451.00,1.19
4450.00,1.19
4449.00,1.18
4448.00,1.18
4447.00,1.18
4446.00,1.17
4445.00,1.17
4444.00,1.17
4443.00,1.16
4442.00,1.16
4441.00,1.16
4440.00,1.15
4439.00,1.15
4438.00,1.15
4437.00,1.15
4436.00,1.14
4435.00,1.14
4434.00,1.13
4433.00,1.13
4432.00,1.13
4431.00,1.12
4430.00,1.12
4429.00,1.12
4428.00,1.12
4427.00,1.11
4426.00,1.11
4425.00,1.11
4424.00,1.10
4423.00,1.10
4422.00,1.10
4421.00,1.10
4420.00,1.10
4419.00,1.10
4418.00,1.10
4417.00,1.10
4416.00,1.09
4415.00,1.09
4414.00,1.09
4413.00,1.10
4412.00,1.10
4411.00,1.10
4410.00,1.10
4409.00,1.10
4408.00,1.10
4407.00,1.10
4406.00,1.10
4405.00,1.10
4404.00,1.10
4403.00,1.10
4402.00,1.10
4401.00,1.10
4400.00,1.10
4399.00,1.11
4398.00,1.11
4397.00,1.11
4396.00,1.11
4395.00,1.11
4394.00,1.11
4393.00,1.11
4392.00,1.11
4391.00,1.11
4390.00,1.11
4389.00,1.11
4388.00,1.12
4387.00,1.12
4386.00,1.12
4385.00,1.12
4384.00,1.12
4383.00,1.12
4382.00,1.12
4381.00,1.13
4380.00,1.13
4379.00,1.13
4378.00,1.13
4377.00,1.13
4376.00,1.13
4375.00,1.13
4374.00,1.14
4373.00,1.14
4372.00,1.14
4371.00,1.14
4370.00,1.14
4369.00,1.14
4368.00,1.14
4367.00,1.14
4366.00,1.14
4365.00,1.14
4364.00,1.14
4363.00,1.14
4362.00,1.14
4361.00,1.14
4360.00,1.14
4359.00,1.14
4358.00,1.14
4357.00,1.14
4356.00,1.14
4355.00,1.14
4354.00,1.14
4353.00,1.14
4352.00,1.14
4351.00,1.14
4350.00,1.14
4349.00,1.14
4348.00,1.14
4347.00,1.14
4346.00,1.14
4345.00,1.14
4344.00,1.14
4343.00,1.14
4342.00,1.14
4341.00,1.14
4340.00,1.14
4339.00,1.14
4338.00,1.15
4337.00,1.15
4336.00,1.15
4335.00,1.15
4334.00,1.15
4333.00,1.15
4332.00,1.15
4331.00,1.15
4330.00,1.15
4329.00,1.16
4328.00,1.16
4327.00,1.16
4326.00,1.16
4325.00,1.16
4324.00,1.16
4323.00,1.16
4322.00,1.16
4321.00,1.16
4320.00,1.16
4319.00,1.16
4318.00,1.17
4317.00,1.17
4316.00,1.17
4315.00,1.17
4314.00,1.17
4313.00,1.17
4312.00,1.18
4311.00,1.18
4310.00,1.18
4309.00,1.18
4308.00,1.18
4307.00,1.19
4306.00,1.19
4305.00,1.19
4304.00,1.19
4303.00,1.19
4302.00,1.20
4301.00,1.20
4300.00,1.20
4299.00,1.20
4298.00,1.20
4297.00,1.20
4296.00,1.20
4295.00,1.20
4294.00,1.20
4293.00,1.21
4292.00,1.21
4291.00,1.21
4290.00,1.21
4289.00,1.21
4288.00,1.21
4287.00,1.21
4286.00,1.21
4285.00,1.21
4284.00,1.21
4283.00,1.21
4282.00,1.21
4281.00,1.21
4280.00,1.21
4279.00,1.21
4278.00,1.21
4277.00,1.21
4276.00,1.21
4275.00,1.21
4274.00,1.21
4273.00,1.21
4272.00,1.21
4271.00,1.21
4270.00,1.21
4269.00,1.21
4268.00,1.21
4267.00,1.21
4266.00,1.21
4265.00,1.21
4264.00,1.21
4263.00,1.21
4262.00,1.21
4261.00,1.21
4260.00,1.21
4259.00,1.21
4258.00,1.21
4257.00,1.21
4256.00,1.21
4255.00,1.21
4254.00,1.21
4253.00,1.21
4252.00,1.21
4251.00,1.21
4250.00,1.21
4249.00,1.21
4248.00,1.21
4247.00,1.22
4246.00,1.22
4245.00,1.22
4244.00,1.22
4243.00,1.22
4242.00,1.22
4241.00,1.22
4240.00,1.22
4239.00,1.22
4238.00,1.22
4237.00,1.22
4236.00,1.23
4235.00,1.23
4234.00,1.23
4233.00,1.23
4232.00,1.23
4231.00,1.23
4230.00,1.23
4229.00,1.23
4228.00,1.23
4227.00,1.23
4226.00,1.23
4225.00,1.23
4224.00,1.24
4223.00,1.24
4222.00,1.24
4221.00,1.24
4220.00,1.24
4219.00,1.24
4218.00,1.24
4217.00,1.24
4216.00,1.24
4215.00,1.25
4214.00,1.25
4213.00,1.25
4212.00,1.25
4211.00,1.25
4210.00,1.25
4209.00,1.25
4208.00,1.26
4207.00,1.26
4206.00,1.26
4205.00,1.26
4204.00,1.26
4203.00,1.26
4202.00,1.26
4201.00,1.26
4200.00,1.26
4199.00,1.26
4198.00,1.26
4197.00,1.26
4196.00,1.26
4195.00,1.26
4194.00,1.26
4193.00,1.26
4192.00,1.26
4191.00,1.26
4190.00,1.26
4189.00,1.26
4188.00,1.26
4187.00,1.26
4186.00,1.26
4185.00,1.26
4184.00,1.26
4183.00,1.26
4182.00,1.26
4181.00,1.26
4180.00,1.26
4179.00,1.26
4178.00,1.26
4177.00,1.26
4176.00,1.26
4175.00,1.26
4174.00,1.26
4173.00,1.26
4172.00,1.26
4171.00,1.26
4170.00,1.26
4169.00,1.27
4168.00,1.27
4167.00,1.27
4166.00,1.27
4165.00,1.27
4164.00,1.27
4163.00,1.27
4162.00,1.27
4161.00,1.27
4160.00,1.27
4159.00,1.27
4158.00,1.27
4157.00,1.27
4156.00,1.27
4155.00,1.28
4154.00,1.28
4153.00,1.28
4152.00,1.28
4151.00,1.28
4150.00,1.28
4149.00,1.28
4148.00,1.28
4147.00,1.28
4146.00,1.28
4145.00,1.29
4144.00,1.29
4143.00,1.29
4142.00,1.29
4141.00,1.29
4140.00,1.29
4139.00,1.29
4138.00,1.29
4137.00,1.29
4136.00,1.29
4135.00,1.29
4134.00,1.29
4133.00,1.29
4132.00,1.29
4131.00,1.29
4130.00,1.29
4129.00,1.29
4128.00,1.29
4127.00,1.29
4126.00,1.29
4125.00,1.29
4124.00,1.29
4123.00,1.29
4122.00,1.29
4121.00,1.29
4120.00,1.29
4119.00,1.29
4118.00,1.29
4117.00,1.29
4116.00,1.29
4115.00,1.29
4114.00,1.29
4113.00,1.29
4112.00,1.29
4111.00,1.29
4110.00,1.30
4109.00,1.30
4108.00,1.30
4107.00,1.30
4106.00,1.30
4105.00,1.30
4104.00,1.30
4103.00,1.30
4102.00,1.30
4101.00,1.30
4100.00,1.30
4099.00,1.29
4098.00,1.29
4097.00,1.29
4096.00,1.29
4095.00,1.29
4094.00,1.29
4093.00,1.29
4092.00,1.29
4091.00,1.29
4090.00,1.30
4089.00,1.30
4088.00,1.30
4087.00,1.30
4086.00,1.30
4085.00,1.30
4084.00,1.30
4083.00,1.30
4082.00,1.31
4081.00,1.31
4080.00,1.31
4079.00,1.31
4078.00,1.31
4077.00,1.31
4076.00,1.31
4075.00,1.31
4074.00,1.31
4073.00,1.31
4072.00,1.31
4071.00,1.31
4070.00,1.31
4069.00,1.31
4068.00,1.31
4067.00,1.31
4066.00,1.31
4065.00,1.31
4064.00,1.31
4063.00,1.31
4062.00,1.31
4061.00,1.31
4060.00,1.31
4059.00,1.31
4058.00,1.31
4057.00,1.31
4056.00,1.31
4055.00,1.31
4054.00,1.31
4053.00,1.31
4052.00,1.31
4051.00,1.31
4050.00,1.31
4049.00,1.31
4048.00,1.31
4047.00,1.31
4046.00,1.31
4045.00,1.31
4044.00,1.32
4043.00,1.32
4042.00,1.32
4041.00,1.32
4040.00,1.32
4039.00,1.32
4038.00,1.32
4037.00,1.33
4036.00,1.33
4035.00,1.33
4034.00,1.33
4033.00,1.33
4032.00,1.33
4031.00,1.33
4030.00,1.33
4029.00,1.33
4028.00,1.33
4027.00,1.33
4026.00,1.33
4025.00,1.33
4024.00,1.33
4023.00,1.33
4022.00,1.33
4021.00,1.33
4020.00,1.33
4019.00,1.33
4018.00,1.33
4017.00,1.33
4016.00,1.33
4015.00,1.33
4014.00,1.33
4013.00,1.33
4012.00,1.33
4011.00,1.33
4010.00,1.33
4009.00,1.34
4008.00,1.34
4007.00,1.34
4006.00,1.34
4005.00,1.34
4004.00,1.34
4003.00,1.34
4002.00,1.34
4001.00,1.34
4000.00,1.34
