创建为新数据集,样品 610 用户 Administrator 日期 星期一, 七月 16 2018
cm-1,%T
10000.00,1.53
9999.00,1.53
9998.00,1.53
9997.00,1.53
9996.00,1.53
9995.00,1.53
9994.00,1.53
9993.00,1.53
9992.00,1.53
9991.00,1.53
9990.00,1.53
9989.00,1.53
9988.00,1.53
9987.00,1.53
9986.00,1.53
9985.00,1.53
9984.00,1.53
9983.00,1.53
9982.00,1.53
9981.00,1.53
9980.00,1.53
9979.00,1.53
9978.00,1.53
9977.00,1.53
9976.00,1.53
9975.00,1.53
9974.00,1.53
9973.00,1.53
9972.00,1.53
9971.00,1.53
9970.00,1.53
9969.00,1.53
9968.00,1.53
9967.00,1.52
9966.00,1.52
9965.00,1.52
9964.00,1.52
9963.00,1.52
9962.00,1.52
9961.00,1.51
9960.00,1.51
9959.00,1.51
9958.00,1.51
9957.00,1.51
9956.00,1.51
9955.00,1.50
9954.00,1.50
9953.00,1.50
9952.00,1.50
9951.00,1.50
9950.00,1.49
9949.00,1.49
9948.00,1.49
9947.00,1.49
9946.00,1.49
9945.00,1.49
9944.00,1.49
9943.00,1.48
9942.00,1.48
9941.00,1.48
9940.00,1.48
9939.00,1.48
9938.00,1.48
9937.00,1.49
9936.00,1.49
9935.00,1.49
9934.00,1.49
9933.00,1.49
9932.00,1.50
9931.00,1.50
9930.00,1.50
9929.00,1.50
9928.00,1.51
9927.00,1.51
9926.00,1.51
9925.00,1.51
9924.00,1.52
9923.00,1.52
9922.00,1.52
9921.00,1.52
9920.00,1.52
9919.00,1.52
9918.00,1.52
9917.00,1.52
9916.00,1.52
9915.00,1.52
9914.00,1.52
9913.00,1.52
9912.00,1.52
9911.00,1.52
9910.00,1.52
9909.00,1.52
9908.00,1.52
9907.00,1.52
9906.00,1.52
9905.00,1.52
9904.00,1.51
9903.00,1.51
9902.00,1.51
9901.00,1.51
9900.00,1.51
9899.00,1.51
9898.00,1.51
9897.00,1.51
9896.00,1.51
9895.00,1.51
9894.00,1.51
9893.00,1.51
9892.00,1.51
9891.00,1.51
9890.00,1.51
9889.00,1.51
9888.00,1.51
9887.00,1.51
9886.00,1.51
9885.00,1.51
9884.00,1.51
9883.00,1.51
9882.00,1.51
9881.00,1.51
9880.00,1.51
9879.00,1.51
9878.00,1.52
9877.00,1.52
9876.00,1.52
9875.00,1.52
9874.00,1.52
9873.00,1.52
9872.00,1.52
9871.00,1.52
9870.00,1.52
9869.00,1.52
9868.00,1.52
9867.00,1.52
9866.00,1.52
9865.00,1.52
9864.00,1.52
9863.00,1.52
9862.00,1.52
9861.00,1.52
9860.00,1.52
9859.00,1.52
9858.00,1.52
9857.00,1.52
9856.00,1.52
9855.00,1.52
9854.00,1.52
9853.00,1.52
9852.00,1.52
9851.00,1.52
9850.00,1.52
9849.00,1.52
9848.00,1.52
9847.00,1.52
9846.00,1.52
9845.00,1.52
9844.00,1.51
9843.00,1.51
9842.00,1.51
9841.00,1.51
9840.00,1.51
9839.00,1.51
9838.00,1.51
9837.00,1.51
9836.00,1.51
9835.00,1.51
9834.00,1.51
9833.00,1.51
9832.00,1.51
9831.00,1.51
9830.00,1.51
9829.00,1.51
9828.00,1.51
9827.00,1.51
9826.00,1.51
9825.00,1.52
9824.00,1.52
9823.00,1.52
9822.00,1.52
9821.00,1.52
9820.00,1.52
9819.00,1.52
9818.00,1.52
9817.00,1.52
9816.00,1.52
9815.00,1.52
9814.00,1.51
9813.00,1.51
9812.00,1.51
9811.00,1.51
9810.00,1.51
9809.00,1.51
9808.00,1.51
9807.00,1.51
9806.00,1.51
9805.00,1.51
9804.00,1.51
9803.00,1.51
9802.00,1.51
9801.00,1.51
9800.00,1.51
9799.00,1.51
9798.00,1.51
9797.00,1.51
9796.00,1.51
9795.00,1.51
9794.00,1.51
9793.00,1.51
9792.00,1.51
9791.00,1.51
9790.00,1.51
9789.00,1.51
9788.00,1.52
9787.00,1.52
9786.00,1.52
9785.00,1.52
9784.00,1.52
9783.00,1.52
9782.00,1.52
9781.00,1.52
9780.00,1.52
9779.00,1.52
9778.00,1.51
9777.00,1.51
9776.00,1.51
9775.00,1.51
9774.00,1.51
9773.00,1.51
9772.00,1.51
9771.00,1.51
9770.00,1.51
9769.00,1.51
9768.00,1.51
9767.00,1.51
9766.00,1.51
9765.00,1.51
9764.00,1.51
9763.00,1.51
9762.00,1.51
9761.00,1.51
9760.00,1.51
9759.00,1.51
9758.00,1.51
9757.00,1.51
9756.00,1.51
9755.00,1.52
9754.00,1.52
9753.00,1.52
9752.00,1.52
9751.00,1.52
9750.00,1.52
9749.00,1.52
9748.00,1.52
9747.00,1.52
9746.00,1.52
9745.00,1.53
9744.00,1.53
9743.00,1.53
9742.00,1.53
9741.00,1.53
9740.00,1.53
9739.00,1.53
9738.00,1.53
9737.00,1.53
9736.00,1.53
9735.00,1.53
9734.00,1.53
9733.00,1.53
9732.00,1.53
9731.00,1.53
9730.00,1.53
9729.00,1.53
9728.00,1.53
9727.00,1.52
9726.00,1.52
9725.00,1.52
9724.00,1.52
9723.00,1.52
9722.00,1.51
9721.00,1.51
9720.00,1.51
9719.00,1.51
9718.00,1.50
9717.00,1.50
9716.00,1.50
9715.00,1.50
9714.00,1.50
9713.00,1.50
9712.00,1.50
9711.00,1.49
9710.00,1.49
9709.00,1.49
9708.00,1.50
9707.00,1.50
9706.00,1.50
9705.00,1.50
9704.00,1.50
9703.00,1.50
9702.00,1.51
9701.00,1.51
9700.00,1.51
9699.00,1.51
9698.00,1.51
9697.00,1.52
9696.00,1.52
9695.00,1.52
9694.00,1.52
9693.00,1.52
9692.00,1.52
9691.00,1.52
9690.00,1.52
9689.00,1.52
9688.00,1.52
9687.00,1.51
9686.00,1.51
9685.00,1.51
9684.00,1.51
9683.00,1.51
9682.00,1.51
9681.00,1.51
9680.00,1.51
9679.00,1.51
9678.00,1.51
9677.00,1.51
9676.00,1.51
9675.00,1.52
9674.00,1.52
9673.00,1.52
9672.00,1.52
9671.00,1.52
9670.00,1.52
9669.00,1.53
9668.00,1.53
9667.00,1.53
9666.00,1.53
9665.00,1.53
9664.00,1.53
9663.00,1.53
9662.00,1.53
9661.00,1.53
9660.00,1.53
9659.00,1.53
9658.00,1.53
9657.00,1.53
9656.00,1.53
9655.00,1.53
9654.00,1.53
9653.00,1.53
9652.00,1.53
9651.00,1.52
9650.00,1.52
9649.00,1.52
9648.00,1.52
9647.00,1.52
9646.00,1.52
9645.00,1.52
9644.00,1.52
9643.00,1.51
9642.00,1.51
9641.00,1.51
9640.00,1.51
9639.00,1.51
9638.00,1.51
9637.00,1.51
9636.00,1.51
9635.00,1.51
9634.00,1.51
9633.00,1.51
9632.00,1.51
9631.00,1.51
9630.00,1.51
9629.00,1.51
9628.00,1.51
9627.00,1.51
9626.00,1.51
9625.00,1.51
9624.00,1.51
9623.00,1.51
9622.00,1.51
9621.00,1.51
9620.00,1.51
9619.00,1.51
9618.00,1.51
9617.00,1.52
9616.00,1.52
9615.00,1.52
9614.00,1.52
9613.00,1.52
9612.00,1.52
9611.00,1.52
9610.00,1.52
9609.00,1.51
9608.00,1.51
9607.00,1.51
9606.00,1.51
9605.00,1.51
9604.00,1.51
9603.00,1.51
9602.00,1.51
9601.00,1.51
9600.00,1.50
9599.00,1.50
9598.00,1.50
9597.00,1.50
9596.00,1.50
9595.00,1.50
9594.00,1.50
9593.00,1.50
9592.00,1.50
9591.00,1.50
9590.00,1.51
9589.00,1.51
9588.00,1.51
9587.00,1.51
9586.00,1.51
9585.00,1.51
9584.00,1.51
9583.00,1.52
9582.00,1.52
9581.00,1.52
9580.00,1.52
9579.00,1.52
9578.00,1.52
9577.00,1.52
9576.00,1.53
9575.00,1.53
9574.00,1.53
9573.00,1.53
9572.00,1.53
9571.00,1.53
9570.00,1.53
9569.00,1.53
9568.00,1.53
9567.00,1.53
9566.00,1.53
9565.00,1.53
9564.00,1.53
9563.00,1.53
9562.00,1.53
9561.00,1.53
9560.00,1.53
9559.00,1.53
9558.00,1.53
9557.00,1.53
9556.00,1.53
9555.00,1.53
9554.00,1.53
9553.00,1.53
9552.00,1.53
9551.00,1.53
9550.00,1.53
9549.00,1.53
9548.00,1.52
9547.00,1.52
9546.00,1.52
9545.00,1.52
9544.00,1.52
9543.00,1.52
9542.00,1.51
9541.00,1.51
9540.00,1.51
9539.00,1.51
9538.00,1.50
9537.00,1.50
9536.00,1.50
9535.00,1.50
9534.00,1.50
9533.00,1.50
9532.00,1.49
9531.00,1.49
9530.00,1.49
9529.00,1.49
9528.00,1.49
9527.00,1.50
9526.00,1.50
9525.00,1.50
9524.00,1.50
9523.00,1.50
9522.00,1.50
9521.00,1.50
9520.00,1.51
9519.00,1.51
9518.00,1.51
9517.00,1.51
9516.00,1.51
9515.00,1.51
9514.00,1.51
9513.00,1.52
9512.00,1.52
9511.00,1.52
9510.00,1.52
9509.00,1.52
9508.00,1.52
9507.00,1.52
9506.00,1.52
9505.00,1.52
9504.00,1.52
9503.00,1.52
9502.00,1.52
9501.00,1.51
9500.00,1.51
9499.00,1.51
9498.00,1.51
9497.00,1.51
9496.00,1.51
9495.00,1.51
9494.00,1.51
9493.00,1.51
9492.00,1.51
9491.00,1.51
9490.00,1.51
9489.00,1.51
9488.00,1.51
9487.00,1.51
9486.00,1.51
9485.00,1.51
9484.00,1.51
9483.00,1.51
9482.00,1.51
9481.00,1.51
9480.00,1.51
9479.00,1.51
9478.00,1.51
9477.00,1.51
9476.00,1.51
9475.00,1.51
9474.00,1.51
9473.00,1.51
9472.00,1.51
9471.00,1.51
9470.00,1.51
9469.00,1.51
9468.00,1.51
9467.00,1.52
9466.00,1.52
9465.00,1.52
9464.00,1.52
9463.00,1.52
9462.00,1.52
9461.00,1.52
9460.00,1.52
9459.00,1.52
9458.00,1.52
9457.00,1.52
9456.00,1.52
9455.00,1.52
9454.00,1.52
9453.00,1.52
9452.00,1.52
9451.00,1.52
9450.00,1.52
9449.00,1.52
9448.00,1.52
9447.00,1.52
9446.00,1.52
9445.00,1.52
9444.00,1.52
9443.00,1.52
9442.00,1.52
9441.00,1.52
9440.00,1.52
9439.00,1.52
9438.00,1.52
9437.00,1.52
9436.00,1.52
9435.00,1.52
9434.00,1.52
9433.00,1.52
9432.00,1.52
9431.00,1.52
9430.00,1.52
9429.00,1.52
9428.00,1.52
9427.00,1.52
9426.00,1.52
9425.00,1.52
9424.00,1.52
9423.00,1.52
9422.00,1.52
9421.00,1.52
9420.00,1.53
9419.00,1.53
9418.00,1.53
9417.00,1.53
9416.00,1.53
9415.00,1.53
9414.00,1.53
9413.00,1.53
9412.00,1.53
9411.00,1.53
9410.00,1.53
9409.00,1.53
9408.00,1.53
9407.00,1.53
9406.00,1.53
9405.00,1.53
9404.00,1.52
9403.00,1.52
9402.00,1.52
9401.00,1.52
9400.00,1.52
9399.00,1.52
9398.00,1.52
9397.00,1.52
9396.00,1.52
9395.00,1.52
9394.00,1.52
9393.00,1.52
9392.00,1.52
9391.00,1.52
9390.00,1.52
9389.00,1.52
9388.00,1.52
9387.00,1.52
9386.00,1.52
9385.00,1.52
9384.00,1.53
9383.00,1.53
9382.00,1.53
9381.00,1.53
9380.00,1.53
9379.00,1.53
9378.00,1.53
9377.00,1.53
9376.00,1.53
9375.00,1.53
9374.00,1.53
9373.00,1.53
9372.00,1.53
9371.00,1.52
9370.00,1.52
9369.00,1.52
9368.00,1.52
9367.00,1.51
9366.00,1.51
9365.00,1.51
9364.00,1.51
9363.00,1.50
9362.00,1.50
9361.00,1.50
9360.00,1.50
9359.00,1.50
9358.00,1.50
9357.00,1.50
9356.00,1.50
9355.00,1.50
9354.00,1.50
9353.00,1.50
9352.00,1.50
9351.00,1.50
9350.00,1.50
9349.00,1.50
9348.00,1.50
9347.00,1.51
9346.00,1.51
9345.00,1.51
9344.00,1.51
9343.00,1.51
9342.00,1.51
9341.00,1.51
9340.00,1.52
9339.00,1.52
9338.00,1.52
9337.00,1.52
9336.00,1.52
9335.00,1.52
9334.00,1.52
9333.00,1.52
9332.00,1.52
9331.00,1.52
9330.00,1.52
9329.00,1.52
9328.00,1.52
9327.00,1.52
9326.00,1.52
9325.00,1.52
9324.00,1.52
9323.00,1.52
9322.00,1.52
9321.00,1.52
9320.00,1.52
9319.00,1.52
9318.00,1.52
9317.00,1.52
9316.00,1.52
9315.00,1.52
9314.00,1.52
9313.00,1.52
9312.00,1.52
9311.00,1.52
9310.00,1.52
9309.00,1.53
9308.00,1.53
9307.00,1.53
9306.00,1.53
9305.00,1.52
9304.00,1.52
9303.00,1.52
9302.00,1.52
9301.00,1.52
9300.00,1.52
9299.00,1.52
9298.00,1.52
9297.00,1.52
9296.00,1.52
9295.00,1.52
9294.00,1.52
9293.00,1.52
9292.00,1.52
9291.00,1.52
9290.00,1.52
9289.00,1.52
9288.00,1.52
9287.00,1.52
9286.00,1.52
9285.00,1.52
9284.00,1.52
9283.00,1.52
9282.00,1.52
9281.00,1.52
9280.00,1.51
9279.00,1.51
9278.00,1.51
9277.00,1.51
9276.00,1.51
9275.00,1.50
9274.00,1.50
9273.00,1.50
9272.00,1.50
9271.00,1.50
9270.00,1.50
9269.00,1.50
9268.00,1.50
9267.00,1.50
9266.00,1.50
9265.00,1.51
9264.00,1.51
9263.00,1.51
9262.00,1.51
9261.00,1.52
9260.00,1.52
9259.00,1.52
9258.00,1.52
9257.00,1.52
9256.00,1.52
9255.00,1.52
9254.00,1.52
9253.00,1.52
9252.00,1.52
9251.00,1.52
9250.00,1.52
9249.00,1.52
9248.00,1.52
9247.00,1.52
9246.00,1.52
9245.00,1.51
9244.00,1.51
9243.00,1.51
9242.00,1.51
9241.00,1.51
9240.00,1.51
9239.00,1.51
9238.00,1.51
9237.00,1.51
9236.00,1.51
9235.00,1.51
9234.00,1.52
9233.00,1.52
9232.00,1.52
9231.00,1.52
9230.00,1.52
9229.00,1.52
9228.00,1.52
9227.00,1.52
9226.00,1.52
9225.00,1.52
9224.00,1.53
9223.00,1.53
9222.00,1.53
9221.00,1.53
9220.00,1.53
9219.00,1.52
9218.00,1.52
9217.00,1.52
9216.00,1.52
9215.00,1.52
9214.00,1.52
9213.00,1.52
9212.00,1.52
9211.00,1.52
9210.00,1.51
9209.00,1.51
9208.00,1.51
9207.00,1.51
9206.00,1.51
9205.00,1.51
9204.00,1.51
9203.00,1.51
9202.00,1.51
9201.00,1.51
9200.00,1.51
9199.00,1.51
9198.00,1.51
9197.00,1.51
9196.00,1.51
9195.00,1.51
9194.00,1.51
9193.00,1.51
9192.00,1.52
9191.00,1.52
9190.00,1.52
9189.00,1.52
9188.00,1.52
9187.00,1.52
9186.00,1.52
9185.00,1.51
9184.00,1.51
9183.00,1.51
9182.00,1.51
9181.00,1.51
9180.00,1.51
9179.00,1.51
9178.00,1.50
9177.00,1.50
9176.00,1.50
9175.00,1.50
9174.00,1.50
9173.00,1.50
9172.00,1.50
9171.00,1.50
9170.00,1.50
9169.00,1.50
9168.00,1.50
9167.00,1.50
9166.00,1.50
9165.00,1.51
9164.00,1.51
9163.00,1.51
9162.00,1.51
9161.00,1.51
9160.00,1.51
9159.00,1.51
9158.00,1.51
9157.00,1.51
9156.00,1.51
9155.00,1.52
9154.00,1.52
9153.00,1.52
9152.00,1.52
9151.00,1.52
9150.00,1.52
9149.00,1.53
9148.00,1.53
9147.00,1.53
9146.00,1.53
9145.00,1.53
9144.00,1.53
9143.00,1.53
9142.00,1.53
9141.00,1.53
9140.00,1.53
9139.00,1.52
9138.00,1.52
9137.00,1.52
9136.00,1.52
9135.00,1.52
9134.00,1.51
9133.00,1.51
9132.00,1.51
9131.00,1.51
9130.00,1.51
9129.00,1.51
9128.00,1.51
9127.00,1.51
9126.00,1.51
9125.00,1.51
9124.00,1.51
9123.00,1.51
9122.00,1.51
9121.00,1.51
9120.00,1.51
9119.00,1.51
9118.00,1.51
9117.00,1.51
9116.00,1.51
9115.00,1.51
9114.00,1.51
9113.00,1.51
9112.00,1.51
9111.00,1.52
9110.00,1.52
9109.00,1.52
9108.00,1.52
9107.00,1.52
9106.00,1.52
9105.00,1.52
9104.00,1.52
9103.00,1.52
9102.00,1.52
9101.00,1.52
9100.00,1.52
9099.00,1.51
9098.00,1.51
9097.00,1.51
9096.00,1.51
9095.00,1.51
9094.00,1.51
9093.00,1.51
9092.00,1.51
9091.00,1.51
9090.00,1.51
9089.00,1.51
9088.00,1.51
9087.00,1.51
9086.00,1.51
9085.00,1.51
9084.00,1.51
9083.00,1.51
9082.00,1.51
9081.00,1.51
9080.00,1.51
9079.00,1.51
9078.00,1.51
9077.00,1.51
9076.00,1.51
9075.00,1.51
9074.00,1.51
9073.00,1.51
9072.00,1.51
9071.00,1.51
9070.00,1.52
9069.00,1.52
9068.00,1.52
9067.00,1.52
9066.00,1.52
9065.00,1.52
9064.00,1.52
9063.00,1.52
9062.00,1.52
9061.00,1.52
9060.00,1.52
9059.00,1.52
9058.00,1.52
9057.00,1.52
9056.00,1.52
9055.00,1.52
9054.00,1.52
9053.00,1.52
9052.00,1.52
9051.00,1.52
9050.00,1.52
9049.00,1.52
9048.00,1.52
9047.00,1.52
9046.00,1.52
9045.00,1.52
9044.00,1.52
9043.00,1.52
9042.00,1.52
9041.00,1.52
9040.00,1.52
9039.00,1.52
9038.00,1.52
9037.00,1.53
9036.00,1.53
9035.00,1.53
9034.00,1.53
9033.00,1.53
9032.00,1.53
9031.00,1.53
9030.00,1.53
9029.00,1.53
9028.00,1.53
9027.00,1.52
9026.00,1.52
9025.00,1.52
9024.00,1.52
9023.00,1.52
9022.00,1.52
9021.00,1.52
9020.00,1.52
9019.00,1.52
9018.00,1.52
9017.00,1.52
9016.00,1.51
9015.00,1.51
9014.00,1.51
9013.00,1.51
9012.00,1.51
9011.00,1.51
9010.00,1.51
9009.00,1.51
9008.00,1.51
9007.00,1.51
9006.00,1.51
9005.00,1.51
9004.00,1.51
9003.00,1.51
9002.00,1.51
9001.00,1.51
9000.00,1.51
8999.00,1.51
8998.00,1.51
8997.00,1.51
8996.00,1.51
8995.00,1.51
8994.00,1.51
8993.00,1.51
8992.00,1.51
8991.00,1.51
8990.00,1.51
8989.00,1.51
8988.00,1.51
8987.00,1.51
8986.00,1.51
8985.00,1.51
8984.00,1.51
8983.00,1.51
8982.00,1.51
8981.00,1.51
8980.00,1.51
8979.00,1.51
8978.00,1.51
8977.00,1.51
8976.00,1.51
8975.00,1.51
8974.00,1.51
8973.00,1.51
8972.00,1.51
8971.00,1.51
8970.00,1.51
8969.00,1.51
8968.00,1.51
8967.00,1.51
8966.00,1.51
8965.00,1.51
8964.00,1.51
8963.00,1.51
8962.00,1.51
8961.00,1.51
8960.00,1.51
8959.00,1.51
8958.00,1.51
8957.00,1.51
8956.00,1.52
8955.00,1.52
8954.00,1.52
8953.00,1.52
8952.00,1.52
8951.00,1.52
8950.00,1.53
8949.00,1.53
8948.00,1.53
8947.00,1.53
8946.00,1.53
8945.00,1.53
8944.00,1.53
8943.00,1.53
8942.00,1.53
8941.00,1.53
8940.00,1.53
8939.00,1.53
8938.00,1.53
8937.00,1.53
8936.00,1.53
8935.00,1.53
8934.00,1.53
8933.00,1.53
8932.00,1.53
8931.00,1.52
8930.00,1.52
8929.00,1.52
8928.00,1.52
8927.00,1.52
8926.00,1.52
8925.00,1.52
8924.00,1.52
8923.00,1.52
8922.00,1.52
8921.00,1.52
8920.00,1.52
8919.00,1.52
8918.00,1.52
8917.00,1.52
8916.00,1.52
8915.00,1.52
8914.00,1.52
8913.00,1.52
8912.00,1.52
8911.00,1.52
8910.00,1.52
8909.00,1.53
8908.00,1.53
8907.00,1.53
8906.00,1.53
8905.00,1.53
8904.00,1.53
8903.00,1.53
8902.00,1.53
8901.00,1.53
8900.00,1.53
8899.00,1.53
8898.00,1.53
8897.00,1.53
8896.00,1.53
8895.00,1.52
8894.00,1.52
8893.00,1.52
8892.00,1.52
8891.00,1.52
8890.00,1.51
8889.00,1.51
8888.00,1.51
8887.00,1.51
8886.00,1.51
8885.00,1.51
8884.00,1.51
8883.00,1.51
8882.00,1.51
8881.00,1.51
8880.00,1.51
8879.00,1.51
8878.00,1.51
8877.00,1.51
8876.00,1.52
8875.00,1.52
8874.00,1.52
8873.00,1.52
8872.00,1.52
8871.00,1.52
8870.00,1.52
8869.00,1.52
8868.00,1.52
8867.00,1.53
8866.00,1.53
8865.00,1.52
8864.00,1.52
8863.00,1.52
8862.00,1.52
8861.00,1.52
8860.00,1.52
8859.00,1.52
8858.00,1.52
8857.00,1.52
8856.00,1.52
8855.00,1.52
8854.00,1.52
8853.00,1.51
8852.00,1.51
8851.00,1.51
8850.00,1.51
8849.00,1.51
8848.00,1.52
8847.00,1.52
8846.00,1.52
8845.00,1.52
8844.00,1.52
8843.00,1.52
8842.00,1.52
8841.00,1.52
8840.00,1.52
8839.00,1.52
8838.00,1.52
8837.00,1.52
8836.00,1.52
8835.00,1.52
8834.00,1.52
8833.00,1.52
8832.00,1.52
8831.00,1.52
8830.00,1.52
8829.00,1.52
8828.00,1.52
8827.00,1.51
8826.00,1.51
8825.00,1.51
8824.00,1.51
8823.00,1.51
8822.00,1.51
8821.00,1.51
8820.00,1.51
8819.00,1.51
8818.00,1.51
8817.00,1.51
8816.00,1.51
8815.00,1.51
8814.00,1.51
8813.00,1.51
8812.00,1.51
8811.00,1.51
8810.00,1.51
8809.00,1.51
8808.00,1.51
8807.00,1.51
8806.00,1.51
8805.00,1.51
8804.00,1.51
8803.00,1.50
8802.00,1.50
8801.00,1.50
8800.00,1.50
8799.00,1.50
8798.00,1.50
8797.00,1.50
8796.00,1.50
8795.00,1.50
8794.00,1.50
8793.00,1.50
8792.00,1.49
8791.00,1.49
8790.00,1.49
8789.00,1.49
8788.00,1.49
8787.00,1.49
8786.00,1.49
8785.00,1.49
8784.00,1.49
8783.00,1.49
8782.00,1.49
8781.00,1.49
8780.00,1.49
8779.00,1.49
8778.00,1.49
8777.00,1.49
8776.00,1.49
8775.00,1.49
8774.00,1.49
8773.00,1.49
8772.00,1.49
8771.00,1.49
8770.00,1.49
8769.00,1.49
8768.00,1.49
8767.00,1.49
8766.00,1.49
8765.00,1.49
8764.00,1.49
8763.00,1.49
8762.00,1.49
8761.00,1.49
8760.00,1.49
8759.00,1.49
8758.00,1.48
8757.00,1.48
8756.00,1.48
8755.00,1.48
8754.00,1.48
8753.00,1.48
8752.00,1.48
8751.00,1.48
8750.00,1.48
8749.00,1.48
8748.00,1.48
8747.00,1.48
8746.00,1.48
8745.00,1.48
8744.00,1.48
8743.00,1.48
8742.00,1.48
8741.00,1.48
8740.00,1.48
8739.00,1.48
8738.00,1.48
8737.00,1.48
8736.00,1.48
8735.00,1.48
8734.00,1.48
8733.00,1.47
8732.00,1.47
8731.00,1.47
8730.00,1.47
8729.00,1.47
8728.00,1.47
8727.00,1.47
8726.00,1.47
8725.00,1.46
8724.00,1.46
8723.00,1.46
8722.00,1.46
8721.00,1.46
8720.00,1.46
8719.00,1.46
8718.00,1.46
8717.00,1.46
8716.00,1.46
8715.00,1.46
8714.00,1.46
8713.00,1.47
8712.00,1.47
8711.00,1.47
8710.00,1.47
8709.00,1.47
8708.00,1.47
8707.00,1.47
8706.00,1.47
8705.00,1.47
8704.00,1.47
8703.00,1.47
8702.00,1.47
8701.00,1.47
8700.00,1.47
8699.00,1.47
8698.00,1.47
8697.00,1.47
8696.00,1.47
8695.00,1.47
8694.00,1.47
8693.00,1.47
8692.00,1.47
8691.00,1.47
8690.00,1.47
8689.00,1.47
8688.00,1.47
8687.00,1.47
8686.00,1.47
8685.00,1.47
8684.00,1.47
8683.00,1.47
8682.00,1.47
8681.00,1.47
8680.00,1.47
8679.00,1.47
8678.00,1.47
8677.00,1.46
8676.00,1.46
8675.00,1.46
8674.00,1.46
8673.00,1.46
8672.00,1.46
8671.00,1.46
8670.00,1.46
8669.00,1.46
8668.00,1.46
8667.00,1.46
8666.00,1.46
8665.00,1.46
8664.00,1.46
8663.00,1.46
8662.00,1.46
8661.00,1.46
8660.00,1.46
8659.00,1.46
8658.00,1.46
8657.00,1.45
8656.00,1.45
8655.00,1.45
8654.00,1.45
8653.00,1.45
8652.00,1.45
8651.00,1.45
8650.00,1.44
8649.00,1.44
8648.00,1.44
8647.00,1.44
8646.00,1.44
8645.00,1.44
8644.00,1.44
8643.00,1.43
8642.00,1.43
8641.00,1.43
8640.00,1.43
8639.00,1.43
8638.00,1.43
8637.00,1.43
8636.00,1.43
8635.00,1.43
8634.00,1.43
8633.00,1.43
8632.00,1.43
8631.00,1.43
8630.00,1.43
8629.00,1.43
8628.00,1.43
8627.00,1.42
8626.00,1.42
8625.00,1.42
8624.00,1.42
8623.00,1.42
8622.00,1.42
8621.00,1.42
8620.00,1.42
8619.00,1.42
8618.00,1.42
8617.00,1.42
8616.00,1.42
8615.00,1.42
8614.00,1.42
8613.00,1.42
8612.00,1.43
8611.00,1.43
8610.00,1.43
8609.00,1.43
8608.00,1.43
8607.00,1.43
8606.00,1.43
8605.00,1.43
8604.00,1.43
8603.00,1.43
8602.00,1.43
8601.00,1.43
8600.00,1.43
8599.00,1.43
8598.00,1.43
8597.00,1.43
8596.00,1.43
8595.00,1.43
8594.00,1.43
8593.00,1.43
8592.00,1.43
8591.00,1.43
8590.00,1.42
8589.00,1.42
8588.00,1.42
8587.00,1.42
8586.00,1.42
8585.00,1.42
8584.00,1.42
8583.00,1.42
8582.00,1.42
8581.00,1.42
8580.00,1.42
8579.00,1.42
8578.00,1.42
8577.00,1.42
8576.00,1.42
8575.00,1.42
8574.00,1.42
8573.00,1.42
8572.00,1.42
8571.00,1.42
8570.00,1.42
8569.00,1.42
8568.00,1.42
8567.00,1.42
8566.00,1.42
8565.00,1.42
8564.00,1.42
8563.00,1.42
8562.00,1.42
8561.00,1.42
8560.00,1.42
8559.00,1.42
8558.00,1.42
8557.00,1.42
8556.00,1.42
8555.00,1.42
8554.00,1.42
8553.00,1.42
8552.00,1.42
8551.00,1.42
8550.00,1.42
8549.00,1.42
8548.00,1.42
8547.00,1.42
8546.00,1.42
8545.00,1.42
8544.00,1.42
8543.00,1.42
8542.00,1.41
8541.00,1.41
8540.00,1.41
8539.00,1.41
8538.00,1.41
8537.00,1.41
8536.00,1.41
8535.00,1.41
8534.00,1.41
8533.00,1.41
8532.00,1.41
8531.00,1.41
8530.00,1.41
8529.00,1.41
8528.00,1.41
8527.00,1.41
8526.00,1.41
8525.00,1.40
8524.00,1.40
8523.00,1.40
8522.00,1.40
8521.00,1.40
8520.00,1.40
8519.00,1.40
8518.00,1.40
8517.00,1.39
8516.00,1.39
8515.00,1.39
8514.00,1.39
8513.00,1.39
8512.00,1.39
8511.00,1.39
8510.00,1.39
8509.00,1.39
8508.00,1.39
8507.00,1.39
8506.00,1.39
8505.00,1.39
8504.00,1.39
8503.00,1.39
8502.00,1.39
8501.00,1.39
8500.00,1.39
8499.00,1.39
8498.00,1.39
8497.00,1.39
8496.00,1.39
8495.00,1.39
8494.00,1.39
8493.00,1.39
8492.00,1.39
8491.00,1.39
8490.00,1.39
8489.00,1.39
8488.00,1.39
8487.00,1.39
8486.00,1.39
8485.00,1.39
8484.00,1.39
8483.00,1.39
8482.00,1.39
8481.00,1.39
8480.00,1.39
8479.00,1.39
8478.00,1.39
8477.00,1.40
8476.00,1.40
8475.00,1.40
8474.00,1.40
8473.00,1.40
8472.00,1.40
8471.00,1.40
8470.00,1.40
8469.00,1.40
8468.00,1.40
8467.00,1.40
8466.00,1.40
8465.00,1.40
8464.00,1.40
8463.00,1.40
8462.00,1.40
8461.00,1.40
8460.00,1.39
8459.00,1.39
8458.00,1.39
8457.00,1.39
8456.00,1.39
8455.00,1.39
8454.00,1.39
8453.00,1.39
8452.00,1.38
8451.00,1.38
8450.00,1.38
8449.00,1.38
8448.00,1.38
8447.00,1.38
8446.00,1.38
8445.00,1.38
8444.00,1.38
8443.00,1.38
8442.00,1.38
8441.00,1.38
8440.00,1.38
8439.00,1.38
8438.00,1.38
8437.00,1.38
8436.00,1.38
8435.00,1.38
8434.00,1.38
8433.00,1.38
8432.00,1.38
8431.00,1.38
8430.00,1.38
8429.00,1.38
8428.00,1.39
8427.00,1.39
8426.00,1.39
8425.00,1.39
8424.00,1.39
8423.00,1.39
8422.00,1.39
8421.00,1.39
8420.00,1.39
8419.00,1.39
8418.00,1.39
8417.00,1.39
8416.00,1.39
8415.00,1.39
8414.00,1.39
8413.00,1.39
8412.00,1.39
8411.00,1.39
8410.00,1.39
8409.00,1.39
8408.00,1.38
8407.00,1.38
8406.00,1.38
8405.00,1.38
8404.00,1.38
8403.00,1.38
8402.00,1.38
8401.00,1.38
8400.00,1.39
8399.00,1.39
8398.00,1.39
8397.00,1.39
8396.00,1.39
8395.00,1.39
8394.00,1.39
8393.00,1.39
8392.00,1.39
8391.00,1.40
8390.00,1.40
8389.00,1.40
8388.00,1.40
8387.00,1.40
8386.00,1.40
8385.00,1.40
8384.00,1.41
8383.00,1.41
8382.00,1.41
8381.00,1.41
8380.00,1.41
8379.00,1.41
8378.00,1.41
8377.00,1.41
8376.00,1.41
8375.00,1.41
8374.00,1.41
8373.00,1.41
8372.00,1.41
8371.00,1.41
8370.00,1.41
8369.00,1.41
8368.00,1.41
8367.00,1.41
8366.00,1.41
8365.00,1.41
8364.00,1.41
8363.00,1.41
8362.00,1.41
8361.00,1.41
8360.00,1.42
8359.00,1.42
8358.00,1.42
8357.00,1.42
8356.00,1.42
8355.00,1.42
8354.00,1.42
8353.00,1.42
8352.00,1.42
8351.00,1.42
8350.00,1.42
8349.00,1.42
8348.00,1.42
8347.00,1.41
8346.00,1.41
8345.00,1.41
8344.00,1.41
8343.00,1.41
8342.00,1.41
8341.00,1.41
8340.00,1.41
8339.00,1.41
8338.00,1.41
8337.00,1.41
8336.00,1.41
8335.00,1.41
8334.00,1.41
8333.00,1.41
8332.00,1.41
8331.00,1.41
8330.00,1.41
8329.00,1.41
8328.00,1.41
8327.00,1.41
8326.00,1.41
8325.00,1.41
8324.00,1.41
8323.00,1.42
8322.00,1.42
8321.00,1.42
8320.00,1.42
8319.00,1.42
8318.00,1.42
8317.00,1.42
8316.00,1.42
8315.00,1.42
8314.00,1.42
8313.00,1.42
8312.00,1.42
8311.00,1.42
8310.00,1.42
8309.00,1.42
8308.00,1.42
8307.00,1.42
8306.00,1.42
8305.00,1.42
8304.00,1.42
8303.00,1.42
8302.00,1.42
8301.00,1.42
8300.00,1.42
8299.00,1.42
8298.00,1.42
8297.00,1.42
8296.00,1.42
8295.00,1.42
8294.00,1.42
8293.00,1.42
8292.00,1.42
8291.00,1.42
8290.00,1.42
8289.00,1.42
8288.00,1.42
8287.00,1.42
8286.00,1.42
8285.00,1.42
8284.00,1.42
8283.00,1.42
8282.00,1.43
8281.00,1.43
8280.00,1.43
8279.00,1.43
8278.00,1.43
8277.00,1.43
8276.00,1.43
8275.00,1.43
8274.00,1.44
8273.00,1.44
8272.00,1.44
8271.00,1.44
8270.00,1.44
8269.00,1.44
8268.00,1.44
8267.00,1.44
8266.00,1.44
8265.00,1.44
8264.00,1.44
8263.00,1.44
8262.00,1.44
8261.00,1.44
8260.00,1.44
8259.00,1.44
8258.00,1.44
8257.00,1.44
8256.00,1.44
8255.00,1.44
8254.00,1.44
8253.00,1.44
8252.00,1.44
8251.00,1.44
8250.00,1.44
8249.00,1.44
8248.00,1.44
8247.00,1.44
8246.00,1.44
8245.00,1.44
8244.00,1.44
8243.00,1.44
8242.00,1.44
8241.00,1.44
8240.00,1.44
8239.00,1.44
8238.00,1.44
8237.00,1.44
8236.00,1.43
8235.00,1.43
8234.00,1.43
8233.00,1.43
8232.00,1.43
8231.00,1.43
8230.00,1.43
8229.00,1.43
8228.00,1.43
8227.00,1.43
8226.00,1.43
8225.00,1.43
8224.00,1.44
8223.00,1.44
8222.00,1.44
8221.00,1.44
8220.00,1.44
8219.00,1.44
8218.00,1.44
8217.00,1.44
8216.00,1.44
8215.00,1.45
8214.00,1.45
8213.00,1.45
8212.00,1.45
8211.00,1.45
8210.00,1.45
8209.00,1.45
8208.00,1.45
8207.00,1.45
8206.00,1.45
8205.00,1.45
8204.00,1.45
8203.00,1.45
8202.00,1.45
8201.00,1.45
8200.00,1.45
8199.00,1.45
8198.00,1.45
8197.00,1.45
8196.00,1.45
8195.00,1.45
8194.00,1.45
8193.00,1.45
8192.00,1.45
8191.00,1.45
8190.00,1.45
8189.00,1.45
8188.00,1.45
8187.00,1.45
8186.00,1.45
8185.00,1.45
8184.00,1.46
8183.00,1.46
8182.00,1.46
8181.00,1.46
8180.00,1.46
8179.00,1.46
8178.00,1.46
8177.00,1.46
8176.00,1.46
8175.00,1.46
8174.00,1.47
8173.00,1.47
8172.00,1.47
8171.00,1.47
8170.00,1.47
8169.00,1.47
8168.00,1.47
8167.00,1.47
8166.00,1.47
8165.00,1.47
8164.00,1.47
8163.00,1.47
8162.00,1.47
8161.00,1.47
8160.00,1.47
8159.00,1.47
8158.00,1.47
8157.00,1.47
8156.00,1.47
8155.00,1.47
8154.00,1.47
8153.00,1.47
8152.00,1.48
8151.00,1.48
8150.00,1.48
8149.00,1.48
8148.00,1.48
8147.00,1.48
8146.00,1.48
8145.00,1.48
8144.00,1.48
8143.00,1.48
8142.00,1.48
8141.00,1.48
8140.00,1.48
8139.00,1.48
8138.00,1.48
8137.00,1.48
8136.00,1.48
8135.00,1.48
8134.00,1.48
8133.00,1.48
8132.00,1.48
8131.00,1.48
8130.00,1.48
8129.00,1.49
8128.00,1.49
8127.00,1.49
8126.00,1.49
8125.00,1.49
8124.00,1.49
8123.00,1.49
8122.00,1.49
8121.00,1.49
8120.00,1.49
8119.00,1.49
8118.00,1.49
8117.00,1.49
8116.00,1.49
8115.00,1.49
8114.00,1.48
8113.00,1.48
8112.00,1.48
8111.00,1.48
8110.00,1.48
8109.00,1.48
8108.00,1.49
8107.00,1.49
8106.00,1.49
8105.00,1.49
8104.00,1.49
8103.00,1.49
8102.00,1.49
8101.00,1.49
8100.00,1.49
8099.00,1.49
8098.00,1.49
8097.00,1.49
8096.00,1.49
8095.00,1.49
8094.00,1.49
8093.00,1.49
8092.00,1.49
8091.00,1.49
8090.00,1.49
8089.00,1.50
8088.00,1.50
8087.00,1.50
8086.00,1.50
8085.00,1.50
8084.00,1.50
8083.00,1.50
8082.00,1.50
8081.00,1.50
8080.00,1.50
8079.00,1.50
8078.00,1.50
8077.00,1.50
8076.00,1.50
8075.00,1.50
8074.00,1.50
8073.00,1.50
8072.00,1.50
8071.00,1.50
8070.00,1.50
8069.00,1.50
8068.00,1.50
8067.00,1.50
8066.00,1.50
8065.00,1.50
8064.00,1.50
8063.00,1.50
8062.00,1.50
8061.00,1.50
8060.00,1.50
8059.00,1.50
8058.00,1.50
8057.00,1.50
8056.00,1.50
8055.00,1.50
8054.00,1.50
8053.00,1.50
8052.00,1.51
8051.00,1.51
8050.00,1.51
8049.00,1.51
8048.00,1.51
8047.00,1.51
8046.00,1.51
8045.00,1.51
8044.00,1.51
8043.00,1.51
8042.00,1.51
8041.00,1.51
8040.00,1.51
8039.00,1.51
8038.00,1.51
8037.00,1.51
8036.00,1.51
8035.00,1.51
8034.00,1.51
8033.00,1.51
8032.00,1.51
8031.00,1.51
8030.00,1.51
8029.00,1.51
8028.00,1.51
8027.00,1.51
8026.00,1.51
8025.00,1.51
8024.00,1.51
8023.00,1.51
8022.00,1.50
8021.00,1.50
8020.00,1.50
8019.00,1.50
8018.00,1.50
8017.00,1.50
8016.00,1.50
8015.00,1.50
8014.00,1.50
8013.00,1.50
8012.00,1.50
8011.00,1.50
8010.00,1.50
8009.00,1.50
8008.00,1.50
8007.00,1.50
8006.00,1.50
8005.00,1.50
8004.00,1.50
8003.00,1.50
8002.00,1.50
8001.00,1.50
8000.00,1.50
7999.00,1.50
7998.00,1.50
7997.00,1.50
7996.00,1.50
7995.00,1.50
7994.00,1.50
7993.00,1.50
7992.00,1.50
7991.00,1.50
7990.00,1.50
7989.00,1.50
7988.00,1.50
7987.00,1.50
7986.00,1.50
7985.00,1.50
7984.00,1.50
7983.00,1.49
7982.00,1.49
7981.00,1.49
7980.00,1.49
7979.00,1.49
7978.00,1.49
7977.00,1.49
7976.00,1.49
7975.00,1.49
7974.00,1.49
7973.00,1.50
7972.00,1.50
7971.00,1.50
7970.00,1.50
7969.00,1.50
7968.00,1.50
7967.00,1.50
7966.00,1.50
7965.00,1.50
7964.00,1.50
7963.00,1.50
7962.00,1.51
7961.00,1.51
7960.00,1.51
7959.00,1.51
7958.00,1.51
7957.00,1.51
7956.00,1.51
7955.00,1.51
7954.00,1.51
7953.00,1.51
7952.00,1.51
7951.00,1.51
7950.00,1.51
7949.00,1.51
7948.00,1.51
7947.00,1.51
7946.00,1.51
7945.00,1.51
7944.00,1.51
7943.00,1.51
7942.00,1.51
7941.00,1.51
7940.00,1.51
7939.00,1.51
7938.00,1.51
7937.00,1.51
7936.00,1.51
7935.00,1.51
7934.00,1.51
7933.00,1.51
7932.00,1.51
7931.00,1.51
7930.00,1.51
7929.00,1.51
7928.00,1.51
7927.00,1.51
7926.00,1.51
7925.00,1.51
7924.00,1.51
7923.00,1.51
7922.00,1.51
7921.00,1.51
7920.00,1.51
7919.00,1.51
7918.00,1.51
7917.00,1.51
7916.00,1.51
7915.00,1.51
7914.00,1.51
7913.00,1.51
7912.00,1.51
7911.00,1.51
7910.00,1.51
7909.00,1.51
7908.00,1.51
7907.00,1.52
7906.00,1.52
7905.00,1.52
7904.00,1.52
7903.00,1.52
7902.00,1.52
7901.00,1.52
7900.00,1.52
7899.00,1.52
7898.00,1.52
7897.00,1.52
7896.00,1.52
7895.00,1.52
7894.00,1.52
7893.00,1.52
7892.00,1.52
7891.00,1.52
7890.00,1.52
7889.00,1.52
7888.00,1.52
7887.00,1.52
7886.00,1.52
7885.00,1.52
7884.00,1.52
7883.00,1.52
7882.00,1.52
7881.00,1.52
7880.00,1.52
7879.00,1.52
7878.00,1.52
7877.00,1.52
7876.00,1.52
7875.00,1.52
7874.00,1.52
7873.00,1.52
7872.00,1.52
7871.00,1.52
7870.00,1.52
7869.00,1.52
7868.00,1.52
7867.00,1.52
7866.00,1.52
7865.00,1.52
7864.00,1.53
7863.00,1.53
7862.00,1.53
7861.00,1.53
7860.00,1.53
7859.00,1.53
7858.00,1.53
7857.00,1.53
7856.00,1.53
7855.00,1.53
7854.00,1.53
7853.00,1.53
7852.00,1.53
7851.00,1.52
7850.00,1.52
7849.00,1.52
7848.00,1.52
7847.00,1.52
7846.00,1.52
7845.00,1.52
7844.00,1.52
7843.00,1.52
7842.00,1.52
7841.00,1.51
7840.00,1.51
7839.00,1.51
7838.00,1.51
7837.00,1.51
7836.00,1.51
7835.00,1.51
7834.00,1.51
7833.00,1.51
7832.00,1.51
7831.00,1.52
7830.00,1.52
7829.00,1.52
7828.00,1.52
7827.00,1.52
7826.00,1.52
7825.00,1.52
7824.00,1.52
7823.00,1.52
7822.00,1.52
7821.00,1.52
7820.00,1.52
7819.00,1.52
7818.00,1.52
7817.00,1.52
7816.00,1.52
7815.00,1.52
7814.00,1.52
7813.00,1.52
7812.00,1.52
7811.00,1.52
7810.00,1.52
7809.00,1.52
7808.00,1.52
7807.00,1.52
7806.00,1.52
7805.00,1.52
7804.00,1.52
7803.00,1.52
7802.00,1.52
7801.00,1.52
7800.00,1.52
7799.00,1.52
7798.00,1.52
7797.00,1.52
7796.00,1.52
7795.00,1.52
7794.00,1.52
7793.00,1.52
7792.00,1.52
7791.00,1.52
7790.00,1.52
7789.00,1.52
7788.00,1.52
7787.00,1.52
7786.00,1.52
7785.00,1.52
7784.00,1.52
7783.00,1.52
7782.00,1.52
7781.00,1.52
7780.00,1.52
7779.00,1.52
7778.00,1.52
7777.00,1.52
7776.00,1.53
7775.00,1.53
7774.00,1.53
7773.00,1.53
7772.00,1.53
7771.00,1.53
7770.00,1.53
7769.00,1.53
7768.00,1.53
7767.00,1.53
7766.00,1.53
7765.00,1.53
7764.00,1.53
7763.00,1.53
7762.00,1.53
7761.00,1.53
7760.00,1.53
7759.00,1.53
7758.00,1.53
7757.00,1.53
7756.00,1.53
7755.00,1.53
7754.00,1.53
7753.00,1.53
7752.00,1.53
7751.00,1.53
7750.00,1.53
7749.00,1.53
7748.00,1.53
7747.00,1.53
7746.00,1.53
7745.00,1.53
7744.00,1.53
7743.00,1.53
7742.00,1.53
7741.00,1.53
7740.00,1.53
7739.00,1.53
7738.00,1.53
7737.00,1.53
7736.00,1.53
7735.00,1.53
7734.00,1.53
7733.00,1.53
7732.00,1.53
7731.00,1.53
7730.00,1.53
7729.00,1.53
7728.00,1.53
7727.00,1.53
7726.00,1.53
7725.00,1.53
7724.00,1.53
7723.00,1.53
7722.00,1.53
7721.00,1.53
7720.00,1.53
7719.00,1.53
7718.00,1.53
7717.00,1.53
7716.00,1.53
7715.00,1.53
7714.00,1.53
7713.00,1.53
7712.00,1.53
7711.00,1.53
7710.00,1.53
7709.00,1.53
7708.00,1.53
7707.00,1.53
7706.00,1.53
7705.00,1.53
7704.00,1.53
7703.00,1.53
7702.00,1.53
7701.00,1.53
7700.00,1.53
7699.00,1.53
7698.00,1.53
7697.00,1.53
7696.00,1.53
7695.00,1.53
7694.00,1.53
7693.00,1.53
7692.00,1.53
7691.00,1.53
7690.00,1.53
7689.00,1.53
7688.00,1.53
7687.00,1.53
7686.00,1.53
7685.00,1.53
7684.00,1.53
7683.00,1.53
7682.00,1.53
7681.00,1.53
7680.00,1.53
7679.00,1.53
7678.00,1.53
7677.00,1.53
7676.00,1.53
7675.00,1.53
7674.00,1.53
7673.00,1.53
7672.00,1.53
7671.00,1.53
7670.00,1.53
7669.00,1.53
7668.00,1.53
7667.00,1.53
7666.00,1.53
7665.00,1.53
7664.00,1.53
7663.00,1.53
7662.00,1.53
7661.00,1.53
7660.00,1.53
7659.00,1.53
7658.00,1.53
7657.00,1.53
7656.00,1.53
7655.00,1.53
7654.00,1.53
7653.00,1.53
7652.00,1.53
7651.00,1.53
7650.00,1.53
7649.00,1.53
7648.00,1.53
7647.00,1.53
7646.00,1.53
7645.00,1.53
7644.00,1.53
7643.00,1.53
7642.00,1.53
7641.00,1.53
7640.00,1.53
7639.00,1.53
7638.00,1.53
7637.00,1.53
7636.00,1.53
7635.00,1.53
7634.00,1.53
7633.00,1.53
7632.00,1.53
7631.00,1.53
7630.00,1.53
7629.00,1.53
7628.00,1.53
7627.00,1.53
7626.00,1.53
7625.00,1.53
7624.00,1.53
7623.00,1.53
7622.00,1.53
7621.00,1.53
7620.00,1.53
7619.00,1.53
7618.00,1.53
7617.00,1.53
7616.00,1.53
7615.00,1.53
7614.00,1.53
7613.00,1.53
7612.00,1.53
7611.00,1.53
7610.00,1.53
7609.00,1.53
7608.00,1.53
7607.00,1.53
7606.00,1.53
7605.00,1.53
7604.00,1.53
7603.00,1.53
7602.00,1.53
7601.00,1.53
7600.00,1.53
7599.00,1.53
7598.00,1.53
7597.00,1.53
7596.00,1.53
7595.00,1.52
7594.00,1.52
7593.00,1.52
7592.00,1.52
7591.00,1.52
7590.00,1.52
7589.00,1.52
7588.00,1.52
7587.00,1.52
7586.00,1.52
7585.00,1.52
7584.00,1.52
7583.00,1.52
7582.00,1.52
7581.00,1.52
7580.00,1.52
7579.00,1.52
7578.00,1.53
7577.00,1.53
7576.00,1.53
7575.00,1.53
7574.00,1.53
7573.00,1.53
7572.00,1.53
7571.00,1.53
7570.00,1.53
7569.00,1.53
7568.00,1.53
7567.00,1.53
7566.00,1.53
7565.00,1.53
7564.00,1.53
7563.00,1.53
7562.00,1.53
7561.00,1.53
7560.00,1.53
7559.00,1.52
7558.00,1.52
7557.00,1.52
7556.00,1.52
7555.00,1.52
7554.00,1.52
7553.00,1.52
7552.00,1.52
7551.00,1.52
7550.00,1.52
7549.00,1.52
7548.00,1.52
7547.00,1.52
7546.00,1.52
7545.00,1.51
7544.00,1.51
7543.00,1.51
7542.00,1.51
7541.00,1.51
7540.00,1.51
7539.00,1.51
7538.00,1.51
7537.00,1.51
7536.00,1.51
7535.00,1.51
7534.00,1.51
7533.00,1.51
7532.00,1.51
7531.00,1.52
7530.00,1.52
7529.00,1.52
7528.00,1.52
7527.00,1.52
7526.00,1.52
7525.00,1.52
7524.00,1.52
7523.00,1.52
7522.00,1.52
7521.00,1.52
7520.00,1.52
7519.00,1.52
7518.00,1.52
7517.00,1.52
7516.00,1.51
7515.00,1.51
7514.00,1.51
7513.00,1.51
7512.00,1.51
7511.00,1.51
7510.00,1.51
7509.00,1.51
7508.00,1.51
7507.00,1.51
7506.00,1.50
7505.00,1.50
7504.00,1.50
7503.00,1.50
7502.00,1.50
7501.00,1.50
7500.00,1.50
7499.00,1.50
7498.00,1.50
7497.00,1.50
7496.00,1.50
7495.00,1.50
7494.00,1.50
7493.00,1.50
7492.00,1.49
7491.00,1.49
7490.00,1.49
7489.00,1.49
7488.00,1.49
7487.00,1.49
7486.00,1.49
7485.00,1.49
7484.00,1.49
7483.00,1.49
7482.00,1.49
7481.00,1.49
7480.00,1.49
7479.00,1.49
7478.00,1.49
7477.00,1.49
7476.00,1.49
7475.00,1.49
7474.00,1.49
7473.00,1.50
7472.00,1.50
7471.00,1.50
7470.00,1.50
7469.00,1.50
7468.00,1.50
7467.00,1.50
7466.00,1.50
7465.00,1.50
7464.00,1.50
7463.00,1.50
7462.00,1.50
7461.00,1.50
7460.00,1.49
7459.00,1.49
7458.00,1.49
7457.00,1.49
7456.00,1.49
7455.00,1.49
7454.00,1.49
7453.00,1.49
7452.00,1.48
7451.00,1.48
7450.00,1.48
7449.00,1.48
7448.00,1.48
7447.00,1.48
7446.00,1.48
7445.00,1.48
7444.00,1.48
7443.00,1.48
7442.00,1.48
7441.00,1.48
7440.00,1.48
7439.00,1.48
7438.00,1.48
7437.00,1.48
7436.00,1.48
7435.00,1.48
7434.00,1.48
7433.00,1.47
7432.00,1.47
7431.00,1.47
7430.00,1.47
7429.00,1.47
7428.00,1.47
7427.00,1.47
7426.00,1.47
7425.00,1.47
7424.00,1.47
7423.00,1.47
7422.00,1.46
7421.00,1.46
7420.00,1.46
7419.00,1.46
7418.00,1.46
7417.00,1.46
7416.00,1.46
7415.00,1.46
7414.00,1.46
7413.00,1.46
7412.00,1.46
7411.00,1.45
7410.00,1.45
7409.00,1.45
7408.00,1.45
7407.00,1.45
7406.00,1.45
7405.00,1.45
7404.00,1.45
7403.00,1.45
7402.00,1.44
7401.00,1.44
7400.00,1.44
7399.00,1.44
7398.00,1.44
7397.00,1.44
7396.00,1.44
7395.00,1.44
7394.00,1.43
7393.00,1.43
7392.00,1.43
7391.00,1.43
7390.00,1.43
7389.00,1.43
7388.00,1.43
7387.00,1.43
7386.00,1.43
7385.00,1.43
7384.00,1.43
7383.00,1.43
7382.00,1.43
7381.00,1.43
7380.00,1.43
7379.00,1.43
7378.00,1.43
7377.00,1.43
7376.00,1.43
7375.00,1.43
7374.00,1.43
7373.00,1.43
7372.00,1.43
7371.00,1.43
7370.00,1.43
7369.00,1.43
7368.00,1.43
7367.00,1.43
7366.00,1.43
7365.00,1.42
7364.00,1.42
7363.00,1.42
7362.00,1.42
7361.00,1.42
7360.00,1.42
7359.00,1.42
7358.00,1.42
7357.00,1.42
7356.00,1.42
7355.00,1.42
7354.00,1.42
7353.00,1.42
7352.00,1.42
7351.00,1.42
7350.00,1.42
7349.00,1.42
7348.00,1.41
7347.00,1.41
7346.00,1.41
7345.00,1.41
7344.00,1.41
7343.00,1.41
7342.00,1.41
7341.00,1.41
7340.00,1.41
7339.00,1.41
7338.00,1.41
7337.00,1.41
7336.00,1.41
7335.00,1.41
7334.00,1.41
7333.00,1.41
7332.00,1.41
7331.00,1.41
7330.00,1.41
7329.00,1.41
7328.00,1.41
7327.00,1.41
7326.00,1.41
7325.00,1.41
7324.00,1.41
7323.00,1.41
7322.00,1.41
7321.00,1.41
7320.00,1.41
7319.00,1.41
7318.00,1.41
7317.00,1.40
7316.00,1.40
7315.00,1.40
7314.00,1.40
7313.00,1.40
7312.00,1.40
7311.00,1.39
7310.00,1.39
7309.00,1.39
7308.00,1.39
7307.00,1.39
7306.00,1.39
7305.00,1.39
7304.00,1.38
7303.00,1.38
7302.00,1.38
7301.00,1.38
7300.00,1.38
7299.00,1.38
7298.00,1.38
7297.00,1.38
7296.00,1.38
7295.00,1.38
7294.00,1.38
7293.00,1.38
7292.00,1.38
7291.00,1.38
7290.00,1.38
7289.00,1.38
7288.00,1.38
7287.00,1.38
7286.00,1.38
7285.00,1.38
7284.00,1.38
7283.00,1.38
7282.00,1.37
7281.00,1.37
7280.00,1.37
7279.00,1.37
7278.00,1.37
7277.00,1.37
7276.00,1.37
7275.00,1.37
7274.00,1.37
7273.00,1.36
7272.00,1.36
7271.00,1.36
7270.00,1.36
7269.00,1.36
7268.00,1.36
7267.00,1.35
7266.00,1.35
7265.00,1.35
7264.00,1.35
7263.00,1.35
7262.00,1.34
7261.00,1.34
7260.00,1.34
7259.00,1.34
7258.00,1.33
7257.00,1.33
7256.00,1.33
7255.00,1.33
7254.00,1.32
7253.00,1.32
7252.00,1.32
7251.00,1.31
7250.00,1.31
7249.00,1.31
7248.00,1.30
7247.00,1.30
7246.00,1.30
7245.00,1.29
7244.00,1.29
7243.00,1.29
7242.00,1.28
7241.00,1.28
7240.00,1.27
7239.00,1.27
7238.00,1.27
7237.00,1.26
7236.00,1.26
7235.00,1.26
7234.00,1.25
7233.00,1.25
7232.00,1.25
7231.00,1.25
7230.00,1.24
7229.00,1.24
7228.00,1.24
7227.00,1.23
7226.00,1.23
7225.00,1.23
7224.00,1.23
7223.00,1.22
7222.00,1.22
7221.00,1.22
7220.00,1.22
7219.00,1.21
7218.00,1.21
7217.00,1.21
7216.00,1.20
7215.00,1.20
7214.00,1.19
7213.00,1.19
7212.00,1.19
7211.00,1.18
7210.00,1.18
7209.00,1.17
7208.00,1.17
7207.00,1.16
7206.00,1.16
7205.00,1.16
7204.00,1.15
7203.00,1.15
7202.00,1.14
7201.00,1.14
7200.00,1.14
7199.00,1.13
7198.00,1.13
7197.00,1.13
7196.00,1.12
7195.00,1.12
7194.00,1.12
7193.00,1.11
7192.00,1.11
7191.00,1.11
7190.00,1.10
7189.00,1.10
7188.00,1.10
7187.00,1.09
7186.00,1.09
7185.00,1.09
7184.00,1.08
7183.00,1.08
7182.00,1.08
7181.00,1.07
7180.00,1.07
7179.00,1.07
7178.00,1.07
7177.00,1.06
7176.00,1.06
7175.00,1.06
7174.00,1.05
7173.00,1.05
7172.00,1.05
7171.00,1.04
7170.00,1.04
7169.00,1.04
7168.00,1.03
7167.00,1.03
7166.00,1.03
7165.00,1.02
7164.00,1.02
7163.00,1.01
7162.00,1.01
7161.00,1.01
7160.00,1.00
7159.00,1.00
7158.00,1.00
7157.00,0.99
7156.00,0.99
7155.00,0.99
7154.00,0.99
7153.00,0.98
7152.00,0.98
7151.00,0.98
7150.00,0.97
7149.00,0.97
7148.00,0.97
7147.00,0.96
7146.00,0.96
7145.00,0.96
7144.00,0.95
7143.00,0.95
7142.00,0.95
7141.00,0.95
7140.00,0.94
7139.00,0.94
7138.00,0.94
7137.00,0.94
7136.00,0.94
7135.00,0.93
7134.00,0.93
7133.00,0.93
7132.00,0.93
7131.00,0.93
7130.00,0.92
7129.00,0.92
7128.00,0.92
7127.00,0.92
7126.00,0.91
7125.00,0.91
7124.00,0.91
7123.00,0.90
7122.00,0.90
7121.00,0.90
7120.00,0.89
7119.00,0.89
7118.00,0.89
7117.00,0.88
7116.00,0.88
7115.00,0.88
7114.00,0.87
7113.00,0.87
7112.00,0.87
7111.00,0.87
7110.00,0.86
7109.00,0.86
7108.00,0.86
7107.00,0.86
7106.00,0.86
7105.00,0.85
7104.00,0.85
7103.00,0.85
7102.00,0.85
7101.00,0.85
7100.00,0.85
7099.00,0.85
7098.00,0.84
7097.00,0.84
7096.00,0.84
7095.00,0.84
7094.00,0.84
7093.00,0.84
7092.00,0.83
7091.00,0.83
7090.00,0.83
7089.00,0.83
7088.00,0.83
7087.00,0.82
7086.00,0.82
7085.00,0.82
7084.00,0.82
7083.00,0.82
7082.00,0.81
7081.00,0.81
7080.00,0.81
7079.00,0.81
7078.00,0.80
7077.00,0.80
7076.00,0.80
7075.00,0.80
7074.00,0.80
7073.00,0.80
7072.00,0.79
7071.00,0.79
7070.00,0.79
7069.00,0.79
7068.00,0.79
7067.00,0.79
7066.00,0.79
7065.00,0.79
7064.00,0.79
7063.00,0.79
7062.00,0.79
7061.00,0.79
7060.00,0.79
7059.00,0.79
7058.00,0.79
7057.00,0.79
7056.00,0.79
7055.00,0.79
7054.00,0.78
7053.00,0.78
7052.00,0.78
7051.00,0.78
7050.00,0.78
7049.00,0.78
7048.00,0.78
7047.00,0.78
7046.00,0.78
7045.00,0.78
7044.00,0.78
7043.00,0.78
7042.00,0.78
7041.00,0.77
7040.00,0.77
7039.00,0.77
7038.00,0.77
7037.00,0.77
7036.00,0.77
7035.00,0.77
7034.00,0.77
7033.00,0.77
7032.00,0.77
7031.00,0.77
7030.00,0.77
7029.00,0.76
7028.00,0.76
7027.00,0.76
7026.00,0.76
7025.00,0.76
7024.00,0.76
7023.00,0.76
7022.00,0.76
7021.00,0.76
7020.00,0.76
7019.00,0.76
7018.00,0.76
7017.00,0.76
7016.00,0.76
7015.00,0.76
7014.00,0.76
7013.00,0.75
7012.00,0.75
7011.00,0.75
7010.00,0.75
7009.00,0.75
7008.00,0.75
7007.00,0.75
7006.00,0.75
7005.00,0.75
7004.00,0.75
7003.00,0.75
7002.00,0.75
7001.00,0.75
7000.00,0.75
6999.00,0.74
6998.00,0.74
6997.00,0.74
6996.00,0.74
6995.00,0.74
6994.00,0.74
6993.00,0.74
6992.00,0.74
6991.00,0.74
6990.00,0.74
6989.00,0.74
6988.00,0.74
6987.00,0.74
6986.00,0.74
6985.00,0.74
6984.00,0.74
6983.00,0.74
6982.00,0.74
6981.00,0.74
6980.00,0.74
6979.00,0.74
6978.00,0.74
6977.00,0.74
6976.00,0.74
6975.00,0.74
6974.00,0.74
6973.00,0.74
6972.00,0.74
6971.00,0.74
6970.00,0.74
6969.00,0.74
6968.00,0.74
6967.00,0.74
6966.00,0.74
6965.00,0.74
6964.00,0.74
6963.00,0.74
6962.00,0.73
6961.00,0.73
6960.00,0.73
6959.00,0.73
6958.00,0.73
6957.00,0.73
6956.00,0.73
6955.00,0.73
6954.00,0.73
6953.00,0.73
6952.00,0.73
6951.00,0.73
6950.00,0.73
6949.00,0.73
6948.00,0.73
6947.00,0.73
6946.00,0.73
6945.00,0.73
6944.00,0.73
6943.00,0.73
6942.00,0.73
6941.00,0.73
6940.00,0.73
6939.00,0.73
6938.00,0.73
6937.00,0.73
6936.00,0.73
6935.00,0.73
6934.00,0.73
6933.00,0.73
6932.00,0.73
6931.00,0.73
6930.00,0.73
6929.00,0.73
6928.00,0.73
6927.00,0.73
6926.00,0.73
6925.00,0.73
6924.00,0.73
6923.00,0.73
6922.00,0.73
6921.00,0.73
6920.00,0.73
6919.00,0.73
6918.00,0.73
6917.00,0.73
6916.00,0.73
6915.00,0.73
6914.00,0.73
6913.00,0.73
6912.00,0.74
6911.00,0.74
6910.00,0.74
6909.00,0.74
6908.00,0.74
6907.00,0.74
6906.00,0.74
6905.00,0.74
6904.00,0.74
6903.00,0.74
6902.00,0.74
6901.00,0.74
6900.00,0.74
6899.00,0.74
6898.00,0.74
6897.00,0.73
6896.00,0.73
6895.00,0.73
6894.00,0.73
6893.00,0.73
6892.00,0.73
6891.00,0.73
6890.00,0.73
6889.00,0.73
6888.00,0.73
6887.00,0.73
6886.00,0.73
6885.00,0.73
6884.00,0.73
6883.00,0.73
6882.00,0.73
6881.00,0.73
6880.00,0.73
6879.00,0.73
6878.00,0.73
6877.00,0.73
6876.00,0.73
6875.00,0.73
6874.00,0.73
6873.00,0.73
6872.00,0.73
6871.00,0.73
6870.00,0.73
6869.00,0.73
6868.00,0.73
6867.00,0.73
6866.00,0.73
6865.00,0.73
6864.00,0.73
6863.00,0.73
6862.00,0.73
6861.00,0.73
6860.00,0.73
6859.00,0.73
6858.00,0.73
6857.00,0.73
6856.00,0.73
6855.00,0.73
6854.00,0.73
6853.00,0.73
6852.00,0.73
6851.00,0.73
6850.00,0.73
6849.00,0.73
6848.00,0.73
6847.00,0.73
6846.00,0.73
6845.00,0.73
6844.00,0.73
6843.00,0.73
6842.00,0.73
6841.00,0.73
6840.00,0.73
6839.00,0.73
6838.00,0.73
6837.00,0.73
6836.00,0.73
6835.00,0.73
6834.00,0.73
6833.00,0.73
6832.00,0.73
6831.00,0.73
6830.00,0.73
6829.00,0.73
6828.00,0.73
6827.00,0.73
6826.00,0.73
6825.00,0.73
6824.00,0.73
6823.00,0.73
6822.00,0.73
6821.00,0.73
6820.00,0.73
6819.00,0.73
6818.00,0.74
6817.00,0.74
6816.00,0.74
6815.00,0.74
6814.00,0.74
6813.00,0.74
6812.00,0.74
6811.00,0.74
6810.00,0.74
6809.00,0.74
6808.00,0.74
6807.00,0.74
6806.00,0.75
6805.00,0.75
6804.00,0.75
6803.00,0.75
6802.00,0.75
6801.00,0.75
6800.00,0.75
6799.00,0.75
6798.00,0.75
6797.00,0.75
6796.00,0.75
6795.00,0.75
6794.00,0.75
6793.00,0.75
6792.00,0.75
6791.00,0.75
6790.00,0.75
6789.00,0.75
6788.00,0.75
6787.00,0.75
6786.00,0.75
6785.00,0.75
6784.00,0.75
6783.00,0.75
6782.00,0.75
6781.00,0.75
6780.00,0.75
6779.00,0.76
6778.00,0.76
6777.00,0.76
6776.00,0.76
6775.00,0.76
6774.00,0.76
6773.00,0.76
6772.00,0.76
6771.00,0.76
6770.00,0.76
6769.00,0.77
6768.00,0.77
6767.00,0.77
6766.00,0.77
6765.00,0.77
6764.00,0.77
6763.00,0.77
6762.00,0.77
6761.00,0.78
6760.00,0.78
6759.00,0.78
6758.00,0.78
6757.00,0.78
6756.00,0.78
6755.00,0.78
6754.00,0.78
6753.00,0.78
6752.00,0.78
6751.00,0.78
6750.00,0.78
6749.00,0.78
6748.00,0.78
6747.00,0.78
6746.00,0.78
6745.00,0.78
6744.00,0.78
6743.00,0.78
6742.00,0.78
6741.00,0.79
6740.00,0.79
6739.00,0.79
6738.00,0.79
6737.00,0.79
6736.00,0.79
6735.00,0.79
6734.00,0.79
6733.00,0.79
6732.00,0.79
6731.00,0.79
6730.00,0.79
6729.00,0.79
6728.00,0.79
6727.00,0.79
6726.00,0.79
6725.00,0.80
6724.00,0.80
6723.00,0.80
6722.00,0.80
6721.00,0.80
6720.00,0.80
6719.00,0.80
6718.00,0.80
6717.00,0.80
6716.00,0.80
6715.00,0.80
6714.00,0.80
6713.00,0.80
6712.00,0.80
6711.00,0.81
6710.00,0.81
6709.00,0.81
6708.00,0.81
6707.00,0.81
6706.00,0.81
6705.00,0.81
6704.00,0.81
6703.00,0.81
6702.00,0.82
6701.00,0.82
6700.00,0.82
6699.00,0.82
6698.00,0.82
6697.00,0.82
6696.00,0.82
6695.00,0.82
6694.00,0.82
6693.00,0.82
6692.00,0.82
6691.00,0.82
6690.00,0.82
6689.00,0.82
6688.00,0.82
6687.00,0.82
6686.00,0.83
6685.00,0.83
6684.00,0.83
6683.00,0.83
6682.00,0.83
6681.00,0.83
6680.00,0.83
6679.00,0.83
6678.00,0.83
6677.00,0.83
6676.00,0.83
6675.00,0.83
6674.00,0.83
6673.00,0.83
6672.00,0.83
6671.00,0.83
6670.00,0.83
6669.00,0.84
6668.00,0.84
6667.00,0.84
6666.00,0.84
6665.00,0.84
6664.00,0.84
6663.00,0.84
6662.00,0.84
6661.00,0.84
6660.00,0.84
6659.00,0.85
6658.00,0.85
6657.00,0.85
6656.00,0.85
6655.00,0.85
6654.00,0.85
6653.00,0.85
6652.00,0.86
6651.00,0.86
6650.00,0.86
6649.00,0.86
6648.00,0.86
6647.00,0.86
6646.00,0.86
6645.00,0.87
6644.00,0.87
6643.00,0.87
6642.00,0.87
6641.00,0.87
6640.00,0.87
6639.00,0.88
6638.00,0.88
6637.00,0.88
6636.00,0.88
6635.00,0.88
6634.00,0.88
6633.00,0.89
6632.00,0.89
6631.00,0.89
6630.00,0.89
6629.00,0.89
6628.00,0.89
6627.00,0.89
6626.00,0.89
6625.00,0.89
6624.00,0.90
6623.00,0.90
6622.00,0.90
6621.00,0.90
6620.00,0.90
6619.00,0.90
6618.00,0.90
6617.00,0.90
6616.00,0.90
6615.00,0.90
6614.00,0.90
6613.00,0.90
6612.00,0.90
6611.00,0.90
6610.00,0.90
6609.00,0.90
6608.00,0.90
6607.00,0.90
6606.00,0.91
6605.00,0.91
6604.00,0.91
6603.00,0.91
6602.00,0.91
6601.00,0.91
6600.00,0.91
6599.00,0.91
6598.00,0.91
6597.00,0.91
6596.00,0.92
6595.00,0.92
6594.00,0.92
6593.00,0.92
6592.00,0.92
6591.00,0.92
6590.00,0.92
6589.00,0.92
6588.00,0.92
6587.00,0.92
6586.00,0.93
6585.00,0.93
6584.00,0.93
6583.00,0.93
6582.00,0.93
6581.00,0.93
6580.00,0.93
6579.00,0.93
6578.00,0.93
6577.00,0.93
6576.00,0.93
6575.00,0.94
6574.00,0.94
6573.00,0.94
6572.00,0.94
6571.00,0.94
6570.00,0.94
6569.00,0.94
6568.00,0.94
6567.00,0.94
6566.00,0.95
6565.00,0.95
6564.00,0.95
6563.00,0.95
6562.00,0.95
6561.00,0.95
6560.00,0.95
6559.00,0.96
6558.00,0.96
6557.00,0.96
6556.00,0.96
6555.00,0.96
6554.00,0.96
6553.00,0.96
6552.00,0.96
6551.00,0.96
6550.00,0.96
6549.00,0.96
6548.00,0.96
6547.00,0.97
6546.00,0.97
6545.00,0.97
6544.00,0.97
6543.00,0.97
6542.00,0.97
6541.00,0.97
6540.00,0.97
6539.00,0.97
6538.00,0.97
6537.00,0.98
6536.00,0.98
6535.00,0.98
6534.00,0.98
6533.00,0.98
6532.00,0.98
6531.00,0.98
6530.00,0.98
6529.00,0.98
6528.00,0.99
6527.00,0.99
6526.00,0.99
6525.00,0.99
6524.00,0.99
6523.00,0.99
6522.00,0.99
6521.00,0.99
6520.00,0.99
6519.00,0.99
6518.00,1.00
6517.00,1.00
6516.00,1.00
6515.00,1.00
6514.00,1.00
6513.00,1.00
6512.00,1.00
6511.00,1.00
6510.00,1.00
6509.00,1.01
6508.00,1.01
6507.00,1.01
6506.00,1.01
6505.00,1.01
6504.00,1.01
6503.00,1.01
6502.00,1.01
6501.00,1.01
6500.00,1.01
6499.00,1.01
6498.00,1.01
6497.00,1.02
6496.00,1.02
6495.00,1.02
6494.00,1.02
6493.00,1.02
6492.00,1.02
6491.00,1.02
6490.00,1.02
6489.00,1.02
6488.00,1.02
6487.00,1.02
6486.00,1.02
6485.00,1.03
6484.00,1.03
6483.00,1.03
6482.00,1.03
6481.00,1.03
6480.00,1.03
6479.00,1.03
6478.00,1.03
6477.00,1.03
6476.00,1.04
6475.00,1.04
6474.00,1.04
6473.00,1.04
6472.00,1.04
6471.00,1.04
6470.00,1.04
6469.00,1.04
6468.00,1.04
6467.00,1.04
6466.00,1.05
6465.00,1.05
6464.00,1.05
6463.00,1.05
6462.00,1.05
6461.00,1.05
6460.00,1.05
6459.00,1.05
6458.00,1.05
6457.00,1.05
6456.00,1.05
6455.00,1.05
6454.00,1.06
6453.00,1.06
6452.00,1.06
6451.00,1.06
6450.00,1.06
6449.00,1.06
6448.00,1.06
6447.00,1.06
6446.00,1.06
6445.00,1.06
6444.00,1.06
6443.00,1.06
6442.00,1.06
6441.00,1.06
6440.00,1.06
6439.00,1.06
6438.00,1.06
6437.00,1.06
6436.00,1.06
6435.00,1.06
6434.00,1.07
6433.00,1.07
6432.00,1.07
6431.00,1.07
6430.00,1.07
6429.00,1.07
6428.00,1.07
6427.00,1.07
6426.00,1.07
6425.00,1.07
6424.00,1.07
6423.00,1.07
6422.00,1.08
6421.00,1.08
6420.00,1.08
6419.00,1.08
6418.00,1.08
6417.00,1.08
6416.00,1.08
6415.00,1.08
6414.00,1.08
6413.00,1.09
6412.00,1.09
6411.00,1.09
6410.00,1.09
6409.00,1.09
6408.00,1.09
6407.00,1.09
6406.00,1.09
6405.00,1.09
6404.00,1.09
6403.00,1.10
6402.00,1.10
6401.00,1.10
6400.00,1.10
6399.00,1.10
6398.00,1.10
6397.00,1.10
6396.00,1.10
6395.00,1.10
6394.00,1.10
6393.00,1.10
6392.00,1.10
6391.00,1.10
6390.00,1.10
6389.00,1.10
6388.00,1.10
6387.00,1.10
6386.00,1.10
6385.00,1.10
6384.00,1.10
6383.00,1.10
6382.00,1.10
6381.00,1.10
6380.00,1.10
6379.00,1.11
6378.00,1.11
6377.00,1.11
6376.00,1.11
6375.00,1.11
6374.00,1.11
6373.00,1.11
6372.00,1.11
6371.00,1.11
6370.00,1.11
6369.00,1.12
6368.00,1.12
6367.00,1.12
6366.00,1.12
6365.00,1.12
6364.00,1.12
6363.00,1.12
6362.00,1.13
6361.00,1.13
6360.00,1.13
6359.00,1.13
6358.00,1.13
6357.00,1.13
6356.00,1.13
6355.00,1.14
6354.00,1.14
6353.00,1.14
6352.00,1.14
6351.00,1.14
6350.00,1.14
6349.00,1.15
6348.00,1.15
6347.00,1.15
6346.00,1.15
6345.00,1.15
6344.00,1.15
6343.00,1.15
6342.00,1.15
6341.00,1.15
6340.00,1.15
6339.00,1.16
6338.00,1.16
6337.00,1.16
6336.00,1.16
6335.00,1.16
6334.00,1.16
6333.00,1.16
6332.00,1.16
6331.00,1.16
6330.00,1.16
6329.00,1.16
6328.00,1.16
6327.00,1.16
6326.00,1.16
6325.00,1.17
6324.00,1.17
6323.00,1.17
6322.00,1.17
6321.00,1.17
6320.00,1.17
6319.00,1.17
6318.00,1.17
6317.00,1.17
6316.00,1.17
6315.00,1.18
6314.00,1.18
6313.00,1.18
6312.00,1.18
6311.00,1.18
6310.00,1.18
6309.00,1.18
6308.00,1.18
6307.00,1.19
6306.00,1.19
6305.00,1.19
6304.00,1.19
6303.00,1.19
6302.00,1.19
6301.00,1.19
6300.00,1.20
6299.00,1.20
6298.00,1.20
6297.00,1.20
6296.00,1.20
6295.00,1.20
6294.00,1.20
6293.00,1.21
6292.00,1.21
6291.00,1.21
6290.00,1.21
6289.00,1.21
6288.00,1.21
6287.00,1.21
6286.00,1.21
6285.00,1.22
6284.00,1.22
6283.00,1.22
6282.00,1.22
6281.00,1.22
6280.00,1.22
6279.00,1.22
6278.00,1.22
6277.00,1.22
6276.00,1.22
6275.00,1.22
6274.00,1.22
6273.00,1.22
6272.00,1.23
6271.00,1.23
6270.00,1.23
6269.00,1.23
6268.00,1.23
6267.00,1.23
6266.00,1.23
6265.00,1.23
6264.00,1.23
6263.00,1.23
6262.00,1.23
6261.00,1.24
6260.00,1.24
6259.00,1.24
6258.00,1.24
6257.00,1.24
6256.00,1.24
6255.00,1.24
6254.00,1.25
6253.00,1.25
6252.00,1.25
6251.00,1.25
6250.00,1.25
6249.00,1.25
6248.00,1.25
6247.00,1.26
6246.00,1.26
6245.00,1.26
6244.00,1.26
6243.00,1.26
6242.00,1.26
6241.00,1.26
6240.00,1.27
6239.00,1.27
6238.00,1.27
6237.00,1.27
6236.00,1.27
6235.00,1.27
6234.00,1.27
6233.00,1.28
6232.00,1.28
6231.00,1.28
6230.00,1.28
6229.00,1.28
6228.00,1.28
6227.00,1.28
6226.00,1.29
6225.00,1.29
6224.00,1.29
6223.00,1.29
6222.00,1.29
6221.00,1.29
6220.00,1.29
6219.00,1.29
6218.00,1.29
6217.00,1.29
6216.00,1.29
6215.00,1.30
6214.00,1.30
6213.00,1.30
6212.00,1.30
6211.00,1.30
6210.00,1.30
6209.00,1.30
6208.00,1.30
6207.00,1.30
6206.00,1.31
6205.00,1.31
6204.00,1.31
6203.00,1.31
6202.00,1.31
6201.00,1.31
6200.00,1.31
6199.00,1.32
6198.00,1.32
6197.00,1.32
6196.00,1.32
6195.00,1.32
6194.00,1.32
6193.00,1.32
6192.00,1.32
6191.00,1.33
6190.00,1.33
6189.00,1.33
6188.00,1.33
6187.00,1.33
6186.00,1.33
6185.00,1.33
6184.00,1.33
6183.00,1.34
6182.00,1.34
6181.00,1.34
6180.00,1.34
6179.00,1.34
6178.00,1.34
6177.00,1.34
6176.00,1.34
6175.00,1.34
6174.00,1.35
6173.00,1.35
6172.00,1.35
6171.00,1.35
6170.00,1.35
6169.00,1.35
6168.00,1.35
6167.00,1.35
6166.00,1.36
6165.00,1.36
6164.00,1.36
6163.00,1.36
6162.00,1.36
6161.00,1.36
6160.00,1.36
6159.00,1.37
6158.00,1.37
6157.00,1.37
6156.00,1.37
6155.00,1.37
6154.00,1.38
6153.00,1.38
6152.00,1.38
6151.00,1.38
6150.00,1.38
6149.00,1.38
6148.00,1.39
6147.00,1.39
6146.00,1.39
6145.00,1.39
6144.00,1.39
6143.00,1.39
6142.00,1.39
6141.00,1.40
6140.00,1.40
6139.00,1.40
6138.00,1.40
6137.00,1.40
6136.00,1.40
6135.00,1.40
6134.00,1.40
6133.00,1.41
6132.00,1.41
6131.00,1.41
6130.00,1.41
6129.00,1.41
6128.00,1.41
6127.00,1.41
6126.00,1.42
6125.00,1.42
6124.00,1.42
6123.00,1.42
6122.00,1.42
6121.00,1.42
6120.00,1.42
6119.00,1.42
6118.00,1.43
6117.00,1.43
6116.00,1.43
6115.00,1.43
6114.00,1.43
6113.00,1.43
6112.00,1.43
6111.00,1.43
6110.00,1.43
6109.00,1.44
6108.00,1.44
6107.00,1.44
6106.00,1.44
6105.00,1.44
6104.00,1.44
6103.00,1.44
6102.00,1.44
6101.00,1.45
6100.00,1.45
6099.00,1.45
6098.00,1.45
6097.00,1.45
6096.00,1.45
6095.00,1.45
6094.00,1.45
6093.00,1.46
6092.00,1.46
6091.00,1.46
6090.00,1.46
6089.00,1.46
6088.00,1.46
6087.00,1.46
6086.00,1.46
6085.00,1.46
6084.00,1.47
6083.00,1.47
6082.00,1.47
6081.00,1.47
6080.00,1.47
6079.00,1.47
6078.00,1.47
6077.00,1.47
6076.00,1.47
6075.00,1.48
6074.00,1.48
6073.00,1.48
6072.00,1.48
6071.00,1.48
6070.00,1.48
6069.00,1.48
6068.00,1.48
6067.00,1.48
6066.00,1.48
6065.00,1.49
6064.00,1.49
6063.00,1.49
6062.00,1.49
6061.00,1.49
6060.00,1.49
6059.00,1.49
6058.00,1.49
6057.00,1.49
6056.00,1.50
6055.00,1.50
6054.00,1.50
6053.00,1.50
6052.00,1.50
6051.00,1.50
6050.00,1.50
6049.00,1.50
6048.00,1.50
6047.00,1.51
6046.00,1.51
6045.00,1.51
6044.00,1.51
6043.00,1.51
6042.00,1.51
6041.00,1.51
6040.00,1.51
6039.00,1.51
6038.00,1.51
6037.00,1.51
6036.00,1.51
6035.00,1.51
6034.00,1.51
6033.00,1.51
6032.00,1.51
6031.00,1.51
6030.00,1.52
6029.00,1.52
6028.00,1.52
6027.00,1.52
6026.00,1.52
6025.00,1.52
6024.00,1.52
6023.00,1.52
6022.00,1.52
6021.00,1.52
6020.00,1.52
6019.00,1.52
6018.00,1.52
6017.00,1.52
6016.00,1.52
6015.00,1.52
6014.00,1.52
6013.00,1.52
6012.00,1.52
6011.00,1.52
6010.00,1.52
6009.00,1.52
6008.00,1.52
6007.00,1.52
6006.00,1.52
6005.00,1.52
6004.00,1.52
6003.00,1.52
6002.00,1.52
6001.00,1.52
6000.00,1.52
5999.00,1.52
5998.00,1.52
5997.00,1.52
5996.00,1.52
5995.00,1.51
5994.00,1.51
5993.00,1.51
5992.00,1.51
5991.00,1.51
5990.00,1.51
5989.00,1.51
5988.00,1.51
5987.00,1.51
5986.00,1.50
5985.00,1.50
5984.00,1.50
5983.00,1.50
5982.00,1.50
5981.00,1.49
5980.00,1.49
5979.00,1.49
5978.00,1.49
5977.00,1.48
5976.00,1.48
5975.00,1.48
5974.00,1.47
5973.00,1.47
5972.00,1.47
5971.00,1.46
5970.00,1.46
5969.00,1.45
5968.00,1.45
5967.00,1.44
5966.00,1.44
5965.00,1.43
5964.00,1.43
5963.00,1.42
5962.00,1.42
5961.00,1.41
5960.00,1.41
5959.00,1.40
5958.00,1.40
5957.00,1.39
5956.00,1.39
5955.00,1.39
5954.00,1.38
5953.00,1.38
5952.00,1.37
5951.00,1.37
5950.00,1.37
5949.00,1.36
5948.00,1.36
5947.00,1.36
5946.00,1.36
5945.00,1.35
5944.00,1.35
5943.00,1.35
5942.00,1.35
5941.00,1.35
5940.00,1.35
5939.00,1.35
5938.00,1.35
5937.00,1.35
5936.00,1.35
5935.00,1.35
5934.00,1.35
5933.00,1.35
5932.00,1.34
5931.00,1.34
5930.00,1.34
5929.00,1.34
5928.00,1.34
5927.00,1.34
5926.00,1.34
5925.00,1.33
5924.00,1.33
5923.00,1.33
5922.00,1.33
5921.00,1.33
5920.00,1.32
5919.00,1.32
5918.00,1.32
5917.00,1.32
5916.00,1.31
5915.00,1.31
5914.00,1.31
5913.00,1.31
5912.00,1.31
5911.00,1.31
5910.00,1.30
5909.00,1.30
5908.00,1.30
5907.00,1.30
5906.00,1.30
5905.00,1.30
5904.00,1.30
5903.00,1.30
5902.00,1.30
5901.00,1.30
5900.00,1.30
5899.00,1.31
5898.00,1.31
5897.00,1.31
5896.00,1.31
5895.00,1.31
5894.00,1.32
5893.00,1.32
5892.00,1.32
5891.00,1.33
5890.00,1.33
5889.00,1.33
5888.00,1.33
5887.00,1.34
5886.00,1.34
5885.00,1.34
5884.00,1.34
5883.00,1.35
5882.00,1.35
5881.00,1.35
5880.00,1.35
5879.00,1.36
5878.00,1.36
5877.00,1.36
5876.00,1.36
5875.00,1.36
5874.00,1.36
5873.00,1.37
5872.00,1.37
5871.00,1.37
5870.00,1.37
5869.00,1.37
5868.00,1.37
5867.00,1.38
5866.00,1.38
5865.00,1.38
5864.00,1.38
5863.00,1.38
5862.00,1.38
5861.00,1.38
5860.00,1.39
5859.00,1.39
5858.00,1.39
5857.00,1.39
5856.00,1.39
5855.00,1.39
5854.00,1.39
5853.00,1.39
5852.00,1.40
5851.00,1.40
5850.00,1.40
5849.00,1.40
5848.00,1.40
5847.00,1.40
5846.00,1.40
5845.00,1.40
5844.00,1.40
5843.00,1.40
5842.00,1.40
5841.00,1.40
5840.00,1.40
5839.00,1.40
5838.00,1.40
5837.00,1.40
5836.00,1.39
5835.00,1.39
5834.00,1.39
5833.00,1.39
5832.00,1.39
5831.00,1.39
5830.00,1.39
5829.00,1.39
5828.00,1.39
5827.00,1.39
5826.00,1.39
5825.00,1.39
5824.00,1.39
5823.00,1.40
5822.00,1.40
5821.00,1.40
5820.00,1.40
5819.00,1.40
5818.00,1.40
5817.00,1.40
5816.00,1.40
5815.00,1.40
5814.00,1.40
5813.00,1.40
5812.00,1.40
5811.00,1.40
5810.00,1.39
5809.00,1.39
5808.00,1.39
5807.00,1.39
5806.00,1.39
5805.00,1.39
5804.00,1.39
5803.00,1.39
5802.00,1.39
5801.00,1.38
5800.00,1.38
5799.00,1.38
5798.00,1.38
5797.00,1.38
5796.00,1.37
5795.00,1.37
5794.00,1.37
5793.00,1.37
5792.00,1.37
5791.00,1.36
5790.00,1.36
5789.00,1.36
5788.00,1.36
5787.00,1.35
5786.00,1.35
5785.00,1.35
5784.00,1.35
5783.00,1.35
5782.00,1.35
5781.00,1.34
5780.00,1.34
5779.00,1.34
5778.00,1.34
5777.00,1.34
5776.00,1.34
5775.00,1.34
5774.00,1.34
5773.00,1.34
5772.00,1.34
5771.00,1.34
5770.00,1.34
5769.00,1.34
5768.00,1.34
5767.00,1.34
5766.00,1.34
5765.00,1.35
5764.00,1.35
5763.00,1.35
5762.00,1.35
5761.00,1.35
5760.00,1.36
5759.00,1.36
5758.00,1.36
5757.00,1.36
5756.00,1.37
5755.00,1.37
5754.00,1.37
5753.00,1.37
5752.00,1.38
5751.00,1.38
5750.00,1.38
5749.00,1.38
5748.00,1.38
5747.00,1.39
5746.00,1.39
5745.00,1.39
5744.00,1.39
5743.00,1.39
5742.00,1.39
5741.00,1.40
5740.00,1.40
5739.00,1.40
5738.00,1.40
5737.00,1.40
5736.00,1.40
5735.00,1.40
5734.00,1.40
5733.00,1.40
5732.00,1.40
5731.00,1.40
5730.00,1.40
5729.00,1.40
5728.00,1.40
5727.00,1.40
5726.00,1.40
5725.00,1.40
5724.00,1.40
5723.00,1.40
5722.00,1.40
5721.00,1.40
5720.00,1.40
5719.00,1.40
5718.00,1.40
5717.00,1.40
5716.00,1.40
5715.00,1.40
5714.00,1.40
5713.00,1.40
5712.00,1.40
5711.00,1.40
5710.00,1.40
5709.00,1.40
5708.00,1.40
5707.00,1.40
5706.00,1.40
5705.00,1.40
5704.00,1.40
5703.00,1.40
5702.00,1.39
5701.00,1.39
5700.00,1.39
5699.00,1.39
5698.00,1.39
5697.00,1.39
5696.00,1.39
5695.00,1.39
5694.00,1.38
5693.00,1.38
5692.00,1.38
5691.00,1.38
5690.00,1.38
5689.00,1.38
5688.00,1.38
5687.00,1.37
5686.00,1.37
5685.00,1.37
5684.00,1.37
5683.00,1.37
5682.00,1.37
5681.00,1.37
5680.00,1.37
5679.00,1.36
5678.00,1.36
5677.00,1.36
5676.00,1.36
5675.00,1.36
5674.00,1.36
5673.00,1.36
5672.00,1.36
5671.00,1.36
5670.00,1.36
5669.00,1.36
5668.00,1.36
5667.00,1.36
5666.00,1.36
5665.00,1.36
5664.00,1.37
5663.00,1.37
5662.00,1.37
5661.00,1.37
5660.00,1.37
5659.00,1.37
5658.00,1.37
5657.00,1.37
5656.00,1.37
5655.00,1.37
5654.00,1.37
5653.00,1.37
5652.00,1.38
5651.00,1.38
5650.00,1.38
5649.00,1.38
5648.00,1.38
5647.00,1.38
5646.00,1.38
5645.00,1.38
5644.00,1.38
5643.00,1.38
5642.00,1.39
5641.00,1.39
5640.00,1.39
5639.00,1.39
5638.00,1.39
5637.00,1.39
5636.00,1.39
5635.00,1.39
5634.00,1.39
5633.00,1.39
5632.00,1.39
5631.00,1.39
5630.00,1.40
5629.00,1.40
5628.00,1.40
5627.00,1.40
5626.00,1.40
5625.00,1.40
5624.00,1.40
5623.00,1.40
5622.00,1.40
5621.00,1.40
5620.00,1.40
5619.00,1.40
5618.00,1.40
5617.00,1.40
5616.00,1.41
5615.00,1.41
5614.00,1.41
5613.00,1.41
5612.00,1.41
5611.00,1.41
5610.00,1.41
5609.00,1.41
5608.00,1.42
5607.00,1.42
5606.00,1.42
5605.00,1.42
5604.00,1.42
5603.00,1.42
5602.00,1.42
5601.00,1.43
5600.00,1.43
5599.00,1.43
5598.00,1.43
5597.00,1.43
5596.00,1.43
5595.00,1.43
5594.00,1.43
5593.00,1.43
5592.00,1.44
5591.00,1.44
5590.00,1.44
5589.00,1.44
5588.00,1.44
5587.00,1.44
5586.00,1.44
5585.00,1.44
5584.00,1.44
5583.00,1.44
5582.00,1.45
5581.00,1.45
5580.00,1.45
5579.00,1.45
5578.00,1.45
5577.00,1.45
5576.00,1.45
5575.00,1.45
5574.00,1.46
5573.00,1.46
5572.00,1.46
5571.00,1.46
5570.00,1.46
5569.00,1.46
5568.00,1.46
5567.00,1.46
5566.00,1.47
5565.00,1.47
5564.00,1.47
5563.00,1.47
5562.00,1.47
5561.00,1.47
5560.00,1.47
5559.00,1.47
5558.00,1.47
5557.00,1.47
5556.00,1.47
5555.00,1.48
5554.00,1.48
5553.00,1.48
5552.00,1.48
5551.00,1.48
5550.00,1.48
5549.00,1.48
5548.00,1.48
5547.00,1.48
5546.00,1.48
5545.00,1.48
5544.00,1.48
5543.00,1.48
5542.00,1.49
5541.00,1.49
5540.00,1.49
5539.00,1.49
5538.00,1.49
5537.00,1.49
5536.00,1.49
5535.00,1.49
5534.00,1.49
5533.00,1.49
5532.00,1.50
5531.00,1.50
5530.00,1.50
5529.00,1.50
5528.00,1.50
5527.00,1.50
5526.00,1.50
5525.00,1.50
5524.00,1.50
5523.00,1.50
5522.00,1.50
5521.00,1.50
5520.00,1.50
5519.00,1.50
5518.00,1.50
5517.00,1.50
5516.00,1.50
5515.00,1.50
5514.00,1.50
5513.00,1.50
5512.00,1.50
5511.00,1.50
5510.00,1.50
5509.00,1.50
5508.00,1.50
5507.00,1.50
5506.00,1.51
5505.00,1.51
5504.00,1.51
5503.00,1.51
5502.00,1.51
5501.00,1.51
5500.00,1.51
5499.00,1.51
5498.00,1.51
5497.00,1.51
5496.00,1.51
5495.00,1.51
5494.00,1.51
5493.00,1.51
5492.00,1.51
5491.00,1.51
5490.00,1.52
5489.00,1.52
5488.00,1.52
5487.00,1.52
5486.00,1.52
5485.00,1.52
5484.00,1.52
5483.00,1.52
5482.00,1.53
5481.00,1.53
5480.00,1.53
5479.00,1.53
5478.00,1.53
5477.00,1.53
5476.00,1.53
5475.00,1.53
5474.00,1.53
5473.00,1.53
5472.00,1.53
5471.00,1.53
5470.00,1.53
5469.00,1.53
5468.00,1.53
5467.00,1.53
5466.00,1.53
5465.00,1.53
5464.00,1.53
5463.00,1.53
5462.00,1.53
5461.00,1.53
5460.00,1.53
5459.00,1.53
5458.00,1.53
5457.00,1.53
5456.00,1.53
5455.00,1.53
5454.00,1.53
5453.00,1.53
5452.00,1.53
5451.00,1.53
5450.00,1.53
5449.00,1.53
5448.00,1.53
5447.00,1.53
5446.00,1.53
5445.00,1.53
5444.00,1.53
5443.00,1.53
5442.00,1.53
5441.00,1.53
5440.00,1.53
5439.00,1.53
5438.00,1.53
5437.00,1.53
5436.00,1.53
5435.00,1.53
5434.00,1.53
5433.00,1.53
5432.00,1.53
5431.00,1.53
5430.00,1.53
5429.00,1.53
5428.00,1.53
5427.00,1.53
5426.00,1.53
5425.00,1.53
5424.00,1.53
5423.00,1.53
5422.00,1.53
5421.00,1.53
5420.00,1.53
5419.00,1.53
5418.00,1.53
5417.00,1.53
5416.00,1.53
5415.00,1.53
5414.00,1.53
5413.00,1.53
5412.00,1.53
5411.00,1.53
5410.00,1.53
5409.00,1.53
5408.00,1.52
5407.00,1.52
5406.00,1.52
5405.00,1.52
5404.00,1.52
5403.00,1.52
5402.00,1.52
5401.00,1.52
5400.00,1.52
5399.00,1.51
5398.00,1.51
5397.00,1.51
5396.00,1.51
5395.00,1.51
5394.00,1.50
5393.00,1.50
5392.00,1.50
5391.00,1.49
5390.00,1.49
5389.00,1.49
5388.00,1.49
5387.00,1.48
5386.00,1.48
5385.00,1.48
5384.00,1.47
5383.00,1.47
5382.00,1.47
5381.00,1.46
5380.00,1.46
5379.00,1.45
5378.00,1.45
5377.00,1.45
5376.00,1.44
5375.00,1.44
5374.00,1.43
5373.00,1.43
5372.00,1.43
5371.00,1.42
5370.00,1.42
5369.00,1.41
5368.00,1.41
5367.00,1.40
5366.00,1.40
5365.00,1.39
5364.00,1.38
5363.00,1.38
5362.00,1.37
5361.00,1.36
5360.00,1.36
5359.00,1.35
5358.00,1.34
5357.00,1.33
5356.00,1.32
5355.00,1.31
5354.00,1.31
5353.00,1.30
5352.00,1.29
5351.00,1.28
5350.00,1.27
5349.00,1.26
5348.00,1.25
5347.00,1.24
5346.00,1.23
5345.00,1.22
5344.00,1.21
5343.00,1.20
5342.00,1.20
5341.00,1.19
5340.00,1.18
5339.00,1.17
5338.00,1.16
5337.00,1.15
5336.00,1.15
5335.00,1.14
5334.00,1.13
5333.00,1.12
5332.00,1.12
5331.00,1.11
5330.00,1.10
5329.00,1.09
5328.00,1.09
5327.00,1.08
5326.00,1.07
5325.00,1.07
5324.00,1.06
5323.00,1.05
5322.00,1.05
5321.00,1.04
5320.00,1.03
5319.00,1.03
5318.00,1.02
5317.00,1.01
5316.00,1.01
5315.00,1.00
5314.00,1.00
5313.00,0.99
5312.00,0.99
5311.00,0.98
5310.00,0.98
5309.00,0.97
5308.00,0.97
5307.00,0.96
5306.00,0.96
5305.00,0.95
5304.00,0.95
5303.00,0.95
5302.00,0.94
5301.00,0.94
5300.00,0.94
5299.00,0.93
5298.00,0.93
5297.00,0.93
5296.00,0.93
5295.00,0.92
5294.00,0.92
5293.00,0.92
5292.00,0.92
5291.00,0.92
5290.00,0.91
5289.00,0.91
5288.00,0.91
5287.00,0.91
5286.00,0.91
5285.00,0.91
5284.00,0.91
5283.00,0.91
5282.00,0.91
5281.00,0.91
5280.00,0.91
5279.00,0.91
5278.00,0.91
5277.00,0.91
5276.00,0.91
5275.00,0.91
5274.00,0.91
5273.00,0.91
5272.00,0.91
5271.00,0.91
5270.00,0.91
5269.00,0.91
5268.00,0.91
5267.00,0.91
5266.00,0.91
5265.00,0.91
5264.00,0.91
5263.00,0.91
5262.00,0.91
5261.00,0.91
5260.00,0.91
5259.00,0.91
5258.00,0.90
5257.00,0.90
5256.00,0.90
5255.00,0.90
5254.00,0.90
5253.00,0.90
5252.00,0.90
5251.00,0.90
5250.00,0.90
5249.00,0.90
5248.00,0.90
5247.00,0.90
5246.00,0.90
5245.00,0.90
5244.00,0.90
5243.00,0.90
5242.00,0.90
5241.00,0.90
5240.00,0.90
5239.00,0.90
5238.00,0.90
5237.00,0.90
5236.00,0.90
5235.00,0.90
5234.00,0.90
5233.00,0.90
5232.00,0.91
5231.00,0.91
5230.00,0.91
5229.00,0.91
5228.00,0.91
5227.00,0.91
5226.00,0.91
5225.00,0.91
5224.00,0.91
5223.00,0.91
5222.00,0.91
5221.00,0.91
5220.00,0.91
5219.00,0.91
5218.00,0.91
5217.00,0.91
5216.00,0.92
5215.00,0.92
5214.00,0.92
5213.00,0.92
5212.00,0.92
5211.00,0.92
5210.00,0.92
5209.00,0.92
5208.00,0.92
5207.00,0.92
5206.00,0.92
5205.00,0.92
5204.00,0.92
5203.00,0.92
5202.00,0.92
5201.00,0.92
5200.00,0.92
5199.00,0.92
5198.00,0.92
5197.00,0.93
5196.00,0.93
5195.00,0.93
5194.00,0.93
5193.00,0.93
5192.00,0.93
5191.00,0.93
5190.00,0.93
5189.00,0.93
5188.00,0.93
5187.00,0.93
5186.00,0.93
5185.00,0.93
5184.00,0.93
5183.00,0.93
5182.00,0.93
5181.00,0.93
5180.00,0.93
5179.00,0.93
5178.00,0.93
5177.00,0.94
5176.00,0.94
5175.00,0.94
5174.00,0.94
5173.00,0.94
5172.00,0.94
5171.00,0.94
5170.00,0.94
5169.00,0.94
5168.00,0.94
5167.00,0.94
5166.00,0.94
5165.00,0.94
5164.00,0.94
5163.00,0.94
5162.00,0.94
5161.00,0.94
5160.00,0.94
5159.00,0.94
5158.00,0.94
5157.00,0.94
5156.00,0.94
5155.00,0.94
5154.00,0.94
5153.00,0.94
5152.00,0.94
5151.00,0.94
5150.00,0.95
5149.00,0.95
5148.00,0.95
5147.00,0.95
5146.00,0.95
5145.00,0.95
5144.00,0.95
5143.00,0.95
5142.00,0.95
5141.00,0.95
5140.00,0.95
5139.00,0.95
5138.00,0.95
5137.00,0.95
5136.00,0.95
5135.00,0.95
5134.00,0.96
5133.00,0.96
5132.00,0.96
5131.00,0.96
5130.00,0.96
5129.00,0.96
5128.00,0.96
5127.00,0.96
5126.00,0.96
5125.00,0.96
5124.00,0.96
5123.00,0.96
5122.00,0.96
5121.00,0.96
5120.00,0.96
5119.00,0.96
5118.00,0.96
5117.00,0.96
5116.00,0.96
5115.00,0.96
5114.00,0.96
5113.00,0.96
5112.00,0.96
5111.00,0.96
5110.00,0.96
5109.00,0.96
5108.00,0.96
5107.00,0.96
5106.00,0.97
5105.00,0.97
5104.00,0.97
5103.00,0.97
5102.00,0.97
5101.00,0.97
5100.00,0.97
5099.00,0.97
5098.00,0.97
5097.00,0.97
5096.00,0.97
5095.00,0.97
5094.00,0.97
5093.00,0.97
5092.00,0.97
5091.00,0.97
5090.00,0.97
5089.00,0.98
5088.00,0.98
5087.00,0.98
5086.00,0.98
5085.00,0.98
5084.00,0.98
5083.00,0.98
5082.00,0.98
5081.00,0.98
5080.00,0.98
5079.00,0.98
5078.00,0.98
5077.00,0.98
5076.00,0.98
5075.00,0.98
5074.00,0.99
5073.00,0.99
5072.00,0.99
5071.00,0.99
5070.00,0.99
5069.00,0.99
5068.00,0.99
5067.00,0.99
5066.00,0.99
5065.00,0.99
5064.00,0.99
5063.00,0.99
5062.00,0.99
5061.00,0.99
5060.00,0.99
5059.00,0.99
5058.00,0.99
5057.00,0.99
5056.00,0.99
5055.00,0.99
5054.00,0.99
5053.00,0.99
5052.00,0.99
5051.00,0.99
5050.00,0.99
5049.00,0.99
5048.00,0.99
5047.00,1.00
5046.00,1.00
5045.00,1.00
5044.00,1.00
5043.00,1.00
5042.00,1.00
5041.00,1.00
5040.00,1.00
5039.00,1.00
5038.00,1.00
5037.00,1.00
5036.00,1.00
5035.00,1.00
5034.00,1.00
5033.00,1.01
5032.00,1.01
5031.00,1.01
5030.00,1.01
5029.00,1.01
5028.00,1.01
5027.00,1.01
5026.00,1.01
5025.00,1.01
5024.00,1.01
5023.00,1.01
5022.00,1.01
5021.00,1.01
5020.00,1.01
5019.00,1.01
5018.00,1.01
5017.00,1.01
5016.00,1.01
5015.00,1.01
5014.00,1.01
5013.00,1.01
5012.00,1.01
5011.00,1.01
5010.00,1.01
5009.00,1.01
5008.00,1.02
5007.00,1.02
5006.00,1.02
5005.00,1.02
5004.00,1.02
5003.00,1.02
5002.00,1.02
5001.00,1.02
5000.00,1.02
4999.00,1.02
4998.00,1.02
4997.00,1.02
4996.00,1.02
4995.00,1.02
4994.00,1.02
4993.00,1.02
4992.00,1.02
4991.00,1.02
4990.00,1.02
4989.00,1.02
4988.00,1.02
4987.00,1.03
4986.00,1.03
4985.00,1.03
4984.00,1.03
4983.00,1.03
4982.00,1.03
4981.00,1.03
4980.00,1.03
4979.00,1.03
4978.00,1.03
4977.00,1.04
4976.00,1.04
4975.00,1.04
4974.00,1.04
4973.00,1.04
4972.00,1.04
4971.00,1.04
4970.00,1.04
4969.00,1.04
4968.00,1.04
4967.00,1.04
4966.00,1.04
4965.00,1.04
4964.00,1.04
4963.00,1.04
4962.00,1.04
4961.00,1.05
4960.00,1.05
4959.00,1.05
4958.00,1.05
4957.00,1.05
4956.00,1.05
4955.00,1.05
4954.00,1.05
4953.00,1.05
4952.00,1.05
4951.00,1.05
4950.00,1.05
4949.00,1.05
4948.00,1.05
4947.00,1.05
4946.00,1.05
4945.00,1.05
4944.00,1.05
4943.00,1.05
4942.00,1.05
4941.00,1.05
4940.00,1.05
4939.00,1.06
4938.00,1.06
4937.00,1.06
4936.00,1.06
4935.00,1.06
4934.00,1.06
4933.00,1.06
4932.00,1.06
4931.00,1.06
4930.00,1.06
4929.00,1.06
4928.00,1.06
4927.00,1.06
4926.00,1.06
4925.00,1.06
4924.00,1.06
4923.00,1.07
4922.00,1.07
4921.00,1.07
4920.00,1.07
4919.00,1.07
4918.00,1.07
4917.00,1.07
4916.00,1.07
4915.00,1.07
4914.00,1.08
4913.00,1.08
4912.00,1.08
4911.00,1.08
4910.00,1.08
4909.00,1.08
4908.00,1.08
4907.00,1.08
4906.00,1.08
4905.00,1.08
4904.00,1.08
4903.00,1.09
4902.00,1.09
4901.00,1.09
4900.00,1.09
4899.00,1.09
4898.00,1.09
4897.00,1.09
4896.00,1.09
4895.00,1.09
4894.00,1.09
4893.00,1.09
4892.00,1.09
4891.00,1.09
4890.00,1.09
4889.00,1.09
4888.00,1.09
4887.00,1.09
4886.00,1.10
4885.00,1.10
4884.00,1.10
4883.00,1.10
4882.00,1.10
4881.00,1.10
4880.00,1.10
4879.00,1.10
4878.00,1.10
4877.00,1.10
4876.00,1.10
4875.00,1.10
4874.00,1.10
4873.00,1.10
4872.00,1.10
4871.00,1.10
4870.00,1.10
4869.00,1.10
4868.00,1.10
4867.00,1.10
4866.00,1.10
4865.00,1.10
4864.00,1.10
4863.00,1.10
4862.00,1.11
4861.00,1.11
4860.00,1.11
4859.00,1.11
4858.00,1.11
4857.00,1.11
4856.00,1.11
4855.00,1.11
4854.00,1.11
4853.00,1.12
4852.00,1.12
4851.00,1.12
4850.00,1.12
4849.00,1.12
4848.00,1.12
4847.00,1.12
4846.00,1.12
4845.00,1.12
4844.00,1.12
4843.00,1.12
4842.00,1.12
4841.00,1.13
4840.00,1.13
4839.00,1.13
4838.00,1.13
4837.00,1.13
4836.00,1.13
4835.00,1.13
4834.00,1.13
4833.00,1.13
4832.00,1.14
4831.00,1.14
4830.00,1.14
4829.00,1.14
4828.00,1.14
4827.00,1.14
4826.00,1.14
4825.00,1.14
4824.00,1.14
4823.00,1.15
4822.00,1.15
4821.00,1.15
4820.00,1.15
4819.00,1.15
4818.00,1.15
4817.00,1.15
4816.00,1.15
4815.00,1.15
4814.00,1.16
4813.00,1.16
4812.00,1.16
4811.00,1.16
4810.00,1.16
4809.00,1.16
4808.00,1.16
4807.00,1.16
4806.00,1.16
4805.00,1.16
4804.00,1.17
4803.00,1.17
4802.00,1.17
4801.00,1.17
4800.00,1.17
4799.00,1.17
4798.00,1.17
4797.00,1.17
4796.00,1.17
4795.00,1.17
4794.00,1.17
4793.00,1.17
4792.00,1.17
4791.00,1.17
4790.00,1.17
4789.00,1.17
4788.00,1.17
4787.00,1.17
4786.00,1.17
4785.00,1.18
4784.00,1.18
4783.00,1.18
4782.00,1.18
4781.00,1.18
4780.00,1.18
4779.00,1.18
4778.00,1.18
4777.00,1.18
4776.00,1.18
4775.00,1.19
4774.00,1.19
4773.00,1.19
4772.00,1.19
4771.00,1.19
4770.00,1.19
4769.00,1.19
4768.00,1.19
4767.00,1.19
4766.00,1.20
4765.00,1.20
4764.00,1.20
4763.00,1.20
4762.00,1.20
4761.00,1.20
4760.00,1.20
4759.00,1.20
4758.00,1.21
4757.00,1.21
4756.00,1.21
4755.00,1.21
4754.00,1.21
4753.00,1.21
4752.00,1.21
4751.00,1.22
4750.00,1.22
4749.00,1.22
4748.00,1.22
4747.00,1.22
4746.00,1.22
4745.00,1.22
4744.00,1.23
4743.00,1.23
4742.00,1.23
4741.00,1.23
4740.00,1.23
4739.00,1.24
4738.00,1.24
4737.00,1.24
4736.00,1.24
4735.00,1.24
4734.00,1.24
4733.00,1.25
4732.00,1.25
4731.00,1.25
4730.00,1.25
4729.00,1.25
4728.00,1.25
4727.00,1.26
4726.00,1.26
4725.00,1.26
4724.00,1.26
4723.00,1.26
4722.00,1.26
4721.00,1.26
4720.00,1.26
4719.00,1.26
4718.00,1.26
4717.00,1.26
4716.00,1.26
4715.00,1.27
4714.00,1.27
4713.00,1.27
4712.00,1.27
4711.00,1.27
4710.00,1.27
4709.00,1.27
4708.00,1.28
4707.00,1.28
4706.00,1.28
4705.00,1.28
4704.00,1.28
4703.00,1.28
4702.00,1.29
4701.00,1.29
4700.00,1.29
4699.00,1.29
4698.00,1.29
4697.00,1.29
4696.00,1.29
4695.00,1.30
4694.00,1.30
4693.00,1.30
4692.00,1.30
4691.00,1.30
4690.00,1.30
4689.00,1.30
4688.00,1.30
4687.00,1.30
4686.00,1.30
4685.00,1.30
4684.00,1.30
4683.00,1.31
4682.00,1.31
4681.00,1.31
4680.00,1.31
4679.00,1.31
4678.00,1.32
4677.00,1.32
4676.00,1.32
4675.00,1.32
4674.00,1.32
4673.00,1.33
4672.00,1.33
4671.00,1.33
4670.00,1.33
4669.00,1.33
4668.00,1.33
4667.00,1.33
4666.00,1.34
4665.00,1.34
4664.00,1.34
4663.00,1.34
4662.00,1.34
4661.00,1.34
4660.00,1.34
4659.00,1.34
4658.00,1.34
4657.00,1.34
4656.00,1.34
4655.00,1.34
4654.00,1.34
4653.00,1.34
4652.00,1.34
4651.00,1.34
4650.00,1.34
4649.00,1.34
4648.00,1.35
4647.00,1.35
4646.00,1.35
4645.00,1.35
4644.00,1.35
4643.00,1.35
4642.00,1.35
4641.00,1.35
4640.00,1.35
4639.00,1.35
4638.00,1.35
4637.00,1.36
4636.00,1.36
4635.00,1.36
4634.00,1.36
4633.00,1.36
4632.00,1.36
4631.00,1.36
4630.00,1.36
4629.00,1.37
4628.00,1.37
4627.00,1.37
4626.00,1.37
4625.00,1.37
4624.00,1.37
4623.00,1.37
4622.00,1.37
4621.00,1.37
4620.00,1.38
4619.00,1.38
4618.00,1.38
4617.00,1.38
4616.00,1.38
4615.00,1.38
4614.00,1.38
4613.00,1.38
4612.00,1.38
4611.00,1.38
4610.00,1.38
4609.00,1.38
4608.00,1.39
4607.00,1.39
4606.00,1.39
4605.00,1.39
4604.00,1.39
4603.00,1.39
4602.00,1.39
4601.00,1.39
4600.00,1.39
4599.00,1.39
4598.00,1.39
4597.00,1.39
4596.00,1.39
4595.00,1.39
4594.00,1.39
4593.00,1.39
4592.00,1.39
4591.00,1.39
4590.00,1.39
4589.00,1.39
4588.00,1.40
4587.00,1.40
4586.00,1.40
4585.00,1.40
4584.00,1.40
4583.00,1.40
4582.00,1.40
4581.00,1.40
4580.00,1.40
4579.00,1.41
4578.00,1.41
4577.00,1.41
4576.00,1.41
4575.00,1.41
4574.00,1.41
4573.00,1.41
4572.00,1.41
4571.00,1.41
4570.00,1.41
4569.00,1.41
4568.00,1.42
4567.00,1.42
4566.00,1.42
4565.00,1.42
4564.00,1.42
4563.00,1.42
4562.00,1.42
4561.00,1.42
4560.00,1.42
4559.00,1.42
4558.00,1.42
4557.00,1.42
4556.00,1.42
4555.00,1.42
4554.00,1.42
4553.00,1.42
4552.00,1.42
4551.00,1.43
4550.00,1.43
4549.00,1.43
4548.00,1.43
4547.00,1.43
4546.00,1.43
4545.00,1.43
4544.00,1.43
4543.00,1.43
4542.00,1.43
4541.00,1.43
4540.00,1.43
4539.00,1.43
4538.00,1.44
4537.00,1.44
4536.00,1.44
4535.00,1.44
4534.00,1.44
4533.00,1.44
4532.00,1.44
4531.00,1.44
4530.00,1.44
4529.00,1.44
4528.00,1.44
4527.00,1.44
4526.00,1.45
4525.00,1.45
4524.00,1.45
4523.00,1.45
4522.00,1.45
4521.00,1.45
4520.00,1.45
4519.00,1.45
4518.00,1.45
4517.00,1.45
4516.00,1.45
4515.00,1.45
4514.00,1.45
4513.00,1.45
4512.00,1.45
4511.00,1.45
4510.00,1.45
4509.00,1.45
4508.00,1.45
4507.00,1.45
4506.00,1.45
4505.00,1.45
4504.00,1.45
4503.00,1.45
4502.00,1.45
4501.00,1.45
4500.00,1.45
4499.00,1.45
4498.00,1.45
4497.00,1.45
4496.00,1.45
4495.00,1.45
4494.00,1.45
4493.00,1.45
4492.00,1.45
4491.00,1.45
4490.00,1.45
4489.00,1.45
4488.00,1.45
4487.00,1.45
4486.00,1.45
4485.00,1.45
4484.00,1.45
4483.00,1.45
4482.00,1.45
4481.00,1.45
4480.00,1.45
4479.00,1.44
4478.00,1.44
4477.00,1.44
4476.00,1.44
4475.00,1.44
4474.00,1.44
4473.00,1.44
4472.00,1.43
4471.00,1.43
4470.00,1.43
4469.00,1.43
4468.00,1.43
4467.00,1.42
4466.00,1.42
4465.00,1.42
4464.00,1.42
4463.00,1.41
4462.00,1.41
4461.00,1.41
4460.00,1.41
4459.00,1.40
4458.00,1.40
4457.00,1.40
4456.00,1.40
4455.00,1.39
4454.00,1.39
4453.00,1.39
4452.00,1.39
4451.00,1.38
4450.00,1.38
4449.00,1.38
4448.00,1.37
4447.00,1.37
4446.00,1.37
4445.00,1.37
4444.00,1.36
4443.00,1.36
4442.00,1.36
4441.00,1.35
4440.00,1.35
4439.00,1.35
4438.00,1.35
4437.00,1.34
4436.00,1.34
4435.00,1.34
4434.00,1.33
4433.00,1.33
4432.00,1.33
4431.00,1.33
4430.00,1.32
4429.00,1.32
4428.00,1.32
4427.00,1.32
4426.00,1.32
4425.00,1.32
4424.00,1.32
4423.00,1.31
4422.00,1.31
4421.00,1.31
4420.00,1.31
4419.00,1.31
4418.00,1.31
4417.00,1.31
4416.00,1.31
4415.00,1.31
4414.00,1.31
4413.00,1.31
4412.00,1.31
4411.00,1.31
4410.00,1.31
4409.00,1.31
4408.00,1.31
4407.00,1.32
4406.00,1.32
4405.00,1.32
4404.00,1.32
4403.00,1.32
4402.00,1.32
4401.00,1.32
4400.00,1.32
4399.00,1.32
4398.00,1.32
4397.00,1.32
4396.00,1.32
4395.00,1.33
4394.00,1.33
4393.00,1.33
4392.00,1.33
4391.00,1.33
4390.00,1.33
4389.00,1.33
4388.00,1.33
4387.00,1.33
4386.00,1.33
4385.00,1.33
4384.00,1.33
4383.00,1.33
4382.00,1.33
4381.00,1.34
4380.00,1.34
4379.00,1.34
4378.00,1.34
4377.00,1.34
4376.00,1.34
4375.00,1.34
4374.00,1.34
4373.00,1.34
4372.00,1.34
4371.00,1.34
4370.00,1.34
4369.00,1.34
4368.00,1.34
4367.00,1.34
4366.00,1.34
4365.00,1.34
4364.00,1.34
4363.00,1.34
4362.00,1.34
4361.00,1.34
4360.00,1.34
4359.00,1.34
4358.00,1.34
4357.00,1.34
4356.00,1.34
4355.00,1.33
4354.00,1.33
4353.00,1.33
4352.00,1.33
4351.00,1.33
4350.00,1.33
4349.00,1.33
4348.00,1.33
4347.00,1.33
4346.00,1.33
4345.00,1.33
4344.00,1.33
4343.00,1.33
4342.00,1.33
4341.00,1.33
4340.00,1.34
4339.00,1.34
4338.00,1.34
4337.00,1.34
4336.00,1.34
4335.00,1.34
4334.00,1.34
4333.00,1.34
4332.00,1.34
4331.00,1.34
4330.00,1.35
4329.00,1.35
4328.00,1.35
4327.00,1.35
4326.00,1.35
4325.00,1.35
4324.00,1.35
4323.00,1.36
4322.00,1.36
4321.00,1.36
4320.00,1.36
4319.00,1.36
4318.00,1.36
4317.00,1.36
4316.00,1.36
4315.00,1.36
4314.00,1.37
4313.00,1.37
4312.00,1.37
4311.00,1.37
4310.00,1.37
4309.00,1.37
4308.00,1.37
4307.00,1.37
4306.00,1.38
4305.00,1.38
4304.00,1.38
4303.00,1.38
4302.00,1.38
4301.00,1.38
4300.00,1.39
4299.00,1.39
4298.00,1.39
4297.00,1.39
4296.00,1.39
4295.00,1.39
4294.00,1.39
4293.00,1.39
4292.00,1.40
4291.00,1.40
4290.00,1.40
4289.00,1.40
4288.00,1.40
4287.00,1.40
4286.00,1.40
4285.00,1.40
4284.00,1.40
4283.00,1.40
4282.00,1.40
4281.00,1.40
4280.00,1.40
4279.00,1.40
4278.00,1.40
4277.00,1.40
4276.00,1.40
4275.00,1.40
4274.00,1.40
4273.00,1.40
4272.00,1.40
4271.00,1.41
4270.00,1.41
4269.00,1.41
4268.00,1.41
4267.00,1.41
4266.00,1.40
4265.00,1.40
4264.00,1.40
4263.00,1.40
4262.00,1.40
4261.00,1.40
4260.00,1.40
4259.00,1.40
4258.00,1.40
4257.00,1.40
4256.00,1.40
4255.00,1.40
4254.00,1.40
4253.00,1.41
4252.00,1.41
4251.00,1.41
4250.00,1.41
4249.00,1.41
4248.00,1.41
4247.00,1.41
4246.00,1.41
4245.00,1.41
4244.00,1.41
4243.00,1.41
4242.00,1.41
4241.00,1.41
4240.00,1.41
4239.00,1.41
4238.00,1.41
4237.00,1.41
4236.00,1.41
4235.00,1.41
4234.00,1.41
4233.00,1.42
4232.00,1.42
4231.00,1.42
4230.00,1.42
4229.00,1.42
4228.00,1.42
4227.00,1.42
4226.00,1.42
4225.00,1.42
4224.00,1.43
4223.00,1.43
4222.00,1.43
4221.00,1.43
4220.00,1.43
4219.00,1.43
4218.00,1.43
4217.00,1.43
4216.00,1.43
4215.00,1.43
4214.00,1.43
4213.00,1.43
4212.00,1.43
4211.00,1.43
4210.00,1.43
4209.00,1.43
4208.00,1.43
4207.00,1.43
4206.00,1.43
4205.00,1.43
4204.00,1.43
4203.00,1.43
4202.00,1.43
4201.00,1.43
4200.00,1.43
4199.00,1.43
4198.00,1.44
4197.00,1.44
4196.00,1.44
4195.00,1.44
4194.00,1.44
4193.00,1.44
4192.00,1.44
4191.00,1.44
4190.00,1.44
4189.00,1.44
4188.00,1.44
4187.00,1.44
4186.00,1.44
4185.00,1.44
4184.00,1.44
4183.00,1.44
4182.00,1.44
4181.00,1.44
4180.00,1.44
4179.00,1.43
4178.00,1.43
4177.00,1.44
4176.00,1.44
4175.00,1.44
4174.00,1.44
4173.00,1.44
4172.00,1.44
4171.00,1.44
4170.00,1.44
4169.00,1.44
4168.00,1.44
4167.00,1.44
4166.00,1.44
4165.00,1.44
4164.00,1.44
4163.00,1.44
4162.00,1.44
4161.00,1.44
4160.00,1.44
4159.00,1.44
4158.00,1.44
4157.00,1.44
4156.00,1.44
4155.00,1.44
4154.00,1.45
4153.00,1.45
4152.00,1.45
4151.00,1.45
4150.00,1.45
4149.00,1.45
4148.00,1.45
4147.00,1.45
4146.00,1.45
4145.00,1.45
4144.00,1.45
4143.00,1.45
4142.00,1.45
4141.00,1.45
4140.00,1.46
4139.00,1.46
4138.00,1.46
4137.00,1.46
4136.00,1.46
4135.00,1.46
4134.00,1.46
4133.00,1.46
4132.00,1.46
4131.00,1.46
4130.00,1.47
4129.00,1.47
4128.00,1.47
4127.00,1.47
4126.00,1.47
4125.00,1.47
4124.00,1.47
4123.00,1.47
4122.00,1.48
4121.00,1.48
4120.00,1.48
4119.00,1.48
4118.00,1.48
4117.00,1.48
4116.00,1.48
4115.00,1.48
4114.00,1.48
4113.00,1.48
4112.00,1.48
4111.00,1.48
4110.00,1.48
4109.00,1.48
4108.00,1.48
4107.00,1.48
4106.00,1.48
4105.00,1.48
4104.00,1.47
4103.00,1.47
4102.00,1.47
4101.00,1.47
4100.00,1.47
4099.00,1.47
4098.00,1.47
4097.00,1.47
4096.00,1.47
4095.00,1.47
4094.00,1.47
4093.00,1.47
4092.00,1.47
4091.00,1.48
4090.00,1.48
4089.00,1.48
4088.00,1.48
4087.00,1.48
4086.00,1.48
4085.00,1.48
4084.00,1.48
4083.00,1.48
4082.00,1.49
4081.00,1.49
4080.00,1.49
4079.00,1.49
4078.00,1.49
4077.00,1.49
4076.00,1.49
4075.00,1.49
4074.00,1.50
4073.00,1.50
4072.00,1.50
4071.00,1.50
4070.00,1.50
4069.00,1.50
4068.00,1.50
4067.00,1.50
4066.00,1.50
4065.00,1.50
4064.00,1.50
4063.00,1.49
4062.00,1.49
4061.00,1.49
4060.00,1.49
4059.00,1.49
4058.00,1.49
4057.00,1.49
4056.00,1.49
4055.00,1.49
4054.00,1.49
4053.00,1.49
4052.00,1.49
4051.00,1.49
4050.00,1.49
4049.00,1.49
4048.00,1.49
4047.00,1.49
4046.00,1.49
4045.00,1.50
4044.00,1.50
4043.00,1.50
4042.00,1.50
4041.00,1.50
4040.00,1.50
4039.00,1.50
4038.00,1.50
4037.00,1.50
4036.00,1.50
4035.00,1.50
4034.00,1.50
4033.00,1.50
4032.00,1.50
4031.00,1.50
4030.00,1.50
4029.00,1.50
4028.00,1.50
4027.00,1.50
4026.00,1.50
4025.00,1.50
4024.00,1.50
4023.00,1.50
4022.00,1.51
4021.00,1.51
4020.00,1.51
4019.00,1.51
4018.00,1.51
4017.00,1.51
4016.00,1.51
4015.00,1.51
4014.00,1.51
4013.00,1.51
4012.00,1.51
4011.00,1.51
4010.00,1.51
4009.00,1.52
4008.00,1.52
4007.00,1.52
4006.00,1.52
4005.00,1.52
4004.00,1.53
4003.00,1.53
4002.00,1.53
4001.00,1.53
4000.00,1.54
