创建为新数据集,样品 650 用户 Administrator 日期 星期四, 七月 19 2018
cm-1,%T
10000.00,1.71
9999.00,1.71
9998.00,1.71
9997.00,1.71
9996.00,1.71
9995.00,1.71
9994.00,1.71
9993.00,1.71
9992.00,1.71
9991.00,1.71
9990.00,1.71
9989.00,1.71
9988.00,1.71
9987.00,1.71
9986.00,1.71
9985.00,1.71
9984.00,1.71
9983.00,1.71
9982.00,1.71
9981.00,1.71
9980.00,1.71
9979.00,1.71
9978.00,1.71
9977.00,1.71
9976.00,1.71
9975.00,1.71
9974.00,1.71
9973.00,1.71
9972.00,1.71
9971.00,1.71
9970.00,1.71
9969.00,1.71
9968.00,1.71
9967.00,1.71
9966.00,1.70
9965.00,1.70
9964.00,1.70
9963.00,1.70
9962.00,1.70
9961.00,1.69
9960.00,1.69
9959.00,1.69
9958.00,1.69
9957.00,1.69
9956.00,1.69
9955.00,1.69
9954.00,1.69
9953.00,1.69
9952.00,1.69
9951.00,1.69
9950.00,1.69
9949.00,1.70
9948.00,1.70
9947.00,1.70
9946.00,1.70
9945.00,1.70
9944.00,1.70
9943.00,1.70
9942.00,1.71
9941.00,1.71
9940.00,1.71
9939.00,1.71
9938.00,1.71
9937.00,1.71
9936.00,1.71
9935.00,1.71
9934.00,1.70
9933.00,1.70
9932.00,1.70
9931.00,1.70
9930.00,1.70
9929.00,1.70
9928.00,1.70
9927.00,1.70
9926.00,1.70
9925.00,1.70
9924.00,1.70
9923.00,1.70
9922.00,1.70
9921.00,1.70
9920.00,1.70
9919.00,1.70
9918.00,1.70
9917.00,1.70
9916.00,1.70
9915.00,1.70
9914.00,1.71
9913.00,1.71
9912.00,1.71
9911.00,1.71
9910.00,1.71
9909.00,1.71
9908.00,1.71
9907.00,1.71
9906.00,1.71
9905.00,1.71
9904.00,1.71
9903.00,1.71
9902.00,1.71
9901.00,1.71
9900.00,1.71
9899.00,1.71
9898.00,1.71
9897.00,1.71
9896.00,1.71
9895.00,1.71
9894.00,1.71
9893.00,1.71
9892.00,1.71
9891.00,1.71
9890.00,1.71
9889.00,1.71
9888.00,1.71
9887.00,1.71
9886.00,1.71
9885.00,1.71
9884.00,1.71
9883.00,1.71
9882.00,1.71
9881.00,1.71
9880.00,1.71
9879.00,1.71
9878.00,1.71
9877.00,1.71
9876.00,1.71
9875.00,1.70
9874.00,1.70
9873.00,1.70
9872.00,1.70
9871.00,1.70
9870.00,1.70
9869.00,1.70
9868.00,1.70
9867.00,1.70
9866.00,1.70
9865.00,1.70
9864.00,1.70
9863.00,1.70
9862.00,1.70
9861.00,1.70
9860.00,1.70
9859.00,1.70
9858.00,1.70
9857.00,1.70
9856.00,1.70
9855.00,1.70
9854.00,1.70
9853.00,1.70
9852.00,1.70
9851.00,1.70
9850.00,1.70
9849.00,1.70
9848.00,1.70
9847.00,1.69
9846.00,1.69
9845.00,1.69
9844.00,1.69
9843.00,1.69
9842.00,1.68
9841.00,1.68
9840.00,1.68
9839.00,1.68
9838.00,1.68
9837.00,1.67
9836.00,1.67
9835.00,1.67
9834.00,1.67
9833.00,1.67
9832.00,1.66
9831.00,1.66
9830.00,1.66
9829.00,1.66
9828.00,1.67
9827.00,1.67
9826.00,1.67
9825.00,1.67
9824.00,1.67
9823.00,1.67
9822.00,1.68
9821.00,1.68
9820.00,1.68
9819.00,1.68
9818.00,1.69
9817.00,1.69
9816.00,1.69
9815.00,1.69
9814.00,1.69
9813.00,1.69
9812.00,1.69
9811.00,1.69
9810.00,1.69
9809.00,1.69
9808.00,1.69
9807.00,1.69
9806.00,1.69
9805.00,1.68
9804.00,1.68
9803.00,1.68
9802.00,1.68
9801.00,1.68
9800.00,1.68
9799.00,1.69
9798.00,1.69
9797.00,1.69
9796.00,1.69
9795.00,1.69
9794.00,1.69
9793.00,1.69
9792.00,1.69
9791.00,1.69
9790.00,1.69
9789.00,1.70
9788.00,1.70
9787.00,1.70
9786.00,1.70
9785.00,1.70
9784.00,1.69
9783.00,1.69
9782.00,1.69
9781.00,1.69
9780.00,1.69
9779.00,1.69
9778.00,1.69
9777.00,1.69
9776.00,1.69
9775.00,1.68
9774.00,1.68
9773.00,1.68
9772.00,1.68
9771.00,1.68
9770.00,1.68
9769.00,1.68
9768.00,1.68
9767.00,1.68
9766.00,1.68
9765.00,1.68
9764.00,1.68
9763.00,1.68
9762.00,1.68
9761.00,1.68
9760.00,1.68
9759.00,1.68
9758.00,1.68
9757.00,1.68
9756.00,1.68
9755.00,1.68
9754.00,1.68
9753.00,1.68
9752.00,1.68
9751.00,1.67
9750.00,1.67
9749.00,1.67
9748.00,1.67
9747.00,1.67
9746.00,1.67
9745.00,1.67
9744.00,1.67
9743.00,1.67
9742.00,1.67
9741.00,1.67
9740.00,1.67
9739.00,1.67
9738.00,1.67
9737.00,1.67
9736.00,1.67
9735.00,1.67
9734.00,1.67
9733.00,1.67
9732.00,1.68
9731.00,1.68
9730.00,1.68
9729.00,1.68
9728.00,1.68
9727.00,1.68
9726.00,1.68
9725.00,1.68
9724.00,1.68
9723.00,1.68
9722.00,1.68
9721.00,1.68
9720.00,1.68
9719.00,1.68
9718.00,1.68
9717.00,1.68
9716.00,1.68
9715.00,1.68
9714.00,1.68
9713.00,1.68
9712.00,1.68
9711.00,1.68
9710.00,1.68
9709.00,1.68
9708.00,1.68
9707.00,1.68
9706.00,1.68
9705.00,1.68
9704.00,1.68
9703.00,1.68
9702.00,1.68
9701.00,1.68
9700.00,1.68
9699.00,1.68
9698.00,1.68
9697.00,1.68
9696.00,1.68
9695.00,1.68
9694.00,1.68
9693.00,1.68
9692.00,1.67
9691.00,1.67
9690.00,1.67
9689.00,1.67
9688.00,1.67
9687.00,1.67
9686.00,1.67
9685.00,1.67
9684.00,1.67
9683.00,1.67
9682.00,1.67
9681.00,1.67
9680.00,1.67
9679.00,1.67
9678.00,1.67
9677.00,1.68
9676.00,1.68
9675.00,1.68
9674.00,1.68
9673.00,1.68
9672.00,1.68
9671.00,1.68
9670.00,1.69
9669.00,1.69
9668.00,1.69
9667.00,1.69
9666.00,1.69
9665.00,1.69
9664.00,1.69
9663.00,1.69
9662.00,1.69
9661.00,1.69
9660.00,1.68
9659.00,1.68
9658.00,1.68
9657.00,1.68
9656.00,1.68
9655.00,1.68
9654.00,1.68
9653.00,1.68
9652.00,1.68
9651.00,1.68
9650.00,1.68
9649.00,1.68
9648.00,1.68
9647.00,1.68
9646.00,1.68
9645.00,1.68
9644.00,1.68
9643.00,1.68
9642.00,1.68
9641.00,1.68
9640.00,1.68
9639.00,1.68
9638.00,1.67
9637.00,1.67
9636.00,1.67
9635.00,1.67
9634.00,1.67
9633.00,1.67
9632.00,1.67
9631.00,1.67
9630.00,1.67
9629.00,1.67
9628.00,1.67
9627.00,1.67
9626.00,1.67
9625.00,1.67
9624.00,1.67
9623.00,1.67
9622.00,1.67
9621.00,1.67
9620.00,1.67
9619.00,1.67
9618.00,1.68
9617.00,1.68
9616.00,1.68
9615.00,1.68
9614.00,1.68
9613.00,1.68
9612.00,1.68
9611.00,1.68
9610.00,1.68
9609.00,1.68
9608.00,1.68
9607.00,1.68
9606.00,1.67
9605.00,1.67
9604.00,1.67
9603.00,1.67
9602.00,1.67
9601.00,1.67
9600.00,1.67
9599.00,1.67
9598.00,1.68
9597.00,1.68
9596.00,1.68
9595.00,1.68
9594.00,1.68
9593.00,1.68
9592.00,1.68
9591.00,1.68
9590.00,1.68
9589.00,1.68
9588.00,1.68
9587.00,1.68
9586.00,1.68
9585.00,1.68
9584.00,1.68
9583.00,1.68
9582.00,1.68
9581.00,1.69
9580.00,1.69
9579.00,1.69
9578.00,1.69
9577.00,1.69
9576.00,1.69
9575.00,1.69
9574.00,1.69
9573.00,1.69
9572.00,1.70
9571.00,1.70
9570.00,1.70
9569.00,1.70
9568.00,1.70
9567.00,1.70
9566.00,1.70
9565.00,1.70
9564.00,1.70
9563.00,1.70
9562.00,1.70
9561.00,1.70
9560.00,1.70
9559.00,1.70
9558.00,1.70
9557.00,1.70
9556.00,1.70
9555.00,1.69
9554.00,1.69
9553.00,1.69
9552.00,1.69
9551.00,1.69
9550.00,1.69
9549.00,1.69
9548.00,1.69
9547.00,1.69
9546.00,1.69
9545.00,1.69
9544.00,1.69
9543.00,1.69
9542.00,1.69
9541.00,1.69
9540.00,1.69
9539.00,1.69
9538.00,1.70
9537.00,1.70
9536.00,1.70
9535.00,1.70
9534.00,1.70
9533.00,1.70
9532.00,1.70
9531.00,1.70
9530.00,1.70
9529.00,1.70
9528.00,1.70
9527.00,1.70
9526.00,1.70
9525.00,1.70
9524.00,1.70
9523.00,1.70
9522.00,1.70
9521.00,1.70
9520.00,1.70
9519.00,1.70
9518.00,1.70
9517.00,1.70
9516.00,1.70
9515.00,1.70
9514.00,1.70
9513.00,1.70
9512.00,1.71
9511.00,1.71
9510.00,1.71
9509.00,1.71
9508.00,1.71
9507.00,1.71
9506.00,1.71
9505.00,1.71
9504.00,1.71
9503.00,1.71
9502.00,1.71
9501.00,1.70
9500.00,1.70
9499.00,1.70
9498.00,1.70
9497.00,1.70
9496.00,1.70
9495.00,1.70
9494.00,1.70
9493.00,1.70
9492.00,1.70
9491.00,1.70
9490.00,1.70
9489.00,1.70
9488.00,1.70
9487.00,1.70
9486.00,1.70
9485.00,1.70
9484.00,1.70
9483.00,1.70
9482.00,1.70
9481.00,1.69
9480.00,1.69
9479.00,1.69
9478.00,1.69
9477.00,1.69
9476.00,1.68
9475.00,1.68
9474.00,1.68
9473.00,1.68
9472.00,1.68
9471.00,1.68
9470.00,1.68
9469.00,1.67
9468.00,1.67
9467.00,1.68
9466.00,1.68
9465.00,1.68
9464.00,1.68
9463.00,1.68
9462.00,1.68
9461.00,1.69
9460.00,1.69
9459.00,1.69
9458.00,1.69
9457.00,1.70
9456.00,1.70
9455.00,1.70
9454.00,1.70
9453.00,1.70
9452.00,1.70
9451.00,1.70
9450.00,1.70
9449.00,1.70
9448.00,1.70
9447.00,1.70
9446.00,1.69
9445.00,1.69
9444.00,1.69
9443.00,1.69
9442.00,1.68
9441.00,1.68
9440.00,1.68
9439.00,1.68
9438.00,1.68
9437.00,1.68
9436.00,1.68
9435.00,1.68
9434.00,1.68
9433.00,1.68
9432.00,1.68
9431.00,1.68
9430.00,1.68
9429.00,1.68
9428.00,1.68
9427.00,1.68
9426.00,1.68
9425.00,1.68
9424.00,1.68
9423.00,1.68
9422.00,1.68
9421.00,1.68
9420.00,1.68
9419.00,1.68
9418.00,1.67
9417.00,1.67
9416.00,1.67
9415.00,1.67
9414.00,1.67
9413.00,1.67
9412.00,1.67
9411.00,1.67
9410.00,1.67
9409.00,1.67
9408.00,1.67
9407.00,1.67
9406.00,1.67
9405.00,1.67
9404.00,1.67
9403.00,1.67
9402.00,1.67
9401.00,1.67
9400.00,1.67
9399.00,1.67
9398.00,1.67
9397.00,1.67
9396.00,1.67
9395.00,1.67
9394.00,1.67
9393.00,1.67
9392.00,1.67
9391.00,1.67
9390.00,1.67
9389.00,1.67
9388.00,1.67
9387.00,1.68
9386.00,1.68
9385.00,1.68
9384.00,1.68
9383.00,1.68
9382.00,1.68
9381.00,1.68
9380.00,1.69
9379.00,1.69
9378.00,1.69
9377.00,1.69
9376.00,1.69
9375.00,1.69
9374.00,1.69
9373.00,1.69
9372.00,1.69
9371.00,1.69
9370.00,1.69
9369.00,1.69
9368.00,1.69
9367.00,1.69
9366.00,1.69
9365.00,1.69
9364.00,1.69
9363.00,1.69
9362.00,1.69
9361.00,1.69
9360.00,1.69
9359.00,1.69
9358.00,1.69
9357.00,1.69
9356.00,1.69
9355.00,1.69
9354.00,1.69
9353.00,1.69
9352.00,1.69
9351.00,1.69
9350.00,1.69
9349.00,1.69
9348.00,1.69
9347.00,1.69
9346.00,1.70
9345.00,1.70
9344.00,1.70
9343.00,1.70
9342.00,1.70
9341.00,1.70
9340.00,1.70
9339.00,1.70
9338.00,1.70
9337.00,1.71
9336.00,1.71
9335.00,1.71
9334.00,1.71
9333.00,1.71
9332.00,1.71
9331.00,1.71
9330.00,1.71
9329.00,1.71
9328.00,1.71
9327.00,1.71
9326.00,1.71
9325.00,1.70
9324.00,1.70
9323.00,1.70
9322.00,1.70
9321.00,1.70
9320.00,1.70
9319.00,1.70
9318.00,1.70
9317.00,1.70
9316.00,1.69
9315.00,1.69
9314.00,1.69
9313.00,1.69
9312.00,1.69
9311.00,1.69
9310.00,1.69
9309.00,1.69
9308.00,1.69
9307.00,1.69
9306.00,1.69
9305.00,1.69
9304.00,1.69
9303.00,1.69
9302.00,1.68
9301.00,1.68
9300.00,1.68
9299.00,1.68
9298.00,1.68
9297.00,1.68
9296.00,1.68
9295.00,1.68
9294.00,1.68
9293.00,1.68
9292.00,1.68
9291.00,1.68
9290.00,1.68
9289.00,1.68
9288.00,1.68
9287.00,1.69
9286.00,1.69
9285.00,1.69
9284.00,1.69
9283.00,1.69
9282.00,1.70
9281.00,1.70
9280.00,1.70
9279.00,1.70
9278.00,1.70
9277.00,1.70
9276.00,1.70
9275.00,1.70
9274.00,1.71
9273.00,1.71
9272.00,1.71
9271.00,1.71
9270.00,1.71
9269.00,1.71
9268.00,1.71
9267.00,1.71
9266.00,1.71
9265.00,1.71
9264.00,1.71
9263.00,1.71
9262.00,1.71
9261.00,1.71
9260.00,1.71
9259.00,1.71
9258.00,1.71
9257.00,1.71
9256.00,1.71
9255.00,1.71
9254.00,1.71
9253.00,1.71
9252.00,1.71
9251.00,1.70
9250.00,1.70
9249.00,1.70
9248.00,1.70
9247.00,1.69
9246.00,1.69
9245.00,1.69
9244.00,1.69
9243.00,1.68
9242.00,1.68
9241.00,1.68
9240.00,1.67
9239.00,1.67
9238.00,1.67
9237.00,1.67
9236.00,1.67
9235.00,1.67
9234.00,1.66
9233.00,1.66
9232.00,1.66
9231.00,1.66
9230.00,1.66
9229.00,1.66
9228.00,1.66
9227.00,1.67
9226.00,1.67
9225.00,1.67
9224.00,1.67
9223.00,1.67
9222.00,1.67
9221.00,1.67
9220.00,1.68
9219.00,1.68
9218.00,1.68
9217.00,1.68
9216.00,1.68
9215.00,1.68
9214.00,1.68
9213.00,1.68
9212.00,1.68
9211.00,1.68
9210.00,1.69
9209.00,1.69
9208.00,1.69
9207.00,1.69
9206.00,1.69
9205.00,1.69
9204.00,1.69
9203.00,1.69
9202.00,1.69
9201.00,1.69
9200.00,1.69
9199.00,1.69
9198.00,1.69
9197.00,1.69
9196.00,1.69
9195.00,1.69
9194.00,1.69
9193.00,1.69
9192.00,1.69
9191.00,1.69
9190.00,1.69
9189.00,1.69
9188.00,1.69
9187.00,1.69
9186.00,1.69
9185.00,1.69
9184.00,1.69
9183.00,1.69
9182.00,1.69
9181.00,1.69
9180.00,1.69
9179.00,1.69
9178.00,1.69
9177.00,1.69
9176.00,1.69
9175.00,1.69
9174.00,1.69
9173.00,1.69
9172.00,1.69
9171.00,1.69
9170.00,1.69
9169.00,1.69
9168.00,1.69
9167.00,1.69
9166.00,1.69
9165.00,1.69
9164.00,1.68
9163.00,1.68
9162.00,1.68
9161.00,1.68
9160.00,1.68
9159.00,1.68
9158.00,1.68
9157.00,1.68
9156.00,1.68
9155.00,1.68
9154.00,1.68
9153.00,1.67
9152.00,1.67
9151.00,1.67
9150.00,1.67
9149.00,1.67
9148.00,1.67
9147.00,1.67
9146.00,1.67
9145.00,1.67
9144.00,1.67
9143.00,1.67
9142.00,1.67
9141.00,1.67
9140.00,1.67
9139.00,1.67
9138.00,1.67
9137.00,1.67
9136.00,1.67
9135.00,1.67
9134.00,1.67
9133.00,1.67
9132.00,1.67
9131.00,1.67
9130.00,1.67
9129.00,1.68
9128.00,1.68
9127.00,1.68
9126.00,1.68
9125.00,1.68
9124.00,1.68
9123.00,1.68
9122.00,1.69
9121.00,1.69
9120.00,1.69
9119.00,1.69
9118.00,1.69
9117.00,1.69
9116.00,1.69
9115.00,1.69
9114.00,1.69
9113.00,1.69
9112.00,1.69
9111.00,1.69
9110.00,1.69
9109.00,1.69
9108.00,1.69
9107.00,1.69
9106.00,1.69
9105.00,1.69
9104.00,1.69
9103.00,1.68
9102.00,1.68
9101.00,1.68
9100.00,1.68
9099.00,1.68
9098.00,1.68
9097.00,1.68
9096.00,1.68
9095.00,1.68
9094.00,1.68
9093.00,1.67
9092.00,1.68
9091.00,1.68
9090.00,1.68
9089.00,1.68
9088.00,1.68
9087.00,1.68
9086.00,1.68
9085.00,1.68
9084.00,1.68
9083.00,1.68
9082.00,1.68
9081.00,1.68
9080.00,1.68
9079.00,1.68
9078.00,1.68
9077.00,1.68
9076.00,1.68
9075.00,1.68
9074.00,1.68
9073.00,1.68
9072.00,1.68
9071.00,1.68
9070.00,1.68
9069.00,1.68
9068.00,1.68
9067.00,1.68
9066.00,1.68
9065.00,1.68
9064.00,1.68
9063.00,1.69
9062.00,1.69
9061.00,1.69
9060.00,1.69
9059.00,1.70
9058.00,1.70
9057.00,1.70
9056.00,1.70
9055.00,1.71
9054.00,1.71
9053.00,1.71
9052.00,1.71
9051.00,1.71
9050.00,1.71
9049.00,1.71
9048.00,1.71
9047.00,1.71
9046.00,1.71
9045.00,1.71
9044.00,1.71
9043.00,1.71
9042.00,1.71
9041.00,1.71
9040.00,1.71
9039.00,1.70
9038.00,1.70
9037.00,1.70
9036.00,1.70
9035.00,1.70
9034.00,1.70
9033.00,1.70
9032.00,1.70
9031.00,1.70
9030.00,1.70
9029.00,1.71
9028.00,1.71
9027.00,1.71
9026.00,1.71
9025.00,1.71
9024.00,1.71
9023.00,1.70
9022.00,1.70
9021.00,1.70
9020.00,1.70
9019.00,1.70
9018.00,1.70
9017.00,1.70
9016.00,1.70
9015.00,1.69
9014.00,1.69
9013.00,1.69
9012.00,1.69
9011.00,1.69
9010.00,1.69
9009.00,1.68
9008.00,1.68
9007.00,1.68
9006.00,1.68
9005.00,1.68
9004.00,1.68
9003.00,1.68
9002.00,1.68
9001.00,1.68
9000.00,1.68
8999.00,1.68
8998.00,1.68
8997.00,1.68
8996.00,1.69
8995.00,1.69
8994.00,1.69
8993.00,1.69
8992.00,1.69
8991.00,1.70
8990.00,1.70
8989.00,1.70
8988.00,1.70
8987.00,1.70
8986.00,1.70
8985.00,1.70
8984.00,1.70
8983.00,1.70
8982.00,1.70
8981.00,1.70
8980.00,1.70
8979.00,1.69
8978.00,1.69
8977.00,1.69
8976.00,1.69
8975.00,1.69
8974.00,1.68
8973.00,1.68
8972.00,1.68
8971.00,1.68
8970.00,1.68
8969.00,1.68
8968.00,1.68
8967.00,1.68
8966.00,1.68
8965.00,1.68
8964.00,1.68
8963.00,1.68
8962.00,1.68
8961.00,1.68
8960.00,1.68
8959.00,1.69
8958.00,1.69
8957.00,1.69
8956.00,1.69
8955.00,1.69
8954.00,1.69
8953.00,1.69
8952.00,1.69
8951.00,1.69
8950.00,1.69
8949.00,1.69
8948.00,1.69
8947.00,1.69
8946.00,1.69
8945.00,1.69
8944.00,1.69
8943.00,1.69
8942.00,1.69
8941.00,1.69
8940.00,1.69
8939.00,1.69
8938.00,1.69
8937.00,1.69
8936.00,1.69
8935.00,1.69
8934.00,1.69
8933.00,1.69
8932.00,1.69
8931.00,1.69
8930.00,1.69
8929.00,1.69
8928.00,1.69
8927.00,1.69
8926.00,1.69
8925.00,1.69
8924.00,1.69
8923.00,1.69
8922.00,1.69
8921.00,1.69
8920.00,1.69
8919.00,1.69
8918.00,1.69
8917.00,1.69
8916.00,1.69
8915.00,1.69
8914.00,1.69
8913.00,1.69
8912.00,1.69
8911.00,1.69
8910.00,1.69
8909.00,1.69
8908.00,1.69
8907.00,1.69
8906.00,1.69
8905.00,1.68
8904.00,1.68
8903.00,1.68
8902.00,1.68
8901.00,1.68
8900.00,1.69
8899.00,1.69
8898.00,1.69
8897.00,1.69
8896.00,1.69
8895.00,1.69
8894.00,1.69
8893.00,1.69
8892.00,1.69
8891.00,1.69
8890.00,1.69
8889.00,1.69
8888.00,1.69
8887.00,1.69
8886.00,1.69
8885.00,1.69
8884.00,1.69
8883.00,1.69
8882.00,1.69
8881.00,1.69
8880.00,1.68
8879.00,1.68
8878.00,1.68
8877.00,1.68
8876.00,1.68
8875.00,1.68
8874.00,1.68
8873.00,1.69
8872.00,1.69
8871.00,1.69
8870.00,1.69
8869.00,1.69
8868.00,1.69
8867.00,1.69
8866.00,1.69
8865.00,1.69
8864.00,1.69
8863.00,1.69
8862.00,1.69
8861.00,1.69
8860.00,1.69
8859.00,1.69
8858.00,1.69
8857.00,1.68
8856.00,1.68
8855.00,1.68
8854.00,1.68
8853.00,1.68
8852.00,1.68
8851.00,1.68
8850.00,1.68
8849.00,1.68
8848.00,1.68
8847.00,1.68
8846.00,1.68
8845.00,1.69
8844.00,1.69
8843.00,1.69
8842.00,1.69
8841.00,1.69
8840.00,1.69
8839.00,1.69
8838.00,1.69
8837.00,1.69
8836.00,1.69
8835.00,1.69
8834.00,1.69
8833.00,1.69
8832.00,1.68
8831.00,1.68
8830.00,1.68
8829.00,1.68
8828.00,1.68
8827.00,1.68
8826.00,1.67
8825.00,1.67
8824.00,1.67
8823.00,1.67
8822.00,1.67
8821.00,1.67
8820.00,1.67
8819.00,1.67
8818.00,1.67
8817.00,1.67
8816.00,1.67
8815.00,1.67
8814.00,1.67
8813.00,1.67
8812.00,1.67
8811.00,1.67
8810.00,1.67
8809.00,1.67
8808.00,1.67
8807.00,1.67
8806.00,1.67
8805.00,1.67
8804.00,1.67
8803.00,1.67
8802.00,1.67
8801.00,1.67
8800.00,1.67
8799.00,1.67
8798.00,1.67
8797.00,1.67
8796.00,1.67
8795.00,1.67
8794.00,1.67
8793.00,1.67
8792.00,1.67
8791.00,1.67
8790.00,1.67
8789.00,1.67
8788.00,1.66
8787.00,1.66
8786.00,1.66
8785.00,1.66
8784.00,1.66
8783.00,1.66
8782.00,1.66
8781.00,1.66
8780.00,1.66
8779.00,1.66
8778.00,1.66
8777.00,1.66
8776.00,1.66
8775.00,1.66
8774.00,1.66
8773.00,1.66
8772.00,1.66
8771.00,1.66
8770.00,1.66
8769.00,1.66
8768.00,1.66
8767.00,1.66
8766.00,1.66
8765.00,1.66
8764.00,1.66
8763.00,1.66
8762.00,1.66
8761.00,1.66
8760.00,1.66
8759.00,1.66
8758.00,1.66
8757.00,1.66
8756.00,1.66
8755.00,1.66
8754.00,1.66
8753.00,1.66
8752.00,1.66
8751.00,1.66
8750.00,1.66
8749.00,1.66
8748.00,1.66
8747.00,1.66
8746.00,1.66
8745.00,1.66
8744.00,1.66
8743.00,1.66
8742.00,1.66
8741.00,1.66
8740.00,1.66
8739.00,1.66
8738.00,1.66
8737.00,1.66
8736.00,1.66
8735.00,1.66
8734.00,1.66
8733.00,1.66
8732.00,1.66
8731.00,1.65
8730.00,1.65
8729.00,1.65
8728.00,1.65
8727.00,1.65
8726.00,1.65
8725.00,1.65
8724.00,1.65
8723.00,1.65
8722.00,1.65
8721.00,1.64
8720.00,1.64
8719.00,1.64
8718.00,1.64
8717.00,1.64
8716.00,1.64
8715.00,1.64
8714.00,1.64
8713.00,1.64
8712.00,1.64
8711.00,1.64
8710.00,1.64
8709.00,1.64
8708.00,1.64
8707.00,1.64
8706.00,1.64
8705.00,1.64
8704.00,1.64
8703.00,1.64
8702.00,1.64
8701.00,1.63
8700.00,1.63
8699.00,1.63
8698.00,1.63
8697.00,1.63
8696.00,1.63
8695.00,1.63
8694.00,1.63
8693.00,1.63
8692.00,1.63
8691.00,1.63
8690.00,1.63
8689.00,1.63
8688.00,1.63
8687.00,1.63
8686.00,1.63
8685.00,1.63
8684.00,1.63
8683.00,1.63
8682.00,1.63
8681.00,1.63
8680.00,1.63
8679.00,1.63
8678.00,1.63
8677.00,1.63
8676.00,1.63
8675.00,1.63
8674.00,1.63
8673.00,1.63
8672.00,1.63
8671.00,1.63
8670.00,1.63
8669.00,1.63
8668.00,1.63
8667.00,1.63
8666.00,1.63
8665.00,1.63
8664.00,1.63
8663.00,1.63
8662.00,1.63
8661.00,1.63
8660.00,1.63
8659.00,1.63
8658.00,1.63
8657.00,1.63
8656.00,1.63
8655.00,1.63
8654.00,1.63
8653.00,1.63
8652.00,1.63
8651.00,1.63
8650.00,1.63
8649.00,1.63
8648.00,1.63
8647.00,1.63
8646.00,1.63
8645.00,1.63
8644.00,1.63
8643.00,1.64
8642.00,1.64
8641.00,1.64
8640.00,1.64
8639.00,1.64
8638.00,1.64
8637.00,1.64
8636.00,1.64
8635.00,1.64
8634.00,1.64
8633.00,1.63
8632.00,1.63
8631.00,1.63
8630.00,1.63
8629.00,1.63
8628.00,1.63
8627.00,1.63
8626.00,1.63
8625.00,1.63
8624.00,1.63
8623.00,1.62
8622.00,1.62
8621.00,1.62
8620.00,1.62
8619.00,1.62
8618.00,1.62
8617.00,1.62
8616.00,1.62
8615.00,1.62
8614.00,1.62
8613.00,1.61
8612.00,1.61
8611.00,1.61
8610.00,1.61
8609.00,1.61
8608.00,1.61
8607.00,1.61
8606.00,1.61
8605.00,1.61
8604.00,1.61
8603.00,1.61
8602.00,1.61
8601.00,1.61
8600.00,1.61
8599.00,1.61
8598.00,1.61
8597.00,1.61
8596.00,1.61
8595.00,1.61
8594.00,1.61
8593.00,1.61
8592.00,1.60
8591.00,1.60
8590.00,1.60
8589.00,1.60
8588.00,1.60
8587.00,1.60
8586.00,1.60
8585.00,1.60
8584.00,1.60
8583.00,1.60
8582.00,1.60
8581.00,1.60
8580.00,1.60
8579.00,1.60
8578.00,1.60
8577.00,1.60
8576.00,1.60
8575.00,1.60
8574.00,1.60
8573.00,1.60
8572.00,1.60
8571.00,1.60
8570.00,1.60
8569.00,1.60
8568.00,1.60
8567.00,1.60
8566.00,1.60
8565.00,1.60
8564.00,1.60
8563.00,1.60
8562.00,1.60
8561.00,1.60
8560.00,1.60
8559.00,1.60
8558.00,1.60
8557.00,1.60
8556.00,1.60
8555.00,1.60
8554.00,1.60
8553.00,1.60
8552.00,1.60
8551.00,1.60
8550.00,1.60
8549.00,1.60
8548.00,1.60
8547.00,1.60
8546.00,1.59
8545.00,1.59
8544.00,1.59
8543.00,1.59
8542.00,1.59
8541.00,1.59
8540.00,1.59
8539.00,1.59
8538.00,1.59
8537.00,1.59
8536.00,1.59
8535.00,1.58
8534.00,1.58
8533.00,1.58
8532.00,1.58
8531.00,1.58
8530.00,1.58
8529.00,1.58
8528.00,1.58
8527.00,1.58
8526.00,1.58
8525.00,1.58
8524.00,1.58
8523.00,1.58
8522.00,1.58
8521.00,1.58
8520.00,1.58
8519.00,1.58
8518.00,1.58
8517.00,1.58
8516.00,1.58
8515.00,1.58
8514.00,1.58
8513.00,1.58
8512.00,1.58
8511.00,1.58
8510.00,1.58
8509.00,1.58
8508.00,1.58
8507.00,1.58
8506.00,1.57
8505.00,1.57
8504.00,1.57
8503.00,1.57
8502.00,1.57
8501.00,1.57
8500.00,1.57
8499.00,1.57
8498.00,1.57
8497.00,1.57
8496.00,1.58
8495.00,1.58
8494.00,1.58
8493.00,1.58
8492.00,1.58
8491.00,1.58
8490.00,1.58
8489.00,1.58
8488.00,1.58
8487.00,1.58
8486.00,1.58
8485.00,1.58
8484.00,1.58
8483.00,1.58
8482.00,1.58
8481.00,1.58
8480.00,1.58
8479.00,1.58
8478.00,1.58
8477.00,1.58
8476.00,1.58
8475.00,1.58
8474.00,1.58
8473.00,1.58
8472.00,1.57
8471.00,1.57
8470.00,1.57
8469.00,1.57
8468.00,1.57
8467.00,1.57
8466.00,1.57
8465.00,1.57
8464.00,1.57
8463.00,1.56
8462.00,1.56
8461.00,1.56
8460.00,1.56
8459.00,1.56
8458.00,1.56
8457.00,1.56
8456.00,1.56
8455.00,1.56
8454.00,1.56
8453.00,1.56
8452.00,1.56
8451.00,1.56
8450.00,1.56
8449.00,1.56
8448.00,1.56
8447.00,1.56
8446.00,1.56
8445.00,1.56
8444.00,1.56
8443.00,1.56
8442.00,1.56
8441.00,1.56
8440.00,1.56
8439.00,1.56
8438.00,1.56
8437.00,1.56
8436.00,1.56
8435.00,1.56
8434.00,1.56
8433.00,1.56
8432.00,1.56
8431.00,1.56
8430.00,1.56
8429.00,1.56
8428.00,1.56
8427.00,1.56
8426.00,1.56
8425.00,1.56
8424.00,1.56
8423.00,1.56
8422.00,1.56
8421.00,1.56
8420.00,1.56
8419.00,1.56
8418.00,1.56
8417.00,1.56
8416.00,1.56
8415.00,1.56
8414.00,1.56
8413.00,1.56
8412.00,1.56
8411.00,1.56
8410.00,1.56
8409.00,1.56
8408.00,1.56
8407.00,1.56
8406.00,1.56
8405.00,1.56
8404.00,1.56
8403.00,1.56
8402.00,1.56
8401.00,1.56
8400.00,1.56
8399.00,1.56
8398.00,1.56
8397.00,1.57
8396.00,1.57
8395.00,1.57
8394.00,1.57
8393.00,1.57
8392.00,1.57
8391.00,1.57
8390.00,1.57
8389.00,1.57
8388.00,1.57
8387.00,1.57
8386.00,1.58
8385.00,1.58
8384.00,1.58
8383.00,1.58
8382.00,1.58
8381.00,1.58
8380.00,1.58
8379.00,1.58
8378.00,1.58
8377.00,1.58
8376.00,1.58
8375.00,1.58
8374.00,1.58
8373.00,1.58
8372.00,1.58
8371.00,1.58
8370.00,1.58
8369.00,1.58
8368.00,1.58
8367.00,1.58
8366.00,1.58
8365.00,1.58
8364.00,1.58
8363.00,1.58
8362.00,1.58
8361.00,1.58
8360.00,1.59
8359.00,1.59
8358.00,1.59
8357.00,1.59
8356.00,1.59
8355.00,1.59
8354.00,1.59
8353.00,1.59
8352.00,1.59
8351.00,1.59
8350.00,1.59
8349.00,1.59
8348.00,1.59
8347.00,1.59
8346.00,1.59
8345.00,1.59
8344.00,1.59
8343.00,1.59
8342.00,1.59
8341.00,1.59
8340.00,1.59
8339.00,1.59
8338.00,1.59
8337.00,1.59
8336.00,1.59
8335.00,1.59
8334.00,1.59
8333.00,1.59
8332.00,1.59
8331.00,1.59
8330.00,1.59
8329.00,1.59
8328.00,1.59
8327.00,1.59
8326.00,1.60
8325.00,1.60
8324.00,1.60
8323.00,1.60
8322.00,1.60
8321.00,1.60
8320.00,1.60
8319.00,1.60
8318.00,1.60
8317.00,1.60
8316.00,1.60
8315.00,1.60
8314.00,1.60
8313.00,1.60
8312.00,1.61
8311.00,1.61
8310.00,1.61
8309.00,1.61
8308.00,1.61
8307.00,1.61
8306.00,1.61
8305.00,1.61
8304.00,1.61
8303.00,1.60
8302.00,1.60
8301.00,1.60
8300.00,1.60
8299.00,1.60
8298.00,1.61
8297.00,1.61
8296.00,1.61
8295.00,1.61
8294.00,1.61
8293.00,1.61
8292.00,1.61
8291.00,1.61
8290.00,1.61
8289.00,1.61
8288.00,1.61
8287.00,1.61
8286.00,1.61
8285.00,1.61
8284.00,1.61
8283.00,1.61
8282.00,1.61
8281.00,1.61
8280.00,1.61
8279.00,1.61
8278.00,1.61
8277.00,1.61
8276.00,1.61
8275.00,1.61
8274.00,1.61
8273.00,1.61
8272.00,1.61
8271.00,1.61
8270.00,1.61
8269.00,1.61
8268.00,1.62
8267.00,1.62
8266.00,1.62
8265.00,1.62
8264.00,1.62
8263.00,1.62
8262.00,1.62
8261.00,1.62
8260.00,1.62
8259.00,1.62
8258.00,1.62
8257.00,1.62
8256.00,1.62
8255.00,1.62
8254.00,1.62
8253.00,1.62
8252.00,1.62
8251.00,1.62
8250.00,1.62
8249.00,1.62
8248.00,1.62
8247.00,1.61
8246.00,1.61
8245.00,1.61
8244.00,1.61
8243.00,1.61
8242.00,1.61
8241.00,1.61
8240.00,1.61
8239.00,1.61
8238.00,1.61
8237.00,1.61
8236.00,1.61
8235.00,1.61
8234.00,1.61
8233.00,1.61
8232.00,1.61
8231.00,1.61
8230.00,1.61
8229.00,1.61
8228.00,1.61
8227.00,1.61
8226.00,1.61
8225.00,1.61
8224.00,1.61
8223.00,1.62
8222.00,1.62
8221.00,1.62
8220.00,1.62
8219.00,1.62
8218.00,1.62
8217.00,1.62
8216.00,1.62
8215.00,1.62
8214.00,1.62
8213.00,1.62
8212.00,1.62
8211.00,1.62
8210.00,1.62
8209.00,1.62
8208.00,1.62
8207.00,1.62
8206.00,1.62
8205.00,1.62
8204.00,1.62
8203.00,1.62
8202.00,1.62
8201.00,1.62
8200.00,1.62
8199.00,1.62
8198.00,1.62
8197.00,1.62
8196.00,1.62
8195.00,1.62
8194.00,1.62
8193.00,1.62
8192.00,1.62
8191.00,1.62
8190.00,1.62
8189.00,1.62
8188.00,1.62
8187.00,1.62
8186.00,1.63
8185.00,1.63
8184.00,1.63
8183.00,1.63
8182.00,1.63
8181.00,1.63
8180.00,1.63
8179.00,1.63
8178.00,1.63
8177.00,1.63
8176.00,1.63
8175.00,1.63
8174.00,1.63
8173.00,1.63
8172.00,1.63
8171.00,1.63
8170.00,1.63
8169.00,1.63
8168.00,1.63
8167.00,1.63
8166.00,1.63
8165.00,1.64
8164.00,1.64
8163.00,1.64
8162.00,1.64
8161.00,1.64
8160.00,1.64
8159.00,1.64
8158.00,1.64
8157.00,1.64
8156.00,1.64
8155.00,1.64
8154.00,1.64
8153.00,1.64
8152.00,1.64
8151.00,1.64
8150.00,1.64
8149.00,1.64
8148.00,1.64
8147.00,1.64
8146.00,1.64
8145.00,1.64
8144.00,1.64
8143.00,1.63
8142.00,1.63
8141.00,1.64
8140.00,1.64
8139.00,1.64
8138.00,1.64
8137.00,1.64
8136.00,1.64
8135.00,1.64
8134.00,1.64
8133.00,1.64
8132.00,1.64
8131.00,1.64
8130.00,1.65
8129.00,1.65
8128.00,1.65
8127.00,1.65
8126.00,1.65
8125.00,1.65
8124.00,1.65
8123.00,1.65
8122.00,1.65
8121.00,1.65
8120.00,1.66
8119.00,1.66
8118.00,1.66
8117.00,1.66
8116.00,1.66
8115.00,1.66
8114.00,1.66
8113.00,1.66
8112.00,1.66
8111.00,1.66
8110.00,1.66
8109.00,1.66
8108.00,1.66
8107.00,1.66
8106.00,1.66
8105.00,1.66
8104.00,1.66
8103.00,1.66
8102.00,1.66
8101.00,1.66
8100.00,1.66
8099.00,1.66
8098.00,1.66
8097.00,1.66
8096.00,1.66
8095.00,1.66
8094.00,1.66
8093.00,1.66
8092.00,1.66
8091.00,1.66
8090.00,1.66
8089.00,1.66
8088.00,1.66
8087.00,1.66
8086.00,1.66
8085.00,1.66
8084.00,1.66
8083.00,1.66
8082.00,1.66
8081.00,1.66
8080.00,1.66
8079.00,1.66
8078.00,1.66
8077.00,1.66
8076.00,1.66
8075.00,1.66
8074.00,1.66
8073.00,1.66
8072.00,1.66
8071.00,1.66
8070.00,1.66
8069.00,1.66
8068.00,1.66
8067.00,1.66
8066.00,1.66
8065.00,1.66
8064.00,1.66
8063.00,1.66
8062.00,1.66
8061.00,1.66
8060.00,1.66
8059.00,1.66
8058.00,1.66
8057.00,1.66
8056.00,1.66
8055.00,1.67
8054.00,1.67
8053.00,1.67
8052.00,1.67
8051.00,1.67
8050.00,1.67
8049.00,1.67
8048.00,1.67
8047.00,1.67
8046.00,1.67
8045.00,1.67
8044.00,1.67
8043.00,1.67
8042.00,1.67
8041.00,1.67
8040.00,1.67
8039.00,1.67
8038.00,1.67
8037.00,1.67
8036.00,1.67
8035.00,1.67
8034.00,1.67
8033.00,1.67
8032.00,1.67
8031.00,1.67
8030.00,1.67
8029.00,1.67
8028.00,1.67
8027.00,1.67
8026.00,1.68
8025.00,1.68
8024.00,1.68
8023.00,1.68
8022.00,1.68
8021.00,1.68
8020.00,1.68
8019.00,1.68
8018.00,1.68
8017.00,1.68
8016.00,1.68
8015.00,1.68
8014.00,1.68
8013.00,1.68
8012.00,1.68
8011.00,1.68
8010.00,1.68
8009.00,1.68
8008.00,1.68
8007.00,1.68
8006.00,1.68
8005.00,1.68
8004.00,1.68
8003.00,1.68
8002.00,1.68
8001.00,1.68
8000.00,1.68
7999.00,1.68
7998.00,1.68
7997.00,1.68
7996.00,1.68
7995.00,1.68
7994.00,1.68
7993.00,1.68
7992.00,1.68
7991.00,1.68
7990.00,1.68
7989.00,1.68
7988.00,1.68
7987.00,1.68
7986.00,1.68
7985.00,1.68
7984.00,1.68
7983.00,1.68
7982.00,1.68
7981.00,1.68
7980.00,1.68
7979.00,1.68
7978.00,1.68
7977.00,1.68
7976.00,1.68
7975.00,1.68
7974.00,1.68
7973.00,1.68
7972.00,1.68
7971.00,1.68
7970.00,1.68
7969.00,1.68
7968.00,1.68
7967.00,1.68
7966.00,1.68
7965.00,1.68
7964.00,1.68
7963.00,1.68
7962.00,1.68
7961.00,1.68
7960.00,1.68
7959.00,1.68
7958.00,1.69
7957.00,1.69
7956.00,1.69
7955.00,1.69
7954.00,1.69
7953.00,1.69
7952.00,1.69
7951.00,1.69
7950.00,1.69
7949.00,1.68
7948.00,1.68
7947.00,1.68
7946.00,1.68
7945.00,1.68
7944.00,1.68
7943.00,1.68
7942.00,1.68
7941.00,1.68
7940.00,1.68
7939.00,1.68
7938.00,1.68
7937.00,1.68
7936.00,1.68
7935.00,1.68
7934.00,1.68
7933.00,1.68
7932.00,1.68
7931.00,1.68
7930.00,1.68
7929.00,1.68
7928.00,1.68
7927.00,1.68
7926.00,1.68
7925.00,1.68
7924.00,1.68
7923.00,1.68
7922.00,1.68
7921.00,1.68
7920.00,1.68
7919.00,1.68
7918.00,1.69
7917.00,1.69
7916.00,1.69
7915.00,1.69
7914.00,1.69
7913.00,1.69
7912.00,1.69
7911.00,1.69
7910.00,1.70
7909.00,1.70
7908.00,1.70
7907.00,1.70
7906.00,1.70
7905.00,1.70
7904.00,1.70
7903.00,1.70
7902.00,1.70
7901.00,1.70
7900.00,1.70
7899.00,1.70
7898.00,1.70
7897.00,1.70
7896.00,1.70
7895.00,1.70
7894.00,1.70
7893.00,1.70
7892.00,1.70
7891.00,1.69
7890.00,1.69
7889.00,1.69
7888.00,1.69
7887.00,1.69
7886.00,1.69
7885.00,1.69
7884.00,1.69
7883.00,1.69
7882.00,1.69
7881.00,1.69
7880.00,1.69
7879.00,1.69
7878.00,1.69
7877.00,1.69
7876.00,1.69
7875.00,1.69
7874.00,1.69
7873.00,1.69
7872.00,1.69
7871.00,1.69
7870.00,1.69
7869.00,1.69
7868.00,1.69
7867.00,1.70
7866.00,1.70
7865.00,1.70
7864.00,1.70
7863.00,1.70
7862.00,1.70
7861.00,1.70
7860.00,1.70
7859.00,1.70
7858.00,1.70
7857.00,1.70
7856.00,1.70
7855.00,1.70
7854.00,1.70
7853.00,1.70
7852.00,1.70
7851.00,1.70
7850.00,1.70
7849.00,1.70
7848.00,1.70
7847.00,1.70
7846.00,1.70
7845.00,1.70
7844.00,1.70
7843.00,1.70
7842.00,1.70
7841.00,1.70
7840.00,1.70
7839.00,1.70
7838.00,1.70
7837.00,1.70
7836.00,1.70
7835.00,1.70
7834.00,1.70
7833.00,1.70
7832.00,1.70
7831.00,1.70
7830.00,1.70
7829.00,1.70
7828.00,1.70
7827.00,1.70
7826.00,1.70
7825.00,1.70
7824.00,1.70
7823.00,1.70
7822.00,1.70
7821.00,1.70
7820.00,1.70
7819.00,1.70
7818.00,1.70
7817.00,1.70
7816.00,1.70
7815.00,1.70
7814.00,1.70
7813.00,1.70
7812.00,1.70
7811.00,1.70
7810.00,1.70
7809.00,1.70
7808.00,1.70
7807.00,1.70
7806.00,1.70
7805.00,1.70
7804.00,1.70
7803.00,1.70
7802.00,1.70
7801.00,1.70
7800.00,1.70
7799.00,1.70
7798.00,1.70
7797.00,1.70
7796.00,1.70
7795.00,1.70
7794.00,1.70
7793.00,1.70
7792.00,1.70
7791.00,1.70
7790.00,1.70
7789.00,1.70
7788.00,1.70
7787.00,1.70
7786.00,1.70
7785.00,1.70
7784.00,1.70
7783.00,1.70
7782.00,1.70
7781.00,1.70
7780.00,1.70
7779.00,1.70
7778.00,1.70
7777.00,1.70
7776.00,1.70
7775.00,1.70
7774.00,1.70
7773.00,1.70
7772.00,1.70
7771.00,1.70
7770.00,1.70
7769.00,1.70
7768.00,1.70
7767.00,1.70
7766.00,1.70
7765.00,1.70
7764.00,1.70
7763.00,1.70
7762.00,1.70
7761.00,1.70
7760.00,1.70
7759.00,1.70
7758.00,1.70
7757.00,1.70
7756.00,1.70
7755.00,1.70
7754.00,1.70
7753.00,1.71
7752.00,1.71
7751.00,1.71
7750.00,1.71
7749.00,1.71
7748.00,1.71
7747.00,1.71
7746.00,1.71
7745.00,1.71
7744.00,1.71
7743.00,1.71
7742.00,1.71
7741.00,1.71
7740.00,1.71
7739.00,1.71
7738.00,1.71
7737.00,1.71
7736.00,1.71
7735.00,1.71
7734.00,1.71
7733.00,1.71
7732.00,1.71
7731.00,1.71
7730.00,1.71
7729.00,1.71
7728.00,1.71
7727.00,1.71
7726.00,1.71
7725.00,1.71
7724.00,1.70
7723.00,1.70
7722.00,1.70
7721.00,1.71
7720.00,1.71
7719.00,1.71
7718.00,1.71
7717.00,1.71
7716.00,1.71
7715.00,1.71
7714.00,1.71
7713.00,1.71
7712.00,1.71
7711.00,1.71
7710.00,1.71
7709.00,1.71
7708.00,1.71
7707.00,1.71
7706.00,1.71
7705.00,1.71
7704.00,1.71
7703.00,1.71
7702.00,1.71
7701.00,1.71
7700.00,1.71
7699.00,1.71
7698.00,1.71
7697.00,1.71
7696.00,1.71
7695.00,1.71
7694.00,1.71
7693.00,1.71
7692.00,1.71
7691.00,1.71
7690.00,1.71
7689.00,1.71
7688.00,1.71
7687.00,1.71
7686.00,1.71
7685.00,1.71
7684.00,1.71
7683.00,1.71
7682.00,1.71
7681.00,1.71
7680.00,1.71
7679.00,1.71
7678.00,1.71
7677.00,1.71
7676.00,1.71
7675.00,1.71
7674.00,1.71
7673.00,1.71
7672.00,1.71
7671.00,1.71
7670.00,1.71
7669.00,1.71
7668.00,1.71
7667.00,1.71
7666.00,1.71
7665.00,1.71
7664.00,1.71
7663.00,1.71
7662.00,1.71
7661.00,1.71
7660.00,1.71
7659.00,1.71
7658.00,1.71
7657.00,1.71
7656.00,1.71
7655.00,1.71
7654.00,1.71
7653.00,1.71
7652.00,1.71
7651.00,1.71
7650.00,1.71
7649.00,1.71
7648.00,1.71
7647.00,1.71
7646.00,1.71
7645.00,1.71
7644.00,1.71
7643.00,1.71
7642.00,1.70
7641.00,1.70
7640.00,1.70
7639.00,1.70
7638.00,1.70
7637.00,1.70
7636.00,1.70
7635.00,1.70
7634.00,1.70
7633.00,1.70
7632.00,1.70
7631.00,1.71
7630.00,1.71
7629.00,1.71
7628.00,1.71
7627.00,1.71
7626.00,1.71
7625.00,1.71
7624.00,1.71
7623.00,1.71
7622.00,1.71
7621.00,1.71
7620.00,1.71
7619.00,1.71
7618.00,1.71
7617.00,1.71
7616.00,1.71
7615.00,1.71
7614.00,1.71
7613.00,1.71
7612.00,1.71
7611.00,1.71
7610.00,1.71
7609.00,1.71
7608.00,1.71
7607.00,1.71
7606.00,1.71
7605.00,1.71
7604.00,1.71
7603.00,1.71
7602.00,1.71
7601.00,1.71
7600.00,1.71
7599.00,1.71
7598.00,1.71
7597.00,1.71
7596.00,1.71
7595.00,1.71
7594.00,1.71
7593.00,1.71
7592.00,1.71
7591.00,1.71
7590.00,1.71
7589.00,1.71
7588.00,1.71
7587.00,1.70
7586.00,1.70
7585.00,1.70
7584.00,1.70
7583.00,1.70
7582.00,1.70
7581.00,1.70
7580.00,1.70
7579.00,1.70
7578.00,1.70
7577.00,1.71
7576.00,1.71
7575.00,1.71
7574.00,1.71
7573.00,1.71
7572.00,1.71
7571.00,1.71
7570.00,1.71
7569.00,1.71
7568.00,1.71
7567.00,1.71
7566.00,1.71
7565.00,1.71
7564.00,1.71
7563.00,1.71
7562.00,1.71
7561.00,1.71
7560.00,1.71
7559.00,1.71
7558.00,1.71
7557.00,1.71
7556.00,1.71
7555.00,1.71
7554.00,1.71
7553.00,1.71
7552.00,1.71
7551.00,1.71
7550.00,1.70
7549.00,1.70
7548.00,1.70
7547.00,1.70
7546.00,1.70
7545.00,1.70
7544.00,1.70
7543.00,1.70
7542.00,1.70
7541.00,1.70
7540.00,1.70
7539.00,1.70
7538.00,1.70
7537.00,1.70
7536.00,1.70
7535.00,1.70
7534.00,1.70
7533.00,1.69
7532.00,1.69
7531.00,1.69
7530.00,1.69
7529.00,1.69
7528.00,1.69
7527.00,1.69
7526.00,1.69
7525.00,1.69
7524.00,1.69
7523.00,1.69
7522.00,1.69
7521.00,1.69
7520.00,1.69
7519.00,1.69
7518.00,1.69
7517.00,1.69
7516.00,1.69
7515.00,1.69
7514.00,1.69
7513.00,1.69
7512.00,1.69
7511.00,1.69
7510.00,1.69
7509.00,1.69
7508.00,1.69
7507.00,1.69
7506.00,1.69
7505.00,1.68
7504.00,1.68
7503.00,1.68
7502.00,1.68
7501.00,1.68
7500.00,1.68
7499.00,1.68
7498.00,1.68
7497.00,1.68
7496.00,1.68
7495.00,1.68
7494.00,1.68
7493.00,1.68
7492.00,1.68
7491.00,1.68
7490.00,1.68
7489.00,1.68
7488.00,1.68
7487.00,1.68
7486.00,1.68
7485.00,1.68
7484.00,1.68
7483.00,1.68
7482.00,1.68
7481.00,1.68
7480.00,1.68
7479.00,1.68
7478.00,1.68
7477.00,1.68
7476.00,1.68
7475.00,1.68
7474.00,1.68
7473.00,1.68
7472.00,1.68
7471.00,1.68
7470.00,1.68
7469.00,1.68
7468.00,1.68
7467.00,1.68
7466.00,1.68
7465.00,1.68
7464.00,1.68
7463.00,1.68
7462.00,1.68
7461.00,1.68
7460.00,1.67
7459.00,1.67
7458.00,1.67
7457.00,1.67
7456.00,1.67
7455.00,1.67
7454.00,1.67
7453.00,1.67
7452.00,1.67
7451.00,1.66
7450.00,1.66
7449.00,1.66
7448.00,1.66
7447.00,1.66
7446.00,1.66
7445.00,1.66
7444.00,1.66
7443.00,1.66
7442.00,1.66
7441.00,1.66
7440.00,1.66
7439.00,1.66
7438.00,1.66
7437.00,1.66
7436.00,1.66
7435.00,1.66
7434.00,1.66
7433.00,1.66
7432.00,1.66
7431.00,1.66
7430.00,1.66
7429.00,1.66
7428.00,1.66
7427.00,1.66
7426.00,1.66
7425.00,1.66
7424.00,1.66
7423.00,1.66
7422.00,1.65
7421.00,1.65
7420.00,1.65
7419.00,1.65
7418.00,1.65
7417.00,1.65
7416.00,1.65
7415.00,1.65
7414.00,1.64
7413.00,1.64
7412.00,1.64
7411.00,1.64
7410.00,1.64
7409.00,1.64
7408.00,1.64
7407.00,1.64
7406.00,1.63
7405.00,1.63
7404.00,1.63
7403.00,1.63
7402.00,1.63
7401.00,1.63
7400.00,1.63
7399.00,1.63
7398.00,1.63
7397.00,1.63
7396.00,1.63
7395.00,1.63
7394.00,1.63
7393.00,1.63
7392.00,1.63
7391.00,1.63
7390.00,1.62
7389.00,1.62
7388.00,1.62
7387.00,1.62
7386.00,1.62
7385.00,1.62
7384.00,1.62
7383.00,1.62
7382.00,1.62
7381.00,1.62
7380.00,1.62
7379.00,1.62
7378.00,1.62
7377.00,1.62
7376.00,1.62
7375.00,1.62
7374.00,1.62
7373.00,1.62
7372.00,1.62
7371.00,1.62
7370.00,1.62
7369.00,1.62
7368.00,1.62
7367.00,1.62
7366.00,1.62
7365.00,1.62
7364.00,1.62
7363.00,1.62
7362.00,1.62
7361.00,1.62
7360.00,1.62
7359.00,1.62
7358.00,1.62
7357.00,1.62
7356.00,1.62
7355.00,1.62
7354.00,1.62
7353.00,1.62
7352.00,1.62
7351.00,1.62
7350.00,1.61
7349.00,1.61
7348.00,1.61
7347.00,1.61
7346.00,1.61
7345.00,1.61
7344.00,1.61
7343.00,1.61
7342.00,1.61
7341.00,1.61
7340.00,1.61
7339.00,1.61
7338.00,1.61
7337.00,1.60
7336.00,1.60
7335.00,1.60
7334.00,1.60
7333.00,1.60
7332.00,1.60
7331.00,1.60
7330.00,1.60
7329.00,1.60
7328.00,1.60
7327.00,1.60
7326.00,1.60
7325.00,1.59
7324.00,1.59
7323.00,1.59
7322.00,1.59
7321.00,1.59
7320.00,1.59
7319.00,1.59
7318.00,1.59
7317.00,1.59
7316.00,1.59
7315.00,1.59
7314.00,1.59
7313.00,1.59
7312.00,1.59
7311.00,1.59
7310.00,1.59
7309.00,1.59
7308.00,1.59
7307.00,1.59
7306.00,1.59
7305.00,1.58
7304.00,1.58
7303.00,1.58
7302.00,1.58
7301.00,1.58
7300.00,1.58
7299.00,1.58
7298.00,1.58
7297.00,1.58
7296.00,1.58
7295.00,1.58
7294.00,1.57
7293.00,1.57
7292.00,1.57
7291.00,1.57
7290.00,1.57
7289.00,1.57
7288.00,1.57
7287.00,1.57
7286.00,1.57
7285.00,1.56
7284.00,1.56
7283.00,1.56
7282.00,1.56
7281.00,1.56
7280.00,1.56
7279.00,1.55
7278.00,1.55
7277.00,1.55
7276.00,1.55
7275.00,1.55
7274.00,1.55
7273.00,1.55
7272.00,1.55
7271.00,1.54
7270.00,1.54
7269.00,1.54
7268.00,1.54
7267.00,1.54
7266.00,1.54
7265.00,1.54
7264.00,1.54
7263.00,1.54
7262.00,1.54
7261.00,1.53
7260.00,1.53
7259.00,1.53
7258.00,1.53
7257.00,1.53
7256.00,1.53
7255.00,1.52
7254.00,1.52
7253.00,1.52
7252.00,1.52
7251.00,1.52
7250.00,1.51
7249.00,1.51
7248.00,1.51
7247.00,1.51
7246.00,1.50
7245.00,1.50
7244.00,1.50
7243.00,1.50
7242.00,1.49
7241.00,1.49
7240.00,1.49
7239.00,1.49
7238.00,1.48
7237.00,1.48
7236.00,1.48
7235.00,1.47
7234.00,1.47
7233.00,1.47
7232.00,1.47
7231.00,1.46
7230.00,1.46
7229.00,1.45
7228.00,1.45
7227.00,1.45
7226.00,1.44
7225.00,1.44
7224.00,1.43
7223.00,1.43
7222.00,1.43
7221.00,1.42
7220.00,1.42
7219.00,1.41
7218.00,1.41
7217.00,1.40
7216.00,1.40
7215.00,1.39
7214.00,1.39
7213.00,1.39
7212.00,1.38
7211.00,1.38
7210.00,1.37
7209.00,1.37
7208.00,1.37
7207.00,1.36
7206.00,1.36
7205.00,1.36
7204.00,1.35
7203.00,1.35
7202.00,1.35
7201.00,1.34
7200.00,1.34
7199.00,1.34
7198.00,1.33
7197.00,1.33
7196.00,1.33
7195.00,1.32
7194.00,1.32
7193.00,1.32
7192.00,1.31
7191.00,1.31
7190.00,1.31
7189.00,1.30
7188.00,1.30
7187.00,1.30
7186.00,1.29
7185.00,1.29
7184.00,1.28
7183.00,1.28
7182.00,1.27
7181.00,1.27
7180.00,1.27
7179.00,1.26
7178.00,1.26
7177.00,1.25
7176.00,1.25
7175.00,1.24
7174.00,1.24
7173.00,1.23
7172.00,1.23
7171.00,1.23
7170.00,1.22
7169.00,1.22
7168.00,1.21
7167.00,1.21
7166.00,1.21
7165.00,1.20
7164.00,1.20
7163.00,1.20
7162.00,1.19
7161.00,1.19
7160.00,1.19
7159.00,1.18
7158.00,1.18
7157.00,1.18
7156.00,1.17
7155.00,1.17
7154.00,1.17
7153.00,1.17
7152.00,1.16
7151.00,1.16
7150.00,1.16
7149.00,1.15
7148.00,1.15
7147.00,1.15
7146.00,1.14
7145.00,1.14
7144.00,1.14
7143.00,1.13
7142.00,1.13
7141.00,1.12
7140.00,1.12
7139.00,1.11
7138.00,1.11
7137.00,1.11
7136.00,1.10
7135.00,1.10
7134.00,1.10
7133.00,1.09
7132.00,1.09
7131.00,1.08
7130.00,1.08
7129.00,1.08
7128.00,1.07
7127.00,1.07
7126.00,1.07
7125.00,1.07
7124.00,1.06
7123.00,1.06
7122.00,1.06
7121.00,1.05
7120.00,1.05
7119.00,1.05
7118.00,1.05
7117.00,1.04
7116.00,1.04
7115.00,1.04
7114.00,1.04
7113.00,1.03
7112.00,1.03
7111.00,1.03
7110.00,1.03
7109.00,1.02
7108.00,1.02
7107.00,1.02
7106.00,1.02
7105.00,1.01
7104.00,1.01
7103.00,1.01
7102.00,1.01
7101.00,1.01
7100.00,1.00
7099.00,1.00
7098.00,1.00
7097.00,1.00
7096.00,1.00
7095.00,0.99
7094.00,0.99
7093.00,0.99
7092.00,0.99
7091.00,0.99
7090.00,0.98
7089.00,0.98
7088.00,0.98
7087.00,0.98
7086.00,0.98
7085.00,0.98
7084.00,0.97
7083.00,0.97
7082.00,0.97
7081.00,0.97
7080.00,0.97
7079.00,0.96
7078.00,0.96
7077.00,0.96
7076.00,0.96
7075.00,0.95
7074.00,0.95
7073.00,0.95
7072.00,0.95
7071.00,0.95
7070.00,0.95
7069.00,0.94
7068.00,0.94
7067.00,0.94
7066.00,0.94
7065.00,0.94
7064.00,0.94
7063.00,0.94
7062.00,0.94
7061.00,0.93
7060.00,0.93
7059.00,0.93
7058.00,0.93
7057.00,0.93
7056.00,0.93
7055.00,0.93
7054.00,0.92
7053.00,0.92
7052.00,0.92
7051.00,0.92
7050.00,0.92
7049.00,0.91
7048.00,0.91
7047.00,0.91
7046.00,0.91
7045.00,0.91
7044.00,0.91
7043.00,0.91
7042.00,0.90
7041.00,0.90
7040.00,0.90
7039.00,0.90
7038.00,0.90
7037.00,0.90
7036.00,0.90
7035.00,0.90
7034.00,0.90
7033.00,0.90
7032.00,0.90
7031.00,0.90
7030.00,0.90
7029.00,0.90
7028.00,0.90
7027.00,0.89
7026.00,0.89
7025.00,0.89
7024.00,0.89
7023.00,0.89
7022.00,0.89
7021.00,0.89
7020.00,0.89
7019.00,0.89
7018.00,0.89
7017.00,0.89
7016.00,0.89
7015.00,0.89
7014.00,0.89
7013.00,0.89
7012.00,0.89
7011.00,0.89
7010.00,0.89
7009.00,0.88
7008.00,0.88
7007.00,0.88
7006.00,0.88
7005.00,0.88
7004.00,0.88
7003.00,0.88
7002.00,0.88
7001.00,0.88
7000.00,0.88
6999.00,0.87
6998.00,0.87
6997.00,0.87
6996.00,0.87
6995.00,0.87
6994.00,0.87
6993.00,0.87
6992.00,0.87
6991.00,0.87
6990.00,0.87
6989.00,0.87
6988.00,0.87
6987.00,0.87
6986.00,0.87
6985.00,0.87
6984.00,0.86
6983.00,0.86
6982.00,0.86
6981.00,0.86
6980.00,0.86
6979.00,0.86
6978.00,0.86
6977.00,0.86
6976.00,0.86
6975.00,0.86
6974.00,0.86
6973.00,0.86
6972.00,0.86
6971.00,0.86
6970.00,0.85
6969.00,0.85
6968.00,0.85
6967.00,0.85
6966.00,0.85
6965.00,0.85
6964.00,0.85
6963.00,0.85
6962.00,0.85
6961.00,0.85
6960.00,0.85
6959.00,0.85
6958.00,0.84
6957.00,0.84
6956.00,0.84
6955.00,0.84
6954.00,0.84
6953.00,0.84
6952.00,0.84
6951.00,0.84
6950.00,0.84
6949.00,0.84
6948.00,0.84
6947.00,0.84
6946.00,0.84
6945.00,0.84
6944.00,0.84
6943.00,0.84
6942.00,0.84
6941.00,0.84
6940.00,0.84
6939.00,0.84
6938.00,0.84
6937.00,0.84
6936.00,0.84
6935.00,0.84
6934.00,0.84
6933.00,0.83
6932.00,0.83
6931.00,0.83
6930.00,0.83
6929.00,0.83
6928.00,0.83
6927.00,0.83
6926.00,0.83
6925.00,0.83
6924.00,0.83
6923.00,0.83
6922.00,0.83
6921.00,0.83
6920.00,0.83
6919.00,0.83
6918.00,0.83
6917.00,0.83
6916.00,0.83
6915.00,0.83
6914.00,0.83
6913.00,0.83
6912.00,0.83
6911.00,0.83
6910.00,0.83
6909.00,0.83
6908.00,0.83
6907.00,0.83
6906.00,0.83
6905.00,0.83
6904.00,0.83
6903.00,0.83
6902.00,0.83
6901.00,0.83
6900.00,0.83
6899.00,0.83
6898.00,0.83
6897.00,0.83
6896.00,0.83
6895.00,0.83
6894.00,0.83
6893.00,0.83
6892.00,0.83
6891.00,0.83
6890.00,0.83
6889.00,0.83
6888.00,0.83
6887.00,0.84
6886.00,0.84
6885.00,0.84
6884.00,0.84
6883.00,0.83
6882.00,0.83
6881.00,0.83
6880.00,0.83
6879.00,0.83
6878.00,0.83
6877.00,0.83
6876.00,0.83
6875.00,0.83
6874.00,0.83
6873.00,0.83
6872.00,0.83
6871.00,0.83
6870.00,0.83
6869.00,0.83
6868.00,0.83
6867.00,0.83
6866.00,0.82
6865.00,0.82
6864.00,0.82
6863.00,0.82
6862.00,0.82
6861.00,0.82
6860.00,0.82
6859.00,0.82
6858.00,0.82
6857.00,0.82
6856.00,0.82
6855.00,0.82
6854.00,0.83
6853.00,0.83
6852.00,0.83
6851.00,0.83
6850.00,0.83
6849.00,0.83
6848.00,0.83
6847.00,0.83
6846.00,0.83
6845.00,0.83
6844.00,0.83
6843.00,0.83
6842.00,0.83
6841.00,0.83
6840.00,0.83
6839.00,0.83
6838.00,0.83
6837.00,0.83
6836.00,0.83
6835.00,0.83
6834.00,0.83
6833.00,0.83
6832.00,0.83
6831.00,0.83
6830.00,0.83
6829.00,0.83
6828.00,0.83
6827.00,0.83
6826.00,0.83
6825.00,0.83
6824.00,0.83
6823.00,0.83
6822.00,0.83
6821.00,0.83
6820.00,0.83
6819.00,0.83
6818.00,0.83
6817.00,0.84
6816.00,0.84
6815.00,0.84
6814.00,0.84
6813.00,0.84
6812.00,0.84
6811.00,0.84
6810.00,0.84
6809.00,0.84
6808.00,0.84
6807.00,0.85
6806.00,0.85
6805.00,0.85
6804.00,0.85
6803.00,0.85
6802.00,0.85
6801.00,0.85
6800.00,0.85
6799.00,0.85
6798.00,0.85
6797.00,0.85
6796.00,0.85
6795.00,0.85
6794.00,0.85
6793.00,0.85
6792.00,0.86
6791.00,0.86
6790.00,0.86
6789.00,0.86
6788.00,0.86
6787.00,0.86
6786.00,0.86
6785.00,0.86
6784.00,0.86
6783.00,0.86
6782.00,0.86
6781.00,0.86
6780.00,0.86
6779.00,0.86
6778.00,0.86
6777.00,0.87
6776.00,0.87
6775.00,0.87
6774.00,0.87
6773.00,0.87
6772.00,0.87
6771.00,0.87
6770.00,0.87
6769.00,0.87
6768.00,0.87
6767.00,0.88
6766.00,0.88
6765.00,0.88
6764.00,0.88
6763.00,0.88
6762.00,0.88
6761.00,0.88
6760.00,0.88
6759.00,0.88
6758.00,0.88
6757.00,0.88
6756.00,0.88
6755.00,0.88
6754.00,0.88
6753.00,0.89
6752.00,0.89
6751.00,0.89
6750.00,0.89
6749.00,0.89
6748.00,0.89
6747.00,0.89
6746.00,0.89
6745.00,0.89
6744.00,0.90
6743.00,0.90
6742.00,0.90
6741.00,0.90
6740.00,0.90
6739.00,0.90
6738.00,0.90
6737.00,0.90
6736.00,0.90
6735.00,0.91
6734.00,0.91
6733.00,0.91
6732.00,0.91
6731.00,0.91
6730.00,0.91
6729.00,0.91
6728.00,0.91
6727.00,0.91
6726.00,0.91
6725.00,0.91
6724.00,0.91
6723.00,0.91
6722.00,0.92
6721.00,0.92
6720.00,0.92
6719.00,0.92
6718.00,0.92
6717.00,0.92
6716.00,0.92
6715.00,0.92
6714.00,0.93
6713.00,0.93
6712.00,0.93
6711.00,0.93
6710.00,0.93
6709.00,0.93
6708.00,0.93
6707.00,0.93
6706.00,0.93
6705.00,0.93
6704.00,0.93
6703.00,0.93
6702.00,0.94
6701.00,0.94
6700.00,0.94
6699.00,0.94
6698.00,0.94
6697.00,0.94
6696.00,0.94
6695.00,0.94
6694.00,0.94
6693.00,0.94
6692.00,0.94
6691.00,0.94
6690.00,0.94
6689.00,0.94
6688.00,0.95
6687.00,0.95
6686.00,0.95
6685.00,0.95
6684.00,0.95
6683.00,0.95
6682.00,0.95
6681.00,0.95
6680.00,0.95
6679.00,0.95
6678.00,0.95
6677.00,0.96
6676.00,0.96
6675.00,0.96
6674.00,0.96
6673.00,0.96
6672.00,0.96
6671.00,0.96
6670.00,0.96
6669.00,0.96
6668.00,0.97
6667.00,0.97
6666.00,0.97
6665.00,0.97
6664.00,0.97
6663.00,0.97
6662.00,0.97
6661.00,0.97
6660.00,0.98
6659.00,0.98
6658.00,0.98
6657.00,0.98
6656.00,0.98
6655.00,0.98
6654.00,0.99
6653.00,0.99
6652.00,0.99
6651.00,0.99
6650.00,0.99
6649.00,1.00
6648.00,1.00
6647.00,1.00
6646.00,1.00
6645.00,1.00
6644.00,1.00
6643.00,1.01
6642.00,1.01
6641.00,1.01
6640.00,1.01
6639.00,1.01
6638.00,1.01
6637.00,1.01
6636.00,1.01
6635.00,1.01
6634.00,1.02
6633.00,1.02
6632.00,1.02
6631.00,1.02
6630.00,1.02
6629.00,1.02
6628.00,1.02
6627.00,1.02
6626.00,1.02
6625.00,1.02
6624.00,1.02
6623.00,1.02
6622.00,1.02
6621.00,1.03
6620.00,1.03
6619.00,1.03
6618.00,1.03
6617.00,1.03
6616.00,1.03
6615.00,1.03
6614.00,1.03
6613.00,1.03
6612.00,1.04
6611.00,1.04
6610.00,1.04
6609.00,1.04
6608.00,1.04
6607.00,1.04
6606.00,1.05
6605.00,1.05
6604.00,1.05
6603.00,1.05
6602.00,1.05
6601.00,1.05
6600.00,1.05
6599.00,1.06
6598.00,1.06
6597.00,1.06
6596.00,1.06
6595.00,1.06
6594.00,1.06
6593.00,1.06
6592.00,1.06
6591.00,1.07
6590.00,1.07
6589.00,1.07
6588.00,1.07
6587.00,1.07
6586.00,1.07
6585.00,1.07
6584.00,1.07
6583.00,1.07
6582.00,1.08
6581.00,1.08
6580.00,1.08
6579.00,1.08
6578.00,1.08
6577.00,1.08
6576.00,1.08
6575.00,1.08
6574.00,1.08
6573.00,1.08
6572.00,1.09
6571.00,1.09
6570.00,1.09
6569.00,1.09
6568.00,1.09
6567.00,1.09
6566.00,1.09
6565.00,1.09
6564.00,1.10
6563.00,1.10
6562.00,1.10
6561.00,1.10
6560.00,1.10
6559.00,1.10
6558.00,1.10
6557.00,1.10
6556.00,1.10
6555.00,1.11
6554.00,1.11
6553.00,1.11
6552.00,1.11
6551.00,1.11
6550.00,1.11
6549.00,1.12
6548.00,1.12
6547.00,1.12
6546.00,1.12
6545.00,1.12
6544.00,1.12
6543.00,1.12
6542.00,1.12
6541.00,1.13
6540.00,1.13
6539.00,1.13
6538.00,1.13
6537.00,1.13
6536.00,1.13
6535.00,1.13
6534.00,1.13
6533.00,1.13
6532.00,1.13
6531.00,1.13
6530.00,1.13
6529.00,1.13
6528.00,1.13
6527.00,1.13
6526.00,1.14
6525.00,1.14
6524.00,1.14
6523.00,1.14
6522.00,1.14
6521.00,1.14
6520.00,1.14
6519.00,1.14
6518.00,1.14
6517.00,1.15
6516.00,1.15
6515.00,1.15
6514.00,1.15
6513.00,1.15
6512.00,1.15
6511.00,1.15
6510.00,1.15
6509.00,1.15
6508.00,1.16
6507.00,1.16
6506.00,1.16
6505.00,1.16
6504.00,1.16
6503.00,1.16
6502.00,1.16
6501.00,1.16
6500.00,1.16
6499.00,1.16
6498.00,1.16
6497.00,1.16
6496.00,1.16
6495.00,1.17
6494.00,1.17
6493.00,1.17
6492.00,1.17
6491.00,1.17
6490.00,1.17
6489.00,1.17
6488.00,1.18
6487.00,1.18
6486.00,1.18
6485.00,1.18
6484.00,1.18
6483.00,1.18
6482.00,1.19
6481.00,1.19
6480.00,1.19
6479.00,1.19
6478.00,1.19
6477.00,1.19
6476.00,1.19
6475.00,1.19
6474.00,1.19
6473.00,1.20
6472.00,1.20
6471.00,1.20
6470.00,1.20
6469.00,1.20
6468.00,1.20
6467.00,1.20
6466.00,1.20
6465.00,1.20
6464.00,1.20
6463.00,1.20
6462.00,1.20
6461.00,1.20
6460.00,1.20
6459.00,1.20
6458.00,1.20
6457.00,1.21
6456.00,1.21
6455.00,1.21
6454.00,1.21
6453.00,1.21
6452.00,1.21
6451.00,1.21
6450.00,1.21
6449.00,1.22
6448.00,1.22
6447.00,1.22
6446.00,1.22
6445.00,1.22
6444.00,1.22
6443.00,1.22
6442.00,1.22
6441.00,1.23
6440.00,1.23
6439.00,1.23
6438.00,1.23
6437.00,1.23
6436.00,1.23
6435.00,1.23
6434.00,1.23
6433.00,1.23
6432.00,1.23
6431.00,1.23
6430.00,1.23
6429.00,1.23
6428.00,1.23
6427.00,1.23
6426.00,1.23
6425.00,1.24
6424.00,1.24
6423.00,1.24
6422.00,1.24
6421.00,1.24
6420.00,1.24
6419.00,1.24
6418.00,1.25
6417.00,1.25
6416.00,1.25
6415.00,1.25
6414.00,1.25
6413.00,1.25
6412.00,1.25
6411.00,1.25
6410.00,1.25
6409.00,1.25
6408.00,1.25
6407.00,1.25
6406.00,1.25
6405.00,1.26
6404.00,1.26
6403.00,1.26
6402.00,1.26
6401.00,1.26
6400.00,1.26
6399.00,1.26
6398.00,1.26
6397.00,1.26
6396.00,1.26
6395.00,1.26
6394.00,1.26
6393.00,1.26
6392.00,1.26
6391.00,1.26
6390.00,1.26
6389.00,1.26
6388.00,1.27
6387.00,1.27
6386.00,1.27
6385.00,1.27
6384.00,1.27
6383.00,1.27
6382.00,1.27
6381.00,1.27
6380.00,1.27
6379.00,1.27
6378.00,1.28
6377.00,1.28
6376.00,1.28
6375.00,1.28
6374.00,1.28
6373.00,1.28
6372.00,1.28
6371.00,1.29
6370.00,1.29
6369.00,1.29
6368.00,1.29
6367.00,1.29
6366.00,1.29
6365.00,1.29
6364.00,1.30
6363.00,1.30
6362.00,1.30
6361.00,1.30
6360.00,1.30
6359.00,1.30
6358.00,1.30
6357.00,1.30
6356.00,1.30
6355.00,1.31
6354.00,1.31
6353.00,1.31
6352.00,1.31
6351.00,1.31
6350.00,1.31
6349.00,1.31
6348.00,1.31
6347.00,1.31
6346.00,1.31
6345.00,1.31
6344.00,1.32
6343.00,1.32
6342.00,1.32
6341.00,1.32
6340.00,1.32
6339.00,1.32
6338.00,1.32
6337.00,1.32
6336.00,1.32
6335.00,1.32
6334.00,1.32
6333.00,1.33
6332.00,1.33
6331.00,1.33
6330.00,1.33
6329.00,1.33
6328.00,1.33
6327.00,1.33
6326.00,1.33
6325.00,1.33
6324.00,1.33
6323.00,1.34
6322.00,1.34
6321.00,1.34
6320.00,1.34
6319.00,1.34
6318.00,1.34
6317.00,1.34
6316.00,1.34
6315.00,1.34
6314.00,1.35
6313.00,1.35
6312.00,1.35
6311.00,1.35
6310.00,1.35
6309.00,1.35
6308.00,1.35
6307.00,1.35
6306.00,1.35
6305.00,1.35
6304.00,1.35
6303.00,1.35
6302.00,1.36
6301.00,1.36
6300.00,1.36
6299.00,1.36
6298.00,1.36
6297.00,1.36
6296.00,1.36
6295.00,1.37
6294.00,1.37
6293.00,1.37
6292.00,1.37
6291.00,1.37
6290.00,1.37
6289.00,1.38
6288.00,1.38
6287.00,1.38
6286.00,1.38
6285.00,1.38
6284.00,1.38
6283.00,1.39
6282.00,1.39
6281.00,1.39
6280.00,1.39
6279.00,1.39
6278.00,1.39
6277.00,1.39
6276.00,1.40
6275.00,1.40
6274.00,1.40
6273.00,1.40
6272.00,1.40
6271.00,1.40
6270.00,1.40
6269.00,1.40
6268.00,1.40
6267.00,1.41
6266.00,1.41
6265.00,1.41
6264.00,1.41
6263.00,1.41
6262.00,1.41
6261.00,1.41
6260.00,1.42
6259.00,1.42
6258.00,1.42
6257.00,1.42
6256.00,1.42
6255.00,1.42
6254.00,1.43
6253.00,1.43
6252.00,1.43
6251.00,1.43
6250.00,1.43
6249.00,1.43
6248.00,1.44
6247.00,1.44
6246.00,1.44
6245.00,1.44
6244.00,1.44
6243.00,1.44
6242.00,1.44
6241.00,1.44
6240.00,1.44
6239.00,1.45
6238.00,1.45
6237.00,1.45
6236.00,1.45
6235.00,1.45
6234.00,1.45
6233.00,1.45
6232.00,1.45
6231.00,1.45
6230.00,1.45
6229.00,1.46
6228.00,1.46
6227.00,1.46
6226.00,1.46
6225.00,1.46
6224.00,1.46
6223.00,1.46
6222.00,1.46
6221.00,1.46
6220.00,1.47
6219.00,1.47
6218.00,1.47
6217.00,1.47
6216.00,1.47
6215.00,1.47
6214.00,1.47
6213.00,1.47
6212.00,1.47
6211.00,1.47
6210.00,1.47
6209.00,1.48
6208.00,1.48
6207.00,1.48
6206.00,1.48
6205.00,1.48
6204.00,1.48
6203.00,1.48
6202.00,1.48
6201.00,1.48
6200.00,1.48
6199.00,1.48
6198.00,1.49
6197.00,1.49
6196.00,1.49
6195.00,1.49
6194.00,1.49
6193.00,1.49
6192.00,1.49
6191.00,1.50
6190.00,1.50
6189.00,1.50
6188.00,1.50
6187.00,1.50
6186.00,1.50
6185.00,1.50
6184.00,1.51
6183.00,1.51
6182.00,1.51
6181.00,1.51
6180.00,1.51
6179.00,1.51
6178.00,1.51
6177.00,1.52
6176.00,1.52
6175.00,1.52
6174.00,1.52
6173.00,1.52
6172.00,1.52
6171.00,1.53
6170.00,1.53
6169.00,1.53
6168.00,1.53
6167.00,1.53
6166.00,1.54
6165.00,1.54
6164.00,1.54
6163.00,1.54
6162.00,1.54
6161.00,1.54
6160.00,1.55
6159.00,1.55
6158.00,1.55
6157.00,1.55
6156.00,1.55
6155.00,1.55
6154.00,1.55
6153.00,1.55
6152.00,1.55
6151.00,1.55
6150.00,1.55
6149.00,1.56
6148.00,1.56
6147.00,1.56
6146.00,1.56
6145.00,1.56
6144.00,1.56
6143.00,1.56
6142.00,1.56
6141.00,1.56
6140.00,1.57
6139.00,1.57
6138.00,1.57
6137.00,1.57
6136.00,1.57
6135.00,1.57
6134.00,1.58
6133.00,1.58
6132.00,1.58
6131.00,1.58
6130.00,1.58
6129.00,1.58
6128.00,1.58
6127.00,1.59
6126.00,1.59
6125.00,1.59
6124.00,1.59
6123.00,1.59
6122.00,1.59
6121.00,1.59
6120.00,1.59
6119.00,1.59
6118.00,1.60
6117.00,1.60
6116.00,1.60
6115.00,1.60
6114.00,1.60
6113.00,1.60
6112.00,1.60
6111.00,1.60
6110.00,1.60
6109.00,1.61
6108.00,1.61
6107.00,1.61
6106.00,1.61
6105.00,1.61
6104.00,1.61
6103.00,1.61
6102.00,1.61
6101.00,1.62
6100.00,1.62
6099.00,1.62
6098.00,1.62
6097.00,1.62
6096.00,1.62
6095.00,1.63
6094.00,1.63
6093.00,1.63
6092.00,1.63
6091.00,1.63
6090.00,1.63
6089.00,1.64
6088.00,1.64
6087.00,1.64
6086.00,1.64
6085.00,1.64
6084.00,1.64
6083.00,1.64
6082.00,1.65
6081.00,1.65
6080.00,1.65
6079.00,1.65
6078.00,1.65
6077.00,1.65
6076.00,1.65
6075.00,1.65
6074.00,1.65
6073.00,1.65
6072.00,1.65
6071.00,1.65
6070.00,1.65
6069.00,1.65
6068.00,1.65
6067.00,1.66
6066.00,1.66
6065.00,1.66
6064.00,1.66
6063.00,1.66
6062.00,1.66
6061.00,1.66
6060.00,1.66
6059.00,1.66
6058.00,1.66
6057.00,1.66
6056.00,1.66
6055.00,1.67
6054.00,1.67
6053.00,1.67
6052.00,1.67
6051.00,1.67
6050.00,1.67
6049.00,1.67
6048.00,1.67
6047.00,1.67
6046.00,1.67
6045.00,1.67
6044.00,1.67
6043.00,1.68
6042.00,1.68
6041.00,1.68
6040.00,1.68
6039.00,1.68
6038.00,1.68
6037.00,1.68
6036.00,1.68
6035.00,1.68
6034.00,1.68
6033.00,1.68
6032.00,1.68
6031.00,1.68
6030.00,1.68
6029.00,1.68
6028.00,1.68
6027.00,1.68
6026.00,1.69
6025.00,1.69
6024.00,1.69
6023.00,1.69
6022.00,1.69
6021.00,1.69
6020.00,1.69
6019.00,1.69
6018.00,1.69
6017.00,1.69
6016.00,1.69
6015.00,1.69
6014.00,1.69
6013.00,1.69
6012.00,1.69
6011.00,1.69
6010.00,1.69
6009.00,1.69
6008.00,1.69
6007.00,1.69
6006.00,1.69
6005.00,1.69
6004.00,1.69
6003.00,1.69
6002.00,1.69
6001.00,1.69
6000.00,1.69
5999.00,1.69
5998.00,1.69
5997.00,1.69
5996.00,1.69
5995.00,1.69
5994.00,1.69
5993.00,1.69
5992.00,1.69
5991.00,1.69
5990.00,1.68
5989.00,1.68
5988.00,1.68
5987.00,1.68
5986.00,1.68
5985.00,1.67
5984.00,1.67
5983.00,1.67
5982.00,1.67
5981.00,1.66
5980.00,1.66
5979.00,1.66
5978.00,1.65
5977.00,1.65
5976.00,1.64
5975.00,1.64
5974.00,1.64
5973.00,1.63
5972.00,1.63
5971.00,1.62
5970.00,1.62
5969.00,1.61
5968.00,1.61
5967.00,1.60
5966.00,1.60
5965.00,1.59
5964.00,1.59
5963.00,1.59
5962.00,1.58
5961.00,1.58
5960.00,1.57
5959.00,1.57
5958.00,1.56
5957.00,1.56
5956.00,1.55
5955.00,1.55
5954.00,1.55
5953.00,1.54
5952.00,1.54
5951.00,1.53
5950.00,1.53
5949.00,1.53
5948.00,1.53
5947.00,1.52
5946.00,1.52
5945.00,1.52
5944.00,1.52
5943.00,1.51
5942.00,1.51
5941.00,1.51
5940.00,1.51
5939.00,1.51
5938.00,1.51
5937.00,1.51
5936.00,1.50
5935.00,1.50
5934.00,1.50
5933.00,1.50
5932.00,1.50
5931.00,1.50
5930.00,1.50
5929.00,1.50
5928.00,1.50
5927.00,1.50
5926.00,1.49
5925.00,1.49
5924.00,1.49
5923.00,1.49
5922.00,1.49
5921.00,1.49
5920.00,1.48
5919.00,1.48
5918.00,1.48
5917.00,1.48
5916.00,1.48
5915.00,1.47
5914.00,1.47
5913.00,1.47
5912.00,1.47
5911.00,1.47
5910.00,1.46
5909.00,1.46
5908.00,1.46
5907.00,1.46
5906.00,1.46
5905.00,1.46
5904.00,1.46
5903.00,1.46
5902.00,1.46
5901.00,1.46
5900.00,1.46
5899.00,1.46
5898.00,1.46
5897.00,1.46
5896.00,1.46
5895.00,1.46
5894.00,1.47
5893.00,1.47
5892.00,1.47
5891.00,1.47
5890.00,1.48
5889.00,1.48
5888.00,1.48
5887.00,1.49
5886.00,1.49
5885.00,1.49
5884.00,1.50
5883.00,1.50
5882.00,1.50
5881.00,1.51
5880.00,1.51
5879.00,1.51
5878.00,1.51
5877.00,1.52
5876.00,1.52
5875.00,1.52
5874.00,1.52
5873.00,1.52
5872.00,1.53
5871.00,1.53
5870.00,1.53
5869.00,1.53
5868.00,1.53
5867.00,1.53
5866.00,1.54
5865.00,1.54
5864.00,1.54
5863.00,1.54
5862.00,1.54
5861.00,1.54
5860.00,1.55
5859.00,1.55
5858.00,1.55
5857.00,1.55
5856.00,1.55
5855.00,1.55
5854.00,1.55
5853.00,1.55
5852.00,1.55
5851.00,1.55
5850.00,1.55
5849.00,1.55
5848.00,1.55
5847.00,1.55
5846.00,1.55
5845.00,1.55
5844.00,1.55
5843.00,1.55
5842.00,1.55
5841.00,1.55
5840.00,1.55
5839.00,1.55
5838.00,1.55
5837.00,1.55
5836.00,1.55
5835.00,1.55
5834.00,1.55
5833.00,1.55
5832.00,1.55
5831.00,1.55
5830.00,1.55
5829.00,1.55
5828.00,1.55
5827.00,1.55
5826.00,1.55
5825.00,1.55
5824.00,1.55
5823.00,1.55
5822.00,1.55
5821.00,1.55
5820.00,1.55
5819.00,1.55
5818.00,1.55
5817.00,1.55
5816.00,1.55
5815.00,1.55
5814.00,1.55
5813.00,1.55
5812.00,1.55
5811.00,1.55
5810.00,1.55
5809.00,1.55
5808.00,1.54
5807.00,1.54
5806.00,1.54
5805.00,1.54
5804.00,1.54
5803.00,1.54
5802.00,1.54
5801.00,1.54
5800.00,1.54
5799.00,1.54
5798.00,1.53
5797.00,1.53
5796.00,1.53
5795.00,1.53
5794.00,1.53
5793.00,1.52
5792.00,1.52
5791.00,1.52
5790.00,1.52
5789.00,1.52
5788.00,1.52
5787.00,1.51
5786.00,1.51
5785.00,1.51
5784.00,1.51
5783.00,1.51
5782.00,1.51
5781.00,1.50
5780.00,1.50
5779.00,1.50
5778.00,1.50
5777.00,1.50
5776.00,1.50
5775.00,1.50
5774.00,1.50
5773.00,1.50
5772.00,1.50
5771.00,1.50
5770.00,1.50
5769.00,1.50
5768.00,1.50
5767.00,1.50
5766.00,1.50
5765.00,1.51
5764.00,1.51
5763.00,1.51
5762.00,1.51
5761.00,1.51
5760.00,1.52
5759.00,1.52
5758.00,1.52
5757.00,1.52
5756.00,1.53
5755.00,1.53
5754.00,1.53
5753.00,1.53
5752.00,1.54
5751.00,1.54
5750.00,1.54
5749.00,1.54
5748.00,1.54
5747.00,1.55
5746.00,1.55
5745.00,1.55
5744.00,1.55
5743.00,1.55
5742.00,1.55
5741.00,1.55
5740.00,1.55
5739.00,1.55
5738.00,1.56
5737.00,1.56
5736.00,1.56
5735.00,1.56
5734.00,1.56
5733.00,1.56
5732.00,1.56
5731.00,1.56
5730.00,1.56
5729.00,1.56
5728.00,1.56
5727.00,1.56
5726.00,1.56
5725.00,1.56
5724.00,1.56
5723.00,1.56
5722.00,1.56
5721.00,1.56
5720.00,1.56
5719.00,1.56
5718.00,1.56
5717.00,1.56
5716.00,1.56
5715.00,1.56
5714.00,1.56
5713.00,1.56
5712.00,1.56
5711.00,1.56
5710.00,1.56
5709.00,1.55
5708.00,1.55
5707.00,1.55
5706.00,1.55
5705.00,1.55
5704.00,1.55
5703.00,1.55
5702.00,1.55
5701.00,1.55
5700.00,1.55
5699.00,1.54
5698.00,1.54
5697.00,1.54
5696.00,1.54
5695.00,1.54
5694.00,1.54
5693.00,1.54
5692.00,1.54
5691.00,1.53
5690.00,1.53
5689.00,1.53
5688.00,1.53
5687.00,1.53
5686.00,1.53
5685.00,1.53
5684.00,1.53
5683.00,1.52
5682.00,1.52
5681.00,1.52
5680.00,1.52
5679.00,1.52
5678.00,1.52
5677.00,1.52
5676.00,1.52
5675.00,1.52
5674.00,1.52
5673.00,1.52
5672.00,1.52
5671.00,1.52
5670.00,1.52
5669.00,1.52
5668.00,1.52
5667.00,1.52
5666.00,1.52
5665.00,1.52
5664.00,1.52
5663.00,1.52
5662.00,1.52
5661.00,1.52
5660.00,1.52
5659.00,1.52
5658.00,1.52
5657.00,1.52
5656.00,1.53
5655.00,1.53
5654.00,1.53
5653.00,1.53
5652.00,1.53
5651.00,1.53
5650.00,1.53
5649.00,1.53
5648.00,1.54
5647.00,1.54
5646.00,1.54
5645.00,1.54
5644.00,1.54
5643.00,1.54
5642.00,1.54
5641.00,1.54
5640.00,1.54
5639.00,1.55
5638.00,1.55
5637.00,1.55
5636.00,1.55
5635.00,1.55
5634.00,1.55
5633.00,1.55
5632.00,1.55
5631.00,1.55
5630.00,1.55
5629.00,1.55
5628.00,1.55
5627.00,1.55
5626.00,1.56
5625.00,1.56
5624.00,1.56
5623.00,1.56
5622.00,1.56
5621.00,1.56
5620.00,1.56
5619.00,1.56
5618.00,1.56
5617.00,1.57
5616.00,1.57
5615.00,1.57
5614.00,1.57
5613.00,1.57
5612.00,1.57
5611.00,1.57
5610.00,1.57
5609.00,1.57
5608.00,1.57
5607.00,1.58
5606.00,1.58
5605.00,1.58
5604.00,1.58
5603.00,1.58
5602.00,1.58
5601.00,1.58
5600.00,1.58
5599.00,1.58
5598.00,1.58
5597.00,1.59
5596.00,1.59
5595.00,1.59
5594.00,1.59
5593.00,1.59
5592.00,1.59
5591.00,1.59
5590.00,1.59
5589.00,1.60
5588.00,1.60
5587.00,1.60
5586.00,1.60
5585.00,1.60
5584.00,1.60
5583.00,1.60
5582.00,1.61
5581.00,1.61
5580.00,1.61
5579.00,1.61
5578.00,1.61
5577.00,1.61
5576.00,1.61
5575.00,1.61
5574.00,1.61
5573.00,1.62
5572.00,1.62
5571.00,1.62
5570.00,1.62
5569.00,1.62
5568.00,1.62
5567.00,1.62
5566.00,1.62
5565.00,1.62
5564.00,1.62
5563.00,1.63
5562.00,1.63
5561.00,1.63
5560.00,1.63
5559.00,1.63
5558.00,1.63
5557.00,1.63
5556.00,1.63
5555.00,1.63
5554.00,1.63
5553.00,1.64
5552.00,1.64
5551.00,1.64
5550.00,1.64
5549.00,1.64
5548.00,1.64
5547.00,1.64
5546.00,1.64
5545.00,1.64
5544.00,1.64
5543.00,1.65
5542.00,1.65
5541.00,1.65
5540.00,1.65
5539.00,1.65
5538.00,1.65
5537.00,1.65
5536.00,1.65
5535.00,1.65
5534.00,1.65
5533.00,1.66
5532.00,1.66
5531.00,1.66
5530.00,1.66
5529.00,1.66
5528.00,1.66
5527.00,1.66
5526.00,1.66
5525.00,1.66
5524.00,1.66
5523.00,1.66
5522.00,1.66
5521.00,1.66
5520.00,1.66
5519.00,1.66
5518.00,1.67
5517.00,1.67
5516.00,1.67
5515.00,1.67
5514.00,1.67
5513.00,1.67
5512.00,1.67
5511.00,1.67
5510.00,1.67
5509.00,1.67
5508.00,1.67
5507.00,1.67
5506.00,1.67
5505.00,1.67
5504.00,1.67
5503.00,1.68
5502.00,1.68
5501.00,1.68
5500.00,1.68
5499.00,1.68
5498.00,1.68
5497.00,1.68
5496.00,1.68
5495.00,1.68
5494.00,1.68
5493.00,1.68
5492.00,1.68
5491.00,1.68
5490.00,1.68
5489.00,1.68
5488.00,1.69
5487.00,1.69
5486.00,1.69
5485.00,1.69
5484.00,1.69
5483.00,1.69
5482.00,1.69
5481.00,1.69
5480.00,1.69
5479.00,1.69
5478.00,1.69
5477.00,1.70
5476.00,1.70
5475.00,1.70
5474.00,1.70
5473.00,1.70
5472.00,1.70
5471.00,1.70
5470.00,1.70
5469.00,1.70
5468.00,1.70
5467.00,1.70
5466.00,1.71
5465.00,1.71
5464.00,1.71
5463.00,1.71
5462.00,1.71
5461.00,1.71
5460.00,1.71
5459.00,1.71
5458.00,1.71
5457.00,1.71
5456.00,1.71
5455.00,1.71
5454.00,1.71
5453.00,1.71
5452.00,1.71
5451.00,1.71
5450.00,1.71
5449.00,1.71
5448.00,1.71
5447.00,1.71
5446.00,1.72
5445.00,1.72
5444.00,1.72
5443.00,1.72
5442.00,1.71
5441.00,1.71
5440.00,1.71
5439.00,1.71
5438.00,1.71
5437.00,1.71
5436.00,1.71
5435.00,1.71
5434.00,1.71
5433.00,1.71
5432.00,1.71
5431.00,1.71
5430.00,1.71
5429.00,1.71
5428.00,1.71
5427.00,1.71
5426.00,1.71
5425.00,1.71
5424.00,1.71
5423.00,1.71
5422.00,1.71
5421.00,1.71
5420.00,1.71
5419.00,1.71
5418.00,1.71
5417.00,1.71
5416.00,1.71
5415.00,1.71
5414.00,1.71
5413.00,1.71
5412.00,1.71
5411.00,1.71
5410.00,1.71
5409.00,1.71
5408.00,1.70
5407.00,1.70
5406.00,1.70
5405.00,1.70
5404.00,1.70
5403.00,1.70
5402.00,1.69
5401.00,1.69
5400.00,1.69
5399.00,1.69
5398.00,1.69
5397.00,1.69
5396.00,1.68
5395.00,1.68
5394.00,1.68
5393.00,1.68
5392.00,1.68
5391.00,1.67
5390.00,1.67
5389.00,1.67
5388.00,1.67
5387.00,1.66
5386.00,1.66
5385.00,1.66
5384.00,1.66
5383.00,1.65
5382.00,1.65
5381.00,1.64
5380.00,1.64
5379.00,1.64
5378.00,1.63
5377.00,1.63
5376.00,1.62
5375.00,1.62
5374.00,1.61
5373.00,1.61
5372.00,1.60
5371.00,1.60
5370.00,1.59
5369.00,1.59
5368.00,1.58
5367.00,1.57
5366.00,1.57
5365.00,1.56
5364.00,1.56
5363.00,1.55
5362.00,1.54
5361.00,1.54
5360.00,1.53
5359.00,1.52
5358.00,1.51
5357.00,1.51
5356.00,1.50
5355.00,1.49
5354.00,1.48
5353.00,1.47
5352.00,1.47
5351.00,1.46
5350.00,1.45
5349.00,1.44
5348.00,1.43
5347.00,1.42
5346.00,1.41
5345.00,1.40
5344.00,1.38
5343.00,1.37
5342.00,1.36
5341.00,1.35
5340.00,1.34
5339.00,1.33
5338.00,1.32
5337.00,1.31
5336.00,1.30
5335.00,1.29
5334.00,1.28
5333.00,1.27
5332.00,1.25
5331.00,1.24
5330.00,1.23
5329.00,1.22
5328.00,1.21
5327.00,1.20
5326.00,1.19
5325.00,1.18
5324.00,1.17
5323.00,1.16
5322.00,1.15
5321.00,1.15
5320.00,1.14
5319.00,1.13
5318.00,1.12
5317.00,1.11
5316.00,1.10
5315.00,1.09
5314.00,1.08
5313.00,1.07
5312.00,1.06
5311.00,1.05
5310.00,1.05
5309.00,1.04
5308.00,1.03
5307.00,1.02
5306.00,1.02
5305.00,1.01
5304.00,1.00
5303.00,1.00
5302.00,0.99
5301.00,0.98
5300.00,0.98
5299.00,0.97
5298.00,0.97
5297.00,0.96
5296.00,0.96
5295.00,0.95
5294.00,0.95
5293.00,0.95
5292.00,0.94
5291.00,0.94
5290.00,0.94
5289.00,0.93
5288.00,0.93
5287.00,0.93
5286.00,0.93
5285.00,0.92
5284.00,0.92
5283.00,0.92
5282.00,0.92
5281.00,0.92
5280.00,0.91
5279.00,0.91
5278.00,0.91
5277.00,0.91
5276.00,0.91
5275.00,0.91
5274.00,0.91
5273.00,0.91
5272.00,0.91
5271.00,0.91
5270.00,0.91
5269.00,0.91
5268.00,0.91
5267.00,0.91
5266.00,0.91
5265.00,0.90
5264.00,0.90
5263.00,0.90
5262.00,0.90
5261.00,0.90
5260.00,0.90
5259.00,0.90
5258.00,0.90
5257.00,0.90
5256.00,0.90
5255.00,0.90
5254.00,0.90
5253.00,0.90
5252.00,0.90
5251.00,0.90
5250.00,0.90
5249.00,0.90
5248.00,0.90
5247.00,0.90
5246.00,0.90
5245.00,0.90
5244.00,0.90
5243.00,0.90
5242.00,0.90
5241.00,0.90
5240.00,0.90
5239.00,0.90
5238.00,0.90
5237.00,0.90
5236.00,0.90
5235.00,0.90
5234.00,0.90
5233.00,0.90
5232.00,0.91
5231.00,0.91
5230.00,0.91
5229.00,0.91
5228.00,0.91
5227.00,0.91
5226.00,0.91
5225.00,0.91
5224.00,0.91
5223.00,0.91
5222.00,0.91
5221.00,0.91
5220.00,0.91
5219.00,0.91
5218.00,0.91
5217.00,0.91
5216.00,0.91
5215.00,0.91
5214.00,0.91
5213.00,0.91
5212.00,0.91
5211.00,0.91
5210.00,0.91
5209.00,0.91
5208.00,0.91
5207.00,0.91
5206.00,0.91
5205.00,0.91
5204.00,0.91
5203.00,0.91
5202.00,0.91
5201.00,0.91
5200.00,0.91
5199.00,0.91
5198.00,0.91
5197.00,0.92
5196.00,0.92
5195.00,0.92
5194.00,0.92
5193.00,0.92
5192.00,0.92
5191.00,0.92
5190.00,0.92
5189.00,0.92
5188.00,0.93
5187.00,0.93
5186.00,0.93
5185.00,0.93
5184.00,0.93
5183.00,0.93
5182.00,0.93
5181.00,0.93
5180.00,0.93
5179.00,0.93
5178.00,0.93
5177.00,0.93
5176.00,0.93
5175.00,0.93
5174.00,0.93
5173.00,0.93
5172.00,0.93
5171.00,0.93
5170.00,0.94
5169.00,0.94
5168.00,0.94
5167.00,0.94
5166.00,0.94
5165.00,0.94
5164.00,0.94
5163.00,0.94
5162.00,0.94
5161.00,0.94
5160.00,0.94
5159.00,0.94
5158.00,0.94
5157.00,0.94
5156.00,0.94
5155.00,0.94
5154.00,0.94
5153.00,0.94
5152.00,0.95
5151.00,0.95
5150.00,0.95
5149.00,0.95
5148.00,0.95
5147.00,0.95
5146.00,0.95
5145.00,0.95
5144.00,0.95
5143.00,0.95
5142.00,0.95
5141.00,0.95
5140.00,0.95
5139.00,0.95
5138.00,0.95
5137.00,0.95
5136.00,0.95
5135.00,0.95
5134.00,0.95
5133.00,0.95
5132.00,0.95
5131.00,0.95
5130.00,0.95
5129.00,0.95
5128.00,0.95
5127.00,0.95
5126.00,0.95
5125.00,0.95
5124.00,0.95
5123.00,0.95
5122.00,0.95
5121.00,0.95
5120.00,0.96
5119.00,0.96
5118.00,0.96
5117.00,0.96
5116.00,0.96
5115.00,0.96
5114.00,0.96
5113.00,0.96
5112.00,0.96
5111.00,0.96
5110.00,0.96
5109.00,0.96
5108.00,0.96
5107.00,0.96
5106.00,0.96
5105.00,0.97
5104.00,0.97
5103.00,0.97
5102.00,0.97
5101.00,0.97
5100.00,0.97
5099.00,0.97
5098.00,0.97
5097.00,0.97
5096.00,0.97
5095.00,0.97
5094.00,0.97
5093.00,0.97
5092.00,0.97
5091.00,0.97
5090.00,0.97
5089.00,0.97
5088.00,0.97
5087.00,0.98
5086.00,0.98
5085.00,0.98
5084.00,0.98
5083.00,0.98
5082.00,0.98
5081.00,0.98
5080.00,0.98
5079.00,0.98
5078.00,0.98
5077.00,0.98
5076.00,0.98
5075.00,0.98
5074.00,0.98
5073.00,0.98
5072.00,0.98
5071.00,0.98
5070.00,0.98
5069.00,0.99
5068.00,0.99
5067.00,0.99
5066.00,0.99
5065.00,0.99
5064.00,0.99
5063.00,0.99
5062.00,0.99
5061.00,0.99
5060.00,0.99
5059.00,0.99
5058.00,0.99
5057.00,0.99
5056.00,0.99
5055.00,1.00
5054.00,1.00
5053.00,1.00
5052.00,1.00
5051.00,1.00
5050.00,1.00
5049.00,1.00
5048.00,1.00
5047.00,1.00
5046.00,1.00
5045.00,1.01
5044.00,1.01
5043.00,1.01
5042.00,1.01
5041.00,1.01
5040.00,1.01
5039.00,1.01
5038.00,1.01
5037.00,1.01
5036.00,1.01
5035.00,1.01
5034.00,1.01
5033.00,1.01
5032.00,1.01
5031.00,1.02
5030.00,1.02
5029.00,1.02
5028.00,1.02
5027.00,1.02
5026.00,1.02
5025.00,1.02
5024.00,1.02
5023.00,1.02
5022.00,1.02
5021.00,1.02
5020.00,1.02
5019.00,1.02
5018.00,1.03
5017.00,1.03
5016.00,1.03
5015.00,1.03
5014.00,1.03
5013.00,1.03
5012.00,1.03
5011.00,1.03
5010.00,1.03
5009.00,1.03
5008.00,1.03
5007.00,1.03
5006.00,1.03
5005.00,1.03
5004.00,1.03
5003.00,1.03
5002.00,1.03
5001.00,1.04
5000.00,1.04
4999.00,1.04
4998.00,1.04
4997.00,1.04
4996.00,1.04
4995.00,1.04
4994.00,1.04
4993.00,1.04
4992.00,1.05
4991.00,1.05
4990.00,1.05
4989.00,1.05
4988.00,1.05
4987.00,1.05
4986.00,1.05
4985.00,1.05
4984.00,1.06
4983.00,1.06
4982.00,1.06
4981.00,1.06
4980.00,1.06
4979.00,1.06
4978.00,1.06
4977.00,1.06
4976.00,1.07
4975.00,1.07
4974.00,1.07
4973.00,1.07
4972.00,1.07
4971.00,1.07
4970.00,1.07
4969.00,1.07
4968.00,1.08
4967.00,1.08
4966.00,1.08
4965.00,1.08
4964.00,1.08
4963.00,1.08
4962.00,1.09
4961.00,1.09
4960.00,1.09
4959.00,1.09
4958.00,1.09
4957.00,1.09
4956.00,1.09
4955.00,1.10
4954.00,1.10
4953.00,1.10
4952.00,1.10
4951.00,1.10
4950.00,1.10
4949.00,1.10
4948.00,1.10
4947.00,1.10
4946.00,1.10
4945.00,1.10
4944.00,1.10
4943.00,1.10
4942.00,1.11
4941.00,1.11
4940.00,1.11
4939.00,1.11
4938.00,1.11
4937.00,1.11
4936.00,1.11
4935.00,1.11
4934.00,1.11
4933.00,1.11
4932.00,1.11
4931.00,1.12
4930.00,1.12
4929.00,1.12
4928.00,1.12
4927.00,1.12
4926.00,1.12
4925.00,1.12
4924.00,1.12
4923.00,1.13
4922.00,1.13
4921.00,1.13
4920.00,1.13
4919.00,1.13
4918.00,1.13
4917.00,1.13
4916.00,1.13
4915.00,1.13
4914.00,1.13
4913.00,1.14
4912.00,1.14
4911.00,1.14
4910.00,1.14
4909.00,1.14
4908.00,1.14
4907.00,1.14
4906.00,1.14
4905.00,1.14
4904.00,1.14
4903.00,1.15
4902.00,1.15
4901.00,1.15
4900.00,1.15
4899.00,1.15
4898.00,1.15
4897.00,1.15
4896.00,1.15
4895.00,1.15
4894.00,1.15
4893.00,1.15
4892.00,1.15
4891.00,1.16
4890.00,1.16
4889.00,1.16
4888.00,1.16
4887.00,1.16
4886.00,1.16
4885.00,1.16
4884.00,1.16
4883.00,1.17
4882.00,1.17
4881.00,1.17
4880.00,1.17
4879.00,1.17
4878.00,1.17
4877.00,1.17
4876.00,1.17
4875.00,1.18
4874.00,1.18
4873.00,1.18
4872.00,1.18
4871.00,1.18
4870.00,1.18
4869.00,1.18
4868.00,1.18
4867.00,1.19
4866.00,1.19
4865.00,1.19
4864.00,1.19
4863.00,1.19
4862.00,1.19
4861.00,1.19
4860.00,1.19
4859.00,1.20
4858.00,1.20
4857.00,1.20
4856.00,1.20
4855.00,1.20
4854.00,1.20
4853.00,1.20
4852.00,1.20
4851.00,1.20
4850.00,1.21
4849.00,1.21
4848.00,1.21
4847.00,1.21
4846.00,1.21
4845.00,1.21
4844.00,1.21
4843.00,1.21
4842.00,1.21
4841.00,1.21
4840.00,1.22
4839.00,1.22
4838.00,1.22
4837.00,1.22
4836.00,1.22
4835.00,1.22
4834.00,1.22
4833.00,1.22
4832.00,1.23
4831.00,1.23
4830.00,1.23
4829.00,1.23
4828.00,1.23
4827.00,1.23
4826.00,1.23
4825.00,1.23
4824.00,1.24
4823.00,1.24
4822.00,1.24
4821.00,1.24
4820.00,1.24
4819.00,1.24
4818.00,1.25
4817.00,1.25
4816.00,1.25
4815.00,1.25
4814.00,1.25
4813.00,1.25
4812.00,1.26
4811.00,1.26
4810.00,1.26
4809.00,1.26
4808.00,1.26
4807.00,1.26
4806.00,1.26
4805.00,1.26
4804.00,1.27
4803.00,1.27
4802.00,1.27
4801.00,1.27
4800.00,1.27
4799.00,1.27
4798.00,1.27
4797.00,1.27
4796.00,1.27
4795.00,1.28
4794.00,1.28
4793.00,1.28
4792.00,1.28
4791.00,1.28
4790.00,1.28
4789.00,1.29
4788.00,1.29
4787.00,1.29
4786.00,1.29
4785.00,1.29
4784.00,1.30
4783.00,1.30
4782.00,1.30
4781.00,1.30
4780.00,1.30
4779.00,1.31
4778.00,1.31
4777.00,1.31
4776.00,1.31
4775.00,1.31
4774.00,1.31
4773.00,1.32
4772.00,1.32
4771.00,1.32
4770.00,1.32
4769.00,1.32
4768.00,1.32
4767.00,1.32
4766.00,1.33
4765.00,1.33
4764.00,1.33
4763.00,1.33
4762.00,1.33
4761.00,1.34
4760.00,1.34
4759.00,1.34
4758.00,1.34
4757.00,1.34
4756.00,1.35
4755.00,1.35
4754.00,1.35
4753.00,1.35
4752.00,1.36
4751.00,1.36
4750.00,1.36
4749.00,1.36
4748.00,1.36
4747.00,1.37
4746.00,1.37
4745.00,1.37
4744.00,1.37
4743.00,1.37
4742.00,1.38
4741.00,1.38
4740.00,1.38
4739.00,1.38
4738.00,1.38
4737.00,1.39
4736.00,1.39
4735.00,1.39
4734.00,1.39
4733.00,1.39
4732.00,1.40
4731.00,1.40
4730.00,1.40
4729.00,1.40
4728.00,1.40
4727.00,1.41
4726.00,1.41
4725.00,1.41
4724.00,1.41
4723.00,1.42
4722.00,1.42
4721.00,1.42
4720.00,1.42
4719.00,1.42
4718.00,1.43
4717.00,1.43
4716.00,1.43
4715.00,1.43
4714.00,1.43
4713.00,1.43
4712.00,1.44
4711.00,1.44
4710.00,1.44
4709.00,1.44
4708.00,1.44
4707.00,1.45
4706.00,1.45
4705.00,1.45
4704.00,1.45
4703.00,1.45
4702.00,1.46
4701.00,1.46
4700.00,1.46
4699.00,1.46
4698.00,1.47
4697.00,1.47
4696.00,1.47
4695.00,1.47
4694.00,1.48
4693.00,1.48
4692.00,1.48
4691.00,1.48
4690.00,1.48
4689.00,1.49
4688.00,1.49
4687.00,1.49
4686.00,1.49
4685.00,1.50
4684.00,1.50
4683.00,1.50
4682.00,1.50
4681.00,1.50
4680.00,1.50
4679.00,1.50
4678.00,1.51
4677.00,1.51
4676.00,1.51
4675.00,1.51
4674.00,1.51
4673.00,1.51
4672.00,1.51
4671.00,1.52
4670.00,1.52
4669.00,1.52
4668.00,1.52
4667.00,1.52
4666.00,1.53
4665.00,1.53
4664.00,1.53
4663.00,1.53
4662.00,1.53
4661.00,1.54
4660.00,1.54
4659.00,1.54
4658.00,1.54
4657.00,1.54
4656.00,1.55
4655.00,1.55
4654.00,1.55
4653.00,1.55
4652.00,1.55
4651.00,1.55
4650.00,1.56
4649.00,1.56
4648.00,1.56
4647.00,1.56
4646.00,1.56
4645.00,1.56
4644.00,1.56
4643.00,1.57
4642.00,1.57
4641.00,1.57
4640.00,1.57
4639.00,1.57
4638.00,1.57
4637.00,1.57
4636.00,1.58
4635.00,1.58
4634.00,1.58
4633.00,1.58
4632.00,1.58
4631.00,1.58
4630.00,1.58
4629.00,1.58
4628.00,1.59
4627.00,1.59
4626.00,1.59
4625.00,1.59
4624.00,1.59
4623.00,1.59
4622.00,1.59
4621.00,1.59
4620.00,1.59
4619.00,1.59
4618.00,1.59
4617.00,1.60
4616.00,1.60
4615.00,1.60
4614.00,1.60
4613.00,1.60
4612.00,1.60
4611.00,1.60
4610.00,1.61
4609.00,1.61
4608.00,1.61
4607.00,1.61
4606.00,1.61
4605.00,1.61
4604.00,1.62
4603.00,1.62
4602.00,1.62
4601.00,1.62
4600.00,1.62
4599.00,1.62
4598.00,1.62
4597.00,1.62
4596.00,1.63
4595.00,1.63
4594.00,1.63
4593.00,1.63
4592.00,1.63
4591.00,1.63
4590.00,1.63
4589.00,1.63
4588.00,1.63
4587.00,1.63
4586.00,1.63
4585.00,1.63
4584.00,1.63
4583.00,1.63
4582.00,1.63
4581.00,1.64
4580.00,1.64
4579.00,1.64
4578.00,1.64
4577.00,1.64
4576.00,1.64
4575.00,1.64
4574.00,1.64
4573.00,1.65
4572.00,1.65
4571.00,1.65
4570.00,1.65
4569.00,1.65
4568.00,1.65
4567.00,1.65
4566.00,1.66
4565.00,1.66
4564.00,1.66
4563.00,1.66
4562.00,1.66
4561.00,1.66
4560.00,1.66
4559.00,1.66
4558.00,1.66
4557.00,1.67
4556.00,1.67
4555.00,1.67
4554.00,1.67
4553.00,1.67
4552.00,1.67
4551.00,1.67
4550.00,1.67
4549.00,1.67
4548.00,1.67
4547.00,1.67
4546.00,1.67
4545.00,1.67
4544.00,1.67
4543.00,1.67
4542.00,1.67
4541.00,1.67
4540.00,1.68
4539.00,1.68
4538.00,1.68
4537.00,1.68
4536.00,1.68
4535.00,1.68
4534.00,1.68
4533.00,1.68
4532.00,1.68
4531.00,1.69
4530.00,1.69
4529.00,1.69
4528.00,1.69
4527.00,1.69
4526.00,1.69
4525.00,1.69
4524.00,1.69
4523.00,1.69
4522.00,1.69
4521.00,1.69
4520.00,1.69
4519.00,1.69
4518.00,1.69
4517.00,1.69
4516.00,1.69
4515.00,1.69
4514.00,1.69
4513.00,1.69
4512.00,1.69
4511.00,1.69
4510.00,1.69
4509.00,1.70
4508.00,1.70
4507.00,1.70
4506.00,1.70
4505.00,1.70
4504.00,1.70
4503.00,1.70
4502.00,1.70
4501.00,1.70
4500.00,1.70
4499.00,1.70
4498.00,1.70
4497.00,1.70
4496.00,1.70
4495.00,1.70
4494.00,1.69
4493.00,1.69
4492.00,1.69
4491.00,1.69
4490.00,1.69
4489.00,1.69
4488.00,1.69
4487.00,1.68
4486.00,1.68
4485.00,1.68
4484.00,1.68
4483.00,1.68
4482.00,1.68
4481.00,1.67
4480.00,1.67
4479.00,1.67
4478.00,1.67
4477.00,1.67
4476.00,1.67
4475.00,1.66
4474.00,1.66
4473.00,1.66
4472.00,1.66
4471.00,1.66
4470.00,1.66
4469.00,1.65
4468.00,1.65
4467.00,1.65
4466.00,1.65
4465.00,1.64
4464.00,1.64
4463.00,1.64
4462.00,1.63
4461.00,1.63
4460.00,1.63
4459.00,1.62
4458.00,1.62
4457.00,1.62
4456.00,1.61
4455.00,1.61
4454.00,1.61
4453.00,1.60
4452.00,1.60
4451.00,1.59
4450.00,1.59
4449.00,1.58
4448.00,1.58
4447.00,1.57
4446.00,1.57
4445.00,1.56
4444.00,1.55
4443.00,1.55
4442.00,1.54
4441.00,1.54
4440.00,1.53
4439.00,1.52
4438.00,1.52
4437.00,1.51
4436.00,1.50
4435.00,1.50
4434.00,1.49
4433.00,1.48
4432.00,1.48
4431.00,1.47
4430.00,1.47
4429.00,1.46
4428.00,1.46
4427.00,1.45
4426.00,1.45
4425.00,1.45
4424.00,1.44
4423.00,1.44
4422.00,1.44
4421.00,1.44
4420.00,1.43
4419.00,1.43
4418.00,1.43
4417.00,1.43
4416.00,1.43
4415.00,1.43
4414.00,1.43
4413.00,1.43
4412.00,1.43
4411.00,1.43
4410.00,1.43
4409.00,1.43
4408.00,1.43
4407.00,1.43
4406.00,1.43
4405.00,1.43
4404.00,1.43
4403.00,1.43
4402.00,1.44
4401.00,1.44
4400.00,1.44
4399.00,1.44
4398.00,1.45
4397.00,1.45
4396.00,1.45
4395.00,1.45
4394.00,1.46
4393.00,1.46
4392.00,1.46
4391.00,1.46
4390.00,1.47
4389.00,1.47
4388.00,1.47
4387.00,1.47
4386.00,1.48
4385.00,1.48
4384.00,1.48
4383.00,1.48
4382.00,1.48
4381.00,1.49
4380.00,1.49
4379.00,1.49
4378.00,1.49
4377.00,1.49
4376.00,1.49
4375.00,1.49
4374.00,1.50
4373.00,1.50
4372.00,1.50
4371.00,1.50
4370.00,1.50
4369.00,1.50
4368.00,1.49
4367.00,1.49
4366.00,1.49
4365.00,1.49
4364.00,1.49
4363.00,1.49
4362.00,1.49
4361.00,1.48
4360.00,1.48
4359.00,1.48
4358.00,1.48
4357.00,1.48
4356.00,1.48
4355.00,1.47
4354.00,1.47
4353.00,1.47
4352.00,1.47
4351.00,1.47
4350.00,1.47
4349.00,1.47
4348.00,1.47
4347.00,1.47
4346.00,1.47
4345.00,1.47
4344.00,1.47
4343.00,1.47
4342.00,1.47
4341.00,1.47
4340.00,1.47
4339.00,1.47
4338.00,1.47
4337.00,1.47
4336.00,1.47
4335.00,1.48
4334.00,1.48
4333.00,1.48
4332.00,1.48
4331.00,1.48
4330.00,1.49
4329.00,1.49
4328.00,1.49
4327.00,1.49
4326.00,1.50
4325.00,1.50
4324.00,1.50
4323.00,1.50
4322.00,1.51
4321.00,1.51
4320.00,1.51
4319.00,1.52
4318.00,1.52
4317.00,1.52
4316.00,1.53
4315.00,1.53
4314.00,1.53
4313.00,1.54
4312.00,1.54
4311.00,1.54
4310.00,1.55
4309.00,1.55
4308.00,1.55
4307.00,1.55
4306.00,1.56
4305.00,1.56
4304.00,1.56
4303.00,1.56
4302.00,1.56
4301.00,1.56
4300.00,1.57
4299.00,1.57
4298.00,1.57
4297.00,1.57
4296.00,1.57
4295.00,1.57
4294.00,1.57
4293.00,1.57
4292.00,1.57
4291.00,1.57
4290.00,1.57
4289.00,1.57
4288.00,1.58
4287.00,1.58
4286.00,1.58
4285.00,1.58
4284.00,1.58
4283.00,1.58
4282.00,1.58
4281.00,1.58
4280.00,1.58
4279.00,1.58
4278.00,1.57
4277.00,1.57
4276.00,1.57
4275.00,1.57
4274.00,1.57
4273.00,1.57
4272.00,1.57
4271.00,1.57
4270.00,1.57
4269.00,1.57
4268.00,1.56
4267.00,1.56
4266.00,1.56
4265.00,1.56
4264.00,1.56
4263.00,1.56
4262.00,1.56
4261.00,1.56
4260.00,1.56
4259.00,1.56
4258.00,1.56
4257.00,1.56
4256.00,1.56
4255.00,1.56
4254.00,1.56
4253.00,1.56
4252.00,1.56
4251.00,1.56
4250.00,1.56
4249.00,1.56
4248.00,1.56
4247.00,1.56
4246.00,1.57
4245.00,1.57
4244.00,1.57
4243.00,1.57
4242.00,1.57
4241.00,1.58
4240.00,1.58
4239.00,1.58
4238.00,1.58
4237.00,1.59
4236.00,1.59
4235.00,1.59
4234.00,1.59
4233.00,1.59
4232.00,1.60
4231.00,1.60
4230.00,1.60
4229.00,1.60
4228.00,1.60
4227.00,1.60
4226.00,1.60
4225.00,1.60
4224.00,1.61
4223.00,1.61
4222.00,1.61
4221.00,1.61
4220.00,1.61
4219.00,1.61
4218.00,1.61
4217.00,1.61
4216.00,1.61
4215.00,1.61
4214.00,1.61
4213.00,1.61
4212.00,1.61
4211.00,1.62
4210.00,1.62
4209.00,1.62
4208.00,1.62
4207.00,1.62
4206.00,1.62
4205.00,1.62
4204.00,1.62
4203.00,1.62
4202.00,1.62
4201.00,1.62
4200.00,1.62
4199.00,1.62
4198.00,1.62
4197.00,1.62
4196.00,1.62
4195.00,1.62
4194.00,1.62
4193.00,1.62
4192.00,1.62
4191.00,1.62
4190.00,1.62
4189.00,1.62
4188.00,1.62
4187.00,1.62
4186.00,1.62
4185.00,1.62
4184.00,1.62
4183.00,1.62
4182.00,1.62
4181.00,1.62
4180.00,1.62
4179.00,1.62
4178.00,1.62
4177.00,1.62
4176.00,1.62
4175.00,1.62
4174.00,1.62
4173.00,1.62
4172.00,1.62
4171.00,1.62
4170.00,1.62
4169.00,1.62
4168.00,1.62
4167.00,1.62
4166.00,1.62
4165.00,1.62
4164.00,1.62
4163.00,1.62
4162.00,1.62
4161.00,1.62
4160.00,1.62
4159.00,1.62
4158.00,1.62
4157.00,1.62
4156.00,1.62
4155.00,1.62
4154.00,1.62
4153.00,1.62
4152.00,1.62
4151.00,1.62
4150.00,1.62
4149.00,1.62
4148.00,1.62
4147.00,1.62
4146.00,1.62
4145.00,1.62
4144.00,1.62
4143.00,1.62
4142.00,1.62
4141.00,1.62
4140.00,1.62
4139.00,1.62
4138.00,1.62
4137.00,1.62
4136.00,1.62
4135.00,1.62
4134.00,1.62
4133.00,1.62
4132.00,1.62
4131.00,1.62
4130.00,1.62
4129.00,1.62
4128.00,1.62
4127.00,1.62
4126.00,1.62
4125.00,1.62
4124.00,1.62
4123.00,1.62
4122.00,1.62
4121.00,1.62
4120.00,1.62
4119.00,1.62
4118.00,1.62
4117.00,1.62
4116.00,1.62
4115.00,1.62
4114.00,1.63
4113.00,1.63
4112.00,1.63
4111.00,1.63
4110.00,1.63
4109.00,1.63
4108.00,1.63
4107.00,1.63
4106.00,1.63
4105.00,1.63
4104.00,1.63
4103.00,1.63
4102.00,1.63
4101.00,1.63
4100.00,1.63
4099.00,1.63
4098.00,1.63
4097.00,1.63
4096.00,1.63
4095.00,1.63
4094.00,1.63
4093.00,1.63
4092.00,1.63
4091.00,1.63
4090.00,1.63
4089.00,1.63
4088.00,1.63
4087.00,1.63
4086.00,1.63
4085.00,1.63
4084.00,1.63
4083.00,1.63
4082.00,1.63
4081.00,1.64
4080.00,1.64
4079.00,1.64
4078.00,1.64
4077.00,1.64
4076.00,1.64
4075.00,1.64
4074.00,1.64
4073.00,1.64
4072.00,1.64
4071.00,1.64
4070.00,1.64
4069.00,1.64
4068.00,1.64
4067.00,1.64
4066.00,1.64
4065.00,1.64
4064.00,1.64
4063.00,1.64
4062.00,1.64
4061.00,1.64
4060.00,1.64
4059.00,1.64
4058.00,1.64
4057.00,1.64
4056.00,1.64
4055.00,1.65
4054.00,1.65
4053.00,1.65
4052.00,1.65
4051.00,1.65
4050.00,1.65
4049.00,1.65
4048.00,1.65
4047.00,1.65
4046.00,1.65
4045.00,1.65
4044.00,1.66
4043.00,1.66
4042.00,1.66
4041.00,1.66
4040.00,1.66
4039.00,1.67
4038.00,1.67
4037.00,1.67
4036.00,1.67
4035.00,1.68
4034.00,1.68
4033.00,1.68
4032.00,1.68
4031.00,1.69
4030.00,1.69
4029.00,1.69
4028.00,1.69
4027.00,1.69
4026.00,1.69
4025.00,1.69
4024.00,1.69
4023.00,1.69
4022.00,1.69
4021.00,1.69
4020.00,1.69
4019.00,1.69
4018.00,1.69
4017.00,1.70
4016.00,1.70
4015.00,1.70
4014.00,1.70
4013.00,1.70
4012.00,1.70
4011.00,1.70
4010.00,1.70
4009.00,1.70
4008.00,1.70
4007.00,1.71
4006.00,1.71
4005.00,1.71
4004.00,1.71
4003.00,1.71
4002.00,1.71
4001.00,1.71
4000.00,1.71
