创建为新数据集,样品 653 用户 Administrator 日期 星期四, 七月 19 2018
cm-1,%T
10000.00,1.36
9999.00,1.35
9998.00,1.35
9997.00,1.35
9996.00,1.34
9995.00,1.34
9994.00,1.34
9993.00,1.34
9992.00,1.33
9991.00,1.33
9990.00,1.33
9989.00,1.33
9988.00,1.33
9987.00,1.33
9986.00,1.33
9985.00,1.34
9984.00,1.34
9983.00,1.34
9982.00,1.34
9981.00,1.34
9980.00,1.35
9979.00,1.35
9978.00,1.35
9977.00,1.35
9976.00,1.35
9975.00,1.35
9974.00,1.35
9973.00,1.35
9972.00,1.35
9971.00,1.35
9970.00,1.35
9969.00,1.34
9968.00,1.34
9967.00,1.34
9966.00,1.34
9965.00,1.33
9964.00,1.33
9963.00,1.33
9962.00,1.33
9961.00,1.33
9960.00,1.32
9959.00,1.32
9958.00,1.32
9957.00,1.32
9956.00,1.32
9955.00,1.32
9954.00,1.32
9953.00,1.32
9952.00,1.32
9951.00,1.31
9950.00,1.31
9949.00,1.31
9948.00,1.31
9947.00,1.31
9946.00,1.31
9945.00,1.31
9944.00,1.31
9943.00,1.31
9942.00,1.31
9941.00,1.31
9940.00,1.31
9939.00,1.31
9938.00,1.31
9937.00,1.31
9936.00,1.31
9935.00,1.31
9934.00,1.31
9933.00,1.31
9932.00,1.31
9931.00,1.31
9930.00,1.31
9929.00,1.31
9928.00,1.31
9927.00,1.31
9926.00,1.31
9925.00,1.31
9924.00,1.32
9923.00,1.32
9922.00,1.32
9921.00,1.32
9920.00,1.32
9919.00,1.32
9918.00,1.32
9917.00,1.32
9916.00,1.32
9915.00,1.32
9914.00,1.32
9913.00,1.33
9912.00,1.33
9911.00,1.33
9910.00,1.33
9909.00,1.33
9908.00,1.33
9907.00,1.33
9906.00,1.33
9905.00,1.33
9904.00,1.33
9903.00,1.33
9902.00,1.33
9901.00,1.33
9900.00,1.33
9899.00,1.33
9898.00,1.33
9897.00,1.33
9896.00,1.33
9895.00,1.33
9894.00,1.33
9893.00,1.33
9892.00,1.33
9891.00,1.33
9890.00,1.33
9889.00,1.33
9888.00,1.33
9887.00,1.33
9886.00,1.33
9885.00,1.33
9884.00,1.33
9883.00,1.33
9882.00,1.33
9881.00,1.32
9880.00,1.32
9879.00,1.32
9878.00,1.32
9877.00,1.32
9876.00,1.32
9875.00,1.32
9874.00,1.32
9873.00,1.32
9872.00,1.32
9871.00,1.32
9870.00,1.32
9869.00,1.31
9868.00,1.31
9867.00,1.31
9866.00,1.31
9865.00,1.31
9864.00,1.31
9863.00,1.31
9862.00,1.31
9861.00,1.32
9860.00,1.32
9859.00,1.32
9858.00,1.32
9857.00,1.32
9856.00,1.33
9855.00,1.33
9854.00,1.33
9853.00,1.33
9852.00,1.34
9851.00,1.34
9850.00,1.34
9849.00,1.34
9848.00,1.34
9847.00,1.35
9846.00,1.35
9845.00,1.35
9844.00,1.35
9843.00,1.35
9842.00,1.35
9841.00,1.35
9840.00,1.35
9839.00,1.35
9838.00,1.34
9837.00,1.34
9836.00,1.34
9835.00,1.34
9834.00,1.34
9833.00,1.34
9832.00,1.34
9831.00,1.33
9830.00,1.33
9829.00,1.33
9828.00,1.33
9827.00,1.33
9826.00,1.33
9825.00,1.33
9824.00,1.32
9823.00,1.32
9822.00,1.32
9821.00,1.32
9820.00,1.32
9819.00,1.32
9818.00,1.32
9817.00,1.32
9816.00,1.32
9815.00,1.32
9814.00,1.32
9813.00,1.32
9812.00,1.33
9811.00,1.33
9810.00,1.33
9809.00,1.33
9808.00,1.33
9807.00,1.33
9806.00,1.33
9805.00,1.33
9804.00,1.33
9803.00,1.33
9802.00,1.33
9801.00,1.33
9800.00,1.33
9799.00,1.33
9798.00,1.33
9797.00,1.33
9796.00,1.32
9795.00,1.32
9794.00,1.32
9793.00,1.32
9792.00,1.32
9791.00,1.32
9790.00,1.32
9789.00,1.32
9788.00,1.32
9787.00,1.32
9786.00,1.32
9785.00,1.32
9784.00,1.32
9783.00,1.32
9782.00,1.32
9781.00,1.32
9780.00,1.32
9779.00,1.32
9778.00,1.32
9777.00,1.32
9776.00,1.32
9775.00,1.33
9774.00,1.33
9773.00,1.33
9772.00,1.33
9771.00,1.33
9770.00,1.33
9769.00,1.33
9768.00,1.33
9767.00,1.33
9766.00,1.33
9765.00,1.33
9764.00,1.33
9763.00,1.33
9762.00,1.33
9761.00,1.33
9760.00,1.32
9759.00,1.32
9758.00,1.32
9757.00,1.32
9756.00,1.32
9755.00,1.33
9754.00,1.33
9753.00,1.33
9752.00,1.33
9751.00,1.33
9750.00,1.33
9749.00,1.33
9748.00,1.33
9747.00,1.33
9746.00,1.33
9745.00,1.33
9744.00,1.33
9743.00,1.33
9742.00,1.33
9741.00,1.33
9740.00,1.33
9739.00,1.33
9738.00,1.33
9737.00,1.33
9736.00,1.33
9735.00,1.33
9734.00,1.33
9733.00,1.33
9732.00,1.33
9731.00,1.33
9730.00,1.33
9729.00,1.33
9728.00,1.33
9727.00,1.33
9726.00,1.32
9725.00,1.32
9724.00,1.32
9723.00,1.32
9722.00,1.32
9721.00,1.32
9720.00,1.32
9719.00,1.32
9718.00,1.32
9717.00,1.32
9716.00,1.32
9715.00,1.31
9714.00,1.31
9713.00,1.31
9712.00,1.32
9711.00,1.32
9710.00,1.32
9709.00,1.32
9708.00,1.32
9707.00,1.32
9706.00,1.32
9705.00,1.32
9704.00,1.32
9703.00,1.32
9702.00,1.32
9701.00,1.32
9700.00,1.32
9699.00,1.32
9698.00,1.32
9697.00,1.32
9696.00,1.32
9695.00,1.32
9694.00,1.32
9693.00,1.32
9692.00,1.32
9691.00,1.32
9690.00,1.32
9689.00,1.32
9688.00,1.32
9687.00,1.32
9686.00,1.32
9685.00,1.32
9684.00,1.32
9683.00,1.32
9682.00,1.32
9681.00,1.32
9680.00,1.32
9679.00,1.32
9678.00,1.32
9677.00,1.32
9676.00,1.32
9675.00,1.32
9674.00,1.32
9673.00,1.32
9672.00,1.31
9671.00,1.31
9670.00,1.31
9669.00,1.31
9668.00,1.31
9667.00,1.31
9666.00,1.31
9665.00,1.31
9664.00,1.31
9663.00,1.31
9662.00,1.31
9661.00,1.31
9660.00,1.31
9659.00,1.31
9658.00,1.31
9657.00,1.31
9656.00,1.32
9655.00,1.32
9654.00,1.32
9653.00,1.32
9652.00,1.32
9651.00,1.32
9650.00,1.32
9649.00,1.32
9648.00,1.32
9647.00,1.32
9646.00,1.32
9645.00,1.32
9644.00,1.32
9643.00,1.32
9642.00,1.32
9641.00,1.32
9640.00,1.32
9639.00,1.32
9638.00,1.32
9637.00,1.31
9636.00,1.31
9635.00,1.31
9634.00,1.31
9633.00,1.31
9632.00,1.31
9631.00,1.31
9630.00,1.31
9629.00,1.31
9628.00,1.31
9627.00,1.31
9626.00,1.31
9625.00,1.31
9624.00,1.31
9623.00,1.31
9622.00,1.31
9621.00,1.31
9620.00,1.31
9619.00,1.31
9618.00,1.31
9617.00,1.31
9616.00,1.32
9615.00,1.32
9614.00,1.32
9613.00,1.32
9612.00,1.32
9611.00,1.32
9610.00,1.32
9609.00,1.32
9608.00,1.32
9607.00,1.33
9606.00,1.33
9605.00,1.33
9604.00,1.33
9603.00,1.33
9602.00,1.33
9601.00,1.33
9600.00,1.33
9599.00,1.33
9598.00,1.33
9597.00,1.33
9596.00,1.33
9595.00,1.33
9594.00,1.33
9593.00,1.33
9592.00,1.33
9591.00,1.33
9590.00,1.33
9589.00,1.33
9588.00,1.33
9587.00,1.33
9586.00,1.33
9585.00,1.33
9584.00,1.33
9583.00,1.33
9582.00,1.33
9581.00,1.33
9580.00,1.33
9579.00,1.32
9578.00,1.32
9577.00,1.32
9576.00,1.32
9575.00,1.32
9574.00,1.31
9573.00,1.31
9572.00,1.31
9571.00,1.31
9570.00,1.31
9569.00,1.30
9568.00,1.30
9567.00,1.30
9566.00,1.30
9565.00,1.30
9564.00,1.29
9563.00,1.29
9562.00,1.29
9561.00,1.29
9560.00,1.29
9559.00,1.29
9558.00,1.29
9557.00,1.29
9556.00,1.29
9555.00,1.29
9554.00,1.29
9553.00,1.29
9552.00,1.29
9551.00,1.29
9550.00,1.29
9549.00,1.30
9548.00,1.30
9547.00,1.30
9546.00,1.30
9545.00,1.30
9544.00,1.31
9543.00,1.31
9542.00,1.31
9541.00,1.31
9540.00,1.31
9539.00,1.32
9538.00,1.32
9537.00,1.32
9536.00,1.32
9535.00,1.32
9534.00,1.32
9533.00,1.32
9532.00,1.32
9531.00,1.31
9530.00,1.31
9529.00,1.31
9528.00,1.31
9527.00,1.31
9526.00,1.31
9525.00,1.31
9524.00,1.31
9523.00,1.31
9522.00,1.30
9521.00,1.30
9520.00,1.30
9519.00,1.30
9518.00,1.31
9517.00,1.31
9516.00,1.31
9515.00,1.31
9514.00,1.31
9513.00,1.31
9512.00,1.31
9511.00,1.31
9510.00,1.31
9509.00,1.31
9508.00,1.31
9507.00,1.31
9506.00,1.32
9505.00,1.32
9504.00,1.32
9503.00,1.32
9502.00,1.32
9501.00,1.32
9500.00,1.32
9499.00,1.32
9498.00,1.32
9497.00,1.33
9496.00,1.33
9495.00,1.33
9494.00,1.33
9493.00,1.34
9492.00,1.34
9491.00,1.34
9490.00,1.34
9489.00,1.34
9488.00,1.35
9487.00,1.35
9486.00,1.35
9485.00,1.35
9484.00,1.35
9483.00,1.35
9482.00,1.35
9481.00,1.35
9480.00,1.35
9479.00,1.35
9478.00,1.35
9477.00,1.34
9476.00,1.34
9475.00,1.34
9474.00,1.34
9473.00,1.33
9472.00,1.33
9471.00,1.33
9470.00,1.33
9469.00,1.33
9468.00,1.32
9467.00,1.32
9466.00,1.32
9465.00,1.32
9464.00,1.32
9463.00,1.32
9462.00,1.32
9461.00,1.32
9460.00,1.32
9459.00,1.32
9458.00,1.32
9457.00,1.32
9456.00,1.32
9455.00,1.32
9454.00,1.32
9453.00,1.32
9452.00,1.32
9451.00,1.33
9450.00,1.33
9449.00,1.33
9448.00,1.33
9447.00,1.33
9446.00,1.33
9445.00,1.33
9444.00,1.33
9443.00,1.33
9442.00,1.33
9441.00,1.33
9440.00,1.34
9439.00,1.34
9438.00,1.34
9437.00,1.34
9436.00,1.34
9435.00,1.34
9434.00,1.34
9433.00,1.34
9432.00,1.33
9431.00,1.33
9430.00,1.33
9429.00,1.33
9428.00,1.33
9427.00,1.33
9426.00,1.33
9425.00,1.33
9424.00,1.33
9423.00,1.33
9422.00,1.33
9421.00,1.32
9420.00,1.32
9419.00,1.32
9418.00,1.32
9417.00,1.32
9416.00,1.31
9415.00,1.31
9414.00,1.31
9413.00,1.31
9412.00,1.31
9411.00,1.31
9410.00,1.30
9409.00,1.30
9408.00,1.30
9407.00,1.30
9406.00,1.30
9405.00,1.30
9404.00,1.30
9403.00,1.30
9402.00,1.30
9401.00,1.30
9400.00,1.30
9399.00,1.30
9398.00,1.30
9397.00,1.30
9396.00,1.30
9395.00,1.30
9394.00,1.30
9393.00,1.30
9392.00,1.30
9391.00,1.30
9390.00,1.30
9389.00,1.30
9388.00,1.30
9387.00,1.31
9386.00,1.31
9385.00,1.31
9384.00,1.31
9383.00,1.31
9382.00,1.31
9381.00,1.32
9380.00,1.32
9379.00,1.32
9378.00,1.32
9377.00,1.33
9376.00,1.33
9375.00,1.33
9374.00,1.33
9373.00,1.33
9372.00,1.33
9371.00,1.34
9370.00,1.34
9369.00,1.34
9368.00,1.34
9367.00,1.34
9366.00,1.34
9365.00,1.34
9364.00,1.34
9363.00,1.33
9362.00,1.33
9361.00,1.33
9360.00,1.33
9359.00,1.33
9358.00,1.33
9357.00,1.33
9356.00,1.33
9355.00,1.33
9354.00,1.33
9353.00,1.33
9352.00,1.33
9351.00,1.33
9350.00,1.33
9349.00,1.33
9348.00,1.33
9347.00,1.33
9346.00,1.33
9345.00,1.33
9344.00,1.33
9343.00,1.33
9342.00,1.33
9341.00,1.33
9340.00,1.33
9339.00,1.33
9338.00,1.33
9337.00,1.33
9336.00,1.33
9335.00,1.33
9334.00,1.33
9333.00,1.33
9332.00,1.33
9331.00,1.33
9330.00,1.32
9329.00,1.32
9328.00,1.32
9327.00,1.32
9326.00,1.32
9325.00,1.32
9324.00,1.32
9323.00,1.32
9322.00,1.32
9321.00,1.32
9320.00,1.32
9319.00,1.32
9318.00,1.32
9317.00,1.32
9316.00,1.32
9315.00,1.32
9314.00,1.32
9313.00,1.33
9312.00,1.33
9311.00,1.33
9310.00,1.33
9309.00,1.33
9308.00,1.33
9307.00,1.33
9306.00,1.34
9305.00,1.34
9304.00,1.34
9303.00,1.34
9302.00,1.34
9301.00,1.34
9300.00,1.34
9299.00,1.34
9298.00,1.34
9297.00,1.34
9296.00,1.34
9295.00,1.34
9294.00,1.34
9293.00,1.34
9292.00,1.34
9291.00,1.34
9290.00,1.34
9289.00,1.34
9288.00,1.34
9287.00,1.33
9286.00,1.33
9285.00,1.33
9284.00,1.33
9283.00,1.33
9282.00,1.33
9281.00,1.33
9280.00,1.33
9279.00,1.33
9278.00,1.33
9277.00,1.33
9276.00,1.33
9275.00,1.33
9274.00,1.33
9273.00,1.33
9272.00,1.33
9271.00,1.32
9270.00,1.32
9269.00,1.32
9268.00,1.32
9267.00,1.32
9266.00,1.32
9265.00,1.32
9264.00,1.32
9263.00,1.32
9262.00,1.32
9261.00,1.32
9260.00,1.32
9259.00,1.31
9258.00,1.31
9257.00,1.31
9256.00,1.31
9255.00,1.31
9254.00,1.31
9253.00,1.31
9252.00,1.31
9251.00,1.31
9250.00,1.31
9249.00,1.31
9248.00,1.31
9247.00,1.31
9246.00,1.31
9245.00,1.31
9244.00,1.31
9243.00,1.32
9242.00,1.32
9241.00,1.32
9240.00,1.32
9239.00,1.32
9238.00,1.33
9237.00,1.33
9236.00,1.33
9235.00,1.33
9234.00,1.33
9233.00,1.33
9232.00,1.33
9231.00,1.33
9230.00,1.33
9229.00,1.33
9228.00,1.33
9227.00,1.33
9226.00,1.33
9225.00,1.33
9224.00,1.33
9223.00,1.33
9222.00,1.33
9221.00,1.33
9220.00,1.33
9219.00,1.32
9218.00,1.32
9217.00,1.32
9216.00,1.32
9215.00,1.32
9214.00,1.32
9213.00,1.32
9212.00,1.32
9211.00,1.32
9210.00,1.32
9209.00,1.32
9208.00,1.32
9207.00,1.32
9206.00,1.32
9205.00,1.32
9204.00,1.33
9203.00,1.33
9202.00,1.33
9201.00,1.33
9200.00,1.33
9199.00,1.33
9198.00,1.33
9197.00,1.33
9196.00,1.33
9195.00,1.33
9194.00,1.33
9193.00,1.33
9192.00,1.33
9191.00,1.33
9190.00,1.33
9189.00,1.33
9188.00,1.33
9187.00,1.33
9186.00,1.33
9185.00,1.34
9184.00,1.34
9183.00,1.34
9182.00,1.34
9181.00,1.34
9180.00,1.34
9179.00,1.34
9178.00,1.34
9177.00,1.35
9176.00,1.35
9175.00,1.35
9174.00,1.35
9173.00,1.35
9172.00,1.35
9171.00,1.35
9170.00,1.35
9169.00,1.35
9168.00,1.35
9167.00,1.35
9166.00,1.35
9165.00,1.35
9164.00,1.35
9163.00,1.34
9162.00,1.34
9161.00,1.34
9160.00,1.34
9159.00,1.34
9158.00,1.33
9157.00,1.33
9156.00,1.33
9155.00,1.33
9154.00,1.33
9153.00,1.33
9152.00,1.33
9151.00,1.33
9150.00,1.33
9149.00,1.33
9148.00,1.33
9147.00,1.33
9146.00,1.33
9145.00,1.33
9144.00,1.33
9143.00,1.34
9142.00,1.34
9141.00,1.34
9140.00,1.34
9139.00,1.34
9138.00,1.34
9137.00,1.34
9136.00,1.34
9135.00,1.34
9134.00,1.34
9133.00,1.34
9132.00,1.33
9131.00,1.33
9130.00,1.33
9129.00,1.33
9128.00,1.33
9127.00,1.33
9126.00,1.33
9125.00,1.33
9124.00,1.33
9123.00,1.33
9122.00,1.33
9121.00,1.32
9120.00,1.32
9119.00,1.32
9118.00,1.32
9117.00,1.32
9116.00,1.32
9115.00,1.32
9114.00,1.32
9113.00,1.32
9112.00,1.32
9111.00,1.32
9110.00,1.32
9109.00,1.32
9108.00,1.32
9107.00,1.32
9106.00,1.32
9105.00,1.32
9104.00,1.32
9103.00,1.32
9102.00,1.32
9101.00,1.32
9100.00,1.32
9099.00,1.32
9098.00,1.32
9097.00,1.32
9096.00,1.32
9095.00,1.32
9094.00,1.32
9093.00,1.32
9092.00,1.32
9091.00,1.32
9090.00,1.32
9089.00,1.32
9088.00,1.32
9087.00,1.32
9086.00,1.32
9085.00,1.32
9084.00,1.32
9083.00,1.32
9082.00,1.32
9081.00,1.32
9080.00,1.32
9079.00,1.32
9078.00,1.32
9077.00,1.33
9076.00,1.33
9075.00,1.33
9074.00,1.33
9073.00,1.33
9072.00,1.33
9071.00,1.33
9070.00,1.33
9069.00,1.34
9068.00,1.34
9067.00,1.34
9066.00,1.34
9065.00,1.34
9064.00,1.34
9063.00,1.34
9062.00,1.34
9061.00,1.34
9060.00,1.34
9059.00,1.34
9058.00,1.34
9057.00,1.34
9056.00,1.34
9055.00,1.34
9054.00,1.34
9053.00,1.33
9052.00,1.33
9051.00,1.33
9050.00,1.33
9049.00,1.33
9048.00,1.33
9047.00,1.33
9046.00,1.32
9045.00,1.32
9044.00,1.32
9043.00,1.32
9042.00,1.32
9041.00,1.32
9040.00,1.32
9039.00,1.32
9038.00,1.32
9037.00,1.32
9036.00,1.32
9035.00,1.32
9034.00,1.32
9033.00,1.32
9032.00,1.33
9031.00,1.33
9030.00,1.33
9029.00,1.33
9028.00,1.33
9027.00,1.33
9026.00,1.33
9025.00,1.33
9024.00,1.33
9023.00,1.33
9022.00,1.33
9021.00,1.33
9020.00,1.33
9019.00,1.33
9018.00,1.34
9017.00,1.33
9016.00,1.33
9015.00,1.33
9014.00,1.33
9013.00,1.33
9012.00,1.33
9011.00,1.33
9010.00,1.33
9009.00,1.33
9008.00,1.32
9007.00,1.32
9006.00,1.32
9005.00,1.32
9004.00,1.32
9003.00,1.32
9002.00,1.32
9001.00,1.32
9000.00,1.32
8999.00,1.32
8998.00,1.32
8997.00,1.32
8996.00,1.32
8995.00,1.32
8994.00,1.32
8993.00,1.32
8992.00,1.32
8991.00,1.32
8990.00,1.32
8989.00,1.32
8988.00,1.32
8987.00,1.32
8986.00,1.32
8985.00,1.33
8984.00,1.33
8983.00,1.33
8982.00,1.33
8981.00,1.33
8980.00,1.33
8979.00,1.33
8978.00,1.33
8977.00,1.33
8976.00,1.33
8975.00,1.33
8974.00,1.33
8973.00,1.33
8972.00,1.33
8971.00,1.33
8970.00,1.33
8969.00,1.33
8968.00,1.33
8967.00,1.33
8966.00,1.32
8965.00,1.32
8964.00,1.32
8963.00,1.32
8962.00,1.32
8961.00,1.32
8960.00,1.32
8959.00,1.32
8958.00,1.31
8957.00,1.31
8956.00,1.31
8955.00,1.32
8954.00,1.32
8953.00,1.32
8952.00,1.32
8951.00,1.32
8950.00,1.32
8949.00,1.32
8948.00,1.32
8947.00,1.33
8946.00,1.33
8945.00,1.33
8944.00,1.33
8943.00,1.33
8942.00,1.33
8941.00,1.33
8940.00,1.33
8939.00,1.33
8938.00,1.33
8937.00,1.33
8936.00,1.33
8935.00,1.33
8934.00,1.33
8933.00,1.33
8932.00,1.33
8931.00,1.33
8930.00,1.33
8929.00,1.33
8928.00,1.33
8927.00,1.34
8926.00,1.34
8925.00,1.34
8924.00,1.34
8923.00,1.34
8922.00,1.34
8921.00,1.35
8920.00,1.35
8919.00,1.35
8918.00,1.35
8917.00,1.35
8916.00,1.35
8915.00,1.35
8914.00,1.35
8913.00,1.35
8912.00,1.35
8911.00,1.34
8910.00,1.34
8909.00,1.34
8908.00,1.34
8907.00,1.34
8906.00,1.33
8905.00,1.33
8904.00,1.33
8903.00,1.33
8902.00,1.33
8901.00,1.32
8900.00,1.32
8899.00,1.32
8898.00,1.32
8897.00,1.32
8896.00,1.32
8895.00,1.32
8894.00,1.32
8893.00,1.32
8892.00,1.32
8891.00,1.32
8890.00,1.32
8889.00,1.32
8888.00,1.32
8887.00,1.32
8886.00,1.32
8885.00,1.32
8884.00,1.32
8883.00,1.32
8882.00,1.32
8881.00,1.32
8880.00,1.32
8879.00,1.32
8878.00,1.32
8877.00,1.32
8876.00,1.32
8875.00,1.32
8874.00,1.32
8873.00,1.32
8872.00,1.32
8871.00,1.32
8870.00,1.32
8869.00,1.32
8868.00,1.32
8867.00,1.32
8866.00,1.32
8865.00,1.32
8864.00,1.32
8863.00,1.32
8862.00,1.32
8861.00,1.32
8860.00,1.32
8859.00,1.32
8858.00,1.32
8857.00,1.32
8856.00,1.32
8855.00,1.32
8854.00,1.32
8853.00,1.32
8852.00,1.31
8851.00,1.31
8850.00,1.31
8849.00,1.31
8848.00,1.31
8847.00,1.31
8846.00,1.31
8845.00,1.31
8844.00,1.31
8843.00,1.31
8842.00,1.31
8841.00,1.31
8840.00,1.31
8839.00,1.31
8838.00,1.31
8837.00,1.31
8836.00,1.31
8835.00,1.31
8834.00,1.31
8833.00,1.31
8832.00,1.31
8831.00,1.31
8830.00,1.31
8829.00,1.31
8828.00,1.31
8827.00,1.31
8826.00,1.31
8825.00,1.31
8824.00,1.32
8823.00,1.32
8822.00,1.32
8821.00,1.32
8820.00,1.32
8819.00,1.32
8818.00,1.32
8817.00,1.32
8816.00,1.32
8815.00,1.32
8814.00,1.33
8813.00,1.33
8812.00,1.33
8811.00,1.33
8810.00,1.33
8809.00,1.33
8808.00,1.33
8807.00,1.33
8806.00,1.33
8805.00,1.33
8804.00,1.33
8803.00,1.33
8802.00,1.33
8801.00,1.32
8800.00,1.32
8799.00,1.32
8798.00,1.32
8797.00,1.32
8796.00,1.32
8795.00,1.32
8794.00,1.32
8793.00,1.31
8792.00,1.31
8791.00,1.31
8790.00,1.31
8789.00,1.31
8788.00,1.31
8787.00,1.31
8786.00,1.31
8785.00,1.31
8784.00,1.31
8783.00,1.31
8782.00,1.31
8781.00,1.31
8780.00,1.31
8779.00,1.31
8778.00,1.31
8777.00,1.31
8776.00,1.31
8775.00,1.31
8774.00,1.31
8773.00,1.31
8772.00,1.31
8771.00,1.31
8770.00,1.31
8769.00,1.31
8768.00,1.31
8767.00,1.31
8766.00,1.31
8765.00,1.31
8764.00,1.30
8763.00,1.30
8762.00,1.30
8761.00,1.30
8760.00,1.29
8759.00,1.29
8758.00,1.29
8757.00,1.29
8756.00,1.28
8755.00,1.28
8754.00,1.28
8753.00,1.28
8752.00,1.27
8751.00,1.27
8750.00,1.27
8749.00,1.27
8748.00,1.27
8747.00,1.26
8746.00,1.26
8745.00,1.26
8744.00,1.26
8743.00,1.26
8742.00,1.26
8741.00,1.26
8740.00,1.26
8739.00,1.26
8738.00,1.26
8737.00,1.26
8736.00,1.27
8735.00,1.27
8734.00,1.27
8733.00,1.27
8732.00,1.27
8731.00,1.27
8730.00,1.27
8729.00,1.27
8728.00,1.27
8727.00,1.27
8726.00,1.27
8725.00,1.27
8724.00,1.27
8723.00,1.27
8722.00,1.27
8721.00,1.27
8720.00,1.27
8719.00,1.27
8718.00,1.27
8717.00,1.27
8716.00,1.27
8715.00,1.27
8714.00,1.27
8713.00,1.27
8712.00,1.27
8711.00,1.27
8710.00,1.27
8709.00,1.27
8708.00,1.27
8707.00,1.27
8706.00,1.27
8705.00,1.27
8704.00,1.28
8703.00,1.28
8702.00,1.28
8701.00,1.28
8700.00,1.28
8699.00,1.28
8698.00,1.28
8697.00,1.28
8696.00,1.28
8695.00,1.28
8694.00,1.28
8693.00,1.28
8692.00,1.28
8691.00,1.28
8690.00,1.28
8689.00,1.28
8688.00,1.28
8687.00,1.28
8686.00,1.28
8685.00,1.28
8684.00,1.28
8683.00,1.29
8682.00,1.29
8681.00,1.29
8680.00,1.29
8679.00,1.29
8678.00,1.29
8677.00,1.29
8676.00,1.29
8675.00,1.30
8674.00,1.30
8673.00,1.30
8672.00,1.30
8671.00,1.30
8670.00,1.30
8669.00,1.30
8668.00,1.30
8667.00,1.29
8666.00,1.29
8665.00,1.29
8664.00,1.29
8663.00,1.29
8662.00,1.28
8661.00,1.28
8660.00,1.28
8659.00,1.28
8658.00,1.28
8657.00,1.27
8656.00,1.27
8655.00,1.27
8654.00,1.27
8653.00,1.27
8652.00,1.27
8651.00,1.27
8650.00,1.27
8649.00,1.27
8648.00,1.27
8647.00,1.27
8646.00,1.27
8645.00,1.27
8644.00,1.27
8643.00,1.27
8642.00,1.27
8641.00,1.27
8640.00,1.27
8639.00,1.27
8638.00,1.27
8637.00,1.27
8636.00,1.27
8635.00,1.27
8634.00,1.27
8633.00,1.27
8632.00,1.27
8631.00,1.26
8630.00,1.26
8629.00,1.26
8628.00,1.26
8627.00,1.26
8626.00,1.26
8625.00,1.26
8624.00,1.26
8623.00,1.26
8622.00,1.26
8621.00,1.26
8620.00,1.26
8619.00,1.26
8618.00,1.26
8617.00,1.26
8616.00,1.26
8615.00,1.26
8614.00,1.26
8613.00,1.26
8612.00,1.26
8611.00,1.26
8610.00,1.26
8609.00,1.26
8608.00,1.26
8607.00,1.26
8606.00,1.26
8605.00,1.26
8604.00,1.26
8603.00,1.26
8602.00,1.25
8601.00,1.25
8600.00,1.25
8599.00,1.25
8598.00,1.25
8597.00,1.25
8596.00,1.25
8595.00,1.25
8594.00,1.25
8593.00,1.25
8592.00,1.25
8591.00,1.25
8590.00,1.25
8589.00,1.25
8588.00,1.25
8587.00,1.25
8586.00,1.25
8585.00,1.25
8584.00,1.25
8583.00,1.25
8582.00,1.25
8581.00,1.25
8580.00,1.25
8579.00,1.25
8578.00,1.25
8577.00,1.25
8576.00,1.25
8575.00,1.25
8574.00,1.25
8573.00,1.25
8572.00,1.25
8571.00,1.25
8570.00,1.25
8569.00,1.25
8568.00,1.25
8567.00,1.25
8566.00,1.25
8565.00,1.25
8564.00,1.25
8563.00,1.25
8562.00,1.24
8561.00,1.24
8560.00,1.24
8559.00,1.24
8558.00,1.24
8557.00,1.24
8556.00,1.24
8555.00,1.24
8554.00,1.24
8553.00,1.24
8552.00,1.24
8551.00,1.23
8550.00,1.23
8549.00,1.23
8548.00,1.23
8547.00,1.23
8546.00,1.23
8545.00,1.23
8544.00,1.23
8543.00,1.23
8542.00,1.23
8541.00,1.23
8540.00,1.23
8539.00,1.23
8538.00,1.23
8537.00,1.23
8536.00,1.23
8535.00,1.23
8534.00,1.23
8533.00,1.23
8532.00,1.23
8531.00,1.23
8530.00,1.23
8529.00,1.23
8528.00,1.23
8527.00,1.23
8526.00,1.23
8525.00,1.23
8524.00,1.23
8523.00,1.23
8522.00,1.23
8521.00,1.23
8520.00,1.23
8519.00,1.23
8518.00,1.23
8517.00,1.23
8516.00,1.23
8515.00,1.23
8514.00,1.23
8513.00,1.23
8512.00,1.23
8511.00,1.23
8510.00,1.22
8509.00,1.22
8508.00,1.22
8507.00,1.22
8506.00,1.22
8505.00,1.22
8504.00,1.22
8503.00,1.22
8502.00,1.22
8501.00,1.22
8500.00,1.22
8499.00,1.22
8498.00,1.21
8497.00,1.21
8496.00,1.21
8495.00,1.21
8494.00,1.21
8493.00,1.21
8492.00,1.21
8491.00,1.21
8490.00,1.21
8489.00,1.21
8488.00,1.21
8487.00,1.21
8486.00,1.20
8485.00,1.20
8484.00,1.20
8483.00,1.20
8482.00,1.20
8481.00,1.20
8480.00,1.20
8479.00,1.20
8478.00,1.20
8477.00,1.20
8476.00,1.20
8475.00,1.20
8474.00,1.19
8473.00,1.19
8472.00,1.19
8471.00,1.19
8470.00,1.19
8469.00,1.19
8468.00,1.19
8467.00,1.19
8466.00,1.19
8465.00,1.19
8464.00,1.19
8463.00,1.18
8462.00,1.18
8461.00,1.18
8460.00,1.18
8459.00,1.18
8458.00,1.18
8457.00,1.18
8456.00,1.18
8455.00,1.18
8454.00,1.18
8453.00,1.18
8452.00,1.18
8451.00,1.18
8450.00,1.18
8449.00,1.18
8448.00,1.18
8447.00,1.18
8446.00,1.18
8445.00,1.18
8444.00,1.18
8443.00,1.18
8442.00,1.18
8441.00,1.18
8440.00,1.18
8439.00,1.18
8438.00,1.18
8437.00,1.18
8436.00,1.18
8435.00,1.18
8434.00,1.18
8433.00,1.18
8432.00,1.18
8431.00,1.18
8430.00,1.18
8429.00,1.18
8428.00,1.18
8427.00,1.18
8426.00,1.18
8425.00,1.18
8424.00,1.18
8423.00,1.18
8422.00,1.18
8421.00,1.18
8420.00,1.18
8419.00,1.18
8418.00,1.18
8417.00,1.18
8416.00,1.18
8415.00,1.18
8414.00,1.18
8413.00,1.18
8412.00,1.18
8411.00,1.18
8410.00,1.18
8409.00,1.18
8408.00,1.18
8407.00,1.18
8406.00,1.18
8405.00,1.19
8404.00,1.19
8403.00,1.19
8402.00,1.19
8401.00,1.19
8400.00,1.19
8399.00,1.19
8398.00,1.19
8397.00,1.19
8396.00,1.19
8395.00,1.19
8394.00,1.19
8393.00,1.19
8392.00,1.19
8391.00,1.19
8390.00,1.19
8389.00,1.19
8388.00,1.19
8387.00,1.19
8386.00,1.19
8385.00,1.19
8384.00,1.19
8383.00,1.19
8382.00,1.19
8381.00,1.20
8380.00,1.20
8379.00,1.20
8378.00,1.20
8377.00,1.20
8376.00,1.20
8375.00,1.21
8374.00,1.21
8373.00,1.21
8372.00,1.21
8371.00,1.21
8370.00,1.21
8369.00,1.22
8368.00,1.22
8367.00,1.22
8366.00,1.22
8365.00,1.22
8364.00,1.22
8363.00,1.22
8362.00,1.23
8361.00,1.23
8360.00,1.23
8359.00,1.23
8358.00,1.23
8357.00,1.23
8356.00,1.23
8355.00,1.23
8354.00,1.23
8353.00,1.23
8352.00,1.23
8351.00,1.23
8350.00,1.23
8349.00,1.23
8348.00,1.23
8347.00,1.23
8346.00,1.24
8345.00,1.24
8344.00,1.24
8343.00,1.24
8342.00,1.24
8341.00,1.24
8340.00,1.24
8339.00,1.24
8338.00,1.24
8337.00,1.24
8336.00,1.24
8335.00,1.24
8334.00,1.24
8333.00,1.24
8332.00,1.24
8331.00,1.24
8330.00,1.24
8329.00,1.24
8328.00,1.24
8327.00,1.24
8326.00,1.24
8325.00,1.23
8324.00,1.23
8323.00,1.23
8322.00,1.23
8321.00,1.23
8320.00,1.23
8319.00,1.23
8318.00,1.23
8317.00,1.23
8316.00,1.23
8315.00,1.23
8314.00,1.23
8313.00,1.23
8312.00,1.23
8311.00,1.23
8310.00,1.23
8309.00,1.23
8308.00,1.23
8307.00,1.24
8306.00,1.24
8305.00,1.24
8304.00,1.24
8303.00,1.24
8302.00,1.24
8301.00,1.25
8300.00,1.25
8299.00,1.25
8298.00,1.25
8297.00,1.25
8296.00,1.25
8295.00,1.25
8294.00,1.25
8293.00,1.25
8292.00,1.25
8291.00,1.25
8290.00,1.25
8289.00,1.25
8288.00,1.24
8287.00,1.24
8286.00,1.24
8285.00,1.24
8284.00,1.24
8283.00,1.24
8282.00,1.24
8281.00,1.24
8280.00,1.23
8279.00,1.23
8278.00,1.23
8277.00,1.23
8276.00,1.23
8275.00,1.23
8274.00,1.23
8273.00,1.23
8272.00,1.23
8271.00,1.23
8270.00,1.24
8269.00,1.24
8268.00,1.24
8267.00,1.24
8266.00,1.24
8265.00,1.24
8264.00,1.24
8263.00,1.24
8262.00,1.24
8261.00,1.24
8260.00,1.25
8259.00,1.25
8258.00,1.25
8257.00,1.25
8256.00,1.25
8255.00,1.25
8254.00,1.25
8253.00,1.25
8252.00,1.25
8251.00,1.25
8250.00,1.25
8249.00,1.25
8248.00,1.25
8247.00,1.25
8246.00,1.25
8245.00,1.25
8244.00,1.25
8243.00,1.25
8242.00,1.25
8241.00,1.24
8240.00,1.24
8239.00,1.24
8238.00,1.24
8237.00,1.24
8236.00,1.24
8235.00,1.24
8234.00,1.24
8233.00,1.24
8232.00,1.25
8231.00,1.25
8230.00,1.25
8229.00,1.25
8228.00,1.25
8227.00,1.25
8226.00,1.25
8225.00,1.25
8224.00,1.25
8223.00,1.26
8222.00,1.26
8221.00,1.26
8220.00,1.26
8219.00,1.26
8218.00,1.26
8217.00,1.26
8216.00,1.26
8215.00,1.26
8214.00,1.26
8213.00,1.26
8212.00,1.26
8211.00,1.26
8210.00,1.26
8209.00,1.26
8208.00,1.26
8207.00,1.26
8206.00,1.26
8205.00,1.26
8204.00,1.26
8203.00,1.26
8202.00,1.26
8201.00,1.26
8200.00,1.26
8199.00,1.26
8198.00,1.26
8197.00,1.26
8196.00,1.26
8195.00,1.26
8194.00,1.26
8193.00,1.26
8192.00,1.26
8191.00,1.26
8190.00,1.26
8189.00,1.26
8188.00,1.26
8187.00,1.26
8186.00,1.26
8185.00,1.26
8184.00,1.26
8183.00,1.26
8182.00,1.26
8181.00,1.26
8180.00,1.26
8179.00,1.26
8178.00,1.26
8177.00,1.26
8176.00,1.26
8175.00,1.26
8174.00,1.26
8173.00,1.26
8172.00,1.26
8171.00,1.26
8170.00,1.26
8169.00,1.26
8168.00,1.26
8167.00,1.26
8166.00,1.26
8165.00,1.27
8164.00,1.27
8163.00,1.27
8162.00,1.27
8161.00,1.27
8160.00,1.27
8159.00,1.27
8158.00,1.27
8157.00,1.27
8156.00,1.27
8155.00,1.28
8154.00,1.28
8153.00,1.28
8152.00,1.28
8151.00,1.28
8150.00,1.28
8149.00,1.28
8148.00,1.28
8147.00,1.28
8146.00,1.28
8145.00,1.28
8144.00,1.28
8143.00,1.28
8142.00,1.28
8141.00,1.28
8140.00,1.28
8139.00,1.28
8138.00,1.28
8137.00,1.28
8136.00,1.28
8135.00,1.28
8134.00,1.28
8133.00,1.28
8132.00,1.28
8131.00,1.28
8130.00,1.28
8129.00,1.28
8128.00,1.28
8127.00,1.28
8126.00,1.28
8125.00,1.28
8124.00,1.28
8123.00,1.28
8122.00,1.28
8121.00,1.28
8120.00,1.28
8119.00,1.28
8118.00,1.28
8117.00,1.28
8116.00,1.28
8115.00,1.28
8114.00,1.28
8113.00,1.28
8112.00,1.29
8111.00,1.29
8110.00,1.29
8109.00,1.29
8108.00,1.29
8107.00,1.29
8106.00,1.29
8105.00,1.29
8104.00,1.29
8103.00,1.29
8102.00,1.29
8101.00,1.29
8100.00,1.29
8099.00,1.29
8098.00,1.29
8097.00,1.29
8096.00,1.29
8095.00,1.29
8094.00,1.29
8093.00,1.29
8092.00,1.29
8091.00,1.29
8090.00,1.29
8089.00,1.29
8088.00,1.29
8087.00,1.29
8086.00,1.29
8085.00,1.29
8084.00,1.29
8083.00,1.29
8082.00,1.30
8081.00,1.30
8080.00,1.30
8079.00,1.30
8078.00,1.30
8077.00,1.30
8076.00,1.30
8075.00,1.30
8074.00,1.30
8073.00,1.30
8072.00,1.30
8071.00,1.30
8070.00,1.30
8069.00,1.30
8068.00,1.30
8067.00,1.30
8066.00,1.30
8065.00,1.30
8064.00,1.30
8063.00,1.30
8062.00,1.30
8061.00,1.31
8060.00,1.31
8059.00,1.31
8058.00,1.31
8057.00,1.31
8056.00,1.31
8055.00,1.31
8054.00,1.31
8053.00,1.31
8052.00,1.31
8051.00,1.31
8050.00,1.31
8049.00,1.30
8048.00,1.30
8047.00,1.31
8046.00,1.31
8045.00,1.31
8044.00,1.31
8043.00,1.31
8042.00,1.31
8041.00,1.31
8040.00,1.31
8039.00,1.31
8038.00,1.31
8037.00,1.31
8036.00,1.31
8035.00,1.31
8034.00,1.31
8033.00,1.31
8032.00,1.31
8031.00,1.31
8030.00,1.31
8029.00,1.31
8028.00,1.31
8027.00,1.31
8026.00,1.31
8025.00,1.31
8024.00,1.31
8023.00,1.31
8022.00,1.31
8021.00,1.31
8020.00,1.31
8019.00,1.31
8018.00,1.31
8017.00,1.31
8016.00,1.31
8015.00,1.31
8014.00,1.31
8013.00,1.31
8012.00,1.31
8011.00,1.31
8010.00,1.31
8009.00,1.31
8008.00,1.31
8007.00,1.31
8006.00,1.32
8005.00,1.32
8004.00,1.32
8003.00,1.32
8002.00,1.32
8001.00,1.32
8000.00,1.32
7999.00,1.32
7998.00,1.32
7997.00,1.32
7996.00,1.32
7995.00,1.32
7994.00,1.31
7993.00,1.31
7992.00,1.31
7991.00,1.31
7990.00,1.31
7989.00,1.31
7988.00,1.31
7987.00,1.31
7986.00,1.31
7985.00,1.31
7984.00,1.31
7983.00,1.31
7982.00,1.32
7981.00,1.32
7980.00,1.32
7979.00,1.32
7978.00,1.32
7977.00,1.32
7976.00,1.32
7975.00,1.32
7974.00,1.32
7973.00,1.32
7972.00,1.32
7971.00,1.32
7970.00,1.32
7969.00,1.32
7968.00,1.32
7967.00,1.32
7966.00,1.32
7965.00,1.32
7964.00,1.32
7963.00,1.32
7962.00,1.32
7961.00,1.32
7960.00,1.32
7959.00,1.32
7958.00,1.32
7957.00,1.32
7956.00,1.32
7955.00,1.32
7954.00,1.32
7953.00,1.32
7952.00,1.32
7951.00,1.32
7950.00,1.32
7949.00,1.32
7948.00,1.32
7947.00,1.32
7946.00,1.32
7945.00,1.32
7944.00,1.32
7943.00,1.32
7942.00,1.32
7941.00,1.32
7940.00,1.32
7939.00,1.32
7938.00,1.32
7937.00,1.32
7936.00,1.32
7935.00,1.32
7934.00,1.32
7933.00,1.32
7932.00,1.32
7931.00,1.32
7930.00,1.32
7929.00,1.32
7928.00,1.32
7927.00,1.32
7926.00,1.32
7925.00,1.32
7924.00,1.32
7923.00,1.32
7922.00,1.32
7921.00,1.32
7920.00,1.32
7919.00,1.32
7918.00,1.33
7917.00,1.33
7916.00,1.33
7915.00,1.33
7914.00,1.33
7913.00,1.33
7912.00,1.33
7911.00,1.33
7910.00,1.33
7909.00,1.33
7908.00,1.34
7907.00,1.34
7906.00,1.34
7905.00,1.33
7904.00,1.33
7903.00,1.33
7902.00,1.33
7901.00,1.33
7900.00,1.33
7899.00,1.33
7898.00,1.33
7897.00,1.33
7896.00,1.33
7895.00,1.33
7894.00,1.33
7893.00,1.33
7892.00,1.32
7891.00,1.32
7890.00,1.32
7889.00,1.32
7888.00,1.32
7887.00,1.32
7886.00,1.32
7885.00,1.32
7884.00,1.33
7883.00,1.33
7882.00,1.33
7881.00,1.33
7880.00,1.33
7879.00,1.33
7878.00,1.33
7877.00,1.33
7876.00,1.33
7875.00,1.33
7874.00,1.33
7873.00,1.34
7872.00,1.34
7871.00,1.34
7870.00,1.34
7869.00,1.34
7868.00,1.34
7867.00,1.34
7866.00,1.34
7865.00,1.34
7864.00,1.34
7863.00,1.34
7862.00,1.34
7861.00,1.34
7860.00,1.34
7859.00,1.34
7858.00,1.34
7857.00,1.34
7856.00,1.34
7855.00,1.34
7854.00,1.34
7853.00,1.34
7852.00,1.35
7851.00,1.35
7850.00,1.35
7849.00,1.35
7848.00,1.35
7847.00,1.35
7846.00,1.35
7845.00,1.35
7844.00,1.35
7843.00,1.35
7842.00,1.35
7841.00,1.35
7840.00,1.35
7839.00,1.35
7838.00,1.35
7837.00,1.34
7836.00,1.34
7835.00,1.34
7834.00,1.34
7833.00,1.34
7832.00,1.34
7831.00,1.34
7830.00,1.34
7829.00,1.34
7828.00,1.34
7827.00,1.34
7826.00,1.34
7825.00,1.34
7824.00,1.34
7823.00,1.34
7822.00,1.34
7821.00,1.34
7820.00,1.34
7819.00,1.34
7818.00,1.34
7817.00,1.34
7816.00,1.34
7815.00,1.34
7814.00,1.34
7813.00,1.34
7812.00,1.34
7811.00,1.34
7810.00,1.34
7809.00,1.34
7808.00,1.35
7807.00,1.35
7806.00,1.35
7805.00,1.35
7804.00,1.35
7803.00,1.34
7802.00,1.34
7801.00,1.34
7800.00,1.34
7799.00,1.34
7798.00,1.34
7797.00,1.34
7796.00,1.34
7795.00,1.34
7794.00,1.34
7793.00,1.34
7792.00,1.34
7791.00,1.33
7790.00,1.33
7789.00,1.33
7788.00,1.33
7787.00,1.33
7786.00,1.33
7785.00,1.33
7784.00,1.33
7783.00,1.33
7782.00,1.33
7781.00,1.33
7780.00,1.33
7779.00,1.33
7778.00,1.33
7777.00,1.33
7776.00,1.33
7775.00,1.33
7774.00,1.33
7773.00,1.33
7772.00,1.33
7771.00,1.33
7770.00,1.33
7769.00,1.33
7768.00,1.34
7767.00,1.34
7766.00,1.34
7765.00,1.34
7764.00,1.34
7763.00,1.34
7762.00,1.34
7761.00,1.34
7760.00,1.34
7759.00,1.35
7758.00,1.35
7757.00,1.35
7756.00,1.35
7755.00,1.35
7754.00,1.35
7753.00,1.35
7752.00,1.35
7751.00,1.35
7750.00,1.35
7749.00,1.35
7748.00,1.35
7747.00,1.35
7746.00,1.35
7745.00,1.35
7744.00,1.35
7743.00,1.35
7742.00,1.35
7741.00,1.35
7740.00,1.35
7739.00,1.35
7738.00,1.35
7737.00,1.35
7736.00,1.35
7735.00,1.35
7734.00,1.35
7733.00,1.35
7732.00,1.35
7731.00,1.35
7730.00,1.35
7729.00,1.35
7728.00,1.35
7727.00,1.35
7726.00,1.35
7725.00,1.35
7724.00,1.35
7723.00,1.35
7722.00,1.35
7721.00,1.35
7720.00,1.35
7719.00,1.35
7718.00,1.35
7717.00,1.35
7716.00,1.35
7715.00,1.35
7714.00,1.35
7713.00,1.35
7712.00,1.35
7711.00,1.35
7710.00,1.35
7709.00,1.35
7708.00,1.35
7707.00,1.35
7706.00,1.34
7705.00,1.34
7704.00,1.34
7703.00,1.34
7702.00,1.34
7701.00,1.34
7700.00,1.35
7699.00,1.35
7698.00,1.35
7697.00,1.35
7696.00,1.35
7695.00,1.35
7694.00,1.35
7693.00,1.35
7692.00,1.35
7691.00,1.35
7690.00,1.35
7689.00,1.35
7688.00,1.35
7687.00,1.35
7686.00,1.35
7685.00,1.35
7684.00,1.35
7683.00,1.35
7682.00,1.35
7681.00,1.35
7680.00,1.35
7679.00,1.35
7678.00,1.35
7677.00,1.35
7676.00,1.35
7675.00,1.35
7674.00,1.35
7673.00,1.35
7672.00,1.35
7671.00,1.35
7670.00,1.35
7669.00,1.35
7668.00,1.35
7667.00,1.35
7666.00,1.35
7665.00,1.35
7664.00,1.35
7663.00,1.35
7662.00,1.35
7661.00,1.35
7660.00,1.35
7659.00,1.35
7658.00,1.35
7657.00,1.35
7656.00,1.35
7655.00,1.35
7654.00,1.35
7653.00,1.35
7652.00,1.35
7651.00,1.35
7650.00,1.35
7649.00,1.35
7648.00,1.35
7647.00,1.35
7646.00,1.35
7645.00,1.35
7644.00,1.35
7643.00,1.35
7642.00,1.35
7641.00,1.35
7640.00,1.35
7639.00,1.35
7638.00,1.35
7637.00,1.35
7636.00,1.35
7635.00,1.35
7634.00,1.35
7633.00,1.35
7632.00,1.35
7631.00,1.35
7630.00,1.35
7629.00,1.35
7628.00,1.35
7627.00,1.35
7626.00,1.35
7625.00,1.35
7624.00,1.35
7623.00,1.35
7622.00,1.35
7621.00,1.35
7620.00,1.35
7619.00,1.35
7618.00,1.35
7617.00,1.35
7616.00,1.35
7615.00,1.35
7614.00,1.35
7613.00,1.35
7612.00,1.35
7611.00,1.35
7610.00,1.35
7609.00,1.35
7608.00,1.35
7607.00,1.35
7606.00,1.35
7605.00,1.35
7604.00,1.35
7603.00,1.35
7602.00,1.35
7601.00,1.35
7600.00,1.35
7599.00,1.35
7598.00,1.35
7597.00,1.35
7596.00,1.35
7595.00,1.35
7594.00,1.35
7593.00,1.35
7592.00,1.35
7591.00,1.35
7590.00,1.35
7589.00,1.35
7588.00,1.35
7587.00,1.35
7586.00,1.35
7585.00,1.35
7584.00,1.35
7583.00,1.35
7582.00,1.35
7581.00,1.35
7580.00,1.35
7579.00,1.35
7578.00,1.35
7577.00,1.35
7576.00,1.35
7575.00,1.35
7574.00,1.34
7573.00,1.34
7572.00,1.34
7571.00,1.34
7570.00,1.34
7569.00,1.34
7568.00,1.34
7567.00,1.34
7566.00,1.34
7565.00,1.34
7564.00,1.34
7563.00,1.34
7562.00,1.34
7561.00,1.34
7560.00,1.34
7559.00,1.34
7558.00,1.34
7557.00,1.34
7556.00,1.34
7555.00,1.34
7554.00,1.34
7553.00,1.34
7552.00,1.34
7551.00,1.34
7550.00,1.34
7549.00,1.34
7548.00,1.34
7547.00,1.34
7546.00,1.34
7545.00,1.34
7544.00,1.34
7543.00,1.34
7542.00,1.34
7541.00,1.34
7540.00,1.34
7539.00,1.34
7538.00,1.34
7537.00,1.34
7536.00,1.34
7535.00,1.34
7534.00,1.34
7533.00,1.34
7532.00,1.34
7531.00,1.34
7530.00,1.34
7529.00,1.34
7528.00,1.34
7527.00,1.34
7526.00,1.34
7525.00,1.34
7524.00,1.34
7523.00,1.33
7522.00,1.33
7521.00,1.33
7520.00,1.33
7519.00,1.33
7518.00,1.33
7517.00,1.33
7516.00,1.33
7515.00,1.33
7514.00,1.33
7513.00,1.33
7512.00,1.32
7511.00,1.32
7510.00,1.32
7509.00,1.32
7508.00,1.32
7507.00,1.32
7506.00,1.32
7505.00,1.32
7504.00,1.32
7503.00,1.32
7502.00,1.32
7501.00,1.32
7500.00,1.32
7499.00,1.32
7498.00,1.32
7497.00,1.32
7496.00,1.32
7495.00,1.32
7494.00,1.32
7493.00,1.32
7492.00,1.32
7491.00,1.32
7490.00,1.32
7489.00,1.32
7488.00,1.32
7487.00,1.32
7486.00,1.32
7485.00,1.32
7484.00,1.32
7483.00,1.32
7482.00,1.32
7481.00,1.32
7480.00,1.32
7479.00,1.32
7478.00,1.32
7477.00,1.32
7476.00,1.32
7475.00,1.32
7474.00,1.32
7473.00,1.31
7472.00,1.31
7471.00,1.31
7470.00,1.31
7469.00,1.31
7468.00,1.31
7467.00,1.31
7466.00,1.31
7465.00,1.31
7464.00,1.31
7463.00,1.30
7462.00,1.30
7461.00,1.30
7460.00,1.30
7459.00,1.30
7458.00,1.30
7457.00,1.30
7456.00,1.30
7455.00,1.30
7454.00,1.30
7453.00,1.30
7452.00,1.30
7451.00,1.30
7450.00,1.30
7449.00,1.30
7448.00,1.30
7447.00,1.30
7446.00,1.30
7445.00,1.29
7444.00,1.29
7443.00,1.29
7442.00,1.29
7441.00,1.29
7440.00,1.29
7439.00,1.29
7438.00,1.29
7437.00,1.29
7436.00,1.29
7435.00,1.29
7434.00,1.29
7433.00,1.29
7432.00,1.29
7431.00,1.29
7430.00,1.29
7429.00,1.29
7428.00,1.29
7427.00,1.29
7426.00,1.29
7425.00,1.29
7424.00,1.29
7423.00,1.29
7422.00,1.29
7421.00,1.29
7420.00,1.29
7419.00,1.29
7418.00,1.29
7417.00,1.29
7416.00,1.29
7415.00,1.29
7414.00,1.29
7413.00,1.29
7412.00,1.29
7411.00,1.29
7410.00,1.29
7409.00,1.28
7408.00,1.28
7407.00,1.28
7406.00,1.28
7405.00,1.28
7404.00,1.28
7403.00,1.28
7402.00,1.28
7401.00,1.28
7400.00,1.28
7399.00,1.28
7398.00,1.28
7397.00,1.28
7396.00,1.28
7395.00,1.27
7394.00,1.27
7393.00,1.27
7392.00,1.27
7391.00,1.27
7390.00,1.27
7389.00,1.27
7388.00,1.27
7387.00,1.27
7386.00,1.26
7385.00,1.26
7384.00,1.26
7383.00,1.26
7382.00,1.26
7381.00,1.26
7380.00,1.25
7379.00,1.25
7378.00,1.25
7377.00,1.25
7376.00,1.25
7375.00,1.25
7374.00,1.25
7373.00,1.25
7372.00,1.25
7371.00,1.25
7370.00,1.25
7369.00,1.25
7368.00,1.25
7367.00,1.25
7366.00,1.25
7365.00,1.25
7364.00,1.25
7363.00,1.25
7362.00,1.25
7361.00,1.25
7360.00,1.24
7359.00,1.24
7358.00,1.24
7357.00,1.24
7356.00,1.24
7355.00,1.24
7354.00,1.24
7353.00,1.24
7352.00,1.24
7351.00,1.24
7350.00,1.24
7349.00,1.23
7348.00,1.23
7347.00,1.23
7346.00,1.23
7345.00,1.23
7344.00,1.23
7343.00,1.23
7342.00,1.23
7341.00,1.23
7340.00,1.23
7339.00,1.23
7338.00,1.23
7337.00,1.23
7336.00,1.23
7335.00,1.23
7334.00,1.23
7333.00,1.23
7332.00,1.23
7331.00,1.23
7330.00,1.23
7329.00,1.23
7328.00,1.23
7327.00,1.23
7326.00,1.23
7325.00,1.23
7324.00,1.23
7323.00,1.23
7322.00,1.23
7321.00,1.23
7320.00,1.23
7319.00,1.23
7318.00,1.23
7317.00,1.23
7316.00,1.23
7315.00,1.23
7314.00,1.22
7313.00,1.22
7312.00,1.22
7311.00,1.22
7310.00,1.22
7309.00,1.22
7308.00,1.22
7307.00,1.22
7306.00,1.22
7305.00,1.21
7304.00,1.21
7303.00,1.21
7302.00,1.21
7301.00,1.21
7300.00,1.21
7299.00,1.21
7298.00,1.21
7297.00,1.20
7296.00,1.20
7295.00,1.20
7294.00,1.20
7293.00,1.20
7292.00,1.20
7291.00,1.20
7290.00,1.20
7289.00,1.20
7288.00,1.20
7287.00,1.20
7286.00,1.19
7285.00,1.19
7284.00,1.19
7283.00,1.19
7282.00,1.19
7281.00,1.19
7280.00,1.19
7279.00,1.19
7278.00,1.19
7277.00,1.19
7276.00,1.19
7275.00,1.18
7274.00,1.18
7273.00,1.18
7272.00,1.18
7271.00,1.18
7270.00,1.18
7269.00,1.18
7268.00,1.18
7267.00,1.18
7266.00,1.17
7265.00,1.17
7264.00,1.17
7263.00,1.17
7262.00,1.17
7261.00,1.17
7260.00,1.17
7259.00,1.17
7258.00,1.16
7257.00,1.16
7256.00,1.16
7255.00,1.16
7254.00,1.16
7253.00,1.16
7252.00,1.15
7251.00,1.15
7250.00,1.15
7249.00,1.15
7248.00,1.15
7247.00,1.14
7246.00,1.14
7245.00,1.14
7244.00,1.14
7243.00,1.13
7242.00,1.13
7241.00,1.13
7240.00,1.13
7239.00,1.12
7238.00,1.12
7237.00,1.12
7236.00,1.11
7235.00,1.11
7234.00,1.11
7233.00,1.11
7232.00,1.10
7231.00,1.10
7230.00,1.10
7229.00,1.09
7228.00,1.09
7227.00,1.09
7226.00,1.08
7225.00,1.08
7224.00,1.08
7223.00,1.08
7222.00,1.07
7221.00,1.07
7220.00,1.07
7219.00,1.06
7218.00,1.06
7217.00,1.06
7216.00,1.05
7215.00,1.05
7214.00,1.05
7213.00,1.04
7212.00,1.04
7211.00,1.04
7210.00,1.03
7209.00,1.03
7208.00,1.02
7207.00,1.02
7206.00,1.01
7205.00,1.01
7204.00,1.01
7203.00,1.00
7202.00,1.00
7201.00,0.99
7200.00,0.99
7199.00,0.99
7198.00,0.98
7197.00,0.98
7196.00,0.98
7195.00,0.97
7194.00,0.97
7193.00,0.97
7192.00,0.96
7191.00,0.96
7190.00,0.96
7189.00,0.96
7188.00,0.95
7187.00,0.95
7186.00,0.95
7185.00,0.95
7184.00,0.94
7183.00,0.94
7182.00,0.94
7181.00,0.94
7180.00,0.93
7179.00,0.93
7178.00,0.93
7177.00,0.93
7176.00,0.92
7175.00,0.92
7174.00,0.92
7173.00,0.92
7172.00,0.91
7171.00,0.91
7170.00,0.91
7169.00,0.91
7168.00,0.91
7167.00,0.90
7166.00,0.90
7165.00,0.90
7164.00,0.90
7163.00,0.90
7162.00,0.89
7161.00,0.89
7160.00,0.89
7159.00,0.89
7158.00,0.89
7157.00,0.88
7156.00,0.88
7155.00,0.88
7154.00,0.88
7153.00,0.87
7152.00,0.87
7151.00,0.87
7150.00,0.87
7149.00,0.86
7148.00,0.86
7147.00,0.86
7146.00,0.86
7145.00,0.85
7144.00,0.85
7143.00,0.85
7142.00,0.84
7141.00,0.84
7140.00,0.84
7139.00,0.84
7138.00,0.83
7137.00,0.83
7136.00,0.83
7135.00,0.83
7134.00,0.82
7133.00,0.82
7132.00,0.82
7131.00,0.81
7130.00,0.81
7129.00,0.81
7128.00,0.81
7127.00,0.80
7126.00,0.80
7125.00,0.80
7124.00,0.80
7123.00,0.79
7122.00,0.79
7121.00,0.79
7120.00,0.78
7119.00,0.78
7118.00,0.78
7117.00,0.77
7116.00,0.77
7115.00,0.77
7114.00,0.77
7113.00,0.76
7112.00,0.76
7111.00,0.76
7110.00,0.75
7109.00,0.75
7108.00,0.75
7107.00,0.75
7106.00,0.75
7105.00,0.74
7104.00,0.74
7103.00,0.74
7102.00,0.74
7101.00,0.73
7100.00,0.73
7099.00,0.73
7098.00,0.73
7097.00,0.73
7096.00,0.73
7095.00,0.72
7094.00,0.72
7093.00,0.72
7092.00,0.72
7091.00,0.72
7090.00,0.71
7089.00,0.71
7088.00,0.71
7087.00,0.71
7086.00,0.70
7085.00,0.70
7084.00,0.70
7083.00,0.70
7082.00,0.70
7081.00,0.69
7080.00,0.69
7079.00,0.69
7078.00,0.69
7077.00,0.69
7076.00,0.68
7075.00,0.68
7074.00,0.68
7073.00,0.68
7072.00,0.68
7071.00,0.68
7070.00,0.67
7069.00,0.67
7068.00,0.67
7067.00,0.67
7066.00,0.67
7065.00,0.67
7064.00,0.67
7063.00,0.67
7062.00,0.67
7061.00,0.66
7060.00,0.66
7059.00,0.66
7058.00,0.66
7057.00,0.66
7056.00,0.66
7055.00,0.66
7054.00,0.66
7053.00,0.66
7052.00,0.66
7051.00,0.66
7050.00,0.66
7049.00,0.66
7048.00,0.65
7047.00,0.65
7046.00,0.65
7045.00,0.65
7044.00,0.65
7043.00,0.65
7042.00,0.65
7041.00,0.65
7040.00,0.65
7039.00,0.64
7038.00,0.64
7037.00,0.64
7036.00,0.64
7035.00,0.64
7034.00,0.64
7033.00,0.64
7032.00,0.64
7031.00,0.63
7030.00,0.63
7029.00,0.63
7028.00,0.63
7027.00,0.63
7026.00,0.63
7025.00,0.63
7024.00,0.63
7023.00,0.63
7022.00,0.63
7021.00,0.63
7020.00,0.63
7019.00,0.63
7018.00,0.63
7017.00,0.63
7016.00,0.63
7015.00,0.63
7014.00,0.63
7013.00,0.63
7012.00,0.63
7011.00,0.63
7010.00,0.63
7009.00,0.63
7008.00,0.63
7007.00,0.63
7006.00,0.63
7005.00,0.63
7004.00,0.63
7003.00,0.63
7002.00,0.63
7001.00,0.63
7000.00,0.62
6999.00,0.62
6998.00,0.62
6997.00,0.62
6996.00,0.62
6995.00,0.62
6994.00,0.62
6993.00,0.62
6992.00,0.62
6991.00,0.62
6990.00,0.62
6989.00,0.61
6988.00,0.61
6987.00,0.61
6986.00,0.61
6985.00,0.61
6984.00,0.61
6983.00,0.61
6982.00,0.60
6981.00,0.60
6980.00,0.60
6979.00,0.60
6978.00,0.60
6977.00,0.60
6976.00,0.60
6975.00,0.60
6974.00,0.60
6973.00,0.60
6972.00,0.59
6971.00,0.59
6970.00,0.59
6969.00,0.59
6968.00,0.59
6967.00,0.59
6966.00,0.59
6965.00,0.59
6964.00,0.59
6963.00,0.59
6962.00,0.59
6961.00,0.59
6960.00,0.59
6959.00,0.59
6958.00,0.59
6957.00,0.59
6956.00,0.59
6955.00,0.59
6954.00,0.59
6953.00,0.59
6952.00,0.59
6951.00,0.59
6950.00,0.59
6949.00,0.59
6948.00,0.59
6947.00,0.59
6946.00,0.59
6945.00,0.59
6944.00,0.59
6943.00,0.59
6942.00,0.59
6941.00,0.59
6940.00,0.59
6939.00,0.58
6938.00,0.58
6937.00,0.58
6936.00,0.58
6935.00,0.58
6934.00,0.58
6933.00,0.58
6932.00,0.58
6931.00,0.58
6930.00,0.58
6929.00,0.58
6928.00,0.58
6927.00,0.58
6926.00,0.58
6925.00,0.58
6924.00,0.58
6923.00,0.58
6922.00,0.58
6921.00,0.58
6920.00,0.58
6919.00,0.58
6918.00,0.58
6917.00,0.58
6916.00,0.58
6915.00,0.58
6914.00,0.58
6913.00,0.58
6912.00,0.58
6911.00,0.58
6910.00,0.58
6909.00,0.58
6908.00,0.58
6907.00,0.58
6906.00,0.58
6905.00,0.58
6904.00,0.58
6903.00,0.58
6902.00,0.57
6901.00,0.57
6900.00,0.57
6899.00,0.57
6898.00,0.57
6897.00,0.57
6896.00,0.57
6895.00,0.57
6894.00,0.57
6893.00,0.57
6892.00,0.57
6891.00,0.57
6890.00,0.57
6889.00,0.57
6888.00,0.57
6887.00,0.57
6886.00,0.57
6885.00,0.57
6884.00,0.57
6883.00,0.57
6882.00,0.57
6881.00,0.57
6880.00,0.57
6879.00,0.57
6878.00,0.57
6877.00,0.57
6876.00,0.57
6875.00,0.57
6874.00,0.57
6873.00,0.57
6872.00,0.57
6871.00,0.57
6870.00,0.57
6869.00,0.57
6868.00,0.57
6867.00,0.57
6866.00,0.57
6865.00,0.57
6864.00,0.57
6863.00,0.57
6862.00,0.57
6861.00,0.57
6860.00,0.57
6859.00,0.57
6858.00,0.57
6857.00,0.57
6856.00,0.57
6855.00,0.57
6854.00,0.58
6853.00,0.58
6852.00,0.58
6851.00,0.58
6850.00,0.58
6849.00,0.58
6848.00,0.58
6847.00,0.58
6846.00,0.58
6845.00,0.58
6844.00,0.58
6843.00,0.58
6842.00,0.58
6841.00,0.58
6840.00,0.58
6839.00,0.58
6838.00,0.58
6837.00,0.58
6836.00,0.58
6835.00,0.58
6834.00,0.58
6833.00,0.58
6832.00,0.58
6831.00,0.58
6830.00,0.58
6829.00,0.58
6828.00,0.58
6827.00,0.58
6826.00,0.58
6825.00,0.58
6824.00,0.58
6823.00,0.58
6822.00,0.58
6821.00,0.58
6820.00,0.58
6819.00,0.58
6818.00,0.58
6817.00,0.58
6816.00,0.58
6815.00,0.59
6814.00,0.59
6813.00,0.59
6812.00,0.59
6811.00,0.59
6810.00,0.59
6809.00,0.59
6808.00,0.59
6807.00,0.59
6806.00,0.59
6805.00,0.59
6804.00,0.59
6803.00,0.59
6802.00,0.59
6801.00,0.59
6800.00,0.59
6799.00,0.59
6798.00,0.59
6797.00,0.59
6796.00,0.59
6795.00,0.59
6794.00,0.59
6793.00,0.59
6792.00,0.59
6791.00,0.59
6790.00,0.59
6789.00,0.59
6788.00,0.59
6787.00,0.60
6786.00,0.60
6785.00,0.60
6784.00,0.60
6783.00,0.60
6782.00,0.60
6781.00,0.60
6780.00,0.60
6779.00,0.60
6778.00,0.60
6777.00,0.60
6776.00,0.60
6775.00,0.60
6774.00,0.60
6773.00,0.61
6772.00,0.61
6771.00,0.61
6770.00,0.61
6769.00,0.61
6768.00,0.61
6767.00,0.61
6766.00,0.61
6765.00,0.61
6764.00,0.61
6763.00,0.61
6762.00,0.62
6761.00,0.62
6760.00,0.62
6759.00,0.62
6758.00,0.62
6757.00,0.62
6756.00,0.62
6755.00,0.62
6754.00,0.62
6753.00,0.62
6752.00,0.62
6751.00,0.62
6750.00,0.62
6749.00,0.62
6748.00,0.62
6747.00,0.62
6746.00,0.62
6745.00,0.62
6744.00,0.62
6743.00,0.62
6742.00,0.62
6741.00,0.62
6740.00,0.62
6739.00,0.62
6738.00,0.62
6737.00,0.62
6736.00,0.62
6735.00,0.62
6734.00,0.63
6733.00,0.63
6732.00,0.63
6731.00,0.63
6730.00,0.63
6729.00,0.63
6728.00,0.63
6727.00,0.64
6726.00,0.64
6725.00,0.64
6724.00,0.64
6723.00,0.64
6722.00,0.64
6721.00,0.64
6720.00,0.64
6719.00,0.64
6718.00,0.64
6717.00,0.64
6716.00,0.64
6715.00,0.64
6714.00,0.64
6713.00,0.64
6712.00,0.64
6711.00,0.65
6710.00,0.65
6709.00,0.65
6708.00,0.65
6707.00,0.65
6706.00,0.65
6705.00,0.65
6704.00,0.65
6703.00,0.65
6702.00,0.65
6701.00,0.65
6700.00,0.65
6699.00,0.65
6698.00,0.65
6697.00,0.66
6696.00,0.66
6695.00,0.66
6694.00,0.66
6693.00,0.66
6692.00,0.66
6691.00,0.66
6690.00,0.66
6689.00,0.66
6688.00,0.67
6687.00,0.67
6686.00,0.67
6685.00,0.67
6684.00,0.67
6683.00,0.67
6682.00,0.67
6681.00,0.67
6680.00,0.67
6679.00,0.67
6678.00,0.67
6677.00,0.67
6676.00,0.67
6675.00,0.67
6674.00,0.68
6673.00,0.68
6672.00,0.68
6671.00,0.68
6670.00,0.68
6669.00,0.68
6668.00,0.68
6667.00,0.68
6666.00,0.68
6665.00,0.69
6664.00,0.69
6663.00,0.69
6662.00,0.69
6661.00,0.69
6660.00,0.69
6659.00,0.69
6658.00,0.69
6657.00,0.70
6656.00,0.70
6655.00,0.70
6654.00,0.70
6653.00,0.70
6652.00,0.70
6651.00,0.70
6650.00,0.70
6649.00,0.70
6648.00,0.71
6647.00,0.71
6646.00,0.71
6645.00,0.71
6644.00,0.71
6643.00,0.71
6642.00,0.71
6641.00,0.71
6640.00,0.71
6639.00,0.71
6638.00,0.71
6637.00,0.71
6636.00,0.71
6635.00,0.71
6634.00,0.71
6633.00,0.71
6632.00,0.72
6631.00,0.72
6630.00,0.72
6629.00,0.72
6628.00,0.72
6627.00,0.72
6626.00,0.72
6625.00,0.72
6624.00,0.72
6623.00,0.72
6622.00,0.73
6621.00,0.73
6620.00,0.73
6619.00,0.73
6618.00,0.73
6617.00,0.73
6616.00,0.73
6615.00,0.73
6614.00,0.73
6613.00,0.73
6612.00,0.74
6611.00,0.74
6610.00,0.74
6609.00,0.74
6608.00,0.74
6607.00,0.74
6606.00,0.74
6605.00,0.74
6604.00,0.74
6603.00,0.74
6602.00,0.74
6601.00,0.74
6600.00,0.74
6599.00,0.74
6598.00,0.74
6597.00,0.75
6596.00,0.75
6595.00,0.75
6594.00,0.75
6593.00,0.75
6592.00,0.75
6591.00,0.75
6590.00,0.75
6589.00,0.75
6588.00,0.75
6587.00,0.75
6586.00,0.76
6585.00,0.76
6584.00,0.76
6583.00,0.76
6582.00,0.76
6581.00,0.76
6580.00,0.76
6579.00,0.77
6578.00,0.77
6577.00,0.77
6576.00,0.77
6575.00,0.77
6574.00,0.77
6573.00,0.77
6572.00,0.77
6571.00,0.78
6570.00,0.78
6569.00,0.78
6568.00,0.78
6567.00,0.78
6566.00,0.78
6565.00,0.78
6564.00,0.78
6563.00,0.78
6562.00,0.78
6561.00,0.78
6560.00,0.78
6559.00,0.79
6558.00,0.79
6557.00,0.79
6556.00,0.79
6555.00,0.79
6554.00,0.79
6553.00,0.79
6552.00,0.79
6551.00,0.79
6550.00,0.79
6549.00,0.79
6548.00,0.79
6547.00,0.79
6546.00,0.79
6545.00,0.79
6544.00,0.79
6543.00,0.79
6542.00,0.79
6541.00,0.79
6540.00,0.79
6539.00,0.80
6538.00,0.80
6537.00,0.80
6536.00,0.80
6535.00,0.80
6534.00,0.80
6533.00,0.80
6532.00,0.80
6531.00,0.80
6530.00,0.80
6529.00,0.80
6528.00,0.81
6527.00,0.81
6526.00,0.81
6525.00,0.81
6524.00,0.81
6523.00,0.81
6522.00,0.81
6521.00,0.81
6520.00,0.81
6519.00,0.81
6518.00,0.82
6517.00,0.82
6516.00,0.82
6515.00,0.82
6514.00,0.82
6513.00,0.82
6512.00,0.82
6511.00,0.82
6510.00,0.82
6509.00,0.82
6508.00,0.82
6507.00,0.82
6506.00,0.82
6505.00,0.82
6504.00,0.82
6503.00,0.83
6502.00,0.83
6501.00,0.83
6500.00,0.83
6499.00,0.83
6498.00,0.83
6497.00,0.83
6496.00,0.83
6495.00,0.83
6494.00,0.83
6493.00,0.84
6492.00,0.84
6491.00,0.84
6490.00,0.84
6489.00,0.84
6488.00,0.84
6487.00,0.84
6486.00,0.84
6485.00,0.84
6484.00,0.84
6483.00,0.84
6482.00,0.85
6481.00,0.85
6480.00,0.85
6479.00,0.85
6478.00,0.85
6477.00,0.85
6476.00,0.85
6475.00,0.85
6474.00,0.85
6473.00,0.85
6472.00,0.85
6471.00,0.85
6470.00,0.85
6469.00,0.85
6468.00,0.85
6467.00,0.86
6466.00,0.86
6465.00,0.86
6464.00,0.86
6463.00,0.86
6462.00,0.86
6461.00,0.86
6460.00,0.86
6459.00,0.86
6458.00,0.86
6457.00,0.86
6456.00,0.86
6455.00,0.87
6454.00,0.87
6453.00,0.87
6452.00,0.87
6451.00,0.87
6450.00,0.87
6449.00,0.87
6448.00,0.87
6447.00,0.87
6446.00,0.87
6445.00,0.87
6444.00,0.87
6443.00,0.87
6442.00,0.87
6441.00,0.87
6440.00,0.87
6439.00,0.87
6438.00,0.87
6437.00,0.87
6436.00,0.87
6435.00,0.87
6434.00,0.87
6433.00,0.87
6432.00,0.87
6431.00,0.88
6430.00,0.88
6429.00,0.88
6428.00,0.88
6427.00,0.88
6426.00,0.88
6425.00,0.88
6424.00,0.88
6423.00,0.88
6422.00,0.88
6421.00,0.88
6420.00,0.88
6419.00,0.88
6418.00,0.89
6417.00,0.89
6416.00,0.89
6415.00,0.89
6414.00,0.89
6413.00,0.89
6412.00,0.89
6411.00,0.89
6410.00,0.89
6409.00,0.89
6408.00,0.89
6407.00,0.89
6406.00,0.89
6405.00,0.90
6404.00,0.90
6403.00,0.90
6402.00,0.90
6401.00,0.90
6400.00,0.90
6399.00,0.90
6398.00,0.90
6397.00,0.90
6396.00,0.90
6395.00,0.90
6394.00,0.90
6393.00,0.90
6392.00,0.90
6391.00,0.90
6390.00,0.90
6389.00,0.90
6388.00,0.90
6387.00,0.90
6386.00,0.90
6385.00,0.90
6384.00,0.91
6383.00,0.91
6382.00,0.91
6381.00,0.91
6380.00,0.91
6379.00,0.91
6378.00,0.91
6377.00,0.91
6376.00,0.91
6375.00,0.91
6374.00,0.91
6373.00,0.91
6372.00,0.91
6371.00,0.91
6370.00,0.92
6369.00,0.92
6368.00,0.92
6367.00,0.92
6366.00,0.92
6365.00,0.92
6364.00,0.92
6363.00,0.92
6362.00,0.92
6361.00,0.92
6360.00,0.92
6359.00,0.92
6358.00,0.92
6357.00,0.92
6356.00,0.92
6355.00,0.92
6354.00,0.92
6353.00,0.92
6352.00,0.92
6351.00,0.92
6350.00,0.92
6349.00,0.92
6348.00,0.92
6347.00,0.92
6346.00,0.92
6345.00,0.93
6344.00,0.93
6343.00,0.93
6342.00,0.93
6341.00,0.93
6340.00,0.93
6339.00,0.93
6338.00,0.94
6337.00,0.94
6336.00,0.94
6335.00,0.94
6334.00,0.94
6333.00,0.94
6332.00,0.94
6331.00,0.94
6330.00,0.95
6329.00,0.95
6328.00,0.95
6327.00,0.95
6326.00,0.95
6325.00,0.95
6324.00,0.95
6323.00,0.95
6322.00,0.95
6321.00,0.95
6320.00,0.95
6319.00,0.96
6318.00,0.96
6317.00,0.96
6316.00,0.96
6315.00,0.96
6314.00,0.96
6313.00,0.96
6312.00,0.96
6311.00,0.97
6310.00,0.97
6309.00,0.97
6308.00,0.97
6307.00,0.97
6306.00,0.97
6305.00,0.97
6304.00,0.97
6303.00,0.97
6302.00,0.98
6301.00,0.98
6300.00,0.98
6299.00,0.98
6298.00,0.98
6297.00,0.98
6296.00,0.98
6295.00,0.98
6294.00,0.98
6293.00,0.98
6292.00,0.98
6291.00,0.98
6290.00,0.98
6289.00,0.98
6288.00,0.99
6287.00,0.99
6286.00,0.99
6285.00,0.99
6284.00,0.99
6283.00,0.99
6282.00,0.99
6281.00,0.99
6280.00,0.99
6279.00,0.99
6278.00,0.99
6277.00,0.99
6276.00,0.99
6275.00,0.99
6274.00,1.00
6273.00,1.00
6272.00,1.00
6271.00,1.00
6270.00,1.00
6269.00,1.00
6268.00,1.00
6267.00,1.00
6266.00,1.01
6265.00,1.01
6264.00,1.01
6263.00,1.01
6262.00,1.01
6261.00,1.01
6260.00,1.01
6259.00,1.01
6258.00,1.02
6257.00,1.02
6256.00,1.02
6255.00,1.02
6254.00,1.02
6253.00,1.02
6252.00,1.02
6251.00,1.02
6250.00,1.03
6249.00,1.03
6248.00,1.03
6247.00,1.03
6246.00,1.03
6245.00,1.03
6244.00,1.03
6243.00,1.03
6242.00,1.03
6241.00,1.03
6240.00,1.04
6239.00,1.04
6238.00,1.04
6237.00,1.04
6236.00,1.04
6235.00,1.04
6234.00,1.04
6233.00,1.04
6232.00,1.04
6231.00,1.04
6230.00,1.05
6229.00,1.05
6228.00,1.05
6227.00,1.05
6226.00,1.05
6225.00,1.05
6224.00,1.05
6223.00,1.05
6222.00,1.06
6221.00,1.06
6220.00,1.06
6219.00,1.06
6218.00,1.06
6217.00,1.06
6216.00,1.06
6215.00,1.06
6214.00,1.07
6213.00,1.07
6212.00,1.07
6211.00,1.07
6210.00,1.07
6209.00,1.07
6208.00,1.07
6207.00,1.07
6206.00,1.07
6205.00,1.08
6204.00,1.08
6203.00,1.08
6202.00,1.08
6201.00,1.08
6200.00,1.08
6199.00,1.08
6198.00,1.09
6197.00,1.09
6196.00,1.09
6195.00,1.09
6194.00,1.09
6193.00,1.09
6192.00,1.09
6191.00,1.09
6190.00,1.10
6189.00,1.10
6188.00,1.10
6187.00,1.10
6186.00,1.10
6185.00,1.10
6184.00,1.10
6183.00,1.10
6182.00,1.10
6181.00,1.11
6180.00,1.11
6179.00,1.11
6178.00,1.11
6177.00,1.11
6176.00,1.11
6175.00,1.11
6174.00,1.11
6173.00,1.12
6172.00,1.12
6171.00,1.12
6170.00,1.12
6169.00,1.12
6168.00,1.12
6167.00,1.12
6166.00,1.13
6165.00,1.13
6164.00,1.13
6163.00,1.13
6162.00,1.13
6161.00,1.13
6160.00,1.13
6159.00,1.14
6158.00,1.14
6157.00,1.14
6156.00,1.14
6155.00,1.14
6154.00,1.14
6153.00,1.14
6152.00,1.15
6151.00,1.15
6150.00,1.15
6149.00,1.15
6148.00,1.15
6147.00,1.15
6146.00,1.15
6145.00,1.15
6144.00,1.16
6143.00,1.16
6142.00,1.16
6141.00,1.16
6140.00,1.16
6139.00,1.16
6138.00,1.16
6137.00,1.17
6136.00,1.17
6135.00,1.17
6134.00,1.17
6133.00,1.17
6132.00,1.17
6131.00,1.18
6130.00,1.18
6129.00,1.18
6128.00,1.18
6127.00,1.18
6126.00,1.18
6125.00,1.19
6124.00,1.19
6123.00,1.19
6122.00,1.19
6121.00,1.19
6120.00,1.19
6119.00,1.19
6118.00,1.19
6117.00,1.20
6116.00,1.20
6115.00,1.20
6114.00,1.20
6113.00,1.20
6112.00,1.20
6111.00,1.20
6110.00,1.20
6109.00,1.21
6108.00,1.21
6107.00,1.21
6106.00,1.21
6105.00,1.21
6104.00,1.21
6103.00,1.21
6102.00,1.21
6101.00,1.21
6100.00,1.21
6099.00,1.21
6098.00,1.21
6097.00,1.22
6096.00,1.22
6095.00,1.22
6094.00,1.22
6093.00,1.22
6092.00,1.22
6091.00,1.22
6090.00,1.22
6089.00,1.23
6088.00,1.23
6087.00,1.23
6086.00,1.23
6085.00,1.23
6084.00,1.23
6083.00,1.23
6082.00,1.24
6081.00,1.24
6080.00,1.24
6079.00,1.24
6078.00,1.24
6077.00,1.24
6076.00,1.24
6075.00,1.25
6074.00,1.25
6073.00,1.25
6072.00,1.25
6071.00,1.25
6070.00,1.25
6069.00,1.25
6068.00,1.25
6067.00,1.25
6066.00,1.25
6065.00,1.25
6064.00,1.25
6063.00,1.26
6062.00,1.26
6061.00,1.26
6060.00,1.26
6059.00,1.26
6058.00,1.26
6057.00,1.26
6056.00,1.26
6055.00,1.26
6054.00,1.26
6053.00,1.26
6052.00,1.26
6051.00,1.26
6050.00,1.26
6049.00,1.27
6048.00,1.27
6047.00,1.27
6046.00,1.27
6045.00,1.27
6044.00,1.27
6043.00,1.27
6042.00,1.27
6041.00,1.27
6040.00,1.27
6039.00,1.27
6038.00,1.27
6037.00,1.27
6036.00,1.27
6035.00,1.28
6034.00,1.28
6033.00,1.28
6032.00,1.28
6031.00,1.28
6030.00,1.28
6029.00,1.28
6028.00,1.28
6027.00,1.28
6026.00,1.28
6025.00,1.28
6024.00,1.28
6023.00,1.28
6022.00,1.28
6021.00,1.28
6020.00,1.28
6019.00,1.28
6018.00,1.28
6017.00,1.28
6016.00,1.28
6015.00,1.28
6014.00,1.28
6013.00,1.28
6012.00,1.28
6011.00,1.28
6010.00,1.28
6009.00,1.28
6008.00,1.28
6007.00,1.28
6006.00,1.28
6005.00,1.28
6004.00,1.28
6003.00,1.28
6002.00,1.28
6001.00,1.27
6000.00,1.27
5999.00,1.27
5998.00,1.27
5997.00,1.27
5996.00,1.27
5995.00,1.27
5994.00,1.27
5993.00,1.27
5992.00,1.26
5991.00,1.26
5990.00,1.26
5989.00,1.26
5988.00,1.26
5987.00,1.26
5986.00,1.25
5985.00,1.25
5984.00,1.25
5983.00,1.25
5982.00,1.25
5981.00,1.24
5980.00,1.24
5979.00,1.24
5978.00,1.23
5977.00,1.23
5976.00,1.22
5975.00,1.22
5974.00,1.22
5973.00,1.21
5972.00,1.21
5971.00,1.20
5970.00,1.20
5969.00,1.19
5968.00,1.18
5967.00,1.18
5966.00,1.17
5965.00,1.16
5964.00,1.16
5963.00,1.15
5962.00,1.14
5961.00,1.14
5960.00,1.13
5959.00,1.12
5958.00,1.12
5957.00,1.11
5956.00,1.10
5955.00,1.10
5954.00,1.09
5953.00,1.08
5952.00,1.08
5951.00,1.07
5950.00,1.07
5949.00,1.06
5948.00,1.06
5947.00,1.05
5946.00,1.05
5945.00,1.05
5944.00,1.04
5943.00,1.04
5942.00,1.04
5941.00,1.04
5940.00,1.03
5939.00,1.03
5938.00,1.03
5937.00,1.03
5936.00,1.03
5935.00,1.03
5934.00,1.03
5933.00,1.03
5932.00,1.03
5931.00,1.03
5930.00,1.03
5929.00,1.03
5928.00,1.03
5927.00,1.02
5926.00,1.02
5925.00,1.02
5924.00,1.02
5923.00,1.02
5922.00,1.02
5921.00,1.01
5920.00,1.01
5919.00,1.01
5918.00,1.01
5917.00,1.00
5916.00,1.00
5915.00,1.00
5914.00,0.99
5913.00,0.99
5912.00,0.99
5911.00,0.99
5910.00,0.98
5909.00,0.98
5908.00,0.98
5907.00,0.98
5906.00,0.98
5905.00,0.98
5904.00,0.98
5903.00,0.98
5902.00,0.98
5901.00,0.98
5900.00,0.98
5899.00,0.98
5898.00,0.98
5897.00,0.98
5896.00,0.98
5895.00,0.98
5894.00,0.98
5893.00,0.98
5892.00,0.99
5891.00,0.99
5890.00,0.99
5889.00,0.99
5888.00,1.00
5887.00,1.00
5886.00,1.00
5885.00,1.00
5884.00,1.01
5883.00,1.01
5882.00,1.01
5881.00,1.02
5880.00,1.02
5879.00,1.02
5878.00,1.02
5877.00,1.03
5876.00,1.03
5875.00,1.03
5874.00,1.03
5873.00,1.03
5872.00,1.04
5871.00,1.04
5870.00,1.04
5869.00,1.04
5868.00,1.04
5867.00,1.05
5866.00,1.05
5865.00,1.05
5864.00,1.05
5863.00,1.05
5862.00,1.05
5861.00,1.06
5860.00,1.06
5859.00,1.06
5858.00,1.06
5857.00,1.06
5856.00,1.06
5855.00,1.06
5854.00,1.06
5853.00,1.07
5852.00,1.07
5851.00,1.07
5850.00,1.07
5849.00,1.07
5848.00,1.07
5847.00,1.07
5846.00,1.07
5845.00,1.07
5844.00,1.07
5843.00,1.07
5842.00,1.07
5841.00,1.07
5840.00,1.07
5839.00,1.07
5838.00,1.07
5837.00,1.07
5836.00,1.07
5835.00,1.07
5834.00,1.07
5833.00,1.07
5832.00,1.07
5831.00,1.07
5830.00,1.07
5829.00,1.07
5828.00,1.07
5827.00,1.07
5826.00,1.07
5825.00,1.07
5824.00,1.07
5823.00,1.07
5822.00,1.07
5821.00,1.07
5820.00,1.07
5819.00,1.07
5818.00,1.07
5817.00,1.07
5816.00,1.07
5815.00,1.07
5814.00,1.07
5813.00,1.07
5812.00,1.07
5811.00,1.07
5810.00,1.07
5809.00,1.07
5808.00,1.07
5807.00,1.07
5806.00,1.07
5805.00,1.07
5804.00,1.07
5803.00,1.07
5802.00,1.07
5801.00,1.07
5800.00,1.06
5799.00,1.06
5798.00,1.06
5797.00,1.06
5796.00,1.06
5795.00,1.06
5794.00,1.06
5793.00,1.05
5792.00,1.05
5791.00,1.05
5790.00,1.05
5789.00,1.05
5788.00,1.05
5787.00,1.04
5786.00,1.04
5785.00,1.04
5784.00,1.04
5783.00,1.04
5782.00,1.04
5781.00,1.04
5780.00,1.03
5779.00,1.03
5778.00,1.03
5777.00,1.03
5776.00,1.03
5775.00,1.03
5774.00,1.03
5773.00,1.03
5772.00,1.03
5771.00,1.03
5770.00,1.03
5769.00,1.03
5768.00,1.03
5767.00,1.03
5766.00,1.03
5765.00,1.03
5764.00,1.03
5763.00,1.03
5762.00,1.03
5761.00,1.04
5760.00,1.04
5759.00,1.04
5758.00,1.04
5757.00,1.05
5756.00,1.05
5755.00,1.05
5754.00,1.05
5753.00,1.06
5752.00,1.06
5751.00,1.06
5750.00,1.07
5749.00,1.07
5748.00,1.07
5747.00,1.08
5746.00,1.08
5745.00,1.08
5744.00,1.08
5743.00,1.09
5742.00,1.09
5741.00,1.09
5740.00,1.10
5739.00,1.10
5738.00,1.10
5737.00,1.10
5736.00,1.10
5735.00,1.11
5734.00,1.11
5733.00,1.11
5732.00,1.11
5731.00,1.11
5730.00,1.11
5729.00,1.11
5728.00,1.12
5727.00,1.12
5726.00,1.12
5725.00,1.12
5724.00,1.12
5723.00,1.12
5722.00,1.12
5721.00,1.12
5720.00,1.12
5719.00,1.12
5718.00,1.12
5717.00,1.12
5716.00,1.12
5715.00,1.12
5714.00,1.12
5713.00,1.12
5712.00,1.12
5711.00,1.12
5710.00,1.12
5709.00,1.12
5708.00,1.12
5707.00,1.12
5706.00,1.12
5705.00,1.12
5704.00,1.12
5703.00,1.12
5702.00,1.12
5701.00,1.12
5700.00,1.12
5699.00,1.12
5698.00,1.11
5697.00,1.11
5696.00,1.11
5695.00,1.11
5694.00,1.11
5693.00,1.11
5692.00,1.11
5691.00,1.10
5690.00,1.10
5689.00,1.10
5688.00,1.10
5687.00,1.10
5686.00,1.10
5685.00,1.10
5684.00,1.10
5683.00,1.09
5682.00,1.09
5681.00,1.09
5680.00,1.09
5679.00,1.09
5678.00,1.09
5677.00,1.09
5676.00,1.09
5675.00,1.09
5674.00,1.09
5673.00,1.09
5672.00,1.09
5671.00,1.09
5670.00,1.09
5669.00,1.09
5668.00,1.09
5667.00,1.09
5666.00,1.09
5665.00,1.09
5664.00,1.10
5663.00,1.10
5662.00,1.10
5661.00,1.10
5660.00,1.10
5659.00,1.10
5658.00,1.10
5657.00,1.11
5656.00,1.11
5655.00,1.11
5654.00,1.11
5653.00,1.11
5652.00,1.12
5651.00,1.12
5650.00,1.12
5649.00,1.12
5648.00,1.12
5647.00,1.12
5646.00,1.13
5645.00,1.13
5644.00,1.13
5643.00,1.13
5642.00,1.13
5641.00,1.13
5640.00,1.14
5639.00,1.14
5638.00,1.14
5637.00,1.14
5636.00,1.14
5635.00,1.14
5634.00,1.15
5633.00,1.15
5632.00,1.15
5631.00,1.15
5630.00,1.15
5629.00,1.15
5628.00,1.15
5627.00,1.16
5626.00,1.16
5625.00,1.16
5624.00,1.16
5623.00,1.16
5622.00,1.16
5621.00,1.16
5620.00,1.17
5619.00,1.17
5618.00,1.17
5617.00,1.17
5616.00,1.17
5615.00,1.17
5614.00,1.18
5613.00,1.18
5612.00,1.18
5611.00,1.18
5610.00,1.18
5609.00,1.18
5608.00,1.18
5607.00,1.19
5606.00,1.19
5605.00,1.19
5604.00,1.19
5603.00,1.19
5602.00,1.19
5601.00,1.19
5600.00,1.20
5599.00,1.20
5598.00,1.20
5597.00,1.20
5596.00,1.20
5595.00,1.21
5594.00,1.21
5593.00,1.21
5592.00,1.21
5591.00,1.21
5590.00,1.21
5589.00,1.22
5588.00,1.22
5587.00,1.22
5586.00,1.22
5585.00,1.22
5584.00,1.22
5583.00,1.22
5582.00,1.22
5581.00,1.22
5580.00,1.23
5579.00,1.23
5578.00,1.23
5577.00,1.23
5576.00,1.23
5575.00,1.23
5574.00,1.23
5573.00,1.23
5572.00,1.23
5571.00,1.23
5570.00,1.23
5569.00,1.24
5568.00,1.24
5567.00,1.24
5566.00,1.24
5565.00,1.24
5564.00,1.24
5563.00,1.24
5562.00,1.24
5561.00,1.25
5560.00,1.25
5559.00,1.25
5558.00,1.25
5557.00,1.25
5556.00,1.25
5555.00,1.25
5554.00,1.25
5553.00,1.26
5552.00,1.26
5551.00,1.26
5550.00,1.26
5549.00,1.26
5548.00,1.26
5547.00,1.26
5546.00,1.26
5545.00,1.27
5544.00,1.27
5543.00,1.27
5542.00,1.27
5541.00,1.27
5540.00,1.27
5539.00,1.27
5538.00,1.27
5537.00,1.27
5536.00,1.28
5535.00,1.28
5534.00,1.28
5533.00,1.28
5532.00,1.28
5531.00,1.28
5530.00,1.28
5529.00,1.28
5528.00,1.28
5527.00,1.28
5526.00,1.28
5525.00,1.28
5524.00,1.29
5523.00,1.29
5522.00,1.29
5521.00,1.29
5520.00,1.29
5519.00,1.29
5518.00,1.29
5517.00,1.29
5516.00,1.29
5515.00,1.29
5514.00,1.29
5513.00,1.29
5512.00,1.29
5511.00,1.29
5510.00,1.30
5509.00,1.30
5508.00,1.30
5507.00,1.30
5506.00,1.30
5505.00,1.30
5504.00,1.30
5503.00,1.30
5502.00,1.30
5501.00,1.30
5500.00,1.30
5499.00,1.30
5498.00,1.30
5497.00,1.30
5496.00,1.30
5495.00,1.30
5494.00,1.30
5493.00,1.30
5492.00,1.30
5491.00,1.31
5490.00,1.31
5489.00,1.31
5488.00,1.31
5487.00,1.31
5486.00,1.31
5485.00,1.31
5484.00,1.31
5483.00,1.31
5482.00,1.31
5481.00,1.31
5480.00,1.32
5479.00,1.32
5478.00,1.32
5477.00,1.32
5476.00,1.32
5475.00,1.32
5474.00,1.32
5473.00,1.32
5472.00,1.32
5471.00,1.33
5470.00,1.33
5469.00,1.33
5468.00,1.33
5467.00,1.33
5466.00,1.33
5465.00,1.33
5464.00,1.34
5463.00,1.34
5462.00,1.34
5461.00,1.34
5460.00,1.34
5459.00,1.34
5458.00,1.34
5457.00,1.34
5456.00,1.34
5455.00,1.34
5454.00,1.34
5453.00,1.34
5452.00,1.34
5451.00,1.35
5450.00,1.35
5449.00,1.35
5448.00,1.35
5447.00,1.35
5446.00,1.35
5445.00,1.35
5444.00,1.35
5443.00,1.35
5442.00,1.35
5441.00,1.35
5440.00,1.35
5439.00,1.35
5438.00,1.35
5437.00,1.35
5436.00,1.35
5435.00,1.35
5434.00,1.35
5433.00,1.35
5432.00,1.35
5431.00,1.35
5430.00,1.35
5429.00,1.35
5428.00,1.35
5427.00,1.35
5426.00,1.35
5425.00,1.35
5424.00,1.35
5423.00,1.35
5422.00,1.35
5421.00,1.35
5420.00,1.35
5419.00,1.35
5418.00,1.35
5417.00,1.35
5416.00,1.35
5415.00,1.35
5414.00,1.35
5413.00,1.35
5412.00,1.35
5411.00,1.35
5410.00,1.35
5409.00,1.35
5408.00,1.35
5407.00,1.35
5406.00,1.35
5405.00,1.35
5404.00,1.35
5403.00,1.35
5402.00,1.35
5401.00,1.35
5400.00,1.35
5399.00,1.35
5398.00,1.35
5397.00,1.35
5396.00,1.35
5395.00,1.34
5394.00,1.34
5393.00,1.34
5392.00,1.34
5391.00,1.34
5390.00,1.34
5389.00,1.34
5388.00,1.33
5387.00,1.33
5386.00,1.33
5385.00,1.33
5384.00,1.32
5383.00,1.32
5382.00,1.32
5381.00,1.32
5380.00,1.31
5379.00,1.31
5378.00,1.31
5377.00,1.30
5376.00,1.30
5375.00,1.30
5374.00,1.29
5373.00,1.29
5372.00,1.29
5371.00,1.28
5370.00,1.28
5369.00,1.27
5368.00,1.27
5367.00,1.26
5366.00,1.26
5365.00,1.25
5364.00,1.25
5363.00,1.24
5362.00,1.24
5361.00,1.23
5360.00,1.23
5359.00,1.22
5358.00,1.21
5357.00,1.21
5356.00,1.20
5355.00,1.19
5354.00,1.18
5353.00,1.18
5352.00,1.17
5351.00,1.16
5350.00,1.15
5349.00,1.14
5348.00,1.13
5347.00,1.12
5346.00,1.11
5345.00,1.11
5344.00,1.10
5343.00,1.09
5342.00,1.08
5341.00,1.07
5340.00,1.06
5339.00,1.05
5338.00,1.04
5337.00,1.03
5336.00,1.02
5335.00,1.01
5334.00,1.00
5333.00,0.99
5332.00,0.98
5331.00,0.97
5330.00,0.96
5329.00,0.95
5328.00,0.94
5327.00,0.93
5326.00,0.92
5325.00,0.91
5324.00,0.90
5323.00,0.89
5322.00,0.88
5321.00,0.87
5320.00,0.86
5319.00,0.85
5318.00,0.84
5317.00,0.83
5316.00,0.82
5315.00,0.81
5314.00,0.80
5313.00,0.79
5312.00,0.78
5311.00,0.78
5310.00,0.77
5309.00,0.76
5308.00,0.75
5307.00,0.75
5306.00,0.74
5305.00,0.73
5304.00,0.73
5303.00,0.72
5302.00,0.71
5301.00,0.71
5300.00,0.70
5299.00,0.70
5298.00,0.70
5297.00,0.69
5296.00,0.69
5295.00,0.68
5294.00,0.68
5293.00,0.68
5292.00,0.67
5291.00,0.67
5290.00,0.67
5289.00,0.66
5288.00,0.66
5287.00,0.66
5286.00,0.66
5285.00,0.66
5284.00,0.65
5283.00,0.65
5282.00,0.65
5281.00,0.65
5280.00,0.65
5279.00,0.65
5278.00,0.65
5277.00,0.64
5276.00,0.64
5275.00,0.64
5274.00,0.64
5273.00,0.64
5272.00,0.64
5271.00,0.64
5270.00,0.64
5269.00,0.64
5268.00,0.63
5267.00,0.63
5266.00,0.63
5265.00,0.63
5264.00,0.63
5263.00,0.63
5262.00,0.63
5261.00,0.63
5260.00,0.63
5259.00,0.63
5258.00,0.63
5257.00,0.63
5256.00,0.63
5255.00,0.62
5254.00,0.62
5253.00,0.62
5252.00,0.62
5251.00,0.62
5250.00,0.62
5249.00,0.62
5248.00,0.62
5247.00,0.62
5246.00,0.62
5245.00,0.62
5244.00,0.62
5243.00,0.62
5242.00,0.62
5241.00,0.62
5240.00,0.62
5239.00,0.62
5238.00,0.62
5237.00,0.62
5236.00,0.62
5235.00,0.62
5234.00,0.62
5233.00,0.62
5232.00,0.62
5231.00,0.62
5230.00,0.62
5229.00,0.62
5228.00,0.63
5227.00,0.63
5226.00,0.63
5225.00,0.63
5224.00,0.63
5223.00,0.63
5222.00,0.63
5221.00,0.63
5220.00,0.63
5219.00,0.63
5218.00,0.63
5217.00,0.63
5216.00,0.63
5215.00,0.63
5214.00,0.63
5213.00,0.63
5212.00,0.63
5211.00,0.63
5210.00,0.63
5209.00,0.63
5208.00,0.63
5207.00,0.63
5206.00,0.63
5205.00,0.63
5204.00,0.63
5203.00,0.63
5202.00,0.64
5201.00,0.64
5200.00,0.64
5199.00,0.64
5198.00,0.64
5197.00,0.64
5196.00,0.64
5195.00,0.64
5194.00,0.64
5193.00,0.64
5192.00,0.64
5191.00,0.64
5190.00,0.64
5189.00,0.64
5188.00,0.64
5187.00,0.64
5186.00,0.64
5185.00,0.64
5184.00,0.64
5183.00,0.64
5182.00,0.64
5181.00,0.64
5180.00,0.64
5179.00,0.64
5178.00,0.64
5177.00,0.64
5176.00,0.64
5175.00,0.64
5174.00,0.65
5173.00,0.65
5172.00,0.65
5171.00,0.65
5170.00,0.65
5169.00,0.65
5168.00,0.65
5167.00,0.65
5166.00,0.65
5165.00,0.65
5164.00,0.65
5163.00,0.65
5162.00,0.66
5161.00,0.66
5160.00,0.66
5159.00,0.66
5158.00,0.66
5157.00,0.66
5156.00,0.66
5155.00,0.66
5154.00,0.66
5153.00,0.66
5152.00,0.66
5151.00,0.66
5150.00,0.66
5149.00,0.66
5148.00,0.66
5147.00,0.66
5146.00,0.66
5145.00,0.66
5144.00,0.66
5143.00,0.66
5142.00,0.66
5141.00,0.66
5140.00,0.66
5139.00,0.66
5138.00,0.66
5137.00,0.66
5136.00,0.66
5135.00,0.66
5134.00,0.66
5133.00,0.66
5132.00,0.66
5131.00,0.66
5130.00,0.66
5129.00,0.66
5128.00,0.66
5127.00,0.66
5126.00,0.66
5125.00,0.66
5124.00,0.66
5123.00,0.66
5122.00,0.66
5121.00,0.66
5120.00,0.67
5119.00,0.67
5118.00,0.67
5117.00,0.67
5116.00,0.67
5115.00,0.67
5114.00,0.67
5113.00,0.67
5112.00,0.67
5111.00,0.67
5110.00,0.67
5109.00,0.67
5108.00,0.67
5107.00,0.67
5106.00,0.67
5105.00,0.68
5104.00,0.68
5103.00,0.68
5102.00,0.68
5101.00,0.68
5100.00,0.68
5099.00,0.68
5098.00,0.68
5097.00,0.68
5096.00,0.68
5095.00,0.68
5094.00,0.68
5093.00,0.68
5092.00,0.68
5091.00,0.68
5090.00,0.68
5089.00,0.68
5088.00,0.69
5087.00,0.69
5086.00,0.69
5085.00,0.69
5084.00,0.69
5083.00,0.69
5082.00,0.69
5081.00,0.69
5080.00,0.69
5079.00,0.69
5078.00,0.69
5077.00,0.69
5076.00,0.69
5075.00,0.69
5074.00,0.69
5073.00,0.70
5072.00,0.70
5071.00,0.70
5070.00,0.70
5069.00,0.70
5068.00,0.70
5067.00,0.70
5066.00,0.70
5065.00,0.70
5064.00,0.70
5063.00,0.70
5062.00,0.70
5061.00,0.71
5060.00,0.71
5059.00,0.71
5058.00,0.71
5057.00,0.71
5056.00,0.71
5055.00,0.71
5054.00,0.71
5053.00,0.71
5052.00,0.71
5051.00,0.71
5050.00,0.71
5049.00,0.71
5048.00,0.71
5047.00,0.71
5046.00,0.71
5045.00,0.71
5044.00,0.71
5043.00,0.72
5042.00,0.72
5041.00,0.72
5040.00,0.72
5039.00,0.72
5038.00,0.72
5037.00,0.72
5036.00,0.72
5035.00,0.73
5034.00,0.73
5033.00,0.73
5032.00,0.73
5031.00,0.73
5030.00,0.73
5029.00,0.73
5028.00,0.73
5027.00,0.73
5026.00,0.73
5025.00,0.73
5024.00,0.73
5023.00,0.73
5022.00,0.73
5021.00,0.73
5020.00,0.73
5019.00,0.73
5018.00,0.73
5017.00,0.73
5016.00,0.74
5015.00,0.74
5014.00,0.74
5013.00,0.74
5012.00,0.74
5011.00,0.74
5010.00,0.74
5009.00,0.74
5008.00,0.74
5007.00,0.74
5006.00,0.74
5005.00,0.74
5004.00,0.75
5003.00,0.75
5002.00,0.75
5001.00,0.75
5000.00,0.75
4999.00,0.75
4998.00,0.75
4997.00,0.75
4996.00,0.76
4995.00,0.76
4994.00,0.76
4993.00,0.76
4992.00,0.76
4991.00,0.76
4990.00,0.76
4989.00,0.76
4988.00,0.76
4987.00,0.77
4986.00,0.77
4985.00,0.77
4984.00,0.77
4983.00,0.77
4982.00,0.77
4981.00,0.77
4980.00,0.77
4979.00,0.77
4978.00,0.77
4977.00,0.77
4976.00,0.77
4975.00,0.78
4974.00,0.78
4973.00,0.78
4972.00,0.78
4971.00,0.78
4970.00,0.78
4969.00,0.78
4968.00,0.78
4967.00,0.78
4966.00,0.78
4965.00,0.79
4964.00,0.79
4963.00,0.79
4962.00,0.79
4961.00,0.79
4960.00,0.79
4959.00,0.79
4958.00,0.79
4957.00,0.80
4956.00,0.80
4955.00,0.80
4954.00,0.80
4953.00,0.80
4952.00,0.80
4951.00,0.80
4950.00,0.80
4949.00,0.80
4948.00,0.81
4947.00,0.81
4946.00,0.81
4945.00,0.81
4944.00,0.81
4943.00,0.81
4942.00,0.81
4941.00,0.81
4940.00,0.81
4939.00,0.81
4938.00,0.81
4937.00,0.81
4936.00,0.81
4935.00,0.81
4934.00,0.81
4933.00,0.81
4932.00,0.81
4931.00,0.81
4930.00,0.82
4929.00,0.82
4928.00,0.82
4927.00,0.82
4926.00,0.82
4925.00,0.82
4924.00,0.82
4923.00,0.82
4922.00,0.82
4921.00,0.82
4920.00,0.82
4919.00,0.82
4918.00,0.82
4917.00,0.83
4916.00,0.83
4915.00,0.83
4914.00,0.83
4913.00,0.83
4912.00,0.83
4911.00,0.83
4910.00,0.83
4909.00,0.83
4908.00,0.83
4907.00,0.83
4906.00,0.83
4905.00,0.83
4904.00,0.84
4903.00,0.84
4902.00,0.84
4901.00,0.84
4900.00,0.84
4899.00,0.84
4898.00,0.84
4897.00,0.84
4896.00,0.84
4895.00,0.84
4894.00,0.84
4893.00,0.84
4892.00,0.84
4891.00,0.84
4890.00,0.84
4889.00,0.84
4888.00,0.84
4887.00,0.85
4886.00,0.85
4885.00,0.85
4884.00,0.85
4883.00,0.85
4882.00,0.85
4881.00,0.85
4880.00,0.85
4879.00,0.85
4878.00,0.85
4877.00,0.85
4876.00,0.85
4875.00,0.85
4874.00,0.85
4873.00,0.85
4872.00,0.85
4871.00,0.85
4870.00,0.86
4869.00,0.86
4868.00,0.86
4867.00,0.86
4866.00,0.86
4865.00,0.86
4864.00,0.86
4863.00,0.86
4862.00,0.86
4861.00,0.86
4860.00,0.86
4859.00,0.86
4858.00,0.86
4857.00,0.86
4856.00,0.86
4855.00,0.86
4854.00,0.86
4853.00,0.86
4852.00,0.86
4851.00,0.87
4850.00,0.87
4849.00,0.87
4848.00,0.87
4847.00,0.87
4846.00,0.87
4845.00,0.87
4844.00,0.87
4843.00,0.88
4842.00,0.88
4841.00,0.88
4840.00,0.88
4839.00,0.88
4838.00,0.88
4837.00,0.88
4836.00,0.88
4835.00,0.88
4834.00,0.88
4833.00,0.88
4832.00,0.88
4831.00,0.88
4830.00,0.88
4829.00,0.89
4828.00,0.89
4827.00,0.89
4826.00,0.89
4825.00,0.89
4824.00,0.89
4823.00,0.89
4822.00,0.89
4821.00,0.89
4820.00,0.89
4819.00,0.90
4818.00,0.90
4817.00,0.90
4816.00,0.90
4815.00,0.90
4814.00,0.90
4813.00,0.90
4812.00,0.91
4811.00,0.91
4810.00,0.91
4809.00,0.91
4808.00,0.91
4807.00,0.91
4806.00,0.91
4805.00,0.91
4804.00,0.92
4803.00,0.92
4802.00,0.92
4801.00,0.92
4800.00,0.92
4799.00,0.92
4798.00,0.92
4797.00,0.92
4796.00,0.93
4795.00,0.93
4794.00,0.93
4793.00,0.93
4792.00,0.93
4791.00,0.93
4790.00,0.93
4789.00,0.93
4788.00,0.94
4787.00,0.94
4786.00,0.94
4785.00,0.94
4784.00,0.94
4783.00,0.94
4782.00,0.94
4781.00,0.94
4780.00,0.95
4779.00,0.95
4778.00,0.95
4777.00,0.95
4776.00,0.95
4775.00,0.95
4774.00,0.96
4773.00,0.96
4772.00,0.96
4771.00,0.96
4770.00,0.96
4769.00,0.96
4768.00,0.97
4767.00,0.97
4766.00,0.97
4765.00,0.97
4764.00,0.97
4763.00,0.97
4762.00,0.98
4761.00,0.98
4760.00,0.98
4759.00,0.98
4758.00,0.98
4757.00,0.98
4756.00,0.99
4755.00,0.99
4754.00,0.99
4753.00,0.99
4752.00,0.99
4751.00,0.99
4750.00,0.99
4749.00,0.99
4748.00,0.99
4747.00,0.99
4746.00,0.99
4745.00,0.99
4744.00,0.99
4743.00,0.99
4742.00,0.99
4741.00,1.00
4740.00,1.00
4739.00,1.00
4738.00,1.00
4737.00,1.00
4736.00,1.00
4735.00,1.00
4734.00,1.00
4733.00,1.01
4732.00,1.01
4731.00,1.01
4730.00,1.01
4729.00,1.01
4728.00,1.01
4727.00,1.02
4726.00,1.02
4725.00,1.02
4724.00,1.02
4723.00,1.02
4722.00,1.03
4721.00,1.03
4720.00,1.03
4719.00,1.03
4718.00,1.03
4717.00,1.04
4716.00,1.04
4715.00,1.04
4714.00,1.04
4713.00,1.04
4712.00,1.04
4711.00,1.05
4710.00,1.05
4709.00,1.05
4708.00,1.05
4707.00,1.05
4706.00,1.05
4705.00,1.05
4704.00,1.06
4703.00,1.06
4702.00,1.06
4701.00,1.06
4700.00,1.06
4699.00,1.07
4698.00,1.07
4697.00,1.07
4696.00,1.07
4695.00,1.07
4694.00,1.08
4693.00,1.08
4692.00,1.08
4691.00,1.08
4690.00,1.08
4689.00,1.09
4688.00,1.09
4687.00,1.09
4686.00,1.09
4685.00,1.09
4684.00,1.09
4683.00,1.10
4682.00,1.10
4681.00,1.10
4680.00,1.10
4679.00,1.10
4678.00,1.10
4677.00,1.10
4676.00,1.11
4675.00,1.11
4674.00,1.11
4673.00,1.11
4672.00,1.11
4671.00,1.11
4670.00,1.12
4669.00,1.12
4668.00,1.12
4667.00,1.12
4666.00,1.12
4665.00,1.12
4664.00,1.13
4663.00,1.13
4662.00,1.13
4661.00,1.13
4660.00,1.13
4659.00,1.14
4658.00,1.14
4657.00,1.14
4656.00,1.14
4655.00,1.14
4654.00,1.14
4653.00,1.14
4652.00,1.14
4651.00,1.15
4650.00,1.15
4649.00,1.15
4648.00,1.15
4647.00,1.15
4646.00,1.15
4645.00,1.15
4644.00,1.15
4643.00,1.15
4642.00,1.15
4641.00,1.16
4640.00,1.16
4639.00,1.16
4638.00,1.16
4637.00,1.16
4636.00,1.16
4635.00,1.16
4634.00,1.16
4633.00,1.16
4632.00,1.16
4631.00,1.16
4630.00,1.16
4629.00,1.16
4628.00,1.16
4627.00,1.16
4626.00,1.17
4625.00,1.17
4624.00,1.17
4623.00,1.17
4622.00,1.17
4621.00,1.17
4620.00,1.17
4619.00,1.17
4618.00,1.17
4617.00,1.18
4616.00,1.18
4615.00,1.18
4614.00,1.18
4613.00,1.18
4612.00,1.18
4611.00,1.18
4610.00,1.18
4609.00,1.19
4608.00,1.19
4607.00,1.19
4606.00,1.19
4605.00,1.19
4604.00,1.19
4603.00,1.19
4602.00,1.19
4601.00,1.19
4600.00,1.20
4599.00,1.20
4598.00,1.20
4597.00,1.20
4596.00,1.20
4595.00,1.20
4594.00,1.20
4593.00,1.20
4592.00,1.20
4591.00,1.20
4590.00,1.20
4589.00,1.20
4588.00,1.20
4587.00,1.20
4586.00,1.20
4585.00,1.20
4584.00,1.20
4583.00,1.20
4582.00,1.20
4581.00,1.20
4580.00,1.20
4579.00,1.20
4578.00,1.21
4577.00,1.21
4576.00,1.21
4575.00,1.21
4574.00,1.21
4573.00,1.21
4572.00,1.21
4571.00,1.21
4570.00,1.21
4569.00,1.21
4568.00,1.21
4567.00,1.22
4566.00,1.22
4565.00,1.22
4564.00,1.22
4563.00,1.22
4562.00,1.22
4561.00,1.23
4560.00,1.23
4559.00,1.23
4558.00,1.23
4557.00,1.23
4556.00,1.23
4555.00,1.23
4554.00,1.24
4553.00,1.24
4552.00,1.24
4551.00,1.24
4550.00,1.24
4549.00,1.24
4548.00,1.24
4547.00,1.24
4546.00,1.24
4545.00,1.24
4544.00,1.24
4543.00,1.24
4542.00,1.25
4541.00,1.25
4540.00,1.25
4539.00,1.25
4538.00,1.25
4537.00,1.25
4536.00,1.25
4535.00,1.25
4534.00,1.25
4533.00,1.25
4532.00,1.25
4531.00,1.25
4530.00,1.25
4529.00,1.25
4528.00,1.25
4527.00,1.25
4526.00,1.25
4525.00,1.25
4524.00,1.25
4523.00,1.26
4522.00,1.26
4521.00,1.26
4520.00,1.26
4519.00,1.26
4518.00,1.26
4517.00,1.26
4516.00,1.26
4515.00,1.26
4514.00,1.26
4513.00,1.26
4512.00,1.26
4511.00,1.26
4510.00,1.26
4509.00,1.26
4508.00,1.26
4507.00,1.26
4506.00,1.26
4505.00,1.26
4504.00,1.26
4503.00,1.26
4502.00,1.26
4501.00,1.26
4500.00,1.26
4499.00,1.26
4498.00,1.26
4497.00,1.26
4496.00,1.26
4495.00,1.26
4494.00,1.26
4493.00,1.26
4492.00,1.26
4491.00,1.26
4490.00,1.25
4489.00,1.25
4488.00,1.25
4487.00,1.25
4486.00,1.25
4485.00,1.25
4484.00,1.25
4483.00,1.25
4482.00,1.25
4481.00,1.25
4480.00,1.24
4479.00,1.24
4478.00,1.24
4477.00,1.24
4476.00,1.24
4475.00,1.23
4474.00,1.23
4473.00,1.23
4472.00,1.23
4471.00,1.22
4470.00,1.22
4469.00,1.22
4468.00,1.21
4467.00,1.21
4466.00,1.21
4465.00,1.20
4464.00,1.20
4463.00,1.20
4462.00,1.19
4461.00,1.19
4460.00,1.19
4459.00,1.18
4458.00,1.18
4457.00,1.18
4456.00,1.17
4455.00,1.17
4454.00,1.16
4453.00,1.16
4452.00,1.16
4451.00,1.15
4450.00,1.15
4449.00,1.15
4448.00,1.14
4447.00,1.14
4446.00,1.13
4445.00,1.13
4444.00,1.13
4443.00,1.12
4442.00,1.12
4441.00,1.11
4440.00,1.11
4439.00,1.10
4438.00,1.10
4437.00,1.09
4436.00,1.09
4435.00,1.09
4434.00,1.08
4433.00,1.08
4432.00,1.07
4431.00,1.07
4430.00,1.07
4429.00,1.07
4428.00,1.06
4427.00,1.06
4426.00,1.06
4425.00,1.06
4424.00,1.05
4423.00,1.05
4422.00,1.05
4421.00,1.05
4420.00,1.05
4419.00,1.05
4418.00,1.05
4417.00,1.05
4416.00,1.05
4415.00,1.05
4414.00,1.04
4413.00,1.04
4412.00,1.04
4411.00,1.04
4410.00,1.04
4409.00,1.04
4408.00,1.04
4407.00,1.04
4406.00,1.04
4405.00,1.04
4404.00,1.04
4403.00,1.04
4402.00,1.04
4401.00,1.04
4400.00,1.05
4399.00,1.05
4398.00,1.05
4397.00,1.05
4396.00,1.05
4395.00,1.05
4394.00,1.05
4393.00,1.06
4392.00,1.06
4391.00,1.06
4390.00,1.06
4389.00,1.07
4388.00,1.07
4387.00,1.07
4386.00,1.07
4385.00,1.07
4384.00,1.08
4383.00,1.08
4382.00,1.08
4381.00,1.08
4380.00,1.08
4379.00,1.09
4378.00,1.09
4377.00,1.09
4376.00,1.09
4375.00,1.09
4374.00,1.09
4373.00,1.10
4372.00,1.10
4371.00,1.10
4370.00,1.10
4369.00,1.10
4368.00,1.10
4367.00,1.10
4366.00,1.10
4365.00,1.10
4364.00,1.10
4363.00,1.10
4362.00,1.10
4361.00,1.10
4360.00,1.10
4359.00,1.10
4358.00,1.10
4357.00,1.10
4356.00,1.10
4355.00,1.10
4354.00,1.10
4353.00,1.10
4352.00,1.10
4351.00,1.10
4350.00,1.10
4349.00,1.10
4348.00,1.10
4347.00,1.10
4346.00,1.10
4345.00,1.10
4344.00,1.10
4343.00,1.10
4342.00,1.10
4341.00,1.10
4340.00,1.10
4339.00,1.10
4338.00,1.10
4337.00,1.10
4336.00,1.10
4335.00,1.10
4334.00,1.10
4333.00,1.10
4332.00,1.10
4331.00,1.10
4330.00,1.10
4329.00,1.10
4328.00,1.10
4327.00,1.10
4326.00,1.10
4325.00,1.10
4324.00,1.11
4323.00,1.11
4322.00,1.11
4321.00,1.11
4320.00,1.11
4319.00,1.12
4318.00,1.12
4317.00,1.12
4316.00,1.13
4315.00,1.13
4314.00,1.13
4313.00,1.13
4312.00,1.14
4311.00,1.14
4310.00,1.14
4309.00,1.14
4308.00,1.15
4307.00,1.15
4306.00,1.15
4305.00,1.15
4304.00,1.15
4303.00,1.15
4302.00,1.16
4301.00,1.16
4300.00,1.16
4299.00,1.16
4298.00,1.16
4297.00,1.17
4296.00,1.17
4295.00,1.17
4294.00,1.17
4293.00,1.17
4292.00,1.18
4291.00,1.18
4290.00,1.18
4289.00,1.18
4288.00,1.18
4287.00,1.19
4286.00,1.19
4285.00,1.19
4284.00,1.19
4283.00,1.19
4282.00,1.19
4281.00,1.19
4280.00,1.19
4279.00,1.19
4278.00,1.19
4277.00,1.19
4276.00,1.19
4275.00,1.19
4274.00,1.19
4273.00,1.18
4272.00,1.18
4271.00,1.18
4270.00,1.18
4269.00,1.18
4268.00,1.18
4267.00,1.17
4266.00,1.17
4265.00,1.17
4264.00,1.17
4263.00,1.17
4262.00,1.17
4261.00,1.17
4260.00,1.17
4259.00,1.17
4258.00,1.17
4257.00,1.17
4256.00,1.17
4255.00,1.17
4254.00,1.17
4253.00,1.17
4252.00,1.17
4251.00,1.18
4250.00,1.18
4249.00,1.18
4248.00,1.18
4247.00,1.18
4246.00,1.18
4245.00,1.18
4244.00,1.19
4243.00,1.19
4242.00,1.19
4241.00,1.19
4240.00,1.19
4239.00,1.20
4238.00,1.20
4237.00,1.20
4236.00,1.20
4235.00,1.21
4234.00,1.21
4233.00,1.21
4232.00,1.21
4231.00,1.22
4230.00,1.22
4229.00,1.22
4228.00,1.22
4227.00,1.22
4226.00,1.23
4225.00,1.23
4224.00,1.23
4223.00,1.23
4222.00,1.23
4221.00,1.23
4220.00,1.23
4219.00,1.23
4218.00,1.23
4217.00,1.23
4216.00,1.23
4215.00,1.23
4214.00,1.23
4213.00,1.22
4212.00,1.22
4211.00,1.22
4210.00,1.22
4209.00,1.22
4208.00,1.22
4207.00,1.22
4206.00,1.22
4205.00,1.22
4204.00,1.22
4203.00,1.22
4202.00,1.22
4201.00,1.22
4200.00,1.22
4199.00,1.22
4198.00,1.22
4197.00,1.22
4196.00,1.22
4195.00,1.23
4194.00,1.23
4193.00,1.23
4192.00,1.23
4191.00,1.23
4190.00,1.23
4189.00,1.23
4188.00,1.23
4187.00,1.23
4186.00,1.23
4185.00,1.23
4184.00,1.24
4183.00,1.24
4182.00,1.24
4181.00,1.24
4180.00,1.24
4179.00,1.24
4178.00,1.24
4177.00,1.24
4176.00,1.24
4175.00,1.24
4174.00,1.24
4173.00,1.24
4172.00,1.24
4171.00,1.24
4170.00,1.24
4169.00,1.24
4168.00,1.24
4167.00,1.24
4166.00,1.24
4165.00,1.24
4164.00,1.24
4163.00,1.24
4162.00,1.25
4161.00,1.25
4160.00,1.25
4159.00,1.25
4158.00,1.25
4157.00,1.25
4156.00,1.25
4155.00,1.25
4154.00,1.25
4153.00,1.25
4152.00,1.25
4151.00,1.25
4150.00,1.25
4149.00,1.25
4148.00,1.25
4147.00,1.25
4146.00,1.25
4145.00,1.25
4144.00,1.25
4143.00,1.25
4142.00,1.25
4141.00,1.25
4140.00,1.25
4139.00,1.25
4138.00,1.25
4137.00,1.25
4136.00,1.25
4135.00,1.25
4134.00,1.25
4133.00,1.25
4132.00,1.25
4131.00,1.25
4130.00,1.25
4129.00,1.25
4128.00,1.25
4127.00,1.26
4126.00,1.26
4125.00,1.26
4124.00,1.26
4123.00,1.26
4122.00,1.27
4121.00,1.27
4120.00,1.27
4119.00,1.27
4118.00,1.28
4117.00,1.28
4116.00,1.28
4115.00,1.28
4114.00,1.28
4113.00,1.28
4112.00,1.28
4111.00,1.28
4110.00,1.28
4109.00,1.28
4108.00,1.28
4107.00,1.28
4106.00,1.28
4105.00,1.28
4104.00,1.28
4103.00,1.27
4102.00,1.27
4101.00,1.27
4100.00,1.27
4099.00,1.27
4098.00,1.27
4097.00,1.27
4096.00,1.27
4095.00,1.27
4094.00,1.27
4093.00,1.27
4092.00,1.27
4091.00,1.27
4090.00,1.27
4089.00,1.26
4088.00,1.26
4087.00,1.26
4086.00,1.26
4085.00,1.26
4084.00,1.26
4083.00,1.27
4082.00,1.27
4081.00,1.27
4080.00,1.27
4079.00,1.27
4078.00,1.27
4077.00,1.27
4076.00,1.27
4075.00,1.27
4074.00,1.27
4073.00,1.27
4072.00,1.27
4071.00,1.28
4070.00,1.28
4069.00,1.28
4068.00,1.28
4067.00,1.28
4066.00,1.28
4065.00,1.28
4064.00,1.28
4063.00,1.29
4062.00,1.29
4061.00,1.29
4060.00,1.29
4059.00,1.29
4058.00,1.29
4057.00,1.30
4056.00,1.30
4055.00,1.30
4054.00,1.30
4053.00,1.30
4052.00,1.30
4051.00,1.30
4050.00,1.30
4049.00,1.30
4048.00,1.30
4047.00,1.30
4046.00,1.30
4045.00,1.30
4044.00,1.30
4043.00,1.30
4042.00,1.30
4041.00,1.30
4040.00,1.30
4039.00,1.30
4038.00,1.30
4037.00,1.30
4036.00,1.31
4035.00,1.31
4034.00,1.31
4033.00,1.31
4032.00,1.31
4031.00,1.31
4030.00,1.32
4029.00,1.32
4028.00,1.32
4027.00,1.33
4026.00,1.33
4025.00,1.33
4024.00,1.33
4023.00,1.34
4022.00,1.34
4021.00,1.34
4020.00,1.34
4019.00,1.35
4018.00,1.35
4017.00,1.35
4016.00,1.35
4015.00,1.35
4014.00,1.35
4013.00,1.35
4012.00,1.35
4011.00,1.35
4010.00,1.35
4009.00,1.35
4008.00,1.35
4007.00,1.35
4006.00,1.35
4005.00,1.35
4004.00,1.35
4003.00,1.35
4002.00,1.35
4001.00,1.35
4000.00,1.35
