创建为新数据集,样品 657 用户 Administrator 日期 星期四, 七月 19 2018
cm-1,%T
10000.00,1.34
9999.00,1.34
9998.00,1.34
9997.00,1.33
9996.00,1.33
9995.00,1.33
9994.00,1.33
9993.00,1.33
9992.00,1.33
9991.00,1.33
9990.00,1.33
9989.00,1.33
9988.00,1.33
9987.00,1.33
9986.00,1.34
9985.00,1.34
9984.00,1.34
9983.00,1.34
9982.00,1.34
9981.00,1.34
9980.00,1.34
9979.00,1.34
9978.00,1.34
9977.00,1.34
9976.00,1.34
9975.00,1.33
9974.00,1.33
9973.00,1.33
9972.00,1.33
9971.00,1.33
9970.00,1.33
9969.00,1.32
9968.00,1.32
9967.00,1.32
9966.00,1.32
9965.00,1.32
9964.00,1.32
9963.00,1.32
9962.00,1.32
9961.00,1.32
9960.00,1.32
9959.00,1.32
9958.00,1.32
9957.00,1.32
9956.00,1.32
9955.00,1.32
9954.00,1.32
9953.00,1.32
9952.00,1.32
9951.00,1.32
9950.00,1.32
9949.00,1.32
9948.00,1.32
9947.00,1.32
9946.00,1.32
9945.00,1.32
9944.00,1.31
9943.00,1.31
9942.00,1.31
9941.00,1.31
9940.00,1.31
9939.00,1.31
9938.00,1.31
9937.00,1.30
9936.00,1.30
9935.00,1.31
9934.00,1.31
9933.00,1.31
9932.00,1.31
9931.00,1.31
9930.00,1.31
9929.00,1.31
9928.00,1.31
9927.00,1.31
9926.00,1.32
9925.00,1.32
9924.00,1.32
9923.00,1.32
9922.00,1.32
9921.00,1.32
9920.00,1.32
9919.00,1.32
9918.00,1.32
9917.00,1.32
9916.00,1.32
9915.00,1.32
9914.00,1.32
9913.00,1.32
9912.00,1.32
9911.00,1.32
9910.00,1.32
9909.00,1.32
9908.00,1.32
9907.00,1.32
9906.00,1.32
9905.00,1.32
9904.00,1.32
9903.00,1.32
9902.00,1.32
9901.00,1.32
9900.00,1.32
9899.00,1.32
9898.00,1.32
9897.00,1.32
9896.00,1.32
9895.00,1.32
9894.00,1.32
9893.00,1.33
9892.00,1.33
9891.00,1.33
9890.00,1.33
9889.00,1.33
9888.00,1.33
9887.00,1.33
9886.00,1.33
9885.00,1.33
9884.00,1.33
9883.00,1.33
9882.00,1.33
9881.00,1.33
9880.00,1.33
9879.00,1.33
9878.00,1.33
9877.00,1.33
9876.00,1.33
9875.00,1.32
9874.00,1.32
9873.00,1.32
9872.00,1.32
9871.00,1.32
9870.00,1.32
9869.00,1.32
9868.00,1.32
9867.00,1.32
9866.00,1.32
9865.00,1.33
9864.00,1.33
9863.00,1.33
9862.00,1.33
9861.00,1.33
9860.00,1.33
9859.00,1.33
9858.00,1.33
9857.00,1.33
9856.00,1.33
9855.00,1.33
9854.00,1.33
9853.00,1.33
9852.00,1.33
9851.00,1.33
9850.00,1.32
9849.00,1.32
9848.00,1.32
9847.00,1.32
9846.00,1.32
9845.00,1.31
9844.00,1.31
9843.00,1.31
9842.00,1.30
9841.00,1.30
9840.00,1.30
9839.00,1.30
9838.00,1.29
9837.00,1.29
9836.00,1.29
9835.00,1.29
9834.00,1.29
9833.00,1.29
9832.00,1.29
9831.00,1.29
9830.00,1.29
9829.00,1.29
9828.00,1.29
9827.00,1.29
9826.00,1.30
9825.00,1.30
9824.00,1.30
9823.00,1.30
9822.00,1.30
9821.00,1.31
9820.00,1.31
9819.00,1.31
9818.00,1.31
9817.00,1.31
9816.00,1.31
9815.00,1.32
9814.00,1.32
9813.00,1.32
9812.00,1.32
9811.00,1.32
9810.00,1.32
9809.00,1.32
9808.00,1.32
9807.00,1.32
9806.00,1.32
9805.00,1.32
9804.00,1.32
9803.00,1.32
9802.00,1.32
9801.00,1.32
9800.00,1.32
9799.00,1.32
9798.00,1.32
9797.00,1.32
9796.00,1.32
9795.00,1.32
9794.00,1.31
9793.00,1.31
9792.00,1.31
9791.00,1.31
9790.00,1.30
9789.00,1.30
9788.00,1.30
9787.00,1.30
9786.00,1.30
9785.00,1.30
9784.00,1.29
9783.00,1.29
9782.00,1.29
9781.00,1.29
9780.00,1.29
9779.00,1.29
9778.00,1.29
9777.00,1.29
9776.00,1.29
9775.00,1.29
9774.00,1.30
9773.00,1.30
9772.00,1.30
9771.00,1.30
9770.00,1.30
9769.00,1.30
9768.00,1.30
9767.00,1.30
9766.00,1.30
9765.00,1.30
9764.00,1.30
9763.00,1.30
9762.00,1.30
9761.00,1.30
9760.00,1.30
9759.00,1.30
9758.00,1.30
9757.00,1.30
9756.00,1.30
9755.00,1.30
9754.00,1.30
9753.00,1.30
9752.00,1.30
9751.00,1.30
9750.00,1.30
9749.00,1.30
9748.00,1.30
9747.00,1.30
9746.00,1.30
9745.00,1.30
9744.00,1.30
9743.00,1.30
9742.00,1.30
9741.00,1.30
9740.00,1.30
9739.00,1.30
9738.00,1.30
9737.00,1.30
9736.00,1.30
9735.00,1.30
9734.00,1.30
9733.00,1.30
9732.00,1.30
9731.00,1.30
9730.00,1.30
9729.00,1.30
9728.00,1.31
9727.00,1.31
9726.00,1.31
9725.00,1.31
9724.00,1.31
9723.00,1.31
9722.00,1.32
9721.00,1.32
9720.00,1.32
9719.00,1.32
9718.00,1.32
9717.00,1.32
9716.00,1.32
9715.00,1.32
9714.00,1.32
9713.00,1.32
9712.00,1.32
9711.00,1.32
9710.00,1.32
9709.00,1.32
9708.00,1.31
9707.00,1.31
9706.00,1.31
9705.00,1.31
9704.00,1.30
9703.00,1.30
9702.00,1.30
9701.00,1.30
9700.00,1.30
9699.00,1.29
9698.00,1.29
9697.00,1.29
9696.00,1.29
9695.00,1.29
9694.00,1.29
9693.00,1.29
9692.00,1.29
9691.00,1.29
9690.00,1.29
9689.00,1.29
9688.00,1.29
9687.00,1.29
9686.00,1.29
9685.00,1.29
9684.00,1.30
9683.00,1.30
9682.00,1.30
9681.00,1.30
9680.00,1.30
9679.00,1.30
9678.00,1.30
9677.00,1.30
9676.00,1.30
9675.00,1.31
9674.00,1.31
9673.00,1.31
9672.00,1.31
9671.00,1.31
9670.00,1.31
9669.00,1.32
9668.00,1.32
9667.00,1.32
9666.00,1.32
9665.00,1.32
9664.00,1.32
9663.00,1.32
9662.00,1.32
9661.00,1.32
9660.00,1.32
9659.00,1.31
9658.00,1.31
9657.00,1.31
9656.00,1.31
9655.00,1.31
9654.00,1.31
9653.00,1.31
9652.00,1.31
9651.00,1.30
9650.00,1.30
9649.00,1.30
9648.00,1.30
9647.00,1.30
9646.00,1.30
9645.00,1.30
9644.00,1.30
9643.00,1.30
9642.00,1.30
9641.00,1.30
9640.00,1.30
9639.00,1.30
9638.00,1.30
9637.00,1.30
9636.00,1.30
9635.00,1.30
9634.00,1.31
9633.00,1.31
9632.00,1.31
9631.00,1.31
9630.00,1.31
9629.00,1.31
9628.00,1.30
9627.00,1.30
9626.00,1.30
9625.00,1.30
9624.00,1.30
9623.00,1.30
9622.00,1.30
9621.00,1.30
9620.00,1.30
9619.00,1.30
9618.00,1.30
9617.00,1.29
9616.00,1.29
9615.00,1.29
9614.00,1.29
9613.00,1.29
9612.00,1.29
9611.00,1.30
9610.00,1.30
9609.00,1.30
9608.00,1.30
9607.00,1.30
9606.00,1.30
9605.00,1.30
9604.00,1.30
9603.00,1.31
9602.00,1.31
9601.00,1.31
9600.00,1.31
9599.00,1.32
9598.00,1.32
9597.00,1.32
9596.00,1.32
9595.00,1.33
9594.00,1.33
9593.00,1.33
9592.00,1.33
9591.00,1.33
9590.00,1.34
9589.00,1.34
9588.00,1.34
9587.00,1.34
9586.00,1.34
9585.00,1.34
9584.00,1.33
9583.00,1.33
9582.00,1.33
9581.00,1.33
9580.00,1.33
9579.00,1.33
9578.00,1.33
9577.00,1.32
9576.00,1.32
9575.00,1.32
9574.00,1.32
9573.00,1.32
9572.00,1.32
9571.00,1.32
9570.00,1.32
9569.00,1.32
9568.00,1.32
9567.00,1.32
9566.00,1.31
9565.00,1.31
9564.00,1.31
9563.00,1.31
9562.00,1.31
9561.00,1.31
9560.00,1.31
9559.00,1.31
9558.00,1.31
9557.00,1.31
9556.00,1.31
9555.00,1.31
9554.00,1.30
9553.00,1.30
9552.00,1.30
9551.00,1.30
9550.00,1.30
9549.00,1.30
9548.00,1.30
9547.00,1.30
9546.00,1.30
9545.00,1.30
9544.00,1.30
9543.00,1.30
9542.00,1.30
9541.00,1.30
9540.00,1.30
9539.00,1.30
9538.00,1.30
9537.00,1.30
9536.00,1.30
9535.00,1.31
9534.00,1.31
9533.00,1.31
9532.00,1.31
9531.00,1.31
9530.00,1.31
9529.00,1.31
9528.00,1.32
9527.00,1.32
9526.00,1.32
9525.00,1.32
9524.00,1.32
9523.00,1.32
9522.00,1.32
9521.00,1.32
9520.00,1.31
9519.00,1.31
9518.00,1.31
9517.00,1.31
9516.00,1.31
9515.00,1.31
9514.00,1.31
9513.00,1.31
9512.00,1.30
9511.00,1.30
9510.00,1.30
9509.00,1.30
9508.00,1.30
9507.00,1.30
9506.00,1.31
9505.00,1.31
9504.00,1.31
9503.00,1.31
9502.00,1.31
9501.00,1.31
9500.00,1.31
9499.00,1.31
9498.00,1.31
9497.00,1.31
9496.00,1.31
9495.00,1.31
9494.00,1.32
9493.00,1.32
9492.00,1.32
9491.00,1.32
9490.00,1.32
9489.00,1.32
9488.00,1.32
9487.00,1.32
9486.00,1.32
9485.00,1.32
9484.00,1.32
9483.00,1.32
9482.00,1.32
9481.00,1.32
9480.00,1.32
9479.00,1.32
9478.00,1.32
9477.00,1.32
9476.00,1.31
9475.00,1.31
9474.00,1.31
9473.00,1.31
9472.00,1.31
9471.00,1.31
9470.00,1.31
9469.00,1.31
9468.00,1.31
9467.00,1.31
9466.00,1.31
9465.00,1.31
9464.00,1.31
9463.00,1.31
9462.00,1.31
9461.00,1.31
9460.00,1.31
9459.00,1.31
9458.00,1.31
9457.00,1.31
9456.00,1.31
9455.00,1.31
9454.00,1.31
9453.00,1.32
9452.00,1.32
9451.00,1.32
9450.00,1.32
9449.00,1.32
9448.00,1.32
9447.00,1.32
9446.00,1.32
9445.00,1.32
9444.00,1.32
9443.00,1.32
9442.00,1.32
9441.00,1.32
9440.00,1.32
9439.00,1.32
9438.00,1.32
9437.00,1.32
9436.00,1.31
9435.00,1.31
9434.00,1.31
9433.00,1.31
9432.00,1.31
9431.00,1.31
9430.00,1.31
9429.00,1.31
9428.00,1.31
9427.00,1.31
9426.00,1.31
9425.00,1.31
9424.00,1.31
9423.00,1.31
9422.00,1.31
9421.00,1.31
9420.00,1.31
9419.00,1.30
9418.00,1.30
9417.00,1.30
9416.00,1.30
9415.00,1.30
9414.00,1.30
9413.00,1.31
9412.00,1.31
9411.00,1.31
9410.00,1.31
9409.00,1.31
9408.00,1.31
9407.00,1.32
9406.00,1.32
9405.00,1.32
9404.00,1.32
9403.00,1.33
9402.00,1.33
9401.00,1.33
9400.00,1.33
9399.00,1.33
9398.00,1.33
9397.00,1.33
9396.00,1.33
9395.00,1.33
9394.00,1.33
9393.00,1.32
9392.00,1.32
9391.00,1.32
9390.00,1.32
9389.00,1.32
9388.00,1.32
9387.00,1.31
9386.00,1.31
9385.00,1.31
9384.00,1.31
9383.00,1.31
9382.00,1.31
9381.00,1.31
9380.00,1.31
9379.00,1.31
9378.00,1.32
9377.00,1.32
9376.00,1.32
9375.00,1.32
9374.00,1.32
9373.00,1.32
9372.00,1.33
9371.00,1.33
9370.00,1.33
9369.00,1.33
9368.00,1.33
9367.00,1.33
9366.00,1.33
9365.00,1.33
9364.00,1.33
9363.00,1.33
9362.00,1.33
9361.00,1.33
9360.00,1.32
9359.00,1.32
9358.00,1.32
9357.00,1.32
9356.00,1.32
9355.00,1.32
9354.00,1.31
9353.00,1.31
9352.00,1.31
9351.00,1.31
9350.00,1.31
9349.00,1.31
9348.00,1.31
9347.00,1.31
9346.00,1.31
9345.00,1.31
9344.00,1.31
9343.00,1.31
9342.00,1.31
9341.00,1.31
9340.00,1.30
9339.00,1.30
9338.00,1.30
9337.00,1.30
9336.00,1.30
9335.00,1.30
9334.00,1.30
9333.00,1.30
9332.00,1.30
9331.00,1.29
9330.00,1.29
9329.00,1.29
9328.00,1.29
9327.00,1.29
9326.00,1.29
9325.00,1.29
9324.00,1.29
9323.00,1.29
9322.00,1.29
9321.00,1.29
9320.00,1.28
9319.00,1.28
9318.00,1.28
9317.00,1.29
9316.00,1.29
9315.00,1.29
9314.00,1.29
9313.00,1.29
9312.00,1.29
9311.00,1.29
9310.00,1.29
9309.00,1.29
9308.00,1.29
9307.00,1.30
9306.00,1.30
9305.00,1.30
9304.00,1.30
9303.00,1.30
9302.00,1.30
9301.00,1.31
9300.00,1.31
9299.00,1.31
9298.00,1.31
9297.00,1.31
9296.00,1.31
9295.00,1.31
9294.00,1.31
9293.00,1.31
9292.00,1.31
9291.00,1.31
9290.00,1.31
9289.00,1.31
9288.00,1.31
9287.00,1.31
9286.00,1.31
9285.00,1.31
9284.00,1.31
9283.00,1.31
9282.00,1.31
9281.00,1.31
9280.00,1.32
9279.00,1.32
9278.00,1.32
9277.00,1.32
9276.00,1.32
9275.00,1.32
9274.00,1.33
9273.00,1.33
9272.00,1.33
9271.00,1.33
9270.00,1.33
9269.00,1.33
9268.00,1.33
9267.00,1.33
9266.00,1.33
9265.00,1.33
9264.00,1.33
9263.00,1.33
9262.00,1.33
9261.00,1.33
9260.00,1.33
9259.00,1.33
9258.00,1.33
9257.00,1.33
9256.00,1.33
9255.00,1.33
9254.00,1.33
9253.00,1.33
9252.00,1.33
9251.00,1.33
9250.00,1.33
9249.00,1.33
9248.00,1.33
9247.00,1.33
9246.00,1.33
9245.00,1.33
9244.00,1.33
9243.00,1.33
9242.00,1.33
9241.00,1.33
9240.00,1.33
9239.00,1.33
9238.00,1.33
9237.00,1.33
9236.00,1.33
9235.00,1.32
9234.00,1.32
9233.00,1.32
9232.00,1.32
9231.00,1.32
9230.00,1.32
9229.00,1.32
9228.00,1.32
9227.00,1.31
9226.00,1.31
9225.00,1.31
9224.00,1.31
9223.00,1.31
9222.00,1.31
9221.00,1.31
9220.00,1.31
9219.00,1.31
9218.00,1.31
9217.00,1.32
9216.00,1.32
9215.00,1.32
9214.00,1.32
9213.00,1.32
9212.00,1.32
9211.00,1.32
9210.00,1.32
9209.00,1.32
9208.00,1.32
9207.00,1.32
9206.00,1.32
9205.00,1.32
9204.00,1.32
9203.00,1.32
9202.00,1.32
9201.00,1.32
9200.00,1.32
9199.00,1.32
9198.00,1.32
9197.00,1.32
9196.00,1.32
9195.00,1.32
9194.00,1.32
9193.00,1.32
9192.00,1.32
9191.00,1.31
9190.00,1.31
9189.00,1.31
9188.00,1.31
9187.00,1.31
9186.00,1.31
9185.00,1.31
9184.00,1.31
9183.00,1.31
9182.00,1.31
9181.00,1.31
9180.00,1.32
9179.00,1.32
9178.00,1.32
9177.00,1.32
9176.00,1.32
9175.00,1.32
9174.00,1.32
9173.00,1.32
9172.00,1.32
9171.00,1.32
9170.00,1.32
9169.00,1.32
9168.00,1.32
9167.00,1.32
9166.00,1.31
9165.00,1.31
9164.00,1.31
9163.00,1.31
9162.00,1.31
9161.00,1.31
9160.00,1.31
9159.00,1.31
9158.00,1.31
9157.00,1.31
9156.00,1.31
9155.00,1.31
9154.00,1.31
9153.00,1.31
9152.00,1.31
9151.00,1.31
9150.00,1.31
9149.00,1.31
9148.00,1.31
9147.00,1.31
9146.00,1.31
9145.00,1.31
9144.00,1.31
9143.00,1.31
9142.00,1.31
9141.00,1.31
9140.00,1.31
9139.00,1.31
9138.00,1.31
9137.00,1.31
9136.00,1.31
9135.00,1.31
9134.00,1.31
9133.00,1.32
9132.00,1.32
9131.00,1.32
9130.00,1.32
9129.00,1.32
9128.00,1.32
9127.00,1.32
9126.00,1.31
9125.00,1.31
9124.00,1.31
9123.00,1.31
9122.00,1.31
9121.00,1.31
9120.00,1.31
9119.00,1.31
9118.00,1.31
9117.00,1.31
9116.00,1.31
9115.00,1.31
9114.00,1.31
9113.00,1.31
9112.00,1.31
9111.00,1.31
9110.00,1.31
9109.00,1.31
9108.00,1.31
9107.00,1.32
9106.00,1.32
9105.00,1.32
9104.00,1.32
9103.00,1.32
9102.00,1.32
9101.00,1.32
9100.00,1.32
9099.00,1.32
9098.00,1.32
9097.00,1.32
9096.00,1.32
9095.00,1.32
9094.00,1.32
9093.00,1.32
9092.00,1.32
9091.00,1.32
9090.00,1.32
9089.00,1.32
9088.00,1.32
9087.00,1.32
9086.00,1.32
9085.00,1.32
9084.00,1.32
9083.00,1.32
9082.00,1.32
9081.00,1.32
9080.00,1.32
9079.00,1.32
9078.00,1.32
9077.00,1.32
9076.00,1.33
9075.00,1.33
9074.00,1.33
9073.00,1.33
9072.00,1.33
9071.00,1.33
9070.00,1.33
9069.00,1.33
9068.00,1.33
9067.00,1.33
9066.00,1.34
9065.00,1.34
9064.00,1.34
9063.00,1.34
9062.00,1.34
9061.00,1.34
9060.00,1.34
9059.00,1.33
9058.00,1.33
9057.00,1.33
9056.00,1.33
9055.00,1.33
9054.00,1.33
9053.00,1.33
9052.00,1.33
9051.00,1.33
9050.00,1.32
9049.00,1.32
9048.00,1.32
9047.00,1.32
9046.00,1.32
9045.00,1.32
9044.00,1.33
9043.00,1.33
9042.00,1.33
9041.00,1.33
9040.00,1.33
9039.00,1.33
9038.00,1.33
9037.00,1.33
9036.00,1.33
9035.00,1.33
9034.00,1.33
9033.00,1.33
9032.00,1.32
9031.00,1.32
9030.00,1.32
9029.00,1.32
9028.00,1.32
9027.00,1.32
9026.00,1.32
9025.00,1.32
9024.00,1.32
9023.00,1.32
9022.00,1.32
9021.00,1.32
9020.00,1.32
9019.00,1.32
9018.00,1.32
9017.00,1.32
9016.00,1.32
9015.00,1.32
9014.00,1.33
9013.00,1.33
9012.00,1.33
9011.00,1.33
9010.00,1.33
9009.00,1.33
9008.00,1.33
9007.00,1.33
9006.00,1.33
9005.00,1.33
9004.00,1.33
9003.00,1.33
9002.00,1.34
9001.00,1.34
9000.00,1.34
8999.00,1.33
8998.00,1.33
8997.00,1.33
8996.00,1.33
8995.00,1.33
8994.00,1.33
8993.00,1.33
8992.00,1.33
8991.00,1.33
8990.00,1.33
8989.00,1.33
8988.00,1.33
8987.00,1.32
8986.00,1.32
8985.00,1.32
8984.00,1.32
8983.00,1.32
8982.00,1.32
8981.00,1.32
8980.00,1.32
8979.00,1.32
8978.00,1.32
8977.00,1.32
8976.00,1.32
8975.00,1.32
8974.00,1.32
8973.00,1.32
8972.00,1.32
8971.00,1.32
8970.00,1.32
8969.00,1.32
8968.00,1.32
8967.00,1.32
8966.00,1.32
8965.00,1.32
8964.00,1.32
8963.00,1.32
8962.00,1.32
8961.00,1.32
8960.00,1.32
8959.00,1.32
8958.00,1.32
8957.00,1.32
8956.00,1.32
8955.00,1.32
8954.00,1.32
8953.00,1.32
8952.00,1.32
8951.00,1.32
8950.00,1.32
8949.00,1.32
8948.00,1.32
8947.00,1.32
8946.00,1.32
8945.00,1.31
8944.00,1.31
8943.00,1.31
8942.00,1.31
8941.00,1.31
8940.00,1.31
8939.00,1.31
8938.00,1.31
8937.00,1.31
8936.00,1.31
8935.00,1.31
8934.00,1.31
8933.00,1.31
8932.00,1.31
8931.00,1.31
8930.00,1.31
8929.00,1.31
8928.00,1.31
8927.00,1.31
8926.00,1.31
8925.00,1.31
8924.00,1.31
8923.00,1.31
8922.00,1.31
8921.00,1.31
8920.00,1.31
8919.00,1.31
8918.00,1.31
8917.00,1.31
8916.00,1.31
8915.00,1.32
8914.00,1.32
8913.00,1.32
8912.00,1.32
8911.00,1.32
8910.00,1.32
8909.00,1.33
8908.00,1.33
8907.00,1.33
8906.00,1.33
8905.00,1.33
8904.00,1.33
8903.00,1.33
8902.00,1.33
8901.00,1.33
8900.00,1.33
8899.00,1.33
8898.00,1.33
8897.00,1.33
8896.00,1.33
8895.00,1.34
8894.00,1.34
8893.00,1.34
8892.00,1.34
8891.00,1.34
8890.00,1.34
8889.00,1.34
8888.00,1.34
8887.00,1.33
8886.00,1.33
8885.00,1.33
8884.00,1.33
8883.00,1.33
8882.00,1.33
8881.00,1.33
8880.00,1.33
8879.00,1.33
8878.00,1.33
8877.00,1.33
8876.00,1.33
8875.00,1.33
8874.00,1.33
8873.00,1.33
8872.00,1.33
8871.00,1.33
8870.00,1.33
8869.00,1.33
8868.00,1.33
8867.00,1.33
8866.00,1.33
8865.00,1.33
8864.00,1.33
8863.00,1.33
8862.00,1.33
8861.00,1.33
8860.00,1.33
8859.00,1.33
8858.00,1.33
8857.00,1.33
8856.00,1.32
8855.00,1.32
8854.00,1.32
8853.00,1.32
8852.00,1.32
8851.00,1.32
8850.00,1.32
8849.00,1.31
8848.00,1.31
8847.00,1.31
8846.00,1.31
8845.00,1.31
8844.00,1.31
8843.00,1.31
8842.00,1.31
8841.00,1.31
8840.00,1.31
8839.00,1.31
8838.00,1.31
8837.00,1.31
8836.00,1.31
8835.00,1.31
8834.00,1.31
8833.00,1.31
8832.00,1.31
8831.00,1.31
8830.00,1.31
8829.00,1.31
8828.00,1.31
8827.00,1.31
8826.00,1.30
8825.00,1.30
8824.00,1.30
8823.00,1.30
8822.00,1.30
8821.00,1.30
8820.00,1.30
8819.00,1.30
8818.00,1.30
8817.00,1.30
8816.00,1.30
8815.00,1.30
8814.00,1.29
8813.00,1.29
8812.00,1.29
8811.00,1.29
8810.00,1.29
8809.00,1.29
8808.00,1.29
8807.00,1.29
8806.00,1.29
8805.00,1.29
8804.00,1.29
8803.00,1.29
8802.00,1.29
8801.00,1.29
8800.00,1.29
8799.00,1.30
8798.00,1.30
8797.00,1.30
8796.00,1.30
8795.00,1.30
8794.00,1.30
8793.00,1.30
8792.00,1.30
8791.00,1.30
8790.00,1.30
8789.00,1.30
8788.00,1.30
8787.00,1.30
8786.00,1.30
8785.00,1.29
8784.00,1.29
8783.00,1.29
8782.00,1.29
8781.00,1.29
8780.00,1.29
8779.00,1.29
8778.00,1.29
8777.00,1.29
8776.00,1.29
8775.00,1.29
8774.00,1.29
8773.00,1.29
8772.00,1.29
8771.00,1.29
8770.00,1.28
8769.00,1.28
8768.00,1.28
8767.00,1.29
8766.00,1.29
8765.00,1.29
8764.00,1.29
8763.00,1.29
8762.00,1.29
8761.00,1.29
8760.00,1.29
8759.00,1.29
8758.00,1.29
8757.00,1.29
8756.00,1.29
8755.00,1.30
8754.00,1.30
8753.00,1.30
8752.00,1.30
8751.00,1.30
8750.00,1.30
8749.00,1.30
8748.00,1.30
8747.00,1.30
8746.00,1.30
8745.00,1.30
8744.00,1.29
8743.00,1.29
8742.00,1.29
8741.00,1.29
8740.00,1.29
8739.00,1.29
8738.00,1.29
8737.00,1.29
8736.00,1.29
8735.00,1.29
8734.00,1.29
8733.00,1.29
8732.00,1.29
8731.00,1.29
8730.00,1.28
8729.00,1.28
8728.00,1.28
8727.00,1.28
8726.00,1.28
8725.00,1.28
8724.00,1.28
8723.00,1.27
8722.00,1.27
8721.00,1.27
8720.00,1.27
8719.00,1.27
8718.00,1.27
8717.00,1.27
8716.00,1.27
8715.00,1.27
8714.00,1.27
8713.00,1.27
8712.00,1.27
8711.00,1.27
8710.00,1.27
8709.00,1.27
8708.00,1.27
8707.00,1.27
8706.00,1.28
8705.00,1.28
8704.00,1.28
8703.00,1.28
8702.00,1.28
8701.00,1.28
8700.00,1.28
8699.00,1.28
8698.00,1.28
8697.00,1.28
8696.00,1.28
8695.00,1.28
8694.00,1.28
8693.00,1.28
8692.00,1.28
8691.00,1.28
8690.00,1.28
8689.00,1.28
8688.00,1.28
8687.00,1.28
8686.00,1.28
8685.00,1.28
8684.00,1.28
8683.00,1.28
8682.00,1.28
8681.00,1.28
8680.00,1.28
8679.00,1.28
8678.00,1.27
8677.00,1.27
8676.00,1.27
8675.00,1.27
8674.00,1.27
8673.00,1.27
8672.00,1.27
8671.00,1.27
8670.00,1.27
8669.00,1.27
8668.00,1.27
8667.00,1.27
8666.00,1.27
8665.00,1.27
8664.00,1.27
8663.00,1.27
8662.00,1.27
8661.00,1.27
8660.00,1.27
8659.00,1.27
8658.00,1.27
8657.00,1.27
8656.00,1.27
8655.00,1.27
8654.00,1.27
8653.00,1.27
8652.00,1.26
8651.00,1.26
8650.00,1.26
8649.00,1.26
8648.00,1.26
8647.00,1.26
8646.00,1.26
8645.00,1.26
8644.00,1.25
8643.00,1.25
8642.00,1.25
8641.00,1.25
8640.00,1.25
8639.00,1.25
8638.00,1.25
8637.00,1.25
8636.00,1.25
8635.00,1.24
8634.00,1.24
8633.00,1.24
8632.00,1.24
8631.00,1.24
8630.00,1.24
8629.00,1.24
8628.00,1.24
8627.00,1.24
8626.00,1.24
8625.00,1.24
8624.00,1.24
8623.00,1.25
8622.00,1.25
8621.00,1.25
8620.00,1.25
8619.00,1.25
8618.00,1.25
8617.00,1.25
8616.00,1.25
8615.00,1.25
8614.00,1.25
8613.00,1.25
8612.00,1.25
8611.00,1.25
8610.00,1.25
8609.00,1.25
8608.00,1.25
8607.00,1.25
8606.00,1.25
8605.00,1.25
8604.00,1.25
8603.00,1.25
8602.00,1.25
8601.00,1.25
8600.00,1.25
8599.00,1.25
8598.00,1.24
8597.00,1.24
8596.00,1.24
8595.00,1.24
8594.00,1.24
8593.00,1.24
8592.00,1.24
8591.00,1.24
8590.00,1.24
8589.00,1.24
8588.00,1.24
8587.00,1.24
8586.00,1.24
8585.00,1.24
8584.00,1.24
8583.00,1.24
8582.00,1.24
8581.00,1.24
8580.00,1.24
8579.00,1.24
8578.00,1.24
8577.00,1.24
8576.00,1.24
8575.00,1.24
8574.00,1.24
8573.00,1.24
8572.00,1.24
8571.00,1.24
8570.00,1.23
8569.00,1.23
8568.00,1.23
8567.00,1.23
8566.00,1.23
8565.00,1.23
8564.00,1.23
8563.00,1.23
8562.00,1.23
8561.00,1.23
8560.00,1.23
8559.00,1.23
8558.00,1.23
8557.00,1.23
8556.00,1.23
8555.00,1.23
8554.00,1.23
8553.00,1.23
8552.00,1.23
8551.00,1.23
8550.00,1.23
8549.00,1.23
8548.00,1.23
8547.00,1.23
8546.00,1.23
8545.00,1.23
8544.00,1.23
8543.00,1.23
8542.00,1.23
8541.00,1.23
8540.00,1.23
8539.00,1.23
8538.00,1.22
8537.00,1.22
8536.00,1.22
8535.00,1.22
8534.00,1.22
8533.00,1.22
8532.00,1.22
8531.00,1.22
8530.00,1.22
8529.00,1.22
8528.00,1.22
8527.00,1.22
8526.00,1.22
8525.00,1.22
8524.00,1.22
8523.00,1.22
8522.00,1.22
8521.00,1.23
8520.00,1.23
8519.00,1.23
8518.00,1.23
8517.00,1.23
8516.00,1.23
8515.00,1.23
8514.00,1.23
8513.00,1.23
8512.00,1.23
8511.00,1.23
8510.00,1.23
8509.00,1.22
8508.00,1.22
8507.00,1.22
8506.00,1.22
8505.00,1.22
8504.00,1.22
8503.00,1.22
8502.00,1.22
8501.00,1.22
8500.00,1.21
8499.00,1.21
8498.00,1.21
8497.00,1.21
8496.00,1.21
8495.00,1.21
8494.00,1.21
8493.00,1.21
8492.00,1.21
8491.00,1.21
8490.00,1.21
8489.00,1.21
8488.00,1.21
8487.00,1.21
8486.00,1.21
8485.00,1.21
8484.00,1.21
8483.00,1.21
8482.00,1.21
8481.00,1.21
8480.00,1.21
8479.00,1.20
8478.00,1.20
8477.00,1.20
8476.00,1.20
8475.00,1.20
8474.00,1.20
8473.00,1.20
8472.00,1.20
8471.00,1.20
8470.00,1.20
8469.00,1.20
8468.00,1.19
8467.00,1.19
8466.00,1.19
8465.00,1.19
8464.00,1.19
8463.00,1.19
8462.00,1.19
8461.00,1.19
8460.00,1.19
8459.00,1.19
8458.00,1.19
8457.00,1.19
8456.00,1.18
8455.00,1.18
8454.00,1.18
8453.00,1.18
8452.00,1.18
8451.00,1.18
8450.00,1.18
8449.00,1.17
8448.00,1.17
8447.00,1.17
8446.00,1.17
8445.00,1.17
8444.00,1.17
8443.00,1.17
8442.00,1.17
8441.00,1.17
8440.00,1.17
8439.00,1.17
8438.00,1.17
8437.00,1.17
8436.00,1.17
8435.00,1.17
8434.00,1.17
8433.00,1.17
8432.00,1.18
8431.00,1.18
8430.00,1.18
8429.00,1.18
8428.00,1.18
8427.00,1.18
8426.00,1.18
8425.00,1.18
8424.00,1.18
8423.00,1.18
8422.00,1.18
8421.00,1.18
8420.00,1.18
8419.00,1.18
8418.00,1.18
8417.00,1.18
8416.00,1.18
8415.00,1.18
8414.00,1.18
8413.00,1.18
8412.00,1.18
8411.00,1.18
8410.00,1.18
8409.00,1.19
8408.00,1.19
8407.00,1.19
8406.00,1.19
8405.00,1.19
8404.00,1.19
8403.00,1.20
8402.00,1.20
8401.00,1.20
8400.00,1.20
8399.00,1.20
8398.00,1.21
8397.00,1.21
8396.00,1.21
8395.00,1.21
8394.00,1.21
8393.00,1.21
8392.00,1.22
8391.00,1.22
8390.00,1.22
8389.00,1.22
8388.00,1.22
8387.00,1.22
8386.00,1.22
8385.00,1.22
8384.00,1.22
8383.00,1.22
8382.00,1.22
8381.00,1.22
8380.00,1.22
8379.00,1.22
8378.00,1.22
8377.00,1.22
8376.00,1.22
8375.00,1.22
8374.00,1.22
8373.00,1.22
8372.00,1.22
8371.00,1.22
8370.00,1.22
8369.00,1.22
8368.00,1.22
8367.00,1.22
8366.00,1.22
8365.00,1.22
8364.00,1.22
8363.00,1.21
8362.00,1.21
8361.00,1.21
8360.00,1.21
8359.00,1.21
8358.00,1.21
8357.00,1.21
8356.00,1.21
8355.00,1.21
8354.00,1.21
8353.00,1.21
8352.00,1.21
8351.00,1.21
8350.00,1.21
8349.00,1.21
8348.00,1.21
8347.00,1.21
8346.00,1.21
8345.00,1.21
8344.00,1.21
8343.00,1.21
8342.00,1.21
8341.00,1.21
8340.00,1.21
8339.00,1.21
8338.00,1.21
8337.00,1.21
8336.00,1.21
8335.00,1.21
8334.00,1.21
8333.00,1.20
8332.00,1.20
8331.00,1.20
8330.00,1.20
8329.00,1.20
8328.00,1.20
8327.00,1.21
8326.00,1.21
8325.00,1.21
8324.00,1.21
8323.00,1.21
8322.00,1.21
8321.00,1.21
8320.00,1.21
8319.00,1.22
8318.00,1.22
8317.00,1.22
8316.00,1.22
8315.00,1.22
8314.00,1.22
8313.00,1.22
8312.00,1.23
8311.00,1.23
8310.00,1.23
8309.00,1.23
8308.00,1.23
8307.00,1.23
8306.00,1.23
8305.00,1.23
8304.00,1.23
8303.00,1.23
8302.00,1.23
8301.00,1.23
8300.00,1.23
8299.00,1.23
8298.00,1.23
8297.00,1.23
8296.00,1.23
8295.00,1.24
8294.00,1.24
8293.00,1.24
8292.00,1.23
8291.00,1.23
8290.00,1.23
8289.00,1.23
8288.00,1.23
8287.00,1.23
8286.00,1.23
8285.00,1.23
8284.00,1.23
8283.00,1.23
8282.00,1.23
8281.00,1.23
8280.00,1.23
8279.00,1.23
8278.00,1.22
8277.00,1.22
8276.00,1.22
8275.00,1.22
8274.00,1.22
8273.00,1.22
8272.00,1.22
8271.00,1.22
8270.00,1.22
8269.00,1.22
8268.00,1.22
8267.00,1.22
8266.00,1.22
8265.00,1.22
8264.00,1.22
8263.00,1.22
8262.00,1.22
8261.00,1.22
8260.00,1.22
8259.00,1.22
8258.00,1.22
8257.00,1.22
8256.00,1.22
8255.00,1.22
8254.00,1.22
8253.00,1.23
8252.00,1.23
8251.00,1.23
8250.00,1.23
8249.00,1.23
8248.00,1.23
8247.00,1.23
8246.00,1.23
8245.00,1.24
8244.00,1.24
8243.00,1.24
8242.00,1.24
8241.00,1.24
8240.00,1.24
8239.00,1.24
8238.00,1.24
8237.00,1.24
8236.00,1.24
8235.00,1.24
8234.00,1.24
8233.00,1.24
8232.00,1.24
8231.00,1.23
8230.00,1.23
8229.00,1.23
8228.00,1.23
8227.00,1.23
8226.00,1.23
8225.00,1.23
8224.00,1.23
8223.00,1.23
8222.00,1.23
8221.00,1.24
8220.00,1.24
8219.00,1.24
8218.00,1.24
8217.00,1.24
8216.00,1.24
8215.00,1.24
8214.00,1.24
8213.00,1.24
8212.00,1.24
8211.00,1.24
8210.00,1.24
8209.00,1.24
8208.00,1.24
8207.00,1.24
8206.00,1.25
8205.00,1.25
8204.00,1.25
8203.00,1.25
8202.00,1.25
8201.00,1.25
8200.00,1.25
8199.00,1.25
8198.00,1.25
8197.00,1.25
8196.00,1.25
8195.00,1.25
8194.00,1.25
8193.00,1.25
8192.00,1.25
8191.00,1.25
8190.00,1.25
8189.00,1.25
8188.00,1.25
8187.00,1.26
8186.00,1.26
8185.00,1.26
8184.00,1.26
8183.00,1.26
8182.00,1.26
8181.00,1.26
8180.00,1.26
8179.00,1.26
8178.00,1.26
8177.00,1.26
8176.00,1.26
8175.00,1.26
8174.00,1.26
8173.00,1.26
8172.00,1.26
8171.00,1.26
8170.00,1.25
8169.00,1.25
8168.00,1.25
8167.00,1.25
8166.00,1.25
8165.00,1.25
8164.00,1.25
8163.00,1.26
8162.00,1.26
8161.00,1.26
8160.00,1.26
8159.00,1.26
8158.00,1.26
8157.00,1.26
8156.00,1.26
8155.00,1.27
8154.00,1.27
8153.00,1.27
8152.00,1.27
8151.00,1.27
8150.00,1.27
8149.00,1.27
8148.00,1.27
8147.00,1.27
8146.00,1.27
8145.00,1.27
8144.00,1.27
8143.00,1.27
8142.00,1.27
8141.00,1.27
8140.00,1.27
8139.00,1.27
8138.00,1.27
8137.00,1.27
8136.00,1.27
8135.00,1.28
8134.00,1.28
8133.00,1.28
8132.00,1.28
8131.00,1.28
8130.00,1.28
8129.00,1.28
8128.00,1.29
8127.00,1.29
8126.00,1.29
8125.00,1.29
8124.00,1.29
8123.00,1.29
8122.00,1.29
8121.00,1.29
8120.00,1.29
8119.00,1.29
8118.00,1.29
8117.00,1.29
8116.00,1.29
8115.00,1.29
8114.00,1.28
8113.00,1.28
8112.00,1.28
8111.00,1.28
8110.00,1.28
8109.00,1.28
8108.00,1.28
8107.00,1.28
8106.00,1.28
8105.00,1.28
8104.00,1.28
8103.00,1.28
8102.00,1.28
8101.00,1.28
8100.00,1.28
8099.00,1.28
8098.00,1.28
8097.00,1.28
8096.00,1.28
8095.00,1.28
8094.00,1.28
8093.00,1.28
8092.00,1.28
8091.00,1.28
8090.00,1.29
8089.00,1.29
8088.00,1.29
8087.00,1.29
8086.00,1.29
8085.00,1.29
8084.00,1.29
8083.00,1.29
8082.00,1.29
8081.00,1.29
8080.00,1.29
8079.00,1.29
8078.00,1.29
8077.00,1.29
8076.00,1.29
8075.00,1.29
8074.00,1.29
8073.00,1.29
8072.00,1.29
8071.00,1.29
8070.00,1.29
8069.00,1.29
8068.00,1.29
8067.00,1.29
8066.00,1.29
8065.00,1.29
8064.00,1.29
8063.00,1.29
8062.00,1.29
8061.00,1.29
8060.00,1.29
8059.00,1.29
8058.00,1.29
8057.00,1.29
8056.00,1.29
8055.00,1.29
8054.00,1.29
8053.00,1.29
8052.00,1.29
8051.00,1.29
8050.00,1.29
8049.00,1.29
8048.00,1.29
8047.00,1.29
8046.00,1.29
8045.00,1.29
8044.00,1.29
8043.00,1.29
8042.00,1.29
8041.00,1.29
8040.00,1.29
8039.00,1.29
8038.00,1.29
8037.00,1.29
8036.00,1.29
8035.00,1.30
8034.00,1.30
8033.00,1.30
8032.00,1.30
8031.00,1.30
8030.00,1.30
8029.00,1.30
8028.00,1.30
8027.00,1.30
8026.00,1.30
8025.00,1.30
8024.00,1.30
8023.00,1.30
8022.00,1.30
8021.00,1.30
8020.00,1.30
8019.00,1.30
8018.00,1.30
8017.00,1.30
8016.00,1.30
8015.00,1.30
8014.00,1.30
8013.00,1.30
8012.00,1.30
8011.00,1.30
8010.00,1.30
8009.00,1.30
8008.00,1.30
8007.00,1.30
8006.00,1.30
8005.00,1.30
8004.00,1.30
8003.00,1.30
8002.00,1.31
8001.00,1.31
8000.00,1.31
7999.00,1.30
7998.00,1.30
7997.00,1.30
7996.00,1.30
7995.00,1.30
7994.00,1.30
7993.00,1.30
7992.00,1.30
7991.00,1.30
7990.00,1.30
7989.00,1.30
7988.00,1.29
7987.00,1.29
7986.00,1.29
7985.00,1.29
7984.00,1.29
7983.00,1.29
7982.00,1.29
7981.00,1.29
7980.00,1.29
7979.00,1.29
7978.00,1.29
7977.00,1.29
7976.00,1.29
7975.00,1.29
7974.00,1.29
7973.00,1.30
7972.00,1.30
7971.00,1.30
7970.00,1.30
7969.00,1.30
7968.00,1.30
7967.00,1.30
7966.00,1.30
7965.00,1.30
7964.00,1.30
7963.00,1.30
7962.00,1.30
7961.00,1.30
7960.00,1.30
7959.00,1.30
7958.00,1.30
7957.00,1.30
7956.00,1.31
7955.00,1.31
7954.00,1.31
7953.00,1.31
7952.00,1.31
7951.00,1.31
7950.00,1.31
7949.00,1.31
7948.00,1.31
7947.00,1.31
7946.00,1.31
7945.00,1.31
7944.00,1.31
7943.00,1.31
7942.00,1.31
7941.00,1.31
7940.00,1.31
7939.00,1.31
7938.00,1.31
7937.00,1.31
7936.00,1.31
7935.00,1.31
7934.00,1.31
7933.00,1.31
7932.00,1.31
7931.00,1.31
7930.00,1.31
7929.00,1.31
7928.00,1.31
7927.00,1.31
7926.00,1.31
7925.00,1.31
7924.00,1.31
7923.00,1.31
7922.00,1.31
7921.00,1.30
7920.00,1.30
7919.00,1.30
7918.00,1.30
7917.00,1.30
7916.00,1.30
7915.00,1.30
7914.00,1.30
7913.00,1.30
7912.00,1.30
7911.00,1.30
7910.00,1.30
7909.00,1.31
7908.00,1.31
7907.00,1.31
7906.00,1.31
7905.00,1.31
7904.00,1.31
7903.00,1.31
7902.00,1.31
7901.00,1.31
7900.00,1.31
7899.00,1.31
7898.00,1.31
7897.00,1.31
7896.00,1.32
7895.00,1.32
7894.00,1.32
7893.00,1.32
7892.00,1.32
7891.00,1.32
7890.00,1.32
7889.00,1.32
7888.00,1.32
7887.00,1.32
7886.00,1.32
7885.00,1.32
7884.00,1.32
7883.00,1.32
7882.00,1.32
7881.00,1.32
7880.00,1.32
7879.00,1.32
7878.00,1.32
7877.00,1.32
7876.00,1.32
7875.00,1.32
7874.00,1.32
7873.00,1.32
7872.00,1.32
7871.00,1.32
7870.00,1.32
7869.00,1.32
7868.00,1.32
7867.00,1.32
7866.00,1.32
7865.00,1.32
7864.00,1.32
7863.00,1.32
7862.00,1.32
7861.00,1.32
7860.00,1.31
7859.00,1.31
7858.00,1.31
7857.00,1.31
7856.00,1.31
7855.00,1.31
7854.00,1.31
7853.00,1.31
7852.00,1.31
7851.00,1.31
7850.00,1.31
7849.00,1.31
7848.00,1.31
7847.00,1.31
7846.00,1.31
7845.00,1.31
7844.00,1.31
7843.00,1.31
7842.00,1.31
7841.00,1.31
7840.00,1.31
7839.00,1.31
7838.00,1.31
7837.00,1.31
7836.00,1.31
7835.00,1.31
7834.00,1.31
7833.00,1.31
7832.00,1.31
7831.00,1.31
7830.00,1.31
7829.00,1.31
7828.00,1.31
7827.00,1.31
7826.00,1.31
7825.00,1.31
7824.00,1.32
7823.00,1.32
7822.00,1.32
7821.00,1.32
7820.00,1.32
7819.00,1.32
7818.00,1.32
7817.00,1.32
7816.00,1.32
7815.00,1.32
7814.00,1.32
7813.00,1.32
7812.00,1.32
7811.00,1.32
7810.00,1.32
7809.00,1.32
7808.00,1.32
7807.00,1.32
7806.00,1.32
7805.00,1.32
7804.00,1.32
7803.00,1.32
7802.00,1.32
7801.00,1.32
7800.00,1.32
7799.00,1.32
7798.00,1.32
7797.00,1.32
7796.00,1.32
7795.00,1.32
7794.00,1.32
7793.00,1.33
7792.00,1.33
7791.00,1.33
7790.00,1.33
7789.00,1.33
7788.00,1.33
7787.00,1.33
7786.00,1.33
7785.00,1.33
7784.00,1.33
7783.00,1.33
7782.00,1.33
7781.00,1.33
7780.00,1.33
7779.00,1.33
7778.00,1.33
7777.00,1.33
7776.00,1.33
7775.00,1.33
7774.00,1.33
7773.00,1.33
7772.00,1.33
7771.00,1.33
7770.00,1.33
7769.00,1.33
7768.00,1.33
7767.00,1.33
7766.00,1.33
7765.00,1.33
7764.00,1.33
7763.00,1.33
7762.00,1.33
7761.00,1.33
7760.00,1.33
7759.00,1.33
7758.00,1.33
7757.00,1.33
7756.00,1.33
7755.00,1.33
7754.00,1.33
7753.00,1.33
7752.00,1.33
7751.00,1.34
7750.00,1.34
7749.00,1.34
7748.00,1.34
7747.00,1.34
7746.00,1.34
7745.00,1.34
7744.00,1.34
7743.00,1.34
7742.00,1.34
7741.00,1.34
7740.00,1.34
7739.00,1.34
7738.00,1.34
7737.00,1.33
7736.00,1.33
7735.00,1.33
7734.00,1.33
7733.00,1.33
7732.00,1.33
7731.00,1.33
7730.00,1.33
7729.00,1.33
7728.00,1.33
7727.00,1.33
7726.00,1.33
7725.00,1.33
7724.00,1.33
7723.00,1.33
7722.00,1.33
7721.00,1.33
7720.00,1.33
7719.00,1.33
7718.00,1.33
7717.00,1.33
7716.00,1.33
7715.00,1.33
7714.00,1.34
7713.00,1.34
7712.00,1.34
7711.00,1.34
7710.00,1.34
7709.00,1.34
7708.00,1.34
7707.00,1.34
7706.00,1.34
7705.00,1.34
7704.00,1.34
7703.00,1.33
7702.00,1.33
7701.00,1.33
7700.00,1.33
7699.00,1.33
7698.00,1.33
7697.00,1.33
7696.00,1.33
7695.00,1.33
7694.00,1.33
7693.00,1.33
7692.00,1.33
7691.00,1.33
7690.00,1.33
7689.00,1.33
7688.00,1.33
7687.00,1.33
7686.00,1.33
7685.00,1.33
7684.00,1.33
7683.00,1.33
7682.00,1.33
7681.00,1.33
7680.00,1.33
7679.00,1.33
7678.00,1.33
7677.00,1.33
7676.00,1.33
7675.00,1.33
7674.00,1.33
7673.00,1.33
7672.00,1.33
7671.00,1.33
7670.00,1.33
7669.00,1.33
7668.00,1.33
7667.00,1.33
7666.00,1.33
7665.00,1.33
7664.00,1.32
7663.00,1.32
7662.00,1.32
7661.00,1.32
7660.00,1.32
7659.00,1.32
7658.00,1.32
7657.00,1.32
7656.00,1.32
7655.00,1.32
7654.00,1.32
7653.00,1.32
7652.00,1.32
7651.00,1.32
7650.00,1.32
7649.00,1.32
7648.00,1.32
7647.00,1.32
7646.00,1.32
7645.00,1.32
7644.00,1.32
7643.00,1.32
7642.00,1.32
7641.00,1.32
7640.00,1.32
7639.00,1.32
7638.00,1.32
7637.00,1.32
7636.00,1.32
7635.00,1.32
7634.00,1.32
7633.00,1.32
7632.00,1.32
7631.00,1.32
7630.00,1.32
7629.00,1.33
7628.00,1.33
7627.00,1.33
7626.00,1.33
7625.00,1.33
7624.00,1.33
7623.00,1.33
7622.00,1.33
7621.00,1.33
7620.00,1.33
7619.00,1.34
7618.00,1.34
7617.00,1.34
7616.00,1.34
7615.00,1.34
7614.00,1.34
7613.00,1.34
7612.00,1.34
7611.00,1.33
7610.00,1.33
7609.00,1.33
7608.00,1.33
7607.00,1.33
7606.00,1.33
7605.00,1.33
7604.00,1.33
7603.00,1.33
7602.00,1.32
7601.00,1.32
7600.00,1.32
7599.00,1.32
7598.00,1.32
7597.00,1.32
7596.00,1.32
7595.00,1.32
7594.00,1.32
7593.00,1.32
7592.00,1.32
7591.00,1.32
7590.00,1.32
7589.00,1.32
7588.00,1.32
7587.00,1.32
7586.00,1.32
7585.00,1.32
7584.00,1.32
7583.00,1.32
7582.00,1.32
7581.00,1.33
7580.00,1.33
7579.00,1.33
7578.00,1.33
7577.00,1.33
7576.00,1.33
7575.00,1.33
7574.00,1.33
7573.00,1.33
7572.00,1.33
7571.00,1.33
7570.00,1.33
7569.00,1.33
7568.00,1.33
7567.00,1.32
7566.00,1.32
7565.00,1.32
7564.00,1.32
7563.00,1.32
7562.00,1.32
7561.00,1.32
7560.00,1.32
7559.00,1.32
7558.00,1.32
7557.00,1.31
7556.00,1.31
7555.00,1.31
7554.00,1.31
7553.00,1.31
7552.00,1.31
7551.00,1.31
7550.00,1.31
7549.00,1.31
7548.00,1.31
7547.00,1.31
7546.00,1.31
7545.00,1.31
7544.00,1.31
7543.00,1.31
7542.00,1.32
7541.00,1.32
7540.00,1.32
7539.00,1.31
7538.00,1.31
7537.00,1.31
7536.00,1.31
7535.00,1.31
7534.00,1.31
7533.00,1.31
7532.00,1.31
7531.00,1.31
7530.00,1.31
7529.00,1.31
7528.00,1.31
7527.00,1.31
7526.00,1.31
7525.00,1.31
7524.00,1.31
7523.00,1.31
7522.00,1.31
7521.00,1.31
7520.00,1.31
7519.00,1.31
7518.00,1.31
7517.00,1.31
7516.00,1.31
7515.00,1.31
7514.00,1.31
7513.00,1.31
7512.00,1.30
7511.00,1.30
7510.00,1.30
7509.00,1.30
7508.00,1.30
7507.00,1.30
7506.00,1.30
7505.00,1.30
7504.00,1.30
7503.00,1.30
7502.00,1.30
7501.00,1.30
7500.00,1.30
7499.00,1.30
7498.00,1.30
7497.00,1.30
7496.00,1.30
7495.00,1.30
7494.00,1.30
7493.00,1.30
7492.00,1.30
7491.00,1.30
7490.00,1.30
7489.00,1.30
7488.00,1.30
7487.00,1.30
7486.00,1.30
7485.00,1.30
7484.00,1.30
7483.00,1.29
7482.00,1.29
7481.00,1.29
7480.00,1.29
7479.00,1.29
7478.00,1.29
7477.00,1.29
7476.00,1.29
7475.00,1.29
7474.00,1.29
7473.00,1.29
7472.00,1.29
7471.00,1.29
7470.00,1.29
7469.00,1.29
7468.00,1.29
7467.00,1.29
7466.00,1.30
7465.00,1.30
7464.00,1.30
7463.00,1.30
7462.00,1.30
7461.00,1.30
7460.00,1.30
7459.00,1.30
7458.00,1.30
7457.00,1.30
7456.00,1.29
7455.00,1.29
7454.00,1.29
7453.00,1.29
7452.00,1.29
7451.00,1.29
7450.00,1.29
7449.00,1.28
7448.00,1.28
7447.00,1.28
7446.00,1.28
7445.00,1.28
7444.00,1.28
7443.00,1.28
7442.00,1.27
7441.00,1.27
7440.00,1.27
7439.00,1.27
7438.00,1.27
7437.00,1.27
7436.00,1.27
7435.00,1.27
7434.00,1.27
7433.00,1.27
7432.00,1.27
7431.00,1.27
7430.00,1.27
7429.00,1.26
7428.00,1.26
7427.00,1.26
7426.00,1.26
7425.00,1.26
7424.00,1.26
7423.00,1.26
7422.00,1.26
7421.00,1.26
7420.00,1.26
7419.00,1.26
7418.00,1.26
7417.00,1.26
7416.00,1.26
7415.00,1.26
7414.00,1.26
7413.00,1.26
7412.00,1.26
7411.00,1.26
7410.00,1.26
7409.00,1.25
7408.00,1.25
7407.00,1.25
7406.00,1.25
7405.00,1.25
7404.00,1.25
7403.00,1.25
7402.00,1.25
7401.00,1.25
7400.00,1.25
7399.00,1.25
7398.00,1.24
7397.00,1.24
7396.00,1.24
7395.00,1.24
7394.00,1.24
7393.00,1.24
7392.00,1.24
7391.00,1.24
7390.00,1.24
7389.00,1.24
7388.00,1.24
7387.00,1.23
7386.00,1.23
7385.00,1.23
7384.00,1.23
7383.00,1.23
7382.00,1.23
7381.00,1.23
7380.00,1.23
7379.00,1.23
7378.00,1.23
7377.00,1.23
7376.00,1.23
7375.00,1.23
7374.00,1.23
7373.00,1.23
7372.00,1.23
7371.00,1.23
7370.00,1.23
7369.00,1.23
7368.00,1.23
7367.00,1.23
7366.00,1.23
7365.00,1.23
7364.00,1.23
7363.00,1.23
7362.00,1.23
7361.00,1.23
7360.00,1.23
7359.00,1.23
7358.00,1.23
7357.00,1.23
7356.00,1.23
7355.00,1.23
7354.00,1.23
7353.00,1.23
7352.00,1.23
7351.00,1.23
7350.00,1.23
7349.00,1.22
7348.00,1.22
7347.00,1.22
7346.00,1.22
7345.00,1.22
7344.00,1.22
7343.00,1.22
7342.00,1.22
7341.00,1.22
7340.00,1.22
7339.00,1.22
7338.00,1.22
7337.00,1.21
7336.00,1.21
7335.00,1.21
7334.00,1.21
7333.00,1.21
7332.00,1.21
7331.00,1.21
7330.00,1.21
7329.00,1.21
7328.00,1.21
7327.00,1.21
7326.00,1.21
7325.00,1.21
7324.00,1.21
7323.00,1.21
7322.00,1.21
7321.00,1.21
7320.00,1.21
7319.00,1.21
7318.00,1.21
7317.00,1.21
7316.00,1.21
7315.00,1.21
7314.00,1.21
7313.00,1.21
7312.00,1.21
7311.00,1.21
7310.00,1.21
7309.00,1.21
7308.00,1.21
7307.00,1.20
7306.00,1.20
7305.00,1.20
7304.00,1.20
7303.00,1.20
7302.00,1.20
7301.00,1.20
7300.00,1.19
7299.00,1.19
7298.00,1.19
7297.00,1.19
7296.00,1.18
7295.00,1.18
7294.00,1.18
7293.00,1.18
7292.00,1.18
7291.00,1.18
7290.00,1.17
7289.00,1.17
7288.00,1.17
7287.00,1.17
7286.00,1.17
7285.00,1.17
7284.00,1.17
7283.00,1.17
7282.00,1.17
7281.00,1.17
7280.00,1.17
7279.00,1.17
7278.00,1.17
7277.00,1.17
7276.00,1.17
7275.00,1.17
7274.00,1.17
7273.00,1.17
7272.00,1.17
7271.00,1.17
7270.00,1.17
7269.00,1.16
7268.00,1.16
7267.00,1.16
7266.00,1.16
7265.00,1.16
7264.00,1.16
7263.00,1.16
7262.00,1.15
7261.00,1.15
7260.00,1.15
7259.00,1.15
7258.00,1.15
7257.00,1.15
7256.00,1.15
7255.00,1.14
7254.00,1.14
7253.00,1.14
7252.00,1.14
7251.00,1.14
7250.00,1.13
7249.00,1.13
7248.00,1.13
7247.00,1.13
7246.00,1.12
7245.00,1.12
7244.00,1.12
7243.00,1.12
7242.00,1.11
7241.00,1.11
7240.00,1.11
7239.00,1.11
7238.00,1.10
7237.00,1.10
7236.00,1.10
7235.00,1.09
7234.00,1.09
7233.00,1.09
7232.00,1.09
7231.00,1.08
7230.00,1.08
7229.00,1.08
7228.00,1.08
7227.00,1.07
7226.00,1.07
7225.00,1.07
7224.00,1.07
7223.00,1.06
7222.00,1.06
7221.00,1.06
7220.00,1.05
7219.00,1.05
7218.00,1.05
7217.00,1.05
7216.00,1.04
7215.00,1.04
7214.00,1.03
7213.00,1.03
7212.00,1.03
7211.00,1.02
7210.00,1.02
7209.00,1.02
7208.00,1.01
7207.00,1.01
7206.00,1.00
7205.00,1.00
7204.00,0.99
7203.00,0.99
7202.00,0.99
7201.00,0.98
7200.00,0.98
7199.00,0.97
7198.00,0.97
7197.00,0.97
7196.00,0.96
7195.00,0.96
7194.00,0.95
7193.00,0.95
7192.00,0.95
7191.00,0.94
7190.00,0.94
7189.00,0.94
7188.00,0.93
7187.00,0.93
7186.00,0.93
7185.00,0.92
7184.00,0.92
7183.00,0.92
7182.00,0.91
7181.00,0.91
7180.00,0.91
7179.00,0.91
7178.00,0.90
7177.00,0.90
7176.00,0.90
7175.00,0.90
7174.00,0.90
7173.00,0.89
7172.00,0.89
7171.00,0.89
7170.00,0.89
7169.00,0.89
7168.00,0.89
7167.00,0.88
7166.00,0.88
7165.00,0.88
7164.00,0.88
7163.00,0.87
7162.00,0.87
7161.00,0.87
7160.00,0.87
7159.00,0.86
7158.00,0.86
7157.00,0.86
7156.00,0.85
7155.00,0.85
7154.00,0.85
7153.00,0.84
7152.00,0.84
7151.00,0.84
7150.00,0.83
7149.00,0.83
7148.00,0.83
7147.00,0.82
7146.00,0.82
7145.00,0.82
7144.00,0.82
7143.00,0.81
7142.00,0.81
7141.00,0.81
7140.00,0.81
7139.00,0.81
7138.00,0.80
7137.00,0.80
7136.00,0.80
7135.00,0.80
7134.00,0.80
7133.00,0.79
7132.00,0.79
7131.00,0.79
7130.00,0.79
7129.00,0.79
7128.00,0.78
7127.00,0.78
7126.00,0.78
7125.00,0.78
7124.00,0.77
7123.00,0.77
7122.00,0.77
7121.00,0.77
7120.00,0.76
7119.00,0.76
7118.00,0.76
7117.00,0.75
7116.00,0.75
7115.00,0.75
7114.00,0.75
7113.00,0.74
7112.00,0.74
7111.00,0.74
7110.00,0.74
7109.00,0.73
7108.00,0.73
7107.00,0.73
7106.00,0.73
7105.00,0.72
7104.00,0.72
7103.00,0.72
7102.00,0.72
7101.00,0.71
7100.00,0.71
7099.00,0.71
7098.00,0.71
7097.00,0.71
7096.00,0.71
7095.00,0.70
7094.00,0.70
7093.00,0.70
7092.00,0.70
7091.00,0.70
7090.00,0.70
7089.00,0.70
7088.00,0.69
7087.00,0.69
7086.00,0.69
7085.00,0.69
7084.00,0.69
7083.00,0.69
7082.00,0.69
7081.00,0.69
7080.00,0.68
7079.00,0.68
7078.00,0.68
7077.00,0.68
7076.00,0.68
7075.00,0.68
7074.00,0.67
7073.00,0.67
7072.00,0.67
7071.00,0.67
7070.00,0.67
7069.00,0.67
7068.00,0.66
7067.00,0.66
7066.00,0.66
7065.00,0.66
7064.00,0.66
7063.00,0.66
7062.00,0.66
7061.00,0.65
7060.00,0.65
7059.00,0.65
7058.00,0.65
7057.00,0.65
7056.00,0.65
7055.00,0.65
7054.00,0.65
7053.00,0.65
7052.00,0.65
7051.00,0.65
7050.00,0.64
7049.00,0.64
7048.00,0.64
7047.00,0.64
7046.00,0.64
7045.00,0.64
7044.00,0.64
7043.00,0.64
7042.00,0.63
7041.00,0.63
7040.00,0.63
7039.00,0.63
7038.00,0.63
7037.00,0.63
7036.00,0.63
7035.00,0.63
7034.00,0.63
7033.00,0.63
7032.00,0.62
7031.00,0.62
7030.00,0.62
7029.00,0.62
7028.00,0.62
7027.00,0.62
7026.00,0.62
7025.00,0.62
7024.00,0.62
7023.00,0.62
7022.00,0.62
7021.00,0.62
7020.00,0.62
7019.00,0.62
7018.00,0.62
7017.00,0.62
7016.00,0.62
7015.00,0.62
7014.00,0.61
7013.00,0.61
7012.00,0.61
7011.00,0.61
7010.00,0.61
7009.00,0.61
7008.00,0.61
7007.00,0.61
7006.00,0.61
7005.00,0.61
7004.00,0.61
7003.00,0.60
7002.00,0.60
7001.00,0.60
7000.00,0.60
6999.00,0.60
6998.00,0.60
6997.00,0.60
6996.00,0.60
6995.00,0.60
6994.00,0.60
6993.00,0.60
6992.00,0.60
6991.00,0.60
6990.00,0.60
6989.00,0.60
6988.00,0.60
6987.00,0.60
6986.00,0.60
6985.00,0.60
6984.00,0.60
6983.00,0.60
6982.00,0.60
6981.00,0.60
6980.00,0.60
6979.00,0.60
6978.00,0.60
6977.00,0.60
6976.00,0.60
6975.00,0.60
6974.00,0.60
6973.00,0.60
6972.00,0.59
6971.00,0.59
6970.00,0.59
6969.00,0.59
6968.00,0.59
6967.00,0.59
6966.00,0.59
6965.00,0.59
6964.00,0.59
6963.00,0.59
6962.00,0.59
6961.00,0.59
6960.00,0.59
6959.00,0.59
6958.00,0.59
6957.00,0.59
6956.00,0.59
6955.00,0.59
6954.00,0.59
6953.00,0.59
6952.00,0.59
6951.00,0.59
6950.00,0.59
6949.00,0.59
6948.00,0.59
6947.00,0.59
6946.00,0.58
6945.00,0.58
6944.00,0.58
6943.00,0.58
6942.00,0.58
6941.00,0.58
6940.00,0.58
6939.00,0.58
6938.00,0.58
6937.00,0.58
6936.00,0.58
6935.00,0.58
6934.00,0.58
6933.00,0.58
6932.00,0.58
6931.00,0.58
6930.00,0.58
6929.00,0.58
6928.00,0.58
6927.00,0.58
6926.00,0.58
6925.00,0.58
6924.00,0.58
6923.00,0.58
6922.00,0.58
6921.00,0.58
6920.00,0.58
6919.00,0.58
6918.00,0.58
6917.00,0.58
6916.00,0.58
6915.00,0.58
6914.00,0.58
6913.00,0.58
6912.00,0.58
6911.00,0.58
6910.00,0.58
6909.00,0.58
6908.00,0.58
6907.00,0.58
6906.00,0.58
6905.00,0.58
6904.00,0.58
6903.00,0.58
6902.00,0.58
6901.00,0.58
6900.00,0.58
6899.00,0.58
6898.00,0.58
6897.00,0.58
6896.00,0.58
6895.00,0.58
6894.00,0.58
6893.00,0.58
6892.00,0.58
6891.00,0.58
6890.00,0.58
6889.00,0.58
6888.00,0.58
6887.00,0.58
6886.00,0.58
6885.00,0.58
6884.00,0.58
6883.00,0.58
6882.00,0.58
6881.00,0.57
6880.00,0.57
6879.00,0.57
6878.00,0.57
6877.00,0.57
6876.00,0.57
6875.00,0.57
6874.00,0.57
6873.00,0.57
6872.00,0.57
6871.00,0.57
6870.00,0.57
6869.00,0.57
6868.00,0.57
6867.00,0.57
6866.00,0.57
6865.00,0.57
6864.00,0.57
6863.00,0.57
6862.00,0.57
6861.00,0.57
6860.00,0.57
6859.00,0.57
6858.00,0.57
6857.00,0.57
6856.00,0.57
6855.00,0.57
6854.00,0.57
6853.00,0.57
6852.00,0.57
6851.00,0.57
6850.00,0.57
6849.00,0.57
6848.00,0.57
6847.00,0.58
6846.00,0.58
6845.00,0.58
6844.00,0.58
6843.00,0.58
6842.00,0.58
6841.00,0.58
6840.00,0.58
6839.00,0.58
6838.00,0.58
6837.00,0.58
6836.00,0.58
6835.00,0.58
6834.00,0.58
6833.00,0.58
6832.00,0.58
6831.00,0.58
6830.00,0.58
6829.00,0.58
6828.00,0.58
6827.00,0.58
6826.00,0.58
6825.00,0.58
6824.00,0.58
6823.00,0.58
6822.00,0.58
6821.00,0.58
6820.00,0.58
6819.00,0.58
6818.00,0.58
6817.00,0.58
6816.00,0.58
6815.00,0.58
6814.00,0.58
6813.00,0.58
6812.00,0.58
6811.00,0.58
6810.00,0.58
6809.00,0.58
6808.00,0.58
6807.00,0.58
6806.00,0.58
6805.00,0.58
6804.00,0.59
6803.00,0.59
6802.00,0.59
6801.00,0.59
6800.00,0.59
6799.00,0.59
6798.00,0.59
6797.00,0.59
6796.00,0.59
6795.00,0.60
6794.00,0.60
6793.00,0.60
6792.00,0.60
6791.00,0.60
6790.00,0.60
6789.00,0.60
6788.00,0.60
6787.00,0.60
6786.00,0.60
6785.00,0.60
6784.00,0.60
6783.00,0.60
6782.00,0.60
6781.00,0.60
6780.00,0.60
6779.00,0.60
6778.00,0.60
6777.00,0.60
6776.00,0.60
6775.00,0.60
6774.00,0.60
6773.00,0.60
6772.00,0.60
6771.00,0.61
6770.00,0.61
6769.00,0.61
6768.00,0.61
6767.00,0.61
6766.00,0.61
6765.00,0.61
6764.00,0.61
6763.00,0.61
6762.00,0.61
6761.00,0.61
6760.00,0.61
6759.00,0.62
6758.00,0.62
6757.00,0.62
6756.00,0.62
6755.00,0.62
6754.00,0.62
6753.00,0.62
6752.00,0.62
6751.00,0.62
6750.00,0.62
6749.00,0.62
6748.00,0.62
6747.00,0.62
6746.00,0.62
6745.00,0.63
6744.00,0.63
6743.00,0.63
6742.00,0.63
6741.00,0.63
6740.00,0.63
6739.00,0.63
6738.00,0.63
6737.00,0.63
6736.00,0.63
6735.00,0.63
6734.00,0.63
6733.00,0.63
6732.00,0.63
6731.00,0.63
6730.00,0.63
6729.00,0.63
6728.00,0.63
6727.00,0.63
6726.00,0.63
6725.00,0.63
6724.00,0.63
6723.00,0.64
6722.00,0.64
6721.00,0.64
6720.00,0.64
6719.00,0.64
6718.00,0.64
6717.00,0.64
6716.00,0.64
6715.00,0.64
6714.00,0.64
6713.00,0.64
6712.00,0.64
6711.00,0.64
6710.00,0.64
6709.00,0.64
6708.00,0.64
6707.00,0.64
6706.00,0.65
6705.00,0.65
6704.00,0.65
6703.00,0.65
6702.00,0.65
6701.00,0.65
6700.00,0.65
6699.00,0.65
6698.00,0.65
6697.00,0.65
6696.00,0.65
6695.00,0.65
6694.00,0.65
6693.00,0.66
6692.00,0.66
6691.00,0.66
6690.00,0.66
6689.00,0.66
6688.00,0.66
6687.00,0.66
6686.00,0.66
6685.00,0.66
6684.00,0.66
6683.00,0.66
6682.00,0.67
6681.00,0.67
6680.00,0.67
6679.00,0.67
6678.00,0.67
6677.00,0.67
6676.00,0.67
6675.00,0.67
6674.00,0.67
6673.00,0.67
6672.00,0.67
6671.00,0.68
6670.00,0.68
6669.00,0.68
6668.00,0.68
6667.00,0.68
6666.00,0.68
6665.00,0.68
6664.00,0.68
6663.00,0.69
6662.00,0.69
6661.00,0.69
6660.00,0.69
6659.00,0.69
6658.00,0.69
6657.00,0.69
6656.00,0.69
6655.00,0.70
6654.00,0.70
6653.00,0.70
6652.00,0.70
6651.00,0.70
6650.00,0.70
6649.00,0.70
6648.00,0.70
6647.00,0.71
6646.00,0.71
6645.00,0.71
6644.00,0.71
6643.00,0.71
6642.00,0.71
6641.00,0.71
6640.00,0.71
6639.00,0.71
6638.00,0.71
6637.00,0.71
6636.00,0.72
6635.00,0.72
6634.00,0.72
6633.00,0.72
6632.00,0.72
6631.00,0.72
6630.00,0.72
6629.00,0.72
6628.00,0.72
6627.00,0.72
6626.00,0.72
6625.00,0.72
6624.00,0.72
6623.00,0.72
6622.00,0.73
6621.00,0.73
6620.00,0.73
6619.00,0.73
6618.00,0.73
6617.00,0.73
6616.00,0.73
6615.00,0.74
6614.00,0.74
6613.00,0.74
6612.00,0.74
6611.00,0.74
6610.00,0.74
6609.00,0.74
6608.00,0.74
6607.00,0.74
6606.00,0.74
6605.00,0.74
6604.00,0.75
6603.00,0.75
6602.00,0.75
6601.00,0.75
6600.00,0.74
6599.00,0.74
6598.00,0.74
6597.00,0.74
6596.00,0.74
6595.00,0.74
6594.00,0.74
6593.00,0.74
6592.00,0.74
6591.00,0.74
6590.00,0.75
6589.00,0.75
6588.00,0.75
6587.00,0.75
6586.00,0.75
6585.00,0.75
6584.00,0.75
6583.00,0.75
6582.00,0.75
6581.00,0.76
6580.00,0.76
6579.00,0.76
6578.00,0.76
6577.00,0.76
6576.00,0.76
6575.00,0.77
6574.00,0.77
6573.00,0.77
6572.00,0.77
6571.00,0.77
6570.00,0.77
6569.00,0.77
6568.00,0.77
6567.00,0.77
6566.00,0.78
6565.00,0.78
6564.00,0.78
6563.00,0.78
6562.00,0.78
6561.00,0.78
6560.00,0.78
6559.00,0.78
6558.00,0.78
6557.00,0.78
6556.00,0.78
6555.00,0.78
6554.00,0.78
6553.00,0.78
6552.00,0.78
6551.00,0.78
6550.00,0.79
6549.00,0.79
6548.00,0.79
6547.00,0.79
6546.00,0.79
6545.00,0.79
6544.00,0.79
6543.00,0.80
6542.00,0.80
6541.00,0.80
6540.00,0.80
6539.00,0.80
6538.00,0.80
6537.00,0.80
6536.00,0.81
6535.00,0.81
6534.00,0.81
6533.00,0.81
6532.00,0.81
6531.00,0.81
6530.00,0.81
6529.00,0.81
6528.00,0.81
6527.00,0.81
6526.00,0.81
6525.00,0.81
6524.00,0.81
6523.00,0.81
6522.00,0.81
6521.00,0.81
6520.00,0.81
6519.00,0.81
6518.00,0.81
6517.00,0.81
6516.00,0.81
6515.00,0.81
6514.00,0.81
6513.00,0.81
6512.00,0.81
6511.00,0.82
6510.00,0.82
6509.00,0.82
6508.00,0.82
6507.00,0.82
6506.00,0.82
6505.00,0.82
6504.00,0.82
6503.00,0.82
6502.00,0.82
6501.00,0.83
6500.00,0.83
6499.00,0.83
6498.00,0.83
6497.00,0.83
6496.00,0.83
6495.00,0.83
6494.00,0.83
6493.00,0.84
6492.00,0.84
6491.00,0.84
6490.00,0.84
6489.00,0.84
6488.00,0.84
6487.00,0.84
6486.00,0.84
6485.00,0.84
6484.00,0.84
6483.00,0.84
6482.00,0.84
6481.00,0.84
6480.00,0.84
6479.00,0.85
6478.00,0.85
6477.00,0.85
6476.00,0.85
6475.00,0.85
6474.00,0.85
6473.00,0.85
6472.00,0.85
6471.00,0.85
6470.00,0.85
6469.00,0.85
6468.00,0.85
6467.00,0.85
6466.00,0.85
6465.00,0.86
6464.00,0.86
6463.00,0.86
6462.00,0.86
6461.00,0.86
6460.00,0.86
6459.00,0.86
6458.00,0.86
6457.00,0.86
6456.00,0.86
6455.00,0.86
6454.00,0.86
6453.00,0.86
6452.00,0.86
6451.00,0.87
6450.00,0.87
6449.00,0.87
6448.00,0.87
6447.00,0.87
6446.00,0.87
6445.00,0.87
6444.00,0.87
6443.00,0.87
6442.00,0.87
6441.00,0.87
6440.00,0.88
6439.00,0.88
6438.00,0.88
6437.00,0.88
6436.00,0.88
6435.00,0.88
6434.00,0.88
6433.00,0.88
6432.00,0.88
6431.00,0.88
6430.00,0.88
6429.00,0.88
6428.00,0.88
6427.00,0.88
6426.00,0.88
6425.00,0.88
6424.00,0.88
6423.00,0.88
6422.00,0.88
6421.00,0.88
6420.00,0.88
6419.00,0.88
6418.00,0.88
6417.00,0.88
6416.00,0.88
6415.00,0.88
6414.00,0.89
6413.00,0.89
6412.00,0.89
6411.00,0.89
6410.00,0.89
6409.00,0.89
6408.00,0.89
6407.00,0.89
6406.00,0.89
6405.00,0.89
6404.00,0.89
6403.00,0.90
6402.00,0.90
6401.00,0.90
6400.00,0.90
6399.00,0.90
6398.00,0.90
6397.00,0.90
6396.00,0.90
6395.00,0.90
6394.00,0.90
6393.00,0.90
6392.00,0.90
6391.00,0.90
6390.00,0.90
6389.00,0.90
6388.00,0.90
6387.00,0.90
6386.00,0.90
6385.00,0.90
6384.00,0.90
6383.00,0.90
6382.00,0.90
6381.00,0.91
6380.00,0.91
6379.00,0.91
6378.00,0.91
6377.00,0.91
6376.00,0.91
6375.00,0.91
6374.00,0.91
6373.00,0.91
6372.00,0.91
6371.00,0.91
6370.00,0.92
6369.00,0.92
6368.00,0.92
6367.00,0.92
6366.00,0.92
6365.00,0.92
6364.00,0.92
6363.00,0.92
6362.00,0.92
6361.00,0.92
6360.00,0.92
6359.00,0.92
6358.00,0.92
6357.00,0.92
6356.00,0.93
6355.00,0.93
6354.00,0.93
6353.00,0.93
6352.00,0.93
6351.00,0.93
6350.00,0.93
6349.00,0.93
6348.00,0.93
6347.00,0.93
6346.00,0.93
6345.00,0.94
6344.00,0.94
6343.00,0.94
6342.00,0.94
6341.00,0.94
6340.00,0.94
6339.00,0.94
6338.00,0.94
6337.00,0.95
6336.00,0.95
6335.00,0.95
6334.00,0.95
6333.00,0.95
6332.00,0.95
6331.00,0.95
6330.00,0.96
6329.00,0.96
6328.00,0.96
6327.00,0.96
6326.00,0.96
6325.00,0.96
6324.00,0.96
6323.00,0.96
6322.00,0.96
6321.00,0.96
6320.00,0.97
6319.00,0.97
6318.00,0.97
6317.00,0.97
6316.00,0.97
6315.00,0.97
6314.00,0.97
6313.00,0.97
6312.00,0.97
6311.00,0.97
6310.00,0.97
6309.00,0.97
6308.00,0.97
6307.00,0.97
6306.00,0.98
6305.00,0.98
6304.00,0.98
6303.00,0.98
6302.00,0.98
6301.00,0.98
6300.00,0.98
6299.00,0.98
6298.00,0.98
6297.00,0.98
6296.00,0.99
6295.00,0.99
6294.00,0.99
6293.00,0.99
6292.00,0.99
6291.00,0.99
6290.00,0.99
6289.00,0.99
6288.00,0.99
6287.00,0.99
6286.00,0.99
6285.00,1.00
6284.00,1.00
6283.00,1.00
6282.00,1.00
6281.00,1.00
6280.00,1.00
6279.00,1.00
6278.00,1.00
6277.00,1.00
6276.00,1.00
6275.00,1.00
6274.00,1.01
6273.00,1.01
6272.00,1.01
6271.00,1.01
6270.00,1.01
6269.00,1.01
6268.00,1.01
6267.00,1.01
6266.00,1.02
6265.00,1.02
6264.00,1.02
6263.00,1.02
6262.00,1.02
6261.00,1.02
6260.00,1.02
6259.00,1.02
6258.00,1.02
6257.00,1.03
6256.00,1.03
6255.00,1.03
6254.00,1.03
6253.00,1.03
6252.00,1.03
6251.00,1.03
6250.00,1.03
6249.00,1.04
6248.00,1.04
6247.00,1.04
6246.00,1.04
6245.00,1.04
6244.00,1.04
6243.00,1.04
6242.00,1.05
6241.00,1.05
6240.00,1.05
6239.00,1.05
6238.00,1.05
6237.00,1.05
6236.00,1.05
6235.00,1.05
6234.00,1.05
6233.00,1.05
6232.00,1.05
6231.00,1.05
6230.00,1.06
6229.00,1.06
6228.00,1.06
6227.00,1.06
6226.00,1.06
6225.00,1.06
6224.00,1.06
6223.00,1.06
6222.00,1.06
6221.00,1.06
6220.00,1.06
6219.00,1.07
6218.00,1.07
6217.00,1.07
6216.00,1.07
6215.00,1.07
6214.00,1.07
6213.00,1.07
6212.00,1.07
6211.00,1.07
6210.00,1.07
6209.00,1.08
6208.00,1.08
6207.00,1.08
6206.00,1.08
6205.00,1.08
6204.00,1.08
6203.00,1.08
6202.00,1.08
6201.00,1.09
6200.00,1.09
6199.00,1.09
6198.00,1.09
6197.00,1.09
6196.00,1.09
6195.00,1.09
6194.00,1.10
6193.00,1.10
6192.00,1.10
6191.00,1.10
6190.00,1.10
6189.00,1.10
6188.00,1.10
6187.00,1.10
6186.00,1.11
6185.00,1.11
6184.00,1.11
6183.00,1.11
6182.00,1.11
6181.00,1.11
6180.00,1.11
6179.00,1.11
6178.00,1.11
6177.00,1.12
6176.00,1.12
6175.00,1.12
6174.00,1.12
6173.00,1.12
6172.00,1.12
6171.00,1.12
6170.00,1.12
6169.00,1.13
6168.00,1.13
6167.00,1.13
6166.00,1.13
6165.00,1.13
6164.00,1.13
6163.00,1.13
6162.00,1.13
6161.00,1.14
6160.00,1.14
6159.00,1.14
6158.00,1.14
6157.00,1.14
6156.00,1.14
6155.00,1.14
6154.00,1.15
6153.00,1.15
6152.00,1.15
6151.00,1.15
6150.00,1.15
6149.00,1.15
6148.00,1.15
6147.00,1.16
6146.00,1.16
6145.00,1.16
6144.00,1.16
6143.00,1.16
6142.00,1.16
6141.00,1.16
6140.00,1.16
6139.00,1.17
6138.00,1.17
6137.00,1.17
6136.00,1.17
6135.00,1.17
6134.00,1.17
6133.00,1.17
6132.00,1.17
6131.00,1.17
6130.00,1.18
6129.00,1.18
6128.00,1.18
6127.00,1.18
6126.00,1.18
6125.00,1.18
6124.00,1.18
6123.00,1.19
6122.00,1.19
6121.00,1.19
6120.00,1.19
6119.00,1.19
6118.00,1.19
6117.00,1.20
6116.00,1.20
6115.00,1.20
6114.00,1.20
6113.00,1.20
6112.00,1.20
6111.00,1.20
6110.00,1.20
6109.00,1.21
6108.00,1.21
6107.00,1.21
6106.00,1.21
6105.00,1.21
6104.00,1.21
6103.00,1.21
6102.00,1.21
6101.00,1.21
6100.00,1.21
6099.00,1.21
6098.00,1.21
6097.00,1.21
6096.00,1.21
6095.00,1.22
6094.00,1.22
6093.00,1.22
6092.00,1.22
6091.00,1.22
6090.00,1.22
6089.00,1.22
6088.00,1.22
6087.00,1.22
6086.00,1.22
6085.00,1.23
6084.00,1.23
6083.00,1.23
6082.00,1.23
6081.00,1.23
6080.00,1.23
6079.00,1.23
6078.00,1.23
6077.00,1.24
6076.00,1.24
6075.00,1.24
6074.00,1.24
6073.00,1.24
6072.00,1.24
6071.00,1.24
6070.00,1.24
6069.00,1.24
6068.00,1.25
6067.00,1.25
6066.00,1.25
6065.00,1.25
6064.00,1.25
6063.00,1.25
6062.00,1.25
6061.00,1.25
6060.00,1.26
6059.00,1.26
6058.00,1.26
6057.00,1.26
6056.00,1.26
6055.00,1.26
6054.00,1.26
6053.00,1.26
6052.00,1.26
6051.00,1.26
6050.00,1.26
6049.00,1.26
6048.00,1.26
6047.00,1.26
6046.00,1.26
6045.00,1.26
6044.00,1.26
6043.00,1.26
6042.00,1.26
6041.00,1.27
6040.00,1.27
6039.00,1.27
6038.00,1.27
6037.00,1.27
6036.00,1.27
6035.00,1.27
6034.00,1.27
6033.00,1.27
6032.00,1.27
6031.00,1.27
6030.00,1.27
6029.00,1.27
6028.00,1.27
6027.00,1.27
6026.00,1.27
6025.00,1.27
6024.00,1.27
6023.00,1.27
6022.00,1.27
6021.00,1.27
6020.00,1.27
6019.00,1.27
6018.00,1.27
6017.00,1.27
6016.00,1.27
6015.00,1.27
6014.00,1.27
6013.00,1.27
6012.00,1.27
6011.00,1.27
6010.00,1.27
6009.00,1.27
6008.00,1.27
6007.00,1.27
6006.00,1.27
6005.00,1.27
6004.00,1.27
6003.00,1.27
6002.00,1.27
6001.00,1.27
6000.00,1.26
5999.00,1.26
5998.00,1.26
5997.00,1.26
5996.00,1.26
5995.00,1.26
5994.00,1.26
5993.00,1.26
5992.00,1.26
5991.00,1.26
5990.00,1.25
5989.00,1.25
5988.00,1.25
5987.00,1.25
5986.00,1.25
5985.00,1.25
5984.00,1.25
5983.00,1.24
5982.00,1.24
5981.00,1.24
5980.00,1.24
5979.00,1.23
5978.00,1.23
5977.00,1.23
5976.00,1.22
5975.00,1.22
5974.00,1.22
5973.00,1.21
5972.00,1.21
5971.00,1.20
5970.00,1.20
5969.00,1.19
5968.00,1.19
5967.00,1.18
5966.00,1.18
5965.00,1.17
5964.00,1.16
5963.00,1.16
5962.00,1.15
5961.00,1.15
5960.00,1.14
5959.00,1.14
5958.00,1.13
5957.00,1.13
5956.00,1.12
5955.00,1.12
5954.00,1.11
5953.00,1.11
5952.00,1.10
5951.00,1.10
5950.00,1.09
5949.00,1.09
5948.00,1.09
5947.00,1.08
5946.00,1.08
5945.00,1.08
5944.00,1.07
5943.00,1.07
5942.00,1.07
5941.00,1.06
5940.00,1.06
5939.00,1.06
5938.00,1.06
5937.00,1.06
5936.00,1.06
5935.00,1.05
5934.00,1.05
5933.00,1.05
5932.00,1.05
5931.00,1.05
5930.00,1.05
5929.00,1.05
5928.00,1.05
5927.00,1.05
5926.00,1.04
5925.00,1.04
5924.00,1.04
5923.00,1.04
5922.00,1.04
5921.00,1.04
5920.00,1.03
5919.00,1.03
5918.00,1.03
5917.00,1.03
5916.00,1.02
5915.00,1.02
5914.00,1.02
5913.00,1.02
5912.00,1.02
5911.00,1.02
5910.00,1.01
5909.00,1.01
5908.00,1.01
5907.00,1.01
5906.00,1.01
5905.00,1.01
5904.00,1.01
5903.00,1.01
5902.00,1.01
5901.00,1.01
5900.00,1.01
5899.00,1.01
5898.00,1.01
5897.00,1.01
5896.00,1.01
5895.00,1.02
5894.00,1.02
5893.00,1.02
5892.00,1.02
5891.00,1.02
5890.00,1.03
5889.00,1.03
5888.00,1.03
5887.00,1.03
5886.00,1.03
5885.00,1.04
5884.00,1.04
5883.00,1.04
5882.00,1.04
5881.00,1.05
5880.00,1.05
5879.00,1.05
5878.00,1.05
5877.00,1.06
5876.00,1.06
5875.00,1.06
5874.00,1.06
5873.00,1.06
5872.00,1.07
5871.00,1.07
5870.00,1.07
5869.00,1.07
5868.00,1.07
5867.00,1.07
5866.00,1.07
5865.00,1.07
5864.00,1.08
5863.00,1.08
5862.00,1.08
5861.00,1.08
5860.00,1.08
5859.00,1.08
5858.00,1.08
5857.00,1.09
5856.00,1.09
5855.00,1.09
5854.00,1.09
5853.00,1.09
5852.00,1.09
5851.00,1.09
5850.00,1.09
5849.00,1.09
5848.00,1.09
5847.00,1.09
5846.00,1.09
5845.00,1.09
5844.00,1.10
5843.00,1.10
5842.00,1.10
5841.00,1.10
5840.00,1.10
5839.00,1.10
5838.00,1.10
5837.00,1.10
5836.00,1.10
5835.00,1.10
5834.00,1.10
5833.00,1.10
5832.00,1.10
5831.00,1.10
5830.00,1.10
5829.00,1.10
5828.00,1.10
5827.00,1.10
5826.00,1.10
5825.00,1.10
5824.00,1.10
5823.00,1.10
5822.00,1.10
5821.00,1.10
5820.00,1.10
5819.00,1.10
5818.00,1.10
5817.00,1.10
5816.00,1.10
5815.00,1.10
5814.00,1.10
5813.00,1.10
5812.00,1.10
5811.00,1.10
5810.00,1.10
5809.00,1.10
5808.00,1.09
5807.00,1.09
5806.00,1.09
5805.00,1.09
5804.00,1.09
5803.00,1.09
5802.00,1.09
5801.00,1.09
5800.00,1.09
5799.00,1.09
5798.00,1.09
5797.00,1.08
5796.00,1.08
5795.00,1.08
5794.00,1.08
5793.00,1.08
5792.00,1.08
5791.00,1.07
5790.00,1.07
5789.00,1.07
5788.00,1.07
5787.00,1.07
5786.00,1.06
5785.00,1.06
5784.00,1.06
5783.00,1.06
5782.00,1.06
5781.00,1.05
5780.00,1.05
5779.00,1.05
5778.00,1.05
5777.00,1.05
5776.00,1.05
5775.00,1.05
5774.00,1.05
5773.00,1.05
5772.00,1.05
5771.00,1.05
5770.00,1.05
5769.00,1.05
5768.00,1.05
5767.00,1.05
5766.00,1.05
5765.00,1.05
5764.00,1.06
5763.00,1.06
5762.00,1.06
5761.00,1.06
5760.00,1.07
5759.00,1.07
5758.00,1.07
5757.00,1.08
5756.00,1.08
5755.00,1.08
5754.00,1.09
5753.00,1.09
5752.00,1.09
5751.00,1.10
5750.00,1.10
5749.00,1.10
5748.00,1.11
5747.00,1.11
5746.00,1.11
5745.00,1.11
5744.00,1.12
5743.00,1.12
5742.00,1.12
5741.00,1.12
5740.00,1.12
5739.00,1.13
5738.00,1.13
5737.00,1.13
5736.00,1.13
5735.00,1.13
5734.00,1.13
5733.00,1.13
5732.00,1.14
5731.00,1.14
5730.00,1.14
5729.00,1.14
5728.00,1.14
5727.00,1.14
5726.00,1.14
5725.00,1.14
5724.00,1.14
5723.00,1.14
5722.00,1.14
5721.00,1.14
5720.00,1.14
5719.00,1.14
5718.00,1.14
5717.00,1.14
5716.00,1.14
5715.00,1.14
5714.00,1.14
5713.00,1.14
5712.00,1.14
5711.00,1.14
5710.00,1.14
5709.00,1.14
5708.00,1.14
5707.00,1.14
5706.00,1.13
5705.00,1.13
5704.00,1.13
5703.00,1.13
5702.00,1.13
5701.00,1.13
5700.00,1.13
5699.00,1.13
5698.00,1.12
5697.00,1.12
5696.00,1.12
5695.00,1.12
5694.00,1.12
5693.00,1.12
5692.00,1.11
5691.00,1.11
5690.00,1.11
5689.00,1.11
5688.00,1.11
5687.00,1.11
5686.00,1.11
5685.00,1.11
5684.00,1.10
5683.00,1.10
5682.00,1.10
5681.00,1.10
5680.00,1.10
5679.00,1.10
5678.00,1.10
5677.00,1.10
5676.00,1.10
5675.00,1.10
5674.00,1.10
5673.00,1.10
5672.00,1.10
5671.00,1.10
5670.00,1.10
5669.00,1.10
5668.00,1.10
5667.00,1.10
5666.00,1.10
5665.00,1.10
5664.00,1.10
5663.00,1.10
5662.00,1.11
5661.00,1.11
5660.00,1.11
5659.00,1.11
5658.00,1.11
5657.00,1.11
5656.00,1.11
5655.00,1.11
5654.00,1.12
5653.00,1.12
5652.00,1.12
5651.00,1.12
5650.00,1.12
5649.00,1.13
5648.00,1.13
5647.00,1.13
5646.00,1.13
5645.00,1.13
5644.00,1.13
5643.00,1.14
5642.00,1.14
5641.00,1.14
5640.00,1.14
5639.00,1.14
5638.00,1.15
5637.00,1.15
5636.00,1.15
5635.00,1.15
5634.00,1.15
5633.00,1.15
5632.00,1.16
5631.00,1.16
5630.00,1.16
5629.00,1.16
5628.00,1.16
5627.00,1.16
5626.00,1.16
5625.00,1.16
5624.00,1.16
5623.00,1.17
5622.00,1.17
5621.00,1.17
5620.00,1.17
5619.00,1.17
5618.00,1.17
5617.00,1.17
5616.00,1.17
5615.00,1.18
5614.00,1.18
5613.00,1.18
5612.00,1.18
5611.00,1.18
5610.00,1.18
5609.00,1.19
5608.00,1.19
5607.00,1.19
5606.00,1.19
5605.00,1.19
5604.00,1.19
5603.00,1.20
5602.00,1.20
5601.00,1.20
5600.00,1.20
5599.00,1.20
5598.00,1.20
5597.00,1.20
5596.00,1.20
5595.00,1.20
5594.00,1.21
5593.00,1.21
5592.00,1.21
5591.00,1.21
5590.00,1.21
5589.00,1.21
5588.00,1.21
5587.00,1.21
5586.00,1.21
5585.00,1.21
5584.00,1.21
5583.00,1.21
5582.00,1.21
5581.00,1.22
5580.00,1.22
5579.00,1.22
5578.00,1.22
5577.00,1.22
5576.00,1.22
5575.00,1.22
5574.00,1.22
5573.00,1.22
5572.00,1.22
5571.00,1.22
5570.00,1.23
5569.00,1.23
5568.00,1.23
5567.00,1.23
5566.00,1.23
5565.00,1.23
5564.00,1.23
5563.00,1.24
5562.00,1.24
5561.00,1.24
5560.00,1.24
5559.00,1.24
5558.00,1.24
5557.00,1.24
5556.00,1.25
5555.00,1.25
5554.00,1.25
5553.00,1.25
5552.00,1.25
5551.00,1.25
5550.00,1.25
5549.00,1.25
5548.00,1.26
5547.00,1.26
5546.00,1.26
5545.00,1.26
5544.00,1.26
5543.00,1.26
5542.00,1.26
5541.00,1.26
5540.00,1.26
5539.00,1.26
5538.00,1.26
5537.00,1.26
5536.00,1.27
5535.00,1.27
5534.00,1.27
5533.00,1.27
5532.00,1.27
5531.00,1.27
5530.00,1.27
5529.00,1.27
5528.00,1.27
5527.00,1.27
5526.00,1.27
5525.00,1.27
5524.00,1.28
5523.00,1.28
5522.00,1.28
5521.00,1.28
5520.00,1.28
5519.00,1.28
5518.00,1.28
5517.00,1.28
5516.00,1.28
5515.00,1.28
5514.00,1.28
5513.00,1.28
5512.00,1.28
5511.00,1.28
5510.00,1.28
5509.00,1.28
5508.00,1.28
5507.00,1.29
5506.00,1.29
5505.00,1.29
5504.00,1.29
5503.00,1.29
5502.00,1.29
5501.00,1.29
5500.00,1.29
5499.00,1.29
5498.00,1.29
5497.00,1.29
5496.00,1.29
5495.00,1.29
5494.00,1.29
5493.00,1.29
5492.00,1.29
5491.00,1.30
5490.00,1.30
5489.00,1.30
5488.00,1.30
5487.00,1.30
5486.00,1.30
5485.00,1.30
5484.00,1.31
5483.00,1.31
5482.00,1.31
5481.00,1.31
5480.00,1.31
5479.00,1.31
5478.00,1.31
5477.00,1.31
5476.00,1.31
5475.00,1.31
5474.00,1.32
5473.00,1.32
5472.00,1.32
5471.00,1.32
5470.00,1.32
5469.00,1.32
5468.00,1.32
5467.00,1.32
5466.00,1.32
5465.00,1.32
5464.00,1.32
5463.00,1.32
5462.00,1.32
5461.00,1.32
5460.00,1.32
5459.00,1.32
5458.00,1.33
5457.00,1.33
5456.00,1.33
5455.00,1.33
5454.00,1.33
5453.00,1.33
5452.00,1.33
5451.00,1.33
5450.00,1.33
5449.00,1.33
5448.00,1.33
5447.00,1.33
5446.00,1.33
5445.00,1.33
5444.00,1.33
5443.00,1.33
5442.00,1.33
5441.00,1.33
5440.00,1.33
5439.00,1.33
5438.00,1.33
5437.00,1.33
5436.00,1.33
5435.00,1.33
5434.00,1.33
5433.00,1.33
5432.00,1.33
5431.00,1.34
5430.00,1.34
5429.00,1.34
5428.00,1.34
5427.00,1.34
5426.00,1.34
5425.00,1.34
5424.00,1.34
5423.00,1.34
5422.00,1.34
5421.00,1.34
5420.00,1.34
5419.00,1.34
5418.00,1.34
5417.00,1.34
5416.00,1.34
5415.00,1.34
5414.00,1.33
5413.00,1.33
5412.00,1.33
5411.00,1.33
5410.00,1.33
5409.00,1.33
5408.00,1.33
5407.00,1.33
5406.00,1.33
5405.00,1.33
5404.00,1.33
5403.00,1.33
5402.00,1.33
5401.00,1.33
5400.00,1.33
5399.00,1.33
5398.00,1.33
5397.00,1.32
5396.00,1.32
5395.00,1.32
5394.00,1.32
5393.00,1.32
5392.00,1.32
5391.00,1.31
5390.00,1.31
5389.00,1.31
5388.00,1.31
5387.00,1.30
5386.00,1.30
5385.00,1.30
5384.00,1.30
5383.00,1.29
5382.00,1.29
5381.00,1.29
5380.00,1.28
5379.00,1.28
5378.00,1.28
5377.00,1.27
5376.00,1.27
5375.00,1.26
5374.00,1.26
5373.00,1.26
5372.00,1.25
5371.00,1.25
5370.00,1.24
5369.00,1.24
5368.00,1.23
5367.00,1.23
5366.00,1.22
5365.00,1.22
5364.00,1.21
5363.00,1.21
5362.00,1.20
5361.00,1.20
5360.00,1.19
5359.00,1.18
5358.00,1.18
5357.00,1.17
5356.00,1.16
5355.00,1.16
5354.00,1.15
5353.00,1.14
5352.00,1.13
5351.00,1.13
5350.00,1.12
5349.00,1.11
5348.00,1.10
5347.00,1.09
5346.00,1.08
5345.00,1.07
5344.00,1.07
5343.00,1.06
5342.00,1.05
5341.00,1.04
5340.00,1.03
5339.00,1.02
5338.00,1.01
5337.00,1.00
5336.00,0.99
5335.00,0.98
5334.00,0.98
5333.00,0.97
5332.00,0.96
5331.00,0.95
5330.00,0.94
5329.00,0.93
5328.00,0.92
5327.00,0.91
5326.00,0.90
5325.00,0.90
5324.00,0.89
5323.00,0.88
5322.00,0.87
5321.00,0.86
5320.00,0.85
5319.00,0.84
5318.00,0.83
5317.00,0.83
5316.00,0.82
5315.00,0.81
5314.00,0.80
5313.00,0.79
5312.00,0.79
5311.00,0.78
5310.00,0.77
5309.00,0.76
5308.00,0.76
5307.00,0.75
5306.00,0.74
5305.00,0.74
5304.00,0.73
5303.00,0.73
5302.00,0.72
5301.00,0.72
5300.00,0.71
5299.00,0.71
5298.00,0.70
5297.00,0.70
5296.00,0.70
5295.00,0.69
5294.00,0.69
5293.00,0.69
5292.00,0.68
5291.00,0.68
5290.00,0.68
5289.00,0.68
5288.00,0.67
5287.00,0.67
5286.00,0.67
5285.00,0.67
5284.00,0.67
5283.00,0.66
5282.00,0.66
5281.00,0.66
5280.00,0.66
5279.00,0.66
5278.00,0.66
5277.00,0.66
5276.00,0.66
5275.00,0.66
5274.00,0.66
5273.00,0.66
5272.00,0.65
5271.00,0.65
5270.00,0.65
5269.00,0.65
5268.00,0.65
5267.00,0.65
5266.00,0.65
5265.00,0.65
5264.00,0.65
5263.00,0.64
5262.00,0.64
5261.00,0.64
5260.00,0.64
5259.00,0.64
5258.00,0.64
5257.00,0.64
5256.00,0.64
5255.00,0.64
5254.00,0.64
5253.00,0.64
5252.00,0.64
5251.00,0.64
5250.00,0.64
5249.00,0.64
5248.00,0.64
5247.00,0.64
5246.00,0.64
5245.00,0.64
5244.00,0.64
5243.00,0.64
5242.00,0.64
5241.00,0.64
5240.00,0.64
5239.00,0.64
5238.00,0.65
5237.00,0.65
5236.00,0.65
5235.00,0.65
5234.00,0.65
5233.00,0.65
5232.00,0.65
5231.00,0.65
5230.00,0.65
5229.00,0.65
5228.00,0.65
5227.00,0.65
5226.00,0.65
5225.00,0.65
5224.00,0.65
5223.00,0.65
5222.00,0.65
5221.00,0.65
5220.00,0.65
5219.00,0.65
5218.00,0.65
5217.00,0.65
5216.00,0.65
5215.00,0.65
5214.00,0.65
5213.00,0.65
5212.00,0.65
5211.00,0.65
5210.00,0.65
5209.00,0.65
5208.00,0.65
5207.00,0.66
5206.00,0.66
5205.00,0.66
5204.00,0.66
5203.00,0.66
5202.00,0.66
5201.00,0.66
5200.00,0.66
5199.00,0.66
5198.00,0.66
5197.00,0.66
5196.00,0.66
5195.00,0.66
5194.00,0.66
5193.00,0.66
5192.00,0.66
5191.00,0.66
5190.00,0.66
5189.00,0.66
5188.00,0.66
5187.00,0.66
5186.00,0.66
5185.00,0.66
5184.00,0.66
5183.00,0.66
5182.00,0.67
5181.00,0.67
5180.00,0.67
5179.00,0.67
5178.00,0.67
5177.00,0.67
5176.00,0.67
5175.00,0.67
5174.00,0.67
5173.00,0.67
5172.00,0.67
5171.00,0.67
5170.00,0.67
5169.00,0.67
5168.00,0.67
5167.00,0.67
5166.00,0.67
5165.00,0.67
5164.00,0.67
5163.00,0.67
5162.00,0.67
5161.00,0.67
5160.00,0.67
5159.00,0.67
5158.00,0.67
5157.00,0.68
5156.00,0.68
5155.00,0.68
5154.00,0.68
5153.00,0.68
5152.00,0.68
5151.00,0.68
5150.00,0.68
5149.00,0.68
5148.00,0.68
5147.00,0.68
5146.00,0.68
5145.00,0.68
5144.00,0.68
5143.00,0.68
5142.00,0.68
5141.00,0.68
5140.00,0.68
5139.00,0.68
5138.00,0.68
5137.00,0.68
5136.00,0.68
5135.00,0.68
5134.00,0.68
5133.00,0.68
5132.00,0.68
5131.00,0.68
5130.00,0.69
5129.00,0.69
5128.00,0.69
5127.00,0.69
5126.00,0.69
5125.00,0.69
5124.00,0.69
5123.00,0.69
5122.00,0.69
5121.00,0.69
5120.00,0.69
5119.00,0.69
5118.00,0.69
5117.00,0.69
5116.00,0.69
5115.00,0.69
5114.00,0.69
5113.00,0.70
5112.00,0.70
5111.00,0.70
5110.00,0.70
5109.00,0.70
5108.00,0.70
5107.00,0.70
5106.00,0.70
5105.00,0.70
5104.00,0.70
5103.00,0.70
5102.00,0.70
5101.00,0.70
5100.00,0.70
5099.00,0.70
5098.00,0.71
5097.00,0.71
5096.00,0.71
5095.00,0.71
5094.00,0.71
5093.00,0.71
5092.00,0.71
5091.00,0.71
5090.00,0.71
5089.00,0.71
5088.00,0.71
5087.00,0.71
5086.00,0.71
5085.00,0.71
5084.00,0.71
5083.00,0.71
5082.00,0.71
5081.00,0.71
5080.00,0.71
5079.00,0.71
5078.00,0.71
5077.00,0.72
5076.00,0.72
5075.00,0.72
5074.00,0.72
5073.00,0.72
5072.00,0.72
5071.00,0.72
5070.00,0.72
5069.00,0.72
5068.00,0.72
5067.00,0.73
5066.00,0.73
5065.00,0.73
5064.00,0.73
5063.00,0.73
5062.00,0.73
5061.00,0.73
5060.00,0.73
5059.00,0.73
5058.00,0.73
5057.00,0.73
5056.00,0.73
5055.00,0.73
5054.00,0.73
5053.00,0.73
5052.00,0.73
5051.00,0.73
5050.00,0.73
5049.00,0.73
5048.00,0.73
5047.00,0.73
5046.00,0.73
5045.00,0.73
5044.00,0.73
5043.00,0.74
5042.00,0.74
5041.00,0.74
5040.00,0.74
5039.00,0.74
5038.00,0.74
5037.00,0.74
5036.00,0.74
5035.00,0.74
5034.00,0.74
5033.00,0.74
5032.00,0.75
5031.00,0.75
5030.00,0.75
5029.00,0.75
5028.00,0.75
5027.00,0.75
5026.00,0.75
5025.00,0.75
5024.00,0.75
5023.00,0.75
5022.00,0.75
5021.00,0.75
5020.00,0.75
5019.00,0.75
5018.00,0.75
5017.00,0.75
5016.00,0.75
5015.00,0.75
5014.00,0.75
5013.00,0.75
5012.00,0.76
5011.00,0.76
5010.00,0.76
5009.00,0.76
5008.00,0.76
5007.00,0.76
5006.00,0.76
5005.00,0.76
5004.00,0.76
5003.00,0.76
5002.00,0.77
5001.00,0.77
5000.00,0.77
4999.00,0.77
4998.00,0.77
4997.00,0.77
4996.00,0.77
4995.00,0.77
4994.00,0.77
4993.00,0.77
4992.00,0.78
4991.00,0.78
4990.00,0.78
4989.00,0.78
4988.00,0.78
4987.00,0.78
4986.00,0.78
4985.00,0.78
4984.00,0.78
4983.00,0.78
4982.00,0.79
4981.00,0.79
4980.00,0.79
4979.00,0.79
4978.00,0.79
4977.00,0.79
4976.00,0.79
4975.00,0.79
4974.00,0.79
4973.00,0.79
4972.00,0.79
4971.00,0.79
4970.00,0.80
4969.00,0.80
4968.00,0.80
4967.00,0.80
4966.00,0.80
4965.00,0.80
4964.00,0.80
4963.00,0.80
4962.00,0.80
4961.00,0.80
4960.00,0.80
4959.00,0.80
4958.00,0.80
4957.00,0.80
4956.00,0.80
4955.00,0.80
4954.00,0.80
4953.00,0.80
4952.00,0.81
4951.00,0.81
4950.00,0.81
4949.00,0.81
4948.00,0.81
4947.00,0.81
4946.00,0.81
4945.00,0.81
4944.00,0.81
4943.00,0.82
4942.00,0.82
4941.00,0.82
4940.00,0.82
4939.00,0.82
4938.00,0.82
4937.00,0.82
4936.00,0.82
4935.00,0.82
4934.00,0.82
4933.00,0.83
4932.00,0.83
4931.00,0.83
4930.00,0.83
4929.00,0.83
4928.00,0.83
4927.00,0.83
4926.00,0.83
4925.00,0.83
4924.00,0.83
4923.00,0.83
4922.00,0.83
4921.00,0.84
4920.00,0.84
4919.00,0.84
4918.00,0.84
4917.00,0.84
4916.00,0.84
4915.00,0.84
4914.00,0.84
4913.00,0.84
4912.00,0.84
4911.00,0.84
4910.00,0.84
4909.00,0.84
4908.00,0.84
4907.00,0.84
4906.00,0.84
4905.00,0.85
4904.00,0.85
4903.00,0.85
4902.00,0.85
4901.00,0.85
4900.00,0.85
4899.00,0.85
4898.00,0.85
4897.00,0.85
4896.00,0.85
4895.00,0.85
4894.00,0.85
4893.00,0.85
4892.00,0.86
4891.00,0.86
4890.00,0.86
4889.00,0.86
4888.00,0.86
4887.00,0.86
4886.00,0.86
4885.00,0.86
4884.00,0.86
4883.00,0.86
4882.00,0.86
4881.00,0.86
4880.00,0.87
4879.00,0.87
4878.00,0.87
4877.00,0.87
4876.00,0.87
4875.00,0.87
4874.00,0.87
4873.00,0.87
4872.00,0.87
4871.00,0.87
4870.00,0.87
4869.00,0.88
4868.00,0.88
4867.00,0.88
4866.00,0.88
4865.00,0.88
4864.00,0.88
4863.00,0.88
4862.00,0.88
4861.00,0.88
4860.00,0.88
4859.00,0.88
4858.00,0.88
4857.00,0.89
4856.00,0.89
4855.00,0.89
4854.00,0.89
4853.00,0.89
4852.00,0.89
4851.00,0.89
4850.00,0.89
4849.00,0.89
4848.00,0.89
4847.00,0.89
4846.00,0.89
4845.00,0.89
4844.00,0.89
4843.00,0.89
4842.00,0.89
4841.00,0.89
4840.00,0.89
4839.00,0.89
4838.00,0.89
4837.00,0.89
4836.00,0.89
4835.00,0.89
4834.00,0.90
4833.00,0.90
4832.00,0.90
4831.00,0.90
4830.00,0.90
4829.00,0.90
4828.00,0.90
4827.00,0.90
4826.00,0.90
4825.00,0.90
4824.00,0.90
4823.00,0.90
4822.00,0.91
4821.00,0.91
4820.00,0.91
4819.00,0.91
4818.00,0.91
4817.00,0.91
4816.00,0.91
4815.00,0.91
4814.00,0.91
4813.00,0.91
4812.00,0.91
4811.00,0.91
4810.00,0.91
4809.00,0.92
4808.00,0.92
4807.00,0.92
4806.00,0.92
4805.00,0.92
4804.00,0.92
4803.00,0.92
4802.00,0.92
4801.00,0.92
4800.00,0.92
4799.00,0.92
4798.00,0.93
4797.00,0.93
4796.00,0.93
4795.00,0.93
4794.00,0.93
4793.00,0.93
4792.00,0.93
4791.00,0.93
4790.00,0.93
4789.00,0.94
4788.00,0.94
4787.00,0.94
4786.00,0.94
4785.00,0.94
4784.00,0.95
4783.00,0.95
4782.00,0.95
4781.00,0.95
4780.00,0.95
4779.00,0.95
4778.00,0.96
4777.00,0.96
4776.00,0.96
4775.00,0.96
4774.00,0.96
4773.00,0.96
4772.00,0.96
4771.00,0.96
4770.00,0.97
4769.00,0.97
4768.00,0.97
4767.00,0.97
4766.00,0.97
4765.00,0.97
4764.00,0.97
4763.00,0.97
4762.00,0.97
4761.00,0.97
4760.00,0.97
4759.00,0.98
4758.00,0.98
4757.00,0.98
4756.00,0.98
4755.00,0.98
4754.00,0.98
4753.00,0.98
4752.00,0.98
4751.00,0.98
4750.00,0.98
4749.00,0.99
4748.00,0.99
4747.00,0.99
4746.00,0.99
4745.00,0.99
4744.00,0.99
4743.00,0.99
4742.00,0.99
4741.00,0.99
4740.00,0.99
4739.00,1.00
4738.00,1.00
4737.00,1.00
4736.00,1.00
4735.00,1.00
4734.00,1.00
4733.00,1.00
4732.00,1.01
4731.00,1.01
4730.00,1.01
4729.00,1.01
4728.00,1.01
4727.00,1.02
4726.00,1.02
4725.00,1.02
4724.00,1.02
4723.00,1.02
4722.00,1.03
4721.00,1.03
4720.00,1.03
4719.00,1.03
4718.00,1.03
4717.00,1.04
4716.00,1.04
4715.00,1.04
4714.00,1.04
4713.00,1.04
4712.00,1.05
4711.00,1.05
4710.00,1.05
4709.00,1.05
4708.00,1.05
4707.00,1.06
4706.00,1.06
4705.00,1.06
4704.00,1.06
4703.00,1.06
4702.00,1.06
4701.00,1.07
4700.00,1.07
4699.00,1.07
4698.00,1.07
4697.00,1.07
4696.00,1.08
4695.00,1.08
4694.00,1.08
4693.00,1.08
4692.00,1.08
4691.00,1.08
4690.00,1.08
4689.00,1.08
4688.00,1.09
4687.00,1.09
4686.00,1.09
4685.00,1.09
4684.00,1.09
4683.00,1.09
4682.00,1.10
4681.00,1.10
4680.00,1.10
4679.00,1.10
4678.00,1.10
4677.00,1.11
4676.00,1.11
4675.00,1.11
4674.00,1.11
4673.00,1.11
4672.00,1.12
4671.00,1.12
4670.00,1.12
4669.00,1.12
4668.00,1.12
4667.00,1.12
4666.00,1.12
4665.00,1.12
4664.00,1.12
4663.00,1.12
4662.00,1.12
4661.00,1.12
4660.00,1.12
4659.00,1.12
4658.00,1.12
4657.00,1.13
4656.00,1.13
4655.00,1.13
4654.00,1.13
4653.00,1.13
4652.00,1.13
4651.00,1.13
4650.00,1.13
4649.00,1.13
4648.00,1.13
4647.00,1.13
4646.00,1.13
4645.00,1.14
4644.00,1.14
4643.00,1.14
4642.00,1.14
4641.00,1.14
4640.00,1.14
4639.00,1.15
4638.00,1.15
4637.00,1.15
4636.00,1.15
4635.00,1.15
4634.00,1.16
4633.00,1.16
4632.00,1.16
4631.00,1.16
4630.00,1.16
4629.00,1.16
4628.00,1.16
4627.00,1.16
4626.00,1.17
4625.00,1.17
4624.00,1.17
4623.00,1.17
4622.00,1.17
4621.00,1.17
4620.00,1.17
4619.00,1.17
4618.00,1.18
4617.00,1.18
4616.00,1.18
4615.00,1.18
4614.00,1.18
4613.00,1.18
4612.00,1.18
4611.00,1.19
4610.00,1.19
4609.00,1.19
4608.00,1.19
4607.00,1.19
4606.00,1.19
4605.00,1.19
4604.00,1.19
4603.00,1.19
4602.00,1.19
4601.00,1.19
4600.00,1.19
4599.00,1.19
4598.00,1.19
4597.00,1.19
4596.00,1.19
4595.00,1.19
4594.00,1.19
4593.00,1.19
4592.00,1.19
4591.00,1.19
4590.00,1.19
4589.00,1.20
4588.00,1.20
4587.00,1.20
4586.00,1.20
4585.00,1.20
4584.00,1.20
4583.00,1.20
4582.00,1.20
4581.00,1.20
4580.00,1.21
4579.00,1.21
4578.00,1.21
4577.00,1.21
4576.00,1.21
4575.00,1.21
4574.00,1.21
4573.00,1.21
4572.00,1.21
4571.00,1.21
4570.00,1.21
4569.00,1.22
4568.00,1.22
4567.00,1.22
4566.00,1.22
4565.00,1.22
4564.00,1.22
4563.00,1.22
4562.00,1.22
4561.00,1.23
4560.00,1.23
4559.00,1.23
4558.00,1.23
4557.00,1.23
4556.00,1.23
4555.00,1.24
4554.00,1.24
4553.00,1.24
4552.00,1.24
4551.00,1.24
4550.00,1.24
4549.00,1.24
4548.00,1.24
4547.00,1.24
4546.00,1.24
4545.00,1.24
4544.00,1.24
4543.00,1.24
4542.00,1.24
4541.00,1.24
4540.00,1.24
4539.00,1.24
4538.00,1.24
4537.00,1.24
4536.00,1.24
4535.00,1.24
4534.00,1.25
4533.00,1.25
4532.00,1.25
4531.00,1.25
4530.00,1.25
4529.00,1.25
4528.00,1.25
4527.00,1.25
4526.00,1.25
4525.00,1.25
4524.00,1.25
4523.00,1.25
4522.00,1.25
4521.00,1.25
4520.00,1.25
4519.00,1.25
4518.00,1.25
4517.00,1.25
4516.00,1.25
4515.00,1.25
4514.00,1.25
4513.00,1.25
4512.00,1.25
4511.00,1.25
4510.00,1.25
4509.00,1.25
4508.00,1.26
4507.00,1.26
4506.00,1.26
4505.00,1.26
4504.00,1.26
4503.00,1.26
4502.00,1.26
4501.00,1.26
4500.00,1.25
4499.00,1.25
4498.00,1.25
4497.00,1.25
4496.00,1.25
4495.00,1.25
4494.00,1.25
4493.00,1.25
4492.00,1.25
4491.00,1.25
4490.00,1.25
4489.00,1.25
4488.00,1.25
4487.00,1.25
4486.00,1.25
4485.00,1.24
4484.00,1.24
4483.00,1.24
4482.00,1.24
4481.00,1.24
4480.00,1.24
4479.00,1.23
4478.00,1.23
4477.00,1.23
4476.00,1.23
4475.00,1.23
4474.00,1.23
4473.00,1.22
4472.00,1.22
4471.00,1.22
4470.00,1.22
4469.00,1.22
4468.00,1.21
4467.00,1.21
4466.00,1.21
4465.00,1.21
4464.00,1.21
4463.00,1.20
4462.00,1.20
4461.00,1.20
4460.00,1.20
4459.00,1.19
4458.00,1.19
4457.00,1.19
4456.00,1.18
4455.00,1.18
4454.00,1.18
4453.00,1.17
4452.00,1.17
4451.00,1.16
4450.00,1.16
4449.00,1.15
4448.00,1.15
4447.00,1.14
4446.00,1.14
4445.00,1.13
4444.00,1.13
4443.00,1.12
4442.00,1.12
4441.00,1.12
4440.00,1.11
4439.00,1.11
4438.00,1.10
4437.00,1.10
4436.00,1.10
4435.00,1.09
4434.00,1.09
4433.00,1.09
4432.00,1.08
4431.00,1.08
4430.00,1.08
4429.00,1.08
4428.00,1.07
4427.00,1.07
4426.00,1.07
4425.00,1.07
4424.00,1.06
4423.00,1.06
4422.00,1.06
4421.00,1.06
4420.00,1.06
4419.00,1.06
4418.00,1.05
4417.00,1.05
4416.00,1.05
4415.00,1.05
4414.00,1.05
4413.00,1.05
4412.00,1.05
4411.00,1.05
4410.00,1.05
4409.00,1.05
4408.00,1.05
4407.00,1.06
4406.00,1.06
4405.00,1.06
4404.00,1.06
4403.00,1.06
4402.00,1.07
4401.00,1.07
4400.00,1.07
4399.00,1.07
4398.00,1.07
4397.00,1.08
4396.00,1.08
4395.00,1.08
4394.00,1.08
4393.00,1.08
4392.00,1.09
4391.00,1.09
4390.00,1.09
4389.00,1.09
4388.00,1.09
4387.00,1.09
4386.00,1.10
4385.00,1.10
4384.00,1.10
4383.00,1.10
4382.00,1.10
4381.00,1.10
4380.00,1.11
4379.00,1.11
4378.00,1.11
4377.00,1.11
4376.00,1.11
4375.00,1.11
4374.00,1.11
4373.00,1.11
4372.00,1.11
4371.00,1.11
4370.00,1.11
4369.00,1.11
4368.00,1.11
4367.00,1.11
4366.00,1.11
4365.00,1.11
4364.00,1.11
4363.00,1.11
4362.00,1.11
4361.00,1.11
4360.00,1.11
4359.00,1.11
4358.00,1.10
4357.00,1.10
4356.00,1.10
4355.00,1.10
4354.00,1.10
4353.00,1.10
4352.00,1.10
4351.00,1.10
4350.00,1.10
4349.00,1.11
4348.00,1.11
4347.00,1.11
4346.00,1.11
4345.00,1.11
4344.00,1.11
4343.00,1.11
4342.00,1.11
4341.00,1.11
4340.00,1.11
4339.00,1.11
4338.00,1.11
4337.00,1.11
4336.00,1.11
4335.00,1.11
4334.00,1.11
4333.00,1.11
4332.00,1.11
4331.00,1.12
4330.00,1.12
4329.00,1.12
4328.00,1.12
4327.00,1.12
4326.00,1.12
4325.00,1.12
4324.00,1.13
4323.00,1.13
4322.00,1.13
4321.00,1.13
4320.00,1.13
4319.00,1.13
4318.00,1.14
4317.00,1.14
4316.00,1.14
4315.00,1.14
4314.00,1.14
4313.00,1.14
4312.00,1.15
4311.00,1.15
4310.00,1.15
4309.00,1.15
4308.00,1.15
4307.00,1.16
4306.00,1.16
4305.00,1.16
4304.00,1.16
4303.00,1.17
4302.00,1.17
4301.00,1.17
4300.00,1.17
4299.00,1.17
4298.00,1.18
4297.00,1.18
4296.00,1.18
4295.00,1.18
4294.00,1.18
4293.00,1.18
4292.00,1.18
4291.00,1.18
4290.00,1.18
4289.00,1.18
4288.00,1.18
4287.00,1.18
4286.00,1.18
4285.00,1.18
4284.00,1.18
4283.00,1.19
4282.00,1.19
4281.00,1.19
4280.00,1.19
4279.00,1.19
4278.00,1.19
4277.00,1.19
4276.00,1.19
4275.00,1.19
4274.00,1.19
4273.00,1.19
4272.00,1.19
4271.00,1.19
4270.00,1.19
4269.00,1.19
4268.00,1.19
4267.00,1.19
4266.00,1.19
4265.00,1.19
4264.00,1.18
4263.00,1.18
4262.00,1.18
4261.00,1.18
4260.00,1.18
4259.00,1.18
4258.00,1.18
4257.00,1.18
4256.00,1.18
4255.00,1.19
4254.00,1.19
4253.00,1.19
4252.00,1.19
4251.00,1.19
4250.00,1.19
4249.00,1.19
4248.00,1.19
4247.00,1.20
4246.00,1.20
4245.00,1.20
4244.00,1.20
4243.00,1.20
4242.00,1.20
4241.00,1.20
4240.00,1.20
4239.00,1.21
4238.00,1.21
4237.00,1.21
4236.00,1.21
4235.00,1.21
4234.00,1.21
4233.00,1.21
4232.00,1.21
4231.00,1.21
4230.00,1.22
4229.00,1.22
4228.00,1.22
4227.00,1.22
4226.00,1.22
4225.00,1.22
4224.00,1.22
4223.00,1.22
4222.00,1.22
4221.00,1.22
4220.00,1.22
4219.00,1.22
4218.00,1.22
4217.00,1.22
4216.00,1.22
4215.00,1.22
4214.00,1.22
4213.00,1.22
4212.00,1.22
4211.00,1.22
4210.00,1.22
4209.00,1.22
4208.00,1.22
4207.00,1.22
4206.00,1.22
4205.00,1.22
4204.00,1.22
4203.00,1.22
4202.00,1.22
4201.00,1.22
4200.00,1.22
4199.00,1.22
4198.00,1.22
4197.00,1.22
4196.00,1.22
4195.00,1.22
4194.00,1.22
4193.00,1.23
4192.00,1.23
4191.00,1.23
4190.00,1.23
4189.00,1.23
4188.00,1.23
4187.00,1.23
4186.00,1.23
4185.00,1.23
4184.00,1.23
4183.00,1.23
4182.00,1.23
4181.00,1.24
4180.00,1.24
4179.00,1.24
4178.00,1.24
4177.00,1.24
4176.00,1.24
4175.00,1.24
4174.00,1.24
4173.00,1.24
4172.00,1.24
4171.00,1.24
4170.00,1.24
4169.00,1.25
4168.00,1.25
4167.00,1.25
4166.00,1.25
4165.00,1.25
4164.00,1.25
4163.00,1.25
4162.00,1.25
4161.00,1.25
4160.00,1.25
4159.00,1.25
4158.00,1.25
4157.00,1.25
4156.00,1.25
4155.00,1.26
4154.00,1.26
4153.00,1.26
4152.00,1.26
4151.00,1.26
4150.00,1.26
4149.00,1.26
4148.00,1.26
4147.00,1.26
4146.00,1.26
4145.00,1.26
4144.00,1.26
4143.00,1.26
4142.00,1.26
4141.00,1.26
4140.00,1.26
4139.00,1.26
4138.00,1.26
4137.00,1.26
4136.00,1.26
4135.00,1.26
4134.00,1.26
4133.00,1.26
4132.00,1.26
4131.00,1.26
4130.00,1.26
4129.00,1.26
4128.00,1.26
4127.00,1.26
4126.00,1.26
4125.00,1.26
4124.00,1.26
4123.00,1.26
4122.00,1.26
4121.00,1.26
4120.00,1.26
4119.00,1.26
4118.00,1.26
4117.00,1.26
4116.00,1.26
4115.00,1.26
4114.00,1.26
4113.00,1.26
4112.00,1.26
4111.00,1.26
4110.00,1.26
4109.00,1.26
4108.00,1.26
4107.00,1.26
4106.00,1.26
4105.00,1.26
4104.00,1.26
4103.00,1.26
4102.00,1.26
4101.00,1.26
4100.00,1.26
4099.00,1.26
4098.00,1.26
4097.00,1.26
4096.00,1.26
4095.00,1.26
4094.00,1.26
4093.00,1.27
4092.00,1.27
4091.00,1.27
4090.00,1.27
4089.00,1.27
4088.00,1.27
4087.00,1.27
4086.00,1.27
4085.00,1.28
4084.00,1.28
4083.00,1.28
4082.00,1.28
4081.00,1.28
4080.00,1.28
4079.00,1.28
4078.00,1.28
4077.00,1.28
4076.00,1.28
4075.00,1.29
4074.00,1.29
4073.00,1.29
4072.00,1.29
4071.00,1.29
4070.00,1.29
4069.00,1.29
4068.00,1.29
4067.00,1.29
4066.00,1.30
4065.00,1.30
4064.00,1.30
4063.00,1.30
4062.00,1.30
4061.00,1.30
4060.00,1.30
4059.00,1.30
4058.00,1.30
4057.00,1.31
4056.00,1.31
4055.00,1.31
4054.00,1.31
4053.00,1.31
4052.00,1.31
4051.00,1.31
4050.00,1.31
4049.00,1.31
4048.00,1.31
4047.00,1.31
4046.00,1.31
4045.00,1.31
4044.00,1.31
4043.00,1.31
4042.00,1.31
4041.00,1.31
4040.00,1.31
4039.00,1.31
4038.00,1.31
4037.00,1.31
4036.00,1.31
4035.00,1.31
4034.00,1.31
4033.00,1.31
4032.00,1.31
4031.00,1.31
4030.00,1.31
4029.00,1.31
4028.00,1.31
4027.00,1.31
4026.00,1.31
4025.00,1.31
4024.00,1.31
4023.00,1.31
4022.00,1.31
4021.00,1.31
4020.00,1.31
4019.00,1.31
4018.00,1.31
4017.00,1.31
4016.00,1.31
4015.00,1.31
4014.00,1.31
4013.00,1.31
4012.00,1.31
4011.00,1.31
4010.00,1.31
4009.00,1.32
4008.00,1.32
4007.00,1.32
4006.00,1.32
4005.00,1.33
4004.00,1.33
4003.00,1.33
4002.00,1.33
4001.00,1.34
4000.00,1.34
