创建为新数据集,样品 663 用户 Administrator 日期 星期四, 七月 19 2018
cm-1,%T
10000.00,1.43
9999.00,1.43
9998.00,1.43
9997.00,1.43
9996.00,1.43
9995.00,1.43
9994.00,1.43
9993.00,1.43
9992.00,1.42
9991.00,1.42
9990.00,1.42
9989.00,1.42
9988.00,1.42
9987.00,1.42
9986.00,1.42
9985.00,1.42
9984.00,1.42
9983.00,1.42
9982.00,1.42
9981.00,1.42
9980.00,1.42
9979.00,1.42
9978.00,1.42
9977.00,1.42
9976.00,1.43
9975.00,1.43
9974.00,1.43
9973.00,1.43
9972.00,1.43
9971.00,1.43
9970.00,1.43
9969.00,1.43
9968.00,1.43
9967.00,1.43
9966.00,1.43
9965.00,1.43
9964.00,1.43
9963.00,1.43
9962.00,1.43
9961.00,1.42
9960.00,1.42
9959.00,1.42
9958.00,1.42
9957.00,1.42
9956.00,1.42
9955.00,1.41
9954.00,1.41
9953.00,1.41
9952.00,1.41
9951.00,1.41
9950.00,1.41
9949.00,1.41
9948.00,1.41
9947.00,1.41
9946.00,1.41
9945.00,1.41
9944.00,1.41
9943.00,1.41
9942.00,1.42
9941.00,1.42
9940.00,1.42
9939.00,1.42
9938.00,1.42
9937.00,1.42
9936.00,1.42
9935.00,1.42
9934.00,1.43
9933.00,1.43
9932.00,1.43
9931.00,1.43
9930.00,1.43
9929.00,1.43
9928.00,1.43
9927.00,1.43
9926.00,1.42
9925.00,1.42
9924.00,1.42
9923.00,1.42
9922.00,1.42
9921.00,1.42
9920.00,1.42
9919.00,1.42
9918.00,1.42
9917.00,1.42
9916.00,1.42
9915.00,1.42
9914.00,1.41
9913.00,1.41
9912.00,1.41
9911.00,1.41
9910.00,1.41
9909.00,1.41
9908.00,1.41
9907.00,1.41
9906.00,1.41
9905.00,1.41
9904.00,1.41
9903.00,1.41
9902.00,1.41
9901.00,1.41
9900.00,1.41
9899.00,1.41
9898.00,1.41
9897.00,1.41
9896.00,1.40
9895.00,1.40
9894.00,1.40
9893.00,1.40
9892.00,1.40
9891.00,1.40
9890.00,1.40
9889.00,1.40
9888.00,1.40
9887.00,1.40
9886.00,1.40
9885.00,1.40
9884.00,1.40
9883.00,1.40
9882.00,1.40
9881.00,1.40
9880.00,1.40
9879.00,1.40
9878.00,1.40
9877.00,1.41
9876.00,1.41
9875.00,1.41
9874.00,1.41
9873.00,1.41
9872.00,1.41
9871.00,1.41
9870.00,1.41
9869.00,1.42
9868.00,1.42
9867.00,1.42
9866.00,1.42
9865.00,1.42
9864.00,1.42
9863.00,1.41
9862.00,1.41
9861.00,1.41
9860.00,1.41
9859.00,1.41
9858.00,1.41
9857.00,1.41
9856.00,1.40
9855.00,1.40
9854.00,1.40
9853.00,1.40
9852.00,1.40
9851.00,1.40
9850.00,1.40
9849.00,1.39
9848.00,1.39
9847.00,1.39
9846.00,1.39
9845.00,1.39
9844.00,1.39
9843.00,1.39
9842.00,1.39
9841.00,1.39
9840.00,1.39
9839.00,1.39
9838.00,1.39
9837.00,1.39
9836.00,1.39
9835.00,1.39
9834.00,1.39
9833.00,1.40
9832.00,1.40
9831.00,1.40
9830.00,1.40
9829.00,1.40
9828.00,1.40
9827.00,1.41
9826.00,1.41
9825.00,1.41
9824.00,1.41
9823.00,1.41
9822.00,1.41
9821.00,1.41
9820.00,1.41
9819.00,1.40
9818.00,1.40
9817.00,1.40
9816.00,1.40
9815.00,1.40
9814.00,1.40
9813.00,1.40
9812.00,1.40
9811.00,1.40
9810.00,1.40
9809.00,1.40
9808.00,1.40
9807.00,1.40
9806.00,1.40
9805.00,1.40
9804.00,1.40
9803.00,1.40
9802.00,1.40
9801.00,1.40
9800.00,1.41
9799.00,1.41
9798.00,1.41
9797.00,1.41
9796.00,1.41
9795.00,1.41
9794.00,1.41
9793.00,1.41
9792.00,1.42
9791.00,1.42
9790.00,1.42
9789.00,1.42
9788.00,1.42
9787.00,1.42
9786.00,1.42
9785.00,1.42
9784.00,1.42
9783.00,1.42
9782.00,1.41
9781.00,1.41
9780.00,1.41
9779.00,1.41
9778.00,1.41
9777.00,1.40
9776.00,1.40
9775.00,1.40
9774.00,1.40
9773.00,1.40
9772.00,1.39
9771.00,1.39
9770.00,1.39
9769.00,1.39
9768.00,1.39
9767.00,1.39
9766.00,1.39
9765.00,1.39
9764.00,1.39
9763.00,1.39
9762.00,1.39
9761.00,1.39
9760.00,1.39
9759.00,1.39
9758.00,1.39
9757.00,1.39
9756.00,1.39
9755.00,1.39
9754.00,1.39
9753.00,1.39
9752.00,1.39
9751.00,1.39
9750.00,1.38
9749.00,1.38
9748.00,1.38
9747.00,1.38
9746.00,1.38
9745.00,1.38
9744.00,1.38
9743.00,1.38
9742.00,1.38
9741.00,1.39
9740.00,1.39
9739.00,1.39
9738.00,1.39
9737.00,1.40
9736.00,1.40
9735.00,1.40
9734.00,1.40
9733.00,1.41
9732.00,1.41
9731.00,1.41
9730.00,1.41
9729.00,1.41
9728.00,1.42
9727.00,1.42
9726.00,1.42
9725.00,1.42
9724.00,1.42
9723.00,1.42
9722.00,1.42
9721.00,1.42
9720.00,1.42
9719.00,1.42
9718.00,1.42
9717.00,1.42
9716.00,1.41
9715.00,1.41
9714.00,1.41
9713.00,1.41
9712.00,1.41
9711.00,1.41
9710.00,1.41
9709.00,1.41
9708.00,1.41
9707.00,1.41
9706.00,1.41
9705.00,1.42
9704.00,1.42
9703.00,1.42
9702.00,1.42
9701.00,1.42
9700.00,1.42
9699.00,1.42
9698.00,1.42
9697.00,1.43
9696.00,1.43
9695.00,1.43
9694.00,1.43
9693.00,1.43
9692.00,1.43
9691.00,1.43
9690.00,1.43
9689.00,1.43
9688.00,1.43
9687.00,1.43
9686.00,1.43
9685.00,1.42
9684.00,1.42
9683.00,1.42
9682.00,1.42
9681.00,1.42
9680.00,1.42
9679.00,1.42
9678.00,1.42
9677.00,1.42
9676.00,1.42
9675.00,1.42
9674.00,1.42
9673.00,1.42
9672.00,1.42
9671.00,1.42
9670.00,1.42
9669.00,1.42
9668.00,1.42
9667.00,1.42
9666.00,1.41
9665.00,1.41
9664.00,1.41
9663.00,1.41
9662.00,1.41
9661.00,1.41
9660.00,1.41
9659.00,1.41
9658.00,1.40
9657.00,1.40
9656.00,1.40
9655.00,1.40
9654.00,1.40
9653.00,1.40
9652.00,1.40
9651.00,1.39
9650.00,1.39
9649.00,1.39
9648.00,1.39
9647.00,1.39
9646.00,1.40
9645.00,1.40
9644.00,1.40
9643.00,1.40
9642.00,1.40
9641.00,1.40
9640.00,1.40
9639.00,1.40
9638.00,1.40
9637.00,1.41
9636.00,1.41
9635.00,1.41
9634.00,1.41
9633.00,1.41
9632.00,1.41
9631.00,1.41
9630.00,1.41
9629.00,1.41
9628.00,1.41
9627.00,1.41
9626.00,1.41
9625.00,1.41
9624.00,1.41
9623.00,1.41
9622.00,1.41
9621.00,1.41
9620.00,1.40
9619.00,1.40
9618.00,1.40
9617.00,1.40
9616.00,1.40
9615.00,1.40
9614.00,1.40
9613.00,1.40
9612.00,1.39
9611.00,1.39
9610.00,1.39
9609.00,1.39
9608.00,1.39
9607.00,1.39
9606.00,1.39
9605.00,1.39
9604.00,1.39
9603.00,1.39
9602.00,1.39
9601.00,1.39
9600.00,1.38
9599.00,1.38
9598.00,1.38
9597.00,1.38
9596.00,1.38
9595.00,1.38
9594.00,1.38
9593.00,1.38
9592.00,1.38
9591.00,1.38
9590.00,1.39
9589.00,1.39
9588.00,1.39
9587.00,1.39
9586.00,1.39
9585.00,1.39
9584.00,1.40
9583.00,1.40
9582.00,1.40
9581.00,1.40
9580.00,1.40
9579.00,1.41
9578.00,1.41
9577.00,1.41
9576.00,1.41
9575.00,1.41
9574.00,1.41
9573.00,1.41
9572.00,1.41
9571.00,1.41
9570.00,1.41
9569.00,1.41
9568.00,1.41
9567.00,1.41
9566.00,1.41
9565.00,1.41
9564.00,1.41
9563.00,1.41
9562.00,1.40
9561.00,1.40
9560.00,1.40
9559.00,1.40
9558.00,1.40
9557.00,1.40
9556.00,1.39
9555.00,1.39
9554.00,1.39
9553.00,1.39
9552.00,1.39
9551.00,1.38
9550.00,1.38
9549.00,1.38
9548.00,1.38
9547.00,1.38
9546.00,1.38
9545.00,1.38
9544.00,1.38
9543.00,1.38
9542.00,1.38
9541.00,1.38
9540.00,1.38
9539.00,1.38
9538.00,1.38
9537.00,1.38
9536.00,1.38
9535.00,1.38
9534.00,1.38
9533.00,1.39
9532.00,1.39
9531.00,1.39
9530.00,1.39
9529.00,1.39
9528.00,1.40
9527.00,1.40
9526.00,1.40
9525.00,1.40
9524.00,1.40
9523.00,1.41
9522.00,1.41
9521.00,1.41
9520.00,1.41
9519.00,1.41
9518.00,1.41
9517.00,1.42
9516.00,1.42
9515.00,1.42
9514.00,1.42
9513.00,1.42
9512.00,1.42
9511.00,1.41
9510.00,1.41
9509.00,1.41
9508.00,1.41
9507.00,1.41
9506.00,1.40
9505.00,1.40
9504.00,1.40
9503.00,1.39
9502.00,1.39
9501.00,1.39
9500.00,1.39
9499.00,1.38
9498.00,1.38
9497.00,1.38
9496.00,1.38
9495.00,1.38
9494.00,1.38
9493.00,1.38
9492.00,1.38
9491.00,1.38
9490.00,1.38
9489.00,1.39
9488.00,1.39
9487.00,1.39
9486.00,1.39
9485.00,1.39
9484.00,1.40
9483.00,1.40
9482.00,1.40
9481.00,1.40
9480.00,1.40
9479.00,1.40
9478.00,1.40
9477.00,1.40
9476.00,1.41
9475.00,1.41
9474.00,1.41
9473.00,1.40
9472.00,1.40
9471.00,1.40
9470.00,1.40
9469.00,1.40
9468.00,1.40
9467.00,1.40
9466.00,1.40
9465.00,1.40
9464.00,1.40
9463.00,1.40
9462.00,1.39
9461.00,1.39
9460.00,1.39
9459.00,1.39
9458.00,1.39
9457.00,1.39
9456.00,1.38
9455.00,1.38
9454.00,1.38
9453.00,1.38
9452.00,1.38
9451.00,1.38
9450.00,1.38
9449.00,1.38
9448.00,1.38
9447.00,1.38
9446.00,1.38
9445.00,1.38
9444.00,1.38
9443.00,1.38
9442.00,1.39
9441.00,1.39
9440.00,1.39
9439.00,1.39
9438.00,1.39
9437.00,1.40
9436.00,1.40
9435.00,1.40
9434.00,1.40
9433.00,1.40
9432.00,1.40
9431.00,1.40
9430.00,1.40
9429.00,1.40
9428.00,1.40
9427.00,1.40
9426.00,1.40
9425.00,1.40
9424.00,1.39
9423.00,1.39
9422.00,1.39
9421.00,1.39
9420.00,1.39
9419.00,1.39
9418.00,1.39
9417.00,1.40
9416.00,1.40
9415.00,1.40
9414.00,1.40
9413.00,1.41
9412.00,1.41
9411.00,1.41
9410.00,1.41
9409.00,1.42
9408.00,1.42
9407.00,1.42
9406.00,1.43
9405.00,1.43
9404.00,1.43
9403.00,1.43
9402.00,1.43
9401.00,1.43
9400.00,1.43
9399.00,1.43
9398.00,1.43
9397.00,1.42
9396.00,1.42
9395.00,1.42
9394.00,1.42
9393.00,1.41
9392.00,1.41
9391.00,1.41
9390.00,1.41
9389.00,1.41
9388.00,1.40
9387.00,1.40
9386.00,1.40
9385.00,1.40
9384.00,1.40
9383.00,1.40
9382.00,1.40
9381.00,1.40
9380.00,1.39
9379.00,1.39
9378.00,1.39
9377.00,1.39
9376.00,1.39
9375.00,1.39
9374.00,1.39
9373.00,1.39
9372.00,1.38
9371.00,1.38
9370.00,1.38
9369.00,1.38
9368.00,1.38
9367.00,1.38
9366.00,1.37
9365.00,1.37
9364.00,1.37
9363.00,1.37
9362.00,1.37
9361.00,1.37
9360.00,1.37
9359.00,1.37
9358.00,1.37
9357.00,1.37
9356.00,1.37
9355.00,1.38
9354.00,1.38
9353.00,1.38
9352.00,1.38
9351.00,1.38
9350.00,1.38
9349.00,1.39
9348.00,1.39
9347.00,1.39
9346.00,1.39
9345.00,1.39
9344.00,1.39
9343.00,1.39
9342.00,1.39
9341.00,1.39
9340.00,1.39
9339.00,1.39
9338.00,1.39
9337.00,1.39
9336.00,1.39
9335.00,1.39
9334.00,1.39
9333.00,1.39
9332.00,1.40
9331.00,1.40
9330.00,1.40
9329.00,1.40
9328.00,1.40
9327.00,1.40
9326.00,1.40
9325.00,1.40
9324.00,1.40
9323.00,1.40
9322.00,1.40
9321.00,1.40
9320.00,1.40
9319.00,1.40
9318.00,1.41
9317.00,1.41
9316.00,1.41
9315.00,1.41
9314.00,1.41
9313.00,1.41
9312.00,1.41
9311.00,1.41
9310.00,1.41
9309.00,1.41
9308.00,1.40
9307.00,1.40
9306.00,1.40
9305.00,1.40
9304.00,1.40
9303.00,1.40
9302.00,1.40
9301.00,1.40
9300.00,1.40
9299.00,1.39
9298.00,1.39
9297.00,1.39
9296.00,1.39
9295.00,1.39
9294.00,1.39
9293.00,1.39
9292.00,1.39
9291.00,1.39
9290.00,1.39
9289.00,1.38
9288.00,1.38
9287.00,1.38
9286.00,1.38
9285.00,1.38
9284.00,1.38
9283.00,1.38
9282.00,1.38
9281.00,1.38
9280.00,1.38
9279.00,1.38
9278.00,1.38
9277.00,1.39
9276.00,1.39
9275.00,1.39
9274.00,1.39
9273.00,1.39
9272.00,1.39
9271.00,1.39
9270.00,1.39
9269.00,1.40
9268.00,1.40
9267.00,1.40
9266.00,1.40
9265.00,1.40
9264.00,1.40
9263.00,1.40
9262.00,1.40
9261.00,1.40
9260.00,1.40
9259.00,1.40
9258.00,1.40
9257.00,1.40
9256.00,1.40
9255.00,1.40
9254.00,1.40
9253.00,1.40
9252.00,1.40
9251.00,1.40
9250.00,1.40
9249.00,1.40
9248.00,1.39
9247.00,1.39
9246.00,1.39
9245.00,1.39
9244.00,1.39
9243.00,1.39
9242.00,1.39
9241.00,1.39
9240.00,1.38
9239.00,1.38
9238.00,1.38
9237.00,1.38
9236.00,1.38
9235.00,1.38
9234.00,1.38
9233.00,1.38
9232.00,1.38
9231.00,1.39
9230.00,1.39
9229.00,1.39
9228.00,1.39
9227.00,1.39
9226.00,1.39
9225.00,1.39
9224.00,1.39
9223.00,1.40
9222.00,1.40
9221.00,1.40
9220.00,1.40
9219.00,1.40
9218.00,1.40
9217.00,1.40
9216.00,1.40
9215.00,1.40
9214.00,1.40
9213.00,1.40
9212.00,1.40
9211.00,1.40
9210.00,1.39
9209.00,1.39
9208.00,1.39
9207.00,1.39
9206.00,1.39
9205.00,1.39
9204.00,1.39
9203.00,1.39
9202.00,1.39
9201.00,1.39
9200.00,1.39
9199.00,1.39
9198.00,1.39
9197.00,1.39
9196.00,1.39
9195.00,1.39
9194.00,1.39
9193.00,1.39
9192.00,1.39
9191.00,1.39
9190.00,1.40
9189.00,1.40
9188.00,1.40
9187.00,1.40
9186.00,1.40
9185.00,1.40
9184.00,1.40
9183.00,1.40
9182.00,1.40
9181.00,1.40
9180.00,1.41
9179.00,1.41
9178.00,1.41
9177.00,1.41
9176.00,1.41
9175.00,1.41
9174.00,1.41
9173.00,1.41
9172.00,1.41
9171.00,1.41
9170.00,1.41
9169.00,1.41
9168.00,1.42
9167.00,1.42
9166.00,1.42
9165.00,1.42
9164.00,1.42
9163.00,1.42
9162.00,1.42
9161.00,1.42
9160.00,1.43
9159.00,1.43
9158.00,1.43
9157.00,1.43
9156.00,1.43
9155.00,1.43
9154.00,1.43
9153.00,1.43
9152.00,1.43
9151.00,1.43
9150.00,1.43
9149.00,1.43
9148.00,1.43
9147.00,1.43
9146.00,1.42
9145.00,1.42
9144.00,1.42
9143.00,1.42
9142.00,1.42
9141.00,1.42
9140.00,1.41
9139.00,1.41
9138.00,1.41
9137.00,1.41
9136.00,1.41
9135.00,1.41
9134.00,1.41
9133.00,1.40
9132.00,1.40
9131.00,1.40
9130.00,1.40
9129.00,1.40
9128.00,1.40
9127.00,1.40
9126.00,1.40
9125.00,1.40
9124.00,1.40
9123.00,1.40
9122.00,1.40
9121.00,1.40
9120.00,1.40
9119.00,1.40
9118.00,1.40
9117.00,1.40
9116.00,1.40
9115.00,1.40
9114.00,1.40
9113.00,1.40
9112.00,1.40
9111.00,1.40
9110.00,1.40
9109.00,1.40
9108.00,1.40
9107.00,1.40
9106.00,1.41
9105.00,1.41
9104.00,1.41
9103.00,1.41
9102.00,1.41
9101.00,1.41
9100.00,1.41
9099.00,1.41
9098.00,1.41
9097.00,1.41
9096.00,1.40
9095.00,1.40
9094.00,1.40
9093.00,1.40
9092.00,1.40
9091.00,1.40
9090.00,1.40
9089.00,1.39
9088.00,1.39
9087.00,1.39
9086.00,1.39
9085.00,1.39
9084.00,1.39
9083.00,1.39
9082.00,1.39
9081.00,1.39
9080.00,1.39
9079.00,1.39
9078.00,1.39
9077.00,1.39
9076.00,1.39
9075.00,1.40
9074.00,1.40
9073.00,1.40
9072.00,1.40
9071.00,1.40
9070.00,1.41
9069.00,1.41
9068.00,1.41
9067.00,1.41
9066.00,1.41
9065.00,1.41
9064.00,1.41
9063.00,1.41
9062.00,1.41
9061.00,1.41
9060.00,1.41
9059.00,1.41
9058.00,1.41
9057.00,1.41
9056.00,1.41
9055.00,1.41
9054.00,1.41
9053.00,1.41
9052.00,1.40
9051.00,1.40
9050.00,1.40
9049.00,1.40
9048.00,1.40
9047.00,1.40
9046.00,1.40
9045.00,1.40
9044.00,1.40
9043.00,1.40
9042.00,1.40
9041.00,1.40
9040.00,1.41
9039.00,1.41
9038.00,1.41
9037.00,1.41
9036.00,1.41
9035.00,1.41
9034.00,1.41
9033.00,1.41
9032.00,1.41
9031.00,1.42
9030.00,1.42
9029.00,1.42
9028.00,1.42
9027.00,1.42
9026.00,1.42
9025.00,1.42
9024.00,1.42
9023.00,1.42
9022.00,1.43
9021.00,1.43
9020.00,1.43
9019.00,1.43
9018.00,1.43
9017.00,1.42
9016.00,1.42
9015.00,1.42
9014.00,1.42
9013.00,1.42
9012.00,1.42
9011.00,1.42
9010.00,1.42
9009.00,1.42
9008.00,1.42
9007.00,1.41
9006.00,1.41
9005.00,1.41
9004.00,1.41
9003.00,1.41
9002.00,1.41
9001.00,1.41
9000.00,1.41
8999.00,1.41
8998.00,1.41
8997.00,1.41
8996.00,1.41
8995.00,1.41
8994.00,1.41
8993.00,1.41
8992.00,1.42
8991.00,1.42
8990.00,1.42
8989.00,1.42
8988.00,1.42
8987.00,1.42
8986.00,1.42
8985.00,1.42
8984.00,1.42
8983.00,1.42
8982.00,1.42
8981.00,1.42
8980.00,1.42
8979.00,1.42
8978.00,1.42
8977.00,1.42
8976.00,1.42
8975.00,1.42
8974.00,1.42
8973.00,1.42
8972.00,1.42
8971.00,1.42
8970.00,1.42
8969.00,1.42
8968.00,1.42
8967.00,1.42
8966.00,1.42
8965.00,1.42
8964.00,1.42
8963.00,1.41
8962.00,1.41
8961.00,1.41
8960.00,1.41
8959.00,1.41
8958.00,1.41
8957.00,1.41
8956.00,1.41
8955.00,1.41
8954.00,1.41
8953.00,1.41
8952.00,1.41
8951.00,1.41
8950.00,1.41
8949.00,1.41
8948.00,1.41
8947.00,1.41
8946.00,1.41
8945.00,1.41
8944.00,1.41
8943.00,1.41
8942.00,1.41
8941.00,1.41
8940.00,1.41
8939.00,1.41
8938.00,1.41
8937.00,1.41
8936.00,1.41
8935.00,1.41
8934.00,1.41
8933.00,1.41
8932.00,1.41
8931.00,1.41
8930.00,1.41
8929.00,1.41
8928.00,1.41
8927.00,1.41
8926.00,1.41
8925.00,1.41
8924.00,1.41
8923.00,1.41
8922.00,1.41
8921.00,1.41
8920.00,1.41
8919.00,1.41
8918.00,1.41
8917.00,1.41
8916.00,1.41
8915.00,1.41
8914.00,1.42
8913.00,1.42
8912.00,1.42
8911.00,1.42
8910.00,1.42
8909.00,1.42
8908.00,1.42
8907.00,1.42
8906.00,1.42
8905.00,1.42
8904.00,1.42
8903.00,1.42
8902.00,1.42
8901.00,1.43
8900.00,1.43
8899.00,1.43
8898.00,1.43
8897.00,1.43
8896.00,1.43
8895.00,1.43
8894.00,1.43
8893.00,1.43
8892.00,1.43
8891.00,1.43
8890.00,1.43
8889.00,1.43
8888.00,1.43
8887.00,1.43
8886.00,1.42
8885.00,1.42
8884.00,1.42
8883.00,1.42
8882.00,1.42
8881.00,1.42
8880.00,1.42
8879.00,1.42
8878.00,1.41
8877.00,1.41
8876.00,1.41
8875.00,1.41
8874.00,1.41
8873.00,1.41
8872.00,1.40
8871.00,1.40
8870.00,1.40
8869.00,1.40
8868.00,1.40
8867.00,1.40
8866.00,1.40
8865.00,1.39
8864.00,1.39
8863.00,1.39
8862.00,1.39
8861.00,1.39
8860.00,1.39
8859.00,1.39
8858.00,1.39
8857.00,1.39
8856.00,1.39
8855.00,1.39
8854.00,1.39
8853.00,1.39
8852.00,1.39
8851.00,1.39
8850.00,1.39
8849.00,1.39
8848.00,1.39
8847.00,1.39
8846.00,1.39
8845.00,1.39
8844.00,1.39
8843.00,1.39
8842.00,1.39
8841.00,1.39
8840.00,1.39
8839.00,1.39
8838.00,1.39
8837.00,1.39
8836.00,1.39
8835.00,1.39
8834.00,1.39
8833.00,1.39
8832.00,1.39
8831.00,1.39
8830.00,1.39
8829.00,1.39
8828.00,1.39
8827.00,1.39
8826.00,1.39
8825.00,1.39
8824.00,1.39
8823.00,1.39
8822.00,1.39
8821.00,1.39
8820.00,1.39
8819.00,1.39
8818.00,1.39
8817.00,1.39
8816.00,1.39
8815.00,1.39
8814.00,1.39
8813.00,1.39
8812.00,1.40
8811.00,1.40
8810.00,1.40
8809.00,1.40
8808.00,1.40
8807.00,1.40
8806.00,1.40
8805.00,1.40
8804.00,1.40
8803.00,1.40
8802.00,1.40
8801.00,1.40
8800.00,1.40
8799.00,1.40
8798.00,1.40
8797.00,1.40
8796.00,1.39
8795.00,1.39
8794.00,1.39
8793.00,1.39
8792.00,1.39
8791.00,1.39
8790.00,1.39
8789.00,1.38
8788.00,1.38
8787.00,1.38
8786.00,1.38
8785.00,1.38
8784.00,1.37
8783.00,1.37
8782.00,1.37
8781.00,1.37
8780.00,1.37
8779.00,1.37
8778.00,1.37
8777.00,1.36
8776.00,1.36
8775.00,1.36
8774.00,1.36
8773.00,1.36
8772.00,1.36
8771.00,1.36
8770.00,1.36
8769.00,1.36
8768.00,1.36
8767.00,1.36
8766.00,1.35
8765.00,1.35
8764.00,1.35
8763.00,1.35
8762.00,1.35
8761.00,1.35
8760.00,1.35
8759.00,1.35
8758.00,1.35
8757.00,1.35
8756.00,1.35
8755.00,1.35
8754.00,1.35
8753.00,1.35
8752.00,1.35
8751.00,1.35
8750.00,1.35
8749.00,1.36
8748.00,1.36
8747.00,1.36
8746.00,1.36
8745.00,1.36
8744.00,1.36
8743.00,1.36
8742.00,1.36
8741.00,1.36
8740.00,1.36
8739.00,1.36
8738.00,1.36
8737.00,1.36
8736.00,1.36
8735.00,1.36
8734.00,1.36
8733.00,1.35
8732.00,1.35
8731.00,1.35
8730.00,1.35
8729.00,1.35
8728.00,1.35
8727.00,1.35
8726.00,1.35
8725.00,1.35
8724.00,1.35
8723.00,1.34
8722.00,1.34
8721.00,1.34
8720.00,1.34
8719.00,1.34
8718.00,1.34
8717.00,1.34
8716.00,1.34
8715.00,1.34
8714.00,1.34
8713.00,1.34
8712.00,1.34
8711.00,1.34
8710.00,1.34
8709.00,1.34
8708.00,1.34
8707.00,1.34
8706.00,1.34
8705.00,1.34
8704.00,1.33
8703.00,1.33
8702.00,1.33
8701.00,1.33
8700.00,1.33
8699.00,1.33
8698.00,1.33
8697.00,1.33
8696.00,1.33
8695.00,1.33
8694.00,1.33
8693.00,1.33
8692.00,1.33
8691.00,1.33
8690.00,1.33
8689.00,1.33
8688.00,1.33
8687.00,1.33
8686.00,1.33
8685.00,1.33
8684.00,1.33
8683.00,1.33
8682.00,1.33
8681.00,1.33
8680.00,1.33
8679.00,1.33
8678.00,1.33
8677.00,1.33
8676.00,1.33
8675.00,1.33
8674.00,1.33
8673.00,1.33
8672.00,1.33
8671.00,1.33
8670.00,1.33
8669.00,1.33
8668.00,1.33
8667.00,1.33
8666.00,1.33
8665.00,1.33
8664.00,1.33
8663.00,1.33
8662.00,1.33
8661.00,1.33
8660.00,1.33
8659.00,1.33
8658.00,1.33
8657.00,1.33
8656.00,1.33
8655.00,1.33
8654.00,1.33
8653.00,1.33
8652.00,1.33
8651.00,1.32
8650.00,1.32
8649.00,1.32
8648.00,1.32
8647.00,1.32
8646.00,1.32
8645.00,1.32
8644.00,1.32
8643.00,1.31
8642.00,1.31
8641.00,1.31
8640.00,1.31
8639.00,1.31
8638.00,1.31
8637.00,1.31
8636.00,1.31
8635.00,1.31
8634.00,1.31
8633.00,1.31
8632.00,1.31
8631.00,1.31
8630.00,1.31
8629.00,1.31
8628.00,1.31
8627.00,1.31
8626.00,1.31
8625.00,1.31
8624.00,1.32
8623.00,1.32
8622.00,1.32
8621.00,1.32
8620.00,1.32
8619.00,1.32
8618.00,1.32
8617.00,1.32
8616.00,1.32
8615.00,1.32
8614.00,1.32
8613.00,1.32
8612.00,1.32
8611.00,1.32
8610.00,1.32
8609.00,1.31
8608.00,1.31
8607.00,1.31
8606.00,1.31
8605.00,1.30
8604.00,1.30
8603.00,1.30
8602.00,1.30
8601.00,1.30
8600.00,1.30
8599.00,1.29
8598.00,1.29
8597.00,1.29
8596.00,1.29
8595.00,1.29
8594.00,1.29
8593.00,1.29
8592.00,1.29
8591.00,1.29
8590.00,1.29
8589.00,1.29
8588.00,1.29
8587.00,1.29
8586.00,1.29
8585.00,1.29
8584.00,1.29
8583.00,1.29
8582.00,1.29
8581.00,1.29
8580.00,1.29
8579.00,1.28
8578.00,1.28
8577.00,1.28
8576.00,1.28
8575.00,1.28
8574.00,1.28
8573.00,1.28
8572.00,1.28
8571.00,1.28
8570.00,1.28
8569.00,1.28
8568.00,1.28
8567.00,1.28
8566.00,1.28
8565.00,1.28
8564.00,1.28
8563.00,1.28
8562.00,1.28
8561.00,1.28
8560.00,1.28
8559.00,1.28
8558.00,1.28
8557.00,1.28
8556.00,1.28
8555.00,1.28
8554.00,1.28
8553.00,1.28
8552.00,1.28
8551.00,1.28
8550.00,1.28
8549.00,1.28
8548.00,1.28
8547.00,1.28
8546.00,1.28
8545.00,1.28
8544.00,1.28
8543.00,1.28
8542.00,1.28
8541.00,1.28
8540.00,1.28
8539.00,1.28
8538.00,1.28
8537.00,1.27
8536.00,1.27
8535.00,1.27
8534.00,1.27
8533.00,1.27
8532.00,1.27
8531.00,1.27
8530.00,1.27
8529.00,1.27
8528.00,1.27
8527.00,1.28
8526.00,1.28
8525.00,1.28
8524.00,1.28
8523.00,1.28
8522.00,1.28
8521.00,1.28
8520.00,1.28
8519.00,1.28
8518.00,1.28
8517.00,1.28
8516.00,1.27
8515.00,1.27
8514.00,1.27
8513.00,1.27
8512.00,1.27
8511.00,1.27
8510.00,1.27
8509.00,1.27
8508.00,1.27
8507.00,1.27
8506.00,1.27
8505.00,1.27
8504.00,1.27
8503.00,1.27
8502.00,1.27
8501.00,1.27
8500.00,1.27
8499.00,1.27
8498.00,1.27
8497.00,1.27
8496.00,1.27
8495.00,1.27
8494.00,1.27
8493.00,1.27
8492.00,1.27
8491.00,1.27
8490.00,1.27
8489.00,1.27
8488.00,1.27
8487.00,1.27
8486.00,1.26
8485.00,1.26
8484.00,1.26
8483.00,1.26
8482.00,1.26
8481.00,1.26
8480.00,1.25
8479.00,1.25
8478.00,1.25
8477.00,1.25
8476.00,1.25
8475.00,1.25
8474.00,1.25
8473.00,1.25
8472.00,1.24
8471.00,1.24
8470.00,1.24
8469.00,1.24
8468.00,1.24
8467.00,1.24
8466.00,1.24
8465.00,1.24
8464.00,1.24
8463.00,1.24
8462.00,1.24
8461.00,1.24
8460.00,1.23
8459.00,1.23
8458.00,1.23
8457.00,1.23
8456.00,1.23
8455.00,1.23
8454.00,1.23
8453.00,1.23
8452.00,1.23
8451.00,1.23
8450.00,1.22
8449.00,1.22
8448.00,1.22
8447.00,1.22
8446.00,1.22
8445.00,1.22
8444.00,1.22
8443.00,1.22
8442.00,1.22
8441.00,1.22
8440.00,1.22
8439.00,1.22
8438.00,1.22
8437.00,1.22
8436.00,1.22
8435.00,1.22
8434.00,1.22
8433.00,1.22
8432.00,1.22
8431.00,1.22
8430.00,1.22
8429.00,1.22
8428.00,1.22
8427.00,1.22
8426.00,1.22
8425.00,1.22
8424.00,1.22
8423.00,1.22
8422.00,1.22
8421.00,1.22
8420.00,1.22
8419.00,1.22
8418.00,1.22
8417.00,1.22
8416.00,1.22
8415.00,1.22
8414.00,1.22
8413.00,1.23
8412.00,1.23
8411.00,1.23
8410.00,1.23
8409.00,1.23
8408.00,1.23
8407.00,1.23
8406.00,1.23
8405.00,1.23
8404.00,1.23
8403.00,1.23
8402.00,1.23
8401.00,1.23
8400.00,1.23
8399.00,1.24
8398.00,1.24
8397.00,1.24
8396.00,1.24
8395.00,1.24
8394.00,1.24
8393.00,1.24
8392.00,1.24
8391.00,1.24
8390.00,1.24
8389.00,1.25
8388.00,1.25
8387.00,1.25
8386.00,1.25
8385.00,1.25
8384.00,1.25
8383.00,1.25
8382.00,1.25
8381.00,1.25
8380.00,1.26
8379.00,1.26
8378.00,1.26
8377.00,1.26
8376.00,1.26
8375.00,1.26
8374.00,1.26
8373.00,1.26
8372.00,1.26
8371.00,1.26
8370.00,1.26
8369.00,1.26
8368.00,1.26
8367.00,1.26
8366.00,1.26
8365.00,1.26
8364.00,1.26
8363.00,1.26
8362.00,1.26
8361.00,1.26
8360.00,1.26
8359.00,1.26
8358.00,1.26
8357.00,1.26
8356.00,1.26
8355.00,1.26
8354.00,1.26
8353.00,1.26
8352.00,1.26
8351.00,1.26
8350.00,1.26
8349.00,1.26
8348.00,1.26
8347.00,1.26
8346.00,1.26
8345.00,1.26
8344.00,1.26
8343.00,1.26
8342.00,1.26
8341.00,1.26
8340.00,1.26
8339.00,1.27
8338.00,1.27
8337.00,1.27
8336.00,1.27
8335.00,1.27
8334.00,1.27
8333.00,1.27
8332.00,1.27
8331.00,1.27
8330.00,1.27
8329.00,1.27
8328.00,1.27
8327.00,1.27
8326.00,1.27
8325.00,1.27
8324.00,1.27
8323.00,1.27
8322.00,1.27
8321.00,1.27
8320.00,1.27
8319.00,1.27
8318.00,1.27
8317.00,1.27
8316.00,1.27
8315.00,1.27
8314.00,1.28
8313.00,1.28
8312.00,1.28
8311.00,1.28
8310.00,1.28
8309.00,1.28
8308.00,1.28
8307.00,1.28
8306.00,1.28
8305.00,1.28
8304.00,1.28
8303.00,1.28
8302.00,1.28
8301.00,1.28
8300.00,1.28
8299.00,1.28
8298.00,1.28
8297.00,1.28
8296.00,1.28
8295.00,1.28
8294.00,1.28
8293.00,1.28
8292.00,1.28
8291.00,1.28
8290.00,1.28
8289.00,1.28
8288.00,1.28
8287.00,1.28
8286.00,1.28
8285.00,1.28
8284.00,1.28
8283.00,1.28
8282.00,1.28
8281.00,1.28
8280.00,1.28
8279.00,1.28
8278.00,1.28
8277.00,1.29
8276.00,1.29
8275.00,1.29
8274.00,1.29
8273.00,1.29
8272.00,1.29
8271.00,1.29
8270.00,1.29
8269.00,1.29
8268.00,1.29
8267.00,1.29
8266.00,1.29
8265.00,1.29
8264.00,1.29
8263.00,1.29
8262.00,1.29
8261.00,1.29
8260.00,1.29
8259.00,1.29
8258.00,1.29
8257.00,1.29
8256.00,1.29
8255.00,1.29
8254.00,1.29
8253.00,1.29
8252.00,1.29
8251.00,1.29
8250.00,1.29
8249.00,1.29
8248.00,1.28
8247.00,1.28
8246.00,1.28
8245.00,1.28
8244.00,1.29
8243.00,1.29
8242.00,1.29
8241.00,1.29
8240.00,1.29
8239.00,1.29
8238.00,1.29
8237.00,1.29
8236.00,1.29
8235.00,1.29
8234.00,1.29
8233.00,1.29
8232.00,1.29
8231.00,1.29
8230.00,1.29
8229.00,1.29
8228.00,1.30
8227.00,1.30
8226.00,1.30
8225.00,1.30
8224.00,1.30
8223.00,1.30
8222.00,1.31
8221.00,1.31
8220.00,1.31
8219.00,1.31
8218.00,1.31
8217.00,1.31
8216.00,1.31
8215.00,1.31
8214.00,1.31
8213.00,1.31
8212.00,1.31
8211.00,1.31
8210.00,1.31
8209.00,1.31
8208.00,1.31
8207.00,1.31
8206.00,1.31
8205.00,1.31
8204.00,1.31
8203.00,1.31
8202.00,1.31
8201.00,1.31
8200.00,1.31
8199.00,1.31
8198.00,1.31
8197.00,1.31
8196.00,1.31
8195.00,1.31
8194.00,1.31
8193.00,1.31
8192.00,1.31
8191.00,1.31
8190.00,1.31
8189.00,1.31
8188.00,1.31
8187.00,1.31
8186.00,1.31
8185.00,1.31
8184.00,1.31
8183.00,1.31
8182.00,1.31
8181.00,1.32
8180.00,1.32
8179.00,1.32
8178.00,1.32
8177.00,1.32
8176.00,1.32
8175.00,1.32
8174.00,1.33
8173.00,1.33
8172.00,1.33
8171.00,1.33
8170.00,1.33
8169.00,1.33
8168.00,1.33
8167.00,1.33
8166.00,1.34
8165.00,1.34
8164.00,1.34
8163.00,1.34
8162.00,1.34
8161.00,1.34
8160.00,1.34
8159.00,1.33
8158.00,1.33
8157.00,1.33
8156.00,1.33
8155.00,1.33
8154.00,1.33
8153.00,1.33
8152.00,1.33
8151.00,1.33
8150.00,1.33
8149.00,1.33
8148.00,1.33
8147.00,1.33
8146.00,1.33
8145.00,1.33
8144.00,1.33
8143.00,1.33
8142.00,1.33
8141.00,1.33
8140.00,1.33
8139.00,1.34
8138.00,1.34
8137.00,1.34
8136.00,1.34
8135.00,1.34
8134.00,1.34
8133.00,1.34
8132.00,1.35
8131.00,1.35
8130.00,1.35
8129.00,1.35
8128.00,1.35
8127.00,1.35
8126.00,1.35
8125.00,1.35
8124.00,1.35
8123.00,1.35
8122.00,1.35
8121.00,1.35
8120.00,1.36
8119.00,1.36
8118.00,1.36
8117.00,1.36
8116.00,1.36
8115.00,1.36
8114.00,1.36
8113.00,1.36
8112.00,1.36
8111.00,1.36
8110.00,1.36
8109.00,1.36
8108.00,1.36
8107.00,1.36
8106.00,1.36
8105.00,1.36
8104.00,1.36
8103.00,1.36
8102.00,1.36
8101.00,1.36
8100.00,1.36
8099.00,1.36
8098.00,1.36
8097.00,1.36
8096.00,1.36
8095.00,1.36
8094.00,1.36
8093.00,1.36
8092.00,1.36
8091.00,1.36
8090.00,1.36
8089.00,1.36
8088.00,1.37
8087.00,1.37
8086.00,1.37
8085.00,1.37
8084.00,1.37
8083.00,1.37
8082.00,1.37
8081.00,1.37
8080.00,1.37
8079.00,1.37
8078.00,1.37
8077.00,1.37
8076.00,1.37
8075.00,1.37
8074.00,1.37
8073.00,1.37
8072.00,1.37
8071.00,1.37
8070.00,1.37
8069.00,1.37
8068.00,1.37
8067.00,1.37
8066.00,1.37
8065.00,1.37
8064.00,1.37
8063.00,1.37
8062.00,1.37
8061.00,1.37
8060.00,1.37
8059.00,1.37
8058.00,1.37
8057.00,1.37
8056.00,1.37
8055.00,1.37
8054.00,1.37
8053.00,1.37
8052.00,1.37
8051.00,1.37
8050.00,1.37
8049.00,1.37
8048.00,1.37
8047.00,1.37
8046.00,1.37
8045.00,1.37
8044.00,1.37
8043.00,1.37
8042.00,1.37
8041.00,1.37
8040.00,1.37
8039.00,1.37
8038.00,1.37
8037.00,1.37
8036.00,1.37
8035.00,1.37
8034.00,1.37
8033.00,1.37
8032.00,1.37
8031.00,1.37
8030.00,1.37
8029.00,1.37
8028.00,1.37
8027.00,1.37
8026.00,1.37
8025.00,1.37
8024.00,1.37
8023.00,1.37
8022.00,1.37
8021.00,1.37
8020.00,1.37
8019.00,1.37
8018.00,1.37
8017.00,1.37
8016.00,1.38
8015.00,1.38
8014.00,1.38
8013.00,1.38
8012.00,1.38
8011.00,1.38
8010.00,1.38
8009.00,1.39
8008.00,1.39
8007.00,1.39
8006.00,1.39
8005.00,1.39
8004.00,1.39
8003.00,1.39
8002.00,1.39
8001.00,1.39
8000.00,1.39
7999.00,1.39
7998.00,1.39
7997.00,1.39
7996.00,1.39
7995.00,1.38
7994.00,1.38
7993.00,1.38
7992.00,1.38
7991.00,1.38
7990.00,1.38
7989.00,1.38
7988.00,1.38
7987.00,1.38
7986.00,1.38
7985.00,1.38
7984.00,1.38
7983.00,1.38
7982.00,1.38
7981.00,1.38
7980.00,1.38
7979.00,1.38
7978.00,1.38
7977.00,1.38
7976.00,1.39
7975.00,1.39
7974.00,1.39
7973.00,1.39
7972.00,1.39
7971.00,1.39
7970.00,1.39
7969.00,1.39
7968.00,1.39
7967.00,1.39
7966.00,1.39
7965.00,1.39
7964.00,1.39
7963.00,1.39
7962.00,1.39
7961.00,1.39
7960.00,1.39
7959.00,1.39
7958.00,1.39
7957.00,1.39
7956.00,1.38
7955.00,1.38
7954.00,1.38
7953.00,1.38
7952.00,1.38
7951.00,1.38
7950.00,1.38
7949.00,1.38
7948.00,1.38
7947.00,1.38
7946.00,1.38
7945.00,1.38
7944.00,1.38
7943.00,1.38
7942.00,1.38
7941.00,1.38
7940.00,1.38
7939.00,1.38
7938.00,1.38
7937.00,1.38
7936.00,1.38
7935.00,1.38
7934.00,1.38
7933.00,1.38
7932.00,1.38
7931.00,1.38
7930.00,1.39
7929.00,1.39
7928.00,1.39
7927.00,1.39
7926.00,1.39
7925.00,1.39
7924.00,1.39
7923.00,1.39
7922.00,1.39
7921.00,1.40
7920.00,1.40
7919.00,1.40
7918.00,1.40
7917.00,1.40
7916.00,1.40
7915.00,1.40
7914.00,1.40
7913.00,1.40
7912.00,1.40
7911.00,1.40
7910.00,1.40
7909.00,1.40
7908.00,1.40
7907.00,1.40
7906.00,1.40
7905.00,1.40
7904.00,1.40
7903.00,1.40
7902.00,1.40
7901.00,1.40
7900.00,1.40
7899.00,1.40
7898.00,1.40
7897.00,1.40
7896.00,1.40
7895.00,1.40
7894.00,1.40
7893.00,1.40
7892.00,1.40
7891.00,1.40
7890.00,1.40
7889.00,1.40
7888.00,1.40
7887.00,1.40
7886.00,1.40
7885.00,1.40
7884.00,1.40
7883.00,1.40
7882.00,1.40
7881.00,1.40
7880.00,1.40
7879.00,1.40
7878.00,1.40
7877.00,1.40
7876.00,1.40
7875.00,1.40
7874.00,1.40
7873.00,1.40
7872.00,1.40
7871.00,1.40
7870.00,1.40
7869.00,1.40
7868.00,1.40
7867.00,1.40
7866.00,1.40
7865.00,1.40
7864.00,1.40
7863.00,1.40
7862.00,1.40
7861.00,1.40
7860.00,1.40
7859.00,1.40
7858.00,1.40
7857.00,1.40
7856.00,1.40
7855.00,1.40
7854.00,1.40
7853.00,1.40
7852.00,1.40
7851.00,1.40
7850.00,1.40
7849.00,1.40
7848.00,1.40
7847.00,1.41
7846.00,1.41
7845.00,1.41
7844.00,1.41
7843.00,1.41
7842.00,1.41
7841.00,1.42
7840.00,1.42
7839.00,1.42
7838.00,1.42
7837.00,1.42
7836.00,1.42
7835.00,1.42
7834.00,1.42
7833.00,1.42
7832.00,1.42
7831.00,1.42
7830.00,1.42
7829.00,1.42
7828.00,1.42
7827.00,1.42
7826.00,1.42
7825.00,1.42
7824.00,1.41
7823.00,1.41
7822.00,1.41
7821.00,1.41
7820.00,1.41
7819.00,1.41
7818.00,1.41
7817.00,1.41
7816.00,1.41
7815.00,1.41
7814.00,1.41
7813.00,1.41
7812.00,1.42
7811.00,1.42
7810.00,1.42
7809.00,1.42
7808.00,1.42
7807.00,1.42
7806.00,1.42
7805.00,1.43
7804.00,1.43
7803.00,1.43
7802.00,1.43
7801.00,1.43
7800.00,1.43
7799.00,1.43
7798.00,1.43
7797.00,1.43
7796.00,1.43
7795.00,1.43
7794.00,1.43
7793.00,1.43
7792.00,1.43
7791.00,1.43
7790.00,1.43
7789.00,1.43
7788.00,1.43
7787.00,1.43
7786.00,1.42
7785.00,1.42
7784.00,1.42
7783.00,1.42
7782.00,1.42
7781.00,1.42
7780.00,1.42
7779.00,1.42
7778.00,1.42
7777.00,1.42
7776.00,1.42
7775.00,1.42
7774.00,1.42
7773.00,1.42
7772.00,1.42
7771.00,1.42
7770.00,1.42
7769.00,1.42
7768.00,1.42
7767.00,1.42
7766.00,1.43
7765.00,1.43
7764.00,1.43
7763.00,1.43
7762.00,1.43
7761.00,1.43
7760.00,1.43
7759.00,1.43
7758.00,1.43
7757.00,1.43
7756.00,1.43
7755.00,1.43
7754.00,1.43
7753.00,1.43
7752.00,1.43
7751.00,1.43
7750.00,1.43
7749.00,1.43
7748.00,1.43
7747.00,1.43
7746.00,1.43
7745.00,1.43
7744.00,1.43
7743.00,1.43
7742.00,1.43
7741.00,1.43
7740.00,1.43
7739.00,1.43
7738.00,1.43
7737.00,1.43
7736.00,1.43
7735.00,1.43
7734.00,1.43
7733.00,1.43
7732.00,1.43
7731.00,1.43
7730.00,1.43
7729.00,1.43
7728.00,1.43
7727.00,1.43
7726.00,1.43
7725.00,1.43
7724.00,1.43
7723.00,1.43
7722.00,1.43
7721.00,1.43
7720.00,1.43
7719.00,1.43
7718.00,1.43
7717.00,1.43
7716.00,1.43
7715.00,1.43
7714.00,1.43
7713.00,1.43
7712.00,1.43
7711.00,1.43
7710.00,1.42
7709.00,1.42
7708.00,1.42
7707.00,1.42
7706.00,1.42
7705.00,1.42
7704.00,1.42
7703.00,1.42
7702.00,1.42
7701.00,1.42
7700.00,1.42
7699.00,1.42
7698.00,1.42
7697.00,1.42
7696.00,1.42
7695.00,1.42
7694.00,1.42
7693.00,1.42
7692.00,1.42
7691.00,1.42
7690.00,1.42
7689.00,1.42
7688.00,1.42
7687.00,1.43
7686.00,1.43
7685.00,1.43
7684.00,1.43
7683.00,1.43
7682.00,1.43
7681.00,1.43
7680.00,1.43
7679.00,1.43
7678.00,1.43
7677.00,1.43
7676.00,1.43
7675.00,1.43
7674.00,1.43
7673.00,1.43
7672.00,1.43
7671.00,1.43
7670.00,1.43
7669.00,1.43
7668.00,1.42
7667.00,1.42
7666.00,1.42
7665.00,1.42
7664.00,1.42
7663.00,1.42
7662.00,1.42
7661.00,1.42
7660.00,1.42
7659.00,1.42
7658.00,1.42
7657.00,1.42
7656.00,1.42
7655.00,1.43
7654.00,1.43
7653.00,1.43
7652.00,1.43
7651.00,1.43
7650.00,1.43
7649.00,1.43
7648.00,1.43
7647.00,1.43
7646.00,1.43
7645.00,1.43
7644.00,1.43
7643.00,1.43
7642.00,1.43
7641.00,1.43
7640.00,1.43
7639.00,1.43
7638.00,1.43
7637.00,1.43
7636.00,1.43
7635.00,1.43
7634.00,1.43
7633.00,1.43
7632.00,1.43
7631.00,1.43
7630.00,1.43
7629.00,1.43
7628.00,1.43
7627.00,1.43
7626.00,1.43
7625.00,1.43
7624.00,1.43
7623.00,1.43
7622.00,1.43
7621.00,1.43
7620.00,1.43
7619.00,1.43
7618.00,1.43
7617.00,1.43
7616.00,1.43
7615.00,1.43
7614.00,1.43
7613.00,1.43
7612.00,1.43
7611.00,1.43
7610.00,1.43
7609.00,1.43
7608.00,1.43
7607.00,1.43
7606.00,1.43
7605.00,1.43
7604.00,1.43
7603.00,1.43
7602.00,1.43
7601.00,1.43
7600.00,1.43
7599.00,1.43
7598.00,1.43
7597.00,1.43
7596.00,1.43
7595.00,1.43
7594.00,1.43
7593.00,1.43
7592.00,1.43
7591.00,1.43
7590.00,1.43
7589.00,1.43
7588.00,1.43
7587.00,1.43
7586.00,1.43
7585.00,1.43
7584.00,1.43
7583.00,1.43
7582.00,1.43
7581.00,1.43
7580.00,1.43
7579.00,1.43
7578.00,1.42
7577.00,1.42
7576.00,1.42
7575.00,1.42
7574.00,1.42
7573.00,1.42
7572.00,1.42
7571.00,1.42
7570.00,1.42
7569.00,1.42
7568.00,1.42
7567.00,1.42
7566.00,1.42
7565.00,1.42
7564.00,1.42
7563.00,1.42
7562.00,1.42
7561.00,1.42
7560.00,1.42
7559.00,1.42
7558.00,1.42
7557.00,1.42
7556.00,1.42
7555.00,1.42
7554.00,1.42
7553.00,1.42
7552.00,1.42
7551.00,1.42
7550.00,1.42
7549.00,1.42
7548.00,1.42
7547.00,1.42
7546.00,1.42
7545.00,1.42
7544.00,1.42
7543.00,1.42
7542.00,1.42
7541.00,1.42
7540.00,1.42
7539.00,1.42
7538.00,1.42
7537.00,1.42
7536.00,1.42
7535.00,1.42
7534.00,1.42
7533.00,1.42
7532.00,1.42
7531.00,1.42
7530.00,1.42
7529.00,1.42
7528.00,1.42
7527.00,1.42
7526.00,1.42
7525.00,1.42
7524.00,1.42
7523.00,1.42
7522.00,1.42
7521.00,1.41
7520.00,1.41
7519.00,1.41
7518.00,1.41
7517.00,1.41
7516.00,1.41
7515.00,1.41
7514.00,1.41
7513.00,1.41
7512.00,1.41
7511.00,1.41
7510.00,1.40
7509.00,1.40
7508.00,1.40
7507.00,1.40
7506.00,1.40
7505.00,1.40
7504.00,1.40
7503.00,1.40
7502.00,1.40
7501.00,1.40
7500.00,1.40
7499.00,1.40
7498.00,1.40
7497.00,1.40
7496.00,1.40
7495.00,1.40
7494.00,1.40
7493.00,1.40
7492.00,1.40
7491.00,1.40
7490.00,1.40
7489.00,1.39
7488.00,1.39
7487.00,1.39
7486.00,1.39
7485.00,1.39
7484.00,1.39
7483.00,1.39
7482.00,1.39
7481.00,1.39
7480.00,1.39
7479.00,1.39
7478.00,1.39
7477.00,1.39
7476.00,1.38
7475.00,1.38
7474.00,1.38
7473.00,1.38
7472.00,1.38
7471.00,1.38
7470.00,1.38
7469.00,1.38
7468.00,1.37
7467.00,1.37
7466.00,1.37
7465.00,1.37
7464.00,1.37
7463.00,1.37
7462.00,1.37
7461.00,1.37
7460.00,1.37
7459.00,1.37
7458.00,1.37
7457.00,1.37
7456.00,1.37
7455.00,1.37
7454.00,1.37
7453.00,1.37
7452.00,1.37
7451.00,1.37
7450.00,1.37
7449.00,1.37
7448.00,1.37
7447.00,1.37
7446.00,1.37
7445.00,1.36
7444.00,1.36
7443.00,1.36
7442.00,1.36
7441.00,1.36
7440.00,1.36
7439.00,1.36
7438.00,1.36
7437.00,1.36
7436.00,1.36
7435.00,1.35
7434.00,1.35
7433.00,1.35
7432.00,1.35
7431.00,1.35
7430.00,1.35
7429.00,1.35
7428.00,1.34
7427.00,1.34
7426.00,1.34
7425.00,1.34
7424.00,1.34
7423.00,1.34
7422.00,1.34
7421.00,1.34
7420.00,1.33
7419.00,1.33
7418.00,1.33
7417.00,1.33
7416.00,1.33
7415.00,1.33
7414.00,1.33
7413.00,1.33
7412.00,1.33
7411.00,1.33
7410.00,1.33
7409.00,1.33
7408.00,1.33
7407.00,1.33
7406.00,1.33
7405.00,1.33
7404.00,1.33
7403.00,1.32
7402.00,1.32
7401.00,1.32
7400.00,1.32
7399.00,1.32
7398.00,1.32
7397.00,1.32
7396.00,1.32
7395.00,1.32
7394.00,1.32
7393.00,1.32
7392.00,1.32
7391.00,1.32
7390.00,1.32
7389.00,1.31
7388.00,1.31
7387.00,1.31
7386.00,1.31
7385.00,1.31
7384.00,1.31
7383.00,1.31
7382.00,1.31
7381.00,1.31
7380.00,1.31
7379.00,1.31
7378.00,1.31
7377.00,1.31
7376.00,1.31
7375.00,1.30
7374.00,1.30
7373.00,1.30
7372.00,1.30
7371.00,1.30
7370.00,1.30
7369.00,1.30
7368.00,1.29
7367.00,1.29
7366.00,1.29
7365.00,1.29
7364.00,1.29
7363.00,1.29
7362.00,1.29
7361.00,1.29
7360.00,1.28
7359.00,1.28
7358.00,1.28
7357.00,1.28
7356.00,1.28
7355.00,1.28
7354.00,1.28
7353.00,1.28
7352.00,1.28
7351.00,1.28
7350.00,1.28
7349.00,1.28
7348.00,1.28
7347.00,1.28
7346.00,1.28
7345.00,1.28
7344.00,1.28
7343.00,1.28
7342.00,1.28
7341.00,1.28
7340.00,1.28
7339.00,1.28
7338.00,1.28
7337.00,1.28
7336.00,1.28
7335.00,1.28
7334.00,1.28
7333.00,1.28
7332.00,1.27
7331.00,1.27
7330.00,1.27
7329.00,1.27
7328.00,1.27
7327.00,1.27
7326.00,1.27
7325.00,1.27
7324.00,1.27
7323.00,1.27
7322.00,1.27
7321.00,1.27
7320.00,1.27
7319.00,1.27
7318.00,1.26
7317.00,1.26
7316.00,1.26
7315.00,1.26
7314.00,1.26
7313.00,1.26
7312.00,1.26
7311.00,1.26
7310.00,1.26
7309.00,1.26
7308.00,1.26
7307.00,1.25
7306.00,1.25
7305.00,1.25
7304.00,1.25
7303.00,1.25
7302.00,1.25
7301.00,1.25
7300.00,1.24
7299.00,1.24
7298.00,1.24
7297.00,1.24
7296.00,1.24
7295.00,1.24
7294.00,1.24
7293.00,1.23
7292.00,1.23
7291.00,1.23
7290.00,1.23
7289.00,1.23
7288.00,1.23
7287.00,1.23
7286.00,1.23
7285.00,1.22
7284.00,1.22
7283.00,1.22
7282.00,1.22
7281.00,1.22
7280.00,1.22
7279.00,1.22
7278.00,1.22
7277.00,1.22
7276.00,1.22
7275.00,1.22
7274.00,1.22
7273.00,1.22
7272.00,1.22
7271.00,1.22
7270.00,1.22
7269.00,1.22
7268.00,1.21
7267.00,1.21
7266.00,1.21
7265.00,1.21
7264.00,1.21
7263.00,1.21
7262.00,1.21
7261.00,1.20
7260.00,1.20
7259.00,1.20
7258.00,1.20
7257.00,1.20
7256.00,1.19
7255.00,1.19
7254.00,1.19
7253.00,1.19
7252.00,1.18
7251.00,1.18
7250.00,1.18
7249.00,1.18
7248.00,1.17
7247.00,1.17
7246.00,1.17
7245.00,1.16
7244.00,1.16
7243.00,1.16
7242.00,1.15
7241.00,1.15
7240.00,1.15
7239.00,1.15
7238.00,1.14
7237.00,1.14
7236.00,1.13
7235.00,1.13
7234.00,1.13
7233.00,1.12
7232.00,1.12
7231.00,1.12
7230.00,1.11
7229.00,1.11
7228.00,1.11
7227.00,1.10
7226.00,1.10
7225.00,1.09
7224.00,1.09
7223.00,1.09
7222.00,1.08
7221.00,1.08
7220.00,1.08
7219.00,1.07
7218.00,1.07
7217.00,1.07
7216.00,1.06
7215.00,1.06
7214.00,1.05
7213.00,1.05
7212.00,1.05
7211.00,1.04
7210.00,1.04
7209.00,1.04
7208.00,1.03
7207.00,1.03
7206.00,1.03
7205.00,1.02
7204.00,1.02
7203.00,1.02
7202.00,1.02
7201.00,1.01
7200.00,1.01
7199.00,1.01
7198.00,1.00
7197.00,1.00
7196.00,1.00
7195.00,1.00
7194.00,0.99
7193.00,0.99
7192.00,0.99
7191.00,0.99
7190.00,0.98
7189.00,0.98
7188.00,0.98
7187.00,0.98
7186.00,0.97
7185.00,0.97
7184.00,0.97
7183.00,0.97
7182.00,0.96
7181.00,0.96
7180.00,0.96
7179.00,0.95
7178.00,0.95
7177.00,0.95
7176.00,0.95
7175.00,0.94
7174.00,0.94
7173.00,0.94
7172.00,0.93
7171.00,0.93
7170.00,0.93
7169.00,0.93
7168.00,0.92
7167.00,0.92
7166.00,0.92
7165.00,0.91
7164.00,0.91
7163.00,0.91
7162.00,0.91
7161.00,0.90
7160.00,0.90
7159.00,0.90
7158.00,0.90
7157.00,0.89
7156.00,0.89
7155.00,0.89
7154.00,0.89
7153.00,0.88
7152.00,0.88
7151.00,0.88
7150.00,0.88
7149.00,0.87
7148.00,0.87
7147.00,0.87
7146.00,0.87
7145.00,0.86
7144.00,0.86
7143.00,0.86
7142.00,0.85
7141.00,0.85
7140.00,0.85
7139.00,0.85
7138.00,0.84
7137.00,0.84
7136.00,0.84
7135.00,0.83
7134.00,0.83
7133.00,0.83
7132.00,0.83
7131.00,0.83
7130.00,0.82
7129.00,0.82
7128.00,0.82
7127.00,0.82
7126.00,0.82
7125.00,0.81
7124.00,0.81
7123.00,0.81
7122.00,0.81
7121.00,0.81
7120.00,0.81
7119.00,0.80
7118.00,0.80
7117.00,0.80
7116.00,0.80
7115.00,0.80
7114.00,0.80
7113.00,0.79
7112.00,0.79
7111.00,0.79
7110.00,0.79
7109.00,0.78
7108.00,0.78
7107.00,0.78
7106.00,0.78
7105.00,0.78
7104.00,0.77
7103.00,0.77
7102.00,0.77
7101.00,0.77
7100.00,0.77
7099.00,0.76
7098.00,0.76
7097.00,0.76
7096.00,0.76
7095.00,0.76
7094.00,0.76
7093.00,0.75
7092.00,0.75
7091.00,0.75
7090.00,0.75
7089.00,0.75
7088.00,0.74
7087.00,0.74
7086.00,0.74
7085.00,0.74
7084.00,0.74
7083.00,0.74
7082.00,0.74
7081.00,0.73
7080.00,0.73
7079.00,0.73
7078.00,0.73
7077.00,0.73
7076.00,0.73
7075.00,0.73
7074.00,0.73
7073.00,0.72
7072.00,0.72
7071.00,0.72
7070.00,0.72
7069.00,0.72
7068.00,0.72
7067.00,0.72
7066.00,0.72
7065.00,0.72
7064.00,0.72
7063.00,0.72
7062.00,0.71
7061.00,0.71
7060.00,0.71
7059.00,0.71
7058.00,0.71
7057.00,0.71
7056.00,0.71
7055.00,0.71
7054.00,0.71
7053.00,0.71
7052.00,0.70
7051.00,0.70
7050.00,0.70
7049.00,0.70
7048.00,0.70
7047.00,0.70
7046.00,0.70
7045.00,0.70
7044.00,0.70
7043.00,0.70
7042.00,0.70
7041.00,0.70
7040.00,0.70
7039.00,0.70
7038.00,0.70
7037.00,0.70
7036.00,0.70
7035.00,0.70
7034.00,0.70
7033.00,0.70
7032.00,0.70
7031.00,0.70
7030.00,0.69
7029.00,0.69
7028.00,0.69
7027.00,0.69
7026.00,0.69
7025.00,0.69
7024.00,0.69
7023.00,0.69
7022.00,0.69
7021.00,0.69
7020.00,0.69
7019.00,0.69
7018.00,0.69
7017.00,0.69
7016.00,0.69
7015.00,0.69
7014.00,0.69
7013.00,0.69
7012.00,0.69
7011.00,0.69
7010.00,0.69
7009.00,0.69
7008.00,0.69
7007.00,0.69
7006.00,0.69
7005.00,0.68
7004.00,0.68
7003.00,0.68
7002.00,0.68
7001.00,0.68
7000.00,0.68
6999.00,0.68
6998.00,0.68
6997.00,0.68
6996.00,0.68
6995.00,0.68
6994.00,0.68
6993.00,0.67
6992.00,0.67
6991.00,0.67
6990.00,0.67
6989.00,0.67
6988.00,0.67
6987.00,0.67
6986.00,0.67
6985.00,0.67
6984.00,0.67
6983.00,0.67
6982.00,0.67
6981.00,0.67
6980.00,0.67
6979.00,0.67
6978.00,0.67
6977.00,0.67
6976.00,0.67
6975.00,0.67
6974.00,0.67
6973.00,0.67
6972.00,0.67
6971.00,0.67
6970.00,0.67
6969.00,0.67
6968.00,0.67
6967.00,0.67
6966.00,0.67
6965.00,0.67
6964.00,0.67
6963.00,0.67
6962.00,0.67
6961.00,0.67
6960.00,0.67
6959.00,0.67
6958.00,0.67
6957.00,0.67
6956.00,0.67
6955.00,0.67
6954.00,0.67
6953.00,0.67
6952.00,0.67
6951.00,0.67
6950.00,0.67
6949.00,0.67
6948.00,0.67
6947.00,0.67
6946.00,0.67
6945.00,0.67
6944.00,0.67
6943.00,0.67
6942.00,0.67
6941.00,0.67
6940.00,0.67
6939.00,0.67
6938.00,0.67
6937.00,0.67
6936.00,0.67
6935.00,0.67
6934.00,0.66
6933.00,0.66
6932.00,0.66
6931.00,0.66
6930.00,0.66
6929.00,0.66
6928.00,0.66
6927.00,0.66
6926.00,0.66
6925.00,0.66
6924.00,0.66
6923.00,0.66
6922.00,0.66
6921.00,0.66
6920.00,0.66
6919.00,0.66
6918.00,0.66
6917.00,0.66
6916.00,0.66
6915.00,0.66
6914.00,0.66
6913.00,0.66
6912.00,0.66
6911.00,0.66
6910.00,0.66
6909.00,0.66
6908.00,0.66
6907.00,0.66
6906.00,0.66
6905.00,0.66
6904.00,0.66
6903.00,0.66
6902.00,0.66
6901.00,0.66
6900.00,0.66
6899.00,0.66
6898.00,0.66
6897.00,0.66
6896.00,0.66
6895.00,0.66
6894.00,0.66
6893.00,0.66
6892.00,0.66
6891.00,0.66
6890.00,0.66
6889.00,0.66
6888.00,0.66
6887.00,0.66
6886.00,0.66
6885.00,0.66
6884.00,0.66
6883.00,0.66
6882.00,0.66
6881.00,0.66
6880.00,0.66
6879.00,0.66
6878.00,0.66
6877.00,0.66
6876.00,0.66
6875.00,0.66
6874.00,0.66
6873.00,0.66
6872.00,0.66
6871.00,0.66
6870.00,0.66
6869.00,0.66
6868.00,0.66
6867.00,0.66
6866.00,0.66
6865.00,0.66
6864.00,0.66
6863.00,0.66
6862.00,0.66
6861.00,0.66
6860.00,0.66
6859.00,0.66
6858.00,0.66
6857.00,0.66
6856.00,0.66
6855.00,0.66
6854.00,0.65
6853.00,0.65
6852.00,0.65
6851.00,0.65
6850.00,0.65
6849.00,0.65
6848.00,0.65
6847.00,0.65
6846.00,0.65
6845.00,0.65
6844.00,0.65
6843.00,0.65
6842.00,0.65
6841.00,0.65
6840.00,0.65
6839.00,0.66
6838.00,0.66
6837.00,0.66
6836.00,0.66
6835.00,0.66
6834.00,0.66
6833.00,0.66
6832.00,0.66
6831.00,0.66
6830.00,0.66
6829.00,0.67
6828.00,0.67
6827.00,0.67
6826.00,0.67
6825.00,0.67
6824.00,0.67
6823.00,0.67
6822.00,0.67
6821.00,0.67
6820.00,0.67
6819.00,0.67
6818.00,0.67
6817.00,0.67
6816.00,0.67
6815.00,0.67
6814.00,0.67
6813.00,0.67
6812.00,0.67
6811.00,0.67
6810.00,0.67
6809.00,0.67
6808.00,0.67
6807.00,0.67
6806.00,0.67
6805.00,0.67
6804.00,0.67
6803.00,0.67
6802.00,0.67
6801.00,0.67
6800.00,0.67
6799.00,0.67
6798.00,0.67
6797.00,0.67
6796.00,0.67
6795.00,0.67
6794.00,0.67
6793.00,0.67
6792.00,0.68
6791.00,0.68
6790.00,0.68
6789.00,0.68
6788.00,0.68
6787.00,0.68
6786.00,0.68
6785.00,0.68
6784.00,0.68
6783.00,0.68
6782.00,0.68
6781.00,0.68
6780.00,0.68
6779.00,0.69
6778.00,0.69
6777.00,0.69
6776.00,0.69
6775.00,0.69
6774.00,0.69
6773.00,0.69
6772.00,0.69
6771.00,0.69
6770.00,0.69
6769.00,0.69
6768.00,0.69
6767.00,0.69
6766.00,0.69
6765.00,0.69
6764.00,0.69
6763.00,0.69
6762.00,0.69
6761.00,0.69
6760.00,0.69
6759.00,0.69
6758.00,0.69
6757.00,0.69
6756.00,0.69
6755.00,0.69
6754.00,0.69
6753.00,0.70
6752.00,0.70
6751.00,0.70
6750.00,0.70
6749.00,0.70
6748.00,0.70
6747.00,0.70
6746.00,0.70
6745.00,0.70
6744.00,0.70
6743.00,0.70
6742.00,0.70
6741.00,0.70
6740.00,0.70
6739.00,0.70
6738.00,0.70
6737.00,0.70
6736.00,0.70
6735.00,0.70
6734.00,0.71
6733.00,0.71
6732.00,0.71
6731.00,0.71
6730.00,0.71
6729.00,0.71
6728.00,0.71
6727.00,0.71
6726.00,0.71
6725.00,0.71
6724.00,0.71
6723.00,0.71
6722.00,0.71
6721.00,0.71
6720.00,0.71
6719.00,0.71
6718.00,0.71
6717.00,0.71
6716.00,0.71
6715.00,0.71
6714.00,0.71
6713.00,0.71
6712.00,0.71
6711.00,0.71
6710.00,0.71
6709.00,0.71
6708.00,0.71
6707.00,0.71
6706.00,0.71
6705.00,0.72
6704.00,0.72
6703.00,0.72
6702.00,0.72
6701.00,0.72
6700.00,0.72
6699.00,0.72
6698.00,0.72
6697.00,0.72
6696.00,0.72
6695.00,0.72
6694.00,0.72
6693.00,0.72
6692.00,0.72
6691.00,0.72
6690.00,0.72
6689.00,0.72
6688.00,0.73
6687.00,0.73
6686.00,0.73
6685.00,0.73
6684.00,0.73
6683.00,0.73
6682.00,0.73
6681.00,0.74
6680.00,0.74
6679.00,0.74
6678.00,0.74
6677.00,0.74
6676.00,0.74
6675.00,0.74
6674.00,0.75
6673.00,0.75
6672.00,0.75
6671.00,0.75
6670.00,0.75
6669.00,0.75
6668.00,0.75
6667.00,0.75
6666.00,0.75
6665.00,0.75
6664.00,0.76
6663.00,0.76
6662.00,0.76
6661.00,0.76
6660.00,0.76
6659.00,0.76
6658.00,0.76
6657.00,0.76
6656.00,0.76
6655.00,0.76
6654.00,0.76
6653.00,0.76
6652.00,0.76
6651.00,0.76
6650.00,0.76
6649.00,0.76
6648.00,0.76
6647.00,0.76
6646.00,0.76
6645.00,0.76
6644.00,0.76
6643.00,0.76
6642.00,0.76
6641.00,0.76
6640.00,0.76
6639.00,0.76
6638.00,0.76
6637.00,0.76
6636.00,0.76
6635.00,0.76
6634.00,0.77
6633.00,0.77
6632.00,0.77
6631.00,0.77
6630.00,0.77
6629.00,0.77
6628.00,0.77
6627.00,0.77
6626.00,0.77
6625.00,0.77
6624.00,0.78
6623.00,0.78
6622.00,0.78
6621.00,0.78
6620.00,0.78
6619.00,0.78
6618.00,0.78
6617.00,0.78
6616.00,0.79
6615.00,0.79
6614.00,0.79
6613.00,0.79
6612.00,0.79
6611.00,0.79
6610.00,0.79
6609.00,0.79
6608.00,0.79
6607.00,0.80
6606.00,0.80
6605.00,0.80
6604.00,0.80
6603.00,0.80
6602.00,0.80
6601.00,0.80
6600.00,0.80
6599.00,0.80
6598.00,0.80
6597.00,0.80
6596.00,0.80
6595.00,0.80
6594.00,0.80
6593.00,0.80
6592.00,0.80
6591.00,0.81
6590.00,0.81
6589.00,0.81
6588.00,0.81
6587.00,0.81
6586.00,0.81
6585.00,0.81
6584.00,0.81
6583.00,0.81
6582.00,0.81
6581.00,0.81
6580.00,0.81
6579.00,0.81
6578.00,0.81
6577.00,0.81
6576.00,0.81
6575.00,0.81
6574.00,0.81
6573.00,0.81
6572.00,0.81
6571.00,0.82
6570.00,0.82
6569.00,0.82
6568.00,0.82
6567.00,0.82
6566.00,0.82
6565.00,0.82
6564.00,0.82
6563.00,0.82
6562.00,0.83
6561.00,0.83
6560.00,0.83
6559.00,0.83
6558.00,0.83
6557.00,0.83
6556.00,0.83
6555.00,0.83
6554.00,0.83
6553.00,0.83
6552.00,0.83
6551.00,0.83
6550.00,0.84
6549.00,0.84
6548.00,0.84
6547.00,0.84
6546.00,0.84
6545.00,0.84
6544.00,0.84
6543.00,0.84
6542.00,0.84
6541.00,0.84
6540.00,0.85
6539.00,0.85
6538.00,0.85
6537.00,0.85
6536.00,0.85
6535.00,0.85
6534.00,0.85
6533.00,0.85
6532.00,0.85
6531.00,0.85
6530.00,0.86
6529.00,0.86
6528.00,0.86
6527.00,0.86
6526.00,0.86
6525.00,0.86
6524.00,0.86
6523.00,0.86
6522.00,0.86
6521.00,0.86
6520.00,0.86
6519.00,0.86
6518.00,0.86
6517.00,0.86
6516.00,0.87
6515.00,0.87
6514.00,0.87
6513.00,0.87
6512.00,0.87
6511.00,0.87
6510.00,0.87
6509.00,0.87
6508.00,0.87
6507.00,0.87
6506.00,0.87
6505.00,0.87
6504.00,0.87
6503.00,0.87
6502.00,0.87
6501.00,0.87
6500.00,0.87
6499.00,0.87
6498.00,0.87
6497.00,0.87
6496.00,0.87
6495.00,0.87
6494.00,0.87
6493.00,0.87
6492.00,0.87
6491.00,0.87
6490.00,0.87
6489.00,0.87
6488.00,0.88
6487.00,0.88
6486.00,0.88
6485.00,0.88
6484.00,0.88
6483.00,0.88
6482.00,0.88
6481.00,0.88
6480.00,0.88
6479.00,0.88
6478.00,0.88
6477.00,0.88
6476.00,0.88
6475.00,0.88
6474.00,0.88
6473.00,0.88
6472.00,0.88
6471.00,0.88
6470.00,0.88
6469.00,0.88
6468.00,0.88
6467.00,0.88
6466.00,0.88
6465.00,0.88
6464.00,0.88
6463.00,0.89
6462.00,0.89
6461.00,0.89
6460.00,0.89
6459.00,0.89
6458.00,0.89
6457.00,0.89
6456.00,0.89
6455.00,0.89
6454.00,0.89
6453.00,0.89
6452.00,0.89
6451.00,0.90
6450.00,0.90
6449.00,0.90
6448.00,0.90
6447.00,0.90
6446.00,0.90
6445.00,0.90
6444.00,0.90
6443.00,0.90
6442.00,0.90
6441.00,0.90
6440.00,0.90
6439.00,0.90
6438.00,0.91
6437.00,0.91
6436.00,0.91
6435.00,0.91
6434.00,0.91
6433.00,0.91
6432.00,0.91
6431.00,0.91
6430.00,0.91
6429.00,0.91
6428.00,0.91
6427.00,0.91
6426.00,0.91
6425.00,0.91
6424.00,0.91
6423.00,0.91
6422.00,0.91
6421.00,0.92
6420.00,0.92
6419.00,0.92
6418.00,0.92
6417.00,0.92
6416.00,0.92
6415.00,0.92
6414.00,0.92
6413.00,0.92
6412.00,0.92
6411.00,0.92
6410.00,0.92
6409.00,0.92
6408.00,0.92
6407.00,0.92
6406.00,0.92
6405.00,0.92
6404.00,0.92
6403.00,0.92
6402.00,0.92
6401.00,0.92
6400.00,0.92
6399.00,0.92
6398.00,0.92
6397.00,0.92
6396.00,0.92
6395.00,0.92
6394.00,0.92
6393.00,0.93
6392.00,0.93
6391.00,0.93
6390.00,0.93
6389.00,0.93
6388.00,0.93
6387.00,0.93
6386.00,0.93
6385.00,0.94
6384.00,0.94
6383.00,0.94
6382.00,0.94
6381.00,0.94
6380.00,0.94
6379.00,0.94
6378.00,0.94
6377.00,0.94
6376.00,0.94
6375.00,0.94
6374.00,0.94
6373.00,0.94
6372.00,0.94
6371.00,0.94
6370.00,0.95
6369.00,0.95
6368.00,0.94
6367.00,0.94
6366.00,0.94
6365.00,0.94
6364.00,0.94
6363.00,0.94
6362.00,0.95
6361.00,0.95
6360.00,0.95
6359.00,0.95
6358.00,0.95
6357.00,0.95
6356.00,0.95
6355.00,0.95
6354.00,0.95
6353.00,0.95
6352.00,0.95
6351.00,0.95
6350.00,0.95
6349.00,0.95
6348.00,0.96
6347.00,0.96
6346.00,0.96
6345.00,0.96
6344.00,0.96
6343.00,0.96
6342.00,0.96
6341.00,0.96
6340.00,0.97
6339.00,0.97
6338.00,0.97
6337.00,0.97
6336.00,0.97
6335.00,0.97
6334.00,0.97
6333.00,0.98
6332.00,0.98
6331.00,0.98
6330.00,0.98
6329.00,0.98
6328.00,0.98
6327.00,0.98
6326.00,0.98
6325.00,0.98
6324.00,0.98
6323.00,0.98
6322.00,0.98
6321.00,0.98
6320.00,0.99
6319.00,0.99
6318.00,0.99
6317.00,0.99
6316.00,0.99
6315.00,0.99
6314.00,0.99
6313.00,0.99
6312.00,0.99
6311.00,0.99
6310.00,1.00
6309.00,1.00
6308.00,1.00
6307.00,1.00
6306.00,1.00
6305.00,1.00
6304.00,1.00
6303.00,1.01
6302.00,1.01
6301.00,1.01
6300.00,1.01
6299.00,1.01
6298.00,1.01
6297.00,1.01
6296.00,1.01
6295.00,1.01
6294.00,1.01
6293.00,1.01
6292.00,1.01
6291.00,1.01
6290.00,1.02
6289.00,1.02
6288.00,1.02
6287.00,1.02
6286.00,1.02
6285.00,1.02
6284.00,1.02
6283.00,1.02
6282.00,1.02
6281.00,1.02
6280.00,1.02
6279.00,1.02
6278.00,1.02
6277.00,1.02
6276.00,1.02
6275.00,1.02
6274.00,1.02
6273.00,1.02
6272.00,1.03
6271.00,1.03
6270.00,1.03
6269.00,1.03
6268.00,1.03
6267.00,1.03
6266.00,1.03
6265.00,1.03
6264.00,1.04
6263.00,1.04
6262.00,1.04
6261.00,1.04
6260.00,1.04
6259.00,1.04
6258.00,1.04
6257.00,1.04
6256.00,1.04
6255.00,1.05
6254.00,1.05
6253.00,1.05
6252.00,1.05
6251.00,1.05
6250.00,1.05
6249.00,1.05
6248.00,1.05
6247.00,1.05
6246.00,1.06
6245.00,1.06
6244.00,1.06
6243.00,1.06
6242.00,1.06
6241.00,1.06
6240.00,1.07
6239.00,1.07
6238.00,1.07
6237.00,1.07
6236.00,1.07
6235.00,1.08
6234.00,1.08
6233.00,1.08
6232.00,1.08
6231.00,1.08
6230.00,1.08
6229.00,1.08
6228.00,1.09
6227.00,1.09
6226.00,1.09
6225.00,1.09
6224.00,1.09
6223.00,1.09
6222.00,1.09
6221.00,1.09
6220.00,1.09
6219.00,1.10
6218.00,1.10
6217.00,1.10
6216.00,1.10
6215.00,1.10
6214.00,1.10
6213.00,1.10
6212.00,1.10
6211.00,1.10
6210.00,1.10
6209.00,1.11
6208.00,1.11
6207.00,1.11
6206.00,1.11
6205.00,1.11
6204.00,1.11
6203.00,1.11
6202.00,1.11
6201.00,1.11
6200.00,1.12
6199.00,1.12
6198.00,1.12
6197.00,1.12
6196.00,1.12
6195.00,1.12
6194.00,1.13
6193.00,1.13
6192.00,1.13
6191.00,1.13
6190.00,1.13
6189.00,1.13
6188.00,1.14
6187.00,1.14
6186.00,1.14
6185.00,1.14
6184.00,1.14
6183.00,1.14
6182.00,1.14
6181.00,1.15
6180.00,1.15
6179.00,1.15
6178.00,1.15
6177.00,1.15
6176.00,1.15
6175.00,1.16
6174.00,1.16
6173.00,1.16
6172.00,1.16
6171.00,1.16
6170.00,1.16
6169.00,1.16
6168.00,1.16
6167.00,1.16
6166.00,1.17
6165.00,1.17
6164.00,1.17
6163.00,1.17
6162.00,1.17
6161.00,1.17
6160.00,1.17
6159.00,1.17
6158.00,1.17
6157.00,1.17
6156.00,1.17
6155.00,1.17
6154.00,1.17
6153.00,1.17
6152.00,1.18
6151.00,1.18
6150.00,1.18
6149.00,1.18
6148.00,1.18
6147.00,1.18
6146.00,1.18
6145.00,1.18
6144.00,1.18
6143.00,1.18
6142.00,1.19
6141.00,1.19
6140.00,1.19
6139.00,1.19
6138.00,1.19
6137.00,1.19
6136.00,1.19
6135.00,1.20
6134.00,1.20
6133.00,1.20
6132.00,1.20
6131.00,1.20
6130.00,1.21
6129.00,1.21
6128.00,1.21
6127.00,1.21
6126.00,1.22
6125.00,1.22
6124.00,1.22
6123.00,1.22
6122.00,1.23
6121.00,1.23
6120.00,1.23
6119.00,1.23
6118.00,1.23
6117.00,1.23
6116.00,1.24
6115.00,1.24
6114.00,1.24
6113.00,1.24
6112.00,1.24
6111.00,1.24
6110.00,1.24
6109.00,1.24
6108.00,1.24
6107.00,1.24
6106.00,1.24
6105.00,1.25
6104.00,1.25
6103.00,1.25
6102.00,1.25
6101.00,1.25
6100.00,1.25
6099.00,1.25
6098.00,1.25
6097.00,1.26
6096.00,1.26
6095.00,1.26
6094.00,1.26
6093.00,1.26
6092.00,1.26
6091.00,1.26
6090.00,1.27
6089.00,1.27
6088.00,1.27
6087.00,1.27
6086.00,1.27
6085.00,1.27
6084.00,1.27
6083.00,1.28
6082.00,1.28
6081.00,1.28
6080.00,1.28
6079.00,1.28
6078.00,1.29
6077.00,1.29
6076.00,1.29
6075.00,1.29
6074.00,1.29
6073.00,1.29
6072.00,1.30
6071.00,1.30
6070.00,1.30
6069.00,1.30
6068.00,1.30
6067.00,1.30
6066.00,1.30
6065.00,1.30
6064.00,1.30
6063.00,1.30
6062.00,1.31
6061.00,1.31
6060.00,1.31
6059.00,1.31
6058.00,1.31
6057.00,1.31
6056.00,1.31
6055.00,1.31
6054.00,1.31
6053.00,1.31
6052.00,1.31
6051.00,1.31
6050.00,1.31
6049.00,1.31
6048.00,1.31
6047.00,1.31
6046.00,1.32
6045.00,1.32
6044.00,1.32
6043.00,1.32
6042.00,1.32
6041.00,1.32
6040.00,1.32
6039.00,1.32
6038.00,1.32
6037.00,1.32
6036.00,1.32
6035.00,1.32
6034.00,1.32
6033.00,1.33
6032.00,1.33
6031.00,1.33
6030.00,1.33
6029.00,1.33
6028.00,1.33
6027.00,1.33
6026.00,1.33
6025.00,1.33
6024.00,1.33
6023.00,1.33
6022.00,1.33
6021.00,1.33
6020.00,1.33
6019.00,1.33
6018.00,1.33
6017.00,1.34
6016.00,1.34
6015.00,1.34
6014.00,1.34
6013.00,1.34
6012.00,1.34
6011.00,1.33
6010.00,1.33
6009.00,1.33
6008.00,1.33
6007.00,1.33
6006.00,1.33
6005.00,1.33
6004.00,1.33
6003.00,1.33
6002.00,1.33
6001.00,1.33
6000.00,1.33
5999.00,1.33
5998.00,1.32
5997.00,1.32
5996.00,1.32
5995.00,1.32
5994.00,1.32
5993.00,1.32
5992.00,1.32
5991.00,1.31
5990.00,1.31
5989.00,1.31
5988.00,1.31
5987.00,1.31
5986.00,1.30
5985.00,1.30
5984.00,1.30
5983.00,1.30
5982.00,1.29
5981.00,1.29
5980.00,1.29
5979.00,1.28
5978.00,1.28
5977.00,1.28
5976.00,1.27
5975.00,1.27
5974.00,1.26
5973.00,1.26
5972.00,1.25
5971.00,1.25
5970.00,1.24
5969.00,1.23
5968.00,1.23
5967.00,1.22
5966.00,1.22
5965.00,1.21
5964.00,1.20
5963.00,1.20
5962.00,1.19
5961.00,1.18
5960.00,1.18
5959.00,1.17
5958.00,1.16
5957.00,1.15
5956.00,1.15
5955.00,1.14
5954.00,1.13
5953.00,1.13
5952.00,1.12
5951.00,1.12
5950.00,1.11
5949.00,1.11
5948.00,1.10
5947.00,1.10
5946.00,1.10
5945.00,1.09
5944.00,1.09
5943.00,1.09
5942.00,1.09
5941.00,1.09
5940.00,1.08
5939.00,1.08
5938.00,1.08
5937.00,1.08
5936.00,1.08
5935.00,1.08
5934.00,1.08
5933.00,1.08
5932.00,1.08
5931.00,1.08
5930.00,1.08
5929.00,1.08
5928.00,1.08
5927.00,1.08
5926.00,1.08
5925.00,1.07
5924.00,1.07
5923.00,1.07
5922.00,1.07
5921.00,1.07
5920.00,1.06
5919.00,1.06
5918.00,1.06
5917.00,1.06
5916.00,1.05
5915.00,1.05
5914.00,1.05
5913.00,1.05
5912.00,1.04
5911.00,1.04
5910.00,1.04
5909.00,1.04
5908.00,1.04
5907.00,1.03
5906.00,1.03
5905.00,1.03
5904.00,1.03
5903.00,1.03
5902.00,1.03
5901.00,1.03
5900.00,1.03
5899.00,1.03
5898.00,1.03
5897.00,1.03
5896.00,1.04
5895.00,1.04
5894.00,1.04
5893.00,1.04
5892.00,1.04
5891.00,1.05
5890.00,1.05
5889.00,1.05
5888.00,1.06
5887.00,1.06
5886.00,1.06
5885.00,1.07
5884.00,1.07
5883.00,1.07
5882.00,1.08
5881.00,1.08
5880.00,1.08
5879.00,1.08
5878.00,1.09
5877.00,1.09
5876.00,1.09
5875.00,1.09
5874.00,1.10
5873.00,1.10
5872.00,1.10
5871.00,1.10
5870.00,1.10
5869.00,1.10
5868.00,1.11
5867.00,1.11
5866.00,1.11
5865.00,1.11
5864.00,1.11
5863.00,1.11
5862.00,1.12
5861.00,1.12
5860.00,1.12
5859.00,1.12
5858.00,1.12
5857.00,1.12
5856.00,1.12
5855.00,1.12
5854.00,1.13
5853.00,1.13
5852.00,1.13
5851.00,1.13
5850.00,1.13
5849.00,1.13
5848.00,1.13
5847.00,1.13
5846.00,1.13
5845.00,1.13
5844.00,1.13
5843.00,1.13
5842.00,1.13
5841.00,1.13
5840.00,1.13
5839.00,1.13
5838.00,1.13
5837.00,1.13
5836.00,1.13
5835.00,1.13
5834.00,1.13
5833.00,1.14
5832.00,1.14
5831.00,1.14
5830.00,1.14
5829.00,1.14
5828.00,1.14
5827.00,1.14
5826.00,1.14
5825.00,1.14
5824.00,1.14
5823.00,1.14
5822.00,1.14
5821.00,1.14
5820.00,1.14
5819.00,1.13
5818.00,1.13
5817.00,1.13
5816.00,1.13
5815.00,1.13
5814.00,1.13
5813.00,1.13
5812.00,1.13
5811.00,1.13
5810.00,1.13
5809.00,1.13
5808.00,1.13
5807.00,1.13
5806.00,1.13
5805.00,1.13
5804.00,1.13
5803.00,1.13
5802.00,1.13
5801.00,1.12
5800.00,1.12
5799.00,1.12
5798.00,1.12
5797.00,1.12
5796.00,1.12
5795.00,1.12
5794.00,1.11
5793.00,1.11
5792.00,1.11
5791.00,1.11
5790.00,1.11
5789.00,1.10
5788.00,1.10
5787.00,1.10
5786.00,1.10
5785.00,1.10
5784.00,1.10
5783.00,1.09
5782.00,1.09
5781.00,1.09
5780.00,1.09
5779.00,1.09
5778.00,1.09
5777.00,1.08
5776.00,1.08
5775.00,1.08
5774.00,1.08
5773.00,1.08
5772.00,1.08
5771.00,1.08
5770.00,1.08
5769.00,1.08
5768.00,1.08
5767.00,1.08
5766.00,1.08
5765.00,1.09
5764.00,1.09
5763.00,1.09
5762.00,1.09
5761.00,1.09
5760.00,1.09
5759.00,1.10
5758.00,1.10
5757.00,1.10
5756.00,1.10
5755.00,1.11
5754.00,1.11
5753.00,1.11
5752.00,1.12
5751.00,1.12
5750.00,1.12
5749.00,1.13
5748.00,1.13
5747.00,1.13
5746.00,1.14
5745.00,1.14
5744.00,1.15
5743.00,1.15
5742.00,1.15
5741.00,1.16
5740.00,1.16
5739.00,1.16
5738.00,1.16
5737.00,1.17
5736.00,1.17
5735.00,1.17
5734.00,1.17
5733.00,1.17
5732.00,1.18
5731.00,1.18
5730.00,1.18
5729.00,1.18
5728.00,1.18
5727.00,1.18
5726.00,1.18
5725.00,1.18
5724.00,1.18
5723.00,1.18
5722.00,1.18
5721.00,1.18
5720.00,1.18
5719.00,1.18
5718.00,1.18
5717.00,1.18
5716.00,1.18
5715.00,1.18
5714.00,1.18
5713.00,1.18
5712.00,1.18
5711.00,1.18
5710.00,1.18
5709.00,1.18
5708.00,1.18
5707.00,1.18
5706.00,1.18
5705.00,1.18
5704.00,1.18
5703.00,1.18
5702.00,1.18
5701.00,1.18
5700.00,1.18
5699.00,1.18
5698.00,1.18
5697.00,1.17
5696.00,1.17
5695.00,1.17
5694.00,1.17
5693.00,1.17
5692.00,1.17
5691.00,1.17
5690.00,1.17
5689.00,1.17
5688.00,1.16
5687.00,1.16
5686.00,1.16
5685.00,1.16
5684.00,1.16
5683.00,1.16
5682.00,1.15
5681.00,1.15
5680.00,1.15
5679.00,1.15
5678.00,1.15
5677.00,1.15
5676.00,1.15
5675.00,1.15
5674.00,1.15
5673.00,1.15
5672.00,1.15
5671.00,1.15
5670.00,1.15
5669.00,1.15
5668.00,1.15
5667.00,1.15
5666.00,1.15
5665.00,1.15
5664.00,1.15
5663.00,1.15
5662.00,1.16
5661.00,1.16
5660.00,1.16
5659.00,1.16
5658.00,1.16
5657.00,1.17
5656.00,1.17
5655.00,1.17
5654.00,1.17
5653.00,1.17
5652.00,1.17
5651.00,1.18
5650.00,1.18
5649.00,1.18
5648.00,1.18
5647.00,1.18
5646.00,1.18
5645.00,1.19
5644.00,1.19
5643.00,1.19
5642.00,1.19
5641.00,1.19
5640.00,1.19
5639.00,1.19
5638.00,1.19
5637.00,1.20
5636.00,1.20
5635.00,1.20
5634.00,1.20
5633.00,1.20
5632.00,1.20
5631.00,1.20
5630.00,1.21
5629.00,1.21
5628.00,1.21
5627.00,1.21
5626.00,1.21
5625.00,1.21
5624.00,1.22
5623.00,1.22
5622.00,1.22
5621.00,1.22
5620.00,1.22
5619.00,1.22
5618.00,1.23
5617.00,1.23
5616.00,1.23
5615.00,1.23
5614.00,1.23
5613.00,1.23
5612.00,1.24
5611.00,1.24
5610.00,1.24
5609.00,1.24
5608.00,1.24
5607.00,1.25
5606.00,1.25
5605.00,1.25
5604.00,1.25
5603.00,1.25
5602.00,1.26
5601.00,1.26
5600.00,1.26
5599.00,1.26
5598.00,1.26
5597.00,1.26
5596.00,1.26
5595.00,1.27
5594.00,1.27
5593.00,1.27
5592.00,1.27
5591.00,1.27
5590.00,1.27
5589.00,1.27
5588.00,1.27
5587.00,1.27
5586.00,1.27
5585.00,1.27
5584.00,1.28
5583.00,1.28
5582.00,1.28
5581.00,1.28
5580.00,1.28
5579.00,1.28
5578.00,1.28
5577.00,1.28
5576.00,1.28
5575.00,1.29
5574.00,1.29
5573.00,1.29
5572.00,1.29
5571.00,1.29
5570.00,1.29
5569.00,1.30
5568.00,1.30
5567.00,1.30
5566.00,1.30
5565.00,1.30
5564.00,1.31
5563.00,1.31
5562.00,1.31
5561.00,1.31
5560.00,1.31
5559.00,1.31
5558.00,1.31
5557.00,1.32
5556.00,1.32
5555.00,1.32
5554.00,1.32
5553.00,1.32
5552.00,1.32
5551.00,1.32
5550.00,1.33
5549.00,1.33
5548.00,1.33
5547.00,1.33
5546.00,1.33
5545.00,1.33
5544.00,1.33
5543.00,1.33
5542.00,1.34
5541.00,1.34
5540.00,1.34
5539.00,1.34
5538.00,1.34
5537.00,1.34
5536.00,1.34
5535.00,1.35
5534.00,1.35
5533.00,1.35
5532.00,1.35
5531.00,1.35
5530.00,1.35
5529.00,1.35
5528.00,1.35
5527.00,1.35
5526.00,1.35
5525.00,1.35
5524.00,1.36
5523.00,1.36
5522.00,1.36
5521.00,1.36
5520.00,1.36
5519.00,1.36
5518.00,1.36
5517.00,1.36
5516.00,1.36
5515.00,1.36
5514.00,1.36
5513.00,1.36
5512.00,1.36
5511.00,1.36
5510.00,1.36
5509.00,1.37
5508.00,1.37
5507.00,1.37
5506.00,1.37
5505.00,1.37
5504.00,1.37
5503.00,1.37
5502.00,1.37
5501.00,1.37
5500.00,1.37
5499.00,1.37
5498.00,1.37
5497.00,1.37
5496.00,1.37
5495.00,1.37
5494.00,1.37
5493.00,1.37
5492.00,1.37
5491.00,1.37
5490.00,1.38
5489.00,1.38
5488.00,1.38
5487.00,1.38
5486.00,1.38
5485.00,1.38
5484.00,1.38
5483.00,1.39
5482.00,1.39
5481.00,1.39
5480.00,1.39
5479.00,1.39
5478.00,1.39
5477.00,1.39
5476.00,1.40
5475.00,1.40
5474.00,1.40
5473.00,1.40
5472.00,1.40
5471.00,1.40
5470.00,1.40
5469.00,1.40
5468.00,1.40
5467.00,1.40
5466.00,1.40
5465.00,1.40
5464.00,1.41
5463.00,1.41
5462.00,1.41
5461.00,1.41
5460.00,1.41
5459.00,1.41
5458.00,1.41
5457.00,1.41
5456.00,1.41
5455.00,1.42
5454.00,1.42
5453.00,1.42
5452.00,1.42
5451.00,1.42
5450.00,1.42
5449.00,1.42
5448.00,1.42
5447.00,1.42
5446.00,1.42
5445.00,1.42
5444.00,1.42
5443.00,1.42
5442.00,1.42
5441.00,1.42
5440.00,1.42
5439.00,1.43
5438.00,1.43
5437.00,1.43
5436.00,1.43
5435.00,1.43
5434.00,1.43
5433.00,1.43
5432.00,1.43
5431.00,1.43
5430.00,1.43
5429.00,1.43
5428.00,1.43
5427.00,1.43
5426.00,1.43
5425.00,1.43
5424.00,1.43
5423.00,1.43
5422.00,1.43
5421.00,1.43
5420.00,1.43
5419.00,1.43
5418.00,1.43
5417.00,1.43
5416.00,1.43
5415.00,1.43
5414.00,1.43
5413.00,1.43
5412.00,1.43
5411.00,1.43
5410.00,1.43
5409.00,1.43
5408.00,1.42
5407.00,1.42
5406.00,1.42
5405.00,1.42
5404.00,1.42
5403.00,1.42
5402.00,1.42
5401.00,1.42
5400.00,1.42
5399.00,1.42
5398.00,1.42
5397.00,1.42
5396.00,1.42
5395.00,1.42
5394.00,1.42
5393.00,1.41
5392.00,1.41
5391.00,1.41
5390.00,1.41
5389.00,1.41
5388.00,1.41
5387.00,1.40
5386.00,1.40
5385.00,1.40
5384.00,1.40
5383.00,1.39
5382.00,1.39
5381.00,1.39
5380.00,1.38
5379.00,1.38
5378.00,1.38
5377.00,1.37
5376.00,1.37
5375.00,1.37
5374.00,1.36
5373.00,1.36
5372.00,1.35
5371.00,1.35
5370.00,1.34
5369.00,1.34
5368.00,1.33
5367.00,1.33
5366.00,1.32
5365.00,1.32
5364.00,1.31
5363.00,1.30
5362.00,1.30
5361.00,1.29
5360.00,1.29
5359.00,1.28
5358.00,1.27
5357.00,1.27
5356.00,1.26
5355.00,1.25
5354.00,1.24
5353.00,1.24
5352.00,1.23
5351.00,1.22
5350.00,1.21
5349.00,1.20
5348.00,1.20
5347.00,1.19
5346.00,1.18
5345.00,1.17
5344.00,1.16
5343.00,1.15
5342.00,1.14
5341.00,1.14
5340.00,1.13
5339.00,1.12
5338.00,1.11
5337.00,1.10
5336.00,1.09
5335.00,1.08
5334.00,1.07
5333.00,1.06
5332.00,1.06
5331.00,1.05
5330.00,1.04
5329.00,1.03
5328.00,1.02
5327.00,1.01
5326.00,1.01
5325.00,1.00
5324.00,0.99
5323.00,0.98
5322.00,0.98
5321.00,0.97
5320.00,0.96
5319.00,0.96
5318.00,0.95
5317.00,0.95
5316.00,0.94
5315.00,0.93
5314.00,0.93
5313.00,0.92
5312.00,0.92
5311.00,0.91
5310.00,0.91
5309.00,0.91
5308.00,0.90
5307.00,0.90
5306.00,0.89
5305.00,0.89
5304.00,0.89
5303.00,0.88
5302.00,0.88
5301.00,0.88
5300.00,0.88
5299.00,0.87
5298.00,0.87
5297.00,0.87
5296.00,0.87
5295.00,0.87
5294.00,0.87
5293.00,0.86
5292.00,0.86
5291.00,0.86
5290.00,0.86
5289.00,0.86
5288.00,0.86
5287.00,0.86
5286.00,0.86
5285.00,0.86
5284.00,0.85
5283.00,0.85
5282.00,0.85
5281.00,0.85
5280.00,0.85
5279.00,0.85
5278.00,0.85
5277.00,0.85
5276.00,0.85
5275.00,0.85
5274.00,0.85
5273.00,0.85
5272.00,0.85
5271.00,0.85
5270.00,0.85
5269.00,0.85
5268.00,0.85
5267.00,0.85
5266.00,0.85
5265.00,0.85
5264.00,0.85
5263.00,0.85
5262.00,0.85
5261.00,0.85
5260.00,0.85
5259.00,0.85
5258.00,0.85
5257.00,0.85
5256.00,0.85
5255.00,0.85
5254.00,0.85
5253.00,0.85
5252.00,0.85
5251.00,0.85
5250.00,0.85
5249.00,0.85
5248.00,0.85
5247.00,0.85
5246.00,0.85
5245.00,0.85
5244.00,0.85
5243.00,0.85
5242.00,0.85
5241.00,0.85
5240.00,0.85
5239.00,0.86
5238.00,0.86
5237.00,0.86
5236.00,0.86
5235.00,0.86
5234.00,0.86
5233.00,0.86
5232.00,0.86
5231.00,0.86
5230.00,0.86
5229.00,0.86
5228.00,0.86
5227.00,0.86
5226.00,0.86
5225.00,0.87
5224.00,0.87
5223.00,0.87
5222.00,0.87
5221.00,0.87
5220.00,0.87
5219.00,0.87
5218.00,0.87
5217.00,0.87
5216.00,0.87
5215.00,0.87
5214.00,0.87
5213.00,0.87
5212.00,0.87
5211.00,0.87
5210.00,0.87
5209.00,0.87
5208.00,0.87
5207.00,0.87
5206.00,0.87
5205.00,0.87
5204.00,0.87
5203.00,0.87
5202.00,0.87
5201.00,0.87
5200.00,0.87
5199.00,0.87
5198.00,0.87
5197.00,0.87
5196.00,0.87
5195.00,0.87
5194.00,0.87
5193.00,0.87
5192.00,0.87
5191.00,0.87
5190.00,0.87
5189.00,0.87
5188.00,0.87
5187.00,0.87
5186.00,0.87
5185.00,0.87
5184.00,0.87
5183.00,0.87
5182.00,0.87
5181.00,0.87
5180.00,0.87
5179.00,0.87
5178.00,0.87
5177.00,0.88
5176.00,0.88
5175.00,0.88
5174.00,0.88
5173.00,0.88
5172.00,0.88
5171.00,0.88
5170.00,0.88
5169.00,0.88
5168.00,0.88
5167.00,0.88
5166.00,0.88
5165.00,0.88
5164.00,0.88
5163.00,0.89
5162.00,0.89
5161.00,0.89
5160.00,0.89
5159.00,0.89
5158.00,0.89
5157.00,0.89
5156.00,0.89
5155.00,0.89
5154.00,0.89
5153.00,0.89
5152.00,0.89
5151.00,0.89
5150.00,0.89
5149.00,0.89
5148.00,0.89
5147.00,0.89
5146.00,0.89
5145.00,0.89
5144.00,0.89
5143.00,0.89
5142.00,0.89
5141.00,0.89
5140.00,0.89
5139.00,0.89
5138.00,0.89
5137.00,0.89
5136.00,0.89
5135.00,0.89
5134.00,0.89
5133.00,0.89
5132.00,0.89
5131.00,0.89
5130.00,0.89
5129.00,0.89
5128.00,0.89
5127.00,0.90
5126.00,0.90
5125.00,0.90
5124.00,0.90
5123.00,0.90
5122.00,0.90
5121.00,0.90
5120.00,0.90
5119.00,0.90
5118.00,0.90
5117.00,0.90
5116.00,0.90
5115.00,0.90
5114.00,0.90
5113.00,0.90
5112.00,0.90
5111.00,0.90
5110.00,0.90
5109.00,0.90
5108.00,0.90
5107.00,0.90
5106.00,0.90
5105.00,0.90
5104.00,0.90
5103.00,0.90
5102.00,0.90
5101.00,0.90
5100.00,0.90
5099.00,0.90
5098.00,0.90
5097.00,0.90
5096.00,0.90
5095.00,0.91
5094.00,0.91
5093.00,0.91
5092.00,0.91
5091.00,0.91
5090.00,0.91
5089.00,0.91
5088.00,0.91
5087.00,0.91
5086.00,0.91
5085.00,0.91
5084.00,0.91
5083.00,0.91
5082.00,0.91
5081.00,0.91
5080.00,0.91
5079.00,0.91
5078.00,0.91
5077.00,0.91
5076.00,0.91
5075.00,0.91
5074.00,0.91
5073.00,0.91
5072.00,0.91
5071.00,0.92
5070.00,0.92
5069.00,0.92
5068.00,0.92
5067.00,0.92
5066.00,0.92
5065.00,0.92
5064.00,0.92
5063.00,0.92
5062.00,0.92
5061.00,0.92
5060.00,0.92
5059.00,0.92
5058.00,0.92
5057.00,0.92
5056.00,0.92
5055.00,0.92
5054.00,0.93
5053.00,0.93
5052.00,0.93
5051.00,0.93
5050.00,0.93
5049.00,0.93
5048.00,0.93
5047.00,0.93
5046.00,0.93
5045.00,0.93
5044.00,0.93
5043.00,0.93
5042.00,0.93
5041.00,0.93
5040.00,0.93
5039.00,0.94
5038.00,0.94
5037.00,0.94
5036.00,0.94
5035.00,0.94
5034.00,0.94
5033.00,0.94
5032.00,0.94
5031.00,0.94
5030.00,0.94
5029.00,0.94
5028.00,0.94
5027.00,0.94
5026.00,0.94
5025.00,0.94
5024.00,0.94
5023.00,0.94
5022.00,0.94
5021.00,0.94
5020.00,0.94
5019.00,0.94
5018.00,0.94
5017.00,0.94
5016.00,0.94
5015.00,0.94
5014.00,0.94
5013.00,0.94
5012.00,0.94
5011.00,0.94
5010.00,0.94
5009.00,0.94
5008.00,0.94
5007.00,0.94
5006.00,0.94
5005.00,0.94
5004.00,0.94
5003.00,0.94
5002.00,0.94
5001.00,0.94
5000.00,0.94
4999.00,0.94
4998.00,0.94
4997.00,0.94
4996.00,0.95
4995.00,0.95
4994.00,0.95
4993.00,0.95
4992.00,0.95
4991.00,0.95
4990.00,0.95
4989.00,0.95
4988.00,0.95
4987.00,0.95
4986.00,0.96
4985.00,0.96
4984.00,0.96
4983.00,0.96
4982.00,0.96
4981.00,0.96
4980.00,0.96
4979.00,0.96
4978.00,0.96
4977.00,0.96
4976.00,0.96
4975.00,0.97
4974.00,0.97
4973.00,0.97
4972.00,0.97
4971.00,0.97
4970.00,0.97
4969.00,0.97
4968.00,0.97
4967.00,0.97
4966.00,0.97
4965.00,0.97
4964.00,0.98
4963.00,0.98
4962.00,0.98
4961.00,0.98
4960.00,0.98
4959.00,0.98
4958.00,0.98
4957.00,0.98
4956.00,0.98
4955.00,0.98
4954.00,0.98
4953.00,0.98
4952.00,0.98
4951.00,0.98
4950.00,0.98
4949.00,0.98
4948.00,0.98
4947.00,0.98
4946.00,0.98
4945.00,0.98
4944.00,0.98
4943.00,0.98
4942.00,0.98
4941.00,0.98
4940.00,0.98
4939.00,0.98
4938.00,0.98
4937.00,0.98
4936.00,0.98
4935.00,0.98
4934.00,0.98
4933.00,0.98
4932.00,0.98
4931.00,0.98
4930.00,0.99
4929.00,0.99
4928.00,0.99
4927.00,0.99
4926.00,0.99
4925.00,0.99
4924.00,0.99
4923.00,0.99
4922.00,0.99
4921.00,0.99
4920.00,1.00
4919.00,1.00
4918.00,1.00
4917.00,1.00
4916.00,1.00
4915.00,1.00
4914.00,1.00
4913.00,1.00
4912.00,1.00
4911.00,1.01
4910.00,1.01
4909.00,1.01
4908.00,1.01
4907.00,1.01
4906.00,1.01
4905.00,1.01
4904.00,1.01
4903.00,1.01
4902.00,1.01
4901.00,1.01
4900.00,1.01
4899.00,1.01
4898.00,1.01
4897.00,1.01
4896.00,1.01
4895.00,1.01
4894.00,1.01
4893.00,1.01
4892.00,1.01
4891.00,1.01
4890.00,1.01
4889.00,1.01
4888.00,1.01
4887.00,1.02
4886.00,1.02
4885.00,1.02
4884.00,1.02
4883.00,1.02
4882.00,1.02
4881.00,1.02
4880.00,1.02
4879.00,1.02
4878.00,1.02
4877.00,1.02
4876.00,1.02
4875.00,1.02
4874.00,1.02
4873.00,1.02
4872.00,1.02
4871.00,1.02
4870.00,1.02
4869.00,1.02
4868.00,1.03
4867.00,1.03
4866.00,1.03
4865.00,1.03
4864.00,1.03
4863.00,1.03
4862.00,1.03
4861.00,1.03
4860.00,1.03
4859.00,1.03
4858.00,1.03
4857.00,1.03
4856.00,1.03
4855.00,1.03
4854.00,1.03
4853.00,1.03
4852.00,1.03
4851.00,1.03
4850.00,1.03
4849.00,1.03
4848.00,1.03
4847.00,1.03
4846.00,1.04
4845.00,1.04
4844.00,1.04
4843.00,1.04
4842.00,1.04
4841.00,1.04
4840.00,1.04
4839.00,1.04
4838.00,1.04
4837.00,1.04
4836.00,1.04
4835.00,1.04
4834.00,1.04
4833.00,1.04
4832.00,1.04
4831.00,1.05
4830.00,1.05
4829.00,1.05
4828.00,1.05
4827.00,1.05
4826.00,1.05
4825.00,1.05
4824.00,1.05
4823.00,1.05
4822.00,1.05
4821.00,1.05
4820.00,1.05
4819.00,1.05
4818.00,1.05
4817.00,1.05
4816.00,1.05
4815.00,1.05
4814.00,1.05
4813.00,1.05
4812.00,1.05
4811.00,1.05
4810.00,1.05
4809.00,1.05
4808.00,1.06
4807.00,1.06
4806.00,1.06
4805.00,1.06
4804.00,1.06
4803.00,1.06
4802.00,1.06
4801.00,1.06
4800.00,1.06
4799.00,1.06
4798.00,1.06
4797.00,1.06
4796.00,1.06
4795.00,1.07
4794.00,1.07
4793.00,1.07
4792.00,1.07
4791.00,1.07
4790.00,1.07
4789.00,1.07
4788.00,1.07
4787.00,1.07
4786.00,1.07
4785.00,1.07
4784.00,1.07
4783.00,1.08
4782.00,1.08
4781.00,1.08
4780.00,1.08
4779.00,1.08
4778.00,1.08
4777.00,1.08
4776.00,1.08
4775.00,1.08
4774.00,1.08
4773.00,1.08
4772.00,1.08
4771.00,1.08
4770.00,1.08
4769.00,1.08
4768.00,1.08
4767.00,1.08
4766.00,1.08
4765.00,1.09
4764.00,1.09
4763.00,1.09
4762.00,1.09
4761.00,1.09
4760.00,1.09
4759.00,1.09
4758.00,1.09
4757.00,1.09
4756.00,1.10
4755.00,1.10
4754.00,1.10
4753.00,1.10
4752.00,1.10
4751.00,1.10
4750.00,1.10
4749.00,1.11
4748.00,1.11
4747.00,1.11
4746.00,1.11
4745.00,1.11
4744.00,1.11
4743.00,1.11
4742.00,1.11
4741.00,1.12
4740.00,1.12
4739.00,1.12
4738.00,1.12
4737.00,1.12
4736.00,1.12
4735.00,1.12
4734.00,1.12
4733.00,1.12
4732.00,1.13
4731.00,1.13
4730.00,1.13
4729.00,1.13
4728.00,1.13
4727.00,1.13
4726.00,1.13
4725.00,1.13
4724.00,1.13
4723.00,1.13
4722.00,1.14
4721.00,1.14
4720.00,1.14
4719.00,1.14
4718.00,1.14
4717.00,1.14
4716.00,1.14
4715.00,1.14
4714.00,1.14
4713.00,1.14
4712.00,1.14
4711.00,1.14
4710.00,1.14
4709.00,1.14
4708.00,1.14
4707.00,1.14
4706.00,1.15
4705.00,1.15
4704.00,1.15
4703.00,1.15
4702.00,1.15
4701.00,1.15
4700.00,1.15
4699.00,1.15
4698.00,1.16
4697.00,1.16
4696.00,1.16
4695.00,1.16
4694.00,1.16
4693.00,1.16
4692.00,1.17
4691.00,1.17
4690.00,1.17
4689.00,1.17
4688.00,1.17
4687.00,1.17
4686.00,1.17
4685.00,1.18
4684.00,1.18
4683.00,1.18
4682.00,1.18
4681.00,1.18
4680.00,1.18
4679.00,1.18
4678.00,1.18
4677.00,1.18
4676.00,1.18
4675.00,1.18
4674.00,1.18
4673.00,1.18
4672.00,1.18
4671.00,1.19
4670.00,1.19
4669.00,1.19
4668.00,1.19
4667.00,1.19
4666.00,1.19
4665.00,1.19
4664.00,1.19
4663.00,1.19
4662.00,1.20
4661.00,1.20
4660.00,1.20
4659.00,1.20
4658.00,1.20
4657.00,1.20
4656.00,1.20
4655.00,1.20
4654.00,1.20
4653.00,1.20
4652.00,1.20
4651.00,1.20
4650.00,1.20
4649.00,1.20
4648.00,1.20
4647.00,1.20
4646.00,1.20
4645.00,1.21
4644.00,1.21
4643.00,1.21
4642.00,1.21
4641.00,1.21
4640.00,1.21
4639.00,1.21
4638.00,1.21
4637.00,1.21
4636.00,1.21
4635.00,1.21
4634.00,1.21
4633.00,1.22
4632.00,1.22
4631.00,1.22
4630.00,1.22
4629.00,1.22
4628.00,1.22
4627.00,1.22
4626.00,1.22
4625.00,1.22
4624.00,1.23
4623.00,1.23
4622.00,1.23
4621.00,1.23
4620.00,1.23
4619.00,1.23
4618.00,1.23
4617.00,1.23
4616.00,1.23
4615.00,1.23
4614.00,1.23
4613.00,1.23
4612.00,1.23
4611.00,1.23
4610.00,1.22
4609.00,1.22
4608.00,1.22
4607.00,1.22
4606.00,1.22
4605.00,1.22
4604.00,1.22
4603.00,1.23
4602.00,1.23
4601.00,1.23
4600.00,1.23
4599.00,1.23
4598.00,1.23
4597.00,1.23
4596.00,1.23
4595.00,1.23
4594.00,1.23
4593.00,1.23
4592.00,1.23
4591.00,1.23
4590.00,1.23
4589.00,1.23
4588.00,1.23
4587.00,1.23
4586.00,1.23
4585.00,1.23
4584.00,1.23
4583.00,1.24
4582.00,1.24
4581.00,1.24
4580.00,1.24
4579.00,1.24
4578.00,1.24
4577.00,1.24
4576.00,1.24
4575.00,1.24
4574.00,1.24
4573.00,1.24
4572.00,1.24
4571.00,1.25
4570.00,1.25
4569.00,1.25
4568.00,1.25
4567.00,1.25
4566.00,1.25
4565.00,1.25
4564.00,1.25
4563.00,1.25
4562.00,1.25
4561.00,1.25
4560.00,1.26
4559.00,1.26
4558.00,1.26
4557.00,1.26
4556.00,1.26
4555.00,1.26
4554.00,1.26
4553.00,1.26
4552.00,1.26
4551.00,1.26
4550.00,1.26
4549.00,1.26
4548.00,1.26
4547.00,1.26
4546.00,1.26
4545.00,1.26
4544.00,1.26
4543.00,1.26
4542.00,1.26
4541.00,1.26
4540.00,1.26
4539.00,1.26
4538.00,1.26
4537.00,1.26
4536.00,1.27
4535.00,1.27
4534.00,1.27
4533.00,1.27
4532.00,1.27
4531.00,1.27
4530.00,1.27
4529.00,1.27
4528.00,1.27
4527.00,1.27
4526.00,1.27
4525.00,1.28
4524.00,1.28
4523.00,1.28
4522.00,1.28
4521.00,1.28
4520.00,1.28
4519.00,1.28
4518.00,1.28
4517.00,1.28
4516.00,1.28
4515.00,1.28
4514.00,1.28
4513.00,1.27
4512.00,1.27
4511.00,1.27
4510.00,1.27
4509.00,1.27
4508.00,1.27
4507.00,1.27
4506.00,1.27
4505.00,1.27
4504.00,1.27
4503.00,1.27
4502.00,1.27
4501.00,1.27
4500.00,1.27
4499.00,1.27
4498.00,1.27
4497.00,1.27
4496.00,1.27
4495.00,1.27
4494.00,1.27
4493.00,1.27
4492.00,1.27
4491.00,1.27
4490.00,1.27
4489.00,1.27
4488.00,1.27
4487.00,1.27
4486.00,1.27
4485.00,1.27
4484.00,1.27
4483.00,1.27
4482.00,1.27
4481.00,1.27
4480.00,1.27
4479.00,1.27
4478.00,1.27
4477.00,1.27
4476.00,1.27
4475.00,1.27
4474.00,1.27
4473.00,1.26
4472.00,1.26
4471.00,1.26
4470.00,1.26
4469.00,1.26
4468.00,1.26
4467.00,1.26
4466.00,1.26
4465.00,1.26
4464.00,1.25
4463.00,1.25
4462.00,1.25
4461.00,1.25
4460.00,1.25
4459.00,1.25
4458.00,1.24
4457.00,1.24
4456.00,1.24
4455.00,1.24
4454.00,1.24
4453.00,1.23
4452.00,1.23
4451.00,1.23
4450.00,1.23
4449.00,1.22
4448.00,1.22
4447.00,1.22
4446.00,1.22
4445.00,1.21
4444.00,1.21
4443.00,1.21
4442.00,1.21
4441.00,1.21
4440.00,1.20
4439.00,1.20
4438.00,1.20
4437.00,1.20
4436.00,1.20
4435.00,1.20
4434.00,1.19
4433.00,1.19
4432.00,1.19
4431.00,1.19
4430.00,1.19
4429.00,1.19
4428.00,1.19
4427.00,1.19
4426.00,1.19
4425.00,1.19
4424.00,1.20
4423.00,1.20
4422.00,1.20
4421.00,1.20
4420.00,1.20
4419.00,1.20
4418.00,1.20
4417.00,1.20
4416.00,1.20
4415.00,1.20
4414.00,1.20
4413.00,1.20
4412.00,1.20
4411.00,1.20
4410.00,1.20
4409.00,1.20
4408.00,1.20
4407.00,1.20
4406.00,1.20
4405.00,1.20
4404.00,1.20
4403.00,1.20
4402.00,1.20
4401.00,1.20
4400.00,1.20
4399.00,1.20
4398.00,1.20
4397.00,1.20
4396.00,1.20
4395.00,1.20
4394.00,1.20
4393.00,1.20
4392.00,1.20
4391.00,1.20
4390.00,1.20
4389.00,1.20
4388.00,1.20
4387.00,1.20
4386.00,1.21
4385.00,1.21
4384.00,1.21
4383.00,1.21
4382.00,1.21
4381.00,1.21
4380.00,1.21
4379.00,1.21
4378.00,1.21
4377.00,1.22
4376.00,1.22
4375.00,1.22
4374.00,1.22
4373.00,1.22
4372.00,1.22
4371.00,1.22
4370.00,1.23
4369.00,1.23
4368.00,1.23
4367.00,1.23
4366.00,1.23
4365.00,1.23
4364.00,1.23
4363.00,1.23
4362.00,1.23
4361.00,1.23
4360.00,1.23
4359.00,1.23
4358.00,1.23
4357.00,1.23
4356.00,1.23
4355.00,1.23
4354.00,1.23
4353.00,1.23
4352.00,1.23
4351.00,1.23
4350.00,1.23
4349.00,1.23
4348.00,1.23
4347.00,1.23
4346.00,1.23
4345.00,1.23
4344.00,1.23
4343.00,1.23
4342.00,1.23
4341.00,1.23
4340.00,1.23
4339.00,1.23
4338.00,1.23
4337.00,1.24
4336.00,1.24
4335.00,1.24
4334.00,1.24
4333.00,1.24
4332.00,1.24
4331.00,1.24
4330.00,1.24
4329.00,1.24
4328.00,1.24
4327.00,1.25
4326.00,1.25
4325.00,1.25
4324.00,1.25
4323.00,1.25
4322.00,1.25
4321.00,1.25
4320.00,1.25
4319.00,1.25
4318.00,1.26
4317.00,1.26
4316.00,1.26
4315.00,1.26
4314.00,1.26
4313.00,1.26
4312.00,1.26
4311.00,1.27
4310.00,1.27
4309.00,1.27
4308.00,1.27
4307.00,1.27
4306.00,1.27
4305.00,1.27
4304.00,1.27
4303.00,1.27
4302.00,1.27
4301.00,1.27
4300.00,1.27
4299.00,1.27
4298.00,1.27
4297.00,1.27
4296.00,1.27
4295.00,1.27
4294.00,1.27
4293.00,1.27
4292.00,1.27
4291.00,1.27
4290.00,1.27
4289.00,1.27
4288.00,1.27
4287.00,1.27
4286.00,1.27
4285.00,1.27
4284.00,1.27
4283.00,1.27
4282.00,1.27
4281.00,1.27
4280.00,1.27
4279.00,1.27
4278.00,1.27
4277.00,1.27
4276.00,1.27
4275.00,1.27
4274.00,1.27
4273.00,1.28
4272.00,1.28
4271.00,1.28
4270.00,1.28
4269.00,1.28
4268.00,1.28
4267.00,1.28
4266.00,1.28
4265.00,1.28
4264.00,1.29
4263.00,1.29
4262.00,1.29
4261.00,1.29
4260.00,1.29
4259.00,1.29
4258.00,1.29
4257.00,1.29
4256.00,1.29
4255.00,1.29
4254.00,1.29
4253.00,1.29
4252.00,1.29
4251.00,1.29
4250.00,1.29
4249.00,1.29
4248.00,1.29
4247.00,1.29
4246.00,1.29
4245.00,1.29
4244.00,1.29
4243.00,1.29
4242.00,1.30
4241.00,1.30
4240.00,1.30
4239.00,1.30
4238.00,1.30
4237.00,1.30
4236.00,1.30
4235.00,1.30
4234.00,1.30
4233.00,1.30
4232.00,1.31
4231.00,1.31
4230.00,1.31
4229.00,1.31
4228.00,1.31
4227.00,1.31
4226.00,1.31
4225.00,1.31
4224.00,1.31
4223.00,1.31
4222.00,1.31
4221.00,1.31
4220.00,1.31
4219.00,1.31
4218.00,1.31
4217.00,1.32
4216.00,1.32
4215.00,1.32
4214.00,1.32
4213.00,1.32
4212.00,1.32
4211.00,1.32
4210.00,1.33
4209.00,1.33
4208.00,1.33
4207.00,1.33
4206.00,1.33
4205.00,1.33
4204.00,1.33
4203.00,1.33
4202.00,1.33
4201.00,1.33
4200.00,1.34
4199.00,1.34
4198.00,1.34
4197.00,1.34
4196.00,1.34
4195.00,1.34
4194.00,1.34
4193.00,1.34
4192.00,1.34
4191.00,1.34
4190.00,1.34
4189.00,1.34
4188.00,1.34
4187.00,1.34
4186.00,1.33
4185.00,1.33
4184.00,1.33
4183.00,1.33
4182.00,1.33
4181.00,1.33
4180.00,1.33
4179.00,1.33
4178.00,1.33
4177.00,1.33
4176.00,1.33
4175.00,1.33
4174.00,1.33
4173.00,1.33
4172.00,1.33
4171.00,1.33
4170.00,1.33
4169.00,1.33
4168.00,1.33
4167.00,1.34
4166.00,1.34
4165.00,1.34
4164.00,1.34
4163.00,1.34
4162.00,1.34
4161.00,1.34
4160.00,1.34
4159.00,1.35
4158.00,1.35
4157.00,1.35
4156.00,1.35
4155.00,1.35
4154.00,1.35
4153.00,1.35
4152.00,1.35
4151.00,1.35
4150.00,1.35
4149.00,1.35
4148.00,1.35
4147.00,1.35
4146.00,1.35
4145.00,1.36
4144.00,1.36
4143.00,1.36
4142.00,1.36
4141.00,1.36
4140.00,1.36
4139.00,1.36
4138.00,1.36
4137.00,1.36
4136.00,1.36
4135.00,1.36
4134.00,1.36
4133.00,1.36
4132.00,1.36
4131.00,1.36
4130.00,1.36
4129.00,1.36
4128.00,1.36
4127.00,1.36
4126.00,1.35
4125.00,1.35
4124.00,1.35
4123.00,1.35
4122.00,1.35
4121.00,1.35
4120.00,1.35
4119.00,1.35
4118.00,1.36
4117.00,1.36
4116.00,1.36
4115.00,1.36
4114.00,1.36
4113.00,1.36
4112.00,1.36
4111.00,1.36
4110.00,1.36
4109.00,1.37
4108.00,1.37
4107.00,1.37
4106.00,1.37
4105.00,1.37
4104.00,1.37
4103.00,1.37
4102.00,1.37
4101.00,1.37
4100.00,1.37
4099.00,1.37
4098.00,1.37
4097.00,1.38
4096.00,1.38
4095.00,1.38
4094.00,1.38
4093.00,1.38
4092.00,1.38
4091.00,1.38
4090.00,1.38
4089.00,1.39
4088.00,1.39
4087.00,1.39
4086.00,1.39
4085.00,1.39
4084.00,1.39
4083.00,1.39
4082.00,1.39
4081.00,1.39
4080.00,1.39
4079.00,1.39
4078.00,1.39
4077.00,1.39
4076.00,1.39
4075.00,1.38
4074.00,1.38
4073.00,1.38
4072.00,1.38
4071.00,1.38
4070.00,1.38
4069.00,1.38
4068.00,1.38
4067.00,1.38
4066.00,1.38
4065.00,1.39
4064.00,1.39
4063.00,1.39
4062.00,1.39
4061.00,1.39
4060.00,1.39
4059.00,1.40
4058.00,1.40
4057.00,1.40
4056.00,1.40
4055.00,1.40
4054.00,1.40
4053.00,1.40
4052.00,1.40
4051.00,1.40
4050.00,1.40
4049.00,1.40
4048.00,1.40
4047.00,1.40
4046.00,1.40
4045.00,1.40
4044.00,1.40
4043.00,1.40
4042.00,1.40
4041.00,1.40
4040.00,1.40
4039.00,1.39
4038.00,1.39
4037.00,1.39
4036.00,1.39
4035.00,1.39
4034.00,1.39
4033.00,1.39
4032.00,1.39
4031.00,1.39
4030.00,1.39
4029.00,1.40
4028.00,1.40
4027.00,1.40
4026.00,1.40
4025.00,1.40
4024.00,1.40
4023.00,1.40
4022.00,1.40
4021.00,1.40
4020.00,1.40
4019.00,1.40
4018.00,1.41
4017.00,1.41
4016.00,1.41
4015.00,1.41
4014.00,1.41
4013.00,1.41
4012.00,1.41
4011.00,1.41
4010.00,1.42
4009.00,1.42
4008.00,1.42
4007.00,1.42
4006.00,1.42
4005.00,1.42
4004.00,1.43
4003.00,1.43
4002.00,1.43
4001.00,1.43
4000.00,1.43
