创建为新数据集,样品 670 用户 Administrator 日期 星期四, 七月 19 2018
cm-1,%T
10000.00,1.53
9999.00,1.52
9998.00,1.52
9997.00,1.52
9996.00,1.52
9995.00,1.52
9994.00,1.52
9993.00,1.51
9992.00,1.51
9991.00,1.51
9990.00,1.51
9989.00,1.52
9988.00,1.52
9987.00,1.52
9986.00,1.52
9985.00,1.52
9984.00,1.52
9983.00,1.52
9982.00,1.52
9981.00,1.52
9980.00,1.52
9979.00,1.52
9978.00,1.52
9977.00,1.52
9976.00,1.52
9975.00,1.52
9974.00,1.52
9973.00,1.52
9972.00,1.52
9971.00,1.52
9970.00,1.52
9969.00,1.52
9968.00,1.51
9967.00,1.51
9966.00,1.51
9965.00,1.51
9964.00,1.51
9963.00,1.51
9962.00,1.51
9961.00,1.51
9960.00,1.52
9959.00,1.52
9958.00,1.52
9957.00,1.52
9956.00,1.52
9955.00,1.52
9954.00,1.52
9953.00,1.52
9952.00,1.52
9951.00,1.52
9950.00,1.52
9949.00,1.52
9948.00,1.52
9947.00,1.52
9946.00,1.52
9945.00,1.52
9944.00,1.52
9943.00,1.52
9942.00,1.52
9941.00,1.52
9940.00,1.52
9939.00,1.52
9938.00,1.52
9937.00,1.52
9936.00,1.52
9935.00,1.52
9934.00,1.52
9933.00,1.52
9932.00,1.52
9931.00,1.52
9930.00,1.52
9929.00,1.52
9928.00,1.52
9927.00,1.52
9926.00,1.52
9925.00,1.52
9924.00,1.52
9923.00,1.52
9922.00,1.52
9921.00,1.52
9920.00,1.52
9919.00,1.52
9918.00,1.52
9917.00,1.52
9916.00,1.52
9915.00,1.52
9914.00,1.51
9913.00,1.51
9912.00,1.51
9911.00,1.51
9910.00,1.51
9909.00,1.51
9908.00,1.51
9907.00,1.51
9906.00,1.51
9905.00,1.51
9904.00,1.51
9903.00,1.51
9902.00,1.51
9901.00,1.51
9900.00,1.51
9899.00,1.51
9898.00,1.51
9897.00,1.51
9896.00,1.51
9895.00,1.51
9894.00,1.51
9893.00,1.51
9892.00,1.51
9891.00,1.51
9890.00,1.51
9889.00,1.50
9888.00,1.50
9887.00,1.50
9886.00,1.50
9885.00,1.50
9884.00,1.50
9883.00,1.50
9882.00,1.49
9881.00,1.49
9880.00,1.49
9879.00,1.49
9878.00,1.49
9877.00,1.49
9876.00,1.49
9875.00,1.49
9874.00,1.49
9873.00,1.49
9872.00,1.49
9871.00,1.49
9870.00,1.49
9869.00,1.50
9868.00,1.50
9867.00,1.50
9866.00,1.50
9865.00,1.51
9864.00,1.51
9863.00,1.51
9862.00,1.51
9861.00,1.52
9860.00,1.52
9859.00,1.52
9858.00,1.52
9857.00,1.52
9856.00,1.52
9855.00,1.52
9854.00,1.52
9853.00,1.52
9852.00,1.52
9851.00,1.52
9850.00,1.52
9849.00,1.51
9848.00,1.51
9847.00,1.51
9846.00,1.51
9845.00,1.51
9844.00,1.51
9843.00,1.50
9842.00,1.50
9841.00,1.50
9840.00,1.50
9839.00,1.50
9838.00,1.50
9837.00,1.50
9836.00,1.50
9835.00,1.50
9834.00,1.50
9833.00,1.50
9832.00,1.50
9831.00,1.50
9830.00,1.50
9829.00,1.50
9828.00,1.50
9827.00,1.50
9826.00,1.51
9825.00,1.51
9824.00,1.51
9823.00,1.51
9822.00,1.51
9821.00,1.51
9820.00,1.51
9819.00,1.51
9818.00,1.51
9817.00,1.51
9816.00,1.51
9815.00,1.51
9814.00,1.50
9813.00,1.50
9812.00,1.50
9811.00,1.49
9810.00,1.49
9809.00,1.49
9808.00,1.48
9807.00,1.48
9806.00,1.48
9805.00,1.47
9804.00,1.47
9803.00,1.47
9802.00,1.47
9801.00,1.47
9800.00,1.47
9799.00,1.47
9798.00,1.47
9797.00,1.47
9796.00,1.47
9795.00,1.48
9794.00,1.48
9793.00,1.48
9792.00,1.48
9791.00,1.48
9790.00,1.49
9789.00,1.49
9788.00,1.49
9787.00,1.49
9786.00,1.49
9785.00,1.49
9784.00,1.50
9783.00,1.50
9782.00,1.50
9781.00,1.50
9780.00,1.50
9779.00,1.50
9778.00,1.50
9777.00,1.50
9776.00,1.50
9775.00,1.50
9774.00,1.50
9773.00,1.50
9772.00,1.50
9771.00,1.50
9770.00,1.50
9769.00,1.50
9768.00,1.50
9767.00,1.51
9766.00,1.51
9765.00,1.51
9764.00,1.51
9763.00,1.51
9762.00,1.51
9761.00,1.50
9760.00,1.50
9759.00,1.50
9758.00,1.50
9757.00,1.50
9756.00,1.50
9755.00,1.50
9754.00,1.50
9753.00,1.50
9752.00,1.50
9751.00,1.50
9750.00,1.50
9749.00,1.50
9748.00,1.50
9747.00,1.50
9746.00,1.50
9745.00,1.50
9744.00,1.50
9743.00,1.50
9742.00,1.50
9741.00,1.50
9740.00,1.50
9739.00,1.51
9738.00,1.51
9737.00,1.51
9736.00,1.51
9735.00,1.51
9734.00,1.51
9733.00,1.51
9732.00,1.51
9731.00,1.51
9730.00,1.51
9729.00,1.51
9728.00,1.51
9727.00,1.51
9726.00,1.51
9725.00,1.51
9724.00,1.51
9723.00,1.51
9722.00,1.51
9721.00,1.51
9720.00,1.51
9719.00,1.51
9718.00,1.51
9717.00,1.51
9716.00,1.51
9715.00,1.51
9714.00,1.51
9713.00,1.51
9712.00,1.51
9711.00,1.51
9710.00,1.51
9709.00,1.51
9708.00,1.51
9707.00,1.51
9706.00,1.51
9705.00,1.51
9704.00,1.51
9703.00,1.51
9702.00,1.51
9701.00,1.50
9700.00,1.50
9699.00,1.50
9698.00,1.50
9697.00,1.50
9696.00,1.50
9695.00,1.50
9694.00,1.50
9693.00,1.50
9692.00,1.50
9691.00,1.50
9690.00,1.50
9689.00,1.50
9688.00,1.50
9687.00,1.50
9686.00,1.50
9685.00,1.50
9684.00,1.50
9683.00,1.50
9682.00,1.50
9681.00,1.50
9680.00,1.50
9679.00,1.50
9678.00,1.50
9677.00,1.50
9676.00,1.50
9675.00,1.51
9674.00,1.51
9673.00,1.51
9672.00,1.51
9671.00,1.51
9670.00,1.51
9669.00,1.51
9668.00,1.51
9667.00,1.51
9666.00,1.51
9665.00,1.51
9664.00,1.51
9663.00,1.51
9662.00,1.51
9661.00,1.51
9660.00,1.51
9659.00,1.51
9658.00,1.51
9657.00,1.51
9656.00,1.51
9655.00,1.51
9654.00,1.51
9653.00,1.51
9652.00,1.51
9651.00,1.51
9650.00,1.51
9649.00,1.51
9648.00,1.52
9647.00,1.52
9646.00,1.52
9645.00,1.52
9644.00,1.52
9643.00,1.52
9642.00,1.52
9641.00,1.52
9640.00,1.52
9639.00,1.51
9638.00,1.51
9637.00,1.51
9636.00,1.51
9635.00,1.51
9634.00,1.51
9633.00,1.51
9632.00,1.51
9631.00,1.51
9630.00,1.50
9629.00,1.50
9628.00,1.50
9627.00,1.50
9626.00,1.50
9625.00,1.50
9624.00,1.50
9623.00,1.50
9622.00,1.50
9621.00,1.50
9620.00,1.51
9619.00,1.51
9618.00,1.51
9617.00,1.51
9616.00,1.51
9615.00,1.52
9614.00,1.52
9613.00,1.52
9612.00,1.52
9611.00,1.52
9610.00,1.52
9609.00,1.52
9608.00,1.52
9607.00,1.52
9606.00,1.52
9605.00,1.52
9604.00,1.52
9603.00,1.52
9602.00,1.52
9601.00,1.51
9600.00,1.51
9599.00,1.51
9598.00,1.51
9597.00,1.51
9596.00,1.51
9595.00,1.51
9594.00,1.50
9593.00,1.50
9592.00,1.50
9591.00,1.50
9590.00,1.50
9589.00,1.50
9588.00,1.50
9587.00,1.50
9586.00,1.50
9585.00,1.51
9584.00,1.51
9583.00,1.51
9582.00,1.51
9581.00,1.51
9580.00,1.51
9579.00,1.51
9578.00,1.51
9577.00,1.51
9576.00,1.51
9575.00,1.51
9574.00,1.51
9573.00,1.51
9572.00,1.51
9571.00,1.51
9570.00,1.51
9569.00,1.51
9568.00,1.51
9567.00,1.51
9566.00,1.51
9565.00,1.51
9564.00,1.51
9563.00,1.51
9562.00,1.51
9561.00,1.50
9560.00,1.50
9559.00,1.50
9558.00,1.50
9557.00,1.50
9556.00,1.50
9555.00,1.50
9554.00,1.49
9553.00,1.49
9552.00,1.49
9551.00,1.49
9550.00,1.49
9549.00,1.49
9548.00,1.49
9547.00,1.49
9546.00,1.49
9545.00,1.49
9544.00,1.49
9543.00,1.49
9542.00,1.49
9541.00,1.49
9540.00,1.49
9539.00,1.49
9538.00,1.49
9537.00,1.49
9536.00,1.49
9535.00,1.49
9534.00,1.49
9533.00,1.49
9532.00,1.49
9531.00,1.49
9530.00,1.49
9529.00,1.49
9528.00,1.49
9527.00,1.49
9526.00,1.49
9525.00,1.49
9524.00,1.49
9523.00,1.49
9522.00,1.49
9521.00,1.49
9520.00,1.50
9519.00,1.50
9518.00,1.50
9517.00,1.50
9516.00,1.50
9515.00,1.50
9514.00,1.50
9513.00,1.50
9512.00,1.50
9511.00,1.50
9510.00,1.50
9509.00,1.50
9508.00,1.50
9507.00,1.50
9506.00,1.50
9505.00,1.50
9504.00,1.50
9503.00,1.50
9502.00,1.50
9501.00,1.50
9500.00,1.50
9499.00,1.50
9498.00,1.50
9497.00,1.50
9496.00,1.50
9495.00,1.50
9494.00,1.50
9493.00,1.50
9492.00,1.50
9491.00,1.50
9490.00,1.50
9489.00,1.50
9488.00,1.50
9487.00,1.50
9486.00,1.50
9485.00,1.50
9484.00,1.50
9483.00,1.49
9482.00,1.49
9481.00,1.49
9480.00,1.49
9479.00,1.49
9478.00,1.49
9477.00,1.49
9476.00,1.49
9475.00,1.49
9474.00,1.49
9473.00,1.49
9472.00,1.49
9471.00,1.50
9470.00,1.50
9469.00,1.50
9468.00,1.50
9467.00,1.50
9466.00,1.50
9465.00,1.50
9464.00,1.50
9463.00,1.50
9462.00,1.50
9461.00,1.50
9460.00,1.50
9459.00,1.50
9458.00,1.49
9457.00,1.49
9456.00,1.49
9455.00,1.49
9454.00,1.49
9453.00,1.49
9452.00,1.49
9451.00,1.49
9450.00,1.49
9449.00,1.48
9448.00,1.48
9447.00,1.49
9446.00,1.49
9445.00,1.49
9444.00,1.49
9443.00,1.49
9442.00,1.49
9441.00,1.49
9440.00,1.50
9439.00,1.50
9438.00,1.50
9437.00,1.50
9436.00,1.50
9435.00,1.51
9434.00,1.51
9433.00,1.51
9432.00,1.51
9431.00,1.51
9430.00,1.51
9429.00,1.51
9428.00,1.51
9427.00,1.51
9426.00,1.51
9425.00,1.51
9424.00,1.51
9423.00,1.51
9422.00,1.51
9421.00,1.51
9420.00,1.50
9419.00,1.50
9418.00,1.50
9417.00,1.50
9416.00,1.50
9415.00,1.50
9414.00,1.50
9413.00,1.50
9412.00,1.50
9411.00,1.50
9410.00,1.50
9409.00,1.50
9408.00,1.50
9407.00,1.50
9406.00,1.50
9405.00,1.50
9404.00,1.50
9403.00,1.50
9402.00,1.50
9401.00,1.51
9400.00,1.51
9399.00,1.51
9398.00,1.51
9397.00,1.51
9396.00,1.51
9395.00,1.51
9394.00,1.51
9393.00,1.51
9392.00,1.51
9391.00,1.51
9390.00,1.51
9389.00,1.51
9388.00,1.52
9387.00,1.52
9386.00,1.52
9385.00,1.52
9384.00,1.52
9383.00,1.52
9382.00,1.52
9381.00,1.52
9380.00,1.52
9379.00,1.52
9378.00,1.52
9377.00,1.52
9376.00,1.52
9375.00,1.52
9374.00,1.52
9373.00,1.52
9372.00,1.52
9371.00,1.52
9370.00,1.52
9369.00,1.52
9368.00,1.52
9367.00,1.52
9366.00,1.52
9365.00,1.52
9364.00,1.52
9363.00,1.52
9362.00,1.52
9361.00,1.52
9360.00,1.52
9359.00,1.52
9358.00,1.52
9357.00,1.51
9356.00,1.51
9355.00,1.51
9354.00,1.51
9353.00,1.51
9352.00,1.50
9351.00,1.50
9350.00,1.50
9349.00,1.50
9348.00,1.49
9347.00,1.49
9346.00,1.49
9345.00,1.49
9344.00,1.48
9343.00,1.48
9342.00,1.48
9341.00,1.48
9340.00,1.48
9339.00,1.48
9338.00,1.48
9337.00,1.48
9336.00,1.49
9335.00,1.49
9334.00,1.49
9333.00,1.49
9332.00,1.50
9331.00,1.50
9330.00,1.50
9329.00,1.50
9328.00,1.51
9327.00,1.51
9326.00,1.51
9325.00,1.51
9324.00,1.51
9323.00,1.52
9322.00,1.52
9321.00,1.52
9320.00,1.52
9319.00,1.52
9318.00,1.52
9317.00,1.52
9316.00,1.51
9315.00,1.51
9314.00,1.51
9313.00,1.51
9312.00,1.51
9311.00,1.51
9310.00,1.51
9309.00,1.51
9308.00,1.51
9307.00,1.51
9306.00,1.51
9305.00,1.51
9304.00,1.51
9303.00,1.51
9302.00,1.51
9301.00,1.51
9300.00,1.51
9299.00,1.51
9298.00,1.51
9297.00,1.51
9296.00,1.51
9295.00,1.51
9294.00,1.51
9293.00,1.51
9292.00,1.51
9291.00,1.51
9290.00,1.51
9289.00,1.51
9288.00,1.51
9287.00,1.51
9286.00,1.51
9285.00,1.51
9284.00,1.51
9283.00,1.51
9282.00,1.51
9281.00,1.51
9280.00,1.51
9279.00,1.51
9278.00,1.51
9277.00,1.51
9276.00,1.51
9275.00,1.51
9274.00,1.51
9273.00,1.51
9272.00,1.51
9271.00,1.51
9270.00,1.51
9269.00,1.50
9268.00,1.50
9267.00,1.50
9266.00,1.50
9265.00,1.50
9264.00,1.50
9263.00,1.50
9262.00,1.50
9261.00,1.49
9260.00,1.49
9259.00,1.49
9258.00,1.49
9257.00,1.49
9256.00,1.49
9255.00,1.49
9254.00,1.49
9253.00,1.49
9252.00,1.49
9251.00,1.49
9250.00,1.49
9249.00,1.49
9248.00,1.49
9247.00,1.49
9246.00,1.49
9245.00,1.49
9244.00,1.49
9243.00,1.49
9242.00,1.49
9241.00,1.50
9240.00,1.50
9239.00,1.50
9238.00,1.50
9237.00,1.50
9236.00,1.50
9235.00,1.50
9234.00,1.50
9233.00,1.50
9232.00,1.50
9231.00,1.50
9230.00,1.50
9229.00,1.50
9228.00,1.50
9227.00,1.50
9226.00,1.50
9225.00,1.49
9224.00,1.49
9223.00,1.49
9222.00,1.49
9221.00,1.49
9220.00,1.49
9219.00,1.49
9218.00,1.49
9217.00,1.49
9216.00,1.49
9215.00,1.49
9214.00,1.49
9213.00,1.49
9212.00,1.49
9211.00,1.49
9210.00,1.49
9209.00,1.49
9208.00,1.49
9207.00,1.49
9206.00,1.49
9205.00,1.49
9204.00,1.49
9203.00,1.49
9202.00,1.49
9201.00,1.49
9200.00,1.49
9199.00,1.49
9198.00,1.49
9197.00,1.49
9196.00,1.49
9195.00,1.49
9194.00,1.49
9193.00,1.49
9192.00,1.49
9191.00,1.49
9190.00,1.49
9189.00,1.49
9188.00,1.49
9187.00,1.49
9186.00,1.49
9185.00,1.49
9184.00,1.49
9183.00,1.49
9182.00,1.50
9181.00,1.50
9180.00,1.50
9179.00,1.50
9178.00,1.50
9177.00,1.50
9176.00,1.51
9175.00,1.51
9174.00,1.51
9173.00,1.51
9172.00,1.51
9171.00,1.51
9170.00,1.51
9169.00,1.52
9168.00,1.52
9167.00,1.52
9166.00,1.52
9165.00,1.52
9164.00,1.52
9163.00,1.52
9162.00,1.52
9161.00,1.52
9160.00,1.52
9159.00,1.52
9158.00,1.51
9157.00,1.51
9156.00,1.51
9155.00,1.51
9154.00,1.51
9153.00,1.51
9152.00,1.51
9151.00,1.51
9150.00,1.51
9149.00,1.51
9148.00,1.51
9147.00,1.51
9146.00,1.50
9145.00,1.50
9144.00,1.50
9143.00,1.50
9142.00,1.50
9141.00,1.50
9140.00,1.50
9139.00,1.50
9138.00,1.50
9137.00,1.50
9136.00,1.50
9135.00,1.50
9134.00,1.50
9133.00,1.50
9132.00,1.50
9131.00,1.50
9130.00,1.50
9129.00,1.50
9128.00,1.50
9127.00,1.50
9126.00,1.50
9125.00,1.50
9124.00,1.50
9123.00,1.50
9122.00,1.50
9121.00,1.50
9120.00,1.50
9119.00,1.50
9118.00,1.50
9117.00,1.50
9116.00,1.50
9115.00,1.50
9114.00,1.50
9113.00,1.50
9112.00,1.50
9111.00,1.50
9110.00,1.50
9109.00,1.50
9108.00,1.50
9107.00,1.50
9106.00,1.50
9105.00,1.50
9104.00,1.50
9103.00,1.50
9102.00,1.50
9101.00,1.50
9100.00,1.50
9099.00,1.50
9098.00,1.50
9097.00,1.50
9096.00,1.50
9095.00,1.50
9094.00,1.50
9093.00,1.50
9092.00,1.50
9091.00,1.50
9090.00,1.50
9089.00,1.50
9088.00,1.50
9087.00,1.50
9086.00,1.50
9085.00,1.50
9084.00,1.50
9083.00,1.50
9082.00,1.50
9081.00,1.50
9080.00,1.50
9079.00,1.50
9078.00,1.50
9077.00,1.50
9076.00,1.50
9075.00,1.50
9074.00,1.50
9073.00,1.50
9072.00,1.50
9071.00,1.50
9070.00,1.50
9069.00,1.50
9068.00,1.50
9067.00,1.50
9066.00,1.50
9065.00,1.50
9064.00,1.50
9063.00,1.50
9062.00,1.50
9061.00,1.50
9060.00,1.50
9059.00,1.50
9058.00,1.50
9057.00,1.50
9056.00,1.50
9055.00,1.50
9054.00,1.50
9053.00,1.50
9052.00,1.50
9051.00,1.50
9050.00,1.50
9049.00,1.50
9048.00,1.50
9047.00,1.50
9046.00,1.50
9045.00,1.50
9044.00,1.50
9043.00,1.50
9042.00,1.50
9041.00,1.50
9040.00,1.50
9039.00,1.49
9038.00,1.49
9037.00,1.49
9036.00,1.49
9035.00,1.50
9034.00,1.50
9033.00,1.50
9032.00,1.50
9031.00,1.50
9030.00,1.50
9029.00,1.50
9028.00,1.50
9027.00,1.50
9026.00,1.50
9025.00,1.50
9024.00,1.51
9023.00,1.51
9022.00,1.51
9021.00,1.51
9020.00,1.51
9019.00,1.51
9018.00,1.52
9017.00,1.52
9016.00,1.52
9015.00,1.52
9014.00,1.52
9013.00,1.52
9012.00,1.52
9011.00,1.52
9010.00,1.52
9009.00,1.52
9008.00,1.52
9007.00,1.52
9006.00,1.52
9005.00,1.52
9004.00,1.52
9003.00,1.52
9002.00,1.52
9001.00,1.52
9000.00,1.52
8999.00,1.52
8998.00,1.52
8997.00,1.52
8996.00,1.52
8995.00,1.52
8994.00,1.52
8993.00,1.52
8992.00,1.52
8991.00,1.52
8990.00,1.52
8989.00,1.52
8988.00,1.52
8987.00,1.52
8986.00,1.52
8985.00,1.52
8984.00,1.52
8983.00,1.52
8982.00,1.52
8981.00,1.52
8980.00,1.52
8979.00,1.52
8978.00,1.52
8977.00,1.52
8976.00,1.52
8975.00,1.51
8974.00,1.51
8973.00,1.51
8972.00,1.51
8971.00,1.50
8970.00,1.50
8969.00,1.50
8968.00,1.50
8967.00,1.50
8966.00,1.49
8965.00,1.49
8964.00,1.49
8963.00,1.49
8962.00,1.49
8961.00,1.49
8960.00,1.49
8959.00,1.49
8958.00,1.49
8957.00,1.50
8956.00,1.50
8955.00,1.50
8954.00,1.50
8953.00,1.50
8952.00,1.50
8951.00,1.51
8950.00,1.51
8949.00,1.51
8948.00,1.51
8947.00,1.51
8946.00,1.51
8945.00,1.52
8944.00,1.52
8943.00,1.52
8942.00,1.52
8941.00,1.52
8940.00,1.52
8939.00,1.52
8938.00,1.52
8937.00,1.52
8936.00,1.52
8935.00,1.52
8934.00,1.52
8933.00,1.52
8932.00,1.52
8931.00,1.52
8930.00,1.52
8929.00,1.52
8928.00,1.52
8927.00,1.52
8926.00,1.52
8925.00,1.52
8924.00,1.52
8923.00,1.51
8922.00,1.51
8921.00,1.51
8920.00,1.51
8919.00,1.51
8918.00,1.51
8917.00,1.51
8916.00,1.51
8915.00,1.51
8914.00,1.51
8913.00,1.51
8912.00,1.51
8911.00,1.51
8910.00,1.50
8909.00,1.50
8908.00,1.50
8907.00,1.50
8906.00,1.50
8905.00,1.50
8904.00,1.50
8903.00,1.50
8902.00,1.50
8901.00,1.50
8900.00,1.50
8899.00,1.50
8898.00,1.50
8897.00,1.50
8896.00,1.50
8895.00,1.50
8894.00,1.50
8893.00,1.50
8892.00,1.50
8891.00,1.50
8890.00,1.50
8889.00,1.50
8888.00,1.50
8887.00,1.50
8886.00,1.50
8885.00,1.50
8884.00,1.50
8883.00,1.50
8882.00,1.50
8881.00,1.50
8880.00,1.50
8879.00,1.50
8878.00,1.50
8877.00,1.50
8876.00,1.50
8875.00,1.50
8874.00,1.50
8873.00,1.50
8872.00,1.50
8871.00,1.50
8870.00,1.50
8869.00,1.50
8868.00,1.50
8867.00,1.50
8866.00,1.50
8865.00,1.50
8864.00,1.50
8863.00,1.50
8862.00,1.50
8861.00,1.49
8860.00,1.49
8859.00,1.49
8858.00,1.49
8857.00,1.49
8856.00,1.49
8855.00,1.49
8854.00,1.49
8853.00,1.49
8852.00,1.49
8851.00,1.49
8850.00,1.49
8849.00,1.49
8848.00,1.49
8847.00,1.49
8846.00,1.49
8845.00,1.49
8844.00,1.49
8843.00,1.49
8842.00,1.49
8841.00,1.50
8840.00,1.50
8839.00,1.50
8838.00,1.50
8837.00,1.50
8836.00,1.50
8835.00,1.50
8834.00,1.50
8833.00,1.50
8832.00,1.50
8831.00,1.50
8830.00,1.50
8829.00,1.50
8828.00,1.50
8827.00,1.50
8826.00,1.49
8825.00,1.49
8824.00,1.49
8823.00,1.49
8822.00,1.49
8821.00,1.49
8820.00,1.49
8819.00,1.49
8818.00,1.49
8817.00,1.49
8816.00,1.49
8815.00,1.49
8814.00,1.49
8813.00,1.49
8812.00,1.49
8811.00,1.49
8810.00,1.49
8809.00,1.49
8808.00,1.49
8807.00,1.49
8806.00,1.49
8805.00,1.49
8804.00,1.49
8803.00,1.49
8802.00,1.49
8801.00,1.49
8800.00,1.49
8799.00,1.49
8798.00,1.49
8797.00,1.49
8796.00,1.48
8795.00,1.48
8794.00,1.48
8793.00,1.48
8792.00,1.48
8791.00,1.48
8790.00,1.48
8789.00,1.48
8788.00,1.48
8787.00,1.48
8786.00,1.48
8785.00,1.47
8784.00,1.47
8783.00,1.47
8782.00,1.47
8781.00,1.47
8780.00,1.47
8779.00,1.47
8778.00,1.47
8777.00,1.47
8776.00,1.47
8775.00,1.47
8774.00,1.47
8773.00,1.47
8772.00,1.47
8771.00,1.47
8770.00,1.47
8769.00,1.47
8768.00,1.47
8767.00,1.47
8766.00,1.46
8765.00,1.46
8764.00,1.46
8763.00,1.46
8762.00,1.46
8761.00,1.46
8760.00,1.46
8759.00,1.46
8758.00,1.46
8757.00,1.46
8756.00,1.46
8755.00,1.46
8754.00,1.46
8753.00,1.46
8752.00,1.46
8751.00,1.46
8750.00,1.46
8749.00,1.46
8748.00,1.46
8747.00,1.46
8746.00,1.46
8745.00,1.46
8744.00,1.46
8743.00,1.47
8742.00,1.47
8741.00,1.47
8740.00,1.47
8739.00,1.47
8738.00,1.47
8737.00,1.47
8736.00,1.47
8735.00,1.47
8734.00,1.47
8733.00,1.47
8732.00,1.47
8731.00,1.47
8730.00,1.47
8729.00,1.47
8728.00,1.46
8727.00,1.46
8726.00,1.46
8725.00,1.46
8724.00,1.46
8723.00,1.46
8722.00,1.45
8721.00,1.45
8720.00,1.45
8719.00,1.45
8718.00,1.45
8717.00,1.45
8716.00,1.44
8715.00,1.44
8714.00,1.44
8713.00,1.44
8712.00,1.44
8711.00,1.44
8710.00,1.44
8709.00,1.44
8708.00,1.44
8707.00,1.44
8706.00,1.44
8705.00,1.44
8704.00,1.44
8703.00,1.44
8702.00,1.44
8701.00,1.44
8700.00,1.44
8699.00,1.44
8698.00,1.44
8697.00,1.44
8696.00,1.44
8695.00,1.44
8694.00,1.44
8693.00,1.43
8692.00,1.43
8691.00,1.43
8690.00,1.43
8689.00,1.43
8688.00,1.43
8687.00,1.43
8686.00,1.42
8685.00,1.42
8684.00,1.42
8683.00,1.42
8682.00,1.42
8681.00,1.42
8680.00,1.42
8679.00,1.42
8678.00,1.42
8677.00,1.43
8676.00,1.43
8675.00,1.43
8674.00,1.43
8673.00,1.43
8672.00,1.43
8671.00,1.43
8670.00,1.44
8669.00,1.44
8668.00,1.44
8667.00,1.44
8666.00,1.44
8665.00,1.44
8664.00,1.44
8663.00,1.44
8662.00,1.44
8661.00,1.44
8660.00,1.44
8659.00,1.44
8658.00,1.44
8657.00,1.44
8656.00,1.44
8655.00,1.44
8654.00,1.44
8653.00,1.44
8652.00,1.44
8651.00,1.44
8650.00,1.45
8649.00,1.45
8648.00,1.45
8647.00,1.45
8646.00,1.45
8645.00,1.45
8644.00,1.44
8643.00,1.44
8642.00,1.44
8641.00,1.44
8640.00,1.44
8639.00,1.44
8638.00,1.44
8637.00,1.44
8636.00,1.44
8635.00,1.44
8634.00,1.44
8633.00,1.43
8632.00,1.43
8631.00,1.43
8630.00,1.43
8629.00,1.43
8628.00,1.44
8627.00,1.44
8626.00,1.44
8625.00,1.44
8624.00,1.44
8623.00,1.44
8622.00,1.44
8621.00,1.44
8620.00,1.44
8619.00,1.44
8618.00,1.44
8617.00,1.43
8616.00,1.43
8615.00,1.43
8614.00,1.43
8613.00,1.43
8612.00,1.43
8611.00,1.43
8610.00,1.43
8609.00,1.42
8608.00,1.42
8607.00,1.42
8606.00,1.42
8605.00,1.42
8604.00,1.42
8603.00,1.42
8602.00,1.42
8601.00,1.42
8600.00,1.42
8599.00,1.42
8598.00,1.42
8597.00,1.42
8596.00,1.42
8595.00,1.43
8594.00,1.43
8593.00,1.43
8592.00,1.43
8591.00,1.43
8590.00,1.43
8589.00,1.43
8588.00,1.43
8587.00,1.43
8586.00,1.43
8585.00,1.43
8584.00,1.43
8583.00,1.43
8582.00,1.43
8581.00,1.43
8580.00,1.43
8579.00,1.43
8578.00,1.43
8577.00,1.43
8576.00,1.43
8575.00,1.43
8574.00,1.43
8573.00,1.43
8572.00,1.43
8571.00,1.43
8570.00,1.42
8569.00,1.42
8568.00,1.42
8567.00,1.42
8566.00,1.42
8565.00,1.41
8564.00,1.41
8563.00,1.41
8562.00,1.41
8561.00,1.41
8560.00,1.41
8559.00,1.41
8558.00,1.41
8557.00,1.41
8556.00,1.41
8555.00,1.41
8554.00,1.41
8553.00,1.41
8552.00,1.41
8551.00,1.41
8550.00,1.41
8549.00,1.41
8548.00,1.41
8547.00,1.41
8546.00,1.41
8545.00,1.41
8544.00,1.41
8543.00,1.41
8542.00,1.41
8541.00,1.41
8540.00,1.41
8539.00,1.41
8538.00,1.41
8537.00,1.41
8536.00,1.41
8535.00,1.41
8534.00,1.41
8533.00,1.41
8532.00,1.40
8531.00,1.40
8530.00,1.40
8529.00,1.40
8528.00,1.40
8527.00,1.40
8526.00,1.40
8525.00,1.39
8524.00,1.39
8523.00,1.39
8522.00,1.39
8521.00,1.39
8520.00,1.39
8519.00,1.39
8518.00,1.39
8517.00,1.39
8516.00,1.39
8515.00,1.39
8514.00,1.39
8513.00,1.39
8512.00,1.39
8511.00,1.39
8510.00,1.38
8509.00,1.38
8508.00,1.38
8507.00,1.38
8506.00,1.38
8505.00,1.38
8504.00,1.38
8503.00,1.38
8502.00,1.38
8501.00,1.37
8500.00,1.37
8499.00,1.37
8498.00,1.37
8497.00,1.37
8496.00,1.37
8495.00,1.37
8494.00,1.37
8493.00,1.37
8492.00,1.37
8491.00,1.37
8490.00,1.37
8489.00,1.37
8488.00,1.37
8487.00,1.37
8486.00,1.37
8485.00,1.37
8484.00,1.37
8483.00,1.37
8482.00,1.37
8481.00,1.37
8480.00,1.37
8479.00,1.37
8478.00,1.37
8477.00,1.37
8476.00,1.37
8475.00,1.37
8474.00,1.37
8473.00,1.36
8472.00,1.36
8471.00,1.36
8470.00,1.36
8469.00,1.36
8468.00,1.36
8467.00,1.36
8466.00,1.36
8465.00,1.35
8464.00,1.35
8463.00,1.35
8462.00,1.35
8461.00,1.35
8460.00,1.35
8459.00,1.35
8458.00,1.35
8457.00,1.35
8456.00,1.34
8455.00,1.34
8454.00,1.34
8453.00,1.34
8452.00,1.34
8451.00,1.34
8450.00,1.34
8449.00,1.34
8448.00,1.34
8447.00,1.34
8446.00,1.34
8445.00,1.33
8444.00,1.33
8443.00,1.33
8442.00,1.34
8441.00,1.34
8440.00,1.34
8439.00,1.34
8438.00,1.34
8437.00,1.34
8436.00,1.34
8435.00,1.34
8434.00,1.34
8433.00,1.34
8432.00,1.35
8431.00,1.35
8430.00,1.35
8429.00,1.35
8428.00,1.35
8427.00,1.35
8426.00,1.35
8425.00,1.35
8424.00,1.35
8423.00,1.35
8422.00,1.35
8421.00,1.36
8420.00,1.36
8419.00,1.36
8418.00,1.36
8417.00,1.36
8416.00,1.36
8415.00,1.36
8414.00,1.36
8413.00,1.36
8412.00,1.36
8411.00,1.36
8410.00,1.36
8409.00,1.36
8408.00,1.36
8407.00,1.36
8406.00,1.35
8405.00,1.35
8404.00,1.35
8403.00,1.35
8402.00,1.35
8401.00,1.35
8400.00,1.35
8399.00,1.35
8398.00,1.35
8397.00,1.35
8396.00,1.35
8395.00,1.35
8394.00,1.35
8393.00,1.35
8392.00,1.35
8391.00,1.35
8390.00,1.35
8389.00,1.35
8388.00,1.36
8387.00,1.36
8386.00,1.36
8385.00,1.36
8384.00,1.36
8383.00,1.36
8382.00,1.36
8381.00,1.37
8380.00,1.37
8379.00,1.37
8378.00,1.37
8377.00,1.37
8376.00,1.37
8375.00,1.37
8374.00,1.37
8373.00,1.37
8372.00,1.37
8371.00,1.38
8370.00,1.38
8369.00,1.38
8368.00,1.38
8367.00,1.38
8366.00,1.38
8365.00,1.38
8364.00,1.38
8363.00,1.38
8362.00,1.38
8361.00,1.39
8360.00,1.39
8359.00,1.39
8358.00,1.39
8357.00,1.39
8356.00,1.39
8355.00,1.39
8354.00,1.39
8353.00,1.39
8352.00,1.39
8351.00,1.39
8350.00,1.39
8349.00,1.39
8348.00,1.40
8347.00,1.40
8346.00,1.40
8345.00,1.40
8344.00,1.40
8343.00,1.40
8342.00,1.40
8341.00,1.40
8340.00,1.40
8339.00,1.40
8338.00,1.40
8337.00,1.40
8336.00,1.40
8335.00,1.40
8334.00,1.40
8333.00,1.40
8332.00,1.40
8331.00,1.40
8330.00,1.40
8329.00,1.40
8328.00,1.40
8327.00,1.40
8326.00,1.40
8325.00,1.40
8324.00,1.40
8323.00,1.40
8322.00,1.40
8321.00,1.40
8320.00,1.40
8319.00,1.40
8318.00,1.40
8317.00,1.40
8316.00,1.40
8315.00,1.40
8314.00,1.40
8313.00,1.40
8312.00,1.40
8311.00,1.40
8310.00,1.40
8309.00,1.40
8308.00,1.40
8307.00,1.40
8306.00,1.40
8305.00,1.40
8304.00,1.39
8303.00,1.39
8302.00,1.39
8301.00,1.39
8300.00,1.39
8299.00,1.39
8298.00,1.39
8297.00,1.39
8296.00,1.39
8295.00,1.39
8294.00,1.39
8293.00,1.39
8292.00,1.38
8291.00,1.38
8290.00,1.38
8289.00,1.38
8288.00,1.38
8287.00,1.38
8286.00,1.38
8285.00,1.38
8284.00,1.38
8283.00,1.39
8282.00,1.39
8281.00,1.39
8280.00,1.39
8279.00,1.39
8278.00,1.39
8277.00,1.39
8276.00,1.39
8275.00,1.39
8274.00,1.39
8273.00,1.39
8272.00,1.40
8271.00,1.40
8270.00,1.40
8269.00,1.40
8268.00,1.40
8267.00,1.40
8266.00,1.40
8265.00,1.40
8264.00,1.41
8263.00,1.41
8262.00,1.41
8261.00,1.41
8260.00,1.41
8259.00,1.41
8258.00,1.41
8257.00,1.41
8256.00,1.41
8255.00,1.41
8254.00,1.41
8253.00,1.41
8252.00,1.41
8251.00,1.41
8250.00,1.41
8249.00,1.41
8248.00,1.41
8247.00,1.41
8246.00,1.41
8245.00,1.41
8244.00,1.41
8243.00,1.41
8242.00,1.41
8241.00,1.41
8240.00,1.41
8239.00,1.41
8238.00,1.41
8237.00,1.41
8236.00,1.41
8235.00,1.41
8234.00,1.41
8233.00,1.42
8232.00,1.42
8231.00,1.42
8230.00,1.42
8229.00,1.42
8228.00,1.42
8227.00,1.42
8226.00,1.42
8225.00,1.42
8224.00,1.42
8223.00,1.42
8222.00,1.43
8221.00,1.43
8220.00,1.43
8219.00,1.43
8218.00,1.43
8217.00,1.43
8216.00,1.43
8215.00,1.43
8214.00,1.43
8213.00,1.43
8212.00,1.42
8211.00,1.42
8210.00,1.42
8209.00,1.42
8208.00,1.42
8207.00,1.42
8206.00,1.42
8205.00,1.42
8204.00,1.42
8203.00,1.42
8202.00,1.42
8201.00,1.42
8200.00,1.42
8199.00,1.41
8198.00,1.41
8197.00,1.42
8196.00,1.42
8195.00,1.42
8194.00,1.42
8193.00,1.42
8192.00,1.42
8191.00,1.42
8190.00,1.42
8189.00,1.43
8188.00,1.43
8187.00,1.43
8186.00,1.43
8185.00,1.43
8184.00,1.44
8183.00,1.44
8182.00,1.44
8181.00,1.44
8180.00,1.44
8179.00,1.44
8178.00,1.44
8177.00,1.44
8176.00,1.44
8175.00,1.44
8174.00,1.44
8173.00,1.44
8172.00,1.44
8171.00,1.44
8170.00,1.44
8169.00,1.44
8168.00,1.44
8167.00,1.44
8166.00,1.44
8165.00,1.44
8164.00,1.44
8163.00,1.44
8162.00,1.44
8161.00,1.44
8160.00,1.44
8159.00,1.45
8158.00,1.45
8157.00,1.45
8156.00,1.45
8155.00,1.45
8154.00,1.45
8153.00,1.45
8152.00,1.45
8151.00,1.45
8150.00,1.45
8149.00,1.45
8148.00,1.45
8147.00,1.45
8146.00,1.45
8145.00,1.45
8144.00,1.45
8143.00,1.45
8142.00,1.45
8141.00,1.45
8140.00,1.45
8139.00,1.45
8138.00,1.45
8137.00,1.45
8136.00,1.45
8135.00,1.45
8134.00,1.45
8133.00,1.45
8132.00,1.45
8131.00,1.45
8130.00,1.45
8129.00,1.45
8128.00,1.45
8127.00,1.45
8126.00,1.45
8125.00,1.45
8124.00,1.45
8123.00,1.45
8122.00,1.45
8121.00,1.45
8120.00,1.45
8119.00,1.45
8118.00,1.45
8117.00,1.45
8116.00,1.45
8115.00,1.45
8114.00,1.45
8113.00,1.45
8112.00,1.45
8111.00,1.45
8110.00,1.45
8109.00,1.45
8108.00,1.45
8107.00,1.45
8106.00,1.45
8105.00,1.45
8104.00,1.45
8103.00,1.45
8102.00,1.45
8101.00,1.45
8100.00,1.46
8099.00,1.46
8098.00,1.46
8097.00,1.46
8096.00,1.46
8095.00,1.46
8094.00,1.46
8093.00,1.46
8092.00,1.46
8091.00,1.47
8090.00,1.47
8089.00,1.47
8088.00,1.47
8087.00,1.47
8086.00,1.47
8085.00,1.47
8084.00,1.47
8083.00,1.47
8082.00,1.47
8081.00,1.47
8080.00,1.47
8079.00,1.47
8078.00,1.47
8077.00,1.47
8076.00,1.47
8075.00,1.47
8074.00,1.47
8073.00,1.47
8072.00,1.46
8071.00,1.46
8070.00,1.46
8069.00,1.46
8068.00,1.46
8067.00,1.46
8066.00,1.46
8065.00,1.46
8064.00,1.46
8063.00,1.46
8062.00,1.46
8061.00,1.46
8060.00,1.46
8059.00,1.46
8058.00,1.46
8057.00,1.46
8056.00,1.46
8055.00,1.46
8054.00,1.46
8053.00,1.47
8052.00,1.47
8051.00,1.47
8050.00,1.47
8049.00,1.47
8048.00,1.47
8047.00,1.47
8046.00,1.47
8045.00,1.47
8044.00,1.47
8043.00,1.47
8042.00,1.47
8041.00,1.47
8040.00,1.48
8039.00,1.48
8038.00,1.48
8037.00,1.48
8036.00,1.48
8035.00,1.48
8034.00,1.48
8033.00,1.48
8032.00,1.48
8031.00,1.48
8030.00,1.48
8029.00,1.48
8028.00,1.48
8027.00,1.48
8026.00,1.48
8025.00,1.48
8024.00,1.48
8023.00,1.47
8022.00,1.47
8021.00,1.47
8020.00,1.47
8019.00,1.47
8018.00,1.47
8017.00,1.47
8016.00,1.47
8015.00,1.47
8014.00,1.47
8013.00,1.47
8012.00,1.47
8011.00,1.47
8010.00,1.47
8009.00,1.47
8008.00,1.47
8007.00,1.47
8006.00,1.48
8005.00,1.48
8004.00,1.48
8003.00,1.48
8002.00,1.48
8001.00,1.48
8000.00,1.48
7999.00,1.48
7998.00,1.48
7997.00,1.48
7996.00,1.48
7995.00,1.48
7994.00,1.48
7993.00,1.48
7992.00,1.48
7991.00,1.49
7990.00,1.49
7989.00,1.49
7988.00,1.49
7987.00,1.49
7986.00,1.49
7985.00,1.49
7984.00,1.49
7983.00,1.49
7982.00,1.49
7981.00,1.49
7980.00,1.49
7979.00,1.49
7978.00,1.49
7977.00,1.49
7976.00,1.49
7975.00,1.49
7974.00,1.49
7973.00,1.49
7972.00,1.49
7971.00,1.49
7970.00,1.49
7969.00,1.49
7968.00,1.49
7967.00,1.49
7966.00,1.49
7965.00,1.49
7964.00,1.49
7963.00,1.49
7962.00,1.48
7961.00,1.48
7960.00,1.48
7959.00,1.48
7958.00,1.48
7957.00,1.48
7956.00,1.48
7955.00,1.48
7954.00,1.48
7953.00,1.48
7952.00,1.48
7951.00,1.48
7950.00,1.48
7949.00,1.48
7948.00,1.48
7947.00,1.48
7946.00,1.48
7945.00,1.48
7944.00,1.48
7943.00,1.48
7942.00,1.48
7941.00,1.48
7940.00,1.48
7939.00,1.48
7938.00,1.48
7937.00,1.48
7936.00,1.48
7935.00,1.48
7934.00,1.48
7933.00,1.48
7932.00,1.49
7931.00,1.49
7930.00,1.49
7929.00,1.49
7928.00,1.49
7927.00,1.49
7926.00,1.49
7925.00,1.49
7924.00,1.49
7923.00,1.49
7922.00,1.49
7921.00,1.49
7920.00,1.49
7919.00,1.49
7918.00,1.49
7917.00,1.49
7916.00,1.49
7915.00,1.49
7914.00,1.49
7913.00,1.50
7912.00,1.50
7911.00,1.50
7910.00,1.50
7909.00,1.50
7908.00,1.50
7907.00,1.50
7906.00,1.50
7905.00,1.50
7904.00,1.50
7903.00,1.50
7902.00,1.50
7901.00,1.50
7900.00,1.50
7899.00,1.51
7898.00,1.51
7897.00,1.51
7896.00,1.51
7895.00,1.51
7894.00,1.51
7893.00,1.51
7892.00,1.51
7891.00,1.51
7890.00,1.51
7889.00,1.51
7888.00,1.50
7887.00,1.50
7886.00,1.50
7885.00,1.50
7884.00,1.50
7883.00,1.50
7882.00,1.50
7881.00,1.50
7880.00,1.50
7879.00,1.50
7878.00,1.50
7877.00,1.51
7876.00,1.51
7875.00,1.51
7874.00,1.51
7873.00,1.51
7872.00,1.51
7871.00,1.51
7870.00,1.51
7869.00,1.51
7868.00,1.51
7867.00,1.51
7866.00,1.51
7865.00,1.51
7864.00,1.51
7863.00,1.51
7862.00,1.51
7861.00,1.51
7860.00,1.51
7859.00,1.51
7858.00,1.51
7857.00,1.51
7856.00,1.51
7855.00,1.51
7854.00,1.51
7853.00,1.51
7852.00,1.51
7851.00,1.51
7850.00,1.51
7849.00,1.51
7848.00,1.51
7847.00,1.51
7846.00,1.51
7845.00,1.51
7844.00,1.51
7843.00,1.51
7842.00,1.51
7841.00,1.51
7840.00,1.51
7839.00,1.51
7838.00,1.51
7837.00,1.51
7836.00,1.51
7835.00,1.51
7834.00,1.51
7833.00,1.51
7832.00,1.51
7831.00,1.51
7830.00,1.51
7829.00,1.51
7828.00,1.51
7827.00,1.51
7826.00,1.51
7825.00,1.51
7824.00,1.51
7823.00,1.51
7822.00,1.51
7821.00,1.51
7820.00,1.51
7819.00,1.51
7818.00,1.51
7817.00,1.51
7816.00,1.51
7815.00,1.51
7814.00,1.51
7813.00,1.51
7812.00,1.51
7811.00,1.51
7810.00,1.51
7809.00,1.51
7808.00,1.51
7807.00,1.51
7806.00,1.51
7805.00,1.51
7804.00,1.51
7803.00,1.51
7802.00,1.51
7801.00,1.51
7800.00,1.51
7799.00,1.51
7798.00,1.51
7797.00,1.51
7796.00,1.51
7795.00,1.51
7794.00,1.51
7793.00,1.51
7792.00,1.51
7791.00,1.51
7790.00,1.51
7789.00,1.51
7788.00,1.51
7787.00,1.51
7786.00,1.51
7785.00,1.51
7784.00,1.51
7783.00,1.51
7782.00,1.51
7781.00,1.51
7780.00,1.51
7779.00,1.51
7778.00,1.51
7777.00,1.51
7776.00,1.51
7775.00,1.51
7774.00,1.51
7773.00,1.51
7772.00,1.51
7771.00,1.51
7770.00,1.51
7769.00,1.51
7768.00,1.51
7767.00,1.51
7766.00,1.51
7765.00,1.51
7764.00,1.51
7763.00,1.51
7762.00,1.51
7761.00,1.51
7760.00,1.51
7759.00,1.51
7758.00,1.51
7757.00,1.51
7756.00,1.51
7755.00,1.51
7754.00,1.51
7753.00,1.51
7752.00,1.51
7751.00,1.51
7750.00,1.51
7749.00,1.51
7748.00,1.51
7747.00,1.51
7746.00,1.52
7745.00,1.52
7744.00,1.52
7743.00,1.52
7742.00,1.52
7741.00,1.52
7740.00,1.52
7739.00,1.52
7738.00,1.52
7737.00,1.52
7736.00,1.52
7735.00,1.52
7734.00,1.52
7733.00,1.52
7732.00,1.52
7731.00,1.52
7730.00,1.52
7729.00,1.52
7728.00,1.52
7727.00,1.52
7726.00,1.52
7725.00,1.52
7724.00,1.52
7723.00,1.52
7722.00,1.52
7721.00,1.52
7720.00,1.52
7719.00,1.52
7718.00,1.52
7717.00,1.52
7716.00,1.52
7715.00,1.52
7714.00,1.52
7713.00,1.52
7712.00,1.52
7711.00,1.52
7710.00,1.52
7709.00,1.52
7708.00,1.52
7707.00,1.52
7706.00,1.52
7705.00,1.52
7704.00,1.52
7703.00,1.52
7702.00,1.52
7701.00,1.52
7700.00,1.52
7699.00,1.52
7698.00,1.52
7697.00,1.52
7696.00,1.52
7695.00,1.52
7694.00,1.51
7693.00,1.51
7692.00,1.51
7691.00,1.51
7690.00,1.51
7689.00,1.51
7688.00,1.51
7687.00,1.51
7686.00,1.51
7685.00,1.51
7684.00,1.52
7683.00,1.52
7682.00,1.52
7681.00,1.52
7680.00,1.52
7679.00,1.52
7678.00,1.52
7677.00,1.52
7676.00,1.51
7675.00,1.51
7674.00,1.51
7673.00,1.51
7672.00,1.51
7671.00,1.51
7670.00,1.51
7669.00,1.51
7668.00,1.51
7667.00,1.51
7666.00,1.51
7665.00,1.50
7664.00,1.50
7663.00,1.50
7662.00,1.50
7661.00,1.50
7660.00,1.50
7659.00,1.50
7658.00,1.51
7657.00,1.51
7656.00,1.51
7655.00,1.51
7654.00,1.51
7653.00,1.51
7652.00,1.51
7651.00,1.51
7650.00,1.51
7649.00,1.51
7648.00,1.52
7647.00,1.52
7646.00,1.52
7645.00,1.52
7644.00,1.52
7643.00,1.52
7642.00,1.52
7641.00,1.52
7640.00,1.52
7639.00,1.52
7638.00,1.52
7637.00,1.52
7636.00,1.52
7635.00,1.52
7634.00,1.52
7633.00,1.52
7632.00,1.52
7631.00,1.52
7630.00,1.52
7629.00,1.52
7628.00,1.52
7627.00,1.52
7626.00,1.52
7625.00,1.52
7624.00,1.52
7623.00,1.52
7622.00,1.52
7621.00,1.52
7620.00,1.51
7619.00,1.51
7618.00,1.51
7617.00,1.51
7616.00,1.51
7615.00,1.51
7614.00,1.51
7613.00,1.51
7612.00,1.51
7611.00,1.51
7610.00,1.51
7609.00,1.51
7608.00,1.51
7607.00,1.51
7606.00,1.51
7605.00,1.51
7604.00,1.51
7603.00,1.52
7602.00,1.52
7601.00,1.52
7600.00,1.52
7599.00,1.52
7598.00,1.52
7597.00,1.52
7596.00,1.52
7595.00,1.52
7594.00,1.52
7593.00,1.52
7592.00,1.52
7591.00,1.52
7590.00,1.52
7589.00,1.52
7588.00,1.52
7587.00,1.52
7586.00,1.52
7585.00,1.52
7584.00,1.52
7583.00,1.52
7582.00,1.52
7581.00,1.52
7580.00,1.52
7579.00,1.52
7578.00,1.52
7577.00,1.52
7576.00,1.52
7575.00,1.52
7574.00,1.52
7573.00,1.52
7572.00,1.52
7571.00,1.52
7570.00,1.52
7569.00,1.52
7568.00,1.52
7567.00,1.51
7566.00,1.51
7565.00,1.51
7564.00,1.51
7563.00,1.51
7562.00,1.51
7561.00,1.51
7560.00,1.51
7559.00,1.51
7558.00,1.51
7557.00,1.51
7556.00,1.51
7555.00,1.51
7554.00,1.51
7553.00,1.51
7552.00,1.51
7551.00,1.51
7550.00,1.51
7549.00,1.51
7548.00,1.51
7547.00,1.51
7546.00,1.51
7545.00,1.51
7544.00,1.51
7543.00,1.51
7542.00,1.51
7541.00,1.50
7540.00,1.50
7539.00,1.50
7538.00,1.50
7537.00,1.50
7536.00,1.50
7535.00,1.50
7534.00,1.50
7533.00,1.50
7532.00,1.50
7531.00,1.50
7530.00,1.50
7529.00,1.50
7528.00,1.50
7527.00,1.50
7526.00,1.50
7525.00,1.50
7524.00,1.50
7523.00,1.50
7522.00,1.50
7521.00,1.50
7520.00,1.50
7519.00,1.50
7518.00,1.50
7517.00,1.50
7516.00,1.50
7515.00,1.50
7514.00,1.50
7513.00,1.50
7512.00,1.50
7511.00,1.50
7510.00,1.50
7509.00,1.50
7508.00,1.50
7507.00,1.50
7506.00,1.50
7505.00,1.50
7504.00,1.50
7503.00,1.50
7502.00,1.50
7501.00,1.49
7500.00,1.49
7499.00,1.49
7498.00,1.49
7497.00,1.49
7496.00,1.49
7495.00,1.49
7494.00,1.49
7493.00,1.49
7492.00,1.49
7491.00,1.48
7490.00,1.48
7489.00,1.48
7488.00,1.48
7487.00,1.48
7486.00,1.48
7485.00,1.48
7484.00,1.48
7483.00,1.48
7482.00,1.48
7481.00,1.48
7480.00,1.48
7479.00,1.48
7478.00,1.48
7477.00,1.48
7476.00,1.48
7475.00,1.48
7474.00,1.48
7473.00,1.48
7472.00,1.48
7471.00,1.48
7470.00,1.48
7469.00,1.48
7468.00,1.48
7467.00,1.48
7466.00,1.47
7465.00,1.47
7464.00,1.47
7463.00,1.48
7462.00,1.48
7461.00,1.48
7460.00,1.48
7459.00,1.48
7458.00,1.48
7457.00,1.48
7456.00,1.48
7455.00,1.48
7454.00,1.48
7453.00,1.48
7452.00,1.48
7451.00,1.48
7450.00,1.48
7449.00,1.48
7448.00,1.48
7447.00,1.48
7446.00,1.47
7445.00,1.47
7444.00,1.47
7443.00,1.47
7442.00,1.47
7441.00,1.47
7440.00,1.47
7439.00,1.47
7438.00,1.47
7437.00,1.47
7436.00,1.47
7435.00,1.46
7434.00,1.46
7433.00,1.46
7432.00,1.46
7431.00,1.46
7430.00,1.46
7429.00,1.46
7428.00,1.46
7427.00,1.46
7426.00,1.46
7425.00,1.46
7424.00,1.46
7423.00,1.46
7422.00,1.46
7421.00,1.46
7420.00,1.45
7419.00,1.45
7418.00,1.45
7417.00,1.45
7416.00,1.45
7415.00,1.45
7414.00,1.45
7413.00,1.45
7412.00,1.45
7411.00,1.45
7410.00,1.45
7409.00,1.45
7408.00,1.45
7407.00,1.44
7406.00,1.44
7405.00,1.44
7404.00,1.44
7403.00,1.44
7402.00,1.44
7401.00,1.44
7400.00,1.44
7399.00,1.44
7398.00,1.43
7397.00,1.43
7396.00,1.43
7395.00,1.43
7394.00,1.43
7393.00,1.43
7392.00,1.43
7391.00,1.43
7390.00,1.43
7389.00,1.42
7388.00,1.42
7387.00,1.42
7386.00,1.42
7385.00,1.42
7384.00,1.42
7383.00,1.42
7382.00,1.42
7381.00,1.42
7380.00,1.42
7379.00,1.41
7378.00,1.41
7377.00,1.41
7376.00,1.41
7375.00,1.41
7374.00,1.41
7373.00,1.41
7372.00,1.41
7371.00,1.41
7370.00,1.41
7369.00,1.41
7368.00,1.41
7367.00,1.41
7366.00,1.41
7365.00,1.41
7364.00,1.41
7363.00,1.41
7362.00,1.41
7361.00,1.41
7360.00,1.41
7359.00,1.40
7358.00,1.40
7357.00,1.40
7356.00,1.40
7355.00,1.40
7354.00,1.40
7353.00,1.40
7352.00,1.40
7351.00,1.40
7350.00,1.40
7349.00,1.40
7348.00,1.40
7347.00,1.40
7346.00,1.40
7345.00,1.40
7344.00,1.40
7343.00,1.40
7342.00,1.40
7341.00,1.40
7340.00,1.40
7339.00,1.40
7338.00,1.40
7337.00,1.40
7336.00,1.40
7335.00,1.40
7334.00,1.40
7333.00,1.40
7332.00,1.40
7331.00,1.40
7330.00,1.40
7329.00,1.40
7328.00,1.40
7327.00,1.40
7326.00,1.40
7325.00,1.40
7324.00,1.40
7323.00,1.40
7322.00,1.40
7321.00,1.40
7320.00,1.40
7319.00,1.40
7318.00,1.39
7317.00,1.39
7316.00,1.39
7315.00,1.39
7314.00,1.39
7313.00,1.39
7312.00,1.39
7311.00,1.39
7310.00,1.39
7309.00,1.39
7308.00,1.39
7307.00,1.39
7306.00,1.38
7305.00,1.38
7304.00,1.38
7303.00,1.38
7302.00,1.38
7301.00,1.38
7300.00,1.38
7299.00,1.38
7298.00,1.37
7297.00,1.37
7296.00,1.37
7295.00,1.37
7294.00,1.37
7293.00,1.37
7292.00,1.37
7291.00,1.37
7290.00,1.37
7289.00,1.37
7288.00,1.37
7287.00,1.36
7286.00,1.36
7285.00,1.36
7284.00,1.36
7283.00,1.36
7282.00,1.36
7281.00,1.36
7280.00,1.36
7279.00,1.36
7278.00,1.36
7277.00,1.35
7276.00,1.35
7275.00,1.35
7274.00,1.35
7273.00,1.35
7272.00,1.35
7271.00,1.35
7270.00,1.35
7269.00,1.35
7268.00,1.34
7267.00,1.34
7266.00,1.34
7265.00,1.34
7264.00,1.34
7263.00,1.34
7262.00,1.34
7261.00,1.34
7260.00,1.33
7259.00,1.33
7258.00,1.33
7257.00,1.33
7256.00,1.33
7255.00,1.33
7254.00,1.32
7253.00,1.32
7252.00,1.32
7251.00,1.32
7250.00,1.32
7249.00,1.32
7248.00,1.31
7247.00,1.31
7246.00,1.31
7245.00,1.31
7244.00,1.30
7243.00,1.30
7242.00,1.30
7241.00,1.30
7240.00,1.29
7239.00,1.29
7238.00,1.29
7237.00,1.28
7236.00,1.28
7235.00,1.28
7234.00,1.27
7233.00,1.27
7232.00,1.27
7231.00,1.27
7230.00,1.26
7229.00,1.26
7228.00,1.26
7227.00,1.25
7226.00,1.25
7225.00,1.25
7224.00,1.24
7223.00,1.24
7222.00,1.24
7221.00,1.23
7220.00,1.23
7219.00,1.23
7218.00,1.22
7217.00,1.22
7216.00,1.22
7215.00,1.21
7214.00,1.21
7213.00,1.21
7212.00,1.20
7211.00,1.20
7210.00,1.19
7209.00,1.19
7208.00,1.19
7207.00,1.18
7206.00,1.18
7205.00,1.18
7204.00,1.17
7203.00,1.17
7202.00,1.16
7201.00,1.16
7200.00,1.16
7199.00,1.15
7198.00,1.15
7197.00,1.14
7196.00,1.14
7195.00,1.14
7194.00,1.13
7193.00,1.13
7192.00,1.13
7191.00,1.12
7190.00,1.12
7189.00,1.12
7188.00,1.12
7187.00,1.11
7186.00,1.11
7185.00,1.11
7184.00,1.10
7183.00,1.10
7182.00,1.10
7181.00,1.09
7180.00,1.09
7179.00,1.09
7178.00,1.09
7177.00,1.08
7176.00,1.08
7175.00,1.08
7174.00,1.08
7173.00,1.07
7172.00,1.07
7171.00,1.07
7170.00,1.07
7169.00,1.06
7168.00,1.06
7167.00,1.06
7166.00,1.06
7165.00,1.05
7164.00,1.05
7163.00,1.05
7162.00,1.05
7161.00,1.04
7160.00,1.04
7159.00,1.04
7158.00,1.04
7157.00,1.04
7156.00,1.03
7155.00,1.03
7154.00,1.03
7153.00,1.02
7152.00,1.02
7151.00,1.02
7150.00,1.02
7149.00,1.01
7148.00,1.01
7147.00,1.01
7146.00,1.00
7145.00,1.00
7144.00,1.00
7143.00,0.99
7142.00,0.99
7141.00,0.99
7140.00,0.99
7139.00,0.98
7138.00,0.98
7137.00,0.98
7136.00,0.97
7135.00,0.97
7134.00,0.97
7133.00,0.96
7132.00,0.96
7131.00,0.96
7130.00,0.96
7129.00,0.95
7128.00,0.95
7127.00,0.95
7126.00,0.94
7125.00,0.94
7124.00,0.94
7123.00,0.94
7122.00,0.93
7121.00,0.93
7120.00,0.93
7119.00,0.93
7118.00,0.92
7117.00,0.92
7116.00,0.92
7115.00,0.91
7114.00,0.91
7113.00,0.91
7112.00,0.91
7111.00,0.90
7110.00,0.90
7109.00,0.90
7108.00,0.90
7107.00,0.89
7106.00,0.89
7105.00,0.89
7104.00,0.89
7103.00,0.88
7102.00,0.88
7101.00,0.88
7100.00,0.88
7099.00,0.88
7098.00,0.88
7097.00,0.87
7096.00,0.87
7095.00,0.87
7094.00,0.87
7093.00,0.87
7092.00,0.86
7091.00,0.86
7090.00,0.86
7089.00,0.86
7088.00,0.86
7087.00,0.85
7086.00,0.85
7085.00,0.85
7084.00,0.85
7083.00,0.85
7082.00,0.84
7081.00,0.84
7080.00,0.84
7079.00,0.84
7078.00,0.83
7077.00,0.83
7076.00,0.83
7075.00,0.83
7074.00,0.83
7073.00,0.82
7072.00,0.82
7071.00,0.82
7070.00,0.82
7069.00,0.81
7068.00,0.81
7067.00,0.81
7066.00,0.81
7065.00,0.81
7064.00,0.80
7063.00,0.80
7062.00,0.80
7061.00,0.80
7060.00,0.80
7059.00,0.80
7058.00,0.79
7057.00,0.79
7056.00,0.79
7055.00,0.79
7054.00,0.79
7053.00,0.78
7052.00,0.78
7051.00,0.78
7050.00,0.78
7049.00,0.78
7048.00,0.78
7047.00,0.78
7046.00,0.78
7045.00,0.78
7044.00,0.78
7043.00,0.78
7042.00,0.78
7041.00,0.78
7040.00,0.78
7039.00,0.78
7038.00,0.78
7037.00,0.78
7036.00,0.78
7035.00,0.78
7034.00,0.78
7033.00,0.78
7032.00,0.78
7031.00,0.78
7030.00,0.77
7029.00,0.77
7028.00,0.77
7027.00,0.77
7026.00,0.77
7025.00,0.77
7024.00,0.77
7023.00,0.77
7022.00,0.76
7021.00,0.76
7020.00,0.76
7019.00,0.76
7018.00,0.76
7017.00,0.76
7016.00,0.76
7015.00,0.75
7014.00,0.75
7013.00,0.75
7012.00,0.75
7011.00,0.75
7010.00,0.75
7009.00,0.75
7008.00,0.74
7007.00,0.74
7006.00,0.74
7005.00,0.74
7004.00,0.74
7003.00,0.74
7002.00,0.74
7001.00,0.74
7000.00,0.74
6999.00,0.73
6998.00,0.73
6997.00,0.73
6996.00,0.73
6995.00,0.73
6994.00,0.73
6993.00,0.73
6992.00,0.73
6991.00,0.73
6990.00,0.73
6989.00,0.73
6988.00,0.73
6987.00,0.73
6986.00,0.73
6985.00,0.73
6984.00,0.73
6983.00,0.73
6982.00,0.72
6981.00,0.72
6980.00,0.72
6979.00,0.72
6978.00,0.72
6977.00,0.72
6976.00,0.72
6975.00,0.72
6974.00,0.72
6973.00,0.72
6972.00,0.72
6971.00,0.72
6970.00,0.72
6969.00,0.72
6968.00,0.72
6967.00,0.72
6966.00,0.72
6965.00,0.72
6964.00,0.72
6963.00,0.72
6962.00,0.72
6961.00,0.72
6960.00,0.72
6959.00,0.72
6958.00,0.72
6957.00,0.71
6956.00,0.71
6955.00,0.71
6954.00,0.71
6953.00,0.71
6952.00,0.71
6951.00,0.71
6950.00,0.71
6949.00,0.71
6948.00,0.71
6947.00,0.71
6946.00,0.71
6945.00,0.71
6944.00,0.71
6943.00,0.71
6942.00,0.71
6941.00,0.71
6940.00,0.71
6939.00,0.71
6938.00,0.71
6937.00,0.71
6936.00,0.71
6935.00,0.71
6934.00,0.71
6933.00,0.71
6932.00,0.71
6931.00,0.71
6930.00,0.71
6929.00,0.71
6928.00,0.71
6927.00,0.71
6926.00,0.71
6925.00,0.71
6924.00,0.71
6923.00,0.71
6922.00,0.71
6921.00,0.71
6920.00,0.71
6919.00,0.70
6918.00,0.70
6917.00,0.70
6916.00,0.70
6915.00,0.70
6914.00,0.70
6913.00,0.70
6912.00,0.70
6911.00,0.70
6910.00,0.70
6909.00,0.70
6908.00,0.70
6907.00,0.69
6906.00,0.69
6905.00,0.69
6904.00,0.69
6903.00,0.69
6902.00,0.69
6901.00,0.69
6900.00,0.69
6899.00,0.69
6898.00,0.69
6897.00,0.69
6896.00,0.69
6895.00,0.69
6894.00,0.70
6893.00,0.70
6892.00,0.70
6891.00,0.70
6890.00,0.70
6889.00,0.70
6888.00,0.70
6887.00,0.70
6886.00,0.70
6885.00,0.70
6884.00,0.70
6883.00,0.69
6882.00,0.69
6881.00,0.69
6880.00,0.69
6879.00,0.69
6878.00,0.69
6877.00,0.69
6876.00,0.69
6875.00,0.69
6874.00,0.69
6873.00,0.69
6872.00,0.69
6871.00,0.69
6870.00,0.69
6869.00,0.69
6868.00,0.69
6867.00,0.69
6866.00,0.69
6865.00,0.69
6864.00,0.69
6863.00,0.69
6862.00,0.69
6861.00,0.69
6860.00,0.69
6859.00,0.69
6858.00,0.69
6857.00,0.69
6856.00,0.69
6855.00,0.69
6854.00,0.69
6853.00,0.69
6852.00,0.69
6851.00,0.69
6850.00,0.69
6849.00,0.69
6848.00,0.69
6847.00,0.69
6846.00,0.69
6845.00,0.69
6844.00,0.69
6843.00,0.69
6842.00,0.69
6841.00,0.69
6840.00,0.69
6839.00,0.69
6838.00,0.69
6837.00,0.69
6836.00,0.69
6835.00,0.69
6834.00,0.69
6833.00,0.69
6832.00,0.70
6831.00,0.70
6830.00,0.70
6829.00,0.70
6828.00,0.70
6827.00,0.70
6826.00,0.70
6825.00,0.70
6824.00,0.70
6823.00,0.70
6822.00,0.70
6821.00,0.70
6820.00,0.70
6819.00,0.70
6818.00,0.70
6817.00,0.71
6816.00,0.71
6815.00,0.71
6814.00,0.71
6813.00,0.71
6812.00,0.71
6811.00,0.71
6810.00,0.71
6809.00,0.71
6808.00,0.71
6807.00,0.72
6806.00,0.72
6805.00,0.72
6804.00,0.72
6803.00,0.72
6802.00,0.72
6801.00,0.72
6800.00,0.72
6799.00,0.72
6798.00,0.72
6797.00,0.72
6796.00,0.72
6795.00,0.72
6794.00,0.72
6793.00,0.72
6792.00,0.72
6791.00,0.72
6790.00,0.72
6789.00,0.72
6788.00,0.72
6787.00,0.72
6786.00,0.72
6785.00,0.72
6784.00,0.72
6783.00,0.72
6782.00,0.72
6781.00,0.72
6780.00,0.72
6779.00,0.72
6778.00,0.72
6777.00,0.72
6776.00,0.72
6775.00,0.73
6774.00,0.73
6773.00,0.73
6772.00,0.73
6771.00,0.73
6770.00,0.73
6769.00,0.73
6768.00,0.73
6767.00,0.73
6766.00,0.73
6765.00,0.73
6764.00,0.73
6763.00,0.73
6762.00,0.74
6761.00,0.74
6760.00,0.74
6759.00,0.74
6758.00,0.74
6757.00,0.74
6756.00,0.74
6755.00,0.74
6754.00,0.74
6753.00,0.74
6752.00,0.74
6751.00,0.74
6750.00,0.74
6749.00,0.74
6748.00,0.74
6747.00,0.74
6746.00,0.74
6745.00,0.74
6744.00,0.75
6743.00,0.75
6742.00,0.75
6741.00,0.75
6740.00,0.75
6739.00,0.75
6738.00,0.75
6737.00,0.75
6736.00,0.76
6735.00,0.76
6734.00,0.76
6733.00,0.76
6732.00,0.76
6731.00,0.76
6730.00,0.76
6729.00,0.76
6728.00,0.76
6727.00,0.76
6726.00,0.76
6725.00,0.76
6724.00,0.77
6723.00,0.77
6722.00,0.77
6721.00,0.77
6720.00,0.77
6719.00,0.77
6718.00,0.77
6717.00,0.77
6716.00,0.77
6715.00,0.77
6714.00,0.77
6713.00,0.77
6712.00,0.77
6711.00,0.78
6710.00,0.78
6709.00,0.78
6708.00,0.78
6707.00,0.78
6706.00,0.78
6705.00,0.78
6704.00,0.78
6703.00,0.78
6702.00,0.79
6701.00,0.79
6700.00,0.79
6699.00,0.79
6698.00,0.79
6697.00,0.79
6696.00,0.79
6695.00,0.79
6694.00,0.79
6693.00,0.79
6692.00,0.80
6691.00,0.80
6690.00,0.80
6689.00,0.80
6688.00,0.80
6687.00,0.80
6686.00,0.80
6685.00,0.80
6684.00,0.80
6683.00,0.80
6682.00,0.80
6681.00,0.80
6680.00,0.81
6679.00,0.81
6678.00,0.81
6677.00,0.81
6676.00,0.81
6675.00,0.81
6674.00,0.81
6673.00,0.81
6672.00,0.82
6671.00,0.82
6670.00,0.82
6669.00,0.82
6668.00,0.82
6667.00,0.82
6666.00,0.82
6665.00,0.83
6664.00,0.83
6663.00,0.83
6662.00,0.83
6661.00,0.83
6660.00,0.83
6659.00,0.83
6658.00,0.83
6657.00,0.84
6656.00,0.84
6655.00,0.84
6654.00,0.84
6653.00,0.84
6652.00,0.84
6651.00,0.84
6650.00,0.84
6649.00,0.84
6648.00,0.84
6647.00,0.84
6646.00,0.84
6645.00,0.84
6644.00,0.85
6643.00,0.85
6642.00,0.85
6641.00,0.85
6640.00,0.85
6639.00,0.85
6638.00,0.85
6637.00,0.86
6636.00,0.86
6635.00,0.86
6634.00,0.86
6633.00,0.86
6632.00,0.86
6631.00,0.86
6630.00,0.87
6629.00,0.87
6628.00,0.87
6627.00,0.87
6626.00,0.87
6625.00,0.87
6624.00,0.87
6623.00,0.87
6622.00,0.87
6621.00,0.88
6620.00,0.88
6619.00,0.88
6618.00,0.88
6617.00,0.88
6616.00,0.88
6615.00,0.88
6614.00,0.88
6613.00,0.88
6612.00,0.88
6611.00,0.88
6610.00,0.88
6609.00,0.88
6608.00,0.89
6607.00,0.89
6606.00,0.89
6605.00,0.89
6604.00,0.89
6603.00,0.89
6602.00,0.89
6601.00,0.89
6600.00,0.89
6599.00,0.89
6598.00,0.90
6597.00,0.90
6596.00,0.90
6595.00,0.90
6594.00,0.90
6593.00,0.90
6592.00,0.90
6591.00,0.90
6590.00,0.90
6589.00,0.90
6588.00,0.91
6587.00,0.91
6586.00,0.91
6585.00,0.91
6584.00,0.91
6583.00,0.91
6582.00,0.91
6581.00,0.91
6580.00,0.91
6579.00,0.91
6578.00,0.91
6577.00,0.91
6576.00,0.92
6575.00,0.92
6574.00,0.92
6573.00,0.92
6572.00,0.92
6571.00,0.92
6570.00,0.92
6569.00,0.92
6568.00,0.92
6567.00,0.93
6566.00,0.93
6565.00,0.93
6564.00,0.93
6563.00,0.93
6562.00,0.93
6561.00,0.93
6560.00,0.93
6559.00,0.93
6558.00,0.93
6557.00,0.93
6556.00,0.93
6555.00,0.93
6554.00,0.93
6553.00,0.94
6552.00,0.94
6551.00,0.94
6550.00,0.94
6549.00,0.94
6548.00,0.94
6547.00,0.94
6546.00,0.94
6545.00,0.94
6544.00,0.94
6543.00,0.94
6542.00,0.95
6541.00,0.95
6540.00,0.95
6539.00,0.95
6538.00,0.95
6537.00,0.95
6536.00,0.95
6535.00,0.95
6534.00,0.95
6533.00,0.95
6532.00,0.95
6531.00,0.95
6530.00,0.95
6529.00,0.95
6528.00,0.96
6527.00,0.96
6526.00,0.96
6525.00,0.96
6524.00,0.96
6523.00,0.96
6522.00,0.96
6521.00,0.96
6520.00,0.96
6519.00,0.97
6518.00,0.97
6517.00,0.97
6516.00,0.97
6515.00,0.97
6514.00,0.97
6513.00,0.97
6512.00,0.97
6511.00,0.97
6510.00,0.98
6509.00,0.98
6508.00,0.98
6507.00,0.98
6506.00,0.98
6505.00,0.98
6504.00,0.98
6503.00,0.98
6502.00,0.98
6501.00,0.98
6500.00,0.98
6499.00,0.98
6498.00,0.98
6497.00,0.99
6496.00,0.99
6495.00,0.99
6494.00,0.99
6493.00,0.99
6492.00,0.99
6491.00,0.99
6490.00,0.99
6489.00,0.99
6488.00,0.99
6487.00,0.99
6486.00,0.99
6485.00,1.00
6484.00,1.00
6483.00,1.00
6482.00,1.00
6481.00,1.00
6480.00,1.00
6479.00,1.00
6478.00,1.00
6477.00,1.00
6476.00,1.00
6475.00,1.00
6474.00,1.00
6473.00,1.00
6472.00,1.00
6471.00,1.00
6470.00,1.00
6469.00,1.00
6468.00,1.00
6467.00,1.00
6466.00,1.00
6465.00,1.00
6464.00,1.00
6463.00,1.00
6462.00,1.00
6461.00,1.00
6460.00,1.00
6459.00,1.00
6458.00,1.00
6457.00,1.00
6456.00,1.01
6455.00,1.01
6454.00,1.01
6453.00,1.01
6452.00,1.01
6451.00,1.01
6450.00,1.01
6449.00,1.01
6448.00,1.01
6447.00,1.01
6446.00,1.01
6445.00,1.01
6444.00,1.01
6443.00,1.01
6442.00,1.01
6441.00,1.01
6440.00,1.02
6439.00,1.02
6438.00,1.02
6437.00,1.02
6436.00,1.02
6435.00,1.02
6434.00,1.02
6433.00,1.02
6432.00,1.02
6431.00,1.02
6430.00,1.02
6429.00,1.02
6428.00,1.02
6427.00,1.03
6426.00,1.03
6425.00,1.03
6424.00,1.03
6423.00,1.03
6422.00,1.03
6421.00,1.03
6420.00,1.04
6419.00,1.04
6418.00,1.04
6417.00,1.04
6416.00,1.04
6415.00,1.04
6414.00,1.04
6413.00,1.04
6412.00,1.04
6411.00,1.04
6410.00,1.04
6409.00,1.04
6408.00,1.04
6407.00,1.04
6406.00,1.04
6405.00,1.04
6404.00,1.04
6403.00,1.04
6402.00,1.04
6401.00,1.05
6400.00,1.05
6399.00,1.05
6398.00,1.05
6397.00,1.05
6396.00,1.05
6395.00,1.05
6394.00,1.05
6393.00,1.05
6392.00,1.05
6391.00,1.05
6390.00,1.05
6389.00,1.05
6388.00,1.05
6387.00,1.05
6386.00,1.05
6385.00,1.05
6384.00,1.05
6383.00,1.06
6382.00,1.06
6381.00,1.06
6380.00,1.06
6379.00,1.06
6378.00,1.06
6377.00,1.06
6376.00,1.06
6375.00,1.06
6374.00,1.06
6373.00,1.07
6372.00,1.07
6371.00,1.07
6370.00,1.07
6369.00,1.07
6368.00,1.07
6367.00,1.07
6366.00,1.07
6365.00,1.08
6364.00,1.08
6363.00,1.08
6362.00,1.08
6361.00,1.08
6360.00,1.08
6359.00,1.08
6358.00,1.08
6357.00,1.08
6356.00,1.08
6355.00,1.08
6354.00,1.08
6353.00,1.09
6352.00,1.09
6351.00,1.09
6350.00,1.09
6349.00,1.09
6348.00,1.09
6347.00,1.09
6346.00,1.09
6345.00,1.09
6344.00,1.09
6343.00,1.09
6342.00,1.09
6341.00,1.09
6340.00,1.09
6339.00,1.09
6338.00,1.09
6337.00,1.09
6336.00,1.09
6335.00,1.09
6334.00,1.09
6333.00,1.09
6332.00,1.09
6331.00,1.09
6330.00,1.09
6329.00,1.09
6328.00,1.10
6327.00,1.10
6326.00,1.10
6325.00,1.10
6324.00,1.10
6323.00,1.10
6322.00,1.10
6321.00,1.10
6320.00,1.11
6319.00,1.11
6318.00,1.11
6317.00,1.11
6316.00,1.11
6315.00,1.11
6314.00,1.11
6313.00,1.11
6312.00,1.12
6311.00,1.12
6310.00,1.12
6309.00,1.12
6308.00,1.12
6307.00,1.12
6306.00,1.12
6305.00,1.13
6304.00,1.13
6303.00,1.13
6302.00,1.13
6301.00,1.13
6300.00,1.13
6299.00,1.13
6298.00,1.13
6297.00,1.13
6296.00,1.13
6295.00,1.14
6294.00,1.14
6293.00,1.14
6292.00,1.14
6291.00,1.14
6290.00,1.14
6289.00,1.14
6288.00,1.14
6287.00,1.14
6286.00,1.15
6285.00,1.15
6284.00,1.15
6283.00,1.15
6282.00,1.15
6281.00,1.15
6280.00,1.16
6279.00,1.16
6278.00,1.16
6277.00,1.16
6276.00,1.16
6275.00,1.16
6274.00,1.16
6273.00,1.16
6272.00,1.17
6271.00,1.17
6270.00,1.17
6269.00,1.17
6268.00,1.17
6267.00,1.17
6266.00,1.17
6265.00,1.17
6264.00,1.17
6263.00,1.17
6262.00,1.17
6261.00,1.17
6260.00,1.18
6259.00,1.18
6258.00,1.18
6257.00,1.18
6256.00,1.18
6255.00,1.18
6254.00,1.18
6253.00,1.18
6252.00,1.19
6251.00,1.19
6250.00,1.19
6249.00,1.19
6248.00,1.19
6247.00,1.19
6246.00,1.20
6245.00,1.20
6244.00,1.20
6243.00,1.20
6242.00,1.20
6241.00,1.20
6240.00,1.20
6239.00,1.20
6238.00,1.21
6237.00,1.21
6236.00,1.21
6235.00,1.21
6234.00,1.21
6233.00,1.21
6232.00,1.21
6231.00,1.21
6230.00,1.21
6229.00,1.22
6228.00,1.22
6227.00,1.22
6226.00,1.22
6225.00,1.22
6224.00,1.22
6223.00,1.22
6222.00,1.22
6221.00,1.23
6220.00,1.23
6219.00,1.23
6218.00,1.23
6217.00,1.23
6216.00,1.23
6215.00,1.23
6214.00,1.23
6213.00,1.23
6212.00,1.24
6211.00,1.24
6210.00,1.24
6209.00,1.24
6208.00,1.24
6207.00,1.24
6206.00,1.24
6205.00,1.24
6204.00,1.24
6203.00,1.25
6202.00,1.25
6201.00,1.25
6200.00,1.25
6199.00,1.25
6198.00,1.25
6197.00,1.25
6196.00,1.25
6195.00,1.26
6194.00,1.26
6193.00,1.26
6192.00,1.26
6191.00,1.26
6190.00,1.26
6189.00,1.26
6188.00,1.26
6187.00,1.26
6186.00,1.27
6185.00,1.27
6184.00,1.27
6183.00,1.27
6182.00,1.27
6181.00,1.27
6180.00,1.28
6179.00,1.28
6178.00,1.28
6177.00,1.28
6176.00,1.28
6175.00,1.28
6174.00,1.28
6173.00,1.29
6172.00,1.29
6171.00,1.29
6170.00,1.29
6169.00,1.29
6168.00,1.29
6167.00,1.30
6166.00,1.30
6165.00,1.30
6164.00,1.30
6163.00,1.30
6162.00,1.31
6161.00,1.31
6160.00,1.31
6159.00,1.31
6158.00,1.31
6157.00,1.32
6156.00,1.32
6155.00,1.32
6154.00,1.32
6153.00,1.32
6152.00,1.32
6151.00,1.32
6150.00,1.33
6149.00,1.33
6148.00,1.33
6147.00,1.33
6146.00,1.33
6145.00,1.33
6144.00,1.33
6143.00,1.33
6142.00,1.34
6141.00,1.34
6140.00,1.34
6139.00,1.34
6138.00,1.34
6137.00,1.34
6136.00,1.34
6135.00,1.34
6134.00,1.35
6133.00,1.35
6132.00,1.35
6131.00,1.35
6130.00,1.35
6129.00,1.35
6128.00,1.35
6127.00,1.36
6126.00,1.36
6125.00,1.36
6124.00,1.36
6123.00,1.36
6122.00,1.37
6121.00,1.37
6120.00,1.37
6119.00,1.37
6118.00,1.37
6117.00,1.37
6116.00,1.38
6115.00,1.38
6114.00,1.38
6113.00,1.38
6112.00,1.38
6111.00,1.38
6110.00,1.38
6109.00,1.38
6108.00,1.39
6107.00,1.39
6106.00,1.39
6105.00,1.39
6104.00,1.39
6103.00,1.39
6102.00,1.39
6101.00,1.39
6100.00,1.39
6099.00,1.40
6098.00,1.40
6097.00,1.40
6096.00,1.40
6095.00,1.40
6094.00,1.40
6093.00,1.40
6092.00,1.40
6091.00,1.41
6090.00,1.41
6089.00,1.41
6088.00,1.41
6087.00,1.41
6086.00,1.41
6085.00,1.41
6084.00,1.41
6083.00,1.41
6082.00,1.41
6081.00,1.42
6080.00,1.42
6079.00,1.42
6078.00,1.42
6077.00,1.42
6076.00,1.42
6075.00,1.42
6074.00,1.42
6073.00,1.42
6072.00,1.42
6071.00,1.42
6070.00,1.42
6069.00,1.42
6068.00,1.42
6067.00,1.42
6066.00,1.42
6065.00,1.42
6064.00,1.42
6063.00,1.43
6062.00,1.43
6061.00,1.43
6060.00,1.43
6059.00,1.43
6058.00,1.43
6057.00,1.43
6056.00,1.44
6055.00,1.44
6054.00,1.44
6053.00,1.44
6052.00,1.44
6051.00,1.44
6050.00,1.44
6049.00,1.45
6048.00,1.45
6047.00,1.45
6046.00,1.45
6045.00,1.45
6044.00,1.45
6043.00,1.45
6042.00,1.45
6041.00,1.45
6040.00,1.45
6039.00,1.45
6038.00,1.45
6037.00,1.45
6036.00,1.45
6035.00,1.46
6034.00,1.46
6033.00,1.46
6032.00,1.46
6031.00,1.46
6030.00,1.46
6029.00,1.46
6028.00,1.46
6027.00,1.46
6026.00,1.46
6025.00,1.46
6024.00,1.46
6023.00,1.46
6022.00,1.46
6021.00,1.46
6020.00,1.46
6019.00,1.46
6018.00,1.46
6017.00,1.46
6016.00,1.46
6015.00,1.46
6014.00,1.46
6013.00,1.46
6012.00,1.46
6011.00,1.46
6010.00,1.46
6009.00,1.46
6008.00,1.46
6007.00,1.46
6006.00,1.46
6005.00,1.46
6004.00,1.46
6003.00,1.46
6002.00,1.46
6001.00,1.46
6000.00,1.46
5999.00,1.46
5998.00,1.46
5997.00,1.45
5996.00,1.45
5995.00,1.45
5994.00,1.45
5993.00,1.45
5992.00,1.45
5991.00,1.45
5990.00,1.44
5989.00,1.44
5988.00,1.44
5987.00,1.44
5986.00,1.44
5985.00,1.43
5984.00,1.43
5983.00,1.43
5982.00,1.43
5981.00,1.42
5980.00,1.42
5979.00,1.41
5978.00,1.41
5977.00,1.41
5976.00,1.40
5975.00,1.40
5974.00,1.39
5973.00,1.39
5972.00,1.38
5971.00,1.38
5970.00,1.37
5969.00,1.37
5968.00,1.36
5967.00,1.35
5966.00,1.35
5965.00,1.34
5964.00,1.33
5963.00,1.33
5962.00,1.32
5961.00,1.31
5960.00,1.30
5959.00,1.30
5958.00,1.29
5957.00,1.28
5956.00,1.28
5955.00,1.27
5954.00,1.26
5953.00,1.26
5952.00,1.25
5951.00,1.24
5950.00,1.24
5949.00,1.23
5948.00,1.23
5947.00,1.22
5946.00,1.22
5945.00,1.22
5944.00,1.21
5943.00,1.21
5942.00,1.21
5941.00,1.21
5940.00,1.20
5939.00,1.20
5938.00,1.20
5937.00,1.20
5936.00,1.20
5935.00,1.20
5934.00,1.20
5933.00,1.19
5932.00,1.19
5931.00,1.19
5930.00,1.19
5929.00,1.19
5928.00,1.19
5927.00,1.19
5926.00,1.19
5925.00,1.18
5924.00,1.18
5923.00,1.18
5922.00,1.18
5921.00,1.17
5920.00,1.17
5919.00,1.17
5918.00,1.17
5917.00,1.16
5916.00,1.16
5915.00,1.16
5914.00,1.16
5913.00,1.15
5912.00,1.15
5911.00,1.15
5910.00,1.15
5909.00,1.14
5908.00,1.14
5907.00,1.14
5906.00,1.14
5905.00,1.14
5904.00,1.14
5903.00,1.14
5902.00,1.14
5901.00,1.14
5900.00,1.14
5899.00,1.14
5898.00,1.14
5897.00,1.14
5896.00,1.14
5895.00,1.14
5894.00,1.15
5893.00,1.15
5892.00,1.15
5891.00,1.15
5890.00,1.15
5889.00,1.16
5888.00,1.16
5887.00,1.16
5886.00,1.16
5885.00,1.17
5884.00,1.17
5883.00,1.17
5882.00,1.18
5881.00,1.18
5880.00,1.18
5879.00,1.18
5878.00,1.19
5877.00,1.19
5876.00,1.19
5875.00,1.19
5874.00,1.20
5873.00,1.20
5872.00,1.20
5871.00,1.20
5870.00,1.21
5869.00,1.21
5868.00,1.21
5867.00,1.21
5866.00,1.21
5865.00,1.22
5864.00,1.22
5863.00,1.22
5862.00,1.22
5861.00,1.22
5860.00,1.23
5859.00,1.23
5858.00,1.23
5857.00,1.23
5856.00,1.23
5855.00,1.23
5854.00,1.24
5853.00,1.24
5852.00,1.24
5851.00,1.24
5850.00,1.24
5849.00,1.24
5848.00,1.24
5847.00,1.24
5846.00,1.24
5845.00,1.24
5844.00,1.24
5843.00,1.24
5842.00,1.24
5841.00,1.24
5840.00,1.24
5839.00,1.24
5838.00,1.24
5837.00,1.24
5836.00,1.24
5835.00,1.24
5834.00,1.24
5833.00,1.24
5832.00,1.24
5831.00,1.24
5830.00,1.24
5829.00,1.24
5828.00,1.24
5827.00,1.24
5826.00,1.24
5825.00,1.24
5824.00,1.24
5823.00,1.24
5822.00,1.24
5821.00,1.24
5820.00,1.24
5819.00,1.24
5818.00,1.24
5817.00,1.24
5816.00,1.24
5815.00,1.24
5814.00,1.24
5813.00,1.24
5812.00,1.24
5811.00,1.24
5810.00,1.23
5809.00,1.23
5808.00,1.23
5807.00,1.23
5806.00,1.23
5805.00,1.23
5804.00,1.23
5803.00,1.23
5802.00,1.23
5801.00,1.23
5800.00,1.23
5799.00,1.23
5798.00,1.23
5797.00,1.22
5796.00,1.22
5795.00,1.22
5794.00,1.22
5793.00,1.22
5792.00,1.22
5791.00,1.21
5790.00,1.21
5789.00,1.21
5788.00,1.21
5787.00,1.21
5786.00,1.20
5785.00,1.20
5784.00,1.20
5783.00,1.20
5782.00,1.20
5781.00,1.19
5780.00,1.19
5779.00,1.19
5778.00,1.19
5777.00,1.19
5776.00,1.19
5775.00,1.19
5774.00,1.19
5773.00,1.19
5772.00,1.19
5771.00,1.19
5770.00,1.19
5769.00,1.19
5768.00,1.19
5767.00,1.19
5766.00,1.19
5765.00,1.19
5764.00,1.19
5763.00,1.19
5762.00,1.19
5761.00,1.20
5760.00,1.20
5759.00,1.20
5758.00,1.20
5757.00,1.21
5756.00,1.21
5755.00,1.21
5754.00,1.22
5753.00,1.22
5752.00,1.22
5751.00,1.23
5750.00,1.23
5749.00,1.23
5748.00,1.24
5747.00,1.24
5746.00,1.24
5745.00,1.25
5744.00,1.25
5743.00,1.25
5742.00,1.26
5741.00,1.26
5740.00,1.26
5739.00,1.27
5738.00,1.27
5737.00,1.27
5736.00,1.27
5735.00,1.28
5734.00,1.28
5733.00,1.28
5732.00,1.28
5731.00,1.28
5730.00,1.28
5729.00,1.29
5728.00,1.29
5727.00,1.29
5726.00,1.29
5725.00,1.29
5724.00,1.29
5723.00,1.29
5722.00,1.29
5721.00,1.29
5720.00,1.29
5719.00,1.29
5718.00,1.29
5717.00,1.29
5716.00,1.29
5715.00,1.29
5714.00,1.29
5713.00,1.29
5712.00,1.29
5711.00,1.29
5710.00,1.29
5709.00,1.29
5708.00,1.29
5707.00,1.29
5706.00,1.29
5705.00,1.29
5704.00,1.28
5703.00,1.28
5702.00,1.28
5701.00,1.28
5700.00,1.28
5699.00,1.28
5698.00,1.28
5697.00,1.28
5696.00,1.27
5695.00,1.27
5694.00,1.27
5693.00,1.27
5692.00,1.27
5691.00,1.27
5690.00,1.27
5689.00,1.27
5688.00,1.26
5687.00,1.26
5686.00,1.26
5685.00,1.26
5684.00,1.26
5683.00,1.26
5682.00,1.26
5681.00,1.25
5680.00,1.25
5679.00,1.25
5678.00,1.25
5677.00,1.25
5676.00,1.25
5675.00,1.25
5674.00,1.25
5673.00,1.25
5672.00,1.25
5671.00,1.25
5670.00,1.25
5669.00,1.25
5668.00,1.25
5667.00,1.25
5666.00,1.26
5665.00,1.26
5664.00,1.26
5663.00,1.26
5662.00,1.26
5661.00,1.26
5660.00,1.26
5659.00,1.27
5658.00,1.27
5657.00,1.27
5656.00,1.27
5655.00,1.27
5654.00,1.27
5653.00,1.27
5652.00,1.28
5651.00,1.28
5650.00,1.28
5649.00,1.28
5648.00,1.28
5647.00,1.28
5646.00,1.29
5645.00,1.29
5644.00,1.29
5643.00,1.29
5642.00,1.29
5641.00,1.30
5640.00,1.30
5639.00,1.30
5638.00,1.30
5637.00,1.30
5636.00,1.31
5635.00,1.31
5634.00,1.31
5633.00,1.31
5632.00,1.31
5631.00,1.32
5630.00,1.32
5629.00,1.32
5628.00,1.32
5627.00,1.32
5626.00,1.32
5625.00,1.33
5624.00,1.33
5623.00,1.33
5622.00,1.33
5621.00,1.33
5620.00,1.33
5619.00,1.33
5618.00,1.33
5617.00,1.34
5616.00,1.34
5615.00,1.34
5614.00,1.34
5613.00,1.34
5612.00,1.34
5611.00,1.34
5610.00,1.35
5609.00,1.35
5608.00,1.35
5607.00,1.35
5606.00,1.35
5605.00,1.35
5604.00,1.36
5603.00,1.36
5602.00,1.36
5601.00,1.36
5600.00,1.36
5599.00,1.36
5598.00,1.36
5597.00,1.37
5596.00,1.37
5595.00,1.37
5594.00,1.37
5593.00,1.37
5592.00,1.37
5591.00,1.37
5590.00,1.37
5589.00,1.38
5588.00,1.38
5587.00,1.38
5586.00,1.38
5585.00,1.38
5584.00,1.38
5583.00,1.39
5582.00,1.39
5581.00,1.39
5580.00,1.39
5579.00,1.39
5578.00,1.39
5577.00,1.39
5576.00,1.39
5575.00,1.39
5574.00,1.40
5573.00,1.40
5572.00,1.40
5571.00,1.40
5570.00,1.40
5569.00,1.40
5568.00,1.40
5567.00,1.40
5566.00,1.41
5565.00,1.41
5564.00,1.41
5563.00,1.41
5562.00,1.41
5561.00,1.41
5560.00,1.41
5559.00,1.42
5558.00,1.42
5557.00,1.42
5556.00,1.42
5555.00,1.42
5554.00,1.42
5553.00,1.42
5552.00,1.43
5551.00,1.43
5550.00,1.43
5549.00,1.43
5548.00,1.43
5547.00,1.43
5546.00,1.43
5545.00,1.43
5544.00,1.44
5543.00,1.44
5542.00,1.44
5541.00,1.44
5540.00,1.44
5539.00,1.44
5538.00,1.44
5537.00,1.44
5536.00,1.44
5535.00,1.44
5534.00,1.45
5533.00,1.45
5532.00,1.45
5531.00,1.45
5530.00,1.45
5529.00,1.45
5528.00,1.45
5527.00,1.45
5526.00,1.45
5525.00,1.45
5524.00,1.46
5523.00,1.46
5522.00,1.46
5521.00,1.46
5520.00,1.46
5519.00,1.46
5518.00,1.46
5517.00,1.46
5516.00,1.46
5515.00,1.46
5514.00,1.46
5513.00,1.46
5512.00,1.46
5511.00,1.46
5510.00,1.46
5509.00,1.46
5508.00,1.46
5507.00,1.47
5506.00,1.47
5505.00,1.47
5504.00,1.47
5503.00,1.47
5502.00,1.47
5501.00,1.47
5500.00,1.47
5499.00,1.47
5498.00,1.47
5497.00,1.47
5496.00,1.47
5495.00,1.47
5494.00,1.47
5493.00,1.47
5492.00,1.47
5491.00,1.47
5490.00,1.47
5489.00,1.48
5488.00,1.48
5487.00,1.48
5486.00,1.48
5485.00,1.48
5484.00,1.48
5483.00,1.48
5482.00,1.48
5481.00,1.49
5480.00,1.49
5479.00,1.49
5478.00,1.49
5477.00,1.49
5476.00,1.49
5475.00,1.50
5474.00,1.50
5473.00,1.50
5472.00,1.50
5471.00,1.50
5470.00,1.50
5469.00,1.50
5468.00,1.50
5467.00,1.50
5466.00,1.50
5465.00,1.51
5464.00,1.51
5463.00,1.51
5462.00,1.51
5461.00,1.51
5460.00,1.51
5459.00,1.51
5458.00,1.51
5457.00,1.51
5456.00,1.51
5455.00,1.51
5454.00,1.51
5453.00,1.51
5452.00,1.52
5451.00,1.52
5450.00,1.52
5449.00,1.52
5448.00,1.52
5447.00,1.52
5446.00,1.52
5445.00,1.52
5444.00,1.52
5443.00,1.52
5442.00,1.52
5441.00,1.52
5440.00,1.52
5439.00,1.52
5438.00,1.52
5437.00,1.52
5436.00,1.52
5435.00,1.52
5434.00,1.52
5433.00,1.52
5432.00,1.52
5431.00,1.52
5430.00,1.52
5429.00,1.52
5428.00,1.52
5427.00,1.52
5426.00,1.52
5425.00,1.52
5424.00,1.52
5423.00,1.52
5422.00,1.52
5421.00,1.52
5420.00,1.52
5419.00,1.52
5418.00,1.52
5417.00,1.52
5416.00,1.52
5415.00,1.52
5414.00,1.52
5413.00,1.52
5412.00,1.52
5411.00,1.52
5410.00,1.52
5409.00,1.52
5408.00,1.52
5407.00,1.52
5406.00,1.52
5405.00,1.52
5404.00,1.52
5403.00,1.52
5402.00,1.52
5401.00,1.52
5400.00,1.52
5399.00,1.52
5398.00,1.52
5397.00,1.52
5396.00,1.52
5395.00,1.52
5394.00,1.52
5393.00,1.52
5392.00,1.52
5391.00,1.52
5390.00,1.52
5389.00,1.51
5388.00,1.51
5387.00,1.51
5386.00,1.51
5385.00,1.51
5384.00,1.50
5383.00,1.50
5382.00,1.50
5381.00,1.49
5380.00,1.49
5379.00,1.49
5378.00,1.48
5377.00,1.48
5376.00,1.48
5375.00,1.47
5374.00,1.47
5373.00,1.47
5372.00,1.46
5371.00,1.46
5370.00,1.45
5369.00,1.45
5368.00,1.44
5367.00,1.44
5366.00,1.43
5365.00,1.43
5364.00,1.42
5363.00,1.42
5362.00,1.41
5361.00,1.40
5360.00,1.40
5359.00,1.39
5358.00,1.38
5357.00,1.38
5356.00,1.37
5355.00,1.36
5354.00,1.35
5353.00,1.35
5352.00,1.34
5351.00,1.33
5350.00,1.32
5349.00,1.31
5348.00,1.30
5347.00,1.29
5346.00,1.28
5345.00,1.27
5344.00,1.26
5343.00,1.25
5342.00,1.24
5341.00,1.23
5340.00,1.22
5339.00,1.21
5338.00,1.20
5337.00,1.19
5336.00,1.18
5335.00,1.17
5334.00,1.16
5333.00,1.15
5332.00,1.14
5331.00,1.12
5330.00,1.11
5329.00,1.10
5328.00,1.09
5327.00,1.08
5326.00,1.07
5325.00,1.06
5324.00,1.05
5323.00,1.04
5322.00,1.02
5321.00,1.01
5320.00,1.00
5319.00,0.99
5318.00,0.98
5317.00,0.97
5316.00,0.96
5315.00,0.95
5314.00,0.94
5313.00,0.93
5312.00,0.92
5311.00,0.91
5310.00,0.90
5309.00,0.89
5308.00,0.88
5307.00,0.87
5306.00,0.86
5305.00,0.85
5304.00,0.84
5303.00,0.84
5302.00,0.83
5301.00,0.82
5300.00,0.81
5299.00,0.81
5298.00,0.80
5297.00,0.79
5296.00,0.79
5295.00,0.78
5294.00,0.78
5293.00,0.77
5292.00,0.77
5291.00,0.76
5290.00,0.76
5289.00,0.75
5288.00,0.75
5287.00,0.75
5286.00,0.74
5285.00,0.74
5284.00,0.74
5283.00,0.74
5282.00,0.73
5281.00,0.73
5280.00,0.73
5279.00,0.73
5278.00,0.72
5277.00,0.72
5276.00,0.72
5275.00,0.72
5274.00,0.72
5273.00,0.72
5272.00,0.71
5271.00,0.71
5270.00,0.71
5269.00,0.71
5268.00,0.71
5267.00,0.71
5266.00,0.71
5265.00,0.70
5264.00,0.70
5263.00,0.70
5262.00,0.70
5261.00,0.70
5260.00,0.70
5259.00,0.70
5258.00,0.70
5257.00,0.70
5256.00,0.69
5255.00,0.69
5254.00,0.69
5253.00,0.69
5252.00,0.69
5251.00,0.69
5250.00,0.69
5249.00,0.69
5248.00,0.69
5247.00,0.69
5246.00,0.69
5245.00,0.69
5244.00,0.69
5243.00,0.69
5242.00,0.69
5241.00,0.69
5240.00,0.69
5239.00,0.69
5238.00,0.69
5237.00,0.69
5236.00,0.69
5235.00,0.69
5234.00,0.69
5233.00,0.69
5232.00,0.69
5231.00,0.70
5230.00,0.70
5229.00,0.70
5228.00,0.70
5227.00,0.70
5226.00,0.70
5225.00,0.70
5224.00,0.70
5223.00,0.70
5222.00,0.70
5221.00,0.70
5220.00,0.70
5219.00,0.70
5218.00,0.71
5217.00,0.71
5216.00,0.71
5215.00,0.71
5214.00,0.71
5213.00,0.71
5212.00,0.71
5211.00,0.71
5210.00,0.71
5209.00,0.71
5208.00,0.71
5207.00,0.70
5206.00,0.70
5205.00,0.70
5204.00,0.70
5203.00,0.70
5202.00,0.70
5201.00,0.70
5200.00,0.70
5199.00,0.70
5198.00,0.70
5197.00,0.70
5196.00,0.70
5195.00,0.70
5194.00,0.70
5193.00,0.70
5192.00,0.70
5191.00,0.70
5190.00,0.71
5189.00,0.71
5188.00,0.71
5187.00,0.71
5186.00,0.71
5185.00,0.71
5184.00,0.71
5183.00,0.71
5182.00,0.71
5181.00,0.71
5180.00,0.71
5179.00,0.71
5178.00,0.71
5177.00,0.71
5176.00,0.72
5175.00,0.72
5174.00,0.72
5173.00,0.72
5172.00,0.72
5171.00,0.72
5170.00,0.72
5169.00,0.72
5168.00,0.72
5167.00,0.72
5166.00,0.72
5165.00,0.72
5164.00,0.72
5163.00,0.72
5162.00,0.72
5161.00,0.72
5160.00,0.72
5159.00,0.72
5158.00,0.72
5157.00,0.72
5156.00,0.73
5155.00,0.73
5154.00,0.73
5153.00,0.73
5152.00,0.73
5151.00,0.73
5150.00,0.73
5149.00,0.73
5148.00,0.73
5147.00,0.73
5146.00,0.73
5145.00,0.73
5144.00,0.73
5143.00,0.73
5142.00,0.73
5141.00,0.74
5140.00,0.74
5139.00,0.74
5138.00,0.74
5137.00,0.74
5136.00,0.74
5135.00,0.74
5134.00,0.74
5133.00,0.74
5132.00,0.74
5131.00,0.74
5130.00,0.74
5129.00,0.74
5128.00,0.74
5127.00,0.74
5126.00,0.74
5125.00,0.74
5124.00,0.74
5123.00,0.74
5122.00,0.74
5121.00,0.74
5120.00,0.74
5119.00,0.74
5118.00,0.74
5117.00,0.74
5116.00,0.75
5115.00,0.75
5114.00,0.75
5113.00,0.75
5112.00,0.75
5111.00,0.75
5110.00,0.75
5109.00,0.75
5108.00,0.75
5107.00,0.75
5106.00,0.75
5105.00,0.75
5104.00,0.75
5103.00,0.75
5102.00,0.76
5101.00,0.76
5100.00,0.76
5099.00,0.76
5098.00,0.76
5097.00,0.76
5096.00,0.76
5095.00,0.76
5094.00,0.76
5093.00,0.76
5092.00,0.76
5091.00,0.76
5090.00,0.77
5089.00,0.77
5088.00,0.77
5087.00,0.77
5086.00,0.77
5085.00,0.77
5084.00,0.77
5083.00,0.77
5082.00,0.78
5081.00,0.78
5080.00,0.78
5079.00,0.78
5078.00,0.78
5077.00,0.78
5076.00,0.78
5075.00,0.78
5074.00,0.78
5073.00,0.79
5072.00,0.79
5071.00,0.79
5070.00,0.79
5069.00,0.79
5068.00,0.79
5067.00,0.79
5066.00,0.79
5065.00,0.79
5064.00,0.79
5063.00,0.79
5062.00,0.79
5061.00,0.79
5060.00,0.80
5059.00,0.80
5058.00,0.80
5057.00,0.80
5056.00,0.80
5055.00,0.80
5054.00,0.80
5053.00,0.80
5052.00,0.80
5051.00,0.80
5050.00,0.80
5049.00,0.81
5048.00,0.81
5047.00,0.81
5046.00,0.81
5045.00,0.81
5044.00,0.81
5043.00,0.81
5042.00,0.81
5041.00,0.81
5040.00,0.82
5039.00,0.82
5038.00,0.82
5037.00,0.82
5036.00,0.82
5035.00,0.82
5034.00,0.82
5033.00,0.82
5032.00,0.82
5031.00,0.82
5030.00,0.82
5029.00,0.82
5028.00,0.83
5027.00,0.83
5026.00,0.83
5025.00,0.83
5024.00,0.83
5023.00,0.83
5022.00,0.83
5021.00,0.83
5020.00,0.84
5019.00,0.84
5018.00,0.84
5017.00,0.84
5016.00,0.84
5015.00,0.84
5014.00,0.84
5013.00,0.84
5012.00,0.85
5011.00,0.85
5010.00,0.85
5009.00,0.85
5008.00,0.85
5007.00,0.85
5006.00,0.85
5005.00,0.85
5004.00,0.86
5003.00,0.86
5002.00,0.86
5001.00,0.86
5000.00,0.86
4999.00,0.86
4998.00,0.86
4997.00,0.86
4996.00,0.87
4995.00,0.87
4994.00,0.87
4993.00,0.87
4992.00,0.87
4991.00,0.87
4990.00,0.88
4989.00,0.88
4988.00,0.88
4987.00,0.88
4986.00,0.88
4985.00,0.88
4984.00,0.88
4983.00,0.88
4982.00,0.89
4981.00,0.89
4980.00,0.89
4979.00,0.89
4978.00,0.89
4977.00,0.89
4976.00,0.89
4975.00,0.89
4974.00,0.89
4973.00,0.90
4972.00,0.90
4971.00,0.90
4970.00,0.90
4969.00,0.90
4968.00,0.90
4967.00,0.90
4966.00,0.90
4965.00,0.91
4964.00,0.91
4963.00,0.91
4962.00,0.91
4961.00,0.91
4960.00,0.91
4959.00,0.91
4958.00,0.92
4957.00,0.92
4956.00,0.92
4955.00,0.92
4954.00,0.92
4953.00,0.92
4952.00,0.92
4951.00,0.93
4950.00,0.93
4949.00,0.93
4948.00,0.93
4947.00,0.93
4946.00,0.93
4945.00,0.93
4944.00,0.93
4943.00,0.93
4942.00,0.94
4941.00,0.94
4940.00,0.94
4939.00,0.94
4938.00,0.94
4937.00,0.94
4936.00,0.94
4935.00,0.94
4934.00,0.94
4933.00,0.94
4932.00,0.94
4931.00,0.94
4930.00,0.94
4929.00,0.94
4928.00,0.94
4927.00,0.94
4926.00,0.95
4925.00,0.95
4924.00,0.95
4923.00,0.95
4922.00,0.95
4921.00,0.95
4920.00,0.95
4919.00,0.95
4918.00,0.95
4917.00,0.95
4916.00,0.96
4915.00,0.96
4914.00,0.96
4913.00,0.96
4912.00,0.96
4911.00,0.96
4910.00,0.96
4909.00,0.96
4908.00,0.96
4907.00,0.97
4906.00,0.97
4905.00,0.97
4904.00,0.97
4903.00,0.97
4902.00,0.97
4901.00,0.97
4900.00,0.97
4899.00,0.97
4898.00,0.97
4897.00,0.97
4896.00,0.97
4895.00,0.97
4894.00,0.97
4893.00,0.97
4892.00,0.97
4891.00,0.97
4890.00,0.97
4889.00,0.97
4888.00,0.98
4887.00,0.98
4886.00,0.98
4885.00,0.98
4884.00,0.98
4883.00,0.98
4882.00,0.98
4881.00,0.98
4880.00,0.98
4879.00,0.99
4878.00,0.99
4877.00,0.99
4876.00,0.99
4875.00,0.99
4874.00,0.99
4873.00,0.99
4872.00,0.99
4871.00,0.99
4870.00,0.99
4869.00,0.99
4868.00,0.99
4867.00,1.00
4866.00,1.00
4865.00,1.00
4864.00,1.00
4863.00,1.00
4862.00,1.00
4861.00,1.00
4860.00,1.00
4859.00,1.00
4858.00,1.00
4857.00,1.00
4856.00,1.00
4855.00,1.00
4854.00,1.00
4853.00,1.00
4852.00,1.00
4851.00,1.01
4850.00,1.01
4849.00,1.01
4848.00,1.01
4847.00,1.01
4846.00,1.01
4845.00,1.01
4844.00,1.02
4843.00,1.02
4842.00,1.02
4841.00,1.02
4840.00,1.02
4839.00,1.02
4838.00,1.02
4837.00,1.02
4836.00,1.03
4835.00,1.03
4834.00,1.03
4833.00,1.03
4832.00,1.03
4831.00,1.03
4830.00,1.03
4829.00,1.03
4828.00,1.03
4827.00,1.03
4826.00,1.03
4825.00,1.03
4824.00,1.03
4823.00,1.04
4822.00,1.04
4821.00,1.04
4820.00,1.04
4819.00,1.04
4818.00,1.04
4817.00,1.04
4816.00,1.04
4815.00,1.05
4814.00,1.05
4813.00,1.05
4812.00,1.05
4811.00,1.05
4810.00,1.05
4809.00,1.05
4808.00,1.05
4807.00,1.06
4806.00,1.06
4805.00,1.06
4804.00,1.06
4803.00,1.06
4802.00,1.06
4801.00,1.06
4800.00,1.06
4799.00,1.06
4798.00,1.07
4797.00,1.07
4796.00,1.07
4795.00,1.07
4794.00,1.07
4793.00,1.07
4792.00,1.07
4791.00,1.07
4790.00,1.08
4789.00,1.08
4788.00,1.08
4787.00,1.08
4786.00,1.08
4785.00,1.09
4784.00,1.09
4783.00,1.09
4782.00,1.09
4781.00,1.09
4780.00,1.10
4779.00,1.10
4778.00,1.10
4777.00,1.10
4776.00,1.10
4775.00,1.10
4774.00,1.11
4773.00,1.11
4772.00,1.11
4771.00,1.11
4770.00,1.11
4769.00,1.11
4768.00,1.11
4767.00,1.11
4766.00,1.11
4765.00,1.12
4764.00,1.12
4763.00,1.12
4762.00,1.12
4761.00,1.12
4760.00,1.13
4759.00,1.13
4758.00,1.13
4757.00,1.13
4756.00,1.14
4755.00,1.14
4754.00,1.14
4753.00,1.14
4752.00,1.15
4751.00,1.15
4750.00,1.15
4749.00,1.15
4748.00,1.16
4747.00,1.16
4746.00,1.16
4745.00,1.16
4744.00,1.17
4743.00,1.17
4742.00,1.17
4741.00,1.17
4740.00,1.18
4739.00,1.18
4738.00,1.18
4737.00,1.18
4736.00,1.18
4735.00,1.19
4734.00,1.19
4733.00,1.19
4732.00,1.19
4731.00,1.19
4730.00,1.19
4729.00,1.19
4728.00,1.20
4727.00,1.20
4726.00,1.20
4725.00,1.20
4724.00,1.20
4723.00,1.20
4722.00,1.20
4721.00,1.21
4720.00,1.21
4719.00,1.21
4718.00,1.21
4717.00,1.22
4716.00,1.22
4715.00,1.22
4714.00,1.23
4713.00,1.23
4712.00,1.23
4711.00,1.24
4710.00,1.24
4709.00,1.24
4708.00,1.24
4707.00,1.25
4706.00,1.25
4705.00,1.25
4704.00,1.25
4703.00,1.26
4702.00,1.26
4701.00,1.26
4700.00,1.26
4699.00,1.26
4698.00,1.27
4697.00,1.27
4696.00,1.27
4695.00,1.27
4694.00,1.27
4693.00,1.28
4692.00,1.28
4691.00,1.28
4690.00,1.28
4689.00,1.29
4688.00,1.29
4687.00,1.29
4686.00,1.29
4685.00,1.29
4684.00,1.30
4683.00,1.30
4682.00,1.30
4681.00,1.30
4680.00,1.31
4679.00,1.31
4678.00,1.31
4677.00,1.31
4676.00,1.32
4675.00,1.32
4674.00,1.32
4673.00,1.32
4672.00,1.33
4671.00,1.33
4670.00,1.33
4669.00,1.33
4668.00,1.34
4667.00,1.34
4666.00,1.34
4665.00,1.34
4664.00,1.35
4663.00,1.35
4662.00,1.35
4661.00,1.35
4660.00,1.35
4659.00,1.35
4658.00,1.35
4657.00,1.36
4656.00,1.36
4655.00,1.36
4654.00,1.36
4653.00,1.36
4652.00,1.36
4651.00,1.36
4650.00,1.36
4649.00,1.37
4648.00,1.37
4647.00,1.37
4646.00,1.37
4645.00,1.37
4644.00,1.37
4643.00,1.37
4642.00,1.38
4641.00,1.38
4640.00,1.38
4639.00,1.38
4638.00,1.38
4637.00,1.38
4636.00,1.38
4635.00,1.38
4634.00,1.38
4633.00,1.38
4632.00,1.38
4631.00,1.39
4630.00,1.39
4629.00,1.39
4628.00,1.39
4627.00,1.39
4626.00,1.39
4625.00,1.39
4624.00,1.39
4623.00,1.39
4622.00,1.40
4621.00,1.40
4620.00,1.40
4619.00,1.40
4618.00,1.40
4617.00,1.40
4616.00,1.40
4615.00,1.40
4614.00,1.41
4613.00,1.41
4612.00,1.41
4611.00,1.41
4610.00,1.41
4609.00,1.41
4608.00,1.41
4607.00,1.41
4606.00,1.42
4605.00,1.42
4604.00,1.42
4603.00,1.42
4602.00,1.42
4601.00,1.42
4600.00,1.42
4599.00,1.42
4598.00,1.42
4597.00,1.42
4596.00,1.42
4595.00,1.42
4594.00,1.42
4593.00,1.43
4592.00,1.43
4591.00,1.43
4590.00,1.43
4589.00,1.43
4588.00,1.43
4587.00,1.44
4586.00,1.44
4585.00,1.44
4584.00,1.44
4583.00,1.44
4582.00,1.44
4581.00,1.45
4580.00,1.45
4579.00,1.45
4578.00,1.45
4577.00,1.45
4576.00,1.45
4575.00,1.45
4574.00,1.45
4573.00,1.46
4572.00,1.46
4571.00,1.46
4570.00,1.46
4569.00,1.46
4568.00,1.46
4567.00,1.46
4566.00,1.46
4565.00,1.47
4564.00,1.47
4563.00,1.47
4562.00,1.47
4561.00,1.47
4560.00,1.47
4559.00,1.47
4558.00,1.47
4557.00,1.47
4556.00,1.47
4555.00,1.48
4554.00,1.48
4553.00,1.48
4552.00,1.48
4551.00,1.48
4550.00,1.48
4549.00,1.48
4548.00,1.48
4547.00,1.48
4546.00,1.48
4545.00,1.48
4544.00,1.49
4543.00,1.49
4542.00,1.49
4541.00,1.49
4540.00,1.49
4539.00,1.49
4538.00,1.49
4537.00,1.50
4536.00,1.50
4535.00,1.50
4534.00,1.50
4533.00,1.50
4532.00,1.50
4531.00,1.50
4530.00,1.50
4529.00,1.50
4528.00,1.50
4527.00,1.50
4526.00,1.50
4525.00,1.50
4524.00,1.50
4523.00,1.50
4522.00,1.50
4521.00,1.50
4520.00,1.51
4519.00,1.51
4518.00,1.51
4517.00,1.51
4516.00,1.51
4515.00,1.51
4514.00,1.51
4513.00,1.51
4512.00,1.51
4511.00,1.51
4510.00,1.51
4509.00,1.51
4508.00,1.51
4507.00,1.51
4506.00,1.51
4505.00,1.51
4504.00,1.51
4503.00,1.51
4502.00,1.51
4501.00,1.51
4500.00,1.51
4499.00,1.51
4498.00,1.51
4497.00,1.51
4496.00,1.51
4495.00,1.51
4494.00,1.51
4493.00,1.50
4492.00,1.50
4491.00,1.50
4490.00,1.50
4489.00,1.50
4488.00,1.49
4487.00,1.49
4486.00,1.49
4485.00,1.49
4484.00,1.48
4483.00,1.48
4482.00,1.48
4481.00,1.47
4480.00,1.47
4479.00,1.47
4478.00,1.47
4477.00,1.46
4476.00,1.46
4475.00,1.46
4474.00,1.45
4473.00,1.45
4472.00,1.45
4471.00,1.45
4470.00,1.44
4469.00,1.44
4468.00,1.44
4467.00,1.44
4466.00,1.43
4465.00,1.43
4464.00,1.43
4463.00,1.42
4462.00,1.42
4461.00,1.42
4460.00,1.41
4459.00,1.41
4458.00,1.41
4457.00,1.40
4456.00,1.40
4455.00,1.39
4454.00,1.39
4453.00,1.38
4452.00,1.37
4451.00,1.37
4450.00,1.36
4449.00,1.36
4448.00,1.35
4447.00,1.34
4446.00,1.34
4445.00,1.33
4444.00,1.32
4443.00,1.32
4442.00,1.31
4441.00,1.30
4440.00,1.30
4439.00,1.29
4438.00,1.28
4437.00,1.28
4436.00,1.27
4435.00,1.26
4434.00,1.26
4433.00,1.25
4432.00,1.25
4431.00,1.24
4430.00,1.24
4429.00,1.24
4428.00,1.23
4427.00,1.23
4426.00,1.23
4425.00,1.22
4424.00,1.22
4423.00,1.22
4422.00,1.21
4421.00,1.21
4420.00,1.21
4419.00,1.21
4418.00,1.21
4417.00,1.21
4416.00,1.20
4415.00,1.20
4414.00,1.20
4413.00,1.20
4412.00,1.20
4411.00,1.20
4410.00,1.20
4409.00,1.20
4408.00,1.20
4407.00,1.20
4406.00,1.20
4405.00,1.20
4404.00,1.20
4403.00,1.21
4402.00,1.21
4401.00,1.21
4400.00,1.21
4399.00,1.21
4398.00,1.21
4397.00,1.22
4396.00,1.22
4395.00,1.22
4394.00,1.22
4393.00,1.22
4392.00,1.23
4391.00,1.23
4390.00,1.23
4389.00,1.23
4388.00,1.24
4387.00,1.24
4386.00,1.24
4385.00,1.24
4384.00,1.25
4383.00,1.25
4382.00,1.25
4381.00,1.25
4380.00,1.26
4379.00,1.26
4378.00,1.26
4377.00,1.26
4376.00,1.26
4375.00,1.26
4374.00,1.26
4373.00,1.26
4372.00,1.26
4371.00,1.26
4370.00,1.26
4369.00,1.26
4368.00,1.26
4367.00,1.26
4366.00,1.26
4365.00,1.26
4364.00,1.26
4363.00,1.26
4362.00,1.26
4361.00,1.26
4360.00,1.25
4359.00,1.25
4358.00,1.25
4357.00,1.25
4356.00,1.25
4355.00,1.25
4354.00,1.25
4353.00,1.25
4352.00,1.25
4351.00,1.25
4350.00,1.25
4349.00,1.25
4348.00,1.25
4347.00,1.25
4346.00,1.25
4345.00,1.25
4344.00,1.25
4343.00,1.25
4342.00,1.25
4341.00,1.25
4340.00,1.25
4339.00,1.25
4338.00,1.26
4337.00,1.26
4336.00,1.26
4335.00,1.26
4334.00,1.26
4333.00,1.26
4332.00,1.27
4331.00,1.27
4330.00,1.27
4329.00,1.27
4328.00,1.27
4327.00,1.28
4326.00,1.28
4325.00,1.28
4324.00,1.28
4323.00,1.29
4322.00,1.29
4321.00,1.29
4320.00,1.29
4319.00,1.30
4318.00,1.30
4317.00,1.30
4316.00,1.30
4315.00,1.31
4314.00,1.31
4313.00,1.31
4312.00,1.32
4311.00,1.32
4310.00,1.32
4309.00,1.32
4308.00,1.33
4307.00,1.33
4306.00,1.33
4305.00,1.34
4304.00,1.34
4303.00,1.34
4302.00,1.35
4301.00,1.35
4300.00,1.35
4299.00,1.35
4298.00,1.36
4297.00,1.36
4296.00,1.36
4295.00,1.37
4294.00,1.37
4293.00,1.37
4292.00,1.37
4291.00,1.37
4290.00,1.38
4289.00,1.38
4288.00,1.38
4287.00,1.38
4286.00,1.38
4285.00,1.38
4284.00,1.38
4283.00,1.38
4282.00,1.38
4281.00,1.38
4280.00,1.38
4279.00,1.38
4278.00,1.38
4277.00,1.38
4276.00,1.38
4275.00,1.38
4274.00,1.38
4273.00,1.38
4272.00,1.37
4271.00,1.37
4270.00,1.37
4269.00,1.37
4268.00,1.37
4267.00,1.37
4266.00,1.37
4265.00,1.36
4264.00,1.36
4263.00,1.36
4262.00,1.36
4261.00,1.36
4260.00,1.36
4259.00,1.36
4258.00,1.36
4257.00,1.36
4256.00,1.36
4255.00,1.36
4254.00,1.36
4253.00,1.36
4252.00,1.36
4251.00,1.36
4250.00,1.36
4249.00,1.36
4248.00,1.37
4247.00,1.37
4246.00,1.37
4245.00,1.37
4244.00,1.37
4243.00,1.38
4242.00,1.38
4241.00,1.38
4240.00,1.39
4239.00,1.39
4238.00,1.39
4237.00,1.40
4236.00,1.40
4235.00,1.40
4234.00,1.41
4233.00,1.41
4232.00,1.41
4231.00,1.42
4230.00,1.42
4229.00,1.42
4228.00,1.43
4227.00,1.43
4226.00,1.43
4225.00,1.43
4224.00,1.43
4223.00,1.43
4222.00,1.44
4221.00,1.44
4220.00,1.44
4219.00,1.44
4218.00,1.44
4217.00,1.44
4216.00,1.44
4215.00,1.44
4214.00,1.44
4213.00,1.44
4212.00,1.44
4211.00,1.44
4210.00,1.44
4209.00,1.44
4208.00,1.44
4207.00,1.44
4206.00,1.44
4205.00,1.44
4204.00,1.44
4203.00,1.44
4202.00,1.44
4201.00,1.44
4200.00,1.44
4199.00,1.44
4198.00,1.44
4197.00,1.44
4196.00,1.44
4195.00,1.44
4194.00,1.44
4193.00,1.44
4192.00,1.44
4191.00,1.44
4190.00,1.44
4189.00,1.44
4188.00,1.44
4187.00,1.44
4186.00,1.44
4185.00,1.44
4184.00,1.44
4183.00,1.44
4182.00,1.44
4181.00,1.44
4180.00,1.44
4179.00,1.44
4178.00,1.44
4177.00,1.44
4176.00,1.44
4175.00,1.44
4174.00,1.44
4173.00,1.44
4172.00,1.44
4171.00,1.44
4170.00,1.43
4169.00,1.43
4168.00,1.43
4167.00,1.43
4166.00,1.43
4165.00,1.43
4164.00,1.43
4163.00,1.43
4162.00,1.43
4161.00,1.43
4160.00,1.43
4159.00,1.43
4158.00,1.43
4157.00,1.43
4156.00,1.43
4155.00,1.43
4154.00,1.43
4153.00,1.43
4152.00,1.43
4151.00,1.43
4150.00,1.43
4149.00,1.43
4148.00,1.43
4147.00,1.43
4146.00,1.44
4145.00,1.44
4144.00,1.44
4143.00,1.44
4142.00,1.44
4141.00,1.44
4140.00,1.45
4139.00,1.45
4138.00,1.45
4137.00,1.45
4136.00,1.45
4135.00,1.45
4134.00,1.45
4133.00,1.45
4132.00,1.45
4131.00,1.46
4130.00,1.46
4129.00,1.46
4128.00,1.46
4127.00,1.46
4126.00,1.46
4125.00,1.46
4124.00,1.46
4123.00,1.46
4122.00,1.47
4121.00,1.47
4120.00,1.47
4119.00,1.47
4118.00,1.47
4117.00,1.47
4116.00,1.47
4115.00,1.48
4114.00,1.48
4113.00,1.48
4112.00,1.48
4111.00,1.48
4110.00,1.48
4109.00,1.48
4108.00,1.48
4107.00,1.48
4106.00,1.48
4105.00,1.47
4104.00,1.47
4103.00,1.47
4102.00,1.47
4101.00,1.47
4100.00,1.47
4099.00,1.47
4098.00,1.47
4097.00,1.47
4096.00,1.47
4095.00,1.48
4094.00,1.48
4093.00,1.48
4092.00,1.48
4091.00,1.48
4090.00,1.48
4089.00,1.48
4088.00,1.48
4087.00,1.48
4086.00,1.48
4085.00,1.48
4084.00,1.48
4083.00,1.48
4082.00,1.48
4081.00,1.48
4080.00,1.48
4079.00,1.48
4078.00,1.48
4077.00,1.48
4076.00,1.48
4075.00,1.47
4074.00,1.47
4073.00,1.47
4072.00,1.47
4071.00,1.47
4070.00,1.47
4069.00,1.47
4068.00,1.47
4067.00,1.48
4066.00,1.48
4065.00,1.48
4064.00,1.48
4063.00,1.48
4062.00,1.48
4061.00,1.48
4060.00,1.48
4059.00,1.49
4058.00,1.49
4057.00,1.49
4056.00,1.49
4055.00,1.49
4054.00,1.50
4053.00,1.50
4052.00,1.50
4051.00,1.50
4050.00,1.51
4049.00,1.51
4048.00,1.51
4047.00,1.51
4046.00,1.51
4045.00,1.51
4044.00,1.51
4043.00,1.52
4042.00,1.52
4041.00,1.52
4040.00,1.52
4039.00,1.52
4038.00,1.52
4037.00,1.52
4036.00,1.52
4035.00,1.52
4034.00,1.52
4033.00,1.52
4032.00,1.52
4031.00,1.52
4030.00,1.52
4029.00,1.52
4028.00,1.52
4027.00,1.52
4026.00,1.52
4025.00,1.52
4024.00,1.52
4023.00,1.52
4022.00,1.52
4021.00,1.52
4020.00,1.52
4019.00,1.52
4018.00,1.52
4017.00,1.52
4016.00,1.52
4015.00,1.52
4014.00,1.52
4013.00,1.51
4012.00,1.51
4011.00,1.51
4010.00,1.51
4009.00,1.51
4008.00,1.51
4007.00,1.51
4006.00,1.51
4005.00,1.52
4004.00,1.52
4003.00,1.52
4002.00,1.52
4001.00,1.52
4000.00,1.53
