创建为新数据集,样品 675 用户 Administrator 日期 星期四, 七月 19 2018
cm-1,%T
10000.00,1.24
9999.00,1.24
9998.00,1.24
9997.00,1.24
9996.00,1.24
9995.00,1.24
9994.00,1.24
9993.00,1.23
9992.00,1.23
9991.00,1.23
9990.00,1.23
9989.00,1.23
9988.00,1.23
9987.00,1.23
9986.00,1.23
9985.00,1.23
9984.00,1.23
9983.00,1.23
9982.00,1.23
9981.00,1.23
9980.00,1.23
9979.00,1.23
9978.00,1.23
9977.00,1.23
9976.00,1.23
9975.00,1.23
9974.00,1.24
9973.00,1.24
9972.00,1.24
9971.00,1.24
9970.00,1.24
9969.00,1.24
9968.00,1.24
9967.00,1.24
9966.00,1.24
9965.00,1.24
9964.00,1.24
9963.00,1.24
9962.00,1.24
9961.00,1.23
9960.00,1.23
9959.00,1.23
9958.00,1.23
9957.00,1.22
9956.00,1.22
9955.00,1.22
9954.00,1.21
9953.00,1.21
9952.00,1.21
9951.00,1.21
9950.00,1.20
9949.00,1.20
9948.00,1.20
9947.00,1.20
9946.00,1.20
9945.00,1.20
9944.00,1.20
9943.00,1.20
9942.00,1.20
9941.00,1.20
9940.00,1.20
9939.00,1.20
9938.00,1.20
9937.00,1.20
9936.00,1.20
9935.00,1.20
9934.00,1.20
9933.00,1.20
9932.00,1.20
9931.00,1.20
9930.00,1.20
9929.00,1.19
9928.00,1.19
9927.00,1.19
9926.00,1.19
9925.00,1.19
9924.00,1.19
9923.00,1.19
9922.00,1.19
9921.00,1.19
9920.00,1.19
9919.00,1.19
9918.00,1.19
9917.00,1.19
9916.00,1.19
9915.00,1.19
9914.00,1.19
9913.00,1.19
9912.00,1.19
9911.00,1.19
9910.00,1.19
9909.00,1.19
9908.00,1.20
9907.00,1.20
9906.00,1.20
9905.00,1.20
9904.00,1.20
9903.00,1.20
9902.00,1.20
9901.00,1.21
9900.00,1.21
9899.00,1.21
9898.00,1.21
9897.00,1.21
9896.00,1.21
9895.00,1.22
9894.00,1.22
9893.00,1.22
9892.00,1.22
9891.00,1.22
9890.00,1.22
9889.00,1.23
9888.00,1.23
9887.00,1.23
9886.00,1.23
9885.00,1.23
9884.00,1.23
9883.00,1.23
9882.00,1.23
9881.00,1.23
9880.00,1.23
9879.00,1.23
9878.00,1.23
9877.00,1.23
9876.00,1.23
9875.00,1.23
9874.00,1.23
9873.00,1.23
9872.00,1.23
9871.00,1.23
9870.00,1.23
9869.00,1.23
9868.00,1.23
9867.00,1.23
9866.00,1.23
9865.00,1.23
9864.00,1.23
9863.00,1.23
9862.00,1.22
9861.00,1.22
9860.00,1.22
9859.00,1.22
9858.00,1.22
9857.00,1.22
9856.00,1.22
9855.00,1.22
9854.00,1.22
9853.00,1.22
9852.00,1.21
9851.00,1.21
9850.00,1.21
9849.00,1.21
9848.00,1.21
9847.00,1.21
9846.00,1.21
9845.00,1.21
9844.00,1.21
9843.00,1.21
9842.00,1.21
9841.00,1.21
9840.00,1.22
9839.00,1.22
9838.00,1.22
9837.00,1.22
9836.00,1.22
9835.00,1.22
9834.00,1.22
9833.00,1.22
9832.00,1.22
9831.00,1.22
9830.00,1.22
9829.00,1.22
9828.00,1.22
9827.00,1.22
9826.00,1.22
9825.00,1.22
9824.00,1.22
9823.00,1.22
9822.00,1.22
9821.00,1.21
9820.00,1.21
9819.00,1.21
9818.00,1.21
9817.00,1.21
9816.00,1.21
9815.00,1.21
9814.00,1.20
9813.00,1.20
9812.00,1.20
9811.00,1.20
9810.00,1.20
9809.00,1.20
9808.00,1.20
9807.00,1.20
9806.00,1.20
9805.00,1.21
9804.00,1.21
9803.00,1.21
9802.00,1.21
9801.00,1.21
9800.00,1.21
9799.00,1.21
9798.00,1.21
9797.00,1.22
9796.00,1.22
9795.00,1.22
9794.00,1.22
9793.00,1.22
9792.00,1.22
9791.00,1.22
9790.00,1.23
9789.00,1.23
9788.00,1.23
9787.00,1.23
9786.00,1.23
9785.00,1.23
9784.00,1.23
9783.00,1.23
9782.00,1.23
9781.00,1.23
9780.00,1.23
9779.00,1.23
9778.00,1.23
9777.00,1.23
9776.00,1.22
9775.00,1.22
9774.00,1.22
9773.00,1.22
9772.00,1.22
9771.00,1.22
9770.00,1.22
9769.00,1.22
9768.00,1.21
9767.00,1.21
9766.00,1.21
9765.00,1.21
9764.00,1.21
9763.00,1.21
9762.00,1.21
9761.00,1.21
9760.00,1.21
9759.00,1.21
9758.00,1.21
9757.00,1.21
9756.00,1.20
9755.00,1.20
9754.00,1.20
9753.00,1.20
9752.00,1.20
9751.00,1.20
9750.00,1.20
9749.00,1.20
9748.00,1.20
9747.00,1.20
9746.00,1.20
9745.00,1.21
9744.00,1.21
9743.00,1.21
9742.00,1.21
9741.00,1.21
9740.00,1.21
9739.00,1.21
9738.00,1.21
9737.00,1.21
9736.00,1.22
9735.00,1.22
9734.00,1.22
9733.00,1.22
9732.00,1.22
9731.00,1.22
9730.00,1.21
9729.00,1.21
9728.00,1.21
9727.00,1.21
9726.00,1.21
9725.00,1.21
9724.00,1.21
9723.00,1.21
9722.00,1.21
9721.00,1.20
9720.00,1.20
9719.00,1.20
9718.00,1.20
9717.00,1.20
9716.00,1.20
9715.00,1.20
9714.00,1.21
9713.00,1.21
9712.00,1.21
9711.00,1.21
9710.00,1.21
9709.00,1.21
9708.00,1.22
9707.00,1.22
9706.00,1.22
9705.00,1.22
9704.00,1.23
9703.00,1.23
9702.00,1.23
9701.00,1.23
9700.00,1.23
9699.00,1.23
9698.00,1.24
9697.00,1.24
9696.00,1.24
9695.00,1.24
9694.00,1.24
9693.00,1.24
9692.00,1.24
9691.00,1.24
9690.00,1.24
9689.00,1.24
9688.00,1.24
9687.00,1.24
9686.00,1.24
9685.00,1.24
9684.00,1.23
9683.00,1.23
9682.00,1.23
9681.00,1.23
9680.00,1.23
9679.00,1.23
9678.00,1.23
9677.00,1.23
9676.00,1.23
9675.00,1.23
9674.00,1.23
9673.00,1.23
9672.00,1.23
9671.00,1.23
9670.00,1.23
9669.00,1.23
9668.00,1.22
9667.00,1.22
9666.00,1.22
9665.00,1.22
9664.00,1.22
9663.00,1.22
9662.00,1.22
9661.00,1.22
9660.00,1.21
9659.00,1.21
9658.00,1.21
9657.00,1.21
9656.00,1.21
9655.00,1.21
9654.00,1.21
9653.00,1.21
9652.00,1.21
9651.00,1.21
9650.00,1.21
9649.00,1.21
9648.00,1.21
9647.00,1.21
9646.00,1.21
9645.00,1.22
9644.00,1.22
9643.00,1.22
9642.00,1.22
9641.00,1.22
9640.00,1.22
9639.00,1.22
9638.00,1.22
9637.00,1.22
9636.00,1.22
9635.00,1.22
9634.00,1.22
9633.00,1.22
9632.00,1.22
9631.00,1.22
9630.00,1.22
9629.00,1.22
9628.00,1.22
9627.00,1.22
9626.00,1.22
9625.00,1.22
9624.00,1.21
9623.00,1.21
9622.00,1.21
9621.00,1.21
9620.00,1.21
9619.00,1.21
9618.00,1.21
9617.00,1.21
9616.00,1.20
9615.00,1.20
9614.00,1.20
9613.00,1.20
9612.00,1.20
9611.00,1.20
9610.00,1.20
9609.00,1.20
9608.00,1.20
9607.00,1.20
9606.00,1.20
9605.00,1.20
9604.00,1.20
9603.00,1.21
9602.00,1.21
9601.00,1.21
9600.00,1.21
9599.00,1.21
9598.00,1.21
9597.00,1.22
9596.00,1.22
9595.00,1.22
9594.00,1.22
9593.00,1.22
9592.00,1.23
9591.00,1.23
9590.00,1.23
9589.00,1.23
9588.00,1.23
9587.00,1.23
9586.00,1.23
9585.00,1.23
9584.00,1.23
9583.00,1.23
9582.00,1.23
9581.00,1.23
9580.00,1.23
9579.00,1.22
9578.00,1.22
9577.00,1.22
9576.00,1.22
9575.00,1.22
9574.00,1.22
9573.00,1.22
9572.00,1.22
9571.00,1.22
9570.00,1.22
9569.00,1.22
9568.00,1.22
9567.00,1.22
9566.00,1.22
9565.00,1.22
9564.00,1.22
9563.00,1.22
9562.00,1.22
9561.00,1.23
9560.00,1.23
9559.00,1.23
9558.00,1.23
9557.00,1.23
9556.00,1.23
9555.00,1.23
9554.00,1.23
9553.00,1.23
9552.00,1.23
9551.00,1.23
9550.00,1.23
9549.00,1.23
9548.00,1.23
9547.00,1.22
9546.00,1.22
9545.00,1.22
9544.00,1.22
9543.00,1.22
9542.00,1.22
9541.00,1.22
9540.00,1.22
9539.00,1.22
9538.00,1.22
9537.00,1.22
9536.00,1.22
9535.00,1.22
9534.00,1.21
9533.00,1.21
9532.00,1.21
9531.00,1.21
9530.00,1.21
9529.00,1.21
9528.00,1.21
9527.00,1.21
9526.00,1.21
9525.00,1.21
9524.00,1.21
9523.00,1.21
9522.00,1.21
9521.00,1.21
9520.00,1.21
9519.00,1.21
9518.00,1.21
9517.00,1.21
9516.00,1.21
9515.00,1.21
9514.00,1.21
9513.00,1.21
9512.00,1.21
9511.00,1.22
9510.00,1.22
9509.00,1.22
9508.00,1.22
9507.00,1.22
9506.00,1.22
9505.00,1.22
9504.00,1.22
9503.00,1.23
9502.00,1.23
9501.00,1.23
9500.00,1.23
9499.00,1.23
9498.00,1.23
9497.00,1.23
9496.00,1.23
9495.00,1.23
9494.00,1.24
9493.00,1.24
9492.00,1.24
9491.00,1.24
9490.00,1.24
9489.00,1.24
9488.00,1.23
9487.00,1.23
9486.00,1.23
9485.00,1.23
9484.00,1.23
9483.00,1.23
9482.00,1.23
9481.00,1.23
9480.00,1.23
9479.00,1.22
9478.00,1.22
9477.00,1.22
9476.00,1.22
9475.00,1.22
9474.00,1.22
9473.00,1.22
9472.00,1.22
9471.00,1.22
9470.00,1.22
9469.00,1.22
9468.00,1.22
9467.00,1.22
9466.00,1.22
9465.00,1.22
9464.00,1.22
9463.00,1.22
9462.00,1.22
9461.00,1.23
9460.00,1.23
9459.00,1.23
9458.00,1.23
9457.00,1.23
9456.00,1.23
9455.00,1.23
9454.00,1.23
9453.00,1.23
9452.00,1.23
9451.00,1.23
9450.00,1.23
9449.00,1.23
9448.00,1.23
9447.00,1.23
9446.00,1.23
9445.00,1.23
9444.00,1.23
9443.00,1.23
9442.00,1.23
9441.00,1.23
9440.00,1.22
9439.00,1.22
9438.00,1.22
9437.00,1.22
9436.00,1.22
9435.00,1.22
9434.00,1.22
9433.00,1.22
9432.00,1.22
9431.00,1.22
9430.00,1.22
9429.00,1.22
9428.00,1.22
9427.00,1.22
9426.00,1.22
9425.00,1.22
9424.00,1.22
9423.00,1.22
9422.00,1.22
9421.00,1.22
9420.00,1.22
9419.00,1.22
9418.00,1.22
9417.00,1.22
9416.00,1.22
9415.00,1.22
9414.00,1.23
9413.00,1.23
9412.00,1.23
9411.00,1.23
9410.00,1.23
9409.00,1.23
9408.00,1.23
9407.00,1.23
9406.00,1.23
9405.00,1.23
9404.00,1.23
9403.00,1.24
9402.00,1.24
9401.00,1.24
9400.00,1.24
9399.00,1.24
9398.00,1.24
9397.00,1.24
9396.00,1.24
9395.00,1.24
9394.00,1.24
9393.00,1.24
9392.00,1.23
9391.00,1.23
9390.00,1.23
9389.00,1.23
9388.00,1.23
9387.00,1.23
9386.00,1.23
9385.00,1.23
9384.00,1.23
9383.00,1.23
9382.00,1.23
9381.00,1.23
9380.00,1.23
9379.00,1.23
9378.00,1.23
9377.00,1.23
9376.00,1.24
9375.00,1.24
9374.00,1.24
9373.00,1.24
9372.00,1.24
9371.00,1.24
9370.00,1.24
9369.00,1.24
9368.00,1.24
9367.00,1.24
9366.00,1.24
9365.00,1.24
9364.00,1.24
9363.00,1.23
9362.00,1.23
9361.00,1.23
9360.00,1.23
9359.00,1.23
9358.00,1.22
9357.00,1.22
9356.00,1.22
9355.00,1.22
9354.00,1.22
9353.00,1.22
9352.00,1.22
9351.00,1.22
9350.00,1.22
9349.00,1.22
9348.00,1.22
9347.00,1.22
9346.00,1.22
9345.00,1.22
9344.00,1.22
9343.00,1.22
9342.00,1.22
9341.00,1.22
9340.00,1.23
9339.00,1.23
9338.00,1.23
9337.00,1.23
9336.00,1.23
9335.00,1.23
9334.00,1.23
9333.00,1.23
9332.00,1.23
9331.00,1.22
9330.00,1.22
9329.00,1.22
9328.00,1.22
9327.00,1.22
9326.00,1.21
9325.00,1.21
9324.00,1.21
9323.00,1.21
9322.00,1.20
9321.00,1.20
9320.00,1.20
9319.00,1.20
9318.00,1.20
9317.00,1.20
9316.00,1.20
9315.00,1.20
9314.00,1.20
9313.00,1.20
9312.00,1.20
9311.00,1.20
9310.00,1.20
9309.00,1.20
9308.00,1.20
9307.00,1.20
9306.00,1.20
9305.00,1.20
9304.00,1.20
9303.00,1.20
9302.00,1.20
9301.00,1.20
9300.00,1.20
9299.00,1.20
9298.00,1.20
9297.00,1.20
9296.00,1.20
9295.00,1.20
9294.00,1.20
9293.00,1.20
9292.00,1.20
9291.00,1.20
9290.00,1.20
9289.00,1.20
9288.00,1.20
9287.00,1.20
9286.00,1.20
9285.00,1.20
9284.00,1.20
9283.00,1.20
9282.00,1.20
9281.00,1.20
9280.00,1.20
9279.00,1.20
9278.00,1.20
9277.00,1.21
9276.00,1.21
9275.00,1.21
9274.00,1.21
9273.00,1.21
9272.00,1.21
9271.00,1.21
9270.00,1.21
9269.00,1.21
9268.00,1.22
9267.00,1.22
9266.00,1.22
9265.00,1.22
9264.00,1.22
9263.00,1.22
9262.00,1.22
9261.00,1.22
9260.00,1.22
9259.00,1.22
9258.00,1.22
9257.00,1.22
9256.00,1.22
9255.00,1.23
9254.00,1.23
9253.00,1.23
9252.00,1.23
9251.00,1.23
9250.00,1.23
9249.00,1.23
9248.00,1.23
9247.00,1.23
9246.00,1.23
9245.00,1.23
9244.00,1.23
9243.00,1.23
9242.00,1.23
9241.00,1.23
9240.00,1.23
9239.00,1.23
9238.00,1.23
9237.00,1.23
9236.00,1.23
9235.00,1.23
9234.00,1.23
9233.00,1.24
9232.00,1.24
9231.00,1.24
9230.00,1.24
9229.00,1.24
9228.00,1.24
9227.00,1.24
9226.00,1.23
9225.00,1.23
9224.00,1.23
9223.00,1.23
9222.00,1.23
9221.00,1.23
9220.00,1.23
9219.00,1.23
9218.00,1.23
9217.00,1.23
9216.00,1.23
9215.00,1.23
9214.00,1.23
9213.00,1.23
9212.00,1.23
9211.00,1.23
9210.00,1.23
9209.00,1.23
9208.00,1.23
9207.00,1.23
9206.00,1.23
9205.00,1.23
9204.00,1.23
9203.00,1.23
9202.00,1.23
9201.00,1.23
9200.00,1.23
9199.00,1.23
9198.00,1.23
9197.00,1.23
9196.00,1.23
9195.00,1.22
9194.00,1.22
9193.00,1.22
9192.00,1.22
9191.00,1.22
9190.00,1.22
9189.00,1.22
9188.00,1.22
9187.00,1.22
9186.00,1.22
9185.00,1.22
9184.00,1.22
9183.00,1.22
9182.00,1.21
9181.00,1.21
9180.00,1.22
9179.00,1.22
9178.00,1.22
9177.00,1.22
9176.00,1.22
9175.00,1.22
9174.00,1.22
9173.00,1.23
9172.00,1.23
9171.00,1.23
9170.00,1.23
9169.00,1.23
9168.00,1.24
9167.00,1.24
9166.00,1.24
9165.00,1.24
9164.00,1.24
9163.00,1.24
9162.00,1.24
9161.00,1.24
9160.00,1.24
9159.00,1.24
9158.00,1.24
9157.00,1.24
9156.00,1.24
9155.00,1.23
9154.00,1.23
9153.00,1.23
9152.00,1.23
9151.00,1.23
9150.00,1.23
9149.00,1.22
9148.00,1.22
9147.00,1.22
9146.00,1.22
9145.00,1.22
9144.00,1.22
9143.00,1.22
9142.00,1.22
9141.00,1.22
9140.00,1.22
9139.00,1.22
9138.00,1.23
9137.00,1.23
9136.00,1.23
9135.00,1.23
9134.00,1.23
9133.00,1.23
9132.00,1.23
9131.00,1.23
9130.00,1.23
9129.00,1.23
9128.00,1.23
9127.00,1.23
9126.00,1.23
9125.00,1.23
9124.00,1.23
9123.00,1.23
9122.00,1.23
9121.00,1.23
9120.00,1.23
9119.00,1.23
9118.00,1.22
9117.00,1.22
9116.00,1.22
9115.00,1.22
9114.00,1.22
9113.00,1.22
9112.00,1.22
9111.00,1.22
9110.00,1.22
9109.00,1.22
9108.00,1.22
9107.00,1.22
9106.00,1.22
9105.00,1.22
9104.00,1.22
9103.00,1.23
9102.00,1.23
9101.00,1.23
9100.00,1.23
9099.00,1.23
9098.00,1.23
9097.00,1.23
9096.00,1.23
9095.00,1.23
9094.00,1.23
9093.00,1.23
9092.00,1.23
9091.00,1.23
9090.00,1.23
9089.00,1.23
9088.00,1.23
9087.00,1.23
9086.00,1.23
9085.00,1.23
9084.00,1.23
9083.00,1.23
9082.00,1.23
9081.00,1.23
9080.00,1.23
9079.00,1.23
9078.00,1.23
9077.00,1.23
9076.00,1.23
9075.00,1.23
9074.00,1.23
9073.00,1.23
9072.00,1.23
9071.00,1.23
9070.00,1.23
9069.00,1.23
9068.00,1.23
9067.00,1.23
9066.00,1.23
9065.00,1.23
9064.00,1.23
9063.00,1.23
9062.00,1.23
9061.00,1.23
9060.00,1.23
9059.00,1.23
9058.00,1.23
9057.00,1.23
9056.00,1.23
9055.00,1.23
9054.00,1.23
9053.00,1.23
9052.00,1.23
9051.00,1.23
9050.00,1.23
9049.00,1.23
9048.00,1.23
9047.00,1.23
9046.00,1.23
9045.00,1.23
9044.00,1.23
9043.00,1.24
9042.00,1.24
9041.00,1.23
9040.00,1.23
9039.00,1.23
9038.00,1.23
9037.00,1.23
9036.00,1.23
9035.00,1.23
9034.00,1.23
9033.00,1.22
9032.00,1.22
9031.00,1.22
9030.00,1.22
9029.00,1.22
9028.00,1.22
9027.00,1.22
9026.00,1.22
9025.00,1.22
9024.00,1.22
9023.00,1.22
9022.00,1.22
9021.00,1.22
9020.00,1.22
9019.00,1.22
9018.00,1.22
9017.00,1.22
9016.00,1.22
9015.00,1.22
9014.00,1.22
9013.00,1.22
9012.00,1.22
9011.00,1.22
9010.00,1.22
9009.00,1.22
9008.00,1.22
9007.00,1.22
9006.00,1.22
9005.00,1.22
9004.00,1.21
9003.00,1.21
9002.00,1.21
9001.00,1.21
9000.00,1.21
8999.00,1.21
8998.00,1.22
8997.00,1.22
8996.00,1.22
8995.00,1.22
8994.00,1.22
8993.00,1.22
8992.00,1.22
8991.00,1.22
8990.00,1.23
8989.00,1.23
8988.00,1.23
8987.00,1.23
8986.00,1.23
8985.00,1.23
8984.00,1.23
8983.00,1.23
8982.00,1.23
8981.00,1.23
8980.00,1.23
8979.00,1.22
8978.00,1.22
8977.00,1.22
8976.00,1.22
8975.00,1.22
8974.00,1.22
8973.00,1.22
8972.00,1.22
8971.00,1.22
8970.00,1.22
8969.00,1.22
8968.00,1.22
8967.00,1.22
8966.00,1.22
8965.00,1.22
8964.00,1.22
8963.00,1.22
8962.00,1.22
8961.00,1.22
8960.00,1.22
8959.00,1.22
8958.00,1.22
8957.00,1.22
8956.00,1.22
8955.00,1.22
8954.00,1.22
8953.00,1.23
8952.00,1.23
8951.00,1.23
8950.00,1.23
8949.00,1.23
8948.00,1.23
8947.00,1.23
8946.00,1.24
8945.00,1.24
8944.00,1.24
8943.00,1.24
8942.00,1.24
8941.00,1.24
8940.00,1.24
8939.00,1.24
8938.00,1.24
8937.00,1.24
8936.00,1.24
8935.00,1.24
8934.00,1.24
8933.00,1.24
8932.00,1.24
8931.00,1.23
8930.00,1.23
8929.00,1.23
8928.00,1.23
8927.00,1.23
8926.00,1.23
8925.00,1.23
8924.00,1.23
8923.00,1.23
8922.00,1.23
8921.00,1.23
8920.00,1.23
8919.00,1.23
8918.00,1.23
8917.00,1.23
8916.00,1.23
8915.00,1.23
8914.00,1.23
8913.00,1.23
8912.00,1.23
8911.00,1.23
8910.00,1.23
8909.00,1.23
8908.00,1.23
8907.00,1.23
8906.00,1.23
8905.00,1.23
8904.00,1.23
8903.00,1.23
8902.00,1.23
8901.00,1.23
8900.00,1.23
8899.00,1.22
8898.00,1.22
8897.00,1.23
8896.00,1.23
8895.00,1.23
8894.00,1.23
8893.00,1.23
8892.00,1.23
8891.00,1.23
8890.00,1.23
8889.00,1.23
8888.00,1.23
8887.00,1.23
8886.00,1.24
8885.00,1.24
8884.00,1.24
8883.00,1.24
8882.00,1.24
8881.00,1.24
8880.00,1.24
8879.00,1.24
8878.00,1.24
8877.00,1.24
8876.00,1.24
8875.00,1.24
8874.00,1.24
8873.00,1.24
8872.00,1.24
8871.00,1.24
8870.00,1.24
8869.00,1.24
8868.00,1.24
8867.00,1.24
8866.00,1.24
8865.00,1.24
8864.00,1.24
8863.00,1.24
8862.00,1.23
8861.00,1.23
8860.00,1.23
8859.00,1.23
8858.00,1.23
8857.00,1.23
8856.00,1.23
8855.00,1.23
8854.00,1.22
8853.00,1.22
8852.00,1.22
8851.00,1.22
8850.00,1.22
8849.00,1.22
8848.00,1.21
8847.00,1.21
8846.00,1.21
8845.00,1.21
8844.00,1.21
8843.00,1.21
8842.00,1.21
8841.00,1.21
8840.00,1.21
8839.00,1.21
8838.00,1.21
8837.00,1.21
8836.00,1.21
8835.00,1.21
8834.00,1.21
8833.00,1.21
8832.00,1.21
8831.00,1.21
8830.00,1.21
8829.00,1.20
8828.00,1.20
8827.00,1.20
8826.00,1.20
8825.00,1.20
8824.00,1.20
8823.00,1.20
8822.00,1.20
8821.00,1.20
8820.00,1.20
8819.00,1.20
8818.00,1.20
8817.00,1.20
8816.00,1.20
8815.00,1.20
8814.00,1.20
8813.00,1.20
8812.00,1.20
8811.00,1.20
8810.00,1.20
8809.00,1.21
8808.00,1.21
8807.00,1.21
8806.00,1.21
8805.00,1.21
8804.00,1.21
8803.00,1.21
8802.00,1.21
8801.00,1.21
8800.00,1.21
8799.00,1.21
8798.00,1.20
8797.00,1.20
8796.00,1.20
8795.00,1.20
8794.00,1.20
8793.00,1.19
8792.00,1.19
8791.00,1.19
8790.00,1.19
8789.00,1.19
8788.00,1.18
8787.00,1.18
8786.00,1.18
8785.00,1.18
8784.00,1.18
8783.00,1.18
8782.00,1.18
8781.00,1.18
8780.00,1.18
8779.00,1.18
8778.00,1.18
8777.00,1.18
8776.00,1.19
8775.00,1.19
8774.00,1.19
8773.00,1.19
8772.00,1.19
8771.00,1.19
8770.00,1.19
8769.00,1.19
8768.00,1.19
8767.00,1.19
8766.00,1.19
8765.00,1.19
8764.00,1.19
8763.00,1.19
8762.00,1.18
8761.00,1.18
8760.00,1.18
8759.00,1.18
8758.00,1.18
8757.00,1.18
8756.00,1.18
8755.00,1.17
8754.00,1.17
8753.00,1.17
8752.00,1.17
8751.00,1.17
8750.00,1.17
8749.00,1.17
8748.00,1.17
8747.00,1.17
8746.00,1.17
8745.00,1.17
8744.00,1.17
8743.00,1.17
8742.00,1.17
8741.00,1.17
8740.00,1.17
8739.00,1.18
8738.00,1.18
8737.00,1.18
8736.00,1.18
8735.00,1.18
8734.00,1.18
8733.00,1.18
8732.00,1.18
8731.00,1.18
8730.00,1.18
8729.00,1.18
8728.00,1.18
8727.00,1.18
8726.00,1.18
8725.00,1.18
8724.00,1.18
8723.00,1.18
8722.00,1.18
8721.00,1.17
8720.00,1.17
8719.00,1.17
8718.00,1.17
8717.00,1.17
8716.00,1.17
8715.00,1.17
8714.00,1.17
8713.00,1.17
8712.00,1.17
8711.00,1.17
8710.00,1.17
8709.00,1.17
8708.00,1.17
8707.00,1.17
8706.00,1.17
8705.00,1.17
8704.00,1.17
8703.00,1.17
8702.00,1.17
8701.00,1.17
8700.00,1.17
8699.00,1.17
8698.00,1.17
8697.00,1.17
8696.00,1.17
8695.00,1.16
8694.00,1.16
8693.00,1.16
8692.00,1.16
8691.00,1.16
8690.00,1.16
8689.00,1.16
8688.00,1.16
8687.00,1.15
8686.00,1.15
8685.00,1.15
8684.00,1.15
8683.00,1.15
8682.00,1.15
8681.00,1.14
8680.00,1.14
8679.00,1.14
8678.00,1.14
8677.00,1.14
8676.00,1.14
8675.00,1.14
8674.00,1.14
8673.00,1.14
8672.00,1.14
8671.00,1.14
8670.00,1.14
8669.00,1.14
8668.00,1.14
8667.00,1.14
8666.00,1.14
8665.00,1.14
8664.00,1.14
8663.00,1.14
8662.00,1.14
8661.00,1.14
8660.00,1.14
8659.00,1.14
8658.00,1.14
8657.00,1.15
8656.00,1.15
8655.00,1.15
8654.00,1.15
8653.00,1.15
8652.00,1.15
8651.00,1.15
8650.00,1.15
8649.00,1.15
8648.00,1.15
8647.00,1.15
8646.00,1.15
8645.00,1.15
8644.00,1.15
8643.00,1.15
8642.00,1.15
8641.00,1.15
8640.00,1.15
8639.00,1.15
8638.00,1.15
8637.00,1.16
8636.00,1.16
8635.00,1.16
8634.00,1.16
8633.00,1.16
8632.00,1.15
8631.00,1.15
8630.00,1.15
8629.00,1.15
8628.00,1.15
8627.00,1.15
8626.00,1.15
8625.00,1.15
8624.00,1.15
8623.00,1.15
8622.00,1.15
8621.00,1.15
8620.00,1.15
8619.00,1.15
8618.00,1.15
8617.00,1.15
8616.00,1.15
8615.00,1.15
8614.00,1.15
8613.00,1.15
8612.00,1.15
8611.00,1.15
8610.00,1.15
8609.00,1.15
8608.00,1.15
8607.00,1.14
8606.00,1.14
8605.00,1.14
8604.00,1.14
8603.00,1.14
8602.00,1.14
8601.00,1.14
8600.00,1.13
8599.00,1.13
8598.00,1.13
8597.00,1.13
8596.00,1.13
8595.00,1.13
8594.00,1.13
8593.00,1.13
8592.00,1.13
8591.00,1.13
8590.00,1.13
8589.00,1.13
8588.00,1.13
8587.00,1.13
8586.00,1.13
8585.00,1.13
8584.00,1.13
8583.00,1.13
8582.00,1.13
8581.00,1.13
8580.00,1.13
8579.00,1.13
8578.00,1.13
8577.00,1.12
8576.00,1.12
8575.00,1.12
8574.00,1.12
8573.00,1.12
8572.00,1.12
8571.00,1.12
8570.00,1.11
8569.00,1.11
8568.00,1.11
8567.00,1.11
8566.00,1.11
8565.00,1.11
8564.00,1.11
8563.00,1.11
8562.00,1.11
8561.00,1.11
8560.00,1.11
8559.00,1.11
8558.00,1.10
8557.00,1.10
8556.00,1.10
8555.00,1.10
8554.00,1.10
8553.00,1.10
8552.00,1.10
8551.00,1.10
8550.00,1.10
8549.00,1.10
8548.00,1.10
8547.00,1.10
8546.00,1.10
8545.00,1.10
8544.00,1.10
8543.00,1.10
8542.00,1.10
8541.00,1.10
8540.00,1.10
8539.00,1.10
8538.00,1.10
8537.00,1.10
8536.00,1.10
8535.00,1.10
8534.00,1.10
8533.00,1.10
8532.00,1.10
8531.00,1.10
8530.00,1.10
8529.00,1.10
8528.00,1.10
8527.00,1.10
8526.00,1.10
8525.00,1.10
8524.00,1.10
8523.00,1.10
8522.00,1.10
8521.00,1.10
8520.00,1.10
8519.00,1.10
8518.00,1.10
8517.00,1.10
8516.00,1.10
8515.00,1.10
8514.00,1.10
8513.00,1.10
8512.00,1.10
8511.00,1.10
8510.00,1.10
8509.00,1.10
8508.00,1.09
8507.00,1.09
8506.00,1.09
8505.00,1.09
8504.00,1.09
8503.00,1.09
8502.00,1.09
8501.00,1.09
8500.00,1.09
8499.00,1.09
8498.00,1.09
8497.00,1.08
8496.00,1.08
8495.00,1.08
8494.00,1.08
8493.00,1.08
8492.00,1.08
8491.00,1.08
8490.00,1.08
8489.00,1.08
8488.00,1.07
8487.00,1.07
8486.00,1.07
8485.00,1.07
8484.00,1.07
8483.00,1.07
8482.00,1.07
8481.00,1.06
8480.00,1.06
8479.00,1.06
8478.00,1.06
8477.00,1.06
8476.00,1.06
8475.00,1.06
8474.00,1.06
8473.00,1.05
8472.00,1.05
8471.00,1.05
8470.00,1.05
8469.00,1.05
8468.00,1.05
8467.00,1.05
8466.00,1.05
8465.00,1.05
8464.00,1.05
8463.00,1.05
8462.00,1.05
8461.00,1.05
8460.00,1.05
8459.00,1.05
8458.00,1.05
8457.00,1.05
8456.00,1.05
8455.00,1.05
8454.00,1.05
8453.00,1.06
8452.00,1.06
8451.00,1.06
8450.00,1.06
8449.00,1.06
8448.00,1.06
8447.00,1.06
8446.00,1.06
8445.00,1.06
8444.00,1.06
8443.00,1.06
8442.00,1.06
8441.00,1.06
8440.00,1.06
8439.00,1.06
8438.00,1.06
8437.00,1.06
8436.00,1.06
8435.00,1.06
8434.00,1.06
8433.00,1.06
8432.00,1.05
8431.00,1.05
8430.00,1.05
8429.00,1.05
8428.00,1.05
8427.00,1.05
8426.00,1.05
8425.00,1.05
8424.00,1.05
8423.00,1.05
8422.00,1.05
8421.00,1.05
8420.00,1.05
8419.00,1.05
8418.00,1.05
8417.00,1.05
8416.00,1.05
8415.00,1.05
8414.00,1.06
8413.00,1.06
8412.00,1.06
8411.00,1.06
8410.00,1.06
8409.00,1.06
8408.00,1.06
8407.00,1.06
8406.00,1.06
8405.00,1.06
8404.00,1.06
8403.00,1.06
8402.00,1.06
8401.00,1.06
8400.00,1.06
8399.00,1.06
8398.00,1.07
8397.00,1.07
8396.00,1.07
8395.00,1.07
8394.00,1.07
8393.00,1.07
8392.00,1.07
8391.00,1.07
8390.00,1.07
8389.00,1.07
8388.00,1.07
8387.00,1.07
8386.00,1.07
8385.00,1.07
8384.00,1.07
8383.00,1.07
8382.00,1.07
8381.00,1.08
8380.00,1.08
8379.00,1.08
8378.00,1.08
8377.00,1.08
8376.00,1.08
8375.00,1.08
8374.00,1.08
8373.00,1.08
8372.00,1.08
8371.00,1.09
8370.00,1.09
8369.00,1.09
8368.00,1.09
8367.00,1.09
8366.00,1.09
8365.00,1.09
8364.00,1.09
8363.00,1.10
8362.00,1.10
8361.00,1.10
8360.00,1.10
8359.00,1.10
8358.00,1.10
8357.00,1.10
8356.00,1.10
8355.00,1.10
8354.00,1.10
8353.00,1.10
8352.00,1.10
8351.00,1.10
8350.00,1.10
8349.00,1.10
8348.00,1.10
8347.00,1.10
8346.00,1.10
8345.00,1.10
8344.00,1.10
8343.00,1.10
8342.00,1.10
8341.00,1.10
8340.00,1.10
8339.00,1.10
8338.00,1.10
8337.00,1.10
8336.00,1.10
8335.00,1.10
8334.00,1.10
8333.00,1.10
8332.00,1.10
8331.00,1.10
8330.00,1.10
8329.00,1.10
8328.00,1.10
8327.00,1.10
8326.00,1.10
8325.00,1.10
8324.00,1.10
8323.00,1.10
8322.00,1.10
8321.00,1.10
8320.00,1.10
8319.00,1.10
8318.00,1.10
8317.00,1.10
8316.00,1.10
8315.00,1.10
8314.00,1.10
8313.00,1.10
8312.00,1.10
8311.00,1.10
8310.00,1.10
8309.00,1.10
8308.00,1.10
8307.00,1.10
8306.00,1.10
8305.00,1.10
8304.00,1.10
8303.00,1.10
8302.00,1.10
8301.00,1.10
8300.00,1.10
8299.00,1.11
8298.00,1.11
8297.00,1.11
8296.00,1.11
8295.00,1.11
8294.00,1.11
8293.00,1.11
8292.00,1.11
8291.00,1.11
8290.00,1.11
8289.00,1.11
8288.00,1.11
8287.00,1.11
8286.00,1.11
8285.00,1.11
8284.00,1.11
8283.00,1.11
8282.00,1.11
8281.00,1.11
8280.00,1.11
8279.00,1.10
8278.00,1.10
8277.00,1.10
8276.00,1.10
8275.00,1.10
8274.00,1.10
8273.00,1.10
8272.00,1.10
8271.00,1.11
8270.00,1.11
8269.00,1.11
8268.00,1.11
8267.00,1.11
8266.00,1.11
8265.00,1.11
8264.00,1.11
8263.00,1.11
8262.00,1.11
8261.00,1.11
8260.00,1.11
8259.00,1.11
8258.00,1.11
8257.00,1.11
8256.00,1.11
8255.00,1.11
8254.00,1.11
8253.00,1.11
8252.00,1.11
8251.00,1.11
8250.00,1.11
8249.00,1.11
8248.00,1.11
8247.00,1.11
8246.00,1.11
8245.00,1.11
8244.00,1.11
8243.00,1.11
8242.00,1.11
8241.00,1.11
8240.00,1.11
8239.00,1.11
8238.00,1.11
8237.00,1.12
8236.00,1.12
8235.00,1.12
8234.00,1.12
8233.00,1.12
8232.00,1.12
8231.00,1.12
8230.00,1.13
8229.00,1.13
8228.00,1.13
8227.00,1.13
8226.00,1.13
8225.00,1.13
8224.00,1.14
8223.00,1.14
8222.00,1.14
8221.00,1.14
8220.00,1.14
8219.00,1.14
8218.00,1.14
8217.00,1.14
8216.00,1.14
8215.00,1.14
8214.00,1.14
8213.00,1.14
8212.00,1.14
8211.00,1.14
8210.00,1.14
8209.00,1.14
8208.00,1.14
8207.00,1.14
8206.00,1.14
8205.00,1.14
8204.00,1.14
8203.00,1.14
8202.00,1.14
8201.00,1.14
8200.00,1.14
8199.00,1.14
8198.00,1.14
8197.00,1.14
8196.00,1.14
8195.00,1.14
8194.00,1.14
8193.00,1.14
8192.00,1.14
8191.00,1.14
8190.00,1.14
8189.00,1.14
8188.00,1.14
8187.00,1.14
8186.00,1.14
8185.00,1.14
8184.00,1.14
8183.00,1.14
8182.00,1.14
8181.00,1.14
8180.00,1.14
8179.00,1.14
8178.00,1.14
8177.00,1.14
8176.00,1.14
8175.00,1.14
8174.00,1.14
8173.00,1.14
8172.00,1.14
8171.00,1.14
8170.00,1.14
8169.00,1.14
8168.00,1.14
8167.00,1.14
8166.00,1.14
8165.00,1.14
8164.00,1.14
8163.00,1.14
8162.00,1.14
8161.00,1.14
8160.00,1.14
8159.00,1.14
8158.00,1.14
8157.00,1.14
8156.00,1.14
8155.00,1.14
8154.00,1.15
8153.00,1.15
8152.00,1.15
8151.00,1.15
8150.00,1.15
8149.00,1.15
8148.00,1.15
8147.00,1.15
8146.00,1.15
8145.00,1.15
8144.00,1.16
8143.00,1.16
8142.00,1.16
8141.00,1.16
8140.00,1.16
8139.00,1.16
8138.00,1.16
8137.00,1.16
8136.00,1.16
8135.00,1.16
8134.00,1.16
8133.00,1.16
8132.00,1.16
8131.00,1.16
8130.00,1.16
8129.00,1.16
8128.00,1.16
8127.00,1.16
8126.00,1.16
8125.00,1.15
8124.00,1.15
8123.00,1.15
8122.00,1.16
8121.00,1.16
8120.00,1.16
8119.00,1.16
8118.00,1.16
8117.00,1.16
8116.00,1.16
8115.00,1.16
8114.00,1.16
8113.00,1.16
8112.00,1.17
8111.00,1.17
8110.00,1.17
8109.00,1.17
8108.00,1.17
8107.00,1.17
8106.00,1.17
8105.00,1.17
8104.00,1.17
8103.00,1.17
8102.00,1.17
8101.00,1.17
8100.00,1.17
8099.00,1.18
8098.00,1.18
8097.00,1.18
8096.00,1.18
8095.00,1.18
8094.00,1.18
8093.00,1.18
8092.00,1.18
8091.00,1.18
8090.00,1.18
8089.00,1.18
8088.00,1.18
8087.00,1.18
8086.00,1.18
8085.00,1.18
8084.00,1.18
8083.00,1.18
8082.00,1.18
8081.00,1.18
8080.00,1.18
8079.00,1.18
8078.00,1.18
8077.00,1.18
8076.00,1.18
8075.00,1.18
8074.00,1.18
8073.00,1.18
8072.00,1.18
8071.00,1.18
8070.00,1.18
8069.00,1.18
8068.00,1.18
8067.00,1.18
8066.00,1.18
8065.00,1.18
8064.00,1.18
8063.00,1.18
8062.00,1.18
8061.00,1.18
8060.00,1.18
8059.00,1.18
8058.00,1.18
8057.00,1.18
8056.00,1.18
8055.00,1.18
8054.00,1.18
8053.00,1.18
8052.00,1.18
8051.00,1.18
8050.00,1.18
8049.00,1.18
8048.00,1.18
8047.00,1.18
8046.00,1.18
8045.00,1.18
8044.00,1.18
8043.00,1.18
8042.00,1.18
8041.00,1.18
8040.00,1.18
8039.00,1.18
8038.00,1.18
8037.00,1.18
8036.00,1.18
8035.00,1.18
8034.00,1.18
8033.00,1.18
8032.00,1.18
8031.00,1.18
8030.00,1.18
8029.00,1.18
8028.00,1.18
8027.00,1.18
8026.00,1.18
8025.00,1.18
8024.00,1.18
8023.00,1.18
8022.00,1.18
8021.00,1.19
8020.00,1.19
8019.00,1.19
8018.00,1.19
8017.00,1.19
8016.00,1.19
8015.00,1.19
8014.00,1.20
8013.00,1.20
8012.00,1.20
8011.00,1.20
8010.00,1.20
8009.00,1.20
8008.00,1.20
8007.00,1.20
8006.00,1.20
8005.00,1.20
8004.00,1.20
8003.00,1.20
8002.00,1.20
8001.00,1.20
8000.00,1.20
7999.00,1.20
7998.00,1.20
7997.00,1.20
7996.00,1.20
7995.00,1.20
7994.00,1.20
7993.00,1.20
7992.00,1.20
7991.00,1.20
7990.00,1.20
7989.00,1.20
7988.00,1.20
7987.00,1.20
7986.00,1.20
7985.00,1.20
7984.00,1.20
7983.00,1.20
7982.00,1.20
7981.00,1.20
7980.00,1.20
7979.00,1.20
7978.00,1.20
7977.00,1.20
7976.00,1.20
7975.00,1.20
7974.00,1.20
7973.00,1.20
7972.00,1.20
7971.00,1.20
7970.00,1.20
7969.00,1.20
7968.00,1.20
7967.00,1.20
7966.00,1.20
7965.00,1.20
7964.00,1.20
7963.00,1.20
7962.00,1.20
7961.00,1.20
7960.00,1.21
7959.00,1.21
7958.00,1.21
7957.00,1.21
7956.00,1.21
7955.00,1.21
7954.00,1.21
7953.00,1.21
7952.00,1.20
7951.00,1.20
7950.00,1.20
7949.00,1.20
7948.00,1.20
7947.00,1.20
7946.00,1.20
7945.00,1.20
7944.00,1.20
7943.00,1.20
7942.00,1.21
7941.00,1.21
7940.00,1.21
7939.00,1.21
7938.00,1.21
7937.00,1.21
7936.00,1.21
7935.00,1.21
7934.00,1.21
7933.00,1.21
7932.00,1.21
7931.00,1.21
7930.00,1.21
7929.00,1.21
7928.00,1.21
7927.00,1.21
7926.00,1.21
7925.00,1.21
7924.00,1.21
7923.00,1.21
7922.00,1.21
7921.00,1.21
7920.00,1.21
7919.00,1.21
7918.00,1.21
7917.00,1.20
7916.00,1.20
7915.00,1.20
7914.00,1.20
7913.00,1.20
7912.00,1.20
7911.00,1.20
7910.00,1.20
7909.00,1.20
7908.00,1.20
7907.00,1.20
7906.00,1.20
7905.00,1.20
7904.00,1.20
7903.00,1.20
7902.00,1.20
7901.00,1.20
7900.00,1.20
7899.00,1.20
7898.00,1.20
7897.00,1.20
7896.00,1.20
7895.00,1.20
7894.00,1.20
7893.00,1.20
7892.00,1.21
7891.00,1.21
7890.00,1.21
7889.00,1.21
7888.00,1.21
7887.00,1.21
7886.00,1.21
7885.00,1.21
7884.00,1.21
7883.00,1.21
7882.00,1.21
7881.00,1.21
7880.00,1.21
7879.00,1.21
7878.00,1.21
7877.00,1.21
7876.00,1.21
7875.00,1.21
7874.00,1.21
7873.00,1.21
7872.00,1.21
7871.00,1.21
7870.00,1.21
7869.00,1.21
7868.00,1.21
7867.00,1.21
7866.00,1.21
7865.00,1.21
7864.00,1.21
7863.00,1.21
7862.00,1.21
7861.00,1.21
7860.00,1.21
7859.00,1.21
7858.00,1.21
7857.00,1.21
7856.00,1.21
7855.00,1.21
7854.00,1.21
7853.00,1.21
7852.00,1.21
7851.00,1.21
7850.00,1.21
7849.00,1.21
7848.00,1.21
7847.00,1.21
7846.00,1.22
7845.00,1.22
7844.00,1.22
7843.00,1.22
7842.00,1.22
7841.00,1.22
7840.00,1.22
7839.00,1.22
7838.00,1.22
7837.00,1.22
7836.00,1.22
7835.00,1.22
7834.00,1.22
7833.00,1.22
7832.00,1.22
7831.00,1.22
7830.00,1.22
7829.00,1.22
7828.00,1.22
7827.00,1.22
7826.00,1.22
7825.00,1.22
7824.00,1.22
7823.00,1.22
7822.00,1.22
7821.00,1.22
7820.00,1.22
7819.00,1.22
7818.00,1.22
7817.00,1.22
7816.00,1.22
7815.00,1.23
7814.00,1.23
7813.00,1.23
7812.00,1.23
7811.00,1.23
7810.00,1.23
7809.00,1.23
7808.00,1.23
7807.00,1.23
7806.00,1.23
7805.00,1.23
7804.00,1.23
7803.00,1.23
7802.00,1.23
7801.00,1.23
7800.00,1.23
7799.00,1.23
7798.00,1.23
7797.00,1.23
7796.00,1.23
7795.00,1.23
7794.00,1.23
7793.00,1.23
7792.00,1.23
7791.00,1.23
7790.00,1.23
7789.00,1.23
7788.00,1.23
7787.00,1.22
7786.00,1.22
7785.00,1.22
7784.00,1.22
7783.00,1.22
7782.00,1.22
7781.00,1.22
7780.00,1.22
7779.00,1.22
7778.00,1.22
7777.00,1.22
7776.00,1.22
7775.00,1.22
7774.00,1.23
7773.00,1.23
7772.00,1.23
7771.00,1.23
7770.00,1.23
7769.00,1.23
7768.00,1.23
7767.00,1.23
7766.00,1.23
7765.00,1.23
7764.00,1.23
7763.00,1.24
7762.00,1.24
7761.00,1.24
7760.00,1.24
7759.00,1.24
7758.00,1.24
7757.00,1.24
7756.00,1.24
7755.00,1.24
7754.00,1.24
7753.00,1.24
7752.00,1.24
7751.00,1.24
7750.00,1.24
7749.00,1.24
7748.00,1.24
7747.00,1.24
7746.00,1.24
7745.00,1.24
7744.00,1.24
7743.00,1.24
7742.00,1.24
7741.00,1.24
7740.00,1.24
7739.00,1.24
7738.00,1.24
7737.00,1.24
7736.00,1.24
7735.00,1.24
7734.00,1.24
7733.00,1.24
7732.00,1.24
7731.00,1.24
7730.00,1.24
7729.00,1.24
7728.00,1.24
7727.00,1.24
7726.00,1.24
7725.00,1.24
7724.00,1.24
7723.00,1.24
7722.00,1.24
7721.00,1.24
7720.00,1.24
7719.00,1.24
7718.00,1.24
7717.00,1.24
7716.00,1.24
7715.00,1.24
7714.00,1.24
7713.00,1.24
7712.00,1.24
7711.00,1.24
7710.00,1.24
7709.00,1.24
7708.00,1.24
7707.00,1.24
7706.00,1.23
7705.00,1.23
7704.00,1.23
7703.00,1.23
7702.00,1.23
7701.00,1.23
7700.00,1.23
7699.00,1.24
7698.00,1.24
7697.00,1.24
7696.00,1.24
7695.00,1.24
7694.00,1.24
7693.00,1.24
7692.00,1.24
7691.00,1.24
7690.00,1.24
7689.00,1.24
7688.00,1.24
7687.00,1.24
7686.00,1.24
7685.00,1.24
7684.00,1.24
7683.00,1.24
7682.00,1.24
7681.00,1.24
7680.00,1.24
7679.00,1.24
7678.00,1.24
7677.00,1.23
7676.00,1.23
7675.00,1.23
7674.00,1.23
7673.00,1.23
7672.00,1.24
7671.00,1.24
7670.00,1.24
7669.00,1.24
7668.00,1.24
7667.00,1.24
7666.00,1.24
7665.00,1.24
7664.00,1.24
7663.00,1.24
7662.00,1.24
7661.00,1.24
7660.00,1.24
7659.00,1.24
7658.00,1.24
7657.00,1.24
7656.00,1.24
7655.00,1.24
7654.00,1.24
7653.00,1.24
7652.00,1.24
7651.00,1.24
7650.00,1.24
7649.00,1.24
7648.00,1.24
7647.00,1.24
7646.00,1.24
7645.00,1.24
7644.00,1.24
7643.00,1.24
7642.00,1.24
7641.00,1.24
7640.00,1.24
7639.00,1.24
7638.00,1.24
7637.00,1.23
7636.00,1.23
7635.00,1.23
7634.00,1.23
7633.00,1.23
7632.00,1.23
7631.00,1.23
7630.00,1.23
7629.00,1.23
7628.00,1.23
7627.00,1.23
7626.00,1.23
7625.00,1.23
7624.00,1.23
7623.00,1.23
7622.00,1.24
7621.00,1.24
7620.00,1.24
7619.00,1.24
7618.00,1.24
7617.00,1.24
7616.00,1.24
7615.00,1.24
7614.00,1.24
7613.00,1.24
7612.00,1.24
7611.00,1.24
7610.00,1.24
7609.00,1.24
7608.00,1.24
7607.00,1.24
7606.00,1.24
7605.00,1.24
7604.00,1.24
7603.00,1.24
7602.00,1.24
7601.00,1.24
7600.00,1.24
7599.00,1.24
7598.00,1.24
7597.00,1.24
7596.00,1.24
7595.00,1.24
7594.00,1.24
7593.00,1.24
7592.00,1.24
7591.00,1.24
7590.00,1.24
7589.00,1.24
7588.00,1.24
7587.00,1.24
7586.00,1.24
7585.00,1.24
7584.00,1.24
7583.00,1.24
7582.00,1.24
7581.00,1.24
7580.00,1.24
7579.00,1.24
7578.00,1.24
7577.00,1.24
7576.00,1.24
7575.00,1.24
7574.00,1.24
7573.00,1.24
7572.00,1.24
7571.00,1.24
7570.00,1.24
7569.00,1.24
7568.00,1.24
7567.00,1.24
7566.00,1.24
7565.00,1.24
7564.00,1.24
7563.00,1.24
7562.00,1.24
7561.00,1.24
7560.00,1.24
7559.00,1.24
7558.00,1.24
7557.00,1.24
7556.00,1.24
7555.00,1.23
7554.00,1.23
7553.00,1.23
7552.00,1.23
7551.00,1.23
7550.00,1.23
7549.00,1.23
7548.00,1.23
7547.00,1.23
7546.00,1.23
7545.00,1.23
7544.00,1.22
7543.00,1.22
7542.00,1.22
7541.00,1.22
7540.00,1.22
7539.00,1.22
7538.00,1.22
7537.00,1.22
7536.00,1.22
7535.00,1.22
7534.00,1.22
7533.00,1.22
7532.00,1.22
7531.00,1.22
7530.00,1.22
7529.00,1.22
7528.00,1.22
7527.00,1.22
7526.00,1.22
7525.00,1.22
7524.00,1.22
7523.00,1.21
7522.00,1.21
7521.00,1.21
7520.00,1.21
7519.00,1.21
7518.00,1.21
7517.00,1.21
7516.00,1.21
7515.00,1.21
7514.00,1.21
7513.00,1.21
7512.00,1.21
7511.00,1.21
7510.00,1.21
7509.00,1.21
7508.00,1.21
7507.00,1.21
7506.00,1.21
7505.00,1.21
7504.00,1.21
7503.00,1.21
7502.00,1.21
7501.00,1.21
7500.00,1.21
7499.00,1.21
7498.00,1.21
7497.00,1.21
7496.00,1.20
7495.00,1.20
7494.00,1.20
7493.00,1.20
7492.00,1.20
7491.00,1.20
7490.00,1.20
7489.00,1.20
7488.00,1.20
7487.00,1.20
7486.00,1.20
7485.00,1.20
7484.00,1.20
7483.00,1.20
7482.00,1.20
7481.00,1.20
7480.00,1.20
7479.00,1.20
7478.00,1.20
7477.00,1.20
7476.00,1.20
7475.00,1.20
7474.00,1.20
7473.00,1.20
7472.00,1.20
7471.00,1.20
7470.00,1.20
7469.00,1.19
7468.00,1.19
7467.00,1.19
7466.00,1.19
7465.00,1.19
7464.00,1.19
7463.00,1.19
7462.00,1.19
7461.00,1.19
7460.00,1.19
7459.00,1.19
7458.00,1.19
7457.00,1.19
7456.00,1.18
7455.00,1.18
7454.00,1.18
7453.00,1.18
7452.00,1.18
7451.00,1.18
7450.00,1.18
7449.00,1.18
7448.00,1.18
7447.00,1.18
7446.00,1.18
7445.00,1.18
7444.00,1.18
7443.00,1.18
7442.00,1.18
7441.00,1.18
7440.00,1.18
7439.00,1.18
7438.00,1.17
7437.00,1.17
7436.00,1.17
7435.00,1.17
7434.00,1.17
7433.00,1.17
7432.00,1.17
7431.00,1.17
7430.00,1.17
7429.00,1.16
7428.00,1.16
7427.00,1.16
7426.00,1.16
7425.00,1.16
7424.00,1.16
7423.00,1.16
7422.00,1.16
7421.00,1.16
7420.00,1.16
7419.00,1.15
7418.00,1.15
7417.00,1.15
7416.00,1.15
7415.00,1.15
7414.00,1.15
7413.00,1.15
7412.00,1.15
7411.00,1.15
7410.00,1.15
7409.00,1.15
7408.00,1.15
7407.00,1.15
7406.00,1.15
7405.00,1.15
7404.00,1.15
7403.00,1.15
7402.00,1.14
7401.00,1.14
7400.00,1.14
7399.00,1.14
7398.00,1.14
7397.00,1.14
7396.00,1.13
7395.00,1.13
7394.00,1.13
7393.00,1.13
7392.00,1.13
7391.00,1.13
7390.00,1.13
7389.00,1.13
7388.00,1.12
7387.00,1.12
7386.00,1.12
7385.00,1.12
7384.00,1.12
7383.00,1.12
7382.00,1.12
7381.00,1.12
7380.00,1.12
7379.00,1.12
7378.00,1.12
7377.00,1.12
7376.00,1.12
7375.00,1.12
7374.00,1.12
7373.00,1.12
7372.00,1.12
7371.00,1.12
7370.00,1.12
7369.00,1.12
7368.00,1.12
7367.00,1.12
7366.00,1.12
7365.00,1.12
7364.00,1.11
7363.00,1.11
7362.00,1.11
7361.00,1.11
7360.00,1.11
7359.00,1.11
7358.00,1.11
7357.00,1.11
7356.00,1.11
7355.00,1.11
7354.00,1.11
7353.00,1.11
7352.00,1.11
7351.00,1.11
7350.00,1.11
7349.00,1.11
7348.00,1.11
7347.00,1.11
7346.00,1.11
7345.00,1.11
7344.00,1.11
7343.00,1.11
7342.00,1.11
7341.00,1.11
7340.00,1.11
7339.00,1.10
7338.00,1.10
7337.00,1.10
7336.00,1.10
7335.00,1.10
7334.00,1.10
7333.00,1.10
7332.00,1.10
7331.00,1.10
7330.00,1.10
7329.00,1.10
7328.00,1.10
7327.00,1.10
7326.00,1.10
7325.00,1.10
7324.00,1.10
7323.00,1.10
7322.00,1.10
7321.00,1.09
7320.00,1.09
7319.00,1.09
7318.00,1.09
7317.00,1.09
7316.00,1.09
7315.00,1.09
7314.00,1.09
7313.00,1.09
7312.00,1.09
7311.00,1.09
7310.00,1.08
7309.00,1.08
7308.00,1.08
7307.00,1.08
7306.00,1.08
7305.00,1.08
7304.00,1.08
7303.00,1.08
7302.00,1.08
7301.00,1.08
7300.00,1.08
7299.00,1.08
7298.00,1.07
7297.00,1.07
7296.00,1.07
7295.00,1.07
7294.00,1.07
7293.00,1.07
7292.00,1.07
7291.00,1.07
7290.00,1.07
7289.00,1.07
7288.00,1.07
7287.00,1.07
7286.00,1.06
7285.00,1.06
7284.00,1.06
7283.00,1.06
7282.00,1.06
7281.00,1.06
7280.00,1.06
7279.00,1.06
7278.00,1.05
7277.00,1.05
7276.00,1.05
7275.00,1.05
7274.00,1.05
7273.00,1.04
7272.00,1.04
7271.00,1.04
7270.00,1.04
7269.00,1.04
7268.00,1.04
7267.00,1.03
7266.00,1.03
7265.00,1.03
7264.00,1.03
7263.00,1.03
7262.00,1.03
7261.00,1.02
7260.00,1.02
7259.00,1.02
7258.00,1.02
7257.00,1.02
7256.00,1.02
7255.00,1.02
7254.00,1.01
7253.00,1.01
7252.00,1.01
7251.00,1.01
7250.00,1.01
7249.00,1.00
7248.00,1.00
7247.00,1.00
7246.00,1.00
7245.00,1.00
7244.00,0.99
7243.00,0.99
7242.00,0.99
7241.00,0.99
7240.00,0.98
7239.00,0.98
7238.00,0.98
7237.00,0.97
7236.00,0.97
7235.00,0.97
7234.00,0.97
7233.00,0.96
7232.00,0.96
7231.00,0.96
7230.00,0.95
7229.00,0.95
7228.00,0.94
7227.00,0.94
7226.00,0.94
7225.00,0.93
7224.00,0.93
7223.00,0.93
7222.00,0.92
7221.00,0.92
7220.00,0.92
7219.00,0.91
7218.00,0.91
7217.00,0.90
7216.00,0.90
7215.00,0.90
7214.00,0.89
7213.00,0.89
7212.00,0.89
7211.00,0.89
7210.00,0.88
7209.00,0.88
7208.00,0.88
7207.00,0.87
7206.00,0.87
7205.00,0.87
7204.00,0.86
7203.00,0.86
7202.00,0.86
7201.00,0.86
7200.00,0.86
7199.00,0.85
7198.00,0.85
7197.00,0.85
7196.00,0.85
7195.00,0.84
7194.00,0.84
7193.00,0.84
7192.00,0.84
7191.00,0.83
7190.00,0.83
7189.00,0.83
7188.00,0.82
7187.00,0.82
7186.00,0.81
7185.00,0.81
7184.00,0.81
7183.00,0.80
7182.00,0.80
7181.00,0.79
7180.00,0.79
7179.00,0.79
7178.00,0.78
7177.00,0.78
7176.00,0.77
7175.00,0.77
7174.00,0.77
7173.00,0.76
7172.00,0.76
7171.00,0.76
7170.00,0.76
7169.00,0.75
7168.00,0.75
7167.00,0.75
7166.00,0.75
7165.00,0.74
7164.00,0.74
7163.00,0.74
7162.00,0.74
7161.00,0.74
7160.00,0.73
7159.00,0.73
7158.00,0.73
7157.00,0.73
7156.00,0.73
7155.00,0.72
7154.00,0.72
7153.00,0.72
7152.00,0.71
7151.00,0.71
7150.00,0.71
7149.00,0.71
7148.00,0.70
7147.00,0.70
7146.00,0.70
7145.00,0.70
7144.00,0.69
7143.00,0.69
7142.00,0.69
7141.00,0.69
7140.00,0.68
7139.00,0.68
7138.00,0.68
7137.00,0.68
7136.00,0.68
7135.00,0.67
7134.00,0.67
7133.00,0.67
7132.00,0.67
7131.00,0.67
7130.00,0.67
7129.00,0.66
7128.00,0.66
7127.00,0.66
7126.00,0.66
7125.00,0.65
7124.00,0.65
7123.00,0.65
7122.00,0.65
7121.00,0.64
7120.00,0.64
7119.00,0.64
7118.00,0.64
7117.00,0.64
7116.00,0.63
7115.00,0.63
7114.00,0.63
7113.00,0.63
7112.00,0.63
7111.00,0.63
7110.00,0.63
7109.00,0.62
7108.00,0.62
7107.00,0.62
7106.00,0.62
7105.00,0.62
7104.00,0.61
7103.00,0.61
7102.00,0.61
7101.00,0.61
7100.00,0.61
7099.00,0.60
7098.00,0.60
7097.00,0.60
7096.00,0.60
7095.00,0.60
7094.00,0.59
7093.00,0.59
7092.00,0.59
7091.00,0.59
7090.00,0.59
7089.00,0.59
7088.00,0.59
7087.00,0.58
7086.00,0.58
7085.00,0.58
7084.00,0.58
7083.00,0.58
7082.00,0.58
7081.00,0.58
7080.00,0.58
7079.00,0.58
7078.00,0.57
7077.00,0.57
7076.00,0.57
7075.00,0.57
7074.00,0.57
7073.00,0.57
7072.00,0.57
7071.00,0.57
7070.00,0.56
7069.00,0.56
7068.00,0.56
7067.00,0.56
7066.00,0.56
7065.00,0.56
7064.00,0.55
7063.00,0.55
7062.00,0.55
7061.00,0.55
7060.00,0.55
7059.00,0.55
7058.00,0.55
7057.00,0.55
7056.00,0.55
7055.00,0.54
7054.00,0.54
7053.00,0.54
7052.00,0.54
7051.00,0.54
7050.00,0.54
7049.00,0.54
7048.00,0.54
7047.00,0.54
7046.00,0.54
7045.00,0.54
7044.00,0.54
7043.00,0.54
7042.00,0.54
7041.00,0.54
7040.00,0.54
7039.00,0.54
7038.00,0.54
7037.00,0.54
7036.00,0.54
7035.00,0.54
7034.00,0.54
7033.00,0.54
7032.00,0.54
7031.00,0.54
7030.00,0.54
7029.00,0.54
7028.00,0.53
7027.00,0.53
7026.00,0.53
7025.00,0.53
7024.00,0.53
7023.00,0.53
7022.00,0.53
7021.00,0.53
7020.00,0.53
7019.00,0.53
7018.00,0.53
7017.00,0.53
7016.00,0.52
7015.00,0.52
7014.00,0.52
7013.00,0.52
7012.00,0.52
7011.00,0.52
7010.00,0.52
7009.00,0.52
7008.00,0.52
7007.00,0.52
7006.00,0.52
7005.00,0.52
7004.00,0.52
7003.00,0.52
7002.00,0.52
7001.00,0.52
7000.00,0.52
6999.00,0.52
6998.00,0.52
6997.00,0.52
6996.00,0.52
6995.00,0.52
6994.00,0.52
6993.00,0.52
6992.00,0.52
6991.00,0.51
6990.00,0.51
6989.00,0.51
6988.00,0.51
6987.00,0.51
6986.00,0.51
6985.00,0.51
6984.00,0.51
6983.00,0.51
6982.00,0.51
6981.00,0.51
6980.00,0.51
6979.00,0.51
6978.00,0.51
6977.00,0.51
6976.00,0.51
6975.00,0.51
6974.00,0.51
6973.00,0.51
6972.00,0.51
6971.00,0.51
6970.00,0.51
6969.00,0.51
6968.00,0.51
6967.00,0.51
6966.00,0.51
6965.00,0.51
6964.00,0.51
6963.00,0.51
6962.00,0.51
6961.00,0.51
6960.00,0.51
6959.00,0.51
6958.00,0.51
6957.00,0.51
6956.00,0.51
6955.00,0.51
6954.00,0.51
6953.00,0.50
6952.00,0.50
6951.00,0.50
6950.00,0.50
6949.00,0.50
6948.00,0.50
6947.00,0.50
6946.00,0.50
6945.00,0.50
6944.00,0.50
6943.00,0.50
6942.00,0.50
6941.00,0.50
6940.00,0.50
6939.00,0.50
6938.00,0.50
6937.00,0.50
6936.00,0.50
6935.00,0.50
6934.00,0.50
6933.00,0.50
6932.00,0.50
6931.00,0.50
6930.00,0.50
6929.00,0.50
6928.00,0.50
6927.00,0.50
6926.00,0.50
6925.00,0.50
6924.00,0.50
6923.00,0.50
6922.00,0.50
6921.00,0.50
6920.00,0.50
6919.00,0.50
6918.00,0.50
6917.00,0.50
6916.00,0.50
6915.00,0.50
6914.00,0.51
6913.00,0.51
6912.00,0.51
6911.00,0.51
6910.00,0.50
6909.00,0.50
6908.00,0.50
6907.00,0.50
6906.00,0.50
6905.00,0.50
6904.00,0.50
6903.00,0.50
6902.00,0.50
6901.00,0.50
6900.00,0.50
6899.00,0.50
6898.00,0.50
6897.00,0.50
6896.00,0.51
6895.00,0.51
6894.00,0.51
6893.00,0.51
6892.00,0.51
6891.00,0.51
6890.00,0.51
6889.00,0.51
6888.00,0.51
6887.00,0.51
6886.00,0.51
6885.00,0.51
6884.00,0.51
6883.00,0.51
6882.00,0.51
6881.00,0.51
6880.00,0.51
6879.00,0.51
6878.00,0.51
6877.00,0.51
6876.00,0.51
6875.00,0.51
6874.00,0.51
6873.00,0.51
6872.00,0.51
6871.00,0.51
6870.00,0.51
6869.00,0.51
6868.00,0.51
6867.00,0.51
6866.00,0.51
6865.00,0.51
6864.00,0.51
6863.00,0.51
6862.00,0.51
6861.00,0.51
6860.00,0.51
6859.00,0.51
6858.00,0.51
6857.00,0.51
6856.00,0.50
6855.00,0.50
6854.00,0.50
6853.00,0.50
6852.00,0.50
6851.00,0.50
6850.00,0.50
6849.00,0.50
6848.00,0.51
6847.00,0.51
6846.00,0.51
6845.00,0.51
6844.00,0.51
6843.00,0.51
6842.00,0.51
6841.00,0.51
6840.00,0.51
6839.00,0.51
6838.00,0.51
6837.00,0.51
6836.00,0.51
6835.00,0.51
6834.00,0.51
6833.00,0.51
6832.00,0.51
6831.00,0.51
6830.00,0.51
6829.00,0.51
6828.00,0.51
6827.00,0.51
6826.00,0.51
6825.00,0.51
6824.00,0.51
6823.00,0.51
6822.00,0.51
6821.00,0.51
6820.00,0.51
6819.00,0.51
6818.00,0.51
6817.00,0.51
6816.00,0.51
6815.00,0.51
6814.00,0.51
6813.00,0.51
6812.00,0.51
6811.00,0.52
6810.00,0.52
6809.00,0.52
6808.00,0.52
6807.00,0.52
6806.00,0.52
6805.00,0.52
6804.00,0.52
6803.00,0.52
6802.00,0.52
6801.00,0.52
6800.00,0.52
6799.00,0.52
6798.00,0.52
6797.00,0.52
6796.00,0.52
6795.00,0.52
6794.00,0.52
6793.00,0.52
6792.00,0.52
6791.00,0.52
6790.00,0.52
6789.00,0.52
6788.00,0.52
6787.00,0.52
6786.00,0.52
6785.00,0.52
6784.00,0.52
6783.00,0.52
6782.00,0.52
6781.00,0.52
6780.00,0.52
6779.00,0.52
6778.00,0.52
6777.00,0.52
6776.00,0.52
6775.00,0.52
6774.00,0.52
6773.00,0.52
6772.00,0.52
6771.00,0.52
6770.00,0.52
6769.00,0.52
6768.00,0.52
6767.00,0.53
6766.00,0.53
6765.00,0.53
6764.00,0.53
6763.00,0.53
6762.00,0.53
6761.00,0.53
6760.00,0.53
6759.00,0.53
6758.00,0.53
6757.00,0.54
6756.00,0.54
6755.00,0.54
6754.00,0.54
6753.00,0.54
6752.00,0.54
6751.00,0.54
6750.00,0.54
6749.00,0.54
6748.00,0.54
6747.00,0.54
6746.00,0.54
6745.00,0.54
6744.00,0.54
6743.00,0.54
6742.00,0.54
6741.00,0.54
6740.00,0.54
6739.00,0.54
6738.00,0.54
6737.00,0.54
6736.00,0.54
6735.00,0.54
6734.00,0.54
6733.00,0.54
6732.00,0.54
6731.00,0.54
6730.00,0.54
6729.00,0.54
6728.00,0.54
6727.00,0.54
6726.00,0.54
6725.00,0.54
6724.00,0.55
6723.00,0.55
6722.00,0.55
6721.00,0.55
6720.00,0.55
6719.00,0.55
6718.00,0.55
6717.00,0.55
6716.00,0.55
6715.00,0.55
6714.00,0.56
6713.00,0.56
6712.00,0.56
6711.00,0.56
6710.00,0.56
6709.00,0.56
6708.00,0.56
6707.00,0.56
6706.00,0.56
6705.00,0.56
6704.00,0.56
6703.00,0.56
6702.00,0.56
6701.00,0.57
6700.00,0.57
6699.00,0.57
6698.00,0.57
6697.00,0.57
6696.00,0.57
6695.00,0.57
6694.00,0.57
6693.00,0.57
6692.00,0.57
6691.00,0.57
6690.00,0.57
6689.00,0.57
6688.00,0.57
6687.00,0.57
6686.00,0.57
6685.00,0.57
6684.00,0.57
6683.00,0.57
6682.00,0.57
6681.00,0.57
6680.00,0.57
6679.00,0.57
6678.00,0.57
6677.00,0.57
6676.00,0.57
6675.00,0.57
6674.00,0.58
6673.00,0.58
6672.00,0.58
6671.00,0.58
6670.00,0.58
6669.00,0.58
6668.00,0.58
6667.00,0.58
6666.00,0.58
6665.00,0.58
6664.00,0.58
6663.00,0.58
6662.00,0.58
6661.00,0.58
6660.00,0.58
6659.00,0.58
6658.00,0.59
6657.00,0.59
6656.00,0.59
6655.00,0.59
6654.00,0.59
6653.00,0.59
6652.00,0.59
6651.00,0.59
6650.00,0.59
6649.00,0.60
6648.00,0.60
6647.00,0.60
6646.00,0.60
6645.00,0.60
6644.00,0.60
6643.00,0.60
6642.00,0.60
6641.00,0.60
6640.00,0.60
6639.00,0.60
6638.00,0.60
6637.00,0.60
6636.00,0.60
6635.00,0.60
6634.00,0.61
6633.00,0.61
6632.00,0.61
6631.00,0.61
6630.00,0.61
6629.00,0.61
6628.00,0.61
6627.00,0.61
6626.00,0.61
6625.00,0.61
6624.00,0.61
6623.00,0.61
6622.00,0.62
6621.00,0.62
6620.00,0.62
6619.00,0.62
6618.00,0.62
6617.00,0.62
6616.00,0.62
6615.00,0.62
6614.00,0.62
6613.00,0.62
6612.00,0.62
6611.00,0.62
6610.00,0.62
6609.00,0.63
6608.00,0.63
6607.00,0.63
6606.00,0.63
6605.00,0.63
6604.00,0.63
6603.00,0.63
6602.00,0.63
6601.00,0.63
6600.00,0.63
6599.00,0.63
6598.00,0.63
6597.00,0.64
6596.00,0.64
6595.00,0.64
6594.00,0.64
6593.00,0.64
6592.00,0.64
6591.00,0.64
6590.00,0.63
6589.00,0.63
6588.00,0.63
6587.00,0.63
6586.00,0.63
6585.00,0.63
6584.00,0.63
6583.00,0.63
6582.00,0.63
6581.00,0.63
6580.00,0.64
6579.00,0.64
6578.00,0.64
6577.00,0.64
6576.00,0.64
6575.00,0.64
6574.00,0.64
6573.00,0.64
6572.00,0.64
6571.00,0.64
6570.00,0.65
6569.00,0.65
6568.00,0.65
6567.00,0.65
6566.00,0.65
6565.00,0.65
6564.00,0.65
6563.00,0.65
6562.00,0.65
6561.00,0.66
6560.00,0.66
6559.00,0.66
6558.00,0.66
6557.00,0.66
6556.00,0.66
6555.00,0.66
6554.00,0.66
6553.00,0.66
6552.00,0.67
6551.00,0.67
6550.00,0.67
6549.00,0.67
6548.00,0.67
6547.00,0.67
6546.00,0.67
6545.00,0.67
6544.00,0.67
6543.00,0.67
6542.00,0.67
6541.00,0.67
6540.00,0.67
6539.00,0.68
6538.00,0.68
6537.00,0.68
6536.00,0.68
6535.00,0.68
6534.00,0.68
6533.00,0.68
6532.00,0.68
6531.00,0.68
6530.00,0.68
6529.00,0.68
6528.00,0.68
6527.00,0.68
6526.00,0.68
6525.00,0.68
6524.00,0.68
6523.00,0.69
6522.00,0.69
6521.00,0.69
6520.00,0.69
6519.00,0.69
6518.00,0.69
6517.00,0.69
6516.00,0.69
6515.00,0.69
6514.00,0.69
6513.00,0.69
6512.00,0.69
6511.00,0.69
6510.00,0.69
6509.00,0.69
6508.00,0.69
6507.00,0.69
6506.00,0.69
6505.00,0.70
6504.00,0.70
6503.00,0.70
6502.00,0.70
6501.00,0.70
6500.00,0.70
6499.00,0.70
6498.00,0.70
6497.00,0.70
6496.00,0.70
6495.00,0.71
6494.00,0.71
6493.00,0.71
6492.00,0.71
6491.00,0.71
6490.00,0.71
6489.00,0.71
6488.00,0.71
6487.00,0.71
6486.00,0.71
6485.00,0.71
6484.00,0.71
6483.00,0.71
6482.00,0.71
6481.00,0.71
6480.00,0.71
6479.00,0.71
6478.00,0.71
6477.00,0.71
6476.00,0.71
6475.00,0.71
6474.00,0.71
6473.00,0.72
6472.00,0.72
6471.00,0.72
6470.00,0.72
6469.00,0.72
6468.00,0.72
6467.00,0.72
6466.00,0.72
6465.00,0.72
6464.00,0.72
6463.00,0.72
6462.00,0.72
6461.00,0.72
6460.00,0.72
6459.00,0.72
6458.00,0.72
6457.00,0.72
6456.00,0.72
6455.00,0.72
6454.00,0.72
6453.00,0.72
6452.00,0.72
6451.00,0.72
6450.00,0.72
6449.00,0.72
6448.00,0.72
6447.00,0.73
6446.00,0.73
6445.00,0.73
6444.00,0.73
6443.00,0.73
6442.00,0.73
6441.00,0.73
6440.00,0.73
6439.00,0.73
6438.00,0.73
6437.00,0.73
6436.00,0.73
6435.00,0.73
6434.00,0.74
6433.00,0.74
6432.00,0.74
6431.00,0.74
6430.00,0.74
6429.00,0.74
6428.00,0.74
6427.00,0.74
6426.00,0.74
6425.00,0.74
6424.00,0.74
6423.00,0.75
6422.00,0.75
6421.00,0.75
6420.00,0.75
6419.00,0.75
6418.00,0.75
6417.00,0.75
6416.00,0.75
6415.00,0.75
6414.00,0.75
6413.00,0.75
6412.00,0.75
6411.00,0.75
6410.00,0.75
6409.00,0.75
6408.00,0.75
6407.00,0.75
6406.00,0.75
6405.00,0.75
6404.00,0.75
6403.00,0.75
6402.00,0.75
6401.00,0.75
6400.00,0.75
6399.00,0.75
6398.00,0.75
6397.00,0.75
6396.00,0.75
6395.00,0.75
6394.00,0.76
6393.00,0.76
6392.00,0.76
6391.00,0.76
6390.00,0.76
6389.00,0.76
6388.00,0.76
6387.00,0.76
6386.00,0.76
6385.00,0.76
6384.00,0.76
6383.00,0.76
6382.00,0.76
6381.00,0.76
6380.00,0.76
6379.00,0.77
6378.00,0.77
6377.00,0.77
6376.00,0.77
6375.00,0.77
6374.00,0.77
6373.00,0.77
6372.00,0.77
6371.00,0.77
6370.00,0.77
6369.00,0.77
6368.00,0.78
6367.00,0.78
6366.00,0.78
6365.00,0.78
6364.00,0.78
6363.00,0.78
6362.00,0.78
6361.00,0.78
6360.00,0.78
6359.00,0.78
6358.00,0.78
6357.00,0.78
6356.00,0.78
6355.00,0.79
6354.00,0.79
6353.00,0.79
6352.00,0.79
6351.00,0.79
6350.00,0.79
6349.00,0.79
6348.00,0.79
6347.00,0.79
6346.00,0.79
6345.00,0.79
6344.00,0.79
6343.00,0.79
6342.00,0.79
6341.00,0.79
6340.00,0.79
6339.00,0.79
6338.00,0.79
6337.00,0.79
6336.00,0.80
6335.00,0.80
6334.00,0.80
6333.00,0.80
6332.00,0.80
6331.00,0.80
6330.00,0.80
6329.00,0.80
6328.00,0.80
6327.00,0.81
6326.00,0.81
6325.00,0.81
6324.00,0.81
6323.00,0.81
6322.00,0.81
6321.00,0.81
6320.00,0.81
6319.00,0.81
6318.00,0.81
6317.00,0.81
6316.00,0.82
6315.00,0.82
6314.00,0.82
6313.00,0.82
6312.00,0.82
6311.00,0.82
6310.00,0.82
6309.00,0.82
6308.00,0.82
6307.00,0.82
6306.00,0.82
6305.00,0.82
6304.00,0.82
6303.00,0.83
6302.00,0.83
6301.00,0.83
6300.00,0.83
6299.00,0.83
6298.00,0.83
6297.00,0.83
6296.00,0.83
6295.00,0.83
6294.00,0.83
6293.00,0.83
6292.00,0.84
6291.00,0.84
6290.00,0.84
6289.00,0.84
6288.00,0.84
6287.00,0.84
6286.00,0.84
6285.00,0.84
6284.00,0.85
6283.00,0.85
6282.00,0.85
6281.00,0.85
6280.00,0.85
6279.00,0.85
6278.00,0.85
6277.00,0.85
6276.00,0.86
6275.00,0.86
6274.00,0.86
6273.00,0.86
6272.00,0.86
6271.00,0.86
6270.00,0.86
6269.00,0.86
6268.00,0.86
6267.00,0.87
6266.00,0.87
6265.00,0.87
6264.00,0.87
6263.00,0.87
6262.00,0.87
6261.00,0.87
6260.00,0.87
6259.00,0.87
6258.00,0.87
6257.00,0.87
6256.00,0.87
6255.00,0.88
6254.00,0.88
6253.00,0.88
6252.00,0.88
6251.00,0.88
6250.00,0.88
6249.00,0.88
6248.00,0.88
6247.00,0.88
6246.00,0.88
6245.00,0.88
6244.00,0.88
6243.00,0.89
6242.00,0.89
6241.00,0.89
6240.00,0.89
6239.00,0.89
6238.00,0.89
6237.00,0.90
6236.00,0.90
6235.00,0.90
6234.00,0.90
6233.00,0.90
6232.00,0.90
6231.00,0.91
6230.00,0.91
6229.00,0.91
6228.00,0.91
6227.00,0.91
6226.00,0.91
6225.00,0.91
6224.00,0.91
6223.00,0.91
6222.00,0.91
6221.00,0.92
6220.00,0.92
6219.00,0.92
6218.00,0.92
6217.00,0.92
6216.00,0.92
6215.00,0.92
6214.00,0.92
6213.00,0.92
6212.00,0.92
6211.00,0.93
6210.00,0.93
6209.00,0.93
6208.00,0.93
6207.00,0.93
6206.00,0.93
6205.00,0.93
6204.00,0.93
6203.00,0.93
6202.00,0.94
6201.00,0.94
6200.00,0.94
6199.00,0.94
6198.00,0.94
6197.00,0.94
6196.00,0.94
6195.00,0.94
6194.00,0.95
6193.00,0.95
6192.00,0.95
6191.00,0.95
6190.00,0.95
6189.00,0.95
6188.00,0.95
6187.00,0.96
6186.00,0.96
6185.00,0.96
6184.00,0.96
6183.00,0.96
6182.00,0.96
6181.00,0.96
6180.00,0.96
6179.00,0.97
6178.00,0.97
6177.00,0.97
6176.00,0.97
6175.00,0.97
6174.00,0.97
6173.00,0.97
6172.00,0.98
6171.00,0.98
6170.00,0.98
6169.00,0.98
6168.00,0.98
6167.00,0.98
6166.00,0.99
6165.00,0.99
6164.00,0.99
6163.00,0.99
6162.00,0.99
6161.00,0.99
6160.00,0.99
6159.00,1.00
6158.00,1.00
6157.00,1.00
6156.00,1.00
6155.00,1.00
6154.00,1.00
6153.00,1.00
6152.00,1.00
6151.00,1.00
6150.00,1.01
6149.00,1.01
6148.00,1.01
6147.00,1.01
6146.00,1.01
6145.00,1.01
6144.00,1.01
6143.00,1.02
6142.00,1.02
6141.00,1.02
6140.00,1.02
6139.00,1.02
6138.00,1.02
6137.00,1.03
6136.00,1.03
6135.00,1.03
6134.00,1.03
6133.00,1.03
6132.00,1.03
6131.00,1.03
6130.00,1.03
6129.00,1.03
6128.00,1.03
6127.00,1.04
6126.00,1.04
6125.00,1.04
6124.00,1.04
6123.00,1.04
6122.00,1.04
6121.00,1.04
6120.00,1.04
6119.00,1.05
6118.00,1.05
6117.00,1.05
6116.00,1.05
6115.00,1.05
6114.00,1.05
6113.00,1.06
6112.00,1.06
6111.00,1.06
6110.00,1.06
6109.00,1.06
6108.00,1.07
6107.00,1.07
6106.00,1.07
6105.00,1.07
6104.00,1.07
6103.00,1.07
6102.00,1.08
6101.00,1.08
6100.00,1.08
6099.00,1.08
6098.00,1.08
6097.00,1.08
6096.00,1.08
6095.00,1.08
6094.00,1.08
6093.00,1.08
6092.00,1.09
6091.00,1.09
6090.00,1.09
6089.00,1.09
6088.00,1.09
6087.00,1.09
6086.00,1.09
6085.00,1.09
6084.00,1.10
6083.00,1.10
6082.00,1.10
6081.00,1.10
6080.00,1.10
6079.00,1.10
6078.00,1.10
6077.00,1.11
6076.00,1.11
6075.00,1.11
6074.00,1.11
6073.00,1.11
6072.00,1.11
6071.00,1.11
6070.00,1.11
6069.00,1.11
6068.00,1.11
6067.00,1.12
6066.00,1.12
6065.00,1.12
6064.00,1.12
6063.00,1.12
6062.00,1.12
6061.00,1.12
6060.00,1.12
6059.00,1.12
6058.00,1.12
6057.00,1.12
6056.00,1.12
6055.00,1.12
6054.00,1.12
6053.00,1.12
6052.00,1.12
6051.00,1.12
6050.00,1.12
6049.00,1.12
6048.00,1.12
6047.00,1.12
6046.00,1.12
6045.00,1.13
6044.00,1.13
6043.00,1.13
6042.00,1.13
6041.00,1.13
6040.00,1.13
6039.00,1.13
6038.00,1.14
6037.00,1.14
6036.00,1.14
6035.00,1.14
6034.00,1.14
6033.00,1.14
6032.00,1.14
6031.00,1.14
6030.00,1.15
6029.00,1.15
6028.00,1.15
6027.00,1.15
6026.00,1.15
6025.00,1.15
6024.00,1.15
6023.00,1.15
6022.00,1.15
6021.00,1.15
6020.00,1.15
6019.00,1.15
6018.00,1.15
6017.00,1.15
6016.00,1.15
6015.00,1.15
6014.00,1.15
6013.00,1.15
6012.00,1.15
6011.00,1.14
6010.00,1.14
6009.00,1.14
6008.00,1.14
6007.00,1.14
6006.00,1.14
6005.00,1.14
6004.00,1.14
6003.00,1.14
6002.00,1.14
6001.00,1.14
6000.00,1.14
5999.00,1.14
5998.00,1.14
5997.00,1.14
5996.00,1.14
5995.00,1.14
5994.00,1.14
5993.00,1.14
5992.00,1.14
5991.00,1.14
5990.00,1.14
5989.00,1.13
5988.00,1.13
5987.00,1.13
5986.00,1.13
5985.00,1.12
5984.00,1.12
5983.00,1.12
5982.00,1.12
5981.00,1.11
5980.00,1.11
5979.00,1.11
5978.00,1.10
5977.00,1.10
5976.00,1.09
5975.00,1.09
5974.00,1.09
5973.00,1.08
5972.00,1.08
5971.00,1.07
5970.00,1.07
5969.00,1.06
5968.00,1.06
5967.00,1.05
5966.00,1.04
5965.00,1.04
5964.00,1.03
5963.00,1.03
5962.00,1.02
5961.00,1.01
5960.00,1.01
5959.00,1.00
5958.00,0.99
5957.00,0.99
5956.00,0.98
5955.00,0.97
5954.00,0.97
5953.00,0.96
5952.00,0.96
5951.00,0.95
5950.00,0.95
5949.00,0.94
5948.00,0.94
5947.00,0.93
5946.00,0.93
5945.00,0.93
5944.00,0.92
5943.00,0.92
5942.00,0.92
5941.00,0.92
5940.00,0.92
5939.00,0.92
5938.00,0.92
5937.00,0.92
5936.00,0.92
5935.00,0.92
5934.00,0.92
5933.00,0.92
5932.00,0.92
5931.00,0.92
5930.00,0.92
5929.00,0.91
5928.00,0.91
5927.00,0.91
5926.00,0.91
5925.00,0.91
5924.00,0.91
5923.00,0.91
5922.00,0.91
5921.00,0.91
5920.00,0.90
5919.00,0.90
5918.00,0.90
5917.00,0.90
5916.00,0.89
5915.00,0.89
5914.00,0.89
5913.00,0.89
5912.00,0.88
5911.00,0.88
5910.00,0.88
5909.00,0.88
5908.00,0.88
5907.00,0.87
5906.00,0.87
5905.00,0.87
5904.00,0.87
5903.00,0.87
5902.00,0.87
5901.00,0.87
5900.00,0.87
5899.00,0.87
5898.00,0.87
5897.00,0.87
5896.00,0.87
5895.00,0.88
5894.00,0.88
5893.00,0.88
5892.00,0.88
5891.00,0.88
5890.00,0.89
5889.00,0.89
5888.00,0.89
5887.00,0.89
5886.00,0.90
5885.00,0.90
5884.00,0.90
5883.00,0.91
5882.00,0.91
5881.00,0.91
5880.00,0.91
5879.00,0.92
5878.00,0.92
5877.00,0.92
5876.00,0.92
5875.00,0.93
5874.00,0.93
5873.00,0.93
5872.00,0.93
5871.00,0.93
5870.00,0.94
5869.00,0.94
5868.00,0.94
5867.00,0.94
5866.00,0.94
5865.00,0.94
5864.00,0.94
5863.00,0.95
5862.00,0.95
5861.00,0.95
5860.00,0.95
5859.00,0.95
5858.00,0.95
5857.00,0.95
5856.00,0.95
5855.00,0.95
5854.00,0.96
5853.00,0.96
5852.00,0.96
5851.00,0.96
5850.00,0.96
5849.00,0.96
5848.00,0.96
5847.00,0.96
5846.00,0.96
5845.00,0.96
5844.00,0.96
5843.00,0.96
5842.00,0.96
5841.00,0.96
5840.00,0.96
5839.00,0.96
5838.00,0.96
5837.00,0.96
5836.00,0.96
5835.00,0.96
5834.00,0.96
5833.00,0.96
5832.00,0.96
5831.00,0.96
5830.00,0.96
5829.00,0.96
5828.00,0.96
5827.00,0.96
5826.00,0.96
5825.00,0.96
5824.00,0.96
5823.00,0.96
5822.00,0.96
5821.00,0.96
5820.00,0.96
5819.00,0.97
5818.00,0.97
5817.00,0.97
5816.00,0.97
5815.00,0.97
5814.00,0.97
5813.00,0.97
5812.00,0.97
5811.00,0.97
5810.00,0.97
5809.00,0.97
5808.00,0.97
5807.00,0.97
5806.00,0.97
5805.00,0.97
5804.00,0.97
5803.00,0.97
5802.00,0.97
5801.00,0.97
5800.00,0.97
5799.00,0.96
5798.00,0.96
5797.00,0.96
5796.00,0.96
5795.00,0.95
5794.00,0.95
5793.00,0.95
5792.00,0.95
5791.00,0.94
5790.00,0.94
5789.00,0.94
5788.00,0.94
5787.00,0.93
5786.00,0.93
5785.00,0.93
5784.00,0.93
5783.00,0.93
5782.00,0.92
5781.00,0.92
5780.00,0.92
5779.00,0.92
5778.00,0.92
5777.00,0.92
5776.00,0.92
5775.00,0.92
5774.00,0.92
5773.00,0.92
5772.00,0.92
5771.00,0.92
5770.00,0.92
5769.00,0.92
5768.00,0.92
5767.00,0.92
5766.00,0.92
5765.00,0.92
5764.00,0.93
5763.00,0.93
5762.00,0.93
5761.00,0.93
5760.00,0.94
5759.00,0.94
5758.00,0.94
5757.00,0.94
5756.00,0.95
5755.00,0.95
5754.00,0.95
5753.00,0.96
5752.00,0.96
5751.00,0.96
5750.00,0.96
5749.00,0.97
5748.00,0.97
5747.00,0.97
5746.00,0.98
5745.00,0.98
5744.00,0.98
5743.00,0.98
5742.00,0.98
5741.00,0.99
5740.00,0.99
5739.00,0.99
5738.00,0.99
5737.00,0.99
5736.00,0.99
5735.00,0.99
5734.00,1.00
5733.00,1.00
5732.00,1.00
5731.00,1.00
5730.00,1.00
5729.00,1.00
5728.00,1.00
5727.00,1.00
5726.00,1.00
5725.00,1.01
5724.00,1.01
5723.00,1.01
5722.00,1.01
5721.00,1.01
5720.00,1.01
5719.00,1.01
5718.00,1.01
5717.00,1.01
5716.00,1.01
5715.00,1.01
5714.00,1.01
5713.00,1.01
5712.00,1.01
5711.00,1.01
5710.00,1.01
5709.00,1.01
5708.00,1.01
5707.00,1.01
5706.00,1.01
5705.00,1.01
5704.00,1.01
5703.00,1.01
5702.00,1.00
5701.00,1.00
5700.00,1.00
5699.00,1.00
5698.00,1.00
5697.00,1.00
5696.00,1.00
5695.00,0.99
5694.00,0.99
5693.00,0.99
5692.00,0.99
5691.00,0.99
5690.00,0.99
5689.00,0.99
5688.00,0.98
5687.00,0.98
5686.00,0.98
5685.00,0.98
5684.00,0.98
5683.00,0.98
5682.00,0.98
5681.00,0.98
5680.00,0.98
5679.00,0.98
5678.00,0.97
5677.00,0.97
5676.00,0.97
5675.00,0.97
5674.00,0.97
5673.00,0.97
5672.00,0.97
5671.00,0.97
5670.00,0.98
5669.00,0.98
5668.00,0.98
5667.00,0.98
5666.00,0.98
5665.00,0.98
5664.00,0.98
5663.00,0.98
5662.00,0.98
5661.00,0.98
5660.00,0.99
5659.00,0.99
5658.00,0.99
5657.00,0.99
5656.00,0.99
5655.00,1.00
5654.00,1.00
5653.00,1.00
5652.00,1.00
5651.00,1.00
5650.00,1.00
5649.00,1.00
5648.00,1.01
5647.00,1.01
5646.00,1.01
5645.00,1.01
5644.00,1.01
5643.00,1.01
5642.00,1.01
5641.00,1.02
5640.00,1.02
5639.00,1.02
5638.00,1.02
5637.00,1.02
5636.00,1.02
5635.00,1.02
5634.00,1.02
5633.00,1.03
5632.00,1.03
5631.00,1.03
5630.00,1.03
5629.00,1.03
5628.00,1.03
5627.00,1.03
5626.00,1.03
5625.00,1.03
5624.00,1.04
5623.00,1.04
5622.00,1.04
5621.00,1.04
5620.00,1.04
5619.00,1.04
5618.00,1.04
5617.00,1.05
5616.00,1.05
5615.00,1.05
5614.00,1.05
5613.00,1.05
5612.00,1.05
5611.00,1.06
5610.00,1.06
5609.00,1.06
5608.00,1.06
5607.00,1.06
5606.00,1.06
5605.00,1.07
5604.00,1.07
5603.00,1.07
5602.00,1.07
5601.00,1.07
5600.00,1.07
5599.00,1.07
5598.00,1.08
5597.00,1.08
5596.00,1.08
5595.00,1.08
5594.00,1.08
5593.00,1.08
5592.00,1.08
5591.00,1.09
5590.00,1.09
5589.00,1.09
5588.00,1.09
5587.00,1.09
5586.00,1.09
5585.00,1.10
5584.00,1.10
5583.00,1.10
5582.00,1.10
5581.00,1.10
5580.00,1.10
5579.00,1.10
5578.00,1.11
5577.00,1.11
5576.00,1.11
5575.00,1.11
5574.00,1.11
5573.00,1.11
5572.00,1.11
5571.00,1.11
5570.00,1.11
5569.00,1.12
5568.00,1.12
5567.00,1.12
5566.00,1.12
5565.00,1.12
5564.00,1.12
5563.00,1.12
5562.00,1.12
5561.00,1.13
5560.00,1.13
5559.00,1.13
5558.00,1.13
5557.00,1.13
5556.00,1.13
5555.00,1.13
5554.00,1.14
5553.00,1.14
5552.00,1.14
5551.00,1.14
5550.00,1.14
5549.00,1.14
5548.00,1.14
5547.00,1.15
5546.00,1.15
5545.00,1.15
5544.00,1.15
5543.00,1.15
5542.00,1.15
5541.00,1.15
5540.00,1.15
5539.00,1.16
5538.00,1.16
5537.00,1.16
5536.00,1.16
5535.00,1.16
5534.00,1.16
5533.00,1.16
5532.00,1.16
5531.00,1.17
5530.00,1.17
5529.00,1.17
5528.00,1.17
5527.00,1.17
5526.00,1.17
5525.00,1.17
5524.00,1.17
5523.00,1.17
5522.00,1.17
5521.00,1.17
5520.00,1.18
5519.00,1.18
5518.00,1.18
5517.00,1.18
5516.00,1.18
5515.00,1.18
5514.00,1.18
5513.00,1.18
5512.00,1.18
5511.00,1.18
5510.00,1.18
5509.00,1.18
5508.00,1.18
5507.00,1.18
5506.00,1.18
5505.00,1.18
5504.00,1.18
5503.00,1.19
5502.00,1.19
5501.00,1.19
5500.00,1.19
5499.00,1.19
5498.00,1.19
5497.00,1.19
5496.00,1.19
5495.00,1.19
5494.00,1.19
5493.00,1.19
5492.00,1.19
5491.00,1.20
5490.00,1.20
5489.00,1.20
5488.00,1.20
5487.00,1.20
5486.00,1.20
5485.00,1.20
5484.00,1.20
5483.00,1.20
5482.00,1.21
5481.00,1.21
5480.00,1.21
5479.00,1.21
5478.00,1.21
5477.00,1.21
5476.00,1.21
5475.00,1.21
5474.00,1.22
5473.00,1.22
5472.00,1.22
5471.00,1.22
5470.00,1.22
5469.00,1.22
5468.00,1.22
5467.00,1.22
5466.00,1.23
5465.00,1.23
5464.00,1.23
5463.00,1.23
5462.00,1.23
5461.00,1.23
5460.00,1.23
5459.00,1.23
5458.00,1.24
5457.00,1.24
5456.00,1.24
5455.00,1.24
5454.00,1.24
5453.00,1.24
5452.00,1.24
5451.00,1.24
5450.00,1.24
5449.00,1.24
5448.00,1.24
5447.00,1.24
5446.00,1.24
5445.00,1.24
5444.00,1.24
5443.00,1.24
5442.00,1.24
5441.00,1.24
5440.00,1.24
5439.00,1.24
5438.00,1.24
5437.00,1.24
5436.00,1.24
5435.00,1.24
5434.00,1.24
5433.00,1.24
5432.00,1.24
5431.00,1.24
5430.00,1.24
5429.00,1.24
5428.00,1.24
5427.00,1.24
5426.00,1.24
5425.00,1.24
5424.00,1.24
5423.00,1.24
5422.00,1.24
5421.00,1.24
5420.00,1.24
5419.00,1.24
5418.00,1.24
5417.00,1.24
5416.00,1.24
5415.00,1.24
5414.00,1.24
5413.00,1.24
5412.00,1.24
5411.00,1.24
5410.00,1.24
5409.00,1.24
5408.00,1.24
5407.00,1.24
5406.00,1.24
5405.00,1.24
5404.00,1.24
5403.00,1.24
5402.00,1.24
5401.00,1.24
5400.00,1.24
5399.00,1.23
5398.00,1.23
5397.00,1.23
5396.00,1.23
5395.00,1.23
5394.00,1.23
5393.00,1.22
5392.00,1.22
5391.00,1.22
5390.00,1.22
5389.00,1.21
5388.00,1.21
5387.00,1.21
5386.00,1.20
5385.00,1.20
5384.00,1.20
5383.00,1.19
5382.00,1.19
5381.00,1.19
5380.00,1.18
5379.00,1.18
5378.00,1.18
5377.00,1.17
5376.00,1.17
5375.00,1.16
5374.00,1.16
5373.00,1.16
5372.00,1.15
5371.00,1.15
5370.00,1.14
5369.00,1.14
5368.00,1.13
5367.00,1.13
5366.00,1.12
5365.00,1.11
5364.00,1.11
5363.00,1.10
5362.00,1.10
5361.00,1.09
5360.00,1.08
5359.00,1.08
5358.00,1.07
5357.00,1.06
5356.00,1.05
5355.00,1.05
5354.00,1.04
5353.00,1.03
5352.00,1.02
5351.00,1.02
5350.00,1.01
5349.00,1.00
5348.00,0.99
5347.00,0.98
5346.00,0.98
5345.00,0.97
5344.00,0.96
5343.00,0.95
5342.00,0.94
5341.00,0.94
5340.00,0.93
5339.00,0.92
5338.00,0.91
5337.00,0.90
5336.00,0.90
5335.00,0.89
5334.00,0.88
5333.00,0.87
5332.00,0.87
5331.00,0.86
5330.00,0.85
5329.00,0.85
5328.00,0.84
5327.00,0.83
5326.00,0.83
5325.00,0.82
5324.00,0.81
5323.00,0.81
5322.00,0.80
5321.00,0.79
5320.00,0.79
5319.00,0.78
5318.00,0.78
5317.00,0.77
5316.00,0.77
5315.00,0.76
5314.00,0.76
5313.00,0.75
5312.00,0.75
5311.00,0.74
5310.00,0.74
5309.00,0.73
5308.00,0.73
5307.00,0.73
5306.00,0.72
5305.00,0.72
5304.00,0.72
5303.00,0.71
5302.00,0.71
5301.00,0.71
5300.00,0.71
5299.00,0.70
5298.00,0.70
5297.00,0.70
5296.00,0.70
5295.00,0.70
5294.00,0.70
5293.00,0.70
5292.00,0.70
5291.00,0.70
5290.00,0.69
5289.00,0.69
5288.00,0.69
5287.00,0.69
5286.00,0.69
5285.00,0.69
5284.00,0.69
5283.00,0.69
5282.00,0.69
5281.00,0.69
5280.00,0.69
5279.00,0.69
5278.00,0.69
5277.00,0.69
5276.00,0.69
5275.00,0.69
5274.00,0.69
5273.00,0.69
5272.00,0.69
5271.00,0.69
5270.00,0.69
5269.00,0.69
5268.00,0.69
5267.00,0.69
5266.00,0.69
5265.00,0.69
5264.00,0.69
5263.00,0.69
5262.00,0.69
5261.00,0.69
5260.00,0.69
5259.00,0.69
5258.00,0.69
5257.00,0.69
5256.00,0.69
5255.00,0.69
5254.00,0.69
5253.00,0.70
5252.00,0.70
5251.00,0.70
5250.00,0.70
5249.00,0.70
5248.00,0.70
5247.00,0.70
5246.00,0.70
5245.00,0.70
5244.00,0.70
5243.00,0.70
5242.00,0.70
5241.00,0.70
5240.00,0.70
5239.00,0.70
5238.00,0.70
5237.00,0.70
5236.00,0.70
5235.00,0.70
5234.00,0.70
5233.00,0.70
5232.00,0.70
5231.00,0.70
5230.00,0.70
5229.00,0.70
5228.00,0.70
5227.00,0.70
5226.00,0.70
5225.00,0.71
5224.00,0.71
5223.00,0.71
5222.00,0.71
5221.00,0.71
5220.00,0.71
5219.00,0.71
5218.00,0.71
5217.00,0.71
5216.00,0.71
5215.00,0.71
5214.00,0.71
5213.00,0.71
5212.00,0.71
5211.00,0.71
5210.00,0.71
5209.00,0.71
5208.00,0.71
5207.00,0.71
5206.00,0.71
5205.00,0.71
5204.00,0.71
5203.00,0.71
5202.00,0.71
5201.00,0.71
5200.00,0.71
5199.00,0.71
5198.00,0.71
5197.00,0.71
5196.00,0.71
5195.00,0.71
5194.00,0.71
5193.00,0.71
5192.00,0.71
5191.00,0.71
5190.00,0.71
5189.00,0.71
5188.00,0.71
5187.00,0.71
5186.00,0.71
5185.00,0.71
5184.00,0.71
5183.00,0.71
5182.00,0.71
5181.00,0.72
5180.00,0.72
5179.00,0.72
5178.00,0.72
5177.00,0.72
5176.00,0.72
5175.00,0.72
5174.00,0.72
5173.00,0.72
5172.00,0.72
5171.00,0.72
5170.00,0.72
5169.00,0.72
5168.00,0.72
5167.00,0.72
5166.00,0.72
5165.00,0.72
5164.00,0.72
5163.00,0.72
5162.00,0.72
5161.00,0.73
5160.00,0.73
5159.00,0.73
5158.00,0.73
5157.00,0.73
5156.00,0.73
5155.00,0.73
5154.00,0.73
5153.00,0.73
5152.00,0.73
5151.00,0.73
5150.00,0.73
5149.00,0.73
5148.00,0.73
5147.00,0.73
5146.00,0.73
5145.00,0.73
5144.00,0.73
5143.00,0.73
5142.00,0.73
5141.00,0.73
5140.00,0.73
5139.00,0.73
5138.00,0.73
5137.00,0.73
5136.00,0.73
5135.00,0.73
5134.00,0.73
5133.00,0.73
5132.00,0.73
5131.00,0.73
5130.00,0.73
5129.00,0.74
5128.00,0.74
5127.00,0.74
5126.00,0.74
5125.00,0.74
5124.00,0.74
5123.00,0.74
5122.00,0.74
5121.00,0.74
5120.00,0.74
5119.00,0.74
5118.00,0.74
5117.00,0.74
5116.00,0.74
5115.00,0.74
5114.00,0.74
5113.00,0.74
5112.00,0.74
5111.00,0.74
5110.00,0.74
5109.00,0.75
5108.00,0.75
5107.00,0.75
5106.00,0.75
5105.00,0.75
5104.00,0.75
5103.00,0.75
5102.00,0.75
5101.00,0.75
5100.00,0.75
5099.00,0.75
5098.00,0.75
5097.00,0.75
5096.00,0.75
5095.00,0.75
5094.00,0.75
5093.00,0.75
5092.00,0.75
5091.00,0.75
5090.00,0.75
5089.00,0.75
5088.00,0.75
5087.00,0.75
5086.00,0.75
5085.00,0.75
5084.00,0.75
5083.00,0.75
5082.00,0.75
5081.00,0.75
5080.00,0.75
5079.00,0.75
5078.00,0.75
5077.00,0.75
5076.00,0.75
5075.00,0.75
5074.00,0.76
5073.00,0.76
5072.00,0.76
5071.00,0.76
5070.00,0.76
5069.00,0.76
5068.00,0.76
5067.00,0.76
5066.00,0.76
5065.00,0.76
5064.00,0.76
5063.00,0.77
5062.00,0.77
5061.00,0.77
5060.00,0.77
5059.00,0.77
5058.00,0.77
5057.00,0.77
5056.00,0.77
5055.00,0.77
5054.00,0.77
5053.00,0.77
5052.00,0.77
5051.00,0.77
5050.00,0.77
5049.00,0.77
5048.00,0.77
5047.00,0.77
5046.00,0.77
5045.00,0.77
5044.00,0.77
5043.00,0.77
5042.00,0.77
5041.00,0.77
5040.00,0.77
5039.00,0.77
5038.00,0.77
5037.00,0.77
5036.00,0.77
5035.00,0.77
5034.00,0.77
5033.00,0.77
5032.00,0.77
5031.00,0.78
5030.00,0.78
5029.00,0.78
5028.00,0.78
5027.00,0.78
5026.00,0.78
5025.00,0.78
5024.00,0.78
5023.00,0.78
5022.00,0.78
5021.00,0.78
5020.00,0.78
5019.00,0.78
5018.00,0.78
5017.00,0.78
5016.00,0.78
5015.00,0.78
5014.00,0.78
5013.00,0.78
5012.00,0.78
5011.00,0.78
5010.00,0.78
5009.00,0.78
5008.00,0.78
5007.00,0.78
5006.00,0.78
5005.00,0.78
5004.00,0.79
5003.00,0.79
5002.00,0.79
5001.00,0.79
5000.00,0.79
4999.00,0.79
4998.00,0.79
4997.00,0.79
4996.00,0.79
4995.00,0.79
4994.00,0.79
4993.00,0.79
4992.00,0.79
4991.00,0.79
4990.00,0.79
4989.00,0.79
4988.00,0.79
4987.00,0.79
4986.00,0.79
4985.00,0.79
4984.00,0.79
4983.00,0.79
4982.00,0.80
4981.00,0.80
4980.00,0.80
4979.00,0.80
4978.00,0.80
4977.00,0.80
4976.00,0.80
4975.00,0.80
4974.00,0.80
4973.00,0.80
4972.00,0.80
4971.00,0.80
4970.00,0.80
4969.00,0.81
4968.00,0.81
4967.00,0.81
4966.00,0.81
4965.00,0.81
4964.00,0.81
4963.00,0.81
4962.00,0.81
4961.00,0.81
4960.00,0.81
4959.00,0.81
4958.00,0.81
4957.00,0.81
4956.00,0.81
4955.00,0.81
4954.00,0.81
4953.00,0.81
4952.00,0.81
4951.00,0.81
4950.00,0.81
4949.00,0.81
4948.00,0.81
4947.00,0.81
4946.00,0.81
4945.00,0.81
4944.00,0.81
4943.00,0.81
4942.00,0.81
4941.00,0.81
4940.00,0.81
4939.00,0.82
4938.00,0.82
4937.00,0.82
4936.00,0.82
4935.00,0.82
4934.00,0.82
4933.00,0.82
4932.00,0.82
4931.00,0.82
4930.00,0.82
4929.00,0.82
4928.00,0.83
4927.00,0.83
4926.00,0.83
4925.00,0.83
4924.00,0.83
4923.00,0.83
4922.00,0.83
4921.00,0.83
4920.00,0.83
4919.00,0.83
4918.00,0.83
4917.00,0.83
4916.00,0.83
4915.00,0.83
4914.00,0.83
4913.00,0.83
4912.00,0.83
4911.00,0.83
4910.00,0.83
4909.00,0.84
4908.00,0.84
4907.00,0.84
4906.00,0.84
4905.00,0.84
4904.00,0.84
4903.00,0.84
4902.00,0.84
4901.00,0.84
4900.00,0.84
4899.00,0.84
4898.00,0.84
4897.00,0.84
4896.00,0.84
4895.00,0.84
4894.00,0.84
4893.00,0.84
4892.00,0.84
4891.00,0.84
4890.00,0.84
4889.00,0.84
4888.00,0.84
4887.00,0.84
4886.00,0.84
4885.00,0.85
4884.00,0.85
4883.00,0.85
4882.00,0.85
4881.00,0.85
4880.00,0.85
4879.00,0.85
4878.00,0.85
4877.00,0.85
4876.00,0.85
4875.00,0.85
4874.00,0.85
4873.00,0.85
4872.00,0.85
4871.00,0.85
4870.00,0.85
4869.00,0.85
4868.00,0.85
4867.00,0.86
4866.00,0.86
4865.00,0.86
4864.00,0.86
4863.00,0.86
4862.00,0.86
4861.00,0.86
4860.00,0.86
4859.00,0.86
4858.00,0.86
4857.00,0.86
4856.00,0.86
4855.00,0.86
4854.00,0.86
4853.00,0.86
4852.00,0.86
4851.00,0.86
4850.00,0.86
4849.00,0.86
4848.00,0.86
4847.00,0.86
4846.00,0.86
4845.00,0.86
4844.00,0.87
4843.00,0.87
4842.00,0.87
4841.00,0.87
4840.00,0.87
4839.00,0.87
4838.00,0.87
4837.00,0.87
4836.00,0.87
4835.00,0.87
4834.00,0.87
4833.00,0.88
4832.00,0.88
4831.00,0.88
4830.00,0.88
4829.00,0.88
4828.00,0.88
4827.00,0.88
4826.00,0.88
4825.00,0.88
4824.00,0.88
4823.00,0.88
4822.00,0.88
4821.00,0.88
4820.00,0.88
4819.00,0.88
4818.00,0.88
4817.00,0.87
4816.00,0.87
4815.00,0.87
4814.00,0.87
4813.00,0.87
4812.00,0.87
4811.00,0.87
4810.00,0.87
4809.00,0.88
4808.00,0.88
4807.00,0.88
4806.00,0.88
4805.00,0.88
4804.00,0.88
4803.00,0.88
4802.00,0.88
4801.00,0.88
4800.00,0.88
4799.00,0.89
4798.00,0.89
4797.00,0.89
4796.00,0.89
4795.00,0.89
4794.00,0.89
4793.00,0.89
4792.00,0.89
4791.00,0.89
4790.00,0.89
4789.00,0.89
4788.00,0.90
4787.00,0.90
4786.00,0.90
4785.00,0.90
4784.00,0.90
4783.00,0.90
4782.00,0.90
4781.00,0.90
4780.00,0.90
4779.00,0.90
4778.00,0.90
4777.00,0.90
4776.00,0.90
4775.00,0.90
4774.00,0.91
4773.00,0.91
4772.00,0.91
4771.00,0.91
4770.00,0.91
4769.00,0.91
4768.00,0.91
4767.00,0.91
4766.00,0.91
4765.00,0.91
4764.00,0.91
4763.00,0.91
4762.00,0.91
4761.00,0.91
4760.00,0.92
4759.00,0.92
4758.00,0.92
4757.00,0.92
4756.00,0.92
4755.00,0.92
4754.00,0.92
4753.00,0.92
4752.00,0.92
4751.00,0.92
4750.00,0.92
4749.00,0.92
4748.00,0.93
4747.00,0.93
4746.00,0.93
4745.00,0.93
4744.00,0.93
4743.00,0.93
4742.00,0.93
4741.00,0.93
4740.00,0.94
4739.00,0.94
4738.00,0.94
4737.00,0.94
4736.00,0.94
4735.00,0.94
4734.00,0.94
4733.00,0.94
4732.00,0.94
4731.00,0.94
4730.00,0.94
4729.00,0.95
4728.00,0.95
4727.00,0.95
4726.00,0.95
4725.00,0.95
4724.00,0.95
4723.00,0.95
4722.00,0.95
4721.00,0.95
4720.00,0.95
4719.00,0.95
4718.00,0.95
4717.00,0.96
4716.00,0.96
4715.00,0.96
4714.00,0.96
4713.00,0.96
4712.00,0.96
4711.00,0.96
4710.00,0.96
4709.00,0.96
4708.00,0.96
4707.00,0.96
4706.00,0.96
4705.00,0.97
4704.00,0.97
4703.00,0.97
4702.00,0.97
4701.00,0.97
4700.00,0.97
4699.00,0.97
4698.00,0.97
4697.00,0.97
4696.00,0.97
4695.00,0.97
4694.00,0.98
4693.00,0.98
4692.00,0.98
4691.00,0.98
4690.00,0.98
4689.00,0.98
4688.00,0.98
4687.00,0.98
4686.00,0.99
4685.00,0.99
4684.00,0.99
4683.00,0.99
4682.00,0.99
4681.00,0.99
4680.00,0.99
4679.00,0.99
4678.00,0.99
4677.00,1.00
4676.00,1.00
4675.00,1.00
4674.00,1.00
4673.00,1.00
4672.00,1.00
4671.00,1.00
4670.00,1.00
4669.00,1.00
4668.00,1.00
4667.00,1.00
4666.00,1.00
4665.00,1.00
4664.00,1.00
4663.00,1.00
4662.00,1.00
4661.00,1.00
4660.00,1.00
4659.00,1.00
4658.00,1.00
4657.00,1.00
4656.00,1.00
4655.00,1.00
4654.00,1.00
4653.00,1.00
4652.00,1.01
4651.00,1.01
4650.00,1.01
4649.00,1.01
4648.00,1.01
4647.00,1.01
4646.00,1.01
4645.00,1.01
4644.00,1.02
4643.00,1.02
4642.00,1.02
4641.00,1.02
4640.00,1.02
4639.00,1.02
4638.00,1.03
4637.00,1.03
4636.00,1.03
4635.00,1.03
4634.00,1.03
4633.00,1.03
4632.00,1.04
4631.00,1.04
4630.00,1.04
4629.00,1.04
4628.00,1.04
4627.00,1.04
4626.00,1.04
4625.00,1.04
4624.00,1.04
4623.00,1.04
4622.00,1.04
4621.00,1.04
4620.00,1.04
4619.00,1.04
4618.00,1.04
4617.00,1.04
4616.00,1.04
4615.00,1.04
4614.00,1.04
4613.00,1.04
4612.00,1.04
4611.00,1.04
4610.00,1.05
4609.00,1.05
4608.00,1.05
4607.00,1.05
4606.00,1.05
4605.00,1.05
4604.00,1.06
4603.00,1.06
4602.00,1.06
4601.00,1.06
4600.00,1.06
4599.00,1.06
4598.00,1.06
4597.00,1.06
4596.00,1.06
4595.00,1.06
4594.00,1.06
4593.00,1.06
4592.00,1.06
4591.00,1.06
4590.00,1.06
4589.00,1.06
4588.00,1.06
4587.00,1.06
4586.00,1.06
4585.00,1.06
4584.00,1.06
4583.00,1.07
4582.00,1.07
4581.00,1.07
4580.00,1.07
4579.00,1.07
4578.00,1.07
4577.00,1.07
4576.00,1.07
4575.00,1.07
4574.00,1.07
4573.00,1.07
4572.00,1.07
4571.00,1.07
4570.00,1.07
4569.00,1.07
4568.00,1.07
4567.00,1.07
4566.00,1.07
4565.00,1.07
4564.00,1.07
4563.00,1.07
4562.00,1.07
4561.00,1.07
4560.00,1.07
4559.00,1.07
4558.00,1.07
4557.00,1.07
4556.00,1.08
4555.00,1.08
4554.00,1.08
4553.00,1.08
4552.00,1.08
4551.00,1.08
4550.00,1.08
4549.00,1.08
4548.00,1.08
4547.00,1.08
4546.00,1.08
4545.00,1.08
4544.00,1.08
4543.00,1.08
4542.00,1.09
4541.00,1.09
4540.00,1.09
4539.00,1.09
4538.00,1.09
4537.00,1.09
4536.00,1.09
4535.00,1.09
4534.00,1.09
4533.00,1.10
4532.00,1.10
4531.00,1.10
4530.00,1.10
4529.00,1.10
4528.00,1.10
4527.00,1.10
4526.00,1.10
4525.00,1.10
4524.00,1.10
4523.00,1.10
4522.00,1.10
4521.00,1.10
4520.00,1.10
4519.00,1.10
4518.00,1.10
4517.00,1.10
4516.00,1.10
4515.00,1.10
4514.00,1.10
4513.00,1.10
4512.00,1.10
4511.00,1.10
4510.00,1.10
4509.00,1.10
4508.00,1.10
4507.00,1.10
4506.00,1.10
4505.00,1.10
4504.00,1.10
4503.00,1.09
4502.00,1.09
4501.00,1.09
4500.00,1.09
4499.00,1.09
4498.00,1.09
4497.00,1.09
4496.00,1.09
4495.00,1.09
4494.00,1.09
4493.00,1.09
4492.00,1.09
4491.00,1.09
4490.00,1.09
4489.00,1.09
4488.00,1.09
4487.00,1.09
4486.00,1.09
4485.00,1.09
4484.00,1.09
4483.00,1.09
4482.00,1.09
4481.00,1.08
4480.00,1.08
4479.00,1.08
4478.00,1.08
4477.00,1.08
4476.00,1.08
4475.00,1.08
4474.00,1.08
4473.00,1.08
4472.00,1.08
4471.00,1.08
4470.00,1.08
4469.00,1.08
4468.00,1.08
4467.00,1.07
4466.00,1.07
4465.00,1.07
4464.00,1.07
4463.00,1.07
4462.00,1.07
4461.00,1.07
4460.00,1.07
4459.00,1.07
4458.00,1.07
4457.00,1.06
4456.00,1.06
4455.00,1.06
4454.00,1.06
4453.00,1.06
4452.00,1.06
4451.00,1.06
4450.00,1.05
4449.00,1.05
4448.00,1.05
4447.00,1.05
4446.00,1.05
4445.00,1.05
4444.00,1.05
4443.00,1.04
4442.00,1.04
4441.00,1.04
4440.00,1.04
4439.00,1.04
4438.00,1.04
4437.00,1.03
4436.00,1.03
4435.00,1.03
4434.00,1.03
4433.00,1.03
4432.00,1.03
4431.00,1.03
4430.00,1.03
4429.00,1.03
4428.00,1.02
4427.00,1.02
4426.00,1.02
4425.00,1.02
4424.00,1.02
4423.00,1.03
4422.00,1.03
4421.00,1.03
4420.00,1.03
4419.00,1.03
4418.00,1.03
4417.00,1.03
4416.00,1.03
4415.00,1.03
4414.00,1.03
4413.00,1.03
4412.00,1.03
4411.00,1.03
4410.00,1.03
4409.00,1.03
4408.00,1.03
4407.00,1.03
4406.00,1.03
4405.00,1.04
4404.00,1.04
4403.00,1.04
4402.00,1.04
4401.00,1.04
4400.00,1.04
4399.00,1.04
4398.00,1.04
4397.00,1.04
4396.00,1.04
4395.00,1.04
4394.00,1.04
4393.00,1.04
4392.00,1.04
4391.00,1.04
4390.00,1.04
4389.00,1.04
4388.00,1.04
4387.00,1.04
4386.00,1.04
4385.00,1.04
4384.00,1.04
4383.00,1.04
4382.00,1.04
4381.00,1.05
4380.00,1.05
4379.00,1.05
4378.00,1.05
4377.00,1.05
4376.00,1.05
4375.00,1.05
4374.00,1.05
4373.00,1.05
4372.00,1.05
4371.00,1.05
4370.00,1.05
4369.00,1.05
4368.00,1.05
4367.00,1.05
4366.00,1.05
4365.00,1.05
4364.00,1.05
4363.00,1.05
4362.00,1.05
4361.00,1.05
4360.00,1.05
4359.00,1.05
4358.00,1.05
4357.00,1.05
4356.00,1.05
4355.00,1.05
4354.00,1.06
4353.00,1.06
4352.00,1.06
4351.00,1.06
4350.00,1.06
4349.00,1.06
4348.00,1.06
4347.00,1.06
4346.00,1.06
4345.00,1.06
4344.00,1.06
4343.00,1.06
4342.00,1.06
4341.00,1.07
4340.00,1.07
4339.00,1.07
4338.00,1.07
4337.00,1.07
4336.00,1.07
4335.00,1.07
4334.00,1.07
4333.00,1.07
4332.00,1.07
4331.00,1.07
4330.00,1.08
4329.00,1.08
4328.00,1.08
4327.00,1.08
4326.00,1.08
4325.00,1.08
4324.00,1.08
4323.00,1.08
4322.00,1.08
4321.00,1.08
4320.00,1.08
4319.00,1.08
4318.00,1.08
4317.00,1.08
4316.00,1.08
4315.00,1.08
4314.00,1.09
4313.00,1.09
4312.00,1.09
4311.00,1.09
4310.00,1.09
4309.00,1.09
4308.00,1.10
4307.00,1.10
4306.00,1.10
4305.00,1.10
4304.00,1.10
4303.00,1.10
4302.00,1.10
4301.00,1.10
4300.00,1.10
4299.00,1.11
4298.00,1.11
4297.00,1.10
4296.00,1.10
4295.00,1.10
4294.00,1.10
4293.00,1.10
4292.00,1.10
4291.00,1.10
4290.00,1.10
4289.00,1.10
4288.00,1.10
4287.00,1.10
4286.00,1.10
4285.00,1.10
4284.00,1.10
4283.00,1.10
4282.00,1.11
4281.00,1.11
4280.00,1.11
4279.00,1.11
4278.00,1.11
4277.00,1.11
4276.00,1.11
4275.00,1.11
4274.00,1.11
4273.00,1.12
4272.00,1.12
4271.00,1.12
4270.00,1.12
4269.00,1.12
4268.00,1.12
4267.00,1.12
4266.00,1.12
4265.00,1.12
4264.00,1.12
4263.00,1.12
4262.00,1.12
4261.00,1.12
4260.00,1.12
4259.00,1.12
4258.00,1.12
4257.00,1.12
4256.00,1.12
4255.00,1.12
4254.00,1.12
4253.00,1.12
4252.00,1.12
4251.00,1.12
4250.00,1.12
4249.00,1.12
4248.00,1.12
4247.00,1.12
4246.00,1.12
4245.00,1.12
4244.00,1.12
4243.00,1.13
4242.00,1.13
4241.00,1.13
4240.00,1.13
4239.00,1.13
4238.00,1.13
4237.00,1.14
4236.00,1.14
4235.00,1.14
4234.00,1.14
4233.00,1.14
4232.00,1.14
4231.00,1.14
4230.00,1.14
4229.00,1.14
4228.00,1.14
4227.00,1.15
4226.00,1.15
4225.00,1.15
4224.00,1.15
4223.00,1.15
4222.00,1.15
4221.00,1.15
4220.00,1.15
4219.00,1.15
4218.00,1.15
4217.00,1.15
4216.00,1.15
4215.00,1.15
4214.00,1.15
4213.00,1.15
4212.00,1.15
4211.00,1.15
4210.00,1.15
4209.00,1.15
4208.00,1.15
4207.00,1.15
4206.00,1.15
4205.00,1.15
4204.00,1.15
4203.00,1.15
4202.00,1.15
4201.00,1.15
4200.00,1.15
4199.00,1.15
4198.00,1.16
4197.00,1.16
4196.00,1.16
4195.00,1.16
4194.00,1.16
4193.00,1.16
4192.00,1.16
4191.00,1.16
4190.00,1.16
4189.00,1.16
4188.00,1.17
4187.00,1.17
4186.00,1.17
4185.00,1.17
4184.00,1.17
4183.00,1.17
4182.00,1.17
4181.00,1.17
4180.00,1.17
4179.00,1.17
4178.00,1.17
4177.00,1.17
4176.00,1.17
4175.00,1.17
4174.00,1.17
4173.00,1.17
4172.00,1.17
4171.00,1.17
4170.00,1.17
4169.00,1.17
4168.00,1.17
4167.00,1.17
4166.00,1.17
4165.00,1.17
4164.00,1.17
4163.00,1.17
4162.00,1.17
4161.00,1.17
4160.00,1.18
4159.00,1.18
4158.00,1.18
4157.00,1.18
4156.00,1.18
4155.00,1.18
4154.00,1.18
4153.00,1.18
4152.00,1.18
4151.00,1.18
4150.00,1.18
4149.00,1.18
4148.00,1.18
4147.00,1.18
4146.00,1.18
4145.00,1.17
4144.00,1.17
4143.00,1.17
4142.00,1.17
4141.00,1.17
4140.00,1.17
4139.00,1.17
4138.00,1.17
4137.00,1.17
4136.00,1.17
4135.00,1.18
4134.00,1.18
4133.00,1.18
4132.00,1.18
4131.00,1.18
4130.00,1.18
4129.00,1.18
4128.00,1.18
4127.00,1.18
4126.00,1.18
4125.00,1.18
4124.00,1.18
4123.00,1.18
4122.00,1.18
4121.00,1.19
4120.00,1.19
4119.00,1.19
4118.00,1.19
4117.00,1.19
4116.00,1.19
4115.00,1.19
4114.00,1.19
4113.00,1.19
4112.00,1.19
4111.00,1.19
4110.00,1.19
4109.00,1.19
4108.00,1.19
4107.00,1.19
4106.00,1.19
4105.00,1.19
4104.00,1.19
4103.00,1.19
4102.00,1.19
4101.00,1.19
4100.00,1.19
4099.00,1.19
4098.00,1.19
4097.00,1.20
4096.00,1.20
4095.00,1.20
4094.00,1.20
4093.00,1.21
4092.00,1.21
4091.00,1.21
4090.00,1.21
4089.00,1.22
4088.00,1.22
4087.00,1.22
4086.00,1.22
4085.00,1.22
4084.00,1.22
4083.00,1.22
4082.00,1.22
4081.00,1.22
4080.00,1.22
4079.00,1.22
4078.00,1.22
4077.00,1.22
4076.00,1.22
4075.00,1.22
4074.00,1.22
4073.00,1.21
4072.00,1.21
4071.00,1.21
4070.00,1.21
4069.00,1.21
4068.00,1.21
4067.00,1.21
4066.00,1.21
4065.00,1.21
4064.00,1.21
4063.00,1.21
4062.00,1.21
4061.00,1.21
4060.00,1.22
4059.00,1.22
4058.00,1.22
4057.00,1.22
4056.00,1.22
4055.00,1.22
4054.00,1.22
4053.00,1.22
4052.00,1.23
4051.00,1.23
4050.00,1.23
4049.00,1.23
4048.00,1.23
4047.00,1.23
4046.00,1.23
4045.00,1.23
4044.00,1.23
4043.00,1.23
4042.00,1.23
4041.00,1.23
4040.00,1.23
4039.00,1.23
4038.00,1.23
4037.00,1.23
4036.00,1.22
4035.00,1.22
4034.00,1.22
4033.00,1.22
4032.00,1.22
4031.00,1.22
4030.00,1.22
4029.00,1.22
4028.00,1.22
4027.00,1.22
4026.00,1.22
4025.00,1.22
4024.00,1.22
4023.00,1.22
4022.00,1.22
4021.00,1.22
4020.00,1.22
4019.00,1.22
4018.00,1.22
4017.00,1.22
4016.00,1.22
4015.00,1.22
4014.00,1.22
4013.00,1.23
4012.00,1.23
4011.00,1.23
4010.00,1.23
4009.00,1.23
4008.00,1.24
4007.00,1.24
4006.00,1.24
4005.00,1.24
4004.00,1.24
4003.00,1.24
4002.00,1.24
4001.00,1.24
4000.00,1.24
