创建为新数据集,样品 681 用户 Administrator 日期 星期四, 七月 19 2018
cm-1,%T
10000.00,1.30
9999.00,1.29
9998.00,1.29
9997.00,1.29
9996.00,1.28
9995.00,1.28
9994.00,1.28
9993.00,1.27
9992.00,1.27
9991.00,1.27
9990.00,1.27
9989.00,1.27
9988.00,1.27
9987.00,1.27
9986.00,1.26
9985.00,1.26
9984.00,1.26
9983.00,1.26
9982.00,1.26
9981.00,1.26
9980.00,1.26
9979.00,1.26
9978.00,1.26
9977.00,1.26
9976.00,1.26
9975.00,1.26
9974.00,1.26
9973.00,1.26
9972.00,1.26
9971.00,1.26
9970.00,1.26
9969.00,1.27
9968.00,1.27
9967.00,1.27
9966.00,1.27
9965.00,1.28
9964.00,1.28
9963.00,1.28
9962.00,1.28
9961.00,1.29
9960.00,1.29
9959.00,1.29
9958.00,1.29
9957.00,1.29
9956.00,1.29
9955.00,1.29
9954.00,1.29
9953.00,1.29
9952.00,1.29
9951.00,1.29
9950.00,1.29
9949.00,1.29
9948.00,1.29
9947.00,1.29
9946.00,1.29
9945.00,1.29
9944.00,1.28
9943.00,1.28
9942.00,1.28
9941.00,1.28
9940.00,1.28
9939.00,1.28
9938.00,1.28
9937.00,1.28
9936.00,1.27
9935.00,1.27
9934.00,1.27
9933.00,1.27
9932.00,1.27
9931.00,1.26
9930.00,1.26
9929.00,1.26
9928.00,1.26
9927.00,1.25
9926.00,1.25
9925.00,1.25
9924.00,1.25
9923.00,1.25
9922.00,1.24
9921.00,1.24
9920.00,1.24
9919.00,1.24
9918.00,1.24
9917.00,1.24
9916.00,1.24
9915.00,1.24
9914.00,1.24
9913.00,1.24
9912.00,1.24
9911.00,1.24
9910.00,1.24
9909.00,1.24
9908.00,1.25
9907.00,1.25
9906.00,1.25
9905.00,1.25
9904.00,1.26
9903.00,1.26
9902.00,1.26
9901.00,1.26
9900.00,1.27
9899.00,1.27
9898.00,1.27
9897.00,1.27
9896.00,1.27
9895.00,1.27
9894.00,1.27
9893.00,1.27
9892.00,1.27
9891.00,1.27
9890.00,1.27
9889.00,1.27
9888.00,1.27
9887.00,1.27
9886.00,1.26
9885.00,1.26
9884.00,1.26
9883.00,1.26
9882.00,1.26
9881.00,1.25
9880.00,1.25
9879.00,1.25
9878.00,1.25
9877.00,1.25
9876.00,1.25
9875.00,1.25
9874.00,1.25
9873.00,1.25
9872.00,1.25
9871.00,1.25
9870.00,1.25
9869.00,1.25
9868.00,1.25
9867.00,1.25
9866.00,1.25
9865.00,1.26
9864.00,1.26
9863.00,1.26
9862.00,1.26
9861.00,1.26
9860.00,1.26
9859.00,1.26
9858.00,1.27
9857.00,1.27
9856.00,1.27
9855.00,1.27
9854.00,1.27
9853.00,1.27
9852.00,1.27
9851.00,1.27
9850.00,1.28
9849.00,1.28
9848.00,1.28
9847.00,1.28
9846.00,1.28
9845.00,1.28
9844.00,1.28
9843.00,1.28
9842.00,1.27
9841.00,1.27
9840.00,1.27
9839.00,1.27
9838.00,1.27
9837.00,1.27
9836.00,1.27
9835.00,1.27
9834.00,1.28
9833.00,1.28
9832.00,1.28
9831.00,1.28
9830.00,1.28
9829.00,1.28
9828.00,1.28
9827.00,1.28
9826.00,1.28
9825.00,1.29
9824.00,1.29
9823.00,1.29
9822.00,1.29
9821.00,1.29
9820.00,1.29
9819.00,1.29
9818.00,1.29
9817.00,1.29
9816.00,1.29
9815.00,1.29
9814.00,1.29
9813.00,1.29
9812.00,1.29
9811.00,1.29
9810.00,1.29
9809.00,1.28
9808.00,1.28
9807.00,1.28
9806.00,1.28
9805.00,1.27
9804.00,1.27
9803.00,1.27
9802.00,1.27
9801.00,1.26
9800.00,1.26
9799.00,1.26
9798.00,1.25
9797.00,1.25
9796.00,1.25
9795.00,1.25
9794.00,1.25
9793.00,1.25
9792.00,1.25
9791.00,1.25
9790.00,1.25
9789.00,1.25
9788.00,1.25
9787.00,1.26
9786.00,1.26
9785.00,1.26
9784.00,1.26
9783.00,1.26
9782.00,1.27
9781.00,1.27
9780.00,1.27
9779.00,1.27
9778.00,1.27
9777.00,1.27
9776.00,1.27
9775.00,1.27
9774.00,1.27
9773.00,1.27
9772.00,1.27
9771.00,1.27
9770.00,1.27
9769.00,1.27
9768.00,1.27
9767.00,1.27
9766.00,1.28
9765.00,1.28
9764.00,1.28
9763.00,1.28
9762.00,1.28
9761.00,1.28
9760.00,1.28
9759.00,1.28
9758.00,1.28
9757.00,1.28
9756.00,1.28
9755.00,1.28
9754.00,1.28
9753.00,1.28
9752.00,1.28
9751.00,1.28
9750.00,1.28
9749.00,1.28
9748.00,1.27
9747.00,1.27
9746.00,1.27
9745.00,1.27
9744.00,1.27
9743.00,1.27
9742.00,1.27
9741.00,1.26
9740.00,1.26
9739.00,1.26
9738.00,1.26
9737.00,1.26
9736.00,1.26
9735.00,1.26
9734.00,1.26
9733.00,1.26
9732.00,1.26
9731.00,1.25
9730.00,1.25
9729.00,1.25
9728.00,1.25
9727.00,1.25
9726.00,1.25
9725.00,1.25
9724.00,1.24
9723.00,1.24
9722.00,1.24
9721.00,1.24
9720.00,1.24
9719.00,1.24
9718.00,1.24
9717.00,1.24
9716.00,1.24
9715.00,1.24
9714.00,1.24
9713.00,1.25
9712.00,1.25
9711.00,1.25
9710.00,1.25
9709.00,1.25
9708.00,1.26
9707.00,1.26
9706.00,1.26
9705.00,1.26
9704.00,1.26
9703.00,1.27
9702.00,1.27
9701.00,1.27
9700.00,1.27
9699.00,1.27
9698.00,1.26
9697.00,1.26
9696.00,1.26
9695.00,1.26
9694.00,1.26
9693.00,1.26
9692.00,1.26
9691.00,1.25
9690.00,1.25
9689.00,1.25
9688.00,1.25
9687.00,1.25
9686.00,1.25
9685.00,1.25
9684.00,1.25
9683.00,1.25
9682.00,1.25
9681.00,1.25
9680.00,1.25
9679.00,1.25
9678.00,1.25
9677.00,1.25
9676.00,1.25
9675.00,1.25
9674.00,1.25
9673.00,1.25
9672.00,1.25
9671.00,1.25
9670.00,1.25
9669.00,1.25
9668.00,1.25
9667.00,1.25
9666.00,1.25
9665.00,1.25
9664.00,1.25
9663.00,1.25
9662.00,1.25
9661.00,1.25
9660.00,1.26
9659.00,1.26
9658.00,1.26
9657.00,1.26
9656.00,1.26
9655.00,1.26
9654.00,1.26
9653.00,1.26
9652.00,1.26
9651.00,1.26
9650.00,1.26
9649.00,1.26
9648.00,1.26
9647.00,1.26
9646.00,1.27
9645.00,1.27
9644.00,1.27
9643.00,1.27
9642.00,1.27
9641.00,1.27
9640.00,1.27
9639.00,1.27
9638.00,1.27
9637.00,1.27
9636.00,1.28
9635.00,1.28
9634.00,1.28
9633.00,1.28
9632.00,1.28
9631.00,1.28
9630.00,1.28
9629.00,1.28
9628.00,1.28
9627.00,1.28
9626.00,1.28
9625.00,1.28
9624.00,1.28
9623.00,1.28
9622.00,1.28
9621.00,1.28
9620.00,1.28
9619.00,1.28
9618.00,1.28
9617.00,1.28
9616.00,1.27
9615.00,1.27
9614.00,1.27
9613.00,1.27
9612.00,1.27
9611.00,1.27
9610.00,1.27
9609.00,1.26
9608.00,1.26
9607.00,1.26
9606.00,1.26
9605.00,1.26
9604.00,1.26
9603.00,1.26
9602.00,1.26
9601.00,1.26
9600.00,1.25
9599.00,1.25
9598.00,1.25
9597.00,1.25
9596.00,1.25
9595.00,1.25
9594.00,1.24
9593.00,1.24
9592.00,1.24
9591.00,1.24
9590.00,1.24
9589.00,1.24
9588.00,1.24
9587.00,1.24
9586.00,1.24
9585.00,1.24
9584.00,1.24
9583.00,1.24
9582.00,1.25
9581.00,1.25
9580.00,1.25
9579.00,1.25
9578.00,1.26
9577.00,1.26
9576.00,1.26
9575.00,1.27
9574.00,1.27
9573.00,1.27
9572.00,1.27
9571.00,1.27
9570.00,1.27
9569.00,1.28
9568.00,1.28
9567.00,1.28
9566.00,1.28
9565.00,1.28
9564.00,1.28
9563.00,1.27
9562.00,1.27
9561.00,1.27
9560.00,1.27
9559.00,1.27
9558.00,1.27
9557.00,1.27
9556.00,1.27
9555.00,1.27
9554.00,1.27
9553.00,1.27
9552.00,1.27
9551.00,1.27
9550.00,1.27
9549.00,1.27
9548.00,1.27
9547.00,1.27
9546.00,1.27
9545.00,1.27
9544.00,1.27
9543.00,1.27
9542.00,1.27
9541.00,1.27
9540.00,1.27
9539.00,1.27
9538.00,1.27
9537.00,1.27
9536.00,1.27
9535.00,1.27
9534.00,1.27
9533.00,1.27
9532.00,1.27
9531.00,1.27
9530.00,1.27
9529.00,1.27
9528.00,1.27
9527.00,1.27
9526.00,1.27
9525.00,1.27
9524.00,1.27
9523.00,1.27
9522.00,1.27
9521.00,1.27
9520.00,1.27
9519.00,1.27
9518.00,1.27
9517.00,1.27
9516.00,1.27
9515.00,1.27
9514.00,1.27
9513.00,1.27
9512.00,1.27
9511.00,1.27
9510.00,1.27
9509.00,1.27
9508.00,1.27
9507.00,1.26
9506.00,1.26
9505.00,1.26
9504.00,1.26
9503.00,1.26
9502.00,1.26
9501.00,1.25
9500.00,1.25
9499.00,1.25
9498.00,1.25
9497.00,1.25
9496.00,1.25
9495.00,1.25
9494.00,1.25
9493.00,1.25
9492.00,1.25
9491.00,1.25
9490.00,1.25
9489.00,1.25
9488.00,1.25
9487.00,1.25
9486.00,1.25
9485.00,1.25
9484.00,1.25
9483.00,1.25
9482.00,1.25
9481.00,1.25
9480.00,1.25
9479.00,1.25
9478.00,1.25
9477.00,1.25
9476.00,1.25
9475.00,1.25
9474.00,1.26
9473.00,1.26
9472.00,1.26
9471.00,1.26
9470.00,1.26
9469.00,1.26
9468.00,1.26
9467.00,1.26
9466.00,1.26
9465.00,1.27
9464.00,1.27
9463.00,1.27
9462.00,1.27
9461.00,1.27
9460.00,1.28
9459.00,1.28
9458.00,1.28
9457.00,1.28
9456.00,1.28
9455.00,1.28
9454.00,1.29
9453.00,1.29
9452.00,1.29
9451.00,1.29
9450.00,1.29
9449.00,1.29
9448.00,1.29
9447.00,1.29
9446.00,1.29
9445.00,1.29
9444.00,1.29
9443.00,1.29
9442.00,1.29
9441.00,1.29
9440.00,1.28
9439.00,1.28
9438.00,1.28
9437.00,1.28
9436.00,1.27
9435.00,1.27
9434.00,1.27
9433.00,1.27
9432.00,1.27
9431.00,1.27
9430.00,1.26
9429.00,1.26
9428.00,1.26
9427.00,1.26
9426.00,1.26
9425.00,1.26
9424.00,1.26
9423.00,1.26
9422.00,1.26
9421.00,1.26
9420.00,1.26
9419.00,1.26
9418.00,1.26
9417.00,1.26
9416.00,1.26
9415.00,1.26
9414.00,1.26
9413.00,1.26
9412.00,1.26
9411.00,1.26
9410.00,1.26
9409.00,1.26
9408.00,1.26
9407.00,1.26
9406.00,1.25
9405.00,1.25
9404.00,1.25
9403.00,1.25
9402.00,1.25
9401.00,1.25
9400.00,1.26
9399.00,1.26
9398.00,1.26
9397.00,1.26
9396.00,1.26
9395.00,1.26
9394.00,1.26
9393.00,1.26
9392.00,1.26
9391.00,1.27
9390.00,1.27
9389.00,1.27
9388.00,1.27
9387.00,1.27
9386.00,1.27
9385.00,1.27
9384.00,1.27
9383.00,1.27
9382.00,1.26
9381.00,1.26
9380.00,1.26
9379.00,1.26
9378.00,1.26
9377.00,1.26
9376.00,1.26
9375.00,1.26
9374.00,1.26
9373.00,1.26
9372.00,1.26
9371.00,1.26
9370.00,1.26
9369.00,1.26
9368.00,1.26
9367.00,1.26
9366.00,1.26
9365.00,1.26
9364.00,1.26
9363.00,1.27
9362.00,1.27
9361.00,1.27
9360.00,1.27
9359.00,1.27
9358.00,1.27
9357.00,1.27
9356.00,1.27
9355.00,1.27
9354.00,1.27
9353.00,1.26
9352.00,1.26
9351.00,1.26
9350.00,1.26
9349.00,1.26
9348.00,1.26
9347.00,1.26
9346.00,1.26
9345.00,1.25
9344.00,1.25
9343.00,1.25
9342.00,1.25
9341.00,1.25
9340.00,1.25
9339.00,1.25
9338.00,1.25
9337.00,1.25
9336.00,1.25
9335.00,1.25
9334.00,1.26
9333.00,1.26
9332.00,1.26
9331.00,1.26
9330.00,1.26
9329.00,1.27
9328.00,1.27
9327.00,1.27
9326.00,1.27
9325.00,1.27
9324.00,1.27
9323.00,1.28
9322.00,1.28
9321.00,1.28
9320.00,1.28
9319.00,1.28
9318.00,1.28
9317.00,1.28
9316.00,1.28
9315.00,1.27
9314.00,1.27
9313.00,1.27
9312.00,1.27
9311.00,1.27
9310.00,1.27
9309.00,1.27
9308.00,1.27
9307.00,1.27
9306.00,1.27
9305.00,1.27
9304.00,1.27
9303.00,1.27
9302.00,1.27
9301.00,1.27
9300.00,1.27
9299.00,1.27
9298.00,1.28
9297.00,1.28
9296.00,1.28
9295.00,1.28
9294.00,1.28
9293.00,1.28
9292.00,1.28
9291.00,1.28
9290.00,1.28
9289.00,1.28
9288.00,1.28
9287.00,1.28
9286.00,1.28
9285.00,1.28
9284.00,1.27
9283.00,1.27
9282.00,1.27
9281.00,1.27
9280.00,1.26
9279.00,1.26
9278.00,1.26
9277.00,1.26
9276.00,1.25
9275.00,1.25
9274.00,1.25
9273.00,1.25
9272.00,1.25
9271.00,1.25
9270.00,1.25
9269.00,1.25
9268.00,1.25
9267.00,1.25
9266.00,1.25
9265.00,1.25
9264.00,1.25
9263.00,1.25
9262.00,1.25
9261.00,1.25
9260.00,1.25
9259.00,1.25
9258.00,1.25
9257.00,1.25
9256.00,1.25
9255.00,1.25
9254.00,1.25
9253.00,1.25
9252.00,1.25
9251.00,1.25
9250.00,1.25
9249.00,1.25
9248.00,1.25
9247.00,1.25
9246.00,1.25
9245.00,1.25
9244.00,1.25
9243.00,1.25
9242.00,1.25
9241.00,1.25
9240.00,1.25
9239.00,1.25
9238.00,1.25
9237.00,1.25
9236.00,1.25
9235.00,1.25
9234.00,1.25
9233.00,1.25
9232.00,1.25
9231.00,1.25
9230.00,1.25
9229.00,1.25
9228.00,1.25
9227.00,1.25
9226.00,1.25
9225.00,1.25
9224.00,1.25
9223.00,1.25
9222.00,1.25
9221.00,1.25
9220.00,1.25
9219.00,1.25
9218.00,1.25
9217.00,1.25
9216.00,1.25
9215.00,1.25
9214.00,1.25
9213.00,1.25
9212.00,1.25
9211.00,1.25
9210.00,1.25
9209.00,1.25
9208.00,1.25
9207.00,1.25
9206.00,1.26
9205.00,1.26
9204.00,1.26
9203.00,1.26
9202.00,1.26
9201.00,1.27
9200.00,1.27
9199.00,1.27
9198.00,1.27
9197.00,1.27
9196.00,1.27
9195.00,1.27
9194.00,1.27
9193.00,1.27
9192.00,1.27
9191.00,1.27
9190.00,1.27
9189.00,1.27
9188.00,1.27
9187.00,1.27
9186.00,1.27
9185.00,1.27
9184.00,1.27
9183.00,1.27
9182.00,1.27
9181.00,1.27
9180.00,1.27
9179.00,1.27
9178.00,1.27
9177.00,1.27
9176.00,1.27
9175.00,1.27
9174.00,1.27
9173.00,1.27
9172.00,1.27
9171.00,1.27
9170.00,1.27
9169.00,1.26
9168.00,1.26
9167.00,1.26
9166.00,1.26
9165.00,1.26
9164.00,1.26
9163.00,1.26
9162.00,1.26
9161.00,1.26
9160.00,1.26
9159.00,1.26
9158.00,1.26
9157.00,1.26
9156.00,1.25
9155.00,1.25
9154.00,1.25
9153.00,1.25
9152.00,1.25
9151.00,1.25
9150.00,1.25
9149.00,1.26
9148.00,1.26
9147.00,1.26
9146.00,1.26
9145.00,1.26
9144.00,1.26
9143.00,1.26
9142.00,1.26
9141.00,1.26
9140.00,1.26
9139.00,1.26
9138.00,1.26
9137.00,1.26
9136.00,1.26
9135.00,1.26
9134.00,1.26
9133.00,1.26
9132.00,1.26
9131.00,1.26
9130.00,1.26
9129.00,1.26
9128.00,1.26
9127.00,1.25
9126.00,1.25
9125.00,1.25
9124.00,1.25
9123.00,1.25
9122.00,1.25
9121.00,1.25
9120.00,1.25
9119.00,1.25
9118.00,1.25
9117.00,1.25
9116.00,1.25
9115.00,1.25
9114.00,1.25
9113.00,1.26
9112.00,1.26
9111.00,1.26
9110.00,1.26
9109.00,1.27
9108.00,1.27
9107.00,1.27
9106.00,1.27
9105.00,1.28
9104.00,1.28
9103.00,1.28
9102.00,1.28
9101.00,1.28
9100.00,1.28
9099.00,1.28
9098.00,1.28
9097.00,1.28
9096.00,1.28
9095.00,1.28
9094.00,1.28
9093.00,1.28
9092.00,1.28
9091.00,1.27
9090.00,1.27
9089.00,1.27
9088.00,1.27
9087.00,1.27
9086.00,1.27
9085.00,1.27
9084.00,1.28
9083.00,1.28
9082.00,1.28
9081.00,1.28
9080.00,1.28
9079.00,1.28
9078.00,1.28
9077.00,1.29
9076.00,1.29
9075.00,1.29
9074.00,1.29
9073.00,1.29
9072.00,1.29
9071.00,1.29
9070.00,1.29
9069.00,1.29
9068.00,1.29
9067.00,1.29
9066.00,1.29
9065.00,1.29
9064.00,1.29
9063.00,1.29
9062.00,1.29
9061.00,1.29
9060.00,1.29
9059.00,1.29
9058.00,1.29
9057.00,1.29
9056.00,1.29
9055.00,1.29
9054.00,1.29
9053.00,1.29
9052.00,1.29
9051.00,1.29
9050.00,1.29
9049.00,1.29
9048.00,1.29
9047.00,1.29
9046.00,1.29
9045.00,1.29
9044.00,1.29
9043.00,1.29
9042.00,1.29
9041.00,1.29
9040.00,1.29
9039.00,1.29
9038.00,1.29
9037.00,1.28
9036.00,1.28
9035.00,1.28
9034.00,1.28
9033.00,1.28
9032.00,1.28
9031.00,1.28
9030.00,1.28
9029.00,1.28
9028.00,1.28
9027.00,1.28
9026.00,1.28
9025.00,1.28
9024.00,1.28
9023.00,1.28
9022.00,1.28
9021.00,1.28
9020.00,1.28
9019.00,1.28
9018.00,1.28
9017.00,1.28
9016.00,1.28
9015.00,1.28
9014.00,1.28
9013.00,1.28
9012.00,1.28
9011.00,1.28
9010.00,1.28
9009.00,1.28
9008.00,1.28
9007.00,1.28
9006.00,1.28
9005.00,1.28
9004.00,1.28
9003.00,1.28
9002.00,1.28
9001.00,1.28
9000.00,1.28
8999.00,1.28
8998.00,1.28
8997.00,1.28
8996.00,1.28
8995.00,1.28
8994.00,1.28
8993.00,1.28
8992.00,1.28
8991.00,1.28
8990.00,1.28
8989.00,1.29
8988.00,1.29
8987.00,1.28
8986.00,1.28
8985.00,1.28
8984.00,1.28
8983.00,1.28
8982.00,1.28
8981.00,1.28
8980.00,1.28
8979.00,1.27
8978.00,1.27
8977.00,1.27
8976.00,1.27
8975.00,1.27
8974.00,1.27
8973.00,1.26
8972.00,1.26
8971.00,1.26
8970.00,1.26
8969.00,1.26
8968.00,1.26
8967.00,1.26
8966.00,1.26
8965.00,1.27
8964.00,1.27
8963.00,1.27
8962.00,1.27
8961.00,1.27
8960.00,1.27
8959.00,1.27
8958.00,1.27
8957.00,1.27
8956.00,1.28
8955.00,1.28
8954.00,1.28
8953.00,1.28
8952.00,1.28
8951.00,1.28
8950.00,1.28
8949.00,1.28
8948.00,1.28
8947.00,1.27
8946.00,1.27
8945.00,1.27
8944.00,1.27
8943.00,1.27
8942.00,1.27
8941.00,1.27
8940.00,1.27
8939.00,1.26
8938.00,1.26
8937.00,1.26
8936.00,1.26
8935.00,1.26
8934.00,1.26
8933.00,1.26
8932.00,1.26
8931.00,1.26
8930.00,1.26
8929.00,1.26
8928.00,1.26
8927.00,1.26
8926.00,1.26
8925.00,1.27
8924.00,1.27
8923.00,1.27
8922.00,1.27
8921.00,1.27
8920.00,1.27
8919.00,1.27
8918.00,1.27
8917.00,1.27
8916.00,1.28
8915.00,1.28
8914.00,1.28
8913.00,1.28
8912.00,1.28
8911.00,1.28
8910.00,1.28
8909.00,1.28
8908.00,1.28
8907.00,1.28
8906.00,1.28
8905.00,1.28
8904.00,1.28
8903.00,1.28
8902.00,1.28
8901.00,1.29
8900.00,1.29
8899.00,1.29
8898.00,1.29
8897.00,1.29
8896.00,1.29
8895.00,1.29
8894.00,1.29
8893.00,1.29
8892.00,1.29
8891.00,1.29
8890.00,1.29
8889.00,1.29
8888.00,1.29
8887.00,1.29
8886.00,1.29
8885.00,1.29
8884.00,1.29
8883.00,1.29
8882.00,1.28
8881.00,1.28
8880.00,1.28
8879.00,1.28
8878.00,1.28
8877.00,1.28
8876.00,1.28
8875.00,1.28
8874.00,1.27
8873.00,1.27
8872.00,1.27
8871.00,1.27
8870.00,1.27
8869.00,1.27
8868.00,1.27
8867.00,1.26
8866.00,1.26
8865.00,1.26
8864.00,1.27
8863.00,1.27
8862.00,1.27
8861.00,1.27
8860.00,1.27
8859.00,1.27
8858.00,1.27
8857.00,1.27
8856.00,1.27
8855.00,1.28
8854.00,1.28
8853.00,1.28
8852.00,1.28
8851.00,1.28
8850.00,1.28
8849.00,1.28
8848.00,1.28
8847.00,1.28
8846.00,1.28
8845.00,1.28
8844.00,1.28
8843.00,1.28
8842.00,1.28
8841.00,1.28
8840.00,1.28
8839.00,1.27
8838.00,1.27
8837.00,1.27
8836.00,1.27
8835.00,1.27
8834.00,1.27
8833.00,1.27
8832.00,1.27
8831.00,1.27
8830.00,1.27
8829.00,1.27
8828.00,1.26
8827.00,1.26
8826.00,1.26
8825.00,1.26
8824.00,1.26
8823.00,1.26
8822.00,1.26
8821.00,1.26
8820.00,1.26
8819.00,1.26
8818.00,1.26
8817.00,1.26
8816.00,1.26
8815.00,1.26
8814.00,1.26
8813.00,1.26
8812.00,1.26
8811.00,1.26
8810.00,1.26
8809.00,1.26
8808.00,1.26
8807.00,1.26
8806.00,1.26
8805.00,1.26
8804.00,1.26
8803.00,1.25
8802.00,1.25
8801.00,1.25
8800.00,1.25
8799.00,1.25
8798.00,1.25
8797.00,1.25
8796.00,1.25
8795.00,1.25
8794.00,1.25
8793.00,1.25
8792.00,1.25
8791.00,1.25
8790.00,1.25
8789.00,1.25
8788.00,1.25
8787.00,1.25
8786.00,1.25
8785.00,1.25
8784.00,1.25
8783.00,1.25
8782.00,1.25
8781.00,1.25
8780.00,1.25
8779.00,1.25
8778.00,1.25
8777.00,1.24
8776.00,1.24
8775.00,1.24
8774.00,1.24
8773.00,1.24
8772.00,1.24
8771.00,1.24
8770.00,1.24
8769.00,1.24
8768.00,1.24
8767.00,1.24
8766.00,1.24
8765.00,1.24
8764.00,1.24
8763.00,1.24
8762.00,1.24
8761.00,1.24
8760.00,1.24
8759.00,1.24
8758.00,1.24
8757.00,1.24
8756.00,1.24
8755.00,1.24
8754.00,1.24
8753.00,1.24
8752.00,1.24
8751.00,1.24
8750.00,1.24
8749.00,1.24
8748.00,1.24
8747.00,1.24
8746.00,1.24
8745.00,1.23
8744.00,1.23
8743.00,1.23
8742.00,1.23
8741.00,1.23
8740.00,1.23
8739.00,1.22
8738.00,1.22
8737.00,1.22
8736.00,1.22
8735.00,1.22
8734.00,1.22
8733.00,1.22
8732.00,1.22
8731.00,1.22
8730.00,1.21
8729.00,1.21
8728.00,1.21
8727.00,1.21
8726.00,1.21
8725.00,1.21
8724.00,1.21
8723.00,1.21
8722.00,1.21
8721.00,1.21
8720.00,1.21
8719.00,1.21
8718.00,1.21
8717.00,1.21
8716.00,1.21
8715.00,1.21
8714.00,1.21
8713.00,1.21
8712.00,1.21
8711.00,1.21
8710.00,1.21
8709.00,1.21
8708.00,1.21
8707.00,1.21
8706.00,1.21
8705.00,1.21
8704.00,1.21
8703.00,1.21
8702.00,1.22
8701.00,1.22
8700.00,1.22
8699.00,1.22
8698.00,1.22
8697.00,1.22
8696.00,1.22
8695.00,1.22
8694.00,1.22
8693.00,1.22
8692.00,1.22
8691.00,1.22
8690.00,1.22
8689.00,1.22
8688.00,1.22
8687.00,1.22
8686.00,1.22
8685.00,1.22
8684.00,1.22
8683.00,1.22
8682.00,1.22
8681.00,1.22
8680.00,1.22
8679.00,1.22
8678.00,1.22
8677.00,1.22
8676.00,1.22
8675.00,1.22
8674.00,1.22
8673.00,1.22
8672.00,1.22
8671.00,1.22
8670.00,1.22
8669.00,1.22
8668.00,1.23
8667.00,1.23
8666.00,1.23
8665.00,1.23
8664.00,1.23
8663.00,1.23
8662.00,1.23
8661.00,1.23
8660.00,1.22
8659.00,1.22
8658.00,1.22
8657.00,1.22
8656.00,1.22
8655.00,1.22
8654.00,1.22
8653.00,1.22
8652.00,1.22
8651.00,1.22
8650.00,1.22
8649.00,1.22
8648.00,1.22
8647.00,1.21
8646.00,1.21
8645.00,1.21
8644.00,1.21
8643.00,1.21
8642.00,1.21
8641.00,1.20
8640.00,1.20
8639.00,1.20
8638.00,1.20
8637.00,1.20
8636.00,1.20
8635.00,1.20
8634.00,1.20
8633.00,1.20
8632.00,1.20
8631.00,1.20
8630.00,1.20
8629.00,1.20
8628.00,1.20
8627.00,1.20
8626.00,1.20
8625.00,1.20
8624.00,1.21
8623.00,1.21
8622.00,1.21
8621.00,1.21
8620.00,1.21
8619.00,1.21
8618.00,1.21
8617.00,1.21
8616.00,1.21
8615.00,1.21
8614.00,1.21
8613.00,1.21
8612.00,1.21
8611.00,1.21
8610.00,1.21
8609.00,1.21
8608.00,1.20
8607.00,1.20
8606.00,1.20
8605.00,1.20
8604.00,1.20
8603.00,1.20
8602.00,1.20
8601.00,1.20
8600.00,1.19
8599.00,1.19
8598.00,1.19
8597.00,1.19
8596.00,1.19
8595.00,1.19
8594.00,1.19
8593.00,1.19
8592.00,1.19
8591.00,1.19
8590.00,1.20
8589.00,1.20
8588.00,1.20
8587.00,1.20
8586.00,1.20
8585.00,1.20
8584.00,1.20
8583.00,1.20
8582.00,1.20
8581.00,1.20
8580.00,1.20
8579.00,1.20
8578.00,1.20
8577.00,1.20
8576.00,1.20
8575.00,1.20
8574.00,1.20
8573.00,1.20
8572.00,1.20
8571.00,1.20
8570.00,1.20
8569.00,1.20
8568.00,1.20
8567.00,1.20
8566.00,1.20
8565.00,1.20
8564.00,1.20
8563.00,1.20
8562.00,1.20
8561.00,1.20
8560.00,1.20
8559.00,1.20
8558.00,1.20
8557.00,1.20
8556.00,1.20
8555.00,1.19
8554.00,1.19
8553.00,1.19
8552.00,1.19
8551.00,1.19
8550.00,1.19
8549.00,1.19
8548.00,1.19
8547.00,1.19
8546.00,1.19
8545.00,1.19
8544.00,1.19
8543.00,1.19
8542.00,1.19
8541.00,1.18
8540.00,1.18
8539.00,1.18
8538.00,1.18
8537.00,1.18
8536.00,1.18
8535.00,1.18
8534.00,1.18
8533.00,1.18
8532.00,1.18
8531.00,1.18
8530.00,1.18
8529.00,1.18
8528.00,1.18
8527.00,1.18
8526.00,1.18
8525.00,1.18
8524.00,1.17
8523.00,1.17
8522.00,1.17
8521.00,1.17
8520.00,1.17
8519.00,1.17
8518.00,1.17
8517.00,1.17
8516.00,1.17
8515.00,1.17
8514.00,1.17
8513.00,1.17
8512.00,1.17
8511.00,1.17
8510.00,1.17
8509.00,1.17
8508.00,1.17
8507.00,1.17
8506.00,1.17
8505.00,1.17
8504.00,1.17
8503.00,1.17
8502.00,1.17
8501.00,1.17
8500.00,1.17
8499.00,1.17
8498.00,1.17
8497.00,1.18
8496.00,1.18
8495.00,1.18
8494.00,1.18
8493.00,1.18
8492.00,1.18
8491.00,1.18
8490.00,1.18
8489.00,1.18
8488.00,1.18
8487.00,1.18
8486.00,1.18
8485.00,1.18
8484.00,1.18
8483.00,1.18
8482.00,1.18
8481.00,1.18
8480.00,1.18
8479.00,1.18
8478.00,1.17
8477.00,1.17
8476.00,1.17
8475.00,1.17
8474.00,1.17
8473.00,1.17
8472.00,1.16
8471.00,1.16
8470.00,1.16
8469.00,1.16
8468.00,1.16
8467.00,1.16
8466.00,1.16
8465.00,1.16
8464.00,1.16
8463.00,1.16
8462.00,1.16
8461.00,1.16
8460.00,1.17
8459.00,1.17
8458.00,1.17
8457.00,1.17
8456.00,1.17
8455.00,1.17
8454.00,1.17
8453.00,1.17
8452.00,1.17
8451.00,1.17
8450.00,1.17
8449.00,1.17
8448.00,1.17
8447.00,1.17
8446.00,1.17
8445.00,1.17
8444.00,1.17
8443.00,1.16
8442.00,1.16
8441.00,1.16
8440.00,1.16
8439.00,1.16
8438.00,1.16
8437.00,1.16
8436.00,1.15
8435.00,1.15
8434.00,1.15
8433.00,1.15
8432.00,1.15
8431.00,1.15
8430.00,1.15
8429.00,1.15
8428.00,1.16
8427.00,1.16
8426.00,1.16
8425.00,1.16
8424.00,1.16
8423.00,1.16
8422.00,1.16
8421.00,1.16
8420.00,1.16
8419.00,1.16
8418.00,1.16
8417.00,1.16
8416.00,1.16
8415.00,1.16
8414.00,1.16
8413.00,1.16
8412.00,1.16
8411.00,1.16
8410.00,1.16
8409.00,1.15
8408.00,1.15
8407.00,1.15
8406.00,1.15
8405.00,1.15
8404.00,1.15
8403.00,1.15
8402.00,1.15
8401.00,1.15
8400.00,1.15
8399.00,1.15
8398.00,1.15
8397.00,1.16
8396.00,1.16
8395.00,1.16
8394.00,1.16
8393.00,1.16
8392.00,1.16
8391.00,1.16
8390.00,1.16
8389.00,1.16
8388.00,1.16
8387.00,1.16
8386.00,1.16
8385.00,1.16
8384.00,1.16
8383.00,1.16
8382.00,1.16
8381.00,1.16
8380.00,1.16
8379.00,1.16
8378.00,1.16
8377.00,1.16
8376.00,1.16
8375.00,1.16
8374.00,1.16
8373.00,1.17
8372.00,1.17
8371.00,1.17
8370.00,1.17
8369.00,1.17
8368.00,1.17
8367.00,1.17
8366.00,1.17
8365.00,1.17
8364.00,1.17
8363.00,1.17
8362.00,1.18
8361.00,1.18
8360.00,1.18
8359.00,1.18
8358.00,1.18
8357.00,1.18
8356.00,1.18
8355.00,1.18
8354.00,1.18
8353.00,1.18
8352.00,1.19
8351.00,1.19
8350.00,1.19
8349.00,1.19
8348.00,1.19
8347.00,1.19
8346.00,1.19
8345.00,1.19
8344.00,1.19
8343.00,1.19
8342.00,1.19
8341.00,1.19
8340.00,1.19
8339.00,1.19
8338.00,1.19
8337.00,1.18
8336.00,1.18
8335.00,1.18
8334.00,1.18
8333.00,1.18
8332.00,1.18
8331.00,1.18
8330.00,1.18
8329.00,1.18
8328.00,1.18
8327.00,1.18
8326.00,1.18
8325.00,1.18
8324.00,1.18
8323.00,1.18
8322.00,1.18
8321.00,1.18
8320.00,1.18
8319.00,1.18
8318.00,1.18
8317.00,1.18
8316.00,1.18
8315.00,1.18
8314.00,1.18
8313.00,1.18
8312.00,1.18
8311.00,1.18
8310.00,1.18
8309.00,1.18
8308.00,1.18
8307.00,1.18
8306.00,1.18
8305.00,1.18
8304.00,1.18
8303.00,1.18
8302.00,1.18
8301.00,1.18
8300.00,1.18
8299.00,1.18
8298.00,1.18
8297.00,1.18
8296.00,1.18
8295.00,1.18
8294.00,1.19
8293.00,1.19
8292.00,1.19
8291.00,1.19
8290.00,1.19
8289.00,1.19
8288.00,1.19
8287.00,1.19
8286.00,1.19
8285.00,1.19
8284.00,1.19
8283.00,1.19
8282.00,1.19
8281.00,1.19
8280.00,1.19
8279.00,1.19
8278.00,1.19
8277.00,1.19
8276.00,1.19
8275.00,1.19
8274.00,1.19
8273.00,1.19
8272.00,1.19
8271.00,1.19
8270.00,1.19
8269.00,1.19
8268.00,1.19
8267.00,1.19
8266.00,1.19
8265.00,1.19
8264.00,1.19
8263.00,1.19
8262.00,1.19
8261.00,1.19
8260.00,1.19
8259.00,1.19
8258.00,1.19
8257.00,1.19
8256.00,1.19
8255.00,1.19
8254.00,1.19
8253.00,1.19
8252.00,1.19
8251.00,1.19
8250.00,1.19
8249.00,1.19
8248.00,1.19
8247.00,1.19
8246.00,1.19
8245.00,1.19
8244.00,1.19
8243.00,1.19
8242.00,1.19
8241.00,1.19
8240.00,1.19
8239.00,1.19
8238.00,1.20
8237.00,1.20
8236.00,1.20
8235.00,1.20
8234.00,1.20
8233.00,1.20
8232.00,1.20
8231.00,1.21
8230.00,1.21
8229.00,1.21
8228.00,1.21
8227.00,1.21
8226.00,1.21
8225.00,1.21
8224.00,1.21
8223.00,1.21
8222.00,1.21
8221.00,1.21
8220.00,1.21
8219.00,1.21
8218.00,1.21
8217.00,1.21
8216.00,1.21
8215.00,1.21
8214.00,1.21
8213.00,1.21
8212.00,1.21
8211.00,1.21
8210.00,1.21
8209.00,1.21
8208.00,1.21
8207.00,1.21
8206.00,1.21
8205.00,1.21
8204.00,1.21
8203.00,1.21
8202.00,1.21
8201.00,1.21
8200.00,1.21
8199.00,1.21
8198.00,1.21
8197.00,1.21
8196.00,1.21
8195.00,1.21
8194.00,1.21
8193.00,1.21
8192.00,1.21
8191.00,1.21
8190.00,1.22
8189.00,1.22
8188.00,1.22
8187.00,1.22
8186.00,1.22
8185.00,1.22
8184.00,1.22
8183.00,1.22
8182.00,1.22
8181.00,1.22
8180.00,1.22
8179.00,1.22
8178.00,1.22
8177.00,1.22
8176.00,1.22
8175.00,1.22
8174.00,1.22
8173.00,1.22
8172.00,1.22
8171.00,1.22
8170.00,1.22
8169.00,1.22
8168.00,1.22
8167.00,1.22
8166.00,1.22
8165.00,1.22
8164.00,1.22
8163.00,1.22
8162.00,1.22
8161.00,1.22
8160.00,1.22
8159.00,1.22
8158.00,1.22
8157.00,1.22
8156.00,1.23
8155.00,1.23
8154.00,1.23
8153.00,1.23
8152.00,1.23
8151.00,1.23
8150.00,1.23
8149.00,1.23
8148.00,1.23
8147.00,1.23
8146.00,1.23
8145.00,1.23
8144.00,1.23
8143.00,1.23
8142.00,1.23
8141.00,1.23
8140.00,1.23
8139.00,1.23
8138.00,1.23
8137.00,1.23
8136.00,1.24
8135.00,1.24
8134.00,1.24
8133.00,1.24
8132.00,1.24
8131.00,1.24
8130.00,1.24
8129.00,1.24
8128.00,1.24
8127.00,1.24
8126.00,1.24
8125.00,1.24
8124.00,1.24
8123.00,1.23
8122.00,1.23
8121.00,1.23
8120.00,1.23
8119.00,1.23
8118.00,1.23
8117.00,1.23
8116.00,1.23
8115.00,1.23
8114.00,1.23
8113.00,1.23
8112.00,1.23
8111.00,1.23
8110.00,1.23
8109.00,1.23
8108.00,1.23
8107.00,1.23
8106.00,1.23
8105.00,1.23
8104.00,1.23
8103.00,1.23
8102.00,1.23
8101.00,1.23
8100.00,1.23
8099.00,1.23
8098.00,1.23
8097.00,1.23
8096.00,1.23
8095.00,1.23
8094.00,1.23
8093.00,1.23
8092.00,1.23
8091.00,1.23
8090.00,1.23
8089.00,1.23
8088.00,1.23
8087.00,1.23
8086.00,1.23
8085.00,1.23
8084.00,1.23
8083.00,1.23
8082.00,1.23
8081.00,1.23
8080.00,1.23
8079.00,1.23
8078.00,1.24
8077.00,1.24
8076.00,1.24
8075.00,1.24
8074.00,1.24
8073.00,1.24
8072.00,1.24
8071.00,1.24
8070.00,1.24
8069.00,1.24
8068.00,1.24
8067.00,1.24
8066.00,1.24
8065.00,1.24
8064.00,1.24
8063.00,1.24
8062.00,1.24
8061.00,1.24
8060.00,1.24
8059.00,1.25
8058.00,1.25
8057.00,1.25
8056.00,1.25
8055.00,1.25
8054.00,1.25
8053.00,1.25
8052.00,1.25
8051.00,1.25
8050.00,1.25
8049.00,1.25
8048.00,1.25
8047.00,1.25
8046.00,1.25
8045.00,1.25
8044.00,1.25
8043.00,1.25
8042.00,1.25
8041.00,1.25
8040.00,1.25
8039.00,1.25
8038.00,1.25
8037.00,1.25
8036.00,1.25
8035.00,1.25
8034.00,1.25
8033.00,1.25
8032.00,1.25
8031.00,1.25
8030.00,1.25
8029.00,1.25
8028.00,1.25
8027.00,1.25
8026.00,1.25
8025.00,1.25
8024.00,1.25
8023.00,1.25
8022.00,1.25
8021.00,1.25
8020.00,1.25
8019.00,1.25
8018.00,1.25
8017.00,1.25
8016.00,1.25
8015.00,1.25
8014.00,1.25
8013.00,1.25
8012.00,1.25
8011.00,1.25
8010.00,1.25
8009.00,1.25
8008.00,1.25
8007.00,1.25
8006.00,1.25
8005.00,1.25
8004.00,1.25
8003.00,1.25
8002.00,1.25
8001.00,1.25
8000.00,1.25
7999.00,1.25
7998.00,1.25
7997.00,1.25
7996.00,1.25
7995.00,1.25
7994.00,1.25
7993.00,1.26
7992.00,1.26
7991.00,1.26
7990.00,1.26
7989.00,1.26
7988.00,1.26
7987.00,1.26
7986.00,1.26
7985.00,1.26
7984.00,1.26
7983.00,1.26
7982.00,1.26
7981.00,1.26
7980.00,1.26
7979.00,1.26
7978.00,1.26
7977.00,1.26
7976.00,1.26
7975.00,1.26
7974.00,1.26
7973.00,1.26
7972.00,1.26
7971.00,1.26
7970.00,1.26
7969.00,1.26
7968.00,1.26
7967.00,1.26
7966.00,1.26
7965.00,1.25
7964.00,1.25
7963.00,1.25
7962.00,1.25
7961.00,1.25
7960.00,1.25
7959.00,1.25
7958.00,1.25
7957.00,1.25
7956.00,1.25
7955.00,1.25
7954.00,1.25
7953.00,1.25
7952.00,1.25
7951.00,1.25
7950.00,1.25
7949.00,1.25
7948.00,1.25
7947.00,1.25
7946.00,1.25
7945.00,1.25
7944.00,1.25
7943.00,1.25
7942.00,1.25
7941.00,1.25
7940.00,1.26
7939.00,1.26
7938.00,1.26
7937.00,1.26
7936.00,1.26
7935.00,1.26
7934.00,1.26
7933.00,1.26
7932.00,1.26
7931.00,1.26
7930.00,1.26
7929.00,1.26
7928.00,1.26
7927.00,1.26
7926.00,1.26
7925.00,1.26
7924.00,1.26
7923.00,1.26
7922.00,1.26
7921.00,1.26
7920.00,1.26
7919.00,1.26
7918.00,1.26
7917.00,1.27
7916.00,1.27
7915.00,1.27
7914.00,1.27
7913.00,1.27
7912.00,1.27
7911.00,1.27
7910.00,1.27
7909.00,1.27
7908.00,1.27
7907.00,1.27
7906.00,1.27
7905.00,1.27
7904.00,1.27
7903.00,1.27
7902.00,1.27
7901.00,1.27
7900.00,1.27
7899.00,1.26
7898.00,1.26
7897.00,1.26
7896.00,1.26
7895.00,1.26
7894.00,1.26
7893.00,1.26
7892.00,1.26
7891.00,1.26
7890.00,1.26
7889.00,1.26
7888.00,1.26
7887.00,1.26
7886.00,1.26
7885.00,1.26
7884.00,1.26
7883.00,1.26
7882.00,1.26
7881.00,1.27
7880.00,1.27
7879.00,1.27
7878.00,1.27
7877.00,1.27
7876.00,1.27
7875.00,1.27
7874.00,1.27
7873.00,1.27
7872.00,1.27
7871.00,1.27
7870.00,1.27
7869.00,1.27
7868.00,1.27
7867.00,1.27
7866.00,1.27
7865.00,1.27
7864.00,1.28
7863.00,1.28
7862.00,1.28
7861.00,1.28
7860.00,1.28
7859.00,1.28
7858.00,1.28
7857.00,1.28
7856.00,1.28
7855.00,1.28
7854.00,1.28
7853.00,1.28
7852.00,1.28
7851.00,1.28
7850.00,1.28
7849.00,1.28
7848.00,1.28
7847.00,1.28
7846.00,1.28
7845.00,1.28
7844.00,1.28
7843.00,1.28
7842.00,1.28
7841.00,1.28
7840.00,1.28
7839.00,1.28
7838.00,1.28
7837.00,1.28
7836.00,1.28
7835.00,1.28
7834.00,1.28
7833.00,1.27
7832.00,1.27
7831.00,1.27
7830.00,1.27
7829.00,1.27
7828.00,1.27
7827.00,1.27
7826.00,1.27
7825.00,1.27
7824.00,1.27
7823.00,1.27
7822.00,1.27
7821.00,1.27
7820.00,1.27
7819.00,1.27
7818.00,1.27
7817.00,1.28
7816.00,1.28
7815.00,1.28
7814.00,1.28
7813.00,1.28
7812.00,1.28
7811.00,1.28
7810.00,1.28
7809.00,1.28
7808.00,1.28
7807.00,1.28
7806.00,1.28
7805.00,1.28
7804.00,1.28
7803.00,1.28
7802.00,1.28
7801.00,1.28
7800.00,1.28
7799.00,1.28
7798.00,1.28
7797.00,1.28
7796.00,1.28
7795.00,1.28
7794.00,1.28
7793.00,1.28
7792.00,1.28
7791.00,1.28
7790.00,1.28
7789.00,1.28
7788.00,1.28
7787.00,1.28
7786.00,1.28
7785.00,1.28
7784.00,1.28
7783.00,1.28
7782.00,1.28
7781.00,1.28
7780.00,1.28
7779.00,1.28
7778.00,1.28
7777.00,1.28
7776.00,1.28
7775.00,1.28
7774.00,1.28
7773.00,1.28
7772.00,1.28
7771.00,1.28
7770.00,1.28
7769.00,1.28
7768.00,1.28
7767.00,1.28
7766.00,1.28
7765.00,1.28
7764.00,1.28
7763.00,1.29
7762.00,1.29
7761.00,1.29
7760.00,1.29
7759.00,1.29
7758.00,1.29
7757.00,1.29
7756.00,1.29
7755.00,1.29
7754.00,1.29
7753.00,1.29
7752.00,1.29
7751.00,1.29
7750.00,1.29
7749.00,1.29
7748.00,1.29
7747.00,1.29
7746.00,1.29
7745.00,1.29
7744.00,1.29
7743.00,1.28
7742.00,1.28
7741.00,1.28
7740.00,1.28
7739.00,1.28
7738.00,1.28
7737.00,1.28
7736.00,1.28
7735.00,1.28
7734.00,1.28
7733.00,1.28
7732.00,1.28
7731.00,1.28
7730.00,1.28
7729.00,1.28
7728.00,1.28
7727.00,1.28
7726.00,1.29
7725.00,1.29
7724.00,1.29
7723.00,1.29
7722.00,1.29
7721.00,1.29
7720.00,1.29
7719.00,1.29
7718.00,1.29
7717.00,1.29
7716.00,1.29
7715.00,1.29
7714.00,1.28
7713.00,1.28
7712.00,1.28
7711.00,1.28
7710.00,1.28
7709.00,1.28
7708.00,1.28
7707.00,1.28
7706.00,1.28
7705.00,1.28
7704.00,1.28
7703.00,1.28
7702.00,1.28
7701.00,1.28
7700.00,1.28
7699.00,1.28
7698.00,1.28
7697.00,1.28
7696.00,1.29
7695.00,1.29
7694.00,1.28
7693.00,1.28
7692.00,1.28
7691.00,1.28
7690.00,1.28
7689.00,1.28
7688.00,1.28
7687.00,1.28
7686.00,1.28
7685.00,1.28
7684.00,1.28
7683.00,1.28
7682.00,1.28
7681.00,1.28
7680.00,1.28
7679.00,1.28
7678.00,1.28
7677.00,1.28
7676.00,1.28
7675.00,1.29
7674.00,1.29
7673.00,1.29
7672.00,1.29
7671.00,1.29
7670.00,1.29
7669.00,1.29
7668.00,1.29
7667.00,1.29
7666.00,1.29
7665.00,1.29
7664.00,1.29
7663.00,1.29
7662.00,1.29
7661.00,1.29
7660.00,1.29
7659.00,1.29
7658.00,1.29
7657.00,1.29
7656.00,1.29
7655.00,1.29
7654.00,1.29
7653.00,1.29
7652.00,1.29
7651.00,1.29
7650.00,1.29
7649.00,1.29
7648.00,1.29
7647.00,1.29
7646.00,1.29
7645.00,1.29
7644.00,1.29
7643.00,1.29
7642.00,1.29
7641.00,1.29
7640.00,1.29
7639.00,1.29
7638.00,1.29
7637.00,1.29
7636.00,1.29
7635.00,1.29
7634.00,1.29
7633.00,1.29
7632.00,1.29
7631.00,1.29
7630.00,1.29
7629.00,1.29
7628.00,1.29
7627.00,1.29
7626.00,1.29
7625.00,1.29
7624.00,1.29
7623.00,1.29
7622.00,1.29
7621.00,1.29
7620.00,1.29
7619.00,1.29
7618.00,1.29
7617.00,1.29
7616.00,1.29
7615.00,1.29
7614.00,1.29
7613.00,1.29
7612.00,1.29
7611.00,1.29
7610.00,1.29
7609.00,1.29
7608.00,1.28
7607.00,1.28
7606.00,1.28
7605.00,1.28
7604.00,1.28
7603.00,1.28
7602.00,1.28
7601.00,1.28
7600.00,1.28
7599.00,1.28
7598.00,1.28
7597.00,1.28
7596.00,1.28
7595.00,1.28
7594.00,1.28
7593.00,1.28
7592.00,1.28
7591.00,1.28
7590.00,1.28
7589.00,1.28
7588.00,1.28
7587.00,1.28
7586.00,1.28
7585.00,1.28
7584.00,1.28
7583.00,1.28
7582.00,1.28
7581.00,1.28
7580.00,1.28
7579.00,1.28
7578.00,1.28
7577.00,1.29
7576.00,1.29
7575.00,1.29
7574.00,1.29
7573.00,1.29
7572.00,1.29
7571.00,1.29
7570.00,1.29
7569.00,1.29
7568.00,1.29
7567.00,1.29
7566.00,1.29
7565.00,1.29
7564.00,1.29
7563.00,1.28
7562.00,1.28
7561.00,1.28
7560.00,1.28
7559.00,1.28
7558.00,1.28
7557.00,1.28
7556.00,1.28
7555.00,1.27
7554.00,1.27
7553.00,1.27
7552.00,1.27
7551.00,1.27
7550.00,1.27
7549.00,1.27
7548.00,1.27
7547.00,1.27
7546.00,1.27
7545.00,1.27
7544.00,1.27
7543.00,1.27
7542.00,1.27
7541.00,1.27
7540.00,1.27
7539.00,1.27
7538.00,1.27
7537.00,1.27
7536.00,1.27
7535.00,1.27
7534.00,1.27
7533.00,1.27
7532.00,1.27
7531.00,1.27
7530.00,1.27
7529.00,1.26
7528.00,1.26
7527.00,1.26
7526.00,1.26
7525.00,1.26
7524.00,1.26
7523.00,1.26
7522.00,1.26
7521.00,1.26
7520.00,1.26
7519.00,1.26
7518.00,1.26
7517.00,1.26
7516.00,1.26
7515.00,1.26
7514.00,1.26
7513.00,1.26
7512.00,1.25
7511.00,1.25
7510.00,1.25
7509.00,1.25
7508.00,1.25
7507.00,1.25
7506.00,1.25
7505.00,1.25
7504.00,1.25
7503.00,1.25
7502.00,1.25
7501.00,1.26
7500.00,1.26
7499.00,1.26
7498.00,1.26
7497.00,1.26
7496.00,1.26
7495.00,1.26
7494.00,1.25
7493.00,1.25
7492.00,1.25
7491.00,1.25
7490.00,1.25
7489.00,1.25
7488.00,1.25
7487.00,1.25
7486.00,1.25
7485.00,1.25
7484.00,1.25
7483.00,1.25
7482.00,1.25
7481.00,1.25
7480.00,1.25
7479.00,1.25
7478.00,1.25
7477.00,1.25
7476.00,1.25
7475.00,1.25
7474.00,1.25
7473.00,1.25
7472.00,1.25
7471.00,1.25
7470.00,1.25
7469.00,1.25
7468.00,1.25
7467.00,1.25
7466.00,1.25
7465.00,1.25
7464.00,1.25
7463.00,1.25
7462.00,1.25
7461.00,1.25
7460.00,1.25
7459.00,1.25
7458.00,1.25
7457.00,1.25
7456.00,1.25
7455.00,1.25
7454.00,1.24
7453.00,1.24
7452.00,1.24
7451.00,1.24
7450.00,1.24
7449.00,1.24
7448.00,1.24
7447.00,1.24
7446.00,1.24
7445.00,1.24
7444.00,1.24
7443.00,1.24
7442.00,1.24
7441.00,1.24
7440.00,1.24
7439.00,1.24
7438.00,1.24
7437.00,1.24
7436.00,1.23
7435.00,1.23
7434.00,1.23
7433.00,1.23
7432.00,1.23
7431.00,1.23
7430.00,1.23
7429.00,1.23
7428.00,1.23
7427.00,1.23
7426.00,1.23
7425.00,1.23
7424.00,1.22
7423.00,1.22
7422.00,1.22
7421.00,1.22
7420.00,1.22
7419.00,1.22
7418.00,1.22
7417.00,1.22
7416.00,1.22
7415.00,1.22
7414.00,1.22
7413.00,1.22
7412.00,1.21
7411.00,1.21
7410.00,1.21
7409.00,1.21
7408.00,1.21
7407.00,1.21
7406.00,1.21
7405.00,1.20
7404.00,1.20
7403.00,1.20
7402.00,1.20
7401.00,1.20
7400.00,1.20
7399.00,1.20
7398.00,1.20
7397.00,1.19
7396.00,1.19
7395.00,1.19
7394.00,1.19
7393.00,1.19
7392.00,1.19
7391.00,1.19
7390.00,1.19
7389.00,1.19
7388.00,1.19
7387.00,1.19
7386.00,1.19
7385.00,1.19
7384.00,1.19
7383.00,1.19
7382.00,1.19
7381.00,1.19
7380.00,1.19
7379.00,1.19
7378.00,1.19
7377.00,1.19
7376.00,1.19
7375.00,1.19
7374.00,1.19
7373.00,1.19
7372.00,1.19
7371.00,1.20
7370.00,1.20
7369.00,1.20
7368.00,1.20
7367.00,1.20
7366.00,1.20
7365.00,1.20
7364.00,1.19
7363.00,1.19
7362.00,1.19
7361.00,1.19
7360.00,1.19
7359.00,1.19
7358.00,1.19
7357.00,1.19
7356.00,1.19
7355.00,1.19
7354.00,1.19
7353.00,1.19
7352.00,1.19
7351.00,1.19
7350.00,1.19
7349.00,1.19
7348.00,1.19
7347.00,1.19
7346.00,1.19
7345.00,1.19
7344.00,1.19
7343.00,1.19
7342.00,1.19
7341.00,1.19
7340.00,1.19
7339.00,1.19
7338.00,1.19
7337.00,1.19
7336.00,1.19
7335.00,1.19
7334.00,1.19
7333.00,1.18
7332.00,1.18
7331.00,1.18
7330.00,1.18
7329.00,1.18
7328.00,1.18
7327.00,1.18
7326.00,1.18
7325.00,1.18
7324.00,1.18
7323.00,1.18
7322.00,1.18
7321.00,1.18
7320.00,1.18
7319.00,1.18
7318.00,1.18
7317.00,1.18
7316.00,1.18
7315.00,1.18
7314.00,1.18
7313.00,1.18
7312.00,1.18
7311.00,1.18
7310.00,1.18
7309.00,1.18
7308.00,1.18
7307.00,1.18
7306.00,1.17
7305.00,1.17
7304.00,1.17
7303.00,1.17
7302.00,1.17
7301.00,1.17
7300.00,1.17
7299.00,1.16
7298.00,1.16
7297.00,1.16
7296.00,1.16
7295.00,1.16
7294.00,1.16
7293.00,1.16
7292.00,1.16
7291.00,1.16
7290.00,1.16
7289.00,1.16
7288.00,1.15
7287.00,1.15
7286.00,1.15
7285.00,1.15
7284.00,1.15
7283.00,1.15
7282.00,1.15
7281.00,1.15
7280.00,1.15
7279.00,1.14
7278.00,1.14
7277.00,1.14
7276.00,1.14
7275.00,1.14
7274.00,1.14
7273.00,1.13
7272.00,1.13
7271.00,1.13
7270.00,1.13
7269.00,1.13
7268.00,1.12
7267.00,1.12
7266.00,1.12
7265.00,1.12
7264.00,1.12
7263.00,1.12
7262.00,1.11
7261.00,1.11
7260.00,1.11
7259.00,1.11
7258.00,1.11
7257.00,1.10
7256.00,1.10
7255.00,1.10
7254.00,1.10
7253.00,1.10
7252.00,1.10
7251.00,1.09
7250.00,1.09
7249.00,1.09
7248.00,1.09
7247.00,1.09
7246.00,1.08
7245.00,1.08
7244.00,1.08
7243.00,1.08
7242.00,1.07
7241.00,1.07
7240.00,1.07
7239.00,1.07
7238.00,1.06
7237.00,1.06
7236.00,1.06
7235.00,1.05
7234.00,1.05
7233.00,1.05
7232.00,1.05
7231.00,1.04
7230.00,1.04
7229.00,1.04
7228.00,1.03
7227.00,1.03
7226.00,1.03
7225.00,1.02
7224.00,1.02
7223.00,1.01
7222.00,1.01
7221.00,1.01
7220.00,1.00
7219.00,1.00
7218.00,1.00
7217.00,0.99
7216.00,0.99
7215.00,0.99
7214.00,0.98
7213.00,0.98
7212.00,0.97
7211.00,0.97
7210.00,0.97
7209.00,0.96
7208.00,0.96
7207.00,0.95
7206.00,0.95
7205.00,0.95
7204.00,0.94
7203.00,0.94
7202.00,0.93
7201.00,0.93
7200.00,0.92
7199.00,0.92
7198.00,0.92
7197.00,0.91
7196.00,0.91
7195.00,0.90
7194.00,0.90
7193.00,0.90
7192.00,0.89
7191.00,0.89
7190.00,0.89
7189.00,0.88
7188.00,0.88
7187.00,0.88
7186.00,0.87
7185.00,0.87
7184.00,0.87
7183.00,0.86
7182.00,0.86
7181.00,0.86
7180.00,0.85
7179.00,0.85
7178.00,0.84
7177.00,0.84
7176.00,0.84
7175.00,0.83
7174.00,0.83
7173.00,0.83
7172.00,0.82
7171.00,0.82
7170.00,0.82
7169.00,0.81
7168.00,0.81
7167.00,0.81
7166.00,0.80
7165.00,0.80
7164.00,0.80
7163.00,0.79
7162.00,0.79
7161.00,0.79
7160.00,0.78
7159.00,0.78
7158.00,0.78
7157.00,0.78
7156.00,0.77
7155.00,0.77
7154.00,0.77
7153.00,0.76
7152.00,0.76
7151.00,0.76
7150.00,0.75
7149.00,0.75
7148.00,0.75
7147.00,0.74
7146.00,0.74
7145.00,0.74
7144.00,0.73
7143.00,0.73
7142.00,0.73
7141.00,0.73
7140.00,0.72
7139.00,0.72
7138.00,0.72
7137.00,0.71
7136.00,0.71
7135.00,0.71
7134.00,0.71
7133.00,0.70
7132.00,0.70
7131.00,0.70
7130.00,0.70
7129.00,0.69
7128.00,0.69
7127.00,0.69
7126.00,0.69
7125.00,0.68
7124.00,0.68
7123.00,0.68
7122.00,0.67
7121.00,0.67
7120.00,0.67
7119.00,0.67
7118.00,0.66
7117.00,0.66
7116.00,0.66
7115.00,0.66
7114.00,0.66
7113.00,0.65
7112.00,0.65
7111.00,0.65
7110.00,0.65
7109.00,0.64
7108.00,0.64
7107.00,0.64
7106.00,0.64
7105.00,0.64
7104.00,0.63
7103.00,0.63
7102.00,0.63
7101.00,0.63
7100.00,0.62
7099.00,0.62
7098.00,0.62
7097.00,0.62
7096.00,0.61
7095.00,0.61
7094.00,0.61
7093.00,0.61
7092.00,0.61
7091.00,0.60
7090.00,0.60
7089.00,0.60
7088.00,0.60
7087.00,0.60
7086.00,0.60
7085.00,0.59
7084.00,0.59
7083.00,0.59
7082.00,0.59
7081.00,0.59
7080.00,0.59
7079.00,0.59
7078.00,0.59
7077.00,0.58
7076.00,0.58
7075.00,0.58
7074.00,0.58
7073.00,0.58
7072.00,0.58
7071.00,0.58
7070.00,0.58
7069.00,0.57
7068.00,0.57
7067.00,0.57
7066.00,0.57
7065.00,0.57
7064.00,0.57
7063.00,0.56
7062.00,0.56
7061.00,0.56
7060.00,0.56
7059.00,0.56
7058.00,0.55
7057.00,0.55
7056.00,0.55
7055.00,0.55
7054.00,0.55
7053.00,0.55
7052.00,0.55
7051.00,0.55
7050.00,0.55
7049.00,0.54
7048.00,0.54
7047.00,0.54
7046.00,0.54
7045.00,0.54
7044.00,0.54
7043.00,0.54
7042.00,0.54
7041.00,0.54
7040.00,0.54
7039.00,0.54
7038.00,0.54
7037.00,0.54
7036.00,0.54
7035.00,0.54
7034.00,0.54
7033.00,0.54
7032.00,0.54
7031.00,0.54
7030.00,0.54
7029.00,0.53
7028.00,0.53
7027.00,0.53
7026.00,0.53
7025.00,0.53
7024.00,0.53
7023.00,0.53
7022.00,0.53
7021.00,0.53
7020.00,0.53
7019.00,0.53
7018.00,0.53
7017.00,0.52
7016.00,0.52
7015.00,0.52
7014.00,0.52
7013.00,0.52
7012.00,0.52
7011.00,0.52
7010.00,0.52
7009.00,0.52
7008.00,0.52
7007.00,0.52
7006.00,0.52
7005.00,0.52
7004.00,0.51
7003.00,0.51
7002.00,0.51
7001.00,0.51
7000.00,0.51
6999.00,0.51
6998.00,0.51
6997.00,0.51
6996.00,0.51
6995.00,0.51
6994.00,0.51
6993.00,0.51
6992.00,0.51
6991.00,0.51
6990.00,0.51
6989.00,0.51
6988.00,0.51
6987.00,0.51
6986.00,0.51
6985.00,0.51
6984.00,0.51
6983.00,0.51
6982.00,0.51
6981.00,0.51
6980.00,0.51
6979.00,0.51
6978.00,0.51
6977.00,0.51
6976.00,0.50
6975.00,0.50
6974.00,0.50
6973.00,0.50
6972.00,0.50
6971.00,0.50
6970.00,0.50
6969.00,0.50
6968.00,0.49
6967.00,0.49
6966.00,0.49
6965.00,0.49
6964.00,0.49
6963.00,0.49
6962.00,0.49
6961.00,0.49
6960.00,0.49
6959.00,0.49
6958.00,0.49
6957.00,0.50
6956.00,0.50
6955.00,0.50
6954.00,0.50
6953.00,0.50
6952.00,0.50
6951.00,0.50
6950.00,0.50
6949.00,0.50
6948.00,0.50
6947.00,0.50
6946.00,0.50
6945.00,0.50
6944.00,0.50
6943.00,0.50
6942.00,0.50
6941.00,0.49
6940.00,0.49
6939.00,0.49
6938.00,0.49
6937.00,0.49
6936.00,0.49
6935.00,0.49
6934.00,0.49
6933.00,0.49
6932.00,0.49
6931.00,0.49
6930.00,0.49
6929.00,0.48
6928.00,0.48
6927.00,0.48
6926.00,0.48
6925.00,0.48
6924.00,0.48
6923.00,0.48
6922.00,0.48
6921.00,0.48
6920.00,0.48
6919.00,0.48
6918.00,0.48
6917.00,0.48
6916.00,0.48
6915.00,0.48
6914.00,0.48
6913.00,0.48
6912.00,0.48
6911.00,0.48
6910.00,0.48
6909.00,0.48
6908.00,0.48
6907.00,0.48
6906.00,0.48
6905.00,0.48
6904.00,0.48
6903.00,0.48
6902.00,0.48
6901.00,0.48
6900.00,0.48
6899.00,0.48
6898.00,0.48
6897.00,0.48
6896.00,0.48
6895.00,0.48
6894.00,0.48
6893.00,0.48
6892.00,0.48
6891.00,0.48
6890.00,0.48
6889.00,0.48
6888.00,0.48
6887.00,0.48
6886.00,0.48
6885.00,0.48
6884.00,0.48
6883.00,0.48
6882.00,0.48
6881.00,0.48
6880.00,0.48
6879.00,0.48
6878.00,0.48
6877.00,0.48
6876.00,0.48
6875.00,0.48
6874.00,0.48
6873.00,0.48
6872.00,0.49
6871.00,0.49
6870.00,0.49
6869.00,0.49
6868.00,0.49
6867.00,0.49
6866.00,0.49
6865.00,0.49
6864.00,0.49
6863.00,0.49
6862.00,0.49
6861.00,0.49
6860.00,0.49
6859.00,0.49
6858.00,0.49
6857.00,0.49
6856.00,0.49
6855.00,0.49
6854.00,0.49
6853.00,0.49
6852.00,0.49
6851.00,0.49
6850.00,0.49
6849.00,0.49
6848.00,0.49
6847.00,0.49
6846.00,0.49
6845.00,0.49
6844.00,0.49
6843.00,0.49
6842.00,0.49
6841.00,0.49
6840.00,0.49
6839.00,0.49
6838.00,0.49
6837.00,0.49
6836.00,0.49
6835.00,0.49
6834.00,0.49
6833.00,0.49
6832.00,0.49
6831.00,0.49
6830.00,0.49
6829.00,0.49
6828.00,0.49
6827.00,0.49
6826.00,0.49
6825.00,0.49
6824.00,0.49
6823.00,0.49
6822.00,0.49
6821.00,0.49
6820.00,0.49
6819.00,0.49
6818.00,0.49
6817.00,0.49
6816.00,0.49
6815.00,0.49
6814.00,0.50
6813.00,0.50
6812.00,0.50
6811.00,0.50
6810.00,0.50
6809.00,0.50
6808.00,0.50
6807.00,0.50
6806.00,0.50
6805.00,0.50
6804.00,0.50
6803.00,0.50
6802.00,0.50
6801.00,0.50
6800.00,0.50
6799.00,0.50
6798.00,0.50
6797.00,0.50
6796.00,0.50
6795.00,0.50
6794.00,0.50
6793.00,0.50
6792.00,0.51
6791.00,0.51
6790.00,0.51
6789.00,0.51
6788.00,0.51
6787.00,0.51
6786.00,0.51
6785.00,0.51
6784.00,0.51
6783.00,0.51
6782.00,0.51
6781.00,0.51
6780.00,0.52
6779.00,0.52
6778.00,0.52
6777.00,0.52
6776.00,0.52
6775.00,0.52
6774.00,0.52
6773.00,0.52
6772.00,0.52
6771.00,0.52
6770.00,0.52
6769.00,0.52
6768.00,0.52
6767.00,0.52
6766.00,0.52
6765.00,0.52
6764.00,0.52
6763.00,0.52
6762.00,0.52
6761.00,0.52
6760.00,0.52
6759.00,0.52
6758.00,0.52
6757.00,0.53
6756.00,0.53
6755.00,0.53
6754.00,0.53
6753.00,0.53
6752.00,0.53
6751.00,0.53
6750.00,0.53
6749.00,0.53
6748.00,0.53
6747.00,0.53
6746.00,0.53
6745.00,0.53
6744.00,0.53
6743.00,0.54
6742.00,0.54
6741.00,0.54
6740.00,0.54
6739.00,0.54
6738.00,0.54
6737.00,0.54
6736.00,0.54
6735.00,0.54
6734.00,0.54
6733.00,0.54
6732.00,0.54
6731.00,0.54
6730.00,0.54
6729.00,0.54
6728.00,0.54
6727.00,0.54
6726.00,0.54
6725.00,0.54
6724.00,0.54
6723.00,0.54
6722.00,0.54
6721.00,0.55
6720.00,0.55
6719.00,0.55
6718.00,0.55
6717.00,0.55
6716.00,0.55
6715.00,0.55
6714.00,0.55
6713.00,0.55
6712.00,0.55
6711.00,0.56
6710.00,0.56
6709.00,0.56
6708.00,0.56
6707.00,0.56
6706.00,0.56
6705.00,0.56
6704.00,0.56
6703.00,0.57
6702.00,0.57
6701.00,0.57
6700.00,0.57
6699.00,0.57
6698.00,0.57
6697.00,0.57
6696.00,0.57
6695.00,0.58
6694.00,0.58
6693.00,0.58
6692.00,0.58
6691.00,0.58
6690.00,0.58
6689.00,0.58
6688.00,0.58
6687.00,0.58
6686.00,0.58
6685.00,0.58
6684.00,0.59
6683.00,0.59
6682.00,0.59
6681.00,0.59
6680.00,0.59
6679.00,0.59
6678.00,0.59
6677.00,0.59
6676.00,0.59
6675.00,0.59
6674.00,0.59
6673.00,0.59
6672.00,0.59
6671.00,0.59
6670.00,0.59
6669.00,0.60
6668.00,0.60
6667.00,0.60
6666.00,0.60
6665.00,0.60
6664.00,0.60
6663.00,0.60
6662.00,0.60
6661.00,0.61
6660.00,0.61
6659.00,0.61
6658.00,0.61
6657.00,0.61
6656.00,0.61
6655.00,0.61
6654.00,0.61
6653.00,0.61
6652.00,0.62
6651.00,0.62
6650.00,0.62
6649.00,0.62
6648.00,0.62
6647.00,0.62
6646.00,0.62
6645.00,0.62
6644.00,0.62
6643.00,0.62
6642.00,0.62
6641.00,0.62
6640.00,0.63
6639.00,0.63
6638.00,0.63
6637.00,0.63
6636.00,0.63
6635.00,0.63
6634.00,0.63
6633.00,0.63
6632.00,0.63
6631.00,0.63
6630.00,0.63
6629.00,0.64
6628.00,0.64
6627.00,0.64
6626.00,0.64
6625.00,0.64
6624.00,0.64
6623.00,0.64
6622.00,0.64
6621.00,0.64
6620.00,0.64
6619.00,0.64
6618.00,0.65
6617.00,0.65
6616.00,0.65
6615.00,0.65
6614.00,0.65
6613.00,0.65
6612.00,0.65
6611.00,0.65
6610.00,0.65
6609.00,0.65
6608.00,0.66
6607.00,0.66
6606.00,0.66
6605.00,0.66
6604.00,0.66
6603.00,0.66
6602.00,0.66
6601.00,0.66
6600.00,0.67
6599.00,0.67
6598.00,0.67
6597.00,0.67
6596.00,0.67
6595.00,0.67
6594.00,0.67
6593.00,0.67
6592.00,0.68
6591.00,0.68
6590.00,0.68
6589.00,0.68
6588.00,0.68
6587.00,0.68
6586.00,0.68
6585.00,0.69
6584.00,0.69
6583.00,0.69
6582.00,0.69
6581.00,0.69
6580.00,0.69
6579.00,0.69
6578.00,0.70
6577.00,0.70
6576.00,0.70
6575.00,0.70
6574.00,0.70
6573.00,0.70
6572.00,0.70
6571.00,0.70
6570.00,0.70
6569.00,0.71
6568.00,0.71
6567.00,0.71
6566.00,0.71
6565.00,0.71
6564.00,0.71
6563.00,0.71
6562.00,0.71
6561.00,0.71
6560.00,0.71
6559.00,0.71
6558.00,0.72
6557.00,0.72
6556.00,0.72
6555.00,0.72
6554.00,0.72
6553.00,0.72
6552.00,0.72
6551.00,0.72
6550.00,0.72
6549.00,0.73
6548.00,0.73
6547.00,0.73
6546.00,0.73
6545.00,0.73
6544.00,0.73
6543.00,0.73
6542.00,0.73
6541.00,0.73
6540.00,0.73
6539.00,0.74
6538.00,0.74
6537.00,0.74
6536.00,0.74
6535.00,0.74
6534.00,0.74
6533.00,0.74
6532.00,0.74
6531.00,0.74
6530.00,0.74
6529.00,0.74
6528.00,0.75
6527.00,0.75
6526.00,0.75
6525.00,0.75
6524.00,0.75
6523.00,0.75
6522.00,0.75
6521.00,0.75
6520.00,0.75
6519.00,0.76
6518.00,0.76
6517.00,0.76
6516.00,0.76
6515.00,0.76
6514.00,0.76
6513.00,0.76
6512.00,0.76
6511.00,0.76
6510.00,0.76
6509.00,0.76
6508.00,0.77
6507.00,0.77
6506.00,0.77
6505.00,0.77
6504.00,0.77
6503.00,0.77
6502.00,0.77
6501.00,0.77
6500.00,0.77
6499.00,0.77
6498.00,0.77
6497.00,0.78
6496.00,0.78
6495.00,0.78
6494.00,0.78
6493.00,0.78
6492.00,0.78
6491.00,0.78
6490.00,0.78
6489.00,0.78
6488.00,0.79
6487.00,0.79
6486.00,0.79
6485.00,0.79
6484.00,0.79
6483.00,0.79
6482.00,0.79
6481.00,0.79
6480.00,0.79
6479.00,0.79
6478.00,0.79
6477.00,0.80
6476.00,0.80
6475.00,0.80
6474.00,0.80
6473.00,0.80
6472.00,0.80
6471.00,0.80
6470.00,0.80
6469.00,0.80
6468.00,0.80
6467.00,0.80
6466.00,0.80
6465.00,0.80
6464.00,0.80
6463.00,0.80
6462.00,0.81
6461.00,0.81
6460.00,0.81
6459.00,0.81
6458.00,0.81
6457.00,0.81
6456.00,0.81
6455.00,0.81
6454.00,0.81
6453.00,0.81
6452.00,0.81
6451.00,0.81
6450.00,0.81
6449.00,0.82
6448.00,0.82
6447.00,0.82
6446.00,0.82
6445.00,0.82
6444.00,0.82
6443.00,0.82
6442.00,0.82
6441.00,0.82
6440.00,0.82
6439.00,0.82
6438.00,0.82
6437.00,0.82
6436.00,0.83
6435.00,0.83
6434.00,0.83
6433.00,0.83
6432.00,0.83
6431.00,0.83
6430.00,0.83
6429.00,0.83
6428.00,0.83
6427.00,0.84
6426.00,0.84
6425.00,0.84
6424.00,0.84
6423.00,0.84
6422.00,0.84
6421.00,0.84
6420.00,0.84
6419.00,0.85
6418.00,0.85
6417.00,0.85
6416.00,0.85
6415.00,0.85
6414.00,0.85
6413.00,0.85
6412.00,0.85
6411.00,0.85
6410.00,0.85
6409.00,0.85
6408.00,0.85
6407.00,0.86
6406.00,0.86
6405.00,0.86
6404.00,0.86
6403.00,0.86
6402.00,0.86
6401.00,0.86
6400.00,0.86
6399.00,0.86
6398.00,0.87
6397.00,0.87
6396.00,0.87
6395.00,0.87
6394.00,0.87
6393.00,0.87
6392.00,0.87
6391.00,0.87
6390.00,0.88
6389.00,0.88
6388.00,0.88
6387.00,0.88
6386.00,0.88
6385.00,0.88
6384.00,0.88
6383.00,0.88
6382.00,0.88
6381.00,0.88
6380.00,0.88
6379.00,0.88
6378.00,0.89
6377.00,0.89
6376.00,0.89
6375.00,0.89
6374.00,0.89
6373.00,0.89
6372.00,0.89
6371.00,0.89
6370.00,0.89
6369.00,0.89
6368.00,0.89
6367.00,0.90
6366.00,0.90
6365.00,0.90
6364.00,0.90
6363.00,0.90
6362.00,0.90
6361.00,0.90
6360.00,0.90
6359.00,0.90
6358.00,0.90
6357.00,0.90
6356.00,0.91
6355.00,0.91
6354.00,0.91
6353.00,0.91
6352.00,0.91
6351.00,0.91
6350.00,0.91
6349.00,0.91
6348.00,0.91
6347.00,0.91
6346.00,0.91
6345.00,0.91
6344.00,0.91
6343.00,0.91
6342.00,0.92
6341.00,0.92
6340.00,0.92
6339.00,0.92
6338.00,0.92
6337.00,0.92
6336.00,0.92
6335.00,0.92
6334.00,0.93
6333.00,0.93
6332.00,0.93
6331.00,0.93
6330.00,0.93
6329.00,0.93
6328.00,0.93
6327.00,0.94
6326.00,0.94
6325.00,0.94
6324.00,0.94
6323.00,0.94
6322.00,0.94
6321.00,0.94
6320.00,0.94
6319.00,0.95
6318.00,0.95
6317.00,0.95
6316.00,0.95
6315.00,0.95
6314.00,0.95
6313.00,0.96
6312.00,0.96
6311.00,0.96
6310.00,0.96
6309.00,0.96
6308.00,0.96
6307.00,0.97
6306.00,0.97
6305.00,0.97
6304.00,0.97
6303.00,0.97
6302.00,0.97
6301.00,0.97
6300.00,0.98
6299.00,0.98
6298.00,0.98
6297.00,0.98
6296.00,0.98
6295.00,0.98
6294.00,0.98
6293.00,0.98
6292.00,0.98
6291.00,0.98
6290.00,0.98
6289.00,0.99
6288.00,0.99
6287.00,0.99
6286.00,0.99
6285.00,0.99
6284.00,0.99
6283.00,0.99
6282.00,0.99
6281.00,1.00
6280.00,1.00
6279.00,1.00
6278.00,1.00
6277.00,1.00
6276.00,1.00
6275.00,1.00
6274.00,1.00
6273.00,1.00
6272.00,1.00
6271.00,1.01
6270.00,1.01
6269.00,1.01
6268.00,1.01
6267.00,1.01
6266.00,1.01
6265.00,1.01
6264.00,1.01
6263.00,1.01
6262.00,1.02
6261.00,1.02
6260.00,1.02
6259.00,1.02
6258.00,1.02
6257.00,1.02
6256.00,1.02
6255.00,1.02
6254.00,1.03
6253.00,1.03
6252.00,1.03
6251.00,1.03
6250.00,1.03
6249.00,1.03
6248.00,1.03
6247.00,1.03
6246.00,1.04
6245.00,1.04
6244.00,1.04
6243.00,1.04
6242.00,1.04
6241.00,1.04
6240.00,1.04
6239.00,1.04
6238.00,1.04
6237.00,1.04
6236.00,1.05
6235.00,1.05
6234.00,1.05
6233.00,1.05
6232.00,1.05
6231.00,1.05
6230.00,1.05
6229.00,1.05
6228.00,1.05
6227.00,1.06
6226.00,1.06
6225.00,1.06
6224.00,1.06
6223.00,1.06
6222.00,1.06
6221.00,1.06
6220.00,1.07
6219.00,1.07
6218.00,1.07
6217.00,1.07
6216.00,1.07
6215.00,1.07
6214.00,1.07
6213.00,1.08
6212.00,1.08
6211.00,1.08
6210.00,1.08
6209.00,1.08
6208.00,1.08
6207.00,1.08
6206.00,1.08
6205.00,1.09
6204.00,1.09
6203.00,1.09
6202.00,1.09
6201.00,1.09
6200.00,1.09
6199.00,1.09
6198.00,1.09
6197.00,1.10
6196.00,1.10
6195.00,1.10
6194.00,1.10
6193.00,1.10
6192.00,1.10
6191.00,1.10
6190.00,1.10
6189.00,1.10
6188.00,1.11
6187.00,1.11
6186.00,1.11
6185.00,1.11
6184.00,1.11
6183.00,1.11
6182.00,1.11
6181.00,1.11
6180.00,1.11
6179.00,1.11
6178.00,1.11
6177.00,1.11
6176.00,1.11
6175.00,1.11
6174.00,1.11
6173.00,1.11
6172.00,1.11
6171.00,1.12
6170.00,1.12
6169.00,1.12
6168.00,1.12
6167.00,1.12
6166.00,1.12
6165.00,1.12
6164.00,1.13
6163.00,1.13
6162.00,1.13
6161.00,1.13
6160.00,1.13
6159.00,1.13
6158.00,1.14
6157.00,1.14
6156.00,1.14
6155.00,1.14
6154.00,1.14
6153.00,1.14
6152.00,1.14
6151.00,1.15
6150.00,1.15
6149.00,1.15
6148.00,1.15
6147.00,1.15
6146.00,1.15
6145.00,1.16
6144.00,1.16
6143.00,1.16
6142.00,1.16
6141.00,1.16
6140.00,1.16
6139.00,1.17
6138.00,1.17
6137.00,1.17
6136.00,1.17
6135.00,1.17
6134.00,1.17
6133.00,1.18
6132.00,1.18
6131.00,1.18
6130.00,1.18
6129.00,1.18
6128.00,1.18
6127.00,1.19
6126.00,1.19
6125.00,1.19
6124.00,1.19
6123.00,1.19
6122.00,1.19
6121.00,1.19
6120.00,1.19
6119.00,1.19
6118.00,1.19
6117.00,1.19
6116.00,1.19
6115.00,1.20
6114.00,1.20
6113.00,1.20
6112.00,1.20
6111.00,1.20
6110.00,1.20
6109.00,1.20
6108.00,1.20
6107.00,1.20
6106.00,1.20
6105.00,1.20
6104.00,1.20
6103.00,1.20
6102.00,1.21
6101.00,1.21
6100.00,1.21
6099.00,1.21
6098.00,1.21
6097.00,1.21
6096.00,1.21
6095.00,1.21
6094.00,1.22
6093.00,1.22
6092.00,1.22
6091.00,1.22
6090.00,1.22
6089.00,1.22
6088.00,1.22
6087.00,1.22
6086.00,1.22
6085.00,1.23
6084.00,1.23
6083.00,1.23
6082.00,1.23
6081.00,1.23
6080.00,1.23
6079.00,1.23
6078.00,1.23
6077.00,1.23
6076.00,1.23
6075.00,1.24
6074.00,1.24
6073.00,1.24
6072.00,1.24
6071.00,1.24
6070.00,1.24
6069.00,1.24
6068.00,1.24
6067.00,1.24
6066.00,1.24
6065.00,1.24
6064.00,1.25
6063.00,1.25
6062.00,1.25
6061.00,1.25
6060.00,1.25
6059.00,1.25
6058.00,1.25
6057.00,1.25
6056.00,1.25
6055.00,1.25
6054.00,1.26
6053.00,1.26
6052.00,1.26
6051.00,1.26
6050.00,1.26
6049.00,1.26
6048.00,1.26
6047.00,1.26
6046.00,1.26
6045.00,1.26
6044.00,1.27
6043.00,1.27
6042.00,1.27
6041.00,1.27
6040.00,1.27
6039.00,1.27
6038.00,1.27
6037.00,1.27
6036.00,1.27
6035.00,1.27
6034.00,1.27
6033.00,1.27
6032.00,1.27
6031.00,1.27
6030.00,1.27
6029.00,1.27
6028.00,1.27
6027.00,1.27
6026.00,1.27
6025.00,1.27
6024.00,1.27
6023.00,1.28
6022.00,1.28
6021.00,1.28
6020.00,1.28
6019.00,1.28
6018.00,1.28
6017.00,1.28
6016.00,1.28
6015.00,1.28
6014.00,1.28
6013.00,1.28
6012.00,1.28
6011.00,1.28
6010.00,1.28
6009.00,1.28
6008.00,1.28
6007.00,1.28
6006.00,1.28
6005.00,1.28
6004.00,1.28
6003.00,1.28
6002.00,1.28
6001.00,1.28
6000.00,1.28
5999.00,1.27
5998.00,1.27
5997.00,1.27
5996.00,1.27
5995.00,1.27
5994.00,1.27
5993.00,1.27
5992.00,1.27
5991.00,1.27
5990.00,1.27
5989.00,1.27
5988.00,1.26
5987.00,1.26
5986.00,1.26
5985.00,1.26
5984.00,1.26
5983.00,1.26
5982.00,1.25
5981.00,1.25
5980.00,1.25
5979.00,1.25
5978.00,1.24
5977.00,1.24
5976.00,1.24
5975.00,1.23
5974.00,1.23
5973.00,1.23
5972.00,1.22
5971.00,1.22
5970.00,1.22
5969.00,1.21
5968.00,1.21
5967.00,1.20
5966.00,1.20
5965.00,1.20
5964.00,1.19
5963.00,1.19
5962.00,1.18
5961.00,1.18
5960.00,1.17
5959.00,1.17
5958.00,1.17
5957.00,1.16
5956.00,1.16
5955.00,1.16
5954.00,1.15
5953.00,1.15
5952.00,1.15
5951.00,1.15
5950.00,1.14
5949.00,1.14
5948.00,1.14
5947.00,1.14
5946.00,1.14
5945.00,1.13
5944.00,1.13
5943.00,1.13
5942.00,1.13
5941.00,1.13
5940.00,1.13
5939.00,1.13
5938.00,1.13
5937.00,1.13
5936.00,1.13
5935.00,1.13
5934.00,1.13
5933.00,1.12
5932.00,1.12
5931.00,1.12
5930.00,1.12
5929.00,1.12
5928.00,1.12
5927.00,1.12
5926.00,1.11
5925.00,1.11
5924.00,1.11
5923.00,1.11
5922.00,1.11
5921.00,1.10
5920.00,1.10
5919.00,1.10
5918.00,1.10
5917.00,1.10
5916.00,1.09
5915.00,1.09
5914.00,1.09
5913.00,1.09
5912.00,1.09
5911.00,1.09
5910.00,1.09
5909.00,1.08
5908.00,1.08
5907.00,1.08
5906.00,1.08
5905.00,1.08
5904.00,1.08
5903.00,1.08
5902.00,1.08
5901.00,1.08
5900.00,1.08
5899.00,1.08
5898.00,1.08
5897.00,1.08
5896.00,1.09
5895.00,1.09
5894.00,1.09
5893.00,1.09
5892.00,1.10
5891.00,1.10
5890.00,1.10
5889.00,1.10
5888.00,1.11
5887.00,1.11
5886.00,1.11
5885.00,1.11
5884.00,1.12
5883.00,1.12
5882.00,1.12
5881.00,1.12
5880.00,1.13
5879.00,1.13
5878.00,1.13
5877.00,1.13
5876.00,1.13
5875.00,1.14
5874.00,1.14
5873.00,1.14
5872.00,1.14
5871.00,1.14
5870.00,1.14
5869.00,1.14
5868.00,1.14
5867.00,1.15
5866.00,1.15
5865.00,1.15
5864.00,1.15
5863.00,1.15
5862.00,1.15
5861.00,1.15
5860.00,1.15
5859.00,1.15
5858.00,1.15
5857.00,1.16
5856.00,1.16
5855.00,1.16
5854.00,1.16
5853.00,1.16
5852.00,1.16
5851.00,1.16
5850.00,1.16
5849.00,1.16
5848.00,1.16
5847.00,1.16
5846.00,1.16
5845.00,1.16
5844.00,1.16
5843.00,1.16
5842.00,1.16
5841.00,1.16
5840.00,1.16
5839.00,1.16
5838.00,1.16
5837.00,1.16
5836.00,1.16
5835.00,1.16
5834.00,1.16
5833.00,1.16
5832.00,1.16
5831.00,1.16
5830.00,1.16
5829.00,1.16
5828.00,1.16
5827.00,1.16
5826.00,1.16
5825.00,1.16
5824.00,1.16
5823.00,1.16
5822.00,1.16
5821.00,1.16
5820.00,1.16
5819.00,1.16
5818.00,1.16
5817.00,1.16
5816.00,1.16
5815.00,1.16
5814.00,1.16
5813.00,1.16
5812.00,1.16
5811.00,1.16
5810.00,1.16
5809.00,1.16
5808.00,1.16
5807.00,1.16
5806.00,1.16
5805.00,1.16
5804.00,1.16
5803.00,1.15
5802.00,1.15
5801.00,1.15
5800.00,1.15
5799.00,1.15
5798.00,1.15
5797.00,1.15
5796.00,1.14
5795.00,1.14
5794.00,1.14
5793.00,1.14
5792.00,1.14
5791.00,1.13
5790.00,1.13
5789.00,1.13
5788.00,1.13
5787.00,1.13
5786.00,1.12
5785.00,1.12
5784.00,1.12
5783.00,1.12
5782.00,1.12
5781.00,1.12
5780.00,1.12
5779.00,1.12
5778.00,1.12
5777.00,1.12
5776.00,1.12
5775.00,1.12
5774.00,1.12
5773.00,1.12
5772.00,1.12
5771.00,1.12
5770.00,1.12
5769.00,1.12
5768.00,1.12
5767.00,1.12
5766.00,1.12
5765.00,1.12
5764.00,1.13
5763.00,1.13
5762.00,1.13
5761.00,1.13
5760.00,1.13
5759.00,1.13
5758.00,1.14
5757.00,1.14
5756.00,1.14
5755.00,1.14
5754.00,1.14
5753.00,1.15
5752.00,1.15
5751.00,1.15
5750.00,1.15
5749.00,1.15
5748.00,1.16
5747.00,1.16
5746.00,1.16
5745.00,1.16
5744.00,1.16
5743.00,1.16
5742.00,1.16
5741.00,1.16
5740.00,1.16
5739.00,1.16
5738.00,1.16
5737.00,1.16
5736.00,1.16
5735.00,1.16
5734.00,1.16
5733.00,1.16
5732.00,1.16
5731.00,1.16
5730.00,1.16
5729.00,1.16
5728.00,1.16
5727.00,1.16
5726.00,1.16
5725.00,1.16
5724.00,1.16
5723.00,1.16
5722.00,1.16
5721.00,1.16
5720.00,1.16
5719.00,1.16
5718.00,1.16
5717.00,1.16
5716.00,1.16
5715.00,1.15
5714.00,1.15
5713.00,1.15
5712.00,1.15
5711.00,1.15
5710.00,1.15
5709.00,1.15
5708.00,1.15
5707.00,1.15
5706.00,1.15
5705.00,1.15
5704.00,1.15
5703.00,1.15
5702.00,1.15
5701.00,1.15
5700.00,1.15
5699.00,1.15
5698.00,1.14
5697.00,1.14
5696.00,1.14
5695.00,1.14
5694.00,1.14
5693.00,1.14
5692.00,1.14
5691.00,1.13
5690.00,1.13
5689.00,1.13
5688.00,1.13
5687.00,1.13
5686.00,1.13
5685.00,1.12
5684.00,1.12
5683.00,1.12
5682.00,1.12
5681.00,1.12
5680.00,1.12
5679.00,1.12
5678.00,1.12
5677.00,1.12
5676.00,1.12
5675.00,1.12
5674.00,1.12
5673.00,1.12
5672.00,1.12
5671.00,1.12
5670.00,1.12
5669.00,1.12
5668.00,1.12
5667.00,1.12
5666.00,1.12
5665.00,1.12
5664.00,1.12
5663.00,1.12
5662.00,1.12
5661.00,1.12
5660.00,1.12
5659.00,1.12
5658.00,1.12
5657.00,1.12
5656.00,1.12
5655.00,1.12
5654.00,1.12
5653.00,1.13
5652.00,1.13
5651.00,1.13
5650.00,1.13
5649.00,1.13
5648.00,1.13
5647.00,1.13
5646.00,1.13
5645.00,1.13
5644.00,1.13
5643.00,1.13
5642.00,1.13
5641.00,1.14
5640.00,1.14
5639.00,1.14
5638.00,1.14
5637.00,1.14
5636.00,1.14
5635.00,1.14
5634.00,1.14
5633.00,1.14
5632.00,1.14
5631.00,1.15
5630.00,1.15
5629.00,1.15
5628.00,1.15
5627.00,1.15
5626.00,1.15
5625.00,1.15
5624.00,1.15
5623.00,1.15
5622.00,1.15
5621.00,1.16
5620.00,1.16
5619.00,1.16
5618.00,1.16
5617.00,1.16
5616.00,1.16
5615.00,1.16
5614.00,1.16
5613.00,1.16
5612.00,1.16
5611.00,1.16
5610.00,1.16
5609.00,1.17
5608.00,1.17
5607.00,1.17
5606.00,1.17
5605.00,1.17
5604.00,1.17
5603.00,1.17
5602.00,1.17
5601.00,1.17
5600.00,1.17
5599.00,1.17
5598.00,1.18
5597.00,1.18
5596.00,1.18
5595.00,1.18
5594.00,1.18
5593.00,1.18
5592.00,1.18
5591.00,1.18
5590.00,1.18
5589.00,1.19
5588.00,1.19
5587.00,1.19
5586.00,1.19
5585.00,1.19
5584.00,1.19
5583.00,1.19
5582.00,1.19
5581.00,1.19
5580.00,1.20
5579.00,1.20
5578.00,1.20
5577.00,1.20
5576.00,1.20
5575.00,1.20
5574.00,1.20
5573.00,1.20
5572.00,1.20
5571.00,1.20
5570.00,1.20
5569.00,1.21
5568.00,1.21
5567.00,1.21
5566.00,1.21
5565.00,1.21
5564.00,1.21
5563.00,1.21
5562.00,1.21
5561.00,1.21
5560.00,1.22
5559.00,1.22
5558.00,1.22
5557.00,1.22
5556.00,1.22
5555.00,1.22
5554.00,1.22
5553.00,1.22
5552.00,1.23
5551.00,1.23
5550.00,1.23
5549.00,1.23
5548.00,1.23
5547.00,1.23
5546.00,1.23
5545.00,1.23
5544.00,1.23
5543.00,1.24
5542.00,1.24
5541.00,1.24
5540.00,1.24
5539.00,1.24
5538.00,1.24
5537.00,1.24
5536.00,1.24
5535.00,1.24
5534.00,1.24
5533.00,1.24
5532.00,1.25
5531.00,1.25
5530.00,1.25
5529.00,1.25
5528.00,1.25
5527.00,1.25
5526.00,1.25
5525.00,1.25
5524.00,1.25
5523.00,1.25
5522.00,1.25
5521.00,1.25
5520.00,1.25
5519.00,1.25
5518.00,1.25
5517.00,1.25
5516.00,1.25
5515.00,1.25
5514.00,1.26
5513.00,1.26
5512.00,1.26
5511.00,1.26
5510.00,1.26
5509.00,1.26
5508.00,1.26
5507.00,1.26
5506.00,1.26
5505.00,1.26
5504.00,1.26
5503.00,1.26
5502.00,1.26
5501.00,1.26
5500.00,1.26
5499.00,1.26
5498.00,1.27
5497.00,1.27
5496.00,1.27
5495.00,1.27
5494.00,1.27
5493.00,1.27
5492.00,1.27
5491.00,1.27
5490.00,1.27
5489.00,1.27
5488.00,1.27
5487.00,1.27
5486.00,1.27
5485.00,1.27
5484.00,1.27
5483.00,1.27
5482.00,1.27
5481.00,1.28
5480.00,1.28
5479.00,1.28
5478.00,1.28
5477.00,1.28
5476.00,1.28
5475.00,1.28
5474.00,1.28
5473.00,1.28
5472.00,1.28
5471.00,1.28
5470.00,1.28
5469.00,1.28
5468.00,1.28
5467.00,1.29
5466.00,1.29
5465.00,1.29
5464.00,1.29
5463.00,1.29
5462.00,1.29
5461.00,1.29
5460.00,1.29
5459.00,1.29
5458.00,1.29
5457.00,1.29
5456.00,1.29
5455.00,1.29
5454.00,1.29
5453.00,1.29
5452.00,1.29
5451.00,1.29
5450.00,1.29
5449.00,1.29
5448.00,1.29
5447.00,1.29
5446.00,1.29
5445.00,1.29
5444.00,1.29
5443.00,1.29
5442.00,1.29
5441.00,1.29
5440.00,1.29
5439.00,1.29
5438.00,1.29
5437.00,1.29
5436.00,1.29
5435.00,1.29
5434.00,1.29
5433.00,1.29
5432.00,1.29
5431.00,1.29
5430.00,1.29
5429.00,1.29
5428.00,1.29
5427.00,1.29
5426.00,1.29
5425.00,1.29
5424.00,1.29
5423.00,1.29
5422.00,1.29
5421.00,1.29
5420.00,1.29
5419.00,1.29
5418.00,1.29
5417.00,1.29
5416.00,1.28
5415.00,1.28
5414.00,1.28
5413.00,1.28
5412.00,1.28
5411.00,1.28
5410.00,1.28
5409.00,1.28
5408.00,1.28
5407.00,1.27
5406.00,1.27
5405.00,1.27
5404.00,1.27
5403.00,1.27
5402.00,1.27
5401.00,1.27
5400.00,1.27
5399.00,1.26
5398.00,1.26
5397.00,1.26
5396.00,1.26
5395.00,1.26
5394.00,1.26
5393.00,1.25
5392.00,1.25
5391.00,1.25
5390.00,1.25
5389.00,1.24
5388.00,1.24
5387.00,1.24
5386.00,1.23
5385.00,1.23
5384.00,1.23
5383.00,1.22
5382.00,1.22
5381.00,1.21
5380.00,1.21
5379.00,1.20
5378.00,1.20
5377.00,1.19
5376.00,1.19
5375.00,1.18
5374.00,1.18
5373.00,1.17
5372.00,1.17
5371.00,1.16
5370.00,1.16
5369.00,1.15
5368.00,1.15
5367.00,1.14
5366.00,1.14
5365.00,1.13
5364.00,1.12
5363.00,1.12
5362.00,1.11
5361.00,1.10
5360.00,1.10
5359.00,1.09
5358.00,1.08
5357.00,1.07
5356.00,1.07
5355.00,1.06
5354.00,1.05
5353.00,1.04
5352.00,1.03
5351.00,1.03
5350.00,1.02
5349.00,1.01
5348.00,1.00
5347.00,0.99
5346.00,0.98
5345.00,0.97
5344.00,0.96
5343.00,0.95
5342.00,0.94
5341.00,0.93
5340.00,0.92
5339.00,0.92
5338.00,0.91
5337.00,0.90
5336.00,0.89
5335.00,0.88
5334.00,0.87
5333.00,0.86
5332.00,0.85
5331.00,0.84
5330.00,0.83
5329.00,0.83
5328.00,0.82
5327.00,0.81
5326.00,0.80
5325.00,0.79
5324.00,0.78
5323.00,0.77
5322.00,0.77
5321.00,0.76
5320.00,0.75
5319.00,0.74
5318.00,0.73
5317.00,0.73
5316.00,0.72
5315.00,0.71
5314.00,0.70
5313.00,0.70
5312.00,0.69
5311.00,0.68
5310.00,0.68
5309.00,0.67
5308.00,0.67
5307.00,0.66
5306.00,0.66
5305.00,0.65
5304.00,0.65
5303.00,0.64
5302.00,0.64
5301.00,0.63
5300.00,0.63
5299.00,0.63
5298.00,0.62
5297.00,0.62
5296.00,0.62
5295.00,0.61
5294.00,0.61
5293.00,0.61
5292.00,0.61
5291.00,0.60
5290.00,0.60
5289.00,0.60
5288.00,0.60
5287.00,0.59
5286.00,0.59
5285.00,0.59
5284.00,0.59
5283.00,0.59
5282.00,0.58
5281.00,0.58
5280.00,0.58
5279.00,0.58
5278.00,0.58
5277.00,0.58
5276.00,0.58
5275.00,0.58
5274.00,0.57
5273.00,0.57
5272.00,0.57
5271.00,0.57
5270.00,0.57
5269.00,0.57
5268.00,0.57
5267.00,0.57
5266.00,0.57
5265.00,0.57
5264.00,0.57
5263.00,0.57
5262.00,0.57
5261.00,0.57
5260.00,0.57
5259.00,0.57
5258.00,0.57
5257.00,0.57
5256.00,0.57
5255.00,0.57
5254.00,0.57
5253.00,0.57
5252.00,0.57
5251.00,0.57
5250.00,0.57
5249.00,0.57
5248.00,0.57
5247.00,0.57
5246.00,0.57
5245.00,0.57
5244.00,0.57
5243.00,0.57
5242.00,0.57
5241.00,0.57
5240.00,0.57
5239.00,0.57
5238.00,0.57
5237.00,0.57
5236.00,0.57
5235.00,0.57
5234.00,0.57
5233.00,0.57
5232.00,0.57
5231.00,0.57
5230.00,0.57
5229.00,0.57
5228.00,0.57
5227.00,0.57
5226.00,0.57
5225.00,0.57
5224.00,0.58
5223.00,0.58
5222.00,0.58
5221.00,0.58
5220.00,0.58
5219.00,0.58
5218.00,0.58
5217.00,0.58
5216.00,0.58
5215.00,0.58
5214.00,0.58
5213.00,0.58
5212.00,0.58
5211.00,0.58
5210.00,0.58
5209.00,0.58
5208.00,0.58
5207.00,0.58
5206.00,0.58
5205.00,0.58
5204.00,0.58
5203.00,0.58
5202.00,0.58
5201.00,0.58
5200.00,0.58
5199.00,0.59
5198.00,0.59
5197.00,0.59
5196.00,0.59
5195.00,0.59
5194.00,0.59
5193.00,0.59
5192.00,0.59
5191.00,0.59
5190.00,0.59
5189.00,0.59
5188.00,0.59
5187.00,0.59
5186.00,0.59
5185.00,0.59
5184.00,0.59
5183.00,0.59
5182.00,0.59
5181.00,0.59
5180.00,0.59
5179.00,0.59
5178.00,0.59
5177.00,0.59
5176.00,0.60
5175.00,0.60
5174.00,0.60
5173.00,0.60
5172.00,0.60
5171.00,0.60
5170.00,0.60
5169.00,0.60
5168.00,0.60
5167.00,0.60
5166.00,0.60
5165.00,0.60
5164.00,0.60
5163.00,0.60
5162.00,0.60
5161.00,0.60
5160.00,0.60
5159.00,0.60
5158.00,0.60
5157.00,0.60
5156.00,0.60
5155.00,0.60
5154.00,0.60
5153.00,0.60
5152.00,0.60
5151.00,0.60
5150.00,0.60
5149.00,0.60
5148.00,0.60
5147.00,0.61
5146.00,0.61
5145.00,0.61
5144.00,0.61
5143.00,0.61
5142.00,0.61
5141.00,0.61
5140.00,0.61
5139.00,0.61
5138.00,0.61
5137.00,0.61
5136.00,0.61
5135.00,0.61
5134.00,0.61
5133.00,0.61
5132.00,0.61
5131.00,0.62
5130.00,0.62
5129.00,0.62
5128.00,0.62
5127.00,0.62
5126.00,0.62
5125.00,0.62
5124.00,0.62
5123.00,0.62
5122.00,0.62
5121.00,0.62
5120.00,0.62
5119.00,0.62
5118.00,0.62
5117.00,0.62
5116.00,0.62
5115.00,0.62
5114.00,0.62
5113.00,0.62
5112.00,0.62
5111.00,0.62
5110.00,0.62
5109.00,0.62
5108.00,0.62
5107.00,0.62
5106.00,0.63
5105.00,0.63
5104.00,0.63
5103.00,0.63
5102.00,0.63
5101.00,0.63
5100.00,0.63
5099.00,0.63
5098.00,0.63
5097.00,0.63
5096.00,0.63
5095.00,0.63
5094.00,0.63
5093.00,0.63
5092.00,0.63
5091.00,0.63
5090.00,0.63
5089.00,0.63
5088.00,0.64
5087.00,0.64
5086.00,0.64
5085.00,0.64
5084.00,0.64
5083.00,0.64
5082.00,0.64
5081.00,0.64
5080.00,0.64
5079.00,0.64
5078.00,0.64
5077.00,0.64
5076.00,0.65
5075.00,0.65
5074.00,0.65
5073.00,0.65
5072.00,0.65
5071.00,0.65
5070.00,0.65
5069.00,0.65
5068.00,0.65
5067.00,0.65
5066.00,0.65
5065.00,0.65
5064.00,0.65
5063.00,0.65
5062.00,0.65
5061.00,0.66
5060.00,0.66
5059.00,0.66
5058.00,0.66
5057.00,0.66
5056.00,0.66
5055.00,0.66
5054.00,0.66
5053.00,0.66
5052.00,0.66
5051.00,0.66
5050.00,0.66
5049.00,0.66
5048.00,0.66
5047.00,0.66
5046.00,0.66
5045.00,0.66
5044.00,0.66
5043.00,0.66
5042.00,0.66
5041.00,0.66
5040.00,0.66
5039.00,0.66
5038.00,0.66
5037.00,0.66
5036.00,0.66
5035.00,0.66
5034.00,0.66
5033.00,0.66
5032.00,0.66
5031.00,0.66
5030.00,0.66
5029.00,0.67
5028.00,0.67
5027.00,0.67
5026.00,0.67
5025.00,0.67
5024.00,0.67
5023.00,0.67
5022.00,0.67
5021.00,0.67
5020.00,0.67
5019.00,0.67
5018.00,0.67
5017.00,0.67
5016.00,0.67
5015.00,0.67
5014.00,0.67
5013.00,0.68
5012.00,0.68
5011.00,0.68
5010.00,0.68
5009.00,0.68
5008.00,0.68
5007.00,0.68
5006.00,0.68
5005.00,0.68
5004.00,0.68
5003.00,0.68
5002.00,0.68
5001.00,0.68
5000.00,0.68
4999.00,0.68
4998.00,0.68
4997.00,0.69
4996.00,0.69
4995.00,0.69
4994.00,0.69
4993.00,0.69
4992.00,0.69
4991.00,0.69
4990.00,0.69
4989.00,0.69
4988.00,0.69
4987.00,0.70
4986.00,0.70
4985.00,0.70
4984.00,0.70
4983.00,0.70
4982.00,0.70
4981.00,0.70
4980.00,0.70
4979.00,0.70
4978.00,0.70
4977.00,0.70
4976.00,0.70
4975.00,0.70
4974.00,0.70
4973.00,0.70
4972.00,0.70
4971.00,0.70
4970.00,0.71
4969.00,0.71
4968.00,0.71
4967.00,0.71
4966.00,0.71
4965.00,0.71
4964.00,0.71
4963.00,0.71
4962.00,0.71
4961.00,0.71
4960.00,0.72
4959.00,0.72
4958.00,0.72
4957.00,0.72
4956.00,0.72
4955.00,0.72
4954.00,0.72
4953.00,0.72
4952.00,0.73
4951.00,0.73
4950.00,0.73
4949.00,0.73
4948.00,0.73
4947.00,0.73
4946.00,0.73
4945.00,0.73
4944.00,0.73
4943.00,0.73
4942.00,0.74
4941.00,0.74
4940.00,0.74
4939.00,0.74
4938.00,0.74
4937.00,0.74
4936.00,0.74
4935.00,0.74
4934.00,0.74
4933.00,0.75
4932.00,0.75
4931.00,0.75
4930.00,0.75
4929.00,0.75
4928.00,0.75
4927.00,0.75
4926.00,0.75
4925.00,0.76
4924.00,0.76
4923.00,0.76
4922.00,0.76
4921.00,0.76
4920.00,0.76
4919.00,0.76
4918.00,0.76
4917.00,0.76
4916.00,0.76
4915.00,0.76
4914.00,0.76
4913.00,0.76
4912.00,0.76
4911.00,0.76
4910.00,0.76
4909.00,0.76
4908.00,0.76
4907.00,0.76
4906.00,0.77
4905.00,0.77
4904.00,0.77
4903.00,0.77
4902.00,0.77
4901.00,0.77
4900.00,0.77
4899.00,0.77
4898.00,0.77
4897.00,0.78
4896.00,0.78
4895.00,0.78
4894.00,0.78
4893.00,0.78
4892.00,0.78
4891.00,0.78
4890.00,0.78
4889.00,0.78
4888.00,0.78
4887.00,0.78
4886.00,0.79
4885.00,0.79
4884.00,0.79
4883.00,0.79
4882.00,0.79
4881.00,0.79
4880.00,0.79
4879.00,0.79
4878.00,0.79
4877.00,0.79
4876.00,0.79
4875.00,0.80
4874.00,0.80
4873.00,0.80
4872.00,0.80
4871.00,0.80
4870.00,0.80
4869.00,0.80
4868.00,0.80
4867.00,0.80
4866.00,0.80
4865.00,0.81
4864.00,0.81
4863.00,0.81
4862.00,0.81
4861.00,0.81
4860.00,0.81
4859.00,0.81
4858.00,0.81
4857.00,0.81
4856.00,0.81
4855.00,0.81
4854.00,0.82
4853.00,0.82
4852.00,0.82
4851.00,0.82
4850.00,0.82
4849.00,0.82
4848.00,0.82
4847.00,0.82
4846.00,0.82
4845.00,0.82
4844.00,0.82
4843.00,0.82
4842.00,0.83
4841.00,0.83
4840.00,0.83
4839.00,0.83
4838.00,0.83
4837.00,0.83
4836.00,0.83
4835.00,0.83
4834.00,0.83
4833.00,0.83
4832.00,0.84
4831.00,0.84
4830.00,0.84
4829.00,0.84
4828.00,0.84
4827.00,0.84
4826.00,0.84
4825.00,0.84
4824.00,0.84
4823.00,0.84
4822.00,0.84
4821.00,0.84
4820.00,0.84
4819.00,0.85
4818.00,0.85
4817.00,0.85
4816.00,0.85
4815.00,0.85
4814.00,0.85
4813.00,0.85
4812.00,0.85
4811.00,0.85
4810.00,0.86
4809.00,0.86
4808.00,0.86
4807.00,0.86
4806.00,0.86
4805.00,0.86
4804.00,0.86
4803.00,0.87
4802.00,0.87
4801.00,0.87
4800.00,0.87
4799.00,0.87
4798.00,0.87
4797.00,0.87
4796.00,0.87
4795.00,0.87
4794.00,0.87
4793.00,0.88
4792.00,0.88
4791.00,0.88
4790.00,0.88
4789.00,0.88
4788.00,0.88
4787.00,0.88
4786.00,0.89
4785.00,0.89
4784.00,0.89
4783.00,0.89
4782.00,0.90
4781.00,0.90
4780.00,0.90
4779.00,0.90
4778.00,0.90
4777.00,0.91
4776.00,0.91
4775.00,0.91
4774.00,0.91
4773.00,0.91
4772.00,0.92
4771.00,0.92
4770.00,0.92
4769.00,0.92
4768.00,0.92
4767.00,0.92
4766.00,0.93
4765.00,0.93
4764.00,0.93
4763.00,0.93
4762.00,0.93
4761.00,0.93
4760.00,0.93
4759.00,0.94
4758.00,0.94
4757.00,0.94
4756.00,0.94
4755.00,0.94
4754.00,0.94
4753.00,0.94
4752.00,0.95
4751.00,0.95
4750.00,0.95
4749.00,0.95
4748.00,0.95
4747.00,0.95
4746.00,0.95
4745.00,0.95
4744.00,0.95
4743.00,0.96
4742.00,0.96
4741.00,0.96
4740.00,0.96
4739.00,0.96
4738.00,0.96
4737.00,0.96
4736.00,0.96
4735.00,0.97
4734.00,0.97
4733.00,0.97
4732.00,0.97
4731.00,0.97
4730.00,0.98
4729.00,0.98
4728.00,0.98
4727.00,0.98
4726.00,0.98
4725.00,0.99
4724.00,0.99
4723.00,0.99
4722.00,0.99
4721.00,0.99
4720.00,1.00
4719.00,1.00
4718.00,1.00
4717.00,1.00
4716.00,1.00
4715.00,1.00
4714.00,1.00
4713.00,1.01
4712.00,1.01
4711.00,1.01
4710.00,1.01
4709.00,1.01
4708.00,1.01
4707.00,1.02
4706.00,1.02
4705.00,1.02
4704.00,1.02
4703.00,1.02
4702.00,1.03
4701.00,1.03
4700.00,1.03
4699.00,1.03
4698.00,1.04
4697.00,1.04
4696.00,1.04
4695.00,1.04
4694.00,1.04
4693.00,1.04
4692.00,1.05
4691.00,1.05
4690.00,1.05
4689.00,1.05
4688.00,1.05
4687.00,1.06
4686.00,1.06
4685.00,1.06
4684.00,1.06
4683.00,1.06
4682.00,1.06
4681.00,1.07
4680.00,1.07
4679.00,1.07
4678.00,1.07
4677.00,1.07
4676.00,1.07
4675.00,1.07
4674.00,1.07
4673.00,1.07
4672.00,1.07
4671.00,1.08
4670.00,1.08
4669.00,1.08
4668.00,1.08
4667.00,1.08
4666.00,1.08
4665.00,1.08
4664.00,1.09
4663.00,1.09
4662.00,1.09
4661.00,1.09
4660.00,1.10
4659.00,1.10
4658.00,1.10
4657.00,1.10
4656.00,1.11
4655.00,1.11
4654.00,1.11
4653.00,1.11
4652.00,1.12
4651.00,1.12
4650.00,1.12
4649.00,1.12
4648.00,1.12
4647.00,1.13
4646.00,1.13
4645.00,1.13
4644.00,1.13
4643.00,1.13
4642.00,1.13
4641.00,1.13
4640.00,1.13
4639.00,1.13
4638.00,1.14
4637.00,1.14
4636.00,1.14
4635.00,1.14
4634.00,1.14
4633.00,1.14
4632.00,1.14
4631.00,1.14
4630.00,1.14
4629.00,1.14
4628.00,1.14
4627.00,1.14
4626.00,1.15
4625.00,1.15
4624.00,1.15
4623.00,1.15
4622.00,1.15
4621.00,1.15
4620.00,1.15
4619.00,1.15
4618.00,1.15
4617.00,1.15
4616.00,1.16
4615.00,1.16
4614.00,1.16
4613.00,1.16
4612.00,1.16
4611.00,1.16
4610.00,1.16
4609.00,1.16
4608.00,1.16
4607.00,1.17
4606.00,1.17
4605.00,1.17
4604.00,1.17
4603.00,1.17
4602.00,1.17
4601.00,1.17
4600.00,1.17
4599.00,1.17
4598.00,1.17
4597.00,1.17
4596.00,1.17
4595.00,1.17
4594.00,1.17
4593.00,1.17
4592.00,1.18
4591.00,1.18
4590.00,1.18
4589.00,1.18
4588.00,1.18
4587.00,1.18
4586.00,1.18
4585.00,1.18
4584.00,1.18
4583.00,1.19
4582.00,1.19
4581.00,1.19
4580.00,1.19
4579.00,1.19
4578.00,1.19
4577.00,1.19
4576.00,1.19
4575.00,1.20
4574.00,1.20
4573.00,1.20
4572.00,1.20
4571.00,1.20
4570.00,1.20
4569.00,1.20
4568.00,1.20
4567.00,1.20
4566.00,1.20
4565.00,1.21
4564.00,1.21
4563.00,1.21
4562.00,1.21
4561.00,1.21
4560.00,1.21
4559.00,1.21
4558.00,1.21
4557.00,1.21
4556.00,1.21
4555.00,1.21
4554.00,1.21
4553.00,1.21
4552.00,1.22
4551.00,1.22
4550.00,1.22
4549.00,1.22
4548.00,1.22
4547.00,1.22
4546.00,1.22
4545.00,1.22
4544.00,1.22
4543.00,1.22
4542.00,1.22
4541.00,1.23
4540.00,1.23
4539.00,1.23
4538.00,1.23
4537.00,1.23
4536.00,1.23
4535.00,1.23
4534.00,1.23
4533.00,1.24
4532.00,1.24
4531.00,1.24
4530.00,1.24
4529.00,1.24
4528.00,1.24
4527.00,1.24
4526.00,1.24
4525.00,1.24
4524.00,1.24
4523.00,1.25
4522.00,1.25
4521.00,1.25
4520.00,1.25
4519.00,1.25
4518.00,1.25
4517.00,1.25
4516.00,1.25
4515.00,1.25
4514.00,1.25
4513.00,1.25
4512.00,1.25
4511.00,1.25
4510.00,1.25
4509.00,1.25
4508.00,1.25
4507.00,1.25
4506.00,1.25
4505.00,1.25
4504.00,1.25
4503.00,1.25
4502.00,1.25
4501.00,1.25
4500.00,1.25
4499.00,1.25
4498.00,1.25
4497.00,1.25
4496.00,1.25
4495.00,1.25
4494.00,1.25
4493.00,1.25
4492.00,1.25
4491.00,1.25
4490.00,1.25
4489.00,1.25
4488.00,1.25
4487.00,1.24
4486.00,1.24
4485.00,1.24
4484.00,1.24
4483.00,1.24
4482.00,1.24
4481.00,1.24
4480.00,1.23
4479.00,1.23
4478.00,1.23
4477.00,1.23
4476.00,1.23
4475.00,1.23
4474.00,1.23
4473.00,1.22
4472.00,1.22
4471.00,1.22
4470.00,1.22
4469.00,1.21
4468.00,1.21
4467.00,1.21
4466.00,1.21
4465.00,1.20
4464.00,1.20
4463.00,1.20
4462.00,1.20
4461.00,1.19
4460.00,1.19
4459.00,1.19
4458.00,1.18
4457.00,1.18
4456.00,1.18
4455.00,1.17
4454.00,1.17
4453.00,1.17
4452.00,1.16
4451.00,1.16
4450.00,1.15
4449.00,1.15
4448.00,1.15
4447.00,1.14
4446.00,1.14
4445.00,1.13
4444.00,1.13
4443.00,1.12
4442.00,1.12
4441.00,1.11
4440.00,1.11
4439.00,1.10
4438.00,1.10
4437.00,1.10
4436.00,1.09
4435.00,1.09
4434.00,1.08
4433.00,1.08
4432.00,1.08
4431.00,1.07
4430.00,1.07
4429.00,1.07
4428.00,1.06
4427.00,1.06
4426.00,1.06
4425.00,1.05
4424.00,1.05
4423.00,1.05
4422.00,1.05
4421.00,1.04
4420.00,1.04
4419.00,1.04
4418.00,1.04
4417.00,1.04
4416.00,1.04
4415.00,1.04
4414.00,1.03
4413.00,1.03
4412.00,1.03
4411.00,1.03
4410.00,1.03
4409.00,1.03
4408.00,1.03
4407.00,1.03
4406.00,1.03
4405.00,1.03
4404.00,1.04
4403.00,1.04
4402.00,1.04
4401.00,1.04
4400.00,1.04
4399.00,1.04
4398.00,1.04
4397.00,1.04
4396.00,1.04
4395.00,1.05
4394.00,1.05
4393.00,1.05
4392.00,1.05
4391.00,1.06
4390.00,1.06
4389.00,1.06
4388.00,1.06
4387.00,1.07
4386.00,1.07
4385.00,1.07
4384.00,1.08
4383.00,1.08
4382.00,1.08
4381.00,1.08
4380.00,1.09
4379.00,1.09
4378.00,1.09
4377.00,1.09
4376.00,1.09
4375.00,1.10
4374.00,1.10
4373.00,1.10
4372.00,1.10
4371.00,1.10
4370.00,1.10
4369.00,1.10
4368.00,1.10
4367.00,1.10
4366.00,1.10
4365.00,1.10
4364.00,1.10
4363.00,1.09
4362.00,1.09
4361.00,1.09
4360.00,1.09
4359.00,1.09
4358.00,1.09
4357.00,1.09
4356.00,1.09
4355.00,1.08
4354.00,1.08
4353.00,1.08
4352.00,1.08
4351.00,1.08
4350.00,1.08
4349.00,1.08
4348.00,1.08
4347.00,1.07
4346.00,1.07
4345.00,1.07
4344.00,1.07
4343.00,1.07
4342.00,1.07
4341.00,1.07
4340.00,1.07
4339.00,1.07
4338.00,1.07
4337.00,1.07
4336.00,1.07
4335.00,1.07
4334.00,1.08
4333.00,1.08
4332.00,1.08
4331.00,1.08
4330.00,1.08
4329.00,1.09
4328.00,1.09
4327.00,1.09
4326.00,1.10
4325.00,1.10
4324.00,1.10
4323.00,1.10
4322.00,1.11
4321.00,1.11
4320.00,1.11
4319.00,1.12
4318.00,1.12
4317.00,1.12
4316.00,1.12
4315.00,1.12
4314.00,1.13
4313.00,1.13
4312.00,1.13
4311.00,1.13
4310.00,1.13
4309.00,1.14
4308.00,1.14
4307.00,1.14
4306.00,1.14
4305.00,1.14
4304.00,1.14
4303.00,1.14
4302.00,1.14
4301.00,1.14
4300.00,1.15
4299.00,1.15
4298.00,1.15
4297.00,1.15
4296.00,1.15
4295.00,1.15
4294.00,1.15
4293.00,1.16
4292.00,1.16
4291.00,1.16
4290.00,1.16
4289.00,1.16
4288.00,1.16
4287.00,1.16
4286.00,1.16
4285.00,1.16
4284.00,1.17
4283.00,1.17
4282.00,1.17
4281.00,1.17
4280.00,1.16
4279.00,1.16
4278.00,1.16
4277.00,1.16
4276.00,1.16
4275.00,1.16
4274.00,1.16
4273.00,1.16
4272.00,1.16
4271.00,1.16
4270.00,1.16
4269.00,1.15
4268.00,1.15
4267.00,1.15
4266.00,1.15
4265.00,1.15
4264.00,1.15
4263.00,1.15
4262.00,1.15
4261.00,1.15
4260.00,1.15
4259.00,1.15
4258.00,1.15
4257.00,1.15
4256.00,1.15
4255.00,1.15
4254.00,1.15
4253.00,1.15
4252.00,1.15
4251.00,1.15
4250.00,1.15
4249.00,1.15
4248.00,1.15
4247.00,1.15
4246.00,1.15
4245.00,1.16
4244.00,1.16
4243.00,1.16
4242.00,1.16
4241.00,1.16
4240.00,1.16
4239.00,1.16
4238.00,1.16
4237.00,1.16
4236.00,1.16
4235.00,1.17
4234.00,1.17
4233.00,1.17
4232.00,1.17
4231.00,1.17
4230.00,1.17
4229.00,1.17
4228.00,1.17
4227.00,1.18
4226.00,1.18
4225.00,1.18
4224.00,1.18
4223.00,1.18
4222.00,1.18
4221.00,1.19
4220.00,1.19
4219.00,1.19
4218.00,1.19
4217.00,1.19
4216.00,1.19
4215.00,1.19
4214.00,1.19
4213.00,1.19
4212.00,1.19
4211.00,1.19
4210.00,1.19
4209.00,1.19
4208.00,1.19
4207.00,1.19
4206.00,1.19
4205.00,1.19
4204.00,1.19
4203.00,1.19
4202.00,1.19
4201.00,1.19
4200.00,1.19
4199.00,1.19
4198.00,1.19
4197.00,1.19
4196.00,1.19
4195.00,1.19
4194.00,1.19
4193.00,1.19
4192.00,1.19
4191.00,1.19
4190.00,1.19
4189.00,1.19
4188.00,1.19
4187.00,1.19
4186.00,1.19
4185.00,1.19
4184.00,1.19
4183.00,1.19
4182.00,1.19
4181.00,1.19
4180.00,1.19
4179.00,1.19
4178.00,1.19
4177.00,1.19
4176.00,1.19
4175.00,1.19
4174.00,1.20
4173.00,1.20
4172.00,1.20
4171.00,1.20
4170.00,1.20
4169.00,1.20
4168.00,1.20
4167.00,1.20
4166.00,1.20
4165.00,1.20
4164.00,1.20
4163.00,1.20
4162.00,1.20
4161.00,1.20
4160.00,1.20
4159.00,1.20
4158.00,1.20
4157.00,1.20
4156.00,1.20
4155.00,1.21
4154.00,1.21
4153.00,1.21
4152.00,1.21
4151.00,1.21
4150.00,1.21
4149.00,1.21
4148.00,1.21
4147.00,1.21
4146.00,1.21
4145.00,1.21
4144.00,1.21
4143.00,1.21
4142.00,1.21
4141.00,1.21
4140.00,1.21
4139.00,1.21
4138.00,1.21
4137.00,1.21
4136.00,1.21
4135.00,1.21
4134.00,1.21
4133.00,1.21
4132.00,1.21
4131.00,1.21
4130.00,1.21
4129.00,1.21
4128.00,1.22
4127.00,1.22
4126.00,1.22
4125.00,1.22
4124.00,1.22
4123.00,1.22
4122.00,1.22
4121.00,1.22
4120.00,1.22
4119.00,1.22
4118.00,1.22
4117.00,1.22
4116.00,1.22
4115.00,1.22
4114.00,1.22
4113.00,1.22
4112.00,1.22
4111.00,1.22
4110.00,1.22
4109.00,1.22
4108.00,1.23
4107.00,1.23
4106.00,1.23
4105.00,1.23
4104.00,1.23
4103.00,1.23
4102.00,1.23
4101.00,1.23
4100.00,1.23
4099.00,1.23
4098.00,1.23
4097.00,1.23
4096.00,1.23
4095.00,1.23
4094.00,1.23
4093.00,1.23
4092.00,1.23
4091.00,1.23
4090.00,1.23
4089.00,1.23
4088.00,1.23
4087.00,1.23
4086.00,1.23
4085.00,1.23
4084.00,1.24
4083.00,1.24
4082.00,1.24
4081.00,1.24
4080.00,1.24
4079.00,1.24
4078.00,1.24
4077.00,1.25
4076.00,1.25
4075.00,1.25
4074.00,1.25
4073.00,1.25
4072.00,1.25
4071.00,1.26
4070.00,1.26
4069.00,1.26
4068.00,1.26
4067.00,1.26
4066.00,1.26
4065.00,1.26
4064.00,1.26
4063.00,1.26
4062.00,1.26
4061.00,1.26
4060.00,1.26
4059.00,1.26
4058.00,1.26
4057.00,1.26
4056.00,1.26
4055.00,1.25
4054.00,1.25
4053.00,1.25
4052.00,1.25
4051.00,1.25
4050.00,1.25
4049.00,1.25
4048.00,1.25
4047.00,1.24
4046.00,1.24
4045.00,1.25
4044.00,1.25
4043.00,1.25
4042.00,1.25
4041.00,1.25
4040.00,1.25
4039.00,1.25
4038.00,1.26
4037.00,1.26
4036.00,1.26
4035.00,1.27
4034.00,1.27
4033.00,1.27
4032.00,1.27
4031.00,1.28
4030.00,1.28
4029.00,1.28
4028.00,1.28
4027.00,1.29
4026.00,1.29
4025.00,1.29
4024.00,1.29
4023.00,1.29
4022.00,1.29
4021.00,1.29
4020.00,1.29
4019.00,1.29
4018.00,1.29
4017.00,1.29
4016.00,1.29
4015.00,1.29
4014.00,1.29
4013.00,1.29
4012.00,1.29
4011.00,1.29
4010.00,1.29
4009.00,1.29
4008.00,1.29
4007.00,1.29
4006.00,1.29
4005.00,1.29
4004.00,1.29
4003.00,1.29
4002.00,1.29
4001.00,1.29
4000.00,1.29
