创建为新数据集,样品 684 用户 Administrator 日期 星期四, 七月 19 2018
cm-1,%T
10000.00,1.10
9999.00,1.10
9998.00,1.10
9997.00,1.10
9996.00,1.10
9995.00,1.10
9994.00,1.10
9993.00,1.10
9992.00,1.10
9991.00,1.10
9990.00,1.10
9989.00,1.10
9988.00,1.10
9987.00,1.09
9986.00,1.09
9985.00,1.09
9984.00,1.09
9983.00,1.09
9982.00,1.09
9981.00,1.09
9980.00,1.09
9979.00,1.09
9978.00,1.09
9977.00,1.09
9976.00,1.09
9975.00,1.09
9974.00,1.09
9973.00,1.09
9972.00,1.09
9971.00,1.09
9970.00,1.09
9969.00,1.09
9968.00,1.09
9967.00,1.09
9966.00,1.08
9965.00,1.08
9964.00,1.08
9963.00,1.08
9962.00,1.08
9961.00,1.08
9960.00,1.08
9959.00,1.08
9958.00,1.08
9957.00,1.08
9956.00,1.08
9955.00,1.08
9954.00,1.08
9953.00,1.08
9952.00,1.08
9951.00,1.08
9950.00,1.09
9949.00,1.09
9948.00,1.09
9947.00,1.09
9946.00,1.09
9945.00,1.09
9944.00,1.10
9943.00,1.10
9942.00,1.10
9941.00,1.09
9940.00,1.09
9939.00,1.09
9938.00,1.09
9937.00,1.09
9936.00,1.09
9935.00,1.09
9934.00,1.09
9933.00,1.08
9932.00,1.08
9931.00,1.08
9930.00,1.08
9929.00,1.08
9928.00,1.09
9927.00,1.09
9926.00,1.09
9925.00,1.09
9924.00,1.09
9923.00,1.09
9922.00,1.09
9921.00,1.10
9920.00,1.10
9919.00,1.10
9918.00,1.10
9917.00,1.10
9916.00,1.10
9915.00,1.10
9914.00,1.10
9913.00,1.09
9912.00,1.09
9911.00,1.09
9910.00,1.09
9909.00,1.09
9908.00,1.08
9907.00,1.08
9906.00,1.08
9905.00,1.08
9904.00,1.07
9903.00,1.07
9902.00,1.07
9901.00,1.07
9900.00,1.07
9899.00,1.07
9898.00,1.06
9897.00,1.06
9896.00,1.06
9895.00,1.06
9894.00,1.06
9893.00,1.06
9892.00,1.06
9891.00,1.06
9890.00,1.06
9889.00,1.06
9888.00,1.06
9887.00,1.06
9886.00,1.07
9885.00,1.07
9884.00,1.07
9883.00,1.07
9882.00,1.07
9881.00,1.07
9880.00,1.07
9879.00,1.08
9878.00,1.08
9877.00,1.08
9876.00,1.08
9875.00,1.08
9874.00,1.08
9873.00,1.08
9872.00,1.09
9871.00,1.09
9870.00,1.09
9869.00,1.08
9868.00,1.08
9867.00,1.08
9866.00,1.08
9865.00,1.08
9864.00,1.08
9863.00,1.08
9862.00,1.08
9861.00,1.07
9860.00,1.07
9859.00,1.07
9858.00,1.07
9857.00,1.07
9856.00,1.07
9855.00,1.07
9854.00,1.07
9853.00,1.06
9852.00,1.06
9851.00,1.06
9850.00,1.06
9849.00,1.06
9848.00,1.07
9847.00,1.07
9846.00,1.07
9845.00,1.07
9844.00,1.07
9843.00,1.07
9842.00,1.07
9841.00,1.07
9840.00,1.08
9839.00,1.08
9838.00,1.08
9837.00,1.08
9836.00,1.08
9835.00,1.08
9834.00,1.08
9833.00,1.08
9832.00,1.08
9831.00,1.08
9830.00,1.08
9829.00,1.08
9828.00,1.08
9827.00,1.08
9826.00,1.08
9825.00,1.07
9824.00,1.07
9823.00,1.07
9822.00,1.07
9821.00,1.07
9820.00,1.06
9819.00,1.06
9818.00,1.06
9817.00,1.06
9816.00,1.06
9815.00,1.06
9814.00,1.06
9813.00,1.06
9812.00,1.06
9811.00,1.06
9810.00,1.05
9809.00,1.05
9808.00,1.05
9807.00,1.05
9806.00,1.05
9805.00,1.05
9804.00,1.05
9803.00,1.05
9802.00,1.05
9801.00,1.05
9800.00,1.05
9799.00,1.05
9798.00,1.06
9797.00,1.06
9796.00,1.06
9795.00,1.06
9794.00,1.06
9793.00,1.06
9792.00,1.06
9791.00,1.06
9790.00,1.06
9789.00,1.06
9788.00,1.06
9787.00,1.06
9786.00,1.05
9785.00,1.05
9784.00,1.05
9783.00,1.05
9782.00,1.05
9781.00,1.05
9780.00,1.05
9779.00,1.05
9778.00,1.05
9777.00,1.05
9776.00,1.05
9775.00,1.05
9774.00,1.05
9773.00,1.05
9772.00,1.05
9771.00,1.05
9770.00,1.05
9769.00,1.05
9768.00,1.06
9767.00,1.06
9766.00,1.06
9765.00,1.06
9764.00,1.06
9763.00,1.07
9762.00,1.07
9761.00,1.07
9760.00,1.07
9759.00,1.07
9758.00,1.08
9757.00,1.08
9756.00,1.08
9755.00,1.08
9754.00,1.08
9753.00,1.08
9752.00,1.08
9751.00,1.07
9750.00,1.07
9749.00,1.07
9748.00,1.07
9747.00,1.07
9746.00,1.07
9745.00,1.07
9744.00,1.06
9743.00,1.06
9742.00,1.06
9741.00,1.06
9740.00,1.06
9739.00,1.06
9738.00,1.06
9737.00,1.06
9736.00,1.06
9735.00,1.06
9734.00,1.06
9733.00,1.06
9732.00,1.07
9731.00,1.07
9730.00,1.07
9729.00,1.07
9728.00,1.07
9727.00,1.07
9726.00,1.07
9725.00,1.08
9724.00,1.08
9723.00,1.08
9722.00,1.08
9721.00,1.08
9720.00,1.08
9719.00,1.08
9718.00,1.08
9717.00,1.08
9716.00,1.08
9715.00,1.08
9714.00,1.08
9713.00,1.08
9712.00,1.08
9711.00,1.08
9710.00,1.08
9709.00,1.08
9708.00,1.08
9707.00,1.08
9706.00,1.08
9705.00,1.08
9704.00,1.08
9703.00,1.08
9702.00,1.08
9701.00,1.07
9700.00,1.07
9699.00,1.07
9698.00,1.07
9697.00,1.07
9696.00,1.07
9695.00,1.07
9694.00,1.07
9693.00,1.07
9692.00,1.07
9691.00,1.07
9690.00,1.07
9689.00,1.07
9688.00,1.07
9687.00,1.07
9686.00,1.07
9685.00,1.07
9684.00,1.07
9683.00,1.07
9682.00,1.07
9681.00,1.07
9680.00,1.07
9679.00,1.07
9678.00,1.07
9677.00,1.07
9676.00,1.07
9675.00,1.08
9674.00,1.08
9673.00,1.08
9672.00,1.08
9671.00,1.08
9670.00,1.08
9669.00,1.08
9668.00,1.08
9667.00,1.08
9666.00,1.08
9665.00,1.08
9664.00,1.08
9663.00,1.08
9662.00,1.08
9661.00,1.08
9660.00,1.08
9659.00,1.08
9658.00,1.08
9657.00,1.08
9656.00,1.08
9655.00,1.07
9654.00,1.07
9653.00,1.07
9652.00,1.07
9651.00,1.07
9650.00,1.07
9649.00,1.07
9648.00,1.07
9647.00,1.07
9646.00,1.07
9645.00,1.07
9644.00,1.07
9643.00,1.07
9642.00,1.07
9641.00,1.07
9640.00,1.08
9639.00,1.08
9638.00,1.08
9637.00,1.08
9636.00,1.08
9635.00,1.08
9634.00,1.08
9633.00,1.08
9632.00,1.08
9631.00,1.08
9630.00,1.08
9629.00,1.08
9628.00,1.08
9627.00,1.08
9626.00,1.08
9625.00,1.08
9624.00,1.08
9623.00,1.08
9622.00,1.07
9621.00,1.07
9620.00,1.07
9619.00,1.07
9618.00,1.07
9617.00,1.07
9616.00,1.07
9615.00,1.06
9614.00,1.06
9613.00,1.06
9612.00,1.06
9611.00,1.06
9610.00,1.06
9609.00,1.06
9608.00,1.06
9607.00,1.06
9606.00,1.06
9605.00,1.07
9604.00,1.07
9603.00,1.07
9602.00,1.07
9601.00,1.07
9600.00,1.07
9599.00,1.07
9598.00,1.07
9597.00,1.07
9596.00,1.07
9595.00,1.07
9594.00,1.07
9593.00,1.07
9592.00,1.07
9591.00,1.07
9590.00,1.07
9589.00,1.06
9588.00,1.06
9587.00,1.06
9586.00,1.06
9585.00,1.06
9584.00,1.06
9583.00,1.06
9582.00,1.06
9581.00,1.06
9580.00,1.06
9579.00,1.06
9578.00,1.06
9577.00,1.06
9576.00,1.06
9575.00,1.06
9574.00,1.06
9573.00,1.06
9572.00,1.06
9571.00,1.06
9570.00,1.06
9569.00,1.06
9568.00,1.06
9567.00,1.06
9566.00,1.06
9565.00,1.06
9564.00,1.06
9563.00,1.06
9562.00,1.06
9561.00,1.07
9560.00,1.07
9559.00,1.07
9558.00,1.07
9557.00,1.07
9556.00,1.07
9555.00,1.07
9554.00,1.07
9553.00,1.07
9552.00,1.07
9551.00,1.08
9550.00,1.08
9549.00,1.08
9548.00,1.08
9547.00,1.08
9546.00,1.08
9545.00,1.08
9544.00,1.08
9543.00,1.08
9542.00,1.07
9541.00,1.07
9540.00,1.07
9539.00,1.07
9538.00,1.07
9537.00,1.07
9536.00,1.07
9535.00,1.07
9534.00,1.07
9533.00,1.07
9532.00,1.07
9531.00,1.08
9530.00,1.08
9529.00,1.08
9528.00,1.08
9527.00,1.08
9526.00,1.09
9525.00,1.09
9524.00,1.09
9523.00,1.09
9522.00,1.09
9521.00,1.10
9520.00,1.10
9519.00,1.10
9518.00,1.10
9517.00,1.10
9516.00,1.10
9515.00,1.10
9514.00,1.09
9513.00,1.09
9512.00,1.09
9511.00,1.09
9510.00,1.09
9509.00,1.08
9508.00,1.08
9507.00,1.08
9506.00,1.08
9505.00,1.08
9504.00,1.07
9503.00,1.07
9502.00,1.07
9501.00,1.07
9500.00,1.07
9499.00,1.07
9498.00,1.07
9497.00,1.07
9496.00,1.07
9495.00,1.07
9494.00,1.07
9493.00,1.07
9492.00,1.07
9491.00,1.07
9490.00,1.07
9489.00,1.07
9488.00,1.07
9487.00,1.07
9486.00,1.08
9485.00,1.08
9484.00,1.08
9483.00,1.08
9482.00,1.08
9481.00,1.08
9480.00,1.08
9479.00,1.08
9478.00,1.08
9477.00,1.08
9476.00,1.08
9475.00,1.08
9474.00,1.08
9473.00,1.08
9472.00,1.08
9471.00,1.08
9470.00,1.08
9469.00,1.08
9468.00,1.08
9467.00,1.08
9466.00,1.08
9465.00,1.08
9464.00,1.08
9463.00,1.08
9462.00,1.08
9461.00,1.08
9460.00,1.09
9459.00,1.09
9458.00,1.09
9457.00,1.09
9456.00,1.09
9455.00,1.09
9454.00,1.09
9453.00,1.09
9452.00,1.09
9451.00,1.09
9450.00,1.09
9449.00,1.09
9448.00,1.09
9447.00,1.09
9446.00,1.09
9445.00,1.09
9444.00,1.09
9443.00,1.09
9442.00,1.09
9441.00,1.08
9440.00,1.08
9439.00,1.08
9438.00,1.08
9437.00,1.08
9436.00,1.08
9435.00,1.08
9434.00,1.08
9433.00,1.08
9432.00,1.08
9431.00,1.08
9430.00,1.08
9429.00,1.08
9428.00,1.08
9427.00,1.08
9426.00,1.08
9425.00,1.08
9424.00,1.08
9423.00,1.08
9422.00,1.07
9421.00,1.07
9420.00,1.07
9419.00,1.07
9418.00,1.07
9417.00,1.07
9416.00,1.07
9415.00,1.07
9414.00,1.07
9413.00,1.07
9412.00,1.07
9411.00,1.07
9410.00,1.07
9409.00,1.07
9408.00,1.07
9407.00,1.07
9406.00,1.07
9405.00,1.07
9404.00,1.07
9403.00,1.07
9402.00,1.07
9401.00,1.07
9400.00,1.07
9399.00,1.07
9398.00,1.08
9397.00,1.08
9396.00,1.08
9395.00,1.08
9394.00,1.08
9393.00,1.08
9392.00,1.08
9391.00,1.08
9390.00,1.08
9389.00,1.08
9388.00,1.08
9387.00,1.08
9386.00,1.08
9385.00,1.08
9384.00,1.08
9383.00,1.08
9382.00,1.08
9381.00,1.08
9380.00,1.08
9379.00,1.08
9378.00,1.08
9377.00,1.08
9376.00,1.08
9375.00,1.08
9374.00,1.08
9373.00,1.08
9372.00,1.08
9371.00,1.08
9370.00,1.07
9369.00,1.07
9368.00,1.07
9367.00,1.07
9366.00,1.07
9365.00,1.07
9364.00,1.07
9363.00,1.07
9362.00,1.07
9361.00,1.07
9360.00,1.07
9359.00,1.07
9358.00,1.07
9357.00,1.07
9356.00,1.07
9355.00,1.07
9354.00,1.07
9353.00,1.07
9352.00,1.07
9351.00,1.07
9350.00,1.07
9349.00,1.07
9348.00,1.07
9347.00,1.07
9346.00,1.07
9345.00,1.07
9344.00,1.07
9343.00,1.07
9342.00,1.07
9341.00,1.07
9340.00,1.07
9339.00,1.07
9338.00,1.07
9337.00,1.07
9336.00,1.07
9335.00,1.07
9334.00,1.07
9333.00,1.07
9332.00,1.07
9331.00,1.07
9330.00,1.07
9329.00,1.07
9328.00,1.07
9327.00,1.07
9326.00,1.07
9325.00,1.07
9324.00,1.07
9323.00,1.07
9322.00,1.07
9321.00,1.07
9320.00,1.07
9319.00,1.07
9318.00,1.07
9317.00,1.07
9316.00,1.07
9315.00,1.08
9314.00,1.08
9313.00,1.08
9312.00,1.08
9311.00,1.08
9310.00,1.08
9309.00,1.09
9308.00,1.09
9307.00,1.09
9306.00,1.09
9305.00,1.09
9304.00,1.09
9303.00,1.09
9302.00,1.09
9301.00,1.09
9300.00,1.09
9299.00,1.09
9298.00,1.09
9297.00,1.09
9296.00,1.09
9295.00,1.09
9294.00,1.08
9293.00,1.08
9292.00,1.08
9291.00,1.08
9290.00,1.08
9289.00,1.08
9288.00,1.08
9287.00,1.08
9286.00,1.08
9285.00,1.08
9284.00,1.08
9283.00,1.08
9282.00,1.08
9281.00,1.08
9280.00,1.08
9279.00,1.08
9278.00,1.08
9277.00,1.08
9276.00,1.08
9275.00,1.08
9274.00,1.08
9273.00,1.08
9272.00,1.08
9271.00,1.08
9270.00,1.08
9269.00,1.08
9268.00,1.08
9267.00,1.08
9266.00,1.08
9265.00,1.07
9264.00,1.07
9263.00,1.07
9262.00,1.07
9261.00,1.07
9260.00,1.07
9259.00,1.07
9258.00,1.07
9257.00,1.07
9256.00,1.07
9255.00,1.07
9254.00,1.07
9253.00,1.07
9252.00,1.07
9251.00,1.07
9250.00,1.07
9249.00,1.07
9248.00,1.07
9247.00,1.07
9246.00,1.07
9245.00,1.07
9244.00,1.07
9243.00,1.07
9242.00,1.07
9241.00,1.07
9240.00,1.07
9239.00,1.07
9238.00,1.08
9237.00,1.08
9236.00,1.08
9235.00,1.08
9234.00,1.08
9233.00,1.08
9232.00,1.08
9231.00,1.08
9230.00,1.08
9229.00,1.08
9228.00,1.08
9227.00,1.08
9226.00,1.08
9225.00,1.08
9224.00,1.08
9223.00,1.08
9222.00,1.08
9221.00,1.08
9220.00,1.08
9219.00,1.07
9218.00,1.07
9217.00,1.07
9216.00,1.07
9215.00,1.07
9214.00,1.07
9213.00,1.07
9212.00,1.07
9211.00,1.07
9210.00,1.07
9209.00,1.07
9208.00,1.07
9207.00,1.07
9206.00,1.07
9205.00,1.07
9204.00,1.07
9203.00,1.07
9202.00,1.07
9201.00,1.07
9200.00,1.07
9199.00,1.07
9198.00,1.07
9197.00,1.08
9196.00,1.08
9195.00,1.08
9194.00,1.08
9193.00,1.08
9192.00,1.09
9191.00,1.09
9190.00,1.09
9189.00,1.09
9188.00,1.09
9187.00,1.09
9186.00,1.09
9185.00,1.09
9184.00,1.09
9183.00,1.09
9182.00,1.09
9181.00,1.08
9180.00,1.08
9179.00,1.08
9178.00,1.08
9177.00,1.08
9176.00,1.08
9175.00,1.08
9174.00,1.08
9173.00,1.08
9172.00,1.08
9171.00,1.08
9170.00,1.08
9169.00,1.08
9168.00,1.08
9167.00,1.08
9166.00,1.08
9165.00,1.08
9164.00,1.08
9163.00,1.09
9162.00,1.09
9161.00,1.09
9160.00,1.09
9159.00,1.09
9158.00,1.09
9157.00,1.09
9156.00,1.09
9155.00,1.10
9154.00,1.10
9153.00,1.10
9152.00,1.10
9151.00,1.10
9150.00,1.10
9149.00,1.10
9148.00,1.10
9147.00,1.10
9146.00,1.09
9145.00,1.09
9144.00,1.09
9143.00,1.09
9142.00,1.09
9141.00,1.09
9140.00,1.09
9139.00,1.08
9138.00,1.08
9137.00,1.08
9136.00,1.08
9135.00,1.08
9134.00,1.08
9133.00,1.08
9132.00,1.08
9131.00,1.07
9130.00,1.07
9129.00,1.07
9128.00,1.07
9127.00,1.07
9126.00,1.07
9125.00,1.07
9124.00,1.07
9123.00,1.07
9122.00,1.07
9121.00,1.07
9120.00,1.07
9119.00,1.07
9118.00,1.08
9117.00,1.08
9116.00,1.08
9115.00,1.08
9114.00,1.08
9113.00,1.08
9112.00,1.08
9111.00,1.08
9110.00,1.08
9109.00,1.08
9108.00,1.08
9107.00,1.08
9106.00,1.08
9105.00,1.08
9104.00,1.08
9103.00,1.08
9102.00,1.08
9101.00,1.08
9100.00,1.08
9099.00,1.08
9098.00,1.08
9097.00,1.08
9096.00,1.08
9095.00,1.08
9094.00,1.08
9093.00,1.08
9092.00,1.08
9091.00,1.08
9090.00,1.08
9089.00,1.08
9088.00,1.08
9087.00,1.08
9086.00,1.08
9085.00,1.08
9084.00,1.08
9083.00,1.08
9082.00,1.08
9081.00,1.07
9080.00,1.07
9079.00,1.07
9078.00,1.07
9077.00,1.07
9076.00,1.07
9075.00,1.06
9074.00,1.06
9073.00,1.06
9072.00,1.06
9071.00,1.06
9070.00,1.06
9069.00,1.06
9068.00,1.06
9067.00,1.06
9066.00,1.06
9065.00,1.06
9064.00,1.06
9063.00,1.06
9062.00,1.06
9061.00,1.06
9060.00,1.06
9059.00,1.06
9058.00,1.06
9057.00,1.06
9056.00,1.06
9055.00,1.06
9054.00,1.06
9053.00,1.06
9052.00,1.06
9051.00,1.07
9050.00,1.07
9049.00,1.07
9048.00,1.07
9047.00,1.08
9046.00,1.08
9045.00,1.08
9044.00,1.08
9043.00,1.08
9042.00,1.09
9041.00,1.09
9040.00,1.09
9039.00,1.09
9038.00,1.09
9037.00,1.09
9036.00,1.10
9035.00,1.10
9034.00,1.10
9033.00,1.10
9032.00,1.10
9031.00,1.10
9030.00,1.10
9029.00,1.10
9028.00,1.10
9027.00,1.10
9026.00,1.10
9025.00,1.10
9024.00,1.10
9023.00,1.10
9022.00,1.10
9021.00,1.10
9020.00,1.10
9019.00,1.10
9018.00,1.10
9017.00,1.10
9016.00,1.10
9015.00,1.10
9014.00,1.10
9013.00,1.10
9012.00,1.10
9011.00,1.09
9010.00,1.09
9009.00,1.09
9008.00,1.09
9007.00,1.09
9006.00,1.09
9005.00,1.09
9004.00,1.09
9003.00,1.08
9002.00,1.08
9001.00,1.08
9000.00,1.08
8999.00,1.08
8998.00,1.08
8997.00,1.08
8996.00,1.08
8995.00,1.08
8994.00,1.08
8993.00,1.08
8992.00,1.08
8991.00,1.08
8990.00,1.08
8989.00,1.08
8988.00,1.08
8987.00,1.08
8986.00,1.08
8985.00,1.08
8984.00,1.08
8983.00,1.08
8982.00,1.08
8981.00,1.08
8980.00,1.08
8979.00,1.08
8978.00,1.08
8977.00,1.08
8976.00,1.08
8975.00,1.08
8974.00,1.08
8973.00,1.08
8972.00,1.08
8971.00,1.08
8970.00,1.08
8969.00,1.08
8968.00,1.08
8967.00,1.08
8966.00,1.08
8965.00,1.08
8964.00,1.08
8963.00,1.08
8962.00,1.08
8961.00,1.08
8960.00,1.08
8959.00,1.08
8958.00,1.08
8957.00,1.09
8956.00,1.09
8955.00,1.09
8954.00,1.09
8953.00,1.09
8952.00,1.09
8951.00,1.09
8950.00,1.09
8949.00,1.09
8948.00,1.09
8947.00,1.09
8946.00,1.09
8945.00,1.09
8944.00,1.09
8943.00,1.09
8942.00,1.09
8941.00,1.09
8940.00,1.09
8939.00,1.09
8938.00,1.09
8937.00,1.09
8936.00,1.09
8935.00,1.09
8934.00,1.09
8933.00,1.09
8932.00,1.09
8931.00,1.09
8930.00,1.09
8929.00,1.09
8928.00,1.09
8927.00,1.09
8926.00,1.09
8925.00,1.09
8924.00,1.09
8923.00,1.09
8922.00,1.09
8921.00,1.09
8920.00,1.08
8919.00,1.08
8918.00,1.08
8917.00,1.08
8916.00,1.08
8915.00,1.08
8914.00,1.08
8913.00,1.08
8912.00,1.08
8911.00,1.08
8910.00,1.07
8909.00,1.07
8908.00,1.07
8907.00,1.07
8906.00,1.07
8905.00,1.07
8904.00,1.07
8903.00,1.07
8902.00,1.07
8901.00,1.08
8900.00,1.08
8899.00,1.08
8898.00,1.08
8897.00,1.08
8896.00,1.08
8895.00,1.08
8894.00,1.08
8893.00,1.08
8892.00,1.09
8891.00,1.09
8890.00,1.09
8889.00,1.09
8888.00,1.09
8887.00,1.09
8886.00,1.09
8885.00,1.09
8884.00,1.09
8883.00,1.09
8882.00,1.09
8881.00,1.09
8880.00,1.09
8879.00,1.09
8878.00,1.09
8877.00,1.09
8876.00,1.09
8875.00,1.09
8874.00,1.09
8873.00,1.09
8872.00,1.09
8871.00,1.09
8870.00,1.09
8869.00,1.09
8868.00,1.09
8867.00,1.09
8866.00,1.09
8865.00,1.09
8864.00,1.09
8863.00,1.08
8862.00,1.08
8861.00,1.08
8860.00,1.08
8859.00,1.08
8858.00,1.08
8857.00,1.08
8856.00,1.07
8855.00,1.07
8854.00,1.07
8853.00,1.07
8852.00,1.07
8851.00,1.07
8850.00,1.07
8849.00,1.07
8848.00,1.07
8847.00,1.06
8846.00,1.06
8845.00,1.06
8844.00,1.06
8843.00,1.06
8842.00,1.06
8841.00,1.06
8840.00,1.06
8839.00,1.06
8838.00,1.06
8837.00,1.06
8836.00,1.07
8835.00,1.07
8834.00,1.07
8833.00,1.07
8832.00,1.07
8831.00,1.07
8830.00,1.07
8829.00,1.07
8828.00,1.07
8827.00,1.07
8826.00,1.07
8825.00,1.08
8824.00,1.08
8823.00,1.08
8822.00,1.08
8821.00,1.08
8820.00,1.08
8819.00,1.08
8818.00,1.08
8817.00,1.08
8816.00,1.08
8815.00,1.08
8814.00,1.08
8813.00,1.08
8812.00,1.08
8811.00,1.08
8810.00,1.08
8809.00,1.08
8808.00,1.08
8807.00,1.08
8806.00,1.08
8805.00,1.08
8804.00,1.08
8803.00,1.08
8802.00,1.08
8801.00,1.07
8800.00,1.07
8799.00,1.07
8798.00,1.07
8797.00,1.07
8796.00,1.07
8795.00,1.07
8794.00,1.07
8793.00,1.06
8792.00,1.06
8791.00,1.06
8790.00,1.06
8789.00,1.06
8788.00,1.06
8787.00,1.06
8786.00,1.05
8785.00,1.05
8784.00,1.05
8783.00,1.05
8782.00,1.05
8781.00,1.05
8780.00,1.05
8779.00,1.05
8778.00,1.05
8777.00,1.04
8776.00,1.04
8775.00,1.04
8774.00,1.04
8773.00,1.04
8772.00,1.04
8771.00,1.04
8770.00,1.04
8769.00,1.04
8768.00,1.04
8767.00,1.04
8766.00,1.04
8765.00,1.04
8764.00,1.05
8763.00,1.05
8762.00,1.05
8761.00,1.05
8760.00,1.05
8759.00,1.05
8758.00,1.05
8757.00,1.05
8756.00,1.05
8755.00,1.05
8754.00,1.05
8753.00,1.05
8752.00,1.05
8751.00,1.05
8750.00,1.05
8749.00,1.05
8748.00,1.05
8747.00,1.05
8746.00,1.05
8745.00,1.05
8744.00,1.05
8743.00,1.05
8742.00,1.05
8741.00,1.05
8740.00,1.05
8739.00,1.05
8738.00,1.05
8737.00,1.05
8736.00,1.05
8735.00,1.05
8734.00,1.05
8733.00,1.05
8732.00,1.05
8731.00,1.05
8730.00,1.05
8729.00,1.05
8728.00,1.05
8727.00,1.05
8726.00,1.05
8725.00,1.05
8724.00,1.05
8723.00,1.05
8722.00,1.05
8721.00,1.05
8720.00,1.05
8719.00,1.04
8718.00,1.04
8717.00,1.04
8716.00,1.04
8715.00,1.04
8714.00,1.04
8713.00,1.04
8712.00,1.04
8711.00,1.04
8710.00,1.04
8709.00,1.04
8708.00,1.04
8707.00,1.04
8706.00,1.04
8705.00,1.04
8704.00,1.04
8703.00,1.04
8702.00,1.04
8701.00,1.04
8700.00,1.04
8699.00,1.04
8698.00,1.04
8697.00,1.04
8696.00,1.04
8695.00,1.04
8694.00,1.04
8693.00,1.04
8692.00,1.03
8691.00,1.03
8690.00,1.03
8689.00,1.03
8688.00,1.03
8687.00,1.03
8686.00,1.03
8685.00,1.04
8684.00,1.04
8683.00,1.04
8682.00,1.04
8681.00,1.04
8680.00,1.04
8679.00,1.04
8678.00,1.04
8677.00,1.04
8676.00,1.04
8675.00,1.04
8674.00,1.04
8673.00,1.04
8672.00,1.03
8671.00,1.03
8670.00,1.03
8669.00,1.03
8668.00,1.03
8667.00,1.03
8666.00,1.03
8665.00,1.03
8664.00,1.03
8663.00,1.03
8662.00,1.03
8661.00,1.03
8660.00,1.03
8659.00,1.03
8658.00,1.03
8657.00,1.03
8656.00,1.03
8655.00,1.03
8654.00,1.03
8653.00,1.03
8652.00,1.03
8651.00,1.04
8650.00,1.04
8649.00,1.04
8648.00,1.04
8647.00,1.04
8646.00,1.04
8645.00,1.04
8644.00,1.04
8643.00,1.04
8642.00,1.04
8641.00,1.04
8640.00,1.04
8639.00,1.04
8638.00,1.04
8637.00,1.04
8636.00,1.04
8635.00,1.04
8634.00,1.03
8633.00,1.03
8632.00,1.03
8631.00,1.03
8630.00,1.03
8629.00,1.03
8628.00,1.03
8627.00,1.03
8626.00,1.03
8625.00,1.03
8624.00,1.03
8623.00,1.03
8622.00,1.03
8621.00,1.03
8620.00,1.03
8619.00,1.03
8618.00,1.03
8617.00,1.03
8616.00,1.03
8615.00,1.03
8614.00,1.03
8613.00,1.03
8612.00,1.03
8611.00,1.03
8610.00,1.03
8609.00,1.03
8608.00,1.03
8607.00,1.03
8606.00,1.03
8605.00,1.03
8604.00,1.03
8603.00,1.03
8602.00,1.03
8601.00,1.03
8600.00,1.03
8599.00,1.03
8598.00,1.03
8597.00,1.03
8596.00,1.03
8595.00,1.03
8594.00,1.03
8593.00,1.03
8592.00,1.03
8591.00,1.03
8590.00,1.03
8589.00,1.03
8588.00,1.03
8587.00,1.03
8586.00,1.03
8585.00,1.03
8584.00,1.03
8583.00,1.03
8582.00,1.03
8581.00,1.03
8580.00,1.03
8579.00,1.02
8578.00,1.02
8577.00,1.02
8576.00,1.02
8575.00,1.02
8574.00,1.01
8573.00,1.01
8572.00,1.01
8571.00,1.01
8570.00,1.01
8569.00,1.01
8568.00,1.01
8567.00,1.00
8566.00,1.00
8565.00,1.00
8564.00,1.00
8563.00,1.00
8562.00,1.01
8561.00,1.01
8560.00,1.01
8559.00,1.01
8558.00,1.01
8557.00,1.01
8556.00,1.01
8555.00,1.01
8554.00,1.01
8553.00,1.01
8552.00,1.01
8551.00,1.01
8550.00,1.01
8549.00,1.01
8548.00,1.01
8547.00,1.01
8546.00,1.01
8545.00,1.01
8544.00,1.01
8543.00,1.01
8542.00,1.01
8541.00,1.01
8540.00,1.01
8539.00,1.01
8538.00,1.01
8537.00,1.01
8536.00,1.01
8535.00,1.01
8534.00,1.01
8533.00,1.01
8532.00,1.01
8531.00,1.01
8530.00,1.01
8529.00,1.01
8528.00,1.01
8527.00,1.01
8526.00,1.01
8525.00,1.02
8524.00,1.02
8523.00,1.02
8522.00,1.02
8521.00,1.02
8520.00,1.02
8519.00,1.02
8518.00,1.02
8517.00,1.02
8516.00,1.02
8515.00,1.02
8514.00,1.02
8513.00,1.02
8512.00,1.02
8511.00,1.02
8510.00,1.02
8509.00,1.01
8508.00,1.01
8507.00,1.01
8506.00,1.01
8505.00,1.01
8504.00,1.01
8503.00,1.01
8502.00,1.01
8501.00,1.01
8500.00,1.01
8499.00,1.01
8498.00,1.00
8497.00,1.00
8496.00,1.00
8495.00,1.00
8494.00,1.00
8493.00,1.00
8492.00,1.00
8491.00,1.00
8490.00,1.00
8489.00,1.00
8488.00,1.00
8487.00,1.00
8486.00,1.00
8485.00,0.99
8484.00,0.99
8483.00,0.99
8482.00,0.99
8481.00,0.99
8480.00,0.99
8479.00,0.99
8478.00,0.99
8477.00,0.99
8476.00,0.99
8475.00,0.99
8474.00,0.99
8473.00,0.99
8472.00,0.99
8471.00,0.99
8470.00,0.99
8469.00,0.99
8468.00,0.99
8467.00,0.99
8466.00,0.99
8465.00,0.98
8464.00,0.98
8463.00,0.98
8462.00,0.98
8461.00,0.98
8460.00,0.98
8459.00,0.98
8458.00,0.98
8457.00,0.98
8456.00,0.98
8455.00,0.98
8454.00,0.98
8453.00,0.98
8452.00,0.98
8451.00,0.98
8450.00,0.98
8449.00,0.98
8448.00,0.98
8447.00,0.98
8446.00,0.98
8445.00,0.98
8444.00,0.98
8443.00,0.98
8442.00,0.98
8441.00,0.98
8440.00,0.98
8439.00,0.98
8438.00,0.98
8437.00,0.98
8436.00,0.98
8435.00,0.98
8434.00,0.98
8433.00,0.99
8432.00,0.99
8431.00,0.99
8430.00,0.99
8429.00,0.99
8428.00,0.99
8427.00,0.99
8426.00,0.99
8425.00,0.99
8424.00,0.99
8423.00,0.99
8422.00,0.99
8421.00,0.99
8420.00,0.99
8419.00,0.98
8418.00,0.98
8417.00,0.98
8416.00,0.98
8415.00,0.98
8414.00,0.98
8413.00,0.98
8412.00,0.98
8411.00,0.98
8410.00,0.98
8409.00,0.98
8408.00,0.98
8407.00,0.99
8406.00,0.99
8405.00,0.99
8404.00,0.99
8403.00,0.99
8402.00,0.99
8401.00,0.99
8400.00,0.99
8399.00,0.99
8398.00,0.99
8397.00,0.99
8396.00,0.99
8395.00,0.99
8394.00,0.99
8393.00,1.00
8392.00,1.00
8391.00,1.00
8390.00,1.00
8389.00,1.00
8388.00,1.00
8387.00,1.00
8386.00,1.00
8385.00,1.00
8384.00,1.01
8383.00,1.01
8382.00,1.01
8381.00,1.01
8380.00,1.01
8379.00,1.01
8378.00,1.01
8377.00,1.01
8376.00,1.01
8375.00,1.00
8374.00,1.00
8373.00,1.00
8372.00,1.00
8371.00,1.00
8370.00,1.00
8369.00,1.00
8368.00,1.00
8367.00,1.00
8366.00,1.00
8365.00,1.00
8364.00,1.00
8363.00,1.00
8362.00,1.01
8361.00,1.01
8360.00,1.01
8359.00,1.01
8358.00,1.01
8357.00,1.01
8356.00,1.01
8355.00,1.01
8354.00,1.01
8353.00,1.01
8352.00,1.01
8351.00,1.02
8350.00,1.02
8349.00,1.02
8348.00,1.02
8347.00,1.02
8346.00,1.01
8345.00,1.01
8344.00,1.01
8343.00,1.01
8342.00,1.01
8341.00,1.01
8340.00,1.01
8339.00,1.01
8338.00,1.01
8337.00,1.01
8336.00,1.01
8335.00,1.01
8334.00,1.01
8333.00,1.01
8332.00,1.01
8331.00,1.00
8330.00,1.00
8329.00,1.00
8328.00,1.00
8327.00,1.00
8326.00,1.00
8325.00,1.00
8324.00,1.00
8323.00,1.00
8322.00,1.00
8321.00,1.00
8320.00,1.00
8319.00,1.00
8318.00,1.00
8317.00,1.00
8316.00,1.00
8315.00,1.01
8314.00,1.01
8313.00,1.01
8312.00,1.01
8311.00,1.01
8310.00,1.01
8309.00,1.01
8308.00,1.02
8307.00,1.02
8306.00,1.02
8305.00,1.02
8304.00,1.02
8303.00,1.02
8302.00,1.02
8301.00,1.02
8300.00,1.02
8299.00,1.02
8298.00,1.02
8297.00,1.02
8296.00,1.02
8295.00,1.02
8294.00,1.02
8293.00,1.02
8292.00,1.02
8291.00,1.02
8290.00,1.01
8289.00,1.01
8288.00,1.01
8287.00,1.01
8286.00,1.01
8285.00,1.01
8284.00,1.01
8283.00,1.01
8282.00,1.01
8281.00,1.01
8280.00,1.01
8279.00,1.01
8278.00,1.01
8277.00,1.01
8276.00,1.01
8275.00,1.01
8274.00,1.01
8273.00,1.01
8272.00,1.02
8271.00,1.02
8270.00,1.02
8269.00,1.02
8268.00,1.02
8267.00,1.02
8266.00,1.02
8265.00,1.03
8264.00,1.03
8263.00,1.03
8262.00,1.03
8261.00,1.03
8260.00,1.03
8259.00,1.03
8258.00,1.03
8257.00,1.03
8256.00,1.03
8255.00,1.03
8254.00,1.03
8253.00,1.03
8252.00,1.02
8251.00,1.02
8250.00,1.02
8249.00,1.02
8248.00,1.02
8247.00,1.02
8246.00,1.02
8245.00,1.02
8244.00,1.02
8243.00,1.02
8242.00,1.02
8241.00,1.02
8240.00,1.02
8239.00,1.02
8238.00,1.02
8237.00,1.02
8236.00,1.02
8235.00,1.02
8234.00,1.02
8233.00,1.02
8232.00,1.02
8231.00,1.02
8230.00,1.03
8229.00,1.03
8228.00,1.03
8227.00,1.03
8226.00,1.03
8225.00,1.03
8224.00,1.03
8223.00,1.03
8222.00,1.03
8221.00,1.03
8220.00,1.03
8219.00,1.03
8218.00,1.03
8217.00,1.03
8216.00,1.03
8215.00,1.03
8214.00,1.03
8213.00,1.03
8212.00,1.03
8211.00,1.03
8210.00,1.03
8209.00,1.03
8208.00,1.03
8207.00,1.03
8206.00,1.03
8205.00,1.03
8204.00,1.03
8203.00,1.03
8202.00,1.03
8201.00,1.03
8200.00,1.03
8199.00,1.03
8198.00,1.03
8197.00,1.03
8196.00,1.03
8195.00,1.03
8194.00,1.03
8193.00,1.03
8192.00,1.04
8191.00,1.04
8190.00,1.04
8189.00,1.04
8188.00,1.04
8187.00,1.04
8186.00,1.04
8185.00,1.04
8184.00,1.04
8183.00,1.04
8182.00,1.04
8181.00,1.04
8180.00,1.05
8179.00,1.05
8178.00,1.05
8177.00,1.05
8176.00,1.05
8175.00,1.05
8174.00,1.05
8173.00,1.05
8172.00,1.05
8171.00,1.05
8170.00,1.05
8169.00,1.05
8168.00,1.05
8167.00,1.05
8166.00,1.05
8165.00,1.05
8164.00,1.05
8163.00,1.05
8162.00,1.05
8161.00,1.05
8160.00,1.05
8159.00,1.05
8158.00,1.06
8157.00,1.06
8156.00,1.06
8155.00,1.06
8154.00,1.06
8153.00,1.06
8152.00,1.06
8151.00,1.06
8150.00,1.06
8149.00,1.06
8148.00,1.06
8147.00,1.06
8146.00,1.06
8145.00,1.05
8144.00,1.05
8143.00,1.05
8142.00,1.05
8141.00,1.05
8140.00,1.05
8139.00,1.05
8138.00,1.05
8137.00,1.05
8136.00,1.05
8135.00,1.05
8134.00,1.05
8133.00,1.05
8132.00,1.05
8131.00,1.05
8130.00,1.05
8129.00,1.05
8128.00,1.05
8127.00,1.05
8126.00,1.06
8125.00,1.06
8124.00,1.06
8123.00,1.06
8122.00,1.06
8121.00,1.06
8120.00,1.06
8119.00,1.06
8118.00,1.06
8117.00,1.06
8116.00,1.06
8115.00,1.06
8114.00,1.06
8113.00,1.06
8112.00,1.06
8111.00,1.06
8110.00,1.07
8109.00,1.07
8108.00,1.07
8107.00,1.07
8106.00,1.07
8105.00,1.07
8104.00,1.07
8103.00,1.07
8102.00,1.07
8101.00,1.07
8100.00,1.07
8099.00,1.07
8098.00,1.07
8097.00,1.06
8096.00,1.06
8095.00,1.06
8094.00,1.06
8093.00,1.06
8092.00,1.06
8091.00,1.06
8090.00,1.06
8089.00,1.06
8088.00,1.06
8087.00,1.06
8086.00,1.06
8085.00,1.06
8084.00,1.06
8083.00,1.06
8082.00,1.06
8081.00,1.06
8080.00,1.06
8079.00,1.06
8078.00,1.06
8077.00,1.06
8076.00,1.06
8075.00,1.06
8074.00,1.06
8073.00,1.06
8072.00,1.06
8071.00,1.06
8070.00,1.06
8069.00,1.06
8068.00,1.06
8067.00,1.06
8066.00,1.06
8065.00,1.06
8064.00,1.06
8063.00,1.06
8062.00,1.06
8061.00,1.06
8060.00,1.06
8059.00,1.06
8058.00,1.06
8057.00,1.06
8056.00,1.06
8055.00,1.07
8054.00,1.07
8053.00,1.07
8052.00,1.07
8051.00,1.07
8050.00,1.07
8049.00,1.07
8048.00,1.06
8047.00,1.06
8046.00,1.06
8045.00,1.06
8044.00,1.06
8043.00,1.06
8042.00,1.06
8041.00,1.06
8040.00,1.06
8039.00,1.06
8038.00,1.06
8037.00,1.06
8036.00,1.06
8035.00,1.06
8034.00,1.06
8033.00,1.06
8032.00,1.06
8031.00,1.06
8030.00,1.06
8029.00,1.06
8028.00,1.06
8027.00,1.06
8026.00,1.06
8025.00,1.07
8024.00,1.07
8023.00,1.07
8022.00,1.07
8021.00,1.07
8020.00,1.07
8019.00,1.07
8018.00,1.07
8017.00,1.07
8016.00,1.07
8015.00,1.07
8014.00,1.07
8013.00,1.07
8012.00,1.07
8011.00,1.07
8010.00,1.07
8009.00,1.07
8008.00,1.08
8007.00,1.08
8006.00,1.08
8005.00,1.08
8004.00,1.07
8003.00,1.07
8002.00,1.07
8001.00,1.07
8000.00,1.07
7999.00,1.07
7998.00,1.07
7997.00,1.07
7996.00,1.07
7995.00,1.07
7994.00,1.07
7993.00,1.07
7992.00,1.07
7991.00,1.07
7990.00,1.07
7989.00,1.07
7988.00,1.07
7987.00,1.07
7986.00,1.07
7985.00,1.07
7984.00,1.07
7983.00,1.07
7982.00,1.07
7981.00,1.07
7980.00,1.07
7979.00,1.07
7978.00,1.07
7977.00,1.07
7976.00,1.07
7975.00,1.07
7974.00,1.07
7973.00,1.07
7972.00,1.07
7971.00,1.07
7970.00,1.07
7969.00,1.08
7968.00,1.08
7967.00,1.08
7966.00,1.08
7965.00,1.08
7964.00,1.08
7963.00,1.08
7962.00,1.08
7961.00,1.08
7960.00,1.08
7959.00,1.08
7958.00,1.08
7957.00,1.08
7956.00,1.08
7955.00,1.08
7954.00,1.08
7953.00,1.08
7952.00,1.08
7951.00,1.08
7950.00,1.08
7949.00,1.08
7948.00,1.08
7947.00,1.08
7946.00,1.08
7945.00,1.08
7944.00,1.08
7943.00,1.08
7942.00,1.08
7941.00,1.08
7940.00,1.08
7939.00,1.08
7938.00,1.08
7937.00,1.08
7936.00,1.08
7935.00,1.08
7934.00,1.08
7933.00,1.08
7932.00,1.08
7931.00,1.08
7930.00,1.08
7929.00,1.08
7928.00,1.08
7927.00,1.08
7926.00,1.08
7925.00,1.08
7924.00,1.08
7923.00,1.08
7922.00,1.08
7921.00,1.08
7920.00,1.08
7919.00,1.08
7918.00,1.08
7917.00,1.08
7916.00,1.08
7915.00,1.08
7914.00,1.08
7913.00,1.08
7912.00,1.08
7911.00,1.08
7910.00,1.08
7909.00,1.08
7908.00,1.08
7907.00,1.08
7906.00,1.08
7905.00,1.08
7904.00,1.08
7903.00,1.08
7902.00,1.08
7901.00,1.08
7900.00,1.08
7899.00,1.08
7898.00,1.08
7897.00,1.08
7896.00,1.08
7895.00,1.08
7894.00,1.08
7893.00,1.08
7892.00,1.08
7891.00,1.09
7890.00,1.09
7889.00,1.09
7888.00,1.09
7887.00,1.09
7886.00,1.09
7885.00,1.09
7884.00,1.09
7883.00,1.09
7882.00,1.09
7881.00,1.09
7880.00,1.09
7879.00,1.09
7878.00,1.09
7877.00,1.09
7876.00,1.09
7875.00,1.09
7874.00,1.09
7873.00,1.09
7872.00,1.09
7871.00,1.09
7870.00,1.09
7869.00,1.09
7868.00,1.08
7867.00,1.08
7866.00,1.08
7865.00,1.08
7864.00,1.08
7863.00,1.08
7862.00,1.08
7861.00,1.08
7860.00,1.08
7859.00,1.08
7858.00,1.08
7857.00,1.08
7856.00,1.08
7855.00,1.08
7854.00,1.08
7853.00,1.08
7852.00,1.08
7851.00,1.08
7850.00,1.08
7849.00,1.08
7848.00,1.08
7847.00,1.08
7846.00,1.08
7845.00,1.08
7844.00,1.08
7843.00,1.08
7842.00,1.08
7841.00,1.08
7840.00,1.08
7839.00,1.08
7838.00,1.08
7837.00,1.08
7836.00,1.08
7835.00,1.08
7834.00,1.09
7833.00,1.09
7832.00,1.09
7831.00,1.09
7830.00,1.09
7829.00,1.09
7828.00,1.09
7827.00,1.09
7826.00,1.09
7825.00,1.09
7824.00,1.09
7823.00,1.09
7822.00,1.09
7821.00,1.09
7820.00,1.09
7819.00,1.09
7818.00,1.09
7817.00,1.09
7816.00,1.09
7815.00,1.09
7814.00,1.09
7813.00,1.09
7812.00,1.09
7811.00,1.09
7810.00,1.09
7809.00,1.09
7808.00,1.09
7807.00,1.09
7806.00,1.09
7805.00,1.09
7804.00,1.09
7803.00,1.09
7802.00,1.10
7801.00,1.10
7800.00,1.10
7799.00,1.10
7798.00,1.10
7797.00,1.10
7796.00,1.10
7795.00,1.10
7794.00,1.10
7793.00,1.10
7792.00,1.10
7791.00,1.10
7790.00,1.10
7789.00,1.10
7788.00,1.10
7787.00,1.10
7786.00,1.10
7785.00,1.10
7784.00,1.10
7783.00,1.10
7782.00,1.10
7781.00,1.10
7780.00,1.10
7779.00,1.10
7778.00,1.10
7777.00,1.10
7776.00,1.10
7775.00,1.10
7774.00,1.10
7773.00,1.10
7772.00,1.10
7771.00,1.10
7770.00,1.10
7769.00,1.10
7768.00,1.09
7767.00,1.09
7766.00,1.09
7765.00,1.09
7764.00,1.09
7763.00,1.09
7762.00,1.09
7761.00,1.09
7760.00,1.09
7759.00,1.09
7758.00,1.09
7757.00,1.09
7756.00,1.09
7755.00,1.09
7754.00,1.09
7753.00,1.09
7752.00,1.09
7751.00,1.09
7750.00,1.09
7749.00,1.09
7748.00,1.09
7747.00,1.09
7746.00,1.09
7745.00,1.09
7744.00,1.09
7743.00,1.09
7742.00,1.09
7741.00,1.09
7740.00,1.09
7739.00,1.09
7738.00,1.09
7737.00,1.09
7736.00,1.09
7735.00,1.09
7734.00,1.09
7733.00,1.09
7732.00,1.09
7731.00,1.09
7730.00,1.09
7729.00,1.09
7728.00,1.09
7727.00,1.09
7726.00,1.09
7725.00,1.09
7724.00,1.09
7723.00,1.10
7722.00,1.10
7721.00,1.10
7720.00,1.10
7719.00,1.10
7718.00,1.10
7717.00,1.10
7716.00,1.10
7715.00,1.10
7714.00,1.10
7713.00,1.10
7712.00,1.10
7711.00,1.10
7710.00,1.10
7709.00,1.10
7708.00,1.10
7707.00,1.10
7706.00,1.10
7705.00,1.10
7704.00,1.10
7703.00,1.10
7702.00,1.10
7701.00,1.10
7700.00,1.10
7699.00,1.10
7698.00,1.10
7697.00,1.10
7696.00,1.10
7695.00,1.10
7694.00,1.10
7693.00,1.10
7692.00,1.10
7691.00,1.10
7690.00,1.10
7689.00,1.10
7688.00,1.10
7687.00,1.10
7686.00,1.10
7685.00,1.10
7684.00,1.10
7683.00,1.10
7682.00,1.10
7681.00,1.10
7680.00,1.10
7679.00,1.10
7678.00,1.10
7677.00,1.10
7676.00,1.10
7675.00,1.10
7674.00,1.10
7673.00,1.10
7672.00,1.10
7671.00,1.10
7670.00,1.10
7669.00,1.10
7668.00,1.10
7667.00,1.10
7666.00,1.10
7665.00,1.10
7664.00,1.10
7663.00,1.10
7662.00,1.10
7661.00,1.10
7660.00,1.10
7659.00,1.10
7658.00,1.10
7657.00,1.10
7656.00,1.10
7655.00,1.10
7654.00,1.10
7653.00,1.10
7652.00,1.10
7651.00,1.10
7650.00,1.10
7649.00,1.09
7648.00,1.09
7647.00,1.09
7646.00,1.09
7645.00,1.09
7644.00,1.09
7643.00,1.09
7642.00,1.09
7641.00,1.09
7640.00,1.09
7639.00,1.09
7638.00,1.09
7637.00,1.09
7636.00,1.09
7635.00,1.09
7634.00,1.09
7633.00,1.09
7632.00,1.09
7631.00,1.09
7630.00,1.09
7629.00,1.09
7628.00,1.10
7627.00,1.10
7626.00,1.10
7625.00,1.10
7624.00,1.10
7623.00,1.10
7622.00,1.10
7621.00,1.10
7620.00,1.10
7619.00,1.10
7618.00,1.10
7617.00,1.10
7616.00,1.10
7615.00,1.10
7614.00,1.10
7613.00,1.10
7612.00,1.10
7611.00,1.10
7610.00,1.10
7609.00,1.10
7608.00,1.10
7607.00,1.10
7606.00,1.10
7605.00,1.10
7604.00,1.10
7603.00,1.10
7602.00,1.10
7601.00,1.10
7600.00,1.10
7599.00,1.10
7598.00,1.10
7597.00,1.10
7596.00,1.10
7595.00,1.10
7594.00,1.09
7593.00,1.09
7592.00,1.09
7591.00,1.09
7590.00,1.09
7589.00,1.09
7588.00,1.09
7587.00,1.09
7586.00,1.09
7585.00,1.09
7584.00,1.09
7583.00,1.09
7582.00,1.09
7581.00,1.09
7580.00,1.09
7579.00,1.09
7578.00,1.09
7577.00,1.09
7576.00,1.09
7575.00,1.09
7574.00,1.09
7573.00,1.09
7572.00,1.09
7571.00,1.09
7570.00,1.09
7569.00,1.09
7568.00,1.09
7567.00,1.09
7566.00,1.09
7565.00,1.09
7564.00,1.09
7563.00,1.09
7562.00,1.09
7561.00,1.09
7560.00,1.09
7559.00,1.09
7558.00,1.09
7557.00,1.09
7556.00,1.09
7555.00,1.09
7554.00,1.09
7553.00,1.09
7552.00,1.09
7551.00,1.09
7550.00,1.09
7549.00,1.09
7548.00,1.09
7547.00,1.08
7546.00,1.08
7545.00,1.08
7544.00,1.08
7543.00,1.08
7542.00,1.08
7541.00,1.08
7540.00,1.08
7539.00,1.08
7538.00,1.08
7537.00,1.08
7536.00,1.08
7535.00,1.08
7534.00,1.08
7533.00,1.08
7532.00,1.08
7531.00,1.08
7530.00,1.08
7529.00,1.08
7528.00,1.08
7527.00,1.08
7526.00,1.08
7525.00,1.08
7524.00,1.08
7523.00,1.09
7522.00,1.09
7521.00,1.09
7520.00,1.09
7519.00,1.09
7518.00,1.09
7517.00,1.09
7516.00,1.09
7515.00,1.09
7514.00,1.09
7513.00,1.09
7512.00,1.09
7511.00,1.09
7510.00,1.09
7509.00,1.09
7508.00,1.09
7507.00,1.09
7506.00,1.09
7505.00,1.09
7504.00,1.09
7503.00,1.09
7502.00,1.09
7501.00,1.09
7500.00,1.09
7499.00,1.09
7498.00,1.09
7497.00,1.09
7496.00,1.09
7495.00,1.09
7494.00,1.09
7493.00,1.09
7492.00,1.09
7491.00,1.09
7490.00,1.08
7489.00,1.08
7488.00,1.08
7487.00,1.08
7486.00,1.08
7485.00,1.08
7484.00,1.08
7483.00,1.08
7482.00,1.08
7481.00,1.07
7480.00,1.07
7479.00,1.07
7478.00,1.07
7477.00,1.07
7476.00,1.07
7475.00,1.07
7474.00,1.07
7473.00,1.07
7472.00,1.06
7471.00,1.06
7470.00,1.06
7469.00,1.06
7468.00,1.06
7467.00,1.06
7466.00,1.06
7465.00,1.06
7464.00,1.06
7463.00,1.06
7462.00,1.06
7461.00,1.06
7460.00,1.06
7459.00,1.06
7458.00,1.07
7457.00,1.07
7456.00,1.07
7455.00,1.07
7454.00,1.07
7453.00,1.07
7452.00,1.07
7451.00,1.07
7450.00,1.06
7449.00,1.06
7448.00,1.06
7447.00,1.06
7446.00,1.06
7445.00,1.06
7444.00,1.06
7443.00,1.06
7442.00,1.06
7441.00,1.06
7440.00,1.06
7439.00,1.06
7438.00,1.06
7437.00,1.05
7436.00,1.05
7435.00,1.05
7434.00,1.05
7433.00,1.05
7432.00,1.05
7431.00,1.05
7430.00,1.05
7429.00,1.05
7428.00,1.05
7427.00,1.05
7426.00,1.05
7425.00,1.05
7424.00,1.05
7423.00,1.05
7422.00,1.05
7421.00,1.05
7420.00,1.05
7419.00,1.05
7418.00,1.05
7417.00,1.05
7416.00,1.05
7415.00,1.05
7414.00,1.05
7413.00,1.05
7412.00,1.05
7411.00,1.05
7410.00,1.05
7409.00,1.05
7408.00,1.05
7407.00,1.05
7406.00,1.05
7405.00,1.05
7404.00,1.05
7403.00,1.05
7402.00,1.04
7401.00,1.04
7400.00,1.04
7399.00,1.04
7398.00,1.04
7397.00,1.04
7396.00,1.04
7395.00,1.04
7394.00,1.04
7393.00,1.04
7392.00,1.04
7391.00,1.03
7390.00,1.03
7389.00,1.03
7388.00,1.03
7387.00,1.03
7386.00,1.03
7385.00,1.03
7384.00,1.03
7383.00,1.03
7382.00,1.03
7381.00,1.03
7380.00,1.03
7379.00,1.03
7378.00,1.03
7377.00,1.03
7376.00,1.03
7375.00,1.03
7374.00,1.03
7373.00,1.03
7372.00,1.03
7371.00,1.03
7370.00,1.03
7369.00,1.02
7368.00,1.02
7367.00,1.02
7366.00,1.02
7365.00,1.02
7364.00,1.02
7363.00,1.02
7362.00,1.02
7361.00,1.02
7360.00,1.02
7359.00,1.02
7358.00,1.01
7357.00,1.01
7356.00,1.01
7355.00,1.01
7354.00,1.01
7353.00,1.01
7352.00,1.01
7351.00,1.01
7350.00,1.01
7349.00,1.01
7348.00,1.01
7347.00,1.01
7346.00,1.01
7345.00,1.01
7344.00,1.01
7343.00,1.01
7342.00,1.01
7341.00,1.01
7340.00,1.01
7339.00,1.01
7338.00,1.01
7337.00,1.01
7336.00,1.01
7335.00,1.01
7334.00,1.01
7333.00,1.01
7332.00,1.01
7331.00,1.01
7330.00,1.01
7329.00,1.01
7328.00,1.01
7327.00,1.00
7326.00,1.00
7325.00,1.00
7324.00,1.00
7323.00,1.00
7322.00,1.00
7321.00,1.00
7320.00,1.00
7319.00,1.00
7318.00,1.01
7317.00,1.01
7316.00,1.01
7315.00,1.01
7314.00,1.01
7313.00,1.01
7312.00,1.01
7311.00,1.01
7310.00,1.01
7309.00,1.01
7308.00,1.01
7307.00,1.01
7306.00,1.01
7305.00,1.01
7304.00,1.01
7303.00,1.01
7302.00,1.00
7301.00,1.00
7300.00,1.00
7299.00,1.00
7298.00,1.00
7297.00,1.00
7296.00,1.00
7295.00,1.00
7294.00,1.00
7293.00,0.99
7292.00,0.99
7291.00,0.99
7290.00,0.99
7289.00,0.99
7288.00,0.99
7287.00,0.99
7286.00,0.99
7285.00,0.98
7284.00,0.98
7283.00,0.98
7282.00,0.98
7281.00,0.98
7280.00,0.98
7279.00,0.98
7278.00,0.98
7277.00,0.98
7276.00,0.98
7275.00,0.98
7274.00,0.98
7273.00,0.98
7272.00,0.98
7271.00,0.98
7270.00,0.98
7269.00,0.98
7268.00,0.98
7267.00,0.97
7266.00,0.97
7265.00,0.97
7264.00,0.97
7263.00,0.97
7262.00,0.97
7261.00,0.97
7260.00,0.97
7259.00,0.96
7258.00,0.96
7257.00,0.96
7256.00,0.96
7255.00,0.96
7254.00,0.96
7253.00,0.95
7252.00,0.95
7251.00,0.95
7250.00,0.95
7249.00,0.94
7248.00,0.94
7247.00,0.94
7246.00,0.94
7245.00,0.94
7244.00,0.93
7243.00,0.93
7242.00,0.93
7241.00,0.93
7240.00,0.93
7239.00,0.92
7238.00,0.92
7237.00,0.92
7236.00,0.92
7235.00,0.91
7234.00,0.91
7233.00,0.91
7232.00,0.91
7231.00,0.90
7230.00,0.90
7229.00,0.90
7228.00,0.90
7227.00,0.89
7226.00,0.89
7225.00,0.89
7224.00,0.89
7223.00,0.88
7222.00,0.88
7221.00,0.88
7220.00,0.88
7219.00,0.87
7218.00,0.87
7217.00,0.87
7216.00,0.87
7215.00,0.86
7214.00,0.86
7213.00,0.86
7212.00,0.86
7211.00,0.85
7210.00,0.85
7209.00,0.85
7208.00,0.84
7207.00,0.84
7206.00,0.84
7205.00,0.83
7204.00,0.83
7203.00,0.83
7202.00,0.82
7201.00,0.82
7200.00,0.82
7199.00,0.81
7198.00,0.81
7197.00,0.81
7196.00,0.80
7195.00,0.80
7194.00,0.80
7193.00,0.79
7192.00,0.79
7191.00,0.79
7190.00,0.79
7189.00,0.78
7188.00,0.78
7187.00,0.78
7186.00,0.78
7185.00,0.77
7184.00,0.77
7183.00,0.77
7182.00,0.77
7181.00,0.76
7180.00,0.76
7179.00,0.76
7178.00,0.76
7177.00,0.75
7176.00,0.75
7175.00,0.75
7174.00,0.75
7173.00,0.75
7172.00,0.74
7171.00,0.74
7170.00,0.74
7169.00,0.74
7168.00,0.73
7167.00,0.73
7166.00,0.73
7165.00,0.72
7164.00,0.72
7163.00,0.72
7162.00,0.71
7161.00,0.71
7160.00,0.71
7159.00,0.70
7158.00,0.70
7157.00,0.70
7156.00,0.70
7155.00,0.69
7154.00,0.69
7153.00,0.69
7152.00,0.68
7151.00,0.68
7150.00,0.68
7149.00,0.68
7148.00,0.67
7147.00,0.67
7146.00,0.67
7145.00,0.67
7144.00,0.67
7143.00,0.66
7142.00,0.66
7141.00,0.66
7140.00,0.66
7139.00,0.66
7138.00,0.65
7137.00,0.65
7136.00,0.65
7135.00,0.65
7134.00,0.65
7133.00,0.65
7132.00,0.65
7131.00,0.64
7130.00,0.64
7129.00,0.64
7128.00,0.64
7127.00,0.64
7126.00,0.64
7125.00,0.63
7124.00,0.63
7123.00,0.63
7122.00,0.63
7121.00,0.63
7120.00,0.62
7119.00,0.62
7118.00,0.62
7117.00,0.62
7116.00,0.61
7115.00,0.61
7114.00,0.61
7113.00,0.61
7112.00,0.60
7111.00,0.60
7110.00,0.60
7109.00,0.59
7108.00,0.59
7107.00,0.59
7106.00,0.59
7105.00,0.58
7104.00,0.58
7103.00,0.58
7102.00,0.58
7101.00,0.57
7100.00,0.57
7099.00,0.57
7098.00,0.57
7097.00,0.57
7096.00,0.57
7095.00,0.57
7094.00,0.57
7093.00,0.56
7092.00,0.56
7091.00,0.56
7090.00,0.56
7089.00,0.56
7088.00,0.56
7087.00,0.56
7086.00,0.56
7085.00,0.56
7084.00,0.56
7083.00,0.55
7082.00,0.55
7081.00,0.55
7080.00,0.55
7079.00,0.55
7078.00,0.55
7077.00,0.55
7076.00,0.54
7075.00,0.54
7074.00,0.54
7073.00,0.54
7072.00,0.54
7071.00,0.54
7070.00,0.54
7069.00,0.54
7068.00,0.54
7067.00,0.54
7066.00,0.54
7065.00,0.54
7064.00,0.54
7063.00,0.54
7062.00,0.54
7061.00,0.54
7060.00,0.54
7059.00,0.54
7058.00,0.54
7057.00,0.53
7056.00,0.53
7055.00,0.53
7054.00,0.53
7053.00,0.53
7052.00,0.53
7051.00,0.53
7050.00,0.53
7049.00,0.53
7048.00,0.53
7047.00,0.53
7046.00,0.53
7045.00,0.53
7044.00,0.53
7043.00,0.52
7042.00,0.52
7041.00,0.52
7040.00,0.52
7039.00,0.52
7038.00,0.52
7037.00,0.51
7036.00,0.51
7035.00,0.51
7034.00,0.51
7033.00,0.51
7032.00,0.51
7031.00,0.50
7030.00,0.50
7029.00,0.50
7028.00,0.50
7027.00,0.50
7026.00,0.50
7025.00,0.49
7024.00,0.49
7023.00,0.49
7022.00,0.49
7021.00,0.49
7020.00,0.49
7019.00,0.49
7018.00,0.49
7017.00,0.49
7016.00,0.49
7015.00,0.49
7014.00,0.49
7013.00,0.49
7012.00,0.49
7011.00,0.49
7010.00,0.49
7009.00,0.49
7008.00,0.49
7007.00,0.49
7006.00,0.49
7005.00,0.48
7004.00,0.48
7003.00,0.48
7002.00,0.48
7001.00,0.48
7000.00,0.48
6999.00,0.48
6998.00,0.48
6997.00,0.48
6996.00,0.48
6995.00,0.48
6994.00,0.48
6993.00,0.48
6992.00,0.48
6991.00,0.48
6990.00,0.48
6989.00,0.48
6988.00,0.48
6987.00,0.48
6986.00,0.48
6985.00,0.48
6984.00,0.48
6983.00,0.48
6982.00,0.48
6981.00,0.48
6980.00,0.48
6979.00,0.48
6978.00,0.48
6977.00,0.48
6976.00,0.48
6975.00,0.48
6974.00,0.48
6973.00,0.48
6972.00,0.48
6971.00,0.48
6970.00,0.48
6969.00,0.48
6968.00,0.48
6967.00,0.48
6966.00,0.48
6965.00,0.48
6964.00,0.48
6963.00,0.48
6962.00,0.48
6961.00,0.48
6960.00,0.48
6959.00,0.47
6958.00,0.47
6957.00,0.47
6956.00,0.47
6955.00,0.47
6954.00,0.47
6953.00,0.47
6952.00,0.47
6951.00,0.47
6950.00,0.47
6949.00,0.47
6948.00,0.47
6947.00,0.47
6946.00,0.47
6945.00,0.47
6944.00,0.47
6943.00,0.47
6942.00,0.47
6941.00,0.47
6940.00,0.47
6939.00,0.47
6938.00,0.47
6937.00,0.47
6936.00,0.47
6935.00,0.47
6934.00,0.47
6933.00,0.47
6932.00,0.47
6931.00,0.46
6930.00,0.46
6929.00,0.46
6928.00,0.46
6927.00,0.46
6926.00,0.46
6925.00,0.46
6924.00,0.46
6923.00,0.46
6922.00,0.46
6921.00,0.46
6920.00,0.46
6919.00,0.46
6918.00,0.46
6917.00,0.46
6916.00,0.46
6915.00,0.46
6914.00,0.46
6913.00,0.46
6912.00,0.46
6911.00,0.46
6910.00,0.46
6909.00,0.46
6908.00,0.46
6907.00,0.46
6906.00,0.46
6905.00,0.46
6904.00,0.46
6903.00,0.46
6902.00,0.46
6901.00,0.46
6900.00,0.46
6899.00,0.46
6898.00,0.46
6897.00,0.46
6896.00,0.46
6895.00,0.46
6894.00,0.46
6893.00,0.46
6892.00,0.46
6891.00,0.46
6890.00,0.46
6889.00,0.46
6888.00,0.46
6887.00,0.46
6886.00,0.46
6885.00,0.46
6884.00,0.46
6883.00,0.46
6882.00,0.46
6881.00,0.46
6880.00,0.46
6879.00,0.46
6878.00,0.46
6877.00,0.46
6876.00,0.46
6875.00,0.46
6874.00,0.46
6873.00,0.46
6872.00,0.46
6871.00,0.46
6870.00,0.46
6869.00,0.46
6868.00,0.46
6867.00,0.46
6866.00,0.46
6865.00,0.46
6864.00,0.46
6863.00,0.46
6862.00,0.46
6861.00,0.46
6860.00,0.46
6859.00,0.46
6858.00,0.46
6857.00,0.46
6856.00,0.46
6855.00,0.46
6854.00,0.46
6853.00,0.46
6852.00,0.46
6851.00,0.46
6850.00,0.46
6849.00,0.46
6848.00,0.46
6847.00,0.46
6846.00,0.46
6845.00,0.46
6844.00,0.46
6843.00,0.46
6842.00,0.46
6841.00,0.46
6840.00,0.46
6839.00,0.46
6838.00,0.46
6837.00,0.46
6836.00,0.46
6835.00,0.46
6834.00,0.46
6833.00,0.47
6832.00,0.47
6831.00,0.47
6830.00,0.47
6829.00,0.47
6828.00,0.47
6827.00,0.47
6826.00,0.47
6825.00,0.47
6824.00,0.47
6823.00,0.47
6822.00,0.47
6821.00,0.47
6820.00,0.47
6819.00,0.47
6818.00,0.48
6817.00,0.48
6816.00,0.48
6815.00,0.48
6814.00,0.48
6813.00,0.48
6812.00,0.48
6811.00,0.48
6810.00,0.48
6809.00,0.48
6808.00,0.48
6807.00,0.48
6806.00,0.48
6805.00,0.48
6804.00,0.48
6803.00,0.48
6802.00,0.48
6801.00,0.48
6800.00,0.48
6799.00,0.48
6798.00,0.48
6797.00,0.48
6796.00,0.48
6795.00,0.48
6794.00,0.48
6793.00,0.48
6792.00,0.48
6791.00,0.48
6790.00,0.48
6789.00,0.48
6788.00,0.48
6787.00,0.48
6786.00,0.48
6785.00,0.48
6784.00,0.48
6783.00,0.49
6782.00,0.49
6781.00,0.49
6780.00,0.49
6779.00,0.49
6778.00,0.49
6777.00,0.49
6776.00,0.49
6775.00,0.49
6774.00,0.49
6773.00,0.49
6772.00,0.49
6771.00,0.49
6770.00,0.49
6769.00,0.49
6768.00,0.49
6767.00,0.49
6766.00,0.49
6765.00,0.49
6764.00,0.49
6763.00,0.49
6762.00,0.49
6761.00,0.49
6760.00,0.49
6759.00,0.49
6758.00,0.49
6757.00,0.49
6756.00,0.49
6755.00,0.49
6754.00,0.49
6753.00,0.49
6752.00,0.49
6751.00,0.50
6750.00,0.50
6749.00,0.50
6748.00,0.50
6747.00,0.50
6746.00,0.50
6745.00,0.50
6744.00,0.50
6743.00,0.50
6742.00,0.50
6741.00,0.50
6740.00,0.50
6739.00,0.50
6738.00,0.50
6737.00,0.50
6736.00,0.50
6735.00,0.50
6734.00,0.51
6733.00,0.51
6732.00,0.51
6731.00,0.51
6730.00,0.51
6729.00,0.51
6728.00,0.51
6727.00,0.51
6726.00,0.52
6725.00,0.52
6724.00,0.52
6723.00,0.52
6722.00,0.52
6721.00,0.52
6720.00,0.52
6719.00,0.52
6718.00,0.52
6717.00,0.52
6716.00,0.52
6715.00,0.52
6714.00,0.52
6713.00,0.52
6712.00,0.53
6711.00,0.53
6710.00,0.53
6709.00,0.53
6708.00,0.53
6707.00,0.53
6706.00,0.53
6705.00,0.53
6704.00,0.53
6703.00,0.53
6702.00,0.53
6701.00,0.53
6700.00,0.53
6699.00,0.53
6698.00,0.53
6697.00,0.53
6696.00,0.54
6695.00,0.54
6694.00,0.54
6693.00,0.54
6692.00,0.54
6691.00,0.54
6690.00,0.54
6689.00,0.54
6688.00,0.54
6687.00,0.54
6686.00,0.54
6685.00,0.54
6684.00,0.54
6683.00,0.54
6682.00,0.54
6681.00,0.54
6680.00,0.55
6679.00,0.55
6678.00,0.55
6677.00,0.55
6676.00,0.55
6675.00,0.55
6674.00,0.55
6673.00,0.55
6672.00,0.55
6671.00,0.55
6670.00,0.55
6669.00,0.55
6668.00,0.55
6667.00,0.55
6666.00,0.55
6665.00,0.55
6664.00,0.56
6663.00,0.56
6662.00,0.56
6661.00,0.56
6660.00,0.56
6659.00,0.56
6658.00,0.56
6657.00,0.56
6656.00,0.56
6655.00,0.56
6654.00,0.57
6653.00,0.57
6652.00,0.57
6651.00,0.57
6650.00,0.57
6649.00,0.57
6648.00,0.57
6647.00,0.57
6646.00,0.57
6645.00,0.58
6644.00,0.58
6643.00,0.58
6642.00,0.58
6641.00,0.58
6640.00,0.58
6639.00,0.58
6638.00,0.58
6637.00,0.58
6636.00,0.58
6635.00,0.58
6634.00,0.58
6633.00,0.58
6632.00,0.58
6631.00,0.58
6630.00,0.58
6629.00,0.59
6628.00,0.59
6627.00,0.59
6626.00,0.59
6625.00,0.59
6624.00,0.59
6623.00,0.59
6622.00,0.59
6621.00,0.59
6620.00,0.59
6619.00,0.60
6618.00,0.60
6617.00,0.60
6616.00,0.60
6615.00,0.60
6614.00,0.60
6613.00,0.60
6612.00,0.60
6611.00,0.60
6610.00,0.60
6609.00,0.60
6608.00,0.60
6607.00,0.60
6606.00,0.60
6605.00,0.61
6604.00,0.61
6603.00,0.61
6602.00,0.61
6601.00,0.61
6600.00,0.61
6599.00,0.61
6598.00,0.61
6597.00,0.61
6596.00,0.62
6595.00,0.62
6594.00,0.62
6593.00,0.62
6592.00,0.62
6591.00,0.62
6590.00,0.62
6589.00,0.62
6588.00,0.62
6587.00,0.62
6586.00,0.63
6585.00,0.63
6584.00,0.63
6583.00,0.63
6582.00,0.63
6581.00,0.63
6580.00,0.63
6579.00,0.63
6578.00,0.63
6577.00,0.63
6576.00,0.63
6575.00,0.64
6574.00,0.64
6573.00,0.64
6572.00,0.64
6571.00,0.64
6570.00,0.64
6569.00,0.64
6568.00,0.64
6567.00,0.64
6566.00,0.64
6565.00,0.64
6564.00,0.64
6563.00,0.64
6562.00,0.64
6561.00,0.64
6560.00,0.64
6559.00,0.64
6558.00,0.64
6557.00,0.65
6556.00,0.65
6555.00,0.65
6554.00,0.65
6553.00,0.65
6552.00,0.65
6551.00,0.65
6550.00,0.65
6549.00,0.66
6548.00,0.66
6547.00,0.66
6546.00,0.66
6545.00,0.66
6544.00,0.66
6543.00,0.66
6542.00,0.66
6541.00,0.66
6540.00,0.66
6539.00,0.66
6538.00,0.66
6537.00,0.66
6536.00,0.67
6535.00,0.67
6534.00,0.67
6533.00,0.67
6532.00,0.67
6531.00,0.67
6530.00,0.67
6529.00,0.67
6528.00,0.67
6527.00,0.67
6526.00,0.67
6525.00,0.67
6524.00,0.67
6523.00,0.67
6522.00,0.67
6521.00,0.67
6520.00,0.67
6519.00,0.68
6518.00,0.68
6517.00,0.68
6516.00,0.68
6515.00,0.68
6514.00,0.68
6513.00,0.68
6512.00,0.68
6511.00,0.68
6510.00,0.68
6509.00,0.69
6508.00,0.69
6507.00,0.69
6506.00,0.69
6505.00,0.69
6504.00,0.69
6503.00,0.69
6502.00,0.69
6501.00,0.69
6500.00,0.69
6499.00,0.69
6498.00,0.69
6497.00,0.70
6496.00,0.70
6495.00,0.70
6494.00,0.70
6493.00,0.70
6492.00,0.70
6491.00,0.70
6490.00,0.70
6489.00,0.70
6488.00,0.70
6487.00,0.70
6486.00,0.70
6485.00,0.70
6484.00,0.70
6483.00,0.70
6482.00,0.70
6481.00,0.70
6480.00,0.71
6479.00,0.71
6478.00,0.71
6477.00,0.71
6476.00,0.71
6475.00,0.71
6474.00,0.71
6473.00,0.71
6472.00,0.71
6471.00,0.71
6470.00,0.71
6469.00,0.71
6468.00,0.71
6467.00,0.71
6466.00,0.71
6465.00,0.71
6464.00,0.71
6463.00,0.71
6462.00,0.71
6461.00,0.71
6460.00,0.72
6459.00,0.72
6458.00,0.72
6457.00,0.72
6456.00,0.72
6455.00,0.72
6454.00,0.72
6453.00,0.72
6452.00,0.72
6451.00,0.72
6450.00,0.72
6449.00,0.73
6448.00,0.73
6447.00,0.73
6446.00,0.73
6445.00,0.73
6444.00,0.73
6443.00,0.73
6442.00,0.73
6441.00,0.73
6440.00,0.73
6439.00,0.73
6438.00,0.73
6437.00,0.73
6436.00,0.74
6435.00,0.74
6434.00,0.74
6433.00,0.74
6432.00,0.74
6431.00,0.74
6430.00,0.74
6429.00,0.74
6428.00,0.74
6427.00,0.74
6426.00,0.74
6425.00,0.74
6424.00,0.74
6423.00,0.74
6422.00,0.75
6421.00,0.75
6420.00,0.75
6419.00,0.75
6418.00,0.75
6417.00,0.75
6416.00,0.75
6415.00,0.75
6414.00,0.75
6413.00,0.76
6412.00,0.76
6411.00,0.76
6410.00,0.76
6409.00,0.76
6408.00,0.76
6407.00,0.76
6406.00,0.76
6405.00,0.76
6404.00,0.76
6403.00,0.76
6402.00,0.76
6401.00,0.76
6400.00,0.76
6399.00,0.76
6398.00,0.76
6397.00,0.76
6396.00,0.76
6395.00,0.76
6394.00,0.76
6393.00,0.76
6392.00,0.76
6391.00,0.76
6390.00,0.76
6389.00,0.77
6388.00,0.77
6387.00,0.77
6386.00,0.77
6385.00,0.77
6384.00,0.77
6383.00,0.77
6382.00,0.77
6381.00,0.77
6380.00,0.77
6379.00,0.77
6378.00,0.77
6377.00,0.77
6376.00,0.77
6375.00,0.77
6374.00,0.77
6373.00,0.77
6372.00,0.78
6371.00,0.78
6370.00,0.78
6369.00,0.78
6368.00,0.78
6367.00,0.78
6366.00,0.78
6365.00,0.78
6364.00,0.78
6363.00,0.79
6362.00,0.79
6361.00,0.79
6360.00,0.79
6359.00,0.79
6358.00,0.79
6357.00,0.79
6356.00,0.79
6355.00,0.79
6354.00,0.79
6353.00,0.79
6352.00,0.79
6351.00,0.79
6350.00,0.79
6349.00,0.80
6348.00,0.80
6347.00,0.80
6346.00,0.80
6345.00,0.80
6344.00,0.80
6343.00,0.80
6342.00,0.80
6341.00,0.80
6340.00,0.80
6339.00,0.80
6338.00,0.80
6337.00,0.80
6336.00,0.80
6335.00,0.80
6334.00,0.80
6333.00,0.81
6332.00,0.81
6331.00,0.81
6330.00,0.81
6329.00,0.81
6328.00,0.81
6327.00,0.81
6326.00,0.81
6325.00,0.81
6324.00,0.81
6323.00,0.81
6322.00,0.81
6321.00,0.81
6320.00,0.82
6319.00,0.82
6318.00,0.82
6317.00,0.82
6316.00,0.82
6315.00,0.82
6314.00,0.82
6313.00,0.82
6312.00,0.82
6311.00,0.82
6310.00,0.83
6309.00,0.83
6308.00,0.83
6307.00,0.83
6306.00,0.83
6305.00,0.83
6304.00,0.83
6303.00,0.83
6302.00,0.83
6301.00,0.83
6300.00,0.83
6299.00,0.83
6298.00,0.83
6297.00,0.84
6296.00,0.84
6295.00,0.84
6294.00,0.84
6293.00,0.84
6292.00,0.84
6291.00,0.84
6290.00,0.84
6289.00,0.84
6288.00,0.84
6287.00,0.84
6286.00,0.85
6285.00,0.85
6284.00,0.85
6283.00,0.85
6282.00,0.85
6281.00,0.85
6280.00,0.85
6279.00,0.85
6278.00,0.85
6277.00,0.85
6276.00,0.86
6275.00,0.86
6274.00,0.86
6273.00,0.86
6272.00,0.86
6271.00,0.86
6270.00,0.86
6269.00,0.86
6268.00,0.86
6267.00,0.86
6266.00,0.86
6265.00,0.86
6264.00,0.87
6263.00,0.87
6262.00,0.87
6261.00,0.87
6260.00,0.87
6259.00,0.87
6258.00,0.87
6257.00,0.87
6256.00,0.87
6255.00,0.87
6254.00,0.88
6253.00,0.88
6252.00,0.88
6251.00,0.88
6250.00,0.88
6249.00,0.88
6248.00,0.88
6247.00,0.88
6246.00,0.88
6245.00,0.88
6244.00,0.89
6243.00,0.89
6242.00,0.89
6241.00,0.89
6240.00,0.89
6239.00,0.89
6238.00,0.89
6237.00,0.89
6236.00,0.89
6235.00,0.89
6234.00,0.89
6233.00,0.89
6232.00,0.89
6231.00,0.89
6230.00,0.90
6229.00,0.90
6228.00,0.90
6227.00,0.90
6226.00,0.90
6225.00,0.90
6224.00,0.90
6223.00,0.90
6222.00,0.90
6221.00,0.91
6220.00,0.91
6219.00,0.91
6218.00,0.91
6217.00,0.91
6216.00,0.91
6215.00,0.91
6214.00,0.91
6213.00,0.92
6212.00,0.92
6211.00,0.92
6210.00,0.92
6209.00,0.92
6208.00,0.92
6207.00,0.92
6206.00,0.92
6205.00,0.92
6204.00,0.92
6203.00,0.93
6202.00,0.93
6201.00,0.93
6200.00,0.93
6199.00,0.93
6198.00,0.93
6197.00,0.93
6196.00,0.93
6195.00,0.93
6194.00,0.93
6193.00,0.93
6192.00,0.93
6191.00,0.94
6190.00,0.94
6189.00,0.94
6188.00,0.94
6187.00,0.94
6186.00,0.94
6185.00,0.94
6184.00,0.94
6183.00,0.94
6182.00,0.94
6181.00,0.94
6180.00,0.95
6179.00,0.95
6178.00,0.95
6177.00,0.95
6176.00,0.95
6175.00,0.95
6174.00,0.95
6173.00,0.95
6172.00,0.95
6171.00,0.96
6170.00,0.96
6169.00,0.96
6168.00,0.96
6167.00,0.96
6166.00,0.96
6165.00,0.96
6164.00,0.96
6163.00,0.96
6162.00,0.96
6161.00,0.97
6160.00,0.97
6159.00,0.97
6158.00,0.97
6157.00,0.97
6156.00,0.97
6155.00,0.97
6154.00,0.97
6153.00,0.97
6152.00,0.98
6151.00,0.98
6150.00,0.98
6149.00,0.98
6148.00,0.98
6147.00,0.98
6146.00,0.98
6145.00,0.98
6144.00,0.98
6143.00,0.98
6142.00,0.98
6141.00,0.98
6140.00,0.98
6139.00,0.99
6138.00,0.99
6137.00,0.99
6136.00,0.99
6135.00,0.99
6134.00,0.99
6133.00,0.99
6132.00,0.99
6131.00,0.99
6130.00,0.99
6129.00,0.99
6128.00,0.99
6127.00,1.00
6126.00,1.00
6125.00,1.00
6124.00,1.00
6123.00,1.00
6122.00,1.00
6121.00,1.00
6120.00,1.00
6119.00,1.00
6118.00,1.01
6117.00,1.01
6116.00,1.01
6115.00,1.01
6114.00,1.01
6113.00,1.01
6112.00,1.01
6111.00,1.01
6110.00,1.02
6109.00,1.02
6108.00,1.02
6107.00,1.02
6106.00,1.02
6105.00,1.02
6104.00,1.02
6103.00,1.02
6102.00,1.02
6101.00,1.03
6100.00,1.03
6099.00,1.03
6098.00,1.03
6097.00,1.03
6096.00,1.03
6095.00,1.03
6094.00,1.03
6093.00,1.03
6092.00,1.04
6091.00,1.04
6090.00,1.04
6089.00,1.04
6088.00,1.04
6087.00,1.04
6086.00,1.04
6085.00,1.04
6084.00,1.04
6083.00,1.05
6082.00,1.05
6081.00,1.05
6080.00,1.05
6079.00,1.05
6078.00,1.05
6077.00,1.05
6076.00,1.05
6075.00,1.05
6074.00,1.05
6073.00,1.05
6072.00,1.05
6071.00,1.05
6070.00,1.05
6069.00,1.05
6068.00,1.05
6067.00,1.05
6066.00,1.05
6065.00,1.05
6064.00,1.05
6063.00,1.05
6062.00,1.06
6061.00,1.06
6060.00,1.06
6059.00,1.06
6058.00,1.06
6057.00,1.06
6056.00,1.06
6055.00,1.06
6054.00,1.06
6053.00,1.06
6052.00,1.07
6051.00,1.07
6050.00,1.07
6049.00,1.07
6048.00,1.07
6047.00,1.07
6046.00,1.07
6045.00,1.07
6044.00,1.07
6043.00,1.07
6042.00,1.07
6041.00,1.07
6040.00,1.07
6039.00,1.07
6038.00,1.07
6037.00,1.07
6036.00,1.07
6035.00,1.07
6034.00,1.07
6033.00,1.07
6032.00,1.07
6031.00,1.07
6030.00,1.07
6029.00,1.08
6028.00,1.08
6027.00,1.08
6026.00,1.08
6025.00,1.08
6024.00,1.08
6023.00,1.08
6022.00,1.08
6021.00,1.08
6020.00,1.08
6019.00,1.08
6018.00,1.08
6017.00,1.08
6016.00,1.08
6015.00,1.08
6014.00,1.08
6013.00,1.08
6012.00,1.08
6011.00,1.08
6010.00,1.08
6009.00,1.08
6008.00,1.08
6007.00,1.08
6006.00,1.08
6005.00,1.08
6004.00,1.08
6003.00,1.08
6002.00,1.08
6001.00,1.08
6000.00,1.08
5999.00,1.08
5998.00,1.08
5997.00,1.08
5996.00,1.07
5995.00,1.07
5994.00,1.07
5993.00,1.07
5992.00,1.07
5991.00,1.07
5990.00,1.07
5989.00,1.07
5988.00,1.07
5987.00,1.07
5986.00,1.06
5985.00,1.06
5984.00,1.06
5983.00,1.06
5982.00,1.06
5981.00,1.06
5980.00,1.05
5979.00,1.05
5978.00,1.05
5977.00,1.05
5976.00,1.04
5975.00,1.04
5974.00,1.04
5973.00,1.03
5972.00,1.03
5971.00,1.03
5970.00,1.02
5969.00,1.02
5968.00,1.02
5967.00,1.01
5966.00,1.01
5965.00,1.00
5964.00,1.00
5963.00,1.00
5962.00,0.99
5961.00,0.99
5960.00,0.99
5959.00,0.98
5958.00,0.98
5957.00,0.97
5956.00,0.97
5955.00,0.97
5954.00,0.97
5953.00,0.96
5952.00,0.96
5951.00,0.96
5950.00,0.96
5949.00,0.95
5948.00,0.95
5947.00,0.95
5946.00,0.95
5945.00,0.95
5944.00,0.95
5943.00,0.94
5942.00,0.94
5941.00,0.94
5940.00,0.94
5939.00,0.94
5938.00,0.94
5937.00,0.94
5936.00,0.94
5935.00,0.93
5934.00,0.93
5933.00,0.93
5932.00,0.93
5931.00,0.93
5930.00,0.93
5929.00,0.93
5928.00,0.93
5927.00,0.93
5926.00,0.92
5925.00,0.92
5924.00,0.92
5923.00,0.92
5922.00,0.92
5921.00,0.92
5920.00,0.91
5919.00,0.91
5918.00,0.91
5917.00,0.91
5916.00,0.91
5915.00,0.91
5914.00,0.91
5913.00,0.90
5912.00,0.90
5911.00,0.90
5910.00,0.90
5909.00,0.90
5908.00,0.90
5907.00,0.90
5906.00,0.90
5905.00,0.90
5904.00,0.90
5903.00,0.90
5902.00,0.90
5901.00,0.90
5900.00,0.90
5899.00,0.90
5898.00,0.90
5897.00,0.90
5896.00,0.90
5895.00,0.90
5894.00,0.91
5893.00,0.91
5892.00,0.91
5891.00,0.91
5890.00,0.91
5889.00,0.91
5888.00,0.92
5887.00,0.92
5886.00,0.92
5885.00,0.92
5884.00,0.92
5883.00,0.93
5882.00,0.93
5881.00,0.93
5880.00,0.93
5879.00,0.93
5878.00,0.94
5877.00,0.94
5876.00,0.94
5875.00,0.94
5874.00,0.94
5873.00,0.94
5872.00,0.95
5871.00,0.95
5870.00,0.95
5869.00,0.95
5868.00,0.95
5867.00,0.95
5866.00,0.96
5865.00,0.96
5864.00,0.96
5863.00,0.96
5862.00,0.96
5861.00,0.96
5860.00,0.96
5859.00,0.96
5858.00,0.96
5857.00,0.97
5856.00,0.97
5855.00,0.97
5854.00,0.97
5853.00,0.97
5852.00,0.97
5851.00,0.97
5850.00,0.97
5849.00,0.97
5848.00,0.97
5847.00,0.97
5846.00,0.97
5845.00,0.97
5844.00,0.97
5843.00,0.97
5842.00,0.97
5841.00,0.97
5840.00,0.97
5839.00,0.97
5838.00,0.97
5837.00,0.97
5836.00,0.97
5835.00,0.97
5834.00,0.97
5833.00,0.97
5832.00,0.97
5831.00,0.97
5830.00,0.97
5829.00,0.97
5828.00,0.97
5827.00,0.97
5826.00,0.97
5825.00,0.97
5824.00,0.97
5823.00,0.97
5822.00,0.97
5821.00,0.97
5820.00,0.97
5819.00,0.97
5818.00,0.97
5817.00,0.97
5816.00,0.97
5815.00,0.97
5814.00,0.97
5813.00,0.97
5812.00,0.97
5811.00,0.97
5810.00,0.97
5809.00,0.97
5808.00,0.97
5807.00,0.97
5806.00,0.97
5805.00,0.97
5804.00,0.97
5803.00,0.96
5802.00,0.96
5801.00,0.96
5800.00,0.96
5799.00,0.96
5798.00,0.96
5797.00,0.96
5796.00,0.96
5795.00,0.95
5794.00,0.95
5793.00,0.95
5792.00,0.95
5791.00,0.95
5790.00,0.95
5789.00,0.95
5788.00,0.94
5787.00,0.94
5786.00,0.94
5785.00,0.94
5784.00,0.94
5783.00,0.94
5782.00,0.94
5781.00,0.94
5780.00,0.94
5779.00,0.93
5778.00,0.93
5777.00,0.93
5776.00,0.93
5775.00,0.93
5774.00,0.93
5773.00,0.93
5772.00,0.93
5771.00,0.93
5770.00,0.93
5769.00,0.93
5768.00,0.93
5767.00,0.94
5766.00,0.94
5765.00,0.94
5764.00,0.94
5763.00,0.94
5762.00,0.94
5761.00,0.94
5760.00,0.94
5759.00,0.94
5758.00,0.95
5757.00,0.95
5756.00,0.95
5755.00,0.95
5754.00,0.95
5753.00,0.96
5752.00,0.96
5751.00,0.96
5750.00,0.96
5749.00,0.96
5748.00,0.97
5747.00,0.97
5746.00,0.97
5745.00,0.97
5744.00,0.97
5743.00,0.98
5742.00,0.98
5741.00,0.98
5740.00,0.98
5739.00,0.98
5738.00,0.98
5737.00,0.98
5736.00,0.98
5735.00,0.98
5734.00,0.98
5733.00,0.98
5732.00,0.98
5731.00,0.98
5730.00,0.98
5729.00,0.98
5728.00,0.98
5727.00,0.98
5726.00,0.98
5725.00,0.98
5724.00,0.98
5723.00,0.98
5722.00,0.98
5721.00,0.98
5720.00,0.98
5719.00,0.98
5718.00,0.98
5717.00,0.98
5716.00,0.98
5715.00,0.98
5714.00,0.98
5713.00,0.98
5712.00,0.98
5711.00,0.98
5710.00,0.98
5709.00,0.98
5708.00,0.98
5707.00,0.98
5706.00,0.98
5705.00,0.98
5704.00,0.97
5703.00,0.97
5702.00,0.97
5701.00,0.97
5700.00,0.97
5699.00,0.97
5698.00,0.97
5697.00,0.97
5696.00,0.97
5695.00,0.96
5694.00,0.96
5693.00,0.96
5692.00,0.96
5691.00,0.96
5690.00,0.96
5689.00,0.96
5688.00,0.96
5687.00,0.96
5686.00,0.96
5685.00,0.96
5684.00,0.95
5683.00,0.95
5682.00,0.95
5681.00,0.95
5680.00,0.95
5679.00,0.95
5678.00,0.95
5677.00,0.95
5676.00,0.95
5675.00,0.95
5674.00,0.95
5673.00,0.95
5672.00,0.95
5671.00,0.95
5670.00,0.95
5669.00,0.95
5668.00,0.95
5667.00,0.95
5666.00,0.95
5665.00,0.95
5664.00,0.95
5663.00,0.95
5662.00,0.95
5661.00,0.95
5660.00,0.96
5659.00,0.96
5658.00,0.96
5657.00,0.96
5656.00,0.96
5655.00,0.96
5654.00,0.96
5653.00,0.96
5652.00,0.96
5651.00,0.96
5650.00,0.96
5649.00,0.96
5648.00,0.97
5647.00,0.97
5646.00,0.97
5645.00,0.97
5644.00,0.97
5643.00,0.97
5642.00,0.97
5641.00,0.97
5640.00,0.97
5639.00,0.97
5638.00,0.97
5637.00,0.97
5636.00,0.97
5635.00,0.97
5634.00,0.97
5633.00,0.97
5632.00,0.97
5631.00,0.98
5630.00,0.98
5629.00,0.98
5628.00,0.98
5627.00,0.98
5626.00,0.98
5625.00,0.98
5624.00,0.98
5623.00,0.98
5622.00,0.98
5621.00,0.98
5620.00,0.98
5619.00,0.99
5618.00,0.99
5617.00,0.99
5616.00,0.99
5615.00,0.99
5614.00,0.99
5613.00,0.99
5612.00,0.99
5611.00,0.99
5610.00,1.00
5609.00,1.00
5608.00,1.00
5607.00,1.00
5606.00,1.00
5605.00,1.00
5604.00,1.00
5603.00,1.00
5602.00,1.00
5601.00,1.00
5600.00,1.00
5599.00,1.01
5598.00,1.01
5597.00,1.01
5596.00,1.01
5595.00,1.01
5594.00,1.01
5593.00,1.01
5592.00,1.01
5591.00,1.01
5590.00,1.01
5589.00,1.02
5588.00,1.02
5587.00,1.02
5586.00,1.02
5585.00,1.02
5584.00,1.02
5583.00,1.02
5582.00,1.02
5581.00,1.02
5580.00,1.02
5579.00,1.02
5578.00,1.02
5577.00,1.02
5576.00,1.03
5575.00,1.03
5574.00,1.03
5573.00,1.03
5572.00,1.03
5571.00,1.03
5570.00,1.03
5569.00,1.03
5568.00,1.03
5567.00,1.03
5566.00,1.03
5565.00,1.03
5564.00,1.03
5563.00,1.04
5562.00,1.04
5561.00,1.04
5560.00,1.04
5559.00,1.04
5558.00,1.04
5557.00,1.04
5556.00,1.04
5555.00,1.04
5554.00,1.04
5553.00,1.04
5552.00,1.04
5551.00,1.05
5550.00,1.05
5549.00,1.05
5548.00,1.05
5547.00,1.05
5546.00,1.05
5545.00,1.05
5544.00,1.05
5543.00,1.05
5542.00,1.05
5541.00,1.06
5540.00,1.06
5539.00,1.06
5538.00,1.06
5537.00,1.06
5536.00,1.06
5535.00,1.06
5534.00,1.06
5533.00,1.06
5532.00,1.06
5531.00,1.06
5530.00,1.06
5529.00,1.06
5528.00,1.06
5527.00,1.06
5526.00,1.06
5525.00,1.07
5524.00,1.07
5523.00,1.07
5522.00,1.07
5521.00,1.07
5520.00,1.07
5519.00,1.07
5518.00,1.07
5517.00,1.07
5516.00,1.07
5515.00,1.07
5514.00,1.07
5513.00,1.07
5512.00,1.07
5511.00,1.07
5510.00,1.07
5509.00,1.07
5508.00,1.07
5507.00,1.07
5506.00,1.07
5505.00,1.07
5504.00,1.07
5503.00,1.07
5502.00,1.07
5501.00,1.07
5500.00,1.07
5499.00,1.08
5498.00,1.08
5497.00,1.08
5496.00,1.08
5495.00,1.08
5494.00,1.08
5493.00,1.08
5492.00,1.08
5491.00,1.08
5490.00,1.08
5489.00,1.08
5488.00,1.08
5487.00,1.08
5486.00,1.08
5485.00,1.08
5484.00,1.08
5483.00,1.09
5482.00,1.09
5481.00,1.09
5480.00,1.09
5479.00,1.09
5478.00,1.09
5477.00,1.09
5476.00,1.09
5475.00,1.09
5474.00,1.09
5473.00,1.09
5472.00,1.09
5471.00,1.09
5470.00,1.09
5469.00,1.09
5468.00,1.09
5467.00,1.09
5466.00,1.09
5465.00,1.09
5464.00,1.09
5463.00,1.10
5462.00,1.10
5461.00,1.10
5460.00,1.10
5459.00,1.10
5458.00,1.10
5457.00,1.10
5456.00,1.10
5455.00,1.10
5454.00,1.10
5453.00,1.10
5452.00,1.10
5451.00,1.10
5450.00,1.10
5449.00,1.10
5448.00,1.10
5447.00,1.10
5446.00,1.10
5445.00,1.10
5444.00,1.10
5443.00,1.10
5442.00,1.10
5441.00,1.10
5440.00,1.10
5439.00,1.10
5438.00,1.10
5437.00,1.10
5436.00,1.10
5435.00,1.10
5434.00,1.10
5433.00,1.10
5432.00,1.10
5431.00,1.10
5430.00,1.10
5429.00,1.10
5428.00,1.10
5427.00,1.10
5426.00,1.10
5425.00,1.10
5424.00,1.10
5423.00,1.10
5422.00,1.10
5421.00,1.10
5420.00,1.10
5419.00,1.10
5418.00,1.10
5417.00,1.10
5416.00,1.10
5415.00,1.09
5414.00,1.09
5413.00,1.09
5412.00,1.09
5411.00,1.09
5410.00,1.09
5409.00,1.09
5408.00,1.09
5407.00,1.09
5406.00,1.09
5405.00,1.09
5404.00,1.08
5403.00,1.08
5402.00,1.08
5401.00,1.08
5400.00,1.08
5399.00,1.08
5398.00,1.08
5397.00,1.08
5396.00,1.08
5395.00,1.08
5394.00,1.07
5393.00,1.07
5392.00,1.07
5391.00,1.07
5390.00,1.07
5389.00,1.07
5388.00,1.06
5387.00,1.06
5386.00,1.06
5385.00,1.06
5384.00,1.05
5383.00,1.05
5382.00,1.05
5381.00,1.04
5380.00,1.04
5379.00,1.04
5378.00,1.03
5377.00,1.03
5376.00,1.03
5375.00,1.02
5374.00,1.02
5373.00,1.02
5372.00,1.01
5371.00,1.01
5370.00,1.01
5369.00,1.00
5368.00,1.00
5367.00,0.99
5366.00,0.99
5365.00,0.99
5364.00,0.98
5363.00,0.98
5362.00,0.97
5361.00,0.97
5360.00,0.96
5359.00,0.95
5358.00,0.95
5357.00,0.94
5356.00,0.94
5355.00,0.93
5354.00,0.92
5353.00,0.92
5352.00,0.91
5351.00,0.91
5350.00,0.90
5349.00,0.89
5348.00,0.88
5347.00,0.88
5346.00,0.87
5345.00,0.86
5344.00,0.86
5343.00,0.85
5342.00,0.84
5341.00,0.83
5340.00,0.83
5339.00,0.82
5338.00,0.81
5337.00,0.80
5336.00,0.80
5335.00,0.79
5334.00,0.78
5333.00,0.77
5332.00,0.76
5331.00,0.76
5330.00,0.75
5329.00,0.74
5328.00,0.73
5327.00,0.73
5326.00,0.72
5325.00,0.71
5324.00,0.71
5323.00,0.70
5322.00,0.69
5321.00,0.69
5320.00,0.68
5319.00,0.67
5318.00,0.67
5317.00,0.66
5316.00,0.66
5315.00,0.65
5314.00,0.64
5313.00,0.64
5312.00,0.63
5311.00,0.63
5310.00,0.62
5309.00,0.62
5308.00,0.61
5307.00,0.61
5306.00,0.60
5305.00,0.60
5304.00,0.59
5303.00,0.59
5302.00,0.58
5301.00,0.58
5300.00,0.58
5299.00,0.57
5298.00,0.57
5297.00,0.57
5296.00,0.56
5295.00,0.56
5294.00,0.56
5293.00,0.56
5292.00,0.55
5291.00,0.55
5290.00,0.55
5289.00,0.55
5288.00,0.55
5287.00,0.55
5286.00,0.55
5285.00,0.55
5284.00,0.54
5283.00,0.54
5282.00,0.54
5281.00,0.54
5280.00,0.54
5279.00,0.54
5278.00,0.54
5277.00,0.54
5276.00,0.54
5275.00,0.54
5274.00,0.54
5273.00,0.54
5272.00,0.54
5271.00,0.54
5270.00,0.54
5269.00,0.54
5268.00,0.54
5267.00,0.54
5266.00,0.54
5265.00,0.54
5264.00,0.54
5263.00,0.54
5262.00,0.54
5261.00,0.54
5260.00,0.54
5259.00,0.54
5258.00,0.54
5257.00,0.54
5256.00,0.54
5255.00,0.54
5254.00,0.54
5253.00,0.54
5252.00,0.54
5251.00,0.54
5250.00,0.54
5249.00,0.54
5248.00,0.53
5247.00,0.53
5246.00,0.53
5245.00,0.53
5244.00,0.53
5243.00,0.53
5242.00,0.53
5241.00,0.53
5240.00,0.53
5239.00,0.53
5238.00,0.53
5237.00,0.53
5236.00,0.53
5235.00,0.53
5234.00,0.53
5233.00,0.53
5232.00,0.53
5231.00,0.53
5230.00,0.54
5229.00,0.54
5228.00,0.54
5227.00,0.54
5226.00,0.54
5225.00,0.54
5224.00,0.54
5223.00,0.54
5222.00,0.54
5221.00,0.54
5220.00,0.54
5219.00,0.54
5218.00,0.54
5217.00,0.54
5216.00,0.54
5215.00,0.54
5214.00,0.54
5213.00,0.54
5212.00,0.55
5211.00,0.55
5210.00,0.55
5209.00,0.55
5208.00,0.55
5207.00,0.55
5206.00,0.55
5205.00,0.55
5204.00,0.55
5203.00,0.55
5202.00,0.55
5201.00,0.55
5200.00,0.55
5199.00,0.55
5198.00,0.55
5197.00,0.55
5196.00,0.55
5195.00,0.55
5194.00,0.55
5193.00,0.55
5192.00,0.55
5191.00,0.55
5190.00,0.55
5189.00,0.55
5188.00,0.55
5187.00,0.55
5186.00,0.56
5185.00,0.56
5184.00,0.56
5183.00,0.56
5182.00,0.56
5181.00,0.56
5180.00,0.56
5179.00,0.56
5178.00,0.56
5177.00,0.56
5176.00,0.56
5175.00,0.56
5174.00,0.56
5173.00,0.56
5172.00,0.56
5171.00,0.56
5170.00,0.56
5169.00,0.56
5168.00,0.56
5167.00,0.56
5166.00,0.56
5165.00,0.56
5164.00,0.56
5163.00,0.56
5162.00,0.56
5161.00,0.56
5160.00,0.56
5159.00,0.56
5158.00,0.56
5157.00,0.56
5156.00,0.56
5155.00,0.56
5154.00,0.56
5153.00,0.56
5152.00,0.56
5151.00,0.56
5150.00,0.56
5149.00,0.56
5148.00,0.56
5147.00,0.57
5146.00,0.57
5145.00,0.57
5144.00,0.57
5143.00,0.57
5142.00,0.57
5141.00,0.57
5140.00,0.57
5139.00,0.57
5138.00,0.57
5137.00,0.57
5136.00,0.57
5135.00,0.57
5134.00,0.57
5133.00,0.57
5132.00,0.57
5131.00,0.57
5130.00,0.57
5129.00,0.57
5128.00,0.57
5127.00,0.57
5126.00,0.57
5125.00,0.57
5124.00,0.58
5123.00,0.58
5122.00,0.58
5121.00,0.58
5120.00,0.58
5119.00,0.58
5118.00,0.58
5117.00,0.58
5116.00,0.58
5115.00,0.58
5114.00,0.58
5113.00,0.58
5112.00,0.58
5111.00,0.58
5110.00,0.58
5109.00,0.58
5108.00,0.58
5107.00,0.58
5106.00,0.58
5105.00,0.58
5104.00,0.58
5103.00,0.58
5102.00,0.58
5101.00,0.58
5100.00,0.58
5099.00,0.58
5098.00,0.58
5097.00,0.58
5096.00,0.58
5095.00,0.58
5094.00,0.59
5093.00,0.59
5092.00,0.59
5091.00,0.59
5090.00,0.59
5089.00,0.59
5088.00,0.59
5087.00,0.59
5086.00,0.59
5085.00,0.59
5084.00,0.59
5083.00,0.59
5082.00,0.59
5081.00,0.59
5080.00,0.59
5079.00,0.59
5078.00,0.59
5077.00,0.59
5076.00,0.59
5075.00,0.59
5074.00,0.59
5073.00,0.59
5072.00,0.59
5071.00,0.59
5070.00,0.60
5069.00,0.60
5068.00,0.60
5067.00,0.60
5066.00,0.60
5065.00,0.60
5064.00,0.60
5063.00,0.60
5062.00,0.60
5061.00,0.60
5060.00,0.60
5059.00,0.60
5058.00,0.60
5057.00,0.60
5056.00,0.60
5055.00,0.60
5054.00,0.61
5053.00,0.61
5052.00,0.61
5051.00,0.61
5050.00,0.61
5049.00,0.61
5048.00,0.61
5047.00,0.61
5046.00,0.61
5045.00,0.61
5044.00,0.61
5043.00,0.61
5042.00,0.61
5041.00,0.61
5040.00,0.61
5039.00,0.61
5038.00,0.61
5037.00,0.61
5036.00,0.61
5035.00,0.61
5034.00,0.61
5033.00,0.61
5032.00,0.61
5031.00,0.61
5030.00,0.62
5029.00,0.62
5028.00,0.62
5027.00,0.62
5026.00,0.62
5025.00,0.62
5024.00,0.62
5023.00,0.62
5022.00,0.62
5021.00,0.62
5020.00,0.62
5019.00,0.62
5018.00,0.62
5017.00,0.62
5016.00,0.62
5015.00,0.62
5014.00,0.62
5013.00,0.62
5012.00,0.62
5011.00,0.62
5010.00,0.62
5009.00,0.62
5008.00,0.62
5007.00,0.63
5006.00,0.63
5005.00,0.63
5004.00,0.63
5003.00,0.63
5002.00,0.63
5001.00,0.63
5000.00,0.63
4999.00,0.63
4998.00,0.63
4997.00,0.63
4996.00,0.63
4995.00,0.63
4994.00,0.63
4993.00,0.63
4992.00,0.64
4991.00,0.64
4990.00,0.64
4989.00,0.64
4988.00,0.64
4987.00,0.64
4986.00,0.64
4985.00,0.64
4984.00,0.64
4983.00,0.64
4982.00,0.64
4981.00,0.64
4980.00,0.64
4979.00,0.64
4978.00,0.64
4977.00,0.65
4976.00,0.65
4975.00,0.65
4974.00,0.65
4973.00,0.65
4972.00,0.65
4971.00,0.65
4970.00,0.65
4969.00,0.65
4968.00,0.65
4967.00,0.65
4966.00,0.65
4965.00,0.65
4964.00,0.65
4963.00,0.66
4962.00,0.66
4961.00,0.66
4960.00,0.66
4959.00,0.66
4958.00,0.66
4957.00,0.66
4956.00,0.66
4955.00,0.66
4954.00,0.66
4953.00,0.66
4952.00,0.66
4951.00,0.66
4950.00,0.66
4949.00,0.66
4948.00,0.66
4947.00,0.66
4946.00,0.66
4945.00,0.66
4944.00,0.66
4943.00,0.66
4942.00,0.66
4941.00,0.66
4940.00,0.66
4939.00,0.66
4938.00,0.67
4937.00,0.67
4936.00,0.67
4935.00,0.67
4934.00,0.67
4933.00,0.67
4932.00,0.67
4931.00,0.67
4930.00,0.67
4929.00,0.67
4928.00,0.67
4927.00,0.67
4926.00,0.67
4925.00,0.67
4924.00,0.67
4923.00,0.67
4922.00,0.68
4921.00,0.68
4920.00,0.68
4919.00,0.68
4918.00,0.68
4917.00,0.68
4916.00,0.68
4915.00,0.68
4914.00,0.68
4913.00,0.68
4912.00,0.68
4911.00,0.69
4910.00,0.69
4909.00,0.69
4908.00,0.69
4907.00,0.69
4906.00,0.69
4905.00,0.69
4904.00,0.69
4903.00,0.69
4902.00,0.69
4901.00,0.69
4900.00,0.69
4899.00,0.69
4898.00,0.69
4897.00,0.69
4896.00,0.69
4895.00,0.69
4894.00,0.70
4893.00,0.70
4892.00,0.70
4891.00,0.70
4890.00,0.70
4889.00,0.70
4888.00,0.70
4887.00,0.70
4886.00,0.70
4885.00,0.70
4884.00,0.70
4883.00,0.70
4882.00,0.71
4881.00,0.71
4880.00,0.71
4879.00,0.71
4878.00,0.71
4877.00,0.71
4876.00,0.71
4875.00,0.71
4874.00,0.71
4873.00,0.71
4872.00,0.71
4871.00,0.71
4870.00,0.71
4869.00,0.71
4868.00,0.71
4867.00,0.72
4866.00,0.72
4865.00,0.72
4864.00,0.72
4863.00,0.72
4862.00,0.72
4861.00,0.72
4860.00,0.72
4859.00,0.72
4858.00,0.72
4857.00,0.72
4856.00,0.72
4855.00,0.72
4854.00,0.72
4853.00,0.72
4852.00,0.73
4851.00,0.73
4850.00,0.73
4849.00,0.73
4848.00,0.73
4847.00,0.73
4846.00,0.73
4845.00,0.73
4844.00,0.73
4843.00,0.73
4842.00,0.73
4841.00,0.73
4840.00,0.73
4839.00,0.73
4838.00,0.73
4837.00,0.73
4836.00,0.74
4835.00,0.74
4834.00,0.74
4833.00,0.74
4832.00,0.74
4831.00,0.74
4830.00,0.74
4829.00,0.74
4828.00,0.74
4827.00,0.75
4826.00,0.75
4825.00,0.75
4824.00,0.75
4823.00,0.75
4822.00,0.75
4821.00,0.75
4820.00,0.75
4819.00,0.75
4818.00,0.76
4817.00,0.76
4816.00,0.76
4815.00,0.76
4814.00,0.76
4813.00,0.76
4812.00,0.76
4811.00,0.76
4810.00,0.76
4809.00,0.76
4808.00,0.76
4807.00,0.76
4806.00,0.76
4805.00,0.76
4804.00,0.76
4803.00,0.77
4802.00,0.77
4801.00,0.77
4800.00,0.77
4799.00,0.77
4798.00,0.77
4797.00,0.77
4796.00,0.77
4795.00,0.77
4794.00,0.77
4793.00,0.77
4792.00,0.77
4791.00,0.77
4790.00,0.77
4789.00,0.77
4788.00,0.78
4787.00,0.78
4786.00,0.78
4785.00,0.78
4784.00,0.78
4783.00,0.78
4782.00,0.78
4781.00,0.78
4780.00,0.78
4779.00,0.79
4778.00,0.79
4777.00,0.79
4776.00,0.79
4775.00,0.79
4774.00,0.79
4773.00,0.79
4772.00,0.80
4771.00,0.80
4770.00,0.80
4769.00,0.80
4768.00,0.80
4767.00,0.80
4766.00,0.81
4765.00,0.81
4764.00,0.81
4763.00,0.81
4762.00,0.81
4761.00,0.81
4760.00,0.81
4759.00,0.81
4758.00,0.81
4757.00,0.81
4756.00,0.82
4755.00,0.82
4754.00,0.82
4753.00,0.82
4752.00,0.82
4751.00,0.82
4750.00,0.82
4749.00,0.82
4748.00,0.82
4747.00,0.82
4746.00,0.82
4745.00,0.83
4744.00,0.83
4743.00,0.83
4742.00,0.83
4741.00,0.83
4740.00,0.83
4739.00,0.84
4738.00,0.84
4737.00,0.84
4736.00,0.84
4735.00,0.84
4734.00,0.84
4733.00,0.85
4732.00,0.85
4731.00,0.85
4730.00,0.85
4729.00,0.85
4728.00,0.86
4727.00,0.86
4726.00,0.86
4725.00,0.86
4724.00,0.86
4723.00,0.87
4722.00,0.87
4721.00,0.87
4720.00,0.87
4719.00,0.87
4718.00,0.87
4717.00,0.87
4716.00,0.87
4715.00,0.87
4714.00,0.88
4713.00,0.88
4712.00,0.88
4711.00,0.88
4710.00,0.88
4709.00,0.88
4708.00,0.88
4707.00,0.88
4706.00,0.88
4705.00,0.88
4704.00,0.88
4703.00,0.88
4702.00,0.88
4701.00,0.88
4700.00,0.88
4699.00,0.88
4698.00,0.88
4697.00,0.88
4696.00,0.88
4695.00,0.89
4694.00,0.89
4693.00,0.89
4692.00,0.89
4691.00,0.89
4690.00,0.89
4689.00,0.89
4688.00,0.90
4687.00,0.90
4686.00,0.90
4685.00,0.90
4684.00,0.90
4683.00,0.90
4682.00,0.91
4681.00,0.91
4680.00,0.91
4679.00,0.91
4678.00,0.91
4677.00,0.91
4676.00,0.92
4675.00,0.92
4674.00,0.92
4673.00,0.92
4672.00,0.92
4671.00,0.92
4670.00,0.92
4669.00,0.92
4668.00,0.93
4667.00,0.93
4666.00,0.93
4665.00,0.93
4664.00,0.93
4663.00,0.93
4662.00,0.93
4661.00,0.93
4660.00,0.93
4659.00,0.94
4658.00,0.94
4657.00,0.94
4656.00,0.94
4655.00,0.94
4654.00,0.94
4653.00,0.94
4652.00,0.94
4651.00,0.94
4650.00,0.94
4649.00,0.95
4648.00,0.95
4647.00,0.95
4646.00,0.95
4645.00,0.95
4644.00,0.95
4643.00,0.95
4642.00,0.95
4641.00,0.95
4640.00,0.95
4639.00,0.96
4638.00,0.96
4637.00,0.96
4636.00,0.96
4635.00,0.96
4634.00,0.96
4633.00,0.96
4632.00,0.96
4631.00,0.96
4630.00,0.96
4629.00,0.96
4628.00,0.96
4627.00,0.97
4626.00,0.97
4625.00,0.97
4624.00,0.97
4623.00,0.97
4622.00,0.97
4621.00,0.97
4620.00,0.97
4619.00,0.97
4618.00,0.97
4617.00,0.97
4616.00,0.97
4615.00,0.97
4614.00,0.98
4613.00,0.98
4612.00,0.98
4611.00,0.98
4610.00,0.98
4609.00,0.98
4608.00,0.98
4607.00,0.98
4606.00,0.98
4605.00,0.98
4604.00,0.98
4603.00,0.98
4602.00,0.98
4601.00,0.98
4600.00,0.98
4599.00,0.98
4598.00,0.98
4597.00,0.99
4596.00,0.99
4595.00,0.99
4594.00,0.99
4593.00,0.99
4592.00,0.99
4591.00,0.99
4590.00,0.99
4589.00,0.99
4588.00,0.99
4587.00,0.99
4586.00,1.00
4585.00,1.00
4584.00,1.00
4583.00,1.00
4582.00,1.00
4581.00,1.00
4580.00,1.00
4579.00,1.00
4578.00,1.00
4577.00,1.00
4576.00,1.00
4575.00,1.00
4574.00,1.00
4573.00,1.00
4572.00,1.00
4571.00,1.01
4570.00,1.01
4569.00,1.01
4568.00,1.01
4567.00,1.01
4566.00,1.01
4565.00,1.01
4564.00,1.01
4563.00,1.01
4562.00,1.01
4561.00,1.01
4560.00,1.01
4559.00,1.01
4558.00,1.01
4557.00,1.01
4556.00,1.02
4555.00,1.02
4554.00,1.02
4553.00,1.02
4552.00,1.02
4551.00,1.02
4550.00,1.02
4549.00,1.03
4548.00,1.03
4547.00,1.03
4546.00,1.03
4545.00,1.03
4544.00,1.03
4543.00,1.03
4542.00,1.03
4541.00,1.03
4540.00,1.04
4539.00,1.04
4538.00,1.04
4537.00,1.04
4536.00,1.04
4535.00,1.04
4534.00,1.04
4533.00,1.04
4532.00,1.04
4531.00,1.04
4530.00,1.04
4529.00,1.04
4528.00,1.04
4527.00,1.04
4526.00,1.04
4525.00,1.04
4524.00,1.04
4523.00,1.04
4522.00,1.04
4521.00,1.04
4520.00,1.04
4519.00,1.04
4518.00,1.04
4517.00,1.04
4516.00,1.04
4515.00,1.04
4514.00,1.04
4513.00,1.04
4512.00,1.04
4511.00,1.04
4510.00,1.04
4509.00,1.04
4508.00,1.04
4507.00,1.04
4506.00,1.04
4505.00,1.04
4504.00,1.04
4503.00,1.04
4502.00,1.04
4501.00,1.04
4500.00,1.04
4499.00,1.04
4498.00,1.04
4497.00,1.04
4496.00,1.04
4495.00,1.04
4494.00,1.04
4493.00,1.04
4492.00,1.04
4491.00,1.04
4490.00,1.04
4489.00,1.03
4488.00,1.03
4487.00,1.03
4486.00,1.03
4485.00,1.03
4484.00,1.03
4483.00,1.03
4482.00,1.03
4481.00,1.03
4480.00,1.03
4479.00,1.03
4478.00,1.03
4477.00,1.02
4476.00,1.02
4475.00,1.02
4474.00,1.02
4473.00,1.02
4472.00,1.02
4471.00,1.01
4470.00,1.01
4469.00,1.01
4468.00,1.01
4467.00,1.01
4466.00,1.01
4465.00,1.00
4464.00,1.00
4463.00,1.00
4462.00,1.00
4461.00,1.00
4460.00,0.99
4459.00,0.99
4458.00,0.99
4457.00,0.99
4456.00,0.99
4455.00,0.98
4454.00,0.98
4453.00,0.98
4452.00,0.97
4451.00,0.97
4450.00,0.97
4449.00,0.97
4448.00,0.96
4447.00,0.96
4446.00,0.96
4445.00,0.95
4444.00,0.95
4443.00,0.94
4442.00,0.94
4441.00,0.94
4440.00,0.93
4439.00,0.93
4438.00,0.92
4437.00,0.92
4436.00,0.92
4435.00,0.91
4434.00,0.91
4433.00,0.91
4432.00,0.90
4431.00,0.90
4430.00,0.90
4429.00,0.89
4428.00,0.89
4427.00,0.89
4426.00,0.89
4425.00,0.89
4424.00,0.88
4423.00,0.88
4422.00,0.88
4421.00,0.88
4420.00,0.88
4419.00,0.88
4418.00,0.88
4417.00,0.88
4416.00,0.88
4415.00,0.88
4414.00,0.88
4413.00,0.88
4412.00,0.88
4411.00,0.88
4410.00,0.88
4409.00,0.88
4408.00,0.88
4407.00,0.88
4406.00,0.88
4405.00,0.88
4404.00,0.88
4403.00,0.88
4402.00,0.88
4401.00,0.89
4400.00,0.89
4399.00,0.89
4398.00,0.89
4397.00,0.89
4396.00,0.89
4395.00,0.89
4394.00,0.90
4393.00,0.90
4392.00,0.90
4391.00,0.90
4390.00,0.90
4389.00,0.90
4388.00,0.91
4387.00,0.91
4386.00,0.91
4385.00,0.91
4384.00,0.91
4383.00,0.91
4382.00,0.92
4381.00,0.92
4380.00,0.92
4379.00,0.92
4378.00,0.92
4377.00,0.92
4376.00,0.92
4375.00,0.92
4374.00,0.92
4373.00,0.92
4372.00,0.92
4371.00,0.92
4370.00,0.92
4369.00,0.92
4368.00,0.92
4367.00,0.92
4366.00,0.92
4365.00,0.91
4364.00,0.91
4363.00,0.91
4362.00,0.91
4361.00,0.91
4360.00,0.91
4359.00,0.91
4358.00,0.91
4357.00,0.91
4356.00,0.91
4355.00,0.91
4354.00,0.91
4353.00,0.91
4352.00,0.92
4351.00,0.92
4350.00,0.92
4349.00,0.92
4348.00,0.92
4347.00,0.92
4346.00,0.92
4345.00,0.92
4344.00,0.92
4343.00,0.92
4342.00,0.92
4341.00,0.92
4340.00,0.92
4339.00,0.92
4338.00,0.92
4337.00,0.92
4336.00,0.92
4335.00,0.92
4334.00,0.92
4333.00,0.92
4332.00,0.92
4331.00,0.92
4330.00,0.92
4329.00,0.92
4328.00,0.92
4327.00,0.92
4326.00,0.93
4325.00,0.93
4324.00,0.93
4323.00,0.93
4322.00,0.93
4321.00,0.93
4320.00,0.93
4319.00,0.93
4318.00,0.94
4317.00,0.94
4316.00,0.94
4315.00,0.94
4314.00,0.94
4313.00,0.95
4312.00,0.95
4311.00,0.95
4310.00,0.95
4309.00,0.95
4308.00,0.96
4307.00,0.96
4306.00,0.96
4305.00,0.96
4304.00,0.96
4303.00,0.96
4302.00,0.97
4301.00,0.97
4300.00,0.97
4299.00,0.97
4298.00,0.97
4297.00,0.97
4296.00,0.97
4295.00,0.98
4294.00,0.98
4293.00,0.98
4292.00,0.98
4291.00,0.98
4290.00,0.98
4289.00,0.98
4288.00,0.98
4287.00,0.98
4286.00,0.98
4285.00,0.98
4284.00,0.98
4283.00,0.98
4282.00,0.98
4281.00,0.98
4280.00,0.98
4279.00,0.98
4278.00,0.98
4277.00,0.98
4276.00,0.98
4275.00,0.98
4274.00,0.98
4273.00,0.98
4272.00,0.97
4271.00,0.97
4270.00,0.97
4269.00,0.97
4268.00,0.97
4267.00,0.97
4266.00,0.97
4265.00,0.97
4264.00,0.97
4263.00,0.97
4262.00,0.97
4261.00,0.97
4260.00,0.97
4259.00,0.97
4258.00,0.97
4257.00,0.97
4256.00,0.97
4255.00,0.97
4254.00,0.97
4253.00,0.97
4252.00,0.98
4251.00,0.98
4250.00,0.98
4249.00,0.98
4248.00,0.98
4247.00,0.98
4246.00,0.98
4245.00,0.98
4244.00,0.98
4243.00,0.98
4242.00,0.98
4241.00,0.98
4240.00,0.98
4239.00,0.98
4238.00,0.98
4237.00,0.98
4236.00,0.98
4235.00,0.98
4234.00,0.98
4233.00,0.98
4232.00,0.98
4231.00,0.98
4230.00,0.98
4229.00,0.98
4228.00,0.98
4227.00,0.98
4226.00,0.98
4225.00,0.99
4224.00,0.99
4223.00,0.99
4222.00,0.99
4221.00,0.99
4220.00,0.99
4219.00,0.99
4218.00,0.99
4217.00,1.00
4216.00,1.00
4215.00,1.00
4214.00,1.00
4213.00,1.00
4212.00,1.00
4211.00,1.00
4210.00,1.00
4209.00,1.00
4208.00,1.00
4207.00,1.00
4206.00,1.00
4205.00,1.00
4204.00,1.00
4203.00,1.00
4202.00,1.00
4201.00,1.00
4200.00,1.00
4199.00,1.00
4198.00,1.00
4197.00,1.00
4196.00,1.00
4195.00,1.00
4194.00,1.00
4193.00,1.00
4192.00,1.00
4191.00,1.00
4190.00,1.00
4189.00,1.00
4188.00,1.00
4187.00,1.00
4186.00,1.00
4185.00,1.01
4184.00,1.01
4183.00,1.01
4182.00,1.01
4181.00,1.01
4180.00,1.01
4179.00,1.01
4178.00,1.01
4177.00,1.01
4176.00,1.01
4175.00,1.01
4174.00,1.01
4173.00,1.01
4172.00,1.01
4171.00,1.01
4170.00,1.01
4169.00,1.01
4168.00,1.01
4167.00,1.01
4166.00,1.01
4165.00,1.01
4164.00,1.01
4163.00,1.01
4162.00,1.01
4161.00,1.01
4160.00,1.01
4159.00,1.01
4158.00,1.01
4157.00,1.01
4156.00,1.01
4155.00,1.01
4154.00,1.01
4153.00,1.01
4152.00,1.01
4151.00,1.01
4150.00,1.01
4149.00,1.01
4148.00,1.01
4147.00,1.01
4146.00,1.01
4145.00,1.01
4144.00,1.01
4143.00,1.01
4142.00,1.01
4141.00,1.01
4140.00,1.01
4139.00,1.01
4138.00,1.01
4137.00,1.01
4136.00,1.01
4135.00,1.01
4134.00,1.01
4133.00,1.01
4132.00,1.01
4131.00,1.01
4130.00,1.01
4129.00,1.01
4128.00,1.02
4127.00,1.02
4126.00,1.02
4125.00,1.02
4124.00,1.02
4123.00,1.02
4122.00,1.02
4121.00,1.02
4120.00,1.02
4119.00,1.02
4118.00,1.02
4117.00,1.02
4116.00,1.02
4115.00,1.03
4114.00,1.03
4113.00,1.03
4112.00,1.03
4111.00,1.03
4110.00,1.03
4109.00,1.03
4108.00,1.03
4107.00,1.03
4106.00,1.03
4105.00,1.03
4104.00,1.03
4103.00,1.03
4102.00,1.03
4101.00,1.03
4100.00,1.03
4099.00,1.03
4098.00,1.03
4097.00,1.03
4096.00,1.03
4095.00,1.03
4094.00,1.03
4093.00,1.03
4092.00,1.03
4091.00,1.03
4090.00,1.03
4089.00,1.03
4088.00,1.03
4087.00,1.03
4086.00,1.03
4085.00,1.03
4084.00,1.03
4083.00,1.03
4082.00,1.03
4081.00,1.03
4080.00,1.03
4079.00,1.03
4078.00,1.03
4077.00,1.03
4076.00,1.03
4075.00,1.03
4074.00,1.03
4073.00,1.03
4072.00,1.03
4071.00,1.03
4070.00,1.03
4069.00,1.03
4068.00,1.03
4067.00,1.03
4066.00,1.03
4065.00,1.03
4064.00,1.03
4063.00,1.03
4062.00,1.03
4061.00,1.03
4060.00,1.03
4059.00,1.04
4058.00,1.04
4057.00,1.04
4056.00,1.04
4055.00,1.04
4054.00,1.05
4053.00,1.05
4052.00,1.05
4051.00,1.05
4050.00,1.06
4049.00,1.06
4048.00,1.06
4047.00,1.06
4046.00,1.06
4045.00,1.07
4044.00,1.07
4043.00,1.07
4042.00,1.07
4041.00,1.07
4040.00,1.07
4039.00,1.07
4038.00,1.07
4037.00,1.08
4036.00,1.08
4035.00,1.08
4034.00,1.08
4033.00,1.08
4032.00,1.08
4031.00,1.08
4030.00,1.08
4029.00,1.08
4028.00,1.08
4027.00,1.08
4026.00,1.08
4025.00,1.08
4024.00,1.08
4023.00,1.08
4022.00,1.08
4021.00,1.08
4020.00,1.08
4019.00,1.08
4018.00,1.08
4017.00,1.08
4016.00,1.08
4015.00,1.08
4014.00,1.08
4013.00,1.08
4012.00,1.08
4011.00,1.08
4010.00,1.08
4009.00,1.08
4008.00,1.09
4007.00,1.09
4006.00,1.09
4005.00,1.09
4004.00,1.09
4003.00,1.10
4002.00,1.10
4001.00,1.10
4000.00,1.10
