创建为新数据集,样品 700 用户 Administrator 日期 星期四, 七月 19 2018
cm-1,%T
10000.00,0.65
9999.00,0.64
9998.00,0.64
9997.00,0.64
9996.00,0.64
9995.00,0.63
9994.00,0.63
9993.00,0.63
9992.00,0.63
9991.00,0.63
9990.00,0.63
9989.00,0.63
9988.00,0.63
9987.00,0.63
9986.00,0.63
9985.00,0.63
9984.00,0.63
9983.00,0.63
9982.00,0.63
9981.00,0.63
9980.00,0.64
9979.00,0.64
9978.00,0.64
9977.00,0.64
9976.00,0.64
9975.00,0.64
9974.00,0.63
9973.00,0.63
9972.00,0.63
9971.00,0.63
9970.00,0.63
9969.00,0.63
9968.00,0.63
9967.00,0.63
9966.00,0.62
9965.00,0.62
9964.00,0.62
9963.00,0.62
9962.00,0.62
9961.00,0.62
9960.00,0.62
9959.00,0.62
9958.00,0.62
9957.00,0.62
9956.00,0.62
9955.00,0.62
9954.00,0.62
9953.00,0.62
9952.00,0.62
9951.00,0.62
9950.00,0.62
9949.00,0.62
9948.00,0.62
9947.00,0.63
9946.00,0.63
9945.00,0.63
9944.00,0.63
9943.00,0.63
9942.00,0.63
9941.00,0.64
9940.00,0.64
9939.00,0.64
9938.00,0.64
9937.00,0.64
9936.00,0.64
9935.00,0.64
9934.00,0.64
9933.00,0.64
9932.00,0.64
9931.00,0.64
9930.00,0.63
9929.00,0.63
9928.00,0.63
9927.00,0.62
9926.00,0.62
9925.00,0.62
9924.00,0.61
9923.00,0.61
9922.00,0.61
9921.00,0.60
9920.00,0.60
9919.00,0.60
9918.00,0.60
9917.00,0.59
9916.00,0.59
9915.00,0.59
9914.00,0.59
9913.00,0.59
9912.00,0.60
9911.00,0.60
9910.00,0.60
9909.00,0.60
9908.00,0.60
9907.00,0.61
9906.00,0.61
9905.00,0.61
9904.00,0.62
9903.00,0.62
9902.00,0.62
9901.00,0.62
9900.00,0.62
9899.00,0.63
9898.00,0.63
9897.00,0.63
9896.00,0.63
9895.00,0.63
9894.00,0.63
9893.00,0.62
9892.00,0.62
9891.00,0.62
9890.00,0.62
9889.00,0.61
9888.00,0.61
9887.00,0.61
9886.00,0.60
9885.00,0.60
9884.00,0.60
9883.00,0.59
9882.00,0.59
9881.00,0.59
9880.00,0.59
9879.00,0.59
9878.00,0.58
9877.00,0.58
9876.00,0.58
9875.00,0.58
9874.00,0.58
9873.00,0.58
9872.00,0.58
9871.00,0.59
9870.00,0.59
9869.00,0.59
9868.00,0.59
9867.00,0.59
9866.00,0.59
9865.00,0.59
9864.00,0.59
9863.00,0.59
9862.00,0.60
9861.00,0.60
9860.00,0.60
9859.00,0.59
9858.00,0.59
9857.00,0.59
9856.00,0.59
9855.00,0.59
9854.00,0.59
9853.00,0.59
9852.00,0.59
9851.00,0.59
9850.00,0.59
9849.00,0.59
9848.00,0.59
9847.00,0.59
9846.00,0.59
9845.00,0.59
9844.00,0.59
9843.00,0.59
9842.00,0.59
9841.00,0.60
9840.00,0.60
9839.00,0.60
9838.00,0.60
9837.00,0.60
9836.00,0.61
9835.00,0.61
9834.00,0.61
9833.00,0.61
9832.00,0.61
9831.00,0.61
9830.00,0.62
9829.00,0.62
9828.00,0.62
9827.00,0.62
9826.00,0.62
9825.00,0.62
9824.00,0.62
9823.00,0.62
9822.00,0.62
9821.00,0.62
9820.00,0.62
9819.00,0.62
9818.00,0.62
9817.00,0.62
9816.00,0.62
9815.00,0.62
9814.00,0.62
9813.00,0.62
9812.00,0.62
9811.00,0.62
9810.00,0.62
9809.00,0.62
9808.00,0.62
9807.00,0.62
9806.00,0.62
9805.00,0.62
9804.00,0.63
9803.00,0.63
9802.00,0.63
9801.00,0.63
9800.00,0.63
9799.00,0.63
9798.00,0.63
9797.00,0.63
9796.00,0.63
9795.00,0.63
9794.00,0.63
9793.00,0.63
9792.00,0.63
9791.00,0.62
9790.00,0.62
9789.00,0.62
9788.00,0.62
9787.00,0.61
9786.00,0.61
9785.00,0.61
9784.00,0.60
9783.00,0.60
9782.00,0.60
9781.00,0.60
9780.00,0.59
9779.00,0.59
9778.00,0.59
9777.00,0.59
9776.00,0.59
9775.00,0.59
9774.00,0.59
9773.00,0.59
9772.00,0.59
9771.00,0.59
9770.00,0.60
9769.00,0.60
9768.00,0.60
9767.00,0.60
9766.00,0.61
9765.00,0.61
9764.00,0.61
9763.00,0.61
9762.00,0.61
9761.00,0.62
9760.00,0.62
9759.00,0.62
9758.00,0.62
9757.00,0.62
9756.00,0.62
9755.00,0.62
9754.00,0.63
9753.00,0.63
9752.00,0.63
9751.00,0.63
9750.00,0.63
9749.00,0.63
9748.00,0.63
9747.00,0.63
9746.00,0.63
9745.00,0.63
9744.00,0.62
9743.00,0.62
9742.00,0.62
9741.00,0.62
9740.00,0.62
9739.00,0.62
9738.00,0.62
9737.00,0.62
9736.00,0.62
9735.00,0.62
9734.00,0.62
9733.00,0.63
9732.00,0.63
9731.00,0.63
9730.00,0.63
9729.00,0.63
9728.00,0.63
9727.00,0.63
9726.00,0.63
9725.00,0.63
9724.00,0.64
9723.00,0.64
9722.00,0.64
9721.00,0.64
9720.00,0.64
9719.00,0.64
9718.00,0.64
9717.00,0.64
9716.00,0.64
9715.00,0.64
9714.00,0.64
9713.00,0.64
9712.00,0.64
9711.00,0.64
9710.00,0.64
9709.00,0.64
9708.00,0.64
9707.00,0.63
9706.00,0.63
9705.00,0.63
9704.00,0.63
9703.00,0.63
9702.00,0.63
9701.00,0.63
9700.00,0.63
9699.00,0.62
9698.00,0.62
9697.00,0.62
9696.00,0.62
9695.00,0.62
9694.00,0.62
9693.00,0.62
9692.00,0.62
9691.00,0.62
9690.00,0.62
9689.00,0.62
9688.00,0.62
9687.00,0.62
9686.00,0.62
9685.00,0.62
9684.00,0.62
9683.00,0.63
9682.00,0.63
9681.00,0.63
9680.00,0.63
9679.00,0.63
9678.00,0.64
9677.00,0.64
9676.00,0.64
9675.00,0.64
9674.00,0.65
9673.00,0.65
9672.00,0.65
9671.00,0.65
9670.00,0.65
9669.00,0.66
9668.00,0.66
9667.00,0.66
9666.00,0.66
9665.00,0.66
9664.00,0.66
9663.00,0.65
9662.00,0.65
9661.00,0.65
9660.00,0.64
9659.00,0.64
9658.00,0.64
9657.00,0.63
9656.00,0.63
9655.00,0.62
9654.00,0.62
9653.00,0.62
9652.00,0.61
9651.00,0.61
9650.00,0.61
9649.00,0.61
9648.00,0.61
9647.00,0.61
9646.00,0.60
9645.00,0.60
9644.00,0.60
9643.00,0.60
9642.00,0.61
9641.00,0.61
9640.00,0.61
9639.00,0.61
9638.00,0.60
9637.00,0.60
9636.00,0.60
9635.00,0.60
9634.00,0.60
9633.00,0.60
9632.00,0.60
9631.00,0.60
9630.00,0.60
9629.00,0.60
9628.00,0.60
9627.00,0.60
9626.00,0.60
9625.00,0.60
9624.00,0.60
9623.00,0.60
9622.00,0.60
9621.00,0.61
9620.00,0.61
9619.00,0.61
9618.00,0.61
9617.00,0.61
9616.00,0.61
9615.00,0.61
9614.00,0.61
9613.00,0.61
9612.00,0.61
9611.00,0.61
9610.00,0.61
9609.00,0.60
9608.00,0.60
9607.00,0.60
9606.00,0.60
9605.00,0.60
9604.00,0.60
9603.00,0.60
9602.00,0.59
9601.00,0.59
9600.00,0.59
9599.00,0.59
9598.00,0.59
9597.00,0.59
9596.00,0.59
9595.00,0.59
9594.00,0.59
9593.00,0.59
9592.00,0.59
9591.00,0.59
9590.00,0.59
9589.00,0.59
9588.00,0.59
9587.00,0.59
9586.00,0.59
9585.00,0.59
9584.00,0.59
9583.00,0.59
9582.00,0.59
9581.00,0.59
9580.00,0.59
9579.00,0.59
9578.00,0.59
9577.00,0.59
9576.00,0.59
9575.00,0.59
9574.00,0.59
9573.00,0.59
9572.00,0.59
9571.00,0.59
9570.00,0.59
9569.00,0.59
9568.00,0.59
9567.00,0.59
9566.00,0.59
9565.00,0.59
9564.00,0.59
9563.00,0.59
9562.00,0.60
9561.00,0.60
9560.00,0.60
9559.00,0.60
9558.00,0.60
9557.00,0.60
9556.00,0.60
9555.00,0.60
9554.00,0.60
9553.00,0.60
9552.00,0.60
9551.00,0.60
9550.00,0.60
9549.00,0.60
9548.00,0.60
9547.00,0.60
9546.00,0.60
9545.00,0.60
9544.00,0.60
9543.00,0.60
9542.00,0.60
9541.00,0.60
9540.00,0.60
9539.00,0.61
9538.00,0.61
9537.00,0.61
9536.00,0.61
9535.00,0.61
9534.00,0.61
9533.00,0.62
9532.00,0.62
9531.00,0.62
9530.00,0.62
9529.00,0.62
9528.00,0.63
9527.00,0.63
9526.00,0.63
9525.00,0.63
9524.00,0.63
9523.00,0.64
9522.00,0.64
9521.00,0.64
9520.00,0.64
9519.00,0.64
9518.00,0.64
9517.00,0.64
9516.00,0.64
9515.00,0.64
9514.00,0.64
9513.00,0.64
9512.00,0.63
9511.00,0.63
9510.00,0.63
9509.00,0.62
9508.00,0.62
9507.00,0.62
9506.00,0.61
9505.00,0.61
9504.00,0.61
9503.00,0.61
9502.00,0.60
9501.00,0.60
9500.00,0.60
9499.00,0.60
9498.00,0.60
9497.00,0.60
9496.00,0.60
9495.00,0.60
9494.00,0.60
9493.00,0.60
9492.00,0.60
9491.00,0.60
9490.00,0.60
9489.00,0.60
9488.00,0.60
9487.00,0.60
9486.00,0.59
9485.00,0.59
9484.00,0.59
9483.00,0.59
9482.00,0.59
9481.00,0.59
9480.00,0.59
9479.00,0.58
9478.00,0.58
9477.00,0.58
9476.00,0.58
9475.00,0.58
9474.00,0.58
9473.00,0.59
9472.00,0.59
9471.00,0.59
9470.00,0.59
9469.00,0.59
9468.00,0.60
9467.00,0.60
9466.00,0.60
9465.00,0.61
9464.00,0.61
9463.00,0.61
9462.00,0.61
9461.00,0.62
9460.00,0.62
9459.00,0.62
9458.00,0.62
9457.00,0.62
9456.00,0.62
9455.00,0.62
9454.00,0.62
9453.00,0.62
9452.00,0.62
9451.00,0.62
9450.00,0.62
9449.00,0.62
9448.00,0.62
9447.00,0.62
9446.00,0.62
9445.00,0.62
9444.00,0.62
9443.00,0.62
9442.00,0.62
9441.00,0.62
9440.00,0.62
9439.00,0.61
9438.00,0.61
9437.00,0.61
9436.00,0.61
9435.00,0.61
9434.00,0.61
9433.00,0.61
9432.00,0.61
9431.00,0.61
9430.00,0.61
9429.00,0.61
9428.00,0.61
9427.00,0.61
9426.00,0.61
9425.00,0.61
9424.00,0.61
9423.00,0.61
9422.00,0.61
9421.00,0.61
9420.00,0.61
9419.00,0.61
9418.00,0.61
9417.00,0.61
9416.00,0.61
9415.00,0.61
9414.00,0.61
9413.00,0.61
9412.00,0.61
9411.00,0.61
9410.00,0.61
9409.00,0.61
9408.00,0.61
9407.00,0.61
9406.00,0.62
9405.00,0.62
9404.00,0.62
9403.00,0.62
9402.00,0.62
9401.00,0.62
9400.00,0.62
9399.00,0.62
9398.00,0.62
9397.00,0.62
9396.00,0.62
9395.00,0.62
9394.00,0.62
9393.00,0.62
9392.00,0.61
9391.00,0.61
9390.00,0.61
9389.00,0.61
9388.00,0.61
9387.00,0.61
9386.00,0.60
9385.00,0.60
9384.00,0.60
9383.00,0.60
9382.00,0.60
9381.00,0.61
9380.00,0.61
9379.00,0.61
9378.00,0.61
9377.00,0.62
9376.00,0.62
9375.00,0.62
9374.00,0.63
9373.00,0.63
9372.00,0.64
9371.00,0.64
9370.00,0.64
9369.00,0.65
9368.00,0.65
9367.00,0.65
9366.00,0.65
9365.00,0.65
9364.00,0.66
9363.00,0.65
9362.00,0.65
9361.00,0.65
9360.00,0.65
9359.00,0.65
9358.00,0.65
9357.00,0.64
9356.00,0.64
9355.00,0.64
9354.00,0.63
9353.00,0.63
9352.00,0.63
9351.00,0.62
9350.00,0.62
9349.00,0.62
9348.00,0.62
9347.00,0.61
9346.00,0.61
9345.00,0.61
9344.00,0.61
9343.00,0.61
9342.00,0.61
9341.00,0.61
9340.00,0.61
9339.00,0.62
9338.00,0.62
9337.00,0.62
9336.00,0.62
9335.00,0.62
9334.00,0.62
9333.00,0.62
9332.00,0.62
9331.00,0.62
9330.00,0.62
9329.00,0.62
9328.00,0.62
9327.00,0.62
9326.00,0.62
9325.00,0.62
9324.00,0.62
9323.00,0.62
9322.00,0.61
9321.00,0.61
9320.00,0.61
9319.00,0.61
9318.00,0.61
9317.00,0.61
9316.00,0.61
9315.00,0.60
9314.00,0.60
9313.00,0.60
9312.00,0.60
9311.00,0.60
9310.00,0.60
9309.00,0.60
9308.00,0.61
9307.00,0.61
9306.00,0.61
9305.00,0.61
9304.00,0.60
9303.00,0.60
9302.00,0.60
9301.00,0.60
9300.00,0.60
9299.00,0.60
9298.00,0.60
9297.00,0.60
9296.00,0.60
9295.00,0.60
9294.00,0.59
9293.00,0.59
9292.00,0.59
9291.00,0.59
9290.00,0.59
9289.00,0.59
9288.00,0.59
9287.00,0.60
9286.00,0.60
9285.00,0.60
9284.00,0.60
9283.00,0.60
9282.00,0.60
9281.00,0.60
9280.00,0.60
9279.00,0.61
9278.00,0.61
9277.00,0.61
9276.00,0.61
9275.00,0.61
9274.00,0.61
9273.00,0.61
9272.00,0.61
9271.00,0.61
9270.00,0.61
9269.00,0.61
9268.00,0.62
9267.00,0.62
9266.00,0.62
9265.00,0.62
9264.00,0.62
9263.00,0.62
9262.00,0.62
9261.00,0.62
9260.00,0.62
9259.00,0.62
9258.00,0.62
9257.00,0.62
9256.00,0.62
9255.00,0.61
9254.00,0.61
9253.00,0.61
9252.00,0.61
9251.00,0.61
9250.00,0.61
9249.00,0.61
9248.00,0.62
9247.00,0.62
9246.00,0.62
9245.00,0.62
9244.00,0.62
9243.00,0.62
9242.00,0.63
9241.00,0.63
9240.00,0.63
9239.00,0.63
9238.00,0.64
9237.00,0.64
9236.00,0.64
9235.00,0.64
9234.00,0.64
9233.00,0.64
9232.00,0.64
9231.00,0.64
9230.00,0.64
9229.00,0.63
9228.00,0.63
9227.00,0.63
9226.00,0.63
9225.00,0.63
9224.00,0.63
9223.00,0.62
9222.00,0.62
9221.00,0.62
9220.00,0.62
9219.00,0.62
9218.00,0.62
9217.00,0.62
9216.00,0.62
9215.00,0.62
9214.00,0.62
9213.00,0.62
9212.00,0.62
9211.00,0.62
9210.00,0.62
9209.00,0.62
9208.00,0.62
9207.00,0.62
9206.00,0.62
9205.00,0.62
9204.00,0.62
9203.00,0.62
9202.00,0.62
9201.00,0.62
9200.00,0.62
9199.00,0.62
9198.00,0.62
9197.00,0.62
9196.00,0.62
9195.00,0.62
9194.00,0.62
9193.00,0.62
9192.00,0.62
9191.00,0.62
9190.00,0.62
9189.00,0.61
9188.00,0.61
9187.00,0.61
9186.00,0.61
9185.00,0.61
9184.00,0.61
9183.00,0.61
9182.00,0.61
9181.00,0.61
9180.00,0.61
9179.00,0.61
9178.00,0.61
9177.00,0.61
9176.00,0.61
9175.00,0.61
9174.00,0.61
9173.00,0.61
9172.00,0.61
9171.00,0.61
9170.00,0.61
9169.00,0.61
9168.00,0.61
9167.00,0.61
9166.00,0.61
9165.00,0.60
9164.00,0.60
9163.00,0.60
9162.00,0.60
9161.00,0.60
9160.00,0.60
9159.00,0.60
9158.00,0.60
9157.00,0.60
9156.00,0.60
9155.00,0.60
9154.00,0.60
9153.00,0.60
9152.00,0.60
9151.00,0.60
9150.00,0.60
9149.00,0.60
9148.00,0.60
9147.00,0.60
9146.00,0.60
9145.00,0.60
9144.00,0.60
9143.00,0.60
9142.00,0.60
9141.00,0.60
9140.00,0.60
9139.00,0.60
9138.00,0.60
9137.00,0.60
9136.00,0.60
9135.00,0.60
9134.00,0.60
9133.00,0.61
9132.00,0.61
9131.00,0.61
9130.00,0.61
9129.00,0.61
9128.00,0.61
9127.00,0.61
9126.00,0.61
9125.00,0.61
9124.00,0.61
9123.00,0.61
9122.00,0.61
9121.00,0.61
9120.00,0.61
9119.00,0.61
9118.00,0.61
9117.00,0.61
9116.00,0.61
9115.00,0.61
9114.00,0.61
9113.00,0.61
9112.00,0.61
9111.00,0.61
9110.00,0.61
9109.00,0.61
9108.00,0.62
9107.00,0.62
9106.00,0.62
9105.00,0.62
9104.00,0.62
9103.00,0.62
9102.00,0.63
9101.00,0.63
9100.00,0.63
9099.00,0.63
9098.00,0.63
9097.00,0.64
9096.00,0.64
9095.00,0.64
9094.00,0.64
9093.00,0.64
9092.00,0.64
9091.00,0.64
9090.00,0.64
9089.00,0.64
9088.00,0.64
9087.00,0.64
9086.00,0.64
9085.00,0.64
9084.00,0.64
9083.00,0.64
9082.00,0.64
9081.00,0.64
9080.00,0.64
9079.00,0.64
9078.00,0.64
9077.00,0.64
9076.00,0.64
9075.00,0.64
9074.00,0.64
9073.00,0.64
9072.00,0.64
9071.00,0.64
9070.00,0.64
9069.00,0.64
9068.00,0.63
9067.00,0.63
9066.00,0.63
9065.00,0.63
9064.00,0.63
9063.00,0.63
9062.00,0.63
9061.00,0.63
9060.00,0.63
9059.00,0.63
9058.00,0.63
9057.00,0.63
9056.00,0.63
9055.00,0.63
9054.00,0.63
9053.00,0.63
9052.00,0.63
9051.00,0.63
9050.00,0.63
9049.00,0.64
9048.00,0.64
9047.00,0.64
9046.00,0.64
9045.00,0.64
9044.00,0.64
9043.00,0.64
9042.00,0.64
9041.00,0.64
9040.00,0.64
9039.00,0.63
9038.00,0.63
9037.00,0.63
9036.00,0.63
9035.00,0.63
9034.00,0.63
9033.00,0.63
9032.00,0.63
9031.00,0.63
9030.00,0.63
9029.00,0.62
9028.00,0.62
9027.00,0.62
9026.00,0.62
9025.00,0.62
9024.00,0.62
9023.00,0.62
9022.00,0.62
9021.00,0.62
9020.00,0.61
9019.00,0.61
9018.00,0.61
9017.00,0.61
9016.00,0.61
9015.00,0.61
9014.00,0.62
9013.00,0.62
9012.00,0.62
9011.00,0.62
9010.00,0.62
9009.00,0.62
9008.00,0.62
9007.00,0.62
9006.00,0.62
9005.00,0.62
9004.00,0.63
9003.00,0.63
9002.00,0.63
9001.00,0.63
9000.00,0.63
8999.00,0.63
8998.00,0.63
8997.00,0.63
8996.00,0.64
8995.00,0.64
8994.00,0.64
8993.00,0.64
8992.00,0.64
8991.00,0.64
8990.00,0.64
8989.00,0.64
8988.00,0.64
8987.00,0.64
8986.00,0.64
8985.00,0.64
8984.00,0.64
8983.00,0.64
8982.00,0.63
8981.00,0.63
8980.00,0.63
8979.00,0.63
8978.00,0.63
8977.00,0.63
8976.00,0.63
8975.00,0.62
8974.00,0.62
8973.00,0.62
8972.00,0.62
8971.00,0.62
8970.00,0.62
8969.00,0.62
8968.00,0.62
8967.00,0.62
8966.00,0.62
8965.00,0.62
8964.00,0.62
8963.00,0.62
8962.00,0.62
8961.00,0.62
8960.00,0.63
8959.00,0.63
8958.00,0.63
8957.00,0.63
8956.00,0.63
8955.00,0.64
8954.00,0.64
8953.00,0.64
8952.00,0.64
8951.00,0.64
8950.00,0.64
8949.00,0.64
8948.00,0.64
8947.00,0.64
8946.00,0.64
8945.00,0.64
8944.00,0.64
8943.00,0.64
8942.00,0.64
8941.00,0.64
8940.00,0.64
8939.00,0.63
8938.00,0.63
8937.00,0.63
8936.00,0.63
8935.00,0.63
8934.00,0.63
8933.00,0.63
8932.00,0.63
8931.00,0.63
8930.00,0.63
8929.00,0.63
8928.00,0.63
8927.00,0.63
8926.00,0.63
8925.00,0.63
8924.00,0.63
8923.00,0.63
8922.00,0.63
8921.00,0.63
8920.00,0.63
8919.00,0.63
8918.00,0.63
8917.00,0.64
8916.00,0.64
8915.00,0.64
8914.00,0.64
8913.00,0.64
8912.00,0.64
8911.00,0.64
8910.00,0.64
8909.00,0.64
8908.00,0.64
8907.00,0.63
8906.00,0.63
8905.00,0.63
8904.00,0.63
8903.00,0.63
8902.00,0.63
8901.00,0.63
8900.00,0.63
8899.00,0.63
8898.00,0.63
8897.00,0.63
8896.00,0.63
8895.00,0.63
8894.00,0.63
8893.00,0.62
8892.00,0.62
8891.00,0.62
8890.00,0.62
8889.00,0.62
8888.00,0.62
8887.00,0.62
8886.00,0.62
8885.00,0.62
8884.00,0.62
8883.00,0.62
8882.00,0.62
8881.00,0.61
8880.00,0.61
8879.00,0.61
8878.00,0.61
8877.00,0.61
8876.00,0.61
8875.00,0.61
8874.00,0.61
8873.00,0.61
8872.00,0.61
8871.00,0.61
8870.00,0.61
8869.00,0.61
8868.00,0.61
8867.00,0.61
8866.00,0.61
8865.00,0.61
8864.00,0.61
8863.00,0.61
8862.00,0.61
8861.00,0.61
8860.00,0.61
8859.00,0.62
8858.00,0.62
8857.00,0.62
8856.00,0.62
8855.00,0.62
8854.00,0.62
8853.00,0.62
8852.00,0.62
8851.00,0.62
8850.00,0.62
8849.00,0.62
8848.00,0.62
8847.00,0.62
8846.00,0.62
8845.00,0.62
8844.00,0.62
8843.00,0.62
8842.00,0.62
8841.00,0.62
8840.00,0.62
8839.00,0.62
8838.00,0.62
8837.00,0.62
8836.00,0.62
8835.00,0.62
8834.00,0.62
8833.00,0.62
8832.00,0.62
8831.00,0.63
8830.00,0.63
8829.00,0.63
8828.00,0.63
8827.00,0.63
8826.00,0.63
8825.00,0.63
8824.00,0.63
8823.00,0.63
8822.00,0.63
8821.00,0.63
8820.00,0.63
8819.00,0.63
8818.00,0.62
8817.00,0.62
8816.00,0.62
8815.00,0.62
8814.00,0.62
8813.00,0.61
8812.00,0.61
8811.00,0.61
8810.00,0.61
8809.00,0.61
8808.00,0.60
8807.00,0.60
8806.00,0.60
8805.00,0.60
8804.00,0.60
8803.00,0.60
8802.00,0.60
8801.00,0.60
8800.00,0.60
8799.00,0.60
8798.00,0.60
8797.00,0.60
8796.00,0.60
8795.00,0.60
8794.00,0.60
8793.00,0.60
8792.00,0.60
8791.00,0.60
8790.00,0.60
8789.00,0.60
8788.00,0.60
8787.00,0.60
8786.00,0.60
8785.00,0.60
8784.00,0.60
8783.00,0.60
8782.00,0.60
8781.00,0.60
8780.00,0.60
8779.00,0.60
8778.00,0.60
8777.00,0.60
8776.00,0.60
8775.00,0.61
8774.00,0.61
8773.00,0.61
8772.00,0.61
8771.00,0.61
8770.00,0.61
8769.00,0.61
8768.00,0.61
8767.00,0.61
8766.00,0.61
8765.00,0.61
8764.00,0.61
8763.00,0.61
8762.00,0.60
8761.00,0.60
8760.00,0.60
8759.00,0.60
8758.00,0.60
8757.00,0.60
8756.00,0.60
8755.00,0.60
8754.00,0.60
8753.00,0.60
8752.00,0.60
8751.00,0.60
8750.00,0.60
8749.00,0.60
8748.00,0.60
8747.00,0.60
8746.00,0.60
8745.00,0.60
8744.00,0.60
8743.00,0.60
8742.00,0.60
8741.00,0.60
8740.00,0.60
8739.00,0.60
8738.00,0.60
8737.00,0.60
8736.00,0.60
8735.00,0.60
8734.00,0.60
8733.00,0.60
8732.00,0.60
8731.00,0.60
8730.00,0.59
8729.00,0.59
8728.00,0.59
8727.00,0.59
8726.00,0.59
8725.00,0.59
8724.00,0.59
8723.00,0.59
8722.00,0.59
8721.00,0.59
8720.00,0.59
8719.00,0.59
8718.00,0.59
8717.00,0.59
8716.00,0.59
8715.00,0.59
8714.00,0.59
8713.00,0.60
8712.00,0.60
8711.00,0.60
8710.00,0.60
8709.00,0.60
8708.00,0.60
8707.00,0.60
8706.00,0.60
8705.00,0.60
8704.00,0.60
8703.00,0.60
8702.00,0.60
8701.00,0.60
8700.00,0.60
8699.00,0.60
8698.00,0.61
8697.00,0.61
8696.00,0.61
8695.00,0.61
8694.00,0.61
8693.00,0.61
8692.00,0.61
8691.00,0.61
8690.00,0.61
8689.00,0.61
8688.00,0.61
8687.00,0.61
8686.00,0.61
8685.00,0.61
8684.00,0.61
8683.00,0.61
8682.00,0.61
8681.00,0.61
8680.00,0.61
8679.00,0.61
8678.00,0.61
8677.00,0.61
8676.00,0.61
8675.00,0.60
8674.00,0.60
8673.00,0.60
8672.00,0.60
8671.00,0.60
8670.00,0.60
8669.00,0.60
8668.00,0.60
8667.00,0.60
8666.00,0.59
8665.00,0.59
8664.00,0.59
8663.00,0.59
8662.00,0.59
8661.00,0.59
8660.00,0.59
8659.00,0.59
8658.00,0.59
8657.00,0.59
8656.00,0.59
8655.00,0.60
8654.00,0.60
8653.00,0.60
8652.00,0.60
8651.00,0.60
8650.00,0.60
8649.00,0.60
8648.00,0.60
8647.00,0.60
8646.00,0.60
8645.00,0.60
8644.00,0.60
8643.00,0.60
8642.00,0.60
8641.00,0.60
8640.00,0.60
8639.00,0.59
8638.00,0.59
8637.00,0.59
8636.00,0.59
8635.00,0.59
8634.00,0.59
8633.00,0.59
8632.00,0.59
8631.00,0.59
8630.00,0.59
8629.00,0.59
8628.00,0.59
8627.00,0.59
8626.00,0.59
8625.00,0.59
8624.00,0.59
8623.00,0.59
8622.00,0.59
8621.00,0.59
8620.00,0.59
8619.00,0.59
8618.00,0.59
8617.00,0.59
8616.00,0.59
8615.00,0.59
8614.00,0.59
8613.00,0.59
8612.00,0.59
8611.00,0.59
8610.00,0.59
8609.00,0.59
8608.00,0.58
8607.00,0.58
8606.00,0.58
8605.00,0.58
8604.00,0.58
8603.00,0.57
8602.00,0.57
8601.00,0.57
8600.00,0.57
8599.00,0.57
8598.00,0.57
8597.00,0.57
8596.00,0.57
8595.00,0.57
8594.00,0.57
8593.00,0.57
8592.00,0.58
8591.00,0.58
8590.00,0.58
8589.00,0.58
8588.00,0.58
8587.00,0.59
8586.00,0.59
8585.00,0.59
8584.00,0.59
8583.00,0.59
8582.00,0.59
8581.00,0.59
8580.00,0.59
8579.00,0.60
8578.00,0.60
8577.00,0.60
8576.00,0.60
8575.00,0.60
8574.00,0.60
8573.00,0.60
8572.00,0.59
8571.00,0.59
8570.00,0.59
8569.00,0.59
8568.00,0.59
8567.00,0.59
8566.00,0.59
8565.00,0.59
8564.00,0.59
8563.00,0.58
8562.00,0.58
8561.00,0.58
8560.00,0.58
8559.00,0.58
8558.00,0.57
8557.00,0.57
8556.00,0.57
8555.00,0.57
8554.00,0.57
8553.00,0.57
8552.00,0.57
8551.00,0.56
8550.00,0.56
8549.00,0.56
8548.00,0.56
8547.00,0.56
8546.00,0.56
8545.00,0.57
8544.00,0.57
8543.00,0.57
8542.00,0.57
8541.00,0.57
8540.00,0.57
8539.00,0.57
8538.00,0.57
8537.00,0.57
8536.00,0.57
8535.00,0.57
8534.00,0.57
8533.00,0.57
8532.00,0.57
8531.00,0.57
8530.00,0.57
8529.00,0.57
8528.00,0.57
8527.00,0.57
8526.00,0.57
8525.00,0.57
8524.00,0.57
8523.00,0.57
8522.00,0.57
8521.00,0.57
8520.00,0.57
8519.00,0.57
8518.00,0.57
8517.00,0.57
8516.00,0.57
8515.00,0.57
8514.00,0.57
8513.00,0.57
8512.00,0.57
8511.00,0.57
8510.00,0.57
8509.00,0.57
8508.00,0.57
8507.00,0.57
8506.00,0.57
8505.00,0.57
8504.00,0.57
8503.00,0.57
8502.00,0.57
8501.00,0.57
8500.00,0.57
8499.00,0.57
8498.00,0.57
8497.00,0.57
8496.00,0.57
8495.00,0.57
8494.00,0.57
8493.00,0.56
8492.00,0.56
8491.00,0.56
8490.00,0.56
8489.00,0.56
8488.00,0.56
8487.00,0.56
8486.00,0.56
8485.00,0.56
8484.00,0.56
8483.00,0.56
8482.00,0.56
8481.00,0.56
8480.00,0.56
8479.00,0.56
8478.00,0.56
8477.00,0.56
8476.00,0.56
8475.00,0.56
8474.00,0.56
8473.00,0.56
8472.00,0.56
8471.00,0.56
8470.00,0.56
8469.00,0.57
8468.00,0.57
8467.00,0.57
8466.00,0.57
8465.00,0.57
8464.00,0.57
8463.00,0.56
8462.00,0.56
8461.00,0.56
8460.00,0.56
8459.00,0.56
8458.00,0.56
8457.00,0.56
8456.00,0.56
8455.00,0.56
8454.00,0.56
8453.00,0.56
8452.00,0.56
8451.00,0.56
8450.00,0.56
8449.00,0.56
8448.00,0.56
8447.00,0.56
8446.00,0.56
8445.00,0.56
8444.00,0.56
8443.00,0.56
8442.00,0.56
8441.00,0.56
8440.00,0.56
8439.00,0.56
8438.00,0.56
8437.00,0.56
8436.00,0.56
8435.00,0.56
8434.00,0.56
8433.00,0.56
8432.00,0.56
8431.00,0.56
8430.00,0.56
8429.00,0.56
8428.00,0.55
8427.00,0.55
8426.00,0.55
8425.00,0.55
8424.00,0.55
8423.00,0.55
8422.00,0.55
8421.00,0.55
8420.00,0.55
8419.00,0.55
8418.00,0.55
8417.00,0.56
8416.00,0.56
8415.00,0.56
8414.00,0.56
8413.00,0.56
8412.00,0.56
8411.00,0.56
8410.00,0.56
8409.00,0.56
8408.00,0.56
8407.00,0.56
8406.00,0.56
8405.00,0.56
8404.00,0.56
8403.00,0.56
8402.00,0.56
8401.00,0.56
8400.00,0.56
8399.00,0.56
8398.00,0.56
8397.00,0.56
8396.00,0.56
8395.00,0.56
8394.00,0.56
8393.00,0.56
8392.00,0.56
8391.00,0.56
8390.00,0.56
8389.00,0.56
8388.00,0.56
8387.00,0.57
8386.00,0.57
8385.00,0.57
8384.00,0.57
8383.00,0.57
8382.00,0.57
8381.00,0.57
8380.00,0.57
8379.00,0.57
8378.00,0.57
8377.00,0.57
8376.00,0.57
8375.00,0.57
8374.00,0.57
8373.00,0.57
8372.00,0.57
8371.00,0.57
8370.00,0.57
8369.00,0.57
8368.00,0.57
8367.00,0.57
8366.00,0.57
8365.00,0.57
8364.00,0.57
8363.00,0.57
8362.00,0.57
8361.00,0.57
8360.00,0.57
8359.00,0.57
8358.00,0.57
8357.00,0.57
8356.00,0.57
8355.00,0.57
8354.00,0.57
8353.00,0.57
8352.00,0.57
8351.00,0.57
8350.00,0.57
8349.00,0.57
8348.00,0.57
8347.00,0.57
8346.00,0.57
8345.00,0.57
8344.00,0.57
8343.00,0.56
8342.00,0.56
8341.00,0.56
8340.00,0.56
8339.00,0.56
8338.00,0.56
8337.00,0.56
8336.00,0.56
8335.00,0.56
8334.00,0.56
8333.00,0.56
8332.00,0.56
8331.00,0.56
8330.00,0.57
8329.00,0.57
8328.00,0.57
8327.00,0.57
8326.00,0.57
8325.00,0.57
8324.00,0.57
8323.00,0.57
8322.00,0.57
8321.00,0.57
8320.00,0.57
8319.00,0.57
8318.00,0.57
8317.00,0.57
8316.00,0.58
8315.00,0.58
8314.00,0.58
8313.00,0.58
8312.00,0.58
8311.00,0.58
8310.00,0.58
8309.00,0.58
8308.00,0.58
8307.00,0.58
8306.00,0.58
8305.00,0.58
8304.00,0.58
8303.00,0.57
8302.00,0.57
8301.00,0.57
8300.00,0.57
8299.00,0.57
8298.00,0.57
8297.00,0.57
8296.00,0.57
8295.00,0.57
8294.00,0.57
8293.00,0.57
8292.00,0.57
8291.00,0.57
8290.00,0.57
8289.00,0.57
8288.00,0.57
8287.00,0.57
8286.00,0.57
8285.00,0.57
8284.00,0.57
8283.00,0.57
8282.00,0.57
8281.00,0.58
8280.00,0.58
8279.00,0.58
8278.00,0.58
8277.00,0.58
8276.00,0.58
8275.00,0.58
8274.00,0.58
8273.00,0.59
8272.00,0.59
8271.00,0.59
8270.00,0.59
8269.00,0.59
8268.00,0.59
8267.00,0.59
8266.00,0.59
8265.00,0.59
8264.00,0.59
8263.00,0.59
8262.00,0.59
8261.00,0.59
8260.00,0.59
8259.00,0.59
8258.00,0.59
8257.00,0.59
8256.00,0.59
8255.00,0.58
8254.00,0.58
8253.00,0.58
8252.00,0.58
8251.00,0.58
8250.00,0.58
8249.00,0.58
8248.00,0.58
8247.00,0.58
8246.00,0.58
8245.00,0.58
8244.00,0.58
8243.00,0.58
8242.00,0.58
8241.00,0.58
8240.00,0.58
8239.00,0.58
8238.00,0.58
8237.00,0.58
8236.00,0.58
8235.00,0.58
8234.00,0.58
8233.00,0.58
8232.00,0.58
8231.00,0.58
8230.00,0.58
8229.00,0.58
8228.00,0.58
8227.00,0.59
8226.00,0.59
8225.00,0.59
8224.00,0.59
8223.00,0.59
8222.00,0.59
8221.00,0.59
8220.00,0.59
8219.00,0.59
8218.00,0.59
8217.00,0.59
8216.00,0.59
8215.00,0.59
8214.00,0.59
8213.00,0.59
8212.00,0.59
8211.00,0.60
8210.00,0.60
8209.00,0.60
8208.00,0.60
8207.00,0.60
8206.00,0.60
8205.00,0.60
8204.00,0.60
8203.00,0.60
8202.00,0.60
8201.00,0.60
8200.00,0.60
8199.00,0.60
8198.00,0.60
8197.00,0.61
8196.00,0.61
8195.00,0.61
8194.00,0.61
8193.00,0.61
8192.00,0.61
8191.00,0.61
8190.00,0.61
8189.00,0.61
8188.00,0.61
8187.00,0.61
8186.00,0.61
8185.00,0.61
8184.00,0.61
8183.00,0.61
8182.00,0.61
8181.00,0.61
8180.00,0.61
8179.00,0.61
8178.00,0.61
8177.00,0.61
8176.00,0.61
8175.00,0.61
8174.00,0.61
8173.00,0.61
8172.00,0.61
8171.00,0.61
8170.00,0.61
8169.00,0.61
8168.00,0.60
8167.00,0.60
8166.00,0.60
8165.00,0.60
8164.00,0.60
8163.00,0.60
8162.00,0.60
8161.00,0.60
8160.00,0.60
8159.00,0.60
8158.00,0.60
8157.00,0.60
8156.00,0.60
8155.00,0.60
8154.00,0.60
8153.00,0.60
8152.00,0.61
8151.00,0.61
8150.00,0.61
8149.00,0.61
8148.00,0.61
8147.00,0.61
8146.00,0.61
8145.00,0.61
8144.00,0.61
8143.00,0.61
8142.00,0.61
8141.00,0.61
8140.00,0.61
8139.00,0.60
8138.00,0.60
8137.00,0.60
8136.00,0.60
8135.00,0.60
8134.00,0.60
8133.00,0.59
8132.00,0.59
8131.00,0.59
8130.00,0.59
8129.00,0.59
8128.00,0.59
8127.00,0.59
8126.00,0.59
8125.00,0.59
8124.00,0.59
8123.00,0.59
8122.00,0.59
8121.00,0.59
8120.00,0.59
8119.00,0.59
8118.00,0.59
8117.00,0.59
8116.00,0.59
8115.00,0.59
8114.00,0.59
8113.00,0.59
8112.00,0.59
8111.00,0.59
8110.00,0.60
8109.00,0.60
8108.00,0.60
8107.00,0.60
8106.00,0.60
8105.00,0.60
8104.00,0.60
8103.00,0.60
8102.00,0.60
8101.00,0.60
8100.00,0.60
8099.00,0.60
8098.00,0.60
8097.00,0.61
8096.00,0.61
8095.00,0.61
8094.00,0.61
8093.00,0.61
8092.00,0.61
8091.00,0.61
8090.00,0.61
8089.00,0.61
8088.00,0.61
8087.00,0.61
8086.00,0.61
8085.00,0.61
8084.00,0.61
8083.00,0.61
8082.00,0.61
8081.00,0.62
8080.00,0.62
8079.00,0.62
8078.00,0.62
8077.00,0.62
8076.00,0.62
8075.00,0.62
8074.00,0.62
8073.00,0.62
8072.00,0.62
8071.00,0.62
8070.00,0.62
8069.00,0.62
8068.00,0.62
8067.00,0.62
8066.00,0.62
8065.00,0.62
8064.00,0.62
8063.00,0.62
8062.00,0.62
8061.00,0.62
8060.00,0.62
8059.00,0.62
8058.00,0.62
8057.00,0.62
8056.00,0.62
8055.00,0.62
8054.00,0.62
8053.00,0.62
8052.00,0.61
8051.00,0.61
8050.00,0.61
8049.00,0.61
8048.00,0.61
8047.00,0.61
8046.00,0.61
8045.00,0.61
8044.00,0.61
8043.00,0.61
8042.00,0.61
8041.00,0.61
8040.00,0.61
8039.00,0.61
8038.00,0.61
8037.00,0.61
8036.00,0.61
8035.00,0.61
8034.00,0.61
8033.00,0.61
8032.00,0.61
8031.00,0.61
8030.00,0.61
8029.00,0.61
8028.00,0.61
8027.00,0.61
8026.00,0.61
8025.00,0.61
8024.00,0.61
8023.00,0.61
8022.00,0.61
8021.00,0.61
8020.00,0.61
8019.00,0.61
8018.00,0.61
8017.00,0.61
8016.00,0.61
8015.00,0.61
8014.00,0.61
8013.00,0.61
8012.00,0.61
8011.00,0.61
8010.00,0.61
8009.00,0.61
8008.00,0.61
8007.00,0.61
8006.00,0.61
8005.00,0.61
8004.00,0.61
8003.00,0.61
8002.00,0.61
8001.00,0.61
8000.00,0.62
7999.00,0.62
7998.00,0.62
7997.00,0.62
7996.00,0.62
7995.00,0.62
7994.00,0.62
7993.00,0.62
7992.00,0.62
7991.00,0.62
7990.00,0.62
7989.00,0.62
7988.00,0.62
7987.00,0.62
7986.00,0.62
7985.00,0.62
7984.00,0.62
7983.00,0.62
7982.00,0.62
7981.00,0.62
7980.00,0.62
7979.00,0.62
7978.00,0.62
7977.00,0.62
7976.00,0.62
7975.00,0.62
7974.00,0.62
7973.00,0.62
7972.00,0.62
7971.00,0.62
7970.00,0.62
7969.00,0.62
7968.00,0.62
7967.00,0.62
7966.00,0.62
7965.00,0.62
7964.00,0.62
7963.00,0.62
7962.00,0.62
7961.00,0.62
7960.00,0.62
7959.00,0.62
7958.00,0.62
7957.00,0.62
7956.00,0.62
7955.00,0.62
7954.00,0.62
7953.00,0.62
7952.00,0.62
7951.00,0.62
7950.00,0.62
7949.00,0.62
7948.00,0.62
7947.00,0.62
7946.00,0.62
7945.00,0.62
7944.00,0.61
7943.00,0.61
7942.00,0.61
7941.00,0.61
7940.00,0.61
7939.00,0.61
7938.00,0.62
7937.00,0.62
7936.00,0.62
7935.00,0.62
7934.00,0.62
7933.00,0.62
7932.00,0.62
7931.00,0.62
7930.00,0.62
7929.00,0.62
7928.00,0.62
7927.00,0.62
7926.00,0.62
7925.00,0.62
7924.00,0.62
7923.00,0.62
7922.00,0.62
7921.00,0.62
7920.00,0.62
7919.00,0.62
7918.00,0.62
7917.00,0.62
7916.00,0.62
7915.00,0.62
7914.00,0.62
7913.00,0.62
7912.00,0.62
7911.00,0.62
7910.00,0.62
7909.00,0.62
7908.00,0.62
7907.00,0.62
7906.00,0.62
7905.00,0.62
7904.00,0.62
7903.00,0.62
7902.00,0.62
7901.00,0.62
7900.00,0.62
7899.00,0.62
7898.00,0.63
7897.00,0.63
7896.00,0.63
7895.00,0.63
7894.00,0.63
7893.00,0.63
7892.00,0.63
7891.00,0.63
7890.00,0.63
7889.00,0.63
7888.00,0.63
7887.00,0.63
7886.00,0.64
7885.00,0.64
7884.00,0.64
7883.00,0.64
7882.00,0.64
7881.00,0.64
7880.00,0.64
7879.00,0.64
7878.00,0.63
7877.00,0.63
7876.00,0.63
7875.00,0.63
7874.00,0.63
7873.00,0.63
7872.00,0.63
7871.00,0.63
7870.00,0.63
7869.00,0.63
7868.00,0.63
7867.00,0.63
7866.00,0.63
7865.00,0.63
7864.00,0.63
7863.00,0.63
7862.00,0.62
7861.00,0.62
7860.00,0.62
7859.00,0.62
7858.00,0.62
7857.00,0.63
7856.00,0.63
7855.00,0.63
7854.00,0.63
7853.00,0.63
7852.00,0.63
7851.00,0.63
7850.00,0.63
7849.00,0.63
7848.00,0.63
7847.00,0.63
7846.00,0.63
7845.00,0.63
7844.00,0.63
7843.00,0.63
7842.00,0.63
7841.00,0.63
7840.00,0.63
7839.00,0.63
7838.00,0.63
7837.00,0.63
7836.00,0.63
7835.00,0.63
7834.00,0.63
7833.00,0.63
7832.00,0.63
7831.00,0.63
7830.00,0.63
7829.00,0.63
7828.00,0.63
7827.00,0.63
7826.00,0.63
7825.00,0.63
7824.00,0.63
7823.00,0.63
7822.00,0.64
7821.00,0.64
7820.00,0.64
7819.00,0.64
7818.00,0.64
7817.00,0.64
7816.00,0.64
7815.00,0.64
7814.00,0.64
7813.00,0.64
7812.00,0.64
7811.00,0.64
7810.00,0.64
7809.00,0.64
7808.00,0.64
7807.00,0.64
7806.00,0.64
7805.00,0.64
7804.00,0.64
7803.00,0.64
7802.00,0.64
7801.00,0.63
7800.00,0.63
7799.00,0.63
7798.00,0.63
7797.00,0.63
7796.00,0.63
7795.00,0.63
7794.00,0.63
7793.00,0.63
7792.00,0.63
7791.00,0.63
7790.00,0.63
7789.00,0.63
7788.00,0.63
7787.00,0.63
7786.00,0.63
7785.00,0.63
7784.00,0.63
7783.00,0.63
7782.00,0.63
7781.00,0.63
7780.00,0.63
7779.00,0.63
7778.00,0.63
7777.00,0.64
7776.00,0.64
7775.00,0.64
7774.00,0.64
7773.00,0.64
7772.00,0.64
7771.00,0.64
7770.00,0.64
7769.00,0.64
7768.00,0.64
7767.00,0.64
7766.00,0.63
7765.00,0.63
7764.00,0.63
7763.00,0.63
7762.00,0.63
7761.00,0.63
7760.00,0.63
7759.00,0.63
7758.00,0.63
7757.00,0.63
7756.00,0.63
7755.00,0.63
7754.00,0.63
7753.00,0.63
7752.00,0.63
7751.00,0.63
7750.00,0.63
7749.00,0.63
7748.00,0.63
7747.00,0.63
7746.00,0.63
7745.00,0.63
7744.00,0.63
7743.00,0.63
7742.00,0.63
7741.00,0.63
7740.00,0.63
7739.00,0.63
7738.00,0.63
7737.00,0.63
7736.00,0.63
7735.00,0.63
7734.00,0.63
7733.00,0.63
7732.00,0.63
7731.00,0.63
7730.00,0.63
7729.00,0.63
7728.00,0.63
7727.00,0.63
7726.00,0.63
7725.00,0.64
7724.00,0.64
7723.00,0.64
7722.00,0.64
7721.00,0.64
7720.00,0.64
7719.00,0.64
7718.00,0.64
7717.00,0.64
7716.00,0.64
7715.00,0.64
7714.00,0.64
7713.00,0.64
7712.00,0.64
7711.00,0.64
7710.00,0.64
7709.00,0.64
7708.00,0.64
7707.00,0.64
7706.00,0.64
7705.00,0.64
7704.00,0.64
7703.00,0.64
7702.00,0.64
7701.00,0.64
7700.00,0.63
7699.00,0.63
7698.00,0.63
7697.00,0.63
7696.00,0.63
7695.00,0.63
7694.00,0.63
7693.00,0.63
7692.00,0.63
7691.00,0.63
7690.00,0.63
7689.00,0.63
7688.00,0.63
7687.00,0.64
7686.00,0.64
7685.00,0.64
7684.00,0.64
7683.00,0.64
7682.00,0.64
7681.00,0.64
7680.00,0.64
7679.00,0.64
7678.00,0.64
7677.00,0.64
7676.00,0.64
7675.00,0.64
7674.00,0.64
7673.00,0.64
7672.00,0.64
7671.00,0.64
7670.00,0.64
7669.00,0.64
7668.00,0.64
7667.00,0.64
7666.00,0.64
7665.00,0.64
7664.00,0.64
7663.00,0.64
7662.00,0.64
7661.00,0.64
7660.00,0.64
7659.00,0.64
7658.00,0.64
7657.00,0.64
7656.00,0.64
7655.00,0.64
7654.00,0.64
7653.00,0.64
7652.00,0.64
7651.00,0.64
7650.00,0.64
7649.00,0.64
7648.00,0.64
7647.00,0.64
7646.00,0.64
7645.00,0.64
7644.00,0.64
7643.00,0.64
7642.00,0.64
7641.00,0.64
7640.00,0.64
7639.00,0.64
7638.00,0.64
7637.00,0.64
7636.00,0.64
7635.00,0.64
7634.00,0.64
7633.00,0.64
7632.00,0.64
7631.00,0.64
7630.00,0.64
7629.00,0.63
7628.00,0.63
7627.00,0.63
7626.00,0.63
7625.00,0.63
7624.00,0.63
7623.00,0.63
7622.00,0.63
7621.00,0.63
7620.00,0.63
7619.00,0.63
7618.00,0.63
7617.00,0.63
7616.00,0.63
7615.00,0.63
7614.00,0.63
7613.00,0.63
7612.00,0.63
7611.00,0.63
7610.00,0.63
7609.00,0.63
7608.00,0.64
7607.00,0.64
7606.00,0.64
7605.00,0.64
7604.00,0.64
7603.00,0.64
7602.00,0.64
7601.00,0.64
7600.00,0.64
7599.00,0.64
7598.00,0.64
7597.00,0.64
7596.00,0.64
7595.00,0.64
7594.00,0.64
7593.00,0.64
7592.00,0.64
7591.00,0.64
7590.00,0.64
7589.00,0.64
7588.00,0.64
7587.00,0.64
7586.00,0.64
7585.00,0.64
7584.00,0.64
7583.00,0.64
7582.00,0.64
7581.00,0.64
7580.00,0.64
7579.00,0.64
7578.00,0.64
7577.00,0.64
7576.00,0.64
7575.00,0.64
7574.00,0.64
7573.00,0.64
7572.00,0.64
7571.00,0.64
7570.00,0.64
7569.00,0.64
7568.00,0.64
7567.00,0.64
7566.00,0.64
7565.00,0.64
7564.00,0.64
7563.00,0.64
7562.00,0.64
7561.00,0.63
7560.00,0.63
7559.00,0.63
7558.00,0.63
7557.00,0.63
7556.00,0.63
7555.00,0.63
7554.00,0.63
7553.00,0.63
7552.00,0.63
7551.00,0.63
7550.00,0.63
7549.00,0.63
7548.00,0.63
7547.00,0.63
7546.00,0.63
7545.00,0.63
7544.00,0.63
7543.00,0.63
7542.00,0.63
7541.00,0.63
7540.00,0.63
7539.00,0.63
7538.00,0.63
7537.00,0.63
7536.00,0.63
7535.00,0.63
7534.00,0.63
7533.00,0.63
7532.00,0.63
7531.00,0.63
7530.00,0.63
7529.00,0.63
7528.00,0.63
7527.00,0.63
7526.00,0.63
7525.00,0.63
7524.00,0.63
7523.00,0.63
7522.00,0.63
7521.00,0.63
7520.00,0.62
7519.00,0.62
7518.00,0.62
7517.00,0.62
7516.00,0.62
7515.00,0.62
7514.00,0.62
7513.00,0.62
7512.00,0.62
7511.00,0.62
7510.00,0.62
7509.00,0.62
7508.00,0.62
7507.00,0.62
7506.00,0.62
7505.00,0.62
7504.00,0.62
7503.00,0.62
7502.00,0.62
7501.00,0.62
7500.00,0.62
7499.00,0.62
7498.00,0.62
7497.00,0.62
7496.00,0.62
7495.00,0.62
7494.00,0.62
7493.00,0.62
7492.00,0.62
7491.00,0.62
7490.00,0.62
7489.00,0.62
7488.00,0.62
7487.00,0.62
7486.00,0.62
7485.00,0.62
7484.00,0.62
7483.00,0.62
7482.00,0.62
7481.00,0.62
7480.00,0.62
7479.00,0.62
7478.00,0.62
7477.00,0.62
7476.00,0.62
7475.00,0.62
7474.00,0.62
7473.00,0.62
7472.00,0.62
7471.00,0.62
7470.00,0.62
7469.00,0.62
7468.00,0.62
7467.00,0.62
7466.00,0.62
7465.00,0.62
7464.00,0.62
7463.00,0.62
7462.00,0.62
7461.00,0.62
7460.00,0.61
7459.00,0.61
7458.00,0.61
7457.00,0.61
7456.00,0.61
7455.00,0.61
7454.00,0.61
7453.00,0.61
7452.00,0.61
7451.00,0.61
7450.00,0.61
7449.00,0.61
7448.00,0.61
7447.00,0.61
7446.00,0.61
7445.00,0.61
7444.00,0.61
7443.00,0.61
7442.00,0.61
7441.00,0.61
7440.00,0.61
7439.00,0.61
7438.00,0.61
7437.00,0.61
7436.00,0.61
7435.00,0.61
7434.00,0.61
7433.00,0.61
7432.00,0.61
7431.00,0.61
7430.00,0.61
7429.00,0.60
7428.00,0.60
7427.00,0.60
7426.00,0.60
7425.00,0.60
7424.00,0.60
7423.00,0.60
7422.00,0.60
7421.00,0.60
7420.00,0.60
7419.00,0.60
7418.00,0.60
7417.00,0.60
7416.00,0.60
7415.00,0.60
7414.00,0.60
7413.00,0.60
7412.00,0.60
7411.00,0.60
7410.00,0.60
7409.00,0.60
7408.00,0.60
7407.00,0.60
7406.00,0.60
7405.00,0.60
7404.00,0.60
7403.00,0.60
7402.00,0.60
7401.00,0.60
7400.00,0.60
7399.00,0.60
7398.00,0.60
7397.00,0.60
7396.00,0.60
7395.00,0.60
7394.00,0.60
7393.00,0.60
7392.00,0.59
7391.00,0.59
7390.00,0.59
7389.00,0.59
7388.00,0.59
7387.00,0.59
7386.00,0.59
7385.00,0.59
7384.00,0.59
7383.00,0.59
7382.00,0.59
7381.00,0.59
7380.00,0.58
7379.00,0.58
7378.00,0.58
7377.00,0.58
7376.00,0.58
7375.00,0.58
7374.00,0.58
7373.00,0.58
7372.00,0.58
7371.00,0.58
7370.00,0.58
7369.00,0.58
7368.00,0.58
7367.00,0.58
7366.00,0.58
7365.00,0.58
7364.00,0.58
7363.00,0.58
7362.00,0.58
7361.00,0.58
7360.00,0.58
7359.00,0.58
7358.00,0.58
7357.00,0.58
7356.00,0.58
7355.00,0.58
7354.00,0.58
7353.00,0.58
7352.00,0.58
7351.00,0.58
7350.00,0.58
7349.00,0.57
7348.00,0.57
7347.00,0.57
7346.00,0.57
7345.00,0.57
7344.00,0.57
7343.00,0.57
7342.00,0.57
7341.00,0.57
7340.00,0.57
7339.00,0.57
7338.00,0.57
7337.00,0.57
7336.00,0.57
7335.00,0.57
7334.00,0.57
7333.00,0.57
7332.00,0.57
7331.00,0.57
7330.00,0.57
7329.00,0.57
7328.00,0.57
7327.00,0.57
7326.00,0.57
7325.00,0.57
7324.00,0.57
7323.00,0.57
7322.00,0.57
7321.00,0.57
7320.00,0.57
7319.00,0.57
7318.00,0.58
7317.00,0.58
7316.00,0.58
7315.00,0.58
7314.00,0.58
7313.00,0.58
7312.00,0.58
7311.00,0.57
7310.00,0.57
7309.00,0.57
7308.00,0.57
7307.00,0.57
7306.00,0.57
7305.00,0.57
7304.00,0.57
7303.00,0.57
7302.00,0.57
7301.00,0.56
7300.00,0.56
7299.00,0.56
7298.00,0.56
7297.00,0.56
7296.00,0.56
7295.00,0.56
7294.00,0.56
7293.00,0.56
7292.00,0.56
7291.00,0.56
7290.00,0.56
7289.00,0.56
7288.00,0.56
7287.00,0.56
7286.00,0.56
7285.00,0.56
7284.00,0.56
7283.00,0.56
7282.00,0.56
7281.00,0.56
7280.00,0.56
7279.00,0.56
7278.00,0.56
7277.00,0.56
7276.00,0.56
7275.00,0.55
7274.00,0.55
7273.00,0.55
7272.00,0.55
7271.00,0.55
7270.00,0.55
7269.00,0.55
7268.00,0.55
7267.00,0.55
7266.00,0.55
7265.00,0.54
7264.00,0.54
7263.00,0.54
7262.00,0.54
7261.00,0.54
7260.00,0.54
7259.00,0.54
7258.00,0.53
7257.00,0.53
7256.00,0.53
7255.00,0.53
7254.00,0.53
7253.00,0.53
7252.00,0.53
7251.00,0.52
7250.00,0.52
7249.00,0.52
7248.00,0.52
7247.00,0.52
7246.00,0.52
7245.00,0.52
7244.00,0.52
7243.00,0.51
7242.00,0.51
7241.00,0.51
7240.00,0.51
7239.00,0.51
7238.00,0.51
7237.00,0.50
7236.00,0.50
7235.00,0.50
7234.00,0.50
7233.00,0.50
7232.00,0.50
7231.00,0.49
7230.00,0.49
7229.00,0.49
7228.00,0.49
7227.00,0.49
7226.00,0.48
7225.00,0.48
7224.00,0.48
7223.00,0.48
7222.00,0.48
7221.00,0.48
7220.00,0.47
7219.00,0.47
7218.00,0.47
7217.00,0.47
7216.00,0.47
7215.00,0.47
7214.00,0.47
7213.00,0.46
7212.00,0.46
7211.00,0.46
7210.00,0.46
7209.00,0.46
7208.00,0.46
7207.00,0.46
7206.00,0.46
7205.00,0.45
7204.00,0.45
7203.00,0.45
7202.00,0.45
7201.00,0.45
7200.00,0.45
7199.00,0.45
7198.00,0.44
7197.00,0.44
7196.00,0.44
7195.00,0.44
7194.00,0.44
7193.00,0.44
7192.00,0.43
7191.00,0.43
7190.00,0.43
7189.00,0.43
7188.00,0.43
7187.00,0.43
7186.00,0.42
7185.00,0.42
7184.00,0.42
7183.00,0.42
7182.00,0.42
7181.00,0.42
7180.00,0.41
7179.00,0.41
7178.00,0.41
7177.00,0.41
7176.00,0.41
7175.00,0.41
7174.00,0.40
7173.00,0.40
7172.00,0.40
7171.00,0.40
7170.00,0.40
7169.00,0.40
7168.00,0.39
7167.00,0.39
7166.00,0.39
7165.00,0.39
7164.00,0.39
7163.00,0.38
7162.00,0.38
7161.00,0.38
7160.00,0.38
7159.00,0.38
7158.00,0.38
7157.00,0.38
7156.00,0.37
7155.00,0.37
7154.00,0.37
7153.00,0.37
7152.00,0.37
7151.00,0.37
7150.00,0.37
7149.00,0.37
7148.00,0.37
7147.00,0.37
7146.00,0.37
7145.00,0.37
7144.00,0.37
7143.00,0.37
7142.00,0.37
7141.00,0.37
7140.00,0.37
7139.00,0.37
7138.00,0.37
7137.00,0.36
7136.00,0.36
7135.00,0.36
7134.00,0.36
7133.00,0.36
7132.00,0.36
7131.00,0.35
7130.00,0.35
7129.00,0.35
7128.00,0.35
7127.00,0.35
7126.00,0.35
7125.00,0.35
7124.00,0.35
7123.00,0.34
7122.00,0.34
7121.00,0.34
7120.00,0.34
7119.00,0.34
7118.00,0.34
7117.00,0.34
7116.00,0.34
7115.00,0.33
7114.00,0.33
7113.00,0.33
7112.00,0.33
7111.00,0.33
7110.00,0.33
7109.00,0.33
7108.00,0.32
7107.00,0.32
7106.00,0.32
7105.00,0.32
7104.00,0.32
7103.00,0.32
7102.00,0.32
7101.00,0.32
7100.00,0.32
7099.00,0.31
7098.00,0.31
7097.00,0.31
7096.00,0.31
7095.00,0.31
7094.00,0.31
7093.00,0.31
7092.00,0.31
7091.00,0.31
7090.00,0.31
7089.00,0.31
7088.00,0.31
7087.00,0.31
7086.00,0.31
7085.00,0.31
7084.00,0.31
7083.00,0.31
7082.00,0.31
7081.00,0.31
7080.00,0.31
7079.00,0.31
7078.00,0.30
7077.00,0.30
7076.00,0.30
7075.00,0.30
7074.00,0.30
7073.00,0.30
7072.00,0.30
7071.00,0.30
7070.00,0.30
7069.00,0.29
7068.00,0.29
7067.00,0.29
7066.00,0.29
7065.00,0.29
7064.00,0.29
7063.00,0.29
7062.00,0.29
7061.00,0.29
7060.00,0.29
7059.00,0.29
7058.00,0.29
7057.00,0.29
7056.00,0.29
7055.00,0.29
7054.00,0.29
7053.00,0.29
7052.00,0.29
7051.00,0.29
7050.00,0.29
7049.00,0.29
7048.00,0.29
7047.00,0.29
7046.00,0.29
7045.00,0.29
7044.00,0.29
7043.00,0.29
7042.00,0.29
7041.00,0.29
7040.00,0.29
7039.00,0.29
7038.00,0.29
7037.00,0.29
7036.00,0.29
7035.00,0.29
7034.00,0.29
7033.00,0.28
7032.00,0.28
7031.00,0.28
7030.00,0.28
7029.00,0.28
7028.00,0.28
7027.00,0.28
7026.00,0.28
7025.00,0.28
7024.00,0.28
7023.00,0.28
7022.00,0.28
7021.00,0.28
7020.00,0.28
7019.00,0.28
7018.00,0.27
7017.00,0.27
7016.00,0.27
7015.00,0.27
7014.00,0.27
7013.00,0.27
7012.00,0.27
7011.00,0.27
7010.00,0.27
7009.00,0.27
7008.00,0.27
7007.00,0.27
7006.00,0.27
7005.00,0.27
7004.00,0.27
7003.00,0.27
7002.00,0.27
7001.00,0.27
7000.00,0.27
6999.00,0.27
6998.00,0.27
6997.00,0.28
6996.00,0.28
6995.00,0.28
6994.00,0.28
6993.00,0.28
6992.00,0.28
6991.00,0.28
6990.00,0.28
6989.00,0.28
6988.00,0.28
6987.00,0.28
6986.00,0.28
6985.00,0.28
6984.00,0.28
6983.00,0.28
6982.00,0.28
6981.00,0.28
6980.00,0.28
6979.00,0.28
6978.00,0.28
6977.00,0.28
6976.00,0.28
6975.00,0.28
6974.00,0.28
6973.00,0.28
6972.00,0.28
6971.00,0.28
6970.00,0.28
6969.00,0.28
6968.00,0.28
6967.00,0.28
6966.00,0.28
6965.00,0.28
6964.00,0.28
6963.00,0.28
6962.00,0.28
6961.00,0.28
6960.00,0.28
6959.00,0.28
6958.00,0.28
6957.00,0.28
6956.00,0.28
6955.00,0.28
6954.00,0.28
6953.00,0.28
6952.00,0.28
6951.00,0.28
6950.00,0.28
6949.00,0.28
6948.00,0.28
6947.00,0.27
6946.00,0.27
6945.00,0.27
6944.00,0.27
6943.00,0.27
6942.00,0.27
6941.00,0.27
6940.00,0.27
6939.00,0.27
6938.00,0.27
6937.00,0.27
6936.00,0.27
6935.00,0.27
6934.00,0.27
6933.00,0.27
6932.00,0.27
6931.00,0.27
6930.00,0.27
6929.00,0.27
6928.00,0.27
6927.00,0.27
6926.00,0.27
6925.00,0.27
6924.00,0.27
6923.00,0.27
6922.00,0.27
6921.00,0.27
6920.00,0.27
6919.00,0.27
6918.00,0.27
6917.00,0.27
6916.00,0.27
6915.00,0.27
6914.00,0.27
6913.00,0.27
6912.00,0.27
6911.00,0.27
6910.00,0.27
6909.00,0.27
6908.00,0.27
6907.00,0.27
6906.00,0.27
6905.00,0.27
6904.00,0.27
6903.00,0.27
6902.00,0.27
6901.00,0.27
6900.00,0.27
6899.00,0.27
6898.00,0.27
6897.00,0.27
6896.00,0.27
6895.00,0.27
6894.00,0.27
6893.00,0.27
6892.00,0.27
6891.00,0.27
6890.00,0.27
6889.00,0.27
6888.00,0.27
6887.00,0.27
6886.00,0.27
6885.00,0.27
6884.00,0.27
6883.00,0.27
6882.00,0.27
6881.00,0.27
6880.00,0.27
6879.00,0.27
6878.00,0.27
6877.00,0.27
6876.00,0.27
6875.00,0.27
6874.00,0.27
6873.00,0.27
6872.00,0.27
6871.00,0.27
6870.00,0.27
6869.00,0.27
6868.00,0.27
6867.00,0.27
6866.00,0.27
6865.00,0.27
6864.00,0.27
6863.00,0.27
6862.00,0.27
6861.00,0.27
6860.00,0.27
6859.00,0.27
6858.00,0.28
6857.00,0.28
6856.00,0.28
6855.00,0.28
6854.00,0.28
6853.00,0.28
6852.00,0.28
6851.00,0.28
6850.00,0.28
6849.00,0.28
6848.00,0.28
6847.00,0.28
6846.00,0.28
6845.00,0.27
6844.00,0.27
6843.00,0.27
6842.00,0.27
6841.00,0.27
6840.00,0.27
6839.00,0.27
6838.00,0.27
6837.00,0.27
6836.00,0.27
6835.00,0.27
6834.00,0.27
6833.00,0.27
6832.00,0.27
6831.00,0.27
6830.00,0.27
6829.00,0.27
6828.00,0.28
6827.00,0.28
6826.00,0.28
6825.00,0.28
6824.00,0.28
6823.00,0.28
6822.00,0.28
6821.00,0.28
6820.00,0.28
6819.00,0.28
6818.00,0.28
6817.00,0.28
6816.00,0.28
6815.00,0.28
6814.00,0.28
6813.00,0.28
6812.00,0.28
6811.00,0.28
6810.00,0.28
6809.00,0.28
6808.00,0.28
6807.00,0.28
6806.00,0.28
6805.00,0.28
6804.00,0.28
6803.00,0.28
6802.00,0.28
6801.00,0.28
6800.00,0.28
6799.00,0.28
6798.00,0.28
6797.00,0.28
6796.00,0.28
6795.00,0.28
6794.00,0.28
6793.00,0.28
6792.00,0.28
6791.00,0.28
6790.00,0.28
6789.00,0.28
6788.00,0.28
6787.00,0.28
6786.00,0.28
6785.00,0.28
6784.00,0.28
6783.00,0.28
6782.00,0.28
6781.00,0.28
6780.00,0.28
6779.00,0.28
6778.00,0.28
6777.00,0.28
6776.00,0.28
6775.00,0.28
6774.00,0.28
6773.00,0.28
6772.00,0.28
6771.00,0.28
6770.00,0.28
6769.00,0.28
6768.00,0.28
6767.00,0.28
6766.00,0.28
6765.00,0.28
6764.00,0.28
6763.00,0.28
6762.00,0.28
6761.00,0.28
6760.00,0.28
6759.00,0.29
6758.00,0.29
6757.00,0.29
6756.00,0.29
6755.00,0.29
6754.00,0.29
6753.00,0.29
6752.00,0.29
6751.00,0.29
6750.00,0.29
6749.00,0.29
6748.00,0.29
6747.00,0.29
6746.00,0.29
6745.00,0.29
6744.00,0.29
6743.00,0.29
6742.00,0.29
6741.00,0.29
6740.00,0.29
6739.00,0.29
6738.00,0.29
6737.00,0.29
6736.00,0.29
6735.00,0.29
6734.00,0.29
6733.00,0.29
6732.00,0.29
6731.00,0.29
6730.00,0.29
6729.00,0.29
6728.00,0.29
6727.00,0.29
6726.00,0.30
6725.00,0.30
6724.00,0.30
6723.00,0.30
6722.00,0.30
6721.00,0.30
6720.00,0.30
6719.00,0.30
6718.00,0.30
6717.00,0.30
6716.00,0.30
6715.00,0.30
6714.00,0.30
6713.00,0.30
6712.00,0.30
6711.00,0.30
6710.00,0.30
6709.00,0.30
6708.00,0.30
6707.00,0.30
6706.00,0.30
6705.00,0.30
6704.00,0.30
6703.00,0.30
6702.00,0.30
6701.00,0.30
6700.00,0.30
6699.00,0.30
6698.00,0.30
6697.00,0.30
6696.00,0.30
6695.00,0.30
6694.00,0.30
6693.00,0.31
6692.00,0.31
6691.00,0.31
6690.00,0.31
6689.00,0.31
6688.00,0.31
6687.00,0.31
6686.00,0.31
6685.00,0.31
6684.00,0.31
6683.00,0.31
6682.00,0.31
6681.00,0.31
6680.00,0.31
6679.00,0.32
6678.00,0.32
6677.00,0.32
6676.00,0.32
6675.00,0.32
6674.00,0.32
6673.00,0.32
6672.00,0.32
6671.00,0.32
6670.00,0.32
6669.00,0.32
6668.00,0.32
6667.00,0.32
6666.00,0.32
6665.00,0.32
6664.00,0.32
6663.00,0.32
6662.00,0.32
6661.00,0.32
6660.00,0.32
6659.00,0.32
6658.00,0.33
6657.00,0.33
6656.00,0.33
6655.00,0.33
6654.00,0.33
6653.00,0.33
6652.00,0.33
6651.00,0.33
6650.00,0.33
6649.00,0.33
6648.00,0.33
6647.00,0.33
6646.00,0.33
6645.00,0.33
6644.00,0.33
6643.00,0.33
6642.00,0.33
6641.00,0.33
6640.00,0.33
6639.00,0.33
6638.00,0.33
6637.00,0.33
6636.00,0.33
6635.00,0.33
6634.00,0.33
6633.00,0.33
6632.00,0.33
6631.00,0.33
6630.00,0.33
6629.00,0.33
6628.00,0.33
6627.00,0.33
6626.00,0.33
6625.00,0.33
6624.00,0.34
6623.00,0.34
6622.00,0.34
6621.00,0.34
6620.00,0.34
6619.00,0.34
6618.00,0.34
6617.00,0.34
6616.00,0.34
6615.00,0.34
6614.00,0.34
6613.00,0.34
6612.00,0.34
6611.00,0.34
6610.00,0.34
6609.00,0.34
6608.00,0.34
6607.00,0.34
6606.00,0.35
6605.00,0.35
6604.00,0.35
6603.00,0.35
6602.00,0.35
6601.00,0.35
6600.00,0.35
6599.00,0.35
6598.00,0.35
6597.00,0.35
6596.00,0.35
6595.00,0.35
6594.00,0.35
6593.00,0.35
6592.00,0.35
6591.00,0.35
6590.00,0.35
6589.00,0.35
6588.00,0.35
6587.00,0.36
6586.00,0.36
6585.00,0.36
6584.00,0.36
6583.00,0.36
6582.00,0.36
6581.00,0.36
6580.00,0.36
6579.00,0.36
6578.00,0.36
6577.00,0.36
6576.00,0.36
6575.00,0.36
6574.00,0.36
6573.00,0.36
6572.00,0.36
6571.00,0.36
6570.00,0.36
6569.00,0.36
6568.00,0.36
6567.00,0.36
6566.00,0.36
6565.00,0.36
6564.00,0.36
6563.00,0.36
6562.00,0.36
6561.00,0.36
6560.00,0.37
6559.00,0.37
6558.00,0.37
6557.00,0.37
6556.00,0.37
6555.00,0.37
6554.00,0.37
6553.00,0.37
6552.00,0.37
6551.00,0.37
6550.00,0.37
6549.00,0.37
6548.00,0.37
6547.00,0.37
6546.00,0.37
6545.00,0.37
6544.00,0.37
6543.00,0.37
6542.00,0.37
6541.00,0.37
6540.00,0.37
6539.00,0.37
6538.00,0.37
6537.00,0.37
6536.00,0.38
6535.00,0.38
6534.00,0.38
6533.00,0.38
6532.00,0.38
6531.00,0.38
6530.00,0.38
6529.00,0.38
6528.00,0.38
6527.00,0.38
6526.00,0.38
6525.00,0.38
6524.00,0.38
6523.00,0.38
6522.00,0.38
6521.00,0.38
6520.00,0.38
6519.00,0.38
6518.00,0.38
6517.00,0.38
6516.00,0.38
6515.00,0.38
6514.00,0.38
6513.00,0.38
6512.00,0.38
6511.00,0.38
6510.00,0.38
6509.00,0.38
6508.00,0.39
6507.00,0.39
6506.00,0.39
6505.00,0.39
6504.00,0.39
6503.00,0.39
6502.00,0.39
6501.00,0.39
6500.00,0.39
6499.00,0.39
6498.00,0.39
6497.00,0.39
6496.00,0.39
6495.00,0.39
6494.00,0.39
6493.00,0.39
6492.00,0.39
6491.00,0.39
6490.00,0.39
6489.00,0.40
6488.00,0.40
6487.00,0.40
6486.00,0.40
6485.00,0.40
6484.00,0.40
6483.00,0.40
6482.00,0.40
6481.00,0.40
6480.00,0.40
6479.00,0.40
6478.00,0.40
6477.00,0.40
6476.00,0.40
6475.00,0.40
6474.00,0.40
6473.00,0.40
6472.00,0.40
6471.00,0.40
6470.00,0.40
6469.00,0.40
6468.00,0.40
6467.00,0.40
6466.00,0.40
6465.00,0.40
6464.00,0.40
6463.00,0.40
6462.00,0.40
6461.00,0.41
6460.00,0.41
6459.00,0.41
6458.00,0.41
6457.00,0.41
6456.00,0.41
6455.00,0.41
6454.00,0.41
6453.00,0.41
6452.00,0.41
6451.00,0.41
6450.00,0.41
6449.00,0.41
6448.00,0.41
6447.00,0.41
6446.00,0.41
6445.00,0.41
6444.00,0.41
6443.00,0.41
6442.00,0.41
6441.00,0.42
6440.00,0.42
6439.00,0.42
6438.00,0.42
6437.00,0.42
6436.00,0.42
6435.00,0.42
6434.00,0.42
6433.00,0.42
6432.00,0.42
6431.00,0.42
6430.00,0.42
6429.00,0.42
6428.00,0.42
6427.00,0.42
6426.00,0.42
6425.00,0.42
6424.00,0.42
6423.00,0.42
6422.00,0.42
6421.00,0.42
6420.00,0.42
6419.00,0.42
6418.00,0.42
6417.00,0.42
6416.00,0.42
6415.00,0.42
6414.00,0.42
6413.00,0.42
6412.00,0.42
6411.00,0.42
6410.00,0.42
6409.00,0.42
6408.00,0.42
6407.00,0.42
6406.00,0.42
6405.00,0.42
6404.00,0.42
6403.00,0.42
6402.00,0.42
6401.00,0.42
6400.00,0.43
6399.00,0.43
6398.00,0.43
6397.00,0.43
6396.00,0.43
6395.00,0.43
6394.00,0.43
6393.00,0.43
6392.00,0.43
6391.00,0.43
6390.00,0.43
6389.00,0.43
6388.00,0.43
6387.00,0.43
6386.00,0.43
6385.00,0.43
6384.00,0.43
6383.00,0.43
6382.00,0.43
6381.00,0.43
6380.00,0.43
6379.00,0.43
6378.00,0.43
6377.00,0.43
6376.00,0.43
6375.00,0.43
6374.00,0.43
6373.00,0.43
6372.00,0.43
6371.00,0.43
6370.00,0.43
6369.00,0.43
6368.00,0.44
6367.00,0.44
6366.00,0.44
6365.00,0.44
6364.00,0.44
6363.00,0.44
6362.00,0.44
6361.00,0.44
6360.00,0.44
6359.00,0.44
6358.00,0.44
6357.00,0.44
6356.00,0.44
6355.00,0.44
6354.00,0.44
6353.00,0.44
6352.00,0.44
6351.00,0.44
6350.00,0.44
6349.00,0.44
6348.00,0.44
6347.00,0.45
6346.00,0.45
6345.00,0.45
6344.00,0.45
6343.00,0.45
6342.00,0.45
6341.00,0.45
6340.00,0.45
6339.00,0.45
6338.00,0.45
6337.00,0.45
6336.00,0.45
6335.00,0.45
6334.00,0.45
6333.00,0.45
6332.00,0.46
6331.00,0.46
6330.00,0.46
6329.00,0.46
6328.00,0.46
6327.00,0.46
6326.00,0.46
6325.00,0.46
6324.00,0.46
6323.00,0.46
6322.00,0.46
6321.00,0.46
6320.00,0.46
6319.00,0.46
6318.00,0.46
6317.00,0.46
6316.00,0.46
6315.00,0.46
6314.00,0.46
6313.00,0.46
6312.00,0.46
6311.00,0.46
6310.00,0.46
6309.00,0.46
6308.00,0.46
6307.00,0.46
6306.00,0.46
6305.00,0.46
6304.00,0.46
6303.00,0.47
6302.00,0.47
6301.00,0.47
6300.00,0.47
6299.00,0.47
6298.00,0.47
6297.00,0.47
6296.00,0.47
6295.00,0.47
6294.00,0.47
6293.00,0.47
6292.00,0.47
6291.00,0.47
6290.00,0.47
6289.00,0.47
6288.00,0.48
6287.00,0.48
6286.00,0.48
6285.00,0.48
6284.00,0.48
6283.00,0.48
6282.00,0.48
6281.00,0.48
6280.00,0.48
6279.00,0.48
6278.00,0.48
6277.00,0.48
6276.00,0.48
6275.00,0.48
6274.00,0.48
6273.00,0.48
6272.00,0.49
6271.00,0.49
6270.00,0.49
6269.00,0.49
6268.00,0.49
6267.00,0.49
6266.00,0.49
6265.00,0.49
6264.00,0.49
6263.00,0.49
6262.00,0.49
6261.00,0.49
6260.00,0.49
6259.00,0.50
6258.00,0.50
6257.00,0.50
6256.00,0.50
6255.00,0.50
6254.00,0.50
6253.00,0.50
6252.00,0.50
6251.00,0.50
6250.00,0.50
6249.00,0.50
6248.00,0.50
6247.00,0.50
6246.00,0.50
6245.00,0.50
6244.00,0.50
6243.00,0.50
6242.00,0.50
6241.00,0.50
6240.00,0.50
6239.00,0.50
6238.00,0.50
6237.00,0.50
6236.00,0.50
6235.00,0.50
6234.00,0.50
6233.00,0.50
6232.00,0.51
6231.00,0.51
6230.00,0.51
6229.00,0.51
6228.00,0.51
6227.00,0.51
6226.00,0.51
6225.00,0.51
6224.00,0.51
6223.00,0.51
6222.00,0.51
6221.00,0.51
6220.00,0.52
6219.00,0.52
6218.00,0.52
6217.00,0.52
6216.00,0.52
6215.00,0.52
6214.00,0.52
6213.00,0.52
6212.00,0.52
6211.00,0.52
6210.00,0.52
6209.00,0.52
6208.00,0.52
6207.00,0.52
6206.00,0.52
6205.00,0.52
6204.00,0.53
6203.00,0.53
6202.00,0.53
6201.00,0.53
6200.00,0.53
6199.00,0.53
6198.00,0.53
6197.00,0.53
6196.00,0.53
6195.00,0.53
6194.00,0.53
6193.00,0.53
6192.00,0.53
6191.00,0.53
6190.00,0.53
6189.00,0.53
6188.00,0.53
6187.00,0.54
6186.00,0.54
6185.00,0.54
6184.00,0.54
6183.00,0.54
6182.00,0.54
6181.00,0.54
6180.00,0.54
6179.00,0.54
6178.00,0.54
6177.00,0.54
6176.00,0.54
6175.00,0.54
6174.00,0.54
6173.00,0.54
6172.00,0.54
6171.00,0.54
6170.00,0.54
6169.00,0.54
6168.00,0.54
6167.00,0.54
6166.00,0.54
6165.00,0.54
6164.00,0.54
6163.00,0.54
6162.00,0.54
6161.00,0.54
6160.00,0.55
6159.00,0.55
6158.00,0.55
6157.00,0.55
6156.00,0.55
6155.00,0.55
6154.00,0.55
6153.00,0.55
6152.00,0.55
6151.00,0.55
6150.00,0.56
6149.00,0.56
6148.00,0.56
6147.00,0.56
6146.00,0.56
6145.00,0.56
6144.00,0.56
6143.00,0.56
6142.00,0.56
6141.00,0.56
6140.00,0.56
6139.00,0.56
6138.00,0.56
6137.00,0.56
6136.00,0.56
6135.00,0.56
6134.00,0.56
6133.00,0.56
6132.00,0.57
6131.00,0.57
6130.00,0.57
6129.00,0.57
6128.00,0.57
6127.00,0.57
6126.00,0.57
6125.00,0.57
6124.00,0.57
6123.00,0.57
6122.00,0.57
6121.00,0.57
6120.00,0.57
6119.00,0.57
6118.00,0.58
6117.00,0.58
6116.00,0.58
6115.00,0.58
6114.00,0.58
6113.00,0.58
6112.00,0.58
6111.00,0.58
6110.00,0.58
6109.00,0.58
6108.00,0.58
6107.00,0.58
6106.00,0.58
6105.00,0.59
6104.00,0.59
6103.00,0.59
6102.00,0.59
6101.00,0.59
6100.00,0.59
6099.00,0.59
6098.00,0.59
6097.00,0.59
6096.00,0.59
6095.00,0.60
6094.00,0.60
6093.00,0.60
6092.00,0.60
6091.00,0.60
6090.00,0.60
6089.00,0.60
6088.00,0.60
6087.00,0.60
6086.00,0.60
6085.00,0.60
6084.00,0.60
6083.00,0.60
6082.00,0.60
6081.00,0.61
6080.00,0.61
6079.00,0.61
6078.00,0.61
6077.00,0.61
6076.00,0.61
6075.00,0.61
6074.00,0.61
6073.00,0.61
6072.00,0.61
6071.00,0.60
6070.00,0.60
6069.00,0.60
6068.00,0.60
6067.00,0.60
6066.00,0.60
6065.00,0.61
6064.00,0.61
6063.00,0.61
6062.00,0.61
6061.00,0.61
6060.00,0.61
6059.00,0.61
6058.00,0.61
6057.00,0.61
6056.00,0.61
6055.00,0.61
6054.00,0.61
6053.00,0.61
6052.00,0.61
6051.00,0.61
6050.00,0.61
6049.00,0.61
6048.00,0.61
6047.00,0.61
6046.00,0.61
6045.00,0.62
6044.00,0.62
6043.00,0.62
6042.00,0.62
6041.00,0.62
6040.00,0.62
6039.00,0.62
6038.00,0.62
6037.00,0.62
6036.00,0.62
6035.00,0.62
6034.00,0.62
6033.00,0.62
6032.00,0.62
6031.00,0.62
6030.00,0.62
6029.00,0.62
6028.00,0.62
6027.00,0.62
6026.00,0.62
6025.00,0.62
6024.00,0.62
6023.00,0.62
6022.00,0.62
6021.00,0.62
6020.00,0.62
6019.00,0.62
6018.00,0.62
6017.00,0.62
6016.00,0.62
6015.00,0.62
6014.00,0.62
6013.00,0.62
6012.00,0.62
6011.00,0.62
6010.00,0.62
6009.00,0.62
6008.00,0.62
6007.00,0.62
6006.00,0.62
6005.00,0.62
6004.00,0.62
6003.00,0.62
6002.00,0.62
6001.00,0.62
6000.00,0.62
5999.00,0.62
5998.00,0.62
5997.00,0.62
5996.00,0.62
5995.00,0.62
5994.00,0.62
5993.00,0.62
5992.00,0.62
5991.00,0.62
5990.00,0.62
5989.00,0.62
5988.00,0.62
5987.00,0.61
5986.00,0.61
5985.00,0.61
5984.00,0.61
5983.00,0.61
5982.00,0.61
5981.00,0.61
5980.00,0.61
5979.00,0.61
5978.00,0.60
5977.00,0.60
5976.00,0.60
5975.00,0.60
5974.00,0.60
5973.00,0.59
5972.00,0.59
5971.00,0.59
5970.00,0.59
5969.00,0.59
5968.00,0.58
5967.00,0.58
5966.00,0.58
5965.00,0.58
5964.00,0.58
5963.00,0.57
5962.00,0.57
5961.00,0.57
5960.00,0.57
5959.00,0.56
5958.00,0.56
5957.00,0.56
5956.00,0.56
5955.00,0.55
5954.00,0.55
5953.00,0.55
5952.00,0.55
5951.00,0.55
5950.00,0.54
5949.00,0.54
5948.00,0.54
5947.00,0.54
5946.00,0.54
5945.00,0.54
5944.00,0.54
5943.00,0.53
5942.00,0.53
5941.00,0.53
5940.00,0.53
5939.00,0.53
5938.00,0.53
5937.00,0.53
5936.00,0.53
5935.00,0.53
5934.00,0.53
5933.00,0.53
5932.00,0.53
5931.00,0.53
5930.00,0.53
5929.00,0.53
5928.00,0.53
5927.00,0.53
5926.00,0.53
5925.00,0.53
5924.00,0.53
5923.00,0.53
5922.00,0.53
5921.00,0.52
5920.00,0.52
5919.00,0.52
5918.00,0.52
5917.00,0.52
5916.00,0.52
5915.00,0.52
5914.00,0.52
5913.00,0.52
5912.00,0.51
5911.00,0.51
5910.00,0.51
5909.00,0.51
5908.00,0.51
5907.00,0.51
5906.00,0.51
5905.00,0.51
5904.00,0.51
5903.00,0.51
5902.00,0.51
5901.00,0.51
5900.00,0.51
5899.00,0.51
5898.00,0.51
5897.00,0.51
5896.00,0.51
5895.00,0.51
5894.00,0.51
5893.00,0.51
5892.00,0.51
5891.00,0.51
5890.00,0.52
5889.00,0.52
5888.00,0.52
5887.00,0.52
5886.00,0.52
5885.00,0.52
5884.00,0.52
5883.00,0.52
5882.00,0.52
5881.00,0.52
5880.00,0.53
5879.00,0.53
5878.00,0.53
5877.00,0.53
5876.00,0.53
5875.00,0.53
5874.00,0.53
5873.00,0.53
5872.00,0.53
5871.00,0.53
5870.00,0.53
5869.00,0.54
5868.00,0.54
5867.00,0.54
5866.00,0.54
5865.00,0.54
5864.00,0.54
5863.00,0.54
5862.00,0.54
5861.00,0.54
5860.00,0.54
5859.00,0.54
5858.00,0.54
5857.00,0.54
5856.00,0.54
5855.00,0.54
5854.00,0.55
5853.00,0.55
5852.00,0.55
5851.00,0.55
5850.00,0.55
5849.00,0.55
5848.00,0.55
5847.00,0.55
5846.00,0.55
5845.00,0.55
5844.00,0.55
5843.00,0.55
5842.00,0.55
5841.00,0.55
5840.00,0.55
5839.00,0.55
5838.00,0.55
5837.00,0.55
5836.00,0.55
5835.00,0.55
5834.00,0.55
5833.00,0.55
5832.00,0.55
5831.00,0.55
5830.00,0.55
5829.00,0.55
5828.00,0.55
5827.00,0.55
5826.00,0.55
5825.00,0.55
5824.00,0.55
5823.00,0.55
5822.00,0.55
5821.00,0.55
5820.00,0.55
5819.00,0.55
5818.00,0.55
5817.00,0.55
5816.00,0.55
5815.00,0.55
5814.00,0.55
5813.00,0.55
5812.00,0.55
5811.00,0.55
5810.00,0.55
5809.00,0.55
5808.00,0.55
5807.00,0.55
5806.00,0.55
5805.00,0.55
5804.00,0.55
5803.00,0.55
5802.00,0.55
5801.00,0.55
5800.00,0.55
5799.00,0.54
5798.00,0.54
5797.00,0.54
5796.00,0.54
5795.00,0.54
5794.00,0.54
5793.00,0.54
5792.00,0.54
5791.00,0.54
5790.00,0.54
5789.00,0.54
5788.00,0.54
5787.00,0.54
5786.00,0.54
5785.00,0.53
5784.00,0.53
5783.00,0.53
5782.00,0.53
5781.00,0.53
5780.00,0.53
5779.00,0.53
5778.00,0.53
5777.00,0.53
5776.00,0.53
5775.00,0.53
5774.00,0.53
5773.00,0.53
5772.00,0.53
5771.00,0.53
5770.00,0.53
5769.00,0.53
5768.00,0.53
5767.00,0.53
5766.00,0.53
5765.00,0.53
5764.00,0.54
5763.00,0.54
5762.00,0.54
5761.00,0.54
5760.00,0.54
5759.00,0.54
5758.00,0.54
5757.00,0.54
5756.00,0.54
5755.00,0.54
5754.00,0.54
5753.00,0.54
5752.00,0.54
5751.00,0.55
5750.00,0.55
5749.00,0.55
5748.00,0.55
5747.00,0.55
5746.00,0.55
5745.00,0.55
5744.00,0.55
5743.00,0.56
5742.00,0.56
5741.00,0.56
5740.00,0.56
5739.00,0.56
5738.00,0.56
5737.00,0.56
5736.00,0.56
5735.00,0.56
5734.00,0.56
5733.00,0.56
5732.00,0.56
5731.00,0.56
5730.00,0.56
5729.00,0.56
5728.00,0.56
5727.00,0.56
5726.00,0.56
5725.00,0.56
5724.00,0.56
5723.00,0.56
5722.00,0.56
5721.00,0.56
5720.00,0.56
5719.00,0.56
5718.00,0.56
5717.00,0.56
5716.00,0.56
5715.00,0.56
5714.00,0.56
5713.00,0.56
5712.00,0.56
5711.00,0.56
5710.00,0.56
5709.00,0.56
5708.00,0.56
5707.00,0.56
5706.00,0.56
5705.00,0.56
5704.00,0.56
5703.00,0.56
5702.00,0.55
5701.00,0.55
5700.00,0.55
5699.00,0.55
5698.00,0.55
5697.00,0.55
5696.00,0.55
5695.00,0.55
5694.00,0.55
5693.00,0.55
5692.00,0.55
5691.00,0.55
5690.00,0.55
5689.00,0.55
5688.00,0.55
5687.00,0.55
5686.00,0.55
5685.00,0.55
5684.00,0.55
5683.00,0.55
5682.00,0.55
5681.00,0.55
5680.00,0.55
5679.00,0.55
5678.00,0.55
5677.00,0.55
5676.00,0.55
5675.00,0.55
5674.00,0.55
5673.00,0.55
5672.00,0.54
5671.00,0.54
5670.00,0.54
5669.00,0.54
5668.00,0.54
5667.00,0.54
5666.00,0.54
5665.00,0.54
5664.00,0.54
5663.00,0.54
5662.00,0.54
5661.00,0.55
5660.00,0.55
5659.00,0.55
5658.00,0.55
5657.00,0.55
5656.00,0.55
5655.00,0.55
5654.00,0.55
5653.00,0.55
5652.00,0.55
5651.00,0.55
5650.00,0.55
5649.00,0.55
5648.00,0.55
5647.00,0.55
5646.00,0.56
5645.00,0.56
5644.00,0.56
5643.00,0.56
5642.00,0.56
5641.00,0.56
5640.00,0.56
5639.00,0.56
5638.00,0.56
5637.00,0.56
5636.00,0.56
5635.00,0.56
5634.00,0.56
5633.00,0.56
5632.00,0.56
5631.00,0.56
5630.00,0.57
5629.00,0.57
5628.00,0.57
5627.00,0.57
5626.00,0.57
5625.00,0.57
5624.00,0.57
5623.00,0.57
5622.00,0.57
5621.00,0.57
5620.00,0.57
5619.00,0.57
5618.00,0.57
5617.00,0.57
5616.00,0.57
5615.00,0.57
5614.00,0.57
5613.00,0.57
5612.00,0.57
5611.00,0.58
5610.00,0.58
5609.00,0.58
5608.00,0.58
5607.00,0.58
5606.00,0.58
5605.00,0.58
5604.00,0.58
5603.00,0.58
5602.00,0.58
5601.00,0.58
5600.00,0.58
5599.00,0.58
5598.00,0.58
5597.00,0.59
5596.00,0.59
5595.00,0.59
5594.00,0.59
5593.00,0.59
5592.00,0.59
5591.00,0.59
5590.00,0.59
5589.00,0.59
5588.00,0.59
5587.00,0.59
5586.00,0.59
5585.00,0.59
5584.00,0.59
5583.00,0.59
5582.00,0.59
5581.00,0.59
5580.00,0.60
5579.00,0.60
5578.00,0.60
5577.00,0.60
5576.00,0.60
5575.00,0.60
5574.00,0.60
5573.00,0.60
5572.00,0.60
5571.00,0.60
5570.00,0.60
5569.00,0.60
5568.00,0.60
5567.00,0.60
5566.00,0.60
5565.00,0.60
5564.00,0.60
5563.00,0.60
5562.00,0.60
5561.00,0.60
5560.00,0.61
5559.00,0.61
5558.00,0.61
5557.00,0.61
5556.00,0.61
5555.00,0.61
5554.00,0.61
5553.00,0.61
5552.00,0.61
5551.00,0.61
5550.00,0.61
5549.00,0.61
5548.00,0.61
5547.00,0.61
5546.00,0.61
5545.00,0.61
5544.00,0.61
5543.00,0.61
5542.00,0.62
5541.00,0.62
5540.00,0.62
5539.00,0.62
5538.00,0.62
5537.00,0.62
5536.00,0.62
5535.00,0.62
5534.00,0.62
5533.00,0.62
5532.00,0.62
5531.00,0.62
5530.00,0.62
5529.00,0.62
5528.00,0.62
5527.00,0.62
5526.00,0.62
5525.00,0.62
5524.00,0.62
5523.00,0.62
5522.00,0.62
5521.00,0.62
5520.00,0.62
5519.00,0.62
5518.00,0.62
5517.00,0.62
5516.00,0.62
5515.00,0.62
5514.00,0.62
5513.00,0.62
5512.00,0.62
5511.00,0.62
5510.00,0.62
5509.00,0.62
5508.00,0.63
5507.00,0.63
5506.00,0.63
5505.00,0.63
5504.00,0.63
5503.00,0.63
5502.00,0.63
5501.00,0.63
5500.00,0.63
5499.00,0.63
5498.00,0.63
5497.00,0.63
5496.00,0.63
5495.00,0.63
5494.00,0.63
5493.00,0.63
5492.00,0.63
5491.00,0.63
5490.00,0.63
5489.00,0.63
5488.00,0.63
5487.00,0.63
5486.00,0.63
5485.00,0.63
5484.00,0.63
5483.00,0.64
5482.00,0.64
5481.00,0.64
5480.00,0.64
5479.00,0.64
5478.00,0.64
5477.00,0.64
5476.00,0.64
5475.00,0.64
5474.00,0.64
5473.00,0.64
5472.00,0.64
5471.00,0.64
5470.00,0.64
5469.00,0.64
5468.00,0.64
5467.00,0.64
5466.00,0.64
5465.00,0.64
5464.00,0.64
5463.00,0.64
5462.00,0.64
5461.00,0.64
5460.00,0.64
5459.00,0.64
5458.00,0.64
5457.00,0.64
5456.00,0.64
5455.00,0.64
5454.00,0.64
5453.00,0.64
5452.00,0.64
5451.00,0.64
5450.00,0.64
5449.00,0.64
5448.00,0.64
5447.00,0.64
5446.00,0.64
5445.00,0.64
5444.00,0.64
5443.00,0.64
5442.00,0.64
5441.00,0.64
5440.00,0.64
5439.00,0.64
5438.00,0.64
5437.00,0.64
5436.00,0.64
5435.00,0.64
5434.00,0.64
5433.00,0.64
5432.00,0.64
5431.00,0.64
5430.00,0.64
5429.00,0.64
5428.00,0.64
5427.00,0.64
5426.00,0.64
5425.00,0.64
5424.00,0.64
5423.00,0.64
5422.00,0.64
5421.00,0.64
5420.00,0.64
5419.00,0.64
5418.00,0.64
5417.00,0.64
5416.00,0.64
5415.00,0.64
5414.00,0.64
5413.00,0.64
5412.00,0.64
5411.00,0.64
5410.00,0.64
5409.00,0.64
5408.00,0.64
5407.00,0.64
5406.00,0.64
5405.00,0.64
5404.00,0.64
5403.00,0.64
5402.00,0.64
5401.00,0.64
5400.00,0.64
5399.00,0.64
5398.00,0.64
5397.00,0.64
5396.00,0.63
5395.00,0.63
5394.00,0.63
5393.00,0.63
5392.00,0.63
5391.00,0.63
5390.00,0.63
5389.00,0.63
5388.00,0.62
5387.00,0.62
5386.00,0.62
5385.00,0.62
5384.00,0.62
5383.00,0.62
5382.00,0.61
5381.00,0.61
5380.00,0.61
5379.00,0.61
5378.00,0.61
5377.00,0.60
5376.00,0.60
5375.00,0.60
5374.00,0.60
5373.00,0.59
5372.00,0.59
5371.00,0.59
5370.00,0.59
5369.00,0.59
5368.00,0.58
5367.00,0.58
5366.00,0.58
5365.00,0.58
5364.00,0.57
5363.00,0.57
5362.00,0.57
5361.00,0.56
5360.00,0.56
5359.00,0.56
5358.00,0.56
5357.00,0.55
5356.00,0.55
5355.00,0.55
5354.00,0.54
5353.00,0.54
5352.00,0.53
5351.00,0.53
5350.00,0.53
5349.00,0.52
5348.00,0.52
5347.00,0.51
5346.00,0.51
5345.00,0.51
5344.00,0.50
5343.00,0.50
5342.00,0.49
5341.00,0.49
5340.00,0.49
5339.00,0.48
5338.00,0.48
5337.00,0.47
5336.00,0.47
5335.00,0.47
5334.00,0.46
5333.00,0.46
5332.00,0.46
5331.00,0.45
5330.00,0.45
5329.00,0.45
5328.00,0.44
5327.00,0.44
5326.00,0.44
5325.00,0.43
5324.00,0.43
5323.00,0.43
5322.00,0.42
5321.00,0.42
5320.00,0.42
5319.00,0.42
5318.00,0.41
5317.00,0.41
5316.00,0.41
5315.00,0.41
5314.00,0.40
5313.00,0.40
5312.00,0.40
5311.00,0.40
5310.00,0.39
5309.00,0.39
5308.00,0.39
5307.00,0.39
5306.00,0.39
5305.00,0.39
5304.00,0.38
5303.00,0.38
5302.00,0.38
5301.00,0.38
5300.00,0.38
5299.00,0.38
5298.00,0.38
5297.00,0.38
5296.00,0.38
5295.00,0.37
5294.00,0.37
5293.00,0.37
5292.00,0.37
5291.00,0.37
5290.00,0.37
5289.00,0.37
5288.00,0.37
5287.00,0.37
5286.00,0.37
5285.00,0.37
5284.00,0.37
5283.00,0.37
5282.00,0.37
5281.00,0.37
5280.00,0.37
5279.00,0.37
5278.00,0.37
5277.00,0.37
5276.00,0.37
5275.00,0.37
5274.00,0.37
5273.00,0.37
5272.00,0.37
5271.00,0.37
5270.00,0.37
5269.00,0.37
5268.00,0.37
5267.00,0.37
5266.00,0.37
5265.00,0.37
5264.00,0.37
5263.00,0.37
5262.00,0.37
5261.00,0.37
5260.00,0.37
5259.00,0.37
5258.00,0.37
5257.00,0.37
5256.00,0.37
5255.00,0.37
5254.00,0.37
5253.00,0.37
5252.00,0.37
5251.00,0.37
5250.00,0.37
5249.00,0.37
5248.00,0.37
5247.00,0.37
5246.00,0.37
5245.00,0.37
5244.00,0.37
5243.00,0.37
5242.00,0.37
5241.00,0.37
5240.00,0.37
5239.00,0.37
5238.00,0.37
5237.00,0.37
5236.00,0.37
5235.00,0.37
5234.00,0.37
5233.00,0.37
5232.00,0.37
5231.00,0.37
5230.00,0.37
5229.00,0.37
5228.00,0.37
5227.00,0.37
5226.00,0.37
5225.00,0.37
5224.00,0.37
5223.00,0.37
5222.00,0.37
5221.00,0.37
5220.00,0.37
5219.00,0.37
5218.00,0.37
5217.00,0.37
5216.00,0.37
5215.00,0.38
5214.00,0.38
5213.00,0.38
5212.00,0.38
5211.00,0.38
5210.00,0.38
5209.00,0.38
5208.00,0.38
5207.00,0.38
5206.00,0.38
5205.00,0.38
5204.00,0.38
5203.00,0.38
5202.00,0.38
5201.00,0.38
5200.00,0.38
5199.00,0.38
5198.00,0.38
5197.00,0.38
5196.00,0.38
5195.00,0.38
5194.00,0.38
5193.00,0.38
5192.00,0.38
5191.00,0.38
5190.00,0.38
5189.00,0.38
5188.00,0.38
5187.00,0.38
5186.00,0.38
5185.00,0.38
5184.00,0.38
5183.00,0.38
5182.00,0.38
5181.00,0.38
5180.00,0.38
5179.00,0.38
5178.00,0.38
5177.00,0.38
5176.00,0.38
5175.00,0.38
5174.00,0.38
5173.00,0.38
5172.00,0.38
5171.00,0.38
5170.00,0.38
5169.00,0.38
5168.00,0.38
5167.00,0.38
5166.00,0.38
5165.00,0.38
5164.00,0.38
5163.00,0.38
5162.00,0.38
5161.00,0.38
5160.00,0.38
5159.00,0.38
5158.00,0.38
5157.00,0.39
5156.00,0.39
5155.00,0.39
5154.00,0.39
5153.00,0.39
5152.00,0.39
5151.00,0.39
5150.00,0.39
5149.00,0.39
5148.00,0.39
5147.00,0.39
5146.00,0.39
5145.00,0.39
5144.00,0.39
5143.00,0.39
5142.00,0.39
5141.00,0.39
5140.00,0.39
5139.00,0.39
5138.00,0.39
5137.00,0.39
5136.00,0.39
5135.00,0.39
5134.00,0.39
5133.00,0.39
5132.00,0.39
5131.00,0.39
5130.00,0.39
5129.00,0.39
5128.00,0.39
5127.00,0.39
5126.00,0.39
5125.00,0.39
5124.00,0.39
5123.00,0.40
5122.00,0.40
5121.00,0.40
5120.00,0.40
5119.00,0.40
5118.00,0.40
5117.00,0.40
5116.00,0.40
5115.00,0.40
5114.00,0.40
5113.00,0.40
5112.00,0.40
5111.00,0.40
5110.00,0.40
5109.00,0.40
5108.00,0.40
5107.00,0.40
5106.00,0.40
5105.00,0.40
5104.00,0.40
5103.00,0.40
5102.00,0.40
5101.00,0.40
5100.00,0.40
5099.00,0.40
5098.00,0.40
5097.00,0.40
5096.00,0.40
5095.00,0.40
5094.00,0.40
5093.00,0.40
5092.00,0.40
5091.00,0.41
5090.00,0.41
5089.00,0.41
5088.00,0.41
5087.00,0.41
5086.00,0.41
5085.00,0.41
5084.00,0.41
5083.00,0.41
5082.00,0.41
5081.00,0.41
5080.00,0.41
5079.00,0.41
5078.00,0.41
5077.00,0.41
5076.00,0.41
5075.00,0.41
5074.00,0.41
5073.00,0.41
5072.00,0.41
5071.00,0.41
5070.00,0.41
5069.00,0.41
5068.00,0.40
5067.00,0.40
5066.00,0.40
5065.00,0.40
5064.00,0.40
5063.00,0.40
5062.00,0.40
5061.00,0.40
5060.00,0.40
5059.00,0.40
5058.00,0.40
5057.00,0.40
5056.00,0.41
5055.00,0.41
5054.00,0.41
5053.00,0.41
5052.00,0.41
5051.00,0.41
5050.00,0.41
5049.00,0.41
5048.00,0.41
5047.00,0.41
5046.00,0.41
5045.00,0.41
5044.00,0.41
5043.00,0.41
5042.00,0.41
5041.00,0.41
5040.00,0.41
5039.00,0.41
5038.00,0.41
5037.00,0.41
5036.00,0.41
5035.00,0.41
5034.00,0.41
5033.00,0.41
5032.00,0.41
5031.00,0.41
5030.00,0.41
5029.00,0.41
5028.00,0.41
5027.00,0.41
5026.00,0.41
5025.00,0.41
5024.00,0.41
5023.00,0.41
5022.00,0.41
5021.00,0.41
5020.00,0.41
5019.00,0.41
5018.00,0.41
5017.00,0.41
5016.00,0.41
5015.00,0.42
5014.00,0.42
5013.00,0.42
5012.00,0.42
5011.00,0.42
5010.00,0.42
5009.00,0.42
5008.00,0.42
5007.00,0.42
5006.00,0.42
5005.00,0.42
5004.00,0.42
5003.00,0.42
5002.00,0.42
5001.00,0.42
5000.00,0.42
4999.00,0.42
4998.00,0.42
4997.00,0.42
4996.00,0.42
4995.00,0.42
4994.00,0.42
4993.00,0.42
4992.00,0.42
4991.00,0.42
4990.00,0.42
4989.00,0.42
4988.00,0.42
4987.00,0.42
4986.00,0.42
4985.00,0.42
4984.00,0.42
4983.00,0.42
4982.00,0.42
4981.00,0.43
4980.00,0.43
4979.00,0.43
4978.00,0.43
4977.00,0.43
4976.00,0.43
4975.00,0.43
4974.00,0.43
4973.00,0.43
4972.00,0.43
4971.00,0.43
4970.00,0.43
4969.00,0.43
4968.00,0.43
4967.00,0.43
4966.00,0.43
4965.00,0.43
4964.00,0.43
4963.00,0.43
4962.00,0.43
4961.00,0.43
4960.00,0.43
4959.00,0.43
4958.00,0.43
4957.00,0.43
4956.00,0.43
4955.00,0.43
4954.00,0.43
4953.00,0.43
4952.00,0.43
4951.00,0.43
4950.00,0.43
4949.00,0.43
4948.00,0.43
4947.00,0.43
4946.00,0.43
4945.00,0.43
4944.00,0.43
4943.00,0.43
4942.00,0.43
4941.00,0.43
4940.00,0.43
4939.00,0.43
4938.00,0.43
4937.00,0.43
4936.00,0.43
4935.00,0.44
4934.00,0.44
4933.00,0.44
4932.00,0.44
4931.00,0.44
4930.00,0.44
4929.00,0.44
4928.00,0.44
4927.00,0.44
4926.00,0.44
4925.00,0.44
4924.00,0.44
4923.00,0.44
4922.00,0.44
4921.00,0.44
4920.00,0.44
4919.00,0.44
4918.00,0.44
4917.00,0.44
4916.00,0.44
4915.00,0.44
4914.00,0.44
4913.00,0.44
4912.00,0.45
4911.00,0.45
4910.00,0.45
4909.00,0.45
4908.00,0.45
4907.00,0.45
4906.00,0.45
4905.00,0.45
4904.00,0.45
4903.00,0.45
4902.00,0.45
4901.00,0.45
4900.00,0.45
4899.00,0.45
4898.00,0.45
4897.00,0.45
4896.00,0.45
4895.00,0.45
4894.00,0.45
4893.00,0.45
4892.00,0.45
4891.00,0.45
4890.00,0.45
4889.00,0.45
4888.00,0.45
4887.00,0.45
4886.00,0.45
4885.00,0.45
4884.00,0.45
4883.00,0.45
4882.00,0.45
4881.00,0.45
4880.00,0.45
4879.00,0.45
4878.00,0.45
4877.00,0.45
4876.00,0.45
4875.00,0.45
4874.00,0.45
4873.00,0.45
4872.00,0.45
4871.00,0.45
4870.00,0.45
4869.00,0.46
4868.00,0.46
4867.00,0.46
4866.00,0.46
4865.00,0.46
4864.00,0.46
4863.00,0.46
4862.00,0.46
4861.00,0.46
4860.00,0.46
4859.00,0.46
4858.00,0.46
4857.00,0.46
4856.00,0.46
4855.00,0.46
4854.00,0.46
4853.00,0.46
4852.00,0.46
4851.00,0.46
4850.00,0.46
4849.00,0.46
4848.00,0.46
4847.00,0.46
4846.00,0.46
4845.00,0.46
4844.00,0.46
4843.00,0.46
4842.00,0.46
4841.00,0.46
4840.00,0.46
4839.00,0.47
4838.00,0.47
4837.00,0.47
4836.00,0.47
4835.00,0.47
4834.00,0.47
4833.00,0.47
4832.00,0.47
4831.00,0.47
4830.00,0.47
4829.00,0.47
4828.00,0.47
4827.00,0.47
4826.00,0.47
4825.00,0.47
4824.00,0.47
4823.00,0.47
4822.00,0.47
4821.00,0.47
4820.00,0.47
4819.00,0.47
4818.00,0.47
4817.00,0.47
4816.00,0.47
4815.00,0.47
4814.00,0.47
4813.00,0.47
4812.00,0.47
4811.00,0.47
4810.00,0.47
4809.00,0.47
4808.00,0.47
4807.00,0.47
4806.00,0.47
4805.00,0.47
4804.00,0.47
4803.00,0.47
4802.00,0.48
4801.00,0.48
4800.00,0.48
4799.00,0.48
4798.00,0.48
4797.00,0.48
4796.00,0.48
4795.00,0.48
4794.00,0.48
4793.00,0.48
4792.00,0.48
4791.00,0.48
4790.00,0.48
4789.00,0.48
4788.00,0.48
4787.00,0.48
4786.00,0.48
4785.00,0.48
4784.00,0.48
4783.00,0.48
4782.00,0.48
4781.00,0.48
4780.00,0.48
4779.00,0.48
4778.00,0.48
4777.00,0.48
4776.00,0.49
4775.00,0.49
4774.00,0.49
4773.00,0.49
4772.00,0.49
4771.00,0.49
4770.00,0.49
4769.00,0.49
4768.00,0.49
4767.00,0.49
4766.00,0.49
4765.00,0.49
4764.00,0.49
4763.00,0.49
4762.00,0.49
4761.00,0.49
4760.00,0.49
4759.00,0.49
4758.00,0.49
4757.00,0.49
4756.00,0.49
4755.00,0.49
4754.00,0.49
4753.00,0.49
4752.00,0.49
4751.00,0.49
4750.00,0.49
4749.00,0.49
4748.00,0.49
4747.00,0.49
4746.00,0.50
4745.00,0.50
4744.00,0.50
4743.00,0.50
4742.00,0.50
4741.00,0.50
4740.00,0.50
4739.00,0.50
4738.00,0.50
4737.00,0.50
4736.00,0.50
4735.00,0.50
4734.00,0.51
4733.00,0.51
4732.00,0.51
4731.00,0.51
4730.00,0.51
4729.00,0.51
4728.00,0.51
4727.00,0.51
4726.00,0.51
4725.00,0.51
4724.00,0.51
4723.00,0.51
4722.00,0.51
4721.00,0.51
4720.00,0.51
4719.00,0.51
4718.00,0.51
4717.00,0.51
4716.00,0.51
4715.00,0.51
4714.00,0.51
4713.00,0.51
4712.00,0.51
4711.00,0.51
4710.00,0.51
4709.00,0.51
4708.00,0.52
4707.00,0.52
4706.00,0.52
4705.00,0.52
4704.00,0.52
4703.00,0.52
4702.00,0.52
4701.00,0.52
4700.00,0.52
4699.00,0.52
4698.00,0.52
4697.00,0.52
4696.00,0.52
4695.00,0.52
4694.00,0.52
4693.00,0.53
4692.00,0.53
4691.00,0.53
4690.00,0.53
4689.00,0.53
4688.00,0.53
4687.00,0.53
4686.00,0.53
4685.00,0.53
4684.00,0.53
4683.00,0.53
4682.00,0.53
4681.00,0.53
4680.00,0.53
4679.00,0.53
4678.00,0.53
4677.00,0.53
4676.00,0.53
4675.00,0.53
4674.00,0.53
4673.00,0.53
4672.00,0.53
4671.00,0.53
4670.00,0.53
4669.00,0.53
4668.00,0.53
4667.00,0.53
4666.00,0.53
4665.00,0.53
4664.00,0.53
4663.00,0.53
4662.00,0.53
4661.00,0.54
4660.00,0.54
4659.00,0.54
4658.00,0.54
4657.00,0.54
4656.00,0.54
4655.00,0.54
4654.00,0.54
4653.00,0.54
4652.00,0.54
4651.00,0.54
4650.00,0.54
4649.00,0.54
4648.00,0.54
4647.00,0.54
4646.00,0.54
4645.00,0.54
4644.00,0.55
4643.00,0.55
4642.00,0.55
4641.00,0.55
4640.00,0.55
4639.00,0.55
4638.00,0.55
4637.00,0.55
4636.00,0.55
4635.00,0.55
4634.00,0.55
4633.00,0.55
4632.00,0.55
4631.00,0.55
4630.00,0.55
4629.00,0.55
4628.00,0.55
4627.00,0.55
4626.00,0.55
4625.00,0.55
4624.00,0.55
4623.00,0.55
4622.00,0.55
4621.00,0.55
4620.00,0.55
4619.00,0.55
4618.00,0.55
4617.00,0.55
4616.00,0.55
4615.00,0.56
4614.00,0.56
4613.00,0.56
4612.00,0.56
4611.00,0.56
4610.00,0.56
4609.00,0.56
4608.00,0.56
4607.00,0.56
4606.00,0.56
4605.00,0.56
4604.00,0.56
4603.00,0.56
4602.00,0.56
4601.00,0.56
4600.00,0.56
4599.00,0.56
4598.00,0.56
4597.00,0.56
4596.00,0.56
4595.00,0.56
4594.00,0.56
4593.00,0.56
4592.00,0.56
4591.00,0.56
4590.00,0.56
4589.00,0.56
4588.00,0.56
4587.00,0.56
4586.00,0.56
4585.00,0.57
4584.00,0.57
4583.00,0.57
4582.00,0.57
4581.00,0.57
4580.00,0.57
4579.00,0.57
4578.00,0.57
4577.00,0.57
4576.00,0.57
4575.00,0.57
4574.00,0.57
4573.00,0.57
4572.00,0.57
4571.00,0.57
4570.00,0.57
4569.00,0.57
4568.00,0.57
4567.00,0.57
4566.00,0.57
4565.00,0.57
4564.00,0.57
4563.00,0.57
4562.00,0.57
4561.00,0.57
4560.00,0.57
4559.00,0.57
4558.00,0.58
4557.00,0.58
4556.00,0.58
4555.00,0.58
4554.00,0.58
4553.00,0.58
4552.00,0.58
4551.00,0.58
4550.00,0.58
4549.00,0.58
4548.00,0.58
4547.00,0.58
4546.00,0.58
4545.00,0.58
4544.00,0.58
4543.00,0.58
4542.00,0.58
4541.00,0.58
4540.00,0.58
4539.00,0.58
4538.00,0.58
4537.00,0.58
4536.00,0.58
4535.00,0.58
4534.00,0.58
4533.00,0.58
4532.00,0.58
4531.00,0.58
4530.00,0.58
4529.00,0.58
4528.00,0.58
4527.00,0.58
4526.00,0.58
4525.00,0.58
4524.00,0.58
4523.00,0.58
4522.00,0.58
4521.00,0.58
4520.00,0.58
4519.00,0.58
4518.00,0.58
4517.00,0.58
4516.00,0.58
4515.00,0.58
4514.00,0.58
4513.00,0.58
4512.00,0.58
4511.00,0.58
4510.00,0.59
4509.00,0.59
4508.00,0.59
4507.00,0.59
4506.00,0.59
4505.00,0.59
4504.00,0.59
4503.00,0.59
4502.00,0.59
4501.00,0.59
4500.00,0.59
4499.00,0.59
4498.00,0.59
4497.00,0.59
4496.00,0.59
4495.00,0.59
4494.00,0.59
4493.00,0.59
4492.00,0.59
4491.00,0.59
4490.00,0.59
4489.00,0.59
4488.00,0.59
4487.00,0.58
4486.00,0.58
4485.00,0.58
4484.00,0.58
4483.00,0.58
4482.00,0.58
4481.00,0.58
4480.00,0.58
4479.00,0.58
4478.00,0.58
4477.00,0.58
4476.00,0.58
4475.00,0.58
4474.00,0.58
4473.00,0.58
4472.00,0.58
4471.00,0.58
4470.00,0.58
4469.00,0.58
4468.00,0.58
4467.00,0.58
4466.00,0.58
4465.00,0.58
4464.00,0.58
4463.00,0.58
4462.00,0.58
4461.00,0.58
4460.00,0.57
4459.00,0.57
4458.00,0.57
4457.00,0.57
4456.00,0.57
4455.00,0.57
4454.00,0.57
4453.00,0.57
4452.00,0.56
4451.00,0.56
4450.00,0.56
4449.00,0.56
4448.00,0.56
4447.00,0.56
4446.00,0.56
4445.00,0.56
4444.00,0.56
4443.00,0.56
4442.00,0.56
4441.00,0.56
4440.00,0.55
4439.00,0.55
4438.00,0.55
4437.00,0.55
4436.00,0.55
4435.00,0.55
4434.00,0.55
4433.00,0.55
4432.00,0.55
4431.00,0.55
4430.00,0.55
4429.00,0.55
4428.00,0.55
4427.00,0.55
4426.00,0.55
4425.00,0.55
4424.00,0.55
4423.00,0.55
4422.00,0.55
4421.00,0.55
4420.00,0.54
4419.00,0.54
4418.00,0.54
4417.00,0.54
4416.00,0.54
4415.00,0.54
4414.00,0.54
4413.00,0.54
4412.00,0.54
4411.00,0.54
4410.00,0.54
4409.00,0.54
4408.00,0.54
4407.00,0.54
4406.00,0.54
4405.00,0.54
4404.00,0.54
4403.00,0.54
4402.00,0.54
4401.00,0.54
4400.00,0.54
4399.00,0.54
4398.00,0.54
4397.00,0.54
4396.00,0.54
4395.00,0.54
4394.00,0.54
4393.00,0.54
4392.00,0.55
4391.00,0.55
4390.00,0.55
4389.00,0.55
4388.00,0.55
4387.00,0.55
4386.00,0.55
4385.00,0.55
4384.00,0.55
4383.00,0.55
4382.00,0.55
4381.00,0.55
4380.00,0.55
4379.00,0.55
4378.00,0.55
4377.00,0.55
4376.00,0.55
4375.00,0.55
4374.00,0.55
4373.00,0.55
4372.00,0.55
4371.00,0.55
4370.00,0.55
4369.00,0.55
4368.00,0.55
4367.00,0.55
4366.00,0.55
4365.00,0.56
4364.00,0.56
4363.00,0.56
4362.00,0.56
4361.00,0.56
4360.00,0.56
4359.00,0.56
4358.00,0.56
4357.00,0.56
4356.00,0.56
4355.00,0.56
4354.00,0.56
4353.00,0.56
4352.00,0.56
4351.00,0.56
4350.00,0.56
4349.00,0.56
4348.00,0.56
4347.00,0.56
4346.00,0.56
4345.00,0.56
4344.00,0.56
4343.00,0.56
4342.00,0.56
4341.00,0.56
4340.00,0.56
4339.00,0.56
4338.00,0.56
4337.00,0.56
4336.00,0.56
4335.00,0.56
4334.00,0.56
4333.00,0.56
4332.00,0.56
4331.00,0.56
4330.00,0.56
4329.00,0.56
4328.00,0.56
4327.00,0.56
4326.00,0.56
4325.00,0.56
4324.00,0.56
4323.00,0.56
4322.00,0.56
4321.00,0.57
4320.00,0.57
4319.00,0.57
4318.00,0.57
4317.00,0.57
4316.00,0.57
4315.00,0.57
4314.00,0.57
4313.00,0.57
4312.00,0.57
4311.00,0.57
4310.00,0.57
4309.00,0.57
4308.00,0.57
4307.00,0.57
4306.00,0.57
4305.00,0.57
4304.00,0.57
4303.00,0.57
4302.00,0.57
4301.00,0.57
4300.00,0.57
4299.00,0.57
4298.00,0.57
4297.00,0.57
4296.00,0.57
4295.00,0.57
4294.00,0.57
4293.00,0.57
4292.00,0.57
4291.00,0.58
4290.00,0.58
4289.00,0.58
4288.00,0.58
4287.00,0.58
4286.00,0.58
4285.00,0.58
4284.00,0.58
4283.00,0.58
4282.00,0.58
4281.00,0.58
4280.00,0.58
4279.00,0.58
4278.00,0.58
4277.00,0.58
4276.00,0.58
4275.00,0.58
4274.00,0.58
4273.00,0.58
4272.00,0.58
4271.00,0.58
4270.00,0.58
4269.00,0.58
4268.00,0.58
4267.00,0.58
4266.00,0.58
4265.00,0.58
4264.00,0.58
4263.00,0.58
4262.00,0.58
4261.00,0.58
4260.00,0.58
4259.00,0.58
4258.00,0.58
4257.00,0.58
4256.00,0.58
4255.00,0.58
4254.00,0.58
4253.00,0.58
4252.00,0.58
4251.00,0.58
4250.00,0.58
4249.00,0.58
4248.00,0.58
4247.00,0.58
4246.00,0.59
4245.00,0.59
4244.00,0.59
4243.00,0.59
4242.00,0.59
4241.00,0.59
4240.00,0.59
4239.00,0.59
4238.00,0.59
4237.00,0.59
4236.00,0.59
4235.00,0.59
4234.00,0.59
4233.00,0.59
4232.00,0.59
4231.00,0.59
4230.00,0.59
4229.00,0.59
4228.00,0.59
4227.00,0.59
4226.00,0.59
4225.00,0.59
4224.00,0.59
4223.00,0.59
4222.00,0.59
4221.00,0.59
4220.00,0.59
4219.00,0.59
4218.00,0.59
4217.00,0.59
4216.00,0.59
4215.00,0.59
4214.00,0.59
4213.00,0.59
4212.00,0.59
4211.00,0.59
4210.00,0.59
4209.00,0.59
4208.00,0.59
4207.00,0.59
4206.00,0.59
4205.00,0.59
4204.00,0.59
4203.00,0.59
4202.00,0.59
4201.00,0.59
4200.00,0.60
4199.00,0.60
4198.00,0.60
4197.00,0.60
4196.00,0.60
4195.00,0.60
4194.00,0.60
4193.00,0.60
4192.00,0.60
4191.00,0.60
4190.00,0.60
4189.00,0.60
4188.00,0.60
4187.00,0.60
4186.00,0.60
4185.00,0.60
4184.00,0.60
4183.00,0.60
4182.00,0.60
4181.00,0.60
4180.00,0.60
4179.00,0.60
4178.00,0.61
4177.00,0.61
4176.00,0.61
4175.00,0.61
4174.00,0.61
4173.00,0.61
4172.00,0.61
4171.00,0.61
4170.00,0.61
4169.00,0.61
4168.00,0.61
4167.00,0.61
4166.00,0.61
4165.00,0.61
4164.00,0.61
4163.00,0.61
4162.00,0.61
4161.00,0.61
4160.00,0.61
4159.00,0.61
4158.00,0.61
4157.00,0.61
4156.00,0.61
4155.00,0.61
4154.00,0.61
4153.00,0.61
4152.00,0.61
4151.00,0.61
4150.00,0.61
4149.00,0.61
4148.00,0.61
4147.00,0.61
4146.00,0.61
4145.00,0.61
4144.00,0.61
4143.00,0.61
4142.00,0.61
4141.00,0.61
4140.00,0.62
4139.00,0.62
4138.00,0.62
4137.00,0.62
4136.00,0.62
4135.00,0.62
4134.00,0.62
4133.00,0.62
4132.00,0.62
4131.00,0.62
4130.00,0.62
4129.00,0.62
4128.00,0.61
4127.00,0.61
4126.00,0.61
4125.00,0.61
4124.00,0.62
4123.00,0.62
4122.00,0.62
4121.00,0.62
4120.00,0.62
4119.00,0.62
4118.00,0.62
4117.00,0.62
4116.00,0.62
4115.00,0.62
4114.00,0.62
4113.00,0.62
4112.00,0.62
4111.00,0.62
4110.00,0.62
4109.00,0.62
4108.00,0.62
4107.00,0.62
4106.00,0.63
4105.00,0.62
4104.00,0.62
4103.00,0.62
4102.00,0.62
4101.00,0.62
4100.00,0.62
4099.00,0.62
4098.00,0.62
4097.00,0.62
4096.00,0.62
4095.00,0.62
4094.00,0.62
4093.00,0.62
4092.00,0.62
4091.00,0.62
4090.00,0.62
4089.00,0.62
4088.00,0.62
4087.00,0.62
4086.00,0.62
4085.00,0.62
4084.00,0.62
4083.00,0.62
4082.00,0.62
4081.00,0.62
4080.00,0.62
4079.00,0.62
4078.00,0.62
4077.00,0.62
4076.00,0.62
4075.00,0.62
4074.00,0.62
4073.00,0.62
4072.00,0.62
4071.00,0.62
4070.00,0.62
4069.00,0.62
4068.00,0.62
4067.00,0.62
4066.00,0.62
4065.00,0.62
4064.00,0.62
4063.00,0.62
4062.00,0.62
4061.00,0.62
4060.00,0.62
4059.00,0.62
4058.00,0.62
4057.00,0.62
4056.00,0.62
4055.00,0.62
4054.00,0.62
4053.00,0.62
4052.00,0.62
4051.00,0.62
4050.00,0.62
4049.00,0.62
4048.00,0.62
4047.00,0.62
4046.00,0.62
4045.00,0.62
4044.00,0.62
4043.00,0.62
4042.00,0.62
4041.00,0.62
4040.00,0.63
4039.00,0.63
4038.00,0.63
4037.00,0.63
4036.00,0.63
4035.00,0.63
4034.00,0.63
4033.00,0.63
4032.00,0.63
4031.00,0.63
4030.00,0.63
4029.00,0.63
4028.00,0.63
4027.00,0.63
4026.00,0.63
4025.00,0.63
4024.00,0.63
4023.00,0.63
4022.00,0.63
4021.00,0.63
4020.00,0.63
4019.00,0.63
4018.00,0.63
4017.00,0.63
4016.00,0.63
4015.00,0.63
4014.00,0.63
4013.00,0.63
4012.00,0.63
4011.00,0.63
4010.00,0.63
4009.00,0.63
4008.00,0.64
4007.00,0.64
4006.00,0.64
4005.00,0.64
4004.00,0.64
4003.00,0.64
4002.00,0.64
4001.00,0.64
4000.00,0.64
