创建为新数据集,样品 706 用户 Administrator 日期 星期五, 七月 20 2018
cm-1,%T
10000.00,1.36
9999.00,1.36
9998.00,1.36
9997.00,1.36
9996.00,1.36
9995.00,1.36
9994.00,1.36
9993.00,1.36
9992.00,1.36
9991.00,1.36
9990.00,1.36
9989.00,1.36
9988.00,1.36
9987.00,1.36
9986.00,1.36
9985.00,1.36
9984.00,1.36
9983.00,1.36
9982.00,1.36
9981.00,1.35
9980.00,1.35
9979.00,1.35
9978.00,1.35
9977.00,1.35
9976.00,1.35
9975.00,1.35
9974.00,1.34
9973.00,1.34
9972.00,1.34
9971.00,1.34
9970.00,1.34
9969.00,1.34
9968.00,1.34
9967.00,1.34
9966.00,1.34
9965.00,1.34
9964.00,1.34
9963.00,1.34
9962.00,1.34
9961.00,1.34
9960.00,1.34
9959.00,1.33
9958.00,1.33
9957.00,1.33
9956.00,1.33
9955.00,1.33
9954.00,1.33
9953.00,1.33
9952.00,1.33
9951.00,1.33
9950.00,1.33
9949.00,1.33
9948.00,1.33
9947.00,1.33
9946.00,1.32
9945.00,1.32
9944.00,1.32
9943.00,1.32
9942.00,1.32
9941.00,1.32
9940.00,1.32
9939.00,1.32
9938.00,1.32
9937.00,1.32
9936.00,1.31
9935.00,1.31
9934.00,1.31
9933.00,1.31
9932.00,1.32
9931.00,1.32
9930.00,1.32
9929.00,1.32
9928.00,1.32
9927.00,1.32
9926.00,1.32
9925.00,1.32
9924.00,1.32
9923.00,1.32
9922.00,1.32
9921.00,1.32
9920.00,1.32
9919.00,1.32
9918.00,1.32
9917.00,1.32
9916.00,1.32
9915.00,1.32
9914.00,1.31
9913.00,1.31
9912.00,1.31
9911.00,1.31
9910.00,1.31
9909.00,1.31
9908.00,1.31
9907.00,1.31
9906.00,1.31
9905.00,1.31
9904.00,1.31
9903.00,1.32
9902.00,1.32
9901.00,1.32
9900.00,1.33
9899.00,1.33
9898.00,1.33
9897.00,1.34
9896.00,1.34
9895.00,1.35
9894.00,1.35
9893.00,1.35
9892.00,1.35
9891.00,1.36
9890.00,1.36
9889.00,1.36
9888.00,1.36
9887.00,1.36
9886.00,1.36
9885.00,1.36
9884.00,1.36
9883.00,1.35
9882.00,1.35
9881.00,1.35
9880.00,1.35
9879.00,1.34
9878.00,1.34
9877.00,1.34
9876.00,1.33
9875.00,1.33
9874.00,1.33
9873.00,1.32
9872.00,1.32
9871.00,1.32
9870.00,1.31
9869.00,1.31
9868.00,1.31
9867.00,1.31
9866.00,1.30
9865.00,1.30
9864.00,1.30
9863.00,1.30
9862.00,1.30
9861.00,1.30
9860.00,1.30
9859.00,1.30
9858.00,1.30
9857.00,1.31
9856.00,1.31
9855.00,1.31
9854.00,1.31
9853.00,1.31
9852.00,1.31
9851.00,1.32
9850.00,1.32
9849.00,1.32
9848.00,1.32
9847.00,1.32
9846.00,1.32
9845.00,1.32
9844.00,1.32
9843.00,1.32
9842.00,1.31
9841.00,1.31
9840.00,1.31
9839.00,1.31
9838.00,1.31
9837.00,1.31
9836.00,1.31
9835.00,1.31
9834.00,1.31
9833.00,1.31
9832.00,1.31
9831.00,1.31
9830.00,1.31
9829.00,1.32
9828.00,1.32
9827.00,1.32
9826.00,1.32
9825.00,1.32
9824.00,1.32
9823.00,1.32
9822.00,1.32
9821.00,1.33
9820.00,1.33
9819.00,1.33
9818.00,1.32
9817.00,1.32
9816.00,1.32
9815.00,1.32
9814.00,1.32
9813.00,1.32
9812.00,1.32
9811.00,1.32
9810.00,1.32
9809.00,1.32
9808.00,1.31
9807.00,1.31
9806.00,1.31
9805.00,1.32
9804.00,1.32
9803.00,1.32
9802.00,1.32
9801.00,1.32
9800.00,1.32
9799.00,1.32
9798.00,1.32
9797.00,1.32
9796.00,1.32
9795.00,1.32
9794.00,1.32
9793.00,1.32
9792.00,1.32
9791.00,1.32
9790.00,1.32
9789.00,1.32
9788.00,1.32
9787.00,1.31
9786.00,1.31
9785.00,1.31
9784.00,1.31
9783.00,1.31
9782.00,1.31
9781.00,1.31
9780.00,1.31
9779.00,1.31
9778.00,1.31
9777.00,1.31
9776.00,1.31
9775.00,1.31
9774.00,1.31
9773.00,1.31
9772.00,1.31
9771.00,1.31
9770.00,1.31
9769.00,1.31
9768.00,1.31
9767.00,1.31
9766.00,1.31
9765.00,1.31
9764.00,1.31
9763.00,1.32
9762.00,1.32
9761.00,1.32
9760.00,1.32
9759.00,1.32
9758.00,1.32
9757.00,1.32
9756.00,1.33
9755.00,1.33
9754.00,1.33
9753.00,1.33
9752.00,1.33
9751.00,1.33
9750.00,1.34
9749.00,1.34
9748.00,1.34
9747.00,1.34
9746.00,1.34
9745.00,1.34
9744.00,1.33
9743.00,1.33
9742.00,1.33
9741.00,1.33
9740.00,1.33
9739.00,1.33
9738.00,1.33
9737.00,1.33
9736.00,1.33
9735.00,1.33
9734.00,1.33
9733.00,1.33
9732.00,1.33
9731.00,1.33
9730.00,1.33
9729.00,1.33
9728.00,1.32
9727.00,1.32
9726.00,1.32
9725.00,1.32
9724.00,1.32
9723.00,1.32
9722.00,1.32
9721.00,1.32
9720.00,1.32
9719.00,1.32
9718.00,1.32
9717.00,1.31
9716.00,1.31
9715.00,1.31
9714.00,1.31
9713.00,1.31
9712.00,1.31
9711.00,1.31
9710.00,1.31
9709.00,1.31
9708.00,1.31
9707.00,1.31
9706.00,1.31
9705.00,1.31
9704.00,1.31
9703.00,1.31
9702.00,1.31
9701.00,1.31
9700.00,1.31
9699.00,1.31
9698.00,1.31
9697.00,1.31
9696.00,1.31
9695.00,1.31
9694.00,1.32
9693.00,1.32
9692.00,1.32
9691.00,1.32
9690.00,1.32
9689.00,1.32
9688.00,1.32
9687.00,1.32
9686.00,1.32
9685.00,1.32
9684.00,1.32
9683.00,1.32
9682.00,1.32
9681.00,1.32
9680.00,1.32
9679.00,1.32
9678.00,1.32
9677.00,1.32
9676.00,1.32
9675.00,1.31
9674.00,1.31
9673.00,1.31
9672.00,1.31
9671.00,1.31
9670.00,1.32
9669.00,1.32
9668.00,1.32
9667.00,1.32
9666.00,1.32
9665.00,1.32
9664.00,1.32
9663.00,1.32
9662.00,1.32
9661.00,1.32
9660.00,1.32
9659.00,1.33
9658.00,1.33
9657.00,1.33
9656.00,1.33
9655.00,1.33
9654.00,1.33
9653.00,1.33
9652.00,1.33
9651.00,1.32
9650.00,1.32
9649.00,1.32
9648.00,1.32
9647.00,1.32
9646.00,1.32
9645.00,1.32
9644.00,1.32
9643.00,1.32
9642.00,1.32
9641.00,1.32
9640.00,1.32
9639.00,1.32
9638.00,1.33
9637.00,1.33
9636.00,1.33
9635.00,1.33
9634.00,1.33
9633.00,1.34
9632.00,1.34
9631.00,1.34
9630.00,1.34
9629.00,1.34
9628.00,1.35
9627.00,1.35
9626.00,1.35
9625.00,1.35
9624.00,1.35
9623.00,1.35
9622.00,1.35
9621.00,1.35
9620.00,1.36
9619.00,1.36
9618.00,1.36
9617.00,1.36
9616.00,1.36
9615.00,1.36
9614.00,1.36
9613.00,1.36
9612.00,1.36
9611.00,1.36
9610.00,1.36
9609.00,1.36
9608.00,1.36
9607.00,1.36
9606.00,1.36
9605.00,1.35
9604.00,1.35
9603.00,1.35
9602.00,1.35
9601.00,1.35
9600.00,1.34
9599.00,1.34
9598.00,1.34
9597.00,1.34
9596.00,1.33
9595.00,1.33
9594.00,1.33
9593.00,1.33
9592.00,1.32
9591.00,1.32
9590.00,1.32
9589.00,1.32
9588.00,1.32
9587.00,1.31
9586.00,1.31
9585.00,1.31
9584.00,1.31
9583.00,1.31
9582.00,1.31
9581.00,1.31
9580.00,1.30
9579.00,1.30
9578.00,1.30
9577.00,1.30
9576.00,1.30
9575.00,1.30
9574.00,1.31
9573.00,1.31
9572.00,1.31
9571.00,1.31
9570.00,1.31
9569.00,1.32
9568.00,1.32
9567.00,1.32
9566.00,1.32
9565.00,1.33
9564.00,1.33
9563.00,1.33
9562.00,1.33
9561.00,1.34
9560.00,1.34
9559.00,1.34
9558.00,1.34
9557.00,1.34
9556.00,1.34
9555.00,1.34
9554.00,1.34
9553.00,1.34
9552.00,1.33
9551.00,1.33
9550.00,1.33
9549.00,1.33
9548.00,1.33
9547.00,1.33
9546.00,1.32
9545.00,1.32
9544.00,1.32
9543.00,1.32
9542.00,1.32
9541.00,1.32
9540.00,1.31
9539.00,1.31
9538.00,1.31
9537.00,1.31
9536.00,1.31
9535.00,1.31
9534.00,1.31
9533.00,1.31
9532.00,1.31
9531.00,1.31
9530.00,1.31
9529.00,1.31
9528.00,1.31
9527.00,1.31
9526.00,1.31
9525.00,1.31
9524.00,1.31
9523.00,1.31
9522.00,1.31
9521.00,1.31
9520.00,1.31
9519.00,1.31
9518.00,1.31
9517.00,1.31
9516.00,1.31
9515.00,1.31
9514.00,1.31
9513.00,1.31
9512.00,1.31
9511.00,1.31
9510.00,1.31
9509.00,1.31
9508.00,1.31
9507.00,1.31
9506.00,1.31
9505.00,1.31
9504.00,1.31
9503.00,1.31
9502.00,1.31
9501.00,1.31
9500.00,1.32
9499.00,1.32
9498.00,1.32
9497.00,1.32
9496.00,1.32
9495.00,1.32
9494.00,1.33
9493.00,1.33
9492.00,1.33
9491.00,1.33
9490.00,1.33
9489.00,1.33
9488.00,1.33
9487.00,1.34
9486.00,1.34
9485.00,1.34
9484.00,1.34
9483.00,1.34
9482.00,1.34
9481.00,1.34
9480.00,1.34
9479.00,1.34
9478.00,1.34
9477.00,1.34
9476.00,1.34
9475.00,1.34
9474.00,1.34
9473.00,1.34
9472.00,1.34
9471.00,1.34
9470.00,1.34
9469.00,1.34
9468.00,1.34
9467.00,1.34
9466.00,1.34
9465.00,1.34
9464.00,1.34
9463.00,1.34
9462.00,1.34
9461.00,1.34
9460.00,1.34
9459.00,1.34
9458.00,1.34
9457.00,1.35
9456.00,1.35
9455.00,1.35
9454.00,1.35
9453.00,1.34
9452.00,1.34
9451.00,1.34
9450.00,1.34
9449.00,1.34
9448.00,1.34
9447.00,1.34
9446.00,1.33
9445.00,1.33
9444.00,1.33
9443.00,1.33
9442.00,1.32
9441.00,1.32
9440.00,1.32
9439.00,1.32
9438.00,1.31
9437.00,1.31
9436.00,1.31
9435.00,1.31
9434.00,1.31
9433.00,1.31
9432.00,1.31
9431.00,1.31
9430.00,1.31
9429.00,1.31
9428.00,1.31
9427.00,1.31
9426.00,1.31
9425.00,1.32
9424.00,1.32
9423.00,1.32
9422.00,1.32
9421.00,1.32
9420.00,1.32
9419.00,1.32
9418.00,1.32
9417.00,1.32
9416.00,1.32
9415.00,1.32
9414.00,1.32
9413.00,1.32
9412.00,1.32
9411.00,1.32
9410.00,1.32
9409.00,1.32
9408.00,1.32
9407.00,1.32
9406.00,1.32
9405.00,1.32
9404.00,1.32
9403.00,1.32
9402.00,1.32
9401.00,1.32
9400.00,1.32
9399.00,1.32
9398.00,1.33
9397.00,1.33
9396.00,1.33
9395.00,1.33
9394.00,1.33
9393.00,1.33
9392.00,1.33
9391.00,1.34
9390.00,1.34
9389.00,1.34
9388.00,1.34
9387.00,1.34
9386.00,1.34
9385.00,1.34
9384.00,1.34
9383.00,1.34
9382.00,1.34
9381.00,1.34
9380.00,1.34
9379.00,1.34
9378.00,1.34
9377.00,1.34
9376.00,1.34
9375.00,1.33
9374.00,1.33
9373.00,1.33
9372.00,1.33
9371.00,1.33
9370.00,1.33
9369.00,1.33
9368.00,1.33
9367.00,1.33
9366.00,1.33
9365.00,1.33
9364.00,1.33
9363.00,1.33
9362.00,1.33
9361.00,1.33
9360.00,1.33
9359.00,1.33
9358.00,1.33
9357.00,1.33
9356.00,1.34
9355.00,1.34
9354.00,1.34
9353.00,1.34
9352.00,1.34
9351.00,1.34
9350.00,1.35
9349.00,1.35
9348.00,1.35
9347.00,1.35
9346.00,1.35
9345.00,1.35
9344.00,1.35
9343.00,1.34
9342.00,1.34
9341.00,1.34
9340.00,1.34
9339.00,1.34
9338.00,1.33
9337.00,1.33
9336.00,1.33
9335.00,1.33
9334.00,1.33
9333.00,1.33
9332.00,1.33
9331.00,1.32
9330.00,1.32
9329.00,1.33
9328.00,1.33
9327.00,1.33
9326.00,1.33
9325.00,1.33
9324.00,1.33
9323.00,1.33
9322.00,1.33
9321.00,1.33
9320.00,1.33
9319.00,1.33
9318.00,1.34
9317.00,1.34
9316.00,1.34
9315.00,1.34
9314.00,1.34
9313.00,1.34
9312.00,1.34
9311.00,1.34
9310.00,1.34
9309.00,1.34
9308.00,1.34
9307.00,1.34
9306.00,1.34
9305.00,1.34
9304.00,1.34
9303.00,1.34
9302.00,1.34
9301.00,1.35
9300.00,1.35
9299.00,1.35
9298.00,1.35
9297.00,1.35
9296.00,1.35
9295.00,1.34
9294.00,1.34
9293.00,1.34
9292.00,1.34
9291.00,1.34
9290.00,1.34
9289.00,1.34
9288.00,1.34
9287.00,1.34
9286.00,1.34
9285.00,1.34
9284.00,1.33
9283.00,1.33
9282.00,1.33
9281.00,1.33
9280.00,1.33
9279.00,1.33
9278.00,1.33
9277.00,1.33
9276.00,1.33
9275.00,1.33
9274.00,1.33
9273.00,1.33
9272.00,1.33
9271.00,1.33
9270.00,1.33
9269.00,1.33
9268.00,1.33
9267.00,1.33
9266.00,1.33
9265.00,1.33
9264.00,1.33
9263.00,1.33
9262.00,1.33
9261.00,1.33
9260.00,1.33
9259.00,1.33
9258.00,1.33
9257.00,1.33
9256.00,1.33
9255.00,1.33
9254.00,1.33
9253.00,1.33
9252.00,1.33
9251.00,1.33
9250.00,1.33
9249.00,1.33
9248.00,1.33
9247.00,1.33
9246.00,1.33
9245.00,1.33
9244.00,1.33
9243.00,1.33
9242.00,1.33
9241.00,1.33
9240.00,1.33
9239.00,1.33
9238.00,1.33
9237.00,1.33
9236.00,1.33
9235.00,1.34
9234.00,1.34
9233.00,1.34
9232.00,1.34
9231.00,1.34
9230.00,1.34
9229.00,1.34
9228.00,1.34
9227.00,1.34
9226.00,1.34
9225.00,1.34
9224.00,1.34
9223.00,1.34
9222.00,1.34
9221.00,1.34
9220.00,1.34
9219.00,1.33
9218.00,1.33
9217.00,1.33
9216.00,1.33
9215.00,1.33
9214.00,1.33
9213.00,1.33
9212.00,1.33
9211.00,1.33
9210.00,1.33
9209.00,1.33
9208.00,1.33
9207.00,1.33
9206.00,1.33
9205.00,1.33
9204.00,1.33
9203.00,1.33
9202.00,1.33
9201.00,1.33
9200.00,1.33
9199.00,1.33
9198.00,1.33
9197.00,1.33
9196.00,1.33
9195.00,1.33
9194.00,1.33
9193.00,1.33
9192.00,1.33
9191.00,1.33
9190.00,1.33
9189.00,1.33
9188.00,1.33
9187.00,1.33
9186.00,1.33
9185.00,1.33
9184.00,1.33
9183.00,1.33
9182.00,1.33
9181.00,1.33
9180.00,1.33
9179.00,1.33
9178.00,1.33
9177.00,1.33
9176.00,1.33
9175.00,1.33
9174.00,1.33
9173.00,1.33
9172.00,1.33
9171.00,1.33
9170.00,1.33
9169.00,1.33
9168.00,1.33
9167.00,1.33
9166.00,1.33
9165.00,1.33
9164.00,1.33
9163.00,1.33
9162.00,1.33
9161.00,1.33
9160.00,1.33
9159.00,1.33
9158.00,1.33
9157.00,1.33
9156.00,1.34
9155.00,1.34
9154.00,1.34
9153.00,1.34
9152.00,1.34
9151.00,1.34
9150.00,1.34
9149.00,1.34
9148.00,1.34
9147.00,1.34
9146.00,1.34
9145.00,1.34
9144.00,1.34
9143.00,1.34
9142.00,1.34
9141.00,1.34
9140.00,1.34
9139.00,1.34
9138.00,1.33
9137.00,1.33
9136.00,1.33
9135.00,1.33
9134.00,1.33
9133.00,1.33
9132.00,1.33
9131.00,1.33
9130.00,1.33
9129.00,1.33
9128.00,1.33
9127.00,1.33
9126.00,1.33
9125.00,1.33
9124.00,1.33
9123.00,1.33
9122.00,1.33
9121.00,1.33
9120.00,1.33
9119.00,1.33
9118.00,1.33
9117.00,1.33
9116.00,1.32
9115.00,1.32
9114.00,1.32
9113.00,1.32
9112.00,1.32
9111.00,1.32
9110.00,1.33
9109.00,1.33
9108.00,1.33
9107.00,1.33
9106.00,1.33
9105.00,1.33
9104.00,1.33
9103.00,1.33
9102.00,1.33
9101.00,1.33
9100.00,1.33
9099.00,1.33
9098.00,1.33
9097.00,1.33
9096.00,1.33
9095.00,1.33
9094.00,1.33
9093.00,1.33
9092.00,1.33
9091.00,1.33
9090.00,1.32
9089.00,1.32
9088.00,1.32
9087.00,1.32
9086.00,1.32
9085.00,1.32
9084.00,1.32
9083.00,1.32
9082.00,1.32
9081.00,1.32
9080.00,1.32
9079.00,1.32
9078.00,1.32
9077.00,1.32
9076.00,1.32
9075.00,1.32
9074.00,1.32
9073.00,1.32
9072.00,1.32
9071.00,1.32
9070.00,1.33
9069.00,1.33
9068.00,1.33
9067.00,1.33
9066.00,1.33
9065.00,1.33
9064.00,1.33
9063.00,1.33
9062.00,1.33
9061.00,1.33
9060.00,1.33
9059.00,1.33
9058.00,1.33
9057.00,1.33
9056.00,1.34
9055.00,1.34
9054.00,1.34
9053.00,1.34
9052.00,1.34
9051.00,1.34
9050.00,1.34
9049.00,1.34
9048.00,1.34
9047.00,1.34
9046.00,1.34
9045.00,1.34
9044.00,1.35
9043.00,1.35
9042.00,1.35
9041.00,1.35
9040.00,1.35
9039.00,1.35
9038.00,1.35
9037.00,1.35
9036.00,1.36
9035.00,1.36
9034.00,1.36
9033.00,1.36
9032.00,1.36
9031.00,1.36
9030.00,1.36
9029.00,1.36
9028.00,1.36
9027.00,1.36
9026.00,1.36
9025.00,1.36
9024.00,1.36
9023.00,1.36
9022.00,1.36
9021.00,1.36
9020.00,1.35
9019.00,1.35
9018.00,1.35
9017.00,1.35
9016.00,1.35
9015.00,1.35
9014.00,1.35
9013.00,1.35
9012.00,1.35
9011.00,1.35
9010.00,1.35
9009.00,1.35
9008.00,1.35
9007.00,1.35
9006.00,1.35
9005.00,1.35
9004.00,1.35
9003.00,1.34
9002.00,1.34
9001.00,1.34
9000.00,1.34
8999.00,1.34
8998.00,1.34
8997.00,1.34
8996.00,1.34
8995.00,1.34
8994.00,1.34
8993.00,1.34
8992.00,1.34
8991.00,1.34
8990.00,1.34
8989.00,1.34
8988.00,1.34
8987.00,1.34
8986.00,1.34
8985.00,1.34
8984.00,1.34
8983.00,1.33
8982.00,1.33
8981.00,1.33
8980.00,1.33
8979.00,1.33
8978.00,1.33
8977.00,1.33
8976.00,1.33
8975.00,1.33
8974.00,1.33
8973.00,1.33
8972.00,1.33
8971.00,1.33
8970.00,1.33
8969.00,1.33
8968.00,1.33
8967.00,1.33
8966.00,1.33
8965.00,1.33
8964.00,1.33
8963.00,1.33
8962.00,1.33
8961.00,1.33
8960.00,1.33
8959.00,1.33
8958.00,1.33
8957.00,1.33
8956.00,1.33
8955.00,1.33
8954.00,1.33
8953.00,1.33
8952.00,1.33
8951.00,1.33
8950.00,1.33
8949.00,1.33
8948.00,1.33
8947.00,1.33
8946.00,1.33
8945.00,1.33
8944.00,1.33
8943.00,1.33
8942.00,1.33
8941.00,1.33
8940.00,1.33
8939.00,1.33
8938.00,1.33
8937.00,1.33
8936.00,1.33
8935.00,1.33
8934.00,1.33
8933.00,1.33
8932.00,1.33
8931.00,1.34
8930.00,1.34
8929.00,1.34
8928.00,1.34
8927.00,1.34
8926.00,1.34
8925.00,1.34
8924.00,1.34
8923.00,1.34
8922.00,1.34
8921.00,1.34
8920.00,1.34
8919.00,1.34
8918.00,1.34
8917.00,1.34
8916.00,1.34
8915.00,1.34
8914.00,1.34
8913.00,1.34
8912.00,1.34
8911.00,1.34
8910.00,1.34
8909.00,1.34
8908.00,1.34
8907.00,1.34
8906.00,1.34
8905.00,1.34
8904.00,1.34
8903.00,1.34
8902.00,1.34
8901.00,1.34
8900.00,1.34
8899.00,1.34
8898.00,1.34
8897.00,1.34
8896.00,1.34
8895.00,1.34
8894.00,1.33
8893.00,1.33
8892.00,1.33
8891.00,1.33
8890.00,1.33
8889.00,1.33
8888.00,1.33
8887.00,1.33
8886.00,1.33
8885.00,1.33
8884.00,1.33
8883.00,1.33
8882.00,1.33
8881.00,1.33
8880.00,1.34
8879.00,1.34
8878.00,1.34
8877.00,1.34
8876.00,1.34
8875.00,1.34
8874.00,1.34
8873.00,1.34
8872.00,1.34
8871.00,1.33
8870.00,1.33
8869.00,1.33
8868.00,1.33
8867.00,1.33
8866.00,1.33
8865.00,1.33
8864.00,1.33
8863.00,1.33
8862.00,1.33
8861.00,1.33
8860.00,1.33
8859.00,1.33
8858.00,1.33
8857.00,1.33
8856.00,1.33
8855.00,1.33
8854.00,1.33
8853.00,1.33
8852.00,1.33
8851.00,1.33
8850.00,1.33
8849.00,1.33
8848.00,1.33
8847.00,1.33
8846.00,1.33
8845.00,1.33
8844.00,1.33
8843.00,1.33
8842.00,1.33
8841.00,1.33
8840.00,1.33
8839.00,1.33
8838.00,1.33
8837.00,1.33
8836.00,1.33
8835.00,1.33
8834.00,1.33
8833.00,1.33
8832.00,1.33
8831.00,1.33
8830.00,1.32
8829.00,1.32
8828.00,1.32
8827.00,1.32
8826.00,1.32
8825.00,1.32
8824.00,1.32
8823.00,1.32
8822.00,1.32
8821.00,1.32
8820.00,1.32
8819.00,1.32
8818.00,1.31
8817.00,1.31
8816.00,1.31
8815.00,1.31
8814.00,1.31
8813.00,1.31
8812.00,1.31
8811.00,1.31
8810.00,1.31
8809.00,1.31
8808.00,1.31
8807.00,1.30
8806.00,1.30
8805.00,1.30
8804.00,1.30
8803.00,1.30
8802.00,1.30
8801.00,1.30
8800.00,1.29
8799.00,1.29
8798.00,1.29
8797.00,1.29
8796.00,1.29
8795.00,1.29
8794.00,1.29
8793.00,1.29
8792.00,1.29
8791.00,1.29
8790.00,1.29
8789.00,1.29
8788.00,1.29
8787.00,1.29
8786.00,1.29
8785.00,1.29
8784.00,1.29
8783.00,1.29
8782.00,1.29
8781.00,1.29
8780.00,1.29
8779.00,1.29
8778.00,1.29
8777.00,1.29
8776.00,1.29
8775.00,1.29
8774.00,1.29
8773.00,1.30
8772.00,1.30
8771.00,1.30
8770.00,1.30
8769.00,1.30
8768.00,1.30
8767.00,1.30
8766.00,1.30
8765.00,1.30
8764.00,1.30
8763.00,1.30
8762.00,1.30
8761.00,1.30
8760.00,1.30
8759.00,1.30
8758.00,1.29
8757.00,1.29
8756.00,1.29
8755.00,1.29
8754.00,1.29
8753.00,1.29
8752.00,1.29
8751.00,1.29
8750.00,1.29
8749.00,1.29
8748.00,1.29
8747.00,1.29
8746.00,1.29
8745.00,1.29
8744.00,1.29
8743.00,1.29
8742.00,1.29
8741.00,1.29
8740.00,1.29
8739.00,1.29
8738.00,1.29
8737.00,1.29
8736.00,1.29
8735.00,1.29
8734.00,1.29
8733.00,1.29
8732.00,1.29
8731.00,1.29
8730.00,1.29
8729.00,1.29
8728.00,1.29
8727.00,1.29
8726.00,1.29
8725.00,1.29
8724.00,1.29
8723.00,1.29
8722.00,1.29
8721.00,1.29
8720.00,1.28
8719.00,1.28
8718.00,1.28
8717.00,1.28
8716.00,1.28
8715.00,1.28
8714.00,1.28
8713.00,1.28
8712.00,1.28
8711.00,1.28
8710.00,1.28
8709.00,1.28
8708.00,1.28
8707.00,1.28
8706.00,1.28
8705.00,1.28
8704.00,1.28
8703.00,1.28
8702.00,1.28
8701.00,1.28
8700.00,1.28
8699.00,1.28
8698.00,1.28
8697.00,1.28
8696.00,1.28
8695.00,1.28
8694.00,1.28
8693.00,1.28
8692.00,1.28
8691.00,1.28
8690.00,1.28
8689.00,1.28
8688.00,1.28
8687.00,1.28
8686.00,1.28
8685.00,1.28
8684.00,1.28
8683.00,1.28
8682.00,1.28
8681.00,1.28
8680.00,1.28
8679.00,1.28
8678.00,1.28
8677.00,1.28
8676.00,1.28
8675.00,1.28
8674.00,1.28
8673.00,1.28
8672.00,1.28
8671.00,1.28
8670.00,1.28
8669.00,1.28
8668.00,1.28
8667.00,1.28
8666.00,1.28
8665.00,1.28
8664.00,1.29
8663.00,1.29
8662.00,1.29
8661.00,1.29
8660.00,1.29
8659.00,1.29
8658.00,1.29
8657.00,1.29
8656.00,1.29
8655.00,1.29
8654.00,1.29
8653.00,1.29
8652.00,1.28
8651.00,1.28
8650.00,1.28
8649.00,1.28
8648.00,1.28
8647.00,1.28
8646.00,1.28
8645.00,1.27
8644.00,1.27
8643.00,1.27
8642.00,1.27
8641.00,1.27
8640.00,1.27
8639.00,1.27
8638.00,1.27
8637.00,1.27
8636.00,1.27
8635.00,1.27
8634.00,1.26
8633.00,1.26
8632.00,1.26
8631.00,1.26
8630.00,1.26
8629.00,1.26
8628.00,1.26
8627.00,1.26
8626.00,1.26
8625.00,1.26
8624.00,1.26
8623.00,1.26
8622.00,1.26
8621.00,1.26
8620.00,1.26
8619.00,1.26
8618.00,1.26
8617.00,1.26
8616.00,1.26
8615.00,1.25
8614.00,1.25
8613.00,1.25
8612.00,1.25
8611.00,1.25
8610.00,1.25
8609.00,1.25
8608.00,1.25
8607.00,1.25
8606.00,1.25
8605.00,1.25
8604.00,1.25
8603.00,1.25
8602.00,1.25
8601.00,1.25
8600.00,1.25
8599.00,1.25
8598.00,1.25
8597.00,1.25
8596.00,1.25
8595.00,1.25
8594.00,1.25
8593.00,1.25
8592.00,1.25
8591.00,1.25
8590.00,1.24
8589.00,1.24
8588.00,1.24
8587.00,1.24
8586.00,1.24
8585.00,1.24
8584.00,1.24
8583.00,1.24
8582.00,1.24
8581.00,1.24
8580.00,1.24
8579.00,1.24
8578.00,1.24
8577.00,1.25
8576.00,1.25
8575.00,1.25
8574.00,1.25
8573.00,1.25
8572.00,1.25
8571.00,1.25
8570.00,1.25
8569.00,1.25
8568.00,1.25
8567.00,1.25
8566.00,1.25
8565.00,1.25
8564.00,1.25
8563.00,1.25
8562.00,1.25
8561.00,1.25
8560.00,1.25
8559.00,1.25
8558.00,1.24
8557.00,1.24
8556.00,1.24
8555.00,1.24
8554.00,1.24
8553.00,1.24
8552.00,1.24
8551.00,1.24
8550.00,1.24
8549.00,1.24
8548.00,1.23
8547.00,1.23
8546.00,1.23
8545.00,1.23
8544.00,1.23
8543.00,1.23
8542.00,1.23
8541.00,1.23
8540.00,1.23
8539.00,1.23
8538.00,1.23
8537.00,1.23
8536.00,1.23
8535.00,1.23
8534.00,1.23
8533.00,1.23
8532.00,1.22
8531.00,1.22
8530.00,1.22
8529.00,1.22
8528.00,1.22
8527.00,1.22
8526.00,1.22
8525.00,1.22
8524.00,1.22
8523.00,1.22
8522.00,1.22
8521.00,1.22
8520.00,1.22
8519.00,1.22
8518.00,1.22
8517.00,1.22
8516.00,1.22
8515.00,1.22
8514.00,1.22
8513.00,1.22
8512.00,1.22
8511.00,1.22
8510.00,1.22
8509.00,1.21
8508.00,1.21
8507.00,1.21
8506.00,1.21
8505.00,1.21
8504.00,1.21
8503.00,1.21
8502.00,1.21
8501.00,1.21
8500.00,1.20
8499.00,1.20
8498.00,1.20
8497.00,1.20
8496.00,1.20
8495.00,1.20
8494.00,1.20
8493.00,1.20
8492.00,1.20
8491.00,1.20
8490.00,1.20
8489.00,1.20
8488.00,1.20
8487.00,1.20
8486.00,1.20
8485.00,1.20
8484.00,1.20
8483.00,1.20
8482.00,1.20
8481.00,1.19
8480.00,1.19
8479.00,1.19
8478.00,1.19
8477.00,1.19
8476.00,1.19
8475.00,1.19
8474.00,1.19
8473.00,1.19
8472.00,1.19
8471.00,1.19
8470.00,1.19
8469.00,1.19
8468.00,1.19
8467.00,1.19
8466.00,1.19
8465.00,1.19
8464.00,1.19
8463.00,1.19
8462.00,1.19
8461.00,1.19
8460.00,1.19
8459.00,1.19
8458.00,1.19
8457.00,1.19
8456.00,1.19
8455.00,1.19
8454.00,1.18
8453.00,1.18
8452.00,1.18
8451.00,1.18
8450.00,1.18
8449.00,1.18
8448.00,1.17
8447.00,1.17
8446.00,1.17
8445.00,1.17
8444.00,1.17
8443.00,1.17
8442.00,1.17
8441.00,1.17
8440.00,1.17
8439.00,1.17
8438.00,1.17
8437.00,1.17
8436.00,1.17
8435.00,1.17
8434.00,1.17
8433.00,1.17
8432.00,1.17
8431.00,1.17
8430.00,1.17
8429.00,1.17
8428.00,1.17
8427.00,1.17
8426.00,1.17
8425.00,1.16
8424.00,1.16
8423.00,1.16
8422.00,1.16
8421.00,1.16
8420.00,1.16
8419.00,1.16
8418.00,1.16
8417.00,1.16
8416.00,1.16
8415.00,1.16
8414.00,1.16
8413.00,1.16
8412.00,1.16
8411.00,1.16
8410.00,1.17
8409.00,1.17
8408.00,1.17
8407.00,1.17
8406.00,1.18
8405.00,1.18
8404.00,1.18
8403.00,1.18
8402.00,1.19
8401.00,1.19
8400.00,1.19
8399.00,1.19
8398.00,1.20
8397.00,1.20
8396.00,1.20
8395.00,1.20
8394.00,1.20
8393.00,1.20
8392.00,1.20
8391.00,1.20
8390.00,1.21
8389.00,1.21
8388.00,1.21
8387.00,1.21
8386.00,1.21
8385.00,1.21
8384.00,1.21
8383.00,1.20
8382.00,1.20
8381.00,1.20
8380.00,1.20
8379.00,1.20
8378.00,1.20
8377.00,1.20
8376.00,1.20
8375.00,1.20
8374.00,1.20
8373.00,1.20
8372.00,1.20
8371.00,1.20
8370.00,1.20
8369.00,1.20
8368.00,1.21
8367.00,1.21
8366.00,1.21
8365.00,1.21
8364.00,1.21
8363.00,1.21
8362.00,1.21
8361.00,1.21
8360.00,1.21
8359.00,1.21
8358.00,1.21
8357.00,1.21
8356.00,1.21
8355.00,1.21
8354.00,1.21
8353.00,1.21
8352.00,1.21
8351.00,1.21
8350.00,1.21
8349.00,1.21
8348.00,1.21
8347.00,1.21
8346.00,1.21
8345.00,1.21
8344.00,1.21
8343.00,1.21
8342.00,1.21
8341.00,1.21
8340.00,1.21
8339.00,1.21
8338.00,1.20
8337.00,1.20
8336.00,1.20
8335.00,1.20
8334.00,1.20
8333.00,1.20
8332.00,1.20
8331.00,1.20
8330.00,1.21
8329.00,1.21
8328.00,1.21
8327.00,1.21
8326.00,1.21
8325.00,1.21
8324.00,1.21
8323.00,1.21
8322.00,1.22
8321.00,1.22
8320.00,1.22
8319.00,1.22
8318.00,1.22
8317.00,1.22
8316.00,1.22
8315.00,1.22
8314.00,1.23
8313.00,1.23
8312.00,1.23
8311.00,1.23
8310.00,1.23
8309.00,1.23
8308.00,1.23
8307.00,1.23
8306.00,1.23
8305.00,1.23
8304.00,1.23
8303.00,1.23
8302.00,1.23
8301.00,1.23
8300.00,1.24
8299.00,1.24
8298.00,1.24
8297.00,1.24
8296.00,1.24
8295.00,1.24
8294.00,1.24
8293.00,1.24
8292.00,1.23
8291.00,1.23
8290.00,1.23
8289.00,1.23
8288.00,1.23
8287.00,1.23
8286.00,1.23
8285.00,1.23
8284.00,1.23
8283.00,1.23
8282.00,1.23
8281.00,1.23
8280.00,1.23
8279.00,1.23
8278.00,1.23
8277.00,1.22
8276.00,1.22
8275.00,1.22
8274.00,1.22
8273.00,1.22
8272.00,1.22
8271.00,1.22
8270.00,1.22
8269.00,1.22
8268.00,1.22
8267.00,1.22
8266.00,1.22
8265.00,1.22
8264.00,1.22
8263.00,1.22
8262.00,1.22
8261.00,1.22
8260.00,1.22
8259.00,1.22
8258.00,1.22
8257.00,1.22
8256.00,1.22
8255.00,1.22
8254.00,1.22
8253.00,1.22
8252.00,1.22
8251.00,1.22
8250.00,1.22
8249.00,1.22
8248.00,1.22
8247.00,1.22
8246.00,1.22
8245.00,1.22
8244.00,1.22
8243.00,1.22
8242.00,1.22
8241.00,1.22
8240.00,1.22
8239.00,1.23
8238.00,1.23
8237.00,1.23
8236.00,1.23
8235.00,1.23
8234.00,1.23
8233.00,1.23
8232.00,1.24
8231.00,1.24
8230.00,1.24
8229.00,1.24
8228.00,1.24
8227.00,1.24
8226.00,1.24
8225.00,1.24
8224.00,1.25
8223.00,1.25
8222.00,1.25
8221.00,1.25
8220.00,1.25
8219.00,1.25
8218.00,1.25
8217.00,1.25
8216.00,1.25
8215.00,1.25
8214.00,1.25
8213.00,1.25
8212.00,1.25
8211.00,1.25
8210.00,1.25
8209.00,1.25
8208.00,1.25
8207.00,1.25
8206.00,1.25
8205.00,1.25
8204.00,1.25
8203.00,1.25
8202.00,1.25
8201.00,1.25
8200.00,1.25
8199.00,1.25
8198.00,1.25
8197.00,1.25
8196.00,1.25
8195.00,1.25
8194.00,1.25
8193.00,1.25
8192.00,1.26
8191.00,1.26
8190.00,1.26
8189.00,1.26
8188.00,1.26
8187.00,1.26
8186.00,1.26
8185.00,1.26
8184.00,1.26
8183.00,1.26
8182.00,1.26
8181.00,1.26
8180.00,1.26
8179.00,1.26
8178.00,1.26
8177.00,1.26
8176.00,1.26
8175.00,1.26
8174.00,1.26
8173.00,1.26
8172.00,1.26
8171.00,1.26
8170.00,1.26
8169.00,1.26
8168.00,1.26
8167.00,1.26
8166.00,1.26
8165.00,1.26
8164.00,1.26
8163.00,1.27
8162.00,1.27
8161.00,1.27
8160.00,1.27
8159.00,1.27
8158.00,1.27
8157.00,1.27
8156.00,1.27
8155.00,1.27
8154.00,1.27
8153.00,1.27
8152.00,1.27
8151.00,1.27
8150.00,1.27
8149.00,1.27
8148.00,1.27
8147.00,1.27
8146.00,1.27
8145.00,1.27
8144.00,1.27
8143.00,1.27
8142.00,1.27
8141.00,1.27
8140.00,1.27
8139.00,1.27
8138.00,1.27
8137.00,1.27
8136.00,1.27
8135.00,1.27
8134.00,1.27
8133.00,1.27
8132.00,1.27
8131.00,1.27
8130.00,1.27
8129.00,1.27
8128.00,1.27
8127.00,1.27
8126.00,1.27
8125.00,1.27
8124.00,1.27
8123.00,1.27
8122.00,1.27
8121.00,1.28
8120.00,1.28
8119.00,1.28
8118.00,1.28
8117.00,1.28
8116.00,1.28
8115.00,1.28
8114.00,1.28
8113.00,1.29
8112.00,1.29
8111.00,1.29
8110.00,1.29
8109.00,1.29
8108.00,1.29
8107.00,1.30
8106.00,1.30
8105.00,1.30
8104.00,1.30
8103.00,1.30
8102.00,1.30
8101.00,1.30
8100.00,1.30
8099.00,1.30
8098.00,1.30
8097.00,1.30
8096.00,1.29
8095.00,1.29
8094.00,1.29
8093.00,1.29
8092.00,1.29
8091.00,1.29
8090.00,1.29
8089.00,1.29
8088.00,1.29
8087.00,1.29
8086.00,1.29
8085.00,1.29
8084.00,1.29
8083.00,1.29
8082.00,1.29
8081.00,1.29
8080.00,1.29
8079.00,1.29
8078.00,1.29
8077.00,1.29
8076.00,1.29
8075.00,1.29
8074.00,1.29
8073.00,1.29
8072.00,1.30
8071.00,1.30
8070.00,1.30
8069.00,1.30
8068.00,1.30
8067.00,1.30
8066.00,1.30
8065.00,1.30
8064.00,1.30
8063.00,1.30
8062.00,1.30
8061.00,1.30
8060.00,1.30
8059.00,1.30
8058.00,1.30
8057.00,1.30
8056.00,1.30
8055.00,1.30
8054.00,1.30
8053.00,1.30
8052.00,1.30
8051.00,1.30
8050.00,1.30
8049.00,1.30
8048.00,1.30
8047.00,1.30
8046.00,1.30
8045.00,1.30
8044.00,1.30
8043.00,1.31
8042.00,1.31
8041.00,1.31
8040.00,1.31
8039.00,1.31
8038.00,1.31
8037.00,1.31
8036.00,1.31
8035.00,1.32
8034.00,1.32
8033.00,1.32
8032.00,1.32
8031.00,1.32
8030.00,1.32
8029.00,1.32
8028.00,1.32
8027.00,1.32
8026.00,1.32
8025.00,1.32
8024.00,1.31
8023.00,1.31
8022.00,1.31
8021.00,1.31
8020.00,1.31
8019.00,1.31
8018.00,1.31
8017.00,1.31
8016.00,1.30
8015.00,1.30
8014.00,1.30
8013.00,1.30
8012.00,1.30
8011.00,1.30
8010.00,1.30
8009.00,1.30
8008.00,1.30
8007.00,1.30
8006.00,1.30
8005.00,1.30
8004.00,1.31
8003.00,1.31
8002.00,1.31
8001.00,1.31
8000.00,1.31
7999.00,1.31
7998.00,1.31
7997.00,1.31
7996.00,1.32
7995.00,1.32
7994.00,1.32
7993.00,1.32
7992.00,1.32
7991.00,1.32
7990.00,1.32
7989.00,1.32
7988.00,1.32
7987.00,1.32
7986.00,1.32
7985.00,1.32
7984.00,1.32
7983.00,1.32
7982.00,1.32
7981.00,1.32
7980.00,1.32
7979.00,1.32
7978.00,1.32
7977.00,1.32
7976.00,1.32
7975.00,1.32
7974.00,1.32
7973.00,1.32
7972.00,1.32
7971.00,1.32
7970.00,1.32
7969.00,1.32
7968.00,1.32
7967.00,1.32
7966.00,1.32
7965.00,1.32
7964.00,1.32
7963.00,1.32
7962.00,1.32
7961.00,1.31
7960.00,1.31
7959.00,1.31
7958.00,1.31
7957.00,1.31
7956.00,1.31
7955.00,1.31
7954.00,1.31
7953.00,1.31
7952.00,1.32
7951.00,1.32
7950.00,1.32
7949.00,1.32
7948.00,1.32
7947.00,1.32
7946.00,1.32
7945.00,1.32
7944.00,1.32
7943.00,1.32
7942.00,1.33
7941.00,1.33
7940.00,1.33
7939.00,1.33
7938.00,1.33
7937.00,1.33
7936.00,1.33
7935.00,1.33
7934.00,1.33
7933.00,1.33
7932.00,1.33
7931.00,1.33
7930.00,1.33
7929.00,1.33
7928.00,1.33
7927.00,1.33
7926.00,1.33
7925.00,1.33
7924.00,1.33
7923.00,1.33
7922.00,1.33
7921.00,1.33
7920.00,1.33
7919.00,1.33
7918.00,1.33
7917.00,1.33
7916.00,1.33
7915.00,1.33
7914.00,1.33
7913.00,1.33
7912.00,1.33
7911.00,1.33
7910.00,1.33
7909.00,1.33
7908.00,1.33
7907.00,1.33
7906.00,1.33
7905.00,1.33
7904.00,1.33
7903.00,1.33
7902.00,1.33
7901.00,1.33
7900.00,1.33
7899.00,1.33
7898.00,1.33
7897.00,1.33
7896.00,1.33
7895.00,1.33
7894.00,1.33
7893.00,1.34
7892.00,1.34
7891.00,1.34
7890.00,1.34
7889.00,1.34
7888.00,1.34
7887.00,1.34
7886.00,1.34
7885.00,1.34
7884.00,1.34
7883.00,1.34
7882.00,1.34
7881.00,1.34
7880.00,1.34
7879.00,1.34
7878.00,1.34
7877.00,1.34
7876.00,1.34
7875.00,1.34
7874.00,1.34
7873.00,1.34
7872.00,1.34
7871.00,1.34
7870.00,1.34
7869.00,1.34
7868.00,1.34
7867.00,1.34
7866.00,1.34
7865.00,1.34
7864.00,1.33
7863.00,1.33
7862.00,1.33
7861.00,1.33
7860.00,1.33
7859.00,1.33
7858.00,1.33
7857.00,1.33
7856.00,1.33
7855.00,1.33
7854.00,1.33
7853.00,1.33
7852.00,1.33
7851.00,1.33
7850.00,1.33
7849.00,1.33
7848.00,1.34
7847.00,1.34
7846.00,1.34
7845.00,1.34
7844.00,1.34
7843.00,1.34
7842.00,1.34
7841.00,1.34
7840.00,1.34
7839.00,1.34
7838.00,1.34
7837.00,1.34
7836.00,1.34
7835.00,1.34
7834.00,1.34
7833.00,1.34
7832.00,1.34
7831.00,1.34
7830.00,1.34
7829.00,1.34
7828.00,1.34
7827.00,1.34
7826.00,1.34
7825.00,1.34
7824.00,1.34
7823.00,1.34
7822.00,1.35
7821.00,1.35
7820.00,1.35
7819.00,1.35
7818.00,1.35
7817.00,1.35
7816.00,1.35
7815.00,1.35
7814.00,1.35
7813.00,1.35
7812.00,1.35
7811.00,1.35
7810.00,1.35
7809.00,1.35
7808.00,1.35
7807.00,1.35
7806.00,1.35
7805.00,1.35
7804.00,1.35
7803.00,1.35
7802.00,1.35
7801.00,1.35
7800.00,1.35
7799.00,1.35
7798.00,1.35
7797.00,1.35
7796.00,1.35
7795.00,1.35
7794.00,1.35
7793.00,1.35
7792.00,1.35
7791.00,1.35
7790.00,1.35
7789.00,1.35
7788.00,1.35
7787.00,1.35
7786.00,1.35
7785.00,1.35
7784.00,1.35
7783.00,1.35
7782.00,1.35
7781.00,1.35
7780.00,1.35
7779.00,1.35
7778.00,1.35
7777.00,1.35
7776.00,1.35
7775.00,1.35
7774.00,1.35
7773.00,1.35
7772.00,1.35
7771.00,1.35
7770.00,1.35
7769.00,1.35
7768.00,1.35
7767.00,1.35
7766.00,1.35
7765.00,1.35
7764.00,1.35
7763.00,1.35
7762.00,1.35
7761.00,1.35
7760.00,1.35
7759.00,1.35
7758.00,1.35
7757.00,1.35
7756.00,1.35
7755.00,1.35
7754.00,1.35
7753.00,1.35
7752.00,1.35
7751.00,1.35
7750.00,1.35
7749.00,1.35
7748.00,1.35
7747.00,1.35
7746.00,1.35
7745.00,1.35
7744.00,1.35
7743.00,1.35
7742.00,1.35
7741.00,1.35
7740.00,1.35
7739.00,1.35
7738.00,1.35
7737.00,1.35
7736.00,1.35
7735.00,1.35
7734.00,1.35
7733.00,1.35
7732.00,1.35
7731.00,1.35
7730.00,1.35
7729.00,1.35
7728.00,1.35
7727.00,1.35
7726.00,1.35
7725.00,1.35
7724.00,1.35
7723.00,1.35
7722.00,1.35
7721.00,1.35
7720.00,1.35
7719.00,1.35
7718.00,1.35
7717.00,1.35
7716.00,1.35
7715.00,1.35
7714.00,1.35
7713.00,1.35
7712.00,1.35
7711.00,1.35
7710.00,1.35
7709.00,1.35
7708.00,1.35
7707.00,1.35
7706.00,1.35
7705.00,1.35
7704.00,1.35
7703.00,1.35
7702.00,1.35
7701.00,1.35
7700.00,1.36
7699.00,1.36
7698.00,1.36
7697.00,1.36
7696.00,1.36
7695.00,1.36
7694.00,1.36
7693.00,1.36
7692.00,1.36
7691.00,1.36
7690.00,1.36
7689.00,1.35
7688.00,1.35
7687.00,1.35
7686.00,1.35
7685.00,1.35
7684.00,1.35
7683.00,1.35
7682.00,1.35
7681.00,1.35
7680.00,1.35
7679.00,1.35
7678.00,1.35
7677.00,1.35
7676.00,1.35
7675.00,1.35
7674.00,1.35
7673.00,1.35
7672.00,1.35
7671.00,1.35
7670.00,1.35
7669.00,1.35
7668.00,1.35
7667.00,1.35
7666.00,1.35
7665.00,1.35
7664.00,1.35
7663.00,1.35
7662.00,1.36
7661.00,1.36
7660.00,1.36
7659.00,1.36
7658.00,1.36
7657.00,1.36
7656.00,1.36
7655.00,1.36
7654.00,1.36
7653.00,1.36
7652.00,1.36
7651.00,1.36
7650.00,1.36
7649.00,1.36
7648.00,1.36
7647.00,1.36
7646.00,1.36
7645.00,1.36
7644.00,1.36
7643.00,1.36
7642.00,1.36
7641.00,1.36
7640.00,1.36
7639.00,1.36
7638.00,1.36
7637.00,1.36
7636.00,1.36
7635.00,1.36
7634.00,1.36
7633.00,1.36
7632.00,1.36
7631.00,1.36
7630.00,1.36
7629.00,1.36
7628.00,1.36
7627.00,1.36
7626.00,1.36
7625.00,1.36
7624.00,1.36
7623.00,1.36
7622.00,1.36
7621.00,1.36
7620.00,1.36
7619.00,1.36
7618.00,1.36
7617.00,1.36
7616.00,1.36
7615.00,1.36
7614.00,1.36
7613.00,1.36
7612.00,1.36
7611.00,1.35
7610.00,1.35
7609.00,1.35
7608.00,1.35
7607.00,1.35
7606.00,1.35
7605.00,1.35
7604.00,1.35
7603.00,1.35
7602.00,1.35
7601.00,1.35
7600.00,1.35
7599.00,1.35
7598.00,1.35
7597.00,1.35
7596.00,1.35
7595.00,1.35
7594.00,1.35
7593.00,1.35
7592.00,1.35
7591.00,1.35
7590.00,1.34
7589.00,1.34
7588.00,1.34
7587.00,1.34
7586.00,1.34
7585.00,1.34
7584.00,1.34
7583.00,1.34
7582.00,1.34
7581.00,1.34
7580.00,1.34
7579.00,1.34
7578.00,1.34
7577.00,1.35
7576.00,1.35
7575.00,1.35
7574.00,1.35
7573.00,1.35
7572.00,1.35
7571.00,1.35
7570.00,1.35
7569.00,1.35
7568.00,1.35
7567.00,1.35
7566.00,1.35
7565.00,1.35
7564.00,1.35
7563.00,1.35
7562.00,1.35
7561.00,1.35
7560.00,1.35
7559.00,1.35
7558.00,1.35
7557.00,1.35
7556.00,1.35
7555.00,1.35
7554.00,1.35
7553.00,1.35
7552.00,1.35
7551.00,1.35
7550.00,1.34
7549.00,1.34
7548.00,1.34
7547.00,1.34
7546.00,1.34
7545.00,1.34
7544.00,1.34
7543.00,1.34
7542.00,1.34
7541.00,1.34
7540.00,1.34
7539.00,1.34
7538.00,1.34
7537.00,1.34
7536.00,1.34
7535.00,1.34
7534.00,1.34
7533.00,1.34
7532.00,1.34
7531.00,1.34
7530.00,1.34
7529.00,1.34
7528.00,1.34
7527.00,1.34
7526.00,1.34
7525.00,1.34
7524.00,1.34
7523.00,1.34
7522.00,1.34
7521.00,1.34
7520.00,1.34
7519.00,1.34
7518.00,1.34
7517.00,1.34
7516.00,1.34
7515.00,1.34
7514.00,1.34
7513.00,1.33
7512.00,1.33
7511.00,1.33
7510.00,1.33
7509.00,1.33
7508.00,1.33
7507.00,1.33
7506.00,1.33
7505.00,1.33
7504.00,1.33
7503.00,1.33
7502.00,1.33
7501.00,1.33
7500.00,1.33
7499.00,1.33
7498.00,1.33
7497.00,1.33
7496.00,1.33
7495.00,1.33
7494.00,1.33
7493.00,1.33
7492.00,1.33
7491.00,1.33
7490.00,1.33
7489.00,1.33
7488.00,1.33
7487.00,1.33
7486.00,1.33
7485.00,1.33
7484.00,1.33
7483.00,1.33
7482.00,1.33
7481.00,1.33
7480.00,1.32
7479.00,1.32
7478.00,1.32
7477.00,1.32
7476.00,1.32
7475.00,1.32
7474.00,1.32
7473.00,1.32
7472.00,1.32
7471.00,1.32
7470.00,1.32
7469.00,1.31
7468.00,1.31
7467.00,1.31
7466.00,1.31
7465.00,1.31
7464.00,1.31
7463.00,1.31
7462.00,1.31
7461.00,1.31
7460.00,1.31
7459.00,1.31
7458.00,1.31
7457.00,1.31
7456.00,1.31
7455.00,1.31
7454.00,1.31
7453.00,1.31
7452.00,1.30
7451.00,1.30
7450.00,1.30
7449.00,1.30
7448.00,1.30
7447.00,1.30
7446.00,1.30
7445.00,1.30
7444.00,1.30
7443.00,1.30
7442.00,1.30
7441.00,1.30
7440.00,1.30
7439.00,1.30
7438.00,1.30
7437.00,1.30
7436.00,1.30
7435.00,1.30
7434.00,1.30
7433.00,1.30
7432.00,1.30
7431.00,1.30
7430.00,1.30
7429.00,1.30
7428.00,1.30
7427.00,1.30
7426.00,1.30
7425.00,1.29
7424.00,1.29
7423.00,1.29
7422.00,1.29
7421.00,1.29
7420.00,1.29
7419.00,1.29
7418.00,1.29
7417.00,1.29
7416.00,1.29
7415.00,1.29
7414.00,1.28
7413.00,1.28
7412.00,1.28
7411.00,1.28
7410.00,1.28
7409.00,1.28
7408.00,1.28
7407.00,1.27
7406.00,1.27
7405.00,1.27
7404.00,1.27
7403.00,1.27
7402.00,1.27
7401.00,1.27
7400.00,1.27
7399.00,1.27
7398.00,1.26
7397.00,1.26
7396.00,1.26
7395.00,1.26
7394.00,1.26
7393.00,1.26
7392.00,1.26
7391.00,1.26
7390.00,1.25
7389.00,1.25
7388.00,1.25
7387.00,1.25
7386.00,1.25
7385.00,1.25
7384.00,1.25
7383.00,1.25
7382.00,1.24
7381.00,1.24
7380.00,1.24
7379.00,1.24
7378.00,1.24
7377.00,1.24
7376.00,1.24
7375.00,1.24
7374.00,1.24
7373.00,1.24
7372.00,1.24
7371.00,1.24
7370.00,1.24
7369.00,1.24
7368.00,1.24
7367.00,1.24
7366.00,1.24
7365.00,1.24
7364.00,1.24
7363.00,1.24
7362.00,1.24
7361.00,1.24
7360.00,1.24
7359.00,1.24
7358.00,1.24
7357.00,1.24
7356.00,1.24
7355.00,1.24
7354.00,1.24
7353.00,1.24
7352.00,1.24
7351.00,1.24
7350.00,1.24
7349.00,1.23
7348.00,1.23
7347.00,1.23
7346.00,1.23
7345.00,1.23
7344.00,1.23
7343.00,1.23
7342.00,1.23
7341.00,1.23
7340.00,1.23
7339.00,1.23
7338.00,1.23
7337.00,1.23
7336.00,1.23
7335.00,1.23
7334.00,1.23
7333.00,1.23
7332.00,1.23
7331.00,1.23
7330.00,1.23
7329.00,1.23
7328.00,1.23
7327.00,1.23
7326.00,1.23
7325.00,1.23
7324.00,1.23
7323.00,1.23
7322.00,1.23
7321.00,1.23
7320.00,1.23
7319.00,1.23
7318.00,1.23
7317.00,1.23
7316.00,1.23
7315.00,1.23
7314.00,1.23
7313.00,1.23
7312.00,1.23
7311.00,1.22
7310.00,1.22
7309.00,1.22
7308.00,1.22
7307.00,1.22
7306.00,1.22
7305.00,1.22
7304.00,1.22
7303.00,1.22
7302.00,1.22
7301.00,1.21
7300.00,1.21
7299.00,1.21
7298.00,1.21
7297.00,1.21
7296.00,1.21
7295.00,1.20
7294.00,1.20
7293.00,1.20
7292.00,1.20
7291.00,1.20
7290.00,1.20
7289.00,1.19
7288.00,1.19
7287.00,1.19
7286.00,1.19
7285.00,1.19
7284.00,1.18
7283.00,1.18
7282.00,1.18
7281.00,1.18
7280.00,1.18
7279.00,1.18
7278.00,1.17
7277.00,1.17
7276.00,1.17
7275.00,1.17
7274.00,1.17
7273.00,1.17
7272.00,1.17
7271.00,1.17
7270.00,1.17
7269.00,1.16
7268.00,1.16
7267.00,1.16
7266.00,1.16
7265.00,1.16
7264.00,1.16
7263.00,1.16
7262.00,1.16
7261.00,1.16
7260.00,1.16
7259.00,1.16
7258.00,1.16
7257.00,1.15
7256.00,1.15
7255.00,1.15
7254.00,1.15
7253.00,1.15
7252.00,1.15
7251.00,1.15
7250.00,1.15
7249.00,1.15
7248.00,1.14
7247.00,1.14
7246.00,1.14
7245.00,1.14
7244.00,1.14
7243.00,1.13
7242.00,1.13
7241.00,1.13
7240.00,1.13
7239.00,1.12
7238.00,1.12
7237.00,1.12
7236.00,1.12
7235.00,1.11
7234.00,1.11
7233.00,1.11
7232.00,1.10
7231.00,1.10
7230.00,1.10
7229.00,1.09
7228.00,1.09
7227.00,1.09
7226.00,1.08
7225.00,1.08
7224.00,1.08
7223.00,1.07
7222.00,1.07
7221.00,1.07
7220.00,1.06
7219.00,1.06
7218.00,1.06
7217.00,1.05
7216.00,1.05
7215.00,1.05
7214.00,1.04
7213.00,1.04
7212.00,1.03
7211.00,1.03
7210.00,1.03
7209.00,1.02
7208.00,1.02
7207.00,1.02
7206.00,1.01
7205.00,1.01
7204.00,1.00
7203.00,1.00
7202.00,1.00
7201.00,1.00
7200.00,0.99
7199.00,0.99
7198.00,0.99
7197.00,0.98
7196.00,0.98
7195.00,0.98
7194.00,0.98
7193.00,0.97
7192.00,0.97
7191.00,0.97
7190.00,0.97
7189.00,0.96
7188.00,0.96
7187.00,0.96
7186.00,0.95
7185.00,0.95
7184.00,0.95
7183.00,0.95
7182.00,0.94
7181.00,0.94
7180.00,0.94
7179.00,0.93
7178.00,0.93
7177.00,0.93
7176.00,0.93
7175.00,0.92
7174.00,0.92
7173.00,0.92
7172.00,0.92
7171.00,0.91
7170.00,0.91
7169.00,0.91
7168.00,0.91
7167.00,0.90
7166.00,0.90
7165.00,0.90
7164.00,0.90
7163.00,0.89
7162.00,0.89
7161.00,0.89
7160.00,0.89
7159.00,0.89
7158.00,0.88
7157.00,0.88
7156.00,0.88
7155.00,0.88
7154.00,0.87
7153.00,0.87
7152.00,0.87
7151.00,0.87
7150.00,0.86
7149.00,0.86
7148.00,0.86
7147.00,0.85
7146.00,0.85
7145.00,0.85
7144.00,0.84
7143.00,0.84
7142.00,0.84
7141.00,0.84
7140.00,0.83
7139.00,0.83
7138.00,0.83
7137.00,0.82
7136.00,0.82
7135.00,0.82
7134.00,0.82
7133.00,0.81
7132.00,0.81
7131.00,0.81
7130.00,0.81
7129.00,0.80
7128.00,0.80
7127.00,0.80
7126.00,0.80
7125.00,0.80
7124.00,0.79
7123.00,0.79
7122.00,0.79
7121.00,0.79
7120.00,0.78
7119.00,0.78
7118.00,0.78
7117.00,0.78
7116.00,0.78
7115.00,0.77
7114.00,0.77
7113.00,0.77
7112.00,0.77
7111.00,0.76
7110.00,0.76
7109.00,0.76
7108.00,0.76
7107.00,0.75
7106.00,0.75
7105.00,0.75
7104.00,0.75
7103.00,0.75
7102.00,0.74
7101.00,0.74
7100.00,0.74
7099.00,0.74
7098.00,0.74
7097.00,0.73
7096.00,0.73
7095.00,0.73
7094.00,0.73
7093.00,0.73
7092.00,0.73
7091.00,0.72
7090.00,0.72
7089.00,0.72
7088.00,0.72
7087.00,0.72
7086.00,0.71
7085.00,0.71
7084.00,0.71
7083.00,0.71
7082.00,0.71
7081.00,0.71
7080.00,0.70
7079.00,0.70
7078.00,0.70
7077.00,0.70
7076.00,0.70
7075.00,0.70
7074.00,0.69
7073.00,0.69
7072.00,0.69
7071.00,0.69
7070.00,0.69
7069.00,0.69
7068.00,0.68
7067.00,0.68
7066.00,0.68
7065.00,0.68
7064.00,0.68
7063.00,0.68
7062.00,0.68
7061.00,0.68
7060.00,0.68
7059.00,0.67
7058.00,0.67
7057.00,0.67
7056.00,0.67
7055.00,0.67
7054.00,0.67
7053.00,0.67
7052.00,0.66
7051.00,0.66
7050.00,0.66
7049.00,0.66
7048.00,0.66
7047.00,0.66
7046.00,0.66
7045.00,0.66
7044.00,0.65
7043.00,0.65
7042.00,0.65
7041.00,0.65
7040.00,0.65
7039.00,0.65
7038.00,0.65
7037.00,0.65
7036.00,0.65
7035.00,0.65
7034.00,0.65
7033.00,0.65
7032.00,0.65
7031.00,0.65
7030.00,0.64
7029.00,0.64
7028.00,0.64
7027.00,0.64
7026.00,0.64
7025.00,0.64
7024.00,0.64
7023.00,0.64
7022.00,0.64
7021.00,0.64
7020.00,0.64
7019.00,0.64
7018.00,0.63
7017.00,0.63
7016.00,0.63
7015.00,0.63
7014.00,0.63
7013.00,0.63
7012.00,0.63
7011.00,0.63
7010.00,0.63
7009.00,0.63
7008.00,0.62
7007.00,0.62
7006.00,0.62
7005.00,0.62
7004.00,0.62
7003.00,0.62
7002.00,0.62
7001.00,0.62
7000.00,0.62
6999.00,0.62
6998.00,0.62
6997.00,0.62
6996.00,0.62
6995.00,0.62
6994.00,0.61
6993.00,0.61
6992.00,0.61
6991.00,0.61
6990.00,0.61
6989.00,0.61
6988.00,0.61
6987.00,0.61
6986.00,0.61
6985.00,0.61
6984.00,0.61
6983.00,0.61
6982.00,0.61
6981.00,0.60
6980.00,0.60
6979.00,0.60
6978.00,0.60
6977.00,0.60
6976.00,0.60
6975.00,0.60
6974.00,0.60
6973.00,0.60
6972.00,0.60
6971.00,0.60
6970.00,0.60
6969.00,0.60
6968.00,0.60
6967.00,0.60
6966.00,0.60
6965.00,0.60
6964.00,0.60
6963.00,0.60
6962.00,0.60
6961.00,0.60
6960.00,0.60
6959.00,0.60
6958.00,0.60
6957.00,0.60
6956.00,0.60
6955.00,0.60
6954.00,0.60
6953.00,0.59
6952.00,0.59
6951.00,0.59
6950.00,0.59
6949.00,0.59
6948.00,0.59
6947.00,0.59
6946.00,0.59
6945.00,0.59
6944.00,0.59
6943.00,0.59
6942.00,0.59
6941.00,0.59
6940.00,0.59
6939.00,0.59
6938.00,0.59
6937.00,0.59
6936.00,0.59
6935.00,0.59
6934.00,0.59
6933.00,0.59
6932.00,0.59
6931.00,0.59
6930.00,0.59
6929.00,0.59
6928.00,0.59
6927.00,0.59
6926.00,0.59
6925.00,0.59
6924.00,0.59
6923.00,0.59
6922.00,0.59
6921.00,0.59
6920.00,0.58
6919.00,0.58
6918.00,0.58
6917.00,0.58
6916.00,0.58
6915.00,0.58
6914.00,0.58
6913.00,0.58
6912.00,0.58
6911.00,0.58
6910.00,0.58
6909.00,0.58
6908.00,0.58
6907.00,0.58
6906.00,0.58
6905.00,0.58
6904.00,0.58
6903.00,0.58
6902.00,0.57
6901.00,0.57
6900.00,0.57
6899.00,0.57
6898.00,0.57
6897.00,0.57
6896.00,0.57
6895.00,0.57
6894.00,0.57
6893.00,0.57
6892.00,0.57
6891.00,0.57
6890.00,0.57
6889.00,0.58
6888.00,0.58
6887.00,0.58
6886.00,0.58
6885.00,0.58
6884.00,0.58
6883.00,0.57
6882.00,0.57
6881.00,0.57
6880.00,0.57
6879.00,0.57
6878.00,0.57
6877.00,0.57
6876.00,0.57
6875.00,0.57
6874.00,0.57
6873.00,0.57
6872.00,0.57
6871.00,0.57
6870.00,0.57
6869.00,0.57
6868.00,0.57
6867.00,0.57
6866.00,0.57
6865.00,0.57
6864.00,0.57
6863.00,0.57
6862.00,0.57
6861.00,0.57
6860.00,0.57
6859.00,0.57
6858.00,0.57
6857.00,0.57
6856.00,0.58
6855.00,0.58
6854.00,0.58
6853.00,0.58
6852.00,0.58
6851.00,0.58
6850.00,0.58
6849.00,0.58
6848.00,0.58
6847.00,0.58
6846.00,0.58
6845.00,0.58
6844.00,0.58
6843.00,0.58
6842.00,0.58
6841.00,0.58
6840.00,0.58
6839.00,0.58
6838.00,0.58
6837.00,0.58
6836.00,0.58
6835.00,0.58
6834.00,0.58
6833.00,0.58
6832.00,0.58
6831.00,0.58
6830.00,0.58
6829.00,0.58
6828.00,0.58
6827.00,0.58
6826.00,0.58
6825.00,0.58
6824.00,0.58
6823.00,0.58
6822.00,0.58
6821.00,0.58
6820.00,0.58
6819.00,0.58
6818.00,0.58
6817.00,0.58
6816.00,0.58
6815.00,0.58
6814.00,0.58
6813.00,0.58
6812.00,0.58
6811.00,0.58
6810.00,0.58
6809.00,0.58
6808.00,0.59
6807.00,0.59
6806.00,0.59
6805.00,0.59
6804.00,0.59
6803.00,0.59
6802.00,0.59
6801.00,0.59
6800.00,0.59
6799.00,0.59
6798.00,0.59
6797.00,0.59
6796.00,0.59
6795.00,0.59
6794.00,0.59
6793.00,0.59
6792.00,0.59
6791.00,0.59
6790.00,0.59
6789.00,0.59
6788.00,0.59
6787.00,0.59
6786.00,0.60
6785.00,0.60
6784.00,0.60
6783.00,0.60
6782.00,0.60
6781.00,0.60
6780.00,0.60
6779.00,0.60
6778.00,0.60
6777.00,0.60
6776.00,0.60
6775.00,0.61
6774.00,0.61
6773.00,0.61
6772.00,0.61
6771.00,0.61
6770.00,0.61
6769.00,0.61
6768.00,0.61
6767.00,0.61
6766.00,0.62
6765.00,0.62
6764.00,0.62
6763.00,0.62
6762.00,0.62
6761.00,0.62
6760.00,0.62
6759.00,0.62
6758.00,0.62
6757.00,0.62
6756.00,0.62
6755.00,0.62
6754.00,0.62
6753.00,0.62
6752.00,0.62
6751.00,0.62
6750.00,0.62
6749.00,0.62
6748.00,0.62
6747.00,0.62
6746.00,0.62
6745.00,0.62
6744.00,0.62
6743.00,0.63
6742.00,0.63
6741.00,0.63
6740.00,0.63
6739.00,0.63
6738.00,0.63
6737.00,0.63
6736.00,0.63
6735.00,0.63
6734.00,0.63
6733.00,0.63
6732.00,0.63
6731.00,0.63
6730.00,0.63
6729.00,0.63
6728.00,0.63
6727.00,0.63
6726.00,0.63
6725.00,0.63
6724.00,0.64
6723.00,0.64
6722.00,0.64
6721.00,0.64
6720.00,0.64
6719.00,0.64
6718.00,0.64
6717.00,0.64
6716.00,0.64
6715.00,0.64
6714.00,0.64
6713.00,0.64
6712.00,0.65
6711.00,0.65
6710.00,0.65
6709.00,0.65
6708.00,0.65
6707.00,0.65
6706.00,0.65
6705.00,0.65
6704.00,0.65
6703.00,0.65
6702.00,0.65
6701.00,0.66
6700.00,0.66
6699.00,0.66
6698.00,0.66
6697.00,0.66
6696.00,0.66
6695.00,0.66
6694.00,0.66
6693.00,0.66
6692.00,0.66
6691.00,0.66
6690.00,0.66
6689.00,0.66
6688.00,0.66
6687.00,0.66
6686.00,0.67
6685.00,0.67
6684.00,0.67
6683.00,0.67
6682.00,0.67
6681.00,0.67
6680.00,0.67
6679.00,0.67
6678.00,0.67
6677.00,0.68
6676.00,0.68
6675.00,0.68
6674.00,0.68
6673.00,0.68
6672.00,0.68
6671.00,0.68
6670.00,0.68
6669.00,0.68
6668.00,0.68
6667.00,0.68
6666.00,0.68
6665.00,0.68
6664.00,0.68
6663.00,0.69
6662.00,0.69
6661.00,0.69
6660.00,0.69
6659.00,0.69
6658.00,0.69
6657.00,0.69
6656.00,0.69
6655.00,0.69
6654.00,0.70
6653.00,0.70
6652.00,0.70
6651.00,0.70
6650.00,0.70
6649.00,0.70
6648.00,0.70
6647.00,0.70
6646.00,0.70
6645.00,0.70
6644.00,0.71
6643.00,0.71
6642.00,0.71
6641.00,0.71
6640.00,0.71
6639.00,0.71
6638.00,0.71
6637.00,0.71
6636.00,0.71
6635.00,0.71
6634.00,0.71
6633.00,0.71
6632.00,0.71
6631.00,0.71
6630.00,0.72
6629.00,0.72
6628.00,0.72
6627.00,0.72
6626.00,0.72
6625.00,0.72
6624.00,0.72
6623.00,0.72
6622.00,0.72
6621.00,0.73
6620.00,0.73
6619.00,0.73
6618.00,0.73
6617.00,0.73
6616.00,0.73
6615.00,0.73
6614.00,0.73
6613.00,0.73
6612.00,0.73
6611.00,0.73
6610.00,0.73
6609.00,0.73
6608.00,0.73
6607.00,0.74
6606.00,0.74
6605.00,0.74
6604.00,0.74
6603.00,0.74
6602.00,0.74
6601.00,0.74
6600.00,0.74
6599.00,0.74
6598.00,0.74
6597.00,0.74
6596.00,0.74
6595.00,0.74
6594.00,0.74
6593.00,0.74
6592.00,0.75
6591.00,0.75
6590.00,0.75
6589.00,0.75
6588.00,0.75
6587.00,0.75
6586.00,0.75
6585.00,0.75
6584.00,0.75
6583.00,0.75
6582.00,0.76
6581.00,0.76
6580.00,0.76
6579.00,0.76
6578.00,0.76
6577.00,0.76
6576.00,0.76
6575.00,0.76
6574.00,0.77
6573.00,0.77
6572.00,0.77
6571.00,0.77
6570.00,0.77
6569.00,0.77
6568.00,0.77
6567.00,0.78
6566.00,0.78
6565.00,0.78
6564.00,0.78
6563.00,0.78
6562.00,0.78
6561.00,0.78
6560.00,0.78
6559.00,0.79
6558.00,0.79
6557.00,0.79
6556.00,0.79
6555.00,0.79
6554.00,0.79
6553.00,0.79
6552.00,0.79
6551.00,0.79
6550.00,0.79
6549.00,0.79
6548.00,0.79
6547.00,0.79
6546.00,0.79
6545.00,0.79
6544.00,0.79
6543.00,0.79
6542.00,0.79
6541.00,0.79
6540.00,0.79
6539.00,0.80
6538.00,0.80
6537.00,0.80
6536.00,0.80
6535.00,0.80
6534.00,0.80
6533.00,0.80
6532.00,0.80
6531.00,0.80
6530.00,0.80
6529.00,0.80
6528.00,0.80
6527.00,0.80
6526.00,0.80
6525.00,0.80
6524.00,0.81
6523.00,0.81
6522.00,0.81
6521.00,0.81
6520.00,0.81
6519.00,0.81
6518.00,0.81
6517.00,0.81
6516.00,0.81
6515.00,0.81
6514.00,0.81
6513.00,0.81
6512.00,0.81
6511.00,0.81
6510.00,0.82
6509.00,0.82
6508.00,0.82
6507.00,0.82
6506.00,0.82
6505.00,0.82
6504.00,0.82
6503.00,0.82
6502.00,0.82
6501.00,0.82
6500.00,0.82
6499.00,0.82
6498.00,0.82
6497.00,0.82
6496.00,0.82
6495.00,0.83
6494.00,0.83
6493.00,0.83
6492.00,0.83
6491.00,0.83
6490.00,0.83
6489.00,0.83
6488.00,0.83
6487.00,0.83
6486.00,0.83
6485.00,0.83
6484.00,0.83
6483.00,0.83
6482.00,0.83
6481.00,0.83
6480.00,0.83
6479.00,0.84
6478.00,0.84
6477.00,0.84
6476.00,0.84
6475.00,0.84
6474.00,0.84
6473.00,0.84
6472.00,0.84
6471.00,0.84
6470.00,0.84
6469.00,0.84
6468.00,0.84
6467.00,0.84
6466.00,0.84
6465.00,0.84
6464.00,0.84
6463.00,0.84
6462.00,0.84
6461.00,0.84
6460.00,0.84
6459.00,0.84
6458.00,0.84
6457.00,0.84
6456.00,0.84
6455.00,0.84
6454.00,0.84
6453.00,0.84
6452.00,0.84
6451.00,0.84
6450.00,0.84
6449.00,0.84
6448.00,0.84
6447.00,0.84
6446.00,0.84
6445.00,0.84
6444.00,0.84
6443.00,0.85
6442.00,0.85
6441.00,0.85
6440.00,0.85
6439.00,0.85
6438.00,0.85
6437.00,0.85
6436.00,0.85
6435.00,0.85
6434.00,0.85
6433.00,0.85
6432.00,0.86
6431.00,0.86
6430.00,0.86
6429.00,0.86
6428.00,0.86
6427.00,0.86
6426.00,0.86
6425.00,0.86
6424.00,0.86
6423.00,0.86
6422.00,0.86
6421.00,0.86
6420.00,0.86
6419.00,0.86
6418.00,0.87
6417.00,0.87
6416.00,0.87
6415.00,0.87
6414.00,0.87
6413.00,0.87
6412.00,0.87
6411.00,0.87
6410.00,0.87
6409.00,0.87
6408.00,0.87
6407.00,0.87
6406.00,0.87
6405.00,0.87
6404.00,0.87
6403.00,0.87
6402.00,0.88
6401.00,0.88
6400.00,0.88
6399.00,0.88
6398.00,0.88
6397.00,0.88
6396.00,0.88
6395.00,0.88
6394.00,0.88
6393.00,0.88
6392.00,0.88
6391.00,0.88
6390.00,0.88
6389.00,0.88
6388.00,0.88
6387.00,0.88
6386.00,0.88
6385.00,0.88
6384.00,0.88
6383.00,0.88
6382.00,0.88
6381.00,0.88
6380.00,0.88
6379.00,0.88
6378.00,0.88
6377.00,0.88
6376.00,0.88
6375.00,0.88
6374.00,0.88
6373.00,0.88
6372.00,0.89
6371.00,0.89
6370.00,0.89
6369.00,0.89
6368.00,0.89
6367.00,0.89
6366.00,0.89
6365.00,0.89
6364.00,0.89
6363.00,0.89
6362.00,0.89
6361.00,0.90
6360.00,0.90
6359.00,0.90
6358.00,0.90
6357.00,0.90
6356.00,0.90
6355.00,0.90
6354.00,0.90
6353.00,0.90
6352.00,0.90
6351.00,0.90
6350.00,0.90
6349.00,0.90
6348.00,0.90
6347.00,0.90
6346.00,0.90
6345.00,0.90
6344.00,0.90
6343.00,0.90
6342.00,0.90
6341.00,0.90
6340.00,0.91
6339.00,0.91
6338.00,0.91
6337.00,0.91
6336.00,0.91
6335.00,0.91
6334.00,0.91
6333.00,0.91
6332.00,0.91
6331.00,0.91
6330.00,0.91
6329.00,0.91
6328.00,0.91
6327.00,0.92
6326.00,0.92
6325.00,0.92
6324.00,0.92
6323.00,0.92
6322.00,0.92
6321.00,0.92
6320.00,0.92
6319.00,0.92
6318.00,0.93
6317.00,0.93
6316.00,0.93
6315.00,0.93
6314.00,0.93
6313.00,0.93
6312.00,0.93
6311.00,0.94
6310.00,0.94
6309.00,0.94
6308.00,0.94
6307.00,0.94
6306.00,0.94
6305.00,0.94
6304.00,0.94
6303.00,0.95
6302.00,0.95
6301.00,0.95
6300.00,0.95
6299.00,0.95
6298.00,0.95
6297.00,0.95
6296.00,0.95
6295.00,0.95
6294.00,0.95
6293.00,0.95
6292.00,0.95
6291.00,0.95
6290.00,0.96
6289.00,0.96
6288.00,0.96
6287.00,0.96
6286.00,0.96
6285.00,0.96
6284.00,0.96
6283.00,0.96
6282.00,0.96
6281.00,0.96
6280.00,0.96
6279.00,0.96
6278.00,0.97
6277.00,0.97
6276.00,0.97
6275.00,0.97
6274.00,0.97
6273.00,0.97
6272.00,0.97
6271.00,0.97
6270.00,0.98
6269.00,0.98
6268.00,0.98
6267.00,0.98
6266.00,0.98
6265.00,0.98
6264.00,0.98
6263.00,0.98
6262.00,0.98
6261.00,0.99
6260.00,0.99
6259.00,0.99
6258.00,0.99
6257.00,0.99
6256.00,0.99
6255.00,0.99
6254.00,1.00
6253.00,1.00
6252.00,1.00
6251.00,1.00
6250.00,1.00
6249.00,1.00
6248.00,1.00
6247.00,1.01
6246.00,1.01
6245.00,1.01
6244.00,1.01
6243.00,1.01
6242.00,1.01
6241.00,1.01
6240.00,1.01
6239.00,1.02
6238.00,1.02
6237.00,1.02
6236.00,1.02
6235.00,1.02
6234.00,1.02
6233.00,1.02
6232.00,1.02
6231.00,1.02
6230.00,1.03
6229.00,1.03
6228.00,1.03
6227.00,1.03
6226.00,1.03
6225.00,1.03
6224.00,1.04
6223.00,1.04
6222.00,1.04
6221.00,1.04
6220.00,1.04
6219.00,1.04
6218.00,1.04
6217.00,1.04
6216.00,1.05
6215.00,1.05
6214.00,1.05
6213.00,1.05
6212.00,1.05
6211.00,1.05
6210.00,1.05
6209.00,1.05
6208.00,1.05
6207.00,1.05
6206.00,1.05
6205.00,1.06
6204.00,1.06
6203.00,1.06
6202.00,1.06
6201.00,1.06
6200.00,1.06
6199.00,1.06
6198.00,1.06
6197.00,1.06
6196.00,1.07
6195.00,1.07
6194.00,1.07
6193.00,1.07
6192.00,1.07
6191.00,1.07
6190.00,1.07
6189.00,1.08
6188.00,1.08
6187.00,1.08
6186.00,1.08
6185.00,1.08
6184.00,1.08
6183.00,1.08
6182.00,1.08
6181.00,1.09
6180.00,1.09
6179.00,1.09
6178.00,1.09
6177.00,1.09
6176.00,1.09
6175.00,1.09
6174.00,1.10
6173.00,1.10
6172.00,1.10
6171.00,1.10
6170.00,1.10
6169.00,1.10
6168.00,1.10
6167.00,1.11
6166.00,1.11
6165.00,1.11
6164.00,1.11
6163.00,1.11
6162.00,1.11
6161.00,1.11
6160.00,1.12
6159.00,1.12
6158.00,1.12
6157.00,1.12
6156.00,1.12
6155.00,1.12
6154.00,1.12
6153.00,1.13
6152.00,1.13
6151.00,1.13
6150.00,1.13
6149.00,1.13
6148.00,1.13
6147.00,1.13
6146.00,1.14
6145.00,1.14
6144.00,1.14
6143.00,1.14
6142.00,1.14
6141.00,1.14
6140.00,1.14
6139.00,1.15
6138.00,1.15
6137.00,1.15
6136.00,1.15
6135.00,1.15
6134.00,1.15
6133.00,1.15
6132.00,1.15
6131.00,1.15
6130.00,1.16
6129.00,1.16
6128.00,1.16
6127.00,1.16
6126.00,1.16
6125.00,1.16
6124.00,1.16
6123.00,1.16
6122.00,1.16
6121.00,1.16
6120.00,1.17
6119.00,1.17
6118.00,1.17
6117.00,1.17
6116.00,1.17
6115.00,1.17
6114.00,1.17
6113.00,1.18
6112.00,1.18
6111.00,1.18
6110.00,1.18
6109.00,1.18
6108.00,1.19
6107.00,1.19
6106.00,1.19
6105.00,1.19
6104.00,1.19
6103.00,1.20
6102.00,1.20
6101.00,1.20
6100.00,1.20
6099.00,1.20
6098.00,1.21
6097.00,1.21
6096.00,1.21
6095.00,1.21
6094.00,1.21
6093.00,1.21
6092.00,1.21
6091.00,1.21
6090.00,1.22
6089.00,1.22
6088.00,1.22
6087.00,1.22
6086.00,1.22
6085.00,1.22
6084.00,1.22
6083.00,1.22
6082.00,1.22
6081.00,1.22
6080.00,1.23
6079.00,1.23
6078.00,1.23
6077.00,1.23
6076.00,1.23
6075.00,1.23
6074.00,1.23
6073.00,1.23
6072.00,1.24
6071.00,1.24
6070.00,1.24
6069.00,1.24
6068.00,1.24
6067.00,1.24
6066.00,1.24
6065.00,1.24
6064.00,1.25
6063.00,1.25
6062.00,1.25
6061.00,1.25
6060.00,1.25
6059.00,1.25
6058.00,1.25
6057.00,1.25
6056.00,1.25
6055.00,1.26
6054.00,1.26
6053.00,1.26
6052.00,1.26
6051.00,1.26
6050.00,1.26
6049.00,1.26
6048.00,1.26
6047.00,1.26
6046.00,1.27
6045.00,1.27
6044.00,1.27
6043.00,1.27
6042.00,1.27
6041.00,1.27
6040.00,1.27
6039.00,1.27
6038.00,1.27
6037.00,1.27
6036.00,1.27
6035.00,1.27
6034.00,1.27
6033.00,1.27
6032.00,1.27
6031.00,1.27
6030.00,1.27
6029.00,1.27
6028.00,1.27
6027.00,1.27
6026.00,1.27
6025.00,1.27
6024.00,1.27
6023.00,1.27
6022.00,1.27
6021.00,1.27
6020.00,1.27
6019.00,1.27
6018.00,1.27
6017.00,1.27
6016.00,1.27
6015.00,1.27
6014.00,1.27
6013.00,1.27
6012.00,1.27
6011.00,1.27
6010.00,1.26
6009.00,1.26
6008.00,1.26
6007.00,1.26
6006.00,1.26
6005.00,1.26
6004.00,1.26
6003.00,1.26
6002.00,1.26
6001.00,1.26
6000.00,1.26
5999.00,1.26
5998.00,1.26
5997.00,1.25
5996.00,1.25
5995.00,1.25
5994.00,1.25
5993.00,1.25
5992.00,1.25
5991.00,1.25
5990.00,1.25
5989.00,1.25
5988.00,1.24
5987.00,1.24
5986.00,1.24
5985.00,1.24
5984.00,1.24
5983.00,1.23
5982.00,1.23
5981.00,1.23
5980.00,1.22
5979.00,1.22
5978.00,1.22
5977.00,1.21
5976.00,1.21
5975.00,1.20
5974.00,1.20
5973.00,1.19
5972.00,1.19
5971.00,1.18
5970.00,1.17
5969.00,1.17
5968.00,1.16
5967.00,1.15
5966.00,1.15
5965.00,1.14
5964.00,1.13
5963.00,1.13
5962.00,1.12
5961.00,1.11
5960.00,1.10
5959.00,1.10
5958.00,1.09
5957.00,1.08
5956.00,1.07
5955.00,1.07
5954.00,1.06
5953.00,1.05
5952.00,1.04
5951.00,1.04
5950.00,1.03
5949.00,1.03
5948.00,1.02
5947.00,1.01
5946.00,1.01
5945.00,1.01
5944.00,1.00
5943.00,1.00
5942.00,0.99
5941.00,0.99
5940.00,0.99
5939.00,0.99
5938.00,0.99
5937.00,0.98
5936.00,0.98
5935.00,0.98
5934.00,0.98
5933.00,0.98
5932.00,0.98
5931.00,0.98
5930.00,0.98
5929.00,0.98
5928.00,0.98
5927.00,0.98
5926.00,0.97
5925.00,0.97
5924.00,0.97
5923.00,0.97
5922.00,0.97
5921.00,0.97
5920.00,0.96
5919.00,0.96
5918.00,0.96
5917.00,0.96
5916.00,0.96
5915.00,0.95
5914.00,0.95
5913.00,0.95
5912.00,0.94
5911.00,0.94
5910.00,0.94
5909.00,0.94
5908.00,0.94
5907.00,0.93
5906.00,0.93
5905.00,0.93
5904.00,0.93
5903.00,0.93
5902.00,0.93
5901.00,0.93
5900.00,0.93
5899.00,0.93
5898.00,0.93
5897.00,0.93
5896.00,0.93
5895.00,0.93
5894.00,0.93
5893.00,0.93
5892.00,0.94
5891.00,0.94
5890.00,0.94
5889.00,0.94
5888.00,0.95
5887.00,0.95
5886.00,0.95
5885.00,0.96
5884.00,0.96
5883.00,0.96
5882.00,0.97
5881.00,0.97
5880.00,0.97
5879.00,0.98
5878.00,0.98
5877.00,0.98
5876.00,0.98
5875.00,0.99
5874.00,0.99
5873.00,0.99
5872.00,0.99
5871.00,0.99
5870.00,1.00
5869.00,1.00
5868.00,1.00
5867.00,1.00
5866.00,1.00
5865.00,1.01
5864.00,1.01
5863.00,1.01
5862.00,1.01
5861.00,1.01
5860.00,1.01
5859.00,1.02
5858.00,1.02
5857.00,1.02
5856.00,1.02
5855.00,1.02
5854.00,1.02
5853.00,1.02
5852.00,1.02
5851.00,1.02
5850.00,1.02
5849.00,1.02
5848.00,1.02
5847.00,1.03
5846.00,1.03
5845.00,1.03
5844.00,1.03
5843.00,1.03
5842.00,1.03
5841.00,1.03
5840.00,1.03
5839.00,1.03
5838.00,1.03
5837.00,1.03
5836.00,1.03
5835.00,1.03
5834.00,1.03
5833.00,1.03
5832.00,1.03
5831.00,1.03
5830.00,1.03
5829.00,1.03
5828.00,1.03
5827.00,1.03
5826.00,1.03
5825.00,1.03
5824.00,1.03
5823.00,1.03
5822.00,1.03
5821.00,1.03
5820.00,1.03
5819.00,1.03
5818.00,1.03
5817.00,1.03
5816.00,1.03
5815.00,1.03
5814.00,1.03
5813.00,1.03
5812.00,1.02
5811.00,1.02
5810.00,1.02
5809.00,1.02
5808.00,1.02
5807.00,1.02
5806.00,1.02
5805.00,1.02
5804.00,1.02
5803.00,1.02
5802.00,1.02
5801.00,1.02
5800.00,1.02
5799.00,1.02
5798.00,1.01
5797.00,1.01
5796.00,1.01
5795.00,1.01
5794.00,1.01
5793.00,1.00
5792.00,1.00
5791.00,1.00
5790.00,1.00
5789.00,1.00
5788.00,0.99
5787.00,0.99
5786.00,0.99
5785.00,0.99
5784.00,0.98
5783.00,0.98
5782.00,0.98
5781.00,0.98
5780.00,0.98
5779.00,0.97
5778.00,0.97
5777.00,0.97
5776.00,0.97
5775.00,0.97
5774.00,0.97
5773.00,0.97
5772.00,0.97
5771.00,0.97
5770.00,0.97
5769.00,0.97
5768.00,0.97
5767.00,0.97
5766.00,0.97
5765.00,0.97
5764.00,0.98
5763.00,0.98
5762.00,0.98
5761.00,0.98
5760.00,0.99
5759.00,0.99
5758.00,0.99
5757.00,1.00
5756.00,1.00
5755.00,1.00
5754.00,1.01
5753.00,1.01
5752.00,1.02
5751.00,1.02
5750.00,1.03
5749.00,1.03
5748.00,1.03
5747.00,1.04
5746.00,1.04
5745.00,1.05
5744.00,1.05
5743.00,1.05
5742.00,1.06
5741.00,1.06
5740.00,1.06
5739.00,1.07
5738.00,1.07
5737.00,1.07
5736.00,1.07
5735.00,1.08
5734.00,1.08
5733.00,1.08
5732.00,1.08
5731.00,1.08
5730.00,1.08
5729.00,1.09
5728.00,1.09
5727.00,1.09
5726.00,1.09
5725.00,1.09
5724.00,1.09
5723.00,1.09
5722.00,1.09
5721.00,1.09
5720.00,1.09
5719.00,1.10
5718.00,1.10
5717.00,1.10
5716.00,1.10
5715.00,1.10
5714.00,1.10
5713.00,1.10
5712.00,1.10
5711.00,1.10
5710.00,1.10
5709.00,1.10
5708.00,1.10
5707.00,1.10
5706.00,1.09
5705.00,1.09
5704.00,1.09
5703.00,1.09
5702.00,1.09
5701.00,1.09
5700.00,1.09
5699.00,1.09
5698.00,1.09
5697.00,1.08
5696.00,1.08
5695.00,1.08
5694.00,1.08
5693.00,1.08
5692.00,1.08
5691.00,1.07
5690.00,1.07
5689.00,1.07
5688.00,1.07
5687.00,1.07
5686.00,1.07
5685.00,1.07
5684.00,1.07
5683.00,1.06
5682.00,1.06
5681.00,1.06
5680.00,1.06
5679.00,1.06
5678.00,1.06
5677.00,1.06
5676.00,1.06
5675.00,1.06
5674.00,1.06
5673.00,1.06
5672.00,1.06
5671.00,1.06
5670.00,1.06
5669.00,1.06
5668.00,1.06
5667.00,1.06
5666.00,1.07
5665.00,1.07
5664.00,1.07
5663.00,1.07
5662.00,1.07
5661.00,1.07
5660.00,1.07
5659.00,1.07
5658.00,1.08
5657.00,1.08
5656.00,1.08
5655.00,1.08
5654.00,1.08
5653.00,1.08
5652.00,1.09
5651.00,1.09
5650.00,1.09
5649.00,1.09
5648.00,1.10
5647.00,1.10
5646.00,1.10
5645.00,1.10
5644.00,1.10
5643.00,1.11
5642.00,1.11
5641.00,1.11
5640.00,1.11
5639.00,1.12
5638.00,1.12
5637.00,1.12
5636.00,1.12
5635.00,1.12
5634.00,1.13
5633.00,1.13
5632.00,1.13
5631.00,1.13
5630.00,1.13
5629.00,1.13
5628.00,1.14
5627.00,1.14
5626.00,1.14
5625.00,1.14
5624.00,1.14
5623.00,1.14
5622.00,1.14
5621.00,1.14
5620.00,1.15
5619.00,1.15
5618.00,1.15
5617.00,1.15
5616.00,1.15
5615.00,1.15
5614.00,1.16
5613.00,1.16
5612.00,1.16
5611.00,1.16
5610.00,1.16
5609.00,1.17
5608.00,1.17
5607.00,1.17
5606.00,1.17
5605.00,1.17
5604.00,1.17
5603.00,1.18
5602.00,1.18
5601.00,1.18
5600.00,1.18
5599.00,1.18
5598.00,1.18
5597.00,1.19
5596.00,1.19
5595.00,1.19
5594.00,1.19
5593.00,1.19
5592.00,1.20
5591.00,1.20
5590.00,1.20
5589.00,1.20
5588.00,1.20
5587.00,1.20
5586.00,1.21
5585.00,1.21
5584.00,1.21
5583.00,1.21
5582.00,1.21
5581.00,1.21
5580.00,1.22
5579.00,1.22
5578.00,1.22
5577.00,1.22
5576.00,1.22
5575.00,1.22
5574.00,1.23
5573.00,1.23
5572.00,1.23
5571.00,1.23
5570.00,1.23
5569.00,1.23
5568.00,1.23
5567.00,1.23
5566.00,1.23
5565.00,1.24
5564.00,1.24
5563.00,1.24
5562.00,1.24
5561.00,1.24
5560.00,1.24
5559.00,1.24
5558.00,1.24
5557.00,1.25
5556.00,1.25
5555.00,1.25
5554.00,1.25
5553.00,1.25
5552.00,1.25
5551.00,1.25
5550.00,1.26
5549.00,1.26
5548.00,1.26
5547.00,1.26
5546.00,1.26
5545.00,1.26
5544.00,1.26
5543.00,1.26
5542.00,1.26
5541.00,1.27
5540.00,1.27
5539.00,1.27
5538.00,1.27
5537.00,1.27
5536.00,1.27
5535.00,1.27
5534.00,1.27
5533.00,1.27
5532.00,1.27
5531.00,1.28
5530.00,1.28
5529.00,1.28
5528.00,1.28
5527.00,1.28
5526.00,1.28
5525.00,1.28
5524.00,1.28
5523.00,1.28
5522.00,1.28
5521.00,1.28
5520.00,1.28
5519.00,1.28
5518.00,1.28
5517.00,1.28
5516.00,1.28
5515.00,1.28
5514.00,1.28
5513.00,1.28
5512.00,1.29
5511.00,1.29
5510.00,1.29
5509.00,1.29
5508.00,1.29
5507.00,1.29
5506.00,1.29
5505.00,1.29
5504.00,1.29
5503.00,1.29
5502.00,1.29
5501.00,1.29
5500.00,1.29
5499.00,1.29
5498.00,1.29
5497.00,1.29
5496.00,1.30
5495.00,1.30
5494.00,1.30
5493.00,1.30
5492.00,1.30
5491.00,1.30
5490.00,1.30
5489.00,1.30
5488.00,1.31
5487.00,1.31
5486.00,1.31
5485.00,1.31
5484.00,1.31
5483.00,1.31
5482.00,1.32
5481.00,1.32
5480.00,1.32
5479.00,1.32
5478.00,1.32
5477.00,1.32
5476.00,1.32
5475.00,1.32
5474.00,1.33
5473.00,1.33
5472.00,1.33
5471.00,1.33
5470.00,1.33
5469.00,1.33
5468.00,1.33
5467.00,1.34
5466.00,1.34
5465.00,1.34
5464.00,1.34
5463.00,1.34
5462.00,1.34
5461.00,1.34
5460.00,1.34
5459.00,1.34
5458.00,1.34
5457.00,1.34
5456.00,1.35
5455.00,1.35
5454.00,1.35
5453.00,1.35
5452.00,1.35
5451.00,1.35
5450.00,1.35
5449.00,1.35
5448.00,1.35
5447.00,1.35
5446.00,1.35
5445.00,1.35
5444.00,1.35
5443.00,1.35
5442.00,1.35
5441.00,1.35
5440.00,1.35
5439.00,1.35
5438.00,1.35
5437.00,1.35
5436.00,1.35
5435.00,1.35
5434.00,1.36
5433.00,1.36
5432.00,1.36
5431.00,1.36
5430.00,1.36
5429.00,1.36
5428.00,1.36
5427.00,1.36
5426.00,1.36
5425.00,1.36
5424.00,1.36
5423.00,1.36
5422.00,1.36
5421.00,1.36
5420.00,1.36
5419.00,1.36
5418.00,1.36
5417.00,1.36
5416.00,1.36
5415.00,1.36
5414.00,1.36
5413.00,1.36
5412.00,1.36
5411.00,1.36
5410.00,1.36
5409.00,1.36
5408.00,1.36
5407.00,1.36
5406.00,1.36
5405.00,1.36
5404.00,1.36
5403.00,1.36
5402.00,1.36
5401.00,1.36
5400.00,1.36
5399.00,1.36
5398.00,1.36
5397.00,1.36
5396.00,1.36
5395.00,1.36
5394.00,1.36
5393.00,1.36
5392.00,1.36
5391.00,1.36
5390.00,1.36
5389.00,1.35
5388.00,1.35
5387.00,1.35
5386.00,1.35
5385.00,1.35
5384.00,1.35
5383.00,1.34
5382.00,1.34
5381.00,1.34
5380.00,1.34
5379.00,1.33
5378.00,1.33
5377.00,1.33
5376.00,1.32
5375.00,1.32
5374.00,1.32
5373.00,1.31
5372.00,1.31
5371.00,1.31
5370.00,1.30
5369.00,1.30
5368.00,1.29
5367.00,1.29
5366.00,1.28
5365.00,1.28
5364.00,1.27
5363.00,1.27
5362.00,1.26
5361.00,1.26
5360.00,1.25
5359.00,1.25
5358.00,1.24
5357.00,1.23
5356.00,1.23
5355.00,1.22
5354.00,1.21
5353.00,1.20
5352.00,1.20
5351.00,1.19
5350.00,1.18
5349.00,1.17
5348.00,1.16
5347.00,1.15
5346.00,1.14
5345.00,1.13
5344.00,1.13
5343.00,1.12
5342.00,1.11
5341.00,1.10
5340.00,1.09
5339.00,1.08
5338.00,1.06
5337.00,1.05
5336.00,1.04
5335.00,1.03
5334.00,1.02
5333.00,1.01
5332.00,1.00
5331.00,0.99
5330.00,0.98
5329.00,0.97
5328.00,0.96
5327.00,0.95
5326.00,0.94
5325.00,0.92
5324.00,0.91
5323.00,0.90
5322.00,0.89
5321.00,0.88
5320.00,0.87
5319.00,0.86
5318.00,0.85
5317.00,0.84
5316.00,0.83
5315.00,0.82
5314.00,0.81
5313.00,0.80
5312.00,0.79
5311.00,0.78
5310.00,0.77
5309.00,0.77
5308.00,0.76
5307.00,0.75
5306.00,0.74
5305.00,0.73
5304.00,0.73
5303.00,0.72
5302.00,0.71
5301.00,0.71
5300.00,0.70
5299.00,0.70
5298.00,0.69
5297.00,0.69
5296.00,0.68
5295.00,0.68
5294.00,0.67
5293.00,0.67
5292.00,0.66
5291.00,0.66
5290.00,0.66
5289.00,0.65
5288.00,0.65
5287.00,0.65
5286.00,0.64
5285.00,0.64
5284.00,0.64
5283.00,0.64
5282.00,0.64
5281.00,0.63
5280.00,0.63
5279.00,0.63
5278.00,0.63
5277.00,0.63
5276.00,0.63
5275.00,0.62
5274.00,0.62
5273.00,0.62
5272.00,0.62
5271.00,0.62
5270.00,0.62
5269.00,0.62
5268.00,0.62
5267.00,0.62
5266.00,0.62
5265.00,0.62
5264.00,0.62
5263.00,0.62
5262.00,0.62
5261.00,0.62
5260.00,0.61
5259.00,0.61
5258.00,0.61
5257.00,0.61
5256.00,0.61
5255.00,0.61
5254.00,0.61
5253.00,0.61
5252.00,0.61
5251.00,0.61
5250.00,0.61
5249.00,0.61
5248.00,0.61
5247.00,0.61
5246.00,0.61
5245.00,0.61
5244.00,0.61
5243.00,0.61
5242.00,0.61
5241.00,0.61
5240.00,0.61
5239.00,0.61
5238.00,0.61
5237.00,0.61
5236.00,0.61
5235.00,0.61
5234.00,0.61
5233.00,0.61
5232.00,0.61
5231.00,0.61
5230.00,0.61
5229.00,0.61
5228.00,0.61
5227.00,0.61
5226.00,0.61
5225.00,0.61
5224.00,0.61
5223.00,0.61
5222.00,0.61
5221.00,0.61
5220.00,0.61
5219.00,0.61
5218.00,0.61
5217.00,0.61
5216.00,0.61
5215.00,0.61
5214.00,0.61
5213.00,0.61
5212.00,0.61
5211.00,0.61
5210.00,0.61
5209.00,0.61
5208.00,0.61
5207.00,0.61
5206.00,0.61
5205.00,0.61
5204.00,0.61
5203.00,0.61
5202.00,0.61
5201.00,0.61
5200.00,0.61
5199.00,0.61
5198.00,0.61
5197.00,0.61
5196.00,0.62
5195.00,0.62
5194.00,0.62
5193.00,0.62
5192.00,0.62
5191.00,0.62
5190.00,0.62
5189.00,0.62
5188.00,0.62
5187.00,0.62
5186.00,0.62
5185.00,0.62
5184.00,0.62
5183.00,0.62
5182.00,0.62
5181.00,0.62
5180.00,0.62
5179.00,0.62
5178.00,0.62
5177.00,0.62
5176.00,0.62
5175.00,0.62
5174.00,0.62
5173.00,0.62
5172.00,0.62
5171.00,0.62
5170.00,0.62
5169.00,0.62
5168.00,0.62
5167.00,0.62
5166.00,0.62
5165.00,0.62
5164.00,0.62
5163.00,0.62
5162.00,0.63
5161.00,0.63
5160.00,0.63
5159.00,0.63
5158.00,0.63
5157.00,0.63
5156.00,0.63
5155.00,0.63
5154.00,0.63
5153.00,0.63
5152.00,0.63
5151.00,0.63
5150.00,0.63
5149.00,0.63
5148.00,0.63
5147.00,0.63
5146.00,0.63
5145.00,0.63
5144.00,0.63
5143.00,0.63
5142.00,0.64
5141.00,0.64
5140.00,0.64
5139.00,0.64
5138.00,0.64
5137.00,0.64
5136.00,0.64
5135.00,0.64
5134.00,0.64
5133.00,0.64
5132.00,0.64
5131.00,0.64
5130.00,0.64
5129.00,0.65
5128.00,0.65
5127.00,0.65
5126.00,0.65
5125.00,0.65
5124.00,0.65
5123.00,0.65
5122.00,0.65
5121.00,0.65
5120.00,0.65
5119.00,0.65
5118.00,0.65
5117.00,0.65
5116.00,0.65
5115.00,0.65
5114.00,0.65
5113.00,0.66
5112.00,0.66
5111.00,0.66
5110.00,0.66
5109.00,0.66
5108.00,0.66
5107.00,0.66
5106.00,0.66
5105.00,0.66
5104.00,0.66
5103.00,0.66
5102.00,0.66
5101.00,0.66
5100.00,0.66
5099.00,0.66
5098.00,0.66
5097.00,0.67
5096.00,0.67
5095.00,0.67
5094.00,0.67
5093.00,0.67
5092.00,0.67
5091.00,0.67
5090.00,0.67
5089.00,0.67
5088.00,0.67
5087.00,0.67
5086.00,0.67
5085.00,0.67
5084.00,0.67
5083.00,0.67
5082.00,0.67
5081.00,0.67
5080.00,0.67
5079.00,0.67
5078.00,0.67
5077.00,0.67
5076.00,0.68
5075.00,0.68
5074.00,0.68
5073.00,0.68
5072.00,0.68
5071.00,0.68
5070.00,0.68
5069.00,0.68
5068.00,0.69
5067.00,0.69
5066.00,0.69
5065.00,0.69
5064.00,0.69
5063.00,0.69
5062.00,0.69
5061.00,0.69
5060.00,0.70
5059.00,0.70
5058.00,0.70
5057.00,0.70
5056.00,0.70
5055.00,0.70
5054.00,0.70
5053.00,0.70
5052.00,0.70
5051.00,0.70
5050.00,0.70
5049.00,0.70
5048.00,0.70
5047.00,0.70
5046.00,0.70
5045.00,0.70
5044.00,0.70
5043.00,0.70
5042.00,0.70
5041.00,0.70
5040.00,0.70
5039.00,0.71
5038.00,0.71
5037.00,0.71
5036.00,0.71
5035.00,0.71
5034.00,0.71
5033.00,0.71
5032.00,0.71
5031.00,0.71
5030.00,0.71
5029.00,0.71
5028.00,0.72
5027.00,0.72
5026.00,0.72
5025.00,0.72
5024.00,0.72
5023.00,0.72
5022.00,0.73
5021.00,0.73
5020.00,0.73
5019.00,0.73
5018.00,0.73
5017.00,0.73
5016.00,0.73
5015.00,0.73
5014.00,0.73
5013.00,0.74
5012.00,0.74
5011.00,0.74
5010.00,0.74
5009.00,0.74
5008.00,0.74
5007.00,0.74
5006.00,0.74
5005.00,0.74
5004.00,0.74
5003.00,0.74
5002.00,0.74
5001.00,0.74
5000.00,0.75
4999.00,0.75
4998.00,0.75
4997.00,0.75
4996.00,0.75
4995.00,0.75
4994.00,0.75
4993.00,0.75
4992.00,0.75
4991.00,0.76
4990.00,0.76
4989.00,0.76
4988.00,0.76
4987.00,0.76
4986.00,0.76
4985.00,0.76
4984.00,0.77
4983.00,0.77
4982.00,0.77
4981.00,0.77
4980.00,0.77
4979.00,0.77
4978.00,0.77
4977.00,0.77
4976.00,0.77
4975.00,0.78
4974.00,0.78
4973.00,0.78
4972.00,0.78
4971.00,0.78
4970.00,0.78
4969.00,0.78
4968.00,0.78
4967.00,0.78
4966.00,0.78
4965.00,0.78
4964.00,0.78
4963.00,0.78
4962.00,0.78
4961.00,0.78
4960.00,0.78
4959.00,0.79
4958.00,0.79
4957.00,0.79
4956.00,0.79
4955.00,0.79
4954.00,0.79
4953.00,0.79
4952.00,0.79
4951.00,0.79
4950.00,0.79
4949.00,0.79
4948.00,0.80
4947.00,0.80
4946.00,0.80
4945.00,0.80
4944.00,0.80
4943.00,0.80
4942.00,0.80
4941.00,0.80
4940.00,0.81
4939.00,0.81
4938.00,0.81
4937.00,0.81
4936.00,0.81
4935.00,0.81
4934.00,0.81
4933.00,0.81
4932.00,0.81
4931.00,0.82
4930.00,0.82
4929.00,0.82
4928.00,0.82
4927.00,0.82
4926.00,0.82
4925.00,0.82
4924.00,0.82
4923.00,0.82
4922.00,0.82
4921.00,0.82
4920.00,0.82
4919.00,0.82
4918.00,0.82
4917.00,0.82
4916.00,0.82
4915.00,0.82
4914.00,0.82
4913.00,0.83
4912.00,0.83
4911.00,0.83
4910.00,0.83
4909.00,0.83
4908.00,0.83
4907.00,0.83
4906.00,0.83
4905.00,0.83
4904.00,0.83
4903.00,0.83
4902.00,0.83
4901.00,0.83
4900.00,0.83
4899.00,0.83
4898.00,0.83
4897.00,0.83
4896.00,0.83
4895.00,0.83
4894.00,0.83
4893.00,0.83
4892.00,0.83
4891.00,0.83
4890.00,0.83
4889.00,0.83
4888.00,0.83
4887.00,0.83
4886.00,0.84
4885.00,0.84
4884.00,0.84
4883.00,0.84
4882.00,0.84
4881.00,0.84
4880.00,0.84
4879.00,0.84
4878.00,0.84
4877.00,0.85
4876.00,0.85
4875.00,0.85
4874.00,0.85
4873.00,0.85
4872.00,0.85
4871.00,0.85
4870.00,0.85
4869.00,0.85
4868.00,0.85
4867.00,0.85
4866.00,0.85
4865.00,0.85
4864.00,0.85
4863.00,0.85
4862.00,0.85
4861.00,0.85
4860.00,0.85
4859.00,0.85
4858.00,0.85
4857.00,0.85
4856.00,0.85
4855.00,0.85
4854.00,0.86
4853.00,0.86
4852.00,0.86
4851.00,0.86
4850.00,0.86
4849.00,0.86
4848.00,0.86
4847.00,0.86
4846.00,0.86
4845.00,0.86
4844.00,0.86
4843.00,0.86
4842.00,0.86
4841.00,0.86
4840.00,0.86
4839.00,0.86
4838.00,0.86
4837.00,0.86
4836.00,0.87
4835.00,0.87
4834.00,0.87
4833.00,0.87
4832.00,0.87
4831.00,0.87
4830.00,0.87
4829.00,0.87
4828.00,0.87
4827.00,0.87
4826.00,0.87
4825.00,0.87
4824.00,0.87
4823.00,0.88
4822.00,0.88
4821.00,0.88
4820.00,0.88
4819.00,0.88
4818.00,0.88
4817.00,0.89
4816.00,0.89
4815.00,0.89
4814.00,0.89
4813.00,0.89
4812.00,0.89
4811.00,0.89
4810.00,0.90
4809.00,0.90
4808.00,0.90
4807.00,0.90
4806.00,0.90
4805.00,0.90
4804.00,0.90
4803.00,0.90
4802.00,0.90
4801.00,0.91
4800.00,0.91
4799.00,0.91
4798.00,0.91
4797.00,0.91
4796.00,0.91
4795.00,0.91
4794.00,0.91
4793.00,0.91
4792.00,0.91
4791.00,0.91
4790.00,0.91
4789.00,0.92
4788.00,0.92
4787.00,0.92
4786.00,0.92
4785.00,0.92
4784.00,0.92
4783.00,0.92
4782.00,0.92
4781.00,0.92
4780.00,0.92
4779.00,0.92
4778.00,0.93
4777.00,0.93
4776.00,0.93
4775.00,0.93
4774.00,0.93
4773.00,0.93
4772.00,0.94
4771.00,0.94
4770.00,0.94
4769.00,0.94
4768.00,0.94
4767.00,0.94
4766.00,0.95
4765.00,0.95
4764.00,0.95
4763.00,0.95
4762.00,0.95
4761.00,0.95
4760.00,0.95
4759.00,0.96
4758.00,0.96
4757.00,0.96
4756.00,0.96
4755.00,0.96
4754.00,0.96
4753.00,0.96
4752.00,0.97
4751.00,0.97
4750.00,0.97
4749.00,0.97
4748.00,0.97
4747.00,0.97
4746.00,0.98
4745.00,0.98
4744.00,0.98
4743.00,0.98
4742.00,0.98
4741.00,0.98
4740.00,0.98
4739.00,0.99
4738.00,0.99
4737.00,0.99
4736.00,0.99
4735.00,0.99
4734.00,0.99
4733.00,0.99
4732.00,1.00
4731.00,1.00
4730.00,1.00
4729.00,1.00
4728.00,1.00
4727.00,1.00
4726.00,1.00
4725.00,1.01
4724.00,1.01
4723.00,1.01
4722.00,1.01
4721.00,1.01
4720.00,1.02
4719.00,1.02
4718.00,1.02
4717.00,1.02
4716.00,1.02
4715.00,1.02
4714.00,1.03
4713.00,1.03
4712.00,1.03
4711.00,1.03
4710.00,1.03
4709.00,1.04
4708.00,1.04
4707.00,1.04
4706.00,1.04
4705.00,1.04
4704.00,1.05
4703.00,1.05
4702.00,1.05
4701.00,1.05
4700.00,1.05
4699.00,1.06
4698.00,1.06
4697.00,1.06
4696.00,1.06
4695.00,1.07
4694.00,1.07
4693.00,1.07
4692.00,1.07
4691.00,1.07
4690.00,1.07
4689.00,1.08
4688.00,1.08
4687.00,1.08
4686.00,1.08
4685.00,1.08
4684.00,1.08
4683.00,1.09
4682.00,1.09
4681.00,1.09
4680.00,1.09
4679.00,1.09
4678.00,1.09
4677.00,1.09
4676.00,1.10
4675.00,1.10
4674.00,1.10
4673.00,1.10
4672.00,1.10
4671.00,1.10
4670.00,1.11
4669.00,1.11
4668.00,1.11
4667.00,1.11
4666.00,1.11
4665.00,1.12
4664.00,1.12
4663.00,1.12
4662.00,1.12
4661.00,1.12
4660.00,1.13
4659.00,1.13
4658.00,1.13
4657.00,1.13
4656.00,1.13
4655.00,1.13
4654.00,1.14
4653.00,1.14
4652.00,1.14
4651.00,1.14
4650.00,1.14
4649.00,1.15
4648.00,1.15
4647.00,1.15
4646.00,1.15
4645.00,1.15
4644.00,1.15
4643.00,1.16
4642.00,1.16
4641.00,1.16
4640.00,1.16
4639.00,1.16
4638.00,1.16
4637.00,1.16
4636.00,1.16
4635.00,1.16
4634.00,1.16
4633.00,1.17
4632.00,1.17
4631.00,1.17
4630.00,1.17
4629.00,1.17
4628.00,1.17
4627.00,1.17
4626.00,1.17
4625.00,1.17
4624.00,1.17
4623.00,1.17
4622.00,1.17
4621.00,1.17
4620.00,1.17
4619.00,1.17
4618.00,1.17
4617.00,1.17
4616.00,1.17
4615.00,1.17
4614.00,1.18
4613.00,1.18
4612.00,1.18
4611.00,1.18
4610.00,1.18
4609.00,1.18
4608.00,1.19
4607.00,1.19
4606.00,1.19
4605.00,1.19
4604.00,1.19
4603.00,1.19
4602.00,1.19
4601.00,1.19
4600.00,1.19
4599.00,1.20
4598.00,1.20
4597.00,1.20
4596.00,1.20
4595.00,1.20
4594.00,1.20
4593.00,1.20
4592.00,1.20
4591.00,1.20
4590.00,1.20
4589.00,1.20
4588.00,1.20
4587.00,1.20
4586.00,1.20
4585.00,1.20
4584.00,1.20
4583.00,1.20
4582.00,1.20
4581.00,1.21
4580.00,1.21
4579.00,1.21
4578.00,1.21
4577.00,1.21
4576.00,1.21
4575.00,1.21
4574.00,1.21
4573.00,1.21
4572.00,1.21
4571.00,1.22
4570.00,1.22
4569.00,1.22
4568.00,1.22
4567.00,1.22
4566.00,1.22
4565.00,1.22
4564.00,1.22
4563.00,1.22
4562.00,1.22
4561.00,1.22
4560.00,1.22
4559.00,1.23
4558.00,1.23
4557.00,1.23
4556.00,1.23
4555.00,1.23
4554.00,1.23
4553.00,1.23
4552.00,1.23
4551.00,1.23
4550.00,1.23
4549.00,1.24
4548.00,1.24
4547.00,1.24
4546.00,1.24
4545.00,1.24
4544.00,1.24
4543.00,1.24
4542.00,1.24
4541.00,1.24
4540.00,1.25
4539.00,1.25
4538.00,1.25
4537.00,1.25
4536.00,1.25
4535.00,1.25
4534.00,1.25
4533.00,1.25
4532.00,1.25
4531.00,1.25
4530.00,1.25
4529.00,1.25
4528.00,1.25
4527.00,1.25
4526.00,1.25
4525.00,1.25
4524.00,1.25
4523.00,1.25
4522.00,1.25
4521.00,1.25
4520.00,1.25
4519.00,1.25
4518.00,1.25
4517.00,1.25
4516.00,1.25
4515.00,1.25
4514.00,1.25
4513.00,1.25
4512.00,1.25
4511.00,1.25
4510.00,1.25
4509.00,1.25
4508.00,1.25
4507.00,1.25
4506.00,1.25
4505.00,1.25
4504.00,1.25
4503.00,1.25
4502.00,1.25
4501.00,1.25
4500.00,1.25
4499.00,1.25
4498.00,1.25
4497.00,1.25
4496.00,1.25
4495.00,1.25
4494.00,1.25
4493.00,1.24
4492.00,1.24
4491.00,1.24
4490.00,1.24
4489.00,1.24
4488.00,1.24
4487.00,1.24
4486.00,1.23
4485.00,1.23
4484.00,1.23
4483.00,1.23
4482.00,1.23
4481.00,1.23
4480.00,1.23
4479.00,1.23
4478.00,1.22
4477.00,1.22
4476.00,1.22
4475.00,1.22
4474.00,1.22
4473.00,1.22
4472.00,1.22
4471.00,1.21
4470.00,1.21
4469.00,1.21
4468.00,1.21
4467.00,1.21
4466.00,1.20
4465.00,1.20
4464.00,1.20
4463.00,1.20
4462.00,1.19
4461.00,1.19
4460.00,1.19
4459.00,1.18
4458.00,1.18
4457.00,1.18
4456.00,1.17
4455.00,1.17
4454.00,1.16
4453.00,1.16
4452.00,1.16
4451.00,1.15
4450.00,1.15
4449.00,1.14
4448.00,1.14
4447.00,1.13
4446.00,1.13
4445.00,1.12
4444.00,1.12
4443.00,1.12
4442.00,1.11
4441.00,1.11
4440.00,1.10
4439.00,1.10
4438.00,1.10
4437.00,1.09
4436.00,1.09
4435.00,1.08
4434.00,1.08
4433.00,1.08
4432.00,1.07
4431.00,1.07
4430.00,1.07
4429.00,1.06
4428.00,1.06
4427.00,1.06
4426.00,1.05
4425.00,1.05
4424.00,1.05
4423.00,1.05
4422.00,1.05
4421.00,1.04
4420.00,1.04
4419.00,1.04
4418.00,1.04
4417.00,1.04
4416.00,1.04
4415.00,1.04
4414.00,1.04
4413.00,1.04
4412.00,1.04
4411.00,1.04
4410.00,1.04
4409.00,1.04
4408.00,1.05
4407.00,1.05
4406.00,1.05
4405.00,1.05
4404.00,1.05
4403.00,1.05
4402.00,1.05
4401.00,1.05
4400.00,1.05
4399.00,1.06
4398.00,1.06
4397.00,1.06
4396.00,1.06
4395.00,1.06
4394.00,1.06
4393.00,1.06
4392.00,1.06
4391.00,1.06
4390.00,1.06
4389.00,1.07
4388.00,1.07
4387.00,1.07
4386.00,1.07
4385.00,1.07
4384.00,1.07
4383.00,1.07
4382.00,1.08
4381.00,1.08
4380.00,1.08
4379.00,1.08
4378.00,1.08
4377.00,1.08
4376.00,1.09
4375.00,1.09
4374.00,1.09
4373.00,1.09
4372.00,1.09
4371.00,1.09
4370.00,1.09
4369.00,1.09
4368.00,1.09
4367.00,1.09
4366.00,1.09
4365.00,1.09
4364.00,1.09
4363.00,1.09
4362.00,1.09
4361.00,1.09
4360.00,1.09
4359.00,1.09
4358.00,1.09
4357.00,1.09
4356.00,1.09
4355.00,1.09
4354.00,1.09
4353.00,1.09
4352.00,1.09
4351.00,1.09
4350.00,1.09
4349.00,1.09
4348.00,1.09
4347.00,1.09
4346.00,1.09
4345.00,1.09
4344.00,1.09
4343.00,1.09
4342.00,1.09
4341.00,1.09
4340.00,1.09
4339.00,1.09
4338.00,1.09
4337.00,1.09
4336.00,1.09
4335.00,1.10
4334.00,1.10
4333.00,1.10
4332.00,1.10
4331.00,1.10
4330.00,1.10
4329.00,1.10
4328.00,1.10
4327.00,1.11
4326.00,1.11
4325.00,1.11
4324.00,1.11
4323.00,1.11
4322.00,1.11
4321.00,1.11
4320.00,1.12
4319.00,1.12
4318.00,1.12
4317.00,1.12
4316.00,1.12
4315.00,1.12
4314.00,1.12
4313.00,1.13
4312.00,1.13
4311.00,1.13
4310.00,1.13
4309.00,1.13
4308.00,1.14
4307.00,1.14
4306.00,1.14
4305.00,1.14
4304.00,1.15
4303.00,1.15
4302.00,1.15
4301.00,1.15
4300.00,1.16
4299.00,1.16
4298.00,1.16
4297.00,1.16
4296.00,1.17
4295.00,1.17
4294.00,1.17
4293.00,1.17
4292.00,1.17
4291.00,1.17
4290.00,1.18
4289.00,1.18
4288.00,1.18
4287.00,1.18
4286.00,1.18
4285.00,1.18
4284.00,1.18
4283.00,1.18
4282.00,1.18
4281.00,1.18
4280.00,1.18
4279.00,1.18
4278.00,1.18
4277.00,1.18
4276.00,1.18
4275.00,1.18
4274.00,1.18
4273.00,1.18
4272.00,1.18
4271.00,1.18
4270.00,1.18
4269.00,1.18
4268.00,1.18
4267.00,1.18
4266.00,1.18
4265.00,1.18
4264.00,1.18
4263.00,1.18
4262.00,1.18
4261.00,1.18
4260.00,1.18
4259.00,1.18
4258.00,1.18
4257.00,1.18
4256.00,1.18
4255.00,1.18
4254.00,1.18
4253.00,1.18
4252.00,1.18
4251.00,1.18
4250.00,1.18
4249.00,1.18
4248.00,1.18
4247.00,1.18
4246.00,1.18
4245.00,1.19
4244.00,1.19
4243.00,1.19
4242.00,1.19
4241.00,1.19
4240.00,1.19
4239.00,1.19
4238.00,1.20
4237.00,1.20
4236.00,1.20
4235.00,1.20
4234.00,1.20
4233.00,1.20
4232.00,1.21
4231.00,1.21
4230.00,1.21
4229.00,1.21
4228.00,1.21
4227.00,1.21
4226.00,1.21
4225.00,1.21
4224.00,1.22
4223.00,1.22
4222.00,1.22
4221.00,1.22
4220.00,1.22
4219.00,1.22
4218.00,1.22
4217.00,1.22
4216.00,1.22
4215.00,1.22
4214.00,1.22
4213.00,1.22
4212.00,1.22
4211.00,1.23
4210.00,1.23
4209.00,1.23
4208.00,1.23
4207.00,1.23
4206.00,1.23
4205.00,1.23
4204.00,1.23
4203.00,1.23
4202.00,1.23
4201.00,1.23
4200.00,1.23
4199.00,1.23
4198.00,1.23
4197.00,1.23
4196.00,1.24
4195.00,1.24
4194.00,1.24
4193.00,1.24
4192.00,1.24
4191.00,1.24
4190.00,1.24
4189.00,1.24
4188.00,1.24
4187.00,1.24
4186.00,1.24
4185.00,1.24
4184.00,1.24
4183.00,1.24
4182.00,1.24
4181.00,1.24
4180.00,1.24
4179.00,1.24
4178.00,1.24
4177.00,1.24
4176.00,1.24
4175.00,1.24
4174.00,1.24
4173.00,1.24
4172.00,1.24
4171.00,1.24
4170.00,1.24
4169.00,1.24
4168.00,1.25
4167.00,1.25
4166.00,1.25
4165.00,1.25
4164.00,1.25
4163.00,1.25
4162.00,1.25
4161.00,1.25
4160.00,1.26
4159.00,1.26
4158.00,1.26
4157.00,1.26
4156.00,1.26
4155.00,1.26
4154.00,1.26
4153.00,1.26
4152.00,1.27
4151.00,1.27
4150.00,1.26
4149.00,1.26
4148.00,1.26
4147.00,1.26
4146.00,1.26
4145.00,1.26
4144.00,1.26
4143.00,1.26
4142.00,1.26
4141.00,1.25
4140.00,1.25
4139.00,1.25
4138.00,1.25
4137.00,1.25
4136.00,1.25
4135.00,1.25
4134.00,1.25
4133.00,1.25
4132.00,1.25
4131.00,1.25
4130.00,1.25
4129.00,1.25
4128.00,1.25
4127.00,1.25
4126.00,1.26
4125.00,1.26
4124.00,1.26
4123.00,1.26
4122.00,1.26
4121.00,1.26
4120.00,1.27
4119.00,1.27
4118.00,1.27
4117.00,1.27
4116.00,1.27
4115.00,1.27
4114.00,1.27
4113.00,1.27
4112.00,1.27
4111.00,1.27
4110.00,1.27
4109.00,1.27
4108.00,1.27
4107.00,1.27
4106.00,1.27
4105.00,1.27
4104.00,1.27
4103.00,1.27
4102.00,1.27
4101.00,1.27
4100.00,1.27
4099.00,1.27
4098.00,1.27
4097.00,1.28
4096.00,1.28
4095.00,1.28
4094.00,1.28
4093.00,1.28
4092.00,1.28
4091.00,1.28
4090.00,1.29
4089.00,1.29
4088.00,1.29
4087.00,1.29
4086.00,1.29
4085.00,1.30
4084.00,1.30
4083.00,1.30
4082.00,1.30
4081.00,1.30
4080.00,1.30
4079.00,1.30
4078.00,1.30
4077.00,1.31
4076.00,1.31
4075.00,1.31
4074.00,1.31
4073.00,1.31
4072.00,1.31
4071.00,1.31
4070.00,1.31
4069.00,1.31
4068.00,1.31
4067.00,1.31
4066.00,1.31
4065.00,1.31
4064.00,1.31
4063.00,1.31
4062.00,1.31
4061.00,1.32
4060.00,1.32
4059.00,1.32
4058.00,1.32
4057.00,1.32
4056.00,1.32
4055.00,1.32
4054.00,1.32
4053.00,1.32
4052.00,1.32
4051.00,1.32
4050.00,1.33
4049.00,1.33
4048.00,1.33
4047.00,1.33
4046.00,1.33
4045.00,1.33
4044.00,1.33
4043.00,1.33
4042.00,1.33
4041.00,1.33
4040.00,1.33
4039.00,1.33
4038.00,1.33
4037.00,1.33
4036.00,1.33
4035.00,1.32
4034.00,1.32
4033.00,1.32
4032.00,1.32
4031.00,1.32
4030.00,1.33
4029.00,1.33
4028.00,1.33
4027.00,1.33
4026.00,1.33
4025.00,1.33
4024.00,1.33
4023.00,1.34
4022.00,1.34
4021.00,1.34
4020.00,1.34
4019.00,1.34
4018.00,1.34
4017.00,1.34
4016.00,1.34
4015.00,1.34
4014.00,1.34
4013.00,1.34
4012.00,1.34
4011.00,1.34
4010.00,1.34
4009.00,1.34
4008.00,1.34
4007.00,1.35
4006.00,1.35
4005.00,1.35
4004.00,1.35
4003.00,1.35
4002.00,1.36
4001.00,1.36
4000.00,1.36
