创建为新数据集,样品 709 用户 Administrator 日期 星期五, 七月 20 2018
cm-1,%T
10000.00,1.33
9999.00,1.33
9998.00,1.33
9997.00,1.33
9996.00,1.32
9995.00,1.32
9994.00,1.32
9993.00,1.32
9992.00,1.32
9991.00,1.32
9990.00,1.32
9989.00,1.31
9988.00,1.31
9987.00,1.31
9986.00,1.31
9985.00,1.30
9984.00,1.30
9983.00,1.30
9982.00,1.30
9981.00,1.30
9980.00,1.29
9979.00,1.29
9978.00,1.29
9977.00,1.29
9976.00,1.29
9975.00,1.29
9974.00,1.29
9973.00,1.29
9972.00,1.29
9971.00,1.29
9970.00,1.29
9969.00,1.29
9968.00,1.29
9967.00,1.29
9966.00,1.29
9965.00,1.30
9964.00,1.30
9963.00,1.30
9962.00,1.30
9961.00,1.30
9960.00,1.30
9959.00,1.30
9958.00,1.31
9957.00,1.31
9956.00,1.31
9955.00,1.31
9954.00,1.31
9953.00,1.31
9952.00,1.31
9951.00,1.32
9950.00,1.32
9949.00,1.32
9948.00,1.32
9947.00,1.32
9946.00,1.32
9945.00,1.32
9944.00,1.32
9943.00,1.32
9942.00,1.33
9941.00,1.33
9940.00,1.33
9939.00,1.33
9938.00,1.33
9937.00,1.33
9936.00,1.33
9935.00,1.33
9934.00,1.32
9933.00,1.32
9932.00,1.32
9931.00,1.32
9930.00,1.32
9929.00,1.31
9928.00,1.31
9927.00,1.31
9926.00,1.30
9925.00,1.30
9924.00,1.30
9923.00,1.29
9922.00,1.29
9921.00,1.29
9920.00,1.28
9919.00,1.28
9918.00,1.28
9917.00,1.27
9916.00,1.27
9915.00,1.27
9914.00,1.27
9913.00,1.27
9912.00,1.27
9911.00,1.27
9910.00,1.27
9909.00,1.28
9908.00,1.28
9907.00,1.28
9906.00,1.29
9905.00,1.29
9904.00,1.29
9903.00,1.30
9902.00,1.30
9901.00,1.30
9900.00,1.31
9899.00,1.31
9898.00,1.31
9897.00,1.31
9896.00,1.32
9895.00,1.32
9894.00,1.32
9893.00,1.32
9892.00,1.32
9891.00,1.32
9890.00,1.32
9889.00,1.32
9888.00,1.32
9887.00,1.32
9886.00,1.31
9885.00,1.31
9884.00,1.31
9883.00,1.31
9882.00,1.31
9881.00,1.31
9880.00,1.31
9879.00,1.30
9878.00,1.30
9877.00,1.30
9876.00,1.30
9875.00,1.30
9874.00,1.30
9873.00,1.30
9872.00,1.30
9871.00,1.30
9870.00,1.30
9869.00,1.30
9868.00,1.30
9867.00,1.30
9866.00,1.30
9865.00,1.30
9864.00,1.31
9863.00,1.31
9862.00,1.31
9861.00,1.31
9860.00,1.31
9859.00,1.31
9858.00,1.32
9857.00,1.32
9856.00,1.32
9855.00,1.32
9854.00,1.32
9853.00,1.32
9852.00,1.32
9851.00,1.32
9850.00,1.32
9849.00,1.32
9848.00,1.32
9847.00,1.31
9846.00,1.31
9845.00,1.31
9844.00,1.31
9843.00,1.31
9842.00,1.31
9841.00,1.31
9840.00,1.31
9839.00,1.30
9838.00,1.30
9837.00,1.30
9836.00,1.30
9835.00,1.30
9834.00,1.30
9833.00,1.30
9832.00,1.30
9831.00,1.30
9830.00,1.30
9829.00,1.30
9828.00,1.30
9827.00,1.30
9826.00,1.30
9825.00,1.30
9824.00,1.30
9823.00,1.30
9822.00,1.31
9821.00,1.31
9820.00,1.31
9819.00,1.31
9818.00,1.31
9817.00,1.31
9816.00,1.31
9815.00,1.31
9814.00,1.31
9813.00,1.31
9812.00,1.31
9811.00,1.31
9810.00,1.31
9809.00,1.31
9808.00,1.31
9807.00,1.31
9806.00,1.31
9805.00,1.31
9804.00,1.31
9803.00,1.31
9802.00,1.30
9801.00,1.30
9800.00,1.30
9799.00,1.30
9798.00,1.30
9797.00,1.29
9796.00,1.29
9795.00,1.29
9794.00,1.29
9793.00,1.28
9792.00,1.28
9791.00,1.28
9790.00,1.28
9789.00,1.27
9788.00,1.27
9787.00,1.27
9786.00,1.27
9785.00,1.27
9784.00,1.27
9783.00,1.27
9782.00,1.27
9781.00,1.27
9780.00,1.28
9779.00,1.28
9778.00,1.28
9777.00,1.28
9776.00,1.28
9775.00,1.28
9774.00,1.28
9773.00,1.29
9772.00,1.29
9771.00,1.29
9770.00,1.29
9769.00,1.29
9768.00,1.29
9767.00,1.29
9766.00,1.29
9765.00,1.29
9764.00,1.29
9763.00,1.29
9762.00,1.30
9761.00,1.30
9760.00,1.30
9759.00,1.30
9758.00,1.30
9757.00,1.30
9756.00,1.30
9755.00,1.30
9754.00,1.30
9753.00,1.30
9752.00,1.30
9751.00,1.29
9750.00,1.29
9749.00,1.29
9748.00,1.29
9747.00,1.29
9746.00,1.28
9745.00,1.28
9744.00,1.28
9743.00,1.28
9742.00,1.28
9741.00,1.28
9740.00,1.28
9739.00,1.28
9738.00,1.28
9737.00,1.28
9736.00,1.28
9735.00,1.28
9734.00,1.28
9733.00,1.28
9732.00,1.28
9731.00,1.29
9730.00,1.29
9729.00,1.29
9728.00,1.29
9727.00,1.29
9726.00,1.29
9725.00,1.29
9724.00,1.30
9723.00,1.30
9722.00,1.30
9721.00,1.30
9720.00,1.30
9719.00,1.30
9718.00,1.30
9717.00,1.30
9716.00,1.30
9715.00,1.30
9714.00,1.30
9713.00,1.30
9712.00,1.30
9711.00,1.31
9710.00,1.31
9709.00,1.31
9708.00,1.31
9707.00,1.31
9706.00,1.32
9705.00,1.32
9704.00,1.32
9703.00,1.32
9702.00,1.32
9701.00,1.32
9700.00,1.32
9699.00,1.32
9698.00,1.32
9697.00,1.32
9696.00,1.32
9695.00,1.32
9694.00,1.32
9693.00,1.32
9692.00,1.31
9691.00,1.31
9690.00,1.31
9689.00,1.30
9688.00,1.30
9687.00,1.30
9686.00,1.29
9685.00,1.29
9684.00,1.29
9683.00,1.28
9682.00,1.28
9681.00,1.28
9680.00,1.28
9679.00,1.28
9678.00,1.28
9677.00,1.27
9676.00,1.27
9675.00,1.27
9674.00,1.27
9673.00,1.27
9672.00,1.27
9671.00,1.28
9670.00,1.28
9669.00,1.28
9668.00,1.28
9667.00,1.28
9666.00,1.28
9665.00,1.29
9664.00,1.29
9663.00,1.29
9662.00,1.29
9661.00,1.29
9660.00,1.30
9659.00,1.30
9658.00,1.30
9657.00,1.30
9656.00,1.30
9655.00,1.30
9654.00,1.30
9653.00,1.30
9652.00,1.30
9651.00,1.30
9650.00,1.30
9649.00,1.30
9648.00,1.30
9647.00,1.30
9646.00,1.29
9645.00,1.29
9644.00,1.29
9643.00,1.29
9642.00,1.29
9641.00,1.29
9640.00,1.28
9639.00,1.28
9638.00,1.28
9637.00,1.28
9636.00,1.28
9635.00,1.28
9634.00,1.28
9633.00,1.28
9632.00,1.28
9631.00,1.29
9630.00,1.29
9629.00,1.29
9628.00,1.29
9627.00,1.29
9626.00,1.30
9625.00,1.30
9624.00,1.30
9623.00,1.30
9622.00,1.31
9621.00,1.31
9620.00,1.31
9619.00,1.31
9618.00,1.31
9617.00,1.32
9616.00,1.32
9615.00,1.32
9614.00,1.32
9613.00,1.32
9612.00,1.32
9611.00,1.31
9610.00,1.31
9609.00,1.31
9608.00,1.31
9607.00,1.31
9606.00,1.30
9605.00,1.30
9604.00,1.30
9603.00,1.30
9602.00,1.30
9601.00,1.29
9600.00,1.29
9599.00,1.29
9598.00,1.29
9597.00,1.29
9596.00,1.29
9595.00,1.29
9594.00,1.29
9593.00,1.29
9592.00,1.29
9591.00,1.29
9590.00,1.30
9589.00,1.30
9588.00,1.30
9587.00,1.30
9586.00,1.30
9585.00,1.30
9584.00,1.31
9583.00,1.31
9582.00,1.31
9581.00,1.31
9580.00,1.31
9579.00,1.31
9578.00,1.31
9577.00,1.31
9576.00,1.31
9575.00,1.31
9574.00,1.31
9573.00,1.31
9572.00,1.31
9571.00,1.31
9570.00,1.31
9569.00,1.31
9568.00,1.31
9567.00,1.31
9566.00,1.31
9565.00,1.31
9564.00,1.31
9563.00,1.31
9562.00,1.31
9561.00,1.30
9560.00,1.30
9559.00,1.30
9558.00,1.30
9557.00,1.30
9556.00,1.29
9555.00,1.29
9554.00,1.29
9553.00,1.29
9552.00,1.28
9551.00,1.28
9550.00,1.28
9549.00,1.28
9548.00,1.28
9547.00,1.28
9546.00,1.28
9545.00,1.28
9544.00,1.28
9543.00,1.28
9542.00,1.28
9541.00,1.28
9540.00,1.28
9539.00,1.28
9538.00,1.28
9537.00,1.28
9536.00,1.28
9535.00,1.28
9534.00,1.28
9533.00,1.28
9532.00,1.28
9531.00,1.28
9530.00,1.28
9529.00,1.29
9528.00,1.29
9527.00,1.29
9526.00,1.29
9525.00,1.29
9524.00,1.29
9523.00,1.29
9522.00,1.29
9521.00,1.29
9520.00,1.29
9519.00,1.29
9518.00,1.29
9517.00,1.29
9516.00,1.29
9515.00,1.29
9514.00,1.29
9513.00,1.29
9512.00,1.29
9511.00,1.30
9510.00,1.30
9509.00,1.30
9508.00,1.30
9507.00,1.30
9506.00,1.30
9505.00,1.30
9504.00,1.30
9503.00,1.30
9502.00,1.30
9501.00,1.31
9500.00,1.31
9499.00,1.31
9498.00,1.31
9497.00,1.31
9496.00,1.31
9495.00,1.31
9494.00,1.31
9493.00,1.31
9492.00,1.31
9491.00,1.31
9490.00,1.31
9489.00,1.31
9488.00,1.31
9487.00,1.31
9486.00,1.32
9485.00,1.32
9484.00,1.32
9483.00,1.32
9482.00,1.32
9481.00,1.32
9480.00,1.32
9479.00,1.32
9478.00,1.32
9477.00,1.32
9476.00,1.32
9475.00,1.32
9474.00,1.32
9473.00,1.32
9472.00,1.32
9471.00,1.32
9470.00,1.32
9469.00,1.32
9468.00,1.32
9467.00,1.32
9466.00,1.32
9465.00,1.32
9464.00,1.32
9463.00,1.31
9462.00,1.31
9461.00,1.31
9460.00,1.31
9459.00,1.31
9458.00,1.31
9457.00,1.31
9456.00,1.30
9455.00,1.30
9454.00,1.30
9453.00,1.30
9452.00,1.30
9451.00,1.30
9450.00,1.30
9449.00,1.30
9448.00,1.29
9447.00,1.29
9446.00,1.29
9445.00,1.29
9444.00,1.29
9443.00,1.29
9442.00,1.29
9441.00,1.29
9440.00,1.28
9439.00,1.28
9438.00,1.28
9437.00,1.28
9436.00,1.28
9435.00,1.28
9434.00,1.28
9433.00,1.28
9432.00,1.28
9431.00,1.28
9430.00,1.28
9429.00,1.28
9428.00,1.29
9427.00,1.29
9426.00,1.29
9425.00,1.29
9424.00,1.30
9423.00,1.30
9422.00,1.30
9421.00,1.31
9420.00,1.31
9419.00,1.31
9418.00,1.32
9417.00,1.32
9416.00,1.32
9415.00,1.32
9414.00,1.32
9413.00,1.32
9412.00,1.32
9411.00,1.32
9410.00,1.32
9409.00,1.32
9408.00,1.32
9407.00,1.32
9406.00,1.32
9405.00,1.32
9404.00,1.32
9403.00,1.31
9402.00,1.31
9401.00,1.31
9400.00,1.31
9399.00,1.31
9398.00,1.31
9397.00,1.31
9396.00,1.31
9395.00,1.31
9394.00,1.31
9393.00,1.31
9392.00,1.31
9391.00,1.31
9390.00,1.31
9389.00,1.31
9388.00,1.31
9387.00,1.32
9386.00,1.32
9385.00,1.32
9384.00,1.31
9383.00,1.31
9382.00,1.31
9381.00,1.31
9380.00,1.31
9379.00,1.31
9378.00,1.31
9377.00,1.31
9376.00,1.30
9375.00,1.30
9374.00,1.30
9373.00,1.30
9372.00,1.30
9371.00,1.30
9370.00,1.30
9369.00,1.30
9368.00,1.30
9367.00,1.30
9366.00,1.30
9365.00,1.30
9364.00,1.30
9363.00,1.30
9362.00,1.30
9361.00,1.30
9360.00,1.30
9359.00,1.30
9358.00,1.31
9357.00,1.31
9356.00,1.31
9355.00,1.31
9354.00,1.31
9353.00,1.31
9352.00,1.31
9351.00,1.31
9350.00,1.31
9349.00,1.31
9348.00,1.30
9347.00,1.30
9346.00,1.30
9345.00,1.30
9344.00,1.30
9343.00,1.30
9342.00,1.30
9341.00,1.30
9340.00,1.30
9339.00,1.30
9338.00,1.30
9337.00,1.30
9336.00,1.30
9335.00,1.29
9334.00,1.29
9333.00,1.29
9332.00,1.29
9331.00,1.29
9330.00,1.29
9329.00,1.29
9328.00,1.29
9327.00,1.29
9326.00,1.29
9325.00,1.29
9324.00,1.29
9323.00,1.29
9322.00,1.29
9321.00,1.29
9320.00,1.30
9319.00,1.30
9318.00,1.30
9317.00,1.30
9316.00,1.30
9315.00,1.30
9314.00,1.30
9313.00,1.30
9312.00,1.30
9311.00,1.30
9310.00,1.30
9309.00,1.30
9308.00,1.30
9307.00,1.30
9306.00,1.30
9305.00,1.30
9304.00,1.30
9303.00,1.30
9302.00,1.30
9301.00,1.30
9300.00,1.30
9299.00,1.29
9298.00,1.29
9297.00,1.29
9296.00,1.29
9295.00,1.29
9294.00,1.28
9293.00,1.28
9292.00,1.28
9291.00,1.28
9290.00,1.28
9289.00,1.28
9288.00,1.27
9287.00,1.27
9286.00,1.27
9285.00,1.27
9284.00,1.27
9283.00,1.27
9282.00,1.27
9281.00,1.27
9280.00,1.28
9279.00,1.28
9278.00,1.28
9277.00,1.28
9276.00,1.29
9275.00,1.29
9274.00,1.29
9273.00,1.29
9272.00,1.30
9271.00,1.30
9270.00,1.30
9269.00,1.30
9268.00,1.30
9267.00,1.30
9266.00,1.31
9265.00,1.31
9264.00,1.31
9263.00,1.31
9262.00,1.31
9261.00,1.31
9260.00,1.30
9259.00,1.30
9258.00,1.30
9257.00,1.30
9256.00,1.30
9255.00,1.30
9254.00,1.30
9253.00,1.30
9252.00,1.30
9251.00,1.30
9250.00,1.30
9249.00,1.30
9248.00,1.30
9247.00,1.30
9246.00,1.30
9245.00,1.30
9244.00,1.30
9243.00,1.30
9242.00,1.30
9241.00,1.30
9240.00,1.30
9239.00,1.30
9238.00,1.30
9237.00,1.30
9236.00,1.30
9235.00,1.30
9234.00,1.30
9233.00,1.30
9232.00,1.30
9231.00,1.30
9230.00,1.30
9229.00,1.29
9228.00,1.29
9227.00,1.29
9226.00,1.29
9225.00,1.29
9224.00,1.29
9223.00,1.29
9222.00,1.29
9221.00,1.29
9220.00,1.29
9219.00,1.29
9218.00,1.29
9217.00,1.29
9216.00,1.29
9215.00,1.30
9214.00,1.30
9213.00,1.30
9212.00,1.30
9211.00,1.30
9210.00,1.30
9209.00,1.30
9208.00,1.30
9207.00,1.30
9206.00,1.30
9205.00,1.30
9204.00,1.30
9203.00,1.30
9202.00,1.30
9201.00,1.30
9200.00,1.30
9199.00,1.30
9198.00,1.30
9197.00,1.30
9196.00,1.30
9195.00,1.30
9194.00,1.30
9193.00,1.30
9192.00,1.30
9191.00,1.30
9190.00,1.30
9189.00,1.30
9188.00,1.30
9187.00,1.30
9186.00,1.30
9185.00,1.30
9184.00,1.30
9183.00,1.30
9182.00,1.30
9181.00,1.30
9180.00,1.30
9179.00,1.30
9178.00,1.30
9177.00,1.29
9176.00,1.29
9175.00,1.29
9174.00,1.29
9173.00,1.29
9172.00,1.29
9171.00,1.29
9170.00,1.29
9169.00,1.29
9168.00,1.29
9167.00,1.30
9166.00,1.30
9165.00,1.30
9164.00,1.30
9163.00,1.30
9162.00,1.30
9161.00,1.30
9160.00,1.30
9159.00,1.30
9158.00,1.30
9157.00,1.31
9156.00,1.31
9155.00,1.31
9154.00,1.31
9153.00,1.31
9152.00,1.31
9151.00,1.31
9150.00,1.31
9149.00,1.31
9148.00,1.31
9147.00,1.30
9146.00,1.30
9145.00,1.30
9144.00,1.30
9143.00,1.30
9142.00,1.30
9141.00,1.30
9140.00,1.30
9139.00,1.29
9138.00,1.29
9137.00,1.29
9136.00,1.29
9135.00,1.29
9134.00,1.29
9133.00,1.29
9132.00,1.29
9131.00,1.29
9130.00,1.29
9129.00,1.29
9128.00,1.29
9127.00,1.29
9126.00,1.29
9125.00,1.30
9124.00,1.30
9123.00,1.30
9122.00,1.30
9121.00,1.30
9120.00,1.30
9119.00,1.30
9118.00,1.29
9117.00,1.29
9116.00,1.29
9115.00,1.29
9114.00,1.29
9113.00,1.29
9112.00,1.29
9111.00,1.29
9110.00,1.29
9109.00,1.29
9108.00,1.29
9107.00,1.29
9106.00,1.29
9105.00,1.29
9104.00,1.29
9103.00,1.29
9102.00,1.29
9101.00,1.29
9100.00,1.29
9099.00,1.29
9098.00,1.29
9097.00,1.29
9096.00,1.29
9095.00,1.29
9094.00,1.29
9093.00,1.29
9092.00,1.29
9091.00,1.29
9090.00,1.29
9089.00,1.29
9088.00,1.29
9087.00,1.29
9086.00,1.29
9085.00,1.29
9084.00,1.29
9083.00,1.29
9082.00,1.29
9081.00,1.29
9080.00,1.29
9079.00,1.30
9078.00,1.30
9077.00,1.30
9076.00,1.30
9075.00,1.30
9074.00,1.31
9073.00,1.31
9072.00,1.31
9071.00,1.31
9070.00,1.31
9069.00,1.32
9068.00,1.32
9067.00,1.32
9066.00,1.32
9065.00,1.32
9064.00,1.32
9063.00,1.32
9062.00,1.33
9061.00,1.33
9060.00,1.33
9059.00,1.33
9058.00,1.32
9057.00,1.32
9056.00,1.32
9055.00,1.32
9054.00,1.32
9053.00,1.32
9052.00,1.32
9051.00,1.31
9050.00,1.31
9049.00,1.31
9048.00,1.31
9047.00,1.31
9046.00,1.31
9045.00,1.30
9044.00,1.30
9043.00,1.30
9042.00,1.30
9041.00,1.30
9040.00,1.30
9039.00,1.30
9038.00,1.30
9037.00,1.30
9036.00,1.31
9035.00,1.31
9034.00,1.31
9033.00,1.31
9032.00,1.31
9031.00,1.31
9030.00,1.31
9029.00,1.31
9028.00,1.31
9027.00,1.31
9026.00,1.31
9025.00,1.31
9024.00,1.31
9023.00,1.31
9022.00,1.31
9021.00,1.31
9020.00,1.31
9019.00,1.32
9018.00,1.32
9017.00,1.32
9016.00,1.32
9015.00,1.32
9014.00,1.31
9013.00,1.31
9012.00,1.31
9011.00,1.31
9010.00,1.31
9009.00,1.31
9008.00,1.31
9007.00,1.30
9006.00,1.30
9005.00,1.30
9004.00,1.30
9003.00,1.30
9002.00,1.30
9001.00,1.30
9000.00,1.30
8999.00,1.30
8998.00,1.30
8997.00,1.30
8996.00,1.30
8995.00,1.30
8994.00,1.30
8993.00,1.30
8992.00,1.30
8991.00,1.30
8990.00,1.30
8989.00,1.30
8988.00,1.30
8987.00,1.30
8986.00,1.30
8985.00,1.31
8984.00,1.31
8983.00,1.31
8982.00,1.31
8981.00,1.31
8980.00,1.31
8979.00,1.31
8978.00,1.31
8977.00,1.32
8976.00,1.32
8975.00,1.32
8974.00,1.32
8973.00,1.32
8972.00,1.32
8971.00,1.32
8970.00,1.32
8969.00,1.32
8968.00,1.32
8967.00,1.32
8966.00,1.32
8965.00,1.32
8964.00,1.32
8963.00,1.32
8962.00,1.32
8961.00,1.32
8960.00,1.32
8959.00,1.32
8958.00,1.32
8957.00,1.32
8956.00,1.32
8955.00,1.32
8954.00,1.32
8953.00,1.32
8952.00,1.31
8951.00,1.31
8950.00,1.31
8949.00,1.31
8948.00,1.31
8947.00,1.31
8946.00,1.31
8945.00,1.31
8944.00,1.31
8943.00,1.30
8942.00,1.30
8941.00,1.30
8940.00,1.30
8939.00,1.30
8938.00,1.30
8937.00,1.30
8936.00,1.30
8935.00,1.30
8934.00,1.30
8933.00,1.30
8932.00,1.30
8931.00,1.30
8930.00,1.30
8929.00,1.30
8928.00,1.30
8927.00,1.30
8926.00,1.30
8925.00,1.30
8924.00,1.31
8923.00,1.31
8922.00,1.31
8921.00,1.31
8920.00,1.31
8919.00,1.32
8918.00,1.32
8917.00,1.32
8916.00,1.32
8915.00,1.32
8914.00,1.32
8913.00,1.32
8912.00,1.33
8911.00,1.33
8910.00,1.33
8909.00,1.32
8908.00,1.32
8907.00,1.32
8906.00,1.32
8905.00,1.32
8904.00,1.32
8903.00,1.32
8902.00,1.31
8901.00,1.31
8900.00,1.31
8899.00,1.31
8898.00,1.31
8897.00,1.30
8896.00,1.30
8895.00,1.30
8894.00,1.30
8893.00,1.30
8892.00,1.30
8891.00,1.30
8890.00,1.29
8889.00,1.29
8888.00,1.29
8887.00,1.29
8886.00,1.29
8885.00,1.29
8884.00,1.30
8883.00,1.30
8882.00,1.30
8881.00,1.30
8880.00,1.30
8879.00,1.30
8878.00,1.30
8877.00,1.30
8876.00,1.30
8875.00,1.30
8874.00,1.30
8873.00,1.30
8872.00,1.30
8871.00,1.30
8870.00,1.30
8869.00,1.30
8868.00,1.30
8867.00,1.30
8866.00,1.30
8865.00,1.30
8864.00,1.30
8863.00,1.30
8862.00,1.30
8861.00,1.30
8860.00,1.30
8859.00,1.30
8858.00,1.31
8857.00,1.31
8856.00,1.31
8855.00,1.31
8854.00,1.31
8853.00,1.31
8852.00,1.31
8851.00,1.31
8850.00,1.31
8849.00,1.31
8848.00,1.31
8847.00,1.31
8846.00,1.31
8845.00,1.31
8844.00,1.31
8843.00,1.31
8842.00,1.31
8841.00,1.30
8840.00,1.30
8839.00,1.30
8838.00,1.30
8837.00,1.30
8836.00,1.29
8835.00,1.29
8834.00,1.29
8833.00,1.29
8832.00,1.29
8831.00,1.29
8830.00,1.29
8829.00,1.29
8828.00,1.29
8827.00,1.29
8826.00,1.28
8825.00,1.28
8824.00,1.28
8823.00,1.28
8822.00,1.28
8821.00,1.28
8820.00,1.28
8819.00,1.28
8818.00,1.28
8817.00,1.28
8816.00,1.28
8815.00,1.28
8814.00,1.27
8813.00,1.27
8812.00,1.27
8811.00,1.27
8810.00,1.27
8809.00,1.27
8808.00,1.27
8807.00,1.27
8806.00,1.27
8805.00,1.27
8804.00,1.27
8803.00,1.27
8802.00,1.27
8801.00,1.27
8800.00,1.27
8799.00,1.27
8798.00,1.26
8797.00,1.26
8796.00,1.26
8795.00,1.26
8794.00,1.26
8793.00,1.26
8792.00,1.26
8791.00,1.26
8790.00,1.26
8789.00,1.26
8788.00,1.26
8787.00,1.26
8786.00,1.26
8785.00,1.26
8784.00,1.26
8783.00,1.26
8782.00,1.26
8781.00,1.26
8780.00,1.27
8779.00,1.27
8778.00,1.27
8777.00,1.27
8776.00,1.27
8775.00,1.27
8774.00,1.27
8773.00,1.27
8772.00,1.27
8771.00,1.27
8770.00,1.27
8769.00,1.27
8768.00,1.27
8767.00,1.27
8766.00,1.27
8765.00,1.27
8764.00,1.27
8763.00,1.27
8762.00,1.26
8761.00,1.26
8760.00,1.26
8759.00,1.26
8758.00,1.26
8757.00,1.26
8756.00,1.26
8755.00,1.26
8754.00,1.25
8753.00,1.25
8752.00,1.25
8751.00,1.25
8750.00,1.25
8749.00,1.25
8748.00,1.25
8747.00,1.25
8746.00,1.25
8745.00,1.25
8744.00,1.25
8743.00,1.25
8742.00,1.25
8741.00,1.25
8740.00,1.25
8739.00,1.25
8738.00,1.25
8737.00,1.25
8736.00,1.25
8735.00,1.25
8734.00,1.25
8733.00,1.25
8732.00,1.25
8731.00,1.25
8730.00,1.25
8729.00,1.26
8728.00,1.26
8727.00,1.26
8726.00,1.26
8725.00,1.26
8724.00,1.26
8723.00,1.25
8722.00,1.25
8721.00,1.25
8720.00,1.25
8719.00,1.25
8718.00,1.25
8717.00,1.24
8716.00,1.24
8715.00,1.24
8714.00,1.24
8713.00,1.24
8712.00,1.24
8711.00,1.23
8710.00,1.23
8709.00,1.23
8708.00,1.23
8707.00,1.23
8706.00,1.23
8705.00,1.23
8704.00,1.23
8703.00,1.23
8702.00,1.23
8701.00,1.23
8700.00,1.23
8699.00,1.23
8698.00,1.23
8697.00,1.23
8696.00,1.23
8695.00,1.23
8694.00,1.23
8693.00,1.23
8692.00,1.23
8691.00,1.23
8690.00,1.23
8689.00,1.23
8688.00,1.23
8687.00,1.23
8686.00,1.23
8685.00,1.23
8684.00,1.23
8683.00,1.23
8682.00,1.23
8681.00,1.23
8680.00,1.23
8679.00,1.23
8678.00,1.23
8677.00,1.23
8676.00,1.23
8675.00,1.23
8674.00,1.23
8673.00,1.23
8672.00,1.23
8671.00,1.23
8670.00,1.23
8669.00,1.23
8668.00,1.23
8667.00,1.23
8666.00,1.23
8665.00,1.23
8664.00,1.23
8663.00,1.23
8662.00,1.23
8661.00,1.23
8660.00,1.23
8659.00,1.23
8658.00,1.23
8657.00,1.23
8656.00,1.23
8655.00,1.23
8654.00,1.23
8653.00,1.23
8652.00,1.23
8651.00,1.23
8650.00,1.23
8649.00,1.23
8648.00,1.24
8647.00,1.24
8646.00,1.24
8645.00,1.24
8644.00,1.24
8643.00,1.24
8642.00,1.24
8641.00,1.24
8640.00,1.24
8639.00,1.24
8638.00,1.24
8637.00,1.24
8636.00,1.24
8635.00,1.24
8634.00,1.24
8633.00,1.24
8632.00,1.24
8631.00,1.24
8630.00,1.23
8629.00,1.23
8628.00,1.23
8627.00,1.23
8626.00,1.23
8625.00,1.22
8624.00,1.22
8623.00,1.22
8622.00,1.22
8621.00,1.21
8620.00,1.21
8619.00,1.21
8618.00,1.21
8617.00,1.20
8616.00,1.20
8615.00,1.20
8614.00,1.20
8613.00,1.20
8612.00,1.20
8611.00,1.20
8610.00,1.20
8609.00,1.20
8608.00,1.20
8607.00,1.20
8606.00,1.20
8605.00,1.20
8604.00,1.20
8603.00,1.20
8602.00,1.20
8601.00,1.20
8600.00,1.20
8599.00,1.20
8598.00,1.21
8597.00,1.21
8596.00,1.21
8595.00,1.21
8594.00,1.21
8593.00,1.21
8592.00,1.21
8591.00,1.21
8590.00,1.21
8589.00,1.21
8588.00,1.21
8587.00,1.21
8586.00,1.21
8585.00,1.21
8584.00,1.21
8583.00,1.21
8582.00,1.21
8581.00,1.21
8580.00,1.21
8579.00,1.21
8578.00,1.20
8577.00,1.20
8576.00,1.20
8575.00,1.20
8574.00,1.20
8573.00,1.19
8572.00,1.19
8571.00,1.19
8570.00,1.19
8569.00,1.19
8568.00,1.19
8567.00,1.18
8566.00,1.18
8565.00,1.18
8564.00,1.18
8563.00,1.18
8562.00,1.18
8561.00,1.18
8560.00,1.18
8559.00,1.18
8558.00,1.18
8557.00,1.18
8556.00,1.18
8555.00,1.18
8554.00,1.18
8553.00,1.19
8552.00,1.19
8551.00,1.19
8550.00,1.19
8549.00,1.19
8548.00,1.19
8547.00,1.19
8546.00,1.19
8545.00,1.19
8544.00,1.19
8543.00,1.19
8542.00,1.19
8541.00,1.19
8540.00,1.19
8539.00,1.19
8538.00,1.19
8537.00,1.19
8536.00,1.19
8535.00,1.19
8534.00,1.18
8533.00,1.18
8532.00,1.18
8531.00,1.18
8530.00,1.18
8529.00,1.18
8528.00,1.18
8527.00,1.18
8526.00,1.18
8525.00,1.18
8524.00,1.18
8523.00,1.17
8522.00,1.17
8521.00,1.17
8520.00,1.17
8519.00,1.17
8518.00,1.17
8517.00,1.17
8516.00,1.17
8515.00,1.17
8514.00,1.17
8513.00,1.17
8512.00,1.17
8511.00,1.17
8510.00,1.17
8509.00,1.17
8508.00,1.17
8507.00,1.17
8506.00,1.17
8505.00,1.17
8504.00,1.17
8503.00,1.17
8502.00,1.17
8501.00,1.16
8500.00,1.16
8499.00,1.16
8498.00,1.16
8497.00,1.16
8496.00,1.16
8495.00,1.16
8494.00,1.16
8493.00,1.16
8492.00,1.16
8491.00,1.16
8490.00,1.16
8489.00,1.16
8488.00,1.16
8487.00,1.16
8486.00,1.16
8485.00,1.16
8484.00,1.16
8483.00,1.16
8482.00,1.16
8481.00,1.16
8480.00,1.16
8479.00,1.16
8478.00,1.16
8477.00,1.16
8476.00,1.15
8475.00,1.15
8474.00,1.15
8473.00,1.15
8472.00,1.15
8471.00,1.15
8470.00,1.15
8469.00,1.15
8468.00,1.15
8467.00,1.15
8466.00,1.15
8465.00,1.15
8464.00,1.15
8463.00,1.14
8462.00,1.14
8461.00,1.14
8460.00,1.14
8459.00,1.14
8458.00,1.14
8457.00,1.14
8456.00,1.14
8455.00,1.14
8454.00,1.14
8453.00,1.14
8452.00,1.14
8451.00,1.14
8450.00,1.14
8449.00,1.14
8448.00,1.14
8447.00,1.14
8446.00,1.14
8445.00,1.14
8444.00,1.14
8443.00,1.14
8442.00,1.14
8441.00,1.14
8440.00,1.14
8439.00,1.14
8438.00,1.14
8437.00,1.14
8436.00,1.14
8435.00,1.14
8434.00,1.14
8433.00,1.14
8432.00,1.14
8431.00,1.14
8430.00,1.14
8429.00,1.14
8428.00,1.14
8427.00,1.14
8426.00,1.14
8425.00,1.15
8424.00,1.15
8423.00,1.15
8422.00,1.15
8421.00,1.15
8420.00,1.15
8419.00,1.15
8418.00,1.15
8417.00,1.15
8416.00,1.15
8415.00,1.15
8414.00,1.15
8413.00,1.15
8412.00,1.16
8411.00,1.16
8410.00,1.16
8409.00,1.16
8408.00,1.16
8407.00,1.16
8406.00,1.16
8405.00,1.16
8404.00,1.16
8403.00,1.16
8402.00,1.16
8401.00,1.17
8400.00,1.17
8399.00,1.17
8398.00,1.17
8397.00,1.17
8396.00,1.17
8395.00,1.17
8394.00,1.17
8393.00,1.17
8392.00,1.17
8391.00,1.17
8390.00,1.17
8389.00,1.17
8388.00,1.17
8387.00,1.17
8386.00,1.17
8385.00,1.17
8384.00,1.17
8383.00,1.17
8382.00,1.17
8381.00,1.17
8380.00,1.17
8379.00,1.17
8378.00,1.17
8377.00,1.18
8376.00,1.18
8375.00,1.18
8374.00,1.18
8373.00,1.18
8372.00,1.18
8371.00,1.18
8370.00,1.18
8369.00,1.18
8368.00,1.18
8367.00,1.18
8366.00,1.18
8365.00,1.18
8364.00,1.18
8363.00,1.18
8362.00,1.18
8361.00,1.18
8360.00,1.18
8359.00,1.18
8358.00,1.18
8357.00,1.18
8356.00,1.18
8355.00,1.18
8354.00,1.18
8353.00,1.18
8352.00,1.18
8351.00,1.18
8350.00,1.18
8349.00,1.18
8348.00,1.18
8347.00,1.18
8346.00,1.18
8345.00,1.18
8344.00,1.18
8343.00,1.18
8342.00,1.18
8341.00,1.18
8340.00,1.18
8339.00,1.18
8338.00,1.18
8337.00,1.18
8336.00,1.18
8335.00,1.18
8334.00,1.18
8333.00,1.19
8332.00,1.19
8331.00,1.19
8330.00,1.19
8329.00,1.19
8328.00,1.19
8327.00,1.19
8326.00,1.19
8325.00,1.19
8324.00,1.19
8323.00,1.19
8322.00,1.19
8321.00,1.19
8320.00,1.19
8319.00,1.19
8318.00,1.19
8317.00,1.19
8316.00,1.19
8315.00,1.19
8314.00,1.19
8313.00,1.19
8312.00,1.18
8311.00,1.18
8310.00,1.18
8309.00,1.18
8308.00,1.18
8307.00,1.18
8306.00,1.18
8305.00,1.18
8304.00,1.18
8303.00,1.18
8302.00,1.18
8301.00,1.18
8300.00,1.19
8299.00,1.19
8298.00,1.19
8297.00,1.19
8296.00,1.19
8295.00,1.19
8294.00,1.19
8293.00,1.19
8292.00,1.20
8291.00,1.20
8290.00,1.20
8289.00,1.20
8288.00,1.20
8287.00,1.20
8286.00,1.20
8285.00,1.20
8284.00,1.20
8283.00,1.20
8282.00,1.20
8281.00,1.20
8280.00,1.20
8279.00,1.20
8278.00,1.20
8277.00,1.20
8276.00,1.20
8275.00,1.20
8274.00,1.20
8273.00,1.20
8272.00,1.20
8271.00,1.20
8270.00,1.20
8269.00,1.20
8268.00,1.20
8267.00,1.20
8266.00,1.20
8265.00,1.20
8264.00,1.20
8263.00,1.20
8262.00,1.20
8261.00,1.20
8260.00,1.20
8259.00,1.20
8258.00,1.20
8257.00,1.20
8256.00,1.20
8255.00,1.20
8254.00,1.20
8253.00,1.21
8252.00,1.21
8251.00,1.21
8250.00,1.21
8249.00,1.21
8248.00,1.21
8247.00,1.21
8246.00,1.21
8245.00,1.21
8244.00,1.21
8243.00,1.21
8242.00,1.21
8241.00,1.21
8240.00,1.21
8239.00,1.21
8238.00,1.21
8237.00,1.21
8236.00,1.21
8235.00,1.21
8234.00,1.21
8233.00,1.21
8232.00,1.21
8231.00,1.21
8230.00,1.21
8229.00,1.21
8228.00,1.21
8227.00,1.21
8226.00,1.21
8225.00,1.21
8224.00,1.21
8223.00,1.21
8222.00,1.21
8221.00,1.21
8220.00,1.21
8219.00,1.21
8218.00,1.21
8217.00,1.21
8216.00,1.21
8215.00,1.21
8214.00,1.21
8213.00,1.21
8212.00,1.21
8211.00,1.21
8210.00,1.21
8209.00,1.21
8208.00,1.21
8207.00,1.21
8206.00,1.21
8205.00,1.21
8204.00,1.21
8203.00,1.21
8202.00,1.21
8201.00,1.21
8200.00,1.21
8199.00,1.21
8198.00,1.21
8197.00,1.21
8196.00,1.21
8195.00,1.21
8194.00,1.21
8193.00,1.21
8192.00,1.21
8191.00,1.21
8190.00,1.21
8189.00,1.21
8188.00,1.21
8187.00,1.21
8186.00,1.21
8185.00,1.21
8184.00,1.22
8183.00,1.22
8182.00,1.22
8181.00,1.22
8180.00,1.22
8179.00,1.23
8178.00,1.23
8177.00,1.23
8176.00,1.23
8175.00,1.23
8174.00,1.24
8173.00,1.24
8172.00,1.24
8171.00,1.24
8170.00,1.24
8169.00,1.24
8168.00,1.24
8167.00,1.24
8166.00,1.24
8165.00,1.24
8164.00,1.24
8163.00,1.24
8162.00,1.24
8161.00,1.24
8160.00,1.24
8159.00,1.24
8158.00,1.24
8157.00,1.24
8156.00,1.24
8155.00,1.24
8154.00,1.24
8153.00,1.24
8152.00,1.24
8151.00,1.24
8150.00,1.24
8149.00,1.24
8148.00,1.24
8147.00,1.24
8146.00,1.24
8145.00,1.24
8144.00,1.24
8143.00,1.24
8142.00,1.24
8141.00,1.24
8140.00,1.24
8139.00,1.24
8138.00,1.24
8137.00,1.24
8136.00,1.24
8135.00,1.24
8134.00,1.24
8133.00,1.24
8132.00,1.24
8131.00,1.24
8130.00,1.24
8129.00,1.24
8128.00,1.24
8127.00,1.25
8126.00,1.25
8125.00,1.25
8124.00,1.25
8123.00,1.25
8122.00,1.25
8121.00,1.25
8120.00,1.25
8119.00,1.25
8118.00,1.25
8117.00,1.25
8116.00,1.25
8115.00,1.25
8114.00,1.25
8113.00,1.25
8112.00,1.25
8111.00,1.25
8110.00,1.25
8109.00,1.25
8108.00,1.25
8107.00,1.25
8106.00,1.25
8105.00,1.26
8104.00,1.26
8103.00,1.26
8102.00,1.26
8101.00,1.26
8100.00,1.26
8099.00,1.26
8098.00,1.26
8097.00,1.26
8096.00,1.26
8095.00,1.26
8094.00,1.26
8093.00,1.26
8092.00,1.26
8091.00,1.26
8090.00,1.26
8089.00,1.26
8088.00,1.26
8087.00,1.26
8086.00,1.26
8085.00,1.26
8084.00,1.26
8083.00,1.26
8082.00,1.26
8081.00,1.26
8080.00,1.26
8079.00,1.26
8078.00,1.26
8077.00,1.26
8076.00,1.26
8075.00,1.26
8074.00,1.26
8073.00,1.26
8072.00,1.26
8071.00,1.26
8070.00,1.26
8069.00,1.26
8068.00,1.26
8067.00,1.26
8066.00,1.26
8065.00,1.26
8064.00,1.26
8063.00,1.26
8062.00,1.26
8061.00,1.26
8060.00,1.26
8059.00,1.26
8058.00,1.26
8057.00,1.26
8056.00,1.26
8055.00,1.26
8054.00,1.26
8053.00,1.26
8052.00,1.26
8051.00,1.26
8050.00,1.26
8049.00,1.26
8048.00,1.26
8047.00,1.26
8046.00,1.26
8045.00,1.26
8044.00,1.26
8043.00,1.26
8042.00,1.26
8041.00,1.26
8040.00,1.26
8039.00,1.26
8038.00,1.26
8037.00,1.26
8036.00,1.26
8035.00,1.26
8034.00,1.27
8033.00,1.27
8032.00,1.27
8031.00,1.27
8030.00,1.27
8029.00,1.27
8028.00,1.27
8027.00,1.27
8026.00,1.27
8025.00,1.27
8024.00,1.27
8023.00,1.27
8022.00,1.27
8021.00,1.28
8020.00,1.28
8019.00,1.28
8018.00,1.28
8017.00,1.28
8016.00,1.28
8015.00,1.28
8014.00,1.28
8013.00,1.28
8012.00,1.29
8011.00,1.29
8010.00,1.29
8009.00,1.29
8008.00,1.29
8007.00,1.29
8006.00,1.29
8005.00,1.29
8004.00,1.29
8003.00,1.29
8002.00,1.29
8001.00,1.29
8000.00,1.29
7999.00,1.28
7998.00,1.28
7997.00,1.28
7996.00,1.28
7995.00,1.28
7994.00,1.28
7993.00,1.28
7992.00,1.28
7991.00,1.28
7990.00,1.28
7989.00,1.28
7988.00,1.28
7987.00,1.28
7986.00,1.28
7985.00,1.28
7984.00,1.28
7983.00,1.28
7982.00,1.28
7981.00,1.28
7980.00,1.28
7979.00,1.28
7978.00,1.28
7977.00,1.28
7976.00,1.28
7975.00,1.28
7974.00,1.28
7973.00,1.28
7972.00,1.28
7971.00,1.28
7970.00,1.28
7969.00,1.28
7968.00,1.28
7967.00,1.28
7966.00,1.28
7965.00,1.28
7964.00,1.28
7963.00,1.28
7962.00,1.28
7961.00,1.28
7960.00,1.28
7959.00,1.28
7958.00,1.28
7957.00,1.28
7956.00,1.28
7955.00,1.28
7954.00,1.28
7953.00,1.28
7952.00,1.28
7951.00,1.28
7950.00,1.28
7949.00,1.28
7948.00,1.28
7947.00,1.27
7946.00,1.27
7945.00,1.27
7944.00,1.27
7943.00,1.27
7942.00,1.27
7941.00,1.27
7940.00,1.27
7939.00,1.27
7938.00,1.28
7937.00,1.28
7936.00,1.28
7935.00,1.28
7934.00,1.28
7933.00,1.28
7932.00,1.28
7931.00,1.29
7930.00,1.29
7929.00,1.29
7928.00,1.29
7927.00,1.29
7926.00,1.29
7925.00,1.29
7924.00,1.29
7923.00,1.29
7922.00,1.29
7921.00,1.29
7920.00,1.29
7919.00,1.29
7918.00,1.29
7917.00,1.29
7916.00,1.29
7915.00,1.29
7914.00,1.29
7913.00,1.29
7912.00,1.29
7911.00,1.29
7910.00,1.29
7909.00,1.29
7908.00,1.29
7907.00,1.29
7906.00,1.29
7905.00,1.29
7904.00,1.29
7903.00,1.30
7902.00,1.30
7901.00,1.30
7900.00,1.30
7899.00,1.30
7898.00,1.30
7897.00,1.30
7896.00,1.30
7895.00,1.30
7894.00,1.30
7893.00,1.30
7892.00,1.30
7891.00,1.30
7890.00,1.30
7889.00,1.30
7888.00,1.30
7887.00,1.30
7886.00,1.30
7885.00,1.30
7884.00,1.30
7883.00,1.30
7882.00,1.30
7881.00,1.30
7880.00,1.30
7879.00,1.30
7878.00,1.30
7877.00,1.30
7876.00,1.30
7875.00,1.30
7874.00,1.30
7873.00,1.30
7872.00,1.30
7871.00,1.30
7870.00,1.30
7869.00,1.31
7868.00,1.31
7867.00,1.31
7866.00,1.31
7865.00,1.31
7864.00,1.31
7863.00,1.31
7862.00,1.31
7861.00,1.31
7860.00,1.31
7859.00,1.31
7858.00,1.31
7857.00,1.31
7856.00,1.31
7855.00,1.30
7854.00,1.30
7853.00,1.30
7852.00,1.30
7851.00,1.30
7850.00,1.30
7849.00,1.30
7848.00,1.30
7847.00,1.30
7846.00,1.30
7845.00,1.30
7844.00,1.30
7843.00,1.30
7842.00,1.30
7841.00,1.30
7840.00,1.30
7839.00,1.30
7838.00,1.30
7837.00,1.30
7836.00,1.30
7835.00,1.30
7834.00,1.30
7833.00,1.30
7832.00,1.30
7831.00,1.30
7830.00,1.30
7829.00,1.30
7828.00,1.30
7827.00,1.31
7826.00,1.31
7825.00,1.31
7824.00,1.31
7823.00,1.31
7822.00,1.31
7821.00,1.31
7820.00,1.31
7819.00,1.31
7818.00,1.31
7817.00,1.31
7816.00,1.31
7815.00,1.31
7814.00,1.31
7813.00,1.31
7812.00,1.31
7811.00,1.31
7810.00,1.31
7809.00,1.31
7808.00,1.31
7807.00,1.31
7806.00,1.31
7805.00,1.31
7804.00,1.31
7803.00,1.31
7802.00,1.31
7801.00,1.31
7800.00,1.31
7799.00,1.31
7798.00,1.31
7797.00,1.31
7796.00,1.31
7795.00,1.31
7794.00,1.31
7793.00,1.31
7792.00,1.31
7791.00,1.32
7790.00,1.32
7789.00,1.32
7788.00,1.32
7787.00,1.32
7786.00,1.32
7785.00,1.31
7784.00,1.31
7783.00,1.31
7782.00,1.31
7781.00,1.31
7780.00,1.31
7779.00,1.31
7778.00,1.31
7777.00,1.31
7776.00,1.31
7775.00,1.31
7774.00,1.31
7773.00,1.31
7772.00,1.32
7771.00,1.32
7770.00,1.32
7769.00,1.32
7768.00,1.32
7767.00,1.32
7766.00,1.32
7765.00,1.32
7764.00,1.32
7763.00,1.32
7762.00,1.32
7761.00,1.32
7760.00,1.32
7759.00,1.32
7758.00,1.32
7757.00,1.32
7756.00,1.32
7755.00,1.32
7754.00,1.32
7753.00,1.32
7752.00,1.32
7751.00,1.32
7750.00,1.32
7749.00,1.32
7748.00,1.32
7747.00,1.31
7746.00,1.31
7745.00,1.31
7744.00,1.31
7743.00,1.31
7742.00,1.31
7741.00,1.31
7740.00,1.31
7739.00,1.31
7738.00,1.31
7737.00,1.31
7736.00,1.32
7735.00,1.32
7734.00,1.32
7733.00,1.32
7732.00,1.32
7731.00,1.32
7730.00,1.32
7729.00,1.32
7728.00,1.32
7727.00,1.32
7726.00,1.32
7725.00,1.32
7724.00,1.32
7723.00,1.32
7722.00,1.32
7721.00,1.32
7720.00,1.31
7719.00,1.31
7718.00,1.31
7717.00,1.31
7716.00,1.31
7715.00,1.31
7714.00,1.31
7713.00,1.31
7712.00,1.31
7711.00,1.32
7710.00,1.32
7709.00,1.32
7708.00,1.32
7707.00,1.32
7706.00,1.32
7705.00,1.32
7704.00,1.32
7703.00,1.32
7702.00,1.32
7701.00,1.32
7700.00,1.32
7699.00,1.32
7698.00,1.32
7697.00,1.32
7696.00,1.32
7695.00,1.31
7694.00,1.31
7693.00,1.31
7692.00,1.31
7691.00,1.32
7690.00,1.32
7689.00,1.32
7688.00,1.32
7687.00,1.32
7686.00,1.32
7685.00,1.32
7684.00,1.32
7683.00,1.32
7682.00,1.32
7681.00,1.32
7680.00,1.32
7679.00,1.32
7678.00,1.33
7677.00,1.33
7676.00,1.33
7675.00,1.33
7674.00,1.33
7673.00,1.33
7672.00,1.33
7671.00,1.33
7670.00,1.33
7669.00,1.33
7668.00,1.33
7667.00,1.33
7666.00,1.33
7665.00,1.33
7664.00,1.33
7663.00,1.33
7662.00,1.33
7661.00,1.33
7660.00,1.32
7659.00,1.32
7658.00,1.32
7657.00,1.32
7656.00,1.32
7655.00,1.32
7654.00,1.32
7653.00,1.32
7652.00,1.32
7651.00,1.32
7650.00,1.32
7649.00,1.32
7648.00,1.32
7647.00,1.32
7646.00,1.32
7645.00,1.32
7644.00,1.32
7643.00,1.32
7642.00,1.32
7641.00,1.32
7640.00,1.32
7639.00,1.32
7638.00,1.32
7637.00,1.32
7636.00,1.32
7635.00,1.32
7634.00,1.32
7633.00,1.32
7632.00,1.32
7631.00,1.31
7630.00,1.31
7629.00,1.31
7628.00,1.31
7627.00,1.31
7626.00,1.31
7625.00,1.31
7624.00,1.31
7623.00,1.31
7622.00,1.31
7621.00,1.31
7620.00,1.31
7619.00,1.31
7618.00,1.31
7617.00,1.31
7616.00,1.32
7615.00,1.32
7614.00,1.32
7613.00,1.32
7612.00,1.32
7611.00,1.32
7610.00,1.32
7609.00,1.32
7608.00,1.32
7607.00,1.32
7606.00,1.32
7605.00,1.32
7604.00,1.32
7603.00,1.32
7602.00,1.32
7601.00,1.32
7600.00,1.32
7599.00,1.32
7598.00,1.32
7597.00,1.32
7596.00,1.32
7595.00,1.32
7594.00,1.32
7593.00,1.32
7592.00,1.32
7591.00,1.32
7590.00,1.32
7589.00,1.32
7588.00,1.32
7587.00,1.32
7586.00,1.32
7585.00,1.32
7584.00,1.32
7583.00,1.32
7582.00,1.32
7581.00,1.32
7580.00,1.32
7579.00,1.32
7578.00,1.32
7577.00,1.32
7576.00,1.32
7575.00,1.32
7574.00,1.32
7573.00,1.32
7572.00,1.32
7571.00,1.32
7570.00,1.32
7569.00,1.32
7568.00,1.32
7567.00,1.32
7566.00,1.31
7565.00,1.31
7564.00,1.31
7563.00,1.31
7562.00,1.31
7561.00,1.31
7560.00,1.31
7559.00,1.31
7558.00,1.31
7557.00,1.31
7556.00,1.30
7555.00,1.30
7554.00,1.30
7553.00,1.30
7552.00,1.30
7551.00,1.30
7550.00,1.30
7549.00,1.30
7548.00,1.30
7547.00,1.30
7546.00,1.30
7545.00,1.31
7544.00,1.31
7543.00,1.31
7542.00,1.31
7541.00,1.31
7540.00,1.31
7539.00,1.30
7538.00,1.30
7537.00,1.30
7536.00,1.30
7535.00,1.30
7534.00,1.30
7533.00,1.30
7532.00,1.30
7531.00,1.30
7530.00,1.30
7529.00,1.30
7528.00,1.29
7527.00,1.29
7526.00,1.29
7525.00,1.29
7524.00,1.29
7523.00,1.29
7522.00,1.29
7521.00,1.29
7520.00,1.29
7519.00,1.29
7518.00,1.29
7517.00,1.29
7516.00,1.29
7515.00,1.29
7514.00,1.29
7513.00,1.29
7512.00,1.29
7511.00,1.29
7510.00,1.29
7509.00,1.29
7508.00,1.29
7507.00,1.29
7506.00,1.29
7505.00,1.29
7504.00,1.29
7503.00,1.28
7502.00,1.28
7501.00,1.28
7500.00,1.28
7499.00,1.28
7498.00,1.28
7497.00,1.28
7496.00,1.28
7495.00,1.28
7494.00,1.27
7493.00,1.27
7492.00,1.27
7491.00,1.27
7490.00,1.27
7489.00,1.27
7488.00,1.27
7487.00,1.27
7486.00,1.27
7485.00,1.27
7484.00,1.27
7483.00,1.27
7482.00,1.27
7481.00,1.27
7480.00,1.27
7479.00,1.27
7478.00,1.27
7477.00,1.27
7476.00,1.27
7475.00,1.27
7474.00,1.27
7473.00,1.27
7472.00,1.27
7471.00,1.27
7470.00,1.27
7469.00,1.26
7468.00,1.26
7467.00,1.26
7466.00,1.26
7465.00,1.26
7464.00,1.26
7463.00,1.26
7462.00,1.26
7461.00,1.26
7460.00,1.26
7459.00,1.26
7458.00,1.26
7457.00,1.26
7456.00,1.26
7455.00,1.26
7454.00,1.26
7453.00,1.26
7452.00,1.26
7451.00,1.26
7450.00,1.26
7449.00,1.25
7448.00,1.25
7447.00,1.25
7446.00,1.25
7445.00,1.25
7444.00,1.25
7443.00,1.25
7442.00,1.25
7441.00,1.25
7440.00,1.25
7439.00,1.25
7438.00,1.25
7437.00,1.25
7436.00,1.24
7435.00,1.24
7434.00,1.24
7433.00,1.24
7432.00,1.24
7431.00,1.24
7430.00,1.24
7429.00,1.24
7428.00,1.24
7427.00,1.24
7426.00,1.24
7425.00,1.24
7424.00,1.24
7423.00,1.24
7422.00,1.24
7421.00,1.24
7420.00,1.24
7419.00,1.24
7418.00,1.23
7417.00,1.23
7416.00,1.23
7415.00,1.23
7414.00,1.23
7413.00,1.23
7412.00,1.23
7411.00,1.22
7410.00,1.22
7409.00,1.22
7408.00,1.22
7407.00,1.22
7406.00,1.22
7405.00,1.22
7404.00,1.21
7403.00,1.21
7402.00,1.21
7401.00,1.21
7400.00,1.21
7399.00,1.21
7398.00,1.21
7397.00,1.21
7396.00,1.20
7395.00,1.20
7394.00,1.20
7393.00,1.20
7392.00,1.20
7391.00,1.20
7390.00,1.20
7389.00,1.20
7388.00,1.20
7387.00,1.20
7386.00,1.20
7385.00,1.20
7384.00,1.20
7383.00,1.20
7382.00,1.20
7381.00,1.19
7380.00,1.19
7379.00,1.19
7378.00,1.19
7377.00,1.19
7376.00,1.19
7375.00,1.19
7374.00,1.19
7373.00,1.19
7372.00,1.19
7371.00,1.19
7370.00,1.19
7369.00,1.19
7368.00,1.19
7367.00,1.19
7366.00,1.19
7365.00,1.19
7364.00,1.19
7363.00,1.19
7362.00,1.19
7361.00,1.19
7360.00,1.19
7359.00,1.19
7358.00,1.19
7357.00,1.18
7356.00,1.18
7355.00,1.18
7354.00,1.18
7353.00,1.18
7352.00,1.18
7351.00,1.18
7350.00,1.18
7349.00,1.18
7348.00,1.17
7347.00,1.17
7346.00,1.17
7345.00,1.17
7344.00,1.17
7343.00,1.17
7342.00,1.17
7341.00,1.17
7340.00,1.17
7339.00,1.18
7338.00,1.18
7337.00,1.18
7336.00,1.18
7335.00,1.18
7334.00,1.18
7333.00,1.18
7332.00,1.18
7331.00,1.18
7330.00,1.18
7329.00,1.18
7328.00,1.18
7327.00,1.18
7326.00,1.18
7325.00,1.18
7324.00,1.18
7323.00,1.18
7322.00,1.18
7321.00,1.18
7320.00,1.18
7319.00,1.18
7318.00,1.18
7317.00,1.17
7316.00,1.17
7315.00,1.17
7314.00,1.17
7313.00,1.17
7312.00,1.17
7311.00,1.17
7310.00,1.17
7309.00,1.16
7308.00,1.16
7307.00,1.16
7306.00,1.16
7305.00,1.16
7304.00,1.16
7303.00,1.16
7302.00,1.16
7301.00,1.16
7300.00,1.15
7299.00,1.15
7298.00,1.15
7297.00,1.15
7296.00,1.15
7295.00,1.15
7294.00,1.15
7293.00,1.15
7292.00,1.15
7291.00,1.14
7290.00,1.14
7289.00,1.14
7288.00,1.14
7287.00,1.14
7286.00,1.14
7285.00,1.14
7284.00,1.13
7283.00,1.13
7282.00,1.13
7281.00,1.13
7280.00,1.13
7279.00,1.13
7278.00,1.13
7277.00,1.13
7276.00,1.12
7275.00,1.12
7274.00,1.12
7273.00,1.12
7272.00,1.12
7271.00,1.12
7270.00,1.12
7269.00,1.12
7268.00,1.12
7267.00,1.12
7266.00,1.12
7265.00,1.11
7264.00,1.11
7263.00,1.11
7262.00,1.11
7261.00,1.11
7260.00,1.11
7259.00,1.11
7258.00,1.10
7257.00,1.10
7256.00,1.10
7255.00,1.10
7254.00,1.09
7253.00,1.09
7252.00,1.09
7251.00,1.09
7250.00,1.08
7249.00,1.08
7248.00,1.08
7247.00,1.08
7246.00,1.07
7245.00,1.07
7244.00,1.07
7243.00,1.06
7242.00,1.06
7241.00,1.06
7240.00,1.05
7239.00,1.05
7238.00,1.05
7237.00,1.05
7236.00,1.04
7235.00,1.04
7234.00,1.04
7233.00,1.03
7232.00,1.03
7231.00,1.03
7230.00,1.02
7229.00,1.02
7228.00,1.02
7227.00,1.01
7226.00,1.01
7225.00,1.01
7224.00,1.00
7223.00,1.00
7222.00,1.00
7221.00,0.99
7220.00,0.99
7219.00,0.99
7218.00,0.98
7217.00,0.98
7216.00,0.98
7215.00,0.97
7214.00,0.97
7213.00,0.96
7212.00,0.96
7211.00,0.96
7210.00,0.95
7209.00,0.95
7208.00,0.95
7207.00,0.94
7206.00,0.94
7205.00,0.93
7204.00,0.93
7203.00,0.93
7202.00,0.92
7201.00,0.92
7200.00,0.91
7199.00,0.91
7198.00,0.91
7197.00,0.90
7196.00,0.90
7195.00,0.89
7194.00,0.89
7193.00,0.89
7192.00,0.88
7191.00,0.88
7190.00,0.87
7189.00,0.87
7188.00,0.87
7187.00,0.86
7186.00,0.86
7185.00,0.85
7184.00,0.85
7183.00,0.85
7182.00,0.84
7181.00,0.84
7180.00,0.84
7179.00,0.83
7178.00,0.83
7177.00,0.83
7176.00,0.83
7175.00,0.82
7174.00,0.82
7173.00,0.82
7172.00,0.82
7171.00,0.81
7170.00,0.81
7169.00,0.81
7168.00,0.81
7167.00,0.80
7166.00,0.80
7165.00,0.80
7164.00,0.80
7163.00,0.79
7162.00,0.79
7161.00,0.79
7160.00,0.78
7159.00,0.78
7158.00,0.78
7157.00,0.77
7156.00,0.77
7155.00,0.77
7154.00,0.76
7153.00,0.76
7152.00,0.76
7151.00,0.76
7150.00,0.75
7149.00,0.75
7148.00,0.75
7147.00,0.75
7146.00,0.74
7145.00,0.74
7144.00,0.74
7143.00,0.74
7142.00,0.73
7141.00,0.73
7140.00,0.73
7139.00,0.72
7138.00,0.72
7137.00,0.72
7136.00,0.71
7135.00,0.71
7134.00,0.71
7133.00,0.70
7132.00,0.70
7131.00,0.70
7130.00,0.70
7129.00,0.69
7128.00,0.69
7127.00,0.69
7126.00,0.69
7125.00,0.68
7124.00,0.68
7123.00,0.68
7122.00,0.68
7121.00,0.68
7120.00,0.67
7119.00,0.67
7118.00,0.67
7117.00,0.67
7116.00,0.67
7115.00,0.66
7114.00,0.66
7113.00,0.66
7112.00,0.66
7111.00,0.66
7110.00,0.65
7109.00,0.65
7108.00,0.65
7107.00,0.65
7106.00,0.64
7105.00,0.64
7104.00,0.64
7103.00,0.64
7102.00,0.63
7101.00,0.63
7100.00,0.63
7099.00,0.63
7098.00,0.63
7097.00,0.62
7096.00,0.62
7095.00,0.62
7094.00,0.62
7093.00,0.62
7092.00,0.62
7091.00,0.61
7090.00,0.61
7089.00,0.61
7088.00,0.61
7087.00,0.61
7086.00,0.61
7085.00,0.61
7084.00,0.61
7083.00,0.61
7082.00,0.61
7081.00,0.60
7080.00,0.60
7079.00,0.60
7078.00,0.60
7077.00,0.60
7076.00,0.60
7075.00,0.60
7074.00,0.60
7073.00,0.59
7072.00,0.59
7071.00,0.59
7070.00,0.59
7069.00,0.59
7068.00,0.59
7067.00,0.59
7066.00,0.59
7065.00,0.59
7064.00,0.59
7063.00,0.59
7062.00,0.58
7061.00,0.58
7060.00,0.58
7059.00,0.58
7058.00,0.58
7057.00,0.58
7056.00,0.58
7055.00,0.58
7054.00,0.58
7053.00,0.58
7052.00,0.58
7051.00,0.58
7050.00,0.57
7049.00,0.57
7048.00,0.57
7047.00,0.57
7046.00,0.57
7045.00,0.57
7044.00,0.57
7043.00,0.57
7042.00,0.57
7041.00,0.57
7040.00,0.57
7039.00,0.57
7038.00,0.56
7037.00,0.56
7036.00,0.56
7035.00,0.56
7034.00,0.56
7033.00,0.56
7032.00,0.56
7031.00,0.56
7030.00,0.56
7029.00,0.56
7028.00,0.56
7027.00,0.56
7026.00,0.56
7025.00,0.56
7024.00,0.56
7023.00,0.56
7022.00,0.55
7021.00,0.55
7020.00,0.55
7019.00,0.55
7018.00,0.55
7017.00,0.55
7016.00,0.55
7015.00,0.55
7014.00,0.55
7013.00,0.55
7012.00,0.55
7011.00,0.55
7010.00,0.55
7009.00,0.55
7008.00,0.55
7007.00,0.55
7006.00,0.55
7005.00,0.54
7004.00,0.54
7003.00,0.54
7002.00,0.54
7001.00,0.54
7000.00,0.54
6999.00,0.54
6998.00,0.54
6997.00,0.54
6996.00,0.54
6995.00,0.54
6994.00,0.54
6993.00,0.54
6992.00,0.54
6991.00,0.54
6990.00,0.54
6989.00,0.54
6988.00,0.54
6987.00,0.53
6986.00,0.53
6985.00,0.53
6984.00,0.53
6983.00,0.53
6982.00,0.53
6981.00,0.53
6980.00,0.53
6979.00,0.53
6978.00,0.53
6977.00,0.52
6976.00,0.52
6975.00,0.52
6974.00,0.52
6973.00,0.52
6972.00,0.52
6971.00,0.52
6970.00,0.52
6969.00,0.52
6968.00,0.52
6967.00,0.52
6966.00,0.52
6965.00,0.52
6964.00,0.52
6963.00,0.52
6962.00,0.52
6961.00,0.52
6960.00,0.52
6959.00,0.52
6958.00,0.52
6957.00,0.52
6956.00,0.52
6955.00,0.52
6954.00,0.52
6953.00,0.52
6952.00,0.52
6951.00,0.53
6950.00,0.53
6949.00,0.53
6948.00,0.53
6947.00,0.53
6946.00,0.53
6945.00,0.53
6944.00,0.53
6943.00,0.53
6942.00,0.52
6941.00,0.52
6940.00,0.52
6939.00,0.52
6938.00,0.52
6937.00,0.52
6936.00,0.52
6935.00,0.52
6934.00,0.52
6933.00,0.52
6932.00,0.52
6931.00,0.52
6930.00,0.52
6929.00,0.52
6928.00,0.51
6927.00,0.51
6926.00,0.51
6925.00,0.51
6924.00,0.51
6923.00,0.51
6922.00,0.51
6921.00,0.51
6920.00,0.51
6919.00,0.51
6918.00,0.51
6917.00,0.51
6916.00,0.51
6915.00,0.51
6914.00,0.51
6913.00,0.51
6912.00,0.51
6911.00,0.52
6910.00,0.52
6909.00,0.52
6908.00,0.52
6907.00,0.52
6906.00,0.52
6905.00,0.52
6904.00,0.52
6903.00,0.52
6902.00,0.52
6901.00,0.52
6900.00,0.52
6899.00,0.52
6898.00,0.52
6897.00,0.52
6896.00,0.52
6895.00,0.52
6894.00,0.52
6893.00,0.52
6892.00,0.52
6891.00,0.52
6890.00,0.52
6889.00,0.52
6888.00,0.52
6887.00,0.52
6886.00,0.52
6885.00,0.52
6884.00,0.52
6883.00,0.51
6882.00,0.51
6881.00,0.51
6880.00,0.51
6879.00,0.51
6878.00,0.51
6877.00,0.51
6876.00,0.51
6875.00,0.51
6874.00,0.51
6873.00,0.52
6872.00,0.52
6871.00,0.52
6870.00,0.52
6869.00,0.52
6868.00,0.52
6867.00,0.52
6866.00,0.52
6865.00,0.52
6864.00,0.52
6863.00,0.52
6862.00,0.52
6861.00,0.52
6860.00,0.52
6859.00,0.52
6858.00,0.52
6857.00,0.52
6856.00,0.52
6855.00,0.52
6854.00,0.52
6853.00,0.52
6852.00,0.52
6851.00,0.52
6850.00,0.52
6849.00,0.52
6848.00,0.52
6847.00,0.52
6846.00,0.52
6845.00,0.52
6844.00,0.52
6843.00,0.52
6842.00,0.52
6841.00,0.52
6840.00,0.52
6839.00,0.52
6838.00,0.52
6837.00,0.52
6836.00,0.52
6835.00,0.52
6834.00,0.52
6833.00,0.52
6832.00,0.52
6831.00,0.52
6830.00,0.52
6829.00,0.52
6828.00,0.52
6827.00,0.52
6826.00,0.52
6825.00,0.52
6824.00,0.52
6823.00,0.52
6822.00,0.52
6821.00,0.52
6820.00,0.52
6819.00,0.53
6818.00,0.53
6817.00,0.53
6816.00,0.53
6815.00,0.53
6814.00,0.53
6813.00,0.53
6812.00,0.53
6811.00,0.53
6810.00,0.53
6809.00,0.53
6808.00,0.53
6807.00,0.53
6806.00,0.53
6805.00,0.53
6804.00,0.53
6803.00,0.53
6802.00,0.53
6801.00,0.53
6800.00,0.53
6799.00,0.53
6798.00,0.53
6797.00,0.53
6796.00,0.54
6795.00,0.54
6794.00,0.54
6793.00,0.54
6792.00,0.54
6791.00,0.54
6790.00,0.54
6789.00,0.54
6788.00,0.54
6787.00,0.54
6786.00,0.54
6785.00,0.54
6784.00,0.55
6783.00,0.55
6782.00,0.55
6781.00,0.55
6780.00,0.55
6779.00,0.55
6778.00,0.55
6777.00,0.55
6776.00,0.55
6775.00,0.55
6774.00,0.55
6773.00,0.55
6772.00,0.55
6771.00,0.55
6770.00,0.55
6769.00,0.55
6768.00,0.55
6767.00,0.55
6766.00,0.55
6765.00,0.55
6764.00,0.55
6763.00,0.55
6762.00,0.55
6761.00,0.55
6760.00,0.55
6759.00,0.55
6758.00,0.55
6757.00,0.55
6756.00,0.55
6755.00,0.55
6754.00,0.55
6753.00,0.55
6752.00,0.55
6751.00,0.55
6750.00,0.55
6749.00,0.55
6748.00,0.55
6747.00,0.56
6746.00,0.56
6745.00,0.56
6744.00,0.56
6743.00,0.56
6742.00,0.56
6741.00,0.56
6740.00,0.56
6739.00,0.56
6738.00,0.56
6737.00,0.56
6736.00,0.56
6735.00,0.56
6734.00,0.56
6733.00,0.56
6732.00,0.56
6731.00,0.56
6730.00,0.56
6729.00,0.56
6728.00,0.57
6727.00,0.57
6726.00,0.57
6725.00,0.57
6724.00,0.57
6723.00,0.57
6722.00,0.57
6721.00,0.57
6720.00,0.57
6719.00,0.57
6718.00,0.57
6717.00,0.57
6716.00,0.57
6715.00,0.57
6714.00,0.58
6713.00,0.58
6712.00,0.58
6711.00,0.58
6710.00,0.58
6709.00,0.58
6708.00,0.58
6707.00,0.58
6706.00,0.58
6705.00,0.58
6704.00,0.58
6703.00,0.58
6702.00,0.59
6701.00,0.59
6700.00,0.59
6699.00,0.59
6698.00,0.59
6697.00,0.59
6696.00,0.59
6695.00,0.59
6694.00,0.59
6693.00,0.59
6692.00,0.60
6691.00,0.60
6690.00,0.60
6689.00,0.60
6688.00,0.60
6687.00,0.60
6686.00,0.60
6685.00,0.60
6684.00,0.60
6683.00,0.60
6682.00,0.60
6681.00,0.60
6680.00,0.60
6679.00,0.60
6678.00,0.60
6677.00,0.60
6676.00,0.60
6675.00,0.61
6674.00,0.61
6673.00,0.61
6672.00,0.61
6671.00,0.61
6670.00,0.61
6669.00,0.61
6668.00,0.61
6667.00,0.61
6666.00,0.62
6665.00,0.62
6664.00,0.62
6663.00,0.62
6662.00,0.62
6661.00,0.62
6660.00,0.62
6659.00,0.62
6658.00,0.62
6657.00,0.62
6656.00,0.62
6655.00,0.62
6654.00,0.63
6653.00,0.63
6652.00,0.63
6651.00,0.63
6650.00,0.63
6649.00,0.63
6648.00,0.63
6647.00,0.63
6646.00,0.63
6645.00,0.63
6644.00,0.63
6643.00,0.63
6642.00,0.63
6641.00,0.63
6640.00,0.63
6639.00,0.63
6638.00,0.63
6637.00,0.63
6636.00,0.63
6635.00,0.63
6634.00,0.63
6633.00,0.64
6632.00,0.64
6631.00,0.64
6630.00,0.64
6629.00,0.64
6628.00,0.64
6627.00,0.65
6626.00,0.65
6625.00,0.65
6624.00,0.65
6623.00,0.65
6622.00,0.65
6621.00,0.66
6620.00,0.66
6619.00,0.66
6618.00,0.66
6617.00,0.66
6616.00,0.66
6615.00,0.66
6614.00,0.66
6613.00,0.66
6612.00,0.66
6611.00,0.66
6610.00,0.67
6609.00,0.67
6608.00,0.67
6607.00,0.67
6606.00,0.67
6605.00,0.67
6604.00,0.67
6603.00,0.67
6602.00,0.67
6601.00,0.67
6600.00,0.67
6599.00,0.67
6598.00,0.67
6597.00,0.67
6596.00,0.67
6595.00,0.68
6594.00,0.68
6593.00,0.68
6592.00,0.68
6591.00,0.68
6590.00,0.68
6589.00,0.68
6588.00,0.68
6587.00,0.68
6586.00,0.68
6585.00,0.68
6584.00,0.68
6583.00,0.68
6582.00,0.69
6581.00,0.69
6580.00,0.69
6579.00,0.69
6578.00,0.69
6577.00,0.69
6576.00,0.69
6575.00,0.69
6574.00,0.69
6573.00,0.69
6572.00,0.70
6571.00,0.70
6570.00,0.70
6569.00,0.70
6568.00,0.70
6567.00,0.70
6566.00,0.70
6565.00,0.70
6564.00,0.70
6563.00,0.70
6562.00,0.70
6561.00,0.70
6560.00,0.70
6559.00,0.70
6558.00,0.70
6557.00,0.70
6556.00,0.71
6555.00,0.71
6554.00,0.71
6553.00,0.71
6552.00,0.71
6551.00,0.71
6550.00,0.71
6549.00,0.71
6548.00,0.71
6547.00,0.71
6546.00,0.72
6545.00,0.72
6544.00,0.72
6543.00,0.72
6542.00,0.72
6541.00,0.72
6540.00,0.72
6539.00,0.73
6538.00,0.73
6537.00,0.73
6536.00,0.73
6535.00,0.73
6534.00,0.73
6533.00,0.73
6532.00,0.73
6531.00,0.73
6530.00,0.73
6529.00,0.74
6528.00,0.74
6527.00,0.74
6526.00,0.74
6525.00,0.74
6524.00,0.74
6523.00,0.74
6522.00,0.74
6521.00,0.74
6520.00,0.74
6519.00,0.74
6518.00,0.74
6517.00,0.74
6516.00,0.74
6515.00,0.74
6514.00,0.75
6513.00,0.75
6512.00,0.75
6511.00,0.75
6510.00,0.75
6509.00,0.75
6508.00,0.75
6507.00,0.75
6506.00,0.75
6505.00,0.75
6504.00,0.75
6503.00,0.76
6502.00,0.76
6501.00,0.76
6500.00,0.76
6499.00,0.76
6498.00,0.76
6497.00,0.76
6496.00,0.76
6495.00,0.76
6494.00,0.76
6493.00,0.76
6492.00,0.77
6491.00,0.77
6490.00,0.77
6489.00,0.77
6488.00,0.77
6487.00,0.77
6486.00,0.77
6485.00,0.77
6484.00,0.77
6483.00,0.77
6482.00,0.77
6481.00,0.78
6480.00,0.78
6479.00,0.78
6478.00,0.78
6477.00,0.78
6476.00,0.78
6475.00,0.78
6474.00,0.78
6473.00,0.78
6472.00,0.78
6471.00,0.78
6470.00,0.78
6469.00,0.78
6468.00,0.78
6467.00,0.79
6466.00,0.79
6465.00,0.79
6464.00,0.79
6463.00,0.79
6462.00,0.79
6461.00,0.79
6460.00,0.79
6459.00,0.79
6458.00,0.79
6457.00,0.79
6456.00,0.79
6455.00,0.79
6454.00,0.79
6453.00,0.79
6452.00,0.79
6451.00,0.80
6450.00,0.80
6449.00,0.80
6448.00,0.80
6447.00,0.80
6446.00,0.80
6445.00,0.80
6444.00,0.80
6443.00,0.80
6442.00,0.80
6441.00,0.80
6440.00,0.80
6439.00,0.80
6438.00,0.80
6437.00,0.80
6436.00,0.80
6435.00,0.81
6434.00,0.81
6433.00,0.81
6432.00,0.81
6431.00,0.81
6430.00,0.81
6429.00,0.81
6428.00,0.81
6427.00,0.81
6426.00,0.81
6425.00,0.81
6424.00,0.81
6423.00,0.82
6422.00,0.82
6421.00,0.82
6420.00,0.82
6419.00,0.82
6418.00,0.82
6417.00,0.82
6416.00,0.82
6415.00,0.82
6414.00,0.82
6413.00,0.82
6412.00,0.82
6411.00,0.82
6410.00,0.82
6409.00,0.82
6408.00,0.82
6407.00,0.82
6406.00,0.83
6405.00,0.83
6404.00,0.83
6403.00,0.83
6402.00,0.83
6401.00,0.83
6400.00,0.83
6399.00,0.83
6398.00,0.83
6397.00,0.83
6396.00,0.83
6395.00,0.83
6394.00,0.83
6393.00,0.84
6392.00,0.84
6391.00,0.84
6390.00,0.84
6389.00,0.84
6388.00,0.84
6387.00,0.84
6386.00,0.84
6385.00,0.84
6384.00,0.84
6383.00,0.84
6382.00,0.84
6381.00,0.84
6380.00,0.84
6379.00,0.84
6378.00,0.85
6377.00,0.85
6376.00,0.85
6375.00,0.85
6374.00,0.85
6373.00,0.85
6372.00,0.85
6371.00,0.85
6370.00,0.85
6369.00,0.86
6368.00,0.86
6367.00,0.86
6366.00,0.86
6365.00,0.86
6364.00,0.86
6363.00,0.86
6362.00,0.86
6361.00,0.86
6360.00,0.86
6359.00,0.87
6358.00,0.87
6357.00,0.87
6356.00,0.87
6355.00,0.87
6354.00,0.87
6353.00,0.87
6352.00,0.87
6351.00,0.87
6350.00,0.87
6349.00,0.87
6348.00,0.87
6347.00,0.87
6346.00,0.88
6345.00,0.88
6344.00,0.88
6343.00,0.88
6342.00,0.88
6341.00,0.88
6340.00,0.88
6339.00,0.88
6338.00,0.88
6337.00,0.88
6336.00,0.88
6335.00,0.88
6334.00,0.88
6333.00,0.88
6332.00,0.89
6331.00,0.89
6330.00,0.89
6329.00,0.89
6328.00,0.89
6327.00,0.89
6326.00,0.89
6325.00,0.89
6324.00,0.90
6323.00,0.90
6322.00,0.90
6321.00,0.90
6320.00,0.90
6319.00,0.90
6318.00,0.90
6317.00,0.91
6316.00,0.91
6315.00,0.91
6314.00,0.91
6313.00,0.91
6312.00,0.91
6311.00,0.92
6310.00,0.92
6309.00,0.92
6308.00,0.92
6307.00,0.92
6306.00,0.92
6305.00,0.92
6304.00,0.93
6303.00,0.93
6302.00,0.93
6301.00,0.93
6300.00,0.93
6299.00,0.93
6298.00,0.93
6297.00,0.93
6296.00,0.94
6295.00,0.94
6294.00,0.94
6293.00,0.94
6292.00,0.94
6291.00,0.94
6290.00,0.94
6289.00,0.94
6288.00,0.94
6287.00,0.94
6286.00,0.95
6285.00,0.95
6284.00,0.95
6283.00,0.95
6282.00,0.95
6281.00,0.95
6280.00,0.95
6279.00,0.95
6278.00,0.95
6277.00,0.95
6276.00,0.95
6275.00,0.95
6274.00,0.95
6273.00,0.95
6272.00,0.95
6271.00,0.96
6270.00,0.96
6269.00,0.96
6268.00,0.96
6267.00,0.96
6266.00,0.96
6265.00,0.96
6264.00,0.96
6263.00,0.96
6262.00,0.97
6261.00,0.97
6260.00,0.97
6259.00,0.97
6258.00,0.97
6257.00,0.97
6256.00,0.97
6255.00,0.98
6254.00,0.98
6253.00,0.98
6252.00,0.98
6251.00,0.98
6250.00,0.98
6249.00,0.98
6248.00,0.99
6247.00,0.99
6246.00,0.99
6245.00,0.99
6244.00,0.99
6243.00,0.99
6242.00,0.99
6241.00,1.00
6240.00,1.00
6239.00,1.00
6238.00,1.00
6237.00,1.00
6236.00,1.00
6235.00,1.00
6234.00,1.00
6233.00,1.01
6232.00,1.01
6231.00,1.01
6230.00,1.01
6229.00,1.01
6228.00,1.01
6227.00,1.01
6226.00,1.01
6225.00,1.01
6224.00,1.01
6223.00,1.02
6222.00,1.02
6221.00,1.02
6220.00,1.02
6219.00,1.02
6218.00,1.02
6217.00,1.02
6216.00,1.02
6215.00,1.02
6214.00,1.02
6213.00,1.02
6212.00,1.02
6211.00,1.02
6210.00,1.03
6209.00,1.03
6208.00,1.03
6207.00,1.03
6206.00,1.03
6205.00,1.03
6204.00,1.03
6203.00,1.03
6202.00,1.04
6201.00,1.04
6200.00,1.04
6199.00,1.04
6198.00,1.04
6197.00,1.05
6196.00,1.05
6195.00,1.05
6194.00,1.05
6193.00,1.05
6192.00,1.05
6191.00,1.06
6190.00,1.06
6189.00,1.06
6188.00,1.06
6187.00,1.06
6186.00,1.06
6185.00,1.06
6184.00,1.07
6183.00,1.07
6182.00,1.07
6181.00,1.07
6180.00,1.07
6179.00,1.07
6178.00,1.07
6177.00,1.08
6176.00,1.08
6175.00,1.08
6174.00,1.08
6173.00,1.08
6172.00,1.08
6171.00,1.09
6170.00,1.09
6169.00,1.09
6168.00,1.09
6167.00,1.09
6166.00,1.10
6165.00,1.10
6164.00,1.10
6163.00,1.10
6162.00,1.10
6161.00,1.11
6160.00,1.11
6159.00,1.11
6158.00,1.11
6157.00,1.11
6156.00,1.11
6155.00,1.11
6154.00,1.12
6153.00,1.12
6152.00,1.12
6151.00,1.12
6150.00,1.12
6149.00,1.12
6148.00,1.12
6147.00,1.12
6146.00,1.13
6145.00,1.13
6144.00,1.13
6143.00,1.13
6142.00,1.13
6141.00,1.13
6140.00,1.13
6139.00,1.13
6138.00,1.13
6137.00,1.13
6136.00,1.14
6135.00,1.14
6134.00,1.14
6133.00,1.14
6132.00,1.14
6131.00,1.14
6130.00,1.14
6129.00,1.14
6128.00,1.14
6127.00,1.15
6126.00,1.15
6125.00,1.15
6124.00,1.15
6123.00,1.15
6122.00,1.15
6121.00,1.16
6120.00,1.16
6119.00,1.16
6118.00,1.16
6117.00,1.16
6116.00,1.16
6115.00,1.17
6114.00,1.17
6113.00,1.17
6112.00,1.17
6111.00,1.17
6110.00,1.17
6109.00,1.18
6108.00,1.18
6107.00,1.18
6106.00,1.18
6105.00,1.18
6104.00,1.18
6103.00,1.18
6102.00,1.18
6101.00,1.18
6100.00,1.19
6099.00,1.19
6098.00,1.19
6097.00,1.19
6096.00,1.19
6095.00,1.19
6094.00,1.19
6093.00,1.19
6092.00,1.19
6091.00,1.20
6090.00,1.20
6089.00,1.20
6088.00,1.20
6087.00,1.20
6086.00,1.20
6085.00,1.20
6084.00,1.20
6083.00,1.21
6082.00,1.21
6081.00,1.21
6080.00,1.21
6079.00,1.21
6078.00,1.21
6077.00,1.21
6076.00,1.21
6075.00,1.21
6074.00,1.21
6073.00,1.22
6072.00,1.22
6071.00,1.22
6070.00,1.22
6069.00,1.22
6068.00,1.22
6067.00,1.22
6066.00,1.22
6065.00,1.22
6064.00,1.23
6063.00,1.23
6062.00,1.23
6061.00,1.23
6060.00,1.23
6059.00,1.23
6058.00,1.23
6057.00,1.23
6056.00,1.23
6055.00,1.24
6054.00,1.24
6053.00,1.24
6052.00,1.24
6051.00,1.24
6050.00,1.24
6049.00,1.24
6048.00,1.24
6047.00,1.24
6046.00,1.24
6045.00,1.24
6044.00,1.24
6043.00,1.24
6042.00,1.24
6041.00,1.24
6040.00,1.24
6039.00,1.24
6038.00,1.24
6037.00,1.24
6036.00,1.25
6035.00,1.25
6034.00,1.25
6033.00,1.25
6032.00,1.25
6031.00,1.25
6030.00,1.25
6029.00,1.25
6028.00,1.25
6027.00,1.25
6026.00,1.25
6025.00,1.26
6024.00,1.26
6023.00,1.26
6022.00,1.26
6021.00,1.26
6020.00,1.26
6019.00,1.27
6018.00,1.27
6017.00,1.27
6016.00,1.27
6015.00,1.27
6014.00,1.27
6013.00,1.27
6012.00,1.27
6011.00,1.27
6010.00,1.27
6009.00,1.27
6008.00,1.27
6007.00,1.27
6006.00,1.27
6005.00,1.26
6004.00,1.26
6003.00,1.26
6002.00,1.26
6001.00,1.26
6000.00,1.26
5999.00,1.26
5998.00,1.25
5997.00,1.25
5996.00,1.25
5995.00,1.25
5994.00,1.25
5993.00,1.25
5992.00,1.24
5991.00,1.24
5990.00,1.24
5989.00,1.24
5988.00,1.24
5987.00,1.24
5986.00,1.23
5985.00,1.23
5984.00,1.23
5983.00,1.23
5982.00,1.22
5981.00,1.22
5980.00,1.22
5979.00,1.22
5978.00,1.21
5977.00,1.21
5976.00,1.21
5975.00,1.20
5974.00,1.20
5973.00,1.19
5972.00,1.19
5971.00,1.18
5970.00,1.18
5969.00,1.17
5968.00,1.17
5967.00,1.16
5966.00,1.16
5965.00,1.15
5964.00,1.15
5963.00,1.14
5962.00,1.14
5961.00,1.13
5960.00,1.12
5959.00,1.12
5958.00,1.11
5957.00,1.11
5956.00,1.10
5955.00,1.10
5954.00,1.09
5953.00,1.08
5952.00,1.08
5951.00,1.08
5950.00,1.07
5949.00,1.07
5948.00,1.06
5947.00,1.06
5946.00,1.06
5945.00,1.05
5944.00,1.05
5943.00,1.05
5942.00,1.05
5941.00,1.04
5940.00,1.04
5939.00,1.04
5938.00,1.04
5937.00,1.04
5936.00,1.04
5935.00,1.04
5934.00,1.04
5933.00,1.04
5932.00,1.04
5931.00,1.03
5930.00,1.03
5929.00,1.03
5928.00,1.03
5927.00,1.03
5926.00,1.03
5925.00,1.03
5924.00,1.02
5923.00,1.02
5922.00,1.02
5921.00,1.02
5920.00,1.02
5919.00,1.01
5918.00,1.01
5917.00,1.01
5916.00,1.01
5915.00,1.00
5914.00,1.00
5913.00,1.00
5912.00,1.00
5911.00,1.00
5910.00,0.99
5909.00,0.99
5908.00,0.99
5907.00,0.99
5906.00,0.99
5905.00,0.99
5904.00,0.99
5903.00,0.99
5902.00,0.99
5901.00,0.99
5900.00,0.99
5899.00,0.99
5898.00,0.99
5897.00,0.99
5896.00,1.00
5895.00,1.00
5894.00,1.00
5893.00,1.00
5892.00,1.00
5891.00,1.00
5890.00,1.01
5889.00,1.01
5888.00,1.01
5887.00,1.02
5886.00,1.02
5885.00,1.02
5884.00,1.02
5883.00,1.03
5882.00,1.03
5881.00,1.03
5880.00,1.03
5879.00,1.04
5878.00,1.04
5877.00,1.04
5876.00,1.04
5875.00,1.05
5874.00,1.05
5873.00,1.05
5872.00,1.05
5871.00,1.05
5870.00,1.05
5869.00,1.06
5868.00,1.06
5867.00,1.06
5866.00,1.06
5865.00,1.06
5864.00,1.06
5863.00,1.06
5862.00,1.06
5861.00,1.06
5860.00,1.07
5859.00,1.07
5858.00,1.07
5857.00,1.07
5856.00,1.07
5855.00,1.07
5854.00,1.07
5853.00,1.07
5852.00,1.07
5851.00,1.07
5850.00,1.07
5849.00,1.07
5848.00,1.07
5847.00,1.07
5846.00,1.07
5845.00,1.07
5844.00,1.08
5843.00,1.08
5842.00,1.08
5841.00,1.08
5840.00,1.08
5839.00,1.08
5838.00,1.08
5837.00,1.08
5836.00,1.08
5835.00,1.08
5834.00,1.08
5833.00,1.08
5832.00,1.08
5831.00,1.08
5830.00,1.08
5829.00,1.08
5828.00,1.08
5827.00,1.08
5826.00,1.08
5825.00,1.08
5824.00,1.08
5823.00,1.08
5822.00,1.08
5821.00,1.08
5820.00,1.08
5819.00,1.08
5818.00,1.08
5817.00,1.08
5816.00,1.08
5815.00,1.08
5814.00,1.08
5813.00,1.08
5812.00,1.08
5811.00,1.08
5810.00,1.08
5809.00,1.08
5808.00,1.08
5807.00,1.08
5806.00,1.07
5805.00,1.07
5804.00,1.07
5803.00,1.07
5802.00,1.07
5801.00,1.07
5800.00,1.07
5799.00,1.06
5798.00,1.06
5797.00,1.06
5796.00,1.06
5795.00,1.06
5794.00,1.05
5793.00,1.05
5792.00,1.05
5791.00,1.05
5790.00,1.04
5789.00,1.04
5788.00,1.04
5787.00,1.04
5786.00,1.04
5785.00,1.03
5784.00,1.03
5783.00,1.03
5782.00,1.03
5781.00,1.03
5780.00,1.02
5779.00,1.02
5778.00,1.02
5777.00,1.02
5776.00,1.02
5775.00,1.02
5774.00,1.02
5773.00,1.02
5772.00,1.02
5771.00,1.02
5770.00,1.03
5769.00,1.03
5768.00,1.03
5767.00,1.03
5766.00,1.03
5765.00,1.04
5764.00,1.04
5763.00,1.04
5762.00,1.04
5761.00,1.04
5760.00,1.05
5759.00,1.05
5758.00,1.05
5757.00,1.06
5756.00,1.06
5755.00,1.06
5754.00,1.06
5753.00,1.07
5752.00,1.07
5751.00,1.07
5750.00,1.07
5749.00,1.08
5748.00,1.08
5747.00,1.08
5746.00,1.08
5745.00,1.09
5744.00,1.09
5743.00,1.09
5742.00,1.09
5741.00,1.10
5740.00,1.10
5739.00,1.10
5738.00,1.10
5737.00,1.11
5736.00,1.11
5735.00,1.11
5734.00,1.11
5733.00,1.11
5732.00,1.11
5731.00,1.11
5730.00,1.12
5729.00,1.12
5728.00,1.12
5727.00,1.12
5726.00,1.12
5725.00,1.12
5724.00,1.12
5723.00,1.12
5722.00,1.12
5721.00,1.12
5720.00,1.11
5719.00,1.11
5718.00,1.11
5717.00,1.11
5716.00,1.11
5715.00,1.11
5714.00,1.11
5713.00,1.11
5712.00,1.11
5711.00,1.11
5710.00,1.11
5709.00,1.11
5708.00,1.11
5707.00,1.11
5706.00,1.10
5705.00,1.10
5704.00,1.10
5703.00,1.10
5702.00,1.10
5701.00,1.10
5700.00,1.10
5699.00,1.10
5698.00,1.10
5697.00,1.10
5696.00,1.09
5695.00,1.09
5694.00,1.09
5693.00,1.09
5692.00,1.09
5691.00,1.09
5690.00,1.09
5689.00,1.09
5688.00,1.09
5687.00,1.08
5686.00,1.08
5685.00,1.08
5684.00,1.08
5683.00,1.08
5682.00,1.08
5681.00,1.08
5680.00,1.08
5679.00,1.08
5678.00,1.08
5677.00,1.08
5676.00,1.08
5675.00,1.08
5674.00,1.08
5673.00,1.08
5672.00,1.08
5671.00,1.08
5670.00,1.08
5669.00,1.08
5668.00,1.08
5667.00,1.08
5666.00,1.08
5665.00,1.08
5664.00,1.08
5663.00,1.08
5662.00,1.08
5661.00,1.08
5660.00,1.08
5659.00,1.08
5658.00,1.08
5657.00,1.09
5656.00,1.09
5655.00,1.09
5654.00,1.09
5653.00,1.09
5652.00,1.09
5651.00,1.09
5650.00,1.09
5649.00,1.10
5648.00,1.10
5647.00,1.10
5646.00,1.10
5645.00,1.10
5644.00,1.10
5643.00,1.10
5642.00,1.11
5641.00,1.11
5640.00,1.11
5639.00,1.11
5638.00,1.11
5637.00,1.11
5636.00,1.12
5635.00,1.12
5634.00,1.12
5633.00,1.12
5632.00,1.12
5631.00,1.12
5630.00,1.13
5629.00,1.13
5628.00,1.13
5627.00,1.13
5626.00,1.13
5625.00,1.13
5624.00,1.13
5623.00,1.14
5622.00,1.14
5621.00,1.14
5620.00,1.14
5619.00,1.14
5618.00,1.14
5617.00,1.14
5616.00,1.15
5615.00,1.15
5614.00,1.15
5613.00,1.15
5612.00,1.15
5611.00,1.15
5610.00,1.15
5609.00,1.15
5608.00,1.16
5607.00,1.16
5606.00,1.16
5605.00,1.16
5604.00,1.16
5603.00,1.16
5602.00,1.16
5601.00,1.17
5600.00,1.17
5599.00,1.17
5598.00,1.17
5597.00,1.17
5596.00,1.17
5595.00,1.18
5594.00,1.18
5593.00,1.18
5592.00,1.18
5591.00,1.18
5590.00,1.18
5589.00,1.18
5588.00,1.19
5587.00,1.19
5586.00,1.19
5585.00,1.19
5584.00,1.19
5583.00,1.19
5582.00,1.19
5581.00,1.19
5580.00,1.20
5579.00,1.20
5578.00,1.20
5577.00,1.20
5576.00,1.20
5575.00,1.20
5574.00,1.20
5573.00,1.20
5572.00,1.20
5571.00,1.20
5570.00,1.21
5569.00,1.21
5568.00,1.21
5567.00,1.21
5566.00,1.21
5565.00,1.21
5564.00,1.21
5563.00,1.21
5562.00,1.22
5561.00,1.22
5560.00,1.22
5559.00,1.22
5558.00,1.22
5557.00,1.22
5556.00,1.22
5555.00,1.23
5554.00,1.23
5553.00,1.23
5552.00,1.23
5551.00,1.23
5550.00,1.23
5549.00,1.23
5548.00,1.24
5547.00,1.24
5546.00,1.24
5545.00,1.24
5544.00,1.24
5543.00,1.24
5542.00,1.24
5541.00,1.25
5540.00,1.25
5539.00,1.25
5538.00,1.25
5537.00,1.25
5536.00,1.25
5535.00,1.25
5534.00,1.25
5533.00,1.25
5532.00,1.25
5531.00,1.25
5530.00,1.26
5529.00,1.26
5528.00,1.26
5527.00,1.26
5526.00,1.26
5525.00,1.26
5524.00,1.26
5523.00,1.26
5522.00,1.26
5521.00,1.26
5520.00,1.26
5519.00,1.26
5518.00,1.26
5517.00,1.26
5516.00,1.27
5515.00,1.27
5514.00,1.27
5513.00,1.27
5512.00,1.27
5511.00,1.27
5510.00,1.27
5509.00,1.27
5508.00,1.27
5507.00,1.27
5506.00,1.27
5505.00,1.27
5504.00,1.27
5503.00,1.27
5502.00,1.27
5501.00,1.28
5500.00,1.28
5499.00,1.28
5498.00,1.28
5497.00,1.28
5496.00,1.28
5495.00,1.28
5494.00,1.28
5493.00,1.28
5492.00,1.28
5491.00,1.28
5490.00,1.28
5489.00,1.28
5488.00,1.29
5487.00,1.29
5486.00,1.29
5485.00,1.29
5484.00,1.29
5483.00,1.29
5482.00,1.29
5481.00,1.29
5480.00,1.30
5479.00,1.30
5478.00,1.30
5477.00,1.30
5476.00,1.30
5475.00,1.30
5474.00,1.30
5473.00,1.30
5472.00,1.30
5471.00,1.30
5470.00,1.30
5469.00,1.30
5468.00,1.30
5467.00,1.30
5466.00,1.31
5465.00,1.31
5464.00,1.31
5463.00,1.31
5462.00,1.31
5461.00,1.31
5460.00,1.31
5459.00,1.31
5458.00,1.31
5457.00,1.31
5456.00,1.32
5455.00,1.32
5454.00,1.32
5453.00,1.32
5452.00,1.32
5451.00,1.32
5450.00,1.32
5449.00,1.32
5448.00,1.32
5447.00,1.33
5446.00,1.33
5445.00,1.33
5444.00,1.33
5443.00,1.33
5442.00,1.33
5441.00,1.33
5440.00,1.33
5439.00,1.33
5438.00,1.33
5437.00,1.33
5436.00,1.33
5435.00,1.33
5434.00,1.33
5433.00,1.33
5432.00,1.32
5431.00,1.32
5430.00,1.32
5429.00,1.32
5428.00,1.32
5427.00,1.32
5426.00,1.32
5425.00,1.32
5424.00,1.32
5423.00,1.32
5422.00,1.32
5421.00,1.32
5420.00,1.32
5419.00,1.32
5418.00,1.32
5417.00,1.32
5416.00,1.32
5415.00,1.32
5414.00,1.32
5413.00,1.32
5412.00,1.31
5411.00,1.31
5410.00,1.31
5409.00,1.31
5408.00,1.31
5407.00,1.31
5406.00,1.31
5405.00,1.31
5404.00,1.31
5403.00,1.31
5402.00,1.31
5401.00,1.30
5400.00,1.30
5399.00,1.30
5398.00,1.30
5397.00,1.30
5396.00,1.30
5395.00,1.29
5394.00,1.29
5393.00,1.29
5392.00,1.29
5391.00,1.29
5390.00,1.28
5389.00,1.28
5388.00,1.28
5387.00,1.28
5386.00,1.27
5385.00,1.27
5384.00,1.27
5383.00,1.27
5382.00,1.26
5381.00,1.26
5380.00,1.26
5379.00,1.25
5378.00,1.25
5377.00,1.24
5376.00,1.24
5375.00,1.23
5374.00,1.23
5373.00,1.22
5372.00,1.22
5371.00,1.21
5370.00,1.21
5369.00,1.20
5368.00,1.20
5367.00,1.19
5366.00,1.18
5365.00,1.18
5364.00,1.17
5363.00,1.16
5362.00,1.16
5361.00,1.15
5360.00,1.14
5359.00,1.14
5358.00,1.13
5357.00,1.12
5356.00,1.11
5355.00,1.11
5354.00,1.10
5353.00,1.09
5352.00,1.08
5351.00,1.07
5350.00,1.06
5349.00,1.06
5348.00,1.05
5347.00,1.04
5346.00,1.03
5345.00,1.02
5344.00,1.01
5343.00,1.00
5342.00,0.99
5341.00,0.98
5340.00,0.97
5339.00,0.96
5338.00,0.95
5337.00,0.95
5336.00,0.94
5335.00,0.93
5334.00,0.92
5333.00,0.91
5332.00,0.90
5331.00,0.89
5330.00,0.88
5329.00,0.88
5328.00,0.87
5327.00,0.86
5326.00,0.85
5325.00,0.84
5324.00,0.84
5323.00,0.83
5322.00,0.82
5321.00,0.81
5320.00,0.81
5319.00,0.80
5318.00,0.79
5317.00,0.78
5316.00,0.78
5315.00,0.77
5314.00,0.76
5313.00,0.76
5312.00,0.75
5311.00,0.74
5310.00,0.74
5309.00,0.73
5308.00,0.73
5307.00,0.72
5306.00,0.72
5305.00,0.71
5304.00,0.71
5303.00,0.70
5302.00,0.70
5301.00,0.70
5300.00,0.69
5299.00,0.69
5298.00,0.69
5297.00,0.69
5296.00,0.68
5295.00,0.68
5294.00,0.68
5293.00,0.68
5292.00,0.68
5291.00,0.68
5290.00,0.68
5289.00,0.67
5288.00,0.67
5287.00,0.67
5286.00,0.67
5285.00,0.67
5284.00,0.67
5283.00,0.67
5282.00,0.67
5281.00,0.67
5280.00,0.67
5279.00,0.67
5278.00,0.67
5277.00,0.67
5276.00,0.67
5275.00,0.67
5274.00,0.66
5273.00,0.66
5272.00,0.66
5271.00,0.66
5270.00,0.66
5269.00,0.66
5268.00,0.66
5267.00,0.66
5266.00,0.66
5265.00,0.66
5264.00,0.66
5263.00,0.66
5262.00,0.66
5261.00,0.66
5260.00,0.66
5259.00,0.66
5258.00,0.66
5257.00,0.66
5256.00,0.66
5255.00,0.66
5254.00,0.66
5253.00,0.66
5252.00,0.66
5251.00,0.66
5250.00,0.66
5249.00,0.66
5248.00,0.66
5247.00,0.66
5246.00,0.66
5245.00,0.66
5244.00,0.66
5243.00,0.66
5242.00,0.66
5241.00,0.66
5240.00,0.66
5239.00,0.66
5238.00,0.66
5237.00,0.66
5236.00,0.66
5235.00,0.66
5234.00,0.67
5233.00,0.67
5232.00,0.67
5231.00,0.67
5230.00,0.67
5229.00,0.67
5228.00,0.67
5227.00,0.67
5226.00,0.67
5225.00,0.67
5224.00,0.67
5223.00,0.67
5222.00,0.67
5221.00,0.67
5220.00,0.67
5219.00,0.67
5218.00,0.67
5217.00,0.67
5216.00,0.67
5215.00,0.67
5214.00,0.67
5213.00,0.67
5212.00,0.67
5211.00,0.67
5210.00,0.68
5209.00,0.68
5208.00,0.68
5207.00,0.68
5206.00,0.68
5205.00,0.68
5204.00,0.68
5203.00,0.68
5202.00,0.68
5201.00,0.68
5200.00,0.68
5199.00,0.68
5198.00,0.68
5197.00,0.68
5196.00,0.68
5195.00,0.68
5194.00,0.68
5193.00,0.68
5192.00,0.68
5191.00,0.68
5190.00,0.68
5189.00,0.68
5188.00,0.68
5187.00,0.68
5186.00,0.68
5185.00,0.68
5184.00,0.68
5183.00,0.68
5182.00,0.68
5181.00,0.68
5180.00,0.68
5179.00,0.69
5178.00,0.69
5177.00,0.69
5176.00,0.69
5175.00,0.69
5174.00,0.69
5173.00,0.69
5172.00,0.69
5171.00,0.69
5170.00,0.69
5169.00,0.69
5168.00,0.69
5167.00,0.69
5166.00,0.69
5165.00,0.69
5164.00,0.69
5163.00,0.69
5162.00,0.69
5161.00,0.69
5160.00,0.69
5159.00,0.69
5158.00,0.69
5157.00,0.69
5156.00,0.70
5155.00,0.70
5154.00,0.70
5153.00,0.70
5152.00,0.70
5151.00,0.70
5150.00,0.70
5149.00,0.70
5148.00,0.70
5147.00,0.70
5146.00,0.70
5145.00,0.70
5144.00,0.70
5143.00,0.70
5142.00,0.70
5141.00,0.70
5140.00,0.70
5139.00,0.70
5138.00,0.70
5137.00,0.70
5136.00,0.70
5135.00,0.70
5134.00,0.70
5133.00,0.70
5132.00,0.70
5131.00,0.70
5130.00,0.71
5129.00,0.71
5128.00,0.71
5127.00,0.71
5126.00,0.71
5125.00,0.71
5124.00,0.71
5123.00,0.71
5122.00,0.71
5121.00,0.71
5120.00,0.71
5119.00,0.71
5118.00,0.71
5117.00,0.71
5116.00,0.72
5115.00,0.72
5114.00,0.72
5113.00,0.72
5112.00,0.72
5111.00,0.72
5110.00,0.72
5109.00,0.72
5108.00,0.72
5107.00,0.72
5106.00,0.72
5105.00,0.72
5104.00,0.72
5103.00,0.72
5102.00,0.72
5101.00,0.72
5100.00,0.72
5099.00,0.72
5098.00,0.72
5097.00,0.72
5096.00,0.72
5095.00,0.72
5094.00,0.72
5093.00,0.72
5092.00,0.72
5091.00,0.72
5090.00,0.72
5089.00,0.72
5088.00,0.72
5087.00,0.72
5086.00,0.73
5085.00,0.73
5084.00,0.73
5083.00,0.73
5082.00,0.73
5081.00,0.73
5080.00,0.73
5079.00,0.73
5078.00,0.73
5077.00,0.73
5076.00,0.73
5075.00,0.73
5074.00,0.73
5073.00,0.73
5072.00,0.73
5071.00,0.73
5070.00,0.73
5069.00,0.73
5068.00,0.73
5067.00,0.73
5066.00,0.73
5065.00,0.74
5064.00,0.74
5063.00,0.74
5062.00,0.74
5061.00,0.74
5060.00,0.74
5059.00,0.74
5058.00,0.74
5057.00,0.74
5056.00,0.74
5055.00,0.74
5054.00,0.74
5053.00,0.74
5052.00,0.74
5051.00,0.74
5050.00,0.74
5049.00,0.74
5048.00,0.74
5047.00,0.74
5046.00,0.74
5045.00,0.74
5044.00,0.74
5043.00,0.74
5042.00,0.74
5041.00,0.74
5040.00,0.74
5039.00,0.74
5038.00,0.74
5037.00,0.74
5036.00,0.74
5035.00,0.75
5034.00,0.75
5033.00,0.75
5032.00,0.75
5031.00,0.75
5030.00,0.75
5029.00,0.75
5028.00,0.75
5027.00,0.75
5026.00,0.76
5025.00,0.76
5024.00,0.76
5023.00,0.76
5022.00,0.76
5021.00,0.76
5020.00,0.76
5019.00,0.76
5018.00,0.76
5017.00,0.76
5016.00,0.76
5015.00,0.76
5014.00,0.76
5013.00,0.76
5012.00,0.76
5011.00,0.76
5010.00,0.76
5009.00,0.76
5008.00,0.76
5007.00,0.76
5006.00,0.76
5005.00,0.76
5004.00,0.76
5003.00,0.76
5002.00,0.77
5001.00,0.77
5000.00,0.77
4999.00,0.77
4998.00,0.77
4997.00,0.77
4996.00,0.77
4995.00,0.77
4994.00,0.77
4993.00,0.77
4992.00,0.77
4991.00,0.78
4990.00,0.78
4989.00,0.78
4988.00,0.78
4987.00,0.78
4986.00,0.78
4985.00,0.78
4984.00,0.78
4983.00,0.79
4982.00,0.79
4981.00,0.79
4980.00,0.79
4979.00,0.79
4978.00,0.79
4977.00,0.79
4976.00,0.79
4975.00,0.79
4974.00,0.79
4973.00,0.79
4972.00,0.79
4971.00,0.79
4970.00,0.79
4969.00,0.79
4968.00,0.79
4967.00,0.79
4966.00,0.79
4965.00,0.79
4964.00,0.79
4963.00,0.79
4962.00,0.79
4961.00,0.79
4960.00,0.79
4959.00,0.79
4958.00,0.79
4957.00,0.79
4956.00,0.80
4955.00,0.80
4954.00,0.80
4953.00,0.80
4952.00,0.80
4951.00,0.80
4950.00,0.80
4949.00,0.80
4948.00,0.80
4947.00,0.80
4946.00,0.80
4945.00,0.80
4944.00,0.80
4943.00,0.80
4942.00,0.81
4941.00,0.81
4940.00,0.81
4939.00,0.81
4938.00,0.81
4937.00,0.81
4936.00,0.81
4935.00,0.81
4934.00,0.81
4933.00,0.81
4932.00,0.81
4931.00,0.81
4930.00,0.81
4929.00,0.81
4928.00,0.81
4927.00,0.81
4926.00,0.81
4925.00,0.81
4924.00,0.81
4923.00,0.81
4922.00,0.82
4921.00,0.82
4920.00,0.82
4919.00,0.82
4918.00,0.82
4917.00,0.82
4916.00,0.82
4915.00,0.82
4914.00,0.82
4913.00,0.82
4912.00,0.82
4911.00,0.82
4910.00,0.82
4909.00,0.82
4908.00,0.82
4907.00,0.83
4906.00,0.83
4905.00,0.83
4904.00,0.83
4903.00,0.83
4902.00,0.83
4901.00,0.83
4900.00,0.83
4899.00,0.83
4898.00,0.83
4897.00,0.83
4896.00,0.83
4895.00,0.83
4894.00,0.83
4893.00,0.83
4892.00,0.83
4891.00,0.83
4890.00,0.83
4889.00,0.83
4888.00,0.83
4887.00,0.84
4886.00,0.84
4885.00,0.84
4884.00,0.84
4883.00,0.84
4882.00,0.84
4881.00,0.84
4880.00,0.84
4879.00,0.84
4878.00,0.84
4877.00,0.84
4876.00,0.84
4875.00,0.84
4874.00,0.84
4873.00,0.85
4872.00,0.85
4871.00,0.85
4870.00,0.85
4869.00,0.85
4868.00,0.85
4867.00,0.85
4866.00,0.85
4865.00,0.85
4864.00,0.85
4863.00,0.85
4862.00,0.85
4861.00,0.86
4860.00,0.86
4859.00,0.86
4858.00,0.86
4857.00,0.86
4856.00,0.86
4855.00,0.86
4854.00,0.86
4853.00,0.87
4852.00,0.87
4851.00,0.87
4850.00,0.87
4849.00,0.87
4848.00,0.87
4847.00,0.87
4846.00,0.87
4845.00,0.87
4844.00,0.87
4843.00,0.87
4842.00,0.87
4841.00,0.87
4840.00,0.87
4839.00,0.87
4838.00,0.87
4837.00,0.87
4836.00,0.87
4835.00,0.87
4834.00,0.87
4833.00,0.87
4832.00,0.87
4831.00,0.88
4830.00,0.88
4829.00,0.88
4828.00,0.88
4827.00,0.88
4826.00,0.88
4825.00,0.88
4824.00,0.88
4823.00,0.88
4822.00,0.88
4821.00,0.89
4820.00,0.89
4819.00,0.89
4818.00,0.89
4817.00,0.89
4816.00,0.89
4815.00,0.89
4814.00,0.89
4813.00,0.89
4812.00,0.89
4811.00,0.89
4810.00,0.90
4809.00,0.90
4808.00,0.90
4807.00,0.90
4806.00,0.90
4805.00,0.90
4804.00,0.90
4803.00,0.90
4802.00,0.90
4801.00,0.90
4800.00,0.90
4799.00,0.90
4798.00,0.90
4797.00,0.90
4796.00,0.91
4795.00,0.91
4794.00,0.91
4793.00,0.91
4792.00,0.91
4791.00,0.91
4790.00,0.91
4789.00,0.91
4788.00,0.91
4787.00,0.91
4786.00,0.91
4785.00,0.91
4784.00,0.91
4783.00,0.92
4782.00,0.92
4781.00,0.92
4780.00,0.92
4779.00,0.92
4778.00,0.92
4777.00,0.92
4776.00,0.92
4775.00,0.92
4774.00,0.92
4773.00,0.92
4772.00,0.92
4771.00,0.93
4770.00,0.93
4769.00,0.93
4768.00,0.93
4767.00,0.93
4766.00,0.93
4765.00,0.93
4764.00,0.93
4763.00,0.93
4762.00,0.94
4761.00,0.94
4760.00,0.94
4759.00,0.94
4758.00,0.94
4757.00,0.94
4756.00,0.95
4755.00,0.95
4754.00,0.95
4753.00,0.95
4752.00,0.95
4751.00,0.96
4750.00,0.96
4749.00,0.96
4748.00,0.96
4747.00,0.96
4746.00,0.96
4745.00,0.97
4744.00,0.97
4743.00,0.97
4742.00,0.97
4741.00,0.97
4740.00,0.97
4739.00,0.97
4738.00,0.98
4737.00,0.98
4736.00,0.98
4735.00,0.98
4734.00,0.98
4733.00,0.98
4732.00,0.98
4731.00,0.98
4730.00,0.98
4729.00,0.98
4728.00,0.99
4727.00,0.99
4726.00,0.99
4725.00,0.99
4724.00,0.99
4723.00,0.99
4722.00,0.99
4721.00,0.99
4720.00,0.99
4719.00,0.99
4718.00,0.99
4717.00,0.99
4716.00,1.00
4715.00,1.00
4714.00,1.00
4713.00,1.00
4712.00,1.00
4711.00,1.00
4710.00,1.00
4709.00,1.00
4708.00,1.00
4707.00,1.00
4706.00,1.00
4705.00,1.00
4704.00,1.00
4703.00,1.00
4702.00,1.00
4701.00,1.00
4700.00,1.00
4699.00,1.01
4698.00,1.01
4697.00,1.01
4696.00,1.01
4695.00,1.01
4694.00,1.01
4693.00,1.01
4692.00,1.01
4691.00,1.02
4690.00,1.02
4689.00,1.02
4688.00,1.02
4687.00,1.02
4686.00,1.02
4685.00,1.02
4684.00,1.02
4683.00,1.03
4682.00,1.03
4681.00,1.03
4680.00,1.03
4679.00,1.03
4678.00,1.03
4677.00,1.04
4676.00,1.04
4675.00,1.04
4674.00,1.04
4673.00,1.04
4672.00,1.04
4671.00,1.04
4670.00,1.05
4669.00,1.05
4668.00,1.05
4667.00,1.05
4666.00,1.05
4665.00,1.05
4664.00,1.05
4663.00,1.05
4662.00,1.06
4661.00,1.06
4660.00,1.06
4659.00,1.06
4658.00,1.06
4657.00,1.06
4656.00,1.06
4655.00,1.06
4654.00,1.07
4653.00,1.07
4652.00,1.07
4651.00,1.07
4650.00,1.07
4649.00,1.07
4648.00,1.07
4647.00,1.07
4646.00,1.07
4645.00,1.07
4644.00,1.08
4643.00,1.08
4642.00,1.08
4641.00,1.08
4640.00,1.08
4639.00,1.08
4638.00,1.08
4637.00,1.08
4636.00,1.08
4635.00,1.08
4634.00,1.08
4633.00,1.08
4632.00,1.08
4631.00,1.08
4630.00,1.08
4629.00,1.09
4628.00,1.09
4627.00,1.09
4626.00,1.09
4625.00,1.09
4624.00,1.09
4623.00,1.09
4622.00,1.09
4621.00,1.10
4620.00,1.10
4619.00,1.10
4618.00,1.10
4617.00,1.10
4616.00,1.10
4615.00,1.10
4614.00,1.10
4613.00,1.10
4612.00,1.11
4611.00,1.11
4610.00,1.11
4609.00,1.11
4608.00,1.11
4607.00,1.11
4606.00,1.11
4605.00,1.11
4604.00,1.11
4603.00,1.11
4602.00,1.11
4601.00,1.11
4600.00,1.12
4599.00,1.12
4598.00,1.12
4597.00,1.12
4596.00,1.12
4595.00,1.12
4594.00,1.12
4593.00,1.12
4592.00,1.12
4591.00,1.12
4590.00,1.12
4589.00,1.12
4588.00,1.12
4587.00,1.12
4586.00,1.12
4585.00,1.12
4584.00,1.12
4583.00,1.12
4582.00,1.12
4581.00,1.12
4580.00,1.13
4579.00,1.13
4578.00,1.13
4577.00,1.13
4576.00,1.13
4575.00,1.13
4574.00,1.13
4573.00,1.13
4572.00,1.13
4571.00,1.13
4570.00,1.14
4569.00,1.14
4568.00,1.14
4567.00,1.14
4566.00,1.14
4565.00,1.14
4564.00,1.14
4563.00,1.14
4562.00,1.14
4561.00,1.14
4560.00,1.14
4559.00,1.14
4558.00,1.14
4557.00,1.15
4556.00,1.15
4555.00,1.15
4554.00,1.15
4553.00,1.15
4552.00,1.15
4551.00,1.15
4550.00,1.15
4549.00,1.15
4548.00,1.16
4547.00,1.16
4546.00,1.16
4545.00,1.16
4544.00,1.16
4543.00,1.16
4542.00,1.16
4541.00,1.16
4540.00,1.15
4539.00,1.15
4538.00,1.15
4537.00,1.15
4536.00,1.15
4535.00,1.15
4534.00,1.15
4533.00,1.15
4532.00,1.15
4531.00,1.15
4530.00,1.16
4529.00,1.16
4528.00,1.16
4527.00,1.16
4526.00,1.16
4525.00,1.16
4524.00,1.16
4523.00,1.16
4522.00,1.17
4521.00,1.17
4520.00,1.17
4519.00,1.17
4518.00,1.17
4517.00,1.17
4516.00,1.17
4515.00,1.17
4514.00,1.17
4513.00,1.17
4512.00,1.17
4511.00,1.17
4510.00,1.17
4509.00,1.17
4508.00,1.17
4507.00,1.17
4506.00,1.17
4505.00,1.17
4504.00,1.16
4503.00,1.16
4502.00,1.16
4501.00,1.16
4500.00,1.16
4499.00,1.16
4498.00,1.16
4497.00,1.16
4496.00,1.16
4495.00,1.16
4494.00,1.16
4493.00,1.16
4492.00,1.16
4491.00,1.16
4490.00,1.16
4489.00,1.16
4488.00,1.16
4487.00,1.16
4486.00,1.16
4485.00,1.16
4484.00,1.16
4483.00,1.16
4482.00,1.16
4481.00,1.15
4480.00,1.15
4479.00,1.15
4478.00,1.15
4477.00,1.15
4476.00,1.15
4475.00,1.15
4474.00,1.15
4473.00,1.15
4472.00,1.14
4471.00,1.14
4470.00,1.14
4469.00,1.14
4468.00,1.14
4467.00,1.14
4466.00,1.13
4465.00,1.13
4464.00,1.13
4463.00,1.13
4462.00,1.13
4461.00,1.13
4460.00,1.12
4459.00,1.12
4458.00,1.12
4457.00,1.12
4456.00,1.12
4455.00,1.11
4454.00,1.11
4453.00,1.11
4452.00,1.11
4451.00,1.11
4450.00,1.10
4449.00,1.10
4448.00,1.10
4447.00,1.10
4446.00,1.10
4445.00,1.10
4444.00,1.09
4443.00,1.09
4442.00,1.09
4441.00,1.09
4440.00,1.08
4439.00,1.08
4438.00,1.08
4437.00,1.08
4436.00,1.08
4435.00,1.07
4434.00,1.07
4433.00,1.07
4432.00,1.07
4431.00,1.07
4430.00,1.07
4429.00,1.07
4428.00,1.07
4427.00,1.06
4426.00,1.06
4425.00,1.06
4424.00,1.06
4423.00,1.06
4422.00,1.06
4421.00,1.06
4420.00,1.06
4419.00,1.06
4418.00,1.06
4417.00,1.06
4416.00,1.06
4415.00,1.06
4414.00,1.06
4413.00,1.06
4412.00,1.06
4411.00,1.06
4410.00,1.06
4409.00,1.06
4408.00,1.06
4407.00,1.06
4406.00,1.06
4405.00,1.06
4404.00,1.06
4403.00,1.06
4402.00,1.06
4401.00,1.07
4400.00,1.07
4399.00,1.07
4398.00,1.07
4397.00,1.07
4396.00,1.07
4395.00,1.07
4394.00,1.07
4393.00,1.08
4392.00,1.08
4391.00,1.08
4390.00,1.08
4389.00,1.08
4388.00,1.08
4387.00,1.08
4386.00,1.08
4385.00,1.08
4384.00,1.08
4383.00,1.08
4382.00,1.08
4381.00,1.09
4380.00,1.09
4379.00,1.09
4378.00,1.09
4377.00,1.09
4376.00,1.09
4375.00,1.09
4374.00,1.09
4373.00,1.09
4372.00,1.09
4371.00,1.09
4370.00,1.09
4369.00,1.09
4368.00,1.09
4367.00,1.09
4366.00,1.09
4365.00,1.09
4364.00,1.09
4363.00,1.09
4362.00,1.09
4361.00,1.09
4360.00,1.09
4359.00,1.09
4358.00,1.09
4357.00,1.09
4356.00,1.09
4355.00,1.09
4354.00,1.09
4353.00,1.09
4352.00,1.09
4351.00,1.09
4350.00,1.09
4349.00,1.09
4348.00,1.09
4347.00,1.09
4346.00,1.09
4345.00,1.09
4344.00,1.09
4343.00,1.09
4342.00,1.09
4341.00,1.09
4340.00,1.09
4339.00,1.09
4338.00,1.09
4337.00,1.09
4336.00,1.09
4335.00,1.09
4334.00,1.09
4333.00,1.09
4332.00,1.09
4331.00,1.09
4330.00,1.10
4329.00,1.10
4328.00,1.10
4327.00,1.10
4326.00,1.10
4325.00,1.10
4324.00,1.11
4323.00,1.11
4322.00,1.11
4321.00,1.11
4320.00,1.11
4319.00,1.12
4318.00,1.12
4317.00,1.12
4316.00,1.12
4315.00,1.12
4314.00,1.12
4313.00,1.12
4312.00,1.12
4311.00,1.12
4310.00,1.13
4309.00,1.13
4308.00,1.13
4307.00,1.13
4306.00,1.13
4305.00,1.13
4304.00,1.13
4303.00,1.13
4302.00,1.13
4301.00,1.13
4300.00,1.13
4299.00,1.13
4298.00,1.13
4297.00,1.13
4296.00,1.13
4295.00,1.13
4294.00,1.13
4293.00,1.13
4292.00,1.13
4291.00,1.13
4290.00,1.13
4289.00,1.14
4288.00,1.14
4287.00,1.14
4286.00,1.14
4285.00,1.14
4284.00,1.14
4283.00,1.14
4282.00,1.14
4281.00,1.14
4280.00,1.14
4279.00,1.15
4278.00,1.15
4277.00,1.15
4276.00,1.15
4275.00,1.15
4274.00,1.15
4273.00,1.15
4272.00,1.15
4271.00,1.15
4270.00,1.15
4269.00,1.15
4268.00,1.15
4267.00,1.15
4266.00,1.15
4265.00,1.15
4264.00,1.15
4263.00,1.15
4262.00,1.15
4261.00,1.15
4260.00,1.15
4259.00,1.15
4258.00,1.15
4257.00,1.15
4256.00,1.16
4255.00,1.16
4254.00,1.16
4253.00,1.16
4252.00,1.16
4251.00,1.16
4250.00,1.16
4249.00,1.16
4248.00,1.16
4247.00,1.16
4246.00,1.16
4245.00,1.16
4244.00,1.16
4243.00,1.16
4242.00,1.16
4241.00,1.16
4240.00,1.16
4239.00,1.16
4238.00,1.16
4237.00,1.16
4236.00,1.16
4235.00,1.16
4234.00,1.16
4233.00,1.16
4232.00,1.16
4231.00,1.16
4230.00,1.17
4229.00,1.17
4228.00,1.17
4227.00,1.17
4226.00,1.17
4225.00,1.17
4224.00,1.17
4223.00,1.17
4222.00,1.17
4221.00,1.18
4220.00,1.18
4219.00,1.18
4218.00,1.18
4217.00,1.18
4216.00,1.18
4215.00,1.19
4214.00,1.19
4213.00,1.19
4212.00,1.19
4211.00,1.19
4210.00,1.20
4209.00,1.20
4208.00,1.20
4207.00,1.20
4206.00,1.20
4205.00,1.20
4204.00,1.20
4203.00,1.20
4202.00,1.20
4201.00,1.21
4200.00,1.21
4199.00,1.21
4198.00,1.21
4197.00,1.21
4196.00,1.21
4195.00,1.21
4194.00,1.21
4193.00,1.21
4192.00,1.21
4191.00,1.21
4190.00,1.21
4189.00,1.21
4188.00,1.21
4187.00,1.21
4186.00,1.21
4185.00,1.21
4184.00,1.21
4183.00,1.21
4182.00,1.21
4181.00,1.21
4180.00,1.21
4179.00,1.21
4178.00,1.21
4177.00,1.21
4176.00,1.21
4175.00,1.21
4174.00,1.21
4173.00,1.21
4172.00,1.21
4171.00,1.21
4170.00,1.21
4169.00,1.21
4168.00,1.21
4167.00,1.21
4166.00,1.21
4165.00,1.21
4164.00,1.21
4163.00,1.21
4162.00,1.21
4161.00,1.21
4160.00,1.21
4159.00,1.21
4158.00,1.21
4157.00,1.21
4156.00,1.21
4155.00,1.22
4154.00,1.22
4153.00,1.22
4152.00,1.22
4151.00,1.22
4150.00,1.22
4149.00,1.22
4148.00,1.22
4147.00,1.22
4146.00,1.22
4145.00,1.22
4144.00,1.22
4143.00,1.22
4142.00,1.22
4141.00,1.22
4140.00,1.22
4139.00,1.22
4138.00,1.22
4137.00,1.22
4136.00,1.22
4135.00,1.23
4134.00,1.23
4133.00,1.23
4132.00,1.23
4131.00,1.23
4130.00,1.23
4129.00,1.23
4128.00,1.23
4127.00,1.23
4126.00,1.23
4125.00,1.23
4124.00,1.23
4123.00,1.23
4122.00,1.23
4121.00,1.23
4120.00,1.24
4119.00,1.24
4118.00,1.24
4117.00,1.24
4116.00,1.24
4115.00,1.24
4114.00,1.24
4113.00,1.24
4112.00,1.24
4111.00,1.24
4110.00,1.24
4109.00,1.25
4108.00,1.25
4107.00,1.25
4106.00,1.25
4105.00,1.25
4104.00,1.25
4103.00,1.25
4102.00,1.25
4101.00,1.25
4100.00,1.25
4099.00,1.25
4098.00,1.25
4097.00,1.25
4096.00,1.25
4095.00,1.25
4094.00,1.25
4093.00,1.26
4092.00,1.26
4091.00,1.26
4090.00,1.26
4089.00,1.26
4088.00,1.26
4087.00,1.25
4086.00,1.25
4085.00,1.25
4084.00,1.25
4083.00,1.25
4082.00,1.25
4081.00,1.25
4080.00,1.25
4079.00,1.26
4078.00,1.26
4077.00,1.26
4076.00,1.26
4075.00,1.26
4074.00,1.26
4073.00,1.26
4072.00,1.26
4071.00,1.26
4070.00,1.27
4069.00,1.27
4068.00,1.27
4067.00,1.27
4066.00,1.27
4065.00,1.27
4064.00,1.27
4063.00,1.28
4062.00,1.28
4061.00,1.28
4060.00,1.28
4059.00,1.28
4058.00,1.28
4057.00,1.28
4056.00,1.28
4055.00,1.28
4054.00,1.28
4053.00,1.28
4052.00,1.28
4051.00,1.28
4050.00,1.28
4049.00,1.28
4048.00,1.28
4047.00,1.28
4046.00,1.28
4045.00,1.28
4044.00,1.28
4043.00,1.28
4042.00,1.28
4041.00,1.28
4040.00,1.28
4039.00,1.28
4038.00,1.28
4037.00,1.28
4036.00,1.28
4035.00,1.28
4034.00,1.28
4033.00,1.28
4032.00,1.28
4031.00,1.28
4030.00,1.29
4029.00,1.29
4028.00,1.29
4027.00,1.29
4026.00,1.30
4025.00,1.30
4024.00,1.30
4023.00,1.31
4022.00,1.31
4021.00,1.32
4020.00,1.32
4019.00,1.32
4018.00,1.32
4017.00,1.32
4016.00,1.33
4015.00,1.33
4014.00,1.33
4013.00,1.33
4012.00,1.33
4011.00,1.33
4010.00,1.33
4009.00,1.33
4008.00,1.33
4007.00,1.33
4006.00,1.32
4005.00,1.32
4004.00,1.32
4003.00,1.32
4002.00,1.32
4001.00,1.32
4000.00,1.33
