创建为新数据集,样品 712 用户 Administrator 日期 星期五, 七月 20 2018
cm-1,%T
10000.00,1.37
9999.00,1.37
9998.00,1.37
9997.00,1.36
9996.00,1.36
9995.00,1.36
9994.00,1.36
9993.00,1.36
9992.00,1.36
9991.00,1.36
9990.00,1.37
9989.00,1.37
9988.00,1.37
9987.00,1.37
9986.00,1.37
9985.00,1.37
9984.00,1.37
9983.00,1.37
9982.00,1.36
9981.00,1.36
9980.00,1.36
9979.00,1.36
9978.00,1.36
9977.00,1.35
9976.00,1.35
9975.00,1.35
9974.00,1.34
9973.00,1.34
9972.00,1.34
9971.00,1.34
9970.00,1.33
9969.00,1.33
9968.00,1.33
9967.00,1.33
9966.00,1.33
9965.00,1.33
9964.00,1.33
9963.00,1.33
9962.00,1.33
9961.00,1.33
9960.00,1.33
9959.00,1.33
9958.00,1.33
9957.00,1.33
9956.00,1.34
9955.00,1.34
9954.00,1.34
9953.00,1.34
9952.00,1.34
9951.00,1.34
9950.00,1.34
9949.00,1.35
9948.00,1.35
9947.00,1.35
9946.00,1.35
9945.00,1.35
9944.00,1.35
9943.00,1.36
9942.00,1.36
9941.00,1.36
9940.00,1.36
9939.00,1.36
9938.00,1.36
9937.00,1.37
9936.00,1.37
9935.00,1.37
9934.00,1.37
9933.00,1.37
9932.00,1.36
9931.00,1.36
9930.00,1.36
9929.00,1.36
9928.00,1.36
9927.00,1.36
9926.00,1.35
9925.00,1.35
9924.00,1.35
9923.00,1.34
9922.00,1.34
9921.00,1.34
9920.00,1.34
9919.00,1.33
9918.00,1.33
9917.00,1.33
9916.00,1.33
9915.00,1.33
9914.00,1.33
9913.00,1.33
9912.00,1.33
9911.00,1.33
9910.00,1.33
9909.00,1.33
9908.00,1.33
9907.00,1.33
9906.00,1.34
9905.00,1.34
9904.00,1.34
9903.00,1.34
9902.00,1.34
9901.00,1.34
9900.00,1.34
9899.00,1.34
9898.00,1.34
9897.00,1.34
9896.00,1.34
9895.00,1.34
9894.00,1.34
9893.00,1.33
9892.00,1.33
9891.00,1.33
9890.00,1.33
9889.00,1.33
9888.00,1.33
9887.00,1.32
9886.00,1.32
9885.00,1.32
9884.00,1.32
9883.00,1.32
9882.00,1.32
9881.00,1.32
9880.00,1.32
9879.00,1.32
9878.00,1.33
9877.00,1.33
9876.00,1.33
9875.00,1.33
9874.00,1.33
9873.00,1.33
9872.00,1.33
9871.00,1.34
9870.00,1.34
9869.00,1.34
9868.00,1.34
9867.00,1.34
9866.00,1.35
9865.00,1.35
9864.00,1.35
9863.00,1.35
9862.00,1.35
9861.00,1.36
9860.00,1.36
9859.00,1.36
9858.00,1.36
9857.00,1.36
9856.00,1.36
9855.00,1.36
9854.00,1.36
9853.00,1.36
9852.00,1.36
9851.00,1.36
9850.00,1.36
9849.00,1.36
9848.00,1.36
9847.00,1.36
9846.00,1.36
9845.00,1.36
9844.00,1.35
9843.00,1.35
9842.00,1.35
9841.00,1.35
9840.00,1.35
9839.00,1.35
9838.00,1.36
9837.00,1.36
9836.00,1.36
9835.00,1.36
9834.00,1.36
9833.00,1.36
9832.00,1.36
9831.00,1.36
9830.00,1.36
9829.00,1.36
9828.00,1.36
9827.00,1.35
9826.00,1.35
9825.00,1.35
9824.00,1.35
9823.00,1.35
9822.00,1.34
9821.00,1.34
9820.00,1.34
9819.00,1.34
9818.00,1.33
9817.00,1.33
9816.00,1.33
9815.00,1.32
9814.00,1.32
9813.00,1.32
9812.00,1.32
9811.00,1.32
9810.00,1.32
9809.00,1.32
9808.00,1.32
9807.00,1.32
9806.00,1.32
9805.00,1.32
9804.00,1.32
9803.00,1.32
9802.00,1.32
9801.00,1.33
9800.00,1.33
9799.00,1.33
9798.00,1.33
9797.00,1.34
9796.00,1.34
9795.00,1.34
9794.00,1.34
9793.00,1.34
9792.00,1.35
9791.00,1.35
9790.00,1.35
9789.00,1.35
9788.00,1.35
9787.00,1.35
9786.00,1.35
9785.00,1.35
9784.00,1.35
9783.00,1.35
9782.00,1.35
9781.00,1.35
9780.00,1.35
9779.00,1.35
9778.00,1.35
9777.00,1.34
9776.00,1.34
9775.00,1.34
9774.00,1.34
9773.00,1.34
9772.00,1.34
9771.00,1.34
9770.00,1.34
9769.00,1.34
9768.00,1.34
9767.00,1.34
9766.00,1.34
9765.00,1.34
9764.00,1.33
9763.00,1.33
9762.00,1.33
9761.00,1.33
9760.00,1.33
9759.00,1.33
9758.00,1.33
9757.00,1.33
9756.00,1.33
9755.00,1.33
9754.00,1.33
9753.00,1.33
9752.00,1.33
9751.00,1.33
9750.00,1.33
9749.00,1.33
9748.00,1.33
9747.00,1.33
9746.00,1.33
9745.00,1.33
9744.00,1.33
9743.00,1.33
9742.00,1.33
9741.00,1.33
9740.00,1.34
9739.00,1.34
9738.00,1.34
9737.00,1.34
9736.00,1.34
9735.00,1.34
9734.00,1.34
9733.00,1.35
9732.00,1.35
9731.00,1.35
9730.00,1.35
9729.00,1.35
9728.00,1.35
9727.00,1.35
9726.00,1.35
9725.00,1.35
9724.00,1.35
9723.00,1.35
9722.00,1.35
9721.00,1.35
9720.00,1.35
9719.00,1.35
9718.00,1.35
9717.00,1.35
9716.00,1.35
9715.00,1.35
9714.00,1.35
9713.00,1.35
9712.00,1.35
9711.00,1.34
9710.00,1.34
9709.00,1.34
9708.00,1.34
9707.00,1.34
9706.00,1.34
9705.00,1.34
9704.00,1.34
9703.00,1.34
9702.00,1.34
9701.00,1.34
9700.00,1.34
9699.00,1.34
9698.00,1.34
9697.00,1.34
9696.00,1.34
9695.00,1.34
9694.00,1.34
9693.00,1.34
9692.00,1.34
9691.00,1.34
9690.00,1.34
9689.00,1.34
9688.00,1.34
9687.00,1.34
9686.00,1.34
9685.00,1.34
9684.00,1.34
9683.00,1.34
9682.00,1.34
9681.00,1.34
9680.00,1.34
9679.00,1.34
9678.00,1.34
9677.00,1.34
9676.00,1.34
9675.00,1.34
9674.00,1.34
9673.00,1.35
9672.00,1.35
9671.00,1.35
9670.00,1.35
9669.00,1.35
9668.00,1.35
9667.00,1.35
9666.00,1.35
9665.00,1.35
9664.00,1.35
9663.00,1.35
9662.00,1.35
9661.00,1.35
9660.00,1.35
9659.00,1.35
9658.00,1.35
9657.00,1.35
9656.00,1.35
9655.00,1.35
9654.00,1.35
9653.00,1.35
9652.00,1.35
9651.00,1.35
9650.00,1.35
9649.00,1.35
9648.00,1.35
9647.00,1.35
9646.00,1.35
9645.00,1.35
9644.00,1.35
9643.00,1.35
9642.00,1.35
9641.00,1.35
9640.00,1.35
9639.00,1.34
9638.00,1.34
9637.00,1.34
9636.00,1.34
9635.00,1.33
9634.00,1.33
9633.00,1.33
9632.00,1.33
9631.00,1.33
9630.00,1.33
9629.00,1.32
9628.00,1.32
9627.00,1.32
9626.00,1.32
9625.00,1.32
9624.00,1.33
9623.00,1.33
9622.00,1.33
9621.00,1.33
9620.00,1.33
9619.00,1.33
9618.00,1.33
9617.00,1.33
9616.00,1.34
9615.00,1.34
9614.00,1.34
9613.00,1.34
9612.00,1.34
9611.00,1.34
9610.00,1.34
9609.00,1.34
9608.00,1.34
9607.00,1.34
9606.00,1.34
9605.00,1.34
9604.00,1.34
9603.00,1.34
9602.00,1.34
9601.00,1.34
9600.00,1.34
9599.00,1.34
9598.00,1.34
9597.00,1.34
9596.00,1.34
9595.00,1.34
9594.00,1.34
9593.00,1.34
9592.00,1.34
9591.00,1.34
9590.00,1.34
9589.00,1.34
9588.00,1.34
9587.00,1.34
9586.00,1.34
9585.00,1.34
9584.00,1.34
9583.00,1.34
9582.00,1.35
9581.00,1.35
9580.00,1.35
9579.00,1.35
9578.00,1.35
9577.00,1.35
9576.00,1.35
9575.00,1.35
9574.00,1.35
9573.00,1.36
9572.00,1.36
9571.00,1.36
9570.00,1.36
9569.00,1.36
9568.00,1.36
9567.00,1.36
9566.00,1.36
9565.00,1.36
9564.00,1.36
9563.00,1.36
9562.00,1.36
9561.00,1.36
9560.00,1.36
9559.00,1.36
9558.00,1.36
9557.00,1.36
9556.00,1.36
9555.00,1.36
9554.00,1.36
9553.00,1.36
9552.00,1.36
9551.00,1.36
9550.00,1.36
9549.00,1.36
9548.00,1.36
9547.00,1.36
9546.00,1.36
9545.00,1.36
9544.00,1.36
9543.00,1.36
9542.00,1.36
9541.00,1.36
9540.00,1.36
9539.00,1.36
9538.00,1.36
9537.00,1.36
9536.00,1.36
9535.00,1.36
9534.00,1.36
9533.00,1.36
9532.00,1.36
9531.00,1.36
9530.00,1.37
9529.00,1.37
9528.00,1.37
9527.00,1.37
9526.00,1.37
9525.00,1.37
9524.00,1.37
9523.00,1.37
9522.00,1.37
9521.00,1.37
9520.00,1.37
9519.00,1.37
9518.00,1.36
9517.00,1.36
9516.00,1.36
9515.00,1.36
9514.00,1.36
9513.00,1.36
9512.00,1.36
9511.00,1.36
9510.00,1.36
9509.00,1.36
9508.00,1.36
9507.00,1.36
9506.00,1.36
9505.00,1.36
9504.00,1.36
9503.00,1.36
9502.00,1.36
9501.00,1.36
9500.00,1.36
9499.00,1.36
9498.00,1.36
9497.00,1.37
9496.00,1.37
9495.00,1.37
9494.00,1.37
9493.00,1.36
9492.00,1.36
9491.00,1.36
9490.00,1.36
9489.00,1.36
9488.00,1.36
9487.00,1.36
9486.00,1.36
9485.00,1.36
9484.00,1.36
9483.00,1.36
9482.00,1.36
9481.00,1.36
9480.00,1.35
9479.00,1.35
9478.00,1.35
9477.00,1.35
9476.00,1.35
9475.00,1.35
9474.00,1.35
9473.00,1.35
9472.00,1.35
9471.00,1.35
9470.00,1.35
9469.00,1.35
9468.00,1.35
9467.00,1.35
9466.00,1.35
9465.00,1.35
9464.00,1.35
9463.00,1.36
9462.00,1.36
9461.00,1.36
9460.00,1.36
9459.00,1.36
9458.00,1.36
9457.00,1.36
9456.00,1.36
9455.00,1.36
9454.00,1.36
9453.00,1.36
9452.00,1.36
9451.00,1.36
9450.00,1.35
9449.00,1.35
9448.00,1.35
9447.00,1.35
9446.00,1.35
9445.00,1.35
9444.00,1.35
9443.00,1.35
9442.00,1.35
9441.00,1.35
9440.00,1.34
9439.00,1.34
9438.00,1.34
9437.00,1.34
9436.00,1.34
9435.00,1.34
9434.00,1.33
9433.00,1.33
9432.00,1.33
9431.00,1.33
9430.00,1.33
9429.00,1.33
9428.00,1.33
9427.00,1.33
9426.00,1.33
9425.00,1.33
9424.00,1.33
9423.00,1.34
9422.00,1.34
9421.00,1.34
9420.00,1.34
9419.00,1.34
9418.00,1.34
9417.00,1.34
9416.00,1.35
9415.00,1.35
9414.00,1.35
9413.00,1.35
9412.00,1.35
9411.00,1.35
9410.00,1.35
9409.00,1.35
9408.00,1.35
9407.00,1.35
9406.00,1.35
9405.00,1.35
9404.00,1.35
9403.00,1.36
9402.00,1.36
9401.00,1.36
9400.00,1.36
9399.00,1.36
9398.00,1.36
9397.00,1.36
9396.00,1.36
9395.00,1.36
9394.00,1.36
9393.00,1.36
9392.00,1.36
9391.00,1.36
9390.00,1.36
9389.00,1.36
9388.00,1.36
9387.00,1.36
9386.00,1.36
9385.00,1.36
9384.00,1.36
9383.00,1.36
9382.00,1.36
9381.00,1.36
9380.00,1.36
9379.00,1.36
9378.00,1.36
9377.00,1.36
9376.00,1.36
9375.00,1.36
9374.00,1.36
9373.00,1.36
9372.00,1.36
9371.00,1.36
9370.00,1.36
9369.00,1.36
9368.00,1.36
9367.00,1.36
9366.00,1.36
9365.00,1.36
9364.00,1.36
9363.00,1.36
9362.00,1.36
9361.00,1.36
9360.00,1.36
9359.00,1.35
9358.00,1.35
9357.00,1.35
9356.00,1.35
9355.00,1.35
9354.00,1.35
9353.00,1.35
9352.00,1.35
9351.00,1.35
9350.00,1.34
9349.00,1.34
9348.00,1.34
9347.00,1.34
9346.00,1.34
9345.00,1.34
9344.00,1.34
9343.00,1.34
9342.00,1.34
9341.00,1.35
9340.00,1.35
9339.00,1.35
9338.00,1.35
9337.00,1.35
9336.00,1.35
9335.00,1.35
9334.00,1.35
9333.00,1.35
9332.00,1.35
9331.00,1.35
9330.00,1.35
9329.00,1.35
9328.00,1.35
9327.00,1.35
9326.00,1.35
9325.00,1.35
9324.00,1.34
9323.00,1.34
9322.00,1.34
9321.00,1.34
9320.00,1.34
9319.00,1.34
9318.00,1.33
9317.00,1.33
9316.00,1.33
9315.00,1.33
9314.00,1.33
9313.00,1.33
9312.00,1.33
9311.00,1.33
9310.00,1.33
9309.00,1.33
9308.00,1.33
9307.00,1.33
9306.00,1.33
9305.00,1.33
9304.00,1.34
9303.00,1.34
9302.00,1.34
9301.00,1.34
9300.00,1.34
9299.00,1.35
9298.00,1.35
9297.00,1.35
9296.00,1.35
9295.00,1.35
9294.00,1.35
9293.00,1.35
9292.00,1.35
9291.00,1.35
9290.00,1.35
9289.00,1.35
9288.00,1.35
9287.00,1.35
9286.00,1.35
9285.00,1.35
9284.00,1.35
9283.00,1.35
9282.00,1.35
9281.00,1.35
9280.00,1.35
9279.00,1.35
9278.00,1.35
9277.00,1.35
9276.00,1.35
9275.00,1.35
9274.00,1.35
9273.00,1.35
9272.00,1.36
9271.00,1.36
9270.00,1.36
9269.00,1.36
9268.00,1.36
9267.00,1.36
9266.00,1.36
9265.00,1.36
9264.00,1.36
9263.00,1.36
9262.00,1.35
9261.00,1.35
9260.00,1.35
9259.00,1.35
9258.00,1.35
9257.00,1.35
9256.00,1.35
9255.00,1.35
9254.00,1.34
9253.00,1.34
9252.00,1.34
9251.00,1.34
9250.00,1.34
9249.00,1.34
9248.00,1.34
9247.00,1.34
9246.00,1.34
9245.00,1.34
9244.00,1.34
9243.00,1.34
9242.00,1.34
9241.00,1.34
9240.00,1.34
9239.00,1.34
9238.00,1.34
9237.00,1.34
9236.00,1.34
9235.00,1.34
9234.00,1.35
9233.00,1.35
9232.00,1.35
9231.00,1.35
9230.00,1.35
9229.00,1.35
9228.00,1.35
9227.00,1.36
9226.00,1.36
9225.00,1.36
9224.00,1.36
9223.00,1.36
9222.00,1.36
9221.00,1.36
9220.00,1.36
9219.00,1.36
9218.00,1.36
9217.00,1.36
9216.00,1.36
9215.00,1.36
9214.00,1.35
9213.00,1.35
9212.00,1.35
9211.00,1.35
9210.00,1.35
9209.00,1.35
9208.00,1.35
9207.00,1.35
9206.00,1.35
9205.00,1.34
9204.00,1.34
9203.00,1.34
9202.00,1.34
9201.00,1.34
9200.00,1.34
9199.00,1.34
9198.00,1.34
9197.00,1.34
9196.00,1.34
9195.00,1.34
9194.00,1.34
9193.00,1.34
9192.00,1.34
9191.00,1.34
9190.00,1.34
9189.00,1.34
9188.00,1.34
9187.00,1.34
9186.00,1.34
9185.00,1.34
9184.00,1.34
9183.00,1.34
9182.00,1.35
9181.00,1.35
9180.00,1.35
9179.00,1.35
9178.00,1.35
9177.00,1.35
9176.00,1.35
9175.00,1.35
9174.00,1.35
9173.00,1.35
9172.00,1.36
9171.00,1.36
9170.00,1.36
9169.00,1.36
9168.00,1.36
9167.00,1.36
9166.00,1.36
9165.00,1.36
9164.00,1.36
9163.00,1.36
9162.00,1.36
9161.00,1.36
9160.00,1.36
9159.00,1.36
9158.00,1.36
9157.00,1.36
9156.00,1.36
9155.00,1.36
9154.00,1.36
9153.00,1.36
9152.00,1.36
9151.00,1.36
9150.00,1.36
9149.00,1.36
9148.00,1.36
9147.00,1.36
9146.00,1.36
9145.00,1.36
9144.00,1.36
9143.00,1.36
9142.00,1.36
9141.00,1.36
9140.00,1.36
9139.00,1.36
9138.00,1.36
9137.00,1.36
9136.00,1.36
9135.00,1.36
9134.00,1.36
9133.00,1.36
9132.00,1.36
9131.00,1.36
9130.00,1.36
9129.00,1.36
9128.00,1.36
9127.00,1.36
9126.00,1.36
9125.00,1.36
9124.00,1.35
9123.00,1.35
9122.00,1.35
9121.00,1.35
9120.00,1.35
9119.00,1.35
9118.00,1.35
9117.00,1.35
9116.00,1.35
9115.00,1.35
9114.00,1.35
9113.00,1.35
9112.00,1.35
9111.00,1.35
9110.00,1.35
9109.00,1.35
9108.00,1.35
9107.00,1.35
9106.00,1.36
9105.00,1.36
9104.00,1.36
9103.00,1.36
9102.00,1.36
9101.00,1.36
9100.00,1.36
9099.00,1.36
9098.00,1.37
9097.00,1.37
9096.00,1.37
9095.00,1.37
9094.00,1.37
9093.00,1.37
9092.00,1.37
9091.00,1.37
9090.00,1.36
9089.00,1.36
9088.00,1.36
9087.00,1.36
9086.00,1.36
9085.00,1.36
9084.00,1.36
9083.00,1.36
9082.00,1.36
9081.00,1.36
9080.00,1.36
9079.00,1.36
9078.00,1.36
9077.00,1.36
9076.00,1.36
9075.00,1.36
9074.00,1.36
9073.00,1.36
9072.00,1.35
9071.00,1.35
9070.00,1.35
9069.00,1.35
9068.00,1.35
9067.00,1.35
9066.00,1.35
9065.00,1.35
9064.00,1.35
9063.00,1.35
9062.00,1.34
9061.00,1.34
9060.00,1.34
9059.00,1.34
9058.00,1.34
9057.00,1.34
9056.00,1.34
9055.00,1.34
9054.00,1.34
9053.00,1.34
9052.00,1.34
9051.00,1.34
9050.00,1.34
9049.00,1.34
9048.00,1.34
9047.00,1.34
9046.00,1.34
9045.00,1.34
9044.00,1.33
9043.00,1.33
9042.00,1.33
9041.00,1.33
9040.00,1.33
9039.00,1.33
9038.00,1.33
9037.00,1.33
9036.00,1.33
9035.00,1.33
9034.00,1.33
9033.00,1.33
9032.00,1.33
9031.00,1.33
9030.00,1.33
9029.00,1.33
9028.00,1.33
9027.00,1.33
9026.00,1.33
9025.00,1.33
9024.00,1.34
9023.00,1.34
9022.00,1.34
9021.00,1.34
9020.00,1.34
9019.00,1.34
9018.00,1.34
9017.00,1.34
9016.00,1.34
9015.00,1.34
9014.00,1.34
9013.00,1.34
9012.00,1.34
9011.00,1.34
9010.00,1.34
9009.00,1.34
9008.00,1.34
9007.00,1.34
9006.00,1.34
9005.00,1.34
9004.00,1.34
9003.00,1.34
9002.00,1.35
9001.00,1.35
9000.00,1.35
8999.00,1.35
8998.00,1.35
8997.00,1.35
8996.00,1.35
8995.00,1.35
8994.00,1.35
8993.00,1.35
8992.00,1.35
8991.00,1.34
8990.00,1.34
8989.00,1.34
8988.00,1.34
8987.00,1.34
8986.00,1.34
8985.00,1.34
8984.00,1.34
8983.00,1.34
8982.00,1.34
8981.00,1.34
8980.00,1.34
8979.00,1.35
8978.00,1.35
8977.00,1.35
8976.00,1.35
8975.00,1.35
8974.00,1.35
8973.00,1.36
8972.00,1.36
8971.00,1.36
8970.00,1.36
8969.00,1.36
8968.00,1.36
8967.00,1.36
8966.00,1.36
8965.00,1.36
8964.00,1.36
8963.00,1.36
8962.00,1.36
8961.00,1.36
8960.00,1.36
8959.00,1.36
8958.00,1.36
8957.00,1.36
8956.00,1.35
8955.00,1.35
8954.00,1.35
8953.00,1.35
8952.00,1.35
8951.00,1.35
8950.00,1.35
8949.00,1.35
8948.00,1.35
8947.00,1.34
8946.00,1.34
8945.00,1.34
8944.00,1.34
8943.00,1.34
8942.00,1.34
8941.00,1.34
8940.00,1.34
8939.00,1.34
8938.00,1.34
8937.00,1.34
8936.00,1.34
8935.00,1.34
8934.00,1.34
8933.00,1.34
8932.00,1.34
8931.00,1.34
8930.00,1.34
8929.00,1.34
8928.00,1.34
8927.00,1.34
8926.00,1.34
8925.00,1.34
8924.00,1.34
8923.00,1.34
8922.00,1.34
8921.00,1.34
8920.00,1.34
8919.00,1.34
8918.00,1.34
8917.00,1.34
8916.00,1.34
8915.00,1.34
8914.00,1.34
8913.00,1.34
8912.00,1.34
8911.00,1.34
8910.00,1.33
8909.00,1.33
8908.00,1.33
8907.00,1.33
8906.00,1.33
8905.00,1.33
8904.00,1.33
8903.00,1.33
8902.00,1.33
8901.00,1.33
8900.00,1.33
8899.00,1.33
8898.00,1.33
8897.00,1.33
8896.00,1.33
8895.00,1.33
8894.00,1.33
8893.00,1.33
8892.00,1.33
8891.00,1.33
8890.00,1.34
8889.00,1.34
8888.00,1.34
8887.00,1.34
8886.00,1.34
8885.00,1.34
8884.00,1.34
8883.00,1.34
8882.00,1.34
8881.00,1.34
8880.00,1.34
8879.00,1.34
8878.00,1.35
8877.00,1.35
8876.00,1.35
8875.00,1.35
8874.00,1.35
8873.00,1.35
8872.00,1.35
8871.00,1.34
8870.00,1.34
8869.00,1.34
8868.00,1.34
8867.00,1.34
8866.00,1.34
8865.00,1.34
8864.00,1.34
8863.00,1.34
8862.00,1.34
8861.00,1.34
8860.00,1.34
8859.00,1.34
8858.00,1.34
8857.00,1.34
8856.00,1.34
8855.00,1.34
8854.00,1.34
8853.00,1.34
8852.00,1.34
8851.00,1.34
8850.00,1.34
8849.00,1.34
8848.00,1.35
8847.00,1.35
8846.00,1.35
8845.00,1.35
8844.00,1.35
8843.00,1.35
8842.00,1.35
8841.00,1.35
8840.00,1.35
8839.00,1.35
8838.00,1.35
8837.00,1.35
8836.00,1.35
8835.00,1.35
8834.00,1.35
8833.00,1.35
8832.00,1.35
8831.00,1.35
8830.00,1.35
8829.00,1.34
8828.00,1.34
8827.00,1.34
8826.00,1.34
8825.00,1.34
8824.00,1.33
8823.00,1.33
8822.00,1.33
8821.00,1.33
8820.00,1.33
8819.00,1.33
8818.00,1.32
8817.00,1.32
8816.00,1.32
8815.00,1.32
8814.00,1.32
8813.00,1.32
8812.00,1.32
8811.00,1.32
8810.00,1.32
8809.00,1.33
8808.00,1.33
8807.00,1.33
8806.00,1.33
8805.00,1.33
8804.00,1.33
8803.00,1.33
8802.00,1.33
8801.00,1.33
8800.00,1.33
8799.00,1.33
8798.00,1.33
8797.00,1.33
8796.00,1.32
8795.00,1.32
8794.00,1.32
8793.00,1.32
8792.00,1.32
8791.00,1.32
8790.00,1.32
8789.00,1.31
8788.00,1.31
8787.00,1.31
8786.00,1.31
8785.00,1.31
8784.00,1.31
8783.00,1.31
8782.00,1.31
8781.00,1.31
8780.00,1.30
8779.00,1.30
8778.00,1.30
8777.00,1.30
8776.00,1.30
8775.00,1.30
8774.00,1.30
8773.00,1.30
8772.00,1.30
8771.00,1.31
8770.00,1.31
8769.00,1.31
8768.00,1.31
8767.00,1.31
8766.00,1.31
8765.00,1.31
8764.00,1.31
8763.00,1.31
8762.00,1.31
8761.00,1.31
8760.00,1.31
8759.00,1.31
8758.00,1.31
8757.00,1.31
8756.00,1.31
8755.00,1.31
8754.00,1.31
8753.00,1.31
8752.00,1.30
8751.00,1.30
8750.00,1.30
8749.00,1.30
8748.00,1.30
8747.00,1.30
8746.00,1.30
8745.00,1.30
8744.00,1.30
8743.00,1.30
8742.00,1.30
8741.00,1.30
8740.00,1.30
8739.00,1.30
8738.00,1.29
8737.00,1.29
8736.00,1.29
8735.00,1.29
8734.00,1.29
8733.00,1.29
8732.00,1.29
8731.00,1.29
8730.00,1.29
8729.00,1.29
8728.00,1.29
8727.00,1.29
8726.00,1.29
8725.00,1.29
8724.00,1.29
8723.00,1.29
8722.00,1.29
8721.00,1.29
8720.00,1.29
8719.00,1.29
8718.00,1.29
8717.00,1.29
8716.00,1.29
8715.00,1.29
8714.00,1.29
8713.00,1.29
8712.00,1.29
8711.00,1.29
8710.00,1.29
8709.00,1.29
8708.00,1.29
8707.00,1.29
8706.00,1.28
8705.00,1.28
8704.00,1.28
8703.00,1.28
8702.00,1.28
8701.00,1.28
8700.00,1.28
8699.00,1.28
8698.00,1.28
8697.00,1.28
8696.00,1.28
8695.00,1.28
8694.00,1.28
8693.00,1.28
8692.00,1.28
8691.00,1.29
8690.00,1.29
8689.00,1.29
8688.00,1.29
8687.00,1.29
8686.00,1.29
8685.00,1.29
8684.00,1.28
8683.00,1.28
8682.00,1.28
8681.00,1.28
8680.00,1.28
8679.00,1.28
8678.00,1.28
8677.00,1.28
8676.00,1.27
8675.00,1.27
8674.00,1.27
8673.00,1.27
8672.00,1.27
8671.00,1.27
8670.00,1.27
8669.00,1.27
8668.00,1.27
8667.00,1.27
8666.00,1.27
8665.00,1.27
8664.00,1.28
8663.00,1.28
8662.00,1.28
8661.00,1.28
8660.00,1.28
8659.00,1.28
8658.00,1.28
8657.00,1.28
8656.00,1.28
8655.00,1.28
8654.00,1.28
8653.00,1.28
8652.00,1.28
8651.00,1.28
8650.00,1.28
8649.00,1.28
8648.00,1.28
8647.00,1.28
8646.00,1.27
8645.00,1.27
8644.00,1.27
8643.00,1.27
8642.00,1.27
8641.00,1.27
8640.00,1.27
8639.00,1.27
8638.00,1.27
8637.00,1.27
8636.00,1.27
8635.00,1.27
8634.00,1.27
8633.00,1.27
8632.00,1.27
8631.00,1.27
8630.00,1.27
8629.00,1.27
8628.00,1.27
8627.00,1.27
8626.00,1.27
8625.00,1.27
8624.00,1.27
8623.00,1.27
8622.00,1.27
8621.00,1.27
8620.00,1.27
8619.00,1.26
8618.00,1.26
8617.00,1.26
8616.00,1.26
8615.00,1.26
8614.00,1.26
8613.00,1.26
8612.00,1.26
8611.00,1.26
8610.00,1.25
8609.00,1.25
8608.00,1.25
8607.00,1.25
8606.00,1.25
8605.00,1.25
8604.00,1.25
8603.00,1.25
8602.00,1.25
8601.00,1.25
8600.00,1.25
8599.00,1.25
8598.00,1.25
8597.00,1.26
8596.00,1.26
8595.00,1.26
8594.00,1.26
8593.00,1.26
8592.00,1.26
8591.00,1.26
8590.00,1.25
8589.00,1.25
8588.00,1.25
8587.00,1.25
8586.00,1.25
8585.00,1.25
8584.00,1.25
8583.00,1.25
8582.00,1.25
8581.00,1.25
8580.00,1.25
8579.00,1.25
8578.00,1.25
8577.00,1.25
8576.00,1.24
8575.00,1.24
8574.00,1.24
8573.00,1.24
8572.00,1.24
8571.00,1.24
8570.00,1.24
8569.00,1.24
8568.00,1.24
8567.00,1.24
8566.00,1.24
8565.00,1.24
8564.00,1.24
8563.00,1.24
8562.00,1.24
8561.00,1.24
8560.00,1.24
8559.00,1.24
8558.00,1.24
8557.00,1.25
8556.00,1.25
8555.00,1.25
8554.00,1.25
8553.00,1.25
8552.00,1.25
8551.00,1.25
8550.00,1.25
8549.00,1.24
8548.00,1.24
8547.00,1.24
8546.00,1.24
8545.00,1.24
8544.00,1.24
8543.00,1.24
8542.00,1.23
8541.00,1.23
8540.00,1.23
8539.00,1.23
8538.00,1.23
8537.00,1.23
8536.00,1.23
8535.00,1.23
8534.00,1.23
8533.00,1.22
8532.00,1.22
8531.00,1.22
8530.00,1.22
8529.00,1.22
8528.00,1.22
8527.00,1.22
8526.00,1.22
8525.00,1.22
8524.00,1.22
8523.00,1.22
8522.00,1.22
8521.00,1.22
8520.00,1.22
8519.00,1.22
8518.00,1.22
8517.00,1.22
8516.00,1.22
8515.00,1.22
8514.00,1.22
8513.00,1.22
8512.00,1.22
8511.00,1.23
8510.00,1.23
8509.00,1.23
8508.00,1.23
8507.00,1.23
8506.00,1.23
8505.00,1.24
8504.00,1.24
8503.00,1.24
8502.00,1.24
8501.00,1.24
8500.00,1.24
8499.00,1.24
8498.00,1.24
8497.00,1.24
8496.00,1.24
8495.00,1.24
8494.00,1.23
8493.00,1.23
8492.00,1.23
8491.00,1.23
8490.00,1.23
8489.00,1.23
8488.00,1.23
8487.00,1.22
8486.00,1.22
8485.00,1.22
8484.00,1.22
8483.00,1.22
8482.00,1.22
8481.00,1.22
8480.00,1.21
8479.00,1.21
8478.00,1.21
8477.00,1.21
8476.00,1.21
8475.00,1.21
8474.00,1.21
8473.00,1.20
8472.00,1.20
8471.00,1.20
8470.00,1.20
8469.00,1.20
8468.00,1.20
8467.00,1.20
8466.00,1.20
8465.00,1.20
8464.00,1.20
8463.00,1.20
8462.00,1.20
8461.00,1.20
8460.00,1.20
8459.00,1.20
8458.00,1.20
8457.00,1.20
8456.00,1.20
8455.00,1.20
8454.00,1.20
8453.00,1.20
8452.00,1.20
8451.00,1.20
8450.00,1.20
8449.00,1.20
8448.00,1.20
8447.00,1.20
8446.00,1.20
8445.00,1.20
8444.00,1.20
8443.00,1.20
8442.00,1.20
8441.00,1.20
8440.00,1.20
8439.00,1.20
8438.00,1.19
8437.00,1.19
8436.00,1.19
8435.00,1.19
8434.00,1.19
8433.00,1.19
8432.00,1.19
8431.00,1.19
8430.00,1.19
8429.00,1.19
8428.00,1.19
8427.00,1.19
8426.00,1.19
8425.00,1.19
8424.00,1.19
8423.00,1.19
8422.00,1.20
8421.00,1.20
8420.00,1.20
8419.00,1.20
8418.00,1.20
8417.00,1.20
8416.00,1.20
8415.00,1.21
8414.00,1.21
8413.00,1.21
8412.00,1.21
8411.00,1.21
8410.00,1.21
8409.00,1.21
8408.00,1.21
8407.00,1.21
8406.00,1.21
8405.00,1.21
8404.00,1.21
8403.00,1.21
8402.00,1.21
8401.00,1.21
8400.00,1.21
8399.00,1.21
8398.00,1.21
8397.00,1.21
8396.00,1.21
8395.00,1.21
8394.00,1.21
8393.00,1.21
8392.00,1.21
8391.00,1.21
8390.00,1.21
8389.00,1.22
8388.00,1.22
8387.00,1.22
8386.00,1.22
8385.00,1.22
8384.00,1.22
8383.00,1.22
8382.00,1.22
8381.00,1.22
8380.00,1.22
8379.00,1.22
8378.00,1.22
8377.00,1.22
8376.00,1.22
8375.00,1.22
8374.00,1.22
8373.00,1.22
8372.00,1.22
8371.00,1.22
8370.00,1.22
8369.00,1.22
8368.00,1.22
8367.00,1.22
8366.00,1.22
8365.00,1.22
8364.00,1.22
8363.00,1.22
8362.00,1.22
8361.00,1.22
8360.00,1.22
8359.00,1.22
8358.00,1.22
8357.00,1.22
8356.00,1.22
8355.00,1.22
8354.00,1.22
8353.00,1.22
8352.00,1.22
8351.00,1.22
8350.00,1.22
8349.00,1.22
8348.00,1.22
8347.00,1.22
8346.00,1.22
8345.00,1.22
8344.00,1.22
8343.00,1.22
8342.00,1.22
8341.00,1.22
8340.00,1.22
8339.00,1.22
8338.00,1.22
8337.00,1.22
8336.00,1.22
8335.00,1.22
8334.00,1.22
8333.00,1.22
8332.00,1.22
8331.00,1.22
8330.00,1.22
8329.00,1.22
8328.00,1.22
8327.00,1.22
8326.00,1.22
8325.00,1.22
8324.00,1.22
8323.00,1.22
8322.00,1.22
8321.00,1.22
8320.00,1.22
8319.00,1.22
8318.00,1.22
8317.00,1.22
8316.00,1.22
8315.00,1.22
8314.00,1.22
8313.00,1.22
8312.00,1.22
8311.00,1.22
8310.00,1.22
8309.00,1.22
8308.00,1.22
8307.00,1.22
8306.00,1.22
8305.00,1.23
8304.00,1.23
8303.00,1.23
8302.00,1.23
8301.00,1.23
8300.00,1.23
8299.00,1.23
8298.00,1.24
8297.00,1.24
8296.00,1.24
8295.00,1.24
8294.00,1.24
8293.00,1.24
8292.00,1.24
8291.00,1.24
8290.00,1.25
8289.00,1.25
8288.00,1.25
8287.00,1.25
8286.00,1.25
8285.00,1.25
8284.00,1.25
8283.00,1.25
8282.00,1.25
8281.00,1.25
8280.00,1.25
8279.00,1.25
8278.00,1.25
8277.00,1.25
8276.00,1.25
8275.00,1.25
8274.00,1.25
8273.00,1.25
8272.00,1.25
8271.00,1.25
8270.00,1.24
8269.00,1.24
8268.00,1.24
8267.00,1.24
8266.00,1.24
8265.00,1.24
8264.00,1.24
8263.00,1.24
8262.00,1.24
8261.00,1.24
8260.00,1.24
8259.00,1.24
8258.00,1.24
8257.00,1.24
8256.00,1.24
8255.00,1.24
8254.00,1.25
8253.00,1.25
8252.00,1.25
8251.00,1.25
8250.00,1.25
8249.00,1.25
8248.00,1.26
8247.00,1.26
8246.00,1.26
8245.00,1.26
8244.00,1.26
8243.00,1.26
8242.00,1.26
8241.00,1.27
8240.00,1.27
8239.00,1.27
8238.00,1.27
8237.00,1.27
8236.00,1.27
8235.00,1.27
8234.00,1.27
8233.00,1.27
8232.00,1.27
8231.00,1.27
8230.00,1.27
8229.00,1.27
8228.00,1.27
8227.00,1.27
8226.00,1.27
8225.00,1.27
8224.00,1.27
8223.00,1.27
8222.00,1.27
8221.00,1.27
8220.00,1.27
8219.00,1.27
8218.00,1.27
8217.00,1.27
8216.00,1.27
8215.00,1.27
8214.00,1.27
8213.00,1.27
8212.00,1.27
8211.00,1.27
8210.00,1.27
8209.00,1.27
8208.00,1.27
8207.00,1.27
8206.00,1.27
8205.00,1.27
8204.00,1.27
8203.00,1.27
8202.00,1.27
8201.00,1.27
8200.00,1.27
8199.00,1.27
8198.00,1.27
8197.00,1.27
8196.00,1.27
8195.00,1.27
8194.00,1.27
8193.00,1.28
8192.00,1.28
8191.00,1.28
8190.00,1.28
8189.00,1.28
8188.00,1.28
8187.00,1.28
8186.00,1.28
8185.00,1.28
8184.00,1.28
8183.00,1.28
8182.00,1.28
8181.00,1.28
8180.00,1.28
8179.00,1.28
8178.00,1.28
8177.00,1.28
8176.00,1.28
8175.00,1.28
8174.00,1.28
8173.00,1.28
8172.00,1.28
8171.00,1.28
8170.00,1.28
8169.00,1.28
8168.00,1.28
8167.00,1.28
8166.00,1.28
8165.00,1.28
8164.00,1.28
8163.00,1.28
8162.00,1.28
8161.00,1.28
8160.00,1.28
8159.00,1.28
8158.00,1.28
8157.00,1.28
8156.00,1.28
8155.00,1.28
8154.00,1.28
8153.00,1.28
8152.00,1.28
8151.00,1.28
8150.00,1.28
8149.00,1.28
8148.00,1.28
8147.00,1.28
8146.00,1.28
8145.00,1.28
8144.00,1.28
8143.00,1.28
8142.00,1.28
8141.00,1.28
8140.00,1.28
8139.00,1.28
8138.00,1.28
8137.00,1.28
8136.00,1.28
8135.00,1.28
8134.00,1.28
8133.00,1.28
8132.00,1.28
8131.00,1.28
8130.00,1.28
8129.00,1.29
8128.00,1.29
8127.00,1.29
8126.00,1.29
8125.00,1.29
8124.00,1.29
8123.00,1.28
8122.00,1.28
8121.00,1.28
8120.00,1.28
8119.00,1.28
8118.00,1.28
8117.00,1.28
8116.00,1.28
8115.00,1.28
8114.00,1.28
8113.00,1.28
8112.00,1.28
8111.00,1.28
8110.00,1.28
8109.00,1.28
8108.00,1.28
8107.00,1.28
8106.00,1.28
8105.00,1.29
8104.00,1.29
8103.00,1.29
8102.00,1.29
8101.00,1.29
8100.00,1.29
8099.00,1.29
8098.00,1.29
8097.00,1.30
8096.00,1.30
8095.00,1.30
8094.00,1.30
8093.00,1.30
8092.00,1.30
8091.00,1.30
8090.00,1.31
8089.00,1.31
8088.00,1.31
8087.00,1.31
8086.00,1.31
8085.00,1.31
8084.00,1.32
8083.00,1.32
8082.00,1.32
8081.00,1.32
8080.00,1.32
8079.00,1.32
8078.00,1.32
8077.00,1.32
8076.00,1.32
8075.00,1.32
8074.00,1.32
8073.00,1.32
8072.00,1.32
8071.00,1.32
8070.00,1.32
8069.00,1.32
8068.00,1.32
8067.00,1.32
8066.00,1.32
8065.00,1.32
8064.00,1.32
8063.00,1.32
8062.00,1.32
8061.00,1.32
8060.00,1.32
8059.00,1.32
8058.00,1.31
8057.00,1.31
8056.00,1.31
8055.00,1.31
8054.00,1.31
8053.00,1.31
8052.00,1.31
8051.00,1.31
8050.00,1.31
8049.00,1.31
8048.00,1.31
8047.00,1.31
8046.00,1.31
8045.00,1.31
8044.00,1.31
8043.00,1.31
8042.00,1.31
8041.00,1.31
8040.00,1.31
8039.00,1.31
8038.00,1.31
8037.00,1.31
8036.00,1.31
8035.00,1.31
8034.00,1.31
8033.00,1.32
8032.00,1.32
8031.00,1.32
8030.00,1.32
8029.00,1.32
8028.00,1.32
8027.00,1.32
8026.00,1.32
8025.00,1.32
8024.00,1.32
8023.00,1.32
8022.00,1.32
8021.00,1.32
8020.00,1.32
8019.00,1.32
8018.00,1.32
8017.00,1.32
8016.00,1.32
8015.00,1.32
8014.00,1.32
8013.00,1.32
8012.00,1.32
8011.00,1.32
8010.00,1.32
8009.00,1.32
8008.00,1.32
8007.00,1.32
8006.00,1.32
8005.00,1.32
8004.00,1.32
8003.00,1.32
8002.00,1.32
8001.00,1.32
8000.00,1.33
7999.00,1.33
7998.00,1.33
7997.00,1.33
7996.00,1.33
7995.00,1.33
7994.00,1.33
7993.00,1.33
7992.00,1.33
7991.00,1.33
7990.00,1.33
7989.00,1.33
7988.00,1.33
7987.00,1.33
7986.00,1.33
7985.00,1.33
7984.00,1.33
7983.00,1.33
7982.00,1.33
7981.00,1.33
7980.00,1.33
7979.00,1.33
7978.00,1.33
7977.00,1.33
7976.00,1.33
7975.00,1.32
7974.00,1.32
7973.00,1.32
7972.00,1.32
7971.00,1.32
7970.00,1.32
7969.00,1.32
7968.00,1.32
7967.00,1.32
7966.00,1.32
7965.00,1.32
7964.00,1.32
7963.00,1.32
7962.00,1.32
7961.00,1.32
7960.00,1.32
7959.00,1.33
7958.00,1.33
7957.00,1.33
7956.00,1.33
7955.00,1.33
7954.00,1.33
7953.00,1.33
7952.00,1.33
7951.00,1.33
7950.00,1.33
7949.00,1.33
7948.00,1.33
7947.00,1.33
7946.00,1.33
7945.00,1.33
7944.00,1.33
7943.00,1.33
7942.00,1.33
7941.00,1.33
7940.00,1.33
7939.00,1.33
7938.00,1.33
7937.00,1.34
7936.00,1.34
7935.00,1.34
7934.00,1.34
7933.00,1.34
7932.00,1.34
7931.00,1.34
7930.00,1.34
7929.00,1.34
7928.00,1.34
7927.00,1.34
7926.00,1.34
7925.00,1.34
7924.00,1.34
7923.00,1.34
7922.00,1.34
7921.00,1.34
7920.00,1.34
7919.00,1.34
7918.00,1.34
7917.00,1.33
7916.00,1.33
7915.00,1.33
7914.00,1.33
7913.00,1.33
7912.00,1.33
7911.00,1.33
7910.00,1.33
7909.00,1.33
7908.00,1.33
7907.00,1.33
7906.00,1.33
7905.00,1.33
7904.00,1.33
7903.00,1.33
7902.00,1.33
7901.00,1.33
7900.00,1.33
7899.00,1.33
7898.00,1.33
7897.00,1.33
7896.00,1.33
7895.00,1.33
7894.00,1.33
7893.00,1.33
7892.00,1.33
7891.00,1.33
7890.00,1.33
7889.00,1.33
7888.00,1.33
7887.00,1.33
7886.00,1.34
7885.00,1.34
7884.00,1.34
7883.00,1.34
7882.00,1.34
7881.00,1.34
7880.00,1.34
7879.00,1.34
7878.00,1.34
7877.00,1.34
7876.00,1.34
7875.00,1.34
7874.00,1.34
7873.00,1.34
7872.00,1.34
7871.00,1.34
7870.00,1.34
7869.00,1.34
7868.00,1.34
7867.00,1.34
7866.00,1.34
7865.00,1.34
7864.00,1.34
7863.00,1.34
7862.00,1.34
7861.00,1.34
7860.00,1.34
7859.00,1.34
7858.00,1.34
7857.00,1.34
7856.00,1.34
7855.00,1.34
7854.00,1.34
7853.00,1.35
7852.00,1.35
7851.00,1.35
7850.00,1.35
7849.00,1.35
7848.00,1.35
7847.00,1.35
7846.00,1.35
7845.00,1.35
7844.00,1.35
7843.00,1.35
7842.00,1.35
7841.00,1.35
7840.00,1.35
7839.00,1.35
7838.00,1.35
7837.00,1.35
7836.00,1.35
7835.00,1.35
7834.00,1.35
7833.00,1.35
7832.00,1.35
7831.00,1.35
7830.00,1.35
7829.00,1.35
7828.00,1.35
7827.00,1.35
7826.00,1.35
7825.00,1.35
7824.00,1.35
7823.00,1.35
7822.00,1.35
7821.00,1.35
7820.00,1.35
7819.00,1.35
7818.00,1.35
7817.00,1.35
7816.00,1.35
7815.00,1.35
7814.00,1.35
7813.00,1.35
7812.00,1.35
7811.00,1.35
7810.00,1.35
7809.00,1.35
7808.00,1.35
7807.00,1.35
7806.00,1.35
7805.00,1.35
7804.00,1.35
7803.00,1.35
7802.00,1.35
7801.00,1.35
7800.00,1.35
7799.00,1.35
7798.00,1.35
7797.00,1.35
7796.00,1.36
7795.00,1.36
7794.00,1.36
7793.00,1.36
7792.00,1.36
7791.00,1.36
7790.00,1.36
7789.00,1.36
7788.00,1.36
7787.00,1.36
7786.00,1.36
7785.00,1.36
7784.00,1.36
7783.00,1.36
7782.00,1.35
7781.00,1.35
7780.00,1.35
7779.00,1.35
7778.00,1.35
7777.00,1.35
7776.00,1.35
7775.00,1.35
7774.00,1.35
7773.00,1.35
7772.00,1.35
7771.00,1.35
7770.00,1.35
7769.00,1.35
7768.00,1.35
7767.00,1.35
7766.00,1.35
7765.00,1.35
7764.00,1.35
7763.00,1.35
7762.00,1.35
7761.00,1.35
7760.00,1.35
7759.00,1.35
7758.00,1.35
7757.00,1.35
7756.00,1.35
7755.00,1.35
7754.00,1.35
7753.00,1.35
7752.00,1.35
7751.00,1.35
7750.00,1.35
7749.00,1.35
7748.00,1.35
7747.00,1.35
7746.00,1.35
7745.00,1.35
7744.00,1.35
7743.00,1.35
7742.00,1.35
7741.00,1.35
7740.00,1.35
7739.00,1.35
7738.00,1.35
7737.00,1.35
7736.00,1.35
7735.00,1.35
7734.00,1.35
7733.00,1.35
7732.00,1.36
7731.00,1.36
7730.00,1.36
7729.00,1.36
7728.00,1.36
7727.00,1.36
7726.00,1.36
7725.00,1.36
7724.00,1.36
7723.00,1.37
7722.00,1.37
7721.00,1.37
7720.00,1.37
7719.00,1.37
7718.00,1.37
7717.00,1.37
7716.00,1.37
7715.00,1.37
7714.00,1.37
7713.00,1.37
7712.00,1.37
7711.00,1.37
7710.00,1.37
7709.00,1.37
7708.00,1.37
7707.00,1.37
7706.00,1.37
7705.00,1.37
7704.00,1.37
7703.00,1.37
7702.00,1.36
7701.00,1.36
7700.00,1.36
7699.00,1.36
7698.00,1.36
7697.00,1.36
7696.00,1.36
7695.00,1.36
7694.00,1.36
7693.00,1.36
7692.00,1.36
7691.00,1.36
7690.00,1.36
7689.00,1.36
7688.00,1.36
7687.00,1.36
7686.00,1.36
7685.00,1.36
7684.00,1.36
7683.00,1.36
7682.00,1.36
7681.00,1.36
7680.00,1.36
7679.00,1.36
7678.00,1.36
7677.00,1.36
7676.00,1.36
7675.00,1.36
7674.00,1.36
7673.00,1.36
7672.00,1.36
7671.00,1.36
7670.00,1.36
7669.00,1.36
7668.00,1.36
7667.00,1.36
7666.00,1.36
7665.00,1.36
7664.00,1.36
7663.00,1.36
7662.00,1.36
7661.00,1.36
7660.00,1.36
7659.00,1.36
7658.00,1.36
7657.00,1.36
7656.00,1.36
7655.00,1.36
7654.00,1.36
7653.00,1.36
7652.00,1.36
7651.00,1.36
7650.00,1.36
7649.00,1.36
7648.00,1.36
7647.00,1.36
7646.00,1.36
7645.00,1.36
7644.00,1.36
7643.00,1.36
7642.00,1.36
7641.00,1.36
7640.00,1.36
7639.00,1.36
7638.00,1.36
7637.00,1.36
7636.00,1.36
7635.00,1.36
7634.00,1.36
7633.00,1.36
7632.00,1.36
7631.00,1.36
7630.00,1.36
7629.00,1.36
7628.00,1.36
7627.00,1.36
7626.00,1.36
7625.00,1.36
7624.00,1.36
7623.00,1.36
7622.00,1.36
7621.00,1.36
7620.00,1.36
7619.00,1.36
7618.00,1.36
7617.00,1.36
7616.00,1.36
7615.00,1.36
7614.00,1.36
7613.00,1.36
7612.00,1.36
7611.00,1.36
7610.00,1.36
7609.00,1.36
7608.00,1.36
7607.00,1.36
7606.00,1.36
7605.00,1.36
7604.00,1.36
7603.00,1.36
7602.00,1.36
7601.00,1.36
7600.00,1.36
7599.00,1.37
7598.00,1.37
7597.00,1.37
7596.00,1.37
7595.00,1.37
7594.00,1.37
7593.00,1.37
7592.00,1.37
7591.00,1.37
7590.00,1.37
7589.00,1.37
7588.00,1.36
7587.00,1.36
7586.00,1.36
7585.00,1.36
7584.00,1.36
7583.00,1.36
7582.00,1.36
7581.00,1.36
7580.00,1.36
7579.00,1.36
7578.00,1.36
7577.00,1.35
7576.00,1.35
7575.00,1.35
7574.00,1.35
7573.00,1.35
7572.00,1.35
7571.00,1.35
7570.00,1.35
7569.00,1.35
7568.00,1.35
7567.00,1.35
7566.00,1.35
7565.00,1.35
7564.00,1.35
7563.00,1.35
7562.00,1.35
7561.00,1.35
7560.00,1.35
7559.00,1.35
7558.00,1.35
7557.00,1.35
7556.00,1.35
7555.00,1.35
7554.00,1.35
7553.00,1.35
7552.00,1.35
7551.00,1.35
7550.00,1.35
7549.00,1.35
7548.00,1.35
7547.00,1.35
7546.00,1.35
7545.00,1.35
7544.00,1.35
7543.00,1.35
7542.00,1.35
7541.00,1.35
7540.00,1.35
7539.00,1.35
7538.00,1.35
7537.00,1.35
7536.00,1.35
7535.00,1.35
7534.00,1.35
7533.00,1.35
7532.00,1.35
7531.00,1.35
7530.00,1.35
7529.00,1.34
7528.00,1.34
7527.00,1.34
7526.00,1.34
7525.00,1.34
7524.00,1.34
7523.00,1.34
7522.00,1.34
7521.00,1.34
7520.00,1.34
7519.00,1.34
7518.00,1.34
7517.00,1.34
7516.00,1.34
7515.00,1.34
7514.00,1.34
7513.00,1.34
7512.00,1.34
7511.00,1.34
7510.00,1.34
7509.00,1.33
7508.00,1.33
7507.00,1.33
7506.00,1.33
7505.00,1.33
7504.00,1.33
7503.00,1.33
7502.00,1.33
7501.00,1.33
7500.00,1.33
7499.00,1.33
7498.00,1.33
7497.00,1.32
7496.00,1.32
7495.00,1.32
7494.00,1.32
7493.00,1.32
7492.00,1.32
7491.00,1.32
7490.00,1.32
7489.00,1.32
7488.00,1.32
7487.00,1.32
7486.00,1.32
7485.00,1.32
7484.00,1.32
7483.00,1.32
7482.00,1.32
7481.00,1.32
7480.00,1.32
7479.00,1.32
7478.00,1.32
7477.00,1.32
7476.00,1.32
7475.00,1.32
7474.00,1.32
7473.00,1.32
7472.00,1.32
7471.00,1.31
7470.00,1.31
7469.00,1.31
7468.00,1.31
7467.00,1.31
7466.00,1.31
7465.00,1.31
7464.00,1.31
7463.00,1.31
7462.00,1.31
7461.00,1.31
7460.00,1.31
7459.00,1.30
7458.00,1.30
7457.00,1.30
7456.00,1.30
7455.00,1.30
7454.00,1.30
7453.00,1.30
7452.00,1.30
7451.00,1.30
7450.00,1.30
7449.00,1.30
7448.00,1.30
7447.00,1.30
7446.00,1.30
7445.00,1.30
7444.00,1.30
7443.00,1.30
7442.00,1.30
7441.00,1.29
7440.00,1.29
7439.00,1.29
7438.00,1.29
7437.00,1.29
7436.00,1.29
7435.00,1.29
7434.00,1.29
7433.00,1.29
7432.00,1.29
7431.00,1.29
7430.00,1.29
7429.00,1.28
7428.00,1.28
7427.00,1.28
7426.00,1.28
7425.00,1.28
7424.00,1.28
7423.00,1.28
7422.00,1.28
7421.00,1.28
7420.00,1.28
7419.00,1.28
7418.00,1.28
7417.00,1.28
7416.00,1.28
7415.00,1.27
7414.00,1.27
7413.00,1.27
7412.00,1.27
7411.00,1.27
7410.00,1.27
7409.00,1.27
7408.00,1.27
7407.00,1.27
7406.00,1.27
7405.00,1.26
7404.00,1.26
7403.00,1.26
7402.00,1.26
7401.00,1.26
7400.00,1.26
7399.00,1.26
7398.00,1.25
7397.00,1.25
7396.00,1.25
7395.00,1.25
7394.00,1.25
7393.00,1.25
7392.00,1.25
7391.00,1.25
7390.00,1.25
7389.00,1.25
7388.00,1.25
7387.00,1.25
7386.00,1.25
7385.00,1.24
7384.00,1.24
7383.00,1.24
7382.00,1.24
7381.00,1.24
7380.00,1.24
7379.00,1.24
7378.00,1.24
7377.00,1.24
7376.00,1.24
7375.00,1.24
7374.00,1.24
7373.00,1.24
7372.00,1.24
7371.00,1.24
7370.00,1.24
7369.00,1.24
7368.00,1.24
7367.00,1.24
7366.00,1.24
7365.00,1.24
7364.00,1.24
7363.00,1.24
7362.00,1.24
7361.00,1.24
7360.00,1.24
7359.00,1.24
7358.00,1.24
7357.00,1.24
7356.00,1.24
7355.00,1.24
7354.00,1.24
7353.00,1.24
7352.00,1.24
7351.00,1.24
7350.00,1.24
7349.00,1.23
7348.00,1.23
7347.00,1.23
7346.00,1.23
7345.00,1.23
7344.00,1.23
7343.00,1.23
7342.00,1.23
7341.00,1.22
7340.00,1.22
7339.00,1.22
7338.00,1.22
7337.00,1.22
7336.00,1.22
7335.00,1.22
7334.00,1.22
7333.00,1.22
7332.00,1.22
7331.00,1.22
7330.00,1.22
7329.00,1.22
7328.00,1.22
7327.00,1.22
7326.00,1.22
7325.00,1.22
7324.00,1.22
7323.00,1.22
7322.00,1.22
7321.00,1.22
7320.00,1.22
7319.00,1.22
7318.00,1.22
7317.00,1.22
7316.00,1.22
7315.00,1.21
7314.00,1.21
7313.00,1.21
7312.00,1.21
7311.00,1.21
7310.00,1.21
7309.00,1.21
7308.00,1.21
7307.00,1.21
7306.00,1.21
7305.00,1.21
7304.00,1.21
7303.00,1.20
7302.00,1.20
7301.00,1.20
7300.00,1.20
7299.00,1.20
7298.00,1.20
7297.00,1.20
7296.00,1.19
7295.00,1.19
7294.00,1.19
7293.00,1.19
7292.00,1.19
7291.00,1.19
7290.00,1.19
7289.00,1.19
7288.00,1.18
7287.00,1.18
7286.00,1.18
7285.00,1.18
7284.00,1.18
7283.00,1.18
7282.00,1.18
7281.00,1.18
7280.00,1.18
7279.00,1.18
7278.00,1.18
7277.00,1.18
7276.00,1.18
7275.00,1.17
7274.00,1.17
7273.00,1.17
7272.00,1.17
7271.00,1.17
7270.00,1.17
7269.00,1.17
7268.00,1.17
7267.00,1.17
7266.00,1.16
7265.00,1.16
7264.00,1.16
7263.00,1.16
7262.00,1.16
7261.00,1.16
7260.00,1.16
7259.00,1.16
7258.00,1.15
7257.00,1.15
7256.00,1.15
7255.00,1.15
7254.00,1.15
7253.00,1.14
7252.00,1.14
7251.00,1.14
7250.00,1.14
7249.00,1.13
7248.00,1.13
7247.00,1.13
7246.00,1.13
7245.00,1.12
7244.00,1.12
7243.00,1.12
7242.00,1.11
7241.00,1.11
7240.00,1.11
7239.00,1.10
7238.00,1.10
7237.00,1.10
7236.00,1.09
7235.00,1.09
7234.00,1.09
7233.00,1.08
7232.00,1.08
7231.00,1.08
7230.00,1.08
7229.00,1.07
7228.00,1.07
7227.00,1.07
7226.00,1.06
7225.00,1.06
7224.00,1.06
7223.00,1.05
7222.00,1.05
7221.00,1.04
7220.00,1.04
7219.00,1.04
7218.00,1.03
7217.00,1.03
7216.00,1.03
7215.00,1.02
7214.00,1.02
7213.00,1.02
7212.00,1.01
7211.00,1.01
7210.00,1.00
7209.00,1.00
7208.00,1.00
7207.00,0.99
7206.00,0.99
7205.00,0.99
7204.00,0.98
7203.00,0.98
7202.00,0.98
7201.00,0.97
7200.00,0.97
7199.00,0.97
7198.00,0.97
7197.00,0.96
7196.00,0.96
7195.00,0.96
7194.00,0.95
7193.00,0.95
7192.00,0.95
7191.00,0.94
7190.00,0.94
7189.00,0.93
7188.00,0.93
7187.00,0.93
7186.00,0.92
7185.00,0.92
7184.00,0.92
7183.00,0.91
7182.00,0.91
7181.00,0.90
7180.00,0.90
7179.00,0.90
7178.00,0.89
7177.00,0.89
7176.00,0.89
7175.00,0.88
7174.00,0.88
7173.00,0.88
7172.00,0.88
7171.00,0.87
7170.00,0.87
7169.00,0.87
7168.00,0.86
7167.00,0.86
7166.00,0.86
7165.00,0.85
7164.00,0.85
7163.00,0.85
7162.00,0.85
7161.00,0.84
7160.00,0.84
7159.00,0.84
7158.00,0.84
7157.00,0.83
7156.00,0.83
7155.00,0.83
7154.00,0.83
7153.00,0.82
7152.00,0.82
7151.00,0.82
7150.00,0.81
7149.00,0.81
7148.00,0.81
7147.00,0.80
7146.00,0.80
7145.00,0.80
7144.00,0.79
7143.00,0.79
7142.00,0.79
7141.00,0.78
7140.00,0.78
7139.00,0.78
7138.00,0.78
7137.00,0.77
7136.00,0.77
7135.00,0.77
7134.00,0.77
7133.00,0.77
7132.00,0.77
7131.00,0.76
7130.00,0.76
7129.00,0.76
7128.00,0.76
7127.00,0.76
7126.00,0.76
7125.00,0.76
7124.00,0.75
7123.00,0.75
7122.00,0.75
7121.00,0.75
7120.00,0.75
7119.00,0.74
7118.00,0.74
7117.00,0.74
7116.00,0.74
7115.00,0.73
7114.00,0.73
7113.00,0.73
7112.00,0.73
7111.00,0.73
7110.00,0.72
7109.00,0.72
7108.00,0.72
7107.00,0.72
7106.00,0.72
7105.00,0.71
7104.00,0.71
7103.00,0.71
7102.00,0.71
7101.00,0.71
7100.00,0.71
7099.00,0.70
7098.00,0.70
7097.00,0.70
7096.00,0.70
7095.00,0.70
7094.00,0.70
7093.00,0.69
7092.00,0.69
7091.00,0.69
7090.00,0.69
7089.00,0.69
7088.00,0.69
7087.00,0.68
7086.00,0.68
7085.00,0.68
7084.00,0.68
7083.00,0.68
7082.00,0.68
7081.00,0.68
7080.00,0.68
7079.00,0.68
7078.00,0.68
7077.00,0.67
7076.00,0.67
7075.00,0.67
7074.00,0.67
7073.00,0.67
7072.00,0.67
7071.00,0.67
7070.00,0.67
7069.00,0.67
7068.00,0.67
7067.00,0.67
7066.00,0.67
7065.00,0.66
7064.00,0.66
7063.00,0.66
7062.00,0.66
7061.00,0.66
7060.00,0.66
7059.00,0.66
7058.00,0.66
7057.00,0.66
7056.00,0.66
7055.00,0.65
7054.00,0.65
7053.00,0.65
7052.00,0.65
7051.00,0.65
7050.00,0.65
7049.00,0.65
7048.00,0.65
7047.00,0.65
7046.00,0.65
7045.00,0.65
7044.00,0.65
7043.00,0.64
7042.00,0.64
7041.00,0.64
7040.00,0.64
7039.00,0.64
7038.00,0.64
7037.00,0.64
7036.00,0.64
7035.00,0.64
7034.00,0.64
7033.00,0.64
7032.00,0.64
7031.00,0.63
7030.00,0.63
7029.00,0.63
7028.00,0.63
7027.00,0.63
7026.00,0.63
7025.00,0.63
7024.00,0.63
7023.00,0.63
7022.00,0.63
7021.00,0.63
7020.00,0.63
7019.00,0.63
7018.00,0.63
7017.00,0.62
7016.00,0.62
7015.00,0.62
7014.00,0.62
7013.00,0.62
7012.00,0.62
7011.00,0.62
7010.00,0.62
7009.00,0.62
7008.00,0.62
7007.00,0.62
7006.00,0.62
7005.00,0.62
7004.00,0.62
7003.00,0.62
7002.00,0.62
7001.00,0.62
7000.00,0.62
6999.00,0.62
6998.00,0.62
6997.00,0.62
6996.00,0.62
6995.00,0.61
6994.00,0.61
6993.00,0.61
6992.00,0.61
6991.00,0.61
6990.00,0.61
6989.00,0.61
6988.00,0.61
6987.00,0.61
6986.00,0.61
6985.00,0.61
6984.00,0.61
6983.00,0.61
6982.00,0.61
6981.00,0.61
6980.00,0.61
6979.00,0.61
6978.00,0.61
6977.00,0.61
6976.00,0.61
6975.00,0.61
6974.00,0.61
6973.00,0.61
6972.00,0.61
6971.00,0.61
6970.00,0.61
6969.00,0.61
6968.00,0.61
6967.00,0.61
6966.00,0.61
6965.00,0.61
6964.00,0.61
6963.00,0.61
6962.00,0.61
6961.00,0.61
6960.00,0.61
6959.00,0.61
6958.00,0.61
6957.00,0.61
6956.00,0.61
6955.00,0.60
6954.00,0.60
6953.00,0.60
6952.00,0.60
6951.00,0.60
6950.00,0.60
6949.00,0.60
6948.00,0.60
6947.00,0.60
6946.00,0.60
6945.00,0.61
6944.00,0.61
6943.00,0.61
6942.00,0.61
6941.00,0.61
6940.00,0.61
6939.00,0.61
6938.00,0.61
6937.00,0.61
6936.00,0.61
6935.00,0.61
6934.00,0.61
6933.00,0.61
6932.00,0.61
6931.00,0.60
6930.00,0.60
6929.00,0.60
6928.00,0.60
6927.00,0.60
6926.00,0.60
6925.00,0.60
6924.00,0.60
6923.00,0.60
6922.00,0.60
6921.00,0.60
6920.00,0.60
6919.00,0.60
6918.00,0.60
6917.00,0.60
6916.00,0.60
6915.00,0.60
6914.00,0.60
6913.00,0.60
6912.00,0.60
6911.00,0.60
6910.00,0.60
6909.00,0.60
6908.00,0.60
6907.00,0.60
6906.00,0.60
6905.00,0.60
6904.00,0.60
6903.00,0.60
6902.00,0.60
6901.00,0.60
6900.00,0.60
6899.00,0.60
6898.00,0.60
6897.00,0.60
6896.00,0.60
6895.00,0.60
6894.00,0.60
6893.00,0.60
6892.00,0.60
6891.00,0.60
6890.00,0.60
6889.00,0.60
6888.00,0.60
6887.00,0.60
6886.00,0.60
6885.00,0.60
6884.00,0.60
6883.00,0.60
6882.00,0.60
6881.00,0.60
6880.00,0.60
6879.00,0.60
6878.00,0.60
6877.00,0.60
6876.00,0.60
6875.00,0.60
6874.00,0.60
6873.00,0.60
6872.00,0.60
6871.00,0.60
6870.00,0.60
6869.00,0.60
6868.00,0.60
6867.00,0.60
6866.00,0.60
6865.00,0.60
6864.00,0.60
6863.00,0.60
6862.00,0.60
6861.00,0.60
6860.00,0.60
6859.00,0.60
6858.00,0.60
6857.00,0.60
6856.00,0.60
6855.00,0.60
6854.00,0.61
6853.00,0.61
6852.00,0.61
6851.00,0.61
6850.00,0.61
6849.00,0.61
6848.00,0.61
6847.00,0.61
6846.00,0.61
6845.00,0.61
6844.00,0.61
6843.00,0.61
6842.00,0.61
6841.00,0.61
6840.00,0.61
6839.00,0.61
6838.00,0.61
6837.00,0.61
6836.00,0.61
6835.00,0.61
6834.00,0.61
6833.00,0.61
6832.00,0.61
6831.00,0.61
6830.00,0.61
6829.00,0.61
6828.00,0.61
6827.00,0.61
6826.00,0.61
6825.00,0.61
6824.00,0.61
6823.00,0.61
6822.00,0.61
6821.00,0.61
6820.00,0.61
6819.00,0.61
6818.00,0.61
6817.00,0.61
6816.00,0.61
6815.00,0.61
6814.00,0.61
6813.00,0.61
6812.00,0.61
6811.00,0.61
6810.00,0.61
6809.00,0.61
6808.00,0.61
6807.00,0.61
6806.00,0.61
6805.00,0.61
6804.00,0.61
6803.00,0.61
6802.00,0.61
6801.00,0.61
6800.00,0.61
6799.00,0.61
6798.00,0.61
6797.00,0.61
6796.00,0.61
6795.00,0.61
6794.00,0.61
6793.00,0.61
6792.00,0.61
6791.00,0.61
6790.00,0.61
6789.00,0.61
6788.00,0.61
6787.00,0.62
6786.00,0.62
6785.00,0.62
6784.00,0.62
6783.00,0.62
6782.00,0.62
6781.00,0.62
6780.00,0.62
6779.00,0.62
6778.00,0.62
6777.00,0.63
6776.00,0.63
6775.00,0.63
6774.00,0.63
6773.00,0.63
6772.00,0.63
6771.00,0.63
6770.00,0.63
6769.00,0.63
6768.00,0.63
6767.00,0.63
6766.00,0.63
6765.00,0.63
6764.00,0.63
6763.00,0.63
6762.00,0.63
6761.00,0.63
6760.00,0.64
6759.00,0.64
6758.00,0.64
6757.00,0.64
6756.00,0.64
6755.00,0.64
6754.00,0.64
6753.00,0.64
6752.00,0.64
6751.00,0.64
6750.00,0.64
6749.00,0.64
6748.00,0.64
6747.00,0.64
6746.00,0.65
6745.00,0.65
6744.00,0.65
6743.00,0.65
6742.00,0.65
6741.00,0.65
6740.00,0.65
6739.00,0.65
6738.00,0.65
6737.00,0.65
6736.00,0.65
6735.00,0.65
6734.00,0.65
6733.00,0.65
6732.00,0.65
6731.00,0.65
6730.00,0.65
6729.00,0.65
6728.00,0.65
6727.00,0.65
6726.00,0.65
6725.00,0.65
6724.00,0.65
6723.00,0.65
6722.00,0.65
6721.00,0.65
6720.00,0.65
6719.00,0.65
6718.00,0.65
6717.00,0.65
6716.00,0.66
6715.00,0.66
6714.00,0.66
6713.00,0.66
6712.00,0.66
6711.00,0.66
6710.00,0.66
6709.00,0.66
6708.00,0.66
6707.00,0.66
6706.00,0.66
6705.00,0.66
6704.00,0.66
6703.00,0.66
6702.00,0.67
6701.00,0.67
6700.00,0.67
6699.00,0.67
6698.00,0.67
6697.00,0.67
6696.00,0.67
6695.00,0.67
6694.00,0.67
6693.00,0.67
6692.00,0.68
6691.00,0.68
6690.00,0.68
6689.00,0.68
6688.00,0.68
6687.00,0.68
6686.00,0.68
6685.00,0.68
6684.00,0.68
6683.00,0.68
6682.00,0.68
6681.00,0.68
6680.00,0.68
6679.00,0.69
6678.00,0.69
6677.00,0.69
6676.00,0.69
6675.00,0.69
6674.00,0.69
6673.00,0.69
6672.00,0.69
6671.00,0.69
6670.00,0.69
6669.00,0.69
6668.00,0.69
6667.00,0.70
6666.00,0.70
6665.00,0.70
6664.00,0.70
6663.00,0.70
6662.00,0.70
6661.00,0.70
6660.00,0.70
6659.00,0.70
6658.00,0.70
6657.00,0.70
6656.00,0.70
6655.00,0.70
6654.00,0.70
6653.00,0.70
6652.00,0.70
6651.00,0.70
6650.00,0.70
6649.00,0.70
6648.00,0.70
6647.00,0.70
6646.00,0.71
6645.00,0.71
6644.00,0.71
6643.00,0.71
6642.00,0.71
6641.00,0.71
6640.00,0.71
6639.00,0.71
6638.00,0.71
6637.00,0.71
6636.00,0.71
6635.00,0.71
6634.00,0.71
6633.00,0.72
6632.00,0.72
6631.00,0.72
6630.00,0.72
6629.00,0.72
6628.00,0.72
6627.00,0.72
6626.00,0.72
6625.00,0.72
6624.00,0.72
6623.00,0.73
6622.00,0.73
6621.00,0.73
6620.00,0.73
6619.00,0.73
6618.00,0.73
6617.00,0.73
6616.00,0.73
6615.00,0.73
6614.00,0.73
6613.00,0.73
6612.00,0.74
6611.00,0.74
6610.00,0.74
6609.00,0.74
6608.00,0.74
6607.00,0.74
6606.00,0.74
6605.00,0.74
6604.00,0.74
6603.00,0.74
6602.00,0.75
6601.00,0.75
6600.00,0.75
6599.00,0.75
6598.00,0.75
6597.00,0.75
6596.00,0.75
6595.00,0.75
6594.00,0.75
6593.00,0.75
6592.00,0.75
6591.00,0.75
6590.00,0.76
6589.00,0.76
6588.00,0.76
6587.00,0.76
6586.00,0.76
6585.00,0.76
6584.00,0.76
6583.00,0.76
6582.00,0.76
6581.00,0.76
6580.00,0.76
6579.00,0.76
6578.00,0.77
6577.00,0.77
6576.00,0.77
6575.00,0.77
6574.00,0.77
6573.00,0.77
6572.00,0.77
6571.00,0.77
6570.00,0.77
6569.00,0.77
6568.00,0.77
6567.00,0.77
6566.00,0.77
6565.00,0.77
6564.00,0.77
6563.00,0.77
6562.00,0.78
6561.00,0.78
6560.00,0.78
6559.00,0.78
6558.00,0.78
6557.00,0.78
6556.00,0.78
6555.00,0.78
6554.00,0.78
6553.00,0.78
6552.00,0.78
6551.00,0.78
6550.00,0.78
6549.00,0.79
6548.00,0.79
6547.00,0.79
6546.00,0.79
6545.00,0.79
6544.00,0.79
6543.00,0.79
6542.00,0.79
6541.00,0.79
6540.00,0.80
6539.00,0.80
6538.00,0.80
6537.00,0.80
6536.00,0.80
6535.00,0.80
6534.00,0.80
6533.00,0.80
6532.00,0.81
6531.00,0.81
6530.00,0.81
6529.00,0.81
6528.00,0.81
6527.00,0.81
6526.00,0.81
6525.00,0.81
6524.00,0.81
6523.00,0.81
6522.00,0.81
6521.00,0.82
6520.00,0.82
6519.00,0.82
6518.00,0.82
6517.00,0.82
6516.00,0.82
6515.00,0.82
6514.00,0.82
6513.00,0.82
6512.00,0.83
6511.00,0.83
6510.00,0.83
6509.00,0.83
6508.00,0.83
6507.00,0.83
6506.00,0.83
6505.00,0.83
6504.00,0.83
6503.00,0.83
6502.00,0.83
6501.00,0.84
6500.00,0.84
6499.00,0.84
6498.00,0.84
6497.00,0.84
6496.00,0.84
6495.00,0.84
6494.00,0.84
6493.00,0.84
6492.00,0.84
6491.00,0.84
6490.00,0.84
6489.00,0.84
6488.00,0.84
6487.00,0.84
6486.00,0.84
6485.00,0.84
6484.00,0.84
6483.00,0.84
6482.00,0.84
6481.00,0.84
6480.00,0.84
6479.00,0.84
6478.00,0.84
6477.00,0.84
6476.00,0.84
6475.00,0.84
6474.00,0.84
6473.00,0.84
6472.00,0.84
6471.00,0.85
6470.00,0.85
6469.00,0.85
6468.00,0.85
6467.00,0.85
6466.00,0.85
6465.00,0.85
6464.00,0.85
6463.00,0.85
6462.00,0.85
6461.00,0.85
6460.00,0.85
6459.00,0.86
6458.00,0.86
6457.00,0.86
6456.00,0.86
6455.00,0.86
6454.00,0.86
6453.00,0.86
6452.00,0.86
6451.00,0.86
6450.00,0.86
6449.00,0.86
6448.00,0.86
6447.00,0.86
6446.00,0.86
6445.00,0.86
6444.00,0.86
6443.00,0.87
6442.00,0.87
6441.00,0.87
6440.00,0.87
6439.00,0.87
6438.00,0.87
6437.00,0.87
6436.00,0.87
6435.00,0.87
6434.00,0.87
6433.00,0.87
6432.00,0.88
6431.00,0.88
6430.00,0.88
6429.00,0.88
6428.00,0.88
6427.00,0.88
6426.00,0.88
6425.00,0.88
6424.00,0.88
6423.00,0.88
6422.00,0.88
6421.00,0.88
6420.00,0.88
6419.00,0.88
6418.00,0.89
6417.00,0.89
6416.00,0.89
6415.00,0.89
6414.00,0.89
6413.00,0.89
6412.00,0.89
6411.00,0.89
6410.00,0.89
6409.00,0.89
6408.00,0.89
6407.00,0.89
6406.00,0.89
6405.00,0.89
6404.00,0.90
6403.00,0.90
6402.00,0.90
6401.00,0.90
6400.00,0.90
6399.00,0.90
6398.00,0.90
6397.00,0.90
6396.00,0.91
6395.00,0.91
6394.00,0.91
6393.00,0.91
6392.00,0.91
6391.00,0.91
6390.00,0.91
6389.00,0.91
6388.00,0.91
6387.00,0.92
6386.00,0.92
6385.00,0.92
6384.00,0.92
6383.00,0.92
6382.00,0.92
6381.00,0.92
6380.00,0.92
6379.00,0.92
6378.00,0.92
6377.00,0.92
6376.00,0.92
6375.00,0.92
6374.00,0.92
6373.00,0.92
6372.00,0.93
6371.00,0.93
6370.00,0.93
6369.00,0.93
6368.00,0.93
6367.00,0.93
6366.00,0.93
6365.00,0.93
6364.00,0.93
6363.00,0.93
6362.00,0.94
6361.00,0.94
6360.00,0.94
6359.00,0.94
6358.00,0.94
6357.00,0.94
6356.00,0.94
6355.00,0.94
6354.00,0.94
6353.00,0.94
6352.00,0.94
6351.00,0.94
6350.00,0.94
6349.00,0.94
6348.00,0.95
6347.00,0.95
6346.00,0.95
6345.00,0.95
6344.00,0.95
6343.00,0.95
6342.00,0.95
6341.00,0.95
6340.00,0.95
6339.00,0.95
6338.00,0.95
6337.00,0.95
6336.00,0.95
6335.00,0.95
6334.00,0.95
6333.00,0.96
6332.00,0.96
6331.00,0.96
6330.00,0.96
6329.00,0.96
6328.00,0.96
6327.00,0.96
6326.00,0.96
6325.00,0.96
6324.00,0.97
6323.00,0.97
6322.00,0.97
6321.00,0.97
6320.00,0.97
6319.00,0.97
6318.00,0.97
6317.00,0.98
6316.00,0.98
6315.00,0.98
6314.00,0.98
6313.00,0.98
6312.00,0.98
6311.00,0.98
6310.00,0.99
6309.00,0.99
6308.00,0.99
6307.00,0.99
6306.00,0.99
6305.00,0.99
6304.00,0.99
6303.00,0.99
6302.00,1.00
6301.00,1.00
6300.00,1.00
6299.00,1.00
6298.00,1.00
6297.00,1.00
6296.00,1.00
6295.00,1.00
6294.00,1.00
6293.00,1.00
6292.00,1.00
6291.00,1.00
6290.00,1.00
6289.00,1.00
6288.00,1.00
6287.00,1.00
6286.00,1.01
6285.00,1.01
6284.00,1.01
6283.00,1.01
6282.00,1.01
6281.00,1.01
6280.00,1.01
6279.00,1.01
6278.00,1.02
6277.00,1.02
6276.00,1.02
6275.00,1.02
6274.00,1.02
6273.00,1.02
6272.00,1.03
6271.00,1.03
6270.00,1.03
6269.00,1.03
6268.00,1.03
6267.00,1.03
6266.00,1.03
6265.00,1.03
6264.00,1.03
6263.00,1.04
6262.00,1.04
6261.00,1.04
6260.00,1.04
6259.00,1.04
6258.00,1.04
6257.00,1.04
6256.00,1.04
6255.00,1.04
6254.00,1.04
6253.00,1.04
6252.00,1.04
6251.00,1.04
6250.00,1.04
6249.00,1.04
6248.00,1.04
6247.00,1.05
6246.00,1.05
6245.00,1.05
6244.00,1.05
6243.00,1.05
6242.00,1.05
6241.00,1.05
6240.00,1.05
6239.00,1.05
6238.00,1.05
6237.00,1.06
6236.00,1.06
6235.00,1.06
6234.00,1.06
6233.00,1.06
6232.00,1.06
6231.00,1.06
6230.00,1.07
6229.00,1.07
6228.00,1.07
6227.00,1.07
6226.00,1.07
6225.00,1.08
6224.00,1.08
6223.00,1.08
6222.00,1.08
6221.00,1.08
6220.00,1.08
6219.00,1.09
6218.00,1.09
6217.00,1.09
6216.00,1.09
6215.00,1.09
6214.00,1.09
6213.00,1.09
6212.00,1.09
6211.00,1.09
6210.00,1.09
6209.00,1.09
6208.00,1.09
6207.00,1.10
6206.00,1.10
6205.00,1.10
6204.00,1.10
6203.00,1.10
6202.00,1.10
6201.00,1.10
6200.00,1.10
6199.00,1.10
6198.00,1.11
6197.00,1.11
6196.00,1.11
6195.00,1.11
6194.00,1.11
6193.00,1.11
6192.00,1.11
6191.00,1.11
6190.00,1.11
6189.00,1.12
6188.00,1.12
6187.00,1.12
6186.00,1.12
6185.00,1.12
6184.00,1.12
6183.00,1.12
6182.00,1.12
6181.00,1.13
6180.00,1.13
6179.00,1.13
6178.00,1.13
6177.00,1.13
6176.00,1.13
6175.00,1.13
6174.00,1.14
6173.00,1.14
6172.00,1.14
6171.00,1.14
6170.00,1.14
6169.00,1.14
6168.00,1.15
6167.00,1.15
6166.00,1.15
6165.00,1.15
6164.00,1.15
6163.00,1.15
6162.00,1.15
6161.00,1.15
6160.00,1.16
6159.00,1.16
6158.00,1.16
6157.00,1.16
6156.00,1.16
6155.00,1.16
6154.00,1.16
6153.00,1.17
6152.00,1.17
6151.00,1.17
6150.00,1.17
6149.00,1.17
6148.00,1.17
6147.00,1.17
6146.00,1.18
6145.00,1.18
6144.00,1.18
6143.00,1.18
6142.00,1.18
6141.00,1.18
6140.00,1.18
6139.00,1.18
6138.00,1.19
6137.00,1.19
6136.00,1.19
6135.00,1.19
6134.00,1.19
6133.00,1.19
6132.00,1.19
6131.00,1.20
6130.00,1.20
6129.00,1.20
6128.00,1.20
6127.00,1.20
6126.00,1.20
6125.00,1.21
6124.00,1.21
6123.00,1.21
6122.00,1.21
6121.00,1.21
6120.00,1.21
6119.00,1.21
6118.00,1.21
6117.00,1.21
6116.00,1.22
6115.00,1.22
6114.00,1.22
6113.00,1.22
6112.00,1.22
6111.00,1.22
6110.00,1.22
6109.00,1.22
6108.00,1.23
6107.00,1.23
6106.00,1.23
6105.00,1.23
6104.00,1.23
6103.00,1.23
6102.00,1.24
6101.00,1.24
6100.00,1.24
6099.00,1.24
6098.00,1.24
6097.00,1.24
6096.00,1.24
6095.00,1.25
6094.00,1.25
6093.00,1.25
6092.00,1.25
6091.00,1.25
6090.00,1.25
6089.00,1.25
6088.00,1.25
6087.00,1.26
6086.00,1.26
6085.00,1.26
6084.00,1.26
6083.00,1.26
6082.00,1.26
6081.00,1.26
6080.00,1.26
6079.00,1.26
6078.00,1.26
6077.00,1.26
6076.00,1.27
6075.00,1.27
6074.00,1.27
6073.00,1.27
6072.00,1.27
6071.00,1.27
6070.00,1.27
6069.00,1.27
6068.00,1.27
6067.00,1.27
6066.00,1.28
6065.00,1.28
6064.00,1.28
6063.00,1.28
6062.00,1.28
6061.00,1.28
6060.00,1.28
6059.00,1.28
6058.00,1.28
6057.00,1.29
6056.00,1.29
6055.00,1.29
6054.00,1.29
6053.00,1.29
6052.00,1.29
6051.00,1.29
6050.00,1.29
6049.00,1.29
6048.00,1.29
6047.00,1.29
6046.00,1.29
6045.00,1.30
6044.00,1.30
6043.00,1.30
6042.00,1.30
6041.00,1.30
6040.00,1.30
6039.00,1.30
6038.00,1.30
6037.00,1.30
6036.00,1.30
6035.00,1.30
6034.00,1.30
6033.00,1.30
6032.00,1.30
6031.00,1.30
6030.00,1.30
6029.00,1.30
6028.00,1.30
6027.00,1.30
6026.00,1.30
6025.00,1.30
6024.00,1.30
6023.00,1.31
6022.00,1.31
6021.00,1.31
6020.00,1.31
6019.00,1.31
6018.00,1.31
6017.00,1.31
6016.00,1.31
6015.00,1.31
6014.00,1.31
6013.00,1.31
6012.00,1.31
6011.00,1.31
6010.00,1.31
6009.00,1.31
6008.00,1.31
6007.00,1.31
6006.00,1.31
6005.00,1.31
6004.00,1.31
6003.00,1.31
6002.00,1.31
6001.00,1.31
6000.00,1.31
5999.00,1.31
5998.00,1.31
5997.00,1.31
5996.00,1.31
5995.00,1.31
5994.00,1.31
5993.00,1.30
5992.00,1.30
5991.00,1.30
5990.00,1.30
5989.00,1.30
5988.00,1.30
5987.00,1.29
5986.00,1.29
5985.00,1.29
5984.00,1.29
5983.00,1.28
5982.00,1.28
5981.00,1.28
5980.00,1.28
5979.00,1.27
5978.00,1.27
5977.00,1.27
5976.00,1.26
5975.00,1.26
5974.00,1.25
5973.00,1.25
5972.00,1.25
5971.00,1.24
5970.00,1.24
5969.00,1.23
5968.00,1.23
5967.00,1.22
5966.00,1.22
5965.00,1.21
5964.00,1.21
5963.00,1.20
5962.00,1.19
5961.00,1.19
5960.00,1.18
5959.00,1.18
5958.00,1.17
5957.00,1.17
5956.00,1.16
5955.00,1.16
5954.00,1.15
5953.00,1.15
5952.00,1.14
5951.00,1.14
5950.00,1.14
5949.00,1.13
5948.00,1.13
5947.00,1.13
5946.00,1.13
5945.00,1.12
5944.00,1.12
5943.00,1.12
5942.00,1.12
5941.00,1.12
5940.00,1.11
5939.00,1.11
5938.00,1.11
5937.00,1.11
5936.00,1.11
5935.00,1.11
5934.00,1.11
5933.00,1.11
5932.00,1.11
5931.00,1.11
5930.00,1.11
5929.00,1.11
5928.00,1.10
5927.00,1.10
5926.00,1.10
5925.00,1.10
5924.00,1.10
5923.00,1.10
5922.00,1.09
5921.00,1.09
5920.00,1.09
5919.00,1.09
5918.00,1.08
5917.00,1.08
5916.00,1.08
5915.00,1.08
5914.00,1.07
5913.00,1.07
5912.00,1.07
5911.00,1.07
5910.00,1.07
5909.00,1.07
5908.00,1.06
5907.00,1.06
5906.00,1.06
5905.00,1.06
5904.00,1.06
5903.00,1.06
5902.00,1.06
5901.00,1.06
5900.00,1.06
5899.00,1.07
5898.00,1.07
5897.00,1.07
5896.00,1.07
5895.00,1.07
5894.00,1.07
5893.00,1.08
5892.00,1.08
5891.00,1.08
5890.00,1.08
5889.00,1.08
5888.00,1.09
5887.00,1.09
5886.00,1.09
5885.00,1.09
5884.00,1.09
5883.00,1.10
5882.00,1.10
5881.00,1.10
5880.00,1.10
5879.00,1.10
5878.00,1.11
5877.00,1.11
5876.00,1.11
5875.00,1.11
5874.00,1.11
5873.00,1.12
5872.00,1.12
5871.00,1.12
5870.00,1.12
5869.00,1.12
5868.00,1.13
5867.00,1.13
5866.00,1.13
5865.00,1.13
5864.00,1.13
5863.00,1.14
5862.00,1.14
5861.00,1.14
5860.00,1.14
5859.00,1.14
5858.00,1.14
5857.00,1.14
5856.00,1.15
5855.00,1.15
5854.00,1.15
5853.00,1.15
5852.00,1.15
5851.00,1.15
5850.00,1.15
5849.00,1.15
5848.00,1.15
5847.00,1.15
5846.00,1.15
5845.00,1.15
5844.00,1.15
5843.00,1.15
5842.00,1.15
5841.00,1.15
5840.00,1.15
5839.00,1.15
5838.00,1.15
5837.00,1.15
5836.00,1.15
5835.00,1.15
5834.00,1.15
5833.00,1.15
5832.00,1.15
5831.00,1.15
5830.00,1.15
5829.00,1.15
5828.00,1.15
5827.00,1.15
5826.00,1.15
5825.00,1.15
5824.00,1.15
5823.00,1.15
5822.00,1.15
5821.00,1.15
5820.00,1.15
5819.00,1.15
5818.00,1.15
5817.00,1.15
5816.00,1.15
5815.00,1.15
5814.00,1.15
5813.00,1.15
5812.00,1.15
5811.00,1.15
5810.00,1.15
5809.00,1.15
5808.00,1.15
5807.00,1.15
5806.00,1.15
5805.00,1.15
5804.00,1.15
5803.00,1.15
5802.00,1.15
5801.00,1.14
5800.00,1.14
5799.00,1.14
5798.00,1.14
5797.00,1.14
5796.00,1.14
5795.00,1.14
5794.00,1.14
5793.00,1.13
5792.00,1.13
5791.00,1.13
5790.00,1.13
5789.00,1.13
5788.00,1.13
5787.00,1.12
5786.00,1.12
5785.00,1.12
5784.00,1.12
5783.00,1.12
5782.00,1.12
5781.00,1.11
5780.00,1.11
5779.00,1.11
5778.00,1.11
5777.00,1.11
5776.00,1.11
5775.00,1.11
5774.00,1.11
5773.00,1.11
5772.00,1.10
5771.00,1.10
5770.00,1.10
5769.00,1.10
5768.00,1.11
5767.00,1.11
5766.00,1.11
5765.00,1.11
5764.00,1.11
5763.00,1.11
5762.00,1.11
5761.00,1.12
5760.00,1.12
5759.00,1.12
5758.00,1.12
5757.00,1.12
5756.00,1.13
5755.00,1.13
5754.00,1.13
5753.00,1.14
5752.00,1.14
5751.00,1.14
5750.00,1.14
5749.00,1.15
5748.00,1.15
5747.00,1.15
5746.00,1.15
5745.00,1.16
5744.00,1.16
5743.00,1.16
5742.00,1.16
5741.00,1.17
5740.00,1.17
5739.00,1.17
5738.00,1.17
5737.00,1.17
5736.00,1.17
5735.00,1.17
5734.00,1.18
5733.00,1.18
5732.00,1.18
5731.00,1.18
5730.00,1.18
5729.00,1.18
5728.00,1.18
5727.00,1.18
5726.00,1.18
5725.00,1.18
5724.00,1.18
5723.00,1.18
5722.00,1.18
5721.00,1.18
5720.00,1.18
5719.00,1.18
5718.00,1.18
5717.00,1.18
5716.00,1.18
5715.00,1.18
5714.00,1.18
5713.00,1.18
5712.00,1.18
5711.00,1.18
5710.00,1.18
5709.00,1.18
5708.00,1.18
5707.00,1.18
5706.00,1.18
5705.00,1.17
5704.00,1.17
5703.00,1.17
5702.00,1.17
5701.00,1.17
5700.00,1.17
5699.00,1.17
5698.00,1.16
5697.00,1.16
5696.00,1.16
5695.00,1.16
5694.00,1.16
5693.00,1.16
5692.00,1.15
5691.00,1.15
5690.00,1.15
5689.00,1.15
5688.00,1.15
5687.00,1.15
5686.00,1.15
5685.00,1.14
5684.00,1.14
5683.00,1.14
5682.00,1.14
5681.00,1.14
5680.00,1.14
5679.00,1.14
5678.00,1.14
5677.00,1.14
5676.00,1.14
5675.00,1.14
5674.00,1.14
5673.00,1.14
5672.00,1.14
5671.00,1.14
5670.00,1.14
5669.00,1.14
5668.00,1.14
5667.00,1.14
5666.00,1.14
5665.00,1.15
5664.00,1.15
5663.00,1.15
5662.00,1.15
5661.00,1.15
5660.00,1.15
5659.00,1.15
5658.00,1.15
5657.00,1.15
5656.00,1.15
5655.00,1.16
5654.00,1.16
5653.00,1.16
5652.00,1.16
5651.00,1.16
5650.00,1.16
5649.00,1.16
5648.00,1.16
5647.00,1.17
5646.00,1.17
5645.00,1.17
5644.00,1.17
5643.00,1.17
5642.00,1.17
5641.00,1.17
5640.00,1.17
5639.00,1.17
5638.00,1.17
5637.00,1.18
5636.00,1.18
5635.00,1.18
5634.00,1.18
5633.00,1.18
5632.00,1.18
5631.00,1.18
5630.00,1.18
5629.00,1.18
5628.00,1.19
5627.00,1.19
5626.00,1.19
5625.00,1.19
5624.00,1.19
5623.00,1.19
5622.00,1.19
5621.00,1.19
5620.00,1.20
5619.00,1.20
5618.00,1.20
5617.00,1.20
5616.00,1.20
5615.00,1.20
5614.00,1.20
5613.00,1.20
5612.00,1.21
5611.00,1.21
5610.00,1.21
5609.00,1.21
5608.00,1.21
5607.00,1.21
5606.00,1.21
5605.00,1.21
5604.00,1.22
5603.00,1.22
5602.00,1.22
5601.00,1.22
5600.00,1.22
5599.00,1.22
5598.00,1.22
5597.00,1.23
5596.00,1.23
5595.00,1.23
5594.00,1.23
5593.00,1.23
5592.00,1.23
5591.00,1.23
5590.00,1.24
5589.00,1.24
5588.00,1.24
5587.00,1.24
5586.00,1.24
5585.00,1.24
5584.00,1.24
5583.00,1.24
5582.00,1.25
5581.00,1.25
5580.00,1.25
5579.00,1.25
5578.00,1.25
5577.00,1.25
5576.00,1.25
5575.00,1.26
5574.00,1.26
5573.00,1.26
5572.00,1.26
5571.00,1.26
5570.00,1.26
5569.00,1.26
5568.00,1.26
5567.00,1.26
5566.00,1.26
5565.00,1.27
5564.00,1.27
5563.00,1.27
5562.00,1.27
5561.00,1.27
5560.00,1.27
5559.00,1.27
5558.00,1.27
5557.00,1.27
5556.00,1.28
5555.00,1.28
5554.00,1.28
5553.00,1.28
5552.00,1.28
5551.00,1.28
5550.00,1.28
5549.00,1.28
5548.00,1.28
5547.00,1.29
5546.00,1.29
5545.00,1.29
5544.00,1.29
5543.00,1.29
5542.00,1.29
5541.00,1.29
5540.00,1.30
5539.00,1.30
5538.00,1.30
5537.00,1.30
5536.00,1.30
5535.00,1.30
5534.00,1.30
5533.00,1.31
5532.00,1.31
5531.00,1.31
5530.00,1.31
5529.00,1.31
5528.00,1.31
5527.00,1.31
5526.00,1.31
5525.00,1.31
5524.00,1.31
5523.00,1.31
5522.00,1.32
5521.00,1.32
5520.00,1.32
5519.00,1.32
5518.00,1.32
5517.00,1.32
5516.00,1.32
5515.00,1.32
5514.00,1.32
5513.00,1.32
5512.00,1.32
5511.00,1.32
5510.00,1.32
5509.00,1.32
5508.00,1.32
5507.00,1.32
5506.00,1.32
5505.00,1.32
5504.00,1.32
5503.00,1.32
5502.00,1.32
5501.00,1.32
5500.00,1.32
5499.00,1.32
5498.00,1.33
5497.00,1.33
5496.00,1.33
5495.00,1.33
5494.00,1.33
5493.00,1.33
5492.00,1.33
5491.00,1.33
5490.00,1.33
5489.00,1.33
5488.00,1.34
5487.00,1.34
5486.00,1.34
5485.00,1.34
5484.00,1.34
5483.00,1.34
5482.00,1.34
5481.00,1.34
5480.00,1.34
5479.00,1.34
5478.00,1.34
5477.00,1.34
5476.00,1.34
5475.00,1.35
5474.00,1.35
5473.00,1.35
5472.00,1.35
5471.00,1.35
5470.00,1.35
5469.00,1.35
5468.00,1.35
5467.00,1.35
5466.00,1.36
5465.00,1.36
5464.00,1.36
5463.00,1.36
5462.00,1.36
5461.00,1.36
5460.00,1.36
5459.00,1.36
5458.00,1.36
5457.00,1.37
5456.00,1.37
5455.00,1.37
5454.00,1.37
5453.00,1.37
5452.00,1.37
5451.00,1.37
5450.00,1.37
5449.00,1.37
5448.00,1.37
5447.00,1.37
5446.00,1.37
5445.00,1.37
5444.00,1.36
5443.00,1.36
5442.00,1.36
5441.00,1.36
5440.00,1.36
5439.00,1.36
5438.00,1.36
5437.00,1.36
5436.00,1.36
5435.00,1.36
5434.00,1.36
5433.00,1.36
5432.00,1.36
5431.00,1.36
5430.00,1.36
5429.00,1.36
5428.00,1.36
5427.00,1.36
5426.00,1.37
5425.00,1.37
5424.00,1.37
5423.00,1.37
5422.00,1.37
5421.00,1.37
5420.00,1.37
5419.00,1.37
5418.00,1.37
5417.00,1.37
5416.00,1.37
5415.00,1.37
5414.00,1.36
5413.00,1.36
5412.00,1.36
5411.00,1.36
5410.00,1.36
5409.00,1.36
5408.00,1.36
5407.00,1.36
5406.00,1.36
5405.00,1.36
5404.00,1.36
5403.00,1.35
5402.00,1.35
5401.00,1.35
5400.00,1.35
5399.00,1.35
5398.00,1.35
5397.00,1.34
5396.00,1.34
5395.00,1.34
5394.00,1.34
5393.00,1.33
5392.00,1.33
5391.00,1.33
5390.00,1.33
5389.00,1.32
5388.00,1.32
5387.00,1.32
5386.00,1.31
5385.00,1.31
5384.00,1.31
5383.00,1.30
5382.00,1.30
5381.00,1.30
5380.00,1.29
5379.00,1.29
5378.00,1.28
5377.00,1.28
5376.00,1.28
5375.00,1.27
5374.00,1.27
5373.00,1.26
5372.00,1.26
5371.00,1.25
5370.00,1.25
5369.00,1.24
5368.00,1.24
5367.00,1.23
5366.00,1.23
5365.00,1.22
5364.00,1.22
5363.00,1.21
5362.00,1.21
5361.00,1.20
5360.00,1.19
5359.00,1.19
5358.00,1.18
5357.00,1.17
5356.00,1.17
5355.00,1.16
5354.00,1.15
5353.00,1.14
5352.00,1.14
5351.00,1.13
5350.00,1.12
5349.00,1.11
5348.00,1.10
5347.00,1.09
5346.00,1.09
5345.00,1.08
5344.00,1.07
5343.00,1.06
5342.00,1.05
5341.00,1.04
5340.00,1.03
5339.00,1.03
5338.00,1.02
5337.00,1.01
5336.00,1.00
5335.00,1.00
5334.00,0.99
5333.00,0.98
5332.00,0.97
5331.00,0.97
5330.00,0.96
5329.00,0.95
5328.00,0.95
5327.00,0.94
5326.00,0.93
5325.00,0.93
5324.00,0.92
5323.00,0.91
5322.00,0.91
5321.00,0.90
5320.00,0.90
5319.00,0.89
5318.00,0.89
5317.00,0.88
5316.00,0.88
5315.00,0.87
5314.00,0.87
5313.00,0.86
5312.00,0.86
5311.00,0.85
5310.00,0.85
5309.00,0.84
5308.00,0.84
5307.00,0.83
5306.00,0.83
5305.00,0.83
5304.00,0.82
5303.00,0.82
5302.00,0.82
5301.00,0.82
5300.00,0.81
5299.00,0.81
5298.00,0.81
5297.00,0.80
5296.00,0.80
5295.00,0.80
5294.00,0.80
5293.00,0.80
5292.00,0.80
5291.00,0.79
5290.00,0.79
5289.00,0.79
5288.00,0.79
5287.00,0.79
5286.00,0.79
5285.00,0.79
5284.00,0.79
5283.00,0.79
5282.00,0.79
5281.00,0.79
5280.00,0.78
5279.00,0.78
5278.00,0.78
5277.00,0.78
5276.00,0.78
5275.00,0.78
5274.00,0.78
5273.00,0.78
5272.00,0.78
5271.00,0.78
5270.00,0.78
5269.00,0.78
5268.00,0.78
5267.00,0.78
5266.00,0.78
5265.00,0.78
5264.00,0.78
5263.00,0.78
5262.00,0.78
5261.00,0.78
5260.00,0.78
5259.00,0.78
5258.00,0.78
5257.00,0.78
5256.00,0.78
5255.00,0.78
5254.00,0.78
5253.00,0.78
5252.00,0.78
5251.00,0.78
5250.00,0.78
5249.00,0.78
5248.00,0.78
5247.00,0.78
5246.00,0.78
5245.00,0.78
5244.00,0.78
5243.00,0.78
5242.00,0.78
5241.00,0.79
5240.00,0.79
5239.00,0.79
5238.00,0.79
5237.00,0.79
5236.00,0.79
5235.00,0.79
5234.00,0.79
5233.00,0.79
5232.00,0.79
5231.00,0.79
5230.00,0.79
5229.00,0.79
5228.00,0.79
5227.00,0.79
5226.00,0.79
5225.00,0.79
5224.00,0.79
5223.00,0.79
5222.00,0.79
5221.00,0.79
5220.00,0.79
5219.00,0.79
5218.00,0.79
5217.00,0.79
5216.00,0.79
5215.00,0.79
5214.00,0.79
5213.00,0.79
5212.00,0.79
5211.00,0.79
5210.00,0.79
5209.00,0.79
5208.00,0.79
5207.00,0.79
5206.00,0.79
5205.00,0.79
5204.00,0.79
5203.00,0.79
5202.00,0.79
5201.00,0.79
5200.00,0.79
5199.00,0.80
5198.00,0.80
5197.00,0.80
5196.00,0.80
5195.00,0.80
5194.00,0.80
5193.00,0.80
5192.00,0.80
5191.00,0.80
5190.00,0.80
5189.00,0.80
5188.00,0.80
5187.00,0.80
5186.00,0.80
5185.00,0.80
5184.00,0.80
5183.00,0.80
5182.00,0.81
5181.00,0.81
5180.00,0.81
5179.00,0.81
5178.00,0.81
5177.00,0.81
5176.00,0.81
5175.00,0.81
5174.00,0.81
5173.00,0.81
5172.00,0.81
5171.00,0.81
5170.00,0.81
5169.00,0.81
5168.00,0.81
5167.00,0.81
5166.00,0.81
5165.00,0.81
5164.00,0.81
5163.00,0.81
5162.00,0.81
5161.00,0.81
5160.00,0.81
5159.00,0.81
5158.00,0.81
5157.00,0.81
5156.00,0.81
5155.00,0.81
5154.00,0.81
5153.00,0.81
5152.00,0.81
5151.00,0.81
5150.00,0.81
5149.00,0.81
5148.00,0.81
5147.00,0.82
5146.00,0.82
5145.00,0.82
5144.00,0.82
5143.00,0.82
5142.00,0.82
5141.00,0.82
5140.00,0.82
5139.00,0.82
5138.00,0.82
5137.00,0.82
5136.00,0.82
5135.00,0.82
5134.00,0.82
5133.00,0.82
5132.00,0.82
5131.00,0.82
5130.00,0.83
5129.00,0.83
5128.00,0.83
5127.00,0.83
5126.00,0.83
5125.00,0.83
5124.00,0.83
5123.00,0.83
5122.00,0.83
5121.00,0.83
5120.00,0.83
5119.00,0.83
5118.00,0.83
5117.00,0.83
5116.00,0.83
5115.00,0.83
5114.00,0.83
5113.00,0.83
5112.00,0.84
5111.00,0.84
5110.00,0.84
5109.00,0.84
5108.00,0.84
5107.00,0.84
5106.00,0.84
5105.00,0.84
5104.00,0.84
5103.00,0.84
5102.00,0.84
5101.00,0.84
5100.00,0.84
5099.00,0.84
5098.00,0.84
5097.00,0.84
5096.00,0.84
5095.00,0.84
5094.00,0.84
5093.00,0.84
5092.00,0.84
5091.00,0.84
5090.00,0.84
5089.00,0.84
5088.00,0.84
5087.00,0.84
5086.00,0.84
5085.00,0.84
5084.00,0.84
5083.00,0.84
5082.00,0.84
5081.00,0.84
5080.00,0.84
5079.00,0.84
5078.00,0.84
5077.00,0.84
5076.00,0.84
5075.00,0.84
5074.00,0.84
5073.00,0.84
5072.00,0.85
5071.00,0.85
5070.00,0.85
5069.00,0.85
5068.00,0.85
5067.00,0.85
5066.00,0.85
5065.00,0.85
5064.00,0.85
5063.00,0.85
5062.00,0.85
5061.00,0.85
5060.00,0.85
5059.00,0.85
5058.00,0.85
5057.00,0.86
5056.00,0.86
5055.00,0.86
5054.00,0.86
5053.00,0.86
5052.00,0.86
5051.00,0.86
5050.00,0.86
5049.00,0.86
5048.00,0.86
5047.00,0.86
5046.00,0.86
5045.00,0.87
5044.00,0.87
5043.00,0.87
5042.00,0.87
5041.00,0.87
5040.00,0.87
5039.00,0.87
5038.00,0.87
5037.00,0.87
5036.00,0.87
5035.00,0.87
5034.00,0.87
5033.00,0.87
5032.00,0.87
5031.00,0.87
5030.00,0.87
5029.00,0.87
5028.00,0.87
5027.00,0.87
5026.00,0.87
5025.00,0.87
5024.00,0.87
5023.00,0.87
5022.00,0.87
5021.00,0.87
5020.00,0.87
5019.00,0.87
5018.00,0.87
5017.00,0.87
5016.00,0.87
5015.00,0.87
5014.00,0.87
5013.00,0.87
5012.00,0.87
5011.00,0.87
5010.00,0.88
5009.00,0.88
5008.00,0.88
5007.00,0.88
5006.00,0.88
5005.00,0.88
5004.00,0.88
5003.00,0.88
5002.00,0.88
5001.00,0.88
5000.00,0.88
4999.00,0.88
4998.00,0.88
4997.00,0.88
4996.00,0.89
4995.00,0.89
4994.00,0.89
4993.00,0.89
4992.00,0.89
4991.00,0.89
4990.00,0.89
4989.00,0.89
4988.00,0.89
4987.00,0.89
4986.00,0.90
4985.00,0.90
4984.00,0.90
4983.00,0.90
4982.00,0.90
4981.00,0.90
4980.00,0.90
4979.00,0.90
4978.00,0.90
4977.00,0.90
4976.00,0.90
4975.00,0.90
4974.00,0.90
4973.00,0.90
4972.00,0.90
4971.00,0.90
4970.00,0.90
4969.00,0.90
4968.00,0.90
4967.00,0.90
4966.00,0.90
4965.00,0.90
4964.00,0.90
4963.00,0.90
4962.00,0.90
4961.00,0.90
4960.00,0.90
4959.00,0.90
4958.00,0.90
4957.00,0.90
4956.00,0.90
4955.00,0.90
4954.00,0.91
4953.00,0.91
4952.00,0.91
4951.00,0.91
4950.00,0.91
4949.00,0.91
4948.00,0.91
4947.00,0.91
4946.00,0.91
4945.00,0.92
4944.00,0.92
4943.00,0.92
4942.00,0.92
4941.00,0.92
4940.00,0.92
4939.00,0.92
4938.00,0.92
4937.00,0.92
4936.00,0.92
4935.00,0.92
4934.00,0.92
4933.00,0.92
4932.00,0.92
4931.00,0.92
4930.00,0.92
4929.00,0.92
4928.00,0.92
4927.00,0.92
4926.00,0.92
4925.00,0.92
4924.00,0.93
4923.00,0.93
4922.00,0.93
4921.00,0.93
4920.00,0.93
4919.00,0.93
4918.00,0.93
4917.00,0.93
4916.00,0.93
4915.00,0.93
4914.00,0.93
4913.00,0.93
4912.00,0.94
4911.00,0.94
4910.00,0.94
4909.00,0.94
4908.00,0.94
4907.00,0.94
4906.00,0.94
4905.00,0.94
4904.00,0.94
4903.00,0.94
4902.00,0.94
4901.00,0.94
4900.00,0.94
4899.00,0.94
4898.00,0.94
4897.00,0.94
4896.00,0.94
4895.00,0.94
4894.00,0.94
4893.00,0.94
4892.00,0.94
4891.00,0.94
4890.00,0.94
4889.00,0.94
4888.00,0.94
4887.00,0.94
4886.00,0.95
4885.00,0.95
4884.00,0.95
4883.00,0.95
4882.00,0.95
4881.00,0.95
4880.00,0.95
4879.00,0.96
4878.00,0.96
4877.00,0.96
4876.00,0.96
4875.00,0.96
4874.00,0.96
4873.00,0.96
4872.00,0.96
4871.00,0.96
4870.00,0.96
4869.00,0.96
4868.00,0.96
4867.00,0.96
4866.00,0.96
4865.00,0.96
4864.00,0.96
4863.00,0.96
4862.00,0.96
4861.00,0.96
4860.00,0.96
4859.00,0.96
4858.00,0.96
4857.00,0.96
4856.00,0.96
4855.00,0.96
4854.00,0.96
4853.00,0.96
4852.00,0.96
4851.00,0.96
4850.00,0.96
4849.00,0.96
4848.00,0.96
4847.00,0.97
4846.00,0.97
4845.00,0.97
4844.00,0.97
4843.00,0.97
4842.00,0.97
4841.00,0.97
4840.00,0.97
4839.00,0.97
4838.00,0.97
4837.00,0.97
4836.00,0.98
4835.00,0.98
4834.00,0.98
4833.00,0.98
4832.00,0.98
4831.00,0.98
4830.00,0.98
4829.00,0.98
4828.00,0.98
4827.00,0.98
4826.00,0.98
4825.00,0.98
4824.00,0.98
4823.00,0.98
4822.00,0.99
4821.00,0.99
4820.00,0.99
4819.00,0.99
4818.00,0.99
4817.00,0.99
4816.00,0.99
4815.00,0.99
4814.00,0.99
4813.00,1.00
4812.00,1.00
4811.00,1.00
4810.00,1.00
4809.00,1.00
4808.00,1.00
4807.00,1.00
4806.00,1.00
4805.00,1.00
4804.00,1.01
4803.00,1.01
4802.00,1.01
4801.00,1.01
4800.00,1.01
4799.00,1.01
4798.00,1.01
4797.00,1.01
4796.00,1.01
4795.00,1.01
4794.00,1.01
4793.00,1.01
4792.00,1.01
4791.00,1.01
4790.00,1.01
4789.00,1.01
4788.00,1.01
4787.00,1.01
4786.00,1.01
4785.00,1.01
4784.00,1.01
4783.00,1.01
4782.00,1.02
4781.00,1.02
4780.00,1.02
4779.00,1.02
4778.00,1.02
4777.00,1.02
4776.00,1.02
4775.00,1.02
4774.00,1.02
4773.00,1.02
4772.00,1.02
4771.00,1.02
4770.00,1.02
4769.00,1.02
4768.00,1.02
4767.00,1.03
4766.00,1.03
4765.00,1.03
4764.00,1.03
4763.00,1.03
4762.00,1.03
4761.00,1.03
4760.00,1.03
4759.00,1.04
4758.00,1.04
4757.00,1.04
4756.00,1.04
4755.00,1.04
4754.00,1.04
4753.00,1.04
4752.00,1.05
4751.00,1.05
4750.00,1.05
4749.00,1.05
4748.00,1.05
4747.00,1.05
4746.00,1.05
4745.00,1.05
4744.00,1.05
4743.00,1.05
4742.00,1.05
4741.00,1.06
4740.00,1.06
4739.00,1.06
4738.00,1.06
4737.00,1.06
4736.00,1.06
4735.00,1.06
4734.00,1.06
4733.00,1.06
4732.00,1.06
4731.00,1.06
4730.00,1.06
4729.00,1.06
4728.00,1.06
4727.00,1.06
4726.00,1.06
4725.00,1.06
4724.00,1.06
4723.00,1.06
4722.00,1.07
4721.00,1.07
4720.00,1.07
4719.00,1.07
4718.00,1.07
4717.00,1.07
4716.00,1.07
4715.00,1.08
4714.00,1.08
4713.00,1.08
4712.00,1.08
4711.00,1.08
4710.00,1.08
4709.00,1.08
4708.00,1.09
4707.00,1.09
4706.00,1.09
4705.00,1.09
4704.00,1.09
4703.00,1.09
4702.00,1.09
4701.00,1.09
4700.00,1.09
4699.00,1.09
4698.00,1.10
4697.00,1.10
4696.00,1.10
4695.00,1.10
4694.00,1.10
4693.00,1.10
4692.00,1.10
4691.00,1.10
4690.00,1.10
4689.00,1.10
4688.00,1.11
4687.00,1.11
4686.00,1.11
4685.00,1.11
4684.00,1.11
4683.00,1.11
4682.00,1.11
4681.00,1.12
4680.00,1.12
4679.00,1.12
4678.00,1.12
4677.00,1.12
4676.00,1.12
4675.00,1.13
4674.00,1.13
4673.00,1.13
4672.00,1.13
4671.00,1.13
4670.00,1.13
4669.00,1.13
4668.00,1.13
4667.00,1.13
4666.00,1.13
4665.00,1.13
4664.00,1.13
4663.00,1.14
4662.00,1.14
4661.00,1.14
4660.00,1.14
4659.00,1.14
4658.00,1.14
4657.00,1.14
4656.00,1.14
4655.00,1.15
4654.00,1.15
4653.00,1.15
4652.00,1.15
4651.00,1.15
4650.00,1.15
4649.00,1.15
4648.00,1.16
4647.00,1.16
4646.00,1.16
4645.00,1.16
4644.00,1.16
4643.00,1.16
4642.00,1.16
4641.00,1.16
4640.00,1.16
4639.00,1.16
4638.00,1.16
4637.00,1.16
4636.00,1.16
4635.00,1.16
4634.00,1.16
4633.00,1.16
4632.00,1.16
4631.00,1.16
4630.00,1.16
4629.00,1.16
4628.00,1.16
4627.00,1.16
4626.00,1.16
4625.00,1.16
4624.00,1.17
4623.00,1.17
4622.00,1.17
4621.00,1.17
4620.00,1.17
4619.00,1.17
4618.00,1.17
4617.00,1.17
4616.00,1.17
4615.00,1.18
4614.00,1.18
4613.00,1.18
4612.00,1.18
4611.00,1.18
4610.00,1.18
4609.00,1.18
4608.00,1.18
4607.00,1.18
4606.00,1.18
4605.00,1.18
4604.00,1.18
4603.00,1.18
4602.00,1.18
4601.00,1.18
4600.00,1.18
4599.00,1.18
4598.00,1.18
4597.00,1.18
4596.00,1.18
4595.00,1.18
4594.00,1.19
4593.00,1.19
4592.00,1.19
4591.00,1.19
4590.00,1.19
4589.00,1.19
4588.00,1.19
4587.00,1.19
4586.00,1.19
4585.00,1.19
4584.00,1.19
4583.00,1.19
4582.00,1.19
4581.00,1.19
4580.00,1.19
4579.00,1.20
4578.00,1.20
4577.00,1.20
4576.00,1.20
4575.00,1.20
4574.00,1.20
4573.00,1.20
4572.00,1.20
4571.00,1.20
4570.00,1.20
4569.00,1.20
4568.00,1.20
4567.00,1.20
4566.00,1.20
4565.00,1.20
4564.00,1.20
4563.00,1.21
4562.00,1.21
4561.00,1.21
4560.00,1.21
4559.00,1.21
4558.00,1.21
4557.00,1.21
4556.00,1.21
4555.00,1.21
4554.00,1.21
4553.00,1.21
4552.00,1.21
4551.00,1.21
4550.00,1.21
4549.00,1.21
4548.00,1.21
4547.00,1.22
4546.00,1.22
4545.00,1.22
4544.00,1.22
4543.00,1.22
4542.00,1.22
4541.00,1.22
4540.00,1.22
4539.00,1.22
4538.00,1.22
4537.00,1.22
4536.00,1.22
4535.00,1.22
4534.00,1.22
4533.00,1.22
4532.00,1.22
4531.00,1.23
4530.00,1.23
4529.00,1.23
4528.00,1.23
4527.00,1.23
4526.00,1.23
4525.00,1.23
4524.00,1.23
4523.00,1.23
4522.00,1.23
4521.00,1.23
4520.00,1.23
4519.00,1.23
4518.00,1.23
4517.00,1.23
4516.00,1.23
4515.00,1.23
4514.00,1.23
4513.00,1.23
4512.00,1.23
4511.00,1.23
4510.00,1.23
4509.00,1.23
4508.00,1.23
4507.00,1.23
4506.00,1.23
4505.00,1.23
4504.00,1.23
4503.00,1.23
4502.00,1.23
4501.00,1.23
4500.00,1.23
4499.00,1.23
4498.00,1.23
4497.00,1.23
4496.00,1.23
4495.00,1.23
4494.00,1.23
4493.00,1.23
4492.00,1.23
4491.00,1.23
4490.00,1.23
4489.00,1.23
4488.00,1.23
4487.00,1.23
4486.00,1.23
4485.00,1.23
4484.00,1.22
4483.00,1.22
4482.00,1.22
4481.00,1.22
4480.00,1.22
4479.00,1.22
4478.00,1.22
4477.00,1.22
4476.00,1.22
4475.00,1.22
4474.00,1.22
4473.00,1.22
4472.00,1.22
4471.00,1.21
4470.00,1.21
4469.00,1.21
4468.00,1.21
4467.00,1.21
4466.00,1.21
4465.00,1.21
4464.00,1.21
4463.00,1.21
4462.00,1.21
4461.00,1.20
4460.00,1.20
4459.00,1.20
4458.00,1.20
4457.00,1.20
4456.00,1.20
4455.00,1.20
4454.00,1.20
4453.00,1.19
4452.00,1.19
4451.00,1.19
4450.00,1.19
4449.00,1.19
4448.00,1.18
4447.00,1.18
4446.00,1.18
4445.00,1.18
4444.00,1.18
4443.00,1.17
4442.00,1.17
4441.00,1.17
4440.00,1.17
4439.00,1.16
4438.00,1.16
4437.00,1.16
4436.00,1.15
4435.00,1.15
4434.00,1.15
4433.00,1.15
4432.00,1.15
4431.00,1.14
4430.00,1.14
4429.00,1.14
4428.00,1.14
4427.00,1.14
4426.00,1.14
4425.00,1.14
4424.00,1.14
4423.00,1.13
4422.00,1.13
4421.00,1.13
4420.00,1.13
4419.00,1.13
4418.00,1.13
4417.00,1.13
4416.00,1.13
4415.00,1.13
4414.00,1.13
4413.00,1.14
4412.00,1.14
4411.00,1.14
4410.00,1.14
4409.00,1.14
4408.00,1.14
4407.00,1.14
4406.00,1.14
4405.00,1.14
4404.00,1.14
4403.00,1.15
4402.00,1.15
4401.00,1.15
4400.00,1.15
4399.00,1.15
4398.00,1.15
4397.00,1.15
4396.00,1.15
4395.00,1.15
4394.00,1.16
4393.00,1.16
4392.00,1.16
4391.00,1.16
4390.00,1.16
4389.00,1.16
4388.00,1.16
4387.00,1.16
4386.00,1.16
4385.00,1.17
4384.00,1.17
4383.00,1.17
4382.00,1.17
4381.00,1.17
4380.00,1.17
4379.00,1.17
4378.00,1.17
4377.00,1.17
4376.00,1.17
4375.00,1.17
4374.00,1.17
4373.00,1.17
4372.00,1.17
4371.00,1.17
4370.00,1.17
4369.00,1.17
4368.00,1.17
4367.00,1.17
4366.00,1.17
4365.00,1.17
4364.00,1.17
4363.00,1.17
4362.00,1.17
4361.00,1.18
4360.00,1.18
4359.00,1.18
4358.00,1.18
4357.00,1.18
4356.00,1.18
4355.00,1.18
4354.00,1.18
4353.00,1.18
4352.00,1.18
4351.00,1.18
4350.00,1.18
4349.00,1.18
4348.00,1.18
4347.00,1.18
4346.00,1.18
4345.00,1.18
4344.00,1.18
4343.00,1.18
4342.00,1.18
4341.00,1.18
4340.00,1.18
4339.00,1.18
4338.00,1.18
4337.00,1.18
4336.00,1.18
4335.00,1.18
4334.00,1.18
4333.00,1.19
4332.00,1.19
4331.00,1.19
4330.00,1.19
4329.00,1.19
4328.00,1.19
4327.00,1.19
4326.00,1.19
4325.00,1.19
4324.00,1.19
4323.00,1.20
4322.00,1.20
4321.00,1.20
4320.00,1.20
4319.00,1.20
4318.00,1.20
4317.00,1.20
4316.00,1.20
4315.00,1.20
4314.00,1.20
4313.00,1.21
4312.00,1.21
4311.00,1.21
4310.00,1.21
4309.00,1.21
4308.00,1.21
4307.00,1.21
4306.00,1.21
4305.00,1.21
4304.00,1.21
4303.00,1.22
4302.00,1.22
4301.00,1.22
4300.00,1.22
4299.00,1.22
4298.00,1.22
4297.00,1.22
4296.00,1.22
4295.00,1.22
4294.00,1.22
4293.00,1.22
4292.00,1.22
4291.00,1.22
4290.00,1.22
4289.00,1.22
4288.00,1.22
4287.00,1.22
4286.00,1.22
4285.00,1.22
4284.00,1.22
4283.00,1.22
4282.00,1.22
4281.00,1.22
4280.00,1.22
4279.00,1.22
4278.00,1.23
4277.00,1.23
4276.00,1.23
4275.00,1.23
4274.00,1.23
4273.00,1.23
4272.00,1.23
4271.00,1.23
4270.00,1.23
4269.00,1.23
4268.00,1.23
4267.00,1.23
4266.00,1.23
4265.00,1.23
4264.00,1.23
4263.00,1.23
4262.00,1.23
4261.00,1.23
4260.00,1.23
4259.00,1.23
4258.00,1.23
4257.00,1.23
4256.00,1.23
4255.00,1.23
4254.00,1.23
4253.00,1.23
4252.00,1.23
4251.00,1.23
4250.00,1.23
4249.00,1.23
4248.00,1.23
4247.00,1.24
4246.00,1.24
4245.00,1.24
4244.00,1.24
4243.00,1.24
4242.00,1.24
4241.00,1.24
4240.00,1.25
4239.00,1.25
4238.00,1.25
4237.00,1.25
4236.00,1.25
4235.00,1.25
4234.00,1.25
4233.00,1.25
4232.00,1.25
4231.00,1.25
4230.00,1.25
4229.00,1.26
4228.00,1.26
4227.00,1.26
4226.00,1.26
4225.00,1.26
4224.00,1.26
4223.00,1.26
4222.00,1.26
4221.00,1.26
4220.00,1.26
4219.00,1.26
4218.00,1.26
4217.00,1.26
4216.00,1.26
4215.00,1.26
4214.00,1.26
4213.00,1.26
4212.00,1.26
4211.00,1.26
4210.00,1.26
4209.00,1.26
4208.00,1.26
4207.00,1.26
4206.00,1.26
4205.00,1.26
4204.00,1.26
4203.00,1.26
4202.00,1.26
4201.00,1.26
4200.00,1.26
4199.00,1.26
4198.00,1.26
4197.00,1.26
4196.00,1.27
4195.00,1.27
4194.00,1.27
4193.00,1.27
4192.00,1.27
4191.00,1.27
4190.00,1.27
4189.00,1.27
4188.00,1.27
4187.00,1.27
4186.00,1.28
4185.00,1.27
4184.00,1.27
4183.00,1.27
4182.00,1.27
4181.00,1.27
4180.00,1.27
4179.00,1.27
4178.00,1.27
4177.00,1.27
4176.00,1.27
4175.00,1.27
4174.00,1.27
4173.00,1.27
4172.00,1.27
4171.00,1.26
4170.00,1.26
4169.00,1.27
4168.00,1.27
4167.00,1.27
4166.00,1.27
4165.00,1.27
4164.00,1.27
4163.00,1.27
4162.00,1.27
4161.00,1.27
4160.00,1.28
4159.00,1.28
4158.00,1.28
4157.00,1.28
4156.00,1.28
4155.00,1.28
4154.00,1.29
4153.00,1.29
4152.00,1.29
4151.00,1.29
4150.00,1.29
4149.00,1.29
4148.00,1.30
4147.00,1.30
4146.00,1.30
4145.00,1.30
4144.00,1.30
4143.00,1.30
4142.00,1.30
4141.00,1.30
4140.00,1.30
4139.00,1.30
4138.00,1.30
4137.00,1.30
4136.00,1.30
4135.00,1.30
4134.00,1.30
4133.00,1.30
4132.00,1.30
4131.00,1.30
4130.00,1.30
4129.00,1.30
4128.00,1.30
4127.00,1.30
4126.00,1.30
4125.00,1.30
4124.00,1.30
4123.00,1.30
4122.00,1.30
4121.00,1.30
4120.00,1.30
4119.00,1.30
4118.00,1.30
4117.00,1.30
4116.00,1.30
4115.00,1.30
4114.00,1.30
4113.00,1.30
4112.00,1.30
4111.00,1.30
4110.00,1.30
4109.00,1.30
4108.00,1.30
4107.00,1.30
4106.00,1.30
4105.00,1.30
4104.00,1.30
4103.00,1.30
4102.00,1.30
4101.00,1.31
4100.00,1.31
4099.00,1.31
4098.00,1.31
4097.00,1.31
4096.00,1.31
4095.00,1.31
4094.00,1.31
4093.00,1.31
4092.00,1.31
4091.00,1.31
4090.00,1.31
4089.00,1.32
4088.00,1.32
4087.00,1.32
4086.00,1.32
4085.00,1.32
4084.00,1.32
4083.00,1.32
4082.00,1.32
4081.00,1.32
4080.00,1.32
4079.00,1.32
4078.00,1.32
4077.00,1.32
4076.00,1.33
4075.00,1.33
4074.00,1.33
4073.00,1.33
4072.00,1.33
4071.00,1.33
4070.00,1.33
4069.00,1.33
4068.00,1.34
4067.00,1.34
4066.00,1.34
4065.00,1.34
4064.00,1.34
4063.00,1.34
4062.00,1.34
4061.00,1.34
4060.00,1.34
4059.00,1.34
4058.00,1.34
4057.00,1.34
4056.00,1.34
4055.00,1.34
4054.00,1.34
4053.00,1.34
4052.00,1.34
4051.00,1.34
4050.00,1.34
4049.00,1.34
4048.00,1.34
4047.00,1.34
4046.00,1.34
4045.00,1.34
4044.00,1.34
4043.00,1.34
4042.00,1.34
4041.00,1.34
4040.00,1.34
4039.00,1.34
4038.00,1.34
4037.00,1.34
4036.00,1.34
4035.00,1.34
4034.00,1.34
4033.00,1.34
4032.00,1.34
4031.00,1.34
4030.00,1.34
4029.00,1.34
4028.00,1.35
4027.00,1.35
4026.00,1.35
4025.00,1.35
4024.00,1.35
4023.00,1.35
4022.00,1.35
4021.00,1.35
4020.00,1.36
4019.00,1.36
4018.00,1.36
4017.00,1.36
4016.00,1.36
4015.00,1.36
4014.00,1.36
4013.00,1.37
4012.00,1.37
4011.00,1.37
4010.00,1.37
4009.00,1.37
4008.00,1.37
4007.00,1.37
4006.00,1.37
4005.00,1.37
4004.00,1.37
4003.00,1.37
4002.00,1.37
4001.00,1.37
4000.00,1.36
