创建为新数据集,样品 736 用户 Administrator 日期 星期五, 七月 20 2018
cm-1,%T
10000.00,1.43
9999.00,1.43
9998.00,1.42
9997.00,1.42
9996.00,1.42
9995.00,1.42
9994.00,1.42
9993.00,1.42
9992.00,1.42
9991.00,1.42
9990.00,1.42
9989.00,1.42
9988.00,1.42
9987.00,1.42
9986.00,1.42
9985.00,1.42
9984.00,1.42
9983.00,1.42
9982.00,1.42
9981.00,1.42
9980.00,1.42
9979.00,1.43
9978.00,1.43
9977.00,1.43
9976.00,1.43
9975.00,1.43
9974.00,1.43
9973.00,1.42
9972.00,1.42
9971.00,1.42
9970.00,1.42
9969.00,1.42
9968.00,1.42
9967.00,1.42
9966.00,1.42
9965.00,1.42
9964.00,1.42
9963.00,1.42
9962.00,1.42
9961.00,1.42
9960.00,1.43
9959.00,1.43
9958.00,1.43
9957.00,1.43
9956.00,1.43
9955.00,1.43
9954.00,1.43
9953.00,1.43
9952.00,1.42
9951.00,1.42
9950.00,1.42
9949.00,1.42
9948.00,1.42
9947.00,1.42
9946.00,1.42
9945.00,1.41
9944.00,1.41
9943.00,1.41
9942.00,1.41
9941.00,1.41
9940.00,1.41
9939.00,1.40
9938.00,1.40
9937.00,1.40
9936.00,1.40
9935.00,1.41
9934.00,1.41
9933.00,1.41
9932.00,1.41
9931.00,1.41
9930.00,1.41
9929.00,1.41
9928.00,1.41
9927.00,1.41
9926.00,1.41
9925.00,1.41
9924.00,1.41
9923.00,1.41
9922.00,1.41
9921.00,1.41
9920.00,1.41
9919.00,1.41
9918.00,1.41
9917.00,1.41
9916.00,1.41
9915.00,1.41
9914.00,1.41
9913.00,1.41
9912.00,1.41
9911.00,1.41
9910.00,1.41
9909.00,1.41
9908.00,1.41
9907.00,1.41
9906.00,1.40
9905.00,1.40
9904.00,1.41
9903.00,1.41
9902.00,1.41
9901.00,1.41
9900.00,1.41
9899.00,1.41
9898.00,1.41
9897.00,1.41
9896.00,1.41
9895.00,1.41
9894.00,1.42
9893.00,1.42
9892.00,1.42
9891.00,1.42
9890.00,1.42
9889.00,1.42
9888.00,1.42
9887.00,1.42
9886.00,1.42
9885.00,1.42
9884.00,1.42
9883.00,1.42
9882.00,1.42
9881.00,1.42
9880.00,1.42
9879.00,1.42
9878.00,1.42
9877.00,1.42
9876.00,1.42
9875.00,1.42
9874.00,1.41
9873.00,1.41
9872.00,1.41
9871.00,1.41
9870.00,1.41
9869.00,1.41
9868.00,1.41
9867.00,1.41
9866.00,1.41
9865.00,1.41
9864.00,1.41
9863.00,1.41
9862.00,1.41
9861.00,1.41
9860.00,1.41
9859.00,1.41
9858.00,1.41
9857.00,1.41
9856.00,1.41
9855.00,1.41
9854.00,1.41
9853.00,1.41
9852.00,1.41
9851.00,1.41
9850.00,1.41
9849.00,1.41
9848.00,1.42
9847.00,1.42
9846.00,1.42
9845.00,1.42
9844.00,1.42
9843.00,1.42
9842.00,1.42
9841.00,1.42
9840.00,1.42
9839.00,1.43
9838.00,1.43
9837.00,1.43
9836.00,1.43
9835.00,1.43
9834.00,1.43
9833.00,1.42
9832.00,1.42
9831.00,1.42
9830.00,1.42
9829.00,1.42
9828.00,1.42
9827.00,1.42
9826.00,1.42
9825.00,1.42
9824.00,1.42
9823.00,1.42
9822.00,1.41
9821.00,1.41
9820.00,1.41
9819.00,1.41
9818.00,1.41
9817.00,1.40
9816.00,1.40
9815.00,1.40
9814.00,1.40
9813.00,1.39
9812.00,1.39
9811.00,1.39
9810.00,1.39
9809.00,1.39
9808.00,1.39
9807.00,1.38
9806.00,1.38
9805.00,1.38
9804.00,1.38
9803.00,1.38
9802.00,1.38
9801.00,1.38
9800.00,1.38
9799.00,1.38
9798.00,1.38
9797.00,1.38
9796.00,1.38
9795.00,1.39
9794.00,1.39
9793.00,1.39
9792.00,1.39
9791.00,1.39
9790.00,1.39
9789.00,1.39
9788.00,1.40
9787.00,1.40
9786.00,1.40
9785.00,1.40
9784.00,1.40
9783.00,1.40
9782.00,1.40
9781.00,1.40
9780.00,1.40
9779.00,1.40
9778.00,1.40
9777.00,1.40
9776.00,1.40
9775.00,1.40
9774.00,1.40
9773.00,1.39
9772.00,1.39
9771.00,1.39
9770.00,1.39
9769.00,1.39
9768.00,1.39
9767.00,1.39
9766.00,1.39
9765.00,1.39
9764.00,1.39
9763.00,1.39
9762.00,1.39
9761.00,1.39
9760.00,1.39
9759.00,1.39
9758.00,1.40
9757.00,1.40
9756.00,1.40
9755.00,1.40
9754.00,1.41
9753.00,1.41
9752.00,1.41
9751.00,1.41
9750.00,1.42
9749.00,1.42
9748.00,1.42
9747.00,1.42
9746.00,1.42
9745.00,1.42
9744.00,1.42
9743.00,1.42
9742.00,1.42
9741.00,1.42
9740.00,1.41
9739.00,1.41
9738.00,1.41
9737.00,1.41
9736.00,1.41
9735.00,1.40
9734.00,1.40
9733.00,1.40
9732.00,1.40
9731.00,1.40
9730.00,1.40
9729.00,1.40
9728.00,1.40
9727.00,1.40
9726.00,1.39
9725.00,1.39
9724.00,1.39
9723.00,1.39
9722.00,1.39
9721.00,1.39
9720.00,1.39
9719.00,1.39
9718.00,1.39
9717.00,1.39
9716.00,1.39
9715.00,1.39
9714.00,1.39
9713.00,1.39
9712.00,1.39
9711.00,1.39
9710.00,1.39
9709.00,1.39
9708.00,1.39
9707.00,1.39
9706.00,1.39
9705.00,1.39
9704.00,1.39
9703.00,1.39
9702.00,1.39
9701.00,1.39
9700.00,1.39
9699.00,1.39
9698.00,1.40
9697.00,1.40
9696.00,1.40
9695.00,1.40
9694.00,1.40
9693.00,1.40
9692.00,1.40
9691.00,1.41
9690.00,1.41
9689.00,1.41
9688.00,1.41
9687.00,1.41
9686.00,1.42
9685.00,1.42
9684.00,1.42
9683.00,1.42
9682.00,1.42
9681.00,1.42
9680.00,1.42
9679.00,1.42
9678.00,1.42
9677.00,1.42
9676.00,1.42
9675.00,1.42
9674.00,1.42
9673.00,1.42
9672.00,1.42
9671.00,1.42
9670.00,1.42
9669.00,1.41
9668.00,1.41
9667.00,1.41
9666.00,1.41
9665.00,1.41
9664.00,1.41
9663.00,1.41
9662.00,1.41
9661.00,1.41
9660.00,1.41
9659.00,1.41
9658.00,1.41
9657.00,1.41
9656.00,1.41
9655.00,1.42
9654.00,1.42
9653.00,1.42
9652.00,1.42
9651.00,1.42
9650.00,1.42
9649.00,1.42
9648.00,1.42
9647.00,1.42
9646.00,1.42
9645.00,1.43
9644.00,1.43
9643.00,1.43
9642.00,1.42
9641.00,1.42
9640.00,1.42
9639.00,1.42
9638.00,1.42
9637.00,1.42
9636.00,1.42
9635.00,1.42
9634.00,1.42
9633.00,1.41
9632.00,1.41
9631.00,1.41
9630.00,1.41
9629.00,1.41
9628.00,1.41
9627.00,1.41
9626.00,1.41
9625.00,1.41
9624.00,1.41
9623.00,1.41
9622.00,1.41
9621.00,1.41
9620.00,1.41
9619.00,1.41
9618.00,1.41
9617.00,1.41
9616.00,1.41
9615.00,1.41
9614.00,1.41
9613.00,1.41
9612.00,1.41
9611.00,1.41
9610.00,1.41
9609.00,1.41
9608.00,1.41
9607.00,1.41
9606.00,1.41
9605.00,1.41
9604.00,1.40
9603.00,1.40
9602.00,1.40
9601.00,1.40
9600.00,1.40
9599.00,1.40
9598.00,1.40
9597.00,1.40
9596.00,1.40
9595.00,1.40
9594.00,1.40
9593.00,1.40
9592.00,1.40
9591.00,1.40
9590.00,1.40
9589.00,1.40
9588.00,1.40
9587.00,1.40
9586.00,1.40
9585.00,1.40
9584.00,1.40
9583.00,1.40
9582.00,1.40
9581.00,1.40
9580.00,1.41
9579.00,1.41
9578.00,1.41
9577.00,1.41
9576.00,1.41
9575.00,1.41
9574.00,1.41
9573.00,1.41
9572.00,1.41
9571.00,1.41
9570.00,1.41
9569.00,1.41
9568.00,1.41
9567.00,1.41
9566.00,1.41
9565.00,1.41
9564.00,1.41
9563.00,1.41
9562.00,1.41
9561.00,1.41
9560.00,1.41
9559.00,1.41
9558.00,1.41
9557.00,1.41
9556.00,1.41
9555.00,1.41
9554.00,1.41
9553.00,1.41
9552.00,1.41
9551.00,1.41
9550.00,1.41
9549.00,1.41
9548.00,1.41
9547.00,1.41
9546.00,1.41
9545.00,1.41
9544.00,1.41
9543.00,1.41
9542.00,1.41
9541.00,1.40
9540.00,1.40
9539.00,1.40
9538.00,1.40
9537.00,1.40
9536.00,1.40
9535.00,1.40
9534.00,1.40
9533.00,1.40
9532.00,1.40
9531.00,1.40
9530.00,1.40
9529.00,1.40
9528.00,1.40
9527.00,1.40
9526.00,1.41
9525.00,1.41
9524.00,1.41
9523.00,1.41
9522.00,1.41
9521.00,1.41
9520.00,1.41
9519.00,1.41
9518.00,1.41
9517.00,1.41
9516.00,1.41
9515.00,1.41
9514.00,1.42
9513.00,1.42
9512.00,1.42
9511.00,1.42
9510.00,1.42
9509.00,1.41
9508.00,1.41
9507.00,1.41
9506.00,1.41
9505.00,1.41
9504.00,1.41
9503.00,1.41
9502.00,1.40
9501.00,1.40
9500.00,1.40
9499.00,1.40
9498.00,1.40
9497.00,1.40
9496.00,1.40
9495.00,1.40
9494.00,1.40
9493.00,1.40
9492.00,1.40
9491.00,1.40
9490.00,1.40
9489.00,1.40
9488.00,1.41
9487.00,1.41
9486.00,1.41
9485.00,1.41
9484.00,1.41
9483.00,1.41
9482.00,1.42
9481.00,1.42
9480.00,1.42
9479.00,1.42
9478.00,1.42
9477.00,1.42
9476.00,1.42
9475.00,1.42
9474.00,1.42
9473.00,1.42
9472.00,1.41
9471.00,1.41
9470.00,1.41
9469.00,1.41
9468.00,1.41
9467.00,1.41
9466.00,1.41
9465.00,1.41
9464.00,1.41
9463.00,1.42
9462.00,1.42
9461.00,1.42
9460.00,1.42
9459.00,1.42
9458.00,1.42
9457.00,1.42
9456.00,1.42
9455.00,1.42
9454.00,1.42
9453.00,1.42
9452.00,1.42
9451.00,1.42
9450.00,1.42
9449.00,1.42
9448.00,1.42
9447.00,1.42
9446.00,1.42
9445.00,1.41
9444.00,1.41
9443.00,1.41
9442.00,1.41
9441.00,1.41
9440.00,1.41
9439.00,1.41
9438.00,1.41
9437.00,1.41
9436.00,1.41
9435.00,1.41
9434.00,1.41
9433.00,1.41
9432.00,1.41
9431.00,1.41
9430.00,1.41
9429.00,1.41
9428.00,1.41
9427.00,1.41
9426.00,1.41
9425.00,1.41
9424.00,1.41
9423.00,1.41
9422.00,1.41
9421.00,1.41
9420.00,1.41
9419.00,1.41
9418.00,1.40
9417.00,1.40
9416.00,1.40
9415.00,1.40
9414.00,1.40
9413.00,1.40
9412.00,1.41
9411.00,1.41
9410.00,1.41
9409.00,1.41
9408.00,1.41
9407.00,1.41
9406.00,1.41
9405.00,1.42
9404.00,1.42
9403.00,1.42
9402.00,1.42
9401.00,1.42
9400.00,1.42
9399.00,1.42
9398.00,1.42
9397.00,1.43
9396.00,1.43
9395.00,1.43
9394.00,1.43
9393.00,1.43
9392.00,1.42
9391.00,1.42
9390.00,1.42
9389.00,1.42
9388.00,1.42
9387.00,1.42
9386.00,1.42
9385.00,1.42
9384.00,1.42
9383.00,1.42
9382.00,1.42
9381.00,1.41
9380.00,1.41
9379.00,1.41
9378.00,1.41
9377.00,1.41
9376.00,1.41
9375.00,1.41
9374.00,1.41
9373.00,1.41
9372.00,1.41
9371.00,1.41
9370.00,1.41
9369.00,1.41
9368.00,1.41
9367.00,1.41
9366.00,1.41
9365.00,1.41
9364.00,1.42
9363.00,1.42
9362.00,1.42
9361.00,1.42
9360.00,1.42
9359.00,1.42
9358.00,1.42
9357.00,1.42
9356.00,1.42
9355.00,1.41
9354.00,1.41
9353.00,1.41
9352.00,1.41
9351.00,1.41
9350.00,1.41
9349.00,1.41
9348.00,1.41
9347.00,1.41
9346.00,1.41
9345.00,1.41
9344.00,1.40
9343.00,1.40
9342.00,1.40
9341.00,1.40
9340.00,1.40
9339.00,1.40
9338.00,1.40
9337.00,1.40
9336.00,1.40
9335.00,1.40
9334.00,1.40
9333.00,1.40
9332.00,1.40
9331.00,1.40
9330.00,1.40
9329.00,1.40
9328.00,1.40
9327.00,1.40
9326.00,1.40
9325.00,1.40
9324.00,1.40
9323.00,1.40
9322.00,1.40
9321.00,1.40
9320.00,1.40
9319.00,1.40
9318.00,1.40
9317.00,1.40
9316.00,1.39
9315.00,1.39
9314.00,1.39
9313.00,1.39
9312.00,1.39
9311.00,1.39
9310.00,1.39
9309.00,1.39
9308.00,1.39
9307.00,1.39
9306.00,1.39
9305.00,1.39
9304.00,1.39
9303.00,1.39
9302.00,1.39
9301.00,1.39
9300.00,1.39
9299.00,1.39
9298.00,1.39
9297.00,1.39
9296.00,1.39
9295.00,1.40
9294.00,1.40
9293.00,1.40
9292.00,1.40
9291.00,1.40
9290.00,1.40
9289.00,1.41
9288.00,1.41
9287.00,1.41
9286.00,1.41
9285.00,1.41
9284.00,1.41
9283.00,1.42
9282.00,1.42
9281.00,1.42
9280.00,1.42
9279.00,1.42
9278.00,1.42
9277.00,1.42
9276.00,1.42
9275.00,1.42
9274.00,1.42
9273.00,1.42
9272.00,1.41
9271.00,1.41
9270.00,1.41
9269.00,1.41
9268.00,1.41
9267.00,1.41
9266.00,1.41
9265.00,1.41
9264.00,1.41
9263.00,1.41
9262.00,1.41
9261.00,1.41
9260.00,1.41
9259.00,1.41
9258.00,1.41
9257.00,1.41
9256.00,1.41
9255.00,1.41
9254.00,1.41
9253.00,1.41
9252.00,1.41
9251.00,1.41
9250.00,1.41
9249.00,1.41
9248.00,1.41
9247.00,1.41
9246.00,1.41
9245.00,1.41
9244.00,1.41
9243.00,1.40
9242.00,1.40
9241.00,1.40
9240.00,1.40
9239.00,1.40
9238.00,1.40
9237.00,1.40
9236.00,1.40
9235.00,1.40
9234.00,1.40
9233.00,1.40
9232.00,1.40
9231.00,1.40
9230.00,1.40
9229.00,1.40
9228.00,1.40
9227.00,1.40
9226.00,1.40
9225.00,1.40
9224.00,1.40
9223.00,1.40
9222.00,1.40
9221.00,1.40
9220.00,1.40
9219.00,1.40
9218.00,1.39
9217.00,1.39
9216.00,1.39
9215.00,1.39
9214.00,1.39
9213.00,1.39
9212.00,1.39
9211.00,1.39
9210.00,1.39
9209.00,1.39
9208.00,1.39
9207.00,1.39
9206.00,1.39
9205.00,1.39
9204.00,1.40
9203.00,1.40
9202.00,1.40
9201.00,1.40
9200.00,1.40
9199.00,1.41
9198.00,1.41
9197.00,1.41
9196.00,1.41
9195.00,1.42
9194.00,1.42
9193.00,1.42
9192.00,1.42
9191.00,1.42
9190.00,1.42
9189.00,1.42
9188.00,1.42
9187.00,1.43
9186.00,1.43
9185.00,1.42
9184.00,1.42
9183.00,1.42
9182.00,1.42
9181.00,1.42
9180.00,1.42
9179.00,1.42
9178.00,1.42
9177.00,1.42
9176.00,1.42
9175.00,1.42
9174.00,1.42
9173.00,1.42
9172.00,1.42
9171.00,1.42
9170.00,1.42
9169.00,1.42
9168.00,1.42
9167.00,1.42
9166.00,1.42
9165.00,1.42
9164.00,1.42
9163.00,1.42
9162.00,1.42
9161.00,1.42
9160.00,1.42
9159.00,1.41
9158.00,1.41
9157.00,1.41
9156.00,1.41
9155.00,1.41
9154.00,1.41
9153.00,1.41
9152.00,1.41
9151.00,1.41
9150.00,1.41
9149.00,1.41
9148.00,1.41
9147.00,1.41
9146.00,1.41
9145.00,1.41
9144.00,1.41
9143.00,1.41
9142.00,1.41
9141.00,1.41
9140.00,1.41
9139.00,1.41
9138.00,1.41
9137.00,1.41
9136.00,1.41
9135.00,1.41
9134.00,1.41
9133.00,1.41
9132.00,1.41
9131.00,1.41
9130.00,1.41
9129.00,1.41
9128.00,1.41
9127.00,1.41
9126.00,1.42
9125.00,1.42
9124.00,1.42
9123.00,1.42
9122.00,1.42
9121.00,1.42
9120.00,1.42
9119.00,1.42
9118.00,1.42
9117.00,1.42
9116.00,1.42
9115.00,1.42
9114.00,1.42
9113.00,1.42
9112.00,1.42
9111.00,1.42
9110.00,1.42
9109.00,1.42
9108.00,1.42
9107.00,1.41
9106.00,1.41
9105.00,1.41
9104.00,1.41
9103.00,1.41
9102.00,1.41
9101.00,1.42
9100.00,1.42
9099.00,1.42
9098.00,1.42
9097.00,1.42
9096.00,1.42
9095.00,1.42
9094.00,1.42
9093.00,1.42
9092.00,1.42
9091.00,1.42
9090.00,1.41
9089.00,1.41
9088.00,1.41
9087.00,1.41
9086.00,1.41
9085.00,1.41
9084.00,1.41
9083.00,1.41
9082.00,1.41
9081.00,1.41
9080.00,1.41
9079.00,1.41
9078.00,1.41
9077.00,1.41
9076.00,1.41
9075.00,1.41
9074.00,1.41
9073.00,1.41
9072.00,1.41
9071.00,1.41
9070.00,1.41
9069.00,1.41
9068.00,1.41
9067.00,1.41
9066.00,1.41
9065.00,1.41
9064.00,1.41
9063.00,1.41
9062.00,1.41
9061.00,1.41
9060.00,1.41
9059.00,1.41
9058.00,1.41
9057.00,1.41
9056.00,1.41
9055.00,1.41
9054.00,1.41
9053.00,1.41
9052.00,1.41
9051.00,1.41
9050.00,1.41
9049.00,1.40
9048.00,1.40
9047.00,1.40
9046.00,1.40
9045.00,1.40
9044.00,1.40
9043.00,1.40
9042.00,1.40
9041.00,1.40
9040.00,1.40
9039.00,1.40
9038.00,1.40
9037.00,1.40
9036.00,1.40
9035.00,1.40
9034.00,1.40
9033.00,1.40
9032.00,1.40
9031.00,1.40
9030.00,1.40
9029.00,1.40
9028.00,1.40
9027.00,1.40
9026.00,1.40
9025.00,1.40
9024.00,1.40
9023.00,1.40
9022.00,1.40
9021.00,1.40
9020.00,1.40
9019.00,1.40
9018.00,1.40
9017.00,1.39
9016.00,1.39
9015.00,1.39
9014.00,1.39
9013.00,1.39
9012.00,1.39
9011.00,1.39
9010.00,1.39
9009.00,1.39
9008.00,1.39
9007.00,1.39
9006.00,1.39
9005.00,1.39
9004.00,1.40
9003.00,1.40
9002.00,1.40
9001.00,1.40
9000.00,1.40
8999.00,1.41
8998.00,1.41
8997.00,1.41
8996.00,1.41
8995.00,1.42
8994.00,1.42
8993.00,1.42
8992.00,1.42
8991.00,1.42
8990.00,1.42
8989.00,1.42
8988.00,1.42
8987.00,1.42
8986.00,1.42
8985.00,1.42
8984.00,1.42
8983.00,1.42
8982.00,1.42
8981.00,1.42
8980.00,1.42
8979.00,1.42
8978.00,1.41
8977.00,1.41
8976.00,1.41
8975.00,1.41
8974.00,1.41
8973.00,1.41
8972.00,1.41
8971.00,1.41
8970.00,1.41
8969.00,1.41
8968.00,1.41
8967.00,1.41
8966.00,1.41
8965.00,1.41
8964.00,1.41
8963.00,1.41
8962.00,1.41
8961.00,1.41
8960.00,1.41
8959.00,1.41
8958.00,1.41
8957.00,1.41
8956.00,1.40
8955.00,1.40
8954.00,1.40
8953.00,1.40
8952.00,1.40
8951.00,1.40
8950.00,1.40
8949.00,1.40
8948.00,1.40
8947.00,1.40
8946.00,1.40
8945.00,1.40
8944.00,1.40
8943.00,1.41
8942.00,1.41
8941.00,1.41
8940.00,1.41
8939.00,1.41
8938.00,1.41
8937.00,1.41
8936.00,1.41
8935.00,1.41
8934.00,1.41
8933.00,1.41
8932.00,1.41
8931.00,1.41
8930.00,1.41
8929.00,1.41
8928.00,1.41
8927.00,1.41
8926.00,1.41
8925.00,1.41
8924.00,1.41
8923.00,1.41
8922.00,1.41
8921.00,1.41
8920.00,1.41
8919.00,1.41
8918.00,1.41
8917.00,1.40
8916.00,1.40
8915.00,1.40
8914.00,1.40
8913.00,1.40
8912.00,1.40
8911.00,1.39
8910.00,1.39
8909.00,1.39
8908.00,1.39
8907.00,1.39
8906.00,1.39
8905.00,1.39
8904.00,1.39
8903.00,1.39
8902.00,1.39
8901.00,1.39
8900.00,1.39
8899.00,1.39
8898.00,1.39
8897.00,1.39
8896.00,1.40
8895.00,1.40
8894.00,1.40
8893.00,1.40
8892.00,1.40
8891.00,1.40
8890.00,1.40
8889.00,1.40
8888.00,1.40
8887.00,1.40
8886.00,1.41
8885.00,1.41
8884.00,1.41
8883.00,1.41
8882.00,1.41
8881.00,1.41
8880.00,1.41
8879.00,1.41
8878.00,1.41
8877.00,1.41
8876.00,1.41
8875.00,1.42
8874.00,1.42
8873.00,1.42
8872.00,1.42
8871.00,1.42
8870.00,1.42
8869.00,1.42
8868.00,1.42
8867.00,1.42
8866.00,1.42
8865.00,1.42
8864.00,1.42
8863.00,1.42
8862.00,1.42
8861.00,1.41
8860.00,1.41
8859.00,1.41
8858.00,1.41
8857.00,1.41
8856.00,1.41
8855.00,1.41
8854.00,1.41
8853.00,1.41
8852.00,1.41
8851.00,1.41
8850.00,1.40
8849.00,1.40
8848.00,1.40
8847.00,1.40
8846.00,1.40
8845.00,1.40
8844.00,1.40
8843.00,1.40
8842.00,1.40
8841.00,1.39
8840.00,1.39
8839.00,1.39
8838.00,1.39
8837.00,1.39
8836.00,1.39
8835.00,1.39
8834.00,1.39
8833.00,1.39
8832.00,1.39
8831.00,1.39
8830.00,1.38
8829.00,1.38
8828.00,1.38
8827.00,1.38
8826.00,1.38
8825.00,1.38
8824.00,1.38
8823.00,1.38
8822.00,1.38
8821.00,1.38
8820.00,1.38
8819.00,1.39
8818.00,1.39
8817.00,1.39
8816.00,1.39
8815.00,1.39
8814.00,1.39
8813.00,1.39
8812.00,1.39
8811.00,1.39
8810.00,1.39
8809.00,1.39
8808.00,1.39
8807.00,1.39
8806.00,1.39
8805.00,1.39
8804.00,1.39
8803.00,1.39
8802.00,1.39
8801.00,1.39
8800.00,1.39
8799.00,1.39
8798.00,1.39
8797.00,1.39
8796.00,1.39
8795.00,1.38
8794.00,1.38
8793.00,1.38
8792.00,1.38
8791.00,1.38
8790.00,1.38
8789.00,1.38
8788.00,1.38
8787.00,1.38
8786.00,1.38
8785.00,1.38
8784.00,1.37
8783.00,1.37
8782.00,1.37
8781.00,1.37
8780.00,1.37
8779.00,1.37
8778.00,1.37
8777.00,1.37
8776.00,1.37
8775.00,1.37
8774.00,1.37
8773.00,1.37
8772.00,1.37
8771.00,1.37
8770.00,1.38
8769.00,1.38
8768.00,1.38
8767.00,1.38
8766.00,1.38
8765.00,1.38
8764.00,1.38
8763.00,1.38
8762.00,1.38
8761.00,1.38
8760.00,1.38
8759.00,1.38
8758.00,1.38
8757.00,1.38
8756.00,1.38
8755.00,1.38
8754.00,1.37
8753.00,1.37
8752.00,1.37
8751.00,1.37
8750.00,1.37
8749.00,1.37
8748.00,1.37
8747.00,1.37
8746.00,1.36
8745.00,1.36
8744.00,1.36
8743.00,1.36
8742.00,1.36
8741.00,1.36
8740.00,1.36
8739.00,1.36
8738.00,1.36
8737.00,1.36
8736.00,1.36
8735.00,1.36
8734.00,1.36
8733.00,1.36
8732.00,1.36
8731.00,1.36
8730.00,1.35
8729.00,1.35
8728.00,1.35
8727.00,1.35
8726.00,1.35
8725.00,1.35
8724.00,1.35
8723.00,1.35
8722.00,1.34
8721.00,1.34
8720.00,1.34
8719.00,1.34
8718.00,1.34
8717.00,1.34
8716.00,1.34
8715.00,1.34
8714.00,1.34
8713.00,1.34
8712.00,1.34
8711.00,1.34
8710.00,1.34
8709.00,1.34
8708.00,1.34
8707.00,1.34
8706.00,1.34
8705.00,1.34
8704.00,1.34
8703.00,1.34
8702.00,1.34
8701.00,1.34
8700.00,1.34
8699.00,1.34
8698.00,1.34
8697.00,1.34
8696.00,1.34
8695.00,1.34
8694.00,1.34
8693.00,1.34
8692.00,1.34
8691.00,1.34
8690.00,1.34
8689.00,1.34
8688.00,1.34
8687.00,1.34
8686.00,1.34
8685.00,1.34
8684.00,1.34
8683.00,1.34
8682.00,1.34
8681.00,1.34
8680.00,1.34
8679.00,1.34
8678.00,1.34
8677.00,1.34
8676.00,1.34
8675.00,1.34
8674.00,1.34
8673.00,1.34
8672.00,1.34
8671.00,1.34
8670.00,1.34
8669.00,1.34
8668.00,1.34
8667.00,1.34
8666.00,1.34
8665.00,1.34
8664.00,1.34
8663.00,1.34
8662.00,1.34
8661.00,1.34
8660.00,1.34
8659.00,1.34
8658.00,1.34
8657.00,1.34
8656.00,1.34
8655.00,1.34
8654.00,1.34
8653.00,1.34
8652.00,1.34
8651.00,1.34
8650.00,1.34
8649.00,1.33
8648.00,1.33
8647.00,1.33
8646.00,1.33
8645.00,1.33
8644.00,1.33
8643.00,1.33
8642.00,1.32
8641.00,1.32
8640.00,1.32
8639.00,1.32
8638.00,1.32
8637.00,1.32
8636.00,1.32
8635.00,1.32
8634.00,1.32
8633.00,1.32
8632.00,1.32
8631.00,1.32
8630.00,1.32
8629.00,1.32
8628.00,1.32
8627.00,1.32
8626.00,1.32
8625.00,1.32
8624.00,1.32
8623.00,1.32
8622.00,1.32
8621.00,1.32
8620.00,1.32
8619.00,1.32
8618.00,1.32
8617.00,1.32
8616.00,1.32
8615.00,1.32
8614.00,1.31
8613.00,1.31
8612.00,1.31
8611.00,1.31
8610.00,1.31
8609.00,1.31
8608.00,1.31
8607.00,1.31
8606.00,1.31
8605.00,1.31
8604.00,1.32
8603.00,1.32
8602.00,1.32
8601.00,1.32
8600.00,1.32
8599.00,1.32
8598.00,1.32
8597.00,1.32
8596.00,1.32
8595.00,1.32
8594.00,1.32
8593.00,1.32
8592.00,1.32
8591.00,1.32
8590.00,1.32
8589.00,1.32
8588.00,1.32
8587.00,1.32
8586.00,1.31
8585.00,1.31
8584.00,1.31
8583.00,1.31
8582.00,1.31
8581.00,1.31
8580.00,1.31
8579.00,1.31
8578.00,1.31
8577.00,1.31
8576.00,1.30
8575.00,1.30
8574.00,1.30
8573.00,1.30
8572.00,1.30
8571.00,1.30
8570.00,1.29
8569.00,1.29
8568.00,1.29
8567.00,1.29
8566.00,1.29
8565.00,1.29
8564.00,1.29
8563.00,1.29
8562.00,1.29
8561.00,1.29
8560.00,1.29
8559.00,1.29
8558.00,1.29
8557.00,1.29
8556.00,1.29
8555.00,1.28
8554.00,1.28
8553.00,1.28
8552.00,1.28
8551.00,1.28
8550.00,1.29
8549.00,1.29
8548.00,1.29
8547.00,1.29
8546.00,1.29
8545.00,1.29
8544.00,1.29
8543.00,1.29
8542.00,1.29
8541.00,1.29
8540.00,1.29
8539.00,1.29
8538.00,1.30
8537.00,1.30
8536.00,1.30
8535.00,1.30
8534.00,1.30
8533.00,1.30
8532.00,1.30
8531.00,1.30
8530.00,1.30
8529.00,1.30
8528.00,1.30
8527.00,1.30
8526.00,1.30
8525.00,1.30
8524.00,1.30
8523.00,1.29
8522.00,1.29
8521.00,1.29
8520.00,1.29
8519.00,1.29
8518.00,1.29
8517.00,1.29
8516.00,1.28
8515.00,1.28
8514.00,1.28
8513.00,1.28
8512.00,1.28
8511.00,1.28
8510.00,1.28
8509.00,1.28
8508.00,1.28
8507.00,1.28
8506.00,1.28
8505.00,1.28
8504.00,1.28
8503.00,1.28
8502.00,1.28
8501.00,1.28
8500.00,1.28
8499.00,1.28
8498.00,1.28
8497.00,1.28
8496.00,1.28
8495.00,1.28
8494.00,1.28
8493.00,1.28
8492.00,1.28
8491.00,1.28
8490.00,1.27
8489.00,1.27
8488.00,1.27
8487.00,1.27
8486.00,1.27
8485.00,1.27
8484.00,1.27
8483.00,1.26
8482.00,1.26
8481.00,1.26
8480.00,1.26
8479.00,1.26
8478.00,1.26
8477.00,1.26
8476.00,1.26
8475.00,1.26
8474.00,1.26
8473.00,1.26
8472.00,1.26
8471.00,1.26
8470.00,1.26
8469.00,1.26
8468.00,1.26
8467.00,1.26
8466.00,1.25
8465.00,1.25
8464.00,1.25
8463.00,1.25
8462.00,1.25
8461.00,1.25
8460.00,1.25
8459.00,1.24
8458.00,1.24
8457.00,1.24
8456.00,1.24
8455.00,1.24
8454.00,1.24
8453.00,1.24
8452.00,1.24
8451.00,1.23
8450.00,1.23
8449.00,1.23
8448.00,1.23
8447.00,1.23
8446.00,1.23
8445.00,1.23
8444.00,1.23
8443.00,1.23
8442.00,1.23
8441.00,1.23
8440.00,1.23
8439.00,1.24
8438.00,1.24
8437.00,1.24
8436.00,1.24
8435.00,1.24
8434.00,1.24
8433.00,1.24
8432.00,1.24
8431.00,1.25
8430.00,1.25
8429.00,1.25
8428.00,1.25
8427.00,1.25
8426.00,1.25
8425.00,1.25
8424.00,1.25
8423.00,1.25
8422.00,1.25
8421.00,1.25
8420.00,1.25
8419.00,1.25
8418.00,1.25
8417.00,1.25
8416.00,1.25
8415.00,1.25
8414.00,1.25
8413.00,1.25
8412.00,1.25
8411.00,1.25
8410.00,1.25
8409.00,1.25
8408.00,1.26
8407.00,1.26
8406.00,1.26
8405.00,1.26
8404.00,1.26
8403.00,1.26
8402.00,1.26
8401.00,1.26
8400.00,1.26
8399.00,1.26
8398.00,1.26
8397.00,1.26
8396.00,1.27
8395.00,1.27
8394.00,1.27
8393.00,1.27
8392.00,1.27
8391.00,1.27
8390.00,1.27
8389.00,1.27
8388.00,1.27
8387.00,1.27
8386.00,1.27
8385.00,1.27
8384.00,1.27
8383.00,1.27
8382.00,1.27
8381.00,1.27
8380.00,1.27
8379.00,1.27
8378.00,1.27
8377.00,1.27
8376.00,1.27
8375.00,1.27
8374.00,1.27
8373.00,1.27
8372.00,1.27
8371.00,1.27
8370.00,1.28
8369.00,1.28
8368.00,1.28
8367.00,1.28
8366.00,1.28
8365.00,1.28
8364.00,1.28
8363.00,1.28
8362.00,1.28
8361.00,1.28
8360.00,1.28
8359.00,1.28
8358.00,1.28
8357.00,1.28
8356.00,1.28
8355.00,1.28
8354.00,1.28
8353.00,1.28
8352.00,1.28
8351.00,1.28
8350.00,1.28
8349.00,1.28
8348.00,1.28
8347.00,1.28
8346.00,1.28
8345.00,1.28
8344.00,1.28
8343.00,1.28
8342.00,1.28
8341.00,1.28
8340.00,1.28
8339.00,1.28
8338.00,1.28
8337.00,1.28
8336.00,1.28
8335.00,1.28
8334.00,1.28
8333.00,1.28
8332.00,1.28
8331.00,1.28
8330.00,1.28
8329.00,1.28
8328.00,1.28
8327.00,1.28
8326.00,1.28
8325.00,1.29
8324.00,1.29
8323.00,1.29
8322.00,1.29
8321.00,1.29
8320.00,1.29
8319.00,1.29
8318.00,1.29
8317.00,1.29
8316.00,1.29
8315.00,1.29
8314.00,1.29
8313.00,1.29
8312.00,1.29
8311.00,1.29
8310.00,1.29
8309.00,1.29
8308.00,1.29
8307.00,1.29
8306.00,1.29
8305.00,1.29
8304.00,1.29
8303.00,1.29
8302.00,1.29
8301.00,1.29
8300.00,1.29
8299.00,1.29
8298.00,1.29
8297.00,1.28
8296.00,1.28
8295.00,1.28
8294.00,1.28
8293.00,1.28
8292.00,1.28
8291.00,1.28
8290.00,1.28
8289.00,1.28
8288.00,1.28
8287.00,1.29
8286.00,1.29
8285.00,1.29
8284.00,1.29
8283.00,1.29
8282.00,1.29
8281.00,1.29
8280.00,1.29
8279.00,1.29
8278.00,1.30
8277.00,1.30
8276.00,1.30
8275.00,1.30
8274.00,1.30
8273.00,1.30
8272.00,1.30
8271.00,1.31
8270.00,1.31
8269.00,1.31
8268.00,1.31
8267.00,1.31
8266.00,1.31
8265.00,1.31
8264.00,1.31
8263.00,1.31
8262.00,1.31
8261.00,1.31
8260.00,1.31
8259.00,1.31
8258.00,1.30
8257.00,1.30
8256.00,1.30
8255.00,1.30
8254.00,1.30
8253.00,1.30
8252.00,1.30
8251.00,1.30
8250.00,1.30
8249.00,1.30
8248.00,1.30
8247.00,1.30
8246.00,1.30
8245.00,1.30
8244.00,1.30
8243.00,1.30
8242.00,1.30
8241.00,1.30
8240.00,1.30
8239.00,1.30
8238.00,1.30
8237.00,1.30
8236.00,1.30
8235.00,1.31
8234.00,1.31
8233.00,1.31
8232.00,1.31
8231.00,1.31
8230.00,1.31
8229.00,1.31
8228.00,1.31
8227.00,1.31
8226.00,1.31
8225.00,1.31
8224.00,1.31
8223.00,1.31
8222.00,1.31
8221.00,1.31
8220.00,1.31
8219.00,1.31
8218.00,1.31
8217.00,1.31
8216.00,1.32
8215.00,1.32
8214.00,1.32
8213.00,1.32
8212.00,1.32
8211.00,1.32
8210.00,1.32
8209.00,1.32
8208.00,1.32
8207.00,1.32
8206.00,1.32
8205.00,1.32
8204.00,1.32
8203.00,1.32
8202.00,1.32
8201.00,1.32
8200.00,1.32
8199.00,1.32
8198.00,1.33
8197.00,1.33
8196.00,1.33
8195.00,1.33
8194.00,1.33
8193.00,1.33
8192.00,1.33
8191.00,1.33
8190.00,1.33
8189.00,1.33
8188.00,1.33
8187.00,1.33
8186.00,1.33
8185.00,1.33
8184.00,1.33
8183.00,1.34
8182.00,1.34
8181.00,1.34
8180.00,1.34
8179.00,1.34
8178.00,1.34
8177.00,1.34
8176.00,1.34
8175.00,1.34
8174.00,1.34
8173.00,1.34
8172.00,1.34
8171.00,1.34
8170.00,1.34
8169.00,1.34
8168.00,1.34
8167.00,1.34
8166.00,1.34
8165.00,1.34
8164.00,1.34
8163.00,1.34
8162.00,1.34
8161.00,1.34
8160.00,1.34
8159.00,1.34
8158.00,1.34
8157.00,1.34
8156.00,1.34
8155.00,1.34
8154.00,1.34
8153.00,1.34
8152.00,1.34
8151.00,1.34
8150.00,1.34
8149.00,1.34
8148.00,1.34
8147.00,1.34
8146.00,1.34
8145.00,1.34
8144.00,1.34
8143.00,1.34
8142.00,1.34
8141.00,1.34
8140.00,1.34
8139.00,1.34
8138.00,1.34
8137.00,1.34
8136.00,1.34
8135.00,1.35
8134.00,1.35
8133.00,1.35
8132.00,1.35
8131.00,1.35
8130.00,1.35
8129.00,1.35
8128.00,1.35
8127.00,1.35
8126.00,1.35
8125.00,1.35
8124.00,1.35
8123.00,1.35
8122.00,1.35
8121.00,1.35
8120.00,1.36
8119.00,1.36
8118.00,1.36
8117.00,1.36
8116.00,1.36
8115.00,1.36
8114.00,1.36
8113.00,1.36
8112.00,1.36
8111.00,1.36
8110.00,1.36
8109.00,1.36
8108.00,1.36
8107.00,1.36
8106.00,1.36
8105.00,1.37
8104.00,1.37
8103.00,1.37
8102.00,1.37
8101.00,1.37
8100.00,1.37
8099.00,1.37
8098.00,1.37
8097.00,1.37
8096.00,1.37
8095.00,1.37
8094.00,1.37
8093.00,1.37
8092.00,1.37
8091.00,1.37
8090.00,1.37
8089.00,1.36
8088.00,1.36
8087.00,1.36
8086.00,1.36
8085.00,1.36
8084.00,1.36
8083.00,1.36
8082.00,1.36
8081.00,1.37
8080.00,1.37
8079.00,1.37
8078.00,1.37
8077.00,1.37
8076.00,1.37
8075.00,1.37
8074.00,1.37
8073.00,1.37
8072.00,1.37
8071.00,1.36
8070.00,1.36
8069.00,1.36
8068.00,1.36
8067.00,1.36
8066.00,1.36
8065.00,1.36
8064.00,1.36
8063.00,1.36
8062.00,1.36
8061.00,1.36
8060.00,1.36
8059.00,1.36
8058.00,1.36
8057.00,1.36
8056.00,1.36
8055.00,1.36
8054.00,1.36
8053.00,1.36
8052.00,1.36
8051.00,1.36
8050.00,1.36
8049.00,1.36
8048.00,1.36
8047.00,1.37
8046.00,1.37
8045.00,1.37
8044.00,1.37
8043.00,1.37
8042.00,1.37
8041.00,1.37
8040.00,1.37
8039.00,1.37
8038.00,1.37
8037.00,1.37
8036.00,1.37
8035.00,1.37
8034.00,1.37
8033.00,1.37
8032.00,1.37
8031.00,1.37
8030.00,1.37
8029.00,1.37
8028.00,1.37
8027.00,1.37
8026.00,1.37
8025.00,1.37
8024.00,1.37
8023.00,1.37
8022.00,1.37
8021.00,1.37
8020.00,1.37
8019.00,1.37
8018.00,1.37
8017.00,1.37
8016.00,1.37
8015.00,1.37
8014.00,1.37
8013.00,1.37
8012.00,1.37
8011.00,1.37
8010.00,1.37
8009.00,1.38
8008.00,1.38
8007.00,1.38
8006.00,1.38
8005.00,1.38
8004.00,1.38
8003.00,1.38
8002.00,1.38
8001.00,1.38
8000.00,1.38
7999.00,1.38
7998.00,1.38
7997.00,1.38
7996.00,1.38
7995.00,1.38
7994.00,1.38
7993.00,1.38
7992.00,1.38
7991.00,1.38
7990.00,1.38
7989.00,1.38
7988.00,1.38
7987.00,1.38
7986.00,1.38
7985.00,1.38
7984.00,1.38
7983.00,1.38
7982.00,1.38
7981.00,1.38
7980.00,1.38
7979.00,1.38
7978.00,1.38
7977.00,1.38
7976.00,1.38
7975.00,1.38
7974.00,1.38
7973.00,1.38
7972.00,1.38
7971.00,1.38
7970.00,1.38
7969.00,1.38
7968.00,1.38
7967.00,1.38
7966.00,1.38
7965.00,1.38
7964.00,1.38
7963.00,1.38
7962.00,1.38
7961.00,1.38
7960.00,1.38
7959.00,1.38
7958.00,1.38
7957.00,1.38
7956.00,1.38
7955.00,1.38
7954.00,1.38
7953.00,1.38
7952.00,1.39
7951.00,1.39
7950.00,1.39
7949.00,1.39
7948.00,1.39
7947.00,1.39
7946.00,1.39
7945.00,1.39
7944.00,1.39
7943.00,1.40
7942.00,1.40
7941.00,1.40
7940.00,1.40
7939.00,1.40
7938.00,1.40
7937.00,1.40
7936.00,1.40
7935.00,1.40
7934.00,1.40
7933.00,1.40
7932.00,1.40
7931.00,1.40
7930.00,1.40
7929.00,1.40
7928.00,1.40
7927.00,1.40
7926.00,1.40
7925.00,1.40
7924.00,1.40
7923.00,1.40
7922.00,1.40
7921.00,1.40
7920.00,1.40
7919.00,1.40
7918.00,1.40
7917.00,1.40
7916.00,1.40
7915.00,1.40
7914.00,1.40
7913.00,1.40
7912.00,1.40
7911.00,1.40
7910.00,1.40
7909.00,1.39
7908.00,1.39
7907.00,1.39
7906.00,1.39
7905.00,1.39
7904.00,1.39
7903.00,1.39
7902.00,1.39
7901.00,1.39
7900.00,1.40
7899.00,1.40
7898.00,1.40
7897.00,1.40
7896.00,1.40
7895.00,1.40
7894.00,1.40
7893.00,1.40
7892.00,1.40
7891.00,1.40
7890.00,1.40
7889.00,1.40
7888.00,1.40
7887.00,1.40
7886.00,1.40
7885.00,1.40
7884.00,1.40
7883.00,1.40
7882.00,1.40
7881.00,1.40
7880.00,1.40
7879.00,1.40
7878.00,1.40
7877.00,1.40
7876.00,1.40
7875.00,1.41
7874.00,1.41
7873.00,1.41
7872.00,1.41
7871.00,1.41
7870.00,1.40
7869.00,1.40
7868.00,1.40
7867.00,1.40
7866.00,1.40
7865.00,1.40
7864.00,1.40
7863.00,1.40
7862.00,1.40
7861.00,1.40
7860.00,1.40
7859.00,1.40
7858.00,1.40
7857.00,1.40
7856.00,1.40
7855.00,1.40
7854.00,1.40
7853.00,1.40
7852.00,1.40
7851.00,1.40
7850.00,1.40
7849.00,1.40
7848.00,1.40
7847.00,1.40
7846.00,1.40
7845.00,1.40
7844.00,1.40
7843.00,1.40
7842.00,1.40
7841.00,1.40
7840.00,1.40
7839.00,1.40
7838.00,1.40
7837.00,1.40
7836.00,1.40
7835.00,1.40
7834.00,1.40
7833.00,1.40
7832.00,1.40
7831.00,1.40
7830.00,1.41
7829.00,1.41
7828.00,1.41
7827.00,1.41
7826.00,1.41
7825.00,1.41
7824.00,1.41
7823.00,1.41
7822.00,1.41
7821.00,1.41
7820.00,1.41
7819.00,1.41
7818.00,1.41
7817.00,1.41
7816.00,1.41
7815.00,1.41
7814.00,1.41
7813.00,1.41
7812.00,1.41
7811.00,1.41
7810.00,1.41
7809.00,1.41
7808.00,1.41
7807.00,1.41
7806.00,1.41
7805.00,1.41
7804.00,1.41
7803.00,1.41
7802.00,1.41
7801.00,1.41
7800.00,1.41
7799.00,1.41
7798.00,1.41
7797.00,1.41
7796.00,1.41
7795.00,1.41
7794.00,1.41
7793.00,1.41
7792.00,1.41
7791.00,1.41
7790.00,1.41
7789.00,1.41
7788.00,1.41
7787.00,1.41
7786.00,1.41
7785.00,1.41
7784.00,1.41
7783.00,1.41
7782.00,1.41
7781.00,1.41
7780.00,1.41
7779.00,1.41
7778.00,1.41
7777.00,1.41
7776.00,1.41
7775.00,1.41
7774.00,1.41
7773.00,1.41
7772.00,1.41
7771.00,1.41
7770.00,1.41
7769.00,1.41
7768.00,1.41
7767.00,1.41
7766.00,1.41
7765.00,1.41
7764.00,1.41
7763.00,1.41
7762.00,1.41
7761.00,1.41
7760.00,1.41
7759.00,1.41
7758.00,1.41
7757.00,1.42
7756.00,1.42
7755.00,1.42
7754.00,1.42
7753.00,1.42
7752.00,1.42
7751.00,1.42
7750.00,1.42
7749.00,1.42
7748.00,1.42
7747.00,1.42
7746.00,1.42
7745.00,1.42
7744.00,1.42
7743.00,1.42
7742.00,1.42
7741.00,1.42
7740.00,1.42
7739.00,1.42
7738.00,1.42
7737.00,1.42
7736.00,1.42
7735.00,1.42
7734.00,1.42
7733.00,1.42
7732.00,1.42
7731.00,1.42
7730.00,1.42
7729.00,1.42
7728.00,1.43
7727.00,1.43
7726.00,1.43
7725.00,1.43
7724.00,1.43
7723.00,1.43
7722.00,1.43
7721.00,1.43
7720.00,1.42
7719.00,1.42
7718.00,1.42
7717.00,1.42
7716.00,1.42
7715.00,1.42
7714.00,1.42
7713.00,1.42
7712.00,1.42
7711.00,1.42
7710.00,1.42
7709.00,1.42
7708.00,1.42
7707.00,1.42
7706.00,1.42
7705.00,1.42
7704.00,1.42
7703.00,1.42
7702.00,1.42
7701.00,1.42
7700.00,1.42
7699.00,1.42
7698.00,1.42
7697.00,1.42
7696.00,1.42
7695.00,1.42
7694.00,1.42
7693.00,1.42
7692.00,1.42
7691.00,1.42
7690.00,1.42
7689.00,1.42
7688.00,1.42
7687.00,1.42
7686.00,1.42
7685.00,1.42
7684.00,1.42
7683.00,1.42
7682.00,1.42
7681.00,1.42
7680.00,1.42
7679.00,1.42
7678.00,1.42
7677.00,1.42
7676.00,1.42
7675.00,1.42
7674.00,1.43
7673.00,1.43
7672.00,1.43
7671.00,1.43
7670.00,1.43
7669.00,1.43
7668.00,1.43
7667.00,1.43
7666.00,1.42
7665.00,1.42
7664.00,1.42
7663.00,1.42
7662.00,1.42
7661.00,1.42
7660.00,1.42
7659.00,1.42
7658.00,1.42
7657.00,1.42
7656.00,1.42
7655.00,1.42
7654.00,1.42
7653.00,1.42
7652.00,1.42
7651.00,1.42
7650.00,1.42
7649.00,1.42
7648.00,1.42
7647.00,1.42
7646.00,1.42
7645.00,1.42
7644.00,1.42
7643.00,1.42
7642.00,1.42
7641.00,1.42
7640.00,1.42
7639.00,1.42
7638.00,1.42
7637.00,1.42
7636.00,1.42
7635.00,1.42
7634.00,1.42
7633.00,1.42
7632.00,1.42
7631.00,1.42
7630.00,1.42
7629.00,1.42
7628.00,1.42
7627.00,1.42
7626.00,1.42
7625.00,1.42
7624.00,1.42
7623.00,1.42
7622.00,1.42
7621.00,1.42
7620.00,1.42
7619.00,1.42
7618.00,1.42
7617.00,1.42
7616.00,1.42
7615.00,1.42
7614.00,1.42
7613.00,1.42
7612.00,1.43
7611.00,1.43
7610.00,1.43
7609.00,1.43
7608.00,1.43
7607.00,1.43
7606.00,1.43
7605.00,1.43
7604.00,1.43
7603.00,1.43
7602.00,1.43
7601.00,1.43
7600.00,1.43
7599.00,1.42
7598.00,1.42
7597.00,1.42
7596.00,1.42
7595.00,1.42
7594.00,1.42
7593.00,1.42
7592.00,1.42
7591.00,1.42
7590.00,1.42
7589.00,1.42
7588.00,1.42
7587.00,1.42
7586.00,1.42
7585.00,1.42
7584.00,1.42
7583.00,1.42
7582.00,1.42
7581.00,1.42
7580.00,1.42
7579.00,1.42
7578.00,1.42
7577.00,1.42
7576.00,1.42
7575.00,1.42
7574.00,1.42
7573.00,1.42
7572.00,1.42
7571.00,1.42
7570.00,1.42
7569.00,1.42
7568.00,1.42
7567.00,1.42
7566.00,1.42
7565.00,1.42
7564.00,1.42
7563.00,1.42
7562.00,1.42
7561.00,1.42
7560.00,1.42
7559.00,1.42
7558.00,1.42
7557.00,1.42
7556.00,1.41
7555.00,1.41
7554.00,1.41
7553.00,1.41
7552.00,1.41
7551.00,1.41
7550.00,1.41
7549.00,1.41
7548.00,1.41
7547.00,1.41
7546.00,1.41
7545.00,1.40
7544.00,1.40
7543.00,1.40
7542.00,1.40
7541.00,1.40
7540.00,1.40
7539.00,1.40
7538.00,1.40
7537.00,1.40
7536.00,1.40
7535.00,1.40
7534.00,1.40
7533.00,1.40
7532.00,1.40
7531.00,1.40
7530.00,1.40
7529.00,1.40
7528.00,1.40
7527.00,1.40
7526.00,1.40
7525.00,1.40
7524.00,1.40
7523.00,1.40
7522.00,1.40
7521.00,1.40
7520.00,1.40
7519.00,1.40
7518.00,1.40
7517.00,1.40
7516.00,1.40
7515.00,1.40
7514.00,1.39
7513.00,1.39
7512.00,1.39
7511.00,1.39
7510.00,1.39
7509.00,1.39
7508.00,1.39
7507.00,1.39
7506.00,1.39
7505.00,1.39
7504.00,1.39
7503.00,1.39
7502.00,1.39
7501.00,1.39
7500.00,1.39
7499.00,1.39
7498.00,1.39
7497.00,1.39
7496.00,1.39
7495.00,1.39
7494.00,1.39
7493.00,1.39
7492.00,1.39
7491.00,1.39
7490.00,1.39
7489.00,1.39
7488.00,1.38
7487.00,1.38
7486.00,1.38
7485.00,1.38
7484.00,1.38
7483.00,1.38
7482.00,1.38
7481.00,1.38
7480.00,1.37
7479.00,1.37
7478.00,1.37
7477.00,1.37
7476.00,1.37
7475.00,1.37
7474.00,1.37
7473.00,1.37
7472.00,1.37
7471.00,1.36
7470.00,1.36
7469.00,1.36
7468.00,1.36
7467.00,1.36
7466.00,1.36
7465.00,1.36
7464.00,1.36
7463.00,1.36
7462.00,1.36
7461.00,1.36
7460.00,1.36
7459.00,1.36
7458.00,1.36
7457.00,1.36
7456.00,1.36
7455.00,1.36
7454.00,1.36
7453.00,1.36
7452.00,1.36
7451.00,1.36
7450.00,1.36
7449.00,1.36
7448.00,1.36
7447.00,1.36
7446.00,1.36
7445.00,1.36
7444.00,1.36
7443.00,1.36
7442.00,1.36
7441.00,1.35
7440.00,1.35
7439.00,1.35
7438.00,1.35
7437.00,1.35
7436.00,1.35
7435.00,1.35
7434.00,1.35
7433.00,1.35
7432.00,1.35
7431.00,1.35
7430.00,1.35
7429.00,1.35
7428.00,1.35
7427.00,1.35
7426.00,1.35
7425.00,1.35
7424.00,1.35
7423.00,1.35
7422.00,1.35
7421.00,1.35
7420.00,1.35
7419.00,1.35
7418.00,1.35
7417.00,1.35
7416.00,1.35
7415.00,1.35
7414.00,1.35
7413.00,1.35
7412.00,1.35
7411.00,1.34
7410.00,1.34
7409.00,1.34
7408.00,1.34
7407.00,1.34
7406.00,1.34
7405.00,1.34
7404.00,1.34
7403.00,1.33
7402.00,1.33
7401.00,1.33
7400.00,1.33
7399.00,1.33
7398.00,1.33
7397.00,1.32
7396.00,1.32
7395.00,1.32
7394.00,1.32
7393.00,1.32
7392.00,1.31
7391.00,1.31
7390.00,1.31
7389.00,1.31
7388.00,1.30
7387.00,1.30
7386.00,1.30
7385.00,1.30
7384.00,1.30
7383.00,1.29
7382.00,1.29
7381.00,1.29
7380.00,1.29
7379.00,1.29
7378.00,1.29
7377.00,1.29
7376.00,1.29
7375.00,1.29
7374.00,1.29
7373.00,1.29
7372.00,1.29
7371.00,1.29
7370.00,1.29
7369.00,1.29
7368.00,1.29
7367.00,1.29
7366.00,1.29
7365.00,1.29
7364.00,1.29
7363.00,1.29
7362.00,1.29
7361.00,1.29
7360.00,1.29
7359.00,1.29
7358.00,1.29
7357.00,1.29
7356.00,1.29
7355.00,1.28
7354.00,1.28
7353.00,1.28
7352.00,1.28
7351.00,1.28
7350.00,1.28
7349.00,1.28
7348.00,1.28
7347.00,1.28
7346.00,1.28
7345.00,1.28
7344.00,1.28
7343.00,1.28
7342.00,1.28
7341.00,1.28
7340.00,1.28
7339.00,1.28
7338.00,1.28
7337.00,1.28
7336.00,1.28
7335.00,1.28
7334.00,1.28
7333.00,1.28
7332.00,1.28
7331.00,1.28
7330.00,1.28
7329.00,1.28
7328.00,1.28
7327.00,1.27
7326.00,1.27
7325.00,1.27
7324.00,1.27
7323.00,1.27
7322.00,1.27
7321.00,1.27
7320.00,1.27
7319.00,1.27
7318.00,1.27
7317.00,1.27
7316.00,1.27
7315.00,1.27
7314.00,1.27
7313.00,1.27
7312.00,1.27
7311.00,1.27
7310.00,1.27
7309.00,1.27
7308.00,1.27
7307.00,1.26
7306.00,1.26
7305.00,1.26
7304.00,1.26
7303.00,1.26
7302.00,1.26
7301.00,1.26
7300.00,1.26
7299.00,1.26
7298.00,1.25
7297.00,1.25
7296.00,1.25
7295.00,1.25
7294.00,1.25
7293.00,1.25
7292.00,1.25
7291.00,1.24
7290.00,1.24
7289.00,1.24
7288.00,1.24
7287.00,1.24
7286.00,1.24
7285.00,1.24
7284.00,1.24
7283.00,1.24
7282.00,1.23
7281.00,1.23
7280.00,1.23
7279.00,1.23
7278.00,1.23
7277.00,1.23
7276.00,1.23
7275.00,1.23
7274.00,1.23
7273.00,1.23
7272.00,1.23
7271.00,1.22
7270.00,1.22
7269.00,1.22
7268.00,1.22
7267.00,1.22
7266.00,1.22
7265.00,1.22
7264.00,1.21
7263.00,1.21
7262.00,1.21
7261.00,1.21
7260.00,1.21
7259.00,1.21
7258.00,1.20
7257.00,1.20
7256.00,1.20
7255.00,1.20
7254.00,1.19
7253.00,1.19
7252.00,1.19
7251.00,1.19
7250.00,1.18
7249.00,1.18
7248.00,1.18
7247.00,1.17
7246.00,1.17
7245.00,1.17
7244.00,1.16
7243.00,1.16
7242.00,1.16
7241.00,1.15
7240.00,1.15
7239.00,1.15
7238.00,1.14
7237.00,1.14
7236.00,1.14
7235.00,1.13
7234.00,1.13
7233.00,1.13
7232.00,1.13
7231.00,1.12
7230.00,1.12
7229.00,1.12
7228.00,1.11
7227.00,1.11
7226.00,1.11
7225.00,1.10
7224.00,1.10
7223.00,1.10
7222.00,1.09
7221.00,1.09
7220.00,1.09
7219.00,1.08
7218.00,1.08
7217.00,1.07
7216.00,1.07
7215.00,1.07
7214.00,1.06
7213.00,1.06
7212.00,1.05
7211.00,1.05
7210.00,1.05
7209.00,1.04
7208.00,1.04
7207.00,1.03
7206.00,1.03
7205.00,1.03
7204.00,1.02
7203.00,1.02
7202.00,1.02
7201.00,1.01
7200.00,1.01
7199.00,1.01
7198.00,1.00
7197.00,1.00
7196.00,1.00
7195.00,0.99
7194.00,0.99
7193.00,0.98
7192.00,0.98
7191.00,0.98
7190.00,0.97
7189.00,0.97
7188.00,0.97
7187.00,0.96
7186.00,0.96
7185.00,0.95
7184.00,0.95
7183.00,0.94
7182.00,0.94
7181.00,0.94
7180.00,0.93
7179.00,0.93
7178.00,0.92
7177.00,0.92
7176.00,0.91
7175.00,0.91
7174.00,0.90
7173.00,0.90
7172.00,0.90
7171.00,0.89
7170.00,0.89
7169.00,0.88
7168.00,0.88
7167.00,0.88
7166.00,0.87
7165.00,0.87
7164.00,0.87
7163.00,0.87
7162.00,0.86
7161.00,0.86
7160.00,0.86
7159.00,0.86
7158.00,0.85
7157.00,0.85
7156.00,0.85
7155.00,0.85
7154.00,0.84
7153.00,0.84
7152.00,0.84
7151.00,0.84
7150.00,0.83
7149.00,0.83
7148.00,0.83
7147.00,0.82
7146.00,0.82
7145.00,0.82
7144.00,0.81
7143.00,0.81
7142.00,0.81
7141.00,0.80
7140.00,0.80
7139.00,0.80
7138.00,0.79
7137.00,0.79
7136.00,0.79
7135.00,0.78
7134.00,0.78
7133.00,0.78
7132.00,0.77
7131.00,0.77
7130.00,0.77
7129.00,0.76
7128.00,0.76
7127.00,0.76
7126.00,0.76
7125.00,0.75
7124.00,0.75
7123.00,0.75
7122.00,0.75
7121.00,0.74
7120.00,0.74
7119.00,0.74
7118.00,0.74
7117.00,0.73
7116.00,0.73
7115.00,0.73
7114.00,0.73
7113.00,0.72
7112.00,0.72
7111.00,0.72
7110.00,0.72
7109.00,0.71
7108.00,0.71
7107.00,0.71
7106.00,0.71
7105.00,0.70
7104.00,0.70
7103.00,0.70
7102.00,0.70
7101.00,0.70
7100.00,0.69
7099.00,0.69
7098.00,0.69
7097.00,0.69
7096.00,0.69
7095.00,0.69
7094.00,0.68
7093.00,0.68
7092.00,0.68
7091.00,0.68
7090.00,0.68
7089.00,0.68
7088.00,0.67
7087.00,0.67
7086.00,0.67
7085.00,0.67
7084.00,0.67
7083.00,0.67
7082.00,0.67
7081.00,0.67
7080.00,0.66
7079.00,0.66
7078.00,0.66
7077.00,0.66
7076.00,0.66
7075.00,0.66
7074.00,0.65
7073.00,0.65
7072.00,0.65
7071.00,0.65
7070.00,0.65
7069.00,0.65
7068.00,0.64
7067.00,0.64
7066.00,0.64
7065.00,0.64
7064.00,0.64
7063.00,0.63
7062.00,0.63
7061.00,0.63
7060.00,0.63
7059.00,0.63
7058.00,0.63
7057.00,0.63
7056.00,0.62
7055.00,0.62
7054.00,0.62
7053.00,0.62
7052.00,0.62
7051.00,0.62
7050.00,0.62
7049.00,0.62
7048.00,0.61
7047.00,0.61
7046.00,0.61
7045.00,0.61
7044.00,0.61
7043.00,0.61
7042.00,0.61
7041.00,0.61
7040.00,0.60
7039.00,0.60
7038.00,0.60
7037.00,0.60
7036.00,0.60
7035.00,0.60
7034.00,0.60
7033.00,0.60
7032.00,0.60
7031.00,0.59
7030.00,0.59
7029.00,0.59
7028.00,0.59
7027.00,0.59
7026.00,0.59
7025.00,0.59
7024.00,0.59
7023.00,0.59
7022.00,0.59
7021.00,0.59
7020.00,0.59
7019.00,0.59
7018.00,0.59
7017.00,0.59
7016.00,0.59
7015.00,0.59
7014.00,0.59
7013.00,0.59
7012.00,0.59
7011.00,0.59
7010.00,0.59
7009.00,0.59
7008.00,0.59
7007.00,0.59
7006.00,0.59
7005.00,0.58
7004.00,0.58
7003.00,0.58
7002.00,0.58
7001.00,0.58
7000.00,0.58
6999.00,0.58
6998.00,0.58
6997.00,0.58
6996.00,0.58
6995.00,0.58
6994.00,0.58
6993.00,0.58
6992.00,0.58
6991.00,0.57
6990.00,0.57
6989.00,0.57
6988.00,0.57
6987.00,0.57
6986.00,0.57
6985.00,0.57
6984.00,0.57
6983.00,0.57
6982.00,0.57
6981.00,0.57
6980.00,0.57
6979.00,0.57
6978.00,0.57
6977.00,0.57
6976.00,0.57
6975.00,0.57
6974.00,0.57
6973.00,0.57
6972.00,0.57
6971.00,0.57
6970.00,0.57
6969.00,0.57
6968.00,0.57
6967.00,0.56
6966.00,0.56
6965.00,0.56
6964.00,0.56
6963.00,0.56
6962.00,0.56
6961.00,0.56
6960.00,0.56
6959.00,0.56
6958.00,0.56
6957.00,0.56
6956.00,0.56
6955.00,0.56
6954.00,0.56
6953.00,0.55
6952.00,0.55
6951.00,0.55
6950.00,0.55
6949.00,0.55
6948.00,0.55
6947.00,0.55
6946.00,0.55
6945.00,0.55
6944.00,0.55
6943.00,0.55
6942.00,0.55
6941.00,0.55
6940.00,0.55
6939.00,0.55
6938.00,0.55
6937.00,0.55
6936.00,0.55
6935.00,0.55
6934.00,0.55
6933.00,0.55
6932.00,0.55
6931.00,0.55
6930.00,0.55
6929.00,0.55
6928.00,0.55
6927.00,0.55
6926.00,0.55
6925.00,0.55
6924.00,0.55
6923.00,0.55
6922.00,0.55
6921.00,0.55
6920.00,0.55
6919.00,0.55
6918.00,0.55
6917.00,0.55
6916.00,0.55
6915.00,0.55
6914.00,0.55
6913.00,0.55
6912.00,0.55
6911.00,0.55
6910.00,0.55
6909.00,0.55
6908.00,0.55
6907.00,0.55
6906.00,0.55
6905.00,0.55
6904.00,0.55
6903.00,0.55
6902.00,0.55
6901.00,0.55
6900.00,0.55
6899.00,0.55
6898.00,0.55
6897.00,0.55
6896.00,0.55
6895.00,0.55
6894.00,0.55
6893.00,0.55
6892.00,0.55
6891.00,0.55
6890.00,0.55
6889.00,0.55
6888.00,0.55
6887.00,0.55
6886.00,0.55
6885.00,0.55
6884.00,0.55
6883.00,0.55
6882.00,0.55
6881.00,0.55
6880.00,0.55
6879.00,0.54
6878.00,0.54
6877.00,0.54
6876.00,0.54
6875.00,0.54
6874.00,0.54
6873.00,0.54
6872.00,0.54
6871.00,0.54
6870.00,0.54
6869.00,0.54
6868.00,0.54
6867.00,0.54
6866.00,0.54
6865.00,0.54
6864.00,0.54
6863.00,0.54
6862.00,0.54
6861.00,0.54
6860.00,0.54
6859.00,0.54
6858.00,0.54
6857.00,0.54
6856.00,0.54
6855.00,0.54
6854.00,0.54
6853.00,0.54
6852.00,0.54
6851.00,0.55
6850.00,0.55
6849.00,0.55
6848.00,0.55
6847.00,0.55
6846.00,0.55
6845.00,0.55
6844.00,0.55
6843.00,0.55
6842.00,0.55
6841.00,0.55
6840.00,0.55
6839.00,0.55
6838.00,0.55
6837.00,0.55
6836.00,0.55
6835.00,0.55
6834.00,0.55
6833.00,0.55
6832.00,0.55
6831.00,0.55
6830.00,0.55
6829.00,0.55
6828.00,0.55
6827.00,0.55
6826.00,0.55
6825.00,0.55
6824.00,0.56
6823.00,0.56
6822.00,0.56
6821.00,0.56
6820.00,0.56
6819.00,0.56
6818.00,0.56
6817.00,0.56
6816.00,0.55
6815.00,0.55
6814.00,0.55
6813.00,0.55
6812.00,0.55
6811.00,0.55
6810.00,0.55
6809.00,0.55
6808.00,0.55
6807.00,0.55
6806.00,0.55
6805.00,0.55
6804.00,0.55
6803.00,0.55
6802.00,0.55
6801.00,0.56
6800.00,0.56
6799.00,0.56
6798.00,0.56
6797.00,0.56
6796.00,0.56
6795.00,0.56
6794.00,0.56
6793.00,0.56
6792.00,0.56
6791.00,0.56
6790.00,0.57
6789.00,0.57
6788.00,0.57
6787.00,0.57
6786.00,0.57
6785.00,0.57
6784.00,0.57
6783.00,0.57
6782.00,0.57
6781.00,0.57
6780.00,0.57
6779.00,0.57
6778.00,0.57
6777.00,0.57
6776.00,0.57
6775.00,0.57
6774.00,0.57
6773.00,0.57
6772.00,0.58
6771.00,0.58
6770.00,0.58
6769.00,0.58
6768.00,0.58
6767.00,0.58
6766.00,0.58
6765.00,0.58
6764.00,0.58
6763.00,0.58
6762.00,0.58
6761.00,0.58
6760.00,0.58
6759.00,0.58
6758.00,0.58
6757.00,0.58
6756.00,0.59
6755.00,0.59
6754.00,0.59
6753.00,0.59
6752.00,0.59
6751.00,0.59
6750.00,0.59
6749.00,0.59
6748.00,0.59
6747.00,0.59
6746.00,0.59
6745.00,0.59
6744.00,0.59
6743.00,0.59
6742.00,0.59
6741.00,0.59
6740.00,0.60
6739.00,0.60
6738.00,0.60
6737.00,0.60
6736.00,0.60
6735.00,0.60
6734.00,0.60
6733.00,0.60
6732.00,0.60
6731.00,0.60
6730.00,0.60
6729.00,0.60
6728.00,0.60
6727.00,0.60
6726.00,0.61
6725.00,0.61
6724.00,0.61
6723.00,0.61
6722.00,0.61
6721.00,0.61
6720.00,0.61
6719.00,0.61
6718.00,0.62
6717.00,0.62
6716.00,0.62
6715.00,0.62
6714.00,0.62
6713.00,0.62
6712.00,0.62
6711.00,0.63
6710.00,0.63
6709.00,0.63
6708.00,0.63
6707.00,0.63
6706.00,0.63
6705.00,0.63
6704.00,0.63
6703.00,0.63
6702.00,0.63
6701.00,0.63
6700.00,0.63
6699.00,0.63
6698.00,0.63
6697.00,0.63
6696.00,0.64
6695.00,0.64
6694.00,0.64
6693.00,0.64
6692.00,0.64
6691.00,0.64
6690.00,0.64
6689.00,0.64
6688.00,0.64
6687.00,0.64
6686.00,0.64
6685.00,0.64
6684.00,0.65
6683.00,0.65
6682.00,0.65
6681.00,0.65
6680.00,0.65
6679.00,0.65
6678.00,0.65
6677.00,0.65
6676.00,0.65
6675.00,0.65
6674.00,0.65
6673.00,0.65
6672.00,0.65
6671.00,0.66
6670.00,0.66
6669.00,0.66
6668.00,0.66
6667.00,0.66
6666.00,0.66
6665.00,0.66
6664.00,0.66
6663.00,0.66
6662.00,0.66
6661.00,0.67
6660.00,0.67
6659.00,0.67
6658.00,0.67
6657.00,0.67
6656.00,0.67
6655.00,0.67
6654.00,0.67
6653.00,0.67
6652.00,0.68
6651.00,0.68
6650.00,0.68
6649.00,0.68
6648.00,0.68
6647.00,0.68
6646.00,0.68
6645.00,0.68
6644.00,0.68
6643.00,0.68
6642.00,0.68
6641.00,0.69
6640.00,0.69
6639.00,0.69
6638.00,0.69
6637.00,0.69
6636.00,0.69
6635.00,0.69
6634.00,0.69
6633.00,0.69
6632.00,0.69
6631.00,0.70
6630.00,0.70
6629.00,0.70
6628.00,0.70
6627.00,0.70
6626.00,0.70
6625.00,0.70
6624.00,0.70
6623.00,0.71
6622.00,0.71
6621.00,0.71
6620.00,0.71
6619.00,0.71
6618.00,0.71
6617.00,0.71
6616.00,0.72
6615.00,0.72
6614.00,0.72
6613.00,0.72
6612.00,0.72
6611.00,0.72
6610.00,0.72
6609.00,0.72
6608.00,0.72
6607.00,0.73
6606.00,0.73
6605.00,0.73
6604.00,0.73
6603.00,0.73
6602.00,0.73
6601.00,0.73
6600.00,0.73
6599.00,0.73
6598.00,0.73
6597.00,0.73
6596.00,0.73
6595.00,0.73
6594.00,0.73
6593.00,0.73
6592.00,0.73
6591.00,0.74
6590.00,0.74
6589.00,0.74
6588.00,0.74
6587.00,0.74
6586.00,0.74
6585.00,0.74
6584.00,0.75
6583.00,0.75
6582.00,0.75
6581.00,0.75
6580.00,0.75
6579.00,0.75
6578.00,0.75
6577.00,0.76
6576.00,0.76
6575.00,0.76
6574.00,0.76
6573.00,0.76
6572.00,0.76
6571.00,0.76
6570.00,0.76
6569.00,0.76
6568.00,0.77
6567.00,0.77
6566.00,0.77
6565.00,0.77
6564.00,0.77
6563.00,0.77
6562.00,0.77
6561.00,0.77
6560.00,0.77
6559.00,0.77
6558.00,0.77
6557.00,0.77
6556.00,0.77
6555.00,0.77
6554.00,0.77
6553.00,0.77
6552.00,0.77
6551.00,0.78
6550.00,0.78
6549.00,0.78
6548.00,0.78
6547.00,0.78
6546.00,0.78
6545.00,0.78
6544.00,0.78
6543.00,0.78
6542.00,0.78
6541.00,0.79
6540.00,0.79
6539.00,0.79
6538.00,0.79
6537.00,0.79
6536.00,0.79
6535.00,0.80
6534.00,0.80
6533.00,0.80
6532.00,0.80
6531.00,0.80
6530.00,0.80
6529.00,0.80
6528.00,0.80
6527.00,0.80
6526.00,0.80
6525.00,0.81
6524.00,0.81
6523.00,0.81
6522.00,0.81
6521.00,0.81
6520.00,0.81
6519.00,0.81
6518.00,0.81
6517.00,0.81
6516.00,0.81
6515.00,0.82
6514.00,0.82
6513.00,0.82
6512.00,0.82
6511.00,0.82
6510.00,0.82
6509.00,0.82
6508.00,0.82
6507.00,0.82
6506.00,0.82
6505.00,0.82
6504.00,0.82
6503.00,0.82
6502.00,0.83
6501.00,0.83
6500.00,0.83
6499.00,0.83
6498.00,0.83
6497.00,0.83
6496.00,0.83
6495.00,0.83
6494.00,0.83
6493.00,0.83
6492.00,0.83
6491.00,0.83
6490.00,0.83
6489.00,0.83
6488.00,0.84
6487.00,0.84
6486.00,0.84
6485.00,0.84
6484.00,0.84
6483.00,0.84
6482.00,0.84
6481.00,0.85
6480.00,0.85
6479.00,0.85
6478.00,0.85
6477.00,0.85
6476.00,0.85
6475.00,0.85
6474.00,0.85
6473.00,0.85
6472.00,0.85
6471.00,0.85
6470.00,0.86
6469.00,0.86
6468.00,0.86
6467.00,0.86
6466.00,0.86
6465.00,0.86
6464.00,0.86
6463.00,0.86
6462.00,0.86
6461.00,0.86
6460.00,0.87
6459.00,0.87
6458.00,0.87
6457.00,0.87
6456.00,0.87
6455.00,0.87
6454.00,0.87
6453.00,0.87
6452.00,0.87
6451.00,0.87
6450.00,0.88
6449.00,0.88
6448.00,0.88
6447.00,0.88
6446.00,0.88
6445.00,0.88
6444.00,0.88
6443.00,0.88
6442.00,0.88
6441.00,0.88
6440.00,0.88
6439.00,0.88
6438.00,0.88
6437.00,0.88
6436.00,0.88
6435.00,0.88
6434.00,0.88
6433.00,0.88
6432.00,0.88
6431.00,0.88
6430.00,0.88
6429.00,0.88
6428.00,0.88
6427.00,0.89
6426.00,0.89
6425.00,0.89
6424.00,0.89
6423.00,0.89
6422.00,0.89
6421.00,0.89
6420.00,0.89
6419.00,0.89
6418.00,0.90
6417.00,0.90
6416.00,0.90
6415.00,0.90
6414.00,0.90
6413.00,0.90
6412.00,0.90
6411.00,0.90
6410.00,0.91
6409.00,0.91
6408.00,0.91
6407.00,0.91
6406.00,0.91
6405.00,0.91
6404.00,0.91
6403.00,0.91
6402.00,0.91
6401.00,0.91
6400.00,0.92
6399.00,0.92
6398.00,0.92
6397.00,0.92
6396.00,0.92
6395.00,0.92
6394.00,0.92
6393.00,0.92
6392.00,0.92
6391.00,0.92
6390.00,0.92
6389.00,0.92
6388.00,0.92
6387.00,0.92
6386.00,0.92
6385.00,0.92
6384.00,0.92
6383.00,0.93
6382.00,0.93
6381.00,0.93
6380.00,0.93
6379.00,0.93
6378.00,0.93
6377.00,0.93
6376.00,0.93
6375.00,0.93
6374.00,0.93
6373.00,0.93
6372.00,0.94
6371.00,0.94
6370.00,0.94
6369.00,0.94
6368.00,0.94
6367.00,0.94
6366.00,0.94
6365.00,0.94
6364.00,0.94
6363.00,0.94
6362.00,0.94
6361.00,0.94
6360.00,0.94
6359.00,0.95
6358.00,0.95
6357.00,0.95
6356.00,0.95
6355.00,0.95
6354.00,0.95
6353.00,0.95
6352.00,0.95
6351.00,0.95
6350.00,0.96
6349.00,0.96
6348.00,0.96
6347.00,0.96
6346.00,0.96
6345.00,0.96
6344.00,0.96
6343.00,0.97
6342.00,0.97
6341.00,0.97
6340.00,0.97
6339.00,0.97
6338.00,0.97
6337.00,0.97
6336.00,0.98
6335.00,0.98
6334.00,0.98
6333.00,0.98
6332.00,0.98
6331.00,0.98
6330.00,0.98
6329.00,0.98
6328.00,0.98
6327.00,0.98
6326.00,0.99
6325.00,0.99
6324.00,0.99
6323.00,0.99
6322.00,0.99
6321.00,0.99
6320.00,0.99
6319.00,0.99
6318.00,0.99
6317.00,1.00
6316.00,1.00
6315.00,1.00
6314.00,1.00
6313.00,1.00
6312.00,1.00
6311.00,1.01
6310.00,1.01
6309.00,1.01
6308.00,1.01
6307.00,1.01
6306.00,1.01
6305.00,1.02
6304.00,1.02
6303.00,1.02
6302.00,1.02
6301.00,1.02
6300.00,1.02
6299.00,1.03
6298.00,1.03
6297.00,1.03
6296.00,1.03
6295.00,1.03
6294.00,1.03
6293.00,1.03
6292.00,1.03
6291.00,1.03
6290.00,1.03
6289.00,1.04
6288.00,1.04
6287.00,1.04
6286.00,1.04
6285.00,1.04
6284.00,1.04
6283.00,1.04
6282.00,1.04
6281.00,1.04
6280.00,1.04
6279.00,1.04
6278.00,1.04
6277.00,1.05
6276.00,1.05
6275.00,1.05
6274.00,1.05
6273.00,1.05
6272.00,1.05
6271.00,1.05
6270.00,1.05
6269.00,1.05
6268.00,1.05
6267.00,1.06
6266.00,1.06
6265.00,1.06
6264.00,1.06
6263.00,1.06
6262.00,1.06
6261.00,1.07
6260.00,1.07
6259.00,1.07
6258.00,1.07
6257.00,1.07
6256.00,1.07
6255.00,1.07
6254.00,1.08
6253.00,1.08
6252.00,1.08
6251.00,1.08
6250.00,1.08
6249.00,1.08
6248.00,1.08
6247.00,1.08
6246.00,1.08
6245.00,1.09
6244.00,1.09
6243.00,1.09
6242.00,1.09
6241.00,1.09
6240.00,1.09
6239.00,1.09
6238.00,1.09
6237.00,1.09
6236.00,1.10
6235.00,1.10
6234.00,1.10
6233.00,1.10
6232.00,1.10
6231.00,1.10
6230.00,1.10
6229.00,1.10
6228.00,1.11
6227.00,1.11
6226.00,1.11
6225.00,1.11
6224.00,1.11
6223.00,1.11
6222.00,1.11
6221.00,1.11
6220.00,1.12
6219.00,1.12
6218.00,1.12
6217.00,1.12
6216.00,1.12
6215.00,1.12
6214.00,1.13
6213.00,1.13
6212.00,1.13
6211.00,1.13
6210.00,1.13
6209.00,1.13
6208.00,1.14
6207.00,1.14
6206.00,1.14
6205.00,1.14
6204.00,1.14
6203.00,1.14
6202.00,1.15
6201.00,1.15
6200.00,1.15
6199.00,1.15
6198.00,1.15
6197.00,1.15
6196.00,1.15
6195.00,1.15
6194.00,1.15
6193.00,1.16
6192.00,1.16
6191.00,1.16
6190.00,1.16
6189.00,1.16
6188.00,1.16
6187.00,1.17
6186.00,1.17
6185.00,1.17
6184.00,1.17
6183.00,1.17
6182.00,1.18
6181.00,1.18
6180.00,1.18
6179.00,1.18
6178.00,1.19
6177.00,1.19
6176.00,1.19
6175.00,1.19
6174.00,1.19
6173.00,1.19
6172.00,1.20
6171.00,1.20
6170.00,1.20
6169.00,1.20
6168.00,1.20
6167.00,1.20
6166.00,1.20
6165.00,1.20
6164.00,1.20
6163.00,1.20
6162.00,1.21
6161.00,1.21
6160.00,1.21
6159.00,1.21
6158.00,1.21
6157.00,1.21
6156.00,1.21
6155.00,1.21
6154.00,1.22
6153.00,1.22
6152.00,1.22
6151.00,1.22
6150.00,1.22
6149.00,1.23
6148.00,1.23
6147.00,1.23
6146.00,1.23
6145.00,1.23
6144.00,1.24
6143.00,1.24
6142.00,1.24
6141.00,1.24
6140.00,1.24
6139.00,1.24
6138.00,1.25
6137.00,1.25
6136.00,1.25
6135.00,1.25
6134.00,1.25
6133.00,1.25
6132.00,1.26
6131.00,1.26
6130.00,1.26
6129.00,1.26
6128.00,1.26
6127.00,1.26
6126.00,1.26
6125.00,1.26
6124.00,1.26
6123.00,1.26
6122.00,1.26
6121.00,1.27
6120.00,1.27
6119.00,1.27
6118.00,1.27
6117.00,1.27
6116.00,1.27
6115.00,1.27
6114.00,1.27
6113.00,1.27
6112.00,1.28
6111.00,1.28
6110.00,1.28
6109.00,1.28
6108.00,1.28
6107.00,1.29
6106.00,1.29
6105.00,1.29
6104.00,1.29
6103.00,1.29
6102.00,1.30
6101.00,1.30
6100.00,1.30
6099.00,1.30
6098.00,1.30
6097.00,1.30
6096.00,1.31
6095.00,1.31
6094.00,1.31
6093.00,1.31
6092.00,1.31
6091.00,1.31
6090.00,1.31
6089.00,1.31
6088.00,1.31
6087.00,1.32
6086.00,1.32
6085.00,1.32
6084.00,1.32
6083.00,1.32
6082.00,1.32
6081.00,1.32
6080.00,1.32
6079.00,1.32
6078.00,1.33
6077.00,1.33
6076.00,1.33
6075.00,1.33
6074.00,1.33
6073.00,1.33
6072.00,1.33
6071.00,1.33
6070.00,1.33
6069.00,1.33
6068.00,1.33
6067.00,1.34
6066.00,1.34
6065.00,1.34
6064.00,1.34
6063.00,1.34
6062.00,1.34
6061.00,1.34
6060.00,1.34
6059.00,1.35
6058.00,1.35
6057.00,1.35
6056.00,1.35
6055.00,1.35
6054.00,1.35
6053.00,1.35
6052.00,1.36
6051.00,1.36
6050.00,1.36
6049.00,1.36
6048.00,1.36
6047.00,1.36
6046.00,1.36
6045.00,1.36
6044.00,1.37
6043.00,1.37
6042.00,1.37
6041.00,1.37
6040.00,1.37
6039.00,1.37
6038.00,1.37
6037.00,1.37
6036.00,1.37
6035.00,1.37
6034.00,1.37
6033.00,1.37
6032.00,1.37
6031.00,1.37
6030.00,1.37
6029.00,1.37
6028.00,1.37
6027.00,1.37
6026.00,1.37
6025.00,1.37
6024.00,1.37
6023.00,1.37
6022.00,1.37
6021.00,1.38
6020.00,1.38
6019.00,1.38
6018.00,1.38
6017.00,1.38
6016.00,1.38
6015.00,1.38
6014.00,1.38
6013.00,1.38
6012.00,1.38
6011.00,1.38
6010.00,1.38
6009.00,1.38
6008.00,1.38
6007.00,1.38
6006.00,1.38
6005.00,1.38
6004.00,1.38
6003.00,1.38
6002.00,1.38
6001.00,1.37
6000.00,1.37
5999.00,1.37
5998.00,1.37
5997.00,1.37
5996.00,1.37
5995.00,1.37
5994.00,1.37
5993.00,1.37
5992.00,1.36
5991.00,1.36
5990.00,1.36
5989.00,1.36
5988.00,1.36
5987.00,1.35
5986.00,1.35
5985.00,1.35
5984.00,1.35
5983.00,1.34
5982.00,1.34
5981.00,1.34
5980.00,1.33
5979.00,1.33
5978.00,1.33
5977.00,1.32
5976.00,1.32
5975.00,1.32
5974.00,1.31
5973.00,1.31
5972.00,1.30
5971.00,1.30
5970.00,1.29
5969.00,1.29
5968.00,1.28
5967.00,1.28
5966.00,1.27
5965.00,1.27
5964.00,1.26
5963.00,1.25
5962.00,1.25
5961.00,1.24
5960.00,1.24
5959.00,1.23
5958.00,1.23
5957.00,1.22
5956.00,1.22
5955.00,1.21
5954.00,1.21
5953.00,1.20
5952.00,1.20
5951.00,1.19
5950.00,1.19
5949.00,1.18
5948.00,1.18
5947.00,1.17
5946.00,1.17
5945.00,1.17
5944.00,1.17
5943.00,1.16
5942.00,1.16
5941.00,1.16
5940.00,1.16
5939.00,1.16
5938.00,1.15
5937.00,1.15
5936.00,1.15
5935.00,1.15
5934.00,1.15
5933.00,1.15
5932.00,1.15
5931.00,1.15
5930.00,1.15
5929.00,1.14
5928.00,1.14
5927.00,1.14
5926.00,1.14
5925.00,1.14
5924.00,1.14
5923.00,1.14
5922.00,1.13
5921.00,1.13
5920.00,1.13
5919.00,1.13
5918.00,1.12
5917.00,1.12
5916.00,1.12
5915.00,1.12
5914.00,1.11
5913.00,1.11
5912.00,1.11
5911.00,1.11
5910.00,1.11
5909.00,1.10
5908.00,1.10
5907.00,1.10
5906.00,1.10
5905.00,1.10
5904.00,1.10
5903.00,1.10
5902.00,1.10
5901.00,1.10
5900.00,1.10
5899.00,1.10
5898.00,1.10
5897.00,1.10
5896.00,1.10
5895.00,1.10
5894.00,1.11
5893.00,1.11
5892.00,1.11
5891.00,1.11
5890.00,1.12
5889.00,1.12
5888.00,1.12
5887.00,1.13
5886.00,1.13
5885.00,1.13
5884.00,1.14
5883.00,1.14
5882.00,1.14
5881.00,1.14
5880.00,1.15
5879.00,1.15
5878.00,1.15
5877.00,1.15
5876.00,1.16
5875.00,1.16
5874.00,1.16
5873.00,1.16
5872.00,1.16
5871.00,1.17
5870.00,1.17
5869.00,1.17
5868.00,1.17
5867.00,1.17
5866.00,1.17
5865.00,1.18
5864.00,1.18
5863.00,1.18
5862.00,1.18
5861.00,1.18
5860.00,1.18
5859.00,1.19
5858.00,1.19
5857.00,1.19
5856.00,1.19
5855.00,1.19
5854.00,1.19
5853.00,1.19
5852.00,1.20
5851.00,1.20
5850.00,1.20
5849.00,1.20
5848.00,1.20
5847.00,1.20
5846.00,1.20
5845.00,1.20
5844.00,1.20
5843.00,1.20
5842.00,1.20
5841.00,1.20
5840.00,1.20
5839.00,1.20
5838.00,1.20
5837.00,1.20
5836.00,1.20
5835.00,1.20
5834.00,1.20
5833.00,1.20
5832.00,1.20
5831.00,1.20
5830.00,1.20
5829.00,1.20
5828.00,1.20
5827.00,1.20
5826.00,1.20
5825.00,1.20
5824.00,1.20
5823.00,1.20
5822.00,1.20
5821.00,1.20
5820.00,1.20
5819.00,1.20
5818.00,1.20
5817.00,1.20
5816.00,1.20
5815.00,1.20
5814.00,1.20
5813.00,1.20
5812.00,1.20
5811.00,1.20
5810.00,1.20
5809.00,1.20
5808.00,1.20
5807.00,1.20
5806.00,1.19
5805.00,1.19
5804.00,1.19
5803.00,1.19
5802.00,1.19
5801.00,1.19
5800.00,1.19
5799.00,1.19
5798.00,1.18
5797.00,1.18
5796.00,1.18
5795.00,1.18
5794.00,1.18
5793.00,1.18
5792.00,1.17
5791.00,1.17
5790.00,1.17
5789.00,1.17
5788.00,1.17
5787.00,1.16
5786.00,1.16
5785.00,1.16
5784.00,1.16
5783.00,1.15
5782.00,1.15
5781.00,1.15
5780.00,1.15
5779.00,1.15
5778.00,1.15
5777.00,1.15
5776.00,1.15
5775.00,1.14
5774.00,1.14
5773.00,1.14
5772.00,1.15
5771.00,1.15
5770.00,1.15
5769.00,1.15
5768.00,1.15
5767.00,1.15
5766.00,1.15
5765.00,1.16
5764.00,1.16
5763.00,1.16
5762.00,1.16
5761.00,1.17
5760.00,1.17
5759.00,1.17
5758.00,1.17
5757.00,1.18
5756.00,1.18
5755.00,1.18
5754.00,1.18
5753.00,1.19
5752.00,1.19
5751.00,1.19
5750.00,1.19
5749.00,1.20
5748.00,1.20
5747.00,1.20
5746.00,1.20
5745.00,1.21
5744.00,1.21
5743.00,1.21
5742.00,1.21
5741.00,1.21
5740.00,1.22
5739.00,1.22
5738.00,1.22
5737.00,1.22
5736.00,1.22
5735.00,1.22
5734.00,1.23
5733.00,1.23
5732.00,1.23
5731.00,1.23
5730.00,1.23
5729.00,1.23
5728.00,1.23
5727.00,1.23
5726.00,1.23
5725.00,1.23
5724.00,1.23
5723.00,1.23
5722.00,1.23
5721.00,1.23
5720.00,1.23
5719.00,1.23
5718.00,1.23
5717.00,1.23
5716.00,1.23
5715.00,1.23
5714.00,1.23
5713.00,1.23
5712.00,1.23
5711.00,1.23
5710.00,1.23
5709.00,1.23
5708.00,1.22
5707.00,1.22
5706.00,1.22
5705.00,1.22
5704.00,1.22
5703.00,1.22
5702.00,1.22
5701.00,1.21
5700.00,1.21
5699.00,1.21
5698.00,1.21
5697.00,1.21
5696.00,1.20
5695.00,1.20
5694.00,1.20
5693.00,1.20
5692.00,1.20
5691.00,1.20
5690.00,1.19
5689.00,1.19
5688.00,1.19
5687.00,1.19
5686.00,1.19
5685.00,1.19
5684.00,1.19
5683.00,1.19
5682.00,1.19
5681.00,1.19
5680.00,1.19
5679.00,1.19
5678.00,1.18
5677.00,1.18
5676.00,1.18
5675.00,1.18
5674.00,1.18
5673.00,1.19
5672.00,1.19
5671.00,1.19
5670.00,1.19
5669.00,1.19
5668.00,1.19
5667.00,1.19
5666.00,1.19
5665.00,1.19
5664.00,1.19
5663.00,1.19
5662.00,1.19
5661.00,1.19
5660.00,1.20
5659.00,1.20
5658.00,1.20
5657.00,1.20
5656.00,1.20
5655.00,1.20
5654.00,1.20
5653.00,1.20
5652.00,1.20
5651.00,1.21
5650.00,1.21
5649.00,1.21
5648.00,1.21
5647.00,1.21
5646.00,1.21
5645.00,1.22
5644.00,1.22
5643.00,1.22
5642.00,1.22
5641.00,1.22
5640.00,1.22
5639.00,1.22
5638.00,1.23
5637.00,1.23
5636.00,1.23
5635.00,1.23
5634.00,1.23
5633.00,1.23
5632.00,1.23
5631.00,1.23
5630.00,1.24
5629.00,1.24
5628.00,1.24
5627.00,1.24
5626.00,1.24
5625.00,1.24
5624.00,1.24
5623.00,1.25
5622.00,1.25
5621.00,1.25
5620.00,1.25
5619.00,1.25
5618.00,1.25
5617.00,1.25
5616.00,1.26
5615.00,1.26
5614.00,1.26
5613.00,1.26
5612.00,1.26
5611.00,1.26
5610.00,1.26
5609.00,1.27
5608.00,1.27
5607.00,1.27
5606.00,1.27
5605.00,1.27
5604.00,1.27
5603.00,1.27
5602.00,1.28
5601.00,1.28
5600.00,1.28
5599.00,1.28
5598.00,1.28
5597.00,1.28
5596.00,1.28
5595.00,1.28
5594.00,1.29
5593.00,1.29
5592.00,1.29
5591.00,1.29
5590.00,1.29
5589.00,1.29
5588.00,1.29
5587.00,1.30
5586.00,1.30
5585.00,1.30
5584.00,1.30
5583.00,1.30
5582.00,1.30
5581.00,1.30
5580.00,1.30
5579.00,1.30
5578.00,1.31
5577.00,1.31
5576.00,1.31
5575.00,1.31
5574.00,1.31
5573.00,1.31
5572.00,1.31
5571.00,1.31
5570.00,1.32
5569.00,1.32
5568.00,1.32
5567.00,1.32
5566.00,1.32
5565.00,1.32
5564.00,1.32
5563.00,1.33
5562.00,1.33
5561.00,1.33
5560.00,1.33
5559.00,1.33
5558.00,1.33
5557.00,1.33
5556.00,1.34
5555.00,1.34
5554.00,1.34
5553.00,1.34
5552.00,1.34
5551.00,1.34
5550.00,1.34
5549.00,1.35
5548.00,1.35
5547.00,1.35
5546.00,1.35
5545.00,1.35
5544.00,1.35
5543.00,1.35
5542.00,1.36
5541.00,1.36
5540.00,1.36
5539.00,1.36
5538.00,1.36
5537.00,1.36
5536.00,1.36
5535.00,1.36
5534.00,1.37
5533.00,1.37
5532.00,1.37
5531.00,1.37
5530.00,1.37
5529.00,1.37
5528.00,1.37
5527.00,1.37
5526.00,1.37
5525.00,1.37
5524.00,1.37
5523.00,1.37
5522.00,1.37
5521.00,1.38
5520.00,1.38
5519.00,1.38
5518.00,1.38
5517.00,1.38
5516.00,1.38
5515.00,1.38
5514.00,1.38
5513.00,1.38
5512.00,1.38
5511.00,1.38
5510.00,1.38
5509.00,1.38
5508.00,1.39
5507.00,1.39
5506.00,1.39
5505.00,1.39
5504.00,1.39
5503.00,1.39
5502.00,1.39
5501.00,1.39
5500.00,1.39
5499.00,1.39
5498.00,1.39
5497.00,1.39
5496.00,1.39
5495.00,1.39
5494.00,1.39
5493.00,1.39
5492.00,1.39
5491.00,1.39
5490.00,1.39
5489.00,1.39
5488.00,1.39
5487.00,1.39
5486.00,1.39
5485.00,1.39
5484.00,1.40
5483.00,1.40
5482.00,1.40
5481.00,1.40
5480.00,1.40
5479.00,1.40
5478.00,1.40
5477.00,1.41
5476.00,1.41
5475.00,1.41
5474.00,1.41
5473.00,1.41
5472.00,1.41
5471.00,1.41
5470.00,1.41
5469.00,1.41
5468.00,1.41
5467.00,1.42
5466.00,1.42
5465.00,1.42
5464.00,1.42
5463.00,1.42
5462.00,1.42
5461.00,1.42
5460.00,1.42
5459.00,1.42
5458.00,1.42
5457.00,1.42
5456.00,1.42
5455.00,1.42
5454.00,1.42
5453.00,1.42
5452.00,1.42
5451.00,1.42
5450.00,1.42
5449.00,1.42
5448.00,1.42
5447.00,1.42
5446.00,1.42
5445.00,1.42
5444.00,1.42
5443.00,1.42
5442.00,1.42
5441.00,1.42
5440.00,1.43
5439.00,1.43
5438.00,1.43
5437.00,1.43
5436.00,1.43
5435.00,1.43
5434.00,1.43
5433.00,1.43
5432.00,1.43
5431.00,1.43
5430.00,1.43
5429.00,1.43
5428.00,1.43
5427.00,1.43
5426.00,1.43
5425.00,1.43
5424.00,1.43
5423.00,1.43
5422.00,1.43
5421.00,1.43
5420.00,1.43
5419.00,1.42
5418.00,1.42
5417.00,1.42
5416.00,1.42
5415.00,1.42
5414.00,1.42
5413.00,1.42
5412.00,1.42
5411.00,1.42
5410.00,1.42
5409.00,1.42
5408.00,1.42
5407.00,1.42
5406.00,1.42
5405.00,1.42
5404.00,1.42
5403.00,1.42
5402.00,1.42
5401.00,1.42
5400.00,1.42
5399.00,1.41
5398.00,1.41
5397.00,1.41
5396.00,1.41
5395.00,1.41
5394.00,1.41
5393.00,1.41
5392.00,1.40
5391.00,1.40
5390.00,1.40
5389.00,1.40
5388.00,1.39
5387.00,1.39
5386.00,1.39
5385.00,1.38
5384.00,1.38
5383.00,1.38
5382.00,1.37
5381.00,1.37
5380.00,1.36
5379.00,1.36
5378.00,1.35
5377.00,1.35
5376.00,1.34
5375.00,1.34
5374.00,1.33
5373.00,1.32
5372.00,1.32
5371.00,1.31
5370.00,1.31
5369.00,1.30
5368.00,1.29
5367.00,1.29
5366.00,1.28
5365.00,1.28
5364.00,1.27
5363.00,1.26
5362.00,1.25
5361.00,1.25
5360.00,1.24
5359.00,1.23
5358.00,1.22
5357.00,1.22
5356.00,1.21
5355.00,1.20
5354.00,1.19
5353.00,1.18
5352.00,1.17
5351.00,1.16
5350.00,1.15
5349.00,1.14
5348.00,1.13
5347.00,1.12
5346.00,1.11
5345.00,1.10
5344.00,1.09
5343.00,1.08
5342.00,1.07
5341.00,1.06
5340.00,1.05
5339.00,1.04
5338.00,1.03
5337.00,1.02
5336.00,1.01
5335.00,1.00
5334.00,0.99
5333.00,0.98
5332.00,0.97
5331.00,0.96
5330.00,0.95
5329.00,0.94
5328.00,0.93
5327.00,0.92
5326.00,0.91
5325.00,0.90
5324.00,0.89
5323.00,0.88
5322.00,0.87
5321.00,0.86
5320.00,0.85
5319.00,0.84
5318.00,0.84
5317.00,0.83
5316.00,0.82
5315.00,0.81
5314.00,0.80
5313.00,0.79
5312.00,0.79
5311.00,0.78
5310.00,0.77
5309.00,0.77
5308.00,0.76
5307.00,0.75
5306.00,0.75
5305.00,0.74
5304.00,0.74
5303.00,0.73
5302.00,0.73
5301.00,0.72
5300.00,0.72
5299.00,0.71
5298.00,0.71
5297.00,0.71
5296.00,0.70
5295.00,0.70
5294.00,0.70
5293.00,0.69
5292.00,0.69
5291.00,0.69
5290.00,0.69
5289.00,0.68
5288.00,0.68
5287.00,0.68
5286.00,0.68
5285.00,0.68
5284.00,0.68
5283.00,0.67
5282.00,0.67
5281.00,0.67
5280.00,0.67
5279.00,0.67
5278.00,0.67
5277.00,0.67
5276.00,0.67
5275.00,0.67
5274.00,0.67
5273.00,0.67
5272.00,0.67
5271.00,0.67
5270.00,0.67
5269.00,0.67
5268.00,0.67
5267.00,0.67
5266.00,0.67
5265.00,0.67
5264.00,0.67
5263.00,0.66
5262.00,0.66
5261.00,0.66
5260.00,0.66
5259.00,0.66
5258.00,0.66
5257.00,0.66
5256.00,0.66
5255.00,0.66
5254.00,0.66
5253.00,0.66
5252.00,0.66
5251.00,0.66
5250.00,0.66
5249.00,0.66
5248.00,0.66
5247.00,0.66
5246.00,0.66
5245.00,0.66
5244.00,0.66
5243.00,0.66
5242.00,0.66
5241.00,0.66
5240.00,0.66
5239.00,0.66
5238.00,0.66
5237.00,0.66
5236.00,0.66
5235.00,0.66
5234.00,0.66
5233.00,0.66
5232.00,0.66
5231.00,0.66
5230.00,0.67
5229.00,0.67
5228.00,0.67
5227.00,0.67
5226.00,0.67
5225.00,0.67
5224.00,0.67
5223.00,0.67
5222.00,0.67
5221.00,0.67
5220.00,0.67
5219.00,0.67
5218.00,0.67
5217.00,0.68
5216.00,0.68
5215.00,0.68
5214.00,0.68
5213.00,0.68
5212.00,0.68
5211.00,0.68
5210.00,0.68
5209.00,0.68
5208.00,0.68
5207.00,0.68
5206.00,0.68
5205.00,0.68
5204.00,0.68
5203.00,0.68
5202.00,0.68
5201.00,0.68
5200.00,0.68
5199.00,0.68
5198.00,0.68
5197.00,0.68
5196.00,0.68
5195.00,0.68
5194.00,0.68
5193.00,0.68
5192.00,0.68
5191.00,0.68
5190.00,0.68
5189.00,0.69
5188.00,0.69
5187.00,0.69
5186.00,0.69
5185.00,0.69
5184.00,0.69
5183.00,0.69
5182.00,0.69
5181.00,0.69
5180.00,0.69
5179.00,0.69
5178.00,0.69
5177.00,0.69
5176.00,0.69
5175.00,0.69
5174.00,0.69
5173.00,0.69
5172.00,0.69
5171.00,0.69
5170.00,0.69
5169.00,0.69
5168.00,0.69
5167.00,0.69
5166.00,0.69
5165.00,0.69
5164.00,0.69
5163.00,0.69
5162.00,0.69
5161.00,0.69
5160.00,0.69
5159.00,0.69
5158.00,0.69
5157.00,0.69
5156.00,0.70
5155.00,0.70
5154.00,0.70
5153.00,0.70
5152.00,0.70
5151.00,0.70
5150.00,0.70
5149.00,0.70
5148.00,0.70
5147.00,0.70
5146.00,0.70
5145.00,0.70
5144.00,0.70
5143.00,0.70
5142.00,0.70
5141.00,0.70
5140.00,0.70
5139.00,0.70
5138.00,0.71
5137.00,0.71
5136.00,0.71
5135.00,0.71
5134.00,0.71
5133.00,0.71
5132.00,0.71
5131.00,0.71
5130.00,0.71
5129.00,0.71
5128.00,0.71
5127.00,0.71
5126.00,0.71
5125.00,0.71
5124.00,0.71
5123.00,0.71
5122.00,0.71
5121.00,0.71
5120.00,0.71
5119.00,0.72
5118.00,0.72
5117.00,0.72
5116.00,0.72
5115.00,0.72
5114.00,0.72
5113.00,0.72
5112.00,0.72
5111.00,0.72
5110.00,0.72
5109.00,0.72
5108.00,0.72
5107.00,0.72
5106.00,0.72
5105.00,0.72
5104.00,0.72
5103.00,0.72
5102.00,0.72
5101.00,0.72
5100.00,0.72
5099.00,0.72
5098.00,0.73
5097.00,0.73
5096.00,0.73
5095.00,0.73
5094.00,0.73
5093.00,0.73
5092.00,0.73
5091.00,0.73
5090.00,0.73
5089.00,0.73
5088.00,0.73
5087.00,0.73
5086.00,0.74
5085.00,0.74
5084.00,0.74
5083.00,0.74
5082.00,0.74
5081.00,0.74
5080.00,0.74
5079.00,0.74
5078.00,0.74
5077.00,0.74
5076.00,0.74
5075.00,0.74
5074.00,0.74
5073.00,0.74
5072.00,0.74
5071.00,0.74
5070.00,0.74
5069.00,0.75
5068.00,0.75
5067.00,0.75
5066.00,0.75
5065.00,0.75
5064.00,0.75
5063.00,0.75
5062.00,0.75
5061.00,0.75
5060.00,0.75
5059.00,0.75
5058.00,0.75
5057.00,0.75
5056.00,0.75
5055.00,0.75
5054.00,0.75
5053.00,0.75
5052.00,0.75
5051.00,0.75
5050.00,0.75
5049.00,0.75
5048.00,0.75
5047.00,0.75
5046.00,0.75
5045.00,0.75
5044.00,0.76
5043.00,0.76
5042.00,0.76
5041.00,0.76
5040.00,0.76
5039.00,0.76
5038.00,0.76
5037.00,0.76
5036.00,0.76
5035.00,0.76
5034.00,0.76
5033.00,0.76
5032.00,0.76
5031.00,0.77
5030.00,0.77
5029.00,0.77
5028.00,0.77
5027.00,0.77
5026.00,0.77
5025.00,0.77
5024.00,0.77
5023.00,0.77
5022.00,0.77
5021.00,0.77
5020.00,0.78
5019.00,0.78
5018.00,0.78
5017.00,0.78
5016.00,0.78
5015.00,0.78
5014.00,0.78
5013.00,0.78
5012.00,0.78
5011.00,0.78
5010.00,0.78
5009.00,0.78
5008.00,0.79
5007.00,0.79
5006.00,0.79
5005.00,0.79
5004.00,0.79
5003.00,0.79
5002.00,0.79
5001.00,0.79
5000.00,0.79
4999.00,0.79
4998.00,0.79
4997.00,0.79
4996.00,0.79
4995.00,0.80
4994.00,0.80
4993.00,0.80
4992.00,0.80
4991.00,0.80
4990.00,0.80
4989.00,0.80
4988.00,0.80
4987.00,0.80
4986.00,0.80
4985.00,0.80
4984.00,0.80
4983.00,0.80
4982.00,0.81
4981.00,0.81
4980.00,0.81
4979.00,0.81
4978.00,0.81
4977.00,0.81
4976.00,0.81
4975.00,0.81
4974.00,0.81
4973.00,0.81
4972.00,0.81
4971.00,0.81
4970.00,0.81
4969.00,0.81
4968.00,0.81
4967.00,0.81
4966.00,0.81
4965.00,0.82
4964.00,0.82
4963.00,0.82
4962.00,0.82
4961.00,0.82
4960.00,0.82
4959.00,0.82
4958.00,0.82
4957.00,0.82
4956.00,0.82
4955.00,0.82
4954.00,0.82
4953.00,0.83
4952.00,0.83
4951.00,0.83
4950.00,0.83
4949.00,0.83
4948.00,0.83
4947.00,0.83
4946.00,0.83
4945.00,0.83
4944.00,0.83
4943.00,0.84
4942.00,0.84
4941.00,0.84
4940.00,0.84
4939.00,0.84
4938.00,0.84
4937.00,0.84
4936.00,0.84
4935.00,0.84
4934.00,0.84
4933.00,0.84
4932.00,0.84
4931.00,0.84
4930.00,0.85
4929.00,0.85
4928.00,0.85
4927.00,0.85
4926.00,0.85
4925.00,0.85
4924.00,0.85
4923.00,0.85
4922.00,0.85
4921.00,0.85
4920.00,0.86
4919.00,0.86
4918.00,0.86
4917.00,0.86
4916.00,0.86
4915.00,0.86
4914.00,0.86
4913.00,0.86
4912.00,0.86
4911.00,0.86
4910.00,0.86
4909.00,0.86
4908.00,0.86
4907.00,0.86
4906.00,0.87
4905.00,0.87
4904.00,0.87
4903.00,0.87
4902.00,0.87
4901.00,0.87
4900.00,0.87
4899.00,0.87
4898.00,0.87
4897.00,0.87
4896.00,0.87
4895.00,0.87
4894.00,0.87
4893.00,0.87
4892.00,0.87
4891.00,0.88
4890.00,0.88
4889.00,0.88
4888.00,0.88
4887.00,0.88
4886.00,0.88
4885.00,0.88
4884.00,0.88
4883.00,0.88
4882.00,0.88
4881.00,0.88
4880.00,0.88
4879.00,0.88
4878.00,0.88
4877.00,0.88
4876.00,0.88
4875.00,0.88
4874.00,0.89
4873.00,0.89
4872.00,0.89
4871.00,0.89
4870.00,0.89
4869.00,0.89
4868.00,0.89
4867.00,0.89
4866.00,0.89
4865.00,0.89
4864.00,0.90
4863.00,0.90
4862.00,0.90
4861.00,0.90
4860.00,0.90
4859.00,0.90
4858.00,0.90
4857.00,0.90
4856.00,0.90
4855.00,0.90
4854.00,0.90
4853.00,0.91
4852.00,0.91
4851.00,0.91
4850.00,0.91
4849.00,0.91
4848.00,0.91
4847.00,0.91
4846.00,0.91
4845.00,0.91
4844.00,0.92
4843.00,0.92
4842.00,0.92
4841.00,0.92
4840.00,0.92
4839.00,0.92
4838.00,0.92
4837.00,0.92
4836.00,0.92
4835.00,0.92
4834.00,0.92
4833.00,0.92
4832.00,0.92
4831.00,0.92
4830.00,0.92
4829.00,0.92
4828.00,0.92
4827.00,0.92
4826.00,0.93
4825.00,0.93
4824.00,0.93
4823.00,0.93
4822.00,0.93
4821.00,0.93
4820.00,0.93
4819.00,0.93
4818.00,0.93
4817.00,0.93
4816.00,0.93
4815.00,0.93
4814.00,0.93
4813.00,0.93
4812.00,0.94
4811.00,0.94
4810.00,0.94
4809.00,0.94
4808.00,0.94
4807.00,0.94
4806.00,0.95
4805.00,0.95
4804.00,0.95
4803.00,0.95
4802.00,0.95
4801.00,0.95
4800.00,0.96
4799.00,0.96
4798.00,0.96
4797.00,0.96
4796.00,0.96
4795.00,0.96
4794.00,0.96
4793.00,0.97
4792.00,0.97
4791.00,0.97
4790.00,0.97
4789.00,0.97
4788.00,0.97
4787.00,0.97
4786.00,0.97
4785.00,0.97
4784.00,0.98
4783.00,0.98
4782.00,0.98
4781.00,0.98
4780.00,0.98
4779.00,0.98
4778.00,0.98
4777.00,0.99
4776.00,0.99
4775.00,0.99
4774.00,0.99
4773.00,0.99
4772.00,0.99
4771.00,0.99
4770.00,1.00
4769.00,1.00
4768.00,1.00
4767.00,1.00
4766.00,1.00
4765.00,1.00
4764.00,1.01
4763.00,1.01
4762.00,1.01
4761.00,1.01
4760.00,1.01
4759.00,1.01
4758.00,1.02
4757.00,1.02
4756.00,1.02
4755.00,1.02
4754.00,1.02
4753.00,1.02
4752.00,1.02
4751.00,1.03
4750.00,1.03
4749.00,1.03
4748.00,1.03
4747.00,1.03
4746.00,1.03
4745.00,1.03
4744.00,1.03
4743.00,1.04
4742.00,1.04
4741.00,1.04
4740.00,1.04
4739.00,1.04
4738.00,1.04
4737.00,1.05
4736.00,1.05
4735.00,1.05
4734.00,1.05
4733.00,1.05
4732.00,1.05
4731.00,1.06
4730.00,1.06
4729.00,1.06
4728.00,1.06
4727.00,1.06
4726.00,1.07
4725.00,1.07
4724.00,1.07
4723.00,1.07
4722.00,1.07
4721.00,1.08
4720.00,1.08
4719.00,1.08
4718.00,1.08
4717.00,1.09
4716.00,1.09
4715.00,1.09
4714.00,1.09
4713.00,1.10
4712.00,1.10
4711.00,1.10
4710.00,1.10
4709.00,1.11
4708.00,1.11
4707.00,1.11
4706.00,1.11
4705.00,1.12
4704.00,1.12
4703.00,1.12
4702.00,1.12
4701.00,1.12
4700.00,1.12
4699.00,1.13
4698.00,1.13
4697.00,1.13
4696.00,1.13
4695.00,1.13
4694.00,1.13
4693.00,1.13
4692.00,1.13
4691.00,1.13
4690.00,1.13
4689.00,1.13
4688.00,1.13
4687.00,1.13
4686.00,1.13
4685.00,1.14
4684.00,1.14
4683.00,1.14
4682.00,1.14
4681.00,1.14
4680.00,1.14
4679.00,1.14
4678.00,1.14
4677.00,1.15
4676.00,1.15
4675.00,1.15
4674.00,1.15
4673.00,1.15
4672.00,1.15
4671.00,1.15
4670.00,1.15
4669.00,1.16
4668.00,1.16
4667.00,1.16
4666.00,1.16
4665.00,1.16
4664.00,1.16
4663.00,1.16
4662.00,1.16
4661.00,1.16
4660.00,1.17
4659.00,1.17
4658.00,1.17
4657.00,1.17
4656.00,1.17
4655.00,1.17
4654.00,1.18
4653.00,1.18
4652.00,1.18
4651.00,1.18
4650.00,1.18
4649.00,1.19
4648.00,1.19
4647.00,1.19
4646.00,1.19
4645.00,1.19
4644.00,1.19
4643.00,1.20
4642.00,1.20
4641.00,1.20
4640.00,1.20
4639.00,1.20
4638.00,1.20
4637.00,1.20
4636.00,1.20
4635.00,1.20
4634.00,1.20
4633.00,1.20
4632.00,1.20
4631.00,1.21
4630.00,1.21
4629.00,1.21
4628.00,1.21
4627.00,1.21
4626.00,1.21
4625.00,1.21
4624.00,1.21
4623.00,1.21
4622.00,1.22
4621.00,1.22
4620.00,1.22
4619.00,1.22
4618.00,1.22
4617.00,1.22
4616.00,1.22
4615.00,1.22
4614.00,1.22
4613.00,1.22
4612.00,1.23
4611.00,1.23
4610.00,1.23
4609.00,1.23
4608.00,1.23
4607.00,1.23
4606.00,1.23
4605.00,1.23
4604.00,1.23
4603.00,1.23
4602.00,1.23
4601.00,1.23
4600.00,1.23
4599.00,1.23
4598.00,1.23
4597.00,1.23
4596.00,1.24
4595.00,1.24
4594.00,1.24
4593.00,1.24
4592.00,1.24
4591.00,1.24
4590.00,1.25
4589.00,1.25
4588.00,1.25
4587.00,1.25
4586.00,1.25
4585.00,1.25
4584.00,1.26
4583.00,1.26
4582.00,1.26
4581.00,1.26
4580.00,1.26
4579.00,1.26
4578.00,1.26
4577.00,1.26
4576.00,1.27
4575.00,1.27
4574.00,1.27
4573.00,1.27
4572.00,1.27
4571.00,1.27
4570.00,1.27
4569.00,1.28
4568.00,1.28
4567.00,1.28
4566.00,1.28
4565.00,1.28
4564.00,1.28
4563.00,1.29
4562.00,1.29
4561.00,1.29
4560.00,1.29
4559.00,1.29
4558.00,1.29
4557.00,1.29
4556.00,1.29
4555.00,1.29
4554.00,1.30
4553.00,1.30
4552.00,1.30
4551.00,1.30
4550.00,1.30
4549.00,1.30
4548.00,1.30
4547.00,1.30
4546.00,1.30
4545.00,1.30
4544.00,1.30
4543.00,1.30
4542.00,1.30
4541.00,1.30
4540.00,1.30
4539.00,1.30
4538.00,1.30
4537.00,1.30
4536.00,1.30
4535.00,1.30
4534.00,1.31
4533.00,1.31
4532.00,1.31
4531.00,1.31
4530.00,1.31
4529.00,1.31
4528.00,1.31
4527.00,1.31
4526.00,1.31
4525.00,1.32
4524.00,1.32
4523.00,1.32
4522.00,1.32
4521.00,1.32
4520.00,1.32
4519.00,1.32
4518.00,1.32
4517.00,1.32
4516.00,1.32
4515.00,1.32
4514.00,1.32
4513.00,1.32
4512.00,1.32
4511.00,1.32
4510.00,1.32
4509.00,1.32
4508.00,1.32
4507.00,1.32
4506.00,1.32
4505.00,1.32
4504.00,1.32
4503.00,1.32
4502.00,1.32
4501.00,1.33
4500.00,1.33
4499.00,1.32
4498.00,1.32
4497.00,1.32
4496.00,1.32
4495.00,1.32
4494.00,1.32
4493.00,1.32
4492.00,1.32
4491.00,1.32
4490.00,1.32
4489.00,1.31
4488.00,1.31
4487.00,1.31
4486.00,1.31
4485.00,1.31
4484.00,1.31
4483.00,1.31
4482.00,1.30
4481.00,1.30
4480.00,1.30
4479.00,1.30
4478.00,1.30
4477.00,1.30
4476.00,1.30
4475.00,1.29
4474.00,1.29
4473.00,1.29
4472.00,1.29
4471.00,1.29
4470.00,1.29
4469.00,1.28
4468.00,1.28
4467.00,1.28
4466.00,1.28
4465.00,1.28
4464.00,1.27
4463.00,1.27
4462.00,1.27
4461.00,1.26
4460.00,1.26
4459.00,1.26
4458.00,1.25
4457.00,1.25
4456.00,1.25
4455.00,1.24
4454.00,1.24
4453.00,1.24
4452.00,1.23
4451.00,1.23
4450.00,1.23
4449.00,1.22
4448.00,1.22
4447.00,1.21
4446.00,1.21
4445.00,1.21
4444.00,1.20
4443.00,1.20
4442.00,1.19
4441.00,1.19
4440.00,1.18
4439.00,1.18
4438.00,1.18
4437.00,1.17
4436.00,1.17
4435.00,1.16
4434.00,1.16
4433.00,1.15
4432.00,1.15
4431.00,1.15
4430.00,1.14
4429.00,1.14
4428.00,1.14
4427.00,1.13
4426.00,1.13
4425.00,1.13
4424.00,1.13
4423.00,1.13
4422.00,1.12
4421.00,1.12
4420.00,1.12
4419.00,1.12
4418.00,1.12
4417.00,1.12
4416.00,1.12
4415.00,1.11
4414.00,1.11
4413.00,1.11
4412.00,1.11
4411.00,1.11
4410.00,1.11
4409.00,1.11
4408.00,1.12
4407.00,1.12
4406.00,1.12
4405.00,1.12
4404.00,1.12
4403.00,1.12
4402.00,1.12
4401.00,1.13
4400.00,1.13
4399.00,1.13
4398.00,1.13
4397.00,1.13
4396.00,1.13
4395.00,1.14
4394.00,1.14
4393.00,1.14
4392.00,1.14
4391.00,1.14
4390.00,1.14
4389.00,1.15
4388.00,1.15
4387.00,1.15
4386.00,1.15
4385.00,1.15
4384.00,1.16
4383.00,1.16
4382.00,1.16
4381.00,1.16
4380.00,1.16
4379.00,1.16
4378.00,1.16
4377.00,1.17
4376.00,1.17
4375.00,1.17
4374.00,1.17
4373.00,1.17
4372.00,1.17
4371.00,1.17
4370.00,1.17
4369.00,1.17
4368.00,1.17
4367.00,1.17
4366.00,1.17
4365.00,1.17
4364.00,1.17
4363.00,1.17
4362.00,1.17
4361.00,1.17
4360.00,1.17
4359.00,1.17
4358.00,1.17
4357.00,1.17
4356.00,1.17
4355.00,1.17
4354.00,1.17
4353.00,1.17
4352.00,1.17
4351.00,1.17
4350.00,1.17
4349.00,1.16
4348.00,1.16
4347.00,1.16
4346.00,1.16
4345.00,1.16
4344.00,1.16
4343.00,1.16
4342.00,1.16
4341.00,1.17
4340.00,1.17
4339.00,1.17
4338.00,1.17
4337.00,1.17
4336.00,1.17
4335.00,1.17
4334.00,1.17
4333.00,1.17
4332.00,1.17
4331.00,1.17
4330.00,1.18
4329.00,1.18
4328.00,1.18
4327.00,1.18
4326.00,1.18
4325.00,1.19
4324.00,1.19
4323.00,1.19
4322.00,1.19
4321.00,1.20
4320.00,1.20
4319.00,1.20
4318.00,1.20
4317.00,1.21
4316.00,1.21
4315.00,1.21
4314.00,1.21
4313.00,1.22
4312.00,1.22
4311.00,1.22
4310.00,1.22
4309.00,1.22
4308.00,1.23
4307.00,1.23
4306.00,1.23
4305.00,1.23
4304.00,1.23
4303.00,1.24
4302.00,1.24
4301.00,1.24
4300.00,1.24
4299.00,1.24
4298.00,1.25
4297.00,1.25
4296.00,1.25
4295.00,1.25
4294.00,1.25
4293.00,1.25
4292.00,1.26
4291.00,1.26
4290.00,1.26
4289.00,1.26
4288.00,1.26
4287.00,1.26
4286.00,1.26
4285.00,1.27
4284.00,1.27
4283.00,1.27
4282.00,1.27
4281.00,1.27
4280.00,1.27
4279.00,1.27
4278.00,1.27
4277.00,1.27
4276.00,1.27
4275.00,1.27
4274.00,1.27
4273.00,1.27
4272.00,1.26
4271.00,1.26
4270.00,1.26
4269.00,1.26
4268.00,1.26
4267.00,1.26
4266.00,1.26
4265.00,1.25
4264.00,1.25
4263.00,1.25
4262.00,1.25
4261.00,1.25
4260.00,1.25
4259.00,1.25
4258.00,1.24
4257.00,1.24
4256.00,1.24
4255.00,1.24
4254.00,1.24
4253.00,1.24
4252.00,1.24
4251.00,1.24
4250.00,1.25
4249.00,1.25
4248.00,1.25
4247.00,1.25
4246.00,1.25
4245.00,1.25
4244.00,1.26
4243.00,1.26
4242.00,1.26
4241.00,1.26
4240.00,1.27
4239.00,1.27
4238.00,1.27
4237.00,1.27
4236.00,1.28
4235.00,1.28
4234.00,1.28
4233.00,1.28
4232.00,1.29
4231.00,1.29
4230.00,1.29
4229.00,1.29
4228.00,1.29
4227.00,1.29
4226.00,1.29
4225.00,1.29
4224.00,1.29
4223.00,1.29
4222.00,1.29
4221.00,1.29
4220.00,1.29
4219.00,1.29
4218.00,1.29
4217.00,1.29
4216.00,1.29
4215.00,1.29
4214.00,1.29
4213.00,1.29
4212.00,1.28
4211.00,1.28
4210.00,1.28
4209.00,1.29
4208.00,1.29
4207.00,1.29
4206.00,1.29
4205.00,1.29
4204.00,1.29
4203.00,1.29
4202.00,1.29
4201.00,1.29
4200.00,1.29
4199.00,1.29
4198.00,1.29
4197.00,1.29
4196.00,1.29
4195.00,1.29
4194.00,1.29
4193.00,1.29
4192.00,1.29
4191.00,1.29
4190.00,1.29
4189.00,1.29
4188.00,1.29
4187.00,1.29
4186.00,1.29
4185.00,1.29
4184.00,1.29
4183.00,1.29
4182.00,1.29
4181.00,1.29
4180.00,1.29
4179.00,1.29
4178.00,1.29
4177.00,1.29
4176.00,1.29
4175.00,1.29
4174.00,1.30
4173.00,1.30
4172.00,1.30
4171.00,1.30
4170.00,1.30
4169.00,1.30
4168.00,1.30
4167.00,1.30
4166.00,1.30
4165.00,1.30
4164.00,1.30
4163.00,1.30
4162.00,1.30
4161.00,1.30
4160.00,1.30
4159.00,1.30
4158.00,1.30
4157.00,1.30
4156.00,1.30
4155.00,1.30
4154.00,1.31
4153.00,1.31
4152.00,1.31
4151.00,1.31
4150.00,1.31
4149.00,1.31
4148.00,1.32
4147.00,1.32
4146.00,1.32
4145.00,1.32
4144.00,1.32
4143.00,1.32
4142.00,1.33
4141.00,1.33
4140.00,1.33
4139.00,1.33
4138.00,1.33
4137.00,1.33
4136.00,1.33
4135.00,1.33
4134.00,1.33
4133.00,1.33
4132.00,1.33
4131.00,1.33
4130.00,1.33
4129.00,1.33
4128.00,1.34
4127.00,1.34
4126.00,1.34
4125.00,1.34
4124.00,1.34
4123.00,1.34
4122.00,1.34
4121.00,1.34
4120.00,1.34
4119.00,1.34
4118.00,1.35
4117.00,1.35
4116.00,1.35
4115.00,1.35
4114.00,1.35
4113.00,1.35
4112.00,1.35
4111.00,1.35
4110.00,1.35
4109.00,1.35
4108.00,1.35
4107.00,1.35
4106.00,1.35
4105.00,1.35
4104.00,1.35
4103.00,1.35
4102.00,1.35
4101.00,1.35
4100.00,1.35
4099.00,1.35
4098.00,1.35
4097.00,1.35
4096.00,1.35
4095.00,1.35
4094.00,1.35
4093.00,1.35
4092.00,1.35
4091.00,1.35
4090.00,1.35
4089.00,1.35
4088.00,1.35
4087.00,1.35
4086.00,1.35
4085.00,1.36
4084.00,1.36
4083.00,1.36
4082.00,1.36
4081.00,1.36
4080.00,1.37
4079.00,1.37
4078.00,1.37
4077.00,1.37
4076.00,1.37
4075.00,1.38
4074.00,1.38
4073.00,1.38
4072.00,1.38
4071.00,1.38
4070.00,1.38
4069.00,1.38
4068.00,1.38
4067.00,1.38
4066.00,1.38
4065.00,1.38
4064.00,1.38
4063.00,1.38
4062.00,1.38
4061.00,1.38
4060.00,1.38
4059.00,1.38
4058.00,1.38
4057.00,1.38
4056.00,1.38
4055.00,1.38
4054.00,1.39
4053.00,1.39
4052.00,1.39
4051.00,1.39
4050.00,1.39
4049.00,1.39
4048.00,1.39
4047.00,1.39
4046.00,1.39
4045.00,1.39
4044.00,1.39
4043.00,1.38
4042.00,1.38
4041.00,1.38
4040.00,1.38
4039.00,1.38
4038.00,1.38
4037.00,1.38
4036.00,1.38
4035.00,1.38
4034.00,1.38
4033.00,1.38
4032.00,1.38
4031.00,1.39
4030.00,1.39
4029.00,1.39
4028.00,1.39
4027.00,1.39
4026.00,1.39
4025.00,1.39
4024.00,1.40
4023.00,1.40
4022.00,1.40
4021.00,1.40
4020.00,1.40
4019.00,1.40
4018.00,1.40
4017.00,1.40
4016.00,1.40
4015.00,1.40
4014.00,1.40
4013.00,1.40
4012.00,1.40
4011.00,1.40
4010.00,1.40
4009.00,1.40
4008.00,1.40
4007.00,1.40
4006.00,1.41
4005.00,1.41
4004.00,1.41
4003.00,1.42
4002.00,1.42
4001.00,1.43
4000.00,1.43
