创建为新数据集,样品 739 用户 Administrator 日期 星期五, 七月 20 2018
cm-1,%T
10000.00,1.51
9999.00,1.50
9998.00,1.49
9997.00,1.48
9996.00,1.48
9995.00,1.47
9994.00,1.46
9993.00,1.46
9992.00,1.45
9991.00,1.45
9990.00,1.44
9989.00,1.44
9988.00,1.43
9987.00,1.43
9986.00,1.43
9985.00,1.43
9984.00,1.43
9983.00,1.43
9982.00,1.43
9981.00,1.43
9980.00,1.43
9979.00,1.43
9978.00,1.43
9977.00,1.43
9976.00,1.43
9975.00,1.43
9974.00,1.43
9973.00,1.43
9972.00,1.42
9971.00,1.42
9970.00,1.42
9969.00,1.42
9968.00,1.42
9967.00,1.42
9966.00,1.42
9965.00,1.42
9964.00,1.42
9963.00,1.41
9962.00,1.41
9961.00,1.41
9960.00,1.41
9959.00,1.41
9958.00,1.41
9957.00,1.41
9956.00,1.41
9955.00,1.41
9954.00,1.41
9953.00,1.42
9952.00,1.42
9951.00,1.42
9950.00,1.42
9949.00,1.42
9948.00,1.42
9947.00,1.42
9946.00,1.42
9945.00,1.42
9944.00,1.43
9943.00,1.43
9942.00,1.43
9941.00,1.43
9940.00,1.43
9939.00,1.43
9938.00,1.43
9937.00,1.43
9936.00,1.42
9935.00,1.42
9934.00,1.42
9933.00,1.42
9932.00,1.42
9931.00,1.42
9930.00,1.41
9929.00,1.41
9928.00,1.41
9927.00,1.41
9926.00,1.40
9925.00,1.40
9924.00,1.40
9923.00,1.39
9922.00,1.39
9921.00,1.39
9920.00,1.39
9919.00,1.38
9918.00,1.38
9917.00,1.38
9916.00,1.38
9915.00,1.38
9914.00,1.37
9913.00,1.37
9912.00,1.37
9911.00,1.37
9910.00,1.37
9909.00,1.38
9908.00,1.38
9907.00,1.38
9906.00,1.38
9905.00,1.38
9904.00,1.39
9903.00,1.39
9902.00,1.39
9901.00,1.40
9900.00,1.40
9899.00,1.40
9898.00,1.41
9897.00,1.41
9896.00,1.41
9895.00,1.42
9894.00,1.42
9893.00,1.42
9892.00,1.42
9891.00,1.42
9890.00,1.42
9889.00,1.42
9888.00,1.42
9887.00,1.42
9886.00,1.42
9885.00,1.42
9884.00,1.42
9883.00,1.42
9882.00,1.41
9881.00,1.41
9880.00,1.41
9879.00,1.41
9878.00,1.40
9877.00,1.40
9876.00,1.40
9875.00,1.40
9874.00,1.40
9873.00,1.39
9872.00,1.39
9871.00,1.39
9870.00,1.39
9869.00,1.39
9868.00,1.39
9867.00,1.39
9866.00,1.39
9865.00,1.39
9864.00,1.39
9863.00,1.39
9862.00,1.39
9861.00,1.39
9860.00,1.39
9859.00,1.40
9858.00,1.40
9857.00,1.40
9856.00,1.40
9855.00,1.40
9854.00,1.40
9853.00,1.40
9852.00,1.41
9851.00,1.41
9850.00,1.41
9849.00,1.41
9848.00,1.40
9847.00,1.40
9846.00,1.40
9845.00,1.40
9844.00,1.40
9843.00,1.40
9842.00,1.40
9841.00,1.39
9840.00,1.39
9839.00,1.39
9838.00,1.39
9837.00,1.39
9836.00,1.39
9835.00,1.39
9834.00,1.39
9833.00,1.39
9832.00,1.39
9831.00,1.40
9830.00,1.40
9829.00,1.40
9828.00,1.40
9827.00,1.40
9826.00,1.41
9825.00,1.41
9824.00,1.41
9823.00,1.41
9822.00,1.41
9821.00,1.41
9820.00,1.42
9819.00,1.42
9818.00,1.42
9817.00,1.42
9816.00,1.42
9815.00,1.41
9814.00,1.41
9813.00,1.41
9812.00,1.41
9811.00,1.41
9810.00,1.40
9809.00,1.40
9808.00,1.40
9807.00,1.39
9806.00,1.39
9805.00,1.39
9804.00,1.38
9803.00,1.38
9802.00,1.38
9801.00,1.38
9800.00,1.37
9799.00,1.37
9798.00,1.37
9797.00,1.37
9796.00,1.37
9795.00,1.37
9794.00,1.37
9793.00,1.37
9792.00,1.37
9791.00,1.37
9790.00,1.37
9789.00,1.37
9788.00,1.37
9787.00,1.37
9786.00,1.37
9785.00,1.37
9784.00,1.37
9783.00,1.38
9782.00,1.38
9781.00,1.38
9780.00,1.38
9779.00,1.38
9778.00,1.39
9777.00,1.39
9776.00,1.39
9775.00,1.39
9774.00,1.39
9773.00,1.40
9772.00,1.40
9771.00,1.40
9770.00,1.41
9769.00,1.41
9768.00,1.41
9767.00,1.41
9766.00,1.42
9765.00,1.42
9764.00,1.42
9763.00,1.42
9762.00,1.42
9761.00,1.42
9760.00,1.42
9759.00,1.42
9758.00,1.42
9757.00,1.42
9756.00,1.42
9755.00,1.42
9754.00,1.42
9753.00,1.41
9752.00,1.41
9751.00,1.41
9750.00,1.41
9749.00,1.41
9748.00,1.40
9747.00,1.40
9746.00,1.40
9745.00,1.40
9744.00,1.40
9743.00,1.40
9742.00,1.40
9741.00,1.40
9740.00,1.40
9739.00,1.40
9738.00,1.40
9737.00,1.40
9736.00,1.40
9735.00,1.41
9734.00,1.41
9733.00,1.41
9732.00,1.41
9731.00,1.41
9730.00,1.41
9729.00,1.41
9728.00,1.41
9727.00,1.41
9726.00,1.42
9725.00,1.42
9724.00,1.42
9723.00,1.42
9722.00,1.42
9721.00,1.42
9720.00,1.42
9719.00,1.42
9718.00,1.42
9717.00,1.42
9716.00,1.42
9715.00,1.42
9714.00,1.42
9713.00,1.42
9712.00,1.42
9711.00,1.42
9710.00,1.41
9709.00,1.41
9708.00,1.41
9707.00,1.41
9706.00,1.40
9705.00,1.40
9704.00,1.40
9703.00,1.40
9702.00,1.39
9701.00,1.39
9700.00,1.39
9699.00,1.39
9698.00,1.38
9697.00,1.38
9696.00,1.38
9695.00,1.38
9694.00,1.38
9693.00,1.38
9692.00,1.38
9691.00,1.38
9690.00,1.38
9689.00,1.38
9688.00,1.38
9687.00,1.38
9686.00,1.38
9685.00,1.38
9684.00,1.38
9683.00,1.38
9682.00,1.38
9681.00,1.38
9680.00,1.39
9679.00,1.39
9678.00,1.39
9677.00,1.39
9676.00,1.39
9675.00,1.39
9674.00,1.39
9673.00,1.39
9672.00,1.39
9671.00,1.39
9670.00,1.39
9669.00,1.39
9668.00,1.39
9667.00,1.39
9666.00,1.39
9665.00,1.39
9664.00,1.39
9663.00,1.39
9662.00,1.39
9661.00,1.39
9660.00,1.39
9659.00,1.39
9658.00,1.39
9657.00,1.39
9656.00,1.39
9655.00,1.39
9654.00,1.39
9653.00,1.39
9652.00,1.39
9651.00,1.39
9650.00,1.39
9649.00,1.39
9648.00,1.39
9647.00,1.39
9646.00,1.39
9645.00,1.39
9644.00,1.39
9643.00,1.39
9642.00,1.39
9641.00,1.38
9640.00,1.38
9639.00,1.38
9638.00,1.38
9637.00,1.38
9636.00,1.38
9635.00,1.38
9634.00,1.38
9633.00,1.38
9632.00,1.38
9631.00,1.38
9630.00,1.38
9629.00,1.38
9628.00,1.38
9627.00,1.38
9626.00,1.38
9625.00,1.38
9624.00,1.38
9623.00,1.38
9622.00,1.38
9621.00,1.38
9620.00,1.38
9619.00,1.38
9618.00,1.38
9617.00,1.38
9616.00,1.38
9615.00,1.38
9614.00,1.38
9613.00,1.38
9612.00,1.38
9611.00,1.38
9610.00,1.39
9609.00,1.39
9608.00,1.39
9607.00,1.39
9606.00,1.39
9605.00,1.40
9604.00,1.40
9603.00,1.40
9602.00,1.40
9601.00,1.40
9600.00,1.40
9599.00,1.40
9598.00,1.40
9597.00,1.40
9596.00,1.40
9595.00,1.40
9594.00,1.40
9593.00,1.40
9592.00,1.40
9591.00,1.40
9590.00,1.40
9589.00,1.40
9588.00,1.40
9587.00,1.40
9586.00,1.40
9585.00,1.40
9584.00,1.40
9583.00,1.40
9582.00,1.40
9581.00,1.40
9580.00,1.40
9579.00,1.40
9578.00,1.40
9577.00,1.40
9576.00,1.40
9575.00,1.40
9574.00,1.40
9573.00,1.40
9572.00,1.40
9571.00,1.40
9570.00,1.40
9569.00,1.40
9568.00,1.40
9567.00,1.40
9566.00,1.40
9565.00,1.40
9564.00,1.40
9563.00,1.40
9562.00,1.40
9561.00,1.40
9560.00,1.41
9559.00,1.41
9558.00,1.41
9557.00,1.41
9556.00,1.41
9555.00,1.41
9554.00,1.41
9553.00,1.41
9552.00,1.40
9551.00,1.40
9550.00,1.40
9549.00,1.40
9548.00,1.40
9547.00,1.40
9546.00,1.40
9545.00,1.40
9544.00,1.40
9543.00,1.40
9542.00,1.40
9541.00,1.40
9540.00,1.40
9539.00,1.40
9538.00,1.40
9537.00,1.40
9536.00,1.40
9535.00,1.40
9534.00,1.40
9533.00,1.40
9532.00,1.40
9531.00,1.40
9530.00,1.40
9529.00,1.40
9528.00,1.40
9527.00,1.41
9526.00,1.41
9525.00,1.41
9524.00,1.41
9523.00,1.41
9522.00,1.41
9521.00,1.41
9520.00,1.41
9519.00,1.41
9518.00,1.41
9517.00,1.41
9516.00,1.41
9515.00,1.41
9514.00,1.41
9513.00,1.41
9512.00,1.41
9511.00,1.41
9510.00,1.41
9509.00,1.41
9508.00,1.41
9507.00,1.41
9506.00,1.41
9505.00,1.41
9504.00,1.41
9503.00,1.40
9502.00,1.40
9501.00,1.40
9500.00,1.40
9499.00,1.40
9498.00,1.40
9497.00,1.40
9496.00,1.40
9495.00,1.40
9494.00,1.40
9493.00,1.40
9492.00,1.40
9491.00,1.40
9490.00,1.40
9489.00,1.40
9488.00,1.40
9487.00,1.40
9486.00,1.40
9485.00,1.40
9484.00,1.40
9483.00,1.40
9482.00,1.40
9481.00,1.40
9480.00,1.40
9479.00,1.40
9478.00,1.40
9477.00,1.40
9476.00,1.40
9475.00,1.40
9474.00,1.40
9473.00,1.40
9472.00,1.40
9471.00,1.40
9470.00,1.40
9469.00,1.40
9468.00,1.40
9467.00,1.40
9466.00,1.40
9465.00,1.40
9464.00,1.40
9463.00,1.40
9462.00,1.40
9461.00,1.40
9460.00,1.40
9459.00,1.40
9458.00,1.40
9457.00,1.40
9456.00,1.40
9455.00,1.41
9454.00,1.41
9453.00,1.41
9452.00,1.41
9451.00,1.41
9450.00,1.41
9449.00,1.41
9448.00,1.42
9447.00,1.42
9446.00,1.42
9445.00,1.42
9444.00,1.42
9443.00,1.42
9442.00,1.42
9441.00,1.42
9440.00,1.42
9439.00,1.42
9438.00,1.42
9437.00,1.42
9436.00,1.42
9435.00,1.42
9434.00,1.42
9433.00,1.42
9432.00,1.42
9431.00,1.42
9430.00,1.42
9429.00,1.42
9428.00,1.42
9427.00,1.42
9426.00,1.42
9425.00,1.42
9424.00,1.42
9423.00,1.42
9422.00,1.42
9421.00,1.42
9420.00,1.42
9419.00,1.42
9418.00,1.41
9417.00,1.41
9416.00,1.41
9415.00,1.41
9414.00,1.41
9413.00,1.41
9412.00,1.41
9411.00,1.41
9410.00,1.41
9409.00,1.41
9408.00,1.41
9407.00,1.41
9406.00,1.41
9405.00,1.41
9404.00,1.41
9403.00,1.41
9402.00,1.41
9401.00,1.41
9400.00,1.41
9399.00,1.41
9398.00,1.41
9397.00,1.41
9396.00,1.41
9395.00,1.41
9394.00,1.41
9393.00,1.41
9392.00,1.40
9391.00,1.40
9390.00,1.40
9389.00,1.40
9388.00,1.40
9387.00,1.40
9386.00,1.40
9385.00,1.40
9384.00,1.39
9383.00,1.39
9382.00,1.39
9381.00,1.39
9380.00,1.39
9379.00,1.39
9378.00,1.39
9377.00,1.39
9376.00,1.39
9375.00,1.39
9374.00,1.39
9373.00,1.39
9372.00,1.40
9371.00,1.40
9370.00,1.40
9369.00,1.40
9368.00,1.40
9367.00,1.40
9366.00,1.40
9365.00,1.40
9364.00,1.40
9363.00,1.40
9362.00,1.40
9361.00,1.40
9360.00,1.40
9359.00,1.40
9358.00,1.40
9357.00,1.40
9356.00,1.40
9355.00,1.40
9354.00,1.40
9353.00,1.41
9352.00,1.41
9351.00,1.41
9350.00,1.41
9349.00,1.41
9348.00,1.41
9347.00,1.41
9346.00,1.41
9345.00,1.41
9344.00,1.41
9343.00,1.41
9342.00,1.41
9341.00,1.41
9340.00,1.41
9339.00,1.42
9338.00,1.42
9337.00,1.42
9336.00,1.42
9335.00,1.42
9334.00,1.42
9333.00,1.42
9332.00,1.42
9331.00,1.42
9330.00,1.42
9329.00,1.42
9328.00,1.42
9327.00,1.42
9326.00,1.42
9325.00,1.42
9324.00,1.42
9323.00,1.42
9322.00,1.42
9321.00,1.42
9320.00,1.41
9319.00,1.41
9318.00,1.41
9317.00,1.41
9316.00,1.41
9315.00,1.41
9314.00,1.41
9313.00,1.41
9312.00,1.41
9311.00,1.41
9310.00,1.41
9309.00,1.41
9308.00,1.41
9307.00,1.41
9306.00,1.41
9305.00,1.41
9304.00,1.41
9303.00,1.41
9302.00,1.41
9301.00,1.41
9300.00,1.41
9299.00,1.41
9298.00,1.41
9297.00,1.41
9296.00,1.42
9295.00,1.42
9294.00,1.42
9293.00,1.42
9292.00,1.41
9291.00,1.41
9290.00,1.41
9289.00,1.41
9288.00,1.41
9287.00,1.41
9286.00,1.41
9285.00,1.41
9284.00,1.41
9283.00,1.41
9282.00,1.40
9281.00,1.40
9280.00,1.40
9279.00,1.40
9278.00,1.40
9277.00,1.40
9276.00,1.40
9275.00,1.40
9274.00,1.40
9273.00,1.40
9272.00,1.40
9271.00,1.40
9270.00,1.40
9269.00,1.40
9268.00,1.40
9267.00,1.40
9266.00,1.40
9265.00,1.40
9264.00,1.40
9263.00,1.40
9262.00,1.40
9261.00,1.40
9260.00,1.39
9259.00,1.39
9258.00,1.39
9257.00,1.40
9256.00,1.40
9255.00,1.40
9254.00,1.40
9253.00,1.40
9252.00,1.40
9251.00,1.40
9250.00,1.41
9249.00,1.41
9248.00,1.41
9247.00,1.41
9246.00,1.41
9245.00,1.42
9244.00,1.42
9243.00,1.42
9242.00,1.42
9241.00,1.42
9240.00,1.42
9239.00,1.42
9238.00,1.42
9237.00,1.42
9236.00,1.42
9235.00,1.42
9234.00,1.42
9233.00,1.42
9232.00,1.42
9231.00,1.42
9230.00,1.41
9229.00,1.41
9228.00,1.41
9227.00,1.41
9226.00,1.41
9225.00,1.41
9224.00,1.41
9223.00,1.41
9222.00,1.41
9221.00,1.41
9220.00,1.41
9219.00,1.41
9218.00,1.41
9217.00,1.41
9216.00,1.41
9215.00,1.41
9214.00,1.42
9213.00,1.42
9212.00,1.42
9211.00,1.42
9210.00,1.42
9209.00,1.42
9208.00,1.42
9207.00,1.42
9206.00,1.42
9205.00,1.42
9204.00,1.42
9203.00,1.42
9202.00,1.42
9201.00,1.42
9200.00,1.42
9199.00,1.43
9198.00,1.43
9197.00,1.43
9196.00,1.43
9195.00,1.43
9194.00,1.42
9193.00,1.42
9192.00,1.42
9191.00,1.42
9190.00,1.42
9189.00,1.42
9188.00,1.42
9187.00,1.42
9186.00,1.42
9185.00,1.42
9184.00,1.41
9183.00,1.41
9182.00,1.41
9181.00,1.41
9180.00,1.41
9179.00,1.41
9178.00,1.41
9177.00,1.41
9176.00,1.40
9175.00,1.40
9174.00,1.40
9173.00,1.40
9172.00,1.40
9171.00,1.40
9170.00,1.40
9169.00,1.41
9168.00,1.41
9167.00,1.41
9166.00,1.41
9165.00,1.41
9164.00,1.41
9163.00,1.41
9162.00,1.41
9161.00,1.41
9160.00,1.41
9159.00,1.41
9158.00,1.41
9157.00,1.41
9156.00,1.41
9155.00,1.41
9154.00,1.41
9153.00,1.41
9152.00,1.41
9151.00,1.41
9150.00,1.41
9149.00,1.41
9148.00,1.41
9147.00,1.41
9146.00,1.41
9145.00,1.41
9144.00,1.41
9143.00,1.41
9142.00,1.41
9141.00,1.41
9140.00,1.41
9139.00,1.42
9138.00,1.42
9137.00,1.42
9136.00,1.42
9135.00,1.42
9134.00,1.42
9133.00,1.42
9132.00,1.42
9131.00,1.42
9130.00,1.42
9129.00,1.42
9128.00,1.42
9127.00,1.42
9126.00,1.42
9125.00,1.42
9124.00,1.42
9123.00,1.42
9122.00,1.42
9121.00,1.42
9120.00,1.42
9119.00,1.42
9118.00,1.42
9117.00,1.42
9116.00,1.42
9115.00,1.42
9114.00,1.41
9113.00,1.41
9112.00,1.41
9111.00,1.41
9110.00,1.41
9109.00,1.41
9108.00,1.41
9107.00,1.41
9106.00,1.41
9105.00,1.41
9104.00,1.41
9103.00,1.41
9102.00,1.41
9101.00,1.41
9100.00,1.41
9099.00,1.41
9098.00,1.41
9097.00,1.41
9096.00,1.41
9095.00,1.41
9094.00,1.41
9093.00,1.41
9092.00,1.41
9091.00,1.41
9090.00,1.41
9089.00,1.41
9088.00,1.41
9087.00,1.41
9086.00,1.41
9085.00,1.41
9084.00,1.41
9083.00,1.41
9082.00,1.41
9081.00,1.41
9080.00,1.41
9079.00,1.41
9078.00,1.41
9077.00,1.41
9076.00,1.41
9075.00,1.41
9074.00,1.41
9073.00,1.41
9072.00,1.41
9071.00,1.41
9070.00,1.41
9069.00,1.41
9068.00,1.41
9067.00,1.41
9066.00,1.41
9065.00,1.41
9064.00,1.41
9063.00,1.41
9062.00,1.41
9061.00,1.41
9060.00,1.41
9059.00,1.41
9058.00,1.41
9057.00,1.41
9056.00,1.41
9055.00,1.41
9054.00,1.41
9053.00,1.40
9052.00,1.40
9051.00,1.40
9050.00,1.40
9049.00,1.40
9048.00,1.40
9047.00,1.40
9046.00,1.40
9045.00,1.40
9044.00,1.39
9043.00,1.39
9042.00,1.39
9041.00,1.39
9040.00,1.39
9039.00,1.39
9038.00,1.39
9037.00,1.39
9036.00,1.39
9035.00,1.39
9034.00,1.39
9033.00,1.40
9032.00,1.40
9031.00,1.40
9030.00,1.40
9029.00,1.40
9028.00,1.40
9027.00,1.41
9026.00,1.41
9025.00,1.41
9024.00,1.41
9023.00,1.41
9022.00,1.41
9021.00,1.41
9020.00,1.41
9019.00,1.41
9018.00,1.41
9017.00,1.42
9016.00,1.42
9015.00,1.42
9014.00,1.42
9013.00,1.42
9012.00,1.42
9011.00,1.42
9010.00,1.41
9009.00,1.41
9008.00,1.41
9007.00,1.41
9006.00,1.41
9005.00,1.41
9004.00,1.41
9003.00,1.41
9002.00,1.41
9001.00,1.41
9000.00,1.41
8999.00,1.41
8998.00,1.41
8997.00,1.41
8996.00,1.41
8995.00,1.41
8994.00,1.41
8993.00,1.41
8992.00,1.41
8991.00,1.41
8990.00,1.41
8989.00,1.41
8988.00,1.42
8987.00,1.42
8986.00,1.42
8985.00,1.42
8984.00,1.42
8983.00,1.42
8982.00,1.42
8981.00,1.42
8980.00,1.42
8979.00,1.42
8978.00,1.42
8977.00,1.43
8976.00,1.43
8975.00,1.43
8974.00,1.43
8973.00,1.43
8972.00,1.43
8971.00,1.42
8970.00,1.42
8969.00,1.42
8968.00,1.42
8967.00,1.42
8966.00,1.42
8965.00,1.42
8964.00,1.42
8963.00,1.42
8962.00,1.42
8961.00,1.42
8960.00,1.42
8959.00,1.42
8958.00,1.42
8957.00,1.42
8956.00,1.42
8955.00,1.42
8954.00,1.42
8953.00,1.42
8952.00,1.42
8951.00,1.42
8950.00,1.42
8949.00,1.42
8948.00,1.42
8947.00,1.42
8946.00,1.42
8945.00,1.42
8944.00,1.42
8943.00,1.42
8942.00,1.42
8941.00,1.42
8940.00,1.42
8939.00,1.42
8938.00,1.41
8937.00,1.41
8936.00,1.41
8935.00,1.41
8934.00,1.41
8933.00,1.41
8932.00,1.41
8931.00,1.41
8930.00,1.41
8929.00,1.41
8928.00,1.41
8927.00,1.41
8926.00,1.41
8925.00,1.41
8924.00,1.41
8923.00,1.41
8922.00,1.41
8921.00,1.41
8920.00,1.41
8919.00,1.41
8918.00,1.41
8917.00,1.41
8916.00,1.41
8915.00,1.41
8914.00,1.41
8913.00,1.41
8912.00,1.41
8911.00,1.41
8910.00,1.41
8909.00,1.41
8908.00,1.41
8907.00,1.41
8906.00,1.41
8905.00,1.41
8904.00,1.41
8903.00,1.41
8902.00,1.41
8901.00,1.41
8900.00,1.41
8899.00,1.41
8898.00,1.41
8897.00,1.41
8896.00,1.41
8895.00,1.41
8894.00,1.41
8893.00,1.42
8892.00,1.42
8891.00,1.42
8890.00,1.42
8889.00,1.42
8888.00,1.42
8887.00,1.42
8886.00,1.42
8885.00,1.42
8884.00,1.42
8883.00,1.41
8882.00,1.41
8881.00,1.41
8880.00,1.41
8879.00,1.41
8878.00,1.41
8877.00,1.41
8876.00,1.41
8875.00,1.41
8874.00,1.41
8873.00,1.41
8872.00,1.41
8871.00,1.40
8870.00,1.40
8869.00,1.40
8868.00,1.40
8867.00,1.40
8866.00,1.40
8865.00,1.41
8864.00,1.41
8863.00,1.41
8862.00,1.41
8861.00,1.41
8860.00,1.41
8859.00,1.41
8858.00,1.41
8857.00,1.41
8856.00,1.41
8855.00,1.41
8854.00,1.41
8853.00,1.41
8852.00,1.41
8851.00,1.41
8850.00,1.41
8849.00,1.41
8848.00,1.40
8847.00,1.40
8846.00,1.40
8845.00,1.40
8844.00,1.40
8843.00,1.40
8842.00,1.40
8841.00,1.40
8840.00,1.40
8839.00,1.40
8838.00,1.40
8837.00,1.40
8836.00,1.40
8835.00,1.40
8834.00,1.40
8833.00,1.40
8832.00,1.40
8831.00,1.40
8830.00,1.40
8829.00,1.40
8828.00,1.40
8827.00,1.40
8826.00,1.40
8825.00,1.40
8824.00,1.40
8823.00,1.40
8822.00,1.39
8821.00,1.39
8820.00,1.39
8819.00,1.39
8818.00,1.39
8817.00,1.39
8816.00,1.39
8815.00,1.39
8814.00,1.39
8813.00,1.39
8812.00,1.39
8811.00,1.39
8810.00,1.39
8809.00,1.39
8808.00,1.39
8807.00,1.39
8806.00,1.39
8805.00,1.39
8804.00,1.39
8803.00,1.39
8802.00,1.39
8801.00,1.39
8800.00,1.39
8799.00,1.39
8798.00,1.39
8797.00,1.39
8796.00,1.39
8795.00,1.38
8794.00,1.38
8793.00,1.38
8792.00,1.38
8791.00,1.38
8790.00,1.38
8789.00,1.38
8788.00,1.37
8787.00,1.37
8786.00,1.37
8785.00,1.37
8784.00,1.37
8783.00,1.37
8782.00,1.37
8781.00,1.37
8780.00,1.38
8779.00,1.38
8778.00,1.38
8777.00,1.38
8776.00,1.38
8775.00,1.38
8774.00,1.38
8773.00,1.38
8772.00,1.38
8771.00,1.38
8770.00,1.38
8769.00,1.38
8768.00,1.38
8767.00,1.38
8766.00,1.38
8765.00,1.38
8764.00,1.38
8763.00,1.38
8762.00,1.38
8761.00,1.38
8760.00,1.37
8759.00,1.37
8758.00,1.37
8757.00,1.37
8756.00,1.37
8755.00,1.37
8754.00,1.37
8753.00,1.37
8752.00,1.37
8751.00,1.37
8750.00,1.37
8749.00,1.37
8748.00,1.37
8747.00,1.37
8746.00,1.37
8745.00,1.37
8744.00,1.37
8743.00,1.37
8742.00,1.37
8741.00,1.37
8740.00,1.37
8739.00,1.37
8738.00,1.37
8737.00,1.37
8736.00,1.37
8735.00,1.37
8734.00,1.37
8733.00,1.37
8732.00,1.37
8731.00,1.37
8730.00,1.37
8729.00,1.36
8728.00,1.36
8727.00,1.36
8726.00,1.36
8725.00,1.36
8724.00,1.36
8723.00,1.36
8722.00,1.36
8721.00,1.36
8720.00,1.36
8719.00,1.36
8718.00,1.36
8717.00,1.36
8716.00,1.36
8715.00,1.36
8714.00,1.35
8713.00,1.35
8712.00,1.35
8711.00,1.35
8710.00,1.35
8709.00,1.35
8708.00,1.35
8707.00,1.35
8706.00,1.35
8705.00,1.35
8704.00,1.35
8703.00,1.35
8702.00,1.35
8701.00,1.35
8700.00,1.35
8699.00,1.35
8698.00,1.35
8697.00,1.35
8696.00,1.35
8695.00,1.35
8694.00,1.35
8693.00,1.35
8692.00,1.35
8691.00,1.35
8690.00,1.35
8689.00,1.35
8688.00,1.35
8687.00,1.35
8686.00,1.34
8685.00,1.34
8684.00,1.34
8683.00,1.34
8682.00,1.34
8681.00,1.34
8680.00,1.34
8679.00,1.34
8678.00,1.34
8677.00,1.34
8676.00,1.34
8675.00,1.34
8674.00,1.33
8673.00,1.33
8672.00,1.33
8671.00,1.33
8670.00,1.34
8669.00,1.34
8668.00,1.34
8667.00,1.34
8666.00,1.34
8665.00,1.34
8664.00,1.34
8663.00,1.34
8662.00,1.34
8661.00,1.34
8660.00,1.34
8659.00,1.34
8658.00,1.34
8657.00,1.34
8656.00,1.35
8655.00,1.35
8654.00,1.35
8653.00,1.35
8652.00,1.35
8651.00,1.35
8650.00,1.35
8649.00,1.35
8648.00,1.35
8647.00,1.35
8646.00,1.34
8645.00,1.34
8644.00,1.34
8643.00,1.34
8642.00,1.34
8641.00,1.34
8640.00,1.34
8639.00,1.34
8638.00,1.34
8637.00,1.34
8636.00,1.34
8635.00,1.34
8634.00,1.34
8633.00,1.34
8632.00,1.34
8631.00,1.34
8630.00,1.34
8629.00,1.34
8628.00,1.34
8627.00,1.33
8626.00,1.33
8625.00,1.33
8624.00,1.33
8623.00,1.33
8622.00,1.33
8621.00,1.33
8620.00,1.32
8619.00,1.32
8618.00,1.32
8617.00,1.32
8616.00,1.32
8615.00,1.32
8614.00,1.31
8613.00,1.31
8612.00,1.31
8611.00,1.31
8610.00,1.31
8609.00,1.31
8608.00,1.31
8607.00,1.31
8606.00,1.31
8605.00,1.31
8604.00,1.31
8603.00,1.31
8602.00,1.31
8601.00,1.31
8600.00,1.31
8599.00,1.31
8598.00,1.31
8597.00,1.31
8596.00,1.31
8595.00,1.31
8594.00,1.31
8593.00,1.30
8592.00,1.30
8591.00,1.30
8590.00,1.30
8589.00,1.30
8588.00,1.30
8587.00,1.30
8586.00,1.30
8585.00,1.30
8584.00,1.30
8583.00,1.30
8582.00,1.30
8581.00,1.30
8580.00,1.30
8579.00,1.30
8578.00,1.30
8577.00,1.31
8576.00,1.31
8575.00,1.31
8574.00,1.30
8573.00,1.30
8572.00,1.30
8571.00,1.30
8570.00,1.30
8569.00,1.30
8568.00,1.30
8567.00,1.30
8566.00,1.30
8565.00,1.30
8564.00,1.29
8563.00,1.29
8562.00,1.29
8561.00,1.29
8560.00,1.29
8559.00,1.29
8558.00,1.29
8557.00,1.28
8556.00,1.28
8555.00,1.28
8554.00,1.28
8553.00,1.28
8552.00,1.28
8551.00,1.28
8550.00,1.28
8549.00,1.28
8548.00,1.28
8547.00,1.28
8546.00,1.28
8545.00,1.28
8544.00,1.28
8543.00,1.28
8542.00,1.27
8541.00,1.27
8540.00,1.27
8539.00,1.27
8538.00,1.27
8537.00,1.27
8536.00,1.27
8535.00,1.27
8534.00,1.27
8533.00,1.27
8532.00,1.27
8531.00,1.27
8530.00,1.27
8529.00,1.27
8528.00,1.27
8527.00,1.27
8526.00,1.27
8525.00,1.27
8524.00,1.27
8523.00,1.27
8522.00,1.27
8521.00,1.27
8520.00,1.27
8519.00,1.27
8518.00,1.27
8517.00,1.27
8516.00,1.27
8515.00,1.27
8514.00,1.27
8513.00,1.27
8512.00,1.27
8511.00,1.26
8510.00,1.26
8509.00,1.26
8508.00,1.26
8507.00,1.26
8506.00,1.26
8505.00,1.26
8504.00,1.26
8503.00,1.26
8502.00,1.26
8501.00,1.26
8500.00,1.26
8499.00,1.26
8498.00,1.25
8497.00,1.25
8496.00,1.25
8495.00,1.25
8494.00,1.25
8493.00,1.25
8492.00,1.25
8491.00,1.25
8490.00,1.25
8489.00,1.25
8488.00,1.25
8487.00,1.25
8486.00,1.25
8485.00,1.25
8484.00,1.26
8483.00,1.26
8482.00,1.26
8481.00,1.26
8480.00,1.26
8479.00,1.26
8478.00,1.25
8477.00,1.25
8476.00,1.25
8475.00,1.25
8474.00,1.25
8473.00,1.25
8472.00,1.25
8471.00,1.24
8470.00,1.24
8469.00,1.24
8468.00,1.24
8467.00,1.23
8466.00,1.23
8465.00,1.23
8464.00,1.23
8463.00,1.22
8462.00,1.22
8461.00,1.22
8460.00,1.22
8459.00,1.22
8458.00,1.21
8457.00,1.21
8456.00,1.21
8455.00,1.21
8454.00,1.21
8453.00,1.21
8452.00,1.21
8451.00,1.21
8450.00,1.21
8449.00,1.21
8448.00,1.21
8447.00,1.21
8446.00,1.21
8445.00,1.21
8444.00,1.21
8443.00,1.21
8442.00,1.21
8441.00,1.21
8440.00,1.21
8439.00,1.21
8438.00,1.21
8437.00,1.21
8436.00,1.21
8435.00,1.21
8434.00,1.21
8433.00,1.21
8432.00,1.21
8431.00,1.21
8430.00,1.22
8429.00,1.22
8428.00,1.22
8427.00,1.22
8426.00,1.22
8425.00,1.23
8424.00,1.23
8423.00,1.23
8422.00,1.23
8421.00,1.23
8420.00,1.23
8419.00,1.23
8418.00,1.23
8417.00,1.23
8416.00,1.23
8415.00,1.23
8414.00,1.24
8413.00,1.24
8412.00,1.24
8411.00,1.24
8410.00,1.24
8409.00,1.24
8408.00,1.24
8407.00,1.24
8406.00,1.24
8405.00,1.24
8404.00,1.24
8403.00,1.25
8402.00,1.25
8401.00,1.25
8400.00,1.25
8399.00,1.25
8398.00,1.25
8397.00,1.25
8396.00,1.25
8395.00,1.25
8394.00,1.25
8393.00,1.25
8392.00,1.25
8391.00,1.25
8390.00,1.25
8389.00,1.25
8388.00,1.25
8387.00,1.25
8386.00,1.25
8385.00,1.25
8384.00,1.26
8383.00,1.26
8382.00,1.26
8381.00,1.26
8380.00,1.26
8379.00,1.26
8378.00,1.26
8377.00,1.26
8376.00,1.26
8375.00,1.26
8374.00,1.26
8373.00,1.26
8372.00,1.26
8371.00,1.26
8370.00,1.26
8369.00,1.26
8368.00,1.26
8367.00,1.26
8366.00,1.26
8365.00,1.26
8364.00,1.26
8363.00,1.26
8362.00,1.26
8361.00,1.26
8360.00,1.26
8359.00,1.26
8358.00,1.26
8357.00,1.26
8356.00,1.26
8355.00,1.26
8354.00,1.26
8353.00,1.26
8352.00,1.26
8351.00,1.26
8350.00,1.26
8349.00,1.26
8348.00,1.26
8347.00,1.26
8346.00,1.26
8345.00,1.26
8344.00,1.26
8343.00,1.26
8342.00,1.26
8341.00,1.26
8340.00,1.26
8339.00,1.26
8338.00,1.26
8337.00,1.26
8336.00,1.26
8335.00,1.26
8334.00,1.26
8333.00,1.26
8332.00,1.26
8331.00,1.26
8330.00,1.26
8329.00,1.26
8328.00,1.26
8327.00,1.26
8326.00,1.26
8325.00,1.26
8324.00,1.26
8323.00,1.26
8322.00,1.26
8321.00,1.27
8320.00,1.27
8319.00,1.27
8318.00,1.27
8317.00,1.27
8316.00,1.27
8315.00,1.28
8314.00,1.28
8313.00,1.28
8312.00,1.28
8311.00,1.28
8310.00,1.28
8309.00,1.28
8308.00,1.28
8307.00,1.28
8306.00,1.28
8305.00,1.28
8304.00,1.28
8303.00,1.28
8302.00,1.28
8301.00,1.28
8300.00,1.28
8299.00,1.28
8298.00,1.28
8297.00,1.28
8296.00,1.28
8295.00,1.28
8294.00,1.28
8293.00,1.28
8292.00,1.28
8291.00,1.28
8290.00,1.28
8289.00,1.28
8288.00,1.28
8287.00,1.28
8286.00,1.28
8285.00,1.28
8284.00,1.28
8283.00,1.28
8282.00,1.28
8281.00,1.28
8280.00,1.28
8279.00,1.28
8278.00,1.28
8277.00,1.28
8276.00,1.28
8275.00,1.28
8274.00,1.28
8273.00,1.28
8272.00,1.28
8271.00,1.28
8270.00,1.29
8269.00,1.29
8268.00,1.29
8267.00,1.29
8266.00,1.29
8265.00,1.29
8264.00,1.29
8263.00,1.29
8262.00,1.29
8261.00,1.30
8260.00,1.30
8259.00,1.30
8258.00,1.30
8257.00,1.30
8256.00,1.30
8255.00,1.30
8254.00,1.30
8253.00,1.30
8252.00,1.30
8251.00,1.30
8250.00,1.30
8249.00,1.30
8248.00,1.30
8247.00,1.30
8246.00,1.30
8245.00,1.30
8244.00,1.30
8243.00,1.30
8242.00,1.29
8241.00,1.29
8240.00,1.29
8239.00,1.29
8238.00,1.29
8237.00,1.29
8236.00,1.29
8235.00,1.29
8234.00,1.29
8233.00,1.29
8232.00,1.29
8231.00,1.29
8230.00,1.29
8229.00,1.30
8228.00,1.30
8227.00,1.30
8226.00,1.30
8225.00,1.30
8224.00,1.30
8223.00,1.30
8222.00,1.30
8221.00,1.30
8220.00,1.31
8219.00,1.31
8218.00,1.31
8217.00,1.31
8216.00,1.31
8215.00,1.31
8214.00,1.31
8213.00,1.31
8212.00,1.30
8211.00,1.30
8210.00,1.30
8209.00,1.30
8208.00,1.30
8207.00,1.30
8206.00,1.30
8205.00,1.30
8204.00,1.30
8203.00,1.30
8202.00,1.30
8201.00,1.31
8200.00,1.31
8199.00,1.31
8198.00,1.31
8197.00,1.31
8196.00,1.31
8195.00,1.31
8194.00,1.31
8193.00,1.31
8192.00,1.31
8191.00,1.31
8190.00,1.31
8189.00,1.31
8188.00,1.31
8187.00,1.31
8186.00,1.31
8185.00,1.31
8184.00,1.31
8183.00,1.31
8182.00,1.31
8181.00,1.31
8180.00,1.31
8179.00,1.31
8178.00,1.31
8177.00,1.31
8176.00,1.31
8175.00,1.31
8174.00,1.31
8173.00,1.31
8172.00,1.31
8171.00,1.31
8170.00,1.31
8169.00,1.31
8168.00,1.31
8167.00,1.31
8166.00,1.31
8165.00,1.31
8164.00,1.31
8163.00,1.31
8162.00,1.31
8161.00,1.31
8160.00,1.32
8159.00,1.32
8158.00,1.32
8157.00,1.32
8156.00,1.32
8155.00,1.32
8154.00,1.32
8153.00,1.32
8152.00,1.33
8151.00,1.33
8150.00,1.33
8149.00,1.33
8148.00,1.33
8147.00,1.33
8146.00,1.33
8145.00,1.33
8144.00,1.33
8143.00,1.33
8142.00,1.33
8141.00,1.33
8140.00,1.33
8139.00,1.33
8138.00,1.33
8137.00,1.33
8136.00,1.33
8135.00,1.33
8134.00,1.34
8133.00,1.34
8132.00,1.34
8131.00,1.34
8130.00,1.34
8129.00,1.34
8128.00,1.35
8127.00,1.35
8126.00,1.35
8125.00,1.35
8124.00,1.35
8123.00,1.35
8122.00,1.35
8121.00,1.35
8120.00,1.35
8119.00,1.35
8118.00,1.35
8117.00,1.35
8116.00,1.35
8115.00,1.35
8114.00,1.35
8113.00,1.35
8112.00,1.35
8111.00,1.35
8110.00,1.35
8109.00,1.35
8108.00,1.35
8107.00,1.35
8106.00,1.35
8105.00,1.35
8104.00,1.35
8103.00,1.34
8102.00,1.34
8101.00,1.34
8100.00,1.34
8099.00,1.34
8098.00,1.35
8097.00,1.35
8096.00,1.35
8095.00,1.35
8094.00,1.35
8093.00,1.35
8092.00,1.35
8091.00,1.35
8090.00,1.35
8089.00,1.35
8088.00,1.35
8087.00,1.35
8086.00,1.35
8085.00,1.35
8084.00,1.35
8083.00,1.35
8082.00,1.35
8081.00,1.36
8080.00,1.36
8079.00,1.36
8078.00,1.36
8077.00,1.36
8076.00,1.36
8075.00,1.36
8074.00,1.36
8073.00,1.37
8072.00,1.37
8071.00,1.37
8070.00,1.37
8069.00,1.37
8068.00,1.37
8067.00,1.37
8066.00,1.37
8065.00,1.37
8064.00,1.37
8063.00,1.37
8062.00,1.37
8061.00,1.37
8060.00,1.37
8059.00,1.37
8058.00,1.37
8057.00,1.37
8056.00,1.37
8055.00,1.37
8054.00,1.37
8053.00,1.37
8052.00,1.37
8051.00,1.37
8050.00,1.37
8049.00,1.37
8048.00,1.37
8047.00,1.37
8046.00,1.37
8045.00,1.37
8044.00,1.37
8043.00,1.37
8042.00,1.37
8041.00,1.37
8040.00,1.37
8039.00,1.36
8038.00,1.36
8037.00,1.36
8036.00,1.36
8035.00,1.36
8034.00,1.36
8033.00,1.36
8032.00,1.37
8031.00,1.37
8030.00,1.37
8029.00,1.37
8028.00,1.37
8027.00,1.37
8026.00,1.37
8025.00,1.37
8024.00,1.37
8023.00,1.37
8022.00,1.37
8021.00,1.37
8020.00,1.37
8019.00,1.37
8018.00,1.37
8017.00,1.37
8016.00,1.37
8015.00,1.37
8014.00,1.37
8013.00,1.37
8012.00,1.37
8011.00,1.37
8010.00,1.37
8009.00,1.37
8008.00,1.37
8007.00,1.37
8006.00,1.37
8005.00,1.37
8004.00,1.37
8003.00,1.37
8002.00,1.37
8001.00,1.37
8000.00,1.37
7999.00,1.37
7998.00,1.37
7997.00,1.37
7996.00,1.37
7995.00,1.37
7994.00,1.37
7993.00,1.37
7992.00,1.37
7991.00,1.37
7990.00,1.37
7989.00,1.37
7988.00,1.36
7987.00,1.36
7986.00,1.36
7985.00,1.36
7984.00,1.36
7983.00,1.36
7982.00,1.36
7981.00,1.36
7980.00,1.36
7979.00,1.36
7978.00,1.36
7977.00,1.36
7976.00,1.36
7975.00,1.36
7974.00,1.37
7973.00,1.37
7972.00,1.37
7971.00,1.37
7970.00,1.37
7969.00,1.37
7968.00,1.37
7967.00,1.37
7966.00,1.38
7965.00,1.38
7964.00,1.38
7963.00,1.38
7962.00,1.38
7961.00,1.38
7960.00,1.38
7959.00,1.38
7958.00,1.38
7957.00,1.38
7956.00,1.38
7955.00,1.38
7954.00,1.38
7953.00,1.39
7952.00,1.39
7951.00,1.39
7950.00,1.39
7949.00,1.39
7948.00,1.39
7947.00,1.39
7946.00,1.39
7945.00,1.39
7944.00,1.39
7943.00,1.39
7942.00,1.39
7941.00,1.39
7940.00,1.39
7939.00,1.39
7938.00,1.39
7937.00,1.39
7936.00,1.39
7935.00,1.39
7934.00,1.39
7933.00,1.39
7932.00,1.39
7931.00,1.39
7930.00,1.39
7929.00,1.39
7928.00,1.38
7927.00,1.38
7926.00,1.38
7925.00,1.38
7924.00,1.38
7923.00,1.38
7922.00,1.38
7921.00,1.38
7920.00,1.38
7919.00,1.38
7918.00,1.39
7917.00,1.39
7916.00,1.39
7915.00,1.39
7914.00,1.39
7913.00,1.39
7912.00,1.39
7911.00,1.39
7910.00,1.39
7909.00,1.39
7908.00,1.39
7907.00,1.39
7906.00,1.39
7905.00,1.39
7904.00,1.39
7903.00,1.39
7902.00,1.39
7901.00,1.39
7900.00,1.39
7899.00,1.39
7898.00,1.39
7897.00,1.39
7896.00,1.39
7895.00,1.39
7894.00,1.38
7893.00,1.38
7892.00,1.38
7891.00,1.38
7890.00,1.38
7889.00,1.38
7888.00,1.38
7887.00,1.38
7886.00,1.38
7885.00,1.38
7884.00,1.38
7883.00,1.38
7882.00,1.38
7881.00,1.38
7880.00,1.38
7879.00,1.38
7878.00,1.38
7877.00,1.38
7876.00,1.38
7875.00,1.38
7874.00,1.38
7873.00,1.38
7872.00,1.38
7871.00,1.38
7870.00,1.39
7869.00,1.39
7868.00,1.39
7867.00,1.39
7866.00,1.39
7865.00,1.39
7864.00,1.39
7863.00,1.39
7862.00,1.39
7861.00,1.39
7860.00,1.39
7859.00,1.39
7858.00,1.39
7857.00,1.39
7856.00,1.40
7855.00,1.40
7854.00,1.40
7853.00,1.40
7852.00,1.40
7851.00,1.40
7850.00,1.40
7849.00,1.40
7848.00,1.40
7847.00,1.40
7846.00,1.40
7845.00,1.40
7844.00,1.40
7843.00,1.40
7842.00,1.40
7841.00,1.40
7840.00,1.40
7839.00,1.40
7838.00,1.40
7837.00,1.40
7836.00,1.40
7835.00,1.40
7834.00,1.39
7833.00,1.39
7832.00,1.39
7831.00,1.39
7830.00,1.39
7829.00,1.39
7828.00,1.39
7827.00,1.39
7826.00,1.39
7825.00,1.39
7824.00,1.39
7823.00,1.39
7822.00,1.39
7821.00,1.39
7820.00,1.39
7819.00,1.40
7818.00,1.40
7817.00,1.40
7816.00,1.40
7815.00,1.40
7814.00,1.40
7813.00,1.40
7812.00,1.40
7811.00,1.40
7810.00,1.40
7809.00,1.40
7808.00,1.40
7807.00,1.40
7806.00,1.40
7805.00,1.40
7804.00,1.40
7803.00,1.40
7802.00,1.40
7801.00,1.40
7800.00,1.40
7799.00,1.40
7798.00,1.41
7797.00,1.41
7796.00,1.41
7795.00,1.41
7794.00,1.41
7793.00,1.41
7792.00,1.41
7791.00,1.41
7790.00,1.41
7789.00,1.41
7788.00,1.41
7787.00,1.41
7786.00,1.41
7785.00,1.41
7784.00,1.41
7783.00,1.41
7782.00,1.41
7781.00,1.41
7780.00,1.41
7779.00,1.41
7778.00,1.41
7777.00,1.41
7776.00,1.41
7775.00,1.41
7774.00,1.41
7773.00,1.41
7772.00,1.41
7771.00,1.41
7770.00,1.41
7769.00,1.41
7768.00,1.41
7767.00,1.41
7766.00,1.41
7765.00,1.41
7764.00,1.41
7763.00,1.41
7762.00,1.41
7761.00,1.41
7760.00,1.41
7759.00,1.41
7758.00,1.41
7757.00,1.41
7756.00,1.41
7755.00,1.41
7754.00,1.41
7753.00,1.41
7752.00,1.41
7751.00,1.41
7750.00,1.41
7749.00,1.41
7748.00,1.41
7747.00,1.41
7746.00,1.41
7745.00,1.41
7744.00,1.41
7743.00,1.41
7742.00,1.41
7741.00,1.42
7740.00,1.42
7739.00,1.42
7738.00,1.42
7737.00,1.42
7736.00,1.42
7735.00,1.42
7734.00,1.42
7733.00,1.42
7732.00,1.42
7731.00,1.42
7730.00,1.42
7729.00,1.42
7728.00,1.42
7727.00,1.42
7726.00,1.42
7725.00,1.42
7724.00,1.42
7723.00,1.42
7722.00,1.42
7721.00,1.42
7720.00,1.42
7719.00,1.43
7718.00,1.43
7717.00,1.43
7716.00,1.43
7715.00,1.43
7714.00,1.43
7713.00,1.43
7712.00,1.42
7711.00,1.42
7710.00,1.42
7709.00,1.42
7708.00,1.42
7707.00,1.42
7706.00,1.42
7705.00,1.42
7704.00,1.42
7703.00,1.42
7702.00,1.42
7701.00,1.42
7700.00,1.42
7699.00,1.42
7698.00,1.42
7697.00,1.42
7696.00,1.42
7695.00,1.42
7694.00,1.42
7693.00,1.42
7692.00,1.42
7691.00,1.42
7690.00,1.42
7689.00,1.43
7688.00,1.43
7687.00,1.43
7686.00,1.43
7685.00,1.43
7684.00,1.43
7683.00,1.43
7682.00,1.43
7681.00,1.43
7680.00,1.43
7679.00,1.42
7678.00,1.42
7677.00,1.42
7676.00,1.42
7675.00,1.42
7674.00,1.42
7673.00,1.42
7672.00,1.42
7671.00,1.42
7670.00,1.42
7669.00,1.42
7668.00,1.42
7667.00,1.42
7666.00,1.42
7665.00,1.42
7664.00,1.42
7663.00,1.42
7662.00,1.42
7661.00,1.42
7660.00,1.42
7659.00,1.42
7658.00,1.42
7657.00,1.42
7656.00,1.41
7655.00,1.41
7654.00,1.41
7653.00,1.41
7652.00,1.41
7651.00,1.41
7650.00,1.41
7649.00,1.41
7648.00,1.41
7647.00,1.41
7646.00,1.41
7645.00,1.41
7644.00,1.41
7643.00,1.41
7642.00,1.41
7641.00,1.41
7640.00,1.41
7639.00,1.41
7638.00,1.41
7637.00,1.41
7636.00,1.41
7635.00,1.41
7634.00,1.41
7633.00,1.41
7632.00,1.41
7631.00,1.41
7630.00,1.41
7629.00,1.41
7628.00,1.41
7627.00,1.41
7626.00,1.41
7625.00,1.41
7624.00,1.41
7623.00,1.41
7622.00,1.41
7621.00,1.41
7620.00,1.41
7619.00,1.41
7618.00,1.41
7617.00,1.41
7616.00,1.41
7615.00,1.41
7614.00,1.41
7613.00,1.41
7612.00,1.41
7611.00,1.41
7610.00,1.41
7609.00,1.41
7608.00,1.41
7607.00,1.41
7606.00,1.41
7605.00,1.41
7604.00,1.41
7603.00,1.41
7602.00,1.41
7601.00,1.41
7600.00,1.41
7599.00,1.41
7598.00,1.41
7597.00,1.41
7596.00,1.41
7595.00,1.41
7594.00,1.41
7593.00,1.41
7592.00,1.41
7591.00,1.41
7590.00,1.41
7589.00,1.41
7588.00,1.41
7587.00,1.41
7586.00,1.41
7585.00,1.41
7584.00,1.41
7583.00,1.41
7582.00,1.41
7581.00,1.41
7580.00,1.41
7579.00,1.41
7578.00,1.41
7577.00,1.41
7576.00,1.41
7575.00,1.41
7574.00,1.41
7573.00,1.41
7572.00,1.41
7571.00,1.40
7570.00,1.40
7569.00,1.40
7568.00,1.40
7567.00,1.40
7566.00,1.40
7565.00,1.40
7564.00,1.40
7563.00,1.40
7562.00,1.40
7561.00,1.40
7560.00,1.40
7559.00,1.40
7558.00,1.40
7557.00,1.40
7556.00,1.40
7555.00,1.40
7554.00,1.40
7553.00,1.40
7552.00,1.40
7551.00,1.40
7550.00,1.40
7549.00,1.40
7548.00,1.40
7547.00,1.40
7546.00,1.40
7545.00,1.40
7544.00,1.40
7543.00,1.40
7542.00,1.40
7541.00,1.40
7540.00,1.40
7539.00,1.40
7538.00,1.40
7537.00,1.40
7536.00,1.41
7535.00,1.41
7534.00,1.41
7533.00,1.41
7532.00,1.41
7531.00,1.41
7530.00,1.41
7529.00,1.41
7528.00,1.41
7527.00,1.41
7526.00,1.40
7525.00,1.40
7524.00,1.40
7523.00,1.40
7522.00,1.40
7521.00,1.40
7520.00,1.40
7519.00,1.40
7518.00,1.40
7517.00,1.40
7516.00,1.40
7515.00,1.40
7514.00,1.40
7513.00,1.40
7512.00,1.40
7511.00,1.40
7510.00,1.40
7509.00,1.39
7508.00,1.39
7507.00,1.39
7506.00,1.39
7505.00,1.39
7504.00,1.39
7503.00,1.39
7502.00,1.39
7501.00,1.39
7500.00,1.39
7499.00,1.38
7498.00,1.38
7497.00,1.38
7496.00,1.38
7495.00,1.38
7494.00,1.38
7493.00,1.38
7492.00,1.38
7491.00,1.38
7490.00,1.38
7489.00,1.38
7488.00,1.38
7487.00,1.38
7486.00,1.38
7485.00,1.38
7484.00,1.38
7483.00,1.38
7482.00,1.38
7481.00,1.38
7480.00,1.38
7479.00,1.38
7478.00,1.38
7477.00,1.38
7476.00,1.38
7475.00,1.38
7474.00,1.38
7473.00,1.38
7472.00,1.38
7471.00,1.38
7470.00,1.38
7469.00,1.37
7468.00,1.37
7467.00,1.37
7466.00,1.37
7465.00,1.37
7464.00,1.37
7463.00,1.37
7462.00,1.37
7461.00,1.37
7460.00,1.37
7459.00,1.37
7458.00,1.37
7457.00,1.37
7456.00,1.37
7455.00,1.36
7454.00,1.36
7453.00,1.36
7452.00,1.36
7451.00,1.36
7450.00,1.36
7449.00,1.36
7448.00,1.36
7447.00,1.36
7446.00,1.35
7445.00,1.35
7444.00,1.35
7443.00,1.35
7442.00,1.35
7441.00,1.35
7440.00,1.35
7439.00,1.35
7438.00,1.35
7437.00,1.35
7436.00,1.35
7435.00,1.35
7434.00,1.35
7433.00,1.35
7432.00,1.35
7431.00,1.35
7430.00,1.35
7429.00,1.35
7428.00,1.35
7427.00,1.35
7426.00,1.34
7425.00,1.34
7424.00,1.34
7423.00,1.34
7422.00,1.34
7421.00,1.34
7420.00,1.34
7419.00,1.34
7418.00,1.34
7417.00,1.34
7416.00,1.33
7415.00,1.33
7414.00,1.33
7413.00,1.33
7412.00,1.33
7411.00,1.33
7410.00,1.33
7409.00,1.32
7408.00,1.32
7407.00,1.32
7406.00,1.32
7405.00,1.32
7404.00,1.32
7403.00,1.32
7402.00,1.31
7401.00,1.31
7400.00,1.31
7399.00,1.31
7398.00,1.31
7397.00,1.31
7396.00,1.31
7395.00,1.31
7394.00,1.30
7393.00,1.30
7392.00,1.30
7391.00,1.30
7390.00,1.30
7389.00,1.30
7388.00,1.30
7387.00,1.30
7386.00,1.29
7385.00,1.29
7384.00,1.29
7383.00,1.29
7382.00,1.29
7381.00,1.29
7380.00,1.29
7379.00,1.29
7378.00,1.29
7377.00,1.28
7376.00,1.28
7375.00,1.28
7374.00,1.28
7373.00,1.28
7372.00,1.28
7371.00,1.28
7370.00,1.28
7369.00,1.28
7368.00,1.28
7367.00,1.28
7366.00,1.28
7365.00,1.28
7364.00,1.28
7363.00,1.28
7362.00,1.28
7361.00,1.28
7360.00,1.28
7359.00,1.28
7358.00,1.28
7357.00,1.28
7356.00,1.27
7355.00,1.27
7354.00,1.27
7353.00,1.27
7352.00,1.27
7351.00,1.27
7350.00,1.27
7349.00,1.27
7348.00,1.27
7347.00,1.26
7346.00,1.26
7345.00,1.26
7344.00,1.26
7343.00,1.26
7342.00,1.26
7341.00,1.26
7340.00,1.26
7339.00,1.26
7338.00,1.26
7337.00,1.26
7336.00,1.26
7335.00,1.26
7334.00,1.26
7333.00,1.26
7332.00,1.26
7331.00,1.26
7330.00,1.26
7329.00,1.26
7328.00,1.26
7327.00,1.26
7326.00,1.26
7325.00,1.26
7324.00,1.26
7323.00,1.26
7322.00,1.26
7321.00,1.26
7320.00,1.26
7319.00,1.26
7318.00,1.26
7317.00,1.26
7316.00,1.26
7315.00,1.26
7314.00,1.26
7313.00,1.26
7312.00,1.26
7311.00,1.26
7310.00,1.26
7309.00,1.26
7308.00,1.26
7307.00,1.26
7306.00,1.26
7305.00,1.26
7304.00,1.26
7303.00,1.26
7302.00,1.26
7301.00,1.25
7300.00,1.25
7299.00,1.25
7298.00,1.25
7297.00,1.25
7296.00,1.25
7295.00,1.25
7294.00,1.25
7293.00,1.24
7292.00,1.24
7291.00,1.24
7290.00,1.24
7289.00,1.24
7288.00,1.24
7287.00,1.24
7286.00,1.24
7285.00,1.23
7284.00,1.23
7283.00,1.23
7282.00,1.23
7281.00,1.23
7280.00,1.23
7279.00,1.23
7278.00,1.23
7277.00,1.22
7276.00,1.22
7275.00,1.22
7274.00,1.22
7273.00,1.22
7272.00,1.22
7271.00,1.22
7270.00,1.21
7269.00,1.21
7268.00,1.21
7267.00,1.21
7266.00,1.21
7265.00,1.21
7264.00,1.20
7263.00,1.20
7262.00,1.20
7261.00,1.20
7260.00,1.20
7259.00,1.20
7258.00,1.19
7257.00,1.19
7256.00,1.19
7255.00,1.19
7254.00,1.19
7253.00,1.19
7252.00,1.18
7251.00,1.18
7250.00,1.18
7249.00,1.18
7248.00,1.17
7247.00,1.17
7246.00,1.17
7245.00,1.17
7244.00,1.16
7243.00,1.16
7242.00,1.16
7241.00,1.15
7240.00,1.15
7239.00,1.15
7238.00,1.14
7237.00,1.14
7236.00,1.14
7235.00,1.13
7234.00,1.13
7233.00,1.12
7232.00,1.12
7231.00,1.11
7230.00,1.11
7229.00,1.11
7228.00,1.10
7227.00,1.10
7226.00,1.09
7225.00,1.09
7224.00,1.09
7223.00,1.08
7222.00,1.08
7221.00,1.08
7220.00,1.07
7219.00,1.07
7218.00,1.07
7217.00,1.06
7216.00,1.06
7215.00,1.05
7214.00,1.05
7213.00,1.05
7212.00,1.04
7211.00,1.04
7210.00,1.04
7209.00,1.03
7208.00,1.03
7207.00,1.02
7206.00,1.02
7205.00,1.02
7204.00,1.01
7203.00,1.01
7202.00,1.01
7201.00,1.00
7200.00,1.00
7199.00,1.00
7198.00,0.99
7197.00,0.99
7196.00,0.99
7195.00,0.98
7194.00,0.98
7193.00,0.98
7192.00,0.98
7191.00,0.97
7190.00,0.97
7189.00,0.97
7188.00,0.96
7187.00,0.96
7186.00,0.96
7185.00,0.95
7184.00,0.95
7183.00,0.95
7182.00,0.94
7181.00,0.94
7180.00,0.93
7179.00,0.93
7178.00,0.93
7177.00,0.92
7176.00,0.92
7175.00,0.92
7174.00,0.91
7173.00,0.91
7172.00,0.91
7171.00,0.90
7170.00,0.90
7169.00,0.90
7168.00,0.90
7167.00,0.89
7166.00,0.89
7165.00,0.89
7164.00,0.89
7163.00,0.88
7162.00,0.88
7161.00,0.88
7160.00,0.88
7159.00,0.87
7158.00,0.87
7157.00,0.87
7156.00,0.87
7155.00,0.86
7154.00,0.86
7153.00,0.86
7152.00,0.86
7151.00,0.85
7150.00,0.85
7149.00,0.85
7148.00,0.84
7147.00,0.84
7146.00,0.84
7145.00,0.83
7144.00,0.83
7143.00,0.83
7142.00,0.82
7141.00,0.82
7140.00,0.81
7139.00,0.81
7138.00,0.81
7137.00,0.81
7136.00,0.80
7135.00,0.80
7134.00,0.80
7133.00,0.80
7132.00,0.79
7131.00,0.79
7130.00,0.79
7129.00,0.79
7128.00,0.79
7127.00,0.78
7126.00,0.78
7125.00,0.78
7124.00,0.78
7123.00,0.78
7122.00,0.77
7121.00,0.77
7120.00,0.77
7119.00,0.77
7118.00,0.76
7117.00,0.76
7116.00,0.76
7115.00,0.76
7114.00,0.75
7113.00,0.75
7112.00,0.75
7111.00,0.75
7110.00,0.74
7109.00,0.74
7108.00,0.74
7107.00,0.74
7106.00,0.74
7105.00,0.73
7104.00,0.73
7103.00,0.73
7102.00,0.72
7101.00,0.72
7100.00,0.72
7099.00,0.72
7098.00,0.71
7097.00,0.71
7096.00,0.71
7095.00,0.71
7094.00,0.71
7093.00,0.70
7092.00,0.70
7091.00,0.70
7090.00,0.70
7089.00,0.70
7088.00,0.70
7087.00,0.70
7086.00,0.69
7085.00,0.69
7084.00,0.69
7083.00,0.69
7082.00,0.69
7081.00,0.69
7080.00,0.69
7079.00,0.69
7078.00,0.69
7077.00,0.69
7076.00,0.69
7075.00,0.69
7074.00,0.68
7073.00,0.68
7072.00,0.68
7071.00,0.68
7070.00,0.68
7069.00,0.68
7068.00,0.68
7067.00,0.68
7066.00,0.68
7065.00,0.67
7064.00,0.67
7063.00,0.67
7062.00,0.67
7061.00,0.67
7060.00,0.67
7059.00,0.67
7058.00,0.67
7057.00,0.66
7056.00,0.66
7055.00,0.66
7054.00,0.66
7053.00,0.66
7052.00,0.66
7051.00,0.66
7050.00,0.65
7049.00,0.65
7048.00,0.65
7047.00,0.65
7046.00,0.65
7045.00,0.65
7044.00,0.65
7043.00,0.64
7042.00,0.64
7041.00,0.64
7040.00,0.64
7039.00,0.64
7038.00,0.64
7037.00,0.63
7036.00,0.63
7035.00,0.63
7034.00,0.63
7033.00,0.63
7032.00,0.63
7031.00,0.62
7030.00,0.62
7029.00,0.62
7028.00,0.62
7027.00,0.62
7026.00,0.62
7025.00,0.62
7024.00,0.62
7023.00,0.61
7022.00,0.61
7021.00,0.61
7020.00,0.61
7019.00,0.61
7018.00,0.61
7017.00,0.61
7016.00,0.61
7015.00,0.61
7014.00,0.61
7013.00,0.61
7012.00,0.61
7011.00,0.61
7010.00,0.61
7009.00,0.61
7008.00,0.61
7007.00,0.61
7006.00,0.61
7005.00,0.61
7004.00,0.61
7003.00,0.61
7002.00,0.61
7001.00,0.61
7000.00,0.61
6999.00,0.61
6998.00,0.61
6997.00,0.61
6996.00,0.61
6995.00,0.61
6994.00,0.61
6993.00,0.61
6992.00,0.60
6991.00,0.60
6990.00,0.60
6989.00,0.60
6988.00,0.60
6987.00,0.60
6986.00,0.60
6985.00,0.60
6984.00,0.60
6983.00,0.60
6982.00,0.59
6981.00,0.59
6980.00,0.59
6979.00,0.59
6978.00,0.59
6977.00,0.59
6976.00,0.59
6975.00,0.59
6974.00,0.59
6973.00,0.59
6972.00,0.59
6971.00,0.59
6970.00,0.59
6969.00,0.59
6968.00,0.59
6967.00,0.59
6966.00,0.59
6965.00,0.59
6964.00,0.59
6963.00,0.59
6962.00,0.58
6961.00,0.58
6960.00,0.58
6959.00,0.58
6958.00,0.58
6957.00,0.58
6956.00,0.58
6955.00,0.58
6954.00,0.58
6953.00,0.58
6952.00,0.58
6951.00,0.58
6950.00,0.58
6949.00,0.58
6948.00,0.58
6947.00,0.58
6946.00,0.58
6945.00,0.58
6944.00,0.58
6943.00,0.58
6942.00,0.58
6941.00,0.58
6940.00,0.58
6939.00,0.58
6938.00,0.59
6937.00,0.59
6936.00,0.59
6935.00,0.59
6934.00,0.59
6933.00,0.59
6932.00,0.59
6931.00,0.59
6930.00,0.59
6929.00,0.59
6928.00,0.59
6927.00,0.59
6926.00,0.59
6925.00,0.59
6924.00,0.58
6923.00,0.58
6922.00,0.58
6921.00,0.58
6920.00,0.58
6919.00,0.58
6918.00,0.58
6917.00,0.58
6916.00,0.58
6915.00,0.58
6914.00,0.58
6913.00,0.58
6912.00,0.58
6911.00,0.58
6910.00,0.58
6909.00,0.58
6908.00,0.58
6907.00,0.58
6906.00,0.58
6905.00,0.58
6904.00,0.58
6903.00,0.58
6902.00,0.58
6901.00,0.58
6900.00,0.58
6899.00,0.58
6898.00,0.58
6897.00,0.58
6896.00,0.58
6895.00,0.58
6894.00,0.58
6893.00,0.58
6892.00,0.58
6891.00,0.59
6890.00,0.59
6889.00,0.59
6888.00,0.59
6887.00,0.59
6886.00,0.59
6885.00,0.59
6884.00,0.59
6883.00,0.59
6882.00,0.58
6881.00,0.58
6880.00,0.58
6879.00,0.58
6878.00,0.58
6877.00,0.58
6876.00,0.58
6875.00,0.58
6874.00,0.58
6873.00,0.58
6872.00,0.58
6871.00,0.58
6870.00,0.58
6869.00,0.58
6868.00,0.58
6867.00,0.59
6866.00,0.59
6865.00,0.59
6864.00,0.59
6863.00,0.59
6862.00,0.59
6861.00,0.59
6860.00,0.59
6859.00,0.59
6858.00,0.59
6857.00,0.59
6856.00,0.58
6855.00,0.58
6854.00,0.58
6853.00,0.58
6852.00,0.58
6851.00,0.58
6850.00,0.58
6849.00,0.58
6848.00,0.58
6847.00,0.58
6846.00,0.58
6845.00,0.58
6844.00,0.58
6843.00,0.58
6842.00,0.58
6841.00,0.59
6840.00,0.59
6839.00,0.59
6838.00,0.59
6837.00,0.59
6836.00,0.59
6835.00,0.59
6834.00,0.59
6833.00,0.59
6832.00,0.59
6831.00,0.59
6830.00,0.59
6829.00,0.59
6828.00,0.59
6827.00,0.59
6826.00,0.59
6825.00,0.59
6824.00,0.59
6823.00,0.59
6822.00,0.59
6821.00,0.60
6820.00,0.60
6819.00,0.60
6818.00,0.60
6817.00,0.60
6816.00,0.60
6815.00,0.60
6814.00,0.60
6813.00,0.60
6812.00,0.60
6811.00,0.60
6810.00,0.60
6809.00,0.60
6808.00,0.60
6807.00,0.60
6806.00,0.59
6805.00,0.59
6804.00,0.59
6803.00,0.59
6802.00,0.59
6801.00,0.59
6800.00,0.59
6799.00,0.59
6798.00,0.59
6797.00,0.59
6796.00,0.59
6795.00,0.59
6794.00,0.59
6793.00,0.59
6792.00,0.59
6791.00,0.59
6790.00,0.59
6789.00,0.60
6788.00,0.60
6787.00,0.60
6786.00,0.60
6785.00,0.60
6784.00,0.60
6783.00,0.60
6782.00,0.60
6781.00,0.60
6780.00,0.60
6779.00,0.61
6778.00,0.61
6777.00,0.61
6776.00,0.61
6775.00,0.61
6774.00,0.61
6773.00,0.61
6772.00,0.61
6771.00,0.61
6770.00,0.61
6769.00,0.61
6768.00,0.61
6767.00,0.62
6766.00,0.62
6765.00,0.62
6764.00,0.62
6763.00,0.62
6762.00,0.62
6761.00,0.62
6760.00,0.62
6759.00,0.62
6758.00,0.62
6757.00,0.62
6756.00,0.62
6755.00,0.62
6754.00,0.62
6753.00,0.62
6752.00,0.62
6751.00,0.62
6750.00,0.62
6749.00,0.62
6748.00,0.62
6747.00,0.62
6746.00,0.62
6745.00,0.62
6744.00,0.62
6743.00,0.62
6742.00,0.62
6741.00,0.62
6740.00,0.62
6739.00,0.62
6738.00,0.62
6737.00,0.62
6736.00,0.63
6735.00,0.63
6734.00,0.63
6733.00,0.63
6732.00,0.63
6731.00,0.63
6730.00,0.63
6729.00,0.63
6728.00,0.63
6727.00,0.63
6726.00,0.63
6725.00,0.63
6724.00,0.63
6723.00,0.63
6722.00,0.63
6721.00,0.64
6720.00,0.64
6719.00,0.64
6718.00,0.64
6717.00,0.64
6716.00,0.64
6715.00,0.64
6714.00,0.65
6713.00,0.65
6712.00,0.65
6711.00,0.65
6710.00,0.65
6709.00,0.65
6708.00,0.66
6707.00,0.66
6706.00,0.66
6705.00,0.66
6704.00,0.66
6703.00,0.66
6702.00,0.66
6701.00,0.66
6700.00,0.66
6699.00,0.66
6698.00,0.66
6697.00,0.66
6696.00,0.66
6695.00,0.66
6694.00,0.66
6693.00,0.66
6692.00,0.66
6691.00,0.66
6690.00,0.66
6689.00,0.66
6688.00,0.66
6687.00,0.66
6686.00,0.66
6685.00,0.67
6684.00,0.67
6683.00,0.67
6682.00,0.67
6681.00,0.67
6680.00,0.67
6679.00,0.67
6678.00,0.67
6677.00,0.67
6676.00,0.67
6675.00,0.67
6674.00,0.68
6673.00,0.68
6672.00,0.68
6671.00,0.68
6670.00,0.68
6669.00,0.68
6668.00,0.68
6667.00,0.68
6666.00,0.69
6665.00,0.69
6664.00,0.69
6663.00,0.69
6662.00,0.69
6661.00,0.69
6660.00,0.69
6659.00,0.69
6658.00,0.69
6657.00,0.70
6656.00,0.70
6655.00,0.70
6654.00,0.70
6653.00,0.70
6652.00,0.70
6651.00,0.70
6650.00,0.70
6649.00,0.70
6648.00,0.70
6647.00,0.70
6646.00,0.70
6645.00,0.70
6644.00,0.70
6643.00,0.70
6642.00,0.71
6641.00,0.71
6640.00,0.71
6639.00,0.71
6638.00,0.71
6637.00,0.71
6636.00,0.71
6635.00,0.71
6634.00,0.71
6633.00,0.71
6632.00,0.71
6631.00,0.72
6630.00,0.72
6629.00,0.72
6628.00,0.72
6627.00,0.72
6626.00,0.72
6625.00,0.72
6624.00,0.72
6623.00,0.73
6622.00,0.73
6621.00,0.73
6620.00,0.73
6619.00,0.73
6618.00,0.73
6617.00,0.73
6616.00,0.73
6615.00,0.73
6614.00,0.73
6613.00,0.73
6612.00,0.73
6611.00,0.73
6610.00,0.73
6609.00,0.73
6608.00,0.74
6607.00,0.74
6606.00,0.74
6605.00,0.74
6604.00,0.74
6603.00,0.74
6602.00,0.74
6601.00,0.74
6600.00,0.75
6599.00,0.75
6598.00,0.75
6597.00,0.75
6596.00,0.75
6595.00,0.75
6594.00,0.75
6593.00,0.76
6592.00,0.76
6591.00,0.76
6590.00,0.76
6589.00,0.76
6588.00,0.76
6587.00,0.76
6586.00,0.76
6585.00,0.76
6584.00,0.76
6583.00,0.76
6582.00,0.77
6581.00,0.77
6580.00,0.77
6579.00,0.77
6578.00,0.77
6577.00,0.77
6576.00,0.77
6575.00,0.77
6574.00,0.77
6573.00,0.77
6572.00,0.77
6571.00,0.77
6570.00,0.77
6569.00,0.77
6568.00,0.78
6567.00,0.78
6566.00,0.78
6565.00,0.78
6564.00,0.78
6563.00,0.78
6562.00,0.78
6561.00,0.78
6560.00,0.78
6559.00,0.78
6558.00,0.79
6557.00,0.79
6556.00,0.79
6555.00,0.79
6554.00,0.79
6553.00,0.79
6552.00,0.79
6551.00,0.79
6550.00,0.79
6549.00,0.80
6548.00,0.80
6547.00,0.80
6546.00,0.80
6545.00,0.80
6544.00,0.80
6543.00,0.80
6542.00,0.80
6541.00,0.80
6540.00,0.80
6539.00,0.80
6538.00,0.80
6537.00,0.80
6536.00,0.80
6535.00,0.80
6534.00,0.80
6533.00,0.80
6532.00,0.81
6531.00,0.81
6530.00,0.81
6529.00,0.81
6528.00,0.81
6527.00,0.81
6526.00,0.81
6525.00,0.81
6524.00,0.81
6523.00,0.81
6522.00,0.81
6521.00,0.82
6520.00,0.82
6519.00,0.82
6518.00,0.82
6517.00,0.82
6516.00,0.82
6515.00,0.82
6514.00,0.82
6513.00,0.82
6512.00,0.82
6511.00,0.82
6510.00,0.83
6509.00,0.83
6508.00,0.83
6507.00,0.83
6506.00,0.83
6505.00,0.83
6504.00,0.83
6503.00,0.83
6502.00,0.83
6501.00,0.83
6500.00,0.83
6499.00,0.83
6498.00,0.84
6497.00,0.84
6496.00,0.84
6495.00,0.84
6494.00,0.84
6493.00,0.84
6492.00,0.84
6491.00,0.84
6490.00,0.84
6489.00,0.84
6488.00,0.84
6487.00,0.85
6486.00,0.85
6485.00,0.85
6484.00,0.85
6483.00,0.85
6482.00,0.85
6481.00,0.85
6480.00,0.85
6479.00,0.85
6478.00,0.85
6477.00,0.85
6476.00,0.85
6475.00,0.85
6474.00,0.85
6473.00,0.85
6472.00,0.85
6471.00,0.85
6470.00,0.85
6469.00,0.85
6468.00,0.85
6467.00,0.85
6466.00,0.85
6465.00,0.85
6464.00,0.86
6463.00,0.86
6462.00,0.86
6461.00,0.86
6460.00,0.86
6459.00,0.86
6458.00,0.86
6457.00,0.86
6456.00,0.86
6455.00,0.86
6454.00,0.86
6453.00,0.86
6452.00,0.86
6451.00,0.86
6450.00,0.87
6449.00,0.87
6448.00,0.87
6447.00,0.87
6446.00,0.87
6445.00,0.87
6444.00,0.87
6443.00,0.87
6442.00,0.87
6441.00,0.87
6440.00,0.87
6439.00,0.87
6438.00,0.87
6437.00,0.87
6436.00,0.87
6435.00,0.87
6434.00,0.87
6433.00,0.87
6432.00,0.87
6431.00,0.87
6430.00,0.88
6429.00,0.88
6428.00,0.88
6427.00,0.88
6426.00,0.88
6425.00,0.88
6424.00,0.88
6423.00,0.88
6422.00,0.88
6421.00,0.88
6420.00,0.88
6419.00,0.88
6418.00,0.88
6417.00,0.89
6416.00,0.89
6415.00,0.89
6414.00,0.89
6413.00,0.89
6412.00,0.89
6411.00,0.89
6410.00,0.89
6409.00,0.89
6408.00,0.89
6407.00,0.89
6406.00,0.89
6405.00,0.89
6404.00,0.89
6403.00,0.89
6402.00,0.89
6401.00,0.89
6400.00,0.89
6399.00,0.89
6398.00,0.89
6397.00,0.90
6396.00,0.90
6395.00,0.90
6394.00,0.90
6393.00,0.90
6392.00,0.90
6391.00,0.90
6390.00,0.90
6389.00,0.90
6388.00,0.90
6387.00,0.90
6386.00,0.90
6385.00,0.90
6384.00,0.90
6383.00,0.90
6382.00,0.90
6381.00,0.91
6380.00,0.91
6379.00,0.91
6378.00,0.91
6377.00,0.91
6376.00,0.91
6375.00,0.91
6374.00,0.91
6373.00,0.91
6372.00,0.91
6371.00,0.91
6370.00,0.92
6369.00,0.92
6368.00,0.92
6367.00,0.92
6366.00,0.92
6365.00,0.92
6364.00,0.92
6363.00,0.92
6362.00,0.92
6361.00,0.92
6360.00,0.93
6359.00,0.93
6358.00,0.93
6357.00,0.93
6356.00,0.93
6355.00,0.93
6354.00,0.93
6353.00,0.93
6352.00,0.93
6351.00,0.93
6350.00,0.93
6349.00,0.94
6348.00,0.94
6347.00,0.94
6346.00,0.94
6345.00,0.94
6344.00,0.94
6343.00,0.94
6342.00,0.94
6341.00,0.94
6340.00,0.95
6339.00,0.95
6338.00,0.95
6337.00,0.95
6336.00,0.95
6335.00,0.95
6334.00,0.95
6333.00,0.95
6332.00,0.96
6331.00,0.96
6330.00,0.96
6329.00,0.96
6328.00,0.96
6327.00,0.96
6326.00,0.96
6325.00,0.96
6324.00,0.96
6323.00,0.96
6322.00,0.96
6321.00,0.97
6320.00,0.97
6319.00,0.97
6318.00,0.97
6317.00,0.97
6316.00,0.97
6315.00,0.97
6314.00,0.97
6313.00,0.97
6312.00,0.97
6311.00,0.97
6310.00,0.98
6309.00,0.98
6308.00,0.98
6307.00,0.98
6306.00,0.98
6305.00,0.98
6304.00,0.98
6303.00,0.98
6302.00,0.98
6301.00,0.98
6300.00,0.99
6299.00,0.99
6298.00,0.99
6297.00,0.99
6296.00,0.99
6295.00,0.99
6294.00,0.99
6293.00,0.99
6292.00,0.99
6291.00,0.99
6290.00,1.00
6289.00,1.00
6288.00,1.00
6287.00,1.00
6286.00,1.00
6285.00,1.00
6284.00,1.00
6283.00,1.00
6282.00,1.00
6281.00,1.00
6280.00,1.00
6279.00,1.01
6278.00,1.01
6277.00,1.01
6276.00,1.01
6275.00,1.01
6274.00,1.01
6273.00,1.02
6272.00,1.02
6271.00,1.02
6270.00,1.02
6269.00,1.02
6268.00,1.02
6267.00,1.03
6266.00,1.03
6265.00,1.03
6264.00,1.03
6263.00,1.03
6262.00,1.03
6261.00,1.04
6260.00,1.04
6259.00,1.04
6258.00,1.04
6257.00,1.04
6256.00,1.04
6255.00,1.04
6254.00,1.04
6253.00,1.04
6252.00,1.04
6251.00,1.05
6250.00,1.05
6249.00,1.05
6248.00,1.05
6247.00,1.05
6246.00,1.05
6245.00,1.05
6244.00,1.05
6243.00,1.05
6242.00,1.06
6241.00,1.06
6240.00,1.06
6239.00,1.06
6238.00,1.06
6237.00,1.06
6236.00,1.06
6235.00,1.06
6234.00,1.07
6233.00,1.07
6232.00,1.07
6231.00,1.07
6230.00,1.07
6229.00,1.07
6228.00,1.08
6227.00,1.08
6226.00,1.08
6225.00,1.08
6224.00,1.08
6223.00,1.08
6222.00,1.09
6221.00,1.09
6220.00,1.09
6219.00,1.09
6218.00,1.09
6217.00,1.09
6216.00,1.09
6215.00,1.10
6214.00,1.10
6213.00,1.10
6212.00,1.10
6211.00,1.10
6210.00,1.10
6209.00,1.10
6208.00,1.10
6207.00,1.11
6206.00,1.11
6205.00,1.11
6204.00,1.11
6203.00,1.11
6202.00,1.11
6201.00,1.11
6200.00,1.11
6199.00,1.11
6198.00,1.11
6197.00,1.11
6196.00,1.11
6195.00,1.12
6194.00,1.12
6193.00,1.12
6192.00,1.12
6191.00,1.12
6190.00,1.12
6189.00,1.12
6188.00,1.12
6187.00,1.12
6186.00,1.13
6185.00,1.13
6184.00,1.13
6183.00,1.13
6182.00,1.13
6181.00,1.13
6180.00,1.14
6179.00,1.14
6178.00,1.14
6177.00,1.14
6176.00,1.14
6175.00,1.15
6174.00,1.15
6173.00,1.15
6172.00,1.15
6171.00,1.15
6170.00,1.16
6169.00,1.16
6168.00,1.16
6167.00,1.16
6166.00,1.16
6165.00,1.16
6164.00,1.17
6163.00,1.17
6162.00,1.17
6161.00,1.17
6160.00,1.17
6159.00,1.18
6158.00,1.18
6157.00,1.18
6156.00,1.18
6155.00,1.18
6154.00,1.18
6153.00,1.19
6152.00,1.19
6151.00,1.19
6150.00,1.19
6149.00,1.19
6148.00,1.19
6147.00,1.19
6146.00,1.20
6145.00,1.20
6144.00,1.20
6143.00,1.20
6142.00,1.20
6141.00,1.20
6140.00,1.20
6139.00,1.21
6138.00,1.21
6137.00,1.21
6136.00,1.21
6135.00,1.21
6134.00,1.21
6133.00,1.21
6132.00,1.22
6131.00,1.22
6130.00,1.22
6129.00,1.22
6128.00,1.22
6127.00,1.22
6126.00,1.22
6125.00,1.22
6124.00,1.23
6123.00,1.23
6122.00,1.23
6121.00,1.23
6120.00,1.23
6119.00,1.23
6118.00,1.23
6117.00,1.24
6116.00,1.24
6115.00,1.24
6114.00,1.24
6113.00,1.24
6112.00,1.24
6111.00,1.24
6110.00,1.25
6109.00,1.25
6108.00,1.25
6107.00,1.25
6106.00,1.25
6105.00,1.25
6104.00,1.26
6103.00,1.26
6102.00,1.26
6101.00,1.26
6100.00,1.26
6099.00,1.26
6098.00,1.27
6097.00,1.27
6096.00,1.27
6095.00,1.27
6094.00,1.27
6093.00,1.27
6092.00,1.27
6091.00,1.27
6090.00,1.28
6089.00,1.28
6088.00,1.28
6087.00,1.28
6086.00,1.28
6085.00,1.28
6084.00,1.28
6083.00,1.29
6082.00,1.29
6081.00,1.29
6080.00,1.29
6079.00,1.29
6078.00,1.29
6077.00,1.30
6076.00,1.30
6075.00,1.30
6074.00,1.30
6073.00,1.30
6072.00,1.30
6071.00,1.30
6070.00,1.30
6069.00,1.30
6068.00,1.30
6067.00,1.31
6066.00,1.31
6065.00,1.31
6064.00,1.31
6063.00,1.31
6062.00,1.31
6061.00,1.31
6060.00,1.31
6059.00,1.31
6058.00,1.31
6057.00,1.31
6056.00,1.31
6055.00,1.31
6054.00,1.31
6053.00,1.32
6052.00,1.32
6051.00,1.32
6050.00,1.32
6049.00,1.32
6048.00,1.32
6047.00,1.32
6046.00,1.32
6045.00,1.33
6044.00,1.33
6043.00,1.33
6042.00,1.33
6041.00,1.33
6040.00,1.33
6039.00,1.33
6038.00,1.33
6037.00,1.33
6036.00,1.33
6035.00,1.33
6034.00,1.33
6033.00,1.33
6032.00,1.34
6031.00,1.34
6030.00,1.34
6029.00,1.34
6028.00,1.34
6027.00,1.34
6026.00,1.34
6025.00,1.34
6024.00,1.34
6023.00,1.34
6022.00,1.34
6021.00,1.34
6020.00,1.34
6019.00,1.34
6018.00,1.34
6017.00,1.34
6016.00,1.34
6015.00,1.34
6014.00,1.34
6013.00,1.34
6012.00,1.34
6011.00,1.34
6010.00,1.34
6009.00,1.34
6008.00,1.34
6007.00,1.34
6006.00,1.34
6005.00,1.34
6004.00,1.34
6003.00,1.34
6002.00,1.34
6001.00,1.34
6000.00,1.34
5999.00,1.34
5998.00,1.34
5997.00,1.34
5996.00,1.33
5995.00,1.33
5994.00,1.33
5993.00,1.33
5992.00,1.33
5991.00,1.33
5990.00,1.32
5989.00,1.32
5988.00,1.32
5987.00,1.32
5986.00,1.32
5985.00,1.31
5984.00,1.31
5983.00,1.31
5982.00,1.30
5981.00,1.30
5980.00,1.30
5979.00,1.29
5978.00,1.29
5977.00,1.28
5976.00,1.28
5975.00,1.28
5974.00,1.27
5973.00,1.26
5972.00,1.26
5971.00,1.25
5970.00,1.25
5969.00,1.24
5968.00,1.24
5967.00,1.23
5966.00,1.22
5965.00,1.22
5964.00,1.21
5963.00,1.20
5962.00,1.19
5961.00,1.19
5960.00,1.18
5959.00,1.17
5958.00,1.16
5957.00,1.16
5956.00,1.15
5955.00,1.14
5954.00,1.14
5953.00,1.13
5952.00,1.12
5951.00,1.12
5950.00,1.11
5949.00,1.11
5948.00,1.11
5947.00,1.10
5946.00,1.10
5945.00,1.10
5944.00,1.09
5943.00,1.09
5942.00,1.09
5941.00,1.09
5940.00,1.09
5939.00,1.08
5938.00,1.08
5937.00,1.08
5936.00,1.08
5935.00,1.08
5934.00,1.08
5933.00,1.08
5932.00,1.08
5931.00,1.08
5930.00,1.07
5929.00,1.07
5928.00,1.07
5927.00,1.07
5926.00,1.07
5925.00,1.07
5924.00,1.07
5923.00,1.06
5922.00,1.06
5921.00,1.06
5920.00,1.06
5919.00,1.06
5918.00,1.05
5917.00,1.05
5916.00,1.05
5915.00,1.04
5914.00,1.04
5913.00,1.04
5912.00,1.03
5911.00,1.03
5910.00,1.03
5909.00,1.03
5908.00,1.02
5907.00,1.02
5906.00,1.02
5905.00,1.02
5904.00,1.02
5903.00,1.02
5902.00,1.02
5901.00,1.02
5900.00,1.02
5899.00,1.02
5898.00,1.02
5897.00,1.02
5896.00,1.02
5895.00,1.02
5894.00,1.03
5893.00,1.03
5892.00,1.03
5891.00,1.03
5890.00,1.04
5889.00,1.04
5888.00,1.04
5887.00,1.05
5886.00,1.05
5885.00,1.05
5884.00,1.06
5883.00,1.06
5882.00,1.06
5881.00,1.07
5880.00,1.07
5879.00,1.07
5878.00,1.07
5877.00,1.08
5876.00,1.08
5875.00,1.08
5874.00,1.09
5873.00,1.09
5872.00,1.09
5871.00,1.09
5870.00,1.09
5869.00,1.10
5868.00,1.10
5867.00,1.10
5866.00,1.10
5865.00,1.10
5864.00,1.10
5863.00,1.11
5862.00,1.11
5861.00,1.11
5860.00,1.11
5859.00,1.11
5858.00,1.11
5857.00,1.11
5856.00,1.11
5855.00,1.12
5854.00,1.12
5853.00,1.12
5852.00,1.12
5851.00,1.12
5850.00,1.12
5849.00,1.12
5848.00,1.12
5847.00,1.12
5846.00,1.12
5845.00,1.12
5844.00,1.12
5843.00,1.12
5842.00,1.12
5841.00,1.12
5840.00,1.12
5839.00,1.12
5838.00,1.12
5837.00,1.12
5836.00,1.12
5835.00,1.12
5834.00,1.12
5833.00,1.12
5832.00,1.12
5831.00,1.12
5830.00,1.12
5829.00,1.12
5828.00,1.12
5827.00,1.12
5826.00,1.12
5825.00,1.12
5824.00,1.12
5823.00,1.12
5822.00,1.12
5821.00,1.12
5820.00,1.12
5819.00,1.12
5818.00,1.12
5817.00,1.12
5816.00,1.12
5815.00,1.12
5814.00,1.12
5813.00,1.12
5812.00,1.12
5811.00,1.12
5810.00,1.12
5809.00,1.12
5808.00,1.12
5807.00,1.12
5806.00,1.12
5805.00,1.12
5804.00,1.12
5803.00,1.12
5802.00,1.11
5801.00,1.11
5800.00,1.11
5799.00,1.11
5798.00,1.11
5797.00,1.11
5796.00,1.11
5795.00,1.10
5794.00,1.10
5793.00,1.10
5792.00,1.10
5791.00,1.10
5790.00,1.09
5789.00,1.09
5788.00,1.09
5787.00,1.09
5786.00,1.09
5785.00,1.08
5784.00,1.08
5783.00,1.08
5782.00,1.08
5781.00,1.08
5780.00,1.07
5779.00,1.07
5778.00,1.07
5777.00,1.07
5776.00,1.07
5775.00,1.07
5774.00,1.07
5773.00,1.07
5772.00,1.07
5771.00,1.07
5770.00,1.07
5769.00,1.07
5768.00,1.07
5767.00,1.07
5766.00,1.07
5765.00,1.08
5764.00,1.08
5763.00,1.08
5762.00,1.08
5761.00,1.09
5760.00,1.09
5759.00,1.09
5758.00,1.09
5757.00,1.10
5756.00,1.10
5755.00,1.10
5754.00,1.11
5753.00,1.11
5752.00,1.11
5751.00,1.12
5750.00,1.12
5749.00,1.12
5748.00,1.13
5747.00,1.13
5746.00,1.13
5745.00,1.14
5744.00,1.14
5743.00,1.14
5742.00,1.15
5741.00,1.15
5740.00,1.15
5739.00,1.16
5738.00,1.16
5737.00,1.16
5736.00,1.16
5735.00,1.17
5734.00,1.17
5733.00,1.17
5732.00,1.17
5731.00,1.17
5730.00,1.17
5729.00,1.18
5728.00,1.18
5727.00,1.18
5726.00,1.18
5725.00,1.18
5724.00,1.18
5723.00,1.18
5722.00,1.18
5721.00,1.18
5720.00,1.18
5719.00,1.18
5718.00,1.18
5717.00,1.18
5716.00,1.18
5715.00,1.18
5714.00,1.18
5713.00,1.18
5712.00,1.18
5711.00,1.18
5710.00,1.18
5709.00,1.18
5708.00,1.18
5707.00,1.17
5706.00,1.17
5705.00,1.17
5704.00,1.17
5703.00,1.17
5702.00,1.17
5701.00,1.17
5700.00,1.17
5699.00,1.17
5698.00,1.17
5697.00,1.16
5696.00,1.16
5695.00,1.16
5694.00,1.16
5693.00,1.16
5692.00,1.16
5691.00,1.16
5690.00,1.16
5689.00,1.16
5688.00,1.15
5687.00,1.15
5686.00,1.15
5685.00,1.15
5684.00,1.15
5683.00,1.15
5682.00,1.14
5681.00,1.14
5680.00,1.14
5679.00,1.14
5678.00,1.14
5677.00,1.14
5676.00,1.14
5675.00,1.14
5674.00,1.14
5673.00,1.14
5672.00,1.14
5671.00,1.14
5670.00,1.14
5669.00,1.14
5668.00,1.14
5667.00,1.14
5666.00,1.14
5665.00,1.15
5664.00,1.15
5663.00,1.15
5662.00,1.15
5661.00,1.15
5660.00,1.15
5659.00,1.15
5658.00,1.16
5657.00,1.16
5656.00,1.16
5655.00,1.16
5654.00,1.16
5653.00,1.16
5652.00,1.17
5651.00,1.17
5650.00,1.17
5649.00,1.17
5648.00,1.17
5647.00,1.18
5646.00,1.18
5645.00,1.18
5644.00,1.18
5643.00,1.18
5642.00,1.18
5641.00,1.19
5640.00,1.19
5639.00,1.19
5638.00,1.19
5637.00,1.19
5636.00,1.20
5635.00,1.20
5634.00,1.20
5633.00,1.20
5632.00,1.20
5631.00,1.20
5630.00,1.20
5629.00,1.21
5628.00,1.21
5627.00,1.21
5626.00,1.21
5625.00,1.21
5624.00,1.21
5623.00,1.21
5622.00,1.21
5621.00,1.22
5620.00,1.22
5619.00,1.22
5618.00,1.22
5617.00,1.22
5616.00,1.22
5615.00,1.22
5614.00,1.23
5613.00,1.23
5612.00,1.23
5611.00,1.23
5610.00,1.23
5609.00,1.23
5608.00,1.23
5607.00,1.24
5606.00,1.24
5605.00,1.24
5604.00,1.24
5603.00,1.24
5602.00,1.24
5601.00,1.25
5600.00,1.25
5599.00,1.25
5598.00,1.25
5597.00,1.25
5596.00,1.25
5595.00,1.26
5594.00,1.26
5593.00,1.26
5592.00,1.26
5591.00,1.26
5590.00,1.26
5589.00,1.27
5588.00,1.27
5587.00,1.27
5586.00,1.27
5585.00,1.27
5584.00,1.28
5583.00,1.28
5582.00,1.28
5581.00,1.28
5580.00,1.28
5579.00,1.28
5578.00,1.29
5577.00,1.29
5576.00,1.29
5575.00,1.29
5574.00,1.29
5573.00,1.29
5572.00,1.29
5571.00,1.30
5570.00,1.30
5569.00,1.30
5568.00,1.30
5567.00,1.30
5566.00,1.30
5565.00,1.30
5564.00,1.30
5563.00,1.31
5562.00,1.31
5561.00,1.31
5560.00,1.31
5559.00,1.31
5558.00,1.31
5557.00,1.31
5556.00,1.31
5555.00,1.31
5554.00,1.31
5553.00,1.32
5552.00,1.32
5551.00,1.32
5550.00,1.32
5549.00,1.32
5548.00,1.32
5547.00,1.32
5546.00,1.33
5545.00,1.33
5544.00,1.33
5543.00,1.33
5542.00,1.33
5541.00,1.33
5540.00,1.34
5539.00,1.34
5538.00,1.34
5537.00,1.34
5536.00,1.34
5535.00,1.34
5534.00,1.35
5533.00,1.35
5532.00,1.35
5531.00,1.35
5530.00,1.35
5529.00,1.35
5528.00,1.35
5527.00,1.35
5526.00,1.35
5525.00,1.35
5524.00,1.36
5523.00,1.36
5522.00,1.36
5521.00,1.36
5520.00,1.36
5519.00,1.36
5518.00,1.36
5517.00,1.36
5516.00,1.36
5515.00,1.36
5514.00,1.36
5513.00,1.36
5512.00,1.36
5511.00,1.36
5510.00,1.36
5509.00,1.36
5508.00,1.37
5507.00,1.37
5506.00,1.37
5505.00,1.37
5504.00,1.37
5503.00,1.37
5502.00,1.37
5501.00,1.37
5500.00,1.37
5499.00,1.37
5498.00,1.37
5497.00,1.37
5496.00,1.37
5495.00,1.38
5494.00,1.38
5493.00,1.38
5492.00,1.38
5491.00,1.38
5490.00,1.38
5489.00,1.38
5488.00,1.38
5487.00,1.39
5486.00,1.39
5485.00,1.39
5484.00,1.39
5483.00,1.39
5482.00,1.39
5481.00,1.39
5480.00,1.40
5479.00,1.40
5478.00,1.40
5477.00,1.40
5476.00,1.40
5475.00,1.40
5474.00,1.40
5473.00,1.40
5472.00,1.41
5471.00,1.41
5470.00,1.41
5469.00,1.41
5468.00,1.41
5467.00,1.41
5466.00,1.41
5465.00,1.41
5464.00,1.41
5463.00,1.42
5462.00,1.42
5461.00,1.42
5460.00,1.42
5459.00,1.42
5458.00,1.42
5457.00,1.42
5456.00,1.42
5455.00,1.42
5454.00,1.42
5453.00,1.42
5452.00,1.42
5451.00,1.42
5450.00,1.42
5449.00,1.42
5448.00,1.42
5447.00,1.42
5446.00,1.42
5445.00,1.42
5444.00,1.42
5443.00,1.42
5442.00,1.42
5441.00,1.42
5440.00,1.42
5439.00,1.42
5438.00,1.42
5437.00,1.42
5436.00,1.42
5435.00,1.42
5434.00,1.42
5433.00,1.42
5432.00,1.42
5431.00,1.42
5430.00,1.42
5429.00,1.42
5428.00,1.42
5427.00,1.42
5426.00,1.42
5425.00,1.43
5424.00,1.43
5423.00,1.43
5422.00,1.43
5421.00,1.43
5420.00,1.43
5419.00,1.43
5418.00,1.43
5417.00,1.43
5416.00,1.43
5415.00,1.42
5414.00,1.42
5413.00,1.42
5412.00,1.42
5411.00,1.42
5410.00,1.42
5409.00,1.42
5408.00,1.42
5407.00,1.42
5406.00,1.42
5405.00,1.42
5404.00,1.42
5403.00,1.42
5402.00,1.42
5401.00,1.42
5400.00,1.42
5399.00,1.42
5398.00,1.42
5397.00,1.42
5396.00,1.42
5395.00,1.41
5394.00,1.41
5393.00,1.41
5392.00,1.41
5391.00,1.41
5390.00,1.40
5389.00,1.40
5388.00,1.40
5387.00,1.39
5386.00,1.39
5385.00,1.39
5384.00,1.38
5383.00,1.38
5382.00,1.38
5381.00,1.37
5380.00,1.37
5379.00,1.36
5378.00,1.36
5377.00,1.36
5376.00,1.35
5375.00,1.35
5374.00,1.34
5373.00,1.34
5372.00,1.33
5371.00,1.33
5370.00,1.32
5369.00,1.32
5368.00,1.31
5367.00,1.31
5366.00,1.30
5365.00,1.29
5364.00,1.29
5363.00,1.28
5362.00,1.27
5361.00,1.27
5360.00,1.26
5359.00,1.25
5358.00,1.24
5357.00,1.24
5356.00,1.23
5355.00,1.22
5354.00,1.21
5353.00,1.20
5352.00,1.19
5351.00,1.19
5350.00,1.18
5349.00,1.17
5348.00,1.16
5347.00,1.15
5346.00,1.14
5345.00,1.13
5344.00,1.12
5343.00,1.11
5342.00,1.11
5341.00,1.10
5340.00,1.09
5339.00,1.08
5338.00,1.07
5337.00,1.06
5336.00,1.05
5335.00,1.04
5334.00,1.03
5333.00,1.02
5332.00,1.01
5331.00,1.00
5330.00,0.99
5329.00,0.98
5328.00,0.97
5327.00,0.96
5326.00,0.95
5325.00,0.94
5324.00,0.93
5323.00,0.92
5322.00,0.91
5321.00,0.90
5320.00,0.89
5319.00,0.89
5318.00,0.88
5317.00,0.87
5316.00,0.86
5315.00,0.85
5314.00,0.84
5313.00,0.84
5312.00,0.83
5311.00,0.82
5310.00,0.82
5309.00,0.81
5308.00,0.80
5307.00,0.80
5306.00,0.79
5305.00,0.79
5304.00,0.78
5303.00,0.78
5302.00,0.77
5301.00,0.77
5300.00,0.77
5299.00,0.76
5298.00,0.76
5297.00,0.76
5296.00,0.75
5295.00,0.75
5294.00,0.75
5293.00,0.75
5292.00,0.75
5291.00,0.74
5290.00,0.74
5289.00,0.74
5288.00,0.74
5287.00,0.74
5286.00,0.74
5285.00,0.73
5284.00,0.73
5283.00,0.73
5282.00,0.73
5281.00,0.73
5280.00,0.73
5279.00,0.73
5278.00,0.73
5277.00,0.73
5276.00,0.73
5275.00,0.72
5274.00,0.72
5273.00,0.72
5272.00,0.72
5271.00,0.72
5270.00,0.72
5269.00,0.72
5268.00,0.72
5267.00,0.72
5266.00,0.72
5265.00,0.72
5264.00,0.72
5263.00,0.72
5262.00,0.71
5261.00,0.71
5260.00,0.71
5259.00,0.71
5258.00,0.71
5257.00,0.71
5256.00,0.71
5255.00,0.71
5254.00,0.71
5253.00,0.71
5252.00,0.71
5251.00,0.71
5250.00,0.71
5249.00,0.71
5248.00,0.71
5247.00,0.72
5246.00,0.72
5245.00,0.72
5244.00,0.72
5243.00,0.72
5242.00,0.72
5241.00,0.72
5240.00,0.72
5239.00,0.72
5238.00,0.72
5237.00,0.72
5236.00,0.72
5235.00,0.72
5234.00,0.72
5233.00,0.72
5232.00,0.72
5231.00,0.72
5230.00,0.72
5229.00,0.72
5228.00,0.72
5227.00,0.72
5226.00,0.72
5225.00,0.72
5224.00,0.72
5223.00,0.73
5222.00,0.73
5221.00,0.73
5220.00,0.73
5219.00,0.73
5218.00,0.73
5217.00,0.73
5216.00,0.73
5215.00,0.73
5214.00,0.73
5213.00,0.73
5212.00,0.73
5211.00,0.73
5210.00,0.73
5209.00,0.73
5208.00,0.73
5207.00,0.73
5206.00,0.73
5205.00,0.73
5204.00,0.73
5203.00,0.73
5202.00,0.73
5201.00,0.73
5200.00,0.73
5199.00,0.73
5198.00,0.73
5197.00,0.74
5196.00,0.74
5195.00,0.74
5194.00,0.74
5193.00,0.74
5192.00,0.74
5191.00,0.74
5190.00,0.74
5189.00,0.74
5188.00,0.74
5187.00,0.74
5186.00,0.74
5185.00,0.74
5184.00,0.74
5183.00,0.74
5182.00,0.74
5181.00,0.74
5180.00,0.74
5179.00,0.75
5178.00,0.75
5177.00,0.75
5176.00,0.75
5175.00,0.75
5174.00,0.75
5173.00,0.75
5172.00,0.75
5171.00,0.75
5170.00,0.75
5169.00,0.75
5168.00,0.75
5167.00,0.75
5166.00,0.75
5165.00,0.75
5164.00,0.75
5163.00,0.75
5162.00,0.75
5161.00,0.75
5160.00,0.75
5159.00,0.75
5158.00,0.75
5157.00,0.75
5156.00,0.75
5155.00,0.75
5154.00,0.75
5153.00,0.75
5152.00,0.75
5151.00,0.75
5150.00,0.75
5149.00,0.75
5148.00,0.75
5147.00,0.75
5146.00,0.76
5145.00,0.76
5144.00,0.76
5143.00,0.76
5142.00,0.76
5141.00,0.76
5140.00,0.76
5139.00,0.76
5138.00,0.76
5137.00,0.76
5136.00,0.76
5135.00,0.76
5134.00,0.76
5133.00,0.76
5132.00,0.76
5131.00,0.76
5130.00,0.76
5129.00,0.77
5128.00,0.77
5127.00,0.77
5126.00,0.77
5125.00,0.77
5124.00,0.77
5123.00,0.77
5122.00,0.77
5121.00,0.77
5120.00,0.77
5119.00,0.78
5118.00,0.78
5117.00,0.78
5116.00,0.78
5115.00,0.78
5114.00,0.78
5113.00,0.78
5112.00,0.78
5111.00,0.78
5110.00,0.78
5109.00,0.78
5108.00,0.78
5107.00,0.78
5106.00,0.78
5105.00,0.78
5104.00,0.78
5103.00,0.78
5102.00,0.78
5101.00,0.78
5100.00,0.78
5099.00,0.78
5098.00,0.78
5097.00,0.78
5096.00,0.78
5095.00,0.78
5094.00,0.78
5093.00,0.78
5092.00,0.78
5091.00,0.78
5090.00,0.78
5089.00,0.78
5088.00,0.78
5087.00,0.78
5086.00,0.79
5085.00,0.79
5084.00,0.79
5083.00,0.79
5082.00,0.79
5081.00,0.79
5080.00,0.79
5079.00,0.79
5078.00,0.79
5077.00,0.79
5076.00,0.79
5075.00,0.80
5074.00,0.80
5073.00,0.80
5072.00,0.80
5071.00,0.80
5070.00,0.80
5069.00,0.80
5068.00,0.80
5067.00,0.80
5066.00,0.80
5065.00,0.80
5064.00,0.80
5063.00,0.80
5062.00,0.80
5061.00,0.80
5060.00,0.80
5059.00,0.80
5058.00,0.80
5057.00,0.80
5056.00,0.80
5055.00,0.80
5054.00,0.80
5053.00,0.80
5052.00,0.80
5051.00,0.81
5050.00,0.81
5049.00,0.81
5048.00,0.81
5047.00,0.81
5046.00,0.81
5045.00,0.81
5044.00,0.81
5043.00,0.81
5042.00,0.81
5041.00,0.81
5040.00,0.81
5039.00,0.81
5038.00,0.81
5037.00,0.81
5036.00,0.81
5035.00,0.81
5034.00,0.81
5033.00,0.81
5032.00,0.82
5031.00,0.82
5030.00,0.82
5029.00,0.82
5028.00,0.82
5027.00,0.82
5026.00,0.82
5025.00,0.82
5024.00,0.82
5023.00,0.83
5022.00,0.83
5021.00,0.83
5020.00,0.83
5019.00,0.83
5018.00,0.83
5017.00,0.83
5016.00,0.83
5015.00,0.83
5014.00,0.83
5013.00,0.83
5012.00,0.83
5011.00,0.83
5010.00,0.83
5009.00,0.83
5008.00,0.83
5007.00,0.83
5006.00,0.83
5005.00,0.83
5004.00,0.83
5003.00,0.84
5002.00,0.84
5001.00,0.84
5000.00,0.84
4999.00,0.84
4998.00,0.84
4997.00,0.84
4996.00,0.84
4995.00,0.84
4994.00,0.84
4993.00,0.84
4992.00,0.85
4991.00,0.85
4990.00,0.85
4989.00,0.85
4988.00,0.85
4987.00,0.85
4986.00,0.85
4985.00,0.85
4984.00,0.85
4983.00,0.85
4982.00,0.85
4981.00,0.85
4980.00,0.85
4979.00,0.85
4978.00,0.85
4977.00,0.85
4976.00,0.85
4975.00,0.85
4974.00,0.86
4973.00,0.86
4972.00,0.86
4971.00,0.86
4970.00,0.86
4969.00,0.86
4968.00,0.86
4967.00,0.86
4966.00,0.86
4965.00,0.86
4964.00,0.86
4963.00,0.86
4962.00,0.86
4961.00,0.87
4960.00,0.87
4959.00,0.87
4958.00,0.87
4957.00,0.87
4956.00,0.87
4955.00,0.87
4954.00,0.87
4953.00,0.87
4952.00,0.87
4951.00,0.87
4950.00,0.87
4949.00,0.87
4948.00,0.88
4947.00,0.88
4946.00,0.88
4945.00,0.88
4944.00,0.88
4943.00,0.88
4942.00,0.88
4941.00,0.88
4940.00,0.88
4939.00,0.89
4938.00,0.89
4937.00,0.89
4936.00,0.89
4935.00,0.89
4934.00,0.89
4933.00,0.89
4932.00,0.89
4931.00,0.89
4930.00,0.89
4929.00,0.89
4928.00,0.89
4927.00,0.89
4926.00,0.89
4925.00,0.89
4924.00,0.89
4923.00,0.89
4922.00,0.89
4921.00,0.89
4920.00,0.89
4919.00,0.89
4918.00,0.90
4917.00,0.90
4916.00,0.90
4915.00,0.90
4914.00,0.90
4913.00,0.90
4912.00,0.90
4911.00,0.90
4910.00,0.90
4909.00,0.90
4908.00,0.90
4907.00,0.90
4906.00,0.90
4905.00,0.91
4904.00,0.91
4903.00,0.91
4902.00,0.91
4901.00,0.91
4900.00,0.91
4899.00,0.91
4898.00,0.91
4897.00,0.91
4896.00,0.91
4895.00,0.91
4894.00,0.91
4893.00,0.91
4892.00,0.91
4891.00,0.91
4890.00,0.91
4889.00,0.91
4888.00,0.91
4887.00,0.91
4886.00,0.91
4885.00,0.91
4884.00,0.92
4883.00,0.92
4882.00,0.92
4881.00,0.92
4880.00,0.92
4879.00,0.92
4878.00,0.92
4877.00,0.92
4876.00,0.92
4875.00,0.92
4874.00,0.92
4873.00,0.93
4872.00,0.93
4871.00,0.93
4870.00,0.93
4869.00,0.93
4868.00,0.93
4867.00,0.93
4866.00,0.93
4865.00,0.93
4864.00,0.93
4863.00,0.93
4862.00,0.94
4861.00,0.94
4860.00,0.94
4859.00,0.94
4858.00,0.94
4857.00,0.94
4856.00,0.94
4855.00,0.94
4854.00,0.94
4853.00,0.94
4852.00,0.94
4851.00,0.94
4850.00,0.94
4849.00,0.95
4848.00,0.95
4847.00,0.95
4846.00,0.95
4845.00,0.95
4844.00,0.95
4843.00,0.95
4842.00,0.95
4841.00,0.95
4840.00,0.95
4839.00,0.95
4838.00,0.95
4837.00,0.95
4836.00,0.95
4835.00,0.95
4834.00,0.95
4833.00,0.95
4832.00,0.96
4831.00,0.96
4830.00,0.96
4829.00,0.96
4828.00,0.96
4827.00,0.96
4826.00,0.96
4825.00,0.96
4824.00,0.96
4823.00,0.96
4822.00,0.97
4821.00,0.97
4820.00,0.97
4819.00,0.97
4818.00,0.97
4817.00,0.97
4816.00,0.97
4815.00,0.97
4814.00,0.97
4813.00,0.97
4812.00,0.97
4811.00,0.97
4810.00,0.97
4809.00,0.97
4808.00,0.97
4807.00,0.97
4806.00,0.97
4805.00,0.97
4804.00,0.97
4803.00,0.97
4802.00,0.97
4801.00,0.98
4800.00,0.98
4799.00,0.98
4798.00,0.98
4797.00,0.98
4796.00,0.98
4795.00,0.98
4794.00,0.98
4793.00,0.99
4792.00,0.99
4791.00,0.99
4790.00,0.99
4789.00,0.99
4788.00,0.99
4787.00,0.99
4786.00,1.00
4785.00,1.00
4784.00,1.00
4783.00,1.00
4782.00,1.00
4781.00,1.00
4780.00,1.00
4779.00,1.00
4778.00,1.00
4777.00,1.00
4776.00,1.00
4775.00,1.00
4774.00,1.00
4773.00,1.00
4772.00,1.00
4771.00,1.01
4770.00,1.01
4769.00,1.01
4768.00,1.01
4767.00,1.01
4766.00,1.01
4765.00,1.01
4764.00,1.01
4763.00,1.01
4762.00,1.01
4761.00,1.01
4760.00,1.01
4759.00,1.02
4758.00,1.02
4757.00,1.02
4756.00,1.02
4755.00,1.02
4754.00,1.03
4753.00,1.03
4752.00,1.03
4751.00,1.03
4750.00,1.03
4749.00,1.04
4748.00,1.04
4747.00,1.04
4746.00,1.04
4745.00,1.04
4744.00,1.04
4743.00,1.04
4742.00,1.04
4741.00,1.04
4740.00,1.05
4739.00,1.05
4738.00,1.05
4737.00,1.05
4736.00,1.05
4735.00,1.05
4734.00,1.05
4733.00,1.05
4732.00,1.05
4731.00,1.06
4730.00,1.06
4729.00,1.06
4728.00,1.06
4727.00,1.06
4726.00,1.07
4725.00,1.07
4724.00,1.07
4723.00,1.07
4722.00,1.08
4721.00,1.08
4720.00,1.08
4719.00,1.08
4718.00,1.08
4717.00,1.08
4716.00,1.09
4715.00,1.09
4714.00,1.09
4713.00,1.09
4712.00,1.09
4711.00,1.09
4710.00,1.09
4709.00,1.09
4708.00,1.09
4707.00,1.10
4706.00,1.10
4705.00,1.10
4704.00,1.10
4703.00,1.10
4702.00,1.10
4701.00,1.10
4700.00,1.11
4699.00,1.11
4698.00,1.11
4697.00,1.11
4696.00,1.11
4695.00,1.11
4694.00,1.11
4693.00,1.12
4692.00,1.12
4691.00,1.12
4690.00,1.12
4689.00,1.12
4688.00,1.12
4687.00,1.12
4686.00,1.12
4685.00,1.12
4684.00,1.13
4683.00,1.13
4682.00,1.13
4681.00,1.13
4680.00,1.13
4679.00,1.13
4678.00,1.13
4677.00,1.13
4676.00,1.13
4675.00,1.14
4674.00,1.14
4673.00,1.14
4672.00,1.14
4671.00,1.14
4670.00,1.14
4669.00,1.14
4668.00,1.14
4667.00,1.15
4666.00,1.15
4665.00,1.15
4664.00,1.15
4663.00,1.15
4662.00,1.15
4661.00,1.15
4660.00,1.16
4659.00,1.16
4658.00,1.16
4657.00,1.16
4656.00,1.16
4655.00,1.17
4654.00,1.17
4653.00,1.17
4652.00,1.17
4651.00,1.17
4650.00,1.18
4649.00,1.18
4648.00,1.18
4647.00,1.18
4646.00,1.18
4645.00,1.19
4644.00,1.19
4643.00,1.19
4642.00,1.19
4641.00,1.19
4640.00,1.19
4639.00,1.19
4638.00,1.19
4637.00,1.19
4636.00,1.19
4635.00,1.19
4634.00,1.19
4633.00,1.19
4632.00,1.19
4631.00,1.19
4630.00,1.19
4629.00,1.19
4628.00,1.19
4627.00,1.19
4626.00,1.19
4625.00,1.19
4624.00,1.19
4623.00,1.19
4622.00,1.19
4621.00,1.19
4620.00,1.19
4619.00,1.19
4618.00,1.19
4617.00,1.19
4616.00,1.20
4615.00,1.20
4614.00,1.20
4613.00,1.20
4612.00,1.20
4611.00,1.20
4610.00,1.20
4609.00,1.21
4608.00,1.21
4607.00,1.21
4606.00,1.21
4605.00,1.21
4604.00,1.22
4603.00,1.22
4602.00,1.22
4601.00,1.22
4600.00,1.22
4599.00,1.22
4598.00,1.22
4597.00,1.23
4596.00,1.23
4595.00,1.23
4594.00,1.23
4593.00,1.23
4592.00,1.23
4591.00,1.23
4590.00,1.23
4589.00,1.23
4588.00,1.23
4587.00,1.23
4586.00,1.23
4585.00,1.23
4584.00,1.23
4583.00,1.23
4582.00,1.23
4581.00,1.23
4580.00,1.23
4579.00,1.23
4578.00,1.23
4577.00,1.24
4576.00,1.24
4575.00,1.24
4574.00,1.24
4573.00,1.24
4572.00,1.24
4571.00,1.24
4570.00,1.24
4569.00,1.24
4568.00,1.24
4567.00,1.25
4566.00,1.25
4565.00,1.25
4564.00,1.25
4563.00,1.25
4562.00,1.25
4561.00,1.25
4560.00,1.25
4559.00,1.25
4558.00,1.25
4557.00,1.25
4556.00,1.25
4555.00,1.25
4554.00,1.25
4553.00,1.25
4552.00,1.25
4551.00,1.26
4550.00,1.26
4549.00,1.26
4548.00,1.26
4547.00,1.26
4546.00,1.26
4545.00,1.26
4544.00,1.26
4543.00,1.26
4542.00,1.26
4541.00,1.26
4540.00,1.26
4539.00,1.26
4538.00,1.27
4537.00,1.27
4536.00,1.27
4535.00,1.27
4534.00,1.27
4533.00,1.27
4532.00,1.27
4531.00,1.27
4530.00,1.27
4529.00,1.27
4528.00,1.27
4527.00,1.27
4526.00,1.27
4525.00,1.27
4524.00,1.27
4523.00,1.27
4522.00,1.27
4521.00,1.27
4520.00,1.27
4519.00,1.27
4518.00,1.27
4517.00,1.27
4516.00,1.27
4515.00,1.27
4514.00,1.27
4513.00,1.27
4512.00,1.27
4511.00,1.27
4510.00,1.27
4509.00,1.27
4508.00,1.27
4507.00,1.27
4506.00,1.27
4505.00,1.27
4504.00,1.27
4503.00,1.27
4502.00,1.27
4501.00,1.27
4500.00,1.27
4499.00,1.27
4498.00,1.27
4497.00,1.27
4496.00,1.27
4495.00,1.27
4494.00,1.27
4493.00,1.27
4492.00,1.27
4491.00,1.27
4490.00,1.27
4489.00,1.26
4488.00,1.26
4487.00,1.26
4486.00,1.26
4485.00,1.26
4484.00,1.26
4483.00,1.26
4482.00,1.26
4481.00,1.26
4480.00,1.26
4479.00,1.25
4478.00,1.25
4477.00,1.25
4476.00,1.25
4475.00,1.25
4474.00,1.25
4473.00,1.25
4472.00,1.25
4471.00,1.25
4470.00,1.24
4469.00,1.24
4468.00,1.24
4467.00,1.24
4466.00,1.24
4465.00,1.24
4464.00,1.23
4463.00,1.23
4462.00,1.23
4461.00,1.23
4460.00,1.23
4459.00,1.22
4458.00,1.22
4457.00,1.22
4456.00,1.22
4455.00,1.21
4454.00,1.21
4453.00,1.21
4452.00,1.21
4451.00,1.20
4450.00,1.20
4449.00,1.20
4448.00,1.19
4447.00,1.19
4446.00,1.19
4445.00,1.18
4444.00,1.18
4443.00,1.18
4442.00,1.17
4441.00,1.17
4440.00,1.17
4439.00,1.16
4438.00,1.16
4437.00,1.16
4436.00,1.16
4435.00,1.15
4434.00,1.15
4433.00,1.15
4432.00,1.14
4431.00,1.14
4430.00,1.14
4429.00,1.14
4428.00,1.14
4427.00,1.13
4426.00,1.13
4425.00,1.13
4424.00,1.13
4423.00,1.13
4422.00,1.13
4421.00,1.13
4420.00,1.13
4419.00,1.13
4418.00,1.13
4417.00,1.13
4416.00,1.13
4415.00,1.13
4414.00,1.13
4413.00,1.13
4412.00,1.13
4411.00,1.13
4410.00,1.13
4409.00,1.13
4408.00,1.13
4407.00,1.13
4406.00,1.13
4405.00,1.14
4404.00,1.14
4403.00,1.14
4402.00,1.14
4401.00,1.14
4400.00,1.14
4399.00,1.14
4398.00,1.14
4397.00,1.15
4396.00,1.15
4395.00,1.15
4394.00,1.15
4393.00,1.15
4392.00,1.15
4391.00,1.15
4390.00,1.16
4389.00,1.16
4388.00,1.16
4387.00,1.16
4386.00,1.16
4385.00,1.16
4384.00,1.16
4383.00,1.16
4382.00,1.16
4381.00,1.16
4380.00,1.16
4379.00,1.16
4378.00,1.16
4377.00,1.16
4376.00,1.17
4375.00,1.17
4374.00,1.17
4373.00,1.17
4372.00,1.17
4371.00,1.17
4370.00,1.17
4369.00,1.17
4368.00,1.17
4367.00,1.17
4366.00,1.17
4365.00,1.17
4364.00,1.17
4363.00,1.17
4362.00,1.17
4361.00,1.17
4360.00,1.17
4359.00,1.17
4358.00,1.17
4357.00,1.17
4356.00,1.17
4355.00,1.17
4354.00,1.17
4353.00,1.17
4352.00,1.17
4351.00,1.17
4350.00,1.17
4349.00,1.17
4348.00,1.17
4347.00,1.17
4346.00,1.17
4345.00,1.17
4344.00,1.17
4343.00,1.17
4342.00,1.17
4341.00,1.17
4340.00,1.18
4339.00,1.18
4338.00,1.18
4337.00,1.18
4336.00,1.18
4335.00,1.18
4334.00,1.18
4333.00,1.18
4332.00,1.18
4331.00,1.18
4330.00,1.18
4329.00,1.18
4328.00,1.19
4327.00,1.19
4326.00,1.19
4325.00,1.19
4324.00,1.19
4323.00,1.19
4322.00,1.19
4321.00,1.20
4320.00,1.20
4319.00,1.20
4318.00,1.20
4317.00,1.20
4316.00,1.20
4315.00,1.21
4314.00,1.21
4313.00,1.21
4312.00,1.21
4311.00,1.21
4310.00,1.21
4309.00,1.21
4308.00,1.22
4307.00,1.22
4306.00,1.22
4305.00,1.22
4304.00,1.22
4303.00,1.22
4302.00,1.22
4301.00,1.22
4300.00,1.22
4299.00,1.23
4298.00,1.23
4297.00,1.23
4296.00,1.23
4295.00,1.23
4294.00,1.23
4293.00,1.23
4292.00,1.24
4291.00,1.24
4290.00,1.24
4289.00,1.24
4288.00,1.24
4287.00,1.24
4286.00,1.24
4285.00,1.24
4284.00,1.25
4283.00,1.25
4282.00,1.25
4281.00,1.25
4280.00,1.25
4279.00,1.25
4278.00,1.25
4277.00,1.25
4276.00,1.25
4275.00,1.25
4274.00,1.25
4273.00,1.25
4272.00,1.25
4271.00,1.25
4270.00,1.26
4269.00,1.26
4268.00,1.26
4267.00,1.26
4266.00,1.26
4265.00,1.26
4264.00,1.26
4263.00,1.26
4262.00,1.26
4261.00,1.26
4260.00,1.26
4259.00,1.26
4258.00,1.26
4257.00,1.26
4256.00,1.26
4255.00,1.26
4254.00,1.26
4253.00,1.26
4252.00,1.26
4251.00,1.26
4250.00,1.26
4249.00,1.26
4248.00,1.26
4247.00,1.26
4246.00,1.26
4245.00,1.26
4244.00,1.26
4243.00,1.26
4242.00,1.26
4241.00,1.26
4240.00,1.26
4239.00,1.26
4238.00,1.26
4237.00,1.26
4236.00,1.26
4235.00,1.26
4234.00,1.26
4233.00,1.26
4232.00,1.26
4231.00,1.26
4230.00,1.26
4229.00,1.26
4228.00,1.26
4227.00,1.26
4226.00,1.26
4225.00,1.26
4224.00,1.27
4223.00,1.27
4222.00,1.27
4221.00,1.27
4220.00,1.27
4219.00,1.27
4218.00,1.27
4217.00,1.27
4216.00,1.27
4215.00,1.28
4214.00,1.28
4213.00,1.28
4212.00,1.28
4211.00,1.28
4210.00,1.28
4209.00,1.29
4208.00,1.29
4207.00,1.29
4206.00,1.29
4205.00,1.29
4204.00,1.29
4203.00,1.29
4202.00,1.29
4201.00,1.29
4200.00,1.30
4199.00,1.30
4198.00,1.30
4197.00,1.30
4196.00,1.30
4195.00,1.30
4194.00,1.30
4193.00,1.30
4192.00,1.30
4191.00,1.30
4190.00,1.30
4189.00,1.30
4188.00,1.30
4187.00,1.30
4186.00,1.30
4185.00,1.30
4184.00,1.30
4183.00,1.30
4182.00,1.30
4181.00,1.30
4180.00,1.30
4179.00,1.31
4178.00,1.31
4177.00,1.31
4176.00,1.31
4175.00,1.31
4174.00,1.31
4173.00,1.31
4172.00,1.31
4171.00,1.31
4170.00,1.31
4169.00,1.31
4168.00,1.31
4167.00,1.31
4166.00,1.31
4165.00,1.31
4164.00,1.31
4163.00,1.31
4162.00,1.31
4161.00,1.31
4160.00,1.31
4159.00,1.31
4158.00,1.31
4157.00,1.31
4156.00,1.31
4155.00,1.31
4154.00,1.32
4153.00,1.32
4152.00,1.32
4151.00,1.32
4150.00,1.32
4149.00,1.32
4148.00,1.32
4147.00,1.32
4146.00,1.32
4145.00,1.32
4144.00,1.32
4143.00,1.32
4142.00,1.32
4141.00,1.32
4140.00,1.32
4139.00,1.32
4138.00,1.32
4137.00,1.32
4136.00,1.32
4135.00,1.32
4134.00,1.33
4133.00,1.33
4132.00,1.33
4131.00,1.33
4130.00,1.33
4129.00,1.33
4128.00,1.33
4127.00,1.33
4126.00,1.34
4125.00,1.34
4124.00,1.34
4123.00,1.34
4122.00,1.34
4121.00,1.34
4120.00,1.34
4119.00,1.34
4118.00,1.34
4117.00,1.34
4116.00,1.34
4115.00,1.34
4114.00,1.34
4113.00,1.34
4112.00,1.35
4111.00,1.35
4110.00,1.35
4109.00,1.35
4108.00,1.35
4107.00,1.35
4106.00,1.35
4105.00,1.35
4104.00,1.35
4103.00,1.35
4102.00,1.35
4101.00,1.35
4100.00,1.35
4099.00,1.35
4098.00,1.35
4097.00,1.35
4096.00,1.35
4095.00,1.35
4094.00,1.35
4093.00,1.35
4092.00,1.35
4091.00,1.35
4090.00,1.35
4089.00,1.35
4088.00,1.35
4087.00,1.35
4086.00,1.35
4085.00,1.35
4084.00,1.35
4083.00,1.35
4082.00,1.36
4081.00,1.36
4080.00,1.36
4079.00,1.36
4078.00,1.36
4077.00,1.36
4076.00,1.36
4075.00,1.36
4074.00,1.36
4073.00,1.37
4072.00,1.37
4071.00,1.37
4070.00,1.37
4069.00,1.37
4068.00,1.37
4067.00,1.37
4066.00,1.38
4065.00,1.38
4064.00,1.38
4063.00,1.38
4062.00,1.38
4061.00,1.38
4060.00,1.38
4059.00,1.38
4058.00,1.38
4057.00,1.39
4056.00,1.39
4055.00,1.39
4054.00,1.39
4053.00,1.39
4052.00,1.39
4051.00,1.39
4050.00,1.39
4049.00,1.39
4048.00,1.39
4047.00,1.39
4046.00,1.39
4045.00,1.38
4044.00,1.38
4043.00,1.38
4042.00,1.38
4041.00,1.38
4040.00,1.38
4039.00,1.38
4038.00,1.37
4037.00,1.37
4036.00,1.37
4035.00,1.37
4034.00,1.37
4033.00,1.37
4032.00,1.37
4031.00,1.37
4030.00,1.38
4029.00,1.38
4028.00,1.38
4027.00,1.38
4026.00,1.38
4025.00,1.39
4024.00,1.39
4023.00,1.39
4022.00,1.39
4021.00,1.40
4020.00,1.40
4019.00,1.40
4018.00,1.40
4017.00,1.40
4016.00,1.40
4015.00,1.40
4014.00,1.41
4013.00,1.41
4012.00,1.41
4011.00,1.41
4010.00,1.41
4009.00,1.41
4008.00,1.41
4007.00,1.41
4006.00,1.41
4005.00,1.42
4004.00,1.42
4003.00,1.42
4002.00,1.42
4001.00,1.43
4000.00,1.43
