创建为新数据集,样品 748 用户 Administrator 日期 星期五, 七月 20 2018
cm-1,%T
10000.00,1.09
9999.00,1.09
9998.00,1.09
9997.00,1.09
9996.00,1.09
9995.00,1.09
9994.00,1.09
9993.00,1.09
9992.00,1.09
9991.00,1.09
9990.00,1.09
9989.00,1.09
9988.00,1.08
9987.00,1.08
9986.00,1.08
9985.00,1.08
9984.00,1.08
9983.00,1.07
9982.00,1.07
9981.00,1.07
9980.00,1.07
9979.00,1.07
9978.00,1.07
9977.00,1.07
9976.00,1.06
9975.00,1.06
9974.00,1.06
9973.00,1.06
9972.00,1.06
9971.00,1.07
9970.00,1.07
9969.00,1.07
9968.00,1.07
9967.00,1.07
9966.00,1.07
9965.00,1.07
9964.00,1.07
9963.00,1.07
9962.00,1.07
9961.00,1.07
9960.00,1.07
9959.00,1.07
9958.00,1.07
9957.00,1.07
9956.00,1.07
9955.00,1.08
9954.00,1.08
9953.00,1.08
9952.00,1.08
9951.00,1.08
9950.00,1.08
9949.00,1.08
9948.00,1.08
9947.00,1.08
9946.00,1.08
9945.00,1.08
9944.00,1.08
9943.00,1.09
9942.00,1.09
9941.00,1.09
9940.00,1.09
9939.00,1.09
9938.00,1.09
9937.00,1.09
9936.00,1.09
9935.00,1.08
9934.00,1.08
9933.00,1.08
9932.00,1.08
9931.00,1.08
9930.00,1.08
9929.00,1.07
9928.00,1.07
9927.00,1.07
9926.00,1.07
9925.00,1.06
9924.00,1.06
9923.00,1.06
9922.00,1.06
9921.00,1.05
9920.00,1.05
9919.00,1.05
9918.00,1.05
9917.00,1.05
9916.00,1.05
9915.00,1.05
9914.00,1.05
9913.00,1.05
9912.00,1.05
9911.00,1.05
9910.00,1.05
9909.00,1.05
9908.00,1.05
9907.00,1.05
9906.00,1.05
9905.00,1.05
9904.00,1.05
9903.00,1.05
9902.00,1.06
9901.00,1.06
9900.00,1.06
9899.00,1.06
9898.00,1.06
9897.00,1.06
9896.00,1.06
9895.00,1.06
9894.00,1.06
9893.00,1.06
9892.00,1.06
9891.00,1.06
9890.00,1.07
9889.00,1.07
9888.00,1.07
9887.00,1.07
9886.00,1.07
9885.00,1.07
9884.00,1.07
9883.00,1.07
9882.00,1.07
9881.00,1.07
9880.00,1.07
9879.00,1.07
9878.00,1.06
9877.00,1.06
9876.00,1.06
9875.00,1.06
9874.00,1.06
9873.00,1.05
9872.00,1.05
9871.00,1.05
9870.00,1.05
9869.00,1.05
9868.00,1.05
9867.00,1.05
9866.00,1.05
9865.00,1.05
9864.00,1.05
9863.00,1.05
9862.00,1.05
9861.00,1.06
9860.00,1.06
9859.00,1.06
9858.00,1.06
9857.00,1.06
9856.00,1.06
9855.00,1.07
9854.00,1.07
9853.00,1.07
9852.00,1.07
9851.00,1.08
9850.00,1.08
9849.00,1.08
9848.00,1.08
9847.00,1.08
9846.00,1.08
9845.00,1.09
9844.00,1.09
9843.00,1.09
9842.00,1.09
9841.00,1.09
9840.00,1.09
9839.00,1.09
9838.00,1.09
9837.00,1.08
9836.00,1.08
9835.00,1.08
9834.00,1.08
9833.00,1.08
9832.00,1.08
9831.00,1.07
9830.00,1.07
9829.00,1.07
9828.00,1.07
9827.00,1.06
9826.00,1.06
9825.00,1.06
9824.00,1.06
9823.00,1.06
9822.00,1.05
9821.00,1.05
9820.00,1.05
9819.00,1.05
9818.00,1.05
9817.00,1.05
9816.00,1.05
9815.00,1.05
9814.00,1.05
9813.00,1.05
9812.00,1.06
9811.00,1.06
9810.00,1.06
9809.00,1.06
9808.00,1.06
9807.00,1.06
9806.00,1.06
9805.00,1.06
9804.00,1.06
9803.00,1.06
9802.00,1.06
9801.00,1.06
9800.00,1.06
9799.00,1.06
9798.00,1.06
9797.00,1.06
9796.00,1.06
9795.00,1.06
9794.00,1.06
9793.00,1.06
9792.00,1.06
9791.00,1.06
9790.00,1.06
9789.00,1.06
9788.00,1.06
9787.00,1.06
9786.00,1.07
9785.00,1.07
9784.00,1.07
9783.00,1.07
9782.00,1.07
9781.00,1.07
9780.00,1.08
9779.00,1.08
9778.00,1.08
9777.00,1.08
9776.00,1.08
9775.00,1.08
9774.00,1.08
9773.00,1.08
9772.00,1.08
9771.00,1.08
9770.00,1.08
9769.00,1.08
9768.00,1.08
9767.00,1.08
9766.00,1.07
9765.00,1.07
9764.00,1.07
9763.00,1.07
9762.00,1.07
9761.00,1.07
9760.00,1.06
9759.00,1.06
9758.00,1.06
9757.00,1.06
9756.00,1.05
9755.00,1.05
9754.00,1.05
9753.00,1.05
9752.00,1.05
9751.00,1.05
9750.00,1.05
9749.00,1.05
9748.00,1.05
9747.00,1.05
9746.00,1.05
9745.00,1.05
9744.00,1.05
9743.00,1.05
9742.00,1.05
9741.00,1.05
9740.00,1.05
9739.00,1.04
9738.00,1.04
9737.00,1.04
9736.00,1.04
9735.00,1.04
9734.00,1.04
9733.00,1.04
9732.00,1.04
9731.00,1.04
9730.00,1.04
9729.00,1.04
9728.00,1.04
9727.00,1.04
9726.00,1.04
9725.00,1.04
9724.00,1.04
9723.00,1.04
9722.00,1.05
9721.00,1.05
9720.00,1.05
9719.00,1.05
9718.00,1.05
9717.00,1.06
9716.00,1.06
9715.00,1.06
9714.00,1.06
9713.00,1.07
9712.00,1.07
9711.00,1.07
9710.00,1.07
9709.00,1.08
9708.00,1.08
9707.00,1.08
9706.00,1.08
9705.00,1.08
9704.00,1.08
9703.00,1.09
9702.00,1.09
9701.00,1.09
9700.00,1.09
9699.00,1.08
9698.00,1.08
9697.00,1.08
9696.00,1.08
9695.00,1.08
9694.00,1.08
9693.00,1.07
9692.00,1.07
9691.00,1.07
9690.00,1.07
9689.00,1.06
9688.00,1.06
9687.00,1.06
9686.00,1.06
9685.00,1.06
9684.00,1.05
9683.00,1.05
9682.00,1.05
9681.00,1.05
9680.00,1.05
9679.00,1.05
9678.00,1.05
9677.00,1.04
9676.00,1.04
9675.00,1.04
9674.00,1.04
9673.00,1.04
9672.00,1.04
9671.00,1.04
9670.00,1.04
9669.00,1.04
9668.00,1.04
9667.00,1.04
9666.00,1.04
9665.00,1.04
9664.00,1.04
9663.00,1.04
9662.00,1.05
9661.00,1.05
9660.00,1.05
9659.00,1.05
9658.00,1.05
9657.00,1.05
9656.00,1.06
9655.00,1.06
9654.00,1.06
9653.00,1.06
9652.00,1.06
9651.00,1.06
9650.00,1.06
9649.00,1.06
9648.00,1.06
9647.00,1.06
9646.00,1.06
9645.00,1.06
9644.00,1.06
9643.00,1.06
9642.00,1.06
9641.00,1.06
9640.00,1.06
9639.00,1.06
9638.00,1.06
9637.00,1.06
9636.00,1.06
9635.00,1.06
9634.00,1.06
9633.00,1.06
9632.00,1.06
9631.00,1.06
9630.00,1.06
9629.00,1.06
9628.00,1.07
9627.00,1.07
9626.00,1.07
9625.00,1.07
9624.00,1.07
9623.00,1.07
9622.00,1.07
9621.00,1.07
9620.00,1.07
9619.00,1.07
9618.00,1.07
9617.00,1.07
9616.00,1.07
9615.00,1.07
9614.00,1.07
9613.00,1.07
9612.00,1.07
9611.00,1.06
9610.00,1.06
9609.00,1.06
9608.00,1.06
9607.00,1.06
9606.00,1.06
9605.00,1.06
9604.00,1.06
9603.00,1.06
9602.00,1.06
9601.00,1.06
9600.00,1.06
9599.00,1.06
9598.00,1.06
9597.00,1.06
9596.00,1.06
9595.00,1.06
9594.00,1.06
9593.00,1.06
9592.00,1.06
9591.00,1.06
9590.00,1.06
9589.00,1.06
9588.00,1.06
9587.00,1.06
9586.00,1.07
9585.00,1.07
9584.00,1.07
9583.00,1.07
9582.00,1.07
9581.00,1.07
9580.00,1.07
9579.00,1.07
9578.00,1.07
9577.00,1.07
9576.00,1.07
9575.00,1.07
9574.00,1.07
9573.00,1.07
9572.00,1.06
9571.00,1.06
9570.00,1.06
9569.00,1.06
9568.00,1.06
9567.00,1.05
9566.00,1.05
9565.00,1.05
9564.00,1.05
9563.00,1.05
9562.00,1.05
9561.00,1.04
9560.00,1.04
9559.00,1.05
9558.00,1.05
9557.00,1.05
9556.00,1.05
9555.00,1.05
9554.00,1.05
9553.00,1.06
9552.00,1.06
9551.00,1.06
9550.00,1.06
9549.00,1.07
9548.00,1.07
9547.00,1.07
9546.00,1.08
9545.00,1.08
9544.00,1.08
9543.00,1.08
9542.00,1.08
9541.00,1.09
9540.00,1.09
9539.00,1.09
9538.00,1.09
9537.00,1.09
9536.00,1.08
9535.00,1.08
9534.00,1.08
9533.00,1.08
9532.00,1.08
9531.00,1.08
9530.00,1.07
9529.00,1.07
9528.00,1.07
9527.00,1.07
9526.00,1.07
9525.00,1.07
9524.00,1.06
9523.00,1.06
9522.00,1.06
9521.00,1.06
9520.00,1.06
9519.00,1.06
9518.00,1.06
9517.00,1.06
9516.00,1.06
9515.00,1.06
9514.00,1.06
9513.00,1.06
9512.00,1.06
9511.00,1.06
9510.00,1.05
9509.00,1.05
9508.00,1.05
9507.00,1.05
9506.00,1.04
9505.00,1.04
9504.00,1.04
9503.00,1.04
9502.00,1.03
9501.00,1.03
9500.00,1.03
9499.00,1.03
9498.00,1.03
9497.00,1.03
9496.00,1.03
9495.00,1.03
9494.00,1.04
9493.00,1.04
9492.00,1.04
9491.00,1.04
9490.00,1.05
9489.00,1.05
9488.00,1.05
9487.00,1.06
9486.00,1.06
9485.00,1.06
9484.00,1.06
9483.00,1.06
9482.00,1.06
9481.00,1.07
9480.00,1.07
9479.00,1.07
9478.00,1.06
9477.00,1.06
9476.00,1.06
9475.00,1.06
9474.00,1.06
9473.00,1.06
9472.00,1.06
9471.00,1.06
9470.00,1.06
9469.00,1.06
9468.00,1.06
9467.00,1.06
9466.00,1.06
9465.00,1.06
9464.00,1.06
9463.00,1.06
9462.00,1.06
9461.00,1.06
9460.00,1.06
9459.00,1.06
9458.00,1.06
9457.00,1.06
9456.00,1.06
9455.00,1.06
9454.00,1.06
9453.00,1.06
9452.00,1.06
9451.00,1.06
9450.00,1.06
9449.00,1.06
9448.00,1.06
9447.00,1.06
9446.00,1.06
9445.00,1.06
9444.00,1.06
9443.00,1.06
9442.00,1.06
9441.00,1.06
9440.00,1.06
9439.00,1.06
9438.00,1.06
9437.00,1.06
9436.00,1.06
9435.00,1.06
9434.00,1.06
9433.00,1.06
9432.00,1.06
9431.00,1.06
9430.00,1.06
9429.00,1.07
9428.00,1.07
9427.00,1.07
9426.00,1.07
9425.00,1.07
9424.00,1.07
9423.00,1.07
9422.00,1.07
9421.00,1.07
9420.00,1.07
9419.00,1.07
9418.00,1.07
9417.00,1.07
9416.00,1.07
9415.00,1.07
9414.00,1.07
9413.00,1.07
9412.00,1.07
9411.00,1.07
9410.00,1.07
9409.00,1.07
9408.00,1.07
9407.00,1.07
9406.00,1.07
9405.00,1.07
9404.00,1.06
9403.00,1.06
9402.00,1.06
9401.00,1.06
9400.00,1.06
9399.00,1.06
9398.00,1.06
9397.00,1.06
9396.00,1.06
9395.00,1.07
9394.00,1.07
9393.00,1.07
9392.00,1.07
9391.00,1.07
9390.00,1.07
9389.00,1.07
9388.00,1.07
9387.00,1.07
9386.00,1.07
9385.00,1.07
9384.00,1.07
9383.00,1.07
9382.00,1.07
9381.00,1.07
9380.00,1.07
9379.00,1.07
9378.00,1.07
9377.00,1.07
9376.00,1.07
9375.00,1.07
9374.00,1.07
9373.00,1.06
9372.00,1.06
9371.00,1.06
9370.00,1.06
9369.00,1.06
9368.00,1.05
9367.00,1.05
9366.00,1.05
9365.00,1.05
9364.00,1.05
9363.00,1.05
9362.00,1.04
9361.00,1.04
9360.00,1.04
9359.00,1.04
9358.00,1.05
9357.00,1.05
9356.00,1.05
9355.00,1.05
9354.00,1.05
9353.00,1.05
9352.00,1.05
9351.00,1.05
9350.00,1.05
9349.00,1.05
9348.00,1.05
9347.00,1.05
9346.00,1.04
9345.00,1.04
9344.00,1.04
9343.00,1.04
9342.00,1.04
9341.00,1.04
9340.00,1.04
9339.00,1.04
9338.00,1.04
9337.00,1.04
9336.00,1.04
9335.00,1.04
9334.00,1.04
9333.00,1.04
9332.00,1.05
9331.00,1.05
9330.00,1.05
9329.00,1.06
9328.00,1.06
9327.00,1.06
9326.00,1.06
9325.00,1.07
9324.00,1.07
9323.00,1.07
9322.00,1.07
9321.00,1.07
9320.00,1.07
9319.00,1.07
9318.00,1.07
9317.00,1.07
9316.00,1.07
9315.00,1.07
9314.00,1.07
9313.00,1.07
9312.00,1.07
9311.00,1.07
9310.00,1.07
9309.00,1.07
9308.00,1.07
9307.00,1.07
9306.00,1.07
9305.00,1.07
9304.00,1.07
9303.00,1.07
9302.00,1.07
9301.00,1.07
9300.00,1.07
9299.00,1.07
9298.00,1.07
9297.00,1.07
9296.00,1.07
9295.00,1.06
9294.00,1.06
9293.00,1.06
9292.00,1.06
9291.00,1.06
9290.00,1.06
9289.00,1.06
9288.00,1.06
9287.00,1.06
9286.00,1.06
9285.00,1.06
9284.00,1.06
9283.00,1.06
9282.00,1.06
9281.00,1.06
9280.00,1.06
9279.00,1.06
9278.00,1.06
9277.00,1.06
9276.00,1.06
9275.00,1.06
9274.00,1.06
9273.00,1.06
9272.00,1.06
9271.00,1.06
9270.00,1.06
9269.00,1.06
9268.00,1.07
9267.00,1.07
9266.00,1.07
9265.00,1.07
9264.00,1.07
9263.00,1.07
9262.00,1.08
9261.00,1.08
9260.00,1.08
9259.00,1.08
9258.00,1.08
9257.00,1.08
9256.00,1.08
9255.00,1.08
9254.00,1.08
9253.00,1.09
9252.00,1.09
9251.00,1.09
9250.00,1.09
9249.00,1.09
9248.00,1.09
9247.00,1.09
9246.00,1.09
9245.00,1.09
9244.00,1.09
9243.00,1.09
9242.00,1.08
9241.00,1.08
9240.00,1.08
9239.00,1.08
9238.00,1.08
9237.00,1.08
9236.00,1.08
9235.00,1.07
9234.00,1.07
9233.00,1.07
9232.00,1.07
9231.00,1.07
9230.00,1.07
9229.00,1.07
9228.00,1.07
9227.00,1.07
9226.00,1.07
9225.00,1.07
9224.00,1.07
9223.00,1.07
9222.00,1.07
9221.00,1.07
9220.00,1.07
9219.00,1.07
9218.00,1.07
9217.00,1.07
9216.00,1.07
9215.00,1.07
9214.00,1.07
9213.00,1.07
9212.00,1.07
9211.00,1.07
9210.00,1.07
9209.00,1.07
9208.00,1.07
9207.00,1.08
9206.00,1.08
9205.00,1.08
9204.00,1.08
9203.00,1.08
9202.00,1.08
9201.00,1.08
9200.00,1.08
9199.00,1.08
9198.00,1.08
9197.00,1.08
9196.00,1.08
9195.00,1.08
9194.00,1.09
9193.00,1.09
9192.00,1.09
9191.00,1.09
9190.00,1.09
9189.00,1.09
9188.00,1.08
9187.00,1.08
9186.00,1.08
9185.00,1.08
9184.00,1.08
9183.00,1.08
9182.00,1.08
9181.00,1.08
9180.00,1.07
9179.00,1.07
9178.00,1.07
9177.00,1.07
9176.00,1.07
9175.00,1.07
9174.00,1.07
9173.00,1.06
9172.00,1.06
9171.00,1.06
9170.00,1.06
9169.00,1.06
9168.00,1.05
9167.00,1.05
9166.00,1.05
9165.00,1.05
9164.00,1.05
9163.00,1.05
9162.00,1.05
9161.00,1.05
9160.00,1.05
9159.00,1.05
9158.00,1.05
9157.00,1.05
9156.00,1.05
9155.00,1.05
9154.00,1.05
9153.00,1.05
9152.00,1.06
9151.00,1.06
9150.00,1.06
9149.00,1.06
9148.00,1.06
9147.00,1.06
9146.00,1.07
9145.00,1.07
9144.00,1.07
9143.00,1.07
9142.00,1.07
9141.00,1.07
9140.00,1.07
9139.00,1.07
9138.00,1.07
9137.00,1.07
9136.00,1.07
9135.00,1.07
9134.00,1.07
9133.00,1.07
9132.00,1.06
9131.00,1.06
9130.00,1.06
9129.00,1.06
9128.00,1.06
9127.00,1.06
9126.00,1.05
9125.00,1.05
9124.00,1.05
9123.00,1.05
9122.00,1.05
9121.00,1.05
9120.00,1.05
9119.00,1.05
9118.00,1.05
9117.00,1.04
9116.00,1.04
9115.00,1.05
9114.00,1.05
9113.00,1.05
9112.00,1.05
9111.00,1.05
9110.00,1.05
9109.00,1.05
9108.00,1.05
9107.00,1.06
9106.00,1.06
9105.00,1.06
9104.00,1.06
9103.00,1.06
9102.00,1.06
9101.00,1.06
9100.00,1.06
9099.00,1.06
9098.00,1.06
9097.00,1.06
9096.00,1.06
9095.00,1.06
9094.00,1.06
9093.00,1.05
9092.00,1.05
9091.00,1.05
9090.00,1.05
9089.00,1.05
9088.00,1.05
9087.00,1.05
9086.00,1.05
9085.00,1.05
9084.00,1.05
9083.00,1.05
9082.00,1.05
9081.00,1.05
9080.00,1.05
9079.00,1.05
9078.00,1.05
9077.00,1.06
9076.00,1.06
9075.00,1.06
9074.00,1.06
9073.00,1.06
9072.00,1.06
9071.00,1.06
9070.00,1.06
9069.00,1.06
9068.00,1.06
9067.00,1.06
9066.00,1.06
9065.00,1.06
9064.00,1.06
9063.00,1.06
9062.00,1.05
9061.00,1.05
9060.00,1.05
9059.00,1.05
9058.00,1.06
9057.00,1.06
9056.00,1.06
9055.00,1.06
9054.00,1.06
9053.00,1.06
9052.00,1.07
9051.00,1.07
9050.00,1.07
9049.00,1.07
9048.00,1.07
9047.00,1.08
9046.00,1.08
9045.00,1.08
9044.00,1.08
9043.00,1.08
9042.00,1.08
9041.00,1.09
9040.00,1.09
9039.00,1.09
9038.00,1.09
9037.00,1.09
9036.00,1.09
9035.00,1.09
9034.00,1.09
9033.00,1.09
9032.00,1.09
9031.00,1.08
9030.00,1.08
9029.00,1.08
9028.00,1.08
9027.00,1.08
9026.00,1.08
9025.00,1.08
9024.00,1.08
9023.00,1.08
9022.00,1.08
9021.00,1.08
9020.00,1.08
9019.00,1.08
9018.00,1.08
9017.00,1.08
9016.00,1.08
9015.00,1.08
9014.00,1.08
9013.00,1.08
9012.00,1.08
9011.00,1.08
9010.00,1.08
9009.00,1.08
9008.00,1.08
9007.00,1.08
9006.00,1.08
9005.00,1.08
9004.00,1.08
9003.00,1.08
9002.00,1.08
9001.00,1.08
9000.00,1.08
8999.00,1.08
8998.00,1.08
8997.00,1.07
8996.00,1.07
8995.00,1.07
8994.00,1.07
8993.00,1.07
8992.00,1.07
8991.00,1.07
8990.00,1.07
8989.00,1.07
8988.00,1.07
8987.00,1.07
8986.00,1.07
8985.00,1.07
8984.00,1.07
8983.00,1.07
8982.00,1.07
8981.00,1.07
8980.00,1.07
8979.00,1.07
8978.00,1.07
8977.00,1.07
8976.00,1.07
8975.00,1.07
8974.00,1.07
8973.00,1.07
8972.00,1.07
8971.00,1.07
8970.00,1.07
8969.00,1.07
8968.00,1.07
8967.00,1.07
8966.00,1.07
8965.00,1.07
8964.00,1.07
8963.00,1.07
8962.00,1.07
8961.00,1.07
8960.00,1.07
8959.00,1.07
8958.00,1.07
8957.00,1.07
8956.00,1.07
8955.00,1.07
8954.00,1.07
8953.00,1.07
8952.00,1.07
8951.00,1.07
8950.00,1.06
8949.00,1.06
8948.00,1.06
8947.00,1.06
8946.00,1.06
8945.00,1.06
8944.00,1.06
8943.00,1.06
8942.00,1.06
8941.00,1.06
8940.00,1.06
8939.00,1.06
8938.00,1.06
8937.00,1.06
8936.00,1.06
8935.00,1.06
8934.00,1.06
8933.00,1.06
8932.00,1.06
8931.00,1.06
8930.00,1.06
8929.00,1.06
8928.00,1.06
8927.00,1.06
8926.00,1.06
8925.00,1.06
8924.00,1.07
8923.00,1.07
8922.00,1.07
8921.00,1.07
8920.00,1.07
8919.00,1.07
8918.00,1.07
8917.00,1.07
8916.00,1.07
8915.00,1.07
8914.00,1.07
8913.00,1.07
8912.00,1.07
8911.00,1.08
8910.00,1.08
8909.00,1.08
8908.00,1.08
8907.00,1.08
8906.00,1.08
8905.00,1.08
8904.00,1.08
8903.00,1.08
8902.00,1.08
8901.00,1.08
8900.00,1.08
8899.00,1.08
8898.00,1.08
8897.00,1.08
8896.00,1.08
8895.00,1.08
8894.00,1.08
8893.00,1.08
8892.00,1.07
8891.00,1.07
8890.00,1.07
8889.00,1.07
8888.00,1.07
8887.00,1.07
8886.00,1.07
8885.00,1.06
8884.00,1.06
8883.00,1.06
8882.00,1.06
8881.00,1.06
8880.00,1.06
8879.00,1.06
8878.00,1.06
8877.00,1.06
8876.00,1.06
8875.00,1.06
8874.00,1.06
8873.00,1.06
8872.00,1.06
8871.00,1.06
8870.00,1.07
8869.00,1.07
8868.00,1.07
8867.00,1.07
8866.00,1.07
8865.00,1.07
8864.00,1.07
8863.00,1.07
8862.00,1.08
8861.00,1.08
8860.00,1.08
8859.00,1.08
8858.00,1.08
8857.00,1.08
8856.00,1.08
8855.00,1.08
8854.00,1.08
8853.00,1.08
8852.00,1.08
8851.00,1.08
8850.00,1.08
8849.00,1.08
8848.00,1.08
8847.00,1.08
8846.00,1.08
8845.00,1.08
8844.00,1.08
8843.00,1.08
8842.00,1.07
8841.00,1.07
8840.00,1.07
8839.00,1.07
8838.00,1.07
8837.00,1.07
8836.00,1.07
8835.00,1.07
8834.00,1.07
8833.00,1.07
8832.00,1.06
8831.00,1.06
8830.00,1.06
8829.00,1.06
8828.00,1.06
8827.00,1.06
8826.00,1.05
8825.00,1.05
8824.00,1.05
8823.00,1.05
8822.00,1.05
8821.00,1.05
8820.00,1.05
8819.00,1.04
8818.00,1.04
8817.00,1.04
8816.00,1.04
8815.00,1.04
8814.00,1.04
8813.00,1.04
8812.00,1.04
8811.00,1.04
8810.00,1.04
8809.00,1.04
8808.00,1.04
8807.00,1.04
8806.00,1.04
8805.00,1.04
8804.00,1.04
8803.00,1.04
8802.00,1.04
8801.00,1.04
8800.00,1.04
8799.00,1.04
8798.00,1.04
8797.00,1.04
8796.00,1.04
8795.00,1.04
8794.00,1.04
8793.00,1.04
8792.00,1.04
8791.00,1.04
8790.00,1.04
8789.00,1.04
8788.00,1.05
8787.00,1.05
8786.00,1.05
8785.00,1.05
8784.00,1.05
8783.00,1.05
8782.00,1.05
8781.00,1.05
8780.00,1.05
8779.00,1.05
8778.00,1.05
8777.00,1.05
8776.00,1.05
8775.00,1.05
8774.00,1.05
8773.00,1.05
8772.00,1.05
8771.00,1.04
8770.00,1.04
8769.00,1.04
8768.00,1.04
8767.00,1.04
8766.00,1.04
8765.00,1.04
8764.00,1.03
8763.00,1.03
8762.00,1.03
8761.00,1.03
8760.00,1.03
8759.00,1.03
8758.00,1.03
8757.00,1.03
8756.00,1.03
8755.00,1.03
8754.00,1.03
8753.00,1.03
8752.00,1.03
8751.00,1.03
8750.00,1.03
8749.00,1.04
8748.00,1.04
8747.00,1.04
8746.00,1.04
8745.00,1.04
8744.00,1.04
8743.00,1.04
8742.00,1.04
8741.00,1.04
8740.00,1.04
8739.00,1.04
8738.00,1.03
8737.00,1.03
8736.00,1.03
8735.00,1.03
8734.00,1.03
8733.00,1.03
8732.00,1.02
8731.00,1.02
8730.00,1.02
8729.00,1.02
8728.00,1.02
8727.00,1.02
8726.00,1.01
8725.00,1.01
8724.00,1.01
8723.00,1.01
8722.00,1.01
8721.00,1.01
8720.00,1.01
8719.00,1.02
8718.00,1.02
8717.00,1.02
8716.00,1.02
8715.00,1.02
8714.00,1.02
8713.00,1.02
8712.00,1.02
8711.00,1.02
8710.00,1.02
8709.00,1.02
8708.00,1.02
8707.00,1.02
8706.00,1.02
8705.00,1.02
8704.00,1.02
8703.00,1.02
8702.00,1.02
8701.00,1.02
8700.00,1.02
8699.00,1.02
8698.00,1.02
8697.00,1.02
8696.00,1.02
8695.00,1.02
8694.00,1.02
8693.00,1.02
8692.00,1.02
8691.00,1.02
8690.00,1.02
8689.00,1.02
8688.00,1.02
8687.00,1.02
8686.00,1.02
8685.00,1.02
8684.00,1.02
8683.00,1.02
8682.00,1.02
8681.00,1.02
8680.00,1.02
8679.00,1.02
8678.00,1.02
8677.00,1.02
8676.00,1.02
8675.00,1.02
8674.00,1.02
8673.00,1.02
8672.00,1.02
8671.00,1.02
8670.00,1.02
8669.00,1.02
8668.00,1.02
8667.00,1.02
8666.00,1.02
8665.00,1.02
8664.00,1.02
8663.00,1.02
8662.00,1.02
8661.00,1.02
8660.00,1.02
8659.00,1.02
8658.00,1.03
8657.00,1.03
8656.00,1.03
8655.00,1.03
8654.00,1.03
8653.00,1.03
8652.00,1.03
8651.00,1.03
8650.00,1.03
8649.00,1.03
8648.00,1.03
8647.00,1.03
8646.00,1.03
8645.00,1.02
8644.00,1.02
8643.00,1.02
8642.00,1.02
8641.00,1.02
8640.00,1.02
8639.00,1.02
8638.00,1.02
8637.00,1.01
8636.00,1.01
8635.00,1.01
8634.00,1.01
8633.00,1.01
8632.00,1.01
8631.00,1.01
8630.00,1.01
8629.00,1.01
8628.00,1.00
8627.00,1.00
8626.00,1.00
8625.00,1.00
8624.00,1.00
8623.00,1.00
8622.00,1.00
8621.00,1.00
8620.00,1.00
8619.00,1.00
8618.00,1.00
8617.00,1.00
8616.00,1.00
8615.00,1.00
8614.00,1.00
8613.00,1.00
8612.00,1.00
8611.00,1.00
8610.00,1.00
8609.00,1.00
8608.00,1.00
8607.00,1.00
8606.00,1.00
8605.00,1.00
8604.00,1.00
8603.00,1.00
8602.00,1.00
8601.00,1.00
8600.00,0.99
8599.00,0.99
8598.00,0.99
8597.00,0.99
8596.00,0.99
8595.00,0.99
8594.00,0.99
8593.00,0.99
8592.00,0.99
8591.00,0.98
8590.00,0.98
8589.00,0.98
8588.00,0.98
8587.00,0.98
8586.00,0.98
8585.00,0.98
8584.00,0.98
8583.00,0.98
8582.00,0.98
8581.00,0.98
8580.00,0.99
8579.00,0.99
8578.00,0.99
8577.00,0.99
8576.00,0.99
8575.00,0.99
8574.00,0.99
8573.00,0.99
8572.00,0.99
8571.00,0.99
8570.00,0.99
8569.00,0.99
8568.00,0.99
8567.00,0.99
8566.00,0.99
8565.00,0.99
8564.00,0.99
8563.00,0.99
8562.00,0.99
8561.00,0.99
8560.00,0.98
8559.00,0.98
8558.00,0.98
8557.00,0.98
8556.00,0.98
8555.00,0.98
8554.00,0.98
8553.00,0.98
8552.00,0.98
8551.00,0.98
8550.00,0.98
8549.00,0.98
8548.00,0.98
8547.00,0.98
8546.00,0.99
8545.00,0.99
8544.00,0.99
8543.00,0.99
8542.00,0.99
8541.00,0.99
8540.00,0.99
8539.00,0.99
8538.00,0.99
8537.00,0.99
8536.00,0.99
8535.00,0.99
8534.00,0.99
8533.00,0.99
8532.00,0.99
8531.00,0.99
8530.00,0.99
8529.00,0.99
8528.00,0.99
8527.00,0.99
8526.00,0.98
8525.00,0.98
8524.00,0.98
8523.00,0.98
8522.00,0.98
8521.00,0.98
8520.00,0.98
8519.00,0.97
8518.00,0.97
8517.00,0.97
8516.00,0.97
8515.00,0.97
8514.00,0.97
8513.00,0.97
8512.00,0.96
8511.00,0.96
8510.00,0.96
8509.00,0.96
8508.00,0.96
8507.00,0.96
8506.00,0.96
8505.00,0.96
8504.00,0.96
8503.00,0.96
8502.00,0.96
8501.00,0.96
8500.00,0.96
8499.00,0.96
8498.00,0.96
8497.00,0.96
8496.00,0.96
8495.00,0.96
8494.00,0.96
8493.00,0.96
8492.00,0.96
8491.00,0.96
8490.00,0.96
8489.00,0.96
8488.00,0.96
8487.00,0.96
8486.00,0.96
8485.00,0.96
8484.00,0.96
8483.00,0.96
8482.00,0.96
8481.00,0.96
8480.00,0.96
8479.00,0.96
8478.00,0.96
8477.00,0.96
8476.00,0.96
8475.00,0.95
8474.00,0.95
8473.00,0.95
8472.00,0.95
8471.00,0.95
8470.00,0.95
8469.00,0.95
8468.00,0.95
8467.00,0.95
8466.00,0.95
8465.00,0.95
8464.00,0.94
8463.00,0.94
8462.00,0.94
8461.00,0.94
8460.00,0.94
8459.00,0.94
8458.00,0.94
8457.00,0.94
8456.00,0.94
8455.00,0.94
8454.00,0.94
8453.00,0.94
8452.00,0.94
8451.00,0.93
8450.00,0.93
8449.00,0.93
8448.00,0.93
8447.00,0.93
8446.00,0.93
8445.00,0.93
8444.00,0.93
8443.00,0.93
8442.00,0.93
8441.00,0.93
8440.00,0.93
8439.00,0.93
8438.00,0.93
8437.00,0.93
8436.00,0.93
8435.00,0.93
8434.00,0.93
8433.00,0.93
8432.00,0.93
8431.00,0.93
8430.00,0.93
8429.00,0.93
8428.00,0.93
8427.00,0.93
8426.00,0.93
8425.00,0.93
8424.00,0.93
8423.00,0.93
8422.00,0.93
8421.00,0.93
8420.00,0.93
8419.00,0.93
8418.00,0.94
8417.00,0.94
8416.00,0.94
8415.00,0.94
8414.00,0.94
8413.00,0.94
8412.00,0.94
8411.00,0.94
8410.00,0.94
8409.00,0.94
8408.00,0.94
8407.00,0.94
8406.00,0.94
8405.00,0.94
8404.00,0.94
8403.00,0.94
8402.00,0.94
8401.00,0.94
8400.00,0.94
8399.00,0.94
8398.00,0.95
8397.00,0.95
8396.00,0.95
8395.00,0.95
8394.00,0.95
8393.00,0.95
8392.00,0.96
8391.00,0.96
8390.00,0.96
8389.00,0.96
8388.00,0.96
8387.00,0.96
8386.00,0.96
8385.00,0.96
8384.00,0.96
8383.00,0.96
8382.00,0.96
8381.00,0.96
8380.00,0.96
8379.00,0.96
8378.00,0.96
8377.00,0.96
8376.00,0.96
8375.00,0.96
8374.00,0.96
8373.00,0.96
8372.00,0.96
8371.00,0.96
8370.00,0.96
8369.00,0.96
8368.00,0.96
8367.00,0.96
8366.00,0.96
8365.00,0.96
8364.00,0.96
8363.00,0.96
8362.00,0.96
8361.00,0.96
8360.00,0.96
8359.00,0.96
8358.00,0.96
8357.00,0.96
8356.00,0.96
8355.00,0.96
8354.00,0.96
8353.00,0.96
8352.00,0.96
8351.00,0.96
8350.00,0.96
8349.00,0.96
8348.00,0.96
8347.00,0.96
8346.00,0.96
8345.00,0.96
8344.00,0.96
8343.00,0.96
8342.00,0.97
8341.00,0.97
8340.00,0.97
8339.00,0.97
8338.00,0.97
8337.00,0.97
8336.00,0.97
8335.00,0.97
8334.00,0.97
8333.00,0.97
8332.00,0.97
8331.00,0.96
8330.00,0.96
8329.00,0.96
8328.00,0.96
8327.00,0.96
8326.00,0.96
8325.00,0.96
8324.00,0.96
8323.00,0.96
8322.00,0.96
8321.00,0.96
8320.00,0.96
8319.00,0.96
8318.00,0.96
8317.00,0.96
8316.00,0.96
8315.00,0.96
8314.00,0.96
8313.00,0.96
8312.00,0.97
8311.00,0.97
8310.00,0.97
8309.00,0.97
8308.00,0.97
8307.00,0.97
8306.00,0.97
8305.00,0.97
8304.00,0.97
8303.00,0.97
8302.00,0.97
8301.00,0.97
8300.00,0.97
8299.00,0.97
8298.00,0.97
8297.00,0.97
8296.00,0.97
8295.00,0.97
8294.00,0.97
8293.00,0.97
8292.00,0.97
8291.00,0.97
8290.00,0.97
8289.00,0.97
8288.00,0.97
8287.00,0.97
8286.00,0.97
8285.00,0.97
8284.00,0.97
8283.00,0.97
8282.00,0.97
8281.00,0.97
8280.00,0.97
8279.00,0.97
8278.00,0.97
8277.00,0.98
8276.00,0.98
8275.00,0.98
8274.00,0.98
8273.00,0.98
8272.00,0.98
8271.00,0.98
8270.00,0.98
8269.00,0.98
8268.00,0.98
8267.00,0.98
8266.00,0.98
8265.00,0.98
8264.00,0.98
8263.00,0.98
8262.00,0.98
8261.00,0.98
8260.00,0.98
8259.00,0.98
8258.00,0.98
8257.00,0.98
8256.00,0.98
8255.00,0.98
8254.00,0.98
8253.00,0.98
8252.00,0.98
8251.00,0.98
8250.00,0.98
8249.00,0.98
8248.00,0.98
8247.00,0.98
8246.00,0.98
8245.00,0.98
8244.00,0.98
8243.00,0.98
8242.00,0.99
8241.00,0.99
8240.00,0.99
8239.00,0.99
8238.00,0.99
8237.00,0.99
8236.00,0.99
8235.00,0.99
8234.00,0.99
8233.00,0.99
8232.00,0.99
8231.00,0.99
8230.00,0.99
8229.00,0.99
8228.00,0.99
8227.00,1.00
8226.00,1.00
8225.00,1.00
8224.00,1.00
8223.00,1.00
8222.00,1.00
8221.00,1.00
8220.00,1.00
8219.00,1.00
8218.00,1.00
8217.00,1.00
8216.00,1.00
8215.00,1.00
8214.00,1.00
8213.00,1.00
8212.00,1.00
8211.00,1.00
8210.00,1.00
8209.00,1.00
8208.00,1.00
8207.00,1.00
8206.00,1.00
8205.00,1.00
8204.00,1.00
8203.00,1.00
8202.00,1.00
8201.00,1.00
8200.00,1.00
8199.00,1.00
8198.00,1.00
8197.00,1.00
8196.00,1.00
8195.00,1.00
8194.00,1.01
8193.00,1.01
8192.00,1.01
8191.00,1.01
8190.00,1.01
8189.00,1.01
8188.00,1.01
8187.00,1.01
8186.00,1.01
8185.00,1.01
8184.00,1.01
8183.00,1.01
8182.00,1.01
8181.00,1.01
8180.00,1.01
8179.00,1.01
8178.00,1.01
8177.00,1.01
8176.00,1.01
8175.00,1.01
8174.00,1.01
8173.00,1.01
8172.00,1.01
8171.00,1.01
8170.00,1.01
8169.00,1.01
8168.00,1.01
8167.00,1.01
8166.00,1.01
8165.00,1.01
8164.00,1.01
8163.00,1.01
8162.00,1.01
8161.00,1.01
8160.00,1.01
8159.00,1.01
8158.00,1.02
8157.00,1.02
8156.00,1.02
8155.00,1.02
8154.00,1.02
8153.00,1.02
8152.00,1.02
8151.00,1.01
8150.00,1.01
8149.00,1.01
8148.00,1.01
8147.00,1.01
8146.00,1.01
8145.00,1.01
8144.00,1.01
8143.00,1.01
8142.00,1.01
8141.00,1.01
8140.00,1.01
8139.00,1.01
8138.00,1.01
8137.00,1.01
8136.00,1.01
8135.00,1.01
8134.00,1.01
8133.00,1.01
8132.00,1.01
8131.00,1.01
8130.00,1.01
8129.00,1.01
8128.00,1.01
8127.00,1.02
8126.00,1.02
8125.00,1.02
8124.00,1.02
8123.00,1.02
8122.00,1.02
8121.00,1.02
8120.00,1.02
8119.00,1.02
8118.00,1.03
8117.00,1.03
8116.00,1.03
8115.00,1.03
8114.00,1.03
8113.00,1.03
8112.00,1.03
8111.00,1.03
8110.00,1.03
8109.00,1.03
8108.00,1.03
8107.00,1.03
8106.00,1.03
8105.00,1.03
8104.00,1.03
8103.00,1.03
8102.00,1.03
8101.00,1.03
8100.00,1.03
8099.00,1.03
8098.00,1.03
8097.00,1.03
8096.00,1.03
8095.00,1.03
8094.00,1.03
8093.00,1.03
8092.00,1.03
8091.00,1.03
8090.00,1.03
8089.00,1.03
8088.00,1.03
8087.00,1.04
8086.00,1.04
8085.00,1.04
8084.00,1.04
8083.00,1.04
8082.00,1.04
8081.00,1.04
8080.00,1.04
8079.00,1.04
8078.00,1.04
8077.00,1.04
8076.00,1.04
8075.00,1.04
8074.00,1.04
8073.00,1.04
8072.00,1.04
8071.00,1.04
8070.00,1.04
8069.00,1.04
8068.00,1.04
8067.00,1.04
8066.00,1.04
8065.00,1.04
8064.00,1.05
8063.00,1.05
8062.00,1.05
8061.00,1.05
8060.00,1.05
8059.00,1.05
8058.00,1.05
8057.00,1.05
8056.00,1.05
8055.00,1.05
8054.00,1.05
8053.00,1.05
8052.00,1.05
8051.00,1.05
8050.00,1.05
8049.00,1.05
8048.00,1.05
8047.00,1.05
8046.00,1.05
8045.00,1.05
8044.00,1.05
8043.00,1.05
8042.00,1.05
8041.00,1.05
8040.00,1.05
8039.00,1.05
8038.00,1.05
8037.00,1.05
8036.00,1.05
8035.00,1.05
8034.00,1.05
8033.00,1.05
8032.00,1.05
8031.00,1.05
8030.00,1.05
8029.00,1.04
8028.00,1.04
8027.00,1.04
8026.00,1.04
8025.00,1.04
8024.00,1.04
8023.00,1.04
8022.00,1.04
8021.00,1.04
8020.00,1.04
8019.00,1.04
8018.00,1.04
8017.00,1.04
8016.00,1.04
8015.00,1.04
8014.00,1.04
8013.00,1.04
8012.00,1.04
8011.00,1.04
8010.00,1.04
8009.00,1.04
8008.00,1.04
8007.00,1.04
8006.00,1.04
8005.00,1.04
8004.00,1.04
8003.00,1.04
8002.00,1.04
8001.00,1.05
8000.00,1.05
7999.00,1.05
7998.00,1.05
7997.00,1.05
7996.00,1.05
7995.00,1.05
7994.00,1.05
7993.00,1.05
7992.00,1.05
7991.00,1.06
7990.00,1.06
7989.00,1.06
7988.00,1.06
7987.00,1.06
7986.00,1.06
7985.00,1.06
7984.00,1.06
7983.00,1.06
7982.00,1.05
7981.00,1.05
7980.00,1.05
7979.00,1.05
7978.00,1.05
7977.00,1.05
7976.00,1.05
7975.00,1.05
7974.00,1.05
7973.00,1.05
7972.00,1.05
7971.00,1.05
7970.00,1.05
7969.00,1.05
7968.00,1.05
7967.00,1.05
7966.00,1.05
7965.00,1.05
7964.00,1.05
7963.00,1.05
7962.00,1.05
7961.00,1.05
7960.00,1.05
7959.00,1.06
7958.00,1.06
7957.00,1.06
7956.00,1.06
7955.00,1.06
7954.00,1.06
7953.00,1.06
7952.00,1.06
7951.00,1.06
7950.00,1.06
7949.00,1.06
7948.00,1.06
7947.00,1.06
7946.00,1.06
7945.00,1.06
7944.00,1.07
7943.00,1.07
7942.00,1.07
7941.00,1.07
7940.00,1.07
7939.00,1.06
7938.00,1.06
7937.00,1.06
7936.00,1.06
7935.00,1.06
7934.00,1.06
7933.00,1.06
7932.00,1.06
7931.00,1.06
7930.00,1.06
7929.00,1.06
7928.00,1.06
7927.00,1.06
7926.00,1.06
7925.00,1.06
7924.00,1.06
7923.00,1.07
7922.00,1.07
7921.00,1.07
7920.00,1.07
7919.00,1.07
7918.00,1.07
7917.00,1.07
7916.00,1.07
7915.00,1.07
7914.00,1.07
7913.00,1.06
7912.00,1.06
7911.00,1.06
7910.00,1.06
7909.00,1.06
7908.00,1.06
7907.00,1.06
7906.00,1.06
7905.00,1.06
7904.00,1.06
7903.00,1.06
7902.00,1.06
7901.00,1.06
7900.00,1.06
7899.00,1.06
7898.00,1.06
7897.00,1.06
7896.00,1.06
7895.00,1.06
7894.00,1.06
7893.00,1.07
7892.00,1.07
7891.00,1.07
7890.00,1.07
7889.00,1.07
7888.00,1.07
7887.00,1.07
7886.00,1.07
7885.00,1.07
7884.00,1.07
7883.00,1.07
7882.00,1.07
7881.00,1.08
7880.00,1.08
7879.00,1.08
7878.00,1.08
7877.00,1.08
7876.00,1.08
7875.00,1.08
7874.00,1.08
7873.00,1.08
7872.00,1.08
7871.00,1.08
7870.00,1.08
7869.00,1.08
7868.00,1.08
7867.00,1.08
7866.00,1.08
7865.00,1.08
7864.00,1.08
7863.00,1.08
7862.00,1.08
7861.00,1.08
7860.00,1.08
7859.00,1.08
7858.00,1.08
7857.00,1.08
7856.00,1.08
7855.00,1.08
7854.00,1.07
7853.00,1.07
7852.00,1.07
7851.00,1.07
7850.00,1.07
7849.00,1.07
7848.00,1.07
7847.00,1.07
7846.00,1.07
7845.00,1.07
7844.00,1.07
7843.00,1.07
7842.00,1.07
7841.00,1.07
7840.00,1.07
7839.00,1.07
7838.00,1.07
7837.00,1.07
7836.00,1.07
7835.00,1.07
7834.00,1.07
7833.00,1.07
7832.00,1.07
7831.00,1.07
7830.00,1.07
7829.00,1.07
7828.00,1.07
7827.00,1.07
7826.00,1.07
7825.00,1.08
7824.00,1.08
7823.00,1.08
7822.00,1.08
7821.00,1.08
7820.00,1.08
7819.00,1.08
7818.00,1.08
7817.00,1.08
7816.00,1.08
7815.00,1.08
7814.00,1.08
7813.00,1.08
7812.00,1.08
7811.00,1.08
7810.00,1.08
7809.00,1.08
7808.00,1.08
7807.00,1.08
7806.00,1.08
7805.00,1.08
7804.00,1.08
7803.00,1.08
7802.00,1.08
7801.00,1.08
7800.00,1.08
7799.00,1.08
7798.00,1.08
7797.00,1.08
7796.00,1.08
7795.00,1.08
7794.00,1.08
7793.00,1.08
7792.00,1.08
7791.00,1.08
7790.00,1.08
7789.00,1.08
7788.00,1.08
7787.00,1.08
7786.00,1.08
7785.00,1.08
7784.00,1.08
7783.00,1.08
7782.00,1.08
7781.00,1.08
7780.00,1.08
7779.00,1.08
7778.00,1.08
7777.00,1.08
7776.00,1.08
7775.00,1.08
7774.00,1.08
7773.00,1.08
7772.00,1.08
7771.00,1.08
7770.00,1.08
7769.00,1.08
7768.00,1.08
7767.00,1.08
7766.00,1.08
7765.00,1.08
7764.00,1.08
7763.00,1.08
7762.00,1.08
7761.00,1.08
7760.00,1.08
7759.00,1.08
7758.00,1.08
7757.00,1.08
7756.00,1.08
7755.00,1.08
7754.00,1.08
7753.00,1.08
7752.00,1.08
7751.00,1.08
7750.00,1.08
7749.00,1.08
7748.00,1.08
7747.00,1.08
7746.00,1.08
7745.00,1.08
7744.00,1.08
7743.00,1.08
7742.00,1.08
7741.00,1.08
7740.00,1.08
7739.00,1.08
7738.00,1.08
7737.00,1.08
7736.00,1.08
7735.00,1.08
7734.00,1.08
7733.00,1.08
7732.00,1.08
7731.00,1.08
7730.00,1.08
7729.00,1.08
7728.00,1.08
7727.00,1.08
7726.00,1.08
7725.00,1.08
7724.00,1.08
7723.00,1.08
7722.00,1.08
7721.00,1.08
7720.00,1.08
7719.00,1.08
7718.00,1.08
7717.00,1.08
7716.00,1.08
7715.00,1.08
7714.00,1.08
7713.00,1.08
7712.00,1.08
7711.00,1.08
7710.00,1.08
7709.00,1.08
7708.00,1.08
7707.00,1.08
7706.00,1.08
7705.00,1.08
7704.00,1.08
7703.00,1.09
7702.00,1.09
7701.00,1.09
7700.00,1.09
7699.00,1.09
7698.00,1.09
7697.00,1.09
7696.00,1.09
7695.00,1.09
7694.00,1.09
7693.00,1.09
7692.00,1.09
7691.00,1.09
7690.00,1.09
7689.00,1.09
7688.00,1.09
7687.00,1.09
7686.00,1.09
7685.00,1.09
7684.00,1.09
7683.00,1.09
7682.00,1.09
7681.00,1.09
7680.00,1.09
7679.00,1.09
7678.00,1.08
7677.00,1.08
7676.00,1.08
7675.00,1.08
7674.00,1.08
7673.00,1.08
7672.00,1.08
7671.00,1.08
7670.00,1.08
7669.00,1.08
7668.00,1.08
7667.00,1.08
7666.00,1.08
7665.00,1.09
7664.00,1.09
7663.00,1.09
7662.00,1.09
7661.00,1.09
7660.00,1.09
7659.00,1.09
7658.00,1.09
7657.00,1.08
7656.00,1.08
7655.00,1.08
7654.00,1.08
7653.00,1.08
7652.00,1.08
7651.00,1.08
7650.00,1.08
7649.00,1.08
7648.00,1.08
7647.00,1.08
7646.00,1.08
7645.00,1.07
7644.00,1.07
7643.00,1.07
7642.00,1.07
7641.00,1.07
7640.00,1.07
7639.00,1.08
7638.00,1.08
7637.00,1.08
7636.00,1.08
7635.00,1.08
7634.00,1.08
7633.00,1.08
7632.00,1.08
7631.00,1.08
7630.00,1.08
7629.00,1.08
7628.00,1.08
7627.00,1.08
7626.00,1.08
7625.00,1.08
7624.00,1.08
7623.00,1.08
7622.00,1.08
7621.00,1.08
7620.00,1.08
7619.00,1.08
7618.00,1.08
7617.00,1.08
7616.00,1.08
7615.00,1.08
7614.00,1.08
7613.00,1.08
7612.00,1.08
7611.00,1.08
7610.00,1.08
7609.00,1.08
7608.00,1.08
7607.00,1.08
7606.00,1.08
7605.00,1.08
7604.00,1.09
7603.00,1.09
7602.00,1.09
7601.00,1.09
7600.00,1.09
7599.00,1.09
7598.00,1.09
7597.00,1.09
7596.00,1.09
7595.00,1.09
7594.00,1.09
7593.00,1.09
7592.00,1.09
7591.00,1.08
7590.00,1.08
7589.00,1.08
7588.00,1.08
7587.00,1.08
7586.00,1.08
7585.00,1.08
7584.00,1.08
7583.00,1.08
7582.00,1.08
7581.00,1.08
7580.00,1.08
7579.00,1.08
7578.00,1.08
7577.00,1.08
7576.00,1.08
7575.00,1.08
7574.00,1.08
7573.00,1.08
7572.00,1.08
7571.00,1.08
7570.00,1.08
7569.00,1.08
7568.00,1.07
7567.00,1.07
7566.00,1.07
7565.00,1.07
7564.00,1.07
7563.00,1.07
7562.00,1.07
7561.00,1.07
7560.00,1.07
7559.00,1.07
7558.00,1.06
7557.00,1.06
7556.00,1.06
7555.00,1.06
7554.00,1.06
7553.00,1.06
7552.00,1.06
7551.00,1.06
7550.00,1.06
7549.00,1.06
7548.00,1.07
7547.00,1.07
7546.00,1.07
7545.00,1.07
7544.00,1.07
7543.00,1.07
7542.00,1.07
7541.00,1.07
7540.00,1.07
7539.00,1.07
7538.00,1.07
7537.00,1.07
7536.00,1.07
7535.00,1.07
7534.00,1.06
7533.00,1.06
7532.00,1.06
7531.00,1.06
7530.00,1.06
7529.00,1.06
7528.00,1.06
7527.00,1.06
7526.00,1.06
7525.00,1.06
7524.00,1.06
7523.00,1.06
7522.00,1.06
7521.00,1.06
7520.00,1.06
7519.00,1.06
7518.00,1.06
7517.00,1.06
7516.00,1.06
7515.00,1.06
7514.00,1.06
7513.00,1.06
7512.00,1.06
7511.00,1.06
7510.00,1.06
7509.00,1.06
7508.00,1.06
7507.00,1.06
7506.00,1.06
7505.00,1.06
7504.00,1.06
7503.00,1.06
7502.00,1.06
7501.00,1.06
7500.00,1.06
7499.00,1.06
7498.00,1.06
7497.00,1.06
7496.00,1.06
7495.00,1.06
7494.00,1.06
7493.00,1.06
7492.00,1.06
7491.00,1.06
7490.00,1.06
7489.00,1.06
7488.00,1.06
7487.00,1.06
7486.00,1.06
7485.00,1.06
7484.00,1.06
7483.00,1.06
7482.00,1.05
7481.00,1.05
7480.00,1.05
7479.00,1.05
7478.00,1.05
7477.00,1.05
7476.00,1.05
7475.00,1.05
7474.00,1.05
7473.00,1.05
7472.00,1.05
7471.00,1.05
7470.00,1.05
7469.00,1.05
7468.00,1.05
7467.00,1.05
7466.00,1.04
7465.00,1.04
7464.00,1.04
7463.00,1.04
7462.00,1.04
7461.00,1.04
7460.00,1.04
7459.00,1.04
7458.00,1.04
7457.00,1.04
7456.00,1.04
7455.00,1.04
7454.00,1.04
7453.00,1.04
7452.00,1.04
7451.00,1.04
7450.00,1.04
7449.00,1.04
7448.00,1.04
7447.00,1.04
7446.00,1.04
7445.00,1.04
7444.00,1.04
7443.00,1.04
7442.00,1.04
7441.00,1.04
7440.00,1.04
7439.00,1.03
7438.00,1.03
7437.00,1.03
7436.00,1.03
7435.00,1.03
7434.00,1.03
7433.00,1.03
7432.00,1.03
7431.00,1.03
7430.00,1.03
7429.00,1.03
7428.00,1.03
7427.00,1.03
7426.00,1.03
7425.00,1.03
7424.00,1.03
7423.00,1.03
7422.00,1.03
7421.00,1.03
7420.00,1.03
7419.00,1.03
7418.00,1.02
7417.00,1.02
7416.00,1.02
7415.00,1.02
7414.00,1.02
7413.00,1.02
7412.00,1.02
7411.00,1.02
7410.00,1.02
7409.00,1.02
7408.00,1.01
7407.00,1.01
7406.00,1.01
7405.00,1.01
7404.00,1.01
7403.00,1.01
7402.00,1.01
7401.00,1.01
7400.00,1.01
7399.00,1.01
7398.00,1.01
7397.00,1.01
7396.00,1.00
7395.00,1.00
7394.00,1.00
7393.00,1.00
7392.00,1.00
7391.00,1.00
7390.00,1.00
7389.00,0.99
7388.00,0.99
7387.00,0.99
7386.00,0.99
7385.00,0.99
7384.00,0.99
7383.00,0.99
7382.00,0.99
7381.00,0.98
7380.00,0.98
7379.00,0.98
7378.00,0.98
7377.00,0.98
7376.00,0.98
7375.00,0.98
7374.00,0.98
7373.00,0.98
7372.00,0.98
7371.00,0.98
7370.00,0.98
7369.00,0.98
7368.00,0.98
7367.00,0.98
7366.00,0.98
7365.00,0.98
7364.00,0.98
7363.00,0.98
7362.00,0.98
7361.00,0.98
7360.00,0.98
7359.00,0.98
7358.00,0.98
7357.00,0.98
7356.00,0.98
7355.00,0.97
7354.00,0.97
7353.00,0.97
7352.00,0.97
7351.00,0.97
7350.00,0.97
7349.00,0.97
7348.00,0.97
7347.00,0.97
7346.00,0.97
7345.00,0.97
7344.00,0.97
7343.00,0.97
7342.00,0.97
7341.00,0.97
7340.00,0.97
7339.00,0.97
7338.00,0.97
7337.00,0.97
7336.00,0.97
7335.00,0.97
7334.00,0.97
7333.00,0.97
7332.00,0.97
7331.00,0.97
7330.00,0.97
7329.00,0.97
7328.00,0.97
7327.00,0.97
7326.00,0.97
7325.00,0.97
7324.00,0.97
7323.00,0.97
7322.00,0.97
7321.00,0.97
7320.00,0.97
7319.00,0.97
7318.00,0.97
7317.00,0.97
7316.00,0.97
7315.00,0.96
7314.00,0.96
7313.00,0.96
7312.00,0.96
7311.00,0.96
7310.00,0.96
7309.00,0.95
7308.00,0.95
7307.00,0.95
7306.00,0.95
7305.00,0.95
7304.00,0.95
7303.00,0.94
7302.00,0.94
7301.00,0.94
7300.00,0.94
7299.00,0.94
7298.00,0.94
7297.00,0.94
7296.00,0.94
7295.00,0.94
7294.00,0.94
7293.00,0.94
7292.00,0.94
7291.00,0.94
7290.00,0.94
7289.00,0.94
7288.00,0.94
7287.00,0.94
7286.00,0.94
7285.00,0.94
7284.00,0.94
7283.00,0.94
7282.00,0.94
7281.00,0.94
7280.00,0.94
7279.00,0.94
7278.00,0.94
7277.00,0.94
7276.00,0.93
7275.00,0.93
7274.00,0.93
7273.00,0.93
7272.00,0.93
7271.00,0.93
7270.00,0.92
7269.00,0.92
7268.00,0.92
7267.00,0.92
7266.00,0.92
7265.00,0.92
7264.00,0.92
7263.00,0.91
7262.00,0.91
7261.00,0.91
7260.00,0.91
7259.00,0.91
7258.00,0.91
7257.00,0.91
7256.00,0.91
7255.00,0.91
7254.00,0.90
7253.00,0.90
7252.00,0.90
7251.00,0.90
7250.00,0.90
7249.00,0.90
7248.00,0.90
7247.00,0.89
7246.00,0.89
7245.00,0.89
7244.00,0.89
7243.00,0.89
7242.00,0.89
7241.00,0.88
7240.00,0.88
7239.00,0.88
7238.00,0.88
7237.00,0.88
7236.00,0.88
7235.00,0.87
7234.00,0.87
7233.00,0.87
7232.00,0.87
7231.00,0.86
7230.00,0.86
7229.00,0.86
7228.00,0.86
7227.00,0.85
7226.00,0.85
7225.00,0.85
7224.00,0.84
7223.00,0.84
7222.00,0.84
7221.00,0.83
7220.00,0.83
7219.00,0.83
7218.00,0.82
7217.00,0.82
7216.00,0.82
7215.00,0.81
7214.00,0.81
7213.00,0.81
7212.00,0.80
7211.00,0.80
7210.00,0.80
7209.00,0.79
7208.00,0.79
7207.00,0.79
7206.00,0.78
7205.00,0.78
7204.00,0.78
7203.00,0.77
7202.00,0.77
7201.00,0.77
7200.00,0.77
7199.00,0.76
7198.00,0.76
7197.00,0.76
7196.00,0.76
7195.00,0.75
7194.00,0.75
7193.00,0.75
7192.00,0.75
7191.00,0.75
7190.00,0.74
7189.00,0.74
7188.00,0.74
7187.00,0.74
7186.00,0.74
7185.00,0.74
7184.00,0.73
7183.00,0.73
7182.00,0.73
7181.00,0.73
7180.00,0.72
7179.00,0.72
7178.00,0.72
7177.00,0.72
7176.00,0.71
7175.00,0.71
7174.00,0.71
7173.00,0.71
7172.00,0.70
7171.00,0.70
7170.00,0.70
7169.00,0.70
7168.00,0.69
7167.00,0.69
7166.00,0.69
7165.00,0.69
7164.00,0.68
7163.00,0.68
7162.00,0.68
7161.00,0.68
7160.00,0.67
7159.00,0.67
7158.00,0.67
7157.00,0.67
7156.00,0.66
7155.00,0.66
7154.00,0.66
7153.00,0.66
7152.00,0.66
7151.00,0.65
7150.00,0.65
7149.00,0.65
7148.00,0.65
7147.00,0.64
7146.00,0.64
7145.00,0.64
7144.00,0.63
7143.00,0.63
7142.00,0.63
7141.00,0.63
7140.00,0.63
7139.00,0.63
7138.00,0.62
7137.00,0.62
7136.00,0.62
7135.00,0.62
7134.00,0.62
7133.00,0.62
7132.00,0.62
7131.00,0.62
7130.00,0.62
7129.00,0.62
7128.00,0.61
7127.00,0.61
7126.00,0.61
7125.00,0.61
7124.00,0.61
7123.00,0.61
7122.00,0.60
7121.00,0.60
7120.00,0.60
7119.00,0.60
7118.00,0.60
7117.00,0.59
7116.00,0.59
7115.00,0.59
7114.00,0.59
7113.00,0.58
7112.00,0.58
7111.00,0.58
7110.00,0.58
7109.00,0.57
7108.00,0.57
7107.00,0.57
7106.00,0.57
7105.00,0.56
7104.00,0.56
7103.00,0.56
7102.00,0.56
7101.00,0.56
7100.00,0.55
7099.00,0.55
7098.00,0.55
7097.00,0.55
7096.00,0.55
7095.00,0.55
7094.00,0.54
7093.00,0.54
7092.00,0.54
7091.00,0.54
7090.00,0.54
7089.00,0.54
7088.00,0.54
7087.00,0.54
7086.00,0.54
7085.00,0.54
7084.00,0.54
7083.00,0.54
7082.00,0.53
7081.00,0.53
7080.00,0.53
7079.00,0.53
7078.00,0.53
7077.00,0.53
7076.00,0.53
7075.00,0.53
7074.00,0.52
7073.00,0.52
7072.00,0.52
7071.00,0.52
7070.00,0.52
7069.00,0.52
7068.00,0.52
7067.00,0.52
7066.00,0.52
7065.00,0.52
7064.00,0.52
7063.00,0.52
7062.00,0.52
7061.00,0.52
7060.00,0.51
7059.00,0.51
7058.00,0.51
7057.00,0.51
7056.00,0.51
7055.00,0.51
7054.00,0.51
7053.00,0.51
7052.00,0.51
7051.00,0.51
7050.00,0.51
7049.00,0.51
7048.00,0.51
7047.00,0.50
7046.00,0.50
7045.00,0.50
7044.00,0.50
7043.00,0.50
7042.00,0.50
7041.00,0.50
7040.00,0.50
7039.00,0.50
7038.00,0.50
7037.00,0.49
7036.00,0.49
7035.00,0.49
7034.00,0.49
7033.00,0.49
7032.00,0.49
7031.00,0.49
7030.00,0.49
7029.00,0.49
7028.00,0.49
7027.00,0.49
7026.00,0.49
7025.00,0.49
7024.00,0.49
7023.00,0.49
7022.00,0.49
7021.00,0.49
7020.00,0.49
7019.00,0.49
7018.00,0.49
7017.00,0.49
7016.00,0.49
7015.00,0.49
7014.00,0.49
7013.00,0.49
7012.00,0.49
7011.00,0.49
7010.00,0.48
7009.00,0.48
7008.00,0.48
7007.00,0.48
7006.00,0.48
7005.00,0.48
7004.00,0.48
7003.00,0.48
7002.00,0.48
7001.00,0.48
7000.00,0.48
6999.00,0.48
6998.00,0.48
6997.00,0.48
6996.00,0.47
6995.00,0.47
6994.00,0.47
6993.00,0.47
6992.00,0.47
6991.00,0.47
6990.00,0.47
6989.00,0.47
6988.00,0.47
6987.00,0.46
6986.00,0.46
6985.00,0.46
6984.00,0.46
6983.00,0.46
6982.00,0.46
6981.00,0.46
6980.00,0.46
6979.00,0.46
6978.00,0.46
6977.00,0.47
6976.00,0.47
6975.00,0.47
6974.00,0.47
6973.00,0.47
6972.00,0.46
6971.00,0.46
6970.00,0.46
6969.00,0.46
6968.00,0.46
6967.00,0.46
6966.00,0.46
6965.00,0.46
6964.00,0.46
6963.00,0.46
6962.00,0.46
6961.00,0.46
6960.00,0.46
6959.00,0.46
6958.00,0.46
6957.00,0.46
6956.00,0.46
6955.00,0.46
6954.00,0.46
6953.00,0.46
6952.00,0.46
6951.00,0.46
6950.00,0.46
6949.00,0.46
6948.00,0.46
6947.00,0.46
6946.00,0.46
6945.00,0.46
6944.00,0.46
6943.00,0.46
6942.00,0.46
6941.00,0.46
6940.00,0.46
6939.00,0.45
6938.00,0.45
6937.00,0.45
6936.00,0.45
6935.00,0.45
6934.00,0.45
6933.00,0.45
6932.00,0.45
6931.00,0.45
6930.00,0.45
6929.00,0.45
6928.00,0.45
6927.00,0.45
6926.00,0.45
6925.00,0.45
6924.00,0.45
6923.00,0.45
6922.00,0.45
6921.00,0.45
6920.00,0.45
6919.00,0.45
6918.00,0.45
6917.00,0.45
6916.00,0.45
6915.00,0.45
6914.00,0.45
6913.00,0.45
6912.00,0.45
6911.00,0.45
6910.00,0.45
6909.00,0.45
6908.00,0.45
6907.00,0.45
6906.00,0.45
6905.00,0.45
6904.00,0.45
6903.00,0.45
6902.00,0.45
6901.00,0.45
6900.00,0.45
6899.00,0.45
6898.00,0.45
6897.00,0.45
6896.00,0.45
6895.00,0.45
6894.00,0.45
6893.00,0.45
6892.00,0.45
6891.00,0.45
6890.00,0.45
6889.00,0.45
6888.00,0.45
6887.00,0.45
6886.00,0.45
6885.00,0.45
6884.00,0.45
6883.00,0.45
6882.00,0.45
6881.00,0.45
6880.00,0.45
6879.00,0.45
6878.00,0.45
6877.00,0.45
6876.00,0.45
6875.00,0.45
6874.00,0.45
6873.00,0.45
6872.00,0.45
6871.00,0.45
6870.00,0.45
6869.00,0.45
6868.00,0.45
6867.00,0.45
6866.00,0.45
6865.00,0.45
6864.00,0.46
6863.00,0.46
6862.00,0.46
6861.00,0.46
6860.00,0.46
6859.00,0.46
6858.00,0.46
6857.00,0.46
6856.00,0.46
6855.00,0.46
6854.00,0.46
6853.00,0.46
6852.00,0.46
6851.00,0.46
6850.00,0.46
6849.00,0.46
6848.00,0.46
6847.00,0.46
6846.00,0.46
6845.00,0.46
6844.00,0.46
6843.00,0.46
6842.00,0.46
6841.00,0.46
6840.00,0.46
6839.00,0.46
6838.00,0.46
6837.00,0.46
6836.00,0.46
6835.00,0.46
6834.00,0.46
6833.00,0.46
6832.00,0.46
6831.00,0.46
6830.00,0.46
6829.00,0.46
6828.00,0.46
6827.00,0.46
6826.00,0.46
6825.00,0.46
6824.00,0.46
6823.00,0.46
6822.00,0.46
6821.00,0.46
6820.00,0.46
6819.00,0.46
6818.00,0.46
6817.00,0.46
6816.00,0.46
6815.00,0.46
6814.00,0.46
6813.00,0.46
6812.00,0.46
6811.00,0.46
6810.00,0.46
6809.00,0.46
6808.00,0.46
6807.00,0.47
6806.00,0.47
6805.00,0.47
6804.00,0.47
6803.00,0.47
6802.00,0.47
6801.00,0.47
6800.00,0.47
6799.00,0.47
6798.00,0.47
6797.00,0.47
6796.00,0.47
6795.00,0.47
6794.00,0.47
6793.00,0.47
6792.00,0.47
6791.00,0.47
6790.00,0.47
6789.00,0.47
6788.00,0.47
6787.00,0.47
6786.00,0.47
6785.00,0.47
6784.00,0.47
6783.00,0.48
6782.00,0.48
6781.00,0.48
6780.00,0.48
6779.00,0.48
6778.00,0.48
6777.00,0.48
6776.00,0.48
6775.00,0.48
6774.00,0.48
6773.00,0.48
6772.00,0.48
6771.00,0.48
6770.00,0.48
6769.00,0.48
6768.00,0.48
6767.00,0.48
6766.00,0.48
6765.00,0.48
6764.00,0.49
6763.00,0.49
6762.00,0.49
6761.00,0.49
6760.00,0.49
6759.00,0.49
6758.00,0.49
6757.00,0.49
6756.00,0.49
6755.00,0.49
6754.00,0.49
6753.00,0.49
6752.00,0.49
6751.00,0.49
6750.00,0.49
6749.00,0.49
6748.00,0.49
6747.00,0.49
6746.00,0.49
6745.00,0.49
6744.00,0.49
6743.00,0.49
6742.00,0.49
6741.00,0.49
6740.00,0.49
6739.00,0.49
6738.00,0.50
6737.00,0.50
6736.00,0.50
6735.00,0.50
6734.00,0.50
6733.00,0.50
6732.00,0.50
6731.00,0.50
6730.00,0.50
6729.00,0.50
6728.00,0.50
6727.00,0.50
6726.00,0.50
6725.00,0.50
6724.00,0.50
6723.00,0.50
6722.00,0.50
6721.00,0.50
6720.00,0.50
6719.00,0.50
6718.00,0.50
6717.00,0.50
6716.00,0.50
6715.00,0.50
6714.00,0.50
6713.00,0.50
6712.00,0.50
6711.00,0.50
6710.00,0.50
6709.00,0.50
6708.00,0.51
6707.00,0.51
6706.00,0.51
6705.00,0.51
6704.00,0.51
6703.00,0.51
6702.00,0.51
6701.00,0.51
6700.00,0.51
6699.00,0.51
6698.00,0.51
6697.00,0.52
6696.00,0.52
6695.00,0.52
6694.00,0.52
6693.00,0.52
6692.00,0.52
6691.00,0.52
6690.00,0.52
6689.00,0.52
6688.00,0.52
6687.00,0.52
6686.00,0.52
6685.00,0.52
6684.00,0.52
6683.00,0.52
6682.00,0.52
6681.00,0.52
6680.00,0.52
6679.00,0.52
6678.00,0.52
6677.00,0.52
6676.00,0.53
6675.00,0.53
6674.00,0.53
6673.00,0.53
6672.00,0.53
6671.00,0.53
6670.00,0.53
6669.00,0.53
6668.00,0.53
6667.00,0.53
6666.00,0.53
6665.00,0.53
6664.00,0.53
6663.00,0.54
6662.00,0.54
6661.00,0.54
6660.00,0.54
6659.00,0.54
6658.00,0.54
6657.00,0.54
6656.00,0.54
6655.00,0.54
6654.00,0.54
6653.00,0.54
6652.00,0.54
6651.00,0.54
6650.00,0.54
6649.00,0.54
6648.00,0.54
6647.00,0.54
6646.00,0.54
6645.00,0.54
6644.00,0.54
6643.00,0.54
6642.00,0.54
6641.00,0.54
6640.00,0.55
6639.00,0.55
6638.00,0.55
6637.00,0.55
6636.00,0.55
6635.00,0.55
6634.00,0.55
6633.00,0.55
6632.00,0.55
6631.00,0.55
6630.00,0.55
6629.00,0.55
6628.00,0.55
6627.00,0.55
6626.00,0.55
6625.00,0.56
6624.00,0.56
6623.00,0.56
6622.00,0.56
6621.00,0.56
6620.00,0.56
6619.00,0.56
6618.00,0.56
6617.00,0.56
6616.00,0.56
6615.00,0.56
6614.00,0.56
6613.00,0.56
6612.00,0.56
6611.00,0.57
6610.00,0.57
6609.00,0.57
6608.00,0.57
6607.00,0.57
6606.00,0.57
6605.00,0.57
6604.00,0.57
6603.00,0.57
6602.00,0.57
6601.00,0.57
6600.00,0.57
6599.00,0.57
6598.00,0.57
6597.00,0.57
6596.00,0.57
6595.00,0.58
6594.00,0.58
6593.00,0.58
6592.00,0.58
6591.00,0.58
6590.00,0.58
6589.00,0.58
6588.00,0.58
6587.00,0.58
6586.00,0.58
6585.00,0.59
6584.00,0.59
6583.00,0.59
6582.00,0.59
6581.00,0.59
6580.00,0.59
6579.00,0.59
6578.00,0.59
6577.00,0.59
6576.00,0.59
6575.00,0.59
6574.00,0.59
6573.00,0.59
6572.00,0.60
6571.00,0.60
6570.00,0.60
6569.00,0.60
6568.00,0.60
6567.00,0.60
6566.00,0.60
6565.00,0.60
6564.00,0.60
6563.00,0.60
6562.00,0.60
6561.00,0.60
6560.00,0.60
6559.00,0.61
6558.00,0.61
6557.00,0.61
6556.00,0.61
6555.00,0.61
6554.00,0.61
6553.00,0.61
6552.00,0.61
6551.00,0.61
6550.00,0.61
6549.00,0.62
6548.00,0.62
6547.00,0.62
6546.00,0.62
6545.00,0.62
6544.00,0.62
6543.00,0.62
6542.00,0.62
6541.00,0.62
6540.00,0.62
6539.00,0.62
6538.00,0.62
6537.00,0.62
6536.00,0.62
6535.00,0.62
6534.00,0.63
6533.00,0.63
6532.00,0.63
6531.00,0.63
6530.00,0.63
6529.00,0.63
6528.00,0.63
6527.00,0.63
6526.00,0.63
6525.00,0.63
6524.00,0.63
6523.00,0.63
6522.00,0.63
6521.00,0.63
6520.00,0.63
6519.00,0.63
6518.00,0.63
6517.00,0.64
6516.00,0.64
6515.00,0.64
6514.00,0.64
6513.00,0.64
6512.00,0.64
6511.00,0.64
6510.00,0.64
6509.00,0.64
6508.00,0.64
6507.00,0.64
6506.00,0.64
6505.00,0.64
6504.00,0.64
6503.00,0.65
6502.00,0.65
6501.00,0.65
6500.00,0.65
6499.00,0.65
6498.00,0.65
6497.00,0.65
6496.00,0.65
6495.00,0.65
6494.00,0.65
6493.00,0.65
6492.00,0.65
6491.00,0.65
6490.00,0.65
6489.00,0.65
6488.00,0.65
6487.00,0.65
6486.00,0.65
6485.00,0.65
6484.00,0.65
6483.00,0.65
6482.00,0.66
6481.00,0.66
6480.00,0.66
6479.00,0.66
6478.00,0.66
6477.00,0.66
6476.00,0.66
6475.00,0.66
6474.00,0.66
6473.00,0.66
6472.00,0.66
6471.00,0.66
6470.00,0.66
6469.00,0.66
6468.00,0.66
6467.00,0.66
6466.00,0.66
6465.00,0.66
6464.00,0.66
6463.00,0.66
6462.00,0.66
6461.00,0.66
6460.00,0.66
6459.00,0.66
6458.00,0.66
6457.00,0.66
6456.00,0.66
6455.00,0.66
6454.00,0.66
6453.00,0.66
6452.00,0.66
6451.00,0.66
6450.00,0.66
6449.00,0.66
6448.00,0.66
6447.00,0.66
6446.00,0.66
6445.00,0.66
6444.00,0.67
6443.00,0.67
6442.00,0.67
6441.00,0.67
6440.00,0.67
6439.00,0.67
6438.00,0.67
6437.00,0.67
6436.00,0.67
6435.00,0.67
6434.00,0.67
6433.00,0.67
6432.00,0.68
6431.00,0.68
6430.00,0.68
6429.00,0.68
6428.00,0.68
6427.00,0.68
6426.00,0.68
6425.00,0.68
6424.00,0.68
6423.00,0.68
6422.00,0.68
6421.00,0.68
6420.00,0.68
6419.00,0.68
6418.00,0.68
6417.00,0.68
6416.00,0.69
6415.00,0.69
6414.00,0.69
6413.00,0.69
6412.00,0.69
6411.00,0.69
6410.00,0.69
6409.00,0.69
6408.00,0.69
6407.00,0.69
6406.00,0.69
6405.00,0.69
6404.00,0.69
6403.00,0.69
6402.00,0.69
6401.00,0.69
6400.00,0.69
6399.00,0.69
6398.00,0.69
6397.00,0.69
6396.00,0.69
6395.00,0.69
6394.00,0.69
6393.00,0.69
6392.00,0.69
6391.00,0.69
6390.00,0.70
6389.00,0.70
6388.00,0.70
6387.00,0.70
6386.00,0.70
6385.00,0.70
6384.00,0.70
6383.00,0.70
6382.00,0.70
6381.00,0.70
6380.00,0.70
6379.00,0.70
6378.00,0.70
6377.00,0.70
6376.00,0.70
6375.00,0.71
6374.00,0.71
6373.00,0.71
6372.00,0.71
6371.00,0.71
6370.00,0.71
6369.00,0.71
6368.00,0.71
6367.00,0.71
6366.00,0.71
6365.00,0.71
6364.00,0.71
6363.00,0.72
6362.00,0.72
6361.00,0.72
6360.00,0.72
6359.00,0.72
6358.00,0.72
6357.00,0.72
6356.00,0.72
6355.00,0.72
6354.00,0.72
6353.00,0.72
6352.00,0.72
6351.00,0.72
6350.00,0.72
6349.00,0.72
6348.00,0.72
6347.00,0.72
6346.00,0.72
6345.00,0.72
6344.00,0.72
6343.00,0.72
6342.00,0.72
6341.00,0.72
6340.00,0.72
6339.00,0.72
6338.00,0.72
6337.00,0.72
6336.00,0.72
6335.00,0.72
6334.00,0.72
6333.00,0.73
6332.00,0.73
6331.00,0.73
6330.00,0.73
6329.00,0.73
6328.00,0.73
6327.00,0.73
6326.00,0.73
6325.00,0.73
6324.00,0.73
6323.00,0.73
6322.00,0.73
6321.00,0.74
6320.00,0.74
6319.00,0.74
6318.00,0.74
6317.00,0.74
6316.00,0.74
6315.00,0.74
6314.00,0.74
6313.00,0.74
6312.00,0.74
6311.00,0.75
6310.00,0.75
6309.00,0.75
6308.00,0.75
6307.00,0.75
6306.00,0.75
6305.00,0.75
6304.00,0.75
6303.00,0.75
6302.00,0.75
6301.00,0.76
6300.00,0.76
6299.00,0.76
6298.00,0.76
6297.00,0.76
6296.00,0.76
6295.00,0.76
6294.00,0.76
6293.00,0.76
6292.00,0.77
6291.00,0.77
6290.00,0.77
6289.00,0.77
6288.00,0.77
6287.00,0.77
6286.00,0.77
6285.00,0.77
6284.00,0.77
6283.00,0.78
6282.00,0.78
6281.00,0.78
6280.00,0.78
6279.00,0.78
6278.00,0.78
6277.00,0.78
6276.00,0.78
6275.00,0.78
6274.00,0.78
6273.00,0.78
6272.00,0.78
6271.00,0.79
6270.00,0.79
6269.00,0.79
6268.00,0.79
6267.00,0.79
6266.00,0.79
6265.00,0.79
6264.00,0.79
6263.00,0.79
6262.00,0.79
6261.00,0.79
6260.00,0.79
6259.00,0.79
6258.00,0.79
6257.00,0.79
6256.00,0.79
6255.00,0.79
6254.00,0.79
6253.00,0.79
6252.00,0.79
6251.00,0.80
6250.00,0.80
6249.00,0.80
6248.00,0.80
6247.00,0.80
6246.00,0.80
6245.00,0.80
6244.00,0.80
6243.00,0.80
6242.00,0.81
6241.00,0.81
6240.00,0.81
6239.00,0.81
6238.00,0.81
6237.00,0.81
6236.00,0.81
6235.00,0.81
6234.00,0.82
6233.00,0.82
6232.00,0.82
6231.00,0.82
6230.00,0.82
6229.00,0.82
6228.00,0.82
6227.00,0.82
6226.00,0.82
6225.00,0.82
6224.00,0.83
6223.00,0.83
6222.00,0.83
6221.00,0.83
6220.00,0.83
6219.00,0.83
6218.00,0.83
6217.00,0.83
6216.00,0.83
6215.00,0.83
6214.00,0.83
6213.00,0.84
6212.00,0.84
6211.00,0.84
6210.00,0.84
6209.00,0.84
6208.00,0.84
6207.00,0.84
6206.00,0.84
6205.00,0.84
6204.00,0.85
6203.00,0.85
6202.00,0.85
6201.00,0.85
6200.00,0.85
6199.00,0.85
6198.00,0.85
6197.00,0.85
6196.00,0.85
6195.00,0.85
6194.00,0.85
6193.00,0.86
6192.00,0.86
6191.00,0.86
6190.00,0.86
6189.00,0.86
6188.00,0.86
6187.00,0.86
6186.00,0.86
6185.00,0.86
6184.00,0.86
6183.00,0.86
6182.00,0.87
6181.00,0.87
6180.00,0.87
6179.00,0.87
6178.00,0.87
6177.00,0.87
6176.00,0.87
6175.00,0.87
6174.00,0.88
6173.00,0.88
6172.00,0.88
6171.00,0.88
6170.00,0.88
6169.00,0.88
6168.00,0.88
6167.00,0.88
6166.00,0.89
6165.00,0.89
6164.00,0.89
6163.00,0.89
6162.00,0.89
6161.00,0.89
6160.00,0.89
6159.00,0.89
6158.00,0.89
6157.00,0.89
6156.00,0.89
6155.00,0.89
6154.00,0.90
6153.00,0.90
6152.00,0.90
6151.00,0.90
6150.00,0.90
6149.00,0.90
6148.00,0.90
6147.00,0.90
6146.00,0.90
6145.00,0.90
6144.00,0.90
6143.00,0.91
6142.00,0.91
6141.00,0.91
6140.00,0.91
6139.00,0.91
6138.00,0.91
6137.00,0.91
6136.00,0.92
6135.00,0.92
6134.00,0.92
6133.00,0.92
6132.00,0.92
6131.00,0.92
6130.00,0.92
6129.00,0.92
6128.00,0.93
6127.00,0.93
6126.00,0.93
6125.00,0.93
6124.00,0.93
6123.00,0.93
6122.00,0.93
6121.00,0.93
6120.00,0.94
6119.00,0.94
6118.00,0.94
6117.00,0.94
6116.00,0.94
6115.00,0.94
6114.00,0.94
6113.00,0.94
6112.00,0.95
6111.00,0.95
6110.00,0.95
6109.00,0.95
6108.00,0.95
6107.00,0.95
6106.00,0.95
6105.00,0.95
6104.00,0.96
6103.00,0.96
6102.00,0.96
6101.00,0.96
6100.00,0.96
6099.00,0.96
6098.00,0.96
6097.00,0.96
6096.00,0.97
6095.00,0.97
6094.00,0.97
6093.00,0.97
6092.00,0.97
6091.00,0.97
6090.00,0.97
6089.00,0.97
6088.00,0.98
6087.00,0.98
6086.00,0.98
6085.00,0.98
6084.00,0.98
6083.00,0.98
6082.00,0.98
6081.00,0.98
6080.00,0.98
6079.00,0.99
6078.00,0.99
6077.00,0.99
6076.00,0.99
6075.00,0.99
6074.00,0.99
6073.00,0.99
6072.00,0.99
6071.00,0.99
6070.00,0.99
6069.00,1.00
6068.00,1.00
6067.00,1.00
6066.00,1.00
6065.00,1.00
6064.00,1.00
6063.00,1.00
6062.00,1.00
6061.00,1.00
6060.00,1.00
6059.00,1.00
6058.00,1.00
6057.00,1.01
6056.00,1.01
6055.00,1.01
6054.00,1.01
6053.00,1.01
6052.00,1.01
6051.00,1.01
6050.00,1.01
6049.00,1.01
6048.00,1.01
6047.00,1.01
6046.00,1.01
6045.00,1.01
6044.00,1.01
6043.00,1.02
6042.00,1.02
6041.00,1.02
6040.00,1.02
6039.00,1.02
6038.00,1.02
6037.00,1.02
6036.00,1.02
6035.00,1.02
6034.00,1.02
6033.00,1.02
6032.00,1.02
6031.00,1.02
6030.00,1.02
6029.00,1.02
6028.00,1.02
6027.00,1.02
6026.00,1.02
6025.00,1.02
6024.00,1.02
6023.00,1.02
6022.00,1.02
6021.00,1.02
6020.00,1.02
6019.00,1.02
6018.00,1.02
6017.00,1.02
6016.00,1.02
6015.00,1.02
6014.00,1.02
6013.00,1.02
6012.00,1.02
6011.00,1.02
6010.00,1.02
6009.00,1.02
6008.00,1.02
6007.00,1.03
6006.00,1.03
6005.00,1.03
6004.00,1.03
6003.00,1.03
6002.00,1.03
6001.00,1.03
6000.00,1.03
5999.00,1.03
5998.00,1.02
5997.00,1.02
5996.00,1.02
5995.00,1.02
5994.00,1.02
5993.00,1.02
5992.00,1.02
5991.00,1.01
5990.00,1.01
5989.00,1.01
5988.00,1.01
5987.00,1.01
5986.00,1.00
5985.00,1.00
5984.00,1.00
5983.00,0.99
5982.00,0.99
5981.00,0.99
5980.00,0.98
5979.00,0.98
5978.00,0.98
5977.00,0.97
5976.00,0.97
5975.00,0.97
5974.00,0.96
5973.00,0.96
5972.00,0.96
5971.00,0.95
5970.00,0.95
5969.00,0.94
5968.00,0.94
5967.00,0.93
5966.00,0.93
5965.00,0.92
5964.00,0.92
5963.00,0.91
5962.00,0.91
5961.00,0.90
5960.00,0.90
5959.00,0.89
5958.00,0.89
5957.00,0.88
5956.00,0.87
5955.00,0.87
5954.00,0.86
5953.00,0.86
5952.00,0.85
5951.00,0.85
5950.00,0.85
5949.00,0.84
5948.00,0.84
5947.00,0.83
5946.00,0.83
5945.00,0.83
5944.00,0.83
5943.00,0.82
5942.00,0.82
5941.00,0.82
5940.00,0.82
5939.00,0.82
5938.00,0.82
5937.00,0.82
5936.00,0.82
5935.00,0.82
5934.00,0.81
5933.00,0.81
5932.00,0.81
5931.00,0.81
5930.00,0.81
5929.00,0.81
5928.00,0.81
5927.00,0.81
5926.00,0.81
5925.00,0.80
5924.00,0.80
5923.00,0.80
5922.00,0.80
5921.00,0.80
5920.00,0.79
5919.00,0.79
5918.00,0.79
5917.00,0.79
5916.00,0.78
5915.00,0.78
5914.00,0.78
5913.00,0.78
5912.00,0.78
5911.00,0.77
5910.00,0.77
5909.00,0.77
5908.00,0.77
5907.00,0.77
5906.00,0.77
5905.00,0.77
5904.00,0.77
5903.00,0.77
5902.00,0.77
5901.00,0.77
5900.00,0.77
5899.00,0.77
5898.00,0.77
5897.00,0.77
5896.00,0.77
5895.00,0.77
5894.00,0.77
5893.00,0.77
5892.00,0.77
5891.00,0.77
5890.00,0.78
5889.00,0.78
5888.00,0.78
5887.00,0.78
5886.00,0.78
5885.00,0.79
5884.00,0.79
5883.00,0.79
5882.00,0.79
5881.00,0.80
5880.00,0.80
5879.00,0.80
5878.00,0.80
5877.00,0.80
5876.00,0.81
5875.00,0.81
5874.00,0.81
5873.00,0.81
5872.00,0.82
5871.00,0.82
5870.00,0.82
5869.00,0.82
5868.00,0.83
5867.00,0.83
5866.00,0.83
5865.00,0.83
5864.00,0.83
5863.00,0.84
5862.00,0.84
5861.00,0.84
5860.00,0.84
5859.00,0.84
5858.00,0.84
5857.00,0.84
5856.00,0.84
5855.00,0.85
5854.00,0.85
5853.00,0.85
5852.00,0.85
5851.00,0.85
5850.00,0.85
5849.00,0.85
5848.00,0.85
5847.00,0.85
5846.00,0.85
5845.00,0.85
5844.00,0.85
5843.00,0.85
5842.00,0.85
5841.00,0.85
5840.00,0.85
5839.00,0.85
5838.00,0.85
5837.00,0.85
5836.00,0.85
5835.00,0.85
5834.00,0.85
5833.00,0.85
5832.00,0.85
5831.00,0.85
5830.00,0.85
5829.00,0.85
5828.00,0.85
5827.00,0.85
5826.00,0.85
5825.00,0.85
5824.00,0.85
5823.00,0.85
5822.00,0.85
5821.00,0.85
5820.00,0.85
5819.00,0.85
5818.00,0.85
5817.00,0.85
5816.00,0.86
5815.00,0.86
5814.00,0.86
5813.00,0.85
5812.00,0.85
5811.00,0.85
5810.00,0.85
5809.00,0.85
5808.00,0.85
5807.00,0.85
5806.00,0.85
5805.00,0.85
5804.00,0.85
5803.00,0.85
5802.00,0.85
5801.00,0.85
5800.00,0.84
5799.00,0.84
5798.00,0.84
5797.00,0.84
5796.00,0.84
5795.00,0.84
5794.00,0.84
5793.00,0.83
5792.00,0.83
5791.00,0.83
5790.00,0.83
5789.00,0.83
5788.00,0.83
5787.00,0.82
5786.00,0.82
5785.00,0.82
5784.00,0.82
5783.00,0.82
5782.00,0.82
5781.00,0.82
5780.00,0.81
5779.00,0.81
5778.00,0.81
5777.00,0.81
5776.00,0.81
5775.00,0.81
5774.00,0.81
5773.00,0.81
5772.00,0.81
5771.00,0.81
5770.00,0.81
5769.00,0.82
5768.00,0.82
5767.00,0.82
5766.00,0.82
5765.00,0.82
5764.00,0.82
5763.00,0.82
5762.00,0.83
5761.00,0.83
5760.00,0.83
5759.00,0.83
5758.00,0.83
5757.00,0.83
5756.00,0.84
5755.00,0.84
5754.00,0.84
5753.00,0.84
5752.00,0.85
5751.00,0.85
5750.00,0.85
5749.00,0.85
5748.00,0.86
5747.00,0.86
5746.00,0.86
5745.00,0.86
5744.00,0.87
5743.00,0.87
5742.00,0.87
5741.00,0.87
5740.00,0.88
5739.00,0.88
5738.00,0.88
5737.00,0.88
5736.00,0.88
5735.00,0.88
5734.00,0.89
5733.00,0.89
5732.00,0.89
5731.00,0.89
5730.00,0.89
5729.00,0.89
5728.00,0.89
5727.00,0.89
5726.00,0.89
5725.00,0.89
5724.00,0.89
5723.00,0.89
5722.00,0.89
5721.00,0.90
5720.00,0.90
5719.00,0.90
5718.00,0.90
5717.00,0.90
5716.00,0.90
5715.00,0.90
5714.00,0.90
5713.00,0.90
5712.00,0.90
5711.00,0.90
5710.00,0.90
5709.00,0.90
5708.00,0.90
5707.00,0.90
5706.00,0.89
5705.00,0.89
5704.00,0.89
5703.00,0.89
5702.00,0.89
5701.00,0.89
5700.00,0.89
5699.00,0.89
5698.00,0.89
5697.00,0.89
5696.00,0.88
5695.00,0.88
5694.00,0.88
5693.00,0.88
5692.00,0.88
5691.00,0.88
5690.00,0.88
5689.00,0.88
5688.00,0.88
5687.00,0.88
5686.00,0.88
5685.00,0.87
5684.00,0.87
5683.00,0.87
5682.00,0.87
5681.00,0.87
5680.00,0.87
5679.00,0.87
5678.00,0.87
5677.00,0.87
5676.00,0.87
5675.00,0.87
5674.00,0.87
5673.00,0.87
5672.00,0.87
5671.00,0.87
5670.00,0.87
5669.00,0.87
5668.00,0.87
5667.00,0.87
5666.00,0.87
5665.00,0.87
5664.00,0.87
5663.00,0.87
5662.00,0.87
5661.00,0.88
5660.00,0.88
5659.00,0.88
5658.00,0.88
5657.00,0.88
5656.00,0.88
5655.00,0.89
5654.00,0.89
5653.00,0.89
5652.00,0.89
5651.00,0.89
5650.00,0.89
5649.00,0.89
5648.00,0.90
5647.00,0.90
5646.00,0.90
5645.00,0.90
5644.00,0.90
5643.00,0.90
5642.00,0.90
5641.00,0.91
5640.00,0.91
5639.00,0.91
5638.00,0.91
5637.00,0.91
5636.00,0.91
5635.00,0.91
5634.00,0.92
5633.00,0.92
5632.00,0.92
5631.00,0.92
5630.00,0.92
5629.00,0.92
5628.00,0.92
5627.00,0.92
5626.00,0.92
5625.00,0.92
5624.00,0.93
5623.00,0.93
5622.00,0.93
5621.00,0.93
5620.00,0.93
5619.00,0.93
5618.00,0.93
5617.00,0.93
5616.00,0.93
5615.00,0.94
5614.00,0.94
5613.00,0.94
5612.00,0.94
5611.00,0.94
5610.00,0.94
5609.00,0.94
5608.00,0.94
5607.00,0.95
5606.00,0.95
5605.00,0.95
5604.00,0.95
5603.00,0.95
5602.00,0.95
5601.00,0.95
5600.00,0.95
5599.00,0.96
5598.00,0.96
5597.00,0.96
5596.00,0.96
5595.00,0.96
5594.00,0.96
5593.00,0.96
5592.00,0.96
5591.00,0.97
5590.00,0.97
5589.00,0.97
5588.00,0.97
5587.00,0.97
5586.00,0.97
5585.00,0.97
5584.00,0.98
5583.00,0.98
5582.00,0.98
5581.00,0.98
5580.00,0.98
5579.00,0.98
5578.00,0.98
5577.00,0.99
5576.00,0.99
5575.00,0.99
5574.00,0.99
5573.00,0.99
5572.00,0.99
5571.00,0.99
5570.00,0.99
5569.00,1.00
5568.00,1.00
5567.00,1.00
5566.00,1.00
5565.00,1.00
5564.00,1.00
5563.00,1.00
5562.00,1.00
5561.00,1.00
5560.00,1.00
5559.00,1.00
5558.00,1.00
5557.00,1.01
5556.00,1.01
5555.00,1.01
5554.00,1.01
5553.00,1.01
5552.00,1.01
5551.00,1.01
5550.00,1.01
5549.00,1.01
5548.00,1.01
5547.00,1.01
5546.00,1.02
5545.00,1.02
5544.00,1.02
5543.00,1.02
5542.00,1.02
5541.00,1.02
5540.00,1.02
5539.00,1.03
5538.00,1.03
5537.00,1.03
5536.00,1.03
5535.00,1.03
5534.00,1.03
5533.00,1.03
5532.00,1.03
5531.00,1.03
5530.00,1.04
5529.00,1.04
5528.00,1.04
5527.00,1.04
5526.00,1.04
5525.00,1.04
5524.00,1.04
5523.00,1.04
5522.00,1.04
5521.00,1.04
5520.00,1.04
5519.00,1.04
5518.00,1.04
5517.00,1.04
5516.00,1.04
5515.00,1.04
5514.00,1.04
5513.00,1.04
5512.00,1.04
5511.00,1.04
5510.00,1.05
5509.00,1.05
5508.00,1.05
5507.00,1.05
5506.00,1.05
5505.00,1.05
5504.00,1.05
5503.00,1.05
5502.00,1.05
5501.00,1.05
5500.00,1.05
5499.00,1.05
5498.00,1.05
5497.00,1.05
5496.00,1.05
5495.00,1.05
5494.00,1.05
5493.00,1.05
5492.00,1.05
5491.00,1.06
5490.00,1.06
5489.00,1.06
5488.00,1.06
5487.00,1.06
5486.00,1.06
5485.00,1.06
5484.00,1.06
5483.00,1.06
5482.00,1.07
5481.00,1.07
5480.00,1.07
5479.00,1.07
5478.00,1.07
5477.00,1.07
5476.00,1.07
5475.00,1.07
5474.00,1.07
5473.00,1.07
5472.00,1.07
5471.00,1.07
5470.00,1.07
5469.00,1.07
5468.00,1.07
5467.00,1.07
5466.00,1.08
5465.00,1.08
5464.00,1.08
5463.00,1.08
5462.00,1.08
5461.00,1.08
5460.00,1.08
5459.00,1.08
5458.00,1.08
5457.00,1.08
5456.00,1.08
5455.00,1.08
5454.00,1.08
5453.00,1.08
5452.00,1.08
5451.00,1.08
5450.00,1.08
5449.00,1.08
5448.00,1.08
5447.00,1.08
5446.00,1.08
5445.00,1.08
5444.00,1.08
5443.00,1.08
5442.00,1.08
5441.00,1.08
5440.00,1.08
5439.00,1.08
5438.00,1.08
5437.00,1.08
5436.00,1.08
5435.00,1.08
5434.00,1.08
5433.00,1.08
5432.00,1.08
5431.00,1.08
5430.00,1.09
5429.00,1.09
5428.00,1.09
5427.00,1.09
5426.00,1.09
5425.00,1.09
5424.00,1.09
5423.00,1.09
5422.00,1.09
5421.00,1.09
5420.00,1.09
5419.00,1.09
5418.00,1.09
5417.00,1.09
5416.00,1.09
5415.00,1.09
5414.00,1.09
5413.00,1.09
5412.00,1.09
5411.00,1.09
5410.00,1.09
5409.00,1.09
5408.00,1.09
5407.00,1.09
5406.00,1.09
5405.00,1.09
5404.00,1.09
5403.00,1.09
5402.00,1.09
5401.00,1.09
5400.00,1.09
5399.00,1.09
5398.00,1.09
5397.00,1.08
5396.00,1.08
5395.00,1.08
5394.00,1.08
5393.00,1.08
5392.00,1.08
5391.00,1.08
5390.00,1.07
5389.00,1.07
5388.00,1.07
5387.00,1.07
5386.00,1.07
5385.00,1.06
5384.00,1.06
5383.00,1.06
5382.00,1.06
5381.00,1.06
5380.00,1.05
5379.00,1.05
5378.00,1.05
5377.00,1.04
5376.00,1.04
5375.00,1.04
5374.00,1.04
5373.00,1.03
5372.00,1.03
5371.00,1.03
5370.00,1.02
5369.00,1.02
5368.00,1.01
5367.00,1.01
5366.00,1.01
5365.00,1.00
5364.00,1.00
5363.00,0.99
5362.00,0.99
5361.00,0.98
5360.00,0.98
5359.00,0.97
5358.00,0.96
5357.00,0.96
5356.00,0.95
5355.00,0.94
5354.00,0.94
5353.00,0.93
5352.00,0.92
5351.00,0.92
5350.00,0.91
5349.00,0.90
5348.00,0.89
5347.00,0.89
5346.00,0.88
5345.00,0.87
5344.00,0.86
5343.00,0.86
5342.00,0.85
5341.00,0.84
5340.00,0.83
5339.00,0.83
5338.00,0.82
5337.00,0.81
5336.00,0.81
5335.00,0.80
5334.00,0.79
5333.00,0.78
5332.00,0.78
5331.00,0.77
5330.00,0.76
5329.00,0.76
5328.00,0.75
5327.00,0.74
5326.00,0.73
5325.00,0.73
5324.00,0.72
5323.00,0.71
5322.00,0.71
5321.00,0.70
5320.00,0.69
5319.00,0.69
5318.00,0.68
5317.00,0.67
5316.00,0.67
5315.00,0.66
5314.00,0.66
5313.00,0.65
5312.00,0.64
5311.00,0.64
5310.00,0.64
5309.00,0.63
5308.00,0.63
5307.00,0.62
5306.00,0.62
5305.00,0.62
5304.00,0.61
5303.00,0.61
5302.00,0.61
5301.00,0.60
5300.00,0.60
5299.00,0.60
5298.00,0.59
5297.00,0.59
5296.00,0.59
5295.00,0.59
5294.00,0.58
5293.00,0.58
5292.00,0.58
5291.00,0.58
5290.00,0.58
5289.00,0.57
5288.00,0.57
5287.00,0.57
5286.00,0.57
5285.00,0.57
5284.00,0.57
5283.00,0.56
5282.00,0.56
5281.00,0.56
5280.00,0.56
5279.00,0.56
5278.00,0.56
5277.00,0.56
5276.00,0.56
5275.00,0.56
5274.00,0.56
5273.00,0.55
5272.00,0.55
5271.00,0.55
5270.00,0.55
5269.00,0.55
5268.00,0.55
5267.00,0.55
5266.00,0.55
5265.00,0.55
5264.00,0.55
5263.00,0.55
5262.00,0.55
5261.00,0.55
5260.00,0.55
5259.00,0.55
5258.00,0.55
5257.00,0.55
5256.00,0.55
5255.00,0.55
5254.00,0.55
5253.00,0.55
5252.00,0.55
5251.00,0.55
5250.00,0.55
5249.00,0.55
5248.00,0.55
5247.00,0.55
5246.00,0.55
5245.00,0.55
5244.00,0.55
5243.00,0.55
5242.00,0.55
5241.00,0.55
5240.00,0.55
5239.00,0.55
5238.00,0.55
5237.00,0.55
5236.00,0.55
5235.00,0.55
5234.00,0.55
5233.00,0.56
5232.00,0.56
5231.00,0.56
5230.00,0.56
5229.00,0.56
5228.00,0.56
5227.00,0.56
5226.00,0.56
5225.00,0.56
5224.00,0.56
5223.00,0.56
5222.00,0.56
5221.00,0.56
5220.00,0.56
5219.00,0.56
5218.00,0.56
5217.00,0.56
5216.00,0.56
5215.00,0.56
5214.00,0.56
5213.00,0.56
5212.00,0.56
5211.00,0.56
5210.00,0.56
5209.00,0.56
5208.00,0.57
5207.00,0.57
5206.00,0.57
5205.00,0.57
5204.00,0.57
5203.00,0.57
5202.00,0.57
5201.00,0.57
5200.00,0.57
5199.00,0.57
5198.00,0.57
5197.00,0.57
5196.00,0.57
5195.00,0.57
5194.00,0.57
5193.00,0.57
5192.00,0.57
5191.00,0.57
5190.00,0.57
5189.00,0.57
5188.00,0.57
5187.00,0.57
5186.00,0.57
5185.00,0.57
5184.00,0.57
5183.00,0.57
5182.00,0.58
5181.00,0.58
5180.00,0.58
5179.00,0.58
5178.00,0.58
5177.00,0.58
5176.00,0.58
5175.00,0.58
5174.00,0.58
5173.00,0.58
5172.00,0.58
5171.00,0.58
5170.00,0.58
5169.00,0.58
5168.00,0.58
5167.00,0.58
5166.00,0.58
5165.00,0.58
5164.00,0.58
5163.00,0.58
5162.00,0.58
5161.00,0.58
5160.00,0.58
5159.00,0.58
5158.00,0.58
5157.00,0.58
5156.00,0.58
5155.00,0.58
5154.00,0.58
5153.00,0.59
5152.00,0.59
5151.00,0.59
5150.00,0.59
5149.00,0.59
5148.00,0.59
5147.00,0.59
5146.00,0.59
5145.00,0.59
5144.00,0.59
5143.00,0.59
5142.00,0.59
5141.00,0.59
5140.00,0.59
5139.00,0.59
5138.00,0.59
5137.00,0.59
5136.00,0.59
5135.00,0.59
5134.00,0.59
5133.00,0.59
5132.00,0.59
5131.00,0.59
5130.00,0.60
5129.00,0.60
5128.00,0.60
5127.00,0.60
5126.00,0.60
5125.00,0.60
5124.00,0.60
5123.00,0.60
5122.00,0.60
5121.00,0.60
5120.00,0.60
5119.00,0.60
5118.00,0.60
5117.00,0.60
5116.00,0.60
5115.00,0.60
5114.00,0.60
5113.00,0.60
5112.00,0.60
5111.00,0.60
5110.00,0.60
5109.00,0.60
5108.00,0.60
5107.00,0.60
5106.00,0.60
5105.00,0.60
5104.00,0.60
5103.00,0.60
5102.00,0.60
5101.00,0.61
5100.00,0.61
5099.00,0.61
5098.00,0.61
5097.00,0.61
5096.00,0.61
5095.00,0.61
5094.00,0.61
5093.00,0.61
5092.00,0.61
5091.00,0.61
5090.00,0.61
5089.00,0.61
5088.00,0.61
5087.00,0.61
5086.00,0.61
5085.00,0.61
5084.00,0.61
5083.00,0.61
5082.00,0.61
5081.00,0.61
5080.00,0.61
5079.00,0.61
5078.00,0.61
5077.00,0.61
5076.00,0.61
5075.00,0.61
5074.00,0.62
5073.00,0.62
5072.00,0.62
5071.00,0.62
5070.00,0.62
5069.00,0.62
5068.00,0.62
5067.00,0.62
5066.00,0.62
5065.00,0.62
5064.00,0.62
5063.00,0.62
5062.00,0.62
5061.00,0.62
5060.00,0.62
5059.00,0.62
5058.00,0.62
5057.00,0.62
5056.00,0.62
5055.00,0.62
5054.00,0.62
5053.00,0.62
5052.00,0.62
5051.00,0.62
5050.00,0.62
5049.00,0.62
5048.00,0.62
5047.00,0.62
5046.00,0.62
5045.00,0.62
5044.00,0.62
5043.00,0.62
5042.00,0.62
5041.00,0.62
5040.00,0.62
5039.00,0.62
5038.00,0.62
5037.00,0.62
5036.00,0.63
5035.00,0.63
5034.00,0.63
5033.00,0.63
5032.00,0.63
5031.00,0.63
5030.00,0.63
5029.00,0.63
5028.00,0.63
5027.00,0.63
5026.00,0.63
5025.00,0.63
5024.00,0.63
5023.00,0.64
5022.00,0.64
5021.00,0.64
5020.00,0.64
5019.00,0.64
5018.00,0.64
5017.00,0.64
5016.00,0.64
5015.00,0.64
5014.00,0.64
5013.00,0.64
5012.00,0.64
5011.00,0.64
5010.00,0.64
5009.00,0.64
5008.00,0.64
5007.00,0.65
5006.00,0.65
5005.00,0.65
5004.00,0.65
5003.00,0.65
5002.00,0.65
5001.00,0.65
5000.00,0.65
4999.00,0.65
4998.00,0.65
4997.00,0.66
4996.00,0.66
4995.00,0.66
4994.00,0.66
4993.00,0.66
4992.00,0.66
4991.00,0.66
4990.00,0.66
4989.00,0.66
4988.00,0.66
4987.00,0.66
4986.00,0.66
4985.00,0.66
4984.00,0.66
4983.00,0.66
4982.00,0.66
4981.00,0.66
4980.00,0.66
4979.00,0.66
4978.00,0.66
4977.00,0.66
4976.00,0.66
4975.00,0.66
4974.00,0.66
4973.00,0.66
4972.00,0.66
4971.00,0.67
4970.00,0.67
4969.00,0.67
4968.00,0.67
4967.00,0.67
4966.00,0.67
4965.00,0.67
4964.00,0.67
4963.00,0.67
4962.00,0.67
4961.00,0.67
4960.00,0.67
4959.00,0.67
4958.00,0.67
4957.00,0.67
4956.00,0.68
4955.00,0.68
4954.00,0.68
4953.00,0.68
4952.00,0.68
4951.00,0.68
4950.00,0.68
4949.00,0.68
4948.00,0.68
4947.00,0.68
4946.00,0.68
4945.00,0.68
4944.00,0.68
4943.00,0.68
4942.00,0.68
4941.00,0.68
4940.00,0.68
4939.00,0.68
4938.00,0.68
4937.00,0.68
4936.00,0.68
4935.00,0.68
4934.00,0.68
4933.00,0.68
4932.00,0.68
4931.00,0.69
4930.00,0.69
4929.00,0.69
4928.00,0.69
4927.00,0.69
4926.00,0.69
4925.00,0.69
4924.00,0.69
4923.00,0.69
4922.00,0.69
4921.00,0.69
4920.00,0.69
4919.00,0.70
4918.00,0.70
4917.00,0.70
4916.00,0.70
4915.00,0.70
4914.00,0.70
4913.00,0.70
4912.00,0.70
4911.00,0.70
4910.00,0.70
4909.00,0.70
4908.00,0.70
4907.00,0.70
4906.00,0.70
4905.00,0.70
4904.00,0.70
4903.00,0.70
4902.00,0.70
4901.00,0.71
4900.00,0.71
4899.00,0.71
4898.00,0.71
4897.00,0.71
4896.00,0.71
4895.00,0.71
4894.00,0.71
4893.00,0.71
4892.00,0.71
4891.00,0.71
4890.00,0.71
4889.00,0.71
4888.00,0.71
4887.00,0.71
4886.00,0.71
4885.00,0.71
4884.00,0.71
4883.00,0.71
4882.00,0.71
4881.00,0.71
4880.00,0.71
4879.00,0.72
4878.00,0.72
4877.00,0.72
4876.00,0.72
4875.00,0.72
4874.00,0.72
4873.00,0.72
4872.00,0.72
4871.00,0.72
4870.00,0.72
4869.00,0.72
4868.00,0.72
4867.00,0.72
4866.00,0.72
4865.00,0.72
4864.00,0.72
4863.00,0.72
4862.00,0.72
4861.00,0.72
4860.00,0.72
4859.00,0.72
4858.00,0.72
4857.00,0.72
4856.00,0.72
4855.00,0.73
4854.00,0.73
4853.00,0.73
4852.00,0.73
4851.00,0.73
4850.00,0.73
4849.00,0.73
4848.00,0.73
4847.00,0.73
4846.00,0.73
4845.00,0.73
4844.00,0.73
4843.00,0.73
4842.00,0.73
4841.00,0.73
4840.00,0.73
4839.00,0.73
4838.00,0.73
4837.00,0.73
4836.00,0.73
4835.00,0.73
4834.00,0.73
4833.00,0.73
4832.00,0.73
4831.00,0.73
4830.00,0.73
4829.00,0.73
4828.00,0.73
4827.00,0.73
4826.00,0.73
4825.00,0.74
4824.00,0.74
4823.00,0.74
4822.00,0.74
4821.00,0.74
4820.00,0.74
4819.00,0.74
4818.00,0.74
4817.00,0.74
4816.00,0.74
4815.00,0.74
4814.00,0.74
4813.00,0.74
4812.00,0.74
4811.00,0.74
4810.00,0.74
4809.00,0.74
4808.00,0.74
4807.00,0.74
4806.00,0.74
4805.00,0.74
4804.00,0.75
4803.00,0.75
4802.00,0.75
4801.00,0.75
4800.00,0.75
4799.00,0.75
4798.00,0.75
4797.00,0.75
4796.00,0.76
4795.00,0.76
4794.00,0.76
4793.00,0.76
4792.00,0.76
4791.00,0.76
4790.00,0.76
4789.00,0.76
4788.00,0.76
4787.00,0.76
4786.00,0.77
4785.00,0.77
4784.00,0.77
4783.00,0.77
4782.00,0.77
4781.00,0.77
4780.00,0.77
4779.00,0.77
4778.00,0.77
4777.00,0.77
4776.00,0.77
4775.00,0.77
4774.00,0.78
4773.00,0.78
4772.00,0.78
4771.00,0.78
4770.00,0.78
4769.00,0.78
4768.00,0.78
4767.00,0.78
4766.00,0.78
4765.00,0.78
4764.00,0.78
4763.00,0.79
4762.00,0.79
4761.00,0.79
4760.00,0.79
4759.00,0.79
4758.00,0.79
4757.00,0.79
4756.00,0.79
4755.00,0.79
4754.00,0.79
4753.00,0.79
4752.00,0.80
4751.00,0.80
4750.00,0.80
4749.00,0.80
4748.00,0.80
4747.00,0.80
4746.00,0.80
4745.00,0.80
4744.00,0.80
4743.00,0.80
4742.00,0.80
4741.00,0.81
4740.00,0.81
4739.00,0.81
4738.00,0.81
4737.00,0.81
4736.00,0.81
4735.00,0.81
4734.00,0.81
4733.00,0.81
4732.00,0.81
4731.00,0.81
4730.00,0.81
4729.00,0.81
4728.00,0.82
4727.00,0.82
4726.00,0.82
4725.00,0.82
4724.00,0.82
4723.00,0.82
4722.00,0.82
4721.00,0.82
4720.00,0.82
4719.00,0.83
4718.00,0.83
4717.00,0.83
4716.00,0.83
4715.00,0.83
4714.00,0.83
4713.00,0.84
4712.00,0.84
4711.00,0.84
4710.00,0.84
4709.00,0.84
4708.00,0.84
4707.00,0.84
4706.00,0.85
4705.00,0.85
4704.00,0.85
4703.00,0.85
4702.00,0.85
4701.00,0.85
4700.00,0.85
4699.00,0.85
4698.00,0.85
4697.00,0.85
4696.00,0.85
4695.00,0.85
4694.00,0.85
4693.00,0.86
4692.00,0.86
4691.00,0.86
4690.00,0.86
4689.00,0.86
4688.00,0.86
4687.00,0.86
4686.00,0.86
4685.00,0.86
4684.00,0.86
4683.00,0.86
4682.00,0.86
4681.00,0.86
4680.00,0.86
4679.00,0.86
4678.00,0.86
4677.00,0.86
4676.00,0.86
4675.00,0.86
4674.00,0.86
4673.00,0.87
4672.00,0.87
4671.00,0.87
4670.00,0.87
4669.00,0.87
4668.00,0.87
4667.00,0.87
4666.00,0.87
4665.00,0.88
4664.00,0.88
4663.00,0.88
4662.00,0.88
4661.00,0.88
4660.00,0.88
4659.00,0.88
4658.00,0.89
4657.00,0.89
4656.00,0.89
4655.00,0.89
4654.00,0.89
4653.00,0.89
4652.00,0.89
4651.00,0.90
4650.00,0.90
4649.00,0.90
4648.00,0.90
4647.00,0.90
4646.00,0.90
4645.00,0.90
4644.00,0.90
4643.00,0.90
4642.00,0.90
4641.00,0.90
4640.00,0.91
4639.00,0.91
4638.00,0.91
4637.00,0.91
4636.00,0.91
4635.00,0.91
4634.00,0.91
4633.00,0.91
4632.00,0.91
4631.00,0.91
4630.00,0.91
4629.00,0.91
4628.00,0.91
4627.00,0.91
4626.00,0.91
4625.00,0.91
4624.00,0.91
4623.00,0.91
4622.00,0.91
4621.00,0.91
4620.00,0.91
4619.00,0.91
4618.00,0.92
4617.00,0.92
4616.00,0.92
4615.00,0.92
4614.00,0.92
4613.00,0.92
4612.00,0.92
4611.00,0.92
4610.00,0.92
4609.00,0.92
4608.00,0.92
4607.00,0.92
4606.00,0.92
4605.00,0.92
4604.00,0.92
4603.00,0.93
4602.00,0.93
4601.00,0.93
4600.00,0.93
4599.00,0.93
4598.00,0.93
4597.00,0.93
4596.00,0.93
4595.00,0.93
4594.00,0.93
4593.00,0.93
4592.00,0.93
4591.00,0.93
4590.00,0.93
4589.00,0.93
4588.00,0.93
4587.00,0.93
4586.00,0.93
4585.00,0.93
4584.00,0.93
4583.00,0.93
4582.00,0.93
4581.00,0.93
4580.00,0.93
4579.00,0.93
4578.00,0.93
4577.00,0.94
4576.00,0.94
4575.00,0.94
4574.00,0.94
4573.00,0.94
4572.00,0.94
4571.00,0.94
4570.00,0.94
4569.00,0.94
4568.00,0.94
4567.00,0.94
4566.00,0.94
4565.00,0.94
4564.00,0.94
4563.00,0.95
4562.00,0.95
4561.00,0.95
4560.00,0.95
4559.00,0.95
4558.00,0.95
4557.00,0.95
4556.00,0.95
4555.00,0.95
4554.00,0.95
4553.00,0.95
4552.00,0.95
4551.00,0.95
4550.00,0.95
4549.00,0.95
4548.00,0.95
4547.00,0.95
4546.00,0.95
4545.00,0.95
4544.00,0.96
4543.00,0.96
4542.00,0.96
4541.00,0.96
4540.00,0.96
4539.00,0.96
4538.00,0.96
4537.00,0.96
4536.00,0.96
4535.00,0.96
4534.00,0.96
4533.00,0.96
4532.00,0.96
4531.00,0.96
4530.00,0.96
4529.00,0.96
4528.00,0.96
4527.00,0.96
4526.00,0.96
4525.00,0.96
4524.00,0.96
4523.00,0.96
4522.00,0.96
4521.00,0.96
4520.00,0.96
4519.00,0.96
4518.00,0.97
4517.00,0.97
4516.00,0.97
4515.00,0.97
4514.00,0.97
4513.00,0.97
4512.00,0.97
4511.00,0.97
4510.00,0.97
4509.00,0.97
4508.00,0.97
4507.00,0.97
4506.00,0.97
4505.00,0.97
4504.00,0.97
4503.00,0.97
4502.00,0.97
4501.00,0.97
4500.00,0.97
4499.00,0.97
4498.00,0.97
4497.00,0.96
4496.00,0.96
4495.00,0.96
4494.00,0.96
4493.00,0.96
4492.00,0.96
4491.00,0.96
4490.00,0.96
4489.00,0.96
4488.00,0.96
4487.00,0.96
4486.00,0.96
4485.00,0.96
4484.00,0.96
4483.00,0.96
4482.00,0.96
4481.00,0.96
4480.00,0.96
4479.00,0.96
4478.00,0.96
4477.00,0.96
4476.00,0.96
4475.00,0.96
4474.00,0.95
4473.00,0.95
4472.00,0.95
4471.00,0.95
4470.00,0.95
4469.00,0.95
4468.00,0.95
4467.00,0.95
4466.00,0.95
4465.00,0.94
4464.00,0.94
4463.00,0.94
4462.00,0.94
4461.00,0.94
4460.00,0.93
4459.00,0.93
4458.00,0.93
4457.00,0.93
4456.00,0.93
4455.00,0.92
4454.00,0.92
4453.00,0.92
4452.00,0.92
4451.00,0.91
4450.00,0.91
4449.00,0.91
4448.00,0.91
4447.00,0.91
4446.00,0.90
4445.00,0.90
4444.00,0.90
4443.00,0.90
4442.00,0.90
4441.00,0.90
4440.00,0.89
4439.00,0.89
4438.00,0.89
4437.00,0.89
4436.00,0.89
4435.00,0.89
4434.00,0.89
4433.00,0.89
4432.00,0.88
4431.00,0.88
4430.00,0.88
4429.00,0.88
4428.00,0.88
4427.00,0.88
4426.00,0.88
4425.00,0.88
4424.00,0.88
4423.00,0.88
4422.00,0.87
4421.00,0.87
4420.00,0.87
4419.00,0.87
4418.00,0.87
4417.00,0.87
4416.00,0.87
4415.00,0.87
4414.00,0.87
4413.00,0.87
4412.00,0.87
4411.00,0.88
4410.00,0.88
4409.00,0.88
4408.00,0.88
4407.00,0.88
4406.00,0.88
4405.00,0.88
4404.00,0.88
4403.00,0.88
4402.00,0.88
4401.00,0.88
4400.00,0.89
4399.00,0.89
4398.00,0.89
4397.00,0.89
4396.00,0.89
4395.00,0.89
4394.00,0.89
4393.00,0.89
4392.00,0.89
4391.00,0.89
4390.00,0.89
4389.00,0.90
4388.00,0.90
4387.00,0.90
4386.00,0.90
4385.00,0.90
4384.00,0.90
4383.00,0.90
4382.00,0.90
4381.00,0.90
4380.00,0.90
4379.00,0.90
4378.00,0.90
4377.00,0.90
4376.00,0.90
4375.00,0.90
4374.00,0.90
4373.00,0.90
4372.00,0.90
4371.00,0.90
4370.00,0.90
4369.00,0.90
4368.00,0.90
4367.00,0.90
4366.00,0.90
4365.00,0.90
4364.00,0.90
4363.00,0.90
4362.00,0.90
4361.00,0.90
4360.00,0.90
4359.00,0.90
4358.00,0.90
4357.00,0.90
4356.00,0.90
4355.00,0.90
4354.00,0.90
4353.00,0.90
4352.00,0.90
4351.00,0.90
4350.00,0.90
4349.00,0.90
4348.00,0.90
4347.00,0.90
4346.00,0.90
4345.00,0.90
4344.00,0.91
4343.00,0.91
4342.00,0.91
4341.00,0.91
4340.00,0.91
4339.00,0.91
4338.00,0.91
4337.00,0.91
4336.00,0.91
4335.00,0.91
4334.00,0.91
4333.00,0.91
4332.00,0.91
4331.00,0.91
4330.00,0.91
4329.00,0.91
4328.00,0.91
4327.00,0.91
4326.00,0.91
4325.00,0.91
4324.00,0.91
4323.00,0.92
4322.00,0.92
4321.00,0.92
4320.00,0.92
4319.00,0.92
4318.00,0.92
4317.00,0.92
4316.00,0.92
4315.00,0.92
4314.00,0.93
4313.00,0.93
4312.00,0.93
4311.00,0.93
4310.00,0.93
4309.00,0.93
4308.00,0.93
4307.00,0.93
4306.00,0.93
4305.00,0.93
4304.00,0.93
4303.00,0.93
4302.00,0.93
4301.00,0.93
4300.00,0.93
4299.00,0.93
4298.00,0.93
4297.00,0.93
4296.00,0.93
4295.00,0.93
4294.00,0.93
4293.00,0.93
4292.00,0.94
4291.00,0.94
4290.00,0.94
4289.00,0.94
4288.00,0.94
4287.00,0.94
4286.00,0.94
4285.00,0.94
4284.00,0.94
4283.00,0.95
4282.00,0.95
4281.00,0.95
4280.00,0.95
4279.00,0.95
4278.00,0.96
4277.00,0.96
4276.00,0.96
4275.00,0.96
4274.00,0.96
4273.00,0.96
4272.00,0.96
4271.00,0.96
4270.00,0.96
4269.00,0.96
4268.00,0.96
4267.00,0.96
4266.00,0.96
4265.00,0.96
4264.00,0.96
4263.00,0.96
4262.00,0.96
4261.00,0.96
4260.00,0.96
4259.00,0.96
4258.00,0.96
4257.00,0.96
4256.00,0.96
4255.00,0.96
4254.00,0.96
4253.00,0.96
4252.00,0.96
4251.00,0.96
4250.00,0.97
4249.00,0.97
4248.00,0.97
4247.00,0.97
4246.00,0.97
4245.00,0.97
4244.00,0.97
4243.00,0.97
4242.00,0.97
4241.00,0.97
4240.00,0.97
4239.00,0.97
4238.00,0.97
4237.00,0.97
4236.00,0.98
4235.00,0.98
4234.00,0.98
4233.00,0.98
4232.00,0.98
4231.00,0.98
4230.00,0.98
4229.00,0.98
4228.00,0.98
4227.00,0.98
4226.00,0.98
4225.00,0.98
4224.00,0.98
4223.00,0.98
4222.00,0.98
4221.00,0.98
4220.00,0.98
4219.00,0.98
4218.00,0.99
4217.00,0.99
4216.00,0.99
4215.00,0.99
4214.00,0.99
4213.00,0.99
4212.00,0.99
4211.00,0.99
4210.00,1.00
4209.00,1.00
4208.00,1.00
4207.00,1.00
4206.00,1.00
4205.00,1.00
4204.00,1.00
4203.00,1.00
4202.00,1.00
4201.00,1.00
4200.00,1.01
4199.00,1.01
4198.00,1.01
4197.00,1.01
4196.00,1.01
4195.00,1.01
4194.00,1.01
4193.00,1.00
4192.00,1.00
4191.00,1.00
4190.00,1.00
4189.00,1.00
4188.00,1.00
4187.00,1.00
4186.00,1.00
4185.00,1.00
4184.00,1.00
4183.00,1.00
4182.00,1.00
4181.00,1.00
4180.00,1.00
4179.00,1.00
4178.00,1.00
4177.00,1.00
4176.00,1.01
4175.00,1.01
4174.00,1.01
4173.00,1.01
4172.00,1.01
4171.00,1.01
4170.00,1.01
4169.00,1.01
4168.00,1.01
4167.00,1.01
4166.00,1.01
4165.00,1.01
4164.00,1.01
4163.00,1.01
4162.00,1.01
4161.00,1.01
4160.00,1.01
4159.00,1.01
4158.00,1.01
4157.00,1.01
4156.00,1.01
4155.00,1.01
4154.00,1.02
4153.00,1.02
4152.00,1.02
4151.00,1.02
4150.00,1.02
4149.00,1.02
4148.00,1.02
4147.00,1.02
4146.00,1.02
4145.00,1.02
4144.00,1.02
4143.00,1.02
4142.00,1.02
4141.00,1.02
4140.00,1.02
4139.00,1.02
4138.00,1.02
4137.00,1.02
4136.00,1.02
4135.00,1.02
4134.00,1.02
4133.00,1.02
4132.00,1.02
4131.00,1.02
4130.00,1.02
4129.00,1.02
4128.00,1.02
4127.00,1.02
4126.00,1.02
4125.00,1.02
4124.00,1.02
4123.00,1.02
4122.00,1.02
4121.00,1.02
4120.00,1.02
4119.00,1.02
4118.00,1.02
4117.00,1.02
4116.00,1.02
4115.00,1.03
4114.00,1.03
4113.00,1.03
4112.00,1.03
4111.00,1.03
4110.00,1.03
4109.00,1.03
4108.00,1.03
4107.00,1.03
4106.00,1.03
4105.00,1.03
4104.00,1.03
4103.00,1.04
4102.00,1.04
4101.00,1.04
4100.00,1.04
4099.00,1.04
4098.00,1.04
4097.00,1.04
4096.00,1.03
4095.00,1.03
4094.00,1.03
4093.00,1.03
4092.00,1.03
4091.00,1.03
4090.00,1.03
4089.00,1.03
4088.00,1.03
4087.00,1.03
4086.00,1.03
4085.00,1.03
4084.00,1.03
4083.00,1.04
4082.00,1.04
4081.00,1.04
4080.00,1.04
4079.00,1.04
4078.00,1.04
4077.00,1.05
4076.00,1.05
4075.00,1.05
4074.00,1.05
4073.00,1.05
4072.00,1.05
4071.00,1.06
4070.00,1.06
4069.00,1.06
4068.00,1.06
4067.00,1.06
4066.00,1.06
4065.00,1.06
4064.00,1.06
4063.00,1.07
4062.00,1.07
4061.00,1.07
4060.00,1.07
4059.00,1.07
4058.00,1.07
4057.00,1.07
4056.00,1.07
4055.00,1.07
4054.00,1.07
4053.00,1.07
4052.00,1.07
4051.00,1.08
4050.00,1.08
4049.00,1.08
4048.00,1.08
4047.00,1.08
4046.00,1.08
4045.00,1.07
4044.00,1.07
4043.00,1.07
4042.00,1.07
4041.00,1.07
4040.00,1.07
4039.00,1.07
4038.00,1.07
4037.00,1.07
4036.00,1.07
4035.00,1.07
4034.00,1.07
4033.00,1.07
4032.00,1.07
4031.00,1.07
4030.00,1.07
4029.00,1.07
4028.00,1.07
4027.00,1.07
4026.00,1.07
4025.00,1.07
4024.00,1.07
4023.00,1.08
4022.00,1.08
4021.00,1.08
4020.00,1.08
4019.00,1.08
4018.00,1.08
4017.00,1.08
4016.00,1.08
4015.00,1.08
4014.00,1.08
4013.00,1.08
4012.00,1.08
4011.00,1.09
4010.00,1.09
4009.00,1.09
4008.00,1.09
4007.00,1.09
4006.00,1.09
4005.00,1.09
4004.00,1.09
4003.00,1.09
4002.00,1.09
4001.00,1.09
4000.00,1.09
