创建为新数据集,样品 754 用户 Administrator 日期 星期五, 七月 20 2018
cm-1,%T
10000.00,1.06
9999.00,1.06
9998.00,1.06
9997.00,1.06
9996.00,1.06
9995.00,1.05
9994.00,1.05
9993.00,1.05
9992.00,1.05
9991.00,1.05
9990.00,1.05
9989.00,1.04
9988.00,1.04
9987.00,1.04
9986.00,1.04
9985.00,1.04
9984.00,1.04
9983.00,1.04
9982.00,1.04
9981.00,1.04
9980.00,1.04
9979.00,1.04
9978.00,1.04
9977.00,1.04
9976.00,1.04
9975.00,1.04
9974.00,1.04
9973.00,1.04
9972.00,1.04
9971.00,1.04
9970.00,1.04
9969.00,1.04
9968.00,1.04
9967.00,1.04
9966.00,1.04
9965.00,1.04
9964.00,1.04
9963.00,1.04
9962.00,1.04
9961.00,1.04
9960.00,1.04
9959.00,1.04
9958.00,1.04
9957.00,1.04
9956.00,1.04
9955.00,1.04
9954.00,1.04
9953.00,1.04
9952.00,1.04
9951.00,1.04
9950.00,1.03
9949.00,1.03
9948.00,1.03
9947.00,1.03
9946.00,1.03
9945.00,1.02
9944.00,1.02
9943.00,1.02
9942.00,1.02
9941.00,1.02
9940.00,1.02
9939.00,1.03
9938.00,1.03
9937.00,1.03
9936.00,1.03
9935.00,1.03
9934.00,1.04
9933.00,1.04
9932.00,1.04
9931.00,1.05
9930.00,1.05
9929.00,1.05
9928.00,1.05
9927.00,1.06
9926.00,1.06
9925.00,1.06
9924.00,1.06
9923.00,1.06
9922.00,1.06
9921.00,1.06
9920.00,1.06
9919.00,1.06
9918.00,1.05
9917.00,1.05
9916.00,1.05
9915.00,1.05
9914.00,1.05
9913.00,1.05
9912.00,1.04
9911.00,1.04
9910.00,1.04
9909.00,1.04
9908.00,1.04
9907.00,1.04
9906.00,1.03
9905.00,1.03
9904.00,1.03
9903.00,1.03
9902.00,1.03
9901.00,1.03
9900.00,1.02
9899.00,1.02
9898.00,1.02
9897.00,1.02
9896.00,1.01
9895.00,1.01
9894.00,1.01
9893.00,1.01
9892.00,1.01
9891.00,1.01
9890.00,1.00
9889.00,1.00
9888.00,1.00
9887.00,1.00
9886.00,1.00
9885.00,1.00
9884.00,1.01
9883.00,1.01
9882.00,1.01
9881.00,1.01
9880.00,1.01
9879.00,1.01
9878.00,1.01
9877.00,1.02
9876.00,1.02
9875.00,1.02
9874.00,1.02
9873.00,1.02
9872.00,1.03
9871.00,1.03
9870.00,1.03
9869.00,1.03
9868.00,1.03
9867.00,1.03
9866.00,1.03
9865.00,1.04
9864.00,1.04
9863.00,1.04
9862.00,1.04
9861.00,1.04
9860.00,1.04
9859.00,1.04
9858.00,1.03
9857.00,1.03
9856.00,1.03
9855.00,1.03
9854.00,1.03
9853.00,1.03
9852.00,1.03
9851.00,1.03
9850.00,1.02
9849.00,1.02
9848.00,1.02
9847.00,1.02
9846.00,1.02
9845.00,1.02
9844.00,1.02
9843.00,1.02
9842.00,1.02
9841.00,1.01
9840.00,1.01
9839.00,1.01
9838.00,1.01
9837.00,1.01
9836.00,1.01
9835.00,1.01
9834.00,1.02
9833.00,1.02
9832.00,1.02
9831.00,1.02
9830.00,1.02
9829.00,1.02
9828.00,1.02
9827.00,1.02
9826.00,1.02
9825.00,1.02
9824.00,1.02
9823.00,1.02
9822.00,1.02
9821.00,1.01
9820.00,1.01
9819.00,1.01
9818.00,1.01
9817.00,1.01
9816.00,1.01
9815.00,1.01
9814.00,1.01
9813.00,1.01
9812.00,1.02
9811.00,1.02
9810.00,1.02
9809.00,1.02
9808.00,1.02
9807.00,1.02
9806.00,1.03
9805.00,1.03
9804.00,1.03
9803.00,1.04
9802.00,1.04
9801.00,1.04
9800.00,1.04
9799.00,1.04
9798.00,1.05
9797.00,1.05
9796.00,1.05
9795.00,1.05
9794.00,1.05
9793.00,1.05
9792.00,1.05
9791.00,1.05
9790.00,1.04
9789.00,1.04
9788.00,1.04
9787.00,1.04
9786.00,1.04
9785.00,1.04
9784.00,1.03
9783.00,1.03
9782.00,1.03
9781.00,1.03
9780.00,1.02
9779.00,1.02
9778.00,1.02
9777.00,1.02
9776.00,1.01
9775.00,1.01
9774.00,1.01
9773.00,1.01
9772.00,1.01
9771.00,1.01
9770.00,1.01
9769.00,1.01
9768.00,1.01
9767.00,1.01
9766.00,1.01
9765.00,1.01
9764.00,1.01
9763.00,1.01
9762.00,1.01
9761.00,1.01
9760.00,1.02
9759.00,1.02
9758.00,1.02
9757.00,1.02
9756.00,1.02
9755.00,1.02
9754.00,1.02
9753.00,1.02
9752.00,1.02
9751.00,1.02
9750.00,1.02
9749.00,1.02
9748.00,1.02
9747.00,1.02
9746.00,1.02
9745.00,1.02
9744.00,1.02
9743.00,1.02
9742.00,1.02
9741.00,1.01
9740.00,1.01
9739.00,1.01
9738.00,1.01
9737.00,1.01
9736.00,1.00
9735.00,1.00
9734.00,1.00
9733.00,1.00
9732.00,1.00
9731.00,1.00
9730.00,1.00
9729.00,1.00
9728.00,1.00
9727.00,1.00
9726.00,1.00
9725.00,1.00
9724.00,1.00
9723.00,1.00
9722.00,1.00
9721.00,1.00
9720.00,1.00
9719.00,1.00
9718.00,1.00
9717.00,1.00
9716.00,1.00
9715.00,1.00
9714.00,1.00
9713.00,1.00
9712.00,1.00
9711.00,1.00
9710.00,1.00
9709.00,1.00
9708.00,1.00
9707.00,1.00
9706.00,1.00
9705.00,1.01
9704.00,1.01
9703.00,1.01
9702.00,1.01
9701.00,1.01
9700.00,1.01
9699.00,1.01
9698.00,1.01
9697.00,1.01
9696.00,1.01
9695.00,1.02
9694.00,1.02
9693.00,1.02
9692.00,1.02
9691.00,1.03
9690.00,1.03
9689.00,1.03
9688.00,1.04
9687.00,1.04
9686.00,1.04
9685.00,1.05
9684.00,1.05
9683.00,1.05
9682.00,1.05
9681.00,1.05
9680.00,1.05
9679.00,1.05
9678.00,1.05
9677.00,1.05
9676.00,1.05
9675.00,1.05
9674.00,1.04
9673.00,1.04
9672.00,1.04
9671.00,1.04
9670.00,1.03
9669.00,1.03
9668.00,1.03
9667.00,1.03
9666.00,1.02
9665.00,1.02
9664.00,1.02
9663.00,1.02
9662.00,1.02
9661.00,1.02
9660.00,1.01
9659.00,1.01
9658.00,1.01
9657.00,1.01
9656.00,1.01
9655.00,1.01
9654.00,1.01
9653.00,1.01
9652.00,1.01
9651.00,1.01
9650.00,1.01
9649.00,1.01
9648.00,1.02
9647.00,1.02
9646.00,1.02
9645.00,1.02
9644.00,1.02
9643.00,1.02
9642.00,1.02
9641.00,1.02
9640.00,1.02
9639.00,1.02
9638.00,1.02
9637.00,1.02
9636.00,1.02
9635.00,1.02
9634.00,1.02
9633.00,1.02
9632.00,1.02
9631.00,1.02
9630.00,1.02
9629.00,1.02
9628.00,1.02
9627.00,1.02
9626.00,1.02
9625.00,1.03
9624.00,1.03
9623.00,1.03
9622.00,1.03
9621.00,1.03
9620.00,1.03
9619.00,1.03
9618.00,1.03
9617.00,1.03
9616.00,1.03
9615.00,1.03
9614.00,1.03
9613.00,1.03
9612.00,1.03
9611.00,1.03
9610.00,1.02
9609.00,1.02
9608.00,1.02
9607.00,1.02
9606.00,1.02
9605.00,1.03
9604.00,1.03
9603.00,1.03
9602.00,1.03
9601.00,1.03
9600.00,1.03
9599.00,1.03
9598.00,1.03
9597.00,1.03
9596.00,1.03
9595.00,1.03
9594.00,1.03
9593.00,1.03
9592.00,1.03
9591.00,1.03
9590.00,1.03
9589.00,1.03
9588.00,1.03
9587.00,1.03
9586.00,1.03
9585.00,1.03
9584.00,1.03
9583.00,1.03
9582.00,1.03
9581.00,1.03
9580.00,1.03
9579.00,1.03
9578.00,1.03
9577.00,1.04
9576.00,1.04
9575.00,1.04
9574.00,1.04
9573.00,1.04
9572.00,1.04
9571.00,1.04
9570.00,1.05
9569.00,1.05
9568.00,1.05
9567.00,1.05
9566.00,1.05
9565.00,1.05
9564.00,1.05
9563.00,1.05
9562.00,1.05
9561.00,1.05
9560.00,1.05
9559.00,1.05
9558.00,1.05
9557.00,1.05
9556.00,1.05
9555.00,1.05
9554.00,1.04
9553.00,1.04
9552.00,1.04
9551.00,1.04
9550.00,1.04
9549.00,1.04
9548.00,1.04
9547.00,1.03
9546.00,1.03
9545.00,1.03
9544.00,1.03
9543.00,1.03
9542.00,1.03
9541.00,1.03
9540.00,1.03
9539.00,1.04
9538.00,1.04
9537.00,1.04
9536.00,1.04
9535.00,1.04
9534.00,1.04
9533.00,1.05
9532.00,1.05
9531.00,1.05
9530.00,1.05
9529.00,1.05
9528.00,1.05
9527.00,1.05
9526.00,1.05
9525.00,1.06
9524.00,1.06
9523.00,1.06
9522.00,1.06
9521.00,1.06
9520.00,1.05
9519.00,1.05
9518.00,1.05
9517.00,1.05
9516.00,1.05
9515.00,1.05
9514.00,1.05
9513.00,1.05
9512.00,1.05
9511.00,1.05
9510.00,1.04
9509.00,1.04
9508.00,1.04
9507.00,1.04
9506.00,1.04
9505.00,1.04
9504.00,1.04
9503.00,1.04
9502.00,1.04
9501.00,1.04
9500.00,1.04
9499.00,1.04
9498.00,1.04
9497.00,1.04
9496.00,1.04
9495.00,1.04
9494.00,1.04
9493.00,1.04
9492.00,1.04
9491.00,1.04
9490.00,1.04
9489.00,1.04
9488.00,1.04
9487.00,1.04
9486.00,1.04
9485.00,1.04
9484.00,1.04
9483.00,1.04
9482.00,1.04
9481.00,1.04
9480.00,1.04
9479.00,1.04
9478.00,1.04
9477.00,1.05
9476.00,1.05
9475.00,1.05
9474.00,1.05
9473.00,1.05
9472.00,1.05
9471.00,1.05
9470.00,1.05
9469.00,1.05
9468.00,1.05
9467.00,1.04
9466.00,1.04
9465.00,1.04
9464.00,1.04
9463.00,1.04
9462.00,1.04
9461.00,1.04
9460.00,1.04
9459.00,1.04
9458.00,1.04
9457.00,1.04
9456.00,1.03
9455.00,1.03
9454.00,1.03
9453.00,1.03
9452.00,1.03
9451.00,1.03
9450.00,1.02
9449.00,1.02
9448.00,1.02
9447.00,1.02
9446.00,1.02
9445.00,1.02
9444.00,1.02
9443.00,1.02
9442.00,1.02
9441.00,1.03
9440.00,1.03
9439.00,1.03
9438.00,1.03
9437.00,1.03
9436.00,1.03
9435.00,1.03
9434.00,1.03
9433.00,1.03
9432.00,1.03
9431.00,1.04
9430.00,1.04
9429.00,1.04
9428.00,1.04
9427.00,1.04
9426.00,1.04
9425.00,1.04
9424.00,1.04
9423.00,1.04
9422.00,1.04
9421.00,1.04
9420.00,1.04
9419.00,1.05
9418.00,1.05
9417.00,1.05
9416.00,1.05
9415.00,1.05
9414.00,1.05
9413.00,1.05
9412.00,1.05
9411.00,1.05
9410.00,1.05
9409.00,1.05
9408.00,1.05
9407.00,1.05
9406.00,1.05
9405.00,1.04
9404.00,1.04
9403.00,1.04
9402.00,1.04
9401.00,1.03
9400.00,1.03
9399.00,1.03
9398.00,1.03
9397.00,1.03
9396.00,1.02
9395.00,1.02
9394.00,1.02
9393.00,1.02
9392.00,1.02
9391.00,1.02
9390.00,1.02
9389.00,1.02
9388.00,1.02
9387.00,1.02
9386.00,1.02
9385.00,1.02
9384.00,1.02
9383.00,1.02
9382.00,1.01
9381.00,1.01
9380.00,1.01
9379.00,1.01
9378.00,1.01
9377.00,1.01
9376.00,1.01
9375.00,1.01
9374.00,1.01
9373.00,1.01
9372.00,1.01
9371.00,1.01
9370.00,1.01
9369.00,1.01
9368.00,1.01
9367.00,1.01
9366.00,1.01
9365.00,1.01
9364.00,1.02
9363.00,1.02
9362.00,1.02
9361.00,1.02
9360.00,1.02
9359.00,1.02
9358.00,1.03
9357.00,1.03
9356.00,1.03
9355.00,1.03
9354.00,1.03
9353.00,1.03
9352.00,1.03
9351.00,1.03
9350.00,1.03
9349.00,1.03
9348.00,1.03
9347.00,1.03
9346.00,1.03
9345.00,1.03
9344.00,1.03
9343.00,1.03
9342.00,1.03
9341.00,1.03
9340.00,1.03
9339.00,1.02
9338.00,1.02
9337.00,1.02
9336.00,1.02
9335.00,1.02
9334.00,1.02
9333.00,1.02
9332.00,1.02
9331.00,1.01
9330.00,1.01
9329.00,1.01
9328.00,1.01
9327.00,1.01
9326.00,1.01
9325.00,1.02
9324.00,1.02
9323.00,1.02
9322.00,1.02
9321.00,1.02
9320.00,1.02
9319.00,1.02
9318.00,1.02
9317.00,1.03
9316.00,1.03
9315.00,1.03
9314.00,1.03
9313.00,1.03
9312.00,1.03
9311.00,1.03
9310.00,1.03
9309.00,1.03
9308.00,1.03
9307.00,1.03
9306.00,1.03
9305.00,1.03
9304.00,1.03
9303.00,1.03
9302.00,1.03
9301.00,1.03
9300.00,1.03
9299.00,1.03
9298.00,1.03
9297.00,1.03
9296.00,1.03
9295.00,1.04
9294.00,1.04
9293.00,1.04
9292.00,1.04
9291.00,1.04
9290.00,1.05
9289.00,1.05
9288.00,1.05
9287.00,1.05
9286.00,1.05
9285.00,1.06
9284.00,1.06
9283.00,1.06
9282.00,1.06
9281.00,1.06
9280.00,1.06
9279.00,1.06
9278.00,1.06
9277.00,1.05
9276.00,1.05
9275.00,1.05
9274.00,1.05
9273.00,1.05
9272.00,1.04
9271.00,1.04
9270.00,1.04
9269.00,1.04
9268.00,1.04
9267.00,1.04
9266.00,1.04
9265.00,1.04
9264.00,1.04
9263.00,1.04
9262.00,1.04
9261.00,1.04
9260.00,1.04
9259.00,1.04
9258.00,1.04
9257.00,1.05
9256.00,1.05
9255.00,1.05
9254.00,1.05
9253.00,1.05
9252.00,1.05
9251.00,1.04
9250.00,1.04
9249.00,1.04
9248.00,1.04
9247.00,1.04
9246.00,1.04
9245.00,1.04
9244.00,1.04
9243.00,1.04
9242.00,1.04
9241.00,1.04
9240.00,1.04
9239.00,1.04
9238.00,1.04
9237.00,1.05
9236.00,1.05
9235.00,1.05
9234.00,1.05
9233.00,1.05
9232.00,1.05
9231.00,1.05
9230.00,1.05
9229.00,1.05
9228.00,1.05
9227.00,1.05
9226.00,1.05
9225.00,1.04
9224.00,1.04
9223.00,1.04
9222.00,1.04
9221.00,1.04
9220.00,1.04
9219.00,1.04
9218.00,1.04
9217.00,1.04
9216.00,1.04
9215.00,1.04
9214.00,1.04
9213.00,1.04
9212.00,1.04
9211.00,1.04
9210.00,1.04
9209.00,1.04
9208.00,1.04
9207.00,1.04
9206.00,1.04
9205.00,1.04
9204.00,1.04
9203.00,1.04
9202.00,1.04
9201.00,1.04
9200.00,1.04
9199.00,1.04
9198.00,1.04
9197.00,1.04
9196.00,1.04
9195.00,1.04
9194.00,1.04
9193.00,1.04
9192.00,1.04
9191.00,1.04
9190.00,1.04
9189.00,1.04
9188.00,1.04
9187.00,1.04
9186.00,1.04
9185.00,1.04
9184.00,1.04
9183.00,1.04
9182.00,1.04
9181.00,1.04
9180.00,1.04
9179.00,1.04
9178.00,1.04
9177.00,1.04
9176.00,1.04
9175.00,1.05
9174.00,1.05
9173.00,1.05
9172.00,1.05
9171.00,1.05
9170.00,1.05
9169.00,1.05
9168.00,1.06
9167.00,1.06
9166.00,1.06
9165.00,1.06
9164.00,1.06
9163.00,1.06
9162.00,1.06
9161.00,1.06
9160.00,1.06
9159.00,1.06
9158.00,1.06
9157.00,1.06
9156.00,1.06
9155.00,1.06
9154.00,1.05
9153.00,1.05
9152.00,1.05
9151.00,1.05
9150.00,1.05
9149.00,1.05
9148.00,1.05
9147.00,1.04
9146.00,1.04
9145.00,1.04
9144.00,1.04
9143.00,1.04
9142.00,1.04
9141.00,1.04
9140.00,1.04
9139.00,1.04
9138.00,1.04
9137.00,1.04
9136.00,1.04
9135.00,1.04
9134.00,1.04
9133.00,1.04
9132.00,1.04
9131.00,1.04
9130.00,1.04
9129.00,1.04
9128.00,1.04
9127.00,1.04
9126.00,1.03
9125.00,1.03
9124.00,1.03
9123.00,1.03
9122.00,1.03
9121.00,1.03
9120.00,1.03
9119.00,1.03
9118.00,1.02
9117.00,1.02
9116.00,1.02
9115.00,1.02
9114.00,1.02
9113.00,1.02
9112.00,1.02
9111.00,1.02
9110.00,1.02
9109.00,1.02
9108.00,1.03
9107.00,1.03
9106.00,1.03
9105.00,1.03
9104.00,1.04
9103.00,1.04
9102.00,1.04
9101.00,1.04
9100.00,1.05
9099.00,1.05
9098.00,1.05
9097.00,1.05
9096.00,1.05
9095.00,1.05
9094.00,1.05
9093.00,1.05
9092.00,1.05
9091.00,1.05
9090.00,1.05
9089.00,1.05
9088.00,1.04
9087.00,1.04
9086.00,1.04
9085.00,1.04
9084.00,1.04
9083.00,1.03
9082.00,1.03
9081.00,1.03
9080.00,1.03
9079.00,1.03
9078.00,1.03
9077.00,1.03
9076.00,1.03
9075.00,1.03
9074.00,1.03
9073.00,1.03
9072.00,1.03
9071.00,1.03
9070.00,1.03
9069.00,1.03
9068.00,1.03
9067.00,1.04
9066.00,1.04
9065.00,1.04
9064.00,1.04
9063.00,1.04
9062.00,1.04
9061.00,1.04
9060.00,1.04
9059.00,1.05
9058.00,1.05
9057.00,1.05
9056.00,1.05
9055.00,1.05
9054.00,1.05
9053.00,1.05
9052.00,1.05
9051.00,1.05
9050.00,1.05
9049.00,1.05
9048.00,1.05
9047.00,1.05
9046.00,1.05
9045.00,1.05
9044.00,1.05
9043.00,1.05
9042.00,1.05
9041.00,1.05
9040.00,1.05
9039.00,1.06
9038.00,1.06
9037.00,1.06
9036.00,1.06
9035.00,1.06
9034.00,1.06
9033.00,1.05
9032.00,1.05
9031.00,1.05
9030.00,1.05
9029.00,1.05
9028.00,1.05
9027.00,1.05
9026.00,1.05
9025.00,1.05
9024.00,1.04
9023.00,1.04
9022.00,1.04
9021.00,1.04
9020.00,1.04
9019.00,1.04
9018.00,1.04
9017.00,1.04
9016.00,1.04
9015.00,1.04
9014.00,1.04
9013.00,1.04
9012.00,1.04
9011.00,1.04
9010.00,1.04
9009.00,1.04
9008.00,1.04
9007.00,1.04
9006.00,1.04
9005.00,1.04
9004.00,1.03
9003.00,1.03
9002.00,1.03
9001.00,1.03
9000.00,1.03
8999.00,1.03
8998.00,1.03
8997.00,1.03
8996.00,1.03
8995.00,1.03
8994.00,1.03
8993.00,1.03
8992.00,1.03
8991.00,1.03
8990.00,1.03
8989.00,1.03
8988.00,1.03
8987.00,1.03
8986.00,1.03
8985.00,1.03
8984.00,1.03
8983.00,1.03
8982.00,1.04
8981.00,1.04
8980.00,1.04
8979.00,1.04
8978.00,1.04
8977.00,1.05
8976.00,1.05
8975.00,1.05
8974.00,1.05
8973.00,1.05
8972.00,1.05
8971.00,1.05
8970.00,1.05
8969.00,1.05
8968.00,1.05
8967.00,1.05
8966.00,1.05
8965.00,1.05
8964.00,1.05
8963.00,1.05
8962.00,1.05
8961.00,1.05
8960.00,1.05
8959.00,1.05
8958.00,1.05
8957.00,1.05
8956.00,1.05
8955.00,1.05
8954.00,1.05
8953.00,1.05
8952.00,1.05
8951.00,1.05
8950.00,1.05
8949.00,1.05
8948.00,1.05
8947.00,1.05
8946.00,1.05
8945.00,1.05
8944.00,1.05
8943.00,1.06
8942.00,1.06
8941.00,1.06
8940.00,1.06
8939.00,1.06
8938.00,1.06
8937.00,1.06
8936.00,1.06
8935.00,1.06
8934.00,1.06
8933.00,1.06
8932.00,1.05
8931.00,1.05
8930.00,1.05
8929.00,1.05
8928.00,1.05
8927.00,1.04
8926.00,1.04
8925.00,1.04
8924.00,1.04
8923.00,1.04
8922.00,1.04
8921.00,1.03
8920.00,1.03
8919.00,1.03
8918.00,1.03
8917.00,1.03
8916.00,1.03
8915.00,1.03
8914.00,1.03
8913.00,1.03
8912.00,1.03
8911.00,1.03
8910.00,1.03
8909.00,1.03
8908.00,1.03
8907.00,1.03
8906.00,1.03
8905.00,1.03
8904.00,1.03
8903.00,1.03
8902.00,1.03
8901.00,1.03
8900.00,1.03
8899.00,1.03
8898.00,1.03
8897.00,1.03
8896.00,1.03
8895.00,1.03
8894.00,1.03
8893.00,1.03
8892.00,1.03
8891.00,1.03
8890.00,1.03
8889.00,1.03
8888.00,1.03
8887.00,1.03
8886.00,1.03
8885.00,1.03
8884.00,1.03
8883.00,1.03
8882.00,1.03
8881.00,1.03
8880.00,1.03
8879.00,1.03
8878.00,1.03
8877.00,1.03
8876.00,1.03
8875.00,1.03
8874.00,1.03
8873.00,1.03
8872.00,1.03
8871.00,1.03
8870.00,1.03
8869.00,1.03
8868.00,1.03
8867.00,1.03
8866.00,1.03
8865.00,1.03
8864.00,1.03
8863.00,1.03
8862.00,1.03
8861.00,1.03
8860.00,1.03
8859.00,1.03
8858.00,1.03
8857.00,1.03
8856.00,1.03
8855.00,1.03
8854.00,1.03
8853.00,1.03
8852.00,1.03
8851.00,1.03
8850.00,1.03
8849.00,1.03
8848.00,1.03
8847.00,1.03
8846.00,1.03
8845.00,1.03
8844.00,1.03
8843.00,1.03
8842.00,1.03
8841.00,1.03
8840.00,1.03
8839.00,1.03
8838.00,1.03
8837.00,1.03
8836.00,1.03
8835.00,1.03
8834.00,1.03
8833.00,1.03
8832.00,1.03
8831.00,1.03
8830.00,1.03
8829.00,1.03
8828.00,1.03
8827.00,1.03
8826.00,1.03
8825.00,1.03
8824.00,1.03
8823.00,1.03
8822.00,1.03
8821.00,1.03
8820.00,1.03
8819.00,1.03
8818.00,1.02
8817.00,1.02
8816.00,1.02
8815.00,1.02
8814.00,1.02
8813.00,1.02
8812.00,1.02
8811.00,1.02
8810.00,1.01
8809.00,1.01
8808.00,1.01
8807.00,1.01
8806.00,1.01
8805.00,1.01
8804.00,1.01
8803.00,1.01
8802.00,1.00
8801.00,1.00
8800.00,1.00
8799.00,1.00
8798.00,1.00
8797.00,1.00
8796.00,1.00
8795.00,1.00
8794.00,1.00
8793.00,1.00
8792.00,1.00
8791.00,1.00
8790.00,1.01
8789.00,1.01
8788.00,1.01
8787.00,1.01
8786.00,1.01
8785.00,1.01
8784.00,1.01
8783.00,1.01
8782.00,1.01
8781.00,1.00
8780.00,1.00
8779.00,1.00
8778.00,1.00
8777.00,1.00
8776.00,1.00
8775.00,1.00
8774.00,1.00
8773.00,1.00
8772.00,1.00
8771.00,1.00
8770.00,1.00
8769.00,1.00
8768.00,1.00
8767.00,1.00
8766.00,1.00
8765.00,1.00
8764.00,1.00
8763.00,1.00
8762.00,1.00
8761.00,1.00
8760.00,1.00
8759.00,1.00
8758.00,1.00
8757.00,1.00
8756.00,1.00
8755.00,1.00
8754.00,1.00
8753.00,1.00
8752.00,1.00
8751.00,1.00
8750.00,1.00
8749.00,1.00
8748.00,1.00
8747.00,1.00
8746.00,1.00
8745.00,1.00
8744.00,1.00
8743.00,1.00
8742.00,1.00
8741.00,1.00
8740.00,1.00
8739.00,1.00
8738.00,0.99
8737.00,0.99
8736.00,0.99
8735.00,0.99
8734.00,0.99
8733.00,0.99
8732.00,0.99
8731.00,0.99
8730.00,0.98
8729.00,0.98
8728.00,0.98
8727.00,0.98
8726.00,0.98
8725.00,0.98
8724.00,0.98
8723.00,0.98
8722.00,0.98
8721.00,0.98
8720.00,0.98
8719.00,0.98
8718.00,0.98
8717.00,0.98
8716.00,0.98
8715.00,0.98
8714.00,0.98
8713.00,0.98
8712.00,0.98
8711.00,0.98
8710.00,0.98
8709.00,0.98
8708.00,0.98
8707.00,0.98
8706.00,0.98
8705.00,0.98
8704.00,0.98
8703.00,0.98
8702.00,0.98
8701.00,0.98
8700.00,0.98
8699.00,0.98
8698.00,0.98
8697.00,0.98
8696.00,0.98
8695.00,0.98
8694.00,0.98
8693.00,0.98
8692.00,0.98
8691.00,0.99
8690.00,0.99
8689.00,0.99
8688.00,0.99
8687.00,0.99
8686.00,0.99
8685.00,0.99
8684.00,0.99
8683.00,0.99
8682.00,0.99
8681.00,0.99
8680.00,0.99
8679.00,0.99
8678.00,0.99
8677.00,0.99
8676.00,0.99
8675.00,0.99
8674.00,0.99
8673.00,0.99
8672.00,0.99
8671.00,0.99
8670.00,0.99
8669.00,0.99
8668.00,0.99
8667.00,0.99
8666.00,0.98
8665.00,0.98
8664.00,0.98
8663.00,0.98
8662.00,0.98
8661.00,0.98
8660.00,0.98
8659.00,0.98
8658.00,0.98
8657.00,0.98
8656.00,0.98
8655.00,0.98
8654.00,0.98
8653.00,0.98
8652.00,0.98
8651.00,0.98
8650.00,0.98
8649.00,0.98
8648.00,0.98
8647.00,0.98
8646.00,0.98
8645.00,0.98
8644.00,0.98
8643.00,0.98
8642.00,0.98
8641.00,0.97
8640.00,0.97
8639.00,0.97
8638.00,0.97
8637.00,0.97
8636.00,0.97
8635.00,0.97
8634.00,0.97
8633.00,0.97
8632.00,0.98
8631.00,0.98
8630.00,0.98
8629.00,0.98
8628.00,0.98
8627.00,0.98
8626.00,0.98
8625.00,0.98
8624.00,0.97
8623.00,0.97
8622.00,0.97
8621.00,0.97
8620.00,0.97
8619.00,0.97
8618.00,0.97
8617.00,0.97
8616.00,0.97
8615.00,0.97
8614.00,0.97
8613.00,0.97
8612.00,0.96
8611.00,0.96
8610.00,0.96
8609.00,0.96
8608.00,0.96
8607.00,0.96
8606.00,0.96
8605.00,0.96
8604.00,0.96
8603.00,0.96
8602.00,0.96
8601.00,0.96
8600.00,0.96
8599.00,0.96
8598.00,0.96
8597.00,0.96
8596.00,0.96
8595.00,0.96
8594.00,0.96
8593.00,0.95
8592.00,0.95
8591.00,0.95
8590.00,0.95
8589.00,0.95
8588.00,0.94
8587.00,0.94
8586.00,0.94
8585.00,0.94
8584.00,0.94
8583.00,0.94
8582.00,0.94
8581.00,0.94
8580.00,0.94
8579.00,0.94
8578.00,0.94
8577.00,0.94
8576.00,0.94
8575.00,0.94
8574.00,0.94
8573.00,0.94
8572.00,0.94
8571.00,0.94
8570.00,0.95
8569.00,0.95
8568.00,0.95
8567.00,0.95
8566.00,0.95
8565.00,0.95
8564.00,0.95
8563.00,0.95
8562.00,0.95
8561.00,0.95
8560.00,0.95
8559.00,0.95
8558.00,0.95
8557.00,0.95
8556.00,0.95
8555.00,0.95
8554.00,0.95
8553.00,0.95
8552.00,0.95
8551.00,0.95
8550.00,0.95
8549.00,0.95
8548.00,0.95
8547.00,0.95
8546.00,0.95
8545.00,0.95
8544.00,0.95
8543.00,0.95
8542.00,0.95
8541.00,0.95
8540.00,0.95
8539.00,0.95
8538.00,0.95
8537.00,0.95
8536.00,0.95
8535.00,0.95
8534.00,0.95
8533.00,0.95
8532.00,0.94
8531.00,0.94
8530.00,0.94
8529.00,0.94
8528.00,0.94
8527.00,0.94
8526.00,0.93
8525.00,0.93
8524.00,0.93
8523.00,0.93
8522.00,0.93
8521.00,0.93
8520.00,0.93
8519.00,0.93
8518.00,0.93
8517.00,0.93
8516.00,0.93
8515.00,0.93
8514.00,0.93
8513.00,0.93
8512.00,0.93
8511.00,0.93
8510.00,0.93
8509.00,0.93
8508.00,0.93
8507.00,0.93
8506.00,0.93
8505.00,0.93
8504.00,0.93
8503.00,0.93
8502.00,0.93
8501.00,0.93
8500.00,0.93
8499.00,0.93
8498.00,0.93
8497.00,0.93
8496.00,0.93
8495.00,0.93
8494.00,0.93
8493.00,0.93
8492.00,0.93
8491.00,0.93
8490.00,0.93
8489.00,0.93
8488.00,0.93
8487.00,0.93
8486.00,0.93
8485.00,0.93
8484.00,0.93
8483.00,0.93
8482.00,0.93
8481.00,0.93
8480.00,0.93
8479.00,0.93
8478.00,0.93
8477.00,0.93
8476.00,0.92
8475.00,0.92
8474.00,0.92
8473.00,0.92
8472.00,0.92
8471.00,0.92
8470.00,0.92
8469.00,0.91
8468.00,0.91
8467.00,0.91
8466.00,0.91
8465.00,0.91
8464.00,0.91
8463.00,0.90
8462.00,0.90
8461.00,0.90
8460.00,0.90
8459.00,0.90
8458.00,0.90
8457.00,0.89
8456.00,0.89
8455.00,0.89
8454.00,0.89
8453.00,0.89
8452.00,0.89
8451.00,0.89
8450.00,0.89
8449.00,0.89
8448.00,0.89
8447.00,0.88
8446.00,0.88
8445.00,0.88
8444.00,0.88
8443.00,0.88
8442.00,0.88
8441.00,0.88
8440.00,0.88
8439.00,0.89
8438.00,0.89
8437.00,0.89
8436.00,0.89
8435.00,0.89
8434.00,0.89
8433.00,0.89
8432.00,0.89
8431.00,0.89
8430.00,0.89
8429.00,0.89
8428.00,0.89
8427.00,0.89
8426.00,0.90
8425.00,0.90
8424.00,0.90
8423.00,0.90
8422.00,0.90
8421.00,0.90
8420.00,0.90
8419.00,0.90
8418.00,0.90
8417.00,0.90
8416.00,0.90
8415.00,0.91
8414.00,0.91
8413.00,0.91
8412.00,0.91
8411.00,0.91
8410.00,0.91
8409.00,0.91
8408.00,0.91
8407.00,0.91
8406.00,0.91
8405.00,0.91
8404.00,0.91
8403.00,0.91
8402.00,0.91
8401.00,0.91
8400.00,0.91
8399.00,0.91
8398.00,0.92
8397.00,0.92
8396.00,0.92
8395.00,0.92
8394.00,0.92
8393.00,0.92
8392.00,0.92
8391.00,0.92
8390.00,0.92
8389.00,0.92
8388.00,0.92
8387.00,0.92
8386.00,0.92
8385.00,0.92
8384.00,0.92
8383.00,0.92
8382.00,0.92
8381.00,0.92
8380.00,0.92
8379.00,0.92
8378.00,0.92
8377.00,0.92
8376.00,0.92
8375.00,0.92
8374.00,0.92
8373.00,0.92
8372.00,0.92
8371.00,0.92
8370.00,0.93
8369.00,0.93
8368.00,0.93
8367.00,0.93
8366.00,0.93
8365.00,0.93
8364.00,0.93
8363.00,0.94
8362.00,0.94
8361.00,0.94
8360.00,0.94
8359.00,0.94
8358.00,0.94
8357.00,0.94
8356.00,0.94
8355.00,0.94
8354.00,0.94
8353.00,0.94
8352.00,0.94
8351.00,0.94
8350.00,0.94
8349.00,0.94
8348.00,0.94
8347.00,0.94
8346.00,0.94
8345.00,0.94
8344.00,0.94
8343.00,0.94
8342.00,0.94
8341.00,0.94
8340.00,0.94
8339.00,0.94
8338.00,0.94
8337.00,0.94
8336.00,0.94
8335.00,0.94
8334.00,0.94
8333.00,0.94
8332.00,0.93
8331.00,0.93
8330.00,0.93
8329.00,0.93
8328.00,0.93
8327.00,0.93
8326.00,0.93
8325.00,0.93
8324.00,0.93
8323.00,0.93
8322.00,0.93
8321.00,0.93
8320.00,0.93
8319.00,0.93
8318.00,0.93
8317.00,0.93
8316.00,0.93
8315.00,0.93
8314.00,0.93
8313.00,0.93
8312.00,0.93
8311.00,0.93
8310.00,0.94
8309.00,0.94
8308.00,0.94
8307.00,0.94
8306.00,0.94
8305.00,0.94
8304.00,0.94
8303.00,0.94
8302.00,0.94
8301.00,0.94
8300.00,0.94
8299.00,0.94
8298.00,0.94
8297.00,0.94
8296.00,0.94
8295.00,0.94
8294.00,0.94
8293.00,0.94
8292.00,0.94
8291.00,0.94
8290.00,0.94
8289.00,0.94
8288.00,0.94
8287.00,0.94
8286.00,0.94
8285.00,0.94
8284.00,0.94
8283.00,0.94
8282.00,0.94
8281.00,0.94
8280.00,0.94
8279.00,0.94
8278.00,0.94
8277.00,0.94
8276.00,0.94
8275.00,0.94
8274.00,0.94
8273.00,0.94
8272.00,0.94
8271.00,0.94
8270.00,0.94
8269.00,0.94
8268.00,0.94
8267.00,0.94
8266.00,0.94
8265.00,0.94
8264.00,0.94
8263.00,0.94
8262.00,0.94
8261.00,0.95
8260.00,0.95
8259.00,0.95
8258.00,0.95
8257.00,0.95
8256.00,0.95
8255.00,0.95
8254.00,0.95
8253.00,0.95
8252.00,0.95
8251.00,0.95
8250.00,0.95
8249.00,0.95
8248.00,0.95
8247.00,0.95
8246.00,0.95
8245.00,0.95
8244.00,0.95
8243.00,0.95
8242.00,0.95
8241.00,0.95
8240.00,0.95
8239.00,0.95
8238.00,0.95
8237.00,0.95
8236.00,0.95
8235.00,0.95
8234.00,0.95
8233.00,0.96
8232.00,0.96
8231.00,0.96
8230.00,0.96
8229.00,0.96
8228.00,0.96
8227.00,0.96
8226.00,0.96
8225.00,0.96
8224.00,0.96
8223.00,0.96
8222.00,0.96
8221.00,0.96
8220.00,0.96
8219.00,0.96
8218.00,0.96
8217.00,0.96
8216.00,0.96
8215.00,0.96
8214.00,0.96
8213.00,0.96
8212.00,0.96
8211.00,0.96
8210.00,0.96
8209.00,0.96
8208.00,0.96
8207.00,0.96
8206.00,0.96
8205.00,0.96
8204.00,0.96
8203.00,0.96
8202.00,0.96
8201.00,0.96
8200.00,0.96
8199.00,0.96
8198.00,0.96
8197.00,0.96
8196.00,0.96
8195.00,0.97
8194.00,0.97
8193.00,0.97
8192.00,0.97
8191.00,0.97
8190.00,0.97
8189.00,0.97
8188.00,0.97
8187.00,0.97
8186.00,0.97
8185.00,0.97
8184.00,0.97
8183.00,0.97
8182.00,0.97
8181.00,0.97
8180.00,0.97
8179.00,0.97
8178.00,0.97
8177.00,0.97
8176.00,0.97
8175.00,0.97
8174.00,0.97
8173.00,0.97
8172.00,0.97
8171.00,0.97
8170.00,0.97
8169.00,0.97
8168.00,0.97
8167.00,0.97
8166.00,0.97
8165.00,0.97
8164.00,0.97
8163.00,0.97
8162.00,0.97
8161.00,0.97
8160.00,0.97
8159.00,0.97
8158.00,0.98
8157.00,0.98
8156.00,0.98
8155.00,0.98
8154.00,0.98
8153.00,0.98
8152.00,0.98
8151.00,0.98
8150.00,0.98
8149.00,0.98
8148.00,0.98
8147.00,0.98
8146.00,0.98
8145.00,0.99
8144.00,0.99
8143.00,0.99
8142.00,0.99
8141.00,0.99
8140.00,0.98
8139.00,0.98
8138.00,0.98
8137.00,0.99
8136.00,0.99
8135.00,0.99
8134.00,0.99
8133.00,0.99
8132.00,0.99
8131.00,0.99
8130.00,0.99
8129.00,0.99
8128.00,0.99
8127.00,0.99
8126.00,0.99
8125.00,1.00
8124.00,1.00
8123.00,1.00
8122.00,1.00
8121.00,1.00
8120.00,1.00
8119.00,1.00
8118.00,1.00
8117.00,1.00
8116.00,1.00
8115.00,1.00
8114.00,1.01
8113.00,1.01
8112.00,1.00
8111.00,1.00
8110.00,1.00
8109.00,1.00
8108.00,1.00
8107.00,1.00
8106.00,1.00
8105.00,1.00
8104.00,1.00
8103.00,1.00
8102.00,1.00
8101.00,1.00
8100.00,1.00
8099.00,1.00
8098.00,1.00
8097.00,0.99
8096.00,0.99
8095.00,0.99
8094.00,0.99
8093.00,0.99
8092.00,0.99
8091.00,0.99
8090.00,0.99
8089.00,1.00
8088.00,1.00
8087.00,1.00
8086.00,1.00
8085.00,1.00
8084.00,1.00
8083.00,1.00
8082.00,1.00
8081.00,1.01
8080.00,1.01
8079.00,1.01
8078.00,1.01
8077.00,1.01
8076.00,1.01
8075.00,1.01
8074.00,1.01
8073.00,1.02
8072.00,1.02
8071.00,1.02
8070.00,1.02
8069.00,1.02
8068.00,1.02
8067.00,1.02
8066.00,1.02
8065.00,1.02
8064.00,1.02
8063.00,1.01
8062.00,1.01
8061.00,1.01
8060.00,1.01
8059.00,1.01
8058.00,1.01
8057.00,1.01
8056.00,1.01
8055.00,1.01
8054.00,1.01
8053.00,1.01
8052.00,1.01
8051.00,1.01
8050.00,1.01
8049.00,1.01
8048.00,1.01
8047.00,1.01
8046.00,1.01
8045.00,1.01
8044.00,1.01
8043.00,1.01
8042.00,1.01
8041.00,1.01
8040.00,1.01
8039.00,1.01
8038.00,1.01
8037.00,1.01
8036.00,1.01
8035.00,1.01
8034.00,1.01
8033.00,1.01
8032.00,1.01
8031.00,1.01
8030.00,1.01
8029.00,1.01
8028.00,1.01
8027.00,1.01
8026.00,1.02
8025.00,1.02
8024.00,1.02
8023.00,1.02
8022.00,1.02
8021.00,1.02
8020.00,1.02
8019.00,1.02
8018.00,1.02
8017.00,1.02
8016.00,1.02
8015.00,1.02
8014.00,1.02
8013.00,1.02
8012.00,1.02
8011.00,1.02
8010.00,1.02
8009.00,1.02
8008.00,1.02
8007.00,1.02
8006.00,1.02
8005.00,1.02
8004.00,1.02
8003.00,1.02
8002.00,1.02
8001.00,1.02
8000.00,1.02
7999.00,1.02
7998.00,1.02
7997.00,1.02
7996.00,1.02
7995.00,1.01
7994.00,1.01
7993.00,1.01
7992.00,1.01
7991.00,1.01
7990.00,1.01
7989.00,1.01
7988.00,1.01
7987.00,1.01
7986.00,1.02
7985.00,1.02
7984.00,1.02
7983.00,1.02
7982.00,1.02
7981.00,1.02
7980.00,1.02
7979.00,1.02
7978.00,1.02
7977.00,1.02
7976.00,1.02
7975.00,1.02
7974.00,1.03
7973.00,1.03
7972.00,1.03
7971.00,1.03
7970.00,1.03
7969.00,1.03
7968.00,1.03
7967.00,1.03
7966.00,1.03
7965.00,1.03
7964.00,1.03
7963.00,1.03
7962.00,1.03
7961.00,1.03
7960.00,1.03
7959.00,1.03
7958.00,1.03
7957.00,1.03
7956.00,1.03
7955.00,1.03
7954.00,1.03
7953.00,1.02
7952.00,1.02
7951.00,1.02
7950.00,1.02
7949.00,1.02
7948.00,1.02
7947.00,1.02
7946.00,1.02
7945.00,1.02
7944.00,1.02
7943.00,1.02
7942.00,1.02
7941.00,1.02
7940.00,1.02
7939.00,1.02
7938.00,1.02
7937.00,1.02
7936.00,1.03
7935.00,1.03
7934.00,1.03
7933.00,1.03
7932.00,1.03
7931.00,1.03
7930.00,1.03
7929.00,1.03
7928.00,1.03
7927.00,1.03
7926.00,1.03
7925.00,1.03
7924.00,1.03
7923.00,1.03
7922.00,1.03
7921.00,1.03
7920.00,1.03
7919.00,1.03
7918.00,1.03
7917.00,1.03
7916.00,1.03
7915.00,1.03
7914.00,1.03
7913.00,1.03
7912.00,1.03
7911.00,1.03
7910.00,1.03
7909.00,1.03
7908.00,1.03
7907.00,1.03
7906.00,1.03
7905.00,1.03
7904.00,1.03
7903.00,1.04
7902.00,1.04
7901.00,1.04
7900.00,1.04
7899.00,1.04
7898.00,1.04
7897.00,1.04
7896.00,1.04
7895.00,1.04
7894.00,1.04
7893.00,1.04
7892.00,1.04
7891.00,1.04
7890.00,1.04
7889.00,1.04
7888.00,1.04
7887.00,1.03
7886.00,1.03
7885.00,1.03
7884.00,1.03
7883.00,1.03
7882.00,1.03
7881.00,1.03
7880.00,1.03
7879.00,1.03
7878.00,1.03
7877.00,1.03
7876.00,1.03
7875.00,1.03
7874.00,1.03
7873.00,1.03
7872.00,1.04
7871.00,1.04
7870.00,1.04
7869.00,1.04
7868.00,1.04
7867.00,1.04
7866.00,1.04
7865.00,1.04
7864.00,1.04
7863.00,1.04
7862.00,1.04
7861.00,1.04
7860.00,1.04
7859.00,1.04
7858.00,1.04
7857.00,1.04
7856.00,1.04
7855.00,1.04
7854.00,1.04
7853.00,1.04
7852.00,1.05
7851.00,1.05
7850.00,1.05
7849.00,1.05
7848.00,1.05
7847.00,1.05
7846.00,1.05
7845.00,1.05
7844.00,1.04
7843.00,1.04
7842.00,1.04
7841.00,1.04
7840.00,1.04
7839.00,1.04
7838.00,1.04
7837.00,1.04
7836.00,1.04
7835.00,1.04
7834.00,1.04
7833.00,1.04
7832.00,1.04
7831.00,1.04
7830.00,1.05
7829.00,1.05
7828.00,1.05
7827.00,1.05
7826.00,1.05
7825.00,1.05
7824.00,1.05
7823.00,1.05
7822.00,1.05
7821.00,1.05
7820.00,1.05
7819.00,1.05
7818.00,1.05
7817.00,1.05
7816.00,1.05
7815.00,1.05
7814.00,1.05
7813.00,1.05
7812.00,1.05
7811.00,1.05
7810.00,1.05
7809.00,1.05
7808.00,1.05
7807.00,1.05
7806.00,1.05
7805.00,1.05
7804.00,1.05
7803.00,1.05
7802.00,1.05
7801.00,1.05
7800.00,1.05
7799.00,1.05
7798.00,1.05
7797.00,1.05
7796.00,1.05
7795.00,1.05
7794.00,1.05
7793.00,1.05
7792.00,1.05
7791.00,1.06
7790.00,1.06
7789.00,1.06
7788.00,1.06
7787.00,1.06
7786.00,1.06
7785.00,1.06
7784.00,1.06
7783.00,1.06
7782.00,1.06
7781.00,1.06
7780.00,1.06
7779.00,1.06
7778.00,1.06
7777.00,1.06
7776.00,1.06
7775.00,1.06
7774.00,1.06
7773.00,1.06
7772.00,1.05
7771.00,1.05
7770.00,1.05
7769.00,1.05
7768.00,1.05
7767.00,1.05
7766.00,1.05
7765.00,1.05
7764.00,1.05
7763.00,1.05
7762.00,1.05
7761.00,1.05
7760.00,1.05
7759.00,1.05
7758.00,1.05
7757.00,1.05
7756.00,1.05
7755.00,1.05
7754.00,1.05
7753.00,1.05
7752.00,1.05
7751.00,1.05
7750.00,1.05
7749.00,1.05
7748.00,1.05
7747.00,1.05
7746.00,1.05
7745.00,1.05
7744.00,1.05
7743.00,1.05
7742.00,1.05
7741.00,1.05
7740.00,1.05
7739.00,1.06
7738.00,1.06
7737.00,1.06
7736.00,1.06
7735.00,1.06
7734.00,1.06
7733.00,1.06
7732.00,1.06
7731.00,1.06
7730.00,1.06
7729.00,1.06
7728.00,1.06
7727.00,1.06
7726.00,1.06
7725.00,1.06
7724.00,1.06
7723.00,1.06
7722.00,1.06
7721.00,1.06
7720.00,1.06
7719.00,1.06
7718.00,1.06
7717.00,1.06
7716.00,1.06
7715.00,1.06
7714.00,1.06
7713.00,1.06
7712.00,1.06
7711.00,1.06
7710.00,1.06
7709.00,1.06
7708.00,1.06
7707.00,1.06
7706.00,1.06
7705.00,1.06
7704.00,1.06
7703.00,1.06
7702.00,1.06
7701.00,1.06
7700.00,1.06
7699.00,1.06
7698.00,1.06
7697.00,1.06
7696.00,1.06
7695.00,1.06
7694.00,1.06
7693.00,1.06
7692.00,1.06
7691.00,1.05
7690.00,1.05
7689.00,1.05
7688.00,1.05
7687.00,1.05
7686.00,1.05
7685.00,1.05
7684.00,1.05
7683.00,1.05
7682.00,1.05
7681.00,1.05
7680.00,1.05
7679.00,1.05
7678.00,1.05
7677.00,1.05
7676.00,1.05
7675.00,1.05
7674.00,1.05
7673.00,1.05
7672.00,1.06
7671.00,1.06
7670.00,1.06
7669.00,1.06
7668.00,1.06
7667.00,1.06
7666.00,1.06
7665.00,1.06
7664.00,1.06
7663.00,1.06
7662.00,1.06
7661.00,1.06
7660.00,1.06
7659.00,1.06
7658.00,1.06
7657.00,1.06
7656.00,1.06
7655.00,1.06
7654.00,1.06
7653.00,1.06
7652.00,1.06
7651.00,1.06
7650.00,1.06
7649.00,1.06
7648.00,1.06
7647.00,1.06
7646.00,1.06
7645.00,1.06
7644.00,1.06
7643.00,1.06
7642.00,1.06
7641.00,1.06
7640.00,1.06
7639.00,1.06
7638.00,1.06
7637.00,1.06
7636.00,1.06
7635.00,1.06
7634.00,1.06
7633.00,1.06
7632.00,1.06
7631.00,1.06
7630.00,1.06
7629.00,1.06
7628.00,1.06
7627.00,1.06
7626.00,1.06
7625.00,1.06
7624.00,1.06
7623.00,1.06
7622.00,1.06
7621.00,1.06
7620.00,1.05
7619.00,1.05
7618.00,1.05
7617.00,1.05
7616.00,1.05
7615.00,1.05
7614.00,1.05
7613.00,1.05
7612.00,1.05
7611.00,1.05
7610.00,1.05
7609.00,1.05
7608.00,1.05
7607.00,1.05
7606.00,1.05
7605.00,1.05
7604.00,1.05
7603.00,1.05
7602.00,1.05
7601.00,1.05
7600.00,1.05
7599.00,1.05
7598.00,1.05
7597.00,1.05
7596.00,1.05
7595.00,1.05
7594.00,1.05
7593.00,1.05
7592.00,1.05
7591.00,1.04
7590.00,1.04
7589.00,1.04
7588.00,1.04
7587.00,1.04
7586.00,1.04
7585.00,1.04
7584.00,1.04
7583.00,1.05
7582.00,1.05
7581.00,1.05
7580.00,1.05
7579.00,1.05
7578.00,1.05
7577.00,1.05
7576.00,1.05
7575.00,1.05
7574.00,1.05
7573.00,1.05
7572.00,1.05
7571.00,1.05
7570.00,1.05
7569.00,1.05
7568.00,1.05
7567.00,1.05
7566.00,1.05
7565.00,1.05
7564.00,1.05
7563.00,1.05
7562.00,1.05
7561.00,1.05
7560.00,1.05
7559.00,1.05
7558.00,1.05
7557.00,1.05
7556.00,1.05
7555.00,1.05
7554.00,1.05
7553.00,1.05
7552.00,1.05
7551.00,1.05
7550.00,1.05
7549.00,1.05
7548.00,1.05
7547.00,1.05
7546.00,1.05
7545.00,1.05
7544.00,1.05
7543.00,1.05
7542.00,1.05
7541.00,1.05
7540.00,1.04
7539.00,1.04
7538.00,1.04
7537.00,1.04
7536.00,1.04
7535.00,1.04
7534.00,1.04
7533.00,1.04
7532.00,1.04
7531.00,1.04
7530.00,1.04
7529.00,1.04
7528.00,1.04
7527.00,1.04
7526.00,1.04
7525.00,1.04
7524.00,1.04
7523.00,1.04
7522.00,1.04
7521.00,1.04
7520.00,1.04
7519.00,1.04
7518.00,1.04
7517.00,1.04
7516.00,1.04
7515.00,1.04
7514.00,1.04
7513.00,1.04
7512.00,1.04
7511.00,1.04
7510.00,1.04
7509.00,1.04
7508.00,1.04
7507.00,1.04
7506.00,1.04
7505.00,1.04
7504.00,1.04
7503.00,1.04
7502.00,1.04
7501.00,1.04
7500.00,1.04
7499.00,1.04
7498.00,1.04
7497.00,1.04
7496.00,1.03
7495.00,1.03
7494.00,1.03
7493.00,1.03
7492.00,1.03
7491.00,1.03
7490.00,1.03
7489.00,1.03
7488.00,1.03
7487.00,1.03
7486.00,1.03
7485.00,1.03
7484.00,1.02
7483.00,1.02
7482.00,1.02
7481.00,1.02
7480.00,1.02
7479.00,1.02
7478.00,1.02
7477.00,1.02
7476.00,1.02
7475.00,1.02
7474.00,1.02
7473.00,1.02
7472.00,1.02
7471.00,1.01
7470.00,1.01
7469.00,1.01
7468.00,1.01
7467.00,1.01
7466.00,1.01
7465.00,1.01
7464.00,1.01
7463.00,1.01
7462.00,1.01
7461.00,1.01
7460.00,1.01
7459.00,1.01
7458.00,1.01
7457.00,1.01
7456.00,1.01
7455.00,1.01
7454.00,1.01
7453.00,1.01
7452.00,1.01
7451.00,1.01
7450.00,1.01
7449.00,1.01
7448.00,1.01
7447.00,1.01
7446.00,1.01
7445.00,1.01
7444.00,1.01
7443.00,1.01
7442.00,1.01
7441.00,1.01
7440.00,1.01
7439.00,1.01
7438.00,1.01
7437.00,1.01
7436.00,1.01
7435.00,1.01
7434.00,1.01
7433.00,1.01
7432.00,1.01
7431.00,1.01
7430.00,1.01
7429.00,1.01
7428.00,1.00
7427.00,1.00
7426.00,1.00
7425.00,1.00
7424.00,1.00
7423.00,1.00
7422.00,1.00
7421.00,0.99
7420.00,0.99
7419.00,0.99
7418.00,0.99
7417.00,0.99
7416.00,0.99
7415.00,0.98
7414.00,0.98
7413.00,0.98
7412.00,0.98
7411.00,0.98
7410.00,0.98
7409.00,0.98
7408.00,0.98
7407.00,0.98
7406.00,0.97
7405.00,0.97
7404.00,0.97
7403.00,0.97
7402.00,0.97
7401.00,0.97
7400.00,0.97
7399.00,0.97
7398.00,0.97
7397.00,0.97
7396.00,0.97
7395.00,0.97
7394.00,0.97
7393.00,0.97
7392.00,0.97
7391.00,0.97
7390.00,0.97
7389.00,0.97
7388.00,0.96
7387.00,0.96
7386.00,0.96
7385.00,0.96
7384.00,0.96
7383.00,0.96
7382.00,0.96
7381.00,0.96
7380.00,0.96
7379.00,0.96
7378.00,0.96
7377.00,0.96
7376.00,0.95
7375.00,0.95
7374.00,0.95
7373.00,0.95
7372.00,0.95
7371.00,0.95
7370.00,0.95
7369.00,0.95
7368.00,0.95
7367.00,0.95
7366.00,0.95
7365.00,0.95
7364.00,0.95
7363.00,0.95
7362.00,0.95
7361.00,0.94
7360.00,0.94
7359.00,0.94
7358.00,0.94
7357.00,0.94
7356.00,0.94
7355.00,0.94
7354.00,0.94
7353.00,0.94
7352.00,0.94
7351.00,0.94
7350.00,0.94
7349.00,0.94
7348.00,0.94
7347.00,0.94
7346.00,0.94
7345.00,0.94
7344.00,0.94
7343.00,0.94
7342.00,0.94
7341.00,0.94
7340.00,0.94
7339.00,0.94
7338.00,0.94
7337.00,0.94
7336.00,0.93
7335.00,0.93
7334.00,0.93
7333.00,0.93
7332.00,0.93
7331.00,0.93
7330.00,0.93
7329.00,0.93
7328.00,0.93
7327.00,0.93
7326.00,0.93
7325.00,0.93
7324.00,0.93
7323.00,0.93
7322.00,0.93
7321.00,0.93
7320.00,0.93
7319.00,0.93
7318.00,0.93
7317.00,0.93
7316.00,0.93
7315.00,0.93
7314.00,0.93
7313.00,0.93
7312.00,0.93
7311.00,0.92
7310.00,0.92
7309.00,0.92
7308.00,0.92
7307.00,0.92
7306.00,0.92
7305.00,0.92
7304.00,0.91
7303.00,0.91
7302.00,0.91
7301.00,0.91
7300.00,0.91
7299.00,0.91
7298.00,0.91
7297.00,0.91
7296.00,0.91
7295.00,0.91
7294.00,0.91
7293.00,0.90
7292.00,0.90
7291.00,0.90
7290.00,0.90
7289.00,0.90
7288.00,0.90
7287.00,0.90
7286.00,0.90
7285.00,0.90
7284.00,0.90
7283.00,0.90
7282.00,0.90
7281.00,0.90
7280.00,0.90
7279.00,0.90
7278.00,0.90
7277.00,0.89
7276.00,0.89
7275.00,0.89
7274.00,0.89
7273.00,0.89
7272.00,0.89
7271.00,0.89
7270.00,0.89
7269.00,0.89
7268.00,0.89
7267.00,0.89
7266.00,0.89
7265.00,0.89
7264.00,0.88
7263.00,0.88
7262.00,0.88
7261.00,0.88
7260.00,0.88
7259.00,0.88
7258.00,0.88
7257.00,0.88
7256.00,0.87
7255.00,0.87
7254.00,0.87
7253.00,0.87
7252.00,0.87
7251.00,0.86
7250.00,0.86
7249.00,0.86
7248.00,0.86
7247.00,0.86
7246.00,0.85
7245.00,0.85
7244.00,0.85
7243.00,0.85
7242.00,0.84
7241.00,0.84
7240.00,0.84
7239.00,0.84
7238.00,0.84
7237.00,0.83
7236.00,0.83
7235.00,0.83
7234.00,0.83
7233.00,0.82
7232.00,0.82
7231.00,0.82
7230.00,0.81
7229.00,0.81
7228.00,0.81
7227.00,0.80
7226.00,0.80
7225.00,0.80
7224.00,0.79
7223.00,0.79
7222.00,0.79
7221.00,0.79
7220.00,0.78
7219.00,0.78
7218.00,0.78
7217.00,0.77
7216.00,0.77
7215.00,0.77
7214.00,0.77
7213.00,0.76
7212.00,0.76
7211.00,0.76
7210.00,0.76
7209.00,0.75
7208.00,0.75
7207.00,0.75
7206.00,0.75
7205.00,0.74
7204.00,0.74
7203.00,0.74
7202.00,0.73
7201.00,0.73
7200.00,0.73
7199.00,0.73
7198.00,0.72
7197.00,0.72
7196.00,0.72
7195.00,0.72
7194.00,0.71
7193.00,0.71
7192.00,0.71
7191.00,0.71
7190.00,0.70
7189.00,0.70
7188.00,0.70
7187.00,0.70
7186.00,0.70
7185.00,0.69
7184.00,0.69
7183.00,0.69
7182.00,0.69
7181.00,0.69
7180.00,0.68
7179.00,0.68
7178.00,0.68
7177.00,0.68
7176.00,0.67
7175.00,0.67
7174.00,0.67
7173.00,0.67
7172.00,0.66
7171.00,0.66
7170.00,0.66
7169.00,0.65
7168.00,0.65
7167.00,0.65
7166.00,0.65
7165.00,0.64
7164.00,0.64
7163.00,0.64
7162.00,0.64
7161.00,0.63
7160.00,0.63
7159.00,0.63
7158.00,0.63
7157.00,0.63
7156.00,0.62
7155.00,0.62
7154.00,0.62
7153.00,0.62
7152.00,0.62
7151.00,0.62
7150.00,0.61
7149.00,0.61
7148.00,0.61
7147.00,0.61
7146.00,0.61
7145.00,0.61
7144.00,0.60
7143.00,0.60
7142.00,0.60
7141.00,0.60
7140.00,0.60
7139.00,0.59
7138.00,0.59
7137.00,0.59
7136.00,0.59
7135.00,0.59
7134.00,0.58
7133.00,0.58
7132.00,0.58
7131.00,0.58
7130.00,0.58
7129.00,0.57
7128.00,0.57
7127.00,0.57
7126.00,0.57
7125.00,0.57
7124.00,0.56
7123.00,0.56
7122.00,0.56
7121.00,0.56
7120.00,0.56
7119.00,0.55
7118.00,0.55
7117.00,0.55
7116.00,0.55
7115.00,0.55
7114.00,0.54
7113.00,0.54
7112.00,0.54
7111.00,0.54
7110.00,0.54
7109.00,0.54
7108.00,0.54
7107.00,0.53
7106.00,0.53
7105.00,0.53
7104.00,0.53
7103.00,0.53
7102.00,0.53
7101.00,0.53
7100.00,0.53
7099.00,0.53
7098.00,0.52
7097.00,0.52
7096.00,0.52
7095.00,0.52
7094.00,0.52
7093.00,0.52
7092.00,0.52
7091.00,0.52
7090.00,0.52
7089.00,0.51
7088.00,0.51
7087.00,0.51
7086.00,0.51
7085.00,0.51
7084.00,0.51
7083.00,0.51
7082.00,0.51
7081.00,0.50
7080.00,0.50
7079.00,0.50
7078.00,0.50
7077.00,0.50
7076.00,0.50
7075.00,0.50
7074.00,0.50
7073.00,0.50
7072.00,0.50
7071.00,0.49
7070.00,0.49
7069.00,0.49
7068.00,0.49
7067.00,0.49
7066.00,0.49
7065.00,0.49
7064.00,0.49
7063.00,0.49
7062.00,0.49
7061.00,0.49
7060.00,0.49
7059.00,0.49
7058.00,0.49
7057.00,0.49
7056.00,0.49
7055.00,0.48
7054.00,0.48
7053.00,0.48
7052.00,0.48
7051.00,0.48
7050.00,0.48
7049.00,0.48
7048.00,0.48
7047.00,0.48
7046.00,0.48
7045.00,0.48
7044.00,0.47
7043.00,0.47
7042.00,0.47
7041.00,0.47
7040.00,0.47
7039.00,0.47
7038.00,0.47
7037.00,0.47
7036.00,0.47
7035.00,0.47
7034.00,0.47
7033.00,0.46
7032.00,0.46
7031.00,0.46
7030.00,0.46
7029.00,0.46
7028.00,0.46
7027.00,0.46
7026.00,0.46
7025.00,0.46
7024.00,0.46
7023.00,0.46
7022.00,0.46
7021.00,0.46
7020.00,0.46
7019.00,0.46
7018.00,0.46
7017.00,0.46
7016.00,0.46
7015.00,0.46
7014.00,0.46
7013.00,0.45
7012.00,0.45
7011.00,0.45
7010.00,0.45
7009.00,0.45
7008.00,0.45
7007.00,0.45
7006.00,0.45
7005.00,0.45
7004.00,0.45
7003.00,0.45
7002.00,0.45
7001.00,0.45
7000.00,0.45
6999.00,0.45
6998.00,0.45
6997.00,0.45
6996.00,0.45
6995.00,0.45
6994.00,0.45
6993.00,0.45
6992.00,0.45
6991.00,0.45
6990.00,0.45
6989.00,0.45
6988.00,0.45
6987.00,0.45
6986.00,0.45
6985.00,0.45
6984.00,0.45
6983.00,0.45
6982.00,0.45
6981.00,0.45
6980.00,0.45
6979.00,0.45
6978.00,0.45
6977.00,0.45
6976.00,0.45
6975.00,0.45
6974.00,0.45
6973.00,0.45
6972.00,0.45
6971.00,0.45
6970.00,0.44
6969.00,0.44
6968.00,0.44
6967.00,0.44
6966.00,0.44
6965.00,0.44
6964.00,0.44
6963.00,0.44
6962.00,0.44
6961.00,0.44
6960.00,0.44
6959.00,0.44
6958.00,0.44
6957.00,0.44
6956.00,0.44
6955.00,0.44
6954.00,0.44
6953.00,0.43
6952.00,0.43
6951.00,0.43
6950.00,0.43
6949.00,0.43
6948.00,0.43
6947.00,0.43
6946.00,0.43
6945.00,0.43
6944.00,0.43
6943.00,0.43
6942.00,0.43
6941.00,0.43
6940.00,0.43
6939.00,0.43
6938.00,0.43
6937.00,0.43
6936.00,0.43
6935.00,0.43
6934.00,0.43
6933.00,0.43
6932.00,0.43
6931.00,0.43
6930.00,0.43
6929.00,0.43
6928.00,0.43
6927.00,0.43
6926.00,0.43
6925.00,0.43
6924.00,0.43
6923.00,0.43
6922.00,0.43
6921.00,0.43
6920.00,0.43
6919.00,0.43
6918.00,0.43
6917.00,0.43
6916.00,0.43
6915.00,0.43
6914.00,0.43
6913.00,0.43
6912.00,0.43
6911.00,0.43
6910.00,0.43
6909.00,0.43
6908.00,0.43
6907.00,0.43
6906.00,0.43
6905.00,0.43
6904.00,0.43
6903.00,0.43
6902.00,0.43
6901.00,0.44
6900.00,0.44
6899.00,0.44
6898.00,0.44
6897.00,0.44
6896.00,0.44
6895.00,0.44
6894.00,0.44
6893.00,0.44
6892.00,0.44
6891.00,0.44
6890.00,0.44
6889.00,0.44
6888.00,0.44
6887.00,0.44
6886.00,0.44
6885.00,0.44
6884.00,0.44
6883.00,0.43
6882.00,0.43
6881.00,0.43
6880.00,0.43
6879.00,0.43
6878.00,0.43
6877.00,0.43
6876.00,0.43
6875.00,0.43
6874.00,0.43
6873.00,0.43
6872.00,0.43
6871.00,0.43
6870.00,0.43
6869.00,0.43
6868.00,0.43
6867.00,0.43
6866.00,0.43
6865.00,0.43
6864.00,0.43
6863.00,0.43
6862.00,0.43
6861.00,0.43
6860.00,0.43
6859.00,0.43
6858.00,0.43
6857.00,0.43
6856.00,0.43
6855.00,0.43
6854.00,0.43
6853.00,0.43
6852.00,0.43
6851.00,0.43
6850.00,0.43
6849.00,0.43
6848.00,0.43
6847.00,0.43
6846.00,0.43
6845.00,0.43
6844.00,0.43
6843.00,0.43
6842.00,0.43
6841.00,0.43
6840.00,0.43
6839.00,0.43
6838.00,0.43
6837.00,0.43
6836.00,0.43
6835.00,0.43
6834.00,0.43
6833.00,0.44
6832.00,0.44
6831.00,0.44
6830.00,0.44
6829.00,0.44
6828.00,0.44
6827.00,0.44
6826.00,0.44
6825.00,0.44
6824.00,0.44
6823.00,0.44
6822.00,0.44
6821.00,0.44
6820.00,0.44
6819.00,0.44
6818.00,0.44
6817.00,0.44
6816.00,0.44
6815.00,0.44
6814.00,0.44
6813.00,0.44
6812.00,0.44
6811.00,0.44
6810.00,0.44
6809.00,0.44
6808.00,0.44
6807.00,0.44
6806.00,0.44
6805.00,0.44
6804.00,0.44
6803.00,0.44
6802.00,0.44
6801.00,0.44
6800.00,0.44
6799.00,0.44
6798.00,0.45
6797.00,0.45
6796.00,0.45
6795.00,0.45
6794.00,0.45
6793.00,0.45
6792.00,0.45
6791.00,0.45
6790.00,0.45
6789.00,0.45
6788.00,0.45
6787.00,0.45
6786.00,0.45
6785.00,0.45
6784.00,0.45
6783.00,0.45
6782.00,0.45
6781.00,0.45
6780.00,0.45
6779.00,0.45
6778.00,0.45
6777.00,0.45
6776.00,0.45
6775.00,0.45
6774.00,0.45
6773.00,0.45
6772.00,0.46
6771.00,0.46
6770.00,0.46
6769.00,0.46
6768.00,0.46
6767.00,0.46
6766.00,0.46
6765.00,0.46
6764.00,0.46
6763.00,0.46
6762.00,0.46
6761.00,0.46
6760.00,0.46
6759.00,0.46
6758.00,0.46
6757.00,0.46
6756.00,0.46
6755.00,0.46
6754.00,0.46
6753.00,0.46
6752.00,0.46
6751.00,0.46
6750.00,0.46
6749.00,0.46
6748.00,0.46
6747.00,0.46
6746.00,0.46
6745.00,0.46
6744.00,0.46
6743.00,0.46
6742.00,0.46
6741.00,0.46
6740.00,0.46
6739.00,0.46
6738.00,0.46
6737.00,0.46
6736.00,0.46
6735.00,0.46
6734.00,0.46
6733.00,0.46
6732.00,0.46
6731.00,0.46
6730.00,0.46
6729.00,0.46
6728.00,0.46
6727.00,0.46
6726.00,0.47
6725.00,0.47
6724.00,0.47
6723.00,0.47
6722.00,0.47
6721.00,0.47
6720.00,0.47
6719.00,0.47
6718.00,0.47
6717.00,0.47
6716.00,0.47
6715.00,0.47
6714.00,0.47
6713.00,0.48
6712.00,0.48
6711.00,0.48
6710.00,0.48
6709.00,0.48
6708.00,0.48
6707.00,0.48
6706.00,0.48
6705.00,0.48
6704.00,0.48
6703.00,0.48
6702.00,0.48
6701.00,0.48
6700.00,0.48
6699.00,0.49
6698.00,0.49
6697.00,0.49
6696.00,0.49
6695.00,0.49
6694.00,0.49
6693.00,0.49
6692.00,0.49
6691.00,0.49
6690.00,0.49
6689.00,0.49
6688.00,0.49
6687.00,0.49
6686.00,0.49
6685.00,0.49
6684.00,0.49
6683.00,0.49
6682.00,0.49
6681.00,0.49
6680.00,0.49
6679.00,0.49
6678.00,0.49
6677.00,0.49
6676.00,0.49
6675.00,0.49
6674.00,0.49
6673.00,0.49
6672.00,0.50
6671.00,0.50
6670.00,0.50
6669.00,0.50
6668.00,0.50
6667.00,0.50
6666.00,0.50
6665.00,0.50
6664.00,0.50
6663.00,0.50
6662.00,0.51
6661.00,0.51
6660.00,0.51
6659.00,0.51
6658.00,0.51
6657.00,0.51
6656.00,0.51
6655.00,0.51
6654.00,0.51
6653.00,0.52
6652.00,0.52
6651.00,0.52
6650.00,0.52
6649.00,0.52
6648.00,0.52
6647.00,0.52
6646.00,0.52
6645.00,0.52
6644.00,0.52
6643.00,0.52
6642.00,0.52
6641.00,0.53
6640.00,0.53
6639.00,0.53
6638.00,0.53
6637.00,0.53
6636.00,0.53
6635.00,0.53
6634.00,0.53
6633.00,0.53
6632.00,0.53
6631.00,0.53
6630.00,0.53
6629.00,0.53
6628.00,0.53
6627.00,0.53
6626.00,0.53
6625.00,0.53
6624.00,0.53
6623.00,0.53
6622.00,0.53
6621.00,0.53
6620.00,0.53
6619.00,0.53
6618.00,0.53
6617.00,0.53
6616.00,0.53
6615.00,0.53
6614.00,0.53
6613.00,0.53
6612.00,0.54
6611.00,0.54
6610.00,0.54
6609.00,0.54
6608.00,0.54
6607.00,0.54
6606.00,0.54
6605.00,0.54
6604.00,0.54
6603.00,0.55
6602.00,0.55
6601.00,0.55
6600.00,0.55
6599.00,0.55
6598.00,0.55
6597.00,0.55
6596.00,0.55
6595.00,0.55
6594.00,0.55
6593.00,0.55
6592.00,0.56
6591.00,0.56
6590.00,0.56
6589.00,0.56
6588.00,0.56
6587.00,0.56
6586.00,0.56
6585.00,0.56
6584.00,0.56
6583.00,0.56
6582.00,0.56
6581.00,0.56
6580.00,0.56
6579.00,0.56
6578.00,0.56
6577.00,0.56
6576.00,0.56
6575.00,0.56
6574.00,0.57
6573.00,0.57
6572.00,0.57
6571.00,0.57
6570.00,0.57
6569.00,0.57
6568.00,0.57
6567.00,0.57
6566.00,0.57
6565.00,0.57
6564.00,0.57
6563.00,0.57
6562.00,0.57
6561.00,0.57
6560.00,0.57
6559.00,0.58
6558.00,0.58
6557.00,0.58
6556.00,0.58
6555.00,0.58
6554.00,0.58
6553.00,0.58
6552.00,0.58
6551.00,0.58
6550.00,0.58
6549.00,0.58
6548.00,0.58
6547.00,0.58
6546.00,0.58
6545.00,0.58
6544.00,0.58
6543.00,0.58
6542.00,0.58
6541.00,0.58
6540.00,0.58
6539.00,0.58
6538.00,0.59
6537.00,0.59
6536.00,0.59
6535.00,0.59
6534.00,0.59
6533.00,0.59
6532.00,0.59
6531.00,0.59
6530.00,0.59
6529.00,0.59
6528.00,0.60
6527.00,0.60
6526.00,0.60
6525.00,0.60
6524.00,0.60
6523.00,0.60
6522.00,0.60
6521.00,0.60
6520.00,0.60
6519.00,0.60
6518.00,0.60
6517.00,0.60
6516.00,0.60
6515.00,0.60
6514.00,0.60
6513.00,0.60
6512.00,0.60
6511.00,0.60
6510.00,0.61
6509.00,0.61
6508.00,0.61
6507.00,0.61
6506.00,0.61
6505.00,0.61
6504.00,0.61
6503.00,0.61
6502.00,0.61
6501.00,0.61
6500.00,0.61
6499.00,0.61
6498.00,0.61
6497.00,0.61
6496.00,0.61
6495.00,0.61
6494.00,0.61
6493.00,0.61
6492.00,0.61
6491.00,0.61
6490.00,0.61
6489.00,0.62
6488.00,0.62
6487.00,0.62
6486.00,0.62
6485.00,0.62
6484.00,0.62
6483.00,0.62
6482.00,0.62
6481.00,0.62
6480.00,0.62
6479.00,0.62
6478.00,0.62
6477.00,0.62
6476.00,0.62
6475.00,0.62
6474.00,0.62
6473.00,0.62
6472.00,0.62
6471.00,0.62
6470.00,0.62
6469.00,0.62
6468.00,0.63
6467.00,0.63
6466.00,0.63
6465.00,0.63
6464.00,0.63
6463.00,0.63
6462.00,0.63
6461.00,0.63
6460.00,0.63
6459.00,0.63
6458.00,0.63
6457.00,0.63
6456.00,0.63
6455.00,0.63
6454.00,0.63
6453.00,0.63
6452.00,0.63
6451.00,0.63
6450.00,0.64
6449.00,0.64
6448.00,0.64
6447.00,0.64
6446.00,0.64
6445.00,0.64
6444.00,0.64
6443.00,0.64
6442.00,0.64
6441.00,0.64
6440.00,0.64
6439.00,0.64
6438.00,0.64
6437.00,0.64
6436.00,0.64
6435.00,0.64
6434.00,0.64
6433.00,0.64
6432.00,0.64
6431.00,0.64
6430.00,0.64
6429.00,0.64
6428.00,0.64
6427.00,0.65
6426.00,0.65
6425.00,0.65
6424.00,0.65
6423.00,0.65
6422.00,0.65
6421.00,0.65
6420.00,0.65
6419.00,0.65
6418.00,0.65
6417.00,0.65
6416.00,0.65
6415.00,0.65
6414.00,0.65
6413.00,0.65
6412.00,0.65
6411.00,0.65
6410.00,0.65
6409.00,0.65
6408.00,0.65
6407.00,0.65
6406.00,0.65
6405.00,0.65
6404.00,0.66
6403.00,0.66
6402.00,0.66
6401.00,0.66
6400.00,0.66
6399.00,0.66
6398.00,0.66
6397.00,0.66
6396.00,0.66
6395.00,0.66
6394.00,0.66
6393.00,0.66
6392.00,0.66
6391.00,0.66
6390.00,0.66
6389.00,0.66
6388.00,0.66
6387.00,0.66
6386.00,0.66
6385.00,0.66
6384.00,0.66
6383.00,0.66
6382.00,0.66
6381.00,0.66
6380.00,0.67
6379.00,0.67
6378.00,0.67
6377.00,0.67
6376.00,0.67
6375.00,0.67
6374.00,0.67
6373.00,0.67
6372.00,0.67
6371.00,0.67
6370.00,0.67
6369.00,0.67
6368.00,0.68
6367.00,0.68
6366.00,0.68
6365.00,0.68
6364.00,0.68
6363.00,0.68
6362.00,0.68
6361.00,0.68
6360.00,0.68
6359.00,0.68
6358.00,0.68
6357.00,0.68
6356.00,0.68
6355.00,0.68
6354.00,0.68
6353.00,0.68
6352.00,0.68
6351.00,0.68
6350.00,0.68
6349.00,0.69
6348.00,0.69
6347.00,0.69
6346.00,0.69
6345.00,0.69
6344.00,0.69
6343.00,0.69
6342.00,0.69
6341.00,0.69
6340.00,0.69
6339.00,0.69
6338.00,0.69
6337.00,0.69
6336.00,0.69
6335.00,0.69
6334.00,0.69
6333.00,0.70
6332.00,0.70
6331.00,0.70
6330.00,0.70
6329.00,0.70
6328.00,0.70
6327.00,0.70
6326.00,0.70
6325.00,0.70
6324.00,0.70
6323.00,0.70
6322.00,0.70
6321.00,0.70
6320.00,0.70
6319.00,0.70
6318.00,0.70
6317.00,0.70
6316.00,0.71
6315.00,0.71
6314.00,0.71
6313.00,0.71
6312.00,0.71
6311.00,0.71
6310.00,0.71
6309.00,0.71
6308.00,0.71
6307.00,0.71
6306.00,0.71
6305.00,0.71
6304.00,0.72
6303.00,0.72
6302.00,0.72
6301.00,0.72
6300.00,0.72
6299.00,0.72
6298.00,0.72
6297.00,0.72
6296.00,0.72
6295.00,0.72
6294.00,0.72
6293.00,0.72
6292.00,0.73
6291.00,0.73
6290.00,0.73
6289.00,0.73
6288.00,0.73
6287.00,0.73
6286.00,0.73
6285.00,0.73
6284.00,0.73
6283.00,0.73
6282.00,0.73
6281.00,0.74
6280.00,0.74
6279.00,0.74
6278.00,0.74
6277.00,0.74
6276.00,0.74
6275.00,0.74
6274.00,0.74
6273.00,0.74
6272.00,0.74
6271.00,0.74
6270.00,0.74
6269.00,0.74
6268.00,0.75
6267.00,0.75
6266.00,0.75
6265.00,0.75
6264.00,0.75
6263.00,0.75
6262.00,0.75
6261.00,0.75
6260.00,0.75
6259.00,0.75
6258.00,0.76
6257.00,0.76
6256.00,0.76
6255.00,0.76
6254.00,0.76
6253.00,0.76
6252.00,0.76
6251.00,0.76
6250.00,0.76
6249.00,0.76
6248.00,0.76
6247.00,0.77
6246.00,0.77
6245.00,0.77
6244.00,0.77
6243.00,0.77
6242.00,0.77
6241.00,0.77
6240.00,0.77
6239.00,0.77
6238.00,0.77
6237.00,0.78
6236.00,0.78
6235.00,0.78
6234.00,0.78
6233.00,0.78
6232.00,0.78
6231.00,0.78
6230.00,0.78
6229.00,0.78
6228.00,0.79
6227.00,0.79
6226.00,0.79
6225.00,0.79
6224.00,0.79
6223.00,0.79
6222.00,0.79
6221.00,0.79
6220.00,0.79
6219.00,0.79
6218.00,0.79
6217.00,0.79
6216.00,0.80
6215.00,0.80
6214.00,0.80
6213.00,0.80
6212.00,0.80
6211.00,0.80
6210.00,0.80
6209.00,0.80
6208.00,0.80
6207.00,0.80
6206.00,0.80
6205.00,0.80
6204.00,0.81
6203.00,0.81
6202.00,0.81
6201.00,0.81
6200.00,0.81
6199.00,0.81
6198.00,0.81
6197.00,0.81
6196.00,0.81
6195.00,0.82
6194.00,0.82
6193.00,0.82
6192.00,0.82
6191.00,0.82
6190.00,0.82
6189.00,0.82
6188.00,0.83
6187.00,0.83
6186.00,0.83
6185.00,0.83
6184.00,0.83
6183.00,0.83
6182.00,0.83
6181.00,0.83
6180.00,0.84
6179.00,0.84
6178.00,0.84
6177.00,0.84
6176.00,0.84
6175.00,0.84
6174.00,0.84
6173.00,0.84
6172.00,0.85
6171.00,0.85
6170.00,0.85
6169.00,0.85
6168.00,0.85
6167.00,0.85
6166.00,0.85
6165.00,0.85
6164.00,0.85
6163.00,0.86
6162.00,0.86
6161.00,0.86
6160.00,0.86
6159.00,0.86
6158.00,0.86
6157.00,0.86
6156.00,0.86
6155.00,0.86
6154.00,0.86
6153.00,0.86
6152.00,0.87
6151.00,0.87
6150.00,0.87
6149.00,0.87
6148.00,0.87
6147.00,0.87
6146.00,0.87
6145.00,0.88
6144.00,0.88
6143.00,0.88
6142.00,0.88
6141.00,0.88
6140.00,0.88
6139.00,0.88
6138.00,0.88
6137.00,0.89
6136.00,0.89
6135.00,0.89
6134.00,0.89
6133.00,0.89
6132.00,0.89
6131.00,0.89
6130.00,0.89
6129.00,0.90
6128.00,0.90
6127.00,0.90
6126.00,0.90
6125.00,0.90
6124.00,0.90
6123.00,0.90
6122.00,0.90
6121.00,0.90
6120.00,0.91
6119.00,0.91
6118.00,0.91
6117.00,0.91
6116.00,0.91
6115.00,0.91
6114.00,0.91
6113.00,0.91
6112.00,0.91
6111.00,0.92
6110.00,0.92
6109.00,0.92
6108.00,0.92
6107.00,0.92
6106.00,0.92
6105.00,0.92
6104.00,0.92
6103.00,0.92
6102.00,0.93
6101.00,0.93
6100.00,0.93
6099.00,0.93
6098.00,0.93
6097.00,0.93
6096.00,0.93
6095.00,0.93
6094.00,0.94
6093.00,0.94
6092.00,0.94
6091.00,0.94
6090.00,0.94
6089.00,0.94
6088.00,0.94
6087.00,0.94
6086.00,0.95
6085.00,0.95
6084.00,0.95
6083.00,0.95
6082.00,0.95
6081.00,0.95
6080.00,0.95
6079.00,0.95
6078.00,0.96
6077.00,0.96
6076.00,0.96
6075.00,0.96
6074.00,0.96
6073.00,0.96
6072.00,0.96
6071.00,0.96
6070.00,0.96
6069.00,0.96
6068.00,0.96
6067.00,0.96
6066.00,0.96
6065.00,0.96
6064.00,0.97
6063.00,0.97
6062.00,0.97
6061.00,0.97
6060.00,0.97
6059.00,0.97
6058.00,0.97
6057.00,0.97
6056.00,0.97
6055.00,0.97
6054.00,0.97
6053.00,0.97
6052.00,0.97
6051.00,0.97
6050.00,0.98
6049.00,0.98
6048.00,0.98
6047.00,0.98
6046.00,0.98
6045.00,0.98
6044.00,0.98
6043.00,0.98
6042.00,0.98
6041.00,0.98
6040.00,0.98
6039.00,0.98
6038.00,0.98
6037.00,0.98
6036.00,0.99
6035.00,0.99
6034.00,0.99
6033.00,0.99
6032.00,0.99
6031.00,0.99
6030.00,0.99
6029.00,0.99
6028.00,0.99
6027.00,0.99
6026.00,0.99
6025.00,0.99
6024.00,0.99
6023.00,0.99
6022.00,0.99
6021.00,0.99
6020.00,0.99
6019.00,0.99
6018.00,0.99
6017.00,0.99
6016.00,0.99
6015.00,0.99
6014.00,0.99
6013.00,0.99
6012.00,0.99
6011.00,0.99
6010.00,0.99
6009.00,0.99
6008.00,0.99
6007.00,0.99
6006.00,0.99
6005.00,0.99
6004.00,0.99
6003.00,0.99
6002.00,0.99
6001.00,0.99
6000.00,0.99
5999.00,0.99
5998.00,0.98
5997.00,0.98
5996.00,0.98
5995.00,0.98
5994.00,0.98
5993.00,0.98
5992.00,0.98
5991.00,0.98
5990.00,0.98
5989.00,0.97
5988.00,0.97
5987.00,0.97
5986.00,0.97
5985.00,0.97
5984.00,0.97
5983.00,0.96
5982.00,0.96
5981.00,0.96
5980.00,0.96
5979.00,0.95
5978.00,0.95
5977.00,0.95
5976.00,0.94
5975.00,0.94
5974.00,0.93
5973.00,0.93
5972.00,0.93
5971.00,0.92
5970.00,0.92
5969.00,0.91
5968.00,0.91
5967.00,0.90
5966.00,0.90
5965.00,0.89
5964.00,0.89
5963.00,0.88
5962.00,0.87
5961.00,0.87
5960.00,0.86
5959.00,0.86
5958.00,0.85
5957.00,0.84
5956.00,0.84
5955.00,0.83
5954.00,0.83
5953.00,0.82
5952.00,0.82
5951.00,0.81
5950.00,0.81
5949.00,0.80
5948.00,0.80
5947.00,0.79
5946.00,0.79
5945.00,0.79
5944.00,0.78
5943.00,0.78
5942.00,0.78
5941.00,0.78
5940.00,0.78
5939.00,0.78
5938.00,0.78
5937.00,0.78
5936.00,0.78
5935.00,0.78
5934.00,0.78
5933.00,0.78
5932.00,0.78
5931.00,0.78
5930.00,0.78
5929.00,0.77
5928.00,0.77
5927.00,0.77
5926.00,0.77
5925.00,0.77
5924.00,0.77
5923.00,0.77
5922.00,0.77
5921.00,0.77
5920.00,0.76
5919.00,0.76
5918.00,0.76
5917.00,0.76
5916.00,0.75
5915.00,0.75
5914.00,0.75
5913.00,0.75
5912.00,0.75
5911.00,0.74
5910.00,0.74
5909.00,0.74
5908.00,0.74
5907.00,0.74
5906.00,0.74
5905.00,0.73
5904.00,0.73
5903.00,0.73
5902.00,0.73
5901.00,0.73
5900.00,0.73
5899.00,0.73
5898.00,0.73
5897.00,0.74
5896.00,0.74
5895.00,0.74
5894.00,0.74
5893.00,0.74
5892.00,0.74
5891.00,0.75
5890.00,0.75
5889.00,0.75
5888.00,0.75
5887.00,0.76
5886.00,0.76
5885.00,0.76
5884.00,0.76
5883.00,0.77
5882.00,0.77
5881.00,0.77
5880.00,0.77
5879.00,0.77
5878.00,0.78
5877.00,0.78
5876.00,0.78
5875.00,0.78
5874.00,0.78
5873.00,0.78
5872.00,0.79
5871.00,0.79
5870.00,0.79
5869.00,0.79
5868.00,0.79
5867.00,0.79
5866.00,0.79
5865.00,0.80
5864.00,0.80
5863.00,0.80
5862.00,0.80
5861.00,0.80
5860.00,0.80
5859.00,0.80
5858.00,0.80
5857.00,0.80
5856.00,0.80
5855.00,0.80
5854.00,0.81
5853.00,0.81
5852.00,0.81
5851.00,0.81
5850.00,0.81
5849.00,0.81
5848.00,0.81
5847.00,0.81
5846.00,0.81
5845.00,0.81
5844.00,0.81
5843.00,0.81
5842.00,0.81
5841.00,0.81
5840.00,0.81
5839.00,0.81
5838.00,0.81
5837.00,0.81
5836.00,0.81
5835.00,0.81
5834.00,0.81
5833.00,0.81
5832.00,0.81
5831.00,0.81
5830.00,0.81
5829.00,0.81
5828.00,0.81
5827.00,0.81
5826.00,0.82
5825.00,0.82
5824.00,0.82
5823.00,0.82
5822.00,0.82
5821.00,0.82
5820.00,0.82
5819.00,0.82
5818.00,0.82
5817.00,0.82
5816.00,0.82
5815.00,0.82
5814.00,0.82
5813.00,0.82
5812.00,0.82
5811.00,0.82
5810.00,0.82
5809.00,0.82
5808.00,0.82
5807.00,0.82
5806.00,0.82
5805.00,0.81
5804.00,0.81
5803.00,0.81
5802.00,0.81
5801.00,0.81
5800.00,0.81
5799.00,0.81
5798.00,0.81
5797.00,0.80
5796.00,0.80
5795.00,0.80
5794.00,0.80
5793.00,0.80
5792.00,0.80
5791.00,0.79
5790.00,0.79
5789.00,0.79
5788.00,0.79
5787.00,0.79
5786.00,0.79
5785.00,0.79
5784.00,0.78
5783.00,0.78
5782.00,0.78
5781.00,0.78
5780.00,0.78
5779.00,0.78
5778.00,0.78
5777.00,0.78
5776.00,0.78
5775.00,0.78
5774.00,0.78
5773.00,0.78
5772.00,0.78
5771.00,0.77
5770.00,0.78
5769.00,0.78
5768.00,0.78
5767.00,0.78
5766.00,0.78
5765.00,0.78
5764.00,0.78
5763.00,0.78
5762.00,0.78
5761.00,0.78
5760.00,0.79
5759.00,0.79
5758.00,0.79
5757.00,0.79
5756.00,0.80
5755.00,0.80
5754.00,0.80
5753.00,0.80
5752.00,0.81
5751.00,0.81
5750.00,0.81
5749.00,0.82
5748.00,0.82
5747.00,0.82
5746.00,0.83
5745.00,0.83
5744.00,0.83
5743.00,0.84
5742.00,0.84
5741.00,0.84
5740.00,0.85
5739.00,0.85
5738.00,0.85
5737.00,0.85
5736.00,0.85
5735.00,0.86
5734.00,0.86
5733.00,0.86
5732.00,0.86
5731.00,0.86
5730.00,0.86
5729.00,0.86
5728.00,0.86
5727.00,0.86
5726.00,0.86
5725.00,0.86
5724.00,0.86
5723.00,0.86
5722.00,0.86
5721.00,0.86
5720.00,0.86
5719.00,0.86
5718.00,0.86
5717.00,0.86
5716.00,0.86
5715.00,0.86
5714.00,0.86
5713.00,0.86
5712.00,0.86
5711.00,0.86
5710.00,0.86
5709.00,0.86
5708.00,0.86
5707.00,0.86
5706.00,0.86
5705.00,0.86
5704.00,0.86
5703.00,0.86
5702.00,0.86
5701.00,0.86
5700.00,0.86
5699.00,0.86
5698.00,0.86
5697.00,0.86
5696.00,0.86
5695.00,0.85
5694.00,0.85
5693.00,0.85
5692.00,0.85
5691.00,0.85
5690.00,0.85
5689.00,0.85
5688.00,0.84
5687.00,0.84
5686.00,0.84
5685.00,0.84
5684.00,0.84
5683.00,0.84
5682.00,0.83
5681.00,0.83
5680.00,0.83
5679.00,0.83
5678.00,0.83
5677.00,0.83
5676.00,0.83
5675.00,0.83
5674.00,0.83
5673.00,0.83
5672.00,0.83
5671.00,0.83
5670.00,0.83
5669.00,0.83
5668.00,0.83
5667.00,0.83
5666.00,0.83
5665.00,0.83
5664.00,0.83
5663.00,0.83
5662.00,0.84
5661.00,0.84
5660.00,0.84
5659.00,0.84
5658.00,0.84
5657.00,0.84
5656.00,0.85
5655.00,0.85
5654.00,0.85
5653.00,0.85
5652.00,0.85
5651.00,0.85
5650.00,0.85
5649.00,0.86
5648.00,0.86
5647.00,0.86
5646.00,0.86
5645.00,0.86
5644.00,0.87
5643.00,0.87
5642.00,0.87
5641.00,0.87
5640.00,0.87
5639.00,0.87
5638.00,0.88
5637.00,0.88
5636.00,0.88
5635.00,0.88
5634.00,0.88
5633.00,0.89
5632.00,0.89
5631.00,0.89
5630.00,0.89
5629.00,0.89
5628.00,0.89
5627.00,0.89
5626.00,0.90
5625.00,0.90
5624.00,0.90
5623.00,0.90
5622.00,0.90
5621.00,0.90
5620.00,0.90
5619.00,0.90
5618.00,0.90
5617.00,0.91
5616.00,0.91
5615.00,0.91
5614.00,0.91
5613.00,0.91
5612.00,0.91
5611.00,0.91
5610.00,0.91
5609.00,0.91
5608.00,0.91
5607.00,0.92
5606.00,0.92
5605.00,0.92
5604.00,0.92
5603.00,0.92
5602.00,0.92
5601.00,0.92
5600.00,0.92
5599.00,0.92
5598.00,0.93
5597.00,0.93
5596.00,0.93
5595.00,0.93
5594.00,0.93
5593.00,0.93
5592.00,0.93
5591.00,0.94
5590.00,0.94
5589.00,0.94
5588.00,0.94
5587.00,0.94
5586.00,0.94
5585.00,0.94
5584.00,0.95
5583.00,0.95
5582.00,0.95
5581.00,0.95
5580.00,0.95
5579.00,0.95
5578.00,0.95
5577.00,0.95
5576.00,0.96
5575.00,0.96
5574.00,0.96
5573.00,0.96
5572.00,0.96
5571.00,0.96
5570.00,0.96
5569.00,0.97
5568.00,0.97
5567.00,0.97
5566.00,0.97
5565.00,0.97
5564.00,0.97
5563.00,0.97
5562.00,0.97
5561.00,0.97
5560.00,0.97
5559.00,0.97
5558.00,0.97
5557.00,0.98
5556.00,0.98
5555.00,0.98
5554.00,0.98
5553.00,0.98
5552.00,0.98
5551.00,0.98
5550.00,0.98
5549.00,0.98
5548.00,0.98
5547.00,0.98
5546.00,0.99
5545.00,0.99
5544.00,0.99
5543.00,0.99
5542.00,0.99
5541.00,0.99
5540.00,0.99
5539.00,1.00
5538.00,1.00
5537.00,1.00
5536.00,1.00
5535.00,1.00
5534.00,1.00
5533.00,1.00
5532.00,1.00
5531.00,1.00
5530.00,1.00
5529.00,1.00
5528.00,1.00
5527.00,1.00
5526.00,1.00
5525.00,1.01
5524.00,1.01
5523.00,1.01
5522.00,1.01
5521.00,1.01
5520.00,1.01
5519.00,1.01
5518.00,1.01
5517.00,1.01
5516.00,1.01
5515.00,1.01
5514.00,1.01
5513.00,1.01
5512.00,1.01
5511.00,1.01
5510.00,1.01
5509.00,1.01
5508.00,1.01
5507.00,1.01
5506.00,1.01
5505.00,1.01
5504.00,1.01
5503.00,1.01
5502.00,1.02
5501.00,1.02
5500.00,1.02
5499.00,1.02
5498.00,1.02
5497.00,1.02
5496.00,1.02
5495.00,1.02
5494.00,1.02
5493.00,1.02
5492.00,1.02
5491.00,1.03
5490.00,1.03
5489.00,1.03
5488.00,1.03
5487.00,1.03
5486.00,1.03
5485.00,1.03
5484.00,1.03
5483.00,1.04
5482.00,1.04
5481.00,1.04
5480.00,1.04
5479.00,1.04
5478.00,1.04
5477.00,1.04
5476.00,1.04
5475.00,1.04
5474.00,1.04
5473.00,1.04
5472.00,1.04
5471.00,1.04
5470.00,1.04
5469.00,1.04
5468.00,1.05
5467.00,1.05
5466.00,1.05
5465.00,1.05
5464.00,1.05
5463.00,1.05
5462.00,1.05
5461.00,1.05
5460.00,1.05
5459.00,1.05
5458.00,1.05
5457.00,1.05
5456.00,1.05
5455.00,1.05
5454.00,1.05
5453.00,1.05
5452.00,1.05
5451.00,1.05
5450.00,1.05
5449.00,1.05
5448.00,1.05
5447.00,1.05
5446.00,1.05
5445.00,1.05
5444.00,1.05
5443.00,1.05
5442.00,1.05
5441.00,1.05
5440.00,1.05
5439.00,1.05
5438.00,1.05
5437.00,1.05
5436.00,1.05
5435.00,1.05
5434.00,1.05
5433.00,1.06
5432.00,1.06
5431.00,1.06
5430.00,1.06
5429.00,1.06
5428.00,1.06
5427.00,1.06
5426.00,1.06
5425.00,1.06
5424.00,1.06
5423.00,1.06
5422.00,1.06
5421.00,1.06
5420.00,1.06
5419.00,1.06
5418.00,1.06
5417.00,1.06
5416.00,1.06
5415.00,1.06
5414.00,1.06
5413.00,1.06
5412.00,1.06
5411.00,1.06
5410.00,1.06
5409.00,1.06
5408.00,1.06
5407.00,1.06
5406.00,1.06
5405.00,1.06
5404.00,1.06
5403.00,1.06
5402.00,1.06
5401.00,1.06
5400.00,1.06
5399.00,1.06
5398.00,1.06
5397.00,1.05
5396.00,1.05
5395.00,1.05
5394.00,1.05
5393.00,1.05
5392.00,1.05
5391.00,1.05
5390.00,1.04
5389.00,1.04
5388.00,1.04
5387.00,1.04
5386.00,1.04
5385.00,1.03
5384.00,1.03
5383.00,1.03
5382.00,1.03
5381.00,1.03
5380.00,1.02
5379.00,1.02
5378.00,1.02
5377.00,1.02
5376.00,1.01
5375.00,1.01
5374.00,1.01
5373.00,1.00
5372.00,1.00
5371.00,1.00
5370.00,0.99
5369.00,0.99
5368.00,0.98
5367.00,0.98
5366.00,0.98
5365.00,0.97
5364.00,0.97
5363.00,0.96
5362.00,0.96
5361.00,0.95
5360.00,0.95
5359.00,0.94
5358.00,0.94
5357.00,0.93
5356.00,0.92
5355.00,0.92
5354.00,0.91
5353.00,0.90
5352.00,0.90
5351.00,0.89
5350.00,0.88
5349.00,0.87
5348.00,0.87
5347.00,0.86
5346.00,0.85
5345.00,0.85
5344.00,0.84
5343.00,0.83
5342.00,0.82
5341.00,0.82
5340.00,0.81
5339.00,0.80
5338.00,0.80
5337.00,0.79
5336.00,0.78
5335.00,0.77
5334.00,0.77
5333.00,0.76
5332.00,0.75
5331.00,0.75
5330.00,0.74
5329.00,0.73
5328.00,0.73
5327.00,0.72
5326.00,0.72
5325.00,0.71
5324.00,0.70
5323.00,0.70
5322.00,0.69
5321.00,0.68
5320.00,0.68
5319.00,0.67
5318.00,0.67
5317.00,0.66
5316.00,0.66
5315.00,0.65
5314.00,0.64
5313.00,0.64
5312.00,0.63
5311.00,0.63
5310.00,0.62
5309.00,0.62
5308.00,0.61
5307.00,0.61
5306.00,0.61
5305.00,0.60
5304.00,0.60
5303.00,0.59
5302.00,0.59
5301.00,0.59
5300.00,0.59
5299.00,0.58
5298.00,0.58
5297.00,0.58
5296.00,0.58
5295.00,0.57
5294.00,0.57
5293.00,0.57
5292.00,0.57
5291.00,0.57
5290.00,0.57
5289.00,0.56
5288.00,0.56
5287.00,0.56
5286.00,0.56
5285.00,0.56
5284.00,0.56
5283.00,0.56
5282.00,0.56
5281.00,0.56
5280.00,0.56
5279.00,0.56
5278.00,0.56
5277.00,0.56
5276.00,0.56
5275.00,0.56
5274.00,0.56
5273.00,0.55
5272.00,0.55
5271.00,0.55
5270.00,0.55
5269.00,0.55
5268.00,0.55
5267.00,0.55
5266.00,0.55
5265.00,0.55
5264.00,0.55
5263.00,0.55
5262.00,0.55
5261.00,0.55
5260.00,0.55
5259.00,0.55
5258.00,0.55
5257.00,0.55
5256.00,0.56
5255.00,0.56
5254.00,0.56
5253.00,0.56
5252.00,0.56
5251.00,0.56
5250.00,0.56
5249.00,0.56
5248.00,0.56
5247.00,0.56
5246.00,0.56
5245.00,0.56
5244.00,0.56
5243.00,0.56
5242.00,0.56
5241.00,0.56
5240.00,0.56
5239.00,0.56
5238.00,0.56
5237.00,0.56
5236.00,0.56
5235.00,0.56
5234.00,0.56
5233.00,0.56
5232.00,0.56
5231.00,0.56
5230.00,0.56
5229.00,0.56
5228.00,0.56
5227.00,0.56
5226.00,0.56
5225.00,0.56
5224.00,0.56
5223.00,0.56
5222.00,0.56
5221.00,0.56
5220.00,0.56
5219.00,0.56
5218.00,0.56
5217.00,0.56
5216.00,0.56
5215.00,0.56
5214.00,0.56
5213.00,0.56
5212.00,0.56
5211.00,0.56
5210.00,0.56
5209.00,0.56
5208.00,0.56
5207.00,0.56
5206.00,0.56
5205.00,0.56
5204.00,0.56
5203.00,0.56
5202.00,0.56
5201.00,0.56
5200.00,0.56
5199.00,0.56
5198.00,0.56
5197.00,0.57
5196.00,0.57
5195.00,0.57
5194.00,0.57
5193.00,0.57
5192.00,0.57
5191.00,0.57
5190.00,0.57
5189.00,0.57
5188.00,0.57
5187.00,0.57
5186.00,0.57
5185.00,0.57
5184.00,0.57
5183.00,0.57
5182.00,0.57
5181.00,0.57
5180.00,0.57
5179.00,0.57
5178.00,0.57
5177.00,0.58
5176.00,0.58
5175.00,0.58
5174.00,0.58
5173.00,0.58
5172.00,0.58
5171.00,0.58
5170.00,0.58
5169.00,0.58
5168.00,0.58
5167.00,0.58
5166.00,0.58
5165.00,0.58
5164.00,0.58
5163.00,0.58
5162.00,0.58
5161.00,0.58
5160.00,0.58
5159.00,0.58
5158.00,0.58
5157.00,0.58
5156.00,0.58
5155.00,0.58
5154.00,0.58
5153.00,0.58
5152.00,0.58
5151.00,0.58
5150.00,0.58
5149.00,0.58
5148.00,0.59
5147.00,0.59
5146.00,0.59
5145.00,0.59
5144.00,0.59
5143.00,0.59
5142.00,0.59
5141.00,0.59
5140.00,0.59
5139.00,0.59
5138.00,0.59
5137.00,0.59
5136.00,0.59
5135.00,0.59
5134.00,0.59
5133.00,0.59
5132.00,0.59
5131.00,0.59
5130.00,0.59
5129.00,0.59
5128.00,0.59
5127.00,0.59
5126.00,0.59
5125.00,0.60
5124.00,0.60
5123.00,0.60
5122.00,0.60
5121.00,0.60
5120.00,0.60
5119.00,0.60
5118.00,0.60
5117.00,0.60
5116.00,0.60
5115.00,0.60
5114.00,0.60
5113.00,0.60
5112.00,0.60
5111.00,0.60
5110.00,0.60
5109.00,0.60
5108.00,0.60
5107.00,0.60
5106.00,0.60
5105.00,0.60
5104.00,0.60
5103.00,0.60
5102.00,0.60
5101.00,0.60
5100.00,0.60
5099.00,0.60
5098.00,0.60
5097.00,0.60
5096.00,0.60
5095.00,0.60
5094.00,0.60
5093.00,0.60
5092.00,0.60
5091.00,0.60
5090.00,0.60
5089.00,0.60
5088.00,0.60
5087.00,0.61
5086.00,0.61
5085.00,0.61
5084.00,0.61
5083.00,0.61
5082.00,0.61
5081.00,0.61
5080.00,0.61
5079.00,0.61
5078.00,0.61
5077.00,0.61
5076.00,0.61
5075.00,0.61
5074.00,0.61
5073.00,0.61
5072.00,0.61
5071.00,0.61
5070.00,0.61
5069.00,0.61
5068.00,0.61
5067.00,0.61
5066.00,0.62
5065.00,0.62
5064.00,0.62
5063.00,0.62
5062.00,0.62
5061.00,0.62
5060.00,0.62
5059.00,0.62
5058.00,0.62
5057.00,0.62
5056.00,0.62
5055.00,0.62
5054.00,0.62
5053.00,0.62
5052.00,0.62
5051.00,0.62
5050.00,0.62
5049.00,0.62
5048.00,0.62
5047.00,0.63
5046.00,0.63
5045.00,0.63
5044.00,0.63
5043.00,0.63
5042.00,0.63
5041.00,0.63
5040.00,0.63
5039.00,0.63
5038.00,0.63
5037.00,0.63
5036.00,0.63
5035.00,0.63
5034.00,0.63
5033.00,0.63
5032.00,0.63
5031.00,0.63
5030.00,0.63
5029.00,0.63
5028.00,0.63
5027.00,0.63
5026.00,0.63
5025.00,0.63
5024.00,0.63
5023.00,0.63
5022.00,0.63
5021.00,0.63
5020.00,0.63
5019.00,0.63
5018.00,0.64
5017.00,0.64
5016.00,0.64
5015.00,0.64
5014.00,0.64
5013.00,0.64
5012.00,0.64
5011.00,0.64
5010.00,0.64
5009.00,0.64
5008.00,0.64
5007.00,0.64
5006.00,0.64
5005.00,0.64
5004.00,0.64
5003.00,0.65
5002.00,0.65
5001.00,0.65
5000.00,0.65
4999.00,0.65
4998.00,0.65
4997.00,0.65
4996.00,0.65
4995.00,0.65
4994.00,0.65
4993.00,0.65
4992.00,0.65
4991.00,0.65
4990.00,0.65
4989.00,0.65
4988.00,0.65
4987.00,0.65
4986.00,0.65
4985.00,0.65
4984.00,0.65
4983.00,0.65
4982.00,0.65
4981.00,0.65
4980.00,0.65
4979.00,0.65
4978.00,0.65
4977.00,0.66
4976.00,0.66
4975.00,0.66
4974.00,0.66
4973.00,0.66
4972.00,0.66
4971.00,0.66
4970.00,0.66
4969.00,0.66
4968.00,0.66
4967.00,0.66
4966.00,0.66
4965.00,0.67
4964.00,0.67
4963.00,0.67
4962.00,0.67
4961.00,0.67
4960.00,0.67
4959.00,0.67
4958.00,0.67
4957.00,0.67
4956.00,0.67
4955.00,0.67
4954.00,0.67
4953.00,0.67
4952.00,0.67
4951.00,0.67
4950.00,0.67
4949.00,0.67
4948.00,0.67
4947.00,0.67
4946.00,0.67
4945.00,0.67
4944.00,0.67
4943.00,0.67
4942.00,0.67
4941.00,0.67
4940.00,0.68
4939.00,0.68
4938.00,0.68
4937.00,0.68
4936.00,0.68
4935.00,0.68
4934.00,0.68
4933.00,0.68
4932.00,0.68
4931.00,0.68
4930.00,0.68
4929.00,0.68
4928.00,0.68
4927.00,0.68
4926.00,0.68
4925.00,0.68
4924.00,0.68
4923.00,0.69
4922.00,0.69
4921.00,0.69
4920.00,0.69
4919.00,0.69
4918.00,0.69
4917.00,0.69
4916.00,0.69
4915.00,0.69
4914.00,0.69
4913.00,0.69
4912.00,0.69
4911.00,0.69
4910.00,0.69
4909.00,0.69
4908.00,0.70
4907.00,0.70
4906.00,0.70
4905.00,0.70
4904.00,0.70
4903.00,0.70
4902.00,0.70
4901.00,0.70
4900.00,0.70
4899.00,0.70
4898.00,0.70
4897.00,0.70
4896.00,0.70
4895.00,0.70
4894.00,0.70
4893.00,0.70
4892.00,0.70
4891.00,0.70
4890.00,0.70
4889.00,0.70
4888.00,0.70
4887.00,0.70
4886.00,0.70
4885.00,0.70
4884.00,0.70
4883.00,0.70
4882.00,0.70
4881.00,0.70
4880.00,0.70
4879.00,0.70
4878.00,0.70
4877.00,0.70
4876.00,0.70
4875.00,0.70
4874.00,0.70
4873.00,0.70
4872.00,0.70
4871.00,0.70
4870.00,0.70
4869.00,0.70
4868.00,0.70
4867.00,0.71
4866.00,0.71
4865.00,0.71
4864.00,0.71
4863.00,0.71
4862.00,0.71
4861.00,0.71
4860.00,0.71
4859.00,0.71
4858.00,0.72
4857.00,0.72
4856.00,0.72
4855.00,0.72
4854.00,0.72
4853.00,0.72
4852.00,0.72
4851.00,0.72
4850.00,0.72
4849.00,0.72
4848.00,0.72
4847.00,0.72
4846.00,0.72
4845.00,0.72
4844.00,0.72
4843.00,0.72
4842.00,0.72
4841.00,0.72
4840.00,0.72
4839.00,0.72
4838.00,0.72
4837.00,0.72
4836.00,0.72
4835.00,0.72
4834.00,0.72
4833.00,0.72
4832.00,0.72
4831.00,0.72
4830.00,0.72
4829.00,0.72
4828.00,0.73
4827.00,0.73
4826.00,0.73
4825.00,0.73
4824.00,0.73
4823.00,0.73
4822.00,0.73
4821.00,0.73
4820.00,0.73
4819.00,0.73
4818.00,0.73
4817.00,0.74
4816.00,0.74
4815.00,0.74
4814.00,0.74
4813.00,0.74
4812.00,0.74
4811.00,0.74
4810.00,0.74
4809.00,0.74
4808.00,0.74
4807.00,0.74
4806.00,0.74
4805.00,0.74
4804.00,0.74
4803.00,0.74
4802.00,0.74
4801.00,0.74
4800.00,0.74
4799.00,0.74
4798.00,0.74
4797.00,0.74
4796.00,0.74
4795.00,0.74
4794.00,0.74
4793.00,0.74
4792.00,0.74
4791.00,0.75
4790.00,0.75
4789.00,0.75
4788.00,0.75
4787.00,0.75
4786.00,0.75
4785.00,0.75
4784.00,0.75
4783.00,0.76
4782.00,0.76
4781.00,0.76
4780.00,0.76
4779.00,0.76
4778.00,0.76
4777.00,0.76
4776.00,0.76
4775.00,0.77
4774.00,0.77
4773.00,0.77
4772.00,0.77
4771.00,0.77
4770.00,0.77
4769.00,0.77
4768.00,0.77
4767.00,0.77
4766.00,0.77
4765.00,0.77
4764.00,0.77
4763.00,0.77
4762.00,0.77
4761.00,0.77
4760.00,0.77
4759.00,0.77
4758.00,0.77
4757.00,0.77
4756.00,0.77
4755.00,0.77
4754.00,0.77
4753.00,0.77
4752.00,0.78
4751.00,0.78
4750.00,0.78
4749.00,0.78
4748.00,0.78
4747.00,0.78
4746.00,0.78
4745.00,0.78
4744.00,0.78
4743.00,0.78
4742.00,0.78
4741.00,0.78
4740.00,0.78
4739.00,0.78
4738.00,0.79
4737.00,0.79
4736.00,0.79
4735.00,0.79
4734.00,0.79
4733.00,0.79
4732.00,0.79
4731.00,0.79
4730.00,0.79
4729.00,0.79
4728.00,0.79
4727.00,0.79
4726.00,0.80
4725.00,0.80
4724.00,0.80
4723.00,0.80
4722.00,0.80
4721.00,0.80
4720.00,0.80
4719.00,0.80
4718.00,0.81
4717.00,0.81
4716.00,0.81
4715.00,0.81
4714.00,0.81
4713.00,0.81
4712.00,0.81
4711.00,0.81
4710.00,0.81
4709.00,0.81
4708.00,0.81
4707.00,0.82
4706.00,0.82
4705.00,0.82
4704.00,0.82
4703.00,0.82
4702.00,0.82
4701.00,0.82
4700.00,0.82
4699.00,0.82
4698.00,0.82
4697.00,0.82
4696.00,0.82
4695.00,0.82
4694.00,0.82
4693.00,0.83
4692.00,0.83
4691.00,0.83
4690.00,0.83
4689.00,0.83
4688.00,0.83
4687.00,0.83
4686.00,0.83
4685.00,0.84
4684.00,0.84
4683.00,0.84
4682.00,0.84
4681.00,0.84
4680.00,0.84
4679.00,0.84
4678.00,0.84
4677.00,0.84
4676.00,0.84
4675.00,0.84
4674.00,0.84
4673.00,0.85
4672.00,0.85
4671.00,0.85
4670.00,0.85
4669.00,0.85
4668.00,0.85
4667.00,0.85
4666.00,0.85
4665.00,0.85
4664.00,0.85
4663.00,0.85
4662.00,0.86
4661.00,0.86
4660.00,0.86
4659.00,0.86
4658.00,0.86
4657.00,0.86
4656.00,0.86
4655.00,0.87
4654.00,0.87
4653.00,0.87
4652.00,0.87
4651.00,0.87
4650.00,0.87
4649.00,0.87
4648.00,0.88
4647.00,0.88
4646.00,0.88
4645.00,0.88
4644.00,0.88
4643.00,0.88
4642.00,0.88
4641.00,0.88
4640.00,0.88
4639.00,0.88
4638.00,0.88
4637.00,0.88
4636.00,0.88
4635.00,0.88
4634.00,0.88
4633.00,0.88
4632.00,0.88
4631.00,0.88
4630.00,0.88
4629.00,0.88
4628.00,0.88
4627.00,0.88
4626.00,0.88
4625.00,0.88
4624.00,0.88
4623.00,0.88
4622.00,0.89
4621.00,0.89
4620.00,0.89
4619.00,0.89
4618.00,0.89
4617.00,0.89
4616.00,0.89
4615.00,0.89
4614.00,0.89
4613.00,0.89
4612.00,0.89
4611.00,0.89
4610.00,0.90
4609.00,0.90
4608.00,0.90
4607.00,0.90
4606.00,0.90
4605.00,0.90
4604.00,0.90
4603.00,0.90
4602.00,0.90
4601.00,0.90
4600.00,0.90
4599.00,0.90
4598.00,0.90
4597.00,0.90
4596.00,0.90
4595.00,0.90
4594.00,0.90
4593.00,0.90
4592.00,0.90
4591.00,0.90
4590.00,0.90
4589.00,0.90
4588.00,0.90
4587.00,0.90
4586.00,0.90
4585.00,0.90
4584.00,0.90
4583.00,0.90
4582.00,0.90
4581.00,0.90
4580.00,0.90
4579.00,0.90
4578.00,0.90
4577.00,0.90
4576.00,0.91
4575.00,0.91
4574.00,0.91
4573.00,0.91
4572.00,0.91
4571.00,0.91
4570.00,0.91
4569.00,0.91
4568.00,0.91
4567.00,0.91
4566.00,0.92
4565.00,0.92
4564.00,0.92
4563.00,0.92
4562.00,0.92
4561.00,0.92
4560.00,0.92
4559.00,0.92
4558.00,0.92
4557.00,0.93
4556.00,0.93
4555.00,0.93
4554.00,0.93
4553.00,0.93
4552.00,0.93
4551.00,0.93
4550.00,0.93
4549.00,0.93
4548.00,0.93
4547.00,0.93
4546.00,0.93
4545.00,0.93
4544.00,0.93
4543.00,0.93
4542.00,0.93
4541.00,0.93
4540.00,0.93
4539.00,0.93
4538.00,0.93
4537.00,0.93
4536.00,0.93
4535.00,0.93
4534.00,0.93
4533.00,0.93
4532.00,0.93
4531.00,0.93
4530.00,0.93
4529.00,0.93
4528.00,0.93
4527.00,0.93
4526.00,0.93
4525.00,0.94
4524.00,0.94
4523.00,0.94
4522.00,0.94
4521.00,0.94
4520.00,0.94
4519.00,0.94
4518.00,0.94
4517.00,0.94
4516.00,0.94
4515.00,0.94
4514.00,0.94
4513.00,0.94
4512.00,0.94
4511.00,0.94
4510.00,0.95
4509.00,0.95
4508.00,0.95
4507.00,0.95
4506.00,0.95
4505.00,0.95
4504.00,0.95
4503.00,0.95
4502.00,0.95
4501.00,0.95
4500.00,0.94
4499.00,0.94
4498.00,0.94
4497.00,0.94
4496.00,0.94
4495.00,0.94
4494.00,0.94
4493.00,0.94
4492.00,0.94
4491.00,0.94
4490.00,0.94
4489.00,0.94
4488.00,0.94
4487.00,0.94
4486.00,0.94
4485.00,0.94
4484.00,0.94
4483.00,0.94
4482.00,0.94
4481.00,0.94
4480.00,0.93
4479.00,0.93
4478.00,0.93
4477.00,0.93
4476.00,0.93
4475.00,0.93
4474.00,0.92
4473.00,0.92
4472.00,0.92
4471.00,0.92
4470.00,0.91
4469.00,0.91
4468.00,0.91
4467.00,0.91
4466.00,0.91
4465.00,0.91
4464.00,0.91
4463.00,0.91
4462.00,0.90
4461.00,0.90
4460.00,0.90
4459.00,0.90
4458.00,0.90
4457.00,0.90
4456.00,0.90
4455.00,0.90
4454.00,0.90
4453.00,0.90
4452.00,0.90
4451.00,0.90
4450.00,0.89
4449.00,0.89
4448.00,0.89
4447.00,0.89
4446.00,0.89
4445.00,0.88
4444.00,0.88
4443.00,0.88
4442.00,0.88
4441.00,0.88
4440.00,0.87
4439.00,0.87
4438.00,0.87
4437.00,0.87
4436.00,0.87
4435.00,0.87
4434.00,0.86
4433.00,0.86
4432.00,0.86
4431.00,0.86
4430.00,0.86
4429.00,0.86
4428.00,0.86
4427.00,0.86
4426.00,0.86
4425.00,0.86
4424.00,0.86
4423.00,0.86
4422.00,0.86
4421.00,0.86
4420.00,0.86
4419.00,0.86
4418.00,0.86
4417.00,0.86
4416.00,0.86
4415.00,0.86
4414.00,0.86
4413.00,0.86
4412.00,0.86
4411.00,0.86
4410.00,0.86
4409.00,0.86
4408.00,0.86
4407.00,0.86
4406.00,0.86
4405.00,0.86
4404.00,0.86
4403.00,0.86
4402.00,0.86
4401.00,0.86
4400.00,0.86
4399.00,0.86
4398.00,0.86
4397.00,0.86
4396.00,0.86
4395.00,0.86
4394.00,0.86
4393.00,0.86
4392.00,0.86
4391.00,0.86
4390.00,0.86
4389.00,0.86
4388.00,0.87
4387.00,0.87
4386.00,0.87
4385.00,0.87
4384.00,0.87
4383.00,0.87
4382.00,0.88
4381.00,0.88
4380.00,0.88
4379.00,0.88
4378.00,0.88
4377.00,0.88
4376.00,0.88
4375.00,0.88
4374.00,0.89
4373.00,0.89
4372.00,0.89
4371.00,0.89
4370.00,0.89
4369.00,0.89
4368.00,0.89
4367.00,0.89
4366.00,0.89
4365.00,0.89
4364.00,0.89
4363.00,0.89
4362.00,0.89
4361.00,0.89
4360.00,0.89
4359.00,0.89
4358.00,0.89
4357.00,0.89
4356.00,0.89
4355.00,0.89
4354.00,0.89
4353.00,0.89
4352.00,0.89
4351.00,0.89
4350.00,0.89
4349.00,0.89
4348.00,0.89
4347.00,0.89
4346.00,0.89
4345.00,0.89
4344.00,0.89
4343.00,0.89
4342.00,0.89
4341.00,0.89
4340.00,0.90
4339.00,0.90
4338.00,0.90
4337.00,0.90
4336.00,0.90
4335.00,0.90
4334.00,0.90
4333.00,0.90
4332.00,0.90
4331.00,0.90
4330.00,0.90
4329.00,0.90
4328.00,0.90
4327.00,0.90
4326.00,0.90
4325.00,0.90
4324.00,0.90
4323.00,0.90
4322.00,0.90
4321.00,0.90
4320.00,0.91
4319.00,0.91
4318.00,0.91
4317.00,0.91
4316.00,0.91
4315.00,0.91
4314.00,0.91
4313.00,0.91
4312.00,0.91
4311.00,0.91
4310.00,0.91
4309.00,0.91
4308.00,0.91
4307.00,0.91
4306.00,0.91
4305.00,0.92
4304.00,0.92
4303.00,0.92
4302.00,0.92
4301.00,0.92
4300.00,0.92
4299.00,0.92
4298.00,0.92
4297.00,0.93
4296.00,0.93
4295.00,0.93
4294.00,0.93
4293.00,0.93
4292.00,0.93
4291.00,0.93
4290.00,0.93
4289.00,0.93
4288.00,0.93
4287.00,0.93
4286.00,0.93
4285.00,0.93
4284.00,0.93
4283.00,0.93
4282.00,0.93
4281.00,0.93
4280.00,0.93
4279.00,0.93
4278.00,0.93
4277.00,0.93
4276.00,0.93
4275.00,0.93
4274.00,0.93
4273.00,0.94
4272.00,0.94
4271.00,0.94
4270.00,0.94
4269.00,0.94
4268.00,0.94
4267.00,0.94
4266.00,0.94
4265.00,0.94
4264.00,0.94
4263.00,0.94
4262.00,0.94
4261.00,0.94
4260.00,0.94
4259.00,0.94
4258.00,0.94
4257.00,0.94
4256.00,0.94
4255.00,0.94
4254.00,0.94
4253.00,0.94
4252.00,0.94
4251.00,0.94
4250.00,0.94
4249.00,0.94
4248.00,0.94
4247.00,0.94
4246.00,0.94
4245.00,0.94
4244.00,0.95
4243.00,0.95
4242.00,0.95
4241.00,0.95
4240.00,0.95
4239.00,0.95
4238.00,0.95
4237.00,0.95
4236.00,0.95
4235.00,0.95
4234.00,0.95
4233.00,0.95
4232.00,0.95
4231.00,0.95
4230.00,0.95
4229.00,0.96
4228.00,0.96
4227.00,0.96
4226.00,0.96
4225.00,0.96
4224.00,0.96
4223.00,0.96
4222.00,0.96
4221.00,0.96
4220.00,0.96
4219.00,0.97
4218.00,0.97
4217.00,0.97
4216.00,0.97
4215.00,0.97
4214.00,0.97
4213.00,0.97
4212.00,0.97
4211.00,0.97
4210.00,0.97
4209.00,0.97
4208.00,0.97
4207.00,0.97
4206.00,0.97
4205.00,0.97
4204.00,0.97
4203.00,0.97
4202.00,0.97
4201.00,0.97
4200.00,0.97
4199.00,0.97
4198.00,0.97
4197.00,0.97
4196.00,0.98
4195.00,0.98
4194.00,0.98
4193.00,0.98
4192.00,0.98
4191.00,0.98
4190.00,0.98
4189.00,0.98
4188.00,0.98
4187.00,0.99
4186.00,0.99
4185.00,0.99
4184.00,0.99
4183.00,0.99
4182.00,0.99
4181.00,0.99
4180.00,0.99
4179.00,0.99
4178.00,0.99
4177.00,0.99
4176.00,0.99
4175.00,0.99
4174.00,0.99
4173.00,0.99
4172.00,0.99
4171.00,0.99
4170.00,0.99
4169.00,0.99
4168.00,0.99
4167.00,0.99
4166.00,0.99
4165.00,0.99
4164.00,0.99
4163.00,0.99
4162.00,0.99
4161.00,0.99
4160.00,0.99
4159.00,0.99
4158.00,0.99
4157.00,0.99
4156.00,0.99
4155.00,0.99
4154.00,0.99
4153.00,0.99
4152.00,0.99
4151.00,0.99
4150.00,0.99
4149.00,0.99
4148.00,0.99
4147.00,0.99
4146.00,0.99
4145.00,0.99
4144.00,0.99
4143.00,0.99
4142.00,1.00
4141.00,1.00
4140.00,1.00
4139.00,1.00
4138.00,1.00
4137.00,1.00
4136.00,1.00
4135.00,1.00
4134.00,1.00
4133.00,1.00
4132.00,1.00
4131.00,1.00
4130.00,1.00
4129.00,1.00
4128.00,1.00
4127.00,1.00
4126.00,1.00
4125.00,1.00
4124.00,1.00
4123.00,1.00
4122.00,1.00
4121.00,1.00
4120.00,1.01
4119.00,1.01
4118.00,1.01
4117.00,1.01
4116.00,1.01
4115.00,1.01
4114.00,1.01
4113.00,1.01
4112.00,1.01
4111.00,1.02
4110.00,1.02
4109.00,1.02
4108.00,1.02
4107.00,1.02
4106.00,1.02
4105.00,1.02
4104.00,1.02
4103.00,1.03
4102.00,1.03
4101.00,1.03
4100.00,1.03
4099.00,1.03
4098.00,1.03
4097.00,1.03
4096.00,1.03
4095.00,1.03
4094.00,1.02
4093.00,1.02
4092.00,1.02
4091.00,1.02
4090.00,1.02
4089.00,1.02
4088.00,1.02
4087.00,1.02
4086.00,1.02
4085.00,1.01
4084.00,1.01
4083.00,1.01
4082.00,1.01
4081.00,1.01
4080.00,1.02
4079.00,1.02
4078.00,1.02
4077.00,1.02
4076.00,1.02
4075.00,1.02
4074.00,1.02
4073.00,1.02
4072.00,1.03
4071.00,1.03
4070.00,1.03
4069.00,1.03
4068.00,1.03
4067.00,1.03
4066.00,1.03
4065.00,1.03
4064.00,1.03
4063.00,1.03
4062.00,1.03
4061.00,1.03
4060.00,1.03
4059.00,1.03
4058.00,1.03
4057.00,1.03
4056.00,1.03
4055.00,1.03
4054.00,1.03
4053.00,1.03
4052.00,1.03
4051.00,1.03
4050.00,1.03
4049.00,1.03
4048.00,1.03
4047.00,1.03
4046.00,1.03
4045.00,1.03
4044.00,1.03
4043.00,1.03
4042.00,1.03
4041.00,1.03
4040.00,1.03
4039.00,1.03
4038.00,1.03
4037.00,1.03
4036.00,1.03
4035.00,1.03
4034.00,1.03
4033.00,1.03
4032.00,1.03
4031.00,1.03
4030.00,1.04
4029.00,1.04
4028.00,1.04
4027.00,1.04
4026.00,1.04
4025.00,1.04
4024.00,1.04
4023.00,1.04
4022.00,1.04
4021.00,1.04
4020.00,1.05
4019.00,1.05
4018.00,1.05
4017.00,1.05
4016.00,1.05
4015.00,1.05
4014.00,1.05
4013.00,1.05
4012.00,1.05
4011.00,1.05
4010.00,1.05
4009.00,1.05
4008.00,1.05
4007.00,1.05
4006.00,1.05
4005.00,1.06
4004.00,1.06
4003.00,1.06
4002.00,1.06
4001.00,1.06
4000.00,1.06
