创建为新数据集,样品 795 用户 Administrator 日期 星期五, 七月 20 2018
cm-1,%T
10000.00,1.11
9999.00,1.11
9998.00,1.11
9997.00,1.10
9996.00,1.10
9995.00,1.10
9994.00,1.10
9993.00,1.09
9992.00,1.09
9991.00,1.09
9990.00,1.09
9989.00,1.09
9988.00,1.09
9987.00,1.09
9986.00,1.09
9985.00,1.09
9984.00,1.09
9983.00,1.09
9982.00,1.09
9981.00,1.09
9980.00,1.09
9979.00,1.09
9978.00,1.09
9977.00,1.09
9976.00,1.09
9975.00,1.09
9974.00,1.09
9973.00,1.09
9972.00,1.10
9971.00,1.10
9970.00,1.10
9969.00,1.10
9968.00,1.10
9967.00,1.10
9966.00,1.10
9965.00,1.10
9964.00,1.10
9963.00,1.10
9962.00,1.11
9961.00,1.11
9960.00,1.11
9959.00,1.11
9958.00,1.11
9957.00,1.11
9956.00,1.11
9955.00,1.11
9954.00,1.10
9953.00,1.10
9952.00,1.10
9951.00,1.10
9950.00,1.10
9949.00,1.09
9948.00,1.09
9947.00,1.09
9946.00,1.08
9945.00,1.08
9944.00,1.08
9943.00,1.08
9942.00,1.07
9941.00,1.07
9940.00,1.07
9939.00,1.07
9938.00,1.07
9937.00,1.07
9936.00,1.07
9935.00,1.07
9934.00,1.08
9933.00,1.08
9932.00,1.08
9931.00,1.08
9930.00,1.08
9929.00,1.09
9928.00,1.09
9927.00,1.09
9926.00,1.09
9925.00,1.09
9924.00,1.09
9923.00,1.09
9922.00,1.09
9921.00,1.09
9920.00,1.09
9919.00,1.08
9918.00,1.08
9917.00,1.08
9916.00,1.08
9915.00,1.08
9914.00,1.08
9913.00,1.07
9912.00,1.07
9911.00,1.07
9910.00,1.07
9909.00,1.07
9908.00,1.07
9907.00,1.07
9906.00,1.07
9905.00,1.07
9904.00,1.07
9903.00,1.07
9902.00,1.07
9901.00,1.07
9900.00,1.07
9899.00,1.07
9898.00,1.08
9897.00,1.08
9896.00,1.08
9895.00,1.08
9894.00,1.08
9893.00,1.08
9892.00,1.08
9891.00,1.08
9890.00,1.08
9889.00,1.08
9888.00,1.08
9887.00,1.08
9886.00,1.08
9885.00,1.08
9884.00,1.08
9883.00,1.07
9882.00,1.07
9881.00,1.07
9880.00,1.07
9879.00,1.07
9878.00,1.06
9877.00,1.06
9876.00,1.06
9875.00,1.06
9874.00,1.06
9873.00,1.05
9872.00,1.05
9871.00,1.05
9870.00,1.05
9869.00,1.05
9868.00,1.05
9867.00,1.05
9866.00,1.05
9865.00,1.05
9864.00,1.05
9863.00,1.06
9862.00,1.06
9861.00,1.06
9860.00,1.06
9859.00,1.06
9858.00,1.07
9857.00,1.07
9856.00,1.07
9855.00,1.08
9854.00,1.08
9853.00,1.08
9852.00,1.08
9851.00,1.08
9850.00,1.09
9849.00,1.09
9848.00,1.09
9847.00,1.09
9846.00,1.09
9845.00,1.09
9844.00,1.09
9843.00,1.09
9842.00,1.09
9841.00,1.09
9840.00,1.09
9839.00,1.09
9838.00,1.09
9837.00,1.09
9836.00,1.08
9835.00,1.08
9834.00,1.08
9833.00,1.08
9832.00,1.08
9831.00,1.08
9830.00,1.08
9829.00,1.08
9828.00,1.08
9827.00,1.08
9826.00,1.08
9825.00,1.08
9824.00,1.08
9823.00,1.07
9822.00,1.07
9821.00,1.07
9820.00,1.07
9819.00,1.07
9818.00,1.07
9817.00,1.07
9816.00,1.07
9815.00,1.07
9814.00,1.07
9813.00,1.07
9812.00,1.07
9811.00,1.07
9810.00,1.07
9809.00,1.07
9808.00,1.07
9807.00,1.08
9806.00,1.08
9805.00,1.08
9804.00,1.09
9803.00,1.09
9802.00,1.09
9801.00,1.09
9800.00,1.09
9799.00,1.10
9798.00,1.10
9797.00,1.10
9796.00,1.10
9795.00,1.10
9794.00,1.10
9793.00,1.10
9792.00,1.09
9791.00,1.09
9790.00,1.09
9789.00,1.09
9788.00,1.08
9787.00,1.08
9786.00,1.08
9785.00,1.08
9784.00,1.07
9783.00,1.07
9782.00,1.07
9781.00,1.07
9780.00,1.07
9779.00,1.07
9778.00,1.07
9777.00,1.07
9776.00,1.07
9775.00,1.07
9774.00,1.07
9773.00,1.07
9772.00,1.07
9771.00,1.07
9770.00,1.08
9769.00,1.08
9768.00,1.08
9767.00,1.08
9766.00,1.08
9765.00,1.09
9764.00,1.09
9763.00,1.09
9762.00,1.09
9761.00,1.09
9760.00,1.09
9759.00,1.09
9758.00,1.09
9757.00,1.09
9756.00,1.09
9755.00,1.09
9754.00,1.09
9753.00,1.09
9752.00,1.09
9751.00,1.08
9750.00,1.08
9749.00,1.08
9748.00,1.08
9747.00,1.07
9746.00,1.07
9745.00,1.07
9744.00,1.07
9743.00,1.06
9742.00,1.06
9741.00,1.06
9740.00,1.06
9739.00,1.06
9738.00,1.06
9737.00,1.06
9736.00,1.06
9735.00,1.07
9734.00,1.07
9733.00,1.07
9732.00,1.07
9731.00,1.07
9730.00,1.08
9729.00,1.08
9728.00,1.08
9727.00,1.08
9726.00,1.08
9725.00,1.09
9724.00,1.09
9723.00,1.09
9722.00,1.09
9721.00,1.09
9720.00,1.09
9719.00,1.09
9718.00,1.08
9717.00,1.08
9716.00,1.08
9715.00,1.08
9714.00,1.08
9713.00,1.08
9712.00,1.08
9711.00,1.08
9710.00,1.08
9709.00,1.08
9708.00,1.08
9707.00,1.08
9706.00,1.08
9705.00,1.08
9704.00,1.08
9703.00,1.08
9702.00,1.08
9701.00,1.08
9700.00,1.08
9699.00,1.08
9698.00,1.08
9697.00,1.08
9696.00,1.08
9695.00,1.08
9694.00,1.08
9693.00,1.08
9692.00,1.08
9691.00,1.09
9690.00,1.09
9689.00,1.09
9688.00,1.09
9687.00,1.09
9686.00,1.09
9685.00,1.10
9684.00,1.10
9683.00,1.10
9682.00,1.10
9681.00,1.10
9680.00,1.10
9679.00,1.10
9678.00,1.10
9677.00,1.10
9676.00,1.10
9675.00,1.10
9674.00,1.10
9673.00,1.09
9672.00,1.09
9671.00,1.09
9670.00,1.09
9669.00,1.09
9668.00,1.09
9667.00,1.09
9666.00,1.09
9665.00,1.09
9664.00,1.09
9663.00,1.09
9662.00,1.09
9661.00,1.09
9660.00,1.09
9659.00,1.09
9658.00,1.09
9657.00,1.09
9656.00,1.09
9655.00,1.09
9654.00,1.09
9653.00,1.09
9652.00,1.09
9651.00,1.09
9650.00,1.09
9649.00,1.08
9648.00,1.08
9647.00,1.08
9646.00,1.08
9645.00,1.08
9644.00,1.07
9643.00,1.07
9642.00,1.07
9641.00,1.07
9640.00,1.06
9639.00,1.06
9638.00,1.06
9637.00,1.05
9636.00,1.05
9635.00,1.05
9634.00,1.05
9633.00,1.05
9632.00,1.05
9631.00,1.04
9630.00,1.04
9629.00,1.04
9628.00,1.04
9627.00,1.05
9626.00,1.05
9625.00,1.05
9624.00,1.05
9623.00,1.05
9622.00,1.05
9621.00,1.06
9620.00,1.06
9619.00,1.06
9618.00,1.06
9617.00,1.07
9616.00,1.07
9615.00,1.07
9614.00,1.07
9613.00,1.08
9612.00,1.08
9611.00,1.08
9610.00,1.08
9609.00,1.08
9608.00,1.09
9607.00,1.09
9606.00,1.09
9605.00,1.09
9604.00,1.09
9603.00,1.09
9602.00,1.09
9601.00,1.09
9600.00,1.09
9599.00,1.09
9598.00,1.09
9597.00,1.09
9596.00,1.09
9595.00,1.09
9594.00,1.08
9593.00,1.08
9592.00,1.08
9591.00,1.08
9590.00,1.08
9589.00,1.08
9588.00,1.08
9587.00,1.08
9586.00,1.07
9585.00,1.07
9584.00,1.07
9583.00,1.07
9582.00,1.07
9581.00,1.07
9580.00,1.07
9579.00,1.07
9578.00,1.07
9577.00,1.07
9576.00,1.07
9575.00,1.07
9574.00,1.07
9573.00,1.07
9572.00,1.07
9571.00,1.07
9570.00,1.06
9569.00,1.06
9568.00,1.06
9567.00,1.06
9566.00,1.06
9565.00,1.06
9564.00,1.06
9563.00,1.06
9562.00,1.06
9561.00,1.06
9560.00,1.06
9559.00,1.06
9558.00,1.06
9557.00,1.06
9556.00,1.07
9555.00,1.07
9554.00,1.07
9553.00,1.07
9552.00,1.07
9551.00,1.07
9550.00,1.08
9549.00,1.08
9548.00,1.08
9547.00,1.08
9546.00,1.08
9545.00,1.08
9544.00,1.08
9543.00,1.08
9542.00,1.08
9541.00,1.08
9540.00,1.08
9539.00,1.08
9538.00,1.08
9537.00,1.08
9536.00,1.07
9535.00,1.07
9534.00,1.07
9533.00,1.07
9532.00,1.07
9531.00,1.07
9530.00,1.07
9529.00,1.07
9528.00,1.07
9527.00,1.07
9526.00,1.07
9525.00,1.08
9524.00,1.08
9523.00,1.08
9522.00,1.08
9521.00,1.08
9520.00,1.08
9519.00,1.09
9518.00,1.09
9517.00,1.09
9516.00,1.09
9515.00,1.09
9514.00,1.10
9513.00,1.10
9512.00,1.10
9511.00,1.10
9510.00,1.10
9509.00,1.10
9508.00,1.11
9507.00,1.11
9506.00,1.11
9505.00,1.11
9504.00,1.11
9503.00,1.11
9502.00,1.10
9501.00,1.10
9500.00,1.10
9499.00,1.10
9498.00,1.10
9497.00,1.10
9496.00,1.09
9495.00,1.09
9494.00,1.09
9493.00,1.09
9492.00,1.09
9491.00,1.09
9490.00,1.08
9489.00,1.08
9488.00,1.08
9487.00,1.08
9486.00,1.08
9485.00,1.08
9484.00,1.08
9483.00,1.08
9482.00,1.08
9481.00,1.08
9480.00,1.07
9479.00,1.07
9478.00,1.07
9477.00,1.07
9476.00,1.07
9475.00,1.07
9474.00,1.07
9473.00,1.07
9472.00,1.07
9471.00,1.07
9470.00,1.07
9469.00,1.07
9468.00,1.07
9467.00,1.07
9466.00,1.07
9465.00,1.07
9464.00,1.07
9463.00,1.07
9462.00,1.07
9461.00,1.07
9460.00,1.08
9459.00,1.08
9458.00,1.08
9457.00,1.08
9456.00,1.08
9455.00,1.08
9454.00,1.09
9453.00,1.09
9452.00,1.09
9451.00,1.09
9450.00,1.09
9449.00,1.09
9448.00,1.09
9447.00,1.10
9446.00,1.10
9445.00,1.10
9444.00,1.10
9443.00,1.10
9442.00,1.10
9441.00,1.10
9440.00,1.10
9439.00,1.10
9438.00,1.10
9437.00,1.10
9436.00,1.10
9435.00,1.10
9434.00,1.10
9433.00,1.10
9432.00,1.10
9431.00,1.10
9430.00,1.09
9429.00,1.09
9428.00,1.09
9427.00,1.09
9426.00,1.09
9425.00,1.09
9424.00,1.09
9423.00,1.09
9422.00,1.09
9421.00,1.09
9420.00,1.09
9419.00,1.08
9418.00,1.08
9417.00,1.08
9416.00,1.08
9415.00,1.08
9414.00,1.08
9413.00,1.08
9412.00,1.08
9411.00,1.08
9410.00,1.08
9409.00,1.08
9408.00,1.08
9407.00,1.08
9406.00,1.08
9405.00,1.08
9404.00,1.08
9403.00,1.08
9402.00,1.08
9401.00,1.08
9400.00,1.08
9399.00,1.09
9398.00,1.09
9397.00,1.09
9396.00,1.09
9395.00,1.09
9394.00,1.09
9393.00,1.09
9392.00,1.09
9391.00,1.09
9390.00,1.09
9389.00,1.09
9388.00,1.09
9387.00,1.09
9386.00,1.09
9385.00,1.09
9384.00,1.09
9383.00,1.09
9382.00,1.09
9381.00,1.09
9380.00,1.09
9379.00,1.09
9378.00,1.08
9377.00,1.08
9376.00,1.08
9375.00,1.08
9374.00,1.08
9373.00,1.07
9372.00,1.07
9371.00,1.07
9370.00,1.07
9369.00,1.07
9368.00,1.07
9367.00,1.07
9366.00,1.07
9365.00,1.07
9364.00,1.07
9363.00,1.08
9362.00,1.08
9361.00,1.08
9360.00,1.08
9359.00,1.09
9358.00,1.09
9357.00,1.09
9356.00,1.09
9355.00,1.10
9354.00,1.10
9353.00,1.10
9352.00,1.10
9351.00,1.10
9350.00,1.10
9349.00,1.11
9348.00,1.11
9347.00,1.11
9346.00,1.11
9345.00,1.11
9344.00,1.11
9343.00,1.11
9342.00,1.10
9341.00,1.10
9340.00,1.10
9339.00,1.10
9338.00,1.10
9337.00,1.10
9336.00,1.10
9335.00,1.09
9334.00,1.09
9333.00,1.09
9332.00,1.09
9331.00,1.09
9330.00,1.09
9329.00,1.08
9328.00,1.08
9327.00,1.08
9326.00,1.08
9325.00,1.08
9324.00,1.08
9323.00,1.08
9322.00,1.07
9321.00,1.07
9320.00,1.07
9319.00,1.07
9318.00,1.07
9317.00,1.07
9316.00,1.07
9315.00,1.07
9314.00,1.07
9313.00,1.08
9312.00,1.08
9311.00,1.08
9310.00,1.08
9309.00,1.08
9308.00,1.08
9307.00,1.08
9306.00,1.09
9305.00,1.09
9304.00,1.09
9303.00,1.09
9302.00,1.09
9301.00,1.09
9300.00,1.09
9299.00,1.09
9298.00,1.09
9297.00,1.09
9296.00,1.09
9295.00,1.09
9294.00,1.09
9293.00,1.09
9292.00,1.09
9291.00,1.09
9290.00,1.09
9289.00,1.08
9288.00,1.08
9287.00,1.08
9286.00,1.08
9285.00,1.08
9284.00,1.08
9283.00,1.08
9282.00,1.08
9281.00,1.08
9280.00,1.08
9279.00,1.08
9278.00,1.08
9277.00,1.08
9276.00,1.08
9275.00,1.08
9274.00,1.09
9273.00,1.09
9272.00,1.09
9271.00,1.09
9270.00,1.09
9269.00,1.09
9268.00,1.09
9267.00,1.10
9266.00,1.10
9265.00,1.10
9264.00,1.10
9263.00,1.10
9262.00,1.10
9261.00,1.10
9260.00,1.10
9259.00,1.10
9258.00,1.10
9257.00,1.09
9256.00,1.09
9255.00,1.09
9254.00,1.09
9253.00,1.09
9252.00,1.09
9251.00,1.09
9250.00,1.08
9249.00,1.08
9248.00,1.08
9247.00,1.08
9246.00,1.08
9245.00,1.08
9244.00,1.08
9243.00,1.08
9242.00,1.08
9241.00,1.08
9240.00,1.08
9239.00,1.09
9238.00,1.09
9237.00,1.09
9236.00,1.09
9235.00,1.09
9234.00,1.09
9233.00,1.09
9232.00,1.09
9231.00,1.10
9230.00,1.10
9229.00,1.10
9228.00,1.10
9227.00,1.10
9226.00,1.10
9225.00,1.10
9224.00,1.10
9223.00,1.10
9222.00,1.10
9221.00,1.10
9220.00,1.10
9219.00,1.10
9218.00,1.10
9217.00,1.10
9216.00,1.10
9215.00,1.10
9214.00,1.10
9213.00,1.10
9212.00,1.10
9211.00,1.10
9210.00,1.10
9209.00,1.09
9208.00,1.09
9207.00,1.09
9206.00,1.09
9205.00,1.09
9204.00,1.08
9203.00,1.08
9202.00,1.08
9201.00,1.08
9200.00,1.08
9199.00,1.08
9198.00,1.08
9197.00,1.08
9196.00,1.08
9195.00,1.08
9194.00,1.08
9193.00,1.08
9192.00,1.08
9191.00,1.08
9190.00,1.09
9189.00,1.09
9188.00,1.09
9187.00,1.09
9186.00,1.09
9185.00,1.09
9184.00,1.10
9183.00,1.10
9182.00,1.10
9181.00,1.10
9180.00,1.10
9179.00,1.10
9178.00,1.10
9177.00,1.10
9176.00,1.10
9175.00,1.10
9174.00,1.10
9173.00,1.10
9172.00,1.10
9171.00,1.10
9170.00,1.10
9169.00,1.10
9168.00,1.10
9167.00,1.10
9166.00,1.11
9165.00,1.11
9164.00,1.11
9163.00,1.11
9162.00,1.11
9161.00,1.11
9160.00,1.11
9159.00,1.11
9158.00,1.10
9157.00,1.10
9156.00,1.10
9155.00,1.10
9154.00,1.10
9153.00,1.10
9152.00,1.09
9151.00,1.09
9150.00,1.09
9149.00,1.09
9148.00,1.09
9147.00,1.09
9146.00,1.08
9145.00,1.08
9144.00,1.08
9143.00,1.08
9142.00,1.08
9141.00,1.09
9140.00,1.09
9139.00,1.09
9138.00,1.09
9137.00,1.09
9136.00,1.09
9135.00,1.09
9134.00,1.10
9133.00,1.10
9132.00,1.10
9131.00,1.10
9130.00,1.10
9129.00,1.10
9128.00,1.10
9127.00,1.10
9126.00,1.10
9125.00,1.10
9124.00,1.10
9123.00,1.10
9122.00,1.10
9121.00,1.10
9120.00,1.10
9119.00,1.10
9118.00,1.10
9117.00,1.10
9116.00,1.10
9115.00,1.10
9114.00,1.10
9113.00,1.10
9112.00,1.10
9111.00,1.10
9110.00,1.10
9109.00,1.10
9108.00,1.10
9107.00,1.10
9106.00,1.10
9105.00,1.10
9104.00,1.10
9103.00,1.10
9102.00,1.10
9101.00,1.09
9100.00,1.09
9099.00,1.09
9098.00,1.09
9097.00,1.09
9096.00,1.09
9095.00,1.09
9094.00,1.09
9093.00,1.09
9092.00,1.09
9091.00,1.09
9090.00,1.09
9089.00,1.10
9088.00,1.10
9087.00,1.10
9086.00,1.10
9085.00,1.10
9084.00,1.10
9083.00,1.10
9082.00,1.10
9081.00,1.10
9080.00,1.11
9079.00,1.11
9078.00,1.11
9077.00,1.11
9076.00,1.10
9075.00,1.10
9074.00,1.10
9073.00,1.10
9072.00,1.10
9071.00,1.10
9070.00,1.10
9069.00,1.10
9068.00,1.10
9067.00,1.10
9066.00,1.09
9065.00,1.09
9064.00,1.09
9063.00,1.09
9062.00,1.09
9061.00,1.09
9060.00,1.09
9059.00,1.09
9058.00,1.09
9057.00,1.09
9056.00,1.09
9055.00,1.09
9054.00,1.10
9053.00,1.10
9052.00,1.10
9051.00,1.10
9050.00,1.10
9049.00,1.10
9048.00,1.10
9047.00,1.11
9046.00,1.11
9045.00,1.11
9044.00,1.11
9043.00,1.11
9042.00,1.11
9041.00,1.11
9040.00,1.11
9039.00,1.11
9038.00,1.10
9037.00,1.10
9036.00,1.10
9035.00,1.10
9034.00,1.10
9033.00,1.10
9032.00,1.10
9031.00,1.10
9030.00,1.10
9029.00,1.10
9028.00,1.10
9027.00,1.10
9026.00,1.10
9025.00,1.10
9024.00,1.10
9023.00,1.09
9022.00,1.09
9021.00,1.09
9020.00,1.09
9019.00,1.09
9018.00,1.09
9017.00,1.09
9016.00,1.09
9015.00,1.09
9014.00,1.09
9013.00,1.09
9012.00,1.09
9011.00,1.09
9010.00,1.09
9009.00,1.09
9008.00,1.09
9007.00,1.09
9006.00,1.09
9005.00,1.09
9004.00,1.09
9003.00,1.09
9002.00,1.09
9001.00,1.09
9000.00,1.09
8999.00,1.09
8998.00,1.09
8997.00,1.09
8996.00,1.09
8995.00,1.09
8994.00,1.09
8993.00,1.09
8992.00,1.09
8991.00,1.09
8990.00,1.09
8989.00,1.09
8988.00,1.09
8987.00,1.09
8986.00,1.09
8985.00,1.09
8984.00,1.09
8983.00,1.09
8982.00,1.09
8981.00,1.09
8980.00,1.09
8979.00,1.09
8978.00,1.09
8977.00,1.09
8976.00,1.09
8975.00,1.09
8974.00,1.09
8973.00,1.09
8972.00,1.08
8971.00,1.08
8970.00,1.08
8969.00,1.08
8968.00,1.08
8967.00,1.08
8966.00,1.08
8965.00,1.08
8964.00,1.08
8963.00,1.08
8962.00,1.08
8961.00,1.08
8960.00,1.08
8959.00,1.08
8958.00,1.08
8957.00,1.08
8956.00,1.08
8955.00,1.08
8954.00,1.09
8953.00,1.09
8952.00,1.09
8951.00,1.09
8950.00,1.09
8949.00,1.09
8948.00,1.09
8947.00,1.09
8946.00,1.09
8945.00,1.09
8944.00,1.09
8943.00,1.09
8942.00,1.09
8941.00,1.09
8940.00,1.09
8939.00,1.09
8938.00,1.09
8937.00,1.09
8936.00,1.09
8935.00,1.09
8934.00,1.09
8933.00,1.09
8932.00,1.09
8931.00,1.09
8930.00,1.09
8929.00,1.10
8928.00,1.10
8927.00,1.10
8926.00,1.10
8925.00,1.10
8924.00,1.10
8923.00,1.10
8922.00,1.10
8921.00,1.11
8920.00,1.11
8919.00,1.11
8918.00,1.11
8917.00,1.10
8916.00,1.10
8915.00,1.10
8914.00,1.10
8913.00,1.10
8912.00,1.10
8911.00,1.10
8910.00,1.09
8909.00,1.09
8908.00,1.09
8907.00,1.09
8906.00,1.09
8905.00,1.09
8904.00,1.08
8903.00,1.08
8902.00,1.08
8901.00,1.08
8900.00,1.08
8899.00,1.08
8898.00,1.08
8897.00,1.08
8896.00,1.08
8895.00,1.09
8894.00,1.09
8893.00,1.09
8892.00,1.09
8891.00,1.09
8890.00,1.09
8889.00,1.09
8888.00,1.09
8887.00,1.09
8886.00,1.09
8885.00,1.09
8884.00,1.09
8883.00,1.09
8882.00,1.10
8881.00,1.10
8880.00,1.10
8879.00,1.10
8878.00,1.10
8877.00,1.10
8876.00,1.10
8875.00,1.10
8874.00,1.10
8873.00,1.10
8872.00,1.10
8871.00,1.10
8870.00,1.10
8869.00,1.10
8868.00,1.10
8867.00,1.10
8866.00,1.10
8865.00,1.10
8864.00,1.09
8863.00,1.09
8862.00,1.09
8861.00,1.09
8860.00,1.09
8859.00,1.09
8858.00,1.09
8857.00,1.09
8856.00,1.09
8855.00,1.09
8854.00,1.08
8853.00,1.08
8852.00,1.08
8851.00,1.08
8850.00,1.08
8849.00,1.08
8848.00,1.08
8847.00,1.08
8846.00,1.08
8845.00,1.08
8844.00,1.08
8843.00,1.08
8842.00,1.08
8841.00,1.08
8840.00,1.08
8839.00,1.08
8838.00,1.08
8837.00,1.08
8836.00,1.08
8835.00,1.08
8834.00,1.09
8833.00,1.09
8832.00,1.09
8831.00,1.09
8830.00,1.09
8829.00,1.09
8828.00,1.09
8827.00,1.09
8826.00,1.09
8825.00,1.09
8824.00,1.09
8823.00,1.09
8822.00,1.09
8821.00,1.09
8820.00,1.09
8819.00,1.09
8818.00,1.09
8817.00,1.09
8816.00,1.09
8815.00,1.09
8814.00,1.09
8813.00,1.08
8812.00,1.08
8811.00,1.08
8810.00,1.08
8809.00,1.08
8808.00,1.08
8807.00,1.08
8806.00,1.08
8805.00,1.08
8804.00,1.08
8803.00,1.08
8802.00,1.08
8801.00,1.08
8800.00,1.08
8799.00,1.08
8798.00,1.08
8797.00,1.08
8796.00,1.08
8795.00,1.08
8794.00,1.08
8793.00,1.08
8792.00,1.08
8791.00,1.08
8790.00,1.08
8789.00,1.08
8788.00,1.08
8787.00,1.08
8786.00,1.08
8785.00,1.07
8784.00,1.07
8783.00,1.07
8782.00,1.07
8781.00,1.07
8780.00,1.07
8779.00,1.07
8778.00,1.07
8777.00,1.07
8776.00,1.07
8775.00,1.06
8774.00,1.06
8773.00,1.06
8772.00,1.06
8771.00,1.06
8770.00,1.06
8769.00,1.06
8768.00,1.06
8767.00,1.06
8766.00,1.06
8765.00,1.06
8764.00,1.06
8763.00,1.06
8762.00,1.06
8761.00,1.06
8760.00,1.06
8759.00,1.05
8758.00,1.05
8757.00,1.05
8756.00,1.05
8755.00,1.05
8754.00,1.05
8753.00,1.05
8752.00,1.05
8751.00,1.05
8750.00,1.05
8749.00,1.05
8748.00,1.05
8747.00,1.05
8746.00,1.04
8745.00,1.04
8744.00,1.04
8743.00,1.04
8742.00,1.04
8741.00,1.04
8740.00,1.04
8739.00,1.04
8738.00,1.04
8737.00,1.04
8736.00,1.04
8735.00,1.04
8734.00,1.04
8733.00,1.04
8732.00,1.04
8731.00,1.04
8730.00,1.04
8729.00,1.04
8728.00,1.04
8727.00,1.04
8726.00,1.04
8725.00,1.04
8724.00,1.04
8723.00,1.04
8722.00,1.04
8721.00,1.04
8720.00,1.04
8719.00,1.04
8718.00,1.04
8717.00,1.04
8716.00,1.04
8715.00,1.04
8714.00,1.05
8713.00,1.05
8712.00,1.05
8711.00,1.05
8710.00,1.05
8709.00,1.05
8708.00,1.05
8707.00,1.05
8706.00,1.05
8705.00,1.05
8704.00,1.05
8703.00,1.05
8702.00,1.05
8701.00,1.05
8700.00,1.05
8699.00,1.05
8698.00,1.05
8697.00,1.05
8696.00,1.05
8695.00,1.04
8694.00,1.04
8693.00,1.04
8692.00,1.04
8691.00,1.04
8690.00,1.04
8689.00,1.04
8688.00,1.04
8687.00,1.04
8686.00,1.04
8685.00,1.04
8684.00,1.04
8683.00,1.04
8682.00,1.04
8681.00,1.04
8680.00,1.04
8679.00,1.04
8678.00,1.04
8677.00,1.04
8676.00,1.04
8675.00,1.04
8674.00,1.04
8673.00,1.04
8672.00,1.04
8671.00,1.04
8670.00,1.04
8669.00,1.04
8668.00,1.04
8667.00,1.04
8666.00,1.04
8665.00,1.04
8664.00,1.04
8663.00,1.04
8662.00,1.04
8661.00,1.04
8660.00,1.04
8659.00,1.04
8658.00,1.04
8657.00,1.04
8656.00,1.04
8655.00,1.03
8654.00,1.03
8653.00,1.03
8652.00,1.03
8651.00,1.03
8650.00,1.03
8649.00,1.03
8648.00,1.03
8647.00,1.03
8646.00,1.03
8645.00,1.03
8644.00,1.03
8643.00,1.03
8642.00,1.03
8641.00,1.03
8640.00,1.03
8639.00,1.03
8638.00,1.03
8637.00,1.03
8636.00,1.03
8635.00,1.03
8634.00,1.02
8633.00,1.02
8632.00,1.02
8631.00,1.02
8630.00,1.02
8629.00,1.02
8628.00,1.02
8627.00,1.02
8626.00,1.02
8625.00,1.02
8624.00,1.02
8623.00,1.02
8622.00,1.02
8621.00,1.02
8620.00,1.02
8619.00,1.02
8618.00,1.02
8617.00,1.02
8616.00,1.02
8615.00,1.02
8614.00,1.02
8613.00,1.01
8612.00,1.01
8611.00,1.01
8610.00,1.01
8609.00,1.01
8608.00,1.01
8607.00,1.01
8606.00,1.01
8605.00,1.01
8604.00,1.01
8603.00,1.01
8602.00,1.01
8601.00,1.01
8600.00,1.01
8599.00,1.01
8598.00,1.01
8597.00,1.01
8596.00,1.02
8595.00,1.02
8594.00,1.02
8593.00,1.02
8592.00,1.02
8591.00,1.02
8590.00,1.02
8589.00,1.02
8588.00,1.02
8587.00,1.02
8586.00,1.02
8585.00,1.02
8584.00,1.02
8583.00,1.02
8582.00,1.03
8581.00,1.03
8580.00,1.03
8579.00,1.03
8578.00,1.03
8577.00,1.03
8576.00,1.03
8575.00,1.03
8574.00,1.02
8573.00,1.02
8572.00,1.02
8571.00,1.02
8570.00,1.02
8569.00,1.02
8568.00,1.02
8567.00,1.01
8566.00,1.01
8565.00,1.01
8564.00,1.01
8563.00,1.01
8562.00,1.00
8561.00,1.00
8560.00,1.00
8559.00,1.00
8558.00,1.00
8557.00,0.99
8556.00,0.99
8555.00,0.99
8554.00,0.99
8553.00,0.99
8552.00,0.99
8551.00,0.99
8550.00,0.99
8549.00,0.98
8548.00,0.98
8547.00,0.98
8546.00,0.98
8545.00,0.98
8544.00,0.98
8543.00,0.98
8542.00,0.98
8541.00,0.98
8540.00,0.98
8539.00,0.98
8538.00,0.98
8537.00,0.98
8536.00,0.98
8535.00,0.98
8534.00,0.98
8533.00,0.98
8532.00,0.98
8531.00,0.98
8530.00,0.98
8529.00,0.98
8528.00,0.98
8527.00,0.99
8526.00,0.99
8525.00,0.99
8524.00,0.99
8523.00,0.99
8522.00,0.99
8521.00,0.99
8520.00,0.99
8519.00,0.99
8518.00,1.00
8517.00,1.00
8516.00,1.00
8515.00,1.00
8514.00,1.00
8513.00,1.00
8512.00,0.99
8511.00,0.99
8510.00,0.99
8509.00,0.99
8508.00,0.99
8507.00,0.99
8506.00,0.99
8505.00,0.99
8504.00,0.99
8503.00,0.99
8502.00,0.99
8501.00,0.99
8500.00,0.99
8499.00,0.99
8498.00,0.99
8497.00,0.99
8496.00,0.98
8495.00,0.98
8494.00,0.98
8493.00,0.98
8492.00,0.98
8491.00,0.98
8490.00,0.98
8489.00,0.98
8488.00,0.98
8487.00,0.98
8486.00,0.98
8485.00,0.98
8484.00,0.98
8483.00,0.98
8482.00,0.97
8481.00,0.97
8480.00,0.97
8479.00,0.97
8478.00,0.97
8477.00,0.97
8476.00,0.97
8475.00,0.97
8474.00,0.97
8473.00,0.97
8472.00,0.97
8471.00,0.97
8470.00,0.97
8469.00,0.97
8468.00,0.97
8467.00,0.97
8466.00,0.97
8465.00,0.97
8464.00,0.97
8463.00,0.97
8462.00,0.97
8461.00,0.97
8460.00,0.97
8459.00,0.97
8458.00,0.97
8457.00,0.97
8456.00,0.96
8455.00,0.96
8454.00,0.96
8453.00,0.96
8452.00,0.96
8451.00,0.96
8450.00,0.96
8449.00,0.95
8448.00,0.95
8447.00,0.95
8446.00,0.95
8445.00,0.95
8444.00,0.95
8443.00,0.95
8442.00,0.95
8441.00,0.95
8440.00,0.95
8439.00,0.95
8438.00,0.95
8437.00,0.95
8436.00,0.96
8435.00,0.96
8434.00,0.96
8433.00,0.96
8432.00,0.96
8431.00,0.96
8430.00,0.96
8429.00,0.95
8428.00,0.95
8427.00,0.95
8426.00,0.95
8425.00,0.95
8424.00,0.95
8423.00,0.95
8422.00,0.95
8421.00,0.96
8420.00,0.96
8419.00,0.96
8418.00,0.96
8417.00,0.96
8416.00,0.96
8415.00,0.96
8414.00,0.96
8413.00,0.96
8412.00,0.97
8411.00,0.97
8410.00,0.97
8409.00,0.97
8408.00,0.97
8407.00,0.97
8406.00,0.97
8405.00,0.97
8404.00,0.97
8403.00,0.97
8402.00,0.97
8401.00,0.97
8400.00,0.97
8399.00,0.97
8398.00,0.97
8397.00,0.97
8396.00,0.97
8395.00,0.97
8394.00,0.97
8393.00,0.97
8392.00,0.97
8391.00,0.97
8390.00,0.97
8389.00,0.97
8388.00,0.97
8387.00,0.97
8386.00,0.97
8385.00,0.97
8384.00,0.97
8383.00,0.97
8382.00,0.97
8381.00,0.97
8380.00,0.97
8379.00,0.97
8378.00,0.97
8377.00,0.97
8376.00,0.97
8375.00,0.97
8374.00,0.97
8373.00,0.97
8372.00,0.97
8371.00,0.97
8370.00,0.97
8369.00,0.97
8368.00,0.97
8367.00,0.97
8366.00,0.97
8365.00,0.97
8364.00,0.97
8363.00,0.97
8362.00,0.97
8361.00,0.97
8360.00,0.97
8359.00,0.97
8358.00,0.97
8357.00,0.98
8356.00,0.98
8355.00,0.98
8354.00,0.98
8353.00,0.98
8352.00,0.98
8351.00,0.98
8350.00,0.99
8349.00,0.99
8348.00,0.99
8347.00,0.99
8346.00,0.99
8345.00,0.99
8344.00,0.99
8343.00,0.99
8342.00,0.99
8341.00,0.99
8340.00,0.99
8339.00,0.99
8338.00,0.99
8337.00,0.99
8336.00,0.99
8335.00,0.99
8334.00,0.99
8333.00,0.99
8332.00,0.99
8331.00,0.99
8330.00,0.99
8329.00,0.98
8328.00,0.98
8327.00,0.98
8326.00,0.98
8325.00,0.98
8324.00,0.98
8323.00,0.98
8322.00,0.98
8321.00,0.98
8320.00,0.98
8319.00,0.98
8318.00,0.99
8317.00,0.99
8316.00,0.99
8315.00,0.99
8314.00,0.99
8313.00,0.99
8312.00,0.99
8311.00,0.99
8310.00,0.99
8309.00,0.99
8308.00,0.98
8307.00,0.98
8306.00,0.98
8305.00,0.98
8304.00,0.98
8303.00,0.98
8302.00,0.98
8301.00,0.98
8300.00,0.98
8299.00,0.98
8298.00,0.98
8297.00,0.98
8296.00,0.98
8295.00,0.98
8294.00,0.98
8293.00,0.98
8292.00,0.98
8291.00,0.98
8290.00,0.98
8289.00,0.98
8288.00,0.98
8287.00,0.98
8286.00,0.99
8285.00,0.99
8284.00,0.99
8283.00,0.99
8282.00,0.99
8281.00,0.99
8280.00,0.99
8279.00,0.99
8278.00,0.99
8277.00,0.99
8276.00,0.99
8275.00,0.99
8274.00,0.99
8273.00,1.00
8272.00,1.00
8271.00,1.00
8270.00,1.00
8269.00,1.00
8268.00,1.00
8267.00,1.00
8266.00,1.00
8265.00,1.00
8264.00,1.00
8263.00,1.01
8262.00,1.01
8261.00,1.01
8260.00,1.01
8259.00,1.01
8258.00,1.01
8257.00,1.01
8256.00,1.01
8255.00,1.01
8254.00,1.01
8253.00,1.01
8252.00,1.01
8251.00,1.01
8250.00,1.01
8249.00,1.01
8248.00,1.01
8247.00,1.01
8246.00,1.01
8245.00,1.01
8244.00,1.01
8243.00,1.01
8242.00,1.01
8241.00,1.00
8240.00,1.00
8239.00,1.00
8238.00,1.01
8237.00,1.01
8236.00,1.01
8235.00,1.01
8234.00,1.01
8233.00,1.01
8232.00,1.01
8231.00,1.01
8230.00,1.01
8229.00,1.01
8228.00,1.02
8227.00,1.02
8226.00,1.02
8225.00,1.02
8224.00,1.02
8223.00,1.02
8222.00,1.02
8221.00,1.03
8220.00,1.03
8219.00,1.03
8218.00,1.03
8217.00,1.03
8216.00,1.03
8215.00,1.03
8214.00,1.03
8213.00,1.03
8212.00,1.03
8211.00,1.03
8210.00,1.03
8209.00,1.03
8208.00,1.03
8207.00,1.03
8206.00,1.03
8205.00,1.03
8204.00,1.03
8203.00,1.03
8202.00,1.03
8201.00,1.03
8200.00,1.03
8199.00,1.03
8198.00,1.02
8197.00,1.02
8196.00,1.02
8195.00,1.02
8194.00,1.02
8193.00,1.02
8192.00,1.02
8191.00,1.02
8190.00,1.02
8189.00,1.02
8188.00,1.02
8187.00,1.02
8186.00,1.03
8185.00,1.03
8184.00,1.03
8183.00,1.03
8182.00,1.03
8181.00,1.03
8180.00,1.03
8179.00,1.03
8178.00,1.03
8177.00,1.03
8176.00,1.03
8175.00,1.03
8174.00,1.03
8173.00,1.03
8172.00,1.03
8171.00,1.03
8170.00,1.03
8169.00,1.03
8168.00,1.03
8167.00,1.03
8166.00,1.03
8165.00,1.03
8164.00,1.03
8163.00,1.03
8162.00,1.03
8161.00,1.03
8160.00,1.03
8159.00,1.03
8158.00,1.03
8157.00,1.03
8156.00,1.03
8155.00,1.03
8154.00,1.03
8153.00,1.03
8152.00,1.03
8151.00,1.03
8150.00,1.03
8149.00,1.03
8148.00,1.03
8147.00,1.03
8146.00,1.03
8145.00,1.03
8144.00,1.03
8143.00,1.03
8142.00,1.03
8141.00,1.03
8140.00,1.03
8139.00,1.03
8138.00,1.03
8137.00,1.03
8136.00,1.03
8135.00,1.03
8134.00,1.04
8133.00,1.04
8132.00,1.04
8131.00,1.04
8130.00,1.04
8129.00,1.04
8128.00,1.04
8127.00,1.04
8126.00,1.04
8125.00,1.04
8124.00,1.04
8123.00,1.04
8122.00,1.04
8121.00,1.04
8120.00,1.05
8119.00,1.05
8118.00,1.05
8117.00,1.05
8116.00,1.05
8115.00,1.05
8114.00,1.05
8113.00,1.05
8112.00,1.05
8111.00,1.05
8110.00,1.05
8109.00,1.05
8108.00,1.05
8107.00,1.05
8106.00,1.05
8105.00,1.05
8104.00,1.05
8103.00,1.05
8102.00,1.06
8101.00,1.06
8100.00,1.06
8099.00,1.06
8098.00,1.06
8097.00,1.06
8096.00,1.06
8095.00,1.06
8094.00,1.06
8093.00,1.06
8092.00,1.06
8091.00,1.06
8090.00,1.06
8089.00,1.06
8088.00,1.06
8087.00,1.06
8086.00,1.06
8085.00,1.06
8084.00,1.06
8083.00,1.06
8082.00,1.06
8081.00,1.06
8080.00,1.06
8079.00,1.06
8078.00,1.06
8077.00,1.06
8076.00,1.06
8075.00,1.06
8074.00,1.06
8073.00,1.06
8072.00,1.06
8071.00,1.06
8070.00,1.06
8069.00,1.06
8068.00,1.06
8067.00,1.06
8066.00,1.06
8065.00,1.06
8064.00,1.06
8063.00,1.06
8062.00,1.06
8061.00,1.06
8060.00,1.06
8059.00,1.06
8058.00,1.06
8057.00,1.06
8056.00,1.06
8055.00,1.06
8054.00,1.06
8053.00,1.06
8052.00,1.06
8051.00,1.06
8050.00,1.06
8049.00,1.06
8048.00,1.06
8047.00,1.06
8046.00,1.06
8045.00,1.05
8044.00,1.05
8043.00,1.05
8042.00,1.05
8041.00,1.05
8040.00,1.05
8039.00,1.05
8038.00,1.05
8037.00,1.05
8036.00,1.06
8035.00,1.06
8034.00,1.06
8033.00,1.06
8032.00,1.06
8031.00,1.06
8030.00,1.06
8029.00,1.06
8028.00,1.06
8027.00,1.06
8026.00,1.06
8025.00,1.06
8024.00,1.06
8023.00,1.06
8022.00,1.06
8021.00,1.06
8020.00,1.06
8019.00,1.06
8018.00,1.06
8017.00,1.06
8016.00,1.06
8015.00,1.06
8014.00,1.06
8013.00,1.06
8012.00,1.06
8011.00,1.06
8010.00,1.06
8009.00,1.06
8008.00,1.06
8007.00,1.06
8006.00,1.06
8005.00,1.06
8004.00,1.06
8003.00,1.06
8002.00,1.06
8001.00,1.07
8000.00,1.07
7999.00,1.07
7998.00,1.07
7997.00,1.07
7996.00,1.07
7995.00,1.08
7994.00,1.08
7993.00,1.08
7992.00,1.08
7991.00,1.08
7990.00,1.08
7989.00,1.08
7988.00,1.08
7987.00,1.08
7986.00,1.08
7985.00,1.08
7984.00,1.08
7983.00,1.08
7982.00,1.08
7981.00,1.08
7980.00,1.08
7979.00,1.08
7978.00,1.08
7977.00,1.08
7976.00,1.08
7975.00,1.08
7974.00,1.08
7973.00,1.08
7972.00,1.08
7971.00,1.08
7970.00,1.08
7969.00,1.07
7968.00,1.07
7967.00,1.07
7966.00,1.07
7965.00,1.07
7964.00,1.07
7963.00,1.07
7962.00,1.07
7961.00,1.07
7960.00,1.08
7959.00,1.08
7958.00,1.08
7957.00,1.08
7956.00,1.08
7955.00,1.08
7954.00,1.08
7953.00,1.08
7952.00,1.08
7951.00,1.08
7950.00,1.08
7949.00,1.08
7948.00,1.08
7947.00,1.08
7946.00,1.08
7945.00,1.08
7944.00,1.08
7943.00,1.08
7942.00,1.08
7941.00,1.08
7940.00,1.08
7939.00,1.08
7938.00,1.08
7937.00,1.08
7936.00,1.08
7935.00,1.08
7934.00,1.08
7933.00,1.08
7932.00,1.08
7931.00,1.08
7930.00,1.08
7929.00,1.08
7928.00,1.08
7927.00,1.09
7926.00,1.09
7925.00,1.09
7924.00,1.09
7923.00,1.09
7922.00,1.09
7921.00,1.09
7920.00,1.09
7919.00,1.09
7918.00,1.09
7917.00,1.09
7916.00,1.09
7915.00,1.09
7914.00,1.08
7913.00,1.08
7912.00,1.08
7911.00,1.08
7910.00,1.08
7909.00,1.08
7908.00,1.08
7907.00,1.08
7906.00,1.08
7905.00,1.08
7904.00,1.08
7903.00,1.08
7902.00,1.08
7901.00,1.08
7900.00,1.08
7899.00,1.08
7898.00,1.08
7897.00,1.08
7896.00,1.08
7895.00,1.09
7894.00,1.09
7893.00,1.09
7892.00,1.09
7891.00,1.09
7890.00,1.09
7889.00,1.09
7888.00,1.09
7887.00,1.09
7886.00,1.09
7885.00,1.09
7884.00,1.09
7883.00,1.09
7882.00,1.09
7881.00,1.09
7880.00,1.09
7879.00,1.09
7878.00,1.09
7877.00,1.09
7876.00,1.09
7875.00,1.09
7874.00,1.09
7873.00,1.09
7872.00,1.09
7871.00,1.09
7870.00,1.09
7869.00,1.09
7868.00,1.09
7867.00,1.09
7866.00,1.09
7865.00,1.10
7864.00,1.10
7863.00,1.10
7862.00,1.10
7861.00,1.10
7860.00,1.10
7859.00,1.10
7858.00,1.10
7857.00,1.10
7856.00,1.10
7855.00,1.10
7854.00,1.10
7853.00,1.10
7852.00,1.10
7851.00,1.10
7850.00,1.10
7849.00,1.10
7848.00,1.10
7847.00,1.10
7846.00,1.10
7845.00,1.10
7844.00,1.10
7843.00,1.10
7842.00,1.10
7841.00,1.10
7840.00,1.10
7839.00,1.10
7838.00,1.10
7837.00,1.10
7836.00,1.10
7835.00,1.10
7834.00,1.10
7833.00,1.10
7832.00,1.10
7831.00,1.10
7830.00,1.10
7829.00,1.10
7828.00,1.10
7827.00,1.10
7826.00,1.10
7825.00,1.10
7824.00,1.10
7823.00,1.10
7822.00,1.10
7821.00,1.10
7820.00,1.10
7819.00,1.10
7818.00,1.10
7817.00,1.10
7816.00,1.10
7815.00,1.10
7814.00,1.10
7813.00,1.09
7812.00,1.09
7811.00,1.09
7810.00,1.09
7809.00,1.09
7808.00,1.09
7807.00,1.09
7806.00,1.09
7805.00,1.09
7804.00,1.10
7803.00,1.10
7802.00,1.10
7801.00,1.10
7800.00,1.10
7799.00,1.10
7798.00,1.10
7797.00,1.10
7796.00,1.10
7795.00,1.10
7794.00,1.10
7793.00,1.10
7792.00,1.10
7791.00,1.10
7790.00,1.10
7789.00,1.10
7788.00,1.10
7787.00,1.10
7786.00,1.10
7785.00,1.10
7784.00,1.10
7783.00,1.10
7782.00,1.10
7781.00,1.10
7780.00,1.10
7779.00,1.10
7778.00,1.10
7777.00,1.10
7776.00,1.10
7775.00,1.10
7774.00,1.10
7773.00,1.10
7772.00,1.10
7771.00,1.10
7770.00,1.10
7769.00,1.10
7768.00,1.10
7767.00,1.10
7766.00,1.10
7765.00,1.10
7764.00,1.10
7763.00,1.10
7762.00,1.10
7761.00,1.10
7760.00,1.10
7759.00,1.10
7758.00,1.10
7757.00,1.10
7756.00,1.10
7755.00,1.10
7754.00,1.10
7753.00,1.10
7752.00,1.10
7751.00,1.10
7750.00,1.10
7749.00,1.10
7748.00,1.10
7747.00,1.10
7746.00,1.10
7745.00,1.10
7744.00,1.10
7743.00,1.10
7742.00,1.10
7741.00,1.10
7740.00,1.10
7739.00,1.10
7738.00,1.10
7737.00,1.10
7736.00,1.10
7735.00,1.10
7734.00,1.10
7733.00,1.10
7732.00,1.10
7731.00,1.10
7730.00,1.10
7729.00,1.10
7728.00,1.10
7727.00,1.10
7726.00,1.11
7725.00,1.11
7724.00,1.11
7723.00,1.11
7722.00,1.11
7721.00,1.11
7720.00,1.11
7719.00,1.11
7718.00,1.11
7717.00,1.11
7716.00,1.11
7715.00,1.11
7714.00,1.11
7713.00,1.11
7712.00,1.11
7711.00,1.11
7710.00,1.11
7709.00,1.11
7708.00,1.11
7707.00,1.11
7706.00,1.11
7705.00,1.11
7704.00,1.11
7703.00,1.11
7702.00,1.11
7701.00,1.10
7700.00,1.10
7699.00,1.10
7698.00,1.10
7697.00,1.10
7696.00,1.10
7695.00,1.10
7694.00,1.10
7693.00,1.10
7692.00,1.10
7691.00,1.10
7690.00,1.10
7689.00,1.10
7688.00,1.10
7687.00,1.10
7686.00,1.10
7685.00,1.10
7684.00,1.10
7683.00,1.10
7682.00,1.10
7681.00,1.10
7680.00,1.10
7679.00,1.10
7678.00,1.10
7677.00,1.10
7676.00,1.10
7675.00,1.10
7674.00,1.10
7673.00,1.10
7672.00,1.10
7671.00,1.10
7670.00,1.10
7669.00,1.10
7668.00,1.10
7667.00,1.10
7666.00,1.10
7665.00,1.10
7664.00,1.10
7663.00,1.10
7662.00,1.10
7661.00,1.10
7660.00,1.10
7659.00,1.10
7658.00,1.10
7657.00,1.10
7656.00,1.10
7655.00,1.10
7654.00,1.10
7653.00,1.11
7652.00,1.11
7651.00,1.11
7650.00,1.11
7649.00,1.11
7648.00,1.11
7647.00,1.11
7646.00,1.11
7645.00,1.11
7644.00,1.11
7643.00,1.11
7642.00,1.11
7641.00,1.11
7640.00,1.11
7639.00,1.11
7638.00,1.11
7637.00,1.11
7636.00,1.11
7635.00,1.11
7634.00,1.11
7633.00,1.11
7632.00,1.11
7631.00,1.11
7630.00,1.11
7629.00,1.11
7628.00,1.10
7627.00,1.10
7626.00,1.10
7625.00,1.10
7624.00,1.10
7623.00,1.10
7622.00,1.10
7621.00,1.10
7620.00,1.10
7619.00,1.10
7618.00,1.10
7617.00,1.10
7616.00,1.10
7615.00,1.10
7614.00,1.10
7613.00,1.10
7612.00,1.10
7611.00,1.10
7610.00,1.10
7609.00,1.10
7608.00,1.10
7607.00,1.10
7606.00,1.10
7605.00,1.10
7604.00,1.10
7603.00,1.10
7602.00,1.10
7601.00,1.10
7600.00,1.10
7599.00,1.09
7598.00,1.09
7597.00,1.09
7596.00,1.09
7595.00,1.09
7594.00,1.09
7593.00,1.09
7592.00,1.09
7591.00,1.09
7590.00,1.09
7589.00,1.09
7588.00,1.09
7587.00,1.09
7586.00,1.10
7585.00,1.10
7584.00,1.10
7583.00,1.10
7582.00,1.10
7581.00,1.10
7580.00,1.10
7579.00,1.10
7578.00,1.10
7577.00,1.10
7576.00,1.10
7575.00,1.10
7574.00,1.10
7573.00,1.10
7572.00,1.10
7571.00,1.10
7570.00,1.10
7569.00,1.10
7568.00,1.10
7567.00,1.10
7566.00,1.10
7565.00,1.10
7564.00,1.10
7563.00,1.10
7562.00,1.09
7561.00,1.09
7560.00,1.09
7559.00,1.09
7558.00,1.09
7557.00,1.09
7556.00,1.09
7555.00,1.09
7554.00,1.09
7553.00,1.09
7552.00,1.09
7551.00,1.09
7550.00,1.09
7549.00,1.09
7548.00,1.09
7547.00,1.09
7546.00,1.09
7545.00,1.09
7544.00,1.09
7543.00,1.09
7542.00,1.09
7541.00,1.09
7540.00,1.09
7539.00,1.10
7538.00,1.10
7537.00,1.10
7536.00,1.10
7535.00,1.10
7534.00,1.10
7533.00,1.10
7532.00,1.10
7531.00,1.09
7530.00,1.09
7529.00,1.09
7528.00,1.09
7527.00,1.09
7526.00,1.09
7525.00,1.09
7524.00,1.09
7523.00,1.09
7522.00,1.09
7521.00,1.08
7520.00,1.08
7519.00,1.08
7518.00,1.08
7517.00,1.08
7516.00,1.08
7515.00,1.08
7514.00,1.08
7513.00,1.08
7512.00,1.08
7511.00,1.08
7510.00,1.08
7509.00,1.08
7508.00,1.08
7507.00,1.08
7506.00,1.08
7505.00,1.08
7504.00,1.08
7503.00,1.08
7502.00,1.07
7501.00,1.07
7500.00,1.07
7499.00,1.07
7498.00,1.07
7497.00,1.07
7496.00,1.07
7495.00,1.07
7494.00,1.07
7493.00,1.07
7492.00,1.07
7491.00,1.07
7490.00,1.07
7489.00,1.07
7488.00,1.07
7487.00,1.07
7486.00,1.07
7485.00,1.07
7484.00,1.07
7483.00,1.07
7482.00,1.07
7481.00,1.07
7480.00,1.07
7479.00,1.07
7478.00,1.07
7477.00,1.07
7476.00,1.07
7475.00,1.07
7474.00,1.07
7473.00,1.07
7472.00,1.07
7471.00,1.07
7470.00,1.06
7469.00,1.06
7468.00,1.06
7467.00,1.06
7466.00,1.06
7465.00,1.06
7464.00,1.06
7463.00,1.06
7462.00,1.06
7461.00,1.06
7460.00,1.06
7459.00,1.05
7458.00,1.05
7457.00,1.05
7456.00,1.05
7455.00,1.05
7454.00,1.05
7453.00,1.05
7452.00,1.05
7451.00,1.05
7450.00,1.05
7449.00,1.05
7448.00,1.05
7447.00,1.05
7446.00,1.05
7445.00,1.04
7444.00,1.04
7443.00,1.04
7442.00,1.04
7441.00,1.04
7440.00,1.04
7439.00,1.04
7438.00,1.04
7437.00,1.04
7436.00,1.04
7435.00,1.04
7434.00,1.04
7433.00,1.04
7432.00,1.04
7431.00,1.04
7430.00,1.04
7429.00,1.04
7428.00,1.04
7427.00,1.04
7426.00,1.04
7425.00,1.04
7424.00,1.04
7423.00,1.04
7422.00,1.04
7421.00,1.04
7420.00,1.04
7419.00,1.04
7418.00,1.03
7417.00,1.03
7416.00,1.03
7415.00,1.03
7414.00,1.03
7413.00,1.03
7412.00,1.03
7411.00,1.03
7410.00,1.03
7409.00,1.03
7408.00,1.03
7407.00,1.03
7406.00,1.03
7405.00,1.03
7404.00,1.03
7403.00,1.03
7402.00,1.03
7401.00,1.02
7400.00,1.02
7399.00,1.02
7398.00,1.02
7397.00,1.02
7396.00,1.02
7395.00,1.02
7394.00,1.02
7393.00,1.01
7392.00,1.01
7391.00,1.01
7390.00,1.01
7389.00,1.01
7388.00,1.01
7387.00,1.01
7386.00,1.01
7385.00,1.01
7384.00,1.01
7383.00,1.01
7382.00,1.01
7381.00,1.01
7380.00,1.01
7379.00,1.01
7378.00,1.01
7377.00,1.01
7376.00,1.01
7375.00,1.01
7374.00,1.01
7373.00,1.00
7372.00,1.00
7371.00,1.00
7370.00,1.00
7369.00,1.00
7368.00,1.00
7367.00,1.00
7366.00,0.99
7365.00,0.99
7364.00,0.99
7363.00,0.99
7362.00,0.99
7361.00,0.99
7360.00,0.98
7359.00,0.98
7358.00,0.98
7357.00,0.98
7356.00,0.98
7355.00,0.98
7354.00,0.98
7353.00,0.98
7352.00,0.98
7351.00,0.98
7350.00,0.98
7349.00,0.98
7348.00,0.98
7347.00,0.98
7346.00,0.98
7345.00,0.98
7344.00,0.98
7343.00,0.98
7342.00,0.98
7341.00,0.98
7340.00,0.98
7339.00,0.98
7338.00,0.98
7337.00,0.98
7336.00,0.98
7335.00,0.98
7334.00,0.98
7333.00,0.98
7332.00,0.98
7331.00,0.98
7330.00,0.98
7329.00,0.98
7328.00,0.98
7327.00,0.98
7326.00,0.98
7325.00,0.97
7324.00,0.97
7323.00,0.97
7322.00,0.97
7321.00,0.97
7320.00,0.97
7319.00,0.97
7318.00,0.97
7317.00,0.97
7316.00,0.96
7315.00,0.96
7314.00,0.96
7313.00,0.96
7312.00,0.96
7311.00,0.96
7310.00,0.96
7309.00,0.96
7308.00,0.96
7307.00,0.96
7306.00,0.96
7305.00,0.95
7304.00,0.95
7303.00,0.95
7302.00,0.95
7301.00,0.95
7300.00,0.95
7299.00,0.95
7298.00,0.95
7297.00,0.95
7296.00,0.95
7295.00,0.95
7294.00,0.95
7293.00,0.95
7292.00,0.95
7291.00,0.95
7290.00,0.95
7289.00,0.95
7288.00,0.94
7287.00,0.94
7286.00,0.94
7285.00,0.94
7284.00,0.94
7283.00,0.94
7282.00,0.94
7281.00,0.94
7280.00,0.94
7279.00,0.94
7278.00,0.94
7277.00,0.94
7276.00,0.94
7275.00,0.94
7274.00,0.94
7273.00,0.94
7272.00,0.94
7271.00,0.94
7270.00,0.94
7269.00,0.94
7268.00,0.94
7267.00,0.93
7266.00,0.93
7265.00,0.93
7264.00,0.93
7263.00,0.93
7262.00,0.93
7261.00,0.93
7260.00,0.93
7259.00,0.92
7258.00,0.92
7257.00,0.92
7256.00,0.92
7255.00,0.92
7254.00,0.91
7253.00,0.91
7252.00,0.91
7251.00,0.91
7250.00,0.90
7249.00,0.90
7248.00,0.90
7247.00,0.90
7246.00,0.89
7245.00,0.89
7244.00,0.89
7243.00,0.89
7242.00,0.88
7241.00,0.88
7240.00,0.88
7239.00,0.88
7238.00,0.87
7237.00,0.87
7236.00,0.87
7235.00,0.87
7234.00,0.87
7233.00,0.86
7232.00,0.86
7231.00,0.86
7230.00,0.86
7229.00,0.85
7228.00,0.85
7227.00,0.85
7226.00,0.85
7225.00,0.84
7224.00,0.84
7223.00,0.84
7222.00,0.83
7221.00,0.83
7220.00,0.83
7219.00,0.82
7218.00,0.82
7217.00,0.82
7216.00,0.81
7215.00,0.81
7214.00,0.81
7213.00,0.80
7212.00,0.80
7211.00,0.80
7210.00,0.80
7209.00,0.79
7208.00,0.79
7207.00,0.79
7206.00,0.79
7205.00,0.79
7204.00,0.78
7203.00,0.78
7202.00,0.78
7201.00,0.78
7200.00,0.77
7199.00,0.77
7198.00,0.77
7197.00,0.77
7196.00,0.76
7195.00,0.76
7194.00,0.76
7193.00,0.75
7192.00,0.75
7191.00,0.75
7190.00,0.75
7189.00,0.74
7188.00,0.74
7187.00,0.74
7186.00,0.73
7185.00,0.73
7184.00,0.73
7183.00,0.73
7182.00,0.72
7181.00,0.72
7180.00,0.72
7179.00,0.72
7178.00,0.71
7177.00,0.71
7176.00,0.71
7175.00,0.71
7174.00,0.71
7173.00,0.70
7172.00,0.70
7171.00,0.70
7170.00,0.70
7169.00,0.70
7168.00,0.70
7167.00,0.69
7166.00,0.69
7165.00,0.69
7164.00,0.69
7163.00,0.69
7162.00,0.68
7161.00,0.68
7160.00,0.68
7159.00,0.68
7158.00,0.68
7157.00,0.67
7156.00,0.67
7155.00,0.67
7154.00,0.67
7153.00,0.66
7152.00,0.66
7151.00,0.66
7150.00,0.66
7149.00,0.66
7148.00,0.65
7147.00,0.65
7146.00,0.65
7145.00,0.65
7144.00,0.64
7143.00,0.64
7142.00,0.64
7141.00,0.64
7140.00,0.63
7139.00,0.63
7138.00,0.63
7137.00,0.63
7136.00,0.63
7135.00,0.62
7134.00,0.62
7133.00,0.62
7132.00,0.62
7131.00,0.61
7130.00,0.61
7129.00,0.61
7128.00,0.61
7127.00,0.61
7126.00,0.60
7125.00,0.60
7124.00,0.60
7123.00,0.60
7122.00,0.60
7121.00,0.60
7120.00,0.59
7119.00,0.59
7118.00,0.59
7117.00,0.59
7116.00,0.59
7115.00,0.59
7114.00,0.58
7113.00,0.58
7112.00,0.58
7111.00,0.58
7110.00,0.58
7109.00,0.58
7108.00,0.58
7107.00,0.58
7106.00,0.57
7105.00,0.57
7104.00,0.57
7103.00,0.57
7102.00,0.57
7101.00,0.57
7100.00,0.57
7099.00,0.57
7098.00,0.57
7097.00,0.57
7096.00,0.56
7095.00,0.56
7094.00,0.56
7093.00,0.56
7092.00,0.56
7091.00,0.56
7090.00,0.56
7089.00,0.56
7088.00,0.56
7087.00,0.56
7086.00,0.56
7085.00,0.56
7084.00,0.56
7083.00,0.56
7082.00,0.56
7081.00,0.55
7080.00,0.55
7079.00,0.55
7078.00,0.55
7077.00,0.55
7076.00,0.55
7075.00,0.55
7074.00,0.55
7073.00,0.55
7072.00,0.55
7071.00,0.55
7070.00,0.55
7069.00,0.55
7068.00,0.54
7067.00,0.54
7066.00,0.54
7065.00,0.54
7064.00,0.54
7063.00,0.54
7062.00,0.54
7061.00,0.54
7060.00,0.53
7059.00,0.53
7058.00,0.53
7057.00,0.53
7056.00,0.53
7055.00,0.53
7054.00,0.53
7053.00,0.53
7052.00,0.53
7051.00,0.53
7050.00,0.53
7049.00,0.53
7048.00,0.53
7047.00,0.53
7046.00,0.53
7045.00,0.53
7044.00,0.53
7043.00,0.53
7042.00,0.52
7041.00,0.52
7040.00,0.52
7039.00,0.52
7038.00,0.52
7037.00,0.52
7036.00,0.52
7035.00,0.52
7034.00,0.52
7033.00,0.52
7032.00,0.52
7031.00,0.52
7030.00,0.51
7029.00,0.51
7028.00,0.51
7027.00,0.51
7026.00,0.51
7025.00,0.51
7024.00,0.51
7023.00,0.51
7022.00,0.51
7021.00,0.51
7020.00,0.51
7019.00,0.51
7018.00,0.50
7017.00,0.50
7016.00,0.50
7015.00,0.50
7014.00,0.50
7013.00,0.50
7012.00,0.50
7011.00,0.50
7010.00,0.50
7009.00,0.50
7008.00,0.50
7007.00,0.50
7006.00,0.50
7005.00,0.50
7004.00,0.50
7003.00,0.50
7002.00,0.50
7001.00,0.50
7000.00,0.50
6999.00,0.49
6998.00,0.49
6997.00,0.49
6996.00,0.49
6995.00,0.49
6994.00,0.49
6993.00,0.49
6992.00,0.49
6991.00,0.50
6990.00,0.50
6989.00,0.50
6988.00,0.50
6987.00,0.50
6986.00,0.50
6985.00,0.50
6984.00,0.50
6983.00,0.50
6982.00,0.50
6981.00,0.50
6980.00,0.50
6979.00,0.50
6978.00,0.50
6977.00,0.50
6976.00,0.50
6975.00,0.50
6974.00,0.50
6973.00,0.50
6972.00,0.50
6971.00,0.50
6970.00,0.50
6969.00,0.50
6968.00,0.50
6967.00,0.50
6966.00,0.50
6965.00,0.50
6964.00,0.50
6963.00,0.50
6962.00,0.50
6961.00,0.50
6960.00,0.50
6959.00,0.50
6958.00,0.50
6957.00,0.50
6956.00,0.50
6955.00,0.50
6954.00,0.50
6953.00,0.49
6952.00,0.49
6951.00,0.49
6950.00,0.49
6949.00,0.49
6948.00,0.49
6947.00,0.49
6946.00,0.49
6945.00,0.49
6944.00,0.49
6943.00,0.49
6942.00,0.49
6941.00,0.49
6940.00,0.49
6939.00,0.49
6938.00,0.49
6937.00,0.49
6936.00,0.49
6935.00,0.49
6934.00,0.49
6933.00,0.49
6932.00,0.49
6931.00,0.50
6930.00,0.50
6929.00,0.50
6928.00,0.50
6927.00,0.50
6926.00,0.50
6925.00,0.50
6924.00,0.50
6923.00,0.50
6922.00,0.50
6921.00,0.50
6920.00,0.50
6919.00,0.50
6918.00,0.50
6917.00,0.50
6916.00,0.50
6915.00,0.50
6914.00,0.50
6913.00,0.50
6912.00,0.50
6911.00,0.50
6910.00,0.50
6909.00,0.50
6908.00,0.50
6907.00,0.50
6906.00,0.50
6905.00,0.50
6904.00,0.50
6903.00,0.50
6902.00,0.50
6901.00,0.50
6900.00,0.50
6899.00,0.50
6898.00,0.50
6897.00,0.50
6896.00,0.50
6895.00,0.50
6894.00,0.50
6893.00,0.50
6892.00,0.50
6891.00,0.50
6890.00,0.49
6889.00,0.49
6888.00,0.49
6887.00,0.49
6886.00,0.49
6885.00,0.49
6884.00,0.49
6883.00,0.49
6882.00,0.49
6881.00,0.49
6880.00,0.49
6879.00,0.49
6878.00,0.49
6877.00,0.49
6876.00,0.49
6875.00,0.49
6874.00,0.49
6873.00,0.49
6872.00,0.49
6871.00,0.49
6870.00,0.49
6869.00,0.49
6868.00,0.49
6867.00,0.49
6866.00,0.50
6865.00,0.50
6864.00,0.50
6863.00,0.50
6862.00,0.50
6861.00,0.50
6860.00,0.50
6859.00,0.50
6858.00,0.50
6857.00,0.50
6856.00,0.50
6855.00,0.50
6854.00,0.50
6853.00,0.50
6852.00,0.50
6851.00,0.50
6850.00,0.50
6849.00,0.50
6848.00,0.50
6847.00,0.50
6846.00,0.50
6845.00,0.50
6844.00,0.50
6843.00,0.50
6842.00,0.50
6841.00,0.49
6840.00,0.49
6839.00,0.49
6838.00,0.49
6837.00,0.49
6836.00,0.49
6835.00,0.49
6834.00,0.49
6833.00,0.49
6832.00,0.49
6831.00,0.49
6830.00,0.50
6829.00,0.50
6828.00,0.50
6827.00,0.50
6826.00,0.50
6825.00,0.50
6824.00,0.50
6823.00,0.50
6822.00,0.50
6821.00,0.50
6820.00,0.50
6819.00,0.50
6818.00,0.50
6817.00,0.50
6816.00,0.50
6815.00,0.50
6814.00,0.50
6813.00,0.50
6812.00,0.50
6811.00,0.50
6810.00,0.50
6809.00,0.50
6808.00,0.50
6807.00,0.50
6806.00,0.50
6805.00,0.50
6804.00,0.50
6803.00,0.50
6802.00,0.50
6801.00,0.50
6800.00,0.50
6799.00,0.50
6798.00,0.50
6797.00,0.50
6796.00,0.50
6795.00,0.50
6794.00,0.50
6793.00,0.50
6792.00,0.50
6791.00,0.50
6790.00,0.50
6789.00,0.50
6788.00,0.51
6787.00,0.51
6786.00,0.51
6785.00,0.51
6784.00,0.51
6783.00,0.51
6782.00,0.51
6781.00,0.51
6780.00,0.51
6779.00,0.51
6778.00,0.51
6777.00,0.51
6776.00,0.51
6775.00,0.51
6774.00,0.51
6773.00,0.51
6772.00,0.51
6771.00,0.51
6770.00,0.51
6769.00,0.51
6768.00,0.51
6767.00,0.52
6766.00,0.52
6765.00,0.52
6764.00,0.52
6763.00,0.52
6762.00,0.52
6761.00,0.52
6760.00,0.52
6759.00,0.52
6758.00,0.52
6757.00,0.52
6756.00,0.52
6755.00,0.52
6754.00,0.52
6753.00,0.52
6752.00,0.52
6751.00,0.52
6750.00,0.52
6749.00,0.52
6748.00,0.52
6747.00,0.52
6746.00,0.52
6745.00,0.52
6744.00,0.52
6743.00,0.52
6742.00,0.52
6741.00,0.52
6740.00,0.52
6739.00,0.52
6738.00,0.52
6737.00,0.52
6736.00,0.52
6735.00,0.52
6734.00,0.52
6733.00,0.52
6732.00,0.53
6731.00,0.53
6730.00,0.53
6729.00,0.53
6728.00,0.53
6727.00,0.53
6726.00,0.53
6725.00,0.53
6724.00,0.53
6723.00,0.53
6722.00,0.53
6721.00,0.53
6720.00,0.54
6719.00,0.54
6718.00,0.54
6717.00,0.54
6716.00,0.54
6715.00,0.54
6714.00,0.54
6713.00,0.54
6712.00,0.54
6711.00,0.54
6710.00,0.54
6709.00,0.54
6708.00,0.54
6707.00,0.54
6706.00,0.54
6705.00,0.54
6704.00,0.54
6703.00,0.54
6702.00,0.55
6701.00,0.55
6700.00,0.55
6699.00,0.55
6698.00,0.55
6697.00,0.55
6696.00,0.55
6695.00,0.55
6694.00,0.55
6693.00,0.55
6692.00,0.55
6691.00,0.55
6690.00,0.55
6689.00,0.55
6688.00,0.55
6687.00,0.55
6686.00,0.55
6685.00,0.55
6684.00,0.55
6683.00,0.55
6682.00,0.55
6681.00,0.55
6680.00,0.55
6679.00,0.55
6678.00,0.55
6677.00,0.55
6676.00,0.55
6675.00,0.55
6674.00,0.55
6673.00,0.55
6672.00,0.55
6671.00,0.55
6670.00,0.56
6669.00,0.56
6668.00,0.56
6667.00,0.56
6666.00,0.56
6665.00,0.56
6664.00,0.56
6663.00,0.56
6662.00,0.56
6661.00,0.56
6660.00,0.56
6659.00,0.56
6658.00,0.56
6657.00,0.56
6656.00,0.56
6655.00,0.56
6654.00,0.56
6653.00,0.57
6652.00,0.57
6651.00,0.57
6650.00,0.57
6649.00,0.57
6648.00,0.57
6647.00,0.57
6646.00,0.57
6645.00,0.57
6644.00,0.57
6643.00,0.57
6642.00,0.57
6641.00,0.58
6640.00,0.58
6639.00,0.58
6638.00,0.58
6637.00,0.58
6636.00,0.58
6635.00,0.58
6634.00,0.58
6633.00,0.58
6632.00,0.58
6631.00,0.58
6630.00,0.58
6629.00,0.58
6628.00,0.58
6627.00,0.58
6626.00,0.58
6625.00,0.58
6624.00,0.58
6623.00,0.59
6622.00,0.59
6621.00,0.59
6620.00,0.59
6619.00,0.59
6618.00,0.59
6617.00,0.59
6616.00,0.59
6615.00,0.59
6614.00,0.59
6613.00,0.59
6612.00,0.59
6611.00,0.59
6610.00,0.59
6609.00,0.59
6608.00,0.59
6607.00,0.59
6606.00,0.59
6605.00,0.59
6604.00,0.60
6603.00,0.60
6602.00,0.60
6601.00,0.60
6600.00,0.60
6599.00,0.60
6598.00,0.60
6597.00,0.60
6596.00,0.60
6595.00,0.60
6594.00,0.60
6593.00,0.60
6592.00,0.60
6591.00,0.60
6590.00,0.60
6589.00,0.60
6588.00,0.60
6587.00,0.60
6586.00,0.60
6585.00,0.60
6584.00,0.61
6583.00,0.61
6582.00,0.61
6581.00,0.61
6580.00,0.61
6579.00,0.61
6578.00,0.61
6577.00,0.61
6576.00,0.61
6575.00,0.62
6574.00,0.62
6573.00,0.62
6572.00,0.62
6571.00,0.62
6570.00,0.62
6569.00,0.62
6568.00,0.62
6567.00,0.62
6566.00,0.62
6565.00,0.62
6564.00,0.62
6563.00,0.62
6562.00,0.62
6561.00,0.62
6560.00,0.63
6559.00,0.63
6558.00,0.63
6557.00,0.63
6556.00,0.63
6555.00,0.63
6554.00,0.63
6553.00,0.63
6552.00,0.63
6551.00,0.63
6550.00,0.63
6549.00,0.63
6548.00,0.63
6547.00,0.63
6546.00,0.64
6545.00,0.64
6544.00,0.64
6543.00,0.64
6542.00,0.64
6541.00,0.64
6540.00,0.64
6539.00,0.64
6538.00,0.64
6537.00,0.64
6536.00,0.64
6535.00,0.64
6534.00,0.64
6533.00,0.65
6532.00,0.65
6531.00,0.65
6530.00,0.65
6529.00,0.65
6528.00,0.65
6527.00,0.65
6526.00,0.65
6525.00,0.65
6524.00,0.65
6523.00,0.65
6522.00,0.65
6521.00,0.66
6520.00,0.66
6519.00,0.66
6518.00,0.66
6517.00,0.66
6516.00,0.66
6515.00,0.66
6514.00,0.66
6513.00,0.66
6512.00,0.66
6511.00,0.66
6510.00,0.66
6509.00,0.66
6508.00,0.66
6507.00,0.66
6506.00,0.66
6505.00,0.66
6504.00,0.66
6503.00,0.66
6502.00,0.66
6501.00,0.66
6500.00,0.66
6499.00,0.66
6498.00,0.67
6497.00,0.67
6496.00,0.67
6495.00,0.67
6494.00,0.67
6493.00,0.67
6492.00,0.67
6491.00,0.67
6490.00,0.67
6489.00,0.67
6488.00,0.67
6487.00,0.67
6486.00,0.67
6485.00,0.67
6484.00,0.67
6483.00,0.67
6482.00,0.67
6481.00,0.67
6480.00,0.67
6479.00,0.67
6478.00,0.67
6477.00,0.67
6476.00,0.67
6475.00,0.67
6474.00,0.67
6473.00,0.67
6472.00,0.67
6471.00,0.67
6470.00,0.67
6469.00,0.67
6468.00,0.67
6467.00,0.67
6466.00,0.67
6465.00,0.67
6464.00,0.67
6463.00,0.67
6462.00,0.68
6461.00,0.68
6460.00,0.68
6459.00,0.68
6458.00,0.68
6457.00,0.68
6456.00,0.68
6455.00,0.68
6454.00,0.68
6453.00,0.68
6452.00,0.68
6451.00,0.68
6450.00,0.68
6449.00,0.68
6448.00,0.68
6447.00,0.68
6446.00,0.68
6445.00,0.68
6444.00,0.68
6443.00,0.68
6442.00,0.69
6441.00,0.69
6440.00,0.69
6439.00,0.69
6438.00,0.69
6437.00,0.69
6436.00,0.69
6435.00,0.69
6434.00,0.70
6433.00,0.70
6432.00,0.70
6431.00,0.70
6430.00,0.70
6429.00,0.70
6428.00,0.70
6427.00,0.70
6426.00,0.70
6425.00,0.70
6424.00,0.70
6423.00,0.70
6422.00,0.70
6421.00,0.70
6420.00,0.70
6419.00,0.70
6418.00,0.70
6417.00,0.70
6416.00,0.70
6415.00,0.70
6414.00,0.70
6413.00,0.70
6412.00,0.70
6411.00,0.71
6410.00,0.71
6409.00,0.71
6408.00,0.71
6407.00,0.71
6406.00,0.71
6405.00,0.71
6404.00,0.71
6403.00,0.71
6402.00,0.71
6401.00,0.71
6400.00,0.71
6399.00,0.71
6398.00,0.71
6397.00,0.71
6396.00,0.71
6395.00,0.71
6394.00,0.71
6393.00,0.72
6392.00,0.72
6391.00,0.72
6390.00,0.72
6389.00,0.72
6388.00,0.72
6387.00,0.72
6386.00,0.72
6385.00,0.72
6384.00,0.72
6383.00,0.72
6382.00,0.72
6381.00,0.73
6380.00,0.73
6379.00,0.73
6378.00,0.73
6377.00,0.73
6376.00,0.73
6375.00,0.73
6374.00,0.73
6373.00,0.73
6372.00,0.73
6371.00,0.73
6370.00,0.73
6369.00,0.73
6368.00,0.73
6367.00,0.73
6366.00,0.73
6365.00,0.73
6364.00,0.73
6363.00,0.73
6362.00,0.73
6361.00,0.73
6360.00,0.73
6359.00,0.73
6358.00,0.73
6357.00,0.73
6356.00,0.74
6355.00,0.74
6354.00,0.74
6353.00,0.74
6352.00,0.74
6351.00,0.74
6350.00,0.74
6349.00,0.74
6348.00,0.74
6347.00,0.74
6346.00,0.75
6345.00,0.75
6344.00,0.75
6343.00,0.75
6342.00,0.75
6341.00,0.75
6340.00,0.75
6339.00,0.75
6338.00,0.75
6337.00,0.75
6336.00,0.75
6335.00,0.75
6334.00,0.75
6333.00,0.75
6332.00,0.75
6331.00,0.75
6330.00,0.76
6329.00,0.76
6328.00,0.76
6327.00,0.76
6326.00,0.76
6325.00,0.76
6324.00,0.76
6323.00,0.76
6322.00,0.76
6321.00,0.76
6320.00,0.76
6319.00,0.76
6318.00,0.76
6317.00,0.76
6316.00,0.76
6315.00,0.76
6314.00,0.76
6313.00,0.76
6312.00,0.76
6311.00,0.76
6310.00,0.76
6309.00,0.76
6308.00,0.77
6307.00,0.77
6306.00,0.77
6305.00,0.77
6304.00,0.77
6303.00,0.77
6302.00,0.77
6301.00,0.77
6300.00,0.77
6299.00,0.77
6298.00,0.78
6297.00,0.78
6296.00,0.78
6295.00,0.78
6294.00,0.78
6293.00,0.78
6292.00,0.78
6291.00,0.78
6290.00,0.78
6289.00,0.78
6288.00,0.78
6287.00,0.78
6286.00,0.78
6285.00,0.78
6284.00,0.78
6283.00,0.78
6282.00,0.78
6281.00,0.79
6280.00,0.79
6279.00,0.79
6278.00,0.79
6277.00,0.79
6276.00,0.79
6275.00,0.79
6274.00,0.79
6273.00,0.79
6272.00,0.79
6271.00,0.79
6270.00,0.79
6269.00,0.79
6268.00,0.79
6267.00,0.79
6266.00,0.80
6265.00,0.80
6264.00,0.80
6263.00,0.80
6262.00,0.80
6261.00,0.80
6260.00,0.80
6259.00,0.80
6258.00,0.81
6257.00,0.81
6256.00,0.81
6255.00,0.81
6254.00,0.81
6253.00,0.81
6252.00,0.81
6251.00,0.81
6250.00,0.81
6249.00,0.81
6248.00,0.82
6247.00,0.82
6246.00,0.82
6245.00,0.82
6244.00,0.82
6243.00,0.82
6242.00,0.82
6241.00,0.82
6240.00,0.82
6239.00,0.83
6238.00,0.83
6237.00,0.83
6236.00,0.83
6235.00,0.83
6234.00,0.83
6233.00,0.83
6232.00,0.83
6231.00,0.83
6230.00,0.84
6229.00,0.84
6228.00,0.84
6227.00,0.84
6226.00,0.84
6225.00,0.84
6224.00,0.84
6223.00,0.84
6222.00,0.84
6221.00,0.84
6220.00,0.84
6219.00,0.84
6218.00,0.85
6217.00,0.85
6216.00,0.85
6215.00,0.85
6214.00,0.85
6213.00,0.85
6212.00,0.85
6211.00,0.85
6210.00,0.85
6209.00,0.85
6208.00,0.85
6207.00,0.85
6206.00,0.85
6205.00,0.85
6204.00,0.85
6203.00,0.86
6202.00,0.86
6201.00,0.86
6200.00,0.86
6199.00,0.86
6198.00,0.86
6197.00,0.86
6196.00,0.86
6195.00,0.86
6194.00,0.86
6193.00,0.87
6192.00,0.87
6191.00,0.87
6190.00,0.87
6189.00,0.87
6188.00,0.87
6187.00,0.87
6186.00,0.87
6185.00,0.87
6184.00,0.88
6183.00,0.88
6182.00,0.88
6181.00,0.88
6180.00,0.88
6179.00,0.88
6178.00,0.88
6177.00,0.89
6176.00,0.89
6175.00,0.89
6174.00,0.89
6173.00,0.89
6172.00,0.89
6171.00,0.89
6170.00,0.89
6169.00,0.90
6168.00,0.90
6167.00,0.90
6166.00,0.90
6165.00,0.90
6164.00,0.90
6163.00,0.90
6162.00,0.90
6161.00,0.90
6160.00,0.91
6159.00,0.91
6158.00,0.91
6157.00,0.91
6156.00,0.91
6155.00,0.91
6154.00,0.91
6153.00,0.92
6152.00,0.92
6151.00,0.92
6150.00,0.92
6149.00,0.92
6148.00,0.92
6147.00,0.92
6146.00,0.92
6145.00,0.93
6144.00,0.93
6143.00,0.93
6142.00,0.93
6141.00,0.93
6140.00,0.93
6139.00,0.93
6138.00,0.93
6137.00,0.93
6136.00,0.94
6135.00,0.94
6134.00,0.94
6133.00,0.94
6132.00,0.94
6131.00,0.94
6130.00,0.94
6129.00,0.94
6128.00,0.94
6127.00,0.94
6126.00,0.94
6125.00,0.95
6124.00,0.95
6123.00,0.95
6122.00,0.95
6121.00,0.95
6120.00,0.95
6119.00,0.95
6118.00,0.95
6117.00,0.96
6116.00,0.96
6115.00,0.96
6114.00,0.96
6113.00,0.96
6112.00,0.96
6111.00,0.96
6110.00,0.96
6109.00,0.96
6108.00,0.97
6107.00,0.97
6106.00,0.97
6105.00,0.97
6104.00,0.97
6103.00,0.97
6102.00,0.97
6101.00,0.97
6100.00,0.97
6099.00,0.97
6098.00,0.97
6097.00,0.97
6096.00,0.97
6095.00,0.98
6094.00,0.98
6093.00,0.98
6092.00,0.98
6091.00,0.98
6090.00,0.98
6089.00,0.98
6088.00,0.98
6087.00,0.98
6086.00,0.99
6085.00,0.99
6084.00,0.99
6083.00,0.99
6082.00,0.99
6081.00,0.99
6080.00,0.99
6079.00,0.99
6078.00,0.99
6077.00,1.00
6076.00,1.00
6075.00,1.00
6074.00,1.00
6073.00,1.00
6072.00,1.00
6071.00,1.00
6070.00,1.00
6069.00,1.00
6068.00,1.00
6067.00,1.00
6066.00,1.01
6065.00,1.01
6064.00,1.01
6063.00,1.01
6062.00,1.01
6061.00,1.01
6060.00,1.01
6059.00,1.01
6058.00,1.01
6057.00,1.01
6056.00,1.01
6055.00,1.02
6054.00,1.02
6053.00,1.02
6052.00,1.02
6051.00,1.02
6050.00,1.02
6049.00,1.02
6048.00,1.02
6047.00,1.02
6046.00,1.02
6045.00,1.02
6044.00,1.02
6043.00,1.02
6042.00,1.02
6041.00,1.02
6040.00,1.02
6039.00,1.02
6038.00,1.02
6037.00,1.02
6036.00,1.02
6035.00,1.02
6034.00,1.02
6033.00,1.02
6032.00,1.02
6031.00,1.02
6030.00,1.03
6029.00,1.03
6028.00,1.03
6027.00,1.03
6026.00,1.03
6025.00,1.03
6024.00,1.03
6023.00,1.03
6022.00,1.03
6021.00,1.03
6020.00,1.03
6019.00,1.03
6018.00,1.03
6017.00,1.03
6016.00,1.03
6015.00,1.03
6014.00,1.03
6013.00,1.03
6012.00,1.03
6011.00,1.03
6010.00,1.03
6009.00,1.03
6008.00,1.03
6007.00,1.03
6006.00,1.03
6005.00,1.03
6004.00,1.03
6003.00,1.03
6002.00,1.03
6001.00,1.03
6000.00,1.03
5999.00,1.03
5998.00,1.03
5997.00,1.03
5996.00,1.02
5995.00,1.02
5994.00,1.02
5993.00,1.02
5992.00,1.02
5991.00,1.02
5990.00,1.02
5989.00,1.02
5988.00,1.01
5987.00,1.01
5986.00,1.01
5985.00,1.01
5984.00,1.01
5983.00,1.01
5982.00,1.00
5981.00,1.00
5980.00,1.00
5979.00,1.00
5978.00,0.99
5977.00,0.99
5976.00,0.99
5975.00,0.99
5974.00,0.98
5973.00,0.98
5972.00,0.98
5971.00,0.97
5970.00,0.97
5969.00,0.96
5968.00,0.96
5967.00,0.96
5966.00,0.95
5965.00,0.95
5964.00,0.94
5963.00,0.94
5962.00,0.93
5961.00,0.93
5960.00,0.92
5959.00,0.92
5958.00,0.91
5957.00,0.91
5956.00,0.90
5955.00,0.90
5954.00,0.90
5953.00,0.89
5952.00,0.89
5951.00,0.88
5950.00,0.88
5949.00,0.88
5948.00,0.87
5947.00,0.87
5946.00,0.87
5945.00,0.87
5944.00,0.87
5943.00,0.86
5942.00,0.86
5941.00,0.86
5940.00,0.86
5939.00,0.86
5938.00,0.86
5937.00,0.86
5936.00,0.86
5935.00,0.86
5934.00,0.85
5933.00,0.85
5932.00,0.85
5931.00,0.85
5930.00,0.85
5929.00,0.85
5928.00,0.85
5927.00,0.85
5926.00,0.85
5925.00,0.85
5924.00,0.84
5923.00,0.84
5922.00,0.84
5921.00,0.84
5920.00,0.84
5919.00,0.83
5918.00,0.83
5917.00,0.83
5916.00,0.83
5915.00,0.83
5914.00,0.82
5913.00,0.82
5912.00,0.82
5911.00,0.82
5910.00,0.82
5909.00,0.82
5908.00,0.81
5907.00,0.81
5906.00,0.81
5905.00,0.81
5904.00,0.81
5903.00,0.81
5902.00,0.81
5901.00,0.81
5900.00,0.81
5899.00,0.82
5898.00,0.82
5897.00,0.82
5896.00,0.82
5895.00,0.82
5894.00,0.82
5893.00,0.82
5892.00,0.82
5891.00,0.83
5890.00,0.83
5889.00,0.83
5888.00,0.83
5887.00,0.83
5886.00,0.83
5885.00,0.84
5884.00,0.84
5883.00,0.84
5882.00,0.84
5881.00,0.84
5880.00,0.84
5879.00,0.85
5878.00,0.85
5877.00,0.85
5876.00,0.85
5875.00,0.85
5874.00,0.86
5873.00,0.86
5872.00,0.86
5871.00,0.86
5870.00,0.86
5869.00,0.86
5868.00,0.86
5867.00,0.87
5866.00,0.87
5865.00,0.87
5864.00,0.87
5863.00,0.87
5862.00,0.87
5861.00,0.88
5860.00,0.88
5859.00,0.88
5858.00,0.88
5857.00,0.88
5856.00,0.88
5855.00,0.88
5854.00,0.88
5853.00,0.88
5852.00,0.88
5851.00,0.89
5850.00,0.89
5849.00,0.89
5848.00,0.89
5847.00,0.89
5846.00,0.89
5845.00,0.89
5844.00,0.89
5843.00,0.89
5842.00,0.89
5841.00,0.88
5840.00,0.88
5839.00,0.88
5838.00,0.88
5837.00,0.88
5836.00,0.88
5835.00,0.88
5834.00,0.88
5833.00,0.88
5832.00,0.88
5831.00,0.89
5830.00,0.89
5829.00,0.89
5828.00,0.89
5827.00,0.89
5826.00,0.89
5825.00,0.89
5824.00,0.89
5823.00,0.89
5822.00,0.89
5821.00,0.89
5820.00,0.89
5819.00,0.89
5818.00,0.89
5817.00,0.89
5816.00,0.89
5815.00,0.89
5814.00,0.89
5813.00,0.89
5812.00,0.89
5811.00,0.89
5810.00,0.89
5809.00,0.89
5808.00,0.89
5807.00,0.89
5806.00,0.89
5805.00,0.89
5804.00,0.89
5803.00,0.89
5802.00,0.88
5801.00,0.88
5800.00,0.88
5799.00,0.88
5798.00,0.88
5797.00,0.88
5796.00,0.88
5795.00,0.87
5794.00,0.87
5793.00,0.87
5792.00,0.87
5791.00,0.87
5790.00,0.87
5789.00,0.87
5788.00,0.86
5787.00,0.86
5786.00,0.86
5785.00,0.86
5784.00,0.86
5783.00,0.86
5782.00,0.86
5781.00,0.86
5780.00,0.86
5779.00,0.86
5778.00,0.86
5777.00,0.86
5776.00,0.86
5775.00,0.86
5774.00,0.86
5773.00,0.86
5772.00,0.86
5771.00,0.86
5770.00,0.86
5769.00,0.86
5768.00,0.86
5767.00,0.86
5766.00,0.86
5765.00,0.86
5764.00,0.86
5763.00,0.86
5762.00,0.86
5761.00,0.87
5760.00,0.87
5759.00,0.87
5758.00,0.87
5757.00,0.87
5756.00,0.88
5755.00,0.88
5754.00,0.88
5753.00,0.88
5752.00,0.88
5751.00,0.89
5750.00,0.89
5749.00,0.89
5748.00,0.89
5747.00,0.90
5746.00,0.90
5745.00,0.90
5744.00,0.90
5743.00,0.90
5742.00,0.90
5741.00,0.91
5740.00,0.91
5739.00,0.91
5738.00,0.91
5737.00,0.91
5736.00,0.91
5735.00,0.92
5734.00,0.92
5733.00,0.92
5732.00,0.92
5731.00,0.92
5730.00,0.92
5729.00,0.92
5728.00,0.92
5727.00,0.92
5726.00,0.93
5725.00,0.93
5724.00,0.93
5723.00,0.93
5722.00,0.93
5721.00,0.93
5720.00,0.93
5719.00,0.93
5718.00,0.93
5717.00,0.93
5716.00,0.93
5715.00,0.93
5714.00,0.93
5713.00,0.93
5712.00,0.93
5711.00,0.93
5710.00,0.93
5709.00,0.93
5708.00,0.93
5707.00,0.93
5706.00,0.93
5705.00,0.93
5704.00,0.93
5703.00,0.92
5702.00,0.92
5701.00,0.92
5700.00,0.92
5699.00,0.92
5698.00,0.92
5697.00,0.92
5696.00,0.92
5695.00,0.92
5694.00,0.92
5693.00,0.91
5692.00,0.91
5691.00,0.91
5690.00,0.91
5689.00,0.91
5688.00,0.91
5687.00,0.91
5686.00,0.91
5685.00,0.91
5684.00,0.91
5683.00,0.91
5682.00,0.90
5681.00,0.90
5680.00,0.90
5679.00,0.90
5678.00,0.90
5677.00,0.90
5676.00,0.90
5675.00,0.90
5674.00,0.90
5673.00,0.90
5672.00,0.90
5671.00,0.90
5670.00,0.90
5669.00,0.90
5668.00,0.90
5667.00,0.90
5666.00,0.90
5665.00,0.91
5664.00,0.91
5663.00,0.91
5662.00,0.91
5661.00,0.91
5660.00,0.91
5659.00,0.91
5658.00,0.91
5657.00,0.91
5656.00,0.92
5655.00,0.92
5654.00,0.92
5653.00,0.92
5652.00,0.92
5651.00,0.92
5650.00,0.92
5649.00,0.92
5648.00,0.92
5647.00,0.93
5646.00,0.93
5645.00,0.93
5644.00,0.93
5643.00,0.93
5642.00,0.93
5641.00,0.93
5640.00,0.93
5639.00,0.94
5638.00,0.94
5637.00,0.94
5636.00,0.94
5635.00,0.94
5634.00,0.94
5633.00,0.94
5632.00,0.94
5631.00,0.95
5630.00,0.95
5629.00,0.95
5628.00,0.95
5627.00,0.95
5626.00,0.95
5625.00,0.95
5624.00,0.95
5623.00,0.95
5622.00,0.96
5621.00,0.96
5620.00,0.96
5619.00,0.96
5618.00,0.96
5617.00,0.96
5616.00,0.96
5615.00,0.96
5614.00,0.97
5613.00,0.97
5612.00,0.97
5611.00,0.97
5610.00,0.97
5609.00,0.97
5608.00,0.97
5607.00,0.97
5606.00,0.98
5605.00,0.98
5604.00,0.98
5603.00,0.98
5602.00,0.98
5601.00,0.98
5600.00,0.98
5599.00,0.98
5598.00,0.98
5597.00,0.99
5596.00,0.99
5595.00,0.99
5594.00,0.99
5593.00,0.99
5592.00,0.99
5591.00,0.99
5590.00,0.99
5589.00,0.99
5588.00,1.00
5587.00,1.00
5586.00,1.00
5585.00,1.00
5584.00,1.00
5583.00,1.00
5582.00,1.00
5581.00,1.00
5580.00,1.01
5579.00,1.01
5578.00,1.01
5577.00,1.01
5576.00,1.01
5575.00,1.01
5574.00,1.01
5573.00,1.01
5572.00,1.01
5571.00,1.02
5570.00,1.02
5569.00,1.02
5568.00,1.02
5567.00,1.02
5566.00,1.02
5565.00,1.02
5564.00,1.02
5563.00,1.02
5562.00,1.02
5561.00,1.03
5560.00,1.03
5559.00,1.03
5558.00,1.03
5557.00,1.03
5556.00,1.03
5555.00,1.03
5554.00,1.03
5553.00,1.03
5552.00,1.03
5551.00,1.03
5550.00,1.03
5549.00,1.03
5548.00,1.03
5547.00,1.03
5546.00,1.04
5545.00,1.04
5544.00,1.04
5543.00,1.04
5542.00,1.04
5541.00,1.04
5540.00,1.04
5539.00,1.04
5538.00,1.04
5537.00,1.04
5536.00,1.04
5535.00,1.05
5534.00,1.05
5533.00,1.05
5532.00,1.05
5531.00,1.05
5530.00,1.05
5529.00,1.05
5528.00,1.05
5527.00,1.05
5526.00,1.05
5525.00,1.05
5524.00,1.05
5523.00,1.05
5522.00,1.05
5521.00,1.05
5520.00,1.05
5519.00,1.05
5518.00,1.06
5517.00,1.06
5516.00,1.06
5515.00,1.06
5514.00,1.06
5513.00,1.06
5512.00,1.06
5511.00,1.06
5510.00,1.06
5509.00,1.06
5508.00,1.06
5507.00,1.06
5506.00,1.06
5505.00,1.07
5504.00,1.07
5503.00,1.07
5502.00,1.07
5501.00,1.07
5500.00,1.07
5499.00,1.07
5498.00,1.07
5497.00,1.07
5496.00,1.07
5495.00,1.07
5494.00,1.07
5493.00,1.07
5492.00,1.08
5491.00,1.08
5490.00,1.08
5489.00,1.08
5488.00,1.08
5487.00,1.08
5486.00,1.08
5485.00,1.08
5484.00,1.08
5483.00,1.08
5482.00,1.08
5481.00,1.08
5480.00,1.08
5479.00,1.08
5478.00,1.08
5477.00,1.09
5476.00,1.09
5475.00,1.09
5474.00,1.09
5473.00,1.09
5472.00,1.09
5471.00,1.09
5470.00,1.09
5469.00,1.09
5468.00,1.09
5467.00,1.09
5466.00,1.09
5465.00,1.10
5464.00,1.10
5463.00,1.10
5462.00,1.10
5461.00,1.10
5460.00,1.10
5459.00,1.10
5458.00,1.10
5457.00,1.10
5456.00,1.10
5455.00,1.10
5454.00,1.10
5453.00,1.11
5452.00,1.11
5451.00,1.11
5450.00,1.11
5449.00,1.11
5448.00,1.11
5447.00,1.11
5446.00,1.11
5445.00,1.11
5444.00,1.11
5443.00,1.11
5442.00,1.11
5441.00,1.11
5440.00,1.11
5439.00,1.11
5438.00,1.11
5437.00,1.11
5436.00,1.11
5435.00,1.11
5434.00,1.11
5433.00,1.11
5432.00,1.11
5431.00,1.11
5430.00,1.11
5429.00,1.11
5428.00,1.11
5427.00,1.11
5426.00,1.11
5425.00,1.11
5424.00,1.11
5423.00,1.11
5422.00,1.11
5421.00,1.11
5420.00,1.11
5419.00,1.11
5418.00,1.11
5417.00,1.11
5416.00,1.10
5415.00,1.10
5414.00,1.10
5413.00,1.10
5412.00,1.10
5411.00,1.10
5410.00,1.10
5409.00,1.10
5408.00,1.10
5407.00,1.10
5406.00,1.10
5405.00,1.10
5404.00,1.10
5403.00,1.10
5402.00,1.10
5401.00,1.10
5400.00,1.10
5399.00,1.10
5398.00,1.10
5397.00,1.10
5396.00,1.10
5395.00,1.10
5394.00,1.10
5393.00,1.09
5392.00,1.09
5391.00,1.09
5390.00,1.09
5389.00,1.09
5388.00,1.08
5387.00,1.08
5386.00,1.08
5385.00,1.08
5384.00,1.07
5383.00,1.07
5382.00,1.07
5381.00,1.07
5380.00,1.06
5379.00,1.06
5378.00,1.06
5377.00,1.05
5376.00,1.05
5375.00,1.05
5374.00,1.04
5373.00,1.04
5372.00,1.04
5371.00,1.03
5370.00,1.03
5369.00,1.03
5368.00,1.02
5367.00,1.02
5366.00,1.01
5365.00,1.01
5364.00,1.00
5363.00,1.00
5362.00,0.99
5361.00,0.99
5360.00,0.98
5359.00,0.98
5358.00,0.97
5357.00,0.97
5356.00,0.96
5355.00,0.95
5354.00,0.95
5353.00,0.94
5352.00,0.94
5351.00,0.93
5350.00,0.92
5349.00,0.92
5348.00,0.91
5347.00,0.90
5346.00,0.90
5345.00,0.89
5344.00,0.88
5343.00,0.88
5342.00,0.87
5341.00,0.86
5340.00,0.86
5339.00,0.85
5338.00,0.85
5337.00,0.84
5336.00,0.83
5335.00,0.83
5334.00,0.82
5333.00,0.82
5332.00,0.81
5331.00,0.81
5330.00,0.80
5329.00,0.80
5328.00,0.79
5327.00,0.79
5326.00,0.78
5325.00,0.78
5324.00,0.77
5323.00,0.77
5322.00,0.76
5321.00,0.76
5320.00,0.75
5319.00,0.75
5318.00,0.74
5317.00,0.74
5316.00,0.74
5315.00,0.73
5314.00,0.73
5313.00,0.72
5312.00,0.72
5311.00,0.72
5310.00,0.71
5309.00,0.71
5308.00,0.71
5307.00,0.70
5306.00,0.70
5305.00,0.70
5304.00,0.70
5303.00,0.69
5302.00,0.69
5301.00,0.69
5300.00,0.69
5299.00,0.69
5298.00,0.69
5297.00,0.68
5296.00,0.68
5295.00,0.68
5294.00,0.68
5293.00,0.68
5292.00,0.68
5291.00,0.68
5290.00,0.68
5289.00,0.68
5288.00,0.68
5287.00,0.68
5286.00,0.68
5285.00,0.68
5284.00,0.68
5283.00,0.68
5282.00,0.68
5281.00,0.68
5280.00,0.68
5279.00,0.68
5278.00,0.68
5277.00,0.68
5276.00,0.68
5275.00,0.68
5274.00,0.68
5273.00,0.68
5272.00,0.68
5271.00,0.68
5270.00,0.68
5269.00,0.68
5268.00,0.68
5267.00,0.68
5266.00,0.68
5265.00,0.68
5264.00,0.68
5263.00,0.68
5262.00,0.68
5261.00,0.68
5260.00,0.68
5259.00,0.68
5258.00,0.68
5257.00,0.68
5256.00,0.68
5255.00,0.68
5254.00,0.68
5253.00,0.68
5252.00,0.68
5251.00,0.68
5250.00,0.68
5249.00,0.68
5248.00,0.68
5247.00,0.68
5246.00,0.68
5245.00,0.68
5244.00,0.68
5243.00,0.68
5242.00,0.68
5241.00,0.68
5240.00,0.68
5239.00,0.68
5238.00,0.68
5237.00,0.68
5236.00,0.68
5235.00,0.68
5234.00,0.68
5233.00,0.68
5232.00,0.68
5231.00,0.68
5230.00,0.68
5229.00,0.68
5228.00,0.69
5227.00,0.69
5226.00,0.69
5225.00,0.69
5224.00,0.69
5223.00,0.69
5222.00,0.69
5221.00,0.69
5220.00,0.69
5219.00,0.69
5218.00,0.69
5217.00,0.69
5216.00,0.69
5215.00,0.69
5214.00,0.69
5213.00,0.69
5212.00,0.69
5211.00,0.69
5210.00,0.69
5209.00,0.69
5208.00,0.69
5207.00,0.69
5206.00,0.69
5205.00,0.69
5204.00,0.69
5203.00,0.69
5202.00,0.69
5201.00,0.69
5200.00,0.69
5199.00,0.69
5198.00,0.69
5197.00,0.69
5196.00,0.69
5195.00,0.69
5194.00,0.69
5193.00,0.69
5192.00,0.69
5191.00,0.69
5190.00,0.69
5189.00,0.69
5188.00,0.69
5187.00,0.69
5186.00,0.69
5185.00,0.69
5184.00,0.69
5183.00,0.69
5182.00,0.69
5181.00,0.69
5180.00,0.70
5179.00,0.70
5178.00,0.70
5177.00,0.70
5176.00,0.70
5175.00,0.70
5174.00,0.70
5173.00,0.70
5172.00,0.70
5171.00,0.70
5170.00,0.70
5169.00,0.70
5168.00,0.70
5167.00,0.70
5166.00,0.70
5165.00,0.70
5164.00,0.70
5163.00,0.70
5162.00,0.70
5161.00,0.71
5160.00,0.71
5159.00,0.71
5158.00,0.71
5157.00,0.71
5156.00,0.71
5155.00,0.71
5154.00,0.71
5153.00,0.71
5152.00,0.71
5151.00,0.71
5150.00,0.71
5149.00,0.71
5148.00,0.71
5147.00,0.71
5146.00,0.71
5145.00,0.71
5144.00,0.71
5143.00,0.71
5142.00,0.71
5141.00,0.71
5140.00,0.71
5139.00,0.71
5138.00,0.71
5137.00,0.71
5136.00,0.71
5135.00,0.71
5134.00,0.71
5133.00,0.71
5132.00,0.71
5131.00,0.71
5130.00,0.71
5129.00,0.71
5128.00,0.71
5127.00,0.71
5126.00,0.71
5125.00,0.71
5124.00,0.71
5123.00,0.71
5122.00,0.71
5121.00,0.71
5120.00,0.71
5119.00,0.71
5118.00,0.71
5117.00,0.71
5116.00,0.72
5115.00,0.72
5114.00,0.72
5113.00,0.72
5112.00,0.72
5111.00,0.72
5110.00,0.72
5109.00,0.72
5108.00,0.72
5107.00,0.72
5106.00,0.72
5105.00,0.72
5104.00,0.72
5103.00,0.72
5102.00,0.72
5101.00,0.72
5100.00,0.72
5099.00,0.72
5098.00,0.72
5097.00,0.72
5096.00,0.72
5095.00,0.72
5094.00,0.72
5093.00,0.72
5092.00,0.72
5091.00,0.73
5090.00,0.73
5089.00,0.73
5088.00,0.73
5087.00,0.73
5086.00,0.73
5085.00,0.73
5084.00,0.73
5083.00,0.73
5082.00,0.73
5081.00,0.73
5080.00,0.73
5079.00,0.73
5078.00,0.73
5077.00,0.73
5076.00,0.73
5075.00,0.74
5074.00,0.74
5073.00,0.74
5072.00,0.74
5071.00,0.74
5070.00,0.74
5069.00,0.74
5068.00,0.74
5067.00,0.74
5066.00,0.74
5065.00,0.74
5064.00,0.74
5063.00,0.74
5062.00,0.74
5061.00,0.74
5060.00,0.74
5059.00,0.74
5058.00,0.74
5057.00,0.74
5056.00,0.74
5055.00,0.74
5054.00,0.74
5053.00,0.74
5052.00,0.74
5051.00,0.74
5050.00,0.74
5049.00,0.74
5048.00,0.74
5047.00,0.74
5046.00,0.74
5045.00,0.74
5044.00,0.74
5043.00,0.74
5042.00,0.74
5041.00,0.74
5040.00,0.74
5039.00,0.74
5038.00,0.74
5037.00,0.74
5036.00,0.74
5035.00,0.74
5034.00,0.74
5033.00,0.75
5032.00,0.75
5031.00,0.75
5030.00,0.75
5029.00,0.75
5028.00,0.75
5027.00,0.75
5026.00,0.75
5025.00,0.75
5024.00,0.75
5023.00,0.75
5022.00,0.75
5021.00,0.75
5020.00,0.75
5019.00,0.75
5018.00,0.75
5017.00,0.75
5016.00,0.75
5015.00,0.75
5014.00,0.75
5013.00,0.75
5012.00,0.75
5011.00,0.75
5010.00,0.75
5009.00,0.76
5008.00,0.76
5007.00,0.76
5006.00,0.76
5005.00,0.76
5004.00,0.76
5003.00,0.76
5002.00,0.76
5001.00,0.76
5000.00,0.76
4999.00,0.76
4998.00,0.76
4997.00,0.76
4996.00,0.76
4995.00,0.76
4994.00,0.76
4993.00,0.76
4992.00,0.76
4991.00,0.76
4990.00,0.76
4989.00,0.76
4988.00,0.76
4987.00,0.77
4986.00,0.77
4985.00,0.77
4984.00,0.77
4983.00,0.77
4982.00,0.77
4981.00,0.77
4980.00,0.77
4979.00,0.77
4978.00,0.77
4977.00,0.77
4976.00,0.77
4975.00,0.77
4974.00,0.77
4973.00,0.77
4972.00,0.77
4971.00,0.77
4970.00,0.77
4969.00,0.77
4968.00,0.77
4967.00,0.77
4966.00,0.77
4965.00,0.77
4964.00,0.77
4963.00,0.77
4962.00,0.77
4961.00,0.77
4960.00,0.77
4959.00,0.77
4958.00,0.77
4957.00,0.77
4956.00,0.78
4955.00,0.78
4954.00,0.78
4953.00,0.78
4952.00,0.78
4951.00,0.78
4950.00,0.78
4949.00,0.78
4948.00,0.78
4947.00,0.78
4946.00,0.78
4945.00,0.78
4944.00,0.78
4943.00,0.78
4942.00,0.78
4941.00,0.78
4940.00,0.78
4939.00,0.78
4938.00,0.78
4937.00,0.78
4936.00,0.78
4935.00,0.78
4934.00,0.78
4933.00,0.78
4932.00,0.78
4931.00,0.78
4930.00,0.78
4929.00,0.78
4928.00,0.78
4927.00,0.78
4926.00,0.78
4925.00,0.78
4924.00,0.78
4923.00,0.78
4922.00,0.78
4921.00,0.78
4920.00,0.78
4919.00,0.78
4918.00,0.78
4917.00,0.79
4916.00,0.79
4915.00,0.79
4914.00,0.79
4913.00,0.79
4912.00,0.79
4911.00,0.79
4910.00,0.79
4909.00,0.79
4908.00,0.79
4907.00,0.79
4906.00,0.79
4905.00,0.79
4904.00,0.79
4903.00,0.79
4902.00,0.79
4901.00,0.79
4900.00,0.79
4899.00,0.79
4898.00,0.79
4897.00,0.79
4896.00,0.79
4895.00,0.79
4894.00,0.79
4893.00,0.79
4892.00,0.79
4891.00,0.80
4890.00,0.80
4889.00,0.80
4888.00,0.80
4887.00,0.80
4886.00,0.80
4885.00,0.80
4884.00,0.80
4883.00,0.80
4882.00,0.80
4881.00,0.80
4880.00,0.80
4879.00,0.80
4878.00,0.80
4877.00,0.80
4876.00,0.80
4875.00,0.81
4874.00,0.81
4873.00,0.81
4872.00,0.81
4871.00,0.81
4870.00,0.81
4869.00,0.81
4868.00,0.81
4867.00,0.81
4866.00,0.81
4865.00,0.81
4864.00,0.81
4863.00,0.81
4862.00,0.81
4861.00,0.81
4860.00,0.81
4859.00,0.81
4858.00,0.81
4857.00,0.81
4856.00,0.81
4855.00,0.81
4854.00,0.81
4853.00,0.81
4852.00,0.82
4851.00,0.82
4850.00,0.82
4849.00,0.82
4848.00,0.82
4847.00,0.82
4846.00,0.82
4845.00,0.82
4844.00,0.82
4843.00,0.82
4842.00,0.82
4841.00,0.82
4840.00,0.82
4839.00,0.82
4838.00,0.82
4837.00,0.82
4836.00,0.82
4835.00,0.82
4834.00,0.82
4833.00,0.82
4832.00,0.82
4831.00,0.82
4830.00,0.82
4829.00,0.82
4828.00,0.82
4827.00,0.82
4826.00,0.82
4825.00,0.83
4824.00,0.83
4823.00,0.83
4822.00,0.83
4821.00,0.83
4820.00,0.83
4819.00,0.83
4818.00,0.83
4817.00,0.83
4816.00,0.83
4815.00,0.83
4814.00,0.83
4813.00,0.83
4812.00,0.83
4811.00,0.83
4810.00,0.83
4809.00,0.83
4808.00,0.84
4807.00,0.84
4806.00,0.84
4805.00,0.84
4804.00,0.84
4803.00,0.84
4802.00,0.84
4801.00,0.84
4800.00,0.84
4799.00,0.84
4798.00,0.84
4797.00,0.85
4796.00,0.85
4795.00,0.85
4794.00,0.85
4793.00,0.85
4792.00,0.85
4791.00,0.85
4790.00,0.85
4789.00,0.85
4788.00,0.85
4787.00,0.85
4786.00,0.85
4785.00,0.85
4784.00,0.85
4783.00,0.85
4782.00,0.85
4781.00,0.85
4780.00,0.85
4779.00,0.85
4778.00,0.85
4777.00,0.85
4776.00,0.85
4775.00,0.85
4774.00,0.85
4773.00,0.85
4772.00,0.85
4771.00,0.85
4770.00,0.85
4769.00,0.85
4768.00,0.85
4767.00,0.85
4766.00,0.85
4765.00,0.85
4764.00,0.85
4763.00,0.85
4762.00,0.86
4761.00,0.86
4760.00,0.86
4759.00,0.86
4758.00,0.86
4757.00,0.86
4756.00,0.86
4755.00,0.86
4754.00,0.86
4753.00,0.86
4752.00,0.86
4751.00,0.86
4750.00,0.86
4749.00,0.87
4748.00,0.87
4747.00,0.87
4746.00,0.87
4745.00,0.87
4744.00,0.87
4743.00,0.87
4742.00,0.87
4741.00,0.87
4740.00,0.87
4739.00,0.87
4738.00,0.87
4737.00,0.87
4736.00,0.87
4735.00,0.87
4734.00,0.88
4733.00,0.88
4732.00,0.88
4731.00,0.88
4730.00,0.88
4729.00,0.88
4728.00,0.88
4727.00,0.88
4726.00,0.88
4725.00,0.88
4724.00,0.88
4723.00,0.88
4722.00,0.88
4721.00,0.88
4720.00,0.88
4719.00,0.88
4718.00,0.88
4717.00,0.88
4716.00,0.88
4715.00,0.89
4714.00,0.89
4713.00,0.89
4712.00,0.89
4711.00,0.89
4710.00,0.89
4709.00,0.89
4708.00,0.89
4707.00,0.89
4706.00,0.90
4705.00,0.90
4704.00,0.90
4703.00,0.90
4702.00,0.90
4701.00,0.90
4700.00,0.90
4699.00,0.90
4698.00,0.90
4697.00,0.91
4696.00,0.91
4695.00,0.91
4694.00,0.91
4693.00,0.91
4692.00,0.91
4691.00,0.91
4690.00,0.91
4689.00,0.91
4688.00,0.91
4687.00,0.91
4686.00,0.91
4685.00,0.91
4684.00,0.91
4683.00,0.91
4682.00,0.91
4681.00,0.91
4680.00,0.91
4679.00,0.91
4678.00,0.91
4677.00,0.91
4676.00,0.91
4675.00,0.91
4674.00,0.91
4673.00,0.91
4672.00,0.91
4671.00,0.92
4670.00,0.92
4669.00,0.92
4668.00,0.92
4667.00,0.92
4666.00,0.92
4665.00,0.92
4664.00,0.92
4663.00,0.92
4662.00,0.92
4661.00,0.92
4660.00,0.92
4659.00,0.92
4658.00,0.92
4657.00,0.92
4656.00,0.92
4655.00,0.93
4654.00,0.93
4653.00,0.93
4652.00,0.93
4651.00,0.93
4650.00,0.93
4649.00,0.93
4648.00,0.93
4647.00,0.93
4646.00,0.93
4645.00,0.93
4644.00,0.94
4643.00,0.94
4642.00,0.94
4641.00,0.94
4640.00,0.94
4639.00,0.94
4638.00,0.94
4637.00,0.94
4636.00,0.94
4635.00,0.95
4634.00,0.95
4633.00,0.95
4632.00,0.95
4631.00,0.95
4630.00,0.95
4629.00,0.95
4628.00,0.95
4627.00,0.95
4626.00,0.95
4625.00,0.95
4624.00,0.95
4623.00,0.95
4622.00,0.96
4621.00,0.96
4620.00,0.96
4619.00,0.96
4618.00,0.96
4617.00,0.96
4616.00,0.96
4615.00,0.96
4614.00,0.96
4613.00,0.96
4612.00,0.96
4611.00,0.96
4610.00,0.96
4609.00,0.96
4608.00,0.96
4607.00,0.96
4606.00,0.96
4605.00,0.96
4604.00,0.96
4603.00,0.96
4602.00,0.96
4601.00,0.96
4600.00,0.96
4599.00,0.96
4598.00,0.97
4597.00,0.97
4596.00,0.97
4595.00,0.97
4594.00,0.97
4593.00,0.97
4592.00,0.97
4591.00,0.97
4590.00,0.97
4589.00,0.97
4588.00,0.97
4587.00,0.97
4586.00,0.97
4585.00,0.97
4584.00,0.97
4583.00,0.97
4582.00,0.97
4581.00,0.97
4580.00,0.97
4579.00,0.97
4578.00,0.97
4577.00,0.97
4576.00,0.97
4575.00,0.97
4574.00,0.97
4573.00,0.97
4572.00,0.97
4571.00,0.97
4570.00,0.97
4569.00,0.97
4568.00,0.97
4567.00,0.97
4566.00,0.97
4565.00,0.97
4564.00,0.97
4563.00,0.97
4562.00,0.97
4561.00,0.97
4560.00,0.97
4559.00,0.97
4558.00,0.98
4557.00,0.98
4556.00,0.98
4555.00,0.98
4554.00,0.98
4553.00,0.98
4552.00,0.98
4551.00,0.98
4550.00,0.98
4549.00,0.98
4548.00,0.98
4547.00,0.98
4546.00,0.99
4545.00,0.99
4544.00,0.99
4543.00,0.99
4542.00,0.99
4541.00,0.99
4540.00,0.99
4539.00,0.99
4538.00,0.99
4537.00,0.99
4536.00,0.99
4535.00,0.99
4534.00,0.99
4533.00,0.99
4532.00,0.99
4531.00,0.99
4530.00,0.99
4529.00,0.99
4528.00,0.99
4527.00,0.99
4526.00,0.99
4525.00,0.99
4524.00,0.99
4523.00,0.99
4522.00,0.99
4521.00,0.99
4520.00,0.99
4519.00,0.99
4518.00,0.99
4517.00,0.99
4516.00,0.99
4515.00,0.99
4514.00,0.99
4513.00,0.99
4512.00,0.99
4511.00,0.99
4510.00,0.99
4509.00,0.99
4508.00,0.99
4507.00,1.00
4506.00,1.00
4505.00,1.00
4504.00,0.99
4503.00,0.99
4502.00,0.99
4501.00,0.99
4500.00,0.99
4499.00,0.99
4498.00,0.99
4497.00,0.99
4496.00,0.99
4495.00,0.99
4494.00,0.99
4493.00,0.99
4492.00,0.99
4491.00,0.99
4490.00,0.99
4489.00,0.99
4488.00,0.99
4487.00,0.98
4486.00,0.98
4485.00,0.98
4484.00,0.98
4483.00,0.98
4482.00,0.98
4481.00,0.98
4480.00,0.98
4479.00,0.98
4478.00,0.98
4477.00,0.98
4476.00,0.98
4475.00,0.98
4474.00,0.98
4473.00,0.98
4472.00,0.98
4471.00,0.98
4470.00,0.98
4469.00,0.97
4468.00,0.97
4467.00,0.97
4466.00,0.97
4465.00,0.97
4464.00,0.97
4463.00,0.97
4462.00,0.97
4461.00,0.97
4460.00,0.97
4459.00,0.97
4458.00,0.97
4457.00,0.97
4456.00,0.96
4455.00,0.96
4454.00,0.96
4453.00,0.96
4452.00,0.96
4451.00,0.96
4450.00,0.96
4449.00,0.96
4448.00,0.96
4447.00,0.96
4446.00,0.96
4445.00,0.95
4444.00,0.95
4443.00,0.95
4442.00,0.95
4441.00,0.95
4440.00,0.95
4439.00,0.95
4438.00,0.95
4437.00,0.95
4436.00,0.94
4435.00,0.94
4434.00,0.94
4433.00,0.94
4432.00,0.94
4431.00,0.94
4430.00,0.94
4429.00,0.94
4428.00,0.94
4427.00,0.94
4426.00,0.94
4425.00,0.94
4424.00,0.94
4423.00,0.94
4422.00,0.94
4421.00,0.94
4420.00,0.94
4419.00,0.94
4418.00,0.94
4417.00,0.94
4416.00,0.94
4415.00,0.94
4414.00,0.94
4413.00,0.94
4412.00,0.94
4411.00,0.94
4410.00,0.94
4409.00,0.94
4408.00,0.94
4407.00,0.94
4406.00,0.95
4405.00,0.95
4404.00,0.95
4403.00,0.95
4402.00,0.95
4401.00,0.95
4400.00,0.95
4399.00,0.95
4398.00,0.95
4397.00,0.95
4396.00,0.95
4395.00,0.95
4394.00,0.95
4393.00,0.95
4392.00,0.95
4391.00,0.95
4390.00,0.95
4389.00,0.96
4388.00,0.96
4387.00,0.96
4386.00,0.96
4385.00,0.96
4384.00,0.96
4383.00,0.96
4382.00,0.96
4381.00,0.96
4380.00,0.96
4379.00,0.96
4378.00,0.96
4377.00,0.96
4376.00,0.96
4375.00,0.96
4374.00,0.96
4373.00,0.96
4372.00,0.96
4371.00,0.96
4370.00,0.96
4369.00,0.96
4368.00,0.96
4367.00,0.96
4366.00,0.96
4365.00,0.96
4364.00,0.96
4363.00,0.96
4362.00,0.97
4361.00,0.97
4360.00,0.97
4359.00,0.97
4358.00,0.96
4357.00,0.96
4356.00,0.96
4355.00,0.96
4354.00,0.96
4353.00,0.96
4352.00,0.96
4351.00,0.96
4350.00,0.96
4349.00,0.96
4348.00,0.97
4347.00,0.97
4346.00,0.97
4345.00,0.97
4344.00,0.97
4343.00,0.97
4342.00,0.97
4341.00,0.97
4340.00,0.97
4339.00,0.97
4338.00,0.97
4337.00,0.97
4336.00,0.97
4335.00,0.97
4334.00,0.97
4333.00,0.97
4332.00,0.97
4331.00,0.97
4330.00,0.97
4329.00,0.97
4328.00,0.97
4327.00,0.97
4326.00,0.97
4325.00,0.97
4324.00,0.98
4323.00,0.98
4322.00,0.98
4321.00,0.98
4320.00,0.98
4319.00,0.98
4318.00,0.98
4317.00,0.98
4316.00,0.98
4315.00,0.98
4314.00,0.98
4313.00,0.99
4312.00,0.99
4311.00,0.99
4310.00,0.99
4309.00,0.99
4308.00,0.99
4307.00,0.99
4306.00,0.99
4305.00,0.99
4304.00,0.99
4303.00,0.99
4302.00,0.99
4301.00,0.99
4300.00,0.99
4299.00,0.99
4298.00,0.99
4297.00,0.99
4296.00,0.99
4295.00,0.99
4294.00,1.00
4293.00,1.00
4292.00,1.00
4291.00,1.00
4290.00,1.00
4289.00,1.00
4288.00,1.00
4287.00,1.00
4286.00,1.00
4285.00,1.00
4284.00,1.00
4283.00,1.00
4282.00,1.00
4281.00,1.00
4280.00,1.01
4279.00,1.01
4278.00,1.01
4277.00,1.01
4276.00,1.01
4275.00,1.01
4274.00,1.01
4273.00,1.01
4272.00,1.01
4271.00,1.02
4270.00,1.02
4269.00,1.02
4268.00,1.02
4267.00,1.02
4266.00,1.02
4265.00,1.02
4264.00,1.02
4263.00,1.02
4262.00,1.02
4261.00,1.02
4260.00,1.02
4259.00,1.02
4258.00,1.02
4257.00,1.02
4256.00,1.01
4255.00,1.01
4254.00,1.01
4253.00,1.01
4252.00,1.01
4251.00,1.01
4250.00,1.01
4249.00,1.01
4248.00,1.01
4247.00,1.01
4246.00,1.01
4245.00,1.01
4244.00,1.01
4243.00,1.01
4242.00,1.01
4241.00,1.01
4240.00,1.02
4239.00,1.02
4238.00,1.02
4237.00,1.02
4236.00,1.02
4235.00,1.02
4234.00,1.02
4233.00,1.02
4232.00,1.02
4231.00,1.03
4230.00,1.03
4229.00,1.03
4228.00,1.03
4227.00,1.03
4226.00,1.03
4225.00,1.03
4224.00,1.03
4223.00,1.03
4222.00,1.03
4221.00,1.03
4220.00,1.03
4219.00,1.03
4218.00,1.03
4217.00,1.03
4216.00,1.03
4215.00,1.03
4214.00,1.04
4213.00,1.04
4212.00,1.04
4211.00,1.04
4210.00,1.04
4209.00,1.04
4208.00,1.04
4207.00,1.04
4206.00,1.04
4205.00,1.04
4204.00,1.04
4203.00,1.04
4202.00,1.04
4201.00,1.03
4200.00,1.03
4199.00,1.03
4198.00,1.03
4197.00,1.03
4196.00,1.03
4195.00,1.03
4194.00,1.03
4193.00,1.03
4192.00,1.03
4191.00,1.03
4190.00,1.03
4189.00,1.03
4188.00,1.03
4187.00,1.03
4186.00,1.03
4185.00,1.03
4184.00,1.03
4183.00,1.03
4182.00,1.03
4181.00,1.03
4180.00,1.03
4179.00,1.03
4178.00,1.04
4177.00,1.04
4176.00,1.04
4175.00,1.04
4174.00,1.04
4173.00,1.04
4172.00,1.04
4171.00,1.04
4170.00,1.04
4169.00,1.04
4168.00,1.05
4167.00,1.05
4166.00,1.05
4165.00,1.05
4164.00,1.05
4163.00,1.05
4162.00,1.05
4161.00,1.05
4160.00,1.05
4159.00,1.05
4158.00,1.05
4157.00,1.05
4156.00,1.05
4155.00,1.05
4154.00,1.05
4153.00,1.05
4152.00,1.05
4151.00,1.05
4150.00,1.05
4149.00,1.05
4148.00,1.05
4147.00,1.05
4146.00,1.05
4145.00,1.05
4144.00,1.05
4143.00,1.05
4142.00,1.05
4141.00,1.05
4140.00,1.05
4139.00,1.05
4138.00,1.05
4137.00,1.05
4136.00,1.05
4135.00,1.05
4134.00,1.06
4133.00,1.06
4132.00,1.06
4131.00,1.06
4130.00,1.06
4129.00,1.06
4128.00,1.06
4127.00,1.06
4126.00,1.06
4125.00,1.06
4124.00,1.07
4123.00,1.07
4122.00,1.07
4121.00,1.07
4120.00,1.07
4119.00,1.07
4118.00,1.07
4117.00,1.07
4116.00,1.07
4115.00,1.07
4114.00,1.08
4113.00,1.08
4112.00,1.08
4111.00,1.07
4110.00,1.07
4109.00,1.07
4108.00,1.07
4107.00,1.07
4106.00,1.07
4105.00,1.07
4104.00,1.07
4103.00,1.07
4102.00,1.07
4101.00,1.07
4100.00,1.07
4099.00,1.07
4098.00,1.07
4097.00,1.08
4096.00,1.08
4095.00,1.08
4094.00,1.08
4093.00,1.08
4092.00,1.08
4091.00,1.08
4090.00,1.09
4089.00,1.09
4088.00,1.09
4087.00,1.09
4086.00,1.09
4085.00,1.09
4084.00,1.09
4083.00,1.09
4082.00,1.09
4081.00,1.09
4080.00,1.09
4079.00,1.09
4078.00,1.09
4077.00,1.09
4076.00,1.09
4075.00,1.09
4074.00,1.09
4073.00,1.09
4072.00,1.09
4071.00,1.09
4070.00,1.09
4069.00,1.09
4068.00,1.09
4067.00,1.09
4066.00,1.09
4065.00,1.09
4064.00,1.09
4063.00,1.09
4062.00,1.09
4061.00,1.09
4060.00,1.09
4059.00,1.09
4058.00,1.09
4057.00,1.09
4056.00,1.10
4055.00,1.10
4054.00,1.10
4053.00,1.10
4052.00,1.10
4051.00,1.10
4050.00,1.10
4049.00,1.10
4048.00,1.10
4047.00,1.10
4046.00,1.10
4045.00,1.10
4044.00,1.10
4043.00,1.10
4042.00,1.10
4041.00,1.10
4040.00,1.10
4039.00,1.10
4038.00,1.10
4037.00,1.10
4036.00,1.10
4035.00,1.11
4034.00,1.11
4033.00,1.11
4032.00,1.11
4031.00,1.11
4030.00,1.11
4029.00,1.11
4028.00,1.11
4027.00,1.11
4026.00,1.11
4025.00,1.11
4024.00,1.10
4023.00,1.10
4022.00,1.10
4021.00,1.10
4020.00,1.10
4019.00,1.10
4018.00,1.10
4017.00,1.10
4016.00,1.10
4015.00,1.10
4014.00,1.10
4013.00,1.10
4012.00,1.10
4011.00,1.10
4010.00,1.10
4009.00,1.10
4008.00,1.10
4007.00,1.10
4006.00,1.10
4005.00,1.10
4004.00,1.10
4003.00,1.10
4002.00,1.11
4001.00,1.11
4000.00,1.11
