创建为新数据集,样品 009 用户 Administrator 日期 星期五, 七月 20 2018
cm-1,%T
10000.00,1.22
9999.00,1.23
9998.00,1.23
9997.00,1.23
9996.00,1.23
9995.00,1.23
9994.00,1.23
9993.00,1.23
9992.00,1.23
9991.00,1.23
9990.00,1.23
9989.00,1.23
9988.00,1.23
9987.00,1.23
9986.00,1.23
9985.00,1.23
9984.00,1.23
9983.00,1.23
9982.00,1.23
9981.00,1.23
9980.00,1.23
9979.00,1.23
9978.00,1.23
9977.00,1.23
9976.00,1.23
9975.00,1.23
9974.00,1.23
9973.00,1.23
9972.00,1.23
9971.00,1.23
9970.00,1.23
9969.00,1.23
9968.00,1.23
9967.00,1.23
9966.00,1.23
9965.00,1.23
9964.00,1.23
9963.00,1.23
9962.00,1.23
9961.00,1.23
9960.00,1.22
9959.00,1.22
9958.00,1.22
9957.00,1.22
9956.00,1.21
9955.00,1.21
9954.00,1.21
9953.00,1.21
9952.00,1.21
9951.00,1.20
9950.00,1.20
9949.00,1.20
9948.00,1.20
9947.00,1.20
9946.00,1.20
9945.00,1.20
9944.00,1.20
9943.00,1.20
9942.00,1.20
9941.00,1.20
9940.00,1.20
9939.00,1.20
9938.00,1.20
9937.00,1.20
9936.00,1.20
9935.00,1.20
9934.00,1.20
9933.00,1.20
9932.00,1.20
9931.00,1.20
9930.00,1.20
9929.00,1.20
9928.00,1.20
9927.00,1.20
9926.00,1.20
9925.00,1.20
9924.00,1.20
9923.00,1.20
9922.00,1.20
9921.00,1.20
9920.00,1.20
9919.00,1.20
9918.00,1.20
9917.00,1.20
9916.00,1.21
9915.00,1.21
9914.00,1.21
9913.00,1.21
9912.00,1.21
9911.00,1.22
9910.00,1.22
9909.00,1.22
9908.00,1.22
9907.00,1.22
9906.00,1.22
9905.00,1.22
9904.00,1.22
9903.00,1.23
9902.00,1.23
9901.00,1.23
9900.00,1.23
9899.00,1.23
9898.00,1.23
9897.00,1.22
9896.00,1.22
9895.00,1.22
9894.00,1.22
9893.00,1.22
9892.00,1.22
9891.00,1.22
9890.00,1.22
9889.00,1.22
9888.00,1.21
9887.00,1.21
9886.00,1.21
9885.00,1.21
9884.00,1.21
9883.00,1.21
9882.00,1.21
9881.00,1.21
9880.00,1.21
9879.00,1.20
9878.00,1.20
9877.00,1.20
9876.00,1.20
9875.00,1.20
9874.00,1.20
9873.00,1.20
9872.00,1.20
9871.00,1.20
9870.00,1.20
9869.00,1.20
9868.00,1.20
9867.00,1.20
9866.00,1.20
9865.00,1.20
9864.00,1.20
9863.00,1.20
9862.00,1.20
9861.00,1.20
9860.00,1.20
9859.00,1.20
9858.00,1.20
9857.00,1.20
9856.00,1.20
9855.00,1.20
9854.00,1.20
9853.00,1.20
9852.00,1.20
9851.00,1.20
9850.00,1.20
9849.00,1.20
9848.00,1.20
9847.00,1.20
9846.00,1.20
9845.00,1.20
9844.00,1.21
9843.00,1.21
9842.00,1.21
9841.00,1.21
9840.00,1.21
9839.00,1.21
9838.00,1.21
9837.00,1.21
9836.00,1.21
9835.00,1.21
9834.00,1.21
9833.00,1.22
9832.00,1.22
9831.00,1.22
9830.00,1.22
9829.00,1.22
9828.00,1.22
9827.00,1.22
9826.00,1.22
9825.00,1.22
9824.00,1.22
9823.00,1.22
9822.00,1.23
9821.00,1.23
9820.00,1.23
9819.00,1.23
9818.00,1.23
9817.00,1.23
9816.00,1.23
9815.00,1.23
9814.00,1.23
9813.00,1.23
9812.00,1.23
9811.00,1.22
9810.00,1.22
9809.00,1.22
9808.00,1.22
9807.00,1.21
9806.00,1.21
9805.00,1.21
9804.00,1.21
9803.00,1.21
9802.00,1.20
9801.00,1.20
9800.00,1.20
9799.00,1.20
9798.00,1.20
9797.00,1.20
9796.00,1.20
9795.00,1.20
9794.00,1.20
9793.00,1.20
9792.00,1.20
9791.00,1.20
9790.00,1.20
9789.00,1.21
9788.00,1.21
9787.00,1.21
9786.00,1.21
9785.00,1.21
9784.00,1.21
9783.00,1.21
9782.00,1.21
9781.00,1.22
9780.00,1.22
9779.00,1.22
9778.00,1.22
9777.00,1.22
9776.00,1.22
9775.00,1.22
9774.00,1.22
9773.00,1.22
9772.00,1.22
9771.00,1.22
9770.00,1.22
9769.00,1.22
9768.00,1.22
9767.00,1.22
9766.00,1.22
9765.00,1.22
9764.00,1.22
9763.00,1.22
9762.00,1.23
9761.00,1.23
9760.00,1.23
9759.00,1.23
9758.00,1.23
9757.00,1.23
9756.00,1.23
9755.00,1.23
9754.00,1.23
9753.00,1.23
9752.00,1.23
9751.00,1.23
9750.00,1.23
9749.00,1.22
9748.00,1.22
9747.00,1.22
9746.00,1.22
9745.00,1.21
9744.00,1.21
9743.00,1.21
9742.00,1.21
9741.00,1.21
9740.00,1.20
9739.00,1.20
9738.00,1.20
9737.00,1.20
9736.00,1.21
9735.00,1.21
9734.00,1.21
9733.00,1.21
9732.00,1.21
9731.00,1.21
9730.00,1.21
9729.00,1.22
9728.00,1.22
9727.00,1.22
9726.00,1.22
9725.00,1.22
9724.00,1.22
9723.00,1.22
9722.00,1.22
9721.00,1.21
9720.00,1.21
9719.00,1.21
9718.00,1.21
9717.00,1.21
9716.00,1.20
9715.00,1.20
9714.00,1.20
9713.00,1.20
9712.00,1.19
9711.00,1.19
9710.00,1.19
9709.00,1.19
9708.00,1.19
9707.00,1.19
9706.00,1.19
9705.00,1.19
9704.00,1.20
9703.00,1.20
9702.00,1.20
9701.00,1.20
9700.00,1.20
9699.00,1.21
9698.00,1.21
9697.00,1.21
9696.00,1.21
9695.00,1.21
9694.00,1.22
9693.00,1.22
9692.00,1.22
9691.00,1.22
9690.00,1.22
9689.00,1.22
9688.00,1.22
9687.00,1.22
9686.00,1.22
9685.00,1.22
9684.00,1.22
9683.00,1.22
9682.00,1.22
9681.00,1.22
9680.00,1.22
9679.00,1.22
9678.00,1.22
9677.00,1.22
9676.00,1.22
9675.00,1.22
9674.00,1.22
9673.00,1.23
9672.00,1.23
9671.00,1.23
9670.00,1.23
9669.00,1.23
9668.00,1.23
9667.00,1.23
9666.00,1.23
9665.00,1.23
9664.00,1.23
9663.00,1.23
9662.00,1.23
9661.00,1.23
9660.00,1.23
9659.00,1.23
9658.00,1.23
9657.00,1.22
9656.00,1.22
9655.00,1.22
9654.00,1.22
9653.00,1.22
9652.00,1.22
9651.00,1.22
9650.00,1.22
9649.00,1.22
9648.00,1.21
9647.00,1.21
9646.00,1.21
9645.00,1.21
9644.00,1.21
9643.00,1.21
9642.00,1.21
9641.00,1.21
9640.00,1.21
9639.00,1.20
9638.00,1.20
9637.00,1.20
9636.00,1.20
9635.00,1.20
9634.00,1.20
9633.00,1.20
9632.00,1.20
9631.00,1.20
9630.00,1.20
9629.00,1.20
9628.00,1.20
9627.00,1.20
9626.00,1.20
9625.00,1.20
9624.00,1.20
9623.00,1.20
9622.00,1.20
9621.00,1.20
9620.00,1.20
9619.00,1.20
9618.00,1.20
9617.00,1.20
9616.00,1.20
9615.00,1.20
9614.00,1.20
9613.00,1.21
9612.00,1.21
9611.00,1.21
9610.00,1.21
9609.00,1.21
9608.00,1.21
9607.00,1.21
9606.00,1.21
9605.00,1.21
9604.00,1.21
9603.00,1.21
9602.00,1.22
9601.00,1.22
9600.00,1.22
9599.00,1.22
9598.00,1.22
9597.00,1.22
9596.00,1.21
9595.00,1.21
9594.00,1.21
9593.00,1.21
9592.00,1.21
9591.00,1.21
9590.00,1.21
9589.00,1.21
9588.00,1.20
9587.00,1.20
9586.00,1.20
9585.00,1.20
9584.00,1.20
9583.00,1.20
9582.00,1.20
9581.00,1.20
9580.00,1.21
9579.00,1.21
9578.00,1.21
9577.00,1.21
9576.00,1.21
9575.00,1.21
9574.00,1.21
9573.00,1.21
9572.00,1.22
9571.00,1.22
9570.00,1.22
9569.00,1.22
9568.00,1.22
9567.00,1.22
9566.00,1.21
9565.00,1.21
9564.00,1.21
9563.00,1.21
9562.00,1.21
9561.00,1.21
9560.00,1.21
9559.00,1.21
9558.00,1.21
9557.00,1.21
9556.00,1.21
9555.00,1.20
9554.00,1.20
9553.00,1.20
9552.00,1.21
9551.00,1.21
9550.00,1.21
9549.00,1.21
9548.00,1.21
9547.00,1.21
9546.00,1.21
9545.00,1.21
9544.00,1.21
9543.00,1.21
9542.00,1.21
9541.00,1.21
9540.00,1.21
9539.00,1.21
9538.00,1.21
9537.00,1.21
9536.00,1.20
9535.00,1.20
9534.00,1.20
9533.00,1.20
9532.00,1.20
9531.00,1.20
9530.00,1.20
9529.00,1.20
9528.00,1.20
9527.00,1.19
9526.00,1.19
9525.00,1.19
9524.00,1.19
9523.00,1.19
9522.00,1.19
9521.00,1.19
9520.00,1.19
9519.00,1.19
9518.00,1.19
9517.00,1.19
9516.00,1.19
9515.00,1.19
9514.00,1.20
9513.00,1.20
9512.00,1.20
9511.00,1.20
9510.00,1.20
9509.00,1.20
9508.00,1.20
9507.00,1.20
9506.00,1.20
9505.00,1.20
9504.00,1.20
9503.00,1.20
9502.00,1.20
9501.00,1.20
9500.00,1.20
9499.00,1.20
9498.00,1.20
9497.00,1.20
9496.00,1.20
9495.00,1.21
9494.00,1.21
9493.00,1.21
9492.00,1.21
9491.00,1.21
9490.00,1.21
9489.00,1.21
9488.00,1.21
9487.00,1.21
9486.00,1.21
9485.00,1.21
9484.00,1.21
9483.00,1.21
9482.00,1.21
9481.00,1.21
9480.00,1.21
9479.00,1.21
9478.00,1.20
9477.00,1.20
9476.00,1.20
9475.00,1.20
9474.00,1.20
9473.00,1.20
9472.00,1.19
9471.00,1.19
9470.00,1.19
9469.00,1.19
9468.00,1.19
9467.00,1.19
9466.00,1.19
9465.00,1.19
9464.00,1.19
9463.00,1.19
9462.00,1.19
9461.00,1.19
9460.00,1.19
9459.00,1.19
9458.00,1.19
9457.00,1.19
9456.00,1.19
9455.00,1.20
9454.00,1.20
9453.00,1.20
9452.00,1.20
9451.00,1.20
9450.00,1.20
9449.00,1.20
9448.00,1.21
9447.00,1.21
9446.00,1.21
9445.00,1.21
9444.00,1.21
9443.00,1.21
9442.00,1.21
9441.00,1.21
9440.00,1.21
9439.00,1.21
9438.00,1.21
9437.00,1.20
9436.00,1.20
9435.00,1.20
9434.00,1.20
9433.00,1.20
9432.00,1.19
9431.00,1.19
9430.00,1.19
9429.00,1.19
9428.00,1.19
9427.00,1.19
9426.00,1.19
9425.00,1.19
9424.00,1.19
9423.00,1.19
9422.00,1.19
9421.00,1.19
9420.00,1.19
9419.00,1.19
9418.00,1.19
9417.00,1.19
9416.00,1.19
9415.00,1.19
9414.00,1.19
9413.00,1.19
9412.00,1.19
9411.00,1.20
9410.00,1.20
9409.00,1.20
9408.00,1.20
9407.00,1.20
9406.00,1.20
9405.00,1.20
9404.00,1.20
9403.00,1.20
9402.00,1.20
9401.00,1.20
9400.00,1.20
9399.00,1.20
9398.00,1.20
9397.00,1.20
9396.00,1.20
9395.00,1.20
9394.00,1.20
9393.00,1.20
9392.00,1.20
9391.00,1.20
9390.00,1.20
9389.00,1.20
9388.00,1.20
9387.00,1.20
9386.00,1.20
9385.00,1.20
9384.00,1.21
9383.00,1.21
9382.00,1.21
9381.00,1.21
9380.00,1.21
9379.00,1.21
9378.00,1.21
9377.00,1.21
9376.00,1.21
9375.00,1.21
9374.00,1.20
9373.00,1.20
9372.00,1.20
9371.00,1.20
9370.00,1.20
9369.00,1.20
9368.00,1.20
9367.00,1.20
9366.00,1.20
9365.00,1.20
9364.00,1.20
9363.00,1.20
9362.00,1.20
9361.00,1.20
9360.00,1.20
9359.00,1.20
9358.00,1.20
9357.00,1.20
9356.00,1.20
9355.00,1.20
9354.00,1.20
9353.00,1.20
9352.00,1.20
9351.00,1.20
9350.00,1.20
9349.00,1.21
9348.00,1.21
9347.00,1.21
9346.00,1.21
9345.00,1.21
9344.00,1.21
9343.00,1.21
9342.00,1.21
9341.00,1.21
9340.00,1.21
9339.00,1.21
9338.00,1.21
9337.00,1.21
9336.00,1.21
9335.00,1.21
9334.00,1.21
9333.00,1.21
9332.00,1.21
9331.00,1.21
9330.00,1.21
9329.00,1.21
9328.00,1.21
9327.00,1.21
9326.00,1.21
9325.00,1.21
9324.00,1.22
9323.00,1.22
9322.00,1.22
9321.00,1.22
9320.00,1.22
9319.00,1.22
9318.00,1.23
9317.00,1.23
9316.00,1.23
9315.00,1.23
9314.00,1.23
9313.00,1.23
9312.00,1.23
9311.00,1.23
9310.00,1.23
9309.00,1.23
9308.00,1.23
9307.00,1.23
9306.00,1.23
9305.00,1.23
9304.00,1.23
9303.00,1.23
9302.00,1.23
9301.00,1.23
9300.00,1.22
9299.00,1.22
9298.00,1.22
9297.00,1.22
9296.00,1.22
9295.00,1.22
9294.00,1.21
9293.00,1.21
9292.00,1.21
9291.00,1.21
9290.00,1.21
9289.00,1.21
9288.00,1.21
9287.00,1.20
9286.00,1.20
9285.00,1.20
9284.00,1.20
9283.00,1.20
9282.00,1.20
9281.00,1.20
9280.00,1.20
9279.00,1.20
9278.00,1.20
9277.00,1.20
9276.00,1.20
9275.00,1.20
9274.00,1.20
9273.00,1.20
9272.00,1.20
9271.00,1.20
9270.00,1.20
9269.00,1.20
9268.00,1.20
9267.00,1.20
9266.00,1.20
9265.00,1.20
9264.00,1.21
9263.00,1.21
9262.00,1.21
9261.00,1.21
9260.00,1.21
9259.00,1.21
9258.00,1.21
9257.00,1.21
9256.00,1.21
9255.00,1.21
9254.00,1.21
9253.00,1.20
9252.00,1.20
9251.00,1.20
9250.00,1.20
9249.00,1.20
9248.00,1.20
9247.00,1.20
9246.00,1.20
9245.00,1.20
9244.00,1.20
9243.00,1.20
9242.00,1.20
9241.00,1.20
9240.00,1.20
9239.00,1.20
9238.00,1.20
9237.00,1.21
9236.00,1.21
9235.00,1.21
9234.00,1.21
9233.00,1.21
9232.00,1.22
9231.00,1.22
9230.00,1.22
9229.00,1.22
9228.00,1.23
9227.00,1.23
9226.00,1.23
9225.00,1.23
9224.00,1.23
9223.00,1.23
9222.00,1.23
9221.00,1.23
9220.00,1.23
9219.00,1.23
9218.00,1.23
9217.00,1.23
9216.00,1.23
9215.00,1.23
9214.00,1.23
9213.00,1.23
9212.00,1.23
9211.00,1.23
9210.00,1.22
9209.00,1.22
9208.00,1.22
9207.00,1.22
9206.00,1.22
9205.00,1.22
9204.00,1.22
9203.00,1.21
9202.00,1.21
9201.00,1.21
9200.00,1.21
9199.00,1.21
9198.00,1.20
9197.00,1.20
9196.00,1.20
9195.00,1.20
9194.00,1.20
9193.00,1.20
9192.00,1.20
9191.00,1.20
9190.00,1.20
9189.00,1.20
9188.00,1.20
9187.00,1.20
9186.00,1.20
9185.00,1.20
9184.00,1.20
9183.00,1.20
9182.00,1.20
9181.00,1.20
9180.00,1.20
9179.00,1.20
9178.00,1.20
9177.00,1.20
9176.00,1.20
9175.00,1.20
9174.00,1.20
9173.00,1.20
9172.00,1.20
9171.00,1.20
9170.00,1.20
9169.00,1.20
9168.00,1.20
9167.00,1.21
9166.00,1.21
9165.00,1.21
9164.00,1.21
9163.00,1.21
9162.00,1.21
9161.00,1.22
9160.00,1.22
9159.00,1.22
9158.00,1.22
9157.00,1.22
9156.00,1.22
9155.00,1.22
9154.00,1.22
9153.00,1.22
9152.00,1.22
9151.00,1.22
9150.00,1.22
9149.00,1.22
9148.00,1.22
9147.00,1.22
9146.00,1.22
9145.00,1.22
9144.00,1.21
9143.00,1.21
9142.00,1.21
9141.00,1.21
9140.00,1.21
9139.00,1.21
9138.00,1.21
9137.00,1.21
9136.00,1.21
9135.00,1.21
9134.00,1.21
9133.00,1.21
9132.00,1.20
9131.00,1.20
9130.00,1.20
9129.00,1.20
9128.00,1.20
9127.00,1.20
9126.00,1.20
9125.00,1.20
9124.00,1.20
9123.00,1.20
9122.00,1.20
9121.00,1.20
9120.00,1.20
9119.00,1.21
9118.00,1.21
9117.00,1.21
9116.00,1.21
9115.00,1.21
9114.00,1.21
9113.00,1.21
9112.00,1.21
9111.00,1.21
9110.00,1.21
9109.00,1.21
9108.00,1.21
9107.00,1.21
9106.00,1.21
9105.00,1.21
9104.00,1.21
9103.00,1.21
9102.00,1.21
9101.00,1.21
9100.00,1.21
9099.00,1.21
9098.00,1.21
9097.00,1.21
9096.00,1.21
9095.00,1.21
9094.00,1.21
9093.00,1.21
9092.00,1.21
9091.00,1.21
9090.00,1.21
9089.00,1.21
9088.00,1.21
9087.00,1.21
9086.00,1.21
9085.00,1.21
9084.00,1.21
9083.00,1.21
9082.00,1.21
9081.00,1.20
9080.00,1.20
9079.00,1.20
9078.00,1.20
9077.00,1.20
9076.00,1.20
9075.00,1.20
9074.00,1.20
9073.00,1.20
9072.00,1.20
9071.00,1.20
9070.00,1.20
9069.00,1.20
9068.00,1.20
9067.00,1.19
9066.00,1.19
9065.00,1.19
9064.00,1.19
9063.00,1.19
9062.00,1.19
9061.00,1.19
9060.00,1.20
9059.00,1.20
9058.00,1.20
9057.00,1.20
9056.00,1.20
9055.00,1.20
9054.00,1.20
9053.00,1.20
9052.00,1.20
9051.00,1.20
9050.00,1.20
9049.00,1.20
9048.00,1.20
9047.00,1.21
9046.00,1.21
9045.00,1.21
9044.00,1.21
9043.00,1.20
9042.00,1.20
9041.00,1.20
9040.00,1.20
9039.00,1.20
9038.00,1.20
9037.00,1.20
9036.00,1.20
9035.00,1.20
9034.00,1.20
9033.00,1.20
9032.00,1.20
9031.00,1.20
9030.00,1.20
9029.00,1.20
9028.00,1.20
9027.00,1.20
9026.00,1.20
9025.00,1.21
9024.00,1.21
9023.00,1.21
9022.00,1.21
9021.00,1.21
9020.00,1.21
9019.00,1.21
9018.00,1.21
9017.00,1.21
9016.00,1.21
9015.00,1.21
9014.00,1.21
9013.00,1.21
9012.00,1.21
9011.00,1.21
9010.00,1.21
9009.00,1.21
9008.00,1.21
9007.00,1.20
9006.00,1.20
9005.00,1.20
9004.00,1.20
9003.00,1.20
9002.00,1.20
9001.00,1.20
9000.00,1.20
8999.00,1.20
8998.00,1.20
8997.00,1.20
8996.00,1.20
8995.00,1.20
8994.00,1.20
8993.00,1.21
8992.00,1.21
8991.00,1.21
8990.00,1.21
8989.00,1.21
8988.00,1.21
8987.00,1.21
8986.00,1.21
8985.00,1.21
8984.00,1.21
8983.00,1.21
8982.00,1.21
8981.00,1.21
8980.00,1.21
8979.00,1.21
8978.00,1.21
8977.00,1.21
8976.00,1.21
8975.00,1.21
8974.00,1.21
8973.00,1.21
8972.00,1.21
8971.00,1.21
8970.00,1.21
8969.00,1.21
8968.00,1.21
8967.00,1.21
8966.00,1.21
8965.00,1.21
8964.00,1.21
8963.00,1.21
8962.00,1.21
8961.00,1.21
8960.00,1.21
8959.00,1.21
8958.00,1.21
8957.00,1.21
8956.00,1.21
8955.00,1.21
8954.00,1.21
8953.00,1.22
8952.00,1.22
8951.00,1.22
8950.00,1.22
8949.00,1.22
8948.00,1.21
8947.00,1.21
8946.00,1.21
8945.00,1.21
8944.00,1.21
8943.00,1.21
8942.00,1.21
8941.00,1.21
8940.00,1.21
8939.00,1.21
8938.00,1.21
8937.00,1.21
8936.00,1.21
8935.00,1.21
8934.00,1.21
8933.00,1.21
8932.00,1.21
8931.00,1.21
8930.00,1.21
8929.00,1.20
8928.00,1.20
8927.00,1.20
8926.00,1.20
8925.00,1.20
8924.00,1.20
8923.00,1.20
8922.00,1.20
8921.00,1.20
8920.00,1.20
8919.00,1.20
8918.00,1.20
8917.00,1.21
8916.00,1.21
8915.00,1.21
8914.00,1.21
8913.00,1.21
8912.00,1.21
8911.00,1.21
8910.00,1.21
8909.00,1.21
8908.00,1.21
8907.00,1.21
8906.00,1.22
8905.00,1.22
8904.00,1.22
8903.00,1.22
8902.00,1.22
8901.00,1.22
8900.00,1.22
8899.00,1.22
8898.00,1.22
8897.00,1.22
8896.00,1.22
8895.00,1.22
8894.00,1.22
8893.00,1.22
8892.00,1.22
8891.00,1.22
8890.00,1.22
8889.00,1.22
8888.00,1.22
8887.00,1.22
8886.00,1.22
8885.00,1.22
8884.00,1.22
8883.00,1.22
8882.00,1.22
8881.00,1.22
8880.00,1.22
8879.00,1.22
8878.00,1.22
8877.00,1.22
8876.00,1.22
8875.00,1.22
8874.00,1.22
8873.00,1.22
8872.00,1.21
8871.00,1.21
8870.00,1.21
8869.00,1.21
8868.00,1.21
8867.00,1.21
8866.00,1.21
8865.00,1.21
8864.00,1.20
8863.00,1.20
8862.00,1.20
8861.00,1.20
8860.00,1.20
8859.00,1.20
8858.00,1.20
8857.00,1.20
8856.00,1.20
8855.00,1.20
8854.00,1.20
8853.00,1.20
8852.00,1.20
8851.00,1.20
8850.00,1.20
8849.00,1.20
8848.00,1.20
8847.00,1.20
8846.00,1.20
8845.00,1.20
8844.00,1.20
8843.00,1.20
8842.00,1.20
8841.00,1.20
8840.00,1.20
8839.00,1.20
8838.00,1.20
8837.00,1.20
8836.00,1.20
8835.00,1.20
8834.00,1.20
8833.00,1.20
8832.00,1.20
8831.00,1.20
8830.00,1.20
8829.00,1.20
8828.00,1.20
8827.00,1.20
8826.00,1.20
8825.00,1.20
8824.00,1.20
8823.00,1.20
8822.00,1.20
8821.00,1.20
8820.00,1.20
8819.00,1.20
8818.00,1.20
8817.00,1.20
8816.00,1.20
8815.00,1.20
8814.00,1.20
8813.00,1.20
8812.00,1.20
8811.00,1.20
8810.00,1.20
8809.00,1.20
8808.00,1.20
8807.00,1.20
8806.00,1.20
8805.00,1.20
8804.00,1.20
8803.00,1.19
8802.00,1.19
8801.00,1.19
8800.00,1.19
8799.00,1.19
8798.00,1.19
8797.00,1.19
8796.00,1.18
8795.00,1.18
8794.00,1.18
8793.00,1.18
8792.00,1.18
8791.00,1.18
8790.00,1.18
8789.00,1.17
8788.00,1.17
8787.00,1.17
8786.00,1.17
8785.00,1.17
8784.00,1.17
8783.00,1.17
8782.00,1.17
8781.00,1.17
8780.00,1.17
8779.00,1.17
8778.00,1.17
8777.00,1.17
8776.00,1.17
8775.00,1.17
8774.00,1.16
8773.00,1.16
8772.00,1.16
8771.00,1.16
8770.00,1.16
8769.00,1.16
8768.00,1.16
8767.00,1.16
8766.00,1.16
8765.00,1.16
8764.00,1.16
8763.00,1.16
8762.00,1.16
8761.00,1.16
8760.00,1.16
8759.00,1.16
8758.00,1.16
8757.00,1.16
8756.00,1.16
8755.00,1.16
8754.00,1.16
8753.00,1.16
8752.00,1.17
8751.00,1.17
8750.00,1.17
8749.00,1.17
8748.00,1.17
8747.00,1.17
8746.00,1.17
8745.00,1.17
8744.00,1.17
8743.00,1.17
8742.00,1.17
8741.00,1.17
8740.00,1.16
8739.00,1.16
8738.00,1.16
8737.00,1.16
8736.00,1.16
8735.00,1.16
8734.00,1.16
8733.00,1.16
8732.00,1.15
8731.00,1.15
8730.00,1.15
8729.00,1.15
8728.00,1.15
8727.00,1.15
8726.00,1.15
8725.00,1.15
8724.00,1.15
8723.00,1.15
8722.00,1.15
8721.00,1.15
8720.00,1.15
8719.00,1.15
8718.00,1.15
8717.00,1.15
8716.00,1.15
8715.00,1.15
8714.00,1.14
8713.00,1.14
8712.00,1.14
8711.00,1.14
8710.00,1.14
8709.00,1.14
8708.00,1.14
8707.00,1.14
8706.00,1.14
8705.00,1.13
8704.00,1.13
8703.00,1.13
8702.00,1.13
8701.00,1.13
8700.00,1.13
8699.00,1.13
8698.00,1.13
8697.00,1.13
8696.00,1.12
8695.00,1.12
8694.00,1.12
8693.00,1.12
8692.00,1.12
8691.00,1.12
8690.00,1.12
8689.00,1.12
8688.00,1.12
8687.00,1.12
8686.00,1.12
8685.00,1.13
8684.00,1.13
8683.00,1.13
8682.00,1.13
8681.00,1.13
8680.00,1.13
8679.00,1.13
8678.00,1.13
8677.00,1.13
8676.00,1.13
8675.00,1.13
8674.00,1.13
8673.00,1.13
8672.00,1.13
8671.00,1.13
8670.00,1.13
8669.00,1.13
8668.00,1.13
8667.00,1.13
8666.00,1.13
8665.00,1.13
8664.00,1.13
8663.00,1.13
8662.00,1.13
8661.00,1.13
8660.00,1.13
8659.00,1.13
8658.00,1.13
8657.00,1.13
8656.00,1.13
8655.00,1.13
8654.00,1.13
8653.00,1.13
8652.00,1.13
8651.00,1.13
8650.00,1.13
8649.00,1.13
8648.00,1.13
8647.00,1.13
8646.00,1.13
8645.00,1.13
8644.00,1.13
8643.00,1.13
8642.00,1.13
8641.00,1.12
8640.00,1.12
8639.00,1.12
8638.00,1.12
8637.00,1.12
8636.00,1.12
8635.00,1.12
8634.00,1.12
8633.00,1.12
8632.00,1.12
8631.00,1.12
8630.00,1.12
8629.00,1.12
8628.00,1.12
8627.00,1.12
8626.00,1.12
8625.00,1.11
8624.00,1.11
8623.00,1.11
8622.00,1.11
8621.00,1.11
8620.00,1.11
8619.00,1.11
8618.00,1.11
8617.00,1.11
8616.00,1.11
8615.00,1.11
8614.00,1.11
8613.00,1.11
8612.00,1.11
8611.00,1.11
8610.00,1.11
8609.00,1.10
8608.00,1.10
8607.00,1.10
8606.00,1.10
8605.00,1.10
8604.00,1.10
8603.00,1.10
8602.00,1.09
8601.00,1.09
8600.00,1.09
8599.00,1.09
8598.00,1.09
8597.00,1.09
8596.00,1.09
8595.00,1.10
8594.00,1.10
8593.00,1.10
8592.00,1.10
8591.00,1.10
8590.00,1.10
8589.00,1.10
8588.00,1.10
8587.00,1.11
8586.00,1.11
8585.00,1.11
8584.00,1.11
8583.00,1.11
8582.00,1.11
8581.00,1.11
8580.00,1.11
8579.00,1.11
8578.00,1.11
8577.00,1.10
8576.00,1.10
8575.00,1.10
8574.00,1.10
8573.00,1.10
8572.00,1.10
8571.00,1.10
8570.00,1.10
8569.00,1.10
8568.00,1.10
8567.00,1.10
8566.00,1.09
8565.00,1.09
8564.00,1.09
8563.00,1.09
8562.00,1.09
8561.00,1.09
8560.00,1.09
8559.00,1.09
8558.00,1.09
8557.00,1.09
8556.00,1.08
8555.00,1.08
8554.00,1.08
8553.00,1.08
8552.00,1.08
8551.00,1.08
8550.00,1.08
8549.00,1.08
8548.00,1.08
8547.00,1.07
8546.00,1.07
8545.00,1.07
8544.00,1.07
8543.00,1.07
8542.00,1.07
8541.00,1.07
8540.00,1.07
8539.00,1.07
8538.00,1.06
8537.00,1.06
8536.00,1.06
8535.00,1.06
8534.00,1.06
8533.00,1.06
8532.00,1.06
8531.00,1.06
8530.00,1.06
8529.00,1.06
8528.00,1.06
8527.00,1.06
8526.00,1.06
8525.00,1.07
8524.00,1.07
8523.00,1.07
8522.00,1.07
8521.00,1.07
8520.00,1.07
8519.00,1.07
8518.00,1.07
8517.00,1.07
8516.00,1.07
8515.00,1.07
8514.00,1.07
8513.00,1.07
8512.00,1.07
8511.00,1.07
8510.00,1.07
8509.00,1.06
8508.00,1.06
8507.00,1.06
8506.00,1.06
8505.00,1.05
8504.00,1.05
8503.00,1.05
8502.00,1.05
8501.00,1.05
8500.00,1.05
8499.00,1.04
8498.00,1.04
8497.00,1.04
8496.00,1.04
8495.00,1.04
8494.00,1.04
8493.00,1.04
8492.00,1.04
8491.00,1.04
8490.00,1.04
8489.00,1.04
8488.00,1.04
8487.00,1.04
8486.00,1.04
8485.00,1.04
8484.00,1.04
8483.00,1.04
8482.00,1.04
8481.00,1.03
8480.00,1.03
8479.00,1.03
8478.00,1.03
8477.00,1.03
8476.00,1.03
8475.00,1.02
8474.00,1.02
8473.00,1.02
8472.00,1.02
8471.00,1.02
8470.00,1.02
8469.00,1.01
8468.00,1.01
8467.00,1.01
8466.00,1.01
8465.00,1.01
8464.00,1.01
8463.00,1.01
8462.00,1.01
8461.00,1.01
8460.00,1.01
8459.00,1.01
8458.00,1.01
8457.00,1.01
8456.00,1.01
8455.00,1.01
8454.00,1.01
8453.00,1.01
8452.00,1.01
8451.00,1.01
8450.00,1.01
8449.00,1.01
8448.00,1.01
8447.00,1.01
8446.00,1.01
8445.00,1.01
8444.00,1.01
8443.00,1.00
8442.00,1.00
8441.00,1.00
8440.00,1.00
8439.00,1.00
8438.00,1.00
8437.00,1.00
8436.00,1.00
8435.00,1.00
8434.00,1.00
8433.00,1.00
8432.00,1.00
8431.00,1.00
8430.00,1.00
8429.00,1.00
8428.00,1.00
8427.00,1.00
8426.00,1.01
8425.00,1.01
8424.00,1.01
8423.00,1.01
8422.00,1.01
8421.00,1.01
8420.00,1.01
8419.00,1.01
8418.00,1.01
8417.00,1.01
8416.00,1.01
8415.00,1.01
8414.00,1.01
8413.00,1.02
8412.00,1.02
8411.00,1.02
8410.00,1.02
8409.00,1.02
8408.00,1.02
8407.00,1.02
8406.00,1.02
8405.00,1.02
8404.00,1.02
8403.00,1.02
8402.00,1.02
8401.00,1.02
8400.00,1.02
8399.00,1.02
8398.00,1.02
8397.00,1.03
8396.00,1.03
8395.00,1.03
8394.00,1.03
8393.00,1.03
8392.00,1.03
8391.00,1.04
8390.00,1.04
8389.00,1.04
8388.00,1.04
8387.00,1.04
8386.00,1.04
8385.00,1.04
8384.00,1.04
8383.00,1.05
8382.00,1.05
8381.00,1.05
8380.00,1.05
8379.00,1.05
8378.00,1.05
8377.00,1.05
8376.00,1.06
8375.00,1.06
8374.00,1.06
8373.00,1.06
8372.00,1.06
8371.00,1.06
8370.00,1.06
8369.00,1.06
8368.00,1.06
8367.00,1.07
8366.00,1.07
8365.00,1.07
8364.00,1.07
8363.00,1.07
8362.00,1.07
8361.00,1.07
8360.00,1.06
8359.00,1.06
8358.00,1.06
8357.00,1.06
8356.00,1.06
8355.00,1.06
8354.00,1.06
8353.00,1.06
8352.00,1.06
8351.00,1.06
8350.00,1.06
8349.00,1.06
8348.00,1.06
8347.00,1.06
8346.00,1.06
8345.00,1.06
8344.00,1.07
8343.00,1.07
8342.00,1.07
8341.00,1.07
8340.00,1.07
8339.00,1.07
8338.00,1.07
8337.00,1.07
8336.00,1.07
8335.00,1.07
8334.00,1.07
8333.00,1.07
8332.00,1.07
8331.00,1.07
8330.00,1.07
8329.00,1.07
8328.00,1.07
8327.00,1.07
8326.00,1.07
8325.00,1.07
8324.00,1.07
8323.00,1.07
8322.00,1.07
8321.00,1.07
8320.00,1.07
8319.00,1.08
8318.00,1.08
8317.00,1.08
8316.00,1.08
8315.00,1.08
8314.00,1.08
8313.00,1.07
8312.00,1.07
8311.00,1.07
8310.00,1.07
8309.00,1.07
8308.00,1.07
8307.00,1.07
8306.00,1.07
8305.00,1.07
8304.00,1.07
8303.00,1.07
8302.00,1.07
8301.00,1.07
8300.00,1.07
8299.00,1.07
8298.00,1.07
8297.00,1.07
8296.00,1.07
8295.00,1.08
8294.00,1.08
8293.00,1.08
8292.00,1.08
8291.00,1.08
8290.00,1.08
8289.00,1.08
8288.00,1.08
8287.00,1.08
8286.00,1.08
8285.00,1.08
8284.00,1.08
8283.00,1.08
8282.00,1.08
8281.00,1.08
8280.00,1.08
8279.00,1.08
8278.00,1.08
8277.00,1.08
8276.00,1.08
8275.00,1.08
8274.00,1.08
8273.00,1.08
8272.00,1.08
8271.00,1.08
8270.00,1.08
8269.00,1.08
8268.00,1.08
8267.00,1.08
8266.00,1.08
8265.00,1.08
8264.00,1.08
8263.00,1.08
8262.00,1.08
8261.00,1.08
8260.00,1.08
8259.00,1.08
8258.00,1.09
8257.00,1.09
8256.00,1.09
8255.00,1.09
8254.00,1.09
8253.00,1.09
8252.00,1.09
8251.00,1.09
8250.00,1.09
8249.00,1.09
8248.00,1.10
8247.00,1.10
8246.00,1.10
8245.00,1.10
8244.00,1.10
8243.00,1.10
8242.00,1.10
8241.00,1.10
8240.00,1.10
8239.00,1.10
8238.00,1.10
8237.00,1.10
8236.00,1.10
8235.00,1.10
8234.00,1.10
8233.00,1.10
8232.00,1.10
8231.00,1.10
8230.00,1.10
8229.00,1.10
8228.00,1.10
8227.00,1.10
8226.00,1.10
8225.00,1.10
8224.00,1.10
8223.00,1.10
8222.00,1.10
8221.00,1.10
8220.00,1.10
8219.00,1.10
8218.00,1.10
8217.00,1.10
8216.00,1.10
8215.00,1.10
8214.00,1.10
8213.00,1.10
8212.00,1.10
8211.00,1.10
8210.00,1.10
8209.00,1.10
8208.00,1.10
8207.00,1.10
8206.00,1.10
8205.00,1.10
8204.00,1.11
8203.00,1.11
8202.00,1.11
8201.00,1.11
8200.00,1.11
8199.00,1.11
8198.00,1.11
8197.00,1.11
8196.00,1.12
8195.00,1.12
8194.00,1.12
8193.00,1.12
8192.00,1.12
8191.00,1.12
8190.00,1.12
8189.00,1.12
8188.00,1.12
8187.00,1.13
8186.00,1.13
8185.00,1.13
8184.00,1.13
8183.00,1.13
8182.00,1.13
8181.00,1.13
8180.00,1.13
8179.00,1.13
8178.00,1.13
8177.00,1.14
8176.00,1.14
8175.00,1.14
8174.00,1.14
8173.00,1.14
8172.00,1.14
8171.00,1.14
8170.00,1.14
8169.00,1.14
8168.00,1.13
8167.00,1.13
8166.00,1.13
8165.00,1.13
8164.00,1.13
8163.00,1.13
8162.00,1.13
8161.00,1.13
8160.00,1.13
8159.00,1.13
8158.00,1.13
8157.00,1.13
8156.00,1.13
8155.00,1.13
8154.00,1.13
8153.00,1.13
8152.00,1.13
8151.00,1.13
8150.00,1.13
8149.00,1.13
8148.00,1.13
8147.00,1.13
8146.00,1.13
8145.00,1.13
8144.00,1.13
8143.00,1.13
8142.00,1.13
8141.00,1.13
8140.00,1.13
8139.00,1.13
8138.00,1.13
8137.00,1.13
8136.00,1.13
8135.00,1.13
8134.00,1.13
8133.00,1.13
8132.00,1.13
8131.00,1.14
8130.00,1.14
8129.00,1.14
8128.00,1.14
8127.00,1.14
8126.00,1.14
8125.00,1.14
8124.00,1.14
8123.00,1.14
8122.00,1.14
8121.00,1.15
8120.00,1.15
8119.00,1.15
8118.00,1.15
8117.00,1.15
8116.00,1.15
8115.00,1.15
8114.00,1.15
8113.00,1.16
8112.00,1.16
8111.00,1.16
8110.00,1.16
8109.00,1.16
8108.00,1.16
8107.00,1.16
8106.00,1.16
8105.00,1.16
8104.00,1.16
8103.00,1.16
8102.00,1.16
8101.00,1.16
8100.00,1.16
8099.00,1.16
8098.00,1.16
8097.00,1.16
8096.00,1.16
8095.00,1.16
8094.00,1.16
8093.00,1.16
8092.00,1.16
8091.00,1.16
8090.00,1.16
8089.00,1.16
8088.00,1.16
8087.00,1.16
8086.00,1.16
8085.00,1.16
8084.00,1.17
8083.00,1.17
8082.00,1.17
8081.00,1.17
8080.00,1.17
8079.00,1.17
8078.00,1.17
8077.00,1.17
8076.00,1.17
8075.00,1.17
8074.00,1.17
8073.00,1.17
8072.00,1.17
8071.00,1.17
8070.00,1.17
8069.00,1.17
8068.00,1.17
8067.00,1.17
8066.00,1.17
8065.00,1.17
8064.00,1.17
8063.00,1.17
8062.00,1.17
8061.00,1.17
8060.00,1.17
8059.00,1.17
8058.00,1.17
8057.00,1.17
8056.00,1.17
8055.00,1.18
8054.00,1.18
8053.00,1.18
8052.00,1.18
8051.00,1.18
8050.00,1.18
8049.00,1.18
8048.00,1.18
8047.00,1.17
8046.00,1.17
8045.00,1.17
8044.00,1.17
8043.00,1.17
8042.00,1.17
8041.00,1.17
8040.00,1.17
8039.00,1.17
8038.00,1.17
8037.00,1.17
8036.00,1.17
8035.00,1.17
8034.00,1.17
8033.00,1.17
8032.00,1.17
8031.00,1.17
8030.00,1.17
8029.00,1.17
8028.00,1.17
8027.00,1.17
8026.00,1.17
8025.00,1.17
8024.00,1.17
8023.00,1.17
8022.00,1.17
8021.00,1.17
8020.00,1.17
8019.00,1.17
8018.00,1.17
8017.00,1.17
8016.00,1.18
8015.00,1.18
8014.00,1.18
8013.00,1.18
8012.00,1.18
8011.00,1.18
8010.00,1.18
8009.00,1.18
8008.00,1.18
8007.00,1.18
8006.00,1.17
8005.00,1.17
8004.00,1.17
8003.00,1.17
8002.00,1.17
8001.00,1.17
8000.00,1.17
7999.00,1.17
7998.00,1.17
7997.00,1.17
7996.00,1.17
7995.00,1.17
7994.00,1.18
7993.00,1.18
7992.00,1.18
7991.00,1.18
7990.00,1.18
7989.00,1.18
7988.00,1.18
7987.00,1.18
7986.00,1.18
7985.00,1.18
7984.00,1.18
7983.00,1.18
7982.00,1.18
7981.00,1.18
7980.00,1.18
7979.00,1.18
7978.00,1.18
7977.00,1.18
7976.00,1.18
7975.00,1.18
7974.00,1.18
7973.00,1.19
7972.00,1.19
7971.00,1.19
7970.00,1.19
7969.00,1.19
7968.00,1.19
7967.00,1.19
7966.00,1.19
7965.00,1.19
7964.00,1.19
7963.00,1.19
7962.00,1.19
7961.00,1.19
7960.00,1.19
7959.00,1.19
7958.00,1.19
7957.00,1.19
7956.00,1.19
7955.00,1.19
7954.00,1.19
7953.00,1.19
7952.00,1.19
7951.00,1.19
7950.00,1.19
7949.00,1.19
7948.00,1.19
7947.00,1.19
7946.00,1.19
7945.00,1.19
7944.00,1.19
7943.00,1.19
7942.00,1.19
7941.00,1.19
7940.00,1.19
7939.00,1.19
7938.00,1.19
7937.00,1.19
7936.00,1.20
7935.00,1.20
7934.00,1.20
7933.00,1.20
7932.00,1.20
7931.00,1.20
7930.00,1.20
7929.00,1.20
7928.00,1.20
7927.00,1.20
7926.00,1.20
7925.00,1.20
7924.00,1.20
7923.00,1.20
7922.00,1.20
7921.00,1.20
7920.00,1.20
7919.00,1.20
7918.00,1.20
7917.00,1.20
7916.00,1.20
7915.00,1.20
7914.00,1.20
7913.00,1.20
7912.00,1.20
7911.00,1.20
7910.00,1.20
7909.00,1.20
7908.00,1.20
7907.00,1.20
7906.00,1.20
7905.00,1.20
7904.00,1.20
7903.00,1.20
7902.00,1.21
7901.00,1.21
7900.00,1.21
7899.00,1.21
7898.00,1.21
7897.00,1.21
7896.00,1.21
7895.00,1.21
7894.00,1.21
7893.00,1.21
7892.00,1.21
7891.00,1.21
7890.00,1.21
7889.00,1.21
7888.00,1.21
7887.00,1.21
7886.00,1.21
7885.00,1.21
7884.00,1.21
7883.00,1.21
7882.00,1.21
7881.00,1.21
7880.00,1.21
7879.00,1.21
7878.00,1.21
7877.00,1.21
7876.00,1.21
7875.00,1.21
7874.00,1.21
7873.00,1.21
7872.00,1.21
7871.00,1.21
7870.00,1.21
7869.00,1.21
7868.00,1.21
7867.00,1.21
7866.00,1.21
7865.00,1.21
7864.00,1.21
7863.00,1.21
7862.00,1.21
7861.00,1.21
7860.00,1.21
7859.00,1.21
7858.00,1.21
7857.00,1.21
7856.00,1.21
7855.00,1.21
7854.00,1.21
7853.00,1.21
7852.00,1.21
7851.00,1.21
7850.00,1.21
7849.00,1.21
7848.00,1.21
7847.00,1.21
7846.00,1.21
7845.00,1.21
7844.00,1.21
7843.00,1.21
7842.00,1.21
7841.00,1.21
7840.00,1.21
7839.00,1.21
7838.00,1.21
7837.00,1.21
7836.00,1.21
7835.00,1.22
7834.00,1.22
7833.00,1.22
7832.00,1.22
7831.00,1.22
7830.00,1.22
7829.00,1.22
7828.00,1.22
7827.00,1.22
7826.00,1.22
7825.00,1.22
7824.00,1.22
7823.00,1.22
7822.00,1.22
7821.00,1.22
7820.00,1.22
7819.00,1.22
7818.00,1.22
7817.00,1.22
7816.00,1.22
7815.00,1.22
7814.00,1.22
7813.00,1.22
7812.00,1.22
7811.00,1.22
7810.00,1.22
7809.00,1.22
7808.00,1.22
7807.00,1.22
7806.00,1.22
7805.00,1.23
7804.00,1.23
7803.00,1.23
7802.00,1.23
7801.00,1.22
7800.00,1.22
7799.00,1.22
7798.00,1.22
7797.00,1.22
7796.00,1.22
7795.00,1.22
7794.00,1.22
7793.00,1.22
7792.00,1.22
7791.00,1.22
7790.00,1.22
7789.00,1.22
7788.00,1.22
7787.00,1.22
7786.00,1.22
7785.00,1.22
7784.00,1.22
7783.00,1.22
7782.00,1.22
7781.00,1.22
7780.00,1.22
7779.00,1.22
7778.00,1.22
7777.00,1.22
7776.00,1.22
7775.00,1.22
7774.00,1.22
7773.00,1.22
7772.00,1.22
7771.00,1.22
7770.00,1.22
7769.00,1.22
7768.00,1.23
7767.00,1.23
7766.00,1.23
7765.00,1.23
7764.00,1.23
7763.00,1.23
7762.00,1.23
7761.00,1.23
7760.00,1.23
7759.00,1.23
7758.00,1.23
7757.00,1.23
7756.00,1.23
7755.00,1.23
7754.00,1.23
7753.00,1.23
7752.00,1.23
7751.00,1.23
7750.00,1.23
7749.00,1.23
7748.00,1.23
7747.00,1.23
7746.00,1.23
7745.00,1.23
7744.00,1.23
7743.00,1.23
7742.00,1.23
7741.00,1.23
7740.00,1.23
7739.00,1.23
7738.00,1.23
7737.00,1.23
7736.00,1.23
7735.00,1.23
7734.00,1.23
7733.00,1.23
7732.00,1.23
7731.00,1.23
7730.00,1.23
7729.00,1.23
7728.00,1.23
7727.00,1.23
7726.00,1.23
7725.00,1.23
7724.00,1.23
7723.00,1.23
7722.00,1.23
7721.00,1.23
7720.00,1.23
7719.00,1.23
7718.00,1.23
7717.00,1.23
7716.00,1.23
7715.00,1.23
7714.00,1.23
7713.00,1.23
7712.00,1.23
7711.00,1.23
7710.00,1.23
7709.00,1.23
7708.00,1.23
7707.00,1.23
7706.00,1.23
7705.00,1.23
7704.00,1.22
7703.00,1.22
7702.00,1.22
7701.00,1.22
7700.00,1.22
7699.00,1.22
7698.00,1.22
7697.00,1.22
7696.00,1.22
7695.00,1.22
7694.00,1.22
7693.00,1.22
7692.00,1.23
7691.00,1.23
7690.00,1.23
7689.00,1.23
7688.00,1.23
7687.00,1.23
7686.00,1.23
7685.00,1.23
7684.00,1.23
7683.00,1.23
7682.00,1.23
7681.00,1.23
7680.00,1.23
7679.00,1.23
7678.00,1.23
7677.00,1.23
7676.00,1.23
7675.00,1.23
7674.00,1.23
7673.00,1.23
7672.00,1.23
7671.00,1.23
7670.00,1.23
7669.00,1.23
7668.00,1.23
7667.00,1.23
7666.00,1.23
7665.00,1.23
7664.00,1.22
7663.00,1.22
7662.00,1.22
7661.00,1.22
7660.00,1.22
7659.00,1.22
7658.00,1.22
7657.00,1.22
7656.00,1.22
7655.00,1.22
7654.00,1.22
7653.00,1.22
7652.00,1.22
7651.00,1.22
7650.00,1.22
7649.00,1.23
7648.00,1.23
7647.00,1.23
7646.00,1.23
7645.00,1.23
7644.00,1.23
7643.00,1.23
7642.00,1.23
7641.00,1.23
7640.00,1.23
7639.00,1.23
7638.00,1.23
7637.00,1.23
7636.00,1.23
7635.00,1.23
7634.00,1.23
7633.00,1.23
7632.00,1.23
7631.00,1.23
7630.00,1.23
7629.00,1.23
7628.00,1.23
7627.00,1.23
7626.00,1.23
7625.00,1.23
7624.00,1.23
7623.00,1.23
7622.00,1.23
7621.00,1.23
7620.00,1.23
7619.00,1.23
7618.00,1.23
7617.00,1.23
7616.00,1.23
7615.00,1.23
7614.00,1.23
7613.00,1.23
7612.00,1.23
7611.00,1.22
7610.00,1.23
7609.00,1.23
7608.00,1.23
7607.00,1.23
7606.00,1.23
7605.00,1.23
7604.00,1.23
7603.00,1.23
7602.00,1.23
7601.00,1.23
7600.00,1.23
7599.00,1.23
7598.00,1.23
7597.00,1.23
7596.00,1.23
7595.00,1.23
7594.00,1.23
7593.00,1.23
7592.00,1.23
7591.00,1.23
7590.00,1.23
7589.00,1.22
7588.00,1.22
7587.00,1.22
7586.00,1.22
7585.00,1.22
7584.00,1.22
7583.00,1.22
7582.00,1.22
7581.00,1.22
7580.00,1.22
7579.00,1.22
7578.00,1.22
7577.00,1.22
7576.00,1.22
7575.00,1.22
7574.00,1.22
7573.00,1.22
7572.00,1.22
7571.00,1.22
7570.00,1.22
7569.00,1.22
7568.00,1.22
7567.00,1.22
7566.00,1.23
7565.00,1.23
7564.00,1.23
7563.00,1.23
7562.00,1.23
7561.00,1.23
7560.00,1.23
7559.00,1.23
7558.00,1.23
7557.00,1.23
7556.00,1.23
7555.00,1.23
7554.00,1.23
7553.00,1.23
7552.00,1.23
7551.00,1.23
7550.00,1.23
7549.00,1.22
7548.00,1.22
7547.00,1.22
7546.00,1.22
7545.00,1.22
7544.00,1.22
7543.00,1.22
7542.00,1.22
7541.00,1.22
7540.00,1.22
7539.00,1.22
7538.00,1.22
7537.00,1.21
7536.00,1.21
7535.00,1.21
7534.00,1.21
7533.00,1.21
7532.00,1.21
7531.00,1.21
7530.00,1.21
7529.00,1.21
7528.00,1.21
7527.00,1.21
7526.00,1.21
7525.00,1.21
7524.00,1.21
7523.00,1.21
7522.00,1.21
7521.00,1.21
7520.00,1.21
7519.00,1.20
7518.00,1.20
7517.00,1.20
7516.00,1.20
7515.00,1.20
7514.00,1.20
7513.00,1.20
7512.00,1.20
7511.00,1.20
7510.00,1.20
7509.00,1.20
7508.00,1.20
7507.00,1.20
7506.00,1.20
7505.00,1.20
7504.00,1.20
7503.00,1.20
7502.00,1.20
7501.00,1.20
7500.00,1.19
7499.00,1.19
7498.00,1.19
7497.00,1.19
7496.00,1.19
7495.00,1.19
7494.00,1.19
7493.00,1.19
7492.00,1.19
7491.00,1.19
7490.00,1.19
7489.00,1.19
7488.00,1.18
7487.00,1.18
7486.00,1.18
7485.00,1.18
7484.00,1.18
7483.00,1.18
7482.00,1.18
7481.00,1.18
7480.00,1.18
7479.00,1.18
7478.00,1.18
7477.00,1.18
7476.00,1.18
7475.00,1.18
7474.00,1.18
7473.00,1.18
7472.00,1.18
7471.00,1.17
7470.00,1.17
7469.00,1.17
7468.00,1.17
7467.00,1.17
7466.00,1.17
7465.00,1.17
7464.00,1.17
7463.00,1.17
7462.00,1.17
7461.00,1.17
7460.00,1.17
7459.00,1.17
7458.00,1.17
7457.00,1.17
7456.00,1.16
7455.00,1.16
7454.00,1.16
7453.00,1.16
7452.00,1.16
7451.00,1.16
7450.00,1.16
7449.00,1.16
7448.00,1.16
7447.00,1.16
7446.00,1.16
7445.00,1.16
7444.00,1.16
7443.00,1.16
7442.00,1.16
7441.00,1.16
7440.00,1.15
7439.00,1.15
7438.00,1.15
7437.00,1.15
7436.00,1.15
7435.00,1.15
7434.00,1.15
7433.00,1.15
7432.00,1.15
7431.00,1.15
7430.00,1.15
7429.00,1.15
7428.00,1.15
7427.00,1.15
7426.00,1.15
7425.00,1.14
7424.00,1.14
7423.00,1.14
7422.00,1.14
7421.00,1.14
7420.00,1.14
7419.00,1.14
7418.00,1.14
7417.00,1.14
7416.00,1.14
7415.00,1.14
7414.00,1.14
7413.00,1.14
7412.00,1.14
7411.00,1.14
7410.00,1.13
7409.00,1.13
7408.00,1.13
7407.00,1.13
7406.00,1.13
7405.00,1.13
7404.00,1.13
7403.00,1.13
7402.00,1.13
7401.00,1.13
7400.00,1.12
7399.00,1.12
7398.00,1.12
7397.00,1.12
7396.00,1.12
7395.00,1.12
7394.00,1.11
7393.00,1.11
7392.00,1.11
7391.00,1.11
7390.00,1.11
7389.00,1.11
7388.00,1.11
7387.00,1.10
7386.00,1.10
7385.00,1.10
7384.00,1.10
7383.00,1.10
7382.00,1.10
7381.00,1.10
7380.00,1.10
7379.00,1.10
7378.00,1.10
7377.00,1.10
7376.00,1.10
7375.00,1.10
7374.00,1.10
7373.00,1.10
7372.00,1.10
7371.00,1.10
7370.00,1.10
7369.00,1.10
7368.00,1.10
7367.00,1.10
7366.00,1.10
7365.00,1.10
7364.00,1.10
7363.00,1.10
7362.00,1.10
7361.00,1.10
7360.00,1.10
7359.00,1.10
7358.00,1.10
7357.00,1.09
7356.00,1.09
7355.00,1.09
7354.00,1.09
7353.00,1.09
7352.00,1.09
7351.00,1.09
7350.00,1.09
7349.00,1.09
7348.00,1.09
7347.00,1.08
7346.00,1.08
7345.00,1.08
7344.00,1.08
7343.00,1.08
7342.00,1.08
7341.00,1.08
7340.00,1.08
7339.00,1.08
7338.00,1.08
7337.00,1.07
7336.00,1.07
7335.00,1.07
7334.00,1.07
7333.00,1.07
7332.00,1.07
7331.00,1.07
7330.00,1.07
7329.00,1.07
7328.00,1.07
7327.00,1.07
7326.00,1.07
7325.00,1.07
7324.00,1.07
7323.00,1.07
7322.00,1.07
7321.00,1.07
7320.00,1.07
7319.00,1.07
7318.00,1.07
7317.00,1.07
7316.00,1.07
7315.00,1.07
7314.00,1.06
7313.00,1.06
7312.00,1.06
7311.00,1.06
7310.00,1.06
7309.00,1.06
7308.00,1.06
7307.00,1.06
7306.00,1.06
7305.00,1.05
7304.00,1.05
7303.00,1.05
7302.00,1.05
7301.00,1.05
7300.00,1.05
7299.00,1.05
7298.00,1.05
7297.00,1.05
7296.00,1.04
7295.00,1.04
7294.00,1.04
7293.00,1.04
7292.00,1.04
7291.00,1.04
7290.00,1.04
7289.00,1.04
7288.00,1.04
7287.00,1.04
7286.00,1.03
7285.00,1.03
7284.00,1.03
7283.00,1.03
7282.00,1.03
7281.00,1.03
7280.00,1.03
7279.00,1.02
7278.00,1.02
7277.00,1.02
7276.00,1.02
7275.00,1.02
7274.00,1.02
7273.00,1.01
7272.00,1.01
7271.00,1.01
7270.00,1.01
7269.00,1.01
7268.00,1.01
7267.00,1.01
7266.00,1.01
7265.00,1.01
7264.00,1.00
7263.00,1.00
7262.00,1.00
7261.00,1.00
7260.00,1.00
7259.00,1.00
7258.00,1.00
7257.00,1.00
7256.00,1.00
7255.00,1.00
7254.00,1.00
7253.00,1.00
7252.00,0.99
7251.00,0.99
7250.00,0.99
7249.00,0.99
7248.00,0.98
7247.00,0.98
7246.00,0.98
7245.00,0.97
7244.00,0.97
7243.00,0.96
7242.00,0.96
7241.00,0.96
7240.00,0.95
7239.00,0.95
7238.00,0.94
7237.00,0.94
7236.00,0.93
7235.00,0.93
7234.00,0.93
7233.00,0.92
7232.00,0.92
7231.00,0.91
7230.00,0.91
7229.00,0.91
7228.00,0.90
7227.00,0.90
7226.00,0.90
7225.00,0.90
7224.00,0.89
7223.00,0.89
7222.00,0.89
7221.00,0.89
7220.00,0.88
7219.00,0.88
7218.00,0.88
7217.00,0.88
7216.00,0.87
7215.00,0.87
7214.00,0.87
7213.00,0.87
7212.00,0.86
7211.00,0.86
7210.00,0.86
7209.00,0.86
7208.00,0.85
7207.00,0.85
7206.00,0.85
7205.00,0.84
7204.00,0.84
7203.00,0.84
7202.00,0.84
7201.00,0.83
7200.00,0.83
7199.00,0.83
7198.00,0.83
7197.00,0.82
7196.00,0.82
7195.00,0.82
7194.00,0.81
7193.00,0.81
7192.00,0.81
7191.00,0.81
7190.00,0.80
7189.00,0.80
7188.00,0.80
7187.00,0.79
7186.00,0.79
7185.00,0.79
7184.00,0.78
7183.00,0.78
7182.00,0.78
7181.00,0.77
7180.00,0.77
7179.00,0.77
7178.00,0.77
7177.00,0.76
7176.00,0.76
7175.00,0.76
7174.00,0.75
7173.00,0.75
7172.00,0.75
7171.00,0.75
7170.00,0.74
7169.00,0.74
7168.00,0.74
7167.00,0.73
7166.00,0.73
7165.00,0.73
7164.00,0.73
7163.00,0.72
7162.00,0.72
7161.00,0.72
7160.00,0.72
7159.00,0.71
7158.00,0.71
7157.00,0.71
7156.00,0.71
7155.00,0.70
7154.00,0.70
7153.00,0.70
7152.00,0.70
7151.00,0.70
7150.00,0.70
7149.00,0.69
7148.00,0.69
7147.00,0.69
7146.00,0.69
7145.00,0.69
7144.00,0.69
7143.00,0.68
7142.00,0.68
7141.00,0.68
7140.00,0.68
7139.00,0.67
7138.00,0.67
7137.00,0.67
7136.00,0.67
7135.00,0.66
7134.00,0.66
7133.00,0.66
7132.00,0.66
7131.00,0.65
7130.00,0.65
7129.00,0.65
7128.00,0.65
7127.00,0.65
7126.00,0.65
7125.00,0.64
7124.00,0.64
7123.00,0.64
7122.00,0.64
7121.00,0.64
7120.00,0.64
7119.00,0.64
7118.00,0.64
7117.00,0.64
7116.00,0.64
7115.00,0.63
7114.00,0.63
7113.00,0.63
7112.00,0.63
7111.00,0.63
7110.00,0.62
7109.00,0.62
7108.00,0.62
7107.00,0.62
7106.00,0.61
7105.00,0.61
7104.00,0.61
7103.00,0.60
7102.00,0.60
7101.00,0.60
7100.00,0.60
7099.00,0.59
7098.00,0.59
7097.00,0.59
7096.00,0.59
7095.00,0.59
7094.00,0.59
7093.00,0.58
7092.00,0.58
7091.00,0.58
7090.00,0.58
7089.00,0.58
7088.00,0.58
7087.00,0.58
7086.00,0.58
7085.00,0.58
7084.00,0.58
7083.00,0.58
7082.00,0.58
7081.00,0.58
7080.00,0.58
7079.00,0.57
7078.00,0.57
7077.00,0.57
7076.00,0.57
7075.00,0.57
7074.00,0.57
7073.00,0.57
7072.00,0.57
7071.00,0.57
7070.00,0.56
7069.00,0.56
7068.00,0.56
7067.00,0.56
7066.00,0.56
7065.00,0.56
7064.00,0.56
7063.00,0.56
7062.00,0.56
7061.00,0.55
7060.00,0.55
7059.00,0.55
7058.00,0.55
7057.00,0.55
7056.00,0.55
7055.00,0.55
7054.00,0.55
7053.00,0.55
7052.00,0.55
7051.00,0.55
7050.00,0.55
7049.00,0.55
7048.00,0.55
7047.00,0.55
7046.00,0.55
7045.00,0.54
7044.00,0.54
7043.00,0.54
7042.00,0.54
7041.00,0.54
7040.00,0.54
7039.00,0.54
7038.00,0.54
7037.00,0.54
7036.00,0.54
7035.00,0.54
7034.00,0.54
7033.00,0.54
7032.00,0.54
7031.00,0.54
7030.00,0.54
7029.00,0.54
7028.00,0.54
7027.00,0.54
7026.00,0.54
7025.00,0.54
7024.00,0.53
7023.00,0.53
7022.00,0.53
7021.00,0.53
7020.00,0.53
7019.00,0.53
7018.00,0.53
7017.00,0.53
7016.00,0.53
7015.00,0.53
7014.00,0.53
7013.00,0.53
7012.00,0.53
7011.00,0.53
7010.00,0.53
7009.00,0.53
7008.00,0.53
7007.00,0.53
7006.00,0.53
7005.00,0.53
7004.00,0.53
7003.00,0.53
7002.00,0.53
7001.00,0.53
7000.00,0.53
6999.00,0.53
6998.00,0.53
6997.00,0.53
6996.00,0.53
6995.00,0.53
6994.00,0.52
6993.00,0.52
6992.00,0.52
6991.00,0.52
6990.00,0.52
6989.00,0.52
6988.00,0.52
6987.00,0.52
6986.00,0.52
6985.00,0.52
6984.00,0.52
6983.00,0.52
6982.00,0.52
6981.00,0.52
6980.00,0.52
6979.00,0.52
6978.00,0.52
6977.00,0.52
6976.00,0.52
6975.00,0.52
6974.00,0.52
6973.00,0.52
6972.00,0.52
6971.00,0.52
6970.00,0.52
6969.00,0.52
6968.00,0.52
6967.00,0.52
6966.00,0.52
6965.00,0.52
6964.00,0.52
6963.00,0.52
6962.00,0.52
6961.00,0.52
6960.00,0.52
6959.00,0.52
6958.00,0.52
6957.00,0.52
6956.00,0.52
6955.00,0.52
6954.00,0.52
6953.00,0.52
6952.00,0.52
6951.00,0.52
6950.00,0.52
6949.00,0.52
6948.00,0.52
6947.00,0.52
6946.00,0.52
6945.00,0.52
6944.00,0.52
6943.00,0.52
6942.00,0.52
6941.00,0.52
6940.00,0.52
6939.00,0.51
6938.00,0.51
6937.00,0.51
6936.00,0.51
6935.00,0.51
6934.00,0.51
6933.00,0.51
6932.00,0.51
6931.00,0.51
6930.00,0.51
6929.00,0.51
6928.00,0.51
6927.00,0.51
6926.00,0.51
6925.00,0.51
6924.00,0.51
6923.00,0.51
6922.00,0.51
6921.00,0.51
6920.00,0.51
6919.00,0.51
6918.00,0.51
6917.00,0.51
6916.00,0.51
6915.00,0.51
6914.00,0.51
6913.00,0.51
6912.00,0.51
6911.00,0.51
6910.00,0.51
6909.00,0.51
6908.00,0.51
6907.00,0.51
6906.00,0.51
6905.00,0.51
6904.00,0.51
6903.00,0.51
6902.00,0.51
6901.00,0.51
6900.00,0.51
6899.00,0.51
6898.00,0.51
6897.00,0.51
6896.00,0.51
6895.00,0.51
6894.00,0.51
6893.00,0.51
6892.00,0.51
6891.00,0.51
6890.00,0.51
6889.00,0.51
6888.00,0.51
6887.00,0.51
6886.00,0.51
6885.00,0.51
6884.00,0.51
6883.00,0.51
6882.00,0.51
6881.00,0.51
6880.00,0.51
6879.00,0.51
6878.00,0.51
6877.00,0.51
6876.00,0.51
6875.00,0.51
6874.00,0.51
6873.00,0.51
6872.00,0.51
6871.00,0.51
6870.00,0.51
6869.00,0.51
6868.00,0.51
6867.00,0.51
6866.00,0.51
6865.00,0.51
6864.00,0.51
6863.00,0.51
6862.00,0.51
6861.00,0.51
6860.00,0.51
6859.00,0.51
6858.00,0.51
6857.00,0.51
6856.00,0.51
6855.00,0.51
6854.00,0.51
6853.00,0.51
6852.00,0.51
6851.00,0.51
6850.00,0.51
6849.00,0.51
6848.00,0.52
6847.00,0.52
6846.00,0.52
6845.00,0.52
6844.00,0.52
6843.00,0.52
6842.00,0.52
6841.00,0.52
6840.00,0.52
6839.00,0.52
6838.00,0.52
6837.00,0.52
6836.00,0.52
6835.00,0.52
6834.00,0.52
6833.00,0.52
6832.00,0.52
6831.00,0.52
6830.00,0.52
6829.00,0.52
6828.00,0.52
6827.00,0.52
6826.00,0.52
6825.00,0.52
6824.00,0.52
6823.00,0.52
6822.00,0.52
6821.00,0.52
6820.00,0.52
6819.00,0.52
6818.00,0.52
6817.00,0.52
6816.00,0.52
6815.00,0.52
6814.00,0.52
6813.00,0.52
6812.00,0.52
6811.00,0.52
6810.00,0.52
6809.00,0.52
6808.00,0.52
6807.00,0.52
6806.00,0.52
6805.00,0.52
6804.00,0.52
6803.00,0.52
6802.00,0.52
6801.00,0.52
6800.00,0.52
6799.00,0.52
6798.00,0.52
6797.00,0.52
6796.00,0.52
6795.00,0.52
6794.00,0.52
6793.00,0.53
6792.00,0.53
6791.00,0.53
6790.00,0.53
6789.00,0.53
6788.00,0.53
6787.00,0.53
6786.00,0.53
6785.00,0.53
6784.00,0.53
6783.00,0.53
6782.00,0.53
6781.00,0.54
6780.00,0.54
6779.00,0.54
6778.00,0.54
6777.00,0.54
6776.00,0.54
6775.00,0.54
6774.00,0.54
6773.00,0.54
6772.00,0.54
6771.00,0.54
6770.00,0.54
6769.00,0.54
6768.00,0.54
6767.00,0.54
6766.00,0.54
6765.00,0.54
6764.00,0.54
6763.00,0.54
6762.00,0.54
6761.00,0.54
6760.00,0.54
6759.00,0.54
6758.00,0.54
6757.00,0.54
6756.00,0.54
6755.00,0.54
6754.00,0.54
6753.00,0.54
6752.00,0.54
6751.00,0.54
6750.00,0.54
6749.00,0.54
6748.00,0.54
6747.00,0.54
6746.00,0.54
6745.00,0.55
6744.00,0.55
6743.00,0.55
6742.00,0.55
6741.00,0.55
6740.00,0.55
6739.00,0.55
6738.00,0.55
6737.00,0.55
6736.00,0.55
6735.00,0.55
6734.00,0.55
6733.00,0.55
6732.00,0.56
6731.00,0.56
6730.00,0.56
6729.00,0.56
6728.00,0.56
6727.00,0.56
6726.00,0.56
6725.00,0.56
6724.00,0.56
6723.00,0.56
6722.00,0.56
6721.00,0.56
6720.00,0.56
6719.00,0.56
6718.00,0.56
6717.00,0.56
6716.00,0.56
6715.00,0.56
6714.00,0.56
6713.00,0.56
6712.00,0.56
6711.00,0.56
6710.00,0.56
6709.00,0.56
6708.00,0.56
6707.00,0.56
6706.00,0.56
6705.00,0.56
6704.00,0.56
6703.00,0.56
6702.00,0.56
6701.00,0.56
6700.00,0.56
6699.00,0.56
6698.00,0.56
6697.00,0.57
6696.00,0.57
6695.00,0.57
6694.00,0.57
6693.00,0.57
6692.00,0.57
6691.00,0.57
6690.00,0.57
6689.00,0.57
6688.00,0.57
6687.00,0.58
6686.00,0.58
6685.00,0.58
6684.00,0.58
6683.00,0.58
6682.00,0.58
6681.00,0.58
6680.00,0.58
6679.00,0.58
6678.00,0.58
6677.00,0.58
6676.00,0.58
6675.00,0.58
6674.00,0.58
6673.00,0.58
6672.00,0.58
6671.00,0.58
6670.00,0.58
6669.00,0.58
6668.00,0.58
6667.00,0.58
6666.00,0.58
6665.00,0.58
6664.00,0.58
6663.00,0.58
6662.00,0.58
6661.00,0.58
6660.00,0.58
6659.00,0.58
6658.00,0.58
6657.00,0.59
6656.00,0.59
6655.00,0.59
6654.00,0.59
6653.00,0.59
6652.00,0.59
6651.00,0.59
6650.00,0.59
6649.00,0.59
6648.00,0.59
6647.00,0.59
6646.00,0.59
6645.00,0.59
6644.00,0.59
6643.00,0.59
6642.00,0.59
6641.00,0.59
6640.00,0.60
6639.00,0.60
6638.00,0.60
6637.00,0.60
6636.00,0.60
6635.00,0.60
6634.00,0.60
6633.00,0.60
6632.00,0.60
6631.00,0.60
6630.00,0.60
6629.00,0.61
6628.00,0.61
6627.00,0.61
6626.00,0.61
6625.00,0.61
6624.00,0.61
6623.00,0.61
6622.00,0.61
6621.00,0.62
6620.00,0.62
6619.00,0.62
6618.00,0.62
6617.00,0.62
6616.00,0.62
6615.00,0.62
6614.00,0.62
6613.00,0.62
6612.00,0.62
6611.00,0.63
6610.00,0.63
6609.00,0.63
6608.00,0.63
6607.00,0.63
6606.00,0.63
6605.00,0.63
6604.00,0.63
6603.00,0.63
6602.00,0.63
6601.00,0.63
6600.00,0.63
6599.00,0.63
6598.00,0.63
6597.00,0.63
6596.00,0.63
6595.00,0.64
6594.00,0.64
6593.00,0.64
6592.00,0.64
6591.00,0.64
6590.00,0.64
6589.00,0.64
6588.00,0.64
6587.00,0.64
6586.00,0.64
6585.00,0.64
6584.00,0.64
6583.00,0.64
6582.00,0.65
6581.00,0.65
6580.00,0.65
6579.00,0.65
6578.00,0.65
6577.00,0.65
6576.00,0.65
6575.00,0.65
6574.00,0.65
6573.00,0.65
6572.00,0.65
6571.00,0.65
6570.00,0.65
6569.00,0.65
6568.00,0.65
6567.00,0.65
6566.00,0.65
6565.00,0.65
6564.00,0.65
6563.00,0.65
6562.00,0.65
6561.00,0.65
6560.00,0.65
6559.00,0.65
6558.00,0.66
6557.00,0.66
6556.00,0.66
6555.00,0.66
6554.00,0.66
6553.00,0.66
6552.00,0.66
6551.00,0.67
6550.00,0.67
6549.00,0.67
6548.00,0.67
6547.00,0.67
6546.00,0.67
6545.00,0.67
6544.00,0.67
6543.00,0.67
6542.00,0.67
6541.00,0.67
6540.00,0.67
6539.00,0.67
6538.00,0.68
6537.00,0.68
6536.00,0.68
6535.00,0.68
6534.00,0.68
6533.00,0.68
6532.00,0.67
6531.00,0.67
6530.00,0.67
6529.00,0.68
6528.00,0.68
6527.00,0.68
6526.00,0.68
6525.00,0.68
6524.00,0.68
6523.00,0.68
6522.00,0.68
6521.00,0.68
6520.00,0.68
6519.00,0.68
6518.00,0.68
6517.00,0.68
6516.00,0.68
6515.00,0.68
6514.00,0.68
6513.00,0.68
6512.00,0.68
6511.00,0.68
6510.00,0.68
6509.00,0.68
6508.00,0.68
6507.00,0.68
6506.00,0.68
6505.00,0.69
6504.00,0.69
6503.00,0.69
6502.00,0.69
6501.00,0.69
6500.00,0.69
6499.00,0.69
6498.00,0.69
6497.00,0.69
6496.00,0.69
6495.00,0.69
6494.00,0.69
6493.00,0.69
6492.00,0.69
6491.00,0.69
6490.00,0.69
6489.00,0.69
6488.00,0.69
6487.00,0.69
6486.00,0.69
6485.00,0.69
6484.00,0.70
6483.00,0.70
6482.00,0.70
6481.00,0.70
6480.00,0.70
6479.00,0.70
6478.00,0.70
6477.00,0.70
6476.00,0.70
6475.00,0.71
6474.00,0.71
6473.00,0.71
6472.00,0.71
6471.00,0.71
6470.00,0.71
6469.00,0.71
6468.00,0.71
6467.00,0.71
6466.00,0.71
6465.00,0.71
6464.00,0.71
6463.00,0.71
6462.00,0.71
6461.00,0.71
6460.00,0.71
6459.00,0.71
6458.00,0.71
6457.00,0.71
6456.00,0.71
6455.00,0.71
6454.00,0.71
6453.00,0.71
6452.00,0.71
6451.00,0.71
6450.00,0.71
6449.00,0.71
6448.00,0.72
6447.00,0.72
6446.00,0.72
6445.00,0.72
6444.00,0.72
6443.00,0.72
6442.00,0.72
6441.00,0.72
6440.00,0.72
6439.00,0.72
6438.00,0.72
6437.00,0.72
6436.00,0.72
6435.00,0.72
6434.00,0.72
6433.00,0.72
6432.00,0.72
6431.00,0.72
6430.00,0.73
6429.00,0.73
6428.00,0.73
6427.00,0.73
6426.00,0.73
6425.00,0.73
6424.00,0.73
6423.00,0.73
6422.00,0.73
6421.00,0.73
6420.00,0.73
6419.00,0.73
6418.00,0.73
6417.00,0.73
6416.00,0.73
6415.00,0.73
6414.00,0.73
6413.00,0.73
6412.00,0.73
6411.00,0.73
6410.00,0.73
6409.00,0.73
6408.00,0.73
6407.00,0.73
6406.00,0.73
6405.00,0.73
6404.00,0.73
6403.00,0.73
6402.00,0.73
6401.00,0.73
6400.00,0.73
6399.00,0.73
6398.00,0.73
6397.00,0.73
6396.00,0.73
6395.00,0.73
6394.00,0.73
6393.00,0.74
6392.00,0.74
6391.00,0.74
6390.00,0.74
6389.00,0.74
6388.00,0.74
6387.00,0.74
6386.00,0.74
6385.00,0.75
6384.00,0.75
6383.00,0.75
6382.00,0.75
6381.00,0.75
6380.00,0.75
6379.00,0.75
6378.00,0.75
6377.00,0.75
6376.00,0.75
6375.00,0.75
6374.00,0.76
6373.00,0.76
6372.00,0.76
6371.00,0.76
6370.00,0.76
6369.00,0.76
6368.00,0.76
6367.00,0.76
6366.00,0.76
6365.00,0.76
6364.00,0.76
6363.00,0.76
6362.00,0.76
6361.00,0.76
6360.00,0.76
6359.00,0.76
6358.00,0.76
6357.00,0.76
6356.00,0.76
6355.00,0.76
6354.00,0.76
6353.00,0.76
6352.00,0.77
6351.00,0.77
6350.00,0.77
6349.00,0.77
6348.00,0.77
6347.00,0.77
6346.00,0.77
6345.00,0.77
6344.00,0.77
6343.00,0.77
6342.00,0.78
6341.00,0.78
6340.00,0.78
6339.00,0.78
6338.00,0.78
6337.00,0.78
6336.00,0.78
6335.00,0.78
6334.00,0.78
6333.00,0.78
6332.00,0.78
6331.00,0.78
6330.00,0.78
6329.00,0.78
6328.00,0.78
6327.00,0.78
6326.00,0.79
6325.00,0.79
6324.00,0.79
6323.00,0.79
6322.00,0.79
6321.00,0.79
6320.00,0.79
6319.00,0.79
6318.00,0.79
6317.00,0.79
6316.00,0.79
6315.00,0.79
6314.00,0.79
6313.00,0.79
6312.00,0.80
6311.00,0.80
6310.00,0.80
6309.00,0.80
6308.00,0.80
6307.00,0.80
6306.00,0.80
6305.00,0.80
6304.00,0.80
6303.00,0.81
6302.00,0.81
6301.00,0.81
6300.00,0.81
6299.00,0.81
6298.00,0.81
6297.00,0.81
6296.00,0.81
6295.00,0.81
6294.00,0.81
6293.00,0.81
6292.00,0.81
6291.00,0.81
6290.00,0.81
6289.00,0.82
6288.00,0.82
6287.00,0.82
6286.00,0.82
6285.00,0.82
6284.00,0.82
6283.00,0.82
6282.00,0.82
6281.00,0.82
6280.00,0.82
6279.00,0.82
6278.00,0.82
6277.00,0.82
6276.00,0.83
6275.00,0.83
6274.00,0.83
6273.00,0.83
6272.00,0.83
6271.00,0.83
6270.00,0.83
6269.00,0.84
6268.00,0.84
6267.00,0.84
6266.00,0.84
6265.00,0.84
6264.00,0.84
6263.00,0.84
6262.00,0.85
6261.00,0.85
6260.00,0.85
6259.00,0.85
6258.00,0.85
6257.00,0.85
6256.00,0.85
6255.00,0.85
6254.00,0.85
6253.00,0.86
6252.00,0.86
6251.00,0.86
6250.00,0.86
6249.00,0.86
6248.00,0.86
6247.00,0.86
6246.00,0.86
6245.00,0.86
6244.00,0.86
6243.00,0.86
6242.00,0.86
6241.00,0.87
6240.00,0.87
6239.00,0.87
6238.00,0.87
6237.00,0.87
6236.00,0.87
6235.00,0.87
6234.00,0.87
6233.00,0.87
6232.00,0.87
6231.00,0.87
6230.00,0.87
6229.00,0.88
6228.00,0.88
6227.00,0.88
6226.00,0.88
6225.00,0.88
6224.00,0.88
6223.00,0.88
6222.00,0.88
6221.00,0.88
6220.00,0.88
6219.00,0.88
6218.00,0.89
6217.00,0.89
6216.00,0.89
6215.00,0.89
6214.00,0.89
6213.00,0.89
6212.00,0.89
6211.00,0.90
6210.00,0.90
6209.00,0.90
6208.00,0.90
6207.00,0.90
6206.00,0.90
6205.00,0.90
6204.00,0.91
6203.00,0.91
6202.00,0.91
6201.00,0.91
6200.00,0.91
6199.00,0.91
6198.00,0.91
6197.00,0.92
6196.00,0.92
6195.00,0.92
6194.00,0.92
6193.00,0.92
6192.00,0.92
6191.00,0.92
6190.00,0.92
6189.00,0.93
6188.00,0.93
6187.00,0.93
6186.00,0.93
6185.00,0.93
6184.00,0.93
6183.00,0.93
6182.00,0.93
6181.00,0.94
6180.00,0.94
6179.00,0.94
6178.00,0.94
6177.00,0.94
6176.00,0.94
6175.00,0.94
6174.00,0.95
6173.00,0.95
6172.00,0.95
6171.00,0.95
6170.00,0.95
6169.00,0.95
6168.00,0.96
6167.00,0.96
6166.00,0.96
6165.00,0.96
6164.00,0.96
6163.00,0.96
6162.00,0.96
6161.00,0.97
6160.00,0.97
6159.00,0.97
6158.00,0.97
6157.00,0.97
6156.00,0.97
6155.00,0.97
6154.00,0.97
6153.00,0.97
6152.00,0.98
6151.00,0.98
6150.00,0.98
6149.00,0.98
6148.00,0.98
6147.00,0.98
6146.00,0.98
6145.00,0.98
6144.00,0.98
6143.00,0.98
6142.00,0.98
6141.00,0.99
6140.00,0.99
6139.00,0.99
6138.00,0.99
6137.00,0.99
6136.00,0.99
6135.00,0.99
6134.00,0.99
6133.00,1.00
6132.00,1.00
6131.00,1.00
6130.00,1.00
6129.00,1.00
6128.00,1.00
6127.00,1.00
6126.00,1.01
6125.00,1.01
6124.00,1.01
6123.00,1.01
6122.00,1.01
6121.00,1.01
6120.00,1.02
6119.00,1.02
6118.00,1.02
6117.00,1.02
6116.00,1.02
6115.00,1.03
6114.00,1.03
6113.00,1.03
6112.00,1.03
6111.00,1.03
6110.00,1.03
6109.00,1.04
6108.00,1.04
6107.00,1.04
6106.00,1.04
6105.00,1.04
6104.00,1.04
6103.00,1.04
6102.00,1.04
6101.00,1.04
6100.00,1.05
6099.00,1.05
6098.00,1.05
6097.00,1.05
6096.00,1.05
6095.00,1.05
6094.00,1.05
6093.00,1.05
6092.00,1.05
6091.00,1.06
6090.00,1.06
6089.00,1.06
6088.00,1.06
6087.00,1.06
6086.00,1.06
6085.00,1.06
6084.00,1.06
6083.00,1.07
6082.00,1.07
6081.00,1.07
6080.00,1.07
6079.00,1.07
6078.00,1.07
6077.00,1.07
6076.00,1.08
6075.00,1.08
6074.00,1.08
6073.00,1.08
6072.00,1.08
6071.00,1.08
6070.00,1.09
6069.00,1.09
6068.00,1.09
6067.00,1.09
6066.00,1.09
6065.00,1.09
6064.00,1.09
6063.00,1.09
6062.00,1.09
6061.00,1.09
6060.00,1.09
6059.00,1.09
6058.00,1.09
6057.00,1.09
6056.00,1.09
6055.00,1.09
6054.00,1.10
6053.00,1.10
6052.00,1.10
6051.00,1.10
6050.00,1.10
6049.00,1.10
6048.00,1.10
6047.00,1.10
6046.00,1.10
6045.00,1.10
6044.00,1.10
6043.00,1.10
6042.00,1.10
6041.00,1.10
6040.00,1.10
6039.00,1.10
6038.00,1.10
6037.00,1.10
6036.00,1.11
6035.00,1.11
6034.00,1.11
6033.00,1.11
6032.00,1.11
6031.00,1.11
6030.00,1.11
6029.00,1.11
6028.00,1.12
6027.00,1.12
6026.00,1.12
6025.00,1.12
6024.00,1.12
6023.00,1.12
6022.00,1.12
6021.00,1.12
6020.00,1.12
6019.00,1.12
6018.00,1.12
6017.00,1.12
6016.00,1.12
6015.00,1.12
6014.00,1.12
6013.00,1.12
6012.00,1.12
6011.00,1.12
6010.00,1.12
6009.00,1.12
6008.00,1.12
6007.00,1.12
6006.00,1.12
6005.00,1.12
6004.00,1.12
6003.00,1.12
6002.00,1.12
6001.00,1.12
6000.00,1.12
5999.00,1.12
5998.00,1.11
5997.00,1.11
5996.00,1.11
5995.00,1.11
5994.00,1.11
5993.00,1.11
5992.00,1.10
5991.00,1.10
5990.00,1.10
5989.00,1.10
5988.00,1.10
5987.00,1.09
5986.00,1.09
5985.00,1.09
5984.00,1.09
5983.00,1.08
5982.00,1.08
5981.00,1.08
5980.00,1.07
5979.00,1.07
5978.00,1.07
5977.00,1.06
5976.00,1.06
5975.00,1.06
5974.00,1.05
5973.00,1.05
5972.00,1.04
5971.00,1.04
5970.00,1.03
5969.00,1.03
5968.00,1.02
5967.00,1.02
5966.00,1.01
5965.00,1.01
5964.00,1.00
5963.00,0.99
5962.00,0.99
5961.00,0.98
5960.00,0.98
5959.00,0.97
5958.00,0.96
5957.00,0.96
5956.00,0.95
5955.00,0.94
5954.00,0.94
5953.00,0.93
5952.00,0.93
5951.00,0.92
5950.00,0.92
5949.00,0.91
5948.00,0.91
5947.00,0.90
5946.00,0.90
5945.00,0.90
5944.00,0.89
5943.00,0.89
5942.00,0.89
5941.00,0.89
5940.00,0.89
5939.00,0.88
5938.00,0.88
5937.00,0.88
5936.00,0.88
5935.00,0.88
5934.00,0.88
5933.00,0.88
5932.00,0.88
5931.00,0.88
5930.00,0.88
5929.00,0.88
5928.00,0.88
5927.00,0.87
5926.00,0.87
5925.00,0.87
5924.00,0.87
5923.00,0.87
5922.00,0.87
5921.00,0.87
5920.00,0.86
5919.00,0.86
5918.00,0.86
5917.00,0.86
5916.00,0.86
5915.00,0.85
5914.00,0.85
5913.00,0.85
5912.00,0.85
5911.00,0.85
5910.00,0.85
5909.00,0.84
5908.00,0.84
5907.00,0.84
5906.00,0.84
5905.00,0.84
5904.00,0.84
5903.00,0.84
5902.00,0.84
5901.00,0.83
5900.00,0.83
5899.00,0.83
5898.00,0.84
5897.00,0.84
5896.00,0.84
5895.00,0.84
5894.00,0.84
5893.00,0.84
5892.00,0.84
5891.00,0.84
5890.00,0.85
5889.00,0.85
5888.00,0.85
5887.00,0.85
5886.00,0.86
5885.00,0.86
5884.00,0.86
5883.00,0.86
5882.00,0.87
5881.00,0.87
5880.00,0.87
5879.00,0.87
5878.00,0.88
5877.00,0.88
5876.00,0.88
5875.00,0.88
5874.00,0.89
5873.00,0.89
5872.00,0.89
5871.00,0.89
5870.00,0.89
5869.00,0.89
5868.00,0.90
5867.00,0.90
5866.00,0.90
5865.00,0.90
5864.00,0.90
5863.00,0.90
5862.00,0.90
5861.00,0.91
5860.00,0.91
5859.00,0.91
5858.00,0.91
5857.00,0.91
5856.00,0.91
5855.00,0.91
5854.00,0.91
5853.00,0.91
5852.00,0.91
5851.00,0.91
5850.00,0.91
5849.00,0.91
5848.00,0.91
5847.00,0.91
5846.00,0.91
5845.00,0.91
5844.00,0.91
5843.00,0.91
5842.00,0.91
5841.00,0.91
5840.00,0.91
5839.00,0.91
5838.00,0.91
5837.00,0.91
5836.00,0.91
5835.00,0.91
5834.00,0.91
5833.00,0.91
5832.00,0.91
5831.00,0.91
5830.00,0.91
5829.00,0.91
5828.00,0.91
5827.00,0.91
5826.00,0.91
5825.00,0.91
5824.00,0.91
5823.00,0.91
5822.00,0.91
5821.00,0.91
5820.00,0.91
5819.00,0.91
5818.00,0.91
5817.00,0.91
5816.00,0.91
5815.00,0.92
5814.00,0.92
5813.00,0.92
5812.00,0.92
5811.00,0.92
5810.00,0.92
5809.00,0.92
5808.00,0.92
5807.00,0.92
5806.00,0.92
5805.00,0.92
5804.00,0.92
5803.00,0.92
5802.00,0.92
5801.00,0.92
5800.00,0.92
5799.00,0.92
5798.00,0.92
5797.00,0.91
5796.00,0.91
5795.00,0.91
5794.00,0.91
5793.00,0.91
5792.00,0.90
5791.00,0.90
5790.00,0.90
5789.00,0.90
5788.00,0.90
5787.00,0.89
5786.00,0.89
5785.00,0.89
5784.00,0.89
5783.00,0.89
5782.00,0.89
5781.00,0.88
5780.00,0.88
5779.00,0.88
5778.00,0.88
5777.00,0.88
5776.00,0.88
5775.00,0.88
5774.00,0.88
5773.00,0.88
5772.00,0.88
5771.00,0.88
5770.00,0.88
5769.00,0.88
5768.00,0.88
5767.00,0.88
5766.00,0.88
5765.00,0.89
5764.00,0.89
5763.00,0.89
5762.00,0.89
5761.00,0.89
5760.00,0.89
5759.00,0.90
5758.00,0.90
5757.00,0.90
5756.00,0.91
5755.00,0.91
5754.00,0.91
5753.00,0.91
5752.00,0.92
5751.00,0.92
5750.00,0.92
5749.00,0.93
5748.00,0.93
5747.00,0.93
5746.00,0.93
5745.00,0.94
5744.00,0.94
5743.00,0.94
5742.00,0.94
5741.00,0.95
5740.00,0.95
5739.00,0.95
5738.00,0.95
5737.00,0.96
5736.00,0.96
5735.00,0.96
5734.00,0.96
5733.00,0.96
5732.00,0.96
5731.00,0.97
5730.00,0.97
5729.00,0.97
5728.00,0.97
5727.00,0.97
5726.00,0.97
5725.00,0.97
5724.00,0.97
5723.00,0.97
5722.00,0.97
5721.00,0.97
5720.00,0.97
5719.00,0.97
5718.00,0.97
5717.00,0.97
5716.00,0.97
5715.00,0.97
5714.00,0.97
5713.00,0.97
5712.00,0.97
5711.00,0.97
5710.00,0.97
5709.00,0.97
5708.00,0.97
5707.00,0.97
5706.00,0.97
5705.00,0.97
5704.00,0.97
5703.00,0.97
5702.00,0.97
5701.00,0.97
5700.00,0.97
5699.00,0.97
5698.00,0.97
5697.00,0.97
5696.00,0.96
5695.00,0.96
5694.00,0.96
5693.00,0.96
5692.00,0.96
5691.00,0.96
5690.00,0.96
5689.00,0.96
5688.00,0.95
5687.00,0.95
5686.00,0.95
5685.00,0.95
5684.00,0.95
5683.00,0.95
5682.00,0.95
5681.00,0.95
5680.00,0.94
5679.00,0.94
5678.00,0.94
5677.00,0.94
5676.00,0.94
5675.00,0.94
5674.00,0.94
5673.00,0.94
5672.00,0.94
5671.00,0.94
5670.00,0.94
5669.00,0.94
5668.00,0.94
5667.00,0.95
5666.00,0.95
5665.00,0.95
5664.00,0.95
5663.00,0.95
5662.00,0.95
5661.00,0.96
5660.00,0.96
5659.00,0.96
5658.00,0.96
5657.00,0.96
5656.00,0.97
5655.00,0.97
5654.00,0.97
5653.00,0.97
5652.00,0.97
5651.00,0.98
5650.00,0.98
5649.00,0.98
5648.00,0.98
5647.00,0.98
5646.00,0.98
5645.00,0.98
5644.00,0.99
5643.00,0.99
5642.00,0.99
5641.00,0.99
5640.00,0.99
5639.00,0.99
5638.00,0.99
5637.00,1.00
5636.00,1.00
5635.00,1.00
5634.00,1.00
5633.00,1.00
5632.00,1.00
5631.00,1.01
5630.00,1.01
5629.00,1.01
5628.00,1.01
5627.00,1.01
5626.00,1.02
5625.00,1.02
5624.00,1.02
5623.00,1.02
5622.00,1.02
5621.00,1.02
5620.00,1.03
5619.00,1.03
5618.00,1.03
5617.00,1.03
5616.00,1.03
5615.00,1.03
5614.00,1.04
5613.00,1.04
5612.00,1.04
5611.00,1.04
5610.00,1.04
5609.00,1.04
5608.00,1.04
5607.00,1.05
5606.00,1.05
5605.00,1.05
5604.00,1.05
5603.00,1.05
5602.00,1.05
5601.00,1.05
5600.00,1.05
5599.00,1.05
5598.00,1.06
5597.00,1.06
5596.00,1.06
5595.00,1.06
5594.00,1.06
5593.00,1.06
5592.00,1.06
5591.00,1.06
5590.00,1.07
5589.00,1.07
5588.00,1.07
5587.00,1.07
5586.00,1.07
5585.00,1.07
5584.00,1.08
5583.00,1.08
5582.00,1.08
5581.00,1.08
5580.00,1.08
5579.00,1.08
5578.00,1.09
5577.00,1.09
5576.00,1.09
5575.00,1.09
5574.00,1.09
5573.00,1.10
5572.00,1.10
5571.00,1.10
5570.00,1.10
5569.00,1.10
5568.00,1.10
5567.00,1.10
5566.00,1.11
5565.00,1.11
5564.00,1.11
5563.00,1.11
5562.00,1.11
5561.00,1.11
5560.00,1.11
5559.00,1.11
5558.00,1.12
5557.00,1.12
5556.00,1.12
5555.00,1.12
5554.00,1.12
5553.00,1.12
5552.00,1.12
5551.00,1.12
5550.00,1.12
5549.00,1.13
5548.00,1.13
5547.00,1.13
5546.00,1.13
5545.00,1.13
5544.00,1.13
5543.00,1.13
5542.00,1.14
5541.00,1.14
5540.00,1.14
5539.00,1.14
5538.00,1.14
5537.00,1.14
5536.00,1.14
5535.00,1.14
5534.00,1.15
5533.00,1.15
5532.00,1.15
5531.00,1.15
5530.00,1.15
5529.00,1.15
5528.00,1.15
5527.00,1.15
5526.00,1.15
5525.00,1.15
5524.00,1.16
5523.00,1.16
5522.00,1.16
5521.00,1.16
5520.00,1.16
5519.00,1.16
5518.00,1.16
5517.00,1.16
5516.00,1.16
5515.00,1.16
5514.00,1.16
5513.00,1.16
5512.00,1.16
5511.00,1.16
5510.00,1.16
5509.00,1.16
5508.00,1.16
5507.00,1.17
5506.00,1.17
5505.00,1.17
5504.00,1.17
5503.00,1.17
5502.00,1.17
5501.00,1.17
5500.00,1.17
5499.00,1.17
5498.00,1.17
5497.00,1.17
5496.00,1.17
5495.00,1.17
5494.00,1.17
5493.00,1.17
5492.00,1.17
5491.00,1.18
5490.00,1.18
5489.00,1.18
5488.00,1.18
5487.00,1.18
5486.00,1.18
5485.00,1.18
5484.00,1.19
5483.00,1.19
5482.00,1.19
5481.00,1.19
5480.00,1.19
5479.00,1.19
5478.00,1.19
5477.00,1.19
5476.00,1.20
5475.00,1.20
5474.00,1.20
5473.00,1.20
5472.00,1.20
5471.00,1.20
5470.00,1.20
5469.00,1.20
5468.00,1.20
5467.00,1.21
5466.00,1.21
5465.00,1.21
5464.00,1.21
5463.00,1.21
5462.00,1.21
5461.00,1.21
5460.00,1.21
5459.00,1.21
5458.00,1.21
5457.00,1.21
5456.00,1.22
5455.00,1.22
5454.00,1.22
5453.00,1.22
5452.00,1.22
5451.00,1.22
5450.00,1.22
5449.00,1.22
5448.00,1.22
5447.00,1.22
5446.00,1.22
5445.00,1.22
5444.00,1.23
5443.00,1.23
5442.00,1.23
5441.00,1.23
5440.00,1.23
5439.00,1.23
5438.00,1.23
5437.00,1.23
5436.00,1.23
5435.00,1.23
5434.00,1.23
5433.00,1.23
5432.00,1.23
5431.00,1.23
5430.00,1.23
5429.00,1.23
5428.00,1.23
5427.00,1.23
5426.00,1.23
5425.00,1.23
5424.00,1.23
5423.00,1.23
5422.00,1.23
5421.00,1.23
5420.00,1.23
5419.00,1.23
5418.00,1.23
5417.00,1.23
5416.00,1.23
5415.00,1.23
5414.00,1.23
5413.00,1.23
5412.00,1.23
5411.00,1.23
5410.00,1.23
5409.00,1.23
5408.00,1.23
5407.00,1.23
5406.00,1.23
5405.00,1.23
5404.00,1.23
5403.00,1.23
5402.00,1.23
5401.00,1.23
5400.00,1.23
5399.00,1.22
5398.00,1.22
5397.00,1.22
5396.00,1.22
5395.00,1.22
5394.00,1.22
5393.00,1.22
5392.00,1.22
5391.00,1.22
5390.00,1.22
5389.00,1.21
5388.00,1.21
5387.00,1.21
5386.00,1.21
5385.00,1.21
5384.00,1.20
5383.00,1.20
5382.00,1.20
5381.00,1.20
5380.00,1.19
5379.00,1.19
5378.00,1.19
5377.00,1.18
5376.00,1.18
5375.00,1.18
5374.00,1.17
5373.00,1.17
5372.00,1.16
5371.00,1.16
5370.00,1.16
5369.00,1.15
5368.00,1.15
5367.00,1.14
5366.00,1.14
5365.00,1.13
5364.00,1.13
5363.00,1.12
5362.00,1.11
5361.00,1.11
5360.00,1.10
5359.00,1.10
5358.00,1.09
5357.00,1.08
5356.00,1.07
5355.00,1.07
5354.00,1.06
5353.00,1.05
5352.00,1.04
5351.00,1.04
5350.00,1.03
5349.00,1.02
5348.00,1.01
5347.00,1.01
5346.00,1.00
5345.00,0.99
5344.00,0.98
5343.00,0.98
5342.00,0.97
5341.00,0.96
5340.00,0.95
5339.00,0.95
5338.00,0.94
5337.00,0.93
5336.00,0.92
5335.00,0.92
5334.00,0.91
5333.00,0.90
5332.00,0.90
5331.00,0.89
5330.00,0.88
5329.00,0.87
5328.00,0.87
5327.00,0.86
5326.00,0.85
5325.00,0.85
5324.00,0.84
5323.00,0.83
5322.00,0.83
5321.00,0.82
5320.00,0.81
5319.00,0.81
5318.00,0.80
5317.00,0.80
5316.00,0.79
5315.00,0.79
5314.00,0.78
5313.00,0.78
5312.00,0.77
5311.00,0.77
5310.00,0.77
5309.00,0.76
5308.00,0.76
5307.00,0.75
5306.00,0.75
5305.00,0.75
5304.00,0.75
5303.00,0.74
5302.00,0.74
5301.00,0.74
5300.00,0.74
5299.00,0.74
5298.00,0.73
5297.00,0.73
5296.00,0.73
5295.00,0.73
5294.00,0.73
5293.00,0.73
5292.00,0.73
5291.00,0.73
5290.00,0.73
5289.00,0.73
5288.00,0.73
5287.00,0.73
5286.00,0.73
5285.00,0.72
5284.00,0.72
5283.00,0.72
5282.00,0.72
5281.00,0.72
5280.00,0.72
5279.00,0.72
5278.00,0.72
5277.00,0.72
5276.00,0.72
5275.00,0.72
5274.00,0.72
5273.00,0.72
5272.00,0.72
5271.00,0.72
5270.00,0.72
5269.00,0.72
5268.00,0.72
5267.00,0.72
5266.00,0.72
5265.00,0.71
5264.00,0.71
5263.00,0.72
5262.00,0.72
5261.00,0.72
5260.00,0.72
5259.00,0.72
5258.00,0.72
5257.00,0.72
5256.00,0.72
5255.00,0.72
5254.00,0.72
5253.00,0.72
5252.00,0.72
5251.00,0.72
5250.00,0.72
5249.00,0.72
5248.00,0.72
5247.00,0.72
5246.00,0.72
5245.00,0.72
5244.00,0.72
5243.00,0.72
5242.00,0.72
5241.00,0.72
5240.00,0.72
5239.00,0.72
5238.00,0.72
5237.00,0.72
5236.00,0.72
5235.00,0.72
5234.00,0.73
5233.00,0.73
5232.00,0.73
5231.00,0.73
5230.00,0.73
5229.00,0.73
5228.00,0.73
5227.00,0.73
5226.00,0.73
5225.00,0.73
5224.00,0.73
5223.00,0.73
5222.00,0.73
5221.00,0.73
5220.00,0.73
5219.00,0.73
5218.00,0.73
5217.00,0.73
5216.00,0.73
5215.00,0.73
5214.00,0.73
5213.00,0.73
5212.00,0.73
5211.00,0.73
5210.00,0.73
5209.00,0.73
5208.00,0.74
5207.00,0.74
5206.00,0.74
5205.00,0.74
5204.00,0.74
5203.00,0.74
5202.00,0.74
5201.00,0.74
5200.00,0.74
5199.00,0.74
5198.00,0.74
5197.00,0.74
5196.00,0.74
5195.00,0.74
5194.00,0.74
5193.00,0.74
5192.00,0.74
5191.00,0.74
5190.00,0.74
5189.00,0.74
5188.00,0.74
5187.00,0.74
5186.00,0.74
5185.00,0.74
5184.00,0.74
5183.00,0.74
5182.00,0.74
5181.00,0.74
5180.00,0.74
5179.00,0.74
5178.00,0.74
5177.00,0.74
5176.00,0.74
5175.00,0.74
5174.00,0.74
5173.00,0.74
5172.00,0.74
5171.00,0.74
5170.00,0.74
5169.00,0.74
5168.00,0.74
5167.00,0.74
5166.00,0.74
5165.00,0.74
5164.00,0.74
5163.00,0.74
5162.00,0.74
5161.00,0.74
5160.00,0.74
5159.00,0.75
5158.00,0.75
5157.00,0.75
5156.00,0.75
5155.00,0.75
5154.00,0.75
5153.00,0.75
5152.00,0.75
5151.00,0.75
5150.00,0.75
5149.00,0.75
5148.00,0.75
5147.00,0.75
5146.00,0.75
5145.00,0.75
5144.00,0.75
5143.00,0.75
5142.00,0.75
5141.00,0.75
5140.00,0.75
5139.00,0.75
5138.00,0.75
5137.00,0.76
5136.00,0.76
5135.00,0.76
5134.00,0.76
5133.00,0.76
5132.00,0.76
5131.00,0.76
5130.00,0.76
5129.00,0.76
5128.00,0.76
5127.00,0.76
5126.00,0.76
5125.00,0.76
5124.00,0.76
5123.00,0.76
5122.00,0.76
5121.00,0.76
5120.00,0.76
5119.00,0.76
5118.00,0.76
5117.00,0.76
5116.00,0.76
5115.00,0.76
5114.00,0.76
5113.00,0.76
5112.00,0.76
5111.00,0.76
5110.00,0.76
5109.00,0.77
5108.00,0.77
5107.00,0.77
5106.00,0.77
5105.00,0.77
5104.00,0.77
5103.00,0.77
5102.00,0.77
5101.00,0.77
5100.00,0.77
5099.00,0.77
5098.00,0.77
5097.00,0.77
5096.00,0.77
5095.00,0.77
5094.00,0.77
5093.00,0.77
5092.00,0.77
5091.00,0.77
5090.00,0.77
5089.00,0.77
5088.00,0.78
5087.00,0.78
5086.00,0.78
5085.00,0.78
5084.00,0.78
5083.00,0.78
5082.00,0.78
5081.00,0.78
5080.00,0.78
5079.00,0.78
5078.00,0.78
5077.00,0.78
5076.00,0.78
5075.00,0.78
5074.00,0.78
5073.00,0.78
5072.00,0.78
5071.00,0.78
5070.00,0.78
5069.00,0.78
5068.00,0.78
5067.00,0.78
5066.00,0.78
5065.00,0.78
5064.00,0.78
5063.00,0.78
5062.00,0.78
5061.00,0.78
5060.00,0.78
5059.00,0.78
5058.00,0.78
5057.00,0.79
5056.00,0.79
5055.00,0.79
5054.00,0.79
5053.00,0.79
5052.00,0.79
5051.00,0.79
5050.00,0.79
5049.00,0.79
5048.00,0.79
5047.00,0.79
5046.00,0.79
5045.00,0.79
5044.00,0.79
5043.00,0.79
5042.00,0.80
5041.00,0.80
5040.00,0.80
5039.00,0.80
5038.00,0.80
5037.00,0.80
5036.00,0.80
5035.00,0.80
5034.00,0.80
5033.00,0.80
5032.00,0.80
5031.00,0.80
5030.00,0.80
5029.00,0.80
5028.00,0.80
5027.00,0.80
5026.00,0.80
5025.00,0.80
5024.00,0.80
5023.00,0.80
5022.00,0.80
5021.00,0.80
5020.00,0.80
5019.00,0.80
5018.00,0.80
5017.00,0.80
5016.00,0.80
5015.00,0.80
5014.00,0.80
5013.00,0.80
5012.00,0.80
5011.00,0.81
5010.00,0.81
5009.00,0.81
5008.00,0.81
5007.00,0.81
5006.00,0.81
5005.00,0.81
5004.00,0.81
5003.00,0.81
5002.00,0.81
5001.00,0.81
5000.00,0.81
4999.00,0.81
4998.00,0.81
4997.00,0.81
4996.00,0.81
4995.00,0.81
4994.00,0.81
4993.00,0.81
4992.00,0.81
4991.00,0.81
4990.00,0.81
4989.00,0.81
4988.00,0.81
4987.00,0.81
4986.00,0.81
4985.00,0.81
4984.00,0.81
4983.00,0.81
4982.00,0.81
4981.00,0.81
4980.00,0.82
4979.00,0.82
4978.00,0.82
4977.00,0.82
4976.00,0.82
4975.00,0.82
4974.00,0.82
4973.00,0.82
4972.00,0.82
4971.00,0.82
4970.00,0.83
4969.00,0.83
4968.00,0.83
4967.00,0.83
4966.00,0.83
4965.00,0.83
4964.00,0.83
4963.00,0.83
4962.00,0.83
4961.00,0.83
4960.00,0.83
4959.00,0.83
4958.00,0.83
4957.00,0.84
4956.00,0.84
4955.00,0.84
4954.00,0.84
4953.00,0.84
4952.00,0.84
4951.00,0.84
4950.00,0.84
4949.00,0.84
4948.00,0.84
4947.00,0.84
4946.00,0.84
4945.00,0.84
4944.00,0.84
4943.00,0.84
4942.00,0.84
4941.00,0.84
4940.00,0.84
4939.00,0.84
4938.00,0.84
4937.00,0.84
4936.00,0.84
4935.00,0.84
4934.00,0.84
4933.00,0.84
4932.00,0.84
4931.00,0.84
4930.00,0.84
4929.00,0.84
4928.00,0.84
4927.00,0.84
4926.00,0.84
4925.00,0.84
4924.00,0.84
4923.00,0.84
4922.00,0.85
4921.00,0.85
4920.00,0.85
4919.00,0.85
4918.00,0.85
4917.00,0.85
4916.00,0.85
4915.00,0.85
4914.00,0.85
4913.00,0.85
4912.00,0.85
4911.00,0.85
4910.00,0.85
4909.00,0.85
4908.00,0.85
4907.00,0.85
4906.00,0.85
4905.00,0.85
4904.00,0.85
4903.00,0.85
4902.00,0.85
4901.00,0.86
4900.00,0.86
4899.00,0.86
4898.00,0.86
4897.00,0.86
4896.00,0.86
4895.00,0.86
4894.00,0.86
4893.00,0.86
4892.00,0.86
4891.00,0.86
4890.00,0.87
4889.00,0.87
4888.00,0.87
4887.00,0.87
4886.00,0.87
4885.00,0.87
4884.00,0.87
4883.00,0.87
4882.00,0.87
4881.00,0.87
4880.00,0.87
4879.00,0.88
4878.00,0.88
4877.00,0.88
4876.00,0.88
4875.00,0.88
4874.00,0.88
4873.00,0.88
4872.00,0.88
4871.00,0.88
4870.00,0.88
4869.00,0.88
4868.00,0.88
4867.00,0.88
4866.00,0.88
4865.00,0.88
4864.00,0.88
4863.00,0.88
4862.00,0.88
4861.00,0.88
4860.00,0.88
4859.00,0.88
4858.00,0.88
4857.00,0.88
4856.00,0.88
4855.00,0.88
4854.00,0.88
4853.00,0.88
4852.00,0.88
4851.00,0.88
4850.00,0.87
4849.00,0.87
4848.00,0.87
4847.00,0.87
4846.00,0.87
4845.00,0.87
4844.00,0.87
4843.00,0.87
4842.00,0.87
4841.00,0.87
4840.00,0.88
4839.00,0.88
4838.00,0.88
4837.00,0.88
4836.00,0.88
4835.00,0.88
4834.00,0.88
4833.00,0.88
4832.00,0.88
4831.00,0.88
4830.00,0.88
4829.00,0.88
4828.00,0.88
4827.00,0.88
4826.00,0.88
4825.00,0.88
4824.00,0.88
4823.00,0.88
4822.00,0.88
4821.00,0.88
4820.00,0.88
4819.00,0.89
4818.00,0.89
4817.00,0.89
4816.00,0.89
4815.00,0.89
4814.00,0.89
4813.00,0.89
4812.00,0.89
4811.00,0.89
4810.00,0.89
4809.00,0.89
4808.00,0.89
4807.00,0.89
4806.00,0.89
4805.00,0.89
4804.00,0.89
4803.00,0.89
4802.00,0.89
4801.00,0.89
4800.00,0.90
4799.00,0.90
4798.00,0.90
4797.00,0.90
4796.00,0.90
4795.00,0.90
4794.00,0.90
4793.00,0.90
4792.00,0.90
4791.00,0.90
4790.00,0.90
4789.00,0.91
4788.00,0.91
4787.00,0.91
4786.00,0.91
4785.00,0.91
4784.00,0.91
4783.00,0.91
4782.00,0.91
4781.00,0.91
4780.00,0.91
4779.00,0.91
4778.00,0.91
4777.00,0.91
4776.00,0.91
4775.00,0.92
4774.00,0.92
4773.00,0.92
4772.00,0.92
4771.00,0.92
4770.00,0.92
4769.00,0.92
4768.00,0.92
4767.00,0.92
4766.00,0.92
4765.00,0.92
4764.00,0.92
4763.00,0.93
4762.00,0.93
4761.00,0.93
4760.00,0.93
4759.00,0.93
4758.00,0.93
4757.00,0.93
4756.00,0.93
4755.00,0.93
4754.00,0.93
4753.00,0.93
4752.00,0.93
4751.00,0.93
4750.00,0.93
4749.00,0.93
4748.00,0.93
4747.00,0.93
4746.00,0.93
4745.00,0.93
4744.00,0.93
4743.00,0.93
4742.00,0.93
4741.00,0.94
4740.00,0.94
4739.00,0.94
4738.00,0.94
4737.00,0.94
4736.00,0.94
4735.00,0.95
4734.00,0.95
4733.00,0.95
4732.00,0.95
4731.00,0.95
4730.00,0.95
4729.00,0.95
4728.00,0.95
4727.00,0.95
4726.00,0.95
4725.00,0.95
4724.00,0.96
4723.00,0.96
4722.00,0.96
4721.00,0.96
4720.00,0.96
4719.00,0.96
4718.00,0.96
4717.00,0.96
4716.00,0.96
4715.00,0.96
4714.00,0.96
4713.00,0.96
4712.00,0.96
4711.00,0.96
4710.00,0.96
4709.00,0.96
4708.00,0.96
4707.00,0.96
4706.00,0.96
4705.00,0.96
4704.00,0.96
4703.00,0.96
4702.00,0.96
4701.00,0.96
4700.00,0.96
4699.00,0.97
4698.00,0.97
4697.00,0.97
4696.00,0.97
4695.00,0.97
4694.00,0.97
4693.00,0.97
4692.00,0.97
4691.00,0.97
4690.00,0.97
4689.00,0.97
4688.00,0.97
4687.00,0.97
4686.00,0.98
4685.00,0.98
4684.00,0.98
4683.00,0.98
4682.00,0.98
4681.00,0.98
4680.00,0.98
4679.00,0.98
4678.00,0.98
4677.00,0.98
4676.00,0.98
4675.00,0.99
4674.00,0.99
4673.00,0.99
4672.00,0.99
4671.00,0.99
4670.00,0.99
4669.00,0.99
4668.00,0.99
4667.00,0.99
4666.00,0.99
4665.00,0.99
4664.00,0.99
4663.00,0.99
4662.00,0.99
4661.00,0.99
4660.00,1.00
4659.00,1.00
4658.00,1.00
4657.00,1.00
4656.00,1.00
4655.00,1.00
4654.00,1.00
4653.00,1.00
4652.00,1.01
4651.00,1.01
4650.00,1.01
4649.00,1.01
4648.00,1.01
4647.00,1.01
4646.00,1.01
4645.00,1.01
4644.00,1.01
4643.00,1.01
4642.00,1.02
4641.00,1.02
4640.00,1.02
4639.00,1.02
4638.00,1.02
4637.00,1.02
4636.00,1.02
4635.00,1.02
4634.00,1.02
4633.00,1.02
4632.00,1.02
4631.00,1.03
4630.00,1.03
4629.00,1.03
4628.00,1.03
4627.00,1.03
4626.00,1.03
4625.00,1.03
4624.00,1.03
4623.00,1.03
4622.00,1.03
4621.00,1.03
4620.00,1.03
4619.00,1.03
4618.00,1.03
4617.00,1.03
4616.00,1.03
4615.00,1.03
4614.00,1.03
4613.00,1.03
4612.00,1.03
4611.00,1.04
4610.00,1.04
4609.00,1.04
4608.00,1.04
4607.00,1.04
4606.00,1.04
4605.00,1.04
4604.00,1.04
4603.00,1.04
4602.00,1.04
4601.00,1.04
4600.00,1.04
4599.00,1.04
4598.00,1.04
4597.00,1.04
4596.00,1.04
4595.00,1.04
4594.00,1.04
4593.00,1.04
4592.00,1.04
4591.00,1.04
4590.00,1.04
4589.00,1.04
4588.00,1.04
4587.00,1.04
4586.00,1.04
4585.00,1.04
4584.00,1.04
4583.00,1.04
4582.00,1.04
4581.00,1.04
4580.00,1.04
4579.00,1.04
4578.00,1.04
4577.00,1.04
4576.00,1.04
4575.00,1.04
4574.00,1.05
4573.00,1.05
4572.00,1.05
4571.00,1.05
4570.00,1.05
4569.00,1.05
4568.00,1.05
4567.00,1.05
4566.00,1.05
4565.00,1.05
4564.00,1.05
4563.00,1.05
4562.00,1.06
4561.00,1.06
4560.00,1.06
4559.00,1.06
4558.00,1.06
4557.00,1.06
4556.00,1.06
4555.00,1.06
4554.00,1.06
4553.00,1.06
4552.00,1.06
4551.00,1.06
4550.00,1.06
4549.00,1.06
4548.00,1.06
4547.00,1.06
4546.00,1.06
4545.00,1.06
4544.00,1.06
4543.00,1.06
4542.00,1.06
4541.00,1.07
4540.00,1.07
4539.00,1.07
4538.00,1.07
4537.00,1.07
4536.00,1.07
4535.00,1.07
4534.00,1.07
4533.00,1.07
4532.00,1.07
4531.00,1.07
4530.00,1.07
4529.00,1.07
4528.00,1.07
4527.00,1.07
4526.00,1.07
4525.00,1.07
4524.00,1.07
4523.00,1.07
4522.00,1.07
4521.00,1.07
4520.00,1.07
4519.00,1.07
4518.00,1.07
4517.00,1.07
4516.00,1.07
4515.00,1.07
4514.00,1.07
4513.00,1.07
4512.00,1.07
4511.00,1.07
4510.00,1.07
4509.00,1.07
4508.00,1.07
4507.00,1.07
4506.00,1.07
4505.00,1.07
4504.00,1.07
4503.00,1.07
4502.00,1.07
4501.00,1.07
4500.00,1.07
4499.00,1.07
4498.00,1.07
4497.00,1.07
4496.00,1.07
4495.00,1.07
4494.00,1.07
4493.00,1.07
4492.00,1.07
4491.00,1.07
4490.00,1.07
4489.00,1.07
4488.00,1.06
4487.00,1.06
4486.00,1.06
4485.00,1.06
4484.00,1.06
4483.00,1.06
4482.00,1.06
4481.00,1.06
4480.00,1.06
4479.00,1.06
4478.00,1.06
4477.00,1.06
4476.00,1.06
4475.00,1.06
4474.00,1.06
4473.00,1.06
4472.00,1.06
4471.00,1.06
4470.00,1.06
4469.00,1.06
4468.00,1.06
4467.00,1.06
4466.00,1.05
4465.00,1.05
4464.00,1.05
4463.00,1.05
4462.00,1.05
4461.00,1.05
4460.00,1.05
4459.00,1.05
4458.00,1.05
4457.00,1.05
4456.00,1.05
4455.00,1.05
4454.00,1.04
4453.00,1.04
4452.00,1.04
4451.00,1.04
4450.00,1.04
4449.00,1.04
4448.00,1.04
4447.00,1.04
4446.00,1.03
4445.00,1.03
4444.00,1.03
4443.00,1.03
4442.00,1.03
4441.00,1.03
4440.00,1.02
4439.00,1.02
4438.00,1.02
4437.00,1.02
4436.00,1.02
4435.00,1.02
4434.00,1.02
4433.00,1.02
4432.00,1.02
4431.00,1.02
4430.00,1.02
4429.00,1.02
4428.00,1.02
4427.00,1.02
4426.00,1.02
4425.00,1.02
4424.00,1.02
4423.00,1.02
4422.00,1.02
4421.00,1.02
4420.00,1.02
4419.00,1.02
4418.00,1.03
4417.00,1.03
4416.00,1.03
4415.00,1.03
4414.00,1.03
4413.00,1.03
4412.00,1.03
4411.00,1.03
4410.00,1.03
4409.00,1.03
4408.00,1.04
4407.00,1.04
4406.00,1.04
4405.00,1.04
4404.00,1.04
4403.00,1.04
4402.00,1.04
4401.00,1.04
4400.00,1.04
4399.00,1.04
4398.00,1.04
4397.00,1.04
4396.00,1.04
4395.00,1.04
4394.00,1.04
4393.00,1.04
4392.00,1.04
4391.00,1.04
4390.00,1.04
4389.00,1.04
4388.00,1.04
4387.00,1.04
4386.00,1.04
4385.00,1.04
4384.00,1.04
4383.00,1.04
4382.00,1.04
4381.00,1.04
4380.00,1.04
4379.00,1.04
4378.00,1.04
4377.00,1.04
4376.00,1.04
4375.00,1.04
4374.00,1.04
4373.00,1.05
4372.00,1.05
4371.00,1.05
4370.00,1.05
4369.00,1.05
4368.00,1.05
4367.00,1.05
4366.00,1.05
4365.00,1.05
4364.00,1.05
4363.00,1.05
4362.00,1.05
4361.00,1.05
4360.00,1.05
4359.00,1.05
4358.00,1.06
4357.00,1.06
4356.00,1.06
4355.00,1.06
4354.00,1.06
4353.00,1.06
4352.00,1.06
4351.00,1.06
4350.00,1.06
4349.00,1.06
4348.00,1.06
4347.00,1.06
4346.00,1.06
4345.00,1.06
4344.00,1.06
4343.00,1.06
4342.00,1.06
4341.00,1.06
4340.00,1.06
4339.00,1.06
4338.00,1.06
4337.00,1.06
4336.00,1.06
4335.00,1.06
4334.00,1.06
4333.00,1.06
4332.00,1.06
4331.00,1.06
4330.00,1.07
4329.00,1.07
4328.00,1.07
4327.00,1.07
4326.00,1.07
4325.00,1.07
4324.00,1.07
4323.00,1.07
4322.00,1.07
4321.00,1.07
4320.00,1.08
4319.00,1.08
4318.00,1.08
4317.00,1.08
4316.00,1.08
4315.00,1.08
4314.00,1.08
4313.00,1.09
4312.00,1.09
4311.00,1.09
4310.00,1.09
4309.00,1.09
4308.00,1.09
4307.00,1.09
4306.00,1.09
4305.00,1.09
4304.00,1.09
4303.00,1.09
4302.00,1.09
4301.00,1.09
4300.00,1.09
4299.00,1.09
4298.00,1.09
4297.00,1.09
4296.00,1.09
4295.00,1.09
4294.00,1.09
4293.00,1.09
4292.00,1.09
4291.00,1.09
4290.00,1.09
4289.00,1.09
4288.00,1.09
4287.00,1.09
4286.00,1.09
4285.00,1.09
4284.00,1.09
4283.00,1.09
4282.00,1.09
4281.00,1.09
4280.00,1.09
4279.00,1.09
4278.00,1.09
4277.00,1.09
4276.00,1.09
4275.00,1.09
4274.00,1.09
4273.00,1.09
4272.00,1.09
4271.00,1.09
4270.00,1.09
4269.00,1.09
4268.00,1.09
4267.00,1.09
4266.00,1.09
4265.00,1.09
4264.00,1.09
4263.00,1.09
4262.00,1.09
4261.00,1.09
4260.00,1.09
4259.00,1.09
4258.00,1.09
4257.00,1.09
4256.00,1.09
4255.00,1.09
4254.00,1.09
4253.00,1.10
4252.00,1.10
4251.00,1.10
4250.00,1.10
4249.00,1.10
4248.00,1.10
4247.00,1.10
4246.00,1.10
4245.00,1.11
4244.00,1.11
4243.00,1.11
4242.00,1.11
4241.00,1.11
4240.00,1.11
4239.00,1.11
4238.00,1.11
4237.00,1.11
4236.00,1.11
4235.00,1.11
4234.00,1.11
4233.00,1.11
4232.00,1.11
4231.00,1.11
4230.00,1.12
4229.00,1.12
4228.00,1.12
4227.00,1.12
4226.00,1.12
4225.00,1.12
4224.00,1.12
4223.00,1.12
4222.00,1.12
4221.00,1.12
4220.00,1.12
4219.00,1.12
4218.00,1.12
4217.00,1.12
4216.00,1.12
4215.00,1.12
4214.00,1.12
4213.00,1.12
4212.00,1.12
4211.00,1.12
4210.00,1.13
4209.00,1.13
4208.00,1.13
4207.00,1.13
4206.00,1.13
4205.00,1.13
4204.00,1.13
4203.00,1.13
4202.00,1.13
4201.00,1.13
4200.00,1.13
4199.00,1.13
4198.00,1.13
4197.00,1.13
4196.00,1.14
4195.00,1.14
4194.00,1.14
4193.00,1.14
4192.00,1.14
4191.00,1.14
4190.00,1.15
4189.00,1.15
4188.00,1.15
4187.00,1.15
4186.00,1.15
4185.00,1.15
4184.00,1.15
4183.00,1.15
4182.00,1.15
4181.00,1.15
4180.00,1.15
4179.00,1.15
4178.00,1.15
4177.00,1.15
4176.00,1.15
4175.00,1.15
4174.00,1.15
4173.00,1.15
4172.00,1.15
4171.00,1.15
4170.00,1.16
4169.00,1.16
4168.00,1.16
4167.00,1.16
4166.00,1.16
4165.00,1.16
4164.00,1.16
4163.00,1.16
4162.00,1.16
4161.00,1.16
4160.00,1.16
4159.00,1.16
4158.00,1.16
4157.00,1.16
4156.00,1.16
4155.00,1.16
4154.00,1.16
4153.00,1.16
4152.00,1.16
4151.00,1.16
4150.00,1.16
4149.00,1.16
4148.00,1.16
4147.00,1.16
4146.00,1.16
4145.00,1.16
4144.00,1.16
4143.00,1.16
4142.00,1.16
4141.00,1.16
4140.00,1.16
4139.00,1.16
4138.00,1.16
4137.00,1.16
4136.00,1.17
4135.00,1.17
4134.00,1.17
4133.00,1.17
4132.00,1.17
4131.00,1.17
4130.00,1.17
4129.00,1.17
4128.00,1.18
4127.00,1.18
4126.00,1.18
4125.00,1.18
4124.00,1.18
4123.00,1.18
4122.00,1.18
4121.00,1.18
4120.00,1.19
4119.00,1.19
4118.00,1.19
4117.00,1.19
4116.00,1.19
4115.00,1.19
4114.00,1.19
4113.00,1.19
4112.00,1.19
4111.00,1.19
4110.00,1.19
4109.00,1.19
4108.00,1.19
4107.00,1.19
4106.00,1.19
4105.00,1.19
4104.00,1.19
4103.00,1.19
4102.00,1.19
4101.00,1.18
4100.00,1.18
4099.00,1.18
4098.00,1.18
4097.00,1.18
4096.00,1.18
4095.00,1.18
4094.00,1.18
4093.00,1.18
4092.00,1.17
4091.00,1.17
4090.00,1.17
4089.00,1.17
4088.00,1.17
4087.00,1.17
4086.00,1.17
4085.00,1.17
4084.00,1.17
4083.00,1.17
4082.00,1.17
4081.00,1.17
4080.00,1.17
4079.00,1.17
4078.00,1.17
4077.00,1.18
4076.00,1.18
4075.00,1.18
4074.00,1.18
4073.00,1.18
4072.00,1.18
4071.00,1.18
4070.00,1.18
4069.00,1.18
4068.00,1.18
4067.00,1.18
4066.00,1.19
4065.00,1.19
4064.00,1.19
4063.00,1.19
4062.00,1.20
4061.00,1.20
4060.00,1.20
4059.00,1.20
4058.00,1.20
4057.00,1.21
4056.00,1.21
4055.00,1.21
4054.00,1.21
4053.00,1.21
4052.00,1.21
4051.00,1.21
4050.00,1.21
4049.00,1.21
4048.00,1.21
4047.00,1.21
4046.00,1.21
4045.00,1.21
4044.00,1.21
4043.00,1.21
4042.00,1.21
4041.00,1.21
4040.00,1.21
4039.00,1.21
4038.00,1.21
4037.00,1.21
4036.00,1.21
4035.00,1.21
4034.00,1.21
4033.00,1.21
4032.00,1.21
4031.00,1.21
4030.00,1.22
4029.00,1.22
4028.00,1.22
4027.00,1.22
4026.00,1.22
4025.00,1.22
4024.00,1.22
4023.00,1.22
4022.00,1.22
4021.00,1.22
4020.00,1.22
4019.00,1.22
4018.00,1.22
4017.00,1.23
4016.00,1.23
4015.00,1.23
4014.00,1.23
4013.00,1.23
4012.00,1.23
4011.00,1.23
4010.00,1.23
4009.00,1.23
4008.00,1.23
4007.00,1.23
4006.00,1.23
4005.00,1.23
4004.00,1.23
4003.00,1.23
4002.00,1.23
4001.00,1.23
4000.00,1.23
