创建为新数据集,样品 015 用户 Administrator 日期 星期五, 七月 20 2018
cm-1,%T
10000.00,1.43
9999.00,1.43
9998.00,1.43
9997.00,1.43
9996.00,1.43
9995.00,1.43
9994.00,1.43
9993.00,1.43
9992.00,1.43
9991.00,1.43
9990.00,1.43
9989.00,1.43
9988.00,1.43
9987.00,1.43
9986.00,1.43
9985.00,1.43
9984.00,1.43
9983.00,1.43
9982.00,1.43
9981.00,1.43
9980.00,1.43
9979.00,1.43
9978.00,1.43
9977.00,1.43
9976.00,1.43
9975.00,1.43
9974.00,1.43
9973.00,1.43
9972.00,1.43
9971.00,1.43
9970.00,1.43
9969.00,1.43
9968.00,1.43
9967.00,1.43
9966.00,1.43
9965.00,1.43
9964.00,1.42
9963.00,1.42
9962.00,1.42
9961.00,1.42
9960.00,1.42
9959.00,1.41
9958.00,1.41
9957.00,1.41
9956.00,1.41
9955.00,1.41
9954.00,1.41
9953.00,1.41
9952.00,1.41
9951.00,1.41
9950.00,1.41
9949.00,1.41
9948.00,1.41
9947.00,1.41
9946.00,1.41
9945.00,1.41
9944.00,1.41
9943.00,1.41
9942.00,1.41
9941.00,1.41
9940.00,1.41
9939.00,1.41
9938.00,1.41
9937.00,1.41
9936.00,1.41
9935.00,1.41
9934.00,1.41
9933.00,1.41
9932.00,1.41
9931.00,1.41
9930.00,1.41
9929.00,1.40
9928.00,1.40
9927.00,1.40
9926.00,1.40
9925.00,1.40
9924.00,1.40
9923.00,1.40
9922.00,1.40
9921.00,1.40
9920.00,1.40
9919.00,1.40
9918.00,1.40
9917.00,1.40
9916.00,1.40
9915.00,1.40
9914.00,1.40
9913.00,1.40
9912.00,1.40
9911.00,1.40
9910.00,1.40
9909.00,1.41
9908.00,1.41
9907.00,1.41
9906.00,1.41
9905.00,1.41
9904.00,1.42
9903.00,1.42
9902.00,1.42
9901.00,1.42
9900.00,1.42
9899.00,1.42
9898.00,1.42
9897.00,1.42
9896.00,1.42
9895.00,1.42
9894.00,1.42
9893.00,1.42
9892.00,1.41
9891.00,1.41
9890.00,1.41
9889.00,1.41
9888.00,1.40
9887.00,1.40
9886.00,1.40
9885.00,1.39
9884.00,1.39
9883.00,1.39
9882.00,1.38
9881.00,1.38
9880.00,1.38
9879.00,1.38
9878.00,1.37
9877.00,1.37
9876.00,1.37
9875.00,1.37
9874.00,1.37
9873.00,1.37
9872.00,1.37
9871.00,1.37
9870.00,1.37
9869.00,1.37
9868.00,1.37
9867.00,1.38
9866.00,1.38
9865.00,1.38
9864.00,1.38
9863.00,1.38
9862.00,1.38
9861.00,1.38
9860.00,1.39
9859.00,1.39
9858.00,1.39
9857.00,1.39
9856.00,1.39
9855.00,1.40
9854.00,1.40
9853.00,1.40
9852.00,1.40
9851.00,1.41
9850.00,1.41
9849.00,1.41
9848.00,1.41
9847.00,1.41
9846.00,1.41
9845.00,1.41
9844.00,1.41
9843.00,1.41
9842.00,1.41
9841.00,1.41
9840.00,1.41
9839.00,1.41
9838.00,1.41
9837.00,1.41
9836.00,1.41
9835.00,1.41
9834.00,1.41
9833.00,1.41
9832.00,1.41
9831.00,1.41
9830.00,1.41
9829.00,1.40
9828.00,1.40
9827.00,1.40
9826.00,1.40
9825.00,1.40
9824.00,1.40
9823.00,1.40
9822.00,1.40
9821.00,1.40
9820.00,1.39
9819.00,1.39
9818.00,1.39
9817.00,1.39
9816.00,1.39
9815.00,1.39
9814.00,1.39
9813.00,1.39
9812.00,1.39
9811.00,1.39
9810.00,1.39
9809.00,1.39
9808.00,1.39
9807.00,1.39
9806.00,1.39
9805.00,1.40
9804.00,1.40
9803.00,1.40
9802.00,1.40
9801.00,1.41
9800.00,1.41
9799.00,1.41
9798.00,1.41
9797.00,1.42
9796.00,1.42
9795.00,1.42
9794.00,1.42
9793.00,1.42
9792.00,1.42
9791.00,1.42
9790.00,1.42
9789.00,1.42
9788.00,1.42
9787.00,1.42
9786.00,1.42
9785.00,1.42
9784.00,1.42
9783.00,1.42
9782.00,1.42
9781.00,1.42
9780.00,1.42
9779.00,1.42
9778.00,1.42
9777.00,1.42
9776.00,1.42
9775.00,1.42
9774.00,1.42
9773.00,1.42
9772.00,1.42
9771.00,1.42
9770.00,1.42
9769.00,1.42
9768.00,1.42
9767.00,1.41
9766.00,1.41
9765.00,1.41
9764.00,1.41
9763.00,1.40
9762.00,1.40
9761.00,1.40
9760.00,1.40
9759.00,1.40
9758.00,1.40
9757.00,1.40
9756.00,1.40
9755.00,1.40
9754.00,1.40
9753.00,1.40
9752.00,1.40
9751.00,1.40
9750.00,1.40
9749.00,1.40
9748.00,1.40
9747.00,1.40
9746.00,1.41
9745.00,1.41
9744.00,1.41
9743.00,1.41
9742.00,1.41
9741.00,1.41
9740.00,1.41
9739.00,1.41
9738.00,1.41
9737.00,1.41
9736.00,1.41
9735.00,1.41
9734.00,1.41
9733.00,1.41
9732.00,1.41
9731.00,1.41
9730.00,1.40
9729.00,1.40
9728.00,1.40
9727.00,1.40
9726.00,1.40
9725.00,1.40
9724.00,1.40
9723.00,1.40
9722.00,1.40
9721.00,1.40
9720.00,1.40
9719.00,1.40
9718.00,1.40
9717.00,1.40
9716.00,1.40
9715.00,1.40
9714.00,1.40
9713.00,1.40
9712.00,1.40
9711.00,1.40
9710.00,1.40
9709.00,1.40
9708.00,1.40
9707.00,1.39
9706.00,1.39
9705.00,1.39
9704.00,1.39
9703.00,1.39
9702.00,1.39
9701.00,1.39
9700.00,1.39
9699.00,1.39
9698.00,1.40
9697.00,1.40
9696.00,1.40
9695.00,1.40
9694.00,1.40
9693.00,1.41
9692.00,1.41
9691.00,1.41
9690.00,1.41
9689.00,1.42
9688.00,1.42
9687.00,1.42
9686.00,1.42
9685.00,1.43
9684.00,1.43
9683.00,1.43
9682.00,1.43
9681.00,1.43
9680.00,1.43
9679.00,1.43
9678.00,1.43
9677.00,1.43
9676.00,1.42
9675.00,1.42
9674.00,1.42
9673.00,1.42
9672.00,1.41
9671.00,1.41
9670.00,1.41
9669.00,1.40
9668.00,1.40
9667.00,1.40
9666.00,1.40
9665.00,1.40
9664.00,1.40
9663.00,1.39
9662.00,1.39
9661.00,1.39
9660.00,1.40
9659.00,1.40
9658.00,1.40
9657.00,1.40
9656.00,1.40
9655.00,1.40
9654.00,1.40
9653.00,1.40
9652.00,1.40
9651.00,1.40
9650.00,1.41
9649.00,1.41
9648.00,1.41
9647.00,1.41
9646.00,1.41
9645.00,1.41
9644.00,1.41
9643.00,1.41
9642.00,1.41
9641.00,1.41
9640.00,1.41
9639.00,1.41
9638.00,1.41
9637.00,1.41
9636.00,1.41
9635.00,1.41
9634.00,1.41
9633.00,1.41
9632.00,1.41
9631.00,1.41
9630.00,1.41
9629.00,1.41
9628.00,1.41
9627.00,1.41
9626.00,1.41
9625.00,1.40
9624.00,1.40
9623.00,1.40
9622.00,1.40
9621.00,1.40
9620.00,1.40
9619.00,1.40
9618.00,1.39
9617.00,1.39
9616.00,1.39
9615.00,1.39
9614.00,1.39
9613.00,1.39
9612.00,1.39
9611.00,1.39
9610.00,1.39
9609.00,1.40
9608.00,1.40
9607.00,1.40
9606.00,1.40
9605.00,1.40
9604.00,1.40
9603.00,1.41
9602.00,1.41
9601.00,1.41
9600.00,1.41
9599.00,1.41
9598.00,1.42
9597.00,1.42
9596.00,1.42
9595.00,1.42
9594.00,1.42
9593.00,1.43
9592.00,1.43
9591.00,1.43
9590.00,1.43
9589.00,1.43
9588.00,1.43
9587.00,1.43
9586.00,1.43
9585.00,1.43
9584.00,1.43
9583.00,1.43
9582.00,1.43
9581.00,1.43
9580.00,1.43
9579.00,1.43
9578.00,1.43
9577.00,1.43
9576.00,1.42
9575.00,1.42
9574.00,1.42
9573.00,1.42
9572.00,1.42
9571.00,1.42
9570.00,1.42
9569.00,1.42
9568.00,1.42
9567.00,1.42
9566.00,1.42
9565.00,1.42
9564.00,1.42
9563.00,1.42
9562.00,1.42
9561.00,1.42
9560.00,1.42
9559.00,1.41
9558.00,1.41
9557.00,1.41
9556.00,1.41
9555.00,1.40
9554.00,1.40
9553.00,1.40
9552.00,1.40
9551.00,1.39
9550.00,1.39
9549.00,1.39
9548.00,1.39
9547.00,1.38
9546.00,1.38
9545.00,1.38
9544.00,1.38
9543.00,1.38
9542.00,1.38
9541.00,1.39
9540.00,1.39
9539.00,1.39
9538.00,1.39
9537.00,1.39
9536.00,1.40
9535.00,1.40
9534.00,1.40
9533.00,1.41
9532.00,1.41
9531.00,1.41
9530.00,1.41
9529.00,1.41
9528.00,1.42
9527.00,1.42
9526.00,1.42
9525.00,1.42
9524.00,1.42
9523.00,1.42
9522.00,1.42
9521.00,1.42
9520.00,1.42
9519.00,1.42
9518.00,1.42
9517.00,1.42
9516.00,1.42
9515.00,1.41
9514.00,1.41
9513.00,1.41
9512.00,1.41
9511.00,1.41
9510.00,1.41
9509.00,1.41
9508.00,1.41
9507.00,1.40
9506.00,1.40
9505.00,1.40
9504.00,1.40
9503.00,1.40
9502.00,1.40
9501.00,1.40
9500.00,1.40
9499.00,1.40
9498.00,1.40
9497.00,1.40
9496.00,1.40
9495.00,1.40
9494.00,1.40
9493.00,1.40
9492.00,1.41
9491.00,1.41
9490.00,1.41
9489.00,1.41
9488.00,1.41
9487.00,1.41
9486.00,1.41
9485.00,1.42
9484.00,1.42
9483.00,1.42
9482.00,1.42
9481.00,1.42
9480.00,1.42
9479.00,1.43
9478.00,1.43
9477.00,1.43
9476.00,1.43
9475.00,1.43
9474.00,1.43
9473.00,1.43
9472.00,1.43
9471.00,1.43
9470.00,1.43
9469.00,1.43
9468.00,1.43
9467.00,1.43
9466.00,1.43
9465.00,1.43
9464.00,1.43
9463.00,1.43
9462.00,1.43
9461.00,1.43
9460.00,1.43
9459.00,1.43
9458.00,1.43
9457.00,1.43
9456.00,1.43
9455.00,1.43
9454.00,1.43
9453.00,1.43
9452.00,1.43
9451.00,1.43
9450.00,1.43
9449.00,1.43
9448.00,1.43
9447.00,1.43
9446.00,1.42
9445.00,1.42
9444.00,1.42
9443.00,1.42
9442.00,1.42
9441.00,1.42
9440.00,1.42
9439.00,1.42
9438.00,1.42
9437.00,1.41
9436.00,1.41
9435.00,1.41
9434.00,1.41
9433.00,1.41
9432.00,1.41
9431.00,1.40
9430.00,1.40
9429.00,1.40
9428.00,1.40
9427.00,1.40
9426.00,1.39
9425.00,1.39
9424.00,1.39
9423.00,1.39
9422.00,1.39
9421.00,1.39
9420.00,1.39
9419.00,1.39
9418.00,1.39
9417.00,1.39
9416.00,1.39
9415.00,1.39
9414.00,1.39
9413.00,1.39
9412.00,1.39
9411.00,1.39
9410.00,1.39
9409.00,1.39
9408.00,1.40
9407.00,1.40
9406.00,1.40
9405.00,1.40
9404.00,1.41
9403.00,1.41
9402.00,1.41
9401.00,1.41
9400.00,1.41
9399.00,1.41
9398.00,1.42
9397.00,1.42
9396.00,1.42
9395.00,1.42
9394.00,1.42
9393.00,1.42
9392.00,1.42
9391.00,1.42
9390.00,1.42
9389.00,1.42
9388.00,1.42
9387.00,1.42
9386.00,1.42
9385.00,1.42
9384.00,1.42
9383.00,1.42
9382.00,1.42
9381.00,1.42
9380.00,1.42
9379.00,1.42
9378.00,1.42
9377.00,1.42
9376.00,1.42
9375.00,1.42
9374.00,1.42
9373.00,1.42
9372.00,1.42
9371.00,1.42
9370.00,1.42
9369.00,1.42
9368.00,1.42
9367.00,1.42
9366.00,1.42
9365.00,1.42
9364.00,1.42
9363.00,1.42
9362.00,1.42
9361.00,1.42
9360.00,1.42
9359.00,1.41
9358.00,1.41
9357.00,1.41
9356.00,1.41
9355.00,1.41
9354.00,1.41
9353.00,1.41
9352.00,1.41
9351.00,1.41
9350.00,1.41
9349.00,1.41
9348.00,1.41
9347.00,1.41
9346.00,1.41
9345.00,1.41
9344.00,1.42
9343.00,1.42
9342.00,1.42
9341.00,1.42
9340.00,1.42
9339.00,1.42
9338.00,1.42
9337.00,1.42
9336.00,1.42
9335.00,1.42
9334.00,1.42
9333.00,1.42
9332.00,1.42
9331.00,1.42
9330.00,1.41
9329.00,1.41
9328.00,1.41
9327.00,1.41
9326.00,1.41
9325.00,1.41
9324.00,1.41
9323.00,1.41
9322.00,1.41
9321.00,1.41
9320.00,1.41
9319.00,1.41
9318.00,1.41
9317.00,1.41
9316.00,1.41
9315.00,1.41
9314.00,1.41
9313.00,1.41
9312.00,1.41
9311.00,1.41
9310.00,1.42
9309.00,1.42
9308.00,1.42
9307.00,1.42
9306.00,1.42
9305.00,1.42
9304.00,1.42
9303.00,1.42
9302.00,1.42
9301.00,1.41
9300.00,1.41
9299.00,1.41
9298.00,1.41
9297.00,1.41
9296.00,1.41
9295.00,1.41
9294.00,1.41
9293.00,1.41
9292.00,1.41
9291.00,1.41
9290.00,1.41
9289.00,1.41
9288.00,1.41
9287.00,1.41
9286.00,1.41
9285.00,1.41
9284.00,1.41
9283.00,1.41
9282.00,1.41
9281.00,1.41
9280.00,1.41
9279.00,1.41
9278.00,1.41
9277.00,1.41
9276.00,1.42
9275.00,1.42
9274.00,1.42
9273.00,1.42
9272.00,1.42
9271.00,1.42
9270.00,1.42
9269.00,1.42
9268.00,1.42
9267.00,1.42
9266.00,1.42
9265.00,1.42
9264.00,1.42
9263.00,1.42
9262.00,1.42
9261.00,1.42
9260.00,1.42
9259.00,1.41
9258.00,1.41
9257.00,1.41
9256.00,1.41
9255.00,1.41
9254.00,1.41
9253.00,1.41
9252.00,1.41
9251.00,1.41
9250.00,1.41
9249.00,1.41
9248.00,1.41
9247.00,1.41
9246.00,1.40
9245.00,1.40
9244.00,1.40
9243.00,1.40
9242.00,1.40
9241.00,1.40
9240.00,1.40
9239.00,1.40
9238.00,1.40
9237.00,1.40
9236.00,1.40
9235.00,1.40
9234.00,1.40
9233.00,1.40
9232.00,1.40
9231.00,1.40
9230.00,1.40
9229.00,1.40
9228.00,1.40
9227.00,1.40
9226.00,1.40
9225.00,1.40
9224.00,1.40
9223.00,1.40
9222.00,1.41
9221.00,1.41
9220.00,1.41
9219.00,1.41
9218.00,1.41
9217.00,1.41
9216.00,1.41
9215.00,1.41
9214.00,1.42
9213.00,1.42
9212.00,1.42
9211.00,1.42
9210.00,1.42
9209.00,1.42
9208.00,1.42
9207.00,1.42
9206.00,1.42
9205.00,1.41
9204.00,1.41
9203.00,1.41
9202.00,1.41
9201.00,1.41
9200.00,1.41
9199.00,1.41
9198.00,1.40
9197.00,1.40
9196.00,1.40
9195.00,1.40
9194.00,1.40
9193.00,1.40
9192.00,1.40
9191.00,1.40
9190.00,1.40
9189.00,1.40
9188.00,1.40
9187.00,1.40
9186.00,1.40
9185.00,1.40
9184.00,1.40
9183.00,1.40
9182.00,1.40
9181.00,1.40
9180.00,1.40
9179.00,1.41
9178.00,1.41
9177.00,1.41
9176.00,1.41
9175.00,1.41
9174.00,1.41
9173.00,1.41
9172.00,1.41
9171.00,1.41
9170.00,1.41
9169.00,1.41
9168.00,1.41
9167.00,1.41
9166.00,1.41
9165.00,1.41
9164.00,1.41
9163.00,1.41
9162.00,1.41
9161.00,1.42
9160.00,1.42
9159.00,1.42
9158.00,1.42
9157.00,1.42
9156.00,1.42
9155.00,1.42
9154.00,1.42
9153.00,1.42
9152.00,1.42
9151.00,1.42
9150.00,1.43
9149.00,1.43
9148.00,1.43
9147.00,1.43
9146.00,1.43
9145.00,1.43
9144.00,1.43
9143.00,1.43
9142.00,1.43
9141.00,1.43
9140.00,1.43
9139.00,1.43
9138.00,1.43
9137.00,1.43
9136.00,1.43
9135.00,1.43
9134.00,1.43
9133.00,1.43
9132.00,1.43
9131.00,1.42
9130.00,1.42
9129.00,1.42
9128.00,1.42
9127.00,1.42
9126.00,1.42
9125.00,1.42
9124.00,1.41
9123.00,1.41
9122.00,1.41
9121.00,1.41
9120.00,1.41
9119.00,1.41
9118.00,1.41
9117.00,1.41
9116.00,1.41
9115.00,1.41
9114.00,1.41
9113.00,1.41
9112.00,1.41
9111.00,1.41
9110.00,1.41
9109.00,1.41
9108.00,1.41
9107.00,1.41
9106.00,1.41
9105.00,1.41
9104.00,1.41
9103.00,1.41
9102.00,1.41
9101.00,1.41
9100.00,1.41
9099.00,1.41
9098.00,1.41
9097.00,1.41
9096.00,1.41
9095.00,1.41
9094.00,1.41
9093.00,1.41
9092.00,1.41
9091.00,1.41
9090.00,1.41
9089.00,1.41
9088.00,1.41
9087.00,1.41
9086.00,1.41
9085.00,1.41
9084.00,1.41
9083.00,1.41
9082.00,1.41
9081.00,1.41
9080.00,1.41
9079.00,1.41
9078.00,1.41
9077.00,1.41
9076.00,1.41
9075.00,1.41
9074.00,1.41
9073.00,1.41
9072.00,1.41
9071.00,1.41
9070.00,1.41
9069.00,1.41
9068.00,1.41
9067.00,1.41
9066.00,1.41
9065.00,1.41
9064.00,1.41
9063.00,1.41
9062.00,1.41
9061.00,1.41
9060.00,1.41
9059.00,1.41
9058.00,1.41
9057.00,1.41
9056.00,1.41
9055.00,1.41
9054.00,1.41
9053.00,1.41
9052.00,1.40
9051.00,1.40
9050.00,1.40
9049.00,1.40
9048.00,1.40
9047.00,1.40
9046.00,1.40
9045.00,1.40
9044.00,1.40
9043.00,1.40
9042.00,1.40
9041.00,1.40
9040.00,1.41
9039.00,1.41
9038.00,1.41
9037.00,1.41
9036.00,1.41
9035.00,1.41
9034.00,1.41
9033.00,1.41
9032.00,1.41
9031.00,1.41
9030.00,1.41
9029.00,1.41
9028.00,1.41
9027.00,1.41
9026.00,1.41
9025.00,1.41
9024.00,1.41
9023.00,1.41
9022.00,1.41
9021.00,1.41
9020.00,1.41
9019.00,1.41
9018.00,1.41
9017.00,1.41
9016.00,1.41
9015.00,1.41
9014.00,1.41
9013.00,1.41
9012.00,1.41
9011.00,1.41
9010.00,1.41
9009.00,1.41
9008.00,1.41
9007.00,1.41
9006.00,1.41
9005.00,1.41
9004.00,1.41
9003.00,1.41
9002.00,1.42
9001.00,1.42
9000.00,1.42
8999.00,1.42
8998.00,1.42
8997.00,1.42
8996.00,1.42
8995.00,1.42
8994.00,1.42
8993.00,1.42
8992.00,1.42
8991.00,1.42
8990.00,1.42
8989.00,1.42
8988.00,1.42
8987.00,1.42
8986.00,1.42
8985.00,1.42
8984.00,1.42
8983.00,1.42
8982.00,1.42
8981.00,1.42
8980.00,1.42
8979.00,1.42
8978.00,1.42
8977.00,1.42
8976.00,1.42
8975.00,1.42
8974.00,1.42
8973.00,1.42
8972.00,1.42
8971.00,1.42
8970.00,1.42
8969.00,1.41
8968.00,1.41
8967.00,1.41
8966.00,1.41
8965.00,1.41
8964.00,1.41
8963.00,1.41
8962.00,1.41
8961.00,1.41
8960.00,1.41
8959.00,1.41
8958.00,1.41
8957.00,1.41
8956.00,1.41
8955.00,1.41
8954.00,1.41
8953.00,1.41
8952.00,1.41
8951.00,1.41
8950.00,1.41
8949.00,1.41
8948.00,1.41
8947.00,1.41
8946.00,1.41
8945.00,1.41
8944.00,1.41
8943.00,1.41
8942.00,1.42
8941.00,1.42
8940.00,1.42
8939.00,1.42
8938.00,1.42
8937.00,1.42
8936.00,1.42
8935.00,1.42
8934.00,1.42
8933.00,1.42
8932.00,1.42
8931.00,1.42
8930.00,1.42
8929.00,1.42
8928.00,1.42
8927.00,1.42
8926.00,1.42
8925.00,1.42
8924.00,1.42
8923.00,1.42
8922.00,1.42
8921.00,1.42
8920.00,1.42
8919.00,1.42
8918.00,1.42
8917.00,1.42
8916.00,1.41
8915.00,1.41
8914.00,1.41
8913.00,1.41
8912.00,1.42
8911.00,1.42
8910.00,1.42
8909.00,1.42
8908.00,1.42
8907.00,1.42
8906.00,1.42
8905.00,1.42
8904.00,1.42
8903.00,1.42
8902.00,1.42
8901.00,1.42
8900.00,1.42
8899.00,1.42
8898.00,1.42
8897.00,1.42
8896.00,1.43
8895.00,1.43
8894.00,1.43
8893.00,1.43
8892.00,1.43
8891.00,1.43
8890.00,1.43
8889.00,1.43
8888.00,1.43
8887.00,1.43
8886.00,1.43
8885.00,1.43
8884.00,1.43
8883.00,1.43
8882.00,1.43
8881.00,1.43
8880.00,1.43
8879.00,1.43
8878.00,1.42
8877.00,1.42
8876.00,1.42
8875.00,1.42
8874.00,1.42
8873.00,1.42
8872.00,1.42
8871.00,1.42
8870.00,1.42
8869.00,1.42
8868.00,1.42
8867.00,1.42
8866.00,1.41
8865.00,1.41
8864.00,1.41
8863.00,1.41
8862.00,1.41
8861.00,1.41
8860.00,1.41
8859.00,1.41
8858.00,1.41
8857.00,1.41
8856.00,1.41
8855.00,1.41
8854.00,1.41
8853.00,1.41
8852.00,1.41
8851.00,1.41
8850.00,1.41
8849.00,1.41
8848.00,1.42
8847.00,1.42
8846.00,1.42
8845.00,1.42
8844.00,1.42
8843.00,1.42
8842.00,1.42
8841.00,1.42
8840.00,1.42
8839.00,1.43
8838.00,1.43
8837.00,1.43
8836.00,1.43
8835.00,1.43
8834.00,1.43
8833.00,1.42
8832.00,1.42
8831.00,1.42
8830.00,1.42
8829.00,1.42
8828.00,1.42
8827.00,1.42
8826.00,1.41
8825.00,1.41
8824.00,1.41
8823.00,1.41
8822.00,1.40
8821.00,1.40
8820.00,1.40
8819.00,1.40
8818.00,1.39
8817.00,1.39
8816.00,1.39
8815.00,1.39
8814.00,1.39
8813.00,1.39
8812.00,1.39
8811.00,1.38
8810.00,1.38
8809.00,1.38
8808.00,1.38
8807.00,1.38
8806.00,1.38
8805.00,1.38
8804.00,1.38
8803.00,1.38
8802.00,1.38
8801.00,1.38
8800.00,1.38
8799.00,1.38
8798.00,1.38
8797.00,1.38
8796.00,1.38
8795.00,1.38
8794.00,1.38
8793.00,1.39
8792.00,1.39
8791.00,1.39
8790.00,1.39
8789.00,1.39
8788.00,1.39
8787.00,1.39
8786.00,1.39
8785.00,1.39
8784.00,1.39
8783.00,1.39
8782.00,1.39
8781.00,1.39
8780.00,1.39
8779.00,1.39
8778.00,1.39
8777.00,1.39
8776.00,1.39
8775.00,1.39
8774.00,1.39
8773.00,1.38
8772.00,1.38
8771.00,1.38
8770.00,1.38
8769.00,1.38
8768.00,1.38
8767.00,1.38
8766.00,1.38
8765.00,1.38
8764.00,1.38
8763.00,1.38
8762.00,1.38
8761.00,1.38
8760.00,1.38
8759.00,1.39
8758.00,1.39
8757.00,1.39
8756.00,1.39
8755.00,1.39
8754.00,1.39
8753.00,1.39
8752.00,1.39
8751.00,1.39
8750.00,1.39
8749.00,1.39
8748.00,1.39
8747.00,1.39
8746.00,1.39
8745.00,1.38
8744.00,1.38
8743.00,1.38
8742.00,1.38
8741.00,1.38
8740.00,1.38
8739.00,1.37
8738.00,1.37
8737.00,1.37
8736.00,1.37
8735.00,1.37
8734.00,1.37
8733.00,1.37
8732.00,1.36
8731.00,1.36
8730.00,1.36
8729.00,1.36
8728.00,1.36
8727.00,1.36
8726.00,1.36
8725.00,1.36
8724.00,1.36
8723.00,1.36
8722.00,1.36
8721.00,1.36
8720.00,1.36
8719.00,1.36
8718.00,1.36
8717.00,1.36
8716.00,1.36
8715.00,1.36
8714.00,1.36
8713.00,1.36
8712.00,1.36
8711.00,1.36
8710.00,1.36
8709.00,1.36
8708.00,1.36
8707.00,1.36
8706.00,1.35
8705.00,1.35
8704.00,1.35
8703.00,1.35
8702.00,1.35
8701.00,1.35
8700.00,1.35
8699.00,1.35
8698.00,1.35
8697.00,1.35
8696.00,1.35
8695.00,1.35
8694.00,1.35
8693.00,1.36
8692.00,1.36
8691.00,1.36
8690.00,1.36
8689.00,1.36
8688.00,1.36
8687.00,1.36
8686.00,1.36
8685.00,1.36
8684.00,1.36
8683.00,1.36
8682.00,1.37
8681.00,1.37
8680.00,1.37
8679.00,1.37
8678.00,1.37
8677.00,1.37
8676.00,1.37
8675.00,1.37
8674.00,1.38
8673.00,1.38
8672.00,1.38
8671.00,1.38
8670.00,1.38
8669.00,1.38
8668.00,1.38
8667.00,1.38
8666.00,1.38
8665.00,1.38
8664.00,1.38
8663.00,1.38
8662.00,1.38
8661.00,1.38
8660.00,1.37
8659.00,1.37
8658.00,1.37
8657.00,1.37
8656.00,1.37
8655.00,1.37
8654.00,1.37
8653.00,1.36
8652.00,1.36
8651.00,1.36
8650.00,1.36
8649.00,1.36
8648.00,1.36
8647.00,1.36
8646.00,1.36
8645.00,1.36
8644.00,1.36
8643.00,1.36
8642.00,1.36
8641.00,1.36
8640.00,1.36
8639.00,1.36
8638.00,1.36
8637.00,1.35
8636.00,1.35
8635.00,1.35
8634.00,1.35
8633.00,1.35
8632.00,1.35
8631.00,1.35
8630.00,1.35
8629.00,1.36
8628.00,1.36
8627.00,1.36
8626.00,1.36
8625.00,1.36
8624.00,1.36
8623.00,1.36
8622.00,1.36
8621.00,1.36
8620.00,1.36
8619.00,1.36
8618.00,1.36
8617.00,1.36
8616.00,1.36
8615.00,1.36
8614.00,1.35
8613.00,1.35
8612.00,1.35
8611.00,1.35
8610.00,1.35
8609.00,1.35
8608.00,1.35
8607.00,1.34
8606.00,1.34
8605.00,1.34
8604.00,1.34
8603.00,1.34
8602.00,1.34
8601.00,1.34
8600.00,1.34
8599.00,1.34
8598.00,1.34
8597.00,1.34
8596.00,1.34
8595.00,1.34
8594.00,1.34
8593.00,1.34
8592.00,1.34
8591.00,1.34
8590.00,1.34
8589.00,1.34
8588.00,1.34
8587.00,1.34
8586.00,1.34
8585.00,1.34
8584.00,1.34
8583.00,1.34
8582.00,1.33
8581.00,1.33
8580.00,1.33
8579.00,1.33
8578.00,1.33
8577.00,1.33
8576.00,1.33
8575.00,1.33
8574.00,1.33
8573.00,1.33
8572.00,1.33
8571.00,1.33
8570.00,1.33
8569.00,1.33
8568.00,1.33
8567.00,1.33
8566.00,1.33
8565.00,1.33
8564.00,1.33
8563.00,1.33
8562.00,1.33
8561.00,1.33
8560.00,1.33
8559.00,1.33
8558.00,1.33
8557.00,1.33
8556.00,1.33
8555.00,1.33
8554.00,1.33
8553.00,1.33
8552.00,1.33
8551.00,1.33
8550.00,1.33
8549.00,1.33
8548.00,1.33
8547.00,1.33
8546.00,1.33
8545.00,1.33
8544.00,1.33
8543.00,1.33
8542.00,1.33
8541.00,1.33
8540.00,1.33
8539.00,1.33
8538.00,1.33
8537.00,1.33
8536.00,1.33
8535.00,1.33
8534.00,1.33
8533.00,1.33
8532.00,1.33
8531.00,1.33
8530.00,1.33
8529.00,1.33
8528.00,1.33
8527.00,1.33
8526.00,1.33
8525.00,1.33
8524.00,1.33
8523.00,1.33
8522.00,1.33
8521.00,1.33
8520.00,1.33
8519.00,1.32
8518.00,1.32
8517.00,1.32
8516.00,1.32
8515.00,1.32
8514.00,1.32
8513.00,1.32
8512.00,1.31
8511.00,1.31
8510.00,1.31
8509.00,1.31
8508.00,1.31
8507.00,1.31
8506.00,1.31
8505.00,1.31
8504.00,1.31
8503.00,1.31
8502.00,1.31
8501.00,1.31
8500.00,1.31
8499.00,1.31
8498.00,1.30
8497.00,1.30
8496.00,1.30
8495.00,1.30
8494.00,1.30
8493.00,1.30
8492.00,1.30
8491.00,1.30
8490.00,1.30
8489.00,1.29
8488.00,1.29
8487.00,1.29
8486.00,1.29
8485.00,1.29
8484.00,1.29
8483.00,1.29
8482.00,1.29
8481.00,1.29
8480.00,1.29
8479.00,1.29
8478.00,1.29
8477.00,1.29
8476.00,1.29
8475.00,1.29
8474.00,1.29
8473.00,1.29
8472.00,1.29
8471.00,1.29
8470.00,1.29
8469.00,1.29
8468.00,1.29
8467.00,1.28
8466.00,1.28
8465.00,1.28
8464.00,1.28
8463.00,1.28
8462.00,1.28
8461.00,1.27
8460.00,1.27
8459.00,1.27
8458.00,1.27
8457.00,1.27
8456.00,1.27
8455.00,1.27
8454.00,1.27
8453.00,1.27
8452.00,1.27
8451.00,1.27
8450.00,1.27
8449.00,1.27
8448.00,1.27
8447.00,1.27
8446.00,1.27
8445.00,1.27
8444.00,1.28
8443.00,1.28
8442.00,1.28
8441.00,1.28
8440.00,1.28
8439.00,1.28
8438.00,1.28
8437.00,1.28
8436.00,1.28
8435.00,1.28
8434.00,1.28
8433.00,1.28
8432.00,1.28
8431.00,1.28
8430.00,1.28
8429.00,1.28
8428.00,1.28
8427.00,1.28
8426.00,1.28
8425.00,1.28
8424.00,1.28
8423.00,1.28
8422.00,1.28
8421.00,1.28
8420.00,1.28
8419.00,1.28
8418.00,1.28
8417.00,1.28
8416.00,1.28
8415.00,1.28
8414.00,1.27
8413.00,1.27
8412.00,1.27
8411.00,1.27
8410.00,1.27
8409.00,1.27
8408.00,1.27
8407.00,1.27
8406.00,1.27
8405.00,1.27
8404.00,1.27
8403.00,1.28
8402.00,1.28
8401.00,1.28
8400.00,1.28
8399.00,1.28
8398.00,1.28
8397.00,1.28
8396.00,1.28
8395.00,1.29
8394.00,1.29
8393.00,1.29
8392.00,1.29
8391.00,1.29
8390.00,1.29
8389.00,1.29
8388.00,1.29
8387.00,1.29
8386.00,1.30
8385.00,1.30
8384.00,1.30
8383.00,1.30
8382.00,1.30
8381.00,1.30
8380.00,1.30
8379.00,1.30
8378.00,1.31
8377.00,1.31
8376.00,1.31
8375.00,1.31
8374.00,1.31
8373.00,1.31
8372.00,1.31
8371.00,1.32
8370.00,1.32
8369.00,1.32
8368.00,1.32
8367.00,1.32
8366.00,1.32
8365.00,1.32
8364.00,1.32
8363.00,1.32
8362.00,1.32
8361.00,1.32
8360.00,1.32
8359.00,1.32
8358.00,1.32
8357.00,1.32
8356.00,1.32
8355.00,1.32
8354.00,1.32
8353.00,1.32
8352.00,1.32
8351.00,1.32
8350.00,1.32
8349.00,1.31
8348.00,1.31
8347.00,1.31
8346.00,1.31
8345.00,1.31
8344.00,1.31
8343.00,1.31
8342.00,1.31
8341.00,1.31
8340.00,1.31
8339.00,1.31
8338.00,1.31
8337.00,1.31
8336.00,1.31
8335.00,1.31
8334.00,1.31
8333.00,1.31
8332.00,1.31
8331.00,1.31
8330.00,1.31
8329.00,1.31
8328.00,1.31
8327.00,1.31
8326.00,1.31
8325.00,1.32
8324.00,1.32
8323.00,1.32
8322.00,1.32
8321.00,1.32
8320.00,1.32
8319.00,1.32
8318.00,1.31
8317.00,1.31
8316.00,1.31
8315.00,1.31
8314.00,1.31
8313.00,1.31
8312.00,1.31
8311.00,1.31
8310.00,1.31
8309.00,1.31
8308.00,1.31
8307.00,1.31
8306.00,1.31
8305.00,1.31
8304.00,1.31
8303.00,1.31
8302.00,1.31
8301.00,1.31
8300.00,1.31
8299.00,1.31
8298.00,1.31
8297.00,1.31
8296.00,1.31
8295.00,1.31
8294.00,1.31
8293.00,1.31
8292.00,1.31
8291.00,1.31
8290.00,1.32
8289.00,1.32
8288.00,1.32
8287.00,1.32
8286.00,1.32
8285.00,1.32
8284.00,1.32
8283.00,1.33
8282.00,1.33
8281.00,1.33
8280.00,1.33
8279.00,1.33
8278.00,1.33
8277.00,1.33
8276.00,1.33
8275.00,1.34
8274.00,1.34
8273.00,1.34
8272.00,1.34
8271.00,1.34
8270.00,1.34
8269.00,1.34
8268.00,1.34
8267.00,1.34
8266.00,1.34
8265.00,1.34
8264.00,1.34
8263.00,1.34
8262.00,1.34
8261.00,1.34
8260.00,1.34
8259.00,1.34
8258.00,1.34
8257.00,1.34
8256.00,1.34
8255.00,1.34
8254.00,1.34
8253.00,1.34
8252.00,1.34
8251.00,1.34
8250.00,1.34
8249.00,1.34
8248.00,1.34
8247.00,1.34
8246.00,1.34
8245.00,1.33
8244.00,1.33
8243.00,1.33
8242.00,1.33
8241.00,1.33
8240.00,1.33
8239.00,1.33
8238.00,1.33
8237.00,1.33
8236.00,1.33
8235.00,1.33
8234.00,1.33
8233.00,1.33
8232.00,1.33
8231.00,1.33
8230.00,1.33
8229.00,1.33
8228.00,1.33
8227.00,1.33
8226.00,1.33
8225.00,1.34
8224.00,1.34
8223.00,1.34
8222.00,1.34
8221.00,1.34
8220.00,1.35
8219.00,1.35
8218.00,1.35
8217.00,1.35
8216.00,1.35
8215.00,1.35
8214.00,1.35
8213.00,1.35
8212.00,1.35
8211.00,1.35
8210.00,1.35
8209.00,1.35
8208.00,1.35
8207.00,1.35
8206.00,1.35
8205.00,1.35
8204.00,1.35
8203.00,1.35
8202.00,1.35
8201.00,1.35
8200.00,1.35
8199.00,1.35
8198.00,1.35
8197.00,1.35
8196.00,1.35
8195.00,1.35
8194.00,1.34
8193.00,1.34
8192.00,1.34
8191.00,1.34
8190.00,1.34
8189.00,1.35
8188.00,1.35
8187.00,1.35
8186.00,1.35
8185.00,1.35
8184.00,1.35
8183.00,1.35
8182.00,1.35
8181.00,1.35
8180.00,1.35
8179.00,1.36
8178.00,1.36
8177.00,1.36
8176.00,1.36
8175.00,1.36
8174.00,1.36
8173.00,1.36
8172.00,1.36
8171.00,1.36
8170.00,1.37
8169.00,1.37
8168.00,1.37
8167.00,1.37
8166.00,1.37
8165.00,1.37
8164.00,1.37
8163.00,1.37
8162.00,1.37
8161.00,1.37
8160.00,1.37
8159.00,1.37
8158.00,1.37
8157.00,1.37
8156.00,1.38
8155.00,1.38
8154.00,1.38
8153.00,1.38
8152.00,1.38
8151.00,1.38
8150.00,1.38
8149.00,1.38
8148.00,1.37
8147.00,1.37
8146.00,1.37
8145.00,1.37
8144.00,1.37
8143.00,1.37
8142.00,1.37
8141.00,1.37
8140.00,1.36
8139.00,1.36
8138.00,1.36
8137.00,1.36
8136.00,1.36
8135.00,1.36
8134.00,1.36
8133.00,1.36
8132.00,1.36
8131.00,1.36
8130.00,1.36
8129.00,1.36
8128.00,1.36
8127.00,1.36
8126.00,1.36
8125.00,1.36
8124.00,1.36
8123.00,1.36
8122.00,1.36
8121.00,1.36
8120.00,1.36
8119.00,1.37
8118.00,1.37
8117.00,1.37
8116.00,1.37
8115.00,1.37
8114.00,1.37
8113.00,1.37
8112.00,1.37
8111.00,1.37
8110.00,1.37
8109.00,1.36
8108.00,1.36
8107.00,1.36
8106.00,1.36
8105.00,1.37
8104.00,1.37
8103.00,1.37
8102.00,1.37
8101.00,1.37
8100.00,1.37
8099.00,1.37
8098.00,1.37
8097.00,1.37
8096.00,1.37
8095.00,1.37
8094.00,1.37
8093.00,1.37
8092.00,1.38
8091.00,1.38
8090.00,1.38
8089.00,1.38
8088.00,1.38
8087.00,1.38
8086.00,1.38
8085.00,1.38
8084.00,1.38
8083.00,1.38
8082.00,1.38
8081.00,1.38
8080.00,1.37
8079.00,1.37
8078.00,1.37
8077.00,1.37
8076.00,1.37
8075.00,1.37
8074.00,1.37
8073.00,1.37
8072.00,1.37
8071.00,1.37
8070.00,1.37
8069.00,1.37
8068.00,1.37
8067.00,1.37
8066.00,1.38
8065.00,1.38
8064.00,1.38
8063.00,1.38
8062.00,1.38
8061.00,1.38
8060.00,1.38
8059.00,1.38
8058.00,1.39
8057.00,1.39
8056.00,1.39
8055.00,1.39
8054.00,1.39
8053.00,1.39
8052.00,1.39
8051.00,1.39
8050.00,1.39
8049.00,1.39
8048.00,1.39
8047.00,1.39
8046.00,1.39
8045.00,1.39
8044.00,1.39
8043.00,1.39
8042.00,1.39
8041.00,1.39
8040.00,1.39
8039.00,1.38
8038.00,1.38
8037.00,1.38
8036.00,1.38
8035.00,1.38
8034.00,1.38
8033.00,1.38
8032.00,1.38
8031.00,1.38
8030.00,1.38
8029.00,1.38
8028.00,1.38
8027.00,1.38
8026.00,1.38
8025.00,1.38
8024.00,1.38
8023.00,1.38
8022.00,1.38
8021.00,1.38
8020.00,1.38
8019.00,1.38
8018.00,1.38
8017.00,1.38
8016.00,1.38
8015.00,1.38
8014.00,1.38
8013.00,1.38
8012.00,1.38
8011.00,1.39
8010.00,1.39
8009.00,1.39
8008.00,1.39
8007.00,1.39
8006.00,1.39
8005.00,1.39
8004.00,1.39
8003.00,1.39
8002.00,1.39
8001.00,1.39
8000.00,1.39
7999.00,1.39
7998.00,1.39
7997.00,1.39
7996.00,1.39
7995.00,1.39
7994.00,1.39
7993.00,1.39
7992.00,1.39
7991.00,1.39
7990.00,1.39
7989.00,1.39
7988.00,1.39
7987.00,1.39
7986.00,1.39
7985.00,1.39
7984.00,1.39
7983.00,1.39
7982.00,1.39
7981.00,1.39
7980.00,1.39
7979.00,1.40
7978.00,1.40
7977.00,1.40
7976.00,1.40
7975.00,1.40
7974.00,1.40
7973.00,1.40
7972.00,1.40
7971.00,1.40
7970.00,1.40
7969.00,1.40
7968.00,1.40
7967.00,1.40
7966.00,1.40
7965.00,1.40
7964.00,1.40
7963.00,1.40
7962.00,1.40
7961.00,1.40
7960.00,1.40
7959.00,1.40
7958.00,1.40
7957.00,1.40
7956.00,1.40
7955.00,1.40
7954.00,1.40
7953.00,1.40
7952.00,1.40
7951.00,1.40
7950.00,1.40
7949.00,1.40
7948.00,1.40
7947.00,1.40
7946.00,1.40
7945.00,1.40
7944.00,1.40
7943.00,1.40
7942.00,1.40
7941.00,1.40
7940.00,1.40
7939.00,1.40
7938.00,1.40
7937.00,1.40
7936.00,1.40
7935.00,1.40
7934.00,1.40
7933.00,1.40
7932.00,1.40
7931.00,1.40
7930.00,1.40
7929.00,1.41
7928.00,1.41
7927.00,1.41
7926.00,1.41
7925.00,1.41
7924.00,1.41
7923.00,1.41
7922.00,1.41
7921.00,1.41
7920.00,1.41
7919.00,1.41
7918.00,1.41
7917.00,1.41
7916.00,1.41
7915.00,1.41
7914.00,1.41
7913.00,1.41
7912.00,1.41
7911.00,1.41
7910.00,1.41
7909.00,1.41
7908.00,1.41
7907.00,1.41
7906.00,1.41
7905.00,1.41
7904.00,1.41
7903.00,1.41
7902.00,1.41
7901.00,1.41
7900.00,1.41
7899.00,1.41
7898.00,1.41
7897.00,1.41
7896.00,1.42
7895.00,1.42
7894.00,1.42
7893.00,1.42
7892.00,1.42
7891.00,1.42
7890.00,1.42
7889.00,1.42
7888.00,1.42
7887.00,1.42
7886.00,1.42
7885.00,1.42
7884.00,1.42
7883.00,1.42
7882.00,1.42
7881.00,1.42
7880.00,1.42
7879.00,1.42
7878.00,1.42
7877.00,1.42
7876.00,1.42
7875.00,1.42
7874.00,1.41
7873.00,1.41
7872.00,1.41
7871.00,1.41
7870.00,1.41
7869.00,1.41
7868.00,1.41
7867.00,1.41
7866.00,1.41
7865.00,1.41
7864.00,1.41
7863.00,1.41
7862.00,1.41
7861.00,1.41
7860.00,1.41
7859.00,1.41
7858.00,1.41
7857.00,1.41
7856.00,1.41
7855.00,1.41
7854.00,1.41
7853.00,1.41
7852.00,1.41
7851.00,1.41
7850.00,1.41
7849.00,1.41
7848.00,1.41
7847.00,1.41
7846.00,1.41
7845.00,1.41
7844.00,1.41
7843.00,1.41
7842.00,1.41
7841.00,1.41
7840.00,1.41
7839.00,1.41
7838.00,1.41
7837.00,1.41
7836.00,1.41
7835.00,1.41
7834.00,1.41
7833.00,1.41
7832.00,1.41
7831.00,1.41
7830.00,1.41
7829.00,1.41
7828.00,1.41
7827.00,1.41
7826.00,1.41
7825.00,1.41
7824.00,1.41
7823.00,1.41
7822.00,1.41
7821.00,1.41
7820.00,1.42
7819.00,1.42
7818.00,1.42
7817.00,1.42
7816.00,1.42
7815.00,1.42
7814.00,1.42
7813.00,1.42
7812.00,1.42
7811.00,1.42
7810.00,1.42
7809.00,1.42
7808.00,1.42
7807.00,1.42
7806.00,1.42
7805.00,1.42
7804.00,1.42
7803.00,1.42
7802.00,1.42
7801.00,1.42
7800.00,1.42
7799.00,1.42
7798.00,1.42
7797.00,1.41
7796.00,1.41
7795.00,1.41
7794.00,1.41
7793.00,1.41
7792.00,1.41
7791.00,1.41
7790.00,1.41
7789.00,1.41
7788.00,1.41
7787.00,1.41
7786.00,1.41
7785.00,1.41
7784.00,1.41
7783.00,1.41
7782.00,1.41
7781.00,1.42
7780.00,1.42
7779.00,1.42
7778.00,1.42
7777.00,1.42
7776.00,1.42
7775.00,1.42
7774.00,1.42
7773.00,1.43
7772.00,1.43
7771.00,1.43
7770.00,1.43
7769.00,1.43
7768.00,1.43
7767.00,1.43
7766.00,1.43
7765.00,1.43
7764.00,1.43
7763.00,1.43
7762.00,1.43
7761.00,1.43
7760.00,1.43
7759.00,1.43
7758.00,1.43
7757.00,1.43
7756.00,1.43
7755.00,1.42
7754.00,1.42
7753.00,1.42
7752.00,1.42
7751.00,1.42
7750.00,1.42
7749.00,1.42
7748.00,1.42
7747.00,1.42
7746.00,1.42
7745.00,1.41
7744.00,1.41
7743.00,1.41
7742.00,1.42
7741.00,1.42
7740.00,1.42
7739.00,1.42
7738.00,1.42
7737.00,1.42
7736.00,1.42
7735.00,1.42
7734.00,1.42
7733.00,1.42
7732.00,1.42
7731.00,1.42
7730.00,1.43
7729.00,1.43
7728.00,1.43
7727.00,1.43
7726.00,1.43
7725.00,1.43
7724.00,1.43
7723.00,1.43
7722.00,1.43
7721.00,1.43
7720.00,1.43
7719.00,1.43
7718.00,1.43
7717.00,1.43
7716.00,1.43
7715.00,1.43
7714.00,1.43
7713.00,1.43
7712.00,1.43
7711.00,1.43
7710.00,1.43
7709.00,1.43
7708.00,1.43
7707.00,1.43
7706.00,1.43
7705.00,1.43
7704.00,1.43
7703.00,1.43
7702.00,1.43
7701.00,1.43
7700.00,1.43
7699.00,1.43
7698.00,1.43
7697.00,1.43
7696.00,1.43
7695.00,1.43
7694.00,1.43
7693.00,1.43
7692.00,1.43
7691.00,1.43
7690.00,1.43
7689.00,1.43
7688.00,1.43
7687.00,1.43
7686.00,1.43
7685.00,1.43
7684.00,1.43
7683.00,1.43
7682.00,1.43
7681.00,1.43
7680.00,1.43
7679.00,1.43
7678.00,1.43
7677.00,1.43
7676.00,1.43
7675.00,1.43
7674.00,1.43
7673.00,1.43
7672.00,1.43
7671.00,1.43
7670.00,1.43
7669.00,1.43
7668.00,1.43
7667.00,1.43
7666.00,1.43
7665.00,1.43
7664.00,1.43
7663.00,1.43
7662.00,1.43
7661.00,1.43
7660.00,1.43
7659.00,1.43
7658.00,1.43
7657.00,1.43
7656.00,1.43
7655.00,1.43
7654.00,1.43
7653.00,1.43
7652.00,1.43
7651.00,1.43
7650.00,1.43
7649.00,1.43
7648.00,1.43
7647.00,1.43
7646.00,1.43
7645.00,1.43
7644.00,1.43
7643.00,1.43
7642.00,1.43
7641.00,1.43
7640.00,1.43
7639.00,1.43
7638.00,1.43
7637.00,1.43
7636.00,1.43
7635.00,1.43
7634.00,1.43
7633.00,1.43
7632.00,1.43
7631.00,1.43
7630.00,1.43
7629.00,1.43
7628.00,1.43
7627.00,1.43
7626.00,1.43
7625.00,1.43
7624.00,1.43
7623.00,1.43
7622.00,1.43
7621.00,1.43
7620.00,1.43
7619.00,1.43
7618.00,1.42
7617.00,1.42
7616.00,1.42
7615.00,1.42
7614.00,1.42
7613.00,1.42
7612.00,1.42
7611.00,1.42
7610.00,1.42
7609.00,1.42
7608.00,1.42
7607.00,1.42
7606.00,1.42
7605.00,1.42
7604.00,1.42
7603.00,1.42
7602.00,1.42
7601.00,1.42
7600.00,1.42
7599.00,1.42
7598.00,1.42
7597.00,1.42
7596.00,1.42
7595.00,1.42
7594.00,1.42
7593.00,1.42
7592.00,1.42
7591.00,1.42
7590.00,1.42
7589.00,1.42
7588.00,1.42
7587.00,1.42
7586.00,1.42
7585.00,1.42
7584.00,1.42
7583.00,1.42
7582.00,1.42
7581.00,1.42
7580.00,1.42
7579.00,1.42
7578.00,1.42
7577.00,1.42
7576.00,1.42
7575.00,1.42
7574.00,1.42
7573.00,1.42
7572.00,1.42
7571.00,1.42
7570.00,1.42
7569.00,1.42
7568.00,1.42
7567.00,1.42
7566.00,1.42
7565.00,1.42
7564.00,1.42
7563.00,1.42
7562.00,1.42
7561.00,1.42
7560.00,1.42
7559.00,1.42
7558.00,1.42
7557.00,1.42
7556.00,1.42
7555.00,1.42
7554.00,1.42
7553.00,1.42
7552.00,1.42
7551.00,1.42
7550.00,1.42
7549.00,1.42
7548.00,1.42
7547.00,1.42
7546.00,1.42
7545.00,1.42
7544.00,1.42
7543.00,1.42
7542.00,1.42
7541.00,1.42
7540.00,1.42
7539.00,1.42
7538.00,1.42
7537.00,1.42
7536.00,1.42
7535.00,1.42
7534.00,1.42
7533.00,1.42
7532.00,1.42
7531.00,1.42
7530.00,1.42
7529.00,1.42
7528.00,1.42
7527.00,1.42
7526.00,1.42
7525.00,1.42
7524.00,1.42
7523.00,1.42
7522.00,1.42
7521.00,1.42
7520.00,1.42
7519.00,1.42
7518.00,1.42
7517.00,1.42
7516.00,1.42
7515.00,1.42
7514.00,1.42
7513.00,1.42
7512.00,1.42
7511.00,1.42
7510.00,1.42
7509.00,1.42
7508.00,1.42
7507.00,1.41
7506.00,1.41
7505.00,1.41
7504.00,1.41
7503.00,1.41
7502.00,1.41
7501.00,1.41
7500.00,1.41
7499.00,1.41
7498.00,1.41
7497.00,1.41
7496.00,1.41
7495.00,1.41
7494.00,1.41
7493.00,1.41
7492.00,1.40
7491.00,1.40
7490.00,1.40
7489.00,1.40
7488.00,1.40
7487.00,1.40
7486.00,1.40
7485.00,1.40
7484.00,1.40
7483.00,1.40
7482.00,1.40
7481.00,1.40
7480.00,1.40
7479.00,1.40
7478.00,1.40
7477.00,1.40
7476.00,1.40
7475.00,1.40
7474.00,1.40
7473.00,1.40
7472.00,1.40
7471.00,1.40
7470.00,1.40
7469.00,1.40
7468.00,1.40
7467.00,1.40
7466.00,1.40
7465.00,1.40
7464.00,1.40
7463.00,1.40
7462.00,1.39
7461.00,1.39
7460.00,1.39
7459.00,1.39
7458.00,1.39
7457.00,1.39
7456.00,1.39
7455.00,1.39
7454.00,1.39
7453.00,1.39
7452.00,1.39
7451.00,1.39
7450.00,1.39
7449.00,1.39
7448.00,1.39
7447.00,1.39
7446.00,1.39
7445.00,1.39
7444.00,1.39
7443.00,1.39
7442.00,1.39
7441.00,1.39
7440.00,1.39
7439.00,1.39
7438.00,1.39
7437.00,1.39
7436.00,1.39
7435.00,1.38
7434.00,1.38
7433.00,1.38
7432.00,1.38
7431.00,1.38
7430.00,1.38
7429.00,1.38
7428.00,1.38
7427.00,1.38
7426.00,1.38
7425.00,1.38
7424.00,1.38
7423.00,1.37
7422.00,1.37
7421.00,1.37
7420.00,1.37
7419.00,1.37
7418.00,1.37
7417.00,1.37
7416.00,1.37
7415.00,1.37
7414.00,1.37
7413.00,1.37
7412.00,1.37
7411.00,1.37
7410.00,1.37
7409.00,1.37
7408.00,1.37
7407.00,1.37
7406.00,1.37
7405.00,1.37
7404.00,1.37
7403.00,1.37
7402.00,1.37
7401.00,1.37
7400.00,1.36
7399.00,1.36
7398.00,1.36
7397.00,1.36
7396.00,1.36
7395.00,1.36
7394.00,1.36
7393.00,1.35
7392.00,1.35
7391.00,1.35
7390.00,1.35
7389.00,1.35
7388.00,1.34
7387.00,1.34
7386.00,1.34
7385.00,1.34
7384.00,1.34
7383.00,1.34
7382.00,1.33
7381.00,1.33
7380.00,1.33
7379.00,1.33
7378.00,1.33
7377.00,1.33
7376.00,1.33
7375.00,1.33
7374.00,1.33
7373.00,1.33
7372.00,1.33
7371.00,1.33
7370.00,1.33
7369.00,1.33
7368.00,1.33
7367.00,1.33
7366.00,1.33
7365.00,1.33
7364.00,1.33
7363.00,1.33
7362.00,1.33
7361.00,1.34
7360.00,1.34
7359.00,1.34
7358.00,1.34
7357.00,1.34
7356.00,1.34
7355.00,1.34
7354.00,1.34
7353.00,1.34
7352.00,1.34
7351.00,1.34
7350.00,1.34
7349.00,1.34
7348.00,1.34
7347.00,1.34
7346.00,1.34
7345.00,1.34
7344.00,1.33
7343.00,1.33
7342.00,1.33
7341.00,1.33
7340.00,1.33
7339.00,1.33
7338.00,1.33
7337.00,1.33
7336.00,1.32
7335.00,1.32
7334.00,1.32
7333.00,1.32
7332.00,1.32
7331.00,1.32
7330.00,1.32
7329.00,1.32
7328.00,1.32
7327.00,1.32
7326.00,1.32
7325.00,1.32
7324.00,1.32
7323.00,1.32
7322.00,1.32
7321.00,1.32
7320.00,1.32
7319.00,1.32
7318.00,1.32
7317.00,1.32
7316.00,1.32
7315.00,1.31
7314.00,1.31
7313.00,1.31
7312.00,1.31
7311.00,1.31
7310.00,1.31
7309.00,1.31
7308.00,1.31
7307.00,1.31
7306.00,1.31
7305.00,1.30
7304.00,1.30
7303.00,1.30
7302.00,1.30
7301.00,1.30
7300.00,1.30
7299.00,1.30
7298.00,1.30
7297.00,1.30
7296.00,1.30
7295.00,1.29
7294.00,1.29
7293.00,1.29
7292.00,1.29
7291.00,1.29
7290.00,1.29
7289.00,1.29
7288.00,1.29
7287.00,1.29
7286.00,1.29
7285.00,1.29
7284.00,1.29
7283.00,1.29
7282.00,1.29
7281.00,1.29
7280.00,1.29
7279.00,1.29
7278.00,1.29
7277.00,1.29
7276.00,1.29
7275.00,1.29
7274.00,1.29
7273.00,1.28
7272.00,1.28
7271.00,1.28
7270.00,1.28
7269.00,1.28
7268.00,1.28
7267.00,1.27
7266.00,1.27
7265.00,1.27
7264.00,1.27
7263.00,1.27
7262.00,1.27
7261.00,1.26
7260.00,1.26
7259.00,1.26
7258.00,1.26
7257.00,1.26
7256.00,1.26
7255.00,1.26
7254.00,1.25
7253.00,1.25
7252.00,1.25
7251.00,1.25
7250.00,1.25
7249.00,1.25
7248.00,1.25
7247.00,1.25
7246.00,1.24
7245.00,1.24
7244.00,1.24
7243.00,1.24
7242.00,1.24
7241.00,1.23
7240.00,1.23
7239.00,1.23
7238.00,1.23
7237.00,1.22
7236.00,1.22
7235.00,1.22
7234.00,1.21
7233.00,1.21
7232.00,1.21
7231.00,1.20
7230.00,1.20
7229.00,1.20
7228.00,1.20
7227.00,1.19
7226.00,1.19
7225.00,1.19
7224.00,1.18
7223.00,1.18
7222.00,1.18
7221.00,1.17
7220.00,1.17
7219.00,1.17
7218.00,1.17
7217.00,1.16
7216.00,1.16
7215.00,1.16
7214.00,1.16
7213.00,1.16
7212.00,1.15
7211.00,1.15
7210.00,1.15
7209.00,1.15
7208.00,1.14
7207.00,1.14
7206.00,1.14
7205.00,1.14
7204.00,1.13
7203.00,1.13
7202.00,1.13
7201.00,1.13
7200.00,1.12
7199.00,1.12
7198.00,1.12
7197.00,1.12
7196.00,1.11
7195.00,1.11
7194.00,1.11
7193.00,1.10
7192.00,1.10
7191.00,1.10
7190.00,1.10
7189.00,1.09
7188.00,1.09
7187.00,1.09
7186.00,1.08
7185.00,1.08
7184.00,1.08
7183.00,1.07
7182.00,1.07
7181.00,1.07
7180.00,1.07
7179.00,1.06
7178.00,1.06
7177.00,1.06
7176.00,1.06
7175.00,1.05
7174.00,1.05
7173.00,1.05
7172.00,1.05
7171.00,1.04
7170.00,1.04
7169.00,1.04
7168.00,1.04
7167.00,1.04
7166.00,1.03
7165.00,1.03
7164.00,1.03
7163.00,1.02
7162.00,1.02
7161.00,1.02
7160.00,1.02
7159.00,1.01
7158.00,1.01
7157.00,1.01
7156.00,1.00
7155.00,1.00
7154.00,1.00
7153.00,1.00
7152.00,1.00
7151.00,0.99
7150.00,0.99
7149.00,0.99
7148.00,0.99
7147.00,0.98
7146.00,0.98
7145.00,0.98
7144.00,0.98
7143.00,0.98
7142.00,0.97
7141.00,0.97
7140.00,0.97
7139.00,0.96
7138.00,0.96
7137.00,0.96
7136.00,0.96
7135.00,0.95
7134.00,0.95
7133.00,0.95
7132.00,0.95
7131.00,0.95
7130.00,0.94
7129.00,0.94
7128.00,0.94
7127.00,0.94
7126.00,0.94
7125.00,0.94
7124.00,0.93
7123.00,0.93
7122.00,0.93
7121.00,0.93
7120.00,0.93
7119.00,0.92
7118.00,0.92
7117.00,0.92
7116.00,0.92
7115.00,0.91
7114.00,0.91
7113.00,0.91
7112.00,0.91
7111.00,0.91
7110.00,0.90
7109.00,0.90
7108.00,0.90
7107.00,0.90
7106.00,0.89
7105.00,0.89
7104.00,0.89
7103.00,0.89
7102.00,0.89
7101.00,0.88
7100.00,0.88
7099.00,0.88
7098.00,0.88
7097.00,0.88
7096.00,0.87
7095.00,0.87
7094.00,0.87
7093.00,0.87
7092.00,0.86
7091.00,0.86
7090.00,0.86
7089.00,0.86
7088.00,0.86
7087.00,0.86
7086.00,0.85
7085.00,0.85
7084.00,0.85
7083.00,0.85
7082.00,0.85
7081.00,0.85
7080.00,0.84
7079.00,0.84
7078.00,0.84
7077.00,0.84
7076.00,0.84
7075.00,0.84
7074.00,0.84
7073.00,0.84
7072.00,0.83
7071.00,0.83
7070.00,0.83
7069.00,0.83
7068.00,0.83
7067.00,0.83
7066.00,0.83
7065.00,0.83
7064.00,0.83
7063.00,0.82
7062.00,0.82
7061.00,0.82
7060.00,0.82
7059.00,0.82
7058.00,0.82
7057.00,0.82
7056.00,0.82
7055.00,0.82
7054.00,0.82
7053.00,0.82
7052.00,0.82
7051.00,0.81
7050.00,0.81
7049.00,0.81
7048.00,0.81
7047.00,0.81
7046.00,0.81
7045.00,0.81
7044.00,0.81
7043.00,0.81
7042.00,0.81
7041.00,0.81
7040.00,0.80
7039.00,0.80
7038.00,0.80
7037.00,0.80
7036.00,0.80
7035.00,0.80
7034.00,0.80
7033.00,0.80
7032.00,0.80
7031.00,0.80
7030.00,0.79
7029.00,0.79
7028.00,0.79
7027.00,0.79
7026.00,0.79
7025.00,0.79
7024.00,0.79
7023.00,0.79
7022.00,0.79
7021.00,0.78
7020.00,0.78
7019.00,0.78
7018.00,0.78
7017.00,0.78
7016.00,0.78
7015.00,0.78
7014.00,0.78
7013.00,0.78
7012.00,0.78
7011.00,0.78
7010.00,0.78
7009.00,0.78
7008.00,0.78
7007.00,0.78
7006.00,0.77
7005.00,0.77
7004.00,0.77
7003.00,0.77
7002.00,0.77
7001.00,0.77
7000.00,0.77
6999.00,0.77
6998.00,0.77
6997.00,0.77
6996.00,0.77
6995.00,0.77
6994.00,0.77
6993.00,0.77
6992.00,0.77
6991.00,0.77
6990.00,0.77
6989.00,0.76
6988.00,0.76
6987.00,0.76
6986.00,0.76
6985.00,0.76
6984.00,0.76
6983.00,0.76
6982.00,0.76
6981.00,0.76
6980.00,0.76
6979.00,0.76
6978.00,0.76
6977.00,0.76
6976.00,0.76
6975.00,0.76
6974.00,0.76
6973.00,0.76
6972.00,0.76
6971.00,0.75
6970.00,0.75
6969.00,0.75
6968.00,0.75
6967.00,0.75
6966.00,0.75
6965.00,0.75
6964.00,0.75
6963.00,0.75
6962.00,0.75
6961.00,0.75
6960.00,0.75
6959.00,0.75
6958.00,0.75
6957.00,0.75
6956.00,0.75
6955.00,0.75
6954.00,0.75
6953.00,0.75
6952.00,0.75
6951.00,0.75
6950.00,0.75
6949.00,0.75
6948.00,0.75
6947.00,0.75
6946.00,0.75
6945.00,0.75
6944.00,0.75
6943.00,0.75
6942.00,0.75
6941.00,0.75
6940.00,0.75
6939.00,0.75
6938.00,0.75
6937.00,0.75
6936.00,0.75
6935.00,0.75
6934.00,0.75
6933.00,0.74
6932.00,0.74
6931.00,0.74
6930.00,0.74
6929.00,0.74
6928.00,0.74
6927.00,0.74
6926.00,0.74
6925.00,0.74
6924.00,0.74
6923.00,0.74
6922.00,0.74
6921.00,0.74
6920.00,0.74
6919.00,0.74
6918.00,0.73
6917.00,0.73
6916.00,0.73
6915.00,0.73
6914.00,0.73
6913.00,0.73
6912.00,0.73
6911.00,0.73
6910.00,0.73
6909.00,0.73
6908.00,0.73
6907.00,0.73
6906.00,0.73
6905.00,0.73
6904.00,0.73
6903.00,0.73
6902.00,0.73
6901.00,0.73
6900.00,0.73
6899.00,0.73
6898.00,0.73
6897.00,0.73
6896.00,0.73
6895.00,0.73
6894.00,0.73
6893.00,0.73
6892.00,0.73
6891.00,0.73
6890.00,0.73
6889.00,0.73
6888.00,0.73
6887.00,0.73
6886.00,0.73
6885.00,0.73
6884.00,0.73
6883.00,0.73
6882.00,0.73
6881.00,0.73
6880.00,0.73
6879.00,0.73
6878.00,0.73
6877.00,0.73
6876.00,0.73
6875.00,0.73
6874.00,0.73
6873.00,0.73
6872.00,0.74
6871.00,0.74
6870.00,0.74
6869.00,0.74
6868.00,0.74
6867.00,0.74
6866.00,0.74
6865.00,0.74
6864.00,0.74
6863.00,0.74
6862.00,0.74
6861.00,0.74
6860.00,0.74
6859.00,0.74
6858.00,0.74
6857.00,0.74
6856.00,0.74
6855.00,0.74
6854.00,0.74
6853.00,0.74
6852.00,0.74
6851.00,0.74
6850.00,0.74
6849.00,0.74
6848.00,0.74
6847.00,0.74
6846.00,0.74
6845.00,0.74
6844.00,0.74
6843.00,0.74
6842.00,0.74
6841.00,0.74
6840.00,0.74
6839.00,0.74
6838.00,0.74
6837.00,0.74
6836.00,0.74
6835.00,0.74
6834.00,0.74
6833.00,0.74
6832.00,0.74
6831.00,0.74
6830.00,0.74
6829.00,0.74
6828.00,0.74
6827.00,0.74
6826.00,0.74
6825.00,0.74
6824.00,0.74
6823.00,0.74
6822.00,0.74
6821.00,0.74
6820.00,0.74
6819.00,0.74
6818.00,0.74
6817.00,0.74
6816.00,0.74
6815.00,0.74
6814.00,0.75
6813.00,0.75
6812.00,0.75
6811.00,0.75
6810.00,0.75
6809.00,0.75
6808.00,0.75
6807.00,0.75
6806.00,0.75
6805.00,0.75
6804.00,0.75
6803.00,0.75
6802.00,0.75
6801.00,0.75
6800.00,0.75
6799.00,0.75
6798.00,0.75
6797.00,0.75
6796.00,0.75
6795.00,0.75
6794.00,0.75
6793.00,0.75
6792.00,0.75
6791.00,0.75
6790.00,0.75
6789.00,0.75
6788.00,0.75
6787.00,0.75
6786.00,0.75
6785.00,0.75
6784.00,0.76
6783.00,0.76
6782.00,0.76
6781.00,0.76
6780.00,0.76
6779.00,0.76
6778.00,0.76
6777.00,0.76
6776.00,0.76
6775.00,0.76
6774.00,0.76
6773.00,0.76
6772.00,0.76
6771.00,0.76
6770.00,0.77
6769.00,0.77
6768.00,0.77
6767.00,0.77
6766.00,0.77
6765.00,0.77
6764.00,0.77
6763.00,0.77
6762.00,0.77
6761.00,0.77
6760.00,0.77
6759.00,0.77
6758.00,0.77
6757.00,0.77
6756.00,0.77
6755.00,0.77
6754.00,0.77
6753.00,0.77
6752.00,0.77
6751.00,0.77
6750.00,0.77
6749.00,0.77
6748.00,0.77
6747.00,0.78
6746.00,0.78
6745.00,0.78
6744.00,0.78
6743.00,0.78
6742.00,0.78
6741.00,0.78
6740.00,0.78
6739.00,0.78
6738.00,0.78
6737.00,0.78
6736.00,0.78
6735.00,0.78
6734.00,0.78
6733.00,0.78
6732.00,0.79
6731.00,0.79
6730.00,0.79
6729.00,0.79
6728.00,0.79
6727.00,0.79
6726.00,0.79
6725.00,0.79
6724.00,0.79
6723.00,0.79
6722.00,0.79
6721.00,0.79
6720.00,0.79
6719.00,0.80
6718.00,0.80
6717.00,0.80
6716.00,0.80
6715.00,0.80
6714.00,0.80
6713.00,0.80
6712.00,0.80
6711.00,0.80
6710.00,0.80
6709.00,0.81
6708.00,0.81
6707.00,0.81
6706.00,0.81
6705.00,0.81
6704.00,0.81
6703.00,0.81
6702.00,0.81
6701.00,0.81
6700.00,0.81
6699.00,0.81
6698.00,0.81
6697.00,0.81
6696.00,0.81
6695.00,0.81
6694.00,0.81
6693.00,0.81
6692.00,0.81
6691.00,0.82
6690.00,0.82
6689.00,0.82
6688.00,0.82
6687.00,0.82
6686.00,0.82
6685.00,0.82
6684.00,0.82
6683.00,0.82
6682.00,0.82
6681.00,0.82
6680.00,0.82
6679.00,0.82
6678.00,0.82
6677.00,0.83
6676.00,0.83
6675.00,0.83
6674.00,0.83
6673.00,0.83
6672.00,0.83
6671.00,0.83
6670.00,0.83
6669.00,0.83
6668.00,0.83
6667.00,0.83
6666.00,0.83
6665.00,0.84
6664.00,0.84
6663.00,0.84
6662.00,0.84
6661.00,0.84
6660.00,0.84
6659.00,0.84
6658.00,0.84
6657.00,0.84
6656.00,0.84
6655.00,0.84
6654.00,0.84
6653.00,0.85
6652.00,0.85
6651.00,0.85
6650.00,0.85
6649.00,0.85
6648.00,0.85
6647.00,0.85
6646.00,0.85
6645.00,0.86
6644.00,0.86
6643.00,0.86
6642.00,0.86
6641.00,0.86
6640.00,0.86
6639.00,0.86
6638.00,0.86
6637.00,0.86
6636.00,0.86
6635.00,0.87
6634.00,0.87
6633.00,0.87
6632.00,0.87
6631.00,0.87
6630.00,0.87
6629.00,0.87
6628.00,0.87
6627.00,0.87
6626.00,0.87
6625.00,0.87
6624.00,0.87
6623.00,0.87
6622.00,0.87
6621.00,0.87
6620.00,0.88
6619.00,0.88
6618.00,0.88
6617.00,0.88
6616.00,0.88
6615.00,0.88
6614.00,0.88
6613.00,0.88
6612.00,0.88
6611.00,0.89
6610.00,0.89
6609.00,0.89
6608.00,0.89
6607.00,0.89
6606.00,0.89
6605.00,0.89
6604.00,0.89
6603.00,0.89
6602.00,0.89
6601.00,0.90
6600.00,0.90
6599.00,0.90
6598.00,0.90
6597.00,0.90
6596.00,0.90
6595.00,0.90
6594.00,0.90
6593.00,0.90
6592.00,0.90
6591.00,0.90
6590.00,0.90
6589.00,0.90
6588.00,0.91
6587.00,0.91
6586.00,0.91
6585.00,0.91
6584.00,0.91
6583.00,0.91
6582.00,0.91
6581.00,0.91
6580.00,0.91
6579.00,0.92
6578.00,0.92
6577.00,0.92
6576.00,0.92
6575.00,0.92
6574.00,0.92
6573.00,0.92
6572.00,0.92
6571.00,0.92
6570.00,0.92
6569.00,0.92
6568.00,0.92
6567.00,0.93
6566.00,0.93
6565.00,0.93
6564.00,0.93
6563.00,0.93
6562.00,0.93
6561.00,0.93
6560.00,0.93
6559.00,0.93
6558.00,0.93
6557.00,0.93
6556.00,0.93
6555.00,0.93
6554.00,0.94
6553.00,0.94
6552.00,0.94
6551.00,0.94
6550.00,0.94
6549.00,0.94
6548.00,0.94
6547.00,0.94
6546.00,0.94
6545.00,0.94
6544.00,0.94
6543.00,0.94
6542.00,0.94
6541.00,0.94
6540.00,0.94
6539.00,0.94
6538.00,0.94
6537.00,0.94
6536.00,0.94
6535.00,0.94
6534.00,0.94
6533.00,0.94
6532.00,0.94
6531.00,0.95
6530.00,0.95
6529.00,0.95
6528.00,0.95
6527.00,0.95
6526.00,0.95
6525.00,0.95
6524.00,0.95
6523.00,0.95
6522.00,0.95
6521.00,0.95
6520.00,0.96
6519.00,0.96
6518.00,0.96
6517.00,0.96
6516.00,0.96
6515.00,0.96
6514.00,0.96
6513.00,0.96
6512.00,0.96
6511.00,0.96
6510.00,0.96
6509.00,0.96
6508.00,0.97
6507.00,0.97
6506.00,0.97
6505.00,0.97
6504.00,0.97
6503.00,0.97
6502.00,0.97
6501.00,0.97
6500.00,0.97
6499.00,0.97
6498.00,0.97
6497.00,0.97
6496.00,0.98
6495.00,0.98
6494.00,0.98
6493.00,0.98
6492.00,0.98
6491.00,0.98
6490.00,0.98
6489.00,0.98
6488.00,0.98
6487.00,0.98
6486.00,0.98
6485.00,0.98
6484.00,0.98
6483.00,0.98
6482.00,0.98
6481.00,0.98
6480.00,0.98
6479.00,0.98
6478.00,0.98
6477.00,0.98
6476.00,0.98
6475.00,0.98
6474.00,0.98
6473.00,0.98
6472.00,0.98
6471.00,0.98
6470.00,0.98
6469.00,0.98
6468.00,0.98
6467.00,0.99
6466.00,0.99
6465.00,0.99
6464.00,0.99
6463.00,0.99
6462.00,0.99
6461.00,0.99
6460.00,0.99
6459.00,0.99
6458.00,0.99
6457.00,1.00
6456.00,1.00
6455.00,1.00
6454.00,1.00
6453.00,1.00
6452.00,1.00
6451.00,1.00
6450.00,1.00
6449.00,1.00
6448.00,1.00
6447.00,1.00
6446.00,1.00
6445.00,1.00
6444.00,1.00
6443.00,1.00
6442.00,1.00
6441.00,1.00
6440.00,1.01
6439.00,1.01
6438.00,1.01
6437.00,1.01
6436.00,1.01
6435.00,1.01
6434.00,1.01
6433.00,1.01
6432.00,1.01
6431.00,1.01
6430.00,1.01
6429.00,1.01
6428.00,1.01
6427.00,1.01
6426.00,1.01
6425.00,1.01
6424.00,1.01
6423.00,1.01
6422.00,1.02
6421.00,1.02
6420.00,1.02
6419.00,1.02
6418.00,1.02
6417.00,1.02
6416.00,1.02
6415.00,1.02
6414.00,1.02
6413.00,1.02
6412.00,1.02
6411.00,1.02
6410.00,1.02
6409.00,1.02
6408.00,1.02
6407.00,1.02
6406.00,1.02
6405.00,1.02
6404.00,1.02
6403.00,1.02
6402.00,1.02
6401.00,1.02
6400.00,1.02
6399.00,1.02
6398.00,1.02
6397.00,1.02
6396.00,1.02
6395.00,1.02
6394.00,1.02
6393.00,1.02
6392.00,1.02
6391.00,1.02
6390.00,1.02
6389.00,1.02
6388.00,1.03
6387.00,1.03
6386.00,1.03
6385.00,1.03
6384.00,1.03
6383.00,1.03
6382.00,1.03
6381.00,1.03
6380.00,1.03
6379.00,1.03
6378.00,1.03
6377.00,1.04
6376.00,1.04
6375.00,1.04
6374.00,1.04
6373.00,1.04
6372.00,1.04
6371.00,1.04
6370.00,1.04
6369.00,1.04
6368.00,1.04
6367.00,1.04
6366.00,1.04
6365.00,1.04
6364.00,1.05
6363.00,1.05
6362.00,1.05
6361.00,1.05
6360.00,1.05
6359.00,1.05
6358.00,1.05
6357.00,1.05
6356.00,1.05
6355.00,1.05
6354.00,1.05
6353.00,1.05
6352.00,1.05
6351.00,1.05
6350.00,1.05
6349.00,1.05
6348.00,1.05
6347.00,1.05
6346.00,1.05
6345.00,1.05
6344.00,1.05
6343.00,1.06
6342.00,1.06
6341.00,1.06
6340.00,1.06
6339.00,1.06
6338.00,1.06
6337.00,1.06
6336.00,1.06
6335.00,1.06
6334.00,1.06
6333.00,1.07
6332.00,1.07
6331.00,1.07
6330.00,1.07
6329.00,1.07
6328.00,1.07
6327.00,1.07
6326.00,1.07
6325.00,1.07
6324.00,1.07
6323.00,1.07
6322.00,1.07
6321.00,1.08
6320.00,1.08
6319.00,1.08
6318.00,1.08
6317.00,1.08
6316.00,1.08
6315.00,1.08
6314.00,1.08
6313.00,1.08
6312.00,1.08
6311.00,1.08
6310.00,1.08
6309.00,1.08
6308.00,1.08
6307.00,1.08
6306.00,1.08
6305.00,1.08
6304.00,1.09
6303.00,1.09
6302.00,1.09
6301.00,1.09
6300.00,1.09
6299.00,1.09
6298.00,1.09
6297.00,1.09
6296.00,1.09
6295.00,1.10
6294.00,1.10
6293.00,1.10
6292.00,1.10
6291.00,1.10
6290.00,1.10
6289.00,1.10
6288.00,1.10
6287.00,1.10
6286.00,1.11
6285.00,1.11
6284.00,1.11
6283.00,1.11
6282.00,1.11
6281.00,1.11
6280.00,1.11
6279.00,1.11
6278.00,1.11
6277.00,1.11
6276.00,1.11
6275.00,1.11
6274.00,1.12
6273.00,1.12
6272.00,1.12
6271.00,1.12
6270.00,1.12
6269.00,1.12
6268.00,1.12
6267.00,1.12
6266.00,1.13
6265.00,1.13
6264.00,1.13
6263.00,1.13
6262.00,1.13
6261.00,1.13
6260.00,1.13
6259.00,1.14
6258.00,1.14
6257.00,1.14
6256.00,1.14
6255.00,1.14
6254.00,1.14
6253.00,1.14
6252.00,1.14
6251.00,1.14
6250.00,1.14
6249.00,1.14
6248.00,1.14
6247.00,1.14
6246.00,1.14
6245.00,1.14
6244.00,1.14
6243.00,1.14
6242.00,1.15
6241.00,1.15
6240.00,1.15
6239.00,1.15
6238.00,1.15
6237.00,1.15
6236.00,1.15
6235.00,1.15
6234.00,1.16
6233.00,1.16
6232.00,1.16
6231.00,1.16
6230.00,1.16
6229.00,1.16
6228.00,1.16
6227.00,1.16
6226.00,1.17
6225.00,1.17
6224.00,1.17
6223.00,1.17
6222.00,1.17
6221.00,1.17
6220.00,1.17
6219.00,1.17
6218.00,1.17
6217.00,1.17
6216.00,1.17
6215.00,1.18
6214.00,1.18
6213.00,1.18
6212.00,1.18
6211.00,1.18
6210.00,1.18
6209.00,1.18
6208.00,1.19
6207.00,1.19
6206.00,1.19
6205.00,1.19
6204.00,1.19
6203.00,1.19
6202.00,1.19
6201.00,1.19
6200.00,1.20
6199.00,1.20
6198.00,1.20
6197.00,1.20
6196.00,1.20
6195.00,1.20
6194.00,1.20
6193.00,1.20
6192.00,1.20
6191.00,1.20
6190.00,1.20
6189.00,1.20
6188.00,1.20
6187.00,1.20
6186.00,1.20
6185.00,1.21
6184.00,1.21
6183.00,1.21
6182.00,1.21
6181.00,1.21
6180.00,1.21
6179.00,1.21
6178.00,1.21
6177.00,1.22
6176.00,1.22
6175.00,1.22
6174.00,1.22
6173.00,1.22
6172.00,1.22
6171.00,1.23
6170.00,1.23
6169.00,1.23
6168.00,1.23
6167.00,1.23
6166.00,1.23
6165.00,1.23
6164.00,1.24
6163.00,1.24
6162.00,1.24
6161.00,1.24
6160.00,1.24
6159.00,1.24
6158.00,1.24
6157.00,1.24
6156.00,1.24
6155.00,1.25
6154.00,1.25
6153.00,1.25
6152.00,1.25
6151.00,1.25
6150.00,1.25
6149.00,1.25
6148.00,1.25
6147.00,1.25
6146.00,1.25
6145.00,1.25
6144.00,1.26
6143.00,1.26
6142.00,1.26
6141.00,1.26
6140.00,1.26
6139.00,1.26
6138.00,1.26
6137.00,1.27
6136.00,1.27
6135.00,1.27
6134.00,1.27
6133.00,1.27
6132.00,1.27
6131.00,1.28
6130.00,1.28
6129.00,1.28
6128.00,1.28
6127.00,1.28
6126.00,1.28
6125.00,1.28
6124.00,1.29
6123.00,1.29
6122.00,1.29
6121.00,1.29
6120.00,1.29
6119.00,1.29
6118.00,1.29
6117.00,1.30
6116.00,1.30
6115.00,1.30
6114.00,1.30
6113.00,1.30
6112.00,1.30
6111.00,1.30
6110.00,1.30
6109.00,1.30
6108.00,1.31
6107.00,1.31
6106.00,1.31
6105.00,1.31
6104.00,1.31
6103.00,1.31
6102.00,1.31
6101.00,1.31
6100.00,1.31
6099.00,1.32
6098.00,1.32
6097.00,1.32
6096.00,1.32
6095.00,1.32
6094.00,1.32
6093.00,1.32
6092.00,1.32
6091.00,1.32
6090.00,1.33
6089.00,1.33
6088.00,1.33
6087.00,1.33
6086.00,1.33
6085.00,1.33
6084.00,1.33
6083.00,1.33
6082.00,1.33
6081.00,1.33
6080.00,1.34
6079.00,1.34
6078.00,1.34
6077.00,1.34
6076.00,1.34
6075.00,1.34
6074.00,1.34
6073.00,1.34
6072.00,1.34
6071.00,1.34
6070.00,1.35
6069.00,1.35
6068.00,1.35
6067.00,1.35
6066.00,1.35
6065.00,1.35
6064.00,1.35
6063.00,1.35
6062.00,1.35
6061.00,1.35
6060.00,1.36
6059.00,1.36
6058.00,1.36
6057.00,1.36
6056.00,1.36
6055.00,1.36
6054.00,1.36
6053.00,1.36
6052.00,1.36
6051.00,1.36
6050.00,1.36
6049.00,1.36
6048.00,1.37
6047.00,1.37
6046.00,1.37
6045.00,1.37
6044.00,1.37
6043.00,1.37
6042.00,1.37
6041.00,1.37
6040.00,1.37
6039.00,1.37
6038.00,1.37
6037.00,1.37
6036.00,1.37
6035.00,1.37
6034.00,1.37
6033.00,1.37
6032.00,1.37
6031.00,1.37
6030.00,1.37
6029.00,1.37
6028.00,1.37
6027.00,1.37
6026.00,1.37
6025.00,1.37
6024.00,1.37
6023.00,1.37
6022.00,1.37
6021.00,1.37
6020.00,1.37
6019.00,1.37
6018.00,1.37
6017.00,1.37
6016.00,1.37
6015.00,1.37
6014.00,1.37
6013.00,1.37
6012.00,1.37
6011.00,1.37
6010.00,1.37
6009.00,1.37
6008.00,1.37
6007.00,1.37
6006.00,1.37
6005.00,1.37
6004.00,1.37
6003.00,1.37
6002.00,1.37
6001.00,1.37
6000.00,1.37
5999.00,1.37
5998.00,1.37
5997.00,1.37
5996.00,1.37
5995.00,1.36
5994.00,1.36
5993.00,1.36
5992.00,1.36
5991.00,1.36
5990.00,1.36
5989.00,1.36
5988.00,1.35
5987.00,1.35
5986.00,1.35
5985.00,1.35
5984.00,1.35
5983.00,1.34
5982.00,1.34
5981.00,1.34
5980.00,1.34
5979.00,1.33
5978.00,1.33
5977.00,1.33
5976.00,1.32
5975.00,1.32
5974.00,1.31
5973.00,1.31
5972.00,1.31
5971.00,1.30
5970.00,1.30
5969.00,1.29
5968.00,1.28
5967.00,1.28
5966.00,1.27
5965.00,1.27
5964.00,1.26
5963.00,1.25
5962.00,1.25
5961.00,1.24
5960.00,1.24
5959.00,1.23
5958.00,1.22
5957.00,1.22
5956.00,1.21
5955.00,1.20
5954.00,1.20
5953.00,1.19
5952.00,1.19
5951.00,1.18
5950.00,1.18
5949.00,1.17
5948.00,1.17
5947.00,1.16
5946.00,1.16
5945.00,1.16
5944.00,1.15
5943.00,1.15
5942.00,1.15
5941.00,1.15
5940.00,1.15
5939.00,1.14
5938.00,1.14
5937.00,1.14
5936.00,1.14
5935.00,1.14
5934.00,1.14
5933.00,1.14
5932.00,1.14
5931.00,1.14
5930.00,1.13
5929.00,1.13
5928.00,1.13
5927.00,1.13
5926.00,1.13
5925.00,1.13
5924.00,1.13
5923.00,1.12
5922.00,1.12
5921.00,1.12
5920.00,1.12
5919.00,1.12
5918.00,1.11
5917.00,1.11
5916.00,1.11
5915.00,1.11
5914.00,1.11
5913.00,1.10
5912.00,1.10
5911.00,1.10
5910.00,1.10
5909.00,1.10
5908.00,1.09
5907.00,1.09
5906.00,1.09
5905.00,1.09
5904.00,1.09
5903.00,1.09
5902.00,1.09
5901.00,1.09
5900.00,1.09
5899.00,1.09
5898.00,1.09
5897.00,1.09
5896.00,1.09
5895.00,1.09
5894.00,1.09
5893.00,1.10
5892.00,1.10
5891.00,1.10
5890.00,1.10
5889.00,1.10
5888.00,1.11
5887.00,1.11
5886.00,1.11
5885.00,1.11
5884.00,1.12
5883.00,1.12
5882.00,1.12
5881.00,1.13
5880.00,1.13
5879.00,1.13
5878.00,1.13
5877.00,1.13
5876.00,1.14
5875.00,1.14
5874.00,1.14
5873.00,1.14
5872.00,1.14
5871.00,1.15
5870.00,1.15
5869.00,1.15
5868.00,1.15
5867.00,1.15
5866.00,1.15
5865.00,1.16
5864.00,1.16
5863.00,1.16
5862.00,1.16
5861.00,1.16
5860.00,1.16
5859.00,1.17
5858.00,1.17
5857.00,1.17
5856.00,1.17
5855.00,1.17
5854.00,1.17
5853.00,1.17
5852.00,1.17
5851.00,1.18
5850.00,1.18
5849.00,1.18
5848.00,1.18
5847.00,1.18
5846.00,1.18
5845.00,1.18
5844.00,1.18
5843.00,1.18
5842.00,1.18
5841.00,1.18
5840.00,1.18
5839.00,1.18
5838.00,1.18
5837.00,1.18
5836.00,1.18
5835.00,1.18
5834.00,1.18
5833.00,1.18
5832.00,1.18
5831.00,1.17
5830.00,1.17
5829.00,1.17
5828.00,1.17
5827.00,1.17
5826.00,1.17
5825.00,1.17
5824.00,1.17
5823.00,1.18
5822.00,1.18
5821.00,1.18
5820.00,1.18
5819.00,1.18
5818.00,1.18
5817.00,1.18
5816.00,1.18
5815.00,1.18
5814.00,1.18
5813.00,1.18
5812.00,1.18
5811.00,1.18
5810.00,1.18
5809.00,1.18
5808.00,1.18
5807.00,1.18
5806.00,1.18
5805.00,1.18
5804.00,1.18
5803.00,1.18
5802.00,1.17
5801.00,1.17
5800.00,1.17
5799.00,1.17
5798.00,1.17
5797.00,1.17
5796.00,1.17
5795.00,1.16
5794.00,1.16
5793.00,1.16
5792.00,1.16
5791.00,1.16
5790.00,1.15
5789.00,1.15
5788.00,1.15
5787.00,1.15
5786.00,1.15
5785.00,1.14
5784.00,1.14
5783.00,1.14
5782.00,1.14
5781.00,1.14
5780.00,1.14
5779.00,1.14
5778.00,1.14
5777.00,1.14
5776.00,1.14
5775.00,1.14
5774.00,1.13
5773.00,1.13
5772.00,1.13
5771.00,1.13
5770.00,1.13
5769.00,1.14
5768.00,1.14
5767.00,1.14
5766.00,1.14
5765.00,1.14
5764.00,1.14
5763.00,1.14
5762.00,1.14
5761.00,1.14
5760.00,1.15
5759.00,1.15
5758.00,1.15
5757.00,1.15
5756.00,1.15
5755.00,1.16
5754.00,1.16
5753.00,1.16
5752.00,1.17
5751.00,1.17
5750.00,1.17
5749.00,1.18
5748.00,1.18
5747.00,1.18
5746.00,1.18
5745.00,1.19
5744.00,1.19
5743.00,1.19
5742.00,1.20
5741.00,1.20
5740.00,1.20
5739.00,1.20
5738.00,1.21
5737.00,1.21
5736.00,1.21
5735.00,1.21
5734.00,1.21
5733.00,1.22
5732.00,1.22
5731.00,1.22
5730.00,1.22
5729.00,1.22
5728.00,1.22
5727.00,1.22
5726.00,1.22
5725.00,1.23
5724.00,1.23
5723.00,1.23
5722.00,1.23
5721.00,1.23
5720.00,1.23
5719.00,1.23
5718.00,1.23
5717.00,1.23
5716.00,1.23
5715.00,1.23
5714.00,1.23
5713.00,1.23
5712.00,1.23
5711.00,1.23
5710.00,1.23
5709.00,1.23
5708.00,1.23
5707.00,1.23
5706.00,1.23
5705.00,1.23
5704.00,1.23
5703.00,1.23
5702.00,1.23
5701.00,1.22
5700.00,1.22
5699.00,1.22
5698.00,1.22
5697.00,1.22
5696.00,1.22
5695.00,1.22
5694.00,1.22
5693.00,1.21
5692.00,1.21
5691.00,1.21
5690.00,1.21
5689.00,1.21
5688.00,1.21
5687.00,1.21
5686.00,1.21
5685.00,1.21
5684.00,1.20
5683.00,1.20
5682.00,1.20
5681.00,1.20
5680.00,1.20
5679.00,1.20
5678.00,1.20
5677.00,1.20
5676.00,1.20
5675.00,1.20
5674.00,1.20
5673.00,1.20
5672.00,1.20
5671.00,1.20
5670.00,1.20
5669.00,1.20
5668.00,1.20
5667.00,1.20
5666.00,1.20
5665.00,1.20
5664.00,1.20
5663.00,1.20
5662.00,1.21
5661.00,1.21
5660.00,1.21
5659.00,1.21
5658.00,1.21
5657.00,1.21
5656.00,1.21
5655.00,1.21
5654.00,1.22
5653.00,1.22
5652.00,1.22
5651.00,1.22
5650.00,1.22
5649.00,1.23
5648.00,1.23
5647.00,1.23
5646.00,1.23
5645.00,1.23
5644.00,1.23
5643.00,1.24
5642.00,1.24
5641.00,1.24
5640.00,1.24
5639.00,1.24
5638.00,1.24
5637.00,1.24
5636.00,1.25
5635.00,1.25
5634.00,1.25
5633.00,1.25
5632.00,1.25
5631.00,1.25
5630.00,1.26
5629.00,1.26
5628.00,1.26
5627.00,1.26
5626.00,1.26
5625.00,1.26
5624.00,1.26
5623.00,1.27
5622.00,1.27
5621.00,1.27
5620.00,1.27
5619.00,1.27
5618.00,1.27
5617.00,1.27
5616.00,1.28
5615.00,1.28
5614.00,1.28
5613.00,1.28
5612.00,1.28
5611.00,1.28
5610.00,1.28
5609.00,1.28
5608.00,1.28
5607.00,1.29
5606.00,1.29
5605.00,1.29
5604.00,1.29
5603.00,1.29
5602.00,1.29
5601.00,1.29
5600.00,1.29
5599.00,1.29
5598.00,1.30
5597.00,1.30
5596.00,1.30
5595.00,1.30
5594.00,1.30
5593.00,1.30
5592.00,1.30
5591.00,1.31
5590.00,1.31
5589.00,1.31
5588.00,1.31
5587.00,1.31
5586.00,1.31
5585.00,1.31
5584.00,1.32
5583.00,1.32
5582.00,1.32
5581.00,1.32
5580.00,1.32
5579.00,1.32
5578.00,1.32
5577.00,1.32
5576.00,1.32
5575.00,1.33
5574.00,1.33
5573.00,1.33
5572.00,1.33
5571.00,1.33
5570.00,1.33
5569.00,1.33
5568.00,1.34
5567.00,1.34
5566.00,1.34
5565.00,1.34
5564.00,1.34
5563.00,1.34
5562.00,1.35
5561.00,1.35
5560.00,1.35
5559.00,1.35
5558.00,1.35
5557.00,1.35
5556.00,1.35
5555.00,1.35
5554.00,1.36
5553.00,1.36
5552.00,1.36
5551.00,1.36
5550.00,1.36
5549.00,1.36
5548.00,1.36
5547.00,1.36
5546.00,1.36
5545.00,1.36
5544.00,1.36
5543.00,1.36
5542.00,1.36
5541.00,1.36
5540.00,1.37
5539.00,1.37
5538.00,1.37
5537.00,1.37
5536.00,1.37
5535.00,1.37
5534.00,1.37
5533.00,1.37
5532.00,1.37
5531.00,1.37
5530.00,1.37
5529.00,1.37
5528.00,1.37
5527.00,1.37
5526.00,1.37
5525.00,1.37
5524.00,1.38
5523.00,1.38
5522.00,1.38
5521.00,1.38
5520.00,1.38
5519.00,1.38
5518.00,1.38
5517.00,1.38
5516.00,1.38
5515.00,1.38
5514.00,1.38
5513.00,1.38
5512.00,1.38
5511.00,1.38
5510.00,1.38
5509.00,1.39
5508.00,1.39
5507.00,1.39
5506.00,1.39
5505.00,1.39
5504.00,1.39
5503.00,1.39
5502.00,1.39
5501.00,1.39
5500.00,1.39
5499.00,1.39
5498.00,1.39
5497.00,1.39
5496.00,1.39
5495.00,1.39
5494.00,1.39
5493.00,1.39
5492.00,1.39
5491.00,1.39
5490.00,1.39
5489.00,1.39
5488.00,1.39
5487.00,1.40
5486.00,1.40
5485.00,1.40
5484.00,1.40
5483.00,1.40
5482.00,1.40
5481.00,1.40
5480.00,1.40
5479.00,1.40
5478.00,1.41
5477.00,1.41
5476.00,1.41
5475.00,1.41
5474.00,1.41
5473.00,1.41
5472.00,1.41
5471.00,1.41
5470.00,1.41
5469.00,1.41
5468.00,1.42
5467.00,1.42
5466.00,1.42
5465.00,1.42
5464.00,1.42
5463.00,1.42
5462.00,1.42
5461.00,1.42
5460.00,1.42
5459.00,1.42
5458.00,1.42
5457.00,1.43
5456.00,1.43
5455.00,1.43
5454.00,1.43
5453.00,1.43
5452.00,1.43
5451.00,1.43
5450.00,1.43
5449.00,1.43
5448.00,1.43
5447.00,1.43
5446.00,1.43
5445.00,1.43
5444.00,1.43
5443.00,1.43
5442.00,1.43
5441.00,1.43
5440.00,1.43
5439.00,1.43
5438.00,1.43
5437.00,1.43
5436.00,1.43
5435.00,1.43
5434.00,1.43
5433.00,1.43
5432.00,1.43
5431.00,1.43
5430.00,1.43
5429.00,1.43
5428.00,1.43
5427.00,1.43
5426.00,1.43
5425.00,1.43
5424.00,1.43
5423.00,1.43
5422.00,1.43
5421.00,1.43
5420.00,1.43
5419.00,1.43
5418.00,1.43
5417.00,1.43
5416.00,1.43
5415.00,1.43
5414.00,1.43
5413.00,1.43
5412.00,1.43
5411.00,1.43
5410.00,1.43
5409.00,1.43
5408.00,1.43
5407.00,1.43
5406.00,1.43
5405.00,1.43
5404.00,1.43
5403.00,1.43
5402.00,1.43
5401.00,1.43
5400.00,1.43
5399.00,1.43
5398.00,1.43
5397.00,1.43
5396.00,1.43
5395.00,1.43
5394.00,1.43
5393.00,1.43
5392.00,1.42
5391.00,1.42
5390.00,1.42
5389.00,1.42
5388.00,1.42
5387.00,1.42
5386.00,1.42
5385.00,1.41
5384.00,1.41
5383.00,1.41
5382.00,1.41
5381.00,1.41
5380.00,1.40
5379.00,1.40
5378.00,1.40
5377.00,1.40
5376.00,1.39
5375.00,1.39
5374.00,1.39
5373.00,1.38
5372.00,1.38
5371.00,1.38
5370.00,1.37
5369.00,1.37
5368.00,1.37
5367.00,1.36
5366.00,1.36
5365.00,1.35
5364.00,1.35
5363.00,1.34
5362.00,1.34
5361.00,1.33
5360.00,1.33
5359.00,1.32
5358.00,1.32
5357.00,1.31
5356.00,1.30
5355.00,1.30
5354.00,1.29
5353.00,1.28
5352.00,1.28
5351.00,1.27
5350.00,1.26
5349.00,1.25
5348.00,1.24
5347.00,1.24
5346.00,1.23
5345.00,1.22
5344.00,1.21
5343.00,1.20
5342.00,1.19
5341.00,1.18
5340.00,1.18
5339.00,1.17
5338.00,1.16
5337.00,1.15
5336.00,1.14
5335.00,1.13
5334.00,1.12
5333.00,1.11
5332.00,1.10
5331.00,1.09
5330.00,1.09
5329.00,1.08
5328.00,1.07
5327.00,1.06
5326.00,1.05
5325.00,1.04
5324.00,1.03
5323.00,1.02
5322.00,1.01
5321.00,1.01
5320.00,1.00
5319.00,0.99
5318.00,0.98
5317.00,0.97
5316.00,0.96
5315.00,0.95
5314.00,0.95
5313.00,0.94
5312.00,0.93
5311.00,0.92
5310.00,0.92
5309.00,0.91
5308.00,0.90
5307.00,0.89
5306.00,0.89
5305.00,0.88
5304.00,0.88
5303.00,0.87
5302.00,0.86
5301.00,0.86
5300.00,0.85
5299.00,0.85
5298.00,0.85
5297.00,0.84
5296.00,0.84
5295.00,0.83
5294.00,0.83
5293.00,0.83
5292.00,0.82
5291.00,0.82
5290.00,0.82
5289.00,0.81
5288.00,0.81
5287.00,0.81
5286.00,0.81
5285.00,0.81
5284.00,0.80
5283.00,0.80
5282.00,0.80
5281.00,0.80
5280.00,0.80
5279.00,0.80
5278.00,0.79
5277.00,0.79
5276.00,0.79
5275.00,0.79
5274.00,0.79
5273.00,0.79
5272.00,0.79
5271.00,0.79
5270.00,0.78
5269.00,0.78
5268.00,0.78
5267.00,0.78
5266.00,0.78
5265.00,0.78
5264.00,0.78
5263.00,0.78
5262.00,0.78
5261.00,0.77
5260.00,0.77
5259.00,0.77
5258.00,0.77
5257.00,0.77
5256.00,0.77
5255.00,0.77
5254.00,0.77
5253.00,0.77
5252.00,0.77
5251.00,0.77
5250.00,0.77
5249.00,0.77
5248.00,0.77
5247.00,0.77
5246.00,0.77
5245.00,0.77
5244.00,0.77
5243.00,0.77
5242.00,0.77
5241.00,0.77
5240.00,0.77
5239.00,0.77
5238.00,0.78
5237.00,0.78
5236.00,0.78
5235.00,0.78
5234.00,0.78
5233.00,0.78
5232.00,0.78
5231.00,0.78
5230.00,0.78
5229.00,0.78
5228.00,0.78
5227.00,0.78
5226.00,0.78
5225.00,0.78
5224.00,0.78
5223.00,0.78
5222.00,0.78
5221.00,0.78
5220.00,0.78
5219.00,0.78
5218.00,0.78
5217.00,0.78
5216.00,0.78
5215.00,0.78
5214.00,0.78
5213.00,0.78
5212.00,0.78
5211.00,0.78
5210.00,0.78
5209.00,0.78
5208.00,0.78
5207.00,0.78
5206.00,0.78
5205.00,0.78
5204.00,0.78
5203.00,0.78
5202.00,0.78
5201.00,0.78
5200.00,0.78
5199.00,0.78
5198.00,0.78
5197.00,0.79
5196.00,0.79
5195.00,0.79
5194.00,0.79
5193.00,0.79
5192.00,0.79
5191.00,0.79
5190.00,0.79
5189.00,0.79
5188.00,0.79
5187.00,0.79
5186.00,0.79
5185.00,0.79
5184.00,0.79
5183.00,0.79
5182.00,0.79
5181.00,0.79
5180.00,0.80
5179.00,0.80
5178.00,0.80
5177.00,0.80
5176.00,0.80
5175.00,0.80
5174.00,0.80
5173.00,0.80
5172.00,0.80
5171.00,0.80
5170.00,0.80
5169.00,0.80
5168.00,0.80
5167.00,0.80
5166.00,0.80
5165.00,0.80
5164.00,0.80
5163.00,0.80
5162.00,0.80
5161.00,0.80
5160.00,0.80
5159.00,0.80
5158.00,0.80
5157.00,0.80
5156.00,0.80
5155.00,0.80
5154.00,0.80
5153.00,0.80
5152.00,0.80
5151.00,0.80
5150.00,0.80
5149.00,0.80
5148.00,0.80
5147.00,0.80
5146.00,0.80
5145.00,0.80
5144.00,0.81
5143.00,0.81
5142.00,0.81
5141.00,0.81
5140.00,0.81
5139.00,0.81
5138.00,0.81
5137.00,0.81
5136.00,0.81
5135.00,0.81
5134.00,0.81
5133.00,0.82
5132.00,0.82
5131.00,0.82
5130.00,0.82
5129.00,0.82
5128.00,0.82
5127.00,0.82
5126.00,0.82
5125.00,0.82
5124.00,0.82
5123.00,0.82
5122.00,0.82
5121.00,0.83
5120.00,0.83
5119.00,0.83
5118.00,0.83
5117.00,0.83
5116.00,0.83
5115.00,0.83
5114.00,0.83
5113.00,0.83
5112.00,0.83
5111.00,0.83
5110.00,0.83
5109.00,0.83
5108.00,0.83
5107.00,0.83
5106.00,0.83
5105.00,0.83
5104.00,0.83
5103.00,0.83
5102.00,0.83
5101.00,0.83
5100.00,0.84
5099.00,0.84
5098.00,0.84
5097.00,0.84
5096.00,0.84
5095.00,0.84
5094.00,0.84
5093.00,0.84
5092.00,0.84
5091.00,0.84
5090.00,0.84
5089.00,0.84
5088.00,0.84
5087.00,0.84
5086.00,0.84
5085.00,0.84
5084.00,0.84
5083.00,0.84
5082.00,0.84
5081.00,0.84
5080.00,0.84
5079.00,0.84
5078.00,0.84
5077.00,0.84
5076.00,0.84
5075.00,0.84
5074.00,0.84
5073.00,0.84
5072.00,0.85
5071.00,0.85
5070.00,0.85
5069.00,0.85
5068.00,0.85
5067.00,0.85
5066.00,0.85
5065.00,0.85
5064.00,0.85
5063.00,0.85
5062.00,0.85
5061.00,0.85
5060.00,0.85
5059.00,0.85
5058.00,0.85
5057.00,0.86
5056.00,0.86
5055.00,0.86
5054.00,0.86
5053.00,0.86
5052.00,0.86
5051.00,0.86
5050.00,0.86
5049.00,0.86
5048.00,0.86
5047.00,0.86
5046.00,0.87
5045.00,0.87
5044.00,0.87
5043.00,0.87
5042.00,0.87
5041.00,0.87
5040.00,0.87
5039.00,0.87
5038.00,0.87
5037.00,0.88
5036.00,0.88
5035.00,0.88
5034.00,0.88
5033.00,0.88
5032.00,0.88
5031.00,0.88
5030.00,0.88
5029.00,0.88
5028.00,0.88
5027.00,0.88
5026.00,0.88
5025.00,0.88
5024.00,0.88
5023.00,0.88
5022.00,0.88
5021.00,0.89
5020.00,0.89
5019.00,0.89
5018.00,0.89
5017.00,0.89
5016.00,0.89
5015.00,0.89
5014.00,0.89
5013.00,0.89
5012.00,0.89
5011.00,0.90
5010.00,0.90
5009.00,0.90
5008.00,0.90
5007.00,0.90
5006.00,0.90
5005.00,0.90
5004.00,0.90
5003.00,0.91
5002.00,0.91
5001.00,0.91
5000.00,0.91
4999.00,0.91
4998.00,0.91
4997.00,0.91
4996.00,0.91
4995.00,0.91
4994.00,0.91
4993.00,0.91
4992.00,0.91
4991.00,0.91
4990.00,0.91
4989.00,0.91
4988.00,0.91
4987.00,0.92
4986.00,0.92
4985.00,0.92
4984.00,0.92
4983.00,0.92
4982.00,0.92
4981.00,0.92
4980.00,0.92
4979.00,0.92
4978.00,0.93
4977.00,0.93
4976.00,0.93
4975.00,0.93
4974.00,0.93
4973.00,0.93
4972.00,0.93
4971.00,0.94
4970.00,0.94
4969.00,0.94
4968.00,0.94
4967.00,0.94
4966.00,0.94
4965.00,0.94
4964.00,0.94
4963.00,0.94
4962.00,0.94
4961.00,0.94
4960.00,0.94
4959.00,0.95
4958.00,0.95
4957.00,0.95
4956.00,0.95
4955.00,0.95
4954.00,0.95
4953.00,0.95
4952.00,0.95
4951.00,0.95
4950.00,0.96
4949.00,0.96
4948.00,0.96
4947.00,0.96
4946.00,0.96
4945.00,0.96
4944.00,0.96
4943.00,0.96
4942.00,0.96
4941.00,0.97
4940.00,0.97
4939.00,0.97
4938.00,0.97
4937.00,0.97
4936.00,0.97
4935.00,0.97
4934.00,0.97
4933.00,0.97
4932.00,0.97
4931.00,0.97
4930.00,0.97
4929.00,0.97
4928.00,0.97
4927.00,0.97
4926.00,0.97
4925.00,0.97
4924.00,0.97
4923.00,0.98
4922.00,0.98
4921.00,0.98
4920.00,0.98
4919.00,0.98
4918.00,0.98
4917.00,0.98
4916.00,0.98
4915.00,0.98
4914.00,0.98
4913.00,0.98
4912.00,0.98
4911.00,0.98
4910.00,0.98
4909.00,0.98
4908.00,0.98
4907.00,0.99
4906.00,0.99
4905.00,0.99
4904.00,0.99
4903.00,0.99
4902.00,0.99
4901.00,0.99
4900.00,0.99
4899.00,0.99
4898.00,0.99
4897.00,0.99
4896.00,0.99
4895.00,0.99
4894.00,0.99
4893.00,0.99
4892.00,0.99
4891.00,0.99
4890.00,0.99
4889.00,1.00
4888.00,1.00
4887.00,1.00
4886.00,1.00
4885.00,1.00
4884.00,1.00
4883.00,1.00
4882.00,1.00
4881.00,1.00
4880.00,1.00
4879.00,1.00
4878.00,1.01
4877.00,1.01
4876.00,1.01
4875.00,1.01
4874.00,1.01
4873.00,1.01
4872.00,1.01
4871.00,1.01
4870.00,1.01
4869.00,1.01
4868.00,1.01
4867.00,1.01
4866.00,1.01
4865.00,1.01
4864.00,1.01
4863.00,1.01
4862.00,1.01
4861.00,1.01
4860.00,1.01
4859.00,1.01
4858.00,1.01
4857.00,1.01
4856.00,1.01
4855.00,1.02
4854.00,1.02
4853.00,1.02
4852.00,1.02
4851.00,1.02
4850.00,1.02
4849.00,1.02
4848.00,1.02
4847.00,1.02
4846.00,1.02
4845.00,1.02
4844.00,1.02
4843.00,1.02
4842.00,1.02
4841.00,1.02
4840.00,1.03
4839.00,1.03
4838.00,1.03
4837.00,1.03
4836.00,1.03
4835.00,1.03
4834.00,1.03
4833.00,1.03
4832.00,1.03
4831.00,1.03
4830.00,1.04
4829.00,1.04
4828.00,1.04
4827.00,1.04
4826.00,1.04
4825.00,1.04
4824.00,1.04
4823.00,1.04
4822.00,1.04
4821.00,1.04
4820.00,1.04
4819.00,1.04
4818.00,1.05
4817.00,1.05
4816.00,1.05
4815.00,1.05
4814.00,1.05
4813.00,1.05
4812.00,1.05
4811.00,1.05
4810.00,1.05
4809.00,1.05
4808.00,1.05
4807.00,1.05
4806.00,1.06
4805.00,1.06
4804.00,1.06
4803.00,1.06
4802.00,1.06
4801.00,1.06
4800.00,1.07
4799.00,1.07
4798.00,1.07
4797.00,1.07
4796.00,1.07
4795.00,1.07
4794.00,1.07
4793.00,1.08
4792.00,1.08
4791.00,1.08
4790.00,1.08
4789.00,1.08
4788.00,1.08
4787.00,1.08
4786.00,1.08
4785.00,1.08
4784.00,1.08
4783.00,1.09
4782.00,1.09
4781.00,1.09
4780.00,1.09
4779.00,1.09
4778.00,1.09
4777.00,1.09
4776.00,1.09
4775.00,1.09
4774.00,1.09
4773.00,1.09
4772.00,1.09
4771.00,1.10
4770.00,1.10
4769.00,1.10
4768.00,1.10
4767.00,1.10
4766.00,1.10
4765.00,1.10
4764.00,1.10
4763.00,1.11
4762.00,1.11
4761.00,1.11
4760.00,1.11
4759.00,1.11
4758.00,1.11
4757.00,1.12
4756.00,1.12
4755.00,1.12
4754.00,1.12
4753.00,1.12
4752.00,1.12
4751.00,1.13
4750.00,1.13
4749.00,1.13
4748.00,1.13
4747.00,1.13
4746.00,1.14
4745.00,1.14
4744.00,1.14
4743.00,1.14
4742.00,1.14
4741.00,1.14
4740.00,1.14
4739.00,1.14
4738.00,1.14
4737.00,1.15
4736.00,1.15
4735.00,1.15
4734.00,1.15
4733.00,1.15
4732.00,1.15
4731.00,1.15
4730.00,1.16
4729.00,1.16
4728.00,1.16
4727.00,1.16
4726.00,1.16
4725.00,1.17
4724.00,1.17
4723.00,1.17
4722.00,1.17
4721.00,1.17
4720.00,1.17
4719.00,1.18
4718.00,1.18
4717.00,1.18
4716.00,1.18
4715.00,1.18
4714.00,1.18
4713.00,1.19
4712.00,1.19
4711.00,1.19
4710.00,1.19
4709.00,1.19
4708.00,1.19
4707.00,1.19
4706.00,1.19
4705.00,1.20
4704.00,1.20
4703.00,1.20
4702.00,1.20
4701.00,1.20
4700.00,1.20
4699.00,1.20
4698.00,1.21
4697.00,1.21
4696.00,1.21
4695.00,1.21
4694.00,1.21
4693.00,1.21
4692.00,1.21
4691.00,1.21
4690.00,1.22
4689.00,1.22
4688.00,1.22
4687.00,1.22
4686.00,1.22
4685.00,1.22
4684.00,1.22
4683.00,1.22
4682.00,1.23
4681.00,1.23
4680.00,1.23
4679.00,1.23
4678.00,1.23
4677.00,1.23
4676.00,1.23
4675.00,1.24
4674.00,1.24
4673.00,1.24
4672.00,1.24
4671.00,1.24
4670.00,1.24
4669.00,1.25
4668.00,1.25
4667.00,1.25
4666.00,1.25
4665.00,1.25
4664.00,1.25
4663.00,1.25
4662.00,1.26
4661.00,1.26
4660.00,1.26
4659.00,1.26
4658.00,1.26
4657.00,1.27
4656.00,1.27
4655.00,1.27
4654.00,1.27
4653.00,1.27
4652.00,1.27
4651.00,1.27
4650.00,1.28
4649.00,1.28
4648.00,1.28
4647.00,1.28
4646.00,1.28
4645.00,1.28
4644.00,1.28
4643.00,1.28
4642.00,1.29
4641.00,1.29
4640.00,1.29
4639.00,1.29
4638.00,1.29
4637.00,1.29
4636.00,1.29
4635.00,1.29
4634.00,1.29
4633.00,1.29
4632.00,1.30
4631.00,1.30
4630.00,1.30
4629.00,1.30
4628.00,1.30
4627.00,1.30
4626.00,1.30
4625.00,1.30
4624.00,1.31
4623.00,1.31
4622.00,1.31
4621.00,1.31
4620.00,1.31
4619.00,1.31
4618.00,1.31
4617.00,1.31
4616.00,1.31
4615.00,1.31
4614.00,1.31
4613.00,1.31
4612.00,1.31
4611.00,1.31
4610.00,1.31
4609.00,1.31
4608.00,1.31
4607.00,1.31
4606.00,1.31
4605.00,1.31
4604.00,1.31
4603.00,1.32
4602.00,1.32
4601.00,1.32
4600.00,1.32
4599.00,1.32
4598.00,1.32
4597.00,1.32
4596.00,1.32
4595.00,1.32
4594.00,1.33
4593.00,1.33
4592.00,1.33
4591.00,1.33
4590.00,1.33
4589.00,1.33
4588.00,1.33
4587.00,1.33
4586.00,1.34
4585.00,1.34
4584.00,1.34
4583.00,1.34
4582.00,1.34
4581.00,1.34
4580.00,1.34
4579.00,1.34
4578.00,1.34
4577.00,1.34
4576.00,1.34
4575.00,1.34
4574.00,1.34
4573.00,1.34
4572.00,1.35
4571.00,1.35
4570.00,1.35
4569.00,1.35
4568.00,1.35
4567.00,1.35
4566.00,1.35
4565.00,1.35
4564.00,1.35
4563.00,1.36
4562.00,1.36
4561.00,1.36
4560.00,1.36
4559.00,1.36
4558.00,1.36
4557.00,1.36
4556.00,1.36
4555.00,1.36
4554.00,1.36
4553.00,1.36
4552.00,1.37
4551.00,1.37
4550.00,1.37
4549.00,1.37
4548.00,1.37
4547.00,1.37
4546.00,1.37
4545.00,1.37
4544.00,1.37
4543.00,1.37
4542.00,1.37
4541.00,1.37
4540.00,1.37
4539.00,1.37
4538.00,1.37
4537.00,1.37
4536.00,1.37
4535.00,1.37
4534.00,1.37
4533.00,1.37
4532.00,1.38
4531.00,1.38
4530.00,1.38
4529.00,1.38
4528.00,1.38
4527.00,1.38
4526.00,1.38
4525.00,1.38
4524.00,1.38
4523.00,1.38
4522.00,1.38
4521.00,1.38
4520.00,1.38
4519.00,1.38
4518.00,1.38
4517.00,1.38
4516.00,1.38
4515.00,1.38
4514.00,1.38
4513.00,1.38
4512.00,1.38
4511.00,1.38
4510.00,1.39
4509.00,1.39
4508.00,1.39
4507.00,1.39
4506.00,1.39
4505.00,1.39
4504.00,1.39
4503.00,1.39
4502.00,1.39
4501.00,1.39
4500.00,1.39
4499.00,1.39
4498.00,1.39
4497.00,1.39
4496.00,1.39
4495.00,1.39
4494.00,1.39
4493.00,1.39
4492.00,1.39
4491.00,1.39
4490.00,1.39
4489.00,1.39
4488.00,1.38
4487.00,1.38
4486.00,1.38
4485.00,1.38
4484.00,1.38
4483.00,1.37
4482.00,1.37
4481.00,1.37
4480.00,1.37
4479.00,1.37
4478.00,1.36
4477.00,1.36
4476.00,1.36
4475.00,1.36
4474.00,1.36
4473.00,1.35
4472.00,1.35
4471.00,1.35
4470.00,1.35
4469.00,1.34
4468.00,1.34
4467.00,1.34
4466.00,1.34
4465.00,1.33
4464.00,1.33
4463.00,1.33
4462.00,1.33
4461.00,1.32
4460.00,1.32
4459.00,1.32
4458.00,1.31
4457.00,1.31
4456.00,1.31
4455.00,1.30
4454.00,1.30
4453.00,1.29
4452.00,1.29
4451.00,1.29
4450.00,1.28
4449.00,1.28
4448.00,1.27
4447.00,1.27
4446.00,1.26
4445.00,1.26
4444.00,1.26
4443.00,1.25
4442.00,1.25
4441.00,1.24
4440.00,1.24
4439.00,1.24
4438.00,1.23
4437.00,1.23
4436.00,1.23
4435.00,1.22
4434.00,1.22
4433.00,1.21
4432.00,1.21
4431.00,1.21
4430.00,1.21
4429.00,1.20
4428.00,1.20
4427.00,1.20
4426.00,1.19
4425.00,1.19
4424.00,1.19
4423.00,1.19
4422.00,1.19
4421.00,1.19
4420.00,1.18
4419.00,1.18
4418.00,1.18
4417.00,1.18
4416.00,1.18
4415.00,1.18
4414.00,1.18
4413.00,1.18
4412.00,1.18
4411.00,1.19
4410.00,1.19
4409.00,1.19
4408.00,1.19
4407.00,1.19
4406.00,1.19
4405.00,1.19
4404.00,1.19
4403.00,1.19
4402.00,1.19
4401.00,1.19
4400.00,1.19
4399.00,1.19
4398.00,1.19
4397.00,1.20
4396.00,1.20
4395.00,1.20
4394.00,1.20
4393.00,1.20
4392.00,1.20
4391.00,1.20
4390.00,1.21
4389.00,1.21
4388.00,1.21
4387.00,1.21
4386.00,1.21
4385.00,1.21
4384.00,1.22
4383.00,1.22
4382.00,1.22
4381.00,1.22
4380.00,1.22
4379.00,1.22
4378.00,1.22
4377.00,1.22
4376.00,1.22
4375.00,1.22
4374.00,1.22
4373.00,1.22
4372.00,1.22
4371.00,1.22
4370.00,1.22
4369.00,1.22
4368.00,1.22
4367.00,1.22
4366.00,1.22
4365.00,1.22
4364.00,1.22
4363.00,1.22
4362.00,1.22
4361.00,1.22
4360.00,1.22
4359.00,1.22
4358.00,1.22
4357.00,1.22
4356.00,1.22
4355.00,1.22
4354.00,1.22
4353.00,1.22
4352.00,1.22
4351.00,1.22
4350.00,1.22
4349.00,1.22
4348.00,1.22
4347.00,1.22
4346.00,1.22
4345.00,1.22
4344.00,1.22
4343.00,1.22
4342.00,1.22
4341.00,1.22
4340.00,1.22
4339.00,1.22
4338.00,1.22
4337.00,1.22
4336.00,1.22
4335.00,1.23
4334.00,1.23
4333.00,1.23
4332.00,1.23
4331.00,1.23
4330.00,1.23
4329.00,1.23
4328.00,1.24
4327.00,1.24
4326.00,1.24
4325.00,1.24
4324.00,1.24
4323.00,1.24
4322.00,1.24
4321.00,1.24
4320.00,1.24
4319.00,1.25
4318.00,1.25
4317.00,1.25
4316.00,1.25
4315.00,1.25
4314.00,1.25
4313.00,1.25
4312.00,1.25
4311.00,1.26
4310.00,1.26
4309.00,1.26
4308.00,1.26
4307.00,1.26
4306.00,1.27
4305.00,1.27
4304.00,1.27
4303.00,1.27
4302.00,1.28
4301.00,1.28
4300.00,1.28
4299.00,1.28
4298.00,1.29
4297.00,1.29
4296.00,1.29
4295.00,1.29
4294.00,1.29
4293.00,1.29
4292.00,1.30
4291.00,1.30
4290.00,1.30
4289.00,1.30
4288.00,1.30
4287.00,1.30
4286.00,1.30
4285.00,1.30
4284.00,1.30
4283.00,1.30
4282.00,1.30
4281.00,1.30
4280.00,1.30
4279.00,1.30
4278.00,1.30
4277.00,1.30
4276.00,1.30
4275.00,1.30
4274.00,1.30
4273.00,1.30
4272.00,1.30
4271.00,1.30
4270.00,1.30
4269.00,1.29
4268.00,1.29
4267.00,1.29
4266.00,1.29
4265.00,1.29
4264.00,1.29
4263.00,1.29
4262.00,1.29
4261.00,1.29
4260.00,1.29
4259.00,1.29
4258.00,1.29
4257.00,1.29
4256.00,1.29
4255.00,1.29
4254.00,1.29
4253.00,1.30
4252.00,1.30
4251.00,1.30
4250.00,1.30
4249.00,1.30
4248.00,1.30
4247.00,1.30
4246.00,1.30
4245.00,1.31
4244.00,1.31
4243.00,1.31
4242.00,1.31
4241.00,1.31
4240.00,1.31
4239.00,1.31
4238.00,1.31
4237.00,1.31
4236.00,1.31
4235.00,1.31
4234.00,1.31
4233.00,1.32
4232.00,1.32
4231.00,1.32
4230.00,1.32
4229.00,1.32
4228.00,1.32
4227.00,1.32
4226.00,1.32
4225.00,1.32
4224.00,1.32
4223.00,1.33
4222.00,1.33
4221.00,1.33
4220.00,1.33
4219.00,1.33
4218.00,1.33
4217.00,1.33
4216.00,1.33
4215.00,1.33
4214.00,1.33
4213.00,1.34
4212.00,1.34
4211.00,1.34
4210.00,1.34
4209.00,1.34
4208.00,1.34
4207.00,1.34
4206.00,1.34
4205.00,1.35
4204.00,1.35
4203.00,1.35
4202.00,1.35
4201.00,1.35
4200.00,1.35
4199.00,1.35
4198.00,1.35
4197.00,1.35
4196.00,1.35
4195.00,1.35
4194.00,1.35
4193.00,1.36
4192.00,1.36
4191.00,1.36
4190.00,1.36
4189.00,1.36
4188.00,1.36
4187.00,1.36
4186.00,1.36
4185.00,1.36
4184.00,1.36
4183.00,1.36
4182.00,1.36
4181.00,1.36
4180.00,1.36
4179.00,1.36
4178.00,1.36
4177.00,1.36
4176.00,1.36
4175.00,1.36
4174.00,1.36
4173.00,1.36
4172.00,1.36
4171.00,1.36
4170.00,1.36
4169.00,1.36
4168.00,1.36
4167.00,1.36
4166.00,1.36
4165.00,1.36
4164.00,1.36
4163.00,1.36
4162.00,1.36
4161.00,1.36
4160.00,1.36
4159.00,1.36
4158.00,1.36
4157.00,1.36
4156.00,1.36
4155.00,1.37
4154.00,1.37
4153.00,1.37
4152.00,1.37
4151.00,1.36
4150.00,1.36
4149.00,1.36
4148.00,1.36
4147.00,1.36
4146.00,1.36
4145.00,1.36
4144.00,1.36
4143.00,1.36
4142.00,1.36
4141.00,1.36
4140.00,1.36
4139.00,1.36
4138.00,1.36
4137.00,1.37
4136.00,1.37
4135.00,1.37
4134.00,1.37
4133.00,1.37
4132.00,1.37
4131.00,1.37
4130.00,1.37
4129.00,1.37
4128.00,1.37
4127.00,1.37
4126.00,1.37
4125.00,1.37
4124.00,1.37
4123.00,1.37
4122.00,1.37
4121.00,1.37
4120.00,1.37
4119.00,1.37
4118.00,1.37
4117.00,1.37
4116.00,1.37
4115.00,1.37
4114.00,1.37
4113.00,1.37
4112.00,1.37
4111.00,1.37
4110.00,1.37
4109.00,1.37
4108.00,1.37
4107.00,1.37
4106.00,1.38
4105.00,1.38
4104.00,1.38
4103.00,1.38
4102.00,1.38
4101.00,1.38
4100.00,1.38
4099.00,1.38
4098.00,1.38
4097.00,1.39
4096.00,1.39
4095.00,1.39
4094.00,1.39
4093.00,1.39
4092.00,1.39
4091.00,1.39
4090.00,1.40
4089.00,1.40
4088.00,1.40
4087.00,1.40
4086.00,1.40
4085.00,1.40
4084.00,1.40
4083.00,1.40
4082.00,1.40
4081.00,1.40
4080.00,1.40
4079.00,1.40
4078.00,1.40
4077.00,1.40
4076.00,1.40
4075.00,1.39
4074.00,1.39
4073.00,1.39
4072.00,1.39
4071.00,1.39
4070.00,1.39
4069.00,1.39
4068.00,1.39
4067.00,1.39
4066.00,1.39
4065.00,1.39
4064.00,1.39
4063.00,1.39
4062.00,1.39
4061.00,1.39
4060.00,1.39
4059.00,1.39
4058.00,1.40
4057.00,1.40
4056.00,1.40
4055.00,1.40
4054.00,1.40
4053.00,1.40
4052.00,1.41
4051.00,1.41
4050.00,1.41
4049.00,1.41
4048.00,1.41
4047.00,1.41
4046.00,1.42
4045.00,1.42
4044.00,1.42
4043.00,1.42
4042.00,1.42
4041.00,1.43
4040.00,1.43
4039.00,1.43
4038.00,1.43
4037.00,1.43
4036.00,1.43
4035.00,1.43
4034.00,1.43
4033.00,1.43
4032.00,1.43
4031.00,1.43
4030.00,1.43
4029.00,1.43
4028.00,1.43
4027.00,1.43
4026.00,1.43
4025.00,1.43
4024.00,1.43
4023.00,1.43
4022.00,1.43
4021.00,1.43
4020.00,1.43
4019.00,1.43
4018.00,1.43
4017.00,1.43
4016.00,1.43
4015.00,1.43
4014.00,1.43
4013.00,1.43
4012.00,1.43
4011.00,1.43
4010.00,1.43
4009.00,1.43
4008.00,1.43
4007.00,1.43
4006.00,1.43
4005.00,1.43
4004.00,1.43
4003.00,1.43
4002.00,1.43
4001.00,1.43
4000.00,1.43
