创建为新数据集,样品 018 用户 Administrator 日期 星期五, 七月 20 2018
cm-1,%T
10000.00,1.73
9999.00,1.73
9998.00,1.73
9997.00,1.73
9996.00,1.73
9995.00,1.73
9994.00,1.73
9993.00,1.73
9992.00,1.72
9991.00,1.72
9990.00,1.72
9989.00,1.72
9988.00,1.72
9987.00,1.72
9986.00,1.72
9985.00,1.72
9984.00,1.72
9983.00,1.72
9982.00,1.71
9981.00,1.71
9980.00,1.71
9979.00,1.71
9978.00,1.71
9977.00,1.71
9976.00,1.71
9975.00,1.71
9974.00,1.71
9973.00,1.71
9972.00,1.71
9971.00,1.71
9970.00,1.71
9969.00,1.71
9968.00,1.71
9967.00,1.71
9966.00,1.71
9965.00,1.71
9964.00,1.71
9963.00,1.71
9962.00,1.71
9961.00,1.71
9960.00,1.71
9959.00,1.71
9958.00,1.71
9957.00,1.71
9956.00,1.72
9955.00,1.72
9954.00,1.72
9953.00,1.72
9952.00,1.72
9951.00,1.72
9950.00,1.72
9949.00,1.72
9948.00,1.72
9947.00,1.72
9946.00,1.73
9945.00,1.73
9944.00,1.73
9943.00,1.73
9942.00,1.73
9941.00,1.73
9940.00,1.73
9939.00,1.73
9938.00,1.73
9937.00,1.73
9936.00,1.73
9935.00,1.73
9934.00,1.73
9933.00,1.73
9932.00,1.73
9931.00,1.72
9930.00,1.72
9929.00,1.72
9928.00,1.72
9927.00,1.72
9926.00,1.72
9925.00,1.72
9924.00,1.72
9923.00,1.72
9922.00,1.72
9921.00,1.72
9920.00,1.72
9919.00,1.72
9918.00,1.72
9917.00,1.72
9916.00,1.72
9915.00,1.72
9914.00,1.72
9913.00,1.72
9912.00,1.72
9911.00,1.72
9910.00,1.73
9909.00,1.73
9908.00,1.73
9907.00,1.73
9906.00,1.73
9905.00,1.73
9904.00,1.73
9903.00,1.73
9902.00,1.72
9901.00,1.72
9900.00,1.72
9899.00,1.72
9898.00,1.71
9897.00,1.71
9896.00,1.71
9895.00,1.70
9894.00,1.70
9893.00,1.70
9892.00,1.70
9891.00,1.69
9890.00,1.69
9889.00,1.69
9888.00,1.69
9887.00,1.69
9886.00,1.69
9885.00,1.69
9884.00,1.69
9883.00,1.69
9882.00,1.69
9881.00,1.69
9880.00,1.69
9879.00,1.70
9878.00,1.70
9877.00,1.70
9876.00,1.70
9875.00,1.70
9874.00,1.70
9873.00,1.70
9872.00,1.70
9871.00,1.70
9870.00,1.70
9869.00,1.70
9868.00,1.70
9867.00,1.70
9866.00,1.70
9865.00,1.70
9864.00,1.70
9863.00,1.70
9862.00,1.70
9861.00,1.70
9860.00,1.70
9859.00,1.70
9858.00,1.70
9857.00,1.70
9856.00,1.70
9855.00,1.70
9854.00,1.70
9853.00,1.70
9852.00,1.70
9851.00,1.71
9850.00,1.71
9849.00,1.71
9848.00,1.71
9847.00,1.71
9846.00,1.71
9845.00,1.71
9844.00,1.71
9843.00,1.71
9842.00,1.70
9841.00,1.70
9840.00,1.70
9839.00,1.70
9838.00,1.70
9837.00,1.69
9836.00,1.69
9835.00,1.69
9834.00,1.69
9833.00,1.69
9832.00,1.69
9831.00,1.69
9830.00,1.69
9829.00,1.69
9828.00,1.69
9827.00,1.69
9826.00,1.69
9825.00,1.70
9824.00,1.70
9823.00,1.70
9822.00,1.70
9821.00,1.71
9820.00,1.71
9819.00,1.71
9818.00,1.71
9817.00,1.71
9816.00,1.71
9815.00,1.71
9814.00,1.72
9813.00,1.72
9812.00,1.72
9811.00,1.72
9810.00,1.71
9809.00,1.71
9808.00,1.71
9807.00,1.71
9806.00,1.71
9805.00,1.71
9804.00,1.71
9803.00,1.71
9802.00,1.71
9801.00,1.71
9800.00,1.71
9799.00,1.71
9798.00,1.71
9797.00,1.71
9796.00,1.71
9795.00,1.71
9794.00,1.71
9793.00,1.71
9792.00,1.71
9791.00,1.71
9790.00,1.71
9789.00,1.71
9788.00,1.71
9787.00,1.71
9786.00,1.71
9785.00,1.71
9784.00,1.71
9783.00,1.71
9782.00,1.71
9781.00,1.71
9780.00,1.71
9779.00,1.71
9778.00,1.71
9777.00,1.71
9776.00,1.71
9775.00,1.71
9774.00,1.71
9773.00,1.71
9772.00,1.71
9771.00,1.71
9770.00,1.71
9769.00,1.70
9768.00,1.70
9767.00,1.70
9766.00,1.70
9765.00,1.70
9764.00,1.70
9763.00,1.69
9762.00,1.69
9761.00,1.69
9760.00,1.69
9759.00,1.69
9758.00,1.69
9757.00,1.70
9756.00,1.70
9755.00,1.70
9754.00,1.70
9753.00,1.70
9752.00,1.70
9751.00,1.70
9750.00,1.70
9749.00,1.71
9748.00,1.71
9747.00,1.71
9746.00,1.71
9745.00,1.71
9744.00,1.71
9743.00,1.71
9742.00,1.71
9741.00,1.71
9740.00,1.71
9739.00,1.71
9738.00,1.71
9737.00,1.70
9736.00,1.70
9735.00,1.70
9734.00,1.70
9733.00,1.70
9732.00,1.70
9731.00,1.70
9730.00,1.70
9729.00,1.69
9728.00,1.69
9727.00,1.69
9726.00,1.69
9725.00,1.69
9724.00,1.69
9723.00,1.69
9722.00,1.69
9721.00,1.69
9720.00,1.69
9719.00,1.69
9718.00,1.69
9717.00,1.69
9716.00,1.69
9715.00,1.69
9714.00,1.69
9713.00,1.69
9712.00,1.69
9711.00,1.69
9710.00,1.69
9709.00,1.69
9708.00,1.69
9707.00,1.69
9706.00,1.69
9705.00,1.69
9704.00,1.69
9703.00,1.69
9702.00,1.69
9701.00,1.69
9700.00,1.69
9699.00,1.69
9698.00,1.69
9697.00,1.69
9696.00,1.69
9695.00,1.70
9694.00,1.70
9693.00,1.70
9692.00,1.70
9691.00,1.70
9690.00,1.70
9689.00,1.70
9688.00,1.71
9687.00,1.71
9686.00,1.71
9685.00,1.71
9684.00,1.71
9683.00,1.71
9682.00,1.71
9681.00,1.71
9680.00,1.71
9679.00,1.70
9678.00,1.70
9677.00,1.70
9676.00,1.70
9675.00,1.70
9674.00,1.70
9673.00,1.70
9672.00,1.70
9671.00,1.70
9670.00,1.70
9669.00,1.70
9668.00,1.70
9667.00,1.70
9666.00,1.70
9665.00,1.70
9664.00,1.71
9663.00,1.71
9662.00,1.71
9661.00,1.71
9660.00,1.71
9659.00,1.72
9658.00,1.72
9657.00,1.72
9656.00,1.72
9655.00,1.72
9654.00,1.72
9653.00,1.73
9652.00,1.73
9651.00,1.73
9650.00,1.73
9649.00,1.73
9648.00,1.73
9647.00,1.73
9646.00,1.73
9645.00,1.73
9644.00,1.72
9643.00,1.72
9642.00,1.72
9641.00,1.72
9640.00,1.72
9639.00,1.72
9638.00,1.72
9637.00,1.72
9636.00,1.71
9635.00,1.71
9634.00,1.71
9633.00,1.71
9632.00,1.71
9631.00,1.71
9630.00,1.71
9629.00,1.71
9628.00,1.71
9627.00,1.71
9626.00,1.71
9625.00,1.71
9624.00,1.71
9623.00,1.71
9622.00,1.71
9621.00,1.71
9620.00,1.71
9619.00,1.71
9618.00,1.71
9617.00,1.71
9616.00,1.71
9615.00,1.71
9614.00,1.71
9613.00,1.70
9612.00,1.70
9611.00,1.70
9610.00,1.70
9609.00,1.70
9608.00,1.69
9607.00,1.69
9606.00,1.69
9605.00,1.69
9604.00,1.69
9603.00,1.69
9602.00,1.69
9601.00,1.69
9600.00,1.69
9599.00,1.69
9598.00,1.69
9597.00,1.69
9596.00,1.69
9595.00,1.69
9594.00,1.69
9593.00,1.69
9592.00,1.69
9591.00,1.69
9590.00,1.69
9589.00,1.69
9588.00,1.70
9587.00,1.70
9586.00,1.70
9585.00,1.70
9584.00,1.70
9583.00,1.70
9582.00,1.70
9581.00,1.70
9580.00,1.70
9579.00,1.70
9578.00,1.70
9577.00,1.70
9576.00,1.70
9575.00,1.70
9574.00,1.70
9573.00,1.70
9572.00,1.70
9571.00,1.70
9570.00,1.70
9569.00,1.70
9568.00,1.70
9567.00,1.70
9566.00,1.70
9565.00,1.70
9564.00,1.71
9563.00,1.71
9562.00,1.71
9561.00,1.71
9560.00,1.72
9559.00,1.72
9558.00,1.72
9557.00,1.72
9556.00,1.72
9555.00,1.73
9554.00,1.73
9553.00,1.73
9552.00,1.73
9551.00,1.73
9550.00,1.73
9549.00,1.73
9548.00,1.73
9547.00,1.72
9546.00,1.72
9545.00,1.72
9544.00,1.72
9543.00,1.72
9542.00,1.72
9541.00,1.72
9540.00,1.71
9539.00,1.71
9538.00,1.71
9537.00,1.71
9536.00,1.71
9535.00,1.71
9534.00,1.71
9533.00,1.71
9532.00,1.71
9531.00,1.71
9530.00,1.71
9529.00,1.70
9528.00,1.70
9527.00,1.70
9526.00,1.70
9525.00,1.70
9524.00,1.70
9523.00,1.70
9522.00,1.70
9521.00,1.70
9520.00,1.70
9519.00,1.70
9518.00,1.70
9517.00,1.70
9516.00,1.70
9515.00,1.70
9514.00,1.70
9513.00,1.70
9512.00,1.70
9511.00,1.70
9510.00,1.70
9509.00,1.70
9508.00,1.70
9507.00,1.70
9506.00,1.71
9505.00,1.71
9504.00,1.71
9503.00,1.71
9502.00,1.71
9501.00,1.71
9500.00,1.71
9499.00,1.71
9498.00,1.71
9497.00,1.71
9496.00,1.71
9495.00,1.71
9494.00,1.71
9493.00,1.71
9492.00,1.71
9491.00,1.71
9490.00,1.71
9489.00,1.71
9488.00,1.70
9487.00,1.70
9486.00,1.70
9485.00,1.70
9484.00,1.70
9483.00,1.70
9482.00,1.70
9481.00,1.70
9480.00,1.70
9479.00,1.70
9478.00,1.70
9477.00,1.70
9476.00,1.71
9475.00,1.71
9474.00,1.71
9473.00,1.71
9472.00,1.71
9471.00,1.72
9470.00,1.72
9469.00,1.72
9468.00,1.72
9467.00,1.72
9466.00,1.72
9465.00,1.72
9464.00,1.72
9463.00,1.72
9462.00,1.72
9461.00,1.72
9460.00,1.72
9459.00,1.72
9458.00,1.72
9457.00,1.72
9456.00,1.71
9455.00,1.71
9454.00,1.71
9453.00,1.71
9452.00,1.71
9451.00,1.70
9450.00,1.70
9449.00,1.70
9448.00,1.70
9447.00,1.70
9446.00,1.70
9445.00,1.70
9444.00,1.70
9443.00,1.70
9442.00,1.70
9441.00,1.70
9440.00,1.70
9439.00,1.71
9438.00,1.71
9437.00,1.71
9436.00,1.71
9435.00,1.71
9434.00,1.71
9433.00,1.72
9432.00,1.72
9431.00,1.72
9430.00,1.72
9429.00,1.72
9428.00,1.72
9427.00,1.72
9426.00,1.72
9425.00,1.72
9424.00,1.72
9423.00,1.72
9422.00,1.72
9421.00,1.71
9420.00,1.71
9419.00,1.71
9418.00,1.71
9417.00,1.71
9416.00,1.70
9415.00,1.70
9414.00,1.70
9413.00,1.70
9412.00,1.70
9411.00,1.70
9410.00,1.70
9409.00,1.70
9408.00,1.70
9407.00,1.70
9406.00,1.70
9405.00,1.70
9404.00,1.70
9403.00,1.71
9402.00,1.71
9401.00,1.71
9400.00,1.71
9399.00,1.71
9398.00,1.71
9397.00,1.71
9396.00,1.72
9395.00,1.72
9394.00,1.72
9393.00,1.72
9392.00,1.72
9391.00,1.72
9390.00,1.72
9389.00,1.72
9388.00,1.72
9387.00,1.72
9386.00,1.72
9385.00,1.72
9384.00,1.72
9383.00,1.72
9382.00,1.72
9381.00,1.72
9380.00,1.72
9379.00,1.72
9378.00,1.72
9377.00,1.72
9376.00,1.72
9375.00,1.71
9374.00,1.71
9373.00,1.71
9372.00,1.71
9371.00,1.71
9370.00,1.71
9369.00,1.71
9368.00,1.71
9367.00,1.71
9366.00,1.71
9365.00,1.70
9364.00,1.70
9363.00,1.70
9362.00,1.70
9361.00,1.70
9360.00,1.70
9359.00,1.70
9358.00,1.70
9357.00,1.70
9356.00,1.70
9355.00,1.70
9354.00,1.70
9353.00,1.70
9352.00,1.70
9351.00,1.70
9350.00,1.70
9349.00,1.70
9348.00,1.70
9347.00,1.70
9346.00,1.70
9345.00,1.70
9344.00,1.70
9343.00,1.70
9342.00,1.70
9341.00,1.70
9340.00,1.70
9339.00,1.69
9338.00,1.69
9337.00,1.69
9336.00,1.69
9335.00,1.69
9334.00,1.69
9333.00,1.70
9332.00,1.70
9331.00,1.70
9330.00,1.70
9329.00,1.70
9328.00,1.70
9327.00,1.71
9326.00,1.71
9325.00,1.71
9324.00,1.71
9323.00,1.71
9322.00,1.71
9321.00,1.71
9320.00,1.71
9319.00,1.72
9318.00,1.72
9317.00,1.72
9316.00,1.72
9315.00,1.72
9314.00,1.71
9313.00,1.71
9312.00,1.71
9311.00,1.71
9310.00,1.71
9309.00,1.71
9308.00,1.71
9307.00,1.71
9306.00,1.71
9305.00,1.71
9304.00,1.71
9303.00,1.71
9302.00,1.70
9301.00,1.70
9300.00,1.70
9299.00,1.70
9298.00,1.70
9297.00,1.70
9296.00,1.70
9295.00,1.70
9294.00,1.69
9293.00,1.69
9292.00,1.69
9291.00,1.69
9290.00,1.69
9289.00,1.69
9288.00,1.69
9287.00,1.69
9286.00,1.69
9285.00,1.69
9284.00,1.69
9283.00,1.69
9282.00,1.69
9281.00,1.70
9280.00,1.70
9279.00,1.70
9278.00,1.70
9277.00,1.70
9276.00,1.70
9275.00,1.71
9274.00,1.71
9273.00,1.71
9272.00,1.71
9271.00,1.71
9270.00,1.71
9269.00,1.72
9268.00,1.72
9267.00,1.72
9266.00,1.72
9265.00,1.72
9264.00,1.72
9263.00,1.72
9262.00,1.72
9261.00,1.72
9260.00,1.72
9259.00,1.72
9258.00,1.72
9257.00,1.72
9256.00,1.71
9255.00,1.71
9254.00,1.71
9253.00,1.71
9252.00,1.71
9251.00,1.71
9250.00,1.71
9249.00,1.71
9248.00,1.71
9247.00,1.71
9246.00,1.71
9245.00,1.71
9244.00,1.71
9243.00,1.71
9242.00,1.71
9241.00,1.71
9240.00,1.71
9239.00,1.71
9238.00,1.71
9237.00,1.71
9236.00,1.71
9235.00,1.71
9234.00,1.71
9233.00,1.71
9232.00,1.71
9231.00,1.71
9230.00,1.71
9229.00,1.71
9228.00,1.71
9227.00,1.71
9226.00,1.71
9225.00,1.71
9224.00,1.71
9223.00,1.71
9222.00,1.71
9221.00,1.71
9220.00,1.71
9219.00,1.71
9218.00,1.71
9217.00,1.71
9216.00,1.71
9215.00,1.71
9214.00,1.71
9213.00,1.71
9212.00,1.71
9211.00,1.71
9210.00,1.71
9209.00,1.71
9208.00,1.71
9207.00,1.72
9206.00,1.72
9205.00,1.72
9204.00,1.72
9203.00,1.72
9202.00,1.72
9201.00,1.72
9200.00,1.72
9199.00,1.72
9198.00,1.72
9197.00,1.72
9196.00,1.72
9195.00,1.72
9194.00,1.72
9193.00,1.72
9192.00,1.72
9191.00,1.72
9190.00,1.72
9189.00,1.72
9188.00,1.72
9187.00,1.72
9186.00,1.72
9185.00,1.72
9184.00,1.72
9183.00,1.72
9182.00,1.72
9181.00,1.72
9180.00,1.72
9179.00,1.72
9178.00,1.72
9177.00,1.72
9176.00,1.72
9175.00,1.72
9174.00,1.72
9173.00,1.72
9172.00,1.72
9171.00,1.72
9170.00,1.72
9169.00,1.72
9168.00,1.72
9167.00,1.72
9166.00,1.72
9165.00,1.72
9164.00,1.73
9163.00,1.73
9162.00,1.73
9161.00,1.73
9160.00,1.73
9159.00,1.73
9158.00,1.73
9157.00,1.73
9156.00,1.73
9155.00,1.73
9154.00,1.73
9153.00,1.73
9152.00,1.73
9151.00,1.73
9150.00,1.72
9149.00,1.72
9148.00,1.72
9147.00,1.72
9146.00,1.72
9145.00,1.72
9144.00,1.72
9143.00,1.71
9142.00,1.71
9141.00,1.71
9140.00,1.71
9139.00,1.71
9138.00,1.71
9137.00,1.71
9136.00,1.71
9135.00,1.71
9134.00,1.71
9133.00,1.71
9132.00,1.71
9131.00,1.71
9130.00,1.71
9129.00,1.71
9128.00,1.71
9127.00,1.71
9126.00,1.71
9125.00,1.71
9124.00,1.71
9123.00,1.71
9122.00,1.71
9121.00,1.71
9120.00,1.71
9119.00,1.71
9118.00,1.71
9117.00,1.71
9116.00,1.71
9115.00,1.71
9114.00,1.71
9113.00,1.71
9112.00,1.71
9111.00,1.72
9110.00,1.72
9109.00,1.72
9108.00,1.72
9107.00,1.72
9106.00,1.72
9105.00,1.72
9104.00,1.72
9103.00,1.72
9102.00,1.72
9101.00,1.72
9100.00,1.72
9099.00,1.72
9098.00,1.72
9097.00,1.72
9096.00,1.72
9095.00,1.72
9094.00,1.72
9093.00,1.72
9092.00,1.72
9091.00,1.72
9090.00,1.72
9089.00,1.72
9088.00,1.72
9087.00,1.72
9086.00,1.72
9085.00,1.72
9084.00,1.72
9083.00,1.72
9082.00,1.72
9081.00,1.72
9080.00,1.71
9079.00,1.71
9078.00,1.71
9077.00,1.71
9076.00,1.71
9075.00,1.71
9074.00,1.70
9073.00,1.70
9072.00,1.70
9071.00,1.70
9070.00,1.70
9069.00,1.70
9068.00,1.70
9067.00,1.70
9066.00,1.70
9065.00,1.70
9064.00,1.70
9063.00,1.70
9062.00,1.70
9061.00,1.70
9060.00,1.70
9059.00,1.70
9058.00,1.70
9057.00,1.70
9056.00,1.70
9055.00,1.70
9054.00,1.70
9053.00,1.70
9052.00,1.70
9051.00,1.70
9050.00,1.71
9049.00,1.71
9048.00,1.71
9047.00,1.71
9046.00,1.71
9045.00,1.71
9044.00,1.71
9043.00,1.71
9042.00,1.71
9041.00,1.71
9040.00,1.71
9039.00,1.71
9038.00,1.71
9037.00,1.71
9036.00,1.71
9035.00,1.71
9034.00,1.70
9033.00,1.70
9032.00,1.70
9031.00,1.70
9030.00,1.70
9029.00,1.70
9028.00,1.70
9027.00,1.70
9026.00,1.70
9025.00,1.70
9024.00,1.70
9023.00,1.70
9022.00,1.70
9021.00,1.70
9020.00,1.70
9019.00,1.70
9018.00,1.70
9017.00,1.70
9016.00,1.70
9015.00,1.70
9014.00,1.70
9013.00,1.70
9012.00,1.70
9011.00,1.70
9010.00,1.70
9009.00,1.70
9008.00,1.70
9007.00,1.70
9006.00,1.70
9005.00,1.70
9004.00,1.70
9003.00,1.70
9002.00,1.70
9001.00,1.70
9000.00,1.70
8999.00,1.70
8998.00,1.71
8997.00,1.71
8996.00,1.71
8995.00,1.71
8994.00,1.71
8993.00,1.71
8992.00,1.71
8991.00,1.71
8990.00,1.71
8989.00,1.71
8988.00,1.71
8987.00,1.71
8986.00,1.71
8985.00,1.71
8984.00,1.71
8983.00,1.71
8982.00,1.71
8981.00,1.71
8980.00,1.71
8979.00,1.71
8978.00,1.71
8977.00,1.71
8976.00,1.71
8975.00,1.71
8974.00,1.72
8973.00,1.72
8972.00,1.72
8971.00,1.72
8970.00,1.72
8969.00,1.72
8968.00,1.72
8967.00,1.71
8966.00,1.71
8965.00,1.71
8964.00,1.71
8963.00,1.71
8962.00,1.71
8961.00,1.71
8960.00,1.71
8959.00,1.71
8958.00,1.71
8957.00,1.71
8956.00,1.71
8955.00,1.71
8954.00,1.70
8953.00,1.70
8952.00,1.70
8951.00,1.70
8950.00,1.70
8949.00,1.70
8948.00,1.70
8947.00,1.70
8946.00,1.70
8945.00,1.70
8944.00,1.70
8943.00,1.70
8942.00,1.70
8941.00,1.70
8940.00,1.70
8939.00,1.70
8938.00,1.70
8937.00,1.70
8936.00,1.70
8935.00,1.70
8934.00,1.70
8933.00,1.71
8932.00,1.71
8931.00,1.71
8930.00,1.71
8929.00,1.71
8928.00,1.71
8927.00,1.71
8926.00,1.71
8925.00,1.71
8924.00,1.71
8923.00,1.71
8922.00,1.72
8921.00,1.72
8920.00,1.72
8919.00,1.72
8918.00,1.72
8917.00,1.72
8916.00,1.72
8915.00,1.72
8914.00,1.72
8913.00,1.72
8912.00,1.72
8911.00,1.72
8910.00,1.72
8909.00,1.72
8908.00,1.72
8907.00,1.72
8906.00,1.72
8905.00,1.72
8904.00,1.72
8903.00,1.73
8902.00,1.73
8901.00,1.73
8900.00,1.73
8899.00,1.73
8898.00,1.73
8897.00,1.73
8896.00,1.73
8895.00,1.73
8894.00,1.73
8893.00,1.73
8892.00,1.72
8891.00,1.72
8890.00,1.72
8889.00,1.72
8888.00,1.72
8887.00,1.72
8886.00,1.72
8885.00,1.71
8884.00,1.71
8883.00,1.71
8882.00,1.71
8881.00,1.71
8880.00,1.71
8879.00,1.71
8878.00,1.70
8877.00,1.70
8876.00,1.70
8875.00,1.70
8874.00,1.70
8873.00,1.70
8872.00,1.70
8871.00,1.70
8870.00,1.70
8869.00,1.70
8868.00,1.70
8867.00,1.70
8866.00,1.70
8865.00,1.70
8864.00,1.70
8863.00,1.70
8862.00,1.70
8861.00,1.70
8860.00,1.70
8859.00,1.70
8858.00,1.70
8857.00,1.70
8856.00,1.69
8855.00,1.69
8854.00,1.69
8853.00,1.69
8852.00,1.69
8851.00,1.69
8850.00,1.69
8849.00,1.69
8848.00,1.69
8847.00,1.69
8846.00,1.69
8845.00,1.69
8844.00,1.69
8843.00,1.69
8842.00,1.69
8841.00,1.69
8840.00,1.69
8839.00,1.69
8838.00,1.69
8837.00,1.69
8836.00,1.69
8835.00,1.69
8834.00,1.69
8833.00,1.69
8832.00,1.69
8831.00,1.69
8830.00,1.69
8829.00,1.69
8828.00,1.69
8827.00,1.69
8826.00,1.69
8825.00,1.69
8824.00,1.69
8823.00,1.69
8822.00,1.69
8821.00,1.69
8820.00,1.69
8819.00,1.69
8818.00,1.69
8817.00,1.69
8816.00,1.69
8815.00,1.69
8814.00,1.69
8813.00,1.69
8812.00,1.69
8811.00,1.69
8810.00,1.69
8809.00,1.69
8808.00,1.69
8807.00,1.69
8806.00,1.69
8805.00,1.69
8804.00,1.69
8803.00,1.69
8802.00,1.68
8801.00,1.68
8800.00,1.68
8799.00,1.68
8798.00,1.68
8797.00,1.67
8796.00,1.67
8795.00,1.67
8794.00,1.67
8793.00,1.66
8792.00,1.66
8791.00,1.66
8790.00,1.66
8789.00,1.66
8788.00,1.66
8787.00,1.65
8786.00,1.65
8785.00,1.65
8784.00,1.65
8783.00,1.65
8782.00,1.65
8781.00,1.65
8780.00,1.66
8779.00,1.66
8778.00,1.66
8777.00,1.66
8776.00,1.66
8775.00,1.66
8774.00,1.66
8773.00,1.66
8772.00,1.66
8771.00,1.66
8770.00,1.66
8769.00,1.66
8768.00,1.66
8767.00,1.66
8766.00,1.66
8765.00,1.66
8764.00,1.65
8763.00,1.65
8762.00,1.65
8761.00,1.65
8760.00,1.65
8759.00,1.64
8758.00,1.64
8757.00,1.64
8756.00,1.64
8755.00,1.64
8754.00,1.63
8753.00,1.63
8752.00,1.63
8751.00,1.63
8750.00,1.63
8749.00,1.63
8748.00,1.63
8747.00,1.63
8746.00,1.63
8745.00,1.63
8744.00,1.63
8743.00,1.63
8742.00,1.63
8741.00,1.63
8740.00,1.63
8739.00,1.63
8738.00,1.63
8737.00,1.63
8736.00,1.63
8735.00,1.63
8734.00,1.63
8733.00,1.63
8732.00,1.63
8731.00,1.63
8730.00,1.63
8729.00,1.63
8728.00,1.63
8727.00,1.63
8726.00,1.63
8725.00,1.63
8724.00,1.63
8723.00,1.63
8722.00,1.63
8721.00,1.63
8720.00,1.63
8719.00,1.63
8718.00,1.63
8717.00,1.62
8716.00,1.62
8715.00,1.62
8714.00,1.62
8713.00,1.62
8712.00,1.62
8711.00,1.62
8710.00,1.62
8709.00,1.62
8708.00,1.62
8707.00,1.62
8706.00,1.62
8705.00,1.62
8704.00,1.62
8703.00,1.62
8702.00,1.62
8701.00,1.62
8700.00,1.62
8699.00,1.62
8698.00,1.62
8697.00,1.62
8696.00,1.62
8695.00,1.63
8694.00,1.63
8693.00,1.63
8692.00,1.63
8691.00,1.63
8690.00,1.63
8689.00,1.63
8688.00,1.63
8687.00,1.63
8686.00,1.63
8685.00,1.63
8684.00,1.63
8683.00,1.63
8682.00,1.63
8681.00,1.63
8680.00,1.63
8679.00,1.63
8678.00,1.62
8677.00,1.62
8676.00,1.62
8675.00,1.62
8674.00,1.62
8673.00,1.62
8672.00,1.61
8671.00,1.61
8670.00,1.61
8669.00,1.61
8668.00,1.61
8667.00,1.61
8666.00,1.61
8665.00,1.61
8664.00,1.61
8663.00,1.61
8662.00,1.61
8661.00,1.61
8660.00,1.61
8659.00,1.61
8658.00,1.61
8657.00,1.61
8656.00,1.61
8655.00,1.61
8654.00,1.61
8653.00,1.61
8652.00,1.61
8651.00,1.61
8650.00,1.62
8649.00,1.61
8648.00,1.61
8647.00,1.61
8646.00,1.61
8645.00,1.61
8644.00,1.61
8643.00,1.61
8642.00,1.61
8641.00,1.61
8640.00,1.61
8639.00,1.61
8638.00,1.61
8637.00,1.61
8636.00,1.61
8635.00,1.61
8634.00,1.60
8633.00,1.60
8632.00,1.60
8631.00,1.60
8630.00,1.60
8629.00,1.60
8628.00,1.60
8627.00,1.60
8626.00,1.59
8625.00,1.59
8624.00,1.59
8623.00,1.59
8622.00,1.59
8621.00,1.59
8620.00,1.59
8619.00,1.59
8618.00,1.59
8617.00,1.59
8616.00,1.59
8615.00,1.59
8614.00,1.59
8613.00,1.59
8612.00,1.59
8611.00,1.59
8610.00,1.59
8609.00,1.59
8608.00,1.59
8607.00,1.59
8606.00,1.59
8605.00,1.59
8604.00,1.59
8603.00,1.59
8602.00,1.59
8601.00,1.59
8600.00,1.58
8599.00,1.58
8598.00,1.58
8597.00,1.58
8596.00,1.58
8595.00,1.58
8594.00,1.58
8593.00,1.58
8592.00,1.57
8591.00,1.57
8590.00,1.57
8589.00,1.57
8588.00,1.57
8587.00,1.57
8586.00,1.57
8585.00,1.57
8584.00,1.57
8583.00,1.57
8582.00,1.57
8581.00,1.57
8580.00,1.57
8579.00,1.57
8578.00,1.57
8577.00,1.57
8576.00,1.57
8575.00,1.57
8574.00,1.57
8573.00,1.57
8572.00,1.57
8571.00,1.56
8570.00,1.56
8569.00,1.56
8568.00,1.56
8567.00,1.56
8566.00,1.56
8565.00,1.56
8564.00,1.56
8563.00,1.55
8562.00,1.55
8561.00,1.55
8560.00,1.55
8559.00,1.55
8558.00,1.55
8557.00,1.55
8556.00,1.55
8555.00,1.55
8554.00,1.56
8553.00,1.56
8552.00,1.56
8551.00,1.56
8550.00,1.56
8549.00,1.56
8548.00,1.56
8547.00,1.55
8546.00,1.55
8545.00,1.55
8544.00,1.55
8543.00,1.55
8542.00,1.55
8541.00,1.54
8540.00,1.54
8539.00,1.54
8538.00,1.54
8537.00,1.54
8536.00,1.54
8535.00,1.53
8534.00,1.53
8533.00,1.53
8532.00,1.53
8531.00,1.53
8530.00,1.53
8529.00,1.53
8528.00,1.53
8527.00,1.53
8526.00,1.53
8525.00,1.53
8524.00,1.53
8523.00,1.53
8522.00,1.52
8521.00,1.52
8520.00,1.52
8519.00,1.52
8518.00,1.52
8517.00,1.52
8516.00,1.52
8515.00,1.52
8514.00,1.52
8513.00,1.52
8512.00,1.52
8511.00,1.52
8510.00,1.52
8509.00,1.52
8508.00,1.52
8507.00,1.52
8506.00,1.51
8505.00,1.51
8504.00,1.51
8503.00,1.51
8502.00,1.51
8501.00,1.51
8500.00,1.51
8499.00,1.51
8498.00,1.51
8497.00,1.50
8496.00,1.50
8495.00,1.50
8494.00,1.50
8493.00,1.50
8492.00,1.50
8491.00,1.49
8490.00,1.49
8489.00,1.49
8488.00,1.49
8487.00,1.49
8486.00,1.49
8485.00,1.49
8484.00,1.49
8483.00,1.49
8482.00,1.49
8481.00,1.49
8480.00,1.49
8479.00,1.49
8478.00,1.49
8477.00,1.49
8476.00,1.49
8475.00,1.49
8474.00,1.48
8473.00,1.48
8472.00,1.48
8471.00,1.48
8470.00,1.48
8469.00,1.48
8468.00,1.48
8467.00,1.48
8466.00,1.48
8465.00,1.48
8464.00,1.47
8463.00,1.47
8462.00,1.47
8461.00,1.47
8460.00,1.47
8459.00,1.47
8458.00,1.47
8457.00,1.47
8456.00,1.46
8455.00,1.46
8454.00,1.46
8453.00,1.46
8452.00,1.46
8451.00,1.46
8450.00,1.46
8449.00,1.45
8448.00,1.45
8447.00,1.45
8446.00,1.45
8445.00,1.45
8444.00,1.45
8443.00,1.45
8442.00,1.45
8441.00,1.45
8440.00,1.45
8439.00,1.45
8438.00,1.45
8437.00,1.45
8436.00,1.44
8435.00,1.44
8434.00,1.44
8433.00,1.44
8432.00,1.44
8431.00,1.44
8430.00,1.44
8429.00,1.44
8428.00,1.44
8427.00,1.44
8426.00,1.44
8425.00,1.44
8424.00,1.44
8423.00,1.45
8422.00,1.45
8421.00,1.45
8420.00,1.45
8419.00,1.45
8418.00,1.45
8417.00,1.46
8416.00,1.46
8415.00,1.46
8414.00,1.46
8413.00,1.46
8412.00,1.47
8411.00,1.47
8410.00,1.47
8409.00,1.47
8408.00,1.47
8407.00,1.48
8406.00,1.48
8405.00,1.48
8404.00,1.48
8403.00,1.48
8402.00,1.48
8401.00,1.48
8400.00,1.49
8399.00,1.49
8398.00,1.49
8397.00,1.49
8396.00,1.49
8395.00,1.49
8394.00,1.49
8393.00,1.49
8392.00,1.49
8391.00,1.50
8390.00,1.50
8389.00,1.50
8388.00,1.50
8387.00,1.50
8386.00,1.50
8385.00,1.50
8384.00,1.50
8383.00,1.50
8382.00,1.50
8381.00,1.50
8380.00,1.50
8379.00,1.50
8378.00,1.51
8377.00,1.51
8376.00,1.51
8375.00,1.51
8374.00,1.51
8373.00,1.51
8372.00,1.51
8371.00,1.52
8370.00,1.52
8369.00,1.52
8368.00,1.52
8367.00,1.52
8366.00,1.52
8365.00,1.52
8364.00,1.52
8363.00,1.52
8362.00,1.52
8361.00,1.52
8360.00,1.52
8359.00,1.52
8358.00,1.52
8357.00,1.52
8356.00,1.52
8355.00,1.52
8354.00,1.52
8353.00,1.52
8352.00,1.52
8351.00,1.52
8350.00,1.52
8349.00,1.52
8348.00,1.52
8347.00,1.52
8346.00,1.52
8345.00,1.52
8344.00,1.52
8343.00,1.52
8342.00,1.52
8341.00,1.52
8340.00,1.52
8339.00,1.52
8338.00,1.52
8337.00,1.52
8336.00,1.52
8335.00,1.52
8334.00,1.52
8333.00,1.52
8332.00,1.52
8331.00,1.52
8330.00,1.52
8329.00,1.52
8328.00,1.52
8327.00,1.52
8326.00,1.52
8325.00,1.52
8324.00,1.52
8323.00,1.53
8322.00,1.53
8321.00,1.53
8320.00,1.53
8319.00,1.53
8318.00,1.53
8317.00,1.53
8316.00,1.53
8315.00,1.53
8314.00,1.53
8313.00,1.53
8312.00,1.53
8311.00,1.53
8310.00,1.53
8309.00,1.54
8308.00,1.54
8307.00,1.54
8306.00,1.54
8305.00,1.54
8304.00,1.53
8303.00,1.53
8302.00,1.53
8301.00,1.53
8300.00,1.53
8299.00,1.53
8298.00,1.53
8297.00,1.53
8296.00,1.53
8295.00,1.53
8294.00,1.53
8293.00,1.53
8292.00,1.53
8291.00,1.53
8290.00,1.53
8289.00,1.53
8288.00,1.53
8287.00,1.53
8286.00,1.53
8285.00,1.53
8284.00,1.53
8283.00,1.53
8282.00,1.53
8281.00,1.53
8280.00,1.53
8279.00,1.53
8278.00,1.53
8277.00,1.54
8276.00,1.54
8275.00,1.54
8274.00,1.54
8273.00,1.54
8272.00,1.54
8271.00,1.54
8270.00,1.54
8269.00,1.54
8268.00,1.54
8267.00,1.54
8266.00,1.54
8265.00,1.54
8264.00,1.54
8263.00,1.54
8262.00,1.54
8261.00,1.54
8260.00,1.54
8259.00,1.54
8258.00,1.54
8257.00,1.54
8256.00,1.54
8255.00,1.54
8254.00,1.54
8253.00,1.54
8252.00,1.54
8251.00,1.54
8250.00,1.54
8249.00,1.54
8248.00,1.54
8247.00,1.54
8246.00,1.54
8245.00,1.54
8244.00,1.54
8243.00,1.55
8242.00,1.55
8241.00,1.55
8240.00,1.55
8239.00,1.55
8238.00,1.55
8237.00,1.55
8236.00,1.55
8235.00,1.55
8234.00,1.55
8233.00,1.56
8232.00,1.56
8231.00,1.56
8230.00,1.56
8229.00,1.56
8228.00,1.56
8227.00,1.56
8226.00,1.56
8225.00,1.56
8224.00,1.56
8223.00,1.56
8222.00,1.57
8221.00,1.57
8220.00,1.57
8219.00,1.57
8218.00,1.57
8217.00,1.57
8216.00,1.57
8215.00,1.57
8214.00,1.57
8213.00,1.57
8212.00,1.57
8211.00,1.57
8210.00,1.57
8209.00,1.57
8208.00,1.57
8207.00,1.57
8206.00,1.57
8205.00,1.57
8204.00,1.57
8203.00,1.57
8202.00,1.57
8201.00,1.57
8200.00,1.57
8199.00,1.57
8198.00,1.57
8197.00,1.57
8196.00,1.57
8195.00,1.57
8194.00,1.57
8193.00,1.57
8192.00,1.57
8191.00,1.57
8190.00,1.58
8189.00,1.58
8188.00,1.58
8187.00,1.58
8186.00,1.58
8185.00,1.58
8184.00,1.58
8183.00,1.58
8182.00,1.58
8181.00,1.58
8180.00,1.58
8179.00,1.58
8178.00,1.58
8177.00,1.58
8176.00,1.58
8175.00,1.58
8174.00,1.58
8173.00,1.58
8172.00,1.58
8171.00,1.58
8170.00,1.59
8169.00,1.59
8168.00,1.59
8167.00,1.59
8166.00,1.59
8165.00,1.59
8164.00,1.59
8163.00,1.59
8162.00,1.59
8161.00,1.59
8160.00,1.59
8159.00,1.59
8158.00,1.59
8157.00,1.59
8156.00,1.59
8155.00,1.59
8154.00,1.59
8153.00,1.59
8152.00,1.59
8151.00,1.59
8150.00,1.59
8149.00,1.60
8148.00,1.60
8147.00,1.60
8146.00,1.60
8145.00,1.60
8144.00,1.60
8143.00,1.60
8142.00,1.61
8141.00,1.61
8140.00,1.61
8139.00,1.61
8138.00,1.61
8137.00,1.61
8136.00,1.61
8135.00,1.62
8134.00,1.62
8133.00,1.62
8132.00,1.62
8131.00,1.62
8130.00,1.62
8129.00,1.62
8128.00,1.62
8127.00,1.62
8126.00,1.62
8125.00,1.62
8124.00,1.62
8123.00,1.62
8122.00,1.62
8121.00,1.62
8120.00,1.62
8119.00,1.62
8118.00,1.62
8117.00,1.62
8116.00,1.62
8115.00,1.62
8114.00,1.62
8113.00,1.62
8112.00,1.62
8111.00,1.62
8110.00,1.62
8109.00,1.62
8108.00,1.62
8107.00,1.62
8106.00,1.63
8105.00,1.63
8104.00,1.63
8103.00,1.63
8102.00,1.63
8101.00,1.63
8100.00,1.63
8099.00,1.63
8098.00,1.63
8097.00,1.63
8096.00,1.63
8095.00,1.63
8094.00,1.63
8093.00,1.63
8092.00,1.63
8091.00,1.63
8090.00,1.63
8089.00,1.63
8088.00,1.63
8087.00,1.63
8086.00,1.63
8085.00,1.63
8084.00,1.63
8083.00,1.63
8082.00,1.63
8081.00,1.63
8080.00,1.63
8079.00,1.64
8078.00,1.64
8077.00,1.64
8076.00,1.64
8075.00,1.64
8074.00,1.64
8073.00,1.64
8072.00,1.64
8071.00,1.64
8070.00,1.64
8069.00,1.64
8068.00,1.64
8067.00,1.64
8066.00,1.64
8065.00,1.64
8064.00,1.64
8063.00,1.64
8062.00,1.64
8061.00,1.64
8060.00,1.64
8059.00,1.64
8058.00,1.64
8057.00,1.64
8056.00,1.64
8055.00,1.64
8054.00,1.64
8053.00,1.64
8052.00,1.64
8051.00,1.65
8050.00,1.65
8049.00,1.65
8048.00,1.65
8047.00,1.65
8046.00,1.65
8045.00,1.65
8044.00,1.65
8043.00,1.65
8042.00,1.65
8041.00,1.65
8040.00,1.65
8039.00,1.65
8038.00,1.65
8037.00,1.65
8036.00,1.65
8035.00,1.65
8034.00,1.65
8033.00,1.65
8032.00,1.65
8031.00,1.65
8030.00,1.65
8029.00,1.65
8028.00,1.65
8027.00,1.65
8026.00,1.65
8025.00,1.65
8024.00,1.65
8023.00,1.65
8022.00,1.65
8021.00,1.65
8020.00,1.65
8019.00,1.65
8018.00,1.65
8017.00,1.65
8016.00,1.65
8015.00,1.65
8014.00,1.65
8013.00,1.65
8012.00,1.65
8011.00,1.65
8010.00,1.65
8009.00,1.65
8008.00,1.65
8007.00,1.65
8006.00,1.65
8005.00,1.65
8004.00,1.65
8003.00,1.65
8002.00,1.65
8001.00,1.65
8000.00,1.65
7999.00,1.65
7998.00,1.65
7997.00,1.65
7996.00,1.65
7995.00,1.65
7994.00,1.65
7993.00,1.65
7992.00,1.65
7991.00,1.65
7990.00,1.65
7989.00,1.65
7988.00,1.65
7987.00,1.65
7986.00,1.65
7985.00,1.65
7984.00,1.65
7983.00,1.65
7982.00,1.65
7981.00,1.65
7980.00,1.65
7979.00,1.65
7978.00,1.65
7977.00,1.66
7976.00,1.66
7975.00,1.66
7974.00,1.66
7973.00,1.66
7972.00,1.66
7971.00,1.67
7970.00,1.67
7969.00,1.67
7968.00,1.67
7967.00,1.67
7966.00,1.67
7965.00,1.67
7964.00,1.67
7963.00,1.67
7962.00,1.67
7961.00,1.68
7960.00,1.67
7959.00,1.67
7958.00,1.67
7957.00,1.67
7956.00,1.67
7955.00,1.67
7954.00,1.67
7953.00,1.67
7952.00,1.67
7951.00,1.67
7950.00,1.67
7949.00,1.67
7948.00,1.67
7947.00,1.67
7946.00,1.67
7945.00,1.67
7944.00,1.67
7943.00,1.67
7942.00,1.67
7941.00,1.67
7940.00,1.67
7939.00,1.67
7938.00,1.67
7937.00,1.67
7936.00,1.67
7935.00,1.68
7934.00,1.68
7933.00,1.68
7932.00,1.68
7931.00,1.68
7930.00,1.68
7929.00,1.68
7928.00,1.68
7927.00,1.68
7926.00,1.69
7925.00,1.69
7924.00,1.69
7923.00,1.69
7922.00,1.69
7921.00,1.69
7920.00,1.69
7919.00,1.69
7918.00,1.69
7917.00,1.69
7916.00,1.69
7915.00,1.69
7914.00,1.69
7913.00,1.69
7912.00,1.69
7911.00,1.69
7910.00,1.69
7909.00,1.69
7908.00,1.69
7907.00,1.69
7906.00,1.69
7905.00,1.69
7904.00,1.69
7903.00,1.69
7902.00,1.69
7901.00,1.69
7900.00,1.69
7899.00,1.69
7898.00,1.69
7897.00,1.69
7896.00,1.69
7895.00,1.69
7894.00,1.69
7893.00,1.69
7892.00,1.69
7891.00,1.69
7890.00,1.69
7889.00,1.69
7888.00,1.69
7887.00,1.69
7886.00,1.69
7885.00,1.69
7884.00,1.69
7883.00,1.69
7882.00,1.69
7881.00,1.69
7880.00,1.69
7879.00,1.69
7878.00,1.69
7877.00,1.69
7876.00,1.69
7875.00,1.69
7874.00,1.69
7873.00,1.69
7872.00,1.69
7871.00,1.69
7870.00,1.69
7869.00,1.69
7868.00,1.69
7867.00,1.69
7866.00,1.69
7865.00,1.69
7864.00,1.69
7863.00,1.69
7862.00,1.69
7861.00,1.69
7860.00,1.69
7859.00,1.69
7858.00,1.69
7857.00,1.69
7856.00,1.69
7855.00,1.69
7854.00,1.70
7853.00,1.70
7852.00,1.70
7851.00,1.70
7850.00,1.70
7849.00,1.70
7848.00,1.70
7847.00,1.70
7846.00,1.70
7845.00,1.70
7844.00,1.70
7843.00,1.71
7842.00,1.71
7841.00,1.71
7840.00,1.71
7839.00,1.71
7838.00,1.71
7837.00,1.71
7836.00,1.71
7835.00,1.71
7834.00,1.71
7833.00,1.70
7832.00,1.70
7831.00,1.70
7830.00,1.70
7829.00,1.70
7828.00,1.70
7827.00,1.70
7826.00,1.70
7825.00,1.70
7824.00,1.70
7823.00,1.70
7822.00,1.70
7821.00,1.70
7820.00,1.70
7819.00,1.70
7818.00,1.70
7817.00,1.70
7816.00,1.70
7815.00,1.70
7814.00,1.70
7813.00,1.71
7812.00,1.71
7811.00,1.71
7810.00,1.71
7809.00,1.71
7808.00,1.71
7807.00,1.71
7806.00,1.71
7805.00,1.71
7804.00,1.70
7803.00,1.70
7802.00,1.70
7801.00,1.70
7800.00,1.70
7799.00,1.70
7798.00,1.70
7797.00,1.70
7796.00,1.71
7795.00,1.71
7794.00,1.71
7793.00,1.71
7792.00,1.71
7791.00,1.71
7790.00,1.71
7789.00,1.71
7788.00,1.71
7787.00,1.71
7786.00,1.71
7785.00,1.71
7784.00,1.71
7783.00,1.71
7782.00,1.71
7781.00,1.71
7780.00,1.71
7779.00,1.71
7778.00,1.71
7777.00,1.71
7776.00,1.71
7775.00,1.71
7774.00,1.71
7773.00,1.71
7772.00,1.71
7771.00,1.71
7770.00,1.71
7769.00,1.71
7768.00,1.71
7767.00,1.71
7766.00,1.71
7765.00,1.71
7764.00,1.71
7763.00,1.71
7762.00,1.71
7761.00,1.71
7760.00,1.71
7759.00,1.71
7758.00,1.70
7757.00,1.70
7756.00,1.70
7755.00,1.70
7754.00,1.70
7753.00,1.70
7752.00,1.70
7751.00,1.71
7750.00,1.71
7749.00,1.71
7748.00,1.71
7747.00,1.71
7746.00,1.71
7745.00,1.71
7744.00,1.71
7743.00,1.71
7742.00,1.72
7741.00,1.72
7740.00,1.72
7739.00,1.72
7738.00,1.72
7737.00,1.72
7736.00,1.72
7735.00,1.72
7734.00,1.73
7733.00,1.73
7732.00,1.73
7731.00,1.73
7730.00,1.73
7729.00,1.73
7728.00,1.73
7727.00,1.73
7726.00,1.73
7725.00,1.73
7724.00,1.73
7723.00,1.73
7722.00,1.73
7721.00,1.73
7720.00,1.73
7719.00,1.73
7718.00,1.72
7717.00,1.72
7716.00,1.72
7715.00,1.72
7714.00,1.72
7713.00,1.72
7712.00,1.72
7711.00,1.72
7710.00,1.72
7709.00,1.72
7708.00,1.72
7707.00,1.72
7706.00,1.72
7705.00,1.72
7704.00,1.72
7703.00,1.72
7702.00,1.72
7701.00,1.72
7700.00,1.72
7699.00,1.72
7698.00,1.72
7697.00,1.72
7696.00,1.72
7695.00,1.72
7694.00,1.72
7693.00,1.73
7692.00,1.73
7691.00,1.73
7690.00,1.73
7689.00,1.73
7688.00,1.73
7687.00,1.73
7686.00,1.73
7685.00,1.73
7684.00,1.73
7683.00,1.73
7682.00,1.73
7681.00,1.73
7680.00,1.73
7679.00,1.73
7678.00,1.73
7677.00,1.73
7676.00,1.73
7675.00,1.73
7674.00,1.73
7673.00,1.73
7672.00,1.73
7671.00,1.73
7670.00,1.73
7669.00,1.73
7668.00,1.73
7667.00,1.73
7666.00,1.73
7665.00,1.73
7664.00,1.73
7663.00,1.73
7662.00,1.73
7661.00,1.73
7660.00,1.73
7659.00,1.72
7658.00,1.72
7657.00,1.72
7656.00,1.72
7655.00,1.72
7654.00,1.72
7653.00,1.72
7652.00,1.72
7651.00,1.72
7650.00,1.72
7649.00,1.72
7648.00,1.72
7647.00,1.73
7646.00,1.73
7645.00,1.73
7644.00,1.73
7643.00,1.73
7642.00,1.73
7641.00,1.73
7640.00,1.73
7639.00,1.73
7638.00,1.73
7637.00,1.73
7636.00,1.73
7635.00,1.73
7634.00,1.73
7633.00,1.73
7632.00,1.73
7631.00,1.73
7630.00,1.73
7629.00,1.73
7628.00,1.73
7627.00,1.73
7626.00,1.73
7625.00,1.73
7624.00,1.73
7623.00,1.73
7622.00,1.73
7621.00,1.73
7620.00,1.73
7619.00,1.73
7618.00,1.73
7617.00,1.73
7616.00,1.73
7615.00,1.73
7614.00,1.73
7613.00,1.73
7612.00,1.73
7611.00,1.73
7610.00,1.73
7609.00,1.73
7608.00,1.73
7607.00,1.73
7606.00,1.73
7605.00,1.73
7604.00,1.73
7603.00,1.73
7602.00,1.73
7601.00,1.73
7600.00,1.73
7599.00,1.73
7598.00,1.72
7597.00,1.72
7596.00,1.72
7595.00,1.72
7594.00,1.72
7593.00,1.72
7592.00,1.72
7591.00,1.72
7590.00,1.72
7589.00,1.72
7588.00,1.72
7587.00,1.72
7586.00,1.72
7585.00,1.72
7584.00,1.72
7583.00,1.72
7582.00,1.72
7581.00,1.72
7580.00,1.72
7579.00,1.72
7578.00,1.72
7577.00,1.72
7576.00,1.72
7575.00,1.72
7574.00,1.72
7573.00,1.72
7572.00,1.72
7571.00,1.72
7570.00,1.72
7569.00,1.72
7568.00,1.72
7567.00,1.72
7566.00,1.72
7565.00,1.72
7564.00,1.73
7563.00,1.73
7562.00,1.73
7561.00,1.73
7560.00,1.73
7559.00,1.73
7558.00,1.73
7557.00,1.73
7556.00,1.73
7555.00,1.73
7554.00,1.73
7553.00,1.73
7552.00,1.73
7551.00,1.72
7550.00,1.72
7549.00,1.72
7548.00,1.72
7547.00,1.72
7546.00,1.72
7545.00,1.72
7544.00,1.72
7543.00,1.72
7542.00,1.71
7541.00,1.71
7540.00,1.71
7539.00,1.71
7538.00,1.71
7537.00,1.71
7536.00,1.71
7535.00,1.71
7534.00,1.71
7533.00,1.71
7532.00,1.71
7531.00,1.71
7530.00,1.71
7529.00,1.71
7528.00,1.71
7527.00,1.71
7526.00,1.71
7525.00,1.71
7524.00,1.71
7523.00,1.71
7522.00,1.71
7521.00,1.71
7520.00,1.71
7519.00,1.71
7518.00,1.71
7517.00,1.71
7516.00,1.70
7515.00,1.70
7514.00,1.70
7513.00,1.70
7512.00,1.70
7511.00,1.70
7510.00,1.70
7509.00,1.70
7508.00,1.70
7507.00,1.69
7506.00,1.69
7505.00,1.69
7504.00,1.69
7503.00,1.69
7502.00,1.69
7501.00,1.69
7500.00,1.69
7499.00,1.69
7498.00,1.69
7497.00,1.69
7496.00,1.69
7495.00,1.69
7494.00,1.69
7493.00,1.69
7492.00,1.69
7491.00,1.69
7490.00,1.69
7489.00,1.69
7488.00,1.69
7487.00,1.69
7486.00,1.69
7485.00,1.68
7484.00,1.68
7483.00,1.68
7482.00,1.68
7481.00,1.68
7480.00,1.68
7479.00,1.68
7478.00,1.68
7477.00,1.68
7476.00,1.68
7475.00,1.68
7474.00,1.68
7473.00,1.68
7472.00,1.68
7471.00,1.68
7470.00,1.68
7469.00,1.68
7468.00,1.68
7467.00,1.68
7466.00,1.68
7465.00,1.68
7464.00,1.68
7463.00,1.68
7462.00,1.68
7461.00,1.68
7460.00,1.67
7459.00,1.67
7458.00,1.67
7457.00,1.67
7456.00,1.67
7455.00,1.67
7454.00,1.67
7453.00,1.67
7452.00,1.67
7451.00,1.67
7450.00,1.67
7449.00,1.67
7448.00,1.67
7447.00,1.67
7446.00,1.67
7445.00,1.66
7444.00,1.66
7443.00,1.66
7442.00,1.66
7441.00,1.66
7440.00,1.66
7439.00,1.66
7438.00,1.66
7437.00,1.65
7436.00,1.65
7435.00,1.65
7434.00,1.65
7433.00,1.65
7432.00,1.65
7431.00,1.65
7430.00,1.65
7429.00,1.65
7428.00,1.65
7427.00,1.65
7426.00,1.65
7425.00,1.64
7424.00,1.64
7423.00,1.64
7422.00,1.64
7421.00,1.64
7420.00,1.64
7419.00,1.64
7418.00,1.64
7417.00,1.64
7416.00,1.63
7415.00,1.63
7414.00,1.63
7413.00,1.63
7412.00,1.63
7411.00,1.62
7410.00,1.62
7409.00,1.62
7408.00,1.62
7407.00,1.61
7406.00,1.61
7405.00,1.61
7404.00,1.61
7403.00,1.60
7402.00,1.60
7401.00,1.60
7400.00,1.60
7399.00,1.60
7398.00,1.60
7397.00,1.59
7396.00,1.59
7395.00,1.59
7394.00,1.59
7393.00,1.59
7392.00,1.59
7391.00,1.59
7390.00,1.59
7389.00,1.59
7388.00,1.58
7387.00,1.58
7386.00,1.58
7385.00,1.58
7384.00,1.58
7383.00,1.58
7382.00,1.58
7381.00,1.57
7380.00,1.57
7379.00,1.57
7378.00,1.57
7377.00,1.57
7376.00,1.57
7375.00,1.56
7374.00,1.56
7373.00,1.56
7372.00,1.56
7371.00,1.56
7370.00,1.56
7369.00,1.56
7368.00,1.56
7367.00,1.56
7366.00,1.56
7365.00,1.56
7364.00,1.56
7363.00,1.56
7362.00,1.56
7361.00,1.56
7360.00,1.56
7359.00,1.56
7358.00,1.56
7357.00,1.56
7356.00,1.56
7355.00,1.56
7354.00,1.56
7353.00,1.56
7352.00,1.56
7351.00,1.56
7350.00,1.56
7349.00,1.56
7348.00,1.55
7347.00,1.55
7346.00,1.55
7345.00,1.55
7344.00,1.55
7343.00,1.55
7342.00,1.55
7341.00,1.55
7340.00,1.55
7339.00,1.55
7338.00,1.55
7337.00,1.55
7336.00,1.55
7335.00,1.55
7334.00,1.55
7333.00,1.55
7332.00,1.56
7331.00,1.56
7330.00,1.56
7329.00,1.56
7328.00,1.56
7327.00,1.56
7326.00,1.56
7325.00,1.56
7324.00,1.56
7323.00,1.55
7322.00,1.55
7321.00,1.55
7320.00,1.55
7319.00,1.55
7318.00,1.55
7317.00,1.55
7316.00,1.55
7315.00,1.55
7314.00,1.54
7313.00,1.54
7312.00,1.54
7311.00,1.54
7310.00,1.54
7309.00,1.54
7308.00,1.53
7307.00,1.53
7306.00,1.53
7305.00,1.53
7304.00,1.53
7303.00,1.52
7302.00,1.52
7301.00,1.52
7300.00,1.52
7299.00,1.52
7298.00,1.51
7297.00,1.51
7296.00,1.51
7295.00,1.51
7294.00,1.51
7293.00,1.50
7292.00,1.50
7291.00,1.50
7290.00,1.50
7289.00,1.50
7288.00,1.50
7287.00,1.50
7286.00,1.49
7285.00,1.49
7284.00,1.49
7283.00,1.49
7282.00,1.49
7281.00,1.49
7280.00,1.49
7279.00,1.49
7278.00,1.49
7277.00,1.49
7276.00,1.48
7275.00,1.48
7274.00,1.48
7273.00,1.48
7272.00,1.48
7271.00,1.48
7270.00,1.48
7269.00,1.48
7268.00,1.47
7267.00,1.47
7266.00,1.47
7265.00,1.47
7264.00,1.47
7263.00,1.46
7262.00,1.46
7261.00,1.46
7260.00,1.46
7259.00,1.46
7258.00,1.45
7257.00,1.45
7256.00,1.45
7255.00,1.45
7254.00,1.45
7253.00,1.44
7252.00,1.44
7251.00,1.44
7250.00,1.43
7249.00,1.43
7248.00,1.43
7247.00,1.42
7246.00,1.42
7245.00,1.41
7244.00,1.41
7243.00,1.41
7242.00,1.40
7241.00,1.40
7240.00,1.39
7239.00,1.39
7238.00,1.39
7237.00,1.38
7236.00,1.38
7235.00,1.37
7234.00,1.37
7233.00,1.37
7232.00,1.36
7231.00,1.36
7230.00,1.36
7229.00,1.35
7228.00,1.35
7227.00,1.35
7226.00,1.34
7225.00,1.34
7224.00,1.33
7223.00,1.33
7222.00,1.33
7221.00,1.32
7220.00,1.32
7219.00,1.31
7218.00,1.31
7217.00,1.30
7216.00,1.30
7215.00,1.30
7214.00,1.29
7213.00,1.29
7212.00,1.28
7211.00,1.28
7210.00,1.28
7209.00,1.27
7208.00,1.27
7207.00,1.27
7206.00,1.26
7205.00,1.26
7204.00,1.26
7203.00,1.25
7202.00,1.25
7201.00,1.25
7200.00,1.24
7199.00,1.24
7198.00,1.23
7197.00,1.23
7196.00,1.23
7195.00,1.22
7194.00,1.22
7193.00,1.22
7192.00,1.21
7191.00,1.21
7190.00,1.21
7189.00,1.20
7188.00,1.20
7187.00,1.20
7186.00,1.19
7185.00,1.19
7184.00,1.19
7183.00,1.18
7182.00,1.18
7181.00,1.18
7180.00,1.17
7179.00,1.17
7178.00,1.17
7177.00,1.17
7176.00,1.16
7175.00,1.16
7174.00,1.16
7173.00,1.15
7172.00,1.15
7171.00,1.15
7170.00,1.14
7169.00,1.14
7168.00,1.14
7167.00,1.14
7166.00,1.13
7165.00,1.13
7164.00,1.13
7163.00,1.12
7162.00,1.12
7161.00,1.12
7160.00,1.11
7159.00,1.11
7158.00,1.11
7157.00,1.11
7156.00,1.10
7155.00,1.10
7154.00,1.10
7153.00,1.10
7152.00,1.09
7151.00,1.09
7150.00,1.09
7149.00,1.08
7148.00,1.08
7147.00,1.08
7146.00,1.07
7145.00,1.07
7144.00,1.07
7143.00,1.06
7142.00,1.06
7141.00,1.06
7140.00,1.05
7139.00,1.05
7138.00,1.05
7137.00,1.04
7136.00,1.04
7135.00,1.03
7134.00,1.03
7133.00,1.03
7132.00,1.02
7131.00,1.02
7130.00,1.02
7129.00,1.01
7128.00,1.01
7127.00,1.01
7126.00,1.00
7125.00,1.00
7124.00,1.00
7123.00,0.99
7122.00,0.99
7121.00,0.99
7120.00,0.99
7119.00,0.98
7118.00,0.98
7117.00,0.98
7116.00,0.97
7115.00,0.97
7114.00,0.97
7113.00,0.96
7112.00,0.96
7111.00,0.96
7110.00,0.95
7109.00,0.95
7108.00,0.95
7107.00,0.94
7106.00,0.94
7105.00,0.94
7104.00,0.94
7103.00,0.93
7102.00,0.93
7101.00,0.93
7100.00,0.93
7099.00,0.92
7098.00,0.92
7097.00,0.92
7096.00,0.91
7095.00,0.91
7094.00,0.91
7093.00,0.91
7092.00,0.91
7091.00,0.90
7090.00,0.90
7089.00,0.90
7088.00,0.90
7087.00,0.89
7086.00,0.89
7085.00,0.89
7084.00,0.89
7083.00,0.89
7082.00,0.89
7081.00,0.89
7080.00,0.88
7079.00,0.88
7078.00,0.88
7077.00,0.88
7076.00,0.88
7075.00,0.88
7074.00,0.88
7073.00,0.88
7072.00,0.88
7071.00,0.87
7070.00,0.87
7069.00,0.87
7068.00,0.87
7067.00,0.87
7066.00,0.87
7065.00,0.86
7064.00,0.86
7063.00,0.86
7062.00,0.86
7061.00,0.86
7060.00,0.86
7059.00,0.85
7058.00,0.85
7057.00,0.85
7056.00,0.85
7055.00,0.85
7054.00,0.84
7053.00,0.84
7052.00,0.84
7051.00,0.84
7050.00,0.84
7049.00,0.84
7048.00,0.83
7047.00,0.83
7046.00,0.83
7045.00,0.83
7044.00,0.83
7043.00,0.83
7042.00,0.83
7041.00,0.82
7040.00,0.82
7039.00,0.82
7038.00,0.82
7037.00,0.82
7036.00,0.82
7035.00,0.82
7034.00,0.82
7033.00,0.82
7032.00,0.81
7031.00,0.81
7030.00,0.81
7029.00,0.81
7028.00,0.81
7027.00,0.81
7026.00,0.81
7025.00,0.81
7024.00,0.81
7023.00,0.81
7022.00,0.81
7021.00,0.81
7020.00,0.81
7019.00,0.81
7018.00,0.81
7017.00,0.81
7016.00,0.81
7015.00,0.81
7014.00,0.80
7013.00,0.80
7012.00,0.80
7011.00,0.80
7010.00,0.80
7009.00,0.80
7008.00,0.80
7007.00,0.80
7006.00,0.80
7005.00,0.79
7004.00,0.79
7003.00,0.79
7002.00,0.79
7001.00,0.79
7000.00,0.79
6999.00,0.79
6998.00,0.79
6997.00,0.79
6996.00,0.79
6995.00,0.79
6994.00,0.79
6993.00,0.78
6992.00,0.78
6991.00,0.78
6990.00,0.78
6989.00,0.78
6988.00,0.78
6987.00,0.78
6986.00,0.78
6985.00,0.78
6984.00,0.78
6983.00,0.78
6982.00,0.78
6981.00,0.78
6980.00,0.77
6979.00,0.77
6978.00,0.77
6977.00,0.77
6976.00,0.77
6975.00,0.77
6974.00,0.77
6973.00,0.77
6972.00,0.77
6971.00,0.77
6970.00,0.77
6969.00,0.77
6968.00,0.77
6967.00,0.77
6966.00,0.77
6965.00,0.77
6964.00,0.77
6963.00,0.77
6962.00,0.77
6961.00,0.77
6960.00,0.77
6959.00,0.77
6958.00,0.77
6957.00,0.77
6956.00,0.77
6955.00,0.77
6954.00,0.77
6953.00,0.77
6952.00,0.77
6951.00,0.77
6950.00,0.77
6949.00,0.77
6948.00,0.77
6947.00,0.77
6946.00,0.77
6945.00,0.77
6944.00,0.77
6943.00,0.77
6942.00,0.77
6941.00,0.77
6940.00,0.77
6939.00,0.77
6938.00,0.77
6937.00,0.77
6936.00,0.77
6935.00,0.77
6934.00,0.77
6933.00,0.76
6932.00,0.76
6931.00,0.76
6930.00,0.76
6929.00,0.76
6928.00,0.76
6927.00,0.76
6926.00,0.76
6925.00,0.76
6924.00,0.76
6923.00,0.76
6922.00,0.76
6921.00,0.76
6920.00,0.76
6919.00,0.76
6918.00,0.76
6917.00,0.76
6916.00,0.76
6915.00,0.76
6914.00,0.75
6913.00,0.75
6912.00,0.75
6911.00,0.75
6910.00,0.75
6909.00,0.75
6908.00,0.75
6907.00,0.75
6906.00,0.75
6905.00,0.75
6904.00,0.75
6903.00,0.75
6902.00,0.75
6901.00,0.75
6900.00,0.75
6899.00,0.75
6898.00,0.75
6897.00,0.75
6896.00,0.75
6895.00,0.75
6894.00,0.75
6893.00,0.75
6892.00,0.75
6891.00,0.75
6890.00,0.75
6889.00,0.75
6888.00,0.75
6887.00,0.75
6886.00,0.75
6885.00,0.75
6884.00,0.75
6883.00,0.76
6882.00,0.76
6881.00,0.76
6880.00,0.76
6879.00,0.76
6878.00,0.76
6877.00,0.76
6876.00,0.76
6875.00,0.76
6874.00,0.76
6873.00,0.76
6872.00,0.76
6871.00,0.76
6870.00,0.76
6869.00,0.76
6868.00,0.75
6867.00,0.75
6866.00,0.75
6865.00,0.75
6864.00,0.75
6863.00,0.75
6862.00,0.76
6861.00,0.76
6860.00,0.76
6859.00,0.76
6858.00,0.76
6857.00,0.76
6856.00,0.76
6855.00,0.76
6854.00,0.76
6853.00,0.76
6852.00,0.76
6851.00,0.76
6850.00,0.76
6849.00,0.76
6848.00,0.76
6847.00,0.76
6846.00,0.76
6845.00,0.76
6844.00,0.76
6843.00,0.76
6842.00,0.76
6841.00,0.76
6840.00,0.76
6839.00,0.76
6838.00,0.76
6837.00,0.76
6836.00,0.76
6835.00,0.76
6834.00,0.76
6833.00,0.76
6832.00,0.76
6831.00,0.76
6830.00,0.76
6829.00,0.76
6828.00,0.76
6827.00,0.76
6826.00,0.76
6825.00,0.76
6824.00,0.76
6823.00,0.76
6822.00,0.76
6821.00,0.76
6820.00,0.76
6819.00,0.76
6818.00,0.77
6817.00,0.77
6816.00,0.77
6815.00,0.77
6814.00,0.77
6813.00,0.77
6812.00,0.77
6811.00,0.77
6810.00,0.77
6809.00,0.77
6808.00,0.77
6807.00,0.77
6806.00,0.77
6805.00,0.77
6804.00,0.77
6803.00,0.77
6802.00,0.77
6801.00,0.77
6800.00,0.77
6799.00,0.77
6798.00,0.77
6797.00,0.77
6796.00,0.77
6795.00,0.77
6794.00,0.77
6793.00,0.77
6792.00,0.77
6791.00,0.77
6790.00,0.77
6789.00,0.77
6788.00,0.77
6787.00,0.77
6786.00,0.77
6785.00,0.78
6784.00,0.78
6783.00,0.78
6782.00,0.78
6781.00,0.78
6780.00,0.78
6779.00,0.78
6778.00,0.78
6777.00,0.78
6776.00,0.78
6775.00,0.78
6774.00,0.78
6773.00,0.78
6772.00,0.78
6771.00,0.78
6770.00,0.78
6769.00,0.78
6768.00,0.78
6767.00,0.79
6766.00,0.79
6765.00,0.79
6764.00,0.79
6763.00,0.79
6762.00,0.79
6761.00,0.79
6760.00,0.79
6759.00,0.79
6758.00,0.79
6757.00,0.79
6756.00,0.79
6755.00,0.79
6754.00,0.80
6753.00,0.80
6752.00,0.80
6751.00,0.80
6750.00,0.80
6749.00,0.80
6748.00,0.80
6747.00,0.80
6746.00,0.81
6745.00,0.81
6744.00,0.81
6743.00,0.81
6742.00,0.81
6741.00,0.81
6740.00,0.81
6739.00,0.81
6738.00,0.81
6737.00,0.81
6736.00,0.81
6735.00,0.81
6734.00,0.81
6733.00,0.81
6732.00,0.81
6731.00,0.81
6730.00,0.81
6729.00,0.82
6728.00,0.82
6727.00,0.82
6726.00,0.82
6725.00,0.82
6724.00,0.82
6723.00,0.82
6722.00,0.82
6721.00,0.82
6720.00,0.82
6719.00,0.82
6718.00,0.82
6717.00,0.82
6716.00,0.82
6715.00,0.82
6714.00,0.82
6713.00,0.82
6712.00,0.82
6711.00,0.82
6710.00,0.82
6709.00,0.82
6708.00,0.82
6707.00,0.83
6706.00,0.83
6705.00,0.83
6704.00,0.83
6703.00,0.83
6702.00,0.83
6701.00,0.83
6700.00,0.83
6699.00,0.83
6698.00,0.84
6697.00,0.84
6696.00,0.84
6695.00,0.84
6694.00,0.84
6693.00,0.84
6692.00,0.84
6691.00,0.84
6690.00,0.85
6689.00,0.85
6688.00,0.85
6687.00,0.85
6686.00,0.85
6685.00,0.85
6684.00,0.85
6683.00,0.85
6682.00,0.85
6681.00,0.85
6680.00,0.85
6679.00,0.85
6678.00,0.85
6677.00,0.85
6676.00,0.85
6675.00,0.86
6674.00,0.86
6673.00,0.86
6672.00,0.86
6671.00,0.86
6670.00,0.86
6669.00,0.86
6668.00,0.87
6667.00,0.87
6666.00,0.87
6665.00,0.87
6664.00,0.87
6663.00,0.87
6662.00,0.88
6661.00,0.88
6660.00,0.88
6659.00,0.88
6658.00,0.88
6657.00,0.88
6656.00,0.88
6655.00,0.88
6654.00,0.88
6653.00,0.88
6652.00,0.89
6651.00,0.89
6650.00,0.89
6649.00,0.89
6648.00,0.89
6647.00,0.89
6646.00,0.89
6645.00,0.89
6644.00,0.89
6643.00,0.89
6642.00,0.89
6641.00,0.89
6640.00,0.89
6639.00,0.89
6638.00,0.90
6637.00,0.90
6636.00,0.90
6635.00,0.90
6634.00,0.90
6633.00,0.90
6632.00,0.90
6631.00,0.90
6630.00,0.91
6629.00,0.91
6628.00,0.91
6627.00,0.91
6626.00,0.91
6625.00,0.91
6624.00,0.91
6623.00,0.91
6622.00,0.92
6621.00,0.92
6620.00,0.92
6619.00,0.92
6618.00,0.92
6617.00,0.92
6616.00,0.92
6615.00,0.92
6614.00,0.92
6613.00,0.92
6612.00,0.92
6611.00,0.92
6610.00,0.93
6609.00,0.93
6608.00,0.93
6607.00,0.93
6606.00,0.93
6605.00,0.93
6604.00,0.93
6603.00,0.93
6602.00,0.93
6601.00,0.93
6600.00,0.93
6599.00,0.93
6598.00,0.93
6597.00,0.94
6596.00,0.94
6595.00,0.94
6594.00,0.94
6593.00,0.94
6592.00,0.94
6591.00,0.94
6590.00,0.94
6589.00,0.95
6588.00,0.95
6587.00,0.95
6586.00,0.95
6585.00,0.95
6584.00,0.95
6583.00,0.95
6582.00,0.95
6581.00,0.95
6580.00,0.95
6579.00,0.95
6578.00,0.95
6577.00,0.96
6576.00,0.96
6575.00,0.96
6574.00,0.96
6573.00,0.96
6572.00,0.96
6571.00,0.96
6570.00,0.96
6569.00,0.96
6568.00,0.96
6567.00,0.96
6566.00,0.97
6565.00,0.97
6564.00,0.97
6563.00,0.97
6562.00,0.97
6561.00,0.97
6560.00,0.97
6559.00,0.97
6558.00,0.97
6557.00,0.97
6556.00,0.97
6555.00,0.98
6554.00,0.98
6553.00,0.98
6552.00,0.98
6551.00,0.98
6550.00,0.98
6549.00,0.98
6548.00,0.98
6547.00,0.98
6546.00,0.98
6545.00,0.98
6544.00,0.98
6543.00,0.99
6542.00,0.99
6541.00,0.99
6540.00,0.99
6539.00,0.99
6538.00,0.99
6537.00,0.99
6536.00,0.99
6535.00,0.99
6534.00,0.99
6533.00,1.00
6532.00,1.00
6531.00,1.00
6530.00,1.00
6529.00,1.00
6528.00,1.00
6527.00,1.00
6526.00,1.00
6525.00,1.00
6524.00,1.00
6523.00,1.00
6522.00,1.00
6521.00,1.00
6520.00,1.00
6519.00,1.01
6518.00,1.01
6517.00,1.01
6516.00,1.01
6515.00,1.01
6514.00,1.01
6513.00,1.01
6512.00,1.01
6511.00,1.01
6510.00,1.02
6509.00,1.02
6508.00,1.02
6507.00,1.02
6506.00,1.02
6505.00,1.02
6504.00,1.02
6503.00,1.02
6502.00,1.02
6501.00,1.03
6500.00,1.03
6499.00,1.03
6498.00,1.03
6497.00,1.03
6496.00,1.03
6495.00,1.03
6494.00,1.03
6493.00,1.03
6492.00,1.03
6491.00,1.03
6490.00,1.03
6489.00,1.03
6488.00,1.03
6487.00,1.03
6486.00,1.03
6485.00,1.03
6484.00,1.03
6483.00,1.03
6482.00,1.03
6481.00,1.03
6480.00,1.04
6479.00,1.04
6478.00,1.04
6477.00,1.04
6476.00,1.04
6475.00,1.04
6474.00,1.04
6473.00,1.04
6472.00,1.04
6471.00,1.04
6470.00,1.04
6469.00,1.05
6468.00,1.05
6467.00,1.05
6466.00,1.05
6465.00,1.05
6464.00,1.05
6463.00,1.05
6462.00,1.05
6461.00,1.05
6460.00,1.05
6459.00,1.05
6458.00,1.05
6457.00,1.05
6456.00,1.05
6455.00,1.05
6454.00,1.05
6453.00,1.05
6452.00,1.05
6451.00,1.05
6450.00,1.05
6449.00,1.06
6448.00,1.06
6447.00,1.06
6446.00,1.06
6445.00,1.06
6444.00,1.06
6443.00,1.06
6442.00,1.06
6441.00,1.06
6440.00,1.06
6439.00,1.06
6438.00,1.06
6437.00,1.06
6436.00,1.06
6435.00,1.06
6434.00,1.06
6433.00,1.06
6432.00,1.06
6431.00,1.06
6430.00,1.06
6429.00,1.06
6428.00,1.06
6427.00,1.06
6426.00,1.06
6425.00,1.07
6424.00,1.07
6423.00,1.07
6422.00,1.07
6421.00,1.07
6420.00,1.07
6419.00,1.07
6418.00,1.07
6417.00,1.07
6416.00,1.07
6415.00,1.07
6414.00,1.07
6413.00,1.08
6412.00,1.08
6411.00,1.08
6410.00,1.08
6409.00,1.08
6408.00,1.08
6407.00,1.08
6406.00,1.08
6405.00,1.08
6404.00,1.08
6403.00,1.08
6402.00,1.07
6401.00,1.07
6400.00,1.07
6399.00,1.07
6398.00,1.07
6397.00,1.07
6396.00,1.07
6395.00,1.07
6394.00,1.07
6393.00,1.07
6392.00,1.08
6391.00,1.08
6390.00,1.08
6389.00,1.08
6388.00,1.08
6387.00,1.08
6386.00,1.08
6385.00,1.08
6384.00,1.08
6383.00,1.09
6382.00,1.09
6381.00,1.09
6380.00,1.09
6379.00,1.09
6378.00,1.09
6377.00,1.09
6376.00,1.09
6375.00,1.10
6374.00,1.10
6373.00,1.10
6372.00,1.10
6371.00,1.10
6370.00,1.10
6369.00,1.10
6368.00,1.10
6367.00,1.10
6366.00,1.10
6365.00,1.10
6364.00,1.11
6363.00,1.11
6362.00,1.11
6361.00,1.11
6360.00,1.11
6359.00,1.11
6358.00,1.11
6357.00,1.11
6356.00,1.11
6355.00,1.11
6354.00,1.11
6353.00,1.11
6352.00,1.11
6351.00,1.12
6350.00,1.12
6349.00,1.12
6348.00,1.12
6347.00,1.12
6346.00,1.12
6345.00,1.12
6344.00,1.12
6343.00,1.12
6342.00,1.13
6341.00,1.13
6340.00,1.13
6339.00,1.13
6338.00,1.13
6337.00,1.13
6336.00,1.13
6335.00,1.14
6334.00,1.14
6333.00,1.14
6332.00,1.14
6331.00,1.14
6330.00,1.14
6329.00,1.14
6328.00,1.14
6327.00,1.14
6326.00,1.15
6325.00,1.15
6324.00,1.15
6323.00,1.15
6322.00,1.15
6321.00,1.15
6320.00,1.15
6319.00,1.15
6318.00,1.15
6317.00,1.15
6316.00,1.15
6315.00,1.16
6314.00,1.16
6313.00,1.16
6312.00,1.16
6311.00,1.16
6310.00,1.16
6309.00,1.16
6308.00,1.16
6307.00,1.16
6306.00,1.17
6305.00,1.17
6304.00,1.17
6303.00,1.17
6302.00,1.17
6301.00,1.17
6300.00,1.17
6299.00,1.17
6298.00,1.18
6297.00,1.18
6296.00,1.18
6295.00,1.18
6294.00,1.18
6293.00,1.18
6292.00,1.18
6291.00,1.18
6290.00,1.18
6289.00,1.18
6288.00,1.19
6287.00,1.19
6286.00,1.19
6285.00,1.19
6284.00,1.19
6283.00,1.19
6282.00,1.19
6281.00,1.19
6280.00,1.20
6279.00,1.20
6278.00,1.20
6277.00,1.20
6276.00,1.20
6275.00,1.20
6274.00,1.20
6273.00,1.21
6272.00,1.21
6271.00,1.21
6270.00,1.21
6269.00,1.21
6268.00,1.21
6267.00,1.21
6266.00,1.21
6265.00,1.21
6264.00,1.22
6263.00,1.22
6262.00,1.22
6261.00,1.22
6260.00,1.22
6259.00,1.22
6258.00,1.22
6257.00,1.23
6256.00,1.23
6255.00,1.23
6254.00,1.23
6253.00,1.23
6252.00,1.23
6251.00,1.24
6250.00,1.24
6249.00,1.24
6248.00,1.24
6247.00,1.24
6246.00,1.24
6245.00,1.25
6244.00,1.25
6243.00,1.25
6242.00,1.25
6241.00,1.25
6240.00,1.25
6239.00,1.25
6238.00,1.26
6237.00,1.26
6236.00,1.26
6235.00,1.26
6234.00,1.26
6233.00,1.26
6232.00,1.26
6231.00,1.27
6230.00,1.27
6229.00,1.27
6228.00,1.27
6227.00,1.27
6226.00,1.27
6225.00,1.27
6224.00,1.28
6223.00,1.28
6222.00,1.28
6221.00,1.28
6220.00,1.28
6219.00,1.28
6218.00,1.28
6217.00,1.29
6216.00,1.29
6215.00,1.29
6214.00,1.29
6213.00,1.29
6212.00,1.29
6211.00,1.29
6210.00,1.30
6209.00,1.30
6208.00,1.30
6207.00,1.30
6206.00,1.30
6205.00,1.30
6204.00,1.30
6203.00,1.31
6202.00,1.31
6201.00,1.31
6200.00,1.31
6199.00,1.31
6198.00,1.32
6197.00,1.32
6196.00,1.32
6195.00,1.32
6194.00,1.32
6193.00,1.33
6192.00,1.33
6191.00,1.33
6190.00,1.33
6189.00,1.34
6188.00,1.34
6187.00,1.34
6186.00,1.34
6185.00,1.34
6184.00,1.35
6183.00,1.35
6182.00,1.35
6181.00,1.35
6180.00,1.35
6179.00,1.35
6178.00,1.36
6177.00,1.36
6176.00,1.36
6175.00,1.36
6174.00,1.36
6173.00,1.36
6172.00,1.37
6171.00,1.37
6170.00,1.37
6169.00,1.37
6168.00,1.37
6167.00,1.37
6166.00,1.38
6165.00,1.38
6164.00,1.38
6163.00,1.38
6162.00,1.38
6161.00,1.38
6160.00,1.39
6159.00,1.39
6158.00,1.39
6157.00,1.39
6156.00,1.39
6155.00,1.39
6154.00,1.40
6153.00,1.40
6152.00,1.40
6151.00,1.40
6150.00,1.40
6149.00,1.40
6148.00,1.40
6147.00,1.41
6146.00,1.41
6145.00,1.41
6144.00,1.41
6143.00,1.41
6142.00,1.42
6141.00,1.42
6140.00,1.42
6139.00,1.42
6138.00,1.42
6137.00,1.42
6136.00,1.43
6135.00,1.43
6134.00,1.43
6133.00,1.43
6132.00,1.43
6131.00,1.43
6130.00,1.44
6129.00,1.44
6128.00,1.44
6127.00,1.44
6126.00,1.44
6125.00,1.45
6124.00,1.45
6123.00,1.45
6122.00,1.45
6121.00,1.46
6120.00,1.46
6119.00,1.46
6118.00,1.46
6117.00,1.47
6116.00,1.47
6115.00,1.47
6114.00,1.47
6113.00,1.47
6112.00,1.48
6111.00,1.48
6110.00,1.48
6109.00,1.48
6108.00,1.48
6107.00,1.49
6106.00,1.49
6105.00,1.49
6104.00,1.49
6103.00,1.49
6102.00,1.49
6101.00,1.49
6100.00,1.50
6099.00,1.50
6098.00,1.50
6097.00,1.50
6096.00,1.50
6095.00,1.51
6094.00,1.51
6093.00,1.51
6092.00,1.51
6091.00,1.51
6090.00,1.52
6089.00,1.52
6088.00,1.52
6087.00,1.52
6086.00,1.52
6085.00,1.52
6084.00,1.53
6083.00,1.53
6082.00,1.53
6081.00,1.53
6080.00,1.53
6079.00,1.53
6078.00,1.53
6077.00,1.53
6076.00,1.53
6075.00,1.53
6074.00,1.54
6073.00,1.54
6072.00,1.54
6071.00,1.54
6070.00,1.54
6069.00,1.54
6068.00,1.54
6067.00,1.54
6066.00,1.55
6065.00,1.55
6064.00,1.55
6063.00,1.55
6062.00,1.55
6061.00,1.56
6060.00,1.56
6059.00,1.56
6058.00,1.56
6057.00,1.56
6056.00,1.56
6055.00,1.56
6054.00,1.57
6053.00,1.57
6052.00,1.57
6051.00,1.57
6050.00,1.57
6049.00,1.57
6048.00,1.57
6047.00,1.57
6046.00,1.57
6045.00,1.57
6044.00,1.58
6043.00,1.58
6042.00,1.58
6041.00,1.58
6040.00,1.58
6039.00,1.58
6038.00,1.58
6037.00,1.58
6036.00,1.58
6035.00,1.58
6034.00,1.59
6033.00,1.59
6032.00,1.59
6031.00,1.59
6030.00,1.59
6029.00,1.59
6028.00,1.59
6027.00,1.59
6026.00,1.59
6025.00,1.59
6024.00,1.59
6023.00,1.59
6022.00,1.59
6021.00,1.59
6020.00,1.59
6019.00,1.59
6018.00,1.59
6017.00,1.59
6016.00,1.59
6015.00,1.59
6014.00,1.59
6013.00,1.59
6012.00,1.59
6011.00,1.59
6010.00,1.59
6009.00,1.59
6008.00,1.59
6007.00,1.59
6006.00,1.59
6005.00,1.59
6004.00,1.59
6003.00,1.59
6002.00,1.58
6001.00,1.58
6000.00,1.58
5999.00,1.58
5998.00,1.58
5997.00,1.58
5996.00,1.58
5995.00,1.57
5994.00,1.57
5993.00,1.57
5992.00,1.57
5991.00,1.56
5990.00,1.56
5989.00,1.56
5988.00,1.56
5987.00,1.55
5986.00,1.55
5985.00,1.55
5984.00,1.54
5983.00,1.54
5982.00,1.53
5981.00,1.53
5980.00,1.52
5979.00,1.52
5978.00,1.51
5977.00,1.51
5976.00,1.50
5975.00,1.49
5974.00,1.49
5973.00,1.48
5972.00,1.47
5971.00,1.47
5970.00,1.46
5969.00,1.45
5968.00,1.44
5967.00,1.43
5966.00,1.42
5965.00,1.42
5964.00,1.41
5963.00,1.40
5962.00,1.39
5961.00,1.38
5960.00,1.37
5959.00,1.36
5958.00,1.35
5957.00,1.34
5956.00,1.33
5955.00,1.32
5954.00,1.31
5953.00,1.30
5952.00,1.29
5951.00,1.28
5950.00,1.28
5949.00,1.27
5948.00,1.26
5947.00,1.25
5946.00,1.25
5945.00,1.24
5944.00,1.24
5943.00,1.23
5942.00,1.23
5941.00,1.23
5940.00,1.22
5939.00,1.22
5938.00,1.22
5937.00,1.22
5936.00,1.21
5935.00,1.21
5934.00,1.21
5933.00,1.21
5932.00,1.21
5931.00,1.21
5930.00,1.21
5929.00,1.21
5928.00,1.21
5927.00,1.21
5926.00,1.21
5925.00,1.20
5924.00,1.20
5923.00,1.20
5922.00,1.20
5921.00,1.20
5920.00,1.19
5919.00,1.19
5918.00,1.19
5917.00,1.18
5916.00,1.18
5915.00,1.18
5914.00,1.17
5913.00,1.17
5912.00,1.17
5911.00,1.17
5910.00,1.16
5909.00,1.16
5908.00,1.16
5907.00,1.16
5906.00,1.15
5905.00,1.15
5904.00,1.15
5903.00,1.15
5902.00,1.15
5901.00,1.15
5900.00,1.15
5899.00,1.15
5898.00,1.15
5897.00,1.15
5896.00,1.15
5895.00,1.15
5894.00,1.15
5893.00,1.16
5892.00,1.16
5891.00,1.16
5890.00,1.16
5889.00,1.17
5888.00,1.17
5887.00,1.17
5886.00,1.17
5885.00,1.18
5884.00,1.18
5883.00,1.18
5882.00,1.19
5881.00,1.19
5880.00,1.19
5879.00,1.20
5878.00,1.20
5877.00,1.20
5876.00,1.21
5875.00,1.21
5874.00,1.21
5873.00,1.21
5872.00,1.22
5871.00,1.22
5870.00,1.22
5869.00,1.22
5868.00,1.23
5867.00,1.23
5866.00,1.23
5865.00,1.23
5864.00,1.24
5863.00,1.24
5862.00,1.24
5861.00,1.24
5860.00,1.25
5859.00,1.25
5858.00,1.25
5857.00,1.25
5856.00,1.25
5855.00,1.26
5854.00,1.26
5853.00,1.26
5852.00,1.26
5851.00,1.26
5850.00,1.26
5849.00,1.26
5848.00,1.27
5847.00,1.27
5846.00,1.27
5845.00,1.27
5844.00,1.27
5843.00,1.27
5842.00,1.27
5841.00,1.27
5840.00,1.27
5839.00,1.27
5838.00,1.27
5837.00,1.27
5836.00,1.27
5835.00,1.27
5834.00,1.27
5833.00,1.27
5832.00,1.27
5831.00,1.26
5830.00,1.26
5829.00,1.26
5828.00,1.26
5827.00,1.26
5826.00,1.26
5825.00,1.26
5824.00,1.26
5823.00,1.26
5822.00,1.26
5821.00,1.26
5820.00,1.26
5819.00,1.26
5818.00,1.26
5817.00,1.26
5816.00,1.26
5815.00,1.26
5814.00,1.26
5813.00,1.26
5812.00,1.26
5811.00,1.26
5810.00,1.26
5809.00,1.26
5808.00,1.26
5807.00,1.26
5806.00,1.26
5805.00,1.26
5804.00,1.26
5803.00,1.26
5802.00,1.26
5801.00,1.26
5800.00,1.26
5799.00,1.25
5798.00,1.25
5797.00,1.25
5796.00,1.25
5795.00,1.25
5794.00,1.24
5793.00,1.24
5792.00,1.24
5791.00,1.24
5790.00,1.24
5789.00,1.23
5788.00,1.23
5787.00,1.23
5786.00,1.23
5785.00,1.22
5784.00,1.22
5783.00,1.22
5782.00,1.22
5781.00,1.21
5780.00,1.21
5779.00,1.21
5778.00,1.21
5777.00,1.21
5776.00,1.21
5775.00,1.21
5774.00,1.20
5773.00,1.20
5772.00,1.20
5771.00,1.20
5770.00,1.20
5769.00,1.21
5768.00,1.21
5767.00,1.21
5766.00,1.21
5765.00,1.21
5764.00,1.21
5763.00,1.21
5762.00,1.22
5761.00,1.22
5760.00,1.22
5759.00,1.22
5758.00,1.23
5757.00,1.23
5756.00,1.23
5755.00,1.24
5754.00,1.24
5753.00,1.25
5752.00,1.25
5751.00,1.25
5750.00,1.26
5749.00,1.26
5748.00,1.27
5747.00,1.27
5746.00,1.28
5745.00,1.28
5744.00,1.29
5743.00,1.29
5742.00,1.30
5741.00,1.30
5740.00,1.31
5739.00,1.31
5738.00,1.32
5737.00,1.32
5736.00,1.32
5735.00,1.33
5734.00,1.33
5733.00,1.34
5732.00,1.34
5731.00,1.34
5730.00,1.35
5729.00,1.35
5728.00,1.35
5727.00,1.35
5726.00,1.35
5725.00,1.36
5724.00,1.36
5723.00,1.36
5722.00,1.36
5721.00,1.36
5720.00,1.36
5719.00,1.36
5718.00,1.36
5717.00,1.36
5716.00,1.36
5715.00,1.36
5714.00,1.36
5713.00,1.36
5712.00,1.36
5711.00,1.36
5710.00,1.36
5709.00,1.36
5708.00,1.36
5707.00,1.36
5706.00,1.36
5705.00,1.36
5704.00,1.36
5703.00,1.36
5702.00,1.36
5701.00,1.35
5700.00,1.35
5699.00,1.35
5698.00,1.35
5697.00,1.35
5696.00,1.35
5695.00,1.35
5694.00,1.34
5693.00,1.34
5692.00,1.34
5691.00,1.34
5690.00,1.34
5689.00,1.33
5688.00,1.33
5687.00,1.33
5686.00,1.33
5685.00,1.33
5684.00,1.33
5683.00,1.32
5682.00,1.32
5681.00,1.32
5680.00,1.32
5679.00,1.32
5678.00,1.32
5677.00,1.32
5676.00,1.32
5675.00,1.32
5674.00,1.32
5673.00,1.32
5672.00,1.32
5671.00,1.32
5670.00,1.32
5669.00,1.32
5668.00,1.32
5667.00,1.32
5666.00,1.32
5665.00,1.32
5664.00,1.33
5663.00,1.33
5662.00,1.33
5661.00,1.33
5660.00,1.33
5659.00,1.33
5658.00,1.34
5657.00,1.34
5656.00,1.34
5655.00,1.34
5654.00,1.35
5653.00,1.35
5652.00,1.35
5651.00,1.35
5650.00,1.36
5649.00,1.36
5648.00,1.36
5647.00,1.36
5646.00,1.37
5645.00,1.37
5644.00,1.37
5643.00,1.38
5642.00,1.38
5641.00,1.38
5640.00,1.38
5639.00,1.39
5638.00,1.39
5637.00,1.39
5636.00,1.39
5635.00,1.40
5634.00,1.40
5633.00,1.40
5632.00,1.40
5631.00,1.41
5630.00,1.41
5629.00,1.41
5628.00,1.41
5627.00,1.42
5626.00,1.42
5625.00,1.42
5624.00,1.43
5623.00,1.43
5622.00,1.43
5621.00,1.43
5620.00,1.44
5619.00,1.44
5618.00,1.44
5617.00,1.44
5616.00,1.45
5615.00,1.45
5614.00,1.45
5613.00,1.45
5612.00,1.46
5611.00,1.46
5610.00,1.46
5609.00,1.46
5608.00,1.47
5607.00,1.47
5606.00,1.47
5605.00,1.47
5604.00,1.47
5603.00,1.48
5602.00,1.48
5601.00,1.48
5600.00,1.48
5599.00,1.49
5598.00,1.49
5597.00,1.49
5596.00,1.49
5595.00,1.49
5594.00,1.50
5593.00,1.50
5592.00,1.50
5591.00,1.50
5590.00,1.50
5589.00,1.51
5588.00,1.51
5587.00,1.51
5586.00,1.51
5585.00,1.51
5584.00,1.51
5583.00,1.52
5582.00,1.52
5581.00,1.52
5580.00,1.52
5579.00,1.52
5578.00,1.52
5577.00,1.52
5576.00,1.53
5575.00,1.53
5574.00,1.53
5573.00,1.53
5572.00,1.53
5571.00,1.53
5570.00,1.54
5569.00,1.54
5568.00,1.54
5567.00,1.54
5566.00,1.54
5565.00,1.55
5564.00,1.55
5563.00,1.55
5562.00,1.55
5561.00,1.55
5560.00,1.56
5559.00,1.56
5558.00,1.56
5557.00,1.56
5556.00,1.56
5555.00,1.57
5554.00,1.57
5553.00,1.57
5552.00,1.57
5551.00,1.57
5550.00,1.57
5549.00,1.58
5548.00,1.58
5547.00,1.58
5546.00,1.58
5545.00,1.58
5544.00,1.59
5543.00,1.59
5542.00,1.59
5541.00,1.59
5540.00,1.59
5539.00,1.60
5538.00,1.60
5537.00,1.60
5536.00,1.60
5535.00,1.60
5534.00,1.60
5533.00,1.61
5532.00,1.61
5531.00,1.61
5530.00,1.61
5529.00,1.61
5528.00,1.61
5527.00,1.62
5526.00,1.62
5525.00,1.62
5524.00,1.62
5523.00,1.62
5522.00,1.62
5521.00,1.62
5520.00,1.62
5519.00,1.62
5518.00,1.63
5517.00,1.63
5516.00,1.63
5515.00,1.63
5514.00,1.63
5513.00,1.63
5512.00,1.63
5511.00,1.63
5510.00,1.63
5509.00,1.63
5508.00,1.63
5507.00,1.63
5506.00,1.63
5505.00,1.63
5504.00,1.63
5503.00,1.63
5502.00,1.64
5501.00,1.64
5500.00,1.64
5499.00,1.64
5498.00,1.64
5497.00,1.64
5496.00,1.64
5495.00,1.64
5494.00,1.64
5493.00,1.65
5492.00,1.65
5491.00,1.65
5490.00,1.65
5489.00,1.65
5488.00,1.65
5487.00,1.66
5486.00,1.66
5485.00,1.66
5484.00,1.66
5483.00,1.66
5482.00,1.67
5481.00,1.67
5480.00,1.67
5479.00,1.67
5478.00,1.67
5477.00,1.67
5476.00,1.67
5475.00,1.68
5474.00,1.68
5473.00,1.68
5472.00,1.68
5471.00,1.68
5470.00,1.69
5469.00,1.69
5468.00,1.69
5467.00,1.69
5466.00,1.69
5465.00,1.69
5464.00,1.70
5463.00,1.70
5462.00,1.70
5461.00,1.70
5460.00,1.70
5459.00,1.71
5458.00,1.71
5457.00,1.71
5456.00,1.71
5455.00,1.71
5454.00,1.71
5453.00,1.71
5452.00,1.71
5451.00,1.71
5450.00,1.71
5449.00,1.71
5448.00,1.71
5447.00,1.71
5446.00,1.71
5445.00,1.72
5444.00,1.72
5443.00,1.72
5442.00,1.72
5441.00,1.72
5440.00,1.72
5439.00,1.72
5438.00,1.72
5437.00,1.72
5436.00,1.72
5435.00,1.72
5434.00,1.72
5433.00,1.72
5432.00,1.72
5431.00,1.72
5430.00,1.72
5429.00,1.72
5428.00,1.72
5427.00,1.72
5426.00,1.72
5425.00,1.72
5424.00,1.72
5423.00,1.72
5422.00,1.72
5421.00,1.72
5420.00,1.72
5419.00,1.73
5418.00,1.73
5417.00,1.73
5416.00,1.73
5415.00,1.73
5414.00,1.73
5413.00,1.73
5412.00,1.73
5411.00,1.73
5410.00,1.73
5409.00,1.73
5408.00,1.73
5407.00,1.73
5406.00,1.73
5405.00,1.73
5404.00,1.73
5403.00,1.73
5402.00,1.73
5401.00,1.73
5400.00,1.73
5399.00,1.73
5398.00,1.73
5397.00,1.73
5396.00,1.73
5395.00,1.73
5394.00,1.72
5393.00,1.72
5392.00,1.72
5391.00,1.72
5390.00,1.72
5389.00,1.72
5388.00,1.72
5387.00,1.71
5386.00,1.71
5385.00,1.71
5384.00,1.71
5383.00,1.70
5382.00,1.70
5381.00,1.70
5380.00,1.69
5379.00,1.69
5378.00,1.69
5377.00,1.68
5376.00,1.68
5375.00,1.67
5374.00,1.67
5373.00,1.67
5372.00,1.66
5371.00,1.66
5370.00,1.65
5369.00,1.64
5368.00,1.64
5367.00,1.63
5366.00,1.63
5365.00,1.62
5364.00,1.61
5363.00,1.61
5362.00,1.60
5361.00,1.59
5360.00,1.58
5359.00,1.58
5358.00,1.57
5357.00,1.56
5356.00,1.55
5355.00,1.54
5354.00,1.53
5353.00,1.52
5352.00,1.51
5351.00,1.50
5350.00,1.49
5349.00,1.48
5348.00,1.46
5347.00,1.45
5346.00,1.44
5345.00,1.43
5344.00,1.42
5343.00,1.41
5342.00,1.40
5341.00,1.38
5340.00,1.37
5339.00,1.36
5338.00,1.35
5337.00,1.34
5336.00,1.32
5335.00,1.31
5334.00,1.30
5333.00,1.29
5332.00,1.27
5331.00,1.26
5330.00,1.25
5329.00,1.24
5328.00,1.22
5327.00,1.21
5326.00,1.20
5325.00,1.19
5324.00,1.17
5323.00,1.16
5322.00,1.15
5321.00,1.14
5320.00,1.12
5319.00,1.11
5318.00,1.10
5317.00,1.09
5316.00,1.08
5315.00,1.07
5314.00,1.06
5313.00,1.05
5312.00,1.04
5311.00,1.03
5310.00,1.02
5309.00,1.01
5308.00,1.00
5307.00,0.99
5306.00,0.98
5305.00,0.98
5304.00,0.97
5303.00,0.96
5302.00,0.96
5301.00,0.95
5300.00,0.95
5299.00,0.94
5298.00,0.94
5297.00,0.93
5296.00,0.93
5295.00,0.93
5294.00,0.92
5293.00,0.92
5292.00,0.92
5291.00,0.92
5290.00,0.91
5289.00,0.91
5288.00,0.91
5287.00,0.91
5286.00,0.90
5285.00,0.90
5284.00,0.90
5283.00,0.90
5282.00,0.90
5281.00,0.90
5280.00,0.89
5279.00,0.89
5278.00,0.89
5277.00,0.89
5276.00,0.89
5275.00,0.89
5274.00,0.89
5273.00,0.89
5272.00,0.88
5271.00,0.88
5270.00,0.88
5269.00,0.88
5268.00,0.88
5267.00,0.88
5266.00,0.88
5265.00,0.88
5264.00,0.88
5263.00,0.88
5262.00,0.88
5261.00,0.87
5260.00,0.87
5259.00,0.87
5258.00,0.87
5257.00,0.87
5256.00,0.87
5255.00,0.87
5254.00,0.87
5253.00,0.87
5252.00,0.87
5251.00,0.87
5250.00,0.87
5249.00,0.87
5248.00,0.87
5247.00,0.87
5246.00,0.87
5245.00,0.87
5244.00,0.87
5243.00,0.88
5242.00,0.88
5241.00,0.88
5240.00,0.88
5239.00,0.88
5238.00,0.88
5237.00,0.88
5236.00,0.88
5235.00,0.88
5234.00,0.88
5233.00,0.88
5232.00,0.88
5231.00,0.88
5230.00,0.88
5229.00,0.88
5228.00,0.88
5227.00,0.88
5226.00,0.88
5225.00,0.88
5224.00,0.88
5223.00,0.88
5222.00,0.88
5221.00,0.88
5220.00,0.88
5219.00,0.88
5218.00,0.88
5217.00,0.88
5216.00,0.88
5215.00,0.88
5214.00,0.88
5213.00,0.88
5212.00,0.88
5211.00,0.88
5210.00,0.88
5209.00,0.88
5208.00,0.88
5207.00,0.88
5206.00,0.88
5205.00,0.88
5204.00,0.88
5203.00,0.88
5202.00,0.88
5201.00,0.89
5200.00,0.89
5199.00,0.89
5198.00,0.89
5197.00,0.89
5196.00,0.89
5195.00,0.89
5194.00,0.89
5193.00,0.89
5192.00,0.89
5191.00,0.89
5190.00,0.89
5189.00,0.89
5188.00,0.89
5187.00,0.89
5186.00,0.89
5185.00,0.89
5184.00,0.89
5183.00,0.89
5182.00,0.89
5181.00,0.90
5180.00,0.90
5179.00,0.90
5178.00,0.90
5177.00,0.90
5176.00,0.90
5175.00,0.90
5174.00,0.90
5173.00,0.90
5172.00,0.90
5171.00,0.90
5170.00,0.90
5169.00,0.90
5168.00,0.91
5167.00,0.91
5166.00,0.91
5165.00,0.91
5164.00,0.91
5163.00,0.91
5162.00,0.91
5161.00,0.91
5160.00,0.91
5159.00,0.91
5158.00,0.91
5157.00,0.91
5156.00,0.91
5155.00,0.91
5154.00,0.91
5153.00,0.92
5152.00,0.92
5151.00,0.92
5150.00,0.92
5149.00,0.92
5148.00,0.92
5147.00,0.92
5146.00,0.92
5145.00,0.92
5144.00,0.92
5143.00,0.93
5142.00,0.93
5141.00,0.93
5140.00,0.93
5139.00,0.93
5138.00,0.93
5137.00,0.93
5136.00,0.93
5135.00,0.93
5134.00,0.93
5133.00,0.93
5132.00,0.93
5131.00,0.93
5130.00,0.93
5129.00,0.93
5128.00,0.93
5127.00,0.93
5126.00,0.93
5125.00,0.93
5124.00,0.93
5123.00,0.93
5122.00,0.93
5121.00,0.93
5120.00,0.93
5119.00,0.93
5118.00,0.93
5117.00,0.93
5116.00,0.93
5115.00,0.94
5114.00,0.94
5113.00,0.94
5112.00,0.94
5111.00,0.94
5110.00,0.94
5109.00,0.94
5108.00,0.94
5107.00,0.94
5106.00,0.94
5105.00,0.94
5104.00,0.94
5103.00,0.94
5102.00,0.94
5101.00,0.94
5100.00,0.94
5099.00,0.95
5098.00,0.95
5097.00,0.95
5096.00,0.95
5095.00,0.95
5094.00,0.95
5093.00,0.95
5092.00,0.95
5091.00,0.95
5090.00,0.95
5089.00,0.95
5088.00,0.96
5087.00,0.96
5086.00,0.96
5085.00,0.96
5084.00,0.96
5083.00,0.96
5082.00,0.96
5081.00,0.96
5080.00,0.96
5079.00,0.96
5078.00,0.96
5077.00,0.96
5076.00,0.96
5075.00,0.96
5074.00,0.97
5073.00,0.97
5072.00,0.97
5071.00,0.97
5070.00,0.97
5069.00,0.97
5068.00,0.97
5067.00,0.97
5066.00,0.97
5065.00,0.97
5064.00,0.97
5063.00,0.97
5062.00,0.97
5061.00,0.97
5060.00,0.98
5059.00,0.98
5058.00,0.98
5057.00,0.98
5056.00,0.98
5055.00,0.98
5054.00,0.98
5053.00,0.99
5052.00,0.99
5051.00,0.99
5050.00,0.99
5049.00,0.99
5048.00,0.99
5047.00,0.99
5046.00,0.99
5045.00,0.99
5044.00,0.99
5043.00,1.00
5042.00,1.00
5041.00,1.00
5040.00,1.00
5039.00,1.00
5038.00,1.00
5037.00,1.00
5036.00,1.00
5035.00,1.00
5034.00,1.00
5033.00,1.00
5032.00,1.00
5031.00,1.00
5030.00,1.00
5029.00,1.00
5028.00,1.00
5027.00,1.00
5026.00,1.00
5025.00,1.00
5024.00,1.00
5023.00,1.00
5022.00,1.00
5021.00,1.01
5020.00,1.01
5019.00,1.01
5018.00,1.01
5017.00,1.01
5016.00,1.01
5015.00,1.01
5014.00,1.01
5013.00,1.01
5012.00,1.01
5011.00,1.02
5010.00,1.02
5009.00,1.02
5008.00,1.02
5007.00,1.02
5006.00,1.02
5005.00,1.02
5004.00,1.02
5003.00,1.02
5002.00,1.02
5001.00,1.02
5000.00,1.02
4999.00,1.02
4998.00,1.03
4997.00,1.03
4996.00,1.03
4995.00,1.03
4994.00,1.03
4993.00,1.03
4992.00,1.03
4991.00,1.03
4990.00,1.03
4989.00,1.03
4988.00,1.03
4987.00,1.04
4986.00,1.04
4985.00,1.04
4984.00,1.04
4983.00,1.04
4982.00,1.04
4981.00,1.04
4980.00,1.04
4979.00,1.05
4978.00,1.05
4977.00,1.05
4976.00,1.05
4975.00,1.05
4974.00,1.05
4973.00,1.05
4972.00,1.06
4971.00,1.06
4970.00,1.06
4969.00,1.06
4968.00,1.06
4967.00,1.06
4966.00,1.07
4965.00,1.07
4964.00,1.07
4963.00,1.07
4962.00,1.07
4961.00,1.07
4960.00,1.07
4959.00,1.07
4958.00,1.07
4957.00,1.08
4956.00,1.08
4955.00,1.08
4954.00,1.08
4953.00,1.08
4952.00,1.08
4951.00,1.08
4950.00,1.08
4949.00,1.08
4948.00,1.08
4947.00,1.08
4946.00,1.08
4945.00,1.08
4944.00,1.08
4943.00,1.08
4942.00,1.08
4941.00,1.08
4940.00,1.08
4939.00,1.08
4938.00,1.09
4937.00,1.09
4936.00,1.09
4935.00,1.09
4934.00,1.09
4933.00,1.09
4932.00,1.09
4931.00,1.09
4930.00,1.09
4929.00,1.10
4928.00,1.10
4927.00,1.10
4926.00,1.10
4925.00,1.10
4924.00,1.10
4923.00,1.10
4922.00,1.10
4921.00,1.10
4920.00,1.10
4919.00,1.10
4918.00,1.10
4917.00,1.10
4916.00,1.10
4915.00,1.10
4914.00,1.10
4913.00,1.10
4912.00,1.11
4911.00,1.11
4910.00,1.11
4909.00,1.11
4908.00,1.11
4907.00,1.11
4906.00,1.11
4905.00,1.11
4904.00,1.11
4903.00,1.11
4902.00,1.11
4901.00,1.11
4900.00,1.11
4899.00,1.11
4898.00,1.11
4897.00,1.11
4896.00,1.11
4895.00,1.11
4894.00,1.11
4893.00,1.11
4892.00,1.11
4891.00,1.11
4890.00,1.11
4889.00,1.11
4888.00,1.11
4887.00,1.11
4886.00,1.11
4885.00,1.11
4884.00,1.11
4883.00,1.11
4882.00,1.11
4881.00,1.11
4880.00,1.11
4879.00,1.11
4878.00,1.12
4877.00,1.12
4876.00,1.12
4875.00,1.12
4874.00,1.12
4873.00,1.12
4872.00,1.12
4871.00,1.13
4870.00,1.13
4869.00,1.13
4868.00,1.13
4867.00,1.13
4866.00,1.13
4865.00,1.13
4864.00,1.13
4863.00,1.13
4862.00,1.13
4861.00,1.13
4860.00,1.13
4859.00,1.14
4858.00,1.14
4857.00,1.14
4856.00,1.14
4855.00,1.14
4854.00,1.14
4853.00,1.14
4852.00,1.14
4851.00,1.14
4850.00,1.14
4849.00,1.14
4848.00,1.14
4847.00,1.14
4846.00,1.14
4845.00,1.14
4844.00,1.14
4843.00,1.14
4842.00,1.14
4841.00,1.15
4840.00,1.15
4839.00,1.15
4838.00,1.15
4837.00,1.15
4836.00,1.15
4835.00,1.15
4834.00,1.15
4833.00,1.15
4832.00,1.15
4831.00,1.15
4830.00,1.15
4829.00,1.15
4828.00,1.15
4827.00,1.15
4826.00,1.15
4825.00,1.15
4824.00,1.15
4823.00,1.15
4822.00,1.15
4821.00,1.15
4820.00,1.16
4819.00,1.16
4818.00,1.16
4817.00,1.16
4816.00,1.16
4815.00,1.16
4814.00,1.16
4813.00,1.16
4812.00,1.16
4811.00,1.17
4810.00,1.17
4809.00,1.17
4808.00,1.17
4807.00,1.17
4806.00,1.17
4805.00,1.17
4804.00,1.18
4803.00,1.18
4802.00,1.18
4801.00,1.18
4800.00,1.18
4799.00,1.18
4798.00,1.18
4797.00,1.18
4796.00,1.19
4795.00,1.19
4794.00,1.19
4793.00,1.19
4792.00,1.19
4791.00,1.19
4790.00,1.19
4789.00,1.20
4788.00,1.20
4787.00,1.20
4786.00,1.20
4785.00,1.20
4784.00,1.20
4783.00,1.21
4782.00,1.21
4781.00,1.21
4780.00,1.21
4779.00,1.21
4778.00,1.21
4777.00,1.21
4776.00,1.21
4775.00,1.22
4774.00,1.22
4773.00,1.22
4772.00,1.22
4771.00,1.22
4770.00,1.22
4769.00,1.22
4768.00,1.22
4767.00,1.22
4766.00,1.22
4765.00,1.22
4764.00,1.22
4763.00,1.22
4762.00,1.22
4761.00,1.22
4760.00,1.23
4759.00,1.23
4758.00,1.23
4757.00,1.23
4756.00,1.23
4755.00,1.23
4754.00,1.23
4753.00,1.23
4752.00,1.23
4751.00,1.24
4750.00,1.24
4749.00,1.24
4748.00,1.24
4747.00,1.24
4746.00,1.25
4745.00,1.25
4744.00,1.25
4743.00,1.25
4742.00,1.26
4741.00,1.26
4740.00,1.26
4739.00,1.26
4738.00,1.26
4737.00,1.27
4736.00,1.27
4735.00,1.27
4734.00,1.27
4733.00,1.27
4732.00,1.28
4731.00,1.28
4730.00,1.28
4729.00,1.28
4728.00,1.28
4727.00,1.28
4726.00,1.29
4725.00,1.29
4724.00,1.29
4723.00,1.29
4722.00,1.29
4721.00,1.29
4720.00,1.29
4719.00,1.30
4718.00,1.30
4717.00,1.30
4716.00,1.30
4715.00,1.31
4714.00,1.31
4713.00,1.31
4712.00,1.31
4711.00,1.32
4710.00,1.32
4709.00,1.32
4708.00,1.32
4707.00,1.33
4706.00,1.33
4705.00,1.33
4704.00,1.33
4703.00,1.33
4702.00,1.34
4701.00,1.34
4700.00,1.34
4699.00,1.34
4698.00,1.34
4697.00,1.34
4696.00,1.35
4695.00,1.35
4694.00,1.35
4693.00,1.35
4692.00,1.35
4691.00,1.35
4690.00,1.35
4689.00,1.35
4688.00,1.36
4687.00,1.36
4686.00,1.36
4685.00,1.36
4684.00,1.36
4683.00,1.36
4682.00,1.36
4681.00,1.36
4680.00,1.36
4679.00,1.36
4678.00,1.36
4677.00,1.37
4676.00,1.37
4675.00,1.37
4674.00,1.37
4673.00,1.37
4672.00,1.37
4671.00,1.37
4670.00,1.37
4669.00,1.37
4668.00,1.38
4667.00,1.38
4666.00,1.38
4665.00,1.38
4664.00,1.38
4663.00,1.38
4662.00,1.39
4661.00,1.39
4660.00,1.39
4659.00,1.39
4658.00,1.39
4657.00,1.40
4656.00,1.40
4655.00,1.40
4654.00,1.41
4653.00,1.41
4652.00,1.41
4651.00,1.41
4650.00,1.42
4649.00,1.42
4648.00,1.42
4647.00,1.42
4646.00,1.43
4645.00,1.43
4644.00,1.43
4643.00,1.43
4642.00,1.43
4641.00,1.43
4640.00,1.44
4639.00,1.44
4638.00,1.44
4637.00,1.44
4636.00,1.44
4635.00,1.44
4634.00,1.44
4633.00,1.44
4632.00,1.44
4631.00,1.44
4630.00,1.44
4629.00,1.44
4628.00,1.44
4627.00,1.44
4626.00,1.44
4625.00,1.44
4624.00,1.44
4623.00,1.44
4622.00,1.44
4621.00,1.44
4620.00,1.44
4619.00,1.44
4618.00,1.44
4617.00,1.44
4616.00,1.44
4615.00,1.44
4614.00,1.44
4613.00,1.44
4612.00,1.45
4611.00,1.45
4610.00,1.45
4609.00,1.45
4608.00,1.45
4607.00,1.45
4606.00,1.45
4605.00,1.45
4604.00,1.45
4603.00,1.45
4602.00,1.46
4601.00,1.46
4600.00,1.46
4599.00,1.46
4598.00,1.46
4597.00,1.46
4596.00,1.46
4595.00,1.46
4594.00,1.46
4593.00,1.47
4592.00,1.47
4591.00,1.47
4590.00,1.47
4589.00,1.47
4588.00,1.47
4587.00,1.47
4586.00,1.47
4585.00,1.47
4584.00,1.47
4583.00,1.48
4582.00,1.48
4581.00,1.48
4580.00,1.48
4579.00,1.48
4578.00,1.48
4577.00,1.48
4576.00,1.48
4575.00,1.48
4574.00,1.48
4573.00,1.49
4572.00,1.49
4571.00,1.49
4570.00,1.49
4569.00,1.49
4568.00,1.49
4567.00,1.49
4566.00,1.49
4565.00,1.50
4564.00,1.50
4563.00,1.50
4562.00,1.50
4561.00,1.50
4560.00,1.50
4559.00,1.50
4558.00,1.50
4557.00,1.50
4556.00,1.50
4555.00,1.50
4554.00,1.50
4553.00,1.50
4552.00,1.50
4551.00,1.51
4550.00,1.51
4549.00,1.51
4548.00,1.51
4547.00,1.51
4546.00,1.51
4545.00,1.51
4544.00,1.51
4543.00,1.51
4542.00,1.51
4541.00,1.51
4540.00,1.51
4539.00,1.51
4538.00,1.51
4537.00,1.51
4536.00,1.51
4535.00,1.51
4534.00,1.51
4533.00,1.51
4532.00,1.51
4531.00,1.51
4530.00,1.51
4529.00,1.51
4528.00,1.51
4527.00,1.51
4526.00,1.51
4525.00,1.52
4524.00,1.52
4523.00,1.52
4522.00,1.52
4521.00,1.52
4520.00,1.52
4519.00,1.52
4518.00,1.52
4517.00,1.52
4516.00,1.52
4515.00,1.52
4514.00,1.52
4513.00,1.52
4512.00,1.52
4511.00,1.52
4510.00,1.52
4509.00,1.52
4508.00,1.52
4507.00,1.52
4506.00,1.52
4505.00,1.52
4504.00,1.52
4503.00,1.52
4502.00,1.52
4501.00,1.52
4500.00,1.51
4499.00,1.51
4498.00,1.51
4497.00,1.51
4496.00,1.51
4495.00,1.51
4494.00,1.51
4493.00,1.51
4492.00,1.50
4491.00,1.50
4490.00,1.50
4489.00,1.50
4488.00,1.50
4487.00,1.50
4486.00,1.49
4485.00,1.49
4484.00,1.49
4483.00,1.49
4482.00,1.49
4481.00,1.49
4480.00,1.48
4479.00,1.48
4478.00,1.48
4477.00,1.48
4476.00,1.48
4475.00,1.48
4474.00,1.48
4473.00,1.48
4472.00,1.47
4471.00,1.47
4470.00,1.47
4469.00,1.47
4468.00,1.47
4467.00,1.47
4466.00,1.46
4465.00,1.46
4464.00,1.46
4463.00,1.46
4462.00,1.46
4461.00,1.45
4460.00,1.45
4459.00,1.45
4458.00,1.45
4457.00,1.44
4456.00,1.44
4455.00,1.44
4454.00,1.43
4453.00,1.43
4452.00,1.43
4451.00,1.43
4450.00,1.42
4449.00,1.42
4448.00,1.42
4447.00,1.41
4446.00,1.41
4445.00,1.41
4444.00,1.40
4443.00,1.40
4442.00,1.40
4441.00,1.40
4440.00,1.39
4439.00,1.39
4438.00,1.39
4437.00,1.39
4436.00,1.38
4435.00,1.38
4434.00,1.38
4433.00,1.38
4432.00,1.37
4431.00,1.37
4430.00,1.37
4429.00,1.37
4428.00,1.37
4427.00,1.36
4426.00,1.36
4425.00,1.36
4424.00,1.36
4423.00,1.36
4422.00,1.36
4421.00,1.36
4420.00,1.36
4419.00,1.36
4418.00,1.36
4417.00,1.36
4416.00,1.36
4415.00,1.36
4414.00,1.37
4413.00,1.37
4412.00,1.37
4411.00,1.37
4410.00,1.37
4409.00,1.37
4408.00,1.37
4407.00,1.37
4406.00,1.37
4405.00,1.38
4404.00,1.38
4403.00,1.38
4402.00,1.38
4401.00,1.38
4400.00,1.38
4399.00,1.38
4398.00,1.38
4397.00,1.38
4396.00,1.38
4395.00,1.38
4394.00,1.39
4393.00,1.39
4392.00,1.39
4391.00,1.39
4390.00,1.39
4389.00,1.39
4388.00,1.39
4387.00,1.40
4386.00,1.40
4385.00,1.40
4384.00,1.40
4383.00,1.40
4382.00,1.40
4381.00,1.40
4380.00,1.40
4379.00,1.41
4378.00,1.41
4377.00,1.41
4376.00,1.41
4375.00,1.41
4374.00,1.41
4373.00,1.41
4372.00,1.41
4371.00,1.41
4370.00,1.41
4369.00,1.41
4368.00,1.41
4367.00,1.41
4366.00,1.41
4365.00,1.41
4364.00,1.41
4363.00,1.42
4362.00,1.42
4361.00,1.42
4360.00,1.42
4359.00,1.42
4358.00,1.41
4357.00,1.41
4356.00,1.41
4355.00,1.41
4354.00,1.41
4353.00,1.41
4352.00,1.41
4351.00,1.41
4350.00,1.41
4349.00,1.41
4348.00,1.41
4347.00,1.41
4346.00,1.42
4345.00,1.42
4344.00,1.42
4343.00,1.42
4342.00,1.42
4341.00,1.42
4340.00,1.42
4339.00,1.43
4338.00,1.43
4337.00,1.43
4336.00,1.43
4335.00,1.43
4334.00,1.43
4333.00,1.43
4332.00,1.44
4331.00,1.44
4330.00,1.44
4329.00,1.44
4328.00,1.44
4327.00,1.44
4326.00,1.44
4325.00,1.44
4324.00,1.44
4323.00,1.45
4322.00,1.45
4321.00,1.45
4320.00,1.45
4319.00,1.45
4318.00,1.45
4317.00,1.45
4316.00,1.45
4315.00,1.46
4314.00,1.46
4313.00,1.46
4312.00,1.46
4311.00,1.46
4310.00,1.46
4309.00,1.47
4308.00,1.47
4307.00,1.47
4306.00,1.47
4305.00,1.47
4304.00,1.47
4303.00,1.47
4302.00,1.47
4301.00,1.47
4300.00,1.48
4299.00,1.48
4298.00,1.48
4297.00,1.48
4296.00,1.48
4295.00,1.48
4294.00,1.48
4293.00,1.48
4292.00,1.48
4291.00,1.48
4290.00,1.49
4289.00,1.49
4288.00,1.49
4287.00,1.49
4286.00,1.49
4285.00,1.49
4284.00,1.49
4283.00,1.50
4282.00,1.50
4281.00,1.50
4280.00,1.50
4279.00,1.50
4278.00,1.50
4277.00,1.50
4276.00,1.50
4275.00,1.50
4274.00,1.51
4273.00,1.51
4272.00,1.51
4271.00,1.51
4270.00,1.51
4269.00,1.51
4268.00,1.51
4267.00,1.51
4266.00,1.51
4265.00,1.51
4264.00,1.51
4263.00,1.51
4262.00,1.51
4261.00,1.51
4260.00,1.51
4259.00,1.50
4258.00,1.50
4257.00,1.50
4256.00,1.50
4255.00,1.50
4254.00,1.50
4253.00,1.51
4252.00,1.51
4251.00,1.51
4250.00,1.51
4249.00,1.51
4248.00,1.51
4247.00,1.51
4246.00,1.51
4245.00,1.51
4244.00,1.52
4243.00,1.52
4242.00,1.52
4241.00,1.52
4240.00,1.52
4239.00,1.52
4238.00,1.52
4237.00,1.52
4236.00,1.52
4235.00,1.53
4234.00,1.53
4233.00,1.53
4232.00,1.53
4231.00,1.53
4230.00,1.53
4229.00,1.53
4228.00,1.54
4227.00,1.54
4226.00,1.54
4225.00,1.54
4224.00,1.54
4223.00,1.54
4222.00,1.54
4221.00,1.55
4220.00,1.55
4219.00,1.55
4218.00,1.55
4217.00,1.55
4216.00,1.55
4215.00,1.55
4214.00,1.55
4213.00,1.55
4212.00,1.55
4211.00,1.55
4210.00,1.55
4209.00,1.55
4208.00,1.55
4207.00,1.55
4206.00,1.55
4205.00,1.55
4204.00,1.56
4203.00,1.56
4202.00,1.56
4201.00,1.56
4200.00,1.56
4199.00,1.56
4198.00,1.57
4197.00,1.57
4196.00,1.57
4195.00,1.57
4194.00,1.57
4193.00,1.57
4192.00,1.57
4191.00,1.57
4190.00,1.57
4189.00,1.57
4188.00,1.57
4187.00,1.57
4186.00,1.57
4185.00,1.57
4184.00,1.57
4183.00,1.57
4182.00,1.57
4181.00,1.57
4180.00,1.57
4179.00,1.57
4178.00,1.57
4177.00,1.57
4176.00,1.57
4175.00,1.58
4174.00,1.58
4173.00,1.58
4172.00,1.58
4171.00,1.58
4170.00,1.59
4169.00,1.59
4168.00,1.59
4167.00,1.59
4166.00,1.59
4165.00,1.59
4164.00,1.59
4163.00,1.59
4162.00,1.59
4161.00,1.59
4160.00,1.59
4159.00,1.59
4158.00,1.59
4157.00,1.59
4156.00,1.59
4155.00,1.59
4154.00,1.59
4153.00,1.59
4152.00,1.59
4151.00,1.59
4150.00,1.59
4149.00,1.59
4148.00,1.59
4147.00,1.59
4146.00,1.60
4145.00,1.60
4144.00,1.60
4143.00,1.60
4142.00,1.60
4141.00,1.60
4140.00,1.61
4139.00,1.61
4138.00,1.61
4137.00,1.61
4136.00,1.61
4135.00,1.61
4134.00,1.62
4133.00,1.62
4132.00,1.62
4131.00,1.62
4130.00,1.62
4129.00,1.62
4128.00,1.62
4127.00,1.62
4126.00,1.62
4125.00,1.62
4124.00,1.62
4123.00,1.62
4122.00,1.62
4121.00,1.62
4120.00,1.62
4119.00,1.62
4118.00,1.62
4117.00,1.62
4116.00,1.62
4115.00,1.62
4114.00,1.62
4113.00,1.62
4112.00,1.62
4111.00,1.62
4110.00,1.62
4109.00,1.62
4108.00,1.62
4107.00,1.63
4106.00,1.63
4105.00,1.63
4104.00,1.63
4103.00,1.63
4102.00,1.63
4101.00,1.63
4100.00,1.63
4099.00,1.64
4098.00,1.64
4097.00,1.64
4096.00,1.64
4095.00,1.64
4094.00,1.64
4093.00,1.64
4092.00,1.64
4091.00,1.64
4090.00,1.64
4089.00,1.64
4088.00,1.64
4087.00,1.64
4086.00,1.64
4085.00,1.65
4084.00,1.65
4083.00,1.65
4082.00,1.65
4081.00,1.65
4080.00,1.65
4079.00,1.65
4078.00,1.65
4077.00,1.65
4076.00,1.65
4075.00,1.65
4074.00,1.65
4073.00,1.65
4072.00,1.65
4071.00,1.65
4070.00,1.65
4069.00,1.65
4068.00,1.65
4067.00,1.65
4066.00,1.65
4065.00,1.65
4064.00,1.65
4063.00,1.65
4062.00,1.65
4061.00,1.65
4060.00,1.65
4059.00,1.65
4058.00,1.65
4057.00,1.65
4056.00,1.65
4055.00,1.66
4054.00,1.66
4053.00,1.66
4052.00,1.66
4051.00,1.66
4050.00,1.66
4049.00,1.67
4048.00,1.67
4047.00,1.67
4046.00,1.67
4045.00,1.67
4044.00,1.67
4043.00,1.68
4042.00,1.68
4041.00,1.68
4040.00,1.68
4039.00,1.68
4038.00,1.68
4037.00,1.68
4036.00,1.68
4035.00,1.69
4034.00,1.69
4033.00,1.69
4032.00,1.69
4031.00,1.69
4030.00,1.69
4029.00,1.69
4028.00,1.70
4027.00,1.70
4026.00,1.70
4025.00,1.70
4024.00,1.70
4023.00,1.71
4022.00,1.71
4021.00,1.71
4020.00,1.71
4019.00,1.71
4018.00,1.71
4017.00,1.71
4016.00,1.71
4015.00,1.72
4014.00,1.72
4013.00,1.72
4012.00,1.72
4011.00,1.72
4010.00,1.72
4009.00,1.72
4008.00,1.72
4007.00,1.72
4006.00,1.73
4005.00,1.73
4004.00,1.73
4003.00,1.73
4002.00,1.73
4001.00,1.73
4000.00,1.73
