创建为新数据集,样品 021 用户 Administrator 日期 星期五, 七月 20 2018
cm-1,%T
10000.00,1.40
9999.00,1.40
9998.00,1.40
9997.00,1.40
9996.00,1.40
9995.00,1.40
9994.00,1.40
9993.00,1.40
9992.00,1.40
9991.00,1.40
9990.00,1.40
9989.00,1.39
9988.00,1.39
9987.00,1.39
9986.00,1.39
9985.00,1.39
9984.00,1.38
9983.00,1.38
9982.00,1.38
9981.00,1.38
9980.00,1.38
9979.00,1.37
9978.00,1.37
9977.00,1.37
9976.00,1.37
9975.00,1.37
9974.00,1.37
9973.00,1.37
9972.00,1.37
9971.00,1.37
9970.00,1.37
9969.00,1.37
9968.00,1.37
9967.00,1.37
9966.00,1.37
9965.00,1.37
9964.00,1.38
9963.00,1.38
9962.00,1.38
9961.00,1.38
9960.00,1.38
9959.00,1.38
9958.00,1.38
9957.00,1.38
9956.00,1.38
9955.00,1.38
9954.00,1.38
9953.00,1.38
9952.00,1.38
9951.00,1.38
9950.00,1.38
9949.00,1.38
9948.00,1.38
9947.00,1.38
9946.00,1.38
9945.00,1.38
9944.00,1.38
9943.00,1.38
9942.00,1.38
9941.00,1.38
9940.00,1.38
9939.00,1.38
9938.00,1.38
9937.00,1.38
9936.00,1.38
9935.00,1.38
9934.00,1.38
9933.00,1.38
9932.00,1.38
9931.00,1.38
9930.00,1.38
9929.00,1.38
9928.00,1.39
9927.00,1.39
9926.00,1.39
9925.00,1.39
9924.00,1.39
9923.00,1.39
9922.00,1.39
9921.00,1.39
9920.00,1.40
9919.00,1.40
9918.00,1.40
9917.00,1.40
9916.00,1.40
9915.00,1.40
9914.00,1.40
9913.00,1.40
9912.00,1.40
9911.00,1.40
9910.00,1.40
9909.00,1.40
9908.00,1.40
9907.00,1.40
9906.00,1.40
9905.00,1.40
9904.00,1.39
9903.00,1.39
9902.00,1.39
9901.00,1.39
9900.00,1.39
9899.00,1.38
9898.00,1.38
9897.00,1.38
9896.00,1.37
9895.00,1.37
9894.00,1.37
9893.00,1.37
9892.00,1.37
9891.00,1.36
9890.00,1.36
9889.00,1.36
9888.00,1.36
9887.00,1.36
9886.00,1.36
9885.00,1.36
9884.00,1.36
9883.00,1.36
9882.00,1.37
9881.00,1.37
9880.00,1.37
9879.00,1.37
9878.00,1.37
9877.00,1.38
9876.00,1.38
9875.00,1.38
9874.00,1.38
9873.00,1.38
9872.00,1.38
9871.00,1.38
9870.00,1.38
9869.00,1.38
9868.00,1.38
9867.00,1.38
9866.00,1.38
9865.00,1.38
9864.00,1.38
9863.00,1.38
9862.00,1.38
9861.00,1.38
9860.00,1.38
9859.00,1.38
9858.00,1.38
9857.00,1.38
9856.00,1.38
9855.00,1.38
9854.00,1.38
9853.00,1.38
9852.00,1.38
9851.00,1.38
9850.00,1.38
9849.00,1.38
9848.00,1.38
9847.00,1.38
9846.00,1.38
9845.00,1.38
9844.00,1.38
9843.00,1.38
9842.00,1.38
9841.00,1.38
9840.00,1.38
9839.00,1.38
9838.00,1.38
9837.00,1.39
9836.00,1.39
9835.00,1.39
9834.00,1.39
9833.00,1.39
9832.00,1.38
9831.00,1.38
9830.00,1.38
9829.00,1.38
9828.00,1.38
9827.00,1.38
9826.00,1.38
9825.00,1.37
9824.00,1.37
9823.00,1.37
9822.00,1.37
9821.00,1.37
9820.00,1.37
9819.00,1.37
9818.00,1.36
9817.00,1.36
9816.00,1.36
9815.00,1.36
9814.00,1.36
9813.00,1.36
9812.00,1.36
9811.00,1.36
9810.00,1.36
9809.00,1.36
9808.00,1.36
9807.00,1.36
9806.00,1.36
9805.00,1.37
9804.00,1.37
9803.00,1.37
9802.00,1.37
9801.00,1.37
9800.00,1.38
9799.00,1.38
9798.00,1.38
9797.00,1.39
9796.00,1.39
9795.00,1.39
9794.00,1.39
9793.00,1.40
9792.00,1.40
9791.00,1.40
9790.00,1.40
9789.00,1.40
9788.00,1.40
9787.00,1.40
9786.00,1.40
9785.00,1.40
9784.00,1.40
9783.00,1.39
9782.00,1.39
9781.00,1.39
9780.00,1.39
9779.00,1.39
9778.00,1.38
9777.00,1.38
9776.00,1.38
9775.00,1.38
9774.00,1.38
9773.00,1.38
9772.00,1.37
9771.00,1.37
9770.00,1.37
9769.00,1.37
9768.00,1.37
9767.00,1.37
9766.00,1.37
9765.00,1.37
9764.00,1.37
9763.00,1.36
9762.00,1.36
9761.00,1.37
9760.00,1.37
9759.00,1.37
9758.00,1.37
9757.00,1.37
9756.00,1.37
9755.00,1.38
9754.00,1.38
9753.00,1.38
9752.00,1.38
9751.00,1.39
9750.00,1.39
9749.00,1.39
9748.00,1.39
9747.00,1.39
9746.00,1.40
9745.00,1.40
9744.00,1.40
9743.00,1.39
9742.00,1.39
9741.00,1.39
9740.00,1.39
9739.00,1.39
9738.00,1.38
9737.00,1.38
9736.00,1.38
9735.00,1.38
9734.00,1.38
9733.00,1.37
9732.00,1.37
9731.00,1.37
9730.00,1.37
9729.00,1.37
9728.00,1.37
9727.00,1.37
9726.00,1.37
9725.00,1.37
9724.00,1.37
9723.00,1.37
9722.00,1.37
9721.00,1.37
9720.00,1.37
9719.00,1.37
9718.00,1.37
9717.00,1.37
9716.00,1.37
9715.00,1.37
9714.00,1.37
9713.00,1.37
9712.00,1.37
9711.00,1.37
9710.00,1.37
9709.00,1.37
9708.00,1.37
9707.00,1.37
9706.00,1.37
9705.00,1.37
9704.00,1.37
9703.00,1.37
9702.00,1.38
9701.00,1.38
9700.00,1.38
9699.00,1.38
9698.00,1.38
9697.00,1.39
9696.00,1.39
9695.00,1.39
9694.00,1.39
9693.00,1.39
9692.00,1.39
9691.00,1.40
9690.00,1.40
9689.00,1.40
9688.00,1.40
9687.00,1.40
9686.00,1.40
9685.00,1.40
9684.00,1.40
9683.00,1.40
9682.00,1.40
9681.00,1.39
9680.00,1.39
9679.00,1.39
9678.00,1.39
9677.00,1.38
9676.00,1.38
9675.00,1.38
9674.00,1.38
9673.00,1.37
9672.00,1.37
9671.00,1.37
9670.00,1.37
9669.00,1.37
9668.00,1.37
9667.00,1.36
9666.00,1.36
9665.00,1.36
9664.00,1.36
9663.00,1.36
9662.00,1.36
9661.00,1.36
9660.00,1.36
9659.00,1.36
9658.00,1.36
9657.00,1.36
9656.00,1.36
9655.00,1.36
9654.00,1.36
9653.00,1.36
9652.00,1.37
9651.00,1.37
9650.00,1.37
9649.00,1.37
9648.00,1.37
9647.00,1.37
9646.00,1.37
9645.00,1.37
9644.00,1.37
9643.00,1.37
9642.00,1.37
9641.00,1.37
9640.00,1.37
9639.00,1.37
9638.00,1.37
9637.00,1.37
9636.00,1.37
9635.00,1.37
9634.00,1.38
9633.00,1.38
9632.00,1.38
9631.00,1.38
9630.00,1.38
9629.00,1.38
9628.00,1.39
9627.00,1.39
9626.00,1.39
9625.00,1.39
9624.00,1.39
9623.00,1.39
9622.00,1.39
9621.00,1.39
9620.00,1.39
9619.00,1.39
9618.00,1.39
9617.00,1.39
9616.00,1.39
9615.00,1.39
9614.00,1.39
9613.00,1.39
9612.00,1.39
9611.00,1.39
9610.00,1.40
9609.00,1.40
9608.00,1.40
9607.00,1.40
9606.00,1.40
9605.00,1.40
9604.00,1.40
9603.00,1.40
9602.00,1.40
9601.00,1.40
9600.00,1.40
9599.00,1.40
9598.00,1.40
9597.00,1.40
9596.00,1.40
9595.00,1.40
9594.00,1.40
9593.00,1.40
9592.00,1.39
9591.00,1.39
9590.00,1.39
9589.00,1.39
9588.00,1.39
9587.00,1.39
9586.00,1.39
9585.00,1.39
9584.00,1.39
9583.00,1.39
9582.00,1.39
9581.00,1.39
9580.00,1.39
9579.00,1.39
9578.00,1.39
9577.00,1.39
9576.00,1.39
9575.00,1.39
9574.00,1.39
9573.00,1.39
9572.00,1.39
9571.00,1.39
9570.00,1.38
9569.00,1.38
9568.00,1.38
9567.00,1.38
9566.00,1.38
9565.00,1.38
9564.00,1.37
9563.00,1.37
9562.00,1.37
9561.00,1.37
9560.00,1.37
9559.00,1.37
9558.00,1.37
9557.00,1.37
9556.00,1.37
9555.00,1.37
9554.00,1.37
9553.00,1.37
9552.00,1.37
9551.00,1.37
9550.00,1.37
9549.00,1.37
9548.00,1.37
9547.00,1.37
9546.00,1.37
9545.00,1.37
9544.00,1.37
9543.00,1.37
9542.00,1.37
9541.00,1.37
9540.00,1.37
9539.00,1.37
9538.00,1.37
9537.00,1.37
9536.00,1.37
9535.00,1.37
9534.00,1.37
9533.00,1.37
9532.00,1.37
9531.00,1.37
9530.00,1.37
9529.00,1.37
9528.00,1.37
9527.00,1.37
9526.00,1.37
9525.00,1.37
9524.00,1.37
9523.00,1.37
9522.00,1.37
9521.00,1.37
9520.00,1.37
9519.00,1.37
9518.00,1.37
9517.00,1.37
9516.00,1.37
9515.00,1.37
9514.00,1.37
9513.00,1.37
9512.00,1.37
9511.00,1.37
9510.00,1.37
9509.00,1.36
9508.00,1.36
9507.00,1.36
9506.00,1.36
9505.00,1.36
9504.00,1.36
9503.00,1.36
9502.00,1.36
9501.00,1.36
9500.00,1.37
9499.00,1.37
9498.00,1.37
9497.00,1.37
9496.00,1.37
9495.00,1.37
9494.00,1.37
9493.00,1.37
9492.00,1.38
9491.00,1.38
9490.00,1.38
9489.00,1.38
9488.00,1.38
9487.00,1.38
9486.00,1.38
9485.00,1.39
9484.00,1.39
9483.00,1.39
9482.00,1.39
9481.00,1.39
9480.00,1.39
9479.00,1.39
9478.00,1.39
9477.00,1.39
9476.00,1.39
9475.00,1.39
9474.00,1.39
9473.00,1.39
9472.00,1.39
9471.00,1.39
9470.00,1.39
9469.00,1.39
9468.00,1.39
9467.00,1.39
9466.00,1.38
9465.00,1.38
9464.00,1.38
9463.00,1.38
9462.00,1.38
9461.00,1.37
9460.00,1.37
9459.00,1.37
9458.00,1.37
9457.00,1.37
9456.00,1.37
9455.00,1.37
9454.00,1.37
9453.00,1.37
9452.00,1.37
9451.00,1.37
9450.00,1.37
9449.00,1.37
9448.00,1.37
9447.00,1.37
9446.00,1.38
9445.00,1.38
9444.00,1.38
9443.00,1.38
9442.00,1.38
9441.00,1.38
9440.00,1.38
9439.00,1.38
9438.00,1.38
9437.00,1.38
9436.00,1.38
9435.00,1.38
9434.00,1.38
9433.00,1.38
9432.00,1.38
9431.00,1.39
9430.00,1.39
9429.00,1.39
9428.00,1.39
9427.00,1.39
9426.00,1.39
9425.00,1.39
9424.00,1.39
9423.00,1.40
9422.00,1.40
9421.00,1.40
9420.00,1.40
9419.00,1.40
9418.00,1.40
9417.00,1.40
9416.00,1.40
9415.00,1.40
9414.00,1.40
9413.00,1.40
9412.00,1.40
9411.00,1.40
9410.00,1.40
9409.00,1.40
9408.00,1.39
9407.00,1.39
9406.00,1.39
9405.00,1.39
9404.00,1.39
9403.00,1.39
9402.00,1.39
9401.00,1.38
9400.00,1.38
9399.00,1.38
9398.00,1.38
9397.00,1.38
9396.00,1.38
9395.00,1.38
9394.00,1.38
9393.00,1.38
9392.00,1.38
9391.00,1.38
9390.00,1.38
9389.00,1.38
9388.00,1.38
9387.00,1.38
9386.00,1.38
9385.00,1.38
9384.00,1.38
9383.00,1.38
9382.00,1.38
9381.00,1.38
9380.00,1.38
9379.00,1.38
9378.00,1.38
9377.00,1.38
9376.00,1.38
9375.00,1.38
9374.00,1.38
9373.00,1.38
9372.00,1.38
9371.00,1.38
9370.00,1.38
9369.00,1.38
9368.00,1.38
9367.00,1.38
9366.00,1.38
9365.00,1.38
9364.00,1.38
9363.00,1.38
9362.00,1.38
9361.00,1.39
9360.00,1.39
9359.00,1.39
9358.00,1.39
9357.00,1.39
9356.00,1.39
9355.00,1.39
9354.00,1.39
9353.00,1.39
9352.00,1.39
9351.00,1.39
9350.00,1.39
9349.00,1.39
9348.00,1.39
9347.00,1.39
9346.00,1.39
9345.00,1.39
9344.00,1.39
9343.00,1.39
9342.00,1.39
9341.00,1.39
9340.00,1.39
9339.00,1.39
9338.00,1.39
9337.00,1.39
9336.00,1.39
9335.00,1.38
9334.00,1.38
9333.00,1.38
9332.00,1.38
9331.00,1.38
9330.00,1.38
9329.00,1.37
9328.00,1.37
9327.00,1.37
9326.00,1.37
9325.00,1.37
9324.00,1.37
9323.00,1.37
9322.00,1.37
9321.00,1.37
9320.00,1.37
9319.00,1.37
9318.00,1.37
9317.00,1.37
9316.00,1.37
9315.00,1.37
9314.00,1.37
9313.00,1.37
9312.00,1.38
9311.00,1.38
9310.00,1.38
9309.00,1.38
9308.00,1.38
9307.00,1.39
9306.00,1.39
9305.00,1.39
9304.00,1.39
9303.00,1.39
9302.00,1.39
9301.00,1.39
9300.00,1.39
9299.00,1.39
9298.00,1.39
9297.00,1.39
9296.00,1.39
9295.00,1.39
9294.00,1.39
9293.00,1.39
9292.00,1.39
9291.00,1.39
9290.00,1.39
9289.00,1.39
9288.00,1.39
9287.00,1.39
9286.00,1.39
9285.00,1.39
9284.00,1.39
9283.00,1.39
9282.00,1.39
9281.00,1.39
9280.00,1.39
9279.00,1.39
9278.00,1.39
9277.00,1.39
9276.00,1.39
9275.00,1.39
9274.00,1.39
9273.00,1.39
9272.00,1.39
9271.00,1.39
9270.00,1.39
9269.00,1.38
9268.00,1.38
9267.00,1.38
9266.00,1.38
9265.00,1.38
9264.00,1.38
9263.00,1.38
9262.00,1.38
9261.00,1.38
9260.00,1.38
9259.00,1.38
9258.00,1.38
9257.00,1.38
9256.00,1.38
9255.00,1.38
9254.00,1.38
9253.00,1.38
9252.00,1.39
9251.00,1.39
9250.00,1.39
9249.00,1.39
9248.00,1.39
9247.00,1.40
9246.00,1.40
9245.00,1.40
9244.00,1.40
9243.00,1.40
9242.00,1.40
9241.00,1.40
9240.00,1.40
9239.00,1.40
9238.00,1.40
9237.00,1.40
9236.00,1.40
9235.00,1.39
9234.00,1.39
9233.00,1.39
9232.00,1.39
9231.00,1.39
9230.00,1.38
9229.00,1.38
9228.00,1.38
9227.00,1.38
9226.00,1.38
9225.00,1.38
9224.00,1.38
9223.00,1.37
9222.00,1.37
9221.00,1.37
9220.00,1.37
9219.00,1.37
9218.00,1.37
9217.00,1.37
9216.00,1.37
9215.00,1.37
9214.00,1.37
9213.00,1.37
9212.00,1.37
9211.00,1.37
9210.00,1.37
9209.00,1.37
9208.00,1.37
9207.00,1.37
9206.00,1.37
9205.00,1.37
9204.00,1.37
9203.00,1.37
9202.00,1.37
9201.00,1.37
9200.00,1.37
9199.00,1.37
9198.00,1.37
9197.00,1.37
9196.00,1.37
9195.00,1.38
9194.00,1.38
9193.00,1.38
9192.00,1.38
9191.00,1.38
9190.00,1.38
9189.00,1.38
9188.00,1.38
9187.00,1.38
9186.00,1.38
9185.00,1.38
9184.00,1.38
9183.00,1.38
9182.00,1.38
9181.00,1.38
9180.00,1.38
9179.00,1.38
9178.00,1.38
9177.00,1.38
9176.00,1.39
9175.00,1.39
9174.00,1.39
9173.00,1.39
9172.00,1.39
9171.00,1.39
9170.00,1.39
9169.00,1.39
9168.00,1.39
9167.00,1.39
9166.00,1.39
9165.00,1.40
9164.00,1.40
9163.00,1.40
9162.00,1.39
9161.00,1.39
9160.00,1.39
9159.00,1.39
9158.00,1.39
9157.00,1.39
9156.00,1.39
9155.00,1.39
9154.00,1.38
9153.00,1.38
9152.00,1.38
9151.00,1.38
9150.00,1.38
9149.00,1.38
9148.00,1.38
9147.00,1.38
9146.00,1.38
9145.00,1.38
9144.00,1.38
9143.00,1.38
9142.00,1.38
9141.00,1.38
9140.00,1.38
9139.00,1.39
9138.00,1.39
9137.00,1.39
9136.00,1.39
9135.00,1.39
9134.00,1.39
9133.00,1.39
9132.00,1.40
9131.00,1.40
9130.00,1.40
9129.00,1.39
9128.00,1.39
9127.00,1.39
9126.00,1.39
9125.00,1.39
9124.00,1.39
9123.00,1.39
9122.00,1.39
9121.00,1.38
9120.00,1.38
9119.00,1.38
9118.00,1.38
9117.00,1.38
9116.00,1.38
9115.00,1.38
9114.00,1.38
9113.00,1.38
9112.00,1.38
9111.00,1.38
9110.00,1.38
9109.00,1.38
9108.00,1.38
9107.00,1.38
9106.00,1.38
9105.00,1.38
9104.00,1.38
9103.00,1.38
9102.00,1.38
9101.00,1.38
9100.00,1.38
9099.00,1.38
9098.00,1.38
9097.00,1.38
9096.00,1.38
9095.00,1.38
9094.00,1.38
9093.00,1.38
9092.00,1.38
9091.00,1.38
9090.00,1.38
9089.00,1.38
9088.00,1.38
9087.00,1.38
9086.00,1.38
9085.00,1.38
9084.00,1.38
9083.00,1.38
9082.00,1.38
9081.00,1.38
9080.00,1.38
9079.00,1.38
9078.00,1.38
9077.00,1.38
9076.00,1.38
9075.00,1.38
9074.00,1.38
9073.00,1.38
9072.00,1.38
9071.00,1.38
9070.00,1.38
9069.00,1.38
9068.00,1.38
9067.00,1.38
9066.00,1.38
9065.00,1.38
9064.00,1.38
9063.00,1.38
9062.00,1.38
9061.00,1.38
9060.00,1.38
9059.00,1.38
9058.00,1.38
9057.00,1.38
9056.00,1.38
9055.00,1.38
9054.00,1.38
9053.00,1.38
9052.00,1.38
9051.00,1.38
9050.00,1.38
9049.00,1.38
9048.00,1.38
9047.00,1.38
9046.00,1.38
9045.00,1.38
9044.00,1.38
9043.00,1.38
9042.00,1.38
9041.00,1.38
9040.00,1.38
9039.00,1.38
9038.00,1.38
9037.00,1.38
9036.00,1.39
9035.00,1.39
9034.00,1.39
9033.00,1.39
9032.00,1.40
9031.00,1.40
9030.00,1.40
9029.00,1.40
9028.00,1.40
9027.00,1.40
9026.00,1.40
9025.00,1.40
9024.00,1.40
9023.00,1.40
9022.00,1.40
9021.00,1.40
9020.00,1.40
9019.00,1.40
9018.00,1.40
9017.00,1.40
9016.00,1.40
9015.00,1.40
9014.00,1.40
9013.00,1.39
9012.00,1.39
9011.00,1.39
9010.00,1.39
9009.00,1.39
9008.00,1.39
9007.00,1.38
9006.00,1.38
9005.00,1.38
9004.00,1.38
9003.00,1.38
9002.00,1.38
9001.00,1.38
9000.00,1.38
8999.00,1.38
8998.00,1.38
8997.00,1.38
8996.00,1.38
8995.00,1.38
8994.00,1.38
8993.00,1.38
8992.00,1.38
8991.00,1.38
8990.00,1.38
8989.00,1.39
8988.00,1.39
8987.00,1.39
8986.00,1.39
8985.00,1.39
8984.00,1.39
8983.00,1.39
8982.00,1.40
8981.00,1.40
8980.00,1.40
8979.00,1.40
8978.00,1.40
8977.00,1.39
8976.00,1.39
8975.00,1.39
8974.00,1.39
8973.00,1.39
8972.00,1.39
8971.00,1.38
8970.00,1.38
8969.00,1.38
8968.00,1.38
8967.00,1.38
8966.00,1.37
8965.00,1.37
8964.00,1.37
8963.00,1.37
8962.00,1.37
8961.00,1.37
8960.00,1.37
8959.00,1.37
8958.00,1.37
8957.00,1.37
8956.00,1.37
8955.00,1.37
8954.00,1.37
8953.00,1.37
8952.00,1.37
8951.00,1.38
8950.00,1.38
8949.00,1.38
8948.00,1.38
8947.00,1.38
8946.00,1.38
8945.00,1.38
8944.00,1.38
8943.00,1.38
8942.00,1.38
8941.00,1.38
8940.00,1.39
8939.00,1.39
8938.00,1.39
8937.00,1.39
8936.00,1.39
8935.00,1.39
8934.00,1.39
8933.00,1.39
8932.00,1.39
8931.00,1.39
8930.00,1.39
8929.00,1.39
8928.00,1.39
8927.00,1.39
8926.00,1.39
8925.00,1.39
8924.00,1.39
8923.00,1.39
8922.00,1.39
8921.00,1.39
8920.00,1.38
8919.00,1.38
8918.00,1.38
8917.00,1.38
8916.00,1.38
8915.00,1.38
8914.00,1.38
8913.00,1.38
8912.00,1.38
8911.00,1.38
8910.00,1.38
8909.00,1.38
8908.00,1.38
8907.00,1.38
8906.00,1.38
8905.00,1.38
8904.00,1.39
8903.00,1.39
8902.00,1.39
8901.00,1.39
8900.00,1.39
8899.00,1.39
8898.00,1.39
8897.00,1.39
8896.00,1.39
8895.00,1.39
8894.00,1.39
8893.00,1.39
8892.00,1.39
8891.00,1.39
8890.00,1.39
8889.00,1.39
8888.00,1.39
8887.00,1.39
8886.00,1.39
8885.00,1.39
8884.00,1.39
8883.00,1.39
8882.00,1.39
8881.00,1.39
8880.00,1.39
8879.00,1.39
8878.00,1.39
8877.00,1.39
8876.00,1.39
8875.00,1.38
8874.00,1.38
8873.00,1.38
8872.00,1.38
8871.00,1.38
8870.00,1.38
8869.00,1.37
8868.00,1.37
8867.00,1.37
8866.00,1.37
8865.00,1.37
8864.00,1.37
8863.00,1.37
8862.00,1.37
8861.00,1.36
8860.00,1.36
8859.00,1.36
8858.00,1.36
8857.00,1.36
8856.00,1.36
8855.00,1.36
8854.00,1.36
8853.00,1.36
8852.00,1.36
8851.00,1.36
8850.00,1.36
8849.00,1.36
8848.00,1.36
8847.00,1.36
8846.00,1.36
8845.00,1.36
8844.00,1.36
8843.00,1.36
8842.00,1.36
8841.00,1.36
8840.00,1.37
8839.00,1.37
8838.00,1.37
8837.00,1.37
8836.00,1.37
8835.00,1.38
8834.00,1.38
8833.00,1.38
8832.00,1.38
8831.00,1.38
8830.00,1.38
8829.00,1.38
8828.00,1.38
8827.00,1.38
8826.00,1.38
8825.00,1.38
8824.00,1.38
8823.00,1.38
8822.00,1.37
8821.00,1.37
8820.00,1.37
8819.00,1.37
8818.00,1.37
8817.00,1.37
8816.00,1.37
8815.00,1.36
8814.00,1.36
8813.00,1.36
8812.00,1.36
8811.00,1.36
8810.00,1.36
8809.00,1.36
8808.00,1.36
8807.00,1.36
8806.00,1.36
8805.00,1.36
8804.00,1.36
8803.00,1.36
8802.00,1.36
8801.00,1.36
8800.00,1.36
8799.00,1.36
8798.00,1.36
8797.00,1.36
8796.00,1.36
8795.00,1.36
8794.00,1.36
8793.00,1.36
8792.00,1.36
8791.00,1.36
8790.00,1.36
8789.00,1.36
8788.00,1.36
8787.00,1.36
8786.00,1.36
8785.00,1.36
8784.00,1.36
8783.00,1.36
8782.00,1.36
8781.00,1.36
8780.00,1.36
8779.00,1.36
8778.00,1.36
8777.00,1.36
8776.00,1.36
8775.00,1.36
8774.00,1.36
8773.00,1.36
8772.00,1.35
8771.00,1.35
8770.00,1.35
8769.00,1.35
8768.00,1.35
8767.00,1.35
8766.00,1.35
8765.00,1.35
8764.00,1.35
8763.00,1.35
8762.00,1.36
8761.00,1.36
8760.00,1.36
8759.00,1.36
8758.00,1.36
8757.00,1.36
8756.00,1.36
8755.00,1.36
8754.00,1.36
8753.00,1.36
8752.00,1.36
8751.00,1.36
8750.00,1.36
8749.00,1.36
8748.00,1.36
8747.00,1.36
8746.00,1.36
8745.00,1.36
8744.00,1.36
8743.00,1.35
8742.00,1.35
8741.00,1.35
8740.00,1.35
8739.00,1.35
8738.00,1.35
8737.00,1.34
8736.00,1.34
8735.00,1.34
8734.00,1.34
8733.00,1.34
8732.00,1.34
8731.00,1.34
8730.00,1.34
8729.00,1.34
8728.00,1.34
8727.00,1.34
8726.00,1.34
8725.00,1.34
8724.00,1.34
8723.00,1.34
8722.00,1.34
8721.00,1.34
8720.00,1.34
8719.00,1.34
8718.00,1.34
8717.00,1.34
8716.00,1.35
8715.00,1.35
8714.00,1.35
8713.00,1.34
8712.00,1.34
8711.00,1.34
8710.00,1.34
8709.00,1.34
8708.00,1.34
8707.00,1.34
8706.00,1.34
8705.00,1.34
8704.00,1.34
8703.00,1.34
8702.00,1.34
8701.00,1.33
8700.00,1.33
8699.00,1.33
8698.00,1.33
8697.00,1.33
8696.00,1.33
8695.00,1.33
8694.00,1.33
8693.00,1.33
8692.00,1.33
8691.00,1.33
8690.00,1.33
8689.00,1.33
8688.00,1.33
8687.00,1.33
8686.00,1.33
8685.00,1.33
8684.00,1.33
8683.00,1.33
8682.00,1.33
8681.00,1.33
8680.00,1.33
8679.00,1.33
8678.00,1.33
8677.00,1.33
8676.00,1.34
8675.00,1.34
8674.00,1.34
8673.00,1.34
8672.00,1.34
8671.00,1.34
8670.00,1.34
8669.00,1.34
8668.00,1.34
8667.00,1.34
8666.00,1.34
8665.00,1.33
8664.00,1.33
8663.00,1.33
8662.00,1.33
8661.00,1.33
8660.00,1.33
8659.00,1.33
8658.00,1.33
8657.00,1.33
8656.00,1.33
8655.00,1.33
8654.00,1.32
8653.00,1.32
8652.00,1.32
8651.00,1.32
8650.00,1.32
8649.00,1.32
8648.00,1.32
8647.00,1.32
8646.00,1.32
8645.00,1.32
8644.00,1.32
8643.00,1.32
8642.00,1.32
8641.00,1.31
8640.00,1.31
8639.00,1.31
8638.00,1.31
8637.00,1.31
8636.00,1.31
8635.00,1.31
8634.00,1.31
8633.00,1.31
8632.00,1.31
8631.00,1.31
8630.00,1.31
8629.00,1.31
8628.00,1.31
8627.00,1.31
8626.00,1.31
8625.00,1.32
8624.00,1.32
8623.00,1.32
8622.00,1.32
8621.00,1.32
8620.00,1.32
8619.00,1.33
8618.00,1.33
8617.00,1.33
8616.00,1.33
8615.00,1.33
8614.00,1.33
8613.00,1.33
8612.00,1.33
8611.00,1.33
8610.00,1.33
8609.00,1.33
8608.00,1.33
8607.00,1.33
8606.00,1.33
8605.00,1.32
8604.00,1.32
8603.00,1.32
8602.00,1.32
8601.00,1.32
8600.00,1.32
8599.00,1.32
8598.00,1.32
8597.00,1.31
8596.00,1.31
8595.00,1.31
8594.00,1.31
8593.00,1.31
8592.00,1.31
8591.00,1.31
8590.00,1.31
8589.00,1.31
8588.00,1.32
8587.00,1.32
8586.00,1.32
8585.00,1.32
8584.00,1.32
8583.00,1.32
8582.00,1.32
8581.00,1.32
8580.00,1.32
8579.00,1.32
8578.00,1.32
8577.00,1.32
8576.00,1.31
8575.00,1.31
8574.00,1.31
8573.00,1.31
8572.00,1.31
8571.00,1.31
8570.00,1.31
8569.00,1.31
8568.00,1.31
8567.00,1.31
8566.00,1.31
8565.00,1.31
8564.00,1.31
8563.00,1.31
8562.00,1.31
8561.00,1.31
8560.00,1.31
8559.00,1.31
8558.00,1.30
8557.00,1.30
8556.00,1.30
8555.00,1.30
8554.00,1.30
8553.00,1.30
8552.00,1.30
8551.00,1.30
8550.00,1.30
8549.00,1.30
8548.00,1.30
8547.00,1.30
8546.00,1.30
8545.00,1.30
8544.00,1.29
8543.00,1.29
8542.00,1.29
8541.00,1.29
8540.00,1.29
8539.00,1.29
8538.00,1.29
8537.00,1.29
8536.00,1.29
8535.00,1.28
8534.00,1.28
8533.00,1.28
8532.00,1.29
8531.00,1.29
8530.00,1.29
8529.00,1.29
8528.00,1.29
8527.00,1.29
8526.00,1.29
8525.00,1.29
8524.00,1.29
8523.00,1.28
8522.00,1.28
8521.00,1.28
8520.00,1.28
8519.00,1.28
8518.00,1.28
8517.00,1.28
8516.00,1.28
8515.00,1.27
8514.00,1.27
8513.00,1.27
8512.00,1.27
8511.00,1.27
8510.00,1.27
8509.00,1.27
8508.00,1.27
8507.00,1.27
8506.00,1.27
8505.00,1.28
8504.00,1.28
8503.00,1.28
8502.00,1.28
8501.00,1.28
8500.00,1.28
8499.00,1.28
8498.00,1.28
8497.00,1.28
8496.00,1.28
8495.00,1.28
8494.00,1.28
8493.00,1.28
8492.00,1.28
8491.00,1.28
8490.00,1.27
8489.00,1.27
8488.00,1.27
8487.00,1.27
8486.00,1.27
8485.00,1.27
8484.00,1.27
8483.00,1.27
8482.00,1.27
8481.00,1.27
8480.00,1.27
8479.00,1.27
8478.00,1.27
8477.00,1.26
8476.00,1.26
8475.00,1.26
8474.00,1.26
8473.00,1.26
8472.00,1.26
8471.00,1.26
8470.00,1.26
8469.00,1.26
8468.00,1.25
8467.00,1.25
8466.00,1.25
8465.00,1.25
8464.00,1.25
8463.00,1.25
8462.00,1.25
8461.00,1.25
8460.00,1.25
8459.00,1.24
8458.00,1.24
8457.00,1.24
8456.00,1.24
8455.00,1.24
8454.00,1.24
8453.00,1.24
8452.00,1.24
8451.00,1.24
8450.00,1.24
8449.00,1.24
8448.00,1.24
8447.00,1.24
8446.00,1.25
8445.00,1.25
8444.00,1.25
8443.00,1.25
8442.00,1.25
8441.00,1.25
8440.00,1.25
8439.00,1.25
8438.00,1.25
8437.00,1.25
8436.00,1.26
8435.00,1.26
8434.00,1.26
8433.00,1.26
8432.00,1.26
8431.00,1.26
8430.00,1.25
8429.00,1.25
8428.00,1.25
8427.00,1.25
8426.00,1.25
8425.00,1.25
8424.00,1.25
8423.00,1.25
8422.00,1.25
8421.00,1.25
8420.00,1.25
8419.00,1.25
8418.00,1.25
8417.00,1.25
8416.00,1.25
8415.00,1.25
8414.00,1.25
8413.00,1.25
8412.00,1.25
8411.00,1.25
8410.00,1.25
8409.00,1.25
8408.00,1.26
8407.00,1.26
8406.00,1.26
8405.00,1.26
8404.00,1.26
8403.00,1.26
8402.00,1.26
8401.00,1.26
8400.00,1.27
8399.00,1.27
8398.00,1.27
8397.00,1.27
8396.00,1.27
8395.00,1.27
8394.00,1.27
8393.00,1.28
8392.00,1.28
8391.00,1.28
8390.00,1.28
8389.00,1.28
8388.00,1.28
8387.00,1.28
8386.00,1.28
8385.00,1.28
8384.00,1.28
8383.00,1.28
8382.00,1.28
8381.00,1.28
8380.00,1.28
8379.00,1.28
8378.00,1.28
8377.00,1.28
8376.00,1.28
8375.00,1.28
8374.00,1.28
8373.00,1.28
8372.00,1.28
8371.00,1.28
8370.00,1.28
8369.00,1.28
8368.00,1.28
8367.00,1.28
8366.00,1.28
8365.00,1.28
8364.00,1.28
8363.00,1.28
8362.00,1.28
8361.00,1.28
8360.00,1.29
8359.00,1.29
8358.00,1.29
8357.00,1.29
8356.00,1.29
8355.00,1.29
8354.00,1.29
8353.00,1.29
8352.00,1.29
8351.00,1.29
8350.00,1.29
8349.00,1.29
8348.00,1.29
8347.00,1.29
8346.00,1.29
8345.00,1.29
8344.00,1.29
8343.00,1.29
8342.00,1.29
8341.00,1.29
8340.00,1.29
8339.00,1.29
8338.00,1.29
8337.00,1.29
8336.00,1.29
8335.00,1.29
8334.00,1.29
8333.00,1.29
8332.00,1.29
8331.00,1.29
8330.00,1.29
8329.00,1.29
8328.00,1.29
8327.00,1.29
8326.00,1.29
8325.00,1.29
8324.00,1.28
8323.00,1.28
8322.00,1.28
8321.00,1.28
8320.00,1.28
8319.00,1.28
8318.00,1.28
8317.00,1.28
8316.00,1.28
8315.00,1.28
8314.00,1.28
8313.00,1.28
8312.00,1.28
8311.00,1.28
8310.00,1.28
8309.00,1.28
8308.00,1.28
8307.00,1.28
8306.00,1.29
8305.00,1.29
8304.00,1.29
8303.00,1.29
8302.00,1.29
8301.00,1.29
8300.00,1.29
8299.00,1.29
8298.00,1.29
8297.00,1.29
8296.00,1.29
8295.00,1.29
8294.00,1.29
8293.00,1.29
8292.00,1.29
8291.00,1.29
8290.00,1.29
8289.00,1.29
8288.00,1.29
8287.00,1.29
8286.00,1.29
8285.00,1.29
8284.00,1.29
8283.00,1.29
8282.00,1.29
8281.00,1.29
8280.00,1.29
8279.00,1.29
8278.00,1.29
8277.00,1.29
8276.00,1.29
8275.00,1.29
8274.00,1.29
8273.00,1.29
8272.00,1.29
8271.00,1.29
8270.00,1.29
8269.00,1.29
8268.00,1.29
8267.00,1.29
8266.00,1.29
8265.00,1.29
8264.00,1.29
8263.00,1.29
8262.00,1.29
8261.00,1.29
8260.00,1.29
8259.00,1.29
8258.00,1.29
8257.00,1.29
8256.00,1.29
8255.00,1.29
8254.00,1.29
8253.00,1.29
8252.00,1.29
8251.00,1.29
8250.00,1.29
8249.00,1.29
8248.00,1.29
8247.00,1.29
8246.00,1.29
8245.00,1.29
8244.00,1.29
8243.00,1.29
8242.00,1.29
8241.00,1.29
8240.00,1.29
8239.00,1.29
8238.00,1.29
8237.00,1.29
8236.00,1.29
8235.00,1.30
8234.00,1.30
8233.00,1.30
8232.00,1.30
8231.00,1.30
8230.00,1.30
8229.00,1.30
8228.00,1.30
8227.00,1.30
8226.00,1.30
8225.00,1.30
8224.00,1.30
8223.00,1.30
8222.00,1.30
8221.00,1.31
8220.00,1.31
8219.00,1.31
8218.00,1.31
8217.00,1.31
8216.00,1.31
8215.00,1.31
8214.00,1.31
8213.00,1.31
8212.00,1.31
8211.00,1.31
8210.00,1.31
8209.00,1.31
8208.00,1.31
8207.00,1.31
8206.00,1.31
8205.00,1.31
8204.00,1.31
8203.00,1.31
8202.00,1.31
8201.00,1.31
8200.00,1.31
8199.00,1.31
8198.00,1.32
8197.00,1.32
8196.00,1.32
8195.00,1.32
8194.00,1.32
8193.00,1.32
8192.00,1.32
8191.00,1.32
8190.00,1.32
8189.00,1.32
8188.00,1.32
8187.00,1.32
8186.00,1.32
8185.00,1.32
8184.00,1.32
8183.00,1.32
8182.00,1.32
8181.00,1.32
8180.00,1.32
8179.00,1.32
8178.00,1.32
8177.00,1.32
8176.00,1.32
8175.00,1.32
8174.00,1.32
8173.00,1.32
8172.00,1.32
8171.00,1.32
8170.00,1.32
8169.00,1.32
8168.00,1.32
8167.00,1.32
8166.00,1.32
8165.00,1.32
8164.00,1.32
8163.00,1.32
8162.00,1.32
8161.00,1.32
8160.00,1.32
8159.00,1.32
8158.00,1.33
8157.00,1.33
8156.00,1.33
8155.00,1.33
8154.00,1.33
8153.00,1.33
8152.00,1.33
8151.00,1.33
8150.00,1.33
8149.00,1.33
8148.00,1.33
8147.00,1.32
8146.00,1.32
8145.00,1.33
8144.00,1.33
8143.00,1.33
8142.00,1.33
8141.00,1.33
8140.00,1.33
8139.00,1.33
8138.00,1.33
8137.00,1.33
8136.00,1.33
8135.00,1.33
8134.00,1.33
8133.00,1.33
8132.00,1.33
8131.00,1.33
8130.00,1.33
8129.00,1.33
8128.00,1.33
8127.00,1.33
8126.00,1.33
8125.00,1.33
8124.00,1.33
8123.00,1.33
8122.00,1.33
8121.00,1.33
8120.00,1.33
8119.00,1.33
8118.00,1.33
8117.00,1.33
8116.00,1.33
8115.00,1.34
8114.00,1.34
8113.00,1.34
8112.00,1.34
8111.00,1.34
8110.00,1.34
8109.00,1.34
8108.00,1.34
8107.00,1.34
8106.00,1.34
8105.00,1.34
8104.00,1.34
8103.00,1.34
8102.00,1.34
8101.00,1.34
8100.00,1.34
8099.00,1.34
8098.00,1.34
8097.00,1.34
8096.00,1.34
8095.00,1.34
8094.00,1.34
8093.00,1.34
8092.00,1.34
8091.00,1.34
8090.00,1.34
8089.00,1.34
8088.00,1.34
8087.00,1.34
8086.00,1.35
8085.00,1.35
8084.00,1.35
8083.00,1.35
8082.00,1.35
8081.00,1.35
8080.00,1.35
8079.00,1.35
8078.00,1.35
8077.00,1.35
8076.00,1.35
8075.00,1.35
8074.00,1.35
8073.00,1.35
8072.00,1.35
8071.00,1.35
8070.00,1.35
8069.00,1.35
8068.00,1.35
8067.00,1.35
8066.00,1.35
8065.00,1.35
8064.00,1.35
8063.00,1.35
8062.00,1.35
8061.00,1.35
8060.00,1.35
8059.00,1.35
8058.00,1.35
8057.00,1.35
8056.00,1.35
8055.00,1.35
8054.00,1.35
8053.00,1.35
8052.00,1.35
8051.00,1.35
8050.00,1.36
8049.00,1.36
8048.00,1.36
8047.00,1.36
8046.00,1.36
8045.00,1.36
8044.00,1.36
8043.00,1.36
8042.00,1.36
8041.00,1.36
8040.00,1.36
8039.00,1.36
8038.00,1.36
8037.00,1.36
8036.00,1.36
8035.00,1.36
8034.00,1.36
8033.00,1.36
8032.00,1.36
8031.00,1.36
8030.00,1.36
8029.00,1.36
8028.00,1.36
8027.00,1.36
8026.00,1.35
8025.00,1.35
8024.00,1.35
8023.00,1.35
8022.00,1.35
8021.00,1.35
8020.00,1.35
8019.00,1.35
8018.00,1.35
8017.00,1.35
8016.00,1.36
8015.00,1.36
8014.00,1.36
8013.00,1.36
8012.00,1.36
8011.00,1.36
8010.00,1.36
8009.00,1.36
8008.00,1.36
8007.00,1.36
8006.00,1.36
8005.00,1.36
8004.00,1.36
8003.00,1.36
8002.00,1.36
8001.00,1.36
8000.00,1.36
7999.00,1.36
7998.00,1.36
7997.00,1.36
7996.00,1.36
7995.00,1.36
7994.00,1.36
7993.00,1.36
7992.00,1.36
7991.00,1.36
7990.00,1.36
7989.00,1.36
7988.00,1.36
7987.00,1.36
7986.00,1.36
7985.00,1.36
7984.00,1.36
7983.00,1.36
7982.00,1.36
7981.00,1.36
7980.00,1.36
7979.00,1.37
7978.00,1.37
7977.00,1.37
7976.00,1.37
7975.00,1.37
7974.00,1.37
7973.00,1.37
7972.00,1.37
7971.00,1.37
7970.00,1.37
7969.00,1.37
7968.00,1.37
7967.00,1.37
7966.00,1.37
7965.00,1.37
7964.00,1.37
7963.00,1.37
7962.00,1.37
7961.00,1.37
7960.00,1.37
7959.00,1.37
7958.00,1.37
7957.00,1.37
7956.00,1.37
7955.00,1.37
7954.00,1.37
7953.00,1.37
7952.00,1.37
7951.00,1.37
7950.00,1.37
7949.00,1.38
7948.00,1.38
7947.00,1.38
7946.00,1.38
7945.00,1.38
7944.00,1.38
7943.00,1.38
7942.00,1.38
7941.00,1.38
7940.00,1.38
7939.00,1.38
7938.00,1.38
7937.00,1.38
7936.00,1.38
7935.00,1.38
7934.00,1.38
7933.00,1.38
7932.00,1.38
7931.00,1.38
7930.00,1.37
7929.00,1.37
7928.00,1.37
7927.00,1.37
7926.00,1.37
7925.00,1.37
7924.00,1.37
7923.00,1.37
7922.00,1.37
7921.00,1.38
7920.00,1.38
7919.00,1.38
7918.00,1.38
7917.00,1.38
7916.00,1.38
7915.00,1.38
7914.00,1.38
7913.00,1.38
7912.00,1.38
7911.00,1.38
7910.00,1.38
7909.00,1.38
7908.00,1.38
7907.00,1.38
7906.00,1.38
7905.00,1.38
7904.00,1.38
7903.00,1.38
7902.00,1.38
7901.00,1.38
7900.00,1.38
7899.00,1.38
7898.00,1.38
7897.00,1.38
7896.00,1.38
7895.00,1.38
7894.00,1.38
7893.00,1.38
7892.00,1.38
7891.00,1.38
7890.00,1.38
7889.00,1.38
7888.00,1.38
7887.00,1.38
7886.00,1.38
7885.00,1.38
7884.00,1.38
7883.00,1.38
7882.00,1.38
7881.00,1.38
7880.00,1.38
7879.00,1.38
7878.00,1.38
7877.00,1.38
7876.00,1.38
7875.00,1.38
7874.00,1.38
7873.00,1.38
7872.00,1.38
7871.00,1.38
7870.00,1.38
7869.00,1.38
7868.00,1.39
7867.00,1.39
7866.00,1.39
7865.00,1.38
7864.00,1.38
7863.00,1.38
7862.00,1.38
7861.00,1.38
7860.00,1.38
7859.00,1.38
7858.00,1.38
7857.00,1.38
7856.00,1.38
7855.00,1.38
7854.00,1.38
7853.00,1.38
7852.00,1.38
7851.00,1.38
7850.00,1.38
7849.00,1.39
7848.00,1.39
7847.00,1.39
7846.00,1.39
7845.00,1.39
7844.00,1.39
7843.00,1.39
7842.00,1.39
7841.00,1.39
7840.00,1.39
7839.00,1.39
7838.00,1.39
7837.00,1.39
7836.00,1.39
7835.00,1.39
7834.00,1.39
7833.00,1.39
7832.00,1.39
7831.00,1.39
7830.00,1.39
7829.00,1.39
7828.00,1.39
7827.00,1.38
7826.00,1.38
7825.00,1.38
7824.00,1.38
7823.00,1.38
7822.00,1.38
7821.00,1.38
7820.00,1.38
7819.00,1.38
7818.00,1.38
7817.00,1.38
7816.00,1.39
7815.00,1.39
7814.00,1.39
7813.00,1.39
7812.00,1.39
7811.00,1.39
7810.00,1.39
7809.00,1.39
7808.00,1.39
7807.00,1.39
7806.00,1.39
7805.00,1.39
7804.00,1.39
7803.00,1.39
7802.00,1.39
7801.00,1.39
7800.00,1.39
7799.00,1.39
7798.00,1.39
7797.00,1.39
7796.00,1.39
7795.00,1.39
7794.00,1.39
7793.00,1.39
7792.00,1.39
7791.00,1.39
7790.00,1.39
7789.00,1.39
7788.00,1.39
7787.00,1.39
7786.00,1.39
7785.00,1.39
7784.00,1.40
7783.00,1.40
7782.00,1.40
7781.00,1.40
7780.00,1.40
7779.00,1.40
7778.00,1.40
7777.00,1.40
7776.00,1.40
7775.00,1.40
7774.00,1.40
7773.00,1.40
7772.00,1.40
7771.00,1.40
7770.00,1.40
7769.00,1.40
7768.00,1.40
7767.00,1.40
7766.00,1.40
7765.00,1.40
7764.00,1.40
7763.00,1.40
7762.00,1.40
7761.00,1.40
7760.00,1.40
7759.00,1.40
7758.00,1.40
7757.00,1.40
7756.00,1.40
7755.00,1.40
7754.00,1.40
7753.00,1.40
7752.00,1.40
7751.00,1.40
7750.00,1.40
7749.00,1.40
7748.00,1.40
7747.00,1.40
7746.00,1.40
7745.00,1.40
7744.00,1.40
7743.00,1.40
7742.00,1.40
7741.00,1.40
7740.00,1.40
7739.00,1.40
7738.00,1.40
7737.00,1.40
7736.00,1.40
7735.00,1.40
7734.00,1.40
7733.00,1.40
7732.00,1.40
7731.00,1.40
7730.00,1.40
7729.00,1.40
7728.00,1.40
7727.00,1.40
7726.00,1.40
7725.00,1.40
7724.00,1.40
7723.00,1.40
7722.00,1.40
7721.00,1.40
7720.00,1.40
7719.00,1.40
7718.00,1.40
7717.00,1.40
7716.00,1.40
7715.00,1.40
7714.00,1.40
7713.00,1.40
7712.00,1.40
7711.00,1.40
7710.00,1.39
7709.00,1.39
7708.00,1.39
7707.00,1.39
7706.00,1.39
7705.00,1.39
7704.00,1.40
7703.00,1.40
7702.00,1.40
7701.00,1.40
7700.00,1.40
7699.00,1.40
7698.00,1.40
7697.00,1.40
7696.00,1.40
7695.00,1.40
7694.00,1.40
7693.00,1.40
7692.00,1.40
7691.00,1.40
7690.00,1.40
7689.00,1.40
7688.00,1.40
7687.00,1.40
7686.00,1.40
7685.00,1.40
7684.00,1.40
7683.00,1.40
7682.00,1.40
7681.00,1.40
7680.00,1.40
7679.00,1.40
7678.00,1.40
7677.00,1.40
7676.00,1.40
7675.00,1.40
7674.00,1.40
7673.00,1.40
7672.00,1.40
7671.00,1.40
7670.00,1.39
7669.00,1.39
7668.00,1.39
7667.00,1.39
7666.00,1.39
7665.00,1.39
7664.00,1.39
7663.00,1.39
7662.00,1.39
7661.00,1.39
7660.00,1.39
7659.00,1.39
7658.00,1.39
7657.00,1.39
7656.00,1.39
7655.00,1.40
7654.00,1.40
7653.00,1.40
7652.00,1.40
7651.00,1.40
7650.00,1.40
7649.00,1.40
7648.00,1.40
7647.00,1.40
7646.00,1.40
7645.00,1.40
7644.00,1.40
7643.00,1.40
7642.00,1.40
7641.00,1.40
7640.00,1.40
7639.00,1.40
7638.00,1.40
7637.00,1.40
7636.00,1.40
7635.00,1.40
7634.00,1.40
7633.00,1.40
7632.00,1.40
7631.00,1.40
7630.00,1.40
7629.00,1.40
7628.00,1.40
7627.00,1.40
7626.00,1.40
7625.00,1.40
7624.00,1.40
7623.00,1.40
7622.00,1.40
7621.00,1.40
7620.00,1.40
7619.00,1.40
7618.00,1.40
7617.00,1.40
7616.00,1.40
7615.00,1.40
7614.00,1.40
7613.00,1.40
7612.00,1.40
7611.00,1.40
7610.00,1.40
7609.00,1.40
7608.00,1.40
7607.00,1.40
7606.00,1.40
7605.00,1.40
7604.00,1.40
7603.00,1.40
7602.00,1.40
7601.00,1.40
7600.00,1.40
7599.00,1.40
7598.00,1.40
7597.00,1.40
7596.00,1.40
7595.00,1.40
7594.00,1.40
7593.00,1.40
7592.00,1.40
7591.00,1.40
7590.00,1.40
7589.00,1.40
7588.00,1.40
7587.00,1.40
7586.00,1.40
7585.00,1.40
7584.00,1.40
7583.00,1.40
7582.00,1.40
7581.00,1.40
7580.00,1.40
7579.00,1.40
7578.00,1.40
7577.00,1.40
7576.00,1.40
7575.00,1.40
7574.00,1.40
7573.00,1.40
7572.00,1.40
7571.00,1.40
7570.00,1.40
7569.00,1.40
7568.00,1.40
7567.00,1.40
7566.00,1.40
7565.00,1.40
7564.00,1.40
7563.00,1.40
7562.00,1.40
7561.00,1.40
7560.00,1.40
7559.00,1.40
7558.00,1.40
7557.00,1.40
7556.00,1.39
7555.00,1.39
7554.00,1.39
7553.00,1.39
7552.00,1.39
7551.00,1.39
7550.00,1.39
7549.00,1.39
7548.00,1.39
7547.00,1.39
7546.00,1.39
7545.00,1.39
7544.00,1.39
7543.00,1.39
7542.00,1.39
7541.00,1.39
7540.00,1.39
7539.00,1.39
7538.00,1.39
7537.00,1.38
7536.00,1.38
7535.00,1.38
7534.00,1.38
7533.00,1.38
7532.00,1.38
7531.00,1.38
7530.00,1.38
7529.00,1.38
7528.00,1.38
7527.00,1.38
7526.00,1.38
7525.00,1.38
7524.00,1.38
7523.00,1.38
7522.00,1.38
7521.00,1.38
7520.00,1.38
7519.00,1.38
7518.00,1.38
7517.00,1.38
7516.00,1.38
7515.00,1.38
7514.00,1.38
7513.00,1.38
7512.00,1.38
7511.00,1.38
7510.00,1.38
7509.00,1.38
7508.00,1.38
7507.00,1.38
7506.00,1.38
7505.00,1.38
7504.00,1.38
7503.00,1.37
7502.00,1.37
7501.00,1.37
7500.00,1.37
7499.00,1.37
7498.00,1.37
7497.00,1.37
7496.00,1.37
7495.00,1.37
7494.00,1.37
7493.00,1.37
7492.00,1.37
7491.00,1.37
7490.00,1.37
7489.00,1.37
7488.00,1.37
7487.00,1.37
7486.00,1.37
7485.00,1.37
7484.00,1.37
7483.00,1.37
7482.00,1.37
7481.00,1.37
7480.00,1.37
7479.00,1.37
7478.00,1.37
7477.00,1.37
7476.00,1.37
7475.00,1.37
7474.00,1.37
7473.00,1.37
7472.00,1.37
7471.00,1.36
7470.00,1.36
7469.00,1.36
7468.00,1.36
7467.00,1.36
7466.00,1.36
7465.00,1.36
7464.00,1.36
7463.00,1.36
7462.00,1.36
7461.00,1.36
7460.00,1.36
7459.00,1.36
7458.00,1.36
7457.00,1.36
7456.00,1.36
7455.00,1.35
7454.00,1.35
7453.00,1.35
7452.00,1.35
7451.00,1.35
7450.00,1.35
7449.00,1.35
7448.00,1.35
7447.00,1.35
7446.00,1.36
7445.00,1.36
7444.00,1.36
7443.00,1.36
7442.00,1.36
7441.00,1.36
7440.00,1.36
7439.00,1.36
7438.00,1.36
7437.00,1.36
7436.00,1.36
7435.00,1.35
7434.00,1.35
7433.00,1.35
7432.00,1.35
7431.00,1.35
7430.00,1.35
7429.00,1.35
7428.00,1.35
7427.00,1.35
7426.00,1.34
7425.00,1.34
7424.00,1.34
7423.00,1.34
7422.00,1.34
7421.00,1.34
7420.00,1.34
7419.00,1.34
7418.00,1.34
7417.00,1.34
7416.00,1.34
7415.00,1.34
7414.00,1.33
7413.00,1.33
7412.00,1.33
7411.00,1.33
7410.00,1.33
7409.00,1.33
7408.00,1.33
7407.00,1.33
7406.00,1.33
7405.00,1.33
7404.00,1.33
7403.00,1.33
7402.00,1.32
7401.00,1.32
7400.00,1.32
7399.00,1.32
7398.00,1.32
7397.00,1.32
7396.00,1.32
7395.00,1.32
7394.00,1.32
7393.00,1.32
7392.00,1.32
7391.00,1.32
7390.00,1.32
7389.00,1.31
7388.00,1.31
7387.00,1.31
7386.00,1.31
7385.00,1.31
7384.00,1.31
7383.00,1.31
7382.00,1.31
7381.00,1.30
7380.00,1.30
7379.00,1.30
7378.00,1.30
7377.00,1.30
7376.00,1.30
7375.00,1.30
7374.00,1.30
7373.00,1.29
7372.00,1.29
7371.00,1.29
7370.00,1.29
7369.00,1.29
7368.00,1.29
7367.00,1.29
7366.00,1.29
7365.00,1.29
7364.00,1.29
7363.00,1.29
7362.00,1.29
7361.00,1.30
7360.00,1.30
7359.00,1.30
7358.00,1.30
7357.00,1.30
7356.00,1.30
7355.00,1.30
7354.00,1.30
7353.00,1.30
7352.00,1.30
7351.00,1.30
7350.00,1.29
7349.00,1.29
7348.00,1.29
7347.00,1.29
7346.00,1.29
7345.00,1.29
7344.00,1.29
7343.00,1.29
7342.00,1.29
7341.00,1.29
7340.00,1.29
7339.00,1.29
7338.00,1.29
7337.00,1.29
7336.00,1.29
7335.00,1.29
7334.00,1.29
7333.00,1.29
7332.00,1.29
7331.00,1.29
7330.00,1.28
7329.00,1.28
7328.00,1.28
7327.00,1.28
7326.00,1.28
7325.00,1.28
7324.00,1.28
7323.00,1.28
7322.00,1.28
7321.00,1.28
7320.00,1.28
7319.00,1.28
7318.00,1.28
7317.00,1.28
7316.00,1.28
7315.00,1.28
7314.00,1.28
7313.00,1.28
7312.00,1.28
7311.00,1.28
7310.00,1.28
7309.00,1.28
7308.00,1.27
7307.00,1.27
7306.00,1.27
7305.00,1.27
7304.00,1.27
7303.00,1.27
7302.00,1.27
7301.00,1.27
7300.00,1.27
7299.00,1.27
7298.00,1.27
7297.00,1.27
7296.00,1.26
7295.00,1.26
7294.00,1.26
7293.00,1.26
7292.00,1.26
7291.00,1.26
7290.00,1.26
7289.00,1.26
7288.00,1.26
7287.00,1.26
7286.00,1.25
7285.00,1.25
7284.00,1.25
7283.00,1.25
7282.00,1.25
7281.00,1.25
7280.00,1.25
7279.00,1.25
7278.00,1.24
7277.00,1.24
7276.00,1.24
7275.00,1.24
7274.00,1.24
7273.00,1.24
7272.00,1.24
7271.00,1.24
7270.00,1.24
7269.00,1.24
7268.00,1.24
7267.00,1.24
7266.00,1.23
7265.00,1.23
7264.00,1.23
7263.00,1.23
7262.00,1.23
7261.00,1.23
7260.00,1.23
7259.00,1.23
7258.00,1.23
7257.00,1.23
7256.00,1.23
7255.00,1.23
7254.00,1.22
7253.00,1.22
7252.00,1.22
7251.00,1.22
7250.00,1.22
7249.00,1.22
7248.00,1.21
7247.00,1.21
7246.00,1.21
7245.00,1.21
7244.00,1.20
7243.00,1.20
7242.00,1.20
7241.00,1.19
7240.00,1.19
7239.00,1.19
7238.00,1.18
7237.00,1.18
7236.00,1.18
7235.00,1.17
7234.00,1.17
7233.00,1.17
7232.00,1.16
7231.00,1.16
7230.00,1.16
7229.00,1.16
7228.00,1.15
7227.00,1.15
7226.00,1.15
7225.00,1.14
7224.00,1.14
7223.00,1.14
7222.00,1.14
7221.00,1.13
7220.00,1.13
7219.00,1.13
7218.00,1.13
7217.00,1.13
7216.00,1.12
7215.00,1.12
7214.00,1.12
7213.00,1.12
7212.00,1.11
7211.00,1.11
7210.00,1.11
7209.00,1.10
7208.00,1.10
7207.00,1.10
7206.00,1.09
7205.00,1.09
7204.00,1.08
7203.00,1.08
7202.00,1.08
7201.00,1.07
7200.00,1.07
7199.00,1.07
7198.00,1.06
7197.00,1.06
7196.00,1.06
7195.00,1.06
7194.00,1.05
7193.00,1.05
7192.00,1.05
7191.00,1.05
7190.00,1.04
7189.00,1.04
7188.00,1.04
7187.00,1.04
7186.00,1.03
7185.00,1.03
7184.00,1.03
7183.00,1.03
7182.00,1.02
7181.00,1.02
7180.00,1.02
7179.00,1.02
7178.00,1.01
7177.00,1.01
7176.00,1.01
7175.00,1.01
7174.00,1.00
7173.00,1.00
7172.00,1.00
7171.00,1.00
7170.00,0.99
7169.00,0.99
7168.00,0.99
7167.00,0.99
7166.00,0.98
7165.00,0.98
7164.00,0.98
7163.00,0.98
7162.00,0.97
7161.00,0.97
7160.00,0.97
7159.00,0.97
7158.00,0.96
7157.00,0.96
7156.00,0.96
7155.00,0.95
7154.00,0.95
7153.00,0.95
7152.00,0.95
7151.00,0.94
7150.00,0.94
7149.00,0.94
7148.00,0.94
7147.00,0.93
7146.00,0.93
7145.00,0.93
7144.00,0.93
7143.00,0.92
7142.00,0.92
7141.00,0.92
7140.00,0.92
7139.00,0.91
7138.00,0.91
7137.00,0.91
7136.00,0.90
7135.00,0.90
7134.00,0.90
7133.00,0.90
7132.00,0.89
7131.00,0.89
7130.00,0.89
7129.00,0.89
7128.00,0.88
7127.00,0.88
7126.00,0.88
7125.00,0.88
7124.00,0.87
7123.00,0.87
7122.00,0.87
7121.00,0.87
7120.00,0.86
7119.00,0.86
7118.00,0.86
7117.00,0.86
7116.00,0.85
7115.00,0.85
7114.00,0.85
7113.00,0.85
7112.00,0.84
7111.00,0.84
7110.00,0.84
7109.00,0.84
7108.00,0.83
7107.00,0.83
7106.00,0.83
7105.00,0.83
7104.00,0.83
7103.00,0.82
7102.00,0.82
7101.00,0.82
7100.00,0.82
7099.00,0.82
7098.00,0.81
7097.00,0.81
7096.00,0.81
7095.00,0.81
7094.00,0.81
7093.00,0.81
7092.00,0.80
7091.00,0.80
7090.00,0.80
7089.00,0.80
7088.00,0.80
7087.00,0.80
7086.00,0.79
7085.00,0.79
7084.00,0.79
7083.00,0.79
7082.00,0.79
7081.00,0.79
7080.00,0.79
7079.00,0.78
7078.00,0.78
7077.00,0.78
7076.00,0.78
7075.00,0.78
7074.00,0.78
7073.00,0.78
7072.00,0.78
7071.00,0.77
7070.00,0.77
7069.00,0.77
7068.00,0.77
7067.00,0.77
7066.00,0.77
7065.00,0.76
7064.00,0.76
7063.00,0.76
7062.00,0.76
7061.00,0.76
7060.00,0.76
7059.00,0.76
7058.00,0.75
7057.00,0.75
7056.00,0.75
7055.00,0.75
7054.00,0.75
7053.00,0.75
7052.00,0.75
7051.00,0.74
7050.00,0.74
7049.00,0.74
7048.00,0.74
7047.00,0.74
7046.00,0.74
7045.00,0.74
7044.00,0.73
7043.00,0.73
7042.00,0.73
7041.00,0.73
7040.00,0.73
7039.00,0.73
7038.00,0.73
7037.00,0.73
7036.00,0.73
7035.00,0.72
7034.00,0.72
7033.00,0.72
7032.00,0.72
7031.00,0.72
7030.00,0.72
7029.00,0.72
7028.00,0.72
7027.00,0.72
7026.00,0.72
7025.00,0.71
7024.00,0.71
7023.00,0.71
7022.00,0.71
7021.00,0.71
7020.00,0.71
7019.00,0.71
7018.00,0.71
7017.00,0.71
7016.00,0.71
7015.00,0.70
7014.00,0.70
7013.00,0.70
7012.00,0.70
7011.00,0.70
7010.00,0.70
7009.00,0.70
7008.00,0.70
7007.00,0.70
7006.00,0.70
7005.00,0.70
7004.00,0.70
7003.00,0.70
7002.00,0.70
7001.00,0.70
7000.00,0.70
6999.00,0.70
6998.00,0.70
6997.00,0.70
6996.00,0.70
6995.00,0.69
6994.00,0.69
6993.00,0.69
6992.00,0.69
6991.00,0.69
6990.00,0.69
6989.00,0.69
6988.00,0.69
6987.00,0.69
6986.00,0.69
6985.00,0.68
6984.00,0.68
6983.00,0.68
6982.00,0.68
6981.00,0.68
6980.00,0.68
6979.00,0.68
6978.00,0.68
6977.00,0.68
6976.00,0.68
6975.00,0.68
6974.00,0.68
6973.00,0.68
6972.00,0.68
6971.00,0.68
6970.00,0.68
6969.00,0.68
6968.00,0.68
6967.00,0.68
6966.00,0.68
6965.00,0.68
6964.00,0.68
6963.00,0.68
6962.00,0.68
6961.00,0.68
6960.00,0.68
6959.00,0.68
6958.00,0.68
6957.00,0.68
6956.00,0.68
6955.00,0.68
6954.00,0.68
6953.00,0.68
6952.00,0.67
6951.00,0.67
6950.00,0.67
6949.00,0.67
6948.00,0.67
6947.00,0.67
6946.00,0.67
6945.00,0.67
6944.00,0.67
6943.00,0.67
6942.00,0.67
6941.00,0.67
6940.00,0.67
6939.00,0.66
6938.00,0.66
6937.00,0.66
6936.00,0.66
6935.00,0.66
6934.00,0.66
6933.00,0.66
6932.00,0.66
6931.00,0.66
6930.00,0.66
6929.00,0.66
6928.00,0.66
6927.00,0.66
6926.00,0.66
6925.00,0.66
6924.00,0.66
6923.00,0.66
6922.00,0.66
6921.00,0.66
6920.00,0.66
6919.00,0.66
6918.00,0.66
6917.00,0.66
6916.00,0.66
6915.00,0.66
6914.00,0.66
6913.00,0.66
6912.00,0.66
6911.00,0.66
6910.00,0.66
6909.00,0.66
6908.00,0.66
6907.00,0.66
6906.00,0.66
6905.00,0.66
6904.00,0.66
6903.00,0.66
6902.00,0.66
6901.00,0.66
6900.00,0.66
6899.00,0.66
6898.00,0.66
6897.00,0.66
6896.00,0.66
6895.00,0.66
6894.00,0.66
6893.00,0.66
6892.00,0.66
6891.00,0.66
6890.00,0.66
6889.00,0.66
6888.00,0.66
6887.00,0.66
6886.00,0.66
6885.00,0.66
6884.00,0.66
6883.00,0.66
6882.00,0.65
6881.00,0.65
6880.00,0.65
6879.00,0.65
6878.00,0.65
6877.00,0.65
6876.00,0.65
6875.00,0.65
6874.00,0.65
6873.00,0.65
6872.00,0.65
6871.00,0.65
6870.00,0.66
6869.00,0.66
6868.00,0.66
6867.00,0.66
6866.00,0.66
6865.00,0.66
6864.00,0.66
6863.00,0.66
6862.00,0.66
6861.00,0.66
6860.00,0.66
6859.00,0.66
6858.00,0.66
6857.00,0.66
6856.00,0.66
6855.00,0.66
6854.00,0.66
6853.00,0.66
6852.00,0.66
6851.00,0.66
6850.00,0.66
6849.00,0.66
6848.00,0.66
6847.00,0.66
6846.00,0.66
6845.00,0.66
6844.00,0.66
6843.00,0.66
6842.00,0.66
6841.00,0.66
6840.00,0.66
6839.00,0.66
6838.00,0.66
6837.00,0.66
6836.00,0.66
6835.00,0.66
6834.00,0.66
6833.00,0.66
6832.00,0.66
6831.00,0.66
6830.00,0.66
6829.00,0.66
6828.00,0.66
6827.00,0.66
6826.00,0.66
6825.00,0.66
6824.00,0.66
6823.00,0.66
6822.00,0.66
6821.00,0.66
6820.00,0.66
6819.00,0.66
6818.00,0.66
6817.00,0.66
6816.00,0.66
6815.00,0.66
6814.00,0.66
6813.00,0.66
6812.00,0.66
6811.00,0.66
6810.00,0.66
6809.00,0.66
6808.00,0.66
6807.00,0.66
6806.00,0.66
6805.00,0.66
6804.00,0.67
6803.00,0.67
6802.00,0.67
6801.00,0.67
6800.00,0.67
6799.00,0.67
6798.00,0.67
6797.00,0.67
6796.00,0.67
6795.00,0.67
6794.00,0.67
6793.00,0.67
6792.00,0.67
6791.00,0.67
6790.00,0.67
6789.00,0.67
6788.00,0.68
6787.00,0.68
6786.00,0.68
6785.00,0.68
6784.00,0.68
6783.00,0.68
6782.00,0.68
6781.00,0.68
6780.00,0.68
6779.00,0.68
6778.00,0.68
6777.00,0.68
6776.00,0.68
6775.00,0.68
6774.00,0.68
6773.00,0.69
6772.00,0.69
6771.00,0.69
6770.00,0.69
6769.00,0.69
6768.00,0.69
6767.00,0.69
6766.00,0.69
6765.00,0.69
6764.00,0.69
6763.00,0.69
6762.00,0.69
6761.00,0.69
6760.00,0.69
6759.00,0.69
6758.00,0.69
6757.00,0.69
6756.00,0.69
6755.00,0.69
6754.00,0.70
6753.00,0.70
6752.00,0.70
6751.00,0.70
6750.00,0.70
6749.00,0.70
6748.00,0.70
6747.00,0.70
6746.00,0.70
6745.00,0.71
6744.00,0.71
6743.00,0.71
6742.00,0.71
6741.00,0.71
6740.00,0.71
6739.00,0.71
6738.00,0.71
6737.00,0.71
6736.00,0.71
6735.00,0.71
6734.00,0.71
6733.00,0.71
6732.00,0.72
6731.00,0.72
6730.00,0.72
6729.00,0.72
6728.00,0.72
6727.00,0.72
6726.00,0.72
6725.00,0.72
6724.00,0.72
6723.00,0.72
6722.00,0.72
6721.00,0.72
6720.00,0.72
6719.00,0.72
6718.00,0.73
6717.00,0.73
6716.00,0.73
6715.00,0.73
6714.00,0.73
6713.00,0.73
6712.00,0.73
6711.00,0.73
6710.00,0.73
6709.00,0.73
6708.00,0.73
6707.00,0.73
6706.00,0.73
6705.00,0.74
6704.00,0.74
6703.00,0.74
6702.00,0.74
6701.00,0.74
6700.00,0.74
6699.00,0.74
6698.00,0.74
6697.00,0.74
6696.00,0.74
6695.00,0.74
6694.00,0.74
6693.00,0.75
6692.00,0.75
6691.00,0.75
6690.00,0.75
6689.00,0.75
6688.00,0.75
6687.00,0.75
6686.00,0.75
6685.00,0.75
6684.00,0.75
6683.00,0.75
6682.00,0.75
6681.00,0.75
6680.00,0.75
6679.00,0.75
6678.00,0.76
6677.00,0.76
6676.00,0.76
6675.00,0.76
6674.00,0.76
6673.00,0.76
6672.00,0.76
6671.00,0.76
6670.00,0.76
6669.00,0.76
6668.00,0.76
6667.00,0.77
6666.00,0.77
6665.00,0.77
6664.00,0.77
6663.00,0.77
6662.00,0.77
6661.00,0.77
6660.00,0.77
6659.00,0.77
6658.00,0.78
6657.00,0.78
6656.00,0.78
6655.00,0.78
6654.00,0.78
6653.00,0.78
6652.00,0.78
6651.00,0.78
6650.00,0.78
6649.00,0.79
6648.00,0.79
6647.00,0.79
6646.00,0.79
6645.00,0.79
6644.00,0.79
6643.00,0.79
6642.00,0.79
6641.00,0.80
6640.00,0.80
6639.00,0.80
6638.00,0.80
6637.00,0.80
6636.00,0.80
6635.00,0.80
6634.00,0.80
6633.00,0.80
6632.00,0.80
6631.00,0.80
6630.00,0.80
6629.00,0.80
6628.00,0.80
6627.00,0.80
6626.00,0.80
6625.00,0.80
6624.00,0.81
6623.00,0.81
6622.00,0.81
6621.00,0.81
6620.00,0.81
6619.00,0.81
6618.00,0.81
6617.00,0.81
6616.00,0.81
6615.00,0.81
6614.00,0.82
6613.00,0.82
6612.00,0.82
6611.00,0.82
6610.00,0.82
6609.00,0.82
6608.00,0.82
6607.00,0.82
6606.00,0.82
6605.00,0.83
6604.00,0.83
6603.00,0.83
6602.00,0.83
6601.00,0.83
6600.00,0.83
6599.00,0.83
6598.00,0.83
6597.00,0.83
6596.00,0.83
6595.00,0.83
6594.00,0.83
6593.00,0.84
6592.00,0.84
6591.00,0.84
6590.00,0.84
6589.00,0.84
6588.00,0.84
6587.00,0.84
6586.00,0.84
6585.00,0.84
6584.00,0.84
6583.00,0.84
6582.00,0.84
6581.00,0.85
6580.00,0.85
6579.00,0.85
6578.00,0.85
6577.00,0.85
6576.00,0.85
6575.00,0.85
6574.00,0.85
6573.00,0.85
6572.00,0.85
6571.00,0.85
6570.00,0.85
6569.00,0.85
6568.00,0.85
6567.00,0.86
6566.00,0.86
6565.00,0.86
6564.00,0.86
6563.00,0.86
6562.00,0.86
6561.00,0.86
6560.00,0.86
6559.00,0.86
6558.00,0.86
6557.00,0.86
6556.00,0.86
6555.00,0.86
6554.00,0.86
6553.00,0.86
6552.00,0.86
6551.00,0.87
6550.00,0.87
6549.00,0.87
6548.00,0.87
6547.00,0.87
6546.00,0.87
6545.00,0.87
6544.00,0.87
6543.00,0.87
6542.00,0.88
6541.00,0.88
6540.00,0.88
6539.00,0.88
6538.00,0.88
6537.00,0.88
6536.00,0.88
6535.00,0.88
6534.00,0.88
6533.00,0.88
6532.00,0.89
6531.00,0.89
6530.00,0.89
6529.00,0.89
6528.00,0.89
6527.00,0.89
6526.00,0.89
6525.00,0.89
6524.00,0.89
6523.00,0.89
6522.00,0.89
6521.00,0.89
6520.00,0.89
6519.00,0.90
6518.00,0.90
6517.00,0.90
6516.00,0.90
6515.00,0.90
6514.00,0.90
6513.00,0.90
6512.00,0.90
6511.00,0.90
6510.00,0.90
6509.00,0.90
6508.00,0.90
6507.00,0.90
6506.00,0.91
6505.00,0.91
6504.00,0.91
6503.00,0.91
6502.00,0.91
6501.00,0.91
6500.00,0.91
6499.00,0.91
6498.00,0.91
6497.00,0.91
6496.00,0.92
6495.00,0.92
6494.00,0.92
6493.00,0.92
6492.00,0.92
6491.00,0.92
6490.00,0.92
6489.00,0.92
6488.00,0.92
6487.00,0.92
6486.00,0.92
6485.00,0.92
6484.00,0.92
6483.00,0.92
6482.00,0.92
6481.00,0.92
6480.00,0.92
6479.00,0.93
6478.00,0.93
6477.00,0.93
6476.00,0.93
6475.00,0.93
6474.00,0.93
6473.00,0.93
6472.00,0.93
6471.00,0.93
6470.00,0.93
6469.00,0.93
6468.00,0.93
6467.00,0.93
6466.00,0.93
6465.00,0.93
6464.00,0.93
6463.00,0.93
6462.00,0.93
6461.00,0.93
6460.00,0.93
6459.00,0.93
6458.00,0.93
6457.00,0.93
6456.00,0.94
6455.00,0.94
6454.00,0.94
6453.00,0.94
6452.00,0.94
6451.00,0.94
6450.00,0.94
6449.00,0.94
6448.00,0.94
6447.00,0.94
6446.00,0.94
6445.00,0.94
6444.00,0.94
6443.00,0.94
6442.00,0.94
6441.00,0.94
6440.00,0.94
6439.00,0.94
6438.00,0.95
6437.00,0.95
6436.00,0.95
6435.00,0.95
6434.00,0.95
6433.00,0.95
6432.00,0.95
6431.00,0.95
6430.00,0.95
6429.00,0.95
6428.00,0.95
6427.00,0.95
6426.00,0.95
6425.00,0.95
6424.00,0.95
6423.00,0.95
6422.00,0.96
6421.00,0.96
6420.00,0.96
6419.00,0.96
6418.00,0.96
6417.00,0.96
6416.00,0.96
6415.00,0.96
6414.00,0.96
6413.00,0.96
6412.00,0.96
6411.00,0.96
6410.00,0.96
6409.00,0.97
6408.00,0.97
6407.00,0.97
6406.00,0.97
6405.00,0.97
6404.00,0.97
6403.00,0.97
6402.00,0.97
6401.00,0.97
6400.00,0.97
6399.00,0.98
6398.00,0.98
6397.00,0.98
6396.00,0.98
6395.00,0.98
6394.00,0.98
6393.00,0.98
6392.00,0.98
6391.00,0.98
6390.00,0.98
6389.00,0.98
6388.00,0.98
6387.00,0.98
6386.00,0.98
6385.00,0.98
6384.00,0.98
6383.00,0.98
6382.00,0.98
6381.00,0.98
6380.00,0.98
6379.00,0.98
6378.00,0.98
6377.00,0.98
6376.00,0.98
6375.00,0.99
6374.00,0.99
6373.00,0.99
6372.00,0.99
6371.00,0.99
6370.00,0.99
6369.00,0.99
6368.00,0.99
6367.00,0.99
6366.00,0.99
6365.00,0.99
6364.00,0.99
6363.00,0.99
6362.00,0.99
6361.00,0.99
6360.00,0.99
6359.00,0.99
6358.00,0.99
6357.00,1.00
6356.00,1.00
6355.00,1.00
6354.00,1.00
6353.00,1.00
6352.00,1.00
6351.00,1.00
6350.00,1.00
6349.00,1.00
6348.00,1.00
6347.00,1.00
6346.00,1.00
6345.00,1.00
6344.00,1.00
6343.00,1.00
6342.00,1.01
6341.00,1.01
6340.00,1.01
6339.00,1.01
6338.00,1.01
6337.00,1.01
6336.00,1.01
6335.00,1.01
6334.00,1.01
6333.00,1.01
6332.00,1.01
6331.00,1.01
6330.00,1.01
6329.00,1.01
6328.00,1.01
6327.00,1.01
6326.00,1.02
6325.00,1.02
6324.00,1.02
6323.00,1.02
6322.00,1.02
6321.00,1.02
6320.00,1.02
6319.00,1.02
6318.00,1.03
6317.00,1.03
6316.00,1.03
6315.00,1.03
6314.00,1.03
6313.00,1.03
6312.00,1.03
6311.00,1.03
6310.00,1.04
6309.00,1.04
6308.00,1.04
6307.00,1.04
6306.00,1.04
6305.00,1.04
6304.00,1.04
6303.00,1.04
6302.00,1.04
6301.00,1.04
6300.00,1.04
6299.00,1.04
6298.00,1.04
6297.00,1.04
6296.00,1.04
6295.00,1.04
6294.00,1.05
6293.00,1.05
6292.00,1.05
6291.00,1.05
6290.00,1.05
6289.00,1.05
6288.00,1.05
6287.00,1.05
6286.00,1.06
6285.00,1.06
6284.00,1.06
6283.00,1.06
6282.00,1.06
6281.00,1.06
6280.00,1.07
6279.00,1.07
6278.00,1.07
6277.00,1.07
6276.00,1.07
6275.00,1.07
6274.00,1.07
6273.00,1.07
6272.00,1.07
6271.00,1.08
6270.00,1.08
6269.00,1.08
6268.00,1.08
6267.00,1.08
6266.00,1.08
6265.00,1.08
6264.00,1.08
6263.00,1.08
6262.00,1.08
6261.00,1.09
6260.00,1.09
6259.00,1.09
6258.00,1.09
6257.00,1.09
6256.00,1.09
6255.00,1.09
6254.00,1.09
6253.00,1.09
6252.00,1.09
6251.00,1.10
6250.00,1.10
6249.00,1.10
6248.00,1.10
6247.00,1.10
6246.00,1.10
6245.00,1.10
6244.00,1.10
6243.00,1.10
6242.00,1.10
6241.00,1.10
6240.00,1.11
6239.00,1.11
6238.00,1.11
6237.00,1.11
6236.00,1.11
6235.00,1.11
6234.00,1.11
6233.00,1.11
6232.00,1.11
6231.00,1.11
6230.00,1.11
6229.00,1.12
6228.00,1.12
6227.00,1.12
6226.00,1.12
6225.00,1.12
6224.00,1.12
6223.00,1.12
6222.00,1.13
6221.00,1.13
6220.00,1.13
6219.00,1.13
6218.00,1.13
6217.00,1.13
6216.00,1.14
6215.00,1.14
6214.00,1.14
6213.00,1.14
6212.00,1.14
6211.00,1.14
6210.00,1.14
6209.00,1.14
6208.00,1.14
6207.00,1.15
6206.00,1.15
6205.00,1.15
6204.00,1.15
6203.00,1.15
6202.00,1.15
6201.00,1.15
6200.00,1.15
6199.00,1.15
6198.00,1.15
6197.00,1.15
6196.00,1.16
6195.00,1.16
6194.00,1.16
6193.00,1.16
6192.00,1.16
6191.00,1.16
6190.00,1.16
6189.00,1.16
6188.00,1.16
6187.00,1.16
6186.00,1.17
6185.00,1.17
6184.00,1.17
6183.00,1.17
6182.00,1.17
6181.00,1.17
6180.00,1.17
6179.00,1.17
6178.00,1.17
6177.00,1.17
6176.00,1.18
6175.00,1.18
6174.00,1.18
6173.00,1.18
6172.00,1.18
6171.00,1.18
6170.00,1.18
6169.00,1.18
6168.00,1.18
6167.00,1.19
6166.00,1.19
6165.00,1.19
6164.00,1.19
6163.00,1.19
6162.00,1.19
6161.00,1.20
6160.00,1.20
6159.00,1.20
6158.00,1.20
6157.00,1.20
6156.00,1.20
6155.00,1.21
6154.00,1.21
6153.00,1.21
6152.00,1.21
6151.00,1.21
6150.00,1.21
6149.00,1.21
6148.00,1.22
6147.00,1.22
6146.00,1.22
6145.00,1.22
6144.00,1.22
6143.00,1.22
6142.00,1.22
6141.00,1.22
6140.00,1.23
6139.00,1.23
6138.00,1.23
6137.00,1.23
6136.00,1.23
6135.00,1.23
6134.00,1.23
6133.00,1.23
6132.00,1.24
6131.00,1.24
6130.00,1.24
6129.00,1.24
6128.00,1.24
6127.00,1.24
6126.00,1.25
6125.00,1.25
6124.00,1.25
6123.00,1.25
6122.00,1.25
6121.00,1.25
6120.00,1.26
6119.00,1.26
6118.00,1.26
6117.00,1.26
6116.00,1.26
6115.00,1.26
6114.00,1.26
6113.00,1.26
6112.00,1.26
6111.00,1.27
6110.00,1.27
6109.00,1.27
6108.00,1.27
6107.00,1.27
6106.00,1.27
6105.00,1.27
6104.00,1.27
6103.00,1.27
6102.00,1.27
6101.00,1.27
6100.00,1.27
6099.00,1.27
6098.00,1.27
6097.00,1.28
6096.00,1.28
6095.00,1.28
6094.00,1.28
6093.00,1.28
6092.00,1.28
6091.00,1.28
6090.00,1.28
6089.00,1.28
6088.00,1.28
6087.00,1.29
6086.00,1.29
6085.00,1.29
6084.00,1.29
6083.00,1.29
6082.00,1.29
6081.00,1.29
6080.00,1.29
6079.00,1.29
6078.00,1.29
6077.00,1.29
6076.00,1.30
6075.00,1.30
6074.00,1.30
6073.00,1.30
6072.00,1.30
6071.00,1.30
6070.00,1.30
6069.00,1.31
6068.00,1.31
6067.00,1.31
6066.00,1.31
6065.00,1.31
6064.00,1.31
6063.00,1.32
6062.00,1.32
6061.00,1.32
6060.00,1.32
6059.00,1.32
6058.00,1.32
6057.00,1.32
6056.00,1.32
6055.00,1.33
6054.00,1.33
6053.00,1.33
6052.00,1.33
6051.00,1.33
6050.00,1.33
6049.00,1.33
6048.00,1.33
6047.00,1.33
6046.00,1.33
6045.00,1.33
6044.00,1.33
6043.00,1.33
6042.00,1.33
6041.00,1.33
6040.00,1.33
6039.00,1.33
6038.00,1.33
6037.00,1.33
6036.00,1.33
6035.00,1.33
6034.00,1.33
6033.00,1.33
6032.00,1.33
6031.00,1.33
6030.00,1.33
6029.00,1.34
6028.00,1.34
6027.00,1.34
6026.00,1.34
6025.00,1.34
6024.00,1.34
6023.00,1.34
6022.00,1.34
6021.00,1.34
6020.00,1.34
6019.00,1.34
6018.00,1.34
6017.00,1.34
6016.00,1.34
6015.00,1.34
6014.00,1.34
6013.00,1.34
6012.00,1.34
6011.00,1.34
6010.00,1.34
6009.00,1.34
6008.00,1.34
6007.00,1.33
6006.00,1.33
6005.00,1.33
6004.00,1.33
6003.00,1.33
6002.00,1.33
6001.00,1.33
6000.00,1.33
5999.00,1.33
5998.00,1.33
5997.00,1.33
5996.00,1.33
5995.00,1.33
5994.00,1.32
5993.00,1.32
5992.00,1.32
5991.00,1.32
5990.00,1.32
5989.00,1.32
5988.00,1.32
5987.00,1.31
5986.00,1.31
5985.00,1.31
5984.00,1.31
5983.00,1.31
5982.00,1.30
5981.00,1.30
5980.00,1.30
5979.00,1.29
5978.00,1.29
5977.00,1.29
5976.00,1.28
5975.00,1.28
5974.00,1.27
5973.00,1.27
5972.00,1.26
5971.00,1.26
5970.00,1.25
5969.00,1.25
5968.00,1.24
5967.00,1.24
5966.00,1.23
5965.00,1.23
5964.00,1.22
5963.00,1.21
5962.00,1.21
5961.00,1.20
5960.00,1.19
5959.00,1.19
5958.00,1.18
5957.00,1.18
5956.00,1.17
5955.00,1.16
5954.00,1.16
5953.00,1.15
5952.00,1.15
5951.00,1.14
5950.00,1.14
5949.00,1.13
5948.00,1.13
5947.00,1.13
5946.00,1.12
5945.00,1.12
5944.00,1.12
5943.00,1.11
5942.00,1.11
5941.00,1.11
5940.00,1.11
5939.00,1.11
5938.00,1.11
5937.00,1.10
5936.00,1.10
5935.00,1.10
5934.00,1.10
5933.00,1.10
5932.00,1.10
5931.00,1.10
5930.00,1.10
5929.00,1.10
5928.00,1.10
5927.00,1.09
5926.00,1.09
5925.00,1.09
5924.00,1.09
5923.00,1.09
5922.00,1.09
5921.00,1.08
5920.00,1.08
5919.00,1.08
5918.00,1.08
5917.00,1.08
5916.00,1.07
5915.00,1.07
5914.00,1.07
5913.00,1.07
5912.00,1.06
5911.00,1.06
5910.00,1.06
5909.00,1.06
5908.00,1.06
5907.00,1.05
5906.00,1.05
5905.00,1.05
5904.00,1.05
5903.00,1.05
5902.00,1.05
5901.00,1.05
5900.00,1.05
5899.00,1.05
5898.00,1.05
5897.00,1.06
5896.00,1.06
5895.00,1.06
5894.00,1.06
5893.00,1.06
5892.00,1.07
5891.00,1.07
5890.00,1.07
5889.00,1.07
5888.00,1.08
5887.00,1.08
5886.00,1.08
5885.00,1.08
5884.00,1.09
5883.00,1.09
5882.00,1.09
5881.00,1.09
5880.00,1.10
5879.00,1.10
5878.00,1.10
5877.00,1.10
5876.00,1.11
5875.00,1.11
5874.00,1.11
5873.00,1.11
5872.00,1.11
5871.00,1.12
5870.00,1.12
5869.00,1.12
5868.00,1.12
5867.00,1.12
5866.00,1.12
5865.00,1.12
5864.00,1.13
5863.00,1.13
5862.00,1.13
5861.00,1.13
5860.00,1.13
5859.00,1.13
5858.00,1.13
5857.00,1.13
5856.00,1.13
5855.00,1.13
5854.00,1.14
5853.00,1.14
5852.00,1.14
5851.00,1.14
5850.00,1.14
5849.00,1.14
5848.00,1.14
5847.00,1.14
5846.00,1.14
5845.00,1.14
5844.00,1.14
5843.00,1.14
5842.00,1.14
5841.00,1.14
5840.00,1.14
5839.00,1.14
5838.00,1.14
5837.00,1.14
5836.00,1.14
5835.00,1.14
5834.00,1.14
5833.00,1.14
5832.00,1.14
5831.00,1.14
5830.00,1.14
5829.00,1.14
5828.00,1.14
5827.00,1.14
5826.00,1.14
5825.00,1.14
5824.00,1.14
5823.00,1.14
5822.00,1.14
5821.00,1.15
5820.00,1.15
5819.00,1.15
5818.00,1.15
5817.00,1.15
5816.00,1.15
5815.00,1.15
5814.00,1.15
5813.00,1.15
5812.00,1.15
5811.00,1.15
5810.00,1.15
5809.00,1.15
5808.00,1.15
5807.00,1.14
5806.00,1.14
5805.00,1.14
5804.00,1.14
5803.00,1.14
5802.00,1.14
5801.00,1.14
5800.00,1.14
5799.00,1.14
5798.00,1.14
5797.00,1.13
5796.00,1.13
5795.00,1.13
5794.00,1.13
5793.00,1.13
5792.00,1.12
5791.00,1.12
5790.00,1.12
5789.00,1.12
5788.00,1.12
5787.00,1.11
5786.00,1.11
5785.00,1.11
5784.00,1.11
5783.00,1.10
5782.00,1.10
5781.00,1.10
5780.00,1.10
5779.00,1.10
5778.00,1.10
5777.00,1.09
5776.00,1.09
5775.00,1.09
5774.00,1.09
5773.00,1.09
5772.00,1.09
5771.00,1.09
5770.00,1.09
5769.00,1.09
5768.00,1.09
5767.00,1.09
5766.00,1.09
5765.00,1.10
5764.00,1.10
5763.00,1.10
5762.00,1.10
5761.00,1.11
5760.00,1.11
5759.00,1.11
5758.00,1.11
5757.00,1.12
5756.00,1.12
5755.00,1.12
5754.00,1.13
5753.00,1.13
5752.00,1.13
5751.00,1.14
5750.00,1.14
5749.00,1.15
5748.00,1.15
5747.00,1.15
5746.00,1.15
5745.00,1.16
5744.00,1.16
5743.00,1.16
5742.00,1.17
5741.00,1.17
5740.00,1.17
5739.00,1.17
5738.00,1.18
5737.00,1.18
5736.00,1.18
5735.00,1.18
5734.00,1.18
5733.00,1.18
5732.00,1.19
5731.00,1.19
5730.00,1.19
5729.00,1.19
5728.00,1.19
5727.00,1.19
5726.00,1.19
5725.00,1.19
5724.00,1.19
5723.00,1.19
5722.00,1.19
5721.00,1.19
5720.00,1.19
5719.00,1.19
5718.00,1.19
5717.00,1.19
5716.00,1.19
5715.00,1.19
5714.00,1.19
5713.00,1.20
5712.00,1.20
5711.00,1.19
5710.00,1.19
5709.00,1.19
5708.00,1.19
5707.00,1.19
5706.00,1.19
5705.00,1.19
5704.00,1.19
5703.00,1.19
5702.00,1.19
5701.00,1.19
5700.00,1.19
5699.00,1.19
5698.00,1.19
5697.00,1.19
5696.00,1.19
5695.00,1.18
5694.00,1.18
5693.00,1.18
5692.00,1.18
5691.00,1.18
5690.00,1.18
5689.00,1.17
5688.00,1.17
5687.00,1.17
5686.00,1.17
5685.00,1.17
5684.00,1.17
5683.00,1.16
5682.00,1.16
5681.00,1.16
5680.00,1.16
5679.00,1.16
5678.00,1.16
5677.00,1.16
5676.00,1.16
5675.00,1.16
5674.00,1.16
5673.00,1.16
5672.00,1.16
5671.00,1.16
5670.00,1.16
5669.00,1.16
5668.00,1.16
5667.00,1.16
5666.00,1.16
5665.00,1.16
5664.00,1.16
5663.00,1.16
5662.00,1.16
5661.00,1.16
5660.00,1.16
5659.00,1.17
5658.00,1.17
5657.00,1.17
5656.00,1.17
5655.00,1.17
5654.00,1.17
5653.00,1.18
5652.00,1.18
5651.00,1.18
5650.00,1.18
5649.00,1.18
5648.00,1.19
5647.00,1.19
5646.00,1.19
5645.00,1.19
5644.00,1.19
5643.00,1.20
5642.00,1.20
5641.00,1.20
5640.00,1.20
5639.00,1.20
5638.00,1.21
5637.00,1.21
5636.00,1.21
5635.00,1.21
5634.00,1.21
5633.00,1.21
5632.00,1.22
5631.00,1.22
5630.00,1.22
5629.00,1.22
5628.00,1.22
5627.00,1.22
5626.00,1.23
5625.00,1.23
5624.00,1.23
5623.00,1.23
5622.00,1.23
5621.00,1.23
5620.00,1.23
5619.00,1.23
5618.00,1.23
5617.00,1.23
5616.00,1.24
5615.00,1.24
5614.00,1.24
5613.00,1.24
5612.00,1.24
5611.00,1.24
5610.00,1.24
5609.00,1.24
5608.00,1.25
5607.00,1.25
5606.00,1.25
5605.00,1.25
5604.00,1.25
5603.00,1.25
5602.00,1.25
5601.00,1.26
5600.00,1.26
5599.00,1.26
5598.00,1.26
5597.00,1.26
5596.00,1.26
5595.00,1.27
5594.00,1.27
5593.00,1.27
5592.00,1.27
5591.00,1.27
5590.00,1.27
5589.00,1.27
5588.00,1.28
5587.00,1.28
5586.00,1.28
5585.00,1.28
5584.00,1.28
5583.00,1.29
5582.00,1.29
5581.00,1.29
5580.00,1.29
5579.00,1.29
5578.00,1.29
5577.00,1.29
5576.00,1.30
5575.00,1.30
5574.00,1.30
5573.00,1.30
5572.00,1.30
5571.00,1.30
5570.00,1.30
5569.00,1.30
5568.00,1.31
5567.00,1.31
5566.00,1.31
5565.00,1.31
5564.00,1.31
5563.00,1.31
5562.00,1.31
5561.00,1.31
5560.00,1.31
5559.00,1.31
5558.00,1.31
5557.00,1.31
5556.00,1.32
5555.00,1.32
5554.00,1.32
5553.00,1.32
5552.00,1.32
5551.00,1.32
5550.00,1.32
5549.00,1.32
5548.00,1.32
5547.00,1.32
5546.00,1.33
5545.00,1.33
5544.00,1.33
5543.00,1.33
5542.00,1.33
5541.00,1.33
5540.00,1.33
5539.00,1.33
5538.00,1.33
5537.00,1.33
5536.00,1.34
5535.00,1.34
5534.00,1.34
5533.00,1.34
5532.00,1.34
5531.00,1.34
5530.00,1.34
5529.00,1.34
5528.00,1.34
5527.00,1.34
5526.00,1.34
5525.00,1.34
5524.00,1.34
5523.00,1.35
5522.00,1.35
5521.00,1.35
5520.00,1.35
5519.00,1.35
5518.00,1.35
5517.00,1.35
5516.00,1.35
5515.00,1.35
5514.00,1.35
5513.00,1.35
5512.00,1.35
5511.00,1.35
5510.00,1.35
5509.00,1.35
5508.00,1.35
5507.00,1.35
5506.00,1.35
5505.00,1.35
5504.00,1.35
5503.00,1.35
5502.00,1.35
5501.00,1.35
5500.00,1.35
5499.00,1.35
5498.00,1.36
5497.00,1.36
5496.00,1.36
5495.00,1.36
5494.00,1.36
5493.00,1.36
5492.00,1.36
5491.00,1.36
5490.00,1.36
5489.00,1.37
5488.00,1.37
5487.00,1.37
5486.00,1.37
5485.00,1.37
5484.00,1.37
5483.00,1.37
5482.00,1.38
5481.00,1.38
5480.00,1.38
5479.00,1.38
5478.00,1.38
5477.00,1.38
5476.00,1.38
5475.00,1.38
5474.00,1.38
5473.00,1.38
5472.00,1.38
5471.00,1.39
5470.00,1.39
5469.00,1.39
5468.00,1.39
5467.00,1.39
5466.00,1.39
5465.00,1.39
5464.00,1.39
5463.00,1.39
5462.00,1.39
5461.00,1.39
5460.00,1.39
5459.00,1.39
5458.00,1.39
5457.00,1.39
5456.00,1.39
5455.00,1.39
5454.00,1.39
5453.00,1.39
5452.00,1.39
5451.00,1.39
5450.00,1.39
5449.00,1.39
5448.00,1.39
5447.00,1.39
5446.00,1.39
5445.00,1.39
5444.00,1.39
5443.00,1.39
5442.00,1.39
5441.00,1.40
5440.00,1.40
5439.00,1.40
5438.00,1.40
5437.00,1.40
5436.00,1.40
5435.00,1.40
5434.00,1.40
5433.00,1.40
5432.00,1.40
5431.00,1.40
5430.00,1.40
5429.00,1.40
5428.00,1.40
5427.00,1.40
5426.00,1.40
5425.00,1.40
5424.00,1.40
5423.00,1.40
5422.00,1.40
5421.00,1.40
5420.00,1.40
5419.00,1.40
5418.00,1.40
5417.00,1.40
5416.00,1.40
5415.00,1.40
5414.00,1.40
5413.00,1.40
5412.00,1.40
5411.00,1.40
5410.00,1.40
5409.00,1.40
5408.00,1.40
5407.00,1.40
5406.00,1.40
5405.00,1.40
5404.00,1.40
5403.00,1.40
5402.00,1.40
5401.00,1.40
5400.00,1.40
5399.00,1.40
5398.00,1.40
5397.00,1.40
5396.00,1.40
5395.00,1.40
5394.00,1.40
5393.00,1.40
5392.00,1.39
5391.00,1.39
5390.00,1.39
5389.00,1.39
5388.00,1.39
5387.00,1.39
5386.00,1.39
5385.00,1.38
5384.00,1.38
5383.00,1.38
5382.00,1.38
5381.00,1.38
5380.00,1.37
5379.00,1.37
5378.00,1.37
5377.00,1.36
5376.00,1.36
5375.00,1.36
5374.00,1.36
5373.00,1.35
5372.00,1.35
5371.00,1.35
5370.00,1.34
5369.00,1.34
5368.00,1.34
5367.00,1.33
5366.00,1.33
5365.00,1.32
5364.00,1.32
5363.00,1.31
5362.00,1.31
5361.00,1.30
5360.00,1.30
5359.00,1.29
5358.00,1.28
5357.00,1.28
5356.00,1.27
5355.00,1.26
5354.00,1.26
5353.00,1.25
5352.00,1.24
5351.00,1.23
5350.00,1.22
5349.00,1.22
5348.00,1.21
5347.00,1.20
5346.00,1.19
5345.00,1.18
5344.00,1.17
5343.00,1.16
5342.00,1.15
5341.00,1.14
5340.00,1.13
5339.00,1.12
5338.00,1.11
5337.00,1.11
5336.00,1.10
5335.00,1.09
5334.00,1.08
5333.00,1.07
5332.00,1.06
5331.00,1.05
5330.00,1.04
5329.00,1.03
5328.00,1.02
5327.00,1.01
5326.00,1.00
5325.00,0.99
5324.00,0.98
5323.00,0.97
5322.00,0.96
5321.00,0.95
5320.00,0.94
5319.00,0.93
5318.00,0.92
5317.00,0.91
5316.00,0.90
5315.00,0.89
5314.00,0.88
5313.00,0.88
5312.00,0.87
5311.00,0.86
5310.00,0.85
5309.00,0.84
5308.00,0.83
5307.00,0.82
5306.00,0.82
5305.00,0.81
5304.00,0.80
5303.00,0.79
5302.00,0.79
5301.00,0.78
5300.00,0.77
5299.00,0.77
5298.00,0.76
5297.00,0.76
5296.00,0.75
5295.00,0.75
5294.00,0.74
5293.00,0.74
5292.00,0.74
5291.00,0.73
5290.00,0.73
5289.00,0.73
5288.00,0.72
5287.00,0.72
5286.00,0.72
5285.00,0.72
5284.00,0.71
5283.00,0.71
5282.00,0.71
5281.00,0.71
5280.00,0.70
5279.00,0.70
5278.00,0.70
5277.00,0.70
5276.00,0.70
5275.00,0.70
5274.00,0.70
5273.00,0.69
5272.00,0.69
5271.00,0.69
5270.00,0.69
5269.00,0.69
5268.00,0.69
5267.00,0.69
5266.00,0.69
5265.00,0.69
5264.00,0.68
5263.00,0.68
5262.00,0.68
5261.00,0.68
5260.00,0.68
5259.00,0.68
5258.00,0.68
5257.00,0.68
5256.00,0.68
5255.00,0.68
5254.00,0.68
5253.00,0.68
5252.00,0.68
5251.00,0.68
5250.00,0.68
5249.00,0.68
5248.00,0.68
5247.00,0.68
5246.00,0.68
5245.00,0.68
5244.00,0.68
5243.00,0.68
5242.00,0.68
5241.00,0.68
5240.00,0.68
5239.00,0.68
5238.00,0.68
5237.00,0.68
5236.00,0.68
5235.00,0.68
5234.00,0.68
5233.00,0.68
5232.00,0.68
5231.00,0.68
5230.00,0.68
5229.00,0.68
5228.00,0.68
5227.00,0.68
5226.00,0.68
5225.00,0.68
5224.00,0.68
5223.00,0.68
5222.00,0.68
5221.00,0.68
5220.00,0.68
5219.00,0.68
5218.00,0.68
5217.00,0.68
5216.00,0.68
5215.00,0.68
5214.00,0.68
5213.00,0.68
5212.00,0.68
5211.00,0.68
5210.00,0.68
5209.00,0.68
5208.00,0.68
5207.00,0.68
5206.00,0.68
5205.00,0.68
5204.00,0.68
5203.00,0.68
5202.00,0.68
5201.00,0.68
5200.00,0.68
5199.00,0.69
5198.00,0.69
5197.00,0.69
5196.00,0.69
5195.00,0.69
5194.00,0.69
5193.00,0.69
5192.00,0.69
5191.00,0.69
5190.00,0.69
5189.00,0.69
5188.00,0.69
5187.00,0.69
5186.00,0.69
5185.00,0.69
5184.00,0.69
5183.00,0.69
5182.00,0.69
5181.00,0.69
5180.00,0.69
5179.00,0.69
5178.00,0.69
5177.00,0.69
5176.00,0.69
5175.00,0.69
5174.00,0.69
5173.00,0.69
5172.00,0.69
5171.00,0.69
5170.00,0.69
5169.00,0.69
5168.00,0.69
5167.00,0.69
5166.00,0.69
5165.00,0.70
5164.00,0.70
5163.00,0.70
5162.00,0.70
5161.00,0.70
5160.00,0.70
5159.00,0.70
5158.00,0.70
5157.00,0.70
5156.00,0.70
5155.00,0.70
5154.00,0.70
5153.00,0.70
5152.00,0.70
5151.00,0.70
5150.00,0.70
5149.00,0.70
5148.00,0.71
5147.00,0.71
5146.00,0.71
5145.00,0.71
5144.00,0.71
5143.00,0.71
5142.00,0.71
5141.00,0.71
5140.00,0.71
5139.00,0.71
5138.00,0.71
5137.00,0.71
5136.00,0.71
5135.00,0.71
5134.00,0.71
5133.00,0.71
5132.00,0.71
5131.00,0.71
5130.00,0.71
5129.00,0.71
5128.00,0.72
5127.00,0.72
5126.00,0.72
5125.00,0.72
5124.00,0.72
5123.00,0.72
5122.00,0.72
5121.00,0.72
5120.00,0.72
5119.00,0.72
5118.00,0.72
5117.00,0.73
5116.00,0.73
5115.00,0.73
5114.00,0.73
5113.00,0.73
5112.00,0.73
5111.00,0.73
5110.00,0.73
5109.00,0.73
5108.00,0.73
5107.00,0.73
5106.00,0.73
5105.00,0.73
5104.00,0.73
5103.00,0.73
5102.00,0.73
5101.00,0.73
5100.00,0.73
5099.00,0.73
5098.00,0.74
5097.00,0.74
5096.00,0.74
5095.00,0.74
5094.00,0.74
5093.00,0.74
5092.00,0.74
5091.00,0.74
5090.00,0.74
5089.00,0.74
5088.00,0.74
5087.00,0.74
5086.00,0.74
5085.00,0.74
5084.00,0.74
5083.00,0.74
5082.00,0.75
5081.00,0.75
5080.00,0.75
5079.00,0.75
5078.00,0.75
5077.00,0.75
5076.00,0.75
5075.00,0.75
5074.00,0.75
5073.00,0.75
5072.00,0.75
5071.00,0.75
5070.00,0.75
5069.00,0.75
5068.00,0.75
5067.00,0.75
5066.00,0.75
5065.00,0.76
5064.00,0.76
5063.00,0.76
5062.00,0.76
5061.00,0.76
5060.00,0.76
5059.00,0.76
5058.00,0.76
5057.00,0.77
5056.00,0.77
5055.00,0.77
5054.00,0.77
5053.00,0.77
5052.00,0.77
5051.00,0.77
5050.00,0.77
5049.00,0.77
5048.00,0.77
5047.00,0.78
5046.00,0.78
5045.00,0.78
5044.00,0.78
5043.00,0.78
5042.00,0.78
5041.00,0.78
5040.00,0.78
5039.00,0.78
5038.00,0.78
5037.00,0.78
5036.00,0.78
5035.00,0.78
5034.00,0.78
5033.00,0.79
5032.00,0.79
5031.00,0.79
5030.00,0.79
5029.00,0.79
5028.00,0.79
5027.00,0.79
5026.00,0.79
5025.00,0.79
5024.00,0.80
5023.00,0.80
5022.00,0.80
5021.00,0.80
5020.00,0.80
5019.00,0.80
5018.00,0.80
5017.00,0.80
5016.00,0.80
5015.00,0.80
5014.00,0.80
5013.00,0.81
5012.00,0.81
5011.00,0.81
5010.00,0.81
5009.00,0.81
5008.00,0.81
5007.00,0.81
5006.00,0.81
5005.00,0.81
5004.00,0.81
5003.00,0.81
5002.00,0.81
5001.00,0.82
5000.00,0.82
4999.00,0.82
4998.00,0.82
4997.00,0.82
4996.00,0.82
4995.00,0.83
4994.00,0.83
4993.00,0.83
4992.00,0.83
4991.00,0.83
4990.00,0.84
4989.00,0.84
4988.00,0.84
4987.00,0.84
4986.00,0.84
4985.00,0.84
4984.00,0.85
4983.00,0.85
4982.00,0.85
4981.00,0.85
4980.00,0.85
4979.00,0.85
4978.00,0.85
4977.00,0.85
4976.00,0.85
4975.00,0.86
4974.00,0.86
4973.00,0.86
4972.00,0.86
4971.00,0.86
4970.00,0.86
4969.00,0.86
4968.00,0.86
4967.00,0.86
4966.00,0.86
4965.00,0.86
4964.00,0.86
4963.00,0.86
4962.00,0.86
4961.00,0.86
4960.00,0.86
4959.00,0.86
4958.00,0.86
4957.00,0.86
4956.00,0.86
4955.00,0.87
4954.00,0.87
4953.00,0.87
4952.00,0.87
4951.00,0.87
4950.00,0.87
4949.00,0.87
4948.00,0.87
4947.00,0.87
4946.00,0.88
4945.00,0.88
4944.00,0.88
4943.00,0.88
4942.00,0.88
4941.00,0.88
4940.00,0.88
4939.00,0.88
4938.00,0.89
4937.00,0.89
4936.00,0.89
4935.00,0.89
4934.00,0.89
4933.00,0.89
4932.00,0.89
4931.00,0.89
4930.00,0.89
4929.00,0.89
4928.00,0.89
4927.00,0.89
4926.00,0.89
4925.00,0.89
4924.00,0.90
4923.00,0.90
4922.00,0.90
4921.00,0.90
4920.00,0.90
4919.00,0.90
4918.00,0.90
4917.00,0.90
4916.00,0.90
4915.00,0.90
4914.00,0.90
4913.00,0.90
4912.00,0.90
4911.00,0.90
4910.00,0.91
4909.00,0.91
4908.00,0.91
4907.00,0.91
4906.00,0.91
4905.00,0.91
4904.00,0.91
4903.00,0.91
4902.00,0.91
4901.00,0.91
4900.00,0.92
4899.00,0.92
4898.00,0.92
4897.00,0.92
4896.00,0.92
4895.00,0.92
4894.00,0.92
4893.00,0.92
4892.00,0.92
4891.00,0.92
4890.00,0.92
4889.00,0.93
4888.00,0.93
4887.00,0.93
4886.00,0.93
4885.00,0.93
4884.00,0.93
4883.00,0.93
4882.00,0.93
4881.00,0.93
4880.00,0.93
4879.00,0.93
4878.00,0.93
4877.00,0.93
4876.00,0.93
4875.00,0.94
4874.00,0.94
4873.00,0.94
4872.00,0.94
4871.00,0.94
4870.00,0.94
4869.00,0.94
4868.00,0.94
4867.00,0.94
4866.00,0.94
4865.00,0.94
4864.00,0.94
4863.00,0.94
4862.00,0.94
4861.00,0.94
4860.00,0.94
4859.00,0.94
4858.00,0.94
4857.00,0.94
4856.00,0.94
4855.00,0.94
4854.00,0.94
4853.00,0.94
4852.00,0.94
4851.00,0.95
4850.00,0.95
4849.00,0.95
4848.00,0.95
4847.00,0.95
4846.00,0.95
4845.00,0.95
4844.00,0.95
4843.00,0.95
4842.00,0.95
4841.00,0.95
4840.00,0.95
4839.00,0.96
4838.00,0.96
4837.00,0.96
4836.00,0.96
4835.00,0.96
4834.00,0.96
4833.00,0.96
4832.00,0.96
4831.00,0.96
4830.00,0.96
4829.00,0.96
4828.00,0.96
4827.00,0.97
4826.00,0.97
4825.00,0.97
4824.00,0.97
4823.00,0.97
4822.00,0.97
4821.00,0.97
4820.00,0.97
4819.00,0.97
4818.00,0.97
4817.00,0.97
4816.00,0.98
4815.00,0.98
4814.00,0.98
4813.00,0.98
4812.00,0.98
4811.00,0.98
4810.00,0.98
4809.00,0.98
4808.00,0.98
4807.00,0.99
4806.00,0.99
4805.00,0.99
4804.00,0.99
4803.00,0.99
4802.00,0.99
4801.00,0.99
4800.00,0.99
4799.00,1.00
4798.00,1.00
4797.00,1.00
4796.00,1.00
4795.00,1.00
4794.00,1.00
4793.00,1.00
4792.00,1.00
4791.00,1.01
4790.00,1.01
4789.00,1.01
4788.00,1.01
4787.00,1.01
4786.00,1.01
4785.00,1.01
4784.00,1.02
4783.00,1.02
4782.00,1.02
4781.00,1.02
4780.00,1.02
4779.00,1.02
4778.00,1.03
4777.00,1.03
4776.00,1.03
4775.00,1.03
4774.00,1.03
4773.00,1.03
4772.00,1.03
4771.00,1.04
4770.00,1.04
4769.00,1.04
4768.00,1.04
4767.00,1.04
4766.00,1.04
4765.00,1.04
4764.00,1.05
4763.00,1.05
4762.00,1.05
4761.00,1.05
4760.00,1.05
4759.00,1.05
4758.00,1.06
4757.00,1.06
4756.00,1.06
4755.00,1.06
4754.00,1.06
4753.00,1.06
4752.00,1.06
4751.00,1.07
4750.00,1.07
4749.00,1.07
4748.00,1.07
4747.00,1.07
4746.00,1.07
4745.00,1.08
4744.00,1.08
4743.00,1.08
4742.00,1.08
4741.00,1.08
4740.00,1.08
4739.00,1.08
4738.00,1.08
4737.00,1.09
4736.00,1.09
4735.00,1.09
4734.00,1.09
4733.00,1.09
4732.00,1.09
4731.00,1.10
4730.00,1.10
4729.00,1.10
4728.00,1.10
4727.00,1.10
4726.00,1.10
4725.00,1.11
4724.00,1.11
4723.00,1.11
4722.00,1.11
4721.00,1.12
4720.00,1.12
4719.00,1.12
4718.00,1.12
4717.00,1.13
4716.00,1.13
4715.00,1.13
4714.00,1.13
4713.00,1.14
4712.00,1.14
4711.00,1.14
4710.00,1.14
4709.00,1.15
4708.00,1.15
4707.00,1.15
4706.00,1.15
4705.00,1.15
4704.00,1.16
4703.00,1.16
4702.00,1.16
4701.00,1.16
4700.00,1.16
4699.00,1.17
4698.00,1.17
4697.00,1.17
4696.00,1.17
4695.00,1.17
4694.00,1.17
4693.00,1.18
4692.00,1.18
4691.00,1.18
4690.00,1.18
4689.00,1.18
4688.00,1.19
4687.00,1.19
4686.00,1.19
4685.00,1.19
4684.00,1.19
4683.00,1.20
4682.00,1.20
4681.00,1.20
4680.00,1.20
4679.00,1.20
4678.00,1.21
4677.00,1.21
4676.00,1.21
4675.00,1.21
4674.00,1.21
4673.00,1.21
4672.00,1.22
4671.00,1.22
4670.00,1.22
4669.00,1.22
4668.00,1.22
4667.00,1.22
4666.00,1.22
4665.00,1.22
4664.00,1.23
4663.00,1.23
4662.00,1.23
4661.00,1.23
4660.00,1.23
4659.00,1.23
4658.00,1.23
4657.00,1.23
4656.00,1.24
4655.00,1.24
4654.00,1.24
4653.00,1.24
4652.00,1.24
4651.00,1.24
4650.00,1.24
4649.00,1.25
4648.00,1.25
4647.00,1.25
4646.00,1.25
4645.00,1.25
4644.00,1.26
4643.00,1.26
4642.00,1.26
4641.00,1.26
4640.00,1.26
4639.00,1.26
4638.00,1.27
4637.00,1.27
4636.00,1.27
4635.00,1.27
4634.00,1.27
4633.00,1.27
4632.00,1.27
4631.00,1.27
4630.00,1.28
4629.00,1.28
4628.00,1.28
4627.00,1.28
4626.00,1.28
4625.00,1.28
4624.00,1.28
4623.00,1.28
4622.00,1.28
4621.00,1.28
4620.00,1.29
4619.00,1.29
4618.00,1.29
4617.00,1.29
4616.00,1.29
4615.00,1.29
4614.00,1.29
4613.00,1.29
4612.00,1.29
4611.00,1.29
4610.00,1.30
4609.00,1.30
4608.00,1.30
4607.00,1.30
4606.00,1.30
4605.00,1.30
4604.00,1.30
4603.00,1.30
4602.00,1.30
4601.00,1.30
4600.00,1.30
4599.00,1.30
4598.00,1.30
4597.00,1.30
4596.00,1.30
4595.00,1.31
4594.00,1.31
4593.00,1.31
4592.00,1.31
4591.00,1.31
4590.00,1.31
4589.00,1.31
4588.00,1.31
4587.00,1.32
4586.00,1.32
4585.00,1.32
4584.00,1.32
4583.00,1.32
4582.00,1.32
4581.00,1.33
4580.00,1.33
4579.00,1.33
4578.00,1.33
4577.00,1.33
4576.00,1.33
4575.00,1.33
4574.00,1.33
4573.00,1.34
4572.00,1.34
4571.00,1.34
4570.00,1.34
4569.00,1.34
4568.00,1.34
4567.00,1.34
4566.00,1.34
4565.00,1.34
4564.00,1.35
4563.00,1.35
4562.00,1.35
4561.00,1.35
4560.00,1.35
4559.00,1.35
4558.00,1.35
4557.00,1.35
4556.00,1.35
4555.00,1.35
4554.00,1.36
4553.00,1.36
4552.00,1.36
4551.00,1.36
4550.00,1.36
4549.00,1.36
4548.00,1.36
4547.00,1.36
4546.00,1.36
4545.00,1.36
4544.00,1.36
4543.00,1.36
4542.00,1.36
4541.00,1.36
4540.00,1.36
4539.00,1.36
4538.00,1.36
4537.00,1.36
4536.00,1.36
4535.00,1.36
4534.00,1.36
4533.00,1.36
4532.00,1.36
4531.00,1.36
4530.00,1.36
4529.00,1.36
4528.00,1.36
4527.00,1.36
4526.00,1.36
4525.00,1.37
4524.00,1.37
4523.00,1.37
4522.00,1.37
4521.00,1.37
4520.00,1.37
4519.00,1.37
4518.00,1.37
4517.00,1.37
4516.00,1.37
4515.00,1.37
4514.00,1.37
4513.00,1.37
4512.00,1.37
4511.00,1.37
4510.00,1.37
4509.00,1.37
4508.00,1.37
4507.00,1.37
4506.00,1.37
4505.00,1.37
4504.00,1.37
4503.00,1.37
4502.00,1.37
4501.00,1.37
4500.00,1.37
4499.00,1.37
4498.00,1.37
4497.00,1.37
4496.00,1.37
4495.00,1.37
4494.00,1.37
4493.00,1.37
4492.00,1.36
4491.00,1.36
4490.00,1.36
4489.00,1.36
4488.00,1.36
4487.00,1.36
4486.00,1.35
4485.00,1.35
4484.00,1.35
4483.00,1.35
4482.00,1.35
4481.00,1.34
4480.00,1.34
4479.00,1.34
4478.00,1.34
4477.00,1.33
4476.00,1.33
4475.00,1.33
4474.00,1.33
4473.00,1.32
4472.00,1.32
4471.00,1.32
4470.00,1.32
4469.00,1.31
4468.00,1.31
4467.00,1.31
4466.00,1.31
4465.00,1.30
4464.00,1.30
4463.00,1.30
4462.00,1.30
4461.00,1.29
4460.00,1.29
4459.00,1.28
4458.00,1.28
4457.00,1.28
4456.00,1.27
4455.00,1.27
4454.00,1.26
4453.00,1.26
4452.00,1.25
4451.00,1.25
4450.00,1.24
4449.00,1.24
4448.00,1.23
4447.00,1.23
4446.00,1.22
4445.00,1.22
4444.00,1.21
4443.00,1.21
4442.00,1.20
4441.00,1.20
4440.00,1.19
4439.00,1.19
4438.00,1.18
4437.00,1.18
4436.00,1.17
4435.00,1.17
4434.00,1.16
4433.00,1.16
4432.00,1.15
4431.00,1.15
4430.00,1.14
4429.00,1.14
4428.00,1.14
4427.00,1.13
4426.00,1.13
4425.00,1.13
4424.00,1.12
4423.00,1.12
4422.00,1.12
4421.00,1.12
4420.00,1.11
4419.00,1.11
4418.00,1.11
4417.00,1.11
4416.00,1.11
4415.00,1.11
4414.00,1.11
4413.00,1.11
4412.00,1.11
4411.00,1.11
4410.00,1.11
4409.00,1.11
4408.00,1.11
4407.00,1.11
4406.00,1.11
4405.00,1.11
4404.00,1.12
4403.00,1.12
4402.00,1.12
4401.00,1.12
4400.00,1.12
4399.00,1.12
4398.00,1.12
4397.00,1.13
4396.00,1.13
4395.00,1.13
4394.00,1.13
4393.00,1.14
4392.00,1.14
4391.00,1.14
4390.00,1.14
4389.00,1.15
4388.00,1.15
4387.00,1.15
4386.00,1.15
4385.00,1.15
4384.00,1.16
4383.00,1.16
4382.00,1.16
4381.00,1.16
4380.00,1.16
4379.00,1.16
4378.00,1.16
4377.00,1.17
4376.00,1.17
4375.00,1.17
4374.00,1.17
4373.00,1.17
4372.00,1.17
4371.00,1.17
4370.00,1.17
4369.00,1.17
4368.00,1.17
4367.00,1.17
4366.00,1.17
4365.00,1.17
4364.00,1.17
4363.00,1.17
4362.00,1.17
4361.00,1.17
4360.00,1.17
4359.00,1.17
4358.00,1.17
4357.00,1.17
4356.00,1.17
4355.00,1.17
4354.00,1.17
4353.00,1.17
4352.00,1.17
4351.00,1.17
4350.00,1.17
4349.00,1.17
4348.00,1.17
4347.00,1.17
4346.00,1.17
4345.00,1.16
4344.00,1.16
4343.00,1.16
4342.00,1.16
4341.00,1.16
4340.00,1.16
4339.00,1.16
4338.00,1.16
4337.00,1.16
4336.00,1.16
4335.00,1.17
4334.00,1.17
4333.00,1.17
4332.00,1.17
4331.00,1.17
4330.00,1.17
4329.00,1.17
4328.00,1.17
4327.00,1.17
4326.00,1.17
4325.00,1.18
4324.00,1.18
4323.00,1.18
4322.00,1.18
4321.00,1.18
4320.00,1.18
4319.00,1.19
4318.00,1.19
4317.00,1.19
4316.00,1.19
4315.00,1.19
4314.00,1.20
4313.00,1.20
4312.00,1.20
4311.00,1.20
4310.00,1.21
4309.00,1.21
4308.00,1.21
4307.00,1.21
4306.00,1.21
4305.00,1.21
4304.00,1.22
4303.00,1.22
4302.00,1.22
4301.00,1.22
4300.00,1.23
4299.00,1.23
4298.00,1.23
4297.00,1.23
4296.00,1.24
4295.00,1.24
4294.00,1.24
4293.00,1.24
4292.00,1.25
4291.00,1.25
4290.00,1.25
4289.00,1.25
4288.00,1.26
4287.00,1.26
4286.00,1.26
4285.00,1.26
4284.00,1.26
4283.00,1.26
4282.00,1.27
4281.00,1.27
4280.00,1.27
4279.00,1.27
4278.00,1.26
4277.00,1.26
4276.00,1.26
4275.00,1.26
4274.00,1.26
4273.00,1.26
4272.00,1.26
4271.00,1.26
4270.00,1.26
4269.00,1.26
4268.00,1.25
4267.00,1.25
4266.00,1.25
4265.00,1.25
4264.00,1.25
4263.00,1.25
4262.00,1.25
4261.00,1.25
4260.00,1.25
4259.00,1.25
4258.00,1.25
4257.00,1.25
4256.00,1.25
4255.00,1.25
4254.00,1.25
4253.00,1.25
4252.00,1.25
4251.00,1.25
4250.00,1.25
4249.00,1.25
4248.00,1.26
4247.00,1.26
4246.00,1.26
4245.00,1.26
4244.00,1.26
4243.00,1.27
4242.00,1.27
4241.00,1.27
4240.00,1.27
4239.00,1.28
4238.00,1.28
4237.00,1.28
4236.00,1.28
4235.00,1.29
4234.00,1.29
4233.00,1.29
4232.00,1.29
4231.00,1.29
4230.00,1.29
4229.00,1.29
4228.00,1.29
4227.00,1.30
4226.00,1.30
4225.00,1.30
4224.00,1.30
4223.00,1.30
4222.00,1.30
4221.00,1.30
4220.00,1.30
4219.00,1.30
4218.00,1.30
4217.00,1.30
4216.00,1.30
4215.00,1.30
4214.00,1.30
4213.00,1.30
4212.00,1.30
4211.00,1.30
4210.00,1.30
4209.00,1.30
4208.00,1.30
4207.00,1.30
4206.00,1.30
4205.00,1.30
4204.00,1.30
4203.00,1.30
4202.00,1.30
4201.00,1.30
4200.00,1.30
4199.00,1.31
4198.00,1.31
4197.00,1.31
4196.00,1.31
4195.00,1.31
4194.00,1.31
4193.00,1.31
4192.00,1.31
4191.00,1.31
4190.00,1.32
4189.00,1.32
4188.00,1.32
4187.00,1.32
4186.00,1.32
4185.00,1.32
4184.00,1.32
4183.00,1.32
4182.00,1.32
4181.00,1.32
4180.00,1.32
4179.00,1.32
4178.00,1.32
4177.00,1.32
4176.00,1.32
4175.00,1.32
4174.00,1.32
4173.00,1.32
4172.00,1.32
4171.00,1.32
4170.00,1.32
4169.00,1.32
4168.00,1.32
4167.00,1.32
4166.00,1.32
4165.00,1.32
4164.00,1.32
4163.00,1.32
4162.00,1.32
4161.00,1.32
4160.00,1.31
4159.00,1.31
4158.00,1.31
4157.00,1.31
4156.00,1.31
4155.00,1.31
4154.00,1.30
4153.00,1.30
4152.00,1.30
4151.00,1.30
4150.00,1.30
4149.00,1.30
4148.00,1.30
4147.00,1.30
4146.00,1.30
4145.00,1.30
4144.00,1.30
4143.00,1.30
4142.00,1.30
4141.00,1.30
4140.00,1.31
4139.00,1.31
4138.00,1.31
4137.00,1.31
4136.00,1.31
4135.00,1.31
4134.00,1.31
4133.00,1.31
4132.00,1.31
4131.00,1.31
4130.00,1.31
4129.00,1.32
4128.00,1.32
4127.00,1.32
4126.00,1.32
4125.00,1.32
4124.00,1.32
4123.00,1.32
4122.00,1.33
4121.00,1.33
4120.00,1.33
4119.00,1.33
4118.00,1.33
4117.00,1.33
4116.00,1.33
4115.00,1.33
4114.00,1.33
4113.00,1.33
4112.00,1.33
4111.00,1.33
4110.00,1.33
4109.00,1.33
4108.00,1.33
4107.00,1.33
4106.00,1.33
4105.00,1.33
4104.00,1.33
4103.00,1.33
4102.00,1.33
4101.00,1.33
4100.00,1.33
4099.00,1.33
4098.00,1.33
4097.00,1.33
4096.00,1.33
4095.00,1.33
4094.00,1.33
4093.00,1.33
4092.00,1.34
4091.00,1.34
4090.00,1.34
4089.00,1.34
4088.00,1.34
4087.00,1.34
4086.00,1.34
4085.00,1.34
4084.00,1.34
4083.00,1.35
4082.00,1.35
4081.00,1.35
4080.00,1.35
4079.00,1.35
4078.00,1.35
4077.00,1.35
4076.00,1.36
4075.00,1.36
4074.00,1.36
4073.00,1.36
4072.00,1.36
4071.00,1.36
4070.00,1.36
4069.00,1.36
4068.00,1.36
4067.00,1.36
4066.00,1.36
4065.00,1.36
4064.00,1.36
4063.00,1.36
4062.00,1.36
4061.00,1.36
4060.00,1.36
4059.00,1.36
4058.00,1.36
4057.00,1.36
4056.00,1.36
4055.00,1.36
4054.00,1.36
4053.00,1.36
4052.00,1.36
4051.00,1.36
4050.00,1.36
4049.00,1.36
4048.00,1.36
4047.00,1.36
4046.00,1.36
4045.00,1.36
4044.00,1.36
4043.00,1.36
4042.00,1.36
4041.00,1.37
4040.00,1.37
4039.00,1.37
4038.00,1.37
4037.00,1.37
4036.00,1.37
4035.00,1.37
4034.00,1.37
4033.00,1.37
4032.00,1.37
4031.00,1.37
4030.00,1.37
4029.00,1.37
4028.00,1.37
4027.00,1.37
4026.00,1.37
4025.00,1.37
4024.00,1.37
4023.00,1.37
4022.00,1.37
4021.00,1.37
4020.00,1.37
4019.00,1.37
4018.00,1.38
4017.00,1.38
4016.00,1.38
4015.00,1.38
4014.00,1.39
4013.00,1.39
4012.00,1.39
4011.00,1.39
4010.00,1.40
4009.00,1.40
4008.00,1.40
4007.00,1.40
4006.00,1.40
4005.00,1.40
4004.00,1.40
4003.00,1.40
4002.00,1.40
4001.00,1.40
4000.00,1.40
