创建为新数据集,样品 041 用户 Administrator 日期 星期五, 七月 20 2018
cm-1,%T
10000.00,1.46
9999.00,1.45
9998.00,1.44
9997.00,1.44
9996.00,1.43
9995.00,1.42
9994.00,1.42
9993.00,1.41
9992.00,1.41
9991.00,1.40
9990.00,1.40
9989.00,1.40
9988.00,1.39
9987.00,1.39
9986.00,1.39
9985.00,1.39
9984.00,1.39
9983.00,1.39
9982.00,1.39
9981.00,1.39
9980.00,1.39
9979.00,1.39
9978.00,1.39
9977.00,1.39
9976.00,1.39
9975.00,1.39
9974.00,1.39
9973.00,1.39
9972.00,1.39
9971.00,1.39
9970.00,1.39
9969.00,1.39
9968.00,1.39
9967.00,1.39
9966.00,1.39
9965.00,1.39
9964.00,1.39
9963.00,1.39
9962.00,1.39
9961.00,1.39
9960.00,1.39
9959.00,1.39
9958.00,1.38
9957.00,1.38
9956.00,1.38
9955.00,1.38
9954.00,1.37
9953.00,1.37
9952.00,1.37
9951.00,1.37
9950.00,1.36
9949.00,1.36
9948.00,1.36
9947.00,1.36
9946.00,1.35
9945.00,1.35
9944.00,1.35
9943.00,1.35
9942.00,1.35
9941.00,1.35
9940.00,1.36
9939.00,1.36
9938.00,1.36
9937.00,1.36
9936.00,1.36
9935.00,1.36
9934.00,1.37
9933.00,1.37
9932.00,1.37
9931.00,1.37
9930.00,1.37
9929.00,1.38
9928.00,1.38
9927.00,1.38
9926.00,1.38
9925.00,1.38
9924.00,1.38
9923.00,1.38
9922.00,1.38
9921.00,1.38
9920.00,1.38
9919.00,1.38
9918.00,1.38
9917.00,1.38
9916.00,1.38
9915.00,1.38
9914.00,1.37
9913.00,1.37
9912.00,1.37
9911.00,1.37
9910.00,1.36
9909.00,1.36
9908.00,1.36
9907.00,1.36
9906.00,1.35
9905.00,1.35
9904.00,1.35
9903.00,1.34
9902.00,1.34
9901.00,1.34
9900.00,1.33
9899.00,1.33
9898.00,1.33
9897.00,1.33
9896.00,1.33
9895.00,1.33
9894.00,1.33
9893.00,1.33
9892.00,1.33
9891.00,1.33
9890.00,1.34
9889.00,1.34
9888.00,1.34
9887.00,1.35
9886.00,1.35
9885.00,1.36
9884.00,1.36
9883.00,1.36
9882.00,1.37
9881.00,1.37
9880.00,1.37
9879.00,1.38
9878.00,1.38
9877.00,1.38
9876.00,1.38
9875.00,1.38
9874.00,1.38
9873.00,1.38
9872.00,1.38
9871.00,1.38
9870.00,1.38
9869.00,1.38
9868.00,1.37
9867.00,1.37
9866.00,1.37
9865.00,1.37
9864.00,1.36
9863.00,1.36
9862.00,1.36
9861.00,1.36
9860.00,1.36
9859.00,1.35
9858.00,1.35
9857.00,1.35
9856.00,1.35
9855.00,1.35
9854.00,1.35
9853.00,1.35
9852.00,1.35
9851.00,1.35
9850.00,1.35
9849.00,1.35
9848.00,1.35
9847.00,1.35
9846.00,1.35
9845.00,1.35
9844.00,1.35
9843.00,1.35
9842.00,1.34
9841.00,1.34
9840.00,1.34
9839.00,1.34
9838.00,1.34
9837.00,1.34
9836.00,1.34
9835.00,1.33
9834.00,1.33
9833.00,1.33
9832.00,1.33
9831.00,1.33
9830.00,1.33
9829.00,1.33
9828.00,1.33
9827.00,1.33
9826.00,1.33
9825.00,1.33
9824.00,1.33
9823.00,1.33
9822.00,1.33
9821.00,1.33
9820.00,1.34
9819.00,1.34
9818.00,1.34
9817.00,1.34
9816.00,1.35
9815.00,1.35
9814.00,1.35
9813.00,1.35
9812.00,1.36
9811.00,1.36
9810.00,1.36
9809.00,1.36
9808.00,1.36
9807.00,1.36
9806.00,1.35
9805.00,1.35
9804.00,1.35
9803.00,1.35
9802.00,1.35
9801.00,1.34
9800.00,1.34
9799.00,1.34
9798.00,1.33
9797.00,1.33
9796.00,1.33
9795.00,1.32
9794.00,1.32
9793.00,1.32
9792.00,1.32
9791.00,1.32
9790.00,1.31
9789.00,1.31
9788.00,1.31
9787.00,1.31
9786.00,1.31
9785.00,1.31
9784.00,1.31
9783.00,1.31
9782.00,1.31
9781.00,1.31
9780.00,1.31
9779.00,1.32
9778.00,1.32
9777.00,1.32
9776.00,1.32
9775.00,1.33
9774.00,1.33
9773.00,1.33
9772.00,1.33
9771.00,1.34
9770.00,1.34
9769.00,1.34
9768.00,1.35
9767.00,1.35
9766.00,1.35
9765.00,1.35
9764.00,1.35
9763.00,1.35
9762.00,1.36
9761.00,1.36
9760.00,1.36
9759.00,1.36
9758.00,1.35
9757.00,1.35
9756.00,1.35
9755.00,1.35
9754.00,1.35
9753.00,1.35
9752.00,1.35
9751.00,1.35
9750.00,1.35
9749.00,1.36
9748.00,1.36
9747.00,1.36
9746.00,1.36
9745.00,1.36
9744.00,1.37
9743.00,1.37
9742.00,1.37
9741.00,1.37
9740.00,1.38
9739.00,1.38
9738.00,1.38
9737.00,1.38
9736.00,1.39
9735.00,1.39
9734.00,1.39
9733.00,1.39
9732.00,1.39
9731.00,1.39
9730.00,1.38
9729.00,1.38
9728.00,1.38
9727.00,1.38
9726.00,1.38
9725.00,1.37
9724.00,1.37
9723.00,1.37
9722.00,1.37
9721.00,1.37
9720.00,1.37
9719.00,1.37
9718.00,1.36
9717.00,1.36
9716.00,1.36
9715.00,1.36
9714.00,1.36
9713.00,1.36
9712.00,1.36
9711.00,1.36
9710.00,1.36
9709.00,1.36
9708.00,1.36
9707.00,1.35
9706.00,1.35
9705.00,1.35
9704.00,1.35
9703.00,1.35
9702.00,1.35
9701.00,1.35
9700.00,1.35
9699.00,1.35
9698.00,1.35
9697.00,1.35
9696.00,1.35
9695.00,1.35
9694.00,1.35
9693.00,1.35
9692.00,1.35
9691.00,1.35
9690.00,1.35
9689.00,1.35
9688.00,1.35
9687.00,1.35
9686.00,1.35
9685.00,1.35
9684.00,1.35
9683.00,1.35
9682.00,1.35
9681.00,1.35
9680.00,1.35
9679.00,1.35
9678.00,1.36
9677.00,1.36
9676.00,1.36
9675.00,1.36
9674.00,1.36
9673.00,1.36
9672.00,1.36
9671.00,1.35
9670.00,1.35
9669.00,1.35
9668.00,1.35
9667.00,1.35
9666.00,1.35
9665.00,1.35
9664.00,1.35
9663.00,1.35
9662.00,1.35
9661.00,1.35
9660.00,1.35
9659.00,1.35
9658.00,1.35
9657.00,1.35
9656.00,1.35
9655.00,1.35
9654.00,1.35
9653.00,1.35
9652.00,1.35
9651.00,1.35
9650.00,1.35
9649.00,1.35
9648.00,1.35
9647.00,1.35
9646.00,1.35
9645.00,1.35
9644.00,1.35
9643.00,1.35
9642.00,1.35
9641.00,1.35
9640.00,1.35
9639.00,1.35
9638.00,1.35
9637.00,1.35
9636.00,1.35
9635.00,1.35
9634.00,1.35
9633.00,1.35
9632.00,1.35
9631.00,1.35
9630.00,1.35
9629.00,1.35
9628.00,1.35
9627.00,1.35
9626.00,1.35
9625.00,1.36
9624.00,1.36
9623.00,1.36
9622.00,1.36
9621.00,1.36
9620.00,1.36
9619.00,1.36
9618.00,1.36
9617.00,1.36
9616.00,1.36
9615.00,1.36
9614.00,1.36
9613.00,1.36
9612.00,1.35
9611.00,1.35
9610.00,1.35
9609.00,1.35
9608.00,1.35
9607.00,1.35
9606.00,1.35
9605.00,1.35
9604.00,1.35
9603.00,1.35
9602.00,1.34
9601.00,1.34
9600.00,1.34
9599.00,1.34
9598.00,1.34
9597.00,1.34
9596.00,1.34
9595.00,1.34
9594.00,1.34
9593.00,1.34
9592.00,1.34
9591.00,1.34
9590.00,1.34
9589.00,1.35
9588.00,1.35
9587.00,1.35
9586.00,1.35
9585.00,1.35
9584.00,1.35
9583.00,1.35
9582.00,1.36
9581.00,1.36
9580.00,1.36
9579.00,1.36
9578.00,1.36
9577.00,1.36
9576.00,1.36
9575.00,1.36
9574.00,1.36
9573.00,1.36
9572.00,1.36
9571.00,1.36
9570.00,1.36
9569.00,1.36
9568.00,1.36
9567.00,1.36
9566.00,1.36
9565.00,1.36
9564.00,1.36
9563.00,1.36
9562.00,1.36
9561.00,1.36
9560.00,1.35
9559.00,1.35
9558.00,1.35
9557.00,1.35
9556.00,1.35
9555.00,1.35
9554.00,1.35
9553.00,1.35
9552.00,1.36
9551.00,1.36
9550.00,1.36
9549.00,1.36
9548.00,1.36
9547.00,1.36
9546.00,1.36
9545.00,1.36
9544.00,1.36
9543.00,1.36
9542.00,1.36
9541.00,1.36
9540.00,1.36
9539.00,1.36
9538.00,1.36
9537.00,1.36
9536.00,1.36
9535.00,1.36
9534.00,1.36
9533.00,1.36
9532.00,1.36
9531.00,1.36
9530.00,1.36
9529.00,1.36
9528.00,1.36
9527.00,1.36
9526.00,1.36
9525.00,1.36
9524.00,1.36
9523.00,1.36
9522.00,1.36
9521.00,1.36
9520.00,1.36
9519.00,1.36
9518.00,1.36
9517.00,1.36
9516.00,1.36
9515.00,1.36
9514.00,1.36
9513.00,1.36
9512.00,1.36
9511.00,1.36
9510.00,1.36
9509.00,1.36
9508.00,1.36
9507.00,1.36
9506.00,1.36
9505.00,1.36
9504.00,1.36
9503.00,1.36
9502.00,1.36
9501.00,1.36
9500.00,1.35
9499.00,1.35
9498.00,1.35
9497.00,1.35
9496.00,1.35
9495.00,1.35
9494.00,1.35
9493.00,1.35
9492.00,1.35
9491.00,1.36
9490.00,1.36
9489.00,1.36
9488.00,1.36
9487.00,1.36
9486.00,1.36
9485.00,1.36
9484.00,1.36
9483.00,1.37
9482.00,1.37
9481.00,1.37
9480.00,1.37
9479.00,1.37
9478.00,1.37
9477.00,1.37
9476.00,1.37
9475.00,1.37
9474.00,1.37
9473.00,1.37
9472.00,1.36
9471.00,1.36
9470.00,1.36
9469.00,1.36
9468.00,1.36
9467.00,1.36
9466.00,1.35
9465.00,1.35
9464.00,1.35
9463.00,1.35
9462.00,1.35
9461.00,1.35
9460.00,1.35
9459.00,1.35
9458.00,1.35
9457.00,1.35
9456.00,1.35
9455.00,1.35
9454.00,1.35
9453.00,1.35
9452.00,1.35
9451.00,1.35
9450.00,1.35
9449.00,1.35
9448.00,1.35
9447.00,1.35
9446.00,1.35
9445.00,1.35
9444.00,1.35
9443.00,1.35
9442.00,1.35
9441.00,1.35
9440.00,1.35
9439.00,1.35
9438.00,1.35
9437.00,1.35
9436.00,1.35
9435.00,1.35
9434.00,1.35
9433.00,1.35
9432.00,1.35
9431.00,1.35
9430.00,1.35
9429.00,1.35
9428.00,1.35
9427.00,1.35
9426.00,1.35
9425.00,1.35
9424.00,1.35
9423.00,1.35
9422.00,1.35
9421.00,1.35
9420.00,1.35
9419.00,1.35
9418.00,1.35
9417.00,1.35
9416.00,1.34
9415.00,1.34
9414.00,1.34
9413.00,1.34
9412.00,1.34
9411.00,1.34
9410.00,1.34
9409.00,1.34
9408.00,1.34
9407.00,1.34
9406.00,1.34
9405.00,1.34
9404.00,1.34
9403.00,1.34
9402.00,1.34
9401.00,1.34
9400.00,1.34
9399.00,1.34
9398.00,1.34
9397.00,1.35
9396.00,1.35
9395.00,1.35
9394.00,1.35
9393.00,1.35
9392.00,1.35
9391.00,1.35
9390.00,1.36
9389.00,1.36
9388.00,1.36
9387.00,1.36
9386.00,1.36
9385.00,1.36
9384.00,1.36
9383.00,1.36
9382.00,1.37
9381.00,1.37
9380.00,1.37
9379.00,1.37
9378.00,1.37
9377.00,1.37
9376.00,1.37
9375.00,1.37
9374.00,1.37
9373.00,1.37
9372.00,1.37
9371.00,1.36
9370.00,1.36
9369.00,1.36
9368.00,1.36
9367.00,1.36
9366.00,1.36
9365.00,1.35
9364.00,1.35
9363.00,1.35
9362.00,1.35
9361.00,1.35
9360.00,1.35
9359.00,1.35
9358.00,1.35
9357.00,1.35
9356.00,1.35
9355.00,1.36
9354.00,1.36
9353.00,1.36
9352.00,1.36
9351.00,1.37
9350.00,1.37
9349.00,1.37
9348.00,1.38
9347.00,1.38
9346.00,1.38
9345.00,1.38
9344.00,1.38
9343.00,1.39
9342.00,1.39
9341.00,1.39
9340.00,1.39
9339.00,1.39
9338.00,1.39
9337.00,1.39
9336.00,1.39
9335.00,1.39
9334.00,1.39
9333.00,1.38
9332.00,1.38
9331.00,1.38
9330.00,1.38
9329.00,1.38
9328.00,1.38
9327.00,1.38
9326.00,1.38
9325.00,1.38
9324.00,1.38
9323.00,1.38
9322.00,1.38
9321.00,1.37
9320.00,1.37
9319.00,1.37
9318.00,1.37
9317.00,1.37
9316.00,1.37
9315.00,1.37
9314.00,1.37
9313.00,1.37
9312.00,1.37
9311.00,1.37
9310.00,1.37
9309.00,1.37
9308.00,1.37
9307.00,1.37
9306.00,1.36
9305.00,1.36
9304.00,1.36
9303.00,1.36
9302.00,1.36
9301.00,1.36
9300.00,1.36
9299.00,1.36
9298.00,1.36
9297.00,1.36
9296.00,1.36
9295.00,1.36
9294.00,1.36
9293.00,1.36
9292.00,1.36
9291.00,1.36
9290.00,1.36
9289.00,1.36
9288.00,1.37
9287.00,1.37
9286.00,1.37
9285.00,1.37
9284.00,1.37
9283.00,1.37
9282.00,1.37
9281.00,1.37
9280.00,1.37
9279.00,1.37
9278.00,1.37
9277.00,1.37
9276.00,1.37
9275.00,1.37
9274.00,1.37
9273.00,1.37
9272.00,1.37
9271.00,1.37
9270.00,1.36
9269.00,1.36
9268.00,1.36
9267.00,1.36
9266.00,1.36
9265.00,1.36
9264.00,1.36
9263.00,1.36
9262.00,1.36
9261.00,1.36
9260.00,1.35
9259.00,1.35
9258.00,1.35
9257.00,1.35
9256.00,1.36
9255.00,1.36
9254.00,1.36
9253.00,1.36
9252.00,1.36
9251.00,1.36
9250.00,1.36
9249.00,1.36
9248.00,1.36
9247.00,1.36
9246.00,1.36
9245.00,1.37
9244.00,1.37
9243.00,1.37
9242.00,1.37
9241.00,1.37
9240.00,1.37
9239.00,1.37
9238.00,1.37
9237.00,1.37
9236.00,1.37
9235.00,1.37
9234.00,1.37
9233.00,1.37
9232.00,1.37
9231.00,1.37
9230.00,1.37
9229.00,1.37
9228.00,1.37
9227.00,1.37
9226.00,1.36
9225.00,1.36
9224.00,1.36
9223.00,1.36
9222.00,1.36
9221.00,1.36
9220.00,1.36
9219.00,1.36
9218.00,1.36
9217.00,1.36
9216.00,1.36
9215.00,1.36
9214.00,1.36
9213.00,1.35
9212.00,1.35
9211.00,1.35
9210.00,1.35
9209.00,1.35
9208.00,1.34
9207.00,1.34
9206.00,1.34
9205.00,1.34
9204.00,1.34
9203.00,1.34
9202.00,1.34
9201.00,1.34
9200.00,1.34
9199.00,1.34
9198.00,1.34
9197.00,1.34
9196.00,1.34
9195.00,1.34
9194.00,1.35
9193.00,1.35
9192.00,1.35
9191.00,1.35
9190.00,1.35
9189.00,1.35
9188.00,1.35
9187.00,1.35
9186.00,1.35
9185.00,1.35
9184.00,1.35
9183.00,1.35
9182.00,1.35
9181.00,1.35
9180.00,1.35
9179.00,1.35
9178.00,1.35
9177.00,1.35
9176.00,1.35
9175.00,1.36
9174.00,1.36
9173.00,1.36
9172.00,1.36
9171.00,1.36
9170.00,1.36
9169.00,1.36
9168.00,1.36
9167.00,1.36
9166.00,1.36
9165.00,1.36
9164.00,1.36
9163.00,1.36
9162.00,1.36
9161.00,1.36
9160.00,1.36
9159.00,1.36
9158.00,1.36
9157.00,1.36
9156.00,1.36
9155.00,1.36
9154.00,1.36
9153.00,1.37
9152.00,1.37
9151.00,1.37
9150.00,1.37
9149.00,1.37
9148.00,1.37
9147.00,1.37
9146.00,1.37
9145.00,1.37
9144.00,1.37
9143.00,1.37
9142.00,1.37
9141.00,1.37
9140.00,1.37
9139.00,1.37
9138.00,1.37
9137.00,1.37
9136.00,1.37
9135.00,1.37
9134.00,1.37
9133.00,1.36
9132.00,1.36
9131.00,1.36
9130.00,1.36
9129.00,1.36
9128.00,1.36
9127.00,1.35
9126.00,1.35
9125.00,1.35
9124.00,1.35
9123.00,1.35
9122.00,1.35
9121.00,1.35
9120.00,1.35
9119.00,1.35
9118.00,1.35
9117.00,1.35
9116.00,1.35
9115.00,1.35
9114.00,1.35
9113.00,1.35
9112.00,1.35
9111.00,1.35
9110.00,1.35
9109.00,1.36
9108.00,1.36
9107.00,1.36
9106.00,1.36
9105.00,1.36
9104.00,1.37
9103.00,1.37
9102.00,1.37
9101.00,1.37
9100.00,1.37
9099.00,1.38
9098.00,1.38
9097.00,1.38
9096.00,1.38
9095.00,1.38
9094.00,1.38
9093.00,1.39
9092.00,1.39
9091.00,1.39
9090.00,1.39
9089.00,1.39
9088.00,1.39
9087.00,1.39
9086.00,1.39
9085.00,1.39
9084.00,1.39
9083.00,1.38
9082.00,1.38
9081.00,1.38
9080.00,1.38
9079.00,1.38
9078.00,1.38
9077.00,1.37
9076.00,1.37
9075.00,1.37
9074.00,1.37
9073.00,1.37
9072.00,1.37
9071.00,1.37
9070.00,1.37
9069.00,1.37
9068.00,1.37
9067.00,1.37
9066.00,1.37
9065.00,1.37
9064.00,1.37
9063.00,1.37
9062.00,1.37
9061.00,1.37
9060.00,1.37
9059.00,1.37
9058.00,1.37
9057.00,1.37
9056.00,1.37
9055.00,1.37
9054.00,1.37
9053.00,1.37
9052.00,1.37
9051.00,1.37
9050.00,1.37
9049.00,1.37
9048.00,1.37
9047.00,1.37
9046.00,1.37
9045.00,1.37
9044.00,1.37
9043.00,1.37
9042.00,1.37
9041.00,1.37
9040.00,1.38
9039.00,1.38
9038.00,1.38
9037.00,1.38
9036.00,1.38
9035.00,1.38
9034.00,1.38
9033.00,1.38
9032.00,1.38
9031.00,1.38
9030.00,1.38
9029.00,1.38
9028.00,1.38
9027.00,1.38
9026.00,1.38
9025.00,1.38
9024.00,1.38
9023.00,1.38
9022.00,1.38
9021.00,1.38
9020.00,1.38
9019.00,1.38
9018.00,1.38
9017.00,1.38
9016.00,1.38
9015.00,1.38
9014.00,1.38
9013.00,1.38
9012.00,1.38
9011.00,1.38
9010.00,1.38
9009.00,1.38
9008.00,1.38
9007.00,1.38
9006.00,1.38
9005.00,1.38
9004.00,1.38
9003.00,1.38
9002.00,1.38
9001.00,1.38
9000.00,1.38
8999.00,1.38
8998.00,1.39
8997.00,1.39
8996.00,1.39
8995.00,1.39
8994.00,1.39
8993.00,1.39
8992.00,1.39
8991.00,1.39
8990.00,1.39
8989.00,1.39
8988.00,1.39
8987.00,1.39
8986.00,1.39
8985.00,1.39
8984.00,1.38
8983.00,1.38
8982.00,1.38
8981.00,1.38
8980.00,1.38
8979.00,1.38
8978.00,1.38
8977.00,1.38
8976.00,1.38
8975.00,1.38
8974.00,1.38
8973.00,1.38
8972.00,1.38
8971.00,1.38
8970.00,1.38
8969.00,1.38
8968.00,1.38
8967.00,1.38
8966.00,1.38
8965.00,1.38
8964.00,1.38
8963.00,1.38
8962.00,1.38
8961.00,1.38
8960.00,1.38
8959.00,1.38
8958.00,1.38
8957.00,1.38
8956.00,1.38
8955.00,1.38
8954.00,1.37
8953.00,1.37
8952.00,1.37
8951.00,1.37
8950.00,1.37
8949.00,1.37
8948.00,1.37
8947.00,1.37
8946.00,1.37
8945.00,1.37
8944.00,1.37
8943.00,1.37
8942.00,1.37
8941.00,1.37
8940.00,1.38
8939.00,1.38
8938.00,1.38
8937.00,1.38
8936.00,1.38
8935.00,1.38
8934.00,1.38
8933.00,1.38
8932.00,1.38
8931.00,1.38
8930.00,1.38
8929.00,1.38
8928.00,1.38
8927.00,1.38
8926.00,1.38
8925.00,1.38
8924.00,1.38
8923.00,1.38
8922.00,1.38
8921.00,1.38
8920.00,1.38
8919.00,1.38
8918.00,1.38
8917.00,1.38
8916.00,1.38
8915.00,1.38
8914.00,1.38
8913.00,1.38
8912.00,1.37
8911.00,1.37
8910.00,1.37
8909.00,1.37
8908.00,1.37
8907.00,1.37
8906.00,1.37
8905.00,1.37
8904.00,1.37
8903.00,1.37
8902.00,1.37
8901.00,1.37
8900.00,1.38
8899.00,1.38
8898.00,1.38
8897.00,1.38
8896.00,1.38
8895.00,1.38
8894.00,1.38
8893.00,1.38
8892.00,1.38
8891.00,1.38
8890.00,1.38
8889.00,1.38
8888.00,1.38
8887.00,1.38
8886.00,1.38
8885.00,1.38
8884.00,1.38
8883.00,1.38
8882.00,1.38
8881.00,1.38
8880.00,1.38
8879.00,1.38
8878.00,1.38
8877.00,1.38
8876.00,1.38
8875.00,1.38
8874.00,1.38
8873.00,1.38
8872.00,1.38
8871.00,1.38
8870.00,1.38
8869.00,1.38
8868.00,1.38
8867.00,1.38
8866.00,1.38
8865.00,1.38
8864.00,1.38
8863.00,1.38
8862.00,1.38
8861.00,1.38
8860.00,1.38
8859.00,1.38
8858.00,1.38
8857.00,1.38
8856.00,1.38
8855.00,1.38
8854.00,1.38
8853.00,1.38
8852.00,1.38
8851.00,1.38
8850.00,1.38
8849.00,1.38
8848.00,1.38
8847.00,1.38
8846.00,1.38
8845.00,1.37
8844.00,1.37
8843.00,1.37
8842.00,1.37
8841.00,1.37
8840.00,1.37
8839.00,1.37
8838.00,1.37
8837.00,1.37
8836.00,1.37
8835.00,1.36
8834.00,1.36
8833.00,1.36
8832.00,1.36
8831.00,1.36
8830.00,1.36
8829.00,1.36
8828.00,1.36
8827.00,1.35
8826.00,1.35
8825.00,1.35
8824.00,1.35
8823.00,1.35
8822.00,1.35
8821.00,1.35
8820.00,1.35
8819.00,1.35
8818.00,1.34
8817.00,1.34
8816.00,1.34
8815.00,1.34
8814.00,1.34
8813.00,1.34
8812.00,1.34
8811.00,1.34
8810.00,1.34
8809.00,1.34
8808.00,1.34
8807.00,1.34
8806.00,1.34
8805.00,1.34
8804.00,1.34
8803.00,1.34
8802.00,1.34
8801.00,1.34
8800.00,1.34
8799.00,1.34
8798.00,1.34
8797.00,1.34
8796.00,1.33
8795.00,1.33
8794.00,1.33
8793.00,1.33
8792.00,1.33
8791.00,1.34
8790.00,1.34
8789.00,1.34
8788.00,1.34
8787.00,1.34
8786.00,1.34
8785.00,1.34
8784.00,1.34
8783.00,1.34
8782.00,1.34
8781.00,1.34
8780.00,1.34
8779.00,1.34
8778.00,1.34
8777.00,1.34
8776.00,1.34
8775.00,1.34
8774.00,1.34
8773.00,1.34
8772.00,1.33
8771.00,1.33
8770.00,1.33
8769.00,1.33
8768.00,1.33
8767.00,1.32
8766.00,1.32
8765.00,1.32
8764.00,1.32
8763.00,1.32
8762.00,1.31
8761.00,1.31
8760.00,1.31
8759.00,1.31
8758.00,1.31
8757.00,1.31
8756.00,1.31
8755.00,1.31
8754.00,1.31
8753.00,1.31
8752.00,1.31
8751.00,1.31
8750.00,1.31
8749.00,1.31
8748.00,1.31
8747.00,1.32
8746.00,1.32
8745.00,1.32
8744.00,1.32
8743.00,1.32
8742.00,1.32
8741.00,1.32
8740.00,1.32
8739.00,1.32
8738.00,1.32
8737.00,1.31
8736.00,1.31
8735.00,1.31
8734.00,1.31
8733.00,1.31
8732.00,1.31
8731.00,1.31
8730.00,1.30
8729.00,1.30
8728.00,1.30
8727.00,1.30
8726.00,1.30
8725.00,1.30
8724.00,1.30
8723.00,1.30
8722.00,1.30
8721.00,1.30
8720.00,1.30
8719.00,1.30
8718.00,1.30
8717.00,1.30
8716.00,1.30
8715.00,1.30
8714.00,1.30
8713.00,1.30
8712.00,1.30
8711.00,1.30
8710.00,1.29
8709.00,1.29
8708.00,1.29
8707.00,1.29
8706.00,1.29
8705.00,1.29
8704.00,1.29
8703.00,1.29
8702.00,1.29
8701.00,1.29
8700.00,1.29
8699.00,1.29
8698.00,1.29
8697.00,1.29
8696.00,1.29
8695.00,1.29
8694.00,1.29
8693.00,1.29
8692.00,1.29
8691.00,1.29
8690.00,1.29
8689.00,1.29
8688.00,1.29
8687.00,1.29
8686.00,1.29
8685.00,1.29
8684.00,1.29
8683.00,1.29
8682.00,1.29
8681.00,1.29
8680.00,1.29
8679.00,1.29
8678.00,1.29
8677.00,1.29
8676.00,1.29
8675.00,1.29
8674.00,1.29
8673.00,1.29
8672.00,1.29
8671.00,1.29
8670.00,1.29
8669.00,1.29
8668.00,1.29
8667.00,1.29
8666.00,1.29
8665.00,1.29
8664.00,1.29
8663.00,1.30
8662.00,1.30
8661.00,1.30
8660.00,1.30
8659.00,1.30
8658.00,1.30
8657.00,1.30
8656.00,1.30
8655.00,1.30
8654.00,1.30
8653.00,1.30
8652.00,1.30
8651.00,1.30
8650.00,1.29
8649.00,1.29
8648.00,1.29
8647.00,1.29
8646.00,1.29
8645.00,1.29
8644.00,1.29
8643.00,1.29
8642.00,1.29
8641.00,1.29
8640.00,1.29
8639.00,1.29
8638.00,1.28
8637.00,1.28
8636.00,1.28
8635.00,1.28
8634.00,1.28
8633.00,1.28
8632.00,1.28
8631.00,1.28
8630.00,1.28
8629.00,1.28
8628.00,1.28
8627.00,1.28
8626.00,1.28
8625.00,1.28
8624.00,1.28
8623.00,1.28
8622.00,1.28
8621.00,1.28
8620.00,1.28
8619.00,1.28
8618.00,1.28
8617.00,1.28
8616.00,1.28
8615.00,1.29
8614.00,1.29
8613.00,1.29
8612.00,1.29
8611.00,1.29
8610.00,1.29
8609.00,1.28
8608.00,1.28
8607.00,1.28
8606.00,1.28
8605.00,1.28
8604.00,1.28
8603.00,1.28
8602.00,1.28
8601.00,1.28
8600.00,1.28
8599.00,1.28
8598.00,1.28
8597.00,1.28
8596.00,1.28
8595.00,1.28
8594.00,1.27
8593.00,1.27
8592.00,1.27
8591.00,1.27
8590.00,1.27
8589.00,1.27
8588.00,1.27
8587.00,1.27
8586.00,1.27
8585.00,1.26
8584.00,1.26
8583.00,1.26
8582.00,1.26
8581.00,1.26
8580.00,1.26
8579.00,1.26
8578.00,1.26
8577.00,1.26
8576.00,1.26
8575.00,1.26
8574.00,1.26
8573.00,1.26
8572.00,1.26
8571.00,1.26
8570.00,1.26
8569.00,1.26
8568.00,1.26
8567.00,1.26
8566.00,1.26
8565.00,1.26
8564.00,1.26
8563.00,1.26
8562.00,1.26
8561.00,1.26
8560.00,1.25
8559.00,1.25
8558.00,1.25
8557.00,1.25
8556.00,1.25
8555.00,1.25
8554.00,1.25
8553.00,1.25
8552.00,1.25
8551.00,1.24
8550.00,1.24
8549.00,1.24
8548.00,1.24
8547.00,1.24
8546.00,1.24
8545.00,1.24
8544.00,1.24
8543.00,1.24
8542.00,1.24
8541.00,1.24
8540.00,1.24
8539.00,1.24
8538.00,1.24
8537.00,1.23
8536.00,1.23
8535.00,1.23
8534.00,1.23
8533.00,1.23
8532.00,1.23
8531.00,1.23
8530.00,1.23
8529.00,1.23
8528.00,1.23
8527.00,1.23
8526.00,1.23
8525.00,1.23
8524.00,1.22
8523.00,1.22
8522.00,1.22
8521.00,1.22
8520.00,1.22
8519.00,1.22
8518.00,1.22
8517.00,1.22
8516.00,1.21
8515.00,1.21
8514.00,1.21
8513.00,1.21
8512.00,1.21
8511.00,1.21
8510.00,1.21
8509.00,1.21
8508.00,1.21
8507.00,1.21
8506.00,1.21
8505.00,1.21
8504.00,1.21
8503.00,1.21
8502.00,1.21
8501.00,1.21
8500.00,1.21
8499.00,1.21
8498.00,1.21
8497.00,1.21
8496.00,1.21
8495.00,1.21
8494.00,1.21
8493.00,1.21
8492.00,1.21
8491.00,1.21
8490.00,1.21
8489.00,1.20
8488.00,1.20
8487.00,1.20
8486.00,1.20
8485.00,1.20
8484.00,1.20
8483.00,1.20
8482.00,1.20
8481.00,1.20
8480.00,1.20
8479.00,1.20
8478.00,1.20
8477.00,1.20
8476.00,1.20
8475.00,1.20
8474.00,1.20
8473.00,1.20
8472.00,1.20
8471.00,1.19
8470.00,1.19
8469.00,1.19
8468.00,1.19
8467.00,1.19
8466.00,1.19
8465.00,1.19
8464.00,1.18
8463.00,1.18
8462.00,1.18
8461.00,1.18
8460.00,1.17
8459.00,1.17
8458.00,1.17
8457.00,1.17
8456.00,1.17
8455.00,1.17
8454.00,1.16
8453.00,1.16
8452.00,1.16
8451.00,1.16
8450.00,1.16
8449.00,1.16
8448.00,1.16
8447.00,1.16
8446.00,1.16
8445.00,1.16
8444.00,1.16
8443.00,1.16
8442.00,1.16
8441.00,1.16
8440.00,1.16
8439.00,1.16
8438.00,1.16
8437.00,1.16
8436.00,1.16
8435.00,1.16
8434.00,1.16
8433.00,1.16
8432.00,1.16
8431.00,1.16
8430.00,1.17
8429.00,1.17
8428.00,1.17
8427.00,1.17
8426.00,1.17
8425.00,1.17
8424.00,1.17
8423.00,1.18
8422.00,1.18
8421.00,1.18
8420.00,1.18
8419.00,1.18
8418.00,1.18
8417.00,1.19
8416.00,1.19
8415.00,1.19
8414.00,1.19
8413.00,1.19
8412.00,1.19
8411.00,1.19
8410.00,1.19
8409.00,1.19
8408.00,1.19
8407.00,1.19
8406.00,1.19
8405.00,1.19
8404.00,1.19
8403.00,1.19
8402.00,1.19
8401.00,1.19
8400.00,1.19
8399.00,1.19
8398.00,1.19
8397.00,1.19
8396.00,1.19
8395.00,1.19
8394.00,1.19
8393.00,1.19
8392.00,1.19
8391.00,1.19
8390.00,1.19
8389.00,1.19
8388.00,1.20
8387.00,1.20
8386.00,1.20
8385.00,1.20
8384.00,1.21
8383.00,1.21
8382.00,1.21
8381.00,1.21
8380.00,1.22
8379.00,1.22
8378.00,1.22
8377.00,1.22
8376.00,1.22
8375.00,1.22
8374.00,1.22
8373.00,1.22
8372.00,1.22
8371.00,1.22
8370.00,1.22
8369.00,1.22
8368.00,1.22
8367.00,1.22
8366.00,1.22
8365.00,1.22
8364.00,1.22
8363.00,1.22
8362.00,1.22
8361.00,1.22
8360.00,1.22
8359.00,1.22
8358.00,1.22
8357.00,1.21
8356.00,1.21
8355.00,1.21
8354.00,1.21
8353.00,1.21
8352.00,1.21
8351.00,1.21
8350.00,1.21
8349.00,1.21
8348.00,1.21
8347.00,1.21
8346.00,1.21
8345.00,1.21
8344.00,1.21
8343.00,1.21
8342.00,1.21
8341.00,1.21
8340.00,1.21
8339.00,1.22
8338.00,1.22
8337.00,1.22
8336.00,1.22
8335.00,1.22
8334.00,1.22
8333.00,1.22
8332.00,1.22
8331.00,1.22
8330.00,1.22
8329.00,1.22
8328.00,1.22
8327.00,1.22
8326.00,1.22
8325.00,1.22
8324.00,1.22
8323.00,1.22
8322.00,1.22
8321.00,1.22
8320.00,1.22
8319.00,1.22
8318.00,1.22
8317.00,1.22
8316.00,1.22
8315.00,1.22
8314.00,1.22
8313.00,1.22
8312.00,1.22
8311.00,1.22
8310.00,1.22
8309.00,1.22
8308.00,1.22
8307.00,1.22
8306.00,1.22
8305.00,1.22
8304.00,1.22
8303.00,1.22
8302.00,1.22
8301.00,1.22
8300.00,1.22
8299.00,1.22
8298.00,1.22
8297.00,1.22
8296.00,1.22
8295.00,1.22
8294.00,1.22
8293.00,1.23
8292.00,1.23
8291.00,1.23
8290.00,1.23
8289.00,1.23
8288.00,1.23
8287.00,1.23
8286.00,1.23
8285.00,1.23
8284.00,1.23
8283.00,1.23
8282.00,1.23
8281.00,1.23
8280.00,1.23
8279.00,1.23
8278.00,1.24
8277.00,1.24
8276.00,1.24
8275.00,1.24
8274.00,1.24
8273.00,1.24
8272.00,1.24
8271.00,1.24
8270.00,1.24
8269.00,1.24
8268.00,1.24
8267.00,1.24
8266.00,1.24
8265.00,1.24
8264.00,1.24
8263.00,1.24
8262.00,1.24
8261.00,1.24
8260.00,1.24
8259.00,1.24
8258.00,1.24
8257.00,1.24
8256.00,1.24
8255.00,1.24
8254.00,1.24
8253.00,1.24
8252.00,1.24
8251.00,1.24
8250.00,1.24
8249.00,1.24
8248.00,1.24
8247.00,1.24
8246.00,1.24
8245.00,1.24
8244.00,1.24
8243.00,1.24
8242.00,1.25
8241.00,1.25
8240.00,1.25
8239.00,1.25
8238.00,1.25
8237.00,1.25
8236.00,1.25
8235.00,1.25
8234.00,1.26
8233.00,1.26
8232.00,1.26
8231.00,1.26
8230.00,1.26
8229.00,1.26
8228.00,1.25
8227.00,1.25
8226.00,1.25
8225.00,1.25
8224.00,1.25
8223.00,1.25
8222.00,1.25
8221.00,1.25
8220.00,1.25
8219.00,1.25
8218.00,1.25
8217.00,1.25
8216.00,1.25
8215.00,1.25
8214.00,1.25
8213.00,1.26
8212.00,1.26
8211.00,1.26
8210.00,1.26
8209.00,1.26
8208.00,1.26
8207.00,1.27
8206.00,1.27
8205.00,1.27
8204.00,1.27
8203.00,1.28
8202.00,1.28
8201.00,1.28
8200.00,1.28
8199.00,1.28
8198.00,1.28
8197.00,1.28
8196.00,1.28
8195.00,1.28
8194.00,1.28
8193.00,1.28
8192.00,1.28
8191.00,1.28
8190.00,1.28
8189.00,1.28
8188.00,1.28
8187.00,1.28
8186.00,1.28
8185.00,1.28
8184.00,1.28
8183.00,1.28
8182.00,1.28
8181.00,1.28
8180.00,1.28
8179.00,1.28
8178.00,1.28
8177.00,1.28
8176.00,1.28
8175.00,1.28
8174.00,1.28
8173.00,1.28
8172.00,1.28
8171.00,1.28
8170.00,1.28
8169.00,1.28
8168.00,1.28
8167.00,1.28
8166.00,1.28
8165.00,1.28
8164.00,1.28
8163.00,1.28
8162.00,1.28
8161.00,1.28
8160.00,1.28
8159.00,1.28
8158.00,1.28
8157.00,1.28
8156.00,1.28
8155.00,1.28
8154.00,1.28
8153.00,1.28
8152.00,1.28
8151.00,1.28
8150.00,1.28
8149.00,1.28
8148.00,1.29
8147.00,1.29
8146.00,1.29
8145.00,1.29
8144.00,1.29
8143.00,1.29
8142.00,1.29
8141.00,1.30
8140.00,1.30
8139.00,1.30
8138.00,1.30
8137.00,1.30
8136.00,1.30
8135.00,1.30
8134.00,1.30
8133.00,1.30
8132.00,1.30
8131.00,1.30
8130.00,1.30
8129.00,1.30
8128.00,1.30
8127.00,1.30
8126.00,1.30
8125.00,1.30
8124.00,1.30
8123.00,1.30
8122.00,1.30
8121.00,1.30
8120.00,1.30
8119.00,1.30
8118.00,1.30
8117.00,1.30
8116.00,1.30
8115.00,1.30
8114.00,1.30
8113.00,1.31
8112.00,1.31
8111.00,1.31
8110.00,1.31
8109.00,1.31
8108.00,1.31
8107.00,1.31
8106.00,1.31
8105.00,1.31
8104.00,1.31
8103.00,1.31
8102.00,1.31
8101.00,1.31
8100.00,1.31
8099.00,1.31
8098.00,1.31
8097.00,1.30
8096.00,1.30
8095.00,1.30
8094.00,1.30
8093.00,1.30
8092.00,1.30
8091.00,1.30
8090.00,1.30
8089.00,1.30
8088.00,1.30
8087.00,1.30
8086.00,1.31
8085.00,1.31
8084.00,1.31
8083.00,1.31
8082.00,1.31
8081.00,1.31
8080.00,1.31
8079.00,1.31
8078.00,1.32
8077.00,1.32
8076.00,1.32
8075.00,1.32
8074.00,1.32
8073.00,1.32
8072.00,1.32
8071.00,1.32
8070.00,1.32
8069.00,1.32
8068.00,1.32
8067.00,1.32
8066.00,1.32
8065.00,1.32
8064.00,1.32
8063.00,1.32
8062.00,1.32
8061.00,1.32
8060.00,1.32
8059.00,1.32
8058.00,1.32
8057.00,1.32
8056.00,1.32
8055.00,1.32
8054.00,1.32
8053.00,1.32
8052.00,1.32
8051.00,1.32
8050.00,1.33
8049.00,1.33
8048.00,1.33
8047.00,1.33
8046.00,1.33
8045.00,1.33
8044.00,1.33
8043.00,1.33
8042.00,1.33
8041.00,1.33
8040.00,1.33
8039.00,1.33
8038.00,1.33
8037.00,1.33
8036.00,1.33
8035.00,1.33
8034.00,1.33
8033.00,1.34
8032.00,1.34
8031.00,1.34
8030.00,1.34
8029.00,1.34
8028.00,1.34
8027.00,1.34
8026.00,1.34
8025.00,1.34
8024.00,1.34
8023.00,1.34
8022.00,1.34
8021.00,1.34
8020.00,1.34
8019.00,1.34
8018.00,1.34
8017.00,1.34
8016.00,1.34
8015.00,1.34
8014.00,1.34
8013.00,1.34
8012.00,1.34
8011.00,1.34
8010.00,1.34
8009.00,1.34
8008.00,1.34
8007.00,1.34
8006.00,1.35
8005.00,1.35
8004.00,1.35
8003.00,1.35
8002.00,1.35
8001.00,1.35
8000.00,1.35
7999.00,1.35
7998.00,1.35
7997.00,1.35
7996.00,1.35
7995.00,1.35
7994.00,1.35
7993.00,1.35
7992.00,1.35
7991.00,1.34
7990.00,1.34
7989.00,1.34
7988.00,1.34
7987.00,1.34
7986.00,1.34
7985.00,1.34
7984.00,1.34
7983.00,1.34
7982.00,1.34
7981.00,1.34
7980.00,1.34
7979.00,1.34
7978.00,1.34
7977.00,1.34
7976.00,1.34
7975.00,1.34
7974.00,1.34
7973.00,1.34
7972.00,1.34
7971.00,1.34
7970.00,1.34
7969.00,1.34
7968.00,1.34
7967.00,1.34
7966.00,1.34
7965.00,1.34
7964.00,1.35
7963.00,1.35
7962.00,1.35
7961.00,1.35
7960.00,1.35
7959.00,1.35
7958.00,1.35
7957.00,1.35
7956.00,1.35
7955.00,1.35
7954.00,1.35
7953.00,1.35
7952.00,1.35
7951.00,1.34
7950.00,1.34
7949.00,1.34
7948.00,1.34
7947.00,1.34
7946.00,1.34
7945.00,1.34
7944.00,1.34
7943.00,1.34
7942.00,1.34
7941.00,1.34
7940.00,1.34
7939.00,1.34
7938.00,1.34
7937.00,1.34
7936.00,1.34
7935.00,1.34
7934.00,1.35
7933.00,1.35
7932.00,1.35
7931.00,1.35
7930.00,1.35
7929.00,1.35
7928.00,1.35
7927.00,1.35
7926.00,1.35
7925.00,1.35
7924.00,1.35
7923.00,1.35
7922.00,1.35
7921.00,1.35
7920.00,1.35
7919.00,1.35
7918.00,1.35
7917.00,1.36
7916.00,1.36
7915.00,1.36
7914.00,1.36
7913.00,1.36
7912.00,1.36
7911.00,1.36
7910.00,1.36
7909.00,1.36
7908.00,1.36
7907.00,1.36
7906.00,1.36
7905.00,1.36
7904.00,1.36
7903.00,1.36
7902.00,1.36
7901.00,1.36
7900.00,1.36
7899.00,1.36
7898.00,1.36
7897.00,1.36
7896.00,1.36
7895.00,1.36
7894.00,1.36
7893.00,1.36
7892.00,1.36
7891.00,1.36
7890.00,1.36
7889.00,1.36
7888.00,1.36
7887.00,1.36
7886.00,1.36
7885.00,1.36
7884.00,1.35
7883.00,1.35
7882.00,1.35
7881.00,1.35
7880.00,1.35
7879.00,1.35
7878.00,1.35
7877.00,1.36
7876.00,1.36
7875.00,1.36
7874.00,1.36
7873.00,1.36
7872.00,1.36
7871.00,1.36
7870.00,1.36
7869.00,1.36
7868.00,1.36
7867.00,1.36
7866.00,1.37
7865.00,1.37
7864.00,1.37
7863.00,1.37
7862.00,1.37
7861.00,1.37
7860.00,1.37
7859.00,1.37
7858.00,1.37
7857.00,1.37
7856.00,1.37
7855.00,1.37
7854.00,1.37
7853.00,1.37
7852.00,1.37
7851.00,1.37
7850.00,1.37
7849.00,1.37
7848.00,1.37
7847.00,1.37
7846.00,1.37
7845.00,1.37
7844.00,1.37
7843.00,1.37
7842.00,1.37
7841.00,1.37
7840.00,1.37
7839.00,1.37
7838.00,1.37
7837.00,1.37
7836.00,1.37
7835.00,1.37
7834.00,1.37
7833.00,1.37
7832.00,1.37
7831.00,1.37
7830.00,1.37
7829.00,1.37
7828.00,1.37
7827.00,1.37
7826.00,1.37
7825.00,1.37
7824.00,1.37
7823.00,1.37
7822.00,1.37
7821.00,1.37
7820.00,1.37
7819.00,1.37
7818.00,1.37
7817.00,1.37
7816.00,1.37
7815.00,1.37
7814.00,1.37
7813.00,1.37
7812.00,1.37
7811.00,1.37
7810.00,1.37
7809.00,1.37
7808.00,1.37
7807.00,1.37
7806.00,1.37
7805.00,1.37
7804.00,1.37
7803.00,1.37
7802.00,1.37
7801.00,1.37
7800.00,1.37
7799.00,1.37
7798.00,1.37
7797.00,1.37
7796.00,1.37
7795.00,1.37
7794.00,1.37
7793.00,1.37
7792.00,1.37
7791.00,1.37
7790.00,1.37
7789.00,1.37
7788.00,1.37
7787.00,1.38
7786.00,1.38
7785.00,1.38
7784.00,1.38
7783.00,1.38
7782.00,1.38
7781.00,1.38
7780.00,1.38
7779.00,1.38
7778.00,1.38
7777.00,1.38
7776.00,1.38
7775.00,1.38
7774.00,1.38
7773.00,1.38
7772.00,1.38
7771.00,1.38
7770.00,1.38
7769.00,1.38
7768.00,1.38
7767.00,1.38
7766.00,1.38
7765.00,1.38
7764.00,1.38
7763.00,1.38
7762.00,1.38
7761.00,1.38
7760.00,1.38
7759.00,1.38
7758.00,1.38
7757.00,1.38
7756.00,1.37
7755.00,1.37
7754.00,1.37
7753.00,1.37
7752.00,1.37
7751.00,1.37
7750.00,1.37
7749.00,1.37
7748.00,1.37
7747.00,1.38
7746.00,1.38
7745.00,1.38
7744.00,1.38
7743.00,1.38
7742.00,1.38
7741.00,1.38
7740.00,1.38
7739.00,1.38
7738.00,1.38
7737.00,1.38
7736.00,1.38
7735.00,1.38
7734.00,1.38
7733.00,1.38
7732.00,1.38
7731.00,1.38
7730.00,1.38
7729.00,1.38
7728.00,1.38
7727.00,1.38
7726.00,1.38
7725.00,1.38
7724.00,1.38
7723.00,1.38
7722.00,1.38
7721.00,1.37
7720.00,1.37
7719.00,1.37
7718.00,1.37
7717.00,1.37
7716.00,1.37
7715.00,1.37
7714.00,1.37
7713.00,1.37
7712.00,1.37
7711.00,1.37
7710.00,1.37
7709.00,1.37
7708.00,1.37
7707.00,1.38
7706.00,1.38
7705.00,1.38
7704.00,1.38
7703.00,1.38
7702.00,1.38
7701.00,1.38
7700.00,1.38
7699.00,1.38
7698.00,1.39
7697.00,1.39
7696.00,1.39
7695.00,1.39
7694.00,1.39
7693.00,1.39
7692.00,1.39
7691.00,1.39
7690.00,1.39
7689.00,1.39
7688.00,1.39
7687.00,1.39
7686.00,1.39
7685.00,1.39
7684.00,1.39
7683.00,1.39
7682.00,1.39
7681.00,1.39
7680.00,1.39
7679.00,1.39
7678.00,1.39
7677.00,1.39
7676.00,1.39
7675.00,1.39
7674.00,1.39
7673.00,1.39
7672.00,1.39
7671.00,1.39
7670.00,1.39
7669.00,1.39
7668.00,1.39
7667.00,1.39
7666.00,1.39
7665.00,1.39
7664.00,1.38
7663.00,1.38
7662.00,1.38
7661.00,1.38
7660.00,1.38
7659.00,1.38
7658.00,1.38
7657.00,1.38
7656.00,1.38
7655.00,1.38
7654.00,1.38
7653.00,1.38
7652.00,1.38
7651.00,1.38
7650.00,1.38
7649.00,1.38
7648.00,1.38
7647.00,1.38
7646.00,1.38
7645.00,1.38
7644.00,1.38
7643.00,1.38
7642.00,1.38
7641.00,1.38
7640.00,1.38
7639.00,1.38
7638.00,1.38
7637.00,1.38
7636.00,1.38
7635.00,1.38
7634.00,1.38
7633.00,1.38
7632.00,1.38
7631.00,1.38
7630.00,1.38
7629.00,1.38
7628.00,1.38
7627.00,1.38
7626.00,1.38
7625.00,1.38
7624.00,1.38
7623.00,1.38
7622.00,1.38
7621.00,1.38
7620.00,1.38
7619.00,1.38
7618.00,1.38
7617.00,1.38
7616.00,1.38
7615.00,1.38
7614.00,1.38
7613.00,1.38
7612.00,1.38
7611.00,1.38
7610.00,1.38
7609.00,1.38
7608.00,1.38
7607.00,1.38
7606.00,1.38
7605.00,1.38
7604.00,1.38
7603.00,1.38
7602.00,1.38
7601.00,1.38
7600.00,1.38
7599.00,1.38
7598.00,1.38
7597.00,1.38
7596.00,1.38
7595.00,1.38
7594.00,1.38
7593.00,1.38
7592.00,1.38
7591.00,1.38
7590.00,1.38
7589.00,1.38
7588.00,1.38
7587.00,1.38
7586.00,1.38
7585.00,1.38
7584.00,1.38
7583.00,1.37
7582.00,1.37
7581.00,1.37
7580.00,1.37
7579.00,1.37
7578.00,1.37
7577.00,1.37
7576.00,1.38
7575.00,1.38
7574.00,1.38
7573.00,1.38
7572.00,1.38
7571.00,1.38
7570.00,1.38
7569.00,1.38
7568.00,1.38
7567.00,1.38
7566.00,1.38
7565.00,1.38
7564.00,1.38
7563.00,1.38
7562.00,1.38
7561.00,1.38
7560.00,1.38
7559.00,1.38
7558.00,1.38
7557.00,1.38
7556.00,1.38
7555.00,1.38
7554.00,1.38
7553.00,1.38
7552.00,1.38
7551.00,1.37
7550.00,1.37
7549.00,1.37
7548.00,1.37
7547.00,1.37
7546.00,1.37
7545.00,1.37
7544.00,1.37
7543.00,1.37
7542.00,1.37
7541.00,1.37
7540.00,1.37
7539.00,1.37
7538.00,1.37
7537.00,1.37
7536.00,1.37
7535.00,1.37
7534.00,1.37
7533.00,1.37
7532.00,1.37
7531.00,1.37
7530.00,1.37
7529.00,1.37
7528.00,1.37
7527.00,1.37
7526.00,1.37
7525.00,1.37
7524.00,1.37
7523.00,1.37
7522.00,1.37
7521.00,1.36
7520.00,1.36
7519.00,1.36
7518.00,1.36
7517.00,1.36
7516.00,1.36
7515.00,1.36
7514.00,1.36
7513.00,1.36
7512.00,1.36
7511.00,1.36
7510.00,1.36
7509.00,1.36
7508.00,1.36
7507.00,1.36
7506.00,1.36
7505.00,1.36
7504.00,1.36
7503.00,1.36
7502.00,1.36
7501.00,1.36
7500.00,1.35
7499.00,1.35
7498.00,1.35
7497.00,1.35
7496.00,1.35
7495.00,1.35
7494.00,1.35
7493.00,1.35
7492.00,1.35
7491.00,1.35
7490.00,1.35
7489.00,1.35
7488.00,1.35
7487.00,1.35
7486.00,1.35
7485.00,1.35
7484.00,1.35
7483.00,1.34
7482.00,1.34
7481.00,1.34
7480.00,1.34
7479.00,1.34
7478.00,1.34
7477.00,1.34
7476.00,1.34
7475.00,1.34
7474.00,1.34
7473.00,1.34
7472.00,1.34
7471.00,1.33
7470.00,1.33
7469.00,1.33
7468.00,1.33
7467.00,1.33
7466.00,1.33
7465.00,1.33
7464.00,1.33
7463.00,1.33
7462.00,1.33
7461.00,1.33
7460.00,1.33
7459.00,1.33
7458.00,1.33
7457.00,1.33
7456.00,1.33
7455.00,1.32
7454.00,1.32
7453.00,1.32
7452.00,1.32
7451.00,1.32
7450.00,1.32
7449.00,1.32
7448.00,1.32
7447.00,1.32
7446.00,1.32
7445.00,1.32
7444.00,1.32
7443.00,1.32
7442.00,1.32
7441.00,1.32
7440.00,1.31
7439.00,1.31
7438.00,1.31
7437.00,1.31
7436.00,1.31
7435.00,1.31
7434.00,1.31
7433.00,1.31
7432.00,1.31
7431.00,1.31
7430.00,1.31
7429.00,1.31
7428.00,1.31
7427.00,1.31
7426.00,1.31
7425.00,1.31
7424.00,1.31
7423.00,1.31
7422.00,1.31
7421.00,1.31
7420.00,1.31
7419.00,1.31
7418.00,1.31
7417.00,1.31
7416.00,1.30
7415.00,1.30
7414.00,1.30
7413.00,1.30
7412.00,1.30
7411.00,1.30
7410.00,1.30
7409.00,1.30
7408.00,1.30
7407.00,1.30
7406.00,1.29
7405.00,1.29
7404.00,1.29
7403.00,1.29
7402.00,1.29
7401.00,1.28
7400.00,1.28
7399.00,1.28
7398.00,1.28
7397.00,1.28
7396.00,1.27
7395.00,1.27
7394.00,1.27
7393.00,1.27
7392.00,1.27
7391.00,1.26
7390.00,1.26
7389.00,1.26
7388.00,1.26
7387.00,1.26
7386.00,1.26
7385.00,1.26
7384.00,1.26
7383.00,1.25
7382.00,1.25
7381.00,1.25
7380.00,1.25
7379.00,1.25
7378.00,1.25
7377.00,1.25
7376.00,1.25
7375.00,1.25
7374.00,1.25
7373.00,1.25
7372.00,1.25
7371.00,1.25
7370.00,1.25
7369.00,1.25
7368.00,1.25
7367.00,1.25
7366.00,1.25
7365.00,1.25
7364.00,1.25
7363.00,1.25
7362.00,1.25
7361.00,1.25
7360.00,1.25
7359.00,1.25
7358.00,1.25
7357.00,1.25
7356.00,1.25
7355.00,1.25
7354.00,1.24
7353.00,1.24
7352.00,1.24
7351.00,1.24
7350.00,1.24
7349.00,1.24
7348.00,1.24
7347.00,1.24
7346.00,1.24
7345.00,1.24
7344.00,1.24
7343.00,1.24
7342.00,1.23
7341.00,1.23
7340.00,1.23
7339.00,1.23
7338.00,1.23
7337.00,1.23
7336.00,1.23
7335.00,1.23
7334.00,1.23
7333.00,1.23
7332.00,1.23
7331.00,1.23
7330.00,1.23
7329.00,1.23
7328.00,1.22
7327.00,1.22
7326.00,1.22
7325.00,1.22
7324.00,1.22
7323.00,1.22
7322.00,1.22
7321.00,1.22
7320.00,1.22
7319.00,1.22
7318.00,1.21
7317.00,1.21
7316.00,1.21
7315.00,1.21
7314.00,1.21
7313.00,1.21
7312.00,1.21
7311.00,1.21
7310.00,1.21
7309.00,1.21
7308.00,1.20
7307.00,1.20
7306.00,1.20
7305.00,1.20
7304.00,1.20
7303.00,1.20
7302.00,1.20
7301.00,1.20
7300.00,1.20
7299.00,1.20
7298.00,1.20
7297.00,1.19
7296.00,1.19
7295.00,1.19
7294.00,1.19
7293.00,1.19
7292.00,1.19
7291.00,1.19
7290.00,1.19
7289.00,1.19
7288.00,1.19
7287.00,1.19
7286.00,1.19
7285.00,1.19
7284.00,1.19
7283.00,1.19
7282.00,1.19
7281.00,1.19
7280.00,1.19
7279.00,1.18
7278.00,1.18
7277.00,1.18
7276.00,1.18
7275.00,1.18
7274.00,1.18
7273.00,1.18
7272.00,1.18
7271.00,1.17
7270.00,1.17
7269.00,1.17
7268.00,1.17
7267.00,1.17
7266.00,1.16
7265.00,1.16
7264.00,1.16
7263.00,1.16
7262.00,1.16
7261.00,1.15
7260.00,1.15
7259.00,1.15
7258.00,1.15
7257.00,1.15
7256.00,1.15
7255.00,1.14
7254.00,1.14
7253.00,1.14
7252.00,1.14
7251.00,1.13
7250.00,1.13
7249.00,1.13
7248.00,1.13
7247.00,1.12
7246.00,1.12
7245.00,1.12
7244.00,1.12
7243.00,1.11
7242.00,1.11
7241.00,1.11
7240.00,1.10
7239.00,1.10
7238.00,1.10
7237.00,1.09
7236.00,1.09
7235.00,1.09
7234.00,1.08
7233.00,1.08
7232.00,1.08
7231.00,1.07
7230.00,1.07
7229.00,1.07
7228.00,1.06
7227.00,1.06
7226.00,1.06
7225.00,1.05
7224.00,1.05
7223.00,1.05
7222.00,1.04
7221.00,1.04
7220.00,1.04
7219.00,1.03
7218.00,1.03
7217.00,1.03
7216.00,1.03
7215.00,1.02
7214.00,1.02
7213.00,1.02
7212.00,1.01
7211.00,1.01
7210.00,1.01
7209.00,1.01
7208.00,1.00
7207.00,1.00
7206.00,1.00
7205.00,0.99
7204.00,0.99
7203.00,0.99
7202.00,0.98
7201.00,0.98
7200.00,0.98
7199.00,0.97
7198.00,0.97
7197.00,0.96
7196.00,0.96
7195.00,0.96
7194.00,0.95
7193.00,0.95
7192.00,0.95
7191.00,0.94
7190.00,0.94
7189.00,0.94
7188.00,0.93
7187.00,0.93
7186.00,0.93
7185.00,0.92
7184.00,0.92
7183.00,0.92
7182.00,0.91
7181.00,0.91
7180.00,0.91
7179.00,0.91
7178.00,0.90
7177.00,0.90
7176.00,0.90
7175.00,0.90
7174.00,0.90
7173.00,0.89
7172.00,0.89
7171.00,0.89
7170.00,0.89
7169.00,0.89
7168.00,0.88
7167.00,0.88
7166.00,0.88
7165.00,0.88
7164.00,0.87
7163.00,0.87
7162.00,0.87
7161.00,0.87
7160.00,0.86
7159.00,0.86
7158.00,0.86
7157.00,0.85
7156.00,0.85
7155.00,0.85
7154.00,0.85
7153.00,0.84
7152.00,0.84
7151.00,0.84
7150.00,0.83
7149.00,0.83
7148.00,0.83
7147.00,0.83
7146.00,0.82
7145.00,0.82
7144.00,0.82
7143.00,0.81
7142.00,0.81
7141.00,0.81
7140.00,0.81
7139.00,0.81
7138.00,0.80
7137.00,0.80
7136.00,0.80
7135.00,0.80
7134.00,0.80
7133.00,0.80
7132.00,0.80
7131.00,0.79
7130.00,0.79
7129.00,0.79
7128.00,0.79
7127.00,0.79
7126.00,0.79
7125.00,0.78
7124.00,0.78
7123.00,0.78
7122.00,0.78
7121.00,0.78
7120.00,0.77
7119.00,0.77
7118.00,0.77
7117.00,0.77
7116.00,0.77
7115.00,0.76
7114.00,0.76
7113.00,0.76
7112.00,0.76
7111.00,0.76
7110.00,0.76
7109.00,0.75
7108.00,0.75
7107.00,0.75
7106.00,0.75
7105.00,0.75
7104.00,0.75
7103.00,0.74
7102.00,0.74
7101.00,0.74
7100.00,0.74
7099.00,0.74
7098.00,0.74
7097.00,0.73
7096.00,0.73
7095.00,0.73
7094.00,0.73
7093.00,0.73
7092.00,0.72
7091.00,0.72
7090.00,0.72
7089.00,0.72
7088.00,0.71
7087.00,0.71
7086.00,0.71
7085.00,0.71
7084.00,0.71
7083.00,0.70
7082.00,0.70
7081.00,0.70
7080.00,0.70
7079.00,0.70
7078.00,0.70
7077.00,0.69
7076.00,0.69
7075.00,0.69
7074.00,0.69
7073.00,0.69
7072.00,0.69
7071.00,0.69
7070.00,0.69
7069.00,0.69
7068.00,0.69
7067.00,0.69
7066.00,0.69
7065.00,0.69
7064.00,0.69
7063.00,0.69
7062.00,0.68
7061.00,0.68
7060.00,0.68
7059.00,0.68
7058.00,0.68
7057.00,0.68
7056.00,0.68
7055.00,0.68
7054.00,0.67
7053.00,0.67
7052.00,0.67
7051.00,0.67
7050.00,0.67
7049.00,0.67
7048.00,0.67
7047.00,0.66
7046.00,0.66
7045.00,0.66
7044.00,0.66
7043.00,0.66
7042.00,0.66
7041.00,0.66
7040.00,0.66
7039.00,0.66
7038.00,0.66
7037.00,0.66
7036.00,0.66
7035.00,0.66
7034.00,0.66
7033.00,0.66
7032.00,0.65
7031.00,0.65
7030.00,0.65
7029.00,0.65
7028.00,0.65
7027.00,0.65
7026.00,0.65
7025.00,0.65
7024.00,0.65
7023.00,0.65
7022.00,0.65
7021.00,0.65
7020.00,0.65
7019.00,0.65
7018.00,0.65
7017.00,0.65
7016.00,0.65
7015.00,0.65
7014.00,0.65
7013.00,0.65
7012.00,0.64
7011.00,0.64
7010.00,0.64
7009.00,0.64
7008.00,0.64
7007.00,0.64
7006.00,0.64
7005.00,0.64
7004.00,0.64
7003.00,0.64
7002.00,0.64
7001.00,0.64
7000.00,0.64
6999.00,0.64
6998.00,0.64
6997.00,0.64
6996.00,0.64
6995.00,0.64
6994.00,0.63
6993.00,0.63
6992.00,0.63
6991.00,0.63
6990.00,0.63
6989.00,0.63
6988.00,0.63
6987.00,0.63
6986.00,0.63
6985.00,0.63
6984.00,0.63
6983.00,0.63
6982.00,0.63
6981.00,0.63
6980.00,0.63
6979.00,0.63
6978.00,0.63
6977.00,0.63
6976.00,0.63
6975.00,0.63
6974.00,0.63
6973.00,0.63
6972.00,0.63
6971.00,0.63
6970.00,0.63
6969.00,0.63
6968.00,0.63
6967.00,0.63
6966.00,0.63
6965.00,0.63
6964.00,0.63
6963.00,0.63
6962.00,0.63
6961.00,0.63
6960.00,0.63
6959.00,0.63
6958.00,0.63
6957.00,0.63
6956.00,0.63
6955.00,0.63
6954.00,0.63
6953.00,0.63
6952.00,0.63
6951.00,0.63
6950.00,0.63
6949.00,0.63
6948.00,0.62
6947.00,0.62
6946.00,0.62
6945.00,0.62
6944.00,0.62
6943.00,0.62
6942.00,0.62
6941.00,0.62
6940.00,0.62
6939.00,0.62
6938.00,0.62
6937.00,0.62
6936.00,0.62
6935.00,0.62
6934.00,0.62
6933.00,0.62
6932.00,0.62
6931.00,0.62
6930.00,0.62
6929.00,0.62
6928.00,0.62
6927.00,0.62
6926.00,0.62
6925.00,0.62
6924.00,0.62
6923.00,0.62
6922.00,0.62
6921.00,0.62
6920.00,0.62
6919.00,0.62
6918.00,0.62
6917.00,0.62
6916.00,0.62
6915.00,0.62
6914.00,0.62
6913.00,0.62
6912.00,0.62
6911.00,0.62
6910.00,0.62
6909.00,0.62
6908.00,0.62
6907.00,0.62
6906.00,0.62
6905.00,0.62
6904.00,0.62
6903.00,0.62
6902.00,0.62
6901.00,0.62
6900.00,0.62
6899.00,0.62
6898.00,0.62
6897.00,0.62
6896.00,0.62
6895.00,0.62
6894.00,0.62
6893.00,0.62
6892.00,0.62
6891.00,0.62
6890.00,0.62
6889.00,0.62
6888.00,0.62
6887.00,0.62
6886.00,0.62
6885.00,0.62
6884.00,0.62
6883.00,0.63
6882.00,0.63
6881.00,0.63
6880.00,0.63
6879.00,0.63
6878.00,0.63
6877.00,0.63
6876.00,0.63
6875.00,0.63
6874.00,0.63
6873.00,0.63
6872.00,0.63
6871.00,0.63
6870.00,0.63
6869.00,0.63
6868.00,0.63
6867.00,0.63
6866.00,0.63
6865.00,0.63
6864.00,0.63
6863.00,0.63
6862.00,0.63
6861.00,0.63
6860.00,0.63
6859.00,0.63
6858.00,0.63
6857.00,0.63
6856.00,0.63
6855.00,0.63
6854.00,0.63
6853.00,0.63
6852.00,0.63
6851.00,0.63
6850.00,0.63
6849.00,0.63
6848.00,0.63
6847.00,0.63
6846.00,0.64
6845.00,0.64
6844.00,0.64
6843.00,0.64
6842.00,0.64
6841.00,0.64
6840.00,0.64
6839.00,0.63
6838.00,0.63
6837.00,0.63
6836.00,0.63
6835.00,0.63
6834.00,0.63
6833.00,0.63
6832.00,0.63
6831.00,0.63
6830.00,0.63
6829.00,0.63
6828.00,0.63
6827.00,0.63
6826.00,0.63
6825.00,0.63
6824.00,0.63
6823.00,0.63
6822.00,0.63
6821.00,0.63
6820.00,0.63
6819.00,0.63
6818.00,0.63
6817.00,0.63
6816.00,0.63
6815.00,0.63
6814.00,0.63
6813.00,0.63
6812.00,0.63
6811.00,0.63
6810.00,0.63
6809.00,0.63
6808.00,0.63
6807.00,0.63
6806.00,0.63
6805.00,0.64
6804.00,0.64
6803.00,0.64
6802.00,0.64
6801.00,0.64
6800.00,0.64
6799.00,0.64
6798.00,0.64
6797.00,0.64
6796.00,0.64
6795.00,0.64
6794.00,0.64
6793.00,0.64
6792.00,0.64
6791.00,0.64
6790.00,0.64
6789.00,0.64
6788.00,0.64
6787.00,0.64
6786.00,0.64
6785.00,0.64
6784.00,0.64
6783.00,0.64
6782.00,0.64
6781.00,0.64
6780.00,0.64
6779.00,0.64
6778.00,0.64
6777.00,0.64
6776.00,0.64
6775.00,0.64
6774.00,0.64
6773.00,0.64
6772.00,0.64
6771.00,0.65
6770.00,0.65
6769.00,0.65
6768.00,0.65
6767.00,0.65
6766.00,0.65
6765.00,0.65
6764.00,0.65
6763.00,0.65
6762.00,0.65
6761.00,0.65
6760.00,0.65
6759.00,0.65
6758.00,0.65
6757.00,0.65
6756.00,0.65
6755.00,0.65
6754.00,0.65
6753.00,0.65
6752.00,0.65
6751.00,0.65
6750.00,0.65
6749.00,0.66
6748.00,0.66
6747.00,0.66
6746.00,0.66
6745.00,0.66
6744.00,0.66
6743.00,0.66
6742.00,0.66
6741.00,0.66
6740.00,0.66
6739.00,0.66
6738.00,0.66
6737.00,0.66
6736.00,0.66
6735.00,0.66
6734.00,0.66
6733.00,0.66
6732.00,0.67
6731.00,0.67
6730.00,0.67
6729.00,0.67
6728.00,0.67
6727.00,0.67
6726.00,0.67
6725.00,0.67
6724.00,0.67
6723.00,0.67
6722.00,0.67
6721.00,0.67
6720.00,0.67
6719.00,0.67
6718.00,0.67
6717.00,0.67
6716.00,0.68
6715.00,0.68
6714.00,0.68
6713.00,0.68
6712.00,0.68
6711.00,0.68
6710.00,0.68
6709.00,0.68
6708.00,0.68
6707.00,0.68
6706.00,0.68
6705.00,0.68
6704.00,0.68
6703.00,0.68
6702.00,0.68
6701.00,0.69
6700.00,0.69
6699.00,0.69
6698.00,0.69
6697.00,0.69
6696.00,0.69
6695.00,0.69
6694.00,0.69
6693.00,0.69
6692.00,0.69
6691.00,0.69
6690.00,0.69
6689.00,0.69
6688.00,0.69
6687.00,0.69
6686.00,0.69
6685.00,0.69
6684.00,0.69
6683.00,0.69
6682.00,0.70
6681.00,0.70
6680.00,0.70
6679.00,0.70
6678.00,0.70
6677.00,0.70
6676.00,0.70
6675.00,0.70
6674.00,0.70
6673.00,0.70
6672.00,0.70
6671.00,0.70
6670.00,0.70
6669.00,0.70
6668.00,0.70
6667.00,0.70
6666.00,0.70
6665.00,0.70
6664.00,0.70
6663.00,0.70
6662.00,0.70
6661.00,0.70
6660.00,0.70
6659.00,0.70
6658.00,0.70
6657.00,0.70
6656.00,0.71
6655.00,0.71
6654.00,0.71
6653.00,0.71
6652.00,0.71
6651.00,0.71
6650.00,0.71
6649.00,0.71
6648.00,0.71
6647.00,0.71
6646.00,0.72
6645.00,0.72
6644.00,0.72
6643.00,0.72
6642.00,0.72
6641.00,0.72
6640.00,0.72
6639.00,0.72
6638.00,0.72
6637.00,0.72
6636.00,0.72
6635.00,0.72
6634.00,0.73
6633.00,0.73
6632.00,0.73
6631.00,0.73
6630.00,0.73
6629.00,0.73
6628.00,0.73
6627.00,0.73
6626.00,0.73
6625.00,0.73
6624.00,0.74
6623.00,0.74
6622.00,0.74
6621.00,0.74
6620.00,0.74
6619.00,0.74
6618.00,0.74
6617.00,0.74
6616.00,0.75
6615.00,0.75
6614.00,0.75
6613.00,0.75
6612.00,0.75
6611.00,0.75
6610.00,0.75
6609.00,0.75
6608.00,0.75
6607.00,0.75
6606.00,0.75
6605.00,0.76
6604.00,0.76
6603.00,0.76
6602.00,0.76
6601.00,0.76
6600.00,0.76
6599.00,0.76
6598.00,0.76
6597.00,0.76
6596.00,0.76
6595.00,0.76
6594.00,0.76
6593.00,0.76
6592.00,0.76
6591.00,0.76
6590.00,0.76
6589.00,0.76
6588.00,0.77
6587.00,0.77
6586.00,0.77
6585.00,0.77
6584.00,0.77
6583.00,0.77
6582.00,0.77
6581.00,0.77
6580.00,0.77
6579.00,0.77
6578.00,0.77
6577.00,0.77
6576.00,0.77
6575.00,0.77
6574.00,0.77
6573.00,0.77
6572.00,0.77
6571.00,0.77
6570.00,0.77
6569.00,0.77
6568.00,0.77
6567.00,0.77
6566.00,0.77
6565.00,0.77
6564.00,0.77
6563.00,0.77
6562.00,0.77
6561.00,0.77
6560.00,0.77
6559.00,0.78
6558.00,0.78
6557.00,0.78
6556.00,0.78
6555.00,0.78
6554.00,0.78
6553.00,0.78
6552.00,0.78
6551.00,0.78
6550.00,0.79
6549.00,0.79
6548.00,0.79
6547.00,0.79
6546.00,0.79
6545.00,0.79
6544.00,0.79
6543.00,0.79
6542.00,0.79
6541.00,0.80
6540.00,0.80
6539.00,0.80
6538.00,0.80
6537.00,0.80
6536.00,0.80
6535.00,0.80
6534.00,0.80
6533.00,0.80
6532.00,0.81
6531.00,0.81
6530.00,0.81
6529.00,0.81
6528.00,0.81
6527.00,0.81
6526.00,0.81
6525.00,0.81
6524.00,0.81
6523.00,0.81
6522.00,0.81
6521.00,0.81
6520.00,0.81
6519.00,0.81
6518.00,0.81
6517.00,0.81
6516.00,0.81
6515.00,0.81
6514.00,0.81
6513.00,0.81
6512.00,0.81
6511.00,0.82
6510.00,0.82
6509.00,0.82
6508.00,0.82
6507.00,0.82
6506.00,0.82
6505.00,0.82
6504.00,0.82
6503.00,0.82
6502.00,0.82
6501.00,0.82
6500.00,0.82
6499.00,0.82
6498.00,0.83
6497.00,0.83
6496.00,0.83
6495.00,0.83
6494.00,0.83
6493.00,0.83
6492.00,0.83
6491.00,0.83
6490.00,0.83
6489.00,0.83
6488.00,0.83
6487.00,0.83
6486.00,0.84
6485.00,0.84
6484.00,0.84
6483.00,0.84
6482.00,0.84
6481.00,0.84
6480.00,0.84
6479.00,0.84
6478.00,0.84
6477.00,0.84
6476.00,0.84
6475.00,0.84
6474.00,0.84
6473.00,0.84
6472.00,0.84
6471.00,0.84
6470.00,0.84
6469.00,0.84
6468.00,0.84
6467.00,0.84
6466.00,0.84
6465.00,0.84
6464.00,0.85
6463.00,0.85
6462.00,0.85
6461.00,0.85
6460.00,0.85
6459.00,0.85
6458.00,0.85
6457.00,0.85
6456.00,0.85
6455.00,0.85
6454.00,0.85
6453.00,0.85
6452.00,0.85
6451.00,0.85
6450.00,0.85
6449.00,0.85
6448.00,0.85
6447.00,0.85
6446.00,0.85
6445.00,0.85
6444.00,0.85
6443.00,0.86
6442.00,0.86
6441.00,0.86
6440.00,0.86
6439.00,0.86
6438.00,0.86
6437.00,0.86
6436.00,0.86
6435.00,0.86
6434.00,0.86
6433.00,0.86
6432.00,0.86
6431.00,0.86
6430.00,0.86
6429.00,0.86
6428.00,0.86
6427.00,0.86
6426.00,0.86
6425.00,0.86
6424.00,0.86
6423.00,0.86
6422.00,0.86
6421.00,0.86
6420.00,0.86
6419.00,0.87
6418.00,0.87
6417.00,0.87
6416.00,0.87
6415.00,0.87
6414.00,0.87
6413.00,0.87
6412.00,0.87
6411.00,0.87
6410.00,0.87
6409.00,0.87
6408.00,0.87
6407.00,0.87
6406.00,0.87
6405.00,0.88
6404.00,0.88
6403.00,0.88
6402.00,0.88
6401.00,0.88
6400.00,0.88
6399.00,0.88
6398.00,0.88
6397.00,0.88
6396.00,0.88
6395.00,0.88
6394.00,0.88
6393.00,0.88
6392.00,0.88
6391.00,0.88
6390.00,0.88
6389.00,0.88
6388.00,0.88
6387.00,0.88
6386.00,0.88
6385.00,0.88
6384.00,0.88
6383.00,0.88
6382.00,0.88
6381.00,0.88
6380.00,0.89
6379.00,0.89
6378.00,0.89
6377.00,0.89
6376.00,0.89
6375.00,0.89
6374.00,0.89
6373.00,0.89
6372.00,0.89
6371.00,0.89
6370.00,0.89
6369.00,0.89
6368.00,0.89
6367.00,0.89
6366.00,0.89
6365.00,0.89
6364.00,0.90
6363.00,0.90
6362.00,0.90
6361.00,0.90
6360.00,0.90
6359.00,0.90
6358.00,0.90
6357.00,0.90
6356.00,0.90
6355.00,0.90
6354.00,0.90
6353.00,0.90
6352.00,0.90
6351.00,0.91
6350.00,0.91
6349.00,0.91
6348.00,0.91
6347.00,0.91
6346.00,0.91
6345.00,0.91
6344.00,0.91
6343.00,0.91
6342.00,0.91
6341.00,0.91
6340.00,0.91
6339.00,0.91
6338.00,0.91
6337.00,0.91
6336.00,0.91
6335.00,0.91
6334.00,0.91
6333.00,0.91
6332.00,0.92
6331.00,0.92
6330.00,0.92
6329.00,0.92
6328.00,0.92
6327.00,0.92
6326.00,0.92
6325.00,0.92
6324.00,0.93
6323.00,0.93
6322.00,0.93
6321.00,0.93
6320.00,0.93
6319.00,0.93
6318.00,0.93
6317.00,0.93
6316.00,0.94
6315.00,0.94
6314.00,0.94
6313.00,0.94
6312.00,0.94
6311.00,0.94
6310.00,0.94
6309.00,0.94
6308.00,0.94
6307.00,0.94
6306.00,0.94
6305.00,0.94
6304.00,0.95
6303.00,0.95
6302.00,0.95
6301.00,0.95
6300.00,0.95
6299.00,0.95
6298.00,0.95
6297.00,0.95
6296.00,0.95
6295.00,0.95
6294.00,0.96
6293.00,0.96
6292.00,0.96
6291.00,0.96
6290.00,0.96
6289.00,0.96
6288.00,0.96
6287.00,0.96
6286.00,0.96
6285.00,0.97
6284.00,0.97
6283.00,0.97
6282.00,0.97
6281.00,0.97
6280.00,0.97
6279.00,0.97
6278.00,0.97
6277.00,0.97
6276.00,0.97
6275.00,0.98
6274.00,0.98
6273.00,0.98
6272.00,0.98
6271.00,0.98
6270.00,0.98
6269.00,0.98
6268.00,0.98
6267.00,0.98
6266.00,0.98
6265.00,0.98
6264.00,0.98
6263.00,0.98
6262.00,0.98
6261.00,0.99
6260.00,0.99
6259.00,0.99
6258.00,0.99
6257.00,0.99
6256.00,0.99
6255.00,1.00
6254.00,1.00
6253.00,1.00
6252.00,1.00
6251.00,1.00
6250.00,1.00
6249.00,1.01
6248.00,1.01
6247.00,1.01
6246.00,1.01
6245.00,1.01
6244.00,1.01
6243.00,1.02
6242.00,1.02
6241.00,1.02
6240.00,1.02
6239.00,1.02
6238.00,1.02
6237.00,1.02
6236.00,1.02
6235.00,1.02
6234.00,1.03
6233.00,1.03
6232.00,1.03
6231.00,1.03
6230.00,1.03
6229.00,1.03
6228.00,1.03
6227.00,1.03
6226.00,1.03
6225.00,1.03
6224.00,1.03
6223.00,1.04
6222.00,1.04
6221.00,1.04
6220.00,1.04
6219.00,1.04
6218.00,1.04
6217.00,1.04
6216.00,1.04
6215.00,1.04
6214.00,1.05
6213.00,1.05
6212.00,1.05
6211.00,1.05
6210.00,1.05
6209.00,1.05
6208.00,1.05
6207.00,1.06
6206.00,1.06
6205.00,1.06
6204.00,1.06
6203.00,1.06
6202.00,1.06
6201.00,1.06
6200.00,1.07
6199.00,1.07
6198.00,1.07
6197.00,1.07
6196.00,1.07
6195.00,1.07
6194.00,1.07
6193.00,1.07
6192.00,1.07
6191.00,1.08
6190.00,1.08
6189.00,1.08
6188.00,1.08
6187.00,1.08
6186.00,1.08
6185.00,1.08
6184.00,1.08
6183.00,1.09
6182.00,1.09
6181.00,1.09
6180.00,1.09
6179.00,1.09
6178.00,1.09
6177.00,1.09
6176.00,1.09
6175.00,1.10
6174.00,1.10
6173.00,1.10
6172.00,1.10
6171.00,1.10
6170.00,1.10
6169.00,1.10
6168.00,1.11
6167.00,1.11
6166.00,1.11
6165.00,1.11
6164.00,1.11
6163.00,1.11
6162.00,1.12
6161.00,1.12
6160.00,1.12
6159.00,1.12
6158.00,1.12
6157.00,1.12
6156.00,1.13
6155.00,1.13
6154.00,1.13
6153.00,1.13
6152.00,1.13
6151.00,1.13
6150.00,1.14
6149.00,1.14
6148.00,1.14
6147.00,1.14
6146.00,1.14
6145.00,1.14
6144.00,1.15
6143.00,1.15
6142.00,1.15
6141.00,1.15
6140.00,1.15
6139.00,1.15
6138.00,1.15
6137.00,1.16
6136.00,1.16
6135.00,1.16
6134.00,1.16
6133.00,1.16
6132.00,1.16
6131.00,1.17
6130.00,1.17
6129.00,1.17
6128.00,1.17
6127.00,1.17
6126.00,1.17
6125.00,1.17
6124.00,1.18
6123.00,1.18
6122.00,1.18
6121.00,1.18
6120.00,1.18
6119.00,1.18
6118.00,1.18
6117.00,1.19
6116.00,1.19
6115.00,1.19
6114.00,1.19
6113.00,1.19
6112.00,1.19
6111.00,1.19
6110.00,1.19
6109.00,1.20
6108.00,1.20
6107.00,1.20
6106.00,1.20
6105.00,1.20
6104.00,1.20
6103.00,1.20
6102.00,1.20
6101.00,1.21
6100.00,1.21
6099.00,1.21
6098.00,1.21
6097.00,1.21
6096.00,1.21
6095.00,1.21
6094.00,1.21
6093.00,1.22
6092.00,1.22
6091.00,1.22
6090.00,1.22
6089.00,1.22
6088.00,1.22
6087.00,1.22
6086.00,1.23
6085.00,1.23
6084.00,1.23
6083.00,1.23
6082.00,1.23
6081.00,1.23
6080.00,1.23
6079.00,1.24
6078.00,1.24
6077.00,1.24
6076.00,1.24
6075.00,1.24
6074.00,1.24
6073.00,1.24
6072.00,1.24
6071.00,1.24
6070.00,1.25
6069.00,1.25
6068.00,1.25
6067.00,1.25
6066.00,1.25
6065.00,1.25
6064.00,1.25
6063.00,1.25
6062.00,1.25
6061.00,1.25
6060.00,1.25
6059.00,1.25
6058.00,1.26
6057.00,1.26
6056.00,1.26
6055.00,1.26
6054.00,1.26
6053.00,1.26
6052.00,1.26
6051.00,1.26
6050.00,1.26
6049.00,1.26
6048.00,1.26
6047.00,1.26
6046.00,1.26
6045.00,1.27
6044.00,1.27
6043.00,1.27
6042.00,1.27
6041.00,1.27
6040.00,1.27
6039.00,1.27
6038.00,1.27
6037.00,1.27
6036.00,1.27
6035.00,1.27
6034.00,1.28
6033.00,1.28
6032.00,1.28
6031.00,1.28
6030.00,1.28
6029.00,1.28
6028.00,1.28
6027.00,1.28
6026.00,1.28
6025.00,1.28
6024.00,1.28
6023.00,1.28
6022.00,1.28
6021.00,1.28
6020.00,1.28
6019.00,1.28
6018.00,1.28
6017.00,1.28
6016.00,1.28
6015.00,1.28
6014.00,1.28
6013.00,1.28
6012.00,1.28
6011.00,1.28
6010.00,1.28
6009.00,1.28
6008.00,1.28
6007.00,1.28
6006.00,1.28
6005.00,1.28
6004.00,1.28
6003.00,1.28
6002.00,1.28
6001.00,1.28
6000.00,1.28
5999.00,1.28
5998.00,1.28
5997.00,1.27
5996.00,1.27
5995.00,1.27
5994.00,1.27
5993.00,1.27
5992.00,1.27
5991.00,1.27
5990.00,1.27
5989.00,1.26
5988.00,1.26
5987.00,1.26
5986.00,1.26
5985.00,1.25
5984.00,1.25
5983.00,1.25
5982.00,1.25
5981.00,1.24
5980.00,1.24
5979.00,1.23
5978.00,1.23
5977.00,1.23
5976.00,1.22
5975.00,1.22
5974.00,1.21
5973.00,1.20
5972.00,1.20
5971.00,1.19
5970.00,1.19
5969.00,1.18
5968.00,1.17
5967.00,1.17
5966.00,1.16
5965.00,1.15
5964.00,1.15
5963.00,1.14
5962.00,1.13
5961.00,1.13
5960.00,1.12
5959.00,1.11
5958.00,1.11
5957.00,1.10
5956.00,1.09
5955.00,1.09
5954.00,1.08
5953.00,1.08
5952.00,1.07
5951.00,1.06
5950.00,1.06
5949.00,1.06
5948.00,1.05
5947.00,1.05
5946.00,1.04
5945.00,1.04
5944.00,1.04
5943.00,1.03
5942.00,1.03
5941.00,1.03
5940.00,1.03
5939.00,1.03
5938.00,1.03
5937.00,1.02
5936.00,1.02
5935.00,1.02
5934.00,1.02
5933.00,1.02
5932.00,1.02
5931.00,1.02
5930.00,1.02
5929.00,1.02
5928.00,1.02
5927.00,1.02
5926.00,1.02
5925.00,1.01
5924.00,1.01
5923.00,1.01
5922.00,1.01
5921.00,1.01
5920.00,1.01
5919.00,1.00
5918.00,1.00
5917.00,1.00
5916.00,1.00
5915.00,0.99
5914.00,0.99
5913.00,0.99
5912.00,0.98
5911.00,0.98
5910.00,0.98
5909.00,0.98
5908.00,0.98
5907.00,0.97
5906.00,0.97
5905.00,0.97
5904.00,0.97
5903.00,0.97
5902.00,0.97
5901.00,0.97
5900.00,0.97
5899.00,0.97
5898.00,0.97
5897.00,0.97
5896.00,0.97
5895.00,0.97
5894.00,0.98
5893.00,0.98
5892.00,0.98
5891.00,0.98
5890.00,0.98
5889.00,0.99
5888.00,0.99
5887.00,0.99
5886.00,0.99
5885.00,0.99
5884.00,1.00
5883.00,1.00
5882.00,1.00
5881.00,1.00
5880.00,1.01
5879.00,1.01
5878.00,1.01
5877.00,1.02
5876.00,1.02
5875.00,1.02
5874.00,1.02
5873.00,1.03
5872.00,1.03
5871.00,1.03
5870.00,1.03
5869.00,1.04
5868.00,1.04
5867.00,1.04
5866.00,1.04
5865.00,1.04
5864.00,1.05
5863.00,1.05
5862.00,1.05
5861.00,1.05
5860.00,1.05
5859.00,1.05
5858.00,1.05
5857.00,1.06
5856.00,1.06
5855.00,1.06
5854.00,1.06
5853.00,1.06
5852.00,1.06
5851.00,1.06
5850.00,1.06
5849.00,1.06
5848.00,1.07
5847.00,1.07
5846.00,1.07
5845.00,1.07
5844.00,1.07
5843.00,1.07
5842.00,1.07
5841.00,1.07
5840.00,1.07
5839.00,1.07
5838.00,1.07
5837.00,1.07
5836.00,1.07
5835.00,1.06
5834.00,1.06
5833.00,1.06
5832.00,1.06
5831.00,1.06
5830.00,1.06
5829.00,1.06
5828.00,1.06
5827.00,1.06
5826.00,1.06
5825.00,1.06
5824.00,1.06
5823.00,1.06
5822.00,1.06
5821.00,1.06
5820.00,1.06
5819.00,1.06
5818.00,1.06
5817.00,1.06
5816.00,1.06
5815.00,1.07
5814.00,1.07
5813.00,1.07
5812.00,1.07
5811.00,1.07
5810.00,1.07
5809.00,1.07
5808.00,1.07
5807.00,1.07
5806.00,1.07
5805.00,1.07
5804.00,1.07
5803.00,1.07
5802.00,1.07
5801.00,1.07
5800.00,1.06
5799.00,1.06
5798.00,1.06
5797.00,1.06
5796.00,1.06
5795.00,1.05
5794.00,1.05
5793.00,1.05
5792.00,1.05
5791.00,1.05
5790.00,1.04
5789.00,1.04
5788.00,1.04
5787.00,1.04
5786.00,1.04
5785.00,1.03
5784.00,1.03
5783.00,1.03
5782.00,1.03
5781.00,1.03
5780.00,1.03
5779.00,1.03
5778.00,1.03
5777.00,1.03
5776.00,1.03
5775.00,1.02
5774.00,1.02
5773.00,1.02
5772.00,1.03
5771.00,1.03
5770.00,1.03
5769.00,1.03
5768.00,1.03
5767.00,1.03
5766.00,1.03
5765.00,1.03
5764.00,1.03
5763.00,1.04
5762.00,1.04
5761.00,1.04
5760.00,1.04
5759.00,1.04
5758.00,1.05
5757.00,1.05
5756.00,1.05
5755.00,1.05
5754.00,1.06
5753.00,1.06
5752.00,1.06
5751.00,1.07
5750.00,1.07
5749.00,1.07
5748.00,1.08
5747.00,1.08
5746.00,1.08
5745.00,1.08
5744.00,1.09
5743.00,1.09
5742.00,1.09
5741.00,1.10
5740.00,1.10
5739.00,1.10
5738.00,1.10
5737.00,1.11
5736.00,1.11
5735.00,1.11
5734.00,1.11
5733.00,1.11
5732.00,1.12
5731.00,1.12
5730.00,1.12
5729.00,1.12
5728.00,1.12
5727.00,1.12
5726.00,1.12
5725.00,1.12
5724.00,1.13
5723.00,1.13
5722.00,1.13
5721.00,1.13
5720.00,1.13
5719.00,1.13
5718.00,1.13
5717.00,1.13
5716.00,1.13
5715.00,1.13
5714.00,1.13
5713.00,1.13
5712.00,1.13
5711.00,1.13
5710.00,1.13
5709.00,1.13
5708.00,1.13
5707.00,1.13
5706.00,1.13
5705.00,1.13
5704.00,1.13
5703.00,1.13
5702.00,1.13
5701.00,1.12
5700.00,1.12
5699.00,1.12
5698.00,1.12
5697.00,1.12
5696.00,1.12
5695.00,1.11
5694.00,1.11
5693.00,1.11
5692.00,1.11
5691.00,1.11
5690.00,1.10
5689.00,1.10
5688.00,1.10
5687.00,1.10
5686.00,1.10
5685.00,1.10
5684.00,1.10
5683.00,1.09
5682.00,1.09
5681.00,1.09
5680.00,1.09
5679.00,1.09
5678.00,1.09
5677.00,1.09
5676.00,1.09
5675.00,1.09
5674.00,1.09
5673.00,1.09
5672.00,1.09
5671.00,1.09
5670.00,1.09
5669.00,1.09
5668.00,1.09
5667.00,1.10
5666.00,1.10
5665.00,1.10
5664.00,1.10
5663.00,1.10
5662.00,1.10
5661.00,1.10
5660.00,1.10
5659.00,1.11
5658.00,1.11
5657.00,1.11
5656.00,1.11
5655.00,1.11
5654.00,1.12
5653.00,1.12
5652.00,1.12
5651.00,1.12
5650.00,1.12
5649.00,1.13
5648.00,1.13
5647.00,1.13
5646.00,1.13
5645.00,1.13
5644.00,1.14
5643.00,1.14
5642.00,1.14
5641.00,1.14
5640.00,1.14
5639.00,1.15
5638.00,1.15
5637.00,1.15
5636.00,1.15
5635.00,1.15
5634.00,1.15
5633.00,1.16
5632.00,1.16
5631.00,1.16
5630.00,1.16
5629.00,1.16
5628.00,1.16
5627.00,1.17
5626.00,1.17
5625.00,1.17
5624.00,1.17
5623.00,1.17
5622.00,1.17
5621.00,1.18
5620.00,1.18
5619.00,1.18
5618.00,1.18
5617.00,1.18
5616.00,1.18
5615.00,1.18
5614.00,1.19
5613.00,1.19
5612.00,1.19
5611.00,1.19
5610.00,1.19
5609.00,1.19
5608.00,1.20
5607.00,1.20
5606.00,1.20
5605.00,1.20
5604.00,1.20
5603.00,1.20
5602.00,1.21
5601.00,1.21
5600.00,1.21
5599.00,1.21
5598.00,1.21
5597.00,1.22
5596.00,1.22
5595.00,1.22
5594.00,1.22
5593.00,1.22
5592.00,1.23
5591.00,1.23
5590.00,1.23
5589.00,1.23
5588.00,1.23
5587.00,1.23
5586.00,1.23
5585.00,1.23
5584.00,1.24
5583.00,1.24
5582.00,1.24
5581.00,1.24
5580.00,1.24
5579.00,1.24
5578.00,1.24
5577.00,1.24
5576.00,1.24
5575.00,1.24
5574.00,1.25
5573.00,1.25
5572.00,1.25
5571.00,1.25
5570.00,1.25
5569.00,1.25
5568.00,1.25
5567.00,1.25
5566.00,1.26
5565.00,1.26
5564.00,1.26
5563.00,1.26
5562.00,1.26
5561.00,1.26
5560.00,1.26
5559.00,1.27
5558.00,1.27
5557.00,1.27
5556.00,1.27
5555.00,1.27
5554.00,1.27
5553.00,1.27
5552.00,1.28
5551.00,1.28
5550.00,1.28
5549.00,1.28
5548.00,1.28
5547.00,1.29
5546.00,1.29
5545.00,1.29
5544.00,1.29
5543.00,1.29
5542.00,1.29
5541.00,1.29
5540.00,1.30
5539.00,1.30
5538.00,1.30
5537.00,1.30
5536.00,1.30
5535.00,1.30
5534.00,1.30
5533.00,1.30
5532.00,1.30
5531.00,1.31
5530.00,1.31
5529.00,1.31
5528.00,1.31
5527.00,1.31
5526.00,1.31
5525.00,1.31
5524.00,1.31
5523.00,1.31
5522.00,1.31
5521.00,1.31
5520.00,1.31
5519.00,1.31
5518.00,1.31
5517.00,1.32
5516.00,1.32
5515.00,1.32
5514.00,1.32
5513.00,1.32
5512.00,1.32
5511.00,1.32
5510.00,1.32
5509.00,1.32
5508.00,1.32
5507.00,1.32
5506.00,1.32
5505.00,1.32
5504.00,1.33
5503.00,1.33
5502.00,1.33
5501.00,1.33
5500.00,1.33
5499.00,1.33
5498.00,1.33
5497.00,1.33
5496.00,1.33
5495.00,1.33
5494.00,1.33
5493.00,1.33
5492.00,1.34
5491.00,1.34
5490.00,1.34
5489.00,1.34
5488.00,1.34
5487.00,1.34
5486.00,1.34
5485.00,1.34
5484.00,1.34
5483.00,1.35
5482.00,1.35
5481.00,1.35
5480.00,1.35
5479.00,1.35
5478.00,1.35
5477.00,1.35
5476.00,1.35
5475.00,1.35
5474.00,1.35
5473.00,1.36
5472.00,1.36
5471.00,1.36
5470.00,1.36
5469.00,1.36
5468.00,1.36
5467.00,1.36
5466.00,1.36
5465.00,1.36
5464.00,1.37
5463.00,1.37
5462.00,1.37
5461.00,1.37
5460.00,1.37
5459.00,1.37
5458.00,1.37
5457.00,1.38
5456.00,1.38
5455.00,1.38
5454.00,1.38
5453.00,1.38
5452.00,1.38
5451.00,1.38
5450.00,1.38
5449.00,1.38
5448.00,1.38
5447.00,1.38
5446.00,1.38
5445.00,1.38
5444.00,1.38
5443.00,1.38
5442.00,1.38
5441.00,1.38
5440.00,1.38
5439.00,1.38
5438.00,1.38
5437.00,1.38
5436.00,1.38
5435.00,1.38
5434.00,1.38
5433.00,1.38
5432.00,1.39
5431.00,1.39
5430.00,1.39
5429.00,1.39
5428.00,1.39
5427.00,1.39
5426.00,1.39
5425.00,1.39
5424.00,1.39
5423.00,1.39
5422.00,1.39
5421.00,1.39
5420.00,1.39
5419.00,1.39
5418.00,1.39
5417.00,1.39
5416.00,1.39
5415.00,1.39
5414.00,1.39
5413.00,1.39
5412.00,1.39
5411.00,1.39
5410.00,1.39
5409.00,1.39
5408.00,1.39
5407.00,1.39
5406.00,1.39
5405.00,1.39
5404.00,1.39
5403.00,1.39
5402.00,1.39
5401.00,1.39
5400.00,1.39
5399.00,1.38
5398.00,1.38
5397.00,1.38
5396.00,1.38
5395.00,1.38
5394.00,1.38
5393.00,1.38
5392.00,1.38
5391.00,1.38
5390.00,1.37
5389.00,1.37
5388.00,1.37
5387.00,1.37
5386.00,1.37
5385.00,1.36
5384.00,1.36
5383.00,1.36
5382.00,1.36
5381.00,1.35
5380.00,1.35
5379.00,1.35
5378.00,1.34
5377.00,1.34
5376.00,1.34
5375.00,1.33
5374.00,1.33
5373.00,1.32
5372.00,1.32
5371.00,1.31
5370.00,1.31
5369.00,1.30
5368.00,1.30
5367.00,1.29
5366.00,1.29
5365.00,1.28
5364.00,1.27
5363.00,1.27
5362.00,1.26
5361.00,1.25
5360.00,1.25
5359.00,1.24
5358.00,1.23
5357.00,1.23
5356.00,1.22
5355.00,1.21
5354.00,1.21
5353.00,1.20
5352.00,1.19
5351.00,1.18
5350.00,1.17
5349.00,1.17
5348.00,1.16
5347.00,1.15
5346.00,1.14
5345.00,1.14
5344.00,1.13
5343.00,1.12
5342.00,1.11
5341.00,1.10
5340.00,1.09
5339.00,1.09
5338.00,1.08
5337.00,1.07
5336.00,1.06
5335.00,1.05
5334.00,1.04
5333.00,1.04
5332.00,1.03
5331.00,1.02
5330.00,1.01
5329.00,1.00
5328.00,0.99
5327.00,0.99
5326.00,0.98
5325.00,0.97
5324.00,0.96
5323.00,0.96
5322.00,0.95
5321.00,0.94
5320.00,0.93
5319.00,0.93
5318.00,0.92
5317.00,0.91
5316.00,0.91
5315.00,0.90
5314.00,0.90
5313.00,0.89
5312.00,0.89
5311.00,0.88
5310.00,0.88
5309.00,0.87
5308.00,0.87
5307.00,0.86
5306.00,0.86
5305.00,0.85
5304.00,0.85
5303.00,0.85
5302.00,0.84
5301.00,0.84
5300.00,0.84
5299.00,0.84
5298.00,0.83
5297.00,0.83
5296.00,0.83
5295.00,0.83
5294.00,0.83
5293.00,0.83
5292.00,0.83
5291.00,0.83
5290.00,0.82
5289.00,0.82
5288.00,0.82
5287.00,0.82
5286.00,0.82
5285.00,0.82
5284.00,0.82
5283.00,0.82
5282.00,0.82
5281.00,0.82
5280.00,0.82
5279.00,0.82
5278.00,0.82
5277.00,0.81
5276.00,0.81
5275.00,0.81
5274.00,0.81
5273.00,0.81
5272.00,0.81
5271.00,0.81
5270.00,0.81
5269.00,0.81
5268.00,0.81
5267.00,0.81
5266.00,0.81
5265.00,0.81
5264.00,0.81
5263.00,0.81
5262.00,0.81
5261.00,0.81
5260.00,0.81
5259.00,0.81
5258.00,0.81
5257.00,0.81
5256.00,0.81
5255.00,0.81
5254.00,0.81
5253.00,0.81
5252.00,0.82
5251.00,0.82
5250.00,0.82
5249.00,0.82
5248.00,0.82
5247.00,0.82
5246.00,0.82
5245.00,0.82
5244.00,0.82
5243.00,0.82
5242.00,0.82
5241.00,0.82
5240.00,0.82
5239.00,0.82
5238.00,0.82
5237.00,0.82
5236.00,0.82
5235.00,0.82
5234.00,0.82
5233.00,0.82
5232.00,0.82
5231.00,0.82
5230.00,0.82
5229.00,0.82
5228.00,0.82
5227.00,0.82
5226.00,0.82
5225.00,0.82
5224.00,0.82
5223.00,0.82
5222.00,0.82
5221.00,0.82
5220.00,0.82
5219.00,0.82
5218.00,0.83
5217.00,0.83
5216.00,0.83
5215.00,0.83
5214.00,0.83
5213.00,0.83
5212.00,0.83
5211.00,0.83
5210.00,0.83
5209.00,0.83
5208.00,0.83
5207.00,0.83
5206.00,0.83
5205.00,0.83
5204.00,0.83
5203.00,0.83
5202.00,0.83
5201.00,0.83
5200.00,0.83
5199.00,0.83
5198.00,0.83
5197.00,0.83
5196.00,0.83
5195.00,0.83
5194.00,0.83
5193.00,0.83
5192.00,0.83
5191.00,0.84
5190.00,0.84
5189.00,0.84
5188.00,0.84
5187.00,0.84
5186.00,0.84
5185.00,0.84
5184.00,0.84
5183.00,0.84
5182.00,0.84
5181.00,0.84
5180.00,0.84
5179.00,0.84
5178.00,0.84
5177.00,0.84
5176.00,0.84
5175.00,0.84
5174.00,0.85
5173.00,0.85
5172.00,0.85
5171.00,0.85
5170.00,0.85
5169.00,0.85
5168.00,0.85
5167.00,0.85
5166.00,0.85
5165.00,0.85
5164.00,0.85
5163.00,0.85
5162.00,0.85
5161.00,0.85
5160.00,0.85
5159.00,0.85
5158.00,0.85
5157.00,0.85
5156.00,0.85
5155.00,0.85
5154.00,0.85
5153.00,0.85
5152.00,0.85
5151.00,0.86
5150.00,0.86
5149.00,0.86
5148.00,0.86
5147.00,0.86
5146.00,0.86
5145.00,0.86
5144.00,0.86
5143.00,0.86
5142.00,0.86
5141.00,0.86
5140.00,0.86
5139.00,0.86
5138.00,0.86
5137.00,0.86
5136.00,0.86
5135.00,0.86
5134.00,0.86
5133.00,0.86
5132.00,0.86
5131.00,0.87
5130.00,0.87
5129.00,0.87
5128.00,0.87
5127.00,0.87
5126.00,0.87
5125.00,0.87
5124.00,0.87
5123.00,0.87
5122.00,0.87
5121.00,0.87
5120.00,0.87
5119.00,0.87
5118.00,0.87
5117.00,0.87
5116.00,0.87
5115.00,0.87
5114.00,0.87
5113.00,0.87
5112.00,0.87
5111.00,0.87
5110.00,0.87
5109.00,0.87
5108.00,0.87
5107.00,0.87
5106.00,0.87
5105.00,0.87
5104.00,0.87
5103.00,0.87
5102.00,0.87
5101.00,0.87
5100.00,0.87
5099.00,0.87
5098.00,0.88
5097.00,0.88
5096.00,0.88
5095.00,0.88
5094.00,0.88
5093.00,0.88
5092.00,0.88
5091.00,0.88
5090.00,0.88
5089.00,0.88
5088.00,0.88
5087.00,0.88
5086.00,0.88
5085.00,0.88
5084.00,0.88
5083.00,0.88
5082.00,0.88
5081.00,0.88
5080.00,0.89
5079.00,0.89
5078.00,0.89
5077.00,0.89
5076.00,0.89
5075.00,0.89
5074.00,0.89
5073.00,0.89
5072.00,0.89
5071.00,0.89
5070.00,0.89
5069.00,0.89
5068.00,0.89
5067.00,0.89
5066.00,0.89
5065.00,0.89
5064.00,0.89
5063.00,0.89
5062.00,0.89
5061.00,0.89
5060.00,0.89
5059.00,0.89
5058.00,0.89
5057.00,0.89
5056.00,0.89
5055.00,0.89
5054.00,0.89
5053.00,0.89
5052.00,0.90
5051.00,0.90
5050.00,0.90
5049.00,0.90
5048.00,0.90
5047.00,0.90
5046.00,0.90
5045.00,0.90
5044.00,0.90
5043.00,0.90
5042.00,0.90
5041.00,0.90
5040.00,0.90
5039.00,0.90
5038.00,0.90
5037.00,0.90
5036.00,0.90
5035.00,0.90
5034.00,0.90
5033.00,0.91
5032.00,0.91
5031.00,0.91
5030.00,0.91
5029.00,0.91
5028.00,0.91
5027.00,0.91
5026.00,0.91
5025.00,0.91
5024.00,0.91
5023.00,0.91
5022.00,0.91
5021.00,0.91
5020.00,0.91
5019.00,0.92
5018.00,0.92
5017.00,0.92
5016.00,0.92
5015.00,0.92
5014.00,0.92
5013.00,0.92
5012.00,0.92
5011.00,0.92
5010.00,0.92
5009.00,0.92
5008.00,0.92
5007.00,0.92
5006.00,0.92
5005.00,0.92
5004.00,0.92
5003.00,0.92
5002.00,0.92
5001.00,0.92
5000.00,0.92
4999.00,0.92
4998.00,0.93
4997.00,0.93
4996.00,0.93
4995.00,0.93
4994.00,0.93
4993.00,0.93
4992.00,0.93
4991.00,0.93
4990.00,0.93
4989.00,0.93
4988.00,0.93
4987.00,0.93
4986.00,0.93
4985.00,0.93
4984.00,0.94
4983.00,0.94
4982.00,0.94
4981.00,0.94
4980.00,0.94
4979.00,0.94
4978.00,0.94
4977.00,0.94
4976.00,0.94
4975.00,0.94
4974.00,0.94
4973.00,0.94
4972.00,0.95
4971.00,0.95
4970.00,0.95
4969.00,0.95
4968.00,0.95
4967.00,0.95
4966.00,0.95
4965.00,0.95
4964.00,0.95
4963.00,0.95
4962.00,0.95
4961.00,0.95
4960.00,0.95
4959.00,0.95
4958.00,0.95
4957.00,0.95
4956.00,0.95
4955.00,0.95
4954.00,0.95
4953.00,0.95
4952.00,0.95
4951.00,0.95
4950.00,0.95
4949.00,0.95
4948.00,0.95
4947.00,0.95
4946.00,0.95
4945.00,0.95
4944.00,0.95
4943.00,0.95
4942.00,0.96
4941.00,0.96
4940.00,0.96
4939.00,0.96
4938.00,0.96
4937.00,0.96
4936.00,0.96
4935.00,0.96
4934.00,0.96
4933.00,0.96
4932.00,0.96
4931.00,0.96
4930.00,0.97
4929.00,0.97
4928.00,0.97
4927.00,0.97
4926.00,0.97
4925.00,0.97
4924.00,0.97
4923.00,0.97
4922.00,0.97
4921.00,0.97
4920.00,0.97
4919.00,0.97
4918.00,0.97
4917.00,0.97
4916.00,0.97
4915.00,0.97
4914.00,0.97
4913.00,0.97
4912.00,0.97
4911.00,0.97
4910.00,0.97
4909.00,0.97
4908.00,0.97
4907.00,0.97
4906.00,0.97
4905.00,0.97
4904.00,0.97
4903.00,0.98
4902.00,0.98
4901.00,0.98
4900.00,0.98
4899.00,0.98
4898.00,0.98
4897.00,0.98
4896.00,0.98
4895.00,0.98
4894.00,0.98
4893.00,0.98
4892.00,0.98
4891.00,0.98
4890.00,0.98
4889.00,0.98
4888.00,0.98
4887.00,0.98
4886.00,0.99
4885.00,0.99
4884.00,0.99
4883.00,0.99
4882.00,0.99
4881.00,0.99
4880.00,0.99
4879.00,0.99
4878.00,0.99
4877.00,0.99
4876.00,0.99
4875.00,0.99
4874.00,0.99
4873.00,0.99
4872.00,0.99
4871.00,1.00
4870.00,1.00
4869.00,1.00
4868.00,1.00
4867.00,1.00
4866.00,1.00
4865.00,1.00
4864.00,1.00
4863.00,1.00
4862.00,1.00
4861.00,1.00
4860.00,1.00
4859.00,1.00
4858.00,1.00
4857.00,1.00
4856.00,0.99
4855.00,0.99
4854.00,0.99
4853.00,1.00
4852.00,1.00
4851.00,1.00
4850.00,1.00
4849.00,1.00
4848.00,1.00
4847.00,1.00
4846.00,1.00
4845.00,1.00
4844.00,1.00
4843.00,1.00
4842.00,1.00
4841.00,1.00
4840.00,1.00
4839.00,1.00
4838.00,1.00
4837.00,1.00
4836.00,1.00
4835.00,1.00
4834.00,1.00
4833.00,1.00
4832.00,1.00
4831.00,1.01
4830.00,1.01
4829.00,1.01
4828.00,1.01
4827.00,1.01
4826.00,1.01
4825.00,1.01
4824.00,1.01
4823.00,1.01
4822.00,1.01
4821.00,1.01
4820.00,1.01
4819.00,1.01
4818.00,1.01
4817.00,1.01
4816.00,1.01
4815.00,1.02
4814.00,1.02
4813.00,1.02
4812.00,1.02
4811.00,1.02
4810.00,1.02
4809.00,1.02
4808.00,1.02
4807.00,1.02
4806.00,1.02
4805.00,1.02
4804.00,1.02
4803.00,1.02
4802.00,1.02
4801.00,1.02
4800.00,1.02
4799.00,1.02
4798.00,1.02
4797.00,1.03
4796.00,1.03
4795.00,1.03
4794.00,1.03
4793.00,1.03
4792.00,1.03
4791.00,1.03
4790.00,1.03
4789.00,1.03
4788.00,1.03
4787.00,1.03
4786.00,1.04
4785.00,1.04
4784.00,1.04
4783.00,1.04
4782.00,1.04
4781.00,1.04
4780.00,1.04
4779.00,1.05
4778.00,1.05
4777.00,1.05
4776.00,1.05
4775.00,1.05
4774.00,1.05
4773.00,1.05
4772.00,1.05
4771.00,1.05
4770.00,1.05
4769.00,1.05
4768.00,1.05
4767.00,1.05
4766.00,1.05
4765.00,1.05
4764.00,1.05
4763.00,1.05
4762.00,1.06
4761.00,1.06
4760.00,1.06
4759.00,1.06
4758.00,1.06
4757.00,1.06
4756.00,1.06
4755.00,1.06
4754.00,1.06
4753.00,1.07
4752.00,1.07
4751.00,1.07
4750.00,1.07
4749.00,1.07
4748.00,1.07
4747.00,1.07
4746.00,1.07
4745.00,1.07
4744.00,1.07
4743.00,1.07
4742.00,1.07
4741.00,1.07
4740.00,1.07
4739.00,1.07
4738.00,1.07
4737.00,1.07
4736.00,1.08
4735.00,1.08
4734.00,1.08
4733.00,1.08
4732.00,1.08
4731.00,1.08
4730.00,1.08
4729.00,1.08
4728.00,1.08
4727.00,1.08
4726.00,1.08
4725.00,1.09
4724.00,1.09
4723.00,1.09
4722.00,1.09
4721.00,1.09
4720.00,1.09
4719.00,1.09
4718.00,1.09
4717.00,1.09
4716.00,1.10
4715.00,1.10
4714.00,1.10
4713.00,1.10
4712.00,1.10
4711.00,1.10
4710.00,1.10
4709.00,1.10
4708.00,1.10
4707.00,1.10
4706.00,1.10
4705.00,1.10
4704.00,1.11
4703.00,1.11
4702.00,1.11
4701.00,1.11
4700.00,1.11
4699.00,1.11
4698.00,1.11
4697.00,1.12
4696.00,1.12
4695.00,1.12
4694.00,1.12
4693.00,1.12
4692.00,1.12
4691.00,1.13
4690.00,1.13
4689.00,1.13
4688.00,1.13
4687.00,1.13
4686.00,1.13
4685.00,1.13
4684.00,1.13
4683.00,1.14
4682.00,1.14
4681.00,1.14
4680.00,1.14
4679.00,1.14
4678.00,1.14
4677.00,1.14
4676.00,1.14
4675.00,1.14
4674.00,1.14
4673.00,1.14
4672.00,1.14
4671.00,1.15
4670.00,1.15
4669.00,1.15
4668.00,1.15
4667.00,1.15
4666.00,1.15
4665.00,1.15
4664.00,1.15
4663.00,1.15
4662.00,1.15
4661.00,1.16
4660.00,1.16
4659.00,1.16
4658.00,1.16
4657.00,1.16
4656.00,1.16
4655.00,1.16
4654.00,1.17
4653.00,1.17
4652.00,1.17
4651.00,1.17
4650.00,1.17
4649.00,1.17
4648.00,1.17
4647.00,1.18
4646.00,1.18
4645.00,1.18
4644.00,1.18
4643.00,1.18
4642.00,1.18
4641.00,1.18
4640.00,1.18
4639.00,1.18
4638.00,1.18
4637.00,1.18
4636.00,1.18
4635.00,1.18
4634.00,1.18
4633.00,1.18
4632.00,1.18
4631.00,1.18
4630.00,1.18
4629.00,1.18
4628.00,1.18
4627.00,1.18
4626.00,1.18
4625.00,1.18
4624.00,1.18
4623.00,1.18
4622.00,1.18
4621.00,1.18
4620.00,1.18
4619.00,1.18
4618.00,1.18
4617.00,1.18
4616.00,1.19
4615.00,1.19
4614.00,1.19
4613.00,1.19
4612.00,1.19
4611.00,1.19
4610.00,1.19
4609.00,1.19
4608.00,1.19
4607.00,1.19
4606.00,1.19
4605.00,1.19
4604.00,1.20
4603.00,1.20
4602.00,1.20
4601.00,1.20
4600.00,1.20
4599.00,1.20
4598.00,1.20
4597.00,1.20
4596.00,1.20
4595.00,1.20
4594.00,1.20
4593.00,1.20
4592.00,1.20
4591.00,1.20
4590.00,1.20
4589.00,1.20
4588.00,1.20
4587.00,1.21
4586.00,1.21
4585.00,1.21
4584.00,1.21
4583.00,1.21
4582.00,1.21
4581.00,1.21
4580.00,1.21
4579.00,1.21
4578.00,1.21
4577.00,1.21
4576.00,1.21
4575.00,1.22
4574.00,1.22
4573.00,1.22
4572.00,1.22
4571.00,1.22
4570.00,1.22
4569.00,1.22
4568.00,1.22
4567.00,1.22
4566.00,1.22
4565.00,1.22
4564.00,1.22
4563.00,1.23
4562.00,1.23
4561.00,1.23
4560.00,1.23
4559.00,1.23
4558.00,1.23
4557.00,1.23
4556.00,1.23
4555.00,1.24
4554.00,1.24
4553.00,1.24
4552.00,1.24
4551.00,1.24
4550.00,1.24
4549.00,1.24
4548.00,1.24
4547.00,1.24
4546.00,1.24
4545.00,1.24
4544.00,1.24
4543.00,1.24
4542.00,1.24
4541.00,1.24
4540.00,1.24
4539.00,1.24
4538.00,1.24
4537.00,1.24
4536.00,1.24
4535.00,1.24
4534.00,1.24
4533.00,1.24
4532.00,1.24
4531.00,1.24
4530.00,1.24
4529.00,1.24
4528.00,1.24
4527.00,1.24
4526.00,1.24
4525.00,1.24
4524.00,1.25
4523.00,1.25
4522.00,1.25
4521.00,1.25
4520.00,1.25
4519.00,1.25
4518.00,1.25
4517.00,1.25
4516.00,1.25
4515.00,1.25
4514.00,1.25
4513.00,1.25
4512.00,1.25
4511.00,1.24
4510.00,1.24
4509.00,1.24
4508.00,1.24
4507.00,1.24
4506.00,1.24
4505.00,1.24
4504.00,1.24
4503.00,1.24
4502.00,1.24
4501.00,1.24
4500.00,1.24
4499.00,1.24
4498.00,1.24
4497.00,1.24
4496.00,1.24
4495.00,1.24
4494.00,1.24
4493.00,1.24
4492.00,1.24
4491.00,1.24
4490.00,1.24
4489.00,1.24
4488.00,1.24
4487.00,1.24
4486.00,1.24
4485.00,1.24
4484.00,1.24
4483.00,1.24
4482.00,1.24
4481.00,1.24
4480.00,1.24
4479.00,1.24
4478.00,1.24
4477.00,1.23
4476.00,1.23
4475.00,1.23
4474.00,1.23
4473.00,1.23
4472.00,1.23
4471.00,1.23
4470.00,1.23
4469.00,1.23
4468.00,1.23
4467.00,1.23
4466.00,1.23
4465.00,1.23
4464.00,1.23
4463.00,1.22
4462.00,1.22
4461.00,1.22
4460.00,1.22
4459.00,1.22
4458.00,1.22
4457.00,1.22
4456.00,1.22
4455.00,1.21
4454.00,1.21
4453.00,1.21
4452.00,1.21
4451.00,1.21
4450.00,1.21
4449.00,1.20
4448.00,1.20
4447.00,1.20
4446.00,1.20
4445.00,1.20
4444.00,1.19
4443.00,1.19
4442.00,1.19
4441.00,1.19
4440.00,1.19
4439.00,1.19
4438.00,1.19
4437.00,1.18
4436.00,1.18
4435.00,1.18
4434.00,1.18
4433.00,1.18
4432.00,1.18
4431.00,1.18
4430.00,1.18
4429.00,1.17
4428.00,1.17
4427.00,1.17
4426.00,1.17
4425.00,1.17
4424.00,1.17
4423.00,1.17
4422.00,1.17
4421.00,1.17
4420.00,1.17
4419.00,1.17
4418.00,1.17
4417.00,1.17
4416.00,1.17
4415.00,1.17
4414.00,1.17
4413.00,1.17
4412.00,1.17
4411.00,1.17
4410.00,1.17
4409.00,1.17
4408.00,1.17
4407.00,1.17
4406.00,1.17
4405.00,1.17
4404.00,1.17
4403.00,1.17
4402.00,1.17
4401.00,1.18
4400.00,1.18
4399.00,1.18
4398.00,1.18
4397.00,1.18
4396.00,1.18
4395.00,1.18
4394.00,1.18
4393.00,1.18
4392.00,1.18
4391.00,1.19
4390.00,1.19
4389.00,1.19
4388.00,1.19
4387.00,1.19
4386.00,1.19
4385.00,1.19
4384.00,1.19
4383.00,1.19
4382.00,1.19
4381.00,1.20
4380.00,1.20
4379.00,1.20
4378.00,1.20
4377.00,1.20
4376.00,1.20
4375.00,1.20
4374.00,1.20
4373.00,1.20
4372.00,1.20
4371.00,1.20
4370.00,1.20
4369.00,1.20
4368.00,1.20
4367.00,1.21
4366.00,1.21
4365.00,1.21
4364.00,1.21
4363.00,1.21
4362.00,1.21
4361.00,1.21
4360.00,1.21
4359.00,1.21
4358.00,1.21
4357.00,1.21
4356.00,1.21
4355.00,1.21
4354.00,1.21
4353.00,1.21
4352.00,1.21
4351.00,1.21
4350.00,1.21
4349.00,1.22
4348.00,1.22
4347.00,1.22
4346.00,1.22
4345.00,1.22
4344.00,1.22
4343.00,1.22
4342.00,1.22
4341.00,1.22
4340.00,1.22
4339.00,1.22
4338.00,1.22
4337.00,1.22
4336.00,1.22
4335.00,1.23
4334.00,1.23
4333.00,1.23
4332.00,1.23
4331.00,1.23
4330.00,1.23
4329.00,1.23
4328.00,1.23
4327.00,1.23
4326.00,1.23
4325.00,1.24
4324.00,1.24
4323.00,1.24
4322.00,1.24
4321.00,1.24
4320.00,1.24
4319.00,1.24
4318.00,1.24
4317.00,1.25
4316.00,1.25
4315.00,1.25
4314.00,1.25
4313.00,1.25
4312.00,1.25
4311.00,1.25
4310.00,1.25
4309.00,1.26
4308.00,1.26
4307.00,1.26
4306.00,1.26
4305.00,1.26
4304.00,1.26
4303.00,1.26
4302.00,1.26
4301.00,1.26
4300.00,1.26
4299.00,1.26
4298.00,1.26
4297.00,1.26
4296.00,1.25
4295.00,1.25
4294.00,1.25
4293.00,1.25
4292.00,1.25
4291.00,1.25
4290.00,1.25
4289.00,1.25
4288.00,1.25
4287.00,1.25
4286.00,1.25
4285.00,1.25
4284.00,1.25
4283.00,1.26
4282.00,1.26
4281.00,1.26
4280.00,1.26
4279.00,1.26
4278.00,1.26
4277.00,1.26
4276.00,1.27
4275.00,1.27
4274.00,1.27
4273.00,1.27
4272.00,1.27
4271.00,1.27
4270.00,1.27
4269.00,1.27
4268.00,1.27
4267.00,1.27
4266.00,1.27
4265.00,1.27
4264.00,1.27
4263.00,1.27
4262.00,1.27
4261.00,1.27
4260.00,1.27
4259.00,1.27
4258.00,1.27
4257.00,1.27
4256.00,1.27
4255.00,1.27
4254.00,1.27
4253.00,1.27
4252.00,1.27
4251.00,1.27
4250.00,1.27
4249.00,1.27
4248.00,1.27
4247.00,1.27
4246.00,1.27
4245.00,1.28
4244.00,1.28
4243.00,1.28
4242.00,1.28
4241.00,1.28
4240.00,1.28
4239.00,1.28
4238.00,1.28
4237.00,1.28
4236.00,1.28
4235.00,1.28
4234.00,1.28
4233.00,1.28
4232.00,1.28
4231.00,1.28
4230.00,1.28
4229.00,1.28
4228.00,1.28
4227.00,1.28
4226.00,1.28
4225.00,1.28
4224.00,1.28
4223.00,1.28
4222.00,1.29
4221.00,1.29
4220.00,1.29
4219.00,1.29
4218.00,1.29
4217.00,1.29
4216.00,1.29
4215.00,1.29
4214.00,1.29
4213.00,1.29
4212.00,1.29
4211.00,1.29
4210.00,1.29
4209.00,1.29
4208.00,1.29
4207.00,1.29
4206.00,1.29
4205.00,1.29
4204.00,1.29
4203.00,1.29
4202.00,1.29
4201.00,1.30
4200.00,1.30
4199.00,1.30
4198.00,1.30
4197.00,1.30
4196.00,1.30
4195.00,1.30
4194.00,1.30
4193.00,1.30
4192.00,1.31
4191.00,1.31
4190.00,1.31
4189.00,1.31
4188.00,1.31
4187.00,1.31
4186.00,1.31
4185.00,1.31
4184.00,1.31
4183.00,1.31
4182.00,1.31
4181.00,1.31
4180.00,1.31
4179.00,1.31
4178.00,1.31
4177.00,1.31
4176.00,1.31
4175.00,1.31
4174.00,1.31
4173.00,1.31
4172.00,1.31
4171.00,1.31
4170.00,1.31
4169.00,1.31
4168.00,1.31
4167.00,1.31
4166.00,1.31
4165.00,1.31
4164.00,1.32
4163.00,1.32
4162.00,1.32
4161.00,1.32
4160.00,1.32
4159.00,1.32
4158.00,1.32
4157.00,1.33
4156.00,1.33
4155.00,1.33
4154.00,1.33
4153.00,1.33
4152.00,1.33
4151.00,1.34
4150.00,1.34
4149.00,1.34
4148.00,1.34
4147.00,1.34
4146.00,1.34
4145.00,1.34
4144.00,1.34
4143.00,1.34
4142.00,1.34
4141.00,1.34
4140.00,1.34
4139.00,1.35
4138.00,1.35
4137.00,1.35
4136.00,1.35
4135.00,1.35
4134.00,1.35
4133.00,1.35
4132.00,1.35
4131.00,1.35
4130.00,1.35
4129.00,1.35
4128.00,1.35
4127.00,1.35
4126.00,1.35
4125.00,1.35
4124.00,1.35
4123.00,1.35
4122.00,1.35
4121.00,1.35
4120.00,1.35
4119.00,1.35
4118.00,1.35
4117.00,1.34
4116.00,1.34
4115.00,1.34
4114.00,1.34
4113.00,1.34
4112.00,1.34
4111.00,1.34
4110.00,1.34
4109.00,1.34
4108.00,1.34
4107.00,1.34
4106.00,1.34
4105.00,1.34
4104.00,1.34
4103.00,1.34
4102.00,1.34
4101.00,1.34
4100.00,1.34
4099.00,1.34
4098.00,1.34
4097.00,1.34
4096.00,1.34
4095.00,1.34
4094.00,1.34
4093.00,1.34
4092.00,1.34
4091.00,1.34
4090.00,1.34
4089.00,1.34
4088.00,1.34
4087.00,1.34
4086.00,1.35
4085.00,1.35
4084.00,1.35
4083.00,1.35
4082.00,1.35
4081.00,1.35
4080.00,1.35
4079.00,1.35
4078.00,1.35
4077.00,1.35
4076.00,1.35
4075.00,1.35
4074.00,1.35
4073.00,1.35
4072.00,1.35
4071.00,1.35
4070.00,1.35
4069.00,1.35
4068.00,1.35
4067.00,1.36
4066.00,1.36
4065.00,1.36
4064.00,1.36
4063.00,1.36
4062.00,1.36
4061.00,1.36
4060.00,1.36
4059.00,1.36
4058.00,1.36
4057.00,1.36
4056.00,1.36
4055.00,1.36
4054.00,1.36
4053.00,1.36
4052.00,1.36
4051.00,1.36
4050.00,1.36
4049.00,1.36
4048.00,1.36
4047.00,1.36
4046.00,1.36
4045.00,1.36
4044.00,1.36
4043.00,1.36
4042.00,1.36
4041.00,1.36
4040.00,1.36
4039.00,1.36
4038.00,1.37
4037.00,1.37
4036.00,1.37
4035.00,1.37
4034.00,1.37
4033.00,1.37
4032.00,1.37
4031.00,1.38
4030.00,1.38
4029.00,1.38
4028.00,1.38
4027.00,1.38
4026.00,1.38
4025.00,1.38
4024.00,1.39
4023.00,1.39
4022.00,1.39
4021.00,1.39
4020.00,1.39
4019.00,1.39
4018.00,1.39
4017.00,1.39
4016.00,1.39
4015.00,1.39
4014.00,1.39
4013.00,1.39
4012.00,1.39
4011.00,1.39
4010.00,1.39
4009.00,1.39
4008.00,1.39
4007.00,1.39
4006.00,1.39
4005.00,1.39
4004.00,1.39
4003.00,1.39
4002.00,1.39
4001.00,1.39
4000.00,1.39
